Experiment	bias spectroscopy	
Date	19.01.2016 18:56:00	
User		
X (m)	51.1794E-9	
Y (m)	256.921E-9	
Z (m)	-132.72E-9	
Z offset (m)	0E+0	
Settling time (s)	200E-6	
Integration time (s)	5E-3	
Z-Ctrl hold	TRUE	
Final Z (m)	N/A	
Filter type	None	
Order		
Cutoff frq		
Comment01	MnPc/Pb(111)	
Comment02	dz =00pm	
Comment03	7 Sweeps	
Comment04	MagField =0.T	
Comment05	Divider 1:10	
Comment06	Setpoint:5mV,200 pA	
Comment07	Lockin: 50uVrms,5ms,5mV	
Comment08	Gain:9; 912Hz modulation	
Comment09	T=1.06K	
Bias>Bias (V)	5E-3	
Bias>Calibration (V/V)	81.475E-3	
Bias>Offset (V)	1.046E-3	
Bias Spectroscopy>Sweep Start (V)	5E-3	
Bias Spectroscopy>Sweep End (V)	-5E-3	
Bias Spectroscopy>Num Pixel	2000	
Bias Spectroscopy>Z Avg time (s)	500E-3	
Bias Spectroscopy>Z offset (m)	0E+0	
Bias Spectroscopy>1st Settling time (s)	500E-3	
Bias Spectroscopy>Settling time (s)	200E-6	
Bias Spectroscopy>Integration time (s)	5E-3	
Bias Spectroscopy>End Settling time (s)	500E-3	
Bias Spectroscopy>Z control time (s)	500E-3	
Bias Spectroscopy>Max Slew rate (V/s)	Inf	
Bias Spectroscopy>backward sweep	TRUE	
Bias Spectroscopy>Z-controller hold	TRUE	
Bias Spectroscopy>Number of sweeps	7	
Bias Spectroscopy>Channels	Current (A);X% LockIn (V);Y% LockIn (V)	
Bias Spectroscopy>Reset Bias	TRUE	
Bias Spectroscopy>Record final Z	FALSE	
Bias Spectroscopy>Lock-In run	FALSE	
Bias Spectroscopy>Sweep mode	Linear	
Bias Spectroscopy>MultiLine Settings : Segment Start (V), Segment End (V), Settling (s), Integration (s), Steps (xn)	100E-3,3.3E-3,100E-6,10E-3,2500;3.3E-3,-3.3E-3,100E-6,10E-3,10;-3.3E-3,-100E-3,100E-6,10E-3,2500	
Current>Current (A)	200.067E-12	
Current>Calibration (A/V)	999.99900E-12	
Current>Offset (A)	-455.429E-15	
Current>Gain	LN 10^9	
Z-Controller>Z (m)	-132.718E-9	
Z-Controller>Controller name	log Current	
Z-Controller>Controller status	ON	
Z-Controller>Setpoint	200E-12	
Z-Controller>Setpoint unit	A	
Z-Controller>P gain	2.96994E-12	
Z-Controller>I gain	67.0321E-9	
Z-Controller>Time const (s)	44.3062E-6	
Z-Controller>TipLift (m)	0E+0	
Z-Controller>Switch off delay (s)	50E-3	
Current (A)	199.961E-12	
Z (m)	-132.718E-9	

[DATA]
Bias calc (V)	Current (A)	X% LockIn (V)	Y% LockIn (V)	Current [bwd] (A)	X% LockIn [bwd] (V)	Y% LockIn [bwd] (V)
5.00000E-3	197.930E-12	652.768E-3	-26.5674E-3	198.284E-12	653.260E-3	-70.5387E-3
4.99500E-3	198.967E-12	675.475E-3	-4.86000E-3	199.719E-12	650.626E-3	-49.9090E-3
4.98999E-3	199.423E-12	692.239E-3	10.8717E-3	200.334E-12	646.435E-3	-31.7021E-3
4.98499E-3	200.212E-12	667.655E-3	9.48643E-3	199.444E-12	636.902E-3	-41.6355E-3
4.97999E-3	201.360E-12	643.821E-3	7.44329E-3	198.719E-12	641.021E-3	-39.3458E-3
4.97499E-3	201.727E-12	644.616E-3	8.23110E-3	199.229E-12	659.402E-3	889.099E-6
4.96998E-3	201.519E-12	639.213E-3	2.09228E-3	200.166E-12	662.655E-3	7.11764E-3
4.96498E-3	201.200E-12	636.777E-3	-6.75918E-3	198.879E-12	655.594E-3	-18.0882E-3
4.95998E-3	202.216E-12	651.900E-3	-2.60950E-3	197.859E-12	652.353E-3	-20.8906E-3
4.95498E-3	200.962E-12	676.648E-3	6.97396E-3	197.561E-12	635.309E-3	-36.7598E-3
4.94997E-3	200.404E-12	696.295E-3	2.75616E-3	197.606E-12	623.617E-3	-59.3834E-3
4.94497E-3	199.248E-12	684.227E-3	-12.0351E-3	196.767E-12	649.952E-3	-27.0924E-3
4.93997E-3	198.740E-12	663.061E-3	-18.7337E-3	196.267E-12	690.200E-3	26.5484E-3
4.93497E-3	196.836E-12	661.301E-3	-5.23068E-3	196.347E-12	698.853E-3	34.2270E-3
4.92996E-3	196.196E-12	666.792E-3	6.50174E-3	196.072E-12	676.820E-3	4.68422E-3
4.92496E-3	193.913E-12	647.884E-3	-20.5611E-3	195.882E-12	659.382E-3	-28.0443E-3
4.91996E-3	193.662E-12	625.959E-3	-66.2804E-3	195.657E-12	643.439E-3	-43.6207E-3
4.91496E-3	194.259E-12	634.605E-3	-72.5027E-3	195.678E-12	630.783E-3	-52.1847E-3
4.90995E-3	193.896E-12	647.657E-3	-43.0294E-3	195.281E-12	631.173E-3	-48.3237E-3
4.90495E-3	193.819E-12	639.789E-3	-18.0780E-3	195.983E-12	632.890E-3	-26.0733E-3
4.89995E-3	194.360E-12	622.928E-3	-7.71312E-3	196.071E-12	653.918E-3	-9.43031E-3
4.89495E-3	194.767E-12	632.238E-3	-22.4166E-3	195.381E-12	675.835E-3	-35.9248E-3
4.88995E-3	195.237E-12	658.279E-3	-49.9970E-3	196.132E-12	671.363E-3	-54.3163E-3
4.88494E-3	195.105E-12	676.882E-3	-61.9208E-3	196.076E-12	675.097E-3	-14.1649E-3
4.87994E-3	195.828E-12	676.417E-3	-53.1784E-3	196.641E-12	683.378E-3	-4.18546E-3
4.87494E-3	195.840E-12	654.277E-3	-39.4462E-3	194.271E-12	682.728E-3	-47.0461E-3
4.86993E-3	195.684E-12	646.575E-3	-21.6122E-3	193.831E-12	681.317E-3	-72.9499E-3
4.86493E-3	194.669E-12	665.538E-3	3.46385E-3	194.767E-12	674.309E-3	-75.0307E-3
4.85993E-3	195.677E-12	658.223E-3	22.6116E-3	196.972E-12	672.207E-3	-57.7891E-3
4.85493E-3	193.401E-12	619.470E-3	10.9887E-3	194.632E-12	669.192E-3	-10.1223E-3
4.84992E-3	192.541E-12	596.224E-3	-3.14846E-3	193.578E-12	650.385E-3	12.4016E-3
4.84492E-3	191.081E-12	607.067E-3	19.5002E-3	195.667E-12	650.767E-3	1.80654E-3
4.83992E-3	190.783E-12	628.247E-3	35.4236E-3	195.772E-12	671.158E-3	350.847E-6
4.83492E-3	189.904E-12	644.097E-3	22.7447E-3	194.786E-12	658.171E-3	-176.008E-6
4.82991E-3	188.670E-12	663.793E-3	5.04512E-3	192.836E-12	635.502E-3	-1.68538E-3
4.82491E-3	188.055E-12	667.585E-3	-3.87535E-3	194.427E-12	633.810E-3	-3.23620E-3
4.81991E-3	188.300E-12	653.907E-3	73.5560E-6	193.215E-12	641.634E-3	-849.863E-6
4.81491E-3	188.297E-12	647.649E-3	23.5278E-3	193.395E-12	650.650E-3	-15.9507E-3
4.80990E-3	188.309E-12	652.586E-3	22.9389E-3	191.548E-12	645.261E-3	-26.1145E-3
4.80490E-3	188.626E-12	647.483E-3	-11.4581E-3	191.870E-12	628.369E-3	9.83325E-3
4.79990E-3	188.091E-12	646.557E-3	-21.6539E-3	191.198E-12	634.607E-3	27.3958E-3
4.79490E-3	188.329E-12	647.938E-3	3.98156E-3	191.570E-12	658.936E-3	5.78616E-3
4.78989E-3	188.522E-12	647.770E-3	23.5553E-3	190.933E-12	663.044E-3	-2.08744E-3
4.78489E-3	189.378E-12	649.478E-3	6.86143E-3	190.589E-12	663.355E-3	-3.02000E-3
4.77989E-3	188.475E-12	651.885E-3	-14.0708E-3	190.525E-12	666.631E-3	-27.8560E-3
4.77489E-3	189.058E-12	655.557E-3	-24.8244E-3	189.965E-12	657.884E-3	-42.4001E-3
4.76988E-3	189.680E-12	645.183E-3	-33.4790E-3	190.176E-12	648.806E-3	-21.3090E-3
4.76488E-3	189.389E-12	634.691E-3	-32.4769E-3	189.811E-12	650.823E-3	-6.97659E-3
4.75988E-3	188.574E-12	647.717E-3	-22.4036E-3	190.366E-12	672.504E-3	-22.3977E-3
4.75488E-3	188.280E-12	670.945E-3	-16.5166E-3	190.086E-12	693.288E-3	-17.2083E-3
4.74988E-3	188.672E-12	657.214E-3	-3.66049E-3	190.993E-12	680.286E-3	14.8739E-3
4.74487E-3	187.921E-12	620.063E-3	20.5926E-3	190.329E-12	667.523E-3	20.6996E-3
4.73987E-3	188.001E-12	627.991E-3	32.2664E-3	190.350E-12	670.071E-3	2.74454E-3
4.73487E-3	187.595E-12	674.317E-3	5.49121E-3	190.553E-12	653.647E-3	-13.7530E-3
4.72986E-3	187.836E-12	681.104E-3	-36.9331E-3	190.308E-12	645.804E-3	-29.2258E-3
4.72486E-3	187.316E-12	653.890E-3	-27.5454E-3	190.703E-12	657.359E-3	-44.8567E-3
4.71986E-3	187.596E-12	630.990E-3	10.9843E-3	189.614E-12	651.402E-3	-45.5779E-3
4.71486E-3	187.391E-12	615.827E-3	18.3013E-3	188.603E-12	633.126E-3	-27.3502E-3
4.70985E-3	186.469E-12	622.296E-3	-5.76923E-3	187.537E-12	629.567E-3	-13.0575E-3
4.70485E-3	185.349E-12	640.817E-3	-24.5543E-3	186.665E-12	650.570E-3	-8.13579E-3
4.69985E-3	185.398E-12	641.030E-3	-23.0908E-3	185.542E-12	668.548E-3	-20.3602E-3
4.69485E-3	185.170E-12	629.843E-3	-15.1833E-3	184.918E-12	649.911E-3	-37.6161E-3
4.68984E-3	184.544E-12	632.558E-3	9.03119E-3	184.329E-12	620.864E-3	-48.3417E-3
4.68484E-3	184.333E-12	642.546E-3	27.6345E-3	184.326E-12	614.135E-3	-62.5896E-3
4.67984E-3	184.977E-12	656.864E-3	7.74554E-3	184.542E-12	618.764E-3	-45.9449E-3
4.67484E-3	185.361E-12	650.434E-3	-14.2844E-3	183.794E-12	635.480E-3	-7.12269E-3
4.66983E-3	185.141E-12	626.275E-3	-18.7524E-3	183.302E-12	670.152E-3	-8.55789E-3
4.66483E-3	185.118E-12	623.470E-3	-24.4152E-3	183.843E-12	685.910E-3	-28.3995E-3
4.65983E-3	185.609E-12	636.332E-3	-16.3588E-3	184.914E-12	660.321E-3	-26.5919E-3
4.65483E-3	185.762E-12	650.226E-3	122.088E-6	184.560E-12	643.516E-3	-14.8330E-3
4.64982E-3	186.287E-12	668.111E-3	-5.01186E-3	184.899E-12	653.710E-3	-1.36269E-3
4.64482E-3	185.242E-12	678.239E-3	-10.8120E-3	185.492E-12	654.994E-3	12.6134E-3
4.63982E-3	185.228E-12	668.940E-3	1.63502E-3	185.675E-12	655.907E-3	22.4184E-3
4.63482E-3	184.904E-12	666.581E-3	-10.2706E-3	185.216E-12	680.739E-3	22.0429E-3
4.62981E-3	184.665E-12	670.454E-3	-23.0144E-3	184.455E-12	699.438E-3	55.9516E-6
4.62481E-3	183.675E-12	655.494E-3	3.15056E-3	183.875E-12	691.521E-3	-25.6122E-3
4.61981E-3	182.551E-12	640.068E-3	13.4523E-3	183.670E-12	680.026E-3	-29.1098E-3
4.61481E-3	181.809E-12	644.672E-3	-13.9420E-3	182.523E-12	681.434E-3	-47.6157E-3
4.60980E-3	181.393E-12	644.099E-3	-34.8881E-3	182.285E-12	685.292E-3	-68.1340E-3
4.60480E-3	180.778E-12	624.342E-3	-38.6018E-3	181.045E-12	676.865E-3	-36.2507E-3
4.59980E-3	179.180E-12	624.506E-3	-41.6145E-3	180.923E-12	649.559E-3	1.33646E-3
4.59480E-3	178.437E-12	636.166E-3	-28.7805E-3	179.989E-12	636.986E-3	-4.61747E-3
4.58979E-3	179.311E-12	622.611E-3	-15.2171E-3	180.677E-12	654.167E-3	-17.9946E-3
4.58479E-3	179.751E-12	624.421E-3	-19.1764E-3	179.913E-12	661.521E-3	-18.8866E-3
4.57979E-3	179.389E-12	663.197E-3	-26.5851E-3	179.990E-12	644.810E-3	-26.3557E-3
4.57479E-3	179.131E-12	686.101E-3	-32.5913E-3	179.842E-12	639.646E-3	-45.3622E-3
4.56978E-3	179.244E-12	668.853E-3	-33.6480E-3	180.327E-12	665.050E-3	-58.8188E-3
4.56478E-3	180.667E-12	637.286E-3	-25.2510E-3	180.121E-12	652.531E-3	-48.3404E-3
4.55978E-3	181.338E-12	621.756E-3	-27.1129E-3	180.190E-12	604.277E-3	-26.5438E-3
4.55478E-3	180.820E-12	629.026E-3	-24.6553E-3	180.912E-12	610.877E-3	-7.04780E-3
4.54977E-3	180.905E-12	630.354E-3	554.923E-6	180.493E-12	646.424E-3	16.2424E-3
4.54477E-3	180.833E-12	624.747E-3	6.24568E-3	181.609E-12	653.444E-3	19.2949E-3
4.53977E-3	181.462E-12	648.868E-3	-21.0713E-3	181.236E-12	651.646E-3	-2.38096E-3
4.53477E-3	180.183E-12	667.328E-3	-36.1539E-3	181.142E-12	645.358E-3	-7.60934E-3
4.52976E-3	179.106E-12	651.115E-3	-13.8085E-3	180.361E-12	642.482E-3	-2.59127E-3
4.52476E-3	178.503E-12	642.367E-3	4.83333E-3	180.769E-12	645.599E-3	-15.2740E-3
4.51976E-3	179.417E-12	649.601E-3	-7.88300E-3	180.932E-12	638.602E-3	-22.9999E-3
4.51476E-3	178.441E-12	645.410E-3	-33.9730E-3	180.036E-12	630.396E-3	-9.00439E-3
4.50975E-3	176.703E-12	655.347E-3	-38.9158E-3	179.417E-12	634.008E-3	-1.86782E-3
4.50475E-3	176.241E-12	693.699E-3	-28.0122E-3	179.735E-12	649.011E-3	-12.1450E-3
4.49975E-3	176.525E-12	700.087E-3	-17.4148E-3	180.219E-12	653.371E-3	-18.6854E-3
4.49475E-3	176.569E-12	658.592E-3	-14.5239E-3	178.892E-12	650.653E-3	-19.2971E-3
4.48974E-3	175.630E-12	628.613E-3	-15.6828E-3	177.719E-12	655.851E-3	-18.4883E-3
4.48474E-3	174.866E-12	635.098E-3	-2.12800E-3	177.966E-12	653.896E-3	-17.5611E-3
4.47974E-3	174.413E-12	643.456E-3	7.98628E-3	177.406E-12	649.846E-3	-23.2158E-3
4.47474E-3	175.790E-12	654.401E-3	8.50333E-3	176.778E-12	650.171E-3	-27.3566E-3
4.46973E-3	175.634E-12	666.289E-3	19.8218E-3	175.455E-12	641.357E-3	-20.1126E-3
4.46473E-3	175.390E-12	659.264E-3	25.4912E-3	175.790E-12	624.360E-3	-3.66322E-3
4.45973E-3	175.344E-12	637.411E-3	2.25995E-3	175.306E-12	611.773E-3	9.61892E-3
4.45473E-3	175.532E-12	630.832E-3	-8.11460E-3	174.485E-12	615.981E-3	24.4315E-3
4.44972E-3	175.728E-12	640.954E-3	2.05393E-3	173.325E-12	650.866E-3	44.5782E-3
4.44472E-3	175.525E-12	621.579E-3	788.243E-6	174.135E-12	682.227E-3	35.4553E-3
4.43972E-3	175.569E-12	616.387E-3	-6.01127E-3	173.981E-12	665.763E-3	-971.802E-6
4.43472E-3	174.682E-12	643.797E-3	-6.79447E-3	174.324E-12	641.342E-3	-24.4750E-3
4.42971E-3	174.860E-12	666.733E-3	-7.34610E-3	173.398E-12	644.126E-3	-22.9097E-3
4.42471E-3	175.002E-12	674.945E-3	-11.2644E-3	173.722E-12	653.602E-3	-13.5820E-3
4.41971E-3	174.289E-12	656.475E-3	-12.4955E-3	174.339E-12	656.331E-3	-21.9858E-3
4.41471E-3	173.266E-12	628.631E-3	-15.6921E-3	174.317E-12	646.880E-3	-39.4272E-3
4.40970E-3	173.564E-12	631.800E-3	-20.6704E-3	173.518E-12	645.851E-3	-37.6194E-3
4.40470E-3	173.843E-12	660.377E-3	-26.2177E-3	173.364E-12	666.619E-3	-27.3862E-3
4.39970E-3	172.930E-12	659.624E-3	-32.8845E-3	173.746E-12	678.881E-3	-30.9983E-3
4.39470E-3	171.897E-12	648.862E-3	-41.9938E-3	173.445E-12	678.528E-3	-45.4798E-3
4.38969E-3	171.572E-12	656.660E-3	-38.7006E-3	171.948E-12	681.722E-3	-48.5414E-3
4.38469E-3	171.694E-12	659.931E-3	-12.7676E-3	171.599E-12	668.954E-3	-29.5541E-3
4.37969E-3	171.573E-12	652.068E-3	13.1281E-3	171.600E-12	638.882E-3	-8.01221E-3
4.37469E-3	171.377E-12	637.864E-3	5.80952E-3	173.033E-12	625.979E-3	14.9298E-3
4.36968E-3	171.606E-12	633.087E-3	-38.7043E-3	171.583E-12	646.420E-3	26.6933E-3
4.36468E-3	171.544E-12	645.369E-3	-67.6300E-3	171.232E-12	670.181E-3	26.3547E-3
4.35968E-3	171.397E-12	651.840E-3	-53.1804E-3	171.536E-12	671.812E-3	22.4278E-3
4.35468E-3	171.650E-12	643.445E-3	-24.8305E-3	172.156E-12	674.794E-3	8.75380E-3
4.34967E-3	171.583E-12	632.349E-3	-4.08643E-3	171.568E-12	661.863E-3	-2.24348E-3
4.34467E-3	172.328E-12	630.933E-3	1.80463E-3	170.792E-12	636.445E-3	-9.78845E-3
4.33967E-3	172.077E-12	645.991E-3	-16.5573E-3	170.668E-12	650.241E-3	-13.8132E-3
4.33467E-3	172.989E-12	653.069E-3	-35.3970E-3	170.907E-12	657.010E-3	-6.84559E-3
4.32966E-3	172.527E-12	642.870E-3	-18.5563E-3	170.449E-12	638.829E-3	6.73772E-3
4.32466E-3	172.092E-12	638.887E-3	5.45261E-3	170.273E-12	648.655E-3	7.02860E-3
4.31966E-3	171.042E-12	647.493E-3	5.71246E-3	170.608E-12	675.120E-3	-15.2031E-3
4.31466E-3	170.752E-12	661.977E-3	15.3125E-3	170.605E-12	687.369E-3	-22.1373E-3
4.30965E-3	170.245E-12	669.990E-3	18.5488E-3	170.263E-12	686.949E-3	1.09457E-3
4.30465E-3	168.775E-12	675.591E-3	-12.7303E-3	170.151E-12	674.162E-3	11.0192E-3
4.29965E-3	167.335E-12	690.406E-3	-33.5059E-3	169.949E-12	659.288E-3	194.309E-6
4.29465E-3	167.302E-12	695.607E-3	-39.2680E-3	169.216E-12	642.800E-3	10.9309E-3
4.28964E-3	166.772E-12	692.484E-3	-36.6532E-3	169.279E-12	635.321E-3	21.5032E-3
4.28464E-3	165.618E-12	688.552E-3	-12.9534E-3	169.381E-12	652.674E-3	4.92656E-3
4.27964E-3	165.225E-12	659.853E-3	2.77153E-3	168.323E-12	653.452E-3	-1.31512E-3
4.27464E-3	165.193E-12	630.173E-3	-5.23149E-3	167.912E-12	651.457E-3	-2.51202E-3
4.26963E-3	165.105E-12	631.127E-3	-20.1915E-3	167.599E-12	670.553E-3	-15.5892E-3
4.26463E-3	165.352E-12	657.231E-3	-27.0196E-3	168.151E-12	684.042E-3	-26.7351E-3
4.25963E-3	166.015E-12	668.347E-3	-13.3564E-3	167.345E-12	691.987E-3	-32.3233E-3
4.25463E-3	166.074E-12	633.633E-3	11.2855E-3	166.686E-12	701.696E-3	-30.0433E-3
4.24962E-3	167.396E-12	599.497E-3	10.1444E-3	166.536E-12	696.648E-3	-29.0414E-3
4.24462E-3	168.546E-12	629.370E-3	-20.2713E-3	166.558E-12	681.850E-3	-48.9382E-3
4.23962E-3	168.601E-12	669.935E-3	-34.8545E-3	166.943E-12	676.069E-3	-65.3614E-3
4.23462E-3	167.936E-12	670.233E-3	-19.1918E-3	166.358E-12	664.642E-3	-34.3229E-3
4.22961E-3	167.885E-12	662.852E-3	-2.41566E-3	166.135E-12	655.921E-3	2.62633E-3
4.22461E-3	168.026E-12	659.329E-3	15.4046E-3	166.483E-12	650.315E-3	6.07326E-3
4.21961E-3	167.703E-12	651.543E-3	20.6957E-3	167.146E-12	630.229E-3	5.91416E-3
4.21461E-3	166.261E-12	648.249E-3	-10.4544E-3	166.376E-12	627.185E-3	-1.48737E-3
4.20960E-3	165.518E-12	655.667E-3	-48.6671E-3	166.416E-12	657.491E-3	-20.4906E-3
4.20460E-3	164.153E-12	649.283E-3	-56.3110E-3	165.711E-12	677.776E-3	-36.5103E-3
4.19960E-3	163.845E-12	632.112E-3	-37.1178E-3	165.769E-12	658.018E-3	-27.0366E-3
4.19460E-3	162.659E-12	615.640E-3	-11.7042E-3	165.704E-12	624.499E-3	-1.90269E-3
4.18959E-3	162.398E-12	619.530E-3	3.61687E-3	164.993E-12	615.709E-3	-13.6586E-3
4.18459E-3	161.572E-12	646.671E-3	7.27036E-3	164.680E-12	629.302E-3	-43.6367E-3
4.17959E-3	161.796E-12	650.024E-3	1.81955E-3	164.614E-12	639.020E-3	-37.1936E-3
4.17459E-3	162.063E-12	632.372E-3	-16.1592E-3	164.476E-12	640.259E-3	-5.44618E-3
4.16958E-3	162.050E-12	636.000E-3	-22.6725E-3	164.149E-12	642.041E-3	10.9366E-3
4.16458E-3	161.295E-12	642.956E-3	-18.6422E-3	163.390E-12	635.473E-3	4.34337E-3
4.15958E-3	162.061E-12	637.437E-3	-21.1407E-3	162.549E-12	619.349E-3	-16.3729E-3
4.15458E-3	162.983E-12	646.946E-3	-20.5024E-3	162.589E-12	626.293E-3	-24.9589E-3
4.14957E-3	163.466E-12	661.121E-3	-17.3152E-3	162.397E-12	659.478E-3	-9.67076E-3
4.14457E-3	162.981E-12	666.256E-3	-5.64369E-3	162.054E-12	679.042E-3	-1.47552E-3
4.13957E-3	163.030E-12	661.540E-3	4.50865E-3	161.962E-12	682.907E-3	-6.58441E-3
4.13457E-3	162.822E-12	648.429E-3	1.13433E-3	162.754E-12	680.851E-3	-11.1003E-3
4.12956E-3	162.881E-12	628.537E-3	4.36370E-3	162.305E-12	676.760E-3	-19.0545E-3
4.12456E-3	162.671E-12	622.253E-3	-1.18546E-3	162.857E-12	686.647E-3	-33.9955E-3
4.11956E-3	162.115E-12	643.827E-3	-27.3800E-3	162.369E-12	689.528E-3	-38.7380E-3
4.11456E-3	162.438E-12	661.077E-3	-23.2107E-3	163.317E-12	662.840E-3	-25.5959E-3
4.10955E-3	161.591E-12	647.351E-3	5.55691E-3	163.226E-12	653.977E-3	-20.4512E-3
4.10455E-3	160.637E-12	641.134E-3	8.23920E-3	162.619E-12	682.746E-3	-41.1051E-3
4.09955E-3	159.763E-12	665.707E-3	-7.16917E-3	161.774E-12	686.747E-3	-47.7074E-3
4.09455E-3	159.314E-12	675.899E-3	-29.9742E-3	161.953E-12	657.521E-3	-19.1406E-3
4.08954E-3	158.790E-12	677.330E-3	-41.0485E-3	162.429E-12	633.366E-3	-20.3024E-3
4.08454E-3	157.742E-12	682.578E-3	-30.9685E-3	161.822E-12	626.285E-3	-48.7851E-3
4.07954E-3	157.744E-12	674.422E-3	-27.3250E-3	160.696E-12	636.643E-3	-56.6196E-3
4.07454E-3	157.457E-12	665.546E-3	-29.8242E-3	160.293E-12	651.251E-3	-47.8081E-3
4.06953E-3	156.719E-12	651.646E-3	-24.7601E-3	160.669E-12	654.249E-3	-14.0788E-3
4.06453E-3	156.247E-12	629.760E-3	-9.96532E-3	159.090E-12	645.811E-3	5.18159E-3
4.05953E-3	155.816E-12	625.251E-3	-2.44456E-3	158.440E-12	647.238E-3	-11.8731E-3
4.05453E-3	156.340E-12	627.945E-3	-27.0760E-3	157.469E-12	657.023E-3	-20.7214E-3
4.04952E-3	156.150E-12	640.098E-3	-54.6094E-3	157.322E-12	653.934E-3	-21.1634E-3
4.04452E-3	156.294E-12	663.855E-3	-50.3146E-3	156.616E-12	650.649E-3	-25.7119E-3
4.03952E-3	155.964E-12	666.917E-3	-26.5916E-3	157.094E-12	656.185E-3	-33.2320E-3
4.03452E-3	156.387E-12	656.264E-3	-9.48570E-3	156.616E-12	655.358E-3	-36.9098E-3
4.02951E-3	156.640E-12	657.820E-3	-11.3837E-3	156.543E-12	652.655E-3	-27.1333E-3
4.02451E-3	157.098E-12	668.975E-3	-21.0126E-3	156.363E-12	663.960E-3	-11.8388E-3
4.01951E-3	156.624E-12	664.815E-3	-28.9329E-3	157.258E-12	674.978E-3	-5.28882E-3
4.01451E-3	156.341E-12	659.147E-3	-37.7570E-3	157.130E-12	665.766E-3	-8.93166E-3
4.00950E-3	157.023E-12	667.000E-3	-48.7494E-3	156.838E-12	660.744E-3	-22.4657E-3
4.00450E-3	158.080E-12	673.849E-3	-37.9188E-3	156.183E-12	680.734E-3	-25.2416E-3
3.99950E-3	156.938E-12	681.870E-3	-12.2568E-3	156.540E-12	687.879E-3	-9.55177E-3
3.99450E-3	156.402E-12	682.536E-3	677.028E-6	156.136E-12	667.505E-3	-3.62955E-3
3.98949E-3	155.691E-12	671.397E-3	7.39345E-3	156.398E-12	650.785E-3	-9.43539E-3
3.98449E-3	155.918E-12	668.852E-3	9.47616E-3	155.493E-12	640.200E-3	-13.5147E-3
3.97949E-3	154.685E-12	683.138E-3	-3.95381E-3	154.739E-12	627.193E-3	-8.17017E-3
3.97449E-3	153.218E-12	690.342E-3	-24.3853E-3	154.294E-12	622.754E-3	-387.556E-6
3.96948E-3	151.878E-12	664.368E-3	-30.2312E-3	154.410E-12	630.864E-3	5.75767E-3
3.96448E-3	151.808E-12	635.926E-3	-26.1063E-3	153.606E-12	644.412E-3	7.08400E-3
3.95948E-3	151.516E-12	641.082E-3	-16.0553E-3	152.449E-12	654.420E-3	-5.72205E-3
3.95448E-3	151.313E-12	633.208E-3	-16.8357E-3	152.129E-12	652.345E-3	-14.3308E-3
3.94947E-3	150.570E-12	618.397E-3	-36.5787E-3	152.194E-12	645.627E-3	-7.51319E-3
3.94447E-3	150.710E-12	640.689E-3	-31.2046E-3	153.341E-12	640.585E-3	10.1942E-3
3.93947E-3	151.388E-12	665.309E-3	191.222E-6	152.874E-12	642.463E-3	17.6637E-3
3.93447E-3	152.177E-12	669.544E-3	3.15736E-3	152.634E-12	648.130E-3	-2.61845E-3
3.92946E-3	153.596E-12	656.587E-3	-18.4745E-3	153.550E-12	649.382E-3	-42.1634E-3
3.92446E-3	153.676E-12	653.592E-3	-33.7937E-3	153.818E-12	661.793E-3	-70.4876E-3
3.91946E-3	154.146E-12	678.302E-3	-33.2229E-3	154.007E-12	673.534E-3	-59.2314E-3
3.91446E-3	154.657E-12	702.451E-3	-25.4508E-3	153.210E-12	660.163E-3	-32.8569E-3
3.90945E-3	155.412E-12	712.493E-3	-27.6126E-3	153.220E-12	643.818E-3	-23.8606E-3
3.90445E-3	155.142E-12	717.501E-3	-34.7983E-3	152.782E-12	637.393E-3	-20.0873E-3
3.89945E-3	154.654E-12	694.767E-3	-30.6912E-3	153.224E-12	640.160E-3	-6.15875E-3
3.89445E-3	153.907E-12	659.357E-3	-13.1861E-3	152.290E-12	660.210E-3	-6.83998E-3
3.88944E-3	153.060E-12	655.731E-3	1.97306E-3	151.850E-12	669.467E-3	-24.1910E-3
3.88444E-3	151.906E-12	667.560E-3	-3.64902E-3	150.821E-12	654.932E-3	-35.6868E-3
3.87944E-3	150.164E-12	672.578E-3	-16.1379E-3	150.960E-12	645.607E-3	-37.7588E-3
3.87444E-3	149.010E-12	666.445E-3	-20.8379E-3	150.360E-12	643.701E-3	-24.9099E-3
3.86943E-3	148.762E-12	649.101E-3	-29.3902E-3	149.922E-12	643.989E-3	-7.77437E-3
3.86443E-3	148.180E-12	637.970E-3	-23.8149E-3	149.071E-12	657.910E-3	-9.00908E-3
3.85943E-3	147.574E-12	647.786E-3	-22.5849E-3	149.056E-12	663.474E-3	-35.1904E-3
3.85443E-3	146.591E-12	647.367E-3	-17.9735E-3	149.658E-12	651.454E-3	-52.3292E-3
3.84942E-3	147.532E-12	630.364E-3	488.446E-6	148.823E-12	644.651E-3	-43.0694E-3
3.84442E-3	148.024E-12	634.237E-3	-9.37427E-3	148.471E-12	645.441E-3	-31.4342E-3
3.83942E-3	148.306E-12	653.867E-3	-19.6658E-3	148.247E-12	649.661E-3	-16.4737E-3
3.83442E-3	148.349E-12	668.125E-3	-21.7082E-3	148.946E-12	649.156E-3	-10.9359E-3
3.82941E-3	149.659E-12	670.822E-3	-25.6230E-3	148.405E-12	642.429E-3	-8.28278E-3
3.82441E-3	149.740E-12	656.335E-3	-19.2422E-3	147.778E-12	646.159E-3	16.5218E-3
3.81941E-3	150.626E-12	648.000E-3	-17.8445E-3	147.901E-12	661.104E-3	22.0833E-3
3.81441E-3	149.941E-12	649.392E-3	-29.7058E-3	147.666E-12	669.140E-3	-11.4509E-3
3.80940E-3	150.472E-12	648.339E-3	-36.5140E-3	148.533E-12	669.394E-3	-36.2282E-3
3.80440E-3	150.485E-12	649.689E-3	-24.9105E-3	147.901E-12	676.080E-3	-33.0536E-3
3.79940E-3	150.153E-12	652.671E-3	-5.04975E-3	147.200E-12	687.334E-3	-17.1984E-3
3.79440E-3	148.885E-12	662.132E-3	-5.05280E-3	147.149E-12	667.834E-3	-22.2613E-3
3.78939E-3	148.168E-12	666.899E-3	-10.6719E-3	147.605E-12	644.104E-3	-33.3466E-3
3.78439E-3	147.518E-12	669.177E-3	-6.48726E-3	147.447E-12	665.608E-3	-24.0312E-3
3.77939E-3	146.113E-12	678.965E-3	-25.3186E-3	147.410E-12	694.239E-3	-21.3223E-3
3.77439E-3	145.351E-12	676.464E-3	-54.1511E-3	146.524E-12	702.014E-3	-36.7428E-3
3.76938E-3	144.779E-12	657.778E-3	-60.5332E-3	146.750E-12	694.087E-3	-44.8073E-3
3.76438E-3	144.695E-12	649.524E-3	-44.7588E-3	146.116E-12	676.908E-3	-21.1599E-3
3.75938E-3	144.288E-12	647.239E-3	-25.5043E-3	146.105E-12	652.762E-3	2.05600E-3
3.75438E-3	143.669E-12	653.053E-3	-12.8061E-3	145.259E-12	630.795E-3	3.96580E-3
3.74937E-3	143.666E-12	660.118E-3	-2.83480E-3	145.070E-12	634.429E-3	-9.96301E-3
3.74437E-3	143.740E-12	648.910E-3	7.57606E-3	144.279E-12	652.176E-3	-30.5256E-3
3.73937E-3	143.609E-12	642.295E-3	8.07675E-3	144.231E-12	654.924E-3	-22.8513E-3
3.73437E-3	144.164E-12	640.247E-3	-2.85646E-3	143.886E-12	657.847E-3	3.20425E-3
3.72936E-3	144.378E-12	650.991E-3	-9.38504E-3	143.603E-12	675.249E-3	2.42403E-3
3.72436E-3	144.535E-12	679.254E-3	-10.4984E-3	143.450E-12	674.147E-3	-23.4496E-3
3.71936E-3	145.088E-12	689.740E-3	-24.9490E-3	143.551E-12	644.463E-3	-32.0917E-3
3.71436E-3	145.732E-12	676.220E-3	-27.7195E-3	143.142E-12	622.206E-3	-17.7559E-3
3.70935E-3	145.854E-12	667.067E-3	-10.3900E-3	143.349E-12	641.837E-3	-13.0932E-3
3.70435E-3	145.244E-12	658.064E-3	-18.4062E-3	143.338E-12	684.071E-3	-18.8564E-3
3.69935E-3	145.621E-12	650.512E-3	-33.0005E-3	144.049E-12	703.094E-3	-24.4648E-3
3.69435E-3	145.058E-12	668.009E-3	-21.9015E-3	143.380E-12	702.120E-3	-20.2929E-3
3.68934E-3	144.603E-12	680.101E-3	-8.47816E-3	143.908E-12	688.102E-3	-3.45237E-3
3.68434E-3	144.060E-12	673.146E-3	-1.74631E-3	143.817E-12	679.157E-3	-1.19308E-3
3.67934E-3	143.514E-12	670.877E-3	4.38123E-3	144.215E-12	682.661E-3	-5.58000E-3
3.67434E-3	142.110E-12	666.675E-3	-21.3020E-3	144.010E-12	658.465E-3	-7.85890E-3
3.66933E-3	142.087E-12	651.945E-3	-47.8962E-3	143.914E-12	637.376E-3	-17.8157E-3
3.66433E-3	141.756E-12	640.473E-3	-31.1999E-3	143.587E-12	659.263E-3	-27.0681E-3
3.65933E-3	139.783E-12	643.402E-3	-11.7816E-3	143.427E-12	675.928E-3	-22.2209E-3
3.65433E-3	139.421E-12	670.419E-3	-5.10733E-3	142.499E-12	664.078E-3	-332.127E-6
3.64932E-3	139.284E-12	692.334E-3	-4.76337E-3	141.609E-12	661.751E-3	3.05780E-3
3.64432E-3	139.607E-12	671.943E-3	-25.9354E-3	140.948E-12	670.187E-3	-18.7691E-3
3.63932E-3	138.588E-12	652.201E-3	-49.7278E-3	140.591E-12	660.521E-3	-22.2093E-3
3.63432E-3	137.972E-12	661.897E-3	-40.6471E-3	139.682E-12	654.514E-3	-3.47920E-3
3.62931E-3	139.188E-12	657.919E-3	-21.4872E-3	138.471E-12	659.867E-3	5.80364E-3
3.62431E-3	139.097E-12	642.354E-3	-15.6923E-3	138.289E-12	648.611E-3	-6.90224E-3
3.61931E-3	139.151E-12	658.580E-3	-12.1512E-3	138.052E-12	629.995E-3	-21.3189E-3
3.61431E-3	138.945E-12	672.374E-3	-11.8246E-3	137.872E-12	638.663E-3	-22.0255E-3
3.60930E-3	139.781E-12	657.917E-3	-7.49268E-3	138.108E-12	654.304E-3	-19.5054E-3
3.60430E-3	140.441E-12	654.229E-3	4.45414E-3	138.606E-12	647.767E-3	-15.0370E-3
3.59930E-3	140.833E-12	680.134E-3	6.11012E-3	138.382E-12	649.395E-3	-15.5937E-3
3.59430E-3	140.045E-12	701.139E-3	-6.13306E-3	137.907E-12	660.628E-3	-12.0632E-3
3.58929E-3	139.730E-12	696.356E-3	-1.90728E-3	138.233E-12	664.873E-3	2.43382E-3
3.58429E-3	140.164E-12	698.613E-3	2.56951E-3	139.753E-12	676.859E-3	-5.01695E-3
3.57929E-3	139.935E-12	714.210E-3	-23.7495E-3	138.800E-12	685.163E-3	-30.7689E-3
3.57429E-3	139.289E-12	721.306E-3	-35.8989E-3	137.906E-12	682.660E-3	-36.1652E-3
3.56928E-3	138.021E-12	697.498E-3	-9.82745E-3	137.341E-12	685.213E-3	-23.2485E-3
3.56428E-3	137.115E-12	649.247E-3	11.0739E-3	137.276E-12	688.690E-3	-14.3650E-3
3.55928E-3	136.573E-12	641.935E-3	4.81268E-3	136.976E-12	682.847E-3	-23.1150E-3
3.55428E-3	135.274E-12	676.618E-3	-9.43986E-3	135.913E-12	673.725E-3	-41.5355E-3
3.54927E-3	134.018E-12	675.457E-3	-16.9157E-3	135.384E-12	665.838E-3	-41.8754E-3
3.54427E-3	133.348E-12	645.162E-3	-15.6499E-3	135.398E-12	662.107E-3	-30.9368E-3
3.53927E-3	133.018E-12	628.592E-3	2.32919E-3	135.812E-12	658.050E-3	-15.9970E-3
3.53427E-3	132.912E-12	628.852E-3	16.6403E-3	134.672E-12	646.762E-3	2.05857E-3
3.52926E-3	132.420E-12	626.547E-3	-198.513E-6	134.188E-12	641.971E-3	9.43841E-3
3.52426E-3	132.809E-12	626.725E-3	-17.5807E-3	134.263E-12	650.724E-3	-3.44486E-3
3.51926E-3	133.447E-12	651.972E-3	-21.6126E-3	135.001E-12	669.717E-3	-22.3335E-3
3.51426E-3	134.005E-12	669.109E-3	-29.1362E-3	134.685E-12	678.156E-3	-23.2569E-3
3.50925E-3	134.446E-12	667.479E-3	-47.0169E-3	134.511E-12	660.168E-3	-15.9902E-3
3.50425E-3	134.930E-12	652.806E-3	-50.0442E-3	134.790E-12	653.847E-3	-17.2115E-3
3.49925E-3	135.950E-12	635.823E-3	-44.9636E-3	134.897E-12	670.410E-3	-23.0567E-3
3.49425E-3	135.797E-12	646.913E-3	-43.7182E-3	134.552E-12	669.949E-3	-20.0969E-3
3.48924E-3	135.829E-12	664.281E-3	-33.2130E-3	134.795E-12	660.367E-3	-25.3421E-3
3.48424E-3	135.904E-12	672.470E-3	-31.9270E-3	133.904E-12	669.219E-3	-39.3110E-3
3.47924E-3	135.261E-12	680.158E-3	-33.3621E-3	133.772E-12	672.947E-3	-34.8171E-3
3.47424E-3	134.555E-12	661.018E-3	-4.57834E-3	133.805E-12	681.881E-3	-20.4743E-3
3.46923E-3	133.671E-12	633.374E-3	21.1448E-3	133.452E-12	695.526E-3	-14.2054E-3
3.46423E-3	133.191E-12	635.220E-3	14.4363E-3	132.756E-12	677.983E-3	-14.0606E-3
3.45923E-3	131.827E-12	649.731E-3	14.2122E-3	132.508E-12	668.694E-3	-18.7564E-3
3.45423E-3	130.890E-12	663.721E-3	12.4490E-3	132.501E-12	675.141E-3	-13.9281E-3
3.44922E-3	130.200E-12	664.807E-3	-11.9064E-3	131.941E-12	673.230E-3	7.82001E-3
3.44422E-3	129.140E-12	664.056E-3	-25.9172E-3	131.581E-12	665.147E-3	18.9930E-3
3.43922E-3	128.961E-12	675.010E-3	-12.8574E-3	131.643E-12	662.109E-3	7.32923E-3
3.43422E-3	128.509E-12	672.580E-3	-10.0675E-3	131.489E-12	673.453E-3	-16.1764E-3
3.42921E-3	128.494E-12	644.717E-3	-17.9815E-3	130.823E-12	676.643E-3	-30.2004E-3
3.42421E-3	128.781E-12	626.163E-3	-17.6534E-3	130.698E-12	668.140E-3	-21.6643E-3
3.41921E-3	128.927E-12	648.224E-3	-18.2574E-3	130.931E-12	662.358E-3	-4.32152E-3
3.41421E-3	129.078E-12	683.692E-3	-13.4080E-3	130.879E-12	665.023E-3	-4.42652E-3
3.40920E-3	129.199E-12	692.244E-3	-14.1442E-3	130.655E-12	667.445E-3	-14.3974E-3
3.40420E-3	129.615E-12	678.622E-3	-25.3568E-3	130.222E-12	665.365E-3	-7.20382E-3
3.39920E-3	129.952E-12	663.875E-3	-33.8226E-3	130.306E-12	664.583E-3	3.78406E-3
3.39420E-3	130.526E-12	642.638E-3	-36.2269E-3	130.305E-12	660.284E-3	-553.764E-6
3.38919E-3	130.037E-12	637.474E-3	-40.4210E-3	129.493E-12	651.255E-3	-17.7266E-3
3.38419E-3	129.955E-12	664.314E-3	-34.9695E-3	129.544E-12	637.023E-3	-29.7729E-3
3.37919E-3	130.145E-12	686.780E-3	-23.6234E-3	129.147E-12	638.913E-3	-22.2648E-3
3.37419E-3	130.049E-12	691.961E-3	-12.9194E-3	128.707E-12	669.715E-3	-17.9847E-3
3.36918E-3	129.195E-12	701.986E-3	-4.05903E-3	127.971E-12	694.145E-3	-23.0285E-3
3.36418E-3	128.075E-12	717.764E-3	-10.0813E-3	127.847E-12	692.020E-3	-16.6442E-3
3.35918E-3	128.216E-12	711.576E-3	-11.7718E-3	127.653E-12	685.622E-3	-2.01978E-3
3.35418E-3	127.894E-12	687.962E-3	-3.16796E-3	127.411E-12	678.420E-3	-3.99237E-3
3.34917E-3	126.890E-12	679.785E-3	748.404E-6	127.158E-12	663.545E-3	-14.7876E-3
3.34417E-3	125.782E-12	684.109E-3	8.00039E-3	126.949E-12	653.798E-3	-10.9514E-3
3.33917E-3	125.309E-12	667.606E-3	14.4548E-3	127.257E-12	656.603E-3	-5.69853E-3
3.33417E-3	124.967E-12	637.007E-3	2.52602E-3	126.591E-12	665.285E-3	-5.81779E-3
3.32916E-3	125.001E-12	640.808E-3	-22.7275E-3	126.510E-12	674.616E-3	-4.16151E-3
3.32416E-3	124.305E-12	676.880E-3	-47.4283E-3	126.540E-12	676.469E-3	-12.2415E-3
3.31916E-3	123.930E-12	695.579E-3	-46.0953E-3	126.018E-12	666.277E-3	-18.2232E-3
3.31416E-3	124.051E-12	690.283E-3	-26.2013E-3	125.932E-12	664.416E-3	-18.3693E-3
3.30915E-3	124.212E-12	673.936E-3	-12.0505E-3	125.551E-12	674.367E-3	-23.0990E-3
3.30415E-3	124.868E-12	659.183E-3	-8.14990E-3	124.973E-12	673.476E-3	-16.4058E-3
3.29915E-3	124.821E-12	652.683E-3	-11.7148E-3	124.291E-12	658.417E-3	-9.38616E-3
3.29415E-3	125.175E-12	645.417E-3	3.64739E-3	124.453E-12	642.518E-3	-3.71235E-3
3.28914E-3	125.590E-12	652.272E-3	10.8232E-3	123.905E-12	636.233E-3	8.72111E-3
3.28414E-3	125.956E-12	672.205E-3	-3.68750E-3	123.309E-12	646.204E-3	11.4782E-3
3.27914E-3	125.841E-12	687.378E-3	-8.95092E-3	123.438E-12	665.997E-3	-6.84552E-3
3.27414E-3	125.484E-12	695.348E-3	-15.9549E-3	122.742E-12	681.986E-3	-29.2866E-3
3.26913E-3	125.246E-12	691.061E-3	-6.50216E-3	123.179E-12	684.957E-3	-31.4884E-3
3.26413E-3	124.879E-12	667.537E-3	13.7270E-3	122.716E-12	682.086E-3	-18.6436E-3
3.25913E-3	124.141E-12	651.065E-3	2.22988E-3	122.857E-12	683.717E-3	-16.8799E-3
3.25413E-3	123.004E-12	662.711E-3	-20.0788E-3	122.764E-12	666.939E-3	-20.9292E-3
3.24912E-3	122.343E-12	673.143E-3	-19.6519E-3	123.324E-12	641.093E-3	-14.9616E-3
3.24412E-3	121.698E-12	663.079E-3	-16.3569E-3	122.992E-12	640.094E-3	-14.8072E-3
3.23912E-3	120.653E-12	653.740E-3	-16.8896E-3	123.041E-12	647.057E-3	-9.31406E-3
3.23412E-3	120.032E-12	652.132E-3	-14.7177E-3	123.309E-12	661.754E-3	11.2328E-3
3.22911E-3	119.710E-12	640.581E-3	-15.7662E-3	122.419E-12	679.621E-3	-883.806E-6
3.22411E-3	119.050E-12	646.791E-3	-10.1770E-3	122.098E-12	658.264E-3	-22.2516E-3
3.21911E-3	118.733E-12	676.511E-3	-7.56889E-3	121.974E-12	622.265E-3	-21.0807E-3
3.21411E-3	119.199E-12	668.074E-3	-6.65228E-3	121.821E-12	631.132E-3	-21.3791E-3
3.20910E-3	119.737E-12	632.631E-3	-917.228E-6	120.910E-12	663.981E-3	-16.7946E-3
3.20410E-3	119.625E-12	627.711E-3	-1.27569E-3	120.419E-12	678.433E-3	-14.2096E-3
3.19910E-3	119.564E-12	642.905E-3	-5.63300E-3	120.432E-12	675.711E-3	-26.2947E-3
3.19410E-3	120.187E-12	652.349E-3	-20.2201E-3	119.974E-12	673.017E-3	-41.8581E-3
3.18909E-3	121.113E-12	659.861E-3	-38.3321E-3	120.144E-12	665.589E-3	-43.2761E-3
3.18409E-3	121.197E-12	675.896E-3	-38.4785E-3	119.286E-12	647.883E-3	-32.4570E-3
3.17909E-3	121.568E-12	682.858E-3	-12.3003E-3	118.908E-12	643.829E-3	-27.3279E-3
3.17409E-3	121.055E-12	678.791E-3	6.71307E-3	119.291E-12	660.627E-3	-22.3269E-3
3.16908E-3	121.481E-12	684.326E-3	-2.71426E-3	119.611E-12	680.978E-3	-5.27515E-3
3.16408E-3	121.446E-12	686.616E-3	-9.41840E-3	118.905E-12	697.158E-3	-2.06223E-3
3.15908E-3	120.504E-12	688.380E-3	-3.89670E-3	119.042E-12	696.719E-3	-16.2819E-3
3.15408E-3	119.412E-12	690.294E-3	1.64389E-3	119.381E-12	681.842E-3	-29.5875E-3
3.14907E-3	118.904E-12	695.739E-3	3.50118E-3	119.646E-12	673.166E-3	-31.6398E-3
3.14407E-3	117.914E-12	702.643E-3	-8.86511E-3	119.866E-12	675.581E-3	-21.8442E-3
3.13907E-3	116.967E-12	686.360E-3	-22.5022E-3	119.190E-12	683.835E-3	-14.2881E-3
3.13407E-3	116.091E-12	671.402E-3	-17.6151E-3	118.527E-12	688.205E-3	-535.627E-6
3.12906E-3	114.969E-12	672.607E-3	-19.5104E-3	118.310E-12	681.999E-3	13.8866E-3
3.12406E-3	114.719E-12	663.672E-3	-31.6671E-3	118.755E-12	668.325E-3	15.6452E-3
3.11906E-3	114.390E-12	652.689E-3	-28.1772E-3	118.049E-12	663.201E-3	12.2569E-3
3.11406E-3	114.205E-12	641.896E-3	-12.4447E-3	117.080E-12	674.804E-3	8.65225E-3
3.10905E-3	114.413E-12	636.104E-3	-1.46959E-3	117.042E-12	681.123E-3	-8.87242E-3
3.10405E-3	114.360E-12	648.318E-3	-7.01717E-3	117.259E-12	667.609E-3	-29.1484E-3
3.09905E-3	114.981E-12	656.805E-3	-23.7742E-3	116.769E-12	662.995E-3	-33.0871E-3
3.09405E-3	115.540E-12	662.613E-3	-25.8200E-3	115.791E-12	672.460E-3	-34.1583E-3
3.08904E-3	115.785E-12	670.070E-3	-9.40364E-3	115.897E-12	672.246E-3	-28.1772E-3
3.08404E-3	115.996E-12	668.952E-3	-2.87358E-3	116.285E-12	673.562E-3	-12.3678E-3
3.07904E-3	116.362E-12	672.735E-3	-5.88842E-3	116.301E-12	681.597E-3	-6.65180E-3
3.07404E-3	116.486E-12	679.286E-3	-8.52556E-3	115.512E-12	690.341E-3	-13.9465E-3
3.06903E-3	116.310E-12	676.204E-3	-9.25399E-3	114.809E-12	688.620E-3	-20.6833E-3
3.06403E-3	115.597E-12	678.886E-3	-2.12070E-3	114.844E-12	674.357E-3	-13.4110E-3
3.05903E-3	115.375E-12	677.694E-3	-6.60060E-3	114.888E-12	675.208E-3	-1.55222E-3
3.05403E-3	114.414E-12	656.266E-3	-14.4472E-3	114.823E-12	688.799E-3	-5.89396E-3
3.04902E-3	113.711E-12	653.753E-3	-465.350E-6	114.199E-12	681.107E-3	-17.9393E-3
3.04402E-3	113.081E-12	683.993E-3	4.99239E-3	113.688E-12	658.665E-3	-14.1505E-3
3.03902E-3	111.858E-12	693.976E-3	-19.8022E-3	113.631E-12	654.079E-3	-8.42440E-3
3.03402E-3	111.265E-12	670.558E-3	-33.9221E-3	113.366E-12	653.895E-3	-18.4156E-3
3.02901E-3	111.183E-12	650.346E-3	-15.8391E-3	113.125E-12	644.684E-3	-27.6232E-3
3.02401E-3	110.752E-12	648.160E-3	-670.175E-6	111.993E-12	652.154E-3	-45.8203E-3
3.01901E-3	110.013E-12	651.208E-3	-13.3633E-3	111.805E-12	674.421E-3	-53.1248E-3
3.01401E-3	109.832E-12	651.129E-3	-28.8651E-3	111.587E-12	686.464E-3	-32.5776E-3
3.00900E-3	109.886E-12	650.642E-3	-27.8308E-3	111.649E-12	685.531E-3	-25.7909E-3
3.00400E-3	109.513E-12	664.891E-3	-31.0847E-3	111.302E-12	663.665E-3	-20.5927E-3
2.99900E-3	109.746E-12	697.787E-3	-40.3156E-3	110.682E-12	647.164E-3	-9.52426E-3
2.99400E-3	109.943E-12	700.184E-3	-33.0016E-3	110.719E-12	668.016E-3	-27.1005E-3
2.98899E-3	110.240E-12	672.329E-3	-15.1288E-3	110.861E-12	686.876E-3	-40.5931E-3
2.98399E-3	109.947E-12	668.143E-3	-7.00839E-3	110.609E-12	679.729E-3	-20.0604E-3
2.97899E-3	110.163E-12	683.976E-3	-11.5358E-3	110.366E-12	669.503E-3	-12.4047E-3
2.97399E-3	110.285E-12	688.410E-3	-14.8272E-3	110.126E-12	677.527E-3	-20.9442E-3
2.96898E-3	110.418E-12	683.134E-3	-10.0419E-3	110.307E-12	692.117E-3	-18.1812E-3
2.96398E-3	110.755E-12	681.105E-3	-9.71170E-3	110.276E-12	686.841E-3	-582.467E-6
2.95898E-3	110.365E-12	687.654E-3	-9.88982E-3	109.761E-12	675.909E-3	17.9060E-3
2.95398E-3	110.668E-12	698.695E-3	-551.566E-6	109.563E-12	683.098E-3	14.7920E-3
2.94897E-3	110.315E-12	686.304E-3	6.60994E-3	109.612E-12	688.844E-3	-5.84181E-3
2.94397E-3	110.118E-12	667.826E-3	3.51795E-3	109.290E-12	682.034E-3	-23.6518E-3
2.93897E-3	109.832E-12	680.656E-3	882.516E-6	109.186E-12	682.911E-3	-24.2130E-3
2.93397E-3	108.982E-12	697.052E-3	1.05288E-3	108.626E-12	687.506E-3	-18.5994E-3
2.92896E-3	108.093E-12	702.264E-3	-3.15220E-3	108.881E-12	677.583E-3	-16.1877E-3
2.92396E-3	108.143E-12	705.132E-3	-15.1934E-3	108.544E-12	666.890E-3	-22.1491E-3
2.91896E-3	108.105E-12	693.459E-3	-25.5998E-3	108.137E-12	685.550E-3	-31.3680E-3
2.91396E-3	106.702E-12	685.368E-3	-19.6723E-3	107.433E-12	712.943E-3	-30.6946E-3
2.90895E-3	105.880E-12	684.293E-3	-10.9155E-3	107.644E-12	722.575E-3	-24.8239E-3
2.90395E-3	105.528E-12	678.031E-3	-14.4864E-3	107.422E-12	720.557E-3	-14.1616E-3
2.89895E-3	105.580E-12	680.109E-3	-15.9048E-3	106.753E-12	715.027E-3	-11.2671E-3
2.89395E-3	105.071E-12	664.978E-3	221.235E-6	106.666E-12	710.266E-3	-19.2453E-3
2.88894E-3	105.362E-12	631.280E-3	16.0431E-3	106.467E-12	703.080E-3	-13.2267E-3
2.88394E-3	105.129E-12	643.317E-3	6.14042E-3	106.582E-12	688.948E-3	-4.11724E-3
2.87894E-3	105.587E-12	693.543E-3	-5.67252E-3	105.853E-12	674.548E-3	-7.14022E-3
2.87394E-3	106.533E-12	705.401E-3	7.91969E-3	105.790E-12	676.787E-3	-4.92124E-3
2.86893E-3	106.832E-12	682.959E-3	21.6955E-3	105.608E-12	685.167E-3	7.60787E-3
2.86393E-3	106.971E-12	672.244E-3	9.33665E-3	105.700E-12	685.793E-3	16.5329E-3
2.85893E-3	106.981E-12	673.694E-3	-4.34570E-3	105.571E-12	695.179E-3	20.9689E-3
2.85393E-3	107.169E-12	682.495E-3	-3.47680E-3	105.326E-12	697.581E-3	23.4821E-3
2.84892E-3	107.555E-12	689.397E-3	6.70869E-3	105.202E-12	683.640E-3	18.2198E-3
2.84392E-3	106.762E-12	683.759E-3	16.6805E-3	105.019E-12	686.757E-3	1.67083E-3
2.83892E-3	105.768E-12	676.571E-3	10.8846E-3	104.667E-12	691.394E-3	-10.6603E-3
2.83392E-3	105.006E-12	686.039E-3	4.19959E-3	104.442E-12	683.179E-3	-8.17749E-3
2.82891E-3	105.265E-12	700.089E-3	5.78032E-3	104.217E-12	678.518E-3	-6.27680E-3
2.82391E-3	103.998E-12	699.213E-3	-6.77960E-3	103.391E-12	676.422E-3	-8.98628E-3
2.81891E-3	102.476E-12	703.457E-3	-23.8930E-3	102.864E-12	685.691E-3	-9.14968E-3
2.81391E-3	101.746E-12	717.963E-3	-29.5093E-3	102.448E-12	688.796E-3	-5.83420E-3
2.80890E-3	101.152E-12	713.016E-3	-33.1383E-3	102.275E-12	678.781E-3	-3.64590E-3
2.80390E-3	100.419E-12	699.874E-3	-42.4358E-3	101.755E-12	675.586E-3	-5.31010E-3
2.79890E-3	99.6315E-12	693.021E-3	-39.2968E-3	101.465E-12	669.617E-3	-10.2399E-3
2.79390E-3	99.3604E-12	669.262E-3	-28.8494E-3	101.562E-12	672.251E-3	-10.6564E-3
2.78889E-3	99.6627E-12	653.107E-3	-47.1729E-3	101.666E-12	690.783E-3	-465.620E-6
2.78389E-3	99.9759E-12	676.950E-3	-62.5797E-3	101.011E-12	697.609E-3	6.15251E-3
2.77889E-3	100.115E-12	694.002E-3	-48.0804E-3	100.505E-12	677.270E-3	-1.01993E-3
2.77389E-3	100.551E-12	678.845E-3	-27.2272E-3	101.062E-12	657.975E-3	-18.5170E-3
2.76888E-3	101.121E-12	674.999E-3	-11.1773E-3	100.949E-12	666.421E-3	-29.3476E-3
2.76388E-3	101.835E-12	690.323E-3	-8.08594E-3	100.146E-12	678.349E-3	-20.8610E-3
2.75888E-3	102.488E-12	707.144E-3	-7.72577E-3	99.8422E-12	688.036E-3	-5.83858E-3
2.75388E-3	102.041E-12	710.877E-3	-4.92390E-3	99.4206E-12	699.171E-3	-10.6060E-3
2.74887E-3	101.757E-12	699.000E-3	7.36160E-3	99.8347E-12	698.351E-3	-36.8445E-3
2.74387E-3	101.683E-12	694.220E-3	3.71559E-3	99.4598E-12	707.426E-3	-52.8855E-3
2.73887E-3	101.513E-12	698.015E-3	-19.0826E-3	99.0540E-12	726.193E-3	-41.3858E-3
2.73387E-3	100.985E-12	688.839E-3	-14.2198E-3	98.5687E-12	723.562E-3	-19.8792E-3
2.72886E-3	99.6266E-12	673.684E-3	2.98603E-3	98.5073E-12	709.448E-3	-16.9308E-3
2.72386E-3	98.7725E-12	682.206E-3	4.36872E-3	98.4586E-12	706.119E-3	-17.5263E-3
2.71886E-3	98.1772E-12	701.144E-3	-4.29086E-3	98.4224E-12	704.186E-3	-3.43583E-3
2.71386E-3	97.4594E-12	698.937E-3	-16.5240E-3	98.2192E-12	696.052E-3	3.75629E-3
2.70885E-3	96.1659E-12	694.990E-3	-30.7656E-3	97.5142E-12	698.379E-3	-8.25373E-3
2.70385E-3	95.2912E-12	707.939E-3	-24.0069E-3	97.6353E-12	712.740E-3	-33.9764E-3
2.69885E-3	95.4511E-12	712.548E-3	-3.42019E-3	97.7047E-12	712.344E-3	-38.5657E-3
2.69385E-3	95.1313E-12	708.216E-3	-1.20381E-3	97.2499E-12	690.700E-3	-15.7719E-3
2.68884E-3	95.0547E-12	695.973E-3	-15.8197E-3	96.2061E-12	679.130E-3	-9.45650E-3
2.68384E-3	95.0972E-12	680.484E-3	-27.4296E-3	96.0603E-12	673.690E-3	-7.77376E-3
2.67884E-3	95.9742E-12	683.792E-3	-23.5434E-3	96.1856E-12	657.366E-3	5.42665E-3
2.67384E-3	96.4766E-12	690.890E-3	-21.4500E-3	96.1125E-12	659.920E-3	7.91392E-3
2.66883E-3	96.9184E-12	693.811E-3	-27.7582E-3	95.1457E-12	685.163E-3	-6.04579E-3
2.66383E-3	96.8876E-12	702.494E-3	-24.8603E-3	94.9077E-12	699.525E-3	-25.9920E-3
2.65883E-3	97.1358E-12	715.175E-3	-15.9144E-3	94.9823E-12	702.689E-3	-20.8659E-3
2.65383E-3	97.7095E-12	712.011E-3	-19.6347E-3	95.2537E-12	707.301E-3	5.97421E-3
2.64882E-3	97.0002E-12	700.301E-3	-24.1523E-3	95.1035E-12	711.848E-3	10.0963E-3
2.64382E-3	96.5733E-12	698.094E-3	-22.2055E-3	94.4388E-12	706.413E-3	-21.4128E-3
2.63882E-3	95.9801E-12	692.297E-3	-24.0210E-3	94.5703E-12	695.086E-3	-53.9576E-3
2.63382E-3	95.7369E-12	696.649E-3	-20.8124E-3	94.8668E-12	698.361E-3	-48.0839E-3
2.62881E-3	94.7889E-12	710.227E-3	-9.76914E-3	95.0536E-12	705.396E-3	-13.4628E-3
2.62381E-3	94.3990E-12	705.667E-3	-3.57827E-3	94.7732E-12	702.360E-3	15.7492E-3
2.61881E-3	93.4580E-12	703.646E-3	-2.71657E-3	94.5388E-12	699.768E-3	6.93087E-3
2.61381E-3	92.5733E-12	707.561E-3	-1.92539E-3	94.2722E-12	705.700E-3	-21.8290E-3
2.60880E-3	92.0086E-12	691.976E-3	9.08364E-3	94.5295E-12	729.406E-3	-19.1420E-3
2.60380E-3	91.8065E-12	681.466E-3	8.07122E-3	93.9434E-12	737.209E-3	-4.10869E-3
2.59880E-3	91.6361E-12	703.332E-3	-8.01269E-3	93.0590E-12	712.179E-3	-5.65360E-3
2.59380E-3	91.2629E-12	721.576E-3	-11.8944E-3	92.8411E-12	691.949E-3	-7.93044E-3
2.58879E-3	90.9538E-12	712.097E-3	-20.2785E-3	92.4316E-12	685.458E-3	-12.4222E-3
2.58379E-3	90.9810E-12	702.657E-3	-23.4231E-3	92.0778E-12	692.442E-3	-22.0909E-3
2.57879E-3	91.0583E-12	692.698E-3	-13.2685E-3	91.8482E-12	701.981E-3	-15.6274E-3
2.57379E-3	90.9429E-12	683.735E-3	-4.34915E-3	91.5116E-12	705.053E-3	-6.22342E-3
2.56878E-3	90.5086E-12	698.067E-3	-8.60766E-3	91.0125E-12	713.429E-3	-13.6750E-3
2.56378E-3	90.7412E-12	716.093E-3	-22.6144E-3	91.3156E-12	722.207E-3	-22.4151E-3
2.55878E-3	90.7553E-12	712.014E-3	-27.2427E-3	91.5422E-12	728.988E-3	-29.5662E-3
2.55378E-3	90.9571E-12	690.113E-3	-21.4197E-3	91.0211E-12	723.591E-3	-32.6167E-3
2.54877E-3	90.8064E-12	677.939E-3	-15.3212E-3	90.3961E-12	707.257E-3	-36.7262E-3
2.54377E-3	90.9538E-12	701.211E-3	-8.22721E-3	90.3395E-12	699.722E-3	-43.3745E-3
2.53877E-3	90.9137E-12	733.517E-3	8.17909E-3	90.6183E-12	700.338E-3	-33.0528E-3
2.53377E-3	91.1367E-12	733.091E-3	12.2902E-3	90.6140E-12	716.648E-3	-13.8638E-3
2.52876E-3	91.3063E-12	712.837E-3	-8.46088E-3	90.6214E-12	731.612E-3	-16.4719E-3
2.52376E-3	90.8274E-12	709.827E-3	-33.9251E-3	90.4173E-12	734.556E-3	-24.9967E-3
2.51876E-3	90.1983E-12	717.799E-3	-43.5845E-3	90.5855E-12	741.182E-3	-19.4974E-3
2.51376E-3	89.3455E-12	713.289E-3	-30.7914E-3	90.4599E-12	740.601E-3	-17.0122E-3
2.50875E-3	89.4633E-12	697.057E-3	-14.3000E-3	90.1709E-12	730.877E-3	-15.1460E-3
2.50375E-3	89.0489E-12	677.020E-3	-15.9938E-3	89.7863E-12	726.508E-3	-12.0027E-3
2.49875E-3	87.7906E-12	674.075E-3	-27.3946E-3	88.8079E-12	720.457E-3	-13.0786E-3
2.49375E-3	87.1434E-12	684.787E-3	-33.6921E-3	88.6922E-12	713.583E-3	-15.1526E-3
2.48874E-3	86.6128E-12	690.683E-3	-36.6450E-3	88.0791E-12	722.257E-3	-22.0576E-3
2.48374E-3	86.7376E-12	687.032E-3	-31.1061E-3	87.9017E-12	737.038E-3	-23.6621E-3
2.47874E-3	85.4372E-12	686.360E-3	-26.5365E-3	87.2029E-12	735.159E-3	-16.6778E-3
2.47374E-3	85.0554E-12	702.684E-3	-27.0591E-3	86.7740E-12	719.252E-3	-12.5228E-3
2.46873E-3	85.1417E-12	705.801E-3	-25.8731E-3	86.4022E-12	696.407E-3	-17.0650E-3
2.46373E-3	85.2140E-12	697.948E-3	-34.1037E-3	86.0968E-12	691.232E-3	-22.0456E-3
2.45873E-3	85.2868E-12	702.017E-3	-36.9382E-3	85.8618E-12	716.042E-3	-11.9283E-3
2.45373E-3	84.9363E-12	695.446E-3	-20.1393E-3	85.8406E-12	740.731E-3	-4.13960E-3
2.44872E-3	85.5178E-12	687.967E-3	-6.86629E-3	86.0315E-12	746.156E-3	-8.46414E-3
2.44372E-3	85.8102E-12	700.130E-3	-8.06440E-3	85.7397E-12	733.011E-3	-15.9156E-3
2.43872E-3	86.6034E-12	710.527E-3	-7.33600E-3	85.7586E-12	721.875E-3	-31.9054E-3
2.43372E-3	86.4511E-12	705.585E-3	-6.84433E-3	85.7575E-12	729.657E-3	-35.5242E-3
2.42871E-3	86.4791E-12	704.330E-3	-11.0998E-3	86.0092E-12	741.962E-3	-6.40888E-3
2.42371E-3	86.3783E-12	715.854E-3	-7.21109E-3	85.6623E-12	744.331E-3	24.5434E-3
2.41871E-3	86.1122E-12	741.421E-3	1.47023E-3	84.9836E-12	739.704E-3	30.7395E-3
2.41371E-3	85.5737E-12	761.188E-3	-2.44475E-3	84.6699E-12	735.527E-3	13.1100E-3
2.40870E-3	84.6255E-12	746.670E-3	-8.67867E-3	84.2409E-12	734.467E-3	-17.2675E-3
2.40370E-3	83.7727E-12	713.402E-3	-13.2829E-3	84.0894E-12	733.264E-3	-33.1411E-3
2.39870E-3	83.2413E-12	696.905E-3	-20.8941E-3	83.1046E-12	726.103E-3	-33.7936E-3
2.39370E-3	82.7128E-12	702.398E-3	-29.2613E-3	82.6119E-12	717.672E-3	-33.1773E-3
2.38869E-3	81.9110E-12	714.817E-3	-30.0255E-3	82.1915E-12	719.319E-3	-24.0103E-3
2.38369E-3	80.6748E-12	724.137E-3	-11.5883E-3	82.1620E-12	725.522E-3	-5.33066E-3
2.37869E-3	80.1538E-12	720.604E-3	4.04334E-3	81.5750E-12	738.231E-3	5.62663E-3
2.37369E-3	80.1641E-12	705.802E-3	5.63633E-3	81.3929E-12	750.885E-3	-7.97356E-3
2.36868E-3	79.7682E-12	695.543E-3	10.4853E-3	81.0079E-12	749.616E-3	-28.6840E-3
2.36368E-3	79.3359E-12	704.115E-3	8.97436E-3	81.2561E-12	741.511E-3	-26.7671E-3
2.35868E-3	79.6803E-12	718.407E-3	-10.5377E-3	81.2310E-12	735.868E-3	-10.8387E-3
2.35368E-3	80.1850E-12	721.134E-3	-29.3329E-3	81.1114E-12	736.854E-3	4.08138E-3
2.34867E-3	80.8116E-12	720.455E-3	-21.8506E-3	80.9207E-12	739.949E-3	15.6051E-3
2.34367E-3	81.4120E-12	726.572E-3	-113.683E-6	80.7926E-12	745.251E-3	5.44209E-3
2.33867E-3	81.5610E-12	731.196E-3	3.44754E-3	80.8739E-12	745.095E-3	-13.1340E-3
2.33367E-3	82.0928E-12	730.228E-3	-550.014E-6	80.7912E-12	735.348E-3	-21.1952E-3
2.32866E-3	82.3778E-12	739.595E-3	-6.07283E-3	80.1636E-12	736.090E-3	-21.2699E-3
2.32366E-3	82.1809E-12	758.835E-3	-15.2799E-3	79.7020E-12	745.635E-3	-4.81165E-3
2.31866E-3	81.3593E-12	765.085E-3	-16.6804E-3	79.7664E-12	733.812E-3	1.45693E-3
2.31366E-3	80.8862E-12	762.095E-3	-11.4256E-3	79.5162E-12	717.852E-3	-18.5714E-3
2.30865E-3	80.2314E-12	760.219E-3	-7.55982E-3	79.1925E-12	735.109E-3	-32.7832E-3
2.30365E-3	79.2015E-12	751.450E-3	-7.56155E-3	78.9219E-12	760.792E-3	-34.4882E-3
2.29865E-3	78.2416E-12	747.109E-3	-8.99368E-3	78.2973E-12	757.621E-3	-29.1699E-3
2.29365E-3	77.3783E-12	751.860E-3	-10.5681E-3	78.0303E-12	745.149E-3	-13.6538E-3
2.28864E-3	76.6482E-12	745.935E-3	-17.7149E-3	77.8496E-12	746.280E-3	-4.35241E-3
2.28364E-3	75.9007E-12	726.233E-3	-25.6348E-3	77.9832E-12	752.757E-3	-7.26014E-3
2.27864E-3	75.4939E-12	723.214E-3	-27.2829E-3	77.3869E-12	757.140E-3	-11.4615E-3
2.27364E-3	75.4355E-12	736.479E-3	-18.8992E-3	77.3101E-12	751.486E-3	-14.7229E-3
2.26863E-3	75.2511E-12	729.174E-3	2.41486E-3	77.3136E-12	740.308E-3	-17.5555E-3
2.26363E-3	75.4750E-12	719.514E-3	1.76805E-3	76.9844E-12	735.725E-3	-19.6528E-3
2.25863E-3	75.7018E-12	724.191E-3	-24.3177E-3	76.6435E-12	732.551E-3	-11.9565E-3
2.25363E-3	76.2994E-12	721.868E-3	-34.8354E-3	76.0366E-12	733.280E-3	-2.46635E-3
2.24862E-3	76.1792E-12	717.937E-3	-30.9097E-3	75.8026E-12	743.286E-3	-12.0187E-3
2.24362E-3	76.1569E-12	728.060E-3	-29.8246E-3	75.6193E-12	743.411E-3	-21.6574E-3
2.23862E-3	76.5443E-12	741.437E-3	-27.9318E-3	75.3947E-12	725.241E-3	-17.6710E-3
2.23362E-3	76.4953E-12	750.188E-3	-33.0086E-3	74.8579E-12	722.189E-3	-9.72923E-3
2.22861E-3	76.4138E-12	758.326E-3	-54.1468E-3	74.6434E-12	738.263E-3	-9.00758E-3
2.22361E-3	75.6288E-12	755.674E-3	-59.5560E-3	74.2618E-12	744.537E-3	-18.7889E-3
2.21861E-3	75.2742E-12	756.834E-3	-40.0237E-3	73.9549E-12	743.853E-3	-20.2775E-3
2.21361E-3	74.6893E-12	774.889E-3	-23.5827E-3	74.1303E-12	751.635E-3	-9.95960E-3
2.20860E-3	74.0272E-12	774.242E-3	-26.8053E-3	73.5436E-12	762.663E-3	-3.28855E-3
2.20360E-3	73.3731E-12	743.614E-3	-30.1764E-3	73.4972E-12	770.038E-3	-5.48632E-3
2.19860E-3	72.7178E-12	728.309E-3	-11.2988E-3	73.4610E-12	774.607E-3	-5.09350E-3
2.19360E-3	72.3549E-12	747.159E-3	-4.20586E-3	73.3906E-12	769.478E-3	-6.15165E-3
2.18859E-3	71.8784E-12	761.783E-3	-17.0388E-3	73.1656E-12	767.388E-3	-15.7885E-3
2.18359E-3	71.5805E-12	759.594E-3	-16.4334E-3	72.8572E-12	776.998E-3	-24.9413E-3
2.17859E-3	71.4283E-12	758.068E-3	-7.76686E-3	72.7906E-12	774.504E-3	-33.5718E-3
2.17359E-3	71.4467E-12	749.145E-3	-811.218E-6	72.4176E-12	755.581E-3	-36.0851E-3
2.16858E-3	71.2442E-12	736.445E-3	7.66260E-3	71.8350E-12	750.606E-3	-21.1373E-3
2.16358E-3	70.9517E-12	741.150E-3	-842.215E-6	71.5124E-12	766.616E-3	-14.0790E-3
2.15858E-3	71.0459E-12	756.970E-3	-25.8525E-3	71.1092E-12	773.961E-3	-25.0757E-3
2.15358E-3	70.8539E-12	776.022E-3	-41.4960E-3	70.8791E-12	767.624E-3	-26.0636E-3
2.14857E-3	70.6956E-12	788.060E-3	-35.3758E-3	70.7617E-12	769.847E-3	-20.3844E-3
2.14357E-3	70.1350E-12	781.201E-3	-19.5055E-3	70.1507E-12	769.207E-3	-16.0314E-3
2.13857E-3	70.3081E-12	769.473E-3	-19.8442E-3	69.7808E-12	761.029E-3	-12.3584E-3
2.13357E-3	70.2912E-12	763.387E-3	-32.1731E-3	69.6733E-12	771.665E-3	-19.2419E-3
2.12856E-3	69.7925E-12	757.672E-3	-36.9360E-3	69.4415E-12	792.147E-3	-26.7104E-3
2.12356E-3	69.5150E-12	756.744E-3	-34.8740E-3	69.6939E-12	790.866E-3	-22.0485E-3
2.11856E-3	69.4004E-12	765.015E-3	-27.1458E-3	69.2998E-12	775.248E-3	-14.3059E-3
2.11356E-3	69.2119E-12	770.880E-3	-16.9142E-3	69.1439E-12	777.498E-3	-3.29905E-3
2.10855E-3	68.9816E-12	772.605E-3	-15.5460E-3	68.9903E-12	786.647E-3	5.14891E-3
2.10355E-3	68.5855E-12	770.691E-3	-25.5956E-3	69.3310E-12	783.575E-3	-640.738E-6
2.09855E-3	68.3322E-12	765.870E-3	-33.8516E-3	68.9365E-12	785.313E-3	989.554E-6
2.09355E-3	68.4155E-12	767.971E-3	-24.6979E-3	68.8355E-12	799.598E-3	7.72912E-3
2.08854E-3	67.9688E-12	765.358E-3	-19.7236E-3	68.4388E-12	815.204E-3	-421.936E-6
2.08354E-3	67.4535E-12	755.968E-3	-25.9016E-3	68.2761E-12	820.302E-3	-23.2208E-3
2.07854E-3	66.9313E-12	762.511E-3	-25.0886E-3	68.0906E-12	811.729E-3	-44.6378E-3
2.07354E-3	66.5054E-12	775.020E-3	-20.1667E-3	67.6075E-12	791.859E-3	-43.3288E-3
2.06853E-3	65.9790E-12	774.138E-3	-11.7751E-3	66.6401E-12	771.589E-3	-33.9824E-3
2.06353E-3	65.4625E-12	765.996E-3	-3.83950E-3	66.4605E-12	769.020E-3	-28.8309E-3
2.05853E-3	65.2669E-12	767.486E-3	-10.8525E-3	66.2331E-12	788.207E-3	-16.2013E-3
2.05353E-3	65.0343E-12	767.152E-3	-23.3863E-3	65.7192E-12	800.776E-3	-6.26677E-3
2.04852E-3	64.6194E-12	748.536E-3	-18.7457E-3	65.1274E-12	792.663E-3	-10.6407E-3
2.04352E-3	64.5364E-12	749.910E-3	-12.4013E-3	64.8487E-12	787.175E-3	-18.4111E-3
2.03852E-3	64.4249E-12	782.076E-3	-16.3775E-3	64.5807E-12	789.138E-3	-26.2164E-3
2.03352E-3	64.4003E-12	806.906E-3	-20.7056E-3	64.1474E-12	787.721E-3	-31.9832E-3
2.02851E-3	64.4922E-12	808.359E-3	-25.2528E-3	64.4358E-12	797.697E-3	-23.4660E-3
2.02351E-3	64.5926E-12	800.254E-3	-24.3207E-3	64.1646E-12	811.064E-3	-19.7296E-3
2.01851E-3	64.8916E-12	798.563E-3	-13.4649E-3	63.9028E-12	805.627E-3	-26.2421E-3
2.01351E-3	64.8729E-12	804.441E-3	-1.21380E-3	63.7327E-12	802.042E-3	-15.0658E-3
2.00850E-3	64.8809E-12	806.377E-3	1.56315E-3	63.8086E-12	812.211E-3	-4.16486E-3
2.00350E-3	64.8325E-12	803.228E-3	1.98385E-3	63.6298E-12	824.594E-3	-10.0368E-3
1.99850E-3	64.6988E-12	808.684E-3	5.74934E-3	63.4432E-12	824.595E-3	-8.87850E-3
1.99350E-3	64.0915E-12	817.546E-3	-1.45991E-3	63.1137E-12	816.713E-3	-4.90130E-3
1.98849E-3	63.7406E-12	815.616E-3	-15.0512E-3	62.8333E-12	813.138E-3	-7.34745E-3
1.98349E-3	63.0388E-12	812.981E-3	-25.1651E-3	62.2798E-12	814.637E-3	-4.21017E-3
1.97849E-3	62.5444E-12	818.890E-3	-36.8601E-3	61.9499E-12	817.652E-3	-5.65189E-3
1.97349E-3	61.6196E-12	824.645E-3	-39.2418E-3	61.5183E-12	816.391E-3	-2.79918E-3
1.96848E-3	61.0230E-12	827.503E-3	-32.9135E-3	61.0597E-12	814.212E-3	12.2289E-3
1.96348E-3	60.4406E-12	825.631E-3	-26.4016E-3	60.7025E-12	814.607E-3	4.64026E-3
1.95848E-3	59.7907E-12	814.881E-3	-15.8229E-3	60.5166E-12	820.949E-3	-13.1615E-3
1.95348E-3	59.0757E-12	799.385E-3	-2.92096E-3	60.2674E-12	827.525E-3	-20.7061E-3
1.94847E-3	58.9441E-12	793.234E-3	3.05170E-3	60.0710E-12	829.769E-3	-26.6562E-3
1.94347E-3	59.1933E-12	794.671E-3	-1.92114E-3	59.7066E-12	823.757E-3	-26.5714E-3
1.93847E-3	58.9296E-12	790.948E-3	-7.76883E-3	59.3326E-12	817.753E-3	-20.6880E-3
1.93347E-3	59.0756E-12	791.333E-3	-16.3270E-3	59.4281E-12	823.652E-3	-14.7473E-3
1.92846E-3	59.2589E-12	801.331E-3	-28.8403E-3	59.2091E-12	837.430E-3	-17.8713E-3
1.92346E-3	59.8181E-12	809.947E-3	-24.3780E-3	59.0933E-12	850.251E-3	-28.8307E-3
1.91846E-3	59.7178E-12	818.406E-3	-2.71136E-3	59.0802E-12	857.069E-3	-31.3993E-3
1.91346E-3	59.8928E-12	837.162E-3	9.84317E-3	58.8425E-12	862.906E-3	-26.6615E-3
1.90845E-3	59.7985E-12	856.345E-3	5.27414E-3	58.6561E-12	871.296E-3	-22.3157E-3
1.90345E-3	59.7089E-12	859.175E-3	-12.8213E-3	58.4801E-12	875.566E-3	-16.1779E-3
1.89845E-3	59.3780E-12	852.815E-3	-29.8067E-3	58.2281E-12	861.118E-3	-15.5440E-3
1.89345E-3	58.4780E-12	860.596E-3	-27.7677E-3	57.8884E-12	839.501E-3	-11.6461E-3
1.88844E-3	57.8586E-12	872.197E-3	-15.4051E-3	57.4063E-12	838.380E-3	-4.28741E-3
1.88344E-3	56.9004E-12	856.280E-3	-11.0360E-3	56.9062E-12	852.887E-3	-9.60181E-3
1.87844E-3	55.8831E-12	831.469E-3	-9.11359E-3	56.7713E-12	871.272E-3	-24.6861E-3
1.87344E-3	55.0619E-12	824.777E-3	-4.70932E-3	56.2985E-12	885.997E-3	-25.8811E-3
1.86843E-3	54.5417E-12	832.644E-3	-7.54374E-3	56.0276E-12	888.476E-3	-13.5916E-3
1.86343E-3	53.7342E-12	834.068E-3	-13.4394E-3	55.6018E-12	884.766E-3	-14.8330E-3
1.85843E-3	53.2484E-12	819.186E-3	-18.6375E-3	55.3381E-12	877.734E-3	-28.3328E-3
1.85343E-3	53.0892E-12	815.698E-3	-20.6369E-3	55.2836E-12	876.659E-3	-36.3138E-3
1.84842E-3	52.9280E-12	821.277E-3	-26.7776E-3	55.0634E-12	887.485E-3	-27.4934E-3
1.84342E-3	52.8600E-12	818.756E-3	-31.3523E-3	54.6559E-12	891.024E-3	-11.3606E-3
1.83842E-3	52.6565E-12	824.555E-3	-20.2711E-3	54.5241E-12	884.620E-3	-4.85613E-3
1.83342E-3	53.0666E-12	843.955E-3	-13.0479E-3	54.4121E-12	878.459E-3	-5.54536E-3
1.82841E-3	53.6245E-12	858.957E-3	-14.5258E-3	54.1439E-12	882.026E-3	-965.725E-6
1.82341E-3	53.6015E-12	860.437E-3	-15.6384E-3	53.7367E-12	895.088E-3	9.85323E-3
1.81841E-3	53.5437E-12	862.380E-3	-10.1755E-3	53.3315E-12	898.802E-3	12.2776E-3
1.81341E-3	53.4792E-12	880.641E-3	856.201E-6	52.9105E-12	892.247E-3	-4.06190E-3
1.80840E-3	53.4766E-12	906.573E-3	2.61664E-3	52.4933E-12	885.441E-3	-22.1659E-3
1.80340E-3	53.0438E-12	910.775E-3	-4.79437E-3	51.9612E-12	887.467E-3	-12.7058E-3
1.79840E-3	52.6382E-12	895.542E-3	-6.76683E-3	51.7809E-12	903.500E-3	7.54071E-3
1.79340E-3	52.1835E-12	886.235E-3	-6.88817E-3	51.3445E-12	910.590E-3	1.49229E-3
1.78839E-3	51.6438E-12	892.407E-3	-4.27607E-3	50.8452E-12	894.516E-3	-13.4829E-3
1.78339E-3	50.9920E-12	905.900E-3	-366.882E-6	50.2854E-12	885.953E-3	-15.1854E-3
1.77839E-3	50.2217E-12	916.576E-3	-12.3563E-3	50.0798E-12	901.972E-3	-18.2494E-3
1.77339E-3	49.6680E-12	916.677E-3	-26.0639E-3	50.0917E-12	924.011E-3	-24.0425E-3
1.76838E-3	49.2089E-12	903.267E-3	-23.2064E-3	49.8310E-12	930.535E-3	-17.3102E-3
1.76338E-3	48.6871E-12	889.429E-3	-16.1664E-3	49.4246E-12	918.349E-3	-11.8444E-3
1.75838E-3	48.0882E-12	896.429E-3	-14.1804E-3	49.1782E-12	905.808E-3	-20.2421E-3
1.75338E-3	47.7117E-12	917.011E-3	-23.0524E-3	49.0035E-12	903.423E-3	-29.2894E-3
1.74837E-3	47.5090E-12	922.747E-3	-35.1443E-3	48.8375E-12	913.395E-3	-20.2563E-3
1.74337E-3	47.3532E-12	913.357E-3	-27.9931E-3	48.1850E-12	928.205E-3	-9.06268E-3
1.73837E-3	47.1821E-12	903.756E-3	-22.0939E-3	48.0684E-12	931.313E-3	-17.7813E-3
1.73337E-3	47.1150E-12	899.786E-3	-32.1469E-3	47.6700E-12	935.395E-3	-23.6733E-3
1.72836E-3	47.3562E-12	903.995E-3	-44.3013E-3	47.3354E-12	948.055E-3	-15.1479E-3
1.72336E-3	47.1937E-12	912.826E-3	-47.5969E-3	46.8283E-12	960.156E-3	-9.67419E-3
1.71836E-3	47.1504E-12	923.870E-3	-36.3316E-3	46.7744E-12	967.690E-3	-13.8907E-3
1.71336E-3	47.0821E-12	943.172E-3	-23.0161E-3	45.8841E-12	961.257E-3	-22.3802E-3
1.70835E-3	46.9964E-12	964.164E-3	-17.1693E-3	45.5192E-12	943.869E-3	-21.9365E-3
1.70335E-3	46.7706E-12	974.197E-3	-22.5998E-3	45.1584E-12	939.724E-3	-9.13072E-3
1.69835E-3	46.3991E-12	983.928E-3	-32.7431E-3	45.1414E-12	956.694E-3	1.80835E-3
1.69335E-3	46.1507E-12	994.813E-3	-32.1183E-3	44.6130E-12	972.093E-3	3.68224E-3
1.68834E-3	45.7508E-12	991.803E-3	-15.0794E-3	44.1827E-12	974.554E-3	-925.537E-6
1.68334E-3	45.1321E-12	981.704E-3	1.30375E-3	44.1222E-12	973.070E-3	-17.9290E-3
1.67834E-3	44.7249E-12	981.035E-3	813.764E-6	44.0352E-12	977.612E-3	-36.5037E-3
1.67334E-3	44.3249E-12	985.886E-3	-11.1922E-3	43.8465E-12	987.276E-3	-26.0044E-3
1.66833E-3	43.7419E-12	984.728E-3	-22.0735E-3	43.3639E-12	996.181E-3	-2.24604E-3
1.66333E-3	43.0776E-12	982.378E-3	-18.2660E-3	43.1550E-12	999.315E-3	6.63874E-3
1.65833E-3	42.8436E-12	980.106E-3	-11.2502E-3	43.0973E-12	1.00152E+0	-2.10845E-3
1.65333E-3	42.4901E-12	983.615E-3	-13.5691E-3	42.7978E-12	1.01988E+0	-15.4615E-3
1.64832E-3	42.0588E-12	987.535E-3	-13.3852E-3	42.3047E-12	1.04317E+0	-16.0640E-3
1.64332E-3	41.5893E-12	980.354E-3	-9.51810E-3	41.9523E-12	1.03900E+0	-12.5406E-3
1.63832E-3	41.5182E-12	980.314E-3	3.35170E-3	41.5618E-12	1.01967E+0	-18.1191E-3
1.63332E-3	41.3170E-12	997.443E-3	11.9731E-3	41.2943E-12	1.00809E+0	-30.6002E-3
1.62831E-3	40.8392E-12	1.01134E+0	-1.91417E-3	40.7670E-12	1.01158E+0	-33.9009E-3
1.62331E-3	40.4158E-12	1.01041E+0	-15.0655E-3	40.3160E-12	1.04411E+0	-23.7147E-3
1.61831E-3	40.3270E-12	1.00734E+0	-21.3368E-3	39.9279E-12	1.07117E+0	-19.4748E-3
1.61331E-3	40.1314E-12	1.02567E+0	-17.8206E-3	39.5630E-12	1.05982E+0	-18.3410E-3
1.60830E-3	39.5586E-12	1.05661E+0	-4.07366E-3	39.2454E-12	1.04151E+0	-17.9019E-3
1.60330E-3	39.3126E-12	1.05741E+0	-3.81170E-3	38.9580E-12	1.04049E+0	-25.3225E-3
1.59830E-3	39.3310E-12	1.04258E+0	-10.2749E-3	38.6446E-12	1.05770E+0	-20.4337E-3
1.59330E-3	39.0283E-12	1.05017E+0	-7.65906E-3	38.3754E-12	1.07350E+0	-2.86608E-3
1.58829E-3	38.5050E-12	1.06698E+0	-4.64995E-3	38.1364E-12	1.08003E+0	1.42029E-3
1.58329E-3	38.2370E-12	1.07040E+0	-9.50420E-3	37.9382E-12	1.08269E+0	-8.57896E-3
1.57829E-3	38.0660E-12	1.06888E+0	-16.9059E-3	37.7078E-12	1.08752E+0	-16.5913E-3
1.57329E-3	37.6667E-12	1.07660E+0	-27.2569E-3	37.2567E-12	1.10911E+0	-18.6200E-3
1.56828E-3	37.0128E-12	1.09295E+0	-31.4595E-3	36.8514E-12	1.12734E+0	-12.5292E-3
1.56328E-3	36.6803E-12	1.10337E+0	-22.6774E-3	36.7025E-12	1.12336E+0	-4.07298E-3
1.55828E-3	36.2687E-12	1.09690E+0	-13.5270E-3	36.2941E-12	1.10574E+0	-8.86037E-3
1.55328E-3	35.6960E-12	1.08566E+0	-8.23651E-3	35.7145E-12	1.09391E+0	-17.8815E-3
1.54827E-3	34.8390E-12	1.09327E+0	-14.3838E-3	35.2552E-12	1.11410E+0	-17.2092E-3
1.54327E-3	34.5445E-12	1.10626E+0	-30.6131E-3	35.0080E-12	1.13477E+0	-11.3924E-3
1.53827E-3	34.1044E-12	1.10227E+0	-31.5168E-3	34.6816E-12	1.11640E+0	-7.19894E-3
1.53327E-3	33.6262E-12	1.10189E+0	-26.8692E-3	34.0076E-12	1.10299E+0	-7.79102E-3
1.52826E-3	32.9658E-12	1.11104E+0	-29.7050E-3	33.5347E-12	1.12308E+0	-13.1686E-3
1.52326E-3	32.4449E-12	1.11517E+0	-25.1381E-3	33.2539E-12	1.14837E+0	-30.8186E-3
1.51826E-3	32.2265E-12	1.11666E+0	-24.9151E-3	32.8983E-12	1.16134E+0	-43.6657E-3
1.51326E-3	31.9231E-12	1.11409E+0	-28.1535E-3	32.3652E-12	1.16221E+0	-34.6570E-3
1.50825E-3	31.6776E-12	1.10852E+0	-29.5177E-3	32.0436E-12	1.16259E+0	-25.3238E-3
1.50325E-3	31.6668E-12	1.11453E+0	-32.9453E-3	31.8540E-12	1.16765E+0	-27.2772E-3
1.49825E-3	31.6178E-12	1.12463E+0	-30.4153E-3	31.4655E-12	1.17909E+0	-22.5685E-3
1.49325E-3	31.4283E-12	1.13148E+0	-26.5846E-3	31.1196E-12	1.19341E+0	-12.2623E-3
1.48824E-3	31.1215E-12	1.15250E+0	-17.6046E-3	30.8722E-12	1.20102E+0	-10.3124E-3
1.48324E-3	30.9842E-12	1.17971E+0	-7.95916E-3	30.6802E-12	1.20010E+0	-5.89505E-3
1.47824E-3	30.6957E-12	1.19325E+0	-8.48352E-3	30.0455E-12	1.18586E+0	-2.72009E-3
1.47324E-3	30.2474E-12	1.19945E+0	-1.12383E-3	29.6381E-12	1.17592E+0	-12.6354E-3
1.46823E-3	29.7056E-12	1.20433E+0	9.37599E-3	29.4435E-12	1.19434E+0	-20.9366E-3
1.46323E-3	29.1696E-12	1.20882E+0	9.78323E-3	29.0002E-12	1.20779E+0	-20.1277E-3
1.45823E-3	28.6262E-12	1.20882E+0	2.83670E-3	28.2267E-12	1.19163E+0	-17.8840E-3
1.45323E-3	27.8861E-12	1.19980E+0	-16.4817E-3	27.7014E-12	1.18442E+0	-21.0857E-3
1.44822E-3	27.1801E-12	1.19183E+0	-39.8387E-3	27.4780E-12	1.19384E+0	-31.9642E-3
1.44322E-3	26.7239E-12	1.18734E+0	-48.1227E-3	27.1559E-12	1.19908E+0	-31.8301E-3
1.43822E-3	26.1435E-12	1.17955E+0	-38.8664E-3	26.5166E-12	1.20116E+0	-18.7218E-3
1.43322E-3	25.7327E-12	1.17278E+0	-29.1511E-3	26.1546E-12	1.20382E+0	-19.8159E-3
1.42821E-3	25.3113E-12	1.17101E+0	-23.1099E-3	25.9795E-12	1.20718E+0	-33.9340E-3
1.42321E-3	25.1899E-12	1.17610E+0	-16.1544E-3	25.5871E-12	1.21800E+0	-37.8209E-3
1.41821E-3	24.6406E-12	1.18466E+0	-9.63545E-3	24.9651E-12	1.22677E+0	-26.1054E-3
1.41321E-3	24.2313E-12	1.18222E+0	-6.46891E-3	24.4548E-12	1.21447E+0	-17.8765E-3
1.40820E-3	24.1669E-12	1.16938E+0	-10.9680E-3	24.2396E-12	1.21229E+0	-18.4822E-3
1.40320E-3	24.1805E-12	1.17409E+0	-17.2677E-3	23.8334E-12	1.22285E+0	-23.4720E-3
1.39820E-3	23.8767E-12	1.20867E+0	-20.0748E-3	23.3365E-12	1.21828E+0	-37.4359E-3
1.39320E-3	23.4612E-12	1.23526E+0	-24.3690E-3	23.0095E-12	1.20941E+0	-37.7987E-3
1.38819E-3	23.3511E-12	1.23156E+0	-27.8618E-3	22.6148E-12	1.20269E+0	-31.6187E-3
1.38319E-3	23.1251E-12	1.22178E+0	-17.7511E-3	22.2439E-12	1.19701E+0	-37.2801E-3
1.37819E-3	22.7030E-12	1.22875E+0	-3.32509E-3	21.7306E-12	1.19011E+0	-26.4522E-3
1.37319E-3	22.0813E-12	1.24933E+0	795.262E-6	21.4320E-12	1.18495E+0	-8.40078E-3
1.36818E-3	21.7127E-12	1.25943E+0	-5.38257E-3	21.0344E-12	1.18440E+0	-172.730E-6
1.36318E-3	21.2662E-12	1.24559E+0	-15.9451E-3	20.3978E-12	1.17477E+0	2.67129E-3
1.35818E-3	20.5556E-12	1.23387E+0	-21.4902E-3	19.8774E-12	1.16142E+0	-8.37346E-3
1.35318E-3	19.7868E-12	1.23448E+0	-22.0615E-3	19.6333E-12	1.16379E+0	-22.4602E-3
1.34817E-3	19.3496E-12	1.22701E+0	-25.5463E-3	19.3723E-12	1.17428E+0	-25.3929E-3
1.34317E-3	18.8954E-12	1.21281E+0	-21.9449E-3	18.7575E-12	1.17430E+0	-29.8443E-3
1.33817E-3	18.2404E-12	1.20015E+0	-10.1126E-3	18.3740E-12	1.16327E+0	-33.0945E-3
1.33317E-3	17.7521E-12	1.19151E+0	-15.5823E-3	18.2958E-12	1.15019E+0	-24.7553E-3
1.32816E-3	17.5217E-12	1.17273E+0	-28.6919E-3	17.9945E-12	1.14835E+0	-19.9532E-3
1.32316E-3	17.0909E-12	1.14145E+0	-28.1320E-3	17.4337E-12	1.14696E+0	-23.3391E-3
1.31816E-3	16.7230E-12	1.12424E+0	-17.4167E-3	17.0490E-12	1.13930E+0	-23.0195E-3
1.31316E-3	16.4558E-12	1.12791E+0	-8.91386E-3	16.8336E-12	1.13387E+0	-14.5085E-3
1.30815E-3	16.2982E-12	1.13015E+0	-12.3936E-3	16.5602E-12	1.11935E+0	-9.79728E-3
1.30315E-3	16.0594E-12	1.12703E+0	-21.1671E-3	15.9590E-12	1.10281E+0	-14.2598E-3
1.29815E-3	15.6921E-12	1.13107E+0	-28.3241E-3	15.4707E-12	1.09806E+0	-13.1519E-3
1.29315E-3	15.4137E-12	1.13920E+0	-30.5647E-3	15.4039E-12	1.09380E+0	-6.96408E-3
1.28814E-3	15.2274E-12	1.13904E+0	-28.7836E-3	15.0542E-12	1.08594E+0	-12.3141E-3
1.28314E-3	14.8558E-12	1.13920E+0	-28.4595E-3	14.4234E-12	1.07863E+0	-26.3287E-3
1.27814E-3	14.4346E-12	1.14537E+0	-22.6501E-3	14.1097E-12	1.06544E+0	-40.9026E-3
1.27314E-3	14.0729E-12	1.13582E+0	-17.9999E-3	13.8755E-12	1.05371E+0	-47.0550E-3
1.26813E-3	13.7210E-12	1.10873E+0	-28.3383E-3	13.4976E-12	1.04787E+0	-38.9396E-3
1.26313E-3	13.2200E-12	1.08498E+0	-33.3434E-3	13.0225E-12	1.03397E+0	-27.2071E-3
1.25813E-3	12.7961E-12	1.07291E+0	-23.2393E-3	12.7133E-12	1.01072E+0	-24.1903E-3
1.25313E-3	12.5082E-12	1.06754E+0	-17.0868E-3	12.5220E-12	995.447E-3	-26.7158E-3
1.24812E-3	12.0474E-12	1.05910E+0	-14.2457E-3	12.0876E-12	994.215E-3	-26.7071E-3
1.24312E-3	11.5742E-12	1.03745E+0	-12.2881E-3	11.7821E-12	987.886E-3	-27.0673E-3
1.23812E-3	11.2338E-12	1.01765E+0	-13.3690E-3	11.5415E-12	961.643E-3	-17.5014E-3
1.23312E-3	11.0290E-12	1.00119E+0	-11.5163E-3	11.3261E-12	924.667E-3	-2.37361E-3
1.22811E-3	10.6790E-12	981.314E-3	-14.5704E-3	10.8680E-12	894.153E-3	-3.58584E-3
1.22311E-3	10.2103E-12	965.180E-3	-20.4656E-3	10.3804E-12	878.045E-3	-12.9937E-3
1.21811E-3	9.93212E-12	945.361E-3	-16.0293E-3	10.1825E-12	871.725E-3	-17.4716E-3
1.21311E-3	9.85968E-12	923.307E-3	-7.45074E-3	9.99568E-12	863.140E-3	-20.0857E-3
1.20810E-3	9.55568E-12	899.393E-3	-4.32767E-3	9.42559E-12	843.098E-3	-16.4368E-3
1.20310E-3	9.17312E-12	880.934E-3	-3.47677E-3	9.05423E-12	814.216E-3	-9.23195E-3
1.19810E-3	8.96526E-12	875.511E-3	-8.94948E-3	9.00383E-12	791.059E-3	-14.9913E-3
1.19310E-3	8.79711E-12	864.984E-3	-17.3793E-3	8.74982E-12	775.473E-3	-23.9849E-3
1.18809E-3	8.55502E-12	846.673E-3	-10.4806E-3	8.33737E-12	756.399E-3	-17.3646E-3
1.18309E-3	8.21871E-12	834.990E-3	-6.03376E-3	7.99486E-12	738.743E-3	-4.16567E-3
1.17809E-3	7.99448E-12	828.370E-3	-16.9987E-3	7.91124E-12	726.695E-3	-5.56395E-3
1.17309E-3	7.84476E-12	808.580E-3	-16.6324E-3	7.75168E-12	710.336E-3	-16.5089E-3
1.16808E-3	7.52244E-12	781.096E-3	-4.41335E-3	7.30381E-12	693.369E-3	-21.5604E-3
1.16308E-3	7.25887E-12	765.389E-3	-8.43906E-3	6.91123E-12	681.635E-3	-19.2899E-3
1.15808E-3	7.03902E-12	748.865E-3	-21.7254E-3	6.86581E-12	671.153E-3	-11.4410E-3
1.15308E-3	6.79636E-12	728.852E-3	-19.7391E-3	6.69353E-12	659.424E-3	-8.45825E-3
1.14807E-3	6.44511E-12	717.037E-3	-13.9047E-3	6.38604E-12	635.475E-3	-10.6604E-3
1.14307E-3	6.22336E-12	705.953E-3	-17.6498E-3	6.08354E-12	606.137E-3	-17.1325E-3
1.13807E-3	6.06719E-12	686.083E-3	-20.6811E-3	6.01678E-12	583.219E-3	-26.8743E-3
1.13307E-3	5.83230E-12	671.024E-3	-20.9182E-3	5.90977E-12	565.116E-3	-26.5327E-3
1.12806E-3	5.51200E-12	658.199E-3	-21.4259E-3	5.49282E-12	545.312E-3	-18.2289E-3
1.12306E-3	5.36748E-12	629.313E-3	-24.9068E-3	5.28957E-12	521.231E-3	-23.2262E-3
1.11806E-3	5.23335E-12	598.122E-3	-36.4196E-3	5.13224E-12	505.548E-3	-35.6688E-3
1.11306E-3	4.93997E-12	580.806E-3	-34.0446E-3	4.95930E-12	499.881E-3	-23.2139E-3
1.10805E-3	4.71679E-12	572.304E-3	-15.5175E-3	4.75424E-12	487.708E-3	-8.19327E-3
1.10305E-3	4.59533E-12	558.186E-3	-11.2109E-3	4.58348E-12	465.503E-3	-18.5903E-3
1.09805E-3	4.51840E-12	539.735E-3	-24.5309E-3	4.43960E-12	450.587E-3	-26.4201E-3
1.09305E-3	4.33807E-12	525.299E-3	-28.5518E-3	4.23142E-12	442.908E-3	-21.9986E-3
1.08804E-3	3.97149E-12	506.685E-3	-15.4820E-3	4.01785E-12	427.019E-3	-13.8448E-3
1.08304E-3	3.98736E-12	486.812E-3	-10.8069E-3	4.01554E-12	406.453E-3	245.989E-6
1.07804E-3	3.92962E-12	471.252E-3	-16.1626E-3	3.89259E-12	393.646E-3	6.57429E-3
1.07304E-3	3.73338E-12	463.937E-3	-20.7170E-3	3.66004E-12	383.311E-3	-10.2463E-3
1.06803E-3	3.49433E-12	465.365E-3	-27.4854E-3	3.42709E-12	369.612E-3	-32.9407E-3
1.06303E-3	3.46154E-12	453.249E-3	-29.1818E-3	3.50021E-12	355.953E-3	-35.4132E-3
1.05803E-3	3.42302E-12	414.733E-3	-21.5166E-3	3.41918E-12	338.510E-3	-28.3549E-3
1.05303E-3	3.20167E-12	373.712E-3	-20.2188E-3	3.14844E-12	322.883E-3	-25.5501E-3
1.04802E-3	3.05864E-12	355.480E-3	-18.9391E-3	2.91077E-12	315.970E-3	-27.3227E-3
1.04302E-3	3.11454E-12	356.141E-3	-14.3260E-3	3.11889E-12	306.071E-3	-30.8705E-3
1.03802E-3	2.89868E-12	352.066E-3	-13.7564E-3	3.04204E-12	284.691E-3	-27.3136E-3
1.03302E-3	2.61476E-12	334.318E-3	-4.60322E-3	2.59327E-12	265.565E-3	-20.8881E-3
1.02801E-3	2.46745E-12	313.312E-3	-954.442E-6	2.26324E-12	255.353E-3	-14.6200E-3
1.02301E-3	2.29572E-12	297.568E-3	-6.94793E-3	2.26049E-12	240.507E-3	-11.8029E-3
1.01801E-3	2.16235E-12	276.274E-3	-10.0821E-3	2.26288E-12	226.009E-3	-15.2439E-3
1.01301E-3	1.95951E-12	243.119E-3	-13.0989E-3	2.04219E-12	216.175E-3	-17.5985E-3
1.00800E-3	1.92438E-12	218.053E-3	-20.4668E-3	1.81465E-12	198.358E-3	-13.9345E-3
1.00300E-3	1.95159E-12	209.254E-3	-22.7356E-3	1.89999E-12	186.791E-3	-12.5641E-3
997.999E-6	1.77425E-12	203.730E-3	-20.4654E-3	1.93369E-12	190.214E-3	-25.5893E-3
992.997E-6	1.59267E-12	200.943E-3	-28.8586E-3	1.79364E-12	185.183E-3	-29.2037E-3
987.994E-6	1.65743E-12	203.311E-3	-34.4257E-3	1.66287E-12	163.989E-3	-16.5359E-3
982.991E-6	1.72320E-12	197.413E-3	-26.4361E-3	1.58183E-12	143.620E-3	-16.4064E-3
977.989E-6	1.54350E-12	190.074E-3	-17.3425E-3	1.58693E-12	145.461E-3	-26.5608E-3
972.986E-6	1.44547E-12	186.916E-3	-6.15388E-3	1.48585E-12	156.819E-3	-33.6714E-3
967.984E-6	1.43818E-12	183.574E-3	3.55103E-3	1.41159E-12	160.453E-3	-41.9616E-3
962.981E-6	1.52284E-12	176.280E-3	-8.43403E-3	1.47420E-12	158.039E-3	-40.9981E-3
957.979E-6	1.37780E-12	160.166E-3	-17.5548E-3	1.29738E-12	140.133E-3	-30.8223E-3
952.976E-6	1.22600E-12	152.898E-3	-9.93500E-3	1.21395E-12	116.953E-3	-27.8732E-3
947.974E-6	1.29700E-12	150.839E-3	-6.55511E-3	1.29202E-12	105.579E-3	-21.5497E-3
942.971E-6	1.31306E-12	136.261E-3	-8.64658E-3	1.28210E-12	111.270E-3	-7.82323E-3
937.969E-6	1.15510E-12	126.505E-3	-19.2605E-3	1.12687E-12	119.433E-3	-12.2296E-3
932.966E-6	1.05521E-12	126.953E-3	-35.1672E-3	1.00527E-12	110.011E-3	-25.3717E-3
927.964E-6	1.09683E-12	122.215E-3	-31.6726E-3	1.12142E-12	92.2240E-3	-21.4148E-3
922.961E-6	1.04308E-12	117.225E-3	-12.8806E-3	1.17438E-12	81.3873E-3	-17.8732E-3
917.959E-6	913.938E-15	117.174E-3	-4.43168E-3	959.732E-15	85.7217E-3	-21.7135E-3
912.956E-6	908.576E-15	117.762E-3	-4.00651E-3	786.741E-15	90.8537E-3	-23.1257E-3
907.954E-6	959.331E-15	106.215E-3	-1.17715E-3	948.850E-15	87.9125E-3	-18.3584E-3
902.951E-6	832.596E-15	87.0447E-3	269.854E-6	1.01233E-12	82.8390E-3	-4.84862E-3
897.949E-6	780.925E-15	79.2387E-3	-6.20790E-3	835.412E-15	76.8783E-3	2.29839E-3
892.946E-6	811.582E-15	75.7851E-3	-14.2038E-3	734.600E-15	68.0851E-3	-6.66531E-3
887.944E-6	877.954E-15	70.9781E-3	-14.9525E-3	830.137E-15	58.3323E-3	-23.0087E-3
882.941E-6	749.867E-15	72.6758E-3	-13.1735E-3	920.957E-15	58.1896E-3	-30.7457E-3
877.939E-6	640.466E-15	79.1465E-3	-14.7186E-3	759.955E-15	54.7882E-3	-35.6409E-3
872.936E-6	752.849E-15	80.0661E-3	-16.0169E-3	621.580E-15	40.1679E-3	-43.5645E-3
867.934E-6	815.445E-15	77.7519E-3	-16.7094E-3	689.285E-15	34.9629E-3	-43.2379E-3
862.931E-6	696.444E-15	76.4036E-3	-18.2844E-3	801.503E-15	44.7891E-3	-42.5884E-3
857.929E-6	590.417E-15	70.5813E-3	-21.2291E-3	682.258E-15	51.1519E-3	-40.8199E-3
852.926E-6	660.451E-15	67.4563E-3	-28.1185E-3	624.719E-15	45.1360E-3	-30.5042E-3
847.924E-6	722.087E-15	62.5650E-3	-21.4176E-3	651.679E-15	38.7633E-3	-27.3430E-3
842.921E-6	678.447E-15	46.3827E-3	-6.16903E-3	647.127E-15	40.5527E-3	-29.9171E-3
837.919E-6	488.811E-15	42.5060E-3	-8.03500E-3	535.642E-15	41.5977E-3	-28.2195E-3
832.916E-6	585.622E-15	51.1638E-3	-17.8313E-3	578.899E-15	41.2848E-3	-23.9888E-3
827.914E-6	697.368E-15	46.3031E-3	-18.2104E-3	625.940E-15	35.7053E-3	-24.1124E-3
822.911E-6	538.511E-15	36.7379E-3	-12.9799E-3	512.118E-15	22.5867E-3	-25.1451E-3
817.909E-6	435.222E-15	40.1862E-3	-7.64199E-3	453.716E-15	22.9611E-3	-18.7913E-3
812.906E-6	500.547E-15	46.8607E-3	-12.4805E-3	538.973E-15	38.3742E-3	-11.4362E-3
807.904E-6	546.193E-15	38.0371E-3	-21.8405E-3	605.196E-15	43.4526E-3	-11.3316E-3
802.901E-6	494.749E-15	28.9357E-3	-18.6219E-3	452.382E-15	31.4899E-3	-13.1299E-3
797.899E-6	417.548E-15	32.2200E-3	-12.9237E-3	314.198E-15	21.2720E-3	-12.1268E-3
792.896E-6	465.853E-15	29.5837E-3	-18.9679E-3	465.740E-15	18.0324E-3	-13.5542E-3
787.894E-6	485.846E-15	16.8122E-3	-23.1868E-3	587.182E-15	16.7511E-3	-11.6403E-3
782.891E-6	365.555E-15	12.9517E-3	-5.98227E-3	397.982E-15	16.0926E-3	-3.44995E-3
777.889E-6	385.487E-15	25.4759E-3	9.18252E-3	266.303E-15	10.6384E-3	-42.4194E-6
772.886E-6	465.513E-15	35.3094E-3	1.72070E-3	412.639E-15	7.10794E-3	-7.34593E-3
767.884E-6	447.229E-15	37.7172E-3	-16.4899E-3	496.353E-15	17.6027E-3	-16.6376E-3
762.881E-6	326.161E-15	36.1828E-3	-36.6621E-3	381.441E-15	27.9452E-3	-17.5222E-3
757.879E-6	373.952E-15	30.1887E-3	-45.1315E-3	240.651E-15	30.9030E-3	-14.3383E-3
752.876E-6	464.536E-15	25.2330E-3	-39.0182E-3	389.393E-15	35.2410E-3	-9.66880E-3
747.874E-6	336.467E-15	24.5293E-3	-28.5491E-3	417.461E-15	37.5124E-3	-6.51748E-3
742.871E-6	245.394E-15	29.7068E-3	-25.7082E-3	340.574E-15	34.2741E-3	-9.87584E-3
737.869E-6	372.591E-15	33.3161E-3	-22.7117E-3	304.406E-15	24.0626E-3	-16.0302E-3
732.866E-6	443.819E-15	34.4568E-3	-9.95210E-3	352.502E-15	14.0103E-3	-20.1094E-3
727.864E-6	356.269E-15	31.8888E-3	-8.71786E-3	354.900E-15	13.0508E-3	-19.0517E-3
722.861E-6	246.275E-15	19.3622E-3	-23.1530E-3	282.137E-15	15.6660E-3	-13.3684E-3
717.859E-6	308.749E-15	16.8226E-3	-31.6460E-3	284.997E-15	14.2051E-3	-12.9971E-3
712.856E-6	442.616E-15	32.3030E-3	-28.8148E-3	343.617E-15	15.3289E-3	-17.1281E-3
707.854E-6	278.920E-15	34.7951E-3	-27.5268E-3	285.337E-15	29.3680E-3	-19.7213E-3
702.851E-6	178.011E-15	31.5780E-3	-34.0551E-3	236.404E-15	37.1410E-3	-26.8434E-3
697.849E-6	310.841E-15	32.9796E-3	-33.8306E-3	328.838E-15	25.3626E-3	-28.1067E-3
692.846E-6	338.168E-15	24.5046E-3	-24.4583E-3	315.707E-15	15.7741E-3	-15.5507E-3
687.844E-6	246.981E-15	21.1488E-3	-27.9452E-3	212.923E-15	19.3960E-3	-15.9998E-3
682.841E-6	203.698E-15	22.0449E-3	-40.0883E-3	168.882E-15	23.3409E-3	-36.0475E-3
677.839E-6	243.607E-15	22.3054E-3	-41.6494E-3	272.738E-15	19.9469E-3	-38.2511E-3
672.836E-6	250.756E-15	27.0670E-3	-26.2554E-3	397.624E-15	14.8191E-3	-22.2936E-3
667.834E-6	182.781E-15	23.0567E-3	-15.8157E-3	234.425E-15	7.76949E-3	-8.00584E-3
662.831E-6	200.455E-15	12.3304E-3	-25.6030E-3	71.9322E-15	-3.37202E-3	-1.83428E-3
657.829E-6	267.907E-15	5.10999E-3	-27.1872E-3	256.189E-15	-11.1009E-3	-3.87807E-3
652.826E-6	228.897E-15	8.24818E-3	-12.0543E-3	346.835E-15	-4.56145E-3	2.75317E-3
647.824E-6	193.183E-15	16.1590E-3	-9.44032E-3	246.589E-15	12.2120E-3	3.91037E-3
642.821E-6	189.564E-15	3.73663E-3	-13.6223E-3	124.762E-15	21.8577E-3	-17.2276E-3
637.819E-6	323.170E-15	-10.9433E-3	-7.82766E-3	224.049E-15	24.2092E-3	-26.2232E-3
632.816E-6	181.970E-15	-8.24541E-3	-7.02325E-3	339.301E-15	22.8122E-3	-12.6530E-3
627.814E-6	112.817E-15	-1.59788E-3	-12.4158E-3	221.050E-15	17.3398E-3	-6.00072E-3
622.811E-6	198.964E-15	2.69056E-3	-17.6553E-3	80.6515E-15	15.6842E-3	-3.15933E-3
617.809E-6	291.528E-15	2.22935E-3	-17.6779E-3	205.765E-15	20.6978E-3	-7.78216E-3
612.806E-6	186.539E-15	7.50752E-3	-11.7286E-3	253.032E-15	21.0696E-3	-25.5353E-3
607.804E-6	68.0870E-15	17.4575E-3	-21.8375E-3	180.897E-15	13.0275E-3	-17.8022E-3
602.801E-6	143.413E-15	16.3514E-3	-35.4447E-3	146.587E-15	5.46795E-3	8.74938E-3
597.799E-6	296.559E-15	7.08772E-3	-19.7997E-3	192.599E-15	5.95673E-3	7.75683E-3
592.796E-6	180.618E-15	1.49993E-3	403.041E-6	195.223E-15	4.32514E-3	-9.37575E-3
587.794E-6	37.5345E-15	8.93502E-3	-2.38695E-3	133.979E-15	4.97372E-3	-14.2915E-3
582.791E-6	127.003E-15	16.9374E-3	-13.6506E-3	140.998E-15	22.7732E-3	-11.3592E-3
577.789E-6	212.357E-15	12.4425E-3	-16.2846E-3	229.141E-15	30.6360E-3	-6.94146E-3
572.786E-6	131.258E-15	7.46594E-3	-12.3848E-3	119.278E-15	19.9799E-3	-6.16980E-3
567.784E-6	91.0798E-15	-65.3075E-6	-6.62497E-3	77.2597E-15	13.7379E-3	-9.87026E-3
562.781E-6	137.432E-15	-6.66543E-3	-6.11358E-3	164.182E-15	11.0441E-3	-17.4646E-3
557.779E-6	160.433E-15	-6.61149E-3	-9.90887E-3	208.433E-15	6.26930E-3	-19.9450E-3
552.776E-6	92.7103E-15	-5.74522E-3	-13.1101E-3	98.9272E-15	1.55039E-3	-8.25255E-3
547.774E-6	93.8874E-15	9.80907E-6	-14.7774E-3	-13.6478E-15	-3.94589E-3	4.22469E-3
542.771E-6	139.202E-15	8.23094E-3	-5.50474E-3	134.232E-15	-6.93269E-3	336.556E-6
537.769E-6	123.882E-15	10.8379E-3	3.87316E-3	239.081E-15	1.33834E-3	-13.7835E-3
532.766E-6	42.1209E-15	11.9554E-3	-4.05849E-3	109.600E-15	18.3961E-3	-29.1729E-3
527.764E-6	110.384E-15	13.0717E-3	-23.0110E-3	-15.1824E-15	16.0805E-3	-36.8627E-3
522.761E-6	160.834E-15	8.83630E-3	-33.7851E-3	94.2972E-15	1.81454E-3	-25.9456E-3
517.759E-6	113.924E-15	15.8621E-3	-26.3115E-3	187.559E-15	4.32543E-3	-13.8949E-3
512.756E-6	11.7166E-15	28.3552E-3	-9.82221E-3	95.6574E-15	8.12207E-3	-12.5630E-3
507.754E-6	51.4592E-15	29.5131E-3	-2.67375E-3	-83.2889E-15	3.87340E-3	-10.7360E-3
502.751E-6	204.195E-15	26.0796E-3	-19.2009E-3	73.5889E-15	680.202E-6	-11.0237E-3
497.749E-6	17.5063E-15	17.2055E-3	-36.8238E-3	158.070E-15	-7.30137E-3	-22.8582E-3
492.746E-6	-91.3892E-15	8.21091E-3	-25.3439E-3	78.4804E-15	-9.90200E-3	-27.2439E-3
487.744E-6	71.2434E-15	11.0702E-3	-3.66757E-3	-12.2091E-15	4.87034E-3	-27.6480E-3
482.741E-6	182.563E-15	24.0247E-3	343.829E-6	35.0670E-15	14.8629E-3	-31.6968E-3
477.739E-6	49.4887E-15	24.5178E-3	-6.05539E-3	103.391E-15	6.87704E-3	-23.6074E-3
472.736E-6	-69.3816E-15	5.35485E-3	-5.19447E-3	17.6371E-15	-3.88878E-3	-7.70376E-3
467.734E-6	29.1029E-15	-1.25569E-3	2.42138E-3	21.6305E-15	-336.076E-6	-2.03301E-3
462.731E-6	152.891E-15	11.8885E-3	1.69672E-3	84.5403E-15	4.40687E-3	-14.1249E-3
457.729E-6	24.0981E-15	10.7591E-3	-14.9138E-3	-21.6347E-15	-4.73853E-3	-23.5344E-3
452.726E-6	-95.6965E-15	6.17228E-3	-30.2652E-3	-30.1099E-15	-14.6340E-3	-16.8496E-3
447.724E-6	2.26492E-15	13.7865E-3	-27.3331E-3	94.8988E-15	-13.3413E-3	-6.08173E-3
442.721E-6	100.287E-15	17.5295E-3	-12.4902E-3	76.1349E-15	-5.38144E-3	-4.08641E-3
437.719E-6	7.72320E-15	22.9600E-3	-9.45550E-3	-25.0963E-15	5.82472E-3	-11.5368E-3
432.716E-6	-66.3909E-15	27.4389E-3	-16.7584E-3	-81.4579E-15	19.9828E-3	-16.1780E-3
427.714E-6	13.3995E-15	10.7256E-3	-11.5350E-3	41.9639E-15	28.8236E-3	-16.4863E-3
422.711E-6	47.2653E-15	-4.43629E-3	-968.550E-6	132.017E-15	19.1396E-3	-21.2013E-3
417.709E-6	-35.1758E-15	7.86274E-3	-419.992E-6	-18.6614E-15	-1.40251E-3	-29.8986E-3
412.706E-6	-46.6678E-15	20.9374E-3	-10.2093E-3	-164.684E-15	134.155E-6	-35.6383E-3
407.704E-6	88.7866E-15	20.2155E-3	-21.2389E-3	-26.6919E-15	19.5582E-3	-28.1842E-3
402.701E-6	-4.78901E-15	15.8847E-3	-24.9606E-3	119.862E-15	25.8599E-3	-8.76120E-3
397.699E-6	-58.9533E-15	3.89730E-3	-24.1171E-3	-9.34920E-15	13.7805E-3	-6.76517E-3
392.696E-6	-20.4489E-15	-10.0707E-3	-20.2516E-3	-90.5347E-15	3.65613E-3	-24.7960E-3
387.694E-6	36.7411E-15	-3.06968E-3	-15.3855E-3	-23.9279E-15	2.68566E-3	-28.4972E-3
382.691E-6	-46.1883E-15	7.90445E-3	-19.6434E-3	60.4925E-15	-1.55295E-3	-12.2509E-3
377.689E-6	-129.362E-15	5.45112E-3	-24.7295E-3	-16.9960E-15	-5.20582E-3	-8.30096E-3
372.686E-6	-24.2156E-15	2.71455E-3	-22.5585E-3	-125.560E-15	-960.484E-6	-20.8394E-3
367.684E-6	93.7566E-15	1.84160E-3	-16.7435E-3	-39.5006E-15	1.94569E-3	-28.4522E-3
362.681E-6	-48.2373E-15	6.53364E-3	-14.2261E-3	6.65073E-15	-2.13083E-3	-31.7397E-3
357.679E-6	-150.061E-15	16.9315E-3	-18.7165E-3	-30.2755E-15	-7.78408E-3	-25.3815E-3
352.676E-6	-71.7533E-15	20.8261E-3	-22.8935E-3	-65.8852E-15	-8.41870E-3	-17.8684E-3
347.674E-6	43.6380E-15	11.9301E-3	-20.6139E-3	-19.8734E-15	-10.0218E-3	-15.0652E-3
342.671E-6	-80.4116E-15	-1.79586E-3	-16.1591E-3	-59.3370E-15	-4.51588E-3	-2.62914E-3
337.669E-6	-186.970E-15	-11.0870E-3	-20.0380E-3	-106.020E-15	9.75089E-3	-6.73333E-3
332.666E-6	-54.3147E-15	-10.7144E-3	-22.3642E-3	-68.5184E-15	14.7318E-3	-27.6185E-3
327.664E-6	57.0222E-15	-9.73997E-3	-17.2816E-3	-17.1879E-15	18.8955E-3	-17.3878E-3
322.661E-6	-71.5004E-15	-13.3426E-3	-15.0596E-3	-134.890E-15	21.4751E-3	3.32503E-3
317.659E-6	-134.332E-15	-8.01459E-3	-13.2531E-3	-123.328E-15	14.9700E-3	-7.70586E-3
312.656E-6	-87.2039E-15	4.94202E-3	-15.7914E-3	-59.1975E-15	19.7071E-3	-26.8329E-3
307.654E-6	-11.7121E-15	16.0256E-3	-10.4611E-3	33.4277E-15	34.3294E-3	-37.0035E-3
302.651E-6	-54.3408E-15	10.9348E-3	1.76159E-3	-96.9346E-15	30.6283E-3	-39.3073E-3
297.649E-6	-119.387E-15	-2.42282E-3	1.00296E-3	-181.163E-15	9.93524E-3	-27.4749E-3
292.646E-6	-15.4353E-15	-5.22777E-3	478.315E-6	-41.3055E-15	-6.71505E-3	-19.2449E-3
287.644E-6	-73.1309E-15	-371.277E-6	1.44311E-3	78.0444E-15	1.75161E-3	-25.5967E-3
282.641E-6	-143.862E-15	14.4521E-3	-7.09543E-3	-100.292E-15	20.2302E-3	-26.1965E-3
277.639E-6	-109.028E-15	27.5619E-3	-17.8632E-3	-196.718E-15	18.0915E-3	-19.6621E-3
272.636E-6	-61.4209E-15	20.1685E-3	-26.0209E-3	-69.3119E-15	4.50729E-3	-13.5107E-3
267.634E-6	-60.3572E-15	-1.14539E-3	-31.8371E-3	-21.9486E-15	-5.94671E-3	-4.08437E-3
262.631E-6	-164.971E-15	-13.4213E-3	-32.8788E-3	-74.1075E-15	-9.17752E-3	-3.74190E-3
257.629E-6	-114.574E-15	-13.3307E-3	-25.0840E-3	-226.756E-15	6.76950E-3	-13.5743E-3
252.626E-6	887.263E-18	-18.1631E-3	-11.9614E-3	-151.247E-15	18.2905E-3	-14.9842E-3
247.624E-6	-124.357E-15	-14.4213E-3	-8.05900E-3	13.9313E-15	42.2364E-6	-7.98425E-3
242.621E-6	-235.511E-15	-3.57362E-3	-9.73594E-3	-90.5696E-15	-9.86217E-3	-7.34163E-3
237.619E-6	-157.560E-15	-5.72097E-3	-7.16820E-3	-144.786E-15	-2.51508E-3	-14.6207E-3
232.616E-6	-11.1803E-15	-1.59670E-3	-4.17868E-3	-131.097E-15	-4.58575E-3	-25.3843E-3
227.614E-6	-146.949E-15	2.90308E-3	-4.81208E-3	-74.5347E-15	-1.48826E-3	-30.2427E-3
222.611E-6	-206.240E-15	-17.5114E-3	-24.0722E-3	-166.000E-15	8.54271E-3	-22.4140E-3
217.609E-6	-119.134E-15	-30.3555E-3	-43.2171E-3	-120.311E-15	290.666E-6	-23.9322E-3
212.606E-6	1.91614E-15	-18.6192E-3	-23.5764E-3	-27.4505E-15	-7.48561E-3	-34.8014E-3
207.604E-6	-148.701E-15	-8.03480E-3	-5.27458E-3	-142.022E-15	2.38925E-3	-32.1107E-3
202.601E-6	-194.905E-15	7.16205E-3	-20.1630E-3	-210.164E-15	8.39412E-3	-21.3078E-3
197.599E-6	-153.148E-15	14.3106E-3	-34.5271E-3	-119.352E-15	4.04525E-3	-14.1636E-3
192.596E-6	-44.0695E-15	-4.03227E-3	-28.8452E-3	-73.8372E-15	6.09691E-3	-10.8535E-3
187.594E-6	-127.818E-15	-19.5142E-3	-17.6955E-3	-149.756E-15	14.9726E-3	-10.4785E-3
182.591E-6	-166.349E-15	-21.9913E-3	-9.97879E-3	-198.061E-15	14.3193E-3	-19.1929E-3
177.589E-6	-94.7461E-15	-12.7757E-3	-6.62887E-3	-131.603E-15	3.43545E-3	-30.4371E-3
172.586E-6	-68.8846E-15	8.36442E-3	-11.3324E-3	-20.0042E-15	-2.68878E-3	-27.7919E-3
167.584E-6	-196.396E-15	23.2025E-3	-16.5502E-3	-147.254E-15	-2.29766E-3	-11.9657E-3
162.581E-6	-170.421E-15	17.2427E-3	-19.8217E-3	-256.986E-15	-5.73005E-3	-4.07397E-3
157.579E-6	-96.2022E-15	5.25344E-3	-21.6637E-3	-131.184E-15	-7.82326E-3	-9.87664E-3
152.576E-6	-145.179E-15	16.1124E-3	-26.6081E-3	-17.8069E-15	-3.60812E-3	-10.8049E-3
147.574E-6	-167.770E-15	24.3627E-3	-34.3363E-3	-103.989E-15	1.67487E-3	-12.3276E-3
142.571E-6	-150.602E-15	4.12537E-3	-26.8818E-3	-262.270E-15	4.97292E-3	-17.0562E-3
137.569E-6	-81.6933E-15	-6.11545E-3	-6.16380E-3	-145.859E-15	-5.40761E-3	-12.5498E-3
132.566E-6	-176.333E-15	4.62839E-3	4.02246E-3	-54.9512E-15	-20.3589E-3	-8.49845E-3
127.564E-6	-249.767E-15	13.3145E-3	-4.29396E-3	-126.109E-15	-10.6769E-3	-19.4306E-3
122.561E-6	-134.541E-15	8.14704E-3	-22.4276E-3	-223.112E-15	4.29976E-3	-28.0426E-3
117.559E-6	-25.8549E-15	-10.3231E-3	-32.2942E-3	-135.596E-15	5.62940E-3	-19.3534E-3
112.556E-6	-168.625E-15	-20.5600E-3	-25.7528E-3	-107.720E-15	10.1952E-3	-6.35999E-3
107.554E-6	-252.539E-15	-8.66648E-3	-11.5321E-3	-163.716E-15	12.9408E-3	-2.09401E-3
102.551E-6	-142.894E-15	1.67267E-3	-16.6171E-3	-161.466E-15	4.72688E-3	-8.15171E-3
97.5488E-6	-26.8053E-15	1.58745E-3	-34.9927E-3	-175.679E-15	-2.33228E-3	-12.8263E-3
92.5463E-6	-135.770E-15	5.37518E-3	-31.5625E-3	-134.619E-15	-2.58680E-3	-14.0360E-3
87.5438E-6	-251.223E-15	9.62775E-3	-13.2347E-3	-217.505E-15	-28.9838E-6	-22.3789E-3
82.5413E-6	-174.414E-15	10.9839E-3	-6.06256E-3	-143.548E-15	1.81020E-3	-25.6986E-3
77.5388E-6	-48.2896E-15	5.81310E-3	-15.3538E-3	-132.126E-15	-976.641E-6	-16.2791E-3
72.5363E-6	-146.373E-15	-5.41931E-3	-21.4837E-3	-223.966E-15	-8.19597E-3	-13.6697E-3
67.5338E-6	-228.805E-15	-15.5723E-3	-17.2083E-3	-266.778E-15	-13.6292E-3	-20.0848E-3
62.5313E-6	-153.706E-15	-10.5958E-3	-15.4699E-3	-116.283E-15	-16.3007E-3	-20.8531E-3
57.5288E-6	-85.1810E-15	2.46272E-3	-19.5596E-3	-85.2682E-15	-12.5318E-3	-22.2770E-3
52.5263E-6	-150.933E-15	-1.38696E-3	-26.3844E-3	-200.084E-15	-1.49033E-3	-30.0789E-3
47.5238E-6	-214.323E-15	-10.5779E-3	-27.1328E-3	-290.338E-15	4.58708E-3	-28.9835E-3
42.5213E-6	-105.541E-15	-16.8646E-3	-14.4326E-3	-120.311E-15	1.20002E-3	-13.8290E-3
37.5188E-6	-122.709E-15	-20.6439E-3	-10.8251E-3	878.546E-18	-2.18473E-3	-5.71560E-3
32.5163E-6	-201.383E-15	-14.9181E-3	-14.4724E-3	-189.167E-15	-1.08016E-3	-9.11140E-3
27.5138E-6	-153.811E-15	-4.31049E-3	-6.02015E-3	-276.674E-15	-6.03337E-3	-5.52206E-3
22.5113E-6	-136.390E-15	3.53731E-3	-10.9983E-3	-177.466E-15	-19.4514E-3	-1.77584E-3
17.5088E-6	-172.958E-15	867.458E-6	-34.9540E-3	-48.8913E-15	-26.0862E-3	-728.358E-6
12.5063E-6	-269.525E-15	1.15087E-3	-41.5021E-3	-167.753E-15	-21.6854E-3	639.003E-6
7.50375E-6	-145.667E-15	8.56510E-3	-28.9292E-3	-281.191E-15	-17.0050E-3	-6.87710E-3
2.50125E-6	-46.9643E-15	8.76994E-3	-21.6872E-3	-183.587E-15	-9.75193E-3	-17.0068E-3
-2.50125E-6	-169.950E-15	3.77220E-3	-15.1811E-3	-93.4818E-15	8.77073E-3	-19.4464E-3
-7.50375E-6	-278.723E-15	-12.3796E-3	-7.32452E-3	-158.406E-15	24.9085E-3	-23.5032E-3
-12.5063E-6	-152.450E-15	-19.3466E-3	-8.73444E-3	-250.743E-15	22.1538E-3	-29.3232E-3
-17.5088E-6	-60.8106E-15	2.89351E-3	-18.1457E-3	-182.079E-15	11.5865E-3	-28.7111E-3
-22.5113E-6	-179.341E-15	19.7521E-3	-18.0162E-3	-151.779E-15	8.91632E-3	-21.2556E-3
-27.5138E-6	-260.300E-15	22.2247E-3	-11.8023E-3	-234.412E-15	7.05576E-3	-5.46199E-3
-32.5163E-6	-171.441E-15	18.1077E-3	-9.78887E-3	-174.074E-15	11.6362E-3	2.71619E-3
-37.5188E-6	-78.6764E-15	2.23007E-3	-10.0454E-3	-142.650E-15	17.3710E-3	-7.33977E-3
-42.5213E-6	-196.980E-15	-14.5305E-3	-15.4282E-3	-191.504E-15	10.3337E-3	-14.2804E-3
-47.5238E-6	-286.780E-15	-23.3892E-3	-14.5286E-3	-212.858E-15	6.06283E-3	-11.3868E-3
-52.5263E-6	-176.524E-15	-23.8328E-3	-9.67083E-3	-155.363E-15	5.96825E-3	-9.69557E-3
-57.5288E-6	-80.7691E-15	-12.9212E-3	-11.8030E-3	-91.7031E-15	4.61904E-3	-7.64864E-3
-62.5313E-6	-191.853E-15	6.28475E-3	-10.8676E-3	-225.762E-15	4.94806E-3	-13.7071E-3
-67.5338E-6	-258.591E-15	12.9620E-3	-8.88420E-3	-263.029E-15	2.65205E-3	-26.6227E-3
-72.5363E-6	-175.461E-15	9.97250E-3	-13.5381E-3	-146.417E-15	-854.771E-6	-25.5079E-3
-77.5388E-6	-124.418E-15	8.87149E-3	-14.4399E-3	-62.6242E-15	-3.10679E-3	-15.2223E-3
-82.5413E-6	-232.040E-15	-3.71211E-3	-11.7181E-3	-200.799E-15	-3.21237E-3	-11.1033E-3
-87.5438E-6	-210.966E-15	-18.0731E-3	-13.3240E-3	-314.377E-15	-5.71335E-3	-11.6590E-3
-92.5463E-6	-152.782E-15	-18.2761E-3	-12.1663E-3	-166.497E-15	-7.37829E-3	-16.3263E-3
-97.5488E-6	-140.557E-15	-8.41462E-3	-6.35629E-3	-84.4835E-15	-968.018E-6	-25.9503E-3
-102.551E-6	-225.719E-15	-2.76282E-3	-8.87272E-3	-194.146E-15	504.229E-6	-36.1747E-3
-107.554E-6	-202.491E-15	-4.73645E-3	-19.1562E-3	-307.672E-15	-4.67761E-3	-33.4420E-3
-112.556E-6	-111.104E-15	-3.75739E-3	-20.8728E-3	-221.150E-15	-6.89703E-3	-19.0095E-3
-117.559E-6	-218.264E-15	-987.540E-6	-24.9028E-3	-58.0553E-15	-6.73913E-3	-18.5882E-3
-122.561E-6	-313.339E-15	5.26696E-3	-38.0713E-3	-193.213E-15	-6.41620E-3	-20.3614E-3
-127.564E-6	-129.667E-15	10.0964E-3	-35.7501E-3	-303.809E-15	-3.02180E-3	-2.20367E-3
-132.566E-6	-9.87236E-15	8.74416E-3	-25.2556E-3	-203.990E-15	-1.88665E-3	7.18094E-3
-137.569E-6	-193.056E-15	2.73416E-3	-25.0469E-3	-175.077E-15	-7.02872E-3	-573.242E-6
-142.571E-6	-309.163E-15	-711.086E-6	-23.6717E-3	-186.526E-15	-5.44908E-3	-6.14718E-3
-147.574E-6	-167.666E-15	-627.258E-6	-15.1262E-3	-181.896E-15	-3.73181E-6	-12.1583E-3
-152.576E-6	-44.8804E-15	-3.89075E-3	-16.6366E-3	-186.185E-15	-6.69469E-3	-29.0157E-3
-157.579E-6	-183.439E-15	260.001E-6	-19.8832E-3	-199.988E-15	-12.8915E-3	-36.6268E-3
-162.581E-6	-336.027E-15	4.37558E-3	-10.0546E-3	-224.367E-15	-4.50724E-3	-23.0786E-3
-167.584E-6	-206.815E-15	-3.52520E-3	-5.86064E-3	-170.770E-15	2.45672E-3	-13.2714E-3
-172.586E-6	-100.013E-15	-13.3108E-3	-10.7866E-3	-126.258E-15	5.77083E-3	-12.7340E-3
-177.589E-6	-179.550E-15	-18.1546E-3	-15.4622E-3	-233.069E-15	11.0216E-3	-13.1260E-3
-182.591E-6	-291.026E-15	-9.78201E-3	-19.9744E-3	-255.112E-15	4.71316E-3	-13.1917E-3
-187.594E-6	-184.285E-15	4.15274E-3	-18.5739E-3	-200.895E-15	-2.97453E-3	-15.0975E-3
-192.596E-6	-140.392E-15	3.06401E-3	-5.14389E-3	-115.899E-15	1.69638E-3	-29.0891E-3
-197.599E-6	-236.025E-15	-4.21247E-3	9.00673E-3	-253.778E-15	8.47559E-3	-47.6185E-3
-202.601E-6	-245.067E-15	-1.61865E-3	4.00139E-3	-340.055E-15	9.83085E-3	-45.9606E-3
-207.604E-6	-171.145E-15	2.35224E-3	-15.8683E-3	-229.084E-15	-2.67395E-3	-25.7264E-3
-212.606E-6	-202.900E-15	-5.11644E-3	-24.5758E-3	-91.7292E-15	-11.9258E-3	-9.08519E-3
-217.609E-6	-270.527E-15	-13.7494E-3	-18.4451E-3	-230.262E-15	2.08519E-3	-9.62266E-3
-222.611E-6	-212.439E-15	-22.0636E-3	-2.07627E-3	-322.547E-15	22.7564E-3	-15.8492E-3
-227.614E-6	-147.140E-15	-26.5345E-3	9.09642E-3	-221.420E-15	23.6490E-3	-11.1239E-3
-232.616E-6	-188.941E-15	-11.2286E-3	-1.40719E-3	-127.269E-15	-271.083E-6	-8.96450E-3
-237.619E-6	-290.512E-15	1.12619E-3	-10.9195E-3	-216.668E-15	-11.6686E-3	-15.0639E-3
-242.621E-6	-213.215E-15	-7.61058E-3	-12.8905E-3	-326.706E-15	-3.04936E-3	-16.5543E-3
-247.624E-6	-119.003E-15	-4.77907E-3	-22.0212E-3	-245.573E-15	3.25279E-3	-15.8176E-3
-252.626E-6	-227.663E-15	8.23118E-3	-26.1448E-3	-179.881E-15	13.9221E-3	-22.5716E-3
-257.629E-6	-339.628E-15	4.75869E-3	-23.6477E-3	-224.298E-15	15.4301E-3	-25.7777E-3
-262.631E-6	-221.839E-15	-817.854E-6	-24.2073E-3	-264.616E-15	1.87750E-3	-20.9203E-3
-267.634E-6	-124.191E-15	1.28270E-3	-20.5206E-3	-214.549E-15	-6.98370E-3	-23.4471E-3
-272.636E-6	-213.695E-15	5.23268E-3	-23.6641E-3	-232.110E-15	-15.0829E-3	-26.6779E-3
-277.639E-6	-312.502E-15	8.87165E-3	-30.0623E-3	-246.017E-15	-14.8591E-3	-18.3086E-3
-282.641E-6	-242.721E-15	9.49983E-3	-18.4294E-3	-260.038E-15	-3.01967E-3	-11.0015E-3
-287.644E-6	-127.853E-15	2.25507E-3	-1.71072E-3	-148.117E-15	2.64798E-3	-12.4131E-3
-292.646E-6	-242.137E-15	5.99326E-3	1.63859E-3	-225.911E-15	8.09116E-3	-16.9847E-3
-297.649E-6	-371.471E-15	22.2926E-3	-4.85876E-3	-306.224E-15	13.7411E-3	-21.8524E-3
-302.651E-6	-227.402E-15	10.8087E-3	-9.90115E-3	-178.713E-15	10.2406E-3	-21.7870E-3
-307.654E-6	-179.227E-15	-11.5938E-3	-7.92346E-3	-191.435E-15	5.73002E-3	-17.9516E-3
-312.656E-6	-245.808E-15	-11.6577E-3	-1.54475E-3	-264.633E-15	3.77779E-3	-11.1062E-3
-317.659E-6	-332.966E-15	-12.5822E-3	-4.47080E-3	-350.919E-15	-3.48812E-3	-3.88380E-3
-322.661E-6	-244.117E-15	-17.9944E-3	-15.3045E-3	-223.086E-15	-1.64031E-3	1.01808E-3
-327.664E-6	-206.423E-15	-9.31019E-3	-21.9624E-3	-107.459E-15	7.60655E-3	5.75678E-3
-332.666E-6	-291.532E-15	3.74482E-3	-20.6508E-3	-291.323E-15	-1.57040E-3	910.261E-6
-337.669E-6	-296.616E-15	9.49102E-3	-13.4406E-3	-384.279E-15	-13.1345E-3	-9.84390E-3
-342.671E-6	-182.890E-15	19.4408E-3	-8.60024E-3	-284.565E-15	-8.98171E-3	-14.0692E-3
-347.674E-6	-249.209E-15	21.2063E-3	-12.0589E-3	-143.051E-15	3.26866E-3	-19.0084E-3
-352.676E-6	-326.950E-15	13.7423E-3	-18.3215E-3	-303.696E-15	16.0272E-3	-26.8367E-3
-357.679E-6	-302.004E-15	15.4777E-3	-17.2176E-3	-383.163E-15	23.6080E-3	-26.2741E-3
-362.681E-6	-199.029E-15	14.8652E-3	-10.1117E-3	-284.818E-15	22.9210E-3	-13.6754E-3
-367.684E-6	-240.498E-15	10.7365E-3	-6.90853E-3	-137.087E-15	15.0617E-3	3.61221E-3
-372.686E-6	-423.508E-15	8.14618E-3	-13.2107E-3	-297.147E-15	6.37149E-3	3.86844E-3
-377.689E-6	-267.258E-15	2.46216E-3	-20.9181E-3	-390.383E-15	3.13971E-3	-13.2862E-3
-382.691E-6	-150.654E-15	-3.56278E-3	-26.4379E-3	-293.259E-15	731.253E-6	-21.3756E-3
-387.694E-6	-290.250E-15	738.682E-6	-24.9849E-3	-191.801E-15	-528.660E-6	-16.9117E-3
-392.696E-6	-449.456E-15	4.92522E-3	-12.8793E-3	-319.373E-15	-740.923E-6	-12.9464E-3
-397.699E-6	-271.835E-15	3.70207E-3	-7.92569E-3	-318.623E-15	-2.61627E-3	-10.5702E-3
-402.701E-6	-197.669E-15	9.28047E-3	-15.7079E-3	-279.334E-15	367.449E-6	-7.58880E-3
-407.704E-6	-291.393E-15	-558.559E-6	-17.9933E-3	-296.903E-15	5.27551E-3	-7.52439E-3
-412.706E-6	-419.183E-15	-28.0905E-3	-12.9789E-3	-360.441E-15	8.19505E-3	-9.95421E-3
-417.709E-6	-304.071E-15	-29.8944E-3	-14.5715E-3	-319.486E-15	17.0958E-3	-5.47314E-3
-422.711E-6	-238.048E-15	-1.67922E-3	-20.8356E-3	-258.974E-15	25.8555E-3	2.54450E-3
-427.714E-6	-325.651E-15	9.12819E-3	-22.2721E-3	-342.636E-15	17.8836E-3	2.93264E-3
-432.716E-6	-420.404E-15	1.59019E-3	-18.8806E-3	-345.348E-15	7.65888E-3	-4.97307E-3
-437.719E-6	-338.895E-15	5.11091E-3	-12.0033E-3	-298.952E-15	77.8372E-6	-8.80723E-3
-442.721E-6	-279.901E-15	1.11237E-3	-12.9660E-3	-230.985E-15	-7.75222E-3	-7.38797E-3
-447.724E-6	-350.178E-15	-4.43062E-3	-29.4044E-3	-358.244E-15	-2.28490E-3	-7.60946E-3
-452.726E-6	-363.301E-15	7.13946E-3	-35.6115E-3	-457.434E-15	3.14030E-3	-14.7685E-3
-457.729E-6	-307.105E-15	690.761E-6	-24.9416E-3	-295.639E-15	2.63175E-3	-28.1420E-3
-462.731E-6	-301.237E-15	-19.1348E-3	-19.4087E-3	-192.969E-15	2.24686E-3	-24.1124E-3
-467.734E-6	-402.355E-15	-26.4603E-3	-21.1684E-3	-359.246E-15	3.14423E-3	-9.03107E-3
-472.736E-6	-401.648E-15	-30.2278E-3	-20.5756E-3	-450.407E-15	8.09587E-3	-7.68604E-3
-477.739E-6	-305.152E-15	-25.7609E-3	-24.7378E-3	-347.658E-15	10.3313E-3	-8.23397E-3
-482.741E-6	-357.886E-15	-6.67392E-3	-32.3991E-3	-280.223E-15	2.12821E-3	-6.51766E-3
-487.744E-6	-450.607E-15	10.4245E-3	-30.1856E-3	-354.564E-15	-2.51494E-3	-6.22383E-3
-492.746E-6	-368.471E-15	14.9179E-3	-25.9912E-3	-481.840E-15	5.49079E-3	-13.3049E-3
-497.749E-6	-258.756E-15	19.2700E-3	-20.5651E-3	-381.637E-15	21.8841E-3	-23.9266E-3
-502.751E-6	-389.206E-15	21.0734E-3	-14.0443E-3	-316.766E-15	32.3219E-3	-18.7973E-3
-507.754E-6	-507.309E-15	14.9808E-3	-11.5427E-3	-379.536E-15	25.2492E-3	-13.5788E-3
-512.756E-6	-344.641E-15	9.72543E-3	-10.8103E-3	-421.546E-15	16.9469E-3	-13.1585E-3
-517.759E-6	-299.563E-15	1.57605E-3	-16.9817E-3	-377.008E-15	7.81029E-3	-13.7675E-3
-522.761E-6	-403.183E-15	-3.97837E-3	-31.7820E-3	-383.913E-15	6.09703E-3	-20.2462E-3
-527.764E-6	-519.612E-15	5.50613E-3	-33.0757E-3	-427.283E-15	14.1073E-3	-26.7699E-3
-532.766E-6	-427.928E-15	10.2766E-3	-20.2707E-3	-446.631E-15	10.1894E-3	-30.8440E-3
-537.769E-6	-276.020E-15	1.86890E-3	-24.7201E-3	-357.380E-15	-5.21057E-3	-26.0398E-3
-542.771E-6	-440.824E-15	3.96564E-3	-29.8021E-3	-410.708E-15	-13.4995E-3	-16.8192E-3
-547.774E-6	-538.472E-15	16.6090E-3	-12.8446E-3	-471.455E-15	-8.80193E-3	-22.2095E-3
-552.776E-6	-426.359E-15	13.6585E-3	-12.2613E-3	-435.767E-15	1.28980E-3	-35.5185E-3
-557.779E-6	-343.909E-15	946.542E-6	-30.5263E-3	-403.392E-15	10.7753E-3	-37.4985E-3
-562.781E-6	-413.010E-15	-2.36093E-3	-34.9548E-3	-491.396E-15	14.3394E-3	-32.8891E-3
-567.784E-6	-534.844E-15	-4.66291E-3	-28.4390E-3	-544.279E-15	9.11579E-3	-25.1336E-3
-572.786E-6	-420.813E-15	-5.67180E-3	-17.1371E-3	-474.516E-15	10.7458E-3	-14.4663E-3
-577.789E-6	-404.125E-15	4.57746E-3	-9.56791E-3	-315.815E-15	19.5811E-3	-8.87788E-3
-582.791E-6	-510.797E-15	10.7849E-3	-15.0901E-3	-496.392E-15	13.7264E-3	-9.80298E-3
-587.794E-6	-521.216E-15	12.7416E-3	-25.1047E-3	-571.126E-15	2.56022E-3	-15.9481E-3
-592.796E-6	-471.202E-15	20.4655E-3	-23.4175E-3	-490.917E-15	5.01045E-3	-20.6472E-3
-597.799E-6	-440.650E-15	16.8613E-3	-16.7563E-3	-338.826E-15	11.5248E-3	-19.4857E-3
-602.801E-6	-557.087E-15	9.91707E-3	-17.6780E-3	-489.818E-15	14.8950E-3	-18.1198E-3
-607.804E-6	-474.237E-15	17.6466E-3	-16.3500E-3	-562.816E-15	17.0037E-3	-18.6029E-3
-612.806E-6	-442.045E-15	27.9843E-3	-15.4143E-3	-504.484E-15	8.97242E-3	-22.2425E-3
-617.809E-6	-466.511E-15	34.1021E-3	-24.3182E-3	-409.121E-15	3.20911E-3	-28.6706E-3
-622.811E-6	-616.483E-15	35.6240E-3	-26.4857E-3	-494.396E-15	11.8824E-3	-27.2739E-3
-627.814E-6	-460.739E-15	25.0893E-3	-15.0632E-3	-614.452E-15	14.9857E-3	-21.4157E-3
-632.816E-6	-368.925E-15	15.6012E-3	-15.6443E-3	-560.069E-15	15.4665E-3	-15.9928E-3
-637.819E-6	-544.819E-15	17.3946E-3	-26.0532E-3	-432.593E-15	19.9303E-3	-15.6407E-3
-642.821E-6	-634.750E-15	11.2545E-3	-30.1062E-3	-469.729E-15	12.7359E-3	-23.8840E-3
-647.824E-6	-467.941E-15	-5.36447E-3	-35.2047E-3	-517.223E-15	1.27421E-3	-25.2593E-3
-652.826E-6	-441.870E-15	-4.32429E-3	-28.6125E-3	-528.070E-15	2.69989E-3	-14.4809E-3
-657.829E-6	-520.623E-15	9.49382E-3	-10.1711E-3	-498.389E-15	10.8690E-3	-4.91843E-3
-662.831E-6	-668.311E-15	13.2478E-3	-8.83664E-3	-552.065E-15	11.0277E-3	507.664E-6
-667.834E-6	-555.239E-15	8.98624E-3	-23.3704E-3	-543.302E-15	18.5049E-3	1.16265E-3
-672.836E-6	-457.051E-15	1.54333E-3	-28.4348E-3	-479.756E-15	26.0795E-3	-2.41206E-3
-677.839E-6	-555.239E-15	-7.89719E-3	-23.3057E-3	-579.574E-15	13.8700E-3	-4.67433E-3
-682.841E-6	-666.079E-15	-3.96005E-3	-22.0181E-3	-610.868E-15	734.053E-6	-9.50814E-3
-687.844E-6	-586.986E-15	13.7820E-3	-28.9048E-3	-494.997E-15	3.27052E-3	-17.1791E-3
-692.846E-6	-509.131E-15	14.7710E-3	-34.9994E-3	-459.021E-15	15.3703E-3	-21.6986E-3
-697.849E-6	-581.937E-15	6.53398E-3	-30.3096E-3	-610.371E-15	12.8015E-3	-21.9698E-3
-702.851E-6	-638.500E-15	2.10012E-3	-23.0551E-3	-696.457E-15	5.98084E-3	-25.5865E-3
-707.854E-6	-552.239E-15	-2.15142E-3	-24.1125E-3	-515.575E-15	11.0081E-3	-27.1665E-3
-712.856E-6	-534.435E-15	1.08663E-3	-23.7560E-3	-441.626E-15	10.3479E-3	-22.3887E-3
-717.859E-6	-668.851E-15	-3.70464E-3	-18.4155E-3	-633.312E-15	11.2208E-3	-14.8020E-3
-722.861E-6	-637.497E-15	-15.6900E-3	-24.4162E-3	-752.827E-15	15.0801E-3	-6.47098E-3
-727.864E-6	-567.123E-15	-5.85143E-3	-29.7247E-3	-607.005E-15	10.3139E-3	-9.11472E-3
-732.866E-6	-592.139E-15	12.2554E-3	-17.0075E-3	-474.210E-15	5.76684E-3	-15.7438E-3
-737.869E-6	-713.939E-15	15.6913E-3	-14.6750E-3	-629.562E-15	9.76549E-3	-19.6667E-3
-742.871E-6	-606.866E-15	17.4894E-3	-33.8805E-3	-762.017E-15	20.6997E-3	-20.9980E-3
-747.874E-6	-495.887E-15	16.7554E-3	-35.1179E-3	-632.684E-15	31.2283E-3	-15.0396E-3
-752.876E-6	-630.626E-15	6.62830E-3	-21.6156E-3	-537.146E-15	27.1159E-3	-12.2072E-3
-757.879E-6	-761.538E-15	8.57774E-3	-17.3786E-3	-619.230E-15	10.3188E-3	-15.2794E-3
-762.881E-6	-611.714E-15	23.4329E-3	-10.4852E-3	-698.375E-15	11.1909E-3	-18.8948E-3
-767.884E-6	-523.544E-15	26.4540E-3	-11.8610E-3	-654.883E-15	25.0669E-3	-19.6741E-3
-772.886E-6	-632.536E-15	16.1890E-3	-23.7314E-3	-600.100E-15	24.6776E-3	-16.0197E-3
-777.889E-6	-772.018E-15	9.34279E-3	-21.9351E-3	-686.892E-15	21.5427E-3	-11.0579E-3
-782.891E-6	-664.352E-15	10.8766E-3	-17.9182E-3	-702.534E-15	27.8915E-3	-21.7323E-3
-787.894E-6	-544.174E-15	17.7424E-3	-20.5481E-3	-663.768E-15	29.4445E-3	-38.3040E-3
-792.896E-6	-672.889E-15	26.4954E-3	-13.9674E-3	-661.771E-15	26.1300E-3	-33.2069E-3
-797.899E-6	-823.654E-15	23.0839E-3	-11.5102E-3	-803.312E-15	31.6882E-3	-22.3565E-3
-802.901E-6	-694.530E-15	18.3037E-3	-25.3362E-3	-662.286E-15	33.3903E-3	-23.2766E-3
-807.904E-6	-631.472E-15	32.7337E-3	-18.8037E-3	-634.672E-15	30.1989E-3	-23.6736E-3
-812.906E-6	-732.040E-15	33.9084E-3	1.06808E-3	-768.722E-15	27.2560E-3	-20.6580E-3
-817.909E-6	-823.305E-15	5.79463E-3	-6.83372E-3	-761.669E-15	16.1706E-3	-16.0831E-3
-822.911E-6	-744.413E-15	-9.13980E-3	-18.3907E-3	-700.677E-15	13.8108E-3	-5.66626E-3
-827.914E-6	-732.895E-15	1.93781E-3	-12.5369E-3	-625.089E-15	23.6416E-3	-5.33082E-3
-832.916E-6	-806.407E-15	15.0783E-3	-7.70735E-3	-752.609E-15	33.3127E-3	-25.3463E-3
-837.919E-6	-821.274E-15	34.0779E-3	-9.45184E-3	-914.762E-15	37.6849E-3	-35.1248E-3
-842.921E-6	-760.247E-15	47.8099E-3	-6.62901E-3	-749.793E-15	27.5544E-3	-27.7015E-3
-847.924E-6	-799.196E-15	31.7810E-3	379.909E-6	-688.409E-15	15.1989E-3	-22.5649E-3
-852.926E-6	-844.014E-15	12.5600E-3	135.324E-6	-841.032E-15	25.6826E-3	-11.8007E-3
-857.929E-6	-775.122E-15	14.0583E-3	2.51097E-3	-946.343E-15	38.9392E-3	-2.87379E-3
-862.931E-6	-760.474E-15	24.8122E-3	5.20381E-3	-856.055E-15	36.7814E-3	-10.5437E-3
-867.934E-6	-857.555E-15	34.5618E-3	-455.750E-6	-730.985E-15	37.0442E-3	-19.3904E-3
-872.936E-6	-974.254E-15	41.7234E-3	-2.67764E-3	-895.885E-15	34.6311E-3	-18.0585E-3
-877.939E-6	-841.197E-15	35.4899E-3	-10.1606E-3	-969.711E-15	28.7310E-3	-8.69650E-3
-882.941E-6	-757.989E-15	21.7162E-3	-24.4446E-3	-911.196E-15	33.5975E-3	-6.67237E-3
-887.944E-6	-917.692E-15	18.6761E-3	-24.4308E-3	-906.732E-15	36.9731E-3	-16.7020E-3
-892.946E-6	-1.07311E-12	25.6078E-3	-17.1909E-3	-942.786E-15	37.9888E-3	-20.3623E-3
-897.949E-6	-995.442E-15	35.4250E-3	-20.0901E-3	-959.754E-15	48.9513E-3	-15.7175E-3
-902.951E-6	-856.875E-15	43.3587E-3	-21.7791E-3	-941.775E-15	59.5985E-3	-16.7578E-3
-907.954E-6	-949.631E-15	44.3591E-3	-23.6894E-3	-987.141E-15	61.1563E-3	-17.3105E-3
-912.956E-6	-1.14920E-12	46.9767E-3	-28.4460E-3	-1.06866E-12	58.9344E-3	-1.40975E-3
-917.959E-6	-1.07878E-12	58.5153E-3	-22.8830E-3	-1.05108E-12	57.1795E-3	-1.47886E-3
-922.961E-6	-971.577E-15	61.6091E-3	-9.72763E-3	-975.100E-15	66.8334E-3	-25.6728E-3
-927.964E-6	-1.06221E-12	53.6848E-3	-5.57050E-3	-1.12029E-12	83.7744E-3	-34.8986E-3
-932.966E-6	-1.18367E-12	52.1872E-3	-9.03048E-3	-1.20211E-12	91.7186E-3	-32.3253E-3
-937.969E-6	-1.22050E-12	50.3664E-3	-5.07043E-3	-1.09397E-12	94.4489E-3	-30.0617E-3
-942.971E-6	-1.11585E-12	50.8939E-3	-4.59800E-3	-1.03437E-12	91.7491E-3	-23.2285E-3
-947.974E-6	-1.20359E-12	58.5784E-3	-4.96748E-3	-1.21782E-12	85.3819E-3	-18.0172E-3
-952.976E-6	-1.24961E-12	66.6494E-3	3.57064E-3	-1.37586E-12	83.1937E-3	-16.6680E-3
-957.979E-6	-1.24256E-12	82.0553E-3	-6.37788E-3	-1.27035E-12	82.3698E-3	-17.0231E-3
-962.981E-6	-1.27082E-12	86.8572E-3	-25.9305E-3	-1.16233E-12	90.4225E-3	-15.2317E-3
-967.984E-6	-1.41499E-12	84.2704E-3	-21.6897E-3	-1.39984E-12	103.760E-3	-11.9827E-3
-972.986E-6	-1.38087E-12	97.9879E-3	-13.0692E-3	-1.49363E-12	110.148E-3	-17.6955E-3
-977.989E-6	-1.39343E-12	111.553E-3	-14.1695E-3	-1.41159E-12	119.515E-3	-23.2814E-3
-982.991E-6	-1.50717E-12	114.051E-3	-14.4885E-3	-1.39135E-12	120.262E-3	-22.3649E-3
-987.994E-6	-1.55754E-12	110.126E-3	-18.3118E-3	-1.53695E-12	112.274E-3	-19.5582E-3
-992.997E-6	-1.57651E-12	108.469E-3	-12.4164E-3	-1.67679E-12	121.709E-3	-18.6748E-3
-997.999E-6	-1.52993E-12	117.479E-3	7.56049E-3	-1.56989E-12	145.579E-3	-15.8572E-3
-1.00300E-3	-1.67936E-12	127.864E-3	11.2400E-3	-1.57753E-12	171.595E-3	-2.09942E-3
-1.00800E-3	-1.84837E-12	135.915E-3	3.22764E-3	-1.68898E-12	183.444E-3	-652.710E-6
-1.01301E-3	-1.76667E-12	152.676E-3	2.23914E-3	-1.84167E-12	175.898E-3	-20.1128E-3
-1.01801E-3	-1.69707E-12	161.534E-3	-1.99945E-3	-1.84727E-12	179.647E-3	-31.4388E-3
-1.02301E-3	-1.85614E-12	156.835E-3	-14.7933E-3	-1.89405E-12	200.434E-3	-20.6620E-3
-1.02801E-3	-2.04604E-12	166.131E-3	-26.2884E-3	-2.02943E-12	200.301E-3	-11.7993E-3
-1.03302E-3	-2.00405E-12	175.721E-3	-24.4754E-3	-2.01875E-12	191.293E-3	-9.76268E-3
-1.03802E-3	-1.93950E-12	183.474E-3	-18.1499E-3	-2.04484E-12	202.512E-3	-8.83594E-3
-1.04302E-3	-2.11943E-12	199.318E-3	-17.1231E-3	-2.14805E-12	216.446E-3	-21.4112E-3
-1.04802E-3	-2.30213E-12	199.428E-3	-20.3610E-3	-2.31049E-12	231.861E-3	-27.6393E-3
-1.05303E-3	-2.30875E-12	199.440E-3	-26.5962E-3	-2.25290E-12	247.200E-3	-17.3704E-3
-1.05803E-3	-2.28183E-12	210.246E-3	-20.4589E-3	-2.31160E-12	249.965E-3	-16.5838E-3
-1.06303E-3	-2.41433E-12	215.295E-3	-7.91642E-3	-2.53377E-12	262.469E-3	-27.6684E-3
-1.06803E-3	-2.62859E-12	221.356E-3	-10.3261E-3	-2.63373E-12	292.727E-3	-25.1211E-3
-1.07304E-3	-2.66249E-12	231.423E-3	-17.0440E-3	-2.60432E-12	313.614E-3	-9.09201E-3
-1.07804E-3	-2.69721E-12	242.282E-3	-15.4425E-3	-2.58045E-12	317.622E-3	1.79000E-3
-1.08304E-3	-2.85170E-12	259.910E-3	-12.5058E-3	-2.79467E-12	319.753E-3	-2.20119E-3
-1.08804E-3	-2.91864E-12	288.915E-3	-6.96334E-3	-3.02796E-12	323.488E-3	-19.5499E-3
-1.09305E-3	-2.96458E-12	305.167E-3	-8.20539E-3	-2.97524E-12	325.989E-3	-27.4264E-3
-1.09805E-3	-3.11443E-12	296.066E-3	-20.8481E-3	-2.98818E-12	337.457E-3	-19.3896E-3
-1.10305E-3	-3.31340E-12	297.576E-3	-15.1782E-3	-3.29067E-12	363.959E-3	-15.8898E-3
-1.10805E-3	-3.33295E-12	310.789E-3	4.45789E-3	-3.44590E-12	381.527E-3	-12.2804E-3
-1.11306E-3	-3.42292E-12	320.612E-3	7.15750E-3	-3.43850E-12	379.045E-3	-1.52421E-3
-1.11806E-3	-3.60402E-12	347.642E-3	-4.29786E-3	-3.51569E-12	392.802E-3	-9.09460E-3
-1.12306E-3	-3.86120E-12	373.029E-3	-14.8840E-3	-3.89452E-12	433.123E-3	-24.8393E-3
-1.12806E-3	-3.88156E-12	383.430E-3	-21.7431E-3	-4.00548E-12	468.411E-3	-20.9403E-3
-1.13307E-3	-3.90657E-12	406.864E-3	-25.8522E-3	-4.04096E-12	480.897E-3	-14.1197E-3
-1.13807E-3	-4.19209E-12	426.544E-3	-16.7828E-3	-4.09758E-12	483.584E-3	-18.2663E-3
-1.14307E-3	-4.42870E-12	426.772E-3	-5.25893E-3	-4.41614E-12	499.793E-3	-17.0666E-3
-1.14807E-3	-4.48734E-12	435.250E-3	-7.99902E-3	-4.53477E-12	521.398E-3	-12.0086E-3
-1.15308E-3	-4.55050E-12	453.578E-3	-7.29586E-3	-4.57831E-12	539.036E-3	-22.2049E-3
-1.15808E-3	-4.79377E-12	469.328E-3	-8.53005E-3	-4.82036E-12	554.468E-3	-27.9221E-3
-1.16308E-3	-5.12263E-12	500.895E-3	-19.4701E-3	-5.13247E-12	571.618E-3	-13.8097E-3
-1.16808E-3	-5.27235E-12	535.152E-3	-22.1618E-3	-5.14467E-12	583.215E-3	-3.29017E-3
-1.17309E-3	-5.31271E-12	542.171E-3	-21.7400E-3	-5.21894E-12	584.474E-3	-758.371E-6
-1.17809E-3	-5.51448E-12	552.847E-3	-25.8518E-3	-5.56484E-12	605.169E-3	4.61878E-3
-1.18309E-3	-5.79348E-12	571.490E-3	-24.3716E-3	-5.82433E-12	640.496E-3	-6.29467E-3
-1.18809E-3	-5.98281E-12	574.606E-3	-14.7300E-3	-5.89633E-12	666.927E-3	-30.4557E-3
-1.19310E-3	-6.07703E-12	588.206E-3	-9.00344E-3	-5.95365E-12	682.324E-3	-38.0137E-3
-1.19810E-3	-6.28266E-12	612.521E-3	-6.67237E-3	-6.37420E-12	687.875E-3	-29.7323E-3
-1.20310E-3	-6.51791E-12	622.770E-3	-8.16106E-3	-6.73400E-12	690.339E-3	-11.1711E-3
-1.20810E-3	-6.66750E-12	633.460E-3	-20.7595E-3	-6.80346E-12	711.720E-3	-787.292E-6
-1.21311E-3	-6.85875E-12	652.193E-3	-35.1688E-3	-6.93741E-12	746.263E-3	-4.25535E-3
-1.21811E-3	-7.21057E-12	663.426E-3	-35.9133E-3	-7.39841E-12	771.507E-3	-1.83820E-3
-1.22311E-3	-7.41810E-12	675.148E-3	-27.0540E-3	-7.76142E-12	793.166E-3	-1.08983E-3
-1.22811E-3	-7.66964E-12	695.279E-3	-21.2101E-3	-7.85349E-12	810.217E-3	-10.7277E-3
-1.23312E-3	-8.06502E-12	719.074E-3	-10.4594E-3	-7.99612E-12	811.427E-3	-7.70347E-3
-1.23812E-3	-8.42245E-12	749.977E-3	1.82531E-3	-8.46728E-12	814.787E-3	1.53425E-3
-1.24312E-3	-8.70326E-12	791.357E-3	-4.43870E-3	-8.76197E-12	840.606E-3	-11.9730E-3
-1.24812E-3	-8.80651E-12	821.710E-3	-20.9498E-3	-8.85661E-12	862.299E-3	-28.8376E-3
-1.25313E-3	-9.22924E-12	827.038E-3	-28.6587E-3	-8.98915E-12	874.005E-3	-24.8081E-3
-1.25813E-3	-9.64513E-12	834.709E-3	-25.3349E-3	-9.43519E-12	894.678E-3	-15.4741E-3
-1.26313E-3	-9.83105E-12	846.598E-3	-11.5983E-3	-9.71717E-12	911.322E-3	-14.9284E-3
-1.26813E-3	-9.91676E-12	857.231E-3	-8.43076E-3	-9.93633E-12	914.696E-3	-11.7729E-3
-1.27314E-3	-10.2937E-12	887.611E-3	-13.7827E-3	-10.2997E-12	929.677E-3	-7.53204E-3
-1.27814E-3	-10.7468E-12	913.332E-3	-11.2290E-3	-10.6050E-12	956.150E-3	-10.4071E-3
-1.28314E-3	-10.8692E-12	910.600E-3	-23.7927E-3	-10.8666E-12	966.824E-3	-9.93497E-3
-1.28814E-3	-10.9540E-12	912.303E-3	-33.5875E-3	-10.9487E-12	975.703E-3	-6.09212E-3
-1.29315E-3	-11.2793E-12	930.197E-3	-14.8746E-3	-11.4225E-12	993.695E-3	-10.6272E-3
-1.29815E-3	-11.7406E-12	943.455E-3	-9.06708E-3	-11.8995E-12	1.01340E+0	-9.30751E-3
-1.30315E-3	-11.9748E-12	951.394E-3	-23.4161E-3	-12.0956E-12	1.03586E+0	-2.46198E-3
-1.30815E-3	-12.2476E-12	960.837E-3	-24.0932E-3	-12.3076E-12	1.05147E+0	-3.46120E-3
-1.31316E-3	-12.5491E-12	967.026E-3	-23.4781E-3	-12.8338E-12	1.06128E+0	-10.8782E-3
-1.31816E-3	-13.0601E-12	980.809E-3	-26.4087E-3	-13.3065E-12	1.07895E+0	-17.0313E-3
-1.32316E-3	-13.5185E-12	1.00228E+0	-25.4690E-3	-13.4839E-12	1.09096E+0	-12.6402E-3
-1.32816E-3	-13.8166E-12	1.01238E+0	-28.5710E-3	-13.6116E-12	1.09339E+0	-4.63255E-3
-1.33317E-3	-14.3053E-12	1.02728E+0	-28.8309E-3	-14.1240E-12	1.09657E+0	26.3929E-6
-1.33817E-3	-14.7095E-12	1.06092E+0	-13.4984E-3	-14.6822E-12	1.10372E+0	-7.01699E-3
-1.34317E-3	-15.0147E-12	1.08959E+0	-2.63108E-3	-14.7876E-12	1.11247E+0	-15.2090E-3
-1.34817E-3	-15.4028E-12	1.10262E+0	-6.00978E-3	-14.9211E-12	1.12113E+0	-13.9880E-3
-1.35318E-3	-15.7509E-12	1.11340E+0	-14.6689E-3	-15.4410E-12	1.12865E+0	-13.9307E-3
-1.35818E-3	-16.1767E-12	1.12452E+0	-35.4261E-3	-16.0575E-12	1.13099E+0	-17.9679E-3
-1.36318E-3	-16.5074E-12	1.14188E+0	-41.1659E-3	-16.3915E-12	1.14561E+0	-26.1402E-3
-1.36818E-3	-16.9098E-12	1.16456E+0	-25.3483E-3	-16.6761E-12	1.17203E+0	-29.2918E-3
-1.37319E-3	-17.3748E-12	1.16652E+0	-15.6172E-3	-17.2588E-12	1.19392E+0	-22.4751E-3
-1.37819E-3	-17.5497E-12	1.15401E+0	-20.1239E-3	-17.7231E-12	1.20783E+0	-15.9576E-3
-1.38319E-3	-17.7424E-12	1.15976E+0	-19.8324E-3	-17.9922E-12	1.20344E+0	-23.0261E-3
-1.38819E-3	-18.2072E-12	1.17370E+0	-9.95230E-3	-18.3415E-12	1.18060E+0	-29.1710E-3
-1.39320E-3	-18.6767E-12	1.18326E+0	-14.5520E-3	-18.7890E-12	1.16459E+0	-26.0409E-3
-1.39820E-3	-19.0003E-12	1.19402E+0	-17.0325E-3	-19.0864E-12	1.18044E+0	-21.1854E-3
-1.40320E-3	-19.2577E-12	1.18846E+0	-10.7378E-3	-19.3289E-12	1.19430E+0	-4.99201E-3
-1.40820E-3	-19.6100E-12	1.17947E+0	-13.7969E-3	-19.8589E-12	1.18811E+0	5.30875E-3
-1.41321E-3	-20.2670E-12	1.18993E+0	-20.0981E-3	-20.4075E-12	1.20057E+0	-10.1707E-3
-1.41821E-3	-20.7397E-12	1.19512E+0	-24.8677E-3	-20.5752E-12	1.21701E+0	-29.2157E-3
-1.42321E-3	-20.9402E-12	1.19163E+0	-32.2399E-3	-20.9461E-12	1.21601E+0	-27.6085E-3
-1.42821E-3	-21.5143E-12	1.19622E+0	-34.7082E-3	-21.5597E-12	1.21422E+0	-23.0077E-3
-1.43322E-3	-21.9781E-12	1.20061E+0	-19.6790E-3	-21.9885E-12	1.22570E+0	-22.1505E-3
-1.43822E-3	-22.6017E-12	1.20168E+0	-17.0388E-3	-22.2797E-12	1.23496E+0	-11.1592E-3
-1.44322E-3	-22.9514E-12	1.21532E+0	-30.3013E-3	-22.5873E-12	1.22690E+0	-9.81560E-3
-1.44822E-3	-23.2716E-12	1.22786E+0	-22.9575E-3	-23.2961E-12	1.22243E+0	-22.9609E-3
-1.45323E-3	-23.7071E-12	1.22975E+0	-13.1439E-3	-23.9584E-12	1.23272E+0	-25.1319E-3
-1.45823E-3	-24.0671E-12	1.23239E+0	-25.6042E-3	-24.2039E-12	1.23981E+0	-17.4381E-3
-1.46323E-3	-24.4805E-12	1.22954E+0	-33.2052E-3	-24.5257E-12	1.23341E+0	-10.3719E-3
-1.46823E-3	-24.8592E-12	1.22697E+0	-24.5679E-3	-25.1859E-12	1.22817E+0	-4.42846E-3
-1.47324E-3	-25.1447E-12	1.22629E+0	-17.2071E-3	-25.7582E-12	1.22834E+0	-5.83663E-3
-1.47824E-3	-25.4132E-12	1.22102E+0	-8.92243E-3	-25.9694E-12	1.22766E+0	-14.1531E-3
-1.48324E-3	-25.9661E-12	1.21189E+0	-3.24266E-3	-26.1396E-12	1.22630E+0	-15.4016E-3
-1.48824E-3	-26.2805E-12	1.21036E+0	-12.8863E-3	-26.6791E-12	1.22230E+0	-9.98642E-3
-1.49325E-3	-26.6995E-12	1.21363E+0	-19.5764E-3	-27.1539E-12	1.21066E+0	-4.41525E-3
-1.49825E-3	-26.9419E-12	1.19866E+0	-19.5842E-3	-27.2764E-12	1.19036E+0	-786.464E-6
-1.50325E-3	-27.4336E-12	1.18048E+0	-20.2781E-3	-27.5264E-12	1.17025E+0	-9.61331E-3
-1.50825E-3	-27.9412E-12	1.18208E+0	-6.42331E-3	-27.9560E-12	1.16232E+0	-24.5042E-3
-1.51326E-3	-28.1688E-12	1.19240E+0	5.24244E-3	-28.3681E-12	1.16095E+0	-30.7454E-3
-1.51826E-3	-28.4359E-12	1.19583E+0	-5.68103E-3	-28.5178E-12	1.15525E+0	-26.5051E-3
-1.52326E-3	-28.8684E-12	1.19242E+0	-14.0964E-3	-28.8658E-12	1.14841E+0	-19.9227E-3
-1.52826E-3	-29.3934E-12	1.17687E+0	-12.6857E-3	-29.3120E-12	1.15380E+0	-14.8176E-3
-1.53327E-3	-29.6008E-12	1.16494E+0	-21.8136E-3	-29.7861E-12	1.16734E+0	-13.5345E-3
-1.53827E-3	-29.8988E-12	1.17141E+0	-27.0447E-3	-30.1936E-12	1.17853E+0	-21.6765E-3
-1.54327E-3	-30.2686E-12	1.17097E+0	-14.9036E-3	-30.7954E-12	1.18490E+0	-33.7375E-3
-1.54827E-3	-30.6424E-12	1.16749E+0	-5.65040E-3	-31.3628E-12	1.18821E+0	-31.9462E-3
-1.55328E-3	-31.0429E-12	1.16516E+0	-13.9043E-3	-31.8658E-12	1.18287E+0	-13.7435E-3
-1.55828E-3	-31.5127E-12	1.14903E+0	-25.8047E-3	-32.4263E-12	1.15995E+0	-2.17956E-6
-1.56328E-3	-32.1639E-12	1.13891E+0	-30.1287E-3	-32.9117E-12	1.14784E+0	4.20459E-3
-1.56828E-3	-32.6451E-12	1.14492E+0	-21.6763E-3	-33.4374E-12	1.14907E+0	-509.173E-6
-1.57329E-3	-32.9915E-12	1.14394E+0	-13.8855E-3	-33.7606E-12	1.14092E+0	-17.9534E-3
-1.57829E-3	-33.4647E-12	1.13340E+0	-20.7803E-3	-33.7404E-12	1.13726E+0	-30.5784E-3
-1.58329E-3	-34.1292E-12	1.12482E+0	-16.1707E-3	-34.1750E-12	1.12784E+0	-24.5485E-3
-1.58829E-3	-34.6047E-12	1.11792E+0	-4.80347E-3	-34.5706E-12	1.10416E+0	-15.5992E-3
-1.59330E-3	-34.8514E-12	1.11307E+0	-14.1862E-3	-34.7377E-12	1.09103E+0	-19.6486E-3
-1.59830E-3	-35.1797E-12	1.11721E+0	-21.6612E-3	-34.6957E-12	1.08944E+0	-27.3591E-3
-1.60330E-3	-35.6161E-12	1.12818E+0	-13.4083E-3	-35.0713E-12	1.07863E+0	-25.4518E-3
-1.60830E-3	-35.8744E-12	1.13298E+0	-6.08623E-3	-35.3621E-12	1.06773E+0	-15.1164E-3
-1.61331E-3	-35.9321E-12	1.12123E+0	-2.14042E-3	-35.5060E-12	1.07206E+0	-11.8069E-3
-1.61831E-3	-36.1937E-12	1.09707E+0	-2.83244E-3	-35.6977E-12	1.06769E+0	-17.8361E-3
-1.62331E-3	-36.5515E-12	1.08408E+0	-12.7020E-3	-36.4876E-12	1.05550E+0	-20.2923E-3
-1.62831E-3	-36.6583E-12	1.09158E+0	-19.7361E-3	-36.8941E-12	1.06203E+0	-18.7351E-3
-1.63332E-3	-37.0030E-12	1.09622E+0	-9.97683E-3	-37.2927E-12	1.06771E+0	-20.0587E-3
-1.63832E-3	-37.3354E-12	1.08081E+0	3.39846E-3	-37.5972E-12	1.05456E+0	-17.8769E-3
-1.64332E-3	-37.7464E-12	1.06599E+0	1.46178E-3	-38.5421E-12	1.05197E+0	-19.1011E-3
-1.64832E-3	-38.0265E-12	1.05640E+0	-8.27017E-3	-38.9341E-12	1.05400E+0	-29.2669E-3
-1.65333E-3	-38.4513E-12	1.04575E+0	-17.3313E-3	-39.1701E-12	1.03853E+0	-31.1230E-3
-1.65833E-3	-39.1464E-12	1.04022E+0	-19.1778E-3	-39.6604E-12	1.03283E+0	-21.2209E-3
-1.66333E-3	-39.7458E-12	1.03435E+0	-10.8831E-3	-40.0897E-12	1.03643E+0	-15.2557E-3
-1.66833E-3	-40.2229E-12	1.03307E+0	-6.98962E-3	-40.4482E-12	1.02844E+0	-17.7813E-3
-1.67334E-3	-40.6020E-12	1.04309E+0	-10.7507E-3	-40.5294E-12	1.02007E+0	-10.7587E-3
-1.67834E-3	-41.5218E-12	1.05497E+0	-12.3157E-3	-40.8061E-12	1.01253E+0	-10.8858E-3
-1.68334E-3	-41.9123E-12	1.05769E+0	-18.1850E-3	-41.0506E-12	1.00113E+0	-23.6859E-3
-1.68834E-3	-42.1230E-12	1.05006E+0	-29.6451E-3	-41.1696E-12	996.617E-3	-26.0773E-3
-1.69335E-3	-42.2322E-12	1.03762E+0	-26.8955E-3	-41.0706E-12	990.128E-3	-27.7144E-3
-1.69835E-3	-42.6155E-12	1.02561E+0	-24.2201E-3	-41.3478E-12	973.561E-3	-24.7116E-3
-1.70335E-3	-42.9114E-12	1.01809E+0	-38.8532E-3	-41.8340E-12	977.699E-3	-8.38583E-3
-1.70835E-3	-42.5538E-12	1.01268E+0	-35.8743E-3	-41.8238E-12	994.959E-3	-1.31112E-3
-1.71336E-3	-42.6175E-12	1.00646E+0	-7.80520E-3	-42.0544E-12	988.809E-3	-16.5600E-3
-1.71836E-3	-42.7606E-12	1.00314E+0	6.60237E-3	-42.5469E-12	967.515E-3	-28.7709E-3
-1.72336E-3	-43.1291E-12	998.619E-3	-6.91410E-3	-43.0768E-12	962.158E-3	-21.4726E-3
-1.72836E-3	-43.0182E-12	988.679E-3	-29.7240E-3	-43.2816E-12	972.134E-3	-9.33065E-3
-1.73337E-3	-43.4306E-12	974.958E-3	-35.4206E-3	-43.6510E-12	971.754E-3	-62.0811E-6
-1.73837E-3	-43.7767E-12	963.226E-3	-14.6917E-3	-44.1318E-12	957.785E-3	-3.58660E-3
-1.74337E-3	-44.1567E-12	953.462E-3	13.3003E-3	-44.8285E-12	942.550E-3	-13.1682E-3
-1.74837E-3	-44.4244E-12	942.767E-3	12.2738E-3	-45.0366E-12	934.630E-3	-9.43758E-3
-1.75338E-3	-45.0362E-12	932.543E-3	-7.34669E-3	-45.2785E-12	938.128E-3	-9.62396E-3
-1.75838E-3	-46.1513E-12	929.689E-3	-6.50945E-3	-45.7061E-12	940.439E-3	-14.5440E-3
-1.76338E-3	-46.4262E-12	934.532E-3	-4.86932E-3	-46.0949E-12	941.407E-3	-12.5348E-3
-1.76838E-3	-46.7716E-12	947.604E-3	-8.66523E-3	-46.3158E-12	952.259E-3	-16.7968E-3
-1.77339E-3	-47.4388E-12	964.925E-3	-7.65884E-3	-46.7745E-12	951.159E-3	-29.9135E-3
-1.77839E-3	-48.2997E-12	975.830E-3	-16.4805E-3	-47.1241E-12	930.806E-3	-35.4418E-3
-1.78339E-3	-48.0716E-12	982.571E-3	-26.8642E-3	-47.3841E-12	923.460E-3	-28.1566E-3
-1.78839E-3	-47.9659E-12	972.550E-3	-28.1653E-3	-47.6374E-12	931.455E-3	-17.5386E-3
-1.79340E-3	-48.5249E-12	948.512E-3	-28.0812E-3	-48.0889E-12	922.284E-3	-7.27832E-3
-1.79840E-3	-48.6827E-12	942.469E-3	-30.8148E-3	-48.4985E-12	898.044E-3	-10.5130E-3
-1.80340E-3	-48.5474E-12	945.709E-3	-35.5392E-3	-48.8156E-12	887.090E-3	-22.1896E-3
-1.80840E-3	-48.4173E-12	926.640E-3	-40.7942E-3	-49.1167E-12	896.827E-3	-19.7516E-3
-1.81341E-3	-48.8207E-12	902.740E-3	-35.6494E-3	-49.3900E-12	905.608E-3	-12.6011E-3
-1.81841E-3	-49.1940E-12	898.819E-3	-15.8447E-3	-49.8429E-12	897.343E-3	-12.4368E-3
-1.82341E-3	-49.4387E-12	900.097E-3	-8.56660E-3	-49.9332E-12	889.708E-3	-9.25840E-3
-1.82841E-3	-49.2754E-12	897.772E-3	-16.5304E-3	-50.0696E-12	891.473E-3	-3.70094E-3
-1.83342E-3	-49.8124E-12	893.783E-3	-15.1731E-3	-50.4991E-12	887.381E-3	-6.67293E-3
-1.83842E-3	-50.2384E-12	892.082E-3	-12.2087E-3	-50.8035E-12	879.555E-3	-14.2853E-3
-1.84342E-3	-50.7883E-12	898.571E-3	-13.6253E-3	-50.9391E-12	887.187E-3	-17.0485E-3
-1.84842E-3	-51.1942E-12	906.236E-3	-9.82540E-3	-51.3193E-12	899.746E-3	-22.8617E-3
-1.85343E-3	-51.5638E-12	907.818E-3	-9.05734E-3	-51.6303E-12	898.917E-3	-25.1884E-3
-1.85843E-3	-52.1390E-12	911.537E-3	-22.1537E-3	-51.7969E-12	886.726E-3	-8.41055E-3
-1.86343E-3	-52.6718E-12	914.921E-3	-23.4573E-3	-52.1012E-12	870.026E-3	2.93909E-3
-1.86843E-3	-53.2420E-12	903.671E-3	-4.27558E-3	-52.4733E-12	862.135E-3	-5.93260E-3
-1.87344E-3	-53.4111E-12	896.263E-3	611.145E-6	-53.0458E-12	868.320E-3	-13.2188E-3
-1.87844E-3	-53.6533E-12	900.077E-3	-5.13977E-3	-53.5617E-12	877.461E-3	-11.1328E-3
-1.88344E-3	-53.8611E-12	887.826E-3	-9.65791E-3	-53.9697E-12	880.739E-3	-8.69496E-3
-1.88844E-3	-54.4416E-12	862.795E-3	-18.5785E-3	-54.2463E-12	883.687E-3	-6.86412E-3
-1.89345E-3	-54.4702E-12	859.025E-3	-27.7443E-3	-54.7063E-12	878.858E-3	-9.07427E-3
-1.89845E-3	-54.4775E-12	873.764E-3	-26.4518E-3	-55.0935E-12	865.759E-3	-12.6118E-3
-1.90345E-3	-54.6304E-12	883.166E-3	-25.2362E-3	-55.2930E-12	857.023E-3	-15.4104E-3
-1.90845E-3	-55.1035E-12	886.641E-3	-32.9835E-3	-55.4973E-12	858.793E-3	-18.7150E-3
-1.91346E-3	-55.4922E-12	880.661E-3	-25.7104E-3	-55.9420E-12	873.471E-3	-20.0680E-3
-1.91846E-3	-55.6093E-12	868.320E-3	-24.1293E-3	-55.8979E-12	876.990E-3	-21.9869E-3
-1.92346E-3	-55.5985E-12	858.704E-3	-34.4427E-3	-56.0144E-12	850.401E-3	-15.6530E-3
-1.92846E-3	-56.0039E-12	845.792E-3	-27.9293E-3	-56.0039E-12	822.083E-3	-2.51550E-3
-1.93347E-3	-56.5614E-12	840.595E-3	-29.7736E-3	-55.9700E-12	818.862E-3	2.66378E-3
-1.93847E-3	-56.4530E-12	849.427E-3	-36.5737E-3	-56.2968E-12	823.505E-3	739.615E-6
-1.94347E-3	-56.6853E-12	844.039E-3	-17.1254E-3	-56.2373E-12	814.387E-3	-8.25962E-3
-1.94847E-3	-57.1692E-12	825.424E-3	-4.20969E-3	-56.3870E-12	803.421E-3	-15.2979E-3
-1.95348E-3	-57.5088E-12	827.809E-3	-19.4463E-3	-56.6763E-12	818.206E-3	-14.1850E-3
-1.95848E-3	-57.6075E-12	834.266E-3	-23.6199E-3	-57.0082E-12	842.121E-3	-16.7678E-3
-1.96348E-3	-57.5202E-12	817.494E-3	-19.2875E-3	-57.3324E-12	841.501E-3	-10.7877E-3
-1.96848E-3	-57.9523E-12	806.613E-3	-20.1363E-3	-57.8571E-12	839.169E-3	2.31680E-3
-1.97349E-3	-58.2182E-12	812.418E-3	-10.4509E-3	-58.5141E-12	843.639E-3	-9.00923E-3
-1.97849E-3	-58.2738E-12	819.320E-3	-4.86489E-3	-58.9382E-12	839.723E-3	-26.3909E-3
-1.98349E-3	-58.5468E-12	817.417E-3	-11.2167E-3	-59.6726E-12	841.552E-3	-23.3515E-3
-1.98849E-3	-59.2621E-12	807.047E-3	-14.7887E-3	-60.0837E-12	841.896E-3	-20.6967E-3
-1.99350E-3	-59.7601E-12	803.301E-3	-16.2322E-3	-60.5719E-12	832.351E-3	-21.3335E-3
-1.99850E-3	-60.0448E-12	807.936E-3	-26.0575E-3	-60.8651E-12	824.037E-3	-22.9154E-3
-2.00350E-3	-60.4304E-12	812.062E-3	-29.8776E-3	-61.1245E-12	815.765E-3	-30.3555E-3
-2.00850E-3	-61.2672E-12	814.513E-3	-24.3145E-3	-61.6397E-12	803.820E-3	-29.0096E-3
-2.01351E-3	-61.6083E-12	817.055E-3	-29.3146E-3	-61.7045E-12	804.678E-3	-21.2191E-3
-2.01851E-3	-62.1837E-12	817.571E-3	-19.6814E-3	-61.4991E-12	813.665E-3	-25.1194E-3
-2.02351E-3	-62.4053E-12	820.185E-3	-1.42719E-3	-61.2758E-12	812.460E-3	-24.1636E-3
-2.02851E-3	-62.8557E-12	825.745E-3	-9.86642E-3	-61.3517E-12	812.464E-3	-9.13927E-3
-2.03352E-3	-62.5314E-12	833.957E-3	-28.3970E-3	-61.5438E-12	803.296E-3	-9.77543E-3
-2.03852E-3	-62.6827E-12	833.054E-3	-34.6624E-3	-61.7178E-12	789.894E-3	-19.0216E-3
-2.04352E-3	-62.8607E-12	827.475E-3	-25.7553E-3	-61.8986E-12	795.612E-3	-23.5859E-3
-2.04852E-3	-62.8518E-12	826.223E-3	-10.8135E-3	-62.0574E-12	798.704E-3	-33.4325E-3
-2.05353E-3	-62.6387E-12	813.358E-3	-4.89150E-3	-62.2544E-12	800.314E-3	-34.8830E-3
-2.05853E-3	-62.6105E-12	796.988E-3	-13.0797E-3	-62.6306E-12	809.832E-3	-16.1439E-3
-2.06353E-3	-63.1540E-12	794.784E-3	-21.6348E-3	-63.5505E-12	808.697E-3	950.108E-6
-2.06853E-3	-63.3906E-12	800.876E-3	-11.3097E-3	-63.6682E-12	796.413E-3	-6.76139E-3
-2.07354E-3	-63.1930E-12	804.419E-3	1.61761E-3	-64.2580E-12	786.562E-3	-17.5790E-3
-2.07854E-3	-63.2496E-12	802.175E-3	-520.988E-6	-64.5562E-12	789.287E-3	-15.7925E-3
-2.08354E-3	-64.3951E-12	786.460E-3	-8.50343E-3	-65.3442E-12	793.382E-3	-11.7099E-3
-2.08854E-3	-64.9085E-12	773.336E-3	-25.8200E-3	-65.6573E-12	787.295E-3	8.47942E-3
-2.09355E-3	-64.7600E-12	784.472E-3	-32.2529E-3	-66.0306E-12	782.799E-3	21.1776E-3
-2.09855E-3	-65.3683E-12	787.956E-3	-10.6435E-3	-65.9212E-12	780.312E-3	1.57966E-3
-2.10355E-3	-66.5646E-12	770.682E-3	-9.55790E-3	-66.2531E-12	776.716E-3	-16.4974E-3
-2.10855E-3	-67.0503E-12	774.162E-3	-33.7907E-3	-66.3832E-12	791.672E-3	-27.7521E-3
-2.11356E-3	-66.6321E-12	791.326E-3	-25.1822E-3	-66.1836E-12	799.941E-3	-31.1712E-3
-2.11856E-3	-66.7412E-12	791.245E-3	-8.78040E-3	-66.1497E-12	776.242E-3	-23.9697E-3
-2.12356E-3	-67.1921E-12	797.319E-3	-20.0847E-3	-66.2130E-12	762.173E-3	-27.5996E-3
-2.12856E-3	-67.6206E-12	810.162E-3	-14.9492E-3	-66.2670E-12	763.142E-3	-42.7679E-3
-2.13357E-3	-67.1681E-12	794.188E-3	-1.57519E-3	-66.0619E-12	759.000E-3	-42.7919E-3
-2.13857E-3	-66.8026E-12	773.603E-3	439.637E-6	-66.1862E-12	765.848E-3	-25.4267E-3
-2.14357E-3	-66.6355E-12	771.791E-3	16.9056E-3	-66.5521E-12	773.282E-3	-15.4325E-3
-2.14857E-3	-66.6326E-12	773.178E-3	17.3243E-3	-66.4207E-12	763.479E-3	-14.2982E-3
-2.15358E-3	-66.4898E-12	784.461E-3	-23.9625E-3	-66.8745E-12	758.263E-3	-13.6976E-3
-2.15858E-3	-66.6910E-12	789.995E-3	-47.9822E-3	-67.9213E-12	766.992E-3	-13.7226E-3
-2.16358E-3	-67.1951E-12	766.253E-3	-29.3716E-3	-68.8531E-12	769.225E-3	-11.0876E-3
-2.16858E-3	-67.5716E-12	744.393E-3	-9.04055E-3	-69.0840E-12	763.714E-3	6.33881E-6
-2.17359E-3	-67.9753E-12	749.713E-3	2.16107E-3	-69.4646E-12	759.528E-3	5.66861E-3
-2.17859E-3	-68.4827E-12	756.142E-3	803.955E-6	-70.0625E-12	757.093E-3	-14.8628E-3
-2.18359E-3	-68.9958E-12	757.646E-3	-16.3912E-3	-70.6890E-12	768.102E-3	-30.9124E-3
-2.18859E-3	-69.5892E-12	765.783E-3	-18.3532E-3	-70.8876E-12	776.659E-3	-26.0949E-3
-2.19360E-3	-70.2478E-12	761.115E-3	-3.96966E-3	-70.8788E-12	772.043E-3	-26.9982E-3
-2.19860E-3	-70.6007E-12	753.746E-3	-3.15720E-3	-71.3917E-12	770.922E-3	-29.7375E-3
-2.20360E-3	-71.1331E-12	763.958E-3	-8.57273E-3	-71.4791E-12	765.377E-3	-29.5244E-3
-2.20860E-3	-71.5299E-12	769.353E-3	-562.047E-6	-71.7530E-12	751.723E-3	-23.8845E-3
-2.21361E-3	-71.8751E-12	757.507E-3	-2.42929E-3	-71.6184E-12	747.962E-3	-14.6262E-3
-2.21861E-3	-71.9305E-12	749.904E-3	-23.1992E-3	-71.7393E-12	759.239E-3	-20.7584E-3
-2.22361E-3	-71.9774E-12	761.874E-3	-26.5241E-3	-71.7034E-12	762.651E-3	-27.7347E-3
-2.22861E-3	-71.9176E-12	772.334E-3	-18.8082E-3	-71.7868E-12	752.543E-3	-21.2095E-3
-2.23362E-3	-72.0422E-12	769.971E-3	-20.7339E-3	-72.0450E-12	740.991E-3	-27.1661E-3
-2.23862E-3	-71.9263E-12	759.615E-3	-25.7506E-3	-72.0357E-12	727.440E-3	-28.3601E-3
-2.24362E-3	-71.8345E-12	744.089E-3	-30.6451E-3	-72.3021E-12	727.531E-3	3.25909E-3
-2.24862E-3	-71.5902E-12	739.731E-3	-27.7472E-3	-72.4022E-12	739.058E-3	15.4219E-3
-2.25363E-3	-72.3501E-12	754.671E-3	-12.6637E-3	-72.8787E-12	738.006E-3	-12.8123E-3
-2.25863E-3	-72.7811E-12	766.458E-3	-12.4907E-3	-73.5277E-12	732.786E-3	-25.1714E-3
-2.26363E-3	-73.1309E-12	765.377E-3	-38.3639E-3	-73.7996E-12	738.059E-3	-11.5985E-3
-2.26863E-3	-72.7889E-12	768.484E-3	-33.8005E-3	-73.8714E-12	751.053E-3	-3.76999E-3
-2.27364E-3	-73.6526E-12	756.104E-3	-7.68100E-3	-74.4683E-12	756.990E-3	-3.18781E-3
-2.27864E-3	-74.5678E-12	726.777E-3	-16.7368E-3	-74.8764E-12	749.106E-3	-14.5021E-3
-2.28364E-3	-75.4826E-12	724.320E-3	-27.7931E-3	-74.9190E-12	734.005E-3	-33.6375E-3
-2.28864E-3	-75.3717E-12	747.551E-3	-8.42610E-3	-75.0221E-12	722.859E-3	-26.6742E-3
-2.29365E-3	-75.9235E-12	762.081E-3	-1.77575E-3	-75.2851E-12	726.278E-3	-15.2263E-3
-2.29865E-3	-76.8042E-12	759.785E-3	-13.8480E-3	-75.3693E-12	733.128E-3	-22.7648E-3
-2.30365E-3	-77.3344E-12	754.462E-3	-12.5038E-3	-75.3507E-12	734.007E-3	-11.1077E-3
-2.30865E-3	-76.9122E-12	771.133E-3	-15.7214E-3	-75.8863E-12	739.911E-3	-819.414E-6
-2.31366E-3	-76.9838E-12	791.644E-3	-19.6946E-3	-76.3293E-12	752.590E-3	-18.2842E-3
-2.31866E-3	-77.3038E-12	763.869E-3	-7.17747E-3	-76.4563E-12	748.240E-3	-28.2376E-3
-2.32366E-3	-76.8881E-12	723.822E-3	-12.8347E-3	-76.5195E-12	733.334E-3	-16.7339E-3
-2.32866E-3	-76.7159E-12	724.109E-3	-20.4030E-3	-76.5618E-12	729.531E-3	-9.35554E-3
-2.33367E-3	-76.8998E-12	737.715E-3	338.937E-6	-77.2807E-12	728.223E-3	-7.44536E-3
-2.33867E-3	-77.1464E-12	735.232E-3	8.77120E-3	-77.2833E-12	727.530E-3	-462.114E-6
-2.34367E-3	-76.9333E-12	727.519E-3	629.107E-6	-77.3848E-12	727.611E-3	-14.5344E-3
-2.34867E-3	-76.8822E-12	721.832E-3	5.88918E-3	-77.4884E-12	723.596E-3	-30.2082E-3
-2.35368E-3	-77.5796E-12	715.172E-3	7.61033E-3	-78.0474E-12	714.555E-3	-18.5707E-3
-2.35868E-3	-77.5399E-12	723.816E-3	-6.44138E-3	-78.1486E-12	714.013E-3	-10.9428E-3
-2.36368E-3	-77.6833E-12	738.774E-3	-15.3520E-3	-77.8232E-12	714.873E-3	-15.1346E-3
-2.36868E-3	-77.7277E-12	738.510E-3	-17.7641E-3	-77.9550E-12	703.934E-3	-18.0176E-3
-2.37369E-3	-78.9009E-12	729.090E-3	-14.2440E-3	-78.5382E-12	708.564E-3	-25.3730E-3
-2.37869E-3	-79.1157E-12	719.759E-3	-326.696E-6	-78.6130E-12	725.667E-3	-34.1041E-3
-2.38369E-3	-79.2888E-12	711.565E-3	4.48224E-3	-78.7406E-12	718.091E-3	-31.6834E-3
-2.38869E-3	-80.0837E-12	706.114E-3	-5.38240E-3	-78.9120E-12	710.203E-3	-24.0946E-3
-2.39370E-3	-80.7807E-12	704.182E-3	-20.1928E-3	-79.7539E-12	719.088E-3	-24.0072E-3
-2.39870E-3	-81.1509E-12	707.653E-3	-35.5636E-3	-80.2818E-12	722.197E-3	-13.9510E-3
-2.40370E-3	-80.7392E-12	721.436E-3	-34.0494E-3	-80.5884E-12	730.640E-3	-1.07514E-3
-2.40870E-3	-81.2869E-12	744.797E-3	-21.0449E-3	-81.2321E-12	737.543E-3	-16.1060E-3
-2.41371E-3	-81.5308E-12	750.303E-3	-23.3832E-3	-82.1381E-12	722.897E-3	-22.3115E-3
-2.41871E-3	-81.9494E-12	739.149E-3	-28.8037E-3	-83.0392E-12	718.024E-3	-6.16470E-3
-2.42371E-3	-81.6507E-12	735.685E-3	-31.4481E-3	-82.8107E-12	732.559E-3	-7.58975E-3
-2.42871E-3	-81.9400E-12	724.787E-3	-31.0577E-3	-82.9787E-12	729.283E-3	-15.2866E-3
-2.43372E-3	-82.4307E-12	716.652E-3	-19.0426E-3	-83.3817E-12	716.508E-3	-18.2654E-3
-2.43872E-3	-82.8454E-12	722.237E-3	-15.7315E-3	-84.0325E-12	720.676E-3	-25.3247E-3
-2.44372E-3	-82.9241E-12	722.118E-3	-22.2070E-3	-83.6941E-12	718.587E-3	-17.7776E-3
-2.44872E-3	-83.0785E-12	727.272E-3	-19.2029E-3	-83.0189E-12	708.394E-3	-11.1249E-3
-2.45373E-3	-83.1446E-12	732.121E-3	-3.44867E-3	-83.3043E-12	703.415E-3	-28.4968E-3
-2.45873E-3	-83.4640E-12	709.315E-3	1.63898E-3	-83.5382E-12	697.128E-3	-39.7056E-3
-2.46373E-3	-83.9935E-12	688.626E-3	-16.4797E-3	-83.7945E-12	705.408E-3	-36.9342E-3
-2.46873E-3	-84.0536E-12	697.418E-3	-25.8292E-3	-83.0285E-12	725.716E-3	-33.5387E-3
-2.47374E-3	-83.6758E-12	716.066E-3	-13.1698E-3	-83.1093E-12	726.953E-3	-21.6692E-3
-2.47874E-3	-83.9850E-12	728.117E-3	278.172E-6	-83.5322E-12	720.585E-3	-8.42992E-3
-2.48374E-3	-84.5402E-12	731.891E-3	5.52091E-3	-84.0045E-12	720.214E-3	-20.0714E-3
-2.48874E-3	-84.8187E-12	735.379E-3	-7.73508E-3	-84.6057E-12	719.127E-3	-34.0129E-3
-2.49375E-3	-84.5619E-12	733.204E-3	-23.2996E-3	-85.2627E-12	728.472E-3	-15.0345E-3
-2.49875E-3	-84.4580E-12	727.614E-3	-22.9559E-3	-85.8925E-12	731.804E-3	13.4723E-3
-2.50375E-3	-85.0571E-12	723.320E-3	-27.8992E-3	-86.5849E-12	713.559E-3	26.6674E-3
-2.50875E-3	-85.4724E-12	715.652E-3	-35.8559E-3	-87.6415E-12	701.741E-3	19.7930E-3
-2.51376E-3	-85.3907E-12	718.295E-3	-36.4948E-3	-87.7218E-12	706.979E-3	-8.10963E-3
-2.51876E-3	-85.8312E-12	720.811E-3	-28.1506E-3	-87.9500E-12	712.258E-3	-23.4138E-3
-2.52376E-3	-86.4365E-12	711.004E-3	-18.0592E-3	-88.1557E-12	721.103E-3	-18.7075E-3
-2.52876E-3	-87.0474E-12	710.406E-3	-4.78440E-3	-88.5985E-12	727.369E-3	-23.5909E-3
-2.53377E-3	-87.1251E-12	714.380E-3	9.74569E-3	-88.4762E-12	710.986E-3	-27.6698E-3
-2.53877E-3	-87.3537E-12	710.598E-3	5.42596E-3	-88.1021E-12	706.467E-3	-18.3764E-3
-2.54377E-3	-87.2064E-12	717.365E-3	-10.2569E-3	-87.7798E-12	721.560E-3	-14.5282E-3
-2.54877E-3	-87.8400E-12	727.396E-3	-16.3166E-3	-87.5402E-12	710.727E-3	-13.2815E-3
-2.55378E-3	-87.7766E-12	723.270E-3	-8.56023E-3	-87.5212E-12	691.174E-3	-11.5002E-3
-2.55878E-3	-87.5447E-12	709.073E-3	-237.898E-6	-87.0960E-12	699.537E-3	-14.2756E-3
-2.56378E-3	-87.7866E-12	704.900E-3	-2.49193E-3	-87.3041E-12	706.558E-3	-16.8127E-3
-2.56878E-3	-87.8343E-12	713.151E-3	-11.7847E-3	-87.2556E-12	694.489E-3	-19.8549E-3
-2.57379E-3	-87.4568E-12	714.369E-3	-16.9245E-3	-87.4649E-12	692.203E-3	-12.8652E-3
-2.57879E-3	-87.2232E-12	708.651E-3	-17.4971E-3	-87.7437E-12	701.198E-3	2.15718E-3
-2.58379E-3	-87.4520E-12	703.005E-3	-29.1185E-3	-88.7045E-12	702.588E-3	13.7966E-3
-2.58879E-3	-87.5675E-12	706.960E-3	-38.9410E-3	-89.1687E-12	705.400E-3	19.2785E-3
-2.59380E-3	-87.9858E-12	718.178E-3	-20.1889E-3	-89.8025E-12	701.442E-3	11.2114E-3
-2.59880E-3	-88.2728E-12	718.757E-3	-3.43912E-3	-90.5806E-12	699.059E-3	-1.41195E-3
-2.60380E-3	-89.1343E-12	706.898E-3	-21.2195E-3	-91.7907E-12	721.254E-3	-9.73037E-3
-2.60880E-3	-89.7294E-12	689.799E-3	-38.5142E-3	-92.1397E-12	740.844E-3	-24.8248E-3
-2.61381E-3	-90.3242E-12	676.528E-3	-38.4122E-3	-92.4519E-12	742.876E-3	-35.9329E-3
-2.61881E-3	-90.8460E-12	674.652E-3	-30.6581E-3	-93.4441E-12	740.786E-3	-24.3411E-3
-2.62381E-3	-91.5447E-12	674.485E-3	-12.0933E-3	-93.6220E-12	729.371E-3	-15.0716E-3
-2.62881E-3	-92.1502E-12	679.000E-3	-945.051E-6	-93.4718E-12	703.814E-3	-19.9385E-3
-2.63382E-3	-92.1976E-12	690.846E-3	-9.31342E-3	-92.8569E-12	691.940E-3	-18.9187E-3
-2.63882E-3	-92.6157E-12	696.128E-3	-20.3321E-3	-93.2741E-12	694.943E-3	-17.8257E-3
-2.64382E-3	-92.9834E-12	696.882E-3	-19.7656E-3	-92.9557E-12	696.824E-3	-10.8973E-3
-2.64882E-3	-93.0781E-12	695.811E-3	-27.0213E-3	-92.8955E-12	706.645E-3	-1.58162E-3
-2.65383E-3	-92.7459E-12	702.557E-3	-30.8502E-3	-92.4380E-12	706.452E-3	-8.63754E-3
-2.65883E-3	-93.0027E-12	714.304E-3	-11.4308E-3	-92.2714E-12	687.787E-3	-17.1825E-3
-2.66383E-3	-92.8902E-12	722.523E-3	-7.27918E-3	-92.6934E-12	679.299E-3	-9.95565E-3
-2.66883E-3	-92.6488E-12	727.277E-3	-16.7218E-3	-92.7901E-12	690.682E-3	-4.05343E-3
-2.67384E-3	-92.1264E-12	707.511E-3	-5.08398E-3	-92.4923E-12	697.202E-3	-10.0252E-3
-2.67884E-3	-91.9266E-12	681.094E-3	6.58426E-3	-93.0557E-12	692.206E-3	-13.9474E-3
-2.68384E-3	-92.3488E-12	682.841E-3	2.52529E-3	-93.6087E-12	690.969E-3	-15.0944E-3
-2.68884E-3	-92.4738E-12	679.365E-3	-5.56009E-3	-94.1066E-12	689.209E-3	-15.8751E-3
-2.69385E-3	-92.3816E-12	657.968E-3	-20.6380E-3	-93.9178E-12	703.160E-3	-20.0136E-3
-2.69885E-3	-92.8556E-12	653.903E-3	-22.7679E-3	-94.3432E-12	710.686E-3	-21.9657E-3
-2.70385E-3	-93.8564E-12	648.430E-3	-8.71383E-3	-94.7343E-12	682.854E-3	-19.6718E-3
-2.70885E-3	-94.3488E-12	637.425E-3	-8.99252E-3	-95.2724E-12	664.599E-3	-24.7757E-3
-2.71386E-3	-94.9483E-12	653.277E-3	-20.6877E-3	-95.1240E-12	684.433E-3	-28.0673E-3
-2.71886E-3	-95.6947E-12	676.243E-3	-22.6448E-3	-95.3784E-12	711.817E-3	-29.8565E-3
-2.72386E-3	-96.0690E-12	682.240E-3	-29.8934E-3	-95.6556E-12	731.642E-3	-19.5869E-3
-2.72886E-3	-96.6318E-12	685.093E-3	-49.2229E-3	-95.9469E-12	737.694E-3	-5.38137E-3
-2.73387E-3	-97.2423E-12	698.374E-3	-43.7033E-3	-96.0149E-12	706.053E-3	-19.4711E-3
-2.73887E-3	-97.6147E-12	710.528E-3	-18.8357E-3	-96.3802E-12	673.196E-3	-31.5927E-3
-2.74387E-3	-97.3095E-12	710.901E-3	-8.58084E-3	-96.4065E-12	671.931E-3	-35.3606E-3
-2.74887E-3	-97.4128E-12	700.411E-3	-6.78074E-3	-96.6529E-12	670.208E-3	-48.4028E-3
-2.75388E-3	-97.2874E-12	685.623E-3	-7.87436E-3	-96.9092E-12	668.527E-3	-45.3415E-3
-2.75888E-3	-97.3902E-12	683.185E-3	-17.4292E-3	-97.0876E-12	687.182E-3	-27.5713E-3
-2.76388E-3	-96.6364E-12	699.833E-3	-23.4450E-3	-97.5994E-12	709.813E-3	-18.4681E-3
-2.76888E-3	-96.1245E-12	709.359E-3	-16.1977E-3	-97.7215E-12	704.106E-3	-13.6184E-3
-2.77389E-3	-95.9288E-12	703.210E-3	-185.015E-6	-98.1485E-12	681.256E-3	-6.50737E-3
-2.77889E-3	-96.4183E-12	683.404E-3	9.23172E-3	-98.1326E-12	674.748E-3	-5.55222E-3
-2.78389E-3	-96.2375E-12	661.211E-3	-2.17052E-3	-98.3932E-12	670.040E-3	-12.4687E-3
-2.78889E-3	-96.2229E-12	666.928E-3	-20.8156E-3	-97.6487E-12	673.043E-3	-18.1448E-3
-2.79390E-3	-96.7131E-12	682.060E-3	-13.0317E-3	-98.5252E-12	679.972E-3	-21.8367E-3
-2.79890E-3	-97.0555E-12	665.825E-3	7.89193E-3	-98.5882E-12	661.409E-3	-12.6128E-3
-2.80390E-3	-97.7250E-12	636.896E-3	7.94746E-3	-98.5006E-12	654.671E-3	8.36877E-3
-2.80890E-3	-97.9922E-12	637.386E-3	-410.304E-6	-98.3549E-12	665.585E-3	8.70673E-3
-2.81391E-3	-98.7402E-12	662.745E-3	-2.29969E-3	-98.6351E-12	664.968E-3	-3.33901E-3
-2.81891E-3	-99.5109E-12	669.487E-3	-7.95032E-3	-98.9636E-12	675.832E-3	865.757E-6
-2.82391E-3	-100.255E-12	660.741E-3	-7.57097E-3	-98.9644E-12	696.254E-3	-4.12853E-3
-2.82891E-3	-100.622E-12	663.846E-3	1.66634E-3	-99.7204E-12	696.761E-3	-16.1382E-3
-2.83392E-3	-101.087E-12	665.870E-3	2.42514E-3	-100.607E-12	691.788E-3	-14.4142E-3
-2.83892E-3	-101.829E-12	670.901E-3	-3.55531E-3	-101.432E-12	699.594E-3	-23.2181E-3
-2.84392E-3	-102.113E-12	687.074E-3	-17.8732E-3	-101.835E-12	702.463E-3	-38.3627E-3
-2.84892E-3	-102.788E-12	698.387E-3	-30.6570E-3	-102.549E-12	702.851E-3	-32.7995E-3
-2.85393E-3	-103.339E-12	703.655E-3	-20.6701E-3	-103.476E-12	697.471E-3	-23.6829E-3
-2.85893E-3	-103.619E-12	704.185E-3	-8.93241E-3	-103.802E-12	685.380E-3	-20.7769E-3
-2.86393E-3	-103.250E-12	697.063E-3	-7.03532E-3	-103.354E-12	687.287E-3	-13.9517E-3
-2.86893E-3	-103.244E-12	690.077E-3	-13.4765E-3	-103.514E-12	687.391E-3	-16.1260E-3
-2.87394E-3	-103.534E-12	675.297E-3	-23.8705E-3	-104.212E-12	669.140E-3	-39.4221E-3
-2.87894E-3	-104.188E-12	676.362E-3	-17.3091E-3	-103.660E-12	656.651E-3	-52.7387E-3
-2.88394E-3	-103.288E-12	703.721E-3	-14.3711E-3	-103.151E-12	665.237E-3	-34.2527E-3
-2.88894E-3	-103.575E-12	719.156E-3	-26.2498E-3	-102.598E-12	669.204E-3	-21.9524E-3
-2.89395E-3	-103.932E-12	715.592E-3	-33.7960E-3	-102.946E-12	672.400E-3	-29.6283E-3
-2.89895E-3	-104.690E-12	703.095E-3	-28.0294E-3	-102.926E-12	689.764E-3	-27.6898E-3
-2.90395E-3	-104.209E-12	685.061E-3	-21.3268E-3	-102.298E-12	689.366E-3	-27.3675E-3
-2.90895E-3	-104.108E-12	674.611E-3	-17.9430E-3	-102.736E-12	677.131E-3	-38.1976E-3
-2.91396E-3	-104.448E-12	676.256E-3	-10.8432E-3	-103.191E-12	691.046E-3	-33.1390E-3
-2.91896E-3	-105.468E-12	685.482E-3	-3.99956E-3	-104.283E-12	711.461E-3	-25.8876E-3
-2.92396E-3	-105.538E-12	686.396E-3	-9.62923E-3	-104.457E-12	707.982E-3	-26.4300E-3
-2.92896E-3	-105.088E-12	675.199E-3	-21.7215E-3	-105.590E-12	690.648E-3	-20.2922E-3
-2.93397E-3	-105.683E-12	681.866E-3	-16.6331E-3	-106.111E-12	684.291E-3	-15.6311E-3
-2.93897E-3	-106.511E-12	694.745E-3	-15.8276E-3	-106.876E-12	684.502E-3	-15.3689E-3
-2.94397E-3	-107.205E-12	699.687E-3	-25.6350E-3	-107.785E-12	688.904E-3	-5.30150E-3
-2.94897E-3	-107.183E-12	703.987E-3	-19.1692E-3	-107.731E-12	691.991E-3	760.926E-6
-2.95398E-3	-107.467E-12	693.028E-3	1.37508E-3	-108.131E-12	688.691E-3	-4.27838E-3
-2.95898E-3	-107.927E-12	675.124E-3	10.3707E-3	-107.749E-12	692.104E-3	-7.63029E-3
-2.96398E-3	-108.277E-12	667.604E-3	-2.55180E-3	-108.646E-12	692.342E-3	-16.2252E-3
-2.96898E-3	-108.738E-12	666.486E-3	-18.7923E-3	-108.305E-12	686.268E-3	-24.9243E-3
-2.97399E-3	-108.546E-12	674.192E-3	-31.4402E-3	-107.766E-12	683.363E-3	-17.0057E-3
-2.97899E-3	-108.378E-12	678.689E-3	-32.9671E-3	-107.044E-12	677.261E-3	-10.1325E-3
-2.98399E-3	-107.781E-12	690.880E-3	-12.2044E-3	-107.300E-12	672.022E-3	-22.9123E-3
-2.98899E-3	-107.739E-12	726.479E-3	9.09173E-3	-107.524E-12	671.300E-3	-32.3718E-3
-2.99400E-3	-107.927E-12	728.612E-3	-4.90834E-3	-106.772E-12	669.927E-3	-37.3693E-3
-2.99900E-3	-107.401E-12	684.614E-3	-28.2692E-3	-106.337E-12	675.122E-3	-27.9103E-3
-3.00400E-3	-107.083E-12	662.644E-3	-31.0455E-3	-106.926E-12	678.890E-3	2.58888E-3
-3.00900E-3	-107.146E-12	675.275E-3	-35.2296E-3	-108.270E-12	685.678E-3	11.8025E-3
-3.01401E-3	-107.902E-12	678.415E-3	-39.9173E-3	-108.786E-12	690.309E-3	-11.8150E-3
-3.01901E-3	-107.777E-12	668.937E-3	-38.1395E-3	-108.842E-12	688.411E-3	-32.9200E-3
-3.02401E-3	-107.133E-12	665.445E-3	-30.8208E-3	-109.862E-12	693.084E-3	-28.1975E-3
-3.02901E-3	-107.658E-12	663.532E-3	-22.7684E-3	-111.005E-12	679.737E-3	-24.8564E-3
-3.03402E-3	-108.874E-12	660.084E-3	-9.15574E-3	-111.604E-12	665.194E-3	-37.9999E-3
-3.03902E-3	-109.770E-12	656.710E-3	3.42120E-3	-111.877E-12	678.297E-3	-42.5202E-3
-3.04402E-3	-109.941E-12	666.699E-3	-346.872E-6	-112.469E-12	684.642E-3	-39.7500E-3
-3.04902E-3	-110.384E-12	689.012E-3	-5.68477E-3	-112.607E-12	681.292E-3	-31.9389E-3
-3.05403E-3	-111.574E-12	688.594E-3	3.56364E-3	-112.498E-12	685.615E-3	-9.86746E-3
-3.05903E-3	-112.476E-12	660.394E-3	14.0815E-3	-112.606E-12	678.166E-3	-12.4136E-3
-3.06403E-3	-113.370E-12	636.683E-3	-5.13284E-3	-112.769E-12	647.623E-3	-39.0208E-3
-3.06903E-3	-113.294E-12	644.481E-3	-35.9052E-3	-111.971E-12	634.021E-3	-50.0804E-3
-3.07404E-3	-113.681E-12	673.985E-3	-33.8187E-3	-111.936E-12	651.011E-3	-51.5520E-3
-3.07904E-3	-113.621E-12	693.197E-3	-13.8522E-3	-112.057E-12	665.499E-3	-31.9674E-3
-3.08404E-3	-113.758E-12	693.105E-3	1.19577E-3	-112.319E-12	680.221E-3	-690.107E-6
-3.08904E-3	-113.218E-12	695.119E-3	14.9022E-3	-111.790E-12	684.431E-3	-10.1211E-3
-3.09405E-3	-112.534E-12	698.507E-3	2.65254E-3	-111.476E-12	678.786E-3	-21.2972E-3
-3.09905E-3	-112.190E-12	689.572E-3	-27.8840E-3	-112.220E-12	682.632E-3	-17.3075E-3
-3.10405E-3	-112.749E-12	673.619E-3	-23.5145E-3	-113.389E-12	677.552E-3	-24.6877E-3
-3.10905E-3	-112.442E-12	670.384E-3	-11.8079E-3	-113.042E-12	666.773E-3	-17.0537E-3
-3.11406E-3	-111.712E-12	681.549E-3	-32.5293E-3	-113.174E-12	675.808E-3	-10.0549E-3
-3.11906E-3	-111.926E-12	677.546E-3	-41.4695E-3	-114.436E-12	695.030E-3	-17.9021E-3
-3.12406E-3	-112.263E-12	665.589E-3	-30.0746E-3	-115.428E-12	692.318E-3	-10.7893E-3
-3.12906E-3	-112.690E-12	661.753E-3	-28.0790E-3	-116.089E-12	680.689E-3	10.4205E-3
-3.13407E-3	-112.862E-12	668.142E-3	-27.8829E-3	-115.673E-12	683.286E-3	14.0515E-3
-3.13907E-3	-113.661E-12	680.485E-3	-15.8852E-3	-115.880E-12	679.127E-3	-559.789E-6
-3.14407E-3	-114.118E-12	677.951E-3	6.74107E-3	-115.992E-12	665.388E-3	-7.12212E-3
-3.14907E-3	-115.088E-12	660.134E-3	16.0577E-3	-116.354E-12	661.275E-3	-8.35027E-3
-3.15408E-3	-115.769E-12	650.435E-3	-860.430E-6	-116.020E-12	664.135E-3	-9.22618E-3
-3.15908E-3	-116.541E-12	661.417E-3	-18.1830E-3	-116.211E-12	676.909E-3	-11.2138E-3
-3.16408E-3	-116.751E-12	668.136E-3	-20.2791E-3	-116.387E-12	686.729E-3	-19.4384E-3
-3.16908E-3	-117.492E-12	677.778E-3	-18.4659E-3	-116.771E-12	675.409E-3	-24.6460E-3
-3.17409E-3	-117.420E-12	700.155E-3	-21.4652E-3	-116.394E-12	666.737E-3	-23.5377E-3
-3.17909E-3	-117.890E-12	700.344E-3	-23.1014E-3	-116.361E-12	670.481E-3	-18.7726E-3
-3.18409E-3	-117.886E-12	688.526E-3	-19.5167E-3	-116.672E-12	673.167E-3	-16.0612E-3
-3.18909E-3	-117.296E-12	680.672E-3	-10.8042E-3	-116.628E-12	684.667E-3	-14.8941E-3
-3.19410E-3	-116.591E-12	681.763E-3	-9.62143E-3	-116.883E-12	699.863E-3	-15.7714E-3
-3.19910E-3	-116.627E-12	696.763E-3	-22.4495E-3	-117.241E-12	697.981E-3	-23.6827E-3
-3.20410E-3	-116.538E-12	704.241E-3	-37.2709E-3	-117.870E-12	680.302E-3	-26.2040E-3
-3.20910E-3	-116.158E-12	696.130E-3	-51.4697E-3	-117.801E-12	654.822E-3	-28.1687E-3
-3.21411E-3	-115.976E-12	678.320E-3	-43.1661E-3	-117.571E-12	633.637E-3	-38.3047E-3
-3.21911E-3	-116.367E-12	663.286E-3	-18.7384E-3	-118.372E-12	643.001E-3	-28.5127E-3
-3.22411E-3	-116.482E-12	667.960E-3	-17.7738E-3	-118.493E-12	660.371E-3	-10.1930E-3
-3.22911E-3	-116.176E-12	672.723E-3	-23.6305E-3	-117.843E-12	652.602E-3	-21.5388E-3
-3.23412E-3	-116.860E-12	658.187E-3	-5.88528E-3	-117.951E-12	651.555E-3	-28.5243E-3
-3.23912E-3	-118.296E-12	640.306E-3	13.0195E-3	-119.037E-12	664.790E-3	-7.07453E-3
-3.24412E-3	-118.870E-12	642.467E-3	-434.013E-6	-119.225E-12	670.477E-3	-890.799E-6
-3.24912E-3	-118.987E-12	658.755E-3	-22.8552E-3	-118.976E-12	669.684E-3	-8.86691E-3
-3.25413E-3	-119.765E-12	671.589E-3	-22.7297E-3	-119.283E-12	660.971E-3	4.36178E-3
-3.25913E-3	-120.657E-12	680.035E-3	-16.4197E-3	-120.243E-12	647.364E-3	14.8990E-3
-3.26413E-3	-121.781E-12	676.388E-3	-12.7222E-3	-120.694E-12	640.817E-3	5.59614E-3
-3.26913E-3	-122.093E-12	667.181E-3	-6.97904E-3	-120.734E-12	653.978E-3	-5.33160E-3
-3.27414E-3	-122.336E-12	652.021E-3	-1.97825E-3	-120.973E-12	679.574E-3	-12.0808E-3
-3.27914E-3	-123.123E-12	644.180E-3	4.70617E-3	-121.502E-12	681.261E-3	-13.6191E-3
-3.28414E-3	-123.484E-12	660.870E-3	-5.16843E-3	-122.147E-12	672.596E-3	-11.1528E-3
-3.28914E-3	-123.526E-12	678.190E-3	-24.4058E-3	-122.343E-12	679.298E-3	-7.92532E-3
-3.29415E-3	-123.365E-12	695.845E-3	-19.4167E-3	-122.251E-12	670.470E-3	-4.07695E-3
-3.29915E-3	-123.142E-12	697.786E-3	-2.78484E-3	-122.631E-12	657.241E-3	3.66642E-3
-3.30415E-3	-122.984E-12	679.318E-3	-7.57387E-3	-122.664E-12	655.704E-3	4.05187E-3
-3.30915E-3	-123.188E-12	670.849E-3	-35.2708E-3	-122.816E-12	636.355E-3	-14.4834E-3
-3.31416E-3	-123.186E-12	658.384E-3	-49.4436E-3	-122.649E-12	630.996E-3	-28.5385E-3
-3.31916E-3	-123.107E-12	652.142E-3	-33.4208E-3	-122.280E-12	657.450E-3	-26.8576E-3
-3.32416E-3	-122.723E-12	660.615E-3	-14.9363E-3	-121.782E-12	667.998E-3	-28.7126E-3
-3.32916E-3	-123.202E-12	664.348E-3	-13.1706E-3	-122.291E-12	662.564E-3	-14.8404E-3
-3.33417E-3	-123.665E-12	669.260E-3	-6.50448E-3	-123.001E-12	673.193E-3	-5.28884E-3
-3.33917E-3	-123.918E-12	672.410E-3	6.54197E-3	-123.391E-12	688.591E-3	-30.4995E-3
-3.34417E-3	-123.987E-12	665.124E-3	-11.7641E-3	-123.135E-12	687.373E-3	-38.8185E-3
-3.34917E-3	-124.448E-12	671.081E-3	-35.8525E-3	-124.123E-12	669.733E-3	-29.6337E-3
-3.35418E-3	-124.932E-12	680.360E-3	-35.6461E-3	-125.288E-12	644.980E-3	-43.6796E-3
-3.35918E-3	-125.517E-12	667.856E-3	-39.0878E-3	-125.354E-12	637.895E-3	-49.2008E-3
-3.36418E-3	-124.998E-12	664.421E-3	-34.9617E-3	-125.535E-12	651.914E-3	-31.8723E-3
-3.36918E-3	-125.207E-12	673.841E-3	-8.31388E-3	-126.090E-12	680.303E-3	-33.4732E-3
-3.37419E-3	-125.650E-12	675.279E-3	-1.14055E-3	-127.103E-12	692.749E-3	-40.1578E-3
-3.37919E-3	-125.879E-12	668.003E-3	-22.0325E-3	-127.827E-12	682.626E-3	-27.2263E-3
-3.38419E-3	-125.439E-12	656.355E-3	-24.1940E-3	-127.219E-12	675.354E-3	-26.2627E-3
-3.38919E-3	-126.161E-12	648.955E-3	-14.1076E-3	-127.187E-12	657.796E-3	-35.7200E-3
-3.39420E-3	-126.039E-12	655.652E-3	-7.08813E-3	-127.074E-12	647.615E-3	-29.6125E-3
-3.39920E-3	-126.619E-12	678.730E-3	173.889E-6	-127.409E-12	648.849E-3	-13.8036E-3
-3.40420E-3	-125.770E-12	691.327E-3	-9.10211E-3	-126.340E-12	645.689E-3	11.0484E-3
-3.40920E-3	-126.281E-12	684.487E-3	-30.0067E-3	-125.945E-12	661.891E-3	33.7153E-3
-3.41421E-3	-126.782E-12	686.250E-3	-32.2859E-3	-126.140E-12	675.011E-3	18.1470E-3
-3.41921E-3	-126.572E-12	680.612E-3	-8.23146E-3	-126.275E-12	659.745E-3	-8.03499E-3
-3.42421E-3	-126.066E-12	660.118E-3	5.33688E-3	-126.585E-12	654.982E-3	-4.91617E-3
-3.42921E-3	-126.476E-12	648.081E-3	-5.33459E-3	-126.757E-12	665.381E-3	-3.96058E-3
-3.43422E-3	-126.737E-12	644.907E-3	-18.5203E-3	-127.269E-12	655.089E-3	-22.1843E-3
-3.43922E-3	-126.917E-12	647.401E-3	-12.0475E-3	-127.693E-12	652.543E-3	-28.4758E-3
-3.44422E-3	-126.258E-12	660.197E-3	7.59436E-3	-128.560E-12	665.703E-3	-25.1902E-3
-3.44922E-3	-126.843E-12	668.837E-3	5.22866E-3	-129.644E-12	663.695E-3	-17.6829E-3
-3.45423E-3	-126.634E-12	663.321E-3	-15.2791E-3	-129.997E-12	679.301E-3	-7.21048E-3
-3.45923E-3	-127.313E-12	665.419E-3	-22.1841E-3	-130.959E-12	696.752E-3	-24.4150E-3
-3.46423E-3	-127.882E-12	668.734E-3	-16.2509E-3	-131.387E-12	683.605E-3	-24.2177E-3
-3.46923E-3	-128.584E-12	649.620E-3	-19.2737E-3	-132.763E-12	680.762E-3	7.37489E-3
-3.47424E-3	-129.495E-12	634.214E-3	-25.3948E-3	-131.954E-12	691.686E-3	4.27713E-3
-3.47924E-3	-129.624E-12	642.007E-3	-31.9165E-3	-131.528E-12	687.631E-3	-23.1428E-3
-3.48424E-3	-130.471E-12	660.263E-3	-30.1414E-3	-130.863E-12	686.920E-3	-32.3503E-3
-3.48924E-3	-131.366E-12	667.997E-3	-22.1691E-3	-130.771E-12	694.280E-3	-24.1238E-3
-3.49425E-3	-131.671E-12	656.007E-3	-29.4039E-3	-130.159E-12	669.127E-3	-24.4247E-3
-3.49925E-3	-131.672E-12	657.266E-3	-35.6028E-3	-129.255E-12	651.610E-3	-25.8759E-3
-3.50425E-3	-131.864E-12	668.685E-3	-27.1262E-3	-128.908E-12	681.366E-3	-25.2795E-3
-3.50925E-3	-132.008E-12	665.993E-3	-21.5819E-3	-128.973E-12	688.420E-3	-28.1433E-3
-3.51426E-3	-131.853E-12	660.329E-3	-19.9017E-3	-129.381E-12	660.572E-3	-13.9885E-3
-3.51926E-3	-131.717E-12	661.073E-3	-3.62132E-3	-128.573E-12	653.601E-3	-4.03161E-3
-3.52426E-3	-131.352E-12	661.473E-3	14.9180E-3	-129.670E-12	658.148E-3	-12.9739E-3
-3.52926E-3	-131.681E-12	653.757E-3	11.1052E-3	-130.625E-12	645.504E-3	-24.7305E-3
-3.53427E-3	-131.544E-12	644.522E-3	-1.33103E-3	-131.704E-12	650.539E-3	-29.7526E-3
-3.53927E-3	-131.538E-12	636.767E-3	-10.7990E-3	-131.767E-12	681.364E-3	-28.4340E-3
-3.54427E-3	-131.327E-12	637.592E-3	-19.9531E-3	-132.942E-12	697.526E-3	-17.6692E-3
-3.54927E-3	-130.953E-12	665.644E-3	-21.4783E-3	-134.798E-12	691.728E-3	-6.49063E-3
-3.55428E-3	-131.045E-12	682.443E-3	-19.3062E-3	-135.410E-12	683.042E-3	-21.4601E-3
-3.55928E-3	-131.247E-12	652.305E-3	-23.0203E-3	-135.786E-12	679.161E-3	-21.1114E-3
-3.56428E-3	-132.541E-12	622.198E-3	-23.3075E-3	-135.771E-12	680.285E-3	-1.37085E-3
-3.56928E-3	-132.877E-12	621.146E-3	-11.5370E-3	-135.832E-12	685.632E-3	-7.78479E-3
-3.57429E-3	-133.110E-12	636.568E-3	-4.02917E-3	-135.074E-12	674.024E-3	-22.8659E-3
-3.57929E-3	-134.097E-12	656.836E-3	-15.5621E-3	-134.935E-12	665.548E-3	-26.5023E-3
-3.58429E-3	-135.410E-12	662.918E-3	-35.7066E-3	-134.408E-12	661.960E-3	-27.2109E-3
-3.58929E-3	-136.031E-12	655.136E-3	-49.8184E-3	-133.863E-12	634.964E-3	-11.5948E-3
-3.59430E-3	-136.008E-12	646.555E-3	-41.7147E-3	-133.177E-12	623.274E-3	5.09039E-3
-3.59930E-3	-136.020E-12	646.113E-3	-21.0642E-3	-132.902E-12	618.754E-3	-7.11098E-3
-3.60430E-3	-136.430E-12	650.699E-3	-13.2669E-3	-133.934E-12	602.646E-3	-18.2161E-3
-3.60930E-3	-137.008E-12	656.255E-3	-12.7147E-3	-133.842E-12	620.162E-3	-18.2823E-3
-3.61431E-3	-136.136E-12	663.458E-3	-9.61877E-3	-133.758E-12	654.292E-3	-21.8664E-3
-3.61931E-3	-136.066E-12	662.886E-3	8.25697E-6	-133.977E-12	660.608E-3	-15.8903E-3
-3.62431E-3	-135.657E-12	675.265E-3	-6.07288E-3	-135.459E-12	660.025E-3	-12.3061E-3
-3.62931E-3	-136.212E-12	695.802E-3	-22.8733E-3	-135.602E-12	655.374E-3	-26.8503E-3
-3.63432E-3	-135.467E-12	676.256E-3	-18.4112E-3	-136.017E-12	641.155E-3	-21.1919E-3
-3.63932E-3	-134.967E-12	638.828E-3	-7.11056E-3	-136.512E-12	639.221E-3	-1.48117E-3
-3.64432E-3	-134.557E-12	627.339E-3	2.81161E-3	-137.179E-12	650.503E-3	-18.5214E-3
-3.64932E-3	-135.623E-12	635.530E-3	3.61312E-3	-137.591E-12	662.722E-3	-46.6036E-3
-3.65433E-3	-136.514E-12	646.414E-3	-18.8608E-3	-137.558E-12	648.105E-3	-35.1823E-3
-3.65933E-3	-136.530E-12	643.957E-3	-33.4033E-3	-138.373E-12	631.094E-3	1.62452E-3
-3.66433E-3	-136.897E-12	633.723E-3	-25.5373E-3	-138.535E-12	645.338E-3	7.76911E-3
-3.66933E-3	-138.324E-12	639.261E-3	-24.7972E-3	-138.316E-12	649.207E-3	-4.03559E-3
-3.67434E-3	-140.152E-12	659.141E-3	-36.5872E-3	-138.370E-12	651.598E-3	2.30940E-3
-3.67934E-3	-141.056E-12	671.586E-3	-33.5141E-3	-138.143E-12	665.026E-3	4.84828E-3
-3.68434E-3	-141.752E-12	672.428E-3	-12.4347E-3	-137.831E-12	664.505E-3	15.3465E-3
-3.68934E-3	-142.071E-12	672.394E-3	-10.9819E-3	-137.994E-12	655.872E-3	22.9582E-3
-3.69435E-3	-142.531E-12	684.472E-3	-20.3974E-3	-137.767E-12	643.292E-3	-4.48128E-3
-3.69935E-3	-143.246E-12	702.074E-3	-17.2310E-3	-138.339E-12	644.934E-3	-29.1659E-3
-3.70435E-3	-143.031E-12	707.708E-3	-14.7932E-3	-138.273E-12	674.933E-3	-28.0294E-3
-3.70935E-3	-141.969E-12	701.108E-3	-21.9976E-3	-138.710E-12	693.204E-3	-17.9700E-3
-3.71436E-3	-141.169E-12	686.158E-3	-25.4465E-3	-138.854E-12	679.034E-3	-11.1302E-3
-3.71936E-3	-140.852E-12	664.557E-3	-15.3813E-3	-139.924E-12	670.679E-3	-25.1259E-3
-3.72436E-3	-140.800E-12	652.301E-3	-16.7854E-3	-139.702E-12	683.131E-3	-56.7360E-3
-3.72936E-3	-139.146E-12	651.766E-3	-25.2729E-3	-140.265E-12	671.751E-3	-64.5438E-3
-3.73437E-3	-138.630E-12	647.173E-3	-25.2499E-3	-141.214E-12	648.684E-3	-37.9493E-3
-3.73937E-3	-138.804E-12	637.325E-3	-19.1648E-3	-142.214E-12	663.170E-3	-25.1923E-3
-3.74437E-3	-139.860E-12	628.269E-3	-6.61669E-3	-141.786E-12	671.619E-3	-39.3616E-3
-3.74937E-3	-139.580E-12	637.261E-3	5.30663E-3	-142.120E-12	664.532E-3	-33.9730E-3
-3.75438E-3	-140.290E-12	662.892E-3	-2.38334E-3	-142.662E-12	659.565E-3	-17.5293E-3
-3.75938E-3	-141.263E-12	669.110E-3	-27.7857E-3	-143.124E-12	636.956E-3	-17.8942E-3
-3.76438E-3	-141.733E-12	659.883E-3	-45.5117E-3	-143.284E-12	637.144E-3	-15.3536E-3
-3.76938E-3	-142.433E-12	662.038E-3	-42.0807E-3	-142.855E-12	657.437E-3	-22.4843E-3
-3.77439E-3	-143.397E-12	672.501E-3	-29.1408E-3	-143.633E-12	654.052E-3	-37.0776E-3
-3.77939E-3	-143.690E-12	678.877E-3	-18.6565E-3	-143.876E-12	650.452E-3	-9.31332E-3
-3.78439E-3	-144.180E-12	678.865E-3	-19.8694E-3	-143.863E-12	662.252E-3	26.2951E-3
-3.78939E-3	-144.172E-12	662.077E-3	-26.6048E-3	-144.266E-12	663.231E-3	26.6547E-3
-3.79440E-3	-144.178E-12	647.782E-3	-19.7270E-3	-144.411E-12	657.130E-3	23.1733E-3
-3.79940E-3	-144.086E-12	674.930E-3	-5.16217E-3	-144.188E-12	663.460E-3	10.3423E-3
-3.80440E-3	-143.655E-12	702.623E-3	-1.42517E-3	-144.500E-12	663.129E-3	-17.3686E-3
-3.80940E-3	-143.485E-12	684.313E-3	-18.7348E-3	-145.388E-12	651.980E-3	-25.3667E-3
-3.81441E-3	-144.149E-12	654.063E-3	-41.1982E-3	-144.985E-12	654.843E-3	-20.9388E-3
-3.81941E-3	-143.590E-12	650.669E-3	-55.8453E-3	-144.952E-12	655.398E-3	-18.8546E-3
-3.82441E-3	-143.585E-12	668.839E-3	-54.0714E-3	-144.522E-12	649.520E-3	-2.77870E-3
-3.82941E-3	-142.616E-12	672.722E-3	-38.0182E-3	-144.480E-12	664.442E-3	5.25212E-3
-3.83442E-3	-144.192E-12	651.992E-3	-26.9053E-3	-144.375E-12	671.183E-3	-7.92073E-3
-3.83942E-3	-144.019E-12	632.890E-3	-22.8108E-3	-145.284E-12	655.592E-3	-4.37334E-3
-3.84442E-3	-143.946E-12	638.681E-3	-18.2083E-3	-145.359E-12	641.929E-3	-6.89498E-3
-3.84942E-3	-143.736E-12	648.291E-3	-14.1162E-3	-145.104E-12	645.304E-3	-31.4482E-3
-3.85443E-3	-144.983E-12	639.659E-3	-22.9462E-3	-145.344E-12	657.747E-3	-36.5684E-3
-3.85943E-3	-145.710E-12	635.609E-3	-29.9844E-3	-145.782E-12	663.137E-3	-26.9161E-3
-3.86443E-3	-145.464E-12	651.129E-3	-18.3911E-3	-145.950E-12	667.908E-3	-21.3522E-3
-3.86943E-3	-146.114E-12	652.709E-3	-11.5835E-3	-146.402E-12	673.523E-3	-6.16874E-3
-3.87444E-3	-146.664E-12	642.543E-3	150.608E-6	-148.078E-12	684.732E-3	1.59678E-3
-3.87944E-3	-147.592E-12	644.383E-3	15.3805E-3	-148.795E-12	682.075E-3	-23.3375E-3
-3.88444E-3	-147.210E-12	631.546E-3	8.99797E-3	-148.865E-12	666.011E-3	-42.0389E-3
-3.88944E-3	-147.934E-12	635.348E-3	3.50841E-3	-149.098E-12	662.839E-3	-36.1045E-3
-3.89445E-3	-149.111E-12	675.328E-3	-7.16559E-3	-149.669E-12	666.032E-3	-35.1845E-3
-3.89945E-3	-149.753E-12	678.346E-3	-31.4861E-3	-149.812E-12	668.279E-3	-41.7742E-3
-3.90445E-3	-149.656E-12	653.410E-3	-40.8028E-3	-149.678E-12	665.052E-3	-34.2462E-3
-3.90945E-3	-150.130E-12	654.587E-3	-44.5221E-3	-149.098E-12	654.547E-3	-22.9550E-3
-3.91446E-3	-151.111E-12	656.949E-3	-61.2311E-3	-148.602E-12	638.609E-3	-10.6673E-3
-3.91946E-3	-151.220E-12	638.177E-3	-70.9079E-3	-148.804E-12	638.684E-3	2.46907E-3
-3.92446E-3	-150.720E-12	613.844E-3	-45.7716E-3	-148.488E-12	658.484E-3	-2.22490E-3
-3.92946E-3	-151.373E-12	618.540E-3	-17.4101E-3	-147.987E-12	653.747E-3	-10.8540E-3
-3.93447E-3	-151.471E-12	645.092E-3	-15.6797E-3	-147.104E-12	641.159E-3	-9.02689E-3
-3.93947E-3	-151.373E-12	663.000E-3	-10.6134E-3	-147.764E-12	649.955E-3	-11.4776E-3
-3.94447E-3	-150.342E-12	673.220E-3	-11.6485E-3	-148.656E-12	649.142E-3	-16.9416E-3
-3.94947E-3	-150.548E-12	677.095E-3	-24.2703E-3	-149.053E-12	638.911E-3	-10.4767E-3
-3.95448E-3	-150.822E-12	672.775E-3	-14.3985E-3	-148.551E-12	647.403E-3	-11.0567E-3
-3.95948E-3	-150.623E-12	658.957E-3	-4.37930E-3	-149.561E-12	660.126E-3	-17.1708E-3
-3.96448E-3	-150.023E-12	649.697E-3	-524.100E-6	-150.722E-12	665.124E-3	1.03899E-3
-3.96948E-3	-149.863E-12	650.983E-3	9.66071E-3	-153.110E-12	671.372E-3	-6.37561E-3
-3.97449E-3	-150.335E-12	658.751E-3	1.28108E-3	-153.247E-12	670.347E-3	-47.4345E-3
-3.97949E-3	-150.781E-12	662.381E-3	-13.2078E-3	-153.225E-12	668.828E-3	-47.3029E-3
-3.98449E-3	-151.695E-12	646.421E-3	-7.65583E-3	-154.037E-12	674.758E-3	-23.3143E-3
-3.98949E-3	-151.417E-12	637.919E-3	-4.12007E-3	-155.325E-12	673.854E-3	-22.1272E-3
-3.99450E-3	-151.829E-12	641.730E-3	-4.51594E-3	-154.990E-12	666.036E-3	-24.2349E-3
-3.99950E-3	-153.413E-12	636.296E-3	17.7744E-3	-153.746E-12	650.891E-3	-36.0792E-3
-4.00450E-3	-154.528E-12	636.098E-3	21.2145E-3	-153.259E-12	624.951E-3	-54.6492E-3
-4.00950E-3	-155.022E-12	654.817E-3	-8.89889E-3	-154.213E-12	610.598E-3	-31.4585E-3
-4.01451E-3	-154.944E-12	681.535E-3	-20.0012E-3	-152.871E-12	615.870E-3	-4.06538E-3
-4.01951E-3	-155.889E-12	683.358E-3	-5.16080E-3	-151.839E-12	618.161E-3	-10.3732E-3
-4.02451E-3	-155.831E-12	662.358E-3	-11.4275E-3	-151.440E-12	611.272E-3	-20.6309E-3
-4.02951E-3	-156.313E-12	642.427E-3	-21.3966E-3	-152.253E-12	623.300E-3	-34.6475E-3
-4.03452E-3	-155.173E-12	621.302E-3	-20.2417E-3	-151.467E-12	634.389E-3	-44.5966E-3
-4.03952E-3	-154.541E-12	629.193E-3	-34.6033E-3	-151.435E-12	629.198E-3	-42.9943E-3
-4.04452E-3	-154.895E-12	659.877E-3	-53.2101E-3	-152.192E-12	631.906E-3	-35.7020E-3
-4.04952E-3	-154.936E-12	666.239E-3	-52.4660E-3	-153.471E-12	629.516E-3	-32.9257E-3
-4.05453E-3	-153.275E-12	651.040E-3	-39.7254E-3	-154.130E-12	623.969E-3	-31.5312E-3
-4.05953E-3	-151.984E-12	637.556E-3	-41.6226E-3	-155.168E-12	630.242E-3	-6.50594E-3
-4.06453E-3	-152.162E-12	626.872E-3	-48.1631E-3	-156.039E-12	642.051E-3	21.4724E-3
-4.06953E-3	-152.695E-12	629.507E-3	-41.3691E-3	-156.620E-12	641.081E-3	29.8918E-3
-4.07454E-3	-152.712E-12	650.308E-3	-29.7028E-3	-157.603E-12	639.723E-3	19.3965E-3
-4.07954E-3	-153.158E-12	643.959E-3	-21.6703E-3	-157.622E-12	656.212E-3	-11.3095E-3
-4.08454E-3	-154.000E-12	619.209E-3	-23.9847E-3	-157.950E-12	657.438E-3	-30.3171E-3
-4.08954E-3	-155.219E-12	630.613E-3	-27.3658E-3	-158.278E-12	648.071E-3	-23.5750E-3
-4.09455E-3	-155.925E-12	649.253E-3	-16.3777E-3	-157.385E-12	651.869E-3	-34.0169E-3
-4.09955E-3	-156.990E-12	641.092E-3	-6.02536E-3	-156.947E-12	663.387E-3	-44.5119E-3
-4.10455E-3	-158.380E-12	638.739E-3	-8.43943E-3	-157.277E-12	686.841E-3	-25.2669E-3
-4.10955E-3	-159.190E-12	661.810E-3	-10.3044E-3	-156.487E-12	691.048E-3	-22.9487E-3
-4.11456E-3	-159.662E-12	674.963E-3	-5.48907E-3	-155.183E-12	663.904E-3	-22.1554E-3
-4.11956E-3	-159.751E-12	663.995E-3	549.639E-6	-155.756E-12	640.062E-3	9.35152E-3
-4.12456E-3	-160.731E-12	665.926E-3	-5.67838E-3	-156.325E-12	634.337E-3	20.8880E-3
-4.12956E-3	-160.636E-12	658.184E-3	-23.8426E-3	-156.400E-12	644.150E-3	5.35953E-3
-4.13457E-3	-159.386E-12	649.651E-3	-35.0874E-3	-156.481E-12	655.693E-3	646.546E-6
-4.13957E-3	-158.789E-12	674.139E-3	-33.6776E-3	-156.935E-12	661.608E-3	-8.17578E-3
-4.14457E-3	-158.432E-12	673.583E-3	-22.0882E-3	-157.898E-12	663.827E-3	-37.2145E-3
-4.14957E-3	-158.207E-12	664.380E-3	-19.7714E-3	-158.826E-12	670.951E-3	-45.1136E-3
-4.15458E-3	-157.174E-12	669.568E-3	-20.5999E-3	-158.852E-12	683.701E-3	-29.5998E-3
-4.15958E-3	-156.519E-12	656.580E-3	-12.7066E-3	-159.389E-12	681.055E-3	-31.6161E-3
-4.16458E-3	-157.079E-12	650.318E-3	-17.1268E-3	-161.073E-12	667.024E-3	-24.9744E-3
-4.16958E-3	-157.286E-12	652.751E-3	-31.3694E-3	-161.756E-12	659.110E-3	971.636E-6
-4.17459E-3	-156.688E-12	658.741E-3	-45.5119E-3	-161.299E-12	643.352E-3	-5.29102E-3
-4.17959E-3	-157.878E-12	662.411E-3	-34.2735E-3	-161.192E-12	630.106E-3	-29.5310E-3
-4.18459E-3	-159.024E-12	650.133E-3	-12.1462E-3	-161.809E-12	643.847E-3	-32.8544E-3
-4.18959E-3	-160.197E-12	639.035E-3	-16.1698E-3	-161.708E-12	655.239E-3	-32.1867E-3
-4.19460E-3	-159.982E-12	630.426E-3	-18.5124E-3	-161.192E-12	653.409E-3	-26.2897E-3
-4.19960E-3	-161.375E-12	641.241E-3	-8.28288E-3	-161.219E-12	667.567E-3	-15.7706E-3
-4.20460E-3	-161.955E-12	663.787E-3	-361.310E-6	-161.110E-12	670.992E-3	-32.0668E-3
-4.20960E-3	-162.238E-12	652.116E-3	-598.746E-6	-161.998E-12	637.658E-3	-50.4127E-3
-4.21461E-3	-162.924E-12	630.883E-3	2.89292E-3	-161.458E-12	631.593E-3	-30.2370E-3
-4.21961E-3	-163.518E-12	639.286E-3	21.8380E-3	-161.189E-12	656.804E-3	-12.4809E-3
-4.22461E-3	-163.086E-12	653.337E-3	17.4796E-3	-161.166E-12	652.285E-3	-25.8850E-3
-4.22961E-3	-163.193E-12	660.262E-3	-8.54313E-3	-161.943E-12	641.801E-3	-45.0878E-3
-4.23462E-3	-164.136E-12	669.870E-3	-5.26770E-3	-162.336E-12	654.200E-3	-47.6096E-3
-4.23962E-3	-163.761E-12	664.534E-3	9.63640E-3	-162.643E-12	667.507E-3	-29.8213E-3
-4.24462E-3	-163.017E-12	651.698E-3	11.6749E-3	-162.960E-12	675.974E-3	-4.27014E-3
-4.24962E-3	-162.705E-12	650.391E-3	13.1074E-3	-163.144E-12	664.411E-3	11.6139E-3
-4.25463E-3	-163.032E-12	635.273E-3	13.5791E-3	-163.812E-12	637.961E-3	3.75868E-3
-4.25963E-3	-164.556E-12	614.600E-3	-4.61208E-3	-164.274E-12	637.520E-3	-7.44350E-3
-4.26463E-3	-163.856E-12	616.781E-3	-18.1164E-3	-164.560E-12	653.329E-3	-9.68577E-3
-4.26963E-3	-163.755E-12	627.177E-3	-7.75815E-3	-163.816E-12	652.843E-3	-3.34658E-3
-4.27464E-3	-164.400E-12	624.312E-3	-8.31317E-3	-164.203E-12	643.855E-3	3.00217E-3
-4.27964E-3	-165.903E-12	631.869E-3	-15.4521E-3	-164.629E-12	646.598E-3	-13.3011E-3
-4.28464E-3	-165.609E-12	661.315E-3	-17.9614E-3	-165.489E-12	667.384E-3	-36.5352E-3
-4.28964E-3	-164.962E-12	655.464E-3	-28.0372E-3	-164.857E-12	692.645E-3	-25.0097E-3
-4.29465E-3	-165.977E-12	642.075E-3	-30.6977E-3	-165.185E-12	711.282E-3	-1.86809E-3
-4.29965E-3	-166.997E-12	653.155E-3	-17.2580E-3	-165.285E-12	714.896E-3	-4.00517E-3
-4.30465E-3	-168.191E-12	654.680E-3	-7.34774E-3	-166.128E-12	694.767E-3	-4.49907E-3
-4.30965E-3	-167.349E-12	663.036E-3	-16.4366E-3	-166.042E-12	676.096E-3	-20.5968E-3
-4.31466E-3	-167.647E-12	666.380E-3	-21.5829E-3	-166.798E-12	665.744E-3	-46.2734E-3
-4.31966E-3	-167.789E-12	650.528E-3	-8.18596E-3	-166.977E-12	651.427E-3	-35.4900E-3
-4.32466E-3	-168.883E-12	637.280E-3	4.17868E-3	-166.401E-12	652.947E-3	-18.0845E-3
-4.32966E-3	-168.499E-12	642.452E-3	23.6196E-3	-166.684E-12	650.228E-3	-12.6984E-3
-4.33467E-3	-168.142E-12	657.984E-3	18.8926E-3	-166.588E-12	635.903E-3	3.92657E-3
-4.33967E-3	-168.881E-12	667.947E-3	-12.8673E-3	-166.906E-12	653.188E-3	3.72769E-3
-4.34467E-3	-169.348E-12	669.294E-3	-22.6984E-3	-165.582E-12	664.981E-3	-27.6048E-3
-4.34967E-3	-169.839E-12	656.324E-3	-24.5282E-3	-165.890E-12	635.317E-3	-39.8366E-3
-4.35468E-3	-169.393E-12	656.008E-3	-19.5330E-3	-166.239E-12	629.139E-3	-26.2146E-3
-4.35968E-3	-169.534E-12	667.304E-3	-3.94122E-3	-166.092E-12	654.788E-3	-15.8175E-3
-4.36468E-3	-169.215E-12	643.489E-3	-3.19442E-3	-165.602E-12	645.552E-3	-2.77115E-3
-4.36968E-3	-169.836E-12	618.900E-3	-12.2450E-3	-165.864E-12	631.276E-3	13.1661E-3
-4.37469E-3	-170.025E-12	620.768E-3	-11.3085E-3	-166.877E-12	642.323E-3	8.64423E-3
-4.37969E-3	-168.993E-12	606.384E-3	-13.0703E-3	-167.566E-12	623.883E-3	-15.5234E-3
-4.38469E-3	-168.368E-12	614.217E-3	-24.4971E-3	-167.377E-12	619.979E-3	-25.3850E-3
-4.38969E-3	-168.653E-12	655.227E-3	-14.4400E-3	-168.466E-12	654.652E-3	-24.3655E-3
-4.39470E-3	-169.303E-12	660.525E-3	6.07575E-3	-169.964E-12	666.318E-3	-38.6100E-3
-4.39970E-3	-168.753E-12	654.076E-3	1.11062E-3	-171.264E-12	662.125E-3	-46.3943E-3
-4.40470E-3	-167.535E-12	659.245E-3	-6.03490E-3	-171.449E-12	655.553E-3	-40.0888E-3
-4.40970E-3	-167.814E-12	654.634E-3	-12.5427E-3	-172.062E-12	643.591E-3	-27.2592E-3
-4.41471E-3	-168.962E-12	639.906E-3	-23.6143E-3	-173.016E-12	647.639E-3	-21.7509E-3
-4.41971E-3	-169.440E-12	626.141E-3	-13.9133E-3	-173.181E-12	665.407E-3	-34.1171E-3
-4.42471E-3	-168.630E-12	632.875E-3	-5.64070E-3	-173.031E-12	663.226E-3	-34.6319E-3
-4.42971E-3	-169.828E-12	654.266E-3	-22.5394E-3	-172.180E-12	649.215E-3	-15.8689E-3
-4.43472E-3	-172.051E-12	661.433E-3	-22.6602E-3	-172.042E-12	659.411E-3	-7.89262E-3
-4.43972E-3	-173.317E-12	645.065E-3	-6.77018E-3	-170.787E-12	660.779E-3	-15.7049E-3
-4.44472E-3	-173.416E-12	639.335E-3	-17.7475E-3	-170.767E-12	640.812E-3	-18.5975E-3
-4.44972E-3	-173.130E-12	648.568E-3	-29.8047E-3	-169.599E-12	631.276E-3	-24.5202E-3
-4.45473E-3	-173.670E-12	648.137E-3	-19.2542E-3	-169.479E-12	630.011E-3	-39.5322E-3
-4.45973E-3	-173.935E-12	651.845E-3	-12.9679E-3	-169.436E-12	637.567E-3	-27.1822E-3
-4.46473E-3	-173.618E-12	665.406E-3	-18.7439E-3	-169.563E-12	660.768E-3	-6.93651E-3
-4.46973E-3	-172.253E-12	682.849E-3	-22.3661E-3	-170.004E-12	676.367E-3	-24.6858E-3
-4.47474E-3	-172.094E-12	675.862E-3	-12.1805E-3	-170.258E-12	646.924E-3	-33.2135E-3
-4.47974E-3	-171.789E-12	646.304E-3	-4.26106E-3	-170.846E-12	625.303E-3	-34.6027E-3
-4.48474E-3	-171.829E-12	623.437E-3	-4.51167E-3	-171.887E-12	636.684E-3	-51.1188E-3
-4.48974E-3	-171.320E-12	613.112E-3	-15.5671E-3	-173.789E-12	641.720E-3	-33.1869E-3
-4.49475E-3	-170.690E-12	625.392E-3	-29.4223E-3	-174.979E-12	641.085E-3	-3.47142E-3
-4.49975E-3	-171.299E-12	631.135E-3	-29.8021E-3	-175.976E-12	634.941E-3	-3.58073E-3
-4.50475E-3	-172.112E-12	627.359E-3	-33.3215E-3	-177.475E-12	635.765E-3	5.02925E-3
-4.50975E-3	-173.062E-12	647.894E-3	-29.5174E-3	-177.323E-12	650.319E-3	30.6914E-3
-4.51476E-3	-172.703E-12	660.011E-3	-7.16098E-3	-177.504E-12	657.945E-3	17.1715E-3
-4.51976E-3	-173.665E-12	655.863E-3	-9.95624E-3	-177.510E-12	648.497E-3	-15.9733E-3
-4.52476E-3	-175.341E-12	662.179E-3	-41.1075E-3	-177.110E-12	640.929E-3	-17.1446E-3
-4.52976E-3	-177.217E-12	669.805E-3	-43.1318E-3	-176.002E-12	638.324E-3	-13.5813E-3
-4.53477E-3	-177.439E-12	662.292E-3	-31.4594E-3	-175.744E-12	623.778E-3	-16.1153E-3
-4.53977E-3	-177.453E-12	654.484E-3	-28.3781E-3	-174.267E-12	610.254E-3	-18.3377E-3
-4.54477E-3	-179.210E-12	660.756E-3	-9.42925E-3	-174.407E-12	611.840E-3	-27.0740E-3
-4.54977E-3	-179.481E-12	669.556E-3	-4.25383E-3	-174.285E-12	617.180E-3	-22.8071E-3
-4.55478E-3	-180.169E-12	680.776E-3	-19.4624E-3	-174.878E-12	628.392E-3	6.59483E-3
-4.55978E-3	-178.532E-12	681.905E-3	-8.21686E-3	-173.937E-12	652.683E-3	18.4603E-3
-4.56478E-3	-178.320E-12	677.295E-3	5.79946E-3	-174.671E-12	658.083E-3	-2.28631E-3
-4.56978E-3	-178.639E-12	677.978E-3	-8.68107E-3	-175.193E-12	638.798E-3	-10.0399E-3
-4.57479E-3	-178.159E-12	663.469E-3	-18.4114E-3	-176.999E-12	648.444E-3	-20.2959E-3
-4.57979E-3	-176.324E-12	632.664E-3	-12.7478E-3	-177.655E-12	678.016E-3	-41.7258E-3
-4.58479E-3	-175.625E-12	632.412E-3	-12.1644E-3	-178.755E-12	689.474E-3	-30.4243E-3
-4.58979E-3	-176.531E-12	647.017E-3	-16.4516E-3	-179.808E-12	701.586E-3	-13.9880E-3
-4.59480E-3	-176.981E-12	629.729E-3	-25.0117E-3	-181.026E-12	681.236E-3	-16.0319E-3
-4.59980E-3	-176.971E-12	628.663E-3	-41.8999E-3	-181.673E-12	638.692E-3	-8.67947E-3
-4.60480E-3	-176.726E-12	643.083E-3	-38.3123E-3	-182.436E-12	648.482E-3	-21.6292E-3
-4.60980E-3	-178.284E-12	619.270E-3	-25.8919E-3	-182.418E-12	681.043E-3	-52.2353E-3
-4.61481E-3	-179.025E-12	611.269E-3	-37.9726E-3	-181.795E-12	691.496E-3	-48.2033E-3
-4.61981E-3	-180.478E-12	653.208E-3	-29.0716E-3	-180.777E-12	680.324E-3	-23.9700E-3
-4.62481E-3	-180.790E-12	674.641E-3	6.30333E-3	-180.840E-12	661.969E-3	-23.9110E-3
-4.62981E-3	-181.579E-12	662.788E-3	9.98158E-3	-180.133E-12	655.425E-3	-28.2729E-3
-4.63482E-3	-182.334E-12	640.584E-3	-4.10583E-3	-178.607E-12	657.059E-3	-2.21814E-3
-4.63982E-3	-182.467E-12	611.673E-3	-18.3375E-3	-178.632E-12	650.071E-3	16.2366E-3
-4.64482E-3	-182.535E-12	617.419E-3	-34.8627E-3	-178.988E-12	640.355E-3	12.7202E-3
-4.64982E-3	-182.151E-12	646.271E-3	-27.6796E-3	-178.384E-12	644.540E-3	1.50507E-3
-4.65483E-3	-182.470E-12	660.113E-3	-16.0447E-3	-177.851E-12	671.950E-3	-24.4466E-3
-4.65983E-3	-181.463E-12	661.489E-3	-23.3246E-3	-178.329E-12	708.253E-3	-34.3704E-3
-4.66483E-3	-181.333E-12	667.019E-3	-26.2865E-3	-179.107E-12	712.139E-3	-23.1568E-3
-4.66983E-3	-179.958E-12	671.452E-3	-18.8924E-3	-179.660E-12	685.997E-3	-27.7544E-3
-4.67484E-3	-178.960E-12	671.650E-3	-9.98067E-3	-180.184E-12	662.256E-3	-44.5709E-3
-4.67984E-3	-179.541E-12	672.899E-3	1.89600E-3	-181.351E-12	648.322E-3	-53.2193E-3
-4.68484E-3	-179.125E-12	653.161E-3	6.45298E-3	-182.546E-12	636.446E-3	-42.8167E-3
-4.68984E-3	-179.477E-12	636.338E-3	-22.5509E-3	-182.909E-12	628.839E-3	-15.7352E-3
-4.69485E-3	-179.109E-12	631.565E-3	-53.2076E-3	-182.205E-12	629.023E-3	-2.00396E-3
-4.69985E-3	-180.742E-12	636.342E-3	-31.6728E-3	-183.607E-12	628.155E-3	-2.77746E-3
-4.70485E-3	-181.071E-12	652.296E-3	2.00013E-3	-183.651E-12	619.420E-3	1.69222E-3
-4.70985E-3	-182.311E-12	648.041E-3	-6.12075E-3	-183.209E-12	620.351E-3	5.99050E-3
-4.71486E-3	-183.050E-12	634.965E-3	-19.9080E-3	-182.664E-12	650.369E-3	9.73747E-3
-4.71986E-3	-183.848E-12	628.195E-3	-15.0042E-3	-183.706E-12	675.335E-3	10.7306E-3
-4.72486E-3	-184.135E-12	623.646E-3	-13.0979E-3	-183.889E-12	668.284E-3	5.52902E-3
-4.72986E-3	-184.719E-12	625.735E-3	-14.0398E-3	-183.809E-12	650.304E-3	-14.9041E-3
-4.73487E-3	-185.502E-12	626.564E-3	-14.1323E-3	-183.236E-12	635.003E-3	-44.2736E-3
-4.73987E-3	-186.063E-12	630.198E-3	-34.4134E-3	-183.945E-12	637.519E-3	-49.9210E-3
-4.74487E-3	-185.903E-12	662.193E-3	-41.9538E-3	-184.638E-12	655.977E-3	-51.4870E-3
-4.74988E-3	-185.368E-12	697.766E-3	-20.0906E-3	-184.804E-12	653.819E-3	-51.1012E-3
-4.75488E-3	-185.773E-12	692.409E-3	-13.0265E-3	-185.459E-12	650.785E-3	-17.9149E-3
-4.75988E-3	-185.525E-12	677.848E-3	-13.0443E-3	-185.181E-12	657.335E-3	-8.49920E-3
-4.76488E-3	-186.082E-12	662.868E-3	12.3823E-6	-185.334E-12	641.878E-3	-45.5418E-3
-4.76988E-3	-186.087E-12	634.438E-3	5.32448E-3	-185.715E-12	638.485E-3	-44.8662E-3
-4.77489E-3	-186.486E-12	630.256E-3	-11.1106E-3	-186.282E-12	655.278E-3	-9.95554E-3
-4.77989E-3	-186.883E-12	642.062E-3	-41.0512E-3	-185.693E-12	665.821E-3	-8.61782E-3
-4.78489E-3	-187.686E-12	654.508E-3	-64.0668E-3	-185.748E-12	680.573E-3	-19.0848E-3
-4.78989E-3	-186.789E-12	656.728E-3	-57.8858E-3	-186.175E-12	678.597E-3	-7.95282E-3
-4.79490E-3	-187.722E-12	633.443E-3	-41.0796E-3	-187.096E-12	644.598E-3	-9.51359E-3
-4.79990E-3	-187.515E-12	616.930E-3	-42.6584E-3	-186.269E-12	622.177E-3	-31.6489E-3
-4.80490E-3	-189.355E-12	639.503E-3	-37.8132E-3	-186.702E-12	631.385E-3	-28.2591E-3
-4.80990E-3	-188.973E-12	665.435E-3	-48.1942E-3	-186.687E-12	650.208E-3	-6.63742E-3
-4.81491E-3	-188.836E-12	647.850E-3	-79.1899E-3	-188.407E-12	665.221E-3	-9.40102E-3
-4.81991E-3	-188.340E-12	630.718E-3	-73.4790E-3	-189.039E-12	679.874E-3	-25.8916E-3
-4.82491E-3	-188.065E-12	632.333E-3	-34.4238E-3	-190.408E-12	694.715E-3	-15.5744E-3
-4.82991E-3	-187.697E-12	626.252E-3	-3.51060E-3	-190.782E-12	677.435E-3	6.19884E-3
-4.83492E-3	-188.596E-12	621.938E-3	-5.06708E-3	-191.866E-12	660.051E-3	5.95304E-3
-4.83992E-3	-188.545E-12	605.514E-3	-9.01923E-3	-192.374E-12	674.561E-3	-6.05380E-3
-4.84492E-3	-188.217E-12	604.606E-3	-3.54267E-3	-191.810E-12	669.626E-3	-8.72870E-3
-4.84992E-3	-188.978E-12	640.572E-3	-247.968E-6	-191.824E-12	659.053E-3	-6.51753E-3
-4.85493E-3	-190.166E-12	657.674E-3	-13.7564E-3	-191.398E-12	678.390E-3	-25.5623E-3
-4.85993E-3	-190.177E-12	643.660E-3	-40.5441E-3	-190.698E-12	681.681E-3	-47.9246E-3
-4.86493E-3	-190.671E-12	649.053E-3	-26.8232E-3	-190.249E-12	652.938E-3	-29.8257E-3
-4.86993E-3	-190.747E-12	685.731E-3	-731.175E-6	-189.799E-12	637.432E-3	5.22568E-3
-4.87494E-3	-191.610E-12	692.949E-3	-1.79054E-3	-188.778E-12	632.787E-3	-3.42733E-3
-4.87994E-3	-192.222E-12	660.374E-3	3.00857E-3	-187.751E-12	618.502E-3	-26.3723E-3
-4.88494E-3	-191.894E-12	634.075E-3	-3.86526E-3	-187.224E-12	608.771E-3	-26.9116E-3
-4.88995E-3	-191.209E-12	629.455E-3	-22.7164E-3	-188.247E-12	611.363E-3	-40.3805E-3
-4.89495E-3	-191.191E-12	638.335E-3	-20.1320E-3	-187.516E-12	624.117E-3	-50.8453E-3
-4.89995E-3	-191.274E-12	666.424E-3	-15.2634E-3	-188.442E-12	645.724E-3	-37.9354E-3
-4.90495E-3	-190.603E-12	682.987E-3	-15.2314E-3	-188.718E-12	642.449E-3	-11.0836E-3
-4.90995E-3	-190.335E-12	676.769E-3	-24.4947E-3	-190.448E-12	611.848E-3	10.2116E-3
-4.91496E-3	-190.338E-12	684.085E-3	-28.8968E-3	-191.550E-12	611.633E-3	12.1748E-3
-4.91996E-3	-190.250E-12	693.787E-3	-14.5698E-3	-192.412E-12	650.210E-3	1.90626E-3
-4.92496E-3	-189.794E-12	692.724E-3	-7.22124E-3	-192.972E-12	681.758E-3	-3.46465E-3
-4.92996E-3	-190.527E-12	674.570E-3	-13.5627E-3	-195.065E-12	703.541E-3	-11.9403E-3
-4.93497E-3	-190.932E-12	641.185E-3	-23.2861E-3	-196.131E-12	704.040E-3	-32.6440E-3
-4.93997E-3	-191.741E-12	613.217E-3	-27.0692E-3	-195.624E-12	682.740E-3	-31.9225E-3
-4.94497E-3	-193.483E-12	620.696E-3	-15.9832E-3	-195.543E-12	669.806E-3	-23.5527E-3
-4.94997E-3	-194.528E-12	656.146E-3	-761.441E-6	-195.696E-12	655.254E-3	-29.4377E-3
-4.95498E-3	-195.311E-12	654.497E-3	-5.39823E-3	-194.805E-12	643.333E-3	-28.6532E-3
-4.95998E-3	-196.428E-12	632.545E-3	-10.8547E-3	-193.317E-12	653.685E-3	-6.94567E-3
-4.96498E-3	-197.854E-12	622.111E-3	-6.24289E-3	-192.366E-12	656.476E-3	11.9107E-3
-4.96998E-3	-198.423E-12	621.465E-3	-19.5142E-3	-192.235E-12	630.394E-3	25.4332E-3
-4.97499E-3	-197.373E-12	655.546E-3	-24.9537E-3	-192.213E-12	625.689E-3	29.7742E-3
-4.97999E-3	-196.339E-12	673.363E-3	-6.90176E-3	-191.174E-12	642.848E-3	-7.45496E-3
-4.98499E-3	-196.227E-12	659.228E-3	1.66063E-3	-191.212E-12	644.472E-3	-48.1445E-3
-4.98999E-3	-196.385E-12	661.820E-3	-1.79830E-3	-191.758E-12	663.050E-3	-45.4644E-3
-4.99500E-3	-195.217E-12	672.261E-3	5.22540E-3	-192.294E-12	682.595E-3	-21.2553E-3
-5.00000E-3	-192.805E-12	669.919E-3	11.2212E-3	-191.923E-12	673.696E-3	-485.142E-6
