Experiment	bias spectroscopy	
Date	19.01.2016 20:37:43	
User		
X (m)	50.3106E-9	
Y (m)	257.156E-9	
Z (m)	-132.533E-9	
Z offset (m)	0E+0	
Settling time (s)	200E-6	
Integration time (s)	5E-3	
Z-Ctrl hold	TRUE	
Final Z (m)	N/A	
Filter type	None	
Order		
Cutoff frq		
Comment01	MnPc/Pb(111)	
Comment02	dz =00pm	
Comment03	7 Sweeps	
Comment04	MagField =0.T	
Comment05	Divider 1:10	
Comment06	Setpoint:5mV,200 pA	
Comment07	Lockin: 50uVrms,5ms,5mV	
Comment08	Gain:9; 912Hz modulation	
Comment09	T=1.06K	
Bias>Bias (V)	5E-3	
Bias>Calibration (V/V)	81.475E-3	
Bias>Offset (V)	1.046E-3	
Bias Spectroscopy>Sweep Start (V)	5E-3	
Bias Spectroscopy>Sweep End (V)	-5E-3	
Bias Spectroscopy>Num Pixel	2000	
Bias Spectroscopy>Z Avg time (s)	500E-3	
Bias Spectroscopy>Z offset (m)	0E+0	
Bias Spectroscopy>1st Settling time (s)	500E-3	
Bias Spectroscopy>Settling time (s)	200E-6	
Bias Spectroscopy>Integration time (s)	5E-3	
Bias Spectroscopy>End Settling time (s)	500E-3	
Bias Spectroscopy>Z control time (s)	500E-3	
Bias Spectroscopy>Max Slew rate (V/s)	Inf	
Bias Spectroscopy>backward sweep	TRUE	
Bias Spectroscopy>Z-controller hold	TRUE	
Bias Spectroscopy>Number of sweeps	7	
Bias Spectroscopy>Channels	Current (A);X% LockIn (V);Y% LockIn (V)	
Bias Spectroscopy>Reset Bias	TRUE	
Bias Spectroscopy>Record final Z	FALSE	
Bias Spectroscopy>Lock-In run	FALSE	
Bias Spectroscopy>Sweep mode	Linear	
Bias Spectroscopy>MultiLine Settings : Segment Start (V), Segment End (V), Settling (s), Integration (s), Steps (xn)	100E-3,3.3E-3,100E-6,10E-3,2500;3.3E-3,-3.3E-3,100E-6,10E-3,10;-3.3E-3,-100E-3,100E-6,10E-3,2500	
Current>Current (A)	200.67E-12	
Current>Calibration (A/V)	999.99900E-12	
Current>Offset (A)	-455.429E-15	
Current>Gain	LN 10^9	
Z-Controller>Z (m)	-132.533E-9	
Z-Controller>Controller name	log Current	
Z-Controller>Controller status	ON	
Z-Controller>Setpoint	200E-12	
Z-Controller>Setpoint unit	A	
Z-Controller>P gain	2.96994E-12	
Z-Controller>I gain	67.0321E-9	
Z-Controller>Time const (s)	44.3062E-6	
Z-Controller>TipLift (m)	0E+0	
Z-Controller>Switch off delay (s)	50E-3	
Current (A)	200.506E-12	
Z (m)	-132.533E-9	

[DATA]
Bias calc (V)	Current (A)	X% LockIn (V)	Y% LockIn (V)	Current [bwd] (A)	X% LockIn [bwd] (V)	Y% LockIn [bwd] (V)
5.00000E-3	195.944E-12	520.321E-3	-56.9628E-3	198.130E-12	509.783E-3	40.7349E-3
4.99500E-3	196.455E-12	517.807E-3	-43.7267E-3	198.610E-12	531.184E-3	37.6820E-3
4.98999E-3	194.690E-12	506.051E-3	-25.3698E-3	196.918E-12	538.769E-3	-3.98156E-3
4.98499E-3	192.825E-12	497.837E-3	66.5371E-6	197.892E-12	525.833E-3	-6.37776E-3
4.97999E-3	193.301E-12	504.559E-3	5.58639E-3	197.607E-12	536.058E-3	21.9973E-3
4.97499E-3	195.639E-12	498.752E-3	-18.5599E-3	198.075E-12	527.332E-3	23.4068E-3
4.96998E-3	195.691E-12	508.373E-3	-37.8505E-3	197.457E-12	500.453E-3	18.3379E-3
4.96498E-3	192.907E-12	545.549E-3	-42.8254E-3	197.663E-12	497.584E-3	-6.98598E-3
4.95998E-3	191.708E-12	565.432E-3	-41.3987E-3	196.373E-12	515.634E-3	-39.2270E-3
4.95498E-3	193.496E-12	542.442E-3	-29.1241E-3	194.975E-12	533.026E-3	-27.4352E-3
4.94997E-3	193.709E-12	527.989E-3	-10.9195E-3	194.215E-12	533.681E-3	16.9344E-3
4.94497E-3	193.860E-12	521.229E-3	-913.705E-6	195.177E-12	505.792E-3	24.9627E-3
4.93997E-3	192.076E-12	501.113E-3	6.86801E-3	194.454E-12	484.877E-3	1.16551E-3
4.93497E-3	191.979E-12	487.506E-3	-2.40664E-3	191.685E-12	501.974E-3	-2.81781E-3
4.92996E-3	193.512E-12	501.206E-3	-24.6985E-3	191.572E-12	521.866E-3	-15.1482E-3
4.92496E-3	193.671E-12	501.790E-3	-27.7394E-3	192.980E-12	540.890E-3	-33.6181E-3
4.91996E-3	192.781E-12	483.742E-3	-18.5016E-3	192.288E-12	552.465E-3	-20.3920E-3
4.91496E-3	192.257E-12	491.156E-3	-21.7394E-3	192.578E-12	529.958E-3	-14.3269E-3
4.90995E-3	192.486E-12	495.672E-3	-35.0990E-3	192.209E-12	512.826E-3	-22.3050E-3
4.90495E-3	192.386E-12	514.513E-3	-19.2887E-3	191.777E-12	523.006E-3	-21.4665E-3
4.89995E-3	191.330E-12	544.058E-3	-4.15154E-3	194.312E-12	550.980E-3	-33.0340E-3
4.89495E-3	191.264E-12	533.217E-3	-35.7584E-3	194.991E-12	561.306E-3	-60.0601E-3
4.88995E-3	189.633E-12	518.315E-3	-59.3840E-3	193.269E-12	545.740E-3	-63.0793E-3
4.88494E-3	189.938E-12	520.139E-3	-57.1651E-3	193.113E-12	542.269E-3	-55.1382E-3
4.87994E-3	190.378E-12	511.153E-3	-79.4219E-3	193.966E-12	508.374E-3	-56.0515E-3
4.87494E-3	188.080E-12	513.744E-3	-115.343E-3	192.718E-12	459.500E-3	-52.5255E-3
4.86993E-3	186.854E-12	517.766E-3	-126.094E-3	191.560E-12	474.138E-3	-56.1395E-3
4.86493E-3	186.959E-12	522.851E-3	-76.8715E-3	191.848E-12	519.221E-3	-30.1600E-3
4.85993E-3	187.144E-12	540.163E-3	-9.93760E-3	189.975E-12	525.256E-3	28.2965E-3
4.85493E-3	186.633E-12	538.845E-3	-3.52295E-3	190.021E-12	504.255E-3	29.5664E-3
4.84992E-3	186.691E-12	522.353E-3	-4.96116E-3	188.028E-12	484.482E-3	-14.9989E-3
4.84492E-3	187.780E-12	512.161E-3	12.2237E-3	188.227E-12	487.395E-3	-13.8534E-3
4.83992E-3	187.030E-12	508.299E-3	17.9347E-3	189.767E-12	530.365E-3	9.55270E-3
4.83492E-3	188.076E-12	494.996E-3	15.9706E-3	188.516E-12	561.294E-3	1.45132E-3
4.82991E-3	187.926E-12	512.704E-3	-9.87896E-3	188.909E-12	544.841E-3	-9.60067E-3
4.82491E-3	189.229E-12	546.988E-3	-34.9933E-3	189.947E-12	523.391E-3	-10.5070E-3
4.81991E-3	189.719E-12	540.346E-3	-32.1282E-3	191.211E-12	503.391E-3	-41.2241E-3
4.81491E-3	189.738E-12	525.267E-3	-17.4428E-3	190.110E-12	476.911E-3	-55.4774E-3
4.80990E-3	189.802E-12	533.368E-3	2.90328E-3	190.594E-12	492.281E-3	-29.3669E-3
4.80490E-3	189.216E-12	533.956E-3	-1.65937E-3	191.863E-12	530.108E-3	-11.5154E-3
4.79990E-3	188.950E-12	504.645E-3	-20.8741E-3	194.161E-12	532.879E-3	-3.81601E-3
4.79490E-3	187.948E-12	466.982E-3	-20.5630E-3	192.966E-12	515.769E-3	-9.74869E-3
4.78989E-3	186.429E-12	443.105E-3	-16.8777E-3	191.611E-12	511.995E-3	-32.7518E-3
4.78489E-3	186.691E-12	466.050E-3	-22.4409E-3	191.432E-12	519.936E-3	-51.2262E-3
4.77989E-3	186.466E-12	519.660E-3	-11.9183E-3	191.895E-12	514.446E-3	-34.3007E-3
4.77489E-3	185.823E-12	544.502E-3	-11.2150E-3	191.363E-12	521.004E-3	-12.2376E-3
4.76988E-3	184.829E-12	534.788E-3	-46.2276E-3	188.374E-12	553.292E-3	-24.5040E-3
4.76488E-3	184.597E-12	528.328E-3	-57.2464E-3	186.917E-12	543.765E-3	-15.5812E-3
4.75988E-3	184.479E-12	514.405E-3	-25.4389E-3	186.570E-12	494.166E-3	7.71710E-3
4.75488E-3	184.459E-12	486.292E-3	6.79749E-3	187.514E-12	485.209E-3	-7.91284E-3
4.74988E-3	185.233E-12	481.226E-3	15.9750E-3	186.138E-12	506.890E-3	-41.1215E-3
4.74487E-3	185.971E-12	497.164E-3	14.2486E-3	184.590E-12	525.294E-3	-70.8088E-3
4.73987E-3	185.397E-12	515.570E-3	-16.0109E-3	185.428E-12	552.823E-3	-72.0633E-3
4.73487E-3	185.750E-12	529.245E-3	-45.7183E-3	185.743E-12	567.987E-3	-58.0025E-3
4.72986E-3	186.494E-12	527.022E-3	-27.4471E-3	187.032E-12	556.474E-3	-55.1792E-3
4.72486E-3	187.705E-12	524.272E-3	-15.3624E-3	186.294E-12	528.813E-3	-30.1697E-3
4.71986E-3	185.835E-12	527.800E-3	-14.6670E-3	186.676E-12	519.965E-3	-4.04874E-3
4.71486E-3	186.203E-12	524.603E-3	9.31762E-3	186.808E-12	541.560E-3	-22.9642E-3
4.70985E-3	187.286E-12	545.217E-3	7.55015E-3	186.823E-12	550.216E-3	-51.6432E-3
4.70485E-3	186.259E-12	568.149E-3	-20.4356E-3	186.279E-12	524.158E-3	-39.9789E-3
4.69985E-3	185.567E-12	548.927E-3	-18.5784E-3	186.040E-12	496.534E-3	-9.07910E-3
4.69485E-3	185.093E-12	508.786E-3	-21.8769E-3	185.391E-12	490.068E-3	6.91439E-3
4.68984E-3	185.410E-12	497.720E-3	-17.6206E-3	185.497E-12	491.791E-3	1.63367E-3
4.68484E-3	184.867E-12	525.078E-3	30.3088E-3	184.943E-12	497.064E-3	16.0583E-3
4.67984E-3	185.187E-12	549.463E-3	35.8538E-3	183.721E-12	496.017E-3	52.6421E-3
4.67484E-3	184.685E-12	563.250E-3	-6.84268E-3	183.523E-12	498.851E-3	50.7876E-3
4.66983E-3	184.129E-12	552.014E-3	-33.6033E-3	183.108E-12	522.734E-3	12.3596E-3
4.66483E-3	184.434E-12	516.497E-3	-34.8421E-3	183.780E-12	537.199E-3	-19.8393E-3
4.65983E-3	184.139E-12	511.369E-3	-15.2414E-3	183.484E-12	546.272E-3	-24.9462E-3
4.65483E-3	183.420E-12	527.484E-3	-3.01459E-3	182.582E-12	553.645E-3	-22.7555E-3
4.64982E-3	182.174E-12	516.584E-3	-12.8500E-3	183.192E-12	537.679E-3	-14.7178E-3
4.64482E-3	183.248E-12	504.286E-3	-35.0343E-3	183.417E-12	522.605E-3	3.54158E-3
4.63982E-3	182.690E-12	494.078E-3	-53.0051E-3	181.674E-12	505.814E-3	-1.93128E-3
4.63482E-3	182.721E-12	466.570E-3	-46.2259E-3	182.252E-12	492.207E-3	-30.2386E-3
4.62981E-3	182.152E-12	472.644E-3	-8.05969E-3	182.242E-12	502.835E-3	-33.0168E-3
4.62481E-3	183.066E-12	504.415E-3	15.3386E-3	182.833E-12	502.913E-3	-36.2321E-3
4.61981E-3	182.734E-12	511.027E-3	1.88877E-3	181.689E-12	499.494E-3	-55.3305E-3
4.61481E-3	182.975E-12	540.228E-3	-9.02017E-3	180.756E-12	515.844E-3	-27.0135E-3
4.60980E-3	181.655E-12	578.547E-3	-20.0370E-3	179.290E-12	520.857E-3	9.62899E-3
4.60480E-3	180.709E-12	566.261E-3	-25.8708E-3	180.311E-12	538.543E-3	1.94849E-3
4.59980E-3	181.263E-12	546.112E-3	-17.7934E-3	179.411E-12	582.982E-3	-27.5782E-3
4.59480E-3	181.719E-12	539.398E-3	-9.39355E-3	177.606E-12	590.657E-3	-34.4432E-3
4.58979E-3	182.895E-12	545.260E-3	-25.2970E-3	178.644E-12	566.362E-3	-15.2610E-3
4.58479E-3	182.804E-12	556.136E-3	-47.1583E-3	179.730E-12	548.619E-3	-3.21396E-3
4.57979E-3	179.886E-12	531.595E-3	-31.5485E-3	179.412E-12	513.660E-3	13.6054E-3
4.57479E-3	180.387E-12	496.848E-3	-7.64143E-3	179.663E-12	489.378E-3	16.2209E-3
4.56978E-3	181.499E-12	482.706E-3	5.34229E-3	180.981E-12	513.490E-3	-14.1436E-3
4.56478E-3	180.760E-12	483.916E-3	1.28079E-3	180.921E-12	528.636E-3	-30.9337E-3
4.55978E-3	177.628E-12	505.881E-3	-18.1048E-3	182.075E-12	526.829E-3	-20.2690E-3
4.55478E-3	177.737E-12	533.312E-3	-20.4473E-3	182.569E-12	538.796E-3	-18.6603E-3
4.54977E-3	178.989E-12	553.163E-3	-1.84719E-3	182.093E-12	541.701E-3	-16.5917E-3
4.54477E-3	177.869E-12	573.931E-3	21.4426E-3	181.750E-12	526.131E-3	8.08168E-3
4.53977E-3	177.203E-12	581.620E-3	18.1149E-3	182.836E-12	513.330E-3	14.4070E-3
4.53477E-3	176.927E-12	573.790E-3	-5.37381E-3	182.470E-12	514.073E-3	-13.5565E-3
4.52976E-3	178.189E-12	564.498E-3	-18.4709E-3	180.505E-12	529.792E-3	-30.1386E-3
4.52476E-3	178.273E-12	553.260E-3	-16.9989E-3	180.620E-12	535.108E-3	-47.3400E-3
4.51976E-3	179.368E-12	538.436E-3	-10.5325E-3	180.752E-12	515.047E-3	-75.3081E-3
4.51476E-3	176.955E-12	517.495E-3	-6.86389E-3	180.278E-12	509.826E-3	-73.1198E-3
4.50975E-3	178.882E-12	512.489E-3	-29.3806E-3	178.112E-12	531.976E-3	-56.7299E-3
4.50475E-3	180.629E-12	530.553E-3	-52.9620E-3	176.135E-12	543.287E-3	-40.2798E-3
4.49975E-3	179.334E-12	526.799E-3	-33.6957E-3	176.803E-12	519.492E-3	-5.56846E-3
4.49475E-3	178.812E-12	505.005E-3	-77.9248E-6	179.301E-12	496.233E-3	5.22641E-3
4.48974E-3	178.948E-12	517.183E-3	21.1382E-3	178.254E-12	497.233E-3	-22.9031E-3
4.48474E-3	179.580E-12	540.160E-3	17.6235E-3	177.127E-12	511.320E-3	-43.6091E-3
4.47974E-3	178.338E-12	531.857E-3	-738.970E-6	177.313E-12	554.438E-3	-34.1450E-3
4.47474E-3	177.936E-12	525.699E-3	3.72614E-3	180.112E-12	591.198E-3	-8.59744E-3
4.46973E-3	176.206E-12	562.595E-3	12.2614E-3	180.663E-12	580.872E-3	8.71742E-3
4.46473E-3	175.255E-12	570.415E-3	1.43455E-3	180.054E-12	555.205E-3	20.5769E-3
4.45973E-3	176.776E-12	530.162E-3	-8.75252E-3	178.115E-12	534.055E-3	29.8216E-3
4.45473E-3	174.959E-12	511.364E-3	8.52367E-3	179.528E-12	514.106E-3	32.2165E-3
4.44972E-3	173.567E-12	524.724E-3	37.1381E-3	180.032E-12	502.648E-3	19.1488E-3
4.44472E-3	173.701E-12	548.562E-3	15.3645E-3	177.541E-12	479.759E-3	-14.3858E-3
4.43972E-3	174.601E-12	554.868E-3	-29.6819E-3	175.700E-12	444.402E-3	-23.2803E-3
4.43472E-3	174.252E-12	522.063E-3	-33.9279E-3	176.434E-12	448.136E-3	-7.11477E-3
4.42971E-3	172.838E-12	481.564E-3	-24.0323E-3	176.551E-12	471.265E-3	-4.93632E-3
4.42471E-3	173.551E-12	499.551E-3	-21.6279E-3	175.380E-12	481.431E-3	11.8892E-3
4.41971E-3	174.882E-12	529.473E-3	3.54058E-3	173.628E-12	490.686E-3	39.0186E-3
4.41471E-3	176.254E-12	517.328E-3	8.32675E-3	173.629E-12	506.739E-3	27.3672E-3
4.40970E-3	176.090E-12	504.055E-3	-19.0346E-3	173.708E-12	531.230E-3	-12.7264E-3
4.40470E-3	175.419E-12	521.790E-3	-18.8436E-3	175.350E-12	542.377E-3	-20.0457E-3
4.39970E-3	176.610E-12	543.237E-3	-18.2117E-3	173.494E-12	534.500E-3	959.769E-6
4.39470E-3	177.497E-12	562.782E-3	-25.3054E-3	174.919E-12	522.851E-3	9.06160E-3
4.38969E-3	175.542E-12	574.829E-3	-23.6666E-3	176.296E-12	517.147E-3	6.85814E-3
4.38469E-3	175.532E-12	539.829E-3	-35.4821E-3	176.330E-12	516.074E-3	700.588E-6
4.37969E-3	174.245E-12	516.752E-3	-35.2412E-3	175.391E-12	497.539E-3	10.8624E-3
4.37469E-3	174.786E-12	528.168E-3	6.51984E-3	176.652E-12	501.328E-3	15.0934E-3
4.36968E-3	174.971E-12	526.943E-3	46.9714E-3	176.847E-12	539.529E-3	767.569E-6
4.36468E-3	172.705E-12	551.020E-3	38.8940E-3	174.682E-12	548.496E-3	-18.7060E-3
4.35968E-3	171.425E-12	588.102E-3	2.72197E-3	175.780E-12	540.872E-3	-14.4902E-3
4.35468E-3	171.567E-12	551.760E-3	-30.6990E-3	175.087E-12	535.106E-3	3.86545E-3
4.34967E-3	171.357E-12	507.903E-3	-38.6076E-3	174.215E-12	518.931E-3	-29.2184E-3
4.34467E-3	170.395E-12	518.249E-3	-14.0129E-3	171.862E-12	507.622E-3	-64.7951E-3
4.33967E-3	171.224E-12	518.455E-3	-19.6779E-3	171.210E-12	517.518E-3	-52.2176E-3
4.33467E-3	169.557E-12	499.332E-3	-63.8602E-3	171.460E-12	530.201E-3	-37.3928E-3
4.32966E-3	170.187E-12	491.735E-3	-52.2145E-3	170.939E-12	538.245E-3	-32.7792E-3
4.32466E-3	172.911E-12	495.028E-3	-11.4818E-3	170.092E-12	550.911E-3	-17.4116E-3
4.31966E-3	171.736E-12	506.466E-3	-8.77101E-3	169.380E-12	548.903E-3	-2.40191E-3
4.31466E-3	170.967E-12	524.911E-3	-9.65481E-3	170.410E-12	520.963E-3	-1.26038E-3
4.30965E-3	171.891E-12	523.635E-3	8.77954E-3	169.425E-12	495.843E-3	-16.9699E-3
4.30465E-3	173.156E-12	527.508E-3	9.93164E-3	170.734E-12	484.979E-3	-30.4195E-3
4.29965E-3	171.864E-12	551.861E-3	-2.22954E-3	169.537E-12	509.721E-3	-10.3323E-3
4.29465E-3	171.583E-12	552.350E-3	6.47057E-3	168.817E-12	568.122E-3	6.20141E-3
4.28964E-3	171.351E-12	535.112E-3	4.83722E-3	170.488E-12	583.986E-3	4.73079E-3
4.28464E-3	170.726E-12	533.532E-3	-18.2395E-3	170.119E-12	548.951E-3	-7.87898E-3
4.27964E-3	171.095E-12	528.799E-3	-35.6101E-3	169.401E-12	527.105E-3	-31.7569E-3
4.27464E-3	171.288E-12	522.955E-3	-32.4154E-3	168.070E-12	530.104E-3	-23.9231E-3
4.26963E-3	170.629E-12	537.616E-3	-10.2935E-3	169.001E-12	534.284E-3	2.36550E-3
4.26463E-3	168.309E-12	546.220E-3	-2.46926E-3	168.038E-12	528.148E-3	10.1931E-3
4.25963E-3	168.441E-12	529.549E-3	-37.2700E-3	167.359E-12	498.264E-3	816.249E-6
4.25463E-3	168.617E-12	499.771E-3	-55.4448E-3	167.194E-12	486.507E-3	-15.7900E-3
4.24962E-3	166.612E-12	483.019E-3	-32.2481E-3	167.119E-12	514.327E-3	-30.6021E-3
4.24462E-3	167.480E-12	497.728E-3	-13.5949E-3	166.643E-12	518.863E-3	-32.7851E-3
4.23962E-3	169.452E-12	529.918E-3	7.75129E-3	166.753E-12	513.648E-3	-12.2661E-3
4.23462E-3	166.373E-12	543.430E-3	18.4007E-3	167.539E-12	517.150E-3	-4.35859E-3
4.22961E-3	167.143E-12	526.356E-3	-11.5090E-3	166.820E-12	499.110E-3	-5.42791E-3
4.22461E-3	168.911E-12	510.590E-3	-44.7835E-3	167.929E-12	518.816E-3	28.4847E-3
4.21961E-3	167.674E-12	523.825E-3	-29.9408E-3	168.501E-12	559.198E-3	34.2824E-3
4.21461E-3	166.860E-12	538.178E-3	-7.39817E-3	169.521E-12	534.953E-3	-5.11829E-3
4.20960E-3	169.563E-12	536.841E-3	-12.6272E-3	168.604E-12	493.074E-3	4.60235E-3
4.20460E-3	170.893E-12	525.380E-3	-2.21474E-3	169.411E-12	496.866E-3	37.4114E-3
4.19960E-3	166.339E-12	505.726E-3	1.68707E-3	168.199E-12	513.442E-3	6.42426E-3
4.19460E-3	166.679E-12	508.118E-3	-30.5900E-3	167.778E-12	524.685E-3	-27.7742E-3
4.18959E-3	169.393E-12	517.482E-3	-32.0746E-3	167.901E-12	547.352E-3	-11.2146E-3
4.18459E-3	167.849E-12	511.077E-3	1.01055E-3	167.868E-12	541.003E-3	-3.83545E-3
4.17959E-3	166.974E-12	516.550E-3	-11.6073E-3	166.936E-12	498.446E-3	-18.1273E-3
4.17459E-3	168.370E-12	533.293E-3	-34.9505E-3	166.404E-12	517.841E-3	1.16614E-3
4.16958E-3	166.709E-12	530.531E-3	-22.2622E-3	165.955E-12	582.625E-3	19.2030E-3
4.16458E-3	166.847E-12	522.947E-3	-29.5194E-3	165.731E-12	585.197E-3	-23.1266E-3
4.15958E-3	165.872E-12	522.600E-3	-48.1550E-3	164.365E-12	555.768E-3	-61.7764E-3
4.15458E-3	165.012E-12	506.504E-3	-20.2247E-3	164.141E-12	543.399E-3	-59.3641E-3
4.14957E-3	164.706E-12	486.853E-3	28.0716E-3	165.137E-12	525.647E-3	-39.9297E-3
4.14457E-3	164.348E-12	485.676E-3	30.8170E-3	166.537E-12	511.062E-3	-8.67751E-3
4.13957E-3	163.228E-12	511.266E-3	-9.30172E-3	165.306E-12	508.515E-3	4.03673E-3
4.13457E-3	163.755E-12	548.780E-3	-35.9225E-3	166.004E-12	495.767E-3	-19.5447E-3
4.12956E-3	164.131E-12	561.938E-3	-42.8050E-3	166.661E-12	503.280E-3	-32.4581E-3
4.12456E-3	163.622E-12	540.527E-3	-16.9948E-3	167.666E-12	538.528E-3	-35.3036E-3
4.11956E-3	163.003E-12	521.716E-3	31.5295E-3	167.563E-12	531.922E-3	-23.0858E-3
4.11456E-3	164.169E-12	529.489E-3	15.2399E-3	165.973E-12	495.003E-3	17.8431E-3
4.10955E-3	164.098E-12	546.503E-3	-32.0321E-3	165.953E-12	487.516E-3	46.6711E-3
4.10455E-3	165.178E-12	529.512E-3	-37.5750E-3	166.116E-12	491.796E-3	34.9425E-3
4.09955E-3	164.123E-12	499.889E-3	-29.3047E-3	166.664E-12	511.571E-3	19.1647E-3
4.09455E-3	164.097E-12	506.998E-3	-24.6088E-3	164.694E-12	553.223E-3	13.2913E-3
4.08954E-3	164.378E-12	512.294E-3	-20.8654E-3	163.208E-12	558.955E-3	-28.7007E-3
4.08454E-3	164.519E-12	501.418E-3	-10.0795E-3	162.393E-12	540.413E-3	-69.8863E-3
4.07954E-3	163.920E-12	485.570E-3	3.13399E-3	163.268E-12	533.047E-3	-52.2119E-3
4.07454E-3	163.870E-12	475.630E-3	-5.35236E-3	162.440E-12	519.704E-3	-11.2746E-3
4.06953E-3	163.343E-12	489.365E-3	-22.8844E-3	160.819E-12	511.619E-3	16.0177E-3
4.06453E-3	163.345E-12	514.523E-3	-24.9856E-3	161.567E-12	518.043E-3	22.6520E-3
4.05953E-3	163.832E-12	527.674E-3	-27.1896E-3	162.598E-12	517.724E-3	13.8172E-3
4.05453E-3	162.854E-12	516.189E-3	-34.8601E-3	162.314E-12	517.781E-3	19.3155E-3
4.04952E-3	161.160E-12	507.621E-3	-31.2074E-3	162.027E-12	533.420E-3	27.4344E-3
4.04452E-3	160.419E-12	509.949E-3	-23.1453E-3	162.448E-12	556.676E-3	7.48941E-3
4.03952E-3	160.771E-12	515.163E-3	-32.4019E-3	163.312E-12	573.090E-3	-7.69642E-3
4.03452E-3	158.974E-12	514.272E-3	-44.0269E-3	164.499E-12	560.565E-3	-18.7225E-3
4.02951E-3	159.118E-12	479.899E-3	-40.5822E-3	163.784E-12	518.846E-3	-46.8046E-3
4.02451E-3	159.320E-12	457.323E-3	-39.6554E-3	161.902E-12	485.862E-3	-44.0677E-3
4.01951E-3	158.656E-12	485.849E-3	-12.2327E-3	161.440E-12	487.445E-3	-14.1511E-3
4.01451E-3	157.716E-12	521.380E-3	21.6183E-3	160.744E-12	502.466E-3	-15.5781E-3
4.00950E-3	158.094E-12	539.985E-3	18.6541E-3	160.979E-12	511.593E-3	-31.3090E-3
4.00450E-3	158.039E-12	549.709E-3	21.6308E-3	159.609E-12	538.553E-3	-34.9622E-3
3.99950E-3	157.347E-12	539.459E-3	5.35871E-3	158.575E-12	571.940E-3	-33.3552E-3
3.99450E-3	159.123E-12	524.147E-3	-24.3435E-3	157.081E-12	552.497E-3	-19.2135E-3
3.98949E-3	159.860E-12	528.708E-3	-17.4322E-3	158.168E-12	510.848E-3	887.042E-6
3.98449E-3	158.933E-12	532.054E-3	-10.3190E-3	158.182E-12	511.467E-3	-1.58803E-3
3.97949E-3	159.592E-12	520.710E-3	-27.4917E-3	156.138E-12	534.895E-3	-10.4679E-3
3.97449E-3	160.390E-12	511.047E-3	-38.7094E-3	156.714E-12	564.261E-3	-3.51835E-3
3.96948E-3	159.883E-12	497.508E-3	-10.7186E-3	158.277E-12	589.768E-3	-15.8127E-3
3.96448E-3	159.163E-12	494.403E-3	-1.69880E-3	159.172E-12	566.496E-3	-29.5572E-3
3.95948E-3	160.311E-12	515.443E-3	-21.8674E-3	159.037E-12	528.041E-3	-4.82147E-3
3.95448E-3	159.044E-12	547.643E-3	-26.1806E-3	159.079E-12	538.714E-3	-1.51274E-3
3.94947E-3	158.036E-12	578.750E-3	-37.9461E-3	159.723E-12	542.625E-3	-29.9726E-3
3.94447E-3	158.322E-12	568.529E-3	-41.3393E-3	160.494E-12	522.595E-3	-26.4117E-3
3.93947E-3	159.753E-12	527.974E-3	-28.7567E-3	160.686E-12	528.136E-3	-5.34052E-3
3.93447E-3	156.801E-12	516.909E-3	-16.7493E-3	158.569E-12	519.225E-3	-2.07008E-3
3.92946E-3	156.058E-12	525.332E-3	-7.51727E-3	159.260E-12	510.977E-3	-19.2611E-3
3.92446E-3	157.410E-12	519.240E-3	-90.2443E-6	158.602E-12	547.693E-3	-41.8589E-3
3.91946E-3	158.384E-12	505.475E-3	2.40165E-3	158.677E-12	559.577E-3	-33.2673E-3
3.91446E-3	156.080E-12	518.543E-3	-3.08989E-3	156.485E-12	528.939E-3	51.3920E-6
3.90945E-3	154.599E-12	532.310E-3	-10.5592E-3	155.225E-12	515.636E-3	7.87318E-3
3.90445E-3	155.162E-12	521.545E-3	-21.2417E-3	155.730E-12	522.367E-3	-28.0452E-3
3.89945E-3	155.611E-12	529.094E-3	-15.1769E-3	155.411E-12	529.774E-3	-61.3969E-3
3.89445E-3	157.696E-12	526.599E-3	1.54517E-3	153.233E-12	539.363E-3	-52.7205E-3
3.88944E-3	157.027E-12	519.241E-3	781.475E-6	153.345E-12	558.975E-3	-18.4031E-3
3.88444E-3	155.469E-12	522.559E-3	-476.458E-6	153.430E-12	569.015E-3	26.0690E-3
3.87944E-3	157.756E-12	526.374E-3	-11.9172E-3	153.988E-12	568.173E-3	56.7921E-3
3.87444E-3	159.449E-12	536.804E-3	-25.3274E-3	153.737E-12	573.430E-3	38.6247E-3
3.86943E-3	157.478E-12	542.020E-3	4.84282E-3	154.039E-12	566.839E-3	-3.79795E-3
3.86443E-3	156.311E-12	541.928E-3	39.7453E-3	154.126E-12	562.237E-3	-21.3934E-3
3.85943E-3	156.603E-12	537.760E-3	25.7249E-3	155.285E-12	566.496E-3	-24.1213E-3
3.85443E-3	156.775E-12	532.746E-3	-10.0510E-3	154.949E-12	548.323E-3	-35.1310E-3
3.84942E-3	156.955E-12	553.413E-3	-25.9229E-3	156.121E-12	530.555E-3	-40.9053E-3
3.84442E-3	155.771E-12	599.759E-3	-19.5519E-3	155.409E-12	543.479E-3	-41.9319E-3
3.83942E-3	154.168E-12	604.242E-3	2.49188E-3	154.136E-12	561.160E-3	-24.4448E-3
3.83442E-3	153.105E-12	562.558E-3	17.2977E-3	153.484E-12	568.410E-3	10.6812E-3
3.82941E-3	153.485E-12	544.322E-3	1.26017E-3	153.347E-12	565.539E-3	15.3807E-3
3.82441E-3	153.380E-12	556.595E-3	-17.8305E-3	153.659E-12	553.198E-3	11.2837E-3
3.81941E-3	153.326E-12	572.274E-3	-39.5463E-3	153.797E-12	544.355E-3	13.4051E-3
3.81441E-3	151.890E-12	570.274E-3	-61.6310E-3	153.326E-12	533.318E-3	6.12690E-3
3.80940E-3	152.286E-12	536.854E-3	-47.8463E-3	153.345E-12	519.373E-3	-18.9253E-3
3.80440E-3	153.163E-12	529.921E-3	-17.3588E-3	152.800E-12	515.953E-3	-54.5269E-3
3.79940E-3	154.262E-12	554.910E-3	4.39747E-3	152.659E-12	534.826E-3	-52.5613E-3
3.79440E-3	151.932E-12	571.081E-3	12.0568E-3	154.609E-12	567.523E-3	-18.5166E-3
3.78939E-3	153.482E-12	591.877E-3	-9.81692E-3	153.861E-12	578.932E-3	11.7561E-3
3.78439E-3	155.201E-12	581.874E-3	-34.7713E-3	152.122E-12	578.410E-3	30.8009E-3
3.77939E-3	155.693E-12	530.843E-3	-31.7953E-3	153.937E-12	571.732E-3	14.1182E-3
3.77439E-3	154.168E-12	506.352E-3	-22.8605E-3	154.484E-12	543.940E-3	-22.2344E-3
3.76938E-3	153.054E-12	529.726E-3	-15.1368E-3	154.937E-12	526.132E-3	-28.4758E-3
3.76438E-3	153.647E-12	547.004E-3	-3.29642E-3	152.853E-12	536.078E-3	-21.1771E-3
3.75938E-3	154.867E-12	528.225E-3	557.974E-6	152.941E-12	541.704E-3	-29.8615E-3
3.75438E-3	153.728E-12	511.276E-3	4.43777E-3	153.295E-12	535.076E-3	-56.4149E-3
3.74937E-3	151.108E-12	518.666E-3	9.58159E-3	153.576E-12	540.105E-3	-74.6172E-3
3.74437E-3	150.985E-12	526.805E-3	3.32370E-3	152.057E-12	554.757E-3	-48.3002E-3
3.73937E-3	152.426E-12	519.654E-3	3.35092E-3	150.579E-12	551.681E-3	-9.97355E-3
3.73437E-3	150.743E-12	504.230E-3	8.75875E-3	150.389E-12	537.232E-3	-14.3361E-3
3.72936E-3	148.327E-12	499.331E-3	9.81989E-3	150.016E-12	548.241E-3	-36.8551E-3
3.72436E-3	147.814E-12	515.978E-3	3.01828E-3	150.018E-12	549.987E-3	-29.0008E-3
3.71936E-3	149.638E-12	528.507E-3	3.66677E-3	148.560E-12	544.983E-3	-23.1480E-3
3.71436E-3	148.387E-12	530.989E-3	11.5474E-3	150.051E-12	569.928E-3	-30.8175E-3
3.70935E-3	147.481E-12	529.071E-3	-18.3668E-3	150.085E-12	575.936E-3	-14.7016E-3
3.70435E-3	148.850E-12	530.453E-3	-48.3823E-3	149.991E-12	548.684E-3	2.81258E-3
3.69935E-3	149.719E-12	523.410E-3	-24.0022E-3	149.367E-12	533.631E-3	-14.1113E-3
3.69435E-3	148.812E-12	517.084E-3	-16.3076E-3	149.629E-12	548.150E-3	-34.8992E-3
3.68934E-3	148.694E-12	551.042E-3	-37.4857E-3	150.475E-12	562.134E-3	-19.8366E-3
3.68434E-3	149.860E-12	580.207E-3	-22.2568E-3	150.078E-12	543.505E-3	-2.05882E-3
3.67934E-3	149.255E-12	547.049E-3	-7.37524E-3	148.794E-12	518.991E-3	747.332E-6
3.67434E-3	148.855E-12	509.824E-3	-21.1872E-3	148.893E-12	508.368E-3	856.951E-6
3.66933E-3	148.615E-12	512.083E-3	-26.6192E-3	149.203E-12	502.214E-3	-5.22062E-3
3.66433E-3	147.863E-12	522.542E-3	-36.8056E-3	148.881E-12	512.058E-3	6.94878E-3
3.65933E-3	148.457E-12	536.919E-3	-56.6240E-3	147.356E-12	533.271E-3	15.6225E-3
3.65433E-3	148.842E-12	549.620E-3	-41.9476E-3	146.156E-12	559.783E-3	-8.68234E-3
3.64932E-3	147.936E-12	544.982E-3	-17.5405E-3	147.388E-12	576.977E-3	-26.6108E-3
3.64432E-3	147.046E-12	518.369E-3	-25.6806E-3	147.772E-12	582.872E-3	-29.0498E-3
3.63932E-3	147.735E-12	504.475E-3	-26.6241E-3	146.105E-12	576.914E-3	-18.8227E-3
3.63432E-3	146.372E-12	520.838E-3	-951.224E-6	146.613E-12	559.489E-3	1.43670E-3
3.62931E-3	147.393E-12	532.796E-3	18.8675E-3	145.942E-12	547.665E-3	1.64329E-3
3.62431E-3	146.801E-12	556.056E-3	20.0211E-3	147.295E-12	534.635E-3	-4.67783E-3
3.61931E-3	145.705E-12	588.067E-3	25.7754E-3	147.278E-12	532.615E-3	2.40634E-3
3.61431E-3	145.622E-12	584.444E-3	23.1716E-3	147.689E-12	542.224E-3	7.29025E-3
3.60930E-3	144.491E-12	567.996E-3	-10.0688E-3	147.099E-12	534.789E-3	-9.19070E-3
3.60430E-3	145.201E-12	565.157E-3	-35.6088E-3	147.373E-12	520.474E-3	-25.8581E-3
3.59930E-3	143.921E-12	553.378E-3	-27.3897E-3	148.335E-12	518.348E-3	-14.2980E-3
3.59430E-3	143.459E-12	538.010E-3	-8.36387E-3	148.502E-12	538.209E-3	293.169E-6
3.58929E-3	143.433E-12	541.070E-3	23.9905E-3	146.643E-12	561.853E-3	440.919E-6
3.58429E-3	143.351E-12	543.734E-3	57.2733E-3	144.970E-12	558.062E-3	-13.3282E-3
3.57929E-3	143.523E-12	542.394E-3	50.6552E-3	145.298E-12	542.684E-3	-28.7722E-3
3.57429E-3	143.510E-12	542.001E-3	28.9866E-3	145.419E-12	538.701E-3	-15.4617E-3
3.56928E-3	145.089E-12	521.360E-3	9.49718E-3	143.450E-12	534.625E-3	2.99865E-3
3.56428E-3	143.006E-12	502.550E-3	-4.92904E-3	142.484E-12	520.864E-3	1.55152E-3
3.55928E-3	144.103E-12	512.886E-3	-6.82662E-3	142.549E-12	506.686E-3	12.0872E-3
3.55428E-3	144.908E-12	519.475E-3	-14.7144E-3	143.864E-12	502.220E-3	23.2694E-3
3.54927E-3	145.943E-12	533.095E-3	-22.9221E-3	143.603E-12	528.213E-3	13.4326E-3
3.54427E-3	144.401E-12	561.159E-3	-22.5777E-3	142.660E-12	560.512E-3	-7.18716E-3
3.53927E-3	144.230E-12	554.984E-3	-17.0240E-3	142.389E-12	567.194E-3	-17.5362E-3
3.53427E-3	145.099E-12	522.130E-3	-2.16144E-3	143.579E-12	559.172E-3	-5.77381E-3
3.52926E-3	146.616E-12	524.136E-3	2.69635E-3	145.285E-12	539.369E-3	3.07177E-3
3.52426E-3	146.605E-12	548.069E-3	-16.2649E-3	145.209E-12	533.212E-3	-8.99541E-3
3.51926E-3	143.020E-12	558.470E-3	-30.7773E-3	143.702E-12	546.705E-3	-4.91994E-3
3.51426E-3	142.586E-12	557.679E-3	-30.8498E-3	143.789E-12	546.730E-3	27.6589E-3
3.50925E-3	143.334E-12	536.654E-3	-30.5726E-3	145.444E-12	541.764E-3	20.6656E-3
3.50425E-3	144.687E-12	517.562E-3	-32.2294E-3	145.683E-12	543.735E-3	-13.1859E-3
3.49925E-3	144.020E-12	530.617E-3	-41.2465E-3	144.082E-12	537.651E-3	-14.0114E-3
3.49425E-3	141.312E-12	551.700E-3	-51.4666E-3	142.787E-12	542.204E-3	-7.53569E-3
3.48924E-3	141.768E-12	542.926E-3	-58.4788E-3	143.338E-12	557.570E-3	-15.0793E-3
3.48424E-3	142.461E-12	528.724E-3	-60.1091E-3	143.934E-12	552.821E-3	-12.9076E-3
3.47924E-3	143.866E-12	529.048E-3	-24.9071E-3	141.554E-12	524.973E-3	-2.75294E-3
3.47424E-3	142.015E-12	534.799E-3	10.5535E-3	139.536E-12	506.175E-3	-7.95765E-3
3.46923E-3	141.521E-12	547.675E-3	1.10025E-3	139.615E-12	511.404E-3	-9.48061E-3
3.46423E-3	141.268E-12	564.371E-3	-13.7454E-3	140.212E-12	531.954E-3	-4.40905E-3
3.45923E-3	142.634E-12	569.868E-3	-14.4257E-3	139.852E-12	555.554E-3	-14.4317E-3
3.45423E-3	142.899E-12	571.990E-3	-5.74833E-3	139.166E-12	566.772E-3	-21.3669E-3
3.44922E-3	141.819E-12	576.726E-3	10.0793E-3	139.696E-12	571.724E-3	-21.9139E-3
3.44422E-3	141.541E-12	576.713E-3	27.0230E-3	140.272E-12	566.884E-3	-29.8446E-3
3.43922E-3	141.791E-12	576.707E-3	15.1664E-3	140.682E-12	536.773E-3	-31.2524E-3
3.43422E-3	141.821E-12	576.165E-3	-10.3455E-3	140.671E-12	518.859E-3	-14.6497E-3
3.42921E-3	140.532E-12	568.882E-3	-20.5903E-3	140.520E-12	551.887E-3	-3.71327E-3
3.42421E-3	140.001E-12	556.839E-3	-14.6437E-3	140.370E-12	575.839E-3	-12.3113E-3
3.41921E-3	138.859E-12	560.765E-3	12.9120E-3	140.181E-12	559.520E-3	-11.2096E-3
3.41421E-3	138.574E-12	560.155E-3	20.9673E-3	140.133E-12	554.550E-3	-22.4729E-3
3.40920E-3	138.865E-12	527.200E-3	-15.4512E-3	140.076E-12	551.894E-3	-61.5859E-3
3.40420E-3	137.740E-12	496.080E-3	-32.4654E-3	139.027E-12	527.103E-3	-65.5179E-3
3.39920E-3	137.109E-12	499.073E-3	-6.98702E-3	139.309E-12	510.180E-3	-40.2341E-3
3.39420E-3	136.860E-12	518.403E-3	10.8075E-3	138.564E-12	520.967E-3	-16.5004E-3
3.38919E-3	137.875E-12	528.348E-3	18.4098E-3	136.973E-12	541.657E-3	8.41507E-3
3.38419E-3	137.443E-12	540.907E-3	22.4005E-3	136.844E-12	546.386E-3	11.7308E-3
3.37919E-3	136.868E-12	553.527E-3	20.1959E-3	137.768E-12	527.240E-3	-7.86624E-3
3.37419E-3	136.443E-12	543.720E-3	-2.64835E-3	136.615E-12	507.645E-3	-16.6454E-3
3.36918E-3	137.467E-12	540.940E-3	-27.6490E-3	136.038E-12	505.727E-3	-9.94570E-3
3.36418E-3	137.180E-12	547.146E-3	-26.0120E-3	137.088E-12	528.934E-3	-9.61190E-3
3.35918E-3	136.785E-12	539.627E-3	-27.2032E-3	136.900E-12	567.087E-3	223.380E-6
3.35418E-3	139.066E-12	539.074E-3	-30.5887E-3	136.951E-12	572.467E-3	20.9837E-3
3.34917E-3	137.304E-12	551.672E-3	-23.5659E-3	138.041E-12	545.720E-3	18.3379E-3
3.34417E-3	136.853E-12	557.359E-3	-26.6862E-3	136.941E-12	526.311E-3	5.12187E-3
3.33917E-3	136.367E-12	540.544E-3	-40.3911E-3	137.851E-12	547.480E-3	10.6820E-3
3.33417E-3	137.104E-12	526.700E-3	-37.9202E-3	136.950E-12	572.807E-3	6.19946E-3
3.32916E-3	136.735E-12	553.816E-3	-31.5641E-3	137.323E-12	545.058E-3	-6.95789E-3
3.32416E-3	135.342E-12	577.502E-3	-37.1161E-3	135.420E-12	527.256E-3	-1.16747E-3
3.31916E-3	136.016E-12	562.963E-3	-37.5874E-3	136.063E-12	557.798E-3	-111.634E-6
3.31416E-3	135.599E-12	548.798E-3	-38.2702E-3	135.211E-12	573.885E-3	-12.2402E-3
3.30915E-3	135.515E-12	552.560E-3	-39.4725E-3	133.570E-12	554.099E-3	-7.94015E-3
3.30415E-3	134.319E-12	552.875E-3	-19.1056E-3	134.090E-12	550.935E-3	-26.1330E-3
3.29915E-3	133.600E-12	550.759E-3	-1.38325E-3	133.486E-12	570.390E-3	-67.1885E-3
3.29415E-3	133.437E-12	553.892E-3	-517.726E-6	131.443E-12	572.482E-3	-48.8386E-3
3.28914E-3	134.998E-12	550.924E-3	-5.18892E-3	132.221E-12	562.000E-3	-13.1032E-3
3.28414E-3	134.483E-12	538.139E-3	-7.77434E-3	134.469E-12	549.548E-3	-34.3430E-3
3.27914E-3	133.892E-12	527.401E-3	-4.34285E-3	133.827E-12	539.913E-3	-38.8636E-3
3.27414E-3	133.776E-12	541.921E-3	11.3842E-3	131.975E-12	549.020E-3	-826.591E-6
3.26913E-3	132.590E-12	567.486E-3	35.8023E-3	133.847E-12	551.803E-3	-6.32215E-3
3.26413E-3	133.889E-12	566.235E-3	40.8249E-3	134.357E-12	542.545E-3	-20.3536E-3
3.25913E-3	134.778E-12	552.205E-3	20.5571E-3	134.076E-12	553.658E-3	14.7036E-3
3.25413E-3	133.593E-12	538.956E-3	1.11407E-3	132.854E-12	554.206E-3	20.9228E-3
3.24912E-3	133.575E-12	532.461E-3	-639.543E-6	132.840E-12	519.775E-3	-2.55791E-3
3.24412E-3	134.498E-12	548.256E-3	-11.5378E-3	132.611E-12	505.137E-3	6.87420E-3
3.23912E-3	134.663E-12	572.776E-3	-30.8115E-3	133.203E-12	534.625E-3	4.22328E-3
3.23412E-3	133.748E-12	582.556E-3	-40.2186E-3	133.104E-12	536.744E-3	-12.1985E-3
3.22911E-3	132.659E-12	569.818E-3	-59.7871E-3	131.680E-12	515.173E-3	-5.27966E-3
3.22411E-3	133.039E-12	537.491E-3	-73.8989E-3	130.365E-12	526.260E-3	-15.2525E-3
3.21911E-3	133.864E-12	513.010E-3	-55.1262E-3	130.276E-12	528.656E-3	-26.9461E-3
3.21411E-3	132.650E-12	543.019E-3	-23.4435E-3	130.970E-12	514.324E-3	-11.0476E-3
3.20910E-3	131.585E-12	596.086E-3	6.80471E-3	131.345E-12	532.675E-3	-17.0832E-3
3.20410E-3	132.304E-12	600.838E-3	9.92046E-3	130.348E-12	533.282E-3	-28.4398E-3
3.19910E-3	131.043E-12	574.134E-3	-22.9792E-3	129.146E-12	509.410E-3	-5.19816E-3
3.19410E-3	131.431E-12	559.821E-3	-38.7063E-3	131.464E-12	534.635E-3	10.2798E-3
3.18909E-3	130.509E-12	552.552E-3	-37.8681E-3	132.104E-12	562.286E-3	-3.24174E-3
3.18409E-3	130.625E-12	540.374E-3	-45.7855E-3	131.646E-12	561.832E-3	-6.39946E-3
3.17909E-3	130.536E-12	550.377E-3	-39.5053E-3	130.716E-12	564.548E-3	-2.23442E-3
3.17409E-3	130.171E-12	575.113E-3	-19.5888E-3	131.919E-12	537.734E-3	-21.1917E-3
3.16908E-3	130.518E-12	576.072E-3	-6.78252E-3	133.106E-12	497.593E-3	-21.0215E-3
3.16408E-3	129.442E-12	556.944E-3	11.7228E-3	130.831E-12	512.412E-3	-6.30881E-3
3.15908E-3	129.760E-12	539.003E-3	22.5043E-3	130.043E-12	539.938E-3	-25.3782E-3
3.15408E-3	129.154E-12	542.888E-3	2.49543E-3	130.748E-12	526.292E-3	-34.1796E-3
3.14907E-3	128.912E-12	557.995E-3	-26.0735E-3	130.803E-12	534.631E-3	-22.5842E-3
3.14407E-3	129.544E-12	569.473E-3	-29.0933E-3	129.702E-12	569.292E-3	-13.2047E-3
3.13907E-3	129.756E-12	580.041E-3	-17.2153E-3	128.530E-12	568.516E-3	9.80318E-3
3.13407E-3	129.003E-12	590.260E-3	-7.90815E-3	127.973E-12	564.380E-3	5.00385E-3
3.12906E-3	128.085E-12	587.876E-3	-1.76296E-3	128.602E-12	560.891E-3	-39.2782E-3
3.12406E-3	128.771E-12	576.167E-3	3.73812E-3	128.665E-12	543.736E-3	-42.2117E-3
3.11906E-3	128.612E-12	559.700E-3	-1.16178E-3	127.366E-12	556.406E-3	-11.8735E-3
3.11406E-3	127.875E-12	544.803E-3	-25.6550E-3	126.803E-12	577.266E-3	-15.9868E-3
3.10905E-3	127.493E-12	535.355E-3	-38.9920E-3	126.682E-12	577.065E-3	-21.8030E-3
3.10405E-3	128.452E-12	524.005E-3	-36.2211E-3	128.151E-12	588.085E-3	-6.48071E-3
3.09905E-3	128.003E-12	520.987E-3	-33.5089E-3	128.441E-12	576.892E-3	-13.2352E-3
3.09405E-3	127.159E-12	521.796E-3	-21.3476E-3	130.055E-12	548.666E-3	-24.2087E-3
3.08904E-3	127.103E-12	512.340E-3	-17.2222E-3	129.552E-12	566.587E-3	-14.3770E-3
3.08404E-3	126.977E-12	523.859E-3	-24.5900E-3	128.908E-12	588.347E-3	-9.00151E-3
3.07904E-3	126.508E-12	552.508E-3	-14.1857E-3	130.626E-12	569.186E-3	-12.0979E-3
3.07404E-3	125.970E-12	547.080E-3	-3.01140E-3	130.572E-12	543.284E-3	-2.89661E-3
3.06903E-3	126.075E-12	532.447E-3	-14.7011E-3	129.362E-12	537.403E-3	-4.37796E-3
3.06403E-3	125.488E-12	536.529E-3	-19.7906E-3	128.841E-12	543.126E-3	-34.2045E-3
3.05903E-3	126.516E-12	550.430E-3	-5.94209E-3	127.996E-12	555.839E-3	-34.5068E-3
3.05403E-3	126.260E-12	569.927E-3	-2.17603E-3	127.297E-12	564.191E-3	1.30838E-3
3.04902E-3	125.297E-12	575.265E-3	-23.5865E-3	128.059E-12	545.611E-3	9.13635E-3
3.04402E-3	125.201E-12	551.773E-3	-40.7705E-3	127.840E-12	535.049E-3	6.75814E-3
3.03902E-3	126.524E-12	523.837E-3	-30.7291E-3	125.325E-12	567.985E-3	17.7469E-3
3.03402E-3	126.756E-12	526.621E-3	-5.62027E-3	125.681E-12	591.493E-3	18.0000E-3
3.02901E-3	125.228E-12	528.183E-3	11.4497E-3	126.451E-12	573.686E-3	-1.26142E-3
3.02401E-3	124.949E-12	510.182E-3	3.55976E-3	126.081E-12	551.142E-3	-25.5814E-3
3.01901E-3	124.547E-12	514.266E-3	-4.18594E-3	124.665E-12	549.467E-3	-28.6876E-3
3.01401E-3	124.393E-12	527.766E-3	-4.06782E-3	123.952E-12	546.195E-3	-16.7369E-3
3.00900E-3	123.583E-12	542.982E-3	-3.92479E-3	124.954E-12	537.297E-3	-10.1011E-3
3.00400E-3	122.436E-12	560.668E-3	-8.07506E-3	125.513E-12	545.336E-3	-20.0446E-3
2.99900E-3	122.257E-12	543.951E-3	-10.0340E-3	125.162E-12	567.335E-3	-18.1898E-3
2.99400E-3	122.567E-12	520.000E-3	-5.71266E-3	124.473E-12	578.487E-3	5.42909E-3
2.98899E-3	122.091E-12	531.737E-3	-14.8018E-3	124.451E-12	573.147E-3	1.73631E-3
2.98399E-3	120.915E-12	547.652E-3	-25.7697E-3	123.978E-12	573.582E-3	-22.6470E-3
2.97899E-3	120.827E-12	539.479E-3	-37.2730E-3	123.884E-12	561.643E-3	-27.3587E-3
2.97399E-3	120.797E-12	527.741E-3	-45.0606E-3	124.542E-12	531.406E-3	-25.2796E-3
2.96898E-3	120.959E-12	536.839E-3	-35.2895E-3	122.850E-12	525.686E-3	-25.0288E-3
2.96398E-3	119.546E-12	553.424E-3	-21.4266E-3	121.582E-12	556.736E-3	-6.54342E-3
2.95898E-3	120.237E-12	562.900E-3	-12.1876E-3	122.974E-12	582.109E-3	6.25970E-3
2.95398E-3	120.772E-12	567.552E-3	-645.438E-6	122.117E-12	572.006E-3	-784.258E-6
2.94897E-3	120.503E-12	564.597E-3	4.69148E-3	120.530E-12	559.445E-3	-4.92540E-3
2.94397E-3	120.043E-12	565.311E-3	-8.87749E-3	120.844E-12	557.971E-3	-19.8594E-3
2.93897E-3	121.047E-12	567.278E-3	-19.1613E-3	122.192E-12	553.607E-3	-35.1911E-3
2.93397E-3	121.553E-12	556.753E-3	-14.6579E-3	121.352E-12	555.107E-3	-22.5026E-3
2.92896E-3	121.503E-12	546.844E-3	-25.4390E-3	120.529E-12	558.229E-3	-19.1988E-3
2.92396E-3	122.335E-12	547.810E-3	-44.9518E-3	120.573E-12	544.810E-3	-26.2283E-3
2.91896E-3	121.623E-12	543.637E-3	-43.1373E-3	121.779E-12	531.827E-3	-20.5785E-3
2.91396E-3	121.562E-12	555.328E-3	-34.4572E-3	122.696E-12	543.361E-3	-28.1517E-3
2.90895E-3	121.729E-12	581.805E-3	-23.0831E-3	122.129E-12	551.628E-3	-39.7941E-3
2.90395E-3	120.247E-12	576.017E-3	-22.4400E-3	120.538E-12	554.098E-3	-33.4769E-3
2.89895E-3	119.776E-12	552.325E-3	-36.3645E-3	121.252E-12	560.231E-3	-35.9167E-3
2.89395E-3	121.478E-12	542.127E-3	-37.4331E-3	122.334E-12	544.017E-3	-50.1524E-3
2.88894E-3	121.999E-12	551.519E-3	-31.7306E-3	119.970E-12	524.341E-3	-38.9419E-3
2.88394E-3	119.629E-12	567.748E-3	-32.1677E-3	120.195E-12	531.284E-3	-31.8772E-3
2.87894E-3	118.324E-12	582.418E-3	-26.7561E-3	119.908E-12	533.898E-3	-46.3814E-3
2.87394E-3	118.796E-12	579.623E-3	-12.8183E-3	120.106E-12	518.792E-3	-36.1701E-3
2.86893E-3	118.497E-12	556.939E-3	-16.7382E-3	119.467E-12	526.954E-3	-22.3371E-3
2.86393E-3	118.161E-12	552.618E-3	-27.6504E-3	118.847E-12	557.168E-3	-38.2040E-3
2.85893E-3	117.689E-12	560.865E-3	-18.8948E-3	118.709E-12	563.137E-3	-36.2388E-3
2.85393E-3	117.981E-12	545.666E-3	-27.2381E-3	119.341E-12	562.937E-3	-4.10122E-3
2.84892E-3	118.243E-12	514.130E-3	-61.1102E-3	119.095E-12	557.314E-3	-2.03513E-3
2.84392E-3	119.508E-12	510.089E-3	-48.0457E-3	118.790E-12	547.415E-3	-21.9813E-3
2.83892E-3	118.178E-12	536.230E-3	-9.65751E-3	118.876E-12	574.373E-3	-21.0295E-3
2.83392E-3	117.549E-12	558.800E-3	-18.2640E-3	119.591E-12	588.790E-3	-15.8295E-3
2.82891E-3	117.940E-12	566.500E-3	-37.6035E-3	120.082E-12	561.745E-3	-9.13752E-3
2.82391E-3	119.029E-12	550.622E-3	-34.3174E-3	118.893E-12	550.337E-3	-7.20422E-3
2.81891E-3	119.314E-12	540.017E-3	-15.6209E-3	118.213E-12	561.272E-3	-31.7984E-3
2.81391E-3	117.228E-12	561.563E-3	19.2583E-3	118.987E-12	557.844E-3	-38.5975E-3
2.80890E-3	117.186E-12	563.911E-3	32.1868E-3	118.628E-12	544.362E-3	-21.1796E-3
2.80390E-3	117.382E-12	548.184E-3	-8.67068E-3	117.114E-12	548.833E-3	-13.5348E-3
2.79890E-3	117.875E-12	565.668E-3	-50.1389E-3	117.485E-12	562.951E-3	-7.20706E-3
2.79390E-3	116.574E-12	565.131E-3	-47.1518E-3	117.780E-12	570.376E-3	2.22729E-3
2.78889E-3	115.780E-12	527.785E-3	-25.7879E-3	117.114E-12	577.558E-3	3.94583E-3
2.78389E-3	116.249E-12	517.738E-3	-9.33583E-3	115.799E-12	576.231E-3	-9.77634E-3
2.77889E-3	117.260E-12	536.989E-3	-4.17480E-3	115.660E-12	555.762E-3	-9.43008E-3
2.77389E-3	116.528E-12	552.825E-3	-12.8661E-3	116.919E-12	540.646E-3	-2.33710E-3
2.76888E-3	115.728E-12	546.739E-3	-7.50702E-3	116.100E-12	543.575E-3	-16.9872E-3
2.76388E-3	116.018E-12	538.097E-3	14.4272E-3	115.837E-12	555.536E-3	-25.2472E-3
2.75888E-3	115.575E-12	548.045E-3	10.0835E-3	115.400E-12	567.504E-3	-16.1822E-3
2.75388E-3	116.092E-12	549.976E-3	-17.4291E-3	115.426E-12	569.402E-3	-7.68025E-3
2.74887E-3	115.654E-12	536.839E-3	-41.3143E-3	116.825E-12	573.254E-3	-12.6420E-3
2.74387E-3	115.549E-12	533.502E-3	-50.0093E-3	116.455E-12	582.222E-3	-19.5792E-3
2.73887E-3	115.045E-12	536.673E-3	-34.3676E-3	115.507E-12	579.652E-3	-18.5062E-3
2.73387E-3	114.668E-12	547.235E-3	-15.8028E-3	115.035E-12	569.051E-3	-5.72008E-3
2.72886E-3	115.713E-12	559.440E-3	1.42433E-3	115.240E-12	559.580E-3	1.49441E-3
2.72386E-3	114.706E-12	557.599E-3	18.1237E-3	114.932E-12	540.380E-3	-9.64237E-3
2.71886E-3	113.645E-12	555.575E-3	1.41334E-3	113.869E-12	533.139E-3	-11.3747E-3
2.71386E-3	113.614E-12	563.628E-3	-29.2934E-3	113.359E-12	552.813E-3	-17.4979E-3
2.70885E-3	114.962E-12	566.126E-3	-35.2265E-3	112.646E-12	560.282E-3	-39.2621E-3
2.70385E-3	113.770E-12	557.401E-3	-21.7468E-3	112.872E-12	542.950E-3	-37.7434E-3
2.69885E-3	113.203E-12	549.366E-3	-26.5633E-3	112.643E-12	538.578E-3	-7.53905E-3
2.69385E-3	112.886E-12	547.070E-3	-40.0646E-3	110.832E-12	552.543E-3	5.84214E-3
2.68884E-3	112.491E-12	545.518E-3	-29.0580E-3	110.976E-12	550.409E-3	-10.0178E-3
2.68384E-3	112.771E-12	534.339E-3	-26.7489E-3	112.104E-12	540.419E-3	-30.8815E-3
2.67884E-3	111.903E-12	528.786E-3	-30.5071E-3	112.453E-12	545.099E-3	-56.2324E-3
2.67384E-3	110.244E-12	538.706E-3	-36.8621E-3	111.322E-12	555.065E-3	-67.0346E-3
2.66883E-3	110.190E-12	542.482E-3	-58.2743E-3	110.867E-12	555.475E-3	-42.4524E-3
2.66383E-3	110.544E-12	541.619E-3	-51.2510E-3	112.342E-12	551.455E-3	-20.3580E-3
2.65883E-3	110.276E-12	545.000E-3	-12.1875E-3	112.743E-12	561.493E-3	-28.0735E-3
2.65383E-3	109.700E-12	552.986E-3	14.2801E-3	112.671E-12	585.562E-3	-29.5100E-3
2.64882E-3	109.430E-12	560.965E-3	-6.35607E-3	111.933E-12	601.060E-3	-6.75683E-3
2.64382E-3	108.977E-12	555.120E-3	-34.1298E-3	111.922E-12	590.222E-3	9.09512E-3
2.63882E-3	108.641E-12	546.349E-3	-24.6488E-3	112.212E-12	567.648E-3	9.89650E-3
2.63382E-3	109.694E-12	545.126E-3	-13.7787E-3	111.275E-12	557.617E-3	5.06490E-3
2.62881E-3	110.687E-12	556.986E-3	-18.5383E-3	109.896E-12	552.926E-3	1.91290E-3
2.62381E-3	109.742E-12	580.504E-3	-23.3828E-3	110.143E-12	551.224E-3	7.14702E-3
2.61881E-3	110.385E-12	584.587E-3	-21.2154E-3	109.026E-12	556.645E-3	255.581E-6
2.61381E-3	110.628E-12	562.413E-3	-14.0846E-3	107.896E-12	554.663E-3	-15.1655E-3
2.60880E-3	110.454E-12	551.684E-3	-23.2338E-3	108.085E-12	552.630E-3	-136.404E-6
2.60380E-3	110.864E-12	569.592E-3	-36.7432E-3	106.859E-12	551.392E-3	11.2304E-3
2.59880E-3	110.161E-12	584.747E-3	-40.2296E-3	106.873E-12	549.641E-3	-5.21317E-3
2.59380E-3	110.313E-12	577.750E-3	-47.8842E-3	108.453E-12	554.796E-3	-12.9349E-3
2.58879E-3	110.931E-12	576.149E-3	-38.9303E-3	107.320E-12	550.970E-3	-10.3504E-3
2.58379E-3	109.832E-12	570.937E-3	-15.2257E-3	106.933E-12	530.840E-3	-10.0480E-3
2.57879E-3	108.034E-12	549.491E-3	-15.1763E-3	107.836E-12	523.095E-3	-11.2764E-3
2.57379E-3	108.459E-12	550.986E-3	-27.8697E-3	108.876E-12	538.744E-3	-9.52292E-3
2.56878E-3	108.545E-12	559.648E-3	-12.7003E-3	108.333E-12	555.324E-3	1.93228E-3
2.56378E-3	107.674E-12	546.014E-3	5.99510E-3	108.914E-12	570.226E-3	8.54678E-3
2.55878E-3	106.905E-12	541.470E-3	4.69147E-3	108.432E-12	574.015E-3	-2.42699E-3
2.55378E-3	105.896E-12	548.872E-3	9.56084E-3	107.155E-12	563.841E-3	-13.2495E-3
2.54877E-3	106.013E-12	548.192E-3	13.8721E-3	107.321E-12	551.767E-3	-7.13564E-3
2.54377E-3	105.257E-12	555.820E-3	13.9230E-3	108.067E-12	541.815E-3	-2.69441E-3
2.53877E-3	105.032E-12	558.554E-3	23.2837E-3	108.051E-12	543.333E-3	-13.6934E-3
2.53377E-3	104.823E-12	534.837E-3	4.51683E-3	106.149E-12	560.699E-3	-23.2138E-3
2.52876E-3	105.564E-12	533.216E-3	-29.4978E-3	106.485E-12	577.839E-3	-17.5133E-3
2.52376E-3	105.165E-12	553.222E-3	-34.4426E-3	106.423E-12	560.360E-3	-5.42637E-3
2.51876E-3	105.298E-12	557.884E-3	-32.7726E-3	105.963E-12	535.352E-3	6.13375E-3
2.51376E-3	105.502E-12	545.027E-3	-25.1148E-3	104.595E-12	542.619E-3	18.9948E-3
2.50875E-3	105.231E-12	521.590E-3	-3.23978E-3	104.374E-12	560.538E-3	10.5117E-3
2.50375E-3	105.123E-12	534.462E-3	-2.99057E-3	105.822E-12	562.370E-3	-10.2463E-3
2.49875E-3	105.895E-12	572.626E-3	-37.2127E-3	106.553E-12	557.128E-3	-3.60972E-3
2.49375E-3	105.712E-12	586.733E-3	-45.6768E-3	104.767E-12	552.205E-3	-2.26241E-3
2.48874E-3	106.352E-12	567.254E-3	-17.5399E-3	105.262E-12	544.001E-3	-662.555E-6
2.48374E-3	106.624E-12	551.338E-3	-12.8471E-3	105.953E-12	540.312E-3	28.8028E-3
2.47874E-3	105.581E-12	565.823E-3	-19.2613E-3	106.410E-12	544.552E-3	38.1454E-3
2.47374E-3	105.216E-12	564.990E-3	-10.2179E-3	105.033E-12	547.357E-3	30.5013E-3
2.46873E-3	104.950E-12	556.521E-3	-27.9425E-3	105.281E-12	545.976E-3	20.2382E-3
2.46373E-3	104.392E-12	584.152E-3	-50.8676E-3	105.632E-12	552.555E-3	-13.0435E-3
2.45873E-3	104.188E-12	598.631E-3	-38.0278E-3	105.519E-12	551.278E-3	-37.1070E-3
2.45373E-3	103.056E-12	585.445E-3	-24.2684E-3	104.644E-12	539.288E-3	-18.2196E-3
2.44872E-3	103.053E-12	593.884E-3	-15.1519E-3	104.473E-12	548.125E-3	6.86420E-3
2.44372E-3	103.144E-12	599.015E-3	3.43668E-3	104.572E-12	579.961E-3	7.52094E-3
2.43872E-3	103.231E-12	565.419E-3	766.061E-6	104.012E-12	614.511E-3	-6.17405E-3
2.43372E-3	101.222E-12	539.533E-3	-25.0192E-3	103.978E-12	624.690E-3	-22.6454E-3
2.42871E-3	101.280E-12	544.892E-3	-22.1888E-3	103.165E-12	603.257E-3	-33.1101E-3
2.42371E-3	103.013E-12	542.340E-3	-11.5542E-3	103.323E-12	580.436E-3	-31.1399E-3
2.41871E-3	102.178E-12	543.110E-3	-16.1509E-3	102.542E-12	563.350E-3	-18.0542E-3
2.41371E-3	101.322E-12	541.195E-3	-3.51335E-3	101.812E-12	562.222E-3	-11.8783E-3
2.40870E-3	101.475E-12	524.758E-3	5.29699E-3	101.638E-12	587.564E-3	-12.3030E-3
2.40370E-3	101.724E-12	527.240E-3	-2.93766E-3	102.267E-12	587.726E-3	-25.7210E-3
2.39870E-3	102.526E-12	530.578E-3	-6.14768E-3	101.835E-12	561.129E-3	-42.4447E-3
2.39370E-3	102.229E-12	530.604E-3	-18.8650E-3	101.621E-12	559.329E-3	-33.1623E-3
2.38869E-3	100.560E-12	549.598E-3	-35.1656E-3	101.532E-12	566.751E-3	-12.6204E-3
2.38369E-3	100.600E-12	550.082E-3	-22.5321E-3	100.925E-12	553.839E-3	-3.99618E-3
2.37869E-3	102.598E-12	540.588E-3	-6.35645E-3	101.392E-12	539.282E-3	-5.63522E-3
2.37369E-3	102.706E-12	558.162E-3	5.79354E-3	101.335E-12	530.540E-3	3.07281E-3
2.36868E-3	99.7044E-12	558.550E-3	16.5243E-3	100.431E-12	529.721E-3	22.4208E-3
2.36368E-3	99.2042E-12	534.949E-3	1.88770E-3	100.126E-12	540.517E-3	24.5140E-3
2.35868E-3	100.565E-12	535.598E-3	-15.5122E-3	100.064E-12	551.088E-3	11.1317E-3
2.35368E-3	99.4758E-12	547.380E-3	-9.40827E-3	100.671E-12	558.470E-3	11.5913E-3
2.34867E-3	98.4798E-12	542.536E-3	4.55072E-3	99.5799E-12	564.570E-3	18.0874E-3
2.34367E-3	98.7724E-12	558.561E-3	9.64670E-3	100.147E-12	579.257E-3	9.55246E-3
2.33867E-3	98.4059E-12	581.842E-3	13.6608E-3	99.4100E-12	580.790E-3	-7.25660E-3
2.33367E-3	99.3597E-12	562.923E-3	14.7936E-3	99.4817E-12	553.029E-3	-17.4392E-3
2.32866E-3	99.4560E-12	550.759E-3	4.63652E-3	99.6666E-12	531.915E-3	-18.2024E-3
2.32366E-3	98.2206E-12	578.717E-3	-3.82393E-3	100.049E-12	538.627E-3	-9.60693E-3
2.31866E-3	97.6540E-12	588.130E-3	1.61002E-3	99.0071E-12	553.460E-3	-9.83387E-3
2.31366E-3	98.6893E-12	568.148E-3	614.537E-6	98.6001E-12	567.526E-3	-27.2618E-3
2.30865E-3	99.0114E-12	559.683E-3	-12.1555E-3	99.5188E-12	564.427E-3	-30.1549E-3
2.30365E-3	98.5487E-12	547.705E-3	-3.08950E-3	98.6839E-12	547.384E-3	-24.4680E-3
2.29865E-3	97.7296E-12	531.297E-3	5.26971E-3	97.9440E-12	554.738E-3	-25.7530E-3
2.29365E-3	97.4204E-12	542.438E-3	-10.1986E-3	97.4708E-12	559.493E-3	-21.6221E-3
2.28864E-3	99.0094E-12	565.417E-3	-21.9578E-3	97.4880E-12	542.079E-3	-14.6067E-3
2.28364E-3	98.7915E-12	566.713E-3	-34.7177E-3	96.5547E-12	543.986E-3	-18.4644E-3
2.27864E-3	97.7358E-12	558.255E-3	-41.3506E-3	95.9829E-12	550.691E-3	-29.1706E-3
2.27364E-3	97.5213E-12	562.641E-3	-29.3592E-3	95.9524E-12	553.002E-3	-21.1662E-3
2.26863E-3	98.4708E-12	562.638E-3	-18.3478E-3	95.6605E-12	567.762E-3	-8.34747E-3
2.26363E-3	97.7146E-12	560.784E-3	-16.0488E-3	95.5213E-12	579.174E-3	-20.7611E-3
2.25863E-3	96.6542E-12	558.347E-3	-15.3706E-3	95.7012E-12	568.687E-3	-33.9192E-3
2.25363E-3	95.8423E-12	547.585E-3	-10.9936E-3	96.6265E-12	544.677E-3	-15.6010E-3
2.24862E-3	96.6989E-12	548.892E-3	-15.8333E-3	95.4327E-12	541.424E-3	-2.34086E-3
2.24362E-3	97.2842E-12	557.856E-3	-26.3145E-3	95.3352E-12	545.712E-3	-25.7837E-3
2.23862E-3	95.2805E-12	561.358E-3	-30.7496E-3	95.9848E-12	537.771E-3	-32.1580E-3
2.23362E-3	93.9632E-12	562.438E-3	-31.5318E-3	96.1036E-12	554.621E-3	-20.4605E-3
2.22861E-3	94.9968E-12	559.992E-3	-17.6723E-3	96.4169E-12	592.743E-3	-27.6563E-3
2.22361E-3	95.9491E-12	565.123E-3	-4.40000E-3	96.1581E-12	604.804E-3	-16.0677E-3
2.21861E-3	93.6884E-12	575.016E-3	-9.28436E-3	96.3186E-12	589.921E-3	-5.54109E-3
2.21361E-3	93.6040E-12	571.365E-3	-9.79482E-3	96.1178E-12	560.392E-3	-20.3474E-3
2.20860E-3	94.4356E-12	570.236E-3	-5.87774E-3	96.1605E-12	542.651E-3	-22.7544E-3
2.20360E-3	94.4631E-12	587.187E-3	2.51331E-3	94.8269E-12	549.975E-3	-25.3634E-3
2.19860E-3	94.8389E-12	584.046E-3	20.9775E-3	93.9343E-12	552.042E-3	-44.2555E-3
2.19360E-3	94.1494E-12	550.226E-3	21.9459E-3	94.4966E-12	544.991E-3	-61.3526E-3
2.18859E-3	93.4973E-12	541.731E-3	10.6027E-3	94.2444E-12	557.922E-3	-60.6716E-3
2.18359E-3	94.0680E-12	551.006E-3	-935.529E-6	93.7821E-12	583.401E-3	-38.6291E-3
2.17859E-3	94.4375E-12	542.267E-3	-22.4477E-3	93.1255E-12	580.111E-3	-13.1203E-3
2.17359E-3	93.4138E-12	546.649E-3	-44.8857E-3	93.0965E-12	567.274E-3	-4.38220E-3
2.16858E-3	93.1511E-12	574.608E-3	-37.4150E-3	91.5272E-12	573.536E-3	-9.12997E-3
2.16358E-3	93.4960E-12	580.342E-3	-6.98465E-3	92.1400E-12	571.269E-3	-20.1042E-3
2.15858E-3	93.4007E-12	558.701E-3	2.89505E-3	92.4107E-12	560.833E-3	-24.6673E-3
2.15358E-3	92.3950E-12	543.485E-3	-19.1650E-6	92.4321E-12	570.673E-3	-21.4168E-3
2.14857E-3	91.4202E-12	529.634E-3	-37.9549E-6	92.0624E-12	567.000E-3	-28.4818E-3
2.14357E-3	92.2457E-12	525.709E-3	-16.0189E-3	91.7334E-12	547.235E-3	-20.3325E-3
2.13857E-3	91.4317E-12	550.842E-3	-29.9508E-3	91.8666E-12	562.938E-3	1.66497E-3
2.13357E-3	90.2182E-12	566.996E-3	-30.0278E-3	92.2265E-12	586.478E-3	2.85079E-3
2.12856E-3	89.6397E-12	562.328E-3	-40.0388E-3	91.8003E-12	574.641E-3	-68.6646E-6
2.12356E-3	91.0259E-12	562.807E-3	-39.8935E-3	90.5606E-12	542.260E-3	-2.81807E-3
2.11856E-3	89.8334E-12	552.819E-3	-18.8370E-3	90.2472E-12	523.225E-3	-16.2824E-3
2.11356E-3	88.8280E-12	534.666E-3	-12.3751E-3	90.6627E-12	546.272E-3	-22.1591E-3
2.10855E-3	88.9910E-12	541.501E-3	-7.22474E-3	90.5534E-12	572.023E-3	-21.3827E-3
2.10355E-3	89.8666E-12	550.792E-3	7.12850E-3	89.0190E-12	561.481E-3	-25.4798E-3
2.09855E-3	89.8503E-12	551.163E-3	-7.10018E-3	89.1683E-12	553.182E-3	-25.1720E-3
2.09355E-3	88.9952E-12	549.419E-3	-24.5015E-3	89.5886E-12	563.145E-3	-16.1462E-3
2.08854E-3	89.5900E-12	548.725E-3	-17.7011E-3	88.6225E-12	556.506E-3	-11.4478E-3
2.08354E-3	89.9601E-12	551.303E-3	-19.5665E-3	88.8587E-12	528.388E-3	-7.90474E-3
2.07854E-3	89.7547E-12	553.440E-3	-27.3619E-3	88.2162E-12	526.818E-3	6.15715E-3
2.07354E-3	88.8360E-12	564.959E-3	-17.0521E-3	88.9797E-12	561.530E-3	9.64119E-3
2.06853E-3	89.3782E-12	569.885E-3	-11.3955E-3	88.6405E-12	562.875E-3	-6.72331E-3
2.06353E-3	89.7137E-12	565.716E-3	-23.6164E-3	88.6341E-12	548.236E-3	-19.9504E-3
2.05853E-3	89.9507E-12	574.852E-3	-21.5724E-3	88.3895E-12	573.884E-3	-22.0378E-3
2.05353E-3	88.9855E-12	589.079E-3	-15.4246E-3	88.0532E-12	582.002E-3	-18.3057E-3
2.04852E-3	88.0346E-12	589.425E-3	-14.2232E-3	88.6060E-12	552.463E-3	3.50127E-3
2.04352E-3	89.4643E-12	577.167E-3	-13.3881E-3	89.2986E-12	542.732E-3	12.0573E-3
2.03852E-3	89.4116E-12	559.090E-3	-23.2816E-3	88.4612E-12	556.091E-3	-15.2359E-3
2.03352E-3	88.4419E-12	550.360E-3	-29.4878E-3	87.3397E-12	558.000E-3	-25.8717E-3
2.02851E-3	87.3731E-12	556.378E-3	-32.1625E-3	87.7894E-12	551.665E-3	-17.8037E-3
2.02351E-3	88.1994E-12	552.459E-3	-40.2711E-3	87.5251E-12	545.851E-3	-21.9538E-3
2.01851E-3	87.9318E-12	551.245E-3	-32.9445E-3	86.9002E-12	549.886E-3	-24.8965E-3
2.01351E-3	87.1864E-12	565.523E-3	-10.2132E-3	86.8029E-12	566.525E-3	-20.2678E-3
2.00850E-3	87.2165E-12	563.534E-3	-3.52914E-3	86.4657E-12	574.188E-3	-31.4858E-3
2.00350E-3	87.2319E-12	547.334E-3	-5.14219E-3	85.9627E-12	559.373E-3	-34.8649E-3
1.99850E-3	86.6681E-12	541.852E-3	-15.0794E-3	86.0311E-12	545.241E-3	-14.0972E-3
1.99350E-3	86.5437E-12	556.856E-3	-34.2597E-3	85.5688E-12	543.793E-3	-19.2122E-3
1.98849E-3	86.6013E-12	574.470E-3	-43.4378E-3	85.0781E-12	535.488E-3	-32.9584E-3
1.98349E-3	86.7375E-12	560.382E-3	-46.5078E-3	84.8909E-12	536.588E-3	-25.1229E-3
1.97849E-3	87.0491E-12	543.764E-3	-35.8633E-3	84.7700E-12	549.237E-3	-3.48012E-3
1.97349E-3	86.5944E-12	548.947E-3	-19.2223E-3	84.6264E-12	551.045E-3	8.24575E-3
1.96848E-3	85.4934E-12	550.714E-3	-15.8179E-3	84.2874E-12	543.078E-3	-4.98218E-3
1.96348E-3	85.6250E-12	548.556E-3	-20.5072E-3	85.0584E-12	533.336E-3	-8.09762E-3
1.95848E-3	85.8461E-12	550.444E-3	-31.1382E-3	85.3688E-12	531.527E-3	-2.20880E-3
1.95348E-3	86.2466E-12	557.863E-3	-44.5171E-3	84.9362E-12	538.021E-3	-8.08064E-3
1.94847E-3	84.7896E-12	559.817E-3	-33.4487E-3	84.6419E-12	546.847E-3	-11.2055E-3
1.94347E-3	84.2897E-12	556.042E-3	-28.9194E-3	84.5916E-12	562.482E-3	-7.67718E-3
1.93847E-3	84.3792E-12	561.669E-3	-39.0828E-3	84.4580E-12	576.099E-3	1.42567E-3
1.93347E-3	84.4916E-12	567.349E-3	-33.6683E-3	84.4022E-12	565.521E-3	8.37054E-3
1.92846E-3	83.4937E-12	553.965E-3	-34.0745E-3	84.7894E-12	541.159E-3	2.00951E-3
1.92346E-3	83.0086E-12	543.267E-3	-16.7863E-3	84.4500E-12	536.979E-3	-15.2052E-3
1.91846E-3	83.2981E-12	540.162E-3	12.4883E-3	83.0127E-12	554.220E-3	-33.9118E-3
1.91346E-3	82.5498E-12	530.011E-3	8.85999E-3	82.8158E-12	562.122E-3	-34.4332E-3
1.90845E-3	83.2646E-12	532.309E-3	-11.7656E-3	83.3475E-12	554.179E-3	-5.65648E-3
1.90345E-3	82.2355E-12	544.801E-3	-30.0097E-3	83.9488E-12	553.876E-3	20.9928E-3
1.89845E-3	82.1158E-12	547.343E-3	-38.2416E-3	82.8715E-12	559.588E-3	10.0503E-3
1.89345E-3	82.1624E-12	552.070E-3	-29.9991E-3	82.3798E-12	558.523E-3	-11.3879E-3
1.88844E-3	82.2197E-12	554.907E-3	-24.1627E-3	83.0369E-12	559.236E-3	-19.5539E-3
1.88344E-3	82.3495E-12	538.762E-3	-22.7378E-3	82.4803E-12	557.205E-3	-29.2361E-3
1.87844E-3	82.3828E-12	525.920E-3	-9.88222E-3	82.4709E-12	553.921E-3	-31.1016E-3
1.87344E-3	81.6224E-12	534.880E-3	1.32851E-3	82.4467E-12	564.541E-3	-9.32530E-3
1.86843E-3	81.2104E-12	551.447E-3	-3.28102E-3	81.8553E-12	579.462E-3	6.12681E-3
1.86343E-3	82.3860E-12	562.441E-3	-11.3359E-3	81.6755E-12	577.326E-3	-2.80755E-3
1.85843E-3	81.5756E-12	571.920E-3	-3.31383E-3	82.2091E-12	569.090E-3	-9.88383E-3
1.85343E-3	80.4455E-12	565.889E-3	726.240E-6	81.5460E-12	578.555E-3	-10.2059E-3
1.84842E-3	80.5584E-12	549.123E-3	-13.4587E-3	80.8770E-12	584.627E-3	-18.6119E-3
1.84342E-3	81.1685E-12	545.419E-3	-19.3507E-3	80.3272E-12	569.234E-3	-27.0110E-3
1.83842E-3	80.3026E-12	543.310E-3	-16.4184E-3	81.0174E-12	546.170E-3	-28.2517E-3
1.83342E-3	80.1711E-12	555.631E-3	-24.5446E-3	80.9950E-12	548.310E-3	-22.6618E-3
1.82841E-3	79.2407E-12	583.483E-3	-18.4457E-3	79.8116E-12	573.182E-3	-21.5269E-3
1.82341E-3	78.9614E-12	576.942E-3	2.69032E-3	79.9008E-12	581.239E-3	-28.7478E-3
1.81841E-3	79.4839E-12	535.653E-3	-18.0925E-6	79.6091E-12	576.057E-3	-22.0794E-3
1.81341E-3	79.1453E-12	525.429E-3	-9.61863E-3	79.9900E-12	576.380E-3	-12.3434E-3
1.80840E-3	77.8844E-12	535.861E-3	-16.0087E-3	79.6044E-12	562.648E-3	-21.6717E-3
1.80340E-3	78.0229E-12	539.607E-3	-28.8459E-3	78.6520E-12	536.091E-3	-31.3653E-3
1.79840E-3	77.8665E-12	561.242E-3	-26.9201E-3	79.1583E-12	531.803E-3	-27.8097E-3
1.79340E-3	78.0375E-12	581.915E-3	-19.4227E-3	79.3038E-12	538.403E-3	-14.7711E-3
1.78839E-3	77.4697E-12	584.352E-3	-9.03462E-3	79.0222E-12	543.918E-3	-1.55763E-3
1.78339E-3	76.8453E-12	577.819E-3	15.4531E-3	78.6847E-12	549.586E-3	-8.97931E-3
1.77839E-3	77.6585E-12	561.359E-3	14.4648E-3	78.1309E-12	540.092E-3	-15.6783E-3
1.77339E-3	78.1298E-12	538.271E-3	-19.3604E-3	77.6388E-12	539.043E-3	-7.67746E-3
1.76838E-3	77.6626E-12	529.936E-3	-45.2317E-3	78.3502E-12	558.486E-3	-17.4651E-3
1.76338E-3	77.3549E-12	540.485E-3	-46.6014E-3	77.8361E-12	572.357E-3	-32.1423E-3
1.75838E-3	77.0429E-12	549.996E-3	-31.7860E-3	77.5958E-12	569.661E-3	-12.4456E-3
1.75338E-3	77.5313E-12	564.025E-3	-15.8571E-3	77.6641E-12	560.253E-3	24.2248E-3
1.74837E-3	77.6463E-12	574.642E-3	-11.1180E-3	77.6036E-12	554.008E-3	20.9751E-3
1.74337E-3	77.6012E-12	559.084E-3	-17.5210E-3	77.2248E-12	551.048E-3	-6.43799E-3
1.73837E-3	77.0557E-12	543.950E-3	-19.5064E-3	77.4992E-12	557.325E-3	-17.3822E-3
1.73337E-3	76.9010E-12	549.894E-3	-19.6988E-3	77.5489E-12	568.696E-3	-20.4532E-3
1.72836E-3	77.1207E-12	556.250E-3	-25.2016E-3	77.1339E-12	577.644E-3	-14.1976E-3
1.72336E-3	77.1124E-12	555.829E-3	-30.6564E-3	77.6346E-12	583.517E-3	-681.824E-6
1.71836E-3	76.2788E-12	546.698E-3	-35.9023E-3	77.0096E-12	580.244E-3	-2.17688E-3
1.71336E-3	75.6099E-12	534.628E-3	-35.4225E-3	77.4584E-12	562.973E-3	-14.1334E-3
1.70835E-3	75.7760E-12	538.611E-3	-29.7600E-3	77.3702E-12	540.018E-3	-16.2273E-3
1.70335E-3	75.1252E-12	548.088E-3	-31.5251E-3	76.7249E-12	541.428E-3	-20.6381E-3
1.69835E-3	75.7395E-12	552.844E-3	-27.0438E-3	76.6210E-12	558.276E-3	-29.1159E-3
1.69335E-3	74.7493E-12	568.975E-3	-15.8111E-3	76.3685E-12	559.852E-3	-17.3612E-3
1.68834E-3	74.0368E-12	590.060E-3	-17.1169E-3	75.2989E-12	554.800E-3	-1.09977E-3
1.68334E-3	74.7514E-12	591.670E-3	-10.9045E-3	75.3119E-12	541.507E-3	-10.2024E-3
1.67834E-3	74.7356E-12	567.451E-3	-9.17685E-3	74.9277E-12	523.636E-3	-17.8697E-3
1.67334E-3	74.2280E-12	549.840E-3	-11.9085E-3	74.0981E-12	528.240E-3	-12.2263E-3
1.66833E-3	73.7664E-12	549.715E-3	-4.31326E-3	73.3711E-12	534.006E-3	-20.9494E-3
1.66333E-3	74.3013E-12	554.422E-3	-23.5742E-3	73.4960E-12	522.332E-3	-18.7049E-3
1.65833E-3	74.8907E-12	569.812E-3	-44.1626E-3	73.3467E-12	524.944E-3	-699.698E-6
1.65333E-3	74.1289E-12	576.715E-3	-28.7255E-3	72.7990E-12	526.935E-3	146.624E-6
1.64832E-3	74.1960E-12	574.601E-3	-18.8196E-3	71.9896E-12	522.539E-3	-6.50482E-3
1.64332E-3	74.2227E-12	566.656E-3	-25.9457E-3	71.8618E-12	544.325E-3	-10.1803E-3
1.63832E-3	73.7861E-12	555.435E-3	-26.9130E-3	72.5857E-12	571.274E-3	-28.0930E-3
1.63332E-3	73.4169E-12	560.317E-3	-30.8977E-3	72.7704E-12	569.313E-3	-46.7286E-3
1.62831E-3	73.5758E-12	568.100E-3	-21.4507E-3	71.6605E-12	545.041E-3	-34.0840E-3
1.62331E-3	72.6902E-12	566.374E-3	7.66497E-3	72.2274E-12	545.653E-3	-24.0742E-3
1.61831E-3	72.8209E-12	569.029E-3	6.41131E-3	72.8371E-12	562.558E-3	-36.7780E-3
1.61331E-3	72.3015E-12	574.923E-3	-15.2449E-3	72.6804E-12	558.097E-3	-35.3342E-3
1.60830E-3	71.9763E-12	560.971E-3	-30.2567E-3	72.2456E-12	560.923E-3	-29.6836E-3
1.60330E-3	71.0801E-12	542.686E-3	-47.9559E-3	72.7221E-12	560.746E-3	-38.9471E-3
1.59830E-3	71.5468E-12	552.921E-3	-50.6957E-3	72.8057E-12	549.015E-3	-45.8875E-3
1.59330E-3	71.6465E-12	561.271E-3	-27.9822E-3	72.3550E-12	545.268E-3	-43.1868E-3
1.58829E-3	70.6502E-12	554.812E-3	-10.9644E-3	71.9998E-12	530.851E-3	-25.3098E-3
1.58329E-3	70.3646E-12	559.497E-3	-9.55998E-3	72.0089E-12	517.417E-3	1.54749E-3
1.57829E-3	70.5111E-12	549.564E-3	-4.61725E-3	71.1819E-12	529.506E-3	12.8813E-3
1.57329E-3	70.3815E-12	527.570E-3	1.70104E-3	71.5510E-12	551.421E-3	-7.78550E-3
1.56828E-3	69.8639E-12	528.970E-3	-140.076E-6	71.9217E-12	561.047E-3	-24.3164E-3
1.56328E-3	70.1457E-12	528.082E-3	-9.30321E-3	71.0737E-12	560.446E-3	-15.3632E-3
1.55828E-3	70.6032E-12	520.268E-3	-23.9545E-3	69.6513E-12	549.828E-3	-14.3390E-3
1.55328E-3	69.9579E-12	531.413E-3	-18.5857E-3	69.8736E-12	538.893E-3	-20.3706E-3
1.54827E-3	69.9709E-12	549.768E-3	21.1055E-3	70.4146E-12	536.193E-3	-20.2459E-3
1.54327E-3	69.2394E-12	555.804E-3	40.8966E-3	70.8415E-12	539.066E-3	-27.2044E-3
1.53827E-3	69.3525E-12	553.322E-3	19.8198E-3	69.6718E-12	555.132E-3	-25.5175E-3
1.53327E-3	69.1822E-12	551.372E-3	-4.47199E-3	68.5871E-12	555.146E-3	-13.5454E-3
1.52826E-3	68.5464E-12	546.444E-3	-20.6529E-3	70.4522E-12	540.567E-3	-23.6014E-3
1.52326E-3	67.8807E-12	541.050E-3	-39.4427E-3	70.7961E-12	536.733E-3	-34.0933E-3
1.51826E-3	68.2131E-12	544.690E-3	-46.7909E-3	69.5228E-12	530.656E-3	-25.9059E-3
1.51326E-3	67.4902E-12	534.944E-3	-34.8499E-3	68.6777E-12	522.818E-3	-26.5987E-3
1.50825E-3	66.6924E-12	510.354E-3	-29.7124E-3	69.0019E-12	520.150E-3	-27.7237E-3
1.50325E-3	66.5891E-12	515.872E-3	-25.0721E-3	70.0195E-12	510.639E-3	-21.9097E-3
1.49825E-3	67.1076E-12	531.991E-3	-10.4511E-3	69.6582E-12	500.112E-3	-29.3811E-3
1.49325E-3	66.2531E-12	537.534E-3	-15.2452E-3	67.8761E-12	504.511E-3	-41.4429E-3
1.48824E-3	66.2166E-12	542.833E-3	-31.0013E-3	67.2273E-12	516.776E-3	-40.1957E-3
1.48324E-3	66.2628E-12	519.310E-3	-36.0291E-3	68.5228E-12	522.262E-3	-35.3661E-3
1.47824E-3	66.3817E-12	499.255E-3	-35.5644E-3	67.9420E-12	512.788E-3	-30.3519E-3
1.47324E-3	66.3580E-12	521.032E-3	-28.4012E-3	66.0873E-12	502.452E-3	-13.1102E-3
1.46823E-3	66.2842E-12	535.321E-3	-21.8922E-3	66.5124E-12	500.921E-3	-11.7319E-3
1.46323E-3	65.6246E-12	518.396E-3	-21.9127E-3	66.8560E-12	493.361E-3	-20.7937E-3
1.45823E-3	66.2516E-12	508.105E-3	-20.1371E-3	66.1982E-12	479.205E-3	-11.6827E-3
1.45323E-3	66.7683E-12	511.611E-3	-18.4960E-3	65.7738E-12	477.163E-3	-12.5493E-3
1.44822E-3	66.3045E-12	505.810E-3	-25.1975E-3	65.6825E-12	477.929E-3	-23.2017E-3
1.44322E-3	66.4815E-12	506.238E-3	-35.2568E-3	65.9919E-12	475.349E-3	-19.8100E-3
1.43822E-3	66.2725E-12	511.741E-3	-26.5911E-3	65.3773E-12	475.317E-3	-20.7696E-3
1.43322E-3	65.8829E-12	510.089E-3	-1.29105E-3	65.3897E-12	468.834E-3	-25.0308E-3
1.42821E-3	65.5521E-12	515.361E-3	2.38609E-3	65.4008E-12	471.999E-3	-9.68140E-3
1.42321E-3	65.6882E-12	522.960E-3	-9.55171E-3	65.0890E-12	483.912E-3	1.43400E-3
1.41821E-3	65.1169E-12	509.449E-3	-7.60965E-3	65.0995E-12	484.134E-3	-16.4652E-3
1.41321E-3	64.9689E-12	495.008E-3	-858.468E-6	65.4269E-12	478.596E-3	-27.1309E-3
1.40820E-3	65.5547E-12	498.108E-3	1.40454E-3	64.8225E-12	489.567E-3	-25.0125E-3
1.40320E-3	65.2093E-12	486.291E-3	-502.746E-6	64.4655E-12	485.673E-3	-35.9027E-3
1.39820E-3	64.5693E-12	453.356E-3	-1.43880E-3	64.2677E-12	454.465E-3	-35.5655E-3
1.39320E-3	64.4193E-12	442.282E-3	-4.03136E-3	64.5516E-12	446.574E-3	-22.1786E-3
1.38819E-3	63.8855E-12	462.644E-3	-378.496E-6	63.7891E-12	454.761E-3	-16.3415E-3
1.38319E-3	63.7958E-12	471.422E-3	14.0121E-3	63.8283E-12	448.552E-3	-994.899E-6
1.37819E-3	64.0162E-12	464.571E-3	11.7084E-3	63.5781E-12	434.611E-3	2.43772E-3
1.37319E-3	63.4152E-12	466.078E-3	-11.2443E-3	63.7770E-12	422.900E-3	-31.6605E-3
1.36818E-3	62.9551E-12	464.878E-3	-27.5637E-3	64.1158E-12	416.759E-3	-50.6040E-3
1.36318E-3	62.9980E-12	447.101E-3	-22.4192E-3	62.9435E-12	414.817E-3	-34.3938E-3
1.35818E-3	63.2369E-12	433.456E-3	-10.4215E-3	62.6084E-12	416.895E-3	-29.6390E-3
1.35318E-3	62.6899E-12	438.277E-3	-6.68275E-3	63.4001E-12	429.675E-3	-37.0224E-3
1.34817E-3	62.3835E-12	432.211E-3	-9.85267E-3	63.4864E-12	438.510E-3	-26.7909E-3
1.34317E-3	63.0993E-12	412.319E-3	-19.6051E-3	63.0426E-12	431.903E-3	-14.6471E-3
1.33817E-3	63.3815E-12	414.536E-3	-27.9965E-3	62.4337E-12	412.425E-3	-5.29923E-3
1.33317E-3	62.3685E-12	432.636E-3	-34.0385E-3	62.3518E-12	402.701E-3	-522.130E-6
1.32816E-3	62.0135E-12	429.895E-3	-38.2262E-3	63.0026E-12	401.361E-3	-22.0065E-3
1.32316E-3	62.8478E-12	411.790E-3	-29.5204E-3	63.0039E-12	381.842E-3	-35.1952E-3
1.31816E-3	62.8461E-12	401.503E-3	-30.2886E-3	61.9397E-12	375.181E-3	-16.3115E-3
1.31316E-3	62.2840E-12	397.512E-3	-35.6564E-3	62.0502E-12	385.106E-3	-2.71816E-3
1.30815E-3	62.7350E-12	398.851E-3	-23.3795E-3	62.8084E-12	388.053E-3	-1.77548E-3
1.30315E-3	62.6069E-12	390.416E-3	-7.16487E-3	63.0342E-12	385.703E-3	2.48867E-3
1.29815E-3	61.6081E-12	385.177E-3	-4.85463E-3	61.3969E-12	373.774E-3	-3.11250E-3
1.29315E-3	62.3064E-12	395.494E-3	-23.6824E-3	61.8591E-12	356.772E-3	-9.05140E-3
1.28814E-3	61.7956E-12	383.016E-3	-43.6838E-3	62.2032E-12	346.239E-3	3.89877E-3
1.28314E-3	61.0706E-12	356.737E-3	-43.2647E-3	61.8850E-12	336.392E-3	6.46427E-3
1.27814E-3	61.2453E-12	349.383E-3	-39.8723E-3	61.8963E-12	318.447E-3	-11.1384E-3
1.27314E-3	61.3781E-12	354.147E-3	-43.0759E-3	61.6939E-12	306.896E-3	-13.5885E-3
1.26813E-3	60.9839E-12	351.208E-3	-40.6476E-3	61.1366E-12	306.037E-3	-9.98749E-3
1.26313E-3	61.0495E-12	340.150E-3	-38.6710E-3	60.7850E-12	295.113E-3	-21.1334E-3
1.25813E-3	60.5397E-12	336.727E-3	-31.6004E-3	61.2397E-12	281.108E-3	-19.3909E-3
1.25313E-3	60.5535E-12	322.914E-3	-21.5646E-3	60.6643E-12	286.365E-3	-11.6482E-3
1.24812E-3	61.6561E-12	308.742E-3	-20.2278E-3	60.5117E-12	291.756E-3	-16.7969E-3
1.24312E-3	62.0358E-12	322.960E-3	-21.5457E-3	60.4995E-12	291.000E-3	-11.7373E-3
1.23812E-3	60.4433E-12	327.834E-3	-21.1498E-3	60.3256E-12	287.293E-3	-14.2857E-3
1.23312E-3	60.1466E-12	312.168E-3	-20.6142E-3	59.7767E-12	267.498E-3	-33.5805E-3
1.22811E-3	61.3824E-12	302.749E-3	-19.6023E-3	59.8510E-12	250.540E-3	-33.2854E-3
1.22311E-3	61.9212E-12	291.168E-3	-22.6565E-3	60.1577E-12	263.213E-3	-23.7483E-3
1.21811E-3	60.4686E-12	285.980E-3	-25.8070E-3	59.9379E-12	272.434E-3	-26.3952E-3
1.21311E-3	60.2276E-12	305.576E-3	-27.3798E-3	60.6150E-12	257.783E-3	-24.5080E-3
1.20810E-3	60.1293E-12	307.756E-3	-34.1754E-3	60.1105E-12	252.304E-3	-25.8204E-3
1.20310E-3	60.2510E-12	284.708E-3	-39.7936E-3	59.9662E-12	250.525E-3	-45.2845E-3
1.19810E-3	60.5451E-12	274.510E-3	-33.0806E-3	59.9704E-12	241.855E-3	-41.0636E-3
1.19310E-3	59.4773E-12	268.354E-3	-22.0549E-3	60.3211E-12	232.490E-3	-9.82139E-3
1.18809E-3	59.3608E-12	252.994E-3	-26.0597E-3	59.6969E-12	225.491E-3	2.21744E-3
1.18309E-3	58.9722E-12	243.467E-3	-32.8973E-3	59.9627E-12	225.945E-3	2.95057E-3
1.17809E-3	59.2502E-12	233.738E-3	-28.2213E-3	60.9978E-12	225.964E-3	1.14922E-3
1.17309E-3	59.0425E-12	218.285E-3	-33.3290E-3	59.9803E-12	227.364E-3	-5.06510E-3
1.16808E-3	58.6868E-12	220.534E-3	-44.4291E-3	58.9423E-12	227.668E-3	-6.64287E-3
1.16308E-3	58.2142E-12	227.867E-3	-36.9821E-3	60.8776E-12	229.689E-3	-16.6574E-3
1.15808E-3	58.4203E-12	207.413E-3	-19.1304E-3	60.6456E-12	241.448E-3	-37.7641E-3
1.15308E-3	59.4979E-12	193.580E-3	-16.9836E-3	59.5229E-12	239.824E-3	-37.8369E-3
1.14807E-3	59.4860E-12	213.111E-3	-27.2204E-3	58.7730E-12	225.068E-3	-14.1838E-3
1.14307E-3	58.9822E-12	223.089E-3	-30.3371E-3	59.1050E-12	205.499E-3	-12.8133E-3
1.13807E-3	58.9616E-12	209.971E-3	-28.8521E-3	59.4033E-12	188.727E-3	-22.2365E-3
1.13307E-3	60.1328E-12	200.140E-3	-17.4830E-3	58.8180E-12	200.365E-3	-12.7684E-3
1.12806E-3	60.2189E-12	187.568E-3	-5.06715E-3	58.7425E-12	214.200E-3	-17.3724E-3
1.12306E-3	59.3982E-12	180.306E-3	-12.2248E-3	58.8251E-12	201.558E-3	-25.3993E-3
1.11806E-3	59.1664E-12	200.564E-3	-21.7731E-3	58.8631E-12	180.069E-3	-7.43567E-3
1.11306E-3	58.9466E-12	210.679E-3	-21.5540E-3	58.4083E-12	173.624E-3	4.33608E-3
1.10805E-3	59.3480E-12	187.103E-3	-18.2056E-3	57.6232E-12	183.302E-3	-11.7902E-3
1.10305E-3	59.0818E-12	171.306E-3	-9.73642E-3	57.8025E-12	191.879E-3	-31.8016E-3
1.09805E-3	58.9011E-12	175.835E-3	-6.11156E-3	58.2850E-12	189.509E-3	-32.8104E-3
1.09305E-3	58.1660E-12	181.559E-3	-25.9015E-3	58.5362E-12	175.061E-3	-18.9979E-3
1.08804E-3	58.0240E-12	179.334E-3	-45.6348E-3	58.8210E-12	172.256E-3	-11.2690E-3
1.08304E-3	58.5983E-12	167.880E-3	-34.4668E-3	58.2972E-12	187.269E-3	-18.6074E-3
1.07804E-3	58.4436E-12	173.391E-3	-14.7149E-3	58.3445E-12	191.198E-3	-19.1427E-3
1.07304E-3	57.2272E-12	187.594E-3	-4.18862E-3	58.5627E-12	180.694E-3	-9.08041E-3
1.06803E-3	56.1645E-12	177.705E-3	-3.61643E-3	58.2805E-12	162.741E-3	-18.0714E-3
1.06303E-3	57.8917E-12	165.038E-3	-17.5011E-3	57.3669E-12	155.276E-3	-36.9410E-3
1.05803E-3	58.5101E-12	181.101E-3	-14.3215E-3	58.4634E-12	172.049E-3	-32.8092E-3
1.05303E-3	57.9390E-12	195.108E-3	4.39712E-3	58.0417E-12	183.222E-3	-15.3948E-3
1.04802E-3	57.3587E-12	187.275E-3	-9.57150E-3	58.0972E-12	172.196E-3	-8.32575E-3
1.04302E-3	57.7912E-12	182.290E-3	-43.1877E-3	57.8129E-12	160.155E-3	-11.1946E-3
1.03802E-3	58.5686E-12	177.680E-3	-45.1179E-3	57.5253E-12	160.952E-3	-14.8478E-3
1.03302E-3	58.9928E-12	182.645E-3	-30.2900E-3	57.4211E-12	163.355E-3	-20.9001E-3
1.02801E-3	57.9724E-12	189.950E-3	-34.4535E-3	57.4924E-12	160.662E-3	-29.1447E-3
1.02301E-3	57.8784E-12	179.196E-3	-32.1228E-3	57.6542E-12	166.349E-3	-35.6724E-3
1.01801E-3	58.2817E-12	168.998E-3	-23.6279E-3	57.7863E-12	176.014E-3	-34.1363E-3
1.01301E-3	57.6101E-12	171.331E-3	-29.9470E-3	57.3370E-12	192.828E-3	-24.5052E-3
1.00800E-3	57.9073E-12	183.896E-3	-17.9416E-3	57.7804E-12	209.134E-3	-13.9628E-3
1.00300E-3	57.9938E-12	190.530E-3	10.0204E-3	58.7260E-12	191.708E-3	-16.8764E-3
997.999E-6	57.2205E-12	185.258E-3	10.6997E-3	58.9831E-12	172.656E-3	-28.5823E-3
992.997E-6	57.1630E-12	183.385E-3	-1.82838E-3	58.1716E-12	192.020E-3	-34.8083E-3
987.994E-6	57.2730E-12	181.243E-3	-818.525E-6	57.7915E-12	214.488E-3	-40.0939E-3
982.991E-6	56.9999E-12	180.770E-3	-9.58395E-3	58.1628E-12	215.819E-3	-32.4234E-3
977.989E-6	56.7657E-12	182.687E-3	-28.7714E-3	58.6959E-12	217.121E-3	-22.5558E-3
972.986E-6	56.5719E-12	176.230E-3	-18.3943E-3	58.2114E-12	215.009E-3	-31.0030E-3
967.984E-6	55.9277E-12	167.591E-3	2.34485E-3	58.1641E-12	205.636E-3	-24.4163E-3
962.981E-6	56.2001E-12	172.535E-3	-1.76622E-3	56.8197E-12	221.071E-3	-8.73272E-3
957.979E-6	55.7494E-12	190.765E-3	-19.0615E-3	57.1241E-12	251.449E-3	-25.7361E-3
952.976E-6	55.8166E-12	198.845E-3	-35.0902E-3	56.9572E-12	252.690E-3	-44.4607E-3
947.974E-6	55.8125E-12	203.836E-3	-37.0395E-3	56.9275E-12	244.365E-3	-39.7080E-3
942.971E-6	56.3890E-12	220.533E-3	-18.8157E-3	57.1797E-12	266.027E-3	-36.5345E-3
937.969E-6	56.3632E-12	228.904E-3	-2.96956E-3	55.9619E-12	289.344E-3	-30.1101E-3
932.966E-6	56.3953E-12	244.068E-3	-4.41255E-3	55.8174E-12	290.633E-3	-1.62510E-3
927.964E-6	56.2559E-12	268.345E-3	-5.79004E-3	56.7342E-12	294.640E-3	13.5911E-3
922.961E-6	55.6746E-12	266.622E-3	-6.26188E-3	56.3317E-12	296.005E-3	-5.77658E-3
917.959E-6	56.6645E-12	272.306E-3	-5.57097E-3	55.2847E-12	292.204E-3	-7.03292E-3
912.956E-6	57.0125E-12	292.962E-3	-9.51821E-3	56.1195E-12	314.081E-3	2.73555E-3
907.954E-6	56.0542E-12	293.916E-3	-19.0631E-3	56.5290E-12	336.894E-3	-10.1042E-3
902.951E-6	55.4203E-12	296.825E-3	-16.1439E-3	56.1586E-12	339.624E-3	-19.2723E-3
897.949E-6	56.8771E-12	300.029E-3	-9.38008E-3	55.6087E-12	354.081E-3	-14.0274E-3
892.946E-6	56.5409E-12	294.685E-3	-8.83005E-3	55.4979E-12	380.555E-3	-20.9548E-3
887.944E-6	55.1472E-12	308.264E-3	-13.7671E-3	56.0656E-12	394.086E-3	-28.4237E-3
882.941E-6	55.7235E-12	333.779E-3	-23.0233E-3	55.7948E-12	401.743E-3	-13.0748E-3
877.939E-6	56.3435E-12	338.849E-3	-20.8626E-3	54.9569E-12	417.736E-3	-3.16370E-3
872.936E-6	56.5240E-12	345.517E-3	-9.14240E-3	54.3777E-12	424.921E-3	-7.46814E-3
867.934E-6	54.9152E-12	380.077E-3	-6.19771E-3	54.6552E-12	429.633E-3	-8.86749E-3
862.931E-6	54.4018E-12	404.767E-3	-15.4332E-3	54.7647E-12	449.745E-3	-16.2526E-3
857.929E-6	54.4403E-12	404.475E-3	-23.6603E-3	54.1622E-12	465.262E-3	-25.2870E-3
852.926E-6	54.9179E-12	400.794E-3	-31.2577E-3	53.5670E-12	470.288E-3	-21.7504E-3
847.924E-6	54.6028E-12	407.951E-3	-27.8442E-3	53.2952E-12	474.746E-3	-24.2751E-3
842.921E-6	53.6948E-12	429.379E-3	-7.40084E-3	53.6734E-12	484.456E-3	-30.7387E-3
837.919E-6	53.9720E-12	459.483E-3	-6.43715E-3	53.1415E-12	514.596E-3	-24.6078E-3
832.916E-6	54.1943E-12	488.532E-3	-18.5610E-3	52.8441E-12	551.289E-3	-19.7254E-3
827.914E-6	55.5600E-12	493.832E-3	-21.3283E-3	52.1164E-12	561.916E-3	-23.1375E-3
822.911E-6	54.5212E-12	489.591E-3	-27.7568E-3	52.8514E-12	575.553E-3	-22.5189E-3
817.909E-6	53.5939E-12	505.182E-3	-28.0023E-3	52.7966E-12	613.756E-3	-23.3020E-3
812.906E-6	53.9659E-12	521.971E-3	-18.0244E-3	51.5190E-12	621.720E-3	-24.1108E-3
807.904E-6	54.9033E-12	537.286E-3	-14.2992E-3	51.1216E-12	621.973E-3	-16.7085E-3
802.901E-6	54.3439E-12	564.744E-3	-12.2110E-3	51.4902E-12	657.429E-3	-23.9285E-3
797.899E-6	53.0193E-12	596.126E-3	-20.1011E-3	51.2111E-12	679.392E-3	-32.0935E-3
792.896E-6	52.6746E-12	623.104E-3	-29.5717E-3	50.7961E-12	676.957E-3	-15.8099E-3
787.894E-6	53.1729E-12	650.064E-3	-24.2950E-3	50.7982E-12	695.554E-3	-925.825E-6
782.891E-6	52.9381E-12	677.482E-3	-18.4299E-3	50.0031E-12	738.260E-3	-4.67981E-3
777.889E-6	51.8404E-12	701.119E-3	-11.2456E-3	50.1114E-12	770.783E-3	-9.87710E-3
772.886E-6	50.9249E-12	710.657E-3	-12.7157E-3	50.6539E-12	788.711E-3	-9.66909E-3
767.884E-6	50.8639E-12	707.607E-3	-17.3156E-3	50.5756E-12	809.348E-3	-17.2234E-3
762.881E-6	50.7821E-12	705.674E-3	-2.38526E-3	49.7915E-12	836.785E-3	-35.3306E-3
757.879E-6	49.9006E-12	723.385E-3	-9.10660E-3	49.8963E-12	856.928E-3	-49.4704E-3
752.876E-6	49.4414E-12	768.182E-3	-31.6870E-3	50.1668E-12	867.489E-3	-43.4681E-3
747.874E-6	49.4752E-12	795.150E-3	-16.1307E-3	49.2367E-12	894.890E-3	-22.4703E-3
742.871E-6	49.2796E-12	808.532E-3	-9.58557E-3	48.8555E-12	941.654E-3	-13.0176E-3
737.869E-6	48.7672E-12	845.180E-3	-36.2920E-3	49.2583E-12	975.997E-3	-25.6264E-3
732.866E-6	48.3326E-12	875.823E-3	-39.4696E-3	48.9764E-12	996.351E-3	-31.0367E-3
727.864E-6	47.7879E-12	878.861E-3	-28.9520E-3	47.9050E-12	1.01291E+0	-7.72086E-3
722.861E-6	48.5980E-12	883.138E-3	-25.1607E-3	48.0640E-12	1.01228E+0	3.02282E-3
717.859E-6	48.4313E-12	909.429E-3	-11.5483E-3	47.7863E-12	1.01055E+0	-14.2520E-3
712.856E-6	47.6356E-12	942.876E-3	-8.61378E-3	46.9246E-12	1.04085E+0	-19.6597E-3
707.854E-6	46.8014E-12	971.343E-3	-16.1484E-3	46.4657E-12	1.08040E+0	-22.4882E-3
702.851E-6	47.5047E-12	997.610E-3	-15.0159E-3	46.4735E-12	1.10318E+0	-28.2147E-3
697.849E-6	47.4043E-12	1.02131E+0	-11.1170E-3	46.3047E-12	1.12995E+0	-10.4055E-3
692.846E-6	46.2927E-12	1.05590E+0	-15.7045E-3	45.8384E-12	1.16944E+0	9.38212E-3
687.844E-6	46.0438E-12	1.10315E+0	-24.1099E-3	45.5685E-12	1.20095E+0	13.1986E-3
682.841E-6	45.1122E-12	1.12834E+0	-20.2585E-3	45.2883E-12	1.22233E+0	4.53383E-3
677.839E-6	44.5309E-12	1.13955E+0	-19.9414E-3	45.2437E-12	1.24645E+0	-13.6121E-3
672.836E-6	43.9517E-12	1.16215E+0	-19.7720E-3	45.5056E-12	1.27073E+0	-28.9088E-3
667.834E-6	43.7344E-12	1.18216E+0	-13.0910E-3	44.3491E-12	1.30745E+0	-30.8471E-3
662.831E-6	42.9977E-12	1.20136E+0	-22.0217E-3	44.2101E-12	1.34176E+0	-22.3434E-3
657.829E-6	42.0182E-12	1.22922E+0	-32.6558E-3	44.0098E-12	1.34996E+0	-18.6946E-3
652.826E-6	41.7456E-12	1.24763E+0	-25.7277E-3	43.6234E-12	1.36007E+0	-15.2251E-3
647.824E-6	41.7444E-12	1.25251E+0	-17.7685E-3	42.6319E-12	1.38501E+0	-8.48711E-3
642.821E-6	41.5428E-12	1.26593E+0	-21.4657E-3	42.6481E-12	1.39944E+0	-6.61033E-3
637.819E-6	40.3206E-12	1.28762E+0	-23.0223E-3	42.2963E-12	1.40175E+0	-2.44712E-3
632.816E-6	40.5352E-12	1.29566E+0	-30.8362E-3	41.6551E-12	1.42700E+0	-3.88239E-3
627.814E-6	40.5773E-12	1.30215E+0	-42.6138E-3	41.0262E-12	1.46590E+0	-18.2795E-3
622.811E-6	39.9537E-12	1.33227E+0	-26.7278E-3	40.3042E-12	1.48573E+0	-28.7500E-3
617.809E-6	39.0382E-12	1.37433E+0	-8.45888E-3	40.0393E-12	1.49690E+0	-24.6839E-3
612.806E-6	38.5259E-12	1.41050E+0	-8.62992E-3	39.6953E-12	1.51571E+0	-18.3669E-3
607.804E-6	39.0830E-12	1.43103E+0	-5.84209E-3	38.8684E-12	1.53066E+0	-19.4465E-3
602.801E-6	38.5813E-12	1.44076E+0	-4.52609E-3	38.7722E-12	1.55282E+0	-23.9694E-3
597.799E-6	37.2339E-12	1.46282E+0	-6.78230E-3	38.3109E-12	1.57293E+0	-26.0838E-3
592.796E-6	36.8443E-12	1.49018E+0	-12.7576E-3	37.9171E-12	1.56885E+0	-16.1392E-3
587.794E-6	37.2122E-12	1.49734E+0	-12.9976E-3	37.6443E-12	1.57653E+0	-12.8577E-3
582.791E-6	36.5489E-12	1.50928E+0	-5.49826E-3	36.6646E-12	1.59369E+0	-24.2444E-3
577.789E-6	35.7120E-12	1.54580E+0	-1.57015E-3	36.0482E-12	1.60483E+0	-13.2656E-3
572.786E-6	34.9133E-12	1.56888E+0	352.164E-6	36.0386E-12	1.61807E+0	4.61299E-3
567.784E-6	34.4588E-12	1.56309E+0	-3.49901E-3	35.9257E-12	1.62160E+0	-12.4810E-3
562.781E-6	34.2796E-12	1.55631E+0	-4.64160E-3	34.9146E-12	1.62197E+0	-28.0936E-3
557.779E-6	33.4286E-12	1.57574E+0	7.21195E-3	33.9741E-12	1.63780E+0	-22.5340E-3
552.776E-6	33.1047E-12	1.60226E+0	13.0840E-3	33.8505E-12	1.65092E+0	-24.5728E-3
547.774E-6	32.0891E-12	1.60744E+0	2.70997E-3	33.4452E-12	1.64336E+0	-20.4297E-3
542.771E-6	31.3121E-12	1.60201E+0	-9.17314E-3	32.3409E-12	1.63061E+0	-5.19558E-3
537.769E-6	31.7593E-12	1.59396E+0	-9.15749E-3	31.5635E-12	1.62107E+0	1.01689E-3
532.766E-6	31.5437E-12	1.60105E+0	-11.0963E-3	31.2426E-12	1.60515E+0	-1.92757E-3
527.764E-6	29.9333E-12	1.63192E+0	-29.7075E-3	30.4431E-12	1.59913E+0	-7.48363E-3
522.761E-6	29.3320E-12	1.64510E+0	-48.4749E-3	29.4969E-12	1.62009E+0	-14.6751E-3
517.759E-6	29.5610E-12	1.63477E+0	-48.6231E-3	28.7998E-12	1.64859E+0	-20.3271E-3
512.756E-6	29.5562E-12	1.64546E+0	-19.1223E-3	28.5433E-12	1.66282E+0	-15.1870E-3
507.754E-6	28.3536E-12	1.67868E+0	7.82002E-3	27.9481E-12	1.65511E+0	652.527E-6
502.751E-6	27.2366E-12	1.69553E+0	3.26952E-3	27.2163E-12	1.63501E+0	3.70613E-3
497.749E-6	26.9439E-12	1.67138E+0	-6.03507E-3	26.5530E-12	1.61958E+0	-4.46021E-3
492.746E-6	27.4201E-12	1.63409E+0	-18.9394E-3	26.3281E-12	1.62466E+0	-7.80851E-3
487.744E-6	26.3578E-12	1.63919E+0	-33.7173E-3	25.8573E-12	1.64003E+0	-14.7217E-3
482.741E-6	25.0500E-12	1.66343E+0	-27.8510E-3	24.9352E-12	1.63459E+0	-13.9624E-3
477.739E-6	24.7239E-12	1.64867E+0	-21.2945E-3	24.6864E-12	1.61911E+0	-4.12991E-3
472.736E-6	24.7530E-12	1.61922E+0	-24.6047E-3	24.6622E-12	1.60940E+0	-647.844E-6
467.734E-6	24.1864E-12	1.61491E+0	-16.9149E-3	23.9262E-12	1.59554E+0	-1.37354E-3
462.731E-6	23.2373E-12	1.63637E+0	-8.72028E-3	23.0574E-12	1.59220E+0	-3.91254E-3
457.729E-6	22.7863E-12	1.65173E+0	-16.2129E-3	22.6292E-12	1.59297E+0	-9.51166E-3
452.726E-6	22.1846E-12	1.63625E+0	-19.4842E-3	22.5924E-12	1.57409E+0	-12.2679E-3
447.724E-6	21.9580E-12	1.61501E+0	-9.83085E-3	21.8338E-12	1.55570E+0	-2.00106E-3
442.721E-6	21.4256E-12	1.60142E+0	208.914E-6	21.0712E-12	1.54716E+0	7.99579E-3
437.719E-6	20.7173E-12	1.59080E+0	667.480E-6	20.5616E-12	1.52525E+0	1.35740E-3
432.716E-6	20.1626E-12	1.57932E+0	-7.31870E-3	20.1416E-12	1.49554E+0	-5.88804E-3
427.714E-6	19.7053E-12	1.56293E+0	-12.5717E-3	19.5908E-12	1.46989E+0	-7.90615E-3
422.711E-6	19.2780E-12	1.55096E+0	-17.3687E-3	18.8017E-12	1.45833E+0	-14.1291E-3
417.709E-6	18.5572E-12	1.54160E+0	-19.9642E-3	18.5615E-12	1.46462E+0	-14.1498E-3
412.706E-6	18.2216E-12	1.52837E+0	-13.9928E-3	18.1106E-12	1.46452E+0	-11.6518E-3
407.704E-6	17.5732E-12	1.51912E+0	-8.43531E-3	17.7104E-12	1.44658E+0	-17.7422E-3
402.701E-6	17.6161E-12	1.51371E+0	-16.6001E-3	16.8266E-12	1.41170E+0	-29.7084E-3
397.699E-6	17.1276E-12	1.49679E+0	-25.0708E-3	16.6674E-12	1.37710E+0	-29.5794E-3
392.696E-6	16.2603E-12	1.47924E+0	-16.4708E-3	16.4943E-12	1.35558E+0	-29.5908E-3
387.694E-6	15.9281E-12	1.46627E+0	-13.2025E-3	15.5114E-12	1.33488E+0	-35.3699E-3
382.691E-6	15.9853E-12	1.44003E+0	-21.6391E-3	15.1307E-12	1.31399E+0	-29.0741E-3
377.689E-6	15.4805E-12	1.42341E+0	-19.2599E-3	14.7534E-12	1.29052E+0	-35.1807E-3
372.686E-6	14.5987E-12	1.43314E+0	-15.3784E-3	14.5267E-12	1.26343E+0	-40.3270E-3
367.684E-6	14.1264E-12	1.43000E+0	-14.1369E-3	13.6710E-12	1.23542E+0	-31.3583E-3
362.681E-6	14.1400E-12	1.38651E+0	-6.79225E-3	13.4018E-12	1.20740E+0	-25.1539E-3
357.679E-6	13.7641E-12	1.33839E+0	-11.8013E-3	13.2190E-12	1.18926E+0	-13.4849E-3
352.676E-6	12.7422E-12	1.32881E+0	-25.0583E-3	12.7942E-12	1.18278E+0	-13.1594E-3
347.674E-6	12.1897E-12	1.31488E+0	-27.2087E-3	12.1970E-12	1.16384E+0	-25.3741E-3
342.671E-6	12.0363E-12	1.25842E+0	-25.3233E-3	11.9219E-12	1.11536E+0	-19.0920E-3
337.669E-6	11.7342E-12	1.21297E+0	-25.4829E-3	11.8977E-12	1.07669E+0	-3.73931E-3
332.666E-6	11.0405E-12	1.19115E+0	-22.8163E-3	11.3217E-12	1.08452E+0	-4.72740E-3
327.664E-6	10.4353E-12	1.16240E+0	-19.2646E-3	10.6742E-12	1.09073E+0	-5.95309E-3
322.661E-6	10.2092E-12	1.13365E+0	-20.7869E-3	10.3570E-12	1.05396E+0	2.84659E-3
317.659E-6	9.98082E-12	1.10709E+0	-17.0726E-3	10.4601E-12	1.00793E+0	1.24711E-3
312.656E-6	9.61088E-12	1.07329E+0	-7.23734E-3	9.98466E-12	981.468E-3	-6.79181E-3
307.654E-6	9.06699E-12	1.04493E+0	-5.57607E-3	9.31034E-12	977.307E-3	-9.18254E-3
302.651E-6	8.95413E-12	1.02552E+0	-12.6827E-3	9.11573E-12	960.306E-3	-15.0662E-3
297.649E-6	8.67067E-12	997.365E-3	-21.9641E-3	9.10028E-12	914.879E-3	-21.0181E-3
292.646E-6	8.46152E-12	967.979E-3	-27.5089E-3	8.73282E-12	885.784E-3	-22.5738E-3
287.644E-6	8.11753E-12	955.691E-3	-24.7056E-3	8.06168E-12	862.320E-3	-33.2767E-3
282.641E-6	7.76702E-12	942.706E-3	-23.2827E-3	7.88380E-12	818.710E-3	-42.4952E-3
277.639E-6	7.51874E-12	920.364E-3	-25.5245E-3	7.84566E-12	782.954E-3	-38.2528E-3
272.636E-6	7.22927E-12	902.414E-3	-25.1007E-3	7.39708E-12	772.326E-3	-32.1637E-3
267.634E-6	7.05204E-12	879.372E-3	-16.1447E-3	6.89083E-12	767.653E-3	-23.3596E-3
262.631E-6	6.65255E-12	839.245E-3	-4.84623E-3	6.73685E-12	755.178E-3	-6.82564E-3
257.629E-6	6.34506E-12	796.891E-3	-7.39677E-3	6.77167E-12	736.314E-3	-3.30555E-3
252.626E-6	6.19113E-12	767.293E-3	-10.6923E-3	6.39121E-12	709.831E-3	-18.6876E-3
247.624E-6	6.04600E-12	742.643E-3	-6.79421E-3	6.01079E-12	687.899E-3	-31.3646E-3
242.621E-6	5.81214E-12	731.126E-3	-9.41644E-3	5.91829E-12	670.832E-3	-37.1579E-3
237.619E-6	5.53163E-12	725.378E-3	-15.0556E-3	5.97696E-12	642.941E-3	-31.7845E-3
232.616E-6	5.24733E-12	713.861E-3	-19.6293E-3	5.54280E-12	609.578E-3	-14.1444E-3
227.614E-6	5.15067E-12	698.755E-3	-32.9320E-3	5.08890E-12	583.320E-3	-8.59877E-3
222.611E-6	4.83083E-12	662.708E-3	-36.8637E-3	4.99472E-12	562.105E-3	-12.1490E-3
217.609E-6	4.51889E-12	617.988E-3	-21.1420E-3	4.94111E-12	542.752E-3	-8.19882E-3
212.606E-6	4.39874E-12	586.311E-3	-5.06785E-3	4.55300E-12	523.306E-3	-14.0957E-3
207.604E-6	4.46241E-12	564.531E-3	2.76865E-3	4.21539E-12	508.092E-3	-29.3751E-3
202.601E-6	4.15839E-12	551.967E-3	1.46868E-3	4.21608E-12	492.204E-3	-24.2486E-3
197.599E-6	3.84441E-12	546.260E-3	-8.40706E-3	4.08989E-12	469.549E-3	-5.49008E-3
192.596E-6	3.82029E-12	526.499E-3	-14.3105E-3	3.83063E-12	444.806E-3	1.77352E-3
187.594E-6	3.72306E-12	496.486E-3	-15.9393E-3	3.53042E-12	424.158E-3	6.45316E-3
182.591E-6	3.50002E-12	480.674E-3	-27.0177E-3	3.47144E-12	413.565E-3	5.92044E-3
177.589E-6	3.25370E-12	474.759E-3	-29.0437E-3	3.37161E-12	405.870E-3	-2.98061E-3
172.586E-6	3.21205E-12	462.029E-3	-13.4296E-3	3.17444E-12	397.096E-3	-9.08323E-3
167.584E-6	3.10161E-12	440.147E-3	-4.35518E-3	2.93848E-12	387.052E-3	-16.3248E-3
162.581E-6	2.92599E-12	420.414E-3	-8.16689E-3	2.93447E-12	371.734E-3	-22.4984E-3
157.579E-6	2.67942E-12	411.660E-3	-16.6338E-3	2.84231E-12	350.221E-3	-18.9489E-3
152.576E-6	2.59204E-12	406.580E-3	-26.9717E-3	2.53574E-12	335.685E-3	-7.91596E-3
147.574E-6	2.52970E-12	390.095E-3	-32.2504E-3	2.44104E-12	328.876E-3	-7.53920E-3
142.571E-6	2.31474E-12	360.677E-3	-31.4081E-3	2.52886E-12	320.249E-3	-13.0889E-3
137.569E-6	2.17459E-12	346.681E-3	-33.0065E-3	2.29504E-12	310.158E-3	-12.0223E-3
132.566E-6	2.15379E-12	356.016E-3	-33.3649E-3	2.02717E-12	299.187E-3	-13.2251E-3
127.564E-6	2.06614E-12	347.526E-3	-24.0469E-3	2.00775E-12	289.472E-3	-13.7863E-3
122.561E-6	1.83437E-12	321.186E-3	-21.3284E-3	2.01799E-12	285.694E-3	-13.8791E-3
117.559E-6	1.78374E-12	310.061E-3	-30.0859E-3	1.81768E-12	282.827E-3	-23.6140E-3
112.556E-6	1.76731E-12	304.781E-3	-26.3394E-3	1.58546E-12	267.885E-3	-23.5903E-3
107.554E-6	1.59813E-12	282.402E-3	-24.3456E-3	1.50235E-12	257.072E-3	-10.7413E-3
102.551E-6	1.37887E-12	265.653E-3	-22.0641E-3	1.57533E-12	256.781E-3	-8.47071E-3
97.5488E-6	1.44097E-12	267.725E-3	3.94437E-3	1.44708E-12	249.734E-3	-13.6977E-3
92.5463E-6	1.39912E-12	265.638E-3	17.1753E-3	1.15333E-12	241.490E-3	-13.1403E-3
87.5438E-6	1.21223E-12	261.873E-3	3.11814E-3	1.20454E-12	237.052E-3	-11.4373E-3
82.5413E-6	1.04631E-12	256.691E-3	-4.55954E-3	1.27485E-12	222.034E-3	-13.6764E-3
77.5388E-6	1.07504E-12	245.352E-3	-5.77550E-3	1.09401E-12	207.652E-3	-12.0808E-3
72.5363E-6	1.08441E-12	236.596E-3	-17.6051E-3	835.874E-15	211.654E-3	-10.3253E-3
67.5338E-6	879.950E-15	234.548E-3	-24.8752E-3	859.879E-15	215.877E-3	-13.0384E-3
62.5313E-6	765.797E-15	227.341E-3	-16.9300E-3	943.261E-15	214.012E-3	-11.5159E-3
57.5288E-6	784.430E-15	216.317E-3	-4.17293E-3	716.568E-15	212.558E-3	-7.10540E-3
52.5263E-6	775.284E-15	222.909E-3	894.165E-6	577.495E-15	206.125E-3	-11.8691E-3
47.5238E-6	548.704E-15	230.240E-3	-9.49971E-3	612.137E-15	200.873E-3	-23.6578E-3
42.5213E-6	482.742E-15	223.660E-3	-21.6261E-3	647.720E-15	208.118E-3	-25.3303E-3
37.5188E-6	502.431E-15	215.648E-3	-16.0223E-3	402.839E-15	215.073E-3	-15.2023E-3
32.5163E-6	468.373E-15	209.897E-3	-4.74660E-3	302.785E-15	211.923E-3	-9.18385E-3
27.5138E-6	235.062E-15	210.569E-3	-10.3864E-3	373.001E-15	214.422E-3	-12.2574E-3
22.5113E-6	154.731E-15	209.151E-3	-22.2207E-3	286.340E-15	219.827E-3	-23.2499E-3
17.5088E-6	218.791E-15	198.988E-3	-22.5769E-3	47.3961E-15	213.982E-3	-31.2067E-3
12.5063E-6	113.410E-15	196.267E-3	-19.8615E-3	9.26652E-15	212.288E-3	-19.4766E-3
7.50375E-6	-87.3173E-15	197.528E-3	-10.6621E-3	122.931E-15	220.271E-3	-3.98806E-3
2.50125E-6	-68.0301E-15	200.616E-3	-1.13751E-3	9.68505E-15	220.419E-3	-440.264E-6
-2.50125E-6	-69.3991E-15	207.126E-3	-10.8459E-3	-198.689E-15	228.348E-3	-4.64357E-3
-7.50375E-6	-158.231E-15	212.579E-3	-20.0765E-3	-289.596E-15	238.084E-3	-7.70348E-3
-12.5063E-6	-391.708E-15	218.015E-3	-22.4103E-3	-177.065E-15	228.317E-3	-5.24772E-3
-17.5088E-6	-420.517E-15	209.338E-3	-29.6702E-3	-307.148E-15	226.208E-3	-7.14586E-3
-22.5113E-6	-341.067E-15	205.244E-3	-27.5668E-3	-609.691E-15	236.294E-3	-8.59181E-3
-27.5138E-6	-519.734E-15	218.311E-3	-12.9095E-3	-593.072E-15	240.258E-3	-1.87669E-3
-32.5163E-6	-720.627E-15	228.426E-3	-6.13060E-3	-498.999E-15	257.259E-3	-6.10218E-3
-37.5188E-6	-706.868E-15	237.744E-3	-16.9688E-3	-655.249E-15	286.676E-3	-16.9382E-3
-42.5213E-6	-697.669E-15	244.046E-3	-27.4461E-3	-912.138E-15	301.128E-3	-16.9319E-3
-47.5238E-6	-877.365E-15	248.163E-3	-22.1639E-3	-914.657E-15	300.798E-3	-15.3711E-3
-52.5263E-6	-1.02321E-12	260.646E-3	-15.5580E-3	-851.861E-15	293.926E-3	-13.9184E-3
-57.5288E-6	-1.00166E-12	268.806E-3	-20.0826E-3	-1.05053E-12	296.306E-3	-10.7546E-3
-62.5313E-6	-1.01755E-12	269.461E-3	-23.9586E-3	-1.26947E-12	318.073E-3	-4.93781E-3
-67.5338E-6	-1.28045E-12	277.106E-3	-24.7098E-3	-1.20241E-12	337.075E-3	-5.86234E-3
-72.5363E-6	-1.42956E-12	282.807E-3	-26.0563E-3	-1.28477E-12	338.319E-3	-17.8274E-3
-77.5388E-6	-1.42175E-12	290.447E-3	-24.2275E-3	-1.52626E-12	341.760E-3	-21.4339E-3
-82.5413E-6	-1.50190E-12	311.327E-3	-17.3403E-3	-1.72262E-12	358.018E-3	-14.8879E-3
-87.5438E-6	-1.70015E-12	322.670E-3	-13.1535E-3	-1.65654E-12	366.767E-3	-12.1697E-3
-92.5463E-6	-1.85725E-12	314.975E-3	-13.5879E-3	-1.72782E-12	371.964E-3	-9.24954E-3
-97.5488E-6	-1.80328E-12	315.432E-3	-10.9762E-3	-2.11112E-12	393.129E-3	-13.0032E-3
-102.551E-6	-1.99420E-12	329.001E-3	-9.32959E-3	-2.17260E-12	421.943E-3	-17.4538E-3
-107.554E-6	-2.24786E-12	344.983E-3	-10.6207E-3	-2.10753E-12	448.712E-3	1.68522E-3
-112.556E-6	-2.33093E-12	365.767E-3	-22.2556E-3	-2.28692E-12	472.022E-3	8.00410E-3
-117.559E-6	-2.37479E-12	387.351E-3	-33.4423E-3	-2.70070E-12	481.274E-3	-11.8930E-3
-122.561E-6	-2.62628E-12	409.116E-3	-24.2419E-3	-2.78128E-12	485.909E-3	-15.9469E-3
-127.564E-6	-2.88035E-12	429.387E-3	-17.9542E-3	-2.71996E-12	508.872E-3	-5.29586E-3
-132.566E-6	-2.97732E-12	454.994E-3	-27.3722E-3	-2.93789E-12	534.513E-3	-8.59801E-3
-137.569E-6	-3.04066E-12	479.670E-3	-24.0067E-3	-3.33369E-12	546.411E-3	-21.0085E-3
-142.571E-6	-3.32848E-12	489.496E-3	-12.7657E-3	-3.41914E-12	558.571E-3	-19.0644E-3
-147.574E-6	-3.66924E-12	503.552E-3	-9.67297E-3	-3.34967E-12	586.591E-3	-19.0162E-3
-152.576E-6	-3.66794E-12	526.377E-3	-12.4352E-3	-3.62844E-12	632.616E-3	-23.6728E-3
-157.579E-6	-3.66228E-12	545.688E-3	-24.2370E-3	-4.03444E-12	673.597E-3	-12.0385E-3
-162.581E-6	-4.01572E-12	565.202E-3	-34.6715E-3	-4.09673E-12	701.111E-3	-5.61364E-3
-167.584E-6	-4.44238E-12	584.235E-3	-32.4728E-3	-4.20289E-12	722.658E-3	-10.8067E-3
-172.586E-6	-4.46424E-12	607.580E-3	-21.7677E-3	-4.60383E-12	737.104E-3	-14.5917E-3
-177.589E-6	-4.61531E-12	637.763E-3	-17.6742E-3	-5.00178E-12	767.675E-3	-22.8798E-3
-182.591E-6	-5.04517E-12	665.927E-3	-18.3820E-3	-5.09838E-12	805.151E-3	-28.3052E-3
-187.594E-6	-5.37128E-12	691.438E-3	-13.3379E-3	-5.25029E-12	828.764E-3	-17.4428E-3
-192.596E-6	-5.50898E-12	718.829E-3	-4.60255E-3	-5.67086E-12	866.931E-3	-4.21409E-3
-197.599E-6	-5.59666E-12	756.394E-3	-1.78133E-3	-5.96187E-12	912.684E-3	-8.64910E-3
-202.601E-6	-6.03981E-12	784.186E-3	-13.4024E-3	-6.03516E-12	941.636E-3	-18.4896E-3
-207.604E-6	-6.42607E-12	808.776E-3	-18.3188E-3	-6.37425E-12	970.038E-3	-17.6746E-3
-212.606E-6	-6.67585E-12	839.187E-3	-11.9665E-3	-6.91599E-12	1.00820E+0	-8.02218E-3
-217.609E-6	-6.86827E-12	861.400E-3	-15.6329E-3	-7.10875E-12	1.05651E+0	3.26888E-3
-222.611E-6	-7.39382E-12	896.130E-3	-17.8776E-3	-7.22704E-12	1.10286E+0	4.32097E-3
-227.614E-6	-7.78416E-12	943.509E-3	-9.29415E-3	-7.73804E-12	1.14141E+0	-6.01224E-3
-232.616E-6	-8.07642E-12	988.002E-3	-6.03190E-3	-8.31954E-12	1.18803E+0	-14.9928E-3
-237.619E-6	-8.38343E-12	1.03820E+0	-14.7360E-3	-8.49948E-12	1.23474E+0	-24.4287E-3
-242.621E-6	-8.93012E-12	1.08901E+0	-21.7016E-3	-8.57938E-12	1.26440E+0	-34.2050E-3
-247.624E-6	-9.21548E-12	1.12600E+0	-25.5705E-3	-9.30071E-12	1.29830E+0	-22.3982E-3
-252.626E-6	-9.43731E-12	1.15170E+0	-37.9406E-3	-10.0056E-12	1.35758E+0	-7.12011E-3
-257.629E-6	-9.92723E-12	1.17813E+0	-38.6632E-3	-10.1132E-12	1.41770E+0	-16.9034E-3
-262.631E-6	-10.5302E-12	1.21434E+0	-19.8074E-3	-10.2644E-12	1.46782E+0	-24.5624E-3
-267.634E-6	-10.8948E-12	1.25995E+0	-14.3726E-3	-11.1083E-12	1.51213E+0	-17.2803E-3
-272.636E-6	-11.1357E-12	1.31141E+0	-17.0090E-3	-12.0080E-12	1.55576E+0	-14.9538E-3
-277.639E-6	-11.6987E-12	1.35962E+0	-11.7317E-3	-12.0641E-12	1.60944E+0	-18.8258E-3
-282.641E-6	-12.3814E-12	1.40459E+0	-9.20879E-3	-12.3054E-12	1.66094E+0	-28.7086E-3
-287.644E-6	-12.6945E-12	1.45429E+0	-13.7963E-3	-13.0414E-12	1.70274E+0	-30.6683E-3
-292.646E-6	-12.9359E-12	1.50891E+0	-22.9074E-3	-13.8902E-12	1.74913E+0	-16.5954E-3
-297.649E-6	-13.6634E-12	1.55154E+0	-39.3179E-3	-14.2044E-12	1.80236E+0	-8.18366E-3
-302.651E-6	-14.6445E-12	1.58559E+0	-43.2586E-3	-14.4917E-12	1.84788E+0	-3.76903E-3
-307.654E-6	-15.0098E-12	1.63379E+0	-23.2340E-3	-15.4321E-12	1.88947E+0	3.07151E-3
-312.656E-6	-15.3429E-12	1.69456E+0	-17.6466E-3	-16.1594E-12	1.94134E+0	1.66064E-3
-317.659E-6	-16.0688E-12	1.74885E+0	-22.7559E-3	-16.5199E-12	1.99784E+0	-12.1447E-3
-322.661E-6	-17.0202E-12	1.78049E+0	-11.1304E-3	-16.9593E-12	2.05997E+0	-15.7916E-3
-327.664E-6	-17.4848E-12	1.81723E+0	-1.02528E-3	-17.8960E-12	2.12253E+0	-4.91460E-3
-332.666E-6	-17.9026E-12	1.89081E+0	3.59363E-3	-18.6716E-12	2.16638E+0	-15.8204E-3
-337.669E-6	-18.6666E-12	1.95842E+0	7.49382E-3	-19.1550E-12	2.21167E+0	-27.4039E-3
-342.671E-6	-19.5354E-12	1.99076E+0	1.69135E-3	-19.8279E-12	2.27345E+0	-10.3827E-3
-347.674E-6	-20.1848E-12	2.03064E+0	-6.56156E-3	-20.7536E-12	2.33276E+0	5.56979E-3
-352.676E-6	-20.4542E-12	2.09482E+0	-13.9472E-3	-21.5462E-12	2.37569E+0	-2.25601E-3
-357.679E-6	-21.4558E-12	2.14469E+0	-20.8591E-3	-21.9628E-12	2.41071E+0	-15.3107E-3
-362.681E-6	-22.2453E-12	2.17864E+0	-22.2488E-3	-22.8718E-12	2.46449E+0	-11.8949E-3
-367.684E-6	-22.8920E-12	2.21915E+0	-15.2373E-3	-23.9485E-12	2.53400E+0	-2.76070E-3
-372.686E-6	-23.6797E-12	2.26750E+0	-18.2736E-3	-24.7301E-12	2.59308E+0	-3.81454E-3
-377.689E-6	-24.5195E-12	2.32114E+0	-30.4105E-3	-25.2747E-12	2.62718E+0	-16.9271E-3
-382.691E-6	-25.5328E-12	2.37104E+0	-21.1166E-3	-26.4905E-12	2.64818E+0	-28.3167E-3
-387.694E-6	-26.0337E-12	2.40955E+0	-11.8495E-3	-27.5953E-12	2.69060E+0	-27.7802E-3
-392.696E-6	-26.7903E-12	2.46330E+0	-19.2674E-3	-27.9506E-12	2.74722E+0	-23.2617E-3
-397.699E-6	-27.8908E-12	2.53046E+0	-16.9277E-3	-28.2478E-12	2.78009E+0	-16.9428E-3
-402.701E-6	-28.5610E-12	2.57069E+0	-12.5745E-3	-29.8407E-12	2.81689E+0	-15.5077E-3
-407.704E-6	-29.0968E-12	2.60374E+0	-13.6224E-3	-30.9335E-12	2.87111E+0	-22.8850E-3
-412.706E-6	-30.2186E-12	2.64330E+0	-13.2632E-3	-31.2361E-12	2.90067E+0	-29.1172E-3
-417.709E-6	-31.4987E-12	2.66700E+0	-17.6714E-3	-32.0073E-12	2.92496E+0	-21.5041E-3
-422.711E-6	-32.3773E-12	2.69686E+0	-24.9186E-3	-33.1445E-12	2.95940E+0	-3.27625E-3
-427.714E-6	-33.0886E-12	2.74680E+0	-31.5244E-3	-34.5650E-12	2.98997E+0	-631.321E-6
-432.716E-6	-34.5437E-12	2.79073E+0	-33.3508E-3	-35.0010E-12	3.02454E+0	-13.5351E-3
-437.719E-6	-35.7070E-12	2.83125E+0	-30.0825E-3	-35.6574E-12	3.04813E+0	-19.8231E-3
-442.721E-6	-36.5167E-12	2.87884E+0	-23.0836E-3	-37.2574E-12	3.05277E+0	-13.2605E-3
-447.724E-6	-37.2880E-12	2.92277E+0	-23.3521E-3	-38.5289E-12	3.06807E+0	-6.73859E-3
-452.726E-6	-38.7536E-12	2.96195E+0	-31.8202E-3	-38.7775E-12	3.10225E+0	-10.8500E-3
-457.729E-6	-40.1925E-12	3.00759E+0	-29.4090E-3	-39.4971E-12	3.12720E+0	-24.1564E-3
-462.731E-6	-41.1941E-12	3.04999E+0	-18.3049E-3	-41.6636E-12	3.13953E+0	-33.9035E-3
-467.734E-6	-41.7920E-12	3.09158E+0	-15.6180E-3	-42.5746E-12	3.15799E+0	-21.7524E-3
-472.736E-6	-43.4159E-12	3.12793E+0	-30.6700E-3	-42.9571E-12	3.18520E+0	-15.9055E-3
-477.739E-6	-44.3671E-12	3.14079E+0	-40.5116E-3	-43.6825E-12	3.19763E+0	-33.5221E-3
-482.741E-6	-44.6679E-12	3.16035E+0	-42.4027E-3	-45.5172E-12	3.18824E+0	-33.7127E-3
-487.744E-6	-45.7867E-12	3.18321E+0	-44.2108E-3	-46.7056E-12	3.17865E+0	-22.2695E-3
-492.746E-6	-47.3501E-12	3.17738E+0	-38.8704E-3	-46.7611E-12	3.17747E+0	-17.2519E-3
-497.749E-6	-47.7356E-12	3.17612E+0	-36.8463E-3	-47.6878E-12	3.17265E+0	-8.30472E-3
-502.751E-6	-48.4132E-12	3.19745E+0	-20.9606E-3	-49.4613E-12	3.16913E+0	-10.4649E-3
-507.754E-6	-50.1335E-12	3.18919E+0	3.28370E-3	-50.2463E-12	3.17713E+0	-13.1618E-3
-512.756E-6	-51.2179E-12	3.17240E+0	-12.8607E-3	-50.5431E-12	3.18754E+0	-19.7339E-3
-517.759E-6	-51.6807E-12	3.20239E+0	-49.0509E-3	-52.0161E-12	3.18994E+0	-36.4627E-3
-522.761E-6	-52.3281E-12	3.21622E+0	-47.7015E-3	-53.6440E-12	3.17322E+0	-27.6466E-3
-527.764E-6	-54.1643E-12	3.18291E+0	-34.0859E-3	-54.2747E-12	3.14781E+0	-9.31463E-3
-532.766E-6	-56.2278E-12	3.17805E+0	-34.7865E-3	-54.9338E-12	3.13064E+0	-23.0540E-3
-537.769E-6	-56.4518E-12	3.21550E+0	-22.1759E-3	-55.9550E-12	3.12618E+0	-44.7034E-3
-542.771E-6	-56.8305E-12	3.22963E+0	-15.1460E-3	-57.2405E-12	3.13097E+0	-37.5448E-3
-547.774E-6	-58.6244E-12	3.21010E+0	-25.8879E-3	-57.8833E-12	3.12834E+0	-23.1750E-3
-552.776E-6	-60.3842E-12	3.19658E+0	-29.6915E-3	-58.6556E-12	3.11760E+0	-21.6495E-3
-557.779E-6	-60.1142E-12	3.20544E+0	-29.3652E-3	-59.4818E-12	3.10376E+0	-16.2677E-3
-562.781E-6	-61.1698E-12	3.22584E+0	-33.7795E-3	-61.4448E-12	3.07971E+0	-2.46940E-3
-567.784E-6	-63.2564E-12	3.21303E+0	-20.6100E-3	-62.8123E-12	3.04822E+0	14.0645E-3
-572.786E-6	-64.6911E-12	3.16187E+0	5.49206E-3	-63.7962E-12	3.03723E+0	1.13082E-3
-577.789E-6	-65.3966E-12	3.13190E+0	5.05668E-3	-65.3804E-12	3.04220E+0	-28.8985E-3
-582.791E-6	-65.5877E-12	3.12651E+0	-4.43668E-3	-66.8122E-12	3.02538E+0	-30.5149E-3
-587.794E-6	-67.1865E-12	3.10544E+0	2.74216E-3	-67.5732E-12	2.99555E+0	-14.7396E-3
-592.796E-6	-68.5652E-12	3.07823E+0	-5.45556E-3	-68.2912E-12	2.96659E+0	-3.94417E-3
-597.799E-6	-69.7310E-12	3.06134E+0	-17.8905E-3	-69.7361E-12	2.91610E+0	12.1133E-3
-602.801E-6	-70.0809E-12	3.04924E+0	-6.61153E-3	-71.1847E-12	2.86836E+0	21.7295E-3
-607.804E-6	-70.6169E-12	3.02119E+0	-6.23923E-3	-71.1850E-12	2.85058E+0	-591.745E-6
-612.806E-6	-71.7667E-12	2.97451E+0	-9.36832E-3	-71.9815E-12	2.83387E+0	-25.1415E-3
-617.809E-6	-73.4042E-12	2.93555E+0	636.535E-6	-73.5252E-12	2.80874E+0	-33.2245E-3
-622.811E-6	-74.2386E-12	2.91117E+0	-12.6910E-3	-74.7417E-12	2.76526E+0	-26.8839E-3
-627.814E-6	-74.5063E-12	2.89289E+0	-42.1227E-3	-75.6425E-12	2.71387E+0	-10.0941E-3
-632.816E-6	-76.6242E-12	2.84975E+0	-48.9578E-3	-76.4270E-12	2.67869E+0	4.50270E-3
-637.819E-6	-76.4897E-12	2.79072E+0	-39.9760E-3	-76.8723E-12	2.63680E+0	695.557E-6
-642.821E-6	-77.5083E-12	2.75685E+0	-27.0134E-3	-77.7959E-12	2.58067E+0	-4.82362E-3
-647.824E-6	-79.8210E-12	2.72965E+0	-12.0126E-3	-78.7535E-12	2.53585E+0	11.1045E-3
-652.826E-6	-79.4026E-12	2.71191E+0	-1.20482E-3	-79.7369E-12	2.50492E+0	18.9687E-3
-657.829E-6	-79.2839E-12	2.70534E+0	-904.881E-6	-80.0252E-12	2.46412E+0	2.67955E-3
-662.831E-6	-81.0152E-12	2.65743E+0	-8.38110E-3	-80.9011E-12	2.41366E+0	-2.15757E-3
-667.834E-6	-81.8828E-12	2.57327E+0	-9.32529E-3	-81.2516E-12	2.38662E+0	-5.38716E-3
-672.836E-6	-81.7294E-12	2.52238E+0	-995.493E-6	-83.3533E-12	2.37283E+0	-30.2653E-3
-677.839E-6	-83.5179E-12	2.50927E+0	-3.78093E-3	-84.6731E-12	2.32625E+0	-27.4041E-3
-682.841E-6	-83.2532E-12	2.47689E+0	-15.4460E-3	-84.3164E-12	2.26386E+0	-11.4795E-3
-687.844E-6	-83.5483E-12	2.42541E+0	-10.8619E-3	-84.9932E-12	2.22122E+0	-28.5643E-3
-692.846E-6	-84.7070E-12	2.37826E+0	-3.48820E-3	-86.8813E-12	2.18573E+0	-31.5343E-3
-697.849E-6	-85.3930E-12	2.32425E+0	-8.28148E-3	-87.5565E-12	2.13768E+0	-14.5692E-3
-702.851E-6	-85.8451E-12	2.26962E+0	-23.4679E-3	-86.9869E-12	2.08630E+0	-23.6461E-3
-707.854E-6	-86.6169E-12	2.22503E+0	-22.4746E-3	-88.2774E-12	2.03852E+0	-26.3886E-3
-712.856E-6	-87.0780E-12	2.16639E+0	-10.6570E-3	-89.6700E-12	1.99312E+0	-13.2646E-3
-717.859E-6	-87.9497E-12	2.10204E+0	-15.6329E-3	-91.4895E-12	1.94434E+0	-15.4112E-3
-722.861E-6	-89.3724E-12	2.06717E+0	-16.1177E-3	-90.0388E-12	1.89466E+0	-13.1995E-3
-727.864E-6	-89.8927E-12	2.05900E+0	-8.39471E-3	-90.1499E-12	1.86095E+0	-6.86140E-3
-732.866E-6	-89.6952E-12	2.03081E+0	-5.78841E-3	-91.9364E-12	1.81370E+0	-17.8553E-3
-737.869E-6	-90.9539E-12	1.95800E+0	-13.5266E-3	-92.9032E-12	1.74635E+0	-27.3402E-3
-742.871E-6	-93.3768E-12	1.88492E+0	-40.0680E-3	-93.1230E-12	1.69611E+0	-21.6379E-3
-747.874E-6	-93.8002E-12	1.84593E+0	-68.7891E-3	-92.4380E-12	1.65712E+0	-34.7264E-3
-752.876E-6	-93.4760E-12	1.82468E+0	-64.5560E-3	-93.7329E-12	1.60738E+0	-47.7567E-3
-757.879E-6	-94.1583E-12	1.78713E+0	-29.8193E-3	-94.7435E-12	1.55562E+0	-20.2109E-3
-762.881E-6	-96.4619E-12	1.74163E+0	-10.7164E-3	-94.9596E-12	1.51881E+0	2.24655E-3
-767.884E-6	-97.0698E-12	1.71594E+0	-20.4195E-3	-95.2700E-12	1.49238E+0	-1.34232E-3
-772.886E-6	-96.5259E-12	1.68488E+0	-21.4577E-3	-95.5571E-12	1.45363E+0	-17.7976E-3
-777.889E-6	-96.6008E-12	1.63099E+0	-12.1450E-3	-95.8839E-12	1.40015E+0	-37.4572E-3
-782.891E-6	-98.4721E-12	1.57158E+0	-9.84965E-3	-96.6000E-12	1.35615E+0	-51.9272E-3
-787.894E-6	-99.1262E-12	1.51765E+0	-15.3830E-3	-97.3386E-12	1.31353E+0	-47.5213E-3
-792.896E-6	-97.6125E-12	1.48099E+0	-30.3195E-3	-97.8045E-12	1.26192E+0	-20.6787E-3
-797.899E-6	-97.8448E-12	1.45294E+0	-30.3206E-3	-98.3224E-12	1.20945E+0	-10.0316E-3
-802.901E-6	-99.4071E-12	1.40821E+0	-10.3619E-3	-97.8095E-12	1.17203E+0	-23.6431E-3
-807.904E-6	-100.328E-12	1.36068E+0	-8.69925E-3	-99.0246E-12	1.14127E+0	-33.6991E-3
-812.906E-6	-99.4323E-12	1.31195E+0	-8.92172E-3	-99.7281E-12	1.08311E+0	-38.1702E-3
-817.909E-6	-100.044E-12	1.24508E+0	12.2434E-3	-99.9642E-12	1.02158E+0	-41.3511E-3
-822.911E-6	-100.515E-12	1.20558E+0	6.44322E-3	-99.3108E-12	1.00285E+0	-43.1226E-3
-827.914E-6	-100.233E-12	1.20634E+0	-20.0849E-3	-99.9706E-12	995.888E-3	-39.7558E-3
-832.916E-6	-100.415E-12	1.18769E+0	-14.8643E-3	-101.481E-12	953.274E-3	-22.5509E-3
-837.919E-6	-100.986E-12	1.14543E+0	-7.88208E-3	-100.527E-12	912.578E-3	-7.86345E-3
-842.921E-6	-101.475E-12	1.10540E+0	-19.0758E-3	-100.875E-12	891.192E-3	-8.39933E-3
-847.924E-6	-101.962E-12	1.05191E+0	-20.5765E-3	-101.640E-12	865.509E-3	-7.92317E-3
-852.926E-6	-102.328E-12	989.601E-3	-14.7218E-3	-102.331E-12	855.487E-3	1.96709E-3
-857.929E-6	-103.432E-12	958.886E-3	-15.7571E-3	-103.030E-12	840.210E-3	8.18009E-3
-862.931E-6	-104.003E-12	950.146E-3	-19.1236E-3	-102.000E-12	798.587E-3	16.4823E-3
-867.934E-6	-102.893E-12	923.474E-3	-14.8017E-3	-102.805E-12	761.272E-3	15.5380E-3
-872.936E-6	-103.358E-12	895.008E-3	148.568E-6	-102.948E-12	734.310E-3	-13.4817E-3
-877.939E-6	-105.173E-12	860.071E-3	10.6522E-3	-104.415E-12	704.963E-3	-28.3131E-3
-882.941E-6	-105.836E-12	804.642E-3	755.729E-6	-103.503E-12	681.125E-3	3.88981E-3
-887.944E-6	-105.624E-12	775.517E-3	-15.4053E-3	-103.819E-12	671.211E-3	26.9040E-3
-892.946E-6	-105.242E-12	759.240E-3	-18.7327E-3	-104.029E-12	642.315E-3	10.7588E-3
-897.949E-6	-106.021E-12	727.851E-3	-22.0993E-3	-104.605E-12	599.890E-3	6.20281E-3
-902.951E-6	-106.786E-12	710.616E-3	-33.1412E-3	-105.525E-12	589.040E-3	6.51924E-3
-907.954E-6	-105.523E-12	697.021E-3	-26.2398E-3	-105.714E-12	583.284E-3	-2.66932E-3
-912.956E-6	-105.121E-12	652.752E-3	-16.0336E-3	-104.808E-12	549.503E-3	9.23839E-3
-917.959E-6	-106.029E-12	613.285E-3	-24.8787E-3	-105.001E-12	517.454E-3	15.6053E-3
-922.961E-6	-106.306E-12	610.383E-3	-24.5492E-3	-106.637E-12	502.334E-3	-9.48151E-3
-927.964E-6	-105.688E-12	592.274E-3	-13.0389E-3	-105.644E-12	488.092E-3	-22.0679E-3
-932.966E-6	-105.921E-12	554.822E-3	-6.53660E-3	-106.151E-12	483.117E-3	-16.8576E-3
-937.969E-6	-105.424E-12	535.114E-3	8.35541E-3	-106.932E-12	490.028E-3	-27.7927E-3
-942.971E-6	-105.679E-12	521.575E-3	27.5641E-3	-106.847E-12	478.730E-3	-32.5307E-3
-947.974E-6	-106.596E-12	502.714E-3	16.1245E-3	-106.826E-12	436.774E-3	-17.5540E-3
-952.976E-6	-107.196E-12	487.956E-3	-6.43663E-3	-107.557E-12	389.368E-3	-15.5334E-3
-957.979E-6	-106.763E-12	476.939E-3	3.13165E-3	-107.626E-12	365.697E-3	-20.1337E-3
-962.981E-6	-106.815E-12	455.335E-3	417.873E-6	-106.818E-12	369.552E-3	-20.3188E-3
-967.984E-6	-108.159E-12	435.877E-3	-23.0780E-3	-107.547E-12	397.649E-3	-27.2676E-3
-972.986E-6	-108.016E-12	433.358E-3	-21.3303E-3	-108.179E-12	402.710E-3	-29.5498E-3
-977.989E-6	-107.218E-12	435.262E-3	-571.952E-6	-108.331E-12	365.888E-3	-25.7390E-3
-982.991E-6	-107.476E-12	437.649E-3	13.2721E-3	-108.873E-12	339.027E-3	-32.5999E-3
-987.994E-6	-108.090E-12	427.772E-3	7.70366E-3	-108.711E-12	334.154E-3	-43.7031E-3
-992.997E-6	-108.435E-12	384.344E-3	-28.0671E-3	-108.056E-12	348.330E-3	-38.9965E-3
-997.999E-6	-108.259E-12	363.305E-3	-63.1412E-3	-109.198E-12	363.085E-3	-21.1345E-3
-1.00300E-3	-107.653E-12	379.906E-3	-32.9386E-3	-110.482E-12	344.635E-3	-19.2617E-3
-1.00800E-3	-107.403E-12	369.264E-3	5.98293E-3	-109.054E-12	312.966E-3	-28.1722E-3
-1.01301E-3	-107.563E-12	342.763E-3	-9.07854E-3	-109.359E-12	297.623E-3	-23.5344E-3
-1.01801E-3	-107.132E-12	334.612E-3	-24.9380E-3	-109.802E-12	284.243E-3	-21.0493E-3
-1.02301E-3	-106.463E-12	323.364E-3	-14.4722E-3	-110.401E-12	253.774E-3	-30.0754E-3
-1.02801E-3	-107.154E-12	313.035E-3	-7.65131E-3	-110.382E-12	243.774E-3	-43.3594E-3
-1.03302E-3	-107.376E-12	312.903E-3	-10.3654E-3	-109.858E-12	270.409E-3	-42.9107E-3
-1.03802E-3	-107.725E-12	292.882E-3	-896.353E-6	-109.202E-12	290.522E-3	-19.9585E-3
-1.04302E-3	-107.623E-12	268.523E-3	1.85039E-3	-109.814E-12	282.370E-3	745.212E-6
-1.04802E-3	-107.950E-12	266.735E-3	-3.30785E-3	-110.566E-12	252.417E-3	5.05806E-3
-1.05303E-3	-109.714E-12	266.214E-3	1.04392E-3	-109.803E-12	235.324E-3	-3.42746E-3
-1.05803E-3	-109.480E-12	270.106E-3	-9.92984E-3	-109.243E-12	234.057E-3	-21.7330E-3
-1.06303E-3	-109.195E-12	282.152E-3	-25.5502E-3	-109.458E-12	235.150E-3	-42.2510E-3
-1.06803E-3	-110.268E-12	270.958E-3	-21.3765E-3	-109.929E-12	242.475E-3	-54.8151E-3
-1.07304E-3	-111.254E-12	246.305E-3	-22.5941E-3	-109.095E-12	233.856E-3	-49.7883E-3
-1.07804E-3	-110.151E-12	241.260E-3	-24.8036E-3	-108.898E-12	217.186E-3	-32.4219E-3
-1.08304E-3	-109.814E-12	251.801E-3	-7.53936E-3	-109.399E-12	211.819E-3	-21.3484E-3
-1.08804E-3	-109.838E-12	259.183E-3	-612.365E-6	-109.713E-12	222.290E-3	-12.7680E-3
-1.09305E-3	-109.686E-12	259.338E-3	-4.90289E-3	-108.958E-12	245.438E-3	-8.47797E-3
-1.09805E-3	-109.236E-12	256.485E-3	14.3975E-3	-108.163E-12	263.449E-3	-13.7524E-3
-1.10305E-3	-109.233E-12	253.774E-3	26.5290E-3	-108.935E-12	267.406E-3	-29.6263E-3
-1.10805E-3	-108.784E-12	254.369E-3	9.45898E-3	-109.787E-12	268.457E-3	-41.2774E-3
-1.11306E-3	-108.964E-12	244.627E-3	-3.68295E-3	-109.551E-12	265.544E-3	-42.6454E-3
-1.11806E-3	-109.589E-12	224.248E-3	-5.46455E-3	-109.800E-12	256.082E-3	-52.6742E-3
-1.12306E-3	-107.799E-12	222.920E-3	-3.02312E-3	-109.852E-12	257.005E-3	-35.3352E-3
-1.12806E-3	-108.746E-12	238.158E-3	3.12694E-3	-109.626E-12	256.206E-3	816.057E-6
-1.13307E-3	-109.914E-12	249.540E-3	-2.53948E-3	-109.489E-12	256.570E-3	-11.4630E-3
-1.13807E-3	-109.913E-12	264.424E-3	-18.4906E-3	-110.966E-12	270.199E-3	-45.4711E-3
-1.14307E-3	-109.451E-12	272.503E-3	-16.5611E-3	-110.424E-12	288.819E-3	-36.6947E-3
-1.14807E-3	-110.262E-12	257.766E-3	-11.2253E-3	-110.070E-12	313.352E-3	-6.33386E-3
-1.15308E-3	-111.187E-12	241.665E-3	-12.7950E-3	-110.827E-12	322.530E-3	-3.70515E-3
-1.15808E-3	-111.403E-12	245.793E-3	-9.16424E-3	-111.755E-12	313.360E-3	-25.4126E-3
-1.16308E-3	-111.051E-12	256.354E-3	-16.5069E-3	-111.177E-12	310.509E-3	-44.9496E-3
-1.16808E-3	-111.266E-12	270.154E-3	-22.8873E-3	-110.673E-12	311.785E-3	-39.0680E-3
-1.17309E-3	-112.371E-12	295.044E-3	-20.3088E-3	-111.586E-12	319.918E-3	-5.23107E-3
-1.17809E-3	-111.936E-12	296.786E-3	-22.1105E-3	-112.883E-12	325.164E-3	9.26182E-3
-1.18309E-3	-111.731E-12	294.614E-3	-13.7049E-3	-112.718E-12	326.168E-3	-501.691E-6
-1.18809E-3	-112.169E-12	302.049E-3	-7.74446E-3	-112.163E-12	337.806E-3	-7.52127E-3
-1.19310E-3	-112.066E-12	279.750E-3	-36.8642E-3	-111.757E-12	338.242E-3	-20.1101E-3
-1.19810E-3	-111.639E-12	262.638E-3	-64.2118E-3	-113.082E-12	319.234E-3	-40.6759E-3
-1.20310E-3	-111.763E-12	285.138E-3	-54.7905E-3	-114.026E-12	303.309E-3	-44.6702E-3
-1.20810E-3	-112.249E-12	308.014E-3	-24.7690E-3	-113.572E-12	312.648E-3	-21.0154E-3
-1.21311E-3	-111.978E-12	322.331E-3	-929.522E-6	-112.922E-12	328.222E-3	-21.4118E-3
-1.21811E-3	-112.457E-12	340.670E-3	-3.38572E-3	-112.980E-12	337.255E-3	-35.5726E-3
-1.22311E-3	-112.324E-12	337.974E-3	-18.4480E-3	-113.895E-12	350.749E-3	-10.5865E-3
-1.22811E-3	-112.368E-12	342.283E-3	-19.4540E-3	-113.864E-12	352.802E-3	-6.09311E-3
-1.23312E-3	-111.937E-12	370.284E-3	-12.4955E-3	-113.552E-12	347.677E-3	-33.4006E-3
-1.23812E-3	-112.476E-12	367.753E-3	-18.1200E-3	-114.104E-12	367.127E-3	-39.3603E-3
-1.24312E-3	-112.563E-12	338.490E-3	-26.8150E-3	-114.399E-12	388.577E-3	-48.0954E-3
-1.24812E-3	-112.428E-12	349.090E-3	-19.5731E-3	-113.964E-12	386.366E-3	-44.8917E-3
-1.25313E-3	-112.297E-12	380.866E-3	-23.3917E-3	-114.113E-12	399.296E-3	-5.75710E-3
-1.25813E-3	-112.420E-12	374.773E-3	-35.2619E-3	-114.303E-12	426.816E-3	11.4258E-3
-1.26313E-3	-112.468E-12	364.312E-3	-24.1205E-3	-114.436E-12	427.028E-3	1.07839E-3
-1.26813E-3	-113.443E-12	387.559E-3	-17.5513E-3	-115.194E-12	412.799E-3	3.12976E-3
-1.27314E-3	-112.402E-12	404.550E-3	-17.8775E-3	-116.136E-12	416.665E-3	-2.46933E-3
-1.27814E-3	-112.415E-12	394.286E-3	-6.45891E-3	-115.747E-12	425.458E-3	-20.5558E-3
-1.28314E-3	-113.682E-12	394.684E-3	412.955E-6	-114.959E-12	441.637E-3	-24.1421E-3
-1.28814E-3	-113.614E-12	414.031E-3	1.80709E-3	-116.068E-12	458.372E-3	-35.0134E-3
-1.29315E-3	-113.442E-12	428.068E-3	-4.04537E-3	-116.712E-12	450.041E-3	-49.2965E-3
-1.29815E-3	-114.586E-12	447.615E-3	-21.7711E-3	-115.741E-12	456.538E-3	-25.3412E-3
-1.30315E-3	-115.139E-12	465.334E-3	-29.1625E-3	-115.367E-12	470.699E-3	-3.97394E-3
-1.30815E-3	-114.165E-12	452.852E-3	-17.0145E-3	-115.794E-12	472.715E-3	-20.8034E-3
-1.31316E-3	-115.977E-12	461.029E-3	-27.0265E-3	-116.383E-12	489.131E-3	-35.9357E-3
-1.31816E-3	-115.577E-12	498.087E-3	-42.3318E-3	-116.252E-12	502.227E-3	-22.5361E-3
-1.32316E-3	-115.052E-12	501.437E-3	-27.6903E-3	-116.409E-12	495.822E-3	-10.0939E-3
-1.32816E-3	-116.022E-12	475.653E-3	-15.7264E-3	-115.641E-12	486.713E-3	-25.9827E-3
-1.33317E-3	-115.326E-12	463.171E-3	-6.60853E-3	-116.030E-12	504.747E-3	-45.3669E-3
-1.33817E-3	-115.485E-12	482.512E-3	10.1966E-3	-117.439E-12	532.953E-3	-58.1024E-3
-1.34317E-3	-115.479E-12	510.720E-3	21.2552E-3	-117.320E-12	538.572E-3	-50.5172E-3
-1.34817E-3	-115.799E-12	514.397E-3	8.47471E-3	-116.120E-12	544.357E-3	-36.6914E-3
-1.35318E-3	-114.386E-12	505.892E-3	5.99020E-3	-116.249E-12	571.921E-3	-39.5682E-3
-1.35818E-3	-115.645E-12	502.838E-3	35.7877E-3	-117.842E-12	576.911E-3	-24.0217E-3
-1.36318E-3	-115.724E-12	505.254E-3	40.5682E-3	-116.937E-12	561.170E-3	-1.22008E-3
-1.36818E-3	-115.518E-12	523.123E-3	8.81235E-3	-117.500E-12	567.429E-3	-17.2641E-3
-1.37319E-3	-115.128E-12	545.884E-3	-8.99613E-3	-117.184E-12	562.999E-3	-53.4047E-3
-1.37819E-3	-116.563E-12	550.701E-3	-13.8743E-3	-117.943E-12	550.494E-3	-48.5994E-3
-1.38319E-3	-117.740E-12	550.508E-3	-27.5232E-3	-117.306E-12	546.542E-3	-25.0395E-3
-1.38819E-3	-117.240E-12	560.995E-3	-27.9467E-3	-117.640E-12	547.062E-3	-24.2107E-3
-1.39320E-3	-117.404E-12	568.321E-3	-11.4836E-3	-116.493E-12	564.128E-3	-11.8541E-3
-1.39820E-3	-118.444E-12	556.858E-3	-8.58174E-3	-115.778E-12	577.460E-3	4.64992E-3
-1.40320E-3	-118.779E-12	553.216E-3	-19.7616E-3	-118.461E-12	566.352E-3	-7.34035E-3
-1.40820E-3	-118.870E-12	560.298E-3	-14.1168E-3	-118.393E-12	549.719E-3	-15.6960E-3
-1.41321E-3	-118.097E-12	560.236E-3	703.491E-6	-116.946E-12	559.985E-3	-13.8109E-3
-1.41821E-3	-118.857E-12	583.727E-3	-11.4500E-3	-117.033E-12	581.514E-3	-14.6202E-3
-1.42321E-3	-119.946E-12	622.739E-3	-25.5281E-3	-119.325E-12	598.932E-3	-3.57849E-3
-1.42821E-3	-118.875E-12	638.428E-3	-19.5784E-3	-119.623E-12	625.278E-3	-637.782E-6
-1.43322E-3	-118.576E-12	618.576E-3	-32.0857E-3	-118.965E-12	645.986E-3	-7.91299E-3
-1.43822E-3	-118.169E-12	585.346E-3	-39.1813E-3	-118.521E-12	650.848E-3	-17.0894E-3
-1.44322E-3	-118.973E-12	583.138E-3	-28.7023E-3	-118.886E-12	657.810E-3	-35.5815E-3
-1.44822E-3	-119.121E-12	585.909E-3	-27.4873E-3	-120.428E-12	651.916E-3	-38.8081E-3
-1.45323E-3	-118.320E-12	562.351E-3	-27.1643E-3	-120.868E-12	633.718E-3	-23.9430E-3
-1.45823E-3	-118.644E-12	559.691E-3	-33.2822E-3	-120.016E-12	637.318E-3	-15.5462E-3
-1.46323E-3	-120.378E-12	603.238E-3	-31.6191E-3	-119.734E-12	625.240E-3	-29.6515E-3
-1.46823E-3	-120.951E-12	633.517E-3	-16.0085E-3	-120.797E-12	597.737E-3	-30.7171E-3
-1.47324E-3	-119.941E-12	619.247E-3	-10.4178E-3	-121.353E-12	605.521E-3	-7.47945E-3
-1.47824E-3	-121.575E-12	607.189E-3	-8.54412E-3	-120.160E-12	634.086E-3	3.87957E-3
-1.48324E-3	-122.512E-12	616.504E-3	-3.18137E-3	-120.629E-12	639.972E-3	8.53354E-3
-1.48824E-3	-122.418E-12	631.662E-3	2.95088E-3	-120.160E-12	631.733E-3	-2.19893E-3
-1.49325E-3	-122.626E-12	642.871E-3	666.434E-6	-120.784E-12	635.308E-3	-26.6633E-3
-1.49825E-3	-122.608E-12	653.426E-3	-6.72504E-3	-120.082E-12	635.938E-3	-20.7675E-3
-1.50325E-3	-123.022E-12	646.149E-3	-327.672E-6	-120.566E-12	640.248E-3	11.8781E-3
-1.50825E-3	-122.768E-12	619.819E-3	-5.06258E-3	-121.075E-12	649.328E-3	-4.06172E-3
-1.51326E-3	-122.543E-12	608.185E-3	-25.9847E-3	-121.153E-12	629.258E-3	-60.1298E-3
-1.51826E-3	-122.655E-12	614.066E-3	-34.3433E-3	-121.922E-12	598.210E-3	-66.2248E-3
-1.52326E-3	-122.861E-12	618.203E-3	-20.5070E-3	-121.917E-12	608.686E-3	-39.3048E-3
-1.52826E-3	-122.368E-12	615.320E-3	-4.29236E-3	-121.806E-12	641.712E-3	-16.4771E-3
-1.53327E-3	-123.569E-12	618.042E-3	-7.89220E-3	-121.999E-12	659.126E-3	-5.19673E-3
-1.53827E-3	-122.741E-12	613.754E-3	-11.0277E-3	-123.356E-12	654.642E-3	-15.5270E-3
-1.54327E-3	-122.527E-12	616.616E-3	-4.37404E-3	-123.248E-12	644.990E-3	-24.8499E-3
-1.54827E-3	-122.579E-12	635.719E-3	-12.6536E-3	-123.093E-12	649.771E-3	-21.1137E-3
-1.55328E-3	-123.394E-12	639.800E-3	-30.3720E-3	-123.595E-12	658.875E-3	-16.2366E-3
-1.55828E-3	-123.392E-12	637.206E-3	-17.7838E-3	-124.616E-12	646.987E-3	-27.5257E-3
-1.56328E-3	-123.511E-12	643.896E-3	19.1417E-3	-125.256E-12	632.826E-3	-50.0189E-3
-1.56828E-3	-125.183E-12	665.697E-3	41.3507E-3	-124.661E-12	647.713E-3	-58.5297E-3
-1.57329E-3	-125.642E-12	673.180E-3	26.9412E-3	-125.664E-12	655.116E-3	-34.4203E-3
-1.57829E-3	-124.838E-12	649.471E-3	-10.8024E-3	-125.995E-12	634.855E-3	-8.31205E-3
-1.58329E-3	-124.297E-12	640.292E-3	-34.3400E-3	-126.058E-12	627.703E-3	-14.3211E-3
-1.58829E-3	-126.627E-12	649.145E-3	-41.1411E-3	-125.573E-12	647.965E-3	-26.5527E-3
-1.59330E-3	-127.300E-12	662.134E-3	-42.6478E-3	-127.538E-12	658.362E-3	-23.9266E-3
-1.59830E-3	-125.391E-12	674.443E-3	-24.3720E-3	-126.241E-12	648.607E-3	-12.5745E-3
-1.60330E-3	-125.743E-12	656.345E-3	6.39627E-3	-126.889E-12	650.853E-3	-11.3802E-3
-1.60830E-3	-127.280E-12	637.671E-3	15.5720E-3	-127.962E-12	659.605E-3	-19.1802E-3
-1.61331E-3	-127.081E-12	638.964E-3	9.05530E-3	-128.235E-12	642.771E-3	-19.4963E-3
-1.61831E-3	-126.228E-12	638.734E-3	-3.04813E-3	-128.732E-12	631.965E-3	-14.5343E-3
-1.62331E-3	-126.680E-12	652.961E-3	-32.0775E-3	-128.859E-12	662.351E-3	-24.2308E-3
-1.62831E-3	-126.503E-12	671.578E-3	-53.8381E-3	-129.609E-12	686.475E-3	-27.9904E-3
-1.63332E-3	-126.761E-12	666.947E-3	-46.8557E-3	-129.799E-12	669.537E-3	-4.48679E-3
-1.63832E-3	-128.456E-12	645.440E-3	-39.4682E-3	-130.195E-12	649.661E-3	2.09267E-3
-1.64332E-3	-128.453E-12	632.468E-3	-34.9977E-3	-129.527E-12	657.969E-3	-21.3832E-3
-1.64832E-3	-127.445E-12	640.309E-3	-14.6618E-3	-130.162E-12	666.487E-3	-32.8394E-3
-1.65333E-3	-128.281E-12	639.351E-3	-16.3263E-3	-129.355E-12	658.738E-3	-23.4618E-3
-1.65833E-3	-128.842E-12	634.687E-3	-23.7672E-3	-130.192E-12	652.593E-3	-22.4138E-3
-1.66333E-3	-129.049E-12	645.080E-3	10.9530E-3	-129.499E-12	641.211E-3	-23.9030E-3
-1.66833E-3	-128.805E-12	652.534E-3	33.5675E-3	-128.829E-12	644.506E-3	-21.9265E-3
-1.67334E-3	-128.414E-12	649.395E-3	7.36938E-3	-129.777E-12	665.672E-3	-19.5275E-3
-1.67834E-3	-129.827E-12	623.301E-3	-23.6561E-3	-130.916E-12	655.127E-3	-18.2959E-3
-1.68334E-3	-130.265E-12	590.788E-3	-26.1948E-3	-129.641E-12	660.965E-3	-21.8919E-3
-1.68834E-3	-129.677E-12	603.246E-3	-16.5998E-3	-129.121E-12	691.128E-3	-31.2020E-3
-1.69335E-3	-128.727E-12	651.703E-3	-13.0204E-3	-131.495E-12	682.106E-3	-37.3759E-3
-1.69835E-3	-129.230E-12	671.369E-3	-14.7953E-3	-130.700E-12	668.444E-3	-24.1169E-3
-1.70335E-3	-129.926E-12	654.144E-3	-16.5681E-3	-130.780E-12	675.747E-3	-1.62240E-3
-1.70835E-3	-130.447E-12	644.791E-3	-17.2532E-3	-130.481E-12	663.266E-3	10.1064E-3
-1.71336E-3	-130.014E-12	644.525E-3	-14.0048E-3	-130.924E-12	625.797E-3	-13.9833E-3
-1.71836E-3	-130.262E-12	638.821E-3	-21.8863E-3	-131.572E-12	622.983E-3	-42.5216E-3
-1.72336E-3	-131.642E-12	648.203E-3	-37.9253E-3	-131.830E-12	664.977E-3	-29.2382E-3
-1.72836E-3	-132.106E-12	652.624E-3	-25.2827E-3	-131.237E-12	691.601E-3	-13.5613E-3
-1.73337E-3	-132.631E-12	645.326E-3	-11.5728E-3	-131.474E-12	669.845E-3	-33.4892E-3
-1.73837E-3	-132.580E-12	651.710E-3	-15.1225E-3	-132.612E-12	629.920E-3	-62.3386E-3
-1.74337E-3	-133.242E-12	657.074E-3	-2.61481E-3	-132.103E-12	621.500E-3	-56.2725E-3
-1.74837E-3	-133.463E-12	658.928E-3	3.20948E-3	-131.222E-12	653.362E-3	-35.9270E-3
-1.75338E-3	-133.911E-12	672.473E-3	-13.1563E-3	-131.926E-12	668.333E-3	-38.3435E-3
-1.75838E-3	-133.727E-12	672.267E-3	-8.55862E-3	-133.051E-12	643.774E-3	-34.5361E-3
-1.76338E-3	-133.215E-12	650.762E-3	8.64211E-3	-133.195E-12	631.146E-3	-11.1311E-3
-1.76838E-3	-133.313E-12	663.733E-3	13.2911E-3	-132.628E-12	653.135E-3	3.23153E-3
-1.77339E-3	-133.905E-12	692.515E-3	13.0216E-3	-133.506E-12	686.367E-3	879.360E-6
-1.77839E-3	-134.590E-12	673.263E-3	-9.60120E-3	-134.148E-12	702.280E-3	-1.93001E-3
-1.78339E-3	-134.224E-12	659.836E-3	-46.7463E-3	-134.369E-12	694.739E-3	13.5043E-3
-1.78839E-3	-133.704E-12	674.248E-3	-46.6403E-3	-134.272E-12	669.073E-3	34.4536E-3
-1.79340E-3	-133.384E-12	658.686E-3	-18.0216E-3	-134.537E-12	647.830E-3	10.2256E-3
-1.79840E-3	-133.998E-12	633.638E-3	-14.7531E-3	-134.967E-12	655.791E-3	-29.4903E-3
-1.80340E-3	-135.235E-12	625.075E-3	-20.2826E-3	-134.461E-12	672.314E-3	-21.7888E-3
-1.80840E-3	-134.973E-12	618.198E-3	-6.38781E-3	-135.383E-12	668.952E-3	-597.195E-6
-1.81341E-3	-135.097E-12	627.399E-3	15.9178E-3	-135.710E-12	654.992E-3	-4.79533E-3
-1.81841E-3	-135.605E-12	672.443E-3	21.5322E-3	-134.995E-12	643.105E-3	-13.7736E-3
-1.82341E-3	-136.912E-12	688.462E-3	8.69307E-3	-134.955E-12	638.746E-3	-26.9625E-3
-1.82841E-3	-136.937E-12	651.067E-3	-9.32541E-3	-135.531E-12	650.341E-3	-43.9502E-3
-1.83342E-3	-136.728E-12	646.263E-3	-31.7779E-3	-135.189E-12	650.718E-3	-41.5512E-3
-1.83842E-3	-137.519E-12	668.238E-3	-19.2732E-3	-134.907E-12	636.539E-3	-17.6439E-3
-1.84342E-3	-137.620E-12	665.446E-3	12.6846E-3	-136.031E-12	641.622E-3	6.87820E-3
-1.84842E-3	-137.354E-12	655.004E-3	-64.3661E-6	-136.191E-12	651.895E-3	3.76665E-3
-1.85343E-3	-136.239E-12	658.297E-3	-27.5707E-3	-136.065E-12	646.047E-3	-2.39829E-3
-1.85843E-3	-136.717E-12	663.558E-3	-34.0652E-3	-136.235E-12	641.226E-3	14.8212E-3
-1.86343E-3	-137.072E-12	658.482E-3	-25.0022E-3	-137.341E-12	635.874E-3	6.44741E-3
-1.86843E-3	-136.260E-12	663.173E-3	-12.9469E-3	-138.124E-12	634.312E-3	-26.2747E-3
-1.87344E-3	-136.346E-12	666.527E-3	2.08957E-3	-139.229E-12	658.158E-3	-24.8540E-3
-1.87844E-3	-137.058E-12	648.776E-3	14.6712E-3	-138.816E-12	693.775E-3	-19.0769E-3
-1.88344E-3	-137.097E-12	649.176E-3	8.76886E-3	-138.111E-12	693.586E-3	-36.1147E-3
-1.88844E-3	-137.765E-12	653.324E-3	5.26937E-3	-139.508E-12	664.139E-3	-23.5835E-3
-1.89345E-3	-137.950E-12	637.742E-3	-7.08327E-3	-140.372E-12	668.892E-3	-8.21486E-3
-1.89845E-3	-138.699E-12	653.715E-3	-39.2341E-3	-139.628E-12	684.785E-3	-24.9089E-3
-1.90345E-3	-138.983E-12	679.077E-3	-43.0756E-3	-139.177E-12	663.116E-3	-18.2100E-3
-1.90845E-3	-139.748E-12	675.563E-3	-29.9349E-3	-140.690E-12	640.977E-3	6.21298E-3
-1.91346E-3	-140.727E-12	676.379E-3	-34.1849E-3	-139.923E-12	656.773E-3	-20.5903E-3
-1.91846E-3	-140.679E-12	686.357E-3	-20.6134E-3	-138.659E-12	673.208E-3	-65.4540E-3
-1.92346E-3	-141.147E-12	674.135E-3	-5.73524E-3	-140.009E-12	677.668E-3	-63.2001E-3
-1.92846E-3	-140.820E-12	652.991E-3	-20.5684E-3	-139.933E-12	695.829E-3	-42.3353E-3
-1.93347E-3	-141.672E-12	656.588E-3	-18.9538E-3	-139.716E-12	703.171E-3	-23.7819E-3
-1.93847E-3	-141.898E-12	655.838E-3	7.92046E-3	-140.103E-12	686.327E-3	-268.179E-6
-1.94347E-3	-141.821E-12	640.143E-3	11.2514E-3	-141.177E-12	657.927E-3	178.606E-6
-1.94847E-3	-141.158E-12	640.057E-3	-7.96725E-3	-142.046E-12	641.978E-3	-15.3614E-3
-1.95348E-3	-141.763E-12	643.380E-3	-13.8071E-3	-142.279E-12	651.321E-3	-12.4949E-3
-1.95848E-3	-141.958E-12	631.580E-3	-7.10887E-3	-142.158E-12	673.061E-3	-19.4425E-3
-1.96348E-3	-141.581E-12	628.905E-3	12.3638E-3	-143.445E-12	684.085E-3	-33.2115E-3
-1.96848E-3	-141.930E-12	622.733E-3	9.41319E-3	-143.183E-12	675.405E-3	-31.4758E-3
-1.97349E-3	-141.693E-12	613.030E-3	-34.8832E-3	-142.585E-12	670.143E-3	-39.7376E-3
-1.97849E-3	-141.495E-12	634.847E-3	-48.6709E-3	-143.788E-12	677.589E-3	-37.6424E-3
-1.98349E-3	-142.042E-12	653.764E-3	-26.3167E-3	-145.656E-12	694.649E-3	-27.1407E-3
-1.98849E-3	-142.012E-12	646.548E-3	-26.8452E-3	-144.951E-12	698.850E-3	-42.3630E-3
-1.99350E-3	-142.155E-12	650.458E-3	-31.2982E-3	-143.812E-12	672.342E-3	-42.4636E-3
-1.99850E-3	-142.772E-12	670.546E-3	-10.5713E-3	-144.725E-12	656.724E-3	-12.0919E-3
-2.00350E-3	-142.655E-12	670.031E-3	-882.839E-6	-145.591E-12	667.814E-3	7.20365E-3
-2.00850E-3	-143.263E-12	657.092E-3	-13.2032E-3	-145.141E-12	676.101E-3	4.68393E-3
-2.01351E-3	-144.236E-12	648.812E-3	-12.0477E-3	-144.761E-12	680.259E-3	-15.6476E-3
-2.01851E-3	-144.054E-12	641.251E-3	-7.84543E-3	-143.603E-12	695.157E-3	-35.3321E-3
-2.02351E-3	-144.612E-12	659.231E-3	-22.5881E-3	-145.319E-12	707.910E-3	-26.1151E-3
-2.02851E-3	-144.859E-12	677.162E-3	-25.2608E-3	-146.834E-12	708.798E-3	-2.76771E-3
-2.03352E-3	-145.505E-12	672.112E-3	-33.7402E-3	-146.146E-12	711.098E-3	-2.95883E-3
-2.03852E-3	-145.156E-12	671.748E-3	-64.3985E-3	-146.314E-12	700.535E-3	-8.14532E-3
-2.04352E-3	-145.092E-12	660.108E-3	-49.0423E-3	-147.357E-12	676.150E-3	7.71762E-3
-2.04852E-3	-146.474E-12	642.247E-3	-7.03109E-3	-147.436E-12	667.630E-3	14.9478E-3
-2.05353E-3	-146.583E-12	638.815E-3	1.90675E-3	-146.867E-12	672.564E-3	13.8088E-3
-2.05853E-3	-145.723E-12	642.314E-3	417.830E-6	-147.963E-12	671.644E-3	6.56965E-3
-2.06353E-3	-146.280E-12	651.022E-3	11.1755E-3	-147.706E-12	664.242E-3	-14.3249E-3
-2.06853E-3	-147.234E-12	653.272E-3	14.6851E-3	-146.807E-12	647.491E-3	-24.1633E-3
-2.07354E-3	-148.146E-12	662.119E-3	1.49910E-3	-147.331E-12	637.906E-3	-22.4043E-3
-2.07854E-3	-147.407E-12	688.300E-3	3.50962E-3	-147.682E-12	641.897E-3	-20.7292E-3
-2.08354E-3	-146.706E-12	703.304E-3	16.2200E-3	-147.187E-12	639.029E-3	-20.2738E-3
-2.08854E-3	-147.776E-12	683.794E-3	16.9884E-3	-146.518E-12	640.258E-3	-28.3747E-3
-2.09355E-3	-149.408E-12	654.363E-3	22.4894E-3	-147.449E-12	650.157E-3	-17.0653E-3
-2.09855E-3	-148.242E-12	652.321E-3	4.53461E-3	-147.761E-12	656.297E-3	5.78002E-3
-2.10355E-3	-147.902E-12	681.156E-3	-36.7271E-3	-147.196E-12	669.441E-3	-6.80459E-3
-2.10855E-3	-148.294E-12	694.679E-3	-34.3709E-3	-147.320E-12	670.268E-3	-33.4558E-3
-2.11356E-3	-149.767E-12	680.527E-3	-19.9496E-3	-147.445E-12	643.111E-3	-33.7331E-3
-2.11856E-3	-149.182E-12	684.012E-3	-31.1667E-3	-148.468E-12	636.429E-3	-22.3524E-3
-2.12356E-3	-148.716E-12	680.917E-3	-29.0399E-3	-149.270E-12	661.546E-3	-9.33621E-3
-2.12856E-3	-149.186E-12	669.969E-3	-26.0213E-3	-149.873E-12	678.883E-3	-4.06023E-3
-2.13357E-3	-150.074E-12	688.362E-3	-34.4036E-3	-149.349E-12	684.057E-3	-16.0926E-3
-2.13857E-3	-149.892E-12	687.672E-3	-30.9384E-3	-149.816E-12	689.849E-3	-19.0662E-3
-2.14357E-3	-149.934E-12	648.345E-3	-17.3126E-3	-150.194E-12	696.690E-3	-11.9672E-3
-2.14857E-3	-150.578E-12	649.394E-3	7.95346E-3	-150.037E-12	705.280E-3	-20.3403E-3
-2.15358E-3	-150.822E-12	672.121E-3	19.7866E-3	-150.452E-12	693.026E-3	-26.8493E-3
-2.15858E-3	-150.655E-12	640.062E-3	-8.67912E-3	-150.548E-12	669.520E-3	-18.9811E-3
-2.16358E-3	-150.937E-12	618.945E-3	-45.0534E-3	-150.583E-12	674.183E-3	-31.9662E-3
-2.16858E-3	-151.751E-12	663.567E-3	-42.7819E-3	-151.067E-12	688.273E-3	-44.0814E-3
-2.17359E-3	-151.132E-12	689.662E-3	-6.18493E-3	-151.434E-12	692.549E-3	-28.9939E-3
-2.17859E-3	-151.214E-12	667.309E-3	4.99447E-3	-151.734E-12	688.032E-3	-26.6389E-3
-2.18359E-3	-151.554E-12	663.955E-3	-8.98314E-3	-150.313E-12	687.335E-3	-29.6161E-3
-2.18859E-3	-151.252E-12	655.216E-3	-12.7589E-3	-150.935E-12	695.688E-3	-23.4446E-3
-2.19360E-3	-151.469E-12	624.390E-3	-25.4593E-3	-152.718E-12	692.421E-3	-32.3344E-3
-2.19860E-3	-151.632E-12	629.994E-3	-42.2440E-3	-153.332E-12	695.298E-3	-46.5494E-3
-2.20360E-3	-152.166E-12	647.763E-3	-40.5052E-3	-152.632E-12	700.224E-3	-47.8214E-3
-2.20860E-3	-152.824E-12	650.529E-3	-28.6422E-3	-152.843E-12	688.326E-3	-41.8279E-3
-2.21361E-3	-151.921E-12	665.328E-3	-18.3385E-3	-153.031E-12	662.521E-3	-54.7422E-3
-2.21861E-3	-151.388E-12	683.102E-3	-14.9291E-3	-155.314E-12	650.635E-3	-57.6334E-3
-2.22361E-3	-151.925E-12	678.809E-3	-21.4945E-3	-155.281E-12	681.083E-3	-20.8952E-3
-2.22861E-3	-152.572E-12	660.704E-3	-29.0465E-3	-152.949E-12	689.747E-3	-2.09696E-3
-2.23362E-3	-152.356E-12	647.701E-3	-25.8724E-3	-153.758E-12	656.632E-3	-22.5930E-3
-2.23862E-3	-152.840E-12	660.476E-3	-16.9043E-3	-155.903E-12	632.846E-3	-29.4603E-3
-2.24362E-3	-153.185E-12	679.677E-3	-20.5436E-3	-155.025E-12	628.981E-3	-9.16343E-3
-2.24862E-3	-153.775E-12	670.973E-3	-35.6109E-3	-153.615E-12	641.375E-3	-16.5678E-3
-2.25363E-3	-153.728E-12	667.029E-3	-39.8395E-3	-154.219E-12	648.457E-3	-41.7586E-3
-2.25863E-3	-153.952E-12	684.576E-3	-42.4962E-3	-154.733E-12	652.750E-3	-22.4926E-3
-2.26363E-3	-154.679E-12	678.986E-3	-34.4763E-3	-154.871E-12	677.639E-3	8.27012E-3
-2.26863E-3	-154.599E-12	654.644E-3	-13.0658E-3	-154.981E-12	695.737E-3	1.08107E-3
-2.27364E-3	-154.376E-12	645.767E-3	-12.6966E-3	-155.699E-12	691.950E-3	-12.7975E-3
-2.27864E-3	-154.538E-12	646.796E-3	-18.0457E-3	-156.571E-12	699.621E-3	-10.9597E-3
-2.28364E-3	-154.794E-12	651.495E-3	-25.8651E-3	-155.882E-12	702.561E-3	-21.9086E-3
-2.28864E-3	-155.990E-12	679.108E-3	-46.3889E-3	-156.869E-12	674.137E-3	-28.0205E-3
-2.29365E-3	-155.141E-12	702.974E-3	-33.7892E-3	-156.775E-12	648.900E-3	-12.1942E-3
-2.29865E-3	-154.639E-12	688.489E-3	-9.77951E-3	-158.787E-12	666.738E-3	-210.318E-6
-2.30365E-3	-155.250E-12	676.165E-3	-21.0274E-3	-157.650E-12	704.605E-3	4.93100E-3
-2.30865E-3	-156.968E-12	670.360E-3	-22.5377E-3	-159.051E-12	705.357E-3	8.50369E-3
-2.31366E-3	-157.187E-12	662.117E-3	-8.49944E-3	-158.277E-12	682.996E-3	-3.81564E-3
-2.31866E-3	-157.386E-12	664.710E-3	-23.0235E-3	-158.310E-12	676.228E-3	-36.6178E-3
-2.32366E-3	-158.117E-12	653.264E-3	-49.5989E-3	-157.843E-12	675.364E-3	-49.4829E-3
-2.32866E-3	-158.212E-12	631.151E-3	-58.8846E-3	-159.026E-12	666.820E-3	-24.7951E-3
-2.33367E-3	-159.495E-12	635.337E-3	-46.0658E-3	-160.005E-12	655.316E-3	-15.3751E-3
-2.33867E-3	-160.004E-12	670.249E-3	-2.27612E-3	-159.340E-12	655.945E-3	-44.4364E-3
-2.34367E-3	-160.094E-12	685.802E-3	6.72641E-3	-158.646E-12	686.666E-3	-60.9817E-3
-2.34867E-3	-159.636E-12	676.905E-3	-33.5408E-3	-159.160E-12	695.492E-3	-44.4372E-3
-2.35368E-3	-161.115E-12	669.513E-3	-32.8117E-3	-160.421E-12	672.638E-3	-25.1405E-3
-2.35868E-3	-163.200E-12	646.319E-3	-16.9045E-3	-159.997E-12	670.822E-3	-20.5257E-3
-2.36368E-3	-161.634E-12	645.914E-3	-23.1930E-3	-159.548E-12	680.806E-3	-29.4611E-3
-2.36868E-3	-160.895E-12	682.475E-3	-8.95467E-3	-160.581E-12	673.812E-3	-29.3176E-3
-2.37369E-3	-161.129E-12	685.740E-3	1.66564E-3	-160.530E-12	654.906E-3	-16.1895E-3
-2.37869E-3	-162.543E-12	650.926E-3	-8.91283E-3	-161.235E-12	655.629E-3	-17.2626E-3
-2.38369E-3	-162.682E-12	632.579E-3	12.8059E-3	-161.106E-12	661.773E-3	-9.54129E-3
-2.38869E-3	-162.360E-12	640.169E-3	42.5934E-3	-162.068E-12	665.705E-3	3.61450E-3
-2.39370E-3	-161.637E-12	646.027E-3	33.6284E-3	-161.352E-12	674.181E-3	-4.11033E-3
-2.39870E-3	-162.644E-12	652.643E-3	14.4517E-3	-162.017E-12	681.735E-3	-13.0997E-3
-2.40370E-3	-163.911E-12	673.093E-3	4.32288E-3	-161.810E-12	682.548E-3	-9.92652E-3
-2.40870E-3	-163.127E-12	697.414E-3	-2.88124E-3	-163.098E-12	666.858E-3	-10.6182E-3
-2.41371E-3	-163.600E-12	722.009E-3	-14.6972E-3	-163.110E-12	653.522E-3	-24.7324E-3
-2.41871E-3	-163.483E-12	719.524E-3	-19.4667E-3	-162.613E-12	650.982E-3	-44.3520E-3
-2.42371E-3	-164.998E-12	677.521E-3	-7.83492E-3	-162.322E-12	652.594E-3	-52.7506E-3
-2.42871E-3	-165.175E-12	658.437E-3	528.530E-6	-163.098E-12	644.050E-3	-32.4010E-3
-2.43372E-3	-165.072E-12	669.910E-3	-6.10292E-3	-163.046E-12	643.042E-3	-3.39244E-3
-2.43872E-3	-164.344E-12	679.956E-3	-19.4984E-3	-161.917E-12	673.469E-3	-367.039E-6
-2.44372E-3	-165.348E-12	685.960E-3	-25.4099E-3	-164.131E-12	679.661E-3	-17.1692E-3
-2.44872E-3	-164.339E-12	673.036E-3	-10.6937E-3	-163.485E-12	671.007E-3	-30.5155E-3
-2.45373E-3	-164.904E-12	648.581E-3	8.28037E-3	-163.954E-12	702.975E-3	-38.1529E-3
-2.45873E-3	-165.561E-12	655.242E-3	6.60758E-3	-164.778E-12	727.614E-3	-40.1124E-3
-2.46373E-3	-165.629E-12	671.249E-3	-285.958E-6	-165.092E-12	715.600E-3	-35.6970E-3
-2.46873E-3	-164.395E-12	654.415E-3	-8.72151E-3	-165.629E-12	700.094E-3	-31.0245E-3
-2.47374E-3	-166.165E-12	637.269E-3	-23.9577E-3	-165.973E-12	682.153E-3	-26.8177E-3
-2.47874E-3	-167.269E-12	629.368E-3	-19.5945E-3	-166.849E-12	666.539E-3	-17.2113E-3
-2.48374E-3	-165.273E-12	630.848E-3	5.05471E-3	-166.236E-12	670.261E-3	1.83834E-3
-2.48874E-3	-166.265E-12	637.247E-3	21.7323E-3	-167.402E-12	669.450E-3	16.9828E-3
-2.49375E-3	-167.143E-12	634.062E-3	16.1839E-3	-166.742E-12	650.789E-3	11.2720E-3
-2.49875E-3	-168.169E-12	641.358E-3	3.74348E-3	-165.953E-12	647.045E-3	3.20095E-3
-2.50375E-3	-166.910E-12	669.803E-3	-10.9420E-3	-166.200E-12	651.909E-3	-3.18808E-3
-2.50875E-3	-166.787E-12	701.223E-3	-40.9139E-3	-165.863E-12	647.026E-3	-33.8757E-3
-2.51376E-3	-167.762E-12	711.335E-3	-39.6813E-3	-166.205E-12	669.220E-3	-54.6813E-3
-2.51876E-3	-167.490E-12	700.510E-3	-5.11381E-3	-166.124E-12	694.109E-3	-54.9769E-3
-2.52376E-3	-166.028E-12	681.924E-3	13.8733E-3	-165.625E-12	673.780E-3	-68.8678E-3
-2.52876E-3	-165.873E-12	657.586E-3	-5.26238E-3	-165.157E-12	654.886E-3	-55.5298E-3
-2.53377E-3	-167.030E-12	654.376E-3	-35.5121E-3	-166.513E-12	672.796E-3	-12.7335E-3
-2.53877E-3	-167.775E-12	671.481E-3	-35.5023E-3	-166.207E-12	683.208E-3	-9.43910E-3
-2.54377E-3	-167.681E-12	662.737E-3	-29.8323E-3	-166.048E-12	669.616E-3	-21.0150E-3
-2.54877E-3	-167.588E-12	649.496E-3	-16.8914E-3	-166.996E-12	671.076E-3	-8.67780E-3
-2.55378E-3	-168.867E-12	648.710E-3	13.4322E-3	-166.782E-12	668.957E-3	99.6269E-6
-2.55878E-3	-170.049E-12	637.966E-3	27.8079E-3	-167.933E-12	668.637E-3	8.24410E-3
-2.56378E-3	-168.995E-12	638.386E-3	17.6542E-3	-168.477E-12	675.610E-3	8.49940E-3
-2.56878E-3	-169.975E-12	672.674E-3	25.0918E-3	-168.681E-12	646.748E-3	-15.5487E-3
-2.57379E-3	-170.298E-12	698.234E-3	33.8633E-3	-169.301E-12	639.726E-3	-27.8831E-3
-2.57879E-3	-170.004E-12	674.682E-3	1.02822E-3	-170.152E-12	671.325E-3	-14.8408E-3
-2.58379E-3	-170.423E-12	652.141E-3	-2.57770E-3	-169.110E-12	668.756E-3	-13.7626E-3
-2.58879E-3	-172.073E-12	642.976E-3	32.7801E-3	-170.512E-12	647.742E-3	-7.84202E-3
-2.59380E-3	-171.758E-12	640.305E-3	14.6737E-3	-169.651E-12	648.670E-3	15.8125E-3
-2.59880E-3	-171.370E-12	675.154E-3	-23.7288E-3	-169.385E-12	653.098E-3	20.8294E-3
-2.60380E-3	-170.869E-12	691.866E-3	-12.9285E-3	-169.982E-12	652.009E-3	16.1652E-3
-2.60880E-3	-172.619E-12	671.152E-3	4.20967E-3	-170.610E-12	662.912E-3	23.6653E-3
-2.61381E-3	-172.981E-12	677.643E-3	14.6011E-3	-169.847E-12	673.879E-3	1.37763E-3
-2.61881E-3	-172.052E-12	690.435E-3	29.6223E-3	-171.021E-12	662.894E-3	-44.4429E-3
-2.62381E-3	-170.944E-12	689.087E-3	24.3337E-3	-170.501E-12	673.890E-3	-69.7197E-3
-2.62881E-3	-172.250E-12	690.004E-3	14.4906E-3	-170.713E-12	714.233E-3	-74.2862E-3
-2.63382E-3	-172.413E-12	662.495E-3	2.68787E-3	-171.384E-12	710.781E-3	-57.2390E-3
-2.63882E-3	-172.221E-12	652.508E-3	-25.7542E-3	-172.779E-12	674.457E-3	-19.5305E-3
-2.64382E-3	-172.745E-12	701.919E-3	-25.4609E-3	-172.679E-12	659.021E-3	-10.2367E-3
-2.64882E-3	-171.219E-12	740.073E-3	4.47460E-3	-172.331E-12	645.847E-3	-50.3485E-3
-2.65383E-3	-171.559E-12	715.996E-3	-1.33279E-3	-172.818E-12	624.747E-3	-49.4226E-3
-2.65883E-3	-173.481E-12	678.622E-3	-28.9360E-3	-175.078E-12	641.435E-3	-9.52090E-3
-2.66383E-3	-173.782E-12	677.569E-3	-15.4603E-3	-174.688E-12	672.938E-3	-6.81242E-3
-2.66883E-3	-173.108E-12	688.587E-3	-6.13195E-3	-173.923E-12	678.159E-3	-1.87095E-3
-2.67384E-3	-173.168E-12	703.050E-3	-39.3595E-3	-174.120E-12	710.145E-3	16.7006E-3
-2.67884E-3	-174.566E-12	706.420E-3	-41.3189E-3	-174.576E-12	739.184E-3	-3.15028E-3
-2.68384E-3	-176.293E-12	690.935E-3	-19.1461E-3	-174.292E-12	735.940E-3	-20.8206E-3
-2.68884E-3	-175.986E-12	684.931E-3	-19.9471E-3	-174.824E-12	718.412E-3	-20.1825E-3
-2.69385E-3	-175.795E-12	677.260E-3	1.29239E-3	-174.180E-12	669.791E-3	-35.4147E-3
-2.69885E-3	-175.541E-12	673.730E-3	7.28208E-3	-174.784E-12	632.496E-3	-28.4842E-3
-2.70385E-3	-175.386E-12	691.247E-3	-29.8082E-3	-175.016E-12	652.559E-3	-12.2953E-3
-2.70885E-3	-177.190E-12	705.458E-3	-39.8573E-3	-175.453E-12	685.418E-3	-39.6617E-3
-2.71386E-3	-176.907E-12	683.555E-3	-12.1338E-3	-175.616E-12	660.457E-3	-42.5029E-3
-2.71886E-3	-175.452E-12	671.097E-3	-3.54396E-3	-174.871E-12	644.639E-3	-6.93466E-3
-2.72386E-3	-176.993E-12	705.685E-3	-28.4006E-3	-176.000E-12	658.515E-3	-7.45026E-3
-2.72886E-3	-178.087E-12	700.682E-3	-36.9859E-3	-176.768E-12	652.712E-3	-34.5950E-3
-2.73387E-3	-177.551E-12	660.848E-3	-32.5584E-3	-176.543E-12	662.622E-3	-56.2436E-3
-2.73887E-3	-177.131E-12	650.838E-3	-16.3226E-3	-176.386E-12	667.086E-3	-64.3957E-3
-2.74387E-3	-177.809E-12	655.626E-3	19.1314E-3	-175.900E-12	648.148E-3	-60.2634E-3
-2.74887E-3	-178.509E-12	675.626E-3	19.9404E-3	-177.119E-12	649.953E-3	-51.8796E-3
-2.75388E-3	-178.655E-12	708.354E-3	1.59467E-3	-177.227E-12	673.279E-3	-61.2258E-3
-2.75888E-3	-180.419E-12	705.245E-3	-4.45209E-3	-176.867E-12	702.343E-3	-65.9395E-3
-2.76388E-3	-180.230E-12	659.351E-3	-19.2062E-3	-175.898E-12	699.423E-3	-36.9238E-3
-2.76888E-3	-179.509E-12	639.547E-3	-39.8931E-3	-177.921E-12	646.625E-3	-25.2475E-3
-2.77389E-3	-180.307E-12	675.845E-3	-55.0415E-3	-178.707E-12	616.723E-3	-17.7212E-3
-2.77889E-3	-182.126E-12	698.356E-3	-56.8503E-3	-176.946E-12	639.489E-3	9.73519E-3
-2.78389E-3	-179.986E-12	687.570E-3	-36.6933E-3	-176.447E-12	676.041E-3	2.51597E-3
-2.78889E-3	-178.722E-12	677.145E-3	-18.1576E-3	-177.807E-12	692.244E-3	-25.6284E-3
-2.79390E-3	-179.541E-12	679.121E-3	-16.9014E-3	-179.300E-12	694.628E-3	-34.9368E-3
-2.79890E-3	-179.798E-12	706.855E-3	-10.3742E-3	-177.779E-12	700.373E-3	-34.3781E-3
-2.80390E-3	-178.882E-12	713.387E-3	-5.57125E-3	-178.261E-12	688.985E-3	-21.8179E-3
-2.80890E-3	-178.896E-12	678.106E-3	-13.3907E-3	-179.058E-12	704.804E-3	3.33718E-3
-2.81391E-3	-178.858E-12	666.216E-3	-18.7449E-3	-178.881E-12	749.327E-3	17.2551E-3
-2.81891E-3	-179.382E-12	671.942E-3	-14.6249E-3	-179.445E-12	728.061E-3	3.50275E-3
-2.82391E-3	-180.591E-12	658.474E-3	-21.8848E-3	-180.861E-12	680.047E-3	-12.8996E-3
-2.82891E-3	-180.161E-12	657.642E-3	-31.8458E-3	-181.373E-12	685.410E-3	-40.0331E-3
-2.83392E-3	-179.962E-12	659.085E-3	-41.4503E-3	-180.296E-12	703.369E-3	-50.0576E-3
-2.83892E-3	-181.041E-12	640.587E-3	-45.1298E-3	-180.907E-12	704.164E-3	-30.5567E-3
-2.84392E-3	-182.134E-12	653.290E-3	-21.3390E-3	-180.900E-12	689.505E-3	-49.7885E-3
-2.84892E-3	-182.656E-12	687.711E-3	-7.33208E-3	-181.831E-12	647.505E-3	-80.8125E-3
-2.85393E-3	-181.327E-12	675.769E-3	-15.1586E-3	-182.220E-12	623.001E-3	-50.0408E-3
-2.85893E-3	-181.092E-12	655.272E-3	-3.82167E-3	-183.141E-12	655.763E-3	-11.9871E-3
-2.86393E-3	-182.821E-12	661.452E-3	29.9816E-3	-183.742E-12	700.972E-3	-28.3209E-3
-2.86893E-3	-182.689E-12	671.707E-3	36.1688E-3	-183.996E-12	699.383E-3	-22.7703E-3
-2.87394E-3	-182.275E-12	725.091E-3	-1.89298E-3	-185.179E-12	661.762E-3	-2.53209E-3
-2.87894E-3	-180.826E-12	780.350E-3	-32.8028E-3	-183.464E-12	655.698E-3	-25.8304E-3
-2.88394E-3	-182.161E-12	755.523E-3	-31.8690E-3	-183.730E-12	693.661E-3	-27.2286E-3
-2.88894E-3	-184.420E-12	706.448E-3	-30.4333E-3	-186.060E-12	724.928E-3	21.6171E-3
-2.89395E-3	-182.864E-12	699.289E-3	-43.6001E-3	-185.794E-12	738.549E-3	42.8748E-3
-2.89895E-3	-181.362E-12	704.019E-3	-44.0066E-3	-184.211E-12	745.720E-3	29.6071E-3
-2.90395E-3	-184.091E-12	691.914E-3	-36.5180E-3	-185.309E-12	735.537E-3	2.76643E-3
-2.90895E-3	-185.508E-12	679.019E-3	-24.9131E-3	-187.706E-12	730.327E-3	-29.6419E-3
-2.91396E-3	-184.211E-12	660.277E-3	13.8529E-3	-186.412E-12	725.053E-3	-19.0451E-3
-2.91896E-3	-183.870E-12	666.765E-3	46.1206E-3	-185.636E-12	699.203E-3	13.8991E-3
-2.92396E-3	-186.056E-12	724.639E-3	42.4977E-3	-185.457E-12	669.513E-3	7.43957E-3
-2.92896E-3	-186.057E-12	740.556E-3	12.5389E-3	-185.922E-12	670.878E-3	-22.2539E-3
-2.93397E-3	-186.249E-12	700.211E-3	-5.51238E-3	-186.713E-12	702.368E-3	-26.2961E-3
-2.93897E-3	-186.900E-12	695.600E-3	21.4152E-3	-186.009E-12	700.322E-3	-17.0012E-3
-2.94397E-3	-185.806E-12	716.012E-3	40.2124E-3	-185.889E-12	671.817E-3	-15.4017E-3
-2.94897E-3	-185.864E-12	726.087E-3	19.0198E-3	-186.402E-12	679.166E-3	-14.7057E-3
-2.95398E-3	-186.533E-12	731.760E-3	-19.7394E-3	-187.379E-12	721.141E-3	-30.5194E-3
-2.95898E-3	-186.083E-12	738.640E-3	-36.5105E-3	-187.280E-12	754.742E-3	-27.9949E-3
-2.96398E-3	-184.543E-12	720.250E-3	-26.5574E-3	-186.655E-12	755.645E-3	12.8986E-3
-2.96898E-3	-186.656E-12	674.272E-3	-17.4485E-3	-187.678E-12	733.386E-3	44.6081E-3
-2.97399E-3	-187.323E-12	670.885E-3	8.60837E-3	-188.361E-12	717.441E-3	27.7947E-3
-2.97899E-3	-186.533E-12	708.819E-3	16.0611E-3	-188.266E-12	708.406E-3	-34.2668E-3
-2.98399E-3	-187.603E-12	723.280E-3	-12.4805E-3	-189.016E-12	706.491E-3	-58.9629E-3
-2.98899E-3	-189.294E-12	720.682E-3	-18.7099E-3	-189.163E-12	706.952E-3	-16.3886E-3
-2.99400E-3	-189.732E-12	711.508E-3	-7.31236E-3	-189.104E-12	689.747E-3	21.1961E-3
-2.99900E-3	-190.303E-12	705.004E-3	-2.70361E-3	-189.985E-12	680.724E-3	-467.643E-6
-3.00400E-3	-190.233E-12	719.612E-3	1.66806E-3	-191.346E-12	686.997E-3	-32.0599E-3
-3.00900E-3	-190.735E-12	713.839E-3	1.87859E-3	-190.523E-12	709.392E-3	-14.6348E-3
-3.01401E-3	-192.202E-12	683.389E-3	-15.9298E-3	-190.666E-12	734.496E-3	-8.43275E-3
-3.01901E-3	-192.222E-12	692.180E-3	-13.8103E-3	-190.008E-12	691.544E-3	-42.4527E-3
-3.02401E-3	-191.322E-12	718.326E-3	4.64818E-3	-190.700E-12	621.842E-3	-48.3775E-3
-3.02901E-3	-193.171E-12	718.271E-3	-15.1125E-3	-189.796E-12	623.929E-3	-28.2382E-3
-3.03402E-3	-194.458E-12	722.276E-3	-32.2691E-3	-190.184E-12	650.966E-3	-27.5555E-3
-3.03902E-3	-191.611E-12	723.632E-3	-2.90497E-3	-190.254E-12	666.919E-3	-23.8071E-3
-3.04402E-3	-191.693E-12	706.311E-3	34.4671E-3	-190.809E-12	683.293E-3	-5.08599E-3
-3.04902E-3	-191.350E-12	711.321E-3	26.4922E-3	-189.948E-12	671.526E-3	3.98343E-3
-3.05403E-3	-192.403E-12	743.648E-3	-18.2196E-3	-190.899E-12	658.255E-3	12.8882E-3
-3.05903E-3	-191.397E-12	757.007E-3	-48.2144E-3	-191.844E-12	685.530E-3	-9.76903E-3
-3.06403E-3	-191.756E-12	742.040E-3	-30.3810E-3	-191.961E-12	695.061E-3	-52.3868E-3
-3.06903E-3	-191.453E-12	718.026E-3	9.73263E-3	-191.128E-12	674.300E-3	-25.7036E-3
-3.07404E-3	-193.605E-12	675.096E-3	15.3958E-3	-192.185E-12	693.142E-3	15.6961E-3
-3.07904E-3	-194.977E-12	640.047E-3	344.988E-6	-193.973E-12	715.448E-3	5.04958E-3
-3.08404E-3	-193.520E-12	642.510E-3	-16.3592E-3	-194.418E-12	690.842E-3	-1.47763E-3
-3.08904E-3	-194.581E-12	654.567E-3	-12.6662E-3	-192.695E-12	675.323E-3	11.6264E-3
-3.09405E-3	-196.197E-12	671.045E-3	8.74699E-3	-193.176E-12	680.501E-3	3.68068E-3
-3.09905E-3	-195.995E-12	712.540E-3	-10.0250E-3	-195.755E-12	661.934E-3	-26.0807E-3
-3.10405E-3	-195.143E-12	754.280E-3	-41.1721E-3	-195.170E-12	661.033E-3	-26.4650E-3
-3.10905E-3	-194.379E-12	726.076E-3	-32.0266E-3	-194.026E-12	691.162E-3	-10.8312E-3
-3.11406E-3	-195.385E-12	660.608E-3	-13.1170E-3	-193.698E-12	693.294E-3	-16.7276E-3
-3.11906E-3	-194.614E-12	637.420E-3	-17.2260E-3	-194.583E-12	662.374E-3	-22.2705E-3
-3.12406E-3	-195.524E-12	672.516E-3	-25.3360E-3	-195.372E-12	640.461E-3	-28.6503E-3
-3.12906E-3	-194.138E-12	712.074E-3	-10.0662E-3	-195.557E-12	649.637E-3	-37.1465E-3
-3.13407E-3	-193.246E-12	689.428E-3	-2.01726E-3	-194.913E-12	698.743E-3	-44.9128E-3
-3.13907E-3	-194.108E-12	655.633E-3	-4.76575E-3	-194.716E-12	754.122E-3	-68.6091E-3
-3.14407E-3	-194.513E-12	662.955E-3	5.98063E-3	-194.764E-12	751.946E-3	-72.0439E-3
-3.14907E-3	-194.127E-12	683.021E-3	7.82688E-3	-195.410E-12	716.697E-3	-46.6136E-3
-3.15408E-3	-193.480E-12	694.774E-3	6.67178E-3	-195.795E-12	696.655E-3	-42.5693E-3
-3.15908E-3	-194.622E-12	678.740E-3	13.4952E-3	-196.009E-12	684.713E-3	-28.0932E-3
-3.16408E-3	-194.515E-12	633.489E-3	5.66748E-3	-195.158E-12	678.535E-3	6.08071E-3
-3.16908E-3	-196.169E-12	605.192E-3	7.00494E-3	-197.072E-12	685.223E-3	5.92102E-3
-3.17409E-3	-197.026E-12	646.493E-3	49.1328E-3	-197.313E-12	683.459E-3	-24.2216E-3
-3.17909E-3	-195.748E-12	707.889E-3	75.0709E-3	-197.787E-12	686.406E-3	-22.8955E-3
-3.18409E-3	-197.826E-12	692.827E-3	45.6603E-3	-197.510E-12	727.145E-3	4.59951E-3
-3.18909E-3	-198.100E-12	674.332E-3	9.14975E-3	-198.770E-12	732.148E-3	-924.264E-6
-3.19410E-3	-198.581E-12	689.552E-3	7.14944E-3	-200.336E-12	664.400E-3	15.5590E-3
-3.19910E-3	-198.430E-12	700.120E-3	31.6947E-3	-199.039E-12	613.630E-3	39.9190E-3
-3.20410E-3	-197.291E-12	713.782E-3	33.6737E-3	-197.790E-12	608.819E-3	-5.88121E-3
-3.20910E-3	-196.637E-12	701.430E-3	816.511E-6	-199.117E-12	625.706E-3	-56.0104E-3
-3.21411E-3	-198.631E-12	688.082E-3	-37.2346E-3	-198.455E-12	665.582E-3	-65.7055E-3
-3.21911E-3	-197.047E-12	692.981E-3	-44.7898E-3	-197.937E-12	692.594E-3	-52.9011E-3
-3.22411E-3	-194.769E-12	687.476E-3	-21.4522E-3	-198.683E-12	681.876E-3	-17.7894E-3
-3.22911E-3	-196.345E-12	679.539E-3	-17.4251E-3	-197.845E-12	673.166E-3	-326.739E-6
-3.23412E-3	-198.053E-12	684.099E-3	-21.9601E-3	-198.703E-12	684.196E-3	-8.21793E-3
-3.23912E-3	-196.892E-12	683.770E-3	-10.4189E-3	-200.237E-12	705.415E-3	5.72893E-3
-3.24412E-3	-196.808E-12	680.267E-3	-865.540E-6	-200.201E-12	729.468E-3	22.7400E-3
-3.24912E-3	-198.205E-12	684.297E-3	941.223E-6	-201.092E-12	719.738E-3	11.3765E-3
-3.25413E-3	-198.371E-12	681.040E-3	-10.5371E-3	-200.789E-12	681.925E-3	-6.96572E-3
-3.25913E-3	-199.838E-12	673.925E-3	-29.5920E-3	-201.474E-12	681.146E-3	-27.4067E-3
-3.26413E-3	-200.749E-12	688.092E-3	-27.8321E-3	-202.242E-12	695.302E-3	-44.7368E-3
-3.26913E-3	-200.185E-12	689.047E-3	-4.06796E-3	-203.537E-12	690.099E-3	-27.4134E-3
-3.27414E-3	-201.166E-12	670.156E-3	15.6590E-3	-204.048E-12	696.147E-3	992.188E-6
-3.27914E-3	-202.798E-12	699.891E-3	23.8961E-3	-204.048E-12	679.257E-3	-7.27207E-3
-3.28414E-3	-202.797E-12	738.968E-3	12.4796E-3	-204.319E-12	640.846E-3	-15.6110E-3
-3.28914E-3	-202.400E-12	712.371E-3	-28.7454E-3	-203.942E-12	664.125E-3	-1.25338E-3
-3.29415E-3	-204.014E-12	690.258E-3	-53.7231E-3	-205.109E-12	696.947E-3	15.0938E-3
-3.29915E-3	-203.943E-12	696.688E-3	-25.7375E-3	-203.119E-12	674.808E-3	29.6979E-3
-3.30415E-3	-203.799E-12	657.590E-3	14.2891E-3	-203.234E-12	646.825E-3	11.4645E-3
-3.30915E-3	-203.089E-12	642.509E-3	16.6620E-3	-203.300E-12	626.660E-3	-39.0986E-3
-3.31416E-3	-202.617E-12	673.988E-3	-1.29561E-3	-203.814E-12	624.619E-3	-63.3803E-3
-3.31916E-3	-203.647E-12	671.040E-3	-17.0738E-3	-202.919E-12	639.325E-3	-51.7187E-3
-3.32416E-3	-204.566E-12	665.204E-3	-33.4853E-3	-202.549E-12	642.781E-3	-37.6728E-3
-3.32916E-3	-204.873E-12	679.339E-3	-39.6404E-3	-203.872E-12	652.374E-3	-7.21248E-3
-3.33417E-3	-203.934E-12	687.244E-3	-46.0633E-3	-203.964E-12	666.130E-3	10.0895E-3
-3.33917E-3	-205.754E-12	686.716E-3	-59.7835E-3	-203.782E-12	681.911E-3	-13.2198E-3
-3.34417E-3	-207.535E-12	672.436E-3	-54.2032E-3	-203.917E-12	699.195E-3	-16.2967E-3
-3.34917E-3	-205.971E-12	658.843E-3	-41.8095E-3	-205.092E-12	715.670E-3	13.0776E-3
-3.35418E-3	-205.424E-12	680.349E-3	-46.9327E-3	-205.665E-12	722.364E-3	9.41793E-3
-3.35918E-3	-206.806E-12	723.852E-3	-51.8903E-3	-205.883E-12	704.270E-3	-21.3348E-3
-3.36418E-3	-207.836E-12	746.086E-3	-60.4073E-3	-204.863E-12	697.134E-3	-28.8799E-3
-3.36918E-3	-205.935E-12	715.589E-3	-79.1662E-3	-204.598E-12	706.993E-3	-29.6742E-3
-3.37419E-3	-206.253E-12	665.341E-3	-69.5656E-3	-206.290E-12	686.607E-3	-31.6389E-3
-3.37919E-3	-206.677E-12	652.450E-3	-36.1708E-3	-205.005E-12	654.461E-3	-34.1531E-3
-3.38419E-3	-206.444E-12	665.375E-3	-37.8333E-3	-204.787E-12	665.825E-3	-49.6544E-3
-3.38919E-3	-205.386E-12	695.505E-3	-60.7721E-3	-205.597E-12	696.481E-3	-60.1876E-3
-3.39420E-3	-206.644E-12	703.056E-3	-68.6274E-3	-205.555E-12	710.782E-3	-24.1360E-3
-3.39920E-3	-208.256E-12	671.997E-3	-84.3299E-3	-204.203E-12	710.147E-3	19.0329E-3
-3.40420E-3	-207.644E-12	675.560E-3	-83.3369E-3	-206.763E-12	692.484E-3	15.8161E-3
-3.40920E-3	-208.012E-12	727.632E-3	-37.4109E-3	-208.604E-12	680.903E-3	3.68259E-3
-3.41421E-3	-208.682E-12	745.143E-3	-21.1741E-3	-205.640E-12	707.413E-3	1.85830E-3
-3.41921E-3	-209.769E-12	722.895E-3	-23.4461E-3	-206.807E-12	738.456E-3	-23.8518E-3
-3.42421E-3	-210.297E-12	718.515E-3	-7.21854E-3	-208.083E-12	701.201E-3	-16.4876E-3
-3.42921E-3	-211.226E-12	723.591E-3	-8.24150E-3	-210.408E-12	648.139E-3	27.7033E-3
-3.43422E-3	-210.825E-12	719.318E-3	-30.0361E-3	-210.213E-12	652.249E-3	15.4320E-3
-3.43922E-3	-213.109E-12	703.125E-3	-35.3574E-3	-209.071E-12	685.841E-3	-11.2034E-3
-3.44422E-3	-213.444E-12	687.703E-3	-26.0651E-3	-210.598E-12	709.553E-3	-4.29487E-3
-3.44922E-3	-211.525E-12	665.948E-3	-15.9066E-3	-211.956E-12	710.111E-3	755.432E-6
-3.45423E-3	-211.232E-12	643.033E-3	5.66320E-3	-211.194E-12	678.150E-3	6.85051E-3
-3.45923E-3	-211.313E-12	651.238E-3	-14.8463E-3	-209.631E-12	661.313E-3	23.0900E-3
-3.46423E-3	-210.747E-12	668.392E-3	-68.4836E-3	-211.005E-12	707.861E-3	-630.178E-6
-3.46923E-3	-210.175E-12	656.835E-3	-67.6526E-3	-211.170E-12	711.608E-3	-37.6356E-3
-3.47424E-3	-210.373E-12	656.306E-3	-32.3842E-3	-212.615E-12	679.849E-3	-5.67219E-3
-3.47924E-3	-209.876E-12	697.863E-3	-32.9644E-3	-211.176E-12	693.541E-3	29.1484E-3
-3.48424E-3	-208.459E-12	732.289E-3	-43.6271E-3	-211.020E-12	697.097E-3	3.06370E-3
-3.48924E-3	-210.301E-12	705.657E-3	-26.2804E-3	-210.911E-12	701.970E-3	-20.8066E-3
-3.49425E-3	-209.920E-12	661.384E-3	-12.5297E-3	-213.975E-12	719.618E-3	-15.8817E-3
-3.49925E-3	-210.196E-12	662.997E-3	-8.56213E-3	-212.582E-12	706.605E-3	3.90592E-3
-3.50425E-3	-210.606E-12	680.715E-3	-1.65809E-3	-212.054E-12	683.680E-3	44.7755E-3
-3.50925E-3	-213.421E-12	689.542E-3	3.92347E-3	-212.637E-12	669.308E-3	38.6193E-3
-3.51426E-3	-213.737E-12	703.348E-3	-11.7347E-3	-212.949E-12	649.583E-3	-30.6669E-3
-3.51926E-3	-213.795E-12	722.768E-3	-40.0997E-3	-213.847E-12	671.375E-3	-47.2703E-3
-3.52426E-3	-214.764E-12	737.635E-3	-57.5528E-3	-215.533E-12	723.140E-3	-6.26983E-3
-3.52926E-3	-215.819E-12	725.084E-3	-53.8483E-3	-214.660E-12	723.656E-3	24.4120E-3
-3.53427E-3	-214.941E-12	683.822E-3	-65.4315E-3	-212.640E-12	674.549E-3	35.1928E-3
-3.53927E-3	-212.715E-12	666.147E-3	-96.9401E-3	-214.616E-12	661.024E-3	12.4193E-3
-3.54427E-3	-213.960E-12	666.070E-3	-85.5282E-3	-215.952E-12	692.802E-3	-26.3947E-3
-3.54927E-3	-213.937E-12	641.456E-3	-38.3385E-3	-214.597E-12	693.770E-3	-32.8239E-3
-3.55428E-3	-212.221E-12	651.527E-3	-10.2623E-3	-212.905E-12	688.340E-3	-30.0286E-3
-3.55928E-3	-212.322E-12	709.123E-3	-4.55562E-3	-214.067E-12	681.087E-3	-56.1389E-3
-3.56428E-3	-212.749E-12	708.714E-3	-17.1560E-3	-215.279E-12	658.917E-3	-60.4057E-3
-3.56928E-3	-211.913E-12	663.502E-3	-47.3848E-3	-214.094E-12	685.564E-3	-2.99421E-3
-3.57429E-3	-211.566E-12	654.598E-3	-39.9305E-3	-213.726E-12	715.033E-3	45.3011E-3
-3.57929E-3	-212.829E-12	694.132E-3	-18.6614E-3	-214.006E-12	692.937E-3	45.2815E-3
-3.58429E-3	-212.883E-12	744.329E-3	-24.0949E-3	-215.483E-12	685.180E-3	53.0420E-3
-3.58929E-3	-214.024E-12	741.417E-3	-17.3321E-3	-216.923E-12	700.433E-3	38.2378E-3
-3.59430E-3	-215.153E-12	692.793E-3	-7.68463E-3	-217.414E-12	703.485E-3	-8.20701E-3
-3.59930E-3	-216.042E-12	649.767E-3	-15.0142E-3	-215.224E-12	693.582E-3	4.18113E-3
-3.60430E-3	-217.418E-12	665.225E-3	-15.8901E-3	-216.815E-12	676.054E-3	42.3044E-3
-3.60930E-3	-217.841E-12	697.742E-3	-2.44376E-3	-219.306E-12	649.016E-3	40.7532E-3
-3.61431E-3	-220.475E-12	687.340E-3	-5.05490E-3	-219.079E-12	647.573E-3	41.3890E-3
-3.61931E-3	-220.091E-12	670.949E-3	-33.6261E-3	-217.726E-12	689.083E-3	25.5990E-3
-3.62431E-3	-220.232E-12	660.061E-3	-27.9556E-3	-218.792E-12	690.796E-3	-16.3464E-3
-3.62931E-3	-219.658E-12	644.932E-3	25.4252E-3	-219.783E-12	651.773E-3	-21.2806E-3
-3.63432E-3	-221.060E-12	646.712E-3	38.1295E-3	-218.007E-12	661.110E-3	-23.0155E-3
-3.63932E-3	-220.351E-12	686.839E-3	804.714E-6	-218.467E-12	682.012E-3	-58.5902E-3
-3.64432E-3	-219.079E-12	709.393E-3	-25.8023E-3	-218.114E-12	687.149E-3	-61.9307E-3
-3.64932E-3	-218.783E-12	690.181E-3	-47.5830E-3	-216.333E-12	688.409E-3	-20.7010E-3
-3.65433E-3	-219.095E-12	681.136E-3	-31.6830E-3	-217.816E-12	653.366E-3	-6.10782E-3
-3.65933E-3	-220.233E-12	696.854E-3	-3.20570E-3	-219.449E-12	627.583E-3	-21.7365E-3
-3.66433E-3	-219.450E-12	740.582E-3	-26.2660E-3	-217.872E-12	643.907E-3	-32.7744E-3
-3.66933E-3	-217.508E-12	767.584E-3	-26.1380E-3	-217.244E-12	642.623E-3	-25.7822E-3
-3.67434E-3	-218.291E-12	726.412E-3	-3.73779E-3	-218.705E-12	630.114E-3	-7.64757E-3
-3.67934E-3	-219.008E-12	661.906E-3	-17.7433E-3	-220.941E-12	667.296E-3	-15.9757E-3
-3.68434E-3	-218.935E-12	639.669E-3	-17.6574E-3	-222.093E-12	699.812E-3	-24.4689E-3
-3.68934E-3	-220.020E-12	643.650E-3	10.0975E-3	-222.712E-12	687.488E-3	5.03848E-3
-3.69435E-3	-219.812E-12	652.583E-3	5.61818E-3	-221.021E-12	699.680E-3	22.7623E-3
-3.69935E-3	-220.298E-12	662.691E-3	-15.0051E-3	-221.831E-12	718.688E-3	-16.7749E-3
-3.70435E-3	-222.096E-12	653.046E-3	-4.80694E-3	-226.710E-12	699.678E-3	-53.3752E-3
-3.70935E-3	-220.487E-12	665.114E-3	-8.78638E-3	-224.915E-12	693.630E-3	-43.9612E-3
-3.71436E-3	-221.045E-12	703.969E-3	-10.8911E-3	-221.582E-12	687.312E-3	-47.7098E-3
-3.71936E-3	-221.440E-12	711.864E-3	26.2996E-3	-222.830E-12	672.576E-3	-42.6097E-3
-3.72436E-3	-221.580E-12	673.256E-3	35.4762E-3	-224.856E-12	696.851E-3	-4.08564E-3
-3.72936E-3	-222.170E-12	635.838E-3	11.8992E-3	-223.827E-12	716.964E-3	1.18740E-3
-3.73437E-3	-221.120E-12	654.115E-3	4.76601E-3	-223.260E-12	699.253E-3	-8.50426E-3
-3.73937E-3	-221.724E-12	699.805E-3	-9.85105E-3	-221.142E-12	684.465E-3	-9.39356E-3
-3.74437E-3	-222.710E-12	715.232E-3	-20.7138E-3	-220.126E-12	683.701E-3	-22.3789E-3
-3.74937E-3	-224.667E-12	692.602E-3	1.71048E-3	-222.945E-12	664.134E-3	-82.3016E-6
-3.75438E-3	-222.902E-12	665.905E-3	2.77576E-3	-222.344E-12	644.027E-3	31.7195E-3
-3.75938E-3	-224.997E-12	673.830E-3	-5.57055E-3	-221.102E-12	664.686E-3	1.65047E-3
-3.76438E-3	-226.899E-12	691.255E-3	597.734E-6	-221.680E-12	677.690E-3	-35.4426E-3
-3.76938E-3	-226.561E-12	680.496E-3	-22.8227E-3	-224.321E-12	686.205E-3	-10.3090E-3
-3.77439E-3	-225.151E-12	680.094E-3	-47.3552E-3	-224.627E-12	713.205E-3	5.05636E-3
-3.77939E-3	-227.258E-12	702.281E-3	-25.5649E-3	-223.349E-12	702.635E-3	-23.2336E-3
-3.78439E-3	-227.789E-12	702.517E-3	-3.00279E-3	-222.796E-12	670.884E-3	-13.0335E-3
-3.78939E-3	-225.165E-12	681.646E-3	-17.8232E-3	-226.082E-12	664.573E-3	3.23789E-3
-3.79440E-3	-225.878E-12	655.086E-3	-38.5344E-3	-227.215E-12	695.500E-3	-14.8565E-3
-3.79940E-3	-225.185E-12	633.418E-3	-34.0785E-3	-225.768E-12	734.927E-3	638.767E-6
-3.80440E-3	-224.788E-12	649.702E-3	-10.4639E-3	-226.517E-12	743.982E-3	8.97101E-3
-3.80940E-3	-223.603E-12	676.781E-3	31.6905E-3	-227.247E-12	717.177E-3	-24.8455E-3
-3.81441E-3	-224.122E-12	674.865E-3	59.1906E-3	-227.230E-12	677.832E-3	-46.6790E-3
-3.81941E-3	-223.106E-12	683.803E-3	38.8469E-3	-227.866E-12	676.485E-3	-52.4357E-3
-3.82441E-3	-222.082E-12	697.448E-3	-9.09755E-3	-227.481E-12	678.874E-3	-42.4175E-3
-3.82941E-3	-223.876E-12	667.771E-3	-35.8956E-3	-225.495E-12	654.646E-3	-19.6653E-3
-3.83442E-3	-225.082E-12	654.800E-3	-14.1443E-3	-225.492E-12	675.066E-3	19.1834E-3
-3.83942E-3	-224.824E-12	687.016E-3	26.2247E-3	-227.576E-12	683.810E-3	48.1056E-3
-3.84442E-3	-225.680E-12	712.859E-3	27.1260E-3	-226.806E-12	637.390E-3	15.2253E-3
-3.84942E-3	-227.447E-12	722.040E-3	-16.8049E-3	-227.472E-12	664.272E-3	-17.8807E-3
-3.85443E-3	-228.340E-12	707.773E-3	-30.4494E-3	-227.524E-12	740.519E-3	-9.28138E-3
-3.85943E-3	-230.424E-12	697.219E-3	-23.3923E-3	-229.895E-12	740.890E-3	-609.942E-6
-3.86443E-3	-229.470E-12	721.421E-3	-29.8691E-3	-230.927E-12	717.071E-3	-1.48937E-3
-3.86943E-3	-228.524E-12	725.681E-3	18.5722E-3	-229.476E-12	715.213E-3	-17.5217E-3
-3.87444E-3	-230.851E-12	708.752E-3	69.8645E-3	-228.305E-12	697.021E-3	-30.3143E-3
-3.87944E-3	-232.432E-12	710.304E-3	21.5221E-3	-230.875E-12	692.065E-3	-11.2507E-3
-3.88444E-3	-228.489E-12	704.092E-3	-29.8222E-3	-232.925E-12	687.341E-3	22.4692E-3
-3.88944E-3	-228.845E-12	700.303E-3	-24.3681E-3	-231.585E-12	662.499E-3	23.5689E-3
-3.89445E-3	-228.141E-12	713.662E-3	-44.7413E-3	-229.416E-12	646.549E-3	3.70949E-3
-3.89945E-3	-227.585E-12	714.321E-3	-68.7783E-3	-230.493E-12	659.134E-3	-25.1085E-3
-3.90445E-3	-227.479E-12	698.322E-3	-42.8102E-3	-232.257E-12	696.350E-3	-48.9111E-3
-3.90945E-3	-227.275E-12	678.723E-3	-5.86884E-3	-231.701E-12	721.731E-3	-47.3172E-3
-3.91446E-3	-227.930E-12	670.821E-3	8.97054E-3	-229.236E-12	705.405E-3	-56.3005E-3
-3.91946E-3	-227.769E-12	672.778E-3	-16.5926E-3	-228.483E-12	674.942E-3	-40.5831E-3
-3.92446E-3	-231.056E-12	656.975E-3	-49.4241E-3	-231.508E-12	672.570E-3	-11.1717E-3
-3.92946E-3	-231.395E-12	645.623E-3	-42.2471E-3	-233.106E-12	706.350E-3	-1.84090E-3
-3.93447E-3	-229.591E-12	651.631E-3	21.3830E-3	-230.702E-12	742.268E-3	34.7860E-3
-3.93947E-3	-233.031E-12	623.035E-3	75.8415E-3	-229.983E-12	734.537E-3	64.5267E-3
-3.94447E-3	-233.730E-12	619.960E-3	13.0356E-3	-232.211E-12	692.031E-3	44.9562E-3
-3.94947E-3	-232.794E-12	656.265E-3	-44.3755E-3	-234.798E-12	671.281E-3	-9.02531E-3
-3.95448E-3	-234.299E-12	641.491E-3	-8.67994E-3	-234.031E-12	686.753E-3	-54.4013E-3
-3.95948E-3	-236.453E-12	612.199E-3	-3.26622E-3	-232.204E-12	686.763E-3	-45.0584E-3
-3.96448E-3	-232.467E-12	636.808E-3	-19.6498E-3	-232.808E-12	672.367E-3	-12.1418E-3
-3.96948E-3	-234.841E-12	690.631E-3	-36.3983E-3	-233.573E-12	679.816E-3	-8.29800E-3
-3.97449E-3	-235.525E-12	714.589E-3	-70.7921E-3	-233.988E-12	686.000E-3	-31.8715E-3
-3.97949E-3	-233.559E-12	703.001E-3	-52.9509E-3	-232.291E-12	665.189E-3	-54.5802E-3
-3.98449E-3	-232.442E-12	659.255E-3	-24.1846E-3	-231.477E-12	658.699E-3	-35.1166E-3
-3.98949E-3	-233.036E-12	631.217E-3	-27.8632E-3	-232.562E-12	688.318E-3	-4.33773E-3
-3.99450E-3	-232.547E-12	673.539E-3	-13.1311E-3	-232.714E-12	695.648E-3	-1.90788E-3
-3.99950E-3	-232.704E-12	690.485E-3	24.6491E-3	-231.989E-12	679.854E-3	13.4918E-3
-4.00450E-3	-231.695E-12	646.813E-3	51.8870E-3	-233.075E-12	696.303E-3	26.4938E-3
-4.00950E-3	-232.630E-12	633.109E-3	53.7027E-3	-233.362E-12	711.043E-3	-15.0330E-3
-4.01451E-3	-235.145E-12	667.448E-3	33.0198E-3	-232.769E-12	672.316E-3	-52.0902E-3
-4.01951E-3	-235.268E-12	721.146E-3	-9.23866E-3	-234.473E-12	642.003E-3	-49.0613E-3
-4.02451E-3	-234.042E-12	749.331E-3	-66.1660E-3	-235.751E-12	651.523E-3	-19.4918E-3
-4.02951E-3	-235.028E-12	728.199E-3	-85.5596E-3	-234.984E-12	659.736E-3	33.5077E-3
-4.03452E-3	-238.103E-12	710.792E-3	-46.4298E-3	-234.685E-12	671.228E-3	52.9528E-3
-4.03952E-3	-239.082E-12	724.783E-3	-28.2055E-3	-238.125E-12	660.188E-3	21.1766E-3
-4.04452E-3	-238.188E-12	715.692E-3	-13.3219E-3	-237.548E-12	640.379E-3	5.82374E-3
-4.04952E-3	-238.080E-12	670.983E-3	25.1544E-3	-237.501E-12	658.703E-3	48.8277E-3
-4.05453E-3	-240.859E-12	654.253E-3	19.3230E-3	-239.442E-12	676.651E-3	68.5439E-3
-4.05953E-3	-242.472E-12	660.640E-3	-28.8733E-3	-238.729E-12	678.823E-3	47.0203E-3
-4.06453E-3	-242.024E-12	652.010E-3	-49.0844E-3	-238.169E-12	686.025E-3	44.0029E-3
-4.06953E-3	-237.924E-12	684.390E-3	-24.8058E-3	-237.545E-12	659.171E-3	4.92371E-3
-4.07454E-3	-238.093E-12	737.719E-3	-5.91478E-3	-236.216E-12	614.634E-3	-20.4965E-3
-4.07954E-3	-240.178E-12	717.881E-3	-7.59080E-3	-237.461E-12	629.411E-3	24.8620E-3
-4.08454E-3	-239.955E-12	681.451E-3	-19.5851E-3	-236.478E-12	667.693E-3	29.0557E-3
-4.08954E-3	-238.280E-12	676.850E-3	-26.0932E-3	-236.989E-12	670.649E-3	19.9345E-3
-4.09455E-3	-238.112E-12	678.543E-3	-9.94387E-3	-236.692E-12	677.437E-3	45.0121E-3
-4.09955E-3	-238.494E-12	706.434E-3	6.26630E-3	-238.080E-12	682.608E-3	27.4285E-3
-4.10455E-3	-238.365E-12	726.234E-3	1.93575E-3	-238.069E-12	664.539E-3	4.92820E-3
-4.10955E-3	-240.187E-12	689.149E-3	9.79101E-3	-240.556E-12	689.190E-3	22.5390E-3
-4.11456E-3	-239.283E-12	640.415E-3	39.0481E-3	-240.534E-12	739.338E-3	27.3962E-3
-4.11956E-3	-238.435E-12	657.480E-3	36.5703E-3	-240.832E-12	713.583E-3	-3.99388E-3
-4.12456E-3	-241.812E-12	725.107E-3	17.2280E-3	-242.832E-12	649.789E-3	-33.7731E-3
-4.12956E-3	-242.327E-12	730.055E-3	22.5796E-3	-243.714E-12	676.304E-3	-68.4774E-3
-4.13457E-3	-240.503E-12	676.223E-3	14.6330E-3	-244.176E-12	729.094E-3	-92.0361E-3
-4.13957E-3	-240.025E-12	679.198E-3	-15.9478E-3	-243.552E-12	718.861E-3	-44.1818E-3
-4.14457E-3	-239.127E-12	737.819E-3	-4.93761E-3	-244.124E-12	700.516E-3	-12.4389E-3
-4.14957E-3	-240.763E-12	775.269E-3	16.5959E-3	-244.563E-12	668.385E-3	-46.9190E-3
-4.15458E-3	-240.546E-12	753.337E-3	-19.1147E-3	-244.869E-12	660.978E-3	-49.1538E-3
-4.15958E-3	-240.267E-12	694.954E-3	-51.5882E-3	-244.035E-12	723.235E-3	-18.0152E-3
-4.16458E-3	-241.151E-12	673.354E-3	-45.9756E-3	-240.558E-12	730.534E-3	-28.6704E-3
-4.16958E-3	-241.418E-12	705.960E-3	-22.0018E-3	-241.237E-12	670.384E-3	-44.8225E-3
-4.17459E-3	-242.767E-12	737.158E-3	-4.60345E-3	-244.983E-12	639.671E-3	-59.9078E-3
-4.17959E-3	-242.254E-12	738.455E-3	-30.7148E-3	-243.003E-12	638.139E-3	-73.7627E-3
-4.18459E-3	-241.140E-12	740.198E-3	-49.1009E-3	-240.132E-12	639.020E-3	-38.7946E-3
-4.18959E-3	-242.962E-12	732.572E-3	-12.4651E-3	-242.517E-12	660.735E-3	126.404E-6
-4.19460E-3	-244.451E-12	727.953E-3	12.5929E-3	-246.017E-12	711.700E-3	6.34096E-3
-4.19960E-3	-243.765E-12	734.517E-3	9.26043E-3	-245.159E-12	754.227E-3	25.4690E-3
-4.20460E-3	-243.637E-12	719.117E-3	17.2225E-3	-245.841E-12	779.375E-3	64.6776E-3
-4.20960E-3	-245.083E-12	701.559E-3	14.1387E-3	-244.072E-12	757.341E-3	101.756E-3
-4.21461E-3	-244.727E-12	711.767E-3	-15.3982E-3	-246.760E-12	679.248E-3	95.2967E-3
-4.21961E-3	-243.843E-12	730.006E-3	-43.3783E-3	-250.304E-12	637.560E-3	29.9746E-3
-4.22461E-3	-245.236E-12	707.100E-3	-52.2802E-3	-248.458E-12	648.944E-3	-42.9722E-3
-4.22961E-3	-244.860E-12	682.111E-3	-55.6726E-3	-245.113E-12	666.242E-3	-71.4799E-3
-4.23462E-3	-243.408E-12	680.847E-3	-86.2487E-3	-246.870E-12	699.473E-3	-43.8661E-3
-4.23962E-3	-243.737E-12	673.003E-3	-99.6701E-3	-247.720E-12	716.219E-3	-39.6133E-3
-4.24462E-3	-246.465E-12	678.871E-3	-64.9294E-3	-246.102E-12	685.003E-3	-63.2475E-3
-4.24962E-3	-244.672E-12	699.807E-3	-38.7185E-3	-245.132E-12	665.215E-3	-43.4382E-3
-4.25463E-3	-243.337E-12	694.625E-3	517.011E-6	-245.079E-12	686.106E-3	-23.9325E-3
-4.25963E-3	-246.925E-12	669.468E-3	25.9720E-3	-246.025E-12	686.651E-3	-22.0193E-3
-4.26463E-3	-248.104E-12	693.662E-3	9.21236E-3	-246.379E-12	668.143E-3	9.05399E-3
-4.26963E-3	-246.441E-12	729.086E-3	3.91753E-3	-245.406E-12	676.400E-3	23.5476E-3
-4.27464E-3	-247.070E-12	720.609E-3	-1.31143E-3	-245.015E-12	674.754E-3	-142.856E-6
-4.27964E-3	-249.487E-12	695.325E-3	-5.30593E-3	-246.589E-12	667.185E-3	-24.4040E-3
-4.28464E-3	-250.380E-12	691.865E-3	37.0646E-3	-247.707E-12	689.386E-3	-49.9967E-3
-4.28964E-3	-249.498E-12	686.052E-3	78.9824E-3	-247.983E-12	696.192E-3	-55.0421E-3
-4.29465E-3	-249.581E-12	658.512E-3	44.2420E-3	-248.471E-12	675.159E-3	-18.0713E-3
-4.29965E-3	-248.400E-12	691.814E-3	-15.6275E-3	-249.318E-12	672.453E-3	17.9124E-3
-4.30465E-3	-250.988E-12	719.541E-3	-52.7414E-3	-249.751E-12	686.762E-3	3.64022E-3
-4.30965E-3	-250.153E-12	691.194E-3	-52.6256E-3	-249.805E-12	701.640E-3	-61.1630E-3
-4.31466E-3	-248.304E-12	700.304E-3	-9.48819E-3	-248.880E-12	702.263E-3	-89.5295E-3
-4.31966E-3	-247.940E-12	674.350E-3	48.1880E-3	-248.375E-12	685.900E-3	-33.1090E-3
-4.32466E-3	-248.453E-12	606.461E-3	60.5468E-3	-248.722E-12	667.922E-3	842.679E-6
-4.32966E-3	-248.510E-12	611.629E-3	33.8186E-3	-249.770E-12	657.832E-3	-13.2321E-3
-4.33467E-3	-249.549E-12	646.611E-3	64.2589E-3	-248.084E-12	655.173E-3	-7.70131E-3
-4.33967E-3	-248.918E-12	655.479E-3	76.8146E-3	-247.603E-12	688.110E-3	5.51734E-3
-4.34467E-3	-249.326E-12	665.977E-3	34.5937E-3	-247.755E-12	714.729E-3	156.948E-6
-4.34967E-3	-249.594E-12	656.853E-3	46.8014E-3	-249.166E-12	668.834E-3	-28.6016E-3
-4.35468E-3	-250.521E-12	647.455E-3	39.4394E-3	-249.599E-12	654.310E-3	-80.7253E-3
-4.35968E-3	-251.653E-12	689.939E-3	-21.7996E-3	-249.521E-12	699.847E-3	-110.875E-3
-4.36468E-3	-251.097E-12	698.019E-3	-33.5548E-3	-250.480E-12	719.043E-3	-76.1058E-3
-4.36968E-3	-252.635E-12	663.593E-3	-28.5218E-3	-250.190E-12	725.386E-3	-36.9287E-3
-4.37469E-3	-256.297E-12	681.872E-3	-55.9210E-3	-252.561E-12	712.982E-3	-39.9602E-3
-4.37969E-3	-257.111E-12	724.639E-3	-78.0408E-3	-252.638E-12	678.234E-3	-53.0750E-3
-4.38469E-3	-256.153E-12	705.777E-3	-65.0612E-3	-251.820E-12	661.046E-3	-52.6339E-3
-4.38969E-3	-253.416E-12	653.780E-3	-36.3717E-3	-251.808E-12	665.802E-3	-48.7793E-3
-4.39470E-3	-254.028E-12	616.474E-3	-17.8211E-3	-251.800E-12	675.128E-3	-52.7743E-3
-4.39970E-3	-254.563E-12	615.812E-3	-24.0292E-3	-254.062E-12	654.256E-3	-47.6932E-3
-4.40470E-3	-253.748E-12	674.982E-3	-31.0915E-3	-253.090E-12	632.252E-3	-59.5990E-3
-4.40970E-3	-252.828E-12	708.131E-3	3.07220E-3	-251.628E-12	636.948E-3	-80.3700E-3
-4.41471E-3	-251.693E-12	666.951E-3	16.5952E-3	-250.906E-12	619.681E-3	-46.4164E-3
-4.41971E-3	-251.534E-12	637.390E-3	-2.36335E-3	-253.477E-12	621.996E-3	-892.848E-6
-4.42471E-3	-252.511E-12	651.903E-3	10.3586E-3	-251.310E-12	672.577E-3	8.93017E-3
-4.42971E-3	-250.914E-12	653.972E-3	25.1448E-3	-250.789E-12	702.247E-3	-4.27665E-3
-4.43472E-3	-250.493E-12	658.689E-3	536.369E-6	-252.255E-12	707.307E-3	-32.4135E-3
-4.43972E-3	-252.427E-12	654.508E-3	-11.8583E-3	-251.321E-12	703.419E-3	-71.9228E-3
-4.44472E-3	-251.944E-12	599.722E-3	1.86991E-3	-252.568E-12	666.297E-3	-62.0776E-3
-4.44972E-3	-252.709E-12	572.089E-3	-8.49428E-3	-254.991E-12	642.650E-3	10.3818E-3
-4.45473E-3	-254.016E-12	611.382E-3	8.98009E-3	-255.373E-12	660.721E-3	38.1874E-3
-4.45973E-3	-256.004E-12	650.611E-3	41.5163E-3	-253.948E-12	681.200E-3	-4.17814E-3
-4.46473E-3	-255.936E-12	645.429E-3	-7.38420E-3	-256.602E-12	695.634E-3	-26.1222E-3
-4.46973E-3	-256.638E-12	655.551E-3	-70.4712E-3	-259.993E-12	703.211E-3	-5.53892E-3
-4.47474E-3	-257.980E-12	697.406E-3	-43.9664E-3	-258.856E-12	688.893E-3	-22.6779E-3
-4.47974E-3	-259.844E-12	711.435E-3	10.5957E-3	-257.224E-12	666.566E-3	-50.1186E-3
-4.48474E-3	-259.703E-12	701.825E-3	12.8361E-3	-258.278E-12	672.831E-3	-39.4726E-3
-4.48974E-3	-258.185E-12	691.164E-3	-6.69575E-3	-258.855E-12	711.199E-3	-37.0530E-3
-4.49475E-3	-259.147E-12	678.255E-3	-49.4628E-3	-258.077E-12	743.977E-3	-5.16400E-3
-4.49975E-3	-260.602E-12	682.732E-3	-64.8322E-3	-255.528E-12	738.765E-3	44.7958E-3
-4.50475E-3	-256.779E-12	687.216E-3	-16.8847E-3	-255.811E-12	728.083E-3	22.2726E-3
-4.50975E-3	-255.236E-12	678.128E-3	-36.2435E-3	-256.693E-12	712.838E-3	-11.4309E-3
-4.51476E-3	-259.162E-12	669.221E-3	-84.3156E-3	-256.103E-12	682.239E-3	8.75944E-3
-4.51976E-3	-258.423E-12	648.157E-3	-48.1359E-3	-255.241E-12	660.769E-3	23.9559E-3
-4.52476E-3	-255.566E-12	635.952E-3	831.735E-6	-255.567E-12	651.829E-3	12.4566E-3
-4.52976E-3	-256.256E-12	666.739E-3	-9.03556E-3	-255.759E-12	640.128E-3	-13.8963E-3
-4.53477E-3	-257.360E-12	682.485E-3	-41.7149E-3	-256.520E-12	606.446E-3	-55.3175E-3
-4.53977E-3	-256.874E-12	667.530E-3	-26.3430E-3	-257.726E-12	578.084E-3	-68.5638E-3
-4.54477E-3	-258.849E-12	678.191E-3	17.2955E-3	-258.615E-12	597.388E-3	-47.3151E-3
-4.54977E-3	-258.903E-12	695.441E-3	22.7983E-3	-260.532E-12	649.129E-3	-43.8492E-3
-4.55478E-3	-256.803E-12	722.849E-3	-4.56671E-3	-261.060E-12	687.168E-3	-35.7855E-3
-4.55978E-3	-258.312E-12	760.294E-3	-15.8914E-3	-261.462E-12	688.282E-3	30.0595E-3
-4.56478E-3	-262.227E-12	736.896E-3	-1.28205E-3	-261.714E-12	681.206E-3	95.8575E-3
-4.56978E-3	-261.589E-12	665.970E-3	5.46077E-3	-262.571E-12	652.582E-3	61.4922E-3
-4.57479E-3	-260.240E-12	644.205E-3	-3.18801E-3	-262.162E-12	603.822E-3	-13.8432E-3
-4.57979E-3	-261.668E-12	659.545E-3	-34.5509E-3	-262.345E-12	620.133E-3	-20.6970E-3
-4.58479E-3	-262.635E-12	668.731E-3	-85.3291E-3	-260.948E-12	670.807E-3	-23.6327E-3
-4.58979E-3	-264.187E-12	701.367E-3	-85.8027E-3	-260.858E-12	687.609E-3	-42.4242E-3
-4.59480E-3	-263.370E-12	715.450E-3	-39.6061E-3	-261.008E-12	674.880E-3	-15.5156E-3
-4.59980E-3	-261.967E-12	678.766E-3	-45.1513E-3	-260.503E-12	657.548E-3	1.72276E-3
-4.60480E-3	-262.409E-12	660.300E-3	-72.6869E-3	-258.764E-12	657.783E-3	-1.55822E-3
-4.60980E-3	-262.632E-12	670.975E-3	-27.1557E-3	-259.309E-12	663.725E-3	13.3100E-3
-4.61481E-3	-263.840E-12	676.714E-3	12.0855E-3	-261.352E-12	673.374E-3	7.61766E-3
-4.61981E-3	-263.975E-12	678.107E-3	-25.4148E-3	-260.857E-12	698.604E-3	-26.4504E-3
-4.62481E-3	-264.456E-12	676.876E-3	-29.0104E-3	-258.463E-12	732.854E-3	-49.3134E-3
-4.62981E-3	-263.055E-12	658.723E-3	1.36892E-3	-260.320E-12	721.954E-3	-29.4585E-3
-4.63482E-3	-263.833E-12	643.059E-3	-5.92794E-3	-263.819E-12	663.232E-3	25.1588E-3
-4.63982E-3	-263.010E-12	631.504E-3	-17.8711E-3	-264.569E-12	647.740E-3	47.8129E-3
-4.64482E-3	-265.156E-12	605.968E-3	-21.9066E-3	-263.650E-12	691.753E-3	43.2768E-3
-4.64982E-3	-265.129E-12	591.908E-3	-8.68521E-3	-263.910E-12	700.409E-3	56.7264E-3
-4.65483E-3	-265.682E-12	621.583E-3	21.5571E-3	-265.809E-12	658.654E-3	44.7931E-3
-4.65983E-3	-265.205E-12	648.062E-3	28.9554E-3	-267.740E-12	655.749E-3	-16.6445E-3
-4.66483E-3	-266.087E-12	635.545E-3	-891.417E-6	-267.458E-12	682.345E-3	-72.4518E-3
-4.66983E-3	-267.856E-12	638.868E-3	-37.2861E-3	-266.040E-12	672.435E-3	-74.7843E-3
-4.67484E-3	-267.930E-12	658.067E-3	-43.4743E-3	-265.052E-12	637.093E-3	-24.0289E-3
-4.67984E-3	-267.133E-12	673.364E-3	-54.5949E-3	-265.554E-12	647.483E-3	19.1210E-3
-4.68484E-3	-265.784E-12	705.562E-3	-59.8070E-3	-267.030E-12	686.747E-3	6.93628E-3
-4.68984E-3	-267.447E-12	714.003E-3	-8.07242E-3	-265.883E-12	711.294E-3	-9.83984E-3
-4.69485E-3	-268.743E-12	684.711E-3	14.6109E-3	-266.605E-12	719.026E-3	1.42263E-3
-4.69985E-3	-269.391E-12	689.438E-3	-1.16137E-3	-265.386E-12	695.278E-3	-331.220E-6
-4.70485E-3	-268.565E-12	716.715E-3	-8.14464E-3	-266.373E-12	682.146E-3	-12.3884E-3
-4.70985E-3	-267.625E-12	701.301E-3	-26.3448E-3	-266.158E-12	647.185E-3	2.47679E-3
-4.71486E-3	-268.780E-12	657.272E-3	-39.1543E-3	-267.587E-12	609.090E-3	21.0754E-3
-4.71986E-3	-268.720E-12	630.256E-3	-39.8776E-3	-267.229E-12	622.664E-3	-5.01824E-3
-4.72486E-3	-268.495E-12	632.820E-3	-35.3006E-3	-266.534E-12	627.257E-3	-25.8911E-3
-4.72986E-3	-268.149E-12	662.512E-3	-29.5710E-3	-266.378E-12	655.633E-3	-4.64955E-3
-4.73487E-3	-266.842E-12	675.348E-3	-22.5102E-3	-268.011E-12	724.748E-3	25.0242E-3
-4.73987E-3	-266.737E-12	658.290E-3	15.0870E-3	-270.433E-12	756.403E-3	41.6867E-3
-4.74487E-3	-267.895E-12	665.382E-3	53.7612E-3	-268.891E-12	707.400E-3	13.1880E-3
-4.74988E-3	-267.773E-12	662.698E-3	51.5850E-3	-268.694E-12	638.240E-3	-45.6328E-3
-4.75488E-3	-265.319E-12	626.499E-3	33.0971E-3	-270.122E-12	633.963E-3	-79.7364E-3
-4.75988E-3	-265.945E-12	638.508E-3	9.66341E-3	-270.160E-12	675.026E-3	-56.5362E-3
-4.76488E-3	-266.912E-12	677.792E-3	-11.5247E-3	-268.033E-12	673.703E-3	-2.13248E-3
-4.76988E-3	-267.599E-12	671.637E-3	-33.2386E-3	-268.886E-12	627.577E-3	15.1996E-3
-4.77489E-3	-267.023E-12	664.290E-3	-57.4612E-3	-270.743E-12	604.893E-3	9.70008E-3
-4.77989E-3	-268.862E-12	665.976E-3	-32.1161E-3	-270.155E-12	620.330E-3	650.233E-6
-4.78489E-3	-268.110E-12	655.765E-3	2.87652E-3	-269.230E-12	640.438E-3	-20.6118E-3
-4.78989E-3	-269.704E-12	687.900E-3	-4.23955E-3	-268.345E-12	630.357E-3	-19.9532E-3
-4.79490E-3	-271.101E-12	722.754E-3	16.8810E-3	-270.746E-12	633.747E-3	7.62263E-3
-4.79990E-3	-271.305E-12	716.197E-3	55.8464E-3	-271.096E-12	685.806E-3	13.1448E-3
-4.80490E-3	-271.675E-12	708.015E-3	32.8631E-3	-269.228E-12	751.114E-3	2.32617E-3
-4.80990E-3	-271.776E-12	703.069E-3	-11.3612E-3	-267.745E-12	748.702E-3	8.40414E-3
-4.81491E-3	-271.688E-12	677.652E-3	-38.1443E-3	-270.134E-12	676.671E-3	-2.27111E-3
-4.81991E-3	-273.552E-12	653.222E-3	-37.8940E-3	-271.537E-12	673.407E-3	-60.5008E-3
-4.82491E-3	-274.680E-12	663.685E-3	3.80014E-3	-269.354E-12	691.297E-3	-124.183E-3
-4.82991E-3	-272.413E-12	681.798E-3	35.6832E-3	-270.097E-12	660.055E-3	-124.208E-3
-4.83492E-3	-271.697E-12	711.647E-3	9.46933E-3	-270.853E-12	662.142E-3	-110.876E-3
-4.83992E-3	-272.640E-12	746.473E-3	-22.4084E-3	-270.589E-12	666.500E-3	-107.509E-3
-4.84492E-3	-273.421E-12	738.700E-3	-1.08140E-3	-271.315E-12	667.641E-3	-67.0437E-3
-4.84992E-3	-271.732E-12	711.846E-3	-8.81807E-3	-273.365E-12	702.090E-3	-16.2912E-3
-4.85493E-3	-270.559E-12	704.162E-3	-66.5207E-3	-270.219E-12	700.777E-3	28.9212E-3
-4.85993E-3	-271.481E-12	695.852E-3	-73.7747E-3	-270.202E-12	648.125E-3	55.3794E-3
-4.86493E-3	-270.791E-12	672.648E-3	-52.6743E-3	-274.800E-12	630.467E-3	22.8566E-3
-4.86993E-3	-271.562E-12	643.067E-3	-49.1887E-3	-272.704E-12	691.410E-3	-42.5026E-3
-4.87494E-3	-273.325E-12	616.416E-3	-52.7763E-3	-272.790E-12	752.533E-3	-49.1850E-3
-4.87994E-3	-273.258E-12	630.857E-3	-59.5474E-3	-273.220E-12	742.106E-3	-17.4905E-3
-4.88494E-3	-273.545E-12	663.540E-3	-62.9477E-3	-275.056E-12	687.724E-3	-19.7249E-3
-4.88995E-3	-275.802E-12	673.875E-3	-46.1482E-3	-276.287E-12	627.361E-3	-8.12401E-3
-4.89495E-3	-276.917E-12	679.642E-3	-18.4713E-3	-276.180E-12	605.880E-3	9.84698E-3
-4.89995E-3	-276.479E-12	682.593E-3	-6.54958E-3	-273.558E-12	626.941E-3	-7.93569E-3
-4.90495E-3	-275.938E-12	660.528E-3	13.4097E-3	-273.792E-12	647.237E-3	-17.9445E-3
-4.90995E-3	-276.957E-12	645.926E-3	18.3535E-3	-277.142E-12	647.290E-3	-1.65536E-3
-4.91496E-3	-278.042E-12	683.117E-3	3.26620E-3	-273.846E-12	654.703E-3	-8.38054E-3
-4.91996E-3	-278.637E-12	717.862E-3	14.1832E-3	-273.951E-12	668.858E-3	-19.9438E-3
-4.92496E-3	-277.571E-12	705.890E-3	-7.28979E-3	-274.273E-12	638.858E-3	28.1663E-3
-4.92996E-3	-277.840E-12	682.767E-3	-48.3880E-3	-275.023E-12	604.650E-3	90.4965E-3
-4.93497E-3	-277.860E-12	664.547E-3	-21.8908E-3	-272.507E-12	599.418E-3	77.3173E-3
-4.93997E-3	-276.366E-12	657.134E-3	-9.13691E-3	-273.425E-12	607.669E-3	2.43202E-3
-4.94497E-3	-275.719E-12	672.219E-3	-46.6198E-3	-273.565E-12	644.265E-3	-57.9391E-3
-4.94997E-3	-277.220E-12	677.302E-3	-43.2596E-3	-272.904E-12	680.506E-3	-65.9162E-3
-4.95498E-3	-276.113E-12	663.519E-3	-21.4665E-3	-274.635E-12	701.726E-3	-29.8782E-3
-4.95998E-3	-276.572E-12	648.998E-3	-24.7861E-3	-275.079E-12	708.386E-3	-7.87561E-3
-4.96498E-3	-277.165E-12	643.522E-3	-31.7187E-3	-276.788E-12	686.955E-3	68.4027E-6
-4.96998E-3	-276.599E-12	694.447E-3	-13.4921E-3	-277.299E-12	694.628E-3	24.3154E-3
-4.97499E-3	-277.375E-12	759.061E-3	11.9036E-3	-278.888E-12	724.103E-3	45.5634E-3
-4.97999E-3	-277.987E-12	735.323E-3	-12.9879E-3	-279.767E-12	696.874E-3	46.1241E-3
-4.98499E-3	-279.255E-12	676.241E-3	-30.9775E-3	-280.278E-12	652.374E-3	26.8372E-3
-4.98999E-3	-280.316E-12	662.721E-3	7.92357E-3	-280.252E-12	626.113E-3	-11.1056E-3
-4.99500E-3	-278.730E-12	665.762E-3	18.0278E-3	-280.641E-12	614.958E-3	-50.0108E-3
-5.00000E-3	-279.494E-12	659.162E-3	-13.2304E-3	-280.758E-12	636.173E-3	-45.9831E-3
