Experiment	bias spectroscopy	
Date	19.01.2016 21:35:27	
User		
X (m)	50.2308E-9	
Y (m)	257.551E-9	
Z (m)	-132.594E-9	
Z offset (m)	0E+0	
Settling time (s)	200E-6	
Integration time (s)	5E-3	
Z-Ctrl hold	TRUE	
Final Z (m)	N/A	
Filter type	None	
Order		
Cutoff frq		
Comment01	MnPc/Pb(111)	
Comment02	dz =00pm	
Comment03	7 Sweeps	
Comment04	MagField =0.T	
Comment05	Divider 1:10	
Comment06	Setpoint:5mV,200 pA	
Comment07	Lockin: 50uVrms,5ms,5mV	
Comment08	Gain:9; 912Hz modulation	
Comment09	T=1.06K	
Bias>Bias (V)	5E-3	
Bias>Calibration (V/V)	81.475E-3	
Bias>Offset (V)	1.046E-3	
Bias Spectroscopy>Sweep Start (V)	5E-3	
Bias Spectroscopy>Sweep End (V)	-5E-3	
Bias Spectroscopy>Num Pixel	2000	
Bias Spectroscopy>Z Avg time (s)	500E-3	
Bias Spectroscopy>Z offset (m)	0E+0	
Bias Spectroscopy>1st Settling time (s)	500E-3	
Bias Spectroscopy>Settling time (s)	200E-6	
Bias Spectroscopy>Integration time (s)	5E-3	
Bias Spectroscopy>End Settling time (s)	500E-3	
Bias Spectroscopy>Z control time (s)	500E-3	
Bias Spectroscopy>Max Slew rate (V/s)	Inf	
Bias Spectroscopy>backward sweep	TRUE	
Bias Spectroscopy>Z-controller hold	TRUE	
Bias Spectroscopy>Number of sweeps	7	
Bias Spectroscopy>Channels	Current (A);X% LockIn (V);Y% LockIn (V)	
Bias Spectroscopy>Reset Bias	TRUE	
Bias Spectroscopy>Record final Z	FALSE	
Bias Spectroscopy>Lock-In run	FALSE	
Bias Spectroscopy>Sweep mode	Linear	
Bias Spectroscopy>MultiLine Settings : Segment Start (V), Segment End (V), Settling (s), Integration (s), Steps (xn)	100E-3,3.3E-3,100E-6,10E-3,2500;3.3E-3,-3.3E-3,100E-6,10E-3,10;-3.3E-3,-100E-3,100E-6,10E-3,2500	
Current>Current (A)	200.035E-12	
Current>Calibration (A/V)	999.99900E-12	
Current>Offset (A)	-455.429E-15	
Current>Gain	LN 10^9	
Z-Controller>Z (m)	-132.595E-9	
Z-Controller>Controller name	log Current	
Z-Controller>Controller status	ON	
Z-Controller>Setpoint	200E-12	
Z-Controller>Setpoint unit	A	
Z-Controller>P gain	2.96994E-12	
Z-Controller>I gain	67.0321E-9	
Z-Controller>Time const (s)	44.3062E-6	
Z-Controller>TipLift (m)	0E+0	
Z-Controller>Switch off delay (s)	50E-3	
Current (A)	200.262E-12	
Z (m)	-132.594E-9	

[DATA]
Bias calc (V)	Current (A)	X% LockIn (V)	Y% LockIn (V)	Current [bwd] (A)	X% LockIn [bwd] (V)	Y% LockIn [bwd] (V)
5.00000E-3	197.433E-12	639.112E-3	-12.4386E-3	200.830E-12	630.950E-3	-8.89281E-3
4.99500E-3	197.122E-12	640.116E-3	-24.2342E-3	200.872E-12	638.747E-3	-12.2041E-3
4.98999E-3	196.131E-12	639.454E-3	-37.0909E-3	200.706E-12	648.881E-3	-14.0854E-3
4.98499E-3	195.755E-12	631.775E-3	-23.6401E-3	201.369E-12	645.616E-3	-11.0368E-3
4.97999E-3	194.883E-12	626.597E-3	-877.825E-6	200.846E-12	633.890E-3	-411.220E-6
4.97499E-3	195.576E-12	623.411E-3	15.2920E-3	200.333E-12	615.162E-3	2.67739E-3
4.96998E-3	196.273E-12	634.486E-3	-17.2809E-3	199.391E-12	608.573E-3	-9.20918E-3
4.96498E-3	196.828E-12	644.072E-3	-57.6988E-3	198.973E-12	631.594E-3	-27.1444E-3
4.95998E-3	198.354E-12	633.143E-3	-46.6593E-3	197.837E-12	641.398E-3	-20.8757E-3
4.95498E-3	199.585E-12	603.970E-3	-16.9233E-3	196.354E-12	611.524E-3	18.1343E-3
4.94997E-3	200.292E-12	611.966E-3	-19.2820E-3	195.009E-12	601.015E-3	25.2210E-3
4.94497E-3	201.473E-12	645.631E-3	-40.5626E-3	194.763E-12	620.197E-3	4.37079E-3
4.93997E-3	202.027E-12	652.670E-3	-35.9125E-3	194.113E-12	634.871E-3	3.49524E-3
4.93497E-3	201.708E-12	661.981E-3	-15.8480E-3	193.473E-12	641.435E-3	-16.2891E-3
4.92996E-3	201.632E-12	680.657E-3	2.53232E-3	193.331E-12	631.602E-3	-42.9682E-3
4.92496E-3	202.019E-12	679.443E-3	11.0157E-3	194.454E-12	627.472E-3	-35.6893E-3
4.91996E-3	200.466E-12	666.945E-3	14.8826E-3	194.761E-12	633.785E-3	-28.4731E-3
4.91496E-3	199.465E-12	671.032E-3	673.139E-6	195.144E-12	621.553E-3	-34.0706E-3
4.90995E-3	198.006E-12	654.103E-3	-29.1389E-3	195.995E-12	627.688E-3	-24.6927E-3
4.90495E-3	197.607E-12	592.510E-3	-45.7524E-3	197.168E-12	647.433E-3	4.37921E-3
4.89995E-3	196.316E-12	556.773E-3	-29.3728E-3	197.618E-12	636.722E-3	21.8993E-3
4.89495E-3	195.146E-12	579.802E-3	-10.6161E-3	198.349E-12	636.292E-3	10.7214E-3
4.88995E-3	194.390E-12	617.620E-3	-27.3127E-3	199.459E-12	658.259E-3	-7.77155E-3
4.88494E-3	194.027E-12	641.881E-3	-26.9031E-3	199.853E-12	667.501E-3	-10.7750E-3
4.87994E-3	193.573E-12	640.721E-3	3.17778E-3	199.201E-12	649.628E-3	10.3915E-3
4.87494E-3	193.608E-12	636.105E-3	-6.39540E-3	199.145E-12	633.083E-3	50.8369E-3
4.86993E-3	193.545E-12	636.308E-3	-36.7069E-3	198.280E-12	637.969E-3	47.1848E-3
4.86493E-3	194.043E-12	636.136E-3	-1.99246E-3	197.330E-12	630.627E-3	7.20252E-3
4.85993E-3	194.705E-12	632.847E-3	49.6419E-3	195.694E-12	617.054E-3	-19.1562E-3
4.85493E-3	194.556E-12	616.276E-3	41.3801E-3	194.857E-12	620.113E-3	-48.3890E-3
4.84992E-3	195.506E-12	618.748E-3	23.6934E-3	193.875E-12	624.479E-3	-68.5991E-3
4.84492E-3	195.835E-12	620.597E-3	5.84057E-3	193.433E-12	633.091E-3	-57.7406E-3
4.83992E-3	196.278E-12	620.771E-3	-34.5424E-3	191.877E-12	661.951E-3	-37.7196E-3
4.83492E-3	196.099E-12	645.158E-3	-31.4347E-3	191.630E-12	667.785E-3	-27.9502E-3
4.82991E-3	196.243E-12	658.714E-3	-11.4510E-3	191.736E-12	644.563E-3	-16.9079E-3
4.82491E-3	194.998E-12	653.341E-3	-32.1398E-3	191.128E-12	634.779E-3	-11.3825E-3
4.81991E-3	194.449E-12	664.228E-3	-39.2558E-3	191.340E-12	623.082E-3	-19.5309E-3
4.81491E-3	193.971E-12	675.679E-3	-24.0584E-3	192.289E-12	630.159E-3	-29.4368E-3
4.80990E-3	192.898E-12	663.282E-3	-17.4987E-3	193.325E-12	671.643E-3	-40.2566E-3
4.80490E-3	191.771E-12	657.527E-3	-10.5309E-3	192.992E-12	658.415E-3	-27.3240E-3
4.79990E-3	191.046E-12	653.053E-3	-2.22961E-3	193.921E-12	594.833E-3	-7.45522E-3
4.79490E-3	190.960E-12	636.572E-3	-25.6780E-3	194.302E-12	584.646E-3	-25.3018E-3
4.78989E-3	190.239E-12	642.174E-3	-43.5168E-3	194.595E-12	635.408E-3	-37.1732E-3
4.78489E-3	189.345E-12	655.339E-3	-26.0711E-3	194.417E-12	676.195E-3	-28.0239E-3
4.77989E-3	188.739E-12	648.059E-3	-24.8636E-3	194.472E-12	667.956E-3	-15.9705E-3
4.77489E-3	188.401E-12	654.435E-3	-19.4762E-3	193.557E-12	641.053E-3	-22.8495E-3
4.76988E-3	188.436E-12	640.802E-3	9.45387E-3	192.181E-12	625.340E-3	-47.0997E-3
4.76488E-3	187.621E-12	602.650E-3	24.6282E-3	191.573E-12	632.031E-3	-43.8746E-3
4.75988E-3	187.755E-12	596.735E-3	23.3251E-3	190.470E-12	646.616E-3	-54.6155E-3
4.75488E-3	187.860E-12	609.780E-3	32.4884E-3	189.468E-12	645.325E-3	-100.018E-3
4.74988E-3	187.597E-12	626.839E-3	25.5351E-3	188.208E-12	631.158E-3	-108.397E-3
4.74487E-3	187.752E-12	639.162E-3	8.25404E-3	188.084E-12	611.948E-3	-69.6209E-3
4.73987E-3	188.730E-12	629.258E-3	12.2650E-3	187.509E-12	612.498E-3	-33.0284E-3
4.73487E-3	188.731E-12	596.085E-3	8.91415E-3	187.035E-12	645.244E-3	-11.2070E-3
4.72986E-3	189.266E-12	571.394E-3	-6.18705E-3	186.009E-12	651.922E-3	-609.297E-6
4.72486E-3	189.486E-12	571.655E-3	-20.4595E-3	186.057E-12	635.701E-3	-14.6551E-3
4.71986E-3	189.884E-12	599.270E-3	-39.6055E-3	186.198E-12	628.436E-3	-28.4015E-3
4.71486E-3	189.643E-12	638.017E-3	-54.6648E-3	186.396E-12	612.911E-3	-20.1165E-3
4.70985E-3	189.560E-12	658.313E-3	-56.6385E-3	186.393E-12	609.441E-3	-18.5369E-3
4.70485E-3	189.858E-12	651.067E-3	-44.9494E-3	186.731E-12	607.062E-3	-23.7446E-3
4.69985E-3	189.788E-12	631.751E-3	-25.8624E-3	187.407E-12	599.538E-3	-24.7970E-3
4.69485E-3	189.118E-12	631.265E-3	-15.4503E-3	187.351E-12	613.804E-3	-28.7980E-3
4.68984E-3	188.168E-12	641.529E-3	-10.5209E-3	187.367E-12	621.413E-3	-20.2025E-3
4.68484E-3	188.287E-12	661.963E-3	-26.6963E-3	187.307E-12	626.462E-3	-6.11394E-3
4.67984E-3	187.393E-12	694.681E-3	-55.4253E-3	186.192E-12	634.769E-3	-1.71209E-3
4.67484E-3	186.350E-12	695.646E-3	-60.1540E-3	186.629E-12	620.874E-3	-3.41098E-3
4.66983E-3	185.691E-12	658.762E-3	-38.3317E-3	186.310E-12	621.442E-3	-10.6666E-3
4.66483E-3	184.884E-12	645.872E-3	-11.1204E-3	186.468E-12	655.252E-3	-6.67533E-3
4.65983E-3	184.295E-12	658.833E-3	2.15799E-3	186.041E-12	674.027E-3	-1.92944E-3
4.65483E-3	184.039E-12	649.656E-3	6.40202E-3	186.026E-12	664.441E-3	-12.9551E-3
4.64982E-3	183.615E-12	648.351E-3	13.1740E-3	185.620E-12	658.393E-3	-7.52246E-3
4.64482E-3	183.615E-12	661.232E-3	18.0207E-3	185.110E-12	660.231E-3	391.444E-6
4.63982E-3	183.682E-12	672.566E-3	5.29874E-3	184.158E-12	661.427E-3	-10.8604E-3
4.63482E-3	184.180E-12	685.796E-3	-3.70849E-3	183.995E-12	669.401E-3	-15.4383E-3
4.62981E-3	184.633E-12	653.915E-3	-1.16406E-3	183.291E-12	681.149E-3	-17.6623E-3
4.62481E-3	185.050E-12	614.961E-3	-133.066E-6	183.372E-12	658.023E-3	-25.9055E-3
4.61981E-3	185.665E-12	633.634E-3	-20.1795E-3	182.980E-12	618.636E-3	-25.9759E-3
4.61481E-3	186.171E-12	651.187E-3	-30.7837E-3	183.219E-12	619.072E-3	-16.2690E-3
4.60980E-3	186.674E-12	642.064E-3	-19.9134E-3	182.800E-12	638.839E-3	-16.5261E-3
4.60480E-3	186.333E-12	653.450E-3	-44.0851E-3	182.270E-12	643.243E-3	-17.4462E-3
4.59980E-3	185.849E-12	673.079E-3	-61.7225E-3	182.811E-12	642.469E-3	-10.8919E-3
4.59480E-3	185.842E-12	670.331E-3	-50.5852E-3	183.079E-12	643.539E-3	-7.49594E-3
4.58979E-3	184.582E-12	674.215E-3	-38.6498E-3	182.849E-12	636.592E-3	-13.0259E-3
4.58479E-3	183.910E-12	690.477E-3	-11.3012E-3	183.532E-12	631.481E-3	-8.73941E-3
4.57979E-3	182.293E-12	671.350E-3	5.63954E-3	183.811E-12	633.321E-3	18.2029E-3
4.57479E-3	181.795E-12	630.121E-3	-9.78288E-3	184.123E-12	634.990E-3	26.8177E-3
4.56978E-3	180.430E-12	618.372E-3	-16.5455E-3	183.632E-12	636.874E-3	13.2369E-3
4.56478E-3	180.076E-12	636.529E-3	-8.02663E-3	184.229E-12	632.304E-3	9.26077E-3
4.55978E-3	179.183E-12	652.987E-3	-5.97402E-3	184.072E-12	621.693E-3	6.47660E-3
4.55478E-3	179.807E-12	649.125E-3	-19.5799E-3	184.200E-12	628.704E-3	-9.34533E-3
4.54977E-3	179.009E-12	634.524E-3	-34.5605E-3	182.807E-12	634.812E-3	-25.3360E-3
4.54477E-3	179.673E-12	636.008E-3	-30.3256E-3	182.457E-12	632.076E-3	-34.3011E-3
4.53977E-3	180.404E-12	641.476E-3	-8.65684E-3	181.865E-12	651.896E-3	-42.7268E-3
4.53477E-3	180.497E-12	629.368E-3	8.11309E-3	180.871E-12	670.270E-3	-45.3138E-3
4.52976E-3	181.111E-12	618.109E-3	-28.6461E-3	180.835E-12	671.629E-3	-57.6268E-3
4.52476E-3	181.724E-12	621.168E-3	-52.9127E-3	180.405E-12	657.335E-3	-61.0437E-3
4.51976E-3	182.363E-12	624.225E-3	-11.5083E-3	179.759E-12	634.394E-3	-31.7709E-3
4.51476E-3	182.273E-12	639.795E-3	23.3650E-3	178.867E-12	634.692E-3	-14.1428E-3
4.50975E-3	181.935E-12	672.224E-3	6.32872E-3	178.895E-12	655.242E-3	-1.74630E-3
4.50475E-3	181.586E-12	679.207E-3	-11.9216E-3	178.244E-12	671.811E-3	15.0680E-3
4.49975E-3	180.817E-12	666.004E-3	-5.52771E-3	178.348E-12	685.537E-3	-9.77605E-3
4.49475E-3	179.861E-12	657.901E-3	259.076E-6	177.867E-12	681.319E-3	-50.5265E-3
4.48974E-3	178.332E-12	655.951E-3	21.8333E-3	178.430E-12	655.396E-3	-39.9433E-3
4.48474E-3	178.222E-12	653.268E-3	31.5251E-3	178.756E-12	648.224E-3	-3.57573E-3
4.47974E-3	177.198E-12	653.866E-3	2.99068E-3	179.054E-12	652.709E-3	12.3874E-3
4.47474E-3	176.242E-12	670.921E-3	-20.0714E-3	179.465E-12	645.043E-3	13.5345E-3
4.46973E-3	175.552E-12	690.779E-3	-20.7630E-3	179.941E-12	642.309E-3	8.75283E-3
4.46473E-3	175.479E-12	676.832E-3	-28.9415E-3	180.613E-12	646.490E-3	6.47496E-3
4.45973E-3	175.248E-12	638.408E-3	-24.2110E-3	180.242E-12	652.374E-3	7.83287E-3
4.45473E-3	175.139E-12	614.891E-3	-9.51726E-3	179.549E-12	668.931E-3	-1.37993E-3
4.44972E-3	175.430E-12	618.072E-3	-18.3977E-3	179.026E-12	671.939E-3	-12.6173E-3
4.44472E-3	176.066E-12	623.926E-3	-33.3679E-3	178.610E-12	655.343E-3	-3.31079E-3
4.43972E-3	176.104E-12	602.588E-3	-42.3737E-3	177.100E-12	638.142E-3	5.00667E-3
4.43472E-3	176.728E-12	579.245E-3	-49.5609E-3	176.480E-12	632.376E-3	-3.56257E-3
4.42971E-3	177.661E-12	585.748E-3	-31.5131E-3	175.804E-12	628.648E-3	-1.62353E-3
4.42471E-3	177.594E-12	610.798E-3	-1.68090E-3	174.418E-12	610.421E-3	-5.15610E-3
4.41971E-3	177.527E-12	642.380E-3	7.66910E-3	173.457E-12	604.203E-3	-21.5121E-3
4.41471E-3	177.334E-12	661.440E-3	-1.62218E-3	173.278E-12	633.958E-3	-21.6751E-3
4.40970E-3	177.077E-12	650.907E-3	-7.50870E-3	172.706E-12	655.172E-3	-14.6714E-3
4.40470E-3	175.572E-12	647.890E-3	807.835E-6	171.746E-12	640.557E-3	-10.1128E-3
4.39970E-3	174.698E-12	639.332E-3	-14.1832E-3	171.978E-12	625.675E-3	-5.41488E-3
4.39470E-3	173.970E-12	617.139E-3	-35.4169E-3	172.233E-12	637.007E-3	-10.0970E-3
4.38969E-3	173.384E-12	628.093E-3	-36.0182E-3	172.339E-12	669.803E-3	-13.0885E-3
4.38469E-3	172.041E-12	648.231E-3	-28.8549E-3	172.390E-12	697.200E-3	-1.25470E-3
4.37969E-3	171.651E-12	640.232E-3	-18.5104E-3	173.794E-12	700.684E-3	8.78039E-3
4.37469E-3	171.628E-12	620.162E-3	-12.1048E-3	174.352E-12	680.291E-3	267.788E-6
4.36968E-3	171.087E-12	622.171E-3	-3.78541E-3	174.434E-12	651.902E-3	-30.2255E-3
4.36468E-3	171.313E-12	626.014E-3	-4.64274E-3	174.619E-12	639.138E-3	-57.5157E-3
4.35968E-3	171.076E-12	619.845E-3	2.05048E-3	174.853E-12	635.128E-3	-41.3988E-3
4.35468E-3	171.136E-12	634.539E-3	20.2167E-3	174.654E-12	634.304E-3	-4.17101E-3
4.34967E-3	171.379E-12	653.757E-3	18.1509E-3	174.171E-12	650.136E-3	-93.3233E-6
4.34467E-3	171.265E-12	650.055E-3	-662.624E-6	173.455E-12	664.562E-3	-13.3327E-3
4.33967E-3	171.584E-12	634.296E-3	-5.42211E-3	172.680E-12	658.207E-3	-29.5179E-3
4.33467E-3	172.177E-12	636.378E-3	-1.01769E-3	171.995E-12	643.687E-3	-36.8668E-3
4.32966E-3	172.328E-12	657.815E-3	4.90111E-3	170.928E-12	649.740E-3	-21.7378E-3
4.32466E-3	172.831E-12	659.958E-3	-6.61099E-3	170.639E-12	665.383E-3	-19.4355E-3
4.31966E-3	172.845E-12	638.613E-3	-27.2163E-3	169.742E-12	657.982E-3	-25.4311E-3
4.31466E-3	172.347E-12	631.138E-3	-18.5827E-3	168.986E-12	634.344E-3	-35.5542E-3
4.30965E-3	172.434E-12	643.428E-3	-11.1344E-3	168.777E-12	624.551E-3	-50.1556E-3
4.30465E-3	171.985E-12	657.042E-3	-25.5262E-3	168.625E-12	640.107E-3	-40.9507E-3
4.29965E-3	171.437E-12	652.476E-3	-55.4086E-3	168.530E-12	645.927E-3	-36.0853E-3
4.29465E-3	170.720E-12	621.162E-3	-80.9100E-3	168.829E-12	638.659E-3	-49.5461E-3
4.28964E-3	170.507E-12	592.131E-3	-75.1367E-3	168.887E-12	633.526E-3	-37.0302E-3
4.28464E-3	170.499E-12	611.779E-3	-56.0722E-3	169.983E-12	644.709E-3	-6.74347E-3
4.27964E-3	170.492E-12	645.757E-3	-52.3608E-3	170.576E-12	677.128E-3	3.90598E-3
4.27464E-3	170.506E-12	655.200E-3	-34.1040E-3	170.038E-12	677.828E-3	2.45373E-3
4.26963E-3	170.589E-12	663.649E-3	-10.7775E-3	170.570E-12	650.767E-3	8.65316E-3
4.26463E-3	170.589E-12	673.617E-3	-7.73397E-3	171.073E-12	647.851E-3	7.16529E-3
4.25963E-3	170.067E-12	672.067E-3	-725.114E-6	170.592E-12	666.107E-3	-7.57854E-3
4.25463E-3	169.262E-12	650.649E-3	5.01575E-3	170.587E-12	689.065E-3	-21.1464E-3
4.24962E-3	169.112E-12	633.360E-3	-819.005E-6	170.538E-12	702.935E-3	-34.0210E-3
4.24462E-3	168.058E-12	637.668E-3	-14.4682E-3	170.671E-12	698.341E-3	-37.8287E-3
4.23962E-3	167.834E-12	641.154E-3	-14.4850E-3	169.261E-12	684.647E-3	-33.2955E-3
4.23462E-3	167.249E-12	642.882E-3	-6.37307E-3	169.769E-12	672.872E-3	-18.8329E-3
4.22961E-3	167.559E-12	661.279E-3	-20.8340E-3	168.186E-12	666.981E-3	1.65441E-3
4.22461E-3	166.627E-12	679.150E-3	-34.4300E-3	167.617E-12	655.357E-3	10.7448E-3
4.21961E-3	166.970E-12	671.024E-3	-23.5305E-3	166.517E-12	646.684E-3	11.1202E-3
4.21461E-3	166.617E-12	644.940E-3	-3.87100E-3	166.730E-12	655.994E-3	4.15846E-3
4.20960E-3	166.659E-12	640.412E-3	7.39233E-3	165.845E-12	652.351E-3	-14.8986E-3
4.20460E-3	165.852E-12	658.046E-3	6.30840E-3	165.202E-12	639.239E-3	-26.9822E-3
4.19960E-3	165.651E-12	652.407E-3	-1.99533E-3	164.428E-12	652.959E-3	-30.9395E-3
4.19460E-3	166.249E-12	610.894E-3	-12.4758E-3	164.684E-12	656.429E-3	-36.0424E-3
4.18959E-3	166.166E-12	594.430E-3	-9.68822E-3	164.457E-12	638.164E-3	-39.0004E-3
4.18459E-3	166.100E-12	617.691E-3	6.99375E-3	163.697E-12	646.661E-3	-41.6137E-3
4.17959E-3	165.675E-12	611.222E-3	865.687E-6	163.705E-12	660.018E-3	-30.1065E-3
4.17459E-3	165.584E-12	606.212E-3	-17.9115E-3	163.617E-12	649.619E-3	-10.2300E-3
4.16958E-3	165.176E-12	628.634E-3	-9.85091E-3	163.788E-12	644.883E-3	4.93768E-3
4.16458E-3	164.457E-12	627.701E-3	5.67696E-3	163.759E-12	648.524E-3	17.4165E-3
4.15958E-3	163.495E-12	613.703E-3	-7.04692E-3	163.863E-12	652.832E-3	19.9295E-3
4.15458E-3	162.663E-12	627.118E-3	-32.1525E-3	163.574E-12	662.363E-3	6.48603E-3
4.14957E-3	162.279E-12	650.486E-3	-52.0143E-3	163.875E-12	672.486E-3	-5.18350E-3
4.14457E-3	160.818E-12	635.150E-3	-57.7261E-3	163.387E-12	680.809E-3	-9.92969E-3
4.13957E-3	160.655E-12	605.212E-3	-47.6872E-3	164.024E-12	674.171E-3	-14.8911E-3
4.13457E-3	160.858E-12	615.290E-3	-30.3502E-3	163.341E-12	642.182E-3	-7.31048E-3
4.12956E-3	160.476E-12	651.394E-3	-8.37247E-3	163.021E-12	614.077E-3	-5.23935E-3
4.12456E-3	160.231E-12	660.393E-3	-1.82278E-3	162.583E-12	621.577E-3	-21.0294E-3
4.11956E-3	161.502E-12	637.621E-3	-23.7025E-3	162.471E-12	629.339E-3	-25.2406E-3
4.11456E-3	161.932E-12	626.852E-3	-49.5980E-3	161.591E-12	606.644E-3	-25.6691E-3
4.10955E-3	162.470E-12	636.278E-3	-34.5780E-3	160.858E-12	597.691E-3	-29.4761E-3
4.10455E-3	163.066E-12	645.595E-3	9.56430E-3	160.899E-12	617.613E-3	-19.7521E-3
4.09955E-3	164.307E-12	637.161E-3	25.3559E-3	160.099E-12	636.823E-3	-19.5275E-3
4.09455E-3	164.334E-12	628.659E-3	-4.86452E-3	159.118E-12	634.448E-3	-39.6155E-3
4.08954E-3	164.425E-12	646.243E-3	-37.7140E-3	158.547E-12	617.072E-3	-60.5115E-3
4.08454E-3	164.538E-12	650.012E-3	-36.2511E-3	158.639E-12	624.686E-3	-54.0732E-3
4.07954E-3	164.236E-12	644.367E-3	-29.9613E-3	158.450E-12	652.619E-3	-18.1425E-3
4.07454E-3	163.030E-12	685.439E-3	-37.5206E-3	158.502E-12	654.114E-3	4.59876E-3
4.06953E-3	162.730E-12	720.411E-3	-34.6237E-3	158.971E-12	648.629E-3	-1.92384E-3
4.06453E-3	161.326E-12	715.721E-3	-28.6508E-3	159.339E-12	647.370E-3	-19.8459E-3
4.05953E-3	160.312E-12	707.281E-3	-31.9077E-3	159.662E-12	639.860E-3	-34.7015E-3
4.05453E-3	158.933E-12	690.212E-3	-27.5443E-3	160.046E-12	643.560E-3	-30.8365E-3
4.04952E-3	158.336E-12	672.005E-3	-22.2045E-3	160.653E-12	644.668E-3	-2.06291E-3
4.04452E-3	157.515E-12	668.828E-3	-37.8164E-3	161.209E-12	629.896E-3	16.4575E-3
4.03952E-3	157.294E-12	640.790E-3	-48.3331E-3	161.555E-12	630.084E-3	629.517E-6
4.03452E-3	156.653E-12	597.787E-3	-32.1084E-3	161.839E-12	643.242E-3	-34.2010E-3
4.02951E-3	156.922E-12	583.905E-3	-9.72317E-3	161.962E-12	648.021E-3	-52.7758E-3
4.02451E-3	157.633E-12	589.569E-3	19.8864E-3	161.395E-12	657.674E-3	-19.7007E-3
4.01951E-3	158.273E-12	613.845E-3	17.1372E-3	160.498E-12	661.135E-3	21.3504E-3
4.01451E-3	158.752E-12	643.653E-3	-23.4199E-3	160.297E-12	638.943E-3	9.18300E-3
4.00950E-3	159.619E-12	648.092E-3	-30.7541E-3	159.598E-12	623.690E-3	-20.9354E-3
4.00450E-3	160.184E-12	650.506E-3	-20.5547E-3	158.354E-12	636.888E-3	-13.1698E-3
3.99950E-3	160.200E-12	692.119E-3	-28.8408E-3	156.919E-12	647.032E-3	4.46244E-3
3.99450E-3	160.060E-12	717.467E-3	-39.1013E-3	156.627E-12	640.916E-3	-5.49577E-3
3.98949E-3	159.747E-12	690.709E-3	-37.1820E-3	156.184E-12	636.577E-3	-18.7763E-3
3.98449E-3	158.868E-12	664.010E-3	-19.6293E-3	155.296E-12	638.159E-3	-16.4055E-3
3.97949E-3	157.972E-12	655.542E-3	6.62278E-3	154.849E-12	641.411E-3	-9.43890E-3
3.97449E-3	157.733E-12	652.782E-3	-10.1654E-3	154.857E-12	633.533E-3	-5.80121E-3
3.96948E-3	156.173E-12	653.394E-3	-56.2205E-3	154.830E-12	616.578E-3	10.4204E-3
3.96448E-3	155.239E-12	651.056E-3	-71.5443E-3	155.392E-12	618.460E-3	22.5552E-3
3.95948E-3	154.506E-12	622.928E-3	-67.8002E-3	155.626E-12	636.596E-3	120.753E-6
3.95448E-3	154.019E-12	601.226E-3	-50.7448E-3	156.202E-12	654.485E-3	-25.1747E-3
3.94947E-3	153.100E-12	626.329E-3	-5.00534E-3	156.504E-12	663.945E-3	-22.9476E-3
3.94447E-3	152.753E-12	659.255E-3	19.6974E-3	156.895E-12	659.551E-3	-17.3775E-3
3.93947E-3	152.785E-12	662.726E-3	-13.8379E-3	157.021E-12	657.318E-3	-12.1654E-3
3.93447E-3	152.998E-12	644.080E-3	-49.2923E-3	157.537E-12	675.151E-3	2.38461E-3
3.92946E-3	153.217E-12	622.387E-3	-55.0836E-3	157.184E-12	692.916E-3	-7.23888E-3
3.92446E-3	153.225E-12	604.189E-3	-50.9433E-3	157.468E-12	688.414E-3	-33.0362E-3
3.91946E-3	153.940E-12	607.571E-3	-35.8251E-3	156.905E-12	675.276E-3	-47.7316E-3
3.91446E-3	154.103E-12	630.980E-3	-23.5529E-3	155.785E-12	668.411E-3	-50.1656E-3
3.90945E-3	154.491E-12	636.723E-3	-31.4361E-3	154.872E-12	664.273E-3	-35.3670E-3
3.90445E-3	154.618E-12	625.099E-3	-32.7196E-3	154.310E-12	657.803E-3	-11.9063E-3
3.89945E-3	154.598E-12	628.915E-3	-2.84555E-3	153.151E-12	643.943E-3	19.6314E-3
3.89445E-3	154.196E-12	652.749E-3	15.0381E-3	152.384E-12	634.203E-3	23.2632E-3
3.88944E-3	153.387E-12	662.556E-3	-2.83638E-3	151.099E-12	637.822E-3	-15.7151E-3
3.88444E-3	153.458E-12	646.120E-3	-9.62352E-3	150.865E-12	647.817E-3	-36.3942E-3
3.87944E-3	152.725E-12	633.990E-3	-9.54988E-3	149.897E-12	654.092E-3	-21.8157E-3
3.87444E-3	152.777E-12	648.764E-3	-23.5850E-3	149.537E-12	649.198E-3	-2.24733E-3
3.86943E-3	152.198E-12	675.169E-3	-37.9268E-3	149.163E-12	649.820E-3	-9.61976E-3
3.86443E-3	152.269E-12	677.199E-3	-44.5122E-3	149.525E-12	643.455E-3	-49.7474E-3
3.85943E-3	151.690E-12	661.197E-3	-31.8721E-3	149.306E-12	622.231E-3	-63.4101E-3
3.85443E-3	151.186E-12	651.482E-3	-11.6641E-3	150.053E-12	630.366E-3	-32.0565E-3
3.84942E-3	150.283E-12	646.967E-3	-5.47311E-3	150.550E-12	662.115E-3	-13.5987E-3
3.84442E-3	150.592E-12	654.192E-3	-8.20465E-3	151.051E-12	682.058E-3	-11.2366E-3
3.83942E-3	150.287E-12	654.034E-3	-2.84617E-3	150.770E-12	676.284E-3	-5.35203E-3
3.83442E-3	150.366E-12	634.220E-3	5.32710E-3	151.779E-12	662.115E-3	-8.03943E-3
3.82941E-3	150.230E-12	614.216E-3	-638.890E-6	151.623E-12	664.162E-3	-24.9142E-3
3.82441E-3	150.367E-12	624.253E-3	-11.5552E-3	151.324E-12	663.000E-3	-34.5698E-3
3.81941E-3	149.921E-12	670.624E-3	-27.1399E-3	150.719E-12	638.070E-3	-32.9772E-3
3.81441E-3	149.496E-12	700.394E-3	-29.7158E-3	150.211E-12	614.266E-3	-42.4331E-3
3.80940E-3	149.427E-12	685.403E-3	-16.7475E-3	149.959E-12	618.241E-3	-53.7153E-3
3.80440E-3	149.139E-12	665.965E-3	-23.2701E-3	148.953E-12	632.781E-3	-48.8518E-3
3.79940E-3	148.292E-12	660.859E-3	-31.3281E-3	148.379E-12	653.610E-3	-25.6686E-3
3.79440E-3	147.983E-12	659.549E-3	-27.0047E-3	148.152E-12	671.824E-3	4.48624E-3
3.78939E-3	148.152E-12	668.319E-3	-20.1407E-3	147.541E-12	651.965E-3	18.0270E-3
3.78439E-3	147.851E-12	678.343E-3	-6.36559E-6	146.468E-12	624.297E-3	13.5230E-3
3.77939E-3	147.781E-12	675.376E-3	6.06073E-3	146.260E-12	631.935E-3	8.06643E-3
3.77439E-3	147.532E-12	656.342E-3	-11.7582E-3	146.421E-12	653.849E-3	-5.68348E-3
3.76938E-3	147.749E-12	638.982E-3	-8.40057E-3	145.387E-12	658.693E-3	-31.0531E-3
3.76438E-3	147.545E-12	637.051E-3	-705.662E-6	145.476E-12	644.331E-3	-32.1822E-3
3.75938E-3	147.563E-12	636.771E-3	-14.2980E-3	145.543E-12	636.463E-3	-18.1514E-3
3.75438E-3	147.252E-12	646.555E-3	-24.0742E-3	145.922E-12	641.807E-3	-18.4676E-3
3.74937E-3	147.368E-12	669.000E-3	-15.8625E-3	145.822E-12	645.417E-3	-37.1476E-3
3.74437E-3	146.556E-12	676.732E-3	-18.9715E-3	146.109E-12	645.360E-3	-49.5020E-3
3.73937E-3	146.269E-12	672.179E-3	-42.1301E-3	146.627E-12	631.718E-3	-37.6166E-3
3.73437E-3	146.136E-12	668.536E-3	-52.9541E-3	147.004E-12	611.162E-3	-38.5153E-3
3.72936E-3	145.581E-12	651.601E-3	-49.1956E-3	146.375E-12	621.083E-3	-41.9418E-3
3.72436E-3	145.175E-12	639.267E-3	-40.3761E-3	146.705E-12	648.637E-3	-32.0557E-3
3.71936E-3	144.963E-12	648.801E-3	-18.8737E-3	146.566E-12	659.563E-3	-28.4363E-3
3.71436E-3	144.430E-12	661.438E-3	-15.9988E-3	146.396E-12	660.541E-3	-18.5498E-3
3.70935E-3	143.900E-12	671.228E-3	-32.5314E-3	146.089E-12	656.330E-3	-17.1202E-3
3.70435E-3	143.593E-12	673.179E-3	-21.4030E-3	145.757E-12	646.339E-3	-20.2925E-3
3.69935E-3	143.531E-12	665.271E-3	-5.48141E-3	146.178E-12	645.102E-3	-13.5673E-3
3.69435E-3	143.448E-12	659.319E-3	-22.2166E-3	145.239E-12	649.368E-3	-3.65951E-3
3.68934E-3	143.613E-12	662.440E-3	-42.3289E-3	144.536E-12	656.212E-3	20.9745E-3
3.68434E-3	143.547E-12	653.598E-3	-31.4023E-3	144.076E-12	654.917E-3	25.1090E-3
3.67934E-3	144.139E-12	636.925E-3	-11.1814E-3	143.862E-12	640.869E-3	11.5182E-3
3.67434E-3	144.181E-12	630.942E-3	-9.31874E-3	142.543E-12	644.385E-3	6.14693E-3
3.66933E-3	144.206E-12	639.529E-3	-10.8758E-3	142.105E-12	653.446E-3	-8.35460E-3
3.66433E-3	144.512E-12	660.926E-3	-4.22317E-3	141.636E-12	650.219E-3	-8.37545E-3
3.65933E-3	144.598E-12	658.190E-3	-12.0480E-3	141.120E-12	639.576E-3	9.62661E-3
3.65433E-3	144.501E-12	626.011E-3	-30.9788E-3	140.933E-12	629.183E-3	1.61785E-3
3.64932E-3	143.711E-12	620.429E-3	-19.9363E-3	140.934E-12	625.848E-3	-28.1173E-3
3.64432E-3	143.124E-12	639.441E-3	4.24395E-3	141.416E-12	635.266E-3	-29.1237E-3
3.63932E-3	142.489E-12	648.299E-3	5.95647E-3	140.839E-12	650.555E-3	-15.4154E-3
3.63432E-3	141.337E-12	649.068E-3	2.36130E-3	140.789E-12	644.770E-3	-25.0234E-3
3.62931E-3	140.742E-12	639.245E-3	1.50744E-3	141.124E-12	636.439E-3	-31.1369E-3
3.62431E-3	140.089E-12	629.043E-3	-6.27606E-3	141.472E-12	657.812E-3	-17.3893E-3
3.61931E-3	139.252E-12	636.252E-3	-9.16011E-3	141.181E-12	681.787E-3	-9.86006E-3
3.61431E-3	138.686E-12	644.718E-3	-8.74041E-3	141.550E-12	690.493E-3	-19.5122E-3
3.60930E-3	138.531E-12	645.511E-3	-16.4901E-3	141.811E-12	695.920E-3	-39.4978E-3
3.60430E-3	138.624E-12	647.355E-3	-20.7265E-3	141.525E-12	688.670E-3	-56.7653E-3
3.59930E-3	138.372E-12	648.610E-3	-19.9678E-3	141.457E-12	670.105E-3	-54.6792E-3
3.59430E-3	138.609E-12	658.148E-3	-14.7577E-3	140.596E-12	659.427E-3	-42.5672E-3
3.58929E-3	138.820E-12	665.299E-3	-11.0765E-3	140.891E-12	632.714E-3	-47.0049E-3
3.58429E-3	139.381E-12	654.350E-3	-16.9478E-3	140.272E-12	604.529E-3	-59.2866E-3
3.57929E-3	139.258E-12	642.731E-3	-25.7220E-3	139.531E-12	615.354E-3	-52.0517E-3
3.57429E-3	139.840E-12	640.924E-3	-15.9436E-3	138.783E-12	624.019E-3	-39.2862E-3
3.56928E-3	139.583E-12	643.365E-3	5.27081E-3	138.537E-12	613.788E-3	-32.7034E-3
3.56428E-3	139.568E-12	650.184E-3	6.49814E-3	137.372E-12	613.255E-3	-26.0821E-3
3.55928E-3	139.224E-12	653.347E-3	-9.67878E-3	136.858E-12	633.522E-3	-22.0640E-3
3.55428E-3	138.852E-12	645.240E-3	-11.2121E-3	136.124E-12	651.001E-3	-25.1875E-3
3.54927E-3	138.758E-12	640.287E-3	6.30555E-3	136.001E-12	654.588E-3	-16.2723E-3
3.54427E-3	137.792E-12	654.310E-3	13.5818E-3	135.494E-12	670.869E-3	1.95049E-3
3.53927E-3	137.212E-12	671.552E-3	5.90166E-3	135.856E-12	668.662E-3	-4.19320E-3
3.53427E-3	136.688E-12	659.476E-3	-10.2101E-3	135.920E-12	631.046E-3	-4.70311E-3
3.52926E-3	136.549E-12	646.618E-3	-33.0210E-3	136.118E-12	614.644E-3	2.37761E-3
3.52426E-3	135.574E-12	660.924E-3	-38.0538E-3	136.045E-12	639.200E-3	-1.97403E-3
3.51926E-3	135.114E-12	655.552E-3	-11.7345E-3	136.817E-12	660.169E-3	-2.99684E-3
3.51426E-3	135.076E-12	633.504E-3	-7.79051E-3	137.061E-12	639.932E-3	-11.9923E-3
3.50925E-3	135.174E-12	633.111E-3	-51.4074E-3	137.420E-12	624.915E-3	-23.3893E-3
3.50425E-3	135.512E-12	631.509E-3	-88.2409E-3	137.724E-12	654.266E-3	-27.9296E-3
3.49925E-3	135.983E-12	622.494E-3	-69.8237E-3	137.918E-12	696.387E-3	-34.9955E-3
3.49425E-3	136.312E-12	634.319E-3	-16.2744E-3	137.652E-12	698.266E-3	-37.6402E-3
3.48924E-3	136.155E-12	655.210E-3	12.1788E-3	136.955E-12	653.244E-3	-35.1187E-3
3.48424E-3	136.101E-12	654.880E-3	-2.27012E-3	136.639E-12	625.968E-3	-33.3937E-3
3.47924E-3	136.463E-12	639.692E-3	-12.1364E-3	136.043E-12	630.844E-3	-32.1814E-3
3.47424E-3	136.490E-12	643.424E-3	-3.72494E-3	134.717E-12	648.146E-3	-36.8569E-3
3.46923E-3	135.902E-12	648.340E-3	-4.22023E-3	134.335E-12	671.102E-3	-43.0604E-3
3.46423E-3	135.761E-12	653.600E-3	3.97298E-3	133.356E-12	665.925E-3	-26.3345E-3
3.45923E-3	135.132E-12	670.374E-3	28.9661E-3	133.044E-12	642.949E-3	4.30729E-3
3.45423E-3	134.369E-12	655.955E-3	19.9538E-3	132.018E-12	637.381E-3	8.29351E-3
3.44922E-3	133.865E-12	625.125E-3	-13.6981E-3	132.240E-12	642.802E-3	-20.3862E-3
3.44422E-3	133.412E-12	618.746E-3	-26.8968E-3	131.991E-12	649.912E-3	-45.0402E-3
3.43922E-3	133.220E-12	636.452E-3	-31.2997E-3	131.667E-12	657.985E-3	-35.4558E-3
3.43422E-3	132.854E-12	675.161E-3	-27.6277E-3	131.808E-12	652.989E-3	-13.9478E-3
3.42921E-3	132.277E-12	695.711E-3	-22.8786E-3	132.172E-12	643.014E-3	-28.0209E-3
3.42421E-3	132.141E-12	674.807E-3	-28.5655E-3	132.780E-12	659.507E-3	-52.5491E-3
3.41921E-3	131.991E-12	654.851E-3	-27.4847E-3	132.629E-12	686.330E-3	-49.0310E-3
3.41421E-3	131.558E-12	649.253E-3	-12.5792E-3	133.233E-12	683.854E-3	-39.9894E-3
3.40920E-3	131.490E-12	644.140E-3	-18.1197E-3	133.459E-12	678.210E-3	-22.3912E-3
3.40420E-3	131.522E-12	644.880E-3	-43.9940E-3	133.940E-12	684.621E-3	92.2500E-6
3.39920E-3	131.493E-12	661.470E-3	-48.2028E-3	133.173E-12	686.434E-3	-9.37697E-3
3.39420E-3	131.039E-12	679.106E-3	-35.0487E-3	133.133E-12	689.748E-3	-17.6807E-3
3.38919E-3	131.197E-12	670.671E-3	-24.5222E-3	132.648E-12	683.671E-3	-4.79647E-3
3.38419E-3	130.830E-12	660.396E-3	-33.2309E-3	132.267E-12	655.491E-3	-13.4073E-3
3.37919E-3	130.300E-12	669.929E-3	-42.8334E-3	131.218E-12	630.813E-3	-21.9700E-3
3.37419E-3	129.633E-12	667.564E-3	-28.4505E-3	131.044E-12	635.751E-3	-13.7556E-3
3.36918E-3	129.902E-12	653.577E-3	-4.91575E-3	130.106E-12	653.085E-3	-10.7302E-3
3.36418E-3	129.503E-12	668.061E-3	-4.67203E-3	129.754E-12	657.661E-3	-425.458E-6
3.35918E-3	128.997E-12	690.066E-3	-21.6265E-3	129.002E-12	645.253E-3	4.86590E-3
3.35418E-3	128.583E-12	688.724E-3	-18.9396E-3	128.650E-12	637.801E-3	-24.4043E-3
3.34917E-3	128.406E-12	659.580E-3	-19.3124E-3	128.632E-12	647.718E-3	-44.9142E-3
3.34417E-3	128.114E-12	623.108E-3	-29.7130E-3	127.925E-12	652.453E-3	-19.5725E-3
3.33917E-3	127.898E-12	635.268E-3	-25.7723E-3	127.966E-12	651.207E-3	2.91595E-3
3.33417E-3	127.949E-12	666.527E-3	-8.19928E-3	128.122E-12	646.447E-3	-4.71096E-3
3.32916E-3	127.916E-12	670.644E-3	-1.51913E-3	128.073E-12	647.413E-3	-6.52552E-3
3.32416E-3	128.050E-12	665.930E-3	-9.75094E-3	128.104E-12	667.255E-3	-7.31722E-3
3.31916E-3	127.858E-12	646.186E-3	-8.86246E-3	128.413E-12	683.706E-3	-22.6582E-3
3.31416E-3	127.762E-12	636.747E-3	-11.2090E-3	128.322E-12	671.237E-3	-16.9821E-3
3.30915E-3	127.393E-12	658.184E-3	-20.9673E-3	128.120E-12	641.724E-3	-2.00724E-3
3.30415E-3	127.250E-12	660.555E-3	-21.5531E-3	127.666E-12	647.609E-3	-4.35583E-3
3.29915E-3	127.179E-12	640.498E-3	-6.72429E-3	127.562E-12	668.677E-3	-22.8898E-3
3.29415E-3	126.947E-12	633.582E-3	12.2255E-3	127.147E-12	653.823E-3	-37.2167E-3
3.28914E-3	126.537E-12	647.604E-3	15.1438E-3	126.307E-12	631.813E-3	-27.9526E-3
3.28414E-3	126.501E-12	637.131E-3	-4.26733E-3	125.982E-12	629.883E-3	-26.9715E-3
3.27914E-3	126.510E-12	633.244E-3	-32.8801E-3	125.554E-12	639.225E-3	-42.6621E-3
3.27414E-3	126.401E-12	666.400E-3	-41.7349E-3	124.870E-12	649.553E-3	-46.5224E-3
3.26913E-3	126.189E-12	664.412E-3	-35.9423E-3	124.077E-12	658.186E-3	-39.3662E-3
3.26413E-3	125.989E-12	647.904E-3	-42.5897E-3	123.756E-12	662.237E-3	-25.8766E-3
3.25913E-3	126.224E-12	649.353E-3	-40.2947E-3	123.879E-12	655.040E-3	-8.12567E-3
3.25413E-3	125.882E-12	647.106E-3	-33.6756E-3	123.710E-12	644.419E-3	26.2110E-6
3.24912E-3	125.871E-12	655.612E-3	-43.9195E-3	123.260E-12	652.729E-3	-10.3148E-3
3.24412E-3	125.646E-12	673.010E-3	-41.7019E-3	122.959E-12	667.393E-3	-16.0085E-3
3.23912E-3	125.498E-12	675.731E-3	-28.2390E-3	123.229E-12	658.678E-3	-1.56546E-3
3.23412E-3	124.680E-12	669.485E-3	-18.8366E-3	122.825E-12	650.000E-3	-1.90182E-3
3.22911E-3	124.672E-12	673.077E-3	-16.1591E-3	122.585E-12	652.988E-3	-14.8409E-3
3.22411E-3	124.235E-12	680.009E-3	-17.3174E-3	122.768E-12	648.967E-3	-19.5385E-3
3.21911E-3	123.523E-12	669.157E-3	-16.5869E-3	122.492E-12	654.479E-3	-24.5192E-3
3.21411E-3	122.962E-12	662.795E-3	-19.5830E-3	122.740E-12	672.330E-3	-24.9463E-3
3.20910E-3	122.434E-12	672.070E-3	-19.5899E-3	122.790E-12	673.367E-3	-16.8399E-3
3.20410E-3	121.960E-12	677.283E-3	-25.9612E-3	122.771E-12	657.004E-3	-8.50957E-3
3.19910E-3	121.286E-12	685.882E-3	-25.8584E-3	122.506E-12	657.212E-3	-7.87586E-3
3.19410E-3	121.131E-12	686.036E-3	5.30699E-3	122.625E-12	668.008E-3	-13.7013E-3
3.18909E-3	120.774E-12	669.480E-3	10.9889E-3	122.786E-12	664.229E-3	-25.7659E-3
3.18409E-3	121.161E-12	646.840E-3	-7.91214E-3	122.740E-12	652.462E-3	-34.2939E-3
3.17909E-3	120.734E-12	626.051E-3	-8.22560E-3	122.468E-12	651.941E-3	-32.7991E-3
3.17409E-3	120.825E-12	622.757E-3	-20.3288E-3	122.430E-12	678.639E-3	-42.4232E-3
3.16908E-3	120.897E-12	634.117E-3	-21.3468E-3	122.672E-12	694.049E-3	-45.7370E-3
3.16408E-3	121.280E-12	637.783E-3	2.37913E-3	122.186E-12	681.965E-3	-22.4873E-3
3.15908E-3	120.822E-12	645.414E-3	-4.33949E-3	122.010E-12	676.448E-3	-1.25567E-3
3.15408E-3	120.880E-12	660.476E-3	-32.2133E-3	122.002E-12	666.380E-3	6.70761E-3
3.14907E-3	120.889E-12	657.726E-3	-44.4547E-3	121.894E-12	650.324E-3	3.15580E-3
3.14407E-3	120.630E-12	658.710E-3	-46.1462E-3	120.888E-12	656.043E-3	-12.2991E-3
3.13907E-3	120.040E-12	672.616E-3	-50.7911E-3	120.700E-12	668.094E-3	-16.8007E-3
3.13407E-3	119.840E-12	679.826E-3	-49.4182E-3	120.069E-12	659.462E-3	-19.4429E-3
3.12906E-3	119.327E-12	694.467E-3	-34.9819E-3	119.360E-12	643.155E-3	-29.1196E-3
3.12406E-3	118.482E-12	701.878E-3	-34.4798E-3	119.127E-12	646.131E-3	-37.9095E-3
3.11906E-3	118.112E-12	667.828E-3	-38.1046E-3	118.724E-12	664.540E-3	-34.6252E-3
3.11406E-3	117.428E-12	637.289E-3	-18.3312E-3	118.577E-12	667.628E-3	-13.1439E-3
3.10905E-3	116.901E-12	644.491E-3	4.22300E-3	118.409E-12	650.504E-3	-2.27701E-3
3.10405E-3	116.420E-12	660.210E-3	14.7036E-3	118.569E-12	646.097E-3	-4.05015E-3
3.09905E-3	116.413E-12	654.251E-3	12.4895E-3	118.776E-12	662.524E-3	-14.6485E-3
3.09405E-3	116.553E-12	649.626E-3	-1.63260E-3	118.582E-12	682.772E-3	-34.0600E-3
3.08904E-3	116.716E-12	658.041E-3	-4.02537E-3	118.411E-12	701.829E-3	-32.5919E-3
3.08404E-3	116.898E-12	650.092E-3	11.5040E-3	118.442E-12	702.677E-3	-16.3417E-3
3.07904E-3	117.259E-12	658.400E-3	3.76832E-3	118.987E-12	689.471E-3	-890.102E-6
3.07404E-3	117.640E-12	676.628E-3	-13.6809E-3	118.593E-12	678.454E-3	3.50953E-3
3.06903E-3	117.451E-12	660.953E-3	4.72369E-3	118.156E-12	673.254E-3	-7.00433E-3
3.06403E-3	117.537E-12	657.822E-3	18.1477E-3	118.051E-12	671.440E-3	-12.4547E-3
3.05903E-3	117.468E-12	690.129E-3	9.47006E-3	117.696E-12	662.521E-3	-10.8893E-3
3.05403E-3	117.349E-12	694.305E-3	7.28550E-3	116.802E-12	651.291E-3	-8.43664E-3
3.04902E-3	117.052E-12	668.639E-3	-6.48913E-3	115.781E-12	649.344E-3	-14.2126E-3
3.04402E-3	116.751E-12	656.164E-3	-19.6237E-3	115.312E-12	643.888E-3	-30.2726E-3
3.03902E-3	116.488E-12	645.866E-3	-5.75293E-3	114.454E-12	626.491E-3	-38.6777E-3
3.03402E-3	115.847E-12	644.851E-3	12.6695E-3	113.773E-12	630.965E-3	-29.4358E-3
3.02901E-3	115.387E-12	658.202E-3	-5.40382E-3	113.134E-12	656.918E-3	-2.00314E-3
3.02401E-3	115.143E-12	666.572E-3	-35.6424E-3	112.576E-12	678.863E-3	15.5754E-3
3.01901E-3	114.518E-12	664.108E-3	-35.8568E-3	112.112E-12	694.915E-3	-3.20787E-3
3.01401E-3	114.171E-12	666.437E-3	-35.7478E-3	112.237E-12	685.115E-3	-25.4789E-3
3.00900E-3	113.426E-12	667.919E-3	-38.4996E-3	112.206E-12	660.510E-3	-31.8222E-3
3.00400E-3	113.812E-12	655.458E-3	-41.6562E-3	112.459E-12	653.459E-3	-28.0609E-3
2.99900E-3	113.160E-12	648.181E-3	-40.1852E-3	112.611E-12	655.847E-3	-3.63602E-3
2.99400E-3	113.422E-12	643.877E-3	-23.3147E-3	112.636E-12	668.395E-3	6.35158E-3
2.98899E-3	113.100E-12	636.027E-3	-19.4529E-3	113.107E-12	689.261E-3	-22.0881E-3
2.98399E-3	113.419E-12	640.724E-3	-22.7886E-3	113.981E-12	702.851E-3	-50.6171E-3
2.97899E-3	112.649E-12	662.406E-3	-12.4146E-3	113.714E-12	704.480E-3	-45.3936E-3
2.97399E-3	112.874E-12	676.490E-3	-7.77699E-3	113.959E-12	697.881E-3	-28.1725E-3
2.96898E-3	112.653E-12	669.945E-3	-19.4271E-3	114.178E-12	690.801E-3	-23.8176E-3
2.96398E-3	112.487E-12	662.808E-3	-18.7637E-3	114.347E-12	685.239E-3	-19.2788E-3
2.95898E-3	111.788E-12	670.806E-3	-5.82247E-3	113.346E-12	681.686E-3	-21.2698E-3
2.95398E-3	111.946E-12	691.910E-3	-541.583E-6	112.722E-12	686.778E-3	-26.0014E-3
2.94897E-3	111.335E-12	685.112E-3	3.67694E-3	112.312E-12	693.521E-3	-27.8926E-3
2.94397E-3	111.272E-12	642.279E-3	5.73223E-3	111.246E-12	691.618E-3	-23.0737E-3
2.93897E-3	111.181E-12	634.578E-3	8.96332E-3	110.598E-12	683.045E-3	-19.3552E-3
2.93397E-3	111.132E-12	656.141E-3	19.0259E-3	109.941E-12	675.992E-3	-38.7563E-3
2.92896E-3	110.964E-12	666.291E-3	22.6941E-3	109.754E-12	667.746E-3	-41.1187E-3
2.92396E-3	110.704E-12	674.132E-3	-6.29379E-3	108.906E-12	654.719E-3	-5.64990E-3
2.91896E-3	110.367E-12	681.718E-3	-45.5603E-3	109.102E-12	666.324E-3	18.0001E-3
2.91396E-3	110.110E-12	680.072E-3	-50.3744E-3	108.650E-12	683.877E-3	14.7991E-3
2.90895E-3	109.933E-12	669.504E-3	-43.5510E-3	108.730E-12	674.949E-3	6.46689E-3
2.90395E-3	109.372E-12	669.238E-3	-30.5449E-3	108.817E-12	663.579E-3	-4.44694E-3
2.89895E-3	109.077E-12	677.197E-3	-7.74845E-3	108.956E-12	666.510E-3	-21.5208E-3
2.89395E-3	108.896E-12	669.983E-3	-4.75729E-3	109.254E-12	666.986E-3	-38.6167E-3
2.88894E-3	108.765E-12	654.230E-3	-6.49609E-3	109.289E-12	668.750E-3	-31.9553E-3
2.88394E-3	107.772E-12	652.359E-3	3.16909E-3	109.436E-12	681.584E-3	-15.9616E-3
2.87894E-3	107.704E-12	658.836E-3	4.58921E-3	109.721E-12	671.742E-3	-7.36965E-3
2.87394E-3	107.625E-12	655.041E-3	-3.80920E-3	109.669E-12	649.760E-3	2.77485E-3
2.86893E-3	107.368E-12	652.948E-3	-5.89641E-3	109.530E-12	648.932E-3	1.69833E-3
2.86393E-3	107.118E-12	668.527E-3	-10.2968E-3	109.241E-12	666.326E-3	1.87350E-3
2.85893E-3	106.946E-12	677.148E-3	-22.2254E-3	108.931E-12	683.302E-3	-48.5758E-6
2.85393E-3	106.882E-12	665.005E-3	-14.7465E-3	107.983E-12	686.067E-3	-18.8099E-3
2.84892E-3	106.633E-12	661.029E-3	3.73184E-3	107.643E-12	679.623E-3	-18.8153E-3
2.84392E-3	106.669E-12	673.057E-3	7.97268E-3	106.804E-12	667.210E-3	-9.93583E-3
2.83892E-3	106.776E-12	685.987E-3	-975.979E-6	106.336E-12	656.204E-3	-26.0229E-3
2.83392E-3	106.781E-12	691.329E-3	-15.0071E-3	105.501E-12	652.722E-3	-34.3896E-3
2.82891E-3	106.832E-12	692.915E-3	-15.7830E-3	105.003E-12	664.023E-3	-17.6577E-3
2.82391E-3	106.674E-12	683.076E-3	-2.90890E-3	104.890E-12	689.040E-3	-3.84876E-3
2.81891E-3	106.779E-12	668.624E-3	-224.400E-6	104.651E-12	690.394E-3	-2.09862E-3
2.81391E-3	106.227E-12	675.445E-3	-9.71018E-3	104.081E-12	670.997E-3	-6.71366E-3
2.80890E-3	105.984E-12	687.037E-3	-10.5575E-3	104.150E-12	671.022E-3	-15.0853E-3
2.80390E-3	105.511E-12	678.695E-3	-12.9978E-3	104.350E-12	676.893E-3	-21.2379E-3
2.79890E-3	104.879E-12	665.854E-3	-34.5790E-3	104.583E-12	669.499E-3	-13.9860E-3
2.79390E-3	104.034E-12	669.644E-3	-41.5140E-3	104.425E-12	661.676E-3	-9.67469E-3
2.78889E-3	103.609E-12	684.591E-3	-22.8335E-3	104.735E-12	662.037E-3	-18.2404E-3
2.78389E-3	102.496E-12	695.661E-3	-15.7992E-3	104.722E-12	683.420E-3	-14.9449E-3
2.77889E-3	102.569E-12	691.922E-3	-20.4508E-3	104.427E-12	697.345E-3	-989.598E-6
2.77389E-3	101.953E-12	682.202E-3	-24.4078E-3	104.058E-12	678.617E-3	-729.510E-6
2.76888E-3	101.708E-12	676.097E-3	-29.5255E-3	103.976E-12	668.500E-3	-13.0259E-3
2.76388E-3	101.376E-12	660.084E-3	-23.8681E-3	103.534E-12	674.699E-3	-21.5419E-3
2.75888E-3	101.836E-12	644.152E-3	-16.3878E-3	103.271E-12	686.139E-3	-21.4194E-3
2.75388E-3	101.821E-12	653.972E-3	-44.9331E-3	103.189E-12	694.963E-3	-17.0057E-3
2.74887E-3	101.888E-12	659.889E-3	-66.5566E-3	103.163E-12	685.867E-3	-22.9251E-3
2.74387E-3	102.148E-12	652.716E-3	-47.5385E-3	102.563E-12	679.508E-3	-31.5189E-3
2.73887E-3	101.780E-12	660.971E-3	-40.7517E-3	101.977E-12	690.839E-3	-34.3775E-3
2.73387E-3	102.117E-12	676.690E-3	-36.3424E-3	101.972E-12	699.815E-3	-40.6902E-3
2.72886E-3	101.872E-12	685.103E-3	-20.2561E-3	101.823E-12	681.456E-3	-32.3539E-3
2.72386E-3	102.073E-12	697.003E-3	-16.2948E-3	100.896E-12	664.232E-3	-2.23853E-3
2.71886E-3	101.889E-12	709.504E-3	-14.9857E-3	100.746E-12	672.953E-3	16.2841E-3
2.71386E-3	101.717E-12	714.991E-3	-566.554E-6	100.511E-12	680.707E-3	11.6741E-3
2.70885E-3	101.232E-12	722.422E-3	6.38810E-3	100.182E-12	680.001E-3	-6.96768E-3
2.70385E-3	100.440E-12	715.261E-3	-11.6591E-3	99.4858E-12	691.961E-3	-30.4729E-3
2.69885E-3	100.112E-12	691.182E-3	-26.2634E-3	99.2914E-12	698.121E-3	-31.2531E-3
2.69385E-3	99.2264E-12	670.050E-3	-36.6245E-3	98.8689E-12	680.586E-3	-13.7396E-3
2.68884E-3	99.2241E-12	660.318E-3	-45.7174E-3	98.5009E-12	675.449E-3	-13.3003E-3
2.68384E-3	98.7162E-12	675.646E-3	-32.1916E-3	97.9320E-12	689.327E-3	-28.6210E-3
2.67884E-3	98.6655E-12	704.313E-3	-17.6465E-3	97.8814E-12	702.597E-3	-32.8992E-3
2.67384E-3	98.6338E-12	717.796E-3	-20.9014E-3	98.1440E-12	716.828E-3	-26.4157E-3
2.66883E-3	98.9685E-12	719.750E-3	-17.4488E-3	98.0603E-12	729.656E-3	-21.1205E-3
2.66383E-3	99.2430E-12	718.370E-3	-4.53078E-3	98.2988E-12	726.118E-3	-20.2983E-3
2.65883E-3	99.0637E-12	707.816E-3	-677.761E-6	98.6390E-12	707.387E-3	-13.9517E-3
2.65383E-3	99.2119E-12	693.431E-3	-6.47912E-3	98.8926E-12	697.792E-3	-5.13632E-3
2.64882E-3	98.6763E-12	688.731E-3	-25.5117E-3	98.8112E-12	693.277E-3	-6.63621E-3
2.64382E-3	98.7360E-12	700.473E-3	-32.5889E-3	98.9781E-12	678.745E-3	-3.65306E-3
2.63882E-3	98.5502E-12	710.186E-3	-15.8718E-3	98.9651E-12	668.816E-3	-4.31376E-3
2.63382E-3	98.3707E-12	701.151E-3	-7.90275E-3	98.6384E-12	673.981E-3	-20.5631E-3
2.62881E-3	97.8385E-12	699.496E-3	-12.7336E-3	97.8074E-12	679.824E-3	-12.4703E-3
2.62381E-3	97.9579E-12	708.506E-3	-10.0994E-3	97.5382E-12	691.827E-3	6.43647E-3
2.61881E-3	97.3177E-12	702.422E-3	-13.2480E-3	96.8088E-12	695.622E-3	-3.86650E-3
2.61381E-3	96.8513E-12	687.359E-3	-19.8602E-3	95.9430E-12	672.512E-3	-9.86115E-3
2.60880E-3	96.2076E-12	677.534E-3	-7.64762E-3	95.1920E-12	672.050E-3	-3.59596E-3
2.60380E-3	95.9124E-12	671.347E-3	-2.36086E-3	94.7482E-12	687.095E-3	-12.7359E-3
2.59880E-3	95.3429E-12	682.980E-3	-17.3997E-3	94.1760E-12	686.738E-3	-33.0543E-3
2.59380E-3	94.9289E-12	709.851E-3	-23.3375E-3	93.7109E-12	707.607E-3	-42.5699E-3
2.58879E-3	94.4922E-12	713.042E-3	-17.5359E-3	93.2679E-12	735.778E-3	-27.5864E-3
2.58379E-3	94.2752E-12	695.366E-3	-21.6000E-3	93.1843E-12	726.830E-3	-4.47171E-3
2.57879E-3	94.2709E-12	692.023E-3	-22.3343E-3	93.5113E-12	701.785E-3	5.15730E-3
2.57379E-3	94.1012E-12	694.976E-3	-16.3978E-3	93.8492E-12	701.836E-3	-1.55511E-3
2.56878E-3	93.8444E-12	696.463E-3	-19.2452E-3	94.3941E-12	717.148E-3	-6.55808E-3
2.56378E-3	93.8313E-12	696.040E-3	-20.5924E-3	94.5789E-12	712.246E-3	2.17093E-3
2.55878E-3	93.3488E-12	679.534E-3	-21.9529E-3	94.9404E-12	701.595E-3	-821.472E-6
2.55378E-3	92.9772E-12	664.487E-3	-38.4768E-3	95.3540E-12	703.144E-3	-19.0086E-3
2.54877E-3	92.4592E-12	682.522E-3	-36.6904E-3	95.2571E-12	704.908E-3	-29.3777E-3
2.54377E-3	92.2963E-12	713.308E-3	-14.0897E-3	94.9592E-12	710.975E-3	-32.9051E-3
2.53877E-3	91.5765E-12	715.105E-3	-10.7261E-3	94.7402E-12	720.583E-3	-36.8254E-3
2.53377E-3	91.4077E-12	701.231E-3	-18.1197E-3	94.3943E-12	726.918E-3	-30.2982E-3
2.52876E-3	91.1738E-12	683.143E-3	-18.4233E-3	93.3840E-12	722.509E-3	-15.5229E-3
2.52376E-3	91.0186E-12	665.919E-3	-7.83947E-3	92.6668E-12	703.194E-3	-10.4274E-3
2.51876E-3	90.5738E-12	667.512E-3	4.81229E-3	91.7636E-12	684.402E-3	-9.80236E-3
2.51376E-3	90.5911E-12	664.410E-3	7.84497E-3	91.2628E-12	680.852E-3	-12.9410E-3
2.50875E-3	90.5270E-12	649.146E-3	-333.591E-6	90.8144E-12	680.734E-3	-21.4400E-3
2.50375E-3	90.7712E-12	655.413E-3	-8.84382E-3	89.6804E-12	678.994E-3	-26.0640E-3
2.49875E-3	90.4864E-12	681.812E-3	-10.7291E-3	89.3333E-12	684.794E-3	-21.8210E-3
2.49375E-3	90.4540E-12	705.601E-3	-9.87707E-3	88.8117E-12	688.602E-3	-16.7100E-3
2.48874E-3	90.5588E-12	720.278E-3	-10.8071E-3	88.6999E-12	693.918E-3	-12.4139E-3
2.48374E-3	90.5866E-12	727.165E-3	-11.7838E-3	88.7552E-12	700.603E-3	-10.4376E-3
2.47874E-3	90.3166E-12	714.625E-3	-12.5727E-3	88.9918E-12	691.979E-3	-12.8353E-3
2.47374E-3	90.2958E-12	701.097E-3	-13.9458E-3	89.2492E-12	688.905E-3	-8.15161E-3
2.46873E-3	90.0350E-12	722.649E-3	-17.5184E-3	89.3853E-12	705.096E-3	-7.95602E-3
2.46373E-3	89.6775E-12	734.402E-3	-21.8421E-3	89.7969E-12	713.405E-3	-9.93254E-3
2.45873E-3	89.2197E-12	724.017E-3	-27.3987E-3	89.8278E-12	708.204E-3	4.03767E-3
2.45373E-3	88.8788E-12	734.856E-3	-27.4845E-3	89.9996E-12	711.468E-3	1.17276E-3
2.44872E-3	88.0959E-12	738.260E-3	-13.5726E-3	89.4345E-12	719.785E-3	-17.4789E-3
2.44372E-3	88.0590E-12	727.325E-3	-8.79026E-3	89.4695E-12	714.389E-3	-16.0705E-3
2.43872E-3	87.5681E-12	725.249E-3	-19.1719E-3	89.3052E-12	703.206E-3	-13.1025E-3
2.43372E-3	87.5391E-12	711.452E-3	-30.3502E-3	88.3867E-12	691.186E-3	-23.6877E-3
2.42871E-3	87.2337E-12	688.714E-3	-34.9021E-3	87.7838E-12	684.918E-3	-31.8494E-3
2.42371E-3	87.3261E-12	671.767E-3	-23.5779E-3	87.5491E-12	695.811E-3	-32.0908E-3
2.41871E-3	87.1501E-12	670.058E-3	-5.95372E-3	86.8726E-12	707.881E-3	-25.7833E-3
2.41371E-3	87.1180E-12	694.224E-3	-14.9011E-3	85.9169E-12	700.464E-3	-18.3159E-3
2.40870E-3	87.0393E-12	720.717E-3	-31.3213E-3	85.4884E-12	678.598E-3	-13.4288E-3
2.40370E-3	86.8588E-12	714.925E-3	-28.7885E-3	85.0784E-12	675.197E-3	-14.8050E-3
2.39870E-3	86.8373E-12	698.859E-3	-25.2890E-3	84.8209E-12	698.733E-3	-27.0783E-3
2.39370E-3	86.5182E-12	716.574E-3	-15.6862E-3	84.6023E-12	719.837E-3	-27.0363E-3
2.38869E-3	86.1439E-12	745.992E-3	-4.48171E-3	84.4825E-12	723.784E-3	-13.5972E-3
2.38369E-3	85.7937E-12	746.288E-3	-14.3959E-3	84.5336E-12	722.946E-3	-13.9840E-3
2.37869E-3	85.4671E-12	730.532E-3	-25.7239E-3	84.5192E-12	723.803E-3	-22.0771E-3
2.37369E-3	85.0032E-12	715.533E-3	-19.0298E-3	84.5060E-12	723.814E-3	-21.8592E-3
2.36868E-3	84.8215E-12	702.885E-3	-13.3223E-3	84.6114E-12	721.542E-3	-15.5958E-3
2.36368E-3	84.2626E-12	708.173E-3	-7.36700E-3	84.7161E-12	717.024E-3	-1.18161E-3
2.35868E-3	83.8537E-12	722.839E-3	2.91815E-3	84.6602E-12	706.653E-3	4.48828E-3
2.35368E-3	83.3748E-12	719.669E-3	2.48655E-3	84.6445E-12	696.003E-3	-6.04715E-3
2.34867E-3	82.9229E-12	706.423E-3	-3.14286E-3	84.6295E-12	704.495E-3	-9.18214E-3
2.34367E-3	82.7060E-12	698.661E-3	-3.70557E-3	84.3290E-12	724.118E-3	-4.55618E-3
2.33867E-3	82.3537E-12	701.717E-3	-4.30885E-3	84.1461E-12	730.626E-3	-7.83183E-3
2.33367E-3	82.2969E-12	711.124E-3	-4.55482E-3	83.9191E-12	724.539E-3	-14.6060E-3
2.32866E-3	82.3942E-12	706.994E-3	-2.54563E-3	84.0279E-12	722.581E-3	-10.6782E-3
2.32366E-3	82.5738E-12	685.572E-3	-7.70944E-3	83.4679E-12	727.523E-3	-6.33425E-3
2.31866E-3	82.2797E-12	679.069E-3	-16.1513E-3	82.8472E-12	735.212E-3	-3.97838E-3
2.31366E-3	82.2201E-12	706.494E-3	-16.9223E-3	83.0775E-12	731.067E-3	-1.39472E-3
2.30865E-3	82.0079E-12	726.811E-3	-5.38776E-3	82.4197E-12	715.645E-3	-2.21143E-3
2.30365E-3	81.4230E-12	723.014E-3	-3.49694E-3	82.0006E-12	713.577E-3	-3.73806E-3
2.29865E-3	81.0394E-12	727.035E-3	-13.0369E-3	81.4972E-12	725.202E-3	-20.6726E-3
2.29365E-3	80.5264E-12	730.697E-3	-323.696E-6	81.2098E-12	727.183E-3	-38.5375E-3
2.28864E-3	80.5086E-12	728.144E-3	9.69105E-3	80.9172E-12	714.520E-3	-39.3428E-3
2.28364E-3	79.7751E-12	725.208E-3	-3.19481E-3	80.4214E-12	717.167E-3	-33.1153E-3
2.27864E-3	79.5761E-12	716.198E-3	-18.4946E-3	80.2744E-12	724.655E-3	-17.0929E-3
2.27364E-3	79.2216E-12	708.679E-3	-26.0549E-3	79.6472E-12	722.337E-3	-7.22207E-3
2.26863E-3	79.0414E-12	697.694E-3	-12.7074E-3	79.1751E-12	732.782E-3	-10.9293E-3
2.26363E-3	78.6167E-12	695.104E-3	-1.81625E-3	78.9393E-12	746.762E-3	-20.9988E-3
2.25863E-3	78.4542E-12	717.009E-3	-16.2137E-3	78.8894E-12	761.579E-3	-29.9593E-3
2.25363E-3	78.3873E-12	734.943E-3	-22.4365E-3	78.8775E-12	776.549E-3	-30.7794E-3
2.24862E-3	78.5743E-12	726.425E-3	-12.8239E-3	78.5064E-12	767.539E-3	-25.3377E-3
2.24362E-3	77.8986E-12	711.670E-3	-17.3763E-3	78.8083E-12	735.503E-3	-9.16393E-3
2.23862E-3	78.5574E-12	714.734E-3	-21.8920E-3	78.8178E-12	723.557E-3	5.30323E-3
2.23362E-3	78.7063E-12	727.678E-3	-11.1795E-3	79.0051E-12	740.921E-3	-3.91294E-3
2.22861E-3	78.8915E-12	732.207E-3	-16.3280E-3	78.7291E-12	740.337E-3	-13.5527E-3
2.22361E-3	78.6279E-12	727.470E-3	-34.0732E-3	78.8725E-12	721.761E-3	-5.99564E-3
2.21861E-3	78.6031E-12	718.114E-3	-35.2991E-3	78.5383E-12	718.861E-3	-11.2347E-3
2.21361E-3	78.2462E-12	723.128E-3	-23.4367E-3	78.1462E-12	723.532E-3	-17.6902E-3
2.20860E-3	77.6142E-12	738.150E-3	-7.53864E-3	77.6399E-12	730.630E-3	-3.21572E-3
2.20360E-3	77.3357E-12	716.324E-3	-1.78426E-3	77.2490E-12	737.364E-3	11.8839E-3
2.19860E-3	76.7774E-12	688.442E-3	-19.6911E-3	76.9372E-12	731.066E-3	11.0067E-3
2.19360E-3	76.3558E-12	706.418E-3	-38.5551E-3	75.9361E-12	722.699E-3	-8.10352E-3
2.18859E-3	75.7344E-12	733.969E-3	-34.0643E-3	75.6017E-12	712.043E-3	-28.3792E-3
2.18359E-3	75.4357E-12	739.473E-3	-26.7873E-3	74.8903E-12	706.606E-3	-34.3696E-3
2.17859E-3	75.1669E-12	726.214E-3	-27.4241E-3	74.2843E-12	714.871E-3	-28.5438E-3
2.17359E-3	74.7545E-12	711.396E-3	-24.6602E-3	73.8766E-12	722.872E-3	-16.2766E-3
2.16858E-3	74.4543E-12	711.788E-3	-21.6275E-3	73.6713E-12	729.548E-3	-5.60956E-3
2.16358E-3	74.2447E-12	731.085E-3	-18.9082E-3	73.1331E-12	740.685E-3	-2.35737E-3
2.15858E-3	74.3282E-12	753.942E-3	-25.0014E-3	73.0112E-12	742.315E-3	-5.76474E-3
2.15358E-3	73.9021E-12	748.481E-3	-34.2270E-3	72.9902E-12	729.543E-3	-4.72893E-3
2.14857E-3	73.6942E-12	735.466E-3	-31.0522E-3	73.1394E-12	730.982E-3	-4.27881E-3
2.14357E-3	73.8749E-12	745.285E-3	-17.4067E-3	73.6589E-12	748.663E-3	-11.9274E-3
2.13857E-3	74.0374E-12	754.564E-3	-10.8165E-3	73.7259E-12	756.138E-3	-19.6076E-3
2.13357E-3	73.7578E-12	760.193E-3	-23.6271E-3	73.9177E-12	744.022E-3	-27.8658E-3
2.12856E-3	73.6556E-12	772.033E-3	-39.1266E-3	74.1678E-12	738.718E-3	-30.9665E-3
2.12356E-3	73.3411E-12	775.507E-3	-37.1219E-3	74.2823E-12	747.264E-3	-29.5825E-3
2.11856E-3	73.3245E-12	776.592E-3	-25.6857E-3	73.5735E-12	742.762E-3	-16.9722E-3
2.11356E-3	72.5397E-12	781.743E-3	-19.4858E-3	73.5665E-12	745.023E-3	-3.12475E-3
2.10855E-3	72.4413E-12	766.842E-3	-19.3550E-3	73.2624E-12	768.154E-3	1.91587E-3
2.10355E-3	72.0032E-12	753.584E-3	-25.2369E-3	72.6276E-12	770.764E-3	15.1725E-3
2.09855E-3	71.3390E-12	765.892E-3	-23.6309E-3	71.6957E-12	749.837E-3	18.3651E-3
2.09355E-3	70.9762E-12	765.590E-3	-9.47740E-3	71.4019E-12	744.346E-3	4.29151E-3
2.08854E-3	70.5991E-12	742.114E-3	1.07618E-3	70.7482E-12	757.399E-3	-873.126E-6
2.08354E-3	70.4776E-12	732.609E-3	1.12056E-3	69.9168E-12	777.576E-3	5.59363E-3
2.07854E-3	70.1708E-12	748.469E-3	4.09386E-3	69.5597E-12	787.977E-3	-1.36568E-3
2.07354E-3	70.4580E-12	758.764E-3	-8.47922E-3	69.3279E-12	767.591E-3	-16.8744E-3
2.06853E-3	69.8078E-12	750.915E-3	-41.6745E-3	68.9390E-12	740.775E-3	-19.6652E-3
2.06353E-3	69.8993E-12	737.881E-3	-51.9777E-3	68.5658E-12	750.747E-3	-16.9208E-3
2.05853E-3	69.6219E-12	735.664E-3	-37.8107E-3	68.4761E-12	774.504E-3	-24.0940E-3
2.05353E-3	69.5809E-12	745.643E-3	-20.8002E-3	68.4821E-12	767.014E-3	-34.0245E-3
2.04852E-3	69.1513E-12	751.605E-3	-17.8536E-3	68.4266E-12	756.561E-3	-41.9611E-3
2.04352E-3	69.1341E-12	750.140E-3	-26.9985E-3	68.7336E-12	765.397E-3	-58.3609E-3
2.03852E-3	68.9145E-12	750.992E-3	-19.7925E-3	68.8802E-12	778.051E-3	-57.3781E-3
2.03352E-3	68.6454E-12	765.312E-3	-2.37583E-3	69.3941E-12	801.495E-3	-29.5731E-3
2.02851E-3	68.5262E-12	775.416E-3	-10.5451E-3	69.3932E-12	815.489E-3	-8.57917E-3
2.02351E-3	68.1205E-12	764.529E-3	-31.8683E-3	69.2194E-12	803.827E-3	-373.910E-6
2.01851E-3	67.7184E-12	763.057E-3	-28.9131E-3	69.1249E-12	787.180E-3	-3.20649E-3
2.01351E-3	67.4580E-12	772.660E-3	-286.490E-6	68.6260E-12	792.003E-3	-18.9933E-3
2.00850E-3	67.0483E-12	770.244E-3	19.7487E-3	68.0556E-12	819.570E-3	-28.6746E-3
2.00350E-3	66.9201E-12	761.000E-3	11.9084E-3	67.4534E-12	824.571E-3	-23.9634E-3
1.99850E-3	66.4797E-12	760.417E-3	-6.54106E-3	66.8126E-12	795.458E-3	-23.7863E-3
1.99350E-3	66.5565E-12	769.905E-3	-23.3000E-3	66.2763E-12	784.230E-3	-34.6283E-3
1.98849E-3	65.9455E-12	767.156E-3	-32.4501E-3	65.5142E-12	799.357E-3	-34.8064E-3
1.98349E-3	65.8463E-12	766.170E-3	-29.6007E-3	65.2330E-12	800.584E-3	-23.1706E-3
1.97849E-3	65.7096E-12	782.750E-3	-23.9356E-3	64.4367E-12	791.562E-3	-18.7575E-3
1.97349E-3	65.3682E-12	792.831E-3	-15.9795E-3	63.9869E-12	789.332E-3	-25.4650E-3
1.96848E-3	64.6491E-12	795.808E-3	-9.77784E-3	63.7402E-12	793.869E-3	-25.8996E-3
1.96348E-3	64.6898E-12	799.206E-3	-13.7069E-3	63.4788E-12	805.260E-3	-18.5067E-3
1.95848E-3	64.2544E-12	789.277E-3	-13.2215E-3	63.1560E-12	819.778E-3	-22.3449E-3
1.95348E-3	63.7372E-12	779.185E-3	-4.00952E-3	63.0149E-12	831.411E-3	-21.1764E-3
1.94847E-3	63.3597E-12	783.819E-3	-9.04340E-3	63.0897E-12	832.583E-3	-9.08957E-3
1.94347E-3	63.0317E-12	782.576E-3	-29.1663E-3	63.0902E-12	825.782E-3	-8.61728E-3
1.93847E-3	62.3420E-12	780.678E-3	-31.1459E-3	63.2697E-12	823.702E-3	-14.8607E-3
1.93347E-3	62.0674E-12	776.581E-3	-11.2216E-3	63.1405E-12	819.407E-3	-15.9849E-3
1.92846E-3	61.5975E-12	765.588E-3	-7.09549E-3	63.0576E-12	824.826E-3	-4.88404E-3
1.92346E-3	61.4831E-12	782.258E-3	-19.6053E-3	62.7699E-12	836.183E-3	6.66473E-3
1.91846E-3	60.8833E-12	807.896E-3	-29.1411E-3	62.5972E-12	819.901E-3	3.12615E-3
1.91346E-3	60.8334E-12	809.007E-3	-23.6068E-3	62.2637E-12	809.237E-3	-1.51913E-3
1.90845E-3	60.8157E-12	807.138E-3	1.67572E-3	61.7411E-12	815.050E-3	-3.73124E-3
1.90345E-3	60.8661E-12	815.844E-3	14.6932E-3	61.1610E-12	808.955E-3	-7.40730E-3
1.89845E-3	60.7964E-12	817.782E-3	-6.19733E-3	60.9189E-12	806.326E-3	-8.34343E-3
1.89345E-3	60.8186E-12	814.453E-3	-35.5900E-3	60.3954E-12	819.074E-3	-5.99391E-3
1.88844E-3	60.6419E-12	824.079E-3	-44.7371E-3	60.0152E-12	826.493E-3	-4.79636E-3
1.88344E-3	60.7281E-12	825.318E-3	-30.1662E-3	59.5539E-12	826.393E-3	-7.95195E-3
1.87844E-3	60.3314E-12	816.174E-3	-16.0763E-3	59.3337E-12	832.840E-3	-8.63412E-3
1.87344E-3	59.8822E-12	821.979E-3	-20.2493E-3	59.2471E-12	829.242E-3	-10.1194E-3
1.86843E-3	59.5391E-12	831.223E-3	-24.7687E-3	58.9495E-12	812.667E-3	-17.7409E-3
1.86343E-3	59.4272E-12	833.327E-3	-22.0887E-3	58.2399E-12	821.985E-3	-24.8129E-3
1.85843E-3	58.6376E-12	839.653E-3	-13.1824E-3	58.2406E-12	847.537E-3	-26.9991E-3
1.85343E-3	58.3231E-12	852.014E-3	-15.4509E-3	58.1533E-12	844.413E-3	-19.9662E-3
1.84842E-3	57.9522E-12	857.367E-3	-30.8806E-3	57.8004E-12	835.272E-3	-10.8288E-3
1.84342E-3	57.7409E-12	846.388E-3	-33.7246E-3	57.4391E-12	840.156E-3	-5.20842E-3
1.83842E-3	57.1528E-12	828.800E-3	-26.3111E-3	57.5780E-12	845.066E-3	-7.11981E-3
1.83342E-3	56.9583E-12	826.143E-3	-18.8054E-3	57.3843E-12	856.427E-3	-14.4793E-3
1.82841E-3	56.8046E-12	833.208E-3	-22.7091E-3	57.3233E-12	863.825E-3	-18.6158E-3
1.82341E-3	56.6055E-12	841.643E-3	-36.2008E-3	56.9343E-12	855.441E-3	-16.4894E-3
1.81841E-3	56.3561E-12	854.991E-3	-39.1389E-3	56.8030E-12	860.476E-3	-15.9519E-3
1.81341E-3	56.2423E-12	856.594E-3	-35.6435E-3	56.5566E-12	873.870E-3	-28.7440E-3
1.80840E-3	56.3003E-12	848.054E-3	-32.4808E-3	56.2240E-12	866.901E-3	-33.0929E-3
1.80340E-3	55.9820E-12	851.735E-3	-20.6474E-3	56.0713E-12	869.969E-3	-20.0215E-3
1.79840E-3	56.1624E-12	863.269E-3	-8.31587E-3	55.8192E-12	884.413E-3	-22.8214E-3
1.79340E-3	55.9802E-12	868.865E-3	-4.23567E-3	55.4686E-12	884.706E-3	-35.7809E-3
1.78839E-3	55.6166E-12	869.416E-3	-2.82287E-3	55.0477E-12	881.842E-3	-36.1642E-3
1.78339E-3	55.3958E-12	875.588E-3	-2.24835E-3	54.8320E-12	880.672E-3	-45.4885E-3
1.77839E-3	55.3458E-12	889.623E-3	-5.57931E-3	54.5460E-12	882.073E-3	-48.4846E-3
1.77339E-3	54.7701E-12	902.663E-3	-14.7596E-3	53.8861E-12	881.340E-3	-23.4098E-3
1.76838E-3	54.1280E-12	903.451E-3	-16.7365E-3	53.6097E-12	873.971E-3	-10.1366E-3
1.76338E-3	53.7808E-12	888.122E-3	-4.98885E-3	53.0572E-12	864.104E-3	-20.2916E-3
1.75838E-3	53.2040E-12	874.402E-3	-2.35586E-3	52.7379E-12	862.653E-3	-26.0938E-3
1.75338E-3	52.8494E-12	877.847E-3	-15.5055E-3	52.0477E-12	871.101E-3	-15.0711E-3
1.74837E-3	52.4381E-12	895.508E-3	-35.3800E-3	51.8154E-12	872.260E-3	-1.80096E-3
1.74337E-3	52.0357E-12	899.797E-3	-42.4754E-3	51.4532E-12	872.893E-3	-6.67312E-3
1.73837E-3	51.6098E-12	889.277E-3	-24.7309E-3	51.2342E-12	893.406E-3	-26.6893E-3
1.73337E-3	51.2556E-12	891.336E-3	3.81367E-3	50.9432E-12	911.476E-3	-43.9373E-3
1.72836E-3	50.9458E-12	900.259E-3	24.7023E-3	50.9435E-12	914.718E-3	-41.0160E-3
1.72336E-3	50.5822E-12	913.786E-3	12.4289E-3	50.8102E-12	921.279E-3	-25.6572E-3
1.71836E-3	50.2889E-12	920.691E-3	-20.7804E-3	50.8581E-12	916.825E-3	-11.6236E-3
1.71336E-3	50.0648E-12	899.959E-3	-38.7772E-3	50.7930E-12	912.350E-3	-10.8915E-3
1.70835E-3	50.2080E-12	882.147E-3	-26.1925E-3	50.7568E-12	941.613E-3	-23.5037E-3
1.70335E-3	49.7365E-12	899.243E-3	-10.1696E-3	50.4963E-12	965.255E-3	-32.2580E-3
1.69835E-3	49.4262E-12	929.494E-3	-9.88246E-3	50.4164E-12	955.624E-3	-29.7746E-3
1.69335E-3	49.1084E-12	941.050E-3	-10.4912E-3	50.1451E-12	951.864E-3	-24.7536E-3
1.68834E-3	48.8655E-12	936.610E-3	-11.2069E-3	49.7676E-12	958.149E-3	-31.8829E-3
1.68334E-3	48.4743E-12	935.204E-3	-12.2165E-3	49.1195E-12	959.874E-3	-35.0981E-3
1.67834E-3	48.2085E-12	947.423E-3	-8.93598E-3	48.6706E-12	960.669E-3	-25.7925E-3
1.67334E-3	47.6287E-12	960.816E-3	-4.20058E-3	48.0763E-12	955.047E-3	-22.9954E-3
1.66833E-3	47.4813E-12	955.500E-3	-12.8122E-3	47.7166E-12	941.606E-3	-17.6547E-3
1.66333E-3	47.1683E-12	952.962E-3	-24.4087E-3	46.8919E-12	939.893E-3	-11.3170E-3
1.65833E-3	46.6137E-12	969.535E-3	-23.4622E-3	46.4374E-12	952.034E-3	-24.7587E-3
1.65333E-3	46.3900E-12	971.640E-3	-11.4000E-3	45.5870E-12	957.913E-3	-29.9769E-3
1.64832E-3	46.1261E-12	961.316E-3	-1.07656E-3	45.2477E-12	960.370E-3	-12.3647E-3
1.64332E-3	45.6688E-12	963.659E-3	-3.79293E-3	44.7804E-12	966.582E-3	-3.65784E-3
1.63832E-3	45.4012E-12	970.096E-3	-7.02841E-3	44.6349E-12	969.987E-3	-11.0949E-3
1.63332E-3	45.2345E-12	979.842E-3	-5.65182E-3	44.4552E-12	989.055E-3	-27.4486E-3
1.62831E-3	44.9244E-12	987.797E-3	-8.87063E-3	44.4081E-12	1.02370E+0	-38.7724E-3
1.62331E-3	44.5497E-12	978.225E-3	-18.6592E-3	44.2194E-12	1.03575E+0	-24.4260E-3
1.61831E-3	44.5468E-12	981.243E-3	-30.2772E-3	44.3382E-12	1.03015E+0	-2.10123E-3
1.61331E-3	44.2973E-12	999.705E-3	-37.3706E-3	44.1856E-12	1.03123E+0	424.482E-6
1.60830E-3	43.9850E-12	1.00334E+0	-24.1568E-3	44.0139E-12	1.02995E+0	-9.41631E-3
1.60330E-3	43.3007E-12	1.00861E+0	-11.6840E-3	43.9251E-12	1.03741E+0	-15.3067E-3
1.59830E-3	43.1060E-12	1.01935E+0	-21.2128E-3	43.8813E-12	1.05756E+0	-20.8074E-3
1.59330E-3	42.9637E-12	1.02282E+0	-20.3600E-3	43.2232E-12	1.04962E+0	-15.5998E-3
1.58829E-3	42.3184E-12	1.02466E+0	-11.1243E-3	42.7119E-12	1.02146E+0	3.36361E-3
1.58329E-3	42.0230E-12	1.02242E+0	-15.9155E-3	42.3427E-12	1.02251E+0	7.46847E-3
1.57829E-3	41.7866E-12	1.01925E+0	-15.5913E-3	41.8802E-12	1.03658E+0	-1.55344E-3
1.57329E-3	41.5608E-12	1.03520E+0	-10.1771E-3	41.0480E-12	1.03026E+0	-5.45452E-3
1.56828E-3	41.1504E-12	1.05193E+0	-23.8274E-3	40.5046E-12	1.02338E+0	-8.26756E-3
1.56328E-3	40.8312E-12	1.04783E+0	-43.4216E-3	40.0008E-12	1.01444E+0	-15.9869E-3
1.55828E-3	40.4973E-12	1.03924E+0	-41.7588E-3	39.3383E-12	1.00881E+0	-15.8087E-3
1.55328E-3	40.1749E-12	1.05162E+0	-20.4524E-3	38.7500E-12	1.02545E+0	-2.22838E-3
1.54827E-3	39.7427E-12	1.08476E+0	-6.10915E-3	38.5079E-12	1.04768E+0	-1.30962E-3
1.54327E-3	39.1783E-12	1.09559E+0	-12.8418E-3	38.0852E-12	1.06430E+0	-10.4294E-3
1.53827E-3	39.0897E-12	1.07840E+0	-26.0635E-3	37.9676E-12	1.07813E+0	-7.21050E-3
1.53327E-3	38.6653E-12	1.07159E+0	-31.4302E-3	37.6129E-12	1.08487E+0	-4.81396E-3
1.52826E-3	38.2779E-12	1.08112E+0	-27.5635E-3	37.7141E-12	1.08855E+0	-4.19105E-3
1.52326E-3	37.7180E-12	1.09648E+0	-28.5346E-3	37.4789E-12	1.10331E+0	2.46207E-3
1.51826E-3	37.3969E-12	1.10901E+0	-37.0523E-3	37.4148E-12	1.11736E+0	1.34543E-3
1.51326E-3	36.8839E-12	1.09690E+0	-36.7996E-3	37.0701E-12	1.12180E+0	-8.05599E-3
1.50825E-3	36.2496E-12	1.07521E+0	-31.6771E-3	37.1568E-12	1.12830E+0	-10.7276E-3
1.50325E-3	35.9942E-12	1.07383E+0	-27.1968E-3	36.7197E-12	1.13368E+0	-5.66023E-3
1.49825E-3	35.5554E-12	1.07772E+0	-17.4698E-3	36.3218E-12	1.12349E+0	-5.15360E-3
1.49325E-3	34.9856E-12	1.07681E+0	-12.8346E-3	35.9692E-12	1.11163E+0	-13.7587E-3
1.48824E-3	34.6252E-12	1.07523E+0	-12.0799E-3	35.6781E-12	1.12169E+0	-23.2168E-3
1.48324E-3	34.3904E-12	1.06316E+0	-5.44943E-3	35.2489E-12	1.12908E+0	-28.0407E-3
1.47824E-3	34.0602E-12	1.05949E+0	-1.44667E-3	34.4057E-12	1.10991E+0	-24.7271E-3
1.47324E-3	33.6265E-12	1.07934E+0	-8.29159E-3	34.1677E-12	1.09257E+0	-18.3382E-3
1.46823E-3	33.3474E-12	1.09586E+0	-16.2196E-3	33.7647E-12	1.09688E+0	-19.2776E-3
1.46323E-3	33.1175E-12	1.09573E+0	-22.3190E-3	33.2759E-12	1.10307E+0	-19.4184E-3
1.45823E-3	32.8249E-12	1.09687E+0	-23.7361E-3	32.5372E-12	1.10959E+0	-19.4140E-3
1.45323E-3	32.4682E-12	1.10698E+0	-13.8915E-3	32.4163E-12	1.12062E+0	-19.2214E-3
1.44822E-3	32.1744E-12	1.10672E+0	-10.8115E-3	31.9003E-12	1.12060E+0	-11.3445E-3
1.44322E-3	31.7645E-12	1.10626E+0	-24.2462E-3	31.5632E-12	1.11301E+0	-6.94713E-3
1.43822E-3	31.6349E-12	1.11873E+0	-30.2651E-3	31.3042E-12	1.09094E+0	-9.52604E-3
1.43322E-3	31.2466E-12	1.11854E+0	-19.9913E-3	30.9997E-12	1.06899E+0	-3.57200E-3
1.42821E-3	30.8919E-12	1.10155E+0	-7.93194E-3	30.7537E-12	1.07455E+0	-349.618E-6
1.42321E-3	30.2791E-12	1.09801E+0	-4.76063E-3	30.3190E-12	1.08413E+0	-3.31371E-3
1.41821E-3	29.9493E-12	1.09986E+0	-17.7056E-3	29.9794E-12	1.07927E+0	4.45269E-3
1.41321E-3	29.7050E-12	1.09376E+0	-35.9656E-3	29.7679E-12	1.07638E+0	-2.58389E-3
1.40820E-3	29.0594E-12	1.09062E+0	-41.5867E-3	29.2303E-12	1.07662E+0	-29.9553E-3
1.40320E-3	28.6473E-12	1.07658E+0	-29.2573E-3	29.0465E-12	1.08158E+0	-39.3186E-3
1.39820E-3	28.3772E-12	1.06186E+0	-21.6585E-3	28.5663E-12	1.09296E+0	-25.3685E-3
1.39320E-3	28.0749E-12	1.07283E+0	-25.0574E-3	28.4166E-12	1.07618E+0	-16.1347E-3
1.38819E-3	27.6529E-12	1.08393E+0	-11.9827E-3	27.9428E-12	1.04009E+0	-16.0488E-3
1.38319E-3	27.4518E-12	1.06700E+0	1.68772E-3	27.7234E-12	1.03208E+0	-17.1797E-3
1.37819E-3	27.2073E-12	1.05297E+0	-4.73797E-3	27.1803E-12	1.03522E+0	-35.2375E-3
1.37319E-3	26.9175E-12	1.05513E+0	-14.3901E-3	26.9166E-12	1.01044E+0	-42.1290E-3
1.36818E-3	26.4539E-12	1.05311E+0	-14.8428E-3	26.6166E-12	984.246E-3	-14.9660E-3
1.36318E-3	26.3102E-12	1.04822E+0	-11.6577E-3	26.1301E-12	985.480E-3	-11.5326E-3
1.35818E-3	25.9435E-12	1.03842E+0	-7.77687E-3	25.6596E-12	983.478E-3	-30.8181E-3
1.35318E-3	25.5341E-12	1.02685E+0	-8.11803E-3	25.4351E-12	971.716E-3	-20.4181E-3
1.34817E-3	25.1924E-12	1.02914E+0	-12.7088E-3	25.0632E-12	971.188E-3	-5.10050E-3
1.34317E-3	24.9800E-12	1.03551E+0	-21.9044E-3	24.6558E-12	967.321E-3	-9.97857E-3
1.33817E-3	24.5868E-12	1.01948E+0	-32.5401E-3	24.2130E-12	937.155E-3	-11.5052E-3
1.33317E-3	24.0072E-12	990.719E-3	-29.0381E-3	23.8778E-12	908.957E-3	-12.5939E-3
1.32816E-3	23.8440E-12	974.077E-3	-11.8023E-3	23.4715E-12	901.571E-3	-18.2383E-3
1.32316E-3	23.3934E-12	971.359E-3	1.24212E-3	23.1110E-12	891.858E-3	-20.0650E-3
1.31816E-3	23.0815E-12	977.712E-3	-2.51203E-3	22.6952E-12	876.835E-3	-21.5538E-3
1.31316E-3	22.6673E-12	971.434E-3	-10.1633E-3	22.5282E-12	859.234E-3	-22.7747E-3
1.30815E-3	22.3426E-12	935.049E-3	-17.3915E-3	22.2538E-12	849.300E-3	-14.8574E-3
1.30315E-3	22.0834E-12	910.507E-3	-28.6498E-3	22.1689E-12	855.819E-3	-8.61958E-3
1.29815E-3	21.9118E-12	915.558E-3	-23.7901E-3	21.7727E-12	854.093E-3	-18.0740E-3
1.29315E-3	21.5372E-12	900.047E-3	-14.5893E-3	21.6994E-12	836.919E-3	-15.0206E-3
1.28814E-3	21.1592E-12	877.903E-3	-22.9406E-3	21.4553E-12	829.914E-3	-3.30715E-3
1.28314E-3	20.9035E-12	870.667E-3	-21.2328E-3	21.3342E-12	827.970E-3	-19.4011E-3
1.27814E-3	20.7494E-12	841.277E-3	-7.04604E-3	21.1355E-12	814.118E-3	-40.5695E-3
1.27314E-3	20.4693E-12	811.890E-3	-8.18970E-3	20.8995E-12	795.346E-3	-33.1028E-3
1.26813E-3	20.1644E-12	817.923E-3	-8.84657E-3	20.6757E-12	778.707E-3	-22.9857E-3
1.26313E-3	20.0140E-12	831.864E-3	-9.10678E-3	20.3630E-12	756.674E-3	-24.8884E-3
1.25813E-3	19.6531E-12	830.444E-3	-29.1715E-3	20.1300E-12	736.729E-3	-24.6326E-3
1.25313E-3	19.4373E-12	817.565E-3	-28.9413E-3	19.8264E-12	727.186E-3	-30.8205E-3
1.24812E-3	19.1803E-12	791.955E-3	-12.8555E-3	19.3342E-12	711.628E-3	-36.7785E-3
1.24312E-3	18.9298E-12	763.763E-3	-26.2612E-3	19.0478E-12	690.507E-3	-31.8101E-3
1.23812E-3	18.5072E-12	748.795E-3	-36.5732E-3	18.7638E-12	670.059E-3	-24.1979E-3
1.23312E-3	18.3894E-12	728.494E-3	-28.6181E-3	18.6566E-12	647.292E-3	-19.3751E-3
1.22811E-3	18.1491E-12	700.034E-3	-20.4941E-3	17.9946E-12	637.534E-3	-24.6457E-3
1.22311E-3	17.7709E-12	695.729E-3	-9.77762E-3	17.6257E-12	635.852E-3	-36.2718E-3
1.21811E-3	17.5085E-12	694.910E-3	-4.15871E-3	17.5576E-12	614.378E-3	-44.0709E-3
1.21311E-3	17.3215E-12	668.655E-3	-3.96454E-3	17.3448E-12	587.607E-3	-35.9781E-3
1.20810E-3	17.1660E-12	635.183E-3	-1.91704E-3	17.2217E-12	581.833E-3	-17.9073E-3
1.20310E-3	17.0263E-12	615.822E-3	-1.12255E-3	16.8679E-12	582.155E-3	-16.3278E-3
1.19810E-3	16.6891E-12	616.171E-3	-8.49474E-3	16.9170E-12	563.641E-3	-23.1608E-3
1.19310E-3	16.5140E-12	626.058E-3	-5.63437E-3	16.8497E-12	539.032E-3	-17.9966E-3
1.18809E-3	16.4701E-12	625.542E-3	4.24433E-3	16.7110E-12	526.006E-3	-11.9314E-3
1.18309E-3	16.4401E-12	608.261E-3	-9.79710E-3	16.4304E-12	519.964E-3	-14.3546E-3
1.17809E-3	16.1605E-12	585.902E-3	-23.4876E-3	16.4266E-12	510.438E-3	-22.5389E-3
1.17309E-3	15.9307E-12	560.246E-3	-14.0213E-3	16.2510E-12	494.041E-3	-26.3668E-3
1.16808E-3	15.8302E-12	540.472E-3	-10.6198E-3	15.9734E-12	485.016E-3	-24.9137E-3
1.16308E-3	15.7522E-12	542.618E-3	-22.8036E-3	15.8841E-12	479.094E-3	-24.5312E-3
1.15808E-3	15.5651E-12	544.054E-3	-20.1119E-3	15.6977E-12	457.052E-3	-23.2630E-3
1.15308E-3	15.3667E-12	509.762E-3	-15.0628E-3	15.3760E-12	426.878E-3	-13.9058E-3
1.14807E-3	15.1870E-12	473.035E-3	-29.1701E-3	15.1373E-12	408.216E-3	-7.12837E-3
1.14307E-3	15.1337E-12	463.484E-3	-30.9065E-3	15.0809E-12	394.845E-3	-9.40141E-3
1.13807E-3	15.0589E-12	449.385E-3	-18.1136E-3	14.7654E-12	373.488E-3	-1.64029E-3
1.13307E-3	14.9263E-12	432.151E-3	-17.3162E-3	14.5375E-12	354.036E-3	-3.68422E-3
1.12806E-3	14.6919E-12	430.512E-3	-14.7669E-3	14.4300E-12	343.214E-3	-25.1541E-3
1.12306E-3	14.5537E-12	419.558E-3	-8.76877E-3	14.2395E-12	339.834E-3	-31.2249E-3
1.11806E-3	14.5915E-12	403.091E-3	-11.0348E-3	14.1809E-12	343.751E-3	-26.5240E-3
1.11306E-3	14.3392E-12	390.949E-3	-9.76177E-3	13.9095E-12	333.822E-3	-28.1315E-3
1.10805E-3	14.2976E-12	363.180E-3	-15.7990E-3	13.9008E-12	308.016E-3	-16.6158E-3
1.10305E-3	14.0156E-12	333.543E-3	-28.4829E-3	13.9852E-12	295.425E-3	6.64505E-3
1.09805E-3	14.1795E-12	322.214E-3	-18.8309E-3	13.9092E-12	281.927E-3	11.6056E-3
1.09305E-3	13.9393E-12	323.901E-3	-4.58906E-3	13.6739E-12	258.505E-3	-4.50163E-3
1.08804E-3	13.8146E-12	327.308E-3	-24.0330E-3	13.7277E-12	256.855E-3	-20.1944E-3
1.08304E-3	13.7928E-12	317.893E-3	-44.7721E-3	13.8042E-12	259.540E-3	-24.1012E-3
1.07804E-3	13.4631E-12	289.006E-3	-40.4624E-3	13.6481E-12	236.556E-3	-14.2814E-3
1.07304E-3	13.3381E-12	269.083E-3	-37.8077E-3	13.5681E-12	218.332E-3	-6.95857E-3
1.06803E-3	13.2392E-12	271.420E-3	-31.8991E-3	13.4322E-12	219.722E-3	-12.9974E-3
1.06303E-3	13.2997E-12	268.398E-3	-17.5601E-3	13.3675E-12	222.416E-3	-20.7808E-3
1.05803E-3	12.9338E-12	252.343E-3	-23.4012E-3	13.3801E-12	227.928E-3	-26.5029E-3
1.05303E-3	13.0350E-12	240.896E-3	-33.5428E-3	13.1408E-12	234.324E-3	-27.4216E-3
1.04802E-3	12.9456E-12	232.446E-3	-19.0434E-3	13.0032E-12	209.457E-3	-17.1915E-3
1.04302E-3	12.9576E-12	213.672E-3	-11.9829E-3	12.9505E-12	174.802E-3	-5.00216E-3
1.03802E-3	12.8054E-12	205.843E-3	-24.9030E-3	12.9311E-12	167.913E-3	-9.74375E-3
1.03302E-3	12.6174E-12	212.316E-3	-25.6415E-3	12.8645E-12	156.141E-3	-16.8505E-3
1.02801E-3	12.6949E-12	207.973E-3	-17.5292E-3	12.6418E-12	138.331E-3	-11.4139E-3
1.02301E-3	12.5098E-12	201.730E-3	-12.3421E-3	12.3827E-12	138.153E-3	-11.8578E-3
1.01801E-3	12.6180E-12	184.546E-3	-11.2883E-3	12.3247E-12	140.338E-3	-15.5765E-3
1.01301E-3	12.4570E-12	155.370E-3	-18.4527E-3	12.5745E-12	126.259E-3	-6.59196E-3
1.00800E-3	12.5575E-12	142.743E-3	-23.2607E-3	12.3592E-12	107.232E-3	-1.53221E-3
1.00300E-3	12.5235E-12	144.521E-3	-14.2090E-3	12.3426E-12	102.633E-3	-7.28650E-3
997.999E-6	12.4101E-12	148.706E-3	-9.08192E-3	12.3187E-12	109.398E-3	-4.59387E-3
992.997E-6	12.3869E-12	150.862E-3	-16.7108E-3	12.3093E-12	123.965E-3	-5.11322E-3
987.994E-6	12.2783E-12	142.983E-3	-21.4175E-3	12.3297E-12	125.196E-3	-15.0810E-3
982.991E-6	12.2804E-12	119.364E-3	-32.9507E-3	12.2057E-12	106.122E-3	-12.4716E-3
977.989E-6	12.1687E-12	99.7787E-3	-40.3469E-3	12.1210E-12	92.0377E-3	-8.56895E-3
972.986E-6	12.0547E-12	103.938E-3	-25.1329E-3	12.0261E-12	82.0405E-3	-25.0532E-3
967.984E-6	11.9895E-12	113.809E-3	-13.3103E-3	12.0171E-12	74.4937E-3	-34.0730E-3
962.981E-6	11.9143E-12	112.846E-3	-25.7690E-3	11.9396E-12	78.9557E-3	-25.4740E-3
957.979E-6	11.9146E-12	108.009E-3	-38.6953E-3	12.0329E-12	85.1682E-3	-19.6578E-3
952.976E-6	11.9362E-12	98.3480E-3	-32.5991E-3	11.9239E-12	85.1613E-3	-12.1291E-3
947.974E-6	11.7725E-12	94.4156E-3	-22.8599E-3	11.8270E-12	83.6447E-3	-11.3283E-3
942.971E-6	11.6313E-12	97.7664E-3	-10.1348E-3	12.0055E-12	79.7101E-3	-17.6904E-3
937.969E-6	11.6842E-12	89.0860E-3	417.489E-6	11.7572E-12	75.3299E-3	-13.4434E-3
932.966E-6	11.6882E-12	82.8147E-3	-4.70461E-3	11.7048E-12	76.7611E-3	-7.13084E-3
927.964E-6	11.6060E-12	89.4138E-3	-5.57951E-3	11.5883E-12	83.2645E-3	-4.39403E-3
922.961E-6	11.6208E-12	78.0694E-3	-2.58375E-3	11.6357E-12	79.6869E-3	-1.56174E-3
917.959E-6	11.6436E-12	66.2427E-3	-14.3280E-3	11.6184E-12	77.9227E-3	-7.41421E-3
912.956E-6	11.7325E-12	83.9857E-3	-14.6318E-3	11.4466E-12	84.5664E-3	-21.8341E-3
907.954E-6	11.5867E-12	95.2013E-3	-9.76772E-3	11.4074E-12	71.6689E-3	-33.8543E-3
902.951E-6	11.6113E-12	85.0703E-3	-31.3029E-3	11.4455E-12	53.2959E-3	-37.8611E-3
897.949E-6	11.5455E-12	74.7428E-3	-39.4452E-3	11.4316E-12	59.1923E-3	-42.1128E-3
892.946E-6	11.5560E-12	66.7428E-3	-16.5146E-3	11.3286E-12	65.3513E-3	-41.4818E-3
887.944E-6	11.5645E-12	68.6655E-3	-16.1777E-3	11.3317E-12	55.8615E-3	-27.0612E-3
882.941E-6	11.4445E-12	84.3439E-3	-32.9220E-3	11.3765E-12	59.9389E-3	-11.9301E-3
877.939E-6	11.4305E-12	85.1911E-3	-21.8911E-3	11.3619E-12	67.9436E-3	-12.2492E-3
872.936E-6	11.3081E-12	69.2729E-3	-7.98230E-3	11.4354E-12	61.2334E-3	-22.9354E-3
867.934E-6	11.4555E-12	65.9848E-3	-2.48839E-3	11.3115E-12	52.1013E-3	-22.8710E-3
862.931E-6	11.4204E-12	74.2244E-3	11.2384E-3	11.4740E-12	47.8922E-3	-14.9375E-3
857.929E-6	11.3977E-12	67.3501E-3	5.95590E-3	11.3852E-12	54.6598E-3	-10.2863E-3
852.926E-6	11.4045E-12	54.9855E-3	-15.7880E-3	11.4222E-12	61.2363E-3	-11.4433E-3
847.924E-6	11.4530E-12	50.8465E-3	-14.4761E-3	11.4854E-12	50.7312E-3	-19.1752E-3
842.921E-6	11.4835E-12	47.9658E-3	-3.27164E-3	11.4018E-12	49.0163E-3	-23.0503E-3
837.919E-6	11.4845E-12	55.1074E-3	-5.00204E-3	11.4378E-12	66.9364E-3	-16.5712E-3
832.916E-6	11.3225E-12	67.8131E-3	-5.77521E-3	11.2932E-12	71.2815E-3	-13.9802E-3
827.914E-6	11.4942E-12	63.4359E-3	-1.86972E-3	11.4151E-12	59.0619E-3	-15.6509E-3
822.911E-6	11.5014E-12	51.9406E-3	1.81335E-3	11.2341E-12	55.4388E-3	-14.8276E-3
817.909E-6	11.4411E-12	50.9821E-3	5.57608E-3	11.1755E-12	66.9274E-3	-23.2813E-3
812.906E-6	11.2889E-12	51.0426E-3	557.085E-6	11.1427E-12	72.8762E-3	-24.5940E-3
807.904E-6	11.2091E-12	59.9322E-3	-21.3892E-3	11.1146E-12	68.0935E-3	-12.7121E-3
802.901E-6	11.2486E-12	75.3130E-3	-32.6814E-3	11.0426E-12	66.6792E-3	-15.4275E-3
797.899E-6	11.1129E-12	71.1375E-3	-24.5711E-3	10.9785E-12	64.6035E-3	-25.3373E-3
792.896E-6	11.2332E-12	64.9970E-3	-24.3486E-3	10.9492E-12	68.5038E-3	-19.7599E-3
787.894E-6	10.8577E-12	78.8234E-3	-21.5068E-3	10.8116E-12	75.4470E-3	-8.28416E-3
782.891E-6	10.9040E-12	79.2494E-3	-17.1352E-3	10.9139E-12	71.2070E-3	-11.0408E-3
777.889E-6	10.8668E-12	63.9324E-3	-25.4306E-3	10.9611E-12	69.9752E-3	-11.9927E-3
772.886E-6	10.8727E-12	59.7830E-3	-28.6440E-3	10.8875E-12	71.0179E-3	-6.36452E-3
767.884E-6	10.7975E-12	51.4255E-3	-19.7737E-3	10.8849E-12	63.1468E-3	-11.7014E-3
762.881E-6	10.7628E-12	49.4014E-3	-13.2582E-3	11.0544E-12	62.6919E-3	-18.4305E-3
757.879E-6	10.7939E-12	67.0069E-3	-6.88885E-3	10.9470E-12	74.5369E-3	-18.3734E-3
752.876E-6	10.8307E-12	78.3704E-3	2.85730E-3	11.0646E-12	81.0828E-3	-20.0140E-3
747.874E-6	10.8891E-12	88.4075E-3	-10.2567E-3	10.8366E-12	87.8564E-3	-18.3416E-3
742.871E-6	10.6422E-12	99.7937E-3	-32.7296E-3	10.9674E-12	98.3054E-3	-14.4567E-3
737.869E-6	10.7937E-12	97.7385E-3	-34.1490E-3	10.9964E-12	94.7372E-3	-21.7695E-3
732.866E-6	10.7277E-12	90.0375E-3	-36.4034E-3	10.8514E-12	83.8207E-3	-14.6574E-3
727.864E-6	10.8118E-12	89.5381E-3	-32.8416E-3	10.7147E-12	89.4956E-3	-197.544E-6
722.861E-6	10.7057E-12	90.5481E-3	-5.44732E-3	10.5796E-12	100.561E-3	-7.07687E-3
717.859E-6	10.6110E-12	90.1167E-3	-3.03551E-3	10.6430E-12	108.526E-3	-2.58428E-3
712.856E-6	10.5844E-12	96.7111E-3	-21.9762E-3	10.4788E-12	120.583E-3	3.45936E-3
707.854E-6	10.6619E-12	98.8465E-3	-18.4733E-3	10.4008E-12	117.143E-3	-12.1795E-3
702.851E-6	10.6066E-12	94.9375E-3	-11.5071E-3	10.3284E-12	100.262E-3	-14.3486E-3
697.849E-6	10.5203E-12	103.011E-3	-15.2544E-3	10.2218E-12	107.682E-3	-10.2411E-3
692.846E-6	10.4943E-12	112.144E-3	-10.9086E-3	10.2707E-12	134.329E-3	-17.6007E-3
687.844E-6	10.3549E-12	116.651E-3	-9.07250E-3	10.2373E-12	141.623E-3	-11.8037E-3
682.841E-6	10.3986E-12	128.450E-3	-21.9669E-3	10.2185E-12	135.139E-3	-6.07811E-3
677.839E-6	10.2718E-12	138.517E-3	-25.7934E-3	10.1683E-12	137.688E-3	-17.9684E-3
672.836E-6	10.2405E-12	133.843E-3	-14.8598E-3	10.1900E-12	141.784E-3	-27.1718E-3
667.834E-6	10.1796E-12	131.469E-3	-9.43044E-3	10.2527E-12	141.276E-3	-21.8008E-3
662.831E-6	10.1858E-12	137.947E-3	-13.7671E-3	10.1949E-12	138.020E-3	-21.0925E-3
657.829E-6	10.1484E-12	136.173E-3	-19.3054E-3	10.0724E-12	140.124E-3	-34.4999E-3
652.826E-6	9.99679E-12	132.614E-3	-27.2876E-3	10.1467E-12	161.344E-3	-36.4592E-3
647.824E-6	9.91679E-12	141.277E-3	-29.0948E-3	10.1307E-12	182.613E-3	-25.5290E-3
642.821E-6	9.94574E-12	148.262E-3	-24.7432E-3	10.0942E-12	188.415E-3	-20.0097E-3
637.819E-6	9.82485E-12	149.454E-3	-30.3521E-3	9.95474E-12	185.811E-3	-15.8569E-3
632.816E-6	9.66062E-12	155.532E-3	-34.0732E-3	9.96080E-12	183.434E-3	-11.5487E-3
627.814E-6	9.70475E-12	155.057E-3	-29.3981E-3	9.81941E-12	187.439E-3	-7.57724E-3
622.811E-6	9.50329E-12	156.332E-3	-26.9916E-3	9.64522E-12	201.115E-3	-7.65134E-3
617.809E-6	9.46559E-12	161.798E-3	-23.4454E-3	9.56916E-12	212.399E-3	-24.6331E-3
612.806E-6	9.45718E-12	155.198E-3	-22.6908E-3	9.42223E-12	201.990E-3	-40.5670E-3
607.804E-6	9.36147E-12	152.374E-3	-30.0237E-3	9.45337E-12	191.836E-3	-34.4282E-3
602.801E-6	9.26520E-12	176.532E-3	-28.2903E-3	9.20618E-12	193.217E-3	-28.1393E-3
597.799E-6	9.20370E-12	203.439E-3	-17.6124E-3	9.33606E-12	196.504E-3	-25.7969E-3
592.796E-6	9.30644E-12	210.957E-3	-15.6198E-3	9.28336E-12	208.590E-3	-17.8269E-3
587.794E-6	9.24534E-12	220.724E-3	-8.63836E-3	9.09421E-12	210.635E-3	-28.4864E-3
582.791E-6	9.22669E-12	221.885E-3	4.80255E-3	8.97464E-12	202.873E-3	-39.8248E-3
577.789E-6	9.09921E-12	211.819E-3	-11.5639E-3	9.17400E-12	216.851E-3	-28.3525E-3
572.786E-6	9.18426E-12	214.174E-3	-30.5130E-3	9.06464E-12	243.385E-3	-18.2593E-3
567.784E-6	9.11085E-12	218.185E-3	-11.8877E-3	8.89069E-12	256.360E-3	-15.7899E-3
562.781E-6	9.07553E-12	218.602E-3	-3.67968E-3	8.85668E-12	258.728E-3	-15.0042E-3
557.779E-6	8.86504E-12	229.246E-3	-12.7046E-3	8.88593E-12	265.797E-3	-21.3581E-3
552.776E-6	8.89074E-12	233.728E-3	-8.25754E-3	8.81319E-12	272.178E-3	-31.4038E-3
547.774E-6	8.81096E-12	233.465E-3	-14.6454E-3	8.62303E-12	275.128E-3	-29.3465E-3
542.771E-6	8.81823E-12	251.554E-3	-21.1400E-3	8.53884E-12	282.508E-3	-21.3662E-3
537.769E-6	8.64832E-12	264.286E-3	-14.7648E-3	8.59293E-12	281.756E-3	-22.7664E-3
532.766E-6	8.50164E-12	250.849E-3	-26.0035E-3	8.49121E-12	273.105E-3	-18.4866E-3
527.764E-6	8.51638E-12	239.543E-3	-37.7307E-3	8.31219E-12	280.250E-3	-13.9385E-3
522.761E-6	8.26686E-12	251.696E-3	-29.4901E-3	8.16261E-12	291.275E-3	-20.5859E-3
517.759E-6	8.23322E-12	271.729E-3	-21.7734E-3	8.12531E-12	294.072E-3	-16.0772E-3
512.756E-6	7.95678E-12	284.395E-3	-25.7189E-3	7.98850E-12	303.000E-3	-12.6675E-3
507.754E-6	8.02965E-12	288.825E-3	-19.6236E-3	7.94827E-12	311.757E-3	-26.1310E-3
502.751E-6	7.84602E-12	281.823E-3	-6.02147E-3	7.77893E-12	305.962E-3	-22.3608E-3
497.749E-6	7.83730E-12	280.787E-3	-13.6215E-3	7.65836E-12	301.304E-3	-11.5194E-3
492.746E-6	7.63775E-12	297.171E-3	-23.3901E-3	7.66294E-12	307.617E-3	-17.7864E-3
487.744E-6	7.62951E-12	302.973E-3	-14.6215E-3	7.61027E-12	314.868E-3	-19.7182E-3
482.741E-6	7.55012E-12	296.963E-3	-3.47271E-3	7.46363E-12	319.457E-3	-9.46537E-3
477.739E-6	7.38501E-12	296.511E-3	2.29442E-3	7.40724E-12	320.730E-3	-938.197E-6
472.736E-6	7.30164E-12	293.490E-3	2.02016E-3	7.30642E-12	318.461E-3	-6.77135E-3
467.734E-6	7.08146E-12	299.295E-3	-4.51041E-3	7.12017E-12	324.890E-3	-15.7897E-3
462.731E-6	7.02608E-12	312.533E-3	-3.93337E-3	7.04510E-12	335.829E-3	-20.0142E-3
457.729E-6	6.82299E-12	307.360E-3	-1.38880E-3	6.97360E-12	334.747E-3	-27.7139E-3
452.726E-6	6.70638E-12	304.396E-3	-15.8271E-3	6.74841E-12	328.332E-3	-25.7092E-3
447.724E-6	6.66658E-12	308.989E-3	-22.2054E-3	6.75038E-12	327.563E-3	-21.6744E-3
442.721E-6	6.60333E-12	298.334E-3	-6.81015E-3	6.63669E-12	335.312E-3	-26.9680E-3
437.719E-6	6.43084E-12	297.931E-3	-7.70514E-3	6.61705E-12	344.604E-3	-22.9392E-3
432.716E-6	6.39540E-12	319.666E-3	-13.3930E-3	6.39364E-12	342.653E-3	-23.0575E-3
427.714E-6	6.28608E-12	327.830E-3	-6.84180E-3	6.32492E-12	331.546E-3	-34.4433E-3
422.711E-6	6.12776E-12	322.640E-3	-14.3456E-3	6.19296E-12	329.288E-3	-30.5569E-3
417.709E-6	6.05387E-12	327.631E-3	-22.1352E-3	6.16731E-12	330.480E-3	-14.0842E-3
412.706E-6	6.03547E-12	329.770E-3	-15.3930E-3	6.00245E-12	319.408E-3	-13.5592E-3
407.704E-6	5.94865E-12	319.890E-3	-17.5139E-3	5.83028E-12	310.712E-3	-28.0594E-3
402.701E-6	5.81863E-12	319.531E-3	-22.9874E-3	5.74483E-12	323.169E-3	-26.6546E-3
397.699E-6	5.68047E-12	327.975E-3	-25.8890E-3	5.70759E-12	340.808E-3	-11.3337E-3
392.696E-6	5.61113E-12	326.113E-3	-32.7490E-3	5.51840E-12	344.370E-3	-4.74479E-3
387.694E-6	5.54318E-12	326.960E-3	-26.3571E-3	5.31596E-12	332.113E-3	-3.21495E-3
382.691E-6	5.38486E-12	338.891E-3	-8.64893E-3	5.19167E-12	314.116E-3	-10.6607E-3
377.689E-6	5.20479E-12	346.462E-3	91.0212E-6	5.08294E-12	310.476E-3	-15.8642E-3
372.686E-6	5.10038E-12	347.857E-3	-312.387E-6	4.96879E-12	315.880E-3	-8.23087E-3
367.684E-6	5.04172E-12	343.244E-3	-9.74581E-3	4.80935E-12	312.518E-3	300.921E-6
362.681E-6	4.80738E-12	330.912E-3	-24.9569E-3	4.68867E-12	299.125E-3	3.00793E-3
357.679E-6	4.67771E-12	327.090E-3	-26.6634E-3	4.63719E-12	293.391E-3	-829.965E-6
352.676E-6	4.56149E-12	325.939E-3	-20.3752E-3	4.55773E-12	307.136E-3	-12.5426E-3
347.674E-6	4.44741E-12	312.738E-3	-19.8575E-3	4.44743E-12	323.637E-3	-26.6165E-3
342.671E-6	4.42621E-12	310.748E-3	-19.8713E-3	4.36642E-12	331.065E-3	-27.3857E-3
337.669E-6	4.29927E-12	318.214E-3	-15.7877E-3	4.26485E-12	322.747E-3	-29.0462E-3
332.666E-6	4.27366E-12	309.026E-3	-5.70628E-3	4.19686E-12	307.352E-3	-31.8056E-3
327.664E-6	4.08368E-12	303.756E-3	4.37489E-3	4.19174E-12	302.956E-3	-21.6994E-3
322.661E-6	3.98999E-12	312.424E-3	9.00313E-3	4.01414E-12	305.448E-3	-13.1324E-3
317.659E-6	3.90338E-12	304.395E-3	-2.53951E-3	3.98003E-12	299.807E-3	-8.46691E-3
312.656E-6	3.87669E-12	284.989E-3	-29.9638E-3	3.85754E-12	287.868E-3	808.437E-6
307.654E-6	3.71045E-12	279.127E-3	-33.0787E-3	3.77513E-12	289.771E-3	2.57763E-3
302.651E-6	3.60248E-12	283.383E-3	-6.87396E-3	3.70311E-12	291.840E-3	-17.2805E-3
297.649E-6	3.53629E-12	294.279E-3	3.23227E-3	3.52548E-12	281.530E-3	-36.5069E-3
292.646E-6	3.45981E-12	309.364E-3	-13.1804E-3	3.34562E-12	270.727E-3	-34.3763E-3
287.644E-6	3.36105E-12	307.609E-3	-25.2791E-3	3.31208E-12	260.389E-3	-21.4308E-3
282.641E-6	3.15782E-12	287.606E-3	-14.8924E-3	3.20001E-12	261.385E-3	-10.8759E-3
277.639E-6	3.13011E-12	276.392E-3	3.08483E-3	3.04673E-12	273.666E-3	-9.77968E-3
272.636E-6	3.11987E-12	278.053E-3	362.776E-6	2.87957E-12	267.524E-3	-13.7927E-3
267.634E-6	2.90366E-12	283.283E-3	-24.6526E-3	2.80863E-12	250.489E-3	-9.03627E-3
262.631E-6	2.77216E-12	294.223E-3	-36.2016E-3	2.83308E-12	244.069E-3	-1.00083E-3
257.629E-6	2.73174E-12	290.467E-3	-28.2342E-3	2.65414E-12	237.576E-3	-2.67005E-3
252.626E-6	2.72851E-12	275.335E-3	-25.2164E-3	2.54576E-12	241.266E-3	-7.65649E-3
247.624E-6	2.58246E-12	272.240E-3	-25.3886E-3	2.52420E-12	252.829E-3	-9.28342E-3
242.621E-6	2.51019E-12	265.377E-3	-32.1928E-3	2.57164E-12	247.034E-3	-6.01835E-3
237.619E-6	2.44175E-12	253.795E-3	-45.7058E-3	2.46948E-12	237.318E-3	1.21433E-3
232.616E-6	2.34639E-12	252.488E-3	-41.1603E-3	2.34071E-12	236.307E-3	521.074E-6
227.614E-6	2.28297E-12	251.412E-3	-17.7082E-3	2.26854E-12	237.718E-3	-12.5911E-3
222.611E-6	2.21799E-12	238.236E-3	-1.22681E-3	2.18666E-12	235.644E-3	-14.4519E-3
217.609E-6	2.06539E-12	217.637E-3	-11.2946E-3	2.11233E-12	229.527E-3	-3.26054E-3
212.606E-6	1.94410E-12	197.020E-3	-29.1541E-3	2.02313E-12	220.383E-3	-9.18532E-3
207.604E-6	1.98908E-12	191.985E-3	-30.5842E-3	1.95865E-12	208.429E-3	-19.2138E-3
202.601E-6	1.86753E-12	204.699E-3	-30.7178E-3	1.83914E-12	201.123E-3	-12.7734E-3
197.599E-6	1.72257E-12	227.017E-3	-34.5047E-3	1.77066E-12	192.886E-3	-6.48087E-3
192.596E-6	1.70986E-12	244.745E-3	-37.5924E-3	1.67212E-12	174.591E-3	-9.43985E-3
187.594E-6	1.60108E-12	239.405E-3	-39.6164E-3	1.61858E-12	169.082E-3	-16.9031E-3
182.591E-6	1.55312E-12	223.022E-3	-28.0796E-3	1.54434E-12	179.435E-3	-21.0369E-3
177.589E-6	1.48522E-12	205.207E-3	-16.1787E-3	1.45118E-12	177.901E-3	-18.1926E-3
172.586E-6	1.40230E-12	182.826E-3	-21.2267E-3	1.42004E-12	167.810E-3	-9.02642E-3
167.584E-6	1.31958E-12	177.364E-3	-18.1914E-3	1.38787E-12	157.713E-3	-736.363E-6
162.581E-6	1.32979E-12	183.641E-3	-7.14700E-3	1.30798E-12	148.601E-3	-9.15812E-3
157.579E-6	1.34159E-12	178.450E-3	-22.5577E-3	1.18990E-12	150.050E-3	-17.4265E-3
152.576E-6	1.18533E-12	179.676E-3	-37.5866E-3	1.18287E-12	159.130E-3	-20.2346E-3
147.574E-6	1.09155E-12	180.111E-3	-22.1434E-3	1.22726E-12	159.997E-3	-26.7887E-3
142.571E-6	1.11700E-12	168.610E-3	-16.1540E-3	1.08968E-12	150.565E-3	-20.6881E-3
137.569E-6	1.12537E-12	163.323E-3	-22.9386E-3	1.00281E-12	146.243E-3	-22.7931E-3
132.566E-6	1.05574E-12	165.704E-3	-14.9707E-3	993.798E-15	142.301E-3	-37.8079E-3
127.564E-6	870.821E-15	161.828E-3	-12.1625E-3	989.099E-15	137.439E-3	-42.3065E-3
122.561E-6	904.818E-15	155.933E-3	-17.6907E-3	921.733E-15	142.294E-3	-37.4425E-3
117.559E-6	895.244E-15	160.629E-3	-15.8781E-3	870.246E-15	134.321E-3	-24.2998E-3
112.556E-6	817.093E-15	163.628E-3	-17.5985E-3	774.804E-15	110.528E-3	-8.12470E-3
107.554E-6	767.602E-15	162.314E-3	-23.5923E-3	759.249E-15	102.443E-3	-8.37245E-3
102.551E-6	699.435E-15	149.463E-3	-14.5857E-3	731.190E-15	103.452E-3	-21.6908E-3
97.5488E-6	655.202E-15	131.993E-3	-8.66520E-3	645.445E-15	100.885E-3	-19.1408E-3
92.5463E-6	666.197E-15	134.996E-3	-16.8700E-3	621.920E-15	104.648E-3	-5.17969E-3
87.5438E-6	583.904E-15	139.062E-3	-16.7341E-3	528.501E-15	106.574E-3	-198.774E-6
82.5413E-6	519.111E-15	129.762E-3	-20.3093E-3	537.064E-15	96.7947E-3	-7.99069E-3
77.5388E-6	447.604E-15	120.479E-3	-24.9895E-3	532.643E-15	93.0422E-3	-22.8847E-3
72.5363E-6	475.593E-15	109.345E-3	-13.2991E-3	416.109E-15	106.022E-3	-29.0569E-3
67.5338E-6	437.969E-15	106.661E-3	-10.8818E-3	371.440E-15	119.373E-3	-19.1673E-3
62.5313E-6	357.437E-15	120.713E-3	-25.9257E-3	354.569E-15	123.873E-3	-2.82057E-3
57.5288E-6	303.622E-15	122.268E-3	-30.5492E-3	329.195E-15	128.755E-3	-3.51610E-3
52.5263E-6	290.098E-15	108.424E-3	-20.9026E-3	280.699E-15	128.216E-3	-12.8761E-3
47.5238E-6	248.437E-15	104.432E-3	-13.3252E-3	218.251E-15	115.450E-3	-9.67603E-3
42.5213E-6	242.133E-15	109.117E-3	-12.1144E-3	202.931E-15	110.016E-3	-8.35364E-3
37.5188E-6	184.062E-15	109.279E-3	-20.6754E-3	174.114E-15	112.291E-3	-13.1353E-3
32.5163E-6	95.2563E-15	109.021E-3	-22.1774E-3	173.878E-15	109.267E-3	-15.2889E-3
27.5138E-6	109.608E-15	106.061E-3	-6.50444E-3	89.6149E-15	109.388E-3	-23.1403E-3
22.5113E-6	101.744E-15	90.4197E-3	-1.31983E-3	61.4341E-15	119.036E-3	-30.0570E-3
17.5088E-6	31.1171E-15	83.9421E-3	-13.5099E-3	29.4953E-15	127.519E-3	-17.7049E-3
12.5063E-6	-80.1325E-15	100.328E-3	-21.5355E-3	53.6216E-15	119.705E-3	-5.53076E-3
7.50375E-6	-79.2257E-15	104.237E-3	-18.4912E-3	-49.8765E-15	98.7704E-3	-2.36956E-3
2.50125E-6	-72.5991E-15	87.1692E-3	-14.4874E-3	-90.1946E-15	89.9629E-3	-759.443E-6
-2.50125E-6	-88.7298E-15	82.1362E-3	-9.61222E-3	-171.990E-15	100.069E-3	-11.3006E-3
-7.50375E-6	-182.515E-15	84.7163E-3	-5.74050E-3	-169.061E-15	103.564E-3	-16.9892E-3
-12.5063E-6	-216.877E-15	94.5744E-3	-14.1013E-3	-178.199E-15	95.8332E-3	-17.1511E-3
-17.5088E-6	-217.287E-15	109.766E-3	-22.1883E-3	-242.085E-15	97.1235E-3	-27.4458E-3
-22.5113E-6	-242.852E-15	105.011E-3	-22.0588E-3	-318.396E-15	100.786E-3	-27.1561E-3
-27.5138E-6	-329.060E-15	99.9220E-3	-26.3773E-3	-318.423E-15	98.9460E-3	-16.2327E-3
-32.5163E-6	-391.255E-15	104.941E-3	-23.7327E-3	-396.513E-15	107.634E-3	-14.0398E-3
-37.5188E-6	-417.483E-15	107.068E-3	-13.0880E-3	-410.961E-15	115.439E-3	-10.2521E-3
-42.5213E-6	-450.372E-15	112.000E-3	-11.3237E-3	-447.895E-15	108.870E-3	-2.75133E-3
-47.5238E-6	-420.011E-15	118.856E-3	-17.9962E-3	-558.221E-15	113.805E-3	-1.37648E-3
-52.5263E-6	-535.019E-15	121.500E-3	-25.4442E-3	-528.453E-15	132.306E-3	1.03742E-3
-57.5288E-6	-604.721E-15	129.070E-3	-20.0353E-3	-557.375E-15	143.362E-3	8.59824E-3
-62.5313E-6	-568.919E-15	136.871E-3	-8.13185E-3	-624.087E-15	140.435E-3	8.23601E-3
-67.5338E-6	-639.136E-15	125.156E-3	-7.14123E-3	-705.028E-15	132.979E-3	-7.38232E-3
-72.5363E-6	-707.138E-15	111.273E-3	-21.1803E-3	-719.772E-15	139.507E-3	-21.1662E-3
-77.5388E-6	-789.474E-15	124.477E-3	-32.2788E-3	-745.459E-15	154.306E-3	-24.2906E-3
-82.5413E-6	-844.075E-15	149.588E-3	-20.2754E-3	-790.652E-15	160.705E-3	-20.3373E-3
-87.5438E-6	-837.692E-15	158.667E-3	-16.0475E-3	-920.683E-15	165.008E-3	-13.0210E-3
-92.5463E-6	-900.585E-15	160.346E-3	-27.6743E-3	-996.035E-15	177.648E-3	-7.37949E-3
-97.5488E-6	-1.00001E-12	163.554E-3	-29.9469E-3	-1.02893E-12	190.788E-3	-11.7633E-3
-102.551E-6	-1.12229E-12	152.638E-3	-22.7943E-3	-1.04655E-12	198.198E-3	-20.2554E-3
-107.554E-6	-1.14650E-12	149.061E-3	-12.8896E-3	-1.13701E-12	200.144E-3	-22.2892E-3
-112.556E-6	-1.09461E-12	172.999E-3	-13.0555E-3	-1.27814E-12	199.204E-3	-19.6189E-3
-117.559E-6	-1.22318E-12	191.005E-3	-29.0112E-3	-1.27410E-12	194.517E-3	-19.1614E-3
-122.561E-6	-1.37541E-12	195.823E-3	-38.8202E-3	-1.32871E-12	195.158E-3	-24.3847E-3
-127.564E-6	-1.42521E-12	200.761E-3	-24.8749E-3	-1.40446E-12	216.996E-3	-30.9530E-3
-132.566E-6	-1.44061E-12	196.362E-3	-11.8662E-3	-1.50873E-12	236.418E-3	-31.0583E-3
-137.569E-6	-1.53383E-12	191.555E-3	-14.4308E-3	-1.57273E-12	236.013E-3	-22.0798E-3
-142.571E-6	-1.62515E-12	205.139E-3	-15.5547E-3	-1.60004E-12	235.919E-3	-16.6682E-3
-147.574E-6	-1.72698E-12	216.336E-3	-16.5782E-3	-1.60937E-12	239.303E-3	-21.7909E-3
-152.576E-6	-1.76217E-12	209.021E-3	-19.8777E-3	-1.71168E-12	251.943E-3	-25.5721E-3
-157.579E-6	-1.78457E-12	212.036E-3	-19.1769E-3	-1.77558E-12	271.337E-3	-22.6405E-3
-162.581E-6	-1.91005E-12	235.677E-3	-15.1193E-3	-1.89972E-12	282.514E-3	-20.6229E-3
-167.584E-6	-2.04201E-12	260.086E-3	-12.4934E-3	-1.99514E-12	289.997E-3	-9.15157E-3
-172.586E-6	-2.16654E-12	269.311E-3	-18.9074E-3	-2.06014E-12	296.361E-3	-1.15806E-3
-177.589E-6	-2.20216E-12	261.546E-3	-34.9878E-3	-2.20417E-12	302.691E-3	-9.76649E-3
-182.591E-6	-2.31391E-12	264.743E-3	-37.9571E-3	-2.29199E-12	310.165E-3	-14.5560E-3
-187.594E-6	-2.44302E-12	288.610E-3	-25.1401E-3	-2.45604E-12	318.205E-3	-9.64993E-3
-192.596E-6	-2.58840E-12	306.703E-3	-20.5005E-3	-2.54023E-12	321.692E-3	-9.93937E-3
-197.599E-6	-2.64065E-12	310.044E-3	-24.3694E-3	-2.68260E-12	324.976E-3	-20.2037E-3
-202.601E-6	-2.76729E-12	309.706E-3	-16.2292E-3	-2.75538E-12	338.511E-3	-30.6756E-3
-207.604E-6	-2.90215E-12	311.703E-3	-3.05068E-3	-2.92789E-12	356.671E-3	-32.9406E-3
-212.606E-6	-3.10892E-12	321.511E-3	-5.97196E-3	-3.05868E-12	375.371E-3	-21.5763E-3
-217.609E-6	-3.17672E-12	335.254E-3	-10.3548E-3	-3.11173E-12	384.017E-3	-16.4928E-3
-222.611E-6	-3.25005E-12	344.066E-3	-4.63360E-3	-3.23142E-12	385.755E-3	-32.5295E-3
-227.614E-6	-3.32239E-12	358.399E-3	103.986E-6	-3.42525E-12	392.672E-3	-41.6024E-3
-232.616E-6	-3.48940E-12	370.348E-3	1.29829E-3	-3.44570E-12	397.355E-3	-30.3122E-3
-237.619E-6	-3.69728E-12	371.289E-3	5.97246E-3	-3.50938E-12	405.973E-3	-22.8297E-3
-242.621E-6	-3.73718E-12	378.187E-3	11.5927E-3	-3.64302E-12	414.137E-3	-21.9765E-3
-247.624E-6	-3.77753E-12	389.707E-3	7.30539E-3	-3.75476E-12	417.437E-3	-17.4986E-3
-252.626E-6	-3.90065E-12	396.274E-3	-8.79562E-3	-3.90609E-12	429.607E-3	-13.4749E-3
-257.629E-6	-4.18410E-12	404.700E-3	-16.7851E-3	-3.97052E-12	445.409E-3	-8.58029E-3
-262.631E-6	-4.26177E-12	416.415E-3	-3.39144E-3	-4.15541E-12	461.064E-3	-9.54995E-3
-267.634E-6	-4.34546E-12	430.482E-3	8.11926E-3	-4.45779E-12	474.964E-3	-18.2655E-3
-272.636E-6	-4.50189E-12	443.236E-3	-3.85909E-3	-4.60459E-12	481.929E-3	-20.2706E-3
-277.639E-6	-4.72841E-12	445.718E-3	-23.7585E-3	-4.75187E-12	489.400E-3	-16.9414E-3
-282.641E-6	-4.98798E-12	443.715E-3	-23.7652E-3	-4.91890E-12	505.182E-3	-10.8947E-3
-287.644E-6	-5.08568E-12	459.743E-3	-6.28271E-3	-5.19354E-12	521.883E-3	-6.77428E-3
-292.646E-6	-5.19728E-12	480.548E-3	-544.190E-6	-5.30935E-12	528.488E-3	-7.35913E-3
-297.649E-6	-5.46426E-12	483.787E-3	-13.6496E-3	-5.55653E-12	520.865E-3	-17.5925E-3
-302.651E-6	-5.72507E-12	492.149E-3	-21.8921E-3	-5.68875E-12	510.251E-3	-29.8105E-3
-307.654E-6	-5.81540E-12	508.104E-3	-17.4312E-3	-5.85632E-12	512.698E-3	-24.7015E-3
-312.656E-6	-6.02085E-12	517.056E-3	-13.7860E-3	-5.95770E-12	516.569E-3	-17.8376E-3
-317.659E-6	-6.13044E-12	525.517E-3	-17.0607E-3	-6.13852E-12	520.647E-3	-21.5975E-3
-322.661E-6	-6.39699E-12	530.524E-3	-22.7033E-3	-6.30307E-12	540.749E-3	-22.6404E-3
-327.664E-6	-6.53779E-12	532.319E-3	-22.0774E-3	-6.36839E-12	557.142E-3	-21.0425E-3
-332.666E-6	-6.65010E-12	538.535E-3	-14.3640E-3	-6.61028E-12	560.326E-3	-22.1540E-3
-337.669E-6	-6.74060E-12	544.364E-3	-7.50931E-3	-6.73295E-12	566.822E-3	-23.8698E-3
-342.671E-6	-6.91830E-12	538.477E-3	-15.9555E-3	-6.91629E-12	569.433E-3	-21.1560E-3
-347.674E-6	-7.19822E-12	543.178E-3	-28.6998E-3	-7.12488E-12	565.900E-3	-13.4375E-3
-352.676E-6	-7.27589E-12	570.079E-3	-21.9865E-3	-7.33403E-12	578.669E-3	-9.84606E-3
-357.679E-6	-7.31716E-12	584.375E-3	-10.1750E-3	-7.43243E-12	604.516E-3	-11.8926E-3
-362.681E-6	-7.57381E-12	584.135E-3	-7.90732E-3	-7.67279E-12	617.041E-3	-9.70503E-3
-367.684E-6	-7.83819E-12	584.895E-3	-9.46006E-3	-7.92986E-12	622.101E-3	-3.93911E-3
-372.686E-6	-8.00810E-12	587.399E-3	-6.54730E-3	-8.21431E-12	629.184E-3	-11.9038E-3
-377.689E-6	-8.16952E-12	588.601E-3	-5.05757E-3	-8.34067E-12	626.413E-3	-23.2920E-3
-382.691E-6	-8.45320E-12	584.003E-3	-2.80321E-3	-8.64540E-12	619.348E-3	-16.5564E-3
-387.694E-6	-8.66765E-12	586.823E-3	514.308E-6	-8.88574E-12	611.929E-3	-5.22471E-3
-392.696E-6	-8.80979E-12	596.754E-3	-6.81087E-3	-8.97658E-12	602.076E-3	-2.31199E-3
-397.699E-6	-9.13334E-12	595.942E-3	-19.7526E-3	-9.22874E-12	601.866E-3	-10.4070E-3
-402.701E-6	-9.19281E-12	587.795E-3	-32.9987E-3	-9.39467E-12	615.224E-3	-20.2434E-3
-407.704E-6	-9.39684E-12	591.336E-3	-41.5551E-3	-9.64419E-12	624.521E-3	-26.8000E-3
-412.706E-6	-9.62687E-12	607.180E-3	-32.6982E-3	-9.75592E-12	615.732E-3	-33.0663E-3
-417.709E-6	-9.87829E-12	609.402E-3	-16.1332E-3	-10.0145E-12	602.772E-3	-25.5903E-3
-422.711E-6	-10.0479E-12	600.916E-3	-15.2966E-3	-10.3459E-12	601.655E-3	-19.3139E-3
-427.714E-6	-10.1815E-12	602.683E-3	-30.6034E-3	-10.3350E-12	611.557E-3	-24.4340E-3
-432.716E-6	-10.3974E-12	602.507E-3	-34.4451E-3	-10.6826E-12	619.664E-3	-23.6080E-3
-437.719E-6	-10.5983E-12	606.586E-3	-16.1134E-3	-10.7408E-12	611.878E-3	-17.4110E-3
-442.721E-6	-10.7681E-12	617.342E-3	5.24180E-3	-11.0354E-12	600.591E-3	-9.25460E-3
-447.724E-6	-11.1047E-12	609.273E-3	17.6791E-3	-11.3340E-12	603.992E-3	-11.4573E-3
-452.726E-6	-11.4110E-12	597.286E-3	8.86460E-3	-11.5155E-12	601.924E-3	-21.3109E-3
-457.729E-6	-11.6000E-12	605.581E-3	-16.6563E-3	-11.6722E-12	590.520E-3	-16.2418E-3
-462.731E-6	-11.7881E-12	612.185E-3	-27.6209E-3	-11.8751E-12	591.194E-3	-6.20754E-3
-467.734E-6	-12.1598E-12	606.275E-3	-24.9689E-3	-12.1175E-12	596.213E-3	-6.96789E-3
-472.736E-6	-12.5680E-12	604.031E-3	-25.8600E-3	-12.1335E-12	595.417E-3	-16.4432E-3
-477.739E-6	-12.4671E-12	606.476E-3	-17.3466E-3	-12.4312E-12	586.699E-3	-12.4510E-3
-482.741E-6	-12.6593E-12	600.511E-3	-7.13529E-3	-12.4414E-12	570.976E-3	-1.22903E-3
-487.744E-6	-13.2039E-12	594.333E-3	-12.0871E-3	-12.8747E-12	565.576E-3	-5.17242E-3
-492.746E-6	-13.3423E-12	611.137E-3	-7.79984E-3	-12.6888E-12	567.772E-3	-8.00614E-3
-497.749E-6	-13.4171E-12	622.639E-3	-2.23757E-3	-13.0365E-12	560.114E-3	-7.64866E-3
-502.751E-6	-13.4922E-12	596.650E-3	-14.0434E-3	-13.3494E-12	549.667E-3	-13.8569E-3
-507.754E-6	-13.6424E-12	572.232E-3	-19.4252E-3	-13.4684E-12	552.301E-3	-18.0801E-3
-512.756E-6	-13.9144E-12	562.927E-3	-19.6448E-3	-13.4313E-12	562.258E-3	-16.9335E-3
-517.759E-6	-13.9481E-12	546.729E-3	-24.9826E-3	-13.9990E-12	561.928E-3	-17.9686E-3
-522.761E-6	-14.0143E-12	541.242E-3	-29.0558E-3	-14.3997E-12	553.764E-3	-20.4889E-3
-527.764E-6	-14.2911E-12	542.358E-3	-24.2683E-3	-14.3173E-12	545.016E-3	-19.3065E-3
-532.766E-6	-14.5687E-12	533.664E-3	-14.2199E-3	-14.6304E-12	536.944E-3	-21.5031E-3
-537.769E-6	-14.6267E-12	527.099E-3	-16.4166E-3	-14.7766E-12	527.861E-3	-25.3761E-3
-542.771E-6	-14.8475E-12	518.549E-3	-24.9651E-3	-15.1955E-12	514.076E-3	-10.8344E-3
-547.774E-6	-14.9146E-12	504.258E-3	-27.2418E-3	-15.3739E-12	502.150E-3	3.64543E-3
-552.776E-6	-15.1866E-12	496.949E-3	-29.1816E-3	-15.1897E-12	490.084E-3	-9.45692E-3
-557.779E-6	-15.4534E-12	490.234E-3	-24.5009E-3	-15.4134E-12	477.426E-3	-25.8698E-3
-562.781E-6	-15.5667E-12	493.341E-3	-11.2184E-3	-15.6007E-12	468.124E-3	-27.9681E-3
-567.784E-6	-15.9476E-12	508.856E-3	-12.4833E-3	-15.7089E-12	446.280E-3	-26.9538E-3
-572.786E-6	-15.9403E-12	500.271E-3	-21.9483E-3	-15.8157E-12	424.764E-3	-30.8774E-3
-577.789E-6	-16.2644E-12	476.253E-3	-17.8631E-3	-16.0278E-12	426.406E-3	-32.6544E-3
-582.791E-6	-16.2609E-12	469.586E-3	-5.56335E-3	-15.8529E-12	436.328E-3	-31.7131E-3
-587.794E-6	-16.4131E-12	465.495E-3	8.20738E-3	-16.0086E-12	428.288E-3	-35.0741E-3
-592.796E-6	-16.6688E-12	447.806E-3	4.26555E-3	-16.1594E-12	409.093E-3	-35.5193E-3
-597.799E-6	-16.6695E-12	436.667E-3	-13.2173E-3	-16.3049E-12	402.904E-3	-29.0438E-3
-602.801E-6	-16.6655E-12	431.967E-3	-14.0714E-3	-16.4878E-12	398.377E-3	-18.4659E-3
-607.804E-6	-16.7824E-12	423.151E-3	-16.8636E-3	-16.5858E-12	390.696E-3	-10.7833E-3
-612.806E-6	-17.2509E-12	417.148E-3	-35.4719E-3	-16.9770E-12	385.115E-3	-9.13388E-3
-617.809E-6	-17.0084E-12	405.664E-3	-34.4645E-3	-17.1571E-12	371.756E-3	-6.28109E-3
-622.811E-6	-17.2046E-12	386.349E-3	-16.5176E-3	-17.4242E-12	358.994E-3	-12.2470E-3
-627.814E-6	-17.5646E-12	385.196E-3	-11.5916E-3	-17.6893E-12	348.959E-3	-28.0484E-3
-632.816E-6	-17.5552E-12	386.827E-3	-9.25700E-3	-17.8938E-12	332.168E-3	-29.2545E-3
-637.819E-6	-17.8844E-12	368.963E-3	-9.53336E-3	-17.9523E-12	322.346E-3	-22.0457E-3
-642.821E-6	-17.6500E-12	360.012E-3	-15.7613E-3	-17.9737E-12	315.098E-3	-20.9829E-3
-647.824E-6	-17.9455E-12	353.752E-3	-8.73860E-3	-18.1630E-12	303.628E-3	-18.0928E-3
-652.826E-6	-17.9084E-12	332.284E-3	-5.40697E-3	-17.9798E-12	295.377E-3	-16.2374E-3
-657.829E-6	-18.0258E-12	319.214E-3	-22.1622E-3	-17.9197E-12	287.427E-3	-17.5886E-3
-662.831E-6	-18.0624E-12	324.732E-3	-27.7932E-3	-17.9158E-12	277.972E-3	-16.8322E-3
-667.834E-6	-18.1473E-12	322.544E-3	-23.1268E-3	-18.0376E-12	276.275E-3	-11.6280E-3
-672.836E-6	-18.0575E-12	310.179E-3	-21.1937E-3	-18.0379E-12	280.342E-3	-14.1589E-3
-677.839E-6	-18.0538E-12	305.943E-3	-11.6933E-3	-18.2166E-12	272.629E-3	-33.6675E-3
-682.841E-6	-18.1608E-12	290.474E-3	-7.36627E-3	-18.2531E-12	261.722E-3	-46.8227E-3
-687.844E-6	-18.0382E-12	271.470E-3	-16.4250E-3	-18.2164E-12	260.104E-3	-38.3603E-3
-692.846E-6	-18.2724E-12	263.656E-3	-18.3353E-3	-18.1877E-12	250.502E-3	-22.1226E-3
-697.849E-6	-18.0929E-12	251.310E-3	-12.5527E-3	-18.7168E-12	227.696E-3	-8.68107E-3
-702.851E-6	-18.5039E-12	240.445E-3	-20.8980E-3	-18.9400E-12	213.630E-3	-7.70210E-3
-707.854E-6	-18.5280E-12	246.764E-3	-34.4245E-3	-18.9896E-12	204.672E-3	-19.5916E-3
-712.856E-6	-18.8095E-12	253.980E-3	-34.7417E-3	-19.0470E-12	196.994E-3	-23.7855E-3
-717.859E-6	-18.7054E-12	238.218E-3	-28.8475E-3	-19.3103E-12	197.891E-3	-8.52770E-3
-722.861E-6	-19.0395E-12	215.942E-3	-24.8448E-3	-19.4627E-12	197.087E-3	9.68065E-3
-727.864E-6	-19.2277E-12	203.807E-3	-11.8549E-3	-19.4358E-12	195.112E-3	2.80174E-3
-732.866E-6	-19.3694E-12	190.939E-3	-9.40772E-3	-19.5395E-12	192.089E-3	-24.8842E-3
-737.869E-6	-19.7472E-12	183.731E-3	-21.5257E-3	-19.6872E-12	176.616E-3	-44.2658E-3
-742.871E-6	-19.5545E-12	189.979E-3	-16.0670E-3	-19.6021E-12	160.656E-3	-43.1450E-3
-747.874E-6	-19.6730E-12	193.751E-3	-5.67002E-3	-19.7530E-12	156.579E-3	-31.7903E-3
-752.876E-6	-19.6699E-12	187.332E-3	-5.16869E-3	-19.5794E-12	148.716E-3	-23.2865E-3
-757.879E-6	-19.8481E-12	178.870E-3	-7.40915E-3	-19.2775E-12	147.783E-3	-21.1301E-3
-762.881E-6	-19.7175E-12	175.316E-3	-12.8111E-3	-19.4905E-12	154.625E-3	-26.3992E-3
-767.884E-6	-19.5502E-12	176.881E-3	-15.8033E-3	-19.4188E-12	144.874E-3	-29.1618E-3
-772.886E-6	-19.7005E-12	169.099E-3	-15.4836E-3	-19.4396E-12	132.884E-3	-19.5501E-3
-777.889E-6	-19.5308E-12	146.678E-3	-25.2901E-3	-19.3164E-12	132.020E-3	-9.24410E-3
-782.891E-6	-19.7580E-12	140.978E-3	-26.5318E-3	-19.6581E-12	137.738E-3	-9.40758E-3
-787.894E-6	-19.6375E-12	150.717E-3	-3.12752E-3	-19.5583E-12	140.539E-3	-11.7014E-3
-792.896E-6	-19.8160E-12	155.760E-3	9.30880E-3	-19.5803E-12	132.843E-3	-9.04403E-3
-797.899E-6	-20.0494E-12	162.986E-3	-3.00893E-3	-19.9072E-12	121.866E-3	-8.11606E-3
-802.901E-6	-19.9607E-12	155.380E-3	-12.7499E-3	-19.9160E-12	117.162E-3	-12.2862E-3
-807.904E-6	-20.0658E-12	126.339E-3	-15.4959E-3	-19.8805E-12	117.787E-3	-20.7807E-3
-812.906E-6	-20.2320E-12	113.990E-3	-18.3598E-3	-20.2037E-12	117.937E-3	-32.9937E-3
-817.909E-6	-20.3875E-12	124.802E-3	-14.2253E-3	-20.5095E-12	110.858E-3	-30.1179E-3
-822.911E-6	-20.2939E-12	124.287E-3	-8.22130E-3	-20.3593E-12	111.072E-3	-10.4585E-3
-827.914E-6	-20.2857E-12	109.287E-3	-12.4482E-3	-20.2271E-12	121.589E-3	6.20434E-3
-832.916E-6	-20.5536E-12	106.239E-3	-18.3439E-3	-20.5174E-12	118.060E-3	906.119E-6
-837.919E-6	-20.3057E-12	99.5953E-3	-20.5064E-3	-20.2991E-12	107.263E-3	-17.4470E-3
-842.921E-6	-20.6641E-12	86.0292E-3	-23.4644E-3	-20.4992E-12	96.5549E-3	-16.9346E-3
-847.924E-6	-20.2746E-12	91.2945E-3	-15.4471E-3	-20.3268E-12	83.7377E-3	-5.12387E-3
-852.926E-6	-20.5039E-12	90.6967E-3	-9.43607E-3	-20.5421E-12	79.1781E-3	-11.4279E-3
-857.929E-6	-20.3502E-12	83.1576E-3	-22.0865E-3	-20.2681E-12	82.9823E-3	-20.4763E-3
-862.931E-6	-20.3021E-12	94.1044E-3	-25.2956E-3	-20.3959E-12	86.1268E-3	-6.52749E-3
-867.934E-6	-20.4845E-12	102.120E-3	-7.48874E-3	-20.6264E-12	87.8260E-3	9.66281E-3
-872.936E-6	-20.3415E-12	93.8448E-3	1.54328E-3	-20.5745E-12	83.9172E-3	7.07104E-3
-877.939E-6	-20.5361E-12	86.0360E-3	-7.66994E-3	-20.8051E-12	72.0705E-3	-12.3571E-3
-882.941E-6	-20.2883E-12	79.4667E-3	-23.4105E-3	-20.6772E-12	77.5241E-3	-28.3138E-3
-887.944E-6	-20.8659E-12	74.1259E-3	-29.7330E-3	-20.8085E-12	92.0567E-3	-23.1008E-3
-892.946E-6	-20.6303E-12	82.4248E-3	-17.2446E-3	-20.7421E-12	94.5306E-3	-10.5345E-3
-897.949E-6	-20.8080E-12	81.9330E-3	-6.02254E-3	-20.8704E-12	100.737E-3	-4.35026E-3
-902.951E-6	-20.9999E-12	67.0770E-3	-10.5614E-3	-20.8398E-12	101.757E-3	-10.3009E-3
-907.954E-6	-21.0894E-12	77.3123E-3	-12.0474E-3	-20.8403E-12	94.3879E-3	-16.6758E-3
-912.956E-6	-21.3853E-12	93.6716E-3	-6.27007E-3	-20.6501E-12	98.0718E-3	-13.7623E-3
-917.959E-6	-21.1403E-12	89.9320E-3	-18.2045E-3	-20.8893E-12	105.372E-3	-8.29267E-3
-922.961E-6	-21.3026E-12	93.8099E-3	-29.4359E-3	-20.8549E-12	98.3858E-3	-9.99991E-3
-927.964E-6	-21.2494E-12	99.7617E-3	-15.9153E-3	-20.7429E-12	88.0779E-3	-25.1845E-3
-932.966E-6	-21.1303E-12	96.9878E-3	-10.9961E-3	-20.8237E-12	93.6846E-3	-31.4586E-3
-937.969E-6	-21.1381E-12	99.3113E-3	-24.1696E-3	-20.8671E-12	102.375E-3	-24.9069E-3
-942.971E-6	-20.9392E-12	93.8250E-3	-26.8419E-3	-20.8310E-12	96.9545E-3	-19.4767E-3
-947.974E-6	-20.9264E-12	85.2900E-3	-28.5524E-3	-21.0894E-12	95.3638E-3	-17.6392E-3
-952.976E-6	-20.7277E-12	97.3737E-3	-32.4004E-3	-21.1872E-12	109.473E-3	-25.4196E-3
-957.979E-6	-20.8161E-12	107.650E-3	-19.9087E-3	-21.4717E-12	114.534E-3	-26.6910E-3
-962.981E-6	-20.9467E-12	96.7052E-3	-6.24940E-3	-21.3168E-12	110.865E-3	-12.9071E-3
-967.984E-6	-21.0299E-12	91.7508E-3	-6.42070E-3	-21.6310E-12	123.008E-3	-5.98757E-3
-972.986E-6	-20.8572E-12	96.5079E-3	-11.3074E-3	-21.7114E-12	131.796E-3	-5.54391E-3
-977.989E-6	-20.9407E-12	90.0766E-3	-16.6875E-3	-21.7332E-12	133.457E-3	-11.1431E-3
-982.991E-6	-21.1994E-12	98.4650E-3	-22.5687E-3	-21.8323E-12	142.808E-3	-24.6861E-3
-987.994E-6	-21.2466E-12	124.266E-3	-19.9289E-3	-21.7334E-12	147.870E-3	-25.8280E-3
-992.997E-6	-21.0315E-12	126.423E-3	-18.8540E-3	-21.7293E-12	141.745E-3	-13.1168E-3
-997.999E-6	-21.2874E-12	111.450E-3	-37.2105E-3	-21.7927E-12	125.566E-3	-14.2787E-3
-1.00300E-3	-21.3959E-12	112.225E-3	-46.3478E-3	-21.8370E-12	120.560E-3	-29.4927E-3
-1.00800E-3	-21.3524E-12	121.633E-3	-35.9380E-3	-21.0957E-12	143.184E-3	-30.4178E-3
-1.01301E-3	-21.3744E-12	127.938E-3	-37.5529E-3	-21.3589E-12	164.779E-3	-19.8187E-3
-1.01801E-3	-21.5944E-12	136.552E-3	-39.3762E-3	-21.5046E-12	160.323E-3	-18.9978E-3
-1.02301E-3	-21.8039E-12	133.613E-3	-28.7453E-3	-21.2749E-12	160.902E-3	-22.4177E-3
-1.02801E-3	-21.4772E-12	138.474E-3	-29.0977E-3	-21.2135E-12	175.336E-3	-21.1099E-3
-1.03302E-3	-21.8456E-12	158.957E-3	-28.2020E-3	-21.8491E-12	174.878E-3	-18.9903E-3
-1.03802E-3	-21.7626E-12	158.850E-3	-16.0076E-3	-21.7249E-12	169.168E-3	-9.18023E-3
-1.04302E-3	-21.7768E-12	149.001E-3	-19.1808E-3	-21.6006E-12	179.098E-3	-1.64548E-3
-1.04802E-3	-21.6697E-12	155.604E-3	-23.7714E-3	-21.9514E-12	194.688E-3	-9.74769E-3
-1.05303E-3	-22.0087E-12	160.380E-3	-15.5782E-3	-22.1378E-12	203.988E-3	-21.7709E-3
-1.05803E-3	-22.0304E-12	152.606E-3	-15.9690E-3	-22.2550E-12	211.395E-3	-29.8675E-3
-1.06303E-3	-22.1333E-12	168.179E-3	-24.1412E-3	-22.5822E-12	213.852E-3	-26.5256E-3
-1.06803E-3	-22.3252E-12	195.327E-3	-29.9320E-3	-22.7485E-12	211.535E-3	-13.7011E-3
-1.07304E-3	-22.2896E-12	190.961E-3	-28.8737E-3	-22.4937E-12	213.608E-3	-6.96002E-3
-1.07804E-3	-22.7440E-12	187.155E-3	-16.3243E-3	-22.6197E-12	220.198E-3	-11.8630E-3
-1.08304E-3	-22.5581E-12	211.400E-3	-10.5721E-3	-22.5901E-12	239.181E-3	-18.3038E-3
-1.08804E-3	-22.5193E-12	230.392E-3	-28.7902E-3	-22.5568E-12	261.672E-3	-23.0986E-3
-1.09305E-3	-22.6924E-12	232.803E-3	-41.7862E-3	-22.4342E-12	260.902E-3	-27.5369E-3
-1.09805E-3	-22.8794E-12	227.004E-3	-25.6528E-3	-22.0621E-12	263.208E-3	-20.9597E-3
-1.10305E-3	-22.7850E-12	229.086E-3	-7.10788E-3	-22.2652E-12	282.879E-3	-1.68326E-3
-1.10805E-3	-22.7971E-12	255.182E-3	-3.28339E-3	-22.1620E-12	301.530E-3	4.50180E-3
-1.11306E-3	-22.8371E-12	277.760E-3	258.632E-6	-22.6548E-12	312.172E-3	-12.0004E-3
-1.11806E-3	-22.9399E-12	272.243E-3	-4.11685E-3	-22.2116E-12	314.852E-3	-21.8224E-3
-1.12306E-3	-22.9337E-12	262.115E-3	-17.1841E-3	-22.8483E-12	317.155E-3	-14.1421E-3
-1.12806E-3	-22.9628E-12	264.494E-3	-10.7555E-3	-23.1367E-12	321.596E-3	-3.74731E-3
-1.13307E-3	-23.0417E-12	271.629E-3	4.57867E-3	-23.3605E-12	344.502E-3	-3.79171E-3
-1.13807E-3	-23.2930E-12	301.715E-3	-4.78094E-3	-23.7375E-12	379.585E-3	-14.6148E-3
-1.14307E-3	-23.5543E-12	340.664E-3	-25.5173E-3	-23.7728E-12	399.287E-3	-11.0483E-3
-1.14807E-3	-23.6259E-12	352.231E-3	-37.6172E-3	-24.0834E-12	402.320E-3	-1.64738E-3
-1.15308E-3	-23.9416E-12	361.614E-3	-40.4893E-3	-24.3488E-12	405.418E-3	-1.40748E-3
-1.15808E-3	-24.0506E-12	378.766E-3	-26.8881E-3	-24.5035E-12	416.680E-3	-252.223E-6
-1.16308E-3	-24.5396E-12	385.857E-3	-5.25490E-3	-24.3984E-12	437.629E-3	-4.39848E-3
-1.16808E-3	-24.6537E-12	391.901E-3	-2.94907E-3	-24.7062E-12	451.982E-3	-4.73474E-3
-1.17309E-3	-24.9860E-12	402.484E-3	-13.1895E-3	-24.4772E-12	446.925E-3	6.55131E-3
-1.17809E-3	-24.8960E-12	408.654E-3	-10.2658E-3	-24.7642E-12	454.424E-3	6.50281E-3
-1.18309E-3	-24.9284E-12	414.494E-3	-7.35512E-3	-24.6294E-12	473.782E-3	-20.3922E-3
-1.18809E-3	-25.3582E-12	433.627E-3	-7.62644E-3	-24.5529E-12	480.521E-3	-38.7140E-3
-1.19310E-3	-25.0601E-12	454.231E-3	-7.24459E-3	-24.7838E-12	487.879E-3	-26.7061E-3
-1.19810E-3	-25.2112E-12	460.621E-3	-19.4106E-3	-24.6476E-12	502.143E-3	-17.7545E-3
-1.20310E-3	-25.2186E-12	474.706E-3	-34.6178E-3	-24.9326E-12	516.193E-3	-23.9570E-3
-1.20810E-3	-25.5462E-12	495.454E-3	-29.9819E-3	-24.8282E-12	530.779E-3	-24.2620E-3
-1.21311E-3	-25.5739E-12	500.184E-3	-11.9798E-3	-25.2498E-12	558.673E-3	-8.94741E-3
-1.21811E-3	-25.8551E-12	508.732E-3	-1.10609E-3	-25.3056E-12	595.795E-3	721.994E-6
-1.22311E-3	-25.8111E-12	526.368E-3	-328.927E-6	-25.7365E-12	625.588E-3	-10.4239E-3
-1.22811E-3	-26.2272E-12	538.374E-3	-7.91663E-3	-25.9555E-12	650.072E-3	-22.4300E-3
-1.23312E-3	-26.7856E-12	552.541E-3	-14.2132E-3	-26.5171E-12	669.112E-3	-24.5234E-3
-1.23812E-3	-26.8891E-12	566.673E-3	-2.82234E-3	-26.8641E-12	688.709E-3	-25.9969E-3
-1.24312E-3	-27.1413E-12	573.609E-3	4.23825E-3	-26.8586E-12	711.133E-3	-12.2403E-3
-1.24812E-3	-27.4497E-12	596.886E-3	-15.2249E-3	-27.4016E-12	723.888E-3	4.93830E-3
-1.25313E-3	-28.0382E-12	628.664E-3	-22.5061E-3	-27.7734E-12	732.110E-3	-2.67248E-3
-1.25813E-3	-28.0984E-12	645.906E-3	-9.19890E-3	-27.8312E-12	743.196E-3	-17.3729E-3
-1.26313E-3	-28.4501E-12	672.363E-3	-8.91412E-3	-28.3188E-12	756.851E-3	-22.0439E-3
-1.26813E-3	-28.6260E-12	701.620E-3	-16.9351E-3	-28.2116E-12	772.413E-3	-12.0812E-3
-1.27314E-3	-28.9670E-12	714.009E-3	-33.1476E-3	-28.4005E-12	788.761E-3	-2.51076E-3
-1.27814E-3	-28.6515E-12	722.765E-3	-54.3388E-3	-28.5780E-12	793.925E-3	-8.82144E-3
-1.28314E-3	-28.7600E-12	737.203E-3	-44.5778E-3	-28.7653E-12	796.960E-3	-15.0866E-3
-1.28814E-3	-28.6798E-12	754.618E-3	-28.6767E-3	-28.7365E-12	825.405E-3	-19.5982E-3
-1.29315E-3	-29.0111E-12	770.255E-3	-26.5143E-3	-28.9407E-12	852.804E-3	-23.8247E-3
-1.29815E-3	-29.0772E-12	779.132E-3	-17.3916E-3	-29.3908E-12	860.747E-3	-19.0852E-3
-1.30315E-3	-29.3132E-12	778.122E-3	-21.4886E-3	-29.3419E-12	872.120E-3	-11.9160E-3
-1.30815E-3	-29.5972E-12	784.903E-3	-31.2392E-3	-29.9212E-12	882.482E-3	-9.56672E-3
-1.31316E-3	-30.0110E-12	802.145E-3	-19.9640E-3	-30.4111E-12	890.138E-3	-14.5175E-3
-1.31816E-3	-30.4521E-12	813.962E-3	-13.8881E-3	-30.7337E-12	909.470E-3	-18.9937E-3
-1.32316E-3	-30.8769E-12	831.535E-3	-28.7391E-3	-31.1376E-12	924.441E-3	-13.1443E-3
-1.32816E-3	-31.4010E-12	856.194E-3	-32.4157E-3	-31.4681E-12	930.758E-3	-6.73636E-3
-1.33317E-3	-31.6199E-12	876.549E-3	-23.7733E-3	-31.7927E-12	952.094E-3	-8.19898E-3
-1.33817E-3	-32.1222E-12	905.236E-3	-27.4468E-3	-31.9845E-12	982.569E-3	-19.3316E-3
-1.34317E-3	-32.7044E-12	931.196E-3	-20.4729E-3	-32.4335E-12	994.724E-3	-28.4847E-3
-1.34817E-3	-32.9851E-12	935.467E-3	-5.34884E-3	-32.6937E-12	995.327E-3	-22.5076E-3
-1.35318E-3	-33.4807E-12	939.915E-3	-20.8399E-3	-32.7549E-12	1.00241E+0	-25.7944E-3
-1.35818E-3	-33.3904E-12	957.862E-3	-25.5228E-3	-32.9714E-12	1.01241E+0	-33.6022E-3
-1.36318E-3	-34.1629E-12	975.122E-3	-8.74327E-3	-33.7036E-12	1.03212E+0	-14.4921E-3
-1.36818E-3	-34.3106E-12	1.00233E+0	-18.3936E-3	-33.8602E-12	1.05621E+0	10.5604E-3
-1.37319E-3	-34.5231E-12	1.02834E+0	-31.2459E-3	-33.9969E-12	1.06447E+0	12.7337E-3
-1.37819E-3	-34.2827E-12	1.01903E+0	-26.9029E-3	-34.5516E-12	1.06658E+0	3.08882E-3
-1.38319E-3	-34.8915E-12	1.00850E+0	-27.4110E-3	-35.3230E-12	1.07518E+0	-9.97500E-3
-1.38819E-3	-34.7366E-12	1.02335E+0	-23.8940E-3	-35.4447E-12	1.08055E+0	-20.8809E-3
-1.39320E-3	-34.9932E-12	1.03916E+0	-14.1472E-3	-35.6872E-12	1.08185E+0	-12.4316E-3
-1.39820E-3	-35.3901E-12	1.03903E+0	-30.3927E-3	-36.2683E-12	1.08822E+0	-3.42644E-3
-1.40320E-3	-35.6613E-12	1.03386E+0	-51.8747E-3	-36.3828E-12	1.09813E+0	-10.8568E-3
-1.40820E-3	-36.2085E-12	1.03614E+0	-34.8766E-3	-36.8509E-12	1.09505E+0	-18.5047E-3
-1.41321E-3	-36.6801E-12	1.04775E+0	-3.16660E-3	-37.3279E-12	1.09325E+0	-16.1177E-3
-1.41821E-3	-37.0934E-12	1.07324E+0	1.35640E-3	-37.5267E-12	1.10329E+0	2.19052E-3
-1.42321E-3	-37.6089E-12	1.08631E+0	-8.88511E-3	-37.4865E-12	1.09973E+0	19.3308E-3
-1.42821E-3	-38.2094E-12	1.07609E+0	-16.0108E-3	-37.8391E-12	1.09587E+0	10.4009E-3
-1.43322E-3	-38.4310E-12	1.07736E+0	-22.2764E-3	-38.0948E-12	1.10043E+0	-22.0302E-3
-1.43822E-3	-38.8068E-12	1.09300E+0	-20.2019E-3	-38.3595E-12	1.10198E+0	-34.6324E-3
-1.44322E-3	-39.6311E-12	1.11395E+0	-16.9938E-3	-38.4495E-12	1.12212E+0	-13.8144E-3
-1.44822E-3	-39.6806E-12	1.14347E+0	-20.1814E-3	-38.9076E-12	1.14496E+0	-2.41162E-3
-1.45323E-3	-40.3657E-12	1.14854E+0	-22.9361E-3	-39.3283E-12	1.14141E+0	-8.25010E-3
-1.45823E-3	-40.5281E-12	1.13854E+0	-21.7021E-3	-39.8238E-12	1.14228E+0	-17.2954E-3
-1.46323E-3	-41.0285E-12	1.15305E+0	-19.7899E-3	-40.4992E-12	1.16028E+0	-25.7687E-3
-1.46823E-3	-41.1358E-12	1.16757E+0	-15.2314E-3	-40.9184E-12	1.17464E+0	-27.9269E-3
-1.47324E-3	-41.6341E-12	1.16775E+0	-14.0510E-3	-41.7461E-12	1.17259E+0	-26.7869E-3
-1.47824E-3	-42.1045E-12	1.16176E+0	-24.4144E-3	-42.0922E-12	1.15978E+0	-32.2453E-3
-1.48324E-3	-42.3097E-12	1.14518E+0	-25.0010E-3	-42.5571E-12	1.16627E+0	-32.2794E-3
-1.48824E-3	-42.8427E-12	1.13015E+0	-12.6949E-3	-42.9513E-12	1.18370E+0	-19.6117E-3
-1.49325E-3	-43.0284E-12	1.13956E+0	-15.8160E-3	-43.5415E-12	1.17298E+0	-12.3569E-3
-1.49825E-3	-43.5694E-12	1.16457E+0	-25.9925E-3	-43.9174E-12	1.14709E+0	-13.4744E-3
-1.50325E-3	-43.8417E-12	1.16224E+0	-26.5887E-3	-43.8643E-12	1.12604E+0	-15.2341E-3
-1.50825E-3	-44.3183E-12	1.14684E+0	-25.6393E-3	-44.1478E-12	1.11728E+0	-20.7261E-3
-1.51326E-3	-44.7406E-12	1.15648E+0	-12.8913E-3	-44.5991E-12	1.13093E+0	-24.2719E-3
-1.51826E-3	-44.9400E-12	1.16265E+0	4.80014E-3	-44.3858E-12	1.13309E+0	-11.0611E-3
-1.52326E-3	-45.6329E-12	1.15864E+0	-4.60896E-3	-44.4216E-12	1.11280E+0	-2.40547E-3
-1.52826E-3	-45.7309E-12	1.15907E+0	-19.5290E-3	-44.4746E-12	1.10272E+0	-15.3067E-3
-1.53327E-3	-46.1318E-12	1.14198E+0	-20.9492E-3	-45.0854E-12	1.10131E+0	-30.4417E-3
-1.53827E-3	-46.1329E-12	1.12798E+0	-22.5970E-3	-44.9573E-12	1.10810E+0	-36.8071E-3
-1.54327E-3	-46.5266E-12	1.14989E+0	-24.7266E-3	-45.4809E-12	1.12702E+0	-26.5275E-3
-1.54827E-3	-46.7590E-12	1.16250E+0	-23.6167E-3	-46.0933E-12	1.14011E+0	-6.73760E-3
-1.55328E-3	-46.8570E-12	1.14555E+0	-16.2434E-3	-46.4365E-12	1.13832E+0	-12.2076E-3
-1.55828E-3	-47.4246E-12	1.13345E+0	-5.06503E-3	-47.2711E-12	1.12663E+0	-37.0975E-3
-1.56328E-3	-47.9331E-12	1.13261E+0	5.02991E-3	-48.2511E-12	1.12693E+0	-46.6027E-3
-1.56828E-3	-48.2578E-12	1.13195E+0	-2.18193E-3	-48.9269E-12	1.14998E+0	-42.7673E-3
-1.57329E-3	-48.7128E-12	1.13604E+0	-16.8557E-3	-49.5759E-12	1.16372E+0	-38.1893E-3
-1.57829E-3	-49.2185E-12	1.13308E+0	-22.5044E-3	-50.4931E-12	1.15309E+0	-29.6274E-3
-1.58329E-3	-49.9649E-12	1.11870E+0	-28.1601E-3	-50.7939E-12	1.13133E+0	-20.2627E-3
-1.58829E-3	-50.2243E-12	1.12352E+0	-26.9093E-3	-51.3991E-12	1.10432E+0	-19.6212E-3
-1.59330E-3	-50.4376E-12	1.13233E+0	-14.4803E-3	-51.7800E-12	1.08091E+0	-18.1030E-3
-1.59830E-3	-50.9349E-12	1.12434E+0	-10.6256E-3	-51.6912E-12	1.08373E+0	-7.77175E-3
-1.60330E-3	-51.7260E-12	1.12004E+0	-29.0420E-3	-51.7591E-12	1.09729E+0	-6.88149E-3
-1.60830E-3	-51.7867E-12	1.11214E+0	-35.7520E-3	-51.5171E-12	1.08593E+0	-13.5772E-3
-1.61331E-3	-51.6000E-12	1.08979E+0	-10.2924E-3	-51.4801E-12	1.05987E+0	-20.7129E-3
-1.61831E-3	-52.0254E-12	1.07894E+0	8.02462E-3	-51.4982E-12	1.03349E+0	-26.6088E-3
-1.62331E-3	-52.0897E-12	1.07367E+0	13.9775E-3	-51.3900E-12	1.01732E+0	-17.3875E-3
-1.62831E-3	-52.2862E-12	1.05619E+0	8.97140E-3	-51.4954E-12	1.02126E+0	-12.2409E-3
-1.63332E-3	-52.2233E-12	1.03724E+0	-17.5249E-3	-51.8425E-12	1.02784E+0	-18.5828E-3
-1.63832E-3	-53.0209E-12	1.02212E+0	-23.1814E-3	-52.3504E-12	1.02990E+0	-23.5686E-3
-1.64332E-3	-53.1867E-12	1.01925E+0	-5.25653E-3	-52.6877E-12	1.04393E+0	-33.9249E-3
-1.64832E-3	-53.4109E-12	1.04079E+0	-10.0336E-3	-53.3584E-12	1.05278E+0	-47.9341E-3
-1.65333E-3	-54.2645E-12	1.05194E+0	-24.6158E-3	-54.3167E-12	1.04123E+0	-46.4302E-3
-1.65833E-3	-54.2506E-12	1.02095E+0	-21.4182E-3	-54.8859E-12	1.04127E+0	-24.1417E-3
-1.66333E-3	-55.3337E-12	991.257E-3	-979.091E-6	-55.9689E-12	1.04490E+0	-15.0473E-3
-1.66833E-3	-55.5562E-12	999.175E-3	19.2201E-3	-56.5913E-12	1.02849E+0	-21.2054E-3
-1.67334E-3	-56.9572E-12	1.01697E+0	8.25752E-3	-57.6692E-12	1.03093E+0	-23.4359E-3
-1.67834E-3	-57.2516E-12	1.01943E+0	-20.3101E-3	-57.8887E-12	1.04501E+0	-34.4529E-3
-1.68334E-3	-58.0919E-12	1.02163E+0	-18.8385E-3	-58.4078E-12	1.02369E+0	-48.1743E-3
-1.68834E-3	-57.6935E-12	1.02023E+0	-1.97481E-3	-58.6788E-12	1.00369E+0	-43.3842E-3
-1.69335E-3	-58.5354E-12	1.01589E+0	-1.34454E-3	-58.6667E-12	1.00887E+0	-34.4589E-3
-1.69835E-3	-58.8060E-12	1.02556E+0	-6.87825E-3	-58.4009E-12	999.881E-3	-28.2435E-3
-1.70335E-3	-58.6081E-12	1.02125E+0	-13.4303E-3	-58.6217E-12	968.637E-3	-14.5600E-3
-1.70835E-3	-58.7815E-12	1.00636E+0	-29.6721E-3	-58.6425E-12	946.976E-3	-6.72937E-3
-1.71336E-3	-58.6225E-12	1.00717E+0	-34.6970E-3	-58.3739E-12	945.154E-3	-3.25077E-3
-1.71836E-3	-58.9243E-12	991.415E-3	-7.79101E-3	-58.2601E-12	941.355E-3	9.16627E-3
-1.72336E-3	-58.7520E-12	964.471E-3	13.7351E-3	-58.3763E-12	930.880E-3	15.4542E-3
-1.72836E-3	-58.8761E-12	968.344E-3	11.4193E-3	-58.7621E-12	921.319E-3	8.55444E-3
-1.73337E-3	-58.8265E-12	972.403E-3	1.78945E-3	-58.9081E-12	913.480E-3	-8.42867E-3
-1.73837E-3	-59.2426E-12	953.333E-3	-12.5956E-3	-59.2468E-12	923.525E-3	-35.3478E-3
-1.74337E-3	-59.7804E-12	943.286E-3	-22.8222E-3	-59.8439E-12	940.729E-3	-42.4012E-3
-1.74837E-3	-60.1615E-12	952.248E-3	-22.8879E-3	-60.5322E-12	938.430E-3	-22.1587E-3
-1.75338E-3	-61.0594E-12	959.284E-3	-26.8162E-3	-60.9156E-12	939.250E-3	-8.47081E-3
-1.75838E-3	-61.6101E-12	955.377E-3	-24.9221E-3	-61.5653E-12	946.390E-3	-18.9157E-3
-1.76338E-3	-62.3922E-12	941.835E-3	-1.07617E-3	-62.4586E-12	938.610E-3	-25.2819E-3
-1.76838E-3	-63.1373E-12	932.607E-3	2.99876E-3	-63.0170E-12	931.068E-3	-15.8051E-3
-1.77339E-3	-63.9559E-12	947.782E-3	-26.6286E-3	-63.1908E-12	928.104E-3	-21.2662E-3
-1.77839E-3	-63.8974E-12	959.623E-3	-41.4865E-3	-63.7865E-12	921.429E-3	-21.7891E-3
-1.78339E-3	-64.9366E-12	952.993E-3	-38.4526E-3	-64.1084E-12	916.437E-3	-13.1976E-3
-1.78839E-3	-65.0338E-12	955.823E-3	-28.2840E-3	-64.4036E-12	910.804E-3	-31.9760E-3
-1.79340E-3	-65.1898E-12	959.697E-3	-4.17127E-3	-64.3076E-12	899.497E-3	-37.6456E-3
-1.79840E-3	-65.0813E-12	946.103E-3	11.0086E-3	-64.6481E-12	897.609E-3	-9.17160E-3
-1.80340E-3	-65.0057E-12	938.711E-3	-1.83865E-3	-64.9553E-12	911.420E-3	-460.720E-6
-1.80840E-3	-65.1572E-12	933.059E-3	-21.4461E-3	-64.7745E-12	913.108E-3	-924.117E-6
-1.81341E-3	-64.9847E-12	915.393E-3	-17.8425E-3	-64.8878E-12	910.380E-3	12.3825E-3
-1.81841E-3	-64.8565E-12	911.677E-3	-10.0406E-3	-65.1658E-12	910.624E-3	6.43598E-3
-1.82341E-3	-64.8443E-12	921.239E-3	-10.8741E-3	-65.6281E-12	887.773E-3	-8.42429E-3
-1.82841E-3	-65.3448E-12	907.605E-3	-12.8277E-3	-65.4732E-12	865.862E-3	-819.659E-6
-1.83342E-3	-65.1920E-12	880.614E-3	-20.6838E-3	-65.8645E-12	870.366E-3	2.03132E-3
-1.83842E-3	-65.8935E-12	866.157E-3	-24.1456E-3	-66.0063E-12	875.667E-3	-20.7345E-3
-1.84342E-3	-65.9659E-12	855.523E-3	-25.6748E-3	-66.2423E-12	875.906E-3	-32.9683E-3
-1.84842E-3	-66.8759E-12	867.808E-3	-31.7847E-3	-66.3072E-12	874.939E-3	-21.6852E-3
-1.85343E-3	-67.1909E-12	890.638E-3	-30.3012E-3	-66.6445E-12	862.325E-3	-13.9037E-3
-1.85843E-3	-67.9389E-12	890.170E-3	-26.1945E-3	-67.4084E-12	854.208E-3	-4.80315E-3
-1.86343E-3	-68.4215E-12	878.823E-3	-20.1188E-3	-67.4996E-12	864.112E-3	913.487E-6
-1.86843E-3	-69.0426E-12	878.078E-3	3.50112E-3	-67.7135E-12	863.403E-3	-9.30344E-3
-1.87344E-3	-69.2601E-12	879.004E-3	16.4450E-3	-67.7475E-12	844.878E-3	-1.08511E-3
-1.87844E-3	-69.3919E-12	866.171E-3	-3.44186E-3	-68.3791E-12	845.294E-3	16.0914E-3
-1.88344E-3	-69.4971E-12	866.692E-3	-24.0091E-3	-68.6795E-12	856.389E-3	2.88126E-3
-1.88844E-3	-69.5956E-12	878.449E-3	-12.2121E-3	-69.0740E-12	845.784E-3	-10.8093E-3
-1.89345E-3	-69.9175E-12	871.938E-3	10.8434E-3	-69.6078E-12	845.103E-3	3.08554E-3
-1.89845E-3	-69.8763E-12	855.768E-3	12.8198E-3	-70.2098E-12	853.095E-3	15.1779E-3
-1.90345E-3	-69.8475E-12	836.073E-3	-5.23430E-3	-70.7868E-12	836.932E-3	3.15476E-3
-1.90845E-3	-69.8918E-12	822.951E-3	-26.1972E-3	-70.9972E-12	827.425E-3	-16.7638E-3
-1.91346E-3	-70.4161E-12	831.366E-3	-18.2675E-3	-71.8371E-12	831.644E-3	-28.3536E-3
-1.91846E-3	-70.3882E-12	839.010E-3	10.5736E-3	-71.6825E-12	823.863E-3	-20.8746E-3
-1.92346E-3	-70.8103E-12	841.910E-3	9.64382E-3	-71.8716E-12	823.739E-3	3.06242E-3
-1.92846E-3	-71.4463E-12	849.866E-3	-8.39344E-3	-72.2903E-12	827.884E-3	7.14616E-3
-1.93347E-3	-71.7515E-12	844.206E-3	-3.40856E-3	-72.2997E-12	813.662E-3	-12.1995E-3
-1.93847E-3	-72.2252E-12	830.980E-3	-5.96951E-3	-72.0883E-12	818.133E-3	-22.9910E-3
-1.94347E-3	-72.4560E-12	822.565E-3	-18.5145E-3	-72.2848E-12	839.117E-3	-18.4948E-3
-1.94847E-3	-73.2272E-12	824.493E-3	-14.9091E-3	-72.0780E-12	833.680E-3	-14.0091E-3
-1.95348E-3	-73.3167E-12	840.940E-3	-13.6406E-3	-72.2476E-12	820.029E-3	-15.2412E-3
-1.95848E-3	-73.4802E-12	842.448E-3	-19.1474E-3	-72.1875E-12	820.166E-3	-25.6494E-3
-1.96348E-3	-73.6291E-12	820.966E-3	-16.8068E-3	-72.1090E-12	817.088E-3	-31.0258E-3
-1.96848E-3	-74.2576E-12	808.555E-3	-19.9282E-3	-72.6227E-12	812.351E-3	-17.2208E-3
-1.97349E-3	-74.2604E-12	816.320E-3	-28.1266E-3	-72.8468E-12	813.709E-3	-11.0276E-3
-1.97849E-3	-74.3064E-12	826.075E-3	-14.5072E-3	-73.7227E-12	810.517E-3	-11.2020E-3
-1.98349E-3	-74.2277E-12	828.744E-3	-5.63330E-3	-74.1143E-12	814.045E-3	-4.84540E-3
-1.98849E-3	-74.4701E-12	821.349E-3	-17.1616E-3	-75.0204E-12	817.751E-3	-16.1042E-3
-1.99350E-3	-74.6866E-12	809.649E-3	-13.8383E-3	-75.6171E-12	809.557E-3	-32.0132E-3
-1.99850E-3	-74.5312E-12	807.783E-3	-11.7943E-3	-76.7292E-12	809.778E-3	-24.7893E-3
-2.00350E-3	-75.2285E-12	810.430E-3	-20.5579E-3	-77.2974E-12	812.497E-3	-16.7744E-3
-2.00850E-3	-75.6915E-12	807.183E-3	-16.9040E-3	-78.0861E-12	798.567E-3	-17.8905E-3
-2.01351E-3	-76.0406E-12	794.600E-3	-7.41705E-3	-78.3814E-12	786.937E-3	-5.76708E-3
-2.01851E-3	-76.0096E-12	784.891E-3	-1.28802E-3	-78.3116E-12	791.953E-3	5.17949E-3
-2.02351E-3	-76.7002E-12	788.697E-3	524.771E-6	-78.2918E-12	789.675E-3	-3.28405E-3
-2.02851E-3	-77.0573E-12	799.381E-3	-7.40887E-3	-78.0679E-12	776.262E-3	-5.43162E-3
-2.03352E-3	-77.0840E-12	804.083E-3	-16.7643E-3	-77.6424E-12	772.535E-3	-6.79226E-3
-2.03852E-3	-77.4607E-12	789.322E-3	-12.8610E-3	-77.4008E-12	771.561E-3	-26.1713E-3
-2.04352E-3	-77.5930E-12	776.986E-3	-4.90028E-3	-77.1697E-12	757.126E-3	-29.4167E-3
-2.04852E-3	-78.0313E-12	786.895E-3	-6.20812E-3	-76.4598E-12	743.404E-3	-5.47375E-3
-2.05353E-3	-77.6684E-12	797.801E-3	-11.6901E-3	-76.5833E-12	744.300E-3	5.63942E-3
-2.05853E-3	-78.2108E-12	798.466E-3	-21.7154E-3	-76.6810E-12	749.750E-3	-830.122E-6
-2.06353E-3	-78.4570E-12	792.113E-3	-32.0559E-3	-76.5832E-12	762.968E-3	-10.7250E-3
-2.06853E-3	-78.4909E-12	789.687E-3	-21.9394E-3	-77.1038E-12	782.024E-3	-31.8074E-3
-2.07354E-3	-78.6890E-12	789.802E-3	-8.90678E-3	-77.5233E-12	776.815E-3	-34.9722E-3
-2.07854E-3	-79.2268E-12	785.696E-3	-18.0599E-3	-78.4019E-12	749.944E-3	-7.49537E-3
-2.08354E-3	-79.7618E-12	791.125E-3	-27.6201E-3	-79.2424E-12	740.519E-3	9.24095E-3
-2.08854E-3	-79.7154E-12	794.210E-3	-27.8970E-3	-79.9736E-12	758.578E-3	13.4783E-3
-2.09355E-3	-80.1275E-12	783.396E-3	-27.1775E-3	-81.2256E-12	786.331E-3	11.0696E-3
-2.09855E-3	-80.3300E-12	772.016E-3	-16.4684E-3	-81.8351E-12	789.132E-3	-8.30896E-3
-2.10355E-3	-81.4515E-12	772.990E-3	-18.9704E-3	-82.5271E-12	773.898E-3	-7.80254E-3
-2.10855E-3	-81.5188E-12	783.673E-3	-31.9371E-3	-82.8689E-12	771.843E-3	10.5103E-3
-2.11356E-3	-82.5303E-12	793.009E-3	-17.1577E-3	-83.2124E-12	761.928E-3	-294.940E-6
-2.11856E-3	-82.2003E-12	797.061E-3	-6.25814E-3	-83.2079E-12	753.268E-3	-12.4699E-3
-2.12356E-3	-82.6687E-12	793.321E-3	-16.8453E-3	-82.7588E-12	759.172E-3	-9.27892E-3
-2.12856E-3	-82.3672E-12	776.500E-3	-17.7890E-3	-82.7444E-12	758.477E-3	-7.92889E-3
-2.13357E-3	-82.3720E-12	757.881E-3	-13.7345E-3	-82.5604E-12	744.893E-3	-7.84841E-3
-2.13857E-3	-82.4102E-12	758.978E-3	-12.6712E-3	-82.1740E-12	737.161E-3	-22.2259E-3
-2.14357E-3	-82.0517E-12	768.606E-3	-7.92610E-3	-81.5512E-12	745.091E-3	-36.5411E-3
-2.14857E-3	-81.9005E-12	758.291E-3	200.518E-6	-81.8797E-12	760.761E-3	-22.8187E-3
-2.15358E-3	-81.8986E-12	739.161E-3	-4.22648E-3	-82.0767E-12	772.983E-3	13.9950E-6
-2.15858E-3	-82.6127E-12	743.477E-3	-20.2802E-3	-82.2435E-12	765.675E-3	-3.33662E-3
-2.16358E-3	-82.7180E-12	758.790E-3	-23.1394E-3	-82.6151E-12	752.111E-3	-26.3302E-3
-2.16858E-3	-83.5766E-12	750.800E-3	-22.5637E-3	-83.2003E-12	747.713E-3	-36.7976E-3
-2.17359E-3	-83.7773E-12	746.362E-3	-19.6525E-3	-83.5993E-12	752.408E-3	-33.9953E-3
-2.17859E-3	-84.5539E-12	760.265E-3	-5.44887E-3	-84.2126E-12	748.517E-3	-20.8196E-3
-2.18359E-3	-84.8821E-12	760.021E-3	-553.546E-6	-84.8871E-12	738.427E-3	-1.04190E-3
-2.18859E-3	-85.9089E-12	760.200E-3	-7.98575E-3	-85.6576E-12	748.766E-3	3.36652E-3
-2.19360E-3	-86.3479E-12	768.450E-3	-12.2046E-3	-86.1741E-12	752.507E-3	-1.74321E-3
-2.19860E-3	-86.6699E-12	765.746E-3	-14.6813E-3	-86.6353E-12	744.411E-3	1.31540E-3
-2.20360E-3	-87.5906E-12	761.482E-3	-23.0741E-3	-87.4051E-12	757.255E-3	1.14620E-3
-2.20860E-3	-87.5640E-12	761.326E-3	-23.7391E-3	-87.7616E-12	773.293E-3	-11.0121E-3
-2.21361E-3	-87.8748E-12	759.852E-3	-12.8006E-3	-87.7566E-12	766.015E-3	-16.6779E-3
-2.21861E-3	-87.5349E-12	756.815E-3	-4.81866E-3	-87.9283E-12	752.187E-3	-13.4148E-3
-2.22361E-3	-87.8269E-12	752.433E-3	6.44152E-3	-88.0517E-12	743.147E-3	-12.9035E-3
-2.22861E-3	-87.2655E-12	746.850E-3	6.71541E-3	-87.4473E-12	731.464E-3	-12.7897E-3
-2.23362E-3	-86.7040E-12	745.858E-3	-20.7945E-3	-87.4082E-12	731.314E-3	-7.86568E-3
-2.23862E-3	-86.5673E-12	742.238E-3	-32.1253E-3	-87.3579E-12	741.064E-3	-23.6896E-3
-2.24362E-3	-86.1916E-12	733.943E-3	-25.9342E-3	-87.1494E-12	727.557E-3	-38.5182E-3
-2.24862E-3	-86.1393E-12	733.295E-3	-20.5286E-3	-87.3684E-12	711.538E-3	-8.43509E-3
-2.25363E-3	-86.2439E-12	736.697E-3	-9.53072E-3	-87.7905E-12	720.698E-3	7.04005E-3
-2.25863E-3	-86.6431E-12	742.415E-3	-13.8547E-3	-88.0368E-12	732.272E-3	-8.37188E-3
-2.26363E-3	-87.0735E-12	740.827E-3	-23.2888E-3	-88.2443E-12	744.881E-3	-10.5907E-3
-2.26863E-3	-87.5538E-12	721.728E-3	-11.8033E-3	-88.6127E-12	754.646E-3	-17.8038E-3
-2.27364E-3	-88.5548E-12	706.896E-3	-4.01458E-3	-89.0207E-12	752.654E-3	-21.6325E-3
-2.27864E-3	-89.3273E-12	713.634E-3	-12.9295E-3	-89.2695E-12	747.103E-3	-10.8392E-3
-2.28364E-3	-90.1420E-12	741.269E-3	-13.4404E-3	-89.8697E-12	737.907E-3	-11.7301E-3
-2.28864E-3	-90.7024E-12	760.989E-3	-5.09598E-3	-90.1800E-12	724.475E-3	-20.5701E-3
-2.29365E-3	-91.3703E-12	760.217E-3	-9.73472E-3	-90.4135E-12	730.822E-3	-19.8186E-3
-2.29865E-3	-91.9386E-12	760.272E-3	-13.1938E-3	-90.7193E-12	758.018E-3	-6.49604E-3
-2.30365E-3	-92.5318E-12	747.797E-3	-7.57688E-3	-91.2070E-12	754.648E-3	3.14892E-3
-2.30865E-3	-92.5136E-12	732.763E-3	-10.6877E-3	-91.2062E-12	733.691E-3	9.13294E-3
-2.31366E-3	-92.4802E-12	735.431E-3	-18.6601E-3	-91.8951E-12	737.592E-3	4.94424E-3
-2.31866E-3	-92.2680E-12	739.791E-3	-17.7262E-3	-92.0379E-12	748.286E-3	-20.3175E-3
-2.32366E-3	-91.9733E-12	750.896E-3	-8.19854E-3	-92.1612E-12	744.947E-3	-26.3489E-3
-2.32866E-3	-91.5863E-12	766.403E-3	-6.57735E-3	-92.4932E-12	738.033E-3	-14.9798E-3
-2.33367E-3	-91.6194E-12	750.197E-3	-18.0807E-3	-93.5103E-12	733.854E-3	-30.7987E-3
-2.33867E-3	-91.4080E-12	720.246E-3	-31.0749E-3	-93.2613E-12	734.125E-3	-41.7736E-3
-2.34367E-3	-90.9219E-12	708.428E-3	-25.0978E-3	-93.7658E-12	744.027E-3	-22.9485E-3
-2.34867E-3	-91.1644E-12	709.771E-3	-8.64443E-3	-93.4550E-12	746.084E-3	-17.7720E-3
-2.35368E-3	-91.4523E-12	715.213E-3	-6.49606E-3	-94.2168E-12	730.818E-3	-21.9195E-3
-2.35868E-3	-92.0470E-12	713.755E-3	-10.1984E-3	-93.9260E-12	715.250E-3	-12.8640E-3
-2.36368E-3	-92.4172E-12	707.183E-3	-7.83487E-3	-94.2840E-12	699.018E-3	-16.5229E-3
-2.36868E-3	-93.4266E-12	709.149E-3	-13.3985E-3	-94.3515E-12	695.004E-3	-20.9139E-3
-2.37369E-3	-94.2831E-12	724.679E-3	-20.3817E-3	-94.0213E-12	706.546E-3	-7.72853E-3
-2.37869E-3	-94.7512E-12	745.692E-3	-5.89045E-3	-93.9582E-12	700.130E-3	-1.80383E-3
-2.38369E-3	-95.3984E-12	743.454E-3	-1.47569E-3	-94.2472E-12	680.661E-3	-7.71252E-3
-2.38869E-3	-96.3766E-12	730.136E-3	-16.4201E-3	-94.7313E-12	681.894E-3	-19.0788E-3
-2.39370E-3	-96.5742E-12	725.578E-3	-14.0919E-3	-94.2478E-12	710.900E-3	-26.7305E-3
-2.39870E-3	-96.9345E-12	715.283E-3	-15.3309E-3	-95.0080E-12	742.022E-3	-15.7204E-3
-2.40370E-3	-97.1542E-12	725.069E-3	-39.5408E-3	-95.7049E-12	749.780E-3	4.60037E-3
-2.40870E-3	-97.5149E-12	751.979E-3	-46.5593E-3	-96.2508E-12	733.381E-3	6.04913E-3
-2.41371E-3	-97.2004E-12	755.157E-3	-36.2155E-3	-96.8817E-12	708.467E-3	-434.553E-6
-2.41871E-3	-97.4832E-12	742.347E-3	-31.5408E-3	-97.2192E-12	703.916E-3	2.12538E-3
-2.42371E-3	-96.9412E-12	736.949E-3	-28.2317E-3	-98.0501E-12	721.396E-3	-6.40377E-3
-2.42871E-3	-97.1787E-12	741.579E-3	-26.2698E-3	-98.4345E-12	718.326E-3	-12.7738E-3
-2.43372E-3	-96.9865E-12	754.497E-3	-22.6960E-3	-98.7532E-12	700.670E-3	6.07397E-3
-2.43872E-3	-96.8818E-12	758.170E-3	-6.84099E-3	-99.0976E-12	698.318E-3	5.15609E-3
-2.44372E-3	-97.2436E-12	732.909E-3	7.85405E-3	-99.1747E-12	692.575E-3	-26.7908E-3
-2.44872E-3	-97.2794E-12	702.993E-3	-6.02174E-3	-98.9570E-12	688.196E-3	-31.9131E-3
-2.45373E-3	-97.1030E-12	708.792E-3	-22.5438E-3	-98.8329E-12	701.192E-3	-12.2920E-3
-2.45873E-3	-97.3909E-12	719.575E-3	-16.0815E-3	-98.8441E-12	703.199E-3	-3.36978E-3
-2.46373E-3	-97.4385E-12	706.815E-3	-17.0509E-3	-98.3010E-12	692.072E-3	-6.16138E-3
-2.46873E-3	-97.7821E-12	711.250E-3	-18.7774E-3	-97.8769E-12	690.795E-3	-20.6541E-3
-2.47374E-3	-98.2306E-12	731.612E-3	-5.29287E-3	-97.7941E-12	691.970E-3	-22.2300E-3
-2.47874E-3	-98.6064E-12	723.220E-3	-9.12844E-3	-97.4899E-12	695.283E-3	-4.52160E-3
-2.48374E-3	-99.0337E-12	706.142E-3	-19.6300E-3	-97.3378E-12	694.180E-3	-9.84740E-3
-2.48874E-3	-99.1768E-12	709.498E-3	-9.59866E-3	-97.2798E-12	681.681E-3	-26.7723E-3
-2.49375E-3	-99.5776E-12	714.475E-3	-14.4849E-3	-97.9757E-12	680.448E-3	-19.4248E-3
-2.49875E-3	-100.003E-12	723.781E-3	-31.7174E-3	-98.4905E-12	695.571E-3	-7.23089E-3
-2.50375E-3	-100.455E-12	735.320E-3	-26.0856E-3	-99.1602E-12	718.547E-3	-6.41860E-3
-2.50875E-3	-100.889E-12	730.412E-3	-25.9926E-3	-99.8941E-12	720.744E-3	-6.16685E-3
-2.51376E-3	-101.479E-12	732.135E-3	-37.2977E-3	-100.919E-12	702.828E-3	-7.24247E-3
-2.51876E-3	-101.728E-12	740.611E-3	-36.5667E-3	-101.923E-12	698.820E-3	-7.79299E-3
-2.52376E-3	-102.303E-12	729.802E-3	-21.0579E-3	-102.206E-12	710.353E-3	-14.8018E-3
-2.52876E-3	-102.472E-12	722.673E-3	3.50610E-3	-103.579E-12	723.112E-3	-29.7089E-3
-2.53377E-3	-103.172E-12	723.527E-3	18.0865E-3	-103.649E-12	718.004E-3	-35.3247E-3
-2.53877E-3	-103.181E-12	714.003E-3	10.1086E-3	-103.986E-12	700.735E-3	-33.7486E-3
-2.54377E-3	-103.202E-12	711.663E-3	-5.14084E-3	-103.537E-12	701.301E-3	-25.9142E-3
-2.54877E-3	-103.336E-12	708.201E-3	-9.87126E-3	-103.651E-12	719.212E-3	-18.6862E-3
-2.55378E-3	-103.184E-12	694.063E-3	-18.2141E-3	-103.315E-12	711.645E-3	-23.3302E-3
-2.55878E-3	-103.008E-12	703.553E-3	-31.2274E-3	-102.939E-12	680.856E-3	-21.2578E-3
-2.56378E-3	-102.678E-12	724.245E-3	-29.7988E-3	-102.414E-12	680.400E-3	-15.4605E-3
-2.56878E-3	-102.962E-12	717.867E-3	-22.1435E-3	-102.392E-12	701.490E-3	-20.3370E-3
-2.57379E-3	-102.833E-12	703.058E-3	-25.8967E-3	-101.952E-12	703.870E-3	-19.9034E-3
-2.57879E-3	-102.634E-12	701.583E-3	-27.6703E-3	-101.588E-12	702.718E-3	-22.3645E-3
-2.58379E-3	-103.062E-12	694.645E-3	-17.6241E-3	-101.645E-12	701.267E-3	-33.6674E-3
-2.58879E-3	-102.954E-12	695.318E-3	-17.3530E-3	-102.201E-12	695.538E-3	-26.8160E-3
-2.59380E-3	-103.541E-12	719.400E-3	-21.3375E-3	-102.339E-12	710.814E-3	-22.7844E-3
-2.59880E-3	-103.699E-12	729.791E-3	-5.19099E-3	-103.404E-12	734.362E-3	-25.7405E-3
-2.60380E-3	-104.667E-12	721.941E-3	193.473E-6	-104.602E-12	744.214E-3	-4.43054E-3
-2.60880E-3	-105.618E-12	714.123E-3	-5.67573E-3	-105.570E-12	744.339E-3	-4.15737E-3
-2.61381E-3	-106.648E-12	700.889E-3	6.02072E-3	-106.484E-12	746.401E-3	-29.4432E-3
-2.61881E-3	-107.021E-12	701.589E-3	11.3239E-3	-107.791E-12	738.066E-3	-15.0052E-3
-2.62381E-3	-107.990E-12	724.706E-3	-2.36892E-3	-108.250E-12	715.320E-3	21.3379E-3
-2.62881E-3	-108.675E-12	732.418E-3	-24.0623E-3	-109.050E-12	702.746E-3	20.9516E-3
-2.63382E-3	-109.010E-12	720.298E-3	-31.6951E-3	-109.212E-12	702.904E-3	-7.91227E-3
-2.63882E-3	-108.889E-12	718.190E-3	-17.7773E-3	-109.477E-12	716.098E-3	-34.9602E-3
-2.64382E-3	-108.847E-12	726.250E-3	-5.25065E-3	-108.833E-12	719.054E-3	-38.7897E-3
-2.64882E-3	-108.226E-12	725.715E-3	-12.6732E-3	-108.914E-12	707.662E-3	-13.4355E-3
-2.65383E-3	-107.692E-12	728.930E-3	-20.3883E-3	-108.096E-12	700.815E-3	3.40637E-3
-2.65883E-3	-107.652E-12	724.532E-3	-6.21953E-3	-107.846E-12	691.357E-3	-5.18386E-3
-2.66383E-3	-107.375E-12	696.131E-3	-1.52655E-3	-107.460E-12	686.680E-3	-8.51948E-3
-2.66883E-3	-106.833E-12	689.950E-3	-11.7003E-3	-106.852E-12	681.744E-3	-6.37194E-3
-2.67384E-3	-106.575E-12	709.950E-3	-4.02549E-3	-106.727E-12	677.443E-3	-12.0530E-3
-2.67884E-3	-106.698E-12	708.424E-3	10.6569E-3	-107.160E-12	685.903E-3	-8.05770E-3
-2.68384E-3	-106.713E-12	695.579E-3	10.8116E-3	-107.073E-12	701.473E-3	2.20029E-3
-2.68884E-3	-106.700E-12	665.509E-3	15.3497E-3	-107.146E-12	706.877E-3	-1.79726E-3
-2.69385E-3	-107.423E-12	635.193E-3	25.9827E-3	-107.678E-12	710.352E-3	-15.7806E-3
-2.69885E-3	-108.481E-12	665.021E-3	16.8598E-3	-108.463E-12	733.791E-3	-24.9563E-3
-2.70385E-3	-109.703E-12	702.003E-3	4.66831E-3	-108.937E-12	743.754E-3	-26.0901E-3
-2.70885E-3	-110.507E-12	700.498E-3	-13.4837E-3	-109.810E-12	714.996E-3	-14.0698E-3
-2.71386E-3	-111.519E-12	692.293E-3	-37.6777E-3	-110.834E-12	694.913E-3	-5.49112E-3
-2.71886E-3	-112.373E-12	689.432E-3	-19.3578E-3	-112.202E-12	703.946E-3	-19.9871E-3
-2.72386E-3	-113.079E-12	699.013E-3	14.5636E-3	-112.635E-12	712.720E-3	-25.4958E-3
-2.72886E-3	-113.347E-12	728.902E-3	19.6640E-3	-112.945E-12	711.042E-3	-11.4525E-3
-2.73387E-3	-113.991E-12	741.601E-3	5.31193E-3	-113.515E-12	708.677E-3	-8.79221E-3
-2.73887E-3	-113.678E-12	714.840E-3	-8.38188E-3	-113.923E-12	709.466E-3	-15.0945E-3
-2.74387E-3	-113.328E-12	706.713E-3	-8.46878E-3	-113.094E-12	708.276E-3	-17.8016E-3
-2.74887E-3	-112.624E-12	735.171E-3	3.79373E-3	-113.527E-12	701.971E-3	-22.1151E-3
-2.75388E-3	-112.740E-12	736.765E-3	5.89583E-3	-113.370E-12	695.924E-3	-20.6795E-3
-2.75888E-3	-111.877E-12	712.460E-3	-14.1337E-3	-112.750E-12	691.920E-3	-19.6339E-3
-2.76388E-3	-111.360E-12	699.727E-3	-18.7644E-3	-113.008E-12	680.557E-3	-39.4195E-3
-2.76888E-3	-111.305E-12	682.135E-3	1.52954E-3	-112.913E-12	677.258E-3	-48.2015E-3
-2.77389E-3	-111.441E-12	675.257E-3	12.2120E-3	-113.019E-12	689.576E-3	-37.5830E-3
-2.77889E-3	-111.252E-12	697.449E-3	7.86652E-3	-112.632E-12	702.098E-3	-25.8186E-3
-2.78389E-3	-111.584E-12	703.292E-3	15.8786E-3	-112.825E-12	713.397E-3	-19.8197E-3
-2.78889E-3	-112.417E-12	689.798E-3	29.1092E-3	-112.580E-12	711.525E-3	-28.9490E-3
-2.79390E-3	-112.942E-12	696.646E-3	25.9368E-3	-112.938E-12	699.727E-3	-35.5928E-3
-2.79890E-3	-113.549E-12	703.356E-3	17.1090E-3	-113.017E-12	698.964E-3	-40.5842E-3
-2.80390E-3	-114.348E-12	684.561E-3	-373.396E-6	-114.206E-12	695.866E-3	-30.9156E-3
-2.80890E-3	-115.001E-12	680.095E-3	-17.6756E-3	-114.343E-12	683.123E-3	-1.80871E-3
-2.81391E-3	-115.479E-12	694.902E-3	-9.88961E-3	-115.143E-12	680.115E-3	11.9269E-3
-2.81891E-3	-115.984E-12	694.951E-3	-7.13096E-3	-115.419E-12	683.004E-3	5.50706E-3
-2.82391E-3	-116.083E-12	693.503E-3	-23.5503E-3	-116.225E-12	680.519E-3	-4.68230E-3
-2.82891E-3	-116.748E-12	691.691E-3	-28.9673E-3	-116.831E-12	674.968E-3	-15.9980E-3
-2.83392E-3	-116.895E-12	680.649E-3	-30.2033E-3	-117.577E-12	676.469E-3	-15.7662E-3
-2.83892E-3	-116.601E-12	680.124E-3	-32.1019E-3	-117.738E-12	683.583E-3	-5.59368E-3
-2.84392E-3	-116.715E-12	678.664E-3	-27.0976E-3	-117.807E-12	685.735E-3	-23.0189E-3
-2.84892E-3	-116.747E-12	661.269E-3	-25.7920E-3	-118.406E-12	685.354E-3	-44.2266E-3
-2.85393E-3	-116.570E-12	662.539E-3	-21.5299E-3	-118.126E-12	692.797E-3	-31.9962E-3
-2.85893E-3	-116.632E-12	679.769E-3	-1.01399E-3	-119.175E-12	696.240E-3	-17.2619E-3
-2.86393E-3	-116.580E-12	679.112E-3	-2.75166E-3	-118.479E-12	678.034E-3	-16.5594E-3
-2.86893E-3	-116.705E-12	671.379E-3	-26.3547E-3	-118.616E-12	659.412E-3	-14.7141E-3
-2.87394E-3	-116.414E-12	679.535E-3	-14.3181E-3	-117.914E-12	658.854E-3	-23.6133E-3
-2.87894E-3	-116.729E-12	691.414E-3	-958.531E-6	-118.077E-12	668.249E-3	-29.6724E-3
-2.88394E-3	-116.689E-12	693.225E-3	-24.1929E-3	-117.417E-12	675.913E-3	-18.3752E-3
-2.88894E-3	-116.818E-12	686.714E-3	-31.4343E-3	-116.963E-12	680.913E-3	-21.5265E-3
-2.89395E-3	-117.164E-12	661.138E-3	-9.84741E-3	-116.719E-12	676.261E-3	-33.9689E-3
-2.89895E-3	-117.501E-12	646.771E-3	-1.10174E-3	-116.792E-12	663.639E-3	-38.8544E-3
-2.90395E-3	-118.060E-12	661.888E-3	-1.49243E-3	-116.331E-12	667.266E-3	-40.7701E-3
-2.90895E-3	-118.448E-12	672.527E-3	-12.9304E-3	-116.345E-12	670.799E-3	-26.8702E-3
-2.91396E-3	-118.579E-12	684.594E-3	-40.5054E-3	-116.868E-12	657.624E-3	-11.1349E-3
-2.91896E-3	-119.287E-12	690.859E-3	-28.5027E-3	-117.573E-12	658.090E-3	-11.8802E-3
-2.92396E-3	-119.705E-12	676.422E-3	6.84682E-3	-118.172E-12	675.734E-3	-9.84126E-3
-2.92896E-3	-120.245E-12	666.975E-3	4.84526E-3	-118.899E-12	687.760E-3	-11.7291E-3
-2.93397E-3	-120.538E-12	676.084E-3	-11.2948E-3	-120.229E-12	697.077E-3	-16.1880E-3
-2.93897E-3	-121.613E-12	671.535E-3	-13.2187E-3	-121.292E-12	708.871E-3	-19.5021E-3
-2.94397E-3	-121.620E-12	657.985E-3	-8.26991E-3	-121.897E-12	711.993E-3	-32.3797E-3
-2.94897E-3	-121.860E-12	668.930E-3	6.43575E-3	-123.251E-12	718.638E-3	-30.6838E-3
-2.95398E-3	-122.370E-12	673.218E-3	28.3975E-3	-123.949E-12	736.468E-3	-14.5356E-3
-2.95898E-3	-122.412E-12	660.410E-3	22.9350E-3	-124.181E-12	739.254E-3	-12.9516E-3
-2.96398E-3	-122.787E-12	652.862E-3	3.03896E-3	-124.503E-12	719.629E-3	-23.6551E-3
-2.96898E-3	-123.080E-12	651.361E-3	5.38253E-3	-124.784E-12	710.988E-3	-31.7788E-3
-2.97399E-3	-123.715E-12	657.655E-3	8.92435E-3	-124.781E-12	709.991E-3	-34.4041E-3
-2.97899E-3	-123.138E-12	671.063E-3	1.05887E-3	-124.371E-12	689.727E-3	-31.8838E-3
-2.98399E-3	-123.229E-12	674.299E-3	-1.50289E-3	-123.571E-12	671.618E-3	-27.9980E-3
-2.98899E-3	-122.908E-12	671.941E-3	-12.5576E-3	-123.011E-12	668.900E-3	-21.3318E-3
-2.99400E-3	-122.830E-12	678.496E-3	-27.6730E-3	-122.537E-12	674.637E-3	-1.34804E-3
-2.99900E-3	-122.585E-12	674.285E-3	-11.9414E-3	-121.677E-12	670.086E-3	8.80538E-3
-3.00400E-3	-122.765E-12	660.229E-3	-871.582E-6	-121.282E-12	659.961E-3	-657.201E-6
-3.00900E-3	-122.953E-12	670.103E-3	-10.4667E-3	-121.469E-12	663.102E-3	-189.540E-6
-3.01401E-3	-123.447E-12	675.228E-3	-14.8841E-3	-121.658E-12	662.744E-3	1.29869E-3
-3.01901E-3	-124.097E-12	648.615E-3	-29.2015E-3	-121.752E-12	659.936E-3	-7.26990E-3
-3.02401E-3	-124.629E-12	642.961E-3	-38.8405E-3	-122.487E-12	679.556E-3	-9.10118E-3
-3.02901E-3	-125.144E-12	683.480E-3	-17.4344E-3	-123.820E-12	702.427E-3	-10.4113E-3
-3.03402E-3	-125.830E-12	727.766E-3	3.04749E-3	-124.743E-12	692.039E-3	-14.2198E-3
-3.03902E-3	-126.301E-12	714.693E-3	-12.5018E-3	-125.879E-12	674.340E-3	-9.65329E-3
-3.04402E-3	-126.699E-12	668.030E-3	-34.2818E-3	-126.938E-12	678.153E-3	7.19389E-3
-3.04902E-3	-126.789E-12	654.255E-3	-35.1508E-3	-128.211E-12	691.827E-3	23.7633E-3
-3.05403E-3	-127.693E-12	666.783E-3	-34.4599E-3	-128.184E-12	695.066E-3	15.5605E-3
-3.05903E-3	-127.986E-12	687.139E-3	-27.8043E-3	-129.067E-12	674.644E-3	-7.43703E-3
-3.06403E-3	-128.364E-12	695.656E-3	-19.1219E-3	-129.126E-12	654.921E-3	-10.5413E-3
-3.06903E-3	-127.888E-12	678.547E-3	-23.5675E-3	-129.231E-12	662.942E-3	-5.03230E-3
-3.07404E-3	-127.883E-12	675.504E-3	-28.1451E-3	-129.023E-12	693.599E-3	-19.9806E-3
-3.07904E-3	-127.551E-12	690.694E-3	-26.8092E-3	-128.384E-12	701.766E-3	-40.8567E-3
-3.08404E-3	-127.339E-12	691.370E-3	-25.2258E-3	-128.190E-12	676.464E-3	-44.9640E-3
-3.08904E-3	-127.104E-12	694.501E-3	-14.4135E-3	-127.377E-12	658.920E-3	-34.1150E-3
-3.09405E-3	-126.963E-12	692.788E-3	9.68252E-3	-126.247E-12	661.337E-3	-21.7344E-3
-3.09905E-3	-126.849E-12	681.052E-3	16.2766E-3	-125.844E-12	663.214E-3	-18.4055E-3
-3.10405E-3	-127.389E-12	701.277E-3	5.54838E-3	-125.392E-12	660.166E-3	-23.3694E-3
-3.10905E-3	-127.792E-12	713.620E-3	-8.25281E-3	-125.252E-12	673.188E-3	-27.0256E-3
-3.11406E-3	-127.642E-12	690.252E-3	-31.8038E-3	-125.350E-12	685.562E-3	-25.9357E-3
-3.11906E-3	-128.421E-12	675.052E-3	-48.5931E-3	-126.225E-12	686.198E-3	-17.8934E-3
-3.12406E-3	-128.794E-12	672.266E-3	-29.3569E-3	-126.846E-12	690.839E-3	-1.56860E-3
-3.12906E-3	-129.244E-12	670.296E-3	-5.75240E-3	-127.932E-12	691.692E-3	6.39491E-3
-3.13407E-3	-129.510E-12	676.433E-3	-22.9008E-3	-128.883E-12	692.977E-3	-664.507E-6
-3.13907E-3	-130.855E-12	681.194E-3	-35.6715E-3	-129.986E-12	696.616E-3	-15.0930E-3
-3.14407E-3	-130.392E-12	668.440E-3	-44.1525E-3	-130.614E-12	698.991E-3	-30.1385E-3
-3.14907E-3	-130.992E-12	657.982E-3	-47.0967E-3	-131.491E-12	705.727E-3	-29.4599E-3
-3.15408E-3	-131.406E-12	687.756E-3	-22.4022E-3	-131.982E-12	709.176E-3	-23.2379E-3
-3.15908E-3	-131.806E-12	723.739E-3	-24.1139E-3	-132.728E-12	713.032E-3	-20.2280E-3
-3.16408E-3	-131.277E-12	710.291E-3	-33.3131E-3	-133.131E-12	715.698E-3	-5.22661E-3
-3.16908E-3	-131.599E-12	680.317E-3	-34.1161E-3	-133.258E-12	713.026E-3	10.8782E-3
-3.17409E-3	-131.755E-12	682.492E-3	-44.2602E-3	-133.211E-12	713.689E-3	13.5623E-3
-3.17909E-3	-131.132E-12	690.918E-3	-38.4810E-3	-132.989E-12	716.601E-3	4.80147E-3
-3.18409E-3	-131.282E-12	683.109E-3	-17.3721E-3	-132.361E-12	696.173E-3	-5.74198E-3
-3.18909E-3	-130.844E-12	679.748E-3	-436.724E-6	-132.331E-12	674.635E-3	-18.5991E-3
-3.19410E-3	-131.009E-12	681.743E-3	1.10542E-3	-132.315E-12	681.173E-3	-25.3684E-3
-3.19910E-3	-131.428E-12	679.071E-3	4.70977E-3	-131.728E-12	681.910E-3	-14.8107E-3
-3.20410E-3	-131.652E-12	681.381E-3	4.95661E-3	-131.775E-12	674.630E-3	-10.3134E-3
-3.20910E-3	-132.333E-12	701.941E-3	-15.8500E-3	-132.662E-12	666.245E-3	-10.0732E-3
-3.21411E-3	-132.352E-12	708.485E-3	-19.7661E-3	-132.218E-12	668.114E-3	659.947E-6
-3.21911E-3	-133.253E-12	675.971E-3	-13.1205E-3	-132.497E-12	677.007E-3	2.02561E-3
-3.22411E-3	-133.143E-12	659.076E-3	-23.4655E-3	-133.066E-12	678.635E-3	-12.4440E-3
-3.22911E-3	-133.767E-12	676.138E-3	-15.4062E-3	-133.384E-12	693.056E-3	-26.7963E-3
-3.23412E-3	-134.734E-12	684.765E-3	5.20902E-3	-133.422E-12	703.444E-3	-33.2074E-3
-3.23912E-3	-135.032E-12	679.177E-3	-3.40723E-3	-134.510E-12	686.546E-3	-41.2320E-3
-3.24412E-3	-135.428E-12	665.875E-3	-24.0167E-3	-135.133E-12	668.947E-3	-50.8933E-3
-3.24912E-3	-135.996E-12	663.005E-3	-18.5936E-3	-135.605E-12	675.389E-3	-45.5988E-3
-3.25413E-3	-136.454E-12	681.413E-3	-2.41802E-3	-135.795E-12	687.230E-3	-39.3655E-3
-3.25913E-3	-136.068E-12	694.887E-3	-4.35474E-3	-136.477E-12	680.600E-3	-31.1285E-3
-3.26413E-3	-136.732E-12	690.872E-3	-20.0955E-3	-136.618E-12	668.669E-3	-16.1683E-3
-3.26913E-3	-136.554E-12	675.871E-3	-30.7154E-3	-137.223E-12	680.431E-3	-13.4549E-3
-3.27414E-3	-136.072E-12	659.392E-3	-22.0648E-3	-136.915E-12	696.986E-3	-23.8333E-3
-3.27914E-3	-135.704E-12	662.019E-3	-2.53675E-3	-137.500E-12	685.112E-3	-24.5325E-3
-3.28414E-3	-135.774E-12	667.482E-3	306.711E-6	-137.446E-12	661.478E-3	-22.6514E-3
-3.28914E-3	-135.725E-12	661.939E-3	-9.21321E-3	-137.648E-12	654.262E-3	-36.4002E-3
-3.29415E-3	-135.809E-12	675.005E-3	-13.7461E-3	-137.293E-12	661.237E-3	-35.2777E-3
-3.29915E-3	-136.172E-12	692.782E-3	-15.8340E-3	-137.584E-12	667.198E-3	-27.1158E-3
-3.30415E-3	-135.792E-12	701.730E-3	-12.4686E-3	-138.248E-12	649.834E-3	-38.7442E-3
-3.30915E-3	-136.672E-12	705.646E-3	-4.22468E-3	-137.106E-12	637.122E-3	-40.3549E-3
-3.31416E-3	-136.644E-12	703.336E-3	-453.805E-6	-137.370E-12	658.848E-3	-34.1212E-3
-3.31916E-3	-137.305E-12	687.970E-3	-3.39203E-3	-137.507E-12	668.799E-3	-43.9656E-3
-3.32416E-3	-137.762E-12	667.504E-3	-5.77764E-3	-137.317E-12	667.241E-3	-34.1728E-3
-3.32916E-3	-138.035E-12	666.962E-3	-14.7027E-3	-136.526E-12	669.992E-3	-12.1286E-3
-3.33417E-3	-138.585E-12	665.336E-3	-19.9204E-3	-137.110E-12	658.611E-3	-12.8542E-3
-3.33917E-3	-139.277E-12	653.109E-3	-17.3083E-3	-137.335E-12	646.637E-3	-4.47590E-3
-3.34417E-3	-139.478E-12	647.466E-3	-17.0041E-3	-137.316E-12	662.067E-3	21.6933E-3
-3.34917E-3	-140.002E-12	658.461E-3	-3.07556E-3	-137.874E-12	679.419E-3	12.9309E-3
-3.35418E-3	-140.332E-12	671.599E-3	15.2241E-3	-138.891E-12	675.095E-3	-13.1268E-3
-3.35918E-3	-140.887E-12	675.815E-3	16.8934E-3	-139.647E-12	668.792E-3	-24.4030E-3
-3.36418E-3	-140.917E-12	688.413E-3	10.2279E-3	-140.227E-12	671.062E-3	-37.0784E-3
-3.36918E-3	-141.227E-12	688.359E-3	11.0397E-3	-141.411E-12	681.062E-3	-36.3355E-3
-3.37419E-3	-141.400E-12	682.704E-3	11.0544E-3	-142.304E-12	686.833E-3	-21.2095E-3
-3.37919E-3	-141.388E-12	689.887E-3	6.23736E-3	-142.842E-12	683.923E-3	-22.2712E-3
-3.38419E-3	-141.395E-12	685.943E-3	890.511E-6	-142.988E-12	669.786E-3	-34.8398E-3
-3.38919E-3	-140.973E-12	688.672E-3	-329.294E-6	-143.506E-12	666.186E-3	-30.7901E-3
-3.39420E-3	-140.864E-12	697.343E-3	-790.798E-6	-143.893E-12	676.006E-3	-19.1741E-3
-3.39920E-3	-140.008E-12	684.886E-3	-9.61793E-3	-143.621E-12	677.918E-3	-32.5339E-3
-3.40420E-3	-140.491E-12	665.759E-3	-13.1892E-3	-143.352E-12	677.031E-3	-55.2107E-3
-3.40920E-3	-140.206E-12	662.827E-3	-3.69032E-3	-143.505E-12	671.784E-3	-62.9353E-3
-3.41421E-3	-141.035E-12	665.746E-3	3.33467E-3	-143.150E-12	675.532E-3	-45.4566E-3
-3.41921E-3	-140.999E-12	659.415E-3	-6.28720E-3	-142.011E-12	685.144E-3	-19.9993E-3
-3.42421E-3	-141.490E-12	659.999E-3	-24.1405E-3	-141.846E-12	667.544E-3	-27.1983E-3
-3.42921E-3	-142.157E-12	665.386E-3	-30.3688E-3	-141.574E-12	635.778E-3	-46.1776E-3
-3.43422E-3	-142.796E-12	667.587E-3	-14.6947E-3	-141.316E-12	637.837E-3	-41.7384E-3
-3.43922E-3	-143.007E-12	665.894E-3	177.499E-6	-141.115E-12	667.260E-3	-31.5263E-3
-3.44422E-3	-143.346E-12	648.159E-3	-10.3751E-3	-141.764E-12	680.961E-3	-17.8002E-3
-3.44922E-3	-144.497E-12	621.728E-3	-19.9910E-3	-142.560E-12	692.595E-3	9.38530E-3
-3.45423E-3	-144.332E-12	626.008E-3	-7.76786E-3	-142.579E-12	699.780E-3	9.14682E-3
-3.45923E-3	-144.694E-12	670.199E-3	6.63014E-3	-143.662E-12	681.068E-3	-10.9546E-3
-3.46423E-3	-145.497E-12	700.970E-3	-6.12266E-3	-144.616E-12	664.553E-3	-10.8190E-3
-3.46923E-3	-145.427E-12	710.801E-3	-32.1648E-3	-145.435E-12	672.190E-3	-16.1759E-3
-3.47424E-3	-145.498E-12	709.533E-3	-24.4688E-3	-145.732E-12	682.596E-3	-21.3177E-3
-3.47924E-3	-145.606E-12	690.755E-3	-431.440E-6	-146.267E-12	673.699E-3	2.00467E-3
-3.48424E-3	-145.537E-12	692.896E-3	-4.69749E-3	-147.066E-12	673.065E-3	22.6746E-3
-3.48924E-3	-144.937E-12	710.004E-3	-32.0652E-3	-146.858E-12	683.015E-3	16.7254E-3
-3.49425E-3	-144.996E-12	712.502E-3	-47.6662E-3	-146.967E-12	677.236E-3	6.96372E-3
-3.49925E-3	-144.427E-12	713.509E-3	-25.5219E-3	-147.061E-12	664.066E-3	4.49105E-3
-3.50425E-3	-144.664E-12	693.299E-3	-276.611E-6	-146.916E-12	660.418E-3	-17.0172E-3
-3.50925E-3	-144.238E-12	655.678E-3	-15.4577E-3	-146.048E-12	672.789E-3	-45.6103E-3
-3.51426E-3	-144.655E-12	655.215E-3	-33.8514E-3	-145.956E-12	671.265E-3	-52.0066E-3
-3.51926E-3	-145.032E-12	662.969E-3	-30.5686E-3	-145.638E-12	657.503E-3	-40.6837E-3
-3.52426E-3	-145.606E-12	632.518E-3	-23.8765E-3	-144.898E-12	658.050E-3	-17.5199E-3
-3.52926E-3	-145.774E-12	618.404E-3	-19.3994E-3	-144.841E-12	658.766E-3	-15.2875E-3
-3.53427E-3	-146.210E-12	648.090E-3	-11.1897E-3	-144.755E-12	652.754E-3	-37.8721E-3
-3.53927E-3	-147.348E-12	655.554E-3	-2.75131E-3	-145.280E-12	657.385E-3	-34.7599E-3
-3.54427E-3	-147.788E-12	624.507E-3	-9.98034E-3	-145.868E-12	684.351E-3	-20.4153E-3
-3.54927E-3	-148.704E-12	609.190E-3	-2.69734E-3	-146.720E-12	697.100E-3	-20.7764E-3
-3.55428E-3	-149.031E-12	638.925E-3	20.6403E-3	-147.853E-12	666.535E-3	-199.262E-6
-3.55928E-3	-150.504E-12	698.452E-3	17.3996E-3	-149.447E-12	657.292E-3	20.1556E-3
-3.56428E-3	-150.905E-12	724.821E-3	6.85477E-3	-150.697E-12	677.296E-3	5.57428E-3
-3.56928E-3	-150.939E-12	711.315E-3	8.64744E-3	-151.508E-12	676.014E-3	-16.0917E-3
-3.57429E-3	-151.289E-12	693.483E-3	8.43344E-3	-152.679E-12	678.567E-3	-15.6617E-3
-3.57929E-3	-151.177E-12	670.939E-3	6.98770E-3	-152.611E-12	690.956E-3	-804.391E-6
-3.58429E-3	-150.618E-12	666.899E-3	4.64764E-3	-152.918E-12	687.427E-3	-4.02623E-3
-3.58929E-3	-150.183E-12	669.504E-3	-11.4712E-3	-153.121E-12	689.630E-3	-23.0943E-3
-3.59430E-3	-150.831E-12	650.956E-3	-15.3633E-3	-153.000E-12	694.401E-3	-46.1241E-3
-3.59930E-3	-149.738E-12	640.714E-3	-8.75014E-3	-152.512E-12	659.553E-3	-66.6575E-3
-3.60430E-3	-149.929E-12	660.066E-3	-12.5956E-3	-152.285E-12	639.205E-3	-52.4437E-3
-3.60930E-3	-149.727E-12	676.100E-3	-24.5618E-3	-151.976E-12	659.706E-3	-29.5865E-3
-3.61431E-3	-150.145E-12	667.409E-3	-42.5035E-3	-151.121E-12	653.764E-3	-29.6940E-3
-3.61931E-3	-150.231E-12	661.564E-3	-45.1143E-3	-150.813E-12	643.110E-3	-25.9691E-3
-3.62431E-3	-150.369E-12	659.953E-3	-39.1784E-3	-149.798E-12	666.099E-3	-18.4163E-3
-3.62931E-3	-150.865E-12	655.181E-3	-43.6624E-3	-150.506E-12	682.027E-3	-20.2131E-3
-3.63432E-3	-151.338E-12	658.402E-3	-50.4560E-3	-150.165E-12	667.491E-3	-21.1400E-3
-3.63932E-3	-151.759E-12	665.061E-3	-55.8574E-3	-150.604E-12	653.854E-3	-21.5569E-3
-3.64432E-3	-152.171E-12	657.279E-3	-58.9908E-3	-151.103E-12	653.730E-3	-27.7179E-3
-3.64932E-3	-152.763E-12	645.520E-3	-53.7013E-3	-152.085E-12	647.622E-3	-20.7484E-3
-3.65433E-3	-153.933E-12	661.070E-3	-52.1264E-3	-152.955E-12	642.752E-3	-184.657E-6
-3.65933E-3	-153.993E-12	687.770E-3	-51.3636E-3	-153.296E-12	646.698E-3	-10.9856E-3
-3.66433E-3	-154.834E-12	713.515E-3	-32.3218E-3	-154.422E-12	651.099E-3	-36.6386E-3
-3.66933E-3	-155.132E-12	728.545E-3	-9.50077E-3	-154.713E-12	673.031E-3	-41.0575E-3
-3.67434E-3	-155.067E-12	710.840E-3	4.54813E-3	-154.756E-12	690.116E-3	-44.3077E-3
-3.67934E-3	-155.073E-12	680.719E-3	-6.84766E-3	-154.977E-12	678.226E-3	-35.6741E-3
-3.68434E-3	-154.722E-12	659.787E-3	-18.3328E-3	-155.711E-12	668.049E-3	-12.8510E-3
-3.68934E-3	-155.100E-12	657.499E-3	7.07559E-3	-155.583E-12	657.528E-3	-22.1507E-3
-3.69435E-3	-154.739E-12	668.376E-3	18.4825E-3	-155.470E-12	663.089E-3	-46.3044E-3
-3.69935E-3	-155.128E-12	662.724E-3	-4.15041E-3	-155.237E-12	696.200E-3	-36.4507E-3
-3.70435E-3	-155.213E-12	650.055E-3	-11.6985E-3	-155.519E-12	714.896E-3	-24.5363E-3
-3.70935E-3	-155.162E-12	641.212E-3	-4.18971E-3	-155.314E-12	692.919E-3	-24.5931E-3
-3.71436E-3	-154.115E-12	648.279E-3	-7.34589E-3	-155.133E-12	663.996E-3	-15.1112E-3
-3.71936E-3	-154.428E-12	675.881E-3	-12.6464E-3	-155.219E-12	663.859E-3	-4.49586E-3
-3.72436E-3	-154.423E-12	677.141E-3	-8.90291E-6	-154.895E-12	664.065E-3	10.9288E-3
-3.72936E-3	-154.171E-12	658.286E-3	25.0814E-3	-154.424E-12	659.459E-3	20.3928E-3
-3.73437E-3	-154.005E-12	674.397E-3	20.1268E-3	-154.623E-12	660.233E-3	3.54228E-3
-3.73937E-3	-154.746E-12	691.058E-3	-2.74972E-3	-154.550E-12	652.448E-3	-17.4387E-3
-3.74437E-3	-155.569E-12	657.936E-3	-6.08744E-3	-154.996E-12	655.750E-3	-27.0756E-3
-3.74937E-3	-155.499E-12	632.572E-3	-7.53672E-3	-155.086E-12	671.970E-3	-22.6387E-3
-3.75438E-3	-156.800E-12	655.617E-3	-15.3668E-3	-156.226E-12	676.706E-3	-5.90202E-3
-3.75938E-3	-157.500E-12	661.018E-3	-28.0236E-3	-157.043E-12	682.839E-3	-1.92634E-3
-3.76438E-3	-158.094E-12	647.107E-3	-40.0625E-3	-157.710E-12	682.581E-3	-21.5243E-3
-3.76938E-3	-158.487E-12	669.386E-3	-36.5232E-3	-158.200E-12	665.933E-3	-32.6697E-3
-3.77439E-3	-159.558E-12	690.223E-3	-29.3400E-3	-158.559E-12	680.995E-3	-12.9822E-3
-3.77939E-3	-160.043E-12	690.396E-3	-26.3308E-3	-159.855E-12	713.556E-3	1.84180E-3
-3.78439E-3	-160.609E-12	696.581E-3	-12.4395E-3	-159.757E-12	692.645E-3	-3.19918E-3
-3.78939E-3	-160.945E-12	702.798E-3	-198.512E-6	-160.894E-12	669.347E-3	685.686E-6
-3.79440E-3	-161.719E-12	683.433E-3	-12.4622E-3	-161.665E-12	695.107E-3	-8.09514E-3
-3.79940E-3	-161.453E-12	661.919E-3	-16.2437E-3	-161.701E-12	705.750E-3	-27.6656E-3
-3.80440E-3	-161.518E-12	681.856E-3	-15.3433E-3	-162.256E-12	674.808E-3	-14.9231E-3
-3.80940E-3	-160.585E-12	701.430E-3	-33.1702E-3	-162.584E-12	657.877E-3	12.6227E-3
-3.81441E-3	-160.642E-12	690.429E-3	-35.3434E-3	-162.306E-12	662.435E-3	9.22216E-3
-3.81941E-3	-159.740E-12	677.784E-3	-20.6789E-3	-161.455E-12	650.884E-3	-7.01017E-3
-3.82441E-3	-158.922E-12	671.719E-3	-7.68662E-3	-161.012E-12	654.122E-3	-17.6606E-3
-3.82941E-3	-158.616E-12	664.531E-3	1.61298E-3	-160.998E-12	664.974E-3	-42.0566E-3
-3.83442E-3	-158.532E-12	660.270E-3	-5.21874E-3	-160.222E-12	659.180E-3	-41.6857E-3
-3.83942E-3	-158.370E-12	662.726E-3	-15.4717E-3	-159.114E-12	666.490E-3	-25.7292E-3
-3.84442E-3	-157.982E-12	661.827E-3	-35.1022E-3	-159.185E-12	670.315E-3	-41.6422E-3
-3.84942E-3	-158.985E-12	658.238E-3	-57.6555E-3	-159.148E-12	657.324E-3	-46.3113E-3
-3.85443E-3	-160.145E-12	645.722E-3	-45.1588E-3	-158.868E-12	656.706E-3	-29.7243E-3
-3.85943E-3	-160.260E-12	633.715E-3	-32.2798E-3	-159.357E-12	657.293E-3	-23.5492E-3
-3.86443E-3	-161.057E-12	645.070E-3	-34.1023E-3	-159.616E-12	656.777E-3	-22.5805E-3
-3.86943E-3	-161.951E-12	661.119E-3	-33.8717E-3	-160.101E-12	683.922E-3	-28.8602E-3
-3.87444E-3	-163.263E-12	655.121E-3	-25.4779E-3	-161.067E-12	709.338E-3	-26.2704E-3
-3.87944E-3	-163.722E-12	645.417E-3	-10.7757E-3	-161.993E-12	699.089E-3	8.13563E-3
-3.88444E-3	-164.122E-12	650.903E-3	-9.60467E-3	-163.519E-12	672.058E-3	31.4371E-3
-3.88944E-3	-164.989E-12	659.067E-3	-18.7734E-3	-164.089E-12	649.764E-3	-17.1065E-3
-3.89445E-3	-165.450E-12	661.383E-3	-30.8311E-3	-165.782E-12	642.060E-3	-62.5295E-3
-3.89945E-3	-165.182E-12	668.099E-3	-34.0187E-3	-166.740E-12	661.375E-3	-24.0098E-3
-3.90445E-3	-165.146E-12	682.662E-3	-30.5164E-3	-167.591E-12	675.891E-3	8.99348E-3
-3.90945E-3	-165.096E-12	678.644E-3	-26.8948E-3	-168.054E-12	662.866E-3	-4.33579E-3
-3.91446E-3	-164.379E-12	651.393E-3	-15.6972E-3	-167.823E-12	647.686E-3	-7.22057E-3
-3.91946E-3	-163.607E-12	642.065E-3	-14.1221E-3	-168.180E-12	646.496E-3	-20.8586E-3
-3.92446E-3	-163.457E-12	657.491E-3	-20.0836E-3	-167.110E-12	648.208E-3	-33.4968E-3
-3.92946E-3	-163.646E-12	667.296E-3	-27.5034E-3	-166.582E-12	642.266E-3	-8.77717E-3
-3.93447E-3	-163.368E-12	674.043E-3	-43.4685E-3	-164.701E-12	651.480E-3	9.43467E-3
-3.93947E-3	-163.190E-12	676.568E-3	-55.9795E-3	-165.070E-12	648.506E-3	-5.26558E-3
-3.94447E-3	-164.807E-12	664.896E-3	-45.0121E-3	-163.773E-12	622.245E-3	-37.3972E-3
-3.94947E-3	-164.580E-12	654.881E-3	-27.9816E-3	-163.054E-12	638.288E-3	-68.1728E-3
-3.95448E-3	-165.088E-12	660.501E-3	-21.9688E-3	-163.345E-12	662.009E-3	-60.2173E-3
-3.95948E-3	-165.885E-12	677.797E-3	-5.60862E-3	-163.450E-12	649.238E-3	-17.3952E-3
-3.96448E-3	-166.935E-12	691.516E-3	12.3210E-3	-163.642E-12	651.793E-3	-15.0861E-3
-3.96948E-3	-167.084E-12	688.275E-3	21.7820E-3	-164.478E-12	661.073E-3	-51.2539E-3
-3.97449E-3	-168.171E-12	679.129E-3	17.0016E-3	-165.703E-12	648.455E-3	-51.2846E-3
-3.97949E-3	-168.661E-12	671.679E-3	-2.76462E-3	-166.928E-12	651.323E-3	-21.0305E-3
-3.98449E-3	-168.973E-12	664.888E-3	-13.5237E-3	-167.822E-12	653.035E-3	-16.3875E-3
-3.98949E-3	-169.560E-12	666.010E-3	-17.6165E-3	-169.091E-12	631.351E-3	-16.1484E-3
-3.99450E-3	-169.695E-12	670.241E-3	-20.9435E-3	-170.378E-12	623.314E-3	4.70378E-3
-3.99950E-3	-169.917E-12	665.528E-3	413.198E-6	-171.775E-12	636.310E-3	11.6905E-3
-4.00450E-3	-169.652E-12	660.126E-3	14.5357E-3	-171.638E-12	655.016E-3	5.62893E-3
-4.00950E-3	-169.109E-12	675.713E-3	-12.4679E-3	-172.323E-12	684.021E-3	-23.7617E-3
-4.01451E-3	-170.067E-12	681.252E-3	-15.1723E-3	-173.186E-12	694.606E-3	-44.3154E-3
-4.01951E-3	-169.794E-12	670.224E-3	3.89628E-3	-172.738E-12	676.404E-3	-12.1543E-3
-4.02451E-3	-168.868E-12	663.809E-3	-345.738E-6	-171.969E-12	670.499E-3	629.577E-6
-4.02951E-3	-169.384E-12	642.471E-3	1.56480E-3	-172.062E-12	681.624E-3	-36.4656E-3
-4.03452E-3	-169.525E-12	631.511E-3	-1.02114E-3	-170.826E-12	691.867E-3	-48.8918E-3
-4.03952E-3	-169.135E-12	656.435E-3	-20.4615E-3	-169.441E-12	690.766E-3	-13.5852E-3
-4.04452E-3	-169.619E-12	648.360E-3	-16.8840E-3	-168.541E-12	666.492E-3	-16.2720E-3
-4.04952E-3	-170.311E-12	609.188E-3	1.59668E-3	-168.053E-12	633.290E-3	-54.1007E-3
-4.05453E-3	-170.366E-12	624.560E-3	4.87232E-3	-167.490E-12	651.233E-3	-33.2843E-3
-4.05953E-3	-170.620E-12	679.514E-3	-7.27922E-3	-166.953E-12	691.918E-3	4.56063E-3
-4.06453E-3	-170.768E-12	702.033E-3	-30.3175E-3	-167.300E-12	673.240E-3	-11.5465E-3
-4.06953E-3	-170.529E-12	695.305E-3	-32.7732E-3	-167.790E-12	653.765E-3	-30.5178E-3
-4.07454E-3	-171.224E-12	696.211E-3	-9.29169E-3	-168.504E-12	679.979E-3	-13.5384E-3
-4.07954E-3	-170.732E-12	700.138E-3	9.24144E-3	-169.703E-12	681.529E-3	-4.69489E-3
-4.08454E-3	-170.973E-12	704.767E-3	11.4218E-3	-170.834E-12	671.782E-3	-8.93345E-3
-4.08954E-3	-171.262E-12	688.869E-3	-6.62034E-3	-171.884E-12	689.218E-3	-6.55012E-3
-4.09455E-3	-171.857E-12	662.900E-3	-22.4752E-3	-172.176E-12	688.032E-3	-11.6598E-3
-4.09955E-3	-172.321E-12	660.670E-3	-28.4233E-3	-173.261E-12	662.116E-3	-16.5748E-3
-4.10455E-3	-173.111E-12	663.380E-3	-31.1654E-3	-174.276E-12	664.025E-3	-12.9424E-3
-4.10955E-3	-173.824E-12	669.296E-3	-21.0296E-3	-174.804E-12	677.023E-3	-7.14920E-3
-4.11456E-3	-173.132E-12	682.321E-3	-17.0650E-3	-175.092E-12	654.801E-3	-3.71608E-3
-4.11956E-3	-173.979E-12	670.726E-3	2.13649E-3	-175.700E-12	633.508E-3	7.48370E-3
-4.12456E-3	-174.592E-12	619.548E-3	35.0659E-3	-175.558E-12	642.154E-3	-10.7861E-3
-4.12956E-3	-174.618E-12	606.791E-3	21.8162E-3	-175.067E-12	647.907E-3	-53.6811E-3
-4.13457E-3	-173.972E-12	665.637E-3	-1.03208E-3	-174.679E-12	639.371E-3	-39.0931E-3
-4.13957E-3	-174.379E-12	694.194E-3	6.56059E-3	-174.557E-12	634.663E-3	-1.05381E-3
-4.14457E-3	-174.563E-12	678.996E-3	-534.546E-6	-173.747E-12	632.015E-3	1.80830E-3
-4.14957E-3	-174.445E-12	691.317E-3	-12.8848E-3	-173.250E-12	628.332E-3	-18.2086E-3
-4.15458E-3	-173.974E-12	692.275E-3	14.2315E-3	-172.769E-12	635.266E-3	-31.6534E-3
-4.15958E-3	-174.240E-12	657.813E-3	28.1843E-3	-173.391E-12	637.219E-3	-24.0036E-3
-4.16458E-3	-173.912E-12	659.609E-3	6.71919E-3	-173.294E-12	626.808E-3	-25.9534E-3
-4.16958E-3	-174.046E-12	673.972E-3	2.00807E-3	-173.457E-12	632.193E-3	-61.8484E-3
-4.17459E-3	-174.709E-12	635.660E-3	-12.6201E-3	-174.066E-12	649.848E-3	-77.1833E-3
-4.17959E-3	-175.273E-12	615.960E-3	-29.3583E-3	-175.160E-12	666.959E-3	-34.8868E-3
-4.18459E-3	-176.130E-12	643.030E-3	-14.3116E-3	-174.521E-12	681.654E-3	-8.57723E-3
-4.18959E-3	-176.001E-12	653.924E-3	-26.1190E-3	-175.459E-12	676.403E-3	-29.9780E-3
-4.19460E-3	-177.640E-12	660.036E-3	-55.6269E-3	-176.556E-12	669.961E-3	-34.9732E-3
-4.19960E-3	-178.355E-12	671.564E-3	-48.3684E-3	-176.747E-12	679.208E-3	-12.3669E-3
-4.20460E-3	-179.053E-12	666.271E-3	-9.80976E-3	-177.386E-12	664.332E-3	4.95002E-3
-4.20960E-3	-179.396E-12	674.254E-3	3.65007E-3	-179.408E-12	636.519E-3	15.8721E-3
-4.21461E-3	-180.142E-12	701.043E-3	-19.0225E-3	-179.658E-12	642.909E-3	-3.69313E-3
-4.21961E-3	-180.290E-12	682.945E-3	-33.8053E-3	-180.357E-12	656.902E-3	-37.4317E-3
-4.22461E-3	-179.819E-12	647.877E-3	-27.1877E-3	-180.611E-12	669.225E-3	-54.2917E-3
-4.22961E-3	-179.876E-12	660.968E-3	-11.7307E-3	-181.788E-12	698.675E-3	-72.7043E-3
-4.23462E-3	-179.155E-12	670.794E-3	7.30940E-3	-181.629E-12	722.512E-3	-62.6416E-3
-4.23962E-3	-178.625E-12	658.909E-3	8.14194E-3	-182.106E-12	728.211E-3	-28.9535E-3
-4.24462E-3	-177.652E-12	669.291E-3	-26.4255E-3	-181.746E-12	712.501E-3	-29.0848E-3
-4.24962E-3	-177.733E-12	684.871E-3	-51.8399E-3	-181.405E-12	696.084E-3	-48.6302E-3
-4.25463E-3	-177.392E-12	682.103E-3	-69.0189E-3	-180.746E-12	698.164E-3	-26.3671E-3
-4.25963E-3	-177.396E-12	682.360E-3	-69.8816E-3	-179.762E-12	680.765E-3	17.5449E-3
-4.26463E-3	-177.671E-12	680.130E-3	-27.5273E-3	-179.515E-12	651.298E-3	5.54037E-3
-4.26963E-3	-177.985E-12	654.084E-3	-17.2456E-3	-178.908E-12	659.554E-3	-28.9527E-3
-4.27464E-3	-178.918E-12	637.430E-3	-32.9317E-3	-178.772E-12	684.442E-3	-28.4142E-3
-4.27964E-3	-179.121E-12	643.529E-3	-19.4469E-3	-178.020E-12	687.463E-3	-22.3030E-3
-4.28464E-3	-180.557E-12	662.907E-3	-29.2777E-3	-178.680E-12	659.201E-3	-22.6249E-3
-4.28964E-3	-182.541E-12	684.807E-3	-53.2367E-3	-178.170E-12	638.088E-3	-2.12523E-3
-4.29465E-3	-183.360E-12	682.447E-3	-61.2672E-3	-178.743E-12	652.243E-3	15.1211E-3
-4.29965E-3	-183.825E-12	651.446E-3	-53.5317E-3	-179.528E-12	665.518E-3	7.78150E-3
-4.30465E-3	-185.084E-12	630.475E-3	-31.7571E-3	-180.724E-12	678.663E-3	-519.174E-6
-4.30965E-3	-186.083E-12	646.975E-3	-42.8460E-3	-181.653E-12	693.675E-3	-19.6786E-3
-4.31466E-3	-185.291E-12	670.938E-3	-76.9173E-3	-182.853E-12	699.379E-3	-50.2954E-3
-4.31966E-3	-184.887E-12	680.615E-3	-73.3172E-3	-183.642E-12	709.737E-3	-48.7914E-3
-4.32466E-3	-184.690E-12	673.012E-3	-28.7911E-3	-185.083E-12	705.192E-3	-33.7644E-3
-4.32966E-3	-183.911E-12	665.892E-3	-9.07422E-3	-185.892E-12	692.923E-3	-31.1974E-3
-4.33467E-3	-182.608E-12	675.639E-3	-10.9235E-3	-185.653E-12	697.109E-3	-23.4394E-3
-4.33967E-3	-182.031E-12	681.107E-3	-656.912E-6	-185.633E-12	687.014E-3	-12.8011E-3
-4.34467E-3	-181.934E-12	658.456E-3	-13.8369E-3	-185.643E-12	653.430E-3	5.30574E-3
-4.34967E-3	-181.761E-12	625.915E-3	-30.9063E-3	-184.877E-12	635.728E-3	-11.3332E-3
-4.35468E-3	-181.798E-12	633.146E-3	-25.1801E-3	-184.013E-12	656.163E-3	-64.3363E-3
-4.35968E-3	-181.981E-12	672.596E-3	-21.9398E-3	-183.166E-12	671.629E-3	-73.9642E-3
-4.36468E-3	-182.821E-12	700.379E-3	-25.6450E-3	-182.542E-12	666.314E-3	-28.0656E-3
-4.36968E-3	-183.185E-12	699.405E-3	-29.2875E-3	-181.460E-12	652.474E-3	4.24193E-3
-4.37469E-3	-183.999E-12	653.904E-3	-22.7109E-3	-181.236E-12	627.381E-3	-14.6806E-3
-4.37969E-3	-185.658E-12	633.853E-3	-6.62323E-3	-181.455E-12	614.493E-3	-11.9528E-3
-4.38469E-3	-186.773E-12	672.078E-3	5.45639E-3	-182.180E-12	629.601E-3	14.4888E-3
-4.38969E-3	-186.630E-12	681.279E-3	-4.73476E-3	-181.957E-12	648.284E-3	-6.11715E-3
-4.39470E-3	-186.981E-12	658.455E-3	-25.1247E-3	-183.536E-12	646.421E-3	-26.3959E-3
-4.39970E-3	-189.025E-12	658.061E-3	-19.4243E-3	-184.710E-12	639.796E-3	-29.4508E-3
-4.40470E-3	-188.551E-12	662.623E-3	13.0356E-3	-185.479E-12	644.211E-3	-43.9010E-3
-4.40970E-3	-187.727E-12	656.667E-3	20.1369E-3	-186.034E-12	652.844E-3	-38.8878E-3
-4.41471E-3	-188.433E-12	660.903E-3	-4.76520E-3	-187.729E-12	649.946E-3	-3.97687E-3
-4.41971E-3	-188.195E-12	658.360E-3	-9.71684E-3	-188.822E-12	667.285E-3	25.7792E-3
-4.42471E-3	-187.662E-12	648.941E-3	-18.3447E-3	-189.023E-12	693.863E-3	21.6171E-3
-4.42971E-3	-186.972E-12	647.057E-3	-24.7062E-3	-189.408E-12	667.043E-3	-9.61495E-3
-4.43472E-3	-186.377E-12	660.999E-3	-3.34721E-3	-189.879E-12	617.501E-3	-47.7228E-3
-4.43972E-3	-186.863E-12	665.521E-3	-8.73619E-3	-189.675E-12	618.681E-3	-59.2198E-3
-4.44472E-3	-185.476E-12	647.235E-3	-29.6607E-3	-189.240E-12	668.942E-3	-31.3647E-3
-4.44972E-3	-186.527E-12	644.883E-3	-30.3298E-3	-188.893E-12	698.679E-3	-13.8296E-3
-4.45473E-3	-186.047E-12	649.568E-3	-35.7228E-3	-188.458E-12	687.822E-3	-33.1398E-3
-4.45973E-3	-187.349E-12	654.114E-3	-45.6917E-3	-187.956E-12	675.306E-3	-50.3299E-3
-4.46473E-3	-186.541E-12	668.645E-3	-36.5424E-3	-187.472E-12	664.287E-3	-38.6432E-3
-4.46973E-3	-188.516E-12	648.803E-3	-13.8731E-3	-187.195E-12	643.251E-3	-23.0435E-3
-4.47474E-3	-188.662E-12	622.623E-3	-3.14882E-3	-186.801E-12	625.811E-3	-16.8512E-3
-4.47974E-3	-190.264E-12	639.801E-3	9.19432E-3	-186.998E-12	625.742E-3	-16.2757E-3
-4.48474E-3	-190.093E-12	642.018E-3	14.5905E-3	-187.797E-12	620.832E-3	-23.3509E-3
-4.48974E-3	-190.784E-12	628.602E-3	-9.85226E-3	-188.555E-12	614.882E-3	-20.3848E-3
-4.49475E-3	-190.951E-12	634.659E-3	-33.5219E-3	-188.854E-12	625.807E-3	-21.7006E-3
-4.49975E-3	-191.651E-12	649.796E-3	-37.2962E-3	-189.649E-12	635.964E-3	-37.4275E-3
-4.50475E-3	-191.903E-12	675.886E-3	-42.5223E-3	-189.628E-12	634.004E-3	-48.3699E-3
-4.50975E-3	-192.485E-12	701.295E-3	-49.4597E-3	-190.524E-12	617.542E-3	-57.0045E-3
-4.51476E-3	-192.668E-12	713.785E-3	-34.6902E-3	-191.360E-12	617.549E-3	-46.7627E-3
-4.51976E-3	-192.761E-12	710.974E-3	-14.4735E-3	-191.245E-12	652.172E-3	-18.5100E-3
-4.52476E-3	-192.743E-12	675.923E-3	-8.36348E-3	-191.918E-12	679.664E-3	-10.8824E-3
-4.52976E-3	-193.451E-12	630.148E-3	-20.2651E-3	-192.637E-12	669.157E-3	-41.4048E-3
-4.53477E-3	-194.134E-12	618.068E-3	-30.5889E-3	-192.220E-12	652.718E-3	-68.1694E-3
-4.53977E-3	-193.333E-12	651.571E-3	-25.2072E-3	-192.828E-12	671.758E-3	-58.1536E-3
-4.54477E-3	-194.031E-12	704.517E-3	-37.1313E-3	-193.141E-12	668.804E-3	-34.8687E-3
-4.54977E-3	-193.961E-12	723.439E-3	-54.8286E-3	-192.718E-12	626.915E-3	-18.2647E-3
-4.55478E-3	-194.105E-12	687.478E-3	-51.0717E-3	-192.069E-12	620.112E-3	-7.19213E-3
-4.55978E-3	-193.478E-12	646.139E-3	-49.5647E-3	-192.543E-12	640.504E-3	5.03000E-3
-4.56478E-3	-193.686E-12	655.425E-3	-52.8744E-3	-192.732E-12	650.334E-3	10.8248E-3
-4.56978E-3	-194.327E-12	676.695E-3	-36.0414E-3	-192.438E-12	659.629E-3	24.8624E-3
-4.57479E-3	-193.954E-12	667.524E-3	-29.9780E-3	-193.415E-12	661.125E-3	22.7143E-3
-4.57979E-3	-194.341E-12	662.422E-3	-35.2831E-3	-193.657E-12	633.053E-3	-13.2156E-3
-4.58479E-3	-194.517E-12	674.831E-3	-15.9376E-3	-194.004E-12	621.573E-3	-26.6588E-3
-4.58979E-3	-193.792E-12	677.339E-3	-14.9204E-3	-193.977E-12	647.260E-3	-13.9018E-3
-4.59480E-3	-193.547E-12	684.650E-3	-48.8513E-3	-194.711E-12	638.980E-3	-4.06674E-3
-4.59980E-3	-194.832E-12	709.875E-3	-62.1514E-3	-195.496E-12	634.174E-3	-2.30458E-3
-4.60480E-3	-195.080E-12	681.144E-3	-37.8154E-3	-195.327E-12	669.562E-3	-3.83956E-3
-4.60980E-3	-195.915E-12	616.488E-3	-27.4096E-3	-195.926E-12	683.174E-3	-3.32288E-3
-4.61481E-3	-196.278E-12	616.489E-3	-43.6033E-3	-196.172E-12	685.111E-3	-1.53574E-3
-4.61981E-3	-197.926E-12	667.816E-3	-38.1202E-3	-197.671E-12	688.020E-3	4.58824E-3
-4.62481E-3	-198.084E-12	696.736E-3	-12.7833E-3	-197.298E-12	674.312E-3	9.09229E-3
-4.62981E-3	-198.367E-12	707.262E-3	1.28422E-3	-197.591E-12	656.346E-3	12.1188E-3
-4.63482E-3	-199.191E-12	701.285E-3	29.5733E-3	-198.141E-12	659.051E-3	-2.87498E-3
-4.63982E-3	-198.875E-12	658.337E-3	37.1659E-3	-198.126E-12	677.909E-3	-24.2827E-3
-4.64482E-3	-197.677E-12	642.845E-3	-8.12976E-3	-197.462E-12	689.528E-3	-5.37796E-3
-4.64982E-3	-197.571E-12	659.022E-3	-13.3372E-3	-198.287E-12	680.424E-3	10.7981E-3
-4.65483E-3	-197.725E-12	656.821E-3	6.07049E-3	-198.431E-12	665.619E-3	-10.2026E-3
-4.65983E-3	-196.445E-12	640.797E-3	-17.0702E-3	-198.057E-12	664.853E-3	-34.2099E-3
-4.66483E-3	-196.179E-12	637.012E-3	-33.6043E-3	-198.314E-12	661.409E-3	-47.5499E-3
-4.66983E-3	-195.057E-12	663.073E-3	-24.4531E-3	-198.719E-12	646.088E-3	-36.2578E-3
-4.67484E-3	-194.586E-12	674.560E-3	-33.7283E-3	-198.096E-12	635.366E-3	1.13895E-3
-4.67984E-3	-194.254E-12	638.342E-3	-39.7465E-3	-197.404E-12	628.041E-3	13.8558E-3
-4.68484E-3	-193.688E-12	592.666E-3	-25.4467E-3	-197.178E-12	624.205E-3	-31.4078E-3
-4.68984E-3	-194.336E-12	593.222E-3	-19.2624E-3	-197.361E-12	629.703E-3	-85.7826E-3
-4.69485E-3	-195.773E-12	628.621E-3	-8.15239E-3	-197.236E-12	652.659E-3	-73.9213E-3
-4.69985E-3	-196.491E-12	637.790E-3	1.64124E-3	-196.342E-12	662.220E-3	-21.1566E-3
-4.70485E-3	-198.441E-12	623.915E-3	-8.17457E-3	-196.874E-12	649.462E-3	5.68689E-3
-4.70985E-3	-199.555E-12	633.856E-3	-7.49814E-3	-196.975E-12	649.947E-3	5.43824E-3
-4.71486E-3	-201.651E-12	649.641E-3	10.4550E-3	-197.470E-12	659.477E-3	-20.2592E-3
-4.71986E-3	-202.347E-12	649.466E-3	11.6091E-3	-197.918E-12	678.761E-3	-60.9322E-3
-4.72486E-3	-203.827E-12	647.601E-3	6.96167E-3	-199.094E-12	709.444E-3	-61.7875E-3
-4.72986E-3	-204.003E-12	626.522E-3	6.45815E-3	-200.190E-12	713.553E-3	-22.7809E-3
-4.73487E-3	-204.606E-12	624.710E-3	-21.5071E-3	-200.780E-12	677.948E-3	5.08071E-3
-4.73987E-3	-204.465E-12	666.158E-3	-34.5051E-3	-201.290E-12	659.876E-3	-3.68289E-3
-4.74487E-3	-204.572E-12	686.457E-3	-18.9562E-3	-202.504E-12	678.914E-3	-22.8111E-3
-4.74988E-3	-203.975E-12	677.084E-3	-7.21516E-3	-202.985E-12	681.633E-3	-26.8078E-3
-4.75488E-3	-202.425E-12	697.010E-3	-5.72757E-3	-202.966E-12	661.954E-3	-14.4272E-3
-4.75988E-3	-201.924E-12	722.325E-3	-19.8179E-3	-203.352E-12	665.179E-3	-18.4103E-3
-4.76488E-3	-201.309E-12	700.110E-3	-15.6860E-3	-202.455E-12	643.440E-3	-41.1408E-3
-4.76988E-3	-200.114E-12	674.984E-3	2.17391E-3	-202.179E-12	612.748E-3	-29.3797E-3
-4.77489E-3	-199.147E-12	658.651E-3	-3.44949E-3	-201.055E-12	631.481E-3	-20.0400E-3
-4.77989E-3	-199.401E-12	645.271E-3	-23.0986E-3	-201.318E-12	647.227E-3	-19.4665E-3
-4.78489E-3	-199.281E-12	650.299E-3	-24.7939E-3	-200.116E-12	661.514E-3	-12.1071E-3
-4.78989E-3	-200.169E-12	655.110E-3	-15.4669E-3	-200.021E-12	687.437E-3	-30.0115E-3
-4.79490E-3	-201.016E-12	641.762E-3	-13.7170E-3	-199.813E-12	681.711E-3	-46.8937E-3
-4.79990E-3	-202.705E-12	620.942E-3	-13.9671E-3	-201.306E-12	664.083E-3	-31.0001E-3
-4.80490E-3	-203.997E-12	610.999E-3	-10.3607E-3	-201.286E-12	682.971E-3	-24.6034E-3
-4.80990E-3	-204.285E-12	627.172E-3	-20.3734E-3	-202.383E-12	694.809E-3	-37.4934E-3
-4.81491E-3	-206.071E-12	666.187E-3	-41.0513E-3	-203.237E-12	667.354E-3	-11.8527E-3
-4.81991E-3	-206.723E-12	695.085E-3	-46.1268E-3	-204.338E-12	651.833E-3	20.4156E-3
-4.82491E-3	-207.610E-12	694.881E-3	-36.4773E-3	-206.033E-12	664.393E-3	4.47343E-3
-4.82991E-3	-208.214E-12	680.434E-3	-36.4780E-3	-207.406E-12	660.763E-3	-22.7431E-3
-4.83492E-3	-208.789E-12	660.990E-3	-70.0374E-3	-208.697E-12	661.264E-3	-37.5749E-3
-4.83992E-3	-208.702E-12	638.239E-3	-81.3369E-3	-209.590E-12	683.336E-3	-49.1929E-3
-4.84492E-3	-207.444E-12	628.211E-3	-56.9430E-3	-209.288E-12	671.971E-3	-45.6824E-3
-4.84992E-3	-207.308E-12	614.490E-3	-51.3495E-3	-209.519E-12	656.514E-3	-28.0616E-3
-4.85493E-3	-206.185E-12	586.158E-3	-39.1871E-3	-209.154E-12	670.734E-3	-21.0385E-3
-4.85993E-3	-205.898E-12	612.364E-3	2.83494E-3	-208.999E-12	668.657E-3	-32.5568E-3
-4.86493E-3	-204.445E-12	676.993E-3	20.2522E-3	-206.766E-12	647.131E-3	-37.2527E-3
-4.86993E-3	-204.279E-12	698.096E-3	-7.69391E-3	-206.409E-12	629.442E-3	-16.8849E-3
-4.87494E-3	-204.675E-12	683.429E-3	-26.0521E-3	-205.503E-12	626.563E-3	-3.02782E-3
-4.87994E-3	-204.170E-12	658.305E-3	-6.98686E-3	-204.591E-12	642.275E-3	-4.54656E-3
-4.88494E-3	-205.389E-12	635.590E-3	17.7334E-3	-204.508E-12	658.370E-3	-8.91255E-3
-4.88995E-3	-204.989E-12	629.382E-3	570.800E-6	-204.403E-12	654.718E-3	-16.7588E-3
-4.89495E-3	-206.004E-12	639.632E-3	-41.9415E-3	-204.609E-12	658.071E-3	-10.7130E-3
-4.89995E-3	-205.378E-12	649.319E-3	-54.1440E-3	-203.794E-12	671.340E-3	-428.572E-6
-4.90495E-3	-205.824E-12	670.192E-3	-53.4110E-3	-204.439E-12	655.293E-3	5.94015E-3
-4.90995E-3	-207.005E-12	709.150E-3	-54.9198E-3	-205.130E-12	631.692E-3	-901.211E-6
-4.91496E-3	-208.183E-12	711.774E-3	-35.4690E-3	-206.380E-12	636.220E-3	-38.4917E-3
-4.91996E-3	-208.508E-12	680.626E-3	-29.9838E-3	-208.007E-12	652.118E-3	-68.5338E-3
-4.92496E-3	-209.915E-12	660.171E-3	-57.1419E-3	-209.907E-12	672.453E-3	-45.5473E-3
-4.92996E-3	-211.363E-12	636.661E-3	-63.0101E-3	-210.774E-12	686.926E-3	-12.6124E-3
-4.93497E-3	-211.145E-12	625.444E-3	-45.2402E-3	-211.391E-12	679.878E-3	-23.8898E-3
-4.93997E-3	-212.780E-12	643.646E-3	-55.3851E-3	-211.810E-12	659.193E-3	-39.7357E-3
-4.94497E-3	-212.936E-12	664.588E-3	-68.5024E-3	-212.277E-12	645.616E-3	-14.3205E-3
-4.94997E-3	-212.499E-12	673.256E-3	-67.3166E-3	-212.166E-12	639.534E-3	21.3016E-3
-4.95498E-3	-212.391E-12	677.355E-3	-51.3790E-3	-211.728E-12	621.140E-3	22.7531E-3
-4.95998E-3	-211.940E-12	686.310E-3	-3.03572E-3	-210.932E-12	598.885E-3	3.98682E-3
-4.96498E-3	-212.350E-12	675.814E-3	13.8729E-3	-211.347E-12	602.146E-3	-2.65094E-3
-4.96998E-3	-212.443E-12	672.299E-3	-4.70388E-3	-210.982E-12	632.659E-3	-2.84914E-3
-4.97499E-3	-212.645E-12	687.359E-3	-3.83574E-3	-210.859E-12	661.617E-3	-10.4748E-3
-4.97999E-3	-211.896E-12	673.634E-3	18.7371E-3	-210.537E-12	672.127E-3	-24.7054E-3
-4.98499E-3	-212.666E-12	655.000E-3	19.6254E-3	-211.185E-12	638.733E-3	-32.6215E-3
-4.98999E-3	-211.040E-12	666.671E-3	-4.38515E-3	-210.658E-12	599.836E-3	-12.6224E-3
-4.99500E-3	-210.876E-12	682.686E-3	4.97394E-3	-211.103E-12	619.509E-3	-14.0207E-3
-5.00000E-3	-211.155E-12	680.721E-3	-2.03016E-3	-211.522E-12	659.864E-3	-29.9040E-3
