Experiment	bias spectroscopy	
Date	19.01.2016 20:56:58	
User		
X (m)	49.7742E-9	
Y (m)	256.965E-9	
Z (m)	-132.544E-9	
Z offset (m)	0E+0	
Settling time (s)	200E-6	
Integration time (s)	5E-3	
Z-Ctrl hold	TRUE	
Final Z (m)	N/A	
Filter type	None	
Order		
Cutoff frq		
Comment01	MnPc/Pb(111)	
Comment02	dz =00pm	
Comment03	7 Sweeps	
Comment04	MagField =0.T	
Comment05	Divider 1:10	
Comment06	Setpoint:5mV,200 pA	
Comment07	Lockin: 50uVrms,5ms,5mV	
Comment08	Gain:9; 912Hz modulation	
Comment09	T=1.06K	
Bias>Bias (V)	5E-3	
Bias>Calibration (V/V)	81.475E-3	
Bias>Offset (V)	1.046E-3	
Bias Spectroscopy>Sweep Start (V)	5E-3	
Bias Spectroscopy>Sweep End (V)	-5E-3	
Bias Spectroscopy>Num Pixel	2000	
Bias Spectroscopy>Z Avg time (s)	500E-3	
Bias Spectroscopy>Z offset (m)	0E+0	
Bias Spectroscopy>1st Settling time (s)	500E-3	
Bias Spectroscopy>Settling time (s)	200E-6	
Bias Spectroscopy>Integration time (s)	5E-3	
Bias Spectroscopy>End Settling time (s)	500E-3	
Bias Spectroscopy>Z control time (s)	500E-3	
Bias Spectroscopy>Max Slew rate (V/s)	Inf	
Bias Spectroscopy>backward sweep	TRUE	
Bias Spectroscopy>Z-controller hold	TRUE	
Bias Spectroscopy>Number of sweeps	7	
Bias Spectroscopy>Channels	Current (A);X% LockIn (V);Y% LockIn (V)	
Bias Spectroscopy>Reset Bias	TRUE	
Bias Spectroscopy>Record final Z	FALSE	
Bias Spectroscopy>Lock-In run	FALSE	
Bias Spectroscopy>Sweep mode	Linear	
Bias Spectroscopy>MultiLine Settings : Segment Start (V), Segment End (V), Settling (s), Integration (s), Steps (xn)	100E-3,3.3E-3,100E-6,10E-3,2500;3.3E-3,-3.3E-3,100E-6,10E-3,10;-3.3E-3,-100E-3,100E-6,10E-3,2500	
Current>Current (A)	200.097E-12	
Current>Calibration (A/V)	999.99900E-12	
Current>Offset (A)	-455.429E-15	
Current>Gain	LN 10^9	
Z-Controller>Z (m)	-132.543E-9	
Z-Controller>Controller name	log Current	
Z-Controller>Controller status	ON	
Z-Controller>Setpoint	200E-12	
Z-Controller>Setpoint unit	A	
Z-Controller>P gain	2.96994E-12	
Z-Controller>I gain	67.0321E-9	
Z-Controller>Time const (s)	44.3062E-6	
Z-Controller>TipLift (m)	0E+0	
Z-Controller>Switch off delay (s)	50E-3	
Current (A)	199.979E-12	
Z (m)	-132.543E-9	

[DATA]
Bias calc (V)	Current (A)	X% LockIn (V)	Y% LockIn (V)	Current [bwd] (A)	X% LockIn [bwd] (V)	Y% LockIn [bwd] (V)
5.00000E-3	202.078E-12	523.163E-3	-12.4461E-3	201.746E-12	526.593E-3	-3.77991E-3
4.99500E-3	201.625E-12	542.175E-3	2.54016E-3	201.877E-12	554.517E-3	1.66029E-3
4.98999E-3	202.617E-12	552.554E-3	-16.2020E-3	201.583E-12	535.368E-3	-4.71380E-3
4.98499E-3	200.237E-12	518.605E-3	-27.7545E-3	199.935E-12	501.881E-3	-14.8166E-3
4.97999E-3	199.310E-12	524.679E-3	-24.7257E-3	198.231E-12	516.900E-3	-30.8207E-3
4.97499E-3	197.758E-12	555.849E-3	-25.0647E-3	198.770E-12	532.764E-3	-20.0412E-3
4.96998E-3	198.007E-12	563.014E-3	-4.03826E-3	197.427E-12	523.966E-3	-1.68230E-3
4.96498E-3	196.818E-12	567.293E-3	24.1430E-3	196.842E-12	513.968E-3	-12.1334E-3
4.95998E-3	197.494E-12	570.797E-3	23.0375E-3	195.221E-12	512.923E-3	-16.2421E-3
4.95498E-3	196.121E-12	573.730E-3	24.2755E-3	195.327E-12	536.622E-3	2.74091E-3
4.94997E-3	196.555E-12	575.015E-3	4.76803E-3	195.575E-12	581.474E-3	7.25857E-3
4.94497E-3	197.404E-12	552.892E-3	-22.4058E-3	195.123E-12	612.233E-3	-9.10995E-3
4.93997E-3	196.474E-12	517.485E-3	-29.2081E-3	195.103E-12	594.462E-3	-11.9950E-3
4.93497E-3	198.106E-12	511.984E-3	-34.5950E-3	194.166E-12	554.338E-3	-10.4160E-3
4.92996E-3	199.071E-12	535.743E-3	-35.8218E-3	197.170E-12	559.318E-3	-9.82649E-3
4.92496E-3	200.638E-12	553.809E-3	-17.7738E-3	196.224E-12	584.292E-3	-5.42868E-3
4.91996E-3	198.771E-12	583.567E-3	5.14996E-3	196.421E-12	562.104E-3	-12.7011E-3
4.91496E-3	198.854E-12	596.020E-3	9.91874E-3	196.560E-12	537.665E-3	-11.0986E-3
4.90995E-3	199.698E-12	565.774E-3	6.94788E-3	198.965E-12	548.903E-3	-14.3693E-3
4.90495E-3	199.071E-12	532.937E-3	8.95942E-3	199.268E-12	570.666E-3	-48.4382E-3
4.89995E-3	196.694E-12	540.302E-3	-5.65846E-3	198.183E-12	592.763E-3	-59.4386E-3
4.89495E-3	194.660E-12	576.685E-3	-26.1322E-3	197.709E-12	592.048E-3	-40.5155E-3
4.88995E-3	195.401E-12	581.763E-3	-23.5780E-3	198.332E-12	557.792E-3	-37.8789E-3
4.88494E-3	195.863E-12	557.473E-3	-18.5768E-3	198.559E-12	522.762E-3	-40.8159E-3
4.87994E-3	193.761E-12	525.806E-3	-15.8341E-3	196.800E-12	519.974E-3	-38.1458E-3
4.87494E-3	191.658E-12	531.868E-3	-17.5154E-3	195.546E-12	525.778E-3	-25.8442E-3
4.86993E-3	192.483E-12	567.985E-3	-14.9654E-3	194.118E-12	531.784E-3	-2.86334E-3
4.86493E-3	192.980E-12	564.409E-3	-595.520E-6	193.405E-12	528.563E-3	6.13505E-3
4.85993E-3	192.406E-12	540.496E-3	22.9050E-3	193.649E-12	517.724E-3	-12.2399E-3
4.85493E-3	192.576E-12	544.925E-3	21.7417E-3	193.437E-12	537.653E-3	-38.9097E-3
4.84992E-3	193.503E-12	557.300E-3	-9.73680E-3	193.085E-12	555.265E-3	-36.5922E-3
4.84492E-3	196.768E-12	539.177E-3	-13.0703E-3	193.663E-12	559.510E-3	-7.65904E-3
4.83992E-3	195.766E-12	519.219E-3	-11.1760E-3	193.334E-12	566.873E-3	5.36244E-3
4.83492E-3	195.355E-12	528.317E-3	-20.0411E-3	193.641E-12	565.176E-3	-4.45022E-3
4.82991E-3	195.375E-12	515.544E-3	-34.3550E-3	192.893E-12	551.028E-3	3.78547E-3
4.82491E-3	197.168E-12	507.796E-3	-53.7369E-3	193.760E-12	547.197E-3	21.2199E-3
4.81991E-3	197.770E-12	549.085E-3	-58.6410E-3	193.557E-12	558.911E-3	25.7300E-3
4.81491E-3	196.883E-12	553.016E-3	-33.3045E-3	194.038E-12	545.496E-3	19.5723E-3
4.80990E-3	194.974E-12	547.886E-3	-17.0536E-3	193.420E-12	511.660E-3	3.84427E-3
4.80490E-3	193.145E-12	567.735E-3	-36.4031E-3	192.383E-12	512.041E-3	-2.67033E-3
4.79990E-3	194.121E-12	557.933E-3	-31.8445E-3	194.074E-12	534.296E-3	-12.8177E-3
4.79490E-3	195.040E-12	542.864E-3	-8.10371E-3	192.361E-12	521.857E-3	-25.1567E-3
4.78989E-3	193.365E-12	540.074E-3	342.276E-6	191.372E-12	517.932E-3	-21.7812E-3
4.78489E-3	191.484E-12	525.893E-3	9.32208E-3	190.570E-12	544.374E-3	-18.8356E-3
4.77989E-3	190.602E-12	522.793E-3	22.6085E-3	190.171E-12	536.979E-3	-33.7768E-3
4.77489E-3	194.369E-12	544.840E-3	10.2769E-3	190.620E-12	538.417E-3	-50.5165E-3
4.76988E-3	193.915E-12	559.334E-3	-15.3740E-3	190.565E-12	567.868E-3	-53.9887E-3
4.76488E-3	191.255E-12	561.308E-3	-31.1164E-3	190.707E-12	568.319E-3	-43.0050E-3
4.75988E-3	190.164E-12	583.588E-3	-51.5343E-3	187.954E-12	579.423E-3	-25.8149E-3
4.75488E-3	192.403E-12	605.683E-3	-73.4681E-3	189.842E-12	606.906E-3	-27.8522E-3
4.74988E-3	193.241E-12	587.416E-3	-58.5804E-3	190.486E-12	593.025E-3	-37.6840E-3
4.74487E-3	192.714E-12	579.203E-3	-24.3560E-3	190.325E-12	558.815E-3	-29.7201E-3
4.73987E-3	192.310E-12	596.968E-3	-5.42711E-3	188.611E-12	539.199E-3	-5.67139E-3
4.73487E-3	192.262E-12	595.956E-3	-13.0939E-3	186.964E-12	539.100E-3	19.6553E-3
4.72986E-3	193.927E-12	581.916E-3	-24.6093E-3	190.421E-12	549.736E-3	-3.16368E-3
4.72486E-3	194.423E-12	573.250E-3	-21.4922E-3	190.100E-12	555.059E-3	-62.8802E-3
4.71986E-3	192.593E-12	569.029E-3	-32.1748E-3	187.084E-12	548.903E-3	-74.0005E-3
4.71486E-3	191.700E-12	580.989E-3	-23.1077E-3	186.197E-12	535.013E-3	-60.9366E-3
4.70985E-3	191.296E-12	578.498E-3	22.1586E-3	189.511E-12	532.582E-3	-63.2549E-3
4.70485E-3	192.490E-12	556.425E-3	42.3682E-3	188.887E-12	515.617E-3	-56.5588E-3
4.69985E-3	190.424E-12	562.298E-3	31.8990E-3	188.207E-12	503.837E-3	-32.4982E-3
4.69485E-3	187.614E-12	567.576E-3	14.1912E-3	187.104E-12	542.771E-3	-6.50427E-3
4.68984E-3	187.803E-12	535.855E-3	-24.4572E-3	189.116E-12	570.599E-3	-15.1222E-3
4.68484E-3	189.850E-12	498.249E-3	-28.8859E-3	190.921E-12	572.000E-3	-13.0126E-3
4.67984E-3	190.800E-12	500.236E-3	4.67267E-3	189.592E-12	596.075E-3	22.3234E-3
4.67484E-3	186.122E-12	530.882E-3	3.54568E-3	188.695E-12	609.238E-3	-4.82930E-3
4.66983E-3	186.246E-12	562.833E-3	-5.89161E-3	188.541E-12	599.107E-3	-49.8366E-3
4.66483E-3	187.948E-12	580.313E-3	-723.999E-6	189.645E-12	615.902E-3	-14.2565E-3
4.65983E-3	189.797E-12	586.782E-3	6.67073E-3	189.041E-12	636.582E-3	28.9377E-3
4.65483E-3	188.042E-12	587.533E-3	12.7681E-3	188.268E-12	621.429E-3	29.2215E-3
4.64982E-3	186.714E-12	561.019E-3	818.456E-6	186.402E-12	590.468E-3	19.0880E-3
4.64482E-3	186.052E-12	539.657E-3	-31.2185E-3	185.684E-12	566.774E-3	-15.2942E-3
4.63982E-3	187.256E-12	538.687E-3	-37.2159E-3	185.220E-12	560.681E-3	-38.0718E-3
4.63482E-3	188.224E-12	533.507E-3	-16.0648E-3	183.945E-12	560.279E-3	-30.8278E-3
4.62981E-3	186.556E-12	528.417E-3	8.44600E-3	183.108E-12	549.092E-3	-38.1435E-3
4.62481E-3	185.666E-12	528.337E-3	6.70700E-3	181.430E-12	554.590E-3	-39.9360E-3
4.61981E-3	186.050E-12	524.009E-3	-15.8410E-3	182.537E-12	574.193E-3	-33.9226E-3
4.61481E-3	189.460E-12	521.893E-3	-9.57369E-3	183.862E-12	579.808E-3	-35.5359E-3
4.60980E-3	187.355E-12	517.466E-3	-4.44726E-3	181.969E-12	564.519E-3	-45.1651E-3
4.60480E-3	185.375E-12	519.602E-3	-24.5523E-3	180.193E-12	546.389E-3	-33.3074E-3
4.59980E-3	185.292E-12	539.734E-3	-38.0516E-3	183.428E-12	574.150E-3	14.5054E-3
4.59480E-3	187.653E-12	559.340E-3	-26.4619E-3	186.735E-12	627.929E-3	44.9130E-3
4.58979E-3	187.629E-12	560.528E-3	-11.5767E-3	186.374E-12	611.417E-3	28.7665E-3
4.58479E-3	185.440E-12	546.886E-3	2.67019E-3	186.290E-12	551.943E-3	-11.4377E-3
4.57979E-3	183.122E-12	557.085E-3	7.09672E-3	187.945E-12	520.285E-3	-45.3165E-3
4.57479E-3	184.313E-12	571.136E-3	-23.6938E-3	189.648E-12	518.743E-3	-56.7619E-3
4.56978E-3	185.319E-12	559.182E-3	-53.8465E-3	188.844E-12	552.436E-3	-27.5057E-3
4.56478E-3	183.358E-12	553.701E-3	-37.9180E-3	186.899E-12	575.207E-3	14.0348E-3
4.55978E-3	181.135E-12	568.109E-3	-21.1679E-3	184.254E-12	548.980E-3	11.0024E-3
4.55478E-3	182.180E-12	565.519E-3	-28.7841E-3	184.847E-12	524.766E-3	-21.5710E-3
4.54977E-3	183.938E-12	532.479E-3	-9.09072E-3	184.770E-12	538.163E-3	-24.7691E-3
4.54477E-3	184.766E-12	523.940E-3	4.73133E-3	181.959E-12	567.607E-3	-2.40856E-3
4.53977E-3	182.803E-12	562.654E-3	-11.8162E-3	179.828E-12	585.078E-3	-1.92256E-3
4.53477E-3	182.458E-12	574.705E-3	-13.4963E-3	180.016E-12	574.857E-3	-20.3549E-3
4.52976E-3	183.554E-12	553.904E-3	3.01443E-3	179.401E-12	548.428E-3	-17.1011E-3
4.52476E-3	187.123E-12	556.892E-3	13.7939E-3	177.944E-12	533.739E-3	8.40169E-3
4.51976E-3	185.135E-12	573.893E-3	19.1707E-3	178.974E-12	532.761E-3	9.41029E-3
4.51476E-3	184.028E-12	581.523E-3	8.05199E-3	178.071E-12	534.841E-3	-4.78680E-3
4.50975E-3	184.419E-12	575.307E-3	-15.8534E-3	179.780E-12	543.436E-3	-7.58527E-3
4.50475E-3	187.479E-12	570.763E-3	-16.8467E-3	179.411E-12	549.026E-3	14.0768E-3
4.49975E-3	186.828E-12	555.357E-3	3.79129E-3	180.035E-12	555.039E-3	39.8961E-3
4.49475E-3	184.140E-12	541.300E-3	17.9658E-3	183.157E-12	570.187E-3	13.8070E-3
4.48974E-3	182.190E-12	547.239E-3	-1.49772E-3	185.493E-12	582.231E-3	-26.1871E-3
4.48474E-3	183.164E-12	544.032E-3	-15.1514E-3	184.473E-12	584.220E-3	-31.9900E-3
4.47974E-3	184.525E-12	541.277E-3	7.48962E-3	185.686E-12	583.376E-3	-25.9617E-3
4.47474E-3	181.637E-12	551.853E-3	50.7283E-3	187.585E-12	580.396E-3	-25.0009E-3
4.46973E-3	180.229E-12	564.532E-3	71.2710E-3	186.311E-12	594.002E-3	-34.3709E-3
4.46473E-3	180.323E-12	581.509E-3	43.4073E-3	184.318E-12	607.678E-3	-38.5392E-3
4.45973E-3	180.596E-12	582.218E-3	19.5348E-3	182.326E-12	569.106E-3	-34.1842E-3
4.45473E-3	182.102E-12	538.416E-3	2.56238E-3	181.687E-12	518.330E-3	-39.1578E-3
4.44972E-3	179.173E-12	502.337E-3	-10.7311E-3	181.989E-12	526.056E-3	-32.1877E-3
4.44472E-3	180.428E-12	517.505E-3	3.72582E-3	179.604E-12	568.522E-3	-20.2030E-3
4.43972E-3	181.141E-12	547.702E-3	3.83738E-3	177.769E-12	550.776E-3	-14.2368E-3
4.43472E-3	180.866E-12	554.939E-3	-19.3861E-3	175.753E-12	493.841E-3	-4.06866E-3
4.42971E-3	179.796E-12	557.665E-3	-3.97032E-3	175.688E-12	493.424E-3	-23.3924E-3
4.42471E-3	180.849E-12	561.088E-3	19.3121E-3	174.749E-12	513.294E-3	-50.2135E-3
4.41971E-3	182.074E-12	561.517E-3	-4.87925E-3	173.315E-12	525.699E-3	-49.9200E-3
4.41471E-3	181.428E-12	555.700E-3	-62.1503E-3	172.533E-12	559.223E-3	-41.2711E-3
4.40970E-3	180.033E-12	543.903E-3	-79.0627E-3	173.898E-12	577.112E-3	-40.7254E-3
4.40470E-3	179.348E-12	551.629E-3	-41.7797E-3	174.854E-12	562.500E-3	-35.7098E-3
4.39970E-3	180.603E-12	555.058E-3	-4.45755E-3	174.744E-12	569.099E-3	-29.7245E-3
4.39470E-3	179.996E-12	548.539E-3	-4.09879E-3	175.262E-12	593.442E-3	-34.9650E-3
4.38969E-3	177.703E-12	534.615E-3	-26.9185E-3	176.520E-12	581.633E-3	-25.4003E-3
4.38469E-3	175.440E-12	535.485E-3	-16.2634E-3	177.011E-12	536.111E-3	-14.5495E-3
4.37969E-3	175.771E-12	561.736E-3	2.09439E-3	177.064E-12	521.199E-3	-15.6549E-3
4.37469E-3	176.522E-12	574.375E-3	12.5279E-3	176.873E-12	538.165E-3	-7.24002E-3
4.36968E-3	174.543E-12	587.072E-3	21.0090E-3	178.086E-12	543.827E-3	-10.9067E-3
4.36468E-3	173.153E-12	600.509E-3	-1.17660E-3	178.168E-12	553.884E-3	-39.9254E-3
4.35968E-3	172.637E-12	581.579E-3	-33.7877E-3	178.312E-12	565.107E-3	-54.5451E-3
4.35468E-3	173.519E-12	560.305E-3	-43.1378E-3	177.630E-12	573.772E-3	-46.9922E-3
4.34967E-3	173.571E-12	539.142E-3	-26.5269E-3	177.115E-12	582.210E-3	-52.2848E-3
4.34467E-3	174.247E-12	515.271E-3	-11.5584E-3	176.414E-12	572.021E-3	-57.6104E-3
4.33967E-3	174.035E-12	537.206E-3	-36.7718E-3	177.079E-12	566.552E-3	-47.2432E-3
4.33467E-3	173.999E-12	557.174E-3	-55.4501E-3	176.035E-12	579.563E-3	-35.7258E-3
4.32966E-3	175.638E-12	537.505E-3	-32.4275E-3	174.321E-12	585.254E-3	-27.9620E-3
4.32466E-3	176.383E-12	526.988E-3	-21.1860E-3	174.037E-12	558.515E-3	-30.1545E-3
4.31966E-3	177.338E-12	546.386E-3	-31.1444E-3	175.737E-12	543.716E-3	-23.6589E-3
4.31466E-3	175.846E-12	565.922E-3	-46.5259E-3	174.692E-12	569.250E-3	3.50965E-3
4.30965E-3	175.803E-12	566.296E-3	-53.6995E-3	173.550E-12	580.322E-3	-226.152E-6
4.30465E-3	176.398E-12	552.032E-3	-27.5197E-3	172.345E-12	548.702E-3	-27.7239E-3
4.29965E-3	175.898E-12	540.683E-3	2.17849E-3	172.726E-12	514.749E-3	-15.6879E-3
4.29465E-3	174.868E-12	552.712E-3	-4.62660E-3	172.139E-12	515.781E-3	13.0496E-3
4.28964E-3	173.859E-12	558.091E-3	-16.9362E-3	172.049E-12	528.798E-3	5.86276E-3
4.28464E-3	173.585E-12	543.872E-3	-7.98006E-3	170.705E-12	544.551E-3	-13.2859E-3
4.27964E-3	172.233E-12	542.981E-3	-119.674E-6	171.291E-12	557.829E-3	-2.42902E-3
4.27464E-3	170.740E-12	552.266E-3	-15.5892E-3	172.331E-12	552.014E-3	19.7225E-3
4.26963E-3	169.497E-12	553.150E-3	-33.0745E-3	172.491E-12	545.237E-3	16.9559E-3
4.26463E-3	170.604E-12	554.792E-3	-33.1628E-3	172.458E-12	556.351E-3	-5.78285E-3
4.25963E-3	169.886E-12	545.816E-3	-21.5748E-3	173.113E-12	576.191E-3	-17.8384E-3
4.25463E-3	169.300E-12	511.398E-3	-4.29415E-3	174.622E-12	572.636E-3	-7.29460E-3
4.24962E-3	168.619E-12	485.582E-3	-4.83189E-3	175.460E-12	565.849E-3	2.67727E-3
4.24462E-3	169.700E-12	504.149E-3	-22.5570E-3	174.926E-12	595.736E-3	4.23325E-3
4.23962E-3	170.345E-12	543.544E-3	-29.0620E-3	173.786E-12	603.952E-3	-1.41353E-3
4.23462E-3	169.989E-12	555.458E-3	-28.0976E-3	174.845E-12	575.381E-3	-4.61754E-3
4.22961E-3	169.206E-12	531.958E-3	-31.3515E-3	175.897E-12	567.152E-3	-2.99864E-3
4.22461E-3	169.151E-12	514.918E-3	-21.7458E-3	175.844E-12	578.877E-3	-5.52032E-3
4.21961E-3	171.715E-12	518.634E-3	-11.8231E-3	172.917E-12	583.627E-3	-5.41095E-3
4.21461E-3	171.512E-12	524.027E-3	-27.5441E-3	171.884E-12	568.618E-3	-14.5998E-3
4.20960E-3	170.024E-12	530.775E-3	-36.4343E-3	172.108E-12	543.497E-3	-19.2852E-3
4.20460E-3	170.060E-12	543.015E-3	-28.2891E-3	169.932E-12	537.030E-3	-4.27034E-3
4.19960E-3	170.965E-12	566.717E-3	-17.3708E-3	167.292E-12	543.900E-3	15.3434E-3
4.19460E-3	170.934E-12	575.704E-3	-5.54435E-3	165.477E-12	563.384E-3	28.8806E-3
4.18959E-3	169.868E-12	574.734E-3	-17.5200E-3	167.080E-12	585.642E-3	12.4505E-3
4.18459E-3	169.026E-12	571.473E-3	-36.6725E-3	166.394E-12	568.536E-3	-18.1125E-3
4.17959E-3	169.595E-12	551.856E-3	5.07010E-3	165.723E-12	544.443E-3	-31.2363E-3
4.17459E-3	169.999E-12	539.543E-3	50.7809E-3	163.299E-12	554.947E-3	-34.1054E-3
4.16958E-3	169.784E-12	546.447E-3	28.5112E-3	164.831E-12	571.345E-3	-20.8854E-3
4.16458E-3	167.868E-12	552.607E-3	-5.43183E-3	166.999E-12	563.001E-3	-5.99775E-3
4.15958E-3	167.052E-12	539.749E-3	-19.2916E-3	169.122E-12	537.845E-3	-18.1373E-3
4.15458E-3	167.137E-12	523.663E-3	-21.5397E-3	168.255E-12	535.557E-3	-33.9880E-3
4.14957E-3	166.311E-12	526.813E-3	-7.84723E-3	169.003E-12	574.032E-3	-28.6875E-3
4.14457E-3	164.956E-12	543.543E-3	6.90160E-3	171.828E-12	605.085E-3	-18.1128E-3
4.13957E-3	164.688E-12	537.081E-3	11.9739E-3	174.140E-12	586.174E-3	4.11636E-3
4.13457E-3	165.510E-12	536.367E-3	5.25739E-3	172.655E-12	541.448E-3	12.6746E-3
4.12956E-3	166.345E-12	562.266E-3	-6.53747E-3	169.996E-12	531.727E-3	-5.85637E-3
4.12456E-3	166.747E-12	568.129E-3	-179.104E-6	170.813E-12	562.342E-3	-17.9929E-3
4.11956E-3	165.790E-12	556.485E-3	-6.94647E-3	171.794E-12	571.268E-3	-7.12449E-3
4.11456E-3	165.875E-12	541.412E-3	-24.3075E-3	169.283E-12	534.829E-3	35.1116E-3
4.10955E-3	167.915E-12	540.199E-3	-20.9242E-3	165.075E-12	508.657E-3	52.9443E-3
4.10455E-3	169.009E-12	560.658E-3	-12.7296E-3	164.006E-12	518.037E-3	22.3040E-3
4.09955E-3	167.803E-12	574.406E-3	1.02086E-3	164.599E-12	524.161E-3	-16.7975E-3
4.09455E-3	167.880E-12	568.600E-3	2.49029E-3	164.164E-12	516.705E-3	-42.3764E-3
4.08954E-3	169.707E-12	566.638E-3	-21.9942E-3	163.511E-12	515.388E-3	-43.7760E-3
4.08454E-3	170.084E-12	581.126E-3	-31.4091E-3	161.476E-12	538.174E-3	-51.2252E-3
4.07954E-3	168.973E-12	596.596E-3	-36.8554E-3	161.992E-12	561.879E-3	-50.6948E-3
4.07454E-3	166.323E-12	583.154E-3	-37.1872E-3	164.166E-12	567.820E-3	-7.45786E-3
4.06953E-3	166.118E-12	553.625E-3	-3.43863E-3	165.925E-12	570.632E-3	27.5586E-3
4.06453E-3	166.473E-12	537.951E-3	5.67342E-3	165.345E-12	578.390E-3	22.6157E-3
4.05953E-3	165.181E-12	555.394E-3	-26.5875E-3	165.715E-12	576.100E-3	-4.99899E-3
4.05453E-3	164.289E-12	581.486E-3	-32.0468E-3	167.409E-12	570.302E-3	-21.2709E-3
4.04952E-3	162.975E-12	582.500E-3	-2.10365E-3	169.396E-12	580.261E-3	-3.37983E-3
4.04452E-3	164.261E-12	589.043E-3	-4.06322E-3	168.507E-12	582.680E-3	18.4271E-3
4.03952E-3	164.256E-12	591.656E-3	-30.5443E-3	168.375E-12	573.393E-3	13.5240E-3
4.03452E-3	162.975E-12	571.485E-3	-41.5694E-3	166.649E-12	554.960E-3	-1.41031E-3
4.02951E-3	161.273E-12	543.589E-3	-48.2399E-3	166.493E-12	545.210E-3	-3.83815E-3
4.02451E-3	161.897E-12	536.415E-3	-40.6269E-3	165.329E-12	552.097E-3	-2.58863E-3
4.01951E-3	164.135E-12	531.636E-3	-18.2645E-3	165.686E-12	539.870E-3	-14.3688E-3
4.01451E-3	164.145E-12	517.421E-3	-5.11530E-3	162.490E-12	515.427E-3	-19.9945E-3
4.00950E-3	163.639E-12	527.717E-3	-12.0160E-3	161.858E-12	512.996E-3	-12.2117E-3
4.00450E-3	164.080E-12	521.941E-3	-1.72501E-3	160.753E-12	535.286E-3	-22.8841E-3
3.99950E-3	167.224E-12	506.160E-3	14.2608E-3	159.778E-12	557.110E-3	-33.5297E-3
3.99450E-3	166.127E-12	557.001E-3	6.58338E-3	159.510E-12	568.571E-3	-25.1322E-3
3.98949E-3	165.330E-12	612.582E-3	1.79357E-3	160.116E-12	562.403E-3	-15.0315E-3
3.98449E-3	164.768E-12	605.854E-3	4.94479E-3	160.944E-12	550.423E-3	-6.82634E-3
3.97949E-3	166.508E-12	609.036E-3	3.20580E-3	160.887E-12	551.872E-3	-9.54206E-3
3.97449E-3	166.767E-12	592.641E-3	-9.80013E-3	161.561E-12	543.641E-3	-18.3454E-3
3.96948E-3	163.870E-12	564.884E-3	-18.9484E-3	161.819E-12	529.979E-3	-36.4719E-3
3.96448E-3	162.712E-12	585.348E-3	-25.3418E-3	162.159E-12	517.916E-3	-46.0518E-3
3.95948E-3	162.374E-12	578.546E-3	-43.2766E-3	162.081E-12	502.734E-3	-19.8172E-3
3.95448E-3	161.297E-12	557.453E-3	-56.3771E-3	161.838E-12	514.535E-3	-9.93222E-3
3.94947E-3	160.656E-12	561.798E-3	-34.2691E-3	160.778E-12	540.320E-3	-35.4785E-3
3.94447E-3	159.129E-12	558.450E-3	-9.79431E-3	159.376E-12	542.002E-3	-55.9814E-3
3.93947E-3	157.880E-12	565.391E-3	-18.4684E-3	159.232E-12	543.445E-3	-46.7068E-3
3.93447E-3	158.652E-12	573.172E-3	-32.9790E-3	159.315E-12	557.873E-3	-26.7694E-3
3.92946E-3	159.778E-12	559.926E-3	-26.4180E-3	157.954E-12	573.869E-3	-15.7668E-3
3.92446E-3	158.705E-12	552.345E-3	-10.9952E-3	156.788E-12	577.913E-3	10.4744E-3
3.91946E-3	158.352E-12	563.528E-3	-3.82000E-3	156.865E-12	571.072E-3	29.6678E-3
3.91446E-3	159.594E-12	572.732E-3	-11.1744E-3	156.868E-12	577.815E-3	14.6466E-3
3.90945E-3	161.563E-12	564.878E-3	-22.1793E-3	156.562E-12	577.302E-3	-12.0634E-3
3.90445E-3	159.631E-12	571.441E-3	-19.4974E-3	156.748E-12	560.801E-3	-31.3831E-3
3.89945E-3	160.272E-12	587.031E-3	-16.7216E-3	158.139E-12	559.823E-3	-47.7000E-3
3.89445E-3	161.940E-12	582.170E-3	-25.1910E-3	158.445E-12	590.051E-3	-44.8354E-3
3.88944E-3	162.728E-12	564.197E-3	-40.4833E-3	159.510E-12	595.809E-3	-5.97387E-3
3.88444E-3	163.109E-12	561.756E-3	-40.5100E-3	159.607E-12	566.264E-3	25.5281E-3
3.87944E-3	160.745E-12	584.141E-3	-21.3131E-3	160.306E-12	563.694E-3	25.5697E-3
3.87444E-3	160.591E-12	597.148E-3	-13.7217E-3	159.054E-12	584.305E-3	-10.3177E-3
3.86943E-3	161.555E-12	599.486E-3	-6.24303E-3	159.747E-12	604.582E-3	-41.4572E-3
3.86443E-3	160.347E-12	581.280E-3	7.24365E-3	160.532E-12	600.996E-3	-28.7087E-3
3.85943E-3	158.188E-12	555.834E-3	-4.94735E-3	159.115E-12	576.953E-3	-11.6555E-3
3.85443E-3	157.512E-12	556.813E-3	-35.5554E-3	158.047E-12	568.087E-3	-8.59146E-3
3.84942E-3	157.921E-12	569.173E-3	-43.1132E-3	156.784E-12	568.586E-3	-12.4791E-3
3.84442E-3	156.483E-12	588.199E-3	-2.54032E-3	156.785E-12	571.052E-3	-9.36789E-3
3.83942E-3	155.668E-12	594.587E-3	18.4611E-3	156.248E-12	578.674E-3	2.89111E-3
3.83442E-3	154.998E-12	578.056E-3	-8.92950E-3	155.057E-12	564.211E-3	-13.1543E-3
3.82941E-3	155.138E-12	570.446E-3	-21.7858E-3	154.991E-12	545.712E-3	-21.0937E-3
3.82441E-3	154.555E-12	578.884E-3	-37.4708E-3	154.257E-12	562.646E-3	-214.600E-6
3.81941E-3	153.798E-12	588.906E-3	-38.2290E-3	154.460E-12	600.403E-3	-2.29785E-3
3.81441E-3	155.088E-12	579.717E-3	-13.7405E-3	156.172E-12	622.360E-3	-4.39968E-3
3.80940E-3	154.643E-12	571.155E-3	-21.0243E-3	157.448E-12	616.622E-3	-6.11503E-3
3.80440E-3	155.515E-12	575.659E-3	-43.3224E-3	154.971E-12	604.727E-3	-14.4688E-3
3.79940E-3	153.841E-12	558.216E-3	-42.5464E-3	155.712E-12	600.603E-3	-17.4505E-3
3.79440E-3	154.822E-12	538.416E-3	-21.4544E-3	157.328E-12	597.591E-3	-16.2837E-3
3.78939E-3	154.842E-12	532.523E-3	-17.3768E-3	159.226E-12	593.466E-3	3.54731E-3
3.78439E-3	155.156E-12	531.683E-3	-38.5361E-3	156.618E-12	588.641E-3	13.8172E-3
3.77939E-3	155.216E-12	554.853E-3	-40.8153E-3	156.188E-12	572.371E-3	-1.96831E-3
3.77439E-3	153.529E-12	576.948E-3	-19.0174E-3	156.462E-12	558.529E-3	-7.27700E-3
3.76938E-3	154.192E-12	583.496E-3	-13.0470E-3	156.628E-12	570.758E-3	-15.2323E-3
3.76438E-3	155.524E-12	581.182E-3	-19.0582E-3	154.362E-12	592.792E-3	-21.9157E-3
3.75938E-3	154.706E-12	557.577E-3	-26.0039E-3	152.936E-12	597.417E-3	-9.41949E-3
3.75438E-3	152.810E-12	527.882E-3	-26.0235E-3	151.791E-12	581.778E-3	-24.9758E-3
3.74937E-3	153.852E-12	520.074E-3	-24.2145E-3	153.894E-12	576.758E-3	-22.9309E-3
3.74437E-3	157.049E-12	547.048E-3	-31.0538E-3	155.325E-12	578.367E-3	15.8083E-3
3.73937E-3	155.576E-12	574.853E-3	-33.9072E-3	152.776E-12	581.304E-3	25.1118E-3
3.73437E-3	154.833E-12	573.089E-3	-33.2259E-3	151.349E-12	591.638E-3	-1.57895E-3
3.72936E-3	154.481E-12	571.490E-3	-22.4935E-3	153.461E-12	597.873E-3	-23.1928E-3
3.72436E-3	154.897E-12	573.172E-3	9.73100E-3	154.514E-12	598.799E-3	-8.72868E-3
3.71936E-3	155.805E-12	577.319E-3	22.2070E-3	155.746E-12	600.350E-3	9.42874E-3
3.71436E-3	154.921E-12	598.239E-3	10.4622E-3	155.063E-12	601.996E-3	17.4441E-3
3.70935E-3	152.594E-12	603.485E-3	14.3378E-3	155.070E-12	597.502E-3	12.4532E-3
3.70435E-3	152.416E-12	581.380E-3	12.7522E-3	153.501E-12	607.118E-3	-10.2103E-3
3.69935E-3	155.074E-12	561.000E-3	-2.74071E-3	154.038E-12	623.881E-3	-6.20758E-3
3.69435E-3	153.715E-12	565.574E-3	-22.6106E-3	153.585E-12	610.581E-3	2.47188E-3
3.68934E-3	151.614E-12	579.287E-3	-21.3106E-3	153.670E-12	582.011E-3	-3.37749E-3
3.68434E-3	151.592E-12	567.014E-3	-14.5771E-3	152.080E-12	573.702E-3	5.46043E-3
3.67934E-3	152.634E-12	559.981E-3	-30.6352E-3	149.364E-12	565.619E-3	12.2044E-3
3.67434E-3	153.289E-12	595.636E-3	-17.0088E-3	149.750E-12	539.371E-3	-12.0262E-3
3.66933E-3	153.667E-12	604.252E-3	20.3782E-3	148.835E-12	533.106E-3	-40.3440E-3
3.66433E-3	150.933E-12	573.406E-3	21.9518E-3	149.533E-12	547.679E-3	-32.8863E-3
3.65933E-3	150.619E-12	565.350E-3	-7.11621E-3	147.834E-12	551.392E-3	-26.9496E-3
3.65433E-3	152.621E-12	580.435E-3	-27.8907E-3	148.698E-12	564.133E-3	-40.8197E-3
3.64932E-3	152.038E-12	602.203E-3	-29.0319E-3	150.196E-12	582.577E-3	-47.4249E-3
3.64432E-3	150.053E-12	599.594E-3	-13.7342E-3	150.242E-12	567.282E-3	-35.7094E-3
3.63932E-3	150.022E-12	580.199E-3	-4.15487E-3	149.456E-12	539.693E-3	-9.95673E-3
3.63432E-3	151.076E-12	590.470E-3	-3.98209E-3	149.474E-12	532.876E-3	7.52913E-3
3.62931E-3	151.237E-12	606.601E-3	-4.73713E-3	151.082E-12	548.413E-3	-754.953E-6
3.62431E-3	150.414E-12	599.094E-3	-20.7290E-3	151.295E-12	576.974E-3	-24.3219E-3
3.61931E-3	148.435E-12	592.327E-3	-31.6565E-3	150.822E-12	599.199E-3	-41.8269E-3
3.61431E-3	147.897E-12	576.958E-3	-35.0267E-3	149.058E-12	614.345E-3	-50.6129E-3
3.60930E-3	148.811E-12	562.115E-3	-31.6062E-3	148.924E-12	593.053E-3	-59.5117E-3
3.60430E-3	149.631E-12	548.339E-3	-10.5243E-3	148.540E-12	548.786E-3	-60.3207E-3
3.59930E-3	149.041E-12	537.694E-3	-7.60176E-3	147.262E-12	544.435E-3	-64.7484E-3
3.59430E-3	146.830E-12	564.269E-3	-35.9275E-3	146.194E-12	549.941E-3	-70.5287E-3
3.58929E-3	148.060E-12	583.360E-3	-33.7066E-3	143.566E-12	558.970E-3	-55.0020E-3
3.58429E-3	149.338E-12	558.916E-3	4.55518E-3	143.221E-12	586.691E-3	-42.0493E-3
3.57929E-3	150.402E-12	537.311E-3	10.1228E-3	143.251E-12	597.723E-3	-24.2480E-3
3.57429E-3	147.976E-12	551.244E-3	-13.1390E-3	142.949E-12	588.602E-3	-6.13008E-3
3.56928E-3	148.078E-12	580.439E-3	-27.3976E-3	142.465E-12	577.726E-3	-12.6651E-3
3.56428E-3	149.159E-12	593.214E-3	-33.7627E-3	143.335E-12	577.209E-3	-8.19606E-3
3.55928E-3	150.414E-12	578.083E-3	-45.8582E-3	144.116E-12	574.764E-3	8.03656E-3
3.55428E-3	147.313E-12	574.859E-3	-49.0079E-3	144.472E-12	546.422E-3	-2.39498E-3
3.54927E-3	145.957E-12	589.597E-3	-35.7092E-3	144.517E-12	516.573E-3	-26.7579E-3
3.54427E-3	146.498E-12	587.365E-3	-31.5174E-3	145.755E-12	530.055E-3	-39.4062E-3
3.53927E-3	147.365E-12	579.819E-3	-25.8302E-3	147.327E-12	559.651E-3	-25.1828E-3
3.53427E-3	145.080E-12	571.372E-3	-15.1848E-3	148.694E-12	569.885E-3	-1.65837E-3
3.52926E-3	145.057E-12	571.818E-3	-31.2721E-3	148.707E-12	579.647E-3	-12.0731E-3
3.52426E-3	144.969E-12	583.930E-3	-32.7012E-3	147.339E-12	596.759E-3	-22.4263E-3
3.51926E-3	144.090E-12	572.066E-3	-15.3627E-3	146.557E-12	616.385E-3	-21.9545E-3
3.51426E-3	143.118E-12	558.641E-3	-11.6987E-3	147.247E-12	635.087E-3	-25.4395E-3
3.50925E-3	142.327E-12	573.088E-3	-3.11195E-3	146.276E-12	627.934E-3	-23.6224E-3
3.50425E-3	142.817E-12	581.893E-3	-5.10098E-3	144.471E-12	597.677E-3	-35.6071E-3
3.49925E-3	143.861E-12	571.525E-3	-21.4479E-3	141.791E-12	583.253E-3	-50.6093E-3
3.49425E-3	144.092E-12	550.682E-3	-22.8592E-3	141.273E-12	576.890E-3	-53.2833E-3
3.48924E-3	143.590E-12	543.805E-3	-20.1138E-3	140.797E-12	553.837E-3	-43.7904E-3
3.48424E-3	142.850E-12	564.591E-3	-27.1432E-3	141.254E-12	549.240E-3	-31.1792E-3
3.47924E-3	144.429E-12	573.560E-3	-15.8548E-3	140.612E-12	583.571E-3	-36.7260E-3
3.47424E-3	144.192E-12	558.588E-3	-8.23043E-3	138.980E-12	602.198E-3	-35.3161E-3
3.46923E-3	143.873E-12	571.424E-3	-18.0390E-3	140.917E-12	595.399E-3	-13.0462E-3
3.46423E-3	142.468E-12	604.788E-3	-12.3248E-3	143.138E-12	598.572E-3	-1.86280E-3
3.45923E-3	143.518E-12	597.345E-3	2.66963E-3	143.047E-12	609.890E-3	-7.83873E-3
3.45423E-3	143.411E-12	576.067E-3	-17.5826E-3	142.581E-12	614.779E-3	-4.22033E-3
3.44922E-3	143.007E-12	581.802E-3	-48.9958E-3	143.861E-12	597.578E-3	6.82512E-3
3.44422E-3	141.532E-12	599.278E-3	-14.1937E-3	145.929E-12	590.498E-3	-882.934E-6
3.43922E-3	141.695E-12	601.085E-3	22.0371E-3	147.361E-12	610.684E-3	-9.04984E-3
3.43422E-3	141.324E-12	587.872E-3	-7.99657E-3	147.844E-12	615.517E-3	-9.00430E-3
3.42921E-3	139.657E-12	574.903E-3	-33.2473E-3	146.912E-12	596.864E-3	-10.2602E-3
3.42421E-3	139.660E-12	572.191E-3	-18.3376E-3	146.584E-12	575.305E-3	-10.1239E-3
3.41921E-3	138.597E-12	571.142E-3	1.94788E-3	147.072E-12	573.619E-3	-9.15818E-3
3.41421E-3	140.152E-12	562.015E-3	12.5352E-3	145.778E-12	584.695E-3	-16.9151E-3
3.40920E-3	139.739E-12	553.503E-3	-1.30845E-3	144.094E-12	591.216E-3	-23.4451E-3
3.40420E-3	139.527E-12	559.001E-3	-12.7180E-3	143.023E-12	602.576E-3	-12.7851E-3
3.39920E-3	138.847E-12	574.724E-3	-1.20621E-3	142.121E-12	600.953E-3	2.61636E-3
3.39420E-3	139.241E-12	594.471E-3	6.25937E-3	142.823E-12	582.518E-3	-5.60154E-3
3.38919E-3	139.216E-12	594.548E-3	11.3623E-3	140.719E-12	590.496E-3	-13.5939E-3
3.38419E-3	139.203E-12	581.020E-3	16.4318E-3	139.523E-12	607.366E-3	-1.10232E-3
3.37919E-3	139.255E-12	568.968E-3	6.71729E-3	137.654E-12	605.705E-3	3.24411E-3
3.37419E-3	139.540E-12	544.912E-3	-4.91643E-3	138.490E-12	598.649E-3	10.2609E-3
3.36918E-3	140.150E-12	536.163E-3	-4.61569E-3	138.967E-12	593.610E-3	-1.62885E-3
3.36418E-3	139.566E-12	546.780E-3	-4.47991E-3	138.524E-12	590.079E-3	-34.8685E-3
3.35918E-3	138.737E-12	576.327E-3	-12.2818E-3	137.859E-12	586.452E-3	-34.6935E-3
3.35418E-3	138.945E-12	612.390E-3	-27.6437E-3	137.603E-12	586.256E-3	-27.1886E-3
3.34917E-3	138.245E-12	621.077E-3	-34.5963E-3	139.038E-12	580.138E-3	-28.2672E-3
3.34417E-3	138.064E-12	607.688E-3	-36.3094E-3	139.832E-12	570.961E-3	-10.6680E-3
3.33917E-3	137.584E-12	580.933E-3	-39.1137E-3	138.444E-12	573.873E-3	7.66171E-3
3.33417E-3	136.283E-12	549.819E-3	-43.7090E-3	137.723E-12	601.632E-3	11.3975E-3
3.32916E-3	135.702E-12	548.255E-3	-54.5752E-3	138.798E-12	633.228E-3	362.601E-6
3.32416E-3	135.313E-12	571.914E-3	-34.3608E-3	140.751E-12	632.176E-3	-20.7520E-3
3.31916E-3	135.566E-12	561.597E-3	-9.81727E-3	139.903E-12	642.927E-3	-37.0362E-3
3.31416E-3	135.258E-12	544.852E-3	-31.2652E-3	138.458E-12	664.024E-3	-34.0193E-3
3.30915E-3	136.681E-12	574.014E-3	-33.9105E-3	137.942E-12	639.380E-3	-15.3856E-3
3.30415E-3	136.370E-12	589.526E-3	-17.3019E-3	139.910E-12	603.415E-3	-11.3394E-3
3.29915E-3	135.689E-12	580.973E-3	-15.6213E-3	138.917E-12	585.453E-3	-30.2577E-3
3.29415E-3	136.301E-12	599.361E-3	2.13785E-3	137.364E-12	586.924E-3	-39.7318E-3
3.28914E-3	135.848E-12	594.784E-3	4.89960E-3	136.274E-12	590.247E-3	-22.3306E-3
3.28414E-3	135.468E-12	562.887E-3	-6.77572E-3	137.719E-12	579.018E-3	-5.17924E-3
3.27914E-3	135.424E-12	565.190E-3	-13.5384E-3	138.370E-12	579.764E-3	-8.46217E-3
3.27414E-3	136.503E-12	581.688E-3	-24.6381E-3	136.122E-12	606.429E-3	-14.1706E-3
3.26913E-3	134.907E-12	587.671E-3	-25.1113E-3	133.969E-12	629.045E-3	-18.3294E-3
3.26413E-3	135.176E-12	585.105E-3	-12.4810E-3	133.919E-12	614.749E-3	-25.9009E-3
3.25913E-3	134.876E-12	595.147E-3	-13.0027E-3	135.062E-12	593.454E-3	-31.1320E-3
3.25413E-3	134.139E-12	609.145E-3	-37.5829E-3	133.913E-12	585.190E-3	-32.8119E-3
3.24912E-3	133.503E-12	603.527E-3	-53.5828E-3	132.106E-12	589.395E-3	-12.9577E-3
3.24412E-3	133.627E-12	606.578E-3	-35.7026E-3	132.280E-12	611.099E-3	16.9007E-3
3.23912E-3	133.972E-12	618.878E-3	-14.2923E-3	132.382E-12	609.801E-3	16.3191E-3
3.23412E-3	133.377E-12	612.598E-3	-21.4048E-3	132.743E-12	579.011E-3	-5.86471E-3
3.22911E-3	133.313E-12	590.549E-3	-25.0248E-3	132.025E-12	563.749E-3	-16.0000E-3
3.22411E-3	131.879E-12	578.598E-3	-7.02787E-3	132.581E-12	555.391E-3	-14.1891E-3
3.21911E-3	133.285E-12	588.832E-3	8.89525E-3	132.559E-12	551.413E-3	-17.1188E-3
3.21411E-3	133.228E-12	577.177E-3	18.6949E-3	134.781E-12	574.015E-3	-21.7839E-3
3.20910E-3	132.470E-12	553.262E-3	17.9461E-3	133.956E-12	600.707E-3	-21.6769E-3
3.20410E-3	130.642E-12	571.002E-3	9.83334E-3	134.400E-12	615.652E-3	-18.6490E-3
3.19910E-3	130.945E-12	595.388E-3	5.07734E-3	135.245E-12	609.659E-3	9.07465E-3
3.19410E-3	132.038E-12	592.217E-3	862.784E-6	135.840E-12	591.700E-3	35.2628E-3
3.18909E-3	131.872E-12	583.661E-3	1.36872E-3	135.687E-12	582.280E-3	14.6648E-3
3.18409E-3	130.885E-12	583.117E-3	9.10118E-3	134.640E-12	588.704E-3	-12.4904E-3
3.17909E-3	130.294E-12	574.392E-3	4.59354E-3	134.465E-12	608.007E-3	-30.0691E-3
3.17409E-3	130.044E-12	566.426E-3	-7.42073E-3	132.358E-12	605.675E-3	-49.0278E-3
3.16908E-3	131.323E-12	586.069E-3	6.56213E-3	130.645E-12	592.809E-3	-44.2614E-3
3.16408E-3	131.463E-12	617.118E-3	28.9844E-3	129.480E-12	592.768E-3	-19.7185E-3
3.15908E-3	131.187E-12	613.564E-3	12.5999E-3	129.582E-12	582.719E-3	-7.99717E-3
3.15408E-3	130.611E-12	574.395E-3	-25.8524E-3	129.074E-12	560.889E-3	-10.3156E-3
3.14907E-3	132.024E-12	544.968E-3	-38.6399E-3	127.812E-12	548.395E-3	-11.4843E-3
3.14407E-3	131.632E-12	563.046E-3	-20.8944E-3	126.373E-12	549.332E-3	-22.1284E-3
3.13907E-3	132.244E-12	621.331E-3	4.42608E-3	125.730E-12	559.255E-3	-23.1671E-3
3.13407E-3	131.459E-12	641.044E-3	6.96582E-3	126.851E-12	579.307E-3	-8.23765E-3
3.12906E-3	130.819E-12	611.810E-3	-16.1048E-3	127.099E-12	596.546E-3	-15.1170E-3
3.12406E-3	130.519E-12	603.735E-3	-26.2304E-3	127.189E-12	589.177E-3	-15.3328E-3
3.11906E-3	130.664E-12	611.975E-3	-18.1179E-3	127.589E-12	584.065E-3	-7.43228E-3
3.11406E-3	129.691E-12	601.570E-3	-24.6913E-3	128.728E-12	587.766E-3	-28.9415E-3
3.10905E-3	129.426E-12	592.678E-3	-41.7684E-3	130.220E-12	591.462E-3	-36.0758E-3
3.10405E-3	128.562E-12	596.713E-3	-46.0546E-3	131.395E-12	613.573E-3	-21.4118E-3
3.09905E-3	126.685E-12	591.258E-3	-37.2111E-3	130.549E-12	605.112E-3	-33.9411E-3
3.09405E-3	125.633E-12	580.937E-3	-40.0555E-3	129.502E-12	569.724E-3	-48.4855E-3
3.08904E-3	126.076E-12	590.345E-3	-45.1122E-3	130.318E-12	567.397E-3	-39.5643E-3
3.08404E-3	125.635E-12	595.764E-3	-28.3006E-3	130.538E-12	570.662E-3	-25.4854E-3
3.07904E-3	124.411E-12	571.393E-3	-14.3916E-3	128.940E-12	558.068E-3	-16.8272E-3
3.07404E-3	124.135E-12	547.890E-3	-9.41747E-3	127.070E-12	553.441E-3	-14.9721E-3
3.06903E-3	125.218E-12	551.042E-3	-6.67047E-3	126.607E-12	563.495E-3	-11.0750E-3
3.06403E-3	126.099E-12	573.128E-3	-20.7794E-3	126.817E-12	582.886E-3	-10.5354E-3
3.05903E-3	126.724E-12	599.685E-3	-25.0464E-3	124.754E-12	590.243E-3	-21.4881E-3
3.05403E-3	125.765E-12	604.434E-3	2.77323E-3	122.832E-12	576.992E-3	-32.5555E-3
3.04902E-3	126.883E-12	595.857E-3	16.1181E-3	122.400E-12	558.793E-3	-34.8351E-3
3.04402E-3	127.476E-12	604.863E-3	478.489E-6	122.697E-12	557.127E-3	-37.4535E-3
3.03902E-3	128.416E-12	613.961E-3	-5.76067E-3	121.825E-12	583.868E-3	-40.3183E-3
3.03402E-3	127.010E-12	608.621E-3	-5.65671E-3	121.863E-12	609.301E-3	-41.8485E-3
3.02901E-3	126.185E-12	599.670E-3	-13.5814E-3	122.300E-12	610.203E-3	-37.5792E-3
3.02401E-3	126.262E-12	583.529E-3	-19.3220E-3	124.652E-12	605.359E-3	-29.8790E-3
3.01901E-3	126.452E-12	575.593E-3	-18.6657E-3	124.369E-12	599.267E-3	-31.1957E-3
3.01401E-3	125.082E-12	601.239E-3	-9.14354E-3	124.271E-12	580.529E-3	-27.4846E-3
3.00900E-3	123.714E-12	624.080E-3	-6.13064E-3	124.192E-12	577.251E-3	-28.7560E-3
3.00400E-3	123.240E-12	599.690E-3	-13.4826E-3	126.735E-12	596.610E-3	-26.5751E-3
2.99900E-3	123.739E-12	550.864E-3	-8.76969E-3	127.310E-12	598.839E-3	-23.2693E-3
2.99400E-3	121.848E-12	522.874E-3	-3.29731E-3	127.520E-12	580.130E-3	-35.0999E-3
2.98899E-3	120.935E-12	536.270E-3	-7.20421E-3	126.949E-12	574.892E-3	-27.4244E-3
2.98399E-3	121.110E-12	557.656E-3	-4.79987E-3	125.847E-12	578.533E-3	-13.7245E-3
2.97899E-3	120.993E-12	568.913E-3	10.4785E-3	126.244E-12	579.031E-3	-13.8911E-3
2.97399E-3	120.724E-12	571.704E-3	15.9500E-3	126.162E-12	579.425E-3	-7.28572E-3
2.96898E-3	121.697E-12	572.286E-3	-2.01707E-3	124.880E-12	583.982E-3	-191.982E-6
2.96398E-3	121.986E-12	599.703E-3	-11.5995E-3	122.406E-12	598.929E-3	16.1092E-3
2.95898E-3	122.218E-12	611.975E-3	-21.6864E-3	123.098E-12	592.199E-3	25.6603E-3
2.95398E-3	122.893E-12	589.626E-3	-40.2381E-3	123.019E-12	569.204E-3	12.4749E-3
2.94897E-3	122.999E-12	573.960E-3	-34.6354E-3	122.315E-12	563.365E-3	24.2110E-3
2.94397E-3	122.921E-12	564.777E-3	-829.459E-6	122.160E-12	576.430E-3	24.4815E-3
2.93897E-3	121.781E-12	578.636E-3	14.3082E-3	121.765E-12	585.010E-3	-5.15711E-3
2.93397E-3	122.059E-12	590.274E-3	-3.78940E-3	121.915E-12	589.503E-3	-11.3970E-3
2.92896E-3	121.343E-12	572.403E-3	-24.0445E-3	121.825E-12	605.948E-3	-23.2121E-3
2.92396E-3	121.478E-12	575.154E-3	-35.5485E-3	121.057E-12	604.076E-3	-27.4350E-3
2.91896E-3	120.322E-12	591.277E-3	-40.3616E-3	121.121E-12	591.290E-3	-68.9261E-6
2.91396E-3	120.290E-12	592.921E-3	-44.4560E-3	121.786E-12	600.679E-3	-3.81584E-3
2.90895E-3	120.197E-12	603.758E-3	-36.5750E-3	121.342E-12	605.647E-3	-10.9393E-3
2.90395E-3	119.948E-12	614.411E-3	-21.4544E-3	120.527E-12	590.087E-3	2.57136E-3
2.89895E-3	120.092E-12	612.204E-3	-17.2432E-3	120.251E-12	581.065E-3	-11.3781E-3
2.89395E-3	119.795E-12	611.963E-3	-23.3993E-3	120.463E-12	583.787E-3	-30.8245E-3
2.88894E-3	119.385E-12	605.585E-3	-31.1907E-3	120.548E-12	592.939E-3	-23.6298E-3
2.88394E-3	119.293E-12	599.039E-3	-41.3362E-3	119.492E-12	590.179E-3	-12.1005E-3
2.87894E-3	120.622E-12	601.092E-3	-56.9302E-3	118.985E-12	571.277E-3	-12.5299E-3
2.87394E-3	120.092E-12	601.761E-3	-70.8372E-3	118.441E-12	577.515E-3	-18.8469E-3
2.86893E-3	118.806E-12	601.330E-3	-58.7983E-3	118.120E-12	591.275E-3	-15.9331E-3
2.86393E-3	119.175E-12	598.270E-3	-27.1824E-3	118.634E-12	595.204E-3	-8.50103E-3
2.85893E-3	119.610E-12	588.973E-3	-28.3446E-3	118.653E-12	611.491E-3	-13.3495E-3
2.85393E-3	119.266E-12	584.108E-3	-51.3678E-3	118.533E-12	627.833E-3	-20.6768E-3
2.84892E-3	117.878E-12	595.371E-3	-44.7546E-3	118.900E-12	620.795E-3	-24.2731E-3
2.84392E-3	117.449E-12	614.708E-3	-25.9699E-3	118.697E-12	599.875E-3	-17.4179E-3
2.83892E-3	116.728E-12	602.583E-3	-17.7010E-3	118.850E-12	588.400E-3	-10.2444E-3
2.83392E-3	117.268E-12	574.451E-3	-16.6025E-3	119.565E-12	581.107E-3	-11.5523E-3
2.82891E-3	115.730E-12	564.018E-3	-26.8677E-3	118.952E-12	570.758E-3	3.19104E-3
2.82391E-3	115.942E-12	558.035E-3	-29.4457E-3	117.121E-12	576.109E-3	14.1473E-3
2.81891E-3	115.344E-12	558.556E-3	-28.8619E-3	117.056E-12	585.672E-3	-1.88092E-3
2.81391E-3	116.233E-12	574.109E-3	-26.0286E-3	117.720E-12	578.074E-3	-9.35292E-3
2.80890E-3	116.351E-12	572.852E-3	-11.2246E-3	116.973E-12	570.550E-3	-464.896E-6
2.80390E-3	116.670E-12	546.738E-3	-12.8190E-3	115.263E-12	578.694E-3	442.461E-6
2.79890E-3	116.724E-12	552.450E-3	-27.6960E-3	114.751E-12	591.031E-3	-10.4467E-3
2.79390E-3	115.935E-12	574.914E-3	-18.4933E-3	114.528E-12	593.952E-3	-19.0105E-3
2.78889E-3	116.179E-12	581.333E-3	-10.6156E-3	115.175E-12	589.640E-3	-21.1149E-3
2.78389E-3	116.633E-12	589.963E-3	-25.0636E-3	114.498E-12	585.493E-3	-27.7504E-3
2.77889E-3	116.338E-12	584.571E-3	-10.2349E-3	114.505E-12	590.532E-3	-35.4543E-3
2.77389E-3	115.719E-12	568.312E-3	22.9660E-3	114.737E-12	597.381E-3	-44.0274E-3
2.76888E-3	115.204E-12	570.718E-3	20.6618E-3	116.319E-12	586.896E-3	-43.4417E-3
2.76388E-3	114.820E-12	593.061E-3	-4.70070E-3	115.399E-12	586.314E-3	-44.0686E-3
2.75888E-3	114.383E-12	619.893E-3	-10.6535E-3	115.532E-12	609.599E-3	-47.2458E-3
2.75388E-3	113.286E-12	620.413E-3	-147.801E-6	115.723E-12	606.296E-3	-24.7130E-3
2.74887E-3	113.228E-12	605.470E-3	8.80767E-3	115.636E-12	578.038E-3	-4.37571E-3
2.74387E-3	113.587E-12	609.273E-3	13.4188E-3	114.708E-12	575.328E-3	-3.57775E-3
2.73887E-3	113.288E-12	612.177E-3	4.55811E-3	113.924E-12	593.177E-3	-12.0958E-3
2.73387E-3	112.569E-12	599.484E-3	-11.2538E-3	114.909E-12	601.673E-3	-26.1301E-3
2.72886E-3	112.269E-12	582.593E-3	-27.9262E-3	114.486E-12	606.362E-3	-29.1686E-3
2.72386E-3	113.099E-12	565.342E-3	-37.9114E-3	113.989E-12	604.176E-3	-22.7026E-3
2.71886E-3	112.811E-12	555.535E-3	-25.4128E-3	113.244E-12	587.177E-3	-11.7316E-3
2.71386E-3	112.986E-12	572.940E-3	-7.20988E-3	113.662E-12	577.061E-3	-3.14044E-3
2.70885E-3	113.391E-12	603.836E-3	4.11707E-3	112.356E-12	577.037E-3	-1.81815E-3
2.70385E-3	113.471E-12	613.548E-3	9.87314E-3	111.310E-12	582.047E-3	6.00211E-3
2.69885E-3	112.983E-12	590.255E-3	2.07432E-3	112.050E-12	577.010E-3	17.6642E-3
2.69385E-3	112.525E-12	565.943E-3	-19.5525E-3	113.228E-12	574.996E-3	12.6430E-3
2.68884E-3	112.723E-12	571.332E-3	-40.4740E-3	113.939E-12	589.534E-3	-7.52297E-3
2.68384E-3	111.012E-12	590.310E-3	-33.9682E-3	113.727E-12	591.354E-3	-30.2597E-3
2.67884E-3	110.153E-12	595.013E-3	-21.0984E-3	114.187E-12	588.979E-3	-26.5712E-3
2.67384E-3	109.901E-12	580.884E-3	-34.2637E-3	114.353E-12	586.524E-3	-11.2100E-3
2.66883E-3	109.632E-12	568.924E-3	-40.0061E-3	115.494E-12	582.547E-3	-11.6985E-3
2.66383E-3	109.085E-12	557.392E-3	-26.0949E-3	113.856E-12	606.703E-3	-20.4064E-3
2.65883E-3	108.401E-12	549.662E-3	-12.9822E-3	113.921E-12	615.380E-3	-30.3138E-3
2.65383E-3	108.656E-12	555.333E-3	-8.46216E-3	113.041E-12	582.859E-3	-17.3936E-3
2.64882E-3	108.290E-12	556.989E-3	-8.53796E-3	112.789E-12	577.796E-3	-5.08071E-3
2.64382E-3	109.534E-12	564.461E-3	7.93306E-3	111.666E-12	587.654E-3	-21.2927E-3
2.63882E-3	109.499E-12	575.059E-3	16.6961E-3	111.211E-12	579.884E-3	-20.7698E-3
2.63382E-3	109.863E-12	584.033E-3	-14.4493E-3	110.733E-12	581.743E-3	870.955E-6
2.62881E-3	108.662E-12	596.250E-3	-37.5194E-3	109.680E-12	582.154E-3	5.24380E-3
2.62381E-3	109.285E-12	595.708E-3	-27.9914E-3	109.656E-12	581.972E-3	10.8062E-3
2.61881E-3	111.046E-12	595.213E-3	-20.8632E-3	109.308E-12	600.578E-3	11.0917E-3
2.61381E-3	110.831E-12	600.219E-3	-28.9711E-3	109.544E-12	599.846E-3	-8.67591E-3
2.60880E-3	109.450E-12	590.858E-3	-40.1053E-3	109.570E-12	583.385E-3	-17.0020E-3
2.60380E-3	109.051E-12	580.539E-3	-41.0229E-3	110.295E-12	588.270E-3	-10.3333E-3
2.59880E-3	109.326E-12	589.772E-3	-30.9448E-3	109.467E-12	600.722E-3	-5.83542E-3
2.59380E-3	108.006E-12	597.414E-3	-6.60924E-3	109.447E-12	614.671E-3	-9.46510E-3
2.58879E-3	106.831E-12	593.495E-3	16.6274E-3	110.593E-12	633.469E-3	-10.8305E-3
2.58379E-3	106.476E-12	591.539E-3	899.039E-6	111.250E-12	625.033E-3	-12.0209E-3
2.57879E-3	106.171E-12	587.981E-3	-32.2159E-3	111.126E-12	587.026E-3	-33.3803E-3
2.57379E-3	106.091E-12	584.276E-3	-27.5243E-3	110.672E-12	578.562E-3	-47.5925E-3
2.56878E-3	105.820E-12	588.942E-3	-5.04197E-3	111.116E-12	582.362E-3	-25.7023E-3
2.56378E-3	105.017E-12	601.872E-3	4.02134E-3	111.189E-12	577.595E-3	5.53802E-3
2.55878E-3	104.858E-12	608.095E-3	-971.060E-6	109.883E-12	589.535E-3	16.7666E-3
2.55378E-3	106.105E-12	597.552E-3	-28.3817E-3	108.076E-12	595.983E-3	-5.96801E-3
2.54877E-3	105.555E-12	580.349E-3	-34.5852E-3	107.325E-12	580.651E-3	-40.2145E-3
2.54377E-3	105.904E-12	564.059E-3	4.67423E-3	106.525E-12	568.085E-3	-38.8692E-3
2.53877E-3	106.780E-12	579.707E-3	30.7306E-3	107.172E-12	575.695E-3	-17.8144E-3
2.53377E-3	106.777E-12	614.428E-3	29.5877E-3	105.784E-12	575.760E-3	-14.1631E-3
2.52876E-3	107.213E-12	612.319E-3	18.1486E-3	104.269E-12	576.210E-3	-25.7707E-3
2.52376E-3	107.656E-12	592.628E-3	1.24979E-3	103.914E-12	597.320E-3	-40.7837E-3
2.51876E-3	107.246E-12	591.590E-3	-6.46712E-3	105.221E-12	612.842E-3	-18.4366E-3
2.51376E-3	105.177E-12	605.999E-3	-14.3618E-3	104.448E-12	619.119E-3	14.6564E-3
2.50875E-3	105.058E-12	617.037E-3	-16.4438E-3	103.228E-12	609.922E-3	-6.50826E-3
2.50375E-3	105.089E-12	612.819E-3	-10.7731E-3	104.411E-12	583.414E-3	-29.1975E-3
2.49875E-3	104.307E-12	598.211E-3	-22.3753E-3	105.427E-12	568.487E-3	-13.5428E-3
2.49375E-3	103.043E-12	579.890E-3	-32.6490E-3	106.286E-12	563.028E-3	-445.530E-6
2.48874E-3	102.652E-12	566.230E-3	-18.4909E-3	106.252E-12	570.770E-3	-13.8247E-3
2.48374E-3	103.144E-12	568.224E-3	-7.77338E-3	106.346E-12	592.976E-3	-39.3362E-3
2.47874E-3	101.975E-12	573.799E-3	-9.35355E-3	105.551E-12	606.104E-3	-49.1367E-3
2.47374E-3	102.498E-12	585.047E-3	-12.9400E-3	105.419E-12	592.566E-3	-28.2529E-3
2.46873E-3	102.902E-12	605.841E-3	-15.1511E-3	104.717E-12	577.584E-3	-6.66920E-3
2.46373E-3	102.581E-12	607.670E-3	-21.3943E-3	104.181E-12	585.459E-3	-4.97950E-3
2.45873E-3	102.755E-12	593.875E-3	-27.8491E-3	103.223E-12	603.811E-3	-8.29812E-3
2.45373E-3	102.973E-12	595.356E-3	-22.6482E-3	101.686E-12	612.689E-3	-10.5407E-3
2.44872E-3	103.932E-12	602.872E-3	-15.8144E-3	101.509E-12	604.017E-3	-9.78878E-3
2.44372E-3	103.246E-12	604.690E-3	-2.13893E-3	101.602E-12	599.011E-3	-8.23191E-3
2.43872E-3	103.179E-12	603.824E-3	9.73983E-3	100.566E-12	584.708E-3	3.47504E-3
2.43372E-3	102.789E-12	589.354E-3	-3.18779E-3	99.0601E-12	564.911E-3	26.3988E-3
2.42871E-3	103.613E-12	580.546E-3	-26.0093E-3	98.8046E-12	571.301E-3	26.2134E-3
2.42371E-3	102.740E-12	587.630E-3	-35.6048E-3	99.9642E-12	591.606E-3	14.7620E-3
2.41871E-3	101.012E-12	595.026E-3	-13.9033E-3	100.464E-12	608.837E-3	16.3004E-3
2.41371E-3	99.9896E-12	597.650E-3	12.4679E-3	99.4474E-12	605.575E-3	7.46370E-3
2.40870E-3	100.861E-12	597.048E-3	9.39050E-3	100.166E-12	591.032E-3	6.66658E-3
2.40370E-3	100.589E-12	592.163E-3	-10.4091E-3	100.403E-12	585.055E-3	16.5714E-3
2.39870E-3	99.5657E-12	581.427E-3	-43.3080E-3	101.746E-12	581.248E-3	14.7487E-3
2.39370E-3	98.9782E-12	578.570E-3	-55.2648E-3	101.366E-12	589.209E-3	16.0898E-3
2.38869E-3	98.7780E-12	595.264E-3	-34.3006E-3	101.573E-12	615.100E-3	-2.33603E-3
2.38369E-3	100.221E-12	609.839E-3	-28.6350E-3	100.972E-12	629.565E-3	-34.0431E-3
2.37869E-3	99.6696E-12	620.477E-3	-30.9379E-3	101.252E-12	613.421E-3	-31.9221E-3
2.37369E-3	98.5395E-12	625.558E-3	-13.2179E-3	101.954E-12	605.962E-3	-16.9864E-3
2.36868E-3	98.1748E-12	603.648E-3	4.59332E-3	101.051E-12	620.101E-3	-18.6143E-3
2.36368E-3	98.6658E-12	595.558E-3	6.31845E-3	100.357E-12	626.656E-3	-15.7228E-3
2.35868E-3	99.2123E-12	617.010E-3	-2.08931E-3	100.201E-12	620.401E-3	-3.77006E-3
2.35368E-3	99.1065E-12	621.216E-3	-26.6526E-3	100.621E-12	614.989E-3	-10.4995E-3
2.34867E-3	98.9291E-12	605.863E-3	-38.7913E-3	99.8461E-12	607.439E-3	-20.8668E-3
2.34367E-3	98.8042E-12	603.110E-3	-30.3692E-3	99.7283E-12	604.797E-3	-22.0667E-3
2.33867E-3	98.7214E-12	601.956E-3	-33.8914E-3	99.2107E-12	614.094E-3	-26.0344E-3
2.33367E-3	98.3889E-12	602.131E-3	-34.5379E-3	97.6635E-12	619.042E-3	-23.8346E-3
2.32866E-3	97.8968E-12	604.327E-3	-26.5300E-3	97.9444E-12	622.078E-3	-16.7229E-3
2.32366E-3	97.1365E-12	596.798E-3	-30.8099E-3	97.5851E-12	618.161E-3	-18.5206E-3
2.31866E-3	97.0865E-12	602.655E-3	-41.2835E-3	98.6244E-12	603.446E-3	-21.3307E-3
2.31366E-3	97.6712E-12	609.263E-3	-39.6245E-3	96.7171E-12	584.639E-3	-20.5854E-3
2.30865E-3	97.1251E-12	601.295E-3	-26.1232E-3	96.0265E-12	579.012E-3	-29.3813E-3
2.30365E-3	95.8911E-12	584.468E-3	-9.47334E-3	95.7031E-12	600.129E-3	-32.7478E-3
2.29865E-3	95.9291E-12	574.893E-3	-8.59253E-3	97.6197E-12	607.698E-3	-18.4277E-3
2.29365E-3	97.1205E-12	585.969E-3	-19.4337E-3	96.3961E-12	585.973E-3	-17.1428E-3
2.28864E-3	96.7845E-12	607.053E-3	-21.5396E-3	94.8526E-12	577.867E-3	-34.5025E-3
2.28364E-3	95.6244E-12	622.062E-3	-22.8483E-3	94.8890E-12	576.633E-3	-36.3163E-3
2.27864E-3	94.4472E-12	609.422E-3	-17.0184E-3	95.0003E-12	575.028E-3	-28.5555E-3
2.27364E-3	95.1531E-12	579.898E-3	4.72487E-3	96.6286E-12	584.788E-3	-28.0327E-3
2.26863E-3	96.1378E-12	569.518E-3	29.0272E-3	96.1975E-12	606.270E-3	-26.9844E-3
2.26363E-3	94.7093E-12	578.216E-3	26.3616E-3	95.4431E-12	642.196E-3	-22.4697E-3
2.25863E-3	94.2113E-12	595.113E-3	-4.58602E-3	95.2715E-12	651.903E-3	-19.0358E-3
2.25363E-3	94.0642E-12	605.210E-3	-31.5000E-3	97.1385E-12	630.153E-3	-19.0252E-3
2.24862E-3	94.7804E-12	590.408E-3	-30.8553E-3	97.5427E-12	615.203E-3	-12.0125E-3
2.24362E-3	93.4475E-12	580.211E-3	-16.7311E-3	95.9688E-12	619.379E-3	-12.4109E-3
2.23862E-3	93.4413E-12	593.835E-3	-1.76343E-3	95.5058E-12	626.731E-3	-21.3204E-3
2.23362E-3	92.5820E-12	602.567E-3	5.57364E-3	95.1081E-12	617.439E-3	-11.9040E-3
2.22861E-3	92.9184E-12	578.983E-3	-17.2426E-3	97.4779E-12	593.471E-3	2.23451E-3
2.22361E-3	93.7778E-12	559.944E-3	-26.1387E-3	95.5726E-12	569.234E-3	-2.96262E-3
2.21861E-3	94.1917E-12	581.691E-3	-4.40609E-3	92.8704E-12	561.260E-3	-23.5029E-3
2.21361E-3	93.3686E-12	602.031E-3	9.54688E-3	92.0573E-12	567.690E-3	-43.9840E-3
2.20860E-3	93.1073E-12	609.918E-3	18.4387E-3	93.9821E-12	573.445E-3	-41.1801E-3
2.20360E-3	94.7056E-12	605.760E-3	19.7745E-3	92.8220E-12	578.177E-3	-29.6231E-3
2.19860E-3	95.0773E-12	589.443E-3	12.5398E-3	89.9990E-12	588.204E-3	-29.6332E-3
2.19360E-3	93.4143E-12	576.481E-3	779.279E-6	89.0008E-12	596.183E-3	-23.1508E-3
2.18859E-3	92.1424E-12	564.556E-3	-5.22396E-3	90.2873E-12	590.421E-3	-6.89016E-3
2.18359E-3	92.2789E-12	577.911E-3	8.05190E-3	90.8520E-12	579.805E-3	-326.983E-6
2.17859E-3	93.4693E-12	611.877E-3	9.87094E-3	89.7058E-12	577.687E-3	-9.83553E-3
2.17359E-3	92.0549E-12	611.770E-3	-7.98757E-3	89.4778E-12	584.906E-3	-17.2642E-3
2.16858E-3	90.5830E-12	579.812E-3	-7.32085E-3	91.2195E-12	595.376E-3	-9.35326E-3
2.16358E-3	90.3512E-12	566.912E-3	4.83870E-3	93.1046E-12	599.564E-3	7.74958E-3
2.15858E-3	91.3693E-12	587.201E-3	14.6510E-3	92.6553E-12	605.535E-3	19.8051E-3
2.15358E-3	90.9998E-12	598.103E-3	5.93488E-3	92.5686E-12	612.181E-3	10.4461E-3
2.14857E-3	88.8924E-12	587.719E-3	-21.1716E-3	92.4742E-12	605.015E-3	-8.78737E-3
2.14357E-3	87.8637E-12	597.261E-3	-22.0073E-3	92.9058E-12	597.536E-3	-14.8473E-3
2.13857E-3	89.4259E-12	605.994E-3	-11.2594E-3	92.6898E-12	598.413E-3	-13.1522E-3
2.13357E-3	90.4704E-12	608.011E-3	-21.3803E-3	92.0772E-12	596.538E-3	-20.0379E-3
2.12856E-3	89.8341E-12	605.046E-3	-31.0717E-3	91.2147E-12	600.107E-3	-33.4308E-3
2.12356E-3	89.4556E-12	584.238E-3	-6.59497E-3	90.3450E-12	600.904E-3	-34.7186E-3
2.11856E-3	89.5595E-12	579.174E-3	13.8232E-3	89.8406E-12	591.639E-3	-23.6713E-3
2.11356E-3	90.8412E-12	599.668E-3	-8.07809E-3	89.5126E-12	589.693E-3	-14.2846E-3
2.10855E-3	91.1198E-12	622.495E-3	-32.0258E-3	88.3946E-12	599.244E-3	-827.271E-6
2.10355E-3	89.8598E-12	625.263E-3	-38.2201E-3	88.4948E-12	619.284E-3	2.40901E-3
2.09855E-3	89.3258E-12	619.624E-3	-38.3204E-3	87.0096E-12	625.170E-3	-16.6819E-3
2.09355E-3	89.3921E-12	618.919E-3	-25.3242E-3	87.0175E-12	599.517E-3	-23.2257E-3
2.08854E-3	91.0878E-12	623.539E-3	-9.62220E-3	86.8869E-12	577.449E-3	-11.9154E-3
2.08354E-3	90.6098E-12	640.281E-3	-230.434E-6	86.7946E-12	575.475E-3	-25.3175E-3
2.07854E-3	88.5117E-12	648.626E-3	1.73222E-3	86.9547E-12	580.229E-3	-46.7553E-3
2.07354E-3	87.3277E-12	632.309E-3	-10.9872E-3	87.4223E-12	592.542E-3	-36.3863E-3
2.06853E-3	88.4060E-12	610.529E-3	-19.0248E-3	88.5763E-12	604.794E-3	-17.9197E-3
2.06353E-3	88.3361E-12	614.472E-3	-22.2263E-3	88.5984E-12	623.732E-3	-17.6760E-3
2.05853E-3	86.9128E-12	635.487E-3	-27.2132E-3	88.5354E-12	646.755E-3	-13.6881E-3
2.05353E-3	86.6730E-12	625.705E-3	-30.2745E-3	88.2458E-12	643.760E-3	-9.51822E-3
2.04852E-3	86.4914E-12	598.367E-3	-34.4694E-3	88.2312E-12	621.401E-3	-17.0938E-3
2.04352E-3	87.4518E-12	584.739E-3	-23.0613E-3	87.6290E-12	591.810E-3	-10.3533E-3
2.03852E-3	86.6970E-12	591.100E-3	-7.22407E-3	87.8809E-12	581.684E-3	8.30718E-3
2.03352E-3	85.5244E-12	608.173E-3	-11.9560E-3	86.7554E-12	596.318E-3	17.4551E-3
2.02851E-3	84.7293E-12	605.959E-3	-8.30076E-3	85.4595E-12	608.415E-3	13.2341E-3
2.02351E-3	85.3140E-12	597.710E-3	-2.52550E-3	85.1290E-12	607.899E-3	5.45521E-3
2.01851E-3	86.5121E-12	597.709E-3	-16.5498E-3	85.0078E-12	603.256E-3	-7.56692E-3
2.01351E-3	86.9393E-12	596.054E-3	-39.5443E-3	84.2689E-12	614.603E-3	-17.2761E-3
2.00850E-3	85.9845E-12	606.701E-3	-52.7815E-3	84.1167E-12	624.434E-3	-22.3214E-3
2.00350E-3	85.3758E-12	622.521E-3	-36.9045E-3	83.7569E-12	619.627E-3	-38.3101E-3
1.99850E-3	87.1034E-12	615.318E-3	-10.5594E-3	83.1512E-12	611.538E-3	-40.9351E-3
1.99350E-3	87.2686E-12	609.816E-3	920.654E-6	83.0752E-12	608.974E-3	-20.9295E-3
1.98849E-3	85.8254E-12	622.285E-3	-179.574E-6	83.0062E-12	610.611E-3	-18.9828E-3
1.98349E-3	83.7320E-12	631.771E-3	-6.60361E-3	82.6855E-12	607.586E-3	-33.6544E-3
1.97849E-3	84.6604E-12	631.767E-3	-27.4967E-3	82.5356E-12	613.166E-3	-22.7297E-3
1.97349E-3	85.1226E-12	626.518E-3	-44.7018E-3	82.8761E-12	637.738E-3	-1.75390E-3
1.96848E-3	84.3661E-12	624.688E-3	-21.6333E-3	82.9943E-12	648.242E-3	4.41841E-3
1.96348E-3	81.8201E-12	621.394E-3	17.5659E-3	82.9652E-12	634.170E-3	4.84007E-3
1.95848E-3	81.0030E-12	615.525E-3	23.9267E-3	83.9484E-12	635.778E-3	-7.21233E-3
1.95348E-3	81.9242E-12	609.413E-3	-6.35804E-3	84.1926E-12	646.085E-3	-20.0812E-3
1.94847E-3	82.9297E-12	603.472E-3	-42.4409E-3	83.3118E-12	644.726E-3	-27.3802E-3
1.94347E-3	81.6297E-12	604.593E-3	-57.1980E-3	82.7990E-12	638.397E-3	-36.1380E-3
1.93847E-3	80.3690E-12	606.894E-3	-42.0042E-3	83.6692E-12	620.761E-3	-31.5290E-3
1.93347E-3	81.0077E-12	603.779E-3	-16.5105E-3	83.6553E-12	602.749E-3	-32.1561E-3
1.92846E-3	82.2559E-12	593.290E-3	-10.5904E-3	83.0178E-12	605.486E-3	-44.5813E-3
1.92346E-3	81.6982E-12	581.122E-3	-13.9969E-3	81.3249E-12	619.277E-3	-42.4606E-3
1.91846E-3	80.5753E-12	582.464E-3	-12.4320E-3	81.6544E-12	620.360E-3	-50.8437E-3
1.91346E-3	80.2116E-12	604.939E-3	-12.9767E-3	82.0564E-12	601.619E-3	-69.5825E-3
1.90845E-3	81.9147E-12	621.589E-3	-10.7930E-3	82.1287E-12	587.386E-3	-61.9340E-3
1.90345E-3	82.3768E-12	619.923E-3	-5.81219E-3	80.9424E-12	603.760E-3	-39.6283E-3
1.89845E-3	81.0302E-12	613.235E-3	-18.9176E-3	80.0283E-12	621.630E-3	-18.7061E-3
1.89345E-3	79.7537E-12	607.273E-3	-24.0359E-3	79.9284E-12	618.479E-3	-9.10489E-3
1.88844E-3	80.4791E-12	609.342E-3	-12.2686E-3	80.9027E-12	616.009E-3	-5.07491E-3
1.88344E-3	81.3706E-12	611.782E-3	-13.3749E-3	79.6337E-12	612.041E-3	-10.2307E-3
1.87844E-3	80.0892E-12	623.253E-3	-19.7045E-3	78.4027E-12	606.363E-3	-20.6761E-3
1.87344E-3	78.9848E-12	628.426E-3	-38.4360E-3	78.5589E-12	624.057E-3	-18.8172E-3
1.86843E-3	78.4001E-12	619.453E-3	-58.7622E-3	79.3333E-12	650.820E-3	-11.1318E-3
1.86343E-3	79.4997E-12	626.484E-3	-45.8376E-3	80.0575E-12	648.557E-3	-5.25446E-3
1.85843E-3	80.0670E-12	632.419E-3	-26.4299E-3	78.1742E-12	630.184E-3	-11.7521E-3
1.85343E-3	79.0656E-12	629.250E-3	-29.5564E-3	78.5096E-12	625.991E-3	-29.2080E-3
1.84842E-3	77.1083E-12	636.446E-3	-32.1733E-3	78.1823E-12	632.197E-3	-29.1590E-3
1.84342E-3	77.6794E-12	626.984E-3	-26.1404E-3	79.7595E-12	629.955E-3	-8.05116E-3
1.83842E-3	78.4731E-12	603.976E-3	-9.00191E-3	79.7980E-12	631.453E-3	4.65587E-3
1.83342E-3	78.2981E-12	604.783E-3	10.5555E-3	79.1740E-12	633.385E-3	-3.52453E-3
1.82841E-3	76.6072E-12	614.478E-3	-4.10892E-3	78.8177E-12	619.840E-3	-11.5430E-3
1.82341E-3	76.2437E-12	620.294E-3	-33.7233E-3	79.7119E-12	620.875E-3	-4.36506E-3
1.81841E-3	77.1562E-12	624.634E-3	-28.5039E-3	80.5776E-12	641.362E-3	-3.97019E-3
1.81341E-3	77.2344E-12	624.236E-3	-389.239E-6	78.4830E-12	646.072E-3	-3.49665E-3
1.80840E-3	76.0506E-12	609.961E-3	4.13263E-3	78.4609E-12	641.585E-3	-504.551E-6
1.80340E-3	74.2659E-12	596.280E-3	-18.3307E-3	78.3067E-12	647.587E-3	-12.9845E-3
1.79840E-3	74.8514E-12	606.232E-3	-29.4476E-3	78.2483E-12	649.873E-3	-9.14552E-3
1.79340E-3	75.4969E-12	619.301E-3	-27.2272E-3	77.8689E-12	642.077E-3	11.4325E-3
1.78839E-3	75.2781E-12	623.561E-3	-37.0125E-3	76.6968E-12	629.255E-3	11.2171E-3
1.78339E-3	73.8128E-12	635.790E-3	-33.7206E-3	76.7901E-12	626.845E-3	1.00880E-3
1.77839E-3	74.4407E-12	640.752E-3	-13.8379E-3	75.4989E-12	630.935E-3	-5.26251E-3
1.77339E-3	75.6192E-12	627.589E-3	-15.0151E-3	75.4471E-12	634.648E-3	-4.25741E-3
1.76838E-3	75.9249E-12	619.204E-3	-18.9546E-3	74.7840E-12	634.339E-3	10.1426E-3
1.76338E-3	74.4880E-12	626.407E-3	-8.10298E-3	75.4931E-12	625.376E-3	8.96916E-3
1.75838E-3	73.5079E-12	640.931E-3	-7.75083E-3	74.7380E-12	631.687E-3	-14.6276E-3
1.75338E-3	74.7881E-12	643.319E-3	-7.87202E-3	74.3675E-12	648.010E-3	-16.5107E-3
1.74837E-3	75.3524E-12	634.811E-3	-8.04958E-3	74.9275E-12	645.722E-3	1.33506E-3
1.74337E-3	74.4144E-12	631.783E-3	-18.7178E-3	74.8616E-12	628.857E-3	-1.67193E-3
1.73837E-3	72.7922E-12	629.951E-3	-23.3401E-3	74.8462E-12	616.419E-3	-13.3950E-3
1.73337E-3	72.5591E-12	638.954E-3	-20.9337E-3	74.9137E-12	623.726E-3	-7.52408E-3
1.72836E-3	74.2949E-12	647.544E-3	-20.1823E-3	75.6709E-12	650.136E-3	-688.477E-6
1.72336E-3	73.6173E-12	644.460E-3	-20.1081E-3	75.8566E-12	665.181E-3	2.98584E-3
1.71836E-3	71.7275E-12	662.600E-3	-20.2277E-3	74.5052E-12	663.632E-3	13.6459E-3
1.71336E-3	71.0098E-12	675.650E-3	-22.3028E-3	74.6570E-12	658.999E-3	9.77085E-3
1.70835E-3	72.2536E-12	657.326E-3	-19.8931E-3	75.2104E-12	633.437E-3	-16.5614E-3
1.70335E-3	72.2368E-12	634.883E-3	-19.8723E-3	75.8542E-12	597.866E-3	-30.9646E-3
1.69835E-3	70.8913E-12	628.916E-3	-28.6669E-3	72.9819E-12	602.115E-3	-29.2994E-3
1.69335E-3	69.9123E-12	639.720E-3	-26.5378E-3	72.0309E-12	632.938E-3	-29.6257E-3
1.68834E-3	71.3890E-12	634.768E-3	-12.4459E-3	72.0496E-12	633.255E-3	-16.3185E-3
1.68334E-3	73.0193E-12	627.566E-3	-935.878E-6	72.4275E-12	619.630E-3	-6.71754E-3
1.67834E-3	71.5439E-12	638.372E-3	138.549E-6	70.9635E-12	622.465E-3	-14.7936E-3
1.67334E-3	70.4749E-12	634.488E-3	2.25946E-3	69.2381E-12	631.698E-3	-3.18393E-3
1.66833E-3	70.4025E-12	628.756E-3	6.37295E-3	69.5420E-12	629.986E-3	18.1774E-3
1.66333E-3	72.0117E-12	653.054E-3	1.35402E-3	69.9998E-12	618.837E-3	23.9339E-3
1.65833E-3	71.2531E-12	681.365E-3	-14.1783E-3	70.4809E-12	614.474E-3	19.1626E-3
1.65333E-3	70.4272E-12	679.842E-3	-35.1504E-3	68.7016E-12	629.894E-3	9.27250E-3
1.64832E-3	69.8078E-12	672.826E-3	-36.0872E-3	69.4568E-12	659.121E-3	-3.54223E-3
1.64332E-3	70.2445E-12	672.958E-3	-22.6165E-3	70.4647E-12	668.208E-3	-9.06083E-3
1.63832E-3	69.5131E-12	663.372E-3	-16.4882E-3	70.2054E-12	657.290E-3	-10.0647E-3
1.63332E-3	68.5070E-12	654.744E-3	-25.7889E-3	69.4216E-12	656.893E-3	-20.8809E-3
1.62831E-3	68.2780E-12	653.095E-3	-32.9966E-3	69.6269E-12	665.027E-3	-18.4419E-3
1.62331E-3	67.9691E-12	652.891E-3	-21.5951E-3	70.9845E-12	676.837E-3	3.71716E-3
1.61831E-3	67.9282E-12	642.276E-3	-15.8212E-3	70.4294E-12	675.226E-3	13.1796E-3
1.61331E-3	67.7228E-12	625.132E-3	-13.4393E-3	69.4766E-12	639.332E-3	-10.9146E-3
1.60830E-3	67.2383E-12	623.880E-3	-8.54145E-3	68.2607E-12	613.231E-3	-40.1408E-3
1.60330E-3	67.4524E-12	638.869E-3	-18.3107E-3	68.9838E-12	620.599E-3	-37.0123E-3
1.59830E-3	67.1835E-12	657.396E-3	-18.8602E-3	68.2990E-12	629.024E-3	-21.3912E-3
1.59330E-3	67.5318E-12	655.897E-3	-2.33322E-3	67.5766E-12	637.050E-3	-19.5957E-3
1.58829E-3	67.2247E-12	643.159E-3	1.27451E-3	66.4117E-12	646.996E-3	-19.1305E-3
1.58329E-3	67.5168E-12	653.602E-3	-8.34277E-3	66.5344E-12	640.381E-3	-14.3903E-3
1.57829E-3	67.2157E-12	663.883E-3	-13.5138E-3	66.3285E-12	627.952E-3	-27.0974E-3
1.57329E-3	67.5136E-12	658.395E-3	-12.7956E-3	66.0949E-12	632.761E-3	-45.3424E-3
1.56828E-3	66.4444E-12	656.360E-3	-23.5485E-3	65.9668E-12	637.529E-3	-39.0993E-3
1.56328E-3	65.9525E-12	656.056E-3	-36.4363E-3	65.3716E-12	632.025E-3	-25.0568E-3
1.55828E-3	65.6505E-12	663.646E-3	-23.4019E-3	66.2933E-12	638.001E-3	-26.5484E-3
1.55328E-3	65.2874E-12	685.581E-3	-10.4549E-3	66.2874E-12	650.190E-3	-35.5496E-3
1.54827E-3	65.1752E-12	694.202E-3	-22.4327E-3	66.2173E-12	651.057E-3	-35.1805E-3
1.54327E-3	63.4571E-12	665.920E-3	-31.8321E-3	66.1987E-12	654.739E-3	-16.5516E-3
1.53827E-3	63.5141E-12	639.935E-3	-22.1777E-3	66.5999E-12	666.291E-3	526.166E-6
1.53327E-3	63.1334E-12	648.951E-3	970.006E-6	66.7485E-12	671.647E-3	-4.32938E-3
1.52826E-3	63.0964E-12	656.310E-3	6.47237E-3	65.9111E-12	661.020E-3	-18.7391E-3
1.52326E-3	62.1634E-12	654.838E-3	-14.8967E-3	64.9614E-12	640.086E-3	-28.3464E-3
1.51826E-3	61.8118E-12	654.050E-3	-22.2221E-3	64.8097E-12	639.542E-3	-27.0859E-3
1.51326E-3	62.1148E-12	642.052E-3	-13.8424E-3	64.6694E-12	664.293E-3	-20.3983E-3
1.50825E-3	62.9937E-12	643.275E-3	-15.3437E-3	64.2858E-12	677.879E-3	-15.7725E-3
1.50325E-3	63.0149E-12	657.017E-3	-23.0106E-3	63.6128E-12	665.809E-3	-16.6009E-3
1.49825E-3	62.2769E-12	663.858E-3	-31.3796E-3	63.2928E-12	648.548E-3	-26.5664E-3
1.49325E-3	63.0461E-12	666.825E-3	-25.5867E-3	63.9134E-12	642.030E-3	-31.2807E-3
1.48824E-3	63.7518E-12	663.286E-3	-3.48922E-3	63.3777E-12	636.917E-3	-18.8414E-3
1.48324E-3	63.5538E-12	653.017E-3	2.16051E-3	62.0897E-12	624.249E-3	-18.4061E-3
1.47824E-3	62.9316E-12	638.678E-3	-13.6976E-3	62.3431E-12	619.479E-3	-42.2437E-3
1.47324E-3	62.6272E-12	625.229E-3	-28.9258E-3	63.0852E-12	615.743E-3	-47.8013E-3
1.46823E-3	63.0864E-12	623.543E-3	-25.6213E-3	62.2376E-12	619.410E-3	-21.0275E-3
1.46323E-3	62.4391E-12	639.127E-3	-15.6983E-3	61.1223E-12	643.135E-3	-5.80717E-3
1.45823E-3	62.0251E-12	658.130E-3	-26.8793E-3	61.5180E-12	631.499E-3	-19.8193E-3
1.45323E-3	61.1226E-12	660.146E-3	-36.9768E-3	62.1757E-12	608.025E-3	-37.5425E-3
1.44822E-3	60.8596E-12	647.598E-3	-28.4058E-3	61.6550E-12	616.889E-3	-47.4952E-3
1.44322E-3	60.6072E-12	624.977E-3	-22.6148E-3	60.1866E-12	617.327E-3	-41.9690E-3
1.43822E-3	60.1243E-12	599.310E-3	-17.8699E-3	60.2001E-12	609.326E-3	-19.7880E-3
1.43322E-3	59.2192E-12	599.756E-3	-16.8185E-3	60.2917E-12	604.932E-3	-1.32254E-3
1.42821E-3	58.9850E-12	623.003E-3	-22.3391E-3	59.8931E-12	602.575E-3	3.44275E-3
1.42321E-3	59.7719E-12	626.351E-3	-21.2248E-3	58.8722E-12	604.683E-3	-6.35509E-3
1.41821E-3	59.8391E-12	617.148E-3	-15.8815E-3	58.3306E-12	612.663E-3	-9.17510E-3
1.41321E-3	60.1862E-12	621.591E-3	-5.89304E-3	58.4450E-12	609.108E-3	781.930E-6
1.40820E-3	58.5761E-12	607.949E-3	-4.80669E-3	58.8148E-12	581.679E-3	-840.236E-6
1.40320E-3	58.5921E-12	583.538E-3	-22.3348E-3	58.5011E-12	573.515E-3	-5.36929E-3
1.39820E-3	58.9403E-12	573.100E-3	-36.5012E-3	58.4073E-12	593.983E-3	-4.30299E-3
1.39320E-3	59.7008E-12	561.530E-3	-29.7401E-3	57.6607E-12	596.765E-3	-4.37735E-3
1.38819E-3	59.4027E-12	554.116E-3	-6.63505E-3	58.3296E-12	581.363E-3	2.51026E-3
1.38319E-3	58.9631E-12	569.303E-3	3.29579E-3	58.2197E-12	563.032E-3	10.2576E-3
1.37819E-3	58.8506E-12	595.380E-3	-11.9397E-3	59.4005E-12	545.519E-3	7.12070E-3
1.37319E-3	59.2290E-12	596.367E-3	-28.4651E-3	58.5794E-12	552.776E-3	-6.79444E-3
1.36818E-3	58.7071E-12	584.395E-3	-37.3621E-3	57.6213E-12	555.451E-3	-17.0587E-3
1.36318E-3	58.0340E-12	582.899E-3	-30.2624E-3	57.9058E-12	534.038E-3	-4.75260E-3
1.35818E-3	57.8031E-12	576.584E-3	-16.2002E-3	58.1753E-12	541.159E-3	10.3507E-3
1.35318E-3	58.0781E-12	569.621E-3	-20.5428E-3	58.1229E-12	544.501E-3	-1.54435E-3
1.34817E-3	57.6752E-12	565.251E-3	-22.1507E-3	56.7967E-12	518.470E-3	-21.9222E-3
1.34317E-3	57.6297E-12	552.087E-3	-9.70823E-3	57.2127E-12	513.613E-3	-23.8664E-3
1.33817E-3	56.9396E-12	548.942E-3	-14.2107E-3	56.9590E-12	511.857E-3	-5.58695E-3
1.33317E-3	56.4392E-12	554.413E-3	-30.4582E-3	56.8919E-12	496.722E-3	5.52803E-3
1.32816E-3	56.0706E-12	539.119E-3	-26.3192E-3	56.3346E-12	497.814E-3	-10.2465E-3
1.32316E-3	56.5472E-12	520.459E-3	-24.2798E-3	55.6753E-12	513.011E-3	-34.9325E-3
1.31816E-3	56.0978E-12	520.326E-3	-32.2808E-3	55.4183E-12	522.045E-3	-49.9352E-3
1.31316E-3	56.2311E-12	510.822E-3	-23.8255E-3	56.0343E-12	508.902E-3	-34.8650E-3
1.30815E-3	55.5471E-12	492.572E-3	-19.0675E-3	55.6102E-12	477.827E-3	-4.41400E-3
1.30315E-3	56.0894E-12	497.027E-3	-23.3127E-3	55.0550E-12	456.619E-3	-10.3373E-3
1.29815E-3	55.9260E-12	492.825E-3	-9.40969E-3	55.5117E-12	458.040E-3	-28.7958E-3
1.29315E-3	55.8097E-12	471.430E-3	14.4052E-3	55.3762E-12	462.218E-3	-20.5423E-3
1.28814E-3	55.5371E-12	469.980E-3	14.1151E-3	55.1363E-12	450.005E-3	-14.4037E-3
1.28314E-3	54.8204E-12	475.768E-3	-706.334E-6	55.6039E-12	426.276E-3	-19.1377E-3
1.27814E-3	55.0664E-12	472.399E-3	-10.0293E-3	55.5274E-12	408.823E-3	-21.3115E-3
1.27314E-3	55.3045E-12	457.585E-3	-27.8061E-3	55.0563E-12	406.700E-3	-21.7168E-3
1.26813E-3	55.1466E-12	437.164E-3	-39.0178E-3	54.5354E-12	411.414E-3	-17.8614E-3
1.26313E-3	54.0955E-12	420.876E-3	-28.9736E-3	53.9785E-12	411.286E-3	-14.4400E-3
1.25813E-3	54.4810E-12	406.765E-3	-21.1534E-3	53.1976E-12	413.121E-3	-15.0881E-3
1.25313E-3	54.4409E-12	397.324E-3	-28.7626E-3	53.2719E-12	405.676E-3	-16.9761E-3
1.24812E-3	54.3065E-12	382.143E-3	-30.9913E-3	52.7752E-12	393.757E-3	-21.9718E-3
1.24312E-3	55.1529E-12	374.013E-3	-11.7211E-3	52.3119E-12	401.437E-3	-22.4370E-3
1.23812E-3	54.6904E-12	383.862E-3	8.14012E-3	52.4502E-12	398.797E-3	-16.1460E-3
1.23312E-3	54.4219E-12	391.078E-3	5.80279E-3	53.0970E-12	375.705E-3	-22.3455E-3
1.22811E-3	53.8682E-12	396.379E-3	-249.808E-6	53.0945E-12	361.726E-3	-39.4876E-3
1.22311E-3	54.3457E-12	383.892E-3	5.79895E-3	53.0025E-12	350.828E-3	-40.7108E-3
1.21811E-3	53.8204E-12	355.812E-3	14.5952E-3	53.6870E-12	340.183E-3	-34.1994E-3
1.21311E-3	53.3818E-12	338.844E-3	15.6409E-3	53.8160E-12	338.691E-3	-31.1614E-3
1.20810E-3	52.4899E-12	332.379E-3	12.1324E-3	53.9154E-12	325.589E-3	-20.9429E-3
1.20310E-3	52.8992E-12	335.479E-3	5.56608E-3	53.7254E-12	315.830E-3	-13.3324E-3
1.19810E-3	52.7808E-12	331.818E-3	-11.1938E-3	53.5581E-12	314.921E-3	-24.6516E-3
1.19310E-3	52.3189E-12	320.293E-3	-22.6237E-3	52.9881E-12	294.803E-3	-27.5179E-3
1.18809E-3	52.0298E-12	310.989E-3	-11.1164E-3	53.7063E-12	271.240E-3	6.40135E-3
1.18309E-3	52.4964E-12	297.916E-3	-8.11919E-3	52.9408E-12	260.186E-3	19.3456E-3
1.17809E-3	53.3252E-12	295.346E-3	-18.7835E-3	52.2245E-12	251.863E-3	-4.80928E-3
1.17309E-3	53.5991E-12	298.504E-3	-13.9960E-3	51.5387E-12	250.182E-3	-22.8181E-3
1.16808E-3	52.7910E-12	291.471E-3	-15.5998E-3	51.4417E-12	255.512E-3	-32.6256E-3
1.16308E-3	52.6841E-12	283.026E-3	-21.2111E-3	51.4485E-12	249.072E-3	-29.5570E-3
1.15808E-3	53.8355E-12	275.290E-3	-16.3551E-3	50.5685E-12	226.020E-3	-17.7094E-3
1.15308E-3	54.6911E-12	265.196E-3	-18.3255E-3	49.8215E-12	211.759E-3	-11.3639E-3
1.14807E-3	53.5592E-12	255.934E-3	-25.8257E-3	49.7909E-12	216.800E-3	-18.3037E-3
1.14307E-3	52.3264E-12	251.251E-3	-38.5990E-3	50.8093E-12	211.846E-3	-25.8167E-3
1.13807E-3	52.7405E-12	256.020E-3	-47.4161E-3	50.5053E-12	201.133E-3	-19.7618E-3
1.13307E-3	52.6503E-12	260.169E-3	-30.2927E-3	49.6863E-12	200.671E-3	-12.4698E-3
1.12806E-3	51.9417E-12	253.720E-3	-16.9941E-3	50.5022E-12	196.595E-3	-7.25085E-3
1.12306E-3	51.3092E-12	232.801E-3	-23.4709E-3	51.3787E-12	213.779E-3	-19.8100E-3
1.11806E-3	50.4587E-12	220.303E-3	-24.3575E-3	51.7356E-12	242.194E-3	-47.7544E-3
1.11306E-3	50.4350E-12	236.192E-3	-18.3107E-3	51.5681E-12	236.441E-3	-39.1677E-3
1.10805E-3	50.5648E-12	229.769E-3	-18.1871E-3	51.2038E-12	211.464E-3	-21.8232E-3
1.10305E-3	50.0523E-12	198.431E-3	-29.3931E-3	51.6020E-12	185.626E-3	-32.6212E-3
1.09805E-3	49.2345E-12	184.177E-3	-30.3963E-3	51.6997E-12	175.948E-3	-32.9514E-3
1.09305E-3	49.8797E-12	173.940E-3	-30.5539E-3	52.0262E-12	188.805E-3	-13.8376E-3
1.08804E-3	50.8004E-12	169.401E-3	-30.7453E-3	51.8741E-12	185.809E-3	9.87743E-3
1.08304E-3	50.5134E-12	188.059E-3	-10.3181E-3	51.6598E-12	165.300E-3	9.48322E-3
1.07804E-3	50.3604E-12	195.991E-3	742.990E-6	51.3517E-12	155.803E-3	-15.5901E-3
1.07304E-3	50.6723E-12	178.908E-3	-14.7074E-3	51.3520E-12	162.670E-3	-28.0625E-3
1.06803E-3	51.8120E-12	163.899E-3	-19.4254E-3	51.3635E-12	169.723E-3	-26.6730E-3
1.06303E-3	52.0617E-12	155.902E-3	-11.3053E-3	50.2487E-12	158.746E-3	-11.9660E-3
1.05803E-3	51.9688E-12	162.752E-3	-7.90117E-3	49.8660E-12	141.043E-3	1.44653E-3
1.05303E-3	51.6794E-12	184.370E-3	-4.24215E-3	49.9422E-12	131.550E-3	-8.77263E-3
1.04802E-3	52.8633E-12	178.406E-3	-9.94815E-3	50.3661E-12	128.592E-3	-16.0339E-3
1.04302E-3	53.1797E-12	144.390E-3	-23.3556E-3	50.0226E-12	132.271E-3	-13.1437E-3
1.03802E-3	51.6690E-12	133.590E-3	-21.5911E-3	49.5142E-12	126.048E-3	-23.2952E-3
1.03302E-3	50.9056E-12	153.368E-3	-13.5811E-3	49.8132E-12	110.610E-3	-30.3375E-3
1.02801E-3	50.6979E-12	166.392E-3	-19.6825E-3	49.7998E-12	116.587E-3	-32.0799E-3
1.02301E-3	50.9257E-12	157.357E-3	-28.9554E-3	50.0878E-12	124.320E-3	-39.0766E-3
1.01801E-3	49.5294E-12	140.435E-3	-27.3692E-3	50.0280E-12	126.116E-3	-37.4842E-3
1.01301E-3	49.0046E-12	119.707E-3	-17.3541E-3	50.4712E-12	141.054E-3	-29.3832E-3
1.00800E-3	49.8128E-12	117.523E-3	-6.04760E-3	50.3966E-12	143.711E-3	-20.7137E-3
1.00300E-3	49.9891E-12	135.846E-3	-1.44861E-3	49.7100E-12	136.693E-3	-18.5599E-3
997.999E-6	49.9594E-12	131.124E-3	-16.9290E-3	50.1670E-12	139.127E-3	-19.7855E-3
992.997E-6	49.1351E-12	109.829E-3	-26.6862E-3	51.3414E-12	132.390E-3	-15.1081E-3
987.994E-6	49.4316E-12	109.688E-3	-14.7407E-3	50.8717E-12	122.964E-3	-16.0799E-3
982.991E-6	49.9089E-12	126.114E-3	-11.2836E-3	50.1372E-12	123.620E-3	-13.7702E-3
977.989E-6	49.8107E-12	130.939E-3	-13.3168E-3	50.4603E-12	128.783E-3	3.11395E-3
972.986E-6	49.3397E-12	121.481E-3	-3.39558E-3	50.2435E-12	128.409E-3	13.1312E-3
967.984E-6	49.8481E-12	112.401E-3	-2.51515E-3	51.1310E-12	137.795E-3	11.5363E-3
962.981E-6	50.7022E-12	118.393E-3	-19.8935E-3	50.8526E-12	164.201E-3	6.00799E-3
957.979E-6	50.0463E-12	145.891E-3	-25.2047E-3	50.0072E-12	152.706E-3	-9.45852E-3
952.976E-6	49.7406E-12	157.723E-3	-24.9325E-3	49.3906E-12	124.216E-3	-17.9412E-3
947.974E-6	49.8758E-12	148.508E-3	-31.8059E-3	50.0177E-12	140.980E-3	-15.2767E-3
942.971E-6	49.5779E-12	148.365E-3	-26.2167E-3	49.6804E-12	165.825E-3	-26.3917E-3
937.969E-6	49.3262E-12	146.187E-3	-12.6042E-3	49.6296E-12	170.373E-3	-24.4446E-3
932.966E-6	49.3448E-12	149.562E-3	-9.70156E-3	49.3222E-12	168.419E-3	-3.60692E-3
927.964E-6	49.1525E-12	164.279E-3	-22.5026E-3	48.3107E-12	164.787E-3	-8.78072E-3
922.961E-6	48.5999E-12	152.034E-3	-37.1817E-3	49.0049E-12	173.395E-3	-18.4762E-3
917.959E-6	48.5182E-12	123.969E-3	-39.0845E-3	49.0818E-12	181.576E-3	-8.66493E-3
912.956E-6	48.8918E-12	131.464E-3	-22.8312E-3	49.0668E-12	178.721E-3	-10.5717E-3
907.954E-6	48.3794E-12	160.970E-3	-9.01529E-3	48.1786E-12	168.544E-3	-15.9071E-3
902.951E-6	48.0733E-12	178.593E-3	-14.1337E-3	48.9541E-12	165.414E-3	-6.19177E-3
897.949E-6	48.1226E-12	186.718E-3	-18.7451E-3	48.3801E-12	186.048E-3	-12.5570E-3
892.946E-6	47.8901E-12	178.747E-3	-16.9420E-3	48.4165E-12	212.737E-3	-30.5733E-3
887.944E-6	47.4551E-12	163.714E-3	-23.0770E-3	48.4012E-12	231.052E-3	-33.8620E-3
882.941E-6	47.6913E-12	164.834E-3	-26.5718E-3	48.6244E-12	219.692E-3	-25.4961E-3
877.939E-6	48.0764E-12	174.720E-3	-14.2068E-3	48.8143E-12	195.091E-3	-11.0463E-3
872.936E-6	47.7991E-12	183.232E-3	-13.8593E-3	48.6410E-12	195.137E-3	-6.90440E-3
867.934E-6	48.1450E-12	187.368E-3	-21.3673E-3	47.9872E-12	206.527E-3	-18.7631E-3
862.931E-6	48.2026E-12	202.027E-3	-9.26297E-3	47.4592E-12	218.496E-3	-14.1320E-3
857.929E-6	48.0175E-12	222.240E-3	-2.42164E-3	48.5438E-12	227.528E-3	-7.51358E-3
852.926E-6	48.5147E-12	220.687E-3	-13.4719E-3	48.5571E-12	228.596E-3	-31.5279E-3
847.924E-6	48.0928E-12	211.954E-3	-15.2631E-3	47.8505E-12	235.191E-3	-51.7911E-3
842.921E-6	48.3414E-12	217.810E-3	-12.7834E-3	46.8937E-12	258.200E-3	-43.2278E-3
837.919E-6	48.5642E-12	243.312E-3	-5.86043E-3	46.8870E-12	269.871E-3	-24.9406E-3
832.916E-6	48.6175E-12	264.469E-3	11.4960E-3	47.0778E-12	255.747E-3	-14.5257E-3
827.914E-6	48.5427E-12	268.682E-3	337.926E-6	47.0447E-12	261.721E-3	-15.2233E-3
822.911E-6	48.5855E-12	279.530E-3	-27.6700E-3	46.6303E-12	291.046E-3	-27.3708E-3
817.909E-6	47.9779E-12	294.677E-3	-27.0830E-3	45.6119E-12	308.791E-3	-35.0365E-3
812.906E-6	48.0093E-12	301.342E-3	-16.6052E-3	46.1476E-12	322.387E-3	-21.5844E-3
807.904E-6	47.3435E-12	319.512E-3	-20.0673E-3	46.3759E-12	334.368E-3	-9.54991E-3
802.901E-6	47.6289E-12	339.711E-3	-24.2129E-3	46.7167E-12	339.808E-3	-17.9509E-3
797.899E-6	47.5994E-12	337.319E-3	-19.2329E-3	46.1831E-12	360.458E-3	-24.3621E-3
792.896E-6	46.5109E-12	338.320E-3	-12.2829E-3	46.4552E-12	390.789E-3	-8.58217E-3
787.894E-6	46.2498E-12	351.685E-3	-8.94503E-3	46.9189E-12	405.624E-3	15.0056E-3
782.891E-6	46.7812E-12	359.301E-3	-14.5091E-3	47.3453E-12	408.655E-3	20.4318E-3
777.889E-6	46.3093E-12	366.403E-3	-19.9798E-3	47.8702E-12	405.056E-3	5.89630E-3
772.886E-6	45.9123E-12	381.196E-3	-18.3518E-3	47.1320E-12	407.988E-3	-13.4278E-3
767.884E-6	45.9498E-12	383.391E-3	-20.6236E-3	46.6034E-12	439.655E-3	-20.9925E-3
762.881E-6	45.7747E-12	379.196E-3	-31.8851E-3	46.4969E-12	473.937E-3	-13.1823E-3
757.879E-6	46.0294E-12	388.557E-3	-30.6998E-3	47.1197E-12	479.234E-3	-2.16013E-3
752.876E-6	46.5198E-12	402.914E-3	-10.2588E-3	47.1413E-12	476.323E-3	10.8907E-3
747.874E-6	45.9679E-12	422.649E-3	-6.31157E-3	45.8382E-12	496.848E-3	19.1181E-3
742.871E-6	45.6193E-12	442.849E-3	-14.6515E-3	45.1246E-12	526.560E-3	18.3256E-3
737.869E-6	45.6755E-12	456.298E-3	-8.57963E-3	44.8843E-12	545.358E-3	16.8605E-3
732.866E-6	46.6504E-12	474.648E-3	-6.23044E-3	45.2356E-12	557.601E-3	7.51880E-3
727.864E-6	45.9631E-12	511.546E-3	-19.0927E-3	44.6529E-12	566.835E-3	-16.0958E-3
722.861E-6	45.6834E-12	539.927E-3	-25.7454E-3	43.8120E-12	585.579E-3	-34.9320E-3
717.859E-6	45.6627E-12	529.921E-3	-24.3233E-3	43.6677E-12	611.129E-3	-31.8348E-3
712.856E-6	45.4631E-12	533.473E-3	-26.3935E-3	43.8721E-12	623.323E-3	-16.0386E-3
707.854E-6	44.8136E-12	570.363E-3	-10.0531E-3	44.1591E-12	635.519E-3	-2.26031E-3
702.851E-6	43.6975E-12	601.317E-3	14.1190E-3	43.7855E-12	679.777E-3	-3.51963E-3
697.849E-6	43.1964E-12	626.376E-3	7.38232E-3	43.3477E-12	717.768E-3	-13.2026E-3
692.846E-6	42.9762E-12	626.090E-3	-9.38277E-3	43.9836E-12	724.812E-3	-6.97417E-3
687.844E-6	43.1785E-12	611.249E-3	-12.5840E-3	44.5728E-12	740.517E-3	6.14791E-3
682.841E-6	42.6136E-12	639.821E-3	-10.4303E-3	44.4889E-12	764.887E-3	-2.13884E-3
677.839E-6	41.3620E-12	686.257E-3	-19.5957E-3	43.3631E-12	797.286E-3	-13.4225E-3
672.836E-6	41.3975E-12	703.534E-3	-36.3505E-3	43.2565E-12	824.359E-3	-15.0984E-3
667.834E-6	41.2987E-12	700.589E-3	-38.3213E-3	43.7909E-12	825.573E-3	-16.7469E-3
662.831E-6	41.4322E-12	720.679E-3	-24.4613E-3	43.9815E-12	828.788E-3	-16.9605E-3
657.829E-6	40.4414E-12	753.184E-3	-13.4069E-3	42.8517E-12	859.930E-3	-14.4989E-3
652.826E-6	40.8387E-12	764.970E-3	-19.5161E-3	41.6826E-12	902.177E-3	-7.54486E-3
647.824E-6	41.1619E-12	779.965E-3	-25.1967E-3	41.9748E-12	925.232E-3	-3.12879E-3
642.821E-6	40.9541E-12	796.780E-3	-22.3799E-3	41.7086E-12	926.551E-3	7.13127E-3
637.819E-6	40.2539E-12	824.189E-3	-27.0166E-3	41.1396E-12	923.153E-3	17.2252E-3
632.816E-6	40.2258E-12	867.113E-3	-23.4701E-3	40.4577E-12	931.463E-3	13.1587E-3
627.814E-6	40.5544E-12	886.621E-3	-13.2780E-3	39.7717E-12	956.723E-3	-1.40703E-3
622.811E-6	40.6483E-12	894.722E-3	-16.3994E-3	39.3356E-12	982.328E-3	-20.5693E-3
617.809E-6	39.7888E-12	927.356E-3	-16.1952E-3	39.1366E-12	998.136E-3	-25.4322E-3
612.806E-6	38.5668E-12	961.480E-3	-10.1567E-3	39.6723E-12	1.02396E+0	-1.77441E-3
607.804E-6	38.5543E-12	981.602E-3	-21.2287E-3	38.5640E-12	1.05967E+0	8.26729E-3
602.801E-6	38.5004E-12	1.00199E+0	-29.2857E-3	38.0502E-12	1.07985E+0	-12.8431E-3
597.799E-6	38.6402E-12	1.01869E+0	-18.4992E-3	37.7109E-12	1.09006E+0	-15.1275E-3
592.796E-6	37.2589E-12	1.03437E+0	-18.6559E-3	38.1186E-12	1.11384E+0	-6.56337E-3
587.794E-6	36.7800E-12	1.05927E+0	-31.4500E-3	37.3254E-12	1.14296E+0	-4.79200E-3
582.791E-6	36.4829E-12	1.07929E+0	-24.8876E-3	36.5933E-12	1.15427E+0	6.26978E-3
577.789E-6	36.4231E-12	1.08838E+0	-7.68275E-3	36.3802E-12	1.16219E+0	8.98671E-3
572.786E-6	35.5877E-12	1.09477E+0	-16.2329E-3	36.2249E-12	1.18823E+0	-8.99748E-3
567.784E-6	34.8693E-12	1.10307E+0	-20.6757E-3	36.0642E-12	1.20604E+0	-20.4019E-3
562.781E-6	34.9512E-12	1.11508E+0	-11.1471E-3	35.1138E-12	1.21807E+0	-10.3553E-3
557.779E-6	35.3014E-12	1.13314E+0	-10.0359E-3	35.0716E-12	1.24371E+0	-7.39405E-3
552.776E-6	34.9734E-12	1.16389E+0	-5.71589E-3	34.4598E-12	1.25884E+0	-20.7957E-3
547.774E-6	34.0261E-12	1.18694E+0	-4.18102E-3	34.5761E-12	1.26602E+0	-25.5081E-3
542.771E-6	33.9066E-12	1.19626E+0	-6.49431E-3	33.9131E-12	1.27571E+0	-19.1306E-3
537.769E-6	34.0742E-12	1.21554E+0	920.742E-6	33.4728E-12	1.28362E+0	-9.59370E-3
532.766E-6	33.9897E-12	1.23987E+0	4.11444E-3	32.8426E-12	1.29007E+0	-415.901E-6
527.764E-6	33.3944E-12	1.27402E+0	-15.6815E-3	32.4139E-12	1.30457E+0	-6.06117E-3
522.761E-6	33.2158E-12	1.30825E+0	-28.8399E-3	31.8380E-12	1.31802E+0	-19.2261E-3
517.759E-6	32.9211E-12	1.32275E+0	-30.9042E-3	31.3211E-12	1.32456E+0	-24.0133E-3
512.756E-6	32.6036E-12	1.34043E+0	-40.7282E-3	30.8516E-12	1.33418E+0	-21.1671E-3
507.754E-6	32.0384E-12	1.36685E+0	-36.5149E-3	30.4321E-12	1.32767E+0	-20.4732E-3
502.751E-6	30.9096E-12	1.38356E+0	-33.1501E-3	30.1370E-12	1.32045E+0	-28.3770E-3
497.749E-6	29.8794E-12	1.38512E+0	-46.6982E-3	29.6510E-12	1.34316E+0	-35.2402E-3
492.746E-6	29.7687E-12	1.37663E+0	-35.9190E-3	29.3028E-12	1.36543E+0	-26.9699E-3
487.744E-6	29.6584E-12	1.37085E+0	-5.00425E-3	28.9201E-12	1.37604E+0	-7.89959E-3
482.741E-6	28.6875E-12	1.37361E+0	-6.15418E-3	28.6006E-12	1.39444E+0	654.619E-6
477.739E-6	27.6039E-12	1.38171E+0	-28.8895E-3	28.0495E-12	1.40319E+0	-10.7607E-3
472.736E-6	27.2668E-12	1.38576E+0	-37.5605E-3	27.4472E-12	1.39910E+0	-27.3828E-3
467.734E-6	27.3073E-12	1.36942E+0	-35.9280E-3	27.3504E-12	1.40642E+0	-24.7519E-3
462.731E-6	26.9929E-12	1.36321E+0	-27.5290E-3	26.9371E-12	1.41504E+0	-13.7307E-3
457.729E-6	26.1555E-12	1.39022E+0	-3.82008E-3	26.4401E-12	1.41048E+0	-19.1350E-3
452.726E-6	25.5955E-12	1.41228E+0	3.91139E-3	25.9207E-12	1.41138E+0	-31.2833E-3
447.724E-6	25.6208E-12	1.41249E+0	-13.8945E-3	25.6023E-12	1.41015E+0	-32.3800E-3
442.721E-6	25.8091E-12	1.40940E+0	-11.1918E-3	25.4086E-12	1.40072E+0	-17.7134E-3
437.719E-6	25.2018E-12	1.42355E+0	-4.54329E-3	24.6870E-12	1.41725E+0	6.20315E-3
432.716E-6	24.2087E-12	1.45133E+0	-19.8838E-3	23.8773E-12	1.44462E+0	12.1710E-3
427.714E-6	23.8863E-12	1.45899E+0	-25.5530E-3	23.4475E-12	1.44006E+0	-804.993E-6
422.711E-6	24.0781E-12	1.44016E+0	-17.8484E-3	23.3134E-12	1.41958E+0	212.899E-6
417.709E-6	23.6757E-12	1.43656E+0	-17.5671E-3	22.8572E-12	1.40917E+0	8.20612E-3
412.706E-6	22.7694E-12	1.45688E+0	-20.9774E-3	22.2558E-12	1.40504E+0	4.30912E-3
407.704E-6	22.1379E-12	1.47030E+0	-26.7524E-3	21.6717E-12	1.39365E+0	-1.26835E-3
402.701E-6	21.8952E-12	1.46440E+0	-39.9102E-3	21.2094E-12	1.37398E+0	-5.76397E-3
397.699E-6	21.5448E-12	1.45147E+0	-35.6170E-3	20.7965E-12	1.36794E+0	-12.2284E-3
392.696E-6	20.5946E-12	1.44074E+0	-15.1178E-3	20.2566E-12	1.38025E+0	-9.39063E-3
387.694E-6	19.6483E-12	1.42827E+0	-20.4562E-3	19.6980E-12	1.38911E+0	-7.90726E-3
382.691E-6	19.3718E-12	1.41085E+0	-35.4931E-3	19.4317E-12	1.37345E+0	-9.83524E-3
377.689E-6	19.1126E-12	1.39096E+0	-27.1978E-3	19.1630E-12	1.34047E+0	-9.44308E-3
372.686E-6	18.5303E-12	1.37375E+0	-17.5836E-3	18.6213E-12	1.33060E+0	-18.9307E-3
367.684E-6	17.7060E-12	1.36424E+0	-17.3596E-3	18.2095E-12	1.34481E+0	-31.0480E-3
362.681E-6	17.3592E-12	1.35172E+0	-6.87642E-3	17.7540E-12	1.34716E+0	-23.4870E-3
357.679E-6	17.1523E-12	1.32874E+0	-7.19822E-3	17.5709E-12	1.32310E+0	-12.6909E-3
352.676E-6	16.9889E-12	1.32319E+0	-24.2992E-3	17.2712E-12	1.28380E+0	-16.7450E-3
347.674E-6	16.4973E-12	1.33278E+0	-25.0473E-3	16.5198E-12	1.25295E+0	-15.8228E-3
342.671E-6	15.7593E-12	1.32824E+0	-30.5231E-3	15.8800E-12	1.24601E+0	-6.19153E-3
337.669E-6	15.4109E-12	1.30927E+0	-42.9349E-3	15.6448E-12	1.23484E+0	5.41609E-3
332.666E-6	15.2734E-12	1.28221E+0	-31.6714E-3	15.2985E-12	1.20241E+0	15.8880E-3
327.664E-6	15.0090E-12	1.27196E+0	-15.1866E-3	14.7179E-12	1.18872E+0	16.3408E-3
322.661E-6	14.3465E-12	1.28133E+0	-20.4628E-3	14.1360E-12	1.18565E+0	-911.124E-6
317.659E-6	13.8813E-12	1.27414E+0	-32.1843E-3	13.6445E-12	1.16825E+0	-14.1050E-3
312.656E-6	13.7103E-12	1.24432E+0	-28.9977E-3	13.4953E-12	1.14933E+0	-12.1789E-3
307.654E-6	13.5274E-12	1.22153E+0	-12.7886E-3	12.9748E-12	1.12959E+0	-15.3302E-3
302.651E-6	12.7548E-12	1.20985E+0	-3.07385E-3	12.5390E-12	1.10262E+0	-13.1600E-3
297.649E-6	12.1818E-12	1.19071E+0	-21.8104E-3	12.0103E-12	1.08121E+0	-6.33983E-3
292.646E-6	12.0101E-12	1.15583E+0	-41.0331E-3	11.8625E-12	1.07280E+0	-15.3898E-3
287.644E-6	11.8020E-12	1.11644E+0	-27.7562E-3	11.5679E-12	1.05322E+0	-21.2762E-3
282.641E-6	11.4753E-12	1.09858E+0	-13.7324E-3	11.1110E-12	1.02155E+0	-7.59644E-3
277.639E-6	10.8338E-12	1.09887E+0	-21.2897E-3	10.7626E-12	996.510E-3	-3.22762E-3
272.636E-6	10.5026E-12	1.08599E+0	-22.1948E-3	10.4173E-12	985.952E-3	-26.5950E-3
267.634E-6	10.1680E-12	1.04678E+0	-13.1073E-3	10.2131E-12	983.169E-3	-53.8224E-3
262.631E-6	9.89239E-12	1.01954E+0	-11.7977E-3	9.95805E-12	979.921E-3	-53.7028E-3
257.629E-6	9.55360E-12	1.01164E+0	-2.53344E-3	9.56582E-12	961.824E-3	-32.9006E-3
252.626E-6	9.13182E-12	993.454E-3	6.62581E-3	9.26747E-12	926.965E-3	-20.1001E-3
247.624E-6	9.04010E-12	970.756E-3	-7.61376E-3	9.06445E-12	898.052E-3	-24.9096E-3
242.621E-6	8.84908E-12	947.395E-3	-18.8043E-3	8.86123E-12	873.845E-3	-24.8535E-3
237.619E-6	8.51341E-12	922.787E-3	-11.2930E-3	8.56613E-12	845.711E-3	-11.0847E-3
232.616E-6	8.04675E-12	907.231E-3	-15.1506E-3	8.22786E-12	819.276E-3	-8.54090E-3
227.614E-6	7.74538E-12	900.891E-3	-25.9829E-3	7.81030E-12	793.072E-3	-17.3199E-3
222.611E-6	7.62052E-12	883.398E-3	-17.4751E-3	7.50243E-12	769.669E-3	-17.0276E-3
217.609E-6	7.43243E-12	851.664E-3	-15.8000E-3	7.16906E-12	753.895E-3	-7.51038E-3
212.606E-6	7.04067E-12	827.559E-3	-16.6451E-3	6.91370E-12	737.045E-3	-6.10757E-3
207.604E-6	6.74900E-12	807.621E-3	2.04775E-3	6.68021E-12	708.837E-3	-16.5682E-3
202.601E-6	6.56061E-12	784.473E-3	-2.53706E-3	6.39886E-12	677.333E-3	-28.2205E-3
197.599E-6	6.40973E-12	769.026E-3	-31.4594E-3	6.23963E-12	655.462E-3	-34.2137E-3
192.596E-6	6.13074E-12	756.154E-3	-39.2492E-3	5.90601E-12	646.836E-3	-25.9835E-3
187.594E-6	5.75417E-12	737.390E-3	-29.3651E-3	5.67869E-12	644.462E-3	-13.4046E-3
182.591E-6	5.56523E-12	721.840E-3	-18.6114E-3	5.53235E-12	635.430E-3	-8.51553E-3
177.589E-6	5.38788E-12	707.704E-3	-9.67139E-3	5.36340E-12	619.447E-3	90.7591E-6
172.586E-6	5.13330E-12	689.639E-3	-17.6774E-3	5.14447E-12	606.345E-3	-7.76237E-3
167.584E-6	4.94211E-12	670.855E-3	-31.6549E-3	4.85170E-12	598.948E-3	-36.7426E-3
162.581E-6	4.62228E-12	647.937E-3	-20.8485E-3	4.73326E-12	585.291E-3	-41.1681E-3
157.579E-6	4.41648E-12	625.824E-3	-4.96535E-3	4.60063E-12	562.218E-3	-15.4097E-3
152.576E-6	4.28273E-12	612.588E-3	-4.06915E-3	4.47213E-12	537.717E-3	-399.641E-6
147.574E-6	4.07747E-12	598.282E-3	-5.05563E-3	4.20508E-12	513.555E-3	-11.3895E-3
142.571E-6	3.87651E-12	568.568E-3	-8.66211E-3	3.91821E-12	501.191E-3	-22.7700E-3
137.569E-6	3.64500E-12	544.942E-3	-9.91091E-3	3.82972E-12	496.808E-3	-27.7243E-3
132.566E-6	3.61473E-12	538.963E-3	-3.06224E-3	3.71495E-12	470.937E-3	-30.2565E-3
127.564E-6	3.50805E-12	529.044E-3	-13.5618E-3	3.49538E-12	435.452E-3	-32.9837E-3
122.561E-6	3.24228E-12	513.738E-3	-38.9079E-3	3.20783E-12	421.798E-3	-45.2659E-3
117.559E-6	2.99476E-12	492.972E-3	-39.5278E-3	3.06060E-12	421.766E-3	-53.2083E-3
112.556E-6	2.89508E-12	460.251E-3	-25.3187E-3	2.98034E-12	431.507E-3	-37.9381E-3
107.554E-6	2.83361E-12	433.566E-3	-20.6319E-3	2.80456E-12	428.933E-3	-13.0553E-3
102.551E-6	2.70440E-12	430.834E-3	-10.3361E-3	2.50482E-12	395.152E-3	-6.34587E-3
97.5488E-6	2.40926E-12	427.792E-3	-5.35418E-3	2.39289E-12	373.791E-3	-8.35823E-3
92.5463E-6	2.23215E-12	411.991E-3	-18.8312E-3	2.32563E-12	387.001E-3	-9.15211E-3
87.5438E-6	2.20905E-12	409.292E-3	-23.4518E-3	2.16749E-12	394.174E-3	-3.02595E-3
82.5413E-6	2.03229E-12	414.320E-3	-23.9775E-3	1.96761E-12	378.976E-3	8.35435E-3
77.5388E-6	1.87506E-12	409.123E-3	-33.0257E-3	1.80890E-12	367.019E-3	430.516E-6
72.5363E-6	1.65445E-12	406.038E-3	-32.5960E-3	1.69324E-12	356.622E-3	-13.4370E-3
67.5338E-6	1.57711E-12	392.562E-3	-15.8726E-3	1.65367E-12	353.181E-3	-2.00487E-3
62.5313E-6	1.48567E-12	368.816E-3	-4.05852E-3	1.51037E-12	367.503E-3	11.3324E-3
57.5288E-6	1.29436E-12	365.211E-3	-5.43459E-3	1.36080E-12	377.324E-3	1.31485E-3
52.5263E-6	1.14599E-12	369.685E-3	-8.91582E-3	1.21574E-12	366.121E-3	-481.218E-6
47.5238E-6	1.02622E-12	368.473E-3	-23.4789E-3	1.11440E-12	354.462E-3	5.66684E-3
42.5213E-6	957.352E-15	359.771E-3	-33.9806E-3	1.04140E-12	355.693E-3	-8.28828E-3
37.5188E-6	860.785E-15	338.670E-3	-16.1811E-3	896.604E-15	352.546E-3	-26.1768E-3
32.5163E-6	704.431E-15	330.117E-3	2.05235E-3	783.000E-15	352.894E-3	-21.5604E-3
27.5138E-6	532.739E-15	350.541E-3	-2.46129E-3	583.302E-15	367.215E-3	-14.2177E-3
22.5113E-6	456.820E-15	362.038E-3	-16.1589E-3	456.881E-15	376.038E-3	-26.6894E-3
17.5088E-6	359.870E-15	342.662E-3	-22.6817E-3	409.666E-15	375.888E-3	-40.2695E-3
12.5063E-6	287.569E-15	333.867E-3	-22.0618E-3	305.958E-15	383.412E-3	-36.0128E-3
7.50375E-6	91.4896E-15	350.575E-3	-18.2755E-3	44.7192E-15	392.413E-3	-16.6438E-3
2.50125E-6	-105.924E-15	359.887E-3	-12.4171E-3	-97.6584E-15	394.923E-3	-7.87685E-3
-2.50125E-6	-140.235E-15	357.660E-3	-13.2215E-3	-141.665E-15	392.038E-3	-14.7600E-3
-7.50375E-6	-193.780E-15	362.899E-3	-18.3527E-3	-210.913E-15	391.330E-3	-14.0166E-3
-12.5063E-6	-381.515E-15	372.412E-3	-16.8255E-3	-448.471E-15	392.024E-3	1.05191E-3
-17.5088E-6	-616.021E-15	385.345E-3	-20.9130E-3	-643.417E-15	392.451E-3	8.12920E-3
-22.5113E-6	-741.675E-15	404.876E-3	-30.8007E-3	-654.369E-15	397.041E-3	-2.11870E-3
-27.5138E-6	-741.379E-15	407.288E-3	-22.7848E-3	-747.500E-15	410.235E-3	-8.00230E-3
-32.5163E-6	-860.223E-15	396.640E-3	-9.36416E-3	-966.581E-15	442.760E-3	-12.6669E-3
-37.5188E-6	-1.12111E-12	396.875E-3	-2.71859E-3	-1.15829E-12	469.453E-3	-22.4559E-3
-42.5213E-6	-1.28037E-12	402.710E-3	9.26935E-3	-1.27069E-12	468.413E-3	-15.1579E-3
-47.5238E-6	-1.38024E-12	411.976E-3	5.76710E-3	-1.32514E-12	466.677E-3	-2.62257E-3
-52.5263E-6	-1.52996E-12	435.683E-3	-21.4125E-3	-1.59486E-12	482.574E-3	-6.74738E-3
-57.5288E-6	-1.72494E-12	458.419E-3	-25.2317E-3	-1.78997E-12	507.923E-3	-6.03389E-3
-62.5313E-6	-1.94030E-12	465.181E-3	-11.4774E-3	-1.97979E-12	542.967E-3	-4.68933E-3
-67.5338E-6	-2.08059E-12	477.803E-3	-12.9847E-3	-2.11334E-12	570.696E-3	-19.6313E-3
-72.5363E-6	-2.29557E-12	499.497E-3	-12.4237E-3	-2.31678E-12	583.355E-3	-27.0171E-3
-77.5388E-6	-2.48499E-12	511.163E-3	-5.72223E-3	-2.43264E-12	603.150E-3	-21.9586E-3
-82.5413E-6	-2.66467E-12	520.386E-3	-5.19182E-3	-2.70484E-12	628.654E-3	-17.9854E-3
-87.5438E-6	-2.90201E-12	537.604E-3	-3.36798E-3	-2.86797E-12	643.909E-3	-8.84411E-3
-92.5463E-6	-3.13538E-12	557.213E-3	-3.27581E-3	-3.14753E-12	657.840E-3	70.8442E-6
-97.5488E-6	-3.31366E-12	589.432E-3	-9.43999E-3	-3.26202E-12	674.904E-3	-4.01210E-3
-102.551E-6	-3.52629E-12	627.122E-3	-4.81124E-3	-3.45355E-12	689.891E-3	-14.0550E-3
-107.554E-6	-3.70865E-12	642.458E-3	-2.31839E-3	-3.73850E-12	714.149E-3	-13.6324E-3
-112.556E-6	-4.00665E-12	647.016E-3	-5.39801E-3	-3.95133E-12	741.501E-3	-12.2221E-3
-117.559E-6	-4.15975E-12	666.547E-3	3.42873E-3	-4.09565E-12	766.822E-3	-17.0894E-3
-122.561E-6	-4.28701E-12	695.895E-3	4.71847E-3	-4.30325E-12	794.814E-3	-19.5804E-3
-127.564E-6	-4.53069E-12	723.469E-3	-11.1064E-3	-4.71751E-12	825.914E-3	-29.6577E-3
-132.566E-6	-4.95428E-12	742.103E-3	-19.2800E-3	-5.03567E-12	860.875E-3	-39.2145E-3
-137.569E-6	-5.18271E-12	757.721E-3	-15.3480E-3	-5.12180E-12	899.537E-3	-40.5744E-3
-142.571E-6	-5.33905E-12	780.395E-3	-9.55359E-3	-5.39869E-12	933.339E-3	-37.2121E-3
-147.574E-6	-5.59406E-12	813.672E-3	-6.01741E-3	-5.88764E-12	949.081E-3	-31.9049E-3
-152.576E-6	-5.98824E-12	849.950E-3	-6.40771E-3	-6.17980E-12	981.353E-3	-33.1010E-3
-157.579E-6	-6.27658E-12	876.382E-3	-3.49354E-3	-6.29528E-12	1.04431E+0	-38.9003E-3
-162.581E-6	-6.46791E-12	900.733E-3	-1.27641E-3	-6.65993E-12	1.08904E+0	-30.9968E-3
-167.584E-6	-6.85885E-12	928.586E-3	-5.95819E-3	-7.23588E-12	1.11869E+0	-3.89719E-3
-172.586E-6	-7.50220E-12	956.671E-3	-21.3855E-3	-7.66993E-12	1.16758E+0	3.64822E-3
-177.589E-6	-7.85991E-12	984.926E-3	-39.5180E-3	-7.85238E-12	1.20478E+0	-19.1695E-3
-182.591E-6	-8.15037E-12	1.01868E+0	-41.7280E-3	-8.24276E-12	1.22068E+0	-29.5093E-3
-187.594E-6	-8.52224E-12	1.06475E+0	-28.5712E-3	-8.70717E-12	1.25639E+0	-16.5934E-3
-192.596E-6	-8.94553E-12	1.12459E+0	-14.5561E-3	-9.00472E-12	1.30125E+0	-8.37314E-3
-197.599E-6	-9.45860E-12	1.18044E+0	-3.36828E-3	-9.37634E-12	1.33073E+0	-599.435E-6
-202.601E-6	-9.80077E-12	1.21242E+0	-9.67924E-3	-9.79667E-12	1.36099E+0	8.73944E-3
-207.604E-6	-10.2425E-12	1.24474E+0	-27.3353E-3	-10.1938E-12	1.41447E+0	2.86564E-3
-212.606E-6	-10.7348E-12	1.29270E+0	-21.4378E-3	-10.5438E-12	1.47269E+0	-10.6567E-3
-217.609E-6	-11.2253E-12	1.34519E+0	-6.74112E-3	-10.8489E-12	1.50667E+0	-19.8182E-3
-222.611E-6	-11.7093E-12	1.40158E+0	-9.75105E-3	-11.5400E-12	1.52381E+0	-14.6014E-3
-227.614E-6	-12.1440E-12	1.44174E+0	-17.6912E-3	-12.0949E-12	1.54874E+0	-1.34951E-3
-232.616E-6	-12.6039E-12	1.46550E+0	-21.6614E-3	-12.4003E-12	1.61122E+0	-2.92694E-3
-237.619E-6	-13.0239E-12	1.49274E+0	-20.9291E-3	-12.7030E-12	1.69716E+0	-19.6745E-3
-242.621E-6	-13.4904E-12	1.52384E+0	-7.95619E-3	-13.5588E-12	1.73732E+0	-22.6988E-3
-247.624E-6	-14.1614E-12	1.55834E+0	-4.07435E-3	-14.3169E-12	1.75709E+0	-12.1539E-3
-252.626E-6	-14.6079E-12	1.59358E+0	-19.3918E-3	-14.6588E-12	1.81558E+0	-17.5328E-3
-257.629E-6	-14.9972E-12	1.63053E+0	-30.4382E-3	-15.1012E-12	1.87900E+0	-28.0357E-3
-262.631E-6	-15.5924E-12	1.67015E+0	-27.9965E-3	-16.0149E-12	1.93417E+0	-24.2000E-3
-267.634E-6	-16.4302E-12	1.71802E+0	-25.2266E-3	-16.8819E-12	1.99074E+0	-22.5520E-3
-272.636E-6	-17.0436E-12	1.76993E+0	-22.2720E-3	-17.2515E-12	2.02773E+0	-20.1944E-3
-277.639E-6	-17.4682E-12	1.81769E+0	-12.4443E-3	-17.8772E-12	2.05855E+0	-7.70403E-3
-282.641E-6	-18.2698E-12	1.86419E+0	-15.9107E-3	-18.7691E-12	2.10200E+0	-11.0000E-3
-287.644E-6	-19.1668E-12	1.90874E+0	-24.6238E-3	-19.5474E-12	2.14086E+0	-20.0128E-3
-292.646E-6	-19.9121E-12	1.94971E+0	-17.9277E-3	-19.9898E-12	2.16262E+0	-5.77625E-3
-297.649E-6	-20.7153E-12	1.99568E+0	-13.5581E-3	-20.5135E-12	2.18064E+0	4.70537E-3
-302.651E-6	-21.3903E-12	2.06510E+0	-19.7514E-3	-21.3673E-12	2.20537E+0	-7.06476E-3
-307.654E-6	-22.4958E-12	2.12662E+0	-22.4275E-3	-21.9188E-12	2.23557E+0	-20.2139E-3
-312.656E-6	-23.2205E-12	2.16752E+0	-16.5048E-3	-22.3439E-12	2.27028E+0	-27.6728E-3
-317.659E-6	-24.0870E-12	2.22655E+0	-8.79372E-3	-22.9927E-12	2.29112E+0	-29.4566E-3
-322.661E-6	-24.6377E-12	2.29221E+0	-12.8646E-3	-23.8196E-12	2.30422E+0	-25.5159E-3
-327.664E-6	-25.4722E-12	2.33414E+0	-26.2575E-3	-24.3345E-12	2.34414E+0	-20.0659E-3
-332.666E-6	-26.2659E-12	2.35346E+0	-26.9550E-3	-24.7465E-12	2.39538E+0	-14.1151E-3
-337.669E-6	-26.7706E-12	2.36752E+0	-12.0297E-3	-25.7956E-12	2.44026E+0	-8.40519E-3
-342.671E-6	-27.5318E-12	2.39702E+0	-4.75754E-3	-26.9759E-12	2.49513E+0	-9.16045E-3
-347.674E-6	-27.9303E-12	2.44137E+0	-12.6315E-3	-27.3275E-12	2.54649E+0	-18.2203E-3
-352.676E-6	-28.7619E-12	2.46591E+0	-18.1146E-3	-28.1207E-12	2.58729E+0	-18.3926E-3
-357.679E-6	-29.0711E-12	2.46682E+0	-17.5007E-3	-29.5514E-12	2.64171E+0	-16.6945E-3
-362.681E-6	-30.0149E-12	2.47469E+0	-14.1558E-3	-30.9193E-12	2.69905E+0	-29.4148E-3
-367.684E-6	-30.6186E-12	2.49780E+0	-11.4431E-3	-31.6688E-12	2.74026E+0	-25.0583E-3
-372.686E-6	-31.7687E-12	2.52171E+0	-11.3004E-3	-32.6350E-12	2.77351E+0	1.46708E-3
-377.689E-6	-32.8606E-12	2.54462E+0	-16.7693E-3	-34.2002E-12	2.79000E+0	2.00442E-3
-382.691E-6	-33.6194E-12	2.58555E+0	-28.4044E-3	-35.5422E-12	2.79193E+0	-12.9967E-3
-387.694E-6	-34.4693E-12	2.61857E+0	-33.5731E-3	-36.2436E-12	2.80913E+0	-15.1381E-3
-392.696E-6	-35.5411E-12	2.62487E+0	-23.0439E-3	-36.7960E-12	2.82598E+0	-11.6464E-3
-397.699E-6	-36.7095E-12	2.63242E+0	-2.09155E-3	-38.0588E-12	2.80099E+0	-12.4427E-3
-402.701E-6	-38.0658E-12	2.66483E+0	-3.93358E-3	-39.0346E-12	2.76021E+0	-13.7628E-3
-407.704E-6	-39.1117E-12	2.71642E+0	-24.0510E-3	-39.0408E-12	2.74330E+0	-15.7479E-3
-412.706E-6	-40.0854E-12	2.75222E+0	-24.5156E-3	-39.5289E-12	2.73774E+0	-30.5824E-3
-417.709E-6	-41.0657E-12	2.77349E+0	-11.6169E-3	-40.2603E-12	2.73695E+0	-34.7303E-3
-422.711E-6	-42.6356E-12	2.80256E+0	-3.40962E-3	-41.1911E-12	2.74201E+0	-26.4534E-3
-427.714E-6	-43.3148E-12	2.83485E+0	2.11066E-3	-41.3739E-12	2.72524E+0	-21.6790E-3
-432.716E-6	-43.7248E-12	2.85534E+0	9.82403E-3	-42.0607E-12	2.70556E+0	-13.2499E-3
-437.719E-6	-44.3879E-12	2.85105E+0	6.92936E-3	-42.9793E-12	2.72861E+0	-7.13372E-3
-442.721E-6	-45.9676E-12	2.83766E+0	-904.742E-6	-43.7619E-12	2.76122E+0	-9.74503E-3
-447.724E-6	-45.9498E-12	2.84664E+0	-5.39948E-3	-44.5645E-12	2.77034E+0	-4.73037E-3
-452.726E-6	-46.2562E-12	2.85583E+0	-24.9342E-3	-45.9149E-12	2.76399E+0	-333.601E-6
-457.729E-6	-46.9911E-12	2.82940E+0	-33.0785E-3	-47.4716E-12	2.74906E+0	-15.9823E-3
-462.731E-6	-48.5016E-12	2.78716E+0	-14.4683E-3	-48.3641E-12	2.73974E+0	-32.8984E-3
-467.734E-6	-49.1193E-12	2.77526E+0	-492.877E-6	-48.9057E-12	2.75229E+0	-31.8256E-3
-472.736E-6	-49.9880E-12	2.78290E+0	-735.160E-6	-50.1407E-12	2.75873E+0	-8.72451E-3
-477.739E-6	-50.7609E-12	2.76140E+0	-18.1060E-3	-51.9666E-12	2.73751E+0	4.24924E-3
-482.741E-6	-51.8883E-12	2.73368E+0	-39.3531E-3	-53.1630E-12	2.72703E+0	-7.75500E-3
-487.744E-6	-52.9971E-12	2.73421E+0	-38.3575E-3	-53.4209E-12	2.73863E+0	-21.3772E-3
-492.746E-6	-53.9697E-12	2.73932E+0	-12.2177E-3	-54.5638E-12	2.72514E+0	-15.0379E-3
-497.749E-6	-55.4706E-12	2.74313E+0	-734.506E-6	-55.8235E-12	2.67869E+0	2.77192E-3
-502.751E-6	-56.5620E-12	2.75277E+0	-21.1348E-3	-57.0243E-12	2.63529E+0	-2.27911E-3
-507.754E-6	-57.9726E-12	2.75051E+0	-34.4283E-3	-57.3152E-12	2.60820E+0	-25.9868E-3
-512.756E-6	-58.2555E-12	2.73322E+0	-29.0381E-3	-57.7727E-12	2.60228E+0	-44.2155E-3
-517.759E-6	-59.8702E-12	2.71848E+0	-21.8781E-3	-58.9773E-12	2.58478E+0	-41.3220E-3
-522.761E-6	-60.5347E-12	2.70029E+0	-6.55631E-3	-59.4034E-12	2.52683E+0	-8.29549E-3
-527.764E-6	-61.5138E-12	2.67700E+0	4.38505E-3	-60.0376E-12	2.47516E+0	11.0877E-3
-532.766E-6	-61.3849E-12	2.66779E+0	-16.6584E-3	-60.2129E-12	2.44949E+0	-9.38311E-3
-537.769E-6	-62.0970E-12	2.64457E+0	-20.7124E-3	-61.6781E-12	2.42275E+0	-22.0062E-3
-542.771E-6	-62.7146E-12	2.58485E+0	12.6955E-3	-61.9757E-12	2.41310E+0	-6.89391E-3
-547.774E-6	-63.3268E-12	2.53538E+0	22.7341E-3	-62.3525E-12	2.41828E+0	6.69475E-3
-552.776E-6	-63.6541E-12	2.50926E+0	5.19788E-3	-62.7770E-12	2.37995E+0	2.78210E-3
-557.779E-6	-64.0288E-12	2.48260E+0	-15.0418E-3	-64.2187E-12	2.31286E+0	-10.3168E-3
-562.781E-6	-65.1751E-12	2.44605E+0	-27.0113E-3	-65.9665E-12	2.26992E+0	-15.6531E-3
-567.784E-6	-65.9964E-12	2.40905E+0	-19.1039E-3	-66.6559E-12	2.24437E+0	-6.76932E-3
-572.786E-6	-67.3946E-12	2.37963E+0	-10.1676E-3	-67.6446E-12	2.21272E+0	2.51495E-3
-577.789E-6	-68.0538E-12	2.33859E+0	-15.1473E-3	-68.3088E-12	2.16519E+0	-4.14164E-3
-582.791E-6	-68.8175E-12	2.28607E+0	-17.0899E-3	-69.7855E-12	2.11779E+0	-25.6243E-3
-587.794E-6	-70.1610E-12	2.23747E+0	-16.9347E-3	-70.5666E-12	2.09631E+0	-21.4511E-3
-592.796E-6	-71.5020E-12	2.20266E+0	-27.5425E-3	-71.4845E-12	2.08532E+0	-7.55026E-3
-597.799E-6	-72.2272E-12	2.19556E+0	-32.6943E-3	-71.7162E-12	2.04702E+0	-14.4436E-3
-602.801E-6	-72.4653E-12	2.19711E+0	-29.4502E-3	-72.6047E-12	1.99737E+0	-23.0945E-3
-607.804E-6	-74.1292E-12	2.14913E+0	-33.5673E-3	-72.9676E-12	1.96085E+0	-25.2985E-3
-612.806E-6	-75.0838E-12	2.08459E+0	-37.9189E-3	-73.5581E-12	1.92189E+0	-19.9392E-3
-617.809E-6	-76.4184E-12	2.07401E+0	-24.4277E-3	-74.4289E-12	1.86900E+0	-25.9220E-3
-622.811E-6	-76.5991E-12	2.06664E+0	-9.68210E-3	-74.4089E-12	1.82027E+0	-23.1539E-3
-627.814E-6	-77.0753E-12	2.03250E+0	-26.7490E-3	-75.4414E-12	1.77250E+0	-4.19794E-3
-632.816E-6	-78.0827E-12	1.99463E+0	-34.9395E-3	-76.0545E-12	1.72868E+0	-2.86218E-3
-637.819E-6	-78.7009E-12	1.94818E+0	-14.0899E-3	-76.0537E-12	1.71657E+0	-14.4415E-3
-642.821E-6	-78.1004E-12	1.90226E+0	-2.25912E-3	-75.2333E-12	1.69157E+0	-18.3222E-3
-647.824E-6	-78.3281E-12	1.85391E+0	-3.30186E-3	-76.9998E-12	1.62768E+0	-8.38920E-3
-652.826E-6	-79.8449E-12	1.79129E+0	-22.0157E-3	-78.0980E-12	1.56419E+0	-7.48589E-3
-657.829E-6	-80.2868E-12	1.74262E+0	-49.9112E-3	-77.7642E-12	1.52715E+0	-29.1212E-3
-662.831E-6	-79.3590E-12	1.72352E+0	-51.1809E-3	-78.4906E-12	1.51462E+0	-36.1927E-3
-667.834E-6	-79.0608E-12	1.69385E+0	-34.2044E-3	-80.0045E-12	1.50180E+0	-13.4047E-3
-672.836E-6	-80.3278E-12	1.62396E+0	-31.1601E-3	-81.3408E-12	1.47133E+0	-4.64708E-3
-677.839E-6	-81.1080E-12	1.54612E+0	-37.3493E-3	-81.6658E-12	1.41009E+0	-7.41392E-3
-682.841E-6	-81.2807E-12	1.51394E+0	-37.5666E-3	-82.5180E-12	1.35138E+0	3.47938E-3
-687.844E-6	-80.6896E-12	1.50537E+0	-29.5702E-3	-83.2500E-12	1.33192E+0	9.30762E-3
-692.846E-6	-81.3906E-12	1.47592E+0	-9.71679E-3	-83.9773E-12	1.31658E+0	4.23477E-3
-697.849E-6	-82.6029E-12	1.42191E+0	8.43104E-3	-83.9929E-12	1.29099E+0	1.74484E-3
-702.851E-6	-83.6127E-12	1.36941E+0	-197.938E-6	-85.1493E-12	1.25294E+0	-13.7411E-3
-707.854E-6	-83.5259E-12	1.33517E+0	-14.9195E-3	-86.5382E-12	1.19438E+0	-39.8758E-3
-712.856E-6	-83.6426E-12	1.29079E+0	-10.2177E-3	-87.4305E-12	1.16324E+0	-36.6382E-3
-717.859E-6	-84.6248E-12	1.24735E+0	-6.16494E-3	-86.6334E-12	1.16458E+0	-7.26985E-3
-722.861E-6	-85.8736E-12	1.22248E+0	6.22911E-3	-86.2100E-12	1.12060E+0	5.64260E-3
-727.864E-6	-85.7055E-12	1.18714E+0	22.4820E-3	-87.3176E-12	1.03740E+0	4.31573E-3
-732.866E-6	-85.2098E-12	1.14893E+0	-5.13535E-3	-87.6876E-12	989.009E-3	13.8517E-3
-737.869E-6	-85.6429E-12	1.13112E+0	-40.9415E-3	-86.2950E-12	978.957E-3	8.75828E-3
-742.871E-6	-86.9593E-12	1.10090E+0	-31.8802E-3	-85.7761E-12	949.536E-3	-6.70315E-3
-747.874E-6	-86.5662E-12	1.05458E+0	-9.62613E-3	-86.4791E-12	894.164E-3	-9.71353E-3
-752.876E-6	-85.8384E-12	1.03508E+0	-1.49910E-3	-86.1745E-12	848.208E-3	-13.5991E-3
-757.879E-6	-86.0793E-12	1.01425E+0	-17.6903E-3	-85.9559E-12	823.340E-3	-12.0187E-3
-762.881E-6	-87.2928E-12	956.231E-3	-45.9920E-3	-85.4781E-12	821.393E-3	-10.3044E-3
-767.884E-6	-87.7847E-12	902.443E-3	-49.9764E-3	-86.1240E-12	807.159E-3	-10.9758E-3
-772.886E-6	-86.4213E-12	879.351E-3	-36.1837E-3	-87.7285E-12	760.733E-3	1.49312E-3
-777.889E-6	-85.9719E-12	864.531E-3	-40.1139E-3	-88.1251E-12	726.754E-3	946.656E-6
-782.891E-6	-87.2222E-12	829.774E-3	-45.5285E-3	-87.7551E-12	712.674E-3	-15.9895E-3
-787.894E-6	-88.4826E-12	779.509E-3	-20.6015E-3	-88.1273E-12	682.632E-3	-19.8379E-3
-792.896E-6	-87.5152E-12	744.526E-3	-1.31517E-3	-89.8780E-12	640.754E-3	-15.6108E-3
-797.899E-6	-87.3765E-12	724.337E-3	-11.7850E-3	-90.9790E-12	612.247E-3	-20.6764E-3
-802.901E-6	-88.3156E-12	707.596E-3	-13.5940E-3	-90.3458E-12	593.635E-3	-32.5716E-3
-807.904E-6	-90.1249E-12	694.623E-3	-7.43094E-3	-89.2843E-12	560.306E-3	-38.9064E-3
-812.906E-6	-90.7263E-12	676.060E-3	-13.8930E-3	-90.5313E-12	520.246E-3	-33.6678E-3
-817.909E-6	-90.7985E-12	643.862E-3	-17.4677E-3	-91.9544E-12	515.729E-3	-20.9081E-3
-822.911E-6	-90.8384E-12	613.116E-3	-19.1534E-3	-91.8552E-12	520.322E-3	-9.42035E-3
-827.914E-6	-92.5723E-12	591.718E-3	-26.6789E-3	-90.4540E-12	502.668E-3	-6.33445E-3
-832.916E-6	-92.6380E-12	560.484E-3	-18.7038E-3	-90.0004E-12	483.487E-3	-14.0526E-3
-837.919E-6	-93.3793E-12	530.805E-3	-4.92712E-3	-90.6710E-12	479.476E-3	-18.6194E-3
-842.921E-6	-93.9193E-12	524.864E-3	-13.3245E-3	-90.2864E-12	478.121E-3	-10.2574E-3
-847.924E-6	-93.5948E-12	519.352E-3	-25.2649E-3	-89.0958E-12	434.164E-3	-6.49885E-3
-852.926E-6	-92.8628E-12	508.098E-3	-29.6469E-3	-88.4238E-12	375.028E-3	-3.51127E-3
-857.929E-6	-93.2293E-12	484.601E-3	-32.6988E-3	-89.4184E-12	359.399E-3	-7.39726E-3
-862.931E-6	-93.8865E-12	463.045E-3	-41.1055E-3	-89.4830E-12	373.353E-3	-29.9416E-3
-867.934E-6	-93.2482E-12	463.568E-3	-42.0220E-3	-88.8667E-12	381.998E-3	-29.2149E-3
-872.936E-6	-91.8055E-12	452.953E-3	-30.0251E-3	-88.4298E-12	385.885E-3	-6.37380E-3
-877.939E-6	-91.1157E-12	434.702E-3	-18.8474E-3	-89.2607E-12	382.383E-3	-12.8271E-3
-882.941E-6	-91.6320E-12	406.755E-3	-21.6536E-3	-90.8274E-12	354.838E-3	-32.6771E-3
-887.944E-6	-92.1097E-12	368.282E-3	-33.8798E-3	-90.8943E-12	337.056E-3	-36.2975E-3
-892.946E-6	-91.5998E-12	340.124E-3	-33.5005E-3	-90.6652E-12	336.511E-3	-37.9033E-3
-897.949E-6	-90.6777E-12	321.215E-3	-26.6778E-3	-90.8229E-12	318.378E-3	-15.4427E-3
-902.951E-6	-91.4357E-12	315.993E-3	-24.1413E-3	-92.2405E-12	302.549E-3	7.74687E-3
-907.954E-6	-92.7509E-12	323.849E-3	-19.4885E-3	-92.9517E-12	289.009E-3	-12.0783E-3
-912.956E-6	-93.6686E-12	322.693E-3	-16.8921E-3	-92.6756E-12	269.276E-3	-39.1753E-3
-917.959E-6	-93.2428E-12	302.395E-3	-36.7543E-3	-92.9385E-12	261.651E-3	-43.7419E-3
-922.961E-6	-94.0854E-12	286.751E-3	-38.3507E-3	-93.0489E-12	256.166E-3	-45.5667E-3
-927.964E-6	-94.9605E-12	282.607E-3	-6.59606E-3	-93.4781E-12	247.478E-3	-48.0002E-3
-932.966E-6	-95.8059E-12	284.898E-3	-6.05021E-3	-93.6563E-12	245.811E-3	-35.7826E-3
-937.969E-6	-95.9560E-12	296.993E-3	-26.3699E-3	-93.4244E-12	258.718E-3	-27.1954E-3
-942.971E-6	-95.5330E-12	304.044E-3	-17.4041E-3	-93.1721E-12	252.068E-3	-29.3328E-3
-947.974E-6	-95.9282E-12	302.642E-3	6.95355E-3	-92.6242E-12	212.748E-3	-19.7798E-3
-952.976E-6	-95.1551E-12	290.210E-3	1.68338E-3	-92.6368E-12	190.768E-3	-7.30512E-3
-957.979E-6	-94.9731E-12	260.620E-3	-19.3891E-3	-92.9347E-12	193.641E-3	-5.44312E-3
-962.981E-6	-94.2105E-12	245.824E-3	-34.3548E-3	-92.4857E-12	201.879E-3	100.325E-6
-967.984E-6	-93.5886E-12	252.239E-3	-45.0983E-3	-92.3506E-12	211.085E-3	-8.10433E-3
-972.986E-6	-93.5995E-12	243.111E-3	-36.9811E-3	-91.9787E-12	209.479E-3	-23.1173E-3
-977.989E-6	-93.8150E-12	236.842E-3	-11.1148E-3	-93.1097E-12	206.774E-3	-12.8309E-3
-982.991E-6	-92.8747E-12	227.341E-3	7.09003E-3	-93.2478E-12	216.750E-3	-4.49588E-3
-987.994E-6	-91.4854E-12	196.891E-3	621.819E-6	-94.1449E-12	220.276E-3	-12.5563E-3
-992.997E-6	-91.9216E-12	183.039E-3	-3.73084E-3	-94.7501E-12	209.086E-3	-10.8431E-3
-997.999E-6	-93.1174E-12	185.773E-3	140.843E-6	-95.6223E-12	187.384E-3	-9.50536E-3
-1.00300E-3	-93.3770E-12	184.275E-3	-16.4708E-3	-95.6940E-12	171.746E-3	-27.1463E-3
-1.00800E-3	-92.6028E-12	180.939E-3	-30.9197E-3	-95.5642E-12	175.920E-3	-52.1387E-3
-1.01301E-3	-93.1919E-12	183.063E-3	-21.0735E-3	-96.7548E-12	183.980E-3	-55.0893E-3
-1.01801E-3	-94.6222E-12	188.286E-3	-9.79033E-3	-96.6084E-12	191.746E-3	-31.3469E-3
-1.02301E-3	-95.8314E-12	188.749E-3	-3.96298E-3	-96.7767E-12	203.784E-3	-17.3279E-3
-1.02801E-3	-95.9934E-12	191.142E-3	-6.27183E-3	-95.4738E-12	209.210E-3	-12.1095E-3
-1.03302E-3	-94.9378E-12	206.458E-3	-10.6416E-3	-95.6104E-12	198.642E-3	-5.12277E-3
-1.03802E-3	-96.2334E-12	214.827E-3	-1.48935E-3	-94.9587E-12	192.497E-3	-10.1127E-3
-1.04302E-3	-98.0464E-12	205.128E-3	-1.76113E-3	-94.2143E-12	192.121E-3	-5.15840E-3
-1.04802E-3	-98.1836E-12	190.704E-3	-6.30512E-3	-93.2555E-12	177.558E-3	8.16482E-3
-1.05303E-3	-95.8868E-12	186.441E-3	-1.40456E-3	-92.3237E-12	160.120E-3	8.62491E-3
-1.05803E-3	-95.9080E-12	190.616E-3	-29.2183E-3	-91.5816E-12	149.115E-3	-4.98427E-3
-1.06303E-3	-96.5689E-12	190.993E-3	-56.9964E-3	-91.8813E-12	155.536E-3	-34.0680E-3
-1.06803E-3	-95.9714E-12	190.673E-3	-29.5329E-3	-91.6000E-12	170.141E-3	-48.5516E-3
-1.07304E-3	-94.9968E-12	200.230E-3	-2.24570E-3	-91.7187E-12	170.759E-3	-40.7192E-3
-1.07804E-3	-93.4393E-12	211.817E-3	-10.8689E-3	-92.7467E-12	172.392E-3	-37.1327E-3
-1.08304E-3	-93.7583E-12	213.581E-3	-18.8761E-3	-93.4605E-12	176.695E-3	-29.8651E-3
-1.08804E-3	-94.8224E-12	210.547E-3	-12.6385E-3	-94.2728E-12	181.835E-3	-22.1267E-3
-1.09305E-3	-94.2437E-12	206.824E-3	-10.2956E-3	-94.8498E-12	204.427E-3	-20.9433E-3
-1.09805E-3	-93.8084E-12	212.779E-3	-11.6237E-3	-96.7064E-12	226.584E-3	-7.00273E-3
-1.10305E-3	-93.5262E-12	213.131E-3	-18.4885E-3	-97.9923E-12	232.116E-3	-113.717E-6
-1.10805E-3	-95.9042E-12	193.924E-3	-33.2790E-3	-97.8022E-12	234.125E-3	-13.8754E-3
-1.11306E-3	-95.0266E-12	184.156E-3	-39.4902E-3	-97.5350E-12	232.347E-3	-18.9612E-3
-1.11806E-3	-94.7851E-12	194.922E-3	-26.1202E-3	-98.6850E-12	227.441E-3	320.514E-6
-1.12306E-3	-95.0004E-12	208.909E-3	-9.57257E-3	-98.9719E-12	240.021E-3	6.41154E-3
-1.12806E-3	-97.0220E-12	225.140E-3	-10.0405E-3	-97.8683E-12	254.971E-3	-31.0018E-3
-1.13307E-3	-97.6765E-12	233.949E-3	-13.8044E-3	-97.0376E-12	252.188E-3	-64.6724E-3
-1.13807E-3	-96.6751E-12	230.660E-3	-18.2903E-3	-97.3812E-12	250.418E-3	-57.5713E-3
-1.14307E-3	-96.9337E-12	237.236E-3	-29.0181E-3	-97.3775E-12	268.675E-3	-26.7056E-3
-1.14807E-3	-97.4921E-12	244.002E-3	-40.0562E-3	-96.1415E-12	281.093E-3	-2.60368E-3
-1.15308E-3	-97.5513E-12	255.231E-3	-47.0963E-3	-94.9593E-12	271.696E-3	1.05109E-3
-1.15808E-3	-96.8169E-12	273.852E-3	-32.2748E-3	-94.5137E-12	264.083E-3	-5.00530E-3
-1.16308E-3	-96.5656E-12	278.315E-3	-11.9796E-3	-94.5421E-12	265.344E-3	-5.97314E-3
-1.16808E-3	-97.0508E-12	262.856E-3	-6.00112E-3	-95.1052E-12	288.073E-3	-1.35475E-3
-1.17309E-3	-97.4566E-12	251.820E-3	-2.90904E-3	-94.5934E-12	310.506E-3	-11.6710E-3
-1.17809E-3	-96.9746E-12	256.396E-3	-10.7708E-3	-94.1122E-12	319.322E-3	-12.4613E-3
-1.18309E-3	-95.1013E-12	276.362E-3	-24.9811E-3	-95.4367E-12	325.939E-3	1.10137E-3
-1.18809E-3	-95.1393E-12	316.639E-3	-16.3683E-3	-96.6393E-12	327.425E-3	-7.79516E-3
-1.19310E-3	-96.4830E-12	342.101E-3	-1.53740E-3	-96.6760E-12	335.636E-3	-18.1762E-3
-1.19810E-3	-96.8301E-12	334.624E-3	-11.7953E-3	-95.8408E-12	356.678E-3	-17.4024E-3
-1.20310E-3	-95.7601E-12	318.519E-3	-24.4254E-3	-96.6977E-12	375.650E-3	-17.4046E-3
-1.20810E-3	-95.2010E-12	315.574E-3	-27.4084E-3	-98.9468E-12	367.049E-3	-13.5976E-3
-1.21311E-3	-96.2078E-12	319.407E-3	-33.8347E-3	-99.8816E-12	365.043E-3	-3.30878E-3
-1.21811E-3	-97.2891E-12	330.826E-3	-22.7086E-3	-98.9770E-12	387.255E-3	-11.1900E-3
-1.22311E-3	-97.2334E-12	355.873E-3	938.389E-6	-97.9294E-12	393.143E-3	-34.3286E-3
-1.22811E-3	-97.1919E-12	369.930E-3	-807.530E-6	-99.3066E-12	395.444E-3	-27.1206E-3
-1.23312E-3	-97.2074E-12	362.327E-3	-26.3625E-3	-99.9438E-12	399.035E-3	-15.3832E-3
-1.23812E-3	-98.7277E-12	362.702E-3	-58.6044E-3	-100.112E-12	406.371E-3	-37.8484E-3
-1.24312E-3	-99.1851E-12	381.211E-3	-56.4513E-3	-99.3388E-12	439.250E-3	-43.9193E-3
-1.24812E-3	-98.9886E-12	404.513E-3	-20.7067E-3	-99.5751E-12	471.657E-3	-17.6326E-3
-1.25313E-3	-99.3234E-12	421.802E-3	470.276E-6	-99.9717E-12	468.307E-3	-13.4467E-3
-1.25813E-3	-100.485E-12	410.503E-3	12.0636E-3	-100.339E-12	449.583E-3	-33.6144E-3
-1.26313E-3	-100.307E-12	397.344E-3	12.4201E-3	-100.688E-12	468.112E-3	-37.8896E-3
-1.26813E-3	-99.9833E-12	427.430E-3	-181.754E-6	-100.175E-12	502.253E-3	-29.5537E-3
-1.27314E-3	-100.201E-12	467.032E-3	-14.7297E-3	-99.9830E-12	495.093E-3	-6.83754E-3
-1.27814E-3	-100.707E-12	490.174E-3	-38.8514E-3	-99.9576E-12	474.231E-3	14.5834E-3
-1.28314E-3	-101.369E-12	503.394E-3	-61.0069E-3	-99.8025E-12	475.734E-3	-7.21630E-3
-1.28814E-3	-99.4770E-12	495.948E-3	-53.3511E-3	-99.3279E-12	497.801E-3	-22.7921E-3
-1.29315E-3	-98.7840E-12	476.426E-3	-27.8297E-3	-99.5072E-12	535.137E-3	-15.2596E-3
-1.29815E-3	-98.7781E-12	466.638E-3	-20.8341E-3	-99.0727E-12	550.232E-3	-23.9923E-3
-1.30315E-3	-99.7166E-12	478.348E-3	-21.1401E-3	-99.4049E-12	533.115E-3	-27.9211E-3
-1.30815E-3	-98.8542E-12	492.352E-3	-22.2467E-3	-100.340E-12	533.548E-3	-29.8415E-3
-1.31316E-3	-97.6215E-12	496.677E-3	-18.5256E-3	-100.126E-12	553.720E-3	-48.5264E-3
-1.31816E-3	-98.4614E-12	501.075E-3	-12.0973E-3	-100.517E-12	561.123E-3	-43.4786E-3
-1.32316E-3	-99.7103E-12	511.566E-3	-15.5359E-3	-100.520E-12	571.580E-3	-6.76448E-3
-1.32816E-3	-100.579E-12	526.136E-3	-14.1741E-3	-101.388E-12	584.514E-3	488.674E-6
-1.33317E-3	-99.7104E-12	533.594E-3	-12.1135E-3	-102.017E-12	583.373E-3	-21.5152E-3
-1.33817E-3	-100.690E-12	527.343E-3	-7.42337E-3	-102.370E-12	587.407E-3	-11.9058E-3
-1.34317E-3	-102.554E-12	525.356E-3	-6.82224E-3	-102.215E-12	608.823E-3	10.6933E-3
-1.34817E-3	-102.839E-12	554.689E-3	-6.05425E-3	-102.252E-12	614.466E-3	2.87626E-3
-1.35318E-3	-102.632E-12	591.991E-3	5.41822E-3	-103.421E-12	604.384E-3	-5.39748E-3
-1.35818E-3	-102.651E-12	598.735E-3	3.04089E-3	-103.263E-12	608.858E-3	-5.47539E-3
-1.36318E-3	-104.833E-12	607.648E-3	-10.5940E-3	-103.102E-12	611.870E-3	-16.1626E-3
-1.36818E-3	-104.669E-12	625.950E-3	-17.3288E-3	-102.493E-12	607.908E-3	-12.2942E-3
-1.37319E-3	-104.806E-12	622.132E-3	-32.1119E-3	-102.390E-12	611.462E-3	-5.83547E-3
-1.37819E-3	-103.930E-12	623.341E-3	-26.0377E-3	-103.410E-12	618.763E-3	-17.2401E-3
-1.38319E-3	-104.454E-12	636.838E-3	5.85937E-3	-102.938E-12	634.676E-3	-19.0605E-3
-1.38819E-3	-104.112E-12	640.402E-3	2.48309E-3	-102.943E-12	663.646E-3	-14.0739E-3
-1.39320E-3	-103.240E-12	649.494E-3	-15.3997E-3	-101.819E-12	672.943E-3	-18.2273E-3
-1.39820E-3	-102.800E-12	648.577E-3	-18.4854E-3	-101.916E-12	662.408E-3	-17.5191E-3
-1.40320E-3	-102.077E-12	621.002E-3	-28.4617E-3	-101.678E-12	661.460E-3	-8.76157E-3
-1.40820E-3	-102.846E-12	608.827E-3	-34.9607E-3	-101.762E-12	676.823E-3	-5.56492E-3
-1.41321E-3	-102.942E-12	620.715E-3	-25.9863E-3	-103.292E-12	703.225E-3	-11.3703E-3
-1.41821E-3	-104.082E-12	644.613E-3	-23.4663E-3	-103.611E-12	724.014E-3	-16.1035E-3
-1.42321E-3	-103.145E-12	687.151E-3	-21.8149E-3	-104.586E-12	721.465E-3	-28.3582E-3
-1.42821E-3	-103.134E-12	705.438E-3	-19.1867E-3	-105.129E-12	701.099E-3	-41.3318E-3
-1.43322E-3	-105.013E-12	678.514E-3	-29.8372E-3	-106.754E-12	697.684E-3	-13.5901E-3
-1.43822E-3	-107.772E-12	672.282E-3	-32.7833E-3	-107.582E-12	717.931E-3	26.2346E-3
-1.44322E-3	-107.693E-12	694.348E-3	-15.1646E-3	-107.641E-12	727.692E-3	25.0866E-3
-1.44822E-3	-106.587E-12	701.401E-3	-769.025E-6	-108.173E-12	725.578E-3	71.6552E-6
-1.45323E-3	-108.164E-12	714.311E-3	-6.81246E-3	-108.190E-12	723.065E-3	638.497E-6
-1.45823E-3	-108.800E-12	730.625E-3	-19.8844E-3	-107.531E-12	719.456E-3	14.2797E-3
-1.46323E-3	-109.952E-12	713.913E-3	-32.5000E-3	-106.542E-12	718.852E-3	5.48152E-3
-1.46823E-3	-109.828E-12	703.461E-3	-32.6822E-3	-107.276E-12	713.772E-3	-5.29330E-3
-1.47324E-3	-109.558E-12	736.328E-3	-24.8345E-3	-106.623E-12	723.364E-3	-6.82714E-3
-1.47824E-3	-109.801E-12	753.609E-3	-22.2100E-3	-104.823E-12	731.447E-3	-9.25100E-3
-1.48324E-3	-110.106E-12	741.739E-3	-30.5389E-3	-104.266E-12	720.051E-3	-18.5335E-3
-1.48824E-3	-110.115E-12	742.134E-3	-38.4530E-3	-104.662E-12	720.794E-3	-34.3831E-3
-1.49325E-3	-109.216E-12	734.763E-3	-22.7789E-3	-104.998E-12	726.562E-3	-31.8030E-3
-1.49825E-3	-109.254E-12	724.447E-3	-6.18794E-3	-105.162E-12	722.352E-3	-3.83595E-3
-1.50325E-3	-109.148E-12	749.931E-3	-7.70400E-3	-105.001E-12	711.928E-3	9.85708E-3
-1.50825E-3	-110.177E-12	768.617E-3	-16.4211E-3	-105.761E-12	717.489E-3	2.16351E-3
-1.51326E-3	-109.543E-12	750.565E-3	-17.8214E-3	-107.422E-12	747.245E-3	-11.6406E-3
-1.51826E-3	-110.949E-12	727.346E-3	-6.70413E-3	-108.583E-12	757.022E-3	-21.8096E-3
-1.52326E-3	-110.134E-12	720.010E-3	-5.49704E-3	-109.225E-12	754.847E-3	-15.4308E-3
-1.52826E-3	-110.466E-12	729.808E-3	-16.0887E-3	-109.950E-12	775.641E-3	-18.6763E-3
-1.53327E-3	-111.596E-12	729.416E-3	-31.5579E-3	-112.452E-12	768.153E-3	-26.8639E-3
-1.53827E-3	-112.095E-12	732.676E-3	-46.3160E-3	-114.178E-12	742.099E-3	-24.7974E-3
-1.54327E-3	-110.605E-12	756.625E-3	-40.2628E-3	-114.266E-12	753.287E-3	-31.5402E-3
-1.54827E-3	-110.965E-12	770.823E-3	-31.6031E-3	-113.163E-12	762.954E-3	-26.4113E-3
-1.55328E-3	-113.860E-12	755.168E-3	-26.6408E-3	-113.660E-12	752.701E-3	-13.0524E-3
-1.55828E-3	-113.722E-12	724.896E-3	-10.9791E-3	-114.722E-12	734.501E-3	-13.2635E-3
-1.56328E-3	-112.172E-12	713.811E-3	-9.57400E-3	-114.101E-12	728.555E-3	-22.0108E-3
-1.56828E-3	-112.175E-12	709.819E-3	-14.5098E-3	-113.247E-12	733.481E-3	-32.4523E-3
-1.57329E-3	-112.898E-12	707.629E-3	-12.6817E-3	-111.771E-12	726.090E-3	-30.5564E-3
-1.57829E-3	-113.105E-12	742.435E-3	-19.7338E-3	-113.223E-12	737.644E-3	-20.7740E-3
-1.58329E-3	-113.456E-12	772.821E-3	-20.7125E-3	-113.461E-12	749.522E-3	-17.7471E-3
-1.58829E-3	-111.884E-12	748.425E-3	-25.0681E-3	-112.421E-12	748.275E-3	-17.9699E-3
-1.59330E-3	-111.867E-12	729.523E-3	-32.8053E-3	-111.807E-12	760.713E-3	-18.7444E-3
-1.59830E-3	-112.533E-12	756.482E-3	-10.1161E-3	-112.670E-12	758.709E-3	-21.1448E-3
-1.60330E-3	-113.776E-12	769.973E-3	9.56189E-3	-114.705E-12	743.491E-3	-27.8235E-3
-1.60830E-3	-112.692E-12	752.803E-3	-1.06154E-3	-113.912E-12	732.073E-3	-34.6843E-3
-1.61331E-3	-112.429E-12	739.250E-3	-15.5499E-3	-113.386E-12	715.720E-3	-32.2264E-3
-1.61831E-3	-112.392E-12	732.574E-3	-16.7990E-3	-112.877E-12	709.016E-3	-27.8567E-3
-1.62331E-3	-112.384E-12	740.881E-3	-11.3024E-3	-113.787E-12	714.096E-3	-23.5115E-3
-1.62831E-3	-113.297E-12	754.229E-3	-14.1349E-3	-114.468E-12	713.006E-3	-9.99630E-3
-1.63332E-3	-112.567E-12	750.320E-3	-25.9659E-3	-114.040E-12	707.433E-3	14.7510E-3
-1.63832E-3	-113.689E-12	730.747E-3	-40.1537E-3	-114.159E-12	715.493E-3	28.2526E-3
-1.64332E-3	-113.942E-12	716.721E-3	-40.1927E-3	-114.571E-12	717.106E-3	8.67168E-3
-1.64832E-3	-114.932E-12	729.410E-3	-29.4008E-3	-116.405E-12	707.149E-3	2.62262E-3
-1.65333E-3	-115.936E-12	734.507E-3	-24.2525E-3	-116.177E-12	720.190E-3	1.98575E-3
-1.65833E-3	-115.783E-12	719.265E-3	-23.1344E-3	-115.614E-12	731.367E-3	-28.8312E-3
-1.66333E-3	-116.395E-12	717.035E-3	-26.8113E-3	-116.148E-12	734.342E-3	-36.2372E-3
-1.66833E-3	-118.126E-12	717.609E-3	-50.8032E-3	-118.450E-12	748.867E-3	-17.7595E-3
-1.67334E-3	-118.184E-12	712.743E-3	-73.6216E-3	-119.434E-12	750.440E-3	-13.5665E-3
-1.67834E-3	-117.706E-12	714.676E-3	-59.5722E-3	-117.120E-12	730.531E-3	-24.3714E-3
-1.68334E-3	-118.116E-12	725.551E-3	-39.0424E-3	-116.619E-12	716.197E-3	-31.9068E-3
-1.68834E-3	-119.183E-12	743.835E-3	-33.3869E-3	-118.749E-12	710.252E-3	-34.8808E-3
-1.69335E-3	-119.659E-12	749.658E-3	-26.8265E-3	-120.536E-12	710.235E-3	-41.9341E-3
-1.69835E-3	-119.673E-12	742.325E-3	-26.9580E-3	-119.044E-12	723.911E-3	-28.1236E-3
-1.70335E-3	-118.511E-12	739.796E-3	-37.4156E-3	-118.546E-12	735.687E-3	-15.2964E-3
-1.70835E-3	-119.732E-12	746.134E-3	-45.3945E-3	-119.374E-12	716.373E-3	-23.5994E-3
-1.71336E-3	-120.575E-12	744.488E-3	-57.6912E-3	-120.939E-12	698.443E-3	-26.1330E-3
-1.71836E-3	-120.277E-12	731.371E-3	-50.1370E-3	-121.241E-12	717.838E-3	-37.7575E-3
-1.72336E-3	-118.035E-12	712.186E-3	-7.80084E-3	-119.523E-12	716.797E-3	-48.4737E-3
-1.72836E-3	-118.976E-12	701.424E-3	8.02618E-3	-119.904E-12	701.319E-3	-21.0497E-3
-1.73337E-3	-120.065E-12	711.256E-3	-23.8056E-3	-120.769E-12	719.523E-3	5.57744E-3
-1.73837E-3	-120.223E-12	721.982E-3	-40.2247E-3	-121.683E-12	744.065E-3	-7.21506E-3
-1.74337E-3	-119.899E-12	730.553E-3	-24.5882E-3	-120.250E-12	743.523E-3	-26.2658E-3
-1.74837E-3	-119.650E-12	734.012E-3	-17.4663E-3	-120.208E-12	721.279E-3	-31.4954E-3
-1.75338E-3	-121.288E-12	724.651E-3	-23.3482E-3	-121.294E-12	705.155E-3	-31.0822E-3
-1.75838E-3	-122.093E-12	711.483E-3	-21.9607E-3	-122.748E-12	697.953E-3	-24.7579E-3
-1.76338E-3	-123.387E-12	699.542E-3	-19.4944E-3	-121.960E-12	703.503E-3	-25.8301E-3
-1.76838E-3	-122.938E-12	707.129E-3	-23.0073E-3	-121.490E-12	720.134E-3	-42.2728E-3
-1.77339E-3	-123.489E-12	728.790E-3	-25.6753E-3	-122.930E-12	719.030E-3	-48.4985E-3
-1.77839E-3	-124.217E-12	737.107E-3	-34.3166E-3	-122.506E-12	707.020E-3	-41.6073E-3
-1.78339E-3	-126.229E-12	754.505E-3	-28.6797E-3	-123.890E-12	704.553E-3	-29.4872E-3
-1.78839E-3	-125.751E-12	760.682E-3	-13.1336E-3	-123.353E-12	704.791E-3	-17.3400E-3
-1.79340E-3	-124.901E-12	719.096E-3	-2.31420E-3	-122.968E-12	697.582E-3	-13.3996E-3
-1.79840E-3	-125.824E-12	685.681E-3	7.55279E-3	-123.194E-12	697.392E-3	-8.27308E-3
-1.80340E-3	-126.463E-12	692.732E-3	-2.42665E-3	-123.739E-12	697.754E-3	-476.701E-6
-1.80840E-3	-125.876E-12	695.361E-3	-22.3322E-3	-123.304E-12	688.883E-3	-11.9658E-3
-1.81341E-3	-123.369E-12	681.057E-3	-26.8623E-3	-123.608E-12	675.162E-3	-28.5489E-3
-1.81841E-3	-122.241E-12	686.255E-3	-15.4779E-3	-123.210E-12	661.056E-3	-36.7191E-3
-1.82341E-3	-124.164E-12	707.874E-3	-4.31343E-3	-123.210E-12	667.395E-3	-54.8236E-3
-1.82841E-3	-124.212E-12	717.448E-3	3.06547E-3	-123.794E-12	688.538E-3	-58.3700E-3
-1.83342E-3	-123.514E-12	708.320E-3	21.1412E-3	-123.792E-12	707.461E-3	-28.7442E-3
-1.83842E-3	-122.083E-12	677.734E-3	43.1440E-3	-124.849E-12	713.734E-3	3.68068E-3
-1.84342E-3	-123.873E-12	644.997E-3	30.1505E-3	-125.285E-12	707.748E-3	20.7441E-3
-1.84842E-3	-125.908E-12	626.490E-3	-5.17589E-3	-125.471E-12	707.044E-3	26.5712E-3
-1.85343E-3	-126.377E-12	629.980E-3	-20.8902E-3	-126.169E-12	715.532E-3	5.68261E-3
-1.85843E-3	-125.671E-12	669.242E-3	-34.5350E-3	-127.254E-12	717.258E-3	-17.9492E-3
-1.86343E-3	-127.061E-12	700.040E-3	-49.7658E-3	-128.098E-12	689.340E-3	-9.34266E-3
-1.86843E-3	-129.636E-12	698.985E-3	-41.6160E-3	-129.118E-12	673.594E-3	3.10466E-3
-1.87344E-3	-130.382E-12	704.541E-3	630.780E-6	-128.763E-12	695.525E-3	-9.74340E-3
-1.87844E-3	-130.315E-12	716.235E-3	30.0479E-3	-128.467E-12	703.093E-3	-25.3710E-3
-1.88344E-3	-128.705E-12	721.215E-3	-3.72766E-3	-129.749E-12	696.464E-3	-14.2421E-3
-1.88844E-3	-129.790E-12	712.693E-3	-39.3849E-3	-128.888E-12	691.158E-3	-13.3242E-3
-1.89345E-3	-131.044E-12	694.661E-3	-35.2834E-3	-128.562E-12	685.436E-3	-32.5987E-3
-1.89845E-3	-130.897E-12	693.599E-3	-26.7932E-3	-127.124E-12	683.825E-3	-34.0492E-3
-1.90345E-3	-128.292E-12	706.638E-3	-24.8185E-3	-127.562E-12	684.112E-3	-17.4826E-3
-1.90845E-3	-129.043E-12	705.486E-3	-10.1546E-3	-126.764E-12	672.198E-3	2.74239E-3
-1.91346E-3	-131.359E-12	685.024E-3	6.95031E-3	-126.104E-12	650.023E-3	-1.55231E-3
-1.91846E-3	-130.146E-12	676.881E-3	-11.6240E-3	-125.784E-12	655.239E-3	-22.5149E-3
-1.92346E-3	-128.215E-12	698.334E-3	-34.3405E-3	-124.951E-12	665.877E-3	-23.0395E-3
-1.92846E-3	-126.903E-12	714.450E-3	-29.4175E-3	-126.018E-12	664.540E-3	-21.2280E-3
-1.93347E-3	-128.306E-12	699.915E-3	-33.8863E-3	-126.845E-12	677.516E-3	-26.1156E-3
-1.93847E-3	-128.942E-12	678.773E-3	-46.1181E-3	-127.138E-12	684.574E-3	-33.0572E-3
-1.94347E-3	-129.187E-12	661.875E-3	-39.6885E-3	-127.818E-12	680.816E-3	-34.0647E-3
-1.94847E-3	-128.274E-12	657.467E-3	-36.2013E-3	-128.345E-12	681.014E-3	-12.1953E-3
-1.95348E-3	-128.915E-12	691.870E-3	-33.8436E-3	-129.658E-12	692.397E-3	8.13028E-3
-1.95848E-3	-130.640E-12	716.787E-3	-24.0525E-3	-131.071E-12	694.194E-3	6.09219E-3
-1.96348E-3	-132.326E-12	686.181E-3	-10.8221E-3	-132.038E-12	693.868E-3	-18.1036E-3
-1.96848E-3	-131.202E-12	672.557E-3	-3.59696E-3	-132.874E-12	715.694E-3	-45.6715E-3
-1.97349E-3	-129.371E-12	704.428E-3	-2.42668E-3	-133.696E-12	710.564E-3	-41.0620E-3
-1.97849E-3	-131.494E-12	720.664E-3	5.92169E-3	-133.288E-12	677.692E-3	-23.1812E-3
-1.98349E-3	-132.915E-12	719.226E-3	-7.50582E-3	-134.038E-12	674.810E-3	-31.6202E-3
-1.98849E-3	-131.448E-12	709.298E-3	-24.1523E-3	-133.052E-12	689.378E-3	-20.6966E-3
-1.99350E-3	-131.075E-12	690.403E-3	-14.3368E-3	-132.599E-12	690.041E-3	14.4498E-3
-1.99850E-3	-132.145E-12	690.007E-3	-2.98225E-3	-132.077E-12	682.611E-3	15.1864E-3
-2.00350E-3	-133.668E-12	697.118E-3	-1.61387E-3	-131.510E-12	671.486E-3	1.95346E-3
-2.00850E-3	-133.245E-12	713.041E-3	-12.6772E-3	-130.805E-12	662.287E-3	8.37866E-3
-2.01351E-3	-132.503E-12	727.144E-3	-31.6961E-3	-130.977E-12	653.341E-3	12.1567E-3
-2.01851E-3	-132.307E-12	707.913E-3	-33.5840E-3	-131.108E-12	639.587E-3	-2.20536E-3
-2.02351E-3	-133.604E-12	686.384E-3	-17.9727E-3	-131.585E-12	657.993E-3	-1.00035E-3
-2.02851E-3	-133.999E-12	682.408E-3	-16.8543E-3	-131.715E-12	683.637E-3	16.1391E-3
-2.03352E-3	-133.559E-12	705.390E-3	-20.7318E-3	-132.729E-12	681.349E-3	24.4167E-3
-2.03852E-3	-133.208E-12	715.933E-3	-14.3727E-3	-133.596E-12	682.433E-3	16.5741E-3
-2.04352E-3	-135.002E-12	683.746E-3	-25.6366E-3	-134.830E-12	680.009E-3	-3.26488E-3
-2.04852E-3	-136.026E-12	673.331E-3	-37.0159E-3	-135.452E-12	661.869E-3	-11.0118E-3
-2.05353E-3	-134.582E-12	684.364E-3	-31.6777E-3	-136.527E-12	664.985E-3	-1.06065E-3
-2.05853E-3	-134.584E-12	690.557E-3	-39.8752E-3	-136.382E-12	694.179E-3	202.951E-6
-2.06353E-3	-134.701E-12	687.687E-3	-36.6283E-3	-137.293E-12	717.366E-3	-26.2817E-3
-2.06853E-3	-135.709E-12	663.666E-3	-27.5714E-3	-137.950E-12	720.743E-3	-50.1976E-3
-2.07354E-3	-135.331E-12	648.517E-3	-34.9950E-3	-139.746E-12	694.758E-3	-43.9723E-3
-2.07854E-3	-134.734E-12	675.045E-3	-22.0531E-3	-138.492E-12	683.955E-3	-11.3190E-3
-2.08354E-3	-135.552E-12	710.774E-3	-10.7008E-3	-137.598E-12	692.039E-3	10.9643E-3
-2.08854E-3	-137.319E-12	708.137E-3	-16.7453E-3	-136.670E-12	677.867E-3	-4.06391E-3
-2.09355E-3	-137.912E-12	694.567E-3	-15.9994E-3	-138.618E-12	677.823E-3	-16.7646E-3
-2.09855E-3	-136.467E-12	688.638E-3	-27.9132E-3	-137.908E-12	693.478E-3	-8.91339E-3
-2.10355E-3	-137.747E-12	675.912E-3	-54.6963E-3	-135.631E-12	698.104E-3	-16.4745E-3
-2.10855E-3	-138.537E-12	683.752E-3	-45.9140E-3	-135.651E-12	699.560E-3	-29.1306E-3
-2.11356E-3	-140.655E-12	706.370E-3	-11.1242E-3	-138.241E-12	685.150E-3	-22.0979E-3
-2.11856E-3	-139.186E-12	723.562E-3	-7.86441E-3	-139.178E-12	673.725E-3	-15.7487E-3
-2.12356E-3	-137.849E-12	747.725E-3	-25.0017E-3	-138.168E-12	694.847E-3	-17.5198E-3
-2.12856E-3	-138.140E-12	736.107E-3	-36.3232E-3	-138.132E-12	694.011E-3	-21.7484E-3
-2.13357E-3	-139.153E-12	693.627E-3	-39.1701E-3	-138.698E-12	675.383E-3	-22.8216E-3
-2.13857E-3	-139.423E-12	684.904E-3	-42.3261E-3	-140.970E-12	675.877E-3	-32.1900E-3
-2.14357E-3	-136.278E-12	693.057E-3	-30.3861E-3	-142.584E-12	669.145E-3	-33.1766E-3
-2.14857E-3	-136.852E-12	693.011E-3	-6.80558E-3	-141.223E-12	681.847E-3	-18.9065E-3
-2.15358E-3	-136.376E-12	688.181E-3	2.42938E-3	-140.455E-12	704.103E-3	-22.5060E-3
-2.15858E-3	-139.170E-12	686.899E-3	5.18920E-3	-142.179E-12	696.029E-3	-29.7784E-3
-2.16358E-3	-138.263E-12	686.278E-3	15.6153E-3	-143.900E-12	688.057E-3	-25.3987E-3
-2.16858E-3	-136.314E-12	680.858E-3	22.5889E-3	-143.673E-12	694.717E-3	-13.4883E-3
-2.17359E-3	-137.687E-12	674.784E-3	6.75121E-3	-141.852E-12	689.730E-3	-12.1980E-3
-2.17859E-3	-140.066E-12	666.533E-3	-24.1678E-3	-142.419E-12	669.179E-3	-29.8187E-3
-2.18359E-3	-141.662E-12	674.285E-3	-55.6386E-3	-142.913E-12	678.392E-3	-37.4759E-3
-2.18859E-3	-141.225E-12	691.173E-3	-59.5401E-3	-143.864E-12	716.909E-3	-17.7111E-3
-2.19360E-3	-141.503E-12	685.865E-3	-39.3348E-3	-143.005E-12	729.048E-3	-7.82600E-3
-2.19860E-3	-141.316E-12	683.205E-3	-21.2693E-3	-142.094E-12	713.059E-3	-20.8389E-3
-2.20360E-3	-144.439E-12	692.825E-3	-17.4097E-3	-142.385E-12	681.368E-3	-20.0644E-3
-2.20860E-3	-144.725E-12	710.849E-3	-29.8432E-3	-143.931E-12	652.907E-3	-8.64326E-3
-2.21361E-3	-142.872E-12	726.083E-3	-44.1329E-3	-144.677E-12	662.730E-3	-8.64857E-3
-2.21861E-3	-143.372E-12	716.029E-3	-40.9945E-3	-142.387E-12	688.428E-3	-31.7720E-3
-2.22361E-3	-144.840E-12	696.693E-3	-24.4711E-3	-143.037E-12	700.505E-3	-43.9505E-3
-2.22861E-3	-146.064E-12	684.862E-3	-17.9882E-3	-142.368E-12	715.577E-3	-27.1654E-3
-2.23362E-3	-142.593E-12	699.602E-3	-21.8815E-3	-143.919E-12	715.798E-3	-29.8598E-3
-2.23862E-3	-143.163E-12	727.288E-3	-18.6783E-3	-142.510E-12	688.000E-3	-46.6814E-3
-2.24362E-3	-143.772E-12	727.233E-3	-12.5643E-3	-141.310E-12	681.172E-3	-41.6896E-3
-2.24862E-3	-144.282E-12	729.476E-3	-16.4120E-3	-141.362E-12	681.445E-3	-10.6406E-3
-2.25363E-3	-142.173E-12	742.600E-3	-14.4994E-3	-143.652E-12	654.936E-3	27.2434E-3
-2.25863E-3	-141.414E-12	718.179E-3	-3.83745E-3	-144.453E-12	661.989E-3	29.6214E-3
-2.26363E-3	-141.685E-12	676.649E-3	-6.87773E-3	-143.877E-12	694.222E-3	-18.0647E-3
-2.26863E-3	-143.445E-12	651.830E-3	-18.3247E-3	-144.135E-12	699.855E-3	-60.6763E-3
-2.27364E-3	-144.225E-12	644.923E-3	-14.2733E-3	-145.024E-12	710.345E-3	-58.5038E-3
-2.27864E-3	-144.290E-12	674.690E-3	-6.79869E-3	-145.700E-12	717.998E-3	-47.7214E-3
-2.28364E-3	-144.730E-12	714.300E-3	-600.839E-6	-147.303E-12	705.982E-3	-29.0688E-3
-2.28864E-3	-146.308E-12	704.438E-3	-901.097E-6	-147.971E-12	696.653E-3	-11.6024E-3
-2.29365E-3	-147.020E-12	672.647E-3	-24.5604E-3	-148.849E-12	688.632E-3	-29.2565E-3
-2.29865E-3	-148.429E-12	672.449E-3	-38.2980E-3	-148.831E-12	676.824E-3	-50.8345E-3
-2.30365E-3	-149.205E-12	686.101E-3	-41.6331E-3	-148.754E-12	674.640E-3	-51.9898E-3
-2.30865E-3	-149.463E-12	698.411E-3	-33.4320E-3	-149.121E-12	689.852E-3	-45.8974E-3
-2.31366E-3	-148.762E-12	717.119E-3	666.355E-6	-148.756E-12	706.050E-3	-28.1331E-3
-2.31866E-3	-149.283E-12	740.643E-3	10.7715E-3	-148.615E-12	713.257E-3	-11.7370E-3
-2.32366E-3	-150.617E-12	756.793E-3	-12.7401E-3	-147.675E-12	715.710E-3	-7.21586E-3
-2.32866E-3	-150.499E-12	733.230E-3	-25.8651E-3	-148.734E-12	714.348E-3	4.90554E-3
-2.33367E-3	-149.075E-12	713.304E-3	-30.4758E-3	-147.633E-12	692.518E-3	6.23451E-3
-2.33867E-3	-148.535E-12	733.306E-3	-35.6308E-3	-146.202E-12	663.300E-3	-13.3777E-3
-2.34367E-3	-148.372E-12	738.845E-3	-39.6171E-3	-145.615E-12	656.227E-3	-19.4144E-3
-2.34867E-3	-148.059E-12	713.110E-3	-31.7696E-3	-146.275E-12	667.168E-3	11.9180E-3
-2.35368E-3	-147.401E-12	692.941E-3	-10.1609E-3	-145.838E-12	686.983E-3	40.2217E-3
-2.35868E-3	-147.893E-12	700.623E-3	-8.88602E-3	-145.983E-12	708.086E-3	18.6215E-3
-2.36368E-3	-147.697E-12	705.651E-3	-19.0252E-3	-146.131E-12	714.148E-3	-5.53387E-3
-2.36868E-3	-148.161E-12	682.994E-3	-17.0003E-3	-147.921E-12	710.615E-3	-11.0222E-3
-2.37369E-3	-148.712E-12	681.187E-3	-19.7080E-3	-148.855E-12	708.658E-3	-21.8145E-3
-2.37869E-3	-148.754E-12	703.671E-3	-15.4591E-3	-150.791E-12	695.546E-3	-20.8203E-3
-2.38369E-3	-148.391E-12	691.617E-3	-11.1415E-3	-150.821E-12	689.343E-3	-21.0744E-3
-2.38869E-3	-150.261E-12	672.136E-3	-18.9219E-3	-151.481E-12	700.616E-3	-44.9408E-3
-2.39370E-3	-149.937E-12	678.363E-3	-16.8572E-3	-152.549E-12	705.231E-3	-49.6565E-3
-2.39870E-3	-151.384E-12	690.980E-3	-22.0777E-3	-154.710E-12	713.374E-3	-19.3541E-3
-2.40370E-3	-150.033E-12	682.443E-3	-20.9041E-3	-154.373E-12	717.208E-3	5.29040E-3
-2.40870E-3	-151.154E-12	669.561E-3	-10.3361E-3	-153.150E-12	690.326E-3	3.14762E-3
-2.41371E-3	-151.770E-12	683.166E-3	-20.4625E-3	-152.942E-12	665.415E-3	-6.56383E-3
-2.41871E-3	-152.655E-12	691.942E-3	-20.8344E-3	-153.564E-12	667.530E-3	1.03230E-3
-2.42371E-3	-152.427E-12	678.612E-3	-12.7712E-3	-151.925E-12	671.858E-3	1.72471E-3
-2.42871E-3	-151.184E-12	669.540E-3	-16.1926E-3	-150.874E-12	655.955E-3	-1.49995E-3
-2.43372E-3	-151.635E-12	675.663E-3	-16.5165E-3	-151.080E-12	635.732E-3	7.36171E-3
-2.43872E-3	-152.796E-12	691.378E-3	-32.1990E-3	-152.115E-12	643.098E-3	-11.2974E-3
-2.44372E-3	-153.593E-12	700.467E-3	-43.5274E-3	-150.336E-12	679.951E-3	-28.2995E-3
-2.44872E-3	-151.730E-12	699.721E-3	-37.5164E-3	-149.039E-12	692.798E-3	-21.3662E-3
-2.45373E-3	-151.334E-12	698.317E-3	-34.1958E-3	-149.920E-12	665.314E-3	-26.5466E-3
-2.45873E-3	-153.068E-12	698.055E-3	-15.9558E-3	-152.826E-12	664.527E-3	-19.8706E-3
-2.46373E-3	-154.130E-12	690.303E-3	-3.75503E-3	-151.878E-12	696.568E-3	-11.0117E-3
-2.46873E-3	-152.679E-12	668.094E-3	-9.93759E-3	-151.451E-12	706.665E-3	-21.3453E-3
-2.47374E-3	-153.460E-12	653.404E-3	-11.7843E-3	-152.484E-12	700.069E-3	-13.1715E-3
-2.47874E-3	-154.406E-12	667.386E-3	-16.9058E-3	-155.383E-12	697.189E-3	5.86105E-3
-2.48374E-3	-153.886E-12	701.516E-3	-46.5762E-3	-154.871E-12	697.059E-3	4.75662E-3
-2.48874E-3	-152.942E-12	718.061E-3	-53.9148E-3	-154.596E-12	683.482E-3	4.24182E-3
-2.49375E-3	-152.960E-12	700.177E-3	-25.8875E-3	-155.755E-12	661.395E-3	4.90593E-3
-2.49875E-3	-155.403E-12	686.774E-3	-11.1095E-3	-156.024E-12	656.511E-3	-16.8219E-3
-2.50375E-3	-156.099E-12	694.744E-3	-4.10469E-3	-156.810E-12	660.513E-3	-25.6437E-3
-2.50875E-3	-155.099E-12	702.919E-3	-7.45410E-3	-154.616E-12	680.702E-3	-1.50089E-3
-2.51376E-3	-155.999E-12	709.024E-3	-26.7120E-3	-154.926E-12	694.086E-3	-324.140E-6
-2.51876E-3	-158.232E-12	705.095E-3	-12.7868E-3	-153.687E-12	676.155E-3	-21.5999E-3
-2.52376E-3	-158.726E-12	686.174E-3	15.7368E-3	-153.715E-12	664.809E-3	-13.8420E-3
-2.52876E-3	-157.787E-12	666.299E-3	4.30569E-3	-151.986E-12	653.740E-3	1.01374E-3
-2.53377E-3	-159.198E-12	678.318E-3	-23.3784E-3	-152.568E-12	620.080E-3	-5.97581E-3
-2.53877E-3	-159.501E-12	720.927E-3	-41.2582E-3	-151.896E-12	622.380E-3	-9.91711E-3
-2.54377E-3	-160.223E-12	738.634E-3	-39.1350E-3	-152.255E-12	658.408E-3	-13.5955E-3
-2.54877E-3	-159.321E-12	743.533E-3	-18.3581E-3	-152.815E-12	663.245E-3	-30.2313E-3
-2.55378E-3	-159.393E-12	743.151E-3	-9.95934E-3	-152.880E-12	665.158E-3	-35.0760E-3
-2.55878E-3	-159.470E-12	711.709E-3	-20.3190E-3	-154.810E-12	669.926E-3	-38.1581E-3
-2.56378E-3	-159.025E-12	694.992E-3	-23.4908E-3	-155.446E-12	656.425E-3	-45.6623E-3
-2.56878E-3	-158.093E-12	702.170E-3	-11.6518E-3	-158.431E-12	660.095E-3	-37.1322E-3
-2.57379E-3	-157.132E-12	709.306E-3	1.59461E-3	-158.540E-12	693.354E-3	-36.2906E-3
-2.57879E-3	-158.487E-12	705.242E-3	30.5699E-3	-159.509E-12	711.916E-3	-34.4825E-3
-2.58379E-3	-158.309E-12	682.041E-3	53.5099E-3	-160.743E-12	691.681E-3	-16.7386E-3
-2.58879E-3	-156.795E-12	668.162E-3	18.9160E-3	-162.085E-12	667.671E-3	-16.4817E-3
-2.59380E-3	-156.853E-12	677.478E-3	-13.3685E-3	-162.346E-12	649.843E-3	-38.6848E-3
-2.59880E-3	-157.187E-12	697.469E-3	-12.3805E-3	-162.674E-12	658.247E-3	-54.1880E-3
-2.60380E-3	-157.096E-12	724.366E-3	-10.0730E-3	-162.143E-12	702.933E-3	-50.5816E-3
-2.60880E-3	-158.570E-12	730.100E-3	7.29900E-3	-163.079E-12	718.601E-3	-42.4834E-3
-2.61381E-3	-160.642E-12	702.742E-3	17.2696E-3	-163.892E-12	687.386E-3	-34.2499E-3
-2.61881E-3	-160.031E-12	678.254E-3	-5.51445E-3	-163.369E-12	674.080E-3	-20.1662E-3
-2.62381E-3	-161.406E-12	670.688E-3	-30.0123E-3	-162.121E-12	694.190E-3	-13.5879E-3
-2.62881E-3	-162.945E-12	668.951E-3	-26.0908E-3	-162.599E-12	713.828E-3	-13.7031E-3
-2.63382E-3	-164.852E-12	654.664E-3	19.7598E-3	-163.173E-12	717.180E-3	-26.4669E-3
-2.63882E-3	-167.190E-12	643.033E-3	35.5356E-3	-162.527E-12	693.760E-3	-40.5753E-3
-2.64382E-3	-166.318E-12	668.499E-3	-4.50257E-3	-163.207E-12	674.124E-3	-35.9597E-3
-2.64882E-3	-166.511E-12	700.947E-3	-26.7557E-3	-161.852E-12	670.065E-3	-38.5604E-3
-2.65383E-3	-165.907E-12	712.113E-3	-25.2970E-3	-161.469E-12	667.516E-3	-29.1794E-3
-2.65883E-3	-166.300E-12	719.298E-3	-3.96392E-3	-161.118E-12	662.531E-3	4.81137E-3
-2.66383E-3	-164.621E-12	721.999E-3	11.1369E-3	-161.912E-12	649.642E-3	9.68876E-3
-2.66883E-3	-163.505E-12	700.236E-3	-3.28048E-3	-162.896E-12	650.891E-3	-23.2581E-3
-2.67384E-3	-162.745E-12	657.051E-3	-13.2639E-3	-161.307E-12	674.729E-3	-47.8900E-3
-2.67884E-3	-162.373E-12	641.716E-3	-11.8045E-3	-161.459E-12	700.267E-3	-37.7224E-3
-2.68384E-3	-162.386E-12	668.366E-3	-7.04013E-3	-162.165E-12	713.782E-3	-26.4974E-3
-2.68884E-3	-161.645E-12	692.366E-3	2.71204E-3	-163.491E-12	709.554E-3	-19.9556E-3
-2.69385E-3	-160.431E-12	688.560E-3	5.40065E-3	-162.745E-12	719.417E-3	4.92826E-3
-2.69885E-3	-160.116E-12	673.716E-3	-7.08131E-3	-163.468E-12	739.888E-3	625.471E-6
-2.70385E-3	-161.599E-12	653.601E-3	-12.2489E-3	-165.442E-12	727.535E-3	-45.0119E-3
-2.70885E-3	-163.114E-12	646.044E-3	4.15178E-3	-167.463E-12	708.247E-3	-54.6198E-3
-2.71386E-3	-162.724E-12	656.622E-3	14.8345E-3	-167.881E-12	717.718E-3	-17.2379E-3
-2.71886E-3	-164.327E-12	649.719E-3	7.03973E-3	-168.648E-12	735.733E-3	-2.04402E-3
-2.72386E-3	-167.063E-12	635.417E-3	2.22637E-3	-169.881E-12	733.698E-3	-6.63110E-3
-2.72886E-3	-168.378E-12	644.253E-3	-2.39632E-3	-169.688E-12	726.647E-3	3.50800E-3
-2.73387E-3	-168.851E-12	667.442E-3	1.61452E-3	-170.889E-12	720.728E-3	2.90760E-3
-2.73887E-3	-168.115E-12	681.827E-3	19.9105E-3	-170.267E-12	714.743E-3	-14.0260E-3
-2.74387E-3	-169.213E-12	693.741E-3	9.30777E-3	-170.467E-12	713.878E-3	-31.4084E-3
-2.74887E-3	-170.560E-12	719.118E-3	-18.3715E-3	-169.206E-12	696.810E-3	-45.2026E-3
-2.75388E-3	-170.488E-12	722.688E-3	-20.2357E-3	-168.347E-12	679.425E-3	-48.4608E-3
-2.75888E-3	-168.959E-12	712.335E-3	-8.22246E-3	-167.242E-12	673.013E-3	-54.1039E-3
-2.76388E-3	-167.997E-12	711.707E-3	11.9037E-3	-167.003E-12	668.481E-3	-58.5416E-3
-2.76888E-3	-167.845E-12	712.280E-3	21.5410E-3	-165.415E-12	681.937E-3	-54.5309E-3
-2.77389E-3	-167.318E-12	721.188E-3	-13.5472E-3	-165.133E-12	705.508E-3	-57.6109E-3
-2.77889E-3	-166.779E-12	727.128E-3	-48.5501E-3	-164.273E-12	700.995E-3	-62.7382E-3
-2.78389E-3	-166.353E-12	708.842E-3	-42.6341E-3	-164.369E-12	677.075E-3	-50.5018E-3
-2.78889E-3	-166.262E-12	679.649E-3	-21.7347E-3	-164.786E-12	675.678E-3	-17.1992E-3
-2.79390E-3	-166.769E-12	681.617E-3	-16.6525E-3	-164.757E-12	685.629E-3	4.07084E-3
-2.79890E-3	-166.784E-12	700.364E-3	-27.1151E-3	-167.042E-12	679.306E-3	1.48333E-3
-2.80390E-3	-167.337E-12	688.386E-3	-27.3090E-3	-168.018E-12	668.389E-3	3.32675E-3
-2.80890E-3	-170.047E-12	671.001E-3	-22.5566E-3	-167.938E-12	652.670E-3	10.0278E-3
-2.81391E-3	-170.817E-12	689.651E-3	-33.1899E-3	-167.468E-12	635.267E-3	2.63475E-3
-2.81891E-3	-171.165E-12	702.249E-3	-43.4095E-3	-170.121E-12	650.561E-3	-11.1155E-3
-2.82391E-3	-172.161E-12	703.687E-3	-54.0931E-3	-171.649E-12	691.295E-3	-17.6055E-3
-2.82891E-3	-173.633E-12	727.977E-3	-62.1038E-3	-172.686E-12	722.931E-3	-20.2593E-3
-2.83392E-3	-174.378E-12	748.068E-3	-60.6583E-3	-171.829E-12	727.468E-3	-30.8878E-3
-2.83892E-3	-176.064E-12	738.969E-3	-68.4233E-3	-172.609E-12	710.787E-3	-47.5160E-3
-2.84392E-3	-176.292E-12	708.958E-3	-65.1078E-3	-174.320E-12	692.423E-3	-47.2416E-3
-2.84892E-3	-175.479E-12	678.105E-3	-46.6344E-3	-174.838E-12	689.624E-3	-24.9401E-3
-2.85393E-3	-175.176E-12	676.343E-3	-27.3175E-3	-173.134E-12	701.256E-3	1.53316E-3
-2.85893E-3	-175.926E-12	700.169E-3	-6.99227E-3	-172.769E-12	683.321E-3	12.7419E-3
-2.86393E-3	-175.820E-12	711.443E-3	-6.79818E-3	-172.813E-12	650.930E-3	21.7905E-3
-2.86893E-3	-174.811E-12	708.507E-3	-27.9332E-3	-172.902E-12	652.019E-3	12.7830E-3
-2.87394E-3	-175.283E-12	698.980E-3	-28.0752E-3	-171.710E-12	678.931E-3	-10.9214E-3
-2.87894E-3	-174.597E-12	696.476E-3	3.35479E-3	-169.556E-12	706.614E-3	-17.2963E-3
-2.88394E-3	-175.101E-12	707.841E-3	20.0523E-3	-169.950E-12	698.413E-3	-22.2849E-3
-2.88894E-3	-176.721E-12	699.989E-3	14.6554E-3	-172.042E-12	664.828E-3	-25.1438E-3
-2.89395E-3	-173.821E-12	676.331E-3	7.00965E-3	-173.413E-12	655.545E-3	-19.6123E-3
-2.89895E-3	-173.486E-12	665.647E-3	-2.91537E-3	-172.968E-12	682.010E-3	4.91452E-3
-2.90395E-3	-176.108E-12	674.135E-3	-8.49711E-3	-172.727E-12	709.296E-3	17.5692E-3
-2.90895E-3	-177.112E-12	690.780E-3	-149.108E-6	-174.695E-12	709.673E-3	4.82997E-3
-2.91396E-3	-174.206E-12	707.884E-3	-6.52916E-3	-177.921E-12	706.500E-3	907.915E-6
-2.91896E-3	-174.106E-12	710.681E-3	-31.1245E-3	-178.492E-12	716.245E-3	1.74286E-3
-2.92396E-3	-175.076E-12	698.017E-3	-30.6531E-3	-178.056E-12	713.713E-3	17.7707E-3
-2.92896E-3	-175.968E-12	685.186E-3	661.979E-6	-177.071E-12	701.880E-3	34.2202E-3
-2.93397E-3	-176.395E-12	690.479E-3	11.2637E-3	-178.122E-12	702.075E-3	8.32888E-3
-2.93897E-3	-176.334E-12	699.071E-3	-19.3203E-3	-181.021E-12	688.528E-3	-23.1193E-3
-2.94397E-3	-177.160E-12	676.748E-3	-39.2726E-3	-180.301E-12	667.638E-3	1.26963E-3
-2.94897E-3	-178.271E-12	653.780E-3	-31.7968E-3	-178.608E-12	663.503E-3	14.1663E-3
-2.95398E-3	-179.913E-12	652.622E-3	-34.8932E-3	-177.051E-12	663.875E-3	-14.4246E-3
-2.95898E-3	-179.677E-12	636.746E-3	-46.1057E-3	-177.686E-12	686.066E-3	-25.4074E-3
-2.96398E-3	-181.307E-12	636.827E-3	-46.1630E-3	-178.970E-12	705.495E-3	-48.5102E-3
-2.96898E-3	-180.521E-12	683.028E-3	-39.9836E-3	-177.446E-12	691.090E-3	-58.4054E-3
-2.97399E-3	-179.335E-12	708.545E-3	-30.8955E-3	-176.359E-12	706.087E-3	-16.6756E-3
-2.97899E-3	-179.893E-12	716.759E-3	-28.1666E-3	-176.597E-12	728.283E-3	12.1793E-3
-2.98399E-3	-180.124E-12	731.007E-3	-12.1665E-3	-179.492E-12	698.933E-3	6.57307E-3
-2.98899E-3	-179.619E-12	706.442E-3	21.0010E-3	-180.009E-12	679.972E-3	-9.25457E-3
-2.99400E-3	-178.212E-12	660.519E-3	25.4360E-3	-178.493E-12	697.969E-3	-29.2481E-3
-2.99900E-3	-177.492E-12	644.198E-3	-1.99302E-3	-178.204E-12	711.960E-3	-43.6143E-3
-3.00400E-3	-175.978E-12	660.986E-3	-36.0475E-3	-179.032E-12	707.544E-3	-23.6314E-3
-3.00900E-3	-176.339E-12	674.615E-3	-47.8614E-3	-180.343E-12	690.359E-3	6.78550E-3
-3.01401E-3	-175.391E-12	659.748E-3	-43.6567E-3	-182.147E-12	684.280E-3	8.25303E-3
-3.01901E-3	-174.544E-12	640.244E-3	-44.7253E-3	-183.164E-12	690.275E-3	-11.5165E-3
-3.02401E-3	-174.790E-12	645.546E-3	-39.6660E-3	-182.158E-12	718.649E-3	-37.1520E-3
-3.02901E-3	-176.069E-12	661.894E-3	-24.2102E-3	-180.925E-12	743.482E-3	-48.0415E-3
-3.03402E-3	-177.827E-12	671.573E-3	-13.2789E-3	-182.505E-12	725.779E-3	-47.6763E-3
-3.03902E-3	-178.412E-12	687.756E-3	-22.7336E-3	-183.839E-12	701.752E-3	-57.2705E-3
-3.04402E-3	-178.873E-12	682.454E-3	-28.2523E-3	-182.673E-12	664.210E-3	-62.1477E-3
-3.04902E-3	-180.044E-12	674.534E-3	3.26611E-3	-182.073E-12	625.515E-3	-31.6562E-3
-3.05403E-3	-182.456E-12	704.247E-3	34.1040E-3	-181.957E-12	616.365E-3	13.7166E-3
-3.05903E-3	-183.560E-12	740.350E-3	9.35171E-3	-182.202E-12	615.835E-3	21.8385E-3
-3.06403E-3	-184.066E-12	744.345E-3	2.21956E-3	-180.679E-12	633.308E-3	9.69155E-3
-3.06903E-3	-184.816E-12	719.371E-3	26.8150E-3	-179.508E-12	672.333E-3	1.32472E-3
-3.07404E-3	-184.284E-12	701.632E-3	18.0982E-3	-178.402E-12	699.906E-3	-14.7542E-3
-3.07904E-3	-184.007E-12	684.779E-3	11.2267E-3	-179.174E-12	679.774E-3	-23.1145E-3
-3.08404E-3	-185.296E-12	669.119E-3	23.7890E-3	-179.993E-12	642.162E-3	-25.2612E-3
-3.08904E-3	-185.622E-12	681.666E-3	25.3769E-3	-181.006E-12	638.024E-3	-27.3518E-3
-3.09405E-3	-183.192E-12	713.376E-3	8.00251E-3	-178.809E-12	657.923E-3	-23.1627E-3
-3.09905E-3	-182.176E-12	735.863E-3	-16.5217E-3	-179.808E-12	681.346E-3	-21.8264E-3
-3.10405E-3	-182.033E-12	737.252E-3	-16.9970E-3	-181.854E-12	683.844E-3	-46.1827E-3
-3.10905E-3	-181.466E-12	728.362E-3	11.7576E-3	-181.056E-12	671.377E-3	-66.0384E-3
-3.11406E-3	-180.724E-12	707.730E-3	21.8293E-3	-178.922E-12	659.748E-3	-41.4085E-3
-3.11906E-3	-181.602E-12	688.528E-3	8.08806E-3	-181.234E-12	644.143E-3	-6.81890E-3
-3.12406E-3	-181.558E-12	681.953E-3	-5.37484E-3	-183.020E-12	646.830E-3	12.5570E-3
-3.12906E-3	-180.760E-12	684.449E-3	-13.3430E-3	-182.708E-12	688.721E-3	8.38115E-3
-3.13407E-3	-183.195E-12	677.015E-3	-19.4402E-3	-183.332E-12	718.798E-3	-19.2737E-3
-3.13907E-3	-185.381E-12	658.392E-3	-13.8369E-3	-184.869E-12	704.721E-3	-44.4784E-3
-3.14407E-3	-186.104E-12	659.791E-3	-3.52044E-3	-187.917E-12	680.173E-3	-53.0668E-3
-3.14907E-3	-186.724E-12	668.810E-3	-12.2210E-3	-187.422E-12	664.862E-3	-43.7851E-3
-3.15408E-3	-188.759E-12	697.742E-3	-8.41970E-3	-187.467E-12	673.134E-3	-34.6838E-3
-3.15908E-3	-190.939E-12	731.823E-3	1.66053E-3	-187.429E-12	689.032E-3	-19.9541E-3
-3.16408E-3	-191.294E-12	741.682E-3	-26.1960E-3	-189.436E-12	696.279E-3	-10.9253E-3
-3.16908E-3	-191.362E-12	737.198E-3	-42.2794E-3	-190.538E-12	699.302E-3	-17.7487E-3
-3.17409E-3	-190.637E-12	713.088E-3	-18.6476E-3	-189.386E-12	707.571E-3	-17.1928E-3
-3.17909E-3	-191.377E-12	698.598E-3	-1.44667E-3	-189.106E-12	728.135E-3	-2.89450E-3
-3.18409E-3	-189.858E-12	692.523E-3	4.92682E-3	-189.462E-12	733.968E-3	-6.69573E-3
-3.18909E-3	-188.090E-12	669.337E-3	-11.9152E-3	-190.115E-12	713.128E-3	-28.0214E-3
-3.19410E-3	-185.974E-12	670.637E-3	-47.3538E-3	-189.930E-12	694.194E-3	-19.5473E-3
-3.19910E-3	-186.809E-12	693.159E-3	-55.4595E-3	-187.306E-12	686.319E-3	-26.2466E-3
-3.20410E-3	-185.952E-12	694.875E-3	-40.9782E-3	-187.155E-12	668.149E-3	-48.6689E-3
-3.20910E-3	-185.143E-12	699.075E-3	-31.5547E-3	-188.362E-12	661.024E-3	-32.7500E-3
-3.21411E-3	-183.811E-12	705.836E-3	-44.3893E-3	-189.398E-12	677.728E-3	-32.5126E-3
-3.21911E-3	-184.643E-12	711.488E-3	-58.6399E-3	-186.671E-12	701.254E-3	-58.8302E-3
-3.22411E-3	-186.605E-12	697.036E-3	-46.1005E-3	-187.659E-12	726.073E-3	-44.0817E-3
-3.22911E-3	-187.142E-12	655.072E-3	-34.8573E-3	-188.784E-12	738.120E-3	-179.295E-6
-3.23412E-3	-188.780E-12	647.099E-3	-34.8933E-3	-191.468E-12	745.198E-3	9.80103E-3
-3.23912E-3	-188.676E-12	681.313E-3	-13.3537E-3	-189.985E-12	739.210E-3	4.18231E-3
-3.24412E-3	-191.839E-12	689.042E-3	8.38817E-3	-189.957E-12	720.423E-3	16.1061E-3
-3.24912E-3	-193.020E-12	677.371E-3	11.9360E-3	-192.124E-12	721.280E-3	12.2991E-3
-3.25413E-3	-194.369E-12	697.880E-3	11.5629E-3	-193.673E-12	722.984E-3	-20.9157E-3
-3.25913E-3	-194.317E-12	718.945E-3	-13.5414E-3	-194.007E-12	689.860E-3	-63.2568E-3
-3.26413E-3	-196.302E-12	724.304E-3	-40.2277E-3	-192.508E-12	662.277E-3	-78.1252E-3
-3.26913E-3	-195.975E-12	700.822E-3	-31.1929E-3	-192.945E-12	670.394E-3	-48.7433E-3
-3.27414E-3	-196.126E-12	671.942E-3	-34.1083E-3	-192.895E-12	687.268E-3	-21.3499E-3
-3.27914E-3	-194.162E-12	683.720E-3	-41.2373E-3	-191.555E-12	707.593E-3	-21.9419E-3
-3.28414E-3	-191.022E-12	684.737E-3	-21.3719E-3	-189.572E-12	699.254E-3	-14.3097E-3
-3.28914E-3	-191.322E-12	656.808E-3	-34.7691E-3	-190.320E-12	678.358E-3	-1.13507E-3
-3.29415E-3	-192.175E-12	645.214E-3	-68.2181E-3	-190.531E-12	683.765E-3	-23.3379E-3
-3.29915E-3	-191.242E-12	641.556E-3	-72.0266E-3	-189.897E-12	676.756E-3	-46.9993E-3
-3.30415E-3	-189.254E-12	646.303E-3	-52.0572E-3	-189.020E-12	666.872E-3	-43.5634E-3
-3.30915E-3	-188.687E-12	658.104E-3	-40.2356E-3	-189.817E-12	672.218E-3	-28.1414E-3
-3.31416E-3	-191.149E-12	646.531E-3	-43.0049E-3	-190.685E-12	663.115E-3	-11.8276E-3
-3.31916E-3	-190.647E-12	638.337E-3	-44.3463E-3	-191.539E-12	655.044E-3	13.3652E-3
-3.32416E-3	-189.622E-12	667.622E-3	-42.7348E-3	-191.412E-12	682.302E-3	34.5519E-3
-3.32916E-3	-189.364E-12	695.781E-3	-17.3321E-3	-191.612E-12	699.081E-3	32.0343E-3
-3.33417E-3	-192.885E-12	679.099E-3	6.23129E-3	-194.075E-12	665.609E-3	24.1313E-3
-3.33917E-3	-194.742E-12	659.521E-3	-20.0413E-3	-196.578E-12	651.948E-3	-6.09958E-3
-3.34417E-3	-194.700E-12	686.468E-3	-50.1068E-3	-197.135E-12	670.028E-3	-77.2726E-3
-3.34917E-3	-195.959E-12	711.436E-3	-41.1989E-3	-195.763E-12	673.883E-3	-107.877E-3
-3.35418E-3	-199.159E-12	711.064E-3	-32.8849E-3	-196.528E-12	686.900E-3	-84.0915E-3
-3.35918E-3	-202.648E-12	714.803E-3	-34.3531E-3	-197.819E-12	692.969E-3	-63.8617E-3
-3.36418E-3	-201.327E-12	707.065E-3	-38.4740E-3	-196.095E-12	669.553E-3	-47.1929E-3
-3.36918E-3	-199.525E-12	652.086E-3	-48.1891E-3	-194.320E-12	651.497E-3	-44.8437E-3
-3.37419E-3	-201.161E-12	609.212E-3	-34.4778E-3	-193.268E-12	652.313E-3	-32.9410E-3
-3.37919E-3	-202.122E-12	656.902E-3	-4.43501E-3	-193.584E-12	678.662E-3	-9.08189E-3
-3.38419E-3	-201.221E-12	715.923E-3	-15.8972E-3	-191.842E-12	696.603E-3	-26.0770E-3
-3.38919E-3	-198.662E-12	718.048E-3	-41.8166E-3	-191.389E-12	658.548E-3	-40.8766E-3
-3.39420E-3	-198.553E-12	705.015E-3	-29.9552E-3	-189.372E-12	616.479E-3	-25.6075E-3
-3.39920E-3	-198.823E-12	692.004E-3	-14.5887E-3	-189.465E-12	624.216E-3	-18.6890E-3
-3.40420E-3	-198.059E-12	709.858E-3	-5.13333E-3	-189.921E-12	645.782E-3	-28.8578E-3
-3.40920E-3	-196.124E-12	745.022E-3	-11.9487E-3	-191.960E-12	645.657E-3	-41.1758E-3
-3.41421E-3	-193.985E-12	727.975E-3	-18.7089E-3	-192.015E-12	655.083E-3	-40.6972E-3
-3.41921E-3	-194.423E-12	683.431E-3	-23.0922E-3	-193.030E-12	685.933E-3	-25.8289E-3
-3.42421E-3	-195.353E-12	664.894E-3	-42.6218E-3	-194.460E-12	689.809E-3	-7.71436E-3
-3.42921E-3	-195.470E-12	665.037E-3	-38.2538E-3	-196.216E-12	683.151E-3	-4.82900E-3
-3.43422E-3	-193.243E-12	659.297E-3	-12.8662E-3	-198.900E-12	690.738E-3	-36.2967E-3
-3.43922E-3	-192.920E-12	653.087E-3	9.25192E-3	-201.327E-12	694.482E-3	-60.2858E-3
-3.44422E-3	-195.088E-12	670.228E-3	8.43237E-3	-203.117E-12	713.885E-3	-9.68557E-3
-3.44922E-3	-197.145E-12	695.152E-3	8.21206E-3	-202.222E-12	735.583E-3	34.7162E-3
-3.45423E-3	-198.730E-12	688.268E-3	12.1633E-3	-203.117E-12	729.862E-3	27.2948E-3
-3.45923E-3	-197.964E-12	665.102E-3	-25.2275E-3	-206.220E-12	722.577E-3	19.4770E-3
-3.46423E-3	-200.607E-12	663.470E-3	-37.9849E-3	-205.940E-12	697.857E-3	3.20616E-3
-3.46923E-3	-202.966E-12	672.335E-3	-4.79334E-3	-205.390E-12	641.513E-3	-9.83355E-3
-3.47424E-3	-204.577E-12	667.113E-3	16.6733E-3	-202.660E-12	617.193E-3	-13.9563E-3
-3.47924E-3	-201.901E-12	669.336E-3	37.1706E-3	-202.392E-12	629.786E-3	-16.5248E-3
-3.48424E-3	-203.419E-12	675.135E-3	32.8329E-3	-202.407E-12	633.653E-3	-23.6999E-3
-3.48924E-3	-206.685E-12	676.498E-3	-11.4141E-3	-200.738E-12	627.656E-3	-33.2525E-3
-3.49425E-3	-207.023E-12	673.012E-3	-33.5049E-3	-198.602E-12	627.011E-3	-18.1096E-3
-3.49925E-3	-204.859E-12	658.700E-3	-18.9556E-3	-200.947E-12	642.957E-3	-23.7066E-3
-3.50425E-3	-203.951E-12	642.283E-3	-8.66146E-3	-199.005E-12	671.057E-3	-52.9614E-3
-3.50925E-3	-203.924E-12	642.164E-3	-3.30554E-3	-197.240E-12	677.606E-3	-51.3189E-3
-3.51426E-3	-204.782E-12	672.206E-3	-913.791E-6	-197.907E-12	650.090E-3	-34.9823E-3
-3.51926E-3	-203.002E-12	684.249E-3	-16.1631E-3	-198.409E-12	624.624E-3	937.029E-6
-3.52426E-3	-198.699E-12	666.877E-3	-1.17294E-3	-198.796E-12	635.762E-3	21.3089E-3
-3.52926E-3	-196.897E-12	640.842E-3	41.0866E-3	-199.836E-12	649.269E-3	556.640E-6
-3.53427E-3	-198.089E-12	605.734E-3	45.9453E-3	-201.822E-12	639.481E-3	8.57737E-3
-3.53927E-3	-199.415E-12	606.164E-3	24.9729E-3	-202.639E-12	630.020E-3	21.2177E-3
-3.54427E-3	-196.477E-12	648.496E-3	12.3083E-3	-203.797E-12	641.907E-3	13.7959E-3
-3.54927E-3	-196.032E-12	675.408E-3	4.47204E-3	-204.859E-12	679.178E-3	31.8266E-3
-3.55428E-3	-196.694E-12	670.611E-3	1.77835E-3	-206.277E-12	707.254E-3	42.0194E-3
-3.55928E-3	-200.255E-12	652.614E-3	200.561E-6	-207.650E-12	704.127E-3	18.3792E-3
-3.56428E-3	-201.663E-12	627.097E-3	2.33097E-3	-208.926E-12	712.037E-3	-11.2840E-3
-3.56928E-3	-203.392E-12	613.428E-3	5.92704E-3	-209.399E-12	727.699E-3	-36.3016E-3
-3.57429E-3	-206.043E-12	624.254E-3	939.515E-6	-208.226E-12	690.636E-3	-28.6657E-3
-3.57929E-3	-208.657E-12	657.297E-3	-10.2498E-3	-209.068E-12	651.756E-3	-6.30164E-3
-3.58429E-3	-209.774E-12	688.677E-3	-20.6706E-3	-209.153E-12	656.745E-3	-2.08263E-3
-3.58929E-3	-210.419E-12	675.482E-3	4.67043E-3	-209.927E-12	663.719E-3	5.86728E-3
-3.59430E-3	-210.332E-12	629.640E-3	38.6669E-3	-207.302E-12	647.338E-3	14.3228E-3
-3.59930E-3	-209.695E-12	597.619E-3	16.1256E-3	-208.229E-12	628.604E-3	9.69425E-3
-3.60430E-3	-210.990E-12	614.161E-3	-28.4327E-3	-205.161E-12	629.702E-3	-4.06163E-3
-3.60930E-3	-210.526E-12	674.220E-3	-27.8584E-3	-205.903E-12	638.535E-3	-11.0035E-3
-3.61431E-3	-206.906E-12	713.922E-3	-11.3415E-3	-204.089E-12	655.363E-3	-5.66360E-3
-3.61931E-3	-206.269E-12	720.821E-3	-14.8736E-3	-203.146E-12	681.237E-3	10.5018E-3
-3.62431E-3	-205.205E-12	716.469E-3	-14.0944E-3	-202.659E-12	682.049E-3	37.0025E-3
-3.62931E-3	-204.283E-12	701.737E-3	-16.9051E-3	-202.746E-12	666.652E-3	40.9707E-3
-3.63432E-3	-201.560E-12	703.779E-3	-30.5103E-3	-203.279E-12	646.956E-3	21.6031E-3
-3.63932E-3	-201.417E-12	719.344E-3	-40.2479E-3	-201.444E-12	612.815E-3	27.5250E-3
-3.64432E-3	-201.114E-12	698.804E-3	-35.7852E-3	-204.037E-12	605.697E-3	24.7847E-3
-3.64932E-3	-203.399E-12	653.995E-3	-23.8396E-3	-205.444E-12	636.809E-3	-16.0303E-3
-3.65433E-3	-206.113E-12	644.641E-3	-26.4224E-3	-207.509E-12	665.245E-3	-13.5387E-3
-3.65933E-3	-207.120E-12	674.405E-3	-33.4552E-3	-205.634E-12	675.079E-3	15.1689E-3
-3.66433E-3	-206.280E-12	706.575E-3	-16.6198E-3	-208.299E-12	671.625E-3	-1.47682E-3
-3.66933E-3	-208.877E-12	690.138E-3	7.37735E-3	-210.364E-12	662.507E-3	-8.71633E-3
-3.67434E-3	-213.417E-12	646.201E-3	13.2147E-3	-210.323E-12	664.090E-3	17.1480E-3
-3.67934E-3	-213.259E-12	663.852E-3	-28.8968E-3	-209.131E-12	679.491E-3	28.8636E-3
-3.68434E-3	-212.723E-12	709.147E-3	-68.0208E-3	-210.103E-12	677.985E-3	7.33513E-3
-3.68934E-3	-213.091E-12	712.808E-3	-29.3752E-3	-212.931E-12	651.147E-3	-13.4063E-3
-3.69435E-3	-214.453E-12	712.555E-3	-8.43304E-3	-211.560E-12	650.407E-3	-14.3181E-3
-3.69935E-3	-214.448E-12	714.955E-3	-42.7885E-3	-209.277E-12	679.042E-3	-26.4019E-3
-3.70435E-3	-214.112E-12	702.628E-3	-34.6890E-3	-207.984E-12	666.904E-3	-35.2606E-3
-3.70935E-3	-211.546E-12	669.942E-3	-7.82564E-3	-209.030E-12	654.603E-3	-10.9986E-3
-3.71436E-3	-209.175E-12	648.278E-3	-6.41888E-3	-210.110E-12	674.701E-3	14.9646E-3
-3.71936E-3	-209.760E-12	681.711E-3	3.88483E-3	-208.003E-12	668.687E-3	18.4562E-3
-3.72436E-3	-210.348E-12	696.484E-3	10.5442E-3	-209.064E-12	658.555E-3	16.8558E-3
-3.72936E-3	-209.631E-12	672.380E-3	16.0767E-3	-209.188E-12	644.333E-3	10.3178E-3
-3.73437E-3	-207.199E-12	675.870E-3	22.6852E-3	-209.890E-12	617.954E-3	-4.28980E-3
-3.73937E-3	-207.109E-12	685.160E-3	-6.11298E-3	-210.286E-12	636.215E-3	-15.5397E-3
-3.74437E-3	-209.197E-12	691.133E-3	-48.3158E-3	-210.651E-12	688.339E-3	-20.5608E-3
-3.74937E-3	-211.837E-12	683.965E-3	-62.6436E-3	-211.791E-12	707.560E-3	-14.9275E-3
-3.75438E-3	-211.461E-12	673.174E-3	-44.9867E-3	-213.608E-12	683.061E-3	-18.2413E-3
-3.75938E-3	-210.745E-12	685.365E-3	-21.5863E-3	-214.901E-12	687.396E-3	-42.3551E-3
-3.76438E-3	-212.816E-12	694.530E-3	-29.5001E-3	-215.226E-12	730.628E-3	-47.7443E-3
-3.76938E-3	-213.951E-12	698.717E-3	-45.5608E-3	-214.859E-12	736.638E-3	-25.8174E-3
-3.77439E-3	-216.605E-12	677.437E-3	-36.1582E-3	-216.419E-12	697.223E-3	-16.2169E-3
-3.77939E-3	-216.963E-12	674.691E-3	-14.7142E-3	-216.912E-12	658.938E-3	-12.5541E-3
-3.78439E-3	-216.661E-12	689.843E-3	14.9513E-3	-218.026E-12	657.419E-3	3.21184E-3
-3.78939E-3	-215.651E-12	672.638E-3	6.28303E-3	-217.529E-12	678.073E-3	11.5997E-3
-3.79440E-3	-217.135E-12	677.648E-3	-30.6224E-3	-218.662E-12	679.854E-3	-17.5475E-3
-3.79940E-3	-217.793E-12	681.709E-3	-43.3383E-3	-217.782E-12	650.847E-3	-45.2124E-3
-3.80440E-3	-216.831E-12	655.254E-3	-49.8328E-3	-216.635E-12	638.274E-3	-20.0963E-3
-3.80940E-3	-215.750E-12	659.130E-3	-56.1840E-3	-215.632E-12	670.171E-3	17.7403E-3
-3.81441E-3	-213.970E-12	690.698E-3	-64.0005E-3	-215.264E-12	702.055E-3	28.1601E-3
-3.81941E-3	-214.284E-12	725.818E-3	-59.5174E-3	-214.530E-12	708.576E-3	-2.35086E-3
-3.82441E-3	-213.378E-12	739.953E-3	-41.9071E-3	-214.640E-12	683.060E-3	-30.8089E-3
-3.82941E-3	-212.899E-12	729.286E-3	-28.0146E-3	-212.978E-12	658.464E-3	-1.52863E-3
-3.83442E-3	-212.330E-12	715.096E-3	-15.0768E-3	-213.634E-12	653.627E-3	2.35013E-3
-3.83942E-3	-213.715E-12	685.569E-3	-1.98763E-3	-213.572E-12	655.571E-3	-47.5170E-3
-3.84442E-3	-213.046E-12	679.318E-3	20.6942E-3	-213.974E-12	660.498E-3	-47.5986E-3
-3.84942E-3	-215.034E-12	704.494E-3	34.7573E-3	-214.529E-12	672.113E-3	-8.26676E-3
-3.85443E-3	-215.733E-12	692.903E-3	21.9849E-3	-214.205E-12	697.637E-3	9.97455E-3
-3.85943E-3	-213.679E-12	669.805E-3	-2.83738E-3	-214.391E-12	685.982E-3	8.78525E-3
-3.86443E-3	-214.812E-12	659.712E-3	-14.1059E-3	-217.144E-12	656.699E-3	6.46547E-3
-3.86943E-3	-217.710E-12	630.779E-3	-16.6871E-3	-218.716E-12	660.118E-3	12.1757E-3
-3.87444E-3	-218.097E-12	619.707E-3	-28.6084E-3	-221.456E-12	646.859E-3	42.2163E-3
-3.87944E-3	-218.366E-12	631.706E-3	-26.1160E-3	-222.469E-12	641.204E-3	64.3222E-3
-3.88444E-3	-219.916E-12	628.541E-3	-16.7411E-3	-220.833E-12	688.296E-3	21.2291E-3
-3.88944E-3	-221.565E-12	648.437E-3	-4.64376E-3	-223.084E-12	734.612E-3	-41.5638E-3
-3.89445E-3	-221.759E-12	687.046E-3	-7.75524E-3	-224.429E-12	734.380E-3	-58.1670E-3
-3.89945E-3	-221.375E-12	694.741E-3	-36.9041E-3	-223.059E-12	698.952E-3	-46.8066E-3
-3.90445E-3	-222.681E-12	697.250E-3	-50.6242E-3	-220.716E-12	664.177E-3	-34.5614E-3
-3.90945E-3	-221.305E-12	680.454E-3	-56.2989E-3	-220.690E-12	652.506E-3	-11.6438E-3
-3.91446E-3	-222.248E-12	682.852E-3	-58.2241E-3	-220.697E-12	655.031E-3	11.0215E-3
-3.91946E-3	-222.961E-12	735.663E-3	-48.7621E-3	-219.767E-12	652.374E-3	-13.9136E-3
-3.92446E-3	-224.158E-12	734.101E-3	-21.8020E-3	-219.394E-12	661.045E-3	-64.2234E-3
-3.92946E-3	-220.583E-12	693.404E-3	-2.24084E-3	-218.788E-12	686.619E-3	-36.6973E-3
-3.93447E-3	-223.006E-12	688.389E-3	-10.7846E-3	-217.968E-12	702.465E-3	41.1226E-3
-3.93947E-3	-223.868E-12	711.921E-3	-16.7012E-3	-219.019E-12	696.966E-3	48.6608E-3
-3.94447E-3	-222.677E-12	755.740E-3	-35.5548E-3	-219.427E-12	677.669E-3	-29.0728E-3
-3.94947E-3	-219.894E-12	778.099E-3	-67.5330E-3	-217.387E-12	660.657E-3	-107.936E-3
-3.95448E-3	-218.921E-12	751.765E-3	-66.6390E-3	-216.600E-12	674.412E-3	-103.188E-3
-3.95948E-3	-218.701E-12	699.503E-3	-46.9502E-3	-219.415E-12	716.762E-3	-55.1801E-3
-3.96448E-3	-218.033E-12	665.886E-3	-34.3306E-3	-220.453E-12	720.670E-3	-54.1507E-3
-3.96948E-3	-219.022E-12	668.225E-3	-17.1679E-3	-221.915E-12	690.617E-3	-57.1488E-3
-3.97449E-3	-218.493E-12	687.690E-3	-22.6953E-3	-222.585E-12	694.201E-3	-34.0281E-3
-3.97949E-3	-221.326E-12	700.517E-3	-28.3826E-3	-224.500E-12	691.203E-3	-32.3830E-3
-3.98449E-3	-223.988E-12	673.499E-3	726.353E-6	-226.515E-12	663.388E-3	-28.1125E-3
-3.98949E-3	-223.570E-12	654.699E-3	12.8176E-3	-227.439E-12	648.008E-3	-20.0688E-3
-3.99450E-3	-223.747E-12	660.126E-3	10.9342E-3	-227.035E-12	639.517E-3	-35.7167E-3
-3.99950E-3	-223.941E-12	640.268E-3	15.8091E-3	-226.904E-12	651.533E-3	-51.2594E-3
-4.00450E-3	-225.647E-12	647.021E-3	-147.723E-6	-225.285E-12	709.860E-3	-31.1391E-3
-4.00950E-3	-225.201E-12	684.882E-3	-31.5405E-3	-225.542E-12	757.186E-3	-4.18150E-3
-4.01451E-3	-228.788E-12	701.161E-3	-45.6943E-3	-224.414E-12	719.976E-3	-5.91286E-3
-4.01951E-3	-227.492E-12	706.064E-3	-46.9458E-3	-227.230E-12	667.950E-3	946.324E-6
-4.02451E-3	-226.447E-12	687.321E-3	-56.3181E-3	-226.627E-12	659.792E-3	-11.6691E-3
-4.02951E-3	-224.768E-12	649.553E-3	-52.0567E-3	-225.639E-12	658.017E-3	-51.1473E-3
-4.03452E-3	-226.869E-12	650.000E-3	-40.3629E-3	-223.273E-12	651.048E-3	-55.1344E-3
-4.03952E-3	-226.187E-12	678.878E-3	-36.1090E-3	-224.664E-12	651.525E-3	-35.7483E-3
-4.04452E-3	-222.248E-12	693.616E-3	-30.3412E-3	-225.508E-12	655.736E-3	-36.9199E-3
-4.04952E-3	-219.457E-12	693.661E-3	-28.8687E-3	-226.247E-12	673.450E-3	-62.3804E-3
-4.05453E-3	-220.498E-12	689.270E-3	-39.5442E-3	-225.248E-12	707.553E-3	-53.4364E-3
-4.05953E-3	-223.396E-12	667.877E-3	-46.4316E-3	-227.223E-12	702.526E-3	-7.21559E-3
-4.06453E-3	-221.677E-12	643.303E-3	-44.9110E-3	-228.773E-12	667.959E-3	-6.42864E-3
-4.06953E-3	-220.854E-12	670.034E-3	-72.2199E-3	-230.272E-12	664.102E-3	-26.8116E-3
-4.07454E-3	-222.128E-12	677.151E-3	-91.5430E-3	-228.744E-12	684.859E-3	-24.6719E-3
-4.07954E-3	-225.189E-12	656.633E-3	-40.5229E-3	-228.301E-12	704.398E-3	-30.3903E-3
-4.08454E-3	-228.303E-12	707.926E-3	25.9533E-3	-230.132E-12	712.589E-3	-37.6107E-3
-4.08954E-3	-228.071E-12	765.711E-3	12.0150E-3	-230.896E-12	708.752E-3	-31.2063E-3
-4.09455E-3	-228.393E-12	747.719E-3	-58.8575E-3	-230.193E-12	697.267E-3	-39.9095E-3
-4.09955E-3	-231.093E-12	695.513E-3	-55.5854E-3	-227.668E-12	681.822E-3	-29.8402E-3
-4.10455E-3	-234.919E-12	683.381E-3	2.78981E-3	-226.746E-12	677.335E-3	23.4612E-3
-4.10955E-3	-234.016E-12	699.887E-3	23.6000E-3	-226.781E-12	687.714E-3	54.3924E-3
-4.11456E-3	-231.790E-12	690.924E-3	11.8179E-3	-226.724E-12	686.221E-3	44.9088E-3
-4.11956E-3	-233.157E-12	693.910E-3	-12.2425E-3	-225.213E-12	677.311E-3	798.192E-6
-4.12456E-3	-233.699E-12	725.983E-3	-40.1238E-3	-223.781E-12	674.594E-3	-34.1936E-3
-4.12956E-3	-231.063E-12	751.979E-3	-68.8810E-3	-225.161E-12	666.720E-3	-9.90941E-3
-4.13457E-3	-228.013E-12	743.001E-3	-85.8536E-3	-225.362E-12	646.485E-3	20.1954E-3
-4.13957E-3	-227.031E-12	697.783E-3	-80.0509E-3	-225.033E-12	636.788E-3	24.8928E-3
-4.14457E-3	-226.612E-12	652.380E-3	-44.2004E-3	-224.232E-12	643.822E-3	8.07133E-3
-4.14957E-3	-226.136E-12	615.296E-3	-10.3133E-3	-226.471E-12	639.160E-3	-27.9189E-3
-4.15458E-3	-222.872E-12	610.651E-3	-5.51985E-3	-226.651E-12	640.563E-3	-37.5977E-3
-4.15958E-3	-222.692E-12	642.028E-3	-22.2134E-3	-229.383E-12	659.998E-3	-5.89267E-3
-4.16458E-3	-223.629E-12	670.324E-3	-48.7364E-3	-229.225E-12	694.345E-3	14.0252E-3
-4.16958E-3	-226.958E-12	690.539E-3	-53.6502E-3	-231.646E-12	725.608E-3	-1.47132E-3
-4.17459E-3	-228.824E-12	695.145E-3	-40.3937E-3	-233.707E-12	715.313E-3	-25.2381E-3
-4.17959E-3	-230.604E-12	682.010E-3	-43.4190E-3	-232.185E-12	670.119E-3	-42.8118E-3
-4.18459E-3	-233.201E-12	649.437E-3	-39.0303E-3	-231.511E-12	625.777E-3	-62.3419E-3
-4.18959E-3	-236.054E-12	621.108E-3	-18.8527E-3	-232.489E-12	636.464E-3	-43.5498E-3
-4.19460E-3	-237.816E-12	633.744E-3	-30.0208E-3	-233.256E-12	681.903E-3	4.81532E-3
-4.19960E-3	-239.955E-12	643.945E-3	-42.2386E-3	-232.358E-12	696.338E-3	6.41003E-3
-4.20460E-3	-240.051E-12	624.923E-3	-29.5704E-3	-232.068E-12	683.444E-3	6.26025E-3
-4.20960E-3	-239.875E-12	622.808E-3	-24.3500E-3	-233.075E-12	640.204E-3	39.8455E-3
-4.21461E-3	-240.386E-12	675.477E-3	-35.8602E-3	-234.415E-12	614.896E-3	66.8829E-3
-4.21961E-3	-239.773E-12	708.303E-3	-49.4783E-3	-231.876E-12	648.160E-3	74.2490E-3
-4.22461E-3	-238.171E-12	671.432E-3	-14.3304E-3	-230.096E-12	677.442E-3	51.6455E-3
-4.22961E-3	-237.041E-12	662.551E-3	30.5986E-3	-230.274E-12	699.059E-3	6.77669E-3
-4.23462E-3	-235.710E-12	679.480E-3	9.85151E-3	-230.743E-12	708.204E-3	-2.88533E-3
-4.23962E-3	-233.715E-12	636.320E-3	-30.6108E-3	-228.738E-12	702.193E-3	22.3436E-3
-4.24462E-3	-232.802E-12	604.083E-3	-50.0239E-3	-228.573E-12	679.403E-3	1.83443E-3
-4.24962E-3	-232.214E-12	608.316E-3	-44.0254E-3	-229.454E-12	643.356E-3	-31.6024E-3
-4.25463E-3	-230.340E-12	594.271E-3	-6.45797E-3	-230.458E-12	665.697E-3	-14.0139E-3
-4.25963E-3	-230.079E-12	597.113E-3	18.0470E-3	-232.866E-12	703.815E-3	2.47373E-3
-4.26463E-3	-230.358E-12	640.802E-3	20.5238E-3	-231.971E-12	689.314E-3	-6.80413E-3
-4.26963E-3	-231.434E-12	677.046E-3	-1.60406E-3	-232.690E-12	669.971E-3	-14.7357E-3
-4.27464E-3	-229.570E-12	671.697E-3	-48.4501E-3	-233.881E-12	674.962E-3	-12.0910E-3
-4.27964E-3	-232.050E-12	672.452E-3	-49.9501E-3	-235.697E-12	685.781E-3	-5.33537E-3
-4.28464E-3	-233.898E-12	679.030E-3	-3.95591E-3	-237.681E-12	687.981E-3	-1.65095E-3
-4.28964E-3	-235.591E-12	670.806E-3	40.6836E-3	-239.809E-12	690.765E-3	-8.00444E-3
-4.29465E-3	-235.469E-12	666.394E-3	42.8540E-3	-241.546E-12	693.783E-3	-14.1505E-3
-4.29965E-3	-235.886E-12	655.105E-3	14.6084E-3	-244.506E-12	695.095E-3	-11.3758E-3
-4.30465E-3	-238.542E-12	665.655E-3	6.64918E-3	-243.845E-12	702.018E-3	12.9242E-3
-4.30965E-3	-240.102E-12	680.112E-3	742.903E-6	-245.365E-12	698.094E-3	21.2195E-3
-4.31466E-3	-239.756E-12	667.117E-3	-11.3005E-3	-246.006E-12	682.162E-3	-6.34308E-3
-4.31966E-3	-237.934E-12	663.400E-3	-4.66335E-3	-245.749E-12	676.619E-3	-22.9994E-3
-4.32466E-3	-238.017E-12	684.065E-3	-2.96177E-3	-243.394E-12	655.326E-3	-32.0639E-3
-4.32966E-3	-240.596E-12	679.598E-3	-8.80543E-3	-242.574E-12	622.932E-3	-43.2141E-3
-4.33467E-3	-240.873E-12	619.556E-3	-9.71774E-3	-243.259E-12	652.783E-3	-36.8781E-3
-4.33967E-3	-238.918E-12	607.616E-3	-38.5078E-3	-241.976E-12	673.613E-3	-3.32371E-3
-4.34467E-3	-237.917E-12	666.121E-3	-68.5196E-3	-241.655E-12	641.114E-3	43.1310E-3
-4.34967E-3	-238.250E-12	664.856E-3	-69.7822E-3	-239.365E-12	629.095E-3	40.7109E-3
-4.35468E-3	-238.069E-12	653.311E-3	-48.5527E-3	-238.951E-12	623.429E-3	26.2943E-3
-4.35968E-3	-237.638E-12	705.792E-3	-26.0519E-3	-238.359E-12	612.071E-3	45.8459E-3
-4.36468E-3	-237.001E-12	708.701E-3	-53.2552E-3	-238.121E-12	627.776E-3	27.7443E-3
-4.36968E-3	-235.776E-12	682.538E-3	-91.9418E-3	-237.972E-12	661.926E-3	-13.0174E-3
-4.37469E-3	-236.380E-12	686.247E-3	-58.7027E-3	-237.383E-12	660.387E-3	-27.1413E-3
-4.37969E-3	-235.918E-12	640.475E-3	-18.9978E-3	-240.098E-12	643.146E-3	-36.8610E-3
-4.38469E-3	-235.343E-12	585.628E-3	-52.4122E-3	-242.173E-12	671.322E-3	-32.0057E-3
-4.38969E-3	-234.676E-12	599.145E-3	-50.8074E-3	-243.774E-12	694.918E-3	-12.1185E-3
-4.39470E-3	-237.886E-12	617.156E-3	22.7469E-3	-243.881E-12	681.602E-3	-23.7604E-3
-4.39970E-3	-238.295E-12	612.181E-3	52.6622E-3	-247.209E-12	650.376E-3	-20.6511E-3
-4.40470E-3	-238.161E-12	645.025E-3	26.2932E-3	-250.287E-12	646.213E-3	-569.275E-6
-4.40970E-3	-239.524E-12	663.754E-3	-2.55912E-3	-250.353E-12	683.938E-3	-31.0598E-3
-4.41471E-3	-241.970E-12	645.278E-3	-4.93029E-3	-247.513E-12	703.737E-3	-78.6054E-3
-4.41971E-3	-246.207E-12	671.512E-3	2.37696E-3	-245.695E-12	672.337E-3	-85.0122E-3
-4.42471E-3	-246.195E-12	703.580E-3	-25.9867E-3	-247.707E-12	627.355E-3	-24.5392E-3
-4.42971E-3	-244.738E-12	691.932E-3	-43.2026E-3	-249.422E-12	646.841E-3	1.16171E-3
-4.43472E-3	-245.621E-12	655.282E-3	-14.8518E-3	-248.354E-12	669.175E-3	-47.3631E-3
-4.43972E-3	-248.827E-12	649.249E-3	15.3133E-3	-243.219E-12	641.260E-3	-29.8169E-3
-4.44472E-3	-247.915E-12	687.263E-3	9.88844E-3	-242.239E-12	627.501E-3	23.5341E-3
-4.44972E-3	-246.158E-12	709.236E-3	-20.2671E-3	-243.402E-12	605.186E-3	8.71116E-3
-4.45473E-3	-247.470E-12	690.414E-3	-18.6285E-3	-243.624E-12	576.249E-3	3.66848E-3
-4.45973E-3	-246.975E-12	655.636E-3	-18.5105E-3	-240.685E-12	603.378E-3	7.22356E-3
-4.46473E-3	-245.378E-12	660.811E-3	-42.1009E-3	-239.661E-12	639.866E-3	-62.1573E-3
-4.46973E-3	-240.709E-12	685.046E-3	-31.6889E-3	-242.193E-12	627.686E-3	-88.9237E-3
-4.47474E-3	-239.743E-12	696.422E-3	-17.0378E-3	-243.756E-12	621.406E-3	-31.6127E-3
-4.47974E-3	-241.970E-12	714.651E-3	-34.9476E-3	-243.654E-12	623.604E-3	1.15649E-3
-4.48474E-3	-242.587E-12	703.619E-3	-29.1087E-3	-242.717E-12	619.367E-3	-11.7007E-3
-4.48974E-3	-241.379E-12	679.991E-3	-15.2298E-3	-245.274E-12	640.656E-3	-41.7820E-3
-4.49475E-3	-241.659E-12	659.146E-3	-9.68706E-3	-247.870E-12	654.254E-3	-37.7747E-3
-4.49975E-3	-245.715E-12	606.875E-3	15.4023E-3	-250.779E-12	676.637E-3	-23.4846E-3
-4.50475E-3	-247.334E-12	600.652E-3	18.8073E-3	-249.792E-12	701.661E-3	-32.3514E-3
-4.50975E-3	-247.176E-12	664.210E-3	-1.75459E-3	-248.173E-12	658.368E-3	-31.3553E-3
-4.51476E-3	-246.913E-12	697.563E-3	-19.3323E-3	-251.608E-12	640.520E-3	-6.95956E-3
-4.51976E-3	-251.015E-12	701.198E-3	-36.0694E-3	-253.207E-12	678.035E-3	-3.28115E-3
-4.52476E-3	-254.039E-12	713.860E-3	-46.8747E-3	-250.445E-12	685.301E-3	-45.7586E-3
-4.52976E-3	-255.284E-12	723.330E-3	-52.4899E-3	-246.259E-12	662.198E-3	-70.0399E-3
-4.53477E-3	-254.599E-12	713.938E-3	-59.8646E-3	-247.292E-12	648.717E-3	-32.7237E-3
-4.53977E-3	-255.191E-12	692.777E-3	-49.2172E-3	-247.256E-12	655.441E-3	-9.20284E-3
-4.54477E-3	-255.572E-12	693.837E-3	-40.4436E-3	-247.378E-12	630.778E-3	-6.25791E-3
-4.54977E-3	-255.503E-12	734.515E-3	-56.8570E-3	-246.091E-12	591.958E-3	693.333E-6
-4.55478E-3	-253.891E-12	776.718E-3	-66.3397E-3	-243.333E-12	579.764E-3	-54.5383E-3
-4.55978E-3	-250.784E-12	741.349E-3	-41.8049E-3	-242.256E-12	610.745E-3	-88.9615E-3
-4.56478E-3	-247.951E-12	633.945E-3	-27.6524E-3	-245.422E-12	664.992E-3	-37.9627E-3
-4.56978E-3	-247.107E-12	603.122E-3	-73.7697E-3	-247.238E-12	663.553E-3	26.7171E-3
-4.57479E-3	-247.550E-12	631.689E-3	-95.7979E-3	-246.422E-12	604.563E-3	75.3154E-3
-4.57979E-3	-244.532E-12	613.212E-3	-70.3419E-3	-245.316E-12	572.817E-3	68.7862E-3
-4.58479E-3	-242.169E-12	620.377E-3	-62.0408E-3	-249.518E-12	603.557E-3	5.03795E-3
-4.58979E-3	-242.824E-12	664.371E-3	-50.1694E-3	-252.316E-12	636.836E-3	-26.7279E-3
-4.59480E-3	-245.830E-12	654.037E-3	-3.60972E-3	-256.794E-12	632.976E-3	13.4426E-3
-4.59980E-3	-247.169E-12	590.869E-3	11.4316E-3	-251.641E-12	632.563E-3	43.7472E-3
-4.60480E-3	-247.119E-12	579.629E-3	-29.5464E-3	-252.362E-12	635.045E-3	14.8610E-3
-4.60980E-3	-249.285E-12	615.267E-3	-33.8120E-3	-256.248E-12	630.009E-3	-16.5917E-3
-4.61481E-3	-254.059E-12	630.483E-3	-7.11119E-3	-260.878E-12	658.253E-3	-29.7164E-3
-4.61981E-3	-256.124E-12	648.272E-3	-9.20288E-3	-257.422E-12	688.192E-3	-28.0271E-3
-4.62481E-3	-254.628E-12	700.670E-3	-28.4031E-3	-255.588E-12	684.912E-3	-1.79440E-3
-4.62981E-3	-255.259E-12	726.847E-3	-45.7736E-3	-255.929E-12	673.921E-3	18.9324E-3
-4.63482E-3	-256.207E-12	707.668E-3	-24.9501E-3	-258.414E-12	656.308E-3	-17.8798E-3
-4.63982E-3	-257.755E-12	710.417E-3	30.1903E-3	-255.846E-12	661.450E-3	-77.5656E-3
-4.64482E-3	-257.234E-12	698.942E-3	35.8091E-3	-252.635E-12	707.207E-3	-99.0102E-3
-4.64982E-3	-256.047E-12	672.769E-3	-19.9017E-3	-251.837E-12	705.800E-3	-92.8350E-3
-4.65483E-3	-253.181E-12	673.162E-3	-52.2049E-3	-252.975E-12	649.006E-3	-54.9896E-3
-4.65983E-3	-253.930E-12	674.415E-3	-33.8290E-3	-251.206E-12	615.552E-3	-14.4494E-3
-4.66483E-3	-253.793E-12	681.936E-3	-20.9776E-3	-250.714E-12	615.534E-3	-18.4130E-3
-4.66983E-3	-249.606E-12	691.650E-3	-25.7346E-3	-246.826E-12	645.594E-3	-26.6780E-3
-4.67484E-3	-248.695E-12	671.360E-3	-20.2330E-3	-247.029E-12	679.879E-3	-34.6361E-3
-4.67984E-3	-248.692E-12	636.599E-3	310.486E-6	-248.076E-12	680.058E-3	-71.5966E-3
-4.68484E-3	-248.238E-12	640.780E-3	9.34057E-3	-248.491E-12	654.851E-3	-85.0869E-3
-4.68984E-3	-247.035E-12	661.564E-3	-23.0630E-3	-248.686E-12	633.355E-3	-29.9875E-3
-4.69485E-3	-246.695E-12	667.421E-3	-62.9481E-3	-248.147E-12	627.911E-3	8.14492E-3
-4.69985E-3	-247.870E-12	666.011E-3	-47.4583E-3	-249.641E-12	614.286E-3	-17.9586E-3
-4.70485E-3	-250.324E-12	659.453E-3	-31.2228E-3	-250.794E-12	601.261E-3	-39.7966E-3
-4.70985E-3	-252.479E-12	653.999E-3	-54.8649E-3	-253.574E-12	639.411E-3	-49.7607E-3
-4.71486E-3	-252.479E-12	653.850E-3	-24.0802E-3	-254.506E-12	672.194E-3	-41.1239E-3
-4.71986E-3	-252.391E-12	641.452E-3	17.6637E-3	-255.288E-12	664.083E-3	-24.5316E-3
-4.72486E-3	-254.586E-12	617.845E-3	-12.7904E-3	-254.908E-12	648.886E-3	-43.2266E-3
-4.72986E-3	-257.707E-12	628.919E-3	-32.8244E-3	-255.813E-12	604.458E-3	-52.8798E-3
-4.73487E-3	-258.515E-12	651.645E-3	-32.9414E-3	-258.023E-12	561.255E-3	-41.6255E-3
-4.73987E-3	-257.714E-12	662.233E-3	-30.0782E-3	-259.502E-12	566.801E-3	-37.2482E-3
-4.74487E-3	-259.445E-12	684.810E-3	3.45459E-3	-258.695E-12	614.013E-3	-19.2952E-3
-4.74988E-3	-260.919E-12	690.464E-3	-11.8046E-3	-256.711E-12	670.459E-3	-13.0075E-3
-4.75488E-3	-260.503E-12	683.468E-3	-59.0735E-3	-255.433E-12	668.222E-3	-23.8586E-3
-4.75988E-3	-259.175E-12	697.185E-3	-46.8417E-3	-254.710E-12	621.985E-3	-15.3799E-3
-4.76488E-3	-259.601E-12	686.726E-3	-25.7563E-3	-255.922E-12	607.764E-3	-471.139E-6
-4.76988E-3	-260.266E-12	679.696E-3	-19.7408E-3	-254.204E-12	623.521E-3	4.52045E-3
-4.77489E-3	-260.593E-12	726.220E-3	-17.4147E-3	-253.233E-12	649.790E-3	-4.81271E-3
-4.77989E-3	-259.942E-12	735.825E-3	6.79068E-3	-251.182E-12	669.914E-3	-13.8042E-3
-4.78489E-3	-258.766E-12	666.082E-3	29.9237E-3	-252.468E-12	649.737E-3	-6.33816E-3
-4.78989E-3	-259.683E-12	629.648E-3	10.0196E-3	-253.384E-12	626.707E-3	-26.8166E-3
-4.79490E-3	-259.192E-12	682.938E-3	-5.18592E-3	-252.374E-12	621.525E-3	-69.1425E-3
-4.79990E-3	-259.189E-12	714.611E-3	-18.7877E-3	-252.396E-12	622.835E-3	-89.9415E-3
-4.80490E-3	-259.274E-12	675.073E-3	-33.1533E-3	-254.519E-12	658.241E-3	-95.8001E-3
-4.80990E-3	-261.554E-12	645.897E-3	-6.30298E-3	-261.084E-12	670.818E-3	-63.1158E-3
-4.81491E-3	-262.071E-12	645.961E-3	5.96955E-3	-259.272E-12	649.342E-3	-33.4415E-3
-4.81991E-3	-261.028E-12	640.745E-3	-8.20755E-3	-260.041E-12	638.847E-3	-50.9553E-3
-4.82491E-3	-259.890E-12	636.780E-3	7.03549E-3	-261.320E-12	616.131E-3	-54.5821E-3
-4.82991E-3	-261.875E-12	653.998E-3	-21.0315E-3	-267.606E-12	617.855E-3	-30.0031E-3
-4.83492E-3	-263.162E-12	663.953E-3	-80.1360E-3	-267.581E-12	675.696E-3	-32.0604E-3
-4.83992E-3	-260.794E-12	626.444E-3	-73.2945E-3	-267.172E-12	702.315E-3	-33.7021E-3
-4.84492E-3	-262.230E-12	591.649E-3	-23.4883E-3	-267.883E-12	666.926E-3	1.08115E-3
-4.84992E-3	-262.205E-12	608.699E-3	-2.22261E-3	-266.879E-12	641.848E-3	-627.372E-6
-4.85493E-3	-263.447E-12	654.430E-3	-22.4947E-3	-267.050E-12	653.256E-3	-31.0182E-3
-4.85993E-3	-262.326E-12	657.335E-3	-39.9641E-3	-266.049E-12	687.434E-3	-26.0221E-3
-4.86493E-3	-261.164E-12	623.517E-3	-43.3013E-3	-264.021E-12	682.939E-3	2.02345E-3
-4.86993E-3	-261.143E-12	618.810E-3	-34.9768E-3	-262.087E-12	637.212E-3	27.2965E-3
-4.87494E-3	-261.622E-12	611.980E-3	-6.86920E-3	-263.401E-12	607.643E-3	31.6568E-3
-4.87994E-3	-259.968E-12	599.139E-3	11.8491E-3	-262.794E-12	639.526E-3	24.4383E-3
-4.88494E-3	-259.766E-12	609.606E-3	-13.0510E-3	-261.411E-12	696.650E-3	8.27124E-3
-4.88995E-3	-259.642E-12	613.644E-3	-30.0365E-3	-260.282E-12	704.134E-3	-9.91762E-3
-4.89495E-3	-259.679E-12	593.321E-3	-40.4757E-3	-260.484E-12	692.282E-3	6.55430E-3
-4.89995E-3	-257.856E-12	632.143E-3	-52.4545E-3	-260.707E-12	659.856E-3	35.3974E-3
-4.90495E-3	-257.285E-12	693.078E-3	-34.0960E-3	-261.231E-12	629.542E-3	36.7393E-3
-4.90995E-3	-259.618E-12	695.751E-3	-43.3982E-3	-265.789E-12	648.084E-3	7.70959E-3
-4.91496E-3	-260.719E-12	698.915E-3	-31.2970E-3	-265.300E-12	657.294E-3	-2.50405E-3
-4.91996E-3	-259.604E-12	689.312E-3	-9.04228E-3	-268.010E-12	655.739E-3	-2.89164E-3
-4.92496E-3	-260.552E-12	654.275E-3	-54.7781E-3	-269.730E-12	668.347E-3	-58.0273E-3
-4.92996E-3	-262.456E-12	628.963E-3	-78.1364E-3	-270.402E-12	682.736E-3	-72.4174E-3
-4.93497E-3	-262.530E-12	630.896E-3	-38.0636E-3	-271.756E-12	715.387E-3	-36.4727E-3
-4.93997E-3	-263.520E-12	660.175E-3	-19.5003E-3	-273.278E-12	715.276E-3	-34.0531E-3
-4.94497E-3	-266.750E-12	670.329E-3	-63.1207E-3	-273.726E-12	670.469E-3	-23.7997E-3
-4.94997E-3	-268.109E-12	660.705E-3	-95.3886E-3	-270.646E-12	654.175E-3	-11.4810E-3
-4.95498E-3	-268.922E-12	663.178E-3	-83.2156E-3	-270.923E-12	648.300E-3	17.5612E-3
-4.95998E-3	-268.290E-12	645.707E-3	-66.4989E-3	-270.201E-12	625.489E-3	61.5503E-3
-4.96498E-3	-269.423E-12	618.401E-3	-48.3963E-3	-270.456E-12	595.235E-3	56.6950E-3
-4.96998E-3	-269.090E-12	639.511E-3	-36.3839E-3	-266.147E-12	596.067E-3	37.1936E-3
-4.97499E-3	-268.199E-12	665.137E-3	-29.1570E-3	-265.932E-12	619.612E-3	-2.61824E-3
-4.97999E-3	-266.306E-12	639.221E-3	-16.4720E-3	-265.776E-12	625.001E-3	-31.5588E-3
-4.98499E-3	-263.301E-12	606.899E-3	1.57936E-3	-262.751E-12	650.906E-3	-27.4817E-3
-4.98999E-3	-262.495E-12	611.767E-3	28.1766E-3	-261.371E-12	690.954E-3	-75.2681E-3
-4.99500E-3	-263.458E-12	655.248E-3	30.9034E-3	-260.774E-12	703.675E-3	-91.2227E-3
-5.00000E-3	-261.844E-12	702.720E-3	14.6022E-3	-261.189E-12	712.070E-3	-26.3978E-3
