Experiment	bias spectroscopy	
Date	19.01.2016 21:13:27	
User		
X (m)	50.6253E-9	
Y (m)	257.63E-9	
Z (m)	-132.62E-9	
Z offset (m)	0E+0	
Settling time (s)	200E-6	
Integration time (s)	5E-3	
Z-Ctrl hold	TRUE	
Final Z (m)	N/A	
Filter type	None	
Order		
Cutoff frq		
Comment01	MnPc/Pb(111)	
Comment02	dz =00pm	
Comment03	7 Sweeps	
Comment04	MagField =0.T	
Comment05	Divider 1:10	
Comment06	Setpoint:5mV,200 pA	
Comment07	Lockin: 50uVrms,5ms,5mV	
Comment08	Gain:9; 912Hz modulation	
Comment09	T=1.06K	
Bias>Bias (V)	5E-3	
Bias>Calibration (V/V)	81.475E-3	
Bias>Offset (V)	1.046E-3	
Bias Spectroscopy>Sweep Start (V)	5E-3	
Bias Spectroscopy>Sweep End (V)	-5E-3	
Bias Spectroscopy>Num Pixel	2000	
Bias Spectroscopy>Z Avg time (s)	500E-3	
Bias Spectroscopy>Z offset (m)	0E+0	
Bias Spectroscopy>1st Settling time (s)	500E-3	
Bias Spectroscopy>Settling time (s)	200E-6	
Bias Spectroscopy>Integration time (s)	5E-3	
Bias Spectroscopy>End Settling time (s)	500E-3	
Bias Spectroscopy>Z control time (s)	500E-3	
Bias Spectroscopy>Max Slew rate (V/s)	Inf	
Bias Spectroscopy>backward sweep	TRUE	
Bias Spectroscopy>Z-controller hold	TRUE	
Bias Spectroscopy>Number of sweeps	7	
Bias Spectroscopy>Channels	Current (A);X% LockIn (V);Y% LockIn (V)	
Bias Spectroscopy>Reset Bias	TRUE	
Bias Spectroscopy>Record final Z	FALSE	
Bias Spectroscopy>Lock-In run	FALSE	
Bias Spectroscopy>Sweep mode	Linear	
Bias Spectroscopy>MultiLine Settings : Segment Start (V), Segment End (V), Settling (s), Integration (s), Steps (xn)	100E-3,3.3E-3,100E-6,10E-3,2500;3.3E-3,-3.3E-3,100E-6,10E-3,10;-3.3E-3,-100E-3,100E-6,10E-3,2500	
Current>Current (A)	200.385E-12	
Current>Calibration (A/V)	999.99900E-12	
Current>Offset (A)	-455.429E-15	
Current>Gain	LN 10^9	
Z-Controller>Z (m)	-132.618E-9	
Z-Controller>Controller name	log Current	
Z-Controller>Controller status	ON	
Z-Controller>Setpoint	200E-12	
Z-Controller>Setpoint unit	A	
Z-Controller>P gain	2.96994E-12	
Z-Controller>I gain	67.0321E-9	
Z-Controller>Time const (s)	44.3062E-6	
Z-Controller>TipLift (m)	0E+0	
Z-Controller>Switch off delay (s)	50E-3	
Current (A)	200.006E-12	
Z (m)	-132.618E-9	

[DATA]
Bias calc (V)	Current (A)	X% LockIn (V)	Y% LockIn (V)	Current [bwd] (A)	X% LockIn [bwd] (V)	Y% LockIn [bwd] (V)
5.00000E-3	200.851E-12	678.667E-3	2.52468E-3	200.366E-12	665.086E-3	-57.6840E-3
4.99500E-3	199.783E-12	695.435E-3	850.053E-6	200.156E-12	682.184E-3	-61.8991E-3
4.98999E-3	198.383E-12	712.689E-3	-1.54843E-3	201.190E-12	723.118E-3	-24.3221E-3
4.98499E-3	198.545E-12	680.961E-3	2.79509E-3	200.210E-12	725.839E-3	-5.16736E-3
4.97999E-3	197.878E-12	640.214E-3	12.3638E-3	198.204E-12	666.053E-3	-24.2535E-3
4.97499E-3	196.513E-12	652.006E-3	22.2991E-3	197.450E-12	634.092E-3	-29.7776E-3
4.96998E-3	195.540E-12	682.692E-3	20.0101E-3	195.528E-12	645.718E-3	-22.4041E-3
4.96498E-3	196.122E-12	689.937E-3	-6.51051E-3	195.242E-12	646.814E-3	-17.9918E-3
4.95998E-3	196.386E-12	706.298E-3	-51.0744E-3	193.869E-12	622.147E-3	-22.5667E-3
4.95498E-3	194.814E-12	715.276E-3	-36.2417E-3	192.567E-12	604.936E-3	-28.7276E-3
4.94997E-3	195.331E-12	668.518E-3	-1.73029E-3	192.101E-12	613.365E-3	-15.8712E-3
4.94497E-3	197.025E-12	635.646E-3	-412.101E-6	193.850E-12	632.963E-3	-9.03389E-3
4.93997E-3	196.809E-12	619.983E-3	20.5372E-3	194.220E-12	653.665E-3	-23.5396E-3
4.93497E-3	196.766E-12	597.696E-3	41.1359E-3	193.983E-12	673.515E-3	-25.7902E-3
4.92996E-3	196.445E-12	616.268E-3	14.8968E-3	194.305E-12	690.120E-3	-26.8707E-3
4.92496E-3	196.587E-12	640.681E-3	-18.1647E-3	195.955E-12	689.432E-3	-28.9094E-3
4.91996E-3	195.993E-12	625.472E-3	-44.1008E-3	196.914E-12	676.743E-3	-23.4296E-3
4.91496E-3	195.741E-12	635.978E-3	-60.5078E-3	196.882E-12	676.059E-3	-33.0935E-3
4.90995E-3	193.265E-12	674.065E-3	-25.2892E-3	196.804E-12	686.685E-3	-34.9483E-3
4.90495E-3	193.036E-12	671.358E-3	11.3006E-3	197.930E-12	688.805E-3	-20.8615E-3
4.89995E-3	192.025E-12	662.741E-3	-15.4405E-3	199.122E-12	686.109E-3	-23.3000E-3
4.89495E-3	190.731E-12	658.522E-3	-35.1848E-3	198.306E-12	671.669E-3	-23.1826E-3
4.88995E-3	190.115E-12	650.914E-3	-21.3744E-3	196.982E-12	647.444E-3	-13.4594E-3
4.88494E-3	189.937E-12	675.190E-3	-14.4759E-3	197.124E-12	632.128E-3	-8.49534E-3
4.87994E-3	188.823E-12	700.887E-3	-2.64547E-3	196.235E-12	617.847E-3	-5.56966E-3
4.87494E-3	187.974E-12	657.127E-3	16.7607E-3	194.423E-12	619.259E-3	-4.75228E-3
4.86993E-3	188.666E-12	592.075E-3	28.2075E-3	192.239E-12	625.957E-3	-10.9410E-3
4.86493E-3	188.811E-12	596.208E-3	9.07548E-3	189.781E-12	618.795E-3	-18.8071E-3
4.85993E-3	189.928E-12	633.710E-3	-13.5192E-3	188.906E-12	625.351E-3	-25.0164E-3
4.85493E-3	190.845E-12	633.386E-3	-22.7433E-3	189.531E-12	636.392E-3	-34.5505E-3
4.84992E-3	191.315E-12	613.579E-3	-26.6164E-3	188.098E-12	640.332E-3	-29.3245E-3
4.84492E-3	191.865E-12	617.270E-3	-17.4363E-3	187.868E-12	653.772E-3	-21.1880E-3
4.83992E-3	193.441E-12	637.658E-3	-20.4925E-3	187.789E-12	670.762E-3	-22.8159E-3
4.83492E-3	193.818E-12	681.207E-3	-24.0585E-3	188.495E-12	688.305E-3	-13.6517E-3
4.82991E-3	192.889E-12	731.345E-3	-23.7472E-3	188.590E-12	689.451E-3	-6.51189E-3
4.82491E-3	193.445E-12	719.888E-3	-33.1825E-3	188.663E-12	652.102E-3	1.21655E-3
4.81991E-3	193.514E-12	674.895E-3	-8.82437E-3	188.500E-12	619.443E-3	17.0301E-3
4.81491E-3	193.055E-12	659.632E-3	14.3018E-3	188.914E-12	632.713E-3	22.6016E-3
4.80990E-3	191.327E-12	649.193E-3	-20.7589E-3	190.433E-12	657.428E-3	22.2599E-3
4.80490E-3	190.909E-12	641.514E-3	-43.5971E-3	191.016E-12	669.470E-3	24.3774E-3
4.79990E-3	190.427E-12	648.836E-3	-7.97001E-3	190.805E-12	679.729E-3	16.5694E-3
4.79490E-3	190.145E-12	643.335E-3	17.5299E-3	191.245E-12	688.990E-3	12.2569E-3
4.78989E-3	187.631E-12	620.084E-3	1.45006E-3	191.479E-12	701.676E-3	23.2537E-3
4.78489E-3	187.896E-12	604.467E-3	5.53002E-3	192.274E-12	707.044E-3	26.0915E-3
4.77989E-3	188.126E-12	613.094E-3	6.13015E-3	191.166E-12	690.619E-3	19.8026E-3
4.77489E-3	188.459E-12	626.861E-3	-22.1794E-3	190.438E-12	664.128E-3	11.6154E-3
4.76988E-3	188.046E-12	620.701E-3	-25.6038E-3	188.744E-12	654.902E-3	2.36254E-3
4.76488E-3	188.080E-12	601.568E-3	-24.5861E-3	189.230E-12	673.326E-3	-145.908E-6
4.75988E-3	189.718E-12	606.306E-3	-45.7390E-3	188.498E-12	708.513E-3	-13.0355E-3
4.75488E-3	189.381E-12	630.100E-3	-60.2173E-3	187.545E-12	735.703E-3	-31.6028E-3
4.74988E-3	189.544E-12	638.295E-3	-34.7960E-3	186.505E-12	727.243E-3	-47.6333E-3
4.74487E-3	188.983E-12	634.965E-3	-5.05626E-3	187.230E-12	689.734E-3	-51.8548E-3
4.73987E-3	188.883E-12	638.438E-3	-13.3436E-3	186.318E-12	637.266E-3	-40.5374E-3
4.73487E-3	188.577E-12	644.660E-3	-30.8440E-3	186.355E-12	613.560E-3	-50.9224E-3
4.72986E-3	188.854E-12	643.833E-3	-28.1998E-3	186.061E-12	635.256E-3	-52.1495E-3
4.72486E-3	187.603E-12	642.385E-3	-29.4149E-3	185.741E-12	667.314E-3	-17.2877E-3
4.71986E-3	185.856E-12	642.732E-3	-51.6404E-3	185.498E-12	681.954E-3	6.16548E-3
4.71486E-3	185.687E-12	647.721E-3	-52.5989E-3	185.664E-12	675.421E-3	8.88044E-3
4.70985E-3	184.916E-12	648.161E-3	-23.3786E-3	186.996E-12	671.021E-3	24.4439E-3
4.70485E-3	185.040E-12	630.234E-3	-7.10011E-3	186.923E-12	672.009E-3	29.2146E-3
4.69985E-3	182.924E-12	605.147E-3	-29.2307E-3	188.311E-12	650.577E-3	3.06969E-3
4.69485E-3	183.025E-12	605.225E-3	-49.5449E-3	188.631E-12	635.734E-3	191.319E-6
4.68984E-3	184.010E-12	633.934E-3	-37.8938E-3	188.987E-12	662.684E-3	14.8467E-3
4.68484E-3	183.226E-12	652.335E-3	-13.6771E-3	189.257E-12	680.423E-3	14.8345E-3
4.67984E-3	182.816E-12	650.620E-3	11.9379E-3	188.806E-12	687.475E-3	8.78891E-3
4.67484E-3	183.674E-12	654.440E-3	5.10887E-3	188.417E-12	690.392E-3	5.76434E-3
4.66983E-3	184.215E-12	668.901E-3	-33.9253E-3	187.229E-12	665.731E-3	-2.83137E-3
4.66483E-3	183.429E-12	668.498E-3	-24.7181E-3	186.765E-12	647.541E-3	-32.4894E-3
4.65983E-3	184.716E-12	650.856E-3	18.0944E-3	185.333E-12	640.631E-3	-40.7822E-3
4.65483E-3	183.960E-12	651.908E-3	25.5185E-3	183.224E-12	652.940E-3	-22.1776E-3
4.64982E-3	184.823E-12	682.015E-3	-2.81496E-3	181.694E-12	684.371E-3	-2.12592E-3
4.64482E-3	184.039E-12	699.201E-3	-47.6923E-3	181.231E-12	683.815E-3	9.25345E-3
4.63982E-3	184.045E-12	693.410E-3	-73.5279E-3	180.545E-12	654.142E-3	-2.77123E-3
4.63482E-3	183.997E-12	683.832E-3	-65.9126E-3	179.363E-12	625.363E-3	1.29770E-3
4.62981E-3	183.998E-12	671.744E-3	-56.4178E-3	179.068E-12	624.579E-3	1.57309E-3
4.62481E-3	183.324E-12	676.916E-3	-61.2959E-3	179.715E-12	642.024E-3	-16.8969E-3
4.61981E-3	182.578E-12	699.090E-3	-40.1702E-3	179.049E-12	652.649E-3	-9.46424E-3
4.61481E-3	182.253E-12	690.641E-3	-10.1485E-3	178.979E-12	663.534E-3	1.72032E-3
4.60980E-3	182.250E-12	659.266E-3	-26.4593E-3	179.545E-12	672.745E-3	-22.9923E-3
4.60480E-3	182.517E-12	661.731E-3	-44.9657E-3	180.877E-12	676.228E-3	-56.1780E-3
4.59980E-3	181.502E-12	670.014E-3	-20.2418E-3	180.637E-12	657.751E-3	-54.2849E-3
4.59480E-3	181.701E-12	653.459E-3	-21.4815E-3	181.738E-12	616.339E-3	-24.9461E-3
4.58979E-3	182.108E-12	668.796E-3	-31.6110E-3	182.027E-12	605.269E-3	-4.97821E-3
4.58479E-3	181.741E-12	692.624E-3	-3.62742E-3	182.393E-12	634.210E-3	6.08112E-3
4.57979E-3	181.441E-12	675.898E-3	-8.39220E-3	182.264E-12	645.414E-3	2.83213E-3
4.57479E-3	181.041E-12	685.464E-3	-24.8221E-3	182.317E-12	647.643E-3	-10.1895E-3
4.56978E-3	180.022E-12	706.772E-3	7.84394E-3	181.894E-12	664.285E-3	-5.75448E-3
4.56478E-3	180.072E-12	681.560E-3	26.6950E-3	179.892E-12	664.965E-3	4.69394E-3
4.55978E-3	179.730E-12	649.157E-3	2.58330E-3	180.183E-12	653.413E-3	-1.52769E-3
4.55478E-3	178.225E-12	614.315E-3	-22.0752E-3	179.951E-12	654.381E-3	-22.1675E-3
4.54977E-3	177.485E-12	597.429E-3	-61.0851E-3	178.301E-12	649.318E-3	-21.6050E-3
4.54477E-3	177.435E-12	635.972E-3	-82.4870E-3	176.933E-12	631.373E-3	-7.15653E-3
4.53977E-3	177.825E-12	685.548E-3	-62.5502E-3	176.445E-12	637.884E-3	-7.23234E-3
4.53477E-3	176.665E-12	689.473E-3	-65.1963E-3	175.112E-12	647.488E-3	-8.08121E-3
4.52976E-3	176.058E-12	670.411E-3	-81.6653E-3	174.523E-12	644.604E-3	-11.2293E-3
4.52476E-3	175.570E-12	668.456E-3	-63.2448E-3	174.022E-12	663.681E-3	-23.6396E-3
4.51976E-3	176.380E-12	675.693E-3	-33.1620E-3	174.127E-12	701.796E-3	-33.0785E-3
4.51476E-3	176.640E-12	686.834E-3	-34.0109E-3	175.203E-12	720.006E-3	-14.0317E-3
4.50975E-3	176.655E-12	686.208E-3	-50.4994E-3	174.826E-12	685.479E-3	15.3173E-3
4.50475E-3	176.590E-12	654.516E-3	-66.8782E-3	174.793E-12	634.995E-3	8.91892E-3
4.49975E-3	177.022E-12	634.841E-3	-79.6597E-3	176.058E-12	615.348E-3	-17.5927E-3
4.49475E-3	177.420E-12	644.902E-3	-52.3067E-3	177.450E-12	648.929E-3	-29.7187E-3
4.48974E-3	178.171E-12	658.646E-3	1.05350E-3	177.895E-12	683.875E-3	-26.2371E-3
4.48474E-3	176.471E-12	669.360E-3	24.7470E-3	179.088E-12	656.046E-3	-31.1526E-3
4.47974E-3	175.567E-12	650.596E-3	15.6618E-3	179.606E-12	636.699E-3	-27.6000E-3
4.47474E-3	175.523E-12	640.807E-3	-7.83340E-3	179.201E-12	679.524E-3	-6.63571E-3
4.46973E-3	174.452E-12	665.264E-3	-8.65900E-3	179.539E-12	715.522E-3	2.50021E-3
4.46473E-3	172.366E-12	683.795E-3	18.2109E-3	179.243E-12	704.508E-3	-4.77185E-3
4.45973E-3	171.420E-12	696.017E-3	19.0153E-3	177.258E-12	697.722E-3	-14.0594E-3
4.45473E-3	172.818E-12	704.082E-3	-12.2634E-3	176.198E-12	683.978E-3	-1.04452E-3
4.44972E-3	171.951E-12	693.288E-3	-19.9420E-3	176.019E-12	655.032E-3	13.7954E-3
4.44472E-3	171.130E-12	666.569E-3	4.88545E-3	175.474E-12	654.228E-3	6.81149E-3
4.43972E-3	171.500E-12	650.358E-3	7.72935E-3	173.079E-12	653.943E-3	6.67785E-3
4.43472E-3	172.272E-12	669.352E-3	-1.60952E-3	171.657E-12	640.896E-3	6.97614E-3
4.42971E-3	174.089E-12	681.083E-3	668.361E-6	171.521E-12	628.195E-3	-3.51013E-3
4.42471E-3	173.629E-12	684.448E-3	-7.98137E-3	171.106E-12	617.576E-3	2.88942E-3
4.41971E-3	174.667E-12	717.671E-3	-17.8970E-3	170.419E-12	629.345E-3	21.1432E-3
4.41471E-3	175.900E-12	710.741E-3	8.08859E-3	170.157E-12	656.059E-3	3.80747E-3
4.40970E-3	176.194E-12	655.979E-3	31.7959E-3	170.352E-12	680.036E-3	-24.0056E-3
4.40470E-3	175.819E-12	631.787E-3	25.4047E-3	169.982E-12	685.556E-3	-21.1111E-3
4.39970E-3	177.398E-12	626.397E-3	25.0232E-3	171.478E-12	666.036E-3	-442.975E-6
4.39470E-3	176.432E-12	625.918E-3	19.1715E-3	171.790E-12	660.806E-3	19.0690E-3
4.38969E-3	175.641E-12	652.091E-3	5.62635E-3	173.584E-12	678.297E-3	18.9844E-3
4.38469E-3	175.631E-12	673.027E-3	-4.49307E-3	173.300E-12	670.680E-3	7.79002E-3
4.37969E-3	174.844E-12	670.379E-3	2.06287E-3	173.608E-12	641.597E-3	-12.3044E-3
4.37469E-3	172.637E-12	679.846E-3	24.8962E-3	173.485E-12	641.554E-3	-34.9339E-3
4.36968E-3	171.949E-12	688.930E-3	15.9382E-3	174.697E-12	660.145E-3	-32.5495E-3
4.36468E-3	171.304E-12	683.658E-3	-9.23148E-3	174.792E-12	656.810E-3	-18.1759E-3
4.35968E-3	170.533E-12	684.439E-3	-9.81307E-3	173.475E-12	638.868E-3	-14.7876E-3
4.35468E-3	169.207E-12	661.906E-3	-25.1897E-3	172.793E-12	636.933E-3	-11.5031E-3
4.34967E-3	168.971E-12	632.673E-3	-65.8355E-3	172.969E-12	644.189E-3	-12.7817E-3
4.34467E-3	170.174E-12	652.627E-3	-72.5690E-3	172.304E-12	634.888E-3	-28.1401E-3
4.33967E-3	170.157E-12	674.262E-3	-32.3158E-3	169.920E-12	630.899E-3	-35.2519E-3
4.33467E-3	170.151E-12	671.570E-3	-17.3870E-3	168.922E-12	659.788E-3	-30.8479E-3
4.32966E-3	170.931E-12	668.487E-3	-43.8204E-3	168.343E-12	678.546E-3	-28.3524E-3
4.32466E-3	171.798E-12	669.643E-3	-51.5220E-3	167.796E-12	653.775E-3	-21.9143E-3
4.31966E-3	170.507E-12	670.222E-3	-49.7847E-3	166.999E-12	623.457E-3	-19.7526E-3
4.31466E-3	170.121E-12	683.565E-3	-38.4873E-3	166.623E-12	626.263E-3	-28.7037E-3
4.30965E-3	169.767E-12	694.116E-3	-14.6253E-3	166.559E-12	661.400E-3	-32.9130E-3
4.30465E-3	169.686E-12	679.056E-3	-7.75867E-3	167.256E-12	686.965E-3	-25.1539E-3
4.29965E-3	168.617E-12	683.102E-3	-4.62563E-3	166.971E-12	684.208E-3	-14.7375E-3
4.29465E-3	167.554E-12	695.422E-3	-6.41531E-3	167.030E-12	680.044E-3	-19.4473E-3
4.28964E-3	166.183E-12	687.439E-3	-14.7072E-3	166.819E-12	678.089E-3	-38.7241E-3
4.28464E-3	165.130E-12	672.385E-3	-3.88954E-3	167.015E-12	676.000E-3	-32.2179E-3
4.27964E-3	164.269E-12	666.063E-3	9.12708E-3	168.256E-12	694.107E-3	-13.3605E-3
4.27464E-3	162.922E-12	664.212E-3	3.46171E-3	168.829E-12	707.057E-3	-26.8147E-3
4.26963E-3	162.347E-12	651.798E-3	-12.6034E-3	167.610E-12	679.981E-3	-45.2253E-3
4.26463E-3	162.310E-12	630.167E-3	-26.9435E-3	168.647E-12	655.332E-3	-54.8855E-3
4.25963E-3	162.390E-12	607.663E-3	-29.7013E-3	169.088E-12	656.915E-3	-65.7644E-3
4.25463E-3	161.756E-12	606.687E-3	-35.0599E-3	167.947E-12	657.350E-3	-58.4855E-3
4.24962E-3	162.869E-12	629.863E-3	-39.3101E-3	166.861E-12	640.341E-3	-39.9001E-3
4.24462E-3	162.916E-12	638.785E-3	-24.9246E-3	166.862E-12	622.841E-3	-26.4236E-3
4.23962E-3	163.837E-12	637.586E-3	-11.2864E-3	165.598E-12	624.602E-3	-6.20094E-3
4.23462E-3	164.765E-12	660.211E-3	-21.9913E-3	165.175E-12	644.357E-3	-2.00175E-3
4.22961E-3	164.477E-12	699.711E-3	-39.0490E-3	164.044E-12	666.889E-3	-23.2810E-3
4.22461E-3	165.465E-12	722.392E-3	-39.5756E-3	163.076E-12	672.089E-3	-33.7220E-3
4.21961E-3	165.762E-12	703.217E-3	-39.4362E-3	161.587E-12	659.006E-3	-26.7501E-3
4.21461E-3	165.675E-12	662.651E-3	-54.0108E-3	161.723E-12	659.027E-3	-18.8644E-3
4.20960E-3	165.251E-12	657.699E-3	-47.2265E-3	160.464E-12	685.456E-3	-12.6146E-3
4.20460E-3	164.839E-12	671.849E-3	-28.5514E-3	159.909E-12	711.975E-3	9.49237E-3
4.19960E-3	164.628E-12	665.774E-3	-38.5756E-3	159.411E-12	704.223E-3	23.4531E-3
4.19460E-3	163.710E-12	667.457E-3	-29.4898E-3	160.030E-12	653.838E-3	-1.33534E-3
4.18959E-3	163.418E-12	674.239E-3	3.53269E-3	159.959E-12	627.041E-3	-41.3864E-3
4.18459E-3	162.729E-12	674.040E-3	13.5953E-3	160.508E-12	649.565E-3	-70.3390E-3
4.17959E-3	163.210E-12	679.420E-3	-9.24526E-3	160.952E-12	672.736E-3	-63.9360E-3
4.17459E-3	162.150E-12	690.185E-3	-27.3247E-3	161.321E-12	683.082E-3	-33.7364E-3
4.16958E-3	162.202E-12	682.593E-3	-18.0312E-3	162.313E-12	684.127E-3	-16.9925E-3
4.16458E-3	162.425E-12	657.764E-3	-20.6262E-3	162.748E-12	670.426E-3	-7.44019E-3
4.15958E-3	161.988E-12	631.680E-3	-29.5360E-3	162.295E-12	650.761E-3	-9.87347E-3
4.15458E-3	161.616E-12	623.354E-3	-42.5243E-3	163.305E-12	637.178E-3	-29.4218E-3
4.14957E-3	162.365E-12	655.317E-3	-61.8161E-3	162.873E-12	625.945E-3	-21.7932E-3
4.14457E-3	161.826E-12	670.335E-3	-44.3555E-3	162.535E-12	615.800E-3	13.8717E-3
4.13957E-3	162.053E-12	640.347E-3	-14.2705E-3	161.799E-12	622.811E-3	25.3235E-3
4.13457E-3	161.953E-12	628.626E-3	-18.9204E-3	161.691E-12	633.187E-3	13.7521E-3
4.12956E-3	161.367E-12	663.900E-3	-22.0331E-3	160.775E-12	628.785E-3	-5.93992E-3
4.12456E-3	161.624E-12	689.757E-3	-1.37374E-3	160.726E-12	631.850E-3	-10.3051E-3
4.11956E-3	160.503E-12	655.173E-3	5.66340E-3	159.497E-12	654.909E-3	26.2169E-3
4.11456E-3	160.435E-12	622.851E-3	-5.72180E-3	158.045E-12	658.408E-3	35.9104E-3
4.10955E-3	159.790E-12	636.861E-3	-27.3324E-3	156.903E-12	643.021E-3	-12.2019E-3
4.10455E-3	158.981E-12	660.569E-3	-36.6411E-3	157.053E-12	653.463E-3	-36.2790E-3
4.09955E-3	159.238E-12	673.573E-3	-24.5899E-3	155.876E-12	664.579E-3	-10.0626E-3
4.09455E-3	159.173E-12	677.029E-3	-20.2052E-3	155.936E-12	647.081E-3	11.5360E-3
4.08954E-3	158.661E-12	677.122E-3	-25.9880E-3	155.809E-12	632.167E-3	14.1857E-3
4.08454E-3	158.714E-12	669.082E-3	-16.9375E-3	156.805E-12	643.409E-3	15.4926E-3
4.07954E-3	158.751E-12	654.021E-3	-2.49541E-3	156.812E-12	656.290E-3	8.22069E-3
4.07454E-3	158.741E-12	642.614E-3	-13.4111E-3	156.600E-12	662.680E-3	-4.36741E-3
4.06953E-3	159.425E-12	645.774E-3	-34.3152E-3	157.445E-12	682.173E-3	-19.7976E-3
4.06453E-3	158.663E-12	667.475E-3	-42.5973E-3	158.531E-12	690.682E-3	-24.3982E-3
4.05953E-3	157.901E-12	671.996E-3	-37.9894E-3	160.431E-12	677.617E-3	4.28939E-3
4.05453E-3	158.135E-12	660.835E-3	-23.6326E-3	160.159E-12	675.961E-3	14.2753E-3
4.04952E-3	158.350E-12	657.758E-3	-27.8202E-3	160.122E-12	680.183E-3	-18.1251E-3
4.04452E-3	156.784E-12	653.501E-3	-45.1421E-3	160.793E-12	691.615E-3	-43.6755E-3
4.03952E-3	155.744E-12	665.969E-3	-30.2783E-3	160.657E-12	697.471E-3	-60.7419E-3
4.03452E-3	155.585E-12	685.158E-3	-8.35963E-3	160.395E-12	666.518E-3	-63.8796E-3
4.02951E-3	155.969E-12	683.902E-3	-11.4719E-3	158.955E-12	652.598E-3	-37.7342E-3
4.02451E-3	155.181E-12	686.641E-3	-17.7555E-3	158.723E-12	675.661E-3	-16.1435E-3
4.01951E-3	155.001E-12	711.219E-3	-13.0417E-3	157.273E-12	683.664E-3	-20.4570E-3
4.01451E-3	154.891E-12	709.473E-3	-22.5937E-3	156.401E-12	667.389E-3	-31.4609E-3
4.00950E-3	154.680E-12	684.257E-3	-34.2613E-3	154.837E-12	650.658E-3	-40.4506E-3
4.00450E-3	154.965E-12	684.074E-3	-19.4105E-3	153.161E-12	663.532E-3	-44.8165E-3
3.99950E-3	154.974E-12	667.379E-3	-10.3701E-3	152.273E-12	681.172E-3	-26.7480E-3
3.99450E-3	154.626E-12	640.808E-3	-500.210E-6	152.950E-12	665.122E-3	-10.2315E-3
3.98949E-3	155.665E-12	636.296E-3	16.9708E-3	152.888E-12	656.495E-3	-19.5249E-3
3.98449E-3	155.857E-12	631.814E-3	11.6143E-3	152.114E-12	669.310E-3	-13.4995E-3
3.97949E-3	157.168E-12	637.253E-3	-3.43927E-3	152.385E-12	682.460E-3	4.13687E-3
3.97449E-3	156.354E-12	652.718E-3	-4.34505E-3	153.731E-12	692.676E-3	5.17280E-3
3.96948E-3	155.780E-12	658.492E-3	-12.9052E-3	153.563E-12	691.742E-3	16.0825E-3
3.96448E-3	155.899E-12	670.713E-3	-25.3223E-3	152.765E-12	677.651E-3	1.30286E-3
3.95948E-3	156.131E-12	694.182E-3	-10.5712E-3	152.798E-12	654.029E-3	-44.8004E-3
3.95448E-3	153.930E-12	691.646E-3	14.4777E-3	153.495E-12	645.678E-3	-56.8793E-3
3.94947E-3	153.339E-12	680.346E-3	912.135E-6	154.610E-12	662.898E-3	-44.9084E-3
3.94447E-3	152.617E-12	681.806E-3	-21.6784E-3	153.869E-12	676.295E-3	-41.6252E-3
3.93947E-3	152.234E-12	673.015E-3	-16.9464E-3	153.380E-12	669.053E-3	-50.6319E-3
3.93447E-3	152.088E-12	675.366E-3	-37.1652E-3	152.945E-12	661.096E-3	-50.9296E-3
3.92946E-3	150.819E-12	686.787E-3	-31.8402E-3	151.888E-12	651.635E-3	-39.2970E-3
3.92446E-3	149.054E-12	668.966E-3	17.8164E-3	150.735E-12	637.191E-3	-24.7436E-3
3.91946E-3	149.305E-12	642.770E-3	19.4135E-3	149.813E-12	642.718E-3	-20.8666E-3
3.91446E-3	148.832E-12	637.388E-3	-11.1698E-3	149.708E-12	649.536E-3	-45.0039E-3
3.90945E-3	148.973E-12	638.070E-3	-22.1557E-3	148.539E-12	645.842E-3	-54.5591E-3
3.90445E-3	149.465E-12	629.916E-3	-26.8553E-3	147.194E-12	657.690E-3	-21.2008E-3
3.89945E-3	149.559E-12	633.882E-3	-19.9361E-3	146.844E-12	665.279E-3	1.11898E-3
3.89445E-3	149.533E-12	650.556E-3	-4.75094E-3	146.602E-12	653.952E-3	-15.6072E-3
3.88944E-3	149.771E-12	654.301E-3	-21.2317E-3	146.397E-12	646.748E-3	-26.6192E-3
3.88444E-3	150.138E-12	660.094E-3	-38.1083E-3	146.509E-12	645.686E-3	-22.2523E-3
3.87944E-3	149.080E-12	659.736E-3	-22.7624E-3	146.679E-12	645.837E-3	-26.9940E-3
3.87444E-3	148.191E-12	647.100E-3	-17.8503E-3	147.322E-12	665.642E-3	-33.5677E-3
3.86943E-3	148.702E-12	629.771E-3	-19.7931E-3	147.803E-12	674.320E-3	-18.1692E-3
3.86443E-3	147.965E-12	604.113E-3	-8.10053E-3	148.145E-12	655.238E-3	-4.34323E-3
3.85943E-3	147.175E-12	612.281E-3	-9.93522E-3	148.561E-12	643.112E-3	-22.6575E-3
3.85443E-3	146.504E-12	655.725E-3	-20.5403E-3	149.342E-12	638.128E-3	-47.5396E-3
3.84942E-3	146.047E-12	679.194E-3	-17.2782E-3	148.353E-12	629.245E-3	-40.3298E-3
3.84442E-3	145.481E-12	676.287E-3	-25.5042E-3	148.010E-12	629.856E-3	-14.0949E-3
3.83942E-3	145.466E-12	667.854E-3	-50.3117E-3	148.389E-12	659.330E-3	-11.3874E-3
3.83442E-3	145.776E-12	650.748E-3	-41.6878E-3	147.789E-12	686.143E-3	256.468E-6
3.82941E-3	145.074E-12	642.079E-3	-12.3910E-3	146.874E-12	670.800E-3	16.8852E-3
3.82441E-3	145.274E-12	662.725E-3	-7.10858E-3	146.560E-12	645.866E-3	3.78943E-3
3.81941E-3	146.563E-12	667.300E-3	-10.0840E-3	146.179E-12	656.248E-3	-5.22897E-3
3.81441E-3	147.226E-12	658.317E-3	-17.4756E-3	145.468E-12	672.264E-3	-18.1991E-3
3.80940E-3	147.804E-12	677.953E-3	-32.5146E-3	145.274E-12	660.190E-3	-47.5388E-3
3.80440E-3	148.304E-12	697.137E-3	-31.5045E-3	145.774E-12	648.545E-3	-42.6967E-3
3.79940E-3	148.974E-12	694.763E-3	-20.0277E-3	145.743E-12	656.739E-3	-10.2841E-3
3.79440E-3	149.262E-12	688.270E-3	-11.2760E-3	145.349E-12	666.761E-3	-9.88069E-3
3.78939E-3	149.505E-12	690.795E-3	-573.512E-6	144.853E-12	668.072E-3	-25.2324E-3
3.78439E-3	148.941E-12	699.475E-3	9.99242E-3	144.386E-12	661.619E-3	-9.93898E-3
3.77939E-3	148.195E-12	708.767E-3	12.0308E-3	144.878E-12	655.235E-3	908.404E-6
3.77439E-3	147.575E-12	693.187E-3	2.95409E-3	144.313E-12	660.785E-3	-28.4759E-3
3.76938E-3	147.176E-12	661.289E-3	-7.60774E-3	143.850E-12	671.045E-3	-58.8985E-3
3.76438E-3	146.995E-12	662.732E-3	363.622E-6	144.282E-12	679.081E-3	-55.5196E-3
3.75938E-3	146.257E-12	675.531E-3	30.1973E-3	144.036E-12	671.180E-3	-35.6046E-3
3.75438E-3	145.682E-12	687.244E-3	23.3120E-3	143.334E-12	660.911E-3	-23.7932E-3
3.74937E-3	145.170E-12	687.288E-3	-10.6014E-3	142.980E-12	675.125E-3	-5.82057E-3
3.74437E-3	145.131E-12	665.636E-3	1.69530E-3	143.515E-12	684.533E-3	-4.10779E-3
3.73937E-3	144.171E-12	655.632E-3	14.3506E-3	143.762E-12	666.690E-3	-31.6122E-3
3.73437E-3	143.817E-12	662.989E-3	86.8618E-6	144.058E-12	658.206E-3	-36.9678E-3
3.72936E-3	143.851E-12	672.975E-3	-15.5101E-3	143.636E-12	682.277E-3	-25.0782E-3
3.72436E-3	143.909E-12	682.357E-3	-48.1674E-3	143.365E-12	686.809E-3	-28.7194E-3
3.71936E-3	142.902E-12	703.060E-3	-68.8323E-3	144.271E-12	652.681E-3	-39.8247E-3
3.71436E-3	142.729E-12	716.813E-3	-45.2347E-3	144.253E-12	634.758E-3	-38.5486E-3
3.70935E-3	142.091E-12	702.641E-3	-21.0206E-3	143.436E-12	649.194E-3	-21.9312E-3
3.70435E-3	142.464E-12	677.388E-3	-21.5030E-3	143.024E-12	666.456E-3	-7.42285E-3
3.69935E-3	141.796E-12	673.191E-3	-16.8004E-3	143.001E-12	658.813E-3	-14.2108E-3
3.69435E-3	140.780E-12	666.189E-3	-21.2372E-3	142.627E-12	655.934E-3	-25.4554E-3
3.68934E-3	139.993E-12	640.331E-3	-45.9662E-3	141.842E-12	673.600E-3	-14.8920E-3
3.68434E-3	140.351E-12	635.027E-3	-48.2831E-3	140.129E-12	672.732E-3	-1.35895E-3
3.67934E-3	139.175E-12	646.853E-3	-27.9120E-3	139.633E-12	647.334E-3	-5.58978E-3
3.67434E-3	138.532E-12	660.166E-3	-20.4933E-3	139.109E-12	649.465E-3	-7.48608E-3
3.66933E-3	138.034E-12	666.332E-3	-21.8312E-3	138.818E-12	675.485E-3	570.966E-6
3.66433E-3	137.942E-12	665.838E-3	-20.5099E-3	137.389E-12	672.208E-3	-8.47691E-3
3.65933E-3	137.788E-12	669.858E-3	-15.4142E-3	137.782E-12	666.240E-3	-28.5746E-3
3.65433E-3	138.373E-12	668.958E-3	-7.06029E-3	137.686E-12	666.582E-3	-24.6069E-3
3.64932E-3	137.600E-12	671.903E-3	672.676E-6	137.892E-12	649.603E-3	-15.0436E-3
3.64432E-3	137.374E-12	683.666E-3	-10.1988E-3	138.062E-12	639.227E-3	-32.0114E-3
3.63932E-3	137.875E-12	679.482E-3	-36.5110E-3	137.759E-12	649.981E-3	-52.0331E-3
3.63432E-3	137.933E-12	658.539E-3	-29.5669E-3	138.029E-12	667.999E-3	-43.8925E-3
3.62931E-3	138.051E-12	640.012E-3	18.0100E-3	139.588E-12	686.468E-3	-6.52608E-3
3.62431E-3	138.098E-12	640.524E-3	36.4101E-3	140.086E-12	689.079E-3	24.8029E-3
3.61931E-3	137.372E-12	658.577E-3	-8.07593E-3	139.503E-12	682.644E-3	7.82606E-3
3.61431E-3	137.202E-12	671.054E-3	-34.6315E-3	139.539E-12	668.987E-3	-21.7312E-3
3.60930E-3	137.511E-12	670.117E-3	-11.8087E-3	139.408E-12	642.821E-3	-16.7567E-3
3.60430E-3	136.569E-12	669.345E-3	14.0764E-3	139.064E-12	633.367E-3	-9.33378E-3
3.59930E-3	135.680E-12	672.997E-3	10.4159E-3	137.771E-12	638.689E-3	-11.1547E-3
3.59430E-3	135.651E-12	666.813E-3	1.50752E-3	135.817E-12	644.207E-3	3.24433E-3
3.58929E-3	135.586E-12	644.096E-3	26.1163E-3	135.418E-12	640.223E-3	8.88118E-3
3.58429E-3	135.181E-12	633.502E-3	29.4084E-3	135.193E-12	624.026E-3	-8.12302E-3
3.57929E-3	135.112E-12	646.079E-3	-14.5838E-3	134.205E-12	621.435E-3	-22.0012E-3
3.57429E-3	135.139E-12	650.429E-3	-51.8675E-3	132.656E-12	637.852E-3	-35.9679E-3
3.56928E-3	135.331E-12	657.884E-3	-65.8406E-3	132.435E-12	653.468E-3	-38.0558E-3
3.56428E-3	135.762E-12	684.296E-3	-56.9333E-3	132.404E-12	668.030E-3	-31.5462E-3
3.55928E-3	135.123E-12	697.335E-3	-40.6981E-3	132.687E-12	688.095E-3	-38.9603E-3
3.55428E-3	135.402E-12	686.818E-3	-36.2220E-3	132.470E-12	691.312E-3	-27.9796E-3
3.54927E-3	135.766E-12	672.421E-3	-23.3488E-3	133.211E-12	673.706E-3	-14.2889E-3
3.54427E-3	135.835E-12	657.090E-3	-8.61070E-3	134.004E-12	653.219E-3	-30.6247E-3
3.53927E-3	135.998E-12	651.283E-3	-20.9300E-3	134.559E-12	651.233E-3	-35.3234E-3
3.53427E-3	135.338E-12	676.080E-3	-35.4784E-3	135.046E-12	664.371E-3	-30.0328E-3
3.52926E-3	135.021E-12	694.005E-3	-24.7889E-3	134.594E-12	675.475E-3	-33.4902E-3
3.52426E-3	135.078E-12	684.486E-3	-8.31370E-3	134.955E-12	687.758E-3	-26.9472E-3
3.51926E-3	134.624E-12	681.178E-3	-6.62033E-3	134.809E-12	688.173E-3	-23.4355E-3
3.51426E-3	133.568E-12	676.395E-3	-7.41200E-3	134.908E-12	677.121E-3	-42.7489E-3
3.50925E-3	132.816E-12	660.055E-3	-4.17603E-3	134.344E-12	676.252E-3	-61.1143E-3
3.50425E-3	132.154E-12	655.959E-3	-3.15372E-3	132.932E-12	687.009E-3	-61.9022E-3
3.49925E-3	131.818E-12	658.883E-3	-2.55250E-3	132.604E-12	695.563E-3	-41.6949E-3
3.49425E-3	131.103E-12	641.710E-3	-1.16497E-3	131.996E-12	695.497E-3	-8.08277E-3
3.48924E-3	130.161E-12	631.541E-3	-802.168E-6	131.376E-12	695.414E-3	-444.423E-6
3.48424E-3	130.653E-12	648.093E-3	-8.20487E-3	130.481E-12	678.804E-3	-4.10597E-3
3.47924E-3	130.553E-12	668.328E-3	-19.4889E-3	130.087E-12	643.272E-3	4.03551E-3
3.47424E-3	130.329E-12	684.458E-3	-26.9840E-3	130.708E-12	644.448E-3	-5.60386E-3
3.46923E-3	130.067E-12	685.304E-3	-24.9415E-3	130.453E-12	665.991E-3	-14.7568E-3
3.46423E-3	130.727E-12	672.359E-3	-27.1074E-3	129.902E-12	672.039E-3	-570.784E-6
3.45923E-3	130.387E-12	672.609E-3	-35.4802E-3	129.986E-12	670.638E-3	10.1888E-3
3.45423E-3	131.114E-12	668.177E-3	-43.1731E-3	131.116E-12	670.461E-3	-9.29041E-3
3.44922E-3	130.663E-12	649.144E-3	-36.4203E-3	131.163E-12	671.728E-3	-34.0760E-3
3.44422E-3	130.639E-12	654.156E-3	-12.6011E-3	131.717E-12	677.131E-3	-30.8368E-3
3.43922E-3	130.296E-12	654.239E-3	-16.0536E-3	131.729E-12	676.706E-3	-29.5519E-3
3.43422E-3	129.867E-12	627.197E-3	-37.7642E-3	131.707E-12	676.308E-3	-35.8406E-3
3.42921E-3	129.603E-12	647.965E-3	-45.7330E-3	132.193E-12	694.452E-3	-35.0365E-3
3.42421E-3	129.309E-12	694.393E-3	-40.4942E-3	131.860E-12	697.410E-3	-24.6098E-3
3.41921E-3	128.681E-12	688.215E-3	-22.5017E-3	132.036E-12	675.823E-3	-17.4442E-3
3.41421E-3	128.360E-12	671.741E-3	-8.94292E-3	130.843E-12	664.516E-3	-17.8393E-3
3.40920E-3	128.452E-12	670.496E-3	-7.07990E-3	130.352E-12	674.928E-3	-19.8918E-3
3.40420E-3	128.146E-12	657.191E-3	-16.7026E-3	130.731E-12	693.837E-3	-28.5898E-3
3.39920E-3	127.130E-12	661.880E-3	-39.3440E-3	130.858E-12	694.000E-3	-41.2322E-3
3.39420E-3	127.753E-12	694.021E-3	-45.4581E-3	128.753E-12	680.590E-3	-35.6037E-3
3.38919E-3	127.544E-12	694.102E-3	-29.5975E-3	128.244E-12	674.966E-3	-24.8606E-3
3.38419E-3	127.574E-12	673.531E-3	-21.8208E-3	128.382E-12	672.830E-3	-43.5310E-3
3.37919E-3	127.336E-12	670.011E-3	-27.1449E-3	128.664E-12	665.867E-3	-56.3919E-3
3.37419E-3	127.757E-12	665.884E-3	-33.6650E-3	127.083E-12	662.979E-3	-32.4727E-3
3.36918E-3	127.387E-12	677.367E-3	-29.0398E-3	126.779E-12	660.635E-3	-13.1953E-3
3.36418E-3	127.898E-12	705.928E-3	-19.7196E-3	126.594E-12	650.222E-3	-25.8602E-3
3.35918E-3	127.667E-12	701.775E-3	-6.76284E-3	126.488E-12	649.515E-3	-38.6064E-3
3.35418E-3	127.041E-12	685.364E-3	1.42241E-3	126.003E-12	658.114E-3	-33.5052E-3
3.34917E-3	127.536E-12	694.795E-3	-5.33895E-3	125.124E-12	660.807E-3	-27.0511E-3
3.34417E-3	127.513E-12	681.952E-3	-11.5617E-3	124.757E-12	654.600E-3	-21.9694E-3
3.33917E-3	127.027E-12	663.939E-3	-20.1840E-3	124.435E-12	651.919E-3	-21.1705E-3
3.33417E-3	126.463E-12	675.262E-3	-31.5466E-3	124.363E-12	648.945E-3	-25.0312E-3
3.32916E-3	125.973E-12	672.103E-3	-28.8112E-3	124.525E-12	638.660E-3	-16.1105E-3
3.32416E-3	125.356E-12	666.052E-3	-22.9101E-3	123.294E-12	647.732E-3	-4.75276E-3
3.31916E-3	124.706E-12	685.259E-3	-9.11628E-3	122.545E-12	676.862E-3	-4.11906E-3
3.31416E-3	123.641E-12	684.983E-3	17.0087E-3	122.722E-12	679.110E-3	1.95305E-3
3.30915E-3	123.036E-12	657.842E-3	16.6090E-3	123.487E-12	658.894E-3	6.17955E-3
3.30415E-3	123.237E-12	664.913E-3	2.36677E-3	122.448E-12	669.391E-3	-7.73937E-3
3.29915E-3	122.698E-12	690.618E-3	2.66071E-3	122.140E-12	682.409E-3	-30.2060E-3
3.29415E-3	122.066E-12	690.075E-3	-7.40294E-3	121.964E-12	665.563E-3	-52.2379E-3
3.28914E-3	121.172E-12	682.717E-3	-13.3690E-3	122.408E-12	664.213E-3	-55.1419E-3
3.28414E-3	121.921E-12	679.591E-3	5.81345E-3	122.123E-12	673.344E-3	-34.7640E-3
3.27914E-3	121.831E-12	673.744E-3	14.0899E-3	121.691E-12	675.564E-3	-28.4054E-3
3.27414E-3	121.641E-12	676.536E-3	-259.609E-6	121.928E-12	683.973E-3	-32.8833E-3
3.26913E-3	121.290E-12	677.602E-3	-21.1032E-3	121.209E-12	685.768E-3	-18.5282E-3
3.26413E-3	121.304E-12	659.420E-3	-33.0707E-3	120.758E-12	679.328E-3	-12.8411E-3
3.25913E-3	120.346E-12	649.078E-3	-29.5427E-3	119.687E-12	660.333E-3	-27.5895E-3
3.25413E-3	120.809E-12	646.873E-3	-19.4250E-3	119.057E-12	638.528E-3	-38.5382E-3
3.24912E-3	120.247E-12	632.071E-3	-21.1102E-3	118.269E-12	635.754E-3	-33.7830E-3
3.24412E-3	119.126E-12	624.357E-3	-28.9088E-3	118.159E-12	643.002E-3	-18.7136E-3
3.23912E-3	119.072E-12	629.230E-3	-22.5942E-3	117.415E-12	650.740E-3	-6.48827E-3
3.23412E-3	119.145E-12	637.787E-3	-16.5314E-3	117.642E-12	651.925E-3	-1.98486E-3
3.22911E-3	118.996E-12	653.567E-3	-18.2923E-3	117.908E-12	655.611E-3	-1.66838E-3
3.22411E-3	118.541E-12	666.791E-3	-19.9032E-3	118.064E-12	662.515E-3	1.62195E-3
3.21911E-3	118.708E-12	659.181E-3	-11.0938E-3	118.115E-12	661.924E-3	-2.73356E-3
3.21411E-3	118.638E-12	649.698E-3	5.33140E-3	118.716E-12	665.548E-3	-22.7981E-3
3.20910E-3	119.141E-12	661.094E-3	13.2934E-3	119.494E-12	677.245E-3	-32.0369E-3
3.20410E-3	118.960E-12	666.962E-3	13.0633E-3	119.741E-12	675.722E-3	-14.7589E-3
3.19910E-3	118.490E-12	673.885E-3	4.01598E-3	120.302E-12	667.186E-3	5.16005E-3
3.19410E-3	118.821E-12	687.627E-3	-3.36939E-3	120.201E-12	674.471E-3	16.5131E-3
3.18909E-3	119.476E-12	682.392E-3	-5.72233E-3	120.425E-12	684.352E-3	13.5669E-3
3.18409E-3	118.909E-12	678.784E-3	-18.1910E-3	121.167E-12	687.831E-3	-8.59824E-6
3.17909E-3	118.412E-12	669.224E-3	-18.7492E-3	120.402E-12	690.556E-3	-3.08872E-3
3.17409E-3	118.615E-12	640.301E-3	-6.85669E-3	120.158E-12	691.261E-3	-11.9498E-3
3.16908E-3	118.793E-12	639.595E-3	-13.7586E-3	119.276E-12	680.200E-3	-33.9284E-3
3.16408E-3	118.166E-12	667.067E-3	-18.1696E-3	118.560E-12	666.315E-3	-38.2805E-3
3.15908E-3	117.216E-12	683.088E-3	-9.28727E-3	117.974E-12	676.082E-3	-14.8637E-3
3.15408E-3	117.038E-12	696.166E-3	-18.2933E-3	117.193E-12	695.188E-3	13.3737E-3
3.14907E-3	117.001E-12	707.059E-3	-30.1195E-3	116.513E-12	691.012E-3	14.4064E-3
3.14407E-3	117.144E-12	699.295E-3	-13.2560E-3	115.628E-12	678.124E-3	-326.250E-6
3.13907E-3	116.296E-12	701.981E-3	-7.35318E-3	115.480E-12	680.359E-3	-3.43678E-3
3.13407E-3	115.376E-12	715.339E-3	-31.1134E-3	115.268E-12	692.583E-3	-7.59868E-3
3.12906E-3	116.171E-12	704.636E-3	-28.5835E-3	115.556E-12	689.968E-3	-18.4307E-3
3.12406E-3	116.431E-12	677.875E-3	-5.37630E-3	115.725E-12	680.392E-3	-30.5163E-3
3.11906E-3	115.975E-12	660.586E-3	3.34552E-3	116.249E-12	677.785E-3	-36.9692E-3
3.11406E-3	115.312E-12	660.481E-3	-5.50187E-3	115.814E-12	673.073E-3	-30.2081E-3
3.10905E-3	115.495E-12	667.266E-3	-34.2706E-3	115.982E-12	674.508E-3	-20.1084E-3
3.10405E-3	115.761E-12	669.121E-3	-41.1730E-3	116.992E-12	675.320E-3	-12.3373E-3
3.09905E-3	115.645E-12	661.554E-3	-13.3070E-3	116.426E-12	675.193E-3	-3.32588E-3
3.09405E-3	115.081E-12	664.457E-3	-2.79632E-3	116.520E-12	690.766E-3	3.63650E-3
3.08904E-3	114.745E-12	683.617E-3	-8.99009E-3	116.241E-12	698.110E-3	2.57710E-3
3.08404E-3	114.293E-12	684.113E-3	-6.20296E-3	115.655E-12	678.759E-3	6.69911E-3
3.07904E-3	113.683E-12	678.246E-3	-550.677E-6	114.960E-12	659.800E-3	15.2613E-3
3.07404E-3	113.287E-12	689.475E-3	-351.903E-6	115.098E-12	656.315E-3	2.82685E-3
3.06903E-3	112.178E-12	689.953E-3	-8.27227E-3	113.789E-12	645.858E-3	-4.87623E-3
3.06403E-3	111.738E-12	688.428E-3	-21.0714E-3	112.810E-12	638.263E-3	-3.71758E-3
3.05903E-3	111.170E-12	688.454E-3	-19.9943E-3	112.586E-12	656.479E-3	-16.8944E-3
3.05403E-3	110.734E-12	669.533E-3	-11.4750E-3	111.282E-12	686.251E-3	-16.2783E-3
3.04902E-3	111.012E-12	662.569E-3	-19.2229E-3	110.593E-12	701.440E-3	-7.92739E-3
3.04402E-3	110.968E-12	669.947E-3	-32.8891E-3	110.249E-12	687.479E-3	-833.897E-6
3.03902E-3	110.600E-12	650.725E-3	-22.0368E-3	110.922E-12	679.917E-3	9.25831E-3
3.03402E-3	111.018E-12	633.081E-3	13.6220E-3	109.906E-12	689.008E-3	1.05323E-3
3.02901E-3	111.517E-12	653.929E-3	46.2860E-3	109.494E-12	685.302E-3	-10.7010E-3
3.02401E-3	111.256E-12	672.224E-3	63.2739E-3	110.257E-12	683.583E-3	-1.18207E-3
3.01901E-3	110.605E-12	666.138E-3	48.3291E-3	110.505E-12	696.896E-3	9.40298E-3
3.01401E-3	110.653E-12	670.121E-3	16.2389E-3	110.619E-12	703.227E-3	-1.64013E-3
3.00900E-3	110.843E-12	678.545E-3	5.16920E-3	110.135E-12	701.426E-3	-29.6734E-3
3.00400E-3	109.951E-12	685.665E-3	-1.85758E-3	110.654E-12	697.728E-3	-40.6762E-3
2.99900E-3	109.508E-12	706.583E-3	-2.40945E-3	110.775E-12	688.389E-3	-19.2170E-3
2.99400E-3	109.666E-12	711.820E-3	11.0055E-3	110.673E-12	682.795E-3	-15.7138E-3
2.98899E-3	109.507E-12	697.080E-3	-7.36068E-3	110.080E-12	670.146E-3	-27.7599E-3
2.98399E-3	108.492E-12	699.560E-3	-30.5920E-3	110.038E-12	662.644E-3	-26.2294E-3
2.97899E-3	108.716E-12	705.716E-3	-24.5319E-3	110.029E-12	687.468E-3	-20.7360E-3
2.97399E-3	108.196E-12	676.243E-3	-25.4835E-3	109.506E-12	701.515E-3	-17.7160E-3
2.96898E-3	108.186E-12	648.342E-3	-35.5843E-3	108.565E-12	675.773E-3	-29.8224E-3
2.96398E-3	108.077E-12	651.508E-3	-38.6311E-3	107.932E-12	648.999E-3	-31.0679E-3
2.95898E-3	107.520E-12	658.480E-3	-44.7343E-3	108.098E-12	651.869E-3	-17.7649E-3
2.95398E-3	108.074E-12	666.770E-3	-51.5999E-3	107.441E-12	673.875E-3	-15.9468E-3
2.94897E-3	108.510E-12	677.288E-3	-27.7103E-3	106.779E-12	686.177E-3	-1.88504E-3
2.94397E-3	108.053E-12	680.267E-3	12.9055E-3	106.229E-12	688.758E-3	18.5930E-3
2.93897E-3	107.943E-12	693.016E-3	20.6436E-3	105.803E-12	677.730E-3	16.0713E-3
2.93397E-3	108.138E-12	727.706E-3	1.25318E-3	106.054E-12	656.498E-3	15.6978E-3
2.92896E-3	108.048E-12	741.122E-3	-25.9199E-3	106.034E-12	656.560E-3	23.0212E-3
2.92396E-3	107.484E-12	728.878E-3	-47.4028E-3	105.225E-12	666.061E-3	10.8951E-3
2.91896E-3	107.475E-12	715.862E-3	-35.1902E-3	104.731E-12	663.604E-3	-7.34477E-3
2.91396E-3	106.874E-12	696.151E-3	-10.5207E-3	105.267E-12	669.499E-3	-15.2879E-3
2.90895E-3	106.394E-12	681.774E-3	-5.59509E-3	105.377E-12	693.726E-3	-19.0287E-3
2.90395E-3	105.961E-12	670.502E-3	9.89184E-3	105.225E-12	709.681E-3	-19.5685E-3
2.89895E-3	105.665E-12	655.294E-3	23.5894E-3	104.855E-12	703.752E-3	-19.1919E-3
2.89395E-3	104.835E-12	661.566E-3	6.69916E-3	104.982E-12	690.172E-3	-15.6057E-3
2.88894E-3	103.786E-12	684.240E-3	-16.4153E-3	105.530E-12	678.181E-3	-13.6197E-3
2.88394E-3	103.588E-12	690.305E-3	-37.4368E-3	105.058E-12	678.618E-3	-16.4877E-3
2.87894E-3	103.896E-12	690.264E-3	-37.6971E-3	104.222E-12	700.935E-3	-15.1602E-3
2.87394E-3	103.218E-12	687.470E-3	-23.3753E-3	104.383E-12	718.535E-3	-7.04722E-3
2.86893E-3	102.717E-12	666.871E-3	-22.9579E-3	104.729E-12	716.899E-3	-7.70621E-3
2.86393E-3	102.635E-12	662.756E-3	-24.2483E-3	104.008E-12	714.890E-3	-22.3931E-3
2.85893E-3	102.868E-12	679.678E-3	-25.9606E-3	103.370E-12	708.210E-3	-33.2572E-3
2.85393E-3	102.472E-12	682.220E-3	-27.2769E-3	102.944E-12	705.788E-3	-35.7499E-3
2.84892E-3	101.994E-12	679.706E-3	-28.8997E-3	103.155E-12	700.894E-3	-28.1844E-3
2.84392E-3	102.185E-12	680.804E-3	-32.2178E-3	102.469E-12	677.988E-3	-25.5692E-3
2.83892E-3	101.883E-12	674.682E-3	-18.5992E-3	102.591E-12	667.392E-3	-35.2736E-3
2.83392E-3	101.844E-12	684.601E-3	-17.9311E-3	102.527E-12	684.610E-3	-35.4852E-3
2.82891E-3	101.656E-12	711.895E-3	-24.1925E-3	101.950E-12	700.172E-3	-15.5157E-3
2.82391E-3	101.558E-12	711.747E-3	-8.56287E-3	101.563E-12	689.394E-3	12.5349E-3
2.81891E-3	100.894E-12	693.110E-3	-19.6908E-3	101.181E-12	677.152E-3	10.4271E-3
2.81391E-3	101.047E-12	686.538E-3	-34.1154E-3	100.882E-12	687.076E-3	-17.0883E-3
2.80890E-3	100.168E-12	672.134E-3	-8.41262E-3	100.916E-12	699.580E-3	-27.1365E-3
2.80390E-3	99.3629E-12	669.737E-3	7.91467E-3	100.566E-12	708.698E-3	-16.9683E-3
2.79890E-3	99.7394E-12	692.445E-3	-5.34980E-3	100.544E-12	712.209E-3	-4.51285E-3
2.79390E-3	99.4288E-12	691.235E-3	-25.4884E-3	100.607E-12	701.680E-3	-11.3294E-3
2.78889E-3	99.2567E-12	690.052E-3	-41.7148E-3	100.823E-12	697.770E-3	-29.1511E-3
2.78389E-3	99.5560E-12	708.734E-3	-49.5002E-3	100.362E-12	708.118E-3	-25.6060E-3
2.77889E-3	99.6612E-12	702.050E-3	-37.9615E-3	100.454E-12	716.920E-3	-3.63657E-3
2.77389E-3	99.7670E-12	678.982E-3	-27.3403E-3	100.821E-12	711.101E-3	8.25167E-3
2.76888E-3	100.096E-12	668.908E-3	-26.9405E-3	100.435E-12	695.120E-3	5.89798E-3
2.76388E-3	99.7503E-12	665.656E-3	-15.4172E-3	100.602E-12	681.105E-3	3.39556E-3
2.75888E-3	100.135E-12	660.704E-3	-11.4966E-3	101.016E-12	685.401E-3	-11.8998E-3
2.75388E-3	99.9161E-12	667.749E-3	-17.7561E-3	100.254E-12	699.850E-3	-29.3264E-3
2.74887E-3	99.6628E-12	678.554E-3	-23.6994E-3	99.6187E-12	690.741E-3	-25.1384E-3
2.74387E-3	99.1631E-12	668.629E-3	-21.4786E-3	99.3645E-12	671.927E-3	-18.7975E-3
2.73887E-3	99.2225E-12	674.191E-3	-10.5857E-3	98.8919E-12	676.876E-3	-23.3455E-3
2.73387E-3	99.0894E-12	697.379E-3	-12.3451E-3	97.6428E-12	690.939E-3	-26.1135E-3
2.72886E-3	97.9019E-12	692.874E-3	-27.6245E-3	96.9533E-12	693.648E-3	-25.9661E-3
2.72386E-3	98.1020E-12	676.885E-3	-45.4935E-3	96.3762E-12	690.231E-3	-25.2335E-3
2.71886E-3	97.8781E-12	675.566E-3	-45.7943E-3	95.7843E-12	692.351E-3	-16.0582E-3
2.71386E-3	97.5629E-12	680.490E-3	-35.0481E-3	95.2697E-12	693.286E-3	-7.65925E-3
2.70885E-3	96.2168E-12	689.586E-3	-31.3683E-3	94.7632E-12	683.245E-3	-4.86827E-3
2.70385E-3	96.2166E-12	704.015E-3	-16.3083E-3	94.3420E-12	680.502E-3	-930.167E-6
2.69885E-3	95.5279E-12	714.298E-3	-2.90570E-3	94.4892E-12	693.832E-3	758.475E-6
2.69385E-3	96.0626E-12	717.415E-3	-415.414E-6	94.4757E-12	707.030E-3	3.71590E-3
2.68884E-3	95.6396E-12	715.593E-3	9.42804E-3	94.2412E-12	703.056E-3	8.01893E-3
2.68384E-3	95.0809E-12	713.793E-3	-8.42540E-3	94.5776E-12	692.387E-3	828.683E-6
2.67884E-3	94.9045E-12	725.835E-3	-37.8234E-3	94.6678E-12	693.058E-3	-10.1294E-3
2.67384E-3	95.1225E-12	734.820E-3	-17.7772E-3	94.8741E-12	690.451E-3	-15.3765E-3
2.66883E-3	94.4203E-12	712.737E-3	9.49182E-3	95.0496E-12	686.265E-3	-17.8561E-3
2.66383E-3	94.2059E-12	699.198E-3	-4.01870E-3	94.7232E-12	692.165E-3	-17.3297E-3
2.65883E-3	93.6192E-12	695.510E-3	-22.9976E-3	94.4455E-12	702.109E-3	-12.5371E-3
2.65383E-3	92.9590E-12	679.228E-3	-23.1680E-3	94.3281E-12	713.689E-3	-7.65932E-3
2.64882E-3	92.8676E-12	682.856E-3	-25.3809E-3	94.2908E-12	715.890E-3	-9.03765E-3
2.64382E-3	92.6441E-12	700.456E-3	-21.9124E-3	93.5952E-12	695.796E-3	-8.73479E-3
2.63882E-3	91.9992E-12	702.022E-3	-7.83922E-3	92.6038E-12	680.149E-3	-12.8867E-3
2.63382E-3	91.7285E-12	703.720E-3	-3.71367E-3	92.3629E-12	690.247E-3	-33.2174E-3
2.62881E-3	91.4725E-12	722.087E-3	-19.4633E-3	91.6234E-12	692.790E-3	-43.6362E-3
2.62381E-3	91.4301E-12	726.135E-3	-40.5694E-3	91.4303E-12	684.459E-3	-32.3103E-3
2.61881E-3	90.9466E-12	714.919E-3	-43.0745E-3	90.4792E-12	691.569E-3	-29.2766E-3
2.61381E-3	90.2831E-12	710.849E-3	-34.2486E-3	90.1322E-12	711.464E-3	-36.9698E-3
2.60880E-3	89.9849E-12	700.558E-3	-32.0703E-3	89.8284E-12	721.100E-3	-32.9259E-3
2.60380E-3	90.2304E-12	687.393E-3	-38.1112E-3	89.9160E-12	720.437E-3	-28.4897E-3
2.59880E-3	89.8236E-12	687.898E-3	-20.8893E-3	89.9408E-12	728.695E-3	-34.5164E-3
2.59380E-3	89.6117E-12	691.801E-3	11.1187E-3	90.0587E-12	733.851E-3	-35.5112E-3
2.58879E-3	89.4380E-12	699.757E-3	8.29136E-3	90.4399E-12	717.730E-3	-28.7191E-3
2.58379E-3	89.4454E-12	709.993E-3	-15.8928E-3	90.4966E-12	711.545E-3	-15.4555E-3
2.57879E-3	89.2803E-12	709.042E-3	-25.2313E-3	91.1097E-12	731.022E-3	-7.19552E-3
2.57379E-3	88.9226E-12	708.002E-3	-22.4374E-3	91.2708E-12	746.797E-3	-1.94629E-3
2.56878E-3	88.8190E-12	708.868E-3	-23.7979E-3	91.2091E-12	740.369E-3	5.47835E-3
2.56378E-3	88.2659E-12	707.995E-3	-25.3299E-3	91.2423E-12	723.988E-3	-5.28675E-3
2.55878E-3	88.1931E-12	723.133E-3	-19.0706E-3	91.5388E-12	711.860E-3	-19.1916E-3
2.55378E-3	88.3514E-12	732.402E-3	-12.2351E-3	91.0870E-12	713.184E-3	-23.5405E-3
2.54877E-3	88.2265E-12	711.793E-3	-9.35165E-3	90.6889E-12	731.108E-3	-23.9508E-3
2.54377E-3	88.3879E-12	708.191E-3	-18.2881E-3	89.9718E-12	739.084E-3	-24.1107E-3
2.53877E-3	88.2254E-12	725.912E-3	-25.7790E-3	89.4890E-12	719.024E-3	-33.9651E-3
2.53377E-3	87.9520E-12	715.282E-3	-9.46143E-3	89.0725E-12	694.773E-3	-39.2386E-3
2.52876E-3	88.0502E-12	699.093E-3	5.13816E-3	88.7157E-12	688.766E-3	-37.4463E-3
2.52376E-3	87.9731E-12	696.349E-3	-4.57699E-3	88.0939E-12	703.457E-3	-31.7240E-3
2.51876E-3	88.3530E-12	694.405E-3	-26.5451E-3	87.4378E-12	713.338E-3	-32.5242E-3
2.51376E-3	87.9440E-12	691.637E-3	-49.3815E-3	87.0013E-12	712.668E-3	-40.5739E-3
2.50875E-3	87.8101E-12	707.123E-3	-51.6048E-3	86.6045E-12	726.292E-3	-26.5041E-3
2.50375E-3	87.8283E-12	735.664E-3	-17.9424E-3	86.2512E-12	739.303E-3	2.37500E-3
2.49875E-3	87.4541E-12	735.945E-3	16.1542E-3	86.1413E-12	738.673E-3	5.15137E-3
2.49375E-3	87.2244E-12	730.430E-3	14.5188E-3	85.9833E-12	731.447E-3	-24.4940E-3
2.48874E-3	86.7508E-12	730.182E-3	-4.70210E-3	86.1641E-12	717.864E-3	-41.4046E-3
2.48374E-3	86.3590E-12	722.862E-3	-15.9796E-3	86.0884E-12	711.272E-3	-37.2991E-3
2.47874E-3	85.7516E-12	727.818E-3	-14.9795E-3	86.1279E-12	723.967E-3	-33.0309E-3
2.47374E-3	85.5621E-12	733.163E-3	-8.07075E-3	85.7003E-12	734.368E-3	-23.8635E-3
2.46873E-3	85.1154E-12	718.646E-3	-9.89631E-3	85.7822E-12	738.637E-3	-5.40699E-3
2.46373E-3	84.9470E-12	717.219E-3	-11.4250E-3	85.5049E-12	746.047E-3	559.876E-6
2.45873E-3	84.3582E-12	729.022E-3	-14.2699E-3	85.2384E-12	731.147E-3	-14.7847E-3
2.45373E-3	83.7684E-12	725.968E-3	-24.5085E-3	84.5724E-12	696.330E-3	-20.4717E-3
2.44872E-3	83.7690E-12	728.958E-3	-29.7467E-3	84.6339E-12	684.240E-3	-7.66468E-3
2.44372E-3	83.2774E-12	738.079E-3	-24.6395E-3	84.4160E-12	697.501E-3	-4.97237E-3
2.43872E-3	83.1793E-12	731.866E-3	-20.4251E-3	83.8114E-12	715.216E-3	-14.3858E-3
2.43372E-3	83.0251E-12	722.274E-3	-25.1579E-3	83.2649E-12	724.802E-3	-14.0757E-3
2.42871E-3	83.0550E-12	717.992E-3	-13.3081E-3	83.1823E-12	726.791E-3	-8.48397E-3
2.42371E-3	82.8640E-12	714.429E-3	636.902E-6	82.4458E-12	733.734E-3	-7.07263E-3
2.41871E-3	82.8886E-12	718.380E-3	-10.3822E-3	82.0907E-12	746.941E-3	-13.0107E-3
2.41371E-3	82.8099E-12	714.666E-3	-23.4722E-3	81.9962E-12	745.194E-3	-22.7935E-3
2.40870E-3	82.7013E-12	697.889E-3	-26.5369E-3	81.4360E-12	736.421E-3	-25.7201E-3
2.40370E-3	82.9716E-12	704.937E-3	-27.8825E-3	81.0427E-12	736.427E-3	-21.9465E-3
2.39870E-3	82.3739E-12	721.624E-3	-31.2098E-3	80.8162E-12	725.685E-3	-19.8153E-3
2.39370E-3	81.8734E-12	720.366E-3	-30.9797E-3	80.9229E-12	711.720E-3	-11.2016E-3
2.38869E-3	81.6995E-12	724.394E-3	-21.4831E-3	80.4955E-12	723.615E-3	252.965E-6
2.38369E-3	81.3758E-12	736.743E-3	-10.8813E-3	80.2740E-12	735.238E-3	-6.10668E-3
2.37869E-3	80.4856E-12	753.633E-3	-3.39401E-3	79.9697E-12	727.759E-3	-20.8111E-3
2.37369E-3	80.4919E-12	768.095E-3	-4.39697E-3	80.1847E-12	731.996E-3	-18.0256E-3
2.36868E-3	80.4591E-12	762.395E-3	-8.92716E-3	80.1807E-12	748.246E-3	-6.35894E-3
2.36368E-3	80.2686E-12	735.011E-3	-12.1201E-3	79.9758E-12	753.633E-3	-15.0086E-3
2.35868E-3	79.9581E-12	710.191E-3	-23.7759E-3	80.1086E-12	746.374E-3	-30.3119E-3
2.35368E-3	80.0440E-12	711.593E-3	-20.9048E-3	80.2496E-12	735.750E-3	-29.0195E-3
2.34867E-3	79.4880E-12	724.298E-3	-10.7514E-3	80.1736E-12	721.369E-3	-19.8070E-3
2.34367E-3	79.0459E-12	729.673E-3	-17.5728E-3	80.0810E-12	719.861E-3	-18.0481E-3
2.33867E-3	79.2341E-12	726.049E-3	-15.2587E-3	79.8720E-12	736.491E-3	-21.1349E-3
2.33367E-3	79.1354E-12	732.105E-3	-20.6522E-3	79.4050E-12	740.406E-3	-25.2207E-3
2.32866E-3	78.7301E-12	747.590E-3	-39.8924E-3	79.3751E-12	724.348E-3	-32.4551E-3
2.32366E-3	78.6250E-12	751.687E-3	-29.8187E-3	79.0915E-12	712.587E-3	-35.2376E-3
2.31866E-3	78.7279E-12	733.868E-3	-6.69189E-3	78.3603E-12	727.693E-3	-24.2784E-3
2.31366E-3	78.5685E-12	721.272E-3	-7.97426E-3	77.5111E-12	746.242E-3	-10.9927E-3
2.30865E-3	77.9861E-12	726.633E-3	-26.6077E-3	77.0257E-12	733.063E-3	-14.0490E-3
2.30365E-3	78.0106E-12	728.249E-3	-39.5340E-3	76.9342E-12	708.014E-3	-21.2431E-3
2.29865E-3	77.3080E-12	730.834E-3	-34.9870E-3	76.1481E-12	706.087E-3	-31.3100E-3
2.29365E-3	76.9584E-12	742.527E-3	-19.3878E-3	75.4126E-12	721.728E-3	-47.2701E-3
2.28864E-3	76.8109E-12	738.707E-3	-16.0864E-3	75.1924E-12	727.299E-3	-40.0936E-3
2.28364E-3	76.5305E-12	717.337E-3	-29.3607E-3	75.1837E-12	729.039E-3	-7.23938E-3
2.27864E-3	75.8045E-12	715.649E-3	-39.5963E-3	74.0953E-12	738.211E-3	12.7106E-3
2.27364E-3	75.6974E-12	730.215E-3	-37.3471E-3	73.6888E-12	739.482E-3	-2.41948E-3
2.26863E-3	75.0246E-12	750.239E-3	-36.7250E-3	73.8348E-12	741.476E-3	-15.9169E-3
2.26363E-3	74.8095E-12	766.442E-3	-40.1584E-3	73.9262E-12	749.462E-3	-14.7092E-3
2.25863E-3	74.4828E-12	752.312E-3	-34.5306E-3	73.5040E-12	750.116E-3	-25.4531E-3
2.25363E-3	74.3189E-12	737.852E-3	-25.8703E-3	73.6919E-12	745.974E-3	-29.6008E-3
2.24862E-3	73.7380E-12	755.045E-3	-20.0865E-3	74.1107E-12	735.762E-3	-19.4462E-3
2.24362E-3	73.2720E-12	771.856E-3	-11.1134E-3	73.7608E-12	732.088E-3	-2.61636E-3
2.23862E-3	73.1140E-12	750.292E-3	-6.53796E-3	73.4866E-12	753.460E-3	8.54099E-3
2.23362E-3	73.1202E-12	732.115E-3	-13.1186E-3	73.6254E-12	770.492E-3	-806.064E-6
2.22861E-3	73.2731E-12	751.612E-3	-21.1986E-3	73.5302E-12	753.706E-3	-19.1632E-3
2.22361E-3	72.8131E-12	768.913E-3	-29.4367E-3	73.0766E-12	734.630E-3	-31.3929E-3
2.21861E-3	72.3219E-12	775.391E-3	-25.6948E-3	72.6545E-12	729.241E-3	-20.3982E-3
2.21361E-3	72.3967E-12	775.559E-3	-9.32253E-3	72.3507E-12	721.232E-3	-5.51304E-3
2.20860E-3	72.3292E-12	752.765E-3	-9.17528E-3	71.6305E-12	728.368E-3	-11.9897E-3
2.20360E-3	71.6965E-12	729.907E-3	-23.6975E-3	71.1573E-12	761.996E-3	-33.7969E-3
2.19860E-3	71.5758E-12	722.301E-3	-25.4019E-3	70.9930E-12	781.926E-3	-48.6060E-3
2.19360E-3	71.8489E-12	720.002E-3	-22.6073E-3	70.7151E-12	769.637E-3	-39.4183E-3
2.18859E-3	71.4875E-12	735.382E-3	-24.1249E-3	69.8743E-12	750.318E-3	-36.5194E-3
2.18359E-3	71.3548E-12	748.320E-3	-15.7899E-3	69.5199E-12	739.580E-3	-47.5931E-3
2.17859E-3	70.7721E-12	742.036E-3	-17.7622E-3	70.0819E-12	754.383E-3	-37.2652E-3
2.17359E-3	70.7969E-12	751.952E-3	-32.2301E-3	70.0006E-12	782.025E-3	-14.7594E-3
2.16858E-3	70.6946E-12	764.079E-3	-38.6054E-3	69.5577E-12	781.151E-3	-4.15427E-3
2.16358E-3	70.1879E-12	758.046E-3	-30.7576E-3	69.6370E-12	769.482E-3	9.58306E-3
2.15858E-3	69.9138E-12	770.972E-3	-14.2092E-3	70.0934E-12	773.854E-3	14.3951E-3
2.15358E-3	69.8131E-12	788.462E-3	-4.94939E-3	70.4262E-12	772.879E-3	-7.89644E-3
2.14857E-3	69.1854E-12	781.302E-3	-10.2152E-3	70.1484E-12	777.440E-3	-16.6038E-3
2.14357E-3	68.8219E-12	773.890E-3	-15.9694E-3	69.7808E-12	800.741E-3	-6.71964E-3
2.13857E-3	68.5307E-12	783.877E-3	-6.99977E-3	69.9630E-12	813.748E-3	-14.8626E-3
2.13357E-3	68.2416E-12	786.593E-3	-9.72559E-3	70.3691E-12	816.532E-3	-23.8838E-3
2.12856E-3	68.1578E-12	781.299E-3	-18.4404E-3	69.9494E-12	827.293E-3	-18.9223E-3
2.12356E-3	67.7175E-12	778.067E-3	-11.0427E-3	69.6011E-12	826.395E-3	-24.3604E-3
2.11856E-3	67.7232E-12	765.148E-3	-4.09123E-3	69.1113E-12	800.049E-3	-25.8375E-3
2.11356E-3	67.7619E-12	766.846E-3	-10.5350E-3	68.6912E-12	772.575E-3	-9.31154E-3
2.10855E-3	67.3016E-12	777.288E-3	-11.7449E-3	68.1330E-12	762.054E-3	-3.45223E-3
2.10355E-3	67.1623E-12	767.919E-3	-2.57115E-3	67.4636E-12	769.241E-3	-9.07869E-3
2.09855E-3	67.4616E-12	765.087E-3	-15.2585E-3	66.4900E-12	777.706E-3	-7.61169E-3
2.09355E-3	67.0396E-12	782.695E-3	-27.3779E-3	65.9382E-12	770.264E-3	-16.0896E-3
2.08854E-3	66.5198E-12	787.201E-3	-17.3041E-3	65.7708E-12	746.390E-3	-34.1034E-3
2.08354E-3	66.2874E-12	779.686E-3	-14.6682E-3	65.4075E-12	744.917E-3	-26.7909E-3
2.07854E-3	66.3065E-12	781.359E-3	-8.68722E-3	64.3541E-12	782.203E-3	-12.7798E-3
2.07354E-3	66.0146E-12	778.945E-3	1.13131E-3	64.3163E-12	794.985E-3	-21.2866E-3
2.06853E-3	65.3988E-12	777.425E-3	-13.9288E-3	64.1555E-12	783.275E-3	-28.9197E-3
2.06353E-3	64.9413E-12	791.777E-3	-19.1127E-3	64.5103E-12	783.544E-3	-27.9643E-3
2.05853E-3	65.0485E-12	805.576E-3	-3.96767E-3	64.1319E-12	789.969E-3	-13.5470E-3
2.05353E-3	64.3555E-12	814.871E-3	-14.0233E-3	63.7965E-12	795.796E-3	9.67946E-3
2.04852E-3	63.8797E-12	818.191E-3	-23.6140E-3	63.7383E-12	801.953E-3	17.9573E-3
2.04352E-3	63.2898E-12	799.602E-3	248.814E-6	64.0728E-12	813.263E-3	16.8528E-3
2.03852E-3	62.8873E-12	784.170E-3	10.2833E-3	64.0921E-12	828.184E-3	2.80743E-3
2.03352E-3	62.8626E-12	796.786E-3	-1.34198E-3	63.7978E-12	836.100E-3	-17.6205E-3
2.02851E-3	62.5989E-12	814.595E-3	2.31722E-3	63.7211E-12	824.745E-3	-26.3931E-3
2.02351E-3	61.9559E-12	808.134E-3	2.97196E-3	63.4368E-12	808.125E-3	-29.1934E-3
2.01851E-3	61.7648E-12	792.072E-3	-315.447E-6	62.8798E-12	804.897E-3	-35.7674E-3
2.01351E-3	61.7243E-12	779.443E-3	2.59583E-3	62.6047E-12	806.078E-3	-35.0378E-3
2.00850E-3	61.4025E-12	767.198E-3	-14.0862E-3	62.2205E-12	807.042E-3	-29.5807E-3
2.00350E-3	61.2935E-12	782.110E-3	-39.9549E-3	61.4989E-12	802.386E-3	-32.4488E-3
1.99850E-3	61.0297E-12	811.082E-3	-35.6624E-3	61.0993E-12	792.457E-3	-30.8296E-3
1.99350E-3	61.2402E-12	814.637E-3	-12.5890E-3	60.7321E-12	796.685E-3	-21.3660E-3
1.98849E-3	60.9124E-12	814.399E-3	-2.73429E-3	59.9820E-12	808.838E-3	-4.49380E-3
1.98349E-3	60.7119E-12	823.449E-3	-6.35064E-3	59.6001E-12	812.153E-3	3.81120E-3
1.97849E-3	60.4654E-12	819.912E-3	-13.7116E-3	59.6532E-12	812.403E-3	-6.92519E-3
1.97349E-3	60.4344E-12	811.479E-3	-20.4452E-3	59.6454E-12	819.078E-3	-16.4355E-3
1.96848E-3	59.9422E-12	807.062E-3	-27.0140E-3	59.3248E-12	820.463E-3	-15.4672E-3
1.96348E-3	59.7866E-12	815.529E-3	-28.8889E-3	59.0028E-12	811.721E-3	-16.4890E-3
1.95848E-3	59.3120E-12	833.385E-3	-23.7067E-3	59.0259E-12	814.763E-3	-26.8454E-3
1.95348E-3	59.0195E-12	831.893E-3	-14.3804E-3	58.9150E-12	817.185E-3	-35.9383E-3
1.94847E-3	58.9515E-12	819.218E-3	-14.2969E-3	58.9162E-12	821.268E-3	-26.0958E-3
1.94347E-3	58.5586E-12	823.648E-3	-21.2888E-3	58.6953E-12	845.096E-3	-6.22486E-3
1.93847E-3	58.1841E-12	829.306E-3	-21.5337E-3	58.6911E-12	853.660E-3	-6.26854E-3
1.93347E-3	57.8230E-12	830.104E-3	-8.76393E-3	58.7182E-12	843.401E-3	-15.6007E-3
1.92846E-3	57.6934E-12	832.979E-3	-4.65339E-3	58.7109E-12	839.922E-3	-19.7319E-3
1.92346E-3	57.6485E-12	825.347E-3	-14.8410E-3	58.2908E-12	843.797E-3	-24.2633E-3
1.91846E-3	57.4567E-12	814.042E-3	-12.3684E-3	57.9090E-12	850.252E-3	-24.6235E-3
1.91346E-3	56.8948E-12	822.943E-3	-9.04593E-3	57.5566E-12	857.503E-3	-22.8391E-3
1.90845E-3	56.7908E-12	841.148E-3	-6.01937E-3	57.1426E-12	849.301E-3	-23.0234E-3
1.90345E-3	56.5024E-12	851.989E-3	-3.70651E-3	56.6518E-12	833.901E-3	-16.5431E-3
1.89845E-3	56.1401E-12	864.300E-3	-13.9468E-3	56.2827E-12	842.210E-3	-13.0418E-3
1.89345E-3	55.8362E-12	870.495E-3	-19.4046E-3	55.6031E-12	862.222E-3	-25.8517E-3
1.88844E-3	55.2668E-12	864.084E-3	-23.0029E-3	55.2119E-12	867.790E-3	-31.1337E-3
1.88344E-3	55.2715E-12	857.766E-3	-21.8101E-3	54.8673E-12	869.747E-3	-20.9052E-3
1.87844E-3	55.1681E-12	859.802E-3	-8.67003E-3	54.2681E-12	870.817E-3	-12.1907E-3
1.87344E-3	54.5929E-12	865.960E-3	4.29594E-3	53.7081E-12	861.190E-3	-12.9600E-3
1.86843E-3	54.1058E-12	875.482E-3	4.91541E-3	53.5367E-12	852.129E-3	-24.3129E-3
1.86343E-3	54.2922E-12	880.020E-3	-5.67297E-3	53.4081E-12	855.543E-3	-34.0489E-3
1.85843E-3	53.9654E-12	864.363E-3	-12.4995E-3	53.0210E-12	865.950E-3	-21.7640E-3
1.85343E-3	53.4512E-12	849.040E-3	-19.6023E-3	52.3754E-12	872.234E-3	-5.10482E-3
1.84842E-3	52.8746E-12	852.079E-3	-21.6905E-3	52.1704E-12	874.647E-3	-12.5479E-3
1.84342E-3	52.6917E-12	853.753E-3	-20.9853E-3	52.1094E-12	877.020E-3	-19.6738E-3
1.83842E-3	52.2532E-12	856.577E-3	-17.0926E-3	51.8163E-12	885.495E-3	-17.2218E-3
1.83342E-3	51.7685E-12	874.048E-3	7.22296E-3	51.7407E-12	898.410E-3	-25.9121E-3
1.82841E-3	51.6765E-12	885.556E-3	15.9374E-3	51.7178E-12	899.390E-3	-27.1681E-3
1.82341E-3	51.2159E-12	893.041E-3	-8.62707E-3	51.3570E-12	890.772E-3	-12.9436E-3
1.81841E-3	50.5959E-12	899.204E-3	-15.8174E-3	51.2022E-12	894.724E-3	-16.3404E-3
1.81341E-3	50.2522E-12	884.602E-3	-2.95158E-3	50.9201E-12	906.214E-3	-29.4887E-3
1.80840E-3	50.1386E-12	877.739E-3	-6.52416E-3	50.8243E-12	908.080E-3	-16.5978E-3
1.80340E-3	49.7927E-12	889.063E-3	-14.4661E-3	50.7265E-12	903.057E-3	-6.58994E-3
1.79840E-3	49.4670E-12	895.101E-3	-11.0170E-3	50.4136E-12	898.244E-3	-26.3690E-3
1.79340E-3	49.0293E-12	899.755E-3	-19.1105E-3	49.9285E-12	904.304E-3	-35.1498E-3
1.78839E-3	49.2528E-12	910.684E-3	-26.2166E-3	49.5967E-12	918.160E-3	-30.1703E-3
1.78339E-3	49.3823E-12	917.378E-3	-28.0026E-3	49.1956E-12	922.363E-3	-30.0864E-3
1.77839E-3	48.7011E-12	918.263E-3	-31.1955E-3	48.7617E-12	919.193E-3	-26.8031E-3
1.77339E-3	48.0177E-12	930.167E-3	-20.6348E-3	48.1662E-12	921.497E-3	-30.9246E-3
1.76838E-3	48.2916E-12	938.246E-3	-12.2005E-3	47.6603E-12	922.027E-3	-34.0875E-3
1.76338E-3	48.4683E-12	926.740E-3	-11.5470E-3	47.1739E-12	923.841E-3	-17.8119E-3
1.75838E-3	47.5627E-12	922.656E-3	-13.6065E-3	46.9684E-12	937.769E-3	-2.86986E-3
1.75338E-3	47.2752E-12	935.297E-3	-22.2584E-3	46.6877E-12	945.768E-3	-997.532E-6
1.74837E-3	47.0801E-12	950.249E-3	-15.5941E-3	46.1481E-12	936.920E-3	-4.19931E-3
1.74337E-3	47.0406E-12	958.923E-3	11.6974E-3	45.9797E-12	930.447E-3	-13.3867E-3
1.73837E-3	46.1605E-12	954.906E-3	15.8347E-3	46.0028E-12	942.440E-3	-26.2636E-3
1.73337E-3	45.8955E-12	950.543E-3	551.104E-6	45.7161E-12	969.191E-3	-27.4958E-3
1.72836E-3	45.4084E-12	958.993E-3	276.367E-6	45.5609E-12	989.794E-3	-18.9680E-3
1.72336E-3	44.9695E-12	970.352E-3	6.01321E-3	45.4703E-12	987.157E-3	-13.4994E-3
1.71836E-3	44.4424E-12	965.109E-3	3.93227E-3	45.2684E-12	982.227E-3	-10.0384E-3
1.71336E-3	44.3506E-12	951.299E-3	-1.02777E-3	44.9942E-12	994.184E-3	-12.3229E-3
1.70835E-3	43.9490E-12	947.463E-3	-14.5995E-3	44.7170E-12	1.00393E+0	-20.6143E-3
1.70335E-3	43.4098E-12	954.166E-3	-34.7235E-3	44.6697E-12	999.135E-3	-21.8165E-3
1.69835E-3	43.1726E-12	965.742E-3	-40.2732E-3	44.3824E-12	996.825E-3	-11.6450E-3
1.69335E-3	43.1411E-12	969.835E-3	-18.9045E-3	43.9514E-12	1.00565E+0	-8.13055E-3
1.68834E-3	43.0739E-12	970.591E-3	-797.581E-6	43.4014E-12	1.01531E+0	-19.7401E-3
1.68334E-3	42.3714E-12	972.466E-3	-7.69481E-3	43.0146E-12	1.02220E+0	-18.1197E-3
1.67834E-3	42.2705E-12	979.132E-3	-16.7092E-3	42.3487E-12	1.02411E+0	-10.3803E-3
1.67334E-3	42.1704E-12	987.823E-3	-14.5179E-3	41.7242E-12	1.01432E+0	-18.1092E-3
1.66833E-3	41.8381E-12	991.315E-3	-4.06142E-3	41.1389E-12	1.00480E+0	-20.3064E-3
1.66333E-3	41.1332E-12	1.00555E+0	-3.38345E-3	40.5567E-12	1.00180E+0	-23.1575E-3
1.65833E-3	40.7888E-12	1.02585E+0	-17.0485E-3	40.2773E-12	998.452E-3	-26.7181E-3
1.65333E-3	40.7473E-12	1.03422E+0	-18.7371E-3	40.0236E-12	1.00598E+0	-18.8428E-3
1.64832E-3	40.7077E-12	1.02861E+0	-10.6445E-3	39.2169E-12	1.01541E+0	-12.9189E-3
1.64332E-3	40.1839E-12	1.02147E+0	-20.2168E-3	39.0015E-12	1.01403E+0	-6.59946E-3
1.63832E-3	39.5514E-12	1.02927E+0	-31.8025E-3	38.9361E-12	1.02901E+0	-9.17691E-3
1.63332E-3	39.4259E-12	1.03920E+0	-29.9014E-3	38.7748E-12	1.05703E+0	-31.9668E-3
1.62831E-3	39.2633E-12	1.04090E+0	-31.2825E-3	38.7047E-12	1.06105E+0	-49.9539E-3
1.62331E-3	38.6809E-12	1.04236E+0	-34.5772E-3	38.5517E-12	1.05936E+0	-38.8733E-3
1.61831E-3	38.0681E-12	1.05512E+0	-32.9314E-3	38.4218E-12	1.06813E+0	-16.5453E-3
1.61331E-3	37.7903E-12	1.07335E+0	-33.7425E-3	38.2894E-12	1.07105E+0	-10.2718E-3
1.60830E-3	37.7245E-12	1.08383E+0	-35.6842E-3	38.0390E-12	1.08560E+0	-18.1217E-3
1.60330E-3	37.2056E-12	1.08753E+0	-30.7844E-3	37.5003E-12	1.11564E+0	-27.9411E-3
1.59830E-3	36.8154E-12	1.07473E+0	-18.7894E-3	37.3566E-12	1.13480E+0	-24.2690E-3
1.59330E-3	36.5095E-12	1.07388E+0	-4.17044E-3	36.9261E-12	1.13177E+0	-11.6710E-3
1.58829E-3	36.2334E-12	1.09640E+0	-8.73172E-3	36.4590E-12	1.12920E+0	-15.0308E-3
1.58329E-3	35.7217E-12	1.10263E+0	-21.1709E-3	35.9300E-12	1.13248E+0	-29.0911E-3
1.57829E-3	35.5719E-12	1.09739E+0	-22.9601E-3	35.6281E-12	1.13037E+0	-28.1057E-3
1.57329E-3	35.2626E-12	1.09090E+0	-19.7240E-3	35.0775E-12	1.12559E+0	-12.6547E-3
1.56828E-3	34.6036E-12	1.08702E+0	-11.8630E-3	34.6888E-12	1.11383E+0	190.028E-6
1.56328E-3	34.4001E-12	1.09101E+0	-7.41586E-3	33.9126E-12	1.10521E+0	4.91962E-3
1.55828E-3	33.7532E-12	1.09915E+0	-4.60453E-3	33.4655E-12	1.11963E+0	-7.01533E-3
1.55328E-3	33.5582E-12	1.11061E+0	-679.007E-6	33.0773E-12	1.13266E+0	-21.4552E-3
1.54827E-3	32.9558E-12	1.11640E+0	1.91412E-3	32.8091E-12	1.12831E+0	-20.8320E-3
1.54327E-3	32.4487E-12	1.12323E+0	1.78808E-3	32.6781E-12	1.13449E+0	-23.8827E-3
1.53827E-3	32.2922E-12	1.13126E+0	-2.08753E-3	32.2767E-12	1.15616E+0	-33.9663E-3
1.53327E-3	32.0871E-12	1.14062E+0	-7.07696E-3	32.0150E-12	1.17502E+0	-33.8515E-3
1.52826E-3	31.4249E-12	1.15301E+0	-15.5630E-3	31.7258E-12	1.18707E+0	-29.9365E-3
1.52326E-3	30.7551E-12	1.14785E+0	-25.7005E-3	31.7227E-12	1.19150E+0	-25.5490E-3
1.51826E-3	30.4540E-12	1.13321E+0	-16.0707E-3	31.2891E-12	1.18811E+0	-15.0037E-3
1.51326E-3	30.3893E-12	1.14012E+0	1.44388E-3	30.8492E-12	1.19021E+0	-11.9019E-3
1.50825E-3	29.8145E-12	1.15725E+0	-999.363E-6	30.7083E-12	1.19105E+0	-26.0847E-3
1.50325E-3	29.2053E-12	1.16151E+0	-13.6988E-3	30.5367E-12	1.18290E+0	-38.0209E-3
1.49825E-3	29.2400E-12	1.15670E+0	-21.4817E-3	30.0650E-12	1.18453E+0	-34.3443E-3
1.49325E-3	29.1456E-12	1.16095E+0	-9.35584E-3	29.4269E-12	1.18661E+0	-24.3746E-3
1.48824E-3	28.4603E-12	1.17602E+0	-2.08179E-3	29.0396E-12	1.18206E+0	-12.6550E-3
1.48324E-3	27.8810E-12	1.19013E+0	-12.7561E-3	28.6852E-12	1.18877E+0	-11.9345E-3
1.47824E-3	27.8529E-12	1.19725E+0	-11.1776E-3	28.3022E-12	1.18662E+0	-12.9054E-3
1.47324E-3	27.3500E-12	1.19650E+0	-8.56348E-3	27.5636E-12	1.17604E+0	-862.104E-6
1.46823E-3	26.9121E-12	1.19695E+0	-21.1602E-3	26.9536E-12	1.18591E+0	8.89754E-3
1.46323E-3	26.2863E-12	1.20276E+0	-30.5788E-3	26.5824E-12	1.19416E+0	6.57401E-3
1.45823E-3	26.1487E-12	1.21003E+0	-35.8565E-3	26.1072E-12	1.18622E+0	-2.64001E-3
1.45323E-3	25.7116E-12	1.20871E+0	-40.5064E-3	25.4834E-12	1.18593E+0	-7.86281E-3
1.44822E-3	25.1316E-12	1.19441E+0	-29.1726E-3	24.9295E-12	1.18364E+0	-9.87014E-3
1.44322E-3	24.7622E-12	1.17802E+0	-16.0471E-3	24.6039E-12	1.16903E+0	-4.97773E-3
1.43822E-3	24.6501E-12	1.17715E+0	-16.8842E-3	24.3237E-12	1.16381E+0	-4.18166E-3
1.43322E-3	24.2499E-12	1.18526E+0	-16.2084E-3	23.9622E-12	1.16702E+0	-21.6417E-3
1.42821E-3	23.7657E-12	1.18098E+0	-13.3574E-3	23.5600E-12	1.16459E+0	-31.9876E-3
1.42321E-3	23.3477E-12	1.17414E+0	-12.2870E-3	23.1052E-12	1.16441E+0	-20.2324E-3
1.41821E-3	22.9716E-12	1.17044E+0	-569.476E-6	22.7090E-12	1.16218E+0	-10.6006E-3
1.41321E-3	22.4564E-12	1.16401E+0	4.01420E-3	22.4421E-12	1.15034E+0	-10.4363E-3
1.40820E-3	21.8928E-12	1.16277E+0	-4.99661E-3	22.1250E-12	1.14178E+0	-9.99037E-3
1.40320E-3	21.6650E-12	1.15931E+0	-11.7725E-3	21.6957E-12	1.14430E+0	-19.2868E-3
1.39820E-3	21.4904E-12	1.14902E+0	-19.4133E-3	21.3322E-12	1.14028E+0	-18.5001E-3
1.39320E-3	20.9759E-12	1.15113E+0	-26.9010E-3	21.0661E-12	1.13556E+0	-9.55048E-3
1.38819E-3	20.4549E-12	1.15914E+0	-30.0251E-3	20.7546E-12	1.15113E+0	-13.3402E-3
1.38319E-3	20.2381E-12	1.15414E+0	-25.3019E-3	20.3736E-12	1.15653E+0	-7.76567E-3
1.37819E-3	20.0254E-12	1.15158E+0	-11.6771E-3	19.8821E-12	1.14381E+0	-3.20552E-3
1.37319E-3	19.5140E-12	1.15474E+0	-7.77111E-3	19.8305E-12	1.13182E+0	-14.9208E-3
1.36818E-3	19.0871E-12	1.14429E+0	-21.5538E-3	19.2886E-12	1.11122E+0	-16.9922E-3
1.36318E-3	18.8619E-12	1.13296E+0	-32.2493E-3	18.8545E-12	1.08714E+0	-9.20046E-3
1.35818E-3	18.5514E-12	1.12560E+0	-28.8223E-3	18.3465E-12	1.06633E+0	-18.4504E-3
1.35318E-3	18.1271E-12	1.11765E+0	-21.4273E-3	18.1061E-12	1.04814E+0	-29.0347E-3
1.34817E-3	17.7552E-12	1.11282E+0	-18.9775E-3	17.7728E-12	1.04384E+0	-21.2657E-3
1.34317E-3	17.4945E-12	1.10365E+0	-13.5052E-3	17.2779E-12	1.05108E+0	-18.2790E-3
1.33817E-3	17.3112E-12	1.09644E+0	-7.62035E-3	16.7817E-12	1.04436E+0	-25.4257E-3
1.33317E-3	16.7259E-12	1.10302E+0	-10.9120E-3	16.6569E-12	1.02850E+0	-29.9678E-3
1.32816E-3	16.3564E-12	1.10319E+0	-14.6712E-3	16.3963E-12	1.02965E+0	-33.1663E-3
1.32316E-3	16.1545E-12	1.07826E+0	-18.5001E-3	15.9203E-12	1.02735E+0	-27.7950E-3
1.31816E-3	15.6789E-12	1.05247E+0	-21.8292E-3	15.4897E-12	1.00610E+0	-14.7552E-3
1.31316E-3	15.2195E-12	1.04161E+0	-16.9726E-3	15.1405E-12	993.604E-3	-12.6431E-3
1.30815E-3	14.8709E-12	1.03688E+0	-10.1857E-3	14.9413E-12	986.393E-3	-22.8105E-3
1.30315E-3	14.7108E-12	1.02401E+0	-5.94094E-3	14.7684E-12	967.809E-3	-27.5720E-3
1.29815E-3	14.2514E-12	1.00391E+0	-976.546E-6	14.3077E-12	956.400E-3	-26.5433E-3
1.29315E-3	13.7635E-12	978.305E-3	423.610E-6	14.0713E-12	940.334E-3	-28.7233E-3
1.28814E-3	13.4641E-12	960.137E-3	-6.36447E-3	13.8641E-12	908.379E-3	-27.6884E-3
1.28314E-3	13.4084E-12	950.651E-3	-21.4532E-3	13.5480E-12	888.206E-3	-23.3168E-3
1.27814E-3	12.9729E-12	929.609E-3	-36.7431E-3	13.1309E-12	873.065E-3	-18.2787E-3
1.27314E-3	12.4928E-12	918.503E-3	-34.8745E-3	12.8443E-12	856.242E-3	-11.5692E-3
1.26813E-3	12.3369E-12	919.898E-3	-18.3213E-3	12.5008E-12	850.742E-3	-18.8549E-3
1.26313E-3	12.2154E-12	909.022E-3	-18.2945E-3	12.1483E-12	836.979E-3	-30.1857E-3
1.25813E-3	11.8580E-12	884.977E-3	-31.5173E-3	11.8783E-12	817.899E-3	-18.0130E-3
1.25313E-3	11.4129E-12	857.917E-3	-28.1428E-3	11.6436E-12	819.885E-3	-7.42263E-3
1.24812E-3	11.2608E-12	842.843E-3	-21.6502E-3	11.2594E-12	806.660E-3	-14.4833E-3
1.24312E-3	11.0674E-12	845.070E-3	-25.2358E-3	10.8622E-12	766.687E-3	-11.0925E-3
1.23812E-3	10.7479E-12	842.995E-3	-24.6496E-3	10.5696E-12	753.577E-3	-6.07935E-3
1.23312E-3	10.4217E-12	815.094E-3	-25.4618E-3	10.3701E-12	750.314E-3	-17.1742E-3
1.22811E-3	10.2445E-12	797.003E-3	-23.9481E-3	10.0297E-12	716.689E-3	-22.7030E-3
1.22311E-3	9.92144E-12	796.372E-3	-19.0035E-3	9.79103E-12	680.981E-3	-20.3223E-3
1.21811E-3	9.62585E-12	767.340E-3	-31.4295E-3	9.56216E-12	670.962E-3	-17.1483E-3
1.21311E-3	9.33501E-12	728.645E-3	-48.0705E-3	9.48001E-12	669.976E-3	-9.88693E-3
1.20810E-3	9.10917E-12	711.952E-3	-45.0498E-3	9.17181E-12	660.437E-3	-12.6315E-3
1.20310E-3	8.86908E-12	701.930E-3	-22.3459E-3	8.91459E-12	641.377E-3	-19.2196E-3
1.19810E-3	8.57376E-12	688.714E-3	-884.792E-6	8.76813E-12	611.873E-3	-19.7246E-3
1.19310E-3	8.37927E-12	665.849E-3	4.67990E-3	8.69104E-12	594.477E-3	-22.1185E-3
1.18809E-3	8.35637E-12	643.419E-3	9.97328E-3	8.43235E-12	592.790E-3	-29.1387E-3
1.18309E-3	8.06359E-12	633.826E-3	8.20071E-3	8.21477E-12	571.693E-3	-23.4032E-3
1.17809E-3	7.78894E-12	622.046E-3	-5.05791E-3	8.03983E-12	544.532E-3	-8.22391E-3
1.17309E-3	7.70292E-12	607.711E-3	-4.01060E-3	7.92262E-12	538.067E-3	-16.7608E-3
1.16808E-3	7.64197E-12	592.088E-3	6.24572E-3	7.68941E-12	533.473E-3	-22.9320E-3
1.16308E-3	7.38112E-12	575.455E-3	9.98288E-3	7.44693E-12	512.344E-3	-3.99277E-3
1.15808E-3	7.08071E-12	561.283E-3	1.45746E-3	7.23534E-12	485.686E-3	1.90571E-3
1.15308E-3	7.01327E-12	541.276E-3	-17.7431E-3	7.02885E-12	469.401E-3	-17.0855E-3
1.14807E-3	7.04637E-12	520.626E-3	-30.7075E-3	6.83648E-12	462.171E-3	-33.3035E-3
1.14307E-3	6.68569E-12	512.997E-3	-26.8264E-3	6.54711E-12	446.220E-3	-32.3153E-3
1.13807E-3	6.46956E-12	507.339E-3	-10.8278E-3	6.42493E-12	419.899E-3	-16.6599E-3
1.13307E-3	6.38667E-12	483.813E-3	-1.00290E-3	6.31989E-12	406.277E-3	-3.45166E-3
1.12806E-3	6.29323E-12	465.036E-3	-6.66826E-3	6.06102E-12	397.234E-3	-8.50418E-3
1.12306E-3	6.01222E-12	466.874E-3	-18.3127E-3	5.90353E-12	375.578E-3	-18.8871E-3
1.11806E-3	5.83925E-12	464.422E-3	-19.7449E-3	5.81324E-12	361.586E-3	-26.3995E-3
1.11306E-3	5.74416E-12	439.643E-3	-13.9454E-3	5.71396E-12	360.728E-3	-31.0631E-3
1.10805E-3	5.59666E-12	402.660E-3	-10.8551E-3	5.50839E-12	343.007E-3	-23.8126E-3
1.10305E-3	5.42441E-12	381.694E-3	-8.53529E-3	5.40487E-12	321.323E-3	-10.2555E-3
1.09805E-3	5.27129E-12	377.902E-3	-3.32700E-3	5.38523E-12	322.061E-3	-15.7869E-3
1.09305E-3	5.23105E-12	369.942E-3	6.21415E-3	5.29978E-12	318.922E-3	-33.1402E-3
1.08804E-3	5.10454E-12	353.526E-3	8.96716E-3	5.12410E-12	309.173E-3	-33.2892E-3
1.08304E-3	5.00481E-12	341.005E-3	1.62815E-3	5.06253E-12	297.714E-3	-23.2071E-3
1.07804E-3	4.94668E-12	327.823E-3	-11.6951E-3	5.02911E-12	274.329E-3	-21.1919E-3
1.07304E-3	4.90237E-12	308.954E-3	-21.1270E-3	4.96629E-12	255.397E-3	-25.4145E-3
1.06803E-3	4.72100E-12	294.133E-3	-19.6257E-3	4.80770E-12	245.802E-3	-22.6379E-3
1.06303E-3	4.60235E-12	283.094E-3	-15.8021E-3	4.59506E-12	238.065E-3	-15.6043E-3
1.05803E-3	4.59184E-12	272.744E-3	-13.9742E-3	4.66743E-12	239.465E-3	-9.79170E-3
1.05303E-3	4.54314E-12	259.999E-3	-13.4141E-3	4.53253E-12	241.818E-3	-9.50822E-3
1.04802E-3	4.34359E-12	248.490E-3	-10.2344E-3	4.35358E-12	222.741E-3	-15.0249E-3
1.04302E-3	4.33403E-12	247.633E-3	-12.7325E-3	4.37320E-12	195.430E-3	-15.2623E-3
1.03802E-3	4.34029E-12	250.119E-3	-21.6021E-3	4.25775E-12	181.048E-3	-13.5305E-3
1.03302E-3	4.26349E-12	246.367E-3	-21.1078E-3	4.08578E-12	171.596E-3	-16.2604E-3
1.02801E-3	4.01274E-12	235.266E-3	-19.8626E-3	3.95230E-12	159.425E-3	-14.2976E-3
1.02301E-3	3.82743E-12	219.939E-3	-18.4752E-3	3.80751E-12	154.042E-3	-13.5573E-3
1.01801E-3	3.87393E-12	201.794E-3	-11.1918E-3	3.78652E-12	156.658E-3	-19.9457E-3
1.01301E-3	3.80424E-12	185.250E-3	-13.4785E-3	3.73207E-12	161.273E-3	-15.9438E-3
1.00800E-3	3.64665E-12	177.623E-3	-20.2168E-3	3.61729E-12	159.445E-3	-3.87432E-3
1.00300E-3	3.57061E-12	169.320E-3	-23.2847E-3	3.61897E-12	140.713E-3	-11.1989E-3
997.999E-6	3.63968E-12	154.108E-3	-27.3636E-3	3.63351E-12	121.445E-3	-23.4972E-3
992.997E-6	3.61994E-12	144.849E-3	-14.5074E-3	3.50865E-12	126.313E-3	-28.9201E-3
987.994E-6	3.47164E-12	139.830E-3	3.44706E-3	3.44018E-12	134.526E-3	-32.5716E-3
982.991E-6	3.41534E-12	135.829E-3	-6.49663E-3	3.48817E-12	127.877E-3	-20.9239E-3
977.989E-6	3.47177E-12	137.837E-3	-22.3395E-3	3.47750E-12	121.053E-3	-13.7404E-3
972.986E-6	3.37093E-12	134.394E-3	-18.2117E-3	3.39898E-12	107.586E-3	-11.6422E-3
967.984E-6	3.27862E-12	127.982E-3	-10.9307E-3	3.29368E-12	90.1298E-3	92.4510E-6
962.981E-6	3.28584E-12	127.161E-3	-6.12328E-3	3.35290E-12	89.4109E-3	328.369E-6
957.979E-6	3.26428E-12	116.005E-3	-1.25597E-3	3.35101E-12	96.5324E-3	-14.9429E-3
952.976E-6	3.17921E-12	97.5024E-3	-4.99037E-3	3.20434E-12	97.1085E-3	-20.0089E-3
947.974E-6	3.09563E-12	96.7696E-3	-10.6243E-3	3.15246E-12	98.8290E-3	-10.1958E-3
942.971E-6	3.16312E-12	101.312E-3	-14.3265E-3	3.15450E-12	90.6062E-3	-14.1378E-3
937.969E-6	3.19307E-12	94.6300E-3	-15.1827E-3	3.18710E-12	71.6559E-3	-26.5101E-3
932.966E-6	3.04748E-12	94.8646E-3	-11.4251E-3	3.08458E-12	74.5058E-3	-21.6552E-3
927.964E-6	2.98028E-12	92.4879E-3	-14.3325E-3	2.92069E-12	77.1298E-3	-17.1272E-3
922.961E-6	3.04665E-12	82.6534E-3	-20.8130E-3	2.99439E-12	59.7236E-3	-15.6498E-3
917.959E-6	3.07011E-12	77.1530E-3	-12.2302E-3	3.04932E-12	56.4655E-3	-5.42904E-3
912.956E-6	2.89968E-12	70.9511E-3	707.729E-6	2.96293E-12	66.0238E-3	-12.2744E-3
907.954E-6	2.87175E-12	62.7547E-3	-2.26216E-3	2.86460E-12	67.3967E-3	-26.4593E-3
902.951E-6	2.95943E-12	55.1796E-3	-20.5288E-3	2.89495E-12	70.0383E-3	-19.2919E-3
897.949E-6	2.96825E-12	60.5345E-3	-33.4436E-3	2.92977E-12	70.4582E-3	-11.8427E-3
892.946E-6	2.80762E-12	81.9626E-3	-26.3510E-3	2.89419E-12	61.3994E-3	-13.2707E-3
887.944E-6	2.76279E-12	89.7251E-3	-9.56978E-3	2.80486E-12	60.6083E-3	-17.0953E-3
882.941E-6	2.84979E-12	74.2299E-3	4.76802E-3	2.85534E-12	68.5797E-3	-27.9850E-3
877.939E-6	2.76590E-12	67.3234E-3	1.69560E-3	2.81127E-12	71.1164E-3	-26.0759E-3
872.936E-6	2.70404E-12	68.6999E-3	-14.4423E-3	2.74066E-12	66.6602E-3	-11.7682E-3
867.934E-6	2.63922E-12	60.4766E-3	-24.0367E-3	2.77682E-12	57.1787E-3	-14.5523E-3
862.931E-6	2.69611E-12	47.2433E-3	-28.7126E-3	2.78845E-12	49.2286E-3	-19.2023E-3
857.929E-6	2.69829E-12	39.3170E-3	-27.1205E-3	2.68793E-12	50.0784E-3	-8.42055E-3
852.926E-6	2.60511E-12	41.3931E-3	-24.0657E-3	2.66593E-12	57.7258E-3	-2.55089E-3
847.924E-6	2.62536E-12	45.2204E-3	-26.9067E-3	2.68105E-12	62.4439E-3	-4.81795E-3
842.921E-6	2.59234E-12	45.6424E-3	-26.4918E-3	2.73469E-12	55.0698E-3	-3.98307E-3
837.919E-6	2.58905E-12	41.7047E-3	-20.5522E-3	2.59373E-12	46.9161E-3	-7.69309E-3
832.916E-6	2.55598E-12	38.3607E-3	-15.4258E-3	2.52082E-12	46.9702E-3	-16.5331E-3
827.914E-6	2.55603E-12	47.3856E-3	-11.5840E-3	2.62107E-12	48.1560E-3	-11.2091E-3
822.911E-6	2.59168E-12	53.5064E-3	-13.2398E-3	2.55584E-12	45.8787E-3	2.97459E-3
817.909E-6	2.53770E-12	44.9201E-3	-20.1458E-3	2.52366E-12	38.4727E-3	-510.394E-6
812.906E-6	2.41449E-12	36.1451E-3	-18.7584E-3	2.43349E-12	34.1658E-3	-12.7464E-3
807.904E-6	2.50763E-12	36.3958E-3	-13.4889E-3	2.49154E-12	43.8277E-3	-14.9451E-3
802.901E-6	2.51728E-12	46.1148E-3	-18.5209E-3	2.50605E-12	46.7044E-3	-9.64218E-3
797.899E-6	2.41581E-12	61.8581E-3	-33.8068E-3	2.38605E-12	41.3744E-3	-2.37321E-3
792.896E-6	2.34010E-12	63.1128E-3	-51.1263E-3	2.37097E-12	43.8820E-3	-4.52215E-3
787.894E-6	2.45407E-12	47.4313E-3	-44.1188E-3	2.39349E-12	41.6081E-3	-13.1376E-3
782.891E-6	2.44144E-12	41.6768E-3	-17.3401E-3	2.39707E-12	45.9107E-3	-16.2765E-3
777.889E-6	2.30898E-12	55.2835E-3	-12.5651E-3	2.33767E-12	62.6061E-3	-18.6901E-3
772.886E-6	2.23944E-12	63.2266E-3	-18.6399E-3	2.32482E-12	68.6178E-3	-14.2587E-3
767.884E-6	2.36271E-12	54.8515E-3	-12.5618E-3	2.29986E-12	65.0407E-3	-4.04170E-3
762.881E-6	2.32305E-12	48.0742E-3	-7.46057E-3	2.37882E-12	64.6905E-3	-6.81295E-3
757.879E-6	2.24359E-12	35.7823E-3	-12.7346E-3	2.28763E-12	59.5547E-3	-19.1383E-3
752.876E-6	2.21505E-12	23.6069E-3	-22.3211E-3	2.29017E-12	57.8205E-3	-22.0668E-3
747.874E-6	2.31358E-12	31.8675E-3	-21.6839E-3	2.31447E-12	75.9074E-3	-17.3989E-3
742.871E-6	2.29910E-12	46.6655E-3	-21.1161E-3	2.22496E-12	82.6361E-3	-16.4609E-3
737.869E-6	2.20250E-12	48.6629E-3	-28.2944E-3	2.21801E-12	60.5268E-3	-5.99731E-3
732.866E-6	2.18897E-12	40.5892E-3	-23.1981E-3	2.22093E-12	49.4539E-3	1.85640E-3
727.864E-6	2.24783E-12	40.7513E-3	-16.4215E-3	2.23511E-12	57.1620E-3	-12.1865E-3
722.861E-6	2.24660E-12	53.4421E-3	-16.1713E-3	2.17706E-12	55.4891E-3	-13.9675E-3
717.859E-6	2.11035E-12	61.0701E-3	-12.0488E-3	2.06646E-12	52.2652E-3	2.03637E-3
712.856E-6	2.09890E-12	54.9657E-3	-17.1310E-3	2.09046E-12	54.1320E-3	17.3433E-6
707.854E-6	2.17163E-12	56.7645E-3	-28.2916E-3	2.21195E-12	50.1003E-3	-9.81230E-3
702.851E-6	2.09853E-12	73.1943E-3	-21.2967E-3	2.04244E-12	49.3812E-3	-15.9697E-3
697.849E-6	2.02350E-12	73.9960E-3	-7.24230E-3	1.98182E-12	58.9697E-3	-25.8316E-3
692.846E-6	2.02949E-12	50.6706E-3	-5.71544E-3	2.00028E-12	58.2751E-3	-23.6592E-3
687.844E-6	2.08751E-12	30.1465E-3	-10.2885E-3	2.05605E-12	55.5855E-3	-7.94261E-3
682.841E-6	1.94141E-12	36.4211E-3	-12.1698E-3	1.95770E-12	64.0609E-3	-3.64414E-3
677.839E-6	1.90177E-12	59.0763E-3	-16.5682E-3	1.83794E-12	63.9263E-3	-13.3546E-3
672.836E-6	1.95338E-12	64.4837E-3	-24.4079E-3	1.91244E-12	62.7418E-3	-20.1516E-3
667.834E-6	1.96928E-12	60.5917E-3	-19.6217E-3	2.01280E-12	61.2391E-3	-19.4150E-3
662.831E-6	1.82437E-12	63.1897E-3	-3.35429E-3	1.86688E-12	44.6777E-3	-11.1682E-3
657.829E-6	1.77273E-12	62.5033E-3	4.64041E-3	1.83199E-12	35.2338E-3	-9.04868E-3
652.826E-6	1.88033E-12	60.0057E-3	1.06095E-3	1.89896E-12	47.2273E-3	-29.7447E-3
647.824E-6	1.86510E-12	63.9164E-3	-5.73945E-3	1.90848E-12	65.9147E-3	-45.9638E-3
642.821E-6	1.76051E-12	76.3171E-3	-16.0233E-3	1.85007E-12	79.3838E-3	-35.4612E-3
637.819E-6	1.70476E-12	84.0142E-3	-23.9107E-3	1.79632E-12	81.7290E-3	-15.1193E-3
632.816E-6	1.78168E-12	77.1564E-3	-22.3610E-3	1.75551E-12	68.0550E-3	-329.764E-6
627.814E-6	1.75678E-12	69.1094E-3	-19.3263E-3	1.77412E-12	61.9279E-3	-4.95529E-3
622.811E-6	1.65877E-12	70.1240E-3	-14.0254E-3	1.65222E-12	72.3682E-3	-27.0799E-3
617.809E-6	1.64734E-12	77.8027E-3	-4.32940E-3	1.70403E-12	71.0975E-3	-34.5841E-3
612.806E-6	1.71655E-12	83.2339E-3	-2.54382E-3	1.70396E-12	66.8566E-3	-17.0368E-3
607.804E-6	1.67716E-12	80.4406E-3	-9.86560E-3	1.59241E-12	73.5408E-3	-6.41423E-3
602.801E-6	1.57371E-12	70.0039E-3	-19.5572E-3	1.51223E-12	75.8009E-3	-5.82275E-3
597.799E-6	1.59068E-12	62.1734E-3	-27.7643E-3	1.52630E-12	76.6768E-3	-3.57878E-3
592.796E-6	1.58267E-12	70.1086E-3	-34.0750E-3	1.61987E-12	82.8451E-3	-20.2270E-3
587.794E-6	1.56093E-12	84.7453E-3	-35.7229E-3	1.47891E-12	72.4791E-3	-38.0637E-3
582.791E-6	1.50188E-12	99.1751E-3	-27.4447E-3	1.39026E-12	58.1365E-3	-19.9515E-3
577.789E-6	1.51633E-12	98.2890E-3	-22.8055E-3	1.47221E-12	65.7218E-3	-2.11042E-3
572.786E-6	1.51644E-12	81.7043E-3	-24.0539E-3	1.57801E-12	73.0110E-3	-4.03003E-3
567.784E-6	1.42171E-12	79.3993E-3	-24.9360E-3	1.39892E-12	70.6676E-3	-3.49139E-3
562.781E-6	1.36300E-12	82.6989E-3	-36.4237E-3	1.31277E-12	70.2094E-3	-11.0663E-3
557.779E-6	1.40649E-12	66.5268E-3	-34.9255E-3	1.36473E-12	63.3123E-3	-23.1137E-3
552.776E-6	1.40233E-12	52.2425E-3	-12.0884E-3	1.44019E-12	55.4505E-3	-15.0877E-3
547.774E-6	1.29915E-12	59.4301E-3	-2.01809E-3	1.34663E-12	70.7838E-3	-5.79804E-3
542.771E-6	1.20241E-12	71.6996E-3	-9.90393E-3	1.23128E-12	87.3350E-3	-14.7729E-3
537.769E-6	1.29917E-12	78.0855E-3	-18.2095E-3	1.23708E-12	87.7129E-3	-25.0880E-3
532.766E-6	1.31436E-12	74.9329E-3	-15.3835E-3	1.24329E-12	86.9879E-3	-30.9911E-3
527.764E-6	1.13671E-12	72.4339E-3	-14.3679E-3	1.22953E-12	73.5375E-3	-28.3828E-3
522.761E-6	1.08784E-12	79.5042E-3	-15.7766E-3	1.14565E-12	55.3512E-3	-7.87415E-3
517.759E-6	1.20181E-12	83.5744E-3	-17.7198E-3	1.12749E-12	57.2033E-3	7.41163E-3
512.756E-6	1.20801E-12	79.6595E-3	-20.9939E-3	1.09623E-12	77.1589E-3	8.48768E-3
507.754E-6	1.02269E-12	81.8156E-3	-18.7701E-3	1.06477E-12	94.4086E-3	12.2338E-3
502.751E-6	993.075E-15	86.4389E-3	-12.8437E-3	1.08282E-12	97.7871E-3	4.08870E-3
497.749E-6	1.08149E-12	84.0099E-3	-9.44663E-3	1.05625E-12	82.1922E-3	-16.6576E-3
492.746E-6	1.07624E-12	89.4889E-3	-22.1719E-3	1.02330E-12	64.5386E-3	-23.9205E-3
487.744E-6	965.208E-15	94.6709E-3	-29.0079E-3	887.545E-15	72.4000E-3	-21.3618E-3
482.741E-6	911.950E-15	84.3082E-3	-18.6295E-3	945.241E-15	77.5476E-3	-22.3054E-3
477.739E-6	961.615E-15	74.8566E-3	-15.7826E-3	976.508E-15	64.2873E-3	-15.1740E-3
472.736E-6	980.301E-15	74.1184E-3	-16.3184E-3	909.849E-15	64.3605E-3	-8.16648E-3
467.734E-6	836.057E-15	70.6749E-3	-13.1763E-3	775.397E-15	72.1898E-3	-15.9911E-3
462.731E-6	855.702E-15	70.2862E-3	-8.51355E-3	839.859E-15	66.6039E-3	-15.7532E-3
457.729E-6	860.541E-15	71.7947E-3	3.36993E-3	898.523E-15	66.5213E-3	-9.31061E-3
452.726E-6	790.996E-15	59.2785E-3	11.5330E-3	846.285E-15	74.2224E-3	-14.6321E-3
447.724E-6	790.508E-15	49.5825E-3	4.50267E-3	725.985E-15	62.6187E-3	-24.3065E-3
442.721E-6	767.934E-15	60.7482E-3	-5.13402E-3	791.057E-15	46.8023E-3	-30.8220E-3
437.719E-6	782.634E-15	76.7997E-3	-8.30247E-3	852.406E-15	50.3443E-3	-29.9800E-3
432.716E-6	685.501E-15	83.5526E-3	-20.3461E-3	708.145E-15	54.7497E-3	-24.3044E-3
427.714E-6	614.901E-15	77.9641E-3	-33.0885E-3	635.801E-15	58.5084E-3	-25.9283E-3
422.711E-6	737.765E-15	61.2419E-3	-28.4361E-3	654.356E-15	58.3578E-3	-37.9317E-3
417.709E-6	698.920E-15	48.6147E-3	-21.9534E-3	727.554E-15	51.8253E-3	-38.7230E-3
412.706E-6	603.173E-15	53.8016E-3	-20.0745E-3	631.598E-15	63.5569E-3	-29.0051E-3
407.704E-6	553.238E-15	61.6413E-3	-23.7440E-3	553.325E-15	76.5001E-3	-26.4856E-3
402.701E-6	663.145E-15	60.5655E-3	-31.2761E-3	565.489E-15	72.6598E-3	-22.7091E-3
397.699E-6	617.822E-15	66.5734E-3	-29.7731E-3	605.327E-15	72.8745E-3	-16.3311E-3
392.696E-6	513.949E-15	76.2516E-3	-23.0521E-3	523.993E-15	78.1599E-3	-17.7384E-3
387.694E-6	443.619E-15	75.8575E-3	-19.7147E-3	520.078E-15	78.6217E-3	-17.5482E-3
382.691E-6	566.090E-15	73.9484E-3	-24.9835E-3	499.771E-15	81.7545E-3	-14.2456E-3
377.689E-6	557.013E-15	70.3324E-3	-28.5096E-3	500.076E-15	71.4948E-3	-17.4151E-3
372.686E-6	451.222E-15	60.8468E-3	-24.5791E-3	450.673E-15	36.7156E-3	-14.2616E-3
367.684E-6	390.858E-15	55.6948E-3	-21.4359E-3	416.327E-15	25.4598E-3	-9.92663E-3
362.681E-6	446.688E-15	54.5974E-3	-18.0873E-3	439.992E-15	48.9698E-3	-13.0304E-3
357.679E-6	441.474E-15	54.8261E-3	-21.7407E-3	418.342E-15	60.8534E-3	-7.94085E-3
352.676E-6	360.201E-15	61.7407E-3	-28.7665E-3	314.547E-15	55.2590E-3	2.53482E-3
347.674E-6	312.794E-15	61.0643E-3	-26.6080E-3	362.677E-15	51.6982E-3	-5.02855E-3
342.671E-6	391.652E-15	51.9844E-3	-19.5499E-3	397.180E-15	47.2263E-3	-18.0621E-3
337.669E-6	305.514E-15	56.7622E-3	-19.2333E-3	359.015E-15	48.6598E-3	-15.8586E-3
332.666E-6	263.016E-15	60.4346E-3	-21.3783E-3	250.913E-15	64.6963E-3	-9.13752E-3
327.664E-6	311.016E-15	48.7310E-3	-16.9014E-3	320.371E-15	68.0706E-3	-8.49942E-3
322.661E-6	302.645E-15	34.5867E-3	-12.7663E-3	380.787E-15	43.7964E-3	-9.46884E-3
317.659E-6	231.469E-15	29.5666E-3	-14.7596E-3	263.173E-15	25.1906E-3	-12.0988E-3
312.656E-6	207.639E-15	33.7948E-3	-24.4853E-3	161.296E-15	28.1457E-3	-19.1610E-3
307.654E-6	240.145E-15	40.9284E-3	-27.4920E-3	237.747E-15	39.9152E-3	-20.2183E-3
302.651E-6	281.876E-15	48.5817E-3	-19.1846E-3	264.795E-15	46.0565E-3	-22.0726E-3
297.649E-6	134.153E-15	54.6582E-3	-15.6059E-3	182.284E-15	37.5930E-3	-19.8509E-3
292.646E-6	126.105E-15	56.1577E-3	-21.6465E-3	121.850E-15	26.5754E-3	-10.9132E-3
287.644E-6	218.033E-15	46.2470E-3	-27.2037E-3	184.612E-15	30.8269E-3	-19.0488E-3
282.641E-6	203.201E-15	37.3815E-3	-26.8357E-3	266.399E-15	37.3926E-3	-35.7772E-3
277.639E-6	133.857E-15	41.9220E-3	-25.5144E-3	111.596E-15	34.1240E-3	-29.7885E-3
272.636E-6	71.1126E-15	38.7585E-3	-23.0282E-3	79.3872E-15	35.2551E-3	-11.5788E-3
267.634E-6	224.799E-15	28.8014E-3	-17.2847E-3	138.818E-15	34.8384E-3	-7.86682E-3
262.631E-6	204.745E-15	30.2156E-3	-5.09154E-3	142.402E-15	28.0772E-3	-14.7149E-3
257.629E-6	29.4604E-15	34.0656E-3	-714.809E-6	88.1763E-15	27.6350E-3	-17.9532E-3
252.626E-6	51.8167E-15	26.7320E-3	-16.7386E-3	34.2735E-15	30.4214E-3	-8.97448E-3
247.624E-6	151.295E-15	14.4207E-3	-32.1236E-3	111.640E-15	29.3653E-3	2.14544E-3
242.621E-6	154.443E-15	12.7498E-3	-32.3424E-3	100.340E-15	23.1178E-3	-2.65605E-3
237.619E-6	22.9297E-15	21.3620E-3	-18.6526E-3	17.9509E-15	12.0516E-3	-14.8084E-3
232.616E-6	4.32267E-15	31.7975E-3	-447.823E-6	33.3841E-15	11.2090E-3	-19.6404E-3
227.614E-6	62.7769E-15	36.3519E-3	6.02328E-3	89.4754E-15	26.8421E-3	-21.7244E-3
222.611E-6	41.0135E-15	33.5265E-3	-5.34434E-3	1.14884E-15	28.7226E-3	-24.1182E-3
217.609E-6	-32.8477E-15	31.3499E-3	-24.3661E-3	-13.7437E-15	10.4869E-3	-16.4407E-3
212.606E-6	28.0915E-15	33.3263E-3	-25.1487E-3	957.018E-18	7.71152E-3	-15.5768E-3
207.604E-6	44.2048E-15	31.4104E-3	-11.5887E-3	96.0236E-15	21.7371E-3	-27.5554E-3
202.601E-6	47.7361E-15	28.1232E-3	-9.51125E-3	38.5634E-15	31.3977E-3	-23.7995E-3
197.599E-6	-43.4504E-15	19.8227E-3	-10.4170E-3	-93.0720E-15	28.2319E-3	-7.15545E-3
192.596E-6	-5.46039E-15	17.7233E-3	-7.50735E-3	-22.7421E-15	17.3381E-3	-7.92848E-3
187.594E-6	19.6251E-15	23.0528E-3	-5.10727E-3	51.1977E-15	9.11723E-3	-20.4857E-3
182.591E-6	-31.8799E-15	12.5045E-3	503.932E-6	-19.7252E-15	8.91889E-3	-25.1023E-3
177.589E-6	-99.6289E-15	8.81718E-3	-1.54036E-3	-129.126E-15	13.3166E-3	-36.4299E-3
172.586E-6	-10.4042E-15	18.3530E-3	-1.29268E-3	-50.6962E-15	13.2318E-3	-39.0552E-3
167.584E-6	31.8059E-15	17.6597E-3	7.93720E-3	21.0376E-15	14.0515E-3	-10.9636E-3
162.581E-6	-76.4704E-15	13.9102E-3	3.78077E-3	-30.1012E-15	15.0951E-3	3.11542E-3
157.579E-6	-126.502E-15	13.1773E-3	-4.38136E-3	-148.910E-15	4.19591E-3	-7.38172E-3
152.576E-6	-19.4549E-15	13.4238E-3	-4.38218E-3	-57.7414E-15	-239.022E-6	592.704E-6
147.574E-6	-8.15466E-15	16.0473E-3	-12.6950E-3	-30.2843E-15	11.1235E-3	8.41274E-3
142.571E-6	-121.035E-15	11.1287E-3	-20.0666E-3	-74.2819E-15	16.2017E-3	-59.3958E-6
137.569E-6	-164.527E-15	4.66888E-3	-8.29836E-3	-132.440E-15	7.76386E-3	-6.55275E-3
132.566E-6	-45.6738E-15	3.92950E-3	3.10646E-3	-114.966E-15	-4.23988E-3	-14.8656E-3
127.564E-6	-30.9992E-15	6.96249E-3	1.27536E-3	-14.7552E-15	-3.19094E-3	-11.3609E-3
122.561E-6	-134.114E-15	16.2673E-3	-7.95265E-3	-155.110E-15	11.2312E-3	2.55176E-3
117.559E-6	-182.201E-15	18.4514E-3	-24.4785E-3	-136.860E-15	16.7618E-3	305.969E-6
112.556E-6	-65.5277E-15	14.6199E-3	-34.9748E-3	-75.4852E-15	5.65176E-3	-7.68286E-3
107.554E-6	-98.4257E-15	16.3126E-3	-23.6692E-3	-136.154E-15	-3.69459E-3	-10.2634E-3
102.551E-6	-128.490E-15	12.2261E-3	-8.74561E-3	-175.705E-15	3.75396E-3	-15.5419E-3
97.5488E-6	-146.591E-15	-587.481E-6	-11.7228E-3	-146.853E-15	14.9476E-3	-17.5988E-3
92.5463E-6	-102.698E-15	-1.00900E-3	-20.2344E-3	-63.8536E-15	11.4434E-3	-10.4652E-3
87.5438E-6	-86.2361E-15	9.73386E-3	-19.6277E-3	-115.498E-15	-1.44895E-3	-7.88346E-3
82.5413E-6	-163.960E-15	12.3275E-3	-17.4510E-3	-192.106E-15	-3.22062E-3	-20.2852E-3
77.5388E-6	-144.551E-15	9.52070E-3	-11.7937E-3	-125.726E-15	9.37476E-3	-27.4847E-3
72.5363E-6	-47.5049E-15	4.02529E-3	-4.44241E-3	-70.4541E-15	19.7214E-3	-23.0679E-3
67.5338E-6	-166.114E-15	-4.36224E-3	-13.7522E-3	-192.612E-15	16.4918E-3	-20.3256E-3
62.5313E-6	-183.134E-15	-33.4294E-6	-30.2392E-3	-219.450E-15	8.64869E-3	-14.6363E-3
57.5288E-6	-144.647E-15	10.2347E-3	-32.7591E-3	-116.789E-15	4.80351E-3	-14.9622E-3
52.5263E-6	-72.2503E-15	15.7348E-3	-27.7756E-3	-93.7783E-15	3.01402E-3	-18.4584E-3
47.5238E-6	-217.985E-15	20.7213E-3	-25.1628E-3	-170.482E-15	7.89837E-3	-8.15214E-3
42.5213E-6	-264.049E-15	17.3021E-3	-18.4441E-3	-202.028E-15	14.8708E-3	-3.96252E-3
37.5188E-6	-108.165E-15	1.10444E-3	-11.8752E-3	-174.301E-15	5.31308E-3	-13.7145E-3
32.5163E-6	-103.928E-15	-7.16307E-3	-11.8707E-3	-64.1413E-15	-16.9322E-3	-16.6109E-3
27.5138E-6	-223.033E-15	346.566E-6	-8.71410E-3	-161.117E-15	-24.0283E-3	-17.4474E-3
22.5113E-6	-234.063E-15	4.17898E-3	-9.97296E-3	-225.074E-15	-22.4131E-3	-12.1492E-3
17.5088E-6	-129.615E-15	7.01832E-3	-18.8915E-3	-131.864E-15	-25.5889E-3	-349.418E-6
12.5063E-6	-117.521E-15	12.7859E-3	-20.4181E-3	-125.970E-15	-24.2704E-3	-9.58303E-3
7.50375E-6	-241.344E-15	11.7549E-3	-18.4360E-3	-179.742E-15	-20.6039E-3	-23.3619E-3
2.50125E-6	-236.199E-15	10.6333E-3	-17.5904E-3	-255.452E-15	-12.9228E-3	-23.7497E-3
-2.50125E-6	-141.656E-15	15.1864E-3	-19.9347E-3	-195.899E-15	1.99524E-3	-31.7897E-3
-7.50375E-6	-116.509E-15	13.9121E-3	-27.4771E-3	-137.846E-15	10.8429E-3	-39.5724E-3
-12.5063E-6	-213.442E-15	3.32009E-3	-31.2710E-3	-217.828E-15	9.08841E-3	-28.1260E-3
-17.5088E-6	-266.185E-15	-2.28203E-3	-27.4746E-3	-197.268E-15	10.2128E-3	-12.2269E-3
-22.5113E-6	-170.273E-15	1.95231E-3	-22.7963E-3	-168.398E-15	9.77393E-3	-15.0056E-3
-27.5138E-6	-148.091E-15	5.57352E-3	-19.0587E-3	-184.424E-15	5.89751E-3	-18.6050E-3
-32.5163E-6	-237.220E-15	9.91610E-3	-14.9978E-3	-248.276E-15	10.3288E-3	-7.37846E-3
-37.5188E-6	-200.006E-15	17.0013E-3	-14.3648E-3	-234.839E-15	8.70579E-3	-8.71820E-3
-42.5213E-6	-143.740E-15	24.3481E-3	-15.4237E-3	-140.104E-15	117.867E-6	-16.4319E-3
-47.5238E-6	-194.539E-15	29.1336E-3	-13.8966E-3	-175.513E-15	1.93722E-3	-16.5753E-3
-52.5263E-6	-273.100E-15	30.3767E-3	-9.90172E-3	-271.914E-15	9.16305E-3	-22.1183E-3
-57.5288E-6	-229.407E-15	26.2461E-3	-10.4097E-3	-252.818E-15	11.7504E-3	-17.3080E-3
-62.5313E-6	-200.302E-15	14.1873E-3	-15.5146E-3	-146.853E-15	4.23478E-3	2.01466E-3
-67.5338E-6	-247.735E-15	6.67457E-3	-21.6561E-3	-273.832E-15	-7.27053E-3	-801.017E-6
-72.5363E-6	-322.468E-15	6.54967E-3	-19.0039E-3	-318.484E-15	-4.87732E-3	-23.4688E-3
-77.5388E-6	-190.223E-15	6.23403E-3	-8.52964E-3	-238.135E-15	12.0992E-3	-31.7745E-3
-82.5413E-6	-157.891E-15	13.3718E-3	-13.2245E-3	-221.664E-15	25.3420E-3	-31.3340E-3
-87.5438E-6	-329.365E-15	20.4615E-3	-30.7655E-3	-258.190E-15	20.7814E-3	-29.4026E-3
-92.5463E-6	-344.127E-15	14.1572E-3	-37.3423E-3	-342.985E-15	17.8918E-3	-18.7509E-3
-97.5488E-6	-244.151E-15	3.76273E-3	-28.6546E-3	-268.539E-15	23.5134E-3	-17.6513E-3
-102.551E-6	-204.330E-15	4.91620E-3	-13.8488E-3	-171.258E-15	17.3505E-3	-20.7472E-3
-107.554E-6	-329.644E-15	11.2528E-3	-7.57554E-3	-280.598E-15	16.3828E-3	-14.7282E-3
-112.556E-6	-360.415E-15	12.5004E-3	-11.9095E-3	-308.788E-15	31.9052E-3	-15.4469E-3
-117.559E-6	-220.034E-15	9.46799E-3	-11.6914E-3	-261.137E-15	35.9655E-3	-20.5866E-3
-122.561E-6	-256.219E-15	7.32813E-3	-10.8860E-3	-238.397E-15	34.1245E-3	-20.8054E-3
-127.564E-6	-316.714E-15	13.9213E-3	-19.0777E-3	-290.896E-15	37.4474E-3	-22.7137E-3
-132.566E-6	-349.620E-15	24.4017E-3	-24.2638E-3	-339.558E-15	30.4001E-3	-19.5685E-3
-137.569E-6	-266.804E-15	24.5969E-3	-23.9351E-3	-247.552E-15	30.1329E-3	-7.92397E-3
-142.571E-6	-232.468E-15	17.5048E-3	-27.3457E-3	-277.974E-15	34.5814E-3	-5.18617E-3
-147.574E-6	-343.211E-15	17.9657E-3	-29.4181E-3	-359.412E-15	17.1589E-3	-13.3596E-3
-152.576E-6	-363.092E-15	16.7071E-3	-22.4028E-3	-319.739E-15	5.54353E-3	-23.1576E-3
-157.579E-6	-287.225E-15	14.6478E-3	-15.6053E-3	-289.474E-15	19.4336E-3	-30.1136E-3
-162.581E-6	-327.151E-15	13.5745E-3	-19.7186E-3	-340.788E-15	25.3657E-3	-28.5106E-3
-167.584E-6	-368.358E-15	4.78465E-3	-32.7545E-3	-408.153E-15	21.0706E-3	-21.4012E-3
-172.586E-6	-379.414E-15	5.19176E-3	-47.0580E-3	-360.929E-15	24.8439E-3	-26.6579E-3
-177.589E-6	-345.906E-15	16.9570E-3	-45.1617E-3	-269.420E-15	21.3136E-3	-40.8596E-3
-182.591E-6	-380.548E-15	23.1014E-3	-33.5211E-3	-348.286E-15	22.7159E-3	-35.1539E-3
-187.594E-6	-412.608E-15	23.0475E-3	-27.7117E-3	-440.676E-15	46.0645E-3	-11.7338E-3
-192.596E-6	-388.369E-15	17.6675E-3	-27.4060E-3	-378.420E-15	51.4033E-3	-700.553E-6
-197.599E-6	-331.371E-15	11.0436E-3	-24.0555E-3	-295.229E-15	41.3868E-3	-8.20427E-3
-202.601E-6	-443.013E-15	19.6025E-3	-12.1969E-3	-454.391E-15	41.0463E-3	-21.2013E-3
-207.604E-6	-538.332E-15	31.3857E-3	-6.65026E-3	-480.078E-15	35.6438E-3	-18.9747E-3
-212.606E-6	-385.884E-15	27.3265E-3	-23.1442E-3	-445.280E-15	30.5258E-3	-46.6050E-6
-217.609E-6	-365.986E-15	18.2079E-3	-41.9977E-3	-346.900E-15	34.7023E-3	890.259E-6
-222.611E-6	-492.286E-15	22.4836E-3	-31.3617E-3	-472.057E-15	30.6592E-3	-16.3968E-3
-227.614E-6	-558.814E-15	38.2012E-3	-13.2395E-3	-538.210E-15	15.0162E-3	-25.2263E-3
-232.616E-6	-429.559E-15	37.3816E-3	-15.7008E-3	-473.678E-15	22.5181E-3	-26.0994E-3
-237.619E-6	-379.161E-15	25.8539E-3	-21.7491E-3	-473.094E-15	48.1745E-3	-23.0652E-3
-242.621E-6	-542.247E-15	27.4515E-3	-24.3906E-3	-492.076E-15	46.1738E-3	-10.2051E-3
-247.624E-6	-605.087E-15	35.1857E-3	-24.4308E-3	-571.265E-15	33.8600E-3	-4.01905E-3
-252.626E-6	-500.455E-15	42.0945E-3	-14.7695E-3	-540.564E-15	39.0807E-3	-18.5039E-3
-257.629E-6	-453.581E-15	41.7293E-3	-9.14097E-3	-487.908E-15	44.4790E-3	-30.4109E-3
-262.631E-6	-629.283E-15	27.1537E-3	-5.31243E-3	-577.709E-15	51.8980E-3	-26.8758E-3
-267.634E-6	-685.157E-15	19.5627E-3	1.23507E-3	-639.345E-15	51.5840E-3	-18.3361E-3
-272.636E-6	-561.281E-15	32.3757E-3	-5.15912E-3	-578.842E-15	35.8677E-3	-2.69005E-3
-277.639E-6	-548.089E-15	43.0166E-3	-15.9596E-3	-602.506E-15	37.1282E-3	6.23485E-3
-282.641E-6	-655.537E-15	41.0414E-3	-16.2200E-3	-731.447E-15	51.3780E-3	-10.7202E-3
-287.644E-6	-670.229E-15	37.8508E-3	-19.0138E-3	-695.489E-15	59.7779E-3	-22.2250E-3
-292.646E-6	-640.409E-15	39.5377E-3	-22.7561E-3	-661.536E-15	69.6457E-3	-16.2639E-3
-297.649E-6	-651.509E-15	42.8015E-3	-21.7482E-3	-685.985E-15	72.3941E-3	-17.5196E-3
-302.651E-6	-754.309E-15	41.5418E-3	-19.4729E-3	-840.543E-15	61.1259E-3	-21.6406E-3
-307.654E-6	-753.917E-15	50.0061E-3	-11.8418E-3	-740.010E-15	60.3571E-3	-22.4702E-3
-312.656E-6	-729.163E-15	70.6328E-3	-7.17189E-3	-738.449E-15	66.2323E-3	-23.5315E-3
-317.659E-6	-812.554E-15	74.8602E-3	-10.0326E-3	-812.938E-15	59.5487E-3	-12.2279E-3
-322.661E-6	-841.694E-15	70.0299E-3	-11.9217E-3	-884.733E-15	64.1758E-3	2.12333E-3
-327.664E-6	-824.142E-15	70.7657E-3	-3.72144E-3	-880.870E-15	73.6167E-3	-3.23086E-3
-332.666E-6	-783.676E-15	63.3947E-3	4.88901E-3	-828.938E-15	67.3976E-3	-12.5313E-3
-337.669E-6	-914.736E-15	59.0625E-3	-3.75904E-3	-884.689E-15	75.7892E-3	-6.63178E-3
-342.671E-6	-966.049E-15	66.5492E-3	-12.9523E-3	-1.02061E-12	95.1871E-3	-6.97374E-3
-347.674E-6	-900.471E-15	76.3460E-3	-12.0888E-3	-984.403E-15	94.4263E-3	-15.0637E-3
-352.676E-6	-866.780E-15	87.3335E-3	-13.5083E-3	-901.134E-15	82.2910E-3	-12.6666E-3
-357.679E-6	-1.03697E-12	93.6576E-3	-13.7891E-3	-979.416E-15	79.9614E-3	-13.2727E-3
-362.681E-6	-1.12718E-12	92.5689E-3	-15.7467E-3	-1.03870E-12	86.9592E-3	-20.5997E-3
-367.684E-6	-995.302E-15	91.6133E-3	-28.7781E-3	-1.06846E-12	106.478E-3	-11.7039E-3
-372.686E-6	-1.06485E-12	88.2480E-3	-36.7287E-3	-1.08884E-12	116.751E-3	6.00200E-3
-377.689E-6	-1.15786E-12	69.2258E-3	-25.0432E-3	-1.14677E-12	102.741E-3	6.38457E-3
-382.691E-6	-1.19970E-12	56.0240E-3	-15.7100E-3	-1.20938E-12	105.434E-3	-2.72509E-3
-387.694E-6	-1.15800E-12	71.5563E-3	-18.3882E-3	-1.15793E-12	116.701E-3	-17.0978E-3
-392.696E-6	-1.17925E-12	87.8485E-3	-18.7863E-3	-1.20198E-12	110.132E-3	-38.8946E-3
-397.699E-6	-1.27290E-12	85.6964E-3	-20.0692E-3	-1.32532E-12	106.607E-3	-37.4788E-3
-402.701E-6	-1.32320E-12	86.5524E-3	-20.6216E-3	-1.34053E-12	106.283E-3	-18.6259E-3
-407.704E-6	-1.30424E-12	92.2852E-3	-16.2540E-3	-1.29206E-12	103.066E-3	-17.1975E-3
-412.706E-6	-1.26473E-12	87.5455E-3	-12.5347E-3	-1.36563E-12	106.324E-3	-20.5220E-3
-417.709E-6	-1.44550E-12	88.3996E-3	-7.50275E-3	-1.46376E-12	111.249E-3	-20.6666E-3
-422.711E-6	-1.47193E-12	101.082E-3	-8.91712E-3	-1.50125E-12	114.785E-3	-22.5667E-3
-427.714E-6	-1.41554E-12	106.203E-3	-21.6412E-3	-1.45230E-12	116.996E-3	-19.2661E-3
-432.716E-6	-1.53250E-12	101.956E-3	-23.2642E-3	-1.48996E-12	110.600E-3	-18.1885E-3
-437.719E-6	-1.60413E-12	100.756E-3	-15.4710E-3	-1.65539E-12	100.144E-3	-21.0366E-3
-442.721E-6	-1.62958E-12	106.482E-3	-14.2882E-3	-1.59994E-12	94.1025E-3	-26.7779E-3
-447.724E-6	-1.58272E-12	112.952E-3	-18.0195E-3	-1.57359E-12	99.1357E-3	-29.6570E-3
-452.726E-6	-1.69265E-12	113.967E-3	-17.2355E-3	-1.68944E-12	110.009E-3	-27.0329E-3
-457.729E-6	-1.75912E-12	116.159E-3	-11.5185E-3	-1.75442E-12	109.902E-3	-27.4529E-3
-462.731E-6	-1.72118E-12	125.267E-3	-14.9289E-3	-1.70102E-12	111.084E-3	-36.8673E-3
-467.734E-6	-1.70998E-12	127.684E-3	-22.6931E-3	-1.74071E-12	124.529E-3	-40.3802E-3
-472.736E-6	-1.86179E-12	123.354E-3	-25.9647E-3	-1.87382E-12	136.916E-3	-18.6829E-3
-477.739E-6	-1.96592E-12	129.182E-3	-30.8726E-3	-1.97900E-12	134.180E-3	-4.62125E-3
-482.741E-6	-1.86552E-12	139.356E-3	-35.6252E-3	-1.92625E-12	127.893E-3	-13.1150E-3
-487.744E-6	-1.88722E-12	138.025E-3	-31.7852E-3	-1.91566E-12	131.171E-3	-18.8529E-3
-492.746E-6	-2.03227E-12	132.591E-3	-22.5390E-3	-2.01654E-12	138.824E-3	-23.3356E-3
-497.749E-6	-2.11800E-12	130.487E-3	-14.5360E-3	-2.16099E-12	140.163E-3	-30.9996E-3
-502.751E-6	-2.03682E-12	124.707E-3	-11.6891E-3	-2.13240E-12	133.168E-3	-27.6919E-3
-507.754E-6	-2.02865E-12	121.959E-3	-9.17297E-3	-2.12907E-12	125.385E-3	-15.6619E-3
-512.756E-6	-2.24366E-12	129.657E-3	-4.15957E-3	-2.23078E-12	115.554E-3	-12.8671E-3
-517.759E-6	-2.33581E-12	135.831E-3	-12.1698E-3	-2.30183E-12	111.836E-3	-14.3723E-3
-522.761E-6	-2.20240E-12	132.642E-3	-29.0971E-3	-2.27856E-12	121.667E-3	-17.3390E-3
-527.764E-6	-2.29713E-12	124.337E-3	-35.7876E-3	-2.31882E-12	126.298E-3	-26.5688E-3
-532.766E-6	-2.41692E-12	122.001E-3	-29.5225E-3	-2.43549E-12	121.464E-3	-25.9382E-3
-537.769E-6	-2.45641E-12	134.357E-3	-17.3381E-3	-2.43313E-12	126.544E-3	-20.0739E-3
-542.771E-6	-2.39639E-12	146.649E-3	-7.60540E-3	-2.38943E-12	138.028E-3	-28.9219E-3
-547.774E-6	-2.44529E-12	140.871E-3	-7.82164E-3	-2.51780E-12	141.875E-3	-37.1483E-3
-552.776E-6	-2.63031E-12	134.912E-3	-12.3781E-3	-2.58555E-12	146.581E-3	-32.8245E-3
-557.779E-6	-2.62759E-12	138.590E-3	-7.65955E-3	-2.58260E-12	149.435E-3	-33.3569E-3
-562.781E-6	-2.52992E-12	137.669E-3	-12.5379E-3	-2.54124E-12	138.581E-3	-31.5358E-3
-567.784E-6	-2.69574E-12	144.241E-3	-31.5167E-3	-2.73776E-12	130.760E-3	-15.1052E-3
-572.786E-6	-2.82139E-12	150.279E-3	-32.9133E-3	-2.86478E-12	136.994E-3	-13.5481E-3
-577.789E-6	-2.79342E-12	142.880E-3	-23.5277E-3	-2.81518E-12	139.780E-3	-18.7050E-3
-582.791E-6	-2.77882E-12	146.561E-3	-21.2747E-3	-2.84960E-12	128.757E-3	-7.94549E-3
-587.794E-6	-2.89731E-12	149.532E-3	-17.6109E-3	-3.00434E-12	115.889E-3	-9.26173E-3
-592.796E-6	-3.05516E-12	130.330E-3	-14.5143E-3	-3.04774E-12	117.573E-3	-16.5343E-3
-597.799E-6	-2.95999E-12	120.909E-3	-22.2501E-3	-3.06776E-12	136.036E-3	-16.3832E-3
-602.801E-6	-2.88315E-12	133.222E-3	-31.5535E-3	-3.03517E-12	143.085E-3	-19.0748E-3
-607.804E-6	-3.11531E-12	142.509E-3	-35.7164E-3	-3.13853E-12	126.638E-3	-17.5657E-3
-612.806E-6	-3.21916E-12	147.380E-3	-42.3857E-3	-3.28824E-12	120.442E-3	-15.4066E-3
-617.809E-6	-3.15569E-12	145.279E-3	-34.3767E-3	-3.18684E-12	136.001E-3	-20.3219E-3
-622.811E-6	-3.14389E-12	137.425E-3	-6.73914E-3	-3.16095E-12	148.261E-3	-12.2326E-3
-627.814E-6	-3.33835E-12	140.029E-3	5.18283E-3	-3.25272E-12	144.693E-3	-2.11164E-3
-632.816E-6	-3.40135E-12	145.852E-3	-3.04982E-3	-3.32326E-12	130.613E-3	-4.82282E-3
-637.819E-6	-3.25562E-12	141.998E-3	-10.4038E-3	-3.36583E-12	112.599E-3	-8.30810E-3
-642.821E-6	-3.37648E-12	137.314E-3	-11.8712E-3	-3.34003E-12	103.252E-3	-11.7126E-3
-647.824E-6	-3.53517E-12	138.388E-3	-13.2574E-3	-3.45701E-12	106.384E-3	-21.5717E-3
-652.826E-6	-3.56698E-12	132.939E-3	-21.1471E-3	-3.50178E-12	109.301E-3	-31.6548E-3
-657.829E-6	-3.50882E-12	116.893E-3	-33.8689E-3	-3.49147E-12	116.833E-3	-22.0875E-3
-662.831E-6	-3.51745E-12	110.091E-3	-38.8787E-3	-3.56805E-12	119.190E-3	-11.3231E-3
-667.834E-6	-3.69555E-12	119.592E-3	-40.6547E-3	-3.68878E-12	101.776E-3	-18.4318E-3
-672.836E-6	-3.72168E-12	120.824E-3	-34.6644E-3	-3.68310E-12	100.070E-3	-22.3016E-3
-677.839E-6	-3.68583E-12	111.058E-3	-19.3218E-3	-3.69297E-12	120.294E-3	-17.6422E-3
-682.841E-6	-3.77648E-12	106.435E-3	-13.7647E-3	-3.72160E-12	120.749E-3	-22.5543E-3
-687.844E-6	-3.81865E-12	103.866E-3	-7.15491E-3	-3.82114E-12	106.782E-3	-31.0611E-3
-692.846E-6	-3.81959E-12	103.814E-3	530.579E-6	-3.88798E-12	100.786E-3	-35.3873E-3
-697.849E-6	-3.81872E-12	107.586E-3	-2.40669E-3	-3.84751E-12	101.171E-3	-36.8968E-3
-702.851E-6	-3.91922E-12	102.070E-3	-12.5649E-3	-3.95775E-12	112.546E-3	-24.7153E-3
-707.854E-6	-3.85069E-12	93.7286E-3	-21.4289E-3	-4.02427E-12	123.410E-3	-19.6098E-3
-712.856E-6	-3.94476E-12	93.1402E-3	-20.2189E-3	-3.98065E-12	117.738E-3	-25.8455E-3
-717.859E-6	-4.00461E-12	99.2266E-3	-16.1976E-3	-3.97894E-12	106.022E-3	-24.1181E-3
-722.861E-6	-4.09388E-12	105.023E-3	-16.8504E-3	-4.12241E-12	101.325E-3	-26.8458E-3
-727.864E-6	-4.13029E-12	104.073E-3	-23.1958E-3	-4.12809E-12	100.161E-3	-34.9195E-3
-732.866E-6	-4.12542E-12	103.359E-3	-27.8477E-3	-4.18615E-12	92.7245E-3	-29.7919E-3
-737.869E-6	-4.10009E-12	96.0858E-3	-24.5297E-3	-4.07660E-12	85.4797E-3	-13.2902E-3
-742.871E-6	-4.24693E-12	88.5637E-3	-21.6757E-3	-4.22438E-12	81.5267E-3	-12.0287E-3
-747.874E-6	-4.34295E-12	94.6544E-3	-18.7990E-3	-4.18704E-12	79.8547E-3	-20.7634E-3
-752.876E-6	-4.22317E-12	96.4177E-3	-17.8707E-3	-4.16978E-12	86.9361E-3	-23.9371E-3
-757.879E-6	-4.23503E-12	94.9247E-3	-18.3547E-3	-4.13244E-12	89.2685E-3	-28.3550E-3
-762.881E-6	-4.40329E-12	101.145E-3	-10.2816E-3	-4.24456E-12	77.0294E-3	-21.1986E-3
-767.884E-6	-4.45060E-12	109.894E-3	-2.49030E-3	-4.26714E-12	66.7495E-3	-13.7229E-3
-772.886E-6	-4.33457E-12	115.536E-3	-6.80725E-3	-4.23111E-12	62.0997E-3	-18.1677E-3
-777.889E-6	-4.37675E-12	106.861E-3	-24.3967E-3	-4.24639E-12	57.9317E-3	-9.75563E-3
-782.891E-6	-4.49061E-12	87.2266E-3	-30.9814E-3	-4.40330E-12	60.7553E-3	7.05780E-3
-787.894E-6	-4.47389E-12	78.8558E-3	-20.3041E-3	-4.41161E-12	64.1884E-3	13.7727E-3
-792.896E-6	-4.40222E-12	81.3015E-3	-14.2168E-3	-4.32927E-12	64.8374E-3	13.4551E-3
-797.899E-6	-4.46776E-12	86.6110E-3	-11.2847E-3	-4.45748E-12	67.6033E-3	3.55997E-3
-802.901E-6	-4.53261E-12	99.3565E-3	-12.9070E-3	-4.54921E-12	75.7982E-3	-14.5538E-3
-807.904E-6	-4.50046E-12	103.139E-3	-14.4106E-3	-4.60318E-12	86.2494E-3	-19.2567E-3
-812.906E-6	-4.49455E-12	83.0633E-3	-12.0270E-3	-4.57061E-12	88.5490E-3	-13.1081E-3
-817.909E-6	-4.55473E-12	60.0639E-3	-18.8297E-3	-4.62119E-12	85.0426E-3	-20.8825E-3
-822.911E-6	-4.61604E-12	60.7752E-3	-20.4487E-3	-4.71199E-12	77.5520E-3	-36.1178E-3
-827.914E-6	-4.63509E-12	75.0257E-3	-18.0794E-3	-4.78108E-12	76.9370E-3	-36.4803E-3
-832.916E-6	-4.58156E-12	81.5097E-3	-21.1912E-3	-4.66163E-12	82.5717E-3	-31.4392E-3
-837.919E-6	-4.70440E-12	72.5186E-3	-22.1765E-3	-4.70365E-12	77.6283E-3	-25.1616E-3
-842.921E-6	-4.83533E-12	62.1397E-3	-19.3966E-3	-4.81272E-12	75.6355E-3	-16.3134E-3
-847.924E-6	-4.71653E-12	73.2522E-3	-9.07686E-3	-4.74298E-12	79.9597E-3	-18.3312E-3
-852.926E-6	-4.65464E-12	94.7393E-3	-2.76165E-3	-4.68482E-12	72.6489E-3	-18.4280E-3
-857.929E-6	-4.87792E-12	99.7944E-3	-17.6336E-3	-4.77081E-12	69.5508E-3	-7.63706E-3
-862.931E-6	-4.97472E-12	89.5114E-3	-32.7632E-3	-4.85919E-12	78.6333E-3	-925.702E-6
-867.934E-6	-4.95493E-12	83.7537E-3	-27.7076E-3	-4.80042E-12	83.8349E-3	-2.42274E-3
-872.936E-6	-4.89916E-12	77.7829E-3	-22.6699E-3	-4.88197E-12	85.4272E-3	-12.3638E-3
-877.939E-6	-4.93688E-12	67.3165E-3	-30.1083E-3	-4.88506E-12	77.8221E-3	-27.6144E-3
-882.941E-6	-5.03446E-12	71.2488E-3	-36.8850E-3	-4.97981E-12	66.8539E-3	-34.8353E-3
-887.944E-6	-5.01612E-12	72.5645E-3	-32.7588E-3	-4.99185E-12	76.3087E-3	-21.9335E-3
-892.946E-6	-4.88285E-12	58.3748E-3	-24.7302E-3	-5.00379E-12	90.4171E-3	-1.95749E-3
-897.949E-6	-5.06198E-12	52.4368E-3	-18.8336E-3	-5.12006E-12	83.6959E-3	1.70545E-3
-902.951E-6	-5.11398E-12	61.0069E-3	-15.7759E-3	-5.17476E-12	72.7478E-3	-13.9965E-3
-907.954E-6	-5.05113E-12	72.0793E-3	-14.2856E-3	-5.10597E-12	80.8373E-3	-36.5084E-3
-912.956E-6	-5.02226E-12	72.5509E-3	-17.2208E-3	-5.21881E-12	98.0188E-3	-41.0882E-3
-917.959E-6	-5.07219E-12	63.6944E-3	-26.1254E-3	-5.39212E-12	101.616E-3	-24.7416E-3
-922.961E-6	-5.11122E-12	69.7229E-3	-26.8812E-3	-5.28542E-12	94.3532E-3	-15.2156E-3
-927.964E-6	-5.07887E-12	88.4476E-3	-12.3700E-3	-5.23122E-12	90.8405E-3	-15.4234E-3
-932.966E-6	-5.09372E-12	95.2076E-3	-2.28086E-3	-5.24709E-12	96.2616E-3	-16.4444E-3
-937.969E-6	-5.26494E-12	91.1532E-3	-12.1524E-3	-5.41808E-12	100.655E-3	-18.9625E-3
-942.971E-6	-5.22059E-12	88.8256E-3	-21.0292E-3	-5.46650E-12	95.3714E-3	-18.7215E-3
-947.974E-6	-5.16363E-12	87.5664E-3	-16.7287E-3	-5.26989E-12	91.1168E-3	-15.6247E-3
-952.976E-6	-5.22472E-12	91.6647E-3	-11.8949E-3	-5.26931E-12	92.9100E-3	-10.0235E-3
-957.979E-6	-5.39902E-12	103.583E-3	-6.86235E-3	-5.49052E-12	97.9494E-3	-12.5440E-3
-962.981E-6	-5.35324E-12	103.607E-3	-1.34660E-3	-5.49725E-12	105.567E-3	-18.8913E-3
-967.984E-6	-5.37554E-12	94.2162E-3	7.09195E-3	-5.44446E-12	108.297E-3	-19.1719E-3
-972.986E-6	-5.52159E-12	95.8340E-3	12.5039E-3	-5.44208E-12	106.115E-3	-21.3200E-3
-977.989E-6	-5.63370E-12	103.891E-3	3.05957E-3	-5.56221E-12	105.433E-3	-25.7447E-3
-982.991E-6	-5.52905E-12	113.135E-3	-17.0621E-3	-5.69245E-12	114.643E-3	-29.8458E-3
-987.994E-6	-5.57212E-12	121.025E-3	-28.6557E-3	-5.62096E-12	130.116E-3	-29.9494E-3
-992.997E-6	-5.73684E-12	114.182E-3	-24.0670E-3	-5.63434E-12	138.235E-3	-16.9111E-3
-997.999E-6	-5.79194E-12	102.694E-3	-21.4617E-3	-5.72327E-12	137.671E-3	-10.7323E-3
-1.00300E-3	-5.71354E-12	107.673E-3	-19.1694E-3	-5.78948E-12	130.668E-3	-22.5816E-3
-1.00800E-3	-5.78318E-12	119.766E-3	-15.0113E-3	-5.77669E-12	130.560E-3	-20.9191E-3
-1.01301E-3	-5.86947E-12	125.872E-3	-22.1241E-3	-5.91694E-12	145.139E-3	-4.05301E-3
-1.01801E-3	-5.91379E-12	129.269E-3	-31.3521E-3	-6.02054E-12	159.293E-3	-5.64501E-3
-1.02301E-3	-5.85237E-12	135.737E-3	-31.1518E-3	-5.99747E-12	164.149E-3	-10.2293E-3
-1.02801E-3	-5.92972E-12	145.485E-3	-23.3963E-3	-6.04300E-12	167.603E-3	4.69297E-3
-1.03302E-3	-6.14086E-12	163.064E-3	-13.4853E-3	-6.11802E-12	176.229E-3	7.27571E-3
-1.03802E-3	-6.17536E-12	180.061E-3	-16.9645E-3	-6.18259E-12	184.218E-3	57.9399E-6
-1.04302E-3	-6.11643E-12	179.907E-3	-27.5632E-3	-6.18135E-12	191.168E-3	3.08821E-3
-1.04802E-3	-6.20283E-12	178.409E-3	-25.0184E-3	-6.22796E-12	197.405E-3	1.74685E-3
-1.05303E-3	-6.35678E-12	189.483E-3	-18.9107E-3	-6.32571E-12	204.787E-3	-7.17209E-3
-1.05803E-3	-6.48412E-12	199.412E-3	-9.32229E-3	-6.32407E-12	219.694E-3	-17.5263E-3
-1.06303E-3	-6.46143E-12	200.246E-3	492.170E-6	-6.32792E-12	228.896E-3	-28.6371E-3
-1.06803E-3	-6.54779E-12	198.793E-3	-4.69437E-3	-6.38826E-12	232.383E-3	-32.1720E-3
-1.07304E-3	-6.68018E-12	206.787E-3	-12.3326E-3	-6.50476E-12	249.801E-3	-27.1691E-3
-1.07804E-3	-6.82372E-12	215.032E-3	-6.52483E-3	-6.61622E-12	267.015E-3	-23.7216E-3
-1.08304E-3	-6.76123E-12	221.493E-3	-288.870E-6	-6.54784E-12	270.327E-3	-24.5172E-3
-1.08804E-3	-6.84737E-12	239.139E-3	-12.5174E-3	-6.80347E-12	282.362E-3	-24.8785E-3
-1.09305E-3	-6.99666E-12	257.049E-3	-28.1817E-3	-6.96575E-12	299.365E-3	-23.8877E-3
-1.09805E-3	-7.06777E-12	259.474E-3	-27.3489E-3	-6.99230E-12	301.481E-3	-20.9840E-3
-1.10305E-3	-7.06976E-12	252.646E-3	-20.4870E-3	-7.08385E-12	311.879E-3	-17.6665E-3
-1.10805E-3	-7.19329E-12	262.246E-3	-18.6557E-3	-7.32653E-12	330.407E-3	-16.6817E-3
-1.11306E-3	-7.31488E-12	275.281E-3	-21.2530E-3	-7.49949E-12	342.861E-3	-15.8495E-3
-1.11806E-3	-7.38269E-12	269.820E-3	-27.2374E-3	-7.50290E-12	369.244E-3	-9.75604E-3
-1.12306E-3	-7.42087E-12	276.957E-3	-25.6858E-3	-7.63927E-12	392.200E-3	-5.32521E-3
-1.12806E-3	-7.64473E-12	308.365E-3	-14.4786E-3	-7.78107E-12	385.442E-3	-9.18998E-3
-1.13307E-3	-7.80754E-12	333.467E-3	-6.10574E-3	-7.91222E-12	388.925E-3	-12.0023E-3
-1.13807E-3	-7.85408E-12	344.097E-3	-7.22885E-3	-7.94479E-12	417.138E-3	-15.1258E-3
-1.14307E-3	-7.99334E-12	353.586E-3	-16.2449E-3	-8.08741E-12	437.378E-3	-16.3660E-3
-1.14807E-3	-8.15177E-12	367.178E-3	-23.0290E-3	-8.20570E-12	450.630E-3	1.14632E-3
-1.15308E-3	-8.35844E-12	378.787E-3	-19.5642E-3	-8.31899E-12	456.371E-3	9.14280E-3
-1.15808E-3	-8.42187E-12	390.295E-3	-8.55927E-3	-8.46962E-12	445.716E-3	-9.78102E-3
-1.16308E-3	-8.59673E-12	415.879E-3	-3.92309E-3	-8.65988E-12	445.469E-3	-16.8838E-3
-1.16808E-3	-8.90784E-12	441.014E-3	-17.1463E-3	-8.75565E-12	481.847E-3	-21.0062E-3
-1.17309E-3	-9.08130E-12	445.179E-3	-28.2988E-3	-8.77133E-12	517.807E-3	-27.8702E-3
-1.17809E-3	-9.13224E-12	450.265E-3	-21.0238E-3	-8.90616E-12	530.224E-3	-15.4502E-3
-1.18309E-3	-9.19468E-12	469.261E-3	-11.5764E-3	-9.18373E-12	544.507E-3	-6.85326E-3
-1.18809E-3	-9.50616E-12	494.326E-3	-6.67891E-3	-9.46565E-12	562.702E-3	-15.2019E-3
-1.19310E-3	-9.73174E-12	510.166E-3	-4.98065E-3	-9.47606E-12	580.474E-3	-29.2531E-3
-1.19810E-3	-9.73796E-12	518.189E-3	-7.95000E-3	-9.70035E-12	594.962E-3	-33.4623E-3
-1.20310E-3	-9.84019E-12	537.464E-3	-12.3151E-3	-10.0138E-12	593.963E-3	-21.9362E-3
-1.20810E-3	-10.1962E-12	555.128E-3	-16.2580E-3	-10.2333E-12	600.069E-3	-9.57035E-3
-1.21311E-3	-10.4343E-12	563.508E-3	-19.4428E-3	-10.3616E-12	628.526E-3	-6.20690E-3
-1.21811E-3	-10.4221E-12	576.069E-3	-23.2629E-3	-10.5610E-12	650.795E-3	-18.1267E-3
-1.22311E-3	-10.5605E-12	595.751E-3	-21.0713E-3	-10.9201E-12	674.262E-3	-21.3900E-3
-1.22811E-3	-10.9012E-12	615.600E-3	-12.6848E-3	-11.1929E-12	705.036E-3	-10.4654E-3
-1.23312E-3	-11.0504E-12	635.419E-3	-12.8405E-3	-11.3941E-12	717.126E-3	-7.15064E-3
-1.23812E-3	-11.1502E-12	656.418E-3	-23.8346E-3	-11.4490E-12	725.602E-3	-4.31890E-3
-1.24312E-3	-11.3917E-12	673.976E-3	-31.4202E-3	-11.7538E-12	748.292E-3	-7.76922E-3
-1.24812E-3	-11.7048E-12	697.376E-3	-23.6874E-3	-11.9982E-12	764.807E-3	-13.7141E-3
-1.25313E-3	-11.9624E-12	717.568E-3	-7.49602E-3	-12.1471E-12	775.221E-3	-18.8632E-3
-1.25813E-3	-12.1417E-12	726.058E-3	6.15887E-3	-12.3549E-12	796.940E-3	-26.6153E-3
-1.26313E-3	-12.5124E-12	741.746E-3	3.78439E-3	-12.7051E-12	820.366E-3	-26.7552E-3
-1.26813E-3	-12.8542E-12	758.853E-3	-17.2589E-3	-12.8904E-12	830.551E-3	-24.0904E-3
-1.27314E-3	-13.0873E-12	771.435E-3	-34.3842E-3	-13.0594E-12	841.396E-3	-17.4510E-3
-1.27814E-3	-13.2789E-12	785.376E-3	-34.5899E-3	-13.4268E-12	865.479E-3	-7.66487E-3
-1.28314E-3	-13.6567E-12	801.959E-3	-26.0828E-3	-13.6626E-12	883.084E-3	-6.53594E-3
-1.28814E-3	-14.0293E-12	830.603E-3	-14.5455E-3	-13.7912E-12	890.878E-3	-12.8764E-3
-1.29315E-3	-14.2411E-12	861.839E-3	-8.03060E-3	-14.2504E-12	912.297E-3	-12.6003E-3
-1.29815E-3	-14.4801E-12	877.535E-3	-12.3926E-3	-14.5886E-12	943.317E-3	25.4603E-6
-1.30315E-3	-14.9493E-12	886.769E-3	-15.3144E-3	-15.0063E-12	968.845E-3	2.79994E-3
-1.30815E-3	-15.3133E-12	902.900E-3	-11.2108E-3	-15.1616E-12	991.103E-3	-12.2719E-3
-1.31316E-3	-15.4707E-12	924.835E-3	-10.3287E-3	-15.4109E-12	1.00177E+0	-24.1034E-3
-1.31816E-3	-15.7273E-12	945.709E-3	-16.6165E-3	-15.9980E-12	1.00658E+0	-24.2767E-3
-1.32316E-3	-16.1250E-12	959.006E-3	-22.9278E-3	-16.3955E-12	1.02004E+0	-23.7470E-3
-1.32816E-3	-16.3571E-12	961.877E-3	-21.5483E-3	-16.4556E-12	1.02472E+0	-20.9637E-3
-1.33317E-3	-16.5755E-12	969.161E-3	-15.6683E-3	-16.8539E-12	1.02649E+0	-6.11420E-3
-1.33817E-3	-16.9573E-12	987.662E-3	-12.3360E-3	-17.4648E-12	1.03820E+0	-4.85081E-3
-1.34317E-3	-17.4355E-12	1.00174E+0	-10.1636E-3	-17.7264E-12	1.05690E+0	-24.7835E-3
-1.34817E-3	-17.6937E-12	1.00570E+0	-13.0929E-3	-17.7476E-12	1.08379E+0	-31.5623E-3
-1.35318E-3	-17.8614E-12	1.01161E+0	-16.5204E-3	-18.0438E-12	1.10366E+0	-17.2002E-3
-1.35818E-3	-18.4368E-12	1.02291E+0	-15.3605E-3	-18.7291E-12	1.10838E+0	-3.08863E-3
-1.36318E-3	-19.0166E-12	1.04398E+0	-23.5017E-3	-19.1518E-12	1.11080E+0	-4.08263E-3
-1.36818E-3	-19.4308E-12	1.07368E+0	-24.6567E-3	-19.4367E-12	1.11237E+0	-19.3863E-3
-1.37319E-3	-19.7077E-12	1.08438E+0	-11.6499E-3	-19.6168E-12	1.11479E+0	-22.5072E-3
-1.37819E-3	-20.1520E-12	1.08797E+0	-9.12097E-3	-20.0825E-12	1.12495E+0	-11.9494E-3
-1.38319E-3	-20.6370E-12	1.10062E+0	-13.6334E-3	-20.4043E-12	1.13902E+0	-15.5918E-3
-1.38819E-3	-21.0601E-12	1.10893E+0	-9.10643E-3	-20.4951E-12	1.13868E+0	-27.5018E-3
-1.39320E-3	-21.2615E-12	1.12858E+0	-2.50662E-3	-20.7754E-12	1.13213E+0	-20.8411E-3
-1.39820E-3	-21.7116E-12	1.15905E+0	-6.84994E-3	-21.1777E-12	1.14699E+0	-6.12809E-3
-1.40320E-3	-22.1711E-12	1.16726E+0	-21.5794E-3	-21.5868E-12	1.16687E+0	-8.98973E-3
-1.40820E-3	-22.3503E-12	1.15906E+0	-30.2032E-3	-21.8290E-12	1.18934E+0	-9.21866E-3
-1.41321E-3	-22.5959E-12	1.16037E+0	-29.6836E-3	-22.3622E-12	1.20527E+0	-4.07799E-3
-1.41821E-3	-22.9496E-12	1.17246E+0	-26.4149E-3	-22.9854E-12	1.19632E+0	-18.0590E-3
-1.42321E-3	-23.4114E-12	1.18199E+0	-15.4059E-3	-23.3362E-12	1.20198E+0	-33.6239E-3
-1.42821E-3	-23.7700E-12	1.18060E+0	-1.49414E-3	-23.7306E-12	1.23042E+0	-33.0451E-3
-1.43322E-3	-24.0339E-12	1.16967E+0	5.92481E-3	-24.5884E-12	1.24611E+0	-23.0160E-3
-1.43822E-3	-24.4474E-12	1.17084E+0	2.69639E-3	-25.0785E-12	1.23813E+0	-11.5844E-3
-1.44322E-3	-25.0174E-12	1.19341E+0	-4.87987E-3	-25.3477E-12	1.22759E+0	-6.11534E-3
-1.44822E-3	-25.4428E-12	1.21056E+0	-4.19591E-3	-25.7882E-12	1.22809E+0	-11.8956E-3
-1.45323E-3	-25.6710E-12	1.21875E+0	-2.07006E-3	-26.5437E-12	1.23304E+0	-22.5696E-3
-1.45823E-3	-26.1949E-12	1.22379E+0	-16.0499E-3	-26.9154E-12	1.24146E+0	-24.3913E-3
-1.46323E-3	-26.9744E-12	1.22238E+0	-28.0666E-3	-27.0234E-12	1.24646E+0	-21.7110E-3
-1.46823E-3	-27.5209E-12	1.22477E+0	-13.7335E-3	-27.2656E-12	1.24106E+0	-14.4476E-3
-1.47324E-3	-27.6145E-12	1.23614E+0	2.60723E-3	-27.7900E-12	1.22983E+0	-10.4922E-3
-1.47824E-3	-28.1557E-12	1.24295E+0	5.18910E-3	-28.2155E-12	1.22075E+0	-17.0602E-3
-1.48324E-3	-28.9125E-12	1.24074E+0	2.57885E-3	-28.2131E-12	1.21560E+0	-11.3899E-3
-1.48824E-3	-29.3354E-12	1.23926E+0	9.26791E-3	-28.4477E-12	1.22143E+0	552.499E-6
-1.49325E-3	-29.3968E-12	1.24350E+0	21.7669E-3	-28.9595E-12	1.22323E+0	9.64338E-6
-1.49825E-3	-29.8612E-12	1.25349E+0	18.9949E-3	-29.3329E-12	1.21090E+0	-7.77337E-3
-1.50325E-3	-30.1068E-12	1.25866E+0	7.49878E-3	-29.6052E-12	1.21242E+0	-16.6857E-3
-1.50825E-3	-30.4023E-12	1.24360E+0	-3.77188E-3	-30.1415E-12	1.22203E+0	-19.4048E-3
-1.51326E-3	-30.6862E-12	1.21653E+0	-13.2705E-3	-30.8660E-12	1.21735E+0	-15.1744E-3
-1.51826E-3	-31.1618E-12	1.20456E+0	-12.3145E-3	-31.4659E-12	1.21471E+0	-8.72039E-3
-1.52326E-3	-31.3914E-12	1.21678E+0	-14.1137E-3	-31.8341E-12	1.21906E+0	-7.36080E-3
-1.52826E-3	-31.5867E-12	1.21957E+0	-16.0579E-3	-32.4696E-12	1.21814E+0	-18.1847E-3
-1.53327E-3	-31.9869E-12	1.19959E+0	-3.93210E-3	-33.0207E-12	1.22789E+0	-25.5070E-3
-1.53827E-3	-32.3358E-12	1.18668E+0	6.88629E-3	-33.4069E-12	1.23863E+0	-24.6341E-3
-1.54327E-3	-32.6348E-12	1.18689E+0	14.2369E-3	-33.6362E-12	1.22590E+0	-26.2212E-3
-1.54827E-3	-32.7717E-12	1.18632E+0	15.2710E-3	-34.2338E-12	1.20691E+0	-22.7832E-3
-1.55328E-3	-33.4479E-12	1.18621E+0	-2.71084E-3	-34.6623E-12	1.19336E+0	-16.2691E-3
-1.55828E-3	-34.0507E-12	1.18749E+0	-23.7005E-3	-34.6537E-12	1.18365E+0	-23.6819E-3
-1.56328E-3	-34.4822E-12	1.18713E+0	-27.8625E-3	-34.9207E-12	1.17408E+0	-28.0368E-3
-1.56828E-3	-34.7134E-12	1.19607E+0	-17.5364E-3	-35.3540E-12	1.16473E+0	-18.2345E-3
-1.57329E-3	-35.4971E-12	1.19809E+0	-9.81596E-3	-35.4711E-12	1.15705E+0	-14.4749E-3
-1.57829E-3	-36.2283E-12	1.18830E+0	-7.21545E-3	-35.3369E-12	1.14862E+0	-19.4348E-3
-1.58329E-3	-36.3375E-12	1.19288E+0	-11.6232E-3	-35.6641E-12	1.13667E+0	-31.3030E-3
-1.58829E-3	-36.5845E-12	1.19087E+0	-24.1309E-3	-36.2775E-12	1.12283E+0	-41.3912E-3
-1.59330E-3	-37.2871E-12	1.17054E+0	-18.0499E-3	-36.7487E-12	1.11304E+0	-42.4766E-3
-1.59830E-3	-37.7481E-12	1.15234E+0	2.74097E-3	-36.7236E-12	1.11982E+0	-45.8903E-3
-1.60330E-3	-38.0353E-12	1.14576E+0	-1.88509E-3	-37.0889E-12	1.13975E+0	-39.2503E-3
-1.60830E-3	-38.2439E-12	1.15530E+0	-30.0579E-3	-38.0668E-12	1.15094E+0	-21.2745E-3
-1.61331E-3	-38.9219E-12	1.16129E+0	-46.3646E-3	-38.5509E-12	1.15262E+0	-12.0995E-3
-1.61831E-3	-39.3849E-12	1.14463E+0	-41.1662E-3	-38.5398E-12	1.14643E+0	-7.01116E-3
-1.62331E-3	-39.3997E-12	1.13335E+0	-27.8305E-3	-38.9667E-12	1.13060E+0	-6.58798E-3
-1.62831E-3	-39.7629E-12	1.13365E+0	-21.2872E-3	-39.8529E-12	1.11817E+0	-11.7088E-3
-1.63332E-3	-40.3910E-12	1.13604E+0	-22.1267E-3	-40.4511E-12	1.10863E+0	-17.1683E-3
-1.63832E-3	-40.5686E-12	1.14129E+0	-25.8736E-3	-40.6673E-12	1.09363E+0	-19.5746E-3
-1.64332E-3	-40.5527E-12	1.13023E+0	-21.9045E-3	-40.7272E-12	1.08477E+0	-20.7915E-3
-1.64832E-3	-41.0002E-12	1.11231E+0	-6.87276E-3	-41.3640E-12	1.07372E+0	-23.8713E-3
-1.65333E-3	-41.4835E-12	1.10939E+0	310.608E-6	-41.7641E-12	1.05497E+0	-20.9292E-3
-1.65833E-3	-41.7724E-12	1.11824E+0	-216.413E-6	-41.9512E-12	1.05610E+0	-11.6960E-3
-1.66333E-3	-42.0991E-12	1.12124E+0	-5.00772E-3	-42.1115E-12	1.07629E+0	-2.90990E-3
-1.66833E-3	-42.6219E-12	1.10291E+0	-13.7080E-3	-42.4610E-12	1.07790E+0	2.78204E-3
-1.67334E-3	-42.9325E-12	1.08290E+0	-18.2591E-3	-42.8125E-12	1.05445E+0	3.73077E-3
-1.67834E-3	-42.9912E-12	1.07627E+0	-18.4222E-3	-43.0646E-12	1.03359E+0	-6.75483E-3
-1.68334E-3	-43.6172E-12	1.06416E+0	-13.5265E-3	-43.4852E-12	1.02893E+0	-23.3992E-3
-1.68834E-3	-44.2740E-12	1.04410E+0	-14.3575E-3	-43.7058E-12	1.02956E+0	-29.0924E-3
-1.69335E-3	-44.7351E-12	1.03258E+0	-19.2853E-3	-43.8646E-12	1.02567E+0	-26.0731E-3
-1.69835E-3	-45.0030E-12	1.03595E+0	-4.36861E-3	-44.3302E-12	1.01695E+0	-22.7061E-3
-1.70335E-3	-45.6408E-12	1.04077E+0	7.38908E-3	-44.8958E-12	1.01095E+0	-30.0172E-3
-1.70835E-3	-46.0149E-12	1.04133E+0	-5.84100E-3	-45.0120E-12	1.00563E+0	-46.5684E-3
-1.71336E-3	-46.4403E-12	1.04166E+0	-22.8026E-3	-45.1747E-12	993.212E-3	-45.9150E-3
-1.71836E-3	-46.4090E-12	1.03419E+0	-32.8881E-3	-45.8047E-12	996.423E-3	-25.4758E-3
-1.72336E-3	-46.8444E-12	1.02221E+0	-27.5975E-3	-46.3975E-12	1.01122E+0	-18.1259E-3
-1.72836E-3	-47.0292E-12	1.02027E+0	-15.8568E-3	-46.6914E-12	1.00610E+0	-22.5613E-3
-1.73337E-3	-47.2391E-12	1.02703E+0	-21.4571E-3	-46.9113E-12	991.438E-3	-12.2241E-3
-1.73837E-3	-47.3376E-12	1.02254E+0	-30.5504E-3	-47.3301E-12	984.123E-3	-4.61657E-3
-1.74337E-3	-47.6900E-12	1.00847E+0	-33.5729E-3	-47.9616E-12	968.107E-3	-11.0901E-3
-1.74837E-3	-47.6567E-12	1.00259E+0	-32.6916E-3	-48.3607E-12	956.502E-3	-13.3436E-3
-1.75338E-3	-47.7648E-12	996.483E-3	-25.4667E-3	-48.4964E-12	966.613E-3	-5.66557E-3
-1.75838E-3	-48.3098E-12	980.793E-3	-29.1531E-3	-48.9200E-12	977.501E-3	-11.5767E-3
-1.76338E-3	-48.8773E-12	972.467E-3	-41.4852E-3	-49.6958E-12	977.143E-3	-31.4063E-3
-1.76838E-3	-48.9763E-12	966.999E-3	-43.7700E-3	-50.1610E-12	973.587E-3	-31.6917E-3
-1.77339E-3	-49.3860E-12	944.383E-3	-34.6810E-3	-50.3892E-12	978.400E-3	-6.97118E-3
-1.77839E-3	-49.9932E-12	934.740E-3	-26.3039E-3	-50.7472E-12	980.176E-3	6.29548E-3
-1.78339E-3	-50.7023E-12	943.734E-3	-20.6248E-3	-51.2131E-12	964.507E-3	-2.52739E-3
-1.78839E-3	-51.0384E-12	951.480E-3	-16.0979E-3	-51.2385E-12	949.667E-3	-14.6999E-3
-1.79340E-3	-51.5293E-12	953.207E-3	-12.0034E-3	-51.2674E-12	968.277E-3	-12.8948E-3
-1.79840E-3	-51.8396E-12	944.923E-3	-7.17343E-3	-51.5138E-12	979.630E-3	-66.1099E-6
-1.80340E-3	-52.2569E-12	946.939E-3	-9.15549E-3	-51.7539E-12	947.038E-3	444.483E-6
-1.80840E-3	-52.4576E-12	960.009E-3	-8.40353E-3	-52.1423E-12	924.994E-3	-6.53114E-3
-1.81341E-3	-52.5586E-12	963.859E-3	-2.70085E-3	-52.0167E-12	915.114E-3	-11.6420E-3
-1.81841E-3	-52.4244E-12	958.940E-3	537.414E-6	-52.0745E-12	901.156E-3	-11.8929E-3
-1.82341E-3	-52.8477E-12	941.307E-3	1.10733E-3	-52.4892E-12	902.093E-3	-3.27064E-3
-1.82841E-3	-52.9633E-12	918.673E-3	7.68534E-3	-53.0418E-12	903.089E-3	5.41808E-3
-1.83342E-3	-53.0131E-12	909.277E-3	18.6054E-3	-53.3165E-12	897.664E-3	-1.29640E-3
-1.83842E-3	-53.1905E-12	901.402E-3	8.58334E-3	-53.4774E-12	894.355E-3	-14.1754E-3
-1.84342E-3	-53.2202E-12	890.496E-3	-14.6080E-3	-54.3079E-12	904.823E-3	-13.2592E-3
-1.84842E-3	-53.2726E-12	884.590E-3	-23.9837E-3	-54.9194E-12	924.710E-3	-15.4649E-3
-1.85343E-3	-53.2573E-12	875.508E-3	-23.2546E-3	-54.7903E-12	934.108E-3	-24.7801E-3
-1.85843E-3	-53.6181E-12	873.892E-3	-12.4918E-3	-55.6807E-12	931.225E-3	-16.9663E-3
-1.86343E-3	-53.8687E-12	887.722E-3	-894.750E-6	-56.4278E-12	915.234E-3	-10.1282E-3
-1.86843E-3	-54.3243E-12	890.684E-3	-13.2703E-3	-56.8348E-12	905.524E-3	-21.1622E-3
-1.87344E-3	-54.6914E-12	866.672E-3	-31.0151E-3	-57.1836E-12	904.811E-3	-25.8949E-3
-1.87844E-3	-55.6878E-12	838.038E-3	-15.7351E-3	-57.6825E-12	884.761E-3	-14.8713E-3
-1.88344E-3	-56.1761E-12	840.766E-3	2.15254E-3	-57.5242E-12	860.164E-3	-5.13825E-3
-1.88844E-3	-56.5065E-12	870.700E-3	-11.5993E-3	-57.2841E-12	858.758E-3	-17.2764E-3
-1.89345E-3	-57.2896E-12	897.425E-3	-28.5115E-3	-57.2628E-12	870.076E-3	-37.1292E-3
-1.89845E-3	-57.8025E-12	899.749E-3	-28.1381E-3	-57.6114E-12	873.948E-3	-42.1112E-3
-1.90345E-3	-58.0021E-12	879.672E-3	-19.4509E-3	-57.7161E-12	859.968E-3	-41.7793E-3
-1.90845E-3	-58.1340E-12	865.849E-3	-20.7615E-3	-57.1333E-12	844.605E-3	-38.3044E-3
-1.91346E-3	-58.8647E-12	859.911E-3	-30.3102E-3	-57.4629E-12	837.211E-3	-22.0216E-3
-1.91846E-3	-59.3031E-12	863.591E-3	-34.2878E-3	-57.8455E-12	837.406E-3	-12.3795E-3
-1.92346E-3	-59.2341E-12	883.977E-3	-30.9775E-3	-58.3315E-12	841.284E-3	-22.7374E-3
-1.92846E-3	-59.1375E-12	893.704E-3	-25.6872E-3	-57.9454E-12	834.247E-3	-28.9602E-3
-1.93347E-3	-59.4334E-12	882.151E-3	-29.7631E-3	-58.2832E-12	822.916E-3	-15.3607E-3
-1.93847E-3	-59.7103E-12	863.127E-3	-23.4097E-3	-59.3400E-12	828.569E-3	-5.50810E-3
-1.94347E-3	-59.7588E-12	850.969E-3	-2.20910E-3	-59.6273E-12	858.032E-3	-15.5134E-3
-1.94847E-3	-59.4755E-12	846.087E-3	-6.70590E-3	-59.9230E-12	873.475E-3	-27.5442E-3
-1.95348E-3	-59.7816E-12	837.772E-3	-22.6451E-3	-60.5342E-12	861.017E-3	-35.7574E-3
-1.95848E-3	-60.3529E-12	834.901E-3	-15.1007E-3	-61.4923E-12	842.664E-3	-34.3625E-3
-1.96348E-3	-60.7163E-12	845.495E-3	-1.64822E-3	-61.7792E-12	824.811E-3	-18.3170E-3
-1.96848E-3	-60.6798E-12	848.360E-3	-8.23989E-3	-61.8127E-12	816.590E-3	-3.49135E-3
-1.97349E-3	-61.2626E-12	845.231E-3	-20.3055E-3	-61.8096E-12	819.659E-3	2.81726E-3
-1.97849E-3	-61.7540E-12	845.462E-3	-23.5193E-3	-61.9887E-12	823.192E-3	3.44316E-3
-1.98349E-3	-61.9307E-12	838.949E-3	-13.2187E-3	-61.9842E-12	821.608E-3	-1.21482E-3
-1.98849E-3	-62.7704E-12	836.952E-3	1.28458E-3	-61.8998E-12	811.959E-3	-1.92184E-3
-1.99350E-3	-63.0861E-12	841.553E-3	-8.80397E-3	-61.9183E-12	799.364E-3	11.6039E-3
-1.99850E-3	-63.4030E-12	844.972E-3	-23.2739E-3	-62.0187E-12	800.194E-3	19.9370E-3
-2.00350E-3	-63.6914E-12	843.032E-3	-18.1866E-3	-62.1099E-12	812.645E-3	3.60139E-3
-2.00850E-3	-64.2670E-12	825.905E-3	-13.0233E-3	-62.1158E-12	808.195E-3	-12.5550E-3
-2.01351E-3	-64.8956E-12	815.134E-3	-8.82800E-3	-62.7175E-12	797.477E-3	-12.2659E-3
-2.01851E-3	-65.1212E-12	816.857E-3	-2.66670E-3	-62.7210E-12	800.463E-3	-15.2568E-3
-2.02351E-3	-65.1728E-12	822.823E-3	-8.75325E-3	-63.1031E-12	801.958E-3	-19.1747E-3
-2.02851E-3	-65.4698E-12	834.893E-3	-19.2397E-3	-63.6520E-12	795.700E-3	-13.5510E-3
-2.03352E-3	-65.9935E-12	830.389E-3	-16.0197E-3	-64.2158E-12	791.169E-3	-12.9810E-3
-2.03852E-3	-65.7343E-12	821.277E-3	-9.53483E-3	-64.6776E-12	788.318E-3	-19.0776E-3
-2.04352E-3	-65.7356E-12	820.594E-3	-16.3169E-3	-65.3467E-12	793.130E-3	-22.8687E-3
-2.04852E-3	-65.8916E-12	815.318E-3	-24.5239E-3	-65.9018E-12	806.860E-3	-19.9930E-3
-2.05353E-3	-66.4768E-12	811.435E-3	-23.7302E-3	-66.5548E-12	810.076E-3	-16.6663E-3
-2.05853E-3	-66.0577E-12	816.051E-3	-19.7996E-3	-67.0103E-12	805.977E-3	-19.5705E-3
-2.06353E-3	-66.1067E-12	820.777E-3	-17.9992E-3	-67.3768E-12	805.049E-3	-12.5633E-3
-2.06853E-3	-66.4710E-12	818.079E-3	-20.5984E-3	-67.4910E-12	806.030E-3	-13.7620E-3
-2.07354E-3	-66.5822E-12	805.686E-3	-24.1326E-3	-67.8256E-12	800.315E-3	-24.6159E-3
-2.07854E-3	-66.2122E-12	785.494E-3	-26.9720E-3	-68.2116E-12	792.497E-3	-19.9532E-3
-2.08354E-3	-66.2995E-12	766.939E-3	-29.9607E-3	-68.3024E-12	804.513E-3	-9.44669E-3
-2.08854E-3	-67.0151E-12	748.393E-3	-19.9922E-3	-68.2373E-12	812.328E-3	-401.201E-6
-2.09355E-3	-67.3496E-12	744.117E-3	-3.27423E-3	-68.3527E-12	804.275E-3	-2.90193E-3
-2.09855E-3	-67.4969E-12	772.055E-3	-1.56566E-3	-68.8763E-12	798.266E-3	-10.5454E-3
-2.10355E-3	-67.8229E-12	801.531E-3	-8.98406E-3	-68.9493E-12	791.753E-3	-9.85899E-3
-2.10855E-3	-68.5020E-12	794.835E-3	-14.3248E-3	-69.1761E-12	786.998E-3	-1.66087E-3
-2.11356E-3	-68.8494E-12	767.765E-3	-12.1979E-3	-69.3078E-12	776.853E-3	15.4106E-3
-2.11856E-3	-68.9872E-12	758.571E-3	-4.30222E-3	-69.5391E-12	755.734E-3	19.9728E-3
-2.12356E-3	-69.6229E-12	784.221E-3	-4.18382E-3	-70.0303E-12	749.126E-3	4.46008E-3
-2.12856E-3	-69.9675E-12	810.930E-3	-20.4630E-3	-70.6795E-12	769.943E-3	-8.01055E-3
-2.13357E-3	-70.2739E-12	800.422E-3	-27.0530E-3	-70.9343E-12	785.866E-3	-13.1619E-3
-2.13857E-3	-70.3301E-12	789.148E-3	-14.1605E-3	-70.7493E-12	791.631E-3	-18.8136E-3
-2.14357E-3	-70.5438E-12	791.264E-3	1.58581E-3	-71.2426E-12	792.823E-3	-21.8097E-3
-2.14857E-3	-70.3877E-12	788.901E-3	6.75398E-3	-71.7595E-12	779.688E-3	-14.3504E-3
-2.15358E-3	-70.8134E-12	785.763E-3	421.910E-6	-72.2982E-12	772.693E-3	-9.50219E-3
-2.15858E-3	-70.9933E-12	779.671E-3	-3.39308E-3	-72.6964E-12	773.220E-3	-14.2829E-3
-2.16358E-3	-71.1361E-12	765.093E-3	-8.40752E-3	-72.9756E-12	776.330E-3	-17.9225E-3
-2.16858E-3	-71.2597E-12	755.418E-3	-15.5934E-3	-73.3251E-12	786.595E-3	-27.1377E-3
-2.17359E-3	-71.2435E-12	764.407E-3	-16.0016E-3	-73.4758E-12	791.890E-3	-30.0304E-3
-2.17859E-3	-71.1460E-12	768.092E-3	-15.8896E-3	-73.3679E-12	787.920E-3	-33.4127E-3
-2.18359E-3	-71.4494E-12	756.060E-3	-31.7209E-3	-73.4678E-12	782.456E-3	-45.3901E-3
-2.18859E-3	-71.7376E-12	750.248E-3	-49.9890E-3	-74.0978E-12	784.964E-3	-33.3782E-3
-2.19360E-3	-72.0524E-12	750.957E-3	-43.7493E-3	-74.3179E-12	787.102E-3	-21.0889E-3
-2.19860E-3	-72.5829E-12	752.855E-3	-33.0436E-3	-74.4374E-12	775.931E-3	-28.0434E-3
-2.20360E-3	-73.1326E-12	754.160E-3	-44.9099E-3	-74.2961E-12	764.757E-3	-20.2001E-3
-2.20860E-3	-74.0764E-12	753.574E-3	-51.1105E-3	-74.7267E-12	759.104E-3	-13.3780E-3
-2.21361E-3	-74.7572E-12	751.884E-3	-36.2737E-3	-74.6974E-12	758.488E-3	-18.8166E-3
-2.21861E-3	-75.0427E-12	752.185E-3	-28.4402E-3	-74.0723E-12	752.768E-3	-23.1429E-3
-2.22361E-3	-75.6905E-12	760.911E-3	-23.8771E-3	-74.2304E-12	740.036E-3	-20.4865E-3
-2.22861E-3	-76.5992E-12	768.982E-3	-8.77781E-3	-74.8576E-12	737.611E-3	-10.1563E-3
-2.23362E-3	-77.0829E-12	768.417E-3	-3.68966E-3	-74.9663E-12	736.886E-3	-1.92400E-3
-2.23862E-3	-76.9451E-12	769.773E-3	-5.89379E-3	-74.3866E-12	734.539E-3	7.09817E-3
-2.24362E-3	-77.0832E-12	783.534E-3	-2.76202E-3	-74.7718E-12	739.285E-3	-1.82998E-3
-2.24862E-3	-77.0854E-12	785.734E-3	89.4428E-6	-75.3186E-12	741.591E-3	-23.1862E-3
-2.25363E-3	-77.4052E-12	770.396E-3	3.97859E-3	-75.2438E-12	744.070E-3	-16.9422E-3
-2.25863E-3	-77.1553E-12	754.742E-3	-4.57189E-3	-75.5901E-12	753.766E-3	6.82554E-3
-2.26363E-3	-76.8000E-12	744.138E-3	-25.4906E-3	-76.1912E-12	770.990E-3	11.9797E-3
-2.26863E-3	-76.2003E-12	756.373E-3	-42.5895E-3	-76.8881E-12	774.940E-3	-4.27025E-3
-2.27364E-3	-76.3562E-12	774.981E-3	-41.2780E-3	-77.1762E-12	753.269E-3	-19.3042E-3
-2.27864E-3	-76.4861E-12	757.780E-3	-23.3750E-3	-77.5022E-12	739.496E-3	-26.0255E-3
-2.28364E-3	-76.2658E-12	731.549E-3	-22.8326E-3	-78.2583E-12	741.698E-3	-26.0029E-3
-2.28864E-3	-76.3448E-12	735.894E-3	-34.9774E-3	-78.5591E-12	742.424E-3	-22.2120E-3
-2.29365E-3	-76.4362E-12	736.925E-3	-31.4224E-3	-78.8844E-12	738.778E-3	-15.2162E-3
-2.29865E-3	-77.1848E-12	716.961E-3	-7.75374E-3	-78.9424E-12	746.312E-3	-9.00824E-3
-2.30365E-3	-77.8459E-12	713.759E-3	-2.86636E-3	-79.2669E-12	756.805E-3	-6.06369E-3
-2.30865E-3	-78.1765E-12	726.214E-3	-37.7644E-3	-79.5564E-12	747.866E-3	378.548E-6
-2.31366E-3	-78.2440E-12	710.374E-3	-58.7439E-3	-78.9216E-12	741.248E-3	-3.10688E-3
-2.31866E-3	-79.4882E-12	695.437E-3	-41.7344E-3	-78.8319E-12	749.665E-3	-18.1811E-3
-2.32366E-3	-79.9207E-12	718.164E-3	-2.58999E-3	-78.9585E-12	753.856E-3	-26.5522E-3
-2.32866E-3	-80.6070E-12	736.554E-3	25.7872E-3	-78.7535E-12	756.331E-3	-17.9166E-3
-2.33367E-3	-80.7660E-12	746.965E-3	5.92697E-3	-78.6684E-12	755.042E-3	-10.2606E-3
-2.33867E-3	-81.3729E-12	768.002E-3	-28.6673E-3	-79.1036E-12	739.746E-3	-12.6162E-3
-2.34367E-3	-81.8156E-12	770.268E-3	-37.5031E-3	-79.3142E-12	725.568E-3	-10.4489E-3
-2.34867E-3	-82.1562E-12	747.790E-3	-31.7184E-3	-79.7768E-12	733.779E-3	-18.6248E-3
-2.35368E-3	-81.4016E-12	735.936E-3	-31.6166E-3	-80.1194E-12	752.310E-3	-36.4408E-3
-2.35868E-3	-81.6906E-12	746.154E-3	-36.2087E-3	-80.9698E-12	749.312E-3	-36.8252E-3
-2.36368E-3	-81.6523E-12	750.272E-3	-34.1249E-3	-81.6136E-12	733.033E-3	-16.7517E-3
-2.36868E-3	-81.5627E-12	739.688E-3	-14.7441E-3	-81.8371E-12	727.938E-3	-623.247E-6
-2.37369E-3	-81.0232E-12	726.600E-3	4.16946E-3	-82.2792E-12	731.649E-3	3.22063E-3
-2.37869E-3	-81.3546E-12	710.175E-3	-567.226E-6	-82.9831E-12	736.100E-3	13.3393E-3
-2.38369E-3	-81.6595E-12	708.608E-3	-6.02665E-3	-83.3896E-12	742.690E-3	14.8742E-3
-2.38869E-3	-81.7731E-12	724.479E-3	-2.35907E-3	-83.1412E-12	745.709E-3	-11.1115E-3
-2.39370E-3	-81.4324E-12	733.329E-3	3.86757E-3	-83.5114E-12	739.941E-3	-35.0748E-3
-2.39870E-3	-82.3576E-12	716.394E-3	9.10668E-3	-83.7222E-12	724.195E-3	-42.4421E-3
-2.40370E-3	-82.9204E-12	686.546E-3	-2.73628E-3	-83.7288E-12	714.141E-3	-49.2570E-3
-2.40870E-3	-82.8034E-12	690.832E-3	-27.7302E-3	-83.3182E-12	728.915E-3	-46.6756E-3
-2.41371E-3	-83.3320E-12	715.465E-3	-39.2831E-3	-83.5332E-12	746.916E-3	-29.7051E-3
-2.41871E-3	-84.3562E-12	710.701E-3	-25.3977E-3	-83.7742E-12	740.856E-3	-20.2045E-3
-2.42371E-3	-84.7197E-12	687.987E-3	-5.29419E-3	-84.1788E-12	734.435E-3	-19.5392E-3
-2.42871E-3	-84.5777E-12	692.024E-3	3.99174E-3	-84.0787E-12	730.186E-3	-13.6907E-3
-2.43372E-3	-85.2556E-12	715.896E-3	-3.29895E-3	-83.8644E-12	717.071E-3	-7.81126E-3
-2.43872E-3	-85.8707E-12	721.376E-3	-25.0696E-3	-84.5316E-12	720.543E-3	-16.9032E-3
-2.44372E-3	-86.1828E-12	715.131E-3	-41.3584E-3	-85.2695E-12	737.446E-3	-37.4383E-3
-2.44872E-3	-85.8557E-12	714.294E-3	-36.8363E-3	-85.8716E-12	743.184E-3	-54.9764E-3
-2.45373E-3	-86.2799E-12	721.702E-3	-15.1642E-3	-85.9725E-12	737.555E-3	-53.0220E-3
-2.45873E-3	-86.9123E-12	737.422E-3	7.78523E-3	-86.7887E-12	734.234E-3	-35.6604E-3
-2.46373E-3	-86.8378E-12	747.501E-3	2.41017E-3	-87.4442E-12	728.912E-3	-24.5533E-3
-2.46873E-3	-86.5970E-12	731.789E-3	-22.9126E-3	-88.0260E-12	720.111E-3	-19.9350E-3
-2.47374E-3	-86.6469E-12	714.993E-3	-17.5030E-3	-88.7356E-12	724.222E-3	-22.8259E-3
-2.47874E-3	-87.2572E-12	726.895E-3	2.79110E-3	-89.1721E-12	739.875E-3	-17.8695E-3
-2.48374E-3	-87.2336E-12	749.881E-3	-2.81081E-3	-89.5062E-12	756.764E-3	4.32412E-3
-2.48874E-3	-87.3248E-12	748.346E-3	-11.7413E-3	-89.8963E-12	762.018E-3	10.0578E-3
-2.49375E-3	-87.5277E-12	720.470E-3	-3.66997E-3	-90.2362E-12	742.766E-3	-11.5171E-3
-2.49875E-3	-87.9607E-12	700.426E-3	8.76373E-3	-90.1623E-12	719.820E-3	-36.4024E-3
-2.50375E-3	-88.6907E-12	709.780E-3	7.88250E-3	-90.1526E-12	720.090E-3	-46.5400E-3
-2.50875E-3	-88.5230E-12	736.121E-3	-1.59229E-3	-89.6298E-12	728.128E-3	-55.4060E-3
-2.51376E-3	-88.9093E-12	752.016E-3	-10.8194E-3	-90.1098E-12	721.707E-3	-54.3454E-3
-2.51876E-3	-89.3680E-12	749.263E-3	-33.3398E-3	-90.2697E-12	704.724E-3	-26.9041E-3
-2.52376E-3	-90.3084E-12	726.236E-3	-41.5205E-3	-89.9773E-12	692.961E-3	-4.78850E-3
-2.52876E-3	-90.1932E-12	694.584E-3	-24.5411E-3	-89.3498E-12	688.936E-3	-4.81590E-3
-2.53377E-3	-90.1897E-12	694.150E-3	-8.81679E-3	-89.7446E-12	692.205E-3	-16.6318E-3
-2.53877E-3	-90.4725E-12	713.930E-3	8.77412E-3	-90.2813E-12	704.661E-3	-33.5320E-3
-2.54377E-3	-90.5787E-12	713.010E-3	9.47302E-3	-89.9197E-12	708.264E-3	-41.4948E-3
-2.54877E-3	-91.2422E-12	711.359E-3	-17.8897E-3	-89.6549E-12	709.507E-3	-29.0755E-3
-2.55378E-3	-91.5513E-12	713.842E-3	-40.4366E-3	-90.1419E-12	727.323E-3	-11.7413E-3
-2.55878E-3	-91.8652E-12	709.051E-3	-37.3156E-3	-91.0360E-12	737.227E-3	-23.0189E-3
-2.56378E-3	-92.2131E-12	715.288E-3	-27.7056E-3	-90.7171E-12	721.502E-3	-36.6267E-3
-2.56878E-3	-92.4012E-12	725.863E-3	-22.9829E-3	-90.6633E-12	694.501E-3	-22.6117E-3
-2.57379E-3	-93.1037E-12	731.129E-3	-21.2235E-3	-91.0574E-12	675.556E-3	-3.51436E-3
-2.57879E-3	-93.0503E-12	727.169E-3	-21.6991E-3	-91.4945E-12	680.467E-3	6.31725E-3
-2.58379E-3	-93.2042E-12	711.564E-3	-8.30164E-3	-91.5647E-12	700.260E-3	-2.52442E-3
-2.58879E-3	-93.0424E-12	711.727E-3	-4.61186E-3	-92.0748E-12	704.328E-3	-6.73523E-3
-2.59380E-3	-93.5866E-12	731.185E-3	-23.8995E-3	-92.2083E-12	701.368E-3	-1.50848E-3
-2.59880E-3	-93.4518E-12	741.553E-3	-29.3343E-3	-92.5561E-12	705.706E-3	-25.0438E-3
-2.60380E-3	-93.3411E-12	715.113E-3	-14.0831E-3	-92.8857E-12	698.198E-3	-57.4520E-3
-2.60880E-3	-93.7954E-12	672.413E-3	-6.88213E-3	-93.0128E-12	688.217E-3	-62.8062E-3
-2.61381E-3	-94.0674E-12	668.340E-3	-14.5751E-3	-93.2368E-12	694.617E-3	-37.5012E-3
-2.61881E-3	-93.8596E-12	690.818E-3	-26.0235E-3	-93.6303E-12	695.741E-3	-8.54655E-3
-2.62381E-3	-93.9999E-12	705.262E-3	-29.0929E-3	-93.5892E-12	698.296E-3	-14.2707E-3
-2.62881E-3	-94.4665E-12	698.652E-3	-10.1240E-3	-93.8235E-12	710.837E-3	-28.6030E-3
-2.63382E-3	-94.6759E-12	683.273E-3	1.91321E-3	-93.8722E-12	709.149E-3	-27.1428E-3
-2.63882E-3	-94.9016E-12	693.477E-3	-7.46925E-3	-94.0674E-12	698.047E-3	-22.5957E-3
-2.64382E-3	-95.9064E-12	713.775E-3	-17.8010E-3	-93.4829E-12	677.769E-3	-26.4422E-3
-2.64882E-3	-96.6892E-12	710.478E-3	-33.4242E-3	-93.8956E-12	655.830E-3	-32.6228E-3
-2.65383E-3	-97.2310E-12	690.189E-3	-47.8551E-3	-94.4564E-12	665.996E-3	-18.0624E-3
-2.65883E-3	-97.2316E-12	680.374E-3	-41.9019E-3	-94.3505E-12	694.621E-3	-4.58700E-3
-2.66383E-3	-97.0623E-12	682.762E-3	-14.2379E-3	-94.2632E-12	704.234E-3	-624.180E-6
-2.66883E-3	-97.4879E-12	686.097E-3	8.50310E-3	-95.4390E-12	701.219E-3	9.93766E-3
-2.67384E-3	-97.8736E-12	692.567E-3	10.8082E-3	-95.7511E-12	702.236E-3	11.5274E-3
-2.67884E-3	-97.1267E-12	702.039E-3	6.14383E-3	-95.8762E-12	706.473E-3	3.45431E-3
-2.68384E-3	-96.4748E-12	707.960E-3	-16.1608E-3	-96.3253E-12	710.359E-3	-7.19877E-3
-2.68884E-3	-96.9580E-12	719.107E-3	-34.7646E-3	-96.5837E-12	720.698E-3	-23.8755E-3
-2.69385E-3	-96.4912E-12	734.447E-3	-20.0326E-3	-96.9666E-12	722.748E-3	-31.9888E-3
-2.69885E-3	-95.8809E-12	729.152E-3	1.32929E-3	-97.5696E-12	706.984E-3	-26.4384E-3
-2.70385E-3	-95.3195E-12	703.726E-3	7.89850E-3	-97.9017E-12	700.475E-3	-21.7866E-3
-2.70885E-3	-95.4493E-12	671.772E-3	1.46324E-3	-97.9281E-12	697.092E-3	-21.5879E-3
-2.71386E-3	-95.7675E-12	651.319E-3	-13.6215E-3	-98.3479E-12	687.865E-3	-6.68735E-3
-2.71886E-3	-95.5736E-12	655.777E-3	-35.9688E-3	-98.7542E-12	680.976E-3	2.08179E-3
-2.72386E-3	-96.0737E-12	663.532E-3	-38.3012E-3	-99.1181E-12	675.551E-3	-2.74598E-3
-2.72886E-3	-96.9083E-12	654.414E-3	-12.6509E-3	-98.7749E-12	679.178E-3	-1.86625E-3
-2.73387E-3	-97.8216E-12	651.890E-3	3.13818E-3	-98.8814E-12	692.619E-3	-7.46225E-3
-2.73887E-3	-97.9695E-12	667.775E-3	4.14490E-3	-99.4684E-12	698.637E-3	-595.564E-6
-2.74387E-3	-99.1569E-12	667.849E-3	-2.50736E-3	-99.1600E-12	692.484E-3	8.50777E-3
-2.74887E-3	-100.225E-12	669.536E-3	-19.6238E-3	-99.3870E-12	684.867E-3	-853.829E-6
-2.75388E-3	-100.826E-12	687.517E-3	-23.0123E-3	-99.6745E-12	680.466E-3	-13.1244E-3
-2.75888E-3	-100.703E-12	693.208E-3	-18.5562E-3	-100.330E-12	692.570E-3	-8.36583E-3
-2.76388E-3	-101.707E-12	701.189E-3	-19.8854E-3	-100.498E-12	702.458E-3	4.25390E-3
-2.76888E-3	-101.941E-12	713.535E-3	-7.31428E-3	-101.052E-12	691.821E-3	4.33854E-3
-2.77389E-3	-101.175E-12	719.608E-3	7.94705E-3	-101.092E-12	690.155E-3	154.558E-6
-2.77889E-3	-101.264E-12	707.667E-3	-4.27005E-3	-101.295E-12	706.962E-3	-9.12406E-3
-2.78389E-3	-101.342E-12	675.182E-3	-20.4884E-3	-101.808E-12	713.803E-3	-12.2194E-3
-2.78889E-3	-101.289E-12	645.783E-3	-11.6741E-3	-102.644E-12	701.213E-3	-10.0581E-3
-2.79390E-3	-100.523E-12	652.088E-3	-13.7223E-3	-102.846E-12	685.596E-3	-28.5321E-3
-2.79890E-3	-100.549E-12	691.772E-3	-32.3120E-3	-103.399E-12	688.084E-3	-50.3902E-3
-2.80390E-3	-101.036E-12	710.407E-3	-34.9297E-3	-103.536E-12	705.257E-3	-45.4995E-3
-2.80890E-3	-101.344E-12	681.859E-3	-20.4958E-3	-103.811E-12	701.341E-3	-37.2517E-3
-2.81391E-3	-101.094E-12	649.204E-3	-6.21956E-3	-104.054E-12	686.534E-3	-46.7472E-3
-2.81891E-3	-101.686E-12	647.140E-3	-9.18509E-3	-104.193E-12	690.437E-3	-47.3339E-3
-2.82391E-3	-102.494E-12	666.142E-3	-25.7265E-3	-103.774E-12	695.478E-3	-31.3119E-3
-2.82891E-3	-103.186E-12	686.768E-3	-26.2000E-3	-104.066E-12	691.018E-3	-26.0132E-3
-2.83392E-3	-103.415E-12	683.066E-3	-22.4282E-3	-104.444E-12	687.858E-3	-28.7603E-3
-2.83892E-3	-104.693E-12	669.251E-3	-36.2155E-3	-104.054E-12	691.677E-3	-14.7592E-3
-2.84392E-3	-105.497E-12	685.763E-3	-41.4382E-3	-104.002E-12	694.459E-3	-5.49156E-3
-2.84892E-3	-105.849E-12	716.812E-3	-30.8807E-3	-103.929E-12	684.476E-3	-14.2081E-3
-2.85393E-3	-106.044E-12	724.237E-3	-29.8036E-3	-104.371E-12	681.957E-3	-15.6166E-3
-2.85893E-3	-106.530E-12	714.238E-3	-29.1782E-3	-104.825E-12	690.136E-3	-11.3789E-3
-2.86393E-3	-106.651E-12	700.012E-3	-3.98620E-3	-105.026E-12	682.224E-3	-23.9118E-3
-2.86893E-3	-106.096E-12	689.537E-3	10.9644E-3	-105.358E-12	676.498E-3	-31.5545E-3
-2.87394E-3	-106.115E-12	694.918E-3	-5.52758E-3	-105.214E-12	694.547E-3	-16.0575E-3
-2.87894E-3	-106.020E-12	691.903E-3	-27.7588E-3	-106.130E-12	717.794E-3	-2.11850E-3
-2.88394E-3	-105.862E-12	681.533E-3	-37.0016E-3	-106.977E-12	728.076E-3	-13.4427E-3
-2.88894E-3	-105.626E-12	697.797E-3	-32.1096E-3	-107.674E-12	723.305E-3	-40.9553E-3
-2.89395E-3	-105.657E-12	719.087E-3	-17.8621E-3	-107.371E-12	716.465E-3	-54.2519E-3
-2.89895E-3	-105.999E-12	722.968E-3	-11.1002E-3	-108.458E-12	722.915E-3	-54.6184E-3
-2.90395E-3	-106.352E-12	711.906E-3	-22.1692E-3	-108.899E-12	727.292E-3	-57.4254E-3
-2.90895E-3	-106.200E-12	683.771E-3	-24.2643E-3	-109.114E-12	713.155E-3	-65.3089E-3
-2.91396E-3	-107.050E-12	657.004E-3	-15.0043E-3	-108.653E-12	694.014E-3	-51.5937E-3
-2.91896E-3	-107.765E-12	656.112E-3	-20.0985E-3	-109.361E-12	679.813E-3	-33.0454E-3
-2.92396E-3	-108.188E-12	683.861E-3	-21.1516E-3	-109.517E-12	670.671E-3	-31.9546E-3
-2.92896E-3	-108.146E-12	698.786E-3	-879.534E-6	-108.775E-12	661.757E-3	-13.3985E-3
-2.93397E-3	-108.947E-12	679.643E-3	16.0848E-3	-108.351E-12	656.320E-3	-3.63387E-3
-2.93897E-3	-109.440E-12	671.999E-3	12.4957E-3	-108.638E-12	664.999E-3	-35.1370E-3
-2.94397E-3	-109.507E-12	684.970E-3	-6.19052E-3	-108.628E-12	675.898E-3	-47.1621E-3
-2.94897E-3	-109.488E-12	690.870E-3	-23.1975E-3	-108.082E-12	677.741E-3	-18.9690E-3
-2.95398E-3	-109.938E-12	688.646E-3	-22.4455E-3	-108.121E-12	674.799E-3	-6.02550E-3
-2.95898E-3	-110.257E-12	696.895E-3	-6.28872E-3	-108.932E-12	670.412E-3	-10.1921E-3
-2.96398E-3	-110.718E-12	702.721E-3	2.22727E-3	-109.473E-12	676.856E-3	-9.19427E-3
-2.96898E-3	-110.388E-12	682.789E-3	3.88388E-3	-109.847E-12	702.423E-3	-20.7824E-3
-2.97399E-3	-109.985E-12	663.473E-3	-564.488E-6	-109.767E-12	710.638E-3	-28.1501E-3
-2.97899E-3	-110.446E-12	672.098E-3	-18.0645E-3	-110.482E-12	682.964E-3	-6.43060E-3
-2.98399E-3	-110.681E-12	705.168E-3	-24.5346E-3	-111.147E-12	664.641E-3	14.0004E-3
-2.98899E-3	-110.717E-12	723.293E-3	-15.8053E-3	-111.360E-12	676.587E-3	4.46843E-3
-2.99400E-3	-110.580E-12	718.733E-3	-23.9757E-3	-111.836E-12	697.156E-3	-14.3327E-3
-2.99900E-3	-111.346E-12	712.819E-3	-38.1889E-3	-111.878E-12	705.382E-3	-16.6984E-3
-3.00400E-3	-111.682E-12	683.235E-3	-35.7521E-3	-112.183E-12	706.275E-3	269.261E-6
-3.00900E-3	-111.034E-12	664.131E-3	-24.2599E-3	-112.432E-12	694.767E-3	9.40416E-3
-3.01401E-3	-111.294E-12	673.601E-3	-17.4033E-3	-112.784E-12	672.639E-3	-5.73616E-3
-3.01901E-3	-112.161E-12	669.874E-3	-22.6351E-3	-112.512E-12	659.916E-3	-7.47758E-3
-3.02401E-3	-111.539E-12	667.095E-3	-37.1720E-3	-111.959E-12	669.374E-3	3.29462E-3
-3.02901E-3	-111.101E-12	678.216E-3	-44.6959E-3	-112.164E-12	696.014E-3	-37.7375E-6
-3.03402E-3	-112.223E-12	670.365E-3	-31.5992E-3	-112.872E-12	703.257E-3	1.01357E-3
-3.03902E-3	-112.445E-12	636.316E-3	-17.9577E-3	-112.481E-12	682.679E-3	5.37415E-3
-3.04402E-3	-112.606E-12	625.537E-3	-5.29383E-3	-112.125E-12	671.625E-3	-3.35285E-3
-3.04902E-3	-112.628E-12	647.581E-3	8.75473E-3	-112.939E-12	674.131E-3	-15.6455E-3
-3.05403E-3	-113.550E-12	681.997E-3	14.7623E-3	-113.383E-12	679.077E-3	-13.7174E-3
-3.05903E-3	-114.833E-12	702.071E-3	21.1983E-3	-113.493E-12	686.881E-3	-13.3724E-3
-3.06403E-3	-114.963E-12	694.199E-3	26.3959E-3	-113.838E-12	672.435E-3	-26.8732E-3
-3.06903E-3	-115.522E-12	687.888E-3	21.6930E-3	-114.168E-12	655.943E-3	-39.9938E-3
-3.07404E-3	-116.640E-12	681.486E-3	9.85419E-3	-114.793E-12	672.952E-3	-44.9430E-3
-3.07904E-3	-117.875E-12	682.276E-3	-1.47802E-3	-115.906E-12	693.101E-3	-39.0002E-3
-3.08404E-3	-117.912E-12	698.409E-3	-21.5506E-3	-115.849E-12	677.111E-3	-33.0701E-3
-3.08904E-3	-118.338E-12	705.113E-3	-30.6633E-3	-115.898E-12	659.205E-3	-22.8503E-3
-3.09405E-3	-118.325E-12	688.180E-3	-15.8496E-3	-116.315E-12	673.406E-3	-17.3239E-3
-3.09905E-3	-119.061E-12	664.663E-3	-14.6476E-3	-117.052E-12	686.898E-3	-12.8110E-3
-3.10405E-3	-118.346E-12	658.154E-3	-30.5282E-3	-117.909E-12	687.592E-3	-6.42323E-3
-3.10905E-3	-117.802E-12	665.204E-3	-31.3607E-3	-117.414E-12	672.368E-3	-2.66353E-3
-3.11406E-3	-117.733E-12	664.991E-3	-22.8810E-3	-117.095E-12	655.358E-3	6.11915E-3
-3.11906E-3	-116.865E-12	659.361E-3	-16.8949E-3	-117.933E-12	660.733E-3	-315.857E-6
-3.12406E-3	-115.743E-12	671.910E-3	-15.5465E-3	-118.220E-12	672.996E-3	-14.9358E-3
-3.12906E-3	-115.962E-12	692.818E-3	-22.9422E-3	-117.834E-12	678.206E-3	-6.22384E-3
-3.13407E-3	-116.137E-12	687.619E-3	-21.9135E-3	-118.014E-12	663.721E-3	4.00831E-3
-3.13907E-3	-115.819E-12	655.276E-3	-15.9860E-3	-117.980E-12	640.007E-3	-14.7091E-3
-3.14407E-3	-115.865E-12	644.601E-3	-22.8011E-3	-117.964E-12	634.297E-3	-32.9845E-3
-3.14907E-3	-117.760E-12	666.690E-3	-24.2897E-3	-118.096E-12	642.684E-3	-39.6690E-3
-3.15408E-3	-118.562E-12	676.665E-3	-656.816E-6	-118.166E-12	652.530E-3	-35.2585E-3
-3.15908E-3	-118.542E-12	672.846E-3	13.7805E-3	-117.916E-12	641.231E-3	-27.8608E-3
-3.16408E-3	-119.212E-12	677.110E-3	2.97667E-3	-118.495E-12	611.445E-3	-30.7574E-3
-3.16908E-3	-120.803E-12	676.461E-3	-13.3162E-3	-119.320E-12	616.640E-3	-38.7769E-3
-3.17409E-3	-121.539E-12	665.747E-3	-22.6041E-3	-119.418E-12	651.908E-3	-40.7908E-3
-3.17909E-3	-121.637E-12	668.344E-3	-16.9377E-3	-119.087E-12	668.826E-3	-29.5406E-3
-3.18409E-3	-122.539E-12	673.877E-3	-21.8442E-3	-119.261E-12	675.540E-3	-15.4764E-3
-3.18909E-3	-123.007E-12	661.718E-3	-53.8730E-3	-119.768E-12	676.332E-3	-12.6082E-3
-3.19410E-3	-122.767E-12	663.462E-3	-64.0765E-3	-120.041E-12	676.571E-3	-43.1797E-3
-3.19910E-3	-122.886E-12	691.042E-3	-23.8493E-3	-119.968E-12	694.322E-3	-58.6072E-3
-3.20410E-3	-122.743E-12	703.759E-3	-12.1369E-6	-120.666E-12	701.582E-3	-38.2108E-3
-3.20910E-3	-122.053E-12	688.040E-3	-11.3898E-3	-121.603E-12	692.717E-3	-24.2268E-3
-3.21411E-3	-121.253E-12	669.022E-3	-20.6314E-3	-122.110E-12	694.861E-3	-11.3023E-3
-3.21911E-3	-121.375E-12	655.600E-3	-28.6491E-3	-122.370E-12	716.207E-3	-7.64906E-3
-3.22411E-3	-120.232E-12	649.488E-3	-41.0625E-3	-122.836E-12	724.434E-3	-19.1813E-3
-3.22911E-3	-120.525E-12	660.503E-3	-39.5486E-3	-123.954E-12	702.411E-3	-16.1093E-3
-3.23412E-3	-120.644E-12	669.569E-3	-20.7482E-3	-124.177E-12	684.133E-3	8.72217E-3
-3.23912E-3	-120.485E-12	670.097E-3	-13.1862E-3	-123.298E-12	672.684E-3	25.0614E-3
-3.24412E-3	-121.367E-12	687.103E-3	-13.0921E-3	-123.336E-12	654.085E-3	9.13102E-3
-3.24912E-3	-122.034E-12	707.896E-3	-18.9480E-3	-124.140E-12	649.056E-3	-28.7044E-3
-3.25413E-3	-122.789E-12	701.750E-3	-27.1066E-3	-124.277E-12	664.284E-3	-48.5258E-3
-3.25913E-3	-122.943E-12	686.898E-3	-13.6290E-3	-123.043E-12	679.080E-3	-40.6650E-3
-3.26413E-3	-124.287E-12	686.092E-3	4.93065E-3	-122.507E-12	682.992E-3	-35.0067E-3
-3.26913E-3	-124.536E-12	680.910E-3	-4.51872E-3	-123.449E-12	674.879E-3	-43.5299E-3
-3.27414E-3	-125.061E-12	670.047E-3	-24.2346E-3	-123.499E-12	672.976E-3	-46.1357E-3
-3.27914E-3	-125.510E-12	659.083E-3	-10.3047E-3	-122.691E-12	676.634E-3	-22.6204E-3
-3.28414E-3	-125.456E-12	665.798E-3	23.3721E-3	-122.903E-12	677.792E-3	3.65523E-3
-3.28914E-3	-125.455E-12	685.351E-3	33.6420E-3	-123.501E-12	679.143E-3	11.0825E-3
-3.29415E-3	-125.125E-12	676.911E-3	18.7318E-3	-123.978E-12	685.875E-3	-3.00554E-3
-3.29915E-3	-125.113E-12	656.165E-3	5.16063E-3	-124.114E-12	697.117E-3	-32.2952E-3
-3.30415E-3	-124.087E-12	648.662E-3	5.55519E-3	-125.002E-12	699.683E-3	-40.8421E-3
-3.30915E-3	-123.798E-12	641.863E-3	13.2199E-3	-125.426E-12	696.249E-3	-22.9906E-3
-3.31416E-3	-123.919E-12	650.864E-3	26.0380E-3	-126.170E-12	688.774E-3	-13.0305E-3
-3.31916E-3	-123.485E-12	687.463E-3	34.0087E-3	-127.426E-12	656.828E-3	-16.0558E-3
-3.32416E-3	-123.405E-12	690.061E-3	27.5467E-3	-127.684E-12	639.293E-3	-11.7011E-3
-3.32916E-3	-123.625E-12	655.167E-3	9.03756E-3	-127.214E-12	663.226E-3	-7.83636E-3
-3.33417E-3	-123.588E-12	658.575E-3	13.6841E-3	-127.756E-12	677.130E-3	-15.4051E-3
-3.33917E-3	-123.927E-12	678.887E-3	35.1225E-3	-128.762E-12	668.048E-3	-25.6778E-3
-3.34417E-3	-125.215E-12	673.888E-3	5.72980E-3	-128.269E-12	669.102E-3	-28.7674E-3
-3.34917E-3	-125.273E-12	668.531E-3	-34.2185E-3	-127.401E-12	675.203E-3	-19.2531E-3
-3.35418E-3	-125.681E-12	669.205E-3	-22.7473E-3	-127.391E-12	664.209E-3	-19.6860E-3
-3.35918E-3	-126.497E-12	668.944E-3	3.47705E-3	-127.677E-12	652.292E-3	-42.8952E-3
-3.36418E-3	-128.311E-12	667.269E-3	14.3362E-3	-127.862E-12	645.549E-3	-38.6612E-3
-3.36918E-3	-128.858E-12	667.722E-3	9.80587E-3	-127.278E-12	634.672E-3	-2.61427E-3
-3.37419E-3	-128.813E-12	675.504E-3	-16.8808E-3	-126.957E-12	641.275E-3	1.82899E-3
-3.37919E-3	-129.891E-12	674.665E-3	-19.7452E-3	-127.306E-12	664.509E-3	-11.8258E-3
-3.38419E-3	-130.567E-12	660.921E-3	3.55474E-3	-127.776E-12	662.593E-3	-15.1391E-3
-3.38919E-3	-130.354E-12	662.062E-3	-8.05494E-3	-127.517E-12	652.388E-3	-23.4171E-3
-3.39420E-3	-130.166E-12	684.116E-3	-18.8710E-3	-128.341E-12	659.231E-3	-26.5303E-3
-3.39920E-3	-130.861E-12	698.876E-3	974.941E-6	-129.163E-12	667.285E-3	-14.3541E-3
-3.40420E-3	-131.137E-12	692.680E-3	6.58171E-3	-130.068E-12	683.028E-3	-13.2960E-3
-3.40920E-3	-131.441E-12	691.742E-3	-3.19081E-3	-130.191E-12	707.039E-3	-31.8498E-3
-3.41421E-3	-131.220E-12	698.270E-3	-4.37463E-3	-130.987E-12	708.050E-3	-44.4911E-3
-3.41921E-3	-131.272E-12	679.057E-3	-19.1326E-3	-131.238E-12	702.750E-3	-27.6728E-3
-3.42421E-3	-131.609E-12	655.442E-3	-24.2583E-3	-131.443E-12	697.105E-3	1.39467E-3
-3.42921E-3	-131.359E-12	653.955E-3	15.5179E-3	-131.926E-12	663.211E-3	-3.19233E-3
-3.43422E-3	-131.389E-12	665.238E-3	42.9171E-3	-131.870E-12	653.607E-3	-39.1274E-3
-3.43922E-3	-131.812E-12	688.058E-3	31.6637E-3	-131.912E-12	685.384E-3	-64.5008E-3
-3.44422E-3	-132.579E-12	698.244E-3	8.43522E-3	-132.284E-12	693.561E-3	-64.3721E-3
-3.44922E-3	-131.282E-12	686.872E-3	-26.2526E-3	-131.963E-12	678.919E-3	-61.2948E-3
-3.45423E-3	-131.621E-12	681.297E-3	-47.6760E-3	-132.436E-12	662.119E-3	-66.8732E-3
-3.45923E-3	-132.588E-12	685.247E-3	-23.4522E-3	-132.698E-12	645.631E-3	-54.1923E-3
-3.46423E-3	-131.568E-12	684.841E-3	-987.889E-6	-133.055E-12	645.339E-3	-15.1021E-3
-3.46923E-3	-131.329E-12	669.919E-3	-11.2113E-3	-133.359E-12	657.035E-3	7.72135E-3
-3.47424E-3	-132.528E-12	657.957E-3	-6.95186E-3	-133.642E-12	654.790E-3	1.73217E-3
-3.47924E-3	-133.477E-12	663.455E-3	-6.75472E-3	-133.572E-12	647.937E-3	-1.77660E-3
-3.48424E-3	-133.268E-12	664.163E-3	-41.4829E-3	-134.115E-12	666.906E-3	-1.80059E-3
-3.48924E-3	-133.336E-12	662.929E-3	-55.0663E-3	-134.106E-12	704.940E-3	646.640E-6
-3.49425E-3	-134.120E-12	658.809E-3	-38.1727E-3	-134.825E-12	723.577E-3	8.68433E-3
-3.49925E-3	-135.898E-12	653.142E-3	-29.8286E-3	-135.468E-12	708.417E-3	4.56440E-3
-3.50425E-3	-136.250E-12	650.368E-3	-15.9088E-3	-135.867E-12	680.887E-3	-9.29052E-3
-3.50925E-3	-136.004E-12	642.987E-3	-3.81951E-3	-136.524E-12	669.229E-3	-21.5384E-3
-3.51426E-3	-137.265E-12	641.595E-3	-1.64387E-3	-136.428E-12	666.125E-3	-39.3415E-3
-3.51926E-3	-137.996E-12	661.663E-3	9.52117E-3	-136.916E-12	665.640E-3	-45.5658E-3
-3.52426E-3	-137.906E-12	679.426E-3	1.50573E-3	-137.310E-12	676.575E-3	-20.8547E-3
-3.52926E-3	-137.747E-12	667.750E-3	-26.5419E-3	-136.705E-12	677.021E-3	5.02652E-3
-3.53427E-3	-137.501E-12	658.016E-3	-44.2802E-3	-137.406E-12	658.044E-3	-4.42560E-3
-3.53927E-3	-137.251E-12	662.450E-3	-60.8017E-3	-137.087E-12	640.018E-3	-37.2529E-3
-3.54427E-3	-136.300E-12	672.317E-3	-64.5357E-3	-137.641E-12	647.408E-3	-42.1999E-3
-3.54927E-3	-136.114E-12	681.158E-3	-41.5432E-3	-137.387E-12	659.542E-3	-23.9173E-3
-3.55428E-3	-136.089E-12	672.702E-3	-24.7225E-3	-137.953E-12	658.317E-3	-17.4354E-3
-3.55928E-3	-135.928E-12	657.592E-3	-23.5961E-3	-138.346E-12	659.208E-3	-23.9229E-3
-3.56428E-3	-135.579E-12	652.675E-3	-16.5744E-3	-138.379E-12	666.362E-3	-34.9490E-3
-3.56928E-3	-135.974E-12	636.626E-3	-11.5701E-3	-138.112E-12	649.895E-3	-40.2589E-3
-3.57429E-3	-136.264E-12	627.362E-3	-26.1886E-3	-138.346E-12	614.037E-3	-40.8194E-3
-3.57929E-3	-136.545E-12	657.485E-3	-33.7686E-3	-138.807E-12	611.037E-3	-27.7706E-3
-3.58429E-3	-137.063E-12	670.157E-3	-30.5140E-3	-137.527E-12	624.723E-3	-6.23144E-3
-3.58929E-3	-137.426E-12	647.190E-3	-38.3488E-3	-137.072E-12	627.434E-3	-2.81839E-3
-3.59430E-3	-138.170E-12	651.055E-3	-33.9009E-3	-137.552E-12	636.310E-3	-27.6652E-3
-3.59930E-3	-139.326E-12	654.656E-3	-17.8386E-3	-137.376E-12	653.625E-3	-46.7878E-3
-3.60430E-3	-140.551E-12	633.319E-3	-21.9089E-3	-137.788E-12	660.076E-3	-28.1133E-3
-3.60930E-3	-140.956E-12	632.411E-3	-33.2727E-3	-137.656E-12	649.629E-3	-3.43693E-3
-3.61431E-3	-140.933E-12	653.295E-3	-25.7133E-3	-138.217E-12	646.455E-3	-17.3334E-3
-3.61931E-3	-141.047E-12	668.441E-3	-22.9830E-3	-138.490E-12	657.096E-3	-48.2685E-3
-3.62431E-3	-141.553E-12	671.196E-3	-22.8982E-3	-138.739E-12	663.138E-3	-64.3728E-3
-3.62931E-3	-141.114E-12	664.069E-3	-5.80530E-3	-139.557E-12	662.366E-3	-67.3523E-3
-3.63432E-3	-139.795E-12	656.863E-3	5.47771E-3	-139.837E-12	661.604E-3	-57.7221E-3
-3.63932E-3	-140.501E-12	658.716E-3	6.39823E-3	-140.314E-12	665.563E-3	-40.7799E-3
-3.64432E-3	-140.344E-12	663.786E-3	-3.93936E-3	-141.181E-12	679.872E-3	-23.8655E-3
-3.64932E-3	-139.634E-12	661.935E-3	-21.7002E-3	-141.957E-12	676.619E-3	656.085E-6
-3.65433E-3	-139.657E-12	642.875E-3	-14.4255E-3	-141.809E-12	653.136E-3	19.9461E-3
-3.65933E-3	-139.370E-12	627.301E-3	2.12266E-3	-141.628E-12	649.843E-3	5.00344E-3
-3.66433E-3	-138.983E-12	634.406E-3	-11.5901E-3	-142.142E-12	674.553E-3	-16.1381E-3
-3.66933E-3	-139.448E-12	640.032E-3	-31.0302E-3	-143.192E-12	687.449E-3	-15.1762E-3
-3.67434E-3	-141.362E-12	633.089E-3	-15.0572E-3	-142.149E-12	667.349E-3	-9.17317E-3
-3.67934E-3	-140.773E-12	632.120E-3	11.7845E-3	-141.582E-12	644.681E-3	-16.2926E-3
-3.68434E-3	-140.716E-12	654.394E-3	-161.299E-6	-141.741E-12	635.795E-3	-36.3400E-3
-3.68934E-3	-142.486E-12	673.793E-3	-22.1956E-3	-142.488E-12	642.513E-3	-40.1192E-3
-3.69435E-3	-144.225E-12	685.961E-3	-20.1246E-3	-141.953E-12	647.805E-3	-33.4731E-3
-3.69935E-3	-144.269E-12	721.366E-3	-19.9994E-3	-141.411E-12	645.691E-3	-41.1213E-3
-3.70435E-3	-144.458E-12	721.538E-3	-25.3500E-3	-141.371E-12	649.696E-3	-52.6297E-3
-3.70935E-3	-145.195E-12	676.046E-3	-33.5880E-3	-141.672E-12	650.842E-3	-35.0695E-3
-3.71436E-3	-145.982E-12	670.572E-3	-36.8481E-3	-142.725E-12	654.891E-3	-2.25554E-3
-3.71936E-3	-146.338E-12	692.582E-3	-24.0478E-3	-141.746E-12	679.219E-3	-13.5063E-3
-3.72436E-3	-144.671E-12	678.005E-3	-21.9062E-3	-142.344E-12	692.804E-3	-44.3645E-3
-3.72936E-3	-144.438E-12	651.331E-3	-31.7668E-3	-144.375E-12	671.545E-3	-35.9112E-3
-3.73437E-3	-144.440E-12	663.803E-3	-32.5474E-3	-144.568E-12	662.847E-3	-9.90279E-3
-3.73937E-3	-144.348E-12	679.236E-3	-36.4469E-3	-144.936E-12	665.442E-3	568.219E-6
-3.74437E-3	-143.340E-12	659.965E-3	-50.4708E-3	-144.976E-12	658.434E-3	11.1492E-3
-3.74937E-3	-143.071E-12	633.475E-3	-44.9559E-3	-147.828E-12	668.700E-3	15.0011E-3
-3.75438E-3	-144.057E-12	619.861E-3	-30.3115E-3	-147.507E-12	681.438E-3	1.40582E-3
-3.75938E-3	-143.965E-12	627.092E-3	-26.0590E-3	-147.433E-12	691.662E-3	-8.03939E-3
-3.76438E-3	-144.107E-12	654.069E-3	-12.7095E-3	-147.491E-12	688.840E-3	-7.93548E-3
-3.76938E-3	-144.713E-12	673.916E-3	-15.0395E-3	-148.756E-12	664.522E-3	-6.22811E-3
-3.77439E-3	-145.328E-12	681.585E-3	-38.6342E-3	-148.215E-12	654.765E-3	4.01104E-3
-3.77939E-3	-145.028E-12	687.034E-3	-42.7412E-3	-147.929E-12	659.112E-3	9.77949E-3
-3.78439E-3	-146.533E-12	680.183E-3	-36.3052E-3	-147.814E-12	653.647E-3	-14.5108E-3
-3.78939E-3	-148.030E-12	662.186E-3	-48.8987E-3	-148.629E-12	640.266E-3	-38.1516E-3
-3.79440E-3	-147.665E-12	646.115E-3	-55.4468E-3	-149.035E-12	637.993E-3	-30.0168E-3
-3.79940E-3	-148.242E-12	647.274E-3	-19.2105E-3	-147.990E-12	655.366E-3	-34.2770E-3
-3.80440E-3	-149.247E-12	669.462E-3	8.47036E-3	-147.693E-12	666.560E-3	-50.6754E-3
-3.80940E-3	-149.626E-12	680.386E-3	-1.30317E-3	-147.771E-12	666.950E-3	-46.0782E-3
-3.81441E-3	-148.737E-12	666.458E-3	-2.57983E-3	-147.903E-12	673.088E-3	-29.0612E-3
-3.81941E-3	-149.237E-12	653.733E-3	3.19615E-3	-148.127E-12	683.865E-3	-1.65009E-3
-3.82441E-3	-149.137E-12	650.558E-3	8.23852E-3	-149.025E-12	701.702E-3	7.72193E-3
-3.82941E-3	-149.296E-12	640.716E-3	7.74302E-3	-149.668E-12	712.034E-3	-4.13019E-3
-3.83442E-3	-148.781E-12	623.182E-3	-14.2492E-3	-149.436E-12	693.570E-3	-6.97192E-3
-3.83942E-3	-148.962E-12	627.800E-3	-25.8536E-3	-151.102E-12	655.930E-3	-27.6353E-3
-3.84442E-3	-148.503E-12	649.937E-3	-21.3179E-3	-151.145E-12	649.769E-3	-47.7556E-3
-3.84942E-3	-148.531E-12	660.538E-3	-38.9924E-3	-151.022E-12	677.820E-3	-17.2677E-3
-3.85443E-3	-148.784E-12	669.600E-3	-56.0773E-3	-151.873E-12	694.178E-3	11.7771E-3
-3.85943E-3	-149.046E-12	680.653E-3	-39.2920E-3	-152.558E-12	689.394E-3	-1.65091E-3
-3.86443E-3	-149.926E-12	683.070E-3	-17.4801E-3	-152.497E-12	659.202E-3	-18.2623E-3
-3.86943E-3	-149.949E-12	684.056E-3	-221.671E-6	-151.971E-12	623.646E-3	-17.9517E-3
-3.87444E-3	-149.931E-12	671.035E-3	18.6780E-3	-151.522E-12	618.223E-3	-12.4114E-3
-3.87944E-3	-150.265E-12	655.558E-3	20.8742E-3	-151.989E-12	619.164E-3	-8.50855E-3
-3.88444E-3	-150.521E-12	667.725E-3	11.2782E-3	-152.895E-12	624.689E-3	-9.90453E-3
-3.88944E-3	-150.866E-12	684.327E-3	547.216E-6	-151.652E-12	666.047E-3	-1.26202E-3
-3.89445E-3	-151.037E-12	683.556E-3	-11.1470E-3	-151.299E-12	685.361E-3	3.16019E-3
-3.89945E-3	-152.035E-12	673.580E-3	-13.7393E-3	-152.233E-12	665.664E-3	-10.5740E-3
-3.90445E-3	-152.161E-12	658.287E-3	-12.7132E-3	-152.522E-12	658.756E-3	-22.2757E-3
-3.90945E-3	-151.424E-12	644.729E-3	-17.4304E-3	-152.035E-12	652.848E-3	-19.7582E-3
-3.91446E-3	-151.823E-12	632.099E-3	-26.6196E-3	-151.910E-12	647.668E-3	543.318E-6
-3.91946E-3	-152.974E-12	618.810E-3	-37.7136E-3	-151.989E-12	670.430E-3	1.21757E-3
-3.92446E-3	-153.351E-12	639.887E-3	-44.9507E-3	-152.848E-12	692.692E-3	-34.2840E-3
-3.92946E-3	-153.647E-12	686.651E-3	-43.0811E-3	-153.608E-12	690.511E-3	-53.7157E-3
-3.93447E-3	-153.789E-12	694.405E-3	-19.2928E-3	-153.445E-12	683.969E-3	-37.6211E-3
-3.93947E-3	-153.914E-12	660.001E-3	-9.10029E-3	-153.717E-12	663.446E-3	-39.2275E-3
-3.94447E-3	-154.793E-12	640.237E-3	-28.8554E-3	-154.773E-12	648.235E-3	-49.3924E-3
-3.94947E-3	-155.009E-12	647.081E-3	-31.7851E-3	-155.149E-12	666.427E-3	-42.9281E-3
-3.95448E-3	-153.977E-12	651.982E-3	-14.7031E-3	-155.112E-12	679.122E-3	-57.2999E-3
-3.95948E-3	-154.700E-12	647.790E-3	-4.89098E-3	-155.227E-12	673.921E-3	-67.8164E-3
-3.96448E-3	-155.868E-12	652.400E-3	6.94245E-3	-156.125E-12	673.306E-3	-39.1903E-3
-3.96948E-3	-155.498E-12	665.495E-3	12.9847E-3	-155.747E-12	665.733E-3	-26.4107E-3
-3.97449E-3	-154.959E-12	677.920E-3	-5.78823E-3	-155.890E-12	645.769E-3	-47.6794E-3
-3.97949E-3	-155.521E-12	699.546E-3	-26.3924E-3	-155.982E-12	647.643E-3	-49.5769E-3
-3.98449E-3	-155.009E-12	692.213E-3	-32.2338E-3	-155.782E-12	658.669E-3	-39.8438E-3
-3.98949E-3	-155.256E-12	655.086E-3	-22.8822E-3	-155.016E-12	653.385E-3	-37.3139E-3
-3.99450E-3	-155.191E-12	644.933E-3	-12.1571E-3	-155.588E-12	651.355E-3	-29.9813E-3
-3.99950E-3	-155.546E-12	646.235E-3	-14.9292E-3	-155.695E-12	648.940E-3	-18.7703E-3
-4.00450E-3	-156.751E-12	642.714E-3	-22.8151E-3	-155.157E-12	633.930E-3	-2.69416E-3
-4.00950E-3	-156.983E-12	643.696E-3	-25.4669E-3	-155.392E-12	644.555E-3	7.36859E-3
-4.01451E-3	-156.869E-12	651.029E-3	-17.6614E-3	-155.758E-12	666.657E-3	-5.16197E-3
-4.01951E-3	-157.360E-12	678.760E-3	-12.8747E-3	-155.837E-12	663.908E-3	-21.4003E-3
-4.02451E-3	-157.817E-12	700.808E-3	-35.9429E-3	-155.571E-12	658.588E-3	-6.39062E-3
-4.02951E-3	-158.446E-12	669.701E-3	-45.9817E-3	-155.965E-12	663.133E-3	21.3668E-3
-4.03452E-3	-159.089E-12	641.560E-3	-16.1553E-3	-156.131E-12	682.814E-3	13.2301E-3
-4.03952E-3	-159.006E-12	659.377E-3	-9.19129E-3	-157.339E-12	688.540E-3	-21.9049E-3
-4.04452E-3	-159.780E-12	661.870E-3	-33.1938E-3	-157.316E-12	661.593E-3	-38.0307E-3
-4.04952E-3	-159.784E-12	658.242E-3	-53.9433E-3	-157.007E-12	642.054E-3	-24.9808E-3
-4.05453E-3	-159.717E-12	659.162E-3	-53.0644E-3	-158.089E-12	656.062E-3	-22.5356E-3
-4.05953E-3	-159.838E-12	632.978E-3	-25.7147E-3	-158.731E-12	668.837E-3	-36.0178E-3
-4.06453E-3	-159.104E-12	613.812E-3	-10.5953E-3	-158.469E-12	652.323E-3	-25.5664E-3
-4.06953E-3	-158.199E-12	626.474E-3	-11.9202E-3	-158.658E-12	646.639E-3	-20.3508E-3
-4.07454E-3	-158.901E-12	641.522E-3	-3.75393E-3	-160.006E-12	669.818E-3	-45.2465E-3
-4.07954E-3	-158.788E-12	655.834E-3	-1.27860E-3	-160.073E-12	684.722E-3	-64.3733E-3
-4.08454E-3	-158.354E-12	668.056E-3	-6.10992E-3	-159.515E-12	678.838E-3	-58.3850E-3
-4.08954E-3	-158.981E-12	651.927E-3	-14.9983E-3	-160.726E-12	664.746E-3	-23.3731E-3
-4.09455E-3	-159.731E-12	635.591E-3	-24.5795E-3	-161.640E-12	658.308E-3	15.6137E-3
-4.09955E-3	-159.257E-12	647.037E-3	-15.7887E-3	-161.213E-12	673.897E-3	42.2000E-3
-4.10455E-3	-160.582E-12	657.205E-3	-12.8255E-3	-160.167E-12	681.794E-3	38.5416E-3
-4.10955E-3	-162.043E-12	668.269E-3	-24.5087E-3	-160.438E-12	665.483E-3	-7.38445E-3
-4.11456E-3	-163.000E-12	688.144E-3	-16.3160E-3	-161.532E-12	654.126E-3	-29.1694E-3
-4.11956E-3	-164.082E-12	677.010E-3	-6.05754E-3	-161.930E-12	662.342E-3	-22.0945E-3
-4.12456E-3	-164.489E-12	658.833E-3	-14.2323E-3	-161.099E-12	677.380E-3	-32.5295E-3
-4.12956E-3	-165.259E-12	673.590E-3	-6.95548E-3	-161.677E-12	676.387E-3	-32.2585E-3
-4.13457E-3	-165.817E-12	686.467E-3	6.65532E-3	-163.193E-12	657.574E-3	-22.9404E-3
-4.13957E-3	-166.403E-12	699.498E-3	-10.4557E-3	-162.908E-12	637.865E-3	-24.0742E-3
-4.14457E-3	-165.339E-12	718.400E-3	-26.4298E-3	-163.577E-12	643.201E-3	-15.3980E-3
-4.14957E-3	-165.211E-12	709.503E-3	-26.0050E-3	-163.821E-12	674.395E-3	-20.1945E-3
-4.15458E-3	-165.259E-12	693.742E-3	-26.0468E-3	-164.720E-12	692.955E-3	-45.2596E-3
-4.15958E-3	-164.786E-12	694.856E-3	-31.0157E-3	-164.340E-12	692.285E-3	-42.3657E-3
-4.16458E-3	-162.226E-12	673.157E-3	-37.2470E-3	-164.866E-12	671.939E-3	1.87118E-3
-4.16958E-3	-161.745E-12	622.617E-3	-13.6518E-3	-165.365E-12	661.005E-3	23.9087E-3
-4.17459E-3	-162.281E-12	616.593E-3	18.8198E-3	-165.336E-12	682.337E-3	7.89621E-3
-4.17959E-3	-161.416E-12	639.116E-3	20.7775E-3	-165.141E-12	684.054E-3	-17.1722E-3
-4.18459E-3	-161.317E-12	639.313E-3	-2.30439E-3	-166.159E-12	683.432E-3	-36.8638E-3
-4.18959E-3	-161.775E-12	639.957E-3	-18.3639E-3	-166.438E-12	706.284E-3	-22.6291E-3
-4.19460E-3	-162.392E-12	641.109E-3	70.8368E-6	-164.846E-12	684.439E-3	-12.3025E-3
-4.19960E-3	-162.937E-12	633.797E-3	8.69118E-3	-165.514E-12	632.608E-3	-12.2960E-3
-4.20460E-3	-163.158E-12	641.483E-3	-5.96488E-3	-165.986E-12	627.301E-3	24.3338E-3
-4.20960E-3	-163.859E-12	657.818E-3	-7.64616E-3	-165.218E-12	656.025E-3	42.0824E-3
-4.21461E-3	-165.372E-12	644.341E-3	-197.519E-6	-165.584E-12	663.339E-3	12.3163E-3
-4.21961E-3	-166.441E-12	632.189E-3	-3.41116E-3	-165.637E-12	656.031E-3	-12.4998E-3
-4.22461E-3	-167.540E-12	643.059E-3	-7.66540E-3	-165.529E-12	656.742E-3	1.59231E-3
-4.22961E-3	-168.623E-12	650.017E-3	-13.8605E-3	-165.798E-12	660.394E-3	5.44390E-3
-4.23462E-3	-168.574E-12	675.356E-3	-23.0511E-3	-166.310E-12	670.788E-3	-29.0856E-3
-4.23962E-3	-168.415E-12	688.359E-3	-32.2383E-3	-165.942E-12	673.284E-3	-38.6933E-3
-4.24462E-3	-168.312E-12	655.716E-3	-30.4578E-3	-166.582E-12	658.181E-3	-37.5965E-3
-4.24962E-3	-169.491E-12	646.180E-3	-6.37571E-3	-167.485E-12	647.759E-3	-52.3455E-3
-4.25463E-3	-168.360E-12	660.543E-3	18.5659E-3	-168.133E-12	666.519E-3	-38.4807E-3
-4.25963E-3	-167.458E-12	658.642E-3	14.8785E-3	-168.545E-12	701.238E-3	-10.7381E-3
-4.26463E-3	-167.354E-12	658.598E-3	-1.14881E-3	-169.135E-12	681.846E-3	-15.7915E-3
-4.26963E-3	-167.672E-12	655.936E-3	7.88249E-3	-169.863E-12	630.170E-3	-33.9560E-3
-4.27464E-3	-167.176E-12	642.985E-3	4.23826E-3	-170.490E-12	644.216E-3	-49.8131E-3
-4.27964E-3	-166.213E-12	635.624E-3	-23.2773E-3	-169.576E-12	684.859E-3	-62.5031E-3
-4.28464E-3	-166.579E-12	639.626E-3	-13.7568E-3	-170.015E-12	691.911E-3	-57.1705E-3
-4.28964E-3	-166.298E-12	634.189E-3	13.0974E-3	-169.987E-12	680.790E-3	-37.4257E-3
-4.29465E-3	-167.115E-12	609.068E-3	2.21791E-3	-170.240E-12	650.613E-3	-25.8614E-3
-4.29965E-3	-167.015E-12	609.514E-3	-24.6200E-3	-169.095E-12	636.316E-3	-23.1469E-3
-4.30465E-3	-167.807E-12	637.556E-3	-18.9462E-3	-169.234E-12	651.460E-3	-26.1912E-3
-4.30965E-3	-168.480E-12	643.789E-3	-2.27280E-3	-169.063E-12	665.517E-3	-33.4137E-3
-4.31466E-3	-168.383E-12	636.117E-3	-14.1359E-3	-167.949E-12	665.639E-3	-20.5938E-3
-4.31966E-3	-168.992E-12	634.776E-3	-29.6741E-3	-167.802E-12	654.226E-3	15.3258E-3
-4.32466E-3	-169.693E-12	634.397E-3	-34.4684E-3	-167.961E-12	645.070E-3	28.3488E-3
-4.32966E-3	-170.105E-12	648.949E-3	-23.1222E-3	-168.642E-12	652.780E-3	2.52731E-3
-4.33467E-3	-169.924E-12	663.995E-3	-10.3251E-3	-168.175E-12	671.914E-3	-36.4925E-3
-4.33967E-3	-169.511E-12	656.916E-3	-16.1564E-3	-168.205E-12	667.121E-3	-47.0516E-3
-4.34467E-3	-170.261E-12	658.106E-3	-21.8519E-3	-168.556E-12	666.550E-3	-11.2207E-3
-4.34967E-3	-170.813E-12	686.854E-3	-26.1553E-3	-170.587E-12	697.435E-3	10.9073E-3
-4.35468E-3	-170.253E-12	694.267E-3	-39.5491E-3	-169.781E-12	700.652E-3	-4.18033E-3
-4.35968E-3	-170.536E-12	676.983E-3	-50.7994E-3	-171.297E-12	670.531E-3	-1.79828E-3
-4.36468E-3	-171.708E-12	684.888E-3	-36.1494E-3	-172.242E-12	661.000E-3	5.99214E-3
-4.36968E-3	-171.583E-12	690.421E-3	-27.5000E-3	-172.957E-12	669.335E-3	-14.3379E-3
-4.37469E-3	-171.319E-12	681.688E-3	-46.5739E-3	-173.020E-12	663.218E-3	-36.7087E-3
-4.37969E-3	-171.577E-12	670.968E-3	-51.2705E-3	-174.041E-12	645.157E-3	-43.8288E-3
-4.38469E-3	-171.925E-12	663.096E-3	-34.3248E-3	-174.703E-12	631.614E-3	-41.5327E-3
-4.38969E-3	-172.360E-12	670.395E-3	-12.4949E-3	-174.446E-12	642.022E-3	-31.7426E-3
-4.39470E-3	-172.613E-12	672.790E-3	-2.52761E-3	-173.753E-12	670.220E-3	-10.5344E-3
-4.39970E-3	-173.492E-12	677.283E-3	-10.3107E-3	-173.983E-12	680.037E-3	-20.4511E-3
-4.40470E-3	-173.307E-12	667.272E-3	-28.1386E-3	-174.986E-12	665.695E-3	-42.2851E-3
-4.40970E-3	-173.978E-12	616.450E-3	-26.8168E-3	-173.900E-12	658.850E-3	-23.2632E-3
-4.41471E-3	-174.716E-12	573.689E-3	-15.6103E-3	-172.942E-12	660.060E-3	-7.47961E-3
-4.41971E-3	-176.257E-12	583.738E-3	-25.6775E-3	-174.384E-12	647.964E-3	-23.3563E-3
-4.42471E-3	-176.198E-12	623.426E-3	-36.5512E-3	-174.071E-12	634.856E-3	-32.8581E-3
-4.42971E-3	-176.638E-12	647.649E-3	-35.7330E-3	-173.779E-12	613.306E-3	-21.6527E-3
-4.43472E-3	-177.097E-12	666.575E-3	-32.3920E-3	-173.301E-12	602.684E-3	-24.3994E-3
-4.43972E-3	-177.677E-12	676.917E-3	-15.7001E-3	-174.564E-12	628.434E-3	-27.2713E-3
-4.44472E-3	-178.848E-12	665.092E-3	-11.9773E-3	-174.703E-12	666.694E-3	-1.08973E-3
-4.44972E-3	-177.983E-12	660.519E-3	-44.4610E-3	-174.417E-12	688.678E-3	24.0313E-3
-4.45473E-3	-178.002E-12	659.772E-3	-53.6931E-3	-174.684E-12	682.125E-3	26.4919E-3
-4.45973E-3	-178.926E-12	659.078E-3	-39.0201E-3	-176.195E-12	662.261E-3	11.5139E-3
-4.46473E-3	-179.897E-12	671.327E-3	-50.0529E-3	-176.343E-12	654.270E-3	2.71639E-3
-4.46973E-3	-179.412E-12	676.223E-3	-52.5257E-3	-176.381E-12	658.460E-3	6.62830E-3
-4.47474E-3	-179.229E-12	672.537E-3	-29.3241E-3	-177.188E-12	671.586E-3	457.842E-6
-4.47974E-3	-179.621E-12	668.891E-3	-10.4692E-3	-177.244E-12	677.010E-3	-11.5839E-3
-4.48474E-3	-179.981E-12	663.820E-3	-3.78652E-3	-176.795E-12	668.340E-3	-14.1554E-3
-4.48974E-3	-178.611E-12	682.186E-3	-17.5751E-3	-177.111E-12	664.847E-3	-13.1089E-3
-4.49475E-3	-178.017E-12	696.737E-3	-31.9430E-3	-178.906E-12	661.108E-3	-32.4045E-3
-4.49975E-3	-178.542E-12	663.592E-3	-27.0258E-3	-178.537E-12	651.339E-3	-30.6484E-3
-4.50475E-3	-177.737E-12	630.802E-3	-21.9531E-3	-178.228E-12	641.811E-3	5.50698E-3
-4.50975E-3	-177.128E-12	645.939E-3	-21.6632E-3	-178.881E-12	643.599E-3	2.70925E-3
-4.51476E-3	-178.545E-12	675.809E-3	31.6424E-6	-179.918E-12	641.415E-3	-11.6791E-3
-4.51976E-3	-178.982E-12	677.124E-3	26.4022E-3	-179.428E-12	637.676E-3	17.3395E-3
-4.52476E-3	-178.886E-12	668.792E-3	14.1219E-3	-178.455E-12	650.644E-3	37.9524E-3
-4.52976E-3	-178.211E-12	672.943E-3	6.16278E-3	-178.922E-12	660.266E-3	27.5718E-3
-4.53477E-3	-179.621E-12	662.876E-3	26.3441E-3	-179.337E-12	680.517E-3	24.3761E-3
-4.53977E-3	-181.509E-12	670.925E-3	30.8304E-3	-179.824E-12	710.958E-3	-1.07647E-3
-4.54477E-3	-182.225E-12	691.049E-3	18.1073E-3	-179.398E-12	682.143E-3	-27.8895E-3
-4.54977E-3	-181.758E-12	666.078E-3	-7.41084E-3	-179.770E-12	633.204E-3	-4.93990E-3
-4.55478E-3	-183.112E-12	634.523E-3	-41.2502E-3	-181.264E-12	652.258E-3	9.33919E-3
-4.55978E-3	-184.446E-12	653.164E-3	-38.4464E-3	-181.309E-12	698.339E-3	2.62281E-3
-4.56478E-3	-184.446E-12	697.007E-3	-10.0187E-3	-181.712E-12	711.122E-3	8.04139E-3
-4.56978E-3	-183.904E-12	687.993E-3	-21.2996E-3	-181.276E-12	696.525E-3	10.0760E-3
-4.57479E-3	-183.610E-12	662.544E-3	-50.0598E-3	-182.441E-12	675.333E-3	-19.3613E-3
-4.57979E-3	-184.060E-12	662.826E-3	-46.0116E-3	-182.359E-12	650.862E-3	-57.8205E-3
-4.58479E-3	-184.254E-12	649.776E-3	-33.6308E-3	-183.421E-12	642.910E-3	-81.0259E-3
-4.58979E-3	-182.887E-12	649.878E-3	-10.1604E-3	-183.596E-12	656.857E-3	-90.5035E-3
-4.59480E-3	-181.942E-12	650.232E-3	23.7957E-3	-184.622E-12	658.915E-3	-69.5683E-3
-4.59980E-3	-181.057E-12	638.509E-3	19.3670E-3	-183.927E-12	650.913E-3	-48.6416E-3
-4.60480E-3	-180.663E-12	653.773E-3	-2.92135E-3	-185.161E-12	654.049E-3	-46.1674E-3
-4.60980E-3	-180.319E-12	651.904E-3	-3.21620E-3	-184.740E-12	677.855E-3	-26.4147E-3
-4.61481E-3	-180.423E-12	644.054E-3	13.1026E-3	-184.863E-12	686.942E-3	-7.84065E-3
-4.61981E-3	-180.266E-12	663.551E-3	21.7780E-3	-185.652E-12	643.038E-3	-22.4940E-3
-4.62481E-3	-181.092E-12	668.786E-3	7.11682E-3	-184.889E-12	605.593E-3	-36.7580E-3
-4.62981E-3	-181.791E-12	669.975E-3	-19.3286E-3	-184.734E-12	616.790E-3	-44.5197E-3
-4.63482E-3	-182.672E-12	674.837E-3	-52.0210E-3	-184.443E-12	658.200E-3	-40.3966E-3
-4.63982E-3	-182.290E-12	666.124E-3	-55.3554E-3	-184.329E-12	695.782E-3	-17.2094E-3
-4.64482E-3	-182.842E-12	641.081E-3	-28.3535E-3	-183.027E-12	699.101E-3	-28.4714E-3
-4.64982E-3	-183.928E-12	620.964E-3	-14.1843E-3	-182.414E-12	681.465E-3	-57.5550E-3
-4.65483E-3	-185.118E-12	623.961E-3	-10.6699E-3	-183.492E-12	666.740E-3	-47.0920E-3
-4.65983E-3	-186.047E-12	624.038E-3	-17.0404E-3	-183.833E-12	655.640E-3	-24.5841E-3
-4.66483E-3	-185.824E-12	637.909E-3	-18.4054E-3	-183.275E-12	654.630E-3	-29.0948E-3
-4.66983E-3	-186.473E-12	673.347E-3	-11.7172E-3	-183.474E-12	660.121E-3	-40.3847E-3
-4.67484E-3	-187.179E-12	688.313E-3	-24.5699E-3	-185.125E-12	656.907E-3	-34.4333E-3
-4.67984E-3	-187.167E-12	684.189E-3	-26.7367E-3	-185.389E-12	640.922E-3	-27.0398E-3
-4.68484E-3	-186.833E-12	679.072E-3	-25.1139E-3	-186.191E-12	646.437E-3	-18.7666E-3
-4.68984E-3	-186.850E-12	667.045E-3	-33.8391E-3	-187.240E-12	688.435E-3	-15.6964E-3
-4.69485E-3	-186.952E-12	657.846E-3	-4.90682E-3	-187.864E-12	698.810E-3	-23.0629E-3
-4.69985E-3	-187.090E-12	651.521E-3	24.0053E-3	-188.447E-12	664.984E-3	-2.71942E-3
-4.70485E-3	-186.542E-12	618.657E-3	11.9451E-3	-189.770E-12	640.585E-3	11.6635E-3
-4.70985E-3	-186.703E-12	606.013E-3	1.48812E-3	-190.782E-12	650.977E-3	4.83487E-3
-4.71486E-3	-186.723E-12	660.759E-3	23.0288E-3	-190.147E-12	675.939E-3	13.8172E-3
-4.71986E-3	-187.019E-12	698.692E-3	23.3771E-3	-188.981E-12	668.546E-3	18.4901E-3
-4.72486E-3	-187.775E-12	695.101E-3	-11.5145E-3	-190.204E-12	647.628E-3	-2.28857E-3
-4.72986E-3	-188.454E-12	688.684E-3	-15.9128E-3	-191.184E-12	649.006E-3	-24.0663E-3
-4.73487E-3	-188.254E-12	662.583E-3	-5.07953E-3	-189.707E-12	661.766E-3	-21.6507E-3
-4.73987E-3	-188.495E-12	637.545E-3	-18.9152E-3	-187.791E-12	655.755E-3	-985.744E-6
-4.74487E-3	-189.618E-12	648.818E-3	-34.2811E-3	-187.731E-12	630.108E-3	19.6593E-3
-4.74988E-3	-190.487E-12	678.858E-3	-46.1057E-3	-189.631E-12	635.668E-3	16.5378E-3
-4.75488E-3	-191.009E-12	704.581E-3	-54.6448E-3	-189.407E-12	645.756E-3	-28.2247E-3
-4.75988E-3	-191.614E-12	704.634E-3	-34.0935E-3	-187.401E-12	623.733E-3	-64.7593E-3
-4.76488E-3	-192.028E-12	678.994E-3	-4.27616E-3	-188.601E-12	623.346E-3	-44.3133E-3
-4.76988E-3	-192.176E-12	674.376E-3	47.1201E-6	-190.994E-12	660.265E-3	-21.9017E-3
-4.77489E-3	-192.983E-12	681.696E-3	-4.87847E-3	-190.874E-12	687.043E-3	-22.1625E-3
-4.77989E-3	-192.496E-12	659.588E-3	-16.3056E-3	-189.776E-12	680.526E-3	-14.0658E-3
-4.78489E-3	-192.636E-12	640.551E-3	-38.8557E-3	-190.208E-12	662.802E-3	-24.0280E-3
-4.78989E-3	-192.235E-12	652.030E-3	-37.6907E-3	-191.590E-12	663.456E-3	-45.4519E-3
-4.79490E-3	-192.855E-12	675.527E-3	-26.3290E-3	-191.652E-12	651.218E-3	-22.2250E-3
-4.79990E-3	-191.959E-12	688.897E-3	-11.9218E-3	-191.913E-12	633.187E-3	-5.52887E-3
-4.80490E-3	-192.470E-12	691.117E-3	27.0318E-3	-192.384E-12	648.593E-3	-21.1492E-3
-4.80990E-3	-192.491E-12	678.795E-3	7.74717E-3	-193.006E-12	668.516E-3	-19.4707E-3
-4.81491E-3	-192.929E-12	657.278E-3	-31.2579E-3	-193.348E-12	673.933E-3	-18.7303E-3
-4.81991E-3	-191.921E-12	673.261E-3	13.1650E-3	-193.340E-12	668.432E-3	-20.5999E-3
-4.82491E-3	-192.020E-12	680.736E-3	29.9048E-3	-194.330E-12	645.822E-3	1.90087E-3
-4.82991E-3	-193.013E-12	631.054E-3	-8.48191E-3	-192.699E-12	637.432E-3	313.815E-6
-4.83492E-3	-194.027E-12	611.435E-3	-39.0828E-3	-192.810E-12	655.114E-3	-35.2094E-3
-4.83992E-3	-193.602E-12	623.305E-3	-49.5048E-3	-193.782E-12	663.741E-3	-28.3427E-3
-4.84492E-3	-193.695E-12	613.819E-3	-30.2504E-3	-193.922E-12	668.022E-3	7.24051E-3
-4.84992E-3	-194.892E-12	622.321E-3	-20.8610E-3	-192.222E-12	675.337E-3	14.9624E-3
-4.85493E-3	-194.155E-12	648.330E-3	-38.7927E-3	-191.998E-12	659.296E-3	7.83315E-3
-4.85993E-3	-194.834E-12	666.971E-3	-64.9249E-3	-193.075E-12	649.550E-3	13.9067E-3
-4.86493E-3	-195.834E-12	670.286E-3	-66.5979E-3	-192.913E-12	669.171E-3	9.39495E-3
-4.86993E-3	-195.295E-12	649.462E-3	-52.3578E-3	-192.931E-12	670.139E-3	-20.4179E-3
-4.87494E-3	-194.638E-12	642.720E-3	-60.6002E-3	-193.115E-12	647.915E-3	-21.6073E-3
-4.87994E-3	-195.462E-12	660.735E-3	-59.5789E-3	-194.005E-12	621.881E-3	7.61488E-3
-4.88494E-3	-196.988E-12	662.079E-3	-43.4319E-3	-194.051E-12	611.861E-3	32.0296E-3
-4.88995E-3	-196.245E-12	655.805E-3	-49.0896E-3	-194.576E-12	647.595E-3	29.3469E-3
-4.89495E-3	-194.936E-12	678.671E-3	-44.3713E-3	-194.409E-12	690.127E-3	-13.0566E-3
-4.89995E-3	-194.701E-12	679.838E-3	-20.3186E-3	-195.160E-12	698.294E-3	-45.9533E-3
-4.90495E-3	-196.063E-12	630.567E-3	-7.20076E-3	-195.326E-12	697.700E-3	-32.0636E-3
-4.90995E-3	-195.685E-12	604.540E-3	271.553E-6	-196.088E-12	689.422E-3	-10.1509E-3
-4.91496E-3	-194.453E-12	601.031E-3	9.10767E-3	-196.293E-12	670.631E-3	5.52401E-3
-4.91996E-3	-194.308E-12	585.001E-3	-9.61318E-3	-197.039E-12	663.094E-3	9.47995E-3
-4.92496E-3	-194.693E-12	606.932E-3	-49.2998E-3	-196.826E-12	674.950E-3	-8.89201E-3
-4.92996E-3	-194.781E-12	661.152E-3	-33.5412E-3	-196.513E-12	671.427E-3	-22.7738E-3
-4.93497E-3	-194.602E-12	684.548E-3	17.2377E-3	-196.940E-12	659.222E-3	-41.9176E-3
-4.93997E-3	-196.026E-12	681.223E-3	4.80511E-3	-196.762E-12	659.247E-3	-57.0769E-3
-4.94497E-3	-196.853E-12	676.719E-3	-36.6562E-3	-196.915E-12	644.617E-3	-65.3401E-3
-4.94997E-3	-196.167E-12	668.481E-3	-42.7690E-3	-196.361E-12	651.581E-3	-81.5131E-3
-4.95498E-3	-197.232E-12	664.357E-3	-45.8427E-3	-196.412E-12	677.231E-3	-83.3649E-3
-4.95998E-3	-199.317E-12	648.430E-3	-44.7382E-3	-197.083E-12	686.083E-3	-72.4039E-3
-4.96498E-3	-198.297E-12	629.963E-3	-35.3572E-3	-196.784E-12	689.006E-3	-60.0281E-3
-4.96998E-3	-198.921E-12	673.488E-3	-44.2562E-3	-197.054E-12	679.078E-3	-52.2176E-3
-4.97499E-3	-200.367E-12	705.513E-3	-48.4687E-3	-197.193E-12	656.350E-3	-34.8187E-3
-4.97999E-3	-202.064E-12	645.604E-3	-43.7582E-3	-198.703E-12	635.592E-3	4.94676E-3
-4.98499E-3	-201.445E-12	591.676E-3	-40.5224E-3	-198.737E-12	638.577E-3	20.3951E-3
-4.98999E-3	-200.554E-12	609.133E-3	-32.7326E-3	-199.833E-12	656.958E-3	-6.88080E-3
-4.99500E-3	-201.005E-12	641.361E-3	-44.1443E-3	-199.188E-12	656.479E-3	-48.5366E-3
-5.00000E-3	-202.198E-12	655.874E-3	-68.6496E-3	-201.299E-12	655.081E-3	-72.6334E-3
