Experiment	bias spectroscopy	
Date	19.01.2016 22:02:56	
User		
X (m)	50.12E-9	
Y (m)	257.692E-9	
Z (m)	-132.617E-9	
Z offset (m)	0E+0	
Settling time (s)	200E-6	
Integration time (s)	5E-3	
Z-Ctrl hold	TRUE	
Final Z (m)	N/A	
Filter type	None	
Order		
Cutoff frq		
Comment01	MnPc/Pb(111)	
Comment02	dz =00pm	
Comment03	7 Sweeps	
Comment04	MagField =0.T	
Comment05	Divider 1:10	
Comment06	Setpoint:5mV,200 pA	
Comment07	Lockin: 50uVrms,5ms,5mV	
Comment08	Gain:9; 912Hz modulation	
Comment09	T=1.06K	
Bias>Bias (V)	5E-3	
Bias>Calibration (V/V)	81.475E-3	
Bias>Offset (V)	1.046E-3	
Bias Spectroscopy>Sweep Start (V)	5E-3	
Bias Spectroscopy>Sweep End (V)	-5E-3	
Bias Spectroscopy>Num Pixel	2000	
Bias Spectroscopy>Z Avg time (s)	500E-3	
Bias Spectroscopy>Z offset (m)	0E+0	
Bias Spectroscopy>1st Settling time (s)	500E-3	
Bias Spectroscopy>Settling time (s)	200E-6	
Bias Spectroscopy>Integration time (s)	5E-3	
Bias Spectroscopy>End Settling time (s)	500E-3	
Bias Spectroscopy>Z control time (s)	500E-3	
Bias Spectroscopy>Max Slew rate (V/s)	Inf	
Bias Spectroscopy>backward sweep	TRUE	
Bias Spectroscopy>Z-controller hold	TRUE	
Bias Spectroscopy>Number of sweeps	7	
Bias Spectroscopy>Channels	Current (A);X% LockIn (V);Y% LockIn (V)	
Bias Spectroscopy>Reset Bias	TRUE	
Bias Spectroscopy>Record final Z	FALSE	
Bias Spectroscopy>Lock-In run	FALSE	
Bias Spectroscopy>Sweep mode	Linear	
Bias Spectroscopy>MultiLine Settings : Segment Start (V), Segment End (V), Settling (s), Integration (s), Steps (xn)	100E-3,3.3E-3,100E-6,10E-3,2500;3.3E-3,-3.3E-3,100E-6,10E-3,10;-3.3E-3,-100E-3,100E-6,10E-3,2500	
Current>Current (A)	200.008E-12	
Current>Calibration (A/V)	999.99900E-12	
Current>Offset (A)	-455.429E-15	
Current>Gain	LN 10^9	
Z-Controller>Z (m)	-132.62E-9	
Z-Controller>Controller name	log Current	
Z-Controller>Controller status	ON	
Z-Controller>Setpoint	200E-12	
Z-Controller>Setpoint unit	A	
Z-Controller>P gain	2.96994E-12	
Z-Controller>I gain	67.0321E-9	
Z-Controller>Time const (s)	44.3062E-6	
Z-Controller>TipLift (m)	0E+0	
Z-Controller>Switch off delay (s)	50E-3	
Current (A)	200.204E-12	
Z (m)	-132.62E-9	

[DATA]
Bias calc (V)	Current (A)	X% LockIn (V)	Y% LockIn (V)	Current [bwd] (A)	X% LockIn [bwd] (V)	Y% LockIn [bwd] (V)
5.00000E-3	200.182E-12	626.690E-3	7.31770E-3	197.255E-12	629.983E-3	-23.0406E-3
4.99500E-3	200.173E-12	637.132E-3	-4.51719E-3	198.324E-12	652.890E-3	-9.89757E-3
4.98999E-3	201.964E-12	643.612E-3	-668.318E-6	198.772E-12	663.364E-3	-12.9466E-3
4.98499E-3	202.074E-12	657.017E-3	-9.88594E-3	198.805E-12	642.962E-3	3.85921E-3
4.97999E-3	201.362E-12	677.519E-3	-28.6020E-3	199.294E-12	651.365E-3	54.2807E-3
4.97499E-3	201.539E-12	672.454E-3	-12.4754E-3	199.910E-12	670.392E-3	64.7922E-3
4.96998E-3	200.822E-12	655.658E-3	1.32975E-3	200.172E-12	659.789E-3	16.7405E-3
4.96498E-3	200.004E-12	665.054E-3	-7.99045E-3	201.631E-12	645.513E-3	-16.3040E-3
4.95998E-3	198.037E-12	677.151E-3	-28.1333E-3	200.901E-12	644.107E-3	-28.5453E-3
4.95498E-3	197.596E-12	664.706E-3	-50.1639E-3	199.010E-12	659.008E-3	-42.9364E-3
4.94997E-3	196.222E-12	648.828E-3	-48.6480E-3	200.105E-12	685.989E-3	-46.7009E-3
4.94497E-3	195.249E-12	642.025E-3	-38.3610E-3	199.028E-12	700.719E-3	-41.4862E-3
4.93997E-3	195.268E-12	641.975E-3	-23.5748E-3	198.142E-12	675.331E-3	-27.0977E-3
4.93497E-3	194.737E-12	653.721E-3	-22.6778E-3	197.578E-12	639.293E-3	-3.34235E-3
4.92996E-3	194.810E-12	662.266E-3	-33.9627E-3	195.562E-12	632.256E-3	-2.62849E-3
4.92496E-3	195.357E-12	647.965E-3	-26.0555E-3	195.062E-12	645.457E-3	-31.8137E-3
4.91996E-3	195.464E-12	635.961E-3	-11.1099E-3	194.869E-12	663.341E-3	-45.8315E-3
4.91496E-3	196.877E-12	648.587E-3	1.86050E-3	193.939E-12	666.042E-3	-36.6502E-3
4.90995E-3	198.173E-12	649.529E-3	-1.08696E-3	193.693E-12	645.771E-3	-32.5895E-3
4.90495E-3	198.234E-12	638.266E-3	-16.6375E-3	194.578E-12	632.106E-3	-45.7624E-3
4.89995E-3	198.887E-12	618.663E-3	-36.7013E-3	194.477E-12	664.438E-3	-50.3007E-3
4.89495E-3	198.068E-12	613.443E-3	-62.5604E-3	194.990E-12	710.093E-3	-39.3362E-3
4.88995E-3	198.809E-12	641.402E-3	-78.6013E-3	195.751E-12	711.289E-3	-55.9560E-3
4.88494E-3	197.939E-12	657.274E-3	-63.2462E-3	196.253E-12	696.550E-3	-75.6557E-3
4.87994E-3	196.139E-12	648.941E-3	-26.8679E-3	196.720E-12	690.024E-3	-48.4414E-3
4.87494E-3	195.237E-12	629.550E-3	744.691E-6	197.292E-12	671.287E-3	5.53953E-3
4.86993E-3	195.389E-12	621.986E-3	11.9486E-3	197.537E-12	642.400E-3	25.5487E-3
4.86493E-3	193.536E-12	631.661E-3	27.0528E-3	196.817E-12	641.560E-3	-1.67141E-3
4.85993E-3	193.216E-12	633.500E-3	30.5605E-3	196.659E-12	664.962E-3	-21.0883E-3
4.85493E-3	193.660E-12	609.490E-3	4.27430E-3	195.922E-12	665.219E-3	-28.9093E-3
4.84992E-3	192.965E-12	598.769E-3	-38.7554E-3	194.906E-12	675.476E-3	-32.0683E-3
4.84492E-3	192.739E-12	627.974E-3	-63.0248E-3	192.915E-12	694.605E-3	-15.1695E-3
4.83992E-3	194.509E-12	649.216E-3	-44.0603E-3	193.066E-12	669.415E-3	-23.9224E-3
4.83492E-3	193.837E-12	637.782E-3	-15.5798E-3	191.336E-12	632.563E-3	-58.5497E-3
4.82991E-3	193.463E-12	627.202E-3	-1.98424E-3	190.362E-12	622.135E-3	-59.1339E-3
4.82491E-3	194.342E-12	644.547E-3	-6.44489E-3	190.001E-12	632.771E-3	-26.1009E-3
4.81991E-3	194.458E-12	665.075E-3	-10.2939E-3	189.933E-12	631.300E-3	-9.45612E-3
4.81491E-3	194.315E-12	664.678E-3	-21.3969E-3	189.122E-12	594.155E-3	-30.3204E-3
4.80990E-3	194.077E-12	671.532E-3	-24.0295E-3	189.209E-12	589.670E-3	-43.7874E-3
4.80490E-3	192.857E-12	670.987E-3	6.87298E-3	189.842E-12	640.242E-3	-22.0296E-3
4.79990E-3	191.886E-12	639.123E-3	16.7069E-3	190.617E-12	666.244E-3	6.13435E-3
4.79490E-3	191.351E-12	643.892E-3	14.4442E-3	191.056E-12	654.298E-3	15.0566E-3
4.78989E-3	189.487E-12	662.852E-3	28.8846E-3	192.193E-12	646.261E-3	633.736E-6
4.78489E-3	187.931E-12	643.936E-3	17.8058E-3	193.022E-12	646.712E-3	-11.1486E-3
4.77989E-3	187.557E-12	623.910E-3	-7.93843E-3	192.975E-12	640.833E-3	-11.5155E-3
4.77489E-3	186.690E-12	626.978E-3	-18.9503E-3	192.798E-12	636.003E-3	-15.5255E-3
4.76988E-3	186.541E-12	649.926E-3	-30.7670E-3	191.442E-12	643.835E-3	-13.0738E-3
4.76488E-3	186.927E-12	655.692E-3	-41.7944E-3	191.345E-12	639.646E-3	-15.1009E-3
4.75988E-3	187.523E-12	638.176E-3	-47.4295E-3	190.871E-12	611.772E-3	-22.5646E-3
4.75488E-3	188.181E-12	628.892E-3	-65.4305E-3	189.448E-12	595.993E-3	-24.2201E-3
4.74988E-3	188.461E-12	627.359E-3	-81.0208E-3	189.057E-12	588.525E-3	-27.6395E-3
4.74487E-3	189.544E-12	627.923E-3	-59.8635E-3	188.951E-12	585.451E-3	-10.3885E-3
4.73987E-3	190.455E-12	636.017E-3	-28.5788E-3	188.290E-12	615.362E-3	13.3601E-3
4.73487E-3	190.085E-12	651.894E-3	-24.1651E-3	187.255E-12	651.665E-3	906.268E-6
4.72986E-3	189.961E-12	665.696E-3	-21.1019E-3	188.189E-12	662.196E-3	-36.9418E-3
4.72486E-3	189.778E-12	658.574E-3	-8.30475E-3	187.709E-12	660.917E-3	-51.2520E-3
4.71986E-3	189.179E-12	643.403E-3	-13.2304E-3	187.737E-12	652.769E-3	-38.8175E-3
4.71486E-3	188.088E-12	630.890E-3	-23.2789E-3	187.976E-12	646.659E-3	-37.2004E-3
4.70985E-3	187.468E-12	639.832E-3	-20.3199E-3	188.199E-12	659.146E-3	-43.2398E-3
4.70485E-3	186.226E-12	657.572E-3	-16.8011E-3	187.703E-12	672.545E-3	-48.0963E-3
4.69985E-3	184.835E-12	643.132E-3	-9.84289E-3	188.538E-12	657.382E-3	-51.2864E-3
4.69485E-3	183.528E-12	633.297E-3	-21.7122E-3	187.588E-12	648.024E-3	-37.3052E-3
4.68984E-3	183.147E-12	642.973E-3	-47.9148E-3	187.342E-12	675.473E-3	-28.4922E-3
4.68484E-3	182.637E-12	647.206E-3	-51.4807E-3	187.235E-12	677.386E-3	-34.7844E-3
4.67984E-3	182.459E-12	651.923E-3	-42.3418E-3	186.834E-12	659.559E-3	-4.86025E-3
4.67484E-3	182.797E-12	662.168E-3	-15.9021E-3	185.696E-12	652.499E-3	36.9044E-3
4.66983E-3	183.137E-12	656.944E-3	3.39157E-3	184.925E-12	637.021E-3	24.1435E-3
4.66483E-3	184.457E-12	643.111E-3	-15.6435E-3	184.345E-12	621.230E-3	-5.46613E-3
4.65983E-3	185.875E-12	640.786E-3	-38.8492E-3	184.399E-12	624.377E-3	-17.4338E-3
4.65483E-3	186.970E-12	662.544E-3	-32.8806E-3	184.033E-12	660.743E-3	-26.3573E-3
4.64982E-3	187.991E-12	686.848E-3	-37.1521E-3	183.570E-12	670.499E-3	-23.4632E-3
4.64482E-3	188.558E-12	682.175E-3	-46.6540E-3	184.985E-12	646.509E-3	2.71541E-3
4.63982E-3	188.844E-12	687.118E-3	-31.8009E-3	184.251E-12	648.818E-3	15.8628E-3
4.63482E-3	187.320E-12	704.348E-3	-40.1557E-3	184.410E-12	655.294E-3	-1.44776E-3
4.62981E-3	186.785E-12	701.941E-3	-51.2585E-3	184.955E-12	651.819E-3	-16.2103E-3
4.62481E-3	186.227E-12	690.774E-3	-33.4173E-3	185.235E-12	648.738E-3	-12.7351E-3
4.61981E-3	185.170E-12	686.930E-3	-35.9688E-3	184.652E-12	656.332E-3	5.98521E-3
4.61481E-3	183.088E-12	670.391E-3	-47.8881E-3	184.738E-12	666.431E-3	25.8691E-3
4.60980E-3	182.360E-12	656.402E-3	-29.3492E-3	183.820E-12	664.451E-3	12.6149E-3
4.60480E-3	181.274E-12	667.517E-3	-13.5119E-3	183.803E-12	647.283E-3	-16.1044E-3
4.59980E-3	179.828E-12	672.138E-3	-8.69713E-3	182.618E-12	629.499E-3	-25.6492E-3
4.59480E-3	180.298E-12	652.754E-3	-1.82066E-3	182.033E-12	650.403E-3	-32.9770E-3
4.58979E-3	180.222E-12	633.990E-3	-32.2184E-6	180.700E-12	662.415E-3	-28.7091E-3
4.58479E-3	179.786E-12	647.794E-3	-13.8239E-3	180.800E-12	641.999E-3	-9.12448E-3
4.57979E-3	180.809E-12	653.084E-3	-20.5757E-3	180.412E-12	635.647E-3	6.55511E-3
4.57479E-3	181.753E-12	626.005E-3	-14.3245E-3	179.904E-12	633.593E-3	2.61425E-3
4.56978E-3	182.276E-12	626.743E-3	-16.9500E-3	179.361E-12	645.642E-3	-21.7398E-3
4.56478E-3	182.917E-12	653.217E-3	-21.8308E-3	179.508E-12	678.867E-3	-50.7255E-3
4.55978E-3	183.289E-12	642.499E-3	-22.7694E-3	180.133E-12	678.680E-3	-75.3694E-3
4.55478E-3	183.932E-12	608.962E-3	-10.1755E-3	181.073E-12	651.974E-3	-75.2451E-3
4.54977E-3	183.681E-12	616.496E-3	9.52955E-3	182.104E-12	655.985E-3	-62.0506E-3
4.54477E-3	182.963E-12	658.604E-3	20.8563E-3	182.868E-12	683.793E-3	-44.6759E-3
4.53977E-3	181.893E-12	686.049E-3	3.57850E-3	183.343E-12	682.187E-3	-9.74920E-3
4.53477E-3	181.138E-12	682.168E-3	-12.3055E-3	184.671E-12	660.031E-3	-5.83632E-3
4.52976E-3	179.903E-12	658.317E-3	-18.7526E-3	184.083E-12	659.883E-3	-38.2724E-3
4.52476E-3	179.151E-12	640.806E-3	-46.0452E-3	182.793E-12	665.398E-3	-57.6693E-3
4.51976E-3	178.219E-12	638.408E-3	-53.6768E-3	181.983E-12	658.640E-3	-41.1083E-3
4.51476E-3	176.979E-12	634.065E-3	-32.8151E-3	182.774E-12	656.405E-3	-6.64331E-3
4.50975E-3	176.606E-12	635.088E-3	-21.8983E-3	180.497E-12	652.902E-3	-669.879E-6
4.50475E-3	175.946E-12	661.828E-3	-14.1788E-3	179.228E-12	627.784E-3	2.07616E-3
4.49975E-3	175.643E-12	678.330E-3	-2.53911E-3	177.677E-12	610.588E-3	3.29966E-3
4.49475E-3	175.523E-12	656.109E-3	-4.38784E-3	177.262E-12	625.768E-3	-17.9861E-3
4.48974E-3	176.174E-12	642.739E-3	5.90549E-3	175.786E-12	639.136E-3	-22.8683E-3
4.48474E-3	177.009E-12	650.695E-3	28.1224E-3	175.903E-12	643.497E-3	-18.0646E-3
4.47974E-3	178.253E-12	663.068E-3	22.4499E-3	175.265E-12	653.160E-3	-14.9098E-3
4.47474E-3	178.872E-12	678.980E-3	2.71934E-3	175.403E-12	677.373E-3	-3.27730E-3
4.46973E-3	179.191E-12	682.298E-3	-14.2859E-3	176.011E-12	681.047E-3	11.3934E-3
4.46473E-3	179.038E-12	650.126E-3	-30.8962E-3	176.051E-12	656.340E-3	22.9652E-3
4.45973E-3	177.754E-12	602.786E-3	-36.2373E-3	176.251E-12	657.010E-3	16.2483E-3
4.45473E-3	178.154E-12	586.566E-3	-35.9913E-3	177.623E-12	678.068E-3	12.6965E-3
4.44972E-3	177.461E-12	622.042E-3	-35.0761E-3	178.417E-12	687.366E-3	9.10645E-3
4.44472E-3	177.171E-12	675.516E-3	-33.3489E-3	178.046E-12	668.849E-3	-23.0314E-3
4.43972E-3	175.571E-12	683.129E-3	-39.3471E-3	179.073E-12	642.029E-3	-40.7483E-3
4.43472E-3	174.703E-12	658.374E-3	-33.2320E-3	179.121E-12	636.883E-3	-23.6558E-3
4.42971E-3	173.555E-12	649.013E-3	-3.42200E-3	177.877E-12	639.148E-3	-7.03189E-3
4.42471E-3	173.168E-12	663.607E-3	11.8669E-3	176.465E-12	657.081E-3	-23.2190E-3
4.41971E-3	172.380E-12	665.969E-3	-12.8603E-3	176.248E-12	662.192E-3	-36.9114E-3
4.41471E-3	172.157E-12	651.301E-3	-43.8963E-3	175.189E-12	642.196E-3	-14.3658E-3
4.40970E-3	173.332E-12	651.165E-3	-38.8607E-3	173.568E-12	650.205E-3	2.36062E-3
4.40470E-3	173.000E-12	645.041E-3	-20.5480E-3	171.956E-12	646.005E-3	-8.90749E-3
4.39970E-3	173.066E-12	643.182E-3	-15.1668E-3	171.771E-12	624.907E-3	-19.6950E-3
4.39470E-3	174.098E-12	659.214E-3	-1.62200E-3	171.711E-12	631.543E-3	-9.39399E-3
4.38969E-3	174.176E-12	658.887E-3	-13.5179E-3	171.253E-12	644.400E-3	3.34114E-3
4.38469E-3	174.196E-12	652.363E-3	-50.0011E-3	171.090E-12	658.063E-3	13.9536E-3
4.37969E-3	174.119E-12	653.746E-3	-50.2258E-3	171.775E-12	663.732E-3	6.36083E-3
4.37469E-3	174.102E-12	659.464E-3	-33.8361E-3	171.959E-12	636.721E-3	-23.0800E-3
4.36968E-3	174.044E-12	670.669E-3	-7.63620E-3	171.855E-12	616.817E-3	-22.7718E-3
4.36468E-3	173.337E-12	683.732E-3	7.85672E-3	173.129E-12	635.623E-3	-13.1515E-3
4.35968E-3	172.195E-12	678.531E-3	-18.7950E-3	174.032E-12	656.379E-3	-27.1397E-3
4.35468E-3	172.468E-12	643.973E-3	-19.6038E-3	174.132E-12	665.544E-3	-42.9498E-3
4.34967E-3	171.605E-12	624.930E-3	14.9605E-3	174.766E-12	680.222E-3	-39.0228E-3
4.34467E-3	170.643E-12	646.538E-3	19.4342E-3	174.644E-12	681.320E-3	-1.79396E-3
4.33967E-3	170.155E-12	661.322E-3	18.7896E-3	174.353E-12	670.574E-3	29.0151E-3
4.33467E-3	170.551E-12	646.192E-3	32.3282E-3	173.655E-12	665.554E-3	15.2290E-3
4.32966E-3	170.388E-12	626.056E-3	17.3967E-3	172.798E-12	654.779E-3	-11.8747E-3
4.32466E-3	170.145E-12	611.686E-3	-15.9806E-3	171.783E-12	642.187E-3	-16.8063E-3
4.31966E-3	170.846E-12	611.296E-3	-32.1115E-3	170.546E-12	640.180E-3	-22.2180E-3
4.31466E-3	171.802E-12	617.555E-3	-35.0851E-3	170.294E-12	642.118E-3	-39.4768E-3
4.30965E-3	171.520E-12	627.403E-3	-45.6764E-3	169.963E-12	641.056E-3	-46.7173E-3
4.30465E-3	171.102E-12	666.129E-3	-43.1014E-3	168.865E-12	644.193E-3	-45.5383E-3
4.29965E-3	172.220E-12	692.498E-3	-24.6713E-3	169.126E-12	643.148E-3	-47.1685E-3
4.29465E-3	171.822E-12	684.072E-3	-19.3434E-3	169.445E-12	630.967E-3	-48.9169E-3
4.28964E-3	171.193E-12	673.635E-3	-34.1959E-3	169.417E-12	634.058E-3	-43.0868E-3
4.28464E-3	170.632E-12	652.529E-3	-39.8406E-3	169.476E-12	661.955E-3	-38.9322E-3
4.27964E-3	169.664E-12	640.155E-3	-18.6771E-3	170.267E-12	687.069E-3	-22.0811E-3
4.27464E-3	167.807E-12	648.266E-3	-1.09584E-3	170.230E-12	697.656E-3	18.8567E-3
4.26963E-3	167.234E-12	658.865E-3	-13.6097E-3	170.188E-12	679.601E-3	31.9426E-3
4.26463E-3	166.669E-12	669.869E-3	-37.3489E-3	170.467E-12	641.291E-3	14.5866E-3
4.25963E-3	165.452E-12	673.773E-3	-40.3786E-3	170.550E-12	646.307E-3	5.73390E-3
4.25463E-3	166.124E-12	673.078E-3	-45.6179E-3	168.949E-12	686.590E-3	3.22107E-3
4.24962E-3	166.516E-12	664.679E-3	-47.9752E-3	169.084E-12	694.243E-3	-2.64663E-3
4.24462E-3	165.432E-12	646.504E-3	-34.9824E-3	168.475E-12	684.137E-3	-20.3178E-3
4.23962E-3	166.191E-12	646.183E-3	-32.5708E-3	167.463E-12	679.847E-3	-39.7183E-3
4.23462E-3	167.113E-12	664.566E-3	-43.6108E-3	166.257E-12	671.006E-3	-24.4240E-3
4.22961E-3	167.414E-12	670.655E-3	-41.7338E-3	166.759E-12	666.345E-3	3.17588E-3
4.22461E-3	167.653E-12	669.494E-3	-15.9974E-3	165.594E-12	663.172E-3	-14.5890E-3
4.21961E-3	168.815E-12	676.047E-3	-6.97320E-3	166.275E-12	660.104E-3	-27.8732E-3
4.21461E-3	169.305E-12	680.358E-3	-17.8709E-3	165.512E-12	648.808E-3	-14.3250E-3
4.20960E-3	168.605E-12	672.931E-3	-7.97945E-3	166.099E-12	627.353E-3	-37.3764E-3
4.20460E-3	167.326E-12	672.618E-3	1.48789E-3	165.610E-12	621.378E-3	-67.0684E-3
4.19960E-3	167.994E-12	678.967E-3	14.3121E-3	165.781E-12	650.979E-3	-50.5767E-3
4.19460E-3	166.336E-12	667.776E-3	38.9392E-3	165.376E-12	682.355E-3	-17.2699E-3
4.18959E-3	164.902E-12	640.786E-3	24.3327E-3	165.598E-12	670.943E-3	-3.76883E-3
4.18459E-3	164.358E-12	630.580E-3	-16.8962E-3	165.341E-12	642.328E-3	-2.22909E-3
4.17959E-3	162.788E-12	639.838E-3	-36.9211E-3	165.752E-12	635.890E-3	-3.61332E-3
4.17459E-3	161.353E-12	634.375E-3	-25.0379E-3	164.927E-12	653.490E-3	-18.7290E-3
4.16958E-3	161.530E-12	623.770E-3	-5.28852E-3	164.264E-12	668.467E-3	-28.3235E-3
4.16458E-3	161.522E-12	629.225E-3	-6.52303E-3	164.261E-12	672.749E-3	-31.0591E-3
4.15958E-3	160.653E-12	635.411E-3	-26.7527E-3	163.246E-12	671.692E-3	-36.1745E-3
4.15458E-3	160.791E-12	644.571E-3	-45.8748E-3	162.837E-12	668.508E-3	-18.3995E-3
4.14957E-3	161.648E-12	651.052E-3	-53.9409E-3	162.440E-12	664.446E-3	-10.1737E-3
4.14457E-3	162.595E-12	641.217E-3	-38.1735E-3	161.134E-12	645.623E-3	-39.7615E-3
4.13957E-3	163.212E-12	643.869E-3	-18.0155E-3	161.741E-12	628.605E-3	-55.5317E-3
4.13457E-3	164.381E-12	664.912E-3	-13.3111E-3	161.820E-12	643.050E-3	-43.4700E-3
4.12956E-3	163.701E-12	681.372E-3	-11.7894E-3	162.126E-12	680.641E-3	-28.9375E-3
4.12456E-3	164.582E-12	685.661E-3	-23.1984E-3	163.088E-12	705.347E-3	-7.38434E-3
4.11956E-3	164.539E-12	675.594E-3	-27.4820E-3	163.811E-12	697.944E-3	119.560E-6
4.11456E-3	164.285E-12	654.786E-3	-26.8505E-3	163.142E-12	671.330E-3	-8.92418E-3
4.10955E-3	163.677E-12	641.608E-3	-32.2497E-3	163.558E-12	653.984E-3	-22.2944E-3
4.10455E-3	163.066E-12	643.695E-3	-16.0864E-3	164.208E-12	654.711E-3	-22.9522E-3
4.09955E-3	161.364E-12	647.539E-3	-6.72911E-3	163.702E-12	665.982E-3	1.61091E-3
4.09455E-3	159.783E-12	650.212E-3	-15.4689E-3	163.363E-12	674.859E-3	18.0673E-3
4.08954E-3	159.288E-12	640.527E-3	-24.2072E-3	162.704E-12	676.762E-3	12.5138E-3
4.08454E-3	158.555E-12	631.383E-3	-31.5444E-3	161.712E-12	685.015E-3	-524.091E-6
4.07954E-3	157.565E-12	652.253E-3	-24.8484E-3	161.842E-12	684.459E-3	-2.23612E-3
4.07454E-3	156.534E-12	674.840E-3	-34.0295E-3	160.404E-12	668.498E-3	-3.99484E-3
4.06953E-3	157.442E-12	662.229E-3	-61.1974E-3	158.902E-12	650.639E-3	-13.3082E-3
4.06453E-3	157.309E-12	642.564E-3	-61.8304E-3	158.021E-12	640.562E-3	-5.45365E-3
4.05953E-3	157.271E-12	636.656E-3	-47.0613E-3	157.680E-12	629.897E-3	-1.18393E-3
4.05453E-3	157.955E-12	641.782E-3	-40.1025E-3	157.049E-12	607.176E-3	-16.2031E-3
4.04952E-3	158.675E-12	649.961E-3	-37.0351E-3	156.759E-12	607.062E-3	-20.2893E-3
4.04452E-3	158.949E-12	644.630E-3	-30.9131E-3	156.842E-12	642.493E-3	-6.67981E-3
4.03952E-3	159.433E-12	648.887E-3	-24.2158E-3	156.914E-12	649.624E-3	-6.91897E-3
4.03452E-3	159.922E-12	666.971E-3	-16.0273E-3	157.634E-12	627.737E-3	-23.4198E-3
4.02951E-3	160.114E-12	673.678E-3	-7.04366E-3	158.314E-12	633.461E-3	-26.8725E-3
4.02451E-3	159.611E-12	660.368E-3	-9.11068E-3	159.167E-12	660.459E-3	-26.2465E-3
4.01951E-3	158.731E-12	641.486E-3	-21.8546E-3	159.685E-12	678.074E-3	-24.0448E-3
4.01451E-3	158.653E-12	641.027E-3	-37.4487E-3	159.905E-12	668.035E-3	-17.6441E-3
4.00950E-3	157.860E-12	665.994E-3	-42.7606E-3	159.815E-12	655.585E-3	-780.944E-6
4.00450E-3	156.193E-12	690.365E-3	-30.7078E-3	159.236E-12	659.357E-3	28.5264E-3
3.99950E-3	155.369E-12	684.467E-3	-8.36600E-3	158.358E-12	662.956E-3	42.8150E-3
3.99450E-3	155.179E-12	662.492E-3	-9.43632E-3	158.357E-12	682.197E-3	42.8177E-3
3.98949E-3	154.128E-12	647.846E-3	-16.2833E-3	157.133E-12	693.037E-3	17.3057E-3
3.98449E-3	154.285E-12	651.168E-3	-12.1414E-3	155.995E-12	664.687E-3	-27.1545E-3
3.97949E-3	154.785E-12	674.903E-3	-22.2060E-3	154.766E-12	642.640E-3	-42.3058E-3
3.97449E-3	154.706E-12	698.803E-3	-22.3378E-3	153.596E-12	649.947E-3	-45.2448E-3
3.96948E-3	155.488E-12	703.877E-3	-16.9104E-3	152.999E-12	673.724E-3	-46.1453E-3
3.96448E-3	155.343E-12	679.813E-3	-21.1027E-3	152.877E-12	690.889E-3	-27.7534E-3
3.95948E-3	155.408E-12	650.149E-3	-21.9475E-3	152.561E-12	687.139E-3	-10.6869E-3
3.95448E-3	155.282E-12	643.494E-3	-11.8779E-3	152.683E-12	688.909E-3	6.09597E-3
3.94947E-3	155.429E-12	651.834E-3	-1.18235E-3	154.230E-12	685.460E-3	10.2258E-3
3.94447E-3	154.968E-12	654.011E-3	-1.56883E-3	154.642E-12	676.785E-3	-24.6235E-3
3.93947E-3	155.717E-12	657.133E-3	-7.46720E-3	154.511E-12	694.631E-3	-47.7773E-3
3.93447E-3	154.520E-12	664.975E-3	-23.0951E-3	155.796E-12	708.866E-3	-21.5548E-3
3.92946E-3	154.595E-12	661.247E-3	-37.7887E-3	156.891E-12	691.406E-3	-2.83875E-3
3.92446E-3	154.366E-12	648.988E-3	-15.8446E-3	156.528E-12	687.724E-3	-5.40673E-3
3.91946E-3	153.046E-12	644.559E-3	710.345E-6	155.839E-12	694.128E-3	4.70735E-3
3.91446E-3	152.198E-12	660.381E-3	-8.68497E-3	155.733E-12	674.583E-3	12.7138E-3
3.90945E-3	152.699E-12	673.872E-3	2.99801E-3	155.289E-12	670.603E-3	985.535E-6
3.90445E-3	151.107E-12	661.636E-3	194.398E-6	154.305E-12	677.860E-3	-24.8854E-3
3.89945E-3	150.659E-12	647.475E-3	-40.0937E-3	154.006E-12	669.804E-3	-32.1960E-3
3.89445E-3	151.244E-12	645.234E-3	-65.2961E-3	152.452E-12	664.865E-3	-15.1233E-3
3.88944E-3	151.274E-12	644.095E-3	-43.8962E-3	151.491E-12	677.288E-3	-12.3612E-3
3.88444E-3	150.641E-12	638.012E-3	-14.1060E-3	151.006E-12	689.500E-3	-28.4774E-3
3.87944E-3	150.985E-12	636.617E-3	-10.3635E-3	150.636E-12	669.512E-3	-26.7749E-3
3.87444E-3	151.243E-12	646.030E-3	-21.0583E-3	149.783E-12	638.902E-3	-10.6323E-3
3.86943E-3	150.985E-12	648.413E-3	-32.6127E-3	150.017E-12	647.964E-3	-18.6068E-3
3.86443E-3	150.755E-12	634.780E-3	-38.2734E-3	149.621E-12	679.739E-3	-34.2358E-3
3.85943E-3	151.011E-12	631.962E-3	-24.1950E-3	150.622E-12	688.951E-3	-25.4536E-3
3.85443E-3	150.986E-12	656.783E-3	-8.06399E-3	150.273E-12	676.660E-3	1.43345E-3
3.84942E-3	149.912E-12	666.789E-3	938.721E-6	150.398E-12	662.946E-3	17.5445E-3
3.84442E-3	149.555E-12	663.282E-3	12.2007E-3	150.221E-12	669.183E-3	5.32032E-3
3.83942E-3	148.674E-12	669.242E-3	9.43619E-3	150.824E-12	677.173E-3	2.09839E-3
3.83442E-3	147.975E-12	673.271E-3	5.86966E-3	150.759E-12	674.991E-3	18.9559E-3
3.82941E-3	146.999E-12	660.645E-3	13.9075E-3	150.270E-12	675.772E-3	17.9346E-3
3.82441E-3	147.302E-12	649.068E-3	10.1797E-3	150.207E-12	665.933E-3	498.972E-6
3.81941E-3	146.710E-12	660.125E-3	-6.67415E-3	149.887E-12	663.039E-3	-25.2252E-3
3.81441E-3	146.516E-12	656.194E-3	-4.07729E-3	149.003E-12	685.405E-3	-46.6480E-3
3.80940E-3	146.206E-12	642.538E-3	-7.29600E-3	148.411E-12	684.339E-3	-34.8037E-3
3.80440E-3	146.683E-12	643.941E-3	-10.7414E-3	147.330E-12	651.658E-3	-8.12746E-3
3.79940E-3	147.277E-12	649.514E-3	-7.61327E-3	146.504E-12	632.829E-3	-5.81921E-3
3.79440E-3	148.069E-12	646.352E-3	-41.7529E-3	146.710E-12	644.437E-3	-24.4075E-3
3.78939E-3	148.507E-12	645.828E-3	-57.0413E-3	145.948E-12	669.685E-3	-24.2154E-3
3.78439E-3	148.913E-12	644.540E-3	-43.3172E-3	145.869E-12	676.806E-3	-1.90152E-3
3.77939E-3	148.579E-12	634.427E-3	-35.3276E-3	146.318E-12	671.201E-3	3.00279E-3
3.77439E-3	148.586E-12	656.642E-3	-18.7942E-3	145.602E-12	663.581E-3	-14.5833E-3
3.76938E-3	148.408E-12	690.455E-3	-7.37959E-3	145.832E-12	654.416E-3	-36.1206E-3
3.76438E-3	147.594E-12	685.063E-3	-13.2547E-3	146.325E-12	660.662E-3	-49.6096E-3
3.75938E-3	146.943E-12	681.127E-3	-10.1898E-3	146.280E-12	672.984E-3	-48.9137E-3
3.75438E-3	146.348E-12	689.872E-3	-6.22460E-3	146.056E-12	668.688E-3	-35.9257E-3
3.74937E-3	145.553E-12	678.056E-3	-20.4361E-3	146.100E-12	658.756E-3	-15.8741E-3
3.74437E-3	144.480E-12	670.687E-3	-23.9252E-3	145.730E-12	653.762E-3	4.33037E-3
3.73937E-3	143.184E-12	674.486E-3	-20.5092E-3	145.455E-12	657.885E-3	10.7826E-3
3.73437E-3	143.037E-12	670.821E-3	-17.9509E-3	144.708E-12	661.620E-3	-951.729E-6
3.72936E-3	143.163E-12	668.093E-3	-6.93401E-3	144.812E-12	643.184E-3	-14.5076E-3
3.72436E-3	143.330E-12	666.530E-3	-8.09130E-3	144.135E-12	629.917E-3	-17.4626E-3
3.71936E-3	143.418E-12	645.845E-3	-27.4903E-3	144.135E-12	637.552E-3	-4.16990E-3
3.71436E-3	144.007E-12	624.277E-3	-26.2201E-3	143.339E-12	656.260E-3	9.36970E-3
3.70935E-3	144.104E-12	620.716E-3	-8.54329E-3	143.400E-12	696.075E-3	1.99480E-3
3.70435E-3	145.250E-12	626.601E-3	-6.76678E-3	143.537E-12	705.190E-3	-11.4121E-3
3.69935E-3	146.219E-12	643.971E-3	-18.3816E-3	144.469E-12	661.513E-3	-23.1444E-3
3.69435E-3	145.525E-12	651.639E-3	-12.8714E-3	143.958E-12	647.259E-3	-12.9510E-3
3.68934E-3	145.515E-12	649.055E-3	1.88592E-3	144.319E-12	674.683E-3	17.9257E-3
3.68434E-3	145.981E-12	650.376E-3	-10.4822E-3	143.966E-12	680.509E-3	22.5606E-3
3.67934E-3	144.743E-12	647.923E-3	-22.2813E-3	143.625E-12	652.270E-3	74.7426E-6
3.67434E-3	143.762E-12	637.951E-3	-17.0354E-3	143.422E-12	633.099E-3	-17.1152E-3
3.66933E-3	143.342E-12	638.843E-3	-11.4185E-3	142.557E-12	637.009E-3	-12.6455E-3
3.66433E-3	141.852E-12	653.167E-3	-11.5793E-3	142.407E-12	649.422E-3	-12.2295E-3
3.65933E-3	140.376E-12	658.638E-3	-22.7399E-3	141.546E-12	669.104E-3	-26.8577E-3
3.65433E-3	140.439E-12	667.756E-3	-38.8706E-3	140.979E-12	671.288E-3	-29.0000E-3
3.64932E-3	139.771E-12	687.591E-3	-38.9413E-3	140.994E-12	660.765E-3	-22.1281E-3
3.64432E-3	138.158E-12	687.825E-3	-22.9126E-3	140.623E-12	656.744E-3	-21.6213E-3
3.63932E-3	138.111E-12	675.861E-3	-11.8179E-3	139.747E-12	646.448E-3	-11.1294E-3
3.63432E-3	138.824E-12	660.121E-3	-19.4138E-3	139.482E-12	643.412E-3	-3.68229E-3
3.62931E-3	138.588E-12	626.084E-3	-16.6570E-3	139.637E-12	648.081E-3	-17.0036E-3
3.62431E-3	139.406E-12	618.174E-3	2.06694E-3	138.804E-12	655.594E-3	-23.5646E-3
3.61931E-3	140.925E-12	645.447E-3	1.04330E-3	138.659E-12	657.215E-3	-11.3797E-3
3.61431E-3	141.357E-12	651.873E-3	-19.8810E-3	138.719E-12	636.757E-3	-2.60816E-3
3.60930E-3	141.468E-12	648.942E-3	-33.2755E-3	139.627E-12	614.843E-3	-8.08668E-3
3.60430E-3	141.409E-12	660.476E-3	-22.5997E-3	139.732E-12	613.894E-3	-6.04078E-3
3.59930E-3	141.120E-12	668.255E-3	-6.23662E-3	139.409E-12	637.587E-3	1.23459E-3
3.59430E-3	140.815E-12	675.194E-3	-4.06090E-3	139.403E-12	670.276E-3	-11.2772E-3
3.58929E-3	140.683E-12	676.171E-3	-5.64983E-3	140.129E-12	684.698E-3	-26.1926E-3
3.58429E-3	139.949E-12	663.372E-3	-9.59413E-3	139.808E-12	664.856E-3	-37.2025E-3
3.57929E-3	138.813E-12	649.759E-3	-18.0136E-3	138.738E-12	641.253E-3	-31.4809E-3
3.57429E-3	138.030E-12	644.915E-3	-26.3612E-3	138.032E-12	644.496E-3	-3.24717E-3
3.56928E-3	137.836E-12	642.859E-3	-29.5151E-3	137.526E-12	646.841E-3	4.65025E-3
3.56428E-3	136.985E-12	641.572E-3	-11.2609E-3	137.342E-12	635.820E-3	-10.7246E-3
3.55928E-3	135.581E-12	653.305E-3	4.65199E-3	136.625E-12	637.451E-3	-11.4088E-3
3.55428E-3	134.966E-12	668.548E-3	6.51777E-3	135.756E-12	646.984E-3	9.61566E-3
3.54927E-3	134.948E-12	672.106E-3	6.92155E-3	135.209E-12	647.501E-3	8.55053E-3
3.54427E-3	135.884E-12	662.122E-3	-9.22535E-3	135.382E-12	649.256E-3	-22.9213E-3
3.53927E-3	135.792E-12	652.501E-3	-16.7117E-3	135.239E-12	646.146E-3	-36.4350E-3
3.53427E-3	135.460E-12	644.777E-3	-6.84186E-3	135.330E-12	639.551E-3	-20.9040E-3
3.52926E-3	136.344E-12	638.261E-3	2.27328E-3	135.062E-12	657.920E-3	-789.489E-6
3.52426E-3	136.836E-12	635.951E-3	12.4678E-3	135.101E-12	686.549E-3	-1.70622E-3
3.51926E-3	136.807E-12	638.982E-3	21.4768E-3	136.149E-12	680.093E-3	-21.2693E-3
3.51426E-3	136.933E-12	654.867E-3	27.0835E-3	136.085E-12	656.390E-3	-27.2284E-3
3.50925E-3	136.260E-12	666.460E-3	16.7736E-3	136.187E-12	660.867E-3	-12.8291E-3
3.50425E-3	135.450E-12	657.282E-3	-11.4332E-3	136.499E-12	677.691E-3	-3.96433E-3
3.49925E-3	135.939E-12	651.540E-3	-22.8947E-3	136.607E-12	675.529E-3	-9.37124E-3
3.49425E-3	135.088E-12	651.031E-3	-14.4413E-3	136.516E-12	667.760E-3	-22.3277E-3
3.48924E-3	133.453E-12	662.415E-3	-13.5828E-3	136.287E-12	662.846E-3	-37.8498E-3
3.48424E-3	133.587E-12	685.171E-3	-11.6767E-3	135.120E-12	653.370E-3	-38.9398E-3
3.47924E-3	133.480E-12	677.944E-3	-2.39675E-3	135.231E-12	657.015E-3	-26.2743E-3
3.47424E-3	132.083E-12	673.074E-3	-4.22085E-3	134.874E-12	665.143E-3	-20.4589E-3
3.46923E-3	132.193E-12	673.955E-3	-5.20845E-3	134.086E-12	658.115E-3	-21.7914E-3
3.46423E-3	132.056E-12	655.999E-3	2.53267E-3	133.465E-12	657.468E-3	-20.0231E-3
3.45923E-3	131.419E-12	645.979E-3	-7.15645E-3	132.911E-12	649.929E-3	-28.6445E-3
3.45423E-3	131.548E-12	648.550E-3	-19.6747E-3	132.515E-12	624.926E-3	-40.2361E-3
3.44922E-3	132.280E-12	650.214E-3	-1.76175E-3	132.224E-12	633.151E-3	-34.0921E-3
3.44422E-3	131.897E-12	634.407E-3	11.4213E-3	131.614E-12	662.015E-3	-24.1107E-3
3.43922E-3	131.771E-12	624.100E-3	-5.73767E-3	130.971E-12	668.008E-3	-19.6322E-3
3.43422E-3	132.791E-12	638.069E-3	-15.7885E-3	131.616E-12	669.417E-3	-12.1585E-3
3.42921E-3	132.824E-12	640.863E-3	-10.9997E-3	131.594E-12	670.840E-3	-17.7515E-3
3.42421E-3	131.560E-12	644.940E-3	-7.90115E-3	131.778E-12	666.511E-3	-26.2079E-3
3.41921E-3	131.932E-12	669.282E-3	-9.36509E-3	131.904E-12	678.222E-3	-21.0963E-3
3.41421E-3	131.750E-12	672.759E-3	-17.6552E-3	131.656E-12	688.287E-3	-18.8390E-3
3.40920E-3	130.627E-12	667.289E-3	-16.2976E-3	131.509E-12	661.337E-3	-9.83274E-3
3.40420E-3	129.921E-12	667.382E-3	-3.17453E-3	131.857E-12	633.117E-3	11.0475E-3
3.39920E-3	130.007E-12	649.989E-3	-6.72626E-3	130.640E-12	647.730E-3	11.6004E-3
3.39420E-3	129.578E-12	643.192E-3	-18.7001E-3	130.663E-12	680.941E-3	-7.38856E-3
3.38919E-3	129.578E-12	652.811E-3	-1.19994E-3	130.249E-12	680.453E-3	-12.8591E-3
3.38419E-3	129.740E-12	658.256E-3	13.1009E-3	129.808E-12	656.001E-3	-2.54828E-3
3.37919E-3	129.572E-12	668.781E-3	-4.13728E-3	129.177E-12	653.682E-3	259.722E-6
3.37419E-3	129.540E-12	675.162E-3	-14.3044E-3	129.632E-12	657.841E-3	45.8732E-6
3.36918E-3	130.410E-12	675.921E-3	-17.3904E-3	128.431E-12	653.350E-3	13.0524E-3
3.36418E-3	130.108E-12	685.533E-3	-17.7498E-3	127.600E-12	671.565E-3	23.6701E-3
3.35918E-3	129.950E-12	678.480E-3	-18.6494E-3	127.420E-12	687.449E-3	7.91572E-3
3.35418E-3	130.791E-12	657.869E-3	-22.4245E-3	128.006E-12	673.925E-3	-24.8350E-3
3.34917E-3	130.553E-12	659.547E-3	-12.1620E-3	126.695E-12	663.137E-3	-40.5971E-3
3.34417E-3	129.852E-12	662.251E-3	-7.49148E-3	126.366E-12	666.195E-3	-29.5206E-3
3.33917E-3	129.685E-12	657.763E-3	-28.4734E-3	126.860E-12	657.188E-3	-8.89028E-3
3.33417E-3	128.787E-12	672.290E-3	-45.7283E-3	126.923E-12	640.411E-3	6.33725E-3
3.32916E-3	128.058E-12	682.679E-3	-23.8960E-3	126.844E-12	646.952E-3	12.1351E-3
3.32416E-3	127.473E-12	667.570E-3	-3.94884E-3	126.698E-12	663.391E-3	12.4176E-3
3.31916E-3	126.370E-12	657.334E-3	-12.3206E-3	126.457E-12	676.127E-3	785.654E-6
3.31416E-3	125.917E-12	666.682E-3	-14.1822E-3	127.184E-12	688.841E-3	-3.54107E-3
3.30915E-3	125.599E-12	675.509E-3	-8.23135E-3	126.945E-12	695.662E-3	3.80619E-3
3.30415E-3	125.042E-12	678.307E-3	-16.1917E-3	126.458E-12	691.655E-3	2.46012E-3
3.29915E-3	124.854E-12	680.621E-3	-31.2114E-3	126.080E-12	675.697E-3	-3.65833E-3
3.29415E-3	125.088E-12	671.139E-3	-28.4597E-3	126.665E-12	660.053E-3	-20.3865E-3
3.28914E-3	125.380E-12	659.657E-3	-21.6260E-3	126.292E-12	659.929E-3	-25.5846E-3
3.28414E-3	125.324E-12	663.534E-3	-24.1599E-3	125.764E-12	666.121E-3	-2.39927E-3
3.27914E-3	125.258E-12	660.660E-3	-21.9396E-3	126.221E-12	664.393E-3	10.5708E-3
3.27414E-3	125.447E-12	657.551E-3	-18.2434E-3	126.063E-12	658.318E-3	5.50902E-3
3.26913E-3	125.760E-12	687.848E-3	-14.5303E-3	125.733E-12	668.897E-3	1.79191E-3
3.26413E-3	126.298E-12	722.319E-3	-13.0253E-3	125.985E-12	684.043E-3	-5.02173E-3
3.25913E-3	125.587E-12	716.465E-3	-9.21195E-3	125.029E-12	663.162E-3	-24.7625E-3
3.25413E-3	125.096E-12	690.994E-3	-721.671E-6	123.975E-12	634.481E-3	-60.9697E-3
3.24912E-3	124.414E-12	678.752E-3	-6.55623E-3	123.945E-12	641.768E-3	-77.1730E-3
3.24412E-3	123.473E-12	680.288E-3	-16.5092E-3	123.973E-12	655.537E-3	-44.3452E-3
3.23912E-3	122.444E-12	671.061E-3	-17.9261E-3	122.798E-12	667.780E-3	-11.7684E-3
3.23412E-3	121.859E-12	655.245E-3	-8.47137E-3	122.787E-12	680.025E-3	-12.1919E-3
3.22911E-3	121.165E-12	656.553E-3	-14.9683E-3	123.086E-12	677.003E-3	-12.0945E-3
3.22411E-3	120.659E-12	665.310E-3	-49.4271E-3	121.871E-12	680.174E-3	-7.60571E-3
3.21911E-3	120.389E-12	662.616E-3	-52.5898E-3	121.186E-12	685.751E-3	-23.0418E-3
3.21411E-3	119.468E-12	652.483E-3	-9.58152E-3	121.226E-12	672.880E-3	-25.2022E-3
3.20910E-3	119.146E-12	654.682E-3	11.8450E-3	120.648E-12	675.995E-3	-4.46939E-3
3.20410E-3	119.667E-12	663.357E-3	-4.31683E-3	120.298E-12	692.873E-3	-261.980E-6
3.19910E-3	120.065E-12	668.631E-3	-14.0304E-3	120.710E-12	675.763E-3	-4.52451E-3
3.19410E-3	120.254E-12	665.878E-3	-16.3122E-3	120.732E-12	666.168E-3	-9.73135E-3
3.18909E-3	120.557E-12	661.375E-3	-9.58783E-3	120.397E-12	692.941E-3	-14.6731E-3
3.18409E-3	121.728E-12	671.626E-3	-1.29793E-3	121.040E-12	697.682E-3	-19.6044E-3
3.17909E-3	121.565E-12	687.155E-3	-4.50328E-3	120.748E-12	669.262E-3	-20.7987E-3
3.17409E-3	121.887E-12	682.815E-3	5.33875E-3	120.291E-12	651.456E-3	-7.94795E-3
3.16908E-3	121.595E-12	657.470E-3	16.5800E-3	120.352E-12	658.886E-3	-19.9816E-3
3.16408E-3	121.498E-12	647.290E-3	7.46000E-3	120.244E-12	664.886E-3	-55.1262E-3
3.15908E-3	120.656E-12	670.522E-3	8.92306E-3	119.624E-12	655.622E-3	-58.9548E-3
3.15408E-3	120.048E-12	688.834E-3	2.22253E-3	119.635E-12	643.053E-3	-39.2944E-3
3.14907E-3	119.436E-12	686.492E-3	-27.6508E-3	119.014E-12	651.120E-3	-30.8006E-3
3.14407E-3	118.375E-12	674.577E-3	-40.4291E-3	118.877E-12	676.881E-3	-39.9888E-3
3.13907E-3	118.248E-12	649.034E-3	-41.0263E-3	118.471E-12	676.317E-3	-45.6131E-3
3.13407E-3	117.936E-12	649.385E-3	-36.5708E-3	117.976E-12	656.796E-3	-28.7677E-3
3.12906E-3	116.832E-12	666.964E-3	-27.8356E-3	118.166E-12	662.422E-3	-13.7268E-3
3.12406E-3	116.777E-12	662.206E-3	-37.9242E-3	117.425E-12	665.694E-3	-12.8563E-3
3.11906E-3	117.052E-12	664.448E-3	-53.9038E-3	117.412E-12	642.368E-3	-14.0144E-3
3.11406E-3	116.296E-12	667.879E-3	-38.8579E-3	117.245E-12	635.256E-3	-18.3049E-3
3.10905E-3	116.717E-12	651.564E-3	-12.0203E-3	116.792E-12	656.565E-3	-22.8392E-3
3.10405E-3	117.578E-12	651.865E-3	-13.3945E-3	117.090E-12	680.086E-3	-21.9548E-3
3.09905E-3	117.033E-12	669.121E-3	-14.7805E-3	116.793E-12	688.037E-3	-13.8572E-3
3.09405E-3	118.207E-12	673.801E-3	-7.14480E-3	116.317E-12	685.928E-3	-8.52666E-3
3.08904E-3	118.851E-12	678.515E-3	-16.6392E-3	116.441E-12	680.824E-3	488.229E-6
3.08404E-3	117.894E-12	689.555E-3	-11.2870E-3	116.677E-12	681.062E-3	13.4497E-3
3.07904E-3	117.639E-12	700.911E-3	13.1057E-3	116.507E-12	687.791E-3	-5.53782E-3
3.07404E-3	117.707E-12	708.299E-3	7.56038E-3	116.593E-12	692.620E-3	-25.3334E-3
3.06903E-3	117.276E-12	703.932E-3	-16.1891E-3	116.387E-12	694.908E-3	-19.0139E-3
3.06403E-3	116.578E-12	692.558E-3	-24.0808E-3	116.298E-12	687.635E-3	-23.4357E-3
3.05903E-3	115.892E-12	695.145E-3	-26.5610E-3	115.921E-12	686.665E-3	-24.7330E-3
3.05403E-3	115.410E-12	710.020E-3	-16.2112E-3	115.272E-12	699.013E-3	-6.36875E-3
3.04902E-3	114.686E-12	708.653E-3	274.571E-6	115.070E-12	696.339E-3	11.8402E-3
3.04402E-3	114.143E-12	698.989E-3	-4.76811E-3	114.795E-12	665.142E-3	13.3521E-3
3.03902E-3	114.053E-12	701.829E-3	-20.0379E-3	114.032E-12	641.109E-3	-1.47421E-3
3.03402E-3	112.894E-12	703.812E-3	-28.0632E-3	113.465E-12	644.962E-3	-14.0265E-3
3.02901E-3	113.144E-12	692.109E-3	-25.8232E-3	113.406E-12	646.691E-3	-7.29429E-3
3.02401E-3	113.204E-12	681.933E-3	-20.4687E-3	113.083E-12	634.233E-3	11.8314E-3
3.01901E-3	112.702E-12	672.651E-3	-18.2567E-3	112.916E-12	623.184E-3	18.1599E-3
3.01401E-3	112.934E-12	660.015E-3	-10.5563E-3	112.712E-12	629.133E-3	4.91161E-3
3.00900E-3	112.924E-12	673.189E-3	-9.33713E-3	112.427E-12	661.130E-3	-15.4827E-3
3.00400E-3	112.711E-12	699.349E-3	-18.8399E-3	112.179E-12	688.478E-3	-28.2790E-3
2.99900E-3	112.571E-12	702.249E-3	-18.9585E-3	112.052E-12	683.040E-3	-32.0800E-3
2.99400E-3	112.595E-12	697.937E-3	-14.1942E-3	111.659E-12	677.966E-3	-29.5479E-3
2.98899E-3	112.680E-12	693.913E-3	-13.2974E-3	111.441E-12	671.007E-3	-17.8008E-3
2.98399E-3	112.834E-12	684.786E-3	-8.86993E-3	111.611E-12	647.761E-3	-7.86025E-3
2.97899E-3	111.810E-12	673.583E-3	-7.90643E-3	111.339E-12	646.162E-3	-422.659E-6
2.97399E-3	111.642E-12	678.481E-3	-10.0365E-3	111.028E-12	667.531E-3	2.85474E-3
2.96898E-3	111.471E-12	713.513E-3	-21.2046E-3	110.996E-12	678.856E-3	-516.191E-6
2.96398E-3	110.871E-12	722.856E-3	-38.2303E-3	110.795E-12	669.950E-3	290.378E-6
2.95898E-3	110.411E-12	690.824E-3	-26.3744E-3	110.695E-12	660.803E-3	-2.00661E-3
2.95398E-3	110.613E-12	680.779E-3	-10.2781E-3	110.336E-12	661.327E-3	-9.81122E-3
2.94897E-3	110.237E-12	689.852E-3	-15.1600E-3	110.255E-12	667.019E-3	-10.0850E-3
2.94397E-3	109.768E-12	683.729E-3	-13.3060E-3	109.858E-12	671.828E-3	-12.3588E-3
2.93897E-3	110.423E-12	671.372E-3	-5.22009E-3	110.031E-12	676.713E-3	-18.3939E-3
2.93397E-3	110.580E-12	662.705E-3	-14.0548E-3	109.954E-12	685.585E-3	-12.3901E-3
2.92896E-3	109.794E-12	651.616E-3	-11.0556E-3	109.461E-12	682.149E-3	-12.6414E-3
2.92396E-3	109.602E-12	652.084E-3	17.9460E-3	109.338E-12	681.401E-3	-15.3473E-3
2.91896E-3	109.693E-12	668.372E-3	22.2432E-3	108.871E-12	682.443E-3	-12.1533E-3
2.91396E-3	108.994E-12	675.064E-3	-2.71830E-3	108.497E-12	664.037E-3	-26.5749E-3
2.90895E-3	108.384E-12	665.799E-3	-13.4676E-3	108.145E-12	658.783E-3	-32.6368E-3
2.90395E-3	108.264E-12	666.551E-3	-22.2306E-3	107.602E-12	682.520E-3	-17.1539E-3
2.89895E-3	108.042E-12	678.691E-3	-35.4980E-3	107.311E-12	715.530E-3	-11.0442E-3
2.89395E-3	107.103E-12	682.978E-3	-28.7363E-3	107.373E-12	722.249E-3	-8.08672E-3
2.88894E-3	106.637E-12	674.369E-3	-15.2762E-3	106.887E-12	696.737E-3	1.22547E-3
2.88394E-3	106.609E-12	669.132E-3	-7.36277E-3	106.700E-12	675.894E-3	-10.6655E-3
2.87894E-3	106.061E-12	681.987E-3	27.7972E-6	107.113E-12	661.817E-3	-20.1019E-3
2.87394E-3	105.845E-12	694.110E-3	9.49538E-3	107.083E-12	647.699E-3	8.05346E-3
2.86893E-3	105.720E-12	683.201E-3	8.43659E-3	106.621E-12	659.014E-3	23.2982E-3
2.86393E-3	105.588E-12	659.009E-3	3.10525E-3	106.639E-12	681.012E-3	-2.71931E-3
2.85893E-3	105.395E-12	657.924E-3	6.01695E-3	106.707E-12	680.578E-3	-26.7908E-3
2.85393E-3	105.913E-12	673.102E-3	-313.869E-6	106.271E-12	686.529E-3	-28.1008E-3
2.84892E-3	105.149E-12	685.149E-3	-14.4456E-3	106.415E-12	700.357E-3	-19.2843E-3
2.84392E-3	105.239E-12	696.799E-3	-15.7179E-3	106.154E-12	694.316E-3	-15.3801E-3
2.83892E-3	105.402E-12	701.302E-3	-2.23673E-3	105.621E-12	698.157E-3	-30.9614E-3
2.83392E-3	105.190E-12	696.489E-3	1.68025E-3	105.522E-12	711.778E-3	-51.0869E-3
2.82891E-3	104.337E-12	686.644E-3	-7.56893E-3	105.121E-12	692.935E-3	-41.7797E-3
2.82391E-3	104.409E-12	679.759E-3	-9.32425E-3	104.345E-12	672.849E-3	-17.4168E-3
2.81891E-3	104.018E-12	680.091E-3	-9.23291E-3	103.866E-12	691.010E-3	-1.48888E-3
2.81391E-3	103.292E-12	682.314E-3	-14.6930E-3	103.800E-12	716.469E-3	4.58805E-3
2.80890E-3	102.744E-12	686.825E-3	-17.5273E-3	103.290E-12	707.514E-3	-167.306E-6
2.80390E-3	102.108E-12	680.406E-3	-18.3075E-3	102.955E-12	684.584E-3	-14.4967E-3
2.79890E-3	101.840E-12	660.596E-3	-18.1839E-3	102.817E-12	688.482E-3	-31.5293E-3
2.79390E-3	101.739E-12	649.437E-3	-24.0783E-3	102.451E-12	695.029E-3	-31.2157E-3
2.78889E-3	101.664E-12	649.848E-3	-32.0166E-3	102.173E-12	685.549E-3	-26.2336E-3
2.78389E-3	101.328E-12	656.817E-3	-34.2611E-3	102.025E-12	681.984E-3	-35.7445E-3
2.77889E-3	101.802E-12	676.262E-3	-24.8233E-3	101.685E-12	699.625E-3	-38.1993E-3
2.77389E-3	101.658E-12	696.190E-3	-5.22276E-3	102.113E-12	717.005E-3	-33.2598E-3
2.76888E-3	101.577E-12	702.849E-3	-7.60428E-3	101.307E-12	706.641E-3	-29.9161E-3
2.76388E-3	102.041E-12	704.757E-3	-29.4134E-3	101.110E-12	696.223E-3	-22.2034E-3
2.75888E-3	102.351E-12	695.687E-3	-38.4375E-3	101.393E-12	693.450E-3	-27.1385E-3
2.75388E-3	102.199E-12	674.871E-3	-29.9833E-3	100.834E-12	685.803E-3	-32.7618E-3
2.74887E-3	102.067E-12	672.050E-3	-18.6149E-3	100.214E-12	696.708E-3	-25.4753E-3
2.74387E-3	102.146E-12	684.445E-3	-11.4615E-3	100.546E-12	705.821E-3	-27.0931E-3
2.73887E-3	101.898E-12	690.169E-3	-8.80448E-3	100.238E-12	693.457E-3	-29.9474E-3
2.73387E-3	101.355E-12	701.730E-3	-5.26788E-3	99.6631E-12	681.676E-3	-36.2302E-3
2.72886E-3	101.040E-12	700.362E-3	5.49731E-3	99.9261E-12	660.613E-3	-46.0715E-3
2.72386E-3	100.581E-12	668.869E-3	-1.32874E-3	99.5415E-12	635.173E-3	-36.5176E-3
2.71886E-3	99.9495E-12	664.191E-3	-16.1512E-3	98.6941E-12	651.445E-3	-29.4100E-3
2.71386E-3	99.2868E-12	687.019E-3	-10.1022E-3	98.8924E-12	684.845E-3	-39.8287E-3
2.70885E-3	98.5619E-12	681.314E-3	-8.96328E-3	98.5650E-12	690.946E-3	-36.4681E-3
2.70385E-3	98.2171E-12	678.344E-3	-16.8089E-3	98.3266E-12	687.950E-3	-10.4553E-3
2.69885E-3	97.9664E-12	691.482E-3	-9.77443E-3	98.2895E-12	687.365E-3	3.27699E-3
2.69385E-3	96.9882E-12	693.531E-3	-10.0218E-3	98.6911E-12	693.538E-3	-7.66875E-3
2.68884E-3	97.0599E-12	693.836E-3	-12.9797E-3	98.0888E-12	711.591E-3	-23.3614E-3
2.68384E-3	97.5248E-12	691.387E-3	413.261E-6	97.9976E-12	722.695E-3	-32.6393E-3
2.67884E-3	97.7088E-12	692.157E-3	12.8619E-3	98.0194E-12	717.318E-3	-28.8516E-3
2.67384E-3	97.0942E-12	692.395E-3	17.8809E-3	97.7988E-12	709.887E-3	-16.6080E-3
2.66883E-3	97.5411E-12	673.329E-3	14.9700E-3	97.3349E-12	705.808E-3	-12.6017E-3
2.66383E-3	98.0112E-12	674.796E-3	-7.17697E-3	97.1076E-12	705.188E-3	-7.15015E-3
2.65883E-3	97.5425E-12	707.107E-3	-33.6763E-3	96.9166E-12	712.976E-3	3.14567E-3
2.65383E-3	97.2781E-12	717.432E-3	-29.5893E-3	96.5480E-12	717.253E-3	-7.66222E-3
2.64882E-3	97.0460E-12	707.103E-3	-21.8652E-3	96.5839E-12	713.506E-3	-28.5939E-3
2.64382E-3	96.8605E-12	710.242E-3	-31.0920E-3	96.1634E-12	701.493E-3	-36.1103E-3
2.63882E-3	96.6011E-12	712.955E-3	-29.3562E-3	95.6610E-12	684.634E-3	-32.1297E-3
2.63382E-3	95.9283E-12	704.349E-3	-18.2565E-3	95.7081E-12	696.119E-3	-15.4181E-3
2.62881E-3	95.5271E-12	717.486E-3	-22.8918E-3	95.5473E-12	724.747E-3	-4.10497E-3
2.62381E-3	94.8539E-12	734.511E-3	-29.1756E-3	95.1519E-12	725.050E-3	-19.1226E-3
2.61881E-3	94.0492E-12	720.803E-3	-24.7729E-3	94.9772E-12	705.100E-3	-25.6488E-3
2.61381E-3	93.4098E-12	696.444E-3	-25.0587E-3	95.0544E-12	697.208E-3	-4.76803E-3
2.60880E-3	93.0037E-12	682.352E-3	-19.4636E-3	94.3826E-12	705.134E-3	-2.93149E-3
2.60380E-3	92.6531E-12	680.235E-3	-16.8048E-3	94.5595E-12	702.862E-3	-14.4774E-3
2.59880E-3	92.0562E-12	684.812E-3	-24.1806E-3	94.0915E-12	688.299E-3	-13.7876E-3
2.59380E-3	91.8607E-12	683.358E-3	-12.1126E-3	93.5477E-12	687.840E-3	-13.7482E-3
2.58879E-3	92.2087E-12	672.965E-3	6.50665E-3	93.2319E-12	692.176E-3	-13.3146E-3
2.58379E-3	92.2324E-12	672.498E-3	-2.65480E-3	93.0546E-12	696.424E-3	-11.3016E-3
2.57879E-3	92.0635E-12	680.801E-3	-28.4449E-3	92.6549E-12	713.338E-3	-9.92464E-3
2.57379E-3	92.0830E-12	679.402E-3	-45.9432E-3	92.2263E-12	723.728E-3	-4.00575E-3
2.56878E-3	92.4348E-12	671.756E-3	-37.0722E-3	91.6167E-12	721.638E-3	264.413E-6
2.56378E-3	92.5896E-12	673.333E-3	-11.0399E-3	91.7737E-12	713.476E-3	-15.7507E-3
2.55878E-3	92.1358E-12	685.642E-3	-103.908E-6	91.8367E-12	696.026E-3	-26.3315E-3
2.55378E-3	91.9554E-12	696.729E-3	-8.05426E-3	90.9698E-12	685.003E-3	-12.2588E-3
2.54877E-3	91.8334E-12	704.810E-3	-18.1666E-3	90.6569E-12	684.059E-3	-8.77839E-3
2.54377E-3	91.7448E-12	712.841E-3	-14.1900E-3	90.8611E-12	679.823E-3	-21.5448E-3
2.53877E-3	91.5010E-12	717.407E-3	-15.0861E-3	90.7638E-12	682.799E-3	-21.4720E-3
2.53377E-3	91.2663E-12	718.519E-3	-29.9376E-3	90.2378E-12	701.014E-3	-17.6356E-3
2.52876E-3	90.9029E-12	701.367E-3	-32.5699E-3	90.3399E-12	712.060E-3	-19.8325E-3
2.52376E-3	90.5346E-12	687.389E-3	-29.6443E-3	90.2266E-12	710.365E-3	-15.3579E-3
2.51876E-3	90.0719E-12	700.558E-3	-30.8002E-3	90.3477E-12	713.592E-3	-21.0847E-3
2.51376E-3	90.0481E-12	703.577E-3	-33.7204E-3	90.1903E-12	712.459E-3	-32.2887E-3
2.50875E-3	89.9994E-12	711.316E-3	-41.5156E-3	89.9237E-12	692.677E-3	-21.0637E-3
2.50375E-3	89.7622E-12	729.023E-3	-47.6633E-3	89.7924E-12	689.598E-3	-8.63511E-3
2.49875E-3	89.3688E-12	719.489E-3	-39.4825E-3	89.0982E-12	703.918E-3	-10.4920E-3
2.49375E-3	88.9600E-12	713.669E-3	-22.6479E-3	88.3169E-12	705.532E-3	-9.19845E-3
2.48874E-3	88.9495E-12	721.060E-3	-17.5079E-3	88.5420E-12	706.398E-3	-13.4462E-3
2.48374E-3	88.3911E-12	713.427E-3	-14.8354E-3	88.0818E-12	695.508E-3	-26.6809E-3
2.47874E-3	88.2462E-12	700.874E-3	-6.63135E-3	87.7998E-12	670.796E-3	-30.0601E-3
2.47374E-3	87.5918E-12	697.983E-3	-16.3381E-3	87.6920E-12	670.690E-3	-26.6736E-3
2.46873E-3	87.6406E-12	700.912E-3	-31.2179E-3	87.4364E-12	681.817E-3	-37.2293E-3
2.46373E-3	87.1439E-12	708.330E-3	-26.1734E-3	86.8779E-12	685.271E-3	-35.2772E-3
2.45873E-3	87.0702E-12	721.691E-3	-21.7508E-3	86.9098E-12	701.111E-3	-12.4923E-3
2.45373E-3	87.2837E-12	726.580E-3	-25.1985E-3	86.8554E-12	715.312E-3	-15.1585E-3
2.44872E-3	86.6604E-12	708.627E-3	-16.6635E-3	86.5343E-12	706.586E-3	-25.2189E-3
2.44372E-3	86.6461E-12	689.533E-3	1.97438E-3	86.2316E-12	697.672E-3	-20.3320E-3
2.43872E-3	86.4631E-12	694.945E-3	10.4906E-3	86.2250E-12	703.074E-3	-24.3684E-3
2.43372E-3	86.5883E-12	707.958E-3	1.76235E-3	86.1099E-12	708.845E-3	-31.9606E-3
2.42871E-3	85.8961E-12	705.613E-3	-16.0637E-3	86.4648E-12	712.617E-3	-26.0362E-3
2.42371E-3	86.1362E-12	700.583E-3	-28.2151E-3	86.0575E-12	713.307E-3	-23.9634E-3
2.41871E-3	85.4583E-12	714.313E-3	-32.2922E-3	85.4549E-12	708.903E-3	-27.4054E-3
2.41371E-3	85.5932E-12	739.249E-3	-25.1541E-3	85.6538E-12	715.135E-3	-23.8454E-3
2.40870E-3	85.4360E-12	740.365E-3	-8.56706E-3	85.6316E-12	736.102E-3	-29.5437E-3
2.40370E-3	84.7529E-12	716.895E-3	-3.87653E-3	84.5547E-12	741.454E-3	-33.0601E-3
2.39870E-3	84.3805E-12	709.056E-3	-17.3241E-3	84.2820E-12	736.018E-3	-27.0138E-3
2.39370E-3	84.2672E-12	724.800E-3	-24.6645E-3	84.0463E-12	733.362E-3	-32.6196E-3
2.38869E-3	83.7748E-12	746.337E-3	-13.2089E-3	83.7614E-12	723.053E-3	-34.1607E-3
2.38369E-3	83.2802E-12	758.372E-3	-6.17174E-3	83.0517E-12	716.216E-3	-22.2854E-3
2.37869E-3	83.1358E-12	736.129E-3	-16.4715E-3	82.8315E-12	720.955E-3	-9.97394E-3
2.37369E-3	82.6771E-12	692.342E-3	-24.3070E-3	82.8995E-12	723.030E-3	3.59070E-3
2.36868E-3	82.6408E-12	688.273E-3	-25.2071E-3	82.4407E-12	718.918E-3	6.61115E-3
2.36368E-3	82.2116E-12	720.149E-3	-34.2562E-3	82.6153E-12	712.675E-3	1.10448E-3
2.35868E-3	82.3845E-12	730.497E-3	-37.0832E-3	82.4329E-12	708.949E-3	2.09325E-3
2.35368E-3	82.2603E-12	723.792E-3	-20.8172E-3	82.1451E-12	722.768E-3	10.2317E-3
2.34867E-3	81.9321E-12	723.209E-3	-6.65612E-3	81.7340E-12	739.177E-3	10.6702E-3
2.34367E-3	81.7290E-12	721.136E-3	-14.2840E-3	81.9975E-12	729.467E-3	-2.96336E-3
2.33867E-3	82.0851E-12	725.162E-3	-27.2678E-3	81.5763E-12	722.497E-3	-18.8021E-3
2.33367E-3	81.6795E-12	731.600E-3	-27.0956E-3	81.2203E-12	740.894E-3	-28.8642E-3
2.32866E-3	81.3665E-12	721.739E-3	-24.7188E-3	81.3392E-12	742.062E-3	-21.5127E-3
2.32366E-3	81.5531E-12	718.965E-3	-30.7475E-3	81.1665E-12	727.397E-3	-2.19945E-3
2.31866E-3	81.5178E-12	738.593E-3	-37.6993E-3	80.6236E-12	724.958E-3	2.37898E-3
2.31366E-3	81.3610E-12	748.828E-3	-38.0402E-3	80.1243E-12	726.830E-3	-10.4486E-3
2.30865E-3	80.6065E-12	745.396E-3	-45.0077E-3	80.0156E-12	718.408E-3	-21.4220E-3
2.30365E-3	80.0737E-12	743.491E-3	-50.2965E-3	79.4537E-12	712.643E-3	-24.8037E-3
2.29865E-3	79.9058E-12	730.250E-3	-34.8607E-3	79.2110E-12	722.340E-3	-28.7671E-3
2.29365E-3	79.4245E-12	724.636E-3	-22.6014E-3	79.0829E-12	727.215E-3	-40.3075E-3
2.28864E-3	78.5220E-12	745.577E-3	-34.7060E-3	78.5456E-12	727.498E-3	-45.9571E-3
2.28364E-3	77.9682E-12	743.424E-3	-38.5705E-3	78.2523E-12	729.413E-3	-36.1638E-3
2.27864E-3	77.9549E-12	714.014E-3	-24.9386E-3	78.2813E-12	740.730E-3	-18.2752E-3
2.27364E-3	77.5382E-12	706.788E-3	-23.7603E-3	78.1632E-12	757.094E-3	-5.74420E-3
2.26863E-3	77.1110E-12	715.390E-3	-31.6420E-3	77.6940E-12	744.146E-3	-5.97782E-3
2.26363E-3	76.7710E-12	726.316E-3	-30.1934E-3	77.5985E-12	725.692E-3	-11.7522E-3
2.25863E-3	76.7599E-12	742.166E-3	-15.8052E-3	77.7428E-12	736.663E-3	-11.6529E-3
2.25363E-3	76.5683E-12	741.312E-3	-9.02954E-3	77.6237E-12	749.887E-3	-9.06969E-3
2.24862E-3	76.3096E-12	733.485E-3	-20.5204E-3	77.4533E-12	749.162E-3	-5.54924E-3
2.24362E-3	76.0487E-12	724.990E-3	-20.5314E-3	77.3484E-12	747.254E-3	3.24198E-3
2.23862E-3	76.2427E-12	718.077E-3	-4.91467E-3	77.1969E-12	740.064E-3	-3.08439E-3
2.23362E-3	76.2012E-12	733.090E-3	-886.527E-6	76.6430E-12	734.119E-3	-14.5713E-3
2.22861E-3	76.1150E-12	745.741E-3	938.188E-6	76.6994E-12	742.001E-3	-25.3551E-3
2.22361E-3	76.2017E-12	736.537E-3	-3.53813E-3	76.4284E-12	756.976E-3	-38.9766E-3
2.21861E-3	76.0652E-12	733.024E-3	-21.5485E-3	75.7831E-12	781.053E-3	-29.0734E-3
2.21361E-3	75.9565E-12	749.190E-3	-30.9311E-3	75.2238E-12	783.216E-3	-14.2914E-3
2.20860E-3	75.3165E-12	762.095E-3	-26.3468E-3	75.1674E-12	748.637E-3	-18.2882E-3
2.20360E-3	75.0743E-12	757.789E-3	-17.1232E-3	74.4921E-12	716.054E-3	-28.3330E-3
2.19860E-3	74.2395E-12	748.252E-3	-11.9288E-3	74.3040E-12	719.039E-3	-28.0892E-3
2.19360E-3	74.1345E-12	744.493E-3	-4.14001E-3	74.0828E-12	749.099E-3	-21.2379E-3
2.18859E-3	73.6175E-12	737.554E-3	1.84759E-3	73.7847E-12	752.980E-3	-14.6969E-3
2.18359E-3	73.5300E-12	737.862E-3	-10.5679E-3	73.4825E-12	730.907E-3	-8.69075E-3
2.17859E-3	73.0410E-12	745.082E-3	-28.2434E-3	73.5430E-12	735.176E-3	-14.4198E-3
2.17359E-3	72.5814E-12	745.055E-3	-26.2032E-3	73.0745E-12	754.921E-3	-14.2786E-3
2.16858E-3	72.3884E-12	749.208E-3	-11.0174E-3	72.8476E-12	759.612E-3	6.23130E-3
2.16358E-3	72.3571E-12	756.466E-3	-600.245E-6	72.7456E-12	754.482E-3	5.81870E-3
2.15858E-3	72.4120E-12	758.090E-3	-1.66225E-3	72.4366E-12	744.144E-3	-10.0897E-3
2.15358E-3	71.9205E-12	759.379E-3	-8.25290E-3	72.0759E-12	745.067E-3	-13.3209E-3
2.14857E-3	71.9664E-12	765.654E-3	-9.01276E-3	71.8713E-12	756.299E-3	-24.3717E-3
2.14357E-3	72.1985E-12	761.083E-3	-5.84461E-3	71.5873E-12	761.792E-3	-19.3855E-3
2.13857E-3	72.0066E-12	756.115E-3	-882.525E-6	71.1543E-12	767.358E-3	7.07226E-3
2.13357E-3	71.6530E-12	773.971E-3	-415.597E-6	70.8309E-12	763.757E-3	-1.65949E-3
2.12856E-3	71.6662E-12	786.099E-3	-7.31021E-3	70.5521E-12	753.773E-3	-26.2802E-3
2.12356E-3	71.5934E-12	781.128E-3	-24.4888E-3	70.6479E-12	766.117E-3	-25.3692E-3
2.11856E-3	71.3587E-12	769.830E-3	-44.9393E-3	70.3714E-12	775.691E-3	-18.5632E-3
2.11356E-3	71.1346E-12	756.235E-3	-40.7948E-3	69.9679E-12	754.160E-3	-8.71326E-3
2.10855E-3	70.7472E-12	759.223E-3	-15.4429E-3	70.0354E-12	741.624E-3	7.22506E-3
2.10355E-3	70.4728E-12	774.297E-3	-2.65890E-3	69.9209E-12	755.219E-3	-219.099E-6
2.09855E-3	70.1085E-12	777.641E-3	-11.6545E-3	69.5759E-12	773.361E-3	-23.3999E-3
2.09355E-3	69.7980E-12	774.611E-3	-25.2138E-3	69.4808E-12	785.142E-3	-20.0585E-3
2.08854E-3	69.0184E-12	778.269E-3	-18.9070E-3	69.2157E-12	787.603E-3	-16.9672E-3
2.08354E-3	68.9044E-12	775.996E-3	-1.37845E-3	69.3632E-12	785.259E-3	-32.8101E-3
2.07854E-3	68.3242E-12	767.585E-3	-11.0901E-3	69.2025E-12	787.264E-3	-28.9555E-3
2.07354E-3	67.9842E-12	776.692E-3	-27.3886E-3	68.3450E-12	788.504E-3	-13.3230E-3
2.06853E-3	67.6750E-12	788.075E-3	-21.7604E-3	68.0060E-12	787.229E-3	-15.0237E-3
2.06353E-3	67.6156E-12	782.983E-3	-16.7340E-3	67.9868E-12	795.503E-3	-21.8466E-3
2.05853E-3	67.2184E-12	785.210E-3	-14.3584E-3	67.2621E-12	812.320E-3	-20.7708E-3
2.05353E-3	66.4019E-12	788.869E-3	-6.68389E-3	67.0916E-12	819.426E-3	-22.7350E-3
2.04852E-3	66.4846E-12	777.920E-3	-9.05191E-3	67.0200E-12	812.939E-3	-32.4534E-3
2.04352E-3	66.5393E-12	777.892E-3	-21.5419E-3	66.4236E-12	808.513E-3	-36.5026E-3
2.03852E-3	66.1731E-12	783.729E-3	-25.6294E-3	66.1136E-12	794.741E-3	-38.6152E-3
2.03352E-3	65.7274E-12	773.298E-3	-25.6212E-3	65.9950E-12	776.931E-3	-40.3943E-3
2.02851E-3	65.8736E-12	775.359E-3	-35.3888E-3	65.6505E-12	776.657E-3	-39.5183E-3
2.02351E-3	65.6040E-12	790.412E-3	-34.0421E-3	65.2920E-12	775.983E-3	-37.6117E-3
2.01851E-3	65.2470E-12	788.871E-3	-21.7374E-3	64.9560E-12	787.135E-3	-21.6097E-3
2.01351E-3	64.9649E-12	786.113E-3	-19.8761E-3	65.0692E-12	815.961E-3	-6.09412E-3
2.00850E-3	64.9177E-12	792.220E-3	-18.8357E-3	64.7424E-12	811.364E-3	-8.55151E-3
2.00350E-3	64.4667E-12	783.683E-3	-16.7972E-3	64.9343E-12	777.550E-3	-8.42522E-3
1.99850E-3	64.1527E-12	775.256E-3	-18.8896E-3	64.5567E-12	770.343E-3	-7.35747E-3
1.99350E-3	63.6773E-12	789.766E-3	-22.4304E-3	64.5031E-12	787.685E-3	-27.5829E-3
1.98849E-3	63.4943E-12	793.036E-3	-20.8881E-3	64.3482E-12	803.517E-3	-35.2985E-3
1.98349E-3	63.0605E-12	787.830E-3	-9.95457E-3	64.0309E-12	817.396E-3	-20.3033E-3
1.97849E-3	62.7781E-12	803.234E-3	-1.21258E-3	63.5724E-12	818.794E-3	-12.7004E-3
1.97349E-3	62.6174E-12	808.236E-3	-5.57728E-3	63.0483E-12	808.884E-3	-11.2659E-3
1.96848E-3	62.2046E-12	797.050E-3	-21.2054E-3	62.9430E-12	814.756E-3	-15.3066E-3
1.96348E-3	61.9192E-12	800.956E-3	-31.3560E-3	62.2888E-12	829.185E-3	-23.0333E-3
1.95848E-3	61.7699E-12	802.290E-3	-19.7211E-3	61.6326E-12	817.343E-3	-18.3949E-3
1.95348E-3	61.6216E-12	796.589E-3	-11.7420E-3	61.3204E-12	801.655E-3	-7.81784E-3
1.94847E-3	61.4744E-12	802.561E-3	-17.4034E-3	61.0954E-12	802.813E-3	-16.2868E-3
1.94347E-3	61.2431E-12	811.186E-3	-15.3283E-3	60.5294E-12	813.195E-3	-23.5687E-3
1.93847E-3	60.7372E-12	812.111E-3	-14.4347E-3	60.3210E-12	827.329E-3	-9.29908E-3
1.93347E-3	60.8934E-12	812.474E-3	-17.9225E-3	60.3828E-12	832.328E-3	-1.47588E-3
1.92846E-3	60.6877E-12	818.385E-3	-13.5014E-3	60.0038E-12	837.008E-3	-3.22998E-3
1.92346E-3	60.2166E-12	826.615E-3	-10.2165E-3	59.8810E-12	834.751E-3	1.50151E-3
1.91846E-3	60.0632E-12	836.258E-3	-14.9550E-3	60.0829E-12	819.425E-3	7.94198E-3
1.91346E-3	60.0874E-12	846.787E-3	-20.0498E-3	59.7759E-12	814.215E-3	9.21491E-3
1.90845E-3	59.7374E-12	847.880E-3	-24.9245E-3	59.3772E-12	828.157E-3	909.494E-6
1.90345E-3	59.4001E-12	832.883E-3	-19.7423E-3	59.4986E-12	836.052E-3	-12.2600E-3
1.89845E-3	59.1157E-12	824.764E-3	-5.99933E-3	59.0978E-12	823.559E-3	-6.88479E-3
1.89345E-3	58.8110E-12	837.333E-3	-13.0539E-3	58.7125E-12	827.742E-3	1.30662E-3
1.88844E-3	58.3941E-12	842.001E-3	-26.2796E-3	58.7080E-12	852.755E-3	-19.4284E-3
1.88344E-3	57.9842E-12	827.798E-3	-17.4503E-3	58.3136E-12	853.809E-3	-35.6152E-3
1.87844E-3	57.7132E-12	821.597E-3	-10.4659E-3	57.7041E-12	840.819E-3	-27.1644E-3
1.87344E-3	57.2658E-12	836.265E-3	-21.6221E-3	57.3924E-12	831.635E-3	-21.3647E-3
1.86843E-3	56.8623E-12	840.728E-3	-26.9289E-3	57.0993E-12	821.672E-3	-15.4670E-3
1.86343E-3	56.7110E-12	825.521E-3	-25.1472E-3	56.4173E-12	839.619E-3	-16.2949E-3
1.85843E-3	56.2407E-12	820.314E-3	-22.4223E-3	56.0342E-12	875.905E-3	-30.4753E-3
1.85343E-3	55.8186E-12	824.666E-3	-2.43459E-3	55.9653E-12	884.221E-3	-29.4424E-3
1.84842E-3	55.6430E-12	836.910E-3	16.0593E-3	55.7097E-12	878.043E-3	-20.2459E-3
1.84342E-3	55.3087E-12	857.597E-3	1.78690E-3	55.1797E-12	879.789E-3	-34.2786E-3
1.83842E-3	55.0432E-12	863.957E-3	-21.8860E-3	55.2334E-12	878.707E-3	-44.7669E-3
1.83342E-3	54.9339E-12	855.148E-3	-31.6050E-3	55.5681E-12	882.064E-3	-20.3885E-3
1.82841E-3	54.7280E-12	852.980E-3	-27.0114E-3	55.2938E-12	881.171E-3	-7.29258E-3
1.82341E-3	54.5687E-12	857.567E-3	-21.0559E-3	54.8648E-12	858.867E-3	-19.1885E-3
1.81841E-3	54.0173E-12	863.699E-3	-27.6498E-3	54.8065E-12	854.968E-3	-16.9216E-3
1.81341E-3	54.0371E-12	874.067E-3	-38.4144E-3	54.8918E-12	884.181E-3	-13.6241E-3
1.80840E-3	53.6797E-12	878.556E-3	-34.5134E-3	54.2280E-12	906.527E-3	-19.7281E-3
1.80340E-3	53.3566E-12	870.178E-3	-18.7780E-3	53.7500E-12	907.075E-3	-21.3310E-3
1.79840E-3	53.2138E-12	869.527E-3	-15.8679E-3	53.5327E-12	907.974E-3	-22.9333E-3
1.79340E-3	53.0027E-12	874.810E-3	-8.78016E-3	53.1115E-12	909.444E-3	-23.6360E-3
1.78839E-3	52.3477E-12	874.244E-3	-1.06812E-3	52.7168E-12	893.170E-3	-17.1061E-3
1.78339E-3	52.1508E-12	890.630E-3	-6.79621E-3	52.4066E-12	881.433E-3	-19.5224E-3
1.77839E-3	52.0791E-12	901.920E-3	-7.31947E-3	51.8228E-12	889.390E-3	-32.3819E-3
1.77339E-3	51.6679E-12	894.381E-3	-13.1208E-3	51.4398E-12	902.320E-3	-24.1985E-3
1.76838E-3	51.1515E-12	902.908E-3	-25.6464E-3	51.1786E-12	917.723E-3	-11.1453E-3
1.76338E-3	51.0015E-12	915.723E-3	-35.0706E-3	50.9355E-12	920.096E-3	-29.0456E-3
1.75838E-3	50.9149E-12	911.490E-3	-40.7705E-3	50.7594E-12	909.959E-3	-45.5459E-3
1.75338E-3	50.2443E-12	903.423E-3	-32.3926E-3	50.4284E-12	923.795E-3	-32.6827E-3
1.74837E-3	49.9648E-12	896.147E-3	-15.5909E-3	50.2028E-12	946.085E-3	-15.2155E-3
1.74337E-3	49.7941E-12	894.619E-3	-4.59542E-3	49.8280E-12	946.675E-3	391.802E-6
1.73837E-3	49.3753E-12	908.188E-3	-10.1526E-3	49.8151E-12	947.152E-3	1.77323E-3
1.73337E-3	48.9280E-12	923.972E-3	-30.4809E-3	49.6489E-12	952.388E-3	-17.7644E-3
1.72836E-3	48.7037E-12	926.739E-3	-30.8877E-3	49.1639E-12	950.495E-3	-16.7894E-3
1.72336E-3	48.3029E-12	931.072E-3	-8.45843E-3	48.7309E-12	949.910E-3	-7.51675E-3
1.71836E-3	48.0530E-12	943.791E-3	3.85391E-3	48.7496E-12	945.555E-3	-24.0622E-3
1.71336E-3	48.0661E-12	955.807E-3	-86.5128E-6	48.1608E-12	951.268E-3	-36.4014E-3
1.70835E-3	47.7712E-12	968.261E-3	-14.0936E-3	47.2641E-12	974.182E-3	-25.5825E-3
1.70335E-3	47.3993E-12	968.775E-3	-22.9371E-3	46.9414E-12	974.034E-3	-9.78222E-3
1.69835E-3	47.0918E-12	950.440E-3	-20.6043E-3	47.0361E-12	962.215E-3	3.12212E-3
1.69335E-3	46.9839E-12	945.426E-3	-15.7102E-3	46.3596E-12	976.727E-3	2.69025E-3
1.68834E-3	46.8340E-12	965.897E-3	-1.49774E-3	45.8850E-12	994.467E-3	-16.0753E-3
1.68334E-3	46.3347E-12	985.372E-3	4.57833E-3	45.7598E-12	982.071E-3	-22.6866E-3
1.67834E-3	46.0702E-12	993.326E-3	-22.5456E-3	45.5692E-12	968.895E-3	-8.94025E-3
1.67334E-3	45.5452E-12	998.421E-3	-32.9069E-3	45.1018E-12	980.747E-3	-7.03490E-3
1.66833E-3	45.0689E-12	996.558E-3	-10.9982E-3	44.8725E-12	991.220E-3	-16.3375E-3
1.66333E-3	44.5969E-12	991.536E-3	2.88765E-3	44.4951E-12	998.152E-3	-22.4799E-3
1.65833E-3	44.2310E-12	993.749E-3	546.405E-6	44.3959E-12	1.01314E+0	-34.2543E-3
1.65333E-3	43.6545E-12	986.436E-3	-3.55870E-3	44.0907E-12	1.02878E+0	-28.8740E-3
1.64832E-3	43.2820E-12	974.200E-3	-844.439E-6	43.5422E-12	1.03840E+0	1.46619E-3
1.64332E-3	42.9570E-12	983.012E-3	-9.63321E-3	43.3493E-12	1.03596E+0	8.81261E-3
1.63832E-3	42.6097E-12	1.00573E+0	-21.0263E-3	43.2913E-12	1.03093E+0	-1.41969E-3
1.63332E-3	42.1244E-12	1.02053E+0	-28.6131E-3	42.6727E-12	1.03104E+0	-1.64179E-3
1.62831E-3	41.8144E-12	1.02336E+0	-36.0417E-3	42.0718E-12	1.02625E+0	-13.2770E-3
1.62331E-3	41.6797E-12	1.01660E+0	-31.5152E-3	41.9305E-12	1.03044E+0	-29.6143E-3
1.61831E-3	41.0859E-12	1.01558E+0	-23.0954E-3	41.4459E-12	1.04599E+0	-18.4544E-3
1.61331E-3	40.8416E-12	1.02816E+0	-11.0937E-3	40.7987E-12	1.05193E+0	-2.50931E-3
1.60830E-3	40.6277E-12	1.03536E+0	943.281E-6	40.5676E-12	1.05061E+0	-8.24047E-3
1.60330E-3	40.4111E-12	1.03648E+0	-18.2019E-3	40.5240E-12	1.05980E+0	-3.66847E-3
1.59830E-3	40.2122E-12	1.04378E+0	-51.6172E-3	40.0765E-12	1.07591E+0	8.24983E-3
1.59330E-3	40.0278E-12	1.04182E+0	-40.8526E-3	39.6526E-12	1.07149E+0	8.80662E-3
1.58829E-3	39.8016E-12	1.02772E+0	-5.01846E-3	39.4392E-12	1.06339E+0	4.19142E-3
1.58329E-3	39.3202E-12	1.04044E+0	2.78564E-3	39.3442E-12	1.07543E+0	-14.6790E-3
1.57829E-3	38.9279E-12	1.06647E+0	-1.71132E-3	38.9884E-12	1.08604E+0	-36.7841E-3
1.57329E-3	38.5426E-12	1.06136E+0	-2.77361E-3	38.6147E-12	1.09631E+0	-35.4494E-3
1.56828E-3	38.2072E-12	1.06150E+0	-9.69666E-3	38.2900E-12	1.11107E+0	-26.7896E-3
1.56328E-3	37.5843E-12	1.08332E+0	-8.71185E-3	38.1535E-12	1.10782E+0	-26.5507E-3
1.55828E-3	37.0983E-12	1.09222E+0	-6.34222E-3	37.5940E-12	1.09762E+0	-21.6408E-3
1.55328E-3	36.6818E-12	1.08696E+0	-13.2444E-3	36.9211E-12	1.10692E+0	-17.2818E-3
1.54827E-3	36.3322E-12	1.07752E+0	-14.3777E-3	36.6263E-12	1.11564E+0	-14.0007E-3
1.54327E-3	35.7786E-12	1.06653E+0	-13.9003E-3	36.3514E-12	1.11081E+0	-9.29701E-3
1.53827E-3	35.4026E-12	1.07708E+0	-17.5846E-3	35.8079E-12	1.11465E+0	-16.0105E-3
1.53327E-3	35.1884E-12	1.09455E+0	-11.0938E-3	35.1381E-12	1.11692E+0	-22.4693E-3
1.52826E-3	34.9727E-12	1.08773E+0	-8.09829E-3	34.7706E-12	1.10885E+0	-17.3414E-3
1.52326E-3	34.6786E-12	1.08331E+0	-16.5869E-3	34.4626E-12	1.11333E+0	-19.8766E-3
1.51826E-3	34.3482E-12	1.09526E+0	-10.7562E-3	33.9736E-12	1.11828E+0	-22.8629E-3
1.51326E-3	34.2459E-12	1.09695E+0	4.91094E-3	33.4942E-12	1.11414E+0	-14.2415E-3
1.50825E-3	33.9683E-12	1.09902E+0	4.07348E-3	33.2746E-12	1.12243E+0	-19.6331E-3
1.50325E-3	33.6029E-12	1.11965E+0	-11.4274E-3	33.1938E-12	1.14146E+0	-35.4702E-3
1.49825E-3	33.2033E-12	1.13136E+0	-22.0505E-3	32.7477E-12	1.15952E+0	-26.5733E-3
1.49325E-3	32.9859E-12	1.13497E+0	-21.3775E-3	32.4108E-12	1.15991E+0	-8.66180E-3
1.48824E-3	32.5855E-12	1.13374E+0	-14.5815E-3	32.3631E-12	1.13836E+0	-6.90240E-3
1.48324E-3	32.0975E-12	1.12935E+0	-7.38222E-3	32.0822E-12	1.12723E+0	-17.5321E-3
1.47824E-3	31.6258E-12	1.14030E+0	-14.7125E-3	31.6223E-12	1.14247E+0	-30.3056E-3
1.47324E-3	31.1600E-12	1.16018E+0	-23.7721E-3	31.2466E-12	1.15904E+0	-25.6324E-3
1.46823E-3	30.6548E-12	1.15869E+0	-16.8274E-3	30.9781E-12	1.15999E+0	-11.3988E-3
1.46323E-3	30.1150E-12	1.14068E+0	-13.0715E-3	30.5869E-12	1.15530E+0	-14.4495E-3
1.45823E-3	29.7826E-12	1.14018E+0	-12.7013E-3	29.8434E-12	1.14793E+0	-31.8674E-3
1.45323E-3	29.3590E-12	1.14408E+0	-13.5378E-3	29.3150E-12	1.13036E+0	-38.7474E-3
1.44822E-3	28.7679E-12	1.14218E+0	-24.6434E-3	29.1346E-12	1.12519E+0	-30.0647E-3
1.44322E-3	28.3954E-12	1.13541E+0	-23.5347E-3	28.6072E-12	1.12202E+0	-20.1936E-3
1.43822E-3	28.1647E-12	1.10957E+0	-4.38600E-3	27.9865E-12	1.10167E+0	-14.1642E-3
1.43322E-3	27.9216E-12	1.09096E+0	-657.532E-6	27.7060E-12	1.09031E+0	-14.8297E-3
1.42821E-3	27.5158E-12	1.10411E+0	-6.21849E-3	27.5222E-12	1.08690E+0	-22.1752E-3
1.42321E-3	27.1396E-12	1.11560E+0	-8.91651E-3	27.0556E-12	1.08664E+0	-18.9823E-3
1.41821E-3	26.8746E-12	1.11447E+0	-22.5559E-3	26.4895E-12	1.09618E+0	-4.54568E-3
1.41321E-3	26.5847E-12	1.10899E+0	-29.0794E-3	26.3262E-12	1.10017E+0	-1.27380E-3
1.40820E-3	26.1740E-12	1.10328E+0	-11.3736E-3	26.0902E-12	1.09208E+0	774.920E-6
1.40320E-3	25.8269E-12	1.11398E+0	460.310E-6	25.7640E-12	1.09534E+0	5.92562E-3
1.39820E-3	25.5225E-12	1.13028E+0	-17.5410E-3	25.3902E-12	1.10465E+0	-4.52024E-3
1.39320E-3	25.2068E-12	1.12451E+0	-35.1495E-3	25.0632E-12	1.10157E+0	-18.9952E-3
1.38819E-3	24.6824E-12	1.10857E+0	-24.9856E-3	24.9660E-12	1.09667E+0	-25.3284E-3
1.38319E-3	24.2955E-12	1.10658E+0	-5.83128E-3	24.5505E-12	1.08681E+0	-20.0670E-3
1.37819E-3	23.9000E-12	1.09760E+0	1.61842E-3	24.1036E-12	1.06831E+0	-3.20458E-3
1.37319E-3	23.5180E-12	1.07783E+0	-8.02888E-3	23.7609E-12	1.05939E+0	1.28458E-3
1.36818E-3	23.0371E-12	1.07008E+0	-20.0302E-3	23.5454E-12	1.05234E+0	-14.2094E-3
1.36318E-3	22.7543E-12	1.06228E+0	-13.7430E-3	22.9200E-12	1.03488E+0	-21.3312E-3
1.35818E-3	22.4419E-12	1.03753E+0	-12.7340E-3	22.3658E-12	1.02654E+0	-11.5586E-3
1.35318E-3	22.0864E-12	1.02540E+0	-20.0364E-3	22.1482E-12	1.02546E+0	-9.88963E-3
1.34817E-3	21.7676E-12	1.03181E+0	-8.73213E-3	21.7669E-12	1.01328E+0	-16.3298E-3
1.34317E-3	21.4393E-12	1.02574E+0	-2.29082E-3	21.1082E-12	999.831E-3	-11.9430E-3
1.33817E-3	21.2689E-12	1.01077E+0	-17.0902E-3	20.9334E-12	987.614E-3	-9.92614E-3
1.33317E-3	20.9301E-12	1.00303E+0	-19.1224E-3	20.7018E-12	964.772E-3	-15.2660E-3
1.32816E-3	20.6084E-12	1.01021E+0	-6.44145E-3	20.3871E-12	944.841E-3	-22.3855E-3
1.32316E-3	20.2846E-12	1.02868E+0	-5.37257E-3	19.8944E-12	941.530E-3	-33.8488E-3
1.31816E-3	19.9647E-12	1.02781E+0	-5.80776E-3	19.6680E-12	941.909E-3	-34.7106E-3
1.31316E-3	19.5555E-12	993.924E-3	-6.14896E-3	19.4720E-12	937.032E-3	-14.6693E-3
1.30815E-3	19.1467E-12	964.799E-3	-8.20102E-3	19.2433E-12	924.758E-3	-4.11264E-3
1.30315E-3	18.9984E-12	956.393E-3	477.845E-6	18.7421E-12	896.879E-3	-12.6528E-3
1.29815E-3	18.6910E-12	949.728E-3	-975.185E-6	18.5348E-12	876.814E-3	-10.2527E-3
1.29315E-3	18.2509E-12	942.493E-3	-24.3736E-3	18.4355E-12	871.778E-3	-10.4868E-3
1.28814E-3	17.9434E-12	922.476E-3	-28.1298E-3	18.0944E-12	851.615E-3	-14.7995E-3
1.28314E-3	17.8384E-12	890.073E-3	-13.2704E-3	17.6563E-12	823.271E-3	-6.94727E-3
1.27814E-3	17.5862E-12	880.371E-3	-10.0851E-3	17.3586E-12	811.197E-3	-9.86687E-3
1.27314E-3	17.1893E-12	893.949E-3	-12.1475E-3	17.1933E-12	802.226E-3	-25.9944E-3
1.26813E-3	16.7966E-12	883.508E-3	-22.5979E-3	16.8697E-12	784.343E-3	-27.9390E-3
1.26313E-3	16.6895E-12	846.641E-3	-41.8723E-3	16.4444E-12	770.449E-3	-13.8482E-3
1.25813E-3	16.5056E-12	821.307E-3	-42.2671E-3	16.1789E-12	753.990E-3	-6.56063E-3
1.25313E-3	16.1000E-12	806.625E-3	-27.8386E-3	16.0318E-12	741.299E-3	-9.96899E-3
1.24812E-3	15.8048E-12	796.020E-3	-23.4224E-3	15.7070E-12	743.263E-3	-21.8745E-3
1.24312E-3	15.6437E-12	792.351E-3	-17.9941E-3	15.3621E-12	724.087E-3	-32.0394E-3
1.23812E-3	15.3684E-12	774.273E-3	-11.4621E-3	15.1746E-12	690.881E-3	-26.8147E-3
1.23312E-3	15.0050E-12	745.780E-3	-12.9176E-3	15.1399E-12	684.202E-3	-25.4203E-3
1.22811E-3	14.8178E-12	739.642E-3	-913.112E-6	14.7851E-12	674.940E-3	-34.7386E-3
1.22311E-3	14.5430E-12	735.053E-3	16.4283E-3	14.4399E-12	644.042E-3	-30.6272E-3
1.21811E-3	14.2839E-12	713.633E-3	358.817E-6	14.3206E-12	618.180E-3	-19.3731E-3
1.21311E-3	14.0276E-12	695.199E-3	-25.9874E-3	14.1432E-12	607.535E-3	-14.2193E-3
1.20810E-3	13.9099E-12	678.348E-3	-16.3963E-3	13.7803E-12	602.342E-3	-7.30250E-3
1.20310E-3	13.6535E-12	652.373E-3	5.09604E-3	13.5759E-12	594.408E-3	-12.5140E-3
1.19810E-3	13.4333E-12	627.146E-3	6.98104E-3	13.3834E-12	585.606E-3	-25.6425E-3
1.19310E-3	13.1876E-12	611.826E-3	-27.1076E-6	13.2864E-12	567.754E-3	-16.9178E-3
1.18809E-3	13.1169E-12	611.939E-3	-15.8584E-3	12.9583E-12	542.800E-3	1.34907E-3
1.18309E-3	13.1057E-12	610.274E-3	-27.5429E-3	12.7312E-12	515.599E-3	781.912E-6
1.17809E-3	12.7072E-12	575.610E-3	-9.53454E-3	12.7719E-12	490.401E-3	-2.49277E-3
1.17309E-3	12.5161E-12	545.838E-3	12.3601E-3	12.5379E-12	482.846E-3	3.09297E-3
1.16808E-3	12.4452E-12	556.372E-3	14.6852E-3	12.2435E-12	479.635E-3	1.41209E-3
1.16308E-3	12.3049E-12	549.697E-3	9.08334E-3	12.1046E-12	478.327E-3	-6.46973E-3
1.15808E-3	12.0301E-12	507.301E-3	1.26603E-3	12.0506E-12	482.068E-3	-12.3699E-3
1.15308E-3	11.7674E-12	480.269E-3	3.03353E-3	11.8674E-12	468.203E-3	-18.9024E-3
1.14807E-3	11.7631E-12	471.185E-3	18.2192E-3	11.6255E-12	447.493E-3	-19.1475E-3
1.14307E-3	11.5946E-12	465.871E-3	15.1174E-3	11.5245E-12	434.124E-3	-13.9263E-3
1.13807E-3	11.3279E-12	469.312E-3	-17.3867E-3	11.5103E-12	407.764E-3	-10.9160E-3
1.13307E-3	11.2045E-12	452.282E-3	-39.7675E-3	11.3541E-12	385.441E-3	-7.68025E-3
1.12806E-3	11.0636E-12	415.784E-3	-33.0746E-3	11.0487E-12	383.623E-3	-15.2558E-3
1.12306E-3	10.9481E-12	408.559E-3	-20.1107E-3	10.9013E-12	369.015E-3	-34.2878E-3
1.11806E-3	10.7573E-12	415.759E-3	-14.5972E-3	10.8772E-12	331.376E-3	-35.7174E-3
1.11306E-3	10.6298E-12	400.996E-3	-21.2182E-3	10.7126E-12	303.796E-3	-9.43634E-3
1.10805E-3	10.5993E-12	376.430E-3	-32.4566E-3	10.4753E-12	298.376E-3	8.19789E-3
1.10305E-3	10.3626E-12	348.794E-3	-30.4001E-3	10.3738E-12	289.337E-3	3.23696E-3
1.09805E-3	10.3154E-12	323.663E-3	-21.5490E-3	10.3767E-12	276.557E-3	-3.57674E-3
1.09305E-3	10.3076E-12	325.772E-3	-13.1858E-3	10.1878E-12	271.489E-3	-19.3690E-3
1.08804E-3	10.2610E-12	340.758E-3	-8.28426E-3	10.0438E-12	265.096E-3	-37.0008E-3
1.08304E-3	10.0927E-12	330.570E-3	-21.7364E-3	9.96195E-12	257.587E-3	-22.4738E-3
1.07804E-3	9.99107E-12	308.883E-3	-41.5195E-3	9.96025E-12	251.751E-3	-6.18871E-3
1.07304E-3	9.97180E-12	296.774E-3	-31.2997E-3	9.78814E-12	241.642E-3	-19.5969E-3
1.06803E-3	9.85793E-12	281.441E-3	-6.41324E-3	9.70469E-12	234.040E-3	-25.2964E-3
1.06303E-3	9.70924E-12	272.200E-3	-3.94788E-3	9.67414E-12	230.119E-3	-18.1052E-3
1.05803E-3	9.48307E-12	275.611E-3	-13.7050E-3	9.70561E-12	220.948E-3	-17.7338E-3
1.05303E-3	9.58798E-12	261.212E-3	-21.0441E-3	9.51811E-12	209.334E-3	-16.8800E-3
1.04802E-3	9.46831E-12	244.778E-3	-19.5795E-3	9.38729E-12	194.505E-3	-16.2374E-3
1.04302E-3	9.41123E-12	252.555E-3	-11.6829E-3	9.56006E-12	177.526E-3	-19.9801E-3
1.03802E-3	9.18942E-12	259.390E-3	-16.3831E-3	9.46127E-12	174.426E-3	-19.2436E-3
1.03302E-3	9.12699E-12	259.674E-3	-26.3583E-3	9.15146E-12	181.760E-3	-17.2310E-3
1.02801E-3	9.02531E-12	242.158E-3	-15.6797E-3	8.96936E-12	176.857E-3	-22.3707E-3
1.02301E-3	8.77100E-12	200.689E-3	1.75638E-3	8.91257E-12	162.507E-3	-20.9707E-3
1.01801E-3	8.66512E-12	174.889E-3	-1.05012E-3	8.86149E-12	153.094E-3	-20.2602E-3
1.01301E-3	8.70311E-12	175.055E-3	-880.842E-6	8.60018E-12	138.422E-3	-26.7317E-3
1.00800E-3	8.72401E-12	168.484E-3	6.90907E-3	8.53153E-12	128.614E-3	-13.2094E-3
1.00300E-3	8.56203E-12	148.890E-3	-2.60450E-3	8.62646E-12	140.703E-3	-4.51186E-3
997.999E-6	8.56792E-12	136.357E-3	-10.3210E-3	8.54495E-12	138.425E-3	-18.7390E-3
992.997E-6	8.61830E-12	137.458E-3	1.26672E-3	8.43525E-12	117.703E-3	-23.1132E-3
987.994E-6	8.65803E-12	144.284E-3	2.92181E-3	8.38943E-12	110.331E-3	-28.8839E-3
982.991E-6	8.52641E-12	143.551E-3	-12.0044E-3	8.47870E-12	115.463E-3	-31.6246E-3
977.989E-6	8.54429E-12	127.419E-3	-26.2983E-3	8.45831E-12	118.816E-3	-6.85563E-3
972.986E-6	8.54697E-12	106.264E-3	-32.9960E-3	8.38963E-12	115.903E-3	9.88100E-3
967.984E-6	8.49244E-12	105.537E-3	-10.0060E-3	8.37431E-12	114.668E-3	2.09225E-3
962.981E-6	8.32959E-12	115.383E-3	22.4539E-3	8.41967E-12	105.625E-3	-2.82425E-3
957.979E-6	8.40068E-12	114.608E-3	13.8798E-3	8.30060E-12	98.6925E-3	-6.36679E-3
952.976E-6	8.32003E-12	112.730E-3	-7.25724E-3	8.28939E-12	104.513E-3	-14.6368E-3
947.974E-6	8.19682E-12	96.7300E-3	-2.85293E-3	8.20781E-12	100.374E-3	-11.8100E-3
942.971E-6	8.01267E-12	73.9660E-3	-4.28876E-3	8.26595E-12	91.4934E-3	-12.2638E-3
937.969E-6	8.10659E-12	81.4187E-3	-12.0948E-3	8.08313E-12	88.2095E-3	-27.1159E-3
932.966E-6	8.11257E-12	94.0689E-3	-16.9959E-3	8.01882E-12	80.4230E-3	-24.9416E-3
927.964E-6	8.00309E-12	93.9800E-3	-26.5948E-3	8.05153E-12	73.8387E-3	-5.85010E-3
922.961E-6	7.89387E-12	92.9191E-3	-30.7772E-3	8.02314E-12	69.5842E-3	-6.84016E-3
917.959E-6	7.95519E-12	77.5172E-3	-28.3139E-3	7.84111E-12	64.2834E-3	-17.3275E-3
912.956E-6	8.00795E-12	70.6370E-3	-27.3593E-3	7.77944E-12	64.5736E-3	-19.7733E-3
907.954E-6	7.86058E-12	88.1627E-3	-31.3105E-3	7.91008E-12	68.0521E-3	-21.3719E-3
902.951E-6	7.80678E-12	90.1592E-3	-36.7762E-3	7.88249E-12	69.2590E-3	-18.6673E-3
897.949E-6	7.96502E-12	74.1254E-3	-45.3167E-3	7.76112E-12	71.0030E-3	-18.8952E-3
892.946E-6	7.96964E-12	62.3755E-3	-45.7687E-3	7.75248E-12	69.4724E-3	-22.8429E-3
887.944E-6	7.91147E-12	51.0063E-3	-15.8353E-3	7.84805E-12	66.8134E-3	-20.7889E-3
882.941E-6	7.80128E-12	51.7634E-3	6.47887E-3	7.92706E-12	70.5496E-3	-14.4216E-3
877.939E-6	7.93266E-12	70.0171E-3	-9.44337E-3	7.81689E-12	66.1815E-3	-16.4071E-3
872.936E-6	7.90851E-12	67.2132E-3	-23.4853E-3	7.79611E-12	50.3512E-3	-21.3686E-3
867.934E-6	7.80115E-12	45.8391E-3	-23.0310E-3	7.86219E-12	45.5761E-3	-12.5052E-3
862.931E-6	7.71732E-12	47.2217E-3	-17.7474E-3	7.94190E-12	50.2273E-3	-14.9107E-3
857.929E-6	7.75939E-12	50.0717E-3	-5.05072E-3	7.83477E-12	47.5695E-3	-23.6064E-3
852.926E-6	7.73633E-12	35.2686E-3	-4.58256E-3	7.84085E-12	43.3055E-3	-14.8679E-3
847.924E-6	7.66069E-12	35.8351E-3	-18.7095E-3	7.84766E-12	45.8271E-3	-6.06446E-3
842.921E-6	7.62876E-12	41.3995E-3	-22.5964E-3	7.75044E-12	43.9154E-3	-3.11130E-3
837.919E-6	7.67220E-12	33.8266E-3	-30.1552E-3	7.67814E-12	42.8430E-3	-8.72252E-3
832.916E-6	7.56352E-12	49.3553E-3	-47.8996E-3	7.62946E-12	53.6287E-3	-20.9986E-3
827.914E-6	7.55750E-12	65.4770E-3	-43.7731E-3	7.67800E-12	59.7346E-3	-26.1739E-3
822.911E-6	7.60912E-12	39.5671E-3	-29.4240E-3	7.57252E-12	56.2113E-3	-24.2024E-3
817.909E-6	7.62711E-12	23.7708E-3	-22.1541E-3	7.54943E-12	47.9472E-3	-29.4857E-3
812.906E-6	7.57228E-12	34.8944E-3	-4.41656E-3	7.54889E-12	41.7615E-3	-39.9755E-3
807.904E-6	7.49001E-12	38.5465E-3	6.08970E-3	7.55129E-12	44.2794E-3	-32.1410E-3
802.901E-6	7.63692E-12	49.8087E-3	-3.50777E-3	7.47186E-12	48.6319E-3	-13.6839E-3
797.899E-6	7.62991E-12	65.3891E-3	27.5097E-6	7.37822E-12	50.2537E-3	-3.07616E-3
792.896E-6	7.45463E-12	53.8651E-3	-392.988E-6	7.51095E-12	43.8940E-3	1.97179E-3
787.894E-6	7.34333E-12	41.4100E-3	-16.9844E-3	7.51065E-12	34.2740E-3	-1.27564E-3
782.891E-6	7.51425E-12	49.3523E-3	-13.9452E-3	7.36396E-12	33.9581E-3	-10.5045E-3
777.889E-6	7.53490E-12	50.7096E-3	-12.8852E-3	7.36802E-12	45.2732E-3	-22.2888E-3
772.886E-6	7.29705E-12	46.4855E-3	-29.9910E-3	7.43139E-12	49.4880E-3	-26.6569E-3
767.884E-6	7.32826E-12	36.8763E-3	-24.1033E-3	7.41995E-12	37.4414E-3	-9.69079E-3
762.881E-6	7.41085E-12	21.4611E-3	-6.34257E-3	7.33607E-12	36.2617E-3	1.49261E-3
757.879E-6	7.45570E-12	31.2244E-3	-7.35931E-3	7.29742E-12	47.7556E-3	-13.1364E-3
752.876E-6	7.29491E-12	54.0409E-3	-17.3269E-3	7.34204E-12	48.4377E-3	-26.7536E-3
747.874E-6	7.30176E-12	53.7005E-3	-25.3943E-3	7.34007E-12	39.8359E-3	-21.0958E-3
742.871E-6	7.32080E-12	47.1377E-3	-14.9654E-3	7.17554E-12	41.6381E-3	-10.3483E-3
737.869E-6	7.42386E-12	51.7467E-3	2.53976E-3	7.19997E-12	46.0423E-3	-11.6757E-3
732.866E-6	7.35015E-12	50.5181E-3	-4.60786E-3	7.27615E-12	41.4580E-3	-25.9507E-3
727.864E-6	7.27923E-12	52.6943E-3	-27.3465E-3	7.33370E-12	43.6667E-3	-30.4151E-3
722.861E-6	7.35620E-12	65.7534E-3	-38.1295E-3	7.17643E-12	51.4182E-3	-17.8932E-3
717.859E-6	7.33387E-12	62.4919E-3	-36.5479E-3	7.23212E-12	63.6845E-3	1.33351E-3
712.856E-6	7.21699E-12	52.0564E-3	-34.4969E-3	7.33316E-12	73.9138E-3	14.0200E-3
707.854E-6	7.27664E-12	65.6212E-3	-21.9942E-3	7.29264E-12	72.8130E-3	2.26104E-3
702.851E-6	7.22189E-12	77.9905E-3	-5.25753E-3	7.22338E-12	70.5161E-3	-14.6749E-3
697.849E-6	7.14354E-12	69.8431E-3	-16.8398E-3	7.15151E-12	65.5206E-3	-21.2469E-3
692.846E-6	7.05324E-12	64.1457E-3	-32.9729E-3	7.18929E-12	55.8769E-3	-26.3242E-3
687.844E-6	7.16136E-12	53.4683E-3	-12.8126E-3	7.11536E-12	50.6736E-3	-30.3205E-3
682.841E-6	7.07970E-12	46.8749E-3	1.62830E-3	6.96519E-12	53.3092E-3	-27.5787E-3
677.839E-6	7.00155E-12	66.7459E-3	-10.1148E-3	7.01785E-12	68.3985E-3	-23.4743E-3
672.836E-6	6.93364E-12	79.8160E-3	-14.3986E-3	7.10209E-12	91.8696E-3	-21.4242E-3
667.834E-6	7.02105E-12	74.9507E-3	-26.5777E-3	6.96321E-12	99.3566E-3	-17.4678E-3
662.831E-6	7.08515E-12	72.7832E-3	-32.8826E-3	6.82441E-12	91.6236E-3	-18.1913E-3
657.829E-6	6.96147E-12	72.0109E-3	-12.9314E-3	6.98086E-12	82.2994E-3	-17.4429E-3
652.826E-6	6.89924E-12	72.6075E-3	-8.05193E-3	6.92725E-12	82.3548E-3	-22.0290E-3
647.824E-6	6.93475E-12	84.3795E-3	-14.8000E-3	6.78930E-12	89.8990E-3	-28.6130E-3
642.821E-6	6.94580E-12	89.5203E-3	-6.88372E-3	6.76050E-12	92.9717E-3	-10.2181E-3
637.819E-6	6.85163E-12	76.5842E-3	-10.9310E-3	6.90288E-12	98.0990E-3	1.23193E-3
632.816E-6	6.75534E-12	68.3836E-3	-23.3496E-3	6.82067E-12	96.7582E-3	-11.8808E-3
627.814E-6	6.83144E-12	64.9780E-3	-10.3881E-3	6.70312E-12	86.4572E-3	-9.85876E-3
622.811E-6	6.82158E-12	66.8384E-3	-3.06066E-3	6.70767E-12	89.9422E-3	2.39216E-3
617.809E-6	6.75834E-12	85.3891E-3	-14.9293E-3	6.80448E-12	100.845E-3	2.61110E-3
612.806E-6	6.56025E-12	91.4352E-3	-14.1461E-3	6.70599E-12	100.706E-3	755.632E-6
607.804E-6	6.57791E-12	78.2944E-3	-15.9213E-3	6.57271E-12	100.813E-3	-3.76015E-3
602.801E-6	6.56407E-12	81.7353E-3	-23.6550E-3	6.58775E-12	102.966E-3	-16.8448E-3
597.799E-6	6.42841E-12	93.1288E-3	-16.9704E-3	6.59336E-12	99.5654E-3	-17.1279E-3
592.796E-6	6.36114E-12	86.6547E-3	-18.6580E-3	6.52977E-12	105.755E-3	-4.22111E-3
587.794E-6	6.44726E-12	79.5642E-3	-25.6863E-3	6.36414E-12	113.335E-3	-9.93496E-3
582.791E-6	6.36334E-12	78.9484E-3	-4.42596E-3	6.35677E-12	110.909E-3	-23.6573E-3
577.789E-6	6.31786E-12	75.5376E-3	8.04767E-3	6.28322E-12	124.408E-3	-21.5315E-3
572.786E-6	6.33152E-12	101.250E-3	-10.2714E-3	6.32016E-12	141.364E-3	-17.4726E-3
567.784E-6	6.37692E-12	147.004E-3	-14.4902E-3	6.30739E-12	134.543E-3	-17.9564E-3
562.781E-6	6.27465E-12	143.328E-3	-15.5533E-3	6.30257E-12	116.520E-3	-8.94028E-3
557.779E-6	6.27649E-12	121.897E-3	-26.9494E-3	6.33397E-12	111.116E-3	634.417E-6
552.776E-6	6.36467E-12	133.785E-3	-14.5853E-3	6.19364E-12	115.389E-3	-12.5711E-3
547.774E-6	6.39157E-12	145.375E-3	-4.65901E-3	6.18675E-12	121.382E-3	-28.7570E-3
542.771E-6	6.14742E-12	145.290E-3	-14.6875E-3	6.25367E-12	134.765E-3	-20.4142E-3
537.769E-6	6.10132E-12	136.700E-3	-8.80826E-3	6.23548E-12	141.168E-3	-7.83078E-3
532.766E-6	6.16369E-12	121.483E-3	-2.63239E-3	6.03016E-12	144.929E-3	-7.69938E-3
527.764E-6	6.10730E-12	129.195E-3	-12.4890E-3	6.00804E-12	157.855E-3	-14.4906E-3
522.761E-6	5.93493E-12	156.765E-3	-16.4876E-3	6.09233E-12	162.221E-3	-31.5322E-3
517.759E-6	5.77248E-12	163.342E-3	-19.5971E-3	5.96061E-12	159.753E-3	-44.0051E-3
512.756E-6	5.81107E-12	150.633E-3	-29.6110E-3	5.84898E-12	161.074E-3	-31.1210E-3
507.754E-6	5.76368E-12	142.967E-3	-19.3450E-3	5.65268E-12	158.505E-3	-19.0820E-3
502.751E-6	5.57861E-12	138.927E-3	-913.461E-6	5.71846E-12	158.985E-3	-22.9393E-3
497.749E-6	5.46295E-12	145.986E-3	-3.18630E-3	5.66566E-12	168.724E-3	-23.4021E-3
492.746E-6	5.51393E-12	158.961E-3	-11.7153E-3	5.51871E-12	176.089E-3	-17.6599E-3
487.744E-6	5.51388E-12	150.034E-3	-15.6158E-3	5.36501E-12	183.686E-3	-14.1265E-3
482.741E-6	5.40093E-12	137.015E-3	-14.2035E-3	5.46775E-12	193.625E-3	-12.2576E-3
477.739E-6	5.31822E-12	151.683E-3	-2.57836E-3	5.38265E-12	190.634E-3	-7.88280E-3
472.736E-6	5.38097E-12	169.836E-3	9.92587E-3	5.21458E-12	182.000E-3	-8.48056E-3
467.734E-6	5.32579E-12	178.395E-3	-1.62020E-3	5.16253E-12	183.152E-3	-14.9556E-3
462.731E-6	5.28501E-12	182.982E-3	-12.8719E-3	5.18703E-12	186.359E-3	-16.5424E-3
457.729E-6	5.23008E-12	175.752E-3	-2.80033E-3	5.13850E-12	188.863E-3	-8.55083E-3
452.726E-6	5.25824E-12	180.798E-3	-2.66541E-3	5.12625E-12	190.087E-3	-7.04260E-3
447.724E-6	5.10719E-12	197.185E-3	-1.25108E-3	5.03481E-12	183.542E-3	-23.1549E-3
442.721E-6	4.97424E-12	190.540E-3	4.94611E-3	5.01760E-12	182.153E-3	-34.7419E-3
437.719E-6	4.93777E-12	181.750E-3	-4.17521E-3	4.93114E-12	194.104E-3	-31.6472E-3
432.716E-6	4.89434E-12	193.366E-3	-14.4843E-3	4.87282E-12	205.989E-3	-16.1779E-3
427.714E-6	4.69065E-12	196.407E-3	-10.7691E-3	4.85697E-12	202.374E-3	-833.610E-6
422.711E-6	4.57456E-12	200.198E-3	-7.32115E-3	4.75614E-12	200.167E-3	-12.2032E-3
417.709E-6	4.59040E-12	213.338E-3	-11.2227E-3	4.62385E-12	214.871E-3	-34.5973E-3
412.706E-6	4.62865E-12	195.684E-3	-13.1491E-3	4.52233E-12	225.760E-3	-34.7706E-3
407.704E-6	4.43121E-12	172.886E-3	-22.7056E-3	4.58701E-12	224.553E-3	-20.3496E-3
402.701E-6	4.28845E-12	186.582E-3	-23.0570E-3	4.45791E-12	219.791E-3	-12.4701E-3
397.699E-6	4.29161E-12	206.782E-3	-7.51938E-3	4.28966E-12	217.077E-3	-9.75715E-3
392.696E-6	4.36238E-12	217.865E-3	-12.3593E-3	4.18914E-12	217.899E-3	-7.78158E-3
387.694E-6	4.20432E-12	224.897E-3	-26.2746E-3	4.25907E-12	212.718E-3	-7.86932E-3
382.691E-6	4.01898E-12	213.800E-3	-19.5559E-3	4.17309E-12	204.357E-3	-11.6238E-3
377.689E-6	4.05912E-12	196.615E-3	-7.93439E-3	3.99197E-12	205.757E-3	-12.8759E-3
372.686E-6	4.08817E-12	199.052E-3	-5.39869E-3	3.88086E-12	207.877E-3	-5.89342E-3
367.684E-6	3.91452E-12	207.838E-3	-8.66182E-3	3.94131E-12	214.321E-3	-1.52383E-3
362.681E-6	3.84957E-12	209.646E-3	-27.1184E-3	3.96045E-12	237.589E-3	-7.99921E-3
357.679E-6	3.76899E-12	216.831E-3	-44.9308E-3	3.72406E-12	242.027E-3	-11.6865E-3
352.676E-6	3.77265E-12	224.080E-3	-41.3434E-3	3.71525E-12	212.977E-3	-5.43207E-3
347.674E-6	3.64037E-12	222.811E-3	-39.1588E-3	3.65289E-12	202.531E-3	264.012E-6
342.671E-6	3.54062E-12	229.180E-3	-38.2891E-3	3.61117E-12	219.566E-3	-4.94066E-3
337.669E-6	3.52830E-12	237.355E-3	-18.8444E-3	3.44670E-12	220.306E-3	-13.0802E-3
332.666E-6	3.37692E-12	225.910E-3	-6.64674E-3	3.37240E-12	215.657E-3	-12.8996E-3
327.664E-6	3.30276E-12	215.778E-3	-13.8695E-3	3.32407E-12	219.630E-3	-3.33973E-3
322.661E-6	3.25532E-12	215.864E-3	-15.5447E-3	3.24702E-12	209.379E-3	-1.39648E-3
317.659E-6	3.22476E-12	204.028E-3	-9.33022E-3	3.14095E-12	192.596E-3	-18.5416E-3
312.656E-6	3.12787E-12	205.707E-3	-7.55423E-3	3.06381E-12	190.448E-3	-32.9917E-3
307.654E-6	3.04397E-12	223.831E-3	-10.2319E-3	2.97115E-12	199.117E-3	-21.8144E-3
302.651E-6	2.95059E-12	217.498E-3	-15.9847E-3	2.91299E-12	202.689E-3	28.9046E-6
297.649E-6	2.98925E-12	206.739E-3	-21.7757E-3	2.88578E-12	204.962E-3	902.570E-6
292.646E-6	2.83277E-12	201.465E-3	-14.7266E-3	2.85044E-12	212.281E-3	-14.3945E-3
287.644E-6	2.70958E-12	192.922E-3	-6.79716E-3	2.83745E-12	216.110E-3	-25.7345E-3
282.641E-6	2.70958E-12	204.112E-3	-16.1342E-3	2.61312E-12	213.274E-3	-26.2559E-3
277.639E-6	2.70493E-12	220.229E-3	-19.6222E-3	2.55988E-12	201.438E-3	-18.5308E-3
272.636E-6	2.55159E-12	212.220E-3	-18.5390E-3	2.54069E-12	189.591E-3	-9.95257E-3
267.634E-6	2.35271E-12	205.749E-3	-20.8582E-3	2.53931E-12	194.574E-3	-13.8220E-3
262.631E-6	2.39102E-12	216.862E-3	-9.62440E-3	2.33944E-12	202.630E-3	-25.5126E-3
257.629E-6	2.37672E-12	216.368E-3	-7.62791E-3	2.26579E-12	208.787E-3	-23.6410E-3
252.626E-6	2.22260E-12	199.841E-3	-20.1102E-3	2.33284E-12	216.748E-3	-13.4752E-3
247.624E-6	2.11011E-12	193.540E-3	-10.5775E-3	2.25007E-12	203.787E-3	-14.1860E-3
242.621E-6	2.12764E-12	195.058E-3	2.23247E-3	2.07613E-12	178.303E-3	-15.1804E-3
237.619E-6	2.16294E-12	201.106E-3	-12.2908E-3	2.04783E-12	174.256E-3	-11.5251E-3
232.616E-6	2.00648E-12	206.490E-3	-19.5098E-3	2.03700E-12	186.246E-3	-15.9141E-3
227.614E-6	1.82747E-12	193.255E-3	-10.2296E-3	1.96620E-12	183.253E-3	-14.4423E-3
222.611E-6	1.83686E-12	180.149E-3	-12.0036E-3	1.79448E-12	170.498E-3	-10.7831E-3
217.609E-6	1.83753E-12	179.989E-3	-13.3032E-3	1.73431E-12	168.182E-3	-23.4457E-3
212.606E-6	1.74384E-12	180.427E-3	-8.27285E-3	1.79657E-12	170.295E-3	-25.4309E-3
207.604E-6	1.69800E-12	178.561E-3	-12.2799E-3	1.70468E-12	169.779E-3	-6.20221E-3
202.601E-6	1.69819E-12	174.014E-3	-16.2995E-3	1.58845E-12	177.462E-3	946.804E-6
197.599E-6	1.60859E-12	162.505E-3	-13.7520E-3	1.59537E-12	176.718E-3	-3.17653E-3
192.596E-6	1.44912E-12	159.809E-3	-13.1533E-3	1.56660E-12	153.802E-3	-9.72587E-3
187.594E-6	1.41899E-12	178.672E-3	-6.68454E-3	1.49753E-12	140.844E-3	-19.9202E-3
182.591E-6	1.41275E-12	192.577E-3	1.62096E-3	1.40599E-12	149.899E-3	-19.9694E-3
177.589E-6	1.32666E-12	193.304E-3	-7.71191E-3	1.32925E-12	153.331E-3	-18.6242E-3
172.586E-6	1.19043E-12	192.741E-3	-18.9393E-3	1.32458E-12	146.721E-3	-28.2963E-3
167.584E-6	1.22488E-12	171.951E-3	-18.0157E-3	1.26241E-12	139.074E-3	-31.8498E-3
162.581E-6	1.22141E-12	148.524E-3	-31.0374E-3	1.14844E-12	136.076E-3	-28.3251E-3
157.579E-6	1.05726E-12	154.540E-3	-46.1939E-3	1.15943E-12	145.977E-3	-25.8562E-3
152.576E-6	953.489E-15	156.487E-3	-40.7836E-3	1.12686E-12	158.203E-3	-11.6529E-3
147.574E-6	1.03534E-12	136.753E-3	-36.3931E-3	958.677E-15	152.672E-3	3.98383E-3
142.571E-6	1.06709E-12	132.952E-3	-26.1032E-3	902.097E-15	134.090E-3	-3.48849E-3
137.569E-6	912.744E-15	143.610E-3	-5.68908E-3	965.278E-15	119.447E-3	-22.0166E-3
132.566E-6	803.229E-15	142.354E-3	-460.179E-6	920.539E-15	119.084E-3	-28.2908E-3
127.564E-6	865.241E-15	141.115E-3	-5.14847E-3	808.653E-15	131.546E-3	-23.5336E-3
122.561E-6	913.694E-15	141.664E-3	-12.8240E-3	747.365E-15	133.755E-3	-18.8019E-3
117.559E-6	758.072E-15	139.028E-3	-30.4566E-3	825.097E-15	117.180E-3	-19.3835E-3
112.556E-6	679.834E-15	139.619E-3	-36.6419E-3	775.519E-15	109.431E-3	-25.6600E-3
107.554E-6	686.792E-15	131.896E-3	-22.7236E-3	608.274E-15	116.981E-3	-24.3204E-3
102.551E-6	705.364E-15	117.047E-3	-13.8116E-3	596.433E-15	126.485E-3	-5.46171E-3
97.5488E-6	588.202E-15	117.081E-3	-14.3513E-3	660.294E-15	127.235E-3	12.3152E-3
92.5463E-6	531.230E-15	120.181E-3	-16.0841E-3	627.343E-15	110.344E-3	4.51787E-3
87.5438E-6	565.794E-15	116.596E-3	-21.9909E-3	465.591E-15	97.3618E-3	-18.2594E-3
82.5413E-6	473.814E-15	124.117E-3	-15.0342E-3	427.523E-15	101.041E-3	-31.2892E-3
77.5388E-6	374.623E-15	122.271E-3	-1.17778E-3	530.367E-15	112.427E-3	-26.8701E-3
72.5363E-6	388.321E-15	103.684E-3	-3.28257E-3	382.462E-15	119.160E-3	-12.9904E-3
67.5338E-6	378.119E-15	99.2328E-3	-4.08092E-3	309.115E-15	114.208E-3	-8.35341E-3
62.5313E-6	317.520E-15	107.627E-3	139.935E-6	305.357E-15	100.789E-3	-14.1725E-3
57.5288E-6	190.741E-15	104.488E-3	-8.01450E-3	279.940E-15	94.9133E-3	-21.0741E-3
52.5263E-6	275.136E-15	101.969E-3	-20.5255E-3	248.088E-15	105.632E-3	-21.8792E-3
47.5238E-6	268.779E-15	111.563E-3	-26.8486E-3	164.313E-15	109.654E-3	-11.3329E-3
42.5213E-6	146.011E-15	105.801E-3	-31.2622E-3	171.306E-15	105.442E-3	1.90286E-3
37.5188E-6	119.051E-15	100.254E-3	-26.8927E-3	233.091E-15	98.3107E-3	-434.491E-6
32.5163E-6	144.067E-15	111.624E-3	-8.91935E-3	93.9136E-15	91.2190E-3	-22.5973E-3
27.5138E-6	188.544E-15	106.959E-3	-1.74819E-3	48.8260E-15	102.405E-3	-42.1521E-3
22.5113E-6	-15.6881E-15	102.731E-3	-16.5786E-3	55.2260E-15	117.510E-3	-41.4195E-3
17.5088E-6	-75.2061E-15	113.543E-3	-31.1038E-3	70.4499E-15	108.989E-3	-23.5795E-3
12.5063E-6	-25.2532E-15	112.064E-3	-37.0970E-3	-99.7859E-15	85.8181E-3	-10.1908E-3
7.50375E-6	11.6295E-15	107.275E-3	-36.7466E-3	-138.116E-15	75.8053E-3	-17.5612E-3
2.50125E-6	-177.013E-15	103.833E-3	-29.8812E-3	-50.0161E-15	81.5106E-3	-21.1118E-3
-2.50125E-6	-160.664E-15	93.6820E-3	-25.6492E-3	-63.4612E-15	88.3093E-3	-9.58169E-3
-7.50375E-6	-131.202E-15	95.3146E-3	-27.3422E-3	-231.944E-15	92.5629E-3	-7.63053E-3
-12.5063E-6	-166.951E-15	106.151E-3	-21.7819E-3	-253.882E-15	97.0284E-3	-17.0351E-3
-17.5088E-6	-215.081E-15	104.082E-3	-14.1036E-3	-157.220E-15	98.1387E-3	-23.2319E-3
-22.5113E-6	-325.311E-15	102.034E-3	-19.3923E-3	-223.356E-15	97.3920E-3	-24.9702E-3
-27.5138E-6	-326.034E-15	109.849E-3	-22.3611E-3	-415.713E-15	95.6463E-3	-20.5190E-3
-32.5163E-6	-336.768E-15	109.661E-3	-18.6605E-3	-437.912E-15	92.2647E-3	-11.2049E-3
-37.5188E-6	-362.089E-15	112.971E-3	-20.8629E-3	-364.051E-15	93.8161E-3	-7.02119E-3
-42.5213E-6	-410.716E-15	115.313E-3	-22.1946E-3	-397.446E-15	105.361E-3	-9.65064E-3
-47.5238E-6	-442.551E-15	103.797E-3	-18.4820E-3	-525.968E-15	124.318E-3	-13.5930E-3
-52.5263E-6	-499.627E-15	104.557E-3	-8.61011E-3	-528.610E-15	138.278E-3	-15.2411E-3
-57.5288E-6	-607.119E-15	117.832E-3	-1.38279E-3	-515.522E-15	135.521E-3	-10.7695E-3
-62.5313E-6	-590.317E-15	120.612E-3	-4.80909E-3	-606.369E-15	126.100E-3	-321.507E-6
-67.5338E-6	-581.580E-15	119.932E-3	-8.57410E-3	-686.491E-15	123.470E-3	5.87852E-3
-72.5363E-6	-676.664E-15	127.951E-3	-11.6123E-3	-669.994E-15	131.168E-3	-7.89887E-3
-77.5388E-6	-777.215E-15	130.774E-3	-16.3438E-3	-721.403E-15	145.151E-3	-23.9451E-3
-82.5413E-6	-734.107E-15	126.142E-3	-24.2722E-3	-798.752E-15	150.259E-3	-14.8487E-3
-87.5438E-6	-770.074E-15	126.751E-3	-21.9942E-3	-888.351E-15	148.288E-3	-7.74872E-3
-92.5463E-6	-893.252E-15	138.737E-3	-6.66025E-3	-900.401E-15	141.241E-3	-20.9926E-3
-97.5488E-6	-985.999E-15	156.460E-3	119.245E-6	-887.401E-15	143.703E-3	-29.2857E-3
-102.551E-6	-945.637E-15	156.492E-3	-1.83650E-3	-1.01982E-12	165.369E-3	-24.8863E-3
-107.554E-6	-955.717E-15	138.259E-3	-5.62109E-3	-1.08165E-12	179.531E-3	-21.7522E-3
-112.556E-6	-1.09303E-12	131.604E-3	-14.5000E-3	-1.02608E-12	176.197E-3	-15.2187E-3
-117.559E-6	-1.21453E-12	145.227E-3	-18.3166E-3	-1.08367E-12	171.838E-3	-8.41977E-3
-122.561E-6	-1.15547E-12	151.169E-3	-10.5293E-3	-1.24692E-12	173.274E-3	-14.6067E-3
-127.564E-6	-1.17911E-12	142.638E-3	-17.8361E-3	-1.32404E-12	179.926E-3	-16.5341E-3
-132.566E-6	-1.36783E-12	158.228E-3	-40.0020E-3	-1.29389E-12	195.745E-3	-4.31056E-3
-137.569E-6	-1.49325E-12	178.764E-3	-43.9410E-3	-1.30006E-12	204.972E-3	3.09139E-3
-142.571E-6	-1.45668E-12	176.679E-3	-32.2146E-3	-1.54454E-12	203.911E-3	-2.46443E-3
-147.574E-6	-1.42657E-12	186.726E-3	-21.4837E-3	-1.57490E-12	204.667E-3	-7.48860E-3
-152.576E-6	-1.56203E-12	197.649E-3	-18.4446E-3	-1.50130E-12	208.357E-3	-16.5564E-3
-157.579E-6	-1.66417E-12	193.295E-3	-26.7103E-3	-1.57540E-12	220.163E-3	-24.7516E-3
-162.581E-6	-1.70027E-12	188.455E-3	-33.1894E-3	-1.76101E-12	230.343E-3	-19.2232E-3
-167.584E-6	-1.72602E-12	179.076E-3	-18.3247E-3	-1.78828E-12	226.629E-3	-13.3892E-3
-172.586E-6	-1.92063E-12	182.282E-3	-89.1373E-6	-1.87229E-12	218.848E-3	-10.6839E-3
-177.589E-6	-1.91079E-12	210.534E-3	-3.69466E-3	-1.94320E-12	221.478E-3	-12.9539E-3
-182.591E-6	-1.94212E-12	233.531E-3	-24.6629E-3	-2.07814E-12	236.528E-3	-20.7115E-3
-187.594E-6	-2.04934E-12	236.715E-3	-40.5665E-3	-2.11902E-12	248.884E-3	-12.0835E-3
-192.596E-6	-2.16426E-12	235.755E-3	-30.8339E-3	-2.13445E-12	252.992E-3	2.88396E-3
-197.599E-6	-2.22915E-12	241.635E-3	-17.6496E-3	-2.29059E-12	253.390E-3	-1.70958E-3
-202.601E-6	-2.26409E-12	252.780E-3	-30.0767E-3	-2.36907E-12	253.371E-3	-17.7889E-3
-207.604E-6	-2.41056E-12	255.127E-3	-37.4956E-3	-2.36865E-12	263.587E-3	-23.1502E-3
-212.606E-6	-2.55572E-12	254.884E-3	-18.3735E-3	-2.49814E-12	279.263E-3	-15.0490E-3
-217.609E-6	-2.53193E-12	264.241E-3	-8.26596E-3	-2.66834E-12	286.092E-3	-11.4791E-3
-222.611E-6	-2.60217E-12	273.328E-3	-16.5966E-3	-2.76384E-12	293.550E-3	-17.7548E-3
-227.614E-6	-2.78971E-12	270.467E-3	-16.5711E-3	-2.72796E-12	302.608E-3	-32.4061E-3
-232.616E-6	-2.95914E-12	256.497E-3	-15.8385E-3	-2.86994E-12	302.041E-3	-39.4633E-3
-237.619E-6	-2.91532E-12	259.391E-3	-17.3349E-3	-3.06241E-12	306.751E-3	-32.3509E-3
-242.621E-6	-2.92829E-12	279.592E-3	-5.17485E-3	-3.14058E-12	315.064E-3	-24.4488E-3
-247.624E-6	-3.15415E-12	294.560E-3	-3.52779E-3	-3.08758E-12	314.553E-3	-16.3402E-3
-252.626E-6	-3.28442E-12	305.072E-3	-15.7453E-3	-3.22479E-12	315.082E-3	-12.9494E-3
-257.629E-6	-3.26692E-12	305.410E-3	-17.0662E-3	-3.41803E-12	316.251E-3	-18.2782E-3
-262.631E-6	-3.31854E-12	298.235E-3	-16.0109E-3	-3.53936E-12	324.398E-3	-13.4945E-3
-267.634E-6	-3.51681E-12	299.090E-3	-12.1452E-3	-3.54842E-12	338.976E-3	-3.00601E-3
-272.636E-6	-3.65311E-12	303.562E-3	3.33146E-3	-3.62441E-12	334.318E-3	-11.2403E-3
-277.639E-6	-3.71581E-12	309.402E-3	1.80085E-3	-3.91295E-12	325.264E-3	-20.8005E-3
-282.641E-6	-3.79396E-12	322.840E-3	-18.8910E-3	-3.95674E-12	335.949E-3	-17.8841E-3
-287.644E-6	-4.01007E-12	333.419E-3	-25.4074E-3	-3.95833E-12	347.520E-3	-16.7163E-3
-292.646E-6	-4.18117E-12	326.407E-3	-22.9040E-3	-4.10770E-12	347.523E-3	-15.8945E-3
-297.649E-6	-4.20211E-12	328.636E-3	-19.8077E-3	-4.31820E-12	354.595E-3	-10.8296E-3
-302.651E-6	-4.38849E-12	348.552E-3	-13.5754E-3	-4.40521E-12	371.255E-3	-13.5420E-3
-307.654E-6	-4.50937E-12	354.351E-3	-18.3536E-3	-4.45811E-12	380.039E-3	-23.6080E-3
-312.656E-6	-4.64054E-12	354.224E-3	-33.6592E-3	-4.65594E-12	382.906E-3	-24.3705E-3
-317.659E-6	-4.76963E-12	357.806E-3	-32.7363E-3	-4.79795E-12	383.509E-3	-17.3950E-3
-322.661E-6	-4.90698E-12	358.246E-3	-13.0925E-3	-4.86661E-12	374.763E-3	-6.34434E-3
-327.664E-6	-5.04550E-12	359.764E-3	-3.63712E-3	-4.98505E-12	364.365E-3	-2.95721E-3
-332.666E-6	-5.11910E-12	362.359E-3	-10.1347E-3	-5.12032E-12	371.442E-3	-12.3034E-3
-337.669E-6	-5.15698E-12	357.085E-3	-16.1686E-3	-5.27337E-12	395.707E-3	-10.7217E-3
-342.671E-6	-5.30743E-12	353.806E-3	-19.2784E-3	-5.28334E-12	404.579E-3	9.04185E-6
-347.674E-6	-5.43885E-12	360.065E-3	-22.0312E-3	-5.39037E-12	387.860E-3	407.907E-6
-352.676E-6	-5.46691E-12	361.321E-3	-20.7172E-3	-5.57840E-12	368.181E-3	-14.0838E-3
-357.679E-6	-5.52653E-12	367.852E-3	-24.6729E-3	-5.67300E-12	359.655E-3	-22.7401E-3
-362.681E-6	-5.72065E-12	379.971E-3	-23.5704E-3	-5.67992E-12	372.216E-3	-20.5380E-3
-367.684E-6	-5.95755E-12	380.629E-3	-4.45866E-3	-5.82799E-12	387.957E-3	-19.1929E-3
-372.686E-6	-5.96202E-12	385.299E-3	1.01744E-3	-6.13322E-12	387.820E-3	-9.98000E-3
-377.689E-6	-6.03773E-12	391.258E-3	-10.4852E-3	-6.23990E-12	382.557E-3	-9.01447E-3
-382.691E-6	-6.28799E-12	385.710E-3	-14.5237E-3	-6.18646E-12	373.387E-3	-24.3078E-3
-387.694E-6	-6.58632E-12	375.458E-3	-17.0196E-3	-6.42897E-12	364.165E-3	-30.5177E-3
-392.696E-6	-6.60038E-12	364.614E-3	-14.2196E-3	-6.64598E-12	368.858E-3	-28.4454E-3
-397.699E-6	-6.68886E-12	361.074E-3	-9.80968E-3	-6.75066E-12	368.946E-3	-23.2765E-3
-402.701E-6	-6.92855E-12	372.391E-3	-21.3462E-3	-6.84404E-12	357.814E-3	-13.2734E-3
-407.704E-6	-7.07024E-12	384.703E-3	-37.4107E-3	-7.00733E-12	360.759E-3	-15.4399E-3
-412.706E-6	-7.31462E-12	379.357E-3	-41.7155E-3	-7.24750E-12	359.214E-3	-26.5495E-3
-417.709E-6	-7.29763E-12	374.319E-3	-42.7401E-3	-7.32752E-12	340.902E-3	-17.2413E-3
-422.711E-6	-7.43408E-12	380.558E-3	-40.1586E-3	-7.40486E-12	338.615E-3	209.517E-6
-427.714E-6	-7.53434E-12	375.437E-3	-27.0214E-3	-7.58270E-12	339.678E-3	-12.3041E-3
-432.716E-6	-7.60715E-12	375.704E-3	-14.7409E-3	-7.77824E-12	333.558E-3	-36.4905E-3
-437.719E-6	-7.67998E-12	390.271E-3	-6.35918E-3	-7.78638E-12	348.800E-3	-36.5072E-3
-442.721E-6	-7.79418E-12	386.555E-3	-13.0322E-3	-7.86041E-12	367.871E-3	-19.3917E-3
-447.724E-6	-7.89622E-12	366.674E-3	-33.1403E-3	-7.98143E-12	362.634E-3	-664.229E-6
-452.726E-6	-7.91250E-12	351.265E-3	-30.4737E-3	-8.19275E-12	350.544E-3	3.54892E-3
-457.729E-6	-8.09795E-12	341.226E-3	-9.09022E-3	-8.19190E-12	348.003E-3	-7.23511E-3
-462.731E-6	-8.28273E-12	340.362E-3	-8.60772E-3	-8.25996E-12	349.276E-3	-15.3066E-3
-467.734E-6	-8.38103E-12	346.206E-3	-26.9736E-3	-8.53735E-12	353.233E-3	-17.4759E-3
-472.736E-6	-8.48296E-12	341.296E-3	-31.8952E-3	-8.59020E-12	354.921E-3	-19.3303E-3
-477.739E-6	-8.63497E-12	329.085E-3	-22.8397E-3	-8.60501E-12	337.500E-3	-21.3415E-3
-482.741E-6	-8.92987E-12	334.157E-3	-17.7107E-3	-8.71231E-12	315.744E-3	-20.0258E-3
-487.744E-6	-8.92706E-12	348.065E-3	-12.6318E-3	-9.03622E-12	314.453E-3	-22.0460E-3
-492.746E-6	-9.02620E-12	344.319E-3	-4.90090E-3	-9.04167E-12	317.982E-3	-23.8846E-3
-497.749E-6	-9.26757E-12	338.763E-3	-7.94237E-3	-9.01825E-12	315.658E-3	-9.98374E-3
-502.751E-6	-9.45843E-12	343.563E-3	-12.1757E-3	-9.18367E-12	306.939E-3	-4.74119E-3
-507.754E-6	-9.38594E-12	336.362E-3	-11.1600E-3	-9.42644E-12	285.839E-3	-10.6042E-3
-512.756E-6	-9.48794E-12	318.309E-3	-14.3617E-3	-9.51251E-12	269.582E-3	-7.87892E-3
-517.759E-6	-9.59866E-12	311.594E-3	-8.06753E-3	-9.44467E-12	277.195E-3	-10.2064E-3
-522.761E-6	-9.69988E-12	316.626E-3	-7.92756E-3	-9.50427E-12	289.143E-3	-9.51195E-3
-527.764E-6	-9.66563E-12	315.374E-3	-22.3431E-3	-9.86561E-12	282.394E-3	-3.05326E-3
-532.766E-6	-9.72016E-12	303.935E-3	-16.2708E-3	-9.84454E-12	267.077E-3	-9.07021E-3
-537.769E-6	-9.79638E-12	288.807E-3	-892.534E-6	-9.76818E-12	252.195E-3	-19.7371E-3
-542.771E-6	-9.87717E-12	276.824E-3	2.77682E-3	-9.86901E-12	255.464E-3	-27.5415E-3
-547.774E-6	-10.0069E-12	274.908E-3	1.89902E-3	-10.1179E-12	274.236E-3	-33.3998E-3
-552.776E-6	-10.0503E-12	271.817E-3	-12.2092E-3	-10.0824E-12	264.024E-3	-25.0771E-3
-557.779E-6	-10.1736E-12	271.867E-3	-24.6006E-3	-10.0278E-12	229.414E-3	-15.3503E-3
-562.781E-6	-10.2071E-12	277.151E-3	-20.8489E-3	-10.2783E-12	212.646E-3	-28.3360E-3
-567.784E-6	-10.2885E-12	265.194E-3	-21.5260E-3	-10.4634E-12	211.497E-3	-41.6237E-3
-572.786E-6	-10.5207E-12	251.745E-3	-21.1837E-3	-10.5454E-12	212.712E-3	-25.4566E-3
-577.789E-6	-10.6705E-12	249.855E-3	-10.1831E-3	-10.5789E-12	215.679E-3	-2.54767E-3
-582.791E-6	-10.6424E-12	235.610E-3	-810.137E-6	-10.7822E-12	211.080E-3	-38.1642E-6
-587.794E-6	-10.6665E-12	223.983E-3	-3.65865E-3	-10.8627E-12	204.093E-3	-2.17492E-3
-592.796E-6	-10.8552E-12	228.380E-3	-10.7431E-3	-10.7916E-12	202.187E-3	-6.88330E-3
-597.799E-6	-10.9657E-12	224.519E-3	-13.7207E-3	-10.8994E-12	204.949E-3	-11.5871E-3
-602.801E-6	-10.8357E-12	218.041E-3	-16.9087E-3	-11.0375E-12	210.698E-3	-4.56494E-3
-607.804E-6	-10.7525E-12	216.877E-3	-18.0379E-3	-11.2012E-12	212.945E-3	-1.36920E-3
-612.806E-6	-10.8940E-12	208.067E-3	-20.5876E-3	-11.0393E-12	199.426E-3	-9.05015E-3
-617.809E-6	-11.0611E-12	191.183E-3	-28.0836E-3	-11.1197E-12	178.656E-3	-20.1861E-3
-622.811E-6	-10.9721E-12	181.228E-3	-26.8825E-3	-11.3424E-12	173.982E-3	-30.0552E-3
-627.814E-6	-10.9924E-12	175.081E-3	-13.3053E-3	-11.4783E-12	164.462E-3	-27.2801E-3
-632.816E-6	-11.1582E-12	173.643E-3	-1.39213E-3	-11.3208E-12	146.014E-3	-11.3982E-3
-637.819E-6	-11.3608E-12	193.017E-3	-434.919E-6	-11.3194E-12	144.523E-3	-14.3853E-3
-642.821E-6	-11.2769E-12	208.378E-3	-14.2680E-3	-11.4662E-12	146.827E-3	-29.4088E-3
-647.824E-6	-11.3559E-12	197.687E-3	-29.8156E-3	-11.5315E-12	141.862E-3	-26.5185E-3
-652.826E-6	-11.5347E-12	171.503E-3	-30.1111E-3	-11.4020E-12	141.240E-3	-24.6426E-3
-657.829E-6	-11.6593E-12	151.289E-3	-24.4457E-3	-11.4175E-12	144.617E-3	-28.1636E-3
-662.831E-6	-11.6307E-12	145.814E-3	-26.1246E-3	-11.6227E-12	136.845E-3	-18.6543E-3
-667.834E-6	-11.6481E-12	148.386E-3	-22.2744E-3	-11.6333E-12	123.195E-3	-12.4012E-3
-672.836E-6	-11.7683E-12	147.560E-3	-15.0062E-3	-11.6051E-12	123.599E-3	-24.6966E-3
-677.839E-6	-11.7744E-12	139.486E-3	-17.7781E-3	-11.6526E-12	131.365E-3	-30.9461E-3
-682.841E-6	-11.7516E-12	131.782E-3	-12.3494E-3	-11.7996E-12	128.254E-3	-24.4544E-3
-687.844E-6	-11.8831E-12	120.939E-3	836.644E-6	-11.8037E-12	106.712E-3	-28.2943E-3
-692.846E-6	-11.9021E-12	110.271E-3	-6.77195E-3	-11.6946E-12	88.8712E-3	-29.0490E-3
-697.849E-6	-11.8943E-12	112.951E-3	-23.6684E-3	-11.8099E-12	104.191E-3	-30.7644E-3
-702.851E-6	-11.8243E-12	119.677E-3	-27.8743E-3	-11.9573E-12	121.536E-3	-39.5602E-3
-707.854E-6	-12.0745E-12	119.969E-3	-24.5968E-3	-11.9557E-12	112.250E-3	-27.6630E-3
-712.856E-6	-12.1222E-12	121.131E-3	-21.2329E-3	-11.9747E-12	103.816E-3	-12.5469E-3
-717.859E-6	-12.1550E-12	114.511E-3	-18.5908E-3	-12.1691E-12	96.3928E-3	-15.5270E-3
-722.861E-6	-12.1278E-12	99.6567E-3	-24.8706E-3	-12.1693E-12	81.3720E-3	-7.49100E-3
-727.864E-6	-12.3183E-12	91.6033E-3	-29.4828E-3	-12.1978E-12	79.5475E-3	5.42388E-3
-732.866E-6	-12.4710E-12	91.6910E-3	-18.3769E-3	-12.2218E-12	88.1704E-3	-3.40422E-3
-737.869E-6	-12.3070E-12	92.0203E-3	-11.8285E-3	-12.3142E-12	92.6727E-3	-12.1133E-3
-742.871E-6	-12.3831E-12	84.4993E-3	-10.1646E-3	-12.3201E-12	93.7365E-3	-14.4339E-3
-747.874E-6	-12.4285E-12	75.0592E-3	-5.86809E-3	-12.3093E-12	88.9840E-3	-25.2540E-3
-752.876E-6	-12.5876E-12	79.1620E-3	-8.83118E-3	-12.3152E-12	81.1492E-3	-33.8397E-3
-757.879E-6	-12.4309E-12	94.1250E-3	-5.13012E-3	-12.4652E-12	87.3125E-3	-27.4088E-3
-762.881E-6	-12.2733E-12	101.467E-3	1.34603E-3	-12.5249E-12	97.8305E-3	-16.7806E-3
-767.884E-6	-12.3780E-12	105.291E-3	-5.95977E-3	-12.4112E-12	91.5284E-3	-13.9105E-3
-772.886E-6	-12.4120E-12	106.832E-3	-18.8902E-3	-12.5126E-12	88.2156E-3	-11.3991E-3
-777.889E-6	-12.3929E-12	101.948E-3	-26.5865E-3	-12.5573E-12	99.2991E-3	-11.7811E-3
-782.891E-6	-12.3052E-12	93.2549E-3	-29.3775E-3	-12.5799E-12	96.8017E-3	-19.2602E-3
-787.894E-6	-12.3892E-12	83.1880E-3	-25.9983E-3	-12.4701E-12	86.6173E-3	-23.5232E-3
-792.896E-6	-12.4523E-12	76.9861E-3	-12.0396E-3	-12.5139E-12	85.8763E-3	-28.8606E-3
-797.899E-6	-12.4095E-12	78.1457E-3	-3.30827E-3	-12.7760E-12	77.1033E-3	-31.2994E-3
-802.901E-6	-12.5039E-12	85.1308E-3	-4.10216E-3	-12.7396E-12	72.6049E-3	-22.0534E-3
-807.904E-6	-12.6504E-12	80.3127E-3	-6.62481E-3	-12.7357E-12	85.8445E-3	-17.4414E-3
-812.906E-6	-12.7123E-12	73.3966E-3	-8.66345E-3	-12.7506E-12	92.1304E-3	-12.5859E-3
-817.909E-6	-12.6651E-12	85.4180E-3	-3.03188E-3	-12.9290E-12	93.4024E-3	-3.27427E-3
-822.911E-6	-12.8767E-12	90.0391E-3	1.32244E-3	-12.9067E-12	89.8240E-3	-8.07548E-3
-827.914E-6	-13.0235E-12	84.7596E-3	-14.7872E-3	-12.8844E-12	68.2293E-3	-22.8009E-3
-832.916E-6	-12.9607E-12	87.5735E-3	-38.2509E-3	-12.9754E-12	60.4299E-3	-23.7891E-3
-837.919E-6	-12.9175E-12	82.1504E-3	-30.5823E-3	-12.9347E-12	73.4074E-3	-13.5283E-3
-842.921E-6	-13.1105E-12	77.5088E-3	-11.3237E-3	-13.0736E-12	72.4564E-3	-10.8158E-3
-847.924E-6	-13.0915E-12	84.9754E-3	-15.6377E-3	-12.9698E-12	70.6945E-3	-20.5351E-3
-852.926E-6	-12.8327E-12	81.1662E-3	-19.2052E-3	-13.1580E-12	83.0747E-3	-35.0019E-3
-857.929E-6	-12.8691E-12	67.5517E-3	-15.3657E-3	-13.1131E-12	86.0962E-3	-39.5346E-3
-862.931E-6	-13.0500E-12	72.3944E-3	-10.9631E-3	-13.0821E-12	78.7456E-3	-30.5282E-3
-867.934E-6	-13.0211E-12	94.1276E-3	201.616E-6	-13.0483E-12	70.9612E-3	-19.3371E-3
-872.936E-6	-12.8202E-12	99.3625E-3	7.01043E-3	-13.1970E-12	67.0956E-3	-18.8909E-3
-877.939E-6	-12.8151E-12	85.5637E-3	-3.81072E-3	-13.2658E-12	74.4474E-3	-11.0067E-3
-882.941E-6	-13.0203E-12	79.0933E-3	-17.1603E-3	-13.1664E-12	88.0750E-3	-310.756E-6
-887.944E-6	-13.1030E-12	82.3901E-3	-12.1275E-3	-13.1166E-12	95.2895E-3	-10.0744E-3
-892.946E-6	-13.0004E-12	94.8097E-3	-906.799E-6	-13.2971E-12	95.4460E-3	-13.5581E-3
-897.949E-6	-12.9511E-12	105.688E-3	-3.53578E-3	-13.3511E-12	93.8065E-3	-7.32050E-3
-902.951E-6	-13.2836E-12	94.0915E-3	-18.0324E-3	-13.2450E-12	87.0707E-3	-13.4818E-3
-907.954E-6	-13.3172E-12	79.1667E-3	-25.5694E-3	-13.2100E-12	86.4684E-3	-20.7196E-3
-912.956E-6	-13.2884E-12	84.3605E-3	-22.9198E-3	-13.3778E-12	87.0865E-3	-29.7303E-3
-917.959E-6	-13.3508E-12	93.9634E-3	-20.2140E-3	-13.3741E-12	69.6768E-3	-32.5544E-3
-922.961E-6	-13.5276E-12	89.6354E-3	-20.6718E-3	-13.3094E-12	67.2191E-3	-6.62803E-3
-927.964E-6	-13.6406E-12	76.1919E-3	-22.4289E-3	-13.3534E-12	89.9461E-3	12.7889E-3
-932.966E-6	-13.5326E-12	74.8410E-3	-23.9247E-3	-13.4938E-12	106.767E-3	-1.14832E-3
-937.969E-6	-13.6453E-12	92.5748E-3	-21.1088E-3	-13.5435E-12	116.172E-3	-13.4510E-3
-942.971E-6	-13.6593E-12	104.376E-3	-12.2818E-3	-13.4317E-12	127.959E-3	-12.0380E-3
-947.974E-6	-13.6284E-12	102.724E-3	-3.95769E-3	-13.4842E-12	132.819E-3	-18.0988E-3
-952.976E-6	-13.6133E-12	110.608E-3	1.89492E-3	-13.5602E-12	125.363E-3	-29.8464E-3
-957.979E-6	-13.6418E-12	121.813E-3	-1.11422E-3	-13.5931E-12	129.975E-3	-33.9121E-3
-962.981E-6	-13.6531E-12	114.327E-3	-12.6154E-3	-13.6233E-12	142.824E-3	-31.2679E-3
-967.984E-6	-13.5859E-12	107.109E-3	-27.0761E-3	-13.6574E-12	129.545E-3	-21.8106E-3
-972.986E-6	-13.6840E-12	111.618E-3	-25.0145E-3	-13.7218E-12	118.855E-3	-14.3241E-3
-977.989E-6	-13.7375E-12	117.026E-3	-8.75360E-3	-13.6779E-12	136.698E-3	-17.8011E-3
-982.991E-6	-13.8760E-12	119.089E-3	-5.04105E-3	-13.7152E-12	147.243E-3	-18.8587E-3
-987.994E-6	-13.7979E-12	113.184E-3	-3.05758E-3	-13.8530E-12	151.455E-3	-15.0296E-3
-992.997E-6	-13.8517E-12	108.446E-3	-7.63760E-3	-13.8549E-12	159.318E-3	-17.7083E-3
-997.999E-6	-14.0893E-12	118.009E-3	-19.5358E-3	-13.8486E-12	153.071E-3	-17.9148E-3
-1.00300E-3	-14.1324E-12	130.726E-3	-20.8218E-3	-13.8847E-12	148.174E-3	-13.8255E-3
-1.00800E-3	-14.0540E-12	141.986E-3	-21.5387E-3	-14.0406E-12	161.676E-3	-24.4765E-3
-1.01301E-3	-14.0451E-12	145.463E-3	-27.3510E-3	-14.1280E-12	171.626E-3	-30.9279E-3
-1.01801E-3	-14.2860E-12	136.611E-3	-22.7776E-3	-14.0757E-12	171.258E-3	-7.10034E-3
-1.02301E-3	-14.4188E-12	127.303E-3	-4.95538E-3	-14.1190E-12	171.952E-3	16.3458E-3
-1.02801E-3	-14.2684E-12	126.812E-3	-83.5229E-6	-14.3992E-12	173.953E-3	16.5788E-3
-1.03302E-3	-14.2829E-12	140.177E-3	-6.46611E-3	-14.5051E-12	179.749E-3	6.69660E-3
-1.03802E-3	-14.3307E-12	154.995E-3	-9.95563E-3	-14.4380E-12	183.575E-3	-733.756E-6
-1.04302E-3	-14.4309E-12	165.551E-3	-16.9734E-3	-14.5189E-12	191.053E-3	-6.23180E-3
-1.04802E-3	-14.3845E-12	180.072E-3	-13.8947E-3	-14.8572E-12	210.220E-3	-8.64368E-3
-1.05303E-3	-14.4187E-12	192.711E-3	481.489E-6	-14.8997E-12	223.770E-3	-12.2548E-3
-1.05803E-3	-14.6163E-12	199.925E-3	-3.87661E-3	-14.8057E-12	221.877E-3	-18.4399E-3
-1.06303E-3	-14.6662E-12	201.807E-3	-16.2923E-3	-14.9687E-12	222.896E-3	-11.0801E-3
-1.06803E-3	-14.7173E-12	194.256E-3	-13.8775E-3	-15.1309E-12	241.134E-3	-10.9615E-3
-1.07304E-3	-14.8016E-12	194.961E-3	-8.13360E-3	-15.1068E-12	251.786E-3	-23.0493E-3
-1.07804E-3	-14.9933E-12	211.229E-3	-6.50515E-3	-15.0095E-12	247.222E-3	-23.9839E-3
-1.08304E-3	-15.0140E-12	220.037E-3	-14.9427E-3	-15.0525E-12	253.759E-3	-32.0697E-3
-1.08804E-3	-15.1000E-12	227.541E-3	-26.4733E-3	-15.2504E-12	262.325E-3	-44.0253E-3
-1.09305E-3	-15.2739E-12	250.482E-3	-22.6148E-3	-15.2223E-12	273.497E-3	-34.5716E-3
-1.09805E-3	-15.4020E-12	262.910E-3	-13.7240E-3	-15.1775E-12	299.499E-3	-20.9430E-3
-1.10305E-3	-15.4167E-12	259.435E-3	-26.3911E-3	-15.2899E-12	314.471E-3	-17.3348E-3
-1.10805E-3	-15.4085E-12	263.898E-3	-32.3136E-3	-15.4546E-12	314.779E-3	-4.54533E-3
-1.11306E-3	-15.6409E-12	273.741E-3	-15.5978E-3	-15.5445E-12	324.778E-3	2.47813E-3
-1.11806E-3	-15.7248E-12	272.541E-3	-11.7887E-3	-15.5927E-12	342.101E-3	-16.5732E-3
-1.12306E-3	-15.7185E-12	275.845E-3	-20.6320E-3	-15.9162E-12	359.084E-3	-20.5874E-3
-1.12806E-3	-15.7208E-12	284.654E-3	-23.2150E-3	-16.0300E-12	374.721E-3	-7.91124E-3
-1.13307E-3	-16.0146E-12	294.219E-3	-18.4809E-3	-16.0865E-12	376.981E-3	-13.5830E-3
-1.13807E-3	-16.1601E-12	324.615E-3	-11.0854E-3	-16.2638E-12	370.046E-3	-21.0871E-3
-1.14307E-3	-16.1237E-12	350.242E-3	410.069E-6	-16.4558E-12	379.383E-3	-21.4718E-3
-1.14807E-3	-16.2329E-12	351.430E-3	2.76675E-3	-16.6079E-12	397.178E-3	-23.4361E-3
-1.15308E-3	-16.5759E-12	361.882E-3	-7.29833E-3	-16.6263E-12	413.942E-3	-18.5100E-3
-1.15808E-3	-16.8176E-12	382.258E-3	-13.6126E-3	-16.7381E-12	435.772E-3	-15.6752E-3
-1.16308E-3	-16.7807E-12	392.649E-3	-11.5076E-3	-16.9442E-12	443.597E-3	-19.5393E-3
-1.16808E-3	-16.9499E-12	401.193E-3	-7.32581E-3	-17.1744E-12	445.487E-3	-16.6531E-3
-1.17309E-3	-17.2499E-12	408.913E-3	-11.3879E-3	-17.0912E-12	464.723E-3	-10.7714E-3
-1.17809E-3	-17.4392E-12	413.804E-3	-16.8753E-3	-17.2788E-12	487.538E-3	-9.62305E-3
-1.18309E-3	-17.4256E-12	428.136E-3	-11.9055E-3	-17.4825E-12	505.027E-3	-10.1501E-3
-1.18809E-3	-17.6263E-12	445.802E-3	-1.95714E-3	-17.5961E-12	527.526E-3	-6.75079E-3
-1.19310E-3	-17.7102E-12	452.477E-3	-3.31313E-3	-17.6664E-12	544.404E-3	-3.89337E-3
-1.19810E-3	-17.7743E-12	461.727E-3	-12.3827E-3	-17.8123E-12	553.134E-3	-8.08013E-3
-1.20310E-3	-17.7601E-12	482.215E-3	-11.5672E-3	-18.1392E-12	573.591E-3	-10.2971E-3
-1.20810E-3	-17.9430E-12	495.697E-3	-8.64204E-3	-18.3041E-12	587.602E-3	-14.6496E-3
-1.21311E-3	-18.2341E-12	500.122E-3	-14.7078E-3	-18.4106E-12	593.673E-3	-24.3413E-3
-1.21811E-3	-18.2426E-12	516.042E-3	-16.1704E-3	-18.6846E-12	623.363E-3	-20.7279E-3
-1.22311E-3	-18.4234E-12	542.053E-3	-15.9687E-3	-19.0327E-12	654.727E-3	-14.1149E-3
-1.22811E-3	-18.7104E-12	563.696E-3	-15.4679E-3	-19.1399E-12	664.867E-3	-8.78579E-3
-1.23312E-3	-19.1197E-12	584.360E-3	-5.36220E-3	-19.3096E-12	673.703E-3	-4.68368E-3
-1.23812E-3	-19.1365E-12	610.047E-3	3.12045E-3	-19.6294E-12	689.985E-3	-2.38372E-3
-1.24312E-3	-19.4753E-12	634.512E-3	-2.89770E-3	-19.9742E-12	707.886E-3	4.78367E-3
-1.24812E-3	-19.8827E-12	645.804E-3	-3.42283E-3	-19.9636E-12	728.248E-3	1.16909E-3
-1.25313E-3	-20.2038E-12	641.585E-3	6.62036E-3	-20.1142E-12	746.246E-3	-14.1492E-3
-1.25813E-3	-20.2981E-12	644.414E-3	-5.09895E-3	-20.4168E-12	752.920E-3	-22.8264E-3
-1.26313E-3	-20.5102E-12	671.667E-3	-19.7844E-3	-20.6854E-12	765.092E-3	-21.0199E-3
-1.26813E-3	-20.8767E-12	705.134E-3	-18.3960E-3	-20.7410E-12	781.142E-3	-20.9878E-3
-1.27314E-3	-21.1867E-12	726.119E-3	-23.7760E-3	-20.9685E-12	780.957E-3	-21.2558E-3
-1.27814E-3	-21.2000E-12	745.755E-3	-27.1172E-3	-21.4827E-12	797.344E-3	-8.19817E-3
-1.28314E-3	-21.4275E-12	768.839E-3	-19.5233E-3	-21.6597E-12	827.711E-3	3.40250E-3
-1.28814E-3	-21.8304E-12	777.935E-3	-20.3714E-3	-21.6995E-12	833.819E-3	-2.38421E-3
-1.29315E-3	-22.0176E-12	781.735E-3	-28.4338E-3	-21.9735E-12	843.903E-3	-8.99412E-3
-1.29815E-3	-22.0932E-12	796.124E-3	-26.3791E-3	-22.4187E-12	869.115E-3	-17.2236E-3
-1.30315E-3	-22.2499E-12	807.993E-3	-16.6029E-3	-22.7453E-12	883.686E-3	-32.0070E-3
-1.30815E-3	-22.6969E-12	816.207E-3	-7.31396E-3	-22.7993E-12	899.755E-3	-25.7377E-3
-1.31316E-3	-23.0458E-12	827.014E-3	-3.93472E-3	-23.2539E-12	924.361E-3	-6.22208E-3
-1.31816E-3	-23.2276E-12	839.243E-3	-11.7212E-3	-23.7314E-12	933.576E-3	-5.85965E-3
-1.32316E-3	-23.5658E-12	869.231E-3	-23.8925E-3	-23.9935E-12	945.106E-3	-14.1130E-3
-1.32816E-3	-24.1116E-12	902.619E-3	-29.4434E-3	-24.1093E-12	975.435E-3	-14.9188E-3
-1.33317E-3	-24.5351E-12	912.037E-3	-33.3867E-3	-24.4711E-12	991.176E-3	-9.26608E-3
-1.33817E-3	-24.7744E-12	918.021E-3	-34.6866E-3	-24.9304E-12	986.303E-3	4.63627E-3
-1.34317E-3	-25.2961E-12	928.234E-3	-22.7140E-3	-25.1487E-12	993.057E-3	11.1973E-3
-1.34817E-3	-25.6849E-12	941.326E-3	-13.7458E-3	-25.1849E-12	1.01832E+0	233.399E-6
-1.35318E-3	-25.8987E-12	970.046E-3	-15.9437E-3	-25.6762E-12	1.03808E+0	-5.79819E-3
-1.35818E-3	-26.2228E-12	1.00002E+0	-13.0138E-3	-26.1704E-12	1.04825E+0	-3.35753E-3
-1.36318E-3	-26.8241E-12	1.01962E+0	-4.97378E-3	-26.5795E-12	1.05615E+0	-7.54372E-3
-1.36818E-3	-27.2627E-12	1.03221E+0	-3.16537E-3	-26.8214E-12	1.05964E+0	-15.1407E-3
-1.37319E-3	-27.3638E-12	1.04201E+0	-1.97615E-3	-27.4330E-12	1.07264E+0	-23.5120E-3
-1.37819E-3	-27.5364E-12	1.05247E+0	-11.9950E-3	-27.8611E-12	1.09335E+0	-28.1344E-3
-1.38319E-3	-27.9158E-12	1.05067E+0	-37.4731E-3	-27.9645E-12	1.10799E+0	-21.4805E-3
-1.38819E-3	-28.2487E-12	1.04623E+0	-36.5519E-3	-28.2975E-12	1.12241E+0	-19.5892E-3
-1.39320E-3	-28.3879E-12	1.05658E+0	-13.4057E-3	-28.8791E-12	1.12568E+0	-27.8328E-3
-1.39820E-3	-28.6006E-12	1.07804E+0	-8.17741E-3	-29.2592E-12	1.11531E+0	-20.6713E-3
-1.40320E-3	-29.1438E-12	1.09178E+0	-18.4959E-3	-29.3833E-12	1.11938E+0	-4.53913E-3
-1.40820E-3	-29.7688E-12	1.08188E+0	-34.9757E-3	-29.8143E-12	1.12706E+0	1.55125E-3
-1.41321E-3	-29.9989E-12	1.08066E+0	-36.7699E-3	-30.3136E-12	1.13565E+0	7.53728E-3
-1.41821E-3	-30.2275E-12	1.10655E+0	-14.0183E-3	-30.6490E-12	1.15966E+0	2.46230E-3
-1.42321E-3	-30.7727E-12	1.12985E+0	-2.11728E-3	-30.8293E-12	1.17295E+0	-20.4428E-3
-1.42821E-3	-31.2887E-12	1.13430E+0	-3.99962E-3	-31.1692E-12	1.17570E+0	-32.9548E-3
-1.43322E-3	-31.4052E-12	1.13232E+0	-6.41848E-3	-31.8096E-12	1.18307E+0	-28.1569E-3
-1.43822E-3	-31.8219E-12	1.13212E+0	-9.59578E-3	-32.1688E-12	1.18403E+0	-17.4870E-3
-1.44322E-3	-32.4179E-12	1.13610E+0	1.59773E-3	-32.6001E-12	1.18211E+0	-5.27538E-3
-1.44822E-3	-32.8386E-12	1.15642E+0	18.1783E-3	-32.8118E-12	1.18721E+0	-6.26530E-3
-1.45323E-3	-32.9752E-12	1.18391E+0	6.40470E-3	-33.4738E-12	1.18841E+0	-11.0573E-3
-1.45823E-3	-33.4121E-12	1.19330E+0	-15.8002E-3	-33.9246E-12	1.18636E+0	-7.24050E-3
-1.46323E-3	-33.9995E-12	1.17573E+0	-5.56196E-3	-34.3381E-12	1.19784E+0	-9.54063E-3
-1.46823E-3	-34.1473E-12	1.15993E+0	15.5171E-3	-34.8077E-12	1.20961E+0	-25.8111E-3
-1.47324E-3	-34.3280E-12	1.17579E+0	17.7916E-3	-35.2578E-12	1.19521E+0	-41.2218E-3
-1.47824E-3	-34.8106E-12	1.19512E+0	16.4573E-3	-35.5725E-12	1.18089E+0	-35.5420E-3
-1.48324E-3	-35.2884E-12	1.18148E+0	4.23978E-3	-35.9521E-12	1.17512E+0	-30.5993E-3
-1.48824E-3	-35.7598E-12	1.16455E+0	-21.6340E-3	-36.3261E-12	1.17473E+0	-27.9197E-3
-1.49325E-3	-35.9197E-12	1.17321E+0	-27.9498E-3	-36.7111E-12	1.19524E+0	-15.8940E-3
-1.49825E-3	-36.6885E-12	1.17932E+0	-18.3372E-3	-36.8993E-12	1.20335E+0	-17.7614E-3
-1.50325E-3	-37.2901E-12	1.17666E+0	-14.8901E-3	-37.3248E-12	1.18723E+0	-25.2211E-3
-1.50825E-3	-37.6947E-12	1.17301E+0	-17.7236E-3	-37.5794E-12	1.18287E+0	-25.0939E-3
-1.51326E-3	-37.8214E-12	1.16355E+0	-24.5074E-3	-38.0338E-12	1.18991E+0	-22.4941E-3
-1.51826E-3	-38.4825E-12	1.15991E+0	-28.2748E-3	-38.2345E-12	1.18107E+0	-11.9703E-3
-1.52326E-3	-38.9563E-12	1.16666E+0	-17.8489E-3	-38.4651E-12	1.17696E+0	2.98818E-3
-1.52826E-3	-38.9841E-12	1.17693E+0	4.52201E-3	-38.8782E-12	1.17983E+0	-3.07927E-3
-1.53327E-3	-39.0789E-12	1.18453E+0	8.45625E-3	-39.2626E-12	1.16756E+0	-16.1032E-3
-1.53827E-3	-39.8918E-12	1.18512E+0	-4.09061E-3	-39.4943E-12	1.16583E+0	-10.2048E-3
-1.54327E-3	-40.2784E-12	1.17306E+0	-4.48939E-3	-39.7457E-12	1.18206E+0	-12.9498E-3
-1.54827E-3	-40.3263E-12	1.16313E+0	-880.851E-6	-40.5091E-12	1.18842E+0	-23.5139E-3
-1.55328E-3	-40.5917E-12	1.17432E+0	-2.74513E-3	-41.0133E-12	1.17317E+0	-15.6231E-3
-1.55828E-3	-41.4361E-12	1.18374E+0	-6.23698E-3	-41.3607E-12	1.15199E+0	-7.35061E-3
-1.56328E-3	-41.8284E-12	1.17935E+0	-16.5237E-3	-41.7820E-12	1.14574E+0	-11.9864E-3
-1.56828E-3	-42.0098E-12	1.17125E+0	-21.2995E-3	-42.3833E-12	1.15180E+0	-12.0742E-3
-1.57329E-3	-42.3740E-12	1.15958E+0	-16.8249E-3	-42.6850E-12	1.15106E+0	-11.5785E-3
-1.57829E-3	-43.1429E-12	1.16018E+0	-20.0160E-3	-42.8675E-12	1.12599E+0	-12.9753E-3
-1.58329E-3	-43.5980E-12	1.17075E+0	-20.0975E-3	-43.1553E-12	1.10772E+0	-14.2817E-3
-1.58829E-3	-43.8846E-12	1.16287E+0	-20.7135E-3	-43.7345E-12	1.11608E+0	-26.1279E-3
-1.59330E-3	-44.3134E-12	1.14240E+0	-33.4727E-3	-43.9586E-12	1.11082E+0	-23.3753E-3
-1.59830E-3	-44.9158E-12	1.13794E+0	-44.2810E-3	-44.1310E-12	1.10122E+0	-8.05329E-3
-1.60330E-3	-45.2787E-12	1.13983E+0	-38.7056E-3	-44.3950E-12	1.10474E+0	-21.5094E-3
-1.60830E-3	-45.3003E-12	1.13483E+0	-18.9118E-3	-44.7602E-12	1.09994E+0	-41.8553E-3
-1.61331E-3	-45.7236E-12	1.13917E+0	-5.73800E-3	-44.9705E-12	1.09328E+0	-42.4450E-3
-1.61831E-3	-46.0229E-12	1.14007E+0	-14.7150E-3	-45.3613E-12	1.09220E+0	-45.9204E-3
-1.62331E-3	-46.0837E-12	1.12110E+0	-25.9674E-3	-45.7972E-12	1.07793E+0	-42.3503E-3
-1.62831E-3	-46.2734E-12	1.10920E+0	-16.7758E-3	-46.2425E-12	1.06793E+0	-20.3074E-3
-1.63332E-3	-46.7377E-12	1.11051E+0	-4.20729E-3	-46.6711E-12	1.08005E+0	-11.9867E-3
-1.63832E-3	-46.9302E-12	1.10486E+0	-679.914E-6	-47.1918E-12	1.07715E+0	-15.3371E-3
-1.64332E-3	-47.1669E-12	1.09702E+0	-1.74819E-3	-47.8047E-12	1.06387E+0	-9.85610E-3
-1.64832E-3	-47.4438E-12	1.08447E+0	-5.19824E-3	-48.3714E-12	1.06962E+0	-3.89481E-3
-1.65333E-3	-48.1647E-12	1.06758E+0	-6.80073E-3	-48.7029E-12	1.06766E+0	1.44203E-3
-1.65833E-3	-48.7026E-12	1.06400E+0	-16.7487E-3	-49.2152E-12	1.06411E+0	13.5235E-3
-1.66333E-3	-48.8201E-12	1.06634E+0	-23.2126E-3	-49.7728E-12	1.06868E+0	17.2674E-3
-1.66833E-3	-49.1564E-12	1.06173E+0	-16.8620E-3	-50.3195E-12	1.05421E+0	3.92966E-3
-1.67334E-3	-49.8079E-12	1.05407E+0	-16.2815E-3	-50.4173E-12	1.03901E+0	-3.29054E-3
-1.67834E-3	-50.2134E-12	1.05219E+0	-13.4149E-3	-50.5465E-12	1.04757E+0	1.77734E-3
-1.68334E-3	-50.3915E-12	1.05913E+0	-8.05724E-3	-51.1976E-12	1.05024E+0	1.11067E-3
-1.68834E-3	-50.6973E-12	1.06608E+0	-14.0730E-3	-51.3342E-12	1.02941E+0	-674.682E-6
-1.69335E-3	-51.1873E-12	1.05814E+0	-26.9600E-3	-51.2680E-12	1.01698E+0	-6.53451E-3
-1.69835E-3	-51.7928E-12	1.03447E+0	-33.9055E-3	-51.5191E-12	1.01129E+0	-15.3460E-3
-1.70335E-3	-51.9869E-12	1.01070E+0	-19.8957E-3	-51.8354E-12	995.865E-3	-7.94042E-3
-1.70835E-3	-52.1111E-12	1.00525E+0	1.41367E-3	-52.2067E-12	987.586E-3	1.95649E-3
-1.71336E-3	-52.3891E-12	1.00931E+0	-997.558E-6	-52.0685E-12	984.825E-3	1.03217E-3
-1.71836E-3	-52.9737E-12	999.072E-3	-11.8040E-3	-52.3774E-12	983.469E-3	-2.58671E-3
-1.72336E-3	-52.9638E-12	1.00048E+0	-13.0755E-3	-52.7714E-12	987.630E-3	-12.1656E-3
-1.72836E-3	-53.2139E-12	1.01406E+0	-11.1849E-3	-53.2669E-12	986.293E-3	-28.4317E-3
-1.73337E-3	-53.7203E-12	1.00587E+0	-2.13408E-3	-53.4993E-12	986.030E-3	-32.3676E-3
-1.73837E-3	-54.0080E-12	986.204E-3	7.26672E-3	-54.1476E-12	991.380E-3	-24.9889E-3
-1.74337E-3	-54.0196E-12	972.611E-3	-3.01548E-3	-54.5239E-12	979.214E-3	-13.5488E-3
-1.74837E-3	-54.6346E-12	970.167E-3	-25.7260E-3	-54.8678E-12	961.897E-3	-3.96117E-3
-1.75338E-3	-55.1854E-12	961.621E-3	-25.7812E-3	-55.3271E-12	969.228E-3	-16.8812E-3
-1.75838E-3	-55.4316E-12	959.134E-3	-5.01275E-3	-55.7290E-12	973.662E-3	-43.9840E-3
-1.76338E-3	-55.7977E-12	980.561E-3	2.45944E-3	-56.1751E-12	954.581E-3	-41.7415E-3
-1.76838E-3	-56.5087E-12	985.775E-3	-4.31614E-3	-56.5297E-12	936.565E-3	-14.1969E-3
-1.77339E-3	-56.7995E-12	976.424E-3	-11.1803E-3	-56.7703E-12	931.854E-3	-13.8769E-3
-1.77839E-3	-57.1885E-12	970.495E-3	-22.9976E-3	-56.9405E-12	934.171E-3	-18.0453E-3
-1.78339E-3	-57.2335E-12	953.949E-3	-20.7563E-3	-57.2974E-12	939.120E-3	3.06958E-3
-1.78839E-3	-57.7314E-12	935.522E-3	-9.31411E-3	-57.2969E-12	934.817E-3	4.25596E-3
-1.79340E-3	-57.9668E-12	931.633E-3	-26.7698E-3	-57.5700E-12	916.720E-3	-22.9913E-3
-1.79840E-3	-58.1553E-12	937.376E-3	-46.4832E-3	-58.0656E-12	905.705E-3	-33.1378E-3
-1.80340E-3	-58.1919E-12	929.645E-3	-39.8475E-3	-58.3948E-12	905.990E-3	-22.1983E-3
-1.80840E-3	-58.6057E-12	921.314E-3	-29.1936E-3	-58.4331E-12	896.964E-3	-14.0478E-3
-1.81341E-3	-59.1858E-12	939.253E-3	-17.7712E-3	-58.6642E-12	890.248E-3	-9.70286E-3
-1.81841E-3	-59.2742E-12	939.000E-3	-8.24330E-3	-58.9600E-12	893.874E-3	-18.3492E-3
-1.82341E-3	-59.2624E-12	904.154E-3	-15.4856E-3	-59.3127E-12	886.100E-3	-27.7650E-3
-1.82841E-3	-59.6716E-12	884.596E-3	-24.7175E-3	-59.5886E-12	877.457E-3	-17.7825E-3
-1.83342E-3	-59.9535E-12	888.397E-3	-16.6937E-3	-59.8676E-12	881.220E-3	-19.6240E-3
-1.83842E-3	-60.1560E-12	892.045E-3	-10.8657E-3	-60.4662E-12	879.062E-3	-28.1394E-3
-1.84342E-3	-60.2607E-12	892.987E-3	-23.6468E-3	-60.8309E-12	878.903E-3	-18.4589E-3
-1.84842E-3	-60.7245E-12	890.293E-3	-30.7399E-3	-61.0510E-12	886.237E-3	-23.9168E-3
-1.85343E-3	-61.0862E-12	878.647E-3	-31.4964E-3	-61.5871E-12	880.947E-3	-36.9404E-3
-1.85843E-3	-61.2813E-12	869.990E-3	-34.2120E-3	-61.9928E-12	876.784E-3	-24.6699E-3
-1.86343E-3	-61.7598E-12	876.455E-3	-26.8309E-3	-62.3976E-12	896.901E-3	-10.0651E-3
-1.86843E-3	-62.3270E-12	886.921E-3	-14.4762E-3	-62.6116E-12	911.924E-3	-14.0448E-3
-1.87344E-3	-62.7832E-12	887.106E-3	-6.82305E-3	-62.9702E-12	902.994E-3	-19.1866E-3
-1.87844E-3	-62.6845E-12	882.852E-3	-2.16140E-3	-63.5659E-12	894.162E-3	-17.8089E-3
-1.88344E-3	-63.1096E-12	881.317E-3	-8.07369E-3	-63.7781E-12	886.534E-3	-14.3129E-3
-1.88844E-3	-63.5071E-12	888.412E-3	-19.2376E-3	-64.0897E-12	879.300E-3	-2.49076E-3
-1.89345E-3	-63.5751E-12	894.139E-3	-17.4705E-3	-64.6050E-12	866.863E-3	6.18489E-3
-1.89845E-3	-63.5073E-12	874.862E-3	-19.1769E-3	-64.9078E-12	845.345E-3	1.71866E-3
-1.90345E-3	-64.2029E-12	854.206E-3	-32.8170E-3	-65.3884E-12	845.759E-3	1.98022E-3
-1.90845E-3	-64.7573E-12	855.677E-3	-28.3572E-3	-65.3240E-12	864.178E-3	-4.93091E-3
-1.91346E-3	-64.7174E-12	859.578E-3	-2.07057E-3	-65.5890E-12	861.996E-3	-28.7541E-3
-1.91846E-3	-64.9829E-12	857.326E-3	7.36881E-3	-65.7287E-12	835.797E-3	-37.5826E-3
-1.92346E-3	-65.7326E-12	857.128E-3	-3.93167E-3	-65.7027E-12	827.725E-3	-28.2134E-3
-1.92846E-3	-66.1666E-12	859.947E-3	-10.4643E-3	-65.7447E-12	834.771E-3	-12.4328E-3
-1.93347E-3	-66.2764E-12	868.468E-3	-5.12983E-3	-66.0945E-12	831.227E-3	-2.11372E-3
-1.93847E-3	-66.3215E-12	881.434E-3	7.12012E-3	-66.0443E-12	833.489E-3	-4.66868E-3
-1.94347E-3	-66.9288E-12	886.282E-3	4.96154E-3	-65.7894E-12	838.584E-3	-20.8673E-3
-1.94847E-3	-67.4554E-12	876.161E-3	-15.1124E-3	-66.1648E-12	836.591E-3	-43.9270E-3
-1.95348E-3	-67.4509E-12	855.864E-3	-30.5581E-3	-66.3566E-12	831.833E-3	-47.6828E-3
-1.95848E-3	-67.5646E-12	843.071E-3	-28.6589E-3	-66.7260E-12	822.489E-3	-31.0800E-3
-1.96348E-3	-68.3097E-12	849.665E-3	-13.9667E-3	-66.8759E-12	818.158E-3	-11.6534E-3
-1.96848E-3	-68.4916E-12	844.675E-3	-3.53222E-3	-67.6448E-12	826.375E-3	-5.33624E-3
-1.97349E-3	-68.9559E-12	825.528E-3	-5.35074E-3	-67.8213E-12	812.554E-3	-25.5607E-3
-1.97849E-3	-69.1359E-12	818.996E-3	-5.06113E-3	-68.4359E-12	799.024E-3	-42.0532E-3
-1.98349E-3	-69.5645E-12	814.054E-3	-4.24209E-3	-68.9487E-12	829.861E-3	-37.1791E-3
-1.98849E-3	-69.5124E-12	817.137E-3	-22.6450E-3	-69.4787E-12	849.420E-3	-38.8690E-3
-1.99350E-3	-69.7295E-12	836.200E-3	-36.5688E-3	-70.2238E-12	829.189E-3	-39.0870E-3
-1.99850E-3	-69.9161E-12	856.112E-3	-32.6437E-3	-70.4485E-12	809.084E-3	-19.8639E-3
-2.00350E-3	-70.4102E-12	857.783E-3	-29.6895E-3	-70.4346E-12	793.721E-3	-13.1095E-3
-2.00850E-3	-70.4577E-12	830.868E-3	-23.6417E-3	-70.6719E-12	779.617E-3	-19.4063E-3
-2.01351E-3	-70.6619E-12	801.077E-3	-11.0516E-3	-71.2413E-12	792.522E-3	-16.3830E-3
-2.01851E-3	-71.0128E-12	791.562E-3	-8.99274E-3	-70.6023E-12	813.371E-3	-17.5136E-3
-2.02351E-3	-71.3680E-12	802.757E-3	-27.2368E-3	-70.7236E-12	813.413E-3	-19.5523E-3
-2.02851E-3	-71.5983E-12	811.016E-3	-47.1482E-3	-70.9827E-12	813.995E-3	-21.8155E-3
-2.03352E-3	-71.5485E-12	799.557E-3	-42.0198E-3	-71.4197E-12	808.820E-3	-37.9978E-3
-2.03852E-3	-71.9159E-12	786.910E-3	-26.0198E-3	-70.9886E-12	780.285E-3	-37.6869E-3
-2.04352E-3	-72.2274E-12	784.779E-3	-7.34365E-3	-71.4488E-12	777.653E-3	-13.9328E-3
-2.04852E-3	-71.9416E-12	799.482E-3	18.6179E-3	-71.5497E-12	805.182E-3	-15.7113E-3
-2.05353E-3	-71.9183E-12	816.360E-3	21.4651E-3	-71.8070E-12	810.389E-3	-19.6850E-3
-2.05853E-3	-72.6819E-12	816.502E-3	3.18008E-3	-72.1537E-12	809.411E-3	-7.70017E-3
-2.06353E-3	-72.8001E-12	806.171E-3	-10.5203E-3	-72.5504E-12	812.848E-3	-17.9019E-3
-2.06853E-3	-72.9473E-12	782.822E-3	-20.1576E-3	-73.1932E-12	806.820E-3	-19.8616E-3
-2.07354E-3	-73.2816E-12	768.733E-3	-29.9712E-3	-73.8857E-12	808.132E-3	-3.19278E-3
-2.07854E-3	-73.7055E-12	781.261E-3	-26.8896E-3	-74.6236E-12	809.824E-3	-11.6858E-3
-2.08354E-3	-74.0503E-12	793.417E-3	-12.0031E-3	-74.9762E-12	792.239E-3	-27.6237E-3
-2.08854E-3	-74.5156E-12	796.524E-3	-13.6040E-3	-75.6180E-12	779.384E-3	-15.9678E-3
-2.09355E-3	-74.5309E-12	792.415E-3	-26.9942E-3	-75.9085E-12	782.149E-3	-851.789E-6
-2.09855E-3	-74.9902E-12	774.746E-3	-24.0021E-3	-76.2638E-12	784.690E-3	-7.33559E-3
-2.10355E-3	-75.4885E-12	764.529E-3	-20.0954E-3	-76.4537E-12	792.562E-3	-10.6851E-3
-2.10855E-3	-75.4813E-12	773.900E-3	-27.7066E-3	-76.5345E-12	800.528E-3	-12.8937E-3
-2.11356E-3	-75.7676E-12	782.359E-3	-31.0828E-3	-76.4786E-12	787.066E-3	-17.2412E-3
-2.11856E-3	-76.1496E-12	780.174E-3	-26.7081E-3	-76.2296E-12	771.444E-3	-7.38150E-3
-2.12356E-3	-76.3543E-12	771.324E-3	-19.6594E-3	-76.3765E-12	774.991E-3	-9.07921E-3
-2.12856E-3	-76.5861E-12	770.060E-3	-18.6367E-3	-76.3479E-12	777.026E-3	-29.2537E-3
-2.13357E-3	-76.5744E-12	783.670E-3	-27.6859E-3	-76.3092E-12	779.588E-3	-34.9535E-3
-2.13857E-3	-76.4441E-12	790.395E-3	-34.0249E-3	-76.0762E-12	788.790E-3	-27.1914E-3
-2.14357E-3	-76.5092E-12	779.718E-3	-31.0640E-3	-76.5316E-12	781.198E-3	-22.5860E-3
-2.14857E-3	-76.5960E-12	766.408E-3	-29.0347E-3	-76.5971E-12	763.750E-3	-7.97873E-3
-2.15358E-3	-76.5837E-12	762.720E-3	-13.8333E-3	-77.0303E-12	763.245E-3	-7.49287E-3
-2.15858E-3	-77.6423E-12	760.407E-3	2.58514E-3	-77.1970E-12	771.676E-3	-25.3395E-3
-2.16358E-3	-78.0149E-12	747.822E-3	-11.1335E-3	-77.9767E-12	778.232E-3	-23.2055E-3
-2.16858E-3	-78.1020E-12	731.863E-3	-24.6782E-3	-78.2528E-12	779.459E-3	-19.2754E-3
-2.17359E-3	-78.7156E-12	732.012E-3	-16.5044E-3	-78.5413E-12	770.627E-3	-24.0466E-3
-2.17859E-3	-79.3815E-12	753.123E-3	-5.89186E-3	-78.9632E-12	773.982E-3	-23.8092E-3
-2.18359E-3	-79.4813E-12	773.413E-3	-4.93027E-3	-79.6878E-12	781.894E-3	-24.9034E-3
-2.18859E-3	-79.7436E-12	771.756E-3	-21.3306E-3	-79.9760E-12	769.304E-3	-28.8657E-3
-2.19360E-3	-80.2267E-12	747.837E-3	-43.6799E-3	-79.8219E-12	758.772E-3	-24.6362E-3
-2.19860E-3	-80.8787E-12	737.771E-3	-25.9221E-3	-80.2532E-12	758.604E-3	-21.6269E-3
-2.20360E-3	-80.8173E-12	750.072E-3	4.48894E-3	-80.2150E-12	754.759E-3	-31.5925E-3
-2.20860E-3	-81.0018E-12	752.123E-3	-10.0587E-3	-80.3820E-12	748.307E-3	-38.3405E-3
-2.21361E-3	-81.1649E-12	751.716E-3	-34.8153E-3	-80.7348E-12	746.278E-3	-39.2726E-3
-2.21861E-3	-81.0832E-12	753.093E-3	-30.9394E-3	-81.2106E-12	749.809E-3	-28.7593E-3
-2.22361E-3	-80.8983E-12	744.698E-3	-15.2010E-3	-81.4231E-12	756.747E-3	-8.51420E-3
-2.22861E-3	-81.1907E-12	737.655E-3	-972.595E-6	-81.4518E-12	766.303E-3	-12.7069E-3
-2.23362E-3	-81.2886E-12	741.338E-3	2.86000E-3	-81.8601E-12	762.894E-3	-41.0586E-3
-2.23862E-3	-81.4971E-12	743.184E-3	-13.3893E-3	-82.2543E-12	755.135E-3	-51.7723E-3
-2.24362E-3	-81.5861E-12	735.525E-3	-25.2200E-3	-82.5583E-12	755.032E-3	-45.0759E-3
-2.24862E-3	-81.8025E-12	734.484E-3	-16.1723E-3	-82.3873E-12	740.000E-3	-38.3636E-3
-2.25363E-3	-82.5662E-12	742.199E-3	-10.8362E-3	-82.6659E-12	719.778E-3	-18.7555E-3
-2.25863E-3	-83.0111E-12	752.368E-3	-19.5405E-3	-83.2790E-12	728.145E-3	3.14727E-3
-2.26363E-3	-82.8762E-12	758.173E-3	-27.3727E-3	-83.5673E-12	750.382E-3	4.86148E-3
-2.26863E-3	-83.6460E-12	753.238E-3	-34.2381E-3	-83.5702E-12	753.221E-3	-6.45387E-3
-2.27364E-3	-84.5520E-12	742.839E-3	-29.9278E-3	-84.0124E-12	752.192E-3	-13.5879E-3
-2.27864E-3	-84.4646E-12	735.153E-3	-8.90267E-3	-84.1884E-12	746.434E-3	-10.1076E-3
-2.28364E-3	-84.6558E-12	742.652E-3	-5.82570E-3	-84.1389E-12	718.970E-3	-347.630E-6
-2.28864E-3	-85.6051E-12	758.035E-3	-17.8438E-3	-84.5278E-12	705.784E-3	5.39453E-3
-2.29365E-3	-85.7576E-12	760.116E-3	-9.20948E-3	-84.9813E-12	710.754E-3	-899.589E-6
-2.29865E-3	-85.6471E-12	760.107E-3	5.71224E-3	-84.9526E-12	725.381E-3	-15.2406E-3
-2.30365E-3	-85.8016E-12	760.187E-3	5.12390E-3	-85.1466E-12	753.155E-3	-26.8947E-3
-2.30865E-3	-86.3225E-12	738.284E-3	4.10888E-3	-85.6561E-12	759.947E-3	-25.9618E-3
-2.31366E-3	-85.9993E-12	723.632E-3	3.03828E-3	-85.7138E-12	760.021E-3	-7.16004E-3
-2.31866E-3	-86.1464E-12	736.751E-3	-9.99234E-3	-85.9428E-12	763.115E-3	4.79457E-3
-2.32366E-3	-86.3694E-12	734.284E-3	-17.1351E-3	-86.4312E-12	744.728E-3	-10.7716E-3
-2.32866E-3	-86.5342E-12	717.560E-3	-25.5106E-3	-86.5553E-12	733.817E-3	-19.6397E-3
-2.33367E-3	-86.7836E-12	720.880E-3	-37.5739E-3	-86.9564E-12	753.201E-3	-15.3420E-3
-2.33867E-3	-87.1594E-12	732.631E-3	-21.3318E-3	-87.2441E-12	769.490E-3	-20.9454E-3
-2.34367E-3	-87.4153E-12	735.053E-3	1.01768E-3	-87.2441E-12	758.082E-3	-23.7584E-3
-2.34867E-3	-87.3498E-12	742.353E-3	-3.29367E-3	-87.5081E-12	746.816E-3	-28.2823E-3
-2.35368E-3	-87.9316E-12	757.170E-3	-7.14595E-3	-87.6273E-12	736.076E-3	-38.8031E-3
-2.35868E-3	-87.9336E-12	763.971E-3	-4.89357E-3	-87.7792E-12	714.468E-3	-33.9553E-3
-2.36368E-3	-88.0108E-12	758.161E-3	-14.7615E-3	-87.8319E-12	722.418E-3	-19.3576E-3
-2.36868E-3	-88.1789E-12	740.652E-3	-18.0315E-3	-88.2834E-12	744.803E-3	-7.82521E-3
-2.37369E-3	-89.0626E-12	720.856E-3	-13.7199E-3	-88.2189E-12	738.230E-3	-1.04606E-3
-2.37869E-3	-88.9433E-12	726.391E-3	-23.3778E-3	-88.1150E-12	727.196E-3	-2.33168E-3
-2.38369E-3	-89.1198E-12	743.685E-3	-23.9387E-3	-88.3506E-12	730.388E-3	-15.0454E-3
-2.38869E-3	-89.6831E-12	742.340E-3	-14.8400E-3	-88.3856E-12	721.910E-3	-32.0999E-3
-2.39370E-3	-89.5239E-12	740.469E-3	-16.6172E-3	-88.8530E-12	709.699E-3	-27.6126E-3
-2.39870E-3	-89.6563E-12	738.112E-3	-21.3969E-3	-89.2081E-12	716.642E-3	-12.7556E-3
-2.40370E-3	-89.7631E-12	724.730E-3	-23.2108E-3	-89.7178E-12	715.961E-3	-11.6568E-3
-2.40870E-3	-90.0243E-12	724.793E-3	-17.8731E-3	-90.2384E-12	698.488E-3	-10.6296E-3
-2.41371E-3	-90.3260E-12	733.433E-3	-10.4257E-3	-90.8825E-12	697.664E-3	-13.1755E-3
-2.41871E-3	-90.8352E-12	728.213E-3	-16.8449E-3	-91.0903E-12	704.024E-3	-9.69639E-3
-2.42371E-3	-91.0187E-12	725.482E-3	-26.7833E-3	-91.3471E-12	706.300E-3	-1.37698E-3
-2.42871E-3	-91.3897E-12	728.245E-3	-14.0945E-3	-92.0199E-12	716.506E-3	-16.4886E-3
-2.43372E-3	-91.7679E-12	721.648E-3	8.73555E-3	-92.4387E-12	724.550E-3	-28.0102E-3
-2.43872E-3	-92.1635E-12	713.878E-3	4.31918E-3	-92.4263E-12	731.459E-3	-14.3341E-3
-2.44372E-3	-92.2496E-12	726.181E-3	-10.6840E-3	-92.7202E-12	728.536E-3	-7.36454E-3
-2.44872E-3	-92.6624E-12	742.680E-3	-1.55890E-3	-92.7637E-12	711.213E-3	-15.1163E-3
-2.45373E-3	-92.5599E-12	736.667E-3	-1.20374E-3	-92.7469E-12	712.642E-3	-13.8015E-3
-2.45873E-3	-92.2348E-12	728.660E-3	-11.9378E-3	-93.0680E-12	733.451E-3	-8.09050E-3
-2.46373E-3	-92.3806E-12	722.583E-3	-6.99501E-3	-92.9686E-12	738.474E-3	-11.8009E-3
-2.46873E-3	-92.5461E-12	702.774E-3	-23.9109E-3	-93.0965E-12	731.234E-3	-14.6471E-3
-2.47374E-3	-92.1851E-12	692.233E-3	-45.5431E-3	-93.5569E-12	728.715E-3	-15.4509E-3
-2.47874E-3	-92.3679E-12	697.589E-3	-29.4684E-3	-93.8902E-12	723.440E-3	-14.3313E-3
-2.48374E-3	-92.9561E-12	703.541E-3	-10.4432E-3	-93.8232E-12	708.755E-3	-11.3943E-3
-2.48874E-3	-93.2168E-12	709.106E-3	-11.3525E-3	-95.1821E-12	696.735E-3	-17.0582E-3
-2.49375E-3	-93.6041E-12	709.358E-3	-18.1222E-3	-95.3369E-12	699.863E-3	-23.3520E-3
-2.49875E-3	-93.8126E-12	704.433E-3	-24.9822E-3	-95.4950E-12	709.948E-3	-15.5493E-3
-2.50375E-3	-94.7294E-12	703.527E-3	-26.9765E-3	-95.9844E-12	723.597E-3	-6.25672E-3
-2.50875E-3	-95.4798E-12	701.431E-3	-15.1428E-3	-96.5193E-12	731.191E-3	-17.8388E-3
-2.51376E-3	-95.7831E-12	698.849E-3	3.90798E-3	-96.5888E-12	730.746E-3	-26.2938E-3
-2.51876E-3	-96.7927E-12	721.713E-3	-3.11947E-3	-97.0712E-12	738.870E-3	-22.7573E-3
-2.52376E-3	-97.6438E-12	745.471E-3	-31.5275E-3	-97.0308E-12	747.870E-3	-29.3817E-3
-2.52876E-3	-97.5608E-12	732.713E-3	-42.4106E-3	-97.0808E-12	743.379E-3	-29.7470E-3
-2.53377E-3	-97.9081E-12	723.838E-3	-38.4666E-3	-97.4716E-12	749.791E-3	-17.7263E-3
-2.53877E-3	-98.0965E-12	733.967E-3	-26.5274E-3	-97.4985E-12	755.798E-3	-18.0870E-3
-2.54377E-3	-98.0743E-12	725.011E-3	-14.6429E-3	-97.0291E-12	732.240E-3	-30.0721E-3
-2.54877E-3	-97.5290E-12	710.729E-3	-21.8261E-3	-96.9432E-12	705.117E-3	-32.8025E-3
-2.55378E-3	-97.6581E-12	713.479E-3	-29.2857E-3	-97.0607E-12	693.164E-3	-21.3935E-3
-2.55878E-3	-97.4199E-12	721.305E-3	-24.8895E-3	-97.1631E-12	696.091E-3	-7.60187E-3
-2.56378E-3	-97.1985E-12	726.544E-3	-25.1884E-3	-97.5098E-12	711.260E-3	-3.41516E-3
-2.56878E-3	-96.9607E-12	721.570E-3	-18.2871E-3	-98.0895E-12	727.634E-3	-13.2967E-3
-2.57379E-3	-97.1502E-12	712.250E-3	-16.4034E-3	-98.4029E-12	736.838E-3	-29.0011E-3
-2.57879E-3	-97.4866E-12	704.100E-3	-41.2503E-3	-98.3759E-12	735.121E-3	-37.1857E-3
-2.58379E-3	-97.8149E-12	685.948E-3	-49.3761E-3	-99.1570E-12	722.597E-3	-26.8649E-3
-2.58879E-3	-97.8503E-12	668.169E-3	-21.8287E-3	-99.6198E-12	702.348E-3	-3.57365E-3
-2.59380E-3	-98.6092E-12	679.617E-3	-11.1010E-3	-99.8202E-12	693.613E-3	7.32958E-3
-2.59880E-3	-99.7221E-12	708.664E-3	-23.7554E-3	-99.8839E-12	703.822E-3	1.56907E-3
-2.60380E-3	-100.244E-12	722.349E-3	-25.3713E-3	-100.601E-12	710.053E-3	-3.06620E-3
-2.60880E-3	-100.764E-12	718.897E-3	-20.8348E-3	-100.592E-12	713.728E-3	-10.6159E-3
-2.61381E-3	-101.253E-12	716.950E-3	-11.1592E-3	-100.712E-12	724.503E-3	-24.9027E-3
-2.61881E-3	-101.428E-12	716.072E-3	-6.06974E-3	-100.943E-12	727.862E-3	-24.4076E-3
-2.62381E-3	-101.919E-12	712.362E-3	-19.9620E-3	-100.866E-12	720.677E-3	-13.7074E-3
-2.62881E-3	-101.948E-12	713.193E-3	-29.3394E-3	-101.106E-12	704.485E-3	-25.5536E-3
-2.63382E-3	-101.720E-12	698.883E-3	-23.4861E-3	-101.344E-12	679.839E-3	-46.4073E-3
-2.63882E-3	-102.024E-12	687.135E-3	-15.9524E-3	-101.044E-12	675.436E-3	-36.5471E-3
-2.64382E-3	-101.904E-12	705.319E-3	-9.74148E-3	-100.928E-12	690.627E-3	-20.5042E-3
-2.64882E-3	-101.658E-12	715.099E-3	-7.58285E-3	-101.547E-12	703.535E-3	-26.0071E-3
-2.65383E-3	-101.723E-12	708.527E-3	-18.0895E-3	-101.708E-12	708.916E-3	-35.0037E-3
-2.65883E-3	-101.668E-12	719.331E-3	-29.7721E-3	-101.720E-12	708.634E-3	-36.3607E-3
-2.66383E-3	-101.632E-12	714.939E-3	-31.1191E-3	-102.226E-12	701.514E-3	-26.0257E-3
-2.66883E-3	-101.773E-12	691.139E-3	-31.8111E-3	-102.621E-12	678.865E-3	-4.57276E-3
-2.67384E-3	-102.171E-12	707.615E-3	-33.9021E-3	-102.780E-12	662.703E-3	11.5114E-3
-2.67884E-3	-102.291E-12	722.084E-3	-20.7939E-3	-103.541E-12	683.085E-3	5.23093E-3
-2.68384E-3	-102.332E-12	703.321E-3	-8.09968E-3	-104.251E-12	709.961E-3	-6.85088E-3
-2.68884E-3	-102.948E-12	703.650E-3	-8.48364E-3	-104.548E-12	709.561E-3	-2.94930E-3
-2.69385E-3	-103.869E-12	714.831E-3	461.059E-6	-104.627E-12	696.268E-3	786.029E-6
-2.69885E-3	-103.916E-12	719.122E-3	-970.773E-6	-105.452E-12	696.078E-3	-3.46011E-3
-2.70385E-3	-104.443E-12	724.026E-3	-31.9376E-3	-105.569E-12	706.699E-3	-14.7510E-3
-2.70885E-3	-104.903E-12	714.302E-3	-49.0378E-3	-105.489E-12	697.687E-3	-29.6721E-3
-2.71386E-3	-104.949E-12	705.351E-3	-28.6035E-3	-105.567E-12	688.850E-3	-17.8013E-3
-2.71886E-3	-104.783E-12	706.582E-3	-4.78009E-3	-106.035E-12	699.192E-3	-457.319E-6
-2.72386E-3	-105.385E-12	697.952E-3	5.90104E-3	-106.411E-12	701.986E-3	-9.45604E-3
-2.72886E-3	-105.523E-12	693.751E-3	-225.132E-6	-106.517E-12	698.169E-3	-11.3661E-3
-2.73387E-3	-105.850E-12	698.902E-3	-24.5870E-3	-106.046E-12	695.751E-3	-11.1570E-3
-2.73887E-3	-106.043E-12	689.758E-3	-35.8086E-3	-106.410E-12	692.840E-3	-27.4909E-3
-2.74387E-3	-106.014E-12	668.256E-3	-17.3593E-3	-106.788E-12	703.905E-3	-25.6307E-3
-2.74887E-3	-106.122E-12	676.203E-3	2.62981E-3	-106.589E-12	722.955E-3	-13.2736E-3
-2.75388E-3	-106.817E-12	704.718E-3	1.09347E-3	-106.536E-12	717.649E-3	-7.25616E-3
-2.75888E-3	-106.569E-12	698.306E-3	-18.7409E-3	-107.161E-12	685.843E-3	-3.44349E-3
-2.76388E-3	-106.838E-12	678.293E-3	-28.0007E-3	-107.218E-12	661.566E-3	-7.29966E-3
-2.76888E-3	-107.231E-12	686.546E-3	-12.8005E-3	-107.239E-12	668.525E-3	-5.63177E-3
-2.77389E-3	-108.022E-12	710.561E-3	-3.15557E-3	-107.184E-12	693.419E-3	-3.84276E-3
-2.77889E-3	-108.023E-12	718.734E-3	-11.3957E-3	-107.856E-12	721.466E-3	-2.72061E-3
-2.78389E-3	-108.170E-12	697.872E-3	-25.2065E-3	-107.979E-12	728.715E-3	305.717E-6
-2.78889E-3	-108.299E-12	670.603E-3	-22.7390E-3	-108.235E-12	714.049E-3	-2.83844E-3
-2.79390E-3	-108.455E-12	674.904E-3	-9.03329E-3	-108.754E-12	703.483E-3	4.87892E-3
-2.79890E-3	-108.441E-12	697.778E-3	415.580E-6	-109.239E-12	698.700E-3	8.03457E-3
-2.80390E-3	-108.638E-12	700.033E-3	6.85771E-3	-108.998E-12	699.275E-3	-4.71239E-3
-2.80890E-3	-108.595E-12	679.416E-3	-9.33819E-3	-109.674E-12	693.204E-3	-7.88750E-3
-2.81391E-3	-108.952E-12	667.250E-3	-28.8303E-3	-109.893E-12	687.483E-3	-2.48333E-3
-2.81891E-3	-109.097E-12	674.056E-3	-31.3968E-3	-110.255E-12	697.802E-3	-4.44612E-3
-2.82391E-3	-109.604E-12	680.205E-3	-34.1004E-3	-110.892E-12	702.136E-3	-25.9032E-3
-2.82891E-3	-109.555E-12	688.873E-3	-17.8995E-3	-110.358E-12	694.662E-3	-50.6620E-3
-2.83392E-3	-110.192E-12	696.994E-3	7.86611E-3	-110.685E-12	694.107E-3	-48.6926E-3
-2.83892E-3	-110.341E-12	695.454E-3	9.73785E-3	-111.601E-12	689.464E-3	-37.0796E-3
-2.84392E-3	-111.082E-12	694.681E-3	1.72031E-3	-112.079E-12	673.263E-3	-40.3858E-3
-2.84892E-3	-111.448E-12	686.168E-3	765.503E-6	-111.522E-12	670.585E-3	-32.6142E-3
-2.85393E-3	-111.747E-12	679.188E-3	-3.02541E-3	-112.152E-12	685.993E-3	-9.38157E-3
-2.85893E-3	-112.036E-12	700.337E-3	-10.3941E-3	-112.264E-12	688.924E-3	10.2058E-3
-2.86393E-3	-112.870E-12	708.894E-3	-10.9627E-3	-112.817E-12	681.646E-3	28.3061E-3
-2.86893E-3	-113.158E-12	691.319E-3	-11.5201E-3	-112.178E-12	683.081E-3	22.3344E-3
-2.87394E-3	-113.112E-12	686.932E-3	-5.63985E-3	-112.399E-12	684.754E-3	-14.7424E-3
-2.87894E-3	-112.805E-12	684.437E-3	7.45750E-3	-112.427E-12	674.703E-3	-30.3906E-3
-2.88394E-3	-113.150E-12	674.139E-3	-3.24849E-3	-112.959E-12	661.439E-3	-20.2193E-3
-2.88894E-3	-113.404E-12	689.237E-3	-19.3951E-3	-112.001E-12	669.553E-3	-27.4260E-3
-2.89395E-3	-112.866E-12	698.117E-3	-14.9005E-3	-112.601E-12	692.407E-3	-39.9346E-3
-2.89895E-3	-112.777E-12	677.241E-3	-17.3601E-3	-113.117E-12	705.989E-3	-38.2498E-3
-2.90395E-3	-113.724E-12	678.993E-3	-15.6486E-3	-113.234E-12	711.617E-3	-26.2068E-3
-2.90895E-3	-113.262E-12	706.913E-3	3.29111E-3	-113.578E-12	709.165E-3	-14.6908E-3
-2.91396E-3	-113.271E-12	717.188E-3	879.394E-6	-114.607E-12	699.842E-3	-15.0599E-3
-2.91896E-3	-114.171E-12	702.832E-3	-11.5412E-3	-114.687E-12	701.162E-3	-22.9144E-3
-2.92396E-3	-114.160E-12	701.433E-3	-11.5163E-3	-115.382E-12	711.213E-3	-22.8062E-3
-2.92896E-3	-114.332E-12	718.895E-3	-24.9067E-3	-115.730E-12	706.870E-3	-13.0940E-3
-2.93397E-3	-115.117E-12	729.242E-3	-24.2662E-3	-116.524E-12	693.892E-3	-15.6700E-3
-2.93897E-3	-115.295E-12	715.380E-3	-4.79021E-3	-116.841E-12	691.477E-3	-25.7271E-3
-2.94397E-3	-116.105E-12	701.555E-3	-16.0042E-3	-116.883E-12	687.400E-3	-31.9780E-3
-2.94897E-3	-117.346E-12	710.273E-3	-26.5322E-3	-117.164E-12	677.367E-3	-42.3996E-3
-2.95398E-3	-117.367E-12	706.952E-3	-9.18413E-3	-117.904E-12	666.581E-3	-34.4774E-3
-2.95898E-3	-117.836E-12	693.664E-3	-9.46838E-3	-117.645E-12	664.838E-3	-23.5290E-3
-2.96398E-3	-118.099E-12	704.832E-3	-33.0217E-3	-117.318E-12	671.526E-3	-34.9230E-3
-2.96898E-3	-117.874E-12	720.942E-3	-30.6883E-3	-116.532E-12	674.982E-3	-27.3259E-3
-2.97399E-3	-117.313E-12	703.020E-3	-18.7784E-3	-116.604E-12	678.873E-3	-8.25432E-3
-2.97899E-3	-117.446E-12	692.028E-3	-37.7194E-3	-115.868E-12	674.176E-3	-23.3048E-3
-2.98399E-3	-116.954E-12	708.274E-3	-45.9866E-3	-115.560E-12	650.678E-3	-41.3105E-3
-2.98899E-3	-116.778E-12	697.568E-3	-23.2800E-3	-115.573E-12	638.220E-3	-22.7315E-3
-2.99400E-3	-116.719E-12	681.634E-3	-16.1562E-3	-116.155E-12	663.230E-3	-19.6123E-3
-2.99900E-3	-117.013E-12	685.677E-3	-33.9812E-3	-116.231E-12	686.227E-3	-48.4983E-3
-3.00400E-3	-116.819E-12	684.866E-3	-32.4704E-3	-117.097E-12	674.480E-3	-50.8017E-3
-3.00900E-3	-117.434E-12	687.490E-3	-15.1556E-3	-117.592E-12	664.436E-3	-35.9747E-3
-3.01401E-3	-117.600E-12	704.166E-3	-12.3226E-3	-118.871E-12	665.867E-3	-27.7518E-3
-3.01901E-3	-117.860E-12	719.004E-3	-13.1248E-3	-119.046E-12	669.959E-3	-17.2588E-3
-3.02401E-3	-118.615E-12	711.713E-3	-17.5430E-3	-119.431E-12	685.699E-3	-11.0798E-3
-3.02901E-3	-119.306E-12	689.380E-3	-16.2261E-3	-120.423E-12	705.038E-3	-15.9559E-3
-3.03402E-3	-119.515E-12	669.429E-3	-11.9629E-3	-121.091E-12	729.760E-3	-14.4026E-3
-3.03902E-3	-120.541E-12	664.272E-3	-11.6233E-3	-121.278E-12	742.025E-3	5.10507E-3
-3.04402E-3	-121.124E-12	676.647E-3	-7.49061E-3	-122.034E-12	716.242E-3	18.8611E-3
-3.04902E-3	-120.908E-12	689.252E-3	-15.7923E-3	-122.724E-12	682.219E-3	14.2408E-3
-3.05403E-3	-121.441E-12	692.660E-3	-18.2147E-3	-121.876E-12	676.513E-3	-9.46269E-3
-3.05903E-3	-122.167E-12	697.579E-3	804.452E-6	-121.809E-12	686.208E-3	-41.4176E-3
-3.06403E-3	-121.277E-12	692.052E-3	-3.12318E-3	-121.365E-12	682.781E-3	-55.3202E-3
-3.06903E-3	-121.368E-12	668.665E-3	-28.7208E-3	-121.435E-12	674.646E-3	-30.0706E-3
-3.07404E-3	-121.476E-12	659.594E-3	-20.0559E-3	-121.107E-12	677.000E-3	-2.11185E-3
-3.07904E-3	-121.099E-12	666.927E-3	-10.7679E-3	-121.306E-12	676.860E-3	-13.6187E-3
-3.08404E-3	-121.156E-12	685.638E-3	-32.6764E-3	-120.706E-12	669.768E-3	-31.9898E-3
-3.08904E-3	-121.611E-12	703.832E-3	-28.7292E-3	-121.467E-12	661.207E-3	-40.0440E-3
-3.09405E-3	-121.501E-12	696.626E-3	898.272E-6	-121.611E-12	651.552E-3	-31.5601E-3
-3.09905E-3	-122.335E-12	682.713E-3	9.01443E-3	-121.607E-12	661.777E-3	-15.0916E-3
-3.10405E-3	-123.188E-12	667.017E-3	6.97982E-3	-122.212E-12	690.692E-3	-29.2018E-3
-3.10905E-3	-122.915E-12	658.615E-3	6.58986E-3	-123.066E-12	702.499E-3	-57.3781E-3
-3.11406E-3	-123.672E-12	676.339E-3	-10.3006E-3	-123.298E-12	697.773E-3	-59.7933E-3
-3.11906E-3	-124.687E-12	690.433E-3	-28.9443E-3	-123.741E-12	684.494E-3	-40.7431E-3
-3.12406E-3	-124.918E-12	678.026E-3	-26.1774E-3	-124.476E-12	674.151E-3	-18.1373E-3
-3.12906E-3	-124.510E-12	669.215E-3	-16.2509E-3	-125.068E-12	673.121E-3	-2.19604E-3
-3.13407E-3	-125.939E-12	686.250E-3	-1.91174E-3	-125.691E-12	671.543E-3	-9.72994E-3
-3.13907E-3	-126.074E-12	694.382E-3	6.15379E-3	-125.853E-12	677.052E-3	-31.5030E-3
-3.14407E-3	-125.539E-12	681.866E-3	-29.1488E-3	-126.028E-12	683.992E-3	-38.0113E-3
-3.14907E-3	-125.601E-12	673.730E-3	-57.4960E-3	-126.335E-12	685.870E-3	-34.8031E-3
-3.15408E-3	-125.513E-12	674.749E-3	-33.5826E-3	-126.347E-12	682.950E-3	-28.5983E-3
-3.15908E-3	-125.582E-12	668.477E-3	-16.7894E-3	-126.407E-12	670.626E-3	-20.1082E-3
-3.16408E-3	-125.556E-12	660.266E-3	-17.9359E-3	-126.184E-12	665.808E-3	-23.5156E-3
-3.16908E-3	-126.115E-12	655.672E-3	-1.22063E-3	-126.536E-12	675.499E-3	-36.1723E-3
-3.17409E-3	-126.040E-12	657.195E-3	12.6788E-3	-126.187E-12	668.252E-3	-41.6723E-3
-3.17909E-3	-126.522E-12	678.307E-3	4.23428E-3	-126.585E-12	647.562E-3	-34.8722E-3
-3.18409E-3	-126.642E-12	700.192E-3	1.51317E-3	-126.443E-12	650.627E-3	-27.0130E-3
-3.18909E-3	-126.958E-12	698.616E-3	7.37355E-3	-126.587E-12	670.609E-3	-28.0038E-3
-3.19410E-3	-127.260E-12	695.094E-3	241.115E-6	-126.155E-12	677.337E-3	-23.5936E-3
-3.19910E-3	-127.997E-12	710.011E-3	-10.0207E-3	-126.460E-12	667.920E-3	-10.3834E-3
-3.20410E-3	-128.061E-12	705.771E-3	-21.4864E-3	-126.491E-12	667.850E-3	-5.53707E-3
-3.20910E-3	-128.931E-12	679.241E-3	-42.7924E-3	-127.000E-12	680.990E-3	-8.53810E-3
-3.21411E-3	-129.269E-12	668.790E-3	-29.1360E-3	-127.106E-12	686.128E-3	-10.8129E-3
-3.21911E-3	-129.147E-12	681.812E-3	7.28729E-3	-127.213E-12	685.724E-3	-46.0465E-6
-3.22411E-3	-129.474E-12	710.450E-3	4.42006E-3	-127.835E-12	687.002E-3	7.46386E-3
-3.22911E-3	-129.588E-12	725.787E-3	-17.1487E-3	-128.615E-12	668.464E-3	10.3150E-3
-3.23412E-3	-129.354E-12	703.568E-3	-25.2550E-3	-128.734E-12	651.547E-3	8.76181E-3
-3.23912E-3	-129.362E-12	673.921E-3	-22.7166E-3	-128.534E-12	666.942E-3	-13.4126E-3
-3.24412E-3	-129.967E-12	665.852E-3	-25.8591E-3	-129.691E-12	684.461E-3	-18.7669E-3
-3.24912E-3	-129.533E-12	671.288E-3	-31.8542E-3	-130.224E-12	692.016E-3	5.63580E-3
-3.25413E-3	-129.350E-12	680.616E-3	-24.5373E-3	-130.226E-12	688.742E-3	13.9312E-3
-3.25913E-3	-129.356E-12	683.911E-3	-3.95013E-3	-130.779E-12	667.697E-3	-2.84857E-3
-3.26413E-3	-129.419E-12	674.997E-3	-8.56735E-3	-131.411E-12	661.387E-3	-1.16361E-3
-3.26913E-3	-129.758E-12	678.310E-3	-33.0264E-3	-131.846E-12	670.199E-3	16.1105E-3
-3.27414E-3	-130.160E-12	684.214E-3	-31.1227E-3	-131.894E-12	674.849E-3	13.6993E-3
-3.27914E-3	-130.623E-12	654.746E-3	-22.7201E-3	-132.121E-12	683.213E-3	456.386E-6
-3.28414E-3	-130.459E-12	646.315E-3	-24.0308E-3	-131.880E-12	690.357E-3	-4.46213E-3
-3.28914E-3	-131.007E-12	679.043E-3	-10.4977E-3	-131.776E-12	687.412E-3	-3.95594E-3
-3.29415E-3	-131.773E-12	672.301E-3	2.91698E-3	-131.615E-12	685.270E-3	136.022E-6
-3.29915E-3	-131.686E-12	643.045E-3	-18.2065E-3	-131.715E-12	686.347E-3	9.77549E-3
-3.30415E-3	-131.674E-12	652.135E-3	-27.4425E-3	-131.503E-12	691.005E-3	18.8892E-3
-3.30915E-3	-132.085E-12	667.770E-3	-8.43889E-3	-131.579E-12	702.256E-3	-1.22871E-3
-3.31416E-3	-132.646E-12	664.592E-3	-13.3684E-3	-131.718E-12	702.655E-3	-46.4770E-3
-3.31916E-3	-132.454E-12	668.212E-3	-28.5765E-3	-131.264E-12	686.671E-3	-62.9855E-3
-3.32416E-3	-132.166E-12	669.454E-3	-28.1100E-3	-131.852E-12	669.669E-3	-36.1135E-3
-3.32916E-3	-132.892E-12	655.104E-3	-23.9184E-3	-131.656E-12	668.575E-3	341.840E-6
-3.33417E-3	-132.331E-12	649.092E-3	-16.9609E-3	-131.867E-12	674.062E-3	13.3309E-3
-3.33917E-3	-132.343E-12	650.316E-3	-20.6667E-3	-132.809E-12	677.534E-3	7.83804E-3
-3.34417E-3	-132.707E-12	656.213E-3	-36.1572E-3	-133.603E-12	686.037E-3	-3.46305E-3
-3.34917E-3	-133.027E-12	679.625E-3	-33.2904E-3	-134.044E-12	693.862E-3	-9.81218E-3
-3.35418E-3	-133.645E-12	689.271E-3	-23.1416E-3	-135.216E-12	694.049E-3	-3.85382E-3
-3.35918E-3	-133.996E-12	677.432E-3	-26.5873E-3	-135.856E-12	672.271E-3	2.64303E-3
-3.36418E-3	-135.215E-12	667.856E-3	-20.8186E-3	-136.490E-12	647.481E-3	-10.7749E-3
-3.36918E-3	-135.689E-12	666.843E-3	-11.5226E-3	-136.550E-12	655.819E-3	-39.9618E-3
-3.37419E-3	-136.015E-12	681.399E-3	-20.9984E-3	-136.470E-12	672.917E-3	-48.8057E-3
-3.37919E-3	-135.752E-12	704.844E-3	-29.2729E-3	-136.776E-12	673.525E-3	-31.5992E-3
-3.38419E-3	-136.952E-12	697.805E-3	-25.2609E-3	-137.485E-12	668.882E-3	-6.79075E-3
-3.38919E-3	-137.131E-12	673.795E-3	-28.3211E-3	-136.337E-12	668.080E-3	13.6707E-3
-3.39420E-3	-136.637E-12	686.338E-3	-34.4464E-3	-136.313E-12	656.636E-3	10.3369E-3
-3.39920E-3	-136.287E-12	688.711E-3	-20.4605E-3	-136.763E-12	647.161E-3	-4.44776E-3
-3.40420E-3	-136.349E-12	659.925E-3	2.85993E-6	-136.135E-12	661.982E-3	-8.20400E-3
-3.40920E-3	-136.327E-12	658.578E-3	378.766E-6	-135.265E-12	673.727E-3	-8.30827E-3
-3.41421E-3	-136.045E-12	673.775E-3	-5.96168E-3	-135.842E-12	673.990E-3	1.07800E-3
-3.41921E-3	-135.651E-12	671.628E-3	-3.93227E-3	-135.541E-12	689.974E-3	-3.43474E-3
-3.42421E-3	-136.066E-12	669.684E-3	5.36943E-3	-135.457E-12	699.288E-3	-23.2084E-3
-3.42921E-3	-136.593E-12	661.280E-3	8.52278E-3	-136.057E-12	682.340E-3	-14.8402E-3
-3.43422E-3	-136.443E-12	649.040E-3	-3.84235E-3	-137.308E-12	660.360E-3	10.2824E-3
-3.43922E-3	-136.658E-12	663.306E-3	-7.34092E-3	-136.978E-12	648.515E-3	10.4164E-3
-3.44422E-3	-137.530E-12	667.093E-3	6.23092E-3	-138.098E-12	660.188E-3	-28.6027E-3
-3.44922E-3	-139.079E-12	654.455E-3	-2.10614E-3	-139.220E-12	671.881E-3	-37.4650E-3
-3.45423E-3	-139.136E-12	672.245E-3	-24.2483E-3	-139.833E-12	668.673E-3	-3.95415E-3
-3.45923E-3	-140.437E-12	687.995E-3	-14.7225E-3	-139.799E-12	669.616E-3	17.8280E-3
-3.46423E-3	-141.575E-12	685.952E-3	-6.71855E-3	-140.527E-12	668.783E-3	20.7660E-3
-3.46923E-3	-141.692E-12	697.817E-3	-21.4685E-3	-140.348E-12	667.047E-3	-1.68129E-3
-3.47424E-3	-141.811E-12	705.722E-3	-20.9057E-3	-141.131E-12	677.117E-3	-18.4512E-3
-3.47924E-3	-142.359E-12	698.949E-3	-21.7148E-3	-141.230E-12	676.684E-3	-964.338E-6
-3.48424E-3	-141.801E-12	705.592E-3	-38.7330E-3	-140.528E-12	670.314E-3	8.58113E-3
-3.48924E-3	-141.438E-12	715.993E-3	-34.3835E-3	-140.389E-12	683.986E-3	-9.65365E-3
-3.49425E-3	-141.133E-12	700.328E-3	-16.8421E-3	-141.352E-12	688.294E-3	-33.2089E-3
-3.49925E-3	-140.931E-12	690.407E-3	-17.6795E-3	-141.264E-12	677.347E-3	-47.0433E-3
-3.50425E-3	-139.991E-12	690.445E-3	-23.5775E-3	-140.365E-12	673.186E-3	-53.6138E-3
-3.50925E-3	-139.869E-12	677.386E-3	-27.8428E-3	-140.916E-12	675.292E-3	-52.0121E-3
-3.51426E-3	-139.551E-12	669.508E-3	-26.8576E-3	-141.640E-12	670.632E-3	-32.9661E-3
-3.51926E-3	-140.380E-12	661.043E-3	-17.3712E-3	-141.116E-12	656.023E-3	-10.7487E-3
-3.52426E-3	-140.480E-12	655.769E-3	-29.1915E-3	-141.454E-12	668.603E-3	-8.59190E-3
-3.52926E-3	-140.672E-12	672.378E-3	-42.6469E-3	-142.529E-12	688.524E-3	-22.2162E-3
-3.53427E-3	-141.429E-12	671.532E-3	-11.7850E-3	-143.282E-12	682.987E-3	-22.7655E-3
-3.53927E-3	-142.367E-12	645.685E-3	13.9533E-3	-143.259E-12	680.118E-3	-22.5381E-3
-3.54427E-3	-142.805E-12	656.251E-3	-13.2805E-3	-144.490E-12	675.470E-3	-30.0697E-3
-3.54927E-3	-143.360E-12	679.458E-3	-31.6283E-3	-145.157E-12	672.418E-3	-26.9012E-3
-3.55428E-3	-144.137E-12	666.879E-3	-21.0073E-3	-144.963E-12	670.739E-3	-22.7816E-3
-3.55928E-3	-144.466E-12	661.765E-3	-13.8674E-3	-144.870E-12	656.647E-3	-23.9822E-3
-3.56428E-3	-145.505E-12	673.478E-3	-6.88771E-3	-145.591E-12	660.946E-3	-25.6652E-3
-3.56928E-3	-146.143E-12	663.275E-3	-12.7350E-3	-144.944E-12	671.647E-3	-25.8726E-3
-3.57429E-3	-145.389E-12	661.875E-3	-19.8351E-3	-144.678E-12	674.205E-3	-27.3319E-3
-3.57929E-3	-145.443E-12	681.760E-3	-11.8688E-3	-145.182E-12	683.495E-3	-32.5229E-3
-3.58429E-3	-145.759E-12	679.982E-3	-17.5930E-3	-144.954E-12	681.441E-3	-32.7095E-3
-3.58929E-3	-145.870E-12	674.938E-3	-26.7676E-3	-144.751E-12	676.368E-3	-7.84350E-3
-3.59430E-3	-145.226E-12	682.115E-3	-21.7436E-3	-145.186E-12	686.522E-3	17.9452E-3
-3.59930E-3	-145.031E-12	681.246E-3	-20.0718E-3	-145.233E-12	675.948E-3	18.6170E-3
-3.60430E-3	-144.957E-12	680.380E-3	-18.0249E-3	-145.267E-12	647.576E-3	13.0150E-3
-3.60930E-3	-145.052E-12	684.924E-3	-21.4584E-3	-145.521E-12	644.755E-3	9.20510E-3
-3.61431E-3	-144.895E-12	670.384E-3	-32.6496E-3	-145.212E-12	666.370E-3	2.77792E-3
-3.61931E-3	-145.879E-12	649.755E-3	-32.3413E-3	-145.485E-12	679.009E-3	-11.0954E-3
-3.62431E-3	-146.049E-12	658.809E-3	-5.65502E-3	-145.801E-12	679.955E-3	-28.2583E-3
-3.62931E-3	-146.066E-12	678.297E-3	17.3406E-3	-146.984E-12	685.917E-3	-31.3998E-3
-3.63432E-3	-147.185E-12	686.492E-3	5.40513E-3	-147.174E-12	689.862E-3	-15.4629E-3
-3.63932E-3	-148.365E-12	687.498E-3	-722.490E-6	-146.973E-12	688.233E-3	-8.54450E-3
-3.64432E-3	-148.377E-12	666.217E-3	8.75274E-3	-147.121E-12	673.904E-3	-16.2204E-3
-3.64932E-3	-148.355E-12	639.907E-3	-4.31972E-3	-147.685E-12	654.971E-3	-20.6399E-3
-3.65433E-3	-148.185E-12	645.766E-3	-30.2551E-3	-147.609E-12	657.611E-3	-23.3237E-3
-3.65933E-3	-149.101E-12	653.888E-3	-37.9693E-3	-147.554E-12	670.733E-3	-27.8366E-3
-3.66433E-3	-147.940E-12	657.984E-3	-39.5663E-3	-147.772E-12	670.914E-3	-18.0131E-3
-3.66933E-3	-148.130E-12	681.399E-3	-27.8589E-3	-148.167E-12	671.762E-3	-3.29508E-3
-3.67434E-3	-148.623E-12	696.714E-3	-7.06808E-3	-148.489E-12	682.177E-3	-10.4228E-3
-3.67934E-3	-148.588E-12	694.053E-3	-18.5519E-3	-148.248E-12	682.053E-3	-25.6121E-3
-3.68434E-3	-148.430E-12	696.313E-3	-22.1452E-3	-148.720E-12	664.343E-3	-34.8322E-3
-3.68934E-3	-149.253E-12	696.357E-3	-1.77829E-3	-149.613E-12	658.475E-3	-34.6978E-3
-3.69435E-3	-149.331E-12	680.918E-3	-432.625E-6	-149.361E-12	669.500E-3	-39.5030E-3
-3.69935E-3	-149.925E-12	672.688E-3	6.65195E-3	-149.468E-12	671.656E-3	-51.9653E-3
-3.70435E-3	-150.227E-12	662.259E-3	22.5297E-3	-150.549E-12	678.508E-3	-42.1292E-3
-3.70935E-3	-150.196E-12	650.354E-3	14.2263E-3	-150.211E-12	684.191E-3	-12.1661E-3
-3.71436E-3	-150.647E-12	669.284E-3	-4.53550E-3	-150.674E-12	677.896E-3	467.486E-6
-3.71936E-3	-150.847E-12	693.924E-3	-13.4623E-3	-151.225E-12	667.977E-3	-2.68332E-3
-3.72436E-3	-150.668E-12	704.938E-3	-16.8802E-3	-151.252E-12	653.815E-3	886.126E-6
-3.72936E-3	-151.099E-12	697.217E-3	-11.3027E-3	-151.312E-12	651.833E-3	-7.79904E-3
-3.73437E-3	-151.940E-12	669.132E-3	-6.04340E-3	-151.715E-12	658.544E-3	-28.8103E-3
-3.73937E-3	-152.003E-12	658.431E-3	-9.61790E-3	-150.997E-12	651.929E-3	-34.3144E-3
-3.74437E-3	-150.904E-12	665.996E-3	-6.97239E-3	-151.448E-12	635.454E-3	-20.0356E-3
-3.74937E-3	-151.095E-12	666.276E-3	6.87127E-3	-152.088E-12	627.651E-3	-19.3794E-3
-3.75438E-3	-151.775E-12	661.713E-3	16.4358E-3	-151.538E-12	639.819E-3	-29.4790E-3
-3.75938E-3	-150.546E-12	671.734E-3	8.42793E-3	-151.873E-12	678.144E-3	-31.9778E-3
-3.76438E-3	-150.358E-12	683.282E-3	9.18433E-3	-153.050E-12	705.801E-3	-44.7564E-3
-3.76938E-3	-151.124E-12	662.608E-3	12.1233E-3	-152.741E-12	683.688E-3	-46.8981E-3
-3.77439E-3	-151.622E-12	641.738E-3	-15.4943E-3	-153.204E-12	658.118E-3	-36.0276E-3
-3.77939E-3	-151.472E-12	647.975E-3	-30.3056E-3	-154.767E-12	654.424E-3	-31.5776E-3
-3.78439E-3	-152.710E-12	660.239E-3	-17.2280E-3	-153.916E-12	642.565E-3	-22.9351E-3
-3.78939E-3	-153.803E-12	662.803E-3	-18.5371E-3	-154.157E-12	645.702E-3	-22.8934E-3
-3.79440E-3	-154.411E-12	665.656E-3	-16.4475E-3	-154.565E-12	665.714E-3	-22.5036E-3
-3.79940E-3	-155.417E-12	670.044E-3	11.0877E-3	-154.295E-12	665.160E-3	-552.211E-6
-3.80440E-3	-156.143E-12	679.360E-3	27.0513E-3	-154.981E-12	644.811E-3	14.5246E-3
-3.80940E-3	-156.104E-12	689.240E-3	16.6692E-3	-155.318E-12	638.349E-3	10.4848E-3
-3.81441E-3	-156.340E-12	687.093E-3	-17.3695E-3	-154.350E-12	667.008E-3	-5.36357E-3
-3.81941E-3	-156.831E-12	688.149E-3	-61.3847E-3	-154.811E-12	693.442E-3	-22.9440E-3
-3.82441E-3	-155.700E-12	687.094E-3	-57.8108E-3	-155.746E-12	683.791E-3	-5.91735E-3
-3.82941E-3	-155.566E-12	671.124E-3	-23.7260E-3	-154.470E-12	659.474E-3	14.8401E-3
-3.83442E-3	-155.420E-12	673.257E-3	-32.9854E-3	-154.651E-12	639.556E-3	1.40989E-3
-3.83942E-3	-154.253E-12	688.338E-3	-42.2932E-3	-155.336E-12	634.190E-3	-17.9492E-3
-3.84442E-3	-153.675E-12	655.274E-3	-13.4885E-3	-155.277E-12	646.033E-3	-33.1938E-3
-3.84942E-3	-154.583E-12	610.000E-3	-15.3053E-3	-155.462E-12	665.192E-3	-37.8529E-3
-3.85443E-3	-154.555E-12	615.423E-3	-33.7900E-3	-156.850E-12	682.157E-3	-18.5556E-3
-3.85943E-3	-153.841E-12	643.367E-3	-19.4867E-3	-157.269E-12	681.804E-3	-9.29413E-3
-3.86443E-3	-154.639E-12	656.543E-3	-2.05239E-3	-158.002E-12	671.121E-3	-22.3888E-3
-3.86943E-3	-155.293E-12	673.601E-3	16.4079E-3	-158.835E-12	659.732E-3	-41.7352E-3
-3.87444E-3	-156.365E-12	695.360E-3	26.2930E-3	-160.013E-12	653.024E-3	-33.8451E-3
-3.87944E-3	-157.128E-12	696.799E-3	3.68039E-3	-160.301E-12	654.572E-3	305.075E-9
-3.88444E-3	-158.835E-12	683.294E-3	-12.2372E-3	-161.270E-12	668.762E-3	4.49990E-3
-3.88944E-3	-159.797E-12	662.891E-3	-16.9774E-3	-160.118E-12	694.189E-3	-22.7674E-3
-3.89445E-3	-160.559E-12	671.378E-3	-58.5377E-3	-159.995E-12	705.696E-3	-35.9171E-3
-3.89945E-3	-160.414E-12	688.890E-3	-77.6330E-3	-161.102E-12	698.748E-3	-18.5281E-3
-3.90445E-3	-160.576E-12	661.847E-3	-13.2982E-3	-160.085E-12	671.485E-3	-14.2363E-3
-3.90945E-3	-160.514E-12	653.800E-3	25.7125E-3	-159.256E-12	639.985E-3	-33.1105E-3
-3.91446E-3	-160.273E-12	684.929E-3	2.57260E-3	-160.108E-12	633.711E-3	-43.3333E-3
-3.91946E-3	-159.746E-12	689.917E-3	-6.97779E-3	-159.050E-12	637.626E-3	-36.2786E-3
-3.92446E-3	-159.404E-12	676.429E-3	-3.31101E-3	-158.410E-12	646.080E-3	-23.4035E-3
-3.92946E-3	-159.549E-12	665.816E-3	-11.4492E-3	-158.968E-12	664.801E-3	-10.9782E-3
-3.93447E-3	-159.029E-12	655.456E-3	-27.4706E-3	-159.549E-12	678.507E-3	-5.39064E-3
-3.93947E-3	-158.227E-12	651.803E-3	-30.5644E-3	-159.525E-12	681.953E-3	-4.57800E-3
-3.94447E-3	-158.518E-12	652.681E-3	-32.7759E-3	-160.413E-12	677.124E-3	-11.6198E-3
-3.94947E-3	-159.438E-12	663.168E-3	-29.0680E-3	-160.702E-12	666.846E-3	-25.0760E-3
-3.95448E-3	-159.479E-12	662.643E-3	-18.8278E-3	-161.515E-12	654.097E-3	-20.5136E-3
-3.95948E-3	-159.737E-12	659.066E-3	-33.2356E-3	-162.511E-12	647.912E-3	-12.4697E-3
-3.96448E-3	-160.782E-12	678.715E-3	-39.8920E-3	-162.996E-12	668.458E-3	-20.3894E-3
-3.96948E-3	-162.351E-12	676.305E-3	-39.9839E-3	-163.635E-12	699.276E-3	-37.2539E-3
-3.97449E-3	-162.924E-12	657.602E-3	-44.0592E-3	-164.456E-12	703.126E-3	-40.8286E-3
-3.97949E-3	-163.451E-12	650.333E-3	-31.3487E-3	-164.781E-12	686.453E-3	-11.3335E-3
-3.98449E-3	-164.691E-12	640.280E-3	-14.6225E-3	-165.097E-12	667.168E-3	2.26378E-3
-3.98949E-3	-165.107E-12	653.261E-3	-3.88513E-3	-165.326E-12	667.968E-3	-23.2260E-3
-3.99450E-3	-164.803E-12	675.708E-3	-6.94639E-3	-164.616E-12	683.287E-3	-33.1985E-3
-3.99950E-3	-165.236E-12	668.765E-3	-21.9545E-3	-164.809E-12	685.143E-3	-12.3355E-3
-4.00450E-3	-165.070E-12	655.923E-3	-19.1572E-3	-163.924E-12	684.551E-3	6.17822E-3
-4.00950E-3	-164.379E-12	661.130E-3	-13.5856E-3	-162.751E-12	675.683E-3	4.49187E-3
-4.01451E-3	-164.096E-12	668.728E-3	-29.6497E-3	-162.181E-12	641.398E-3	-6.49785E-3
-4.01951E-3	-163.476E-12	674.248E-3	-44.5774E-3	-162.830E-12	632.288E-3	-14.3471E-3
-4.02451E-3	-163.863E-12	662.422E-3	-38.6051E-3	-162.578E-12	643.958E-3	-25.6871E-3
-4.02951E-3	-164.253E-12	641.724E-3	-26.6414E-3	-162.166E-12	625.826E-3	-31.2865E-3
-4.03452E-3	-163.652E-12	669.778E-3	-12.8958E-3	-163.538E-12	619.860E-3	-16.4234E-3
-4.03952E-3	-164.188E-12	715.461E-3	3.55191E-3	-163.532E-12	634.330E-3	-8.81485E-3
-4.04452E-3	-164.797E-12	718.063E-3	-9.06321E-3	-164.865E-12	626.238E-3	-30.4878E-3
-4.04952E-3	-164.759E-12	697.192E-3	-36.7990E-3	-165.516E-12	622.973E-3	-32.2056E-3
-4.05453E-3	-164.839E-12	680.441E-3	-44.9338E-3	-165.719E-12	633.082E-3	-5.43391E-3
-4.05953E-3	-165.909E-12	667.766E-3	-28.4032E-3	-166.381E-12	622.956E-3	5.67328E-3
-4.06453E-3	-166.374E-12	658.883E-3	-11.4640E-3	-166.818E-12	610.972E-3	16.0802E-3
-4.06953E-3	-166.311E-12	658.161E-3	-10.8506E-3	-167.530E-12	619.003E-3	15.5423E-3
-4.07454E-3	-167.265E-12	646.157E-3	-19.5269E-3	-168.301E-12	642.808E-3	-4.93599E-3
-4.07954E-3	-167.453E-12	631.573E-3	-31.7810E-3	-168.157E-12	657.358E-3	-8.40619E-3
-4.08454E-3	-166.570E-12	640.066E-3	-24.4811E-3	-167.915E-12	660.466E-3	-8.45649E-3
-4.08954E-3	-166.929E-12	649.197E-3	-10.2895E-3	-168.675E-12	674.777E-3	-14.4188E-3
-4.09455E-3	-166.888E-12	642.963E-3	-11.7051E-3	-168.900E-12	677.318E-3	-9.76120E-3
-4.09955E-3	-166.702E-12	638.311E-3	2.58744E-3	-168.762E-12	668.648E-3	-5.35629E-3
-4.10455E-3	-166.346E-12	635.148E-3	19.8112E-3	-168.273E-12	645.707E-3	-18.7563E-3
-4.10955E-3	-166.457E-12	629.849E-3	-3.63211E-3	-168.871E-12	615.870E-3	-29.2568E-3
-4.11456E-3	-166.291E-12	642.294E-3	-32.3176E-3	-169.291E-12	638.257E-3	-24.2544E-3
-4.11956E-3	-167.185E-12	666.407E-3	-38.5572E-3	-168.925E-12	680.671E-3	-36.1209E-3
-4.12456E-3	-167.870E-12	679.497E-3	-33.1658E-3	-168.331E-12	676.807E-3	-54.4526E-3
-4.12956E-3	-167.444E-12	679.046E-3	-5.62664E-3	-169.109E-12	664.759E-3	-50.4339E-3
-4.13457E-3	-167.674E-12	670.170E-3	26.4759E-3	-168.931E-12	669.810E-3	-26.6636E-3
-4.13957E-3	-169.581E-12	669.212E-3	32.3082E-3	-168.466E-12	663.409E-3	-9.28261E-3
-4.14457E-3	-169.339E-12	678.887E-3	8.61216E-3	-169.191E-12	660.617E-3	-9.45292E-3
-4.14957E-3	-169.495E-12	668.828E-3	-22.0384E-3	-169.348E-12	667.169E-3	-5.95839E-3
-4.15458E-3	-170.763E-12	665.667E-3	-34.8855E-3	-169.028E-12	656.292E-3	-1.99471E-3
-4.15958E-3	-171.149E-12	693.183E-3	-37.9152E-3	-169.390E-12	649.083E-3	-9.98016E-3
-4.16458E-3	-170.070E-12	697.280E-3	-38.3603E-3	-170.375E-12	669.580E-3	-7.64288E-3
-4.16958E-3	-170.836E-12	688.770E-3	-38.0972E-3	-170.188E-12	676.408E-3	4.04116E-3
-4.17459E-3	-170.208E-12	689.001E-3	-54.4653E-3	-170.584E-12	673.233E-3	-5.46496E-3
-4.17959E-3	-170.288E-12	682.015E-3	-58.3143E-3	-171.284E-12	679.920E-3	-31.0209E-3
-4.18459E-3	-169.774E-12	674.844E-3	-39.2318E-3	-171.316E-12	675.050E-3	-29.7653E-3
-4.18959E-3	-169.898E-12	660.727E-3	-40.2892E-3	-171.712E-12	667.577E-3	331.839E-6
-4.19460E-3	-169.190E-12	647.458E-3	-32.2231E-3	-172.222E-12	672.385E-3	-11.4534E-3
-4.19960E-3	-171.160E-12	650.791E-3	-9.72615E-3	-172.594E-12	676.752E-3	-56.1987E-3
-4.20460E-3	-171.731E-12	659.813E-3	-8.58646E-3	-173.292E-12	683.475E-3	-54.0503E-3
-4.20960E-3	-172.826E-12	644.104E-3	-10.6715E-3	-173.759E-12	694.477E-3	-33.5679E-3
-4.21461E-3	-172.522E-12	614.659E-3	-12.9739E-3	-174.337E-12	679.695E-3	-39.1174E-3
-4.21961E-3	-174.312E-12	622.756E-3	-38.1487E-3	-173.706E-12	654.155E-3	-41.5394E-3
-4.22461E-3	-174.948E-12	647.944E-3	-66.7933E-3	-173.504E-12	646.569E-3	-37.6823E-3
-4.22961E-3	-175.296E-12	659.503E-3	-65.8854E-3	-173.297E-12	646.721E-3	-23.2406E-3
-4.23462E-3	-175.996E-12	655.111E-3	-44.7457E-3	-173.068E-12	643.576E-3	-6.05031E-3
-4.23962E-3	-175.748E-12	644.206E-3	-31.7384E-3	-173.129E-12	637.502E-3	-26.5658E-3
-4.24462E-3	-175.739E-12	655.956E-3	-27.1297E-3	-172.903E-12	637.397E-3	-59.8581E-3
-4.24962E-3	-175.789E-12	684.993E-3	-28.0428E-3	-171.946E-12	639.292E-3	-61.3279E-3
-4.25463E-3	-175.587E-12	694.029E-3	-43.1778E-3	-172.878E-12	645.641E-3	-37.1107E-3
-4.25963E-3	-174.396E-12	674.628E-3	-66.1897E-3	-173.880E-12	651.183E-3	-23.7516E-3
-4.26463E-3	-174.185E-12	637.564E-3	-71.7194E-3	-172.584E-12	625.692E-3	-25.0073E-3
-4.26963E-3	-173.656E-12	606.519E-3	-54.2759E-3	-173.164E-12	605.550E-3	-17.2298E-3
-4.27464E-3	-173.547E-12	609.027E-3	-38.9188E-3	-174.972E-12	635.017E-3	-11.0496E-3
-4.27964E-3	-173.809E-12	630.968E-3	-27.7907E-3	-174.432E-12	664.449E-3	-20.5736E-3
-4.28464E-3	-173.327E-12	656.504E-3	-19.7115E-3	-175.553E-12	674.274E-3	-14.1327E-3
-4.28964E-3	-174.109E-12	654.476E-3	-34.4068E-3	-177.164E-12	676.692E-3	16.8186E-3
-4.29465E-3	-175.500E-12	628.386E-3	-48.7359E-3	-178.009E-12	656.232E-3	7.67389E-3
-4.29965E-3	-175.498E-12	628.201E-3	-41.3318E-3	-178.175E-12	647.180E-3	-34.5792E-3
-4.30465E-3	-175.624E-12	620.887E-3	-36.2813E-3	-179.825E-12	667.632E-3	-41.2954E-3
-4.30965E-3	-177.881E-12	597.204E-3	-32.4579E-3	-179.759E-12	685.178E-3	-14.8108E-3
-4.31466E-3	-178.613E-12	619.312E-3	-19.1740E-3	-179.681E-12	689.938E-3	18.5528E-3
-4.31966E-3	-178.745E-12	654.341E-3	-3.25473E-3	-179.594E-12	687.019E-3	34.6667E-3
-4.32466E-3	-179.225E-12	653.384E-3	6.62480E-3	-179.805E-12	681.254E-3	14.3141E-3
-4.32966E-3	-179.593E-12	659.856E-3	23.7761E-3	-178.918E-12	665.186E-3	-16.4306E-3
-4.33467E-3	-178.874E-12	677.805E-3	27.5118E-3	-178.696E-12	649.323E-3	-25.4905E-3
-4.33967E-3	-178.480E-12	677.493E-3	-2.68528E-3	-178.713E-12	633.411E-3	-20.3331E-3
-4.34467E-3	-177.408E-12	669.943E-3	-21.8906E-3	-178.492E-12	620.231E-3	2.08303E-3
-4.34967E-3	-176.881E-12	654.068E-3	-10.2643E-3	-177.384E-12	631.975E-3	26.4663E-3
-4.35468E-3	-177.621E-12	631.201E-3	3.89930E-3	-177.221E-12	648.991E-3	10.2290E-3
-4.35968E-3	-176.960E-12	622.640E-3	-4.02517E-3	-177.076E-12	658.732E-3	-10.8800E-3
-4.36468E-3	-175.611E-12	629.434E-3	-12.5004E-3	-177.640E-12	642.107E-3	-4.13375E-3
-4.36968E-3	-176.852E-12	645.045E-3	1.37166E-3	-177.057E-12	610.932E-3	5.81752E-3
-4.37469E-3	-177.943E-12	657.091E-3	11.0017E-3	-178.259E-12	624.586E-3	5.71531E-3
-4.37969E-3	-177.764E-12	655.025E-3	-6.17569E-3	-179.410E-12	659.142E-3	-616.507E-6
-4.38469E-3	-179.619E-12	666.390E-3	-23.5857E-3	-180.089E-12	637.970E-3	-9.88081E-3
-4.38969E-3	-180.943E-12	673.017E-3	-21.4192E-3	-180.081E-12	609.104E-3	-18.2626E-3
-4.39470E-3	-181.153E-12	655.992E-3	-10.1141E-3	-182.012E-12	632.161E-3	-51.8570E-3
-4.39970E-3	-182.359E-12	657.255E-3	4.06198E-3	-182.667E-12	648.240E-3	-89.9009E-3
-4.40470E-3	-183.941E-12	653.867E-3	8.51209E-3	-183.456E-12	650.720E-3	-62.2620E-3
-4.40970E-3	-183.749E-12	633.672E-3	2.80771E-3	-182.605E-12	662.244E-3	-21.0792E-3
-4.41471E-3	-184.444E-12	640.105E-3	2.86666E-3	-182.396E-12	653.100E-3	-3.29725E-3
-4.41971E-3	-186.212E-12	668.698E-3	9.41832E-3	-183.514E-12	644.587E-3	11.3356E-3
-4.42471E-3	-185.364E-12	680.897E-3	370.170E-6	-183.022E-12	649.087E-3	3.72387E-3
-4.42971E-3	-184.741E-12	684.262E-3	-20.1951E-3	-181.894E-12	632.437E-3	-11.6823E-3
-4.43472E-3	-184.749E-12	695.554E-3	-16.8374E-3	-182.406E-12	623.126E-3	-17.8926E-3
-4.43972E-3	-183.442E-12	699.302E-3	-7.42368E-3	-182.694E-12	639.748E-3	-23.2638E-3
-4.44472E-3	-182.753E-12	691.427E-3	-24.3795E-3	-181.859E-12	636.940E-3	-31.0011E-3
-4.44972E-3	-183.201E-12	666.987E-3	-27.3186E-3	-182.369E-12	631.167E-3	-32.7228E-3
-4.45473E-3	-183.088E-12	638.655E-3	-8.88912E-3	-181.752E-12	655.353E-3	-42.2379E-3
-4.45973E-3	-181.937E-12	636.914E-3	-15.8302E-3	-182.291E-12	673.037E-3	-57.0855E-3
-4.46473E-3	-182.683E-12	651.305E-3	-44.3647E-3	-183.323E-12	675.998E-3	-50.0067E-3
-4.46973E-3	-183.969E-12	651.623E-3	-63.1187E-3	-183.119E-12	674.528E-3	-35.7230E-3
-4.47474E-3	-183.326E-12	654.004E-3	-52.1268E-3	-182.569E-12	661.433E-3	-26.7432E-3
-4.47974E-3	-183.824E-12	662.196E-3	-13.0886E-3	-183.747E-12	661.467E-3	-9.06128E-3
-4.48474E-3	-185.091E-12	663.767E-3	6.56665E-3	-184.288E-12	677.148E-3	17.0473E-3
-4.48974E-3	-185.603E-12	661.361E-3	-24.6484E-3	-184.331E-12	673.085E-3	32.4217E-3
-4.49475E-3	-187.181E-12	659.448E-3	-34.0799E-3	-185.952E-12	655.934E-3	37.9588E-3
-4.49975E-3	-187.858E-12	667.682E-3	-11.9538E-3	-186.104E-12	649.964E-3	36.0078E-3
-4.50475E-3	-187.010E-12	668.945E-3	-23.2628E-3	-185.850E-12	644.034E-3	27.1210E-3
-4.50975E-3	-188.036E-12	671.600E-3	-50.7642E-3	-185.780E-12	648.980E-3	24.7511E-3
-4.51476E-3	-188.304E-12	692.731E-3	-64.3557E-3	-186.091E-12	677.490E-3	27.0536E-3
-4.51976E-3	-187.602E-12	698.127E-3	-49.0846E-3	-186.221E-12	675.757E-3	26.1381E-3
-4.52476E-3	-187.825E-12	687.760E-3	-14.8647E-3	-186.509E-12	648.988E-3	13.9236E-3
-4.52976E-3	-186.504E-12	690.242E-3	-9.71857E-3	-186.912E-12	643.291E-3	-7.76748E-3
-4.53477E-3	-186.219E-12	694.975E-3	-22.9546E-3	-187.264E-12	641.814E-3	-21.0140E-3
-4.53977E-3	-186.346E-12	694.870E-3	-16.1233E-3	-188.325E-12	658.303E-3	-4.42850E-3
-4.54477E-3	-186.294E-12	669.262E-3	-776.899E-6	-187.756E-12	687.879E-3	2.05082E-3
-4.54977E-3	-186.144E-12	626.088E-3	4.33495E-3	-188.006E-12	688.822E-3	-26.5050E-3
-4.55478E-3	-186.614E-12	616.814E-3	-5.96707E-3	-188.522E-12	684.575E-3	-51.5100E-3
-4.55978E-3	-186.682E-12	629.679E-3	-5.94057E-3	-188.339E-12	682.940E-3	-46.1322E-3
-4.56478E-3	-187.633E-12	635.750E-3	-6.39594E-3	-187.609E-12	664.775E-3	-5.80001E-3
-4.56978E-3	-187.571E-12	653.747E-3	-8.97483E-3	-188.247E-12	652.467E-3	22.6965E-3
-4.57479E-3	-188.433E-12	662.184E-3	16.3993E-3	-188.327E-12	647.253E-3	9.13103E-3
-4.57979E-3	-188.636E-12	640.503E-3	24.0718E-3	-187.267E-12	615.709E-3	-13.4990E-3
-4.58479E-3	-188.758E-12	619.275E-3	-1.80029E-3	-187.321E-12	585.702E-3	-7.80947E-3
-4.58979E-3	-188.107E-12	616.245E-3	-23.4881E-3	-187.217E-12	606.740E-3	7.47818E-3
-4.59480E-3	-188.472E-12	640.265E-3	-11.7273E-3	-187.358E-12	639.334E-3	-8.10695E-3
-4.59980E-3	-188.385E-12	668.154E-3	13.0445E-3	-187.626E-12	642.418E-3	-23.6276E-3
-4.60480E-3	-188.984E-12	679.388E-3	2.71620E-3	-188.537E-12	627.982E-3	-24.4935E-3
-4.60980E-3	-189.355E-12	676.428E-3	-17.0669E-3	-188.739E-12	614.852E-3	-13.7769E-3
-4.61481E-3	-189.604E-12	654.513E-3	-15.4403E-3	-188.925E-12	614.373E-3	18.1521E-3
-4.61981E-3	-189.565E-12	645.039E-3	-7.82587E-3	-189.827E-12	636.083E-3	20.6271E-3
-4.62481E-3	-191.105E-12	655.471E-3	-14.8157E-3	-190.141E-12	673.931E-3	-12.0985E-3
-4.62981E-3	-191.275E-12	650.689E-3	-29.7414E-3	-191.288E-12	682.936E-3	-24.3627E-3
-4.63482E-3	-191.584E-12	647.011E-3	-30.9094E-3	-192.264E-12	676.951E-3	-9.94966E-3
-4.63982E-3	-192.434E-12	646.809E-3	-25.9856E-3	-193.275E-12	707.203E-3	-7.19951E-3
-4.64482E-3	-193.226E-12	631.081E-3	-20.6709E-3	-192.420E-12	734.176E-3	-7.24679E-3
-4.64982E-3	-193.750E-12	633.218E-3	-7.48902E-3	-193.963E-12	711.608E-3	15.5848E-3
-4.65483E-3	-193.901E-12	656.708E-3	7.67473E-3	-193.588E-12	672.928E-3	14.8390E-3
-4.65983E-3	-194.338E-12	671.422E-3	10.4334E-3	-193.192E-12	667.294E-3	-12.0786E-3
-4.66483E-3	-194.428E-12	674.780E-3	10.2888E-3	-193.331E-12	678.217E-3	-2.68480E-3
-4.66983E-3	-193.289E-12	671.124E-3	12.8992E-3	-193.563E-12	668.151E-3	7.37553E-3
-4.67484E-3	-193.228E-12	666.645E-3	-3.58420E-3	-192.324E-12	634.137E-3	-15.5183E-3
-4.67984E-3	-193.144E-12	667.069E-3	-16.9895E-3	-192.648E-12	613.107E-3	-25.4735E-3
-4.68484E-3	-192.160E-12	668.184E-3	-11.8621E-3	-192.225E-12	617.363E-3	-9.06034E-3
-4.68984E-3	-190.979E-12	666.383E-3	-17.8493E-3	-192.357E-12	633.047E-3	9.67019E-3
-4.69485E-3	-190.905E-12	666.822E-3	-21.3902E-3	-193.011E-12	664.449E-3	11.2024E-3
-4.69985E-3	-191.298E-12	656.667E-3	-14.8518E-3	-193.895E-12	680.738E-3	2.77440E-3
-4.70485E-3	-190.951E-12	628.942E-3	-20.0856E-3	-194.322E-12	672.988E-3	5.24526E-3
-4.70985E-3	-191.417E-12	625.512E-3	-22.3059E-3	-195.721E-12	676.689E-3	13.5226E-3
-4.71486E-3	-191.156E-12	651.180E-3	-17.8808E-3	-197.226E-12	697.416E-3	-1.01419E-3
-4.71986E-3	-193.092E-12	654.924E-3	-7.70615E-3	-196.380E-12	703.159E-3	-22.7205E-3
-4.72486E-3	-193.681E-12	648.068E-3	9.28689E-3	-197.041E-12	703.730E-3	-21.6552E-3
-4.72986E-3	-194.770E-12	665.716E-3	9.37943E-3	-198.621E-12	704.553E-3	-29.6775E-3
-4.73487E-3	-195.637E-12	695.025E-3	-16.5991E-3	-197.617E-12	685.203E-3	-61.5816E-3
-4.73987E-3	-197.626E-12	703.935E-3	-26.0444E-3	-197.682E-12	665.999E-3	-61.4812E-3
-4.74487E-3	-197.425E-12	677.254E-3	-2.60202E-3	-198.733E-12	667.300E-3	-50.1225E-3
-4.74988E-3	-198.692E-12	661.229E-3	9.94345E-3	-198.276E-12	687.311E-3	-54.4992E-3
-4.75488E-3	-199.191E-12	666.674E-3	13.9359E-3	-197.485E-12	687.095E-3	-38.5527E-3
-4.75988E-3	-198.351E-12	672.229E-3	32.7442E-3	-198.053E-12	655.631E-3	-35.6948E-3
-4.76488E-3	-197.938E-12	672.390E-3	31.6928E-3	-197.410E-12	637.519E-3	-51.5220E-3
-4.76988E-3	-197.806E-12	671.790E-3	-11.0587E-3	-196.774E-12	634.012E-3	-42.3770E-3
-4.77489E-3	-196.790E-12	682.056E-3	-54.7980E-3	-196.751E-12	635.723E-3	-39.3130E-3
-4.77989E-3	-196.184E-12	677.150E-3	-57.3850E-3	-196.813E-12	662.087E-3	-56.0583E-3
-4.78489E-3	-195.469E-12	661.053E-3	-13.0064E-3	-197.175E-12	674.896E-3	-42.7346E-3
-4.78989E-3	-195.928E-12	656.066E-3	11.5452E-3	-197.037E-12	657.162E-3	-24.7572E-3
-4.79490E-3	-195.362E-12	658.009E-3	-1.85969E-3	-197.295E-12	644.718E-3	-29.7840E-3
-4.79990E-3	-195.988E-12	651.903E-3	-3.14676E-3	-197.848E-12	658.510E-3	-29.5851E-3
-4.80490E-3	-195.921E-12	643.532E-3	-6.95344E-3	-199.273E-12	690.296E-3	-28.7196E-3
-4.80990E-3	-197.511E-12	652.176E-3	-11.0762E-3	-199.423E-12	666.869E-3	-22.5700E-3
-4.81491E-3	-198.245E-12	657.045E-3	2.59085E-3	-200.196E-12	613.058E-3	-13.2632E-3
-4.81991E-3	-199.234E-12	633.366E-3	8.20950E-3	-200.835E-12	637.243E-3	-14.0457E-3
-4.82491E-3	-200.778E-12	616.868E-3	-1.82284E-3	-201.613E-12	681.236E-3	-16.5779E-3
-4.82991E-3	-202.620E-12	649.663E-3	-1.42090E-3	-200.321E-12	684.922E-3	6.82025E-3
-4.83492E-3	-202.619E-12	674.058E-3	12.1953E-3	-200.415E-12	689.371E-3	30.2181E-3
-4.83992E-3	-203.620E-12	671.539E-3	16.9263E-3	-199.464E-12	683.990E-3	23.9295E-3
-4.84492E-3	-204.253E-12	687.373E-3	6.30103E-3	-199.482E-12	688.453E-3	13.1437E-3
-4.84992E-3	-204.230E-12	696.595E-3	-8.36264E-3	-199.666E-12	713.289E-3	-9.06648E-3
-4.85493E-3	-203.997E-12	681.490E-3	-4.87478E-3	-199.872E-12	718.913E-3	-28.0601E-3
-4.85993E-3	-204.166E-12	673.639E-3	-6.09365E-3	-199.344E-12	701.383E-3	-39.9514E-3
-4.86493E-3	-203.247E-12	674.105E-3	-6.84773E-3	-199.146E-12	668.688E-3	-55.7666E-3
-4.86993E-3	-201.930E-12	673.088E-3	5.35018E-3	-198.904E-12	658.796E-3	-52.5632E-3
-4.87494E-3	-201.598E-12	675.276E-3	-447.335E-6	-199.296E-12	664.425E-3	-11.8741E-3
-4.87994E-3	-200.627E-12	676.398E-3	-18.0214E-3	-200.477E-12	670.044E-3	16.8255E-3
-4.88494E-3	-200.340E-12	661.209E-3	-22.7795E-3	-200.932E-12	682.055E-3	-3.22485E-3
-4.88995E-3	-200.536E-12	633.914E-3	-2.71783E-3	-201.521E-12	677.370E-3	-20.4391E-3
-4.89495E-3	-200.405E-12	615.976E-3	-5.49404E-3	-202.681E-12	680.806E-3	-24.1169E-3
-4.89995E-3	-199.968E-12	620.641E-3	-31.8693E-3	-204.489E-12	692.523E-3	-22.7922E-3
-4.90495E-3	-201.082E-12	649.575E-3	-34.7054E-3	-204.504E-12	681.411E-3	6.60911E-3
-4.90995E-3	-201.150E-12	677.048E-3	-47.3601E-3	-203.867E-12	667.448E-3	14.9619E-3
-4.91496E-3	-202.473E-12	703.234E-3	-53.7963E-3	-204.667E-12	660.049E-3	-10.0063E-3
-4.91996E-3	-202.752E-12	703.552E-3	-14.6083E-3	-205.673E-12	632.942E-3	2.25555E-3
-4.92496E-3	-203.747E-12	661.984E-3	1.35665E-3	-205.690E-12	611.944E-3	22.6445E-3
-4.92996E-3	-204.853E-12	646.956E-3	-6.75148E-3	-204.902E-12	642.851E-3	12.7981E-3
-4.93497E-3	-204.546E-12	679.699E-3	648.368E-6	-205.037E-12	680.015E-3	-2.29158E-3
-4.93997E-3	-204.345E-12	707.405E-3	-7.19680E-3	-204.763E-12	681.928E-3	-8.47123E-3
-4.94497E-3	-205.669E-12	721.522E-3	-16.1715E-3	-204.540E-12	659.349E-3	-15.6511E-3
-4.94997E-3	-205.038E-12	721.333E-3	-23.5121E-3	-204.109E-12	642.806E-3	-15.0978E-3
-4.95498E-3	-204.428E-12	694.100E-3	-30.4657E-3	-203.588E-12	651.484E-3	-3.79282E-3
-4.95998E-3	-204.827E-12	665.990E-3	-21.4053E-3	-204.068E-12	680.811E-3	-9.76994E-3
-4.96498E-3	-205.041E-12	648.562E-3	-13.6487E-3	-204.612E-12	705.992E-3	-38.8381E-3
-4.96998E-3	-205.239E-12	634.987E-3	-8.84567E-3	-204.933E-12	693.414E-3	-41.3455E-3
-4.97499E-3	-205.204E-12	651.816E-3	-6.79780E-3	-204.879E-12	660.510E-3	-19.5683E-3
-4.97999E-3	-205.127E-12	673.747E-3	1.94907E-3	-205.734E-12	619.923E-3	-32.2520E-3
-4.98499E-3	-205.563E-12	662.056E-3	10.7336E-3	-205.668E-12	599.831E-3	-47.9857E-3
-4.98999E-3	-205.991E-12	655.361E-3	-7.48660E-3	-206.640E-12	614.622E-3	-36.2720E-3
-4.99500E-3	-205.916E-12	649.491E-3	-27.7971E-3	-206.200E-12	612.395E-3	-32.2636E-3
-5.00000E-3	-206.319E-12	625.619E-3	-34.9815E-3	-206.633E-12	606.310E-3	-37.9490E-3
