Experiment	bias spectroscopy	
Date	19.01.2016 17:58:41	
User		
X (m)	50.0125E-9	
Y (m)	256.824E-9	
Z (m)	-132.525E-9	
Z offset (m)	0E+0	
Settling time (s)	200E-6	
Integration time (s)	5E-3	
Z-Ctrl hold	TRUE	
Final Z (m)	N/A	
Filter type	None	
Order		
Cutoff frq		
Comment01	MnPc/Pb(111)	
Comment02	dz =00pm	
Comment03	7 Sweeps	
Comment04	MagField =0.T	
Comment05	Divider 1:10	
Comment06	Setpoint:5mV,200 pA	
Comment07	Lockin: 50uVrms,5ms,5mV	
Comment08	Gain:9; 912Hz modulation	
Comment09	T=1.06K	
Bias>Bias (V)	5E-3	
Bias>Calibration (V/V)	81.475E-3	
Bias>Offset (V)	1.046E-3	
Bias Spectroscopy>Sweep Start (V)	5E-3	
Bias Spectroscopy>Sweep End (V)	-5E-3	
Bias Spectroscopy>Num Pixel	2000	
Bias Spectroscopy>Z Avg time (s)	500E-3	
Bias Spectroscopy>Z offset (m)	0E+0	
Bias Spectroscopy>1st Settling time (s)	500E-3	
Bias Spectroscopy>Settling time (s)	200E-6	
Bias Spectroscopy>Integration time (s)	5E-3	
Bias Spectroscopy>End Settling time (s)	500E-3	
Bias Spectroscopy>Z control time (s)	500E-3	
Bias Spectroscopy>Max Slew rate (V/s)	Inf	
Bias Spectroscopy>backward sweep	TRUE	
Bias Spectroscopy>Z-controller hold	TRUE	
Bias Spectroscopy>Number of sweeps	7	
Bias Spectroscopy>Channels	Current (A);X% LockIn (V);Y% LockIn (V)	
Bias Spectroscopy>Reset Bias	TRUE	
Bias Spectroscopy>Record final Z	FALSE	
Bias Spectroscopy>Lock-In run	FALSE	
Bias Spectroscopy>Sweep mode	Linear	
Bias Spectroscopy>MultiLine Settings : Segment Start (V), Segment End (V), Settling (s), Integration (s), Steps (xn)	100E-3,3.3E-3,100E-6,10E-3,2500;3.3E-3,-3.3E-3,100E-6,10E-3,10;-3.3E-3,-100E-3,100E-6,10E-3,2500	
Current>Current (A)	200.036E-12	
Current>Calibration (A/V)	999.99900E-12	
Current>Offset (A)	-455.429E-15	
Current>Gain	LN 10^9	
Z-Controller>Z (m)	-132.525E-9	
Z-Controller>Controller name	log Current	
Z-Controller>Controller status	ON	
Z-Controller>Setpoint	200E-12	
Z-Controller>Setpoint unit	A	
Z-Controller>P gain	2.96994E-12	
Z-Controller>I gain	67.0321E-9	
Z-Controller>Time const (s)	44.3062E-6	
Z-Controller>TipLift (m)	0E+0	
Z-Controller>Switch off delay (s)	50E-3	

[DATA]
Bias calc (V)	Current (A)	X% LockIn (V)	Y% LockIn (V)	Current [bwd] (A)	X% LockIn [bwd] (V)	Y% LockIn [bwd] (V)
5.00000E-3	191.358E-12	478.428E-3	-45.1181E-3	192.084E-12	452.937E-3	20.6359E-3
4.99500E-3	193.779E-12	490.698E-3	-30.3029E-3	192.210E-12	456.716E-3	8.77502E-3
4.98999E-3	196.187E-12	491.817E-3	-22.9847E-3	192.324E-12	459.872E-3	-16.1614E-3
4.98499E-3	198.199E-12	483.196E-3	-11.8171E-3	191.940E-12	460.788E-3	-33.3363E-3
4.97999E-3	199.134E-12	477.080E-3	-12.2451E-3	192.294E-12	469.559E-3	-19.4772E-3
4.97499E-3	202.166E-12	476.823E-3	-28.5261E-3	193.782E-12	498.044E-3	5.68794E-3
4.96998E-3	205.170E-12	486.743E-3	-22.1097E-3	197.240E-12	518.785E-3	17.9226E-3
4.96498E-3	206.820E-12	504.388E-3	-30.7862E-3	198.516E-12	494.832E-3	17.5064E-3
4.95998E-3	206.768E-12	531.490E-3	-56.6351E-3	200.852E-12	480.534E-3	5.54075E-3
4.95498E-3	207.439E-12	541.700E-3	-46.0051E-3	202.469E-12	488.028E-3	-5.32704E-3
4.94997E-3	209.641E-12	506.639E-3	-13.0043E-3	204.183E-12	473.062E-3	-14.9634E-3
4.94497E-3	207.442E-12	478.656E-3	6.80433E-3	205.280E-12	480.621E-3	-26.8447E-3
4.93997E-3	204.744E-12	498.440E-3	15.5598E-3	204.421E-12	532.944E-3	-40.9347E-3
4.93497E-3	202.327E-12	534.823E-3	3.49829E-3	203.311E-12	543.101E-3	-45.4767E-3
4.92996E-3	202.153E-12	546.418E-3	-14.4035E-3	202.101E-12	511.902E-3	-26.8883E-3
4.92496E-3	199.796E-12	538.763E-3	-19.1300E-3	201.246E-12	504.891E-3	-27.3767E-3
4.91996E-3	196.886E-12	513.576E-3	-43.2333E-3	199.717E-12	497.890E-3	-25.7989E-3
4.91496E-3	193.349E-12	478.513E-3	-66.1426E-3	197.029E-12	473.044E-3	-10.0967E-3
4.90995E-3	193.238E-12	466.748E-3	-46.0726E-3	195.951E-12	459.838E-3	-11.6871E-3
4.90495E-3	193.403E-12	473.107E-3	-26.6804E-3	195.066E-12	461.467E-3	-5.15261E-3
4.89995E-3	192.771E-12	478.444E-3	-40.8697E-3	193.276E-12	473.347E-3	-9.70094E-3
4.89495E-3	190.437E-12	485.139E-3	-31.6049E-3	190.463E-12	507.437E-3	-36.9078E-3
4.88995E-3	190.892E-12	496.187E-3	446.786E-6	190.002E-12	524.968E-3	-57.5116E-3
4.88494E-3	192.694E-12	502.153E-3	2.17557E-3	190.784E-12	514.200E-3	-53.2778E-3
4.87994E-3	194.620E-12	503.366E-3	-18.3434E-3	191.667E-12	507.171E-3	-20.8715E-3
4.87494E-3	194.691E-12	501.407E-3	-16.3587E-3	191.817E-12	489.286E-3	-9.98113E-3
4.86993E-3	194.137E-12	496.354E-3	205.253E-6	191.943E-12	475.026E-3	-30.3287E-3
4.86493E-3	195.939E-12	484.804E-3	-1.12162E-3	193.858E-12	499.351E-3	-44.2113E-3
4.85993E-3	198.893E-12	490.632E-3	-14.4803E-3	196.826E-12	514.099E-3	-60.9664E-3
4.85493E-3	200.880E-12	517.600E-3	-30.0422E-3	198.620E-12	505.872E-3	-53.3151E-3
4.84992E-3	200.295E-12	536.684E-3	-29.2665E-3	199.437E-12	515.373E-3	-35.0949E-3
4.84492E-3	199.123E-12	506.730E-3	-3.98123E-3	199.213E-12	530.080E-3	-40.0362E-3
4.83992E-3	200.152E-12	478.415E-3	7.48166E-3	201.266E-12	528.224E-3	-46.4911E-3
4.83492E-3	198.705E-12	503.643E-3	-19.2141E-3	201.978E-12	505.848E-3	-70.2986E-3
4.82991E-3	196.158E-12	513.929E-3	-29.6932E-3	202.581E-12	466.843E-3	-77.2255E-3
4.82491E-3	193.183E-12	513.815E-3	-15.0013E-3	200.567E-12	464.511E-3	-42.7468E-3
4.81991E-3	190.889E-12	523.869E-3	-10.4608E-3	199.180E-12	500.486E-3	-7.62900E-3
4.81491E-3	190.066E-12	514.562E-3	-8.99636E-3	199.206E-12	507.021E-3	6.49254E-3
4.80990E-3	189.142E-12	485.850E-3	-10.1914E-3	198.231E-12	503.644E-3	6.58332E-3
4.80490E-3	187.529E-12	485.329E-3	-10.9369E-3	196.056E-12	517.942E-3	4.25144E-3
4.79990E-3	185.559E-12	491.330E-3	-10.7861E-3	193.899E-12	524.199E-3	-10.6408E-3
4.79490E-3	186.500E-12	471.347E-3	-23.8291E-3	192.452E-12	507.608E-3	-43.7394E-3
4.78989E-3	187.629E-12	486.693E-3	-26.9058E-3	191.932E-12	478.879E-3	-69.0655E-3
4.78489E-3	187.516E-12	525.991E-3	-20.4780E-3	189.471E-12	464.710E-3	-63.5133E-3
4.77989E-3	186.449E-12	526.237E-3	-53.8763E-3	187.372E-12	482.847E-3	-54.5337E-3
4.77489E-3	187.928E-12	515.556E-3	-90.9569E-3	188.903E-12	501.033E-3	-53.3823E-3
4.76988E-3	191.694E-12	507.279E-3	-64.4871E-3	189.737E-12	516.400E-3	-37.0309E-3
4.76488E-3	194.267E-12	489.384E-3	-1.22314E-3	188.961E-12	540.340E-3	-39.6398E-3
4.75988E-3	195.222E-12	469.542E-3	26.5908E-3	190.678E-12	538.761E-3	-41.4377E-3
4.75488E-3	196.552E-12	475.411E-3	18.3269E-3	192.841E-12	536.324E-3	-5.43798E-3
4.74988E-3	198.270E-12	508.480E-3	-23.3299E-3	195.035E-12	538.598E-3	2.12767E-3
4.74487E-3	200.255E-12	516.753E-3	-61.5995E-3	195.068E-12	522.368E-3	-13.8591E-3
4.73987E-3	200.403E-12	512.586E-3	-38.1316E-3	195.074E-12	527.514E-3	-14.2469E-3
4.73487E-3	199.100E-12	511.796E-3	-29.6388E-3	196.854E-12	535.704E-3	-23.0910E-3
4.72986E-3	197.224E-12	523.149E-3	-54.0987E-3	199.998E-12	531.691E-3	-30.8855E-3
4.72486E-3	195.680E-12	532.750E-3	-49.3237E-3	199.912E-12	549.928E-3	-37.0204E-3
4.71986E-3	195.525E-12	522.035E-3	-15.2093E-3	197.651E-12	545.702E-3	-40.1375E-3
4.71486E-3	194.837E-12	527.348E-3	14.3045E-3	197.433E-12	512.198E-3	-16.1224E-3
4.70985E-3	192.938E-12	523.825E-3	15.0488E-3	197.403E-12	486.183E-3	10.0853E-3
4.70485E-3	190.388E-12	493.129E-3	-14.5556E-3	196.488E-12	473.987E-3	3.31022E-3
4.69985E-3	190.833E-12	479.272E-3	-67.7686E-3	191.850E-12	468.167E-3	-14.2004E-3
4.69485E-3	190.194E-12	484.425E-3	-94.0052E-3	188.369E-12	476.653E-3	-23.8725E-3
4.68984E-3	188.814E-12	477.424E-3	-52.1695E-3	185.757E-12	499.210E-3	-40.2806E-3
4.68484E-3	187.026E-12	474.307E-3	-5.91943E-3	184.550E-12	505.661E-3	-38.8434E-3
4.67984E-3	188.424E-12	497.309E-3	-336.426E-6	182.388E-12	503.005E-3	878.812E-6
4.67484E-3	189.288E-12	526.424E-3	-1.90056E-3	180.037E-12	496.132E-3	27.4211E-3
4.66983E-3	188.861E-12	535.280E-3	11.1466E-3	179.616E-12	487.666E-3	20.7830E-3
4.66483E-3	187.606E-12	536.105E-3	24.1602E-3	180.420E-12	494.509E-3	-8.63973E-3
4.65983E-3	189.695E-12	539.130E-3	30.2390E-3	182.553E-12	507.470E-3	-43.4423E-3
4.65483E-3	191.862E-12	539.092E-3	29.3007E-3	182.912E-12	546.337E-3	-38.1755E-3
4.64982E-3	192.883E-12	526.289E-3	16.8669E-3	185.605E-12	590.286E-3	-20.3433E-3
4.64482E-3	194.175E-12	509.632E-3	17.2956E-3	188.415E-12	578.972E-3	-10.9667E-3
4.63982E-3	194.058E-12	512.152E-3	9.28196E-3	191.364E-12	535.165E-3	-6.82494E-3
4.63482E-3	194.689E-12	517.525E-3	-23.2961E-3	192.830E-12	516.546E-3	-29.1843E-3
4.62981E-3	194.976E-12	515.359E-3	-49.1583E-3	192.004E-12	531.337E-3	-45.5137E-3
4.62481E-3	195.042E-12	498.027E-3	-58.6126E-3	192.962E-12	542.877E-3	-30.4060E-3
4.61981E-3	192.947E-12	482.961E-3	-36.1592E-3	194.811E-12	538.422E-3	-19.0174E-3
4.61481E-3	191.030E-12	508.804E-3	-4.94682E-3	194.113E-12	518.760E-3	-10.4529E-3
4.60980E-3	189.452E-12	550.664E-3	-7.21698E-3	192.311E-12	504.801E-3	-24.5407E-3
4.60480E-3	187.891E-12	564.451E-3	-40.1476E-3	191.075E-12	503.440E-3	-54.3248E-3
4.59980E-3	185.278E-12	553.506E-3	-66.2607E-3	188.484E-12	500.233E-3	-33.3860E-3
4.59480E-3	183.207E-12	524.334E-3	-61.6715E-3	186.290E-12	503.231E-3	-7.73726E-3
4.58979E-3	181.399E-12	483.766E-3	-59.9760E-3	183.706E-12	514.550E-3	-12.0502E-3
4.58479E-3	181.481E-12	471.880E-3	-77.7587E-3	181.058E-12	512.178E-3	2.46788E-3
4.57979E-3	180.904E-12	485.687E-3	-78.2262E-3	179.377E-12	491.883E-3	25.3455E-3
4.57479E-3	180.010E-12	488.714E-3	-53.4180E-3	179.383E-12	461.500E-3	29.0325E-3
4.56978E-3	180.412E-12	491.635E-3	-8.93507E-3	178.550E-12	447.565E-3	12.8245E-3
4.56478E-3	181.206E-12	492.740E-3	18.0128E-3	178.165E-12	480.403E-3	-12.7098E-3
4.55978E-3	182.150E-12	482.280E-3	2.74776E-3	179.405E-12	506.125E-3	-27.8042E-3
4.55478E-3	183.421E-12	488.664E-3	-16.4079E-3	182.977E-12	497.608E-3	-23.9455E-3
4.54977E-3	184.037E-12	517.896E-3	-18.2544E-3	185.380E-12	506.173E-3	-10.6571E-3
4.54477E-3	185.979E-12	528.804E-3	-9.37596E-3	185.123E-12	531.701E-3	11.1079E-3
4.53977E-3	185.911E-12	508.713E-3	8.97092E-3	185.602E-12	541.617E-3	18.2208E-3
4.53477E-3	188.943E-12	506.175E-3	22.6758E-3	189.201E-12	558.952E-3	-17.9929E-3
4.52976E-3	189.366E-12	519.040E-3	-7.41656E-3	190.658E-12	566.316E-3	-52.2132E-3
4.52476E-3	190.239E-12	537.022E-3	-28.1106E-3	191.587E-12	519.662E-3	-33.7102E-3
4.51976E-3	188.301E-12	553.375E-3	-20.4204E-3	190.546E-12	499.953E-3	1.42877E-3
4.51476E-3	187.946E-12	541.278E-3	-35.2457E-3	192.431E-12	519.428E-3	-1.46556E-3
4.50975E-3	186.461E-12	541.571E-3	-53.5206E-3	192.134E-12	506.664E-3	-17.9158E-3
4.50475E-3	184.909E-12	550.792E-3	-56.0050E-3	189.691E-12	486.591E-3	-25.1528E-3
4.49975E-3	184.137E-12	525.977E-3	-36.1613E-3	188.546E-12	493.416E-3	-29.8520E-3
4.49475E-3	180.676E-12	500.585E-3	2.66227E-3	187.210E-12	507.926E-3	-6.68952E-3
4.48974E-3	179.185E-12	501.463E-3	26.9987E-3	187.545E-12	495.609E-3	9.55606E-3
4.48474E-3	178.980E-12	516.611E-3	9.52181E-3	184.731E-12	497.747E-3	-3.27971E-3
4.47974E-3	178.839E-12	516.874E-3	-22.8368E-3	181.945E-12	523.898E-3	-9.93970E-3
4.47474E-3	177.137E-12	482.723E-3	-40.1487E-3	181.382E-12	528.321E-3	-2.05514E-3
4.46973E-3	177.194E-12	471.826E-3	-44.0700E-3	182.728E-12	509.547E-3	14.8577E-3
4.46473E-3	178.324E-12	504.078E-3	-35.5373E-3	180.861E-12	486.323E-3	5.04715E-3
4.45973E-3	179.600E-12	511.597E-3	-25.0098E-3	180.830E-12	485.872E-3	-14.1697E-3
4.45473E-3	180.561E-12	496.026E-3	-23.3508E-3	180.474E-12	496.239E-3	-7.25907E-3
4.44972E-3	181.021E-12	496.556E-3	-18.7816E-3	181.804E-12	502.995E-3	-8.98590E-3
4.44472E-3	183.279E-12	492.818E-3	-10.2112E-3	183.265E-12	500.945E-3	-30.7901E-3
4.43972E-3	184.869E-12	484.622E-3	-3.91584E-3	183.338E-12	489.874E-3	-55.5185E-3
4.43472E-3	186.958E-12	494.440E-3	-9.16700E-3	183.029E-12	504.879E-3	-57.8073E-3
4.42971E-3	187.907E-12	506.321E-3	-38.0647E-3	182.133E-12	537.867E-3	-19.8838E-3
4.42471E-3	189.294E-12	528.748E-3	-53.1195E-3	184.963E-12	532.533E-3	33.6252E-3
4.41971E-3	190.229E-12	535.105E-3	-35.3487E-3	184.958E-12	501.266E-3	50.5050E-3
4.41471E-3	188.918E-12	528.075E-3	2.38496E-3	184.488E-12	504.449E-3	5.71343E-3
4.40970E-3	187.269E-12	554.007E-3	-1.16225E-3	182.857E-12	523.126E-3	-51.8012E-3
4.40470E-3	184.666E-12	558.500E-3	-47.5001E-3	183.844E-12	513.083E-3	-57.7689E-3
4.39970E-3	184.573E-12	534.171E-3	-38.8319E-3	184.232E-12	504.749E-3	-41.3056E-3
4.39470E-3	183.304E-12	512.300E-3	-5.98691E-3	182.859E-12	506.234E-3	-27.8583E-3
4.38969E-3	181.346E-12	496.517E-3	-12.7073E-3	179.341E-12	498.346E-3	-5.06976E-3
4.38469E-3	178.975E-12	498.182E-3	-23.4379E-3	179.324E-12	505.040E-3	-10.1694E-3
4.37969E-3	178.681E-12	490.090E-3	-24.0371E-3	179.927E-12	514.705E-3	-50.6498E-3
4.37469E-3	180.299E-12	470.331E-3	-50.9792E-3	177.509E-12	499.600E-3	-67.3038E-3
4.36968E-3	179.116E-12	494.023E-3	-50.9089E-3	175.189E-12	478.777E-3	-52.4072E-3
4.36468E-3	177.096E-12	537.104E-3	-6.89193E-3	172.847E-12	481.843E-3	-50.9529E-3
4.35968E-3	176.545E-12	541.128E-3	-685.652E-6	173.438E-12	490.840E-3	-48.2480E-3
4.35468E-3	178.747E-12	533.300E-3	-26.3141E-3	173.515E-12	478.617E-3	-38.9392E-3
4.34967E-3	178.456E-12	512.666E-3	-34.0666E-3	171.377E-12	486.029E-3	-35.7169E-3
4.34467E-3	178.641E-12	488.485E-3	-26.9417E-3	170.769E-12	507.307E-3	-20.5445E-3
4.33967E-3	177.538E-12	502.645E-3	-25.4806E-3	171.547E-12	499.411E-3	8.19208E-3
4.33467E-3	179.294E-12	529.282E-3	-30.1391E-3	174.648E-12	486.102E-3	15.3616E-3
4.32966E-3	181.381E-12	516.723E-3	-29.0216E-3	176.199E-12	500.109E-3	-19.2935E-3
4.32466E-3	181.656E-12	481.586E-3	-31.0162E-3	176.926E-12	533.474E-3	-27.4981E-3
4.31966E-3	181.229E-12	473.819E-3	-9.80437E-3	178.006E-12	540.289E-3	3.17868E-3
4.31466E-3	180.853E-12	499.174E-3	39.7843E-3	181.209E-12	508.617E-3	24.2271E-3
4.30965E-3	181.910E-12	529.749E-3	43.3134E-3	184.173E-12	490.832E-3	17.2658E-3
4.30465E-3	181.737E-12	533.420E-3	7.21454E-3	183.607E-12	523.995E-3	-10.2452E-3
4.29965E-3	180.470E-12	524.038E-3	-33.1928E-3	183.218E-12	562.570E-3	-13.8074E-3
4.29465E-3	177.640E-12	538.777E-3	-54.4480E-3	185.072E-12	561.841E-3	1.73194E-3
4.28964E-3	176.691E-12	550.763E-3	-21.8000E-3	185.354E-12	536.170E-3	8.76649E-3
4.28464E-3	176.619E-12	508.424E-3	-2.76181E-3	184.679E-12	504.865E-3	-9.81703E-3
4.27964E-3	176.118E-12	480.797E-3	-28.3130E-3	182.100E-12	498.865E-3	-31.1456E-3
4.27464E-3	173.822E-12	498.489E-3	-29.5879E-3	179.468E-12	532.526E-3	-13.3760E-3
4.26963E-3	170.672E-12	503.083E-3	-26.6133E-3	177.660E-12	547.932E-3	7.24905E-3
4.26463E-3	171.216E-12	496.639E-3	-47.8029E-3	176.488E-12	519.596E-3	2.10908E-3
4.25963E-3	172.198E-12	482.911E-3	-48.4846E-3	173.624E-12	486.355E-3	-20.6058E-3
4.25463E-3	170.819E-12	483.670E-3	-22.3241E-3	171.098E-12	482.216E-3	-60.1624E-3
4.24962E-3	168.550E-12	521.047E-3	-11.3134E-3	168.944E-12	493.796E-3	-67.1985E-3
4.24462E-3	168.827E-12	537.144E-3	-21.7719E-3	169.741E-12	489.415E-3	-24.6320E-3
4.23962E-3	170.387E-12	503.095E-3	-28.4452E-3	169.148E-12	491.171E-3	-14.2914E-3
4.23462E-3	172.651E-12	468.420E-3	-36.0312E-3	169.808E-12	490.533E-3	-38.4318E-3
4.22961E-3	172.975E-12	468.421E-3	-33.2032E-3	171.277E-12	506.695E-3	-33.9375E-3
4.22461E-3	174.168E-12	469.757E-3	-24.3337E-3	173.914E-12	545.272E-3	-18.3473E-3
4.21961E-3	175.998E-12	463.776E-3	-35.9249E-3	176.023E-12	553.733E-3	-8.28458E-3
4.21461E-3	178.394E-12	485.445E-3	-47.1872E-3	177.969E-12	551.321E-3	1.73642E-3
4.20960E-3	179.400E-12	510.000E-3	-24.9691E-3	178.019E-12	547.207E-3	1.31529E-3
4.20460E-3	178.626E-12	514.512E-3	-9.87898E-3	179.264E-12	537.129E-3	-13.3372E-3
4.19960E-3	177.131E-12	510.327E-3	-26.5948E-3	181.766E-12	550.758E-3	-56.0301E-3
4.19460E-3	176.319E-12	501.732E-3	-39.1390E-3	182.851E-12	555.479E-3	-64.1235E-3
4.18959E-3	177.391E-12	491.452E-3	-61.8149E-3	180.713E-12	517.649E-3	-4.20056E-3
4.18459E-3	175.746E-12	509.465E-3	-57.5759E-3	178.882E-12	477.344E-3	10.3834E-3
4.17959E-3	173.410E-12	533.887E-3	-15.4677E-3	179.082E-12	475.070E-3	-29.5526E-3
4.17459E-3	170.920E-12	530.791E-3	-11.2066E-3	177.843E-12	498.575E-3	-34.3691E-3
4.16958E-3	170.055E-12	525.887E-3	-17.6120E-3	173.963E-12	502.498E-3	-9.84936E-3
4.16458E-3	169.208E-12	510.268E-3	-10.7534E-3	170.829E-12	484.361E-3	5.38874E-3
4.15958E-3	166.735E-12	490.340E-3	-18.8981E-3	169.499E-12	475.469E-3	-3.44762E-3
4.15458E-3	166.561E-12	504.517E-3	-24.5837E-3	169.209E-12	493.363E-3	-11.5718E-3
4.14957E-3	167.280E-12	513.847E-3	-8.30838E-3	166.211E-12	524.696E-3	6.51948E-3
4.14457E-3	168.725E-12	488.130E-3	8.69062E-3	164.832E-12	536.428E-3	21.0780E-3
4.13957E-3	168.599E-12	478.936E-3	-6.81213E-3	165.290E-12	515.668E-3	8.72547E-3
4.13457E-3	169.584E-12	493.104E-3	-19.2416E-3	168.223E-12	500.266E-3	-6.45299E-3
4.12956E-3	171.195E-12	505.253E-3	-10.4878E-3	167.833E-12	524.711E-3	2.83092E-3
4.12456E-3	173.580E-12	532.513E-3	-29.1506E-3	168.749E-12	557.939E-3	13.1603E-3
4.11956E-3	174.645E-12	554.379E-3	-40.7009E-3	169.959E-12	556.687E-3	17.8243E-3
4.11456E-3	175.417E-12	526.017E-3	-9.99390E-3	172.493E-12	528.302E-3	21.3256E-3
4.10955E-3	175.969E-12	512.690E-3	16.5520E-3	171.547E-12	529.243E-3	-10.5879E-3
4.10455E-3	177.792E-12	538.888E-3	12.3897E-3	173.142E-12	547.249E-3	-49.4815E-3
4.09955E-3	177.955E-12	542.308E-3	-13.2980E-3	174.437E-12	540.606E-3	-50.8773E-3
4.09455E-3	177.518E-12	539.609E-3	-27.8910E-3	175.442E-12	526.040E-3	-39.9502E-3
4.08954E-3	174.877E-12	528.435E-3	-20.9388E-3	174.664E-12	514.946E-3	-22.5079E-3
4.08454E-3	174.871E-12	508.551E-3	-37.7180E-3	173.139E-12	504.122E-3	-2.43824E-3
4.07954E-3	173.174E-12	504.514E-3	-63.1080E-3	172.445E-12	502.881E-3	-4.61554E-3
4.07454E-3	170.126E-12	501.228E-3	-33.5050E-3	172.280E-12	521.571E-3	-24.5354E-3
4.06953E-3	168.365E-12	485.108E-3	5.07525E-3	170.191E-12	526.801E-3	-31.0865E-3
4.06453E-3	167.063E-12	466.808E-3	5.06055E-3	167.942E-12	494.879E-3	-14.5684E-3
4.05953E-3	166.383E-12	491.182E-3	-4.63021E-3	166.742E-12	476.048E-3	-21.0698E-3
4.05453E-3	163.428E-12	525.197E-3	-25.4604E-3	166.538E-12	501.181E-3	-36.2048E-3
4.04952E-3	161.816E-12	525.052E-3	-66.1507E-3	164.125E-12	540.556E-3	-38.1121E-3
4.04452E-3	162.260E-12	515.695E-3	-76.8932E-3	163.614E-12	554.567E-3	-48.1550E-3
4.03952E-3	163.837E-12	502.175E-3	-48.6523E-3	163.839E-12	534.248E-3	-49.9697E-3
4.03452E-3	163.003E-12	497.023E-3	-23.7367E-3	164.776E-12	517.763E-3	-52.5117E-3
4.02951E-3	162.044E-12	507.864E-3	-16.6496E-3	163.944E-12	508.974E-3	-41.2774E-3
4.02451E-3	162.461E-12	506.303E-3	-7.68175E-3	165.156E-12	499.378E-3	-13.0437E-3
4.01951E-3	163.827E-12	507.391E-3	-7.93262E-3	166.179E-12	518.956E-3	-7.52695E-3
4.01451E-3	166.206E-12	525.742E-3	-14.5108E-3	166.692E-12	527.240E-3	-21.8297E-3
4.00950E-3	164.487E-12	542.284E-3	-12.1798E-3	167.605E-12	520.020E-3	-38.9471E-3
4.00450E-3	164.450E-12	539.677E-3	-22.3103E-3	167.618E-12	525.045E-3	-50.8425E-3
3.99950E-3	164.302E-12	516.675E-3	-23.9430E-3	168.786E-12	526.740E-3	-53.2592E-3
3.99450E-3	167.377E-12	493.865E-3	-20.4622E-3	170.339E-12	530.446E-3	-42.2955E-3
3.98949E-3	166.541E-12	489.860E-3	-17.8286E-3	170.674E-12	530.898E-3	-17.3059E-3
3.98449E-3	164.564E-12	506.441E-3	-9.86377E-3	170.973E-12	518.885E-3	14.3387E-3
3.97949E-3	162.810E-12	519.059E-3	-13.0890E-3	170.380E-12	514.729E-3	26.1396E-3
3.97449E-3	164.619E-12	524.363E-3	-14.8287E-3	171.948E-12	523.436E-3	3.88661E-3
3.96948E-3	164.732E-12	511.998E-3	-14.1884E-3	172.253E-12	531.253E-3	-10.2024E-3
3.96448E-3	161.287E-12	497.382E-3	-20.9306E-3	171.235E-12	530.338E-3	-996.460E-6
3.95948E-3	160.305E-12	509.309E-3	-31.2993E-3	168.988E-12	510.930E-3	-4.11969E-3
3.95448E-3	161.149E-12	529.058E-3	-48.7290E-3	168.698E-12	487.197E-3	-27.6811E-3
3.94947E-3	160.955E-12	537.178E-3	-55.1168E-3	168.653E-12	472.114E-3	-39.2962E-3
3.94447E-3	159.301E-12	510.878E-3	-29.1013E-3	166.499E-12	479.525E-3	-31.4874E-3
3.93947E-3	157.126E-12	494.308E-3	2.44743E-3	165.053E-12	498.856E-3	-24.8969E-3
3.93447E-3	159.134E-12	512.799E-3	13.0983E-3	163.889E-12	506.954E-3	-22.7457E-3
3.92946E-3	159.604E-12	514.111E-3	-1.74850E-3	162.930E-12	517.151E-3	-19.2015E-3
3.92446E-3	158.992E-12	528.132E-3	-1.79197E-3	162.254E-12	523.299E-3	-14.5009E-3
3.91946E-3	159.092E-12	537.153E-3	18.2578E-3	162.375E-12	516.370E-3	8.14201E-3
3.91446E-3	161.249E-12	509.894E-3	11.5296E-3	161.278E-12	523.234E-3	34.0169E-3
3.90945E-3	162.180E-12	504.366E-3	-10.8609E-3	161.321E-12	535.956E-3	2.82372E-3
3.90445E-3	163.520E-12	521.936E-3	-11.7522E-3	160.861E-12	520.118E-3	-45.0898E-3
3.89945E-3	164.244E-12	546.022E-3	3.81582E-3	161.939E-12	514.433E-3	-38.8521E-3
3.89445E-3	166.667E-12	554.341E-3	4.44924E-3	162.473E-12	539.174E-3	-7.66628E-3
3.88944E-3	167.576E-12	536.278E-3	-13.2983E-3	163.836E-12	573.773E-3	14.5530E-3
3.88444E-3	168.343E-12	512.692E-3	-30.7052E-3	165.733E-12	588.898E-3	29.0985E-3
3.87944E-3	168.464E-12	524.206E-3	-26.3411E-3	166.500E-12	559.880E-3	21.7171E-3
3.87444E-3	168.168E-12	562.669E-3	-6.94322E-3	167.537E-12	524.350E-3	-7.03798E-3
3.86943E-3	168.811E-12	557.648E-3	1.39919E-3	168.044E-12	527.164E-3	-20.0357E-3
3.86443E-3	166.896E-12	530.981E-3	-15.7880E-3	168.505E-12	556.116E-3	-14.1617E-3
3.85943E-3	165.543E-12	529.721E-3	-31.9999E-3	167.865E-12	547.071E-3	-24.6666E-3
3.85443E-3	163.990E-12	527.797E-3	-20.1723E-3	165.959E-12	510.910E-3	-43.8784E-3
3.84942E-3	162.994E-12	523.392E-3	-6.69939E-3	164.944E-12	519.564E-3	-36.3434E-3
3.84442E-3	161.499E-12	525.208E-3	15.1375E-3	162.165E-12	541.405E-3	-19.4471E-3
3.83942E-3	159.299E-12	513.233E-3	38.5693E-3	160.666E-12	520.659E-3	-9.15207E-3
3.83442E-3	158.449E-12	492.629E-3	22.8399E-3	159.282E-12	487.350E-3	-7.77654E-3
3.82941E-3	157.505E-12	507.844E-3	-10.2040E-3	156.858E-12	475.231E-3	-22.4482E-3
3.82441E-3	158.061E-12	520.440E-3	-22.7583E-3	154.311E-12	479.189E-3	-22.6635E-3
3.81941E-3	157.250E-12	498.339E-3	-21.4345E-3	153.546E-12	505.339E-3	-7.50714E-3
3.81441E-3	156.631E-12	490.294E-3	-18.3776E-3	153.884E-12	529.269E-3	-11.4932E-3
3.80940E-3	157.041E-12	483.180E-3	-11.1798E-3	154.525E-12	516.246E-3	-13.8901E-3
3.80440E-3	158.487E-12	485.041E-3	-9.88789E-3	154.059E-12	514.169E-3	-2.35717E-3
3.79940E-3	160.618E-12	512.062E-3	-12.8098E-3	155.464E-12	521.395E-3	-14.3334E-3
3.79440E-3	159.557E-12	522.541E-3	1.08956E-3	157.916E-12	510.783E-3	-31.8458E-3
3.78939E-3	160.370E-12	514.861E-3	2.24984E-3	161.355E-12	523.452E-3	-34.5378E-3
3.78439E-3	162.719E-12	512.308E-3	-20.4434E-3	162.779E-12	530.314E-3	-34.1155E-3
3.77939E-3	165.623E-12	525.882E-3	-30.7036E-3	164.278E-12	511.493E-3	-38.5556E-3
3.77439E-3	163.820E-12	530.969E-3	-50.8366E-3	165.457E-12	515.763E-3	-47.7372E-3
3.76938E-3	161.704E-12	523.927E-3	-83.0031E-3	167.215E-12	549.188E-3	-30.8014E-3
3.76438E-3	159.474E-12	536.737E-3	-78.2879E-3	168.048E-12	556.522E-3	-6.92519E-3
3.75938E-3	161.667E-12	547.806E-3	-52.4023E-3	167.595E-12	529.093E-3	-11.1109E-3
3.75438E-3	159.046E-12	565.900E-3	-50.6327E-3	164.559E-12	513.278E-3	-29.5369E-3
3.74937E-3	155.908E-12	577.354E-3	-32.3312E-3	163.292E-12	507.684E-3	-29.6935E-3
3.74437E-3	153.758E-12	548.718E-3	962.568E-6	162.022E-12	504.291E-3	-10.1320E-3
3.73937E-3	154.268E-12	514.964E-3	-6.22073E-3	160.413E-12	518.686E-3	-20.7456E-3
3.73437E-3	151.743E-12	513.960E-3	-15.1735E-3	156.366E-12	529.418E-3	-44.9077E-3
3.72936E-3	149.165E-12	518.703E-3	-17.0773E-3	155.117E-12	502.573E-3	-30.1112E-3
3.72436E-3	148.048E-12	516.204E-3	-44.2468E-3	153.601E-12	481.911E-3	-13.9199E-3
3.71936E-3	149.364E-12	516.031E-3	-59.4217E-3	154.075E-12	510.726E-3	-30.5241E-3
3.71436E-3	150.306E-12	486.262E-3	-39.0886E-3	153.433E-12	539.185E-3	-34.1289E-3
3.70935E-3	149.649E-12	465.243E-3	-15.1763E-3	153.442E-12	520.866E-3	-27.7708E-3
3.70435E-3	149.017E-12	493.624E-3	-2.00975E-3	153.782E-12	496.061E-3	-37.1246E-3
3.69935E-3	150.741E-12	524.690E-3	-1.44625E-3	155.722E-12	503.643E-3	-27.3375E-3
3.69435E-3	153.078E-12	538.011E-3	-5.44374E-3	156.490E-12	544.963E-3	-14.2594E-3
3.68934E-3	153.705E-12	525.263E-3	7.13461E-3	157.103E-12	570.131E-3	-14.1676E-3
3.68434E-3	153.716E-12	498.986E-3	27.8150E-3	157.979E-12	560.137E-3	-11.2428E-3
3.67934E-3	155.759E-12	488.455E-3	23.4879E-3	160.151E-12	552.376E-3	-22.9159E-3
3.67434E-3	156.722E-12	486.171E-3	9.47323E-3	162.041E-12	533.567E-3	-28.9777E-3
3.66933E-3	156.669E-12	500.558E-3	8.99445E-3	160.643E-12	536.174E-3	-10.0965E-3
3.66433E-3	156.234E-12	516.225E-3	-3.07690E-3	159.439E-12	555.269E-3	-516.532E-6
3.65933E-3	156.893E-12	517.064E-3	-23.7659E-3	160.246E-12	535.620E-3	-30.6670E-3
3.65433E-3	155.518E-12	514.789E-3	-21.4484E-3	160.698E-12	524.974E-3	-55.7084E-3
3.64932E-3	154.161E-12	528.413E-3	-23.9231E-3	160.326E-12	544.253E-3	-48.4393E-3
3.64432E-3	151.607E-12	559.696E-3	-36.2605E-3	156.806E-12	553.753E-3	-53.8608E-3
3.63932E-3	150.464E-12	555.756E-3	-12.9877E-3	155.120E-12	538.499E-3	-39.2467E-3
3.63432E-3	151.321E-12	511.472E-3	8.56518E-3	154.244E-12	523.749E-3	-2.54625E-3
3.62931E-3	150.327E-12	492.142E-3	6.26490E-3	153.934E-12	511.597E-3	-4.10844E-3
3.62431E-3	148.822E-12	504.549E-3	12.6002E-3	151.812E-12	498.354E-3	-10.3043E-3
3.61931E-3	148.450E-12	526.771E-3	17.2241E-3	149.219E-12	505.057E-3	-8.57775E-3
3.61431E-3	149.181E-12	549.217E-3	7.41468E-3	149.672E-12	511.561E-3	-15.5736E-3
3.60930E-3	148.848E-12	549.683E-3	10.2846E-3	151.299E-12	504.567E-3	-3.46700E-3
3.60430E-3	149.664E-12	534.318E-3	31.1260E-3	150.828E-12	526.691E-3	9.33344E-3
3.59930E-3	149.120E-12	526.868E-3	32.8518E-3	149.884E-12	568.733E-3	-5.86891E-3
3.59430E-3	150.749E-12	523.195E-3	6.38711E-3	150.452E-12	575.756E-3	-18.4891E-3
3.58929E-3	151.285E-12	511.113E-3	-4.91194E-3	152.011E-12	549.895E-3	-5.76767E-3
3.58429E-3	152.394E-12	511.117E-3	-2.72245E-3	152.596E-12	536.420E-3	-3.16751E-3
3.57929E-3	152.575E-12	522.826E-3	-23.7786E-3	152.020E-12	528.697E-3	-17.9599E-3
3.57429E-3	154.570E-12	525.256E-3	-23.5281E-3	152.501E-12	527.313E-3	-28.7340E-3
3.56928E-3	155.586E-12	531.786E-3	-5.12620E-3	152.797E-12	546.952E-3	-35.9683E-3
3.56428E-3	155.780E-12	544.668E-3	-7.41568E-3	153.808E-12	532.921E-3	-37.5821E-3
3.55928E-3	154.653E-12	538.935E-3	-7.58720E-3	153.556E-12	508.155E-3	-43.0772E-3
3.55428E-3	154.816E-12	524.231E-3	-9.20337E-3	153.292E-12	519.380E-3	-50.1683E-3
3.54927E-3	155.049E-12	507.964E-3	-11.2760E-3	152.102E-12	529.641E-3	-44.2362E-3
3.54427E-3	154.243E-12	496.237E-3	-21.5838E-3	152.648E-12	530.067E-3	-34.5572E-3
3.53927E-3	152.627E-12	521.051E-3	-31.9517E-3	152.548E-12	534.870E-3	-22.9867E-3
3.53427E-3	152.389E-12	539.306E-3	-7.32564E-3	151.697E-12	534.088E-3	-1.18802E-3
3.52926E-3	151.744E-12	518.096E-3	11.9882E-3	150.489E-12	508.183E-3	12.7919E-3
3.52426E-3	151.811E-12	524.422E-3	6.52587E-3	150.100E-12	476.834E-3	5.25251E-3
3.51926E-3	149.906E-12	554.855E-3	9.37432E-3	149.606E-12	464.307E-3	-3.78121E-3
3.51426E-3	148.973E-12	556.693E-3	19.1487E-3	148.793E-12	476.807E-3	13.4683E-3
3.50925E-3	148.795E-12	535.408E-3	19.1786E-3	147.927E-12	520.160E-3	20.1543E-3
3.50425E-3	149.354E-12	515.916E-3	6.50528E-3	146.638E-12	542.688E-3	-11.8027E-3
3.49925E-3	148.450E-12	498.999E-3	1.11391E-3	145.056E-12	540.273E-3	-33.8538E-3
3.49425E-3	148.053E-12	490.611E-3	-11.7295E-3	145.341E-12	541.563E-3	-33.1107E-3
3.48924E-3	146.860E-12	507.701E-3	-43.4704E-3	145.445E-12	530.505E-3	-18.6766E-3
3.48424E-3	146.569E-12	526.279E-3	-46.1296E-3	144.296E-12	527.200E-3	-672.887E-6
3.47924E-3	147.156E-12	529.113E-3	-32.1658E-3	141.364E-12	521.863E-3	-11.8898E-3
3.47424E-3	147.740E-12	540.287E-3	-28.2462E-3	142.950E-12	507.064E-3	-28.4542E-3
3.46923E-3	147.800E-12	553.434E-3	-30.5059E-3	145.981E-12	511.032E-3	-21.6607E-3
3.46423E-3	147.491E-12	544.937E-3	-41.9758E-3	146.955E-12	530.376E-3	-12.9307E-3
3.45923E-3	147.408E-12	518.600E-3	-46.7394E-3	145.791E-12	541.969E-3	-8.60224E-3
3.45423E-3	149.114E-12	496.141E-3	-38.7264E-3	146.897E-12	526.895E-3	-8.94995E-3
3.44922E-3	149.710E-12	502.629E-3	-35.6509E-3	149.675E-12	528.174E-3	-18.6539E-3
3.44422E-3	149.078E-12	512.731E-3	-34.7310E-3	151.938E-12	554.982E-3	-36.0627E-3
3.43922E-3	147.764E-12	515.647E-3	-45.9403E-3	151.712E-12	550.839E-3	-26.1487E-3
3.43422E-3	147.884E-12	534.665E-3	-72.7171E-3	149.879E-12	530.972E-3	12.5780E-3
3.42921E-3	148.266E-12	550.512E-3	-60.1960E-3	152.095E-12	518.133E-3	25.8860E-3
3.42421E-3	147.187E-12	558.583E-3	-17.7491E-3	152.554E-12	506.500E-3	-468.193E-6
3.41921E-3	144.508E-12	554.879E-3	-14.9394E-3	151.406E-12	519.427E-3	-16.4923E-3
3.41421E-3	143.502E-12	540.203E-3	-32.3506E-3	146.463E-12	545.723E-3	-14.9053E-3
3.40920E-3	144.180E-12	539.011E-3	-22.1855E-3	143.667E-12	529.881E-3	-29.6338E-3
3.40420E-3	142.746E-12	536.559E-3	-12.9035E-3	143.637E-12	489.721E-3	-38.5505E-3
3.39920E-3	140.196E-12	544.291E-3	-15.0637E-3	144.495E-12	467.966E-3	-39.1620E-3
3.39420E-3	138.933E-12	538.688E-3	-15.0759E-3	141.976E-12	472.863E-3	-34.7406E-3
3.38919E-3	139.702E-12	483.344E-3	-18.2116E-3	138.207E-12	499.567E-3	-22.0169E-3
3.38419E-3	139.705E-12	458.648E-3	-22.6242E-3	139.484E-12	513.422E-3	-11.5284E-3
3.37919E-3	139.607E-12	491.295E-3	34.6504E-6	142.853E-12	512.551E-3	4.59140E-3
3.37419E-3	140.097E-12	513.979E-3	26.0095E-3	143.478E-12	530.961E-3	183.752E-6
3.36918E-3	140.947E-12	518.813E-3	12.1217E-3	142.360E-12	559.119E-3	-32.2583E-3
3.36418E-3	143.291E-12	523.146E-3	-15.0234E-3	143.725E-12	563.789E-3	-39.6568E-3
3.35918E-3	144.731E-12	510.088E-3	-34.4466E-3	146.993E-12	559.857E-3	-12.1194E-3
3.35418E-3	145.499E-12	511.570E-3	-23.0957E-3	150.054E-12	566.754E-3	-12.8741E-3
3.34917E-3	146.418E-12	535.027E-3	8.56119E-3	149.788E-12	560.768E-3	-28.1790E-3
3.34417E-3	147.869E-12	539.680E-3	21.5815E-3	149.481E-12	546.337E-3	-15.2014E-3
3.33917E-3	148.885E-12	540.009E-3	15.6229E-3	150.729E-12	539.548E-3	3.97135E-3
3.33417E-3	146.990E-12	536.295E-3	7.03306E-3	153.325E-12	531.872E-3	12.9799E-3
3.32916E-3	145.688E-12	535.280E-3	3.02691E-3	152.287E-12	536.981E-3	4.54732E-3
3.32416E-3	145.790E-12	553.895E-3	-6.43427E-3	149.295E-12	533.805E-3	-3.13702E-3
3.31916E-3	145.162E-12	562.271E-3	-11.4076E-3	146.670E-12	505.978E-3	-12.6809E-3
3.31416E-3	142.542E-12	547.714E-3	-20.5987E-3	145.309E-12	502.096E-3	-33.0395E-3
3.30915E-3	140.326E-12	528.501E-3	-49.9647E-3	143.539E-12	507.549E-3	-37.7545E-3
3.30415E-3	140.124E-12	522.136E-3	-61.6628E-3	139.572E-12	496.305E-3	-33.0748E-3
3.29915E-3	140.138E-12	522.403E-3	-32.4162E-3	136.698E-12	486.170E-3	-38.4353E-3
3.29415E-3	139.175E-12	522.872E-3	-2.15734E-3	136.154E-12	489.241E-3	-39.6601E-3
3.28914E-3	136.814E-12	519.526E-3	2.21853E-3	136.087E-12	491.487E-3	-22.5537E-3
3.28414E-3	138.545E-12	510.161E-3	-1.25475E-3	135.096E-12	487.544E-3	8.24221E-3
3.27914E-3	138.490E-12	495.164E-3	2.15115E-3	134.137E-12	510.429E-3	29.8499E-3
3.27414E-3	138.715E-12	495.719E-3	-13.7359E-3	136.392E-12	529.259E-3	15.9732E-3
3.26913E-3	139.170E-12	517.277E-3	-34.1440E-3	137.180E-12	523.957E-3	-12.3467E-3
3.26413E-3	141.228E-12	528.855E-3	-28.9285E-3	138.390E-12	531.041E-3	-21.3078E-3
3.25913E-3	143.804E-12	537.303E-3	-31.0621E-3	139.104E-12	542.400E-3	-32.5988E-3
3.25413E-3	144.392E-12	544.486E-3	-33.0325E-3	140.886E-12	526.199E-3	-36.3315E-3
3.24912E-3	146.007E-12	534.602E-3	-15.0743E-3	141.822E-12	503.180E-3	-27.7377E-3
3.24412E-3	146.244E-12	532.972E-3	-12.7590E-3	143.862E-12	524.410E-3	-37.2170E-3
3.23912E-3	147.561E-12	549.203E-3	-38.3441E-3	143.363E-12	546.021E-3	-31.5883E-3
3.23412E-3	146.940E-12	546.243E-3	-25.2026E-3	142.300E-12	535.702E-3	-7.98379E-3
3.22911E-3	145.970E-12	536.340E-3	3.97891E-3	141.719E-12	539.806E-3	-12.0899E-3
3.22411E-3	143.567E-12	553.972E-3	-663.007E-6	141.963E-12	532.007E-3	-22.6849E-3
3.21911E-3	142.170E-12	567.719E-3	4.27666E-3	140.509E-12	515.794E-3	-22.0647E-3
3.21411E-3	141.797E-12	551.739E-3	-11.7995E-3	138.314E-12	527.703E-3	-27.8133E-3
3.20910E-3	139.995E-12	531.323E-3	-41.2375E-3	137.218E-12	514.157E-3	-24.2672E-3
3.20410E-3	138.584E-12	518.255E-3	-30.0233E-3	137.455E-12	489.259E-3	-1.73699E-3
3.19910E-3	136.747E-12	530.566E-3	-4.40859E-3	135.230E-12	499.234E-3	-1.23838E-3
3.19410E-3	136.930E-12	552.448E-3	6.97307E-3	133.890E-12	505.023E-3	-30.2998E-3
3.18909E-3	136.253E-12	541.698E-3	3.31171E-3	133.054E-12	491.131E-3	-39.4868E-3
3.18409E-3	135.980E-12	531.312E-3	-9.81914E-3	134.383E-12	490.645E-3	-29.6460E-3
3.17909E-3	135.534E-12	536.379E-3	-9.82493E-3	135.098E-12	498.030E-3	287.598E-6
3.17409E-3	135.836E-12	531.346E-3	6.60094E-3	134.206E-12	490.109E-3	36.8479E-3
3.16908E-3	136.227E-12	521.303E-3	1.51087E-3	134.493E-12	507.963E-3	7.82881E-3
3.16408E-3	136.122E-12	508.684E-3	-19.5657E-3	136.042E-12	533.535E-3	-52.3718E-3
3.15908E-3	137.156E-12	501.496E-3	-25.4834E-3	136.744E-12	525.056E-3	-57.8167E-3
3.15408E-3	137.007E-12	497.136E-3	-16.3570E-3	136.560E-12	514.313E-3	-36.3823E-3
3.14907E-3	138.486E-12	502.942E-3	10.6186E-3	136.621E-12	512.590E-3	-42.1821E-3
3.14407E-3	137.869E-12	524.863E-3	24.6509E-3	137.838E-12	518.868E-3	-43.4487E-3
3.13907E-3	137.965E-12	539.659E-3	14.8978E-3	139.951E-12	535.187E-3	-23.4380E-3
3.13407E-3	137.271E-12	551.630E-3	1.52017E-3	139.997E-12	557.566E-3	-20.9647E-3
3.12906E-3	136.961E-12	546.879E-3	-16.6267E-3	139.055E-12	573.128E-3	-16.2833E-3
3.12406E-3	136.788E-12	520.014E-3	-10.3367E-3	138.563E-12	582.625E-3	-7.23947E-3
3.11906E-3	135.484E-12	496.715E-3	3.71688E-3	140.156E-12	583.752E-3	-24.5699E-3
3.11406E-3	134.220E-12	487.332E-3	-3.78179E-3	140.399E-12	564.832E-3	-30.5424E-3
3.10905E-3	133.909E-12	491.041E-3	-8.39688E-3	138.957E-12	560.700E-3	-11.3190E-3
3.10405E-3	133.983E-12	500.262E-3	-13.0174E-3	136.197E-12	561.012E-3	4.06417E-3
3.09905E-3	133.310E-12	511.874E-3	-32.2800E-3	136.639E-12	540.721E-3	10.0726E-3
3.09405E-3	132.184E-12	522.951E-3	-40.0642E-3	136.980E-12	525.751E-3	7.33770E-3
3.08904E-3	131.828E-12	531.568E-3	-11.3675E-3	135.613E-12	525.804E-3	-14.0299E-3
3.08404E-3	132.402E-12	523.580E-3	9.57367E-6	133.037E-12	526.449E-3	-32.0302E-3
3.07904E-3	133.615E-12	515.581E-3	-21.2243E-3	130.880E-12	523.533E-3	-31.6683E-3
3.07404E-3	132.596E-12	529.190E-3	-22.0420E-3	131.934E-12	534.360E-3	-37.8549E-3
3.06903E-3	132.313E-12	524.527E-3	-8.23412E-3	131.587E-12	538.140E-3	-38.4110E-3
3.06403E-3	132.598E-12	514.500E-3	1.92987E-3	131.180E-12	519.289E-3	-16.9948E-3
3.05903E-3	134.005E-12	536.339E-3	6.44123E-3	129.534E-12	515.493E-3	-10.6378E-3
3.05403E-3	133.674E-12	539.609E-3	6.47042E-3	130.638E-12	515.649E-3	-20.9741E-3
3.04902E-3	132.622E-12	532.521E-3	-3.09771E-3	130.221E-12	519.253E-3	-13.6641E-3
3.04402E-3	134.329E-12	545.996E-3	-20.9415E-3	131.638E-12	554.949E-3	-10.6376E-3
3.03902E-3	135.823E-12	547.175E-3	-27.5102E-3	131.448E-12	573.529E-3	-24.7264E-3
3.03402E-3	136.684E-12	539.895E-3	-34.2720E-3	133.245E-12	564.554E-3	-24.8131E-3
3.02901E-3	135.688E-12	544.714E-3	-33.2352E-3	134.066E-12	557.949E-3	-16.9024E-3
3.02401E-3	136.009E-12	562.940E-3	-10.2832E-3	135.773E-12	541.321E-3	-41.5117E-3
3.01901E-3	136.417E-12	566.875E-3	2.37088E-3	136.496E-12	534.247E-3	-63.3173E-3
3.01401E-3	136.251E-12	556.031E-3	-3.83364E-3	135.964E-12	546.009E-3	-64.7791E-3
3.00900E-3	134.537E-12	554.087E-3	-16.3799E-3	137.244E-12	543.208E-3	-63.6986E-3
3.00400E-3	133.704E-12	553.726E-3	-35.7387E-3	137.017E-12	533.664E-3	-38.8168E-3
2.99900E-3	133.791E-12	555.952E-3	-48.2017E-3	137.812E-12	537.368E-3	-28.4172E-3
2.99400E-3	133.187E-12	564.626E-3	-46.2572E-3	135.655E-12	537.690E-3	-47.4190E-3
2.98899E-3	131.832E-12	566.577E-3	-48.9347E-3	133.413E-12	522.118E-3	-41.9162E-3
2.98399E-3	129.713E-12	548.193E-3	-49.1068E-3	130.054E-12	509.614E-3	-15.1359E-3
2.97899E-3	128.677E-12	526.490E-3	-28.7885E-3	129.998E-12	502.806E-3	-5.25506E-3
2.97399E-3	129.147E-12	517.897E-3	-19.3077E-3	129.093E-12	495.097E-3	2.15460E-3
2.96898E-3	128.899E-12	515.499E-3	-27.9205E-3	125.718E-12	505.962E-3	-1.41363E-3
2.96398E-3	127.204E-12	524.214E-3	-20.4446E-3	123.640E-12	514.423E-3	-35.9574E-3
2.95898E-3	126.683E-12	528.802E-3	-1.51365E-3	123.621E-12	503.226E-3	-33.1113E-3
2.95398E-3	127.294E-12	521.052E-3	17.8283E-3	125.405E-12	508.704E-3	-5.10369E-3
2.94897E-3	128.712E-12	517.121E-3	16.0494E-3	124.250E-12	518.245E-3	-16.5439E-3
2.94397E-3	129.468E-12	527.074E-3	-15.7922E-3	123.223E-12	501.659E-3	-34.1548E-3
2.93897E-3	130.047E-12	548.489E-3	-36.3765E-3	124.637E-12	512.059E-3	-21.3892E-3
2.93397E-3	131.410E-12	550.642E-3	-34.9049E-3	127.950E-12	551.037E-3	-5.14777E-3
2.92896E-3	132.897E-12	546.493E-3	-29.9646E-3	129.485E-12	551.490E-3	-11.7812E-3
2.92396E-3	134.178E-12	558.263E-3	-20.7251E-3	130.718E-12	536.515E-3	-4.86143E-3
2.91896E-3	133.669E-12	553.188E-3	-5.80875E-3	133.061E-12	543.285E-3	1.79508E-3
2.91396E-3	133.283E-12	544.901E-3	-10.3788E-3	133.720E-12	549.904E-3	-18.2106E-3
2.90895E-3	132.141E-12	542.231E-3	-33.3379E-3	134.062E-12	552.717E-3	-23.7967E-3
2.90395E-3	131.807E-12	529.734E-3	-41.7326E-3	132.794E-12	558.729E-3	-12.1099E-3
2.89895E-3	130.385E-12	527.259E-3	-34.4775E-3	134.754E-12	544.389E-3	491.916E-6
2.89395E-3	128.237E-12	548.597E-3	-26.5095E-3	133.427E-12	525.286E-3	8.90920E-3
2.88894E-3	127.222E-12	566.225E-3	-18.9022E-3	130.847E-12	536.597E-3	-4.54263E-3
2.88394E-3	125.790E-12	539.820E-3	-7.03251E-3	129.183E-12	537.571E-3	-25.4321E-3
2.87894E-3	125.254E-12	513.997E-3	-8.20727E-3	128.220E-12	512.777E-3	-14.2075E-3
2.87394E-3	123.611E-12	536.408E-3	-14.5677E-3	124.987E-12	517.999E-3	-6.29110E-3
2.86893E-3	122.571E-12	552.020E-3	-10.6325E-3	122.296E-12	553.913E-3	-29.5248E-3
2.86393E-3	121.469E-12	539.680E-3	-23.9065E-3	121.985E-12	570.780E-3	-37.2257E-3
2.85893E-3	121.545E-12	534.803E-3	-42.4662E-3	121.514E-12	552.353E-3	-29.3617E-3
2.85393E-3	122.411E-12	530.586E-3	-34.7330E-3	121.311E-12	535.350E-3	-23.2909E-3
2.84892E-3	123.468E-12	521.747E-3	-27.4514E-3	120.041E-12	535.458E-3	-5.36953E-3
2.84392E-3	123.776E-12	530.865E-3	-26.1551E-3	121.443E-12	534.630E-3	-8.50149E-3
2.83892E-3	124.707E-12	559.000E-3	-19.5456E-3	122.854E-12	534.261E-3	-29.8284E-3
2.83392E-3	127.149E-12	565.750E-3	-20.0829E-3	124.535E-12	529.540E-3	-28.6770E-3
2.82891E-3	128.635E-12	553.471E-3	-16.5044E-3	125.313E-12	525.714E-3	-21.0040E-3
2.82391E-3	129.829E-12	555.693E-3	-12.6940E-3	126.580E-12	525.241E-3	-11.6710E-3
2.81891E-3	129.936E-12	547.476E-3	-19.6967E-3	128.091E-12	522.420E-3	-7.17998E-3
2.81391E-3	130.794E-12	518.905E-3	-31.5096E-3	128.623E-12	538.681E-3	-14.2237E-3
2.80890E-3	131.611E-12	516.330E-3	-26.6465E-3	129.501E-12	563.112E-3	-31.0529E-3
2.80390E-3	130.109E-12	538.008E-3	-12.4656E-3	129.254E-12	565.634E-3	-35.9483E-3
2.79890E-3	127.893E-12	552.104E-3	-29.6263E-3	130.854E-12	571.669E-3	-7.72921E-3
2.79390E-3	126.406E-12	552.881E-3	-36.3630E-3	129.543E-12	584.750E-3	-11.8060E-3
2.78889E-3	126.201E-12	544.947E-3	-11.6618E-3	128.523E-12	564.638E-3	-39.2631E-3
2.78389E-3	124.018E-12	546.455E-3	-18.3532E-3	127.151E-12	542.535E-3	-26.9382E-3
2.77889E-3	122.137E-12	550.512E-3	-33.3103E-3	125.547E-12	552.046E-3	-8.20372E-3
2.77389E-3	120.376E-12	528.321E-3	-25.4873E-3	124.231E-12	542.318E-3	-4.75051E-3
2.76888E-3	120.220E-12	515.055E-3	-24.9528E-3	121.972E-12	521.141E-3	-7.60758E-3
2.76388E-3	120.586E-12	520.757E-3	-25.9860E-3	121.675E-12	523.122E-3	-17.2016E-3
2.75888E-3	120.370E-12	509.636E-3	-18.5798E-3	120.862E-12	515.384E-3	-14.5462E-3
2.75388E-3	119.905E-12	501.218E-3	-16.7036E-3	120.951E-12	509.617E-3	8.44961E-3
2.74887E-3	120.156E-12	513.639E-3	-12.4675E-3	119.838E-12	532.053E-3	4.60622E-3
2.74387E-3	121.218E-12	529.432E-3	1.29473E-3	120.245E-12	536.049E-3	-24.1248E-3
2.73887E-3	122.480E-12	531.248E-3	-16.5786E-3	121.200E-12	516.616E-3	-25.0659E-3
2.73387E-3	123.020E-12	528.609E-3	-46.6497E-3	121.249E-12	529.966E-3	-16.6324E-3
2.72886E-3	123.733E-12	531.497E-3	-36.1235E-3	120.814E-12	543.817E-3	-8.62717E-3
2.72386E-3	125.348E-12	535.378E-3	-10.7497E-3	120.126E-12	533.768E-3	7.92598E-3
2.71886E-3	126.875E-12	552.261E-3	-4.39121E-3	121.404E-12	557.181E-3	6.48158E-3
2.71386E-3	126.290E-12	565.951E-3	-8.66414E-3	121.889E-12	577.658E-3	-15.0653E-3
2.70885E-3	126.091E-12	556.224E-3	-23.5721E-3	123.110E-12	575.013E-3	-17.2633E-3
2.70385E-3	125.630E-12	543.273E-3	-32.4744E-3	121.945E-12	579.872E-3	9.41561E-3
2.69885E-3	125.304E-12	538.945E-3	-10.2706E-3	122.993E-12	557.983E-3	11.9837E-3
2.69385E-3	123.424E-12	549.123E-3	-304.427E-6	123.778E-12	538.609E-3	-3.43447E-3
2.68884E-3	122.238E-12	568.880E-3	-6.45703E-3	124.676E-12	553.556E-3	-19.1725E-3
2.68384E-3	120.675E-12	575.978E-3	-3.36524E-3	123.415E-12	549.652E-3	-39.5689E-3
2.67884E-3	119.772E-12	571.413E-3	-14.7284E-3	122.592E-12	533.901E-3	-20.4663E-3
2.67384E-3	119.537E-12	555.987E-3	-24.2307E-3	121.977E-12	532.491E-3	7.03328E-3
2.66883E-3	118.732E-12	524.152E-3	-17.7317E-3	122.319E-12	524.509E-3	-11.8886E-3
2.66383E-3	118.226E-12	519.427E-3	-7.35373E-3	121.364E-12	515.417E-3	-31.8476E-3
2.65883E-3	116.529E-12	541.511E-3	-3.01154E-3	118.167E-12	526.399E-3	-18.5750E-3
2.65383E-3	117.005E-12	543.949E-3	-11.8345E-3	116.530E-12	541.114E-3	829.380E-6
2.64882E-3	116.805E-12	543.577E-3	-20.3721E-3	118.095E-12	526.981E-3	4.30917E-3
2.64382E-3	116.249E-12	556.398E-3	-32.5019E-3	117.862E-12	515.954E-3	11.1924E-3
2.63882E-3	115.143E-12	559.637E-3	-38.9457E-3	115.271E-12	523.776E-3	10.1770E-3
2.63382E-3	116.215E-12	533.756E-3	-25.6883E-3	113.673E-12	516.919E-3	-16.2982E-3
2.62881E-3	116.950E-12	506.645E-3	-17.9015E-3	115.638E-12	504.475E-3	-9.18583E-3
2.62381E-3	116.801E-12	513.467E-3	-13.8842E-3	116.339E-12	498.313E-3	5.77274E-3
2.61881E-3	117.535E-12	521.537E-3	-11.4873E-3	115.616E-12	496.214E-3	-11.7602E-3
2.61381E-3	117.271E-12	522.264E-3	-15.0745E-3	113.637E-12	510.949E-3	-8.22946E-3
2.60880E-3	118.870E-12	541.766E-3	-18.1172E-3	115.205E-12	539.497E-3	368.504E-6
2.60380E-3	118.015E-12	554.709E-3	-25.8532E-3	117.251E-12	548.374E-3	-5.47250E-3
2.59880E-3	118.473E-12	546.674E-3	-24.5080E-3	117.741E-12	553.658E-3	-6.80056E-3
2.59380E-3	118.118E-12	536.661E-3	-15.0996E-3	117.424E-12	571.654E-3	-15.7073E-3
2.58879E-3	118.040E-12	539.018E-3	-14.7264E-3	118.258E-12	566.543E-3	-25.4242E-3
2.58379E-3	118.204E-12	549.370E-3	-26.4913E-3	119.830E-12	558.724E-3	-17.3475E-3
2.57879E-3	117.469E-12	555.579E-3	-25.2462E-3	121.224E-12	567.441E-3	-14.9892E-3
2.57379E-3	116.246E-12	561.004E-3	-18.9920E-3	120.832E-12	555.199E-3	-35.7113E-3
2.56878E-3	114.876E-12	552.949E-3	-26.1873E-3	119.356E-12	525.001E-3	-41.0790E-3
2.56378E-3	115.253E-12	534.591E-3	-30.5629E-3	118.438E-12	513.316E-3	-27.9582E-3
2.55878E-3	114.063E-12	523.874E-3	-29.3264E-3	117.925E-12	520.125E-3	-27.6838E-3
2.55378E-3	111.921E-12	521.638E-3	-20.7926E-3	117.433E-12	524.599E-3	-30.2954E-3
2.54877E-3	110.199E-12	521.453E-3	-3.45193E-3	114.565E-12	529.815E-3	-26.9961E-3
2.54377E-3	111.098E-12	516.977E-3	9.19679E-3	113.071E-12	522.065E-3	-26.3600E-3
2.53877E-3	110.992E-12	510.126E-3	7.22812E-3	113.129E-12	498.278E-3	-18.8056E-3
2.53377E-3	110.209E-12	505.381E-3	-7.03437E-3	112.997E-12	505.098E-3	-12.6052E-3
2.52876E-3	109.438E-12	491.142E-3	-6.32275E-3	112.575E-12	522.466E-3	-17.9337E-3
2.52376E-3	110.953E-12	480.794E-3	-5.29313E-3	111.488E-12	517.677E-3	-9.15958E-3
2.51876E-3	112.881E-12	491.758E-3	-8.93211E-3	112.205E-12	526.799E-3	1.05231E-3
2.51376E-3	113.185E-12	516.487E-3	11.7079E-3	113.082E-12	551.924E-3	-30.6498E-3
2.50875E-3	112.338E-12	539.265E-3	7.57471E-3	114.957E-12	552.221E-3	-48.4793E-3
2.50375E-3	112.556E-12	524.326E-3	-21.4406E-3	114.714E-12	549.404E-3	-20.0057E-3
2.49875E-3	116.210E-12	505.392E-3	-26.3658E-3	115.613E-12	562.085E-3	-12.3586E-3
2.49375E-3	117.143E-12	521.450E-3	-16.7500E-3	116.441E-12	552.664E-3	-25.8500E-3
2.48874E-3	117.137E-12	555.019E-3	-23.3362E-3	118.454E-12	546.402E-3	-30.1163E-3
2.48374E-3	116.373E-12	569.662E-3	-45.5799E-3	119.461E-12	555.124E-3	-18.7168E-3
2.47874E-3	117.283E-12	562.204E-3	-41.3961E-3	118.672E-12	550.825E-3	-11.2276E-3
2.47374E-3	117.616E-12	563.666E-3	-13.2939E-3	118.174E-12	550.294E-3	-23.1560E-3
2.46873E-3	116.129E-12	563.103E-3	-6.74348E-3	118.182E-12	561.561E-3	-26.7160E-3
2.46373E-3	114.189E-12	558.921E-3	-12.6807E-3	117.769E-12	565.129E-3	-18.1001E-3
2.45873E-3	113.372E-12	562.029E-3	-11.0987E-3	114.938E-12	544.813E-3	-8.27120E-3
2.45373E-3	112.937E-12	549.868E-3	-7.06090E-3	113.178E-12	531.243E-3	-8.91530E-3
2.44872E-3	110.567E-12	527.223E-3	-4.27015E-3	111.622E-12	529.553E-3	-22.3613E-3
2.44372E-3	109.331E-12	528.006E-3	-11.2449E-3	110.947E-12	505.653E-3	-21.4211E-3
2.43872E-3	108.619E-12	538.577E-3	-20.9379E-3	109.071E-12	494.274E-3	-8.95717E-3
2.43372E-3	108.826E-12	536.028E-3	-24.6856E-3	108.168E-12	511.921E-3	-7.78972E-3
2.42871E-3	107.598E-12	524.266E-3	-31.1813E-3	107.481E-12	526.801E-3	2.99053E-3
2.42371E-3	106.703E-12	505.315E-3	-38.9955E-3	107.946E-12	541.934E-3	15.6186E-3
2.41871E-3	108.555E-12	502.219E-3	-27.7144E-3	108.856E-12	540.779E-3	-13.5348E-3
2.41371E-3	109.391E-12	526.362E-3	-10.3128E-3	107.974E-12	537.317E-3	-39.8812E-3
2.40870E-3	111.593E-12	549.309E-3	-9.56240E-3	108.015E-12	553.645E-3	-34.8567E-3
2.40370E-3	111.327E-12	553.288E-3	-6.73773E-3	108.347E-12	555.405E-3	-48.3167E-3
2.39870E-3	112.184E-12	541.769E-3	3.39303E-3	110.555E-12	536.066E-3	-57.1626E-3
2.39370E-3	112.741E-12	529.428E-3	4.62917E-3	110.271E-12	531.061E-3	-42.3060E-3
2.38869E-3	114.272E-12	534.833E-3	-1.73501E-3	110.613E-12	542.541E-3	-33.4863E-3
2.38369E-3	114.023E-12	543.592E-3	-3.52563E-3	110.299E-12	531.622E-3	-21.7525E-3
2.37869E-3	112.449E-12	532.112E-3	-5.17310E-3	111.876E-12	523.964E-3	-11.6675E-3
2.37369E-3	110.747E-12	526.011E-3	-7.77764E-3	112.238E-12	539.229E-3	-13.9808E-3
2.36868E-3	110.160E-12	551.747E-3	-15.0180E-3	110.996E-12	534.541E-3	-9.65349E-3
2.36368E-3	109.865E-12	588.422E-3	-24.0365E-3	111.189E-12	528.615E-3	-8.56721E-3
2.35868E-3	108.168E-12	600.386E-3	-18.1266E-3	109.970E-12	541.380E-3	-25.0730E-3
2.35368E-3	105.684E-12	590.790E-3	-9.02928E-3	109.820E-12	542.525E-3	-26.4045E-3
2.34867E-3	103.874E-12	561.512E-3	-5.38702E-3	108.646E-12	527.604E-3	-7.21600E-3
2.34367E-3	102.918E-12	518.484E-3	-4.00024E-3	107.662E-12	515.884E-3	-18.5281E-3
2.33867E-3	103.012E-12	497.706E-3	-9.19338E-3	105.463E-12	510.841E-3	-43.0029E-3
2.33367E-3	102.039E-12	508.772E-3	-21.0957E-3	104.912E-12	504.338E-3	-42.5561E-3
2.32866E-3	101.347E-12	530.799E-3	-32.0728E-3	104.614E-12	498.335E-3	-34.5126E-3
2.32366E-3	102.384E-12	532.119E-3	-26.3633E-3	104.832E-12	489.742E-3	-26.5888E-3
2.31866E-3	103.677E-12	518.328E-3	-5.02161E-3	104.077E-12	495.668E-3	-22.7324E-3
2.31366E-3	103.313E-12	523.260E-3	807.268E-6	103.420E-12	521.037E-3	-23.8466E-3
2.30865E-3	104.147E-12	524.535E-3	-3.57879E-3	104.173E-12	522.809E-3	-24.3639E-3
2.30365E-3	106.111E-12	511.793E-3	1.37015E-3	105.537E-12	525.212E-3	-15.7161E-3
2.29865E-3	106.899E-12	506.381E-3	-433.245E-6	106.010E-12	542.178E-3	-19.5570E-3
2.29365E-3	107.018E-12	518.539E-3	-1.24839E-3	105.910E-12	537.802E-3	-37.2787E-3
2.28864E-3	107.779E-12	536.386E-3	2.47595E-3	106.691E-12	526.066E-3	-30.1203E-3
2.28364E-3	108.020E-12	539.477E-3	-6.88477E-3	107.912E-12	544.435E-3	-24.4058E-3
2.27864E-3	107.873E-12	546.567E-3	-20.8364E-3	108.059E-12	568.604E-3	-27.2082E-3
2.27364E-3	106.978E-12	536.792E-3	-17.5026E-3	108.222E-12	554.345E-3	-15.3848E-3
2.26863E-3	105.615E-12	503.839E-3	-6.40115E-3	108.885E-12	540.415E-3	-7.89457E-3
2.26363E-3	104.562E-12	497.556E-3	1.09133E-3	110.085E-12	538.953E-3	-15.4888E-3
2.25863E-3	104.378E-12	518.478E-3	6.87533E-3	109.465E-12	545.512E-3	-32.0076E-3
2.25363E-3	103.060E-12	523.565E-3	-7.18824E-3	108.927E-12	569.746E-3	-42.0138E-3
2.24862E-3	102.169E-12	511.104E-3	-15.7993E-3	107.705E-12	563.478E-3	-42.6005E-3
2.24362E-3	101.299E-12	515.248E-3	-6.74039E-3	107.479E-12	526.044E-3	-33.8049E-3
2.23862E-3	100.904E-12	529.763E-3	-22.9892E-3	106.090E-12	510.751E-3	-18.0671E-3
2.23362E-3	100.774E-12	520.516E-3	-48.1843E-3	104.490E-12	523.290E-3	-27.7131E-3
2.22861E-3	100.346E-12	495.253E-3	-43.5741E-3	102.496E-12	534.043E-3	-42.5721E-3
2.22361E-3	100.483E-12	469.557E-3	-10.3073E-3	103.562E-12	537.396E-3	-26.0760E-3
2.21861E-3	101.386E-12	473.916E-3	7.80239E-3	103.772E-12	530.261E-3	-12.2385E-3
2.21361E-3	101.786E-12	513.633E-3	-3.09041E-3	102.298E-12	503.016E-3	-25.3573E-3
2.20860E-3	101.883E-12	526.285E-3	-4.45285E-3	101.817E-12	485.479E-3	-50.5305E-3
2.20360E-3	102.856E-12	513.746E-3	-7.99991E-3	102.689E-12	502.911E-3	-50.8533E-3
2.19860E-3	104.487E-12	508.861E-3	-13.7118E-3	102.975E-12	521.573E-3	-31.9158E-3
2.19360E-3	104.792E-12	497.960E-3	-2.34070E-3	102.402E-12	529.648E-3	-19.9519E-3
2.18859E-3	105.450E-12	499.652E-3	-2.81108E-3	101.859E-12	536.735E-3	-31.1296E-3
2.18359E-3	105.700E-12	520.891E-3	-11.9635E-3	102.207E-12	519.740E-3	-48.2154E-3
2.17859E-3	106.313E-12	519.449E-3	-8.99269E-3	103.891E-12	519.917E-3	-23.8324E-3
2.17359E-3	105.802E-12	508.372E-3	-10.4650E-3	104.688E-12	556.164E-3	7.71007E-3
2.16858E-3	104.700E-12	515.388E-3	-12.3699E-3	105.112E-12	560.543E-3	13.6823E-3
2.16358E-3	104.146E-12	524.387E-3	94.1511E-6	105.109E-12	536.711E-3	12.4248E-3
2.15858E-3	103.366E-12	527.084E-3	11.9732E-3	105.845E-12	536.450E-3	3.49800E-3
2.15358E-3	102.915E-12	530.496E-3	6.25388E-3	105.944E-12	543.604E-3	-5.22304E-3
2.14857E-3	101.391E-12	530.984E-3	936.603E-6	105.374E-12	538.412E-3	-434.605E-6
2.14357E-3	100.841E-12	515.215E-3	2.00489E-3	104.410E-12	526.106E-3	2.93944E-3
2.13857E-3	100.593E-12	511.791E-3	-1.40201E-3	103.129E-12	489.763E-3	-5.99160E-3
2.13357E-3	100.281E-12	545.965E-3	5.04645E-3	102.595E-12	467.620E-3	-21.8986E-3
2.12856E-3	99.3043E-12	557.004E-3	15.3909E-3	100.880E-12	490.586E-3	-32.8277E-3
2.12356E-3	98.7080E-12	520.267E-3	3.51769E-3	100.033E-12	501.997E-3	-33.1613E-3
2.11856E-3	99.1021E-12	492.216E-3	-508.205E-6	98.3880E-12	486.503E-3	-19.8749E-3
2.11356E-3	98.8839E-12	502.208E-3	11.4915E-3	98.0176E-12	482.327E-3	4.32341E-3
2.10855E-3	98.7717E-12	523.428E-3	3.16709E-3	97.7350E-12	484.912E-3	14.9828E-3
2.10355E-3	98.6018E-12	523.987E-3	-27.4355E-3	97.6768E-12	491.099E-3	16.7293E-3
2.09855E-3	98.8224E-12	507.802E-3	-48.5005E-3	97.1267E-12	515.473E-3	11.2741E-3
2.09355E-3	98.8370E-12	504.660E-3	-46.8675E-3	96.3659E-12	523.090E-3	-13.2216E-3
2.08854E-3	99.8880E-12	513.212E-3	-34.8662E-3	97.2688E-12	511.577E-3	-30.3845E-3
2.08354E-3	100.138E-12	520.856E-3	-17.3654E-3	97.9154E-12	529.777E-3	-18.1772E-3
2.07854E-3	100.062E-12	527.714E-3	-16.1114E-3	98.6192E-12	548.906E-3	-77.6108E-6
2.07354E-3	100.586E-12	532.250E-3	-27.3515E-3	98.3526E-12	538.983E-3	8.98565E-3
2.06853E-3	100.643E-12	527.102E-3	-33.4350E-3	99.3674E-12	532.198E-3	7.39531E-3
2.06353E-3	100.481E-12	528.679E-3	-33.0117E-3	101.125E-12	536.665E-3	-14.9609E-3
2.05853E-3	99.6236E-12	538.995E-3	-32.4007E-3	101.995E-12	545.438E-3	-23.3866E-3
2.05353E-3	98.9707E-12	522.055E-3	-28.3527E-3	101.926E-12	548.043E-3	-16.1776E-3
2.04852E-3	98.0931E-12	488.099E-3	-26.6343E-3	101.399E-12	533.549E-3	-21.9338E-3
2.04352E-3	97.9156E-12	486.913E-3	-41.0801E-3	102.180E-12	495.847E-3	-30.7979E-3
2.03852E-3	97.2659E-12	511.500E-3	-42.4792E-3	101.998E-12	469.643E-3	-31.2110E-3
2.03352E-3	96.0895E-12	518.409E-3	-29.3877E-3	100.752E-12	489.817E-3	-33.1111E-3
2.02851E-3	94.9730E-12	509.280E-3	-30.7080E-3	98.5280E-12	516.456E-3	-39.7140E-3
2.02351E-3	93.6668E-12	492.942E-3	-23.7562E-3	97.2683E-12	526.521E-3	-30.5469E-3
2.01851E-3	93.7314E-12	473.059E-3	-7.23715E-3	96.7005E-12	528.018E-3	-7.53872E-3
2.01351E-3	93.2239E-12	460.011E-3	-7.19013E-3	95.6318E-12	509.290E-3	3.12093E-3
2.00850E-3	92.8332E-12	469.684E-3	-15.3089E-3	94.1903E-12	492.555E-3	-11.1761E-3
2.00350E-3	91.4835E-12	484.223E-3	-18.7394E-3	93.1061E-12	494.220E-3	-33.0169E-3
1.99850E-3	92.2615E-12	489.184E-3	-20.9647E-3	94.0257E-12	483.210E-3	-27.2276E-3
1.99350E-3	93.7724E-12	494.652E-3	-14.8607E-3	94.0065E-12	470.913E-3	-15.7217E-3
1.98849E-3	95.2650E-12	500.502E-3	7.29185E-3	93.5529E-12	490.241E-3	-25.9549E-3
1.98349E-3	94.5592E-12	519.027E-3	18.5682E-3	93.3990E-12	495.050E-3	-23.5964E-3
1.97849E-3	94.3046E-12	534.869E-3	5.72212E-3	94.8404E-12	485.976E-3	-3.65678E-3
1.97349E-3	95.6974E-12	524.671E-3	-13.5833E-3	95.7655E-12	522.298E-3	8.32632E-3
1.96848E-3	96.2960E-12	508.919E-3	-14.3468E-3	95.7286E-12	553.615E-3	-2.25400E-3
1.96348E-3	96.2459E-12	508.877E-3	107.466E-6	97.0336E-12	539.146E-3	-16.2947E-3
1.95848E-3	94.9585E-12	521.780E-3	9.03443E-3	98.2893E-12	524.472E-3	-20.9625E-3
1.95348E-3	96.0866E-12	521.206E-3	181.484E-6	98.8217E-12	526.221E-3	-29.6858E-3
1.94847E-3	95.9237E-12	511.766E-3	-24.5708E-3	98.8701E-12	530.556E-3	-29.4074E-3
1.94347E-3	94.7872E-12	511.147E-3	-11.9171E-3	99.0323E-12	527.700E-3	-17.2275E-3
1.93847E-3	93.4784E-12	498.227E-3	20.2079E-3	99.2205E-12	521.721E-3	-5.48008E-3
1.93347E-3	92.4224E-12	498.049E-3	2.25188E-3	98.1196E-12	516.461E-3	-2.33294E-3
1.92846E-3	92.0685E-12	524.566E-3	-21.1914E-3	97.0217E-12	508.757E-3	-5.37558E-3
1.92346E-3	90.6106E-12	517.869E-3	-22.0488E-3	95.7416E-12	484.827E-3	-5.18288E-3
1.91846E-3	90.5092E-12	495.324E-3	-31.3505E-3	94.1443E-12	465.591E-3	-2.53883E-3
1.91346E-3	90.3993E-12	503.348E-3	-36.3054E-3	92.8240E-12	479.546E-3	-2.52740E-3
1.90845E-3	90.2451E-12	496.817E-3	-13.2719E-3	91.7333E-12	483.987E-3	-17.7670E-3
1.90345E-3	90.2699E-12	469.411E-3	-4.01475E-3	90.3928E-12	483.516E-3	-30.3807E-3
1.89845E-3	90.6033E-12	462.936E-3	-27.0690E-3	89.9080E-12	501.305E-3	-20.1696E-3
1.89345E-3	91.5356E-12	459.992E-3	-21.7608E-3	90.0521E-12	507.400E-3	-12.5607E-3
1.88844E-3	91.8774E-12	440.486E-3	-211.182E-6	90.2283E-12	498.033E-3	-24.3293E-3
1.88344E-3	93.4467E-12	441.485E-3	356.149E-6	90.0516E-12	488.664E-3	-39.5017E-3
1.87844E-3	93.4374E-12	484.442E-3	-7.77880E-3	89.7469E-12	485.127E-3	-41.9863E-3
1.87344E-3	95.2200E-12	511.344E-3	-18.5343E-3	90.6298E-12	486.085E-3	-31.2125E-3
1.86843E-3	95.3029E-12	513.486E-3	-27.5589E-3	91.4936E-12	503.938E-3	-18.3290E-3
1.86343E-3	95.6888E-12	520.709E-3	-21.9692E-3	92.0510E-12	522.053E-3	-23.2295E-3
1.85843E-3	95.6209E-12	517.518E-3	-13.7995E-3	92.1167E-12	506.243E-3	-38.2249E-3
1.85343E-3	95.5309E-12	520.874E-3	-37.3302E-3	93.5228E-12	486.696E-3	-43.9745E-3
1.84842E-3	94.7250E-12	526.606E-3	-51.8172E-3	94.3491E-12	489.186E-3	-33.6971E-3
1.84342E-3	93.6205E-12	513.580E-3	-30.7338E-3	94.5354E-12	502.442E-3	-13.5098E-3
1.83842E-3	92.9972E-12	502.590E-3	-23.7403E-3	94.1053E-12	520.218E-3	4.61891E-3
1.83342E-3	92.0926E-12	505.246E-3	-20.2691E-3	93.5497E-12	523.684E-3	-6.20973E-3
1.82841E-3	90.1851E-12	502.553E-3	-22.2258E-3	92.8923E-12	511.340E-3	-33.9370E-3
1.82341E-3	88.5735E-12	495.956E-3	-46.9302E-3	92.2944E-12	502.177E-3	-24.6584E-3
1.81841E-3	87.6396E-12	495.147E-3	-46.0762E-3	91.1033E-12	495.329E-3	-1.85057E-3
1.81341E-3	87.7395E-12	489.820E-3	-15.7108E-3	90.4523E-12	477.447E-3	-6.53490E-3
1.80840E-3	86.4269E-12	491.268E-3	2.81636E-3	89.1957E-12	466.768E-3	-21.5247E-3
1.80340E-3	85.7994E-12	485.479E-3	765.364E-6	88.8996E-12	474.863E-3	-31.4647E-3
1.79840E-3	85.4967E-12	466.591E-3	-16.4287E-3	88.1675E-12	477.012E-3	-26.2860E-3
1.79340E-3	87.0220E-12	460.305E-3	-27.8603E-3	87.1423E-12	478.286E-3	-8.09427E-3
1.78839E-3	87.3533E-12	468.191E-3	-26.8754E-3	86.6670E-12	479.503E-3	-16.7639E-3
1.78339E-3	87.7655E-12	488.677E-3	-18.7704E-3	87.0969E-12	467.476E-3	-45.0267E-3
1.77839E-3	87.6731E-12	505.864E-3	-9.32043E-3	86.9559E-12	460.036E-3	-34.6239E-3
1.77339E-3	88.8143E-12	491.586E-3	-14.6454E-3	87.0956E-12	472.380E-3	-6.89581E-3
1.76838E-3	89.9544E-12	466.648E-3	-16.1131E-3	87.0431E-12	489.657E-3	-3.59940E-3
1.76338E-3	90.5371E-12	463.414E-3	-12.8244E-3	87.5430E-12	496.110E-3	-1.27040E-3
1.75838E-3	90.6667E-12	491.502E-3	-34.5082E-3	87.4373E-12	500.509E-3	-3.95537E-3
1.75338E-3	89.6938E-12	520.345E-3	-55.1973E-3	88.0744E-12	490.494E-3	-23.5049E-3
1.74837E-3	90.5510E-12	523.303E-3	-50.5114E-3	87.9328E-12	464.236E-3	-29.6866E-3
1.74337E-3	90.3566E-12	508.866E-3	-44.4773E-3	88.8469E-12	466.452E-3	-25.8861E-3
1.73837E-3	89.6451E-12	476.279E-3	-35.9734E-3	89.0537E-12	480.426E-3	-37.1978E-3
1.73337E-3	87.3744E-12	463.075E-3	-21.1218E-3	89.3106E-12	472.257E-3	-49.4732E-3
1.72836E-3	86.6355E-12	474.926E-3	-12.6943E-3	89.5578E-12	464.201E-3	-61.4096E-3
1.72336E-3	85.7833E-12	477.532E-3	-10.4523E-3	89.1032E-12	464.015E-3	-70.4944E-3
1.71836E-3	85.2692E-12	476.452E-3	-17.6200E-3	89.2707E-12	465.317E-3	-51.4611E-3
1.71336E-3	83.5729E-12	468.947E-3	-27.1712E-3	89.5252E-12	469.900E-3	-21.1357E-3
1.70835E-3	82.9005E-12	456.583E-3	-29.7529E-3	88.4152E-12	476.643E-3	-15.1924E-3
1.70335E-3	82.9924E-12	458.247E-3	-37.6628E-3	86.9777E-12	467.559E-3	-32.3454E-3
1.69835E-3	82.4895E-12	453.761E-3	-52.0094E-3	86.2691E-12	447.649E-3	-35.3242E-3
1.69335E-3	82.1997E-12	439.152E-3	-52.9767E-3	85.8167E-12	444.378E-3	-13.1398E-3
1.68834E-3	81.9485E-12	446.891E-3	-36.2809E-3	85.0200E-12	442.268E-3	-4.56481E-3
1.68334E-3	82.7898E-12	463.733E-3	-13.2847E-3	84.7895E-12	444.572E-3	-14.7460E-3
1.67834E-3	82.8388E-12	470.651E-3	-13.0609E-3	83.7880E-12	462.076E-3	-19.1523E-3
1.67334E-3	83.7005E-12	473.436E-3	-31.3743E-3	84.1577E-12	470.216E-3	-24.2813E-3
1.66833E-3	83.9841E-12	467.530E-3	-40.4979E-3	83.9551E-12	456.020E-3	-28.4584E-3
1.66333E-3	84.9892E-12	447.831E-3	-26.2502E-3	84.1234E-12	434.703E-3	-27.6766E-3
1.65833E-3	85.7481E-12	427.990E-3	5.10200E-3	83.5218E-12	432.207E-3	-31.3774E-3
1.65333E-3	86.5774E-12	440.802E-3	15.3797E-3	83.8311E-12	450.899E-3	-32.5620E-3
1.64832E-3	86.6852E-12	476.518E-3	-400.190E-6	84.4327E-12	476.638E-3	-27.6922E-3
1.64332E-3	86.7081E-12	480.307E-3	-13.5328E-3	84.9428E-12	473.959E-3	-21.3491E-3
1.63832E-3	86.4581E-12	460.365E-3	-6.55408E-3	85.8273E-12	442.786E-3	-15.1511E-3
1.63332E-3	85.8434E-12	452.074E-3	10.2090E-3	86.1776E-12	433.571E-3	-5.14543E-3
1.62831E-3	85.6202E-12	454.348E-3	5.53665E-3	86.9345E-12	443.964E-3	-1.83940E-3
1.62331E-3	84.7372E-12	463.250E-3	-15.5417E-3	87.3789E-12	451.652E-3	-11.1225E-3
1.61831E-3	84.8212E-12	458.719E-3	-33.6653E-3	87.6370E-12	462.646E-3	-12.6168E-3
1.61331E-3	83.8733E-12	436.904E-3	-38.1916E-3	86.8930E-12	460.382E-3	-12.2010E-3
1.60830E-3	83.1940E-12	439.218E-3	-18.2425E-3	86.7815E-12	440.882E-3	-10.8361E-3
1.60330E-3	83.0952E-12	456.965E-3	-3.79177E-3	85.4356E-12	430.714E-3	-8.42507E-3
1.59830E-3	82.2383E-12	449.623E-3	-26.4185E-3	85.3322E-12	428.375E-3	-15.1657E-3
1.59330E-3	81.5556E-12	428.519E-3	-34.2810E-3	83.6235E-12	420.982E-3	-6.00015E-3
1.58829E-3	80.7484E-12	410.895E-3	-2.82388E-3	82.2288E-12	421.528E-3	3.75047E-3
1.58329E-3	81.3987E-12	405.999E-3	15.4964E-3	80.9555E-12	415.314E-3	-19.2843E-3
1.57829E-3	81.0149E-12	422.246E-3	11.7843E-3	80.7788E-12	396.518E-3	-46.4472E-3
1.57329E-3	80.7031E-12	437.240E-3	-2.86422E-3	79.9359E-12	400.522E-3	-42.8559E-3
1.56828E-3	80.7932E-12	425.193E-3	-11.3164E-3	78.9327E-12	414.274E-3	-18.1428E-3
1.56328E-3	81.8605E-12	407.617E-3	-4.40448E-3	78.2566E-12	413.664E-3	-5.67974E-3
1.55828E-3	82.5072E-12	402.864E-3	237.122E-6	78.3429E-12	406.326E-3	-16.6481E-3
1.55328E-3	82.8567E-12	407.899E-3	-3.42705E-3	79.7090E-12	409.798E-3	-32.2929E-3
1.54827E-3	82.5821E-12	430.567E-3	-21.0420E-3	80.0880E-12	418.756E-3	-27.9443E-3
1.54327E-3	83.3871E-12	450.141E-3	-29.5596E-3	80.4019E-12	414.447E-3	-8.28494E-3
1.53827E-3	84.2567E-12	438.057E-3	-16.4093E-3	81.0216E-12	395.153E-3	-2.46436E-3
1.53327E-3	84.5802E-12	421.989E-3	-17.4472E-3	82.3021E-12	372.857E-3	-11.3569E-3
1.52826E-3	83.7728E-12	429.092E-3	-11.8678E-3	83.2725E-12	370.164E-3	-21.1339E-3
1.52326E-3	82.8585E-12	433.128E-3	9.69541E-3	83.4577E-12	394.805E-3	-33.2386E-3
1.51826E-3	82.6524E-12	424.216E-3	263.733E-6	83.4959E-12	419.667E-3	-38.4641E-3
1.51326E-3	81.7574E-12	413.882E-3	-20.4305E-3	83.1816E-12	423.988E-3	-32.0095E-3
1.50825E-3	80.8465E-12	400.500E-3	-14.8390E-3	83.2320E-12	424.549E-3	-19.6292E-3
1.50325E-3	79.3402E-12	401.887E-3	-11.6676E-3	83.1029E-12	424.762E-3	-9.95270E-3
1.49825E-3	78.6625E-12	418.974E-3	-19.6923E-3	82.2852E-12	405.260E-3	-7.84889E-3
1.49325E-3	77.6847E-12	407.343E-3	-17.7301E-3	81.1401E-12	384.850E-3	-8.23117E-3
1.48824E-3	76.9048E-12	381.106E-3	-14.6578E-3	79.8894E-12	384.137E-3	-12.8335E-3
1.48324E-3	75.9926E-12	372.833E-3	-7.78813E-3	79.2207E-12	375.297E-3	-19.1938E-3
1.47824E-3	75.8292E-12	365.717E-3	4.21205E-3	77.9658E-12	358.828E-3	-28.3732E-3
1.47324E-3	76.2374E-12	362.883E-3	-10.5320E-3	77.1808E-12	362.429E-3	-22.1263E-3
1.46823E-3	76.5528E-12	365.118E-3	-41.3785E-3	76.2470E-12	357.302E-3	-903.887E-6
1.46323E-3	76.6723E-12	368.759E-3	-49.0244E-3	76.2866E-12	340.666E-3	9.36391E-3
1.45823E-3	77.3095E-12	375.926E-3	-30.3798E-3	76.8360E-12	338.969E-3	11.2984E-3
1.45323E-3	78.2054E-12	385.485E-3	-2.14917E-3	77.0764E-12	341.912E-3	-160.714E-6
1.44822E-3	79.7958E-12	387.969E-3	8.28386E-3	77.2171E-12	353.651E-3	-4.84199E-3
1.44322E-3	80.8691E-12	365.552E-3	3.10528E-3	77.5885E-12	369.134E-3	3.84822E-3
1.43822E-3	81.7348E-12	339.373E-3	-15.1114E-3	78.8582E-12	363.982E-3	7.90853E-3
1.43322E-3	81.8116E-12	334.091E-3	-28.4308E-3	80.0515E-12	345.423E-3	-1.64500E-3
1.42821E-3	81.8184E-12	347.918E-3	-15.6674E-3	80.4319E-12	344.636E-3	-27.0042E-3
1.42321E-3	81.4709E-12	360.600E-3	-18.4329E-3	80.1190E-12	350.997E-3	-40.3804E-3
1.41821E-3	81.7459E-12	356.806E-3	-36.6869E-3	81.3442E-12	352.034E-3	-19.5110E-3
1.41321E-3	80.9179E-12	334.183E-3	-28.6503E-3	82.0305E-12	353.863E-3	10.4416E-3
1.40820E-3	79.5918E-12	317.557E-3	6.33528E-3	81.7138E-12	341.020E-3	8.77657E-3
1.40320E-3	78.1871E-12	336.094E-3	22.0735E-3	81.5074E-12	324.703E-3	-15.3777E-3
1.39820E-3	77.5148E-12	357.626E-3	2.91647E-3	80.4781E-12	315.284E-3	-33.5340E-3
1.39320E-3	76.6701E-12	351.925E-3	-8.21960E-3	80.4026E-12	314.144E-3	-38.6525E-3
1.38819E-3	75.7054E-12	334.841E-3	-13.3570E-3	79.2810E-12	316.525E-3	-26.7814E-3
1.38319E-3	74.7871E-12	314.436E-3	-17.5923E-3	78.0185E-12	307.815E-3	-12.9408E-3
1.37819E-3	75.2358E-12	304.713E-3	-2.72928E-3	76.8285E-12	297.638E-3	-17.3736E-3
1.37319E-3	75.3592E-12	311.592E-3	7.16108E-3	77.1707E-12	298.401E-3	-29.6767E-3
1.36818E-3	75.2356E-12	307.573E-3	-9.38798E-3	76.4501E-12	304.928E-3	-22.9036E-3
1.36318E-3	76.0840E-12	287.744E-3	-30.3706E-3	76.1787E-12	307.477E-3	-3.79296E-3
1.35818E-3	76.8750E-12	281.884E-3	-10.4220E-3	75.1729E-12	300.338E-3	-2.59896E-3
1.35318E-3	77.6784E-12	290.691E-3	29.6131E-3	74.6647E-12	287.059E-3	-7.48613E-3
1.34817E-3	78.9163E-12	296.118E-3	32.2033E-3	75.1066E-12	282.917E-3	4.86132E-3
1.34317E-3	79.6926E-12	301.093E-3	7.19300E-3	75.5012E-12	286.859E-3	8.04055E-3
1.33817E-3	79.7598E-12	293.841E-3	-10.9411E-3	76.0304E-12	285.102E-3	8.23955E-3
1.33317E-3	80.8706E-12	282.728E-3	-14.9837E-3	75.4486E-12	278.328E-3	21.6934E-3
1.32816E-3	81.4268E-12	285.755E-3	-17.9147E-3	76.1090E-12	269.039E-3	14.6025E-3
1.32316E-3	80.9445E-12	294.013E-3	-24.5927E-3	77.2758E-12	257.935E-3	4.71416E-3
1.31816E-3	79.8168E-12	303.300E-3	-28.9037E-3	77.6455E-12	263.116E-3	-760.333E-6
1.31316E-3	78.6028E-12	302.424E-3	-23.9380E-3	78.0017E-12	274.100E-3	-20.6678E-3
1.30815E-3	79.1447E-12	287.674E-3	-6.81423E-3	78.0207E-12	261.175E-3	-32.0954E-3
1.30315E-3	78.3522E-12	275.540E-3	8.77753E-3	78.1726E-12	238.595E-3	-34.4134E-3
1.29815E-3	77.2910E-12	268.350E-3	-1.32036E-3	77.8699E-12	223.773E-3	-34.6492E-3
1.29315E-3	75.7426E-12	255.971E-3	-27.7474E-3	77.9840E-12	219.561E-3	-30.8852E-3
1.28814E-3	75.2543E-12	234.081E-3	-40.4258E-3	77.5747E-12	221.789E-3	-27.1761E-3
1.28314E-3	74.7633E-12	218.334E-3	-29.3156E-3	77.5626E-12	215.206E-3	-22.5923E-3
1.27814E-3	74.1892E-12	214.036E-3	-1.57070E-3	76.1131E-12	210.283E-3	-12.7568E-3
1.27314E-3	74.1793E-12	217.127E-3	13.5972E-3	75.0102E-12	213.275E-3	-4.52233E-3
1.26813E-3	73.7035E-12	226.380E-3	926.880E-6	74.2733E-12	214.138E-3	-7.32980E-3
1.26313E-3	74.3748E-12	225.362E-3	-21.5184E-3	74.0714E-12	203.431E-3	142.534E-6
1.25813E-3	74.7396E-12	215.485E-3	-36.4480E-3	73.7207E-12	186.056E-3	9.63653E-3
1.25313E-3	74.8036E-12	209.122E-3	-31.7004E-3	72.9132E-12	183.839E-3	5.16211E-3
1.24812E-3	73.6360E-12	198.097E-3	-13.1455E-3	73.1495E-12	190.590E-3	-3.21044E-3
1.24312E-3	74.4586E-12	184.852E-3	-12.4099E-3	73.4978E-12	197.159E-3	-6.22024E-3
1.23812E-3	75.6094E-12	186.036E-3	-26.5935E-3	73.6193E-12	189.148E-3	-6.85451E-3
1.23312E-3	75.3684E-12	186.831E-3	-24.4075E-3	73.0082E-12	178.888E-3	-14.8929E-3
1.22811E-3	75.1400E-12	177.917E-3	-15.5961E-3	73.2819E-12	193.712E-3	-14.0738E-3
1.22311E-3	74.8969E-12	183.921E-3	-16.3726E-3	73.9805E-12	209.349E-3	-11.8065E-3
1.21811E-3	76.0218E-12	200.767E-3	-18.5548E-3	74.0675E-12	206.053E-3	-20.1813E-3
1.21311E-3	75.3277E-12	196.130E-3	-17.0500E-3	74.6605E-12	197.401E-3	-29.9237E-3
1.20810E-3	74.9835E-12	175.062E-3	-16.3626E-3	74.9067E-12	190.016E-3	-35.3495E-3
1.20310E-3	74.1623E-12	164.983E-3	-10.6978E-3	75.5736E-12	186.879E-3	-34.5130E-3
1.19810E-3	73.8268E-12	165.546E-3	-3.75106E-3	75.7311E-12	195.137E-3	-36.3716E-3
1.19310E-3	73.3915E-12	169.818E-3	-20.4674E-3	76.4691E-12	198.614E-3	-33.6394E-3
1.18809E-3	72.2823E-12	179.287E-3	-41.8199E-3	76.6971E-12	186.718E-3	-22.4343E-3
1.18309E-3	72.0149E-12	181.529E-3	-37.7368E-3	76.2957E-12	174.445E-3	-5.93147E-3
1.17809E-3	71.8911E-12	170.369E-3	-26.9906E-3	75.8530E-12	174.319E-3	4.01595E-3
1.17309E-3	72.0146E-12	167.602E-3	-10.2617E-3	75.6200E-12	179.485E-3	-12.5727E-3
1.16808E-3	71.7452E-12	177.751E-3	1.15659E-3	74.9453E-12	171.953E-3	-17.6317E-3
1.16308E-3	71.7603E-12	174.829E-3	-15.7050E-3	73.8174E-12	148.132E-3	5.81761E-3
1.15808E-3	71.1577E-12	157.824E-3	-31.6375E-3	72.7549E-12	130.560E-3	5.80415E-3
1.15308E-3	71.3484E-12	141.964E-3	-15.7019E-3	72.5616E-12	125.790E-3	-13.9620E-3
1.14807E-3	72.1432E-12	132.797E-3	14.7304E-3	72.2770E-12	137.333E-3	-19.3938E-3
1.14307E-3	72.1579E-12	141.106E-3	19.5312E-3	71.9513E-12	159.457E-3	-27.0036E-3
1.13807E-3	72.1789E-12	157.839E-3	-1.66359E-3	71.4370E-12	157.597E-3	-34.1383E-3
1.13307E-3	72.1236E-12	157.713E-3	-21.9113E-3	71.5264E-12	137.139E-3	-18.4913E-3
1.12806E-3	74.0257E-12	148.103E-3	-22.5976E-3	72.0140E-12	126.826E-3	-7.94037E-3
1.12306E-3	75.0278E-12	146.231E-3	-9.60302E-3	72.0771E-12	136.812E-3	-19.2593E-3
1.11806E-3	75.1702E-12	144.894E-3	-10.8279E-3	72.4337E-12	154.071E-3	-22.3425E-3
1.11306E-3	74.5437E-12	153.985E-3	-26.8350E-3	73.2633E-12	163.509E-3	-21.2045E-3
1.10805E-3	75.2182E-12	168.489E-3	-26.8587E-3	74.3286E-12	161.767E-3	-13.2830E-3
1.10305E-3	76.0101E-12	160.342E-3	-10.6507E-3	75.2687E-12	161.901E-3	-540.510E-6
1.09805E-3	74.9248E-12	149.221E-3	-5.43635E-3	75.9307E-12	177.013E-3	-9.66629E-3
1.09305E-3	73.9885E-12	158.090E-3	-3.84393E-3	76.1347E-12	179.864E-3	-11.8262E-3
1.08804E-3	73.5780E-12	166.651E-3	-12.2373E-3	76.6241E-12	168.095E-3	2.29642E-3
1.08304E-3	73.9180E-12	163.485E-3	-36.1661E-3	76.6984E-12	158.986E-3	4.61799E-3
1.07804E-3	73.0886E-12	158.373E-3	-37.2068E-3	76.2064E-12	149.446E-3	-9.19092E-3
1.07304E-3	72.3495E-12	155.253E-3	-12.8516E-3	75.7654E-12	156.822E-3	-18.0015E-3
1.06803E-3	71.2462E-12	156.174E-3	-2.85928E-3	75.1276E-12	168.681E-3	-14.7533E-3
1.06303E-3	71.0447E-12	148.968E-3	-21.9116E-3	74.7746E-12	153.185E-3	-17.9910E-3
1.05803E-3	71.2216E-12	132.393E-3	-37.7535E-3	73.5488E-12	132.460E-3	-15.6802E-3
1.05303E-3	71.1356E-12	130.035E-3	-23.9348E-3	72.7810E-12	137.013E-3	-9.50847E-3
1.04802E-3	70.8918E-12	145.757E-3	-2.14505E-3	71.4040E-12	160.232E-3	-20.0796E-3
1.04302E-3	71.2581E-12	160.240E-3	-4.82580E-3	71.5494E-12	177.155E-3	-27.6426E-3
1.03802E-3	72.6001E-12	168.849E-3	-22.9173E-3	70.9192E-12	177.940E-3	-20.8770E-3
1.03302E-3	73.5443E-12	171.275E-3	-29.7415E-3	71.3224E-12	169.038E-3	-12.1456E-3
1.02801E-3	73.6014E-12	164.343E-3	-23.1519E-3	71.3425E-12	168.439E-3	-10.1084E-3
1.02301E-3	73.4409E-12	169.425E-3	-13.8238E-3	71.4982E-12	193.133E-3	-17.6223E-3
1.01801E-3	74.0167E-12	189.206E-3	-8.83551E-3	72.2256E-12	202.148E-3	-23.9818E-3
1.01301E-3	75.6415E-12	200.457E-3	-20.6029E-3	72.7026E-12	188.108E-3	-14.4312E-3
1.00800E-3	76.1031E-12	199.619E-3	-43.7767E-3	73.5441E-12	192.119E-3	-5.83219E-3
1.00300E-3	74.8571E-12	196.670E-3	-46.0197E-3	73.6289E-12	204.214E-3	-18.5114E-3
997.999E-6	73.5560E-12	196.822E-3	-28.7234E-3	74.5937E-12	213.976E-3	-23.2241E-3
992.997E-6	74.5835E-12	198.520E-3	-15.9598E-3	74.8868E-12	230.483E-3	-8.40370E-3
987.994E-6	73.9720E-12	203.458E-3	-17.3359E-3	74.8096E-12	249.134E-3	3.35482E-3
982.991E-6	72.4852E-12	210.402E-3	-32.7464E-3	74.6313E-12	261.518E-3	12.1291E-3
977.989E-6	70.5029E-12	222.629E-3	-37.0653E-3	75.0330E-12	272.709E-3	7.98492E-3
972.986E-6	70.2360E-12	235.221E-3	-27.4079E-3	74.9464E-12	280.388E-3	-15.6991E-3
967.984E-6	70.2238E-12	241.302E-3	-24.1122E-3	74.0228E-12	265.393E-3	-24.7119E-3
962.981E-6	69.6126E-12	243.434E-3	-24.1405E-3	72.5660E-12	259.338E-3	-8.63886E-3
957.979E-6	68.7512E-12	245.246E-3	-27.1306E-3	71.5996E-12	277.179E-3	-117.816E-6
952.976E-6	68.4342E-12	251.641E-3	-35.7962E-3	71.0838E-12	273.752E-3	-12.2728E-3
947.974E-6	68.8583E-12	255.206E-3	-46.8065E-3	70.1711E-12	267.283E-3	-22.5546E-3
942.971E-6	69.1232E-12	275.690E-3	-40.3284E-3	69.2619E-12	290.831E-3	-24.2904E-3
937.969E-6	69.3561E-12	303.922E-3	-13.8735E-3	68.2320E-12	309.763E-3	-26.8916E-3
932.966E-6	69.7249E-12	296.227E-3	3.89078E-3	68.4360E-12	308.955E-3	-18.5192E-3
927.964E-6	69.9935E-12	283.010E-3	-2.89157E-3	68.1172E-12	319.976E-3	-13.4202E-3
922.961E-6	70.8267E-12	294.440E-3	-13.3047E-3	68.2091E-12	346.177E-3	-22.8717E-3
917.959E-6	71.2919E-12	314.022E-3	-7.98369E-3	68.2917E-12	372.468E-3	-25.4280E-3
912.956E-6	71.7821E-12	335.977E-3	-11.4695E-3	69.2975E-12	391.845E-3	-27.0615E-3
907.954E-6	71.3807E-12	353.160E-3	-19.3734E-3	70.0651E-12	405.283E-3	-36.5651E-3
902.951E-6	71.7917E-12	364.566E-3	-6.32273E-3	70.6916E-12	417.539E-3	-29.6722E-3
897.949E-6	72.0736E-12	375.198E-3	-1.68603E-3	71.0073E-12	430.085E-3	-6.88161E-3
892.946E-6	72.0576E-12	390.191E-3	-15.4673E-3	71.7843E-12	450.335E-3	3.98506E-6
887.944E-6	70.4070E-12	407.336E-3	-22.1598E-3	72.3721E-12	466.502E-3	-1.55230E-3
882.941E-6	69.5149E-12	415.879E-3	-31.8988E-3	71.7276E-12	469.564E-3	6.54751E-3
877.939E-6	69.4708E-12	425.498E-3	-50.8138E-3	71.9021E-12	481.214E-3	2.38184E-3
872.936E-6	68.5697E-12	443.301E-3	-49.9134E-3	71.9951E-12	497.589E-3	-19.5840E-3
867.934E-6	67.7292E-12	464.601E-3	-27.3301E-3	72.1281E-12	519.478E-3	-37.7237E-3
862.931E-6	66.6867E-12	475.687E-3	-17.6710E-3	71.4208E-12	539.284E-3	-38.2659E-3
857.929E-6	67.1492E-12	485.256E-3	-16.0224E-3	70.0181E-12	536.679E-3	-27.5768E-3
852.926E-6	67.0459E-12	497.019E-3	-14.2637E-3	69.2860E-12	547.704E-3	-16.6410E-3
847.924E-6	66.7721E-12	513.662E-3	-12.6053E-3	68.7159E-12	591.328E-3	-16.8794E-3
842.921E-6	66.3601E-12	542.968E-3	-4.21597E-3	67.6764E-12	633.043E-3	-22.3358E-3
837.919E-6	66.8005E-12	565.034E-3	-2.12822E-3	66.9190E-12	647.063E-3	-8.76420E-3
832.916E-6	67.2922E-12	572.454E-3	-3.01544E-3	65.9351E-12	650.922E-3	1.98019E-3
827.914E-6	67.6036E-12	572.160E-3	-3.95262E-3	65.3868E-12	668.516E-3	-12.7108E-3
822.911E-6	67.8668E-12	577.831E-3	-13.6389E-3	65.8403E-12	700.407E-3	-24.5552E-3
817.909E-6	68.7582E-12	616.356E-3	-23.6128E-3	66.0546E-12	748.801E-3	-17.3985E-3
812.906E-6	69.1223E-12	676.955E-3	-19.4545E-3	66.0512E-12	795.059E-3	-6.54700E-3
807.904E-6	69.7858E-12	704.730E-3	-11.0046E-3	66.4570E-12	817.781E-3	-5.60556E-3
802.901E-6	69.6291E-12	702.147E-3	-8.65723E-3	67.0424E-12	828.903E-3	-6.30197E-3
797.899E-6	69.6606E-12	718.913E-3	-791.094E-6	67.2393E-12	846.138E-3	-11.5771E-3
792.896E-6	69.1368E-12	760.534E-3	-11.2610E-3	66.7706E-12	881.780E-3	-28.6525E-3
787.894E-6	68.4949E-12	800.568E-3	-28.6817E-3	67.0335E-12	922.361E-3	-39.2451E-3
782.891E-6	67.7785E-12	827.197E-3	-22.1904E-3	67.5447E-12	946.187E-3	-33.8966E-3
777.889E-6	67.1034E-12	852.448E-3	-22.9733E-3	67.5861E-12	955.358E-3	-13.8015E-3
772.886E-6	66.2105E-12	881.295E-3	-30.0857E-3	67.0676E-12	972.771E-3	1.61341E-3
767.884E-6	65.7692E-12	902.641E-3	-16.1890E-3	66.7668E-12	1.01125E+0	-10.9717E-3
762.881E-6	65.0762E-12	919.947E-3	-2.43900E-3	66.5627E-12	1.05703E+0	-21.7567E-3
757.879E-6	64.3800E-12	944.113E-3	-13.6239E-3	65.4783E-12	1.09136E+0	-6.90799E-3
752.876E-6	63.4871E-12	972.045E-3	-17.7957E-3	64.6515E-12	1.10169E+0	5.26685E-3
747.874E-6	63.1647E-12	998.908E-3	1.20057E-3	63.7858E-12	1.10392E+0	-4.71573E-3
742.871E-6	62.8561E-12	1.03638E+0	7.39385E-3	63.1370E-12	1.12832E+0	-20.3312E-3
737.869E-6	62.7227E-12	1.06878E+0	-15.1992E-3	61.7923E-12	1.15988E+0	-27.5993E-3
732.866E-6	62.1506E-12	1.08001E+0	-38.5273E-3	60.2952E-12	1.17554E+0	-26.9419E-3
727.864E-6	62.1985E-12	1.10718E+0	-34.0834E-3	59.5722E-12	1.20134E+0	-15.9458E-3
722.861E-6	62.0809E-12	1.15374E+0	-18.5883E-3	59.5228E-12	1.24040E+0	-8.53157E-3
717.859E-6	62.0062E-12	1.19401E+0	-16.8355E-3	59.4660E-12	1.27724E+0	-6.60278E-3
712.856E-6	62.1761E-12	1.23636E+0	-21.0958E-3	58.9619E-12	1.32203E+0	-3.57826E-3
707.854E-6	61.9220E-12	1.28064E+0	-20.4636E-3	58.5903E-12	1.36080E+0	-9.29507E-3
702.851E-6	61.5086E-12	1.31224E+0	-11.7875E-3	58.5525E-12	1.37433E+0	-12.7009E-3
697.849E-6	61.0115E-12	1.33623E+0	5.67892E-3	58.2814E-12	1.40671E+0	-1.04349E-3
692.846E-6	60.9281E-12	1.36979E+0	8.60557E-3	57.8419E-12	1.47305E+0	5.79095E-3
687.844E-6	60.3400E-12	1.40326E+0	-12.5007E-3	57.5017E-12	1.52743E+0	-12.3221E-3
682.841E-6	59.7076E-12	1.43880E+0	-25.1343E-3	57.1822E-12	1.55877E+0	-15.5821E-3
677.839E-6	58.6189E-12	1.48071E+0	-19.7947E-3	57.4127E-12	1.58812E+0	-9.90439E-3
672.836E-6	57.8238E-12	1.50415E+0	-11.6372E-3	57.3560E-12	1.62871E+0	-24.8042E-3
667.834E-6	56.9565E-12	1.51330E+0	-4.89923E-3	57.8716E-12	1.67111E+0	-17.0076E-3
662.831E-6	55.7787E-12	1.52563E+0	-13.1761E-3	57.5496E-12	1.69423E+0	-2.99369E-3
657.829E-6	54.4232E-12	1.54163E+0	-25.0079E-3	56.6132E-12	1.69627E+0	-15.4220E-3
652.826E-6	52.9229E-12	1.55684E+0	-22.9448E-3	56.5580E-12	1.69363E+0	-30.6050E-3
647.824E-6	52.8577E-12	1.57117E+0	-22.6286E-3	56.4158E-12	1.69380E+0	-29.4805E-3
642.821E-6	51.7750E-12	1.58420E+0	-18.9940E-3	55.2326E-12	1.70772E+0	-12.1592E-3
637.819E-6	51.1605E-12	1.58986E+0	-25.6356E-3	53.2234E-12	1.74060E+0	497.253E-6
632.816E-6	50.1473E-12	1.59821E+0	-39.3285E-3	52.1062E-12	1.76191E+0	-11.2213E-3
627.814E-6	50.0815E-12	1.61513E+0	-32.3819E-3	51.5241E-12	1.75705E+0	-31.3689E-3
622.811E-6	49.3149E-12	1.63792E+0	-26.7765E-3	50.6311E-12	1.75283E+0	-28.0376E-3
617.809E-6	48.6560E-12	1.67779E+0	-20.9931E-3	49.0856E-12	1.77096E+0	-10.3312E-3
612.806E-6	48.5265E-12	1.71805E+0	-18.9706E-3	48.3292E-12	1.79668E+0	218.724E-6
607.804E-6	48.1887E-12	1.74963E+0	-29.2820E-3	48.0669E-12	1.81019E+0	5.12382E-3
602.801E-6	48.3371E-12	1.77244E+0	-24.5240E-3	47.3365E-12	1.82743E+0	-2.02655E-3
597.799E-6	47.7667E-12	1.78790E+0	-13.1289E-3	46.3623E-12	1.86934E+0	-13.1570E-3
592.796E-6	47.5044E-12	1.81276E+0	-13.4323E-3	46.0739E-12	1.92892E+0	-15.9886E-3
587.794E-6	46.8085E-12	1.85018E+0	-21.5325E-3	46.1094E-12	1.98695E+0	-28.1991E-3
582.791E-6	46.5085E-12	1.89241E+0	-21.7083E-3	46.2750E-12	2.02642E+0	-39.9602E-3
577.789E-6	46.0375E-12	1.91387E+0	-16.8152E-3	46.1058E-12	2.07023E+0	-19.8159E-3
572.786E-6	45.4852E-12	1.92412E+0	-19.7671E-3	46.5019E-12	2.13870E+0	-6.34425E-3
567.784E-6	44.6186E-12	1.94519E+0	-24.4018E-3	46.0587E-12	2.18501E+0	-18.6161E-3
562.781E-6	43.1080E-12	1.96767E+0	-30.6948E-3	46.1678E-12	2.19166E+0	-18.6401E-3
557.779E-6	42.6479E-12	1.98875E+0	-28.9166E-3	46.0841E-12	2.17929E+0	-5.78266E-3
552.776E-6	42.2905E-12	2.00303E+0	-19.5396E-3	45.5819E-12	2.15708E+0	1.67955E-3
547.774E-6	41.7936E-12	2.00682E+0	-11.9723E-3	44.5639E-12	2.13072E+0	-7.38653E-3
542.771E-6	40.2168E-12	2.00995E+0	-8.07465E-3	43.1006E-12	2.10899E+0	-24.2617E-3
537.769E-6	39.3703E-12	2.01687E+0	-4.64871E-3	42.1395E-12	2.09279E+0	-26.1469E-3
532.766E-6	39.3472E-12	2.02166E+0	-4.61858E-3	41.0794E-12	2.06092E+0	-3.92995E-3
527.764E-6	38.9713E-12	2.03047E+0	-14.9810E-3	39.6440E-12	2.02371E+0	11.9454E-3
522.761E-6	37.9130E-12	2.04006E+0	-18.0559E-3	38.0378E-12	2.00385E+0	-16.4573E-3
517.759E-6	36.8170E-12	2.04685E+0	-15.0348E-3	36.6485E-12	1.99623E+0	-52.9245E-3
512.756E-6	36.9694E-12	2.05972E+0	-19.6835E-3	35.8206E-12	1.99004E+0	-41.6103E-3
507.754E-6	36.7061E-12	2.06949E+0	-18.2884E-3	34.7815E-12	1.98716E+0	-11.1097E-3
502.751E-6	35.7083E-12	2.07605E+0	-12.2794E-3	33.8806E-12	2.00664E+0	-9.12112E-3
497.749E-6	34.9768E-12	2.08387E+0	-12.4270E-3	33.2114E-12	2.05615E+0	-20.0878E-3
492.746E-6	34.9748E-12	2.09136E+0	-13.9142E-3	33.1607E-12	2.09348E+0	-26.6084E-3
487.744E-6	34.9157E-12	2.09731E+0	-6.79930E-3	33.0067E-12	2.09600E+0	-24.2580E-3
482.741E-6	33.8853E-12	2.11544E+0	2.30868E-3	32.6044E-12	2.10870E+0	-8.52695E-3
477.739E-6	33.2845E-12	2.14790E+0	-5.34038E-3	32.3198E-12	2.15257E+0	-5.19558E-3
472.736E-6	32.8514E-12	2.16447E+0	-30.8773E-3	32.1468E-12	2.17914E+0	-17.1800E-3
467.734E-6	32.4384E-12	2.15394E+0	-53.3524E-3	32.1003E-12	2.16994E+0	-18.1945E-3
462.731E-6	31.0255E-12	2.14414E+0	-51.6268E-3	31.6876E-12	2.15756E+0	-16.1872E-3
457.729E-6	30.3884E-12	2.15279E+0	-31.6740E-3	31.4972E-12	2.14205E+0	-21.7470E-3
452.726E-6	29.7472E-12	2.14300E+0	-12.7533E-3	30.7397E-12	2.11757E+0	-15.2812E-3
447.724E-6	28.7708E-12	2.10362E+0	-6.47601E-3	29.7744E-12	2.09880E+0	-8.73886E-3
442.721E-6	27.7754E-12	2.07823E+0	1.11674E-3	29.0724E-12	2.06360E+0	-21.3001E-3
437.719E-6	27.2860E-12	2.06600E+0	9.87645E-3	28.4328E-12	1.99844E+0	-21.2074E-3
432.716E-6	26.4492E-12	2.04731E+0	-3.68811E-3	27.5282E-12	1.94470E+0	-3.84252E-3
427.714E-6	25.1794E-12	2.02110E+0	-22.1032E-3	25.8320E-12	1.90559E+0	-2.53466E-3
422.711E-6	24.3437E-12	1.98110E+0	-12.4271E-3	24.7684E-12	1.85565E+0	-13.5729E-3
417.709E-6	24.1611E-12	1.94413E+0	-1.65573E-3	24.1899E-12	1.82234E+0	-23.1171E-3
412.706E-6	23.6347E-12	1.92511E+0	-16.1035E-3	23.2489E-12	1.80532E+0	-30.0187E-3
407.704E-6	22.6478E-12	1.91198E+0	-29.1021E-3	21.9887E-12	1.77197E+0	-22.5362E-3
402.701E-6	21.9292E-12	1.89232E+0	-24.6519E-3	21.2222E-12	1.74578E+0	-11.7902E-3
397.699E-6	21.9570E-12	1.86703E+0	-19.5649E-3	21.1009E-12	1.73446E+0	-25.7409E-3
392.696E-6	21.5681E-12	1.84628E+0	-21.2446E-3	20.5173E-12	1.72455E+0	-44.3620E-3
387.694E-6	20.6087E-12	1.83972E+0	-24.1135E-3	19.6061E-12	1.71859E+0	-28.4402E-3
382.691E-6	19.9914E-12	1.83893E+0	-31.7451E-3	19.2565E-12	1.70454E+0	-9.08737E-3
377.689E-6	19.9060E-12	1.82434E+0	-32.6868E-3	19.2707E-12	1.69203E+0	-7.66534E-3
372.686E-6	19.4537E-12	1.79083E+0	-26.5139E-3	18.8862E-12	1.68658E+0	-15.8524E-3
367.684E-6	18.3056E-12	1.76688E+0	-24.2146E-3	18.1513E-12	1.66649E+0	-43.0183E-3
362.681E-6	17.5665E-12	1.75795E+0	-20.0533E-3	17.8383E-12	1.63579E+0	-55.3783E-3
357.679E-6	17.2336E-12	1.73017E+0	-12.3752E-3	17.7909E-12	1.61074E+0	-31.6095E-3
352.676E-6	16.7812E-12	1.67786E+0	-9.25223E-3	17.3186E-12	1.58326E+0	-11.3883E-3
347.674E-6	15.8417E-12	1.62245E+0	-12.5274E-3	16.5190E-12	1.54681E+0	-10.7152E-3
342.671E-6	15.3267E-12	1.59720E+0	-11.7331E-3	16.1375E-12	1.51865E+0	-13.6918E-3
337.669E-6	14.7691E-12	1.58529E+0	-4.90937E-3	15.8823E-12	1.49691E+0	-14.9301E-3
332.666E-6	14.0464E-12	1.54432E+0	-4.53160E-3	15.2377E-12	1.45122E+0	-9.61915E-3
327.664E-6	13.4982E-12	1.48385E+0	-8.84352E-3	14.5790E-12	1.38373E+0	-9.06179E-3
322.661E-6	13.2037E-12	1.43072E+0	-12.3357E-3	14.0044E-12	1.32976E+0	-22.7580E-3
317.659E-6	12.8847E-12	1.39551E+0	-18.7863E-3	13.5592E-12	1.29514E+0	-37.5543E-3
312.656E-6	12.1798E-12	1.36530E+0	-20.9492E-3	12.9570E-12	1.26960E+0	-25.7884E-3
307.654E-6	11.7530E-12	1.33027E+0	-9.66242E-3	12.2470E-12	1.24978E+0	3.64689E-3
302.651E-6	11.7218E-12	1.29534E+0	3.39298E-3	11.9328E-12	1.20999E+0	14.2808E-3
297.649E-6	11.3556E-12	1.25907E+0	7.28187E-3	11.4368E-12	1.14959E+0	2.88357E-3
292.646E-6	10.7470E-12	1.23262E+0	5.39620E-3	10.8095E-12	1.11041E+0	-21.0921E-3
287.644E-6	10.4020E-12	1.22552E+0	-6.86550E-3	10.3736E-12	1.09712E+0	-34.0423E-3
282.641E-6	10.3023E-12	1.21329E+0	-14.2606E-3	10.1254E-12	1.07637E+0	-18.5172E-3
277.639E-6	10.0084E-12	1.17714E+0	-9.34136E-3	9.76305E-12	1.03756E+0	-169.878E-6
272.636E-6	9.48344E-12	1.14323E+0	-16.2759E-3	9.21958E-12	997.135E-3	-10.5367E-3
267.634E-6	8.93302E-12	1.12116E+0	-22.0106E-3	8.89048E-12	966.853E-3	-20.8894E-3
262.631E-6	8.86830E-12	1.08734E+0	-17.5633E-3	8.77017E-12	960.921E-3	-11.0937E-3
257.629E-6	8.66957E-12	1.04950E+0	-19.6538E-3	8.55627E-12	962.619E-3	-4.73421E-3
252.626E-6	8.05169E-12	1.02445E+0	-24.4153E-3	8.03508E-12	937.334E-3	2.24509E-3
247.624E-6	7.71802E-12	1.00428E+0	-34.6538E-3	7.83917E-12	903.636E-3	-4.52756E-3
242.621E-6	7.68738E-12	983.479E-3	-37.8358E-3	7.95045E-12	875.254E-3	-30.0028E-3
237.619E-6	7.51961E-12	953.777E-3	-27.6503E-3	7.72583E-12	837.005E-3	-32.4790E-3
232.616E-6	6.89759E-12	919.350E-3	-24.5240E-3	7.11488E-12	795.427E-3	-9.46291E-3
227.614E-6	6.54549E-12	898.724E-3	-21.1076E-3	6.73631E-12	765.434E-3	-2.12352E-3
222.611E-6	6.39763E-12	870.428E-3	-17.6048E-3	6.68021E-12	735.860E-3	-17.1162E-3
217.609E-6	6.18193E-12	826.977E-3	-12.2966E-3	6.36698E-12	711.140E-3	-30.0700E-3
212.606E-6	5.73263E-12	795.024E-3	-3.25826E-3	5.82427E-12	699.249E-3	-29.4473E-3
207.604E-6	5.58216E-12	763.713E-3	-7.72702E-3	5.59552E-12	672.387E-3	-19.8830E-3
202.601E-6	5.53390E-12	726.563E-3	-17.5955E-3	5.47734E-12	635.092E-3	-3.80927E-3
197.599E-6	5.21351E-12	700.683E-3	-19.4421E-3	5.20163E-12	602.977E-3	-1.82122E-3
192.596E-6	4.91642E-12	675.492E-3	-20.7807E-3	4.76537E-12	573.083E-3	-18.1520E-3
187.594E-6	4.77583E-12	656.112E-3	-20.8009E-3	4.57146E-12	559.451E-3	-22.5816E-3
182.591E-6	4.65382E-12	656.666E-3	-14.8360E-3	4.44906E-12	555.674E-3	-10.4668E-3
177.589E-6	4.34822E-12	647.048E-3	-11.2121E-3	4.18588E-12	522.077E-3	6.61358E-3
172.586E-6	4.12152E-12	619.642E-3	-14.6264E-3	3.89635E-12	478.309E-3	19.9528E-3
167.584E-6	4.11393E-12	595.285E-3	-19.2819E-3	3.76115E-12	472.291E-3	10.3275E-3
162.581E-6	3.96145E-12	576.601E-3	-25.5298E-3	3.67091E-12	478.576E-3	-19.1780E-3
157.579E-6	3.62083E-12	558.983E-3	-31.9031E-3	3.42182E-12	469.375E-3	-19.4146E-3
152.576E-6	3.34163E-12	533.617E-3	-33.5824E-3	3.30053E-12	462.728E-3	924.396E-6
147.574E-6	3.42595E-12	507.876E-3	-32.2566E-3	3.37721E-12	454.120E-3	-4.23056E-3
142.571E-6	3.26565E-12	492.186E-3	-23.7659E-3	3.23853E-12	437.163E-3	-18.8889E-3
137.569E-6	2.90925E-12	476.946E-3	-6.86598E-3	2.96806E-12	437.271E-3	-22.0421E-3
132.566E-6	2.66228E-12	455.540E-3	281.459E-6	2.87731E-12	430.312E-3	-27.3803E-3
127.564E-6	2.75412E-12	429.537E-3	-7.28124E-3	2.95702E-12	392.141E-3	-16.1882E-3
122.561E-6	2.62152E-12	410.899E-3	-10.2600E-3	2.77358E-12	366.289E-3	1.77020E-3
117.559E-6	2.29358E-12	405.894E-3	-11.5373E-3	2.35509E-12	350.958E-3	-13.1831E-3
112.556E-6	2.19039E-12	398.499E-3	-14.2195E-3	2.17187E-12	332.448E-3	-21.9214E-3
107.554E-6	2.15507E-12	380.183E-3	-15.1726E-3	2.30569E-12	334.909E-3	-3.15840E-3
102.551E-6	2.01381E-12	366.351E-3	-22.8207E-3	2.12350E-12	333.494E-3	7.54528E-3
97.5488E-6	1.80406E-12	360.566E-3	-30.7494E-3	1.73000E-12	310.463E-3	1.67140E-3
92.5463E-6	1.68022E-12	340.819E-3	-29.2960E-3	1.61331E-12	303.065E-3	-10.5733E-3
87.5438E-6	1.68017E-12	318.880E-3	-27.0915E-3	1.76641E-12	312.352E-3	-27.6222E-3
82.5413E-6	1.53834E-12	312.483E-3	-19.1918E-3	1.62558E-12	306.316E-3	-23.9304E-3
77.5388E-6	1.27883E-12	312.467E-3	-2.17236E-3	1.25978E-12	300.416E-3	4.21505E-3
72.5363E-6	1.30736E-12	316.281E-3	-3.03266E-3	1.14158E-12	301.077E-3	10.0686E-3
67.5338E-6	1.24233E-12	309.883E-3	-13.0953E-3	1.22843E-12	280.826E-3	-13.6823E-3
62.5313E-6	1.04740E-12	294.534E-3	-8.07588E-3	1.17123E-12	268.274E-3	-35.0552E-3
57.5288E-6	924.463E-15	289.088E-3	-6.87913E-3	936.504E-15	285.741E-3	-38.6974E-3
52.5263E-6	1.00776E-12	289.786E-3	-19.6298E-3	864.875E-15	295.803E-3	-30.0980E-3
47.5238E-6	1.00333E-12	283.953E-3	-23.7383E-3	904.155E-15	289.122E-3	-25.7803E-3
42.5213E-6	662.229E-15	276.791E-3	-12.6348E-3	746.711E-15	289.918E-3	-28.1495E-3
37.5188E-6	563.335E-15	272.726E-3	-449.794E-6	659.282E-15	290.567E-3	-29.3997E-3
32.5163E-6	628.660E-15	268.354E-3	4.15983E-3	652.839E-15	284.830E-3	-20.8122E-3
27.5138E-6	622.426E-15	270.345E-3	-14.7617E-3	533.436E-15	282.962E-3	-8.91759E-3
22.5113E-6	268.021E-15	269.357E-3	-34.6843E-3	277.097E-15	275.938E-3	-5.02304E-3
17.5088E-6	148.479E-15	253.911E-3	-28.3122E-3	229.185E-15	269.762E-3	-3.34186E-3
12.5063E-6	252.108E-15	240.112E-3	-17.3378E-3	279.286E-15	273.346E-3	-15.0990E-3
7.50375E-6	164.941E-15	251.297E-3	-10.0263E-3	132.000E-15	279.848E-3	-30.4309E-3
2.50125E-6	-75.5636E-15	264.152E-3	-5.10340E-3	-114.495E-15	282.625E-3	-10.1501E-3
-2.50125E-6	-185.488E-15	262.311E-3	-7.20646E-3	-194.887E-15	279.183E-3	13.5622E-3
-7.50375E-6	-125.211E-15	265.496E-3	-5.51703E-3	-46.0836E-15	263.944E-3	-6.90592E-3
-12.5063E-6	-232.258E-15	263.822E-3	-9.28423E-3	-215.639E-15	249.817E-3	-30.2022E-3
-17.5088E-6	-472.414E-15	257.646E-3	-29.7099E-3	-545.962E-15	267.593E-3	-26.1831E-3
-22.5113E-6	-540.957E-15	261.940E-3	-43.8487E-3	-582.469E-15	292.231E-3	-25.2869E-3
-27.5138E-6	-544.715E-15	264.639E-3	-36.1752E-3	-456.815E-15	281.454E-3	-28.2442E-3
-32.5163E-6	-696.692E-15	272.152E-3	-21.5266E-3	-550.452E-15	273.017E-3	-27.8718E-3
-37.5188E-6	-837.038E-15	289.521E-3	-14.3470E-3	-874.566E-15	299.212E-3	-35.5917E-3
-42.5213E-6	-919.819E-15	302.475E-3	-13.7843E-3	-983.775E-15	328.261E-3	-33.6770E-3
-47.5238E-6	-960.992E-15	309.427E-3	-19.9359E-3	-934.224E-15	351.153E-3	-17.2648E-3
-52.5263E-6	-1.17281E-12	318.093E-3	-26.6167E-3	-1.00323E-12	367.355E-3	-7.24543E-3
-57.5288E-6	-1.36078E-12	322.223E-3	-26.5286E-3	-1.30527E-12	377.817E-3	-7.55428E-3
-62.5313E-6	-1.31235E-12	321.029E-3	-24.2346E-3	-1.43530E-12	398.036E-3	-24.5559E-3
-67.5338E-6	-1.41053E-12	333.392E-3	-29.4280E-3	-1.49002E-12	417.091E-3	-43.5647E-3
-72.5363E-6	-1.73287E-12	354.006E-3	-33.4276E-3	-1.62939E-12	418.503E-3	-23.8748E-3
-77.5388E-6	-1.90933E-12	360.838E-3	-25.2765E-3	-1.81980E-12	419.237E-3	6.65605E-3
-82.5413E-6	-1.86911E-12	364.305E-3	-16.6844E-3	-1.96143E-12	436.209E-3	-3.63604E-3
-87.5438E-6	-1.93684E-12	383.583E-3	-17.2194E-3	-2.07000E-12	458.819E-3	-29.2702E-3
-92.5463E-6	-2.23987E-12	399.260E-3	-26.1283E-3	-2.25795E-12	487.083E-3	-31.8363E-3
-97.5488E-6	-2.42666E-12	403.926E-3	-33.7921E-3	-2.41768E-12	511.395E-3	-15.7941E-3
-102.551E-6	-2.41442E-12	412.534E-3	-25.4455E-3	-2.46819E-12	505.723E-3	-1.94348E-3
-107.554E-6	-2.48621E-12	420.435E-3	-12.9806E-3	-2.61427E-12	497.732E-3	-6.01488E-3
-112.556E-6	-2.87199E-12	431.644E-3	-16.5321E-3	-2.96663E-12	524.170E-3	-27.2109E-3
-117.559E-6	-3.14328E-12	457.087E-3	-27.1701E-3	-3.07426E-12	558.463E-3	-41.0974E-3
-122.561E-6	-3.13606E-12	488.652E-3	-25.2224E-3	-3.03564E-12	586.964E-3	-23.5982E-3
-127.564E-6	-3.27293E-12	518.065E-3	-12.1633E-3	-3.26071E-12	614.348E-3	979.806E-6
-132.566E-6	-3.67955E-12	539.318E-3	538.103E-6	-3.66972E-12	626.755E-3	1.45072E-3
-137.569E-6	-3.93706E-12	557.986E-3	4.93283E-3	-3.85249E-12	652.167E-3	-16.5228E-3
-142.571E-6	-4.08291E-12	592.009E-3	-5.01538E-3	-3.85678E-12	704.800E-3	-37.7420E-3
-147.574E-6	-4.27645E-12	628.363E-3	-19.5695E-3	-4.08185E-12	739.136E-3	-40.5676E-3
-152.576E-6	-4.57562E-12	653.317E-3	-33.7077E-3	-4.51676E-12	755.273E-3	-20.8022E-3
-157.579E-6	-4.90534E-12	681.203E-3	-43.1514E-3	-4.72196E-12	789.212E-3	-714.712E-6
-162.581E-6	-5.00425E-12	712.312E-3	-36.8529E-3	-4.81754E-12	832.336E-3	-11.9858E-3
-167.584E-6	-5.30633E-12	729.140E-3	-26.4171E-3	-5.18098E-12	875.017E-3	-30.3701E-3
-172.586E-6	-5.74256E-12	738.802E-3	-24.6160E-3	-5.64105E-12	931.258E-3	-21.8519E-3
-177.589E-6	-5.97799E-12	772.382E-3	-20.6554E-3	-5.99128E-12	983.181E-3	-20.5999E-3
-182.591E-6	-6.11886E-12	822.174E-3	-16.7164E-3	-6.27606E-12	1.00505E+0	-27.2505E-3
-187.594E-6	-6.42663E-12	861.696E-3	-28.0368E-3	-6.55949E-12	1.03842E+0	-23.6223E-3
-192.596E-6	-6.80953E-12	888.102E-3	-33.4398E-3	-6.89066E-12	1.09613E+0	-14.8420E-3
-197.599E-6	-7.05157E-12	918.574E-3	-30.7433E-3	-7.24977E-12	1.12899E+0	659.973E-6
-202.601E-6	-7.18011E-12	963.355E-3	-41.3555E-3	-7.69414E-12	1.14596E+0	2.24050E-3
-207.604E-6	-7.68636E-12	998.526E-3	-44.1169E-3	-8.07653E-12	1.18017E+0	-22.6878E-3
-212.606E-6	-8.19224E-12	1.02247E+0	-21.0940E-3	-8.31112E-12	1.23610E+0	-34.8096E-3
-217.609E-6	-8.48860E-12	1.06072E+0	1.50404E-3	-8.48778E-12	1.30529E+0	-20.4991E-3
-222.611E-6	-8.73291E-12	1.11599E+0	2.40171E-3	-9.01271E-12	1.34845E+0	-6.98985E-3
-227.614E-6	-9.32720E-12	1.16516E+0	-11.1622E-3	-9.59632E-12	1.35561E+0	-653.695E-6
-232.616E-6	-10.0385E-12	1.20042E+0	-25.3793E-3	-9.89976E-12	1.38452E+0	5.13204E-3
-237.619E-6	-10.2968E-12	1.24663E+0	-26.8932E-3	-9.91000E-12	1.44854E+0	-2.63454E-3
-242.621E-6	-10.4932E-12	1.31024E+0	-13.6658E-3	-10.4405E-12	1.51251E+0	-15.8722E-3
-247.624E-6	-11.2151E-12	1.37152E+0	-11.5696E-3	-11.2121E-12	1.56998E+0	-14.5898E-3
-252.626E-6	-11.9446E-12	1.41585E+0	-21.4695E-3	-11.6010E-12	1.63315E+0	-20.5732E-3
-257.629E-6	-12.2538E-12	1.44930E+0	-9.46121E-3	-11.9335E-12	1.69417E+0	-37.5940E-3
-262.631E-6	-12.6587E-12	1.48870E+0	2.73063E-3	-12.5848E-12	1.75732E+0	-38.9367E-3
-267.634E-6	-13.5302E-12	1.55238E+0	-13.5701E-3	-13.4565E-12	1.84591E+0	-33.6299E-3
-272.636E-6	-14.3356E-12	1.63229E+0	-25.5770E-3	-14.1711E-12	1.92666E+0	-32.5842E-3
-277.639E-6	-14.7033E-12	1.69911E+0	-22.4445E-3	-14.7236E-12	1.98084E+0	-19.0589E-3
-282.641E-6	-15.1248E-12	1.75894E+0	-25.0349E-3	-15.4490E-12	2.04304E+0	-15.0478E-3
-287.644E-6	-16.1066E-12	1.81975E+0	-30.9726E-3	-16.2054E-12	2.12190E+0	-37.5570E-3
-292.646E-6	-16.9210E-12	1.87374E+0	-37.0315E-3	-16.9684E-12	2.19980E+0	-42.1945E-3
-297.649E-6	-17.2571E-12	1.93708E+0	-43.8588E-3	-17.8538E-12	2.25463E+0	-17.9749E-3
-302.651E-6	-17.7177E-12	2.00547E+0	-40.0860E-3	-18.6824E-12	2.28287E+0	1.04453E-3
-307.654E-6	-18.8466E-12	2.05824E+0	-29.3612E-3	-19.0621E-12	2.31298E+0	1.00575E-3
-312.656E-6	-19.5923E-12	2.11191E+0	-29.4031E-3	-19.6740E-12	2.35372E+0	-18.2117E-3
-317.659E-6	-20.1765E-12	2.18156E+0	-23.3726E-3	-20.4514E-12	2.38469E+0	-37.3530E-3
-322.661E-6	-20.8552E-12	2.24481E+0	-5.06486E-3	-21.0929E-12	2.42785E+0	-32.8852E-3
-327.664E-6	-21.9706E-12	2.29497E+0	201.390E-6	-21.3698E-12	2.49230E+0	-20.7669E-3
-332.666E-6	-22.7113E-12	2.35515E+0	135.830E-6	-21.8154E-12	2.53348E+0	-25.5786E-3
-337.669E-6	-23.2640E-12	2.42848E+0	5.08512E-3	-22.6419E-12	2.54903E+0	-35.3682E-3
-342.671E-6	-24.3109E-12	2.49871E+0	1.53844E-3	-23.3815E-12	2.59746E+0	-34.6951E-3
-347.674E-6	-25.3479E-12	2.56305E+0	-14.2554E-3	-23.9032E-12	2.68963E+0	-32.4603E-3
-352.676E-6	-26.0938E-12	2.61793E+0	-25.9424E-3	-24.4085E-12	2.77733E+0	-30.3489E-3
-357.679E-6	-26.7369E-12	2.66339E+0	-35.8069E-3	-25.3847E-12	2.84622E+0	-27.2349E-3
-362.681E-6	-28.1002E-12	2.71422E+0	-46.5382E-3	-26.9275E-12	2.91006E+0	-38.4915E-3
-367.684E-6	-29.5767E-12	2.78112E+0	-37.6687E-3	-28.0658E-12	2.99541E+0	-46.6523E-3
-372.686E-6	-30.4373E-12	2.86984E+0	-18.9015E-3	-29.2413E-12	3.12000E+0	-21.3394E-3
-377.689E-6	-31.2895E-12	2.96392E+0	-7.22248E-3	-30.1095E-12	3.23989E+0	-1.48354E-3
-382.691E-6	-32.5624E-12	3.03142E+0	-12.3331E-3	-31.9662E-12	3.30103E+0	-13.5557E-3
-387.694E-6	-34.0057E-12	3.07957E+0	-30.8464E-3	-33.3819E-12	3.34952E+0	-20.5687E-3
-392.696E-6	-34.4026E-12	3.13814E+0	-26.4479E-3	-34.8474E-12	3.42362E+0	-13.7339E-3
-397.699E-6	-35.1476E-12	3.19913E+0	-4.37277E-3	-35.7977E-12	3.46914E+0	-13.8421E-3
-402.701E-6	-36.5096E-12	3.24630E+0	-3.09819E-3	-37.0090E-12	3.48624E+0	-11.2651E-3
-407.704E-6	-37.7465E-12	3.29388E+0	-13.5774E-3	-38.1365E-12	3.50075E+0	-3.80666E-3
-412.706E-6	-37.9549E-12	3.34202E+0	-19.2963E-3	-39.1779E-12	3.48515E+0	-13.2181E-3
-417.709E-6	-38.6764E-12	3.36302E+0	-18.2051E-3	-40.2059E-12	3.47562E+0	-18.3060E-3
-422.711E-6	-40.1770E-12	3.36560E+0	-14.1005E-3	-40.6288E-12	3.49090E+0	-15.5989E-3
-427.714E-6	-41.4998E-12	3.38893E+0	-6.72329E-3	-40.9356E-12	3.47568E+0	-26.6092E-3
-432.716E-6	-41.8659E-12	3.43132E+0	-567.932E-6	-41.9017E-12	3.45890E+0	-25.4414E-3
-437.719E-6	-42.5111E-12	3.46331E+0	-10.7015E-3	-42.5446E-12	3.47607E+0	-24.9638E-3
-442.721E-6	-44.5629E-12	3.48705E+0	-25.9526E-3	-43.0752E-12	3.51498E+0	-38.4276E-3
-447.724E-6	-46.0094E-12	3.51810E+0	-32.6155E-3	-43.6417E-12	3.56872E+0	-27.8222E-3
-452.726E-6	-46.7664E-12	3.55872E+0	-21.8112E-3	-45.4110E-12	3.61652E+0	-6.30446E-3
-457.729E-6	-47.1126E-12	3.59920E+0	-15.9603E-3	-47.0069E-12	3.66281E+0	-5.08441E-3
-462.731E-6	-49.0947E-12	3.61527E+0	-32.2053E-3	-48.0183E-12	3.73386E+0	-8.12822E-3
-467.734E-6	-50.9108E-12	3.62703E+0	-37.8692E-3	-49.2568E-12	3.80636E+0	-6.38228E-3
-472.736E-6	-51.9120E-12	3.67550E+0	-16.9203E-3	-51.9234E-12	3.84104E+0	-10.9127E-3
-477.739E-6	-52.5485E-12	3.72857E+0	209.708E-6	-54.1349E-12	3.85684E+0	-8.12321E-3
-482.741E-6	-54.5738E-12	3.74398E+0	-7.05076E-3	-55.3872E-12	3.89393E+0	624.607E-6
-487.744E-6	-55.7789E-12	3.74322E+0	-13.8514E-3	-56.7078E-12	3.93788E+0	-4.16963E-3
-492.746E-6	-56.8378E-12	3.75117E+0	-5.70296E-3	-58.8233E-12	3.94867E+0	-12.6296E-3
-497.749E-6	-57.7525E-12	3.77757E+0	-3.75134E-3	-60.7988E-12	3.93110E+0	-8.87511E-3
-502.751E-6	-58.9388E-12	3.80548E+0	-8.69141E-3	-61.7715E-12	3.90980E+0	-4.75779E-3
-507.754E-6	-60.1015E-12	3.78900E+0	-13.0158E-3	-62.2161E-12	3.86812E+0	-10.2504E-3
-512.756E-6	-60.6326E-12	3.75176E+0	-18.6360E-3	-62.9146E-12	3.82487E+0	-22.4542E-3
-517.759E-6	-61.8446E-12	3.75578E+0	-20.3899E-3	-64.3806E-12	3.79246E+0	-39.5371E-3
-522.761E-6	-62.8958E-12	3.76925E+0	-18.8161E-3	-65.1423E-12	3.74531E+0	-37.2614E-3
-527.764E-6	-64.1378E-12	3.74400E+0	-21.0439E-3	-65.6739E-12	3.72180E+0	-20.2808E-3
-532.766E-6	-64.9909E-12	3.71133E+0	-21.3459E-3	-65.8199E-12	3.71153E+0	-27.9153E-3
-537.769E-6	-66.5518E-12	3.71325E+0	-18.7594E-3	-66.5212E-12	3.67223E+0	-38.5823E-3
-542.771E-6	-68.2575E-12	3.72127E+0	-22.2665E-3	-67.9241E-12	3.64453E+0	-23.9043E-3
-547.774E-6	-68.6266E-12	3.70831E+0	-19.2393E-3	-68.9685E-12	3.65602E+0	-16.9776E-3
-552.776E-6	-69.5138E-12	3.69048E+0	-9.91466E-3	-69.1868E-12	3.65539E+0	-20.9458E-3
-557.779E-6	-71.5959E-12	3.68427E+0	-15.5848E-3	-69.5537E-12	3.61278E+0	-4.52547E-3
-562.781E-6	-73.7999E-12	3.70100E+0	-23.6310E-3	-72.0721E-12	3.57495E+0	-935.730E-6
-567.784E-6	-75.1901E-12	3.70727E+0	-2.10621E-3	-74.7358E-12	3.57609E+0	-27.5759E-3
-572.786E-6	-77.2091E-12	3.68465E+0	13.9715E-3	-76.0627E-12	3.59594E+0	-39.3879E-3
-577.789E-6	-79.3950E-12	3.67437E+0	-16.6071E-3	-76.8528E-12	3.59958E+0	-36.1228E-3
-582.791E-6	-80.7586E-12	3.67655E+0	-42.6291E-3	-79.0154E-12	3.56830E+0	-36.4850E-3
-587.794E-6	-81.4741E-12	3.66943E+0	-37.8754E-3	-81.6892E-12	3.53525E+0	-27.9048E-3
-592.796E-6	-82.5389E-12	3.66308E+0	-15.1278E-3	-82.7556E-12	3.53030E+0	-19.5136E-3
-597.799E-6	-85.0733E-12	3.64469E+0	17.3764E-3	-83.7569E-12	3.51728E+0	-24.1636E-3
-602.801E-6	-85.8075E-12	3.60484E+0	30.5573E-3	-85.1068E-12	3.47654E+0	-9.18315E-3
-607.804E-6	-86.4740E-12	3.56518E+0	25.8364E-3	-87.6311E-12	3.42104E+0	16.7760E-3
-612.806E-6	-87.8199E-12	3.54243E+0	7.78097E-3	-88.8383E-12	3.36503E+0	14.6427E-3
-617.809E-6	-89.3393E-12	3.52157E+0	-6.90701E-3	-89.7044E-12	3.32503E+0	1.04269E-3
-622.811E-6	-90.2137E-12	3.47623E+0	-5.13001E-3	-90.1855E-12	3.28530E+0	-13.2645E-3
-627.814E-6	-90.5779E-12	3.41703E+0	-12.2514E-3	-92.2806E-12	3.21935E+0	-22.2880E-3
-632.816E-6	-91.9851E-12	3.37057E+0	-22.1925E-3	-93.0876E-12	3.13232E+0	-16.8331E-3
-637.819E-6	-93.2289E-12	3.33104E+0	-18.5808E-3	-92.2540E-12	3.06286E+0	-4.52858E-3
-642.821E-6	-93.9963E-12	3.29067E+0	-1.46008E-3	-92.2368E-12	3.00084E+0	-12.2658E-3
-647.824E-6	-95.1844E-12	3.25196E+0	8.72103E-3	-93.3028E-12	2.91137E+0	-33.7735E-3
-652.826E-6	-96.2217E-12	3.21355E+0	-13.8631E-3	-93.7590E-12	2.83556E+0	-22.3634E-3
-657.829E-6	-97.2104E-12	3.17264E+0	-40.1195E-3	-92.8073E-12	2.79284E+0	-4.95084E-3
-662.831E-6	-97.8453E-12	3.12090E+0	-29.2791E-3	-93.3717E-12	2.76209E+0	-3.59781E-3
-667.834E-6	-99.1752E-12	3.05703E+0	-8.12669E-3	-95.1618E-12	2.74733E+0	-7.29612E-3
-672.836E-6	-100.427E-12	3.00830E+0	320.940E-6	-96.1448E-12	2.72943E+0	-22.2920E-3
-677.839E-6	-101.671E-12	2.97011E+0	-9.12088E-3	-97.2912E-12	2.69355E+0	-21.1811E-3
-682.841E-6	-102.945E-12	2.90310E+0	-36.3745E-3	-98.5629E-12	2.66360E+0	-11.0892E-3
-687.844E-6	-103.385E-12	2.84351E+0	-50.2727E-3	-101.252E-12	2.63034E+0	-21.0302E-3
-692.846E-6	-104.278E-12	2.81625E+0	-47.8371E-3	-102.961E-12	2.58330E+0	-39.4109E-3
-697.849E-6	-105.106E-12	2.77697E+0	-34.3981E-3	-104.279E-12	2.54276E+0	-32.3042E-3
-702.851E-6	-105.901E-12	2.72508E+0	-12.2979E-3	-105.287E-12	2.50604E+0	3.47295E-3
-707.854E-6	-106.445E-12	2.67160E+0	11.5443E-6	-107.636E-12	2.46407E+0	16.9755E-3
-712.856E-6	-107.155E-12	2.61138E+0	-5.02881E-3	-109.001E-12	2.41303E+0	-195.418E-6
-717.859E-6	-106.841E-12	2.54832E+0	-16.3666E-3	-110.584E-12	2.35922E+0	-14.7233E-3
-722.861E-6	-107.234E-12	2.47417E+0	-16.7697E-3	-111.749E-12	2.31236E+0	-19.4984E-3
-727.864E-6	-108.233E-12	2.39328E+0	-5.47309E-3	-113.215E-12	2.25219E+0	-11.6033E-3
-732.866E-6	-109.434E-12	2.33469E+0	2.40113E-3	-113.124E-12	2.16410E+0	-3.69686E-3
-737.869E-6	-109.479E-12	2.28351E+0	-972.455E-6	-113.333E-12	2.07952E+0	-10.6047E-3
-742.871E-6	-109.703E-12	2.21426E+0	-9.71631E-3	-113.460E-12	2.00670E+0	-18.9587E-3
-747.874E-6	-110.768E-12	2.16396E+0	-6.28940E-3	-112.945E-12	1.94786E+0	-27.0618E-3
-752.876E-6	-111.061E-12	2.12635E+0	8.93626E-3	-112.059E-12	1.89683E+0	-42.5862E-3
-757.879E-6	-111.801E-12	2.06581E+0	2.75365E-3	-111.798E-12	1.83366E+0	-46.1931E-3
-762.881E-6	-111.534E-12	2.00766E+0	-17.1748E-3	-112.567E-12	1.76915E+0	-36.2885E-3
-767.884E-6	-112.626E-12	1.96376E+0	-8.22858E-3	-112.764E-12	1.71549E+0	-42.6406E-3
-772.886E-6	-113.216E-12	1.91065E+0	9.00802E-3	-111.920E-12	1.66470E+0	-42.1968E-3
-777.889E-6	-113.919E-12	1.83270E+0	2.33785E-3	-111.424E-12	1.61274E+0	-11.1561E-3
-782.891E-6	-114.557E-12	1.76126E+0	-3.36251E-3	-113.480E-12	1.56997E+0	6.36556E-3
-787.894E-6	-114.354E-12	1.71465E+0	-3.76357E-3	-115.233E-12	1.53629E+0	-9.37365E-3
-792.896E-6	-115.042E-12	1.66957E+0	-15.0542E-3	-115.811E-12	1.51402E+0	-25.9718E-3
-797.899E-6	-116.026E-12	1.63192E+0	-30.0004E-3	-114.663E-12	1.49120E+0	-19.6772E-3
-802.901E-6	-116.515E-12	1.59005E+0	-37.7229E-3	-117.257E-12	1.43520E+0	270.639E-6
-807.904E-6	-116.899E-12	1.53619E+0	-40.6479E-3	-119.919E-12	1.36643E+0	9.89383E-3
-812.906E-6	-117.312E-12	1.49427E+0	-41.5479E-3	-121.952E-12	1.32827E+0	-478.814E-6
-817.909E-6	-117.602E-12	1.45275E+0	-21.6338E-3	-122.184E-12	1.29903E+0	-23.6007E-3
-822.911E-6	-116.963E-12	1.40887E+0	6.59302E-3	-122.453E-12	1.25798E+0	-35.7173E-3
-827.914E-6	-117.364E-12	1.37223E+0	17.7055E-3	-124.777E-12	1.21332E+0	-22.7626E-3
-832.916E-6	-118.047E-12	1.32061E+0	1.37147E-3	-125.099E-12	1.16485E+0	7.27647E-3
-837.919E-6	-118.489E-12	1.26392E+0	-21.7353E-3	-124.920E-12	1.11235E+0	14.2961E-3
-842.921E-6	-119.639E-12	1.22098E+0	-15.0898E-3	-122.823E-12	1.05601E+0	-23.3948E-3
-847.924E-6	-120.603E-12	1.18415E+0	-2.92632E-3	-123.426E-12	1.00091E+0	-37.2902E-3
-852.926E-6	-122.088E-12	1.15135E+0	-5.09174E-3	-123.102E-12	961.392E-3	-4.58521E-3
-857.929E-6	-122.171E-12	1.12042E+0	-15.6484E-3	-122.290E-12	926.849E-3	8.90604E-3
-862.931E-6	-121.900E-12	1.08315E+0	-20.7181E-3	-120.434E-12	871.005E-3	-8.52928E-3
-867.934E-6	-121.943E-12	1.02819E+0	-20.5628E-3	-119.483E-12	831.478E-3	-27.4525E-3
-872.936E-6	-122.590E-12	981.782E-3	-28.2112E-3	-120.577E-12	827.437E-3	-31.8093E-3
-877.939E-6	-123.646E-12	948.128E-3	-24.0504E-3	-121.060E-12	813.793E-3	-21.2384E-3
-882.941E-6	-123.921E-12	910.142E-3	-10.5540E-3	-121.482E-12	787.865E-3	-13.0140E-3
-887.944E-6	-123.461E-12	900.558E-3	-2.62534E-3	-121.021E-12	741.098E-3	-928.571E-6
-892.946E-6	-124.298E-12	899.860E-3	-14.5506E-3	-120.656E-12	702.290E-3	10.3574E-3
-897.949E-6	-125.433E-12	864.367E-3	-35.5317E-3	-123.195E-12	708.393E-3	-53.9810E-6
-902.951E-6	-126.287E-12	823.295E-3	-31.1750E-3	-124.916E-12	708.271E-3	-11.8257E-3
-907.954E-6	-126.284E-12	792.591E-3	-13.2859E-3	-125.296E-12	683.187E-3	-4.40799E-3
-912.956E-6	-126.074E-12	753.898E-3	-20.5588E-3	-124.864E-12	663.016E-3	7.95507E-3
-917.959E-6	-126.918E-12	721.282E-3	-25.9242E-3	-126.233E-12	643.531E-3	-5.51031E-3
-922.961E-6	-128.467E-12	703.954E-3	10.4716E-3	-127.998E-12	604.940E-3	-23.3312E-3
-927.964E-6	-128.182E-12	676.024E-3	41.7364E-3	-128.400E-12	572.065E-3	-8.16453E-3
-932.966E-6	-126.742E-12	652.064E-3	32.8601E-3	-128.781E-12	567.263E-3	6.67017E-3
-937.969E-6	-126.161E-12	640.205E-3	14.6252E-3	-128.969E-12	543.994E-3	1.13530E-3
-942.971E-6	-128.547E-12	619.116E-3	-2.77538E-3	-129.037E-12	498.809E-3	-6.01473E-3
-947.974E-6	-129.317E-12	592.202E-3	-28.7033E-3	-128.757E-12	474.213E-3	-16.0272E-3
-952.976E-6	-128.906E-12	568.703E-3	-33.9381E-3	-127.602E-12	456.889E-3	-35.9551E-3
-957.979E-6	-127.497E-12	550.772E-3	-19.5216E-3	-127.748E-12	432.439E-3	-38.5815E-3
-962.981E-6	-127.871E-12	534.371E-3	-18.3977E-3	-126.470E-12	416.171E-3	-15.3695E-3
-967.984E-6	-128.416E-12	512.606E-3	-24.7864E-3	-126.119E-12	404.440E-3	-7.42152E-3
-972.986E-6	-128.791E-12	474.756E-3	-26.4021E-3	-126.275E-12	391.334E-3	-11.5439E-3
-977.989E-6	-128.122E-12	446.727E-3	-30.3538E-3	-127.612E-12	391.640E-3	-21.0501E-3
-982.991E-6	-127.291E-12	456.577E-3	-31.3379E-3	-127.020E-12	386.858E-3	-31.9589E-3
-987.994E-6	-127.760E-12	453.142E-3	-24.4196E-3	-125.937E-12	359.296E-3	-21.9679E-3
-992.997E-6	-129.021E-12	425.437E-3	-26.2754E-3	-126.562E-12	351.018E-3	-8.32162E-3
-997.999E-6	-129.461E-12	417.528E-3	-23.1793E-3	-127.883E-12	358.459E-3	-8.87958E-3
-1.00300E-3	-128.572E-12	407.101E-3	-5.73084E-3	-128.059E-12	350.780E-3	-20.6673E-3
-1.00800E-3	-128.366E-12	380.718E-3	-8.15295E-3	-127.956E-12	337.147E-3	-34.3522E-3
-1.01301E-3	-130.095E-12	344.851E-3	-16.1425E-3	-128.522E-12	317.618E-3	-27.0412E-3
-1.01801E-3	-130.525E-12	306.641E-3	-9.04529E-3	-130.143E-12	303.009E-3	-7.96122E-3
-1.02301E-3	-129.659E-12	289.654E-3	-3.58423E-3	-132.129E-12	299.870E-3	-3.87393E-3
-1.02801E-3	-128.799E-12	308.257E-3	2.63951E-3	-131.894E-12	300.217E-3	1.27103E-3
-1.03302E-3	-129.441E-12	332.287E-3	-851.405E-6	-132.156E-12	300.298E-3	11.5475E-3
-1.03802E-3	-129.795E-12	328.283E-3	-10.6825E-3	-132.507E-12	301.312E-3	2.44156E-3
-1.04302E-3	-129.137E-12	323.912E-3	-10.7413E-3	-132.903E-12	300.036E-3	-24.1786E-3
-1.04802E-3	-128.684E-12	323.559E-3	4.80612E-3	-132.689E-12	276.990E-3	-52.7604E-3
-1.05303E-3	-128.080E-12	296.682E-3	18.7841E-3	-131.923E-12	250.256E-3	-56.1497E-3
-1.05803E-3	-128.220E-12	285.079E-3	4.07313E-3	-131.510E-12	252.799E-3	-37.0858E-3
-1.06303E-3	-128.567E-12	299.985E-3	-17.3758E-3	-131.385E-12	246.980E-3	-34.8537E-3
-1.06803E-3	-127.968E-12	297.410E-3	-14.8546E-3	-131.478E-12	215.250E-3	-41.1906E-3
-1.07304E-3	-127.293E-12	281.028E-3	-2.82717E-3	-131.387E-12	222.022E-3	-37.0879E-3
-1.07804E-3	-127.458E-12	261.535E-3	6.14858E-3	-130.098E-12	250.678E-3	-25.3068E-3
-1.08304E-3	-128.055E-12	247.651E-3	2.85886E-3	-129.082E-12	249.595E-3	-12.3299E-3
-1.08804E-3	-127.580E-12	247.370E-3	-12.0282E-3	-129.928E-12	238.795E-3	-11.6942E-3
-1.09305E-3	-126.333E-12	239.474E-3	-12.8473E-3	-130.031E-12	237.363E-3	-26.3488E-3
-1.09805E-3	-127.233E-12	216.238E-3	211.531E-6	-128.973E-12	235.123E-3	-44.5562E-3
-1.10305E-3	-129.900E-12	200.263E-3	-2.48158E-3	-128.964E-12	232.927E-3	-40.5532E-3
-1.10805E-3	-129.961E-12	187.374E-3	-11.6716E-3	-130.423E-12	216.700E-3	-15.9283E-3
-1.11306E-3	-128.933E-12	177.595E-3	-11.7957E-3	-130.892E-12	194.562E-3	-16.0798E-3
-1.11806E-3	-129.335E-12	189.485E-3	-31.3783E-3	-130.034E-12	199.440E-3	-24.2745E-3
-1.12306E-3	-130.893E-12	208.182E-3	-43.0361E-3	-129.444E-12	217.527E-3	-15.8778E-3
-1.12806E-3	-132.073E-12	215.766E-3	-19.3407E-3	-130.836E-12	233.257E-3	-14.6383E-3
-1.13307E-3	-131.061E-12	215.648E-3	-5.09625E-3	-131.725E-12	235.504E-3	-13.0505E-3
-1.13807E-3	-130.635E-12	209.774E-3	-7.87921E-3	-131.200E-12	226.310E-3	-14.7681E-3
-1.14307E-3	-131.516E-12	199.966E-3	-4.14999E-3	-131.079E-12	205.940E-3	-31.8754E-3
-1.14807E-3	-132.522E-12	197.616E-3	-6.45608E-3	-131.541E-12	197.355E-3	-32.3243E-3
-1.15308E-3	-131.535E-12	210.926E-3	-15.0761E-3	-133.434E-12	211.330E-3	-16.7284E-3
-1.15808E-3	-130.409E-12	233.148E-3	-22.3486E-3	-132.813E-12	236.264E-3	-17.6549E-3
-1.16308E-3	-131.193E-12	243.237E-3	-39.2869E-3	-132.173E-12	255.337E-3	-26.0362E-3
-1.16808E-3	-131.866E-12	226.969E-3	-52.6882E-3	-131.976E-12	232.119E-3	-35.6967E-3
-1.17309E-3	-132.407E-12	205.206E-3	-44.5292E-3	-133.088E-12	201.748E-3	-33.2496E-3
-1.17809E-3	-131.315E-12	201.082E-3	-31.1759E-3	-132.523E-12	206.717E-3	-31.6991E-3
-1.18309E-3	-131.148E-12	217.783E-3	-13.2130E-3	-131.568E-12	223.694E-3	-49.8967E-3
-1.18809E-3	-132.319E-12	238.844E-3	14.1144E-3	-131.649E-12	227.150E-3	-47.0798E-3
-1.19310E-3	-133.209E-12	239.463E-3	24.8786E-3	-131.877E-12	224.138E-3	-35.3572E-3
-1.19810E-3	-132.868E-12	231.563E-3	9.51968E-3	-132.047E-12	224.249E-3	-34.7579E-3
-1.20310E-3	-133.586E-12	238.380E-3	-22.8862E-3	-130.562E-12	212.805E-3	-15.4140E-3
-1.20810E-3	-133.529E-12	249.577E-3	-45.1495E-3	-130.308E-12	212.035E-3	8.54218E-3
-1.21311E-3	-135.283E-12	264.744E-3	-30.7876E-3	-131.552E-12	237.838E-3	5.14067E-3
-1.21811E-3	-135.900E-12	270.130E-3	-6.90574E-3	-132.112E-12	250.474E-3	-12.5617E-3
-1.22311E-3	-135.400E-12	251.552E-3	-11.1855E-3	-131.674E-12	245.586E-3	-15.3087E-3
-1.22811E-3	-135.688E-12	240.988E-3	-45.7759E-3	-131.983E-12	244.638E-3	-8.20388E-3
-1.23312E-3	-134.361E-12	246.806E-3	-63.4219E-3	-133.183E-12	249.882E-3	-18.4882E-3
-1.23812E-3	-135.552E-12	256.534E-3	-50.8008E-3	-134.341E-12	269.562E-3	-29.3636E-3
-1.24312E-3	-136.028E-12	270.891E-3	-35.6591E-3	-134.095E-12	296.376E-3	-33.9632E-3
-1.24812E-3	-135.706E-12	282.093E-3	-10.6804E-3	-135.044E-12	300.728E-3	-47.3366E-3
-1.25313E-3	-134.240E-12	281.340E-3	2.86104E-3	-135.914E-12	293.326E-3	-50.2624E-3
-1.25813E-3	-134.704E-12	282.073E-3	-3.60519E-3	-135.541E-12	288.031E-3	-41.5073E-3
-1.26313E-3	-135.185E-12	272.579E-3	-9.50668E-3	-135.200E-12	279.914E-3	-26.5185E-3
-1.26813E-3	-134.727E-12	247.050E-3	-6.33296E-3	-135.427E-12	288.828E-3	-18.9590E-3
-1.27314E-3	-133.767E-12	250.229E-3	8.24877E-3	-135.593E-12	316.366E-3	-26.0621E-3
-1.27814E-3	-133.039E-12	269.936E-3	12.6624E-3	-134.759E-12	321.314E-3	-31.8874E-3
-1.28314E-3	-133.768E-12	265.265E-3	185.232E-6	-133.970E-12	302.546E-3	-26.2630E-3
-1.28814E-3	-133.626E-12	261.523E-3	-13.1779E-3	-133.998E-12	303.562E-3	-16.7827E-3
-1.29315E-3	-132.523E-12	273.162E-3	-20.2898E-3	-134.033E-12	324.593E-3	-13.9260E-3
-1.29815E-3	-131.343E-12	277.404E-3	-21.0916E-3	-133.508E-12	343.011E-3	-15.7302E-3
-1.30315E-3	-132.161E-12	275.302E-3	-29.5486E-3	-133.524E-12	351.140E-3	-41.4211E-3
-1.30815E-3	-133.498E-12	283.924E-3	-23.1775E-3	-134.460E-12	345.928E-3	-66.6888E-3
-1.31316E-3	-132.722E-12	297.616E-3	-1.73334E-3	-133.774E-12	335.882E-3	-50.8380E-3
-1.31816E-3	-132.949E-12	314.898E-3	-5.41237E-3	-132.758E-12	337.010E-3	-17.4779E-3
-1.32316E-3	-134.088E-12	335.127E-3	-10.9939E-3	-133.706E-12	338.980E-3	-10.0052E-3
-1.32816E-3	-135.365E-12	319.217E-3	-5.52318E-3	-135.004E-12	335.603E-3	-33.7064E-3
-1.33317E-3	-135.486E-12	304.965E-3	-13.6980E-3	-135.636E-12	345.171E-3	-44.6129E-3
-1.33817E-3	-136.178E-12	336.423E-3	-16.5170E-3	-135.122E-12	357.471E-3	-27.2572E-3
-1.34317E-3	-135.995E-12	348.877E-3	-2.04198E-3	-135.199E-12	360.133E-3	-10.2491E-3
-1.34817E-3	-136.737E-12	345.350E-3	787.745E-6	-135.852E-12	368.065E-3	-3.25069E-3
-1.35318E-3	-135.866E-12	359.111E-3	10.3611E-3	-136.684E-12	381.692E-3	-4.73682E-3
-1.35818E-3	-136.057E-12	361.093E-3	25.0299E-3	-136.885E-12	385.705E-3	-13.9315E-3
-1.36318E-3	-135.599E-12	356.981E-3	2.74200E-3	-136.044E-12	381.147E-3	-14.9851E-3
-1.36818E-3	-135.715E-12	357.326E-3	-24.5841E-3	-134.874E-12	376.204E-3	-8.88817E-3
-1.37319E-3	-134.673E-12	361.546E-3	-12.6303E-3	-134.957E-12	381.905E-3	-5.86184E-3
-1.37819E-3	-134.660E-12	377.830E-3	9.28073E-3	-135.216E-12	404.827E-3	-3.59465E-3
-1.38319E-3	-133.919E-12	394.324E-3	8.01464E-3	-134.527E-12	421.942E-3	-1.15303E-3
-1.38819E-3	-132.484E-12	401.278E-3	-11.4071E-3	-133.105E-12	433.490E-3	4.76197E-3
-1.39320E-3	-132.319E-12	389.525E-3	-21.8355E-3	-134.658E-12	449.205E-3	7.42349E-3
-1.39820E-3	-133.327E-12	367.512E-3	-27.0969E-3	-136.257E-12	438.444E-3	-6.71837E-3
-1.40320E-3	-133.505E-12	351.279E-3	-46.9513E-3	-137.010E-12	410.395E-3	-23.1178E-3
-1.40820E-3	-132.858E-12	350.843E-3	-52.0251E-3	-135.050E-12	407.755E-3	-17.1987E-3
-1.41321E-3	-133.134E-12	378.680E-3	-34.7484E-3	-136.055E-12	413.079E-3	-1.27317E-3
-1.41821E-3	-134.975E-12	419.287E-3	-25.3542E-3	-136.867E-12	410.082E-3	7.17862E-3
-1.42321E-3	-136.249E-12	435.906E-3	-30.3356E-3	-136.909E-12	408.392E-3	744.298E-6
-1.42821E-3	-138.118E-12	431.732E-3	-30.9570E-3	-136.642E-12	417.162E-3	-9.53963E-3
-1.43322E-3	-138.777E-12	425.817E-3	-17.4056E-3	-136.922E-12	431.979E-3	-12.7971E-3
-1.43822E-3	-139.879E-12	433.083E-3	-10.4780E-3	-138.283E-12	443.300E-3	-21.9971E-3
-1.44322E-3	-140.436E-12	464.559E-3	-17.3221E-3	-137.953E-12	456.633E-3	-27.9482E-3
-1.44822E-3	-142.164E-12	475.762E-3	-16.5856E-3	-138.459E-12	452.555E-3	-24.9615E-3
-1.45323E-3	-141.547E-12	453.811E-3	-5.58321E-3	-137.891E-12	447.770E-3	-26.6939E-3
-1.45823E-3	-142.662E-12	453.957E-3	-9.06254E-3	-138.212E-12	466.710E-3	-31.8670E-3
-1.46323E-3	-142.663E-12	473.870E-3	-30.7028E-3	-138.474E-12	480.019E-3	-27.8647E-3
-1.46823E-3	-143.453E-12	471.465E-3	-43.3236E-3	-139.139E-12	471.181E-3	-8.81542E-3
-1.47324E-3	-143.088E-12	463.901E-3	-33.2658E-3	-138.342E-12	448.969E-3	5.47090E-3
-1.47824E-3	-142.238E-12	479.254E-3	-11.8907E-3	-137.546E-12	440.479E-3	-9.29604E-3
-1.48324E-3	-142.112E-12	487.157E-3	-8.29321E-3	-138.483E-12	452.730E-3	-35.6166E-3
-1.48824E-3	-141.486E-12	479.503E-3	-15.5056E-3	-138.132E-12	465.599E-3	-37.9211E-3
-1.49325E-3	-140.928E-12	480.079E-3	-5.92078E-3	-137.134E-12	466.214E-3	-15.8889E-3
-1.49825E-3	-139.319E-12	474.906E-3	14.3193E-3	-137.710E-12	463.619E-3	-8.91785E-3
-1.50325E-3	-138.318E-12	481.314E-3	13.9037E-3	-138.102E-12	469.823E-3	-14.0504E-3
-1.50825E-3	-139.290E-12	517.213E-3	-2.26719E-3	-138.842E-12	473.573E-3	-7.61903E-3
-1.51326E-3	-140.229E-12	523.950E-3	7.46354E-3	-138.395E-12	468.440E-3	-6.62552E-3
-1.51826E-3	-140.259E-12	505.111E-3	18.9946E-3	-139.225E-12	473.496E-3	-6.33504E-3
-1.52326E-3	-138.753E-12	504.670E-3	-1.60746E-3	-139.226E-12	500.388E-3	-13.4407E-3
-1.52826E-3	-139.476E-12	502.096E-3	-31.1992E-3	-140.613E-12	521.540E-3	-18.8459E-3
-1.53327E-3	-141.275E-12	484.409E-3	-41.1129E-3	-140.096E-12	522.612E-3	-5.12193E-3
-1.53827E-3	-143.103E-12	477.622E-3	-21.6121E-3	-141.062E-12	518.428E-3	-5.38189E-3
-1.54327E-3	-142.976E-12	501.947E-3	5.28509E-3	-141.303E-12	515.361E-3	-19.3945E-3
-1.54827E-3	-142.291E-12	514.640E-3	7.29980E-3	-141.491E-12	506.003E-3	-27.3277E-3
-1.55328E-3	-143.936E-12	515.810E-3	-15.5021E-3	-142.037E-12	496.594E-3	-20.5662E-3
-1.55828E-3	-144.778E-12	520.627E-3	-34.7532E-3	-142.621E-12	507.474E-3	-16.1242E-3
-1.56328E-3	-145.677E-12	513.679E-3	-36.0336E-3	-143.022E-12	531.715E-3	-14.6668E-3
-1.56828E-3	-143.582E-12	521.807E-3	-27.8764E-3	-142.517E-12	548.754E-3	-9.95262E-3
-1.57329E-3	-143.301E-12	521.674E-3	-25.0402E-3	-143.045E-12	557.035E-3	-21.8324E-3
-1.57829E-3	-143.114E-12	492.395E-3	-34.5242E-3	-143.457E-12	555.553E-3	-14.9587E-3
-1.58329E-3	-143.005E-12	481.414E-3	-23.7147E-3	-142.950E-12	556.380E-3	-2.29931E-3
-1.58829E-3	-141.262E-12	500.106E-3	6.18595E-3	-143.074E-12	560.715E-3	-25.6051E-3
-1.59330E-3	-140.721E-12	510.303E-3	6.41325E-3	-143.030E-12	543.460E-3	-41.2695E-3
-1.59830E-3	-140.817E-12	504.913E-3	-23.0058E-3	-143.610E-12	526.960E-3	-26.3947E-3
-1.60330E-3	-139.570E-12	514.598E-3	-42.2560E-3	-143.453E-12	537.635E-3	355.233E-6
-1.60830E-3	-139.333E-12	529.757E-3	-54.9470E-3	-143.898E-12	552.933E-3	7.09865E-3
-1.61331E-3	-138.550E-12	535.712E-3	-56.9920E-3	-144.437E-12	536.555E-3	-7.50820E-3
-1.61831E-3	-138.680E-12	544.803E-3	-23.7595E-3	-144.786E-12	516.318E-3	-4.65791E-3
-1.62331E-3	-139.610E-12	538.993E-3	778.486E-6	-145.049E-12	531.432E-3	1.46031E-3
-1.62831E-3	-140.696E-12	521.181E-3	-6.42330E-3	-145.306E-12	542.831E-3	-869.219E-6
-1.63332E-3	-142.249E-12	509.645E-3	-5.18749E-3	-145.178E-12	543.194E-3	3.44080E-3
-1.63832E-3	-143.033E-12	515.185E-3	5.16382E-3	-145.545E-12	567.142E-3	-5.72105E-3
-1.64332E-3	-144.438E-12	542.947E-3	-5.83819E-3	-146.270E-12	589.251E-3	-24.0833E-3
-1.64832E-3	-145.646E-12	549.368E-3	-20.8027E-3	-146.797E-12	570.543E-3	-30.4555E-3
-1.65333E-3	-146.292E-12	519.862E-3	-17.8815E-3	-147.002E-12	536.895E-3	-30.0022E-3
-1.65833E-3	-146.728E-12	518.400E-3	-6.54184E-3	-147.175E-12	530.948E-3	-22.7550E-3
-1.66333E-3	-147.251E-12	559.577E-3	7.35606E-3	-147.489E-12	552.368E-3	-8.16463E-3
-1.66833E-3	-148.234E-12	564.684E-3	21.5132E-3	-147.845E-12	578.381E-3	-9.65730E-3
-1.67334E-3	-148.473E-12	550.626E-3	16.1847E-3	-148.657E-12	587.034E-3	-25.1621E-3
-1.67834E-3	-147.476E-12	565.273E-3	-10.7414E-3	-148.429E-12	572.011E-3	-26.5798E-3
-1.68334E-3	-147.178E-12	561.934E-3	-14.3092E-3	-148.264E-12	565.134E-3	-21.4294E-3
-1.68834E-3	-147.714E-12	542.464E-3	-840.734E-6	-148.271E-12	576.036E-3	-15.6715E-3
-1.69335E-3	-147.648E-12	544.674E-3	7.41683E-3	-147.579E-12	565.480E-3	-16.8838E-3
-1.69835E-3	-146.385E-12	551.951E-3	22.5468E-3	-146.496E-12	532.994E-3	-14.7178E-3
-1.70335E-3	-145.567E-12	553.675E-3	25.8091E-3	-146.025E-12	530.782E-3	-7.83269E-3
-1.70835E-3	-145.393E-12	562.352E-3	22.7126E-3	-145.378E-12	556.867E-3	-10.8473E-3
-1.71336E-3	-146.432E-12	561.776E-3	14.2292E-3	-145.161E-12	577.928E-3	-9.94877E-3
-1.71836E-3	-145.796E-12	534.634E-3	-13.4386E-3	-144.824E-12	594.801E-3	382.456E-6
-1.72336E-3	-146.152E-12	525.213E-3	-33.0387E-3	-145.375E-12	578.683E-3	6.24673E-3
-1.72836E-3	-147.206E-12	550.848E-3	-38.4938E-3	-145.736E-12	539.827E-3	2.83560E-3
-1.73337E-3	-148.275E-12	566.557E-3	-30.3692E-3	-146.523E-12	545.949E-3	-22.7601E-3
-1.73837E-3	-148.925E-12	560.980E-3	-7.11260E-3	-146.691E-12	578.842E-3	-52.8000E-3
-1.74337E-3	-150.292E-12	551.781E-3	17.5274E-3	-147.254E-12	600.289E-3	-35.5093E-3
-1.74837E-3	-151.282E-12	553.122E-3	26.0652E-3	-147.942E-12	614.938E-3	-6.25320E-3
-1.75338E-3	-151.409E-12	582.438E-3	9.29211E-3	-148.400E-12	607.197E-3	-8.28938E-3
-1.75838E-3	-152.440E-12	619.113E-3	-16.6916E-3	-149.424E-12	578.295E-3	-12.8414E-3
-1.76338E-3	-153.622E-12	613.201E-3	-36.5775E-3	-148.970E-12	565.935E-3	-26.2317E-3
-1.76838E-3	-154.957E-12	577.980E-3	-28.7119E-3	-149.619E-12	588.231E-3	-41.5406E-3
-1.77339E-3	-154.292E-12	561.715E-3	-22.7396E-3	-149.843E-12	610.065E-3	-17.9700E-3
-1.77839E-3	-154.680E-12	560.247E-3	-53.1051E-3	-151.159E-12	598.707E-3	5.59840E-3
-1.78339E-3	-153.858E-12	580.991E-3	-65.3944E-3	-150.826E-12	578.843E-3	-7.05024E-3
-1.78839E-3	-153.236E-12	608.311E-3	-43.5923E-3	-150.517E-12	577.439E-3	-25.0389E-3
-1.79340E-3	-153.774E-12	603.724E-3	-14.7474E-3	-150.110E-12	575.948E-3	-29.8542E-3
-1.79840E-3	-152.096E-12	592.881E-3	-9.89750E-3	-150.390E-12	578.174E-3	-17.2285E-3
-1.80340E-3	-151.136E-12	587.470E-3	-23.6305E-3	-150.006E-12	598.247E-3	-5.45447E-3
-1.80840E-3	-150.376E-12	583.775E-3	-31.1476E-3	-149.389E-12	612.336E-3	2.50891E-3
-1.81341E-3	-150.625E-12	589.880E-3	-34.2922E-3	-149.507E-12	599.660E-3	-701.877E-6
-1.81841E-3	-149.605E-12	589.490E-3	-28.5500E-3	-149.206E-12	584.509E-3	-28.0286E-3
-1.82341E-3	-148.163E-12	571.767E-3	-32.8974E-3	-151.048E-12	598.004E-3	-33.7823E-3
-1.82841E-3	-147.873E-12	551.042E-3	-51.9824E-3	-150.716E-12	608.521E-3	-19.3127E-3
-1.83342E-3	-148.593E-12	561.317E-3	-46.1135E-3	-152.121E-12	580.334E-3	-15.4660E-3
-1.83842E-3	-149.250E-12	585.389E-3	-27.6718E-3	-151.954E-12	553.387E-3	-18.6107E-3
-1.84342E-3	-148.753E-12	595.349E-3	-29.3715E-3	-153.429E-12	565.989E-3	-24.2578E-3
-1.84842E-3	-149.347E-12	591.118E-3	-31.4043E-3	-154.688E-12	590.328E-3	-24.0145E-3
-1.85343E-3	-150.229E-12	551.003E-3	-29.5611E-3	-154.691E-12	606.857E-3	-14.1973E-3
-1.85843E-3	-152.121E-12	549.008E-3	-39.3783E-3	-155.302E-12	618.791E-3	-19.5645E-3
-1.86343E-3	-151.560E-12	596.953E-3	-42.2253E-3	-155.360E-12	609.030E-3	-39.6261E-3
-1.86843E-3	-151.411E-12	586.564E-3	-27.1537E-3	-157.305E-12	597.923E-3	-37.7857E-3
-1.87344E-3	-153.147E-12	556.486E-3	-31.5626E-3	-157.179E-12	604.358E-3	-24.2301E-3
-1.87844E-3	-156.122E-12	565.483E-3	-34.4309E-3	-157.706E-12	600.095E-3	-18.7065E-3
-1.88344E-3	-156.374E-12	574.303E-3	-21.5160E-3	-156.678E-12	596.464E-3	-5.67520E-3
-1.88844E-3	-154.730E-12	574.774E-3	-22.6539E-3	-157.551E-12	605.651E-3	7.31716E-3
-1.89345E-3	-154.891E-12	578.376E-3	-19.6184E-3	-156.496E-12	602.258E-3	1.67902E-3
-1.89845E-3	-155.893E-12	585.300E-3	-15.7548E-3	-156.643E-12	582.830E-3	-7.85154E-3
-1.90345E-3	-155.879E-12	596.095E-3	-25.4601E-3	-156.309E-12	575.697E-3	-9.62537E-3
-1.90845E-3	-154.851E-12	608.505E-3	-32.2716E-3	-155.899E-12	568.519E-3	-22.5233E-3
-1.91346E-3	-153.065E-12	620.880E-3	-26.0274E-3	-154.858E-12	541.950E-3	-42.5471E-3
-1.91846E-3	-153.290E-12	620.314E-3	-16.5563E-3	-153.448E-12	551.673E-3	-44.1905E-3
-1.92346E-3	-152.916E-12	602.758E-3	-8.38642E-3	-154.003E-12	584.115E-3	-28.7571E-3
-1.92846E-3	-151.724E-12	586.344E-3	8.25207E-3	-153.942E-12	588.841E-3	-7.38157E-3
-1.93347E-3	-149.471E-12	582.151E-3	18.4895E-3	-153.321E-12	588.307E-3	-5.92492E-3
-1.93847E-3	-150.318E-12	590.582E-3	2.34555E-3	-152.380E-12	595.465E-3	-28.9516E-3
-1.94347E-3	-151.403E-12	606.771E-3	-14.3035E-3	-152.941E-12	598.666E-3	-28.0892E-3
-1.94847E-3	-152.009E-12	594.446E-3	-12.8846E-3	-154.452E-12	586.566E-3	1.97157E-3
-1.95348E-3	-151.131E-12	571.134E-3	-23.6289E-3	-154.596E-12	580.121E-3	15.4477E-3
-1.95848E-3	-153.267E-12	567.527E-3	-37.8726E-3	-154.986E-12	602.609E-3	9.29182E-3
-1.96348E-3	-155.445E-12	570.169E-3	-22.6754E-3	-155.572E-12	615.869E-3	-516.479E-6
-1.96848E-3	-156.403E-12	582.709E-3	482.500E-6	-156.204E-12	623.283E-3	-10.7244E-3
-1.97349E-3	-157.865E-12	597.266E-3	8.37829E-3	-157.238E-12	640.044E-3	-13.9974E-3
-1.97849E-3	-159.225E-12	604.493E-3	-11.1419E-3	-159.385E-12	632.251E-3	-15.4064E-3
-1.98349E-3	-160.993E-12	613.674E-3	-26.9397E-3	-159.407E-12	614.014E-3	-26.1455E-3
-1.98849E-3	-160.842E-12	620.441E-3	-17.7767E-3	-159.366E-12	610.533E-3	-41.8954E-3
-1.99350E-3	-161.531E-12	625.989E-3	-25.0205E-3	-159.650E-12	617.439E-3	-41.2427E-3
-1.99850E-3	-161.504E-12	640.676E-3	-38.4466E-3	-161.332E-12	627.749E-3	-28.5100E-3
-2.00350E-3	-162.465E-12	649.547E-3	-45.1619E-3	-160.871E-12	619.293E-3	-30.9796E-3
-2.00850E-3	-161.760E-12	647.703E-3	-53.7458E-3	-159.032E-12	588.287E-3	-31.5967E-3
-2.01351E-3	-160.181E-12	645.680E-3	-43.1952E-3	-158.226E-12	578.254E-3	-5.88437E-3
-2.01851E-3	-160.292E-12	651.624E-3	-29.9292E-3	-159.667E-12	589.927E-3	13.2533E-3
-2.02351E-3	-157.937E-12	641.103E-3	-27.1835E-3	-158.291E-12	609.010E-3	7.72218E-3
-2.02851E-3	-157.321E-12	605.951E-3	-35.9781E-3	-155.870E-12	650.170E-3	-2.76589E-3
-2.03352E-3	-156.185E-12	600.643E-3	-42.6497E-3	-157.086E-12	666.314E-3	-27.7528E-3
-2.03852E-3	-156.275E-12	610.308E-3	-18.4474E-3	-158.641E-12	641.890E-3	-48.0575E-3
-2.04352E-3	-156.014E-12	593.530E-3	1.91899E-3	-159.850E-12	633.898E-3	-37.8008E-3
-2.04852E-3	-155.253E-12	598.576E-3	-5.46006E-3	-158.542E-12	650.160E-3	-22.3889E-3
-2.05353E-3	-158.078E-12	621.981E-3	-20.6896E-3	-158.666E-12	657.967E-3	-6.25235E-3
-2.05853E-3	-160.050E-12	610.236E-3	-42.7456E-3	-160.739E-12	652.596E-3	-3.04397E-3
-2.06353E-3	-161.474E-12	605.493E-3	-57.9479E-3	-163.085E-12	646.499E-3	-17.9275E-3
-2.06853E-3	-160.898E-12	613.534E-3	-50.7703E-3	-162.774E-12	622.422E-3	-29.5533E-3
-2.07354E-3	-163.501E-12	603.754E-3	-35.1332E-3	-162.237E-12	601.438E-3	-26.1805E-3
-2.07854E-3	-165.510E-12	611.676E-3	-15.4612E-3	-162.941E-12	600.373E-3	-20.5231E-3
-2.08354E-3	-166.685E-12	636.802E-3	6.94218E-3	-164.884E-12	607.237E-3	-20.5216E-3
-2.08854E-3	-166.520E-12	651.807E-3	17.4304E-3	-165.906E-12	638.107E-3	-13.9013E-3
-2.09355E-3	-167.974E-12	655.915E-3	7.58788E-3	-165.338E-12	661.284E-3	-11.1445E-3
-2.09855E-3	-168.627E-12	660.060E-3	-6.25511E-3	-165.014E-12	651.589E-3	2.61533E-3
-2.10355E-3	-168.216E-12	664.225E-3	-1.79836E-3	-164.747E-12	636.199E-3	19.8907E-3
-2.10855E-3	-166.343E-12	652.224E-3	-4.57647E-3	-166.454E-12	614.318E-3	5.47675E-3
-2.11356E-3	-164.336E-12	647.184E-3	-23.2344E-3	-165.895E-12	597.266E-3	-17.3067E-3
-2.11856E-3	-163.776E-12	665.579E-3	-26.6149E-3	-166.041E-12	620.898E-3	-9.65127E-3
-2.12356E-3	-162.168E-12	667.276E-3	-23.2675E-3	-164.945E-12	661.923E-3	293.457E-6
-2.12856E-3	-161.519E-12	652.161E-3	1.96760E-3	-164.395E-12	647.138E-3	-16.9101E-3
-2.13357E-3	-159.357E-12	637.445E-3	32.8740E-3	-165.592E-12	607.371E-3	-11.1211E-3
-2.13857E-3	-157.762E-12	625.644E-3	5.76699E-3	-163.878E-12	617.515E-3	387.346E-6
-2.14357E-3	-158.069E-12	620.959E-3	-32.1316E-3	-163.567E-12	635.234E-3	-24.2394E-3
-2.14857E-3	-157.574E-12	613.872E-3	-22.0565E-3	-162.681E-12	645.726E-3	-30.9101E-3
-2.15358E-3	-159.037E-12	624.662E-3	-13.1558E-3	-164.709E-12	663.632E-3	-21.2027E-3
-2.15858E-3	-158.956E-12	639.694E-3	-15.1838E-3	-164.729E-12	658.681E-3	-28.1723E-3
-2.16358E-3	-160.965E-12	632.905E-3	-7.63891E-3	-164.775E-12	644.791E-3	-33.8874E-3
-2.16858E-3	-162.738E-12	625.446E-3	-5.89050E-3	-164.617E-12	645.489E-3	-40.4409E-3
-2.17359E-3	-164.251E-12	628.719E-3	-9.94481E-3	-166.053E-12	661.154E-3	-43.8164E-3
-2.17859E-3	-165.835E-12	632.534E-3	-11.5455E-3	-166.520E-12	678.149E-3	-27.2949E-3
-2.18359E-3	-166.596E-12	616.020E-3	-7.66685E-3	-166.616E-12	693.996E-3	-1.44471E-3
-2.18859E-3	-168.132E-12	612.276E-3	-16.6514E-3	-167.189E-12	703.780E-3	2.86468E-3
-2.19360E-3	-168.316E-12	640.563E-3	-24.8703E-3	-167.680E-12	681.445E-3	-2.76304E-3
-2.19860E-3	-168.929E-12	655.993E-3	-31.4854E-6	-168.762E-12	649.688E-3	-2.67860E-3
-2.20360E-3	-169.098E-12	645.340E-3	19.5163E-3	-167.593E-12	628.816E-3	-14.1980E-3
-2.20860E-3	-168.973E-12	632.056E-3	16.4725E-3	-168.122E-12	627.671E-3	-3.15955E-3
-2.21361E-3	-168.224E-12	619.657E-3	915.588E-6	-168.091E-12	643.732E-3	20.1993E-3
-2.21861E-3	-165.597E-12	623.154E-3	-38.8449E-3	-168.994E-12	644.195E-3	5.27419E-3
-2.22361E-3	-166.842E-12	648.070E-3	-66.1396E-3	-167.552E-12	630.053E-3	-7.22657E-3
-2.22861E-3	-167.512E-12	647.900E-3	-57.9276E-3	-167.431E-12	631.274E-3	-4.95483E-3
-2.23362E-3	-167.113E-12	637.569E-3	-41.5699E-3	-168.505E-12	650.809E-3	-20.0650E-3
-2.23862E-3	-164.751E-12	652.677E-3	-31.5673E-3	-168.386E-12	661.432E-3	-22.0344E-3
-2.24362E-3	-164.895E-12	666.338E-3	-22.8711E-3	-168.739E-12	660.637E-3	-10.3388E-3
-2.24862E-3	-166.336E-12	656.606E-3	-15.2176E-3	-167.955E-12	654.604E-3	-25.4307E-3
-2.25363E-3	-165.480E-12	627.492E-3	-17.0617E-3	-168.830E-12	645.151E-3	-49.7258E-3
-2.25863E-3	-164.172E-12	615.599E-3	-12.4652E-3	-167.736E-12	646.828E-3	-53.5354E-3
-2.26363E-3	-164.976E-12	626.119E-3	617.093E-6	-170.099E-12	649.962E-3	-37.1878E-3
-2.26863E-3	-167.956E-12	620.518E-3	2.10322E-3	-169.567E-12	657.207E-3	-26.0553E-3
-2.27364E-3	-168.822E-12	602.176E-3	-7.55954E-3	-169.144E-12	677.034E-3	-24.0403E-3
-2.27864E-3	-169.115E-12	602.375E-3	-12.0507E-3	-169.785E-12	688.479E-3	-23.3255E-3
-2.28364E-3	-170.253E-12	645.219E-3	-2.63905E-3	-171.610E-12	672.062E-3	-9.24405E-3
-2.28864E-3	-172.635E-12	687.364E-3	5.81566E-3	-172.604E-12	644.563E-3	14.5848E-3
-2.29365E-3	-174.274E-12	677.170E-3	-835.337E-6	-170.160E-12	649.657E-3	21.4730E-3
-2.29865E-3	-174.369E-12	663.976E-3	-5.11625E-3	-171.143E-12	663.894E-3	10.6070E-3
-2.30365E-3	-175.227E-12	670.447E-3	2.17469E-3	-172.382E-12	647.967E-3	-10.8646E-3
-2.30865E-3	-176.197E-12	682.625E-3	10.1213E-3	-174.799E-12	631.626E-3	-20.9766E-3
-2.31366E-3	-176.507E-12	694.844E-3	7.96247E-3	-173.160E-12	641.814E-3	-24.3719E-3
-2.31866E-3	-176.131E-12	693.467E-3	2.42064E-3	-173.100E-12	656.893E-3	-32.9636E-3
-2.32366E-3	-176.325E-12	692.372E-3	-11.9084E-3	-173.771E-12	653.446E-3	-33.1034E-3
-2.32866E-3	-176.636E-12	688.770E-3	-19.7157E-3	-173.934E-12	638.617E-3	-36.5322E-3
-2.33367E-3	-176.452E-12	673.364E-3	-14.2041E-3	-173.359E-12	635.292E-3	-23.3539E-3
-2.33867E-3	-176.141E-12	662.272E-3	-23.5046E-3	-171.534E-12	651.746E-3	3.57799E-3
-2.34367E-3	-173.850E-12	669.408E-3	-22.9755E-3	-171.258E-12	661.934E-3	643.040E-6
-2.34867E-3	-172.484E-12	677.323E-3	-12.6260E-3	-171.191E-12	653.258E-3	7.22803E-3
-2.35368E-3	-172.165E-12	660.587E-3	-17.3578E-3	-171.834E-12	649.724E-3	40.0587E-3
-2.35868E-3	-171.275E-12	655.090E-3	-23.4581E-3	-172.188E-12	643.358E-3	47.3628E-3
-2.36368E-3	-170.836E-12	676.516E-3	-21.7750E-3	-173.064E-12	632.704E-3	41.0200E-3
-2.36868E-3	-169.658E-12	681.510E-3	-27.0504E-3	-171.822E-12	640.317E-3	25.8830E-3
-2.37369E-3	-171.899E-12	665.117E-3	-29.0132E-3	-172.897E-12	656.907E-3	-8.68868E-3
-2.37869E-3	-173.605E-12	646.956E-3	-15.0122E-3	-173.592E-12	661.719E-3	-15.7758E-3
-2.38369E-3	-174.081E-12	645.324E-3	-11.3144E-3	-174.176E-12	668.911E-3	3.07209E-3
-2.38869E-3	-173.877E-12	644.529E-3	-27.5050E-3	-174.543E-12	697.490E-3	10.9995E-3
-2.39370E-3	-175.225E-12	633.136E-3	-28.0813E-3	-174.725E-12	694.851E-3	-1.43495E-3
-2.39870E-3	-177.079E-12	636.282E-3	-1.11245E-3	-175.450E-12	640.486E-3	-21.9350E-3
-2.40370E-3	-179.888E-12	654.881E-3	15.5287E-3	-175.440E-12	614.628E-3	-31.5234E-3
-2.40870E-3	-180.003E-12	669.301E-3	-3.41579E-3	-175.340E-12	641.929E-3	-25.9133E-3
-2.41371E-3	-179.182E-12	677.758E-3	-41.3826E-3	-175.935E-12	674.775E-3	-6.53024E-3
-2.41871E-3	-179.863E-12	695.556E-3	-64.9745E-3	-176.244E-12	669.180E-3	-652.971E-6
-2.42371E-3	-179.945E-12	705.335E-3	-48.8542E-3	-176.070E-12	632.219E-3	-2.75061E-3
-2.42871E-3	-179.374E-12	690.167E-3	-21.3749E-3	-175.718E-12	627.178E-3	16.2772E-3
-2.43372E-3	-176.918E-12	679.391E-3	-24.9786E-3	-175.782E-12	640.167E-3	21.1508E-3
-2.43872E-3	-174.223E-12	669.276E-3	-38.1409E-3	-176.392E-12	636.915E-3	8.12869E-3
-2.44372E-3	-173.943E-12	649.730E-3	-27.0198E-3	-176.247E-12	632.374E-3	6.99729E-3
-2.44872E-3	-173.038E-12	661.770E-3	-24.1645E-3	-173.748E-12	646.056E-3	-15.3179E-3
-2.45373E-3	-171.745E-12	665.939E-3	-39.6136E-3	-174.312E-12	673.160E-3	-43.6617E-3
-2.45873E-3	-169.797E-12	624.486E-3	-34.4981E-3	-175.169E-12	698.684E-3	-42.3257E-3
-2.46373E-3	-169.517E-12	592.126E-3	-12.2276E-3	-176.754E-12	695.937E-3	-38.0518E-3
-2.46873E-3	-170.389E-12	599.598E-3	4.54974E-3	-175.299E-12	645.298E-3	-33.3361E-3
-2.47374E-3	-171.968E-12	615.346E-3	-8.31967E-3	-175.778E-12	623.301E-3	-31.8400E-3
-2.47874E-3	-172.277E-12	614.971E-3	-14.2362E-3	-177.583E-12	666.066E-3	-40.2008E-3
-2.48374E-3	-174.003E-12	626.621E-3	6.29687E-3	-179.290E-12	689.604E-3	-39.8836E-3
-2.48874E-3	-176.446E-12	652.427E-3	2.13410E-3	-179.064E-12	679.923E-3	-19.0080E-3
-2.49375E-3	-180.025E-12	646.259E-3	-6.98846E-3	-179.171E-12	670.924E-3	-465.096E-6
-2.49875E-3	-182.430E-12	621.136E-3	1.58949E-3	-180.882E-12	669.743E-3	-19.6795E-3
-2.50375E-3	-183.757E-12	630.484E-3	1.99882E-3	-181.856E-12	671.759E-3	-36.4666E-3
-2.50875E-3	-185.523E-12	656.785E-3	-9.29973E-3	-182.007E-12	680.327E-3	-27.7217E-3
-2.51376E-3	-188.299E-12	675.591E-3	-21.1217E-3	-182.273E-12	702.145E-3	-31.4212E-3
-2.51876E-3	-189.426E-12	679.880E-3	-28.3954E-3	-182.022E-12	701.667E-3	-31.0048E-3
-2.52376E-3	-187.809E-12	657.581E-3	-36.9974E-3	-182.694E-12	684.436E-3	-28.6280E-3
-2.52876E-3	-186.204E-12	629.758E-3	-43.2101E-3	-181.593E-12	656.218E-3	-47.2585E-3
-2.53377E-3	-186.385E-12	636.790E-3	-34.8465E-3	-182.497E-12	629.194E-3	-41.7910E-3
-2.53877E-3	-186.469E-12	662.541E-3	-21.3690E-3	-180.112E-12	649.559E-3	-13.2209E-3
-2.54377E-3	-183.534E-12	679.864E-3	-14.3857E-3	-180.540E-12	675.246E-3	-26.7221E-3
-2.54877E-3	-180.901E-12	688.797E-3	154.994E-6	-180.107E-12	660.692E-3	-49.7077E-3
-2.55378E-3	-179.454E-12	669.370E-3	10.3268E-3	-179.557E-12	666.603E-3	-38.5203E-3
-2.55878E-3	-179.831E-12	640.412E-3	11.6345E-3	-178.847E-12	698.343E-3	-46.3729E-3
-2.56378E-3	-177.880E-12	640.410E-3	8.63742E-3	-178.152E-12	690.862E-3	-63.9258E-3
-2.56878E-3	-177.629E-12	660.444E-3	-11.4043E-3	-177.903E-12	685.771E-3	-39.0175E-3
-2.57379E-3	-177.629E-12	669.399E-3	-27.3563E-3	-178.742E-12	696.270E-3	-21.0117E-3
-2.57879E-3	-179.566E-12	663.033E-3	-34.1863E-3	-180.062E-12	673.808E-3	-33.7627E-3
-2.58379E-3	-181.316E-12	644.287E-3	-29.4230E-3	-181.580E-12	640.395E-3	-33.6507E-3
-2.58879E-3	-182.773E-12	627.729E-3	-8.91684E-3	-181.176E-12	637.384E-3	-32.2308E-3
-2.59380E-3	-184.875E-12	622.734E-3	5.94318E-3	-184.427E-12	639.779E-3	-41.6864E-3
-2.59880E-3	-186.826E-12	625.941E-3	8.90541E-3	-185.602E-12	638.710E-3	-33.2721E-3
-2.60380E-3	-190.221E-12	666.461E-3	-9.51221E-3	-187.979E-12	670.182E-3	-34.3870E-3
-2.60880E-3	-192.818E-12	712.471E-3	-27.5283E-3	-187.845E-12	691.987E-3	-49.7838E-3
-2.61381E-3	-193.812E-12	702.543E-3	-11.9717E-3	-189.333E-12	672.375E-3	-37.5421E-3
-2.61881E-3	-193.528E-12	695.378E-3	2.07314E-3	-187.592E-12	662.570E-3	-26.9125E-3
-2.62381E-3	-193.863E-12	725.429E-3	6.84093E-3	-188.692E-12	667.318E-3	-39.3264E-3
-2.62881E-3	-193.825E-12	717.649E-3	10.0325E-3	-188.683E-12	663.092E-3	-41.6984E-3
-2.63382E-3	-192.618E-12	682.544E-3	-2.72683E-3	-188.432E-12	664.595E-3	-39.2264E-3
-2.63882E-3	-190.545E-12	680.245E-3	-15.6847E-3	-187.207E-12	649.457E-3	-41.1842E-3
-2.64382E-3	-188.256E-12	678.403E-3	-24.3776E-3	-186.180E-12	618.482E-3	-17.3534E-3
-2.64882E-3	-188.499E-12	664.409E-3	-16.3623E-3	-187.378E-12	636.664E-3	16.1189E-3
-2.65383E-3	-185.836E-12	653.683E-3	-3.14105E-3	-186.672E-12	669.153E-3	11.1532E-3
-2.65883E-3	-183.512E-12	634.591E-3	-6.61673E-3	-185.153E-12	665.252E-3	-10.3269E-3
-2.66383E-3	-181.775E-12	610.947E-3	-6.21612E-3	-183.378E-12	657.179E-3	-8.72644E-3
-2.66883E-3	-183.510E-12	614.956E-3	-3.92283E-3	-185.574E-12	648.853E-3	-1.55892E-3
-2.67384E-3	-183.321E-12	645.198E-3	-16.6488E-3	-186.454E-12	640.618E-3	-2.86992E-3
-2.67884E-3	-182.055E-12	670.330E-3	-40.9728E-3	-188.191E-12	658.504E-3	-23.5545E-3
-2.68384E-3	-182.041E-12	690.086E-3	-33.8992E-3	-187.344E-12	693.958E-3	-49.5596E-3
-2.68884E-3	-183.605E-12	678.976E-3	-2.87676E-3	-187.588E-12	690.782E-3	-20.7032E-3
-2.69385E-3	-186.521E-12	634.334E-3	-15.7502E-3	-191.068E-12	662.964E-3	36.9252E-3
-2.69885E-3	-186.408E-12	617.525E-3	-40.4645E-3	-190.578E-12	666.303E-3	22.6078E-3
-2.70385E-3	-187.481E-12	627.478E-3	-28.2107E-3	-190.182E-12	679.110E-3	-19.0345E-3
-2.70885E-3	-189.069E-12	618.999E-3	-14.0191E-3	-189.869E-12	691.609E-3	-7.95599E-3
-2.71386E-3	-192.142E-12	621.239E-3	-13.6106E-3	-192.266E-12	714.366E-3	-8.95581E-3
-2.71886E-3	-193.338E-12	658.256E-3	-3.59570E-3	-192.569E-12	708.374E-3	-21.1424E-3
-2.72386E-3	-193.168E-12	672.294E-3	-2.21676E-3	-191.207E-12	668.961E-3	-9.45279E-3
-2.72886E-3	-194.384E-12	657.492E-3	-20.1308E-3	-191.525E-12	649.766E-3	-23.6801E-3
-2.73387E-3	-193.841E-12	667.673E-3	-31.8531E-3	-191.079E-12	666.121E-3	-33.0022E-3
-2.73887E-3	-197.366E-12	688.045E-3	-28.9657E-3	-190.797E-12	680.191E-3	-6.90354E-3
-2.74387E-3	-195.782E-12	696.446E-3	-11.6403E-3	-190.310E-12	659.277E-3	5.67722E-3
-2.74887E-3	-194.429E-12	702.206E-3	9.14019E-3	-188.805E-12	637.586E-3	1.65619E-3
-2.75388E-3	-192.812E-12	697.542E-3	-3.44356E-3	-188.645E-12	655.180E-3	-8.59141E-3
-2.75888E-3	-193.059E-12	681.714E-3	-35.0284E-3	-188.981E-12	665.422E-3	-16.5001E-3
-2.76388E-3	-191.825E-12	671.497E-3	-31.6081E-3	-188.920E-12	640.863E-3	-6.63909E-3
-2.76888E-3	-188.398E-12	642.163E-3	-14.0151E-3	-187.666E-12	612.430E-3	-3.42819E-3
-2.77389E-3	-186.946E-12	637.867E-3	-11.6150E-3	-186.804E-12	598.554E-3	-26.3238E-3
-2.77889E-3	-187.340E-12	666.976E-3	-14.0516E-3	-186.858E-12	614.791E-3	-31.2642E-3
-2.78389E-3	-187.513E-12	660.033E-3	-17.3193E-3	-187.668E-12	644.386E-3	-20.6427E-3
-2.78889E-3	-185.696E-12	644.381E-3	-20.6413E-3	-188.206E-12	666.236E-3	-30.0897E-3
-2.79390E-3	-185.162E-12	627.302E-3	-15.5375E-3	-188.061E-12	669.356E-3	-57.5746E-3
-2.79890E-3	-186.199E-12	614.890E-3	-25.4996E-3	-189.261E-12	661.974E-3	-60.2820E-3
-2.80390E-3	-189.384E-12	623.392E-3	-46.0684E-3	-191.525E-12	673.637E-3	-36.5320E-3
-2.80890E-3	-191.113E-12	632.139E-3	-47.2273E-3	-192.047E-12	677.039E-3	-28.6981E-3
-2.81391E-3	-192.284E-12	636.384E-3	-31.5809E-3	-191.077E-12	665.791E-3	-14.5148E-3
-2.81891E-3	-193.356E-12	633.070E-3	-1.24017E-3	-190.992E-12	671.978E-3	11.2001E-3
-2.82391E-3	-197.883E-12	636.531E-3	16.7230E-3	-194.811E-12	668.253E-3	12.2302E-3
-2.82891E-3	-199.471E-12	662.602E-3	12.8551E-3	-196.602E-12	667.050E-3	-6.19373E-3
-2.83392E-3	-201.191E-12	705.045E-3	3.95635E-3	-195.824E-12	697.479E-3	-20.4304E-3
-2.83892E-3	-200.682E-12	725.728E-3	-317.723E-6	-196.478E-12	715.748E-3	-24.8965E-3
-2.84392E-3	-202.357E-12	696.980E-3	3.95153E-3	-197.434E-12	707.535E-3	-26.3537E-3
-2.84892E-3	-202.884E-12	674.003E-3	-19.7285E-3	-197.956E-12	697.394E-3	-38.6706E-3
-2.85393E-3	-201.853E-12	673.653E-3	-50.1091E-3	-195.895E-12	694.047E-3	-38.5789E-3
-2.85893E-3	-197.932E-12	676.621E-3	-28.5924E-3	-196.612E-12	691.198E-3	-26.7259E-3
-2.86393E-3	-195.595E-12	694.751E-3	2.17410E-3	-196.107E-12	686.988E-3	-25.4575E-3
-2.86893E-3	-196.850E-12	710.442E-3	10.9512E-3	-197.296E-12	672.927E-3	-17.1533E-3
-2.87394E-3	-192.985E-12	704.691E-3	6.95888E-3	-194.086E-12	652.691E-3	-17.0010E-3
-2.87894E-3	-191.535E-12	694.665E-3	-16.8275E-3	-193.574E-12	647.991E-3	-25.3087E-3
-2.88394E-3	-188.300E-12	698.693E-3	-36.3443E-3	-193.479E-12	663.868E-3	-38.8777E-3
-2.88894E-3	-189.161E-12	676.331E-3	-26.2556E-3	-195.024E-12	667.975E-3	-40.1150E-3
-2.89395E-3	-188.286E-12	642.275E-3	-10.7769E-3	-194.620E-12	655.568E-3	-3.57294E-3
-2.89895E-3	-189.359E-12	646.614E-3	-21.0669E-3	-195.200E-12	673.521E-3	-457.066E-6
-2.90395E-3	-190.557E-12	644.122E-3	-27.0876E-3	-195.288E-12	702.786E-3	-16.1548E-3
-2.90895E-3	-191.040E-12	623.708E-3	-19.5942E-3	-196.625E-12	699.425E-3	-321.646E-6
-2.91396E-3	-193.405E-12	628.716E-3	-24.0587E-3	-199.302E-12	691.307E-3	1.81190E-3
-2.91896E-3	-196.718E-12	661.731E-3	-30.9959E-3	-200.530E-12	682.651E-3	-17.7425E-3
-2.92396E-3	-201.205E-12	682.102E-3	-35.9345E-3	-201.548E-12	674.207E-3	-29.2193E-3
-2.92896E-3	-201.263E-12	687.536E-3	-38.8435E-3	-203.243E-12	703.528E-3	-15.8715E-3
-2.93397E-3	-205.429E-12	706.914E-3	-17.6590E-3	-204.739E-12	719.761E-3	-11.8901E-3
-2.93897E-3	-208.590E-12	712.687E-3	-882.620E-6	-205.572E-12	693.808E-3	-19.8936E-3
-2.94397E-3	-210.204E-12	711.068E-3	-22.2075E-3	-204.797E-12	669.291E-3	-9.37918E-3
-2.94897E-3	-208.815E-12	723.998E-3	-28.5287E-3	-207.066E-12	661.768E-3	20.1239E-3
-2.95398E-3	-207.754E-12	739.375E-3	-25.2816E-3	-206.935E-12	671.905E-3	39.7413E-3
-2.95898E-3	-209.243E-12	743.181E-3	-34.7980E-3	-206.266E-12	691.395E-3	25.8827E-3
-2.96398E-3	-205.829E-12	714.734E-3	-13.2738E-3	-204.114E-12	694.230E-3	-3.31818E-3
-2.96898E-3	-202.436E-12	685.384E-3	16.5848E-3	-201.955E-12	667.425E-3	-4.97145E-3
-2.97399E-3	-198.420E-12	695.496E-3	13.7720E-3	-200.662E-12	663.057E-3	12.0983E-3
-2.97899E-3	-198.472E-12	712.372E-3	-14.9885E-3	-198.737E-12	684.155E-3	-8.54909E-3
-2.98399E-3	-196.681E-12	695.961E-3	-33.0603E-3	-198.828E-12	670.929E-3	-34.6266E-3
-2.98899E-3	-194.117E-12	670.694E-3	-25.8124E-3	-197.507E-12	666.267E-3	-18.3883E-3
-2.99400E-3	-192.531E-12	664.456E-3	-21.2742E-3	-196.691E-12	685.270E-3	-12.1202E-3
-2.99900E-3	-193.099E-12	652.330E-3	-14.1341E-3	-197.396E-12	668.147E-3	-20.0479E-3
-3.00400E-3	-196.085E-12	639.212E-3	-13.4677E-3	-199.322E-12	661.298E-3	-7.86129E-3
-3.00900E-3	-196.236E-12	646.705E-3	-39.5917E-3	-199.639E-12	683.130E-3	-8.86260E-3
-3.01401E-3	-198.190E-12	668.852E-3	-55.8858E-3	-200.664E-12	683.044E-3	-6.74534E-3
-3.01901E-3	-198.745E-12	672.503E-3	-49.4009E-3	-203.845E-12	676.583E-3	11.7338E-3
-3.02401E-3	-203.004E-12	671.704E-3	-5.67194E-3	-205.349E-12	679.126E-3	14.5302E-3
-3.02901E-3	-206.130E-12	677.452E-3	47.4544E-3	-206.015E-12	668.121E-3	1.37361E-3
-3.03402E-3	-207.782E-12	668.326E-3	26.6505E-3	-206.371E-12	663.536E-3	-23.7891E-3
-3.03902E-3	-208.154E-12	675.911E-3	-38.9443E-3	-208.636E-12	690.266E-3	-44.0718E-3
-3.04402E-3	-209.639E-12	680.021E-3	-47.1519E-3	-208.928E-12	702.178E-3	-56.7867E-3
-3.04902E-3	-212.822E-12	665.151E-3	-11.9494E-3	-208.004E-12	688.981E-3	-35.7168E-3
-3.05403E-3	-212.574E-12	676.140E-3	-6.24321E-3	-207.168E-12	692.081E-3	-6.26268E-3
-3.05903E-3	-211.084E-12	689.995E-3	-9.74677E-3	-207.477E-12	697.318E-3	-24.0719E-3
-3.06403E-3	-209.215E-12	678.145E-3	-25.6766E-3	-206.458E-12	682.399E-3	-29.7649E-3
-3.06903E-3	-210.302E-12	683.004E-3	-46.6393E-3	-205.004E-12	672.593E-3	-27.2963E-3
-3.07404E-3	-209.190E-12	692.005E-3	-23.1411E-3	-204.567E-12	676.646E-3	-25.7348E-3
-3.07904E-3	-206.668E-12	680.544E-3	915.378E-6	-203.822E-12	664.690E-3	190.029E-6
-3.08404E-3	-203.728E-12	687.090E-3	-8.38592E-3	-203.521E-12	657.221E-3	11.6646E-3
-3.08904E-3	-201.813E-12	711.652E-3	-5.85565E-3	-204.089E-12	656.407E-3	-1.82095E-3
-3.09405E-3	-202.423E-12	706.361E-3	16.6778E-3	-203.885E-12	636.403E-3	-5.26900E-3
-3.09905E-3	-202.627E-12	677.760E-3	26.5132E-3	-203.801E-12	637.082E-3	-8.22032E-3
-3.10405E-3	-201.811E-12	672.197E-3	9.37268E-3	-205.061E-12	645.958E-3	-48.1586E-3
-3.10905E-3	-201.221E-12	672.445E-3	-8.32208E-3	-206.287E-12	630.007E-3	-62.3625E-3
-3.11406E-3	-202.048E-12	650.851E-3	-17.5601E-3	-207.192E-12	646.263E-3	-31.9376E-3
-3.11906E-3	-206.157E-12	629.977E-3	-14.3793E-3	-208.132E-12	699.452E-3	-38.6716E-3
-3.12406E-3	-206.574E-12	639.239E-3	23.9606E-3	-210.130E-12	722.502E-3	-46.9718E-3
-3.12906E-3	-206.844E-12	670.063E-3	31.2408E-3	-210.686E-12	708.454E-3	-34.1085E-3
-3.13407E-3	-206.911E-12	687.861E-3	-7.72561E-3	-211.888E-12	706.630E-3	-40.5189E-3
-3.13907E-3	-211.861E-12	678.215E-3	-37.3002E-3	-211.725E-12	718.973E-3	-28.7256E-3
-3.14407E-3	-213.983E-12	669.210E-3	-64.0623E-3	-211.847E-12	709.488E-3	1.48452E-3
-3.14907E-3	-214.726E-12	687.727E-3	-69.6414E-3	-211.242E-12	669.625E-3	-10.0363E-3
-3.15408E-3	-213.673E-12	699.161E-3	-49.4747E-3	-211.831E-12	628.953E-3	-46.7745E-3
-3.15908E-3	-215.936E-12	685.995E-3	-14.9647E-3	-211.245E-12	643.463E-3	-27.4590E-3
-3.16408E-3	-217.545E-12	678.740E-3	15.4323E-3	-210.748E-12	687.877E-3	11.0311E-3
-3.16908E-3	-217.747E-12	678.977E-3	17.2448E-3	-211.723E-12	690.855E-3	-13.5196E-3
-3.17409E-3	-215.961E-12	681.186E-3	4.68079E-3	-211.751E-12	668.685E-3	-35.4070E-3
-3.17909E-3	-212.588E-12	685.170E-3	529.348E-6	-211.895E-12	668.983E-3	-18.8587E-3
-3.18409E-3	-212.404E-12	695.362E-3	11.6604E-3	-211.840E-12	674.510E-3	-17.6783E-3
-3.18909E-3	-211.770E-12	698.584E-3	15.5547E-3	-211.351E-12	669.099E-3	-18.7371E-3
-3.19410E-3	-209.633E-12	694.285E-3	7.52917E-3	-210.580E-12	683.837E-3	-19.1487E-3
-3.19910E-3	-205.876E-12	703.746E-3	-3.60406E-3	-209.623E-12	685.945E-3	-29.9817E-3
-3.20410E-3	-205.720E-12	697.934E-3	-31.2550E-3	-209.606E-12	663.522E-3	-34.5541E-3
-3.20910E-3	-206.936E-12	696.567E-3	-71.6096E-3	-210.424E-12	669.110E-3	-29.1869E-3
-3.21411E-3	-206.548E-12	708.244E-3	-84.0822E-3	-211.468E-12	674.650E-3	-32.4064E-3
-3.21911E-3	-204.567E-12	668.601E-3	-65.5844E-3	-211.035E-12	665.483E-3	-21.6034E-3
-3.22411E-3	-203.963E-12	620.501E-3	-50.1799E-3	-211.767E-12	684.225E-3	11.3474E-3
-3.22911E-3	-207.068E-12	614.818E-3	-27.3307E-3	-213.052E-12	708.732E-3	-3.88443E-3
-3.23412E-3	-210.807E-12	625.334E-3	-27.0996E-6	-213.636E-12	699.728E-3	-21.0239E-3
-3.23912E-3	-210.600E-12	638.009E-3	-19.7244E-3	-212.730E-12	695.791E-3	-1.72391E-3
-3.24412E-3	-212.183E-12	651.904E-3	-53.6651E-3	-213.551E-12	713.253E-3	4.88333E-3
-3.24912E-3	-212.975E-12	650.843E-3	-47.1808E-3	-214.806E-12	711.460E-3	7.20612E-3
-3.25413E-3	-216.264E-12	630.888E-3	-31.1583E-3	-216.235E-12	704.933E-3	-17.4300E-3
-3.25913E-3	-216.782E-12	634.125E-3	-27.8607E-3	-215.952E-12	699.226E-3	-64.1069E-3
-3.26413E-3	-218.291E-12	670.432E-3	-35.0259E-3	-215.617E-12	683.784E-3	-53.4054E-3
-3.26913E-3	-216.820E-12	702.012E-3	-35.4767E-3	-216.538E-12	666.805E-3	-6.54370E-3
-3.27414E-3	-217.588E-12	698.730E-3	-36.9231E-3	-218.599E-12	644.007E-3	6.18521E-3
-3.27914E-3	-217.572E-12	690.367E-3	-49.2131E-3	-215.820E-12	629.504E-3	-4.11200E-3
-3.28414E-3	-216.248E-12	682.684E-3	-45.9438E-3	-215.373E-12	636.091E-3	-22.1248E-3
-3.28914E-3	-213.793E-12	670.676E-3	-23.2326E-3	-214.369E-12	655.147E-3	-12.0922E-3
-3.29415E-3	-211.206E-12	672.632E-3	1.63527E-3	-215.251E-12	662.113E-3	14.5755E-3
-3.29915E-3	-209.719E-12	666.721E-3	-4.01311E-3	-213.607E-12	673.365E-3	22.1330E-3
-3.30415E-3	-207.099E-12	649.147E-3	-28.2734E-3	-212.636E-12	693.695E-3	23.1679E-3
-3.30915E-3	-205.700E-12	648.481E-3	-10.1947E-3	-212.476E-12	680.765E-3	1.01220E-3
-3.31416E-3	-204.610E-12	636.940E-3	-1.62231E-3	-213.080E-12	671.155E-3	-14.1826E-3
-3.31916E-3	-206.075E-12	600.982E-3	-40.9086E-3	-213.162E-12	688.991E-3	-11.8796E-3
-3.32416E-3	-206.955E-12	591.514E-3	-51.0225E-3	-213.381E-12	690.841E-3	-30.0231E-3
-3.32916E-3	-208.291E-12	610.465E-3	-37.2977E-3	-214.466E-12	691.860E-3	-30.5178E-3
-3.33417E-3	-210.333E-12	642.929E-3	-21.4086E-3	-216.498E-12	705.405E-3	-6.85418E-3
-3.33917E-3	-211.399E-12	676.046E-3	-14.2167E-3	-217.446E-12	717.728E-3	2.76893E-3
-3.34417E-3	-216.539E-12	674.948E-3	-28.2611E-3	-219.965E-12	729.395E-3	-9.67208E-3
-3.34917E-3	-219.515E-12	675.577E-3	-30.4018E-3	-221.406E-12	725.002E-3	-51.2263E-3
-3.35418E-3	-222.061E-12	698.600E-3	-29.6240E-3	-222.601E-12	698.412E-3	-65.9121E-3
-3.35918E-3	-222.830E-12	681.057E-3	-28.7052E-3	-223.554E-12	673.336E-3	-34.6390E-3
-3.36418E-3	-224.414E-12	646.957E-3	-3.14592E-3	-225.105E-12	673.964E-3	-31.0292E-3
-3.36918E-3	-228.220E-12	670.836E-3	32.5431E-3	-224.658E-12	699.863E-3	-42.3828E-3
-3.37419E-3	-228.494E-12	710.423E-3	49.7221E-3	-223.116E-12	712.440E-3	-13.2757E-3
-3.37919E-3	-227.043E-12	705.224E-3	44.2829E-3	-221.023E-12	693.441E-3	18.9135E-3
-3.38419E-3	-224.126E-12	696.084E-3	31.6890E-3	-221.904E-12	647.751E-3	3.87211E-3
-3.38919E-3	-223.511E-12	704.135E-3	25.2499E-3	-221.136E-12	615.562E-3	-14.0453E-3
-3.39420E-3	-220.860E-12	712.677E-3	3.10832E-3	-218.390E-12	649.327E-3	-6.33224E-3
-3.39920E-3	-217.825E-12	712.122E-3	-25.7511E-3	-216.479E-12	689.170E-3	-9.16299E-3
-3.40420E-3	-214.317E-12	695.982E-3	-21.7305E-3	-217.620E-12	657.134E-3	-6.12805E-3
-3.40920E-3	-213.854E-12	674.624E-3	6.68068E-3	-217.538E-12	620.613E-3	4.22077E-3
-3.41421E-3	-214.956E-12	636.640E-3	29.0877E-3	-216.733E-12	650.824E-3	5.71575E-3
-3.41921E-3	-213.933E-12	626.635E-3	26.1825E-3	-215.197E-12	677.342E-3	9.94713E-3
-3.42421E-3	-212.568E-12	646.736E-3	2.58180E-3	-216.396E-12	674.896E-3	14.8866E-3
-3.42921E-3	-214.309E-12	631.907E-3	-29.1276E-3	-220.686E-12	682.053E-3	13.5870E-3
-3.43422E-3	-218.101E-12	609.831E-3	-44.8487E-3	-221.159E-12	680.996E-3	-2.12759E-3
-3.43922E-3	-220.514E-12	614.961E-3	-23.6498E-3	-222.594E-12	674.893E-3	4.83882E-3
-3.44422E-3	-221.742E-12	613.343E-3	4.00778E-3	-223.406E-12	668.204E-3	34.8866E-3
-3.44922E-3	-222.886E-12	638.756E-3	17.3057E-3	-228.249E-12	672.629E-3	34.1500E-3
-3.45423E-3	-227.328E-12	693.622E-3	23.7038E-3	-230.256E-12	697.590E-3	16.3481E-3
-3.45923E-3	-230.894E-12	696.040E-3	-5.27418E-3	-229.620E-12	714.113E-3	-17.0814E-3
-3.46423E-3	-229.880E-12	681.559E-3	-42.6282E-3	-227.384E-12	689.348E-3	-28.8199E-3
-3.46923E-3	-227.898E-12	702.924E-3	-35.9893E-3	-226.898E-12	655.672E-3	9.97731E-3
-3.47424E-3	-228.958E-12	694.476E-3	-3.46219E-3	-227.998E-12	666.398E-3	31.9254E-3
-3.47924E-3	-231.381E-12	663.916E-3	-11.0383E-3	-225.039E-12	661.558E-3	15.0615E-3
-3.48424E-3	-228.946E-12	659.125E-3	-35.6684E-3	-222.827E-12	641.076E-3	11.1601E-3
-3.48924E-3	-225.231E-12	651.279E-3	-10.0837E-3	-219.897E-12	661.963E-3	14.4203E-3
-3.49425E-3	-223.361E-12	642.793E-3	9.94877E-3	-221.072E-12	683.741E-3	-7.57980E-3
-3.49925E-3	-223.382E-12	650.175E-3	-2.48282E-3	-219.329E-12	672.221E-3	-17.2469E-3
-3.50425E-3	-221.838E-12	643.088E-3	-2.49311E-3	-217.476E-12	649.103E-3	-29.2425E-3
-3.50925E-3	-218.966E-12	622.480E-3	526.228E-6	-216.975E-12	630.205E-3	-57.1603E-3
-3.51426E-3	-217.902E-12	622.151E-3	-15.2165E-3	-217.290E-12	635.192E-3	-29.2792E-3
-3.51926E-3	-218.619E-12	644.982E-3	-49.7244E-3	-219.026E-12	673.550E-3	27.0108E-3
-3.52426E-3	-219.178E-12	646.995E-3	-68.5943E-3	-220.202E-12	685.683E-3	36.6262E-3
-3.52926E-3	-218.249E-12	613.450E-3	-59.3040E-3	-221.594E-12	655.219E-3	12.4576E-3
-3.53427E-3	-218.072E-12	591.500E-3	-53.7039E-3	-222.208E-12	662.044E-3	-12.6594E-3
-3.53927E-3	-221.555E-12	590.129E-3	-57.2487E-3	-227.712E-12	688.654E-3	-13.9768E-3
-3.54427E-3	-223.486E-12	596.338E-3	-63.3476E-3	-229.788E-12	682.793E-3	4.88916E-3
-3.54927E-3	-224.695E-12	621.847E-3	-55.6986E-3	-231.051E-12	667.401E-3	9.92528E-3
-3.55428E-3	-226.401E-12	651.914E-3	-51.7093E-3	-229.715E-12	642.749E-3	-4.19423E-3
-3.55928E-3	-230.298E-12	656.180E-3	-57.3273E-3	-230.909E-12	619.009E-3	9.96460E-3
-3.56428E-3	-231.079E-12	655.962E-3	-45.5935E-3	-230.073E-12	621.727E-3	50.4931E-3
-3.56928E-3	-232.217E-12	668.580E-3	-31.5952E-3	-229.901E-12	649.992E-3	44.3858E-3
-3.57429E-3	-234.173E-12	678.823E-3	-24.6708E-3	-228.110E-12	667.074E-3	4.01359E-3
-3.57929E-3	-235.059E-12	686.566E-3	-26.8687E-3	-226.272E-12	670.406E-3	-23.1552E-3
-3.58429E-3	-236.202E-12	695.776E-3	-27.9548E-3	-225.332E-12	671.015E-3	-44.3772E-3
-3.58929E-3	-233.033E-12	708.970E-3	4.69842E-3	-226.110E-12	649.592E-3	-27.3897E-3
-3.59430E-3	-232.399E-12	723.987E-3	34.1407E-3	-224.866E-12	658.510E-3	29.4980E-3
-3.59930E-3	-230.755E-12	713.049E-3	7.16980E-3	-223.636E-12	676.785E-3	58.3205E-3
-3.60430E-3	-230.149E-12	661.315E-3	-38.0899E-3	-222.702E-12	634.162E-3	23.3754E-3
-3.60930E-3	-227.774E-12	611.468E-3	-55.7504E-3	-223.490E-12	611.048E-3	-24.1568E-3
-3.61431E-3	-225.346E-12	635.609E-3	-31.1542E-3	-223.584E-12	640.500E-3	-25.9360E-3
-3.61931E-3	-224.128E-12	666.803E-3	-29.0218E-3	-223.287E-12	643.865E-3	-6.80415E-3
-3.62431E-3	-222.460E-12	642.326E-3	-62.8900E-3	-224.432E-12	630.101E-3	-23.4180E-3
-3.62931E-3	-220.536E-12	647.672E-3	-43.4571E-3	-226.116E-12	651.495E-3	-66.6631E-3
-3.63432E-3	-220.135E-12	664.365E-3	-1.01898E-3	-228.076E-12	664.193E-3	-78.3782E-3
-3.63932E-3	-222.077E-12	647.078E-3	-17.4110E-3	-229.033E-12	648.152E-3	-62.3171E-3
-3.64432E-3	-223.249E-12	633.097E-3	-25.6978E-3	-229.425E-12	653.937E-3	-59.6006E-3
-3.64932E-3	-223.630E-12	628.398E-3	-5.90509E-3	-230.032E-12	679.787E-3	-73.5056E-3
-3.65433E-3	-224.800E-12	614.929E-3	-5.72853E-3	-233.167E-12	685.991E-3	-70.1839E-3
-3.65933E-3	-227.186E-12	615.246E-3	13.2831E-3	-235.807E-12	658.036E-3	-65.6524E-3
-3.66433E-3	-231.969E-12	656.943E-3	15.2611E-3	-235.002E-12	643.446E-3	-70.5790E-3
-3.66933E-3	-234.781E-12	687.486E-3	-29.7011E-3	-234.221E-12	665.043E-3	-48.8146E-3
-3.67434E-3	-234.542E-12	678.249E-3	-69.3811E-3	-236.059E-12	679.757E-3	-21.2438E-3
-3.67934E-3	-235.258E-12	652.382E-3	-57.9765E-3	-238.062E-12	670.690E-3	-2.09393E-3
-3.68434E-3	-241.335E-12	628.277E-3	-22.6064E-3	-236.916E-12	635.700E-3	2.01855E-3
-3.68934E-3	-242.881E-12	643.804E-3	-25.3715E-3	-235.799E-12	611.007E-3	-10.8952E-3
-3.69435E-3	-241.333E-12	691.835E-3	-25.5426E-3	-236.050E-12	621.097E-3	-19.1478E-3
-3.69935E-3	-237.531E-12	712.972E-3	-6.04224E-3	-236.943E-12	624.436E-3	-17.4376E-3
-3.70435E-3	-238.546E-12	685.574E-3	-24.6499E-3	-236.336E-12	622.451E-3	-26.1588E-3
-3.70935E-3	-237.615E-12	674.909E-3	-45.2681E-3	-234.692E-12	630.058E-3	-42.8469E-3
-3.71436E-3	-230.884E-12	701.416E-3	-31.3841E-3	-233.412E-12	645.530E-3	-34.1161E-3
-3.71936E-3	-227.672E-12	720.575E-3	-22.8355E-3	-231.785E-12	665.778E-3	-13.8979E-3
-3.72436E-3	-225.225E-12	717.167E-3	-37.9626E-3	-231.071E-12	651.408E-3	786.708E-6
-3.72936E-3	-225.508E-12	685.719E-3	-54.0583E-3	-230.182E-12	640.018E-3	15.3496E-3
-3.73437E-3	-222.559E-12	643.354E-3	-52.4578E-3	-229.711E-12	652.304E-3	12.8527E-3
-3.73937E-3	-223.077E-12	623.155E-3	-50.0584E-3	-230.004E-12	649.978E-3	-7.93532E-3
-3.74437E-3	-224.976E-12	615.527E-3	-34.2806E-3	-229.680E-12	647.035E-3	-25.9172E-3
-3.74937E-3	-226.417E-12	601.847E-3	-12.3490E-3	-231.772E-12	640.627E-3	-42.7225E-3
-3.75438E-3	-227.049E-12	594.894E-3	-22.3643E-3	-234.921E-12	638.531E-3	-43.0130E-3
-3.75938E-3	-229.719E-12	606.842E-3	-22.3626E-3	-237.503E-12	635.801E-3	-28.4819E-3
-3.76438E-3	-235.524E-12	644.734E-3	-14.2192E-3	-237.852E-12	648.422E-3	-37.2121E-3
-3.76938E-3	-237.872E-12	664.035E-3	-33.6547E-3	-240.020E-12	691.915E-3	-57.5502E-3
-3.77439E-3	-240.262E-12	641.223E-3	-38.6146E-3	-241.382E-12	701.439E-3	-49.1773E-3
-3.77939E-3	-241.691E-12	631.253E-3	-24.1127E-3	-243.699E-12	688.710E-3	-12.1287E-3
-3.78439E-3	-246.037E-12	659.256E-3	-21.3406E-3	-244.428E-12	701.332E-3	-18.0125E-3
-3.78939E-3	-247.183E-12	694.091E-3	-14.3464E-3	-244.980E-12	699.428E-3	-41.7161E-3
-3.79440E-3	-247.753E-12	690.744E-3	4.82084E-3	-245.290E-12	677.229E-3	-32.2618E-3
-3.79940E-3	-246.238E-12	672.253E-3	-9.52148E-3	-243.531E-12	677.197E-3	-24.9709E-3
-3.80440E-3	-246.910E-12	679.376E-3	-33.6152E-3	-241.942E-12	658.510E-3	-11.3811E-3
-3.80940E-3	-245.488E-12	689.868E-3	-10.2125E-3	-240.306E-12	618.999E-3	13.3520E-3
-3.81441E-3	-241.090E-12	692.549E-3	-8.58865E-3	-238.335E-12	624.786E-3	15.6374E-3
-3.81941E-3	-239.766E-12	688.081E-3	-65.2967E-3	-235.829E-12	648.022E-3	-23.5273E-3
-3.82441E-3	-237.585E-12	676.016E-3	-96.8167E-3	-233.471E-12	641.449E-3	-47.1917E-3
-3.82941E-3	-236.771E-12	652.331E-3	-69.1340E-3	-233.565E-12	629.843E-3	-37.3335E-3
-3.83442E-3	-231.010E-12	656.106E-3	-38.1736E-3	-232.406E-12	634.865E-3	-43.8820E-3
-3.83942E-3	-230.981E-12	686.207E-3	-28.4176E-3	-233.082E-12	635.343E-3	-27.8732E-3
-3.84442E-3	-232.692E-12	690.064E-3	-3.28817E-3	-232.980E-12	637.135E-3	-6.09119E-3
-3.84942E-3	-232.732E-12	680.209E-3	9.58528E-3	-234.726E-12	657.333E-3	-19.4478E-3
-3.85443E-3	-231.916E-12	671.150E-3	10.4213E-3	-236.276E-12	693.171E-3	-2.92205E-3
-3.85943E-3	-232.037E-12	652.353E-3	18.4203E-3	-240.512E-12	730.896E-3	12.0954E-3
-3.86443E-3	-235.643E-12	647.366E-3	17.7713E-3	-241.141E-12	720.629E-3	-31.9323E-3
-3.86943E-3	-238.986E-12	668.341E-3	20.7059E-3	-243.822E-12	678.063E-3	-77.2955E-3
-3.87444E-3	-241.739E-12	682.226E-3	8.48703E-3	-246.011E-12	666.486E-3	-75.4244E-3
-3.87944E-3	-244.502E-12	688.140E-3	-13.9609E-3	-247.522E-12	680.730E-3	-55.4436E-3
-3.88444E-3	-246.362E-12	693.269E-3	-13.8564E-3	-248.339E-12	697.960E-3	-40.3350E-3
-3.88944E-3	-249.318E-12	680.154E-3	-24.0561E-3	-246.654E-12	707.859E-3	775.923E-6
-3.89445E-3	-250.907E-12	671.746E-3	-43.7890E-3	-247.023E-12	717.654E-3	44.2649E-3
-3.89945E-3	-250.143E-12	700.661E-3	-48.9010E-3	-245.345E-12	732.060E-3	36.2109E-3
-3.90445E-3	-248.571E-12	745.239E-3	-30.5933E-3	-244.757E-12	731.900E-3	21.1729E-3
-3.90945E-3	-248.416E-12	761.192E-3	1.82076E-3	-241.467E-12	722.887E-3	30.1108E-3
-3.91446E-3	-247.881E-12	741.544E-3	-6.77283E-3	-239.451E-12	699.498E-3	25.6193E-3
-3.91946E-3	-247.409E-12	717.919E-3	-36.6556E-3	-237.413E-12	673.039E-3	14.4223E-3
-3.92446E-3	-244.094E-12	699.623E-3	-41.9068E-3	-236.355E-12	669.614E-3	13.4257E-3
-3.92946E-3	-242.596E-12	684.115E-3	-39.4321E-3	-235.331E-12	662.921E-3	4.44711E-3
-3.93447E-3	-241.179E-12	664.021E-3	-22.8412E-3	-233.879E-12	664.966E-3	-20.5901E-3
-3.93947E-3	-240.344E-12	648.270E-3	-3.11907E-3	-236.007E-12	702.524E-3	-37.4104E-3
-3.94447E-3	-238.423E-12	652.327E-3	-25.2231E-3	-238.478E-12	735.138E-3	-28.7944E-3
-3.94947E-3	-237.516E-12	652.288E-3	-36.4652E-3	-239.392E-12	711.263E-3	-9.04183E-3
-3.95448E-3	-238.782E-12	642.586E-3	-9.91628E-3	-238.813E-12	653.977E-3	-6.00973E-3
-3.95948E-3	-240.390E-12	638.214E-3	-8.14206E-3	-241.536E-12	648.186E-3	-22.5337E-3
-3.96448E-3	-241.173E-12	652.971E-3	-19.5981E-3	-246.729E-12	668.078E-3	-14.4775E-3
-3.96948E-3	-243.144E-12	662.521E-3	-22.3217E-3	-247.398E-12	658.613E-3	5.47500E-3
-3.97449E-3	-245.287E-12	644.582E-3	-28.5703E-3	-247.472E-12	683.190E-3	-11.1378E-3
-3.97949E-3	-246.772E-12	640.306E-3	-22.3410E-3	-246.913E-12	716.313E-3	-42.1817E-3
-3.98449E-3	-249.106E-12	654.511E-3	-6.88996E-3	-251.765E-12	702.412E-3	-36.4856E-3
-3.98949E-3	-250.330E-12	682.726E-3	10.8500E-3	-253.167E-12	661.116E-3	8.00571E-3
-3.99450E-3	-253.608E-12	723.765E-3	22.9249E-3	-251.294E-12	638.865E-3	40.6358E-3
-3.99950E-3	-254.104E-12	738.694E-3	36.6850E-3	-249.392E-12	660.564E-3	34.9001E-3
-4.00450E-3	-256.168E-12	735.261E-3	40.4232E-3	-249.730E-12	668.379E-3	19.0158E-3
-4.00950E-3	-257.056E-12	715.075E-3	6.62375E-3	-250.164E-12	649.015E-3	23.9956E-3
-4.01451E-3	-257.511E-12	701.960E-3	-28.3413E-3	-247.477E-12	654.532E-3	-2.57980E-3
-4.01951E-3	-255.606E-12	721.042E-3	-33.6807E-3	-246.372E-12	660.200E-3	-76.6823E-3
-4.02451E-3	-254.543E-12	717.263E-3	-27.3893E-3	-243.295E-12	635.867E-3	-90.3591E-3
-4.02951E-3	-252.300E-12	691.818E-3	-20.7987E-3	-245.748E-12	643.390E-3	-50.5903E-3
-4.03452E-3	-250.595E-12	683.703E-3	-4.32484E-3	-245.903E-12	672.303E-3	-46.9489E-3
-4.03952E-3	-250.016E-12	695.863E-3	9.65833E-3	-245.481E-12	656.814E-3	-37.4504E-3
-4.04452E-3	-247.206E-12	704.578E-3	3.59368E-3	-241.922E-12	634.434E-3	-14.6026E-3
-4.04952E-3	-245.747E-12	695.809E-3	-17.8151E-3	-242.975E-12	653.021E-3	-27.6565E-3
-4.05453E-3	-244.468E-12	697.393E-3	-35.9488E-3	-244.998E-12	678.835E-3	-45.0068E-3
-4.05953E-3	-245.694E-12	711.996E-3	-35.7583E-3	-246.281E-12	698.692E-3	-17.6241E-3
-4.06453E-3	-245.669E-12	723.938E-3	-31.9930E-3	-246.066E-12	698.723E-3	5.06599E-3
-4.06953E-3	-244.441E-12	715.398E-3	-49.0764E-3	-245.963E-12	662.375E-3	-22.7604E-3
-4.07454E-3	-246.251E-12	703.336E-3	-64.7953E-3	-250.080E-12	661.006E-3	-18.9292E-3
-4.07954E-3	-248.936E-12	702.799E-3	-40.2513E-3	-252.110E-12	713.026E-3	-14.6501E-3
-4.08454E-3	-251.053E-12	685.231E-3	-13.8483E-3	-252.473E-12	748.972E-3	-37.6888E-3
-4.08954E-3	-251.217E-12	670.148E-3	-32.2796E-3	-252.983E-12	745.313E-3	-23.7198E-3
-4.09455E-3	-254.069E-12	667.998E-3	-31.4310E-3	-254.512E-12	710.733E-3	-12.5938E-3
-4.09955E-3	-254.457E-12	680.492E-3	14.1929E-3	-257.659E-12	699.975E-3	-8.99642E-3
-4.10455E-3	-257.979E-12	700.773E-3	15.0175E-3	-256.831E-12	727.058E-3	1.03635E-3
-4.10955E-3	-258.519E-12	720.962E-3	-29.5147E-3	-256.911E-12	705.713E-3	-10.7946E-3
-4.11456E-3	-259.300E-12	754.120E-3	-67.3828E-3	-254.758E-12	644.617E-3	-23.7924E-3
-4.11956E-3	-256.525E-12	764.897E-3	-92.5073E-3	-256.030E-12	656.393E-3	-12.5923E-3
-4.12456E-3	-256.832E-12	733.145E-3	-88.1007E-3	-255.333E-12	709.791E-3	-3.44836E-3
-4.12956E-3	-256.945E-12	697.962E-3	-78.7723E-3	-251.966E-12	684.118E-3	-5.98553E-3
-4.13457E-3	-255.556E-12	712.002E-3	-79.3440E-3	-250.955E-12	629.759E-3	14.6416E-3
-4.13957E-3	-250.647E-12	738.865E-3	-65.2560E-3	-249.412E-12	638.108E-3	35.7678E-3
-4.14457E-3	-248.387E-12	717.198E-3	-61.0913E-3	-250.937E-12	678.113E-3	7.66106E-3
-4.14957E-3	-247.453E-12	667.408E-3	-68.1346E-3	-250.059E-12	708.808E-3	-9.67867E-3
-4.15458E-3	-246.689E-12	626.567E-3	-58.3232E-3	-251.206E-12	732.557E-3	18.9749E-3
-4.15958E-3	-244.280E-12	606.434E-3	-36.6900E-3	-249.028E-12	735.705E-3	27.0786E-3
-4.16458E-3	-241.707E-12	620.802E-3	-14.3916E-3	-251.592E-12	725.499E-3	28.3092E-3
-4.16958E-3	-243.638E-12	652.791E-3	34.4681E-6	-255.389E-12	739.313E-3	26.0967E-3
-4.17459E-3	-246.634E-12	674.221E-3	-15.1283E-3	-256.778E-12	754.926E-3	-14.4422E-3
-4.17959E-3	-247.933E-12	681.789E-3	-44.3537E-3	-256.139E-12	732.335E-3	-41.9121E-3
-4.18459E-3	-249.725E-12	687.625E-3	-40.2447E-3	-256.309E-12	710.172E-3	-24.0571E-3
-4.18959E-3	-251.969E-12	678.488E-3	-31.0260E-3	-261.333E-12	695.686E-3	-9.51153E-3
-4.19460E-3	-256.283E-12	672.939E-3	-43.7241E-3	-262.775E-12	676.957E-3	-17.5044E-3
-4.19960E-3	-258.974E-12	693.042E-3	-55.4061E-3	-263.729E-12	687.677E-3	-42.2397E-3
-4.20460E-3	-260.655E-12	680.375E-3	-53.2950E-3	-260.488E-12	698.620E-3	-55.5645E-3
-4.20960E-3	-261.296E-12	662.654E-3	-38.3951E-3	-262.709E-12	677.544E-3	-28.2967E-3
-4.21461E-3	-262.908E-12	689.920E-3	-30.8262E-3	-264.481E-12	677.382E-3	22.1657E-3
-4.21961E-3	-265.156E-12	721.927E-3	-44.7406E-3	-261.988E-12	717.386E-3	55.3244E-3
-4.22461E-3	-265.962E-12	742.925E-3	-58.7930E-3	-258.026E-12	737.474E-3	20.8206E-3
-4.22961E-3	-263.937E-12	750.293E-3	-61.5173E-3	-255.803E-12	727.076E-3	-23.9954E-3
-4.23462E-3	-262.898E-12	716.518E-3	-67.8020E-3	-258.419E-12	697.675E-3	-56.3821E-3
-4.23962E-3	-261.844E-12	677.801E-3	-54.4269E-3	-257.268E-12	671.727E-3	-93.6258E-3
-4.24462E-3	-262.179E-12	687.144E-3	-43.1422E-3	-254.622E-12	687.863E-3	-85.1736E-3
-4.24962E-3	-259.926E-12	711.635E-3	-39.5660E-3	-253.075E-12	723.522E-3	-51.4487E-3
-4.25463E-3	-256.498E-12	710.396E-3	-11.8848E-3	-254.457E-12	723.334E-3	-24.7733E-3
-4.25963E-3	-254.725E-12	690.442E-3	1.74033E-3	-254.463E-12	678.407E-3	481.950E-6
-4.26463E-3	-256.568E-12	681.570E-3	-8.05042E-3	-255.332E-12	672.708E-3	14.7628E-3
-4.26963E-3	-258.265E-12	674.929E-3	-34.2423E-3	-257.232E-12	717.927E-3	4.61592E-3
-4.27464E-3	-257.421E-12	663.469E-3	-63.6799E-3	-257.759E-12	726.392E-3	-9.26923E-3
-4.27964E-3	-255.961E-12	665.959E-3	-61.8132E-3	-259.478E-12	695.572E-3	-27.8316E-3
-4.28464E-3	-257.787E-12	668.268E-3	-27.1929E-3	-260.747E-12	673.781E-3	-54.1749E-3
-4.28964E-3	-259.875E-12	675.594E-3	-9.80544E-3	-263.928E-12	673.329E-3	-52.2817E-3
-4.29465E-3	-262.821E-12	685.368E-3	-22.3337E-3	-263.596E-12	685.456E-3	-48.8350E-3
-4.29965E-3	-261.822E-12	702.834E-3	-31.7134E-3	-264.586E-12	708.273E-3	-57.8386E-3
-4.30465E-3	-264.335E-12	709.731E-3	-65.3854E-3	-266.076E-12	702.696E-3	-46.3912E-3
-4.30965E-3	-266.855E-12	687.866E-3	-112.238E-3	-266.735E-12	679.476E-3	-24.9917E-3
-4.31466E-3	-270.003E-12	678.010E-3	-119.764E-3	-265.974E-12	694.382E-3	-35.0530E-3
-4.31966E-3	-268.710E-12	678.316E-3	-99.1520E-3	-264.466E-12	700.024E-3	-58.8548E-3
-4.32466E-3	-269.968E-12	698.818E-3	-62.9307E-3	-263.924E-12	677.615E-3	-49.2564E-3
-4.32966E-3	-269.349E-12	721.532E-3	-19.3008E-3	-261.789E-12	670.815E-3	-40.9424E-3
-4.33467E-3	-270.257E-12	702.176E-3	4.75139E-3	-262.165E-12	677.775E-3	-56.3384E-3
-4.33967E-3	-268.351E-12	683.680E-3	9.35453E-3	-258.115E-12	683.823E-3	-41.0517E-3
-4.34467E-3	-267.103E-12	659.049E-3	-14.8340E-3	-255.887E-12	683.435E-3	-11.0958E-3
-4.34967E-3	-265.187E-12	633.776E-3	-52.2389E-3	-256.054E-12	665.560E-3	19.1794E-3
-4.35468E-3	-263.088E-12	658.359E-3	-51.6239E-3	-256.985E-12	651.990E-3	37.8360E-3
-4.35968E-3	-260.496E-12	693.873E-3	-35.3304E-3	-256.888E-12	659.868E-3	8.85072E-3
-4.36468E-3	-259.769E-12	688.325E-3	-40.2292E-3	-255.821E-12	684.308E-3	-22.8084E-3
-4.36968E-3	-256.285E-12	679.784E-3	-40.2651E-3	-257.283E-12	706.063E-3	-17.5671E-3
-4.37469E-3	-255.255E-12	678.281E-3	-30.0852E-3	-258.456E-12	701.947E-3	12.1169E-3
-4.37969E-3	-253.984E-12	668.407E-3	-11.8462E-3	-261.805E-12	675.105E-3	-13.4258E-3
-4.38469E-3	-255.299E-12	675.518E-3	13.0432E-3	-262.415E-12	659.327E-3	-60.6978E-3
-4.38969E-3	-255.405E-12	665.369E-3	-831.735E-6	-264.781E-12	678.494E-3	-25.2926E-3
-4.39470E-3	-255.777E-12	649.481E-3	-55.6125E-3	-267.265E-12	693.940E-3	9.17087E-3
-4.39970E-3	-259.151E-12	664.575E-3	-67.1504E-3	-268.935E-12	669.320E-3	4.34428E-3
-4.40470E-3	-262.835E-12	643.963E-3	-24.6911E-3	-271.839E-12	619.813E-3	-1.91316E-3
-4.40970E-3	-265.694E-12	608.716E-3	11.8429E-3	-272.520E-12	582.725E-3	-8.00515E-3
-4.41471E-3	-265.680E-12	635.267E-3	38.0253E-3	-271.480E-12	584.672E-3	-3.84044E-3
-4.41971E-3	-268.099E-12	657.365E-3	46.6484E-3	-271.004E-12	612.067E-3	-6.93896E-3
-4.42471E-3	-271.622E-12	641.108E-3	14.3388E-3	-272.387E-12	640.740E-3	-14.1131E-3
-4.42971E-3	-273.888E-12	637.086E-3	-6.72934E-3	-272.069E-12	664.583E-3	-19.2626E-3
-4.43472E-3	-272.754E-12	644.435E-3	-5.71492E-3	-268.540E-12	687.267E-3	-33.4357E-3
-4.43972E-3	-272.449E-12	652.416E-3	-23.2724E-3	-265.859E-12	663.420E-3	-52.5173E-3
-4.44472E-3	-271.906E-12	672.002E-3	-25.7069E-3	-266.168E-12	605.687E-3	-42.6275E-3
-4.44972E-3	-269.704E-12	679.579E-3	-6.07957E-3	-264.701E-12	601.454E-3	8.61469E-3
-4.45473E-3	-268.794E-12	672.841E-3	-2.28845E-3	-261.868E-12	617.235E-3	39.5778E-3
-4.45973E-3	-265.908E-12	686.890E-3	-29.8536E-3	-259.906E-12	624.183E-3	44.6568E-3
-4.46473E-3	-264.924E-12	690.142E-3	-47.2751E-3	-260.776E-12	648.081E-3	27.2977E-3
-4.46973E-3	-261.611E-12	638.955E-3	-43.3744E-3	-263.927E-12	662.268E-3	-16.5740E-3
-4.47474E-3	-260.763E-12	594.440E-3	-44.4910E-3	-264.329E-12	646.974E-3	-9.38119E-3
-4.47974E-3	-262.213E-12	596.186E-3	-30.0716E-3	-265.938E-12	654.662E-3	31.9820E-3
-4.48474E-3	-260.359E-12	620.754E-3	-25.2616E-3	-266.834E-12	681.690E-3	26.2834E-3
-4.48974E-3	-261.219E-12	642.512E-3	-57.2174E-3	-269.070E-12	663.683E-3	-7.10659E-3
-4.49475E-3	-264.432E-12	647.274E-3	-59.7708E-3	-272.384E-12	641.077E-3	-19.6670E-3
-4.49975E-3	-268.804E-12	660.548E-3	-27.8595E-3	-272.989E-12	633.803E-3	-8.31826E-3
-4.50475E-3	-268.283E-12	679.522E-3	-11.7020E-3	-273.812E-12	628.312E-3	12.5110E-3
-4.50975E-3	-268.517E-12	691.165E-3	-15.8104E-3	-275.016E-12	647.351E-3	31.6897E-3
-4.51476E-3	-274.343E-12	696.346E-3	-28.3425E-3	-277.609E-12	660.594E-3	30.1151E-3
-4.51976E-3	-278.092E-12	701.641E-3	-30.8858E-3	-277.929E-12	640.119E-3	-9.55075E-3
-4.52476E-3	-279.009E-12	698.097E-3	-25.0269E-3	-276.753E-12	631.011E-3	-35.7403E-3
-4.52976E-3	-276.828E-12	679.681E-3	-35.1184E-3	-274.653E-12	666.192E-3	-45.4017E-3
-4.53477E-3	-278.739E-12	650.357E-3	-44.8251E-3	-274.589E-12	670.437E-3	-46.2217E-3
-4.53977E-3	-281.702E-12	650.192E-3	-16.1441E-3	-272.667E-12	621.002E-3	-29.2762E-3
-4.54477E-3	-281.129E-12	698.205E-3	-9.49568E-3	-269.248E-12	606.577E-3	-26.0796E-3
-4.54977E-3	-277.992E-12	724.758E-3	-23.0893E-3	-267.335E-12	603.820E-3	-24.9153E-3
-4.55478E-3	-275.088E-12	700.697E-3	-18.9314E-3	-268.442E-12	620.980E-3	-18.3649E-3
-4.55978E-3	-275.174E-12	656.730E-3	-44.2878E-3	-268.931E-12	670.772E-3	-9.07392E-3
-4.56478E-3	-273.665E-12	620.779E-3	-63.9836E-3	-266.269E-12	659.245E-3	19.6026E-3
-4.56978E-3	-271.841E-12	597.338E-3	-45.6004E-3	-265.224E-12	627.059E-3	56.4159E-3
-4.57479E-3	-269.034E-12	601.880E-3	-4.08376E-3	-266.892E-12	652.464E-3	44.3446E-3
-4.57979E-3	-269.771E-12	621.405E-3	24.1730E-3	-269.438E-12	691.066E-3	-4.69856E-3
-4.58479E-3	-269.018E-12	627.089E-3	14.5967E-3	-269.992E-12	683.050E-3	-11.9503E-3
-4.58979E-3	-271.072E-12	626.479E-3	465.236E-6	-272.290E-12	644.406E-3	-5.68678E-3
-4.59480E-3	-269.825E-12	636.175E-3	-14.8438E-3	-273.677E-12	629.997E-3	-19.6244E-3
-4.59980E-3	-270.929E-12	650.723E-3	-39.2550E-3	-275.745E-12	651.062E-3	-42.1139E-3
-4.60480E-3	-273.774E-12	659.138E-3	-41.4632E-3	-277.746E-12	665.073E-3	-69.9510E-3
-4.60980E-3	-274.873E-12	665.018E-3	-31.5803E-3	-278.876E-12	658.339E-3	-57.6093E-3
-4.61481E-3	-278.010E-12	660.966E-3	-48.3953E-3	-280.494E-12	628.268E-3	-38.9909E-3
-4.61981E-3	-279.237E-12	637.693E-3	-72.9190E-3	-282.002E-12	594.484E-3	-47.8887E-3
-4.62481E-3	-280.542E-12	615.675E-3	-69.3801E-3	-283.949E-12	614.463E-3	-44.9882E-3
-4.62981E-3	-279.521E-12	619.496E-3	-19.7781E-3	-282.319E-12	637.139E-3	-22.1883E-3
-4.63482E-3	-281.411E-12	623.383E-3	23.7220E-3	-281.834E-12	618.474E-3	-8.77564E-3
-4.63982E-3	-280.037E-12	648.795E-3	8.08931E-3	-279.842E-12	606.346E-3	-8.07301E-3
-4.64482E-3	-280.071E-12	689.530E-3	-4.27636E-3	-276.815E-12	609.381E-3	-12.4573E-3
-4.64982E-3	-281.053E-12	680.896E-3	2.58489E-3	-274.064E-12	607.553E-3	-27.5182E-3
-4.65483E-3	-280.380E-12	645.746E-3	-11.8581E-3	-272.474E-12	603.305E-3	-15.1541E-3
-4.65983E-3	-278.144E-12	636.751E-3	-10.2043E-3	-270.994E-12	593.678E-3	9.74996E-3
-4.66483E-3	-275.376E-12	639.817E-3	-15.9521E-3	-269.523E-12	569.239E-3	-15.4007E-3
-4.66983E-3	-275.000E-12	638.213E-3	-50.7927E-3	-270.012E-12	560.240E-3	-62.1946E-3
-4.67484E-3	-274.178E-12	650.444E-3	-37.6454E-3	-268.430E-12	585.843E-3	-58.3496E-3
-4.67984E-3	-273.502E-12	657.112E-3	-12.1885E-3	-268.301E-12	624.765E-3	-11.6555E-3
-4.68484E-3	-270.661E-12	649.909E-3	-21.0183E-3	-270.645E-12	659.612E-3	-4.17788E-3
-4.68984E-3	-270.798E-12	661.465E-3	-43.8453E-3	-273.541E-12	650.538E-3	-44.7887E-3
-4.69485E-3	-271.635E-12	658.232E-3	-41.8540E-3	-275.623E-12	619.145E-3	-35.1635E-3
-4.69985E-3	-271.601E-12	626.078E-3	-12.1921E-3	-276.616E-12	647.327E-3	11.2296E-3
-4.70485E-3	-271.555E-12	615.159E-3	-28.6368E-3	-279.555E-12	688.486E-3	24.1502E-3
-4.70985E-3	-271.722E-12	622.214E-3	-68.8745E-3	-282.619E-12	709.233E-3	10.9507E-3
-4.71486E-3	-274.066E-12	620.313E-3	-93.4937E-3	-284.410E-12	736.457E-3	-21.6750E-3
-4.71986E-3	-277.701E-12	605.279E-3	-104.850E-3	-283.672E-12	720.119E-3	-56.6667E-3
-4.72486E-3	-278.686E-12	588.963E-3	-78.1444E-3	-284.776E-12	673.478E-3	-59.9925E-3
-4.72986E-3	-280.752E-12	597.849E-3	-44.1999E-3	-286.134E-12	658.634E-3	-34.5018E-3
-4.73487E-3	-284.198E-12	638.379E-3	-24.5079E-3	-285.802E-12	658.781E-3	-30.4883E-3
-4.73987E-3	-284.386E-12	668.448E-3	-5.56656E-3	-284.845E-12	633.866E-3	-19.9776E-3
-4.74487E-3	-286.351E-12	685.126E-3	-8.65547E-3	-282.219E-12	593.584E-3	-784.825E-6
-4.74988E-3	-285.673E-12	708.028E-3	-26.6106E-3	-281.880E-12	597.697E-3	-27.5763E-3
-4.75488E-3	-284.913E-12	697.333E-3	-6.92895E-3	-279.453E-12	629.744E-3	-42.1058E-3
-4.75988E-3	-283.645E-12	663.644E-3	6.44597E-3	-277.120E-12	636.808E-3	-21.4632E-3
-4.76488E-3	-280.244E-12	646.450E-3	-30.1662E-3	-273.091E-12	630.250E-3	-24.2385E-3
-4.76988E-3	-278.354E-12	634.366E-3	-47.2604E-3	-273.067E-12	615.375E-3	-23.8232E-3
-4.77489E-3	-275.974E-12	636.084E-3	-33.7344E-3	-273.874E-12	614.966E-3	-7.27095E-3
-4.77989E-3	-274.544E-12	634.644E-3	-35.1406E-3	-273.825E-12	619.128E-3	-1.93195E-3
-4.78489E-3	-273.188E-12	622.091E-3	-28.2596E-3	-271.250E-12	598.693E-3	10.1896E-3
-4.78989E-3	-271.683E-12	603.280E-3	-23.1534E-3	-272.090E-12	596.827E-3	17.7619E-3
-4.79490E-3	-272.306E-12	586.452E-3	-40.1001E-3	-274.836E-12	609.962E-3	-1.45387E-3
-4.79990E-3	-273.013E-12	598.759E-3	-43.7952E-3	-276.792E-12	620.646E-3	-14.4726E-3
-4.80490E-3	-275.043E-12	633.820E-3	-29.2384E-3	-280.327E-12	643.273E-3	-26.8377E-3
-4.80990E-3	-275.222E-12	670.463E-3	-27.0584E-3	-282.665E-12	669.839E-3	-60.3225E-3
-4.81491E-3	-276.827E-12	659.219E-3	-28.2895E-3	-285.615E-12	703.651E-3	-77.2918E-3
-4.81991E-3	-281.002E-12	628.766E-3	-28.8335E-3	-289.815E-12	722.881E-3	-47.4196E-3
-4.82491E-3	-285.465E-12	623.570E-3	-47.2702E-3	-292.471E-12	736.156E-3	2.00263E-3
-4.82991E-3	-287.833E-12	624.673E-3	-42.6997E-3	-294.407E-12	741.774E-3	31.4104E-3
-4.83492E-3	-289.838E-12	631.339E-3	-30.2271E-3	-292.613E-12	709.367E-3	31.2765E-3
-4.83992E-3	-293.547E-12	659.349E-3	-36.8985E-3	-293.924E-12	657.398E-3	-17.1008E-3
-4.84492E-3	-297.342E-12	694.659E-3	-23.0349E-3	-294.770E-12	615.119E-3	-59.3318E-3
-4.84992E-3	-295.270E-12	701.739E-3	-10.7561E-3	-293.794E-12	628.297E-3	-30.3474E-3
-4.85493E-3	-292.419E-12	706.691E-3	-37.7693E-3	-289.441E-12	650.164E-3	-11.6953E-3
-4.85993E-3	-292.286E-12	689.874E-3	-52.6254E-3	-287.120E-12	652.206E-3	-38.1602E-3
-4.86493E-3	-294.660E-12	635.949E-3	-11.1548E-3	-286.930E-12	656.063E-3	-43.5832E-3
-4.86993E-3	-291.519E-12	630.560E-3	6.93853E-3	-284.390E-12	632.137E-3	-42.5154E-3
-4.87494E-3	-285.680E-12	665.817E-3	-16.2770E-3	-282.387E-12	590.037E-3	-50.6634E-3
-4.87994E-3	-282.693E-12	678.084E-3	-21.4556E-3	-278.132E-12	573.894E-3	-41.1707E-3
-4.88494E-3	-284.715E-12	663.278E-3	-29.6159E-3	-279.441E-12	601.964E-3	-2.14831E-3
-4.88995E-3	-284.799E-12	644.767E-3	-56.9532E-3	-278.859E-12	617.184E-3	25.3645E-3
-4.89495E-3	-281.245E-12	638.861E-3	-71.3419E-3	-278.678E-12	611.007E-3	8.98641E-3
-4.89995E-3	-278.312E-12	632.355E-3	-62.1515E-3	-278.690E-12	632.183E-3	-2.15633E-3
-4.90495E-3	-281.770E-12	615.695E-3	-53.5429E-3	-280.171E-12	637.564E-3	5.64937E-3
-4.90995E-3	-285.352E-12	575.136E-3	-34.5221E-3	-283.747E-12	615.547E-3	18.8858E-3
-4.91496E-3	-285.756E-12	551.677E-3	-10.4963E-3	-285.830E-12	634.469E-3	15.0237E-3
-4.91996E-3	-283.976E-12	605.319E-3	-4.47615E-3	-288.393E-12	652.487E-3	-24.1752E-3
-4.92496E-3	-285.470E-12	659.751E-3	5.47674E-3	-289.044E-12	649.606E-3	-46.0208E-3
-4.92996E-3	-289.464E-12	646.904E-3	-3.35048E-3	-291.442E-12	661.131E-3	-35.1398E-3
-4.93497E-3	-293.271E-12	645.561E-3	-40.1215E-3	-292.800E-12	671.663E-3	-36.6828E-3
-4.93997E-3	-294.061E-12	687.344E-3	-48.3575E-3	-296.235E-12	690.172E-3	-35.3580E-3
-4.94497E-3	-293.476E-12	690.020E-3	-42.3994E-3	-293.652E-12	698.775E-3	-31.0978E-3
-4.94997E-3	-296.495E-12	656.753E-3	-40.7505E-3	-291.893E-12	678.441E-3	-51.5035E-3
-4.95498E-3	-300.311E-12	668.532E-3	-34.2233E-3	-291.890E-12	671.660E-3	-80.3845E-3
-4.95998E-3	-299.908E-12	691.275E-3	-33.5793E-3	-291.469E-12	701.492E-3	-79.0298E-3
-4.96498E-3	-297.161E-12	667.970E-3	-25.4053E-3	-291.047E-12	727.522E-3	-32.9777E-3
-4.96998E-3	-293.461E-12	648.928E-3	-20.6015E-3	-284.213E-12	696.297E-3	-12.5103E-3
-4.97499E-3	-295.971E-12	669.613E-3	-36.4667E-3	-283.643E-12	641.666E-3	11.4539E-3
-4.97999E-3	-294.353E-12	681.817E-3	-36.9729E-3	-282.631E-12	639.951E-3	35.0286E-3
-4.98499E-3	-291.754E-12	677.167E-3	-13.0845E-3	-284.321E-12	655.492E-3	5.90444E-3
-4.98999E-3	-284.095E-12	687.693E-3	-233.965E-6	-279.613E-12	638.853E-3	-7.79746E-3
-4.99500E-3	-284.841E-12	659.881E-3	6.30666E-3	-279.863E-12	642.269E-3	-17.9664E-3
-5.00000E-3	-284.867E-12	612.969E-3	10.7290E-3	-283.436E-12	630.832E-3	-11.1821E-3
