Experiment	bias spectroscopy	
Date	19.01.2016 18:53:15	
User		
X (m)	51.0375E-9	
Y (m)	256.81E-9	
Z (m)	-132.689E-9	
Z offset (m)	0E+0	
Settling time (s)	200E-6	
Integration time (s)	5E-3	
Z-Ctrl hold	TRUE	
Final Z (m)	N/A	
Filter type	None	
Order		
Cutoff frq		
Comment01	MnPc/Pb(111)	
Comment02	dz =00pm	
Comment03	7 Sweeps	
Comment04	MagField =0.T	
Comment05	Divider 1:10	
Comment06	Setpoint:5mV,200 pA	
Comment07	Lockin: 50uVrms,5ms,5mV	
Comment08	Gain:9; 912Hz modulation	
Comment09	T=1.06K	
Bias>Bias (V)	5E-3	
Bias>Calibration (V/V)	81.475E-3	
Bias>Offset (V)	1.046E-3	
Bias Spectroscopy>Sweep Start (V)	5E-3	
Bias Spectroscopy>Sweep End (V)	-5E-3	
Bias Spectroscopy>Num Pixel	2000	
Bias Spectroscopy>Z Avg time (s)	500E-3	
Bias Spectroscopy>Z offset (m)	0E+0	
Bias Spectroscopy>1st Settling time (s)	500E-3	
Bias Spectroscopy>Settling time (s)	200E-6	
Bias Spectroscopy>Integration time (s)	5E-3	
Bias Spectroscopy>End Settling time (s)	500E-3	
Bias Spectroscopy>Z control time (s)	500E-3	
Bias Spectroscopy>Max Slew rate (V/s)	Inf	
Bias Spectroscopy>backward sweep	TRUE	
Bias Spectroscopy>Z-controller hold	TRUE	
Bias Spectroscopy>Number of sweeps	7	
Bias Spectroscopy>Channels	Current (A);X% LockIn (V);Y% LockIn (V)	
Bias Spectroscopy>Reset Bias	TRUE	
Bias Spectroscopy>Record final Z	FALSE	
Bias Spectroscopy>Lock-In run	FALSE	
Bias Spectroscopy>Sweep mode	Linear	
Bias Spectroscopy>MultiLine Settings : Segment Start (V), Segment End (V), Settling (s), Integration (s), Steps (xn)	100E-3,3.3E-3,100E-6,10E-3,2500;3.3E-3,-3.3E-3,100E-6,10E-3,10;-3.3E-3,-100E-3,100E-6,10E-3,2500	
Current>Current (A)	200.158E-12	
Current>Calibration (A/V)	999.99900E-12	
Current>Offset (A)	-455.429E-15	
Current>Gain	LN 10^9	
Z-Controller>Z (m)	-132.69E-9	
Z-Controller>Controller name	log Current	
Z-Controller>Controller status	ON	
Z-Controller>Setpoint	200E-12	
Z-Controller>Setpoint unit	A	
Z-Controller>P gain	2.96994E-12	
Z-Controller>I gain	67.0321E-9	
Z-Controller>Time const (s)	44.3062E-6	
Z-Controller>TipLift (m)	0E+0	
Z-Controller>Switch off delay (s)	50E-3	
Current (A)	199.521E-12	
Z (m)	-132.69E-9	

[DATA]
Bias calc (V)	Current (A)	X% LockIn (V)	Y% LockIn (V)	Current [bwd] (A)	X% LockIn [bwd] (V)	Y% LockIn [bwd] (V)
5.00000E-3	202.373E-12	628.143E-3	-2.61107E-3	198.830E-12	610.771E-3	-4.99690E-3
4.99500E-3	202.661E-12	633.820E-3	-1.18141E-3	196.859E-12	625.262E-3	-8.03819E-3
4.98999E-3	201.761E-12	632.107E-3	5.65032E-3	195.863E-12	643.211E-3	-27.1237E-3
4.98499E-3	202.120E-12	646.608E-3	10.0103E-3	195.223E-12	652.257E-3	-42.4664E-3
4.97999E-3	200.756E-12	655.153E-3	13.5663E-3	195.060E-12	630.695E-3	-29.7626E-3
4.97499E-3	199.103E-12	646.074E-3	-17.7531E-3	195.079E-12	607.805E-3	-10.5415E-3
4.96998E-3	197.304E-12	639.380E-3	-55.0696E-3	194.185E-12	622.356E-3	-12.4820E-3
4.96498E-3	196.842E-12	632.769E-3	-52.0746E-3	196.044E-12	644.212E-3	-27.7751E-3
4.95998E-3	196.552E-12	624.994E-3	-63.7553E-3	196.186E-12	642.724E-3	-17.7927E-3
4.95498E-3	194.011E-12	622.058E-3	-65.7761E-3	196.405E-12	635.992E-3	15.1757E-3
4.94997E-3	191.563E-12	631.732E-3	-14.8515E-3	196.594E-12	647.377E-3	30.4314E-3
4.94497E-3	190.996E-12	632.705E-3	6.47043E-3	197.973E-12	666.263E-3	4.60410E-3
4.93997E-3	191.933E-12	615.474E-3	-356.786E-6	198.782E-12	670.394E-3	-25.6356E-3
4.93497E-3	190.946E-12	596.204E-3	-6.78001E-3	199.098E-12	649.652E-3	-34.8381E-3
4.92996E-3	190.519E-12	595.498E-3	-16.5403E-3	199.816E-12	629.573E-3	-29.7460E-3
4.92496E-3	190.787E-12	613.755E-3	-25.1457E-3	199.544E-12	625.529E-3	-995.170E-6
4.91996E-3	191.858E-12	625.661E-3	-35.6959E-3	198.441E-12	631.496E-3	734.506E-6
4.91496E-3	192.918E-12	614.766E-3	-18.1749E-3	196.798E-12	642.563E-3	-34.5150E-3
4.90995E-3	193.501E-12	585.587E-3	-6.88621E-3	197.296E-12	645.862E-3	-52.8140E-3
4.90495E-3	193.900E-12	596.132E-3	-34.3986E-3	195.389E-12	647.102E-3	-64.0486E-3
4.89995E-3	194.559E-12	621.014E-3	-41.3241E-3	193.696E-12	653.484E-3	-66.2139E-3
4.89495E-3	195.345E-12	616.637E-3	-47.4696E-3	193.481E-12	659.418E-3	-53.1216E-3
4.88995E-3	194.010E-12	632.396E-3	-47.5419E-3	192.275E-12	658.113E-3	-42.4676E-3
4.88494E-3	192.888E-12	648.987E-3	-9.24599E-3	191.956E-12	638.779E-3	-31.3672E-3
4.87994E-3	192.243E-12	636.081E-3	-7.89338E-3	190.070E-12	620.495E-3	-18.9966E-3
4.87494E-3	192.593E-12	648.705E-3	-38.5676E-3	190.626E-12	630.194E-3	-5.27460E-3
4.86993E-3	192.078E-12	657.519E-3	-34.6841E-3	189.270E-12	632.461E-3	-8.82370E-3
4.86493E-3	188.536E-12	623.615E-3	5.01431E-3	189.308E-12	619.461E-3	-19.4915E-3
4.85993E-3	187.386E-12	594.074E-3	26.1473E-3	188.529E-12	625.407E-3	-9.79562E-3
4.85493E-3	187.872E-12	583.269E-3	-7.56518E-3	188.867E-12	631.503E-3	-2.51999E-3
4.84992E-3	189.434E-12	605.099E-3	-42.5478E-3	188.322E-12	627.277E-3	-12.9752E-3
4.84492E-3	186.833E-12	632.024E-3	-41.3715E-3	188.856E-12	628.741E-3	-16.1735E-3
4.83992E-3	185.291E-12	621.750E-3	-28.7316E-3	187.876E-12	627.339E-3	-16.3994E-3
4.83492E-3	186.051E-12	608.818E-3	-12.1470E-3	188.633E-12	622.839E-3	-24.7668E-3
4.82991E-3	189.542E-12	606.846E-3	-1.25041E-3	189.137E-12	628.276E-3	-14.1285E-3
4.82491E-3	190.389E-12	602.320E-3	-3.19841E-3	190.547E-12	649.560E-3	-6.78979E-3
4.81991E-3	189.090E-12	605.601E-3	-2.30281E-3	190.699E-12	671.804E-3	-30.1218E-3
4.81491E-3	189.055E-12	619.884E-3	-11.4432E-3	187.831E-12	661.406E-3	-53.1768E-3
4.80990E-3	192.917E-12	650.715E-3	-36.1279E-3	189.891E-12	642.406E-3	-52.1340E-3
4.80490E-3	193.878E-12	668.173E-3	-38.9738E-3	190.603E-12	652.413E-3	-28.3359E-3
4.79990E-3	193.554E-12	645.509E-3	-27.2627E-3	189.507E-12	647.521E-3	-3.46652E-3
4.79490E-3	191.077E-12	639.846E-3	-32.5346E-3	187.728E-12	621.305E-3	14.8796E-3
4.78989E-3	191.583E-12	663.459E-3	-12.5084E-3	188.397E-12	617.011E-3	22.6779E-3
4.78489E-3	191.648E-12	665.353E-3	7.97970E-3	189.451E-12	629.955E-3	13.9899E-3
4.77989E-3	190.411E-12	658.306E-3	-10.8889E-3	187.747E-12	643.390E-3	5.65518E-3
4.77489E-3	187.712E-12	653.344E-3	-18.6592E-3	186.260E-12	637.628E-3	-457.389E-6
4.76988E-3	186.036E-12	623.545E-3	-18.3941E-3	183.727E-12	624.180E-3	-14.2192E-3
4.76488E-3	185.590E-12	598.072E-3	-11.7700E-3	184.955E-12	632.332E-3	-19.7989E-3
4.75988E-3	185.293E-12	623.639E-3	626.455E-6	183.866E-12	656.541E-3	-11.2830E-3
4.75488E-3	184.771E-12	643.885E-3	-21.2987E-3	183.280E-12	661.799E-3	-1.40131E-3
4.74988E-3	183.964E-12	627.976E-3	-59.3527E-3	182.955E-12	630.208E-3	-1.36095E-3
4.74487E-3	183.801E-12	634.177E-3	-47.0496E-3	184.536E-12	618.568E-3	-27.7944E-3
4.73987E-3	185.955E-12	634.120E-3	-2.48809E-3	185.547E-12	643.396E-3	-54.5499E-3
4.73487E-3	187.579E-12	614.801E-3	22.6854E-3	185.188E-12	671.388E-3	-44.1133E-3
4.72986E-3	187.294E-12	628.575E-3	34.1268E-3	186.169E-12	691.327E-3	-17.4102E-3
4.72486E-3	186.585E-12	653.728E-3	39.4174E-3	186.511E-12	666.508E-3	-12.5714E-3
4.71986E-3	188.010E-12	661.875E-3	32.1668E-3	189.268E-12	620.814E-3	-11.2051E-3
4.71486E-3	189.246E-12	668.092E-3	25.6956E-3	189.940E-12	636.376E-3	16.8078E-3
4.70985E-3	189.656E-12	656.602E-3	30.9865E-3	190.221E-12	679.068E-3	35.1146E-3
4.70485E-3	187.217E-12	615.906E-3	8.85489E-3	189.179E-12	678.330E-3	15.7711E-3
4.69985E-3	187.959E-12	612.573E-3	-30.8792E-3	190.554E-12	679.880E-3	-26.6619E-3
4.69485E-3	188.424E-12	649.923E-3	-23.9082E-3	190.857E-12	696.577E-3	-37.5034E-3
4.68984E-3	187.255E-12	676.889E-3	-4.43853E-3	188.919E-12	708.503E-3	4.15338E-3
4.68484E-3	185.031E-12	681.981E-3	-20.7191E-3	187.512E-12	700.514E-3	15.6340E-3
4.67984E-3	184.973E-12	654.109E-3	-16.0663E-3	186.471E-12	673.406E-3	-21.8025E-3
4.67484E-3	184.570E-12	624.249E-3	20.9330E-3	185.588E-12	657.405E-3	-19.9783E-3
4.66983E-3	184.308E-12	627.648E-3	23.9369E-3	184.089E-12	647.258E-3	831.081E-6
4.66483E-3	182.549E-12	645.191E-3	-7.01230E-3	182.567E-12	651.812E-3	-7.16204E-3
4.65983E-3	182.704E-12	648.532E-3	-27.5361E-3	181.532E-12	664.160E-3	-10.4910E-3
4.65483E-3	182.433E-12	648.067E-3	-28.7269E-3	180.267E-12	673.465E-3	-14.5808E-3
4.64982E-3	181.617E-12	655.189E-3	-11.1786E-3	178.726E-12	670.580E-3	-25.7717E-3
4.64482E-3	181.192E-12	659.964E-3	15.5852E-3	179.866E-12	646.526E-3	-27.0743E-3
4.63982E-3	181.682E-12	663.087E-3	15.9027E-3	180.767E-12	616.375E-3	-39.7209E-3
4.63482E-3	179.912E-12	664.959E-3	875.645E-6	181.152E-12	615.721E-3	-54.5074E-3
4.62981E-3	179.672E-12	641.871E-3	7.31748E-3	181.591E-12	645.109E-3	-27.5232E-3
4.62481E-3	179.025E-12	614.594E-3	16.9466E-3	182.407E-12	666.233E-3	-708.749E-6
4.61981E-3	178.997E-12	636.167E-3	16.3743E-3	183.891E-12	684.308E-3	-7.02885E-3
4.61481E-3	180.499E-12	673.738E-3	6.49767E-3	183.669E-12	693.566E-3	-14.4002E-3
4.60980E-3	179.755E-12	677.698E-3	-6.62673E-3	183.621E-12	679.410E-3	-12.1819E-3
4.60480E-3	179.337E-12	642.174E-3	-4.38988E-3	184.527E-12	681.885E-3	-13.0247E-3
4.59980E-3	177.675E-12	609.649E-3	-10.0508E-3	184.777E-12	681.562E-3	-10.7383E-3
4.59480E-3	177.734E-12	624.349E-3	-16.3271E-3	183.360E-12	653.587E-3	-11.8601E-3
4.58979E-3	178.811E-12	658.177E-3	-18.2395E-3	181.978E-12	644.601E-3	-31.5173E-3
4.58479E-3	178.875E-12	660.029E-3	-43.8809E-3	180.173E-12	648.420E-3	-40.6805E-3
4.57979E-3	177.914E-12	640.695E-3	-47.2748E-3	180.607E-12	661.520E-3	-20.2939E-3
4.57479E-3	178.686E-12	641.801E-3	-13.1436E-3	178.464E-12	677.039E-3	13.2210E-3
4.56978E-3	180.301E-12	646.680E-3	9.85661E-3	176.545E-12	652.280E-3	21.3119E-3
4.56478E-3	180.478E-12	638.319E-3	-2.10416E-3	175.803E-12	625.075E-3	6.86224E-3
4.55978E-3	179.167E-12	635.674E-3	-27.6073E-3	175.174E-12	640.730E-3	-2.55165E-3
4.55478E-3	177.734E-12	641.598E-3	-28.6708E-3	174.539E-12	654.700E-3	-1.55873E-3
4.54977E-3	178.845E-12	646.210E-3	-23.4532E-3	173.460E-12	654.502E-3	-4.15079E-3
4.54477E-3	178.329E-12	640.315E-3	-21.3045E-3	173.532E-12	660.187E-3	-14.7592E-3
4.53977E-3	177.763E-12	629.511E-3	-15.1237E-3	175.074E-12	655.534E-3	-21.9705E-3
4.53477E-3	176.322E-12	636.943E-3	-23.5648E-3	177.062E-12	656.827E-3	-44.9215E-3
4.52976E-3	174.619E-12	643.655E-3	-7.27352E-3	176.546E-12	663.324E-3	-48.3487E-3
4.52476E-3	174.317E-12	626.977E-3	31.2962E-3	176.388E-12	660.766E-3	-9.60257E-3
4.51976E-3	175.222E-12	622.403E-3	10.7377E-3	177.642E-12	658.791E-3	-2.39086E-3
4.51476E-3	174.762E-12	647.933E-3	-29.1110E-3	177.672E-12	648.206E-3	-29.0695E-3
4.50975E-3	173.396E-12	660.621E-3	-39.3985E-3	180.059E-12	656.677E-3	-15.3976E-3
4.50475E-3	173.826E-12	645.889E-3	-36.7542E-3	178.231E-12	684.596E-3	5.88755E-3
4.49975E-3	174.630E-12	616.493E-3	-14.4572E-3	178.262E-12	667.653E-3	-29.9676E-3
4.49475E-3	176.034E-12	596.789E-3	-139.518E-6	178.244E-12	639.554E-3	-63.5618E-3
4.48974E-3	176.525E-12	621.040E-3	-6.67397E-3	179.495E-12	657.987E-3	-50.2349E-3
4.48474E-3	176.490E-12	648.954E-3	9.17425E-3	178.876E-12	681.434E-3	-24.2453E-3
4.47974E-3	178.417E-12	644.612E-3	42.4570E-3	176.536E-12	665.821E-3	-21.5830E-3
4.47474E-3	178.325E-12	628.027E-3	43.0316E-3	174.998E-12	657.252E-3	-32.2632E-3
4.46973E-3	178.061E-12	637.049E-3	14.1319E-3	174.434E-12	680.076E-3	-26.8792E-3
4.46473E-3	177.990E-12	644.701E-3	-4.96270E-3	174.842E-12	670.895E-3	-9.81499E-3
4.45973E-3	178.537E-12	619.200E-3	-7.38741E-3	173.593E-12	647.099E-3	-5.22611E-3
4.45473E-3	176.949E-12	605.742E-3	-6.16639E-3	171.474E-12	667.731E-3	-4.79019E-3
4.44972E-3	174.694E-12	614.344E-3	1.09170E-3	170.484E-12	688.436E-3	17.5802E-3
4.44472E-3	173.982E-12	614.938E-3	-3.04246E-3	171.624E-12	666.143E-3	35.7850E-3
4.43972E-3	173.810E-12	629.619E-3	-15.1445E-3	173.011E-12	644.019E-3	16.8007E-3
4.43472E-3	172.987E-12	671.274E-3	-11.1332E-3	171.488E-12	647.260E-3	-6.45838E-3
4.42971E-3	170.800E-12	680.512E-3	-16.5413E-3	170.881E-12	662.039E-3	-12.7429E-3
4.42471E-3	170.555E-12	649.097E-3	-40.5287E-3	170.973E-12	663.868E-3	-34.3102E-3
4.41971E-3	169.834E-12	628.248E-3	-29.4311E-3	173.113E-12	642.231E-3	-55.6141E-3
4.41471E-3	170.614E-12	623.508E-3	-7.57215E-3	173.508E-12	641.868E-3	-18.7256E-3
4.40970E-3	170.173E-12	610.782E-3	-736.225E-6	172.275E-12	662.695E-3	30.7411E-3
4.40470E-3	169.105E-12	596.439E-3	20.1836E-3	171.948E-12	664.718E-3	26.9930E-3
4.39970E-3	170.669E-12	599.618E-3	25.0272E-3	173.312E-12	663.614E-3	468.488E-6
4.39470E-3	171.631E-12	626.384E-3	-464.146E-6	175.571E-12	665.952E-3	-13.5217E-3
4.38969E-3	173.703E-12	655.716E-3	-28.6806E-3	174.472E-12	652.682E-3	-20.0887E-3
4.38469E-3	173.436E-12	655.943E-3	-24.8633E-3	173.092E-12	648.764E-3	-27.6200E-3
4.37969E-3	174.737E-12	638.532E-3	-8.66742E-3	172.521E-12	654.325E-3	-30.0644E-3
4.37469E-3	175.652E-12	644.970E-3	-6.21861E-3	173.493E-12	656.859E-3	-25.7418E-3
4.36968E-3	174.631E-12	658.880E-3	-8.09101E-3	172.828E-12	661.918E-3	-34.5811E-3
4.36468E-3	173.189E-12	661.647E-3	-12.9015E-3	171.825E-12	649.123E-3	-38.1558E-3
4.35968E-3	171.913E-12	661.735E-3	-10.7486E-3	170.876E-12	643.496E-3	-13.2145E-3
4.35468E-3	171.356E-12	651.719E-3	-10.4600E-3	171.311E-12	649.888E-3	-17.6619E-3
4.34967E-3	169.881E-12	651.543E-3	-5.25902E-3	172.058E-12	638.531E-3	-42.1020E-3
4.34467E-3	168.192E-12	653.312E-3	17.4290E-3	171.146E-12	618.756E-3	-56.6793E-3
4.33967E-3	167.109E-12	637.625E-3	23.8743E-3	168.357E-12	600.345E-3	-62.5329E-3
4.33467E-3	165.857E-12	623.032E-3	5.13481E-3	168.850E-12	609.458E-3	-43.5256E-3
4.32966E-3	165.391E-12	609.138E-3	-19.6813E-3	169.485E-12	643.546E-3	-26.0211E-3
4.32466E-3	164.079E-12	590.358E-3	-34.1797E-3	169.909E-12	648.754E-3	-31.7461E-3
4.31966E-3	163.839E-12	579.900E-3	-28.9411E-3	168.356E-12	642.052E-3	-44.5106E-3
4.31466E-3	164.528E-12	577.461E-3	-30.9679E-3	168.876E-12	662.488E-3	-49.1601E-3
4.30965E-3	165.498E-12	588.909E-3	-50.0573E-3	169.539E-12	689.346E-3	-41.6728E-3
4.30465E-3	166.367E-12	620.273E-3	-52.2873E-3	170.575E-12	690.798E-3	-13.9223E-3
4.29965E-3	166.783E-12	637.550E-3	-21.1762E-3	169.201E-12	661.855E-3	4.75999E-3
4.29465E-3	167.937E-12	633.030E-3	6.99840E-3	169.108E-12	640.054E-3	2.17495E-3
4.28964E-3	167.914E-12	637.473E-3	7.50314E-3	169.947E-12	639.465E-3	1.67238E-3
4.28464E-3	169.463E-12	652.686E-3	-5.84352E-3	170.639E-12	645.432E-3	143.903E-6
4.27964E-3	168.258E-12	646.510E-3	-21.8634E-3	170.147E-12	653.689E-3	4.12656E-3
4.27464E-3	168.186E-12	622.149E-3	-43.2511E-3	167.851E-12	656.778E-3	4.03482E-3
4.26963E-3	166.727E-12	612.988E-3	-46.7427E-3	168.541E-12	650.427E-3	-12.8654E-3
4.26463E-3	166.219E-12	634.621E-3	-19.5502E-3	168.677E-12	634.374E-3	-31.2428E-3
4.25963E-3	164.438E-12	667.306E-3	-3.17607E-3	167.861E-12	619.230E-3	-34.0030E-3
4.25463E-3	163.497E-12	673.310E-3	-8.80486E-3	165.461E-12	624.208E-3	-37.3668E-3
4.24962E-3	162.990E-12	643.176E-3	-16.9237E-3	164.519E-12	636.545E-3	-61.1988E-3
4.24462E-3	161.689E-12	598.149E-3	-39.6598E-3	165.130E-12	641.027E-3	-70.3719E-3
4.23962E-3	160.442E-12	593.093E-3	-50.2425E-3	164.600E-12	643.396E-3	-54.4905E-3
4.23462E-3	159.806E-12	632.652E-3	-27.5891E-3	162.161E-12	630.546E-3	-24.2951E-3
4.22961E-3	160.871E-12	639.219E-3	-28.3350E-3	161.165E-12	603.264E-3	18.9515E-3
4.22461E-3	160.779E-12	602.030E-3	-48.8666E-3	160.794E-12	603.001E-3	25.8064E-3
4.21961E-3	161.435E-12	589.899E-3	-54.7587E-3	160.679E-12	620.266E-3	-15.0894E-3
4.21461E-3	161.486E-12	620.281E-3	-49.5174E-3	162.155E-12	626.126E-3	-29.7312E-3
4.20960E-3	161.218E-12	647.653E-3	-37.6165E-3	161.916E-12	636.775E-3	3.84297E-3
4.20460E-3	162.335E-12	649.993E-3	-31.7932E-3	162.179E-12	646.057E-3	23.0590E-3
4.19960E-3	162.612E-12	652.534E-3	-28.6469E-3	162.657E-12	637.254E-3	8.60905E-3
4.19460E-3	162.839E-12	655.819E-3	-22.0875E-3	164.014E-12	618.182E-3	-13.0353E-3
4.18959E-3	162.091E-12	652.507E-3	-14.8247E-3	163.595E-12	618.133E-3	-14.7876E-3
4.18459E-3	161.885E-12	655.911E-3	-16.8959E-3	163.096E-12	634.261E-3	-9.31395E-3
4.17959E-3	162.203E-12	661.708E-3	-16.3770E-3	162.642E-12	630.839E-3	-15.9236E-3
4.17459E-3	163.242E-12	669.762E-3	-11.0926E-3	162.969E-12	629.375E-3	-4.67791E-3
4.16958E-3	162.835E-12	655.946E-3	-14.6377E-3	163.395E-12	645.742E-3	9.96606E-3
4.16458E-3	161.768E-12	619.466E-3	-14.9344E-3	161.205E-12	645.444E-3	-7.06127E-3
4.15958E-3	161.466E-12	603.976E-3	-22.8158E-3	159.711E-12	644.365E-3	-24.5183E-3
4.15458E-3	163.044E-12	616.120E-3	-32.7657E-3	158.367E-12	640.930E-3	-29.7410E-3
4.14957E-3	162.655E-12	634.796E-3	-28.9731E-3	158.696E-12	608.653E-3	-34.7206E-3
4.14457E-3	162.398E-12	645.392E-3	-3.74931E-3	158.672E-12	606.750E-3	-35.4978E-3
4.13957E-3	161.835E-12	650.206E-3	22.1761E-3	155.989E-12	637.632E-3	-27.2268E-3
4.13457E-3	160.941E-12	637.100E-3	8.89042E-3	155.610E-12	647.228E-3	-11.5621E-3
4.12956E-3	161.582E-12	625.179E-3	-32.5285E-3	156.210E-12	645.791E-3	-15.6302E-3
4.12456E-3	160.723E-12	654.547E-3	-62.0468E-3	156.904E-12	653.750E-3	-20.4632E-3
4.11956E-3	160.604E-12	670.257E-3	-54.2966E-3	156.863E-12	679.631E-3	6.70352E-3
4.11456E-3	159.727E-12	645.202E-3	-11.1732E-3	156.720E-12	687.555E-3	21.1637E-3
4.10955E-3	160.109E-12	634.479E-3	12.6954E-3	157.161E-12	658.115E-3	-17.6326E-3
4.10455E-3	159.345E-12	618.256E-3	-1.61954E-3	158.388E-12	642.238E-3	-46.6219E-3
4.09955E-3	158.896E-12	585.630E-3	-24.5213E-3	160.065E-12	658.244E-3	-27.4265E-3
4.09455E-3	158.015E-12	581.365E-3	-41.8252E-3	160.483E-12	673.933E-3	-18.5868E-3
4.08954E-3	157.638E-12	609.145E-3	-15.8267E-3	160.225E-12	666.574E-3	-18.0419E-3
4.08454E-3	157.790E-12	638.284E-3	19.5365E-3	159.679E-12	645.578E-3	631.513E-6
4.07954E-3	157.953E-12	652.408E-3	-11.5229E-3	161.342E-12	637.980E-3	-5.09662E-3
4.07454E-3	157.208E-12	666.654E-3	-61.4536E-3	160.826E-12	637.146E-3	-30.4326E-3
4.06953E-3	157.278E-12	669.251E-3	-53.5657E-3	159.019E-12	643.898E-3	-21.2185E-3
4.06453E-3	158.399E-12	644.928E-3	-30.5726E-3	158.575E-12	662.768E-3	98.0837E-6
4.05953E-3	159.165E-12	628.341E-3	-16.6754E-3	157.835E-12	667.659E-3	4.23292E-3
4.05453E-3	159.505E-12	627.652E-3	-6.39899E-3	157.722E-12	664.398E-3	12.5960E-3
4.04952E-3	159.019E-12	622.987E-3	-25.2302E-3	156.110E-12	655.194E-3	8.56111E-3
4.04452E-3	158.607E-12	631.949E-3	-29.3973E-3	155.334E-12	643.299E-3	-866.630E-6
4.03952E-3	159.141E-12	632.954E-3	9.26431E-3	155.211E-12	638.499E-3	6.78069E-3
4.03452E-3	159.439E-12	619.088E-3	22.0843E-3	155.029E-12	632.777E-3	-2.84468E-3
4.02951E-3	158.847E-12	626.309E-3	-17.3597E-3	154.953E-12	612.567E-3	-24.0501E-3
4.02451E-3	157.140E-12	644.096E-3	-44.5815E-3	153.647E-12	607.578E-3	-33.5532E-3
4.01951E-3	156.213E-12	656.035E-3	-48.7068E-3	155.184E-12	635.105E-3	-35.7696E-3
4.01451E-3	155.563E-12	649.273E-3	-36.9597E-3	155.833E-12	665.676E-3	-20.7507E-3
4.00950E-3	155.366E-12	646.263E-3	-11.7824E-3	156.044E-12	684.039E-3	5.42411E-3
4.00450E-3	153.318E-12	654.505E-3	-8.64169E-3	154.814E-12	670.161E-3	13.7780E-3
3.99950E-3	152.118E-12	638.259E-3	-26.0651E-3	155.650E-12	652.088E-3	2.20115E-3
3.99450E-3	151.243E-12	628.209E-3	-35.6261E-3	157.078E-12	663.498E-3	-6.28718E-3
3.98949E-3	151.528E-12	614.146E-3	-20.7374E-3	157.075E-12	662.625E-3	-978.507E-6
3.98449E-3	151.308E-12	585.993E-3	-14.0237E-3	156.183E-12	654.106E-3	-3.40145E-3
3.97949E-3	150.564E-12	598.156E-3	-27.2586E-3	155.410E-12	658.716E-3	-479.405E-6
3.97449E-3	151.000E-12	627.229E-3	-26.0657E-3	155.856E-12	651.138E-3	2.91445E-3
3.96948E-3	152.389E-12	632.248E-3	-21.1181E-3	155.853E-12	650.685E-3	-13.9422E-3
3.96448E-3	153.317E-12	625.426E-3	-36.0043E-3	155.951E-12	657.514E-3	-14.1921E-3
3.95948E-3	154.950E-12	635.181E-3	-45.1296E-3	153.535E-12	656.228E-3	-2.38250E-3
3.95448E-3	154.259E-12	665.827E-3	-41.7451E-3	153.147E-12	659.854E-3	3.11918E-3
3.94947E-3	154.952E-12	677.568E-3	-36.6661E-3	152.760E-12	655.860E-3	7.12108E-3
3.94447E-3	154.530E-12	659.870E-3	-34.9527E-3	152.744E-12	646.894E-3	-1.02467E-3
3.93947E-3	154.893E-12	641.376E-3	-46.2725E-3	150.538E-12	654.919E-3	-26.1702E-3
3.93447E-3	153.972E-12	646.306E-3	-41.7959E-3	149.135E-12	668.253E-3	-49.3412E-3
3.92946E-3	152.659E-12	670.353E-3	-15.9028E-3	150.647E-12	648.830E-3	-56.1526E-3
3.92446E-3	150.730E-12	680.655E-3	6.49741E-3	151.291E-12	598.194E-3	-30.1111E-3
3.91946E-3	149.599E-12	674.355E-3	60.1026E-6	149.472E-12	568.273E-3	10.0970E-3
3.91446E-3	149.398E-12	663.285E-3	-23.7526E-3	147.973E-12	595.972E-3	17.7030E-3
3.90945E-3	148.069E-12	656.198E-3	-9.94777E-3	149.066E-12	637.855E-3	4.76386E-3
3.90445E-3	146.943E-12	643.812E-3	19.4486E-3	149.712E-12	652.208E-3	10.9196E-3
3.89945E-3	145.594E-12	625.692E-3	17.6480E-3	148.618E-12	665.832E-3	30.0578E-3
3.89445E-3	146.133E-12	630.848E-3	-7.87803E-3	147.963E-12	676.921E-3	16.6296E-3
3.88944E-3	146.724E-12	641.655E-3	-29.9377E-3	149.181E-12	663.423E-3	-8.98772E-3
3.88444E-3	147.398E-12	627.335E-3	-32.8827E-3	149.999E-12	662.622E-3	-17.6784E-3
3.87944E-3	147.108E-12	617.088E-3	-34.2901E-3	149.511E-12	673.101E-3	-17.8707E-3
3.87444E-3	147.229E-12	620.252E-3	-38.7527E-3	149.377E-12	662.385E-3	-15.5538E-3
3.86943E-3	148.371E-12	624.305E-3	-37.7216E-3	150.179E-12	662.912E-3	-15.6997E-3
3.86443E-3	149.806E-12	641.084E-3	-37.8327E-3	149.955E-12	665.973E-3	-8.59425E-3
3.85943E-3	150.135E-12	651.136E-3	-40.6084E-3	149.811E-12	653.987E-3	-5.99892E-3
3.85443E-3	149.736E-12	649.891E-3	-44.8559E-3	149.040E-12	650.527E-3	-6.14043E-3
3.84942E-3	149.395E-12	663.883E-3	-45.1544E-3	149.726E-12	647.158E-3	-2.89238E-3
3.84442E-3	148.082E-12	676.399E-3	-39.3334E-3	150.159E-12	630.712E-3	-10.4153E-3
3.83942E-3	148.337E-12	667.705E-3	-32.2943E-3	149.460E-12	619.932E-3	-12.6799E-3
3.83442E-3	147.610E-12	639.643E-3	-16.5743E-3	147.501E-12	628.319E-3	-8.41208E-3
3.82941E-3	145.921E-12	611.869E-3	-10.9496E-3	146.356E-12	635.476E-3	-7.60910E-3
3.82441E-3	144.889E-12	624.422E-3	-26.8384E-3	145.877E-12	638.681E-3	2.63605E-3
3.81941E-3	144.807E-12	649.518E-3	-45.7667E-3	145.146E-12	646.736E-3	-5.70429E-3
3.81441E-3	145.448E-12	644.296E-3	-51.9194E-3	144.127E-12	646.966E-3	-40.4316E-3
3.80940E-3	143.602E-12	641.950E-3	-38.6288E-3	142.767E-12	644.468E-3	-49.1756E-3
3.80440E-3	142.746E-12	652.724E-3	-17.1288E-3	142.611E-12	642.740E-3	-20.7617E-3
3.79940E-3	142.528E-12	642.775E-3	-5.81776E-3	143.714E-12	634.112E-3	-9.27469E-3
3.79440E-3	144.720E-12	634.106E-3	-10.0612E-3	144.295E-12	636.634E-3	-17.8901E-3
3.78939E-3	144.139E-12	652.785E-3	-26.7538E-3	142.896E-12	650.208E-3	-3.36128E-3
3.78439E-3	142.925E-12	666.100E-3	-34.8466E-3	143.317E-12	658.299E-3	5.69321E-3
3.77939E-3	144.060E-12	653.040E-3	-11.3591E-3	144.783E-12	669.375E-3	-1.88971E-3
3.77439E-3	145.379E-12	636.472E-3	8.67375E-3	145.618E-12	666.776E-3	2.16322E-3
3.76938E-3	145.333E-12	633.296E-3	3.15505E-3	144.806E-12	638.859E-3	7.34950E-3
3.76438E-3	144.152E-12	629.084E-3	-6.59731E-3	144.884E-12	625.698E-3	-6.53346E-3
3.75938E-3	144.420E-12	632.254E-3	-16.2272E-3	145.021E-12	653.179E-3	-26.7384E-3
3.75438E-3	145.333E-12	637.667E-3	-12.6853E-3	145.101E-12	683.914E-3	-22.8032E-3
3.74937E-3	144.559E-12	635.864E-3	-11.2235E-3	145.147E-12	685.821E-3	-8.93676E-3
3.74437E-3	144.104E-12	636.341E-3	-51.8936E-3	144.444E-12	673.020E-3	3.89133E-3
3.73937E-3	143.133E-12	645.319E-3	-80.7038E-3	143.554E-12	647.962E-3	2.57316E-3
3.73437E-3	143.736E-12	659.793E-3	-51.9355E-3	143.352E-12	621.658E-3	-7.24050E-3
3.72936E-3	142.798E-12	659.057E-3	-9.07054E-3	143.112E-12	624.000E-3	201.390E-6
3.72436E-3	142.496E-12	645.759E-3	10.3366E-3	142.227E-12	644.028E-3	-9.29443E-3
3.71936E-3	142.006E-12	647.190E-3	2.02206E-3	141.272E-12	658.681E-3	-26.8697E-3
3.71436E-3	142.266E-12	660.839E-3	-8.57969E-3	140.582E-12	658.857E-3	-36.3570E-3
3.70935E-3	142.008E-12	667.638E-3	-8.50485E-3	140.237E-12	645.515E-3	-42.4967E-3
3.70435E-3	141.095E-12	649.973E-3	-11.1296E-3	140.086E-12	641.714E-3	-25.2289E-3
3.69935E-3	140.627E-12	630.250E-3	-17.7207E-3	139.661E-12	650.391E-3	-2.27691E-3
3.69435E-3	140.938E-12	635.706E-3	-23.5193E-3	139.416E-12	656.327E-3	15.3258E-3
3.68934E-3	140.837E-12	644.978E-3	-32.5960E-3	139.546E-12	657.599E-3	25.1968E-3
3.68434E-3	139.618E-12	653.043E-3	-33.5810E-3	140.526E-12	648.895E-3	14.6434E-3
3.67934E-3	139.576E-12	660.638E-3	-10.7816E-3	140.871E-12	630.447E-3	11.7655E-3
3.67434E-3	139.468E-12	659.930E-3	19.1408E-3	141.213E-12	638.930E-3	12.3182E-3
3.66933E-3	139.897E-12	647.988E-3	12.4836E-3	141.090E-12	673.371E-3	-4.29374E-3
3.66433E-3	138.730E-12	631.931E-3	-11.8719E-3	141.763E-12	675.081E-3	-9.26768E-3
3.65933E-3	138.965E-12	627.996E-3	-15.7794E-3	141.510E-12	653.540E-3	-7.94319E-3
3.65433E-3	138.819E-12	633.876E-3	-18.0157E-3	140.914E-12	652.400E-3	-10.7988E-3
3.64932E-3	138.867E-12	627.190E-3	-26.1865E-3	139.861E-12	640.525E-3	-21.8010E-3
3.64432E-3	139.274E-12	612.106E-3	-25.5631E-3	140.487E-12	611.445E-3	-28.8187E-3
3.63932E-3	138.513E-12	608.587E-3	-14.2365E-3	140.556E-12	611.819E-3	-16.7648E-3
3.63432E-3	138.404E-12	619.415E-3	-16.1796E-3	138.524E-12	630.327E-3	-9.23941E-3
3.62931E-3	139.080E-12	630.104E-3	-19.7004E-3	137.101E-12	628.243E-3	-9.70907E-3
3.62431E-3	139.532E-12	628.737E-3	-5.52398E-3	136.631E-12	618.712E-3	-9.69126E-3
3.61931E-3	139.321E-12	636.383E-3	-7.86056E-3	136.900E-12	625.652E-3	-12.5538E-3
3.61431E-3	138.087E-12	662.539E-3	-25.9905E-3	136.617E-12	633.339E-3	-22.7392E-3
3.60930E-3	138.472E-12	673.396E-3	-35.5208E-3	135.159E-12	630.204E-3	-18.6830E-3
3.60430E-3	137.795E-12	670.322E-3	-36.0100E-3	134.401E-12	635.655E-3	-8.00224E-3
3.59930E-3	137.514E-12	674.976E-3	-26.2438E-3	135.342E-12	642.380E-3	-16.9537E-3
3.59430E-3	136.666E-12	657.542E-3	-17.5780E-3	135.959E-12	643.246E-3	-18.1844E-3
3.58929E-3	135.888E-12	625.522E-3	-11.8426E-3	135.664E-12	661.254E-3	-4.14664E-3
3.58429E-3	135.266E-12	618.490E-3	-4.11384E-3	135.244E-12	673.558E-3	-11.0214E-3
3.57929E-3	134.179E-12	623.009E-3	-14.2214E-3	136.233E-12	677.287E-3	-9.68495E-3
3.57429E-3	133.740E-12	628.549E-3	-33.2268E-3	137.572E-12	673.474E-3	11.3868E-3
3.56928E-3	133.353E-12	641.959E-3	-34.9875E-3	138.880E-12	646.600E-3	1.77811E-3
3.56428E-3	133.472E-12	660.053E-3	-27.6150E-3	137.930E-12	636.604E-3	-22.3393E-3
3.55928E-3	133.553E-12	668.111E-3	-23.4012E-3	136.556E-12	650.311E-3	-43.9915E-3
3.55428E-3	134.248E-12	648.342E-3	-24.0748E-3	136.291E-12	641.753E-3	-68.3259E-3
3.54927E-3	134.376E-12	623.356E-3	-25.4358E-3	136.970E-12	623.602E-3	-75.8500E-3
3.54427E-3	135.306E-12	628.753E-3	-26.9353E-3	137.414E-12	626.564E-3	-63.6807E-3
3.53927E-3	135.769E-12	658.532E-3	-23.9886E-3	134.947E-12	640.053E-3	-50.6210E-3
3.53427E-3	135.265E-12	667.665E-3	-15.3681E-3	134.772E-12	659.646E-3	-33.0157E-3
3.52926E-3	136.329E-12	642.097E-3	-13.8473E-3	135.475E-12	666.014E-3	-9.81875E-3
3.52426E-3	137.040E-12	622.593E-3	-12.5253E-3	135.539E-12	654.325E-3	-3.63885E-3
3.51926E-3	137.632E-12	624.108E-3	-11.9273E-3	133.082E-12	648.000E-3	-3.08118E-3
3.51426E-3	135.489E-12	633.297E-3	-26.1357E-3	131.874E-12	638.719E-3	6.37327E-3
3.50925E-3	134.439E-12	640.195E-3	-47.3106E-3	131.746E-12	616.265E-3	3.99268E-3
3.50425E-3	134.558E-12	649.615E-3	-42.0326E-3	133.413E-12	608.891E-3	-1.20854E-3
3.49925E-3	135.007E-12	665.586E-3	-21.8065E-3	131.743E-12	629.929E-3	1.58314E-3
3.49425E-3	134.328E-12	684.284E-3	-25.0337E-3	130.600E-12	643.416E-3	885.803E-6
3.48924E-3	132.041E-12	682.874E-3	-23.0233E-3	130.560E-12	644.153E-3	1.20510E-3
3.48424E-3	131.055E-12	658.870E-3	-8.99670E-3	132.855E-12	651.745E-3	1.31752E-3
3.47924E-3	130.388E-12	646.775E-3	-866.246E-6	132.947E-12	652.977E-3	-8.17981E-3
3.47424E-3	131.420E-12	641.533E-3	2.83013E-3	130.060E-12	665.310E-3	-20.1049E-3
3.46923E-3	129.736E-12	633.767E-3	4.18598E-3	130.640E-12	692.280E-3	-18.4761E-3
3.46423E-3	129.197E-12	649.610E-3	-12.9463E-3	131.756E-12	702.961E-3	-10.1310E-3
3.45923E-3	129.328E-12	669.096E-3	-51.3063E-3	132.751E-12	700.088E-3	284.615E-6
3.45423E-3	131.476E-12	661.944E-3	-69.7896E-3	131.557E-12	702.953E-3	31.5030E-6
3.44922E-3	130.562E-12	661.161E-3	-53.3303E-3	131.203E-12	713.438E-3	-9.13392E-3
3.44422E-3	129.342E-12	671.742E-3	-10.7750E-3	132.218E-12	709.333E-3	46.0897E-6
3.43922E-3	130.108E-12	675.510E-3	12.5034E-3	133.684E-12	692.331E-3	11.2092E-3
3.43422E-3	131.838E-12	663.302E-3	13.3059E-3	132.750E-12	670.707E-3	-10.9786E-3
3.42921E-3	132.356E-12	639.971E-3	18.1229E-3	130.819E-12	658.077E-3	-41.3501E-3
3.42421E-3	130.271E-12	618.103E-3	6.54286E-3	131.777E-12	672.898E-3	-49.7845E-3
3.41921E-3	130.400E-12	619.549E-3	-4.40751E-3	131.213E-12	676.753E-3	-33.4345E-3
3.41421E-3	129.847E-12	643.072E-3	-8.04457E-3	130.505E-12	659.251E-3	-4.63810E-3
3.40920E-3	130.129E-12	664.136E-3	-15.8517E-3	128.527E-12	638.527E-3	7.05878E-3
3.40420E-3	128.509E-12	680.009E-3	-2.01411E-3	127.922E-12	622.119E-3	-1.12111E-3
3.39920E-3	127.518E-12	676.099E-3	17.3803E-3	128.147E-12	634.644E-3	-18.2386E-3
3.39420E-3	126.785E-12	654.470E-3	10.5235E-3	127.729E-12	657.445E-3	-20.9727E-3
3.38919E-3	126.682E-12	655.250E-3	-13.4311E-3	127.690E-12	656.536E-3	-5.25768E-3
3.38419E-3	127.153E-12	665.443E-3	-29.8741E-3	126.244E-12	656.579E-3	8.40751E-3
3.37919E-3	126.179E-12	656.968E-3	-21.3315E-3	126.826E-12	653.792E-3	9.43877E-3
3.37419E-3	125.445E-12	659.494E-3	-10.7806E-3	127.369E-12	652.309E-3	-3.37798E-3
3.36918E-3	124.563E-12	666.370E-3	-5.25912E-3	127.068E-12	676.988E-3	-18.7836E-3
3.36418E-3	125.932E-12	666.259E-3	10.3465E-3	126.966E-12	687.888E-3	-12.3725E-3
3.35918E-3	125.822E-12	676.512E-3	11.2043E-3	127.846E-12	664.515E-3	9.19759E-3
3.35418E-3	125.589E-12	679.140E-3	-10.1567E-3	129.075E-12	643.768E-3	5.02202E-3
3.34917E-3	125.247E-12	669.224E-3	-16.7346E-3	128.876E-12	667.985E-3	-10.1367E-3
3.34417E-3	125.668E-12	667.254E-3	-14.1161E-3	128.926E-12	699.340E-3	-12.7456E-3
3.33917E-3	126.331E-12	670.709E-3	-20.2214E-3	129.084E-12	693.309E-3	-10.9590E-3
3.33417E-3	125.574E-12	661.449E-3	-19.5537E-3	129.425E-12	674.280E-3	-4.49254E-3
3.32916E-3	125.364E-12	650.041E-3	-27.1390E-3	128.217E-12	672.118E-3	-4.08044E-3
3.32416E-3	124.812E-12	654.096E-3	-42.9777E-3	127.967E-12	676.364E-3	-3.24273E-3
3.31916E-3	125.666E-12	662.945E-3	-33.2200E-3	127.738E-12	671.439E-3	-4.98131E-3
3.31416E-3	124.880E-12	654.833E-3	-11.5922E-3	127.429E-12	659.965E-3	-17.1522E-3
3.30915E-3	123.933E-12	638.076E-3	-10.5448E-3	126.490E-12	647.077E-3	-16.4763E-3
3.30415E-3	123.951E-12	643.405E-3	-11.4172E-3	124.754E-12	644.840E-3	-18.3220E-3
3.29915E-3	123.482E-12	652.296E-3	-88.6322E-6	124.179E-12	652.493E-3	-30.8406E-3
3.29415E-3	124.274E-12	648.007E-3	321.795E-6	123.039E-12	673.633E-3	-17.0835E-3
3.28914E-3	124.641E-12	659.987E-3	-5.05558E-3	123.052E-12	674.952E-3	-9.40785E-3
3.28414E-3	124.002E-12	674.933E-3	-4.37595E-3	122.214E-12	640.552E-3	-35.5671E-3
3.27914E-3	123.198E-12	685.632E-3	-18.0202E-3	121.481E-12	625.955E-3	-44.8359E-3
3.27414E-3	122.695E-12	693.079E-3	-36.7386E-3	121.492E-12	640.027E-3	-23.9388E-3
3.26913E-3	123.402E-12	678.343E-3	-31.4491E-3	122.767E-12	662.566E-3	-19.3751E-3
3.26413E-3	122.388E-12	665.427E-3	-23.0993E-3	123.109E-12	680.678E-3	-17.5737E-3
3.25913E-3	121.959E-12	669.794E-3	-16.4751E-3	121.330E-12	678.245E-3	19.9339E-3
3.25413E-3	121.433E-12	672.205E-3	-16.6811E-3	122.812E-12	662.151E-3	37.9899E-3
3.24912E-3	121.043E-12	670.271E-3	-33.5528E-3	122.448E-12	643.636E-3	17.3907E-3
3.24412E-3	120.885E-12	672.617E-3	-31.3247E-3	123.005E-12	631.997E-3	-1.95324E-3
3.23912E-3	120.811E-12	675.452E-3	-12.9079E-3	122.116E-12	634.641E-3	-1.64130E-3
3.23412E-3	120.812E-12	669.159E-3	-11.5729E-3	122.573E-12	647.225E-3	4.92422E-3
3.22911E-3	120.687E-12	666.860E-3	-25.3391E-3	122.245E-12	666.338E-3	-802.098E-6
3.22411E-3	120.474E-12	671.395E-3	-5.64797E-3	121.109E-12	688.017E-3	-32.7564E-3
3.21911E-3	121.028E-12	664.231E-3	21.0794E-3	120.165E-12	676.636E-3	-60.7338E-3
3.21411E-3	121.581E-12	666.145E-3	4.83778E-3	118.998E-12	655.340E-3	-30.4339E-3
3.20910E-3	120.639E-12	678.257E-3	-9.61708E-3	119.654E-12	659.369E-3	-953.116E-6
3.20410E-3	120.510E-12	674.519E-3	-21.0841E-3	117.777E-12	667.100E-3	-6.05717E-3
3.19910E-3	120.626E-12	664.095E-3	-44.2301E-3	117.148E-12	675.808E-3	3.64954E-3
3.19410E-3	120.886E-12	652.059E-3	-44.8553E-3	117.298E-12	671.611E-3	15.5744E-3
3.18909E-3	120.130E-12	640.440E-3	-33.5401E-3	118.542E-12	644.516E-3	15.9640E-3
3.18409E-3	119.814E-12	644.897E-3	-33.6406E-3	117.614E-12	624.290E-3	2.96882E-3
3.17909E-3	119.321E-12	646.534E-3	-33.1382E-3	116.142E-12	621.986E-3	-25.5907E-3
3.17409E-3	119.852E-12	637.697E-3	-40.6755E-3	116.480E-12	631.505E-3	-33.3705E-3
3.16908E-3	118.971E-12	649.230E-3	-47.6974E-3	117.197E-12	651.660E-3	-27.2490E-3
3.16408E-3	118.037E-12	676.966E-3	-31.2079E-3	117.584E-12	665.676E-3	-23.1096E-3
3.15908E-3	117.199E-12	676.224E-3	-20.1538E-3	116.775E-12	659.719E-3	-27.5473E-3
3.15408E-3	117.032E-12	651.363E-3	-20.2812E-3	117.166E-12	645.158E-3	-41.4255E-3
3.14907E-3	117.334E-12	645.412E-3	-16.0984E-3	117.513E-12	655.800E-3	-43.6300E-3
3.14407E-3	117.346E-12	655.657E-3	-25.5974E-3	117.833E-12	689.081E-3	-29.4329E-3
3.13907E-3	117.318E-12	657.770E-3	-32.8125E-3	117.454E-12	687.124E-3	321.908E-6
3.13407E-3	116.476E-12	650.519E-3	-14.4175E-3	117.056E-12	671.154E-3	22.7063E-3
3.12906E-3	116.837E-12	651.676E-3	-1.13209E-3	117.459E-12	673.099E-3	16.3964E-3
3.12406E-3	116.757E-12	662.841E-3	-9.59189E-3	116.980E-12	665.139E-3	-8.33237E-3
3.11906E-3	116.458E-12	658.512E-3	-24.5139E-3	117.222E-12	641.976E-3	-29.2164E-3
3.11406E-3	116.554E-12	647.936E-3	-32.6370E-3	116.964E-12	632.040E-3	-35.7655E-3
3.10905E-3	116.075E-12	639.875E-3	-35.8978E-3	117.373E-12	651.523E-3	-16.1936E-3
3.10405E-3	117.161E-12	640.679E-3	-22.8871E-3	116.651E-12	670.586E-3	15.2080E-3
3.09905E-3	116.499E-12	656.346E-3	4.22110E-3	116.025E-12	677.239E-3	22.4782E-3
3.09405E-3	116.409E-12	655.909E-3	19.2587E-3	116.072E-12	678.075E-3	1.82964E-3
3.08904E-3	116.327E-12	654.233E-3	9.09702E-3	116.219E-12	673.419E-3	-30.6607E-3
3.08404E-3	116.009E-12	661.118E-3	-1.61597E-3	115.302E-12	667.764E-3	-40.2510E-3
3.07904E-3	114.692E-12	663.720E-3	-5.61292E-3	114.034E-12	663.932E-3	-25.1886E-3
3.07404E-3	113.238E-12	673.272E-3	-21.0748E-3	113.116E-12	662.643E-3	-16.2792E-3
3.06903E-3	112.939E-12	675.258E-3	-23.0861E-3	112.825E-12	655.064E-3	-17.5311E-3
3.06403E-3	112.319E-12	666.139E-3	-24.5148E-3	113.074E-12	642.080E-3	-30.4664E-3
3.05903E-3	112.640E-12	663.209E-3	-36.3823E-3	112.217E-12	634.747E-3	-39.7633E-3
3.05403E-3	111.389E-12	658.545E-3	-31.9068E-3	111.873E-12	654.855E-3	-30.8394E-3
3.04902E-3	110.814E-12	649.389E-3	-24.9029E-3	112.183E-12	677.910E-3	-30.7709E-3
3.04402E-3	110.417E-12	640.041E-3	-33.9616E-3	112.525E-12	674.490E-3	-30.8711E-3
3.03902E-3	110.197E-12	642.517E-3	-42.6452E-3	113.307E-12	684.568E-3	-18.1477E-3
3.03402E-3	110.709E-12	653.809E-3	-35.1069E-3	112.937E-12	695.717E-3	-16.3193E-3
3.02901E-3	110.553E-12	653.399E-3	-19.4409E-3	113.810E-12	673.199E-3	652.492E-6
3.02401E-3	110.754E-12	647.658E-3	-9.93462E-3	113.732E-12	668.525E-3	14.8550E-3
3.01901E-3	110.479E-12	661.942E-3	-11.6587E-3	114.723E-12	679.236E-3	-10.5502E-3
3.01401E-3	111.376E-12	678.267E-3	-24.1567E-3	114.897E-12	666.832E-3	-16.5717E-3
3.00900E-3	111.856E-12	677.799E-3	-41.7028E-3	113.659E-12	667.233E-3	5.98702E-3
3.00400E-3	111.553E-12	697.478E-3	-47.9266E-3	112.683E-12	669.416E-3	6.86824E-3
2.99900E-3	110.710E-12	700.458E-3	-27.3826E-3	112.448E-12	662.279E-3	-4.93137E-3
2.99400E-3	110.739E-12	667.487E-3	-5.66444E-3	113.038E-12	671.040E-3	3.84735E-3
2.98899E-3	110.988E-12	649.538E-3	-9.09870E-3	111.813E-12	674.600E-3	5.84131E-3
2.98399E-3	110.259E-12	650.149E-3	-3.22418E-3	110.053E-12	664.616E-3	-5.91387E-3
2.97899E-3	109.155E-12	660.555E-3	7.40295E-3	109.193E-12	671.794E-3	-9.65926E-3
2.97399E-3	109.142E-12	677.677E-3	-19.9447E-3	109.956E-12	690.083E-3	-18.8935E-3
2.96898E-3	109.532E-12	688.206E-3	-30.9625E-3	109.744E-12	688.723E-3	-24.7472E-3
2.96398E-3	108.821E-12	684.166E-3	-19.3595E-3	107.953E-12	673.275E-3	-11.1358E-3
2.95898E-3	106.680E-12	672.072E-3	-29.4178E-3	107.361E-12	660.816E-3	4.05579E-3
2.95398E-3	106.702E-12	653.655E-3	-16.9529E-3	107.542E-12	652.461E-3	12.5902E-3
2.94897E-3	107.632E-12	641.850E-3	9.54273E-3	108.153E-12	649.670E-3	9.81115E-3
2.94397E-3	107.590E-12	653.940E-3	19.5551E-3	108.020E-12	656.322E-3	-7.49282E-3
2.93897E-3	106.716E-12	675.315E-3	22.6617E-3	107.467E-12	664.693E-3	-18.1111E-3
2.93397E-3	106.448E-12	676.979E-3	18.2522E-3	107.275E-12	670.849E-3	-1.40581E-3
2.92896E-3	107.413E-12	672.198E-3	6.94032E-3	107.856E-12	670.866E-3	15.1066E-3
2.92396E-3	108.207E-12	671.638E-3	-18.5378E-3	108.487E-12	666.966E-3	-6.80801E-3
2.91896E-3	106.876E-12	661.469E-3	-42.5167E-3	108.757E-12	657.083E-3	-34.2887E-3
2.91396E-3	106.796E-12	660.963E-3	-48.7487E-3	108.068E-12	648.663E-3	-38.5477E-3
2.90895E-3	107.388E-12	669.679E-3	-51.5371E-3	106.941E-12	662.539E-3	-33.1835E-3
2.90395E-3	108.066E-12	670.220E-3	-46.9318E-3	107.257E-12	670.679E-3	-21.9588E-3
2.89895E-3	106.549E-12	661.802E-3	-29.1385E-3	107.107E-12	659.056E-3	-6.22933E-3
2.89395E-3	105.705E-12	650.970E-3	-23.1389E-3	105.744E-12	655.684E-3	6.13858E-3
2.88894E-3	105.659E-12	656.767E-3	-24.3708E-3	104.231E-12	659.085E-3	2.49068E-3
2.88394E-3	106.216E-12	667.661E-3	-15.9689E-3	104.965E-12	649.484E-3	-5.25896E-3
2.87894E-3	106.199E-12	682.278E-3	-13.4925E-3	105.161E-12	632.794E-3	-6.18029E-3
2.87394E-3	105.158E-12	709.332E-3	-2.11395E-3	103.661E-12	635.136E-3	-18.0124E-3
2.86893E-3	104.705E-12	701.776E-3	1.07520E-3	102.271E-12	658.615E-3	-20.2883E-3
2.86393E-3	104.534E-12	678.211E-3	-16.2089E-3	102.635E-12	685.192E-3	-6.92936E-3
2.85893E-3	104.774E-12	681.193E-3	-13.1202E-3	103.583E-12	692.787E-3	-15.2225E-3
2.85393E-3	104.897E-12	684.270E-3	-421.099E-6	103.957E-12	681.772E-3	-40.0533E-3
2.84892E-3	103.570E-12	679.691E-3	-9.00418E-3	104.000E-12	673.913E-3	-35.8561E-3
2.84392E-3	103.386E-12	678.211E-3	-17.2902E-3	103.072E-12	660.090E-3	-14.0116E-3
2.83892E-3	103.471E-12	678.089E-3	-9.30986E-3	103.237E-12	646.390E-3	437.796E-6
2.83392E-3	104.219E-12	679.755E-3	-21.0589E-3	103.949E-12	658.386E-3	19.6944E-3
2.82891E-3	103.274E-12	688.847E-3	-38.4901E-3	104.087E-12	685.527E-3	36.1714E-3
2.82391E-3	102.007E-12	684.255E-3	-30.9375E-3	103.439E-12	683.828E-3	27.1595E-3
2.81891E-3	101.516E-12	673.753E-3	-21.5680E-3	102.779E-12	661.207E-3	6.17689E-3
2.81391E-3	101.893E-12	670.317E-3	-7.62075E-3	103.574E-12	658.423E-3	1.77062E-3
2.80890E-3	101.200E-12	663.937E-3	8.13829E-3	104.038E-12	670.044E-3	16.4702E-3
2.80390E-3	100.525E-12	652.861E-3	8.20875E-3	103.325E-12	687.004E-3	22.3410E-3
2.79890E-3	100.226E-12	645.875E-3	-1.21803E-3	102.138E-12	703.623E-3	-11.2768E-3
2.79390E-3	100.524E-12	653.861E-3	-12.7610E-3	101.692E-12	703.703E-3	-48.5801E-3
2.78889E-3	100.760E-12	664.916E-3	-16.5181E-3	102.623E-12	692.000E-3	-53.2249E-3
2.78389E-3	100.701E-12	677.388E-3	-12.6918E-3	102.470E-12	694.776E-3	-34.9195E-3
2.77889E-3	99.9568E-12	690.778E-3	-10.7608E-3	101.398E-12	710.902E-3	-12.8623E-3
2.77389E-3	99.7127E-12	692.776E-3	-13.4590E-3	100.768E-12	710.621E-3	2.53286E-3
2.76888E-3	99.5984E-12	671.684E-3	-13.2007E-3	100.988E-12	690.377E-3	604.030E-6
2.76388E-3	100.053E-12	652.122E-3	-11.3421E-3	101.373E-12	672.582E-3	-18.4144E-3
2.75888E-3	99.6860E-12	660.625E-3	-6.46423E-3	99.7792E-12	669.592E-3	-33.9992E-3
2.75388E-3	99.2287E-12	673.377E-3	-2.31700E-3	99.2243E-12	668.622E-3	-46.0674E-3
2.74887E-3	98.8387E-12	680.110E-3	-7.73140E-3	98.9612E-12	666.475E-3	-44.8066E-3
2.74387E-3	99.0698E-12	696.386E-3	-10.1599E-3	100.113E-12	667.479E-3	-18.2244E-3
2.73887E-3	98.3984E-12	715.741E-3	-10.9538E-3	99.9621E-12	675.797E-3	-6.96141E-3
2.73387E-3	97.7460E-12	705.005E-3	-7.04595E-3	99.5945E-12	685.122E-3	-22.7076E-3
2.72886E-3	96.9173E-12	664.550E-3	-1.79347E-3	99.4302E-12	681.046E-3	-19.6497E-3
2.72386E-3	96.8247E-12	653.508E-3	-13.3852E-3	100.185E-12	670.977E-3	-3.44589E-3
2.71886E-3	97.7733E-12	670.015E-3	-26.9040E-3	101.212E-12	664.762E-3	-11.5930E-3
2.71386E-3	97.5329E-12	669.731E-3	-28.3826E-3	99.5456E-12	674.059E-3	-17.7344E-3
2.70885E-3	97.0538E-12	671.236E-3	-26.5216E-3	98.5254E-12	695.460E-3	-4.83496E-3
2.70385E-3	96.6194E-12	682.572E-3	-20.9971E-3	99.6357E-12	709.579E-3	-7.10114E-3
2.69885E-3	97.0125E-12	682.259E-3	-17.0117E-3	100.693E-12	719.166E-3	-21.8046E-3
2.69385E-3	97.7959E-12	678.722E-3	-22.1971E-3	99.4438E-12	719.685E-3	-34.0872E-3
2.68884E-3	98.3296E-12	689.846E-3	-26.4940E-3	97.5974E-12	705.884E-3	-28.1698E-3
2.68384E-3	97.1922E-12	697.960E-3	-28.4804E-3	97.7614E-12	706.853E-3	-7.92815E-3
2.67884E-3	96.3282E-12	694.941E-3	-18.4919E-3	98.4752E-12	717.769E-3	-5.97763E-3
2.67384E-3	97.4223E-12	694.669E-3	-2.14839E-3	97.3530E-12	701.425E-3	-12.1408E-3
2.66883E-3	97.3903E-12	702.129E-3	-7.79642E-3	95.9613E-12	674.453E-3	-5.59385E-3
2.66383E-3	96.5207E-12	705.589E-3	-27.9683E-3	95.2393E-12	679.245E-3	6.57069E-3
2.65883E-3	95.1417E-12	698.399E-3	-26.4270E-3	94.7482E-12	693.932E-3	2.91809E-3
2.65383E-3	94.6550E-12	695.958E-3	-7.90410E-3	94.3303E-12	696.718E-3	-7.24371E-3
2.64882E-3	95.0117E-12	707.887E-3	-12.3091E-3	94.1315E-12	699.694E-3	-8.00296E-3
2.64382E-3	94.5784E-12	709.607E-3	-22.0721E-3	93.6298E-12	693.130E-3	-8.54443E-3
2.63882E-3	93.6666E-12	686.309E-3	-15.0679E-3	93.3438E-12	690.320E-3	-13.5927E-3
2.63382E-3	92.9512E-12	671.408E-3	-13.3476E-3	93.6673E-12	691.453E-3	-22.4524E-3
2.62881E-3	93.2825E-12	660.019E-3	-16.3243E-3	93.6116E-12	680.538E-3	-29.3003E-3
2.62381E-3	92.9940E-12	640.426E-3	-19.5413E-3	93.4653E-12	671.444E-3	-28.5065E-3
2.61881E-3	92.3514E-12	659.866E-3	-17.0783E-3	92.8794E-12	673.258E-3	-23.9055E-3
2.61381E-3	91.6080E-12	707.276E-3	-6.57114E-3	93.0177E-12	692.425E-3	-19.5382E-3
2.60880E-3	92.1976E-12	709.232E-3	-7.76637E-3	92.9631E-12	716.937E-3	-16.4606E-3
2.60380E-3	93.3992E-12	678.680E-3	-9.98877E-3	93.0633E-12	726.704E-3	-13.9766E-3
2.59880E-3	93.2144E-12	674.593E-3	-886.614E-6	93.6805E-12	708.168E-3	-6.26882E-3
2.59380E-3	93.0745E-12	693.140E-3	11.4806E-3	93.3927E-12	686.636E-3	-2.69965E-3
2.58879E-3	92.5778E-12	703.988E-3	4.54663E-3	92.9751E-12	694.156E-3	963.911E-6
2.58379E-3	93.5060E-12	694.435E-3	-12.0071E-3	92.5236E-12	700.739E-3	14.9506E-3
2.57879E-3	93.8471E-12	690.354E-3	-5.86369E-3	92.5164E-12	691.665E-3	10.7793E-3
2.57379E-3	93.0490E-12	714.458E-3	-441.929E-6	92.0980E-12	683.688E-3	-11.1206E-3
2.56878E-3	92.1731E-12	737.633E-3	-14.3661E-3	90.9027E-12	677.099E-3	-27.3136E-3
2.56378E-3	92.0440E-12	733.539E-3	-23.7125E-3	89.7808E-12	676.217E-3	-41.8436E-3
2.55878E-3	92.1177E-12	718.768E-3	-25.2232E-3	90.0791E-12	688.861E-3	-48.1432E-3
2.55378E-3	91.8631E-12	714.292E-3	-26.1025E-3	89.7196E-12	689.380E-3	-45.8348E-3
2.54877E-3	90.1436E-12	711.258E-3	-15.2548E-3	88.8680E-12	668.736E-3	-41.9937E-3
2.54377E-3	89.2236E-12	703.708E-3	-6.07106E-3	87.8354E-12	672.651E-3	-24.8051E-3
2.53877E-3	88.7866E-12	710.419E-3	-12.9174E-3	88.0892E-12	699.747E-3	-3.71828E-3
2.53377E-3	88.9135E-12	717.775E-3	-22.7027E-3	88.8485E-12	708.859E-3	-7.42956E-3
2.52876E-3	88.4158E-12	700.797E-3	-18.7698E-3	88.3024E-12	706.090E-3	-18.5084E-3
2.52376E-3	87.9675E-12	698.594E-3	-1.75146E-3	87.9281E-12	700.778E-3	-22.7962E-3
2.51876E-3	88.1534E-12	714.818E-3	2.19756E-3	88.8811E-12	695.259E-3	-28.5772E-3
2.51376E-3	89.1788E-12	712.694E-3	-13.8753E-3	89.2320E-12	705.222E-3	-36.4489E-3
2.50875E-3	88.8767E-12	711.600E-3	-26.3407E-3	89.1144E-12	717.318E-3	-41.1353E-3
2.50375E-3	87.5995E-12	713.113E-3	-20.6872E-3	88.0929E-12	721.356E-3	-31.4238E-3
2.49875E-3	88.0841E-12	699.444E-3	-6.96487E-3	88.6053E-12	729.449E-3	-22.3913E-3
2.49375E-3	88.3485E-12	696.360E-3	-10.7679E-3	89.4483E-12	735.313E-3	-23.8556E-3
2.48874E-3	88.2016E-12	708.759E-3	-29.6759E-3	88.8613E-12	730.608E-3	-20.8998E-3
2.48374E-3	86.8628E-12	705.330E-3	-40.4764E-3	88.0171E-12	722.724E-3	-19.3095E-3
2.47874E-3	86.5102E-12	692.886E-3	-42.2982E-3	87.9377E-12	715.206E-3	-28.7408E-3
2.47374E-3	87.1292E-12	695.801E-3	-33.1492E-3	88.4759E-12	717.009E-3	-28.4140E-3
2.46873E-3	86.9378E-12	698.335E-3	-17.4005E-3	87.9008E-12	727.346E-3	-11.9902E-3
2.46373E-3	85.8407E-12	696.656E-3	-12.2702E-3	86.6224E-12	731.273E-3	-3.23230E-3
2.45873E-3	85.2727E-12	717.010E-3	-21.0762E-3	85.9088E-12	728.967E-3	-8.84181E-3
2.45373E-3	85.3774E-12	732.625E-3	-21.7328E-3	86.2416E-12	719.488E-3	-11.7643E-3
2.44872E-3	85.1868E-12	712.686E-3	-7.99246E-3	86.5340E-12	705.071E-3	-5.78008E-3
2.44372E-3	84.7875E-12	699.198E-3	-1.53350E-3	85.8027E-12	701.206E-3	778.199E-6
2.43872E-3	83.7946E-12	721.706E-3	3.44799E-3	85.2620E-12	705.752E-3	283.988E-6
2.43372E-3	84.3409E-12	733.178E-3	-15.2680E-6	84.4691E-12	716.367E-3	-10.6983E-3
2.42871E-3	84.0866E-12	722.057E-3	-17.1732E-3	85.2510E-12	726.841E-3	-16.7800E-3
2.42371E-3	83.7184E-12	723.937E-3	-15.5250E-3	85.1465E-12	723.329E-3	-4.04985E-3
2.41871E-3	83.1293E-12	725.005E-3	-7.92979E-3	84.6514E-12	719.380E-3	12.4941E-3
2.41371E-3	83.2759E-12	722.777E-3	-18.8022E-3	83.6438E-12	712.959E-3	8.62352E-3
2.40870E-3	83.5548E-12	718.373E-3	-30.3989E-3	83.7052E-12	701.489E-3	-14.5527E-3
2.40370E-3	83.2931E-12	690.220E-3	-28.1497E-3	83.5932E-12	699.096E-3	-36.8794E-3
2.39870E-3	82.5627E-12	676.543E-3	-22.7217E-3	83.4737E-12	706.487E-3	-49.2685E-3
2.39370E-3	82.1164E-12	688.696E-3	-12.8703E-3	83.6014E-12	720.755E-3	-43.1919E-3
2.38869E-3	81.8556E-12	687.154E-3	-4.90251E-3	83.1459E-12	717.254E-3	-28.4592E-3
2.38369E-3	81.8603E-12	682.391E-3	-15.9684E-3	83.2471E-12	702.064E-3	-22.5317E-3
2.37869E-3	81.4499E-12	691.336E-3	-29.9914E-3	82.6353E-12	720.066E-3	-28.3026E-3
2.37369E-3	80.7192E-12	703.146E-3	-33.8026E-3	82.9922E-12	749.455E-3	-31.9532E-3
2.36868E-3	80.8521E-12	703.037E-3	-27.2647E-3	81.9654E-12	752.785E-3	-23.9246E-3
2.36368E-3	81.3050E-12	701.564E-3	-30.3849E-3	81.4175E-12	749.176E-3	-16.4609E-3
2.35868E-3	80.7432E-12	707.237E-3	-46.2191E-3	81.1564E-12	739.729E-3	-15.1403E-3
2.35368E-3	80.1934E-12	711.643E-3	-44.1553E-3	81.3660E-12	723.409E-3	-7.96716E-3
2.34867E-3	80.4693E-12	713.873E-3	-39.2748E-3	80.7274E-12	720.582E-3	-4.52189E-3
2.34367E-3	80.6918E-12	728.535E-3	-34.8117E-3	79.9898E-12	728.955E-3	-20.6965E-3
2.33867E-3	80.2505E-12	759.592E-3	-27.6902E-3	80.0882E-12	739.193E-3	-33.7829E-3
2.33367E-3	79.6351E-12	766.763E-3	-32.9443E-3	79.9557E-12	741.105E-3	-36.8576E-3
2.32866E-3	79.0108E-12	734.738E-3	-25.5668E-3	79.5525E-12	741.191E-3	-32.2445E-3
2.32366E-3	79.3668E-12	714.215E-3	-10.9214E-3	78.6699E-12	748.982E-3	-30.2813E-3
2.31866E-3	79.1322E-12	728.701E-3	-9.74242E-3	78.3444E-12	752.718E-3	-44.3562E-3
2.31366E-3	78.5061E-12	746.093E-3	-14.5008E-3	78.4856E-12	747.455E-3	-52.0965E-3
2.30865E-3	77.9680E-12	754.154E-3	-24.9283E-3	78.7495E-12	739.761E-3	-42.0742E-3
2.30365E-3	77.8271E-12	748.404E-3	-28.1202E-3	77.8812E-12	741.714E-3	-31.6505E-3
2.29865E-3	77.8175E-12	728.124E-3	-14.3423E-3	77.3415E-12	746.691E-3	-29.5377E-3
2.29365E-3	77.3587E-12	722.424E-3	-9.37749E-3	77.2837E-12	742.194E-3	-26.5959E-3
2.28864E-3	76.7641E-12	728.340E-3	3.33779E-3	77.3144E-12	727.214E-3	-31.4030E-3
2.28364E-3	76.7718E-12	728.251E-3	15.4741E-3	76.9807E-12	710.833E-3	-34.2832E-3
2.27864E-3	77.5009E-12	733.335E-3	-5.07352E-3	76.2359E-12	715.937E-3	-22.0806E-3
2.27364E-3	78.4193E-12	731.985E-3	-28.6492E-3	76.3748E-12	738.549E-3	-10.8139E-3
2.26863E-3	77.9656E-12	721.776E-3	-30.7390E-3	75.8909E-12	741.734E-3	-1.38887E-3
2.26363E-3	76.9688E-12	724.236E-3	-20.4535E-3	75.5765E-12	721.777E-3	-5.92864E-3
2.25863E-3	76.6833E-12	739.413E-3	-16.5037E-3	75.3198E-12	716.683E-3	-18.3237E-3
2.25363E-3	77.7310E-12	745.519E-3	-7.91704E-3	75.0290E-12	738.304E-3	-20.3261E-3
2.24862E-3	77.8019E-12	732.398E-3	-899.789E-6	74.7450E-12	742.763E-3	-15.7595E-3
2.24362E-3	76.7958E-12	732.912E-3	-7.57606E-3	74.6916E-12	730.625E-3	-18.0172E-3
2.23862E-3	76.0158E-12	762.570E-3	-10.1641E-3	74.3391E-12	732.626E-3	-19.2422E-3
2.23362E-3	75.8327E-12	787.260E-3	-7.48945E-3	73.7285E-12	735.065E-3	-12.7950E-3
2.22861E-3	76.3691E-12	786.527E-3	-5.51657E-3	74.0942E-12	726.715E-3	-15.4067E-3
2.22361E-3	75.2429E-12	770.315E-3	1.53637E-3	74.1923E-12	724.246E-3	-22.8606E-3
2.21861E-3	73.9347E-12	757.856E-3	9.99711E-3	73.6968E-12	739.340E-3	-26.3007E-3
2.21361E-3	73.6949E-12	749.842E-3	-10.0515E-3	72.8077E-12	759.097E-3	-24.6223E-3
2.20860E-3	73.6869E-12	737.722E-3	-39.7345E-3	72.5466E-12	767.147E-3	-17.9899E-3
2.20360E-3	73.3628E-12	728.849E-3	-38.1020E-3	73.2971E-12	754.800E-3	-12.2785E-3
2.19860E-3	72.5854E-12	722.998E-3	-31.0782E-3	73.5502E-12	741.003E-3	-5.82974E-3
2.19360E-3	72.0400E-12	711.414E-3	-27.3338E-3	72.4968E-12	760.910E-3	-200.579E-6
2.18859E-3	72.0845E-12	712.744E-3	-6.44632E-3	72.6536E-12	781.028E-3	-15.9108E-3
2.18359E-3	72.6153E-12	737.086E-3	8.92399E-3	72.8996E-12	770.272E-3	-41.1924E-3
2.17859E-3	72.6054E-12	764.745E-3	1.53196E-3	73.3053E-12	767.747E-3	-39.2987E-3
2.17359E-3	72.0244E-12	775.641E-3	-13.9567E-3	72.6113E-12	780.972E-3	-19.5675E-3
2.16858E-3	72.3216E-12	763.458E-3	-21.7231E-3	71.9765E-12	777.435E-3	-10.7212E-3
2.16358E-3	73.2923E-12	766.698E-3	-16.3891E-3	71.9382E-12	769.031E-3	-7.50752E-3
2.15858E-3	73.1045E-12	786.752E-3	-11.4934E-3	71.9021E-12	772.347E-3	-10.3717E-3
2.15358E-3	71.8444E-12	790.139E-3	-20.2832E-3	71.8785E-12	764.253E-3	-19.8104E-3
2.14857E-3	71.2968E-12	784.432E-3	-29.8051E-3	70.9902E-12	752.072E-3	-29.7414E-3
2.14357E-3	71.8441E-12	776.257E-3	-26.4398E-3	70.3964E-12	756.727E-3	-33.3323E-3
2.13857E-3	71.6582E-12	763.542E-3	-33.0294E-3	69.9957E-12	761.901E-3	-24.6878E-3
2.13357E-3	70.6887E-12	760.888E-3	-41.2248E-3	69.6555E-12	769.808E-3	-8.13049E-3
2.12856E-3	69.5299E-12	771.303E-3	-35.1192E-3	69.2576E-12	776.855E-3	2.69822E-3
2.12356E-3	69.3996E-12	775.934E-3	-22.7053E-3	68.3677E-12	774.061E-3	-7.03495E-3
2.11856E-3	68.7622E-12	769.693E-3	-17.5819E-3	68.5457E-12	785.248E-3	-16.3403E-3
2.11356E-3	68.4007E-12	756.375E-3	-26.2733E-3	68.0115E-12	797.666E-3	-7.88955E-3
2.10855E-3	67.8764E-12	748.435E-3	-31.5878E-3	68.2753E-12	793.229E-3	-11.2020E-3
2.10355E-3	67.9156E-12	752.295E-3	-30.9259E-3	67.8134E-12	789.457E-3	-32.8630E-3
2.09855E-3	67.5782E-12	756.155E-3	-23.9870E-3	68.2106E-12	791.319E-3	-27.5351E-3
2.09355E-3	67.8466E-12	763.787E-3	-16.8297E-3	67.8539E-12	793.403E-3	2.97132E-3
2.08854E-3	67.6251E-12	780.188E-3	-14.3961E-3	68.3266E-12	799.912E-3	13.2836E-3
2.08354E-3	67.1889E-12	792.254E-3	-11.0253E-3	68.3035E-12	794.251E-3	-5.51494E-3
2.07854E-3	67.0810E-12	793.905E-3	-16.7232E-3	68.1187E-12	782.489E-3	-34.3001E-3
2.07354E-3	66.8746E-12	792.683E-3	-20.3655E-3	67.3443E-12	786.609E-3	-48.5762E-3
2.06853E-3	67.0016E-12	789.158E-3	-7.31376E-3	66.8357E-12	796.522E-3	-44.4921E-3
2.06353E-3	66.4071E-12	780.391E-3	-9.89701E-3	67.4332E-12	804.244E-3	-41.1411E-3
2.05853E-3	65.7868E-12	779.445E-3	-17.8214E-3	67.0587E-12	815.620E-3	-43.7086E-3
2.05353E-3	66.0682E-12	789.360E-3	-10.8630E-3	66.4205E-12	810.318E-3	-34.7477E-3
2.04852E-3	65.6566E-12	789.321E-3	-15.7210E-3	65.5586E-12	779.480E-3	-17.3319E-3
2.04352E-3	64.9535E-12	779.302E-3	-22.2627E-3	65.3962E-12	764.859E-3	-5.10556E-3
2.03852E-3	64.3770E-12	763.184E-3	-16.6179E-3	65.4778E-12	771.782E-3	-12.6769E-3
2.03352E-3	64.3467E-12	758.587E-3	-10.8482E-3	64.5694E-12	783.837E-3	-31.3852E-3
2.02851E-3	64.2869E-12	783.073E-3	-18.0125E-3	64.1161E-12	801.935E-3	-30.2059E-3
2.02351E-3	64.2135E-12	795.452E-3	-22.0593E-3	63.7458E-12	811.919E-3	-30.8783E-3
2.01851E-3	63.4180E-12	791.961E-3	-7.76465E-3	63.8435E-12	805.832E-3	-38.0342E-3
2.01351E-3	63.3983E-12	798.828E-3	2.82175E-3	63.4474E-12	811.288E-3	-31.4800E-3
2.00850E-3	63.3375E-12	806.172E-3	1.50839E-3	62.9905E-12	831.486E-3	-21.3989E-3
2.00350E-3	63.0916E-12	821.146E-3	-5.81328E-3	63.2003E-12	842.657E-3	-12.0621E-3
1.99850E-3	62.5927E-12	834.427E-3	-16.1396E-3	62.4649E-12	840.609E-3	-2.62002E-3
1.99350E-3	62.2463E-12	820.642E-3	-23.7042E-3	62.7118E-12	814.789E-3	-4.15382E-3
1.98849E-3	62.1457E-12	800.940E-3	-26.2687E-3	62.4506E-12	788.113E-3	-14.6515E-3
1.98349E-3	62.0117E-12	798.040E-3	-13.4879E-3	61.9562E-12	799.293E-3	-23.0413E-3
1.97849E-3	61.6656E-12	810.417E-3	4.73295E-3	61.4026E-12	829.665E-3	-24.3564E-3
1.97349E-3	61.1768E-12	816.538E-3	-7.12128E-3	61.3418E-12	843.731E-3	-6.98060E-3
1.96848E-3	60.9372E-12	805.350E-3	-40.1404E-3	61.5021E-12	841.777E-3	3.56247E-3
1.96348E-3	60.7524E-12	799.935E-3	-53.9017E-3	60.5762E-12	837.133E-3	-12.9561E-3
1.95848E-3	60.6376E-12	810.158E-3	-38.4370E-3	60.2791E-12	820.660E-3	-24.4094E-3
1.95348E-3	60.0329E-12	828.708E-3	-23.2912E-3	59.9682E-12	799.724E-3	-15.8653E-3
1.94847E-3	59.8251E-12	841.080E-3	-29.6881E-3	59.9464E-12	799.013E-3	-2.16451E-3
1.94347E-3	60.0085E-12	829.830E-3	-39.9415E-3	59.2943E-12	816.338E-3	4.05841E-3
1.93847E-3	59.7197E-12	812.152E-3	-26.2925E-3	58.8988E-12	833.400E-3	5.17204E-3
1.93347E-3	59.0724E-12	814.282E-3	1.22675E-3	58.5640E-12	847.346E-3	586.670E-6
1.92846E-3	58.5950E-12	820.748E-3	3.40216E-3	58.6250E-12	858.620E-3	-17.4300E-3
1.92346E-3	58.5643E-12	818.443E-3	-27.7104E-3	58.7068E-12	854.269E-3	-24.4719E-3
1.91846E-3	58.7377E-12	819.199E-3	-36.1607E-3	58.2755E-12	845.996E-3	-10.2251E-3
1.91346E-3	58.2178E-12	829.551E-3	-13.8585E-3	58.1029E-12	844.095E-3	-8.15272E-3
1.90845E-3	57.7596E-12	846.179E-3	-17.3062E-3	57.4949E-12	841.260E-3	-26.5828E-3
1.90345E-3	57.6806E-12	859.883E-3	-24.0869E-3	57.4608E-12	840.047E-3	-32.2455E-3
1.89845E-3	57.6391E-12	860.644E-3	-21.2771E-3	57.4070E-12	845.750E-3	-20.3928E-3
1.89345E-3	57.1223E-12	858.209E-3	-21.0335E-3	56.6983E-12	852.627E-3	-22.7683E-3
1.88844E-3	56.3968E-12	855.666E-3	-14.6845E-3	56.0867E-12	850.566E-3	-40.0707E-3
1.88344E-3	55.9002E-12	848.389E-3	-16.2999E-3	56.0977E-12	850.704E-3	-45.5699E-3
1.87844E-3	55.9618E-12	856.155E-3	-25.1764E-3	56.3420E-12	854.068E-3	-32.4252E-3
1.87344E-3	55.5464E-12	866.445E-3	-28.2761E-3	56.1211E-12	861.556E-3	-19.2188E-3
1.86843E-3	54.8953E-12	866.262E-3	-28.2878E-3	55.3057E-12	873.419E-3	-20.6011E-3
1.86343E-3	54.7017E-12	857.078E-3	-30.3340E-3	55.1591E-12	873.909E-3	-29.3851E-3
1.85843E-3	54.4315E-12	849.036E-3	-34.6576E-3	55.0876E-12	866.230E-3	-29.8516E-3
1.85343E-3	54.8166E-12	856.068E-3	-29.3403E-3	54.9383E-12	862.719E-3	-20.9214E-3
1.84842E-3	54.3705E-12	863.300E-3	-18.1635E-3	54.3569E-12	864.879E-3	-18.5532E-3
1.84342E-3	54.2066E-12	875.593E-3	-15.0351E-3	54.0789E-12	865.678E-3	-28.9391E-3
1.83842E-3	53.8663E-12	888.010E-3	-9.42364E-3	53.9478E-12	875.102E-3	-39.0103E-3
1.83342E-3	54.0199E-12	890.432E-3	-3.57475E-3	54.1898E-12	888.856E-3	-44.0126E-3
1.82841E-3	53.8547E-12	885.588E-3	-14.5129E-3	54.0260E-12	897.424E-3	-38.0658E-3
1.82341E-3	53.3420E-12	876.683E-3	-25.7599E-3	53.5944E-12	908.589E-3	-16.8811E-3
1.81841E-3	52.7611E-12	878.634E-3	-24.4455E-3	53.1206E-12	910.175E-3	-3.04264E-3
1.81341E-3	52.5484E-12	888.198E-3	-25.5773E-3	52.9912E-12	903.394E-3	560.381E-6
1.80840E-3	52.4294E-12	893.298E-3	-25.2120E-3	52.6756E-12	913.134E-3	2.58610E-3
1.80340E-3	51.7070E-12	889.643E-3	-18.0760E-3	52.4655E-12	933.790E-3	-8.47669E-3
1.79840E-3	50.9217E-12	887.105E-3	-13.3737E-3	52.0006E-12	937.281E-3	-30.4742E-3
1.79340E-3	50.4661E-12	901.925E-3	-9.98738E-3	51.9697E-12	921.465E-3	-39.5920E-3
1.78839E-3	50.4559E-12	912.648E-3	-2.57642E-3	51.7793E-12	907.934E-3	-24.5231E-3
1.78339E-3	49.9408E-12	893.227E-3	-5.12613E-3	51.0079E-12	906.028E-3	-14.1091E-3
1.77839E-3	49.3833E-12	877.043E-3	-16.3233E-3	50.5519E-12	916.680E-3	-22.8776E-3
1.77339E-3	49.2208E-12	886.660E-3	-17.0300E-3	50.2452E-12	935.696E-3	-27.0720E-3
1.76838E-3	49.0216E-12	896.866E-3	-13.5069E-3	50.2216E-12	940.031E-3	-15.1522E-3
1.76338E-3	48.7435E-12	890.184E-3	-26.3445E-3	50.4241E-12	932.171E-3	-5.96630E-3
1.75838E-3	48.3634E-12	886.267E-3	-52.5111E-3	49.8317E-12	936.467E-3	-14.6435E-3
1.75338E-3	48.5962E-12	902.986E-3	-54.7692E-3	49.4512E-12	947.833E-3	-23.2083E-3
1.74837E-3	48.4732E-12	923.204E-3	-27.2091E-3	49.2141E-12	953.792E-3	-22.5616E-3
1.74337E-3	48.4073E-12	923.073E-3	-9.11730E-3	49.0185E-12	955.228E-3	-22.9962E-3
1.73837E-3	48.3768E-12	912.398E-3	-15.1929E-3	48.7356E-12	952.573E-3	-18.6958E-3
1.73337E-3	48.1292E-12	914.614E-3	-13.8793E-3	48.3236E-12	944.844E-3	-6.35287E-3
1.72836E-3	47.6335E-12	926.694E-3	3.34628E-3	48.0028E-12	938.619E-3	1.69104E-3
1.72336E-3	47.3892E-12	941.897E-3	-3.23301E-3	47.5140E-12	936.419E-3	-1.15512E-3
1.71836E-3	47.2470E-12	954.340E-3	-20.0659E-3	46.8830E-12	934.162E-3	-5.42168E-3
1.71336E-3	46.9138E-12	951.027E-3	-18.5541E-3	46.0329E-12	933.824E-3	-4.52981E-3
1.70835E-3	46.2503E-12	949.125E-3	-24.1746E-3	45.5531E-12	932.336E-3	-9.53888E-3
1.70335E-3	45.7101E-12	972.341E-3	-24.5543E-3	45.2561E-12	935.193E-3	-21.9909E-3
1.69835E-3	45.2199E-12	984.304E-3	-1.10552E-3	44.8164E-12	946.549E-3	-18.5722E-3
1.69335E-3	44.8456E-12	966.286E-3	-949.890E-6	44.3258E-12	955.293E-3	-5.63499E-3
1.68834E-3	44.6650E-12	953.552E-3	-21.9812E-3	43.7413E-12	962.363E-3	-4.13334E-3
1.68334E-3	44.3809E-12	961.445E-3	-25.6050E-3	44.0328E-12	966.610E-3	-7.98459E-3
1.67834E-3	43.8467E-12	959.120E-3	-25.5974E-3	43.8352E-12	962.125E-3	-8.73152E-3
1.67334E-3	43.7177E-12	947.734E-3	-27.3622E-3	43.5207E-12	970.332E-3	-13.3253E-3
1.66833E-3	43.4657E-12	956.629E-3	-24.4881E-3	43.3044E-12	992.167E-3	-17.4579E-3
1.66333E-3	43.4929E-12	972.930E-3	-24.1184E-3	43.0667E-12	1.00799E+0	-17.3617E-3
1.65833E-3	43.1986E-12	988.100E-3	-19.7053E-3	42.8827E-12	1.01665E+0	-25.3698E-3
1.65333E-3	43.0720E-12	1.00006E+0	-11.5571E-3	42.7175E-12	1.02098E+0	-31.1417E-3
1.64832E-3	42.8131E-12	1.00611E+0	-17.7427E-3	42.4022E-12	1.02463E+0	-24.0645E-3
1.64332E-3	42.4476E-12	1.00972E+0	-27.7538E-3	41.9660E-12	1.03369E+0	-16.3876E-3
1.63832E-3	42.2563E-12	1.02084E+0	-31.4664E-3	41.7248E-12	1.03179E+0	-24.3628E-3
1.63332E-3	41.7841E-12	1.03258E+0	-30.2996E-3	41.4603E-12	1.02502E+0	-33.4174E-3
1.62831E-3	41.6416E-12	1.02619E+0	-20.8946E-3	40.9690E-12	1.04251E+0	-30.6714E-3
1.62331E-3	41.2757E-12	1.03240E+0	-20.0498E-3	40.4111E-12	1.05110E+0	-26.7319E-3
1.61831E-3	40.8748E-12	1.05341E+0	-27.3628E-3	40.1427E-12	1.04574E+0	-21.9668E-3
1.61331E-3	39.9723E-12	1.04737E+0	-39.2408E-3	39.6933E-12	1.04265E+0	-24.3950E-3
1.60830E-3	39.4650E-12	1.03019E+0	-47.9669E-3	39.1523E-12	1.03722E+0	-35.6745E-3
1.60330E-3	39.2488E-12	1.02592E+0	-33.1821E-3	38.7895E-12	1.04172E+0	-27.1968E-3
1.59830E-3	38.8838E-12	1.02604E+0	-18.1595E-3	38.7578E-12	1.05471E+0	-7.36180E-3
1.59330E-3	38.3631E-12	1.03542E+0	-21.6179E-3	38.2697E-12	1.05831E+0	-8.20931E-3
1.58829E-3	37.7213E-12	1.04747E+0	-22.3191E-3	37.7196E-12	1.05268E+0	-24.4143E-3
1.58329E-3	37.6503E-12	1.04834E+0	-18.2927E-3	37.4937E-12	1.05743E+0	-33.5413E-3
1.57829E-3	37.2761E-12	1.04568E+0	-14.1826E-3	37.4022E-12	1.07615E+0	-30.8176E-3
1.57329E-3	36.8474E-12	1.04627E+0	-7.65497E-3	36.9504E-12	1.10381E+0	-27.6256E-3
1.56828E-3	36.7129E-12	1.04920E+0	-8.00384E-3	36.5220E-12	1.11653E+0	-28.7691E-3
1.56328E-3	36.3046E-12	1.05710E+0	-9.32484E-3	36.4773E-12	1.09594E+0	-21.7692E-3
1.55828E-3	35.9099E-12	1.06302E+0	-5.71788E-3	36.2471E-12	1.08152E+0	-9.02284E-3
1.55328E-3	35.4876E-12	1.05963E+0	-2.02219E-3	35.8655E-12	1.10200E+0	-11.7058E-3
1.54827E-3	35.4821E-12	1.06419E+0	6.38185E-3	35.3308E-12	1.12267E+0	-15.4597E-3
1.54327E-3	35.5570E-12	1.08282E+0	6.99677E-3	35.2177E-12	1.12526E+0	-3.71297E-3
1.53827E-3	34.9905E-12	1.09955E+0	-10.1575E-3	35.0004E-12	1.12950E+0	-3.56077E-3
1.53327E-3	34.1459E-12	1.10498E+0	-15.5311E-3	34.5058E-12	1.14173E+0	-18.3938E-3
1.52826E-3	34.0485E-12	1.10643E+0	1.59066E-3	33.7457E-12	1.15450E+0	-20.6973E-3
1.52326E-3	33.9365E-12	1.11212E+0	11.3683E-3	33.6100E-12	1.16367E+0	-8.31924E-3
1.51826E-3	33.3382E-12	1.12022E+0	-4.33650E-3	33.4245E-12	1.16745E+0	1.50036E-3
1.51326E-3	32.5457E-12	1.12776E+0	-23.5816E-3	32.8828E-12	1.16115E+0	-1.87711E-3
1.50825E-3	32.2152E-12	1.12437E+0	-16.7539E-3	32.2894E-12	1.15309E+0	-19.7353E-3
1.50325E-3	32.1831E-12	1.11419E+0	-1.38669E-3	32.0287E-12	1.15136E+0	-31.6128E-3
1.49825E-3	31.7105E-12	1.12197E+0	-4.69721E-3	32.0099E-12	1.15725E+0	-22.4404E-3
1.49325E-3	31.0097E-12	1.14091E+0	-21.1240E-3	31.7243E-12	1.16825E+0	-13.0625E-3
1.48824E-3	30.6323E-12	1.14675E+0	-32.4511E-3	31.0072E-12	1.17120E+0	-12.5660E-3
1.48324E-3	30.1498E-12	1.13499E+0	-30.2764E-3	30.7736E-12	1.16904E+0	-11.8346E-3
1.47824E-3	29.7856E-12	1.11923E+0	-18.7489E-3	30.5960E-12	1.17706E+0	-10.9434E-3
1.47324E-3	29.5532E-12	1.12068E+0	-8.85627E-3	30.1238E-12	1.18701E+0	-10.0875E-3
1.46823E-3	29.2948E-12	1.13573E+0	-722.700E-6	29.6811E-12	1.17842E+0	-9.90807E-3
1.46323E-3	28.8097E-12	1.14917E+0	-2.84960E-3	29.3801E-12	1.16520E+0	-18.9055E-3
1.45823E-3	28.0967E-12	1.14845E+0	-16.4662E-3	28.8565E-12	1.16816E+0	-38.5866E-3
1.45323E-3	28.1057E-12	1.13236E+0	-14.4022E-3	28.1980E-12	1.17429E+0	-33.2677E-3
1.44822E-3	27.9872E-12	1.13162E+0	-6.27313E-3	27.6787E-12	1.16993E+0	-1.46067E-3
1.44322E-3	27.4051E-12	1.15422E+0	-21.1183E-3	27.6001E-12	1.16448E+0	4.00050E-3
1.43822E-3	26.8389E-12	1.16552E+0	-42.0571E-3	27.1693E-12	1.16866E+0	-10.2932E-3
1.43322E-3	26.6866E-12	1.16193E+0	-40.3237E-3	26.8989E-12	1.17374E+0	-20.7262E-3
1.42821E-3	26.5479E-12	1.16436E+0	-25.2016E-3	26.4167E-12	1.18116E+0	-29.7918E-3
1.42321E-3	26.1875E-12	1.17544E+0	-11.0637E-3	26.0624E-12	1.19673E+0	-32.6537E-3
1.41821E-3	25.6210E-12	1.17874E+0	-7.34357E-3	25.7327E-12	1.19545E+0	-25.7998E-3
1.41321E-3	25.0785E-12	1.17312E+0	-20.6643E-3	25.3107E-12	1.18074E+0	-17.3105E-3
1.40820E-3	24.9853E-12	1.17017E+0	-27.1891E-3	24.8386E-12	1.17957E+0	-24.2120E-3
1.40320E-3	24.7253E-12	1.16396E+0	-17.4981E-3	24.5021E-12	1.17897E+0	-34.0902E-3
1.39820E-3	24.2356E-12	1.16504E+0	-14.3097E-3	24.2715E-12	1.17136E+0	-25.4308E-3
1.39320E-3	23.5754E-12	1.18272E+0	-15.1583E-3	23.7746E-12	1.17003E+0	-10.0077E-3
1.38819E-3	23.1911E-12	1.19349E+0	-9.14573E-3	23.3788E-12	1.16926E+0	-6.24373E-3
1.38319E-3	22.9033E-12	1.19115E+0	-11.8439E-3	22.8736E-12	1.16188E+0	-12.9442E-3
1.37819E-3	22.7001E-12	1.18471E+0	-15.2345E-3	22.4307E-12	1.14756E+0	-14.9909E-3
1.37319E-3	22.0246E-12	1.17953E+0	-10.5879E-3	21.8578E-12	1.13555E+0	-8.82038E-3
1.36818E-3	21.5173E-12	1.17502E+0	-12.6143E-3	21.4293E-12	1.13765E+0	-1.64500E-3
1.36318E-3	21.2459E-12	1.17159E+0	-16.2669E-3	20.9234E-12	1.13892E+0	-72.9979E-6
1.35818E-3	20.8682E-12	1.17008E+0	-17.1465E-3	20.5142E-12	1.13028E+0	-11.2179E-3
1.35318E-3	20.3010E-12	1.16030E+0	-10.4337E-3	20.1120E-12	1.12441E+0	-27.7676E-3
1.34817E-3	19.6989E-12	1.14867E+0	5.96094E-3	19.8814E-12	1.13087E+0	-31.7868E-3
1.34317E-3	19.4713E-12	1.14088E+0	347.534E-6	19.4789E-12	1.13902E+0	-25.7738E-3
1.33817E-3	19.2819E-12	1.13131E+0	-28.4671E-3	18.9271E-12	1.12137E+0	-22.3824E-3
1.33317E-3	19.0217E-12	1.12531E+0	-38.1390E-3	18.7171E-12	1.08495E+0	-20.9553E-3
1.32816E-3	18.5319E-12	1.12647E+0	-22.8890E-3	18.6073E-12	1.06978E+0	-19.2344E-3
1.32316E-3	18.1065E-12	1.12825E+0	-9.72702E-3	18.1798E-12	1.07969E+0	-18.6801E-3
1.31816E-3	17.8812E-12	1.12691E+0	-7.31290E-3	17.5626E-12	1.08242E+0	-13.5979E-3
1.31316E-3	17.5263E-12	1.12219E+0	-5.71639E-3	17.3838E-12	1.06497E+0	-3.16547E-3
1.30815E-3	17.1755E-12	1.10879E+0	-3.21455E-3	17.1215E-12	1.04667E+0	-5.95987E-3
1.30315E-3	16.7804E-12	1.09824E+0	-5.25657E-3	16.8152E-12	1.04623E+0	-16.8917E-3
1.29815E-3	16.5416E-12	1.09163E+0	-6.70407E-3	16.1949E-12	1.03917E+0	-13.8232E-3
1.29315E-3	16.2962E-12	1.08146E+0	-10.5859E-3	15.7647E-12	1.01185E+0	-11.2874E-3
1.28814E-3	15.8560E-12	1.08427E+0	-20.0775E-3	15.6509E-12	1.00354E+0	-19.6857E-3
1.28314E-3	15.3917E-12	1.08455E+0	-18.3872E-3	15.1527E-12	1.01381E+0	-16.0796E-3
1.27814E-3	15.0287E-12	1.06559E+0	-11.8574E-3	14.7022E-12	993.733E-3	-2.03024E-3
1.27314E-3	14.8134E-12	1.04366E+0	-8.78170E-3	14.2992E-12	957.950E-3	-2.21490E-3
1.26813E-3	14.3319E-12	1.03370E+0	236.337E-6	14.1414E-12	953.940E-3	-15.9617E-3
1.26313E-3	13.9033E-12	1.03368E+0	-5.03061E-3	13.7819E-12	959.472E-3	-19.9998E-3
1.25813E-3	13.4209E-12	1.02209E+0	-24.1342E-3	13.2595E-12	945.031E-3	-17.3675E-3
1.25313E-3	13.2452E-12	1.00085E+0	-25.4575E-3	13.0100E-12	925.966E-3	-24.2363E-3
1.24812E-3	12.9100E-12	978.202E-3	-9.73547E-3	12.7062E-12	919.115E-3	-31.2439E-3
1.24312E-3	12.5173E-12	961.585E-3	-1.51276E-3	12.5778E-12	914.811E-3	-26.3547E-3
1.23812E-3	12.2402E-12	960.569E-3	-5.57747E-3	12.2390E-12	900.473E-3	-17.2659E-3
1.23312E-3	12.1003E-12	950.781E-3	-9.62883E-3	12.1072E-12	878.395E-3	-19.5837E-3
1.22811E-3	11.7978E-12	929.588E-3	-15.4592E-3	11.7854E-12	857.194E-3	-24.9584E-3
1.22311E-3	11.5280E-12	913.981E-3	-22.7061E-3	11.4202E-12	856.003E-3	-21.8741E-3
1.21811E-3	11.1664E-12	897.990E-3	-25.0281E-3	11.0853E-12	864.457E-3	-17.0969E-3
1.21311E-3	10.8909E-12	885.818E-3	-28.5205E-3	10.9320E-12	842.441E-3	-16.3764E-3
1.20810E-3	10.7266E-12	878.464E-3	-30.8301E-3	10.7553E-12	805.872E-3	-10.2378E-3
1.20310E-3	10.4549E-12	870.400E-3	-21.7530E-3	10.3390E-12	785.402E-3	5.41573E-3
1.19810E-3	10.2012E-12	859.112E-3	-14.2900E-3	10.0086E-12	769.166E-3	3.51523E-3
1.19310E-3	9.81408E-12	846.413E-3	-13.8194E-3	9.79840E-12	758.080E-3	-16.0272E-3
1.18809E-3	9.52282E-12	827.043E-3	-15.3829E-3	9.48902E-12	757.259E-3	-19.1171E-3
1.18309E-3	9.32843E-12	796.651E-3	-22.2729E-3	9.20939E-12	743.075E-3	-9.45977E-3
1.17809E-3	9.03350E-12	772.940E-3	-25.9403E-3	8.93204E-12	712.708E-3	-9.82115E-3
1.17309E-3	8.65078E-12	761.995E-3	-16.8558E-3	8.76221E-12	692.048E-3	-23.0919E-3
1.16808E-3	8.35559E-12	751.986E-3	-8.25749E-3	8.53917E-12	684.391E-3	-33.2803E-3
1.16308E-3	8.18306E-12	741.050E-3	-11.0053E-3	8.09339E-12	678.150E-3	-23.7728E-3
1.15808E-3	7.93459E-12	730.434E-3	-15.7214E-3	7.86346E-12	669.030E-3	-1.40002E-3
1.15308E-3	7.65025E-12	709.567E-3	-19.0163E-3	7.76276E-12	649.252E-3	5.05983E-3
1.14807E-3	7.36267E-12	684.532E-3	-15.0538E-3	7.54435E-12	630.906E-3	-10.6427E-3
1.14307E-3	7.16662E-12	662.186E-3	-2.08098E-3	7.24044E-12	619.678E-3	-25.4345E-3
1.13807E-3	7.10057E-12	643.280E-3	1.06150E-3	7.06668E-12	591.355E-3	-24.1497E-3
1.13307E-3	6.94733E-12	631.356E-3	-7.38583E-3	6.97029E-12	557.613E-3	-16.4839E-3
1.12806E-3	6.70163E-12	623.448E-3	-9.43118E-3	6.79291E-12	535.742E-3	-21.1047E-3
1.12306E-3	6.39167E-12	609.770E-3	-8.15662E-3	6.46918E-12	523.366E-3	-26.6975E-3
1.11806E-3	6.32245E-12	583.831E-3	-3.97235E-3	6.25815E-12	514.314E-3	-21.4290E-3
1.11306E-3	6.18131E-12	567.854E-3	-761.413E-6	6.19751E-12	502.488E-3	-22.8800E-3
1.10805E-3	6.05976E-12	563.978E-3	-14.3119E-3	6.02998E-12	486.725E-3	-32.9440E-3
1.10305E-3	5.78050E-12	552.690E-3	-29.4022E-3	5.73933E-12	465.433E-3	-35.6061E-3
1.09805E-3	5.57182E-12	542.599E-3	-16.9891E-3	5.60311E-12	448.217E-3	-30.2076E-3
1.09305E-3	5.55797E-12	528.732E-3	5.40081E-3	5.47508E-12	433.610E-3	-20.4267E-3
1.08804E-3	5.40678E-12	504.211E-3	-930.115E-6	5.25008E-12	419.064E-3	-12.4959E-3
1.08304E-3	5.21535E-12	489.910E-3	-13.5300E-3	5.04774E-12	410.511E-3	-13.2711E-3
1.07804E-3	4.95522E-12	476.976E-3	-10.6925E-3	5.00015E-12	396.555E-3	-24.3779E-3
1.07304E-3	4.89279E-12	465.223E-3	-7.84124E-3	4.82935E-12	379.332E-3	-39.1900E-3
1.06803E-3	4.73065E-12	465.186E-3	1.93665E-3	4.56362E-12	367.095E-3	-40.0504E-3
1.06303E-3	4.55138E-12	443.317E-3	10.6076E-3	4.46528E-12	355.457E-3	-19.6275E-3
1.05803E-3	4.41546E-12	400.254E-3	-1.98640E-3	4.39513E-12	345.516E-3	7.59213E-3
1.05303E-3	4.33185E-12	373.172E-3	-16.6992E-3	4.29155E-12	332.607E-3	12.7925E-3
1.04802E-3	4.20979E-12	372.114E-3	-16.4113E-3	4.12516E-12	309.753E-3	-7.58199E-3
1.04302E-3	4.15026E-12	375.159E-3	-7.53934E-3	4.15902E-12	291.359E-3	-23.8816E-3
1.03802E-3	4.01138E-12	366.981E-3	-1.13959E-3	4.06758E-12	281.826E-3	-25.6081E-3
1.03302E-3	3.86706E-12	353.434E-3	-4.89189E-3	3.86433E-12	275.638E-3	-21.8020E-3
1.02801E-3	3.68076E-12	326.143E-3	-11.1590E-3	3.45020E-12	268.200E-3	-10.8761E-3
1.02301E-3	3.38889E-12	297.022E-3	-10.4934E-3	3.27609E-12	250.088E-3	-3.41693E-3
1.01801E-3	3.29937E-12	277.107E-3	-3.71166E-3	3.31484E-12	230.272E-3	-14.4300E-3
1.01301E-3	3.21397E-12	268.209E-3	-7.65048E-3	3.23724E-12	214.943E-3	-26.7650E-3
1.00800E-3	3.17571E-12	274.729E-3	-17.3435E-3	3.04662E-12	210.690E-3	-22.3204E-3
1.00300E-3	3.06206E-12	264.535E-3	-15.1579E-3	2.89974E-12	204.943E-3	-9.04659E-3
997.999E-6	2.91336E-12	233.766E-3	-13.1311E-3	2.91160E-12	184.844E-3	-10.1217E-3
992.997E-6	2.87483E-12	222.447E-3	-16.0613E-3	2.91481E-12	173.678E-3	-17.5965E-3
987.994E-6	2.78415E-12	223.584E-3	-17.8700E-3	2.70282E-12	175.567E-3	-14.9539E-3
982.991E-6	2.78883E-12	214.750E-3	-24.6503E-3	2.64658E-12	175.225E-3	-21.2133E-3
977.989E-6	2.72898E-12	206.766E-3	-30.9872E-3	2.63067E-12	168.705E-3	-31.8382E-3
972.986E-6	2.69819E-12	196.133E-3	-23.8893E-3	2.54343E-12	160.920E-3	-27.6526E-3
967.984E-6	2.58802E-12	177.063E-3	-20.4577E-3	2.49905E-12	152.245E-3	-23.5987E-3
962.981E-6	2.47495E-12	164.124E-3	-27.6820E-3	2.38653E-12	141.126E-3	-24.1954E-3
957.979E-6	2.42715E-12	157.898E-3	-24.5895E-3	2.37976E-12	125.638E-3	-18.3659E-3
952.976E-6	2.44104E-12	151.873E-3	-22.5912E-3	2.34157E-12	108.236E-3	-11.2585E-3
947.974E-6	2.36249E-12	147.253E-3	-25.8873E-3	2.29522E-12	101.641E-3	-5.80958E-3
942.971E-6	2.25303E-12	145.121E-3	-15.2181E-3	2.20608E-12	101.832E-3	-4.22116E-3
937.969E-6	2.24719E-12	148.108E-3	-5.69373E-3	2.18677E-12	102.013E-3	-9.84429E-3
932.966E-6	2.24452E-12	147.707E-3	-13.5814E-3	2.10261E-12	104.301E-3	-10.8042E-3
927.964E-6	2.19737E-12	140.540E-3	-26.8164E-3	2.05966E-12	103.749E-3	-14.2200E-3
922.961E-6	2.09910E-12	130.843E-3	-31.2877E-3	2.03647E-12	97.8136E-3	-31.4282E-3
917.959E-6	2.01665E-12	118.506E-3	-24.4489E-3	2.00181E-12	93.0840E-3	-37.4771E-3
912.956E-6	2.01338E-12	104.798E-3	-11.5896E-3	1.89259E-12	88.1121E-3	-31.1299E-3
907.954E-6	2.01401E-12	92.7117E-3	-3.14757E-3	1.89663E-12	83.0674E-3	-32.7817E-3
902.951E-6	1.94032E-12	89.8167E-3	-10.5280E-3	1.98526E-12	78.0799E-3	-35.1495E-3
897.949E-6	1.93901E-12	93.0738E-3	-17.6336E-3	1.92797E-12	67.2548E-3	-28.5416E-3
892.946E-6	1.88409E-12	87.5657E-3	-11.6524E-3	1.82774E-12	68.9483E-3	-18.5975E-3
887.944E-6	1.82325E-12	84.2052E-3	-7.92173E-3	1.79202E-12	82.1430E-3	-16.9039E-3
882.941E-6	1.82976E-12	93.8074E-3	-9.73810E-3	1.82275E-12	82.1760E-3	-24.9824E-3
877.939E-6	1.81005E-12	92.9761E-3	-4.30144E-3	1.77664E-12	71.5000E-3	-23.4622E-3
872.936E-6	1.76722E-12	83.3345E-3	7.11236E-3	1.71418E-12	70.5188E-3	-10.1258E-3
867.934E-6	1.67792E-12	76.8429E-3	9.90376E-3	1.69329E-12	78.0588E-3	-6.02726E-3
862.931E-6	1.70067E-12	70.4185E-3	2.06158E-3	1.68981E-12	80.1088E-3	-14.1750E-3
857.929E-6	1.73098E-12	61.4985E-3	-6.98439E-3	1.65940E-12	74.0482E-3	-14.2269E-3
852.926E-6	1.63768E-12	56.8308E-3	-12.2855E-3	1.60570E-12	70.4133E-3	-7.90289E-3
847.924E-6	1.56618E-12	59.3118E-3	-22.0384E-3	1.62032E-12	67.7280E-3	-3.87005E-3
842.921E-6	1.55579E-12	59.8110E-3	-27.6733E-3	1.56047E-12	57.1904E-3	-3.00994E-3
837.919E-6	1.64755E-12	53.2436E-3	-23.7673E-3	1.54863E-12	53.9132E-3	-9.58801E-3
832.916E-6	1.60661E-12	47.5817E-3	-18.9617E-3	1.50804E-12	61.6318E-3	-16.5611E-3
827.914E-6	1.53110E-12	46.6111E-3	-10.9965E-3	1.54238E-12	60.5237E-3	-18.6861E-3
822.911E-6	1.46446E-12	37.9617E-3	-3.26952E-3	1.54201E-12	51.6494E-3	-11.8055E-3
817.909E-6	1.49008E-12	37.2062E-3	-10.2594E-3	1.45639E-12	52.3538E-3	-1.16147E-3
812.906E-6	1.47955E-12	52.4984E-3	-27.3078E-3	1.41777E-12	64.4607E-3	-6.71411E-3
807.904E-6	1.45521E-12	59.6610E-3	-32.4248E-3	1.42070E-12	72.4039E-3	-21.9092E-3
802.901E-6	1.37648E-12	53.4305E-3	-22.2488E-3	1.41151E-12	66.5926E-3	-19.4853E-3
797.899E-6	1.42574E-12	41.3541E-3	-17.2237E-3	1.40441E-12	62.7739E-3	-10.8543E-3
792.896E-6	1.38517E-12	29.5318E-3	-20.5107E-3	1.35011E-12	58.7243E-3	-17.9304E-3
787.894E-6	1.35968E-12	35.9000E-3	-21.3527E-3	1.35234E-12	51.0858E-3	-25.0810E-3
782.891E-6	1.33177E-12	57.5726E-3	-24.3030E-3	1.36904E-12	48.7742E-3	-22.7469E-3
777.889E-6	1.35772E-12	57.6714E-3	-22.8084E-3	1.29035E-12	44.5791E-3	-20.0812E-3
772.886E-6	1.33535E-12	39.3636E-3	-20.2524E-3	1.27433E-12	46.6505E-3	-6.90665E-3
767.884E-6	1.30504E-12	31.6358E-3	-22.1083E-3	1.33172E-12	50.4896E-3	3.36395E-3
762.881E-6	1.30648E-12	35.0117E-3	-23.2951E-3	1.30015E-12	37.4013E-3	-3.16674E-3
757.879E-6	1.24130E-12	49.2448E-3	-18.8595E-3	1.26378E-12	28.6695E-3	-9.66083E-3
752.876E-6	1.22931E-12	58.0114E-3	-9.22416E-3	1.20006E-12	36.0928E-3	-15.1633E-3
747.874E-6	1.19726E-12	39.7077E-3	-7.16425E-3	1.26685E-12	35.3374E-3	-21.2469E-3
742.871E-6	1.20132E-12	25.4088E-3	-15.2531E-3	1.24213E-12	37.6626E-3	-21.5069E-3
737.869E-6	1.16339E-12	37.0217E-3	-20.8456E-3	1.16751E-12	46.7998E-3	-16.2924E-3
732.866E-6	1.12345E-12	54.7865E-3	-23.3708E-3	1.15456E-12	44.8609E-3	-15.4841E-3
727.864E-6	1.13513E-12	56.6398E-3	-27.2555E-3	1.15688E-12	42.2188E-3	-20.6580E-3
722.861E-6	1.19682E-12	40.8236E-3	-30.3929E-3	1.15867E-12	37.3386E-3	-29.8775E-3
717.859E-6	1.09933E-12	33.0641E-3	-32.1255E-3	1.10146E-12	29.0313E-3	-34.3789E-3
712.856E-6	1.02757E-12	37.7597E-3	-21.1271E-3	1.07043E-12	30.7702E-3	-33.4913E-3
707.854E-6	1.02384E-12	35.8011E-3	-10.8896E-3	1.11318E-12	37.2119E-3	-37.4902E-3
702.851E-6	1.07465E-12	26.7016E-3	-20.2177E-3	1.04204E-12	39.7215E-3	-32.9231E-3
697.849E-6	1.07816E-12	24.5834E-3	-21.4686E-3	1.00227E-12	43.8098E-3	-18.9604E-3
692.846E-6	1.03583E-12	21.5294E-3	-11.8820E-3	1.03376E-12	48.4222E-3	-12.4930E-3
687.844E-6	991.279E-15	13.9871E-3	-9.55006E-3	1.03228E-12	49.0404E-3	-21.9659E-3
682.841E-6	1.04187E-12	17.8576E-3	-8.98970E-3	993.319E-15	41.7998E-3	-38.8808E-3
677.839E-6	1.01412E-12	31.7998E-3	1.02801E-3	962.967E-15	34.4784E-3	-33.5979E-3
672.836E-6	944.159E-15	43.3894E-3	9.10338E-3	990.101E-15	40.7802E-3	-12.2439E-3
667.834E-6	965.897E-15	44.8341E-3	-4.78684E-3	971.582E-15	43.5725E-3	-670.698E-6
662.831E-6	983.422E-15	43.3346E-3	-18.2663E-3	953.201E-15	36.1433E-3	4.21198E-3
657.829E-6	932.458E-15	48.5214E-3	-16.7190E-3	872.757E-15	38.1597E-3	-305.246E-6
652.826E-6	941.413E-15	57.9086E-3	-14.1629E-3	926.555E-15	47.5194E-3	-11.7264E-3
647.824E-6	915.970E-15	61.0931E-3	-11.2149E-3	928.561E-15	49.5750E-3	-13.7502E-3
642.821E-6	973.657E-15	48.3691E-3	-13.2177E-3	822.307E-15	49.7047E-3	-17.3254E-3
637.819E-6	928.770E-15	39.7511E-3	-22.3369E-3	881.441E-15	46.6596E-3	-30.4834E-3
632.816E-6	852.720E-15	56.4843E-3	-22.4916E-3	876.393E-15	37.4246E-3	-31.9143E-3
627.814E-6	868.851E-15	64.1239E-3	-22.0017E-3	887.519E-15	35.8955E-3	-19.9299E-3
622.811E-6	878.337E-15	39.5092E-3	-29.4780E-3	778.275E-15	42.1277E-3	-4.44281E-3
617.809E-6	853.880E-15	27.4453E-3	-23.1187E-3	807.292E-15	47.0513E-3	4.69587E-3
612.806E-6	824.147E-15	43.4197E-3	-4.70211E-3	837.636E-15	50.2502E-3	-9.19249E-3
607.804E-6	820.990E-15	48.6432E-3	-2.88698E-3	802.976E-15	53.5756E-3	-27.1205E-3
602.801E-6	823.205E-15	43.1502E-3	-16.9404E-3	758.804E-15	54.0540E-3	-28.3098E-3
597.799E-6	772.180E-15	46.7059E-3	-25.9496E-3	764.699E-15	47.1292E-3	-17.7935E-3
592.796E-6	696.662E-15	46.2372E-3	-27.4880E-3	772.956E-15	37.8988E-3	-10.2245E-3
587.794E-6	779.565E-15	38.9858E-3	-21.0020E-3	739.665E-15	37.4846E-3	-16.5058E-3
582.791E-6	804.005E-15	43.7154E-3	-10.4452E-3	689.669E-15	38.5138E-3	-26.8867E-3
577.789E-6	694.996E-15	58.0964E-3	-20.1515E-3	722.026E-15	37.2427E-3	-19.2214E-3
572.786E-6	667.688E-15	67.1610E-3	-38.8365E-3	706.550E-15	43.4426E-3	-6.04967E-3
567.784E-6	671.951E-15	59.2043E-3	-37.8760E-3	634.729E-15	50.6919E-3	-11.7285E-3
562.781E-6	704.396E-15	36.7320E-3	-28.1143E-3	636.202E-15	54.3886E-3	-25.9690E-3
557.779E-6	710.281E-15	20.8696E-3	-17.2024E-3	673.852E-15	57.3230E-3	-34.2297E-3
552.776E-6	652.978E-15	22.0647E-3	-3.79647E-3	619.505E-15	59.9791E-3	-38.2687E-3
547.774E-6	669.135E-15	31.5496E-3	-3.19361E-3	564.416E-15	62.6859E-3	-35.0688E-3
542.771E-6	615.764E-15	34.2901E-3	-13.8488E-3	583.459E-15	57.4770E-3	-19.7287E-3
537.769E-6	612.747E-15	32.3573E-3	-12.9194E-3	605.214E-15	42.3860E-3	-8.11006E-3
532.766E-6	606.740E-15	29.0084E-3	-12.6899E-3	550.178E-15	31.0230E-3	-10.3923E-3
527.764E-6	584.671E-15	34.6675E-3	-27.2125E-3	533.811E-15	31.1074E-3	-13.5630E-3
522.761E-6	553.892E-15	47.4772E-3	-33.1179E-3	512.885E-15	38.8085E-3	-6.84618E-3
517.759E-6	581.924E-15	44.2322E-3	-29.1635E-3	540.830E-15	44.2761E-3	1.12045E-3
512.756E-6	556.447E-15	37.8927E-3	-30.2670E-3	526.121E-15	40.5496E-3	-6.66922E-3
507.754E-6	539.400E-15	34.4652E-3	-26.0293E-3	469.018E-15	36.7156E-3	-19.3629E-3
502.751E-6	474.206E-15	35.6782E-3	-12.0266E-3	452.957E-15	42.3979E-3	-18.4394E-3
497.749E-6	507.828E-15	44.1440E-3	-10.8028E-3	503.765E-15	42.0660E-3	-12.6607E-3
492.746E-6	508.002E-15	40.5532E-3	-17.8725E-3	499.065E-15	36.3417E-3	-11.4320E-3
487.744E-6	480.092E-15	22.4911E-3	-13.8824E-3	428.081E-15	36.8868E-3	-14.3901E-3
482.741E-6	401.923E-15	19.9600E-3	-7.48717E-3	400.493E-15	37.8743E-3	-25.8746E-3
477.739E-6	409.718E-15	45.1774E-3	-10.0664E-3	458.250E-15	37.3129E-3	-35.8202E-3
472.736E-6	456.480E-15	61.6300E-3	-18.8094E-3	434.350E-15	34.0123E-3	-34.6034E-3
467.734E-6	429.084E-15	53.4730E-3	-18.9705E-3	386.411E-15	34.1065E-3	-20.7395E-3
462.731E-6	353.278E-15	33.8229E-3	-10.4893E-3	375.547E-15	36.8289E-3	2.56026E-3
457.729E-6	347.305E-15	20.7092E-3	-7.84919E-3	401.635E-15	35.5575E-3	13.2133E-3
452.726E-6	370.664E-15	31.8217E-3	-10.9388E-3	370.429E-15	41.9003E-3	9.62145E-3
447.724E-6	380.944E-15	46.0979E-3	-11.2297E-3	345.736E-15	49.6274E-3	-266.200E-6
442.721E-6	299.672E-15	44.8472E-3	-10.0980E-3	343.870E-15	38.3380E-3	-10.3541E-3
437.719E-6	273.653E-15	35.7250E-3	-6.93846E-3	352.371E-15	27.8493E-3	-14.4221E-3
432.716E-6	340.993E-15	27.4064E-3	-5.87411E-3	321.862E-15	32.8337E-3	-23.7962E-3
427.714E-6	304.058E-15	24.7150E-3	-14.7705E-3	251.035E-15	33.8730E-3	-30.7783E-3
422.711E-6	329.248E-15	27.4109E-3	-32.3994E-3	255.456E-15	30.6719E-3	-21.4543E-3
417.709E-6	255.866E-15	31.5599E-3	-42.3451E-3	293.097E-15	32.7571E-3	-10.1305E-3
412.706E-6	297.431E-15	33.0344E-3	-30.9285E-3	220.910E-15	28.1759E-3	-1.83355E-3
407.704E-6	267.358E-15	31.4975E-3	-22.1048E-3	214.310E-15	14.5185E-3	-358.425E-6
402.701E-6	250.608E-15	32.2275E-3	-25.1596E-3	248.367E-15	14.9777E-3	-6.28410E-3
397.699E-6	205.756E-15	33.0500E-3	-26.2668E-3	231.312E-15	18.4387E-3	-11.4946E-3
392.696E-6	263.277E-15	30.5154E-3	-19.8903E-3	181.726E-15	21.0937E-3	-14.8357E-3
387.694E-6	218.879E-15	21.0103E-3	-5.06647E-3	176.773E-15	34.1150E-3	-16.1893E-3
382.691E-6	194.142E-15	7.99874E-3	3.33352E-3	224.912E-15	30.7837E-3	-28.4863E-3
377.689E-6	206.802E-15	8.90402E-3	-14.3780E-3	225.558E-15	11.9270E-3	-36.7485E-3
372.686E-6	161.157E-15	21.0568E-3	-32.2676E-3	155.690E-15	1.29094E-3	-21.3921E-3
367.684E-6	172.283E-15	26.6183E-3	-21.6617E-3	137.493E-15	4.40646E-3	-11.7281E-3
362.681E-6	145.462E-15	23.6358E-3	-3.58955E-3	187.812E-15	20.3139E-3	-12.3999E-3
357.679E-6	187.943E-15	25.7011E-3	5.13750E-3	180.505E-15	21.6773E-3	-7.39346E-3
352.676E-6	166.449E-15	26.6473E-3	8.48818E-3	132.496E-15	7.31002E-3	-1.53433E-3
347.674E-6	120.786E-15	18.6648E-3	-544.974E-6	126.227E-15	10.9499E-3	-2.10295E-3
342.671E-6	108.405E-15	13.6017E-3	-16.0236E-3	151.775E-15	21.0050E-3	-9.50108E-3
337.669E-6	139.821E-15	18.9055E-3	-17.1878E-3	55.5748E-15	21.1218E-3	-13.2075E-3
332.666E-6	149.429E-15	27.4496E-3	-12.1898E-3	106.862E-15	14.4164E-3	-16.2756E-3
327.664E-6	105.772E-15	38.7689E-3	-10.8477E-3	79.3610E-15	5.28633E-3	-20.6410E-3
322.661E-6	111.361E-15	46.1170E-3	-12.7623E-3	100.680E-15	2.49620E-3	-24.2121E-3
317.659E-6	74.0074E-15	40.8419E-3	-14.2664E-3	51.5028E-15	3.77851E-3	-30.8586E-3
312.656E-6	114.718E-15	26.9690E-3	-11.6548E-3	13.3123E-15	8.16721E-3	-32.5808E-3
307.654E-6	54.0227E-15	7.72471E-3	-8.66234E-3	67.5987E-15	9.80906E-3	-25.8209E-3
302.651E-6	9.92047E-15	-2.98485E-3	-16.6110E-3	53.3165E-15	7.17765E-3	-22.2078E-3
297.649E-6	62.7595E-15	2.03687E-3	-25.9712E-3	34.9972E-15	9.69219E-3	-25.4578E-3
292.646E-6	27.3155E-15	9.28040E-3	-21.2255E-3	3.31123E-15	13.7237E-3	-29.4849E-3
287.644E-6	21.8746E-15	12.7453E-3	-19.1863E-3	56.2200E-15	16.2662E-3	-34.1877E-3
282.641E-6	36.4708E-15	17.8776E-3	-20.5884E-3	24.7694E-15	14.1940E-3	-38.8466E-3
277.639E-6	33.2010E-15	20.2541E-3	-18.6985E-3	-7.59662E-15	8.11572E-3	-39.3323E-3
272.636E-6	24.2899E-15	14.8412E-3	-15.7480E-3	529.770E-18	1.68256E-3	-38.8210E-3
267.634E-6	3.27636E-15	9.31757E-3	-11.1064E-3	33.0092E-15	-1.89507E-3	-40.3371E-3
262.631E-6	2.07309E-15	5.67005E-3	-5.57418E-3	64.0238E-15	7.60891E-3	-38.9964E-3
257.629E-6	3.74720E-15	6.46606E-3	-2.97399E-3	5.18589E-15	19.1359E-3	-33.8163E-3
252.626E-6	-8.37264E-15	20.5349E-3	-7.85529E-3	-52.6754E-15	24.1430E-3	-27.0811E-3
247.624E-6	-40.7562E-15	24.3861E-3	-13.1439E-3	2.90142E-15	30.4010E-3	-18.8444E-3
242.621E-6	25.8506E-15	10.1862E-3	-10.7513E-3	4.89814E-15	29.0993E-3	-18.9153E-3
237.619E-6	-9.47127E-15	1.15595E-3	-11.0093E-3	-58.7528E-15	10.7791E-3	-27.2407E-3
232.616E-6	-9.28816E-15	4.99408E-3	-16.3048E-3	-79.8710E-15	-4.11619E-3	-36.8984E-3
227.614E-6	-55.8231E-15	10.0747E-3	-14.6304E-3	-29.0810E-15	-1.23448E-3	-34.8169E-3
222.611E-6	3.10197E-15	12.5009E-3	-7.07005E-3	-25.7066E-15	7.77343E-3	-17.7511E-3
217.609E-6	-21.2947E-15	18.7266E-3	-2.62337E-3	-55.2912E-15	16.3005E-3	-7.62930E-3
212.606E-6	-65.6323E-15	25.4114E-3	-4.11598E-3	-21.8178E-15	19.3661E-3	-9.13650E-3
207.604E-6	-96.9870E-15	28.8623E-3	-9.81041E-3	-60.2525E-15	14.0784E-3	-14.8777E-3
202.601E-6	-45.9267E-15	30.3067E-3	-22.3829E-3	-72.5468E-15	9.68421E-3	-28.5125E-3
197.599E-6	-40.1720E-15	30.7906E-3	-33.2053E-3	-89.2704E-15	11.1922E-3	-39.5454E-3
192.596E-6	-80.1761E-15	21.0015E-3	-33.4330E-3	-77.4208E-15	7.48552E-3	-36.5495E-3
187.594E-6	-78.6415E-15	867.877E-6	-29.8252E-3	-55.0645E-15	2.79401E-3	-28.9997E-3
182.591E-6	-92.6971E-15	-14.2771E-3	-22.7879E-3	-108.278E-15	-631.844E-6	-22.2412E-3
177.589E-6	-34.5742E-15	-14.8268E-3	-11.4329E-3	-66.7397E-15	-4.56095E-3	-21.0477E-3
172.586E-6	-123.546E-15	-2.92310E-3	45.4015E-6	-106.552E-15	3.10690E-3	-18.9428E-3
167.584E-6	-128.952E-15	2.75707E-3	-3.60043E-3	-44.4008E-15	10.5908E-3	-8.18920E-3
162.581E-6	-45.0286E-15	-2.91098E-3	-15.0273E-3	-77.0285E-15	5.76168E-3	3.35106E-3
157.579E-6	-72.5642E-15	-8.04691E-3	-15.1529E-3	-109.761E-15	9.97013E-3	5.99439E-3
152.576E-6	-111.173E-15	-6.24240E-3	-12.9844E-3	-91.4938E-15	26.0723E-3	301.025E-6
147.574E-6	-95.5221E-15	8.93602E-3	-15.4908E-3	-48.2548E-15	21.1057E-3	-4.46157E-3
142.571E-6	-75.5985E-15	27.9128E-3	-25.2721E-3	-182.471E-15	955.165E-6	-2.88249E-3
137.569E-6	-107.720E-15	24.5297E-3	-34.8447E-3	-121.139E-15	-1.20299E-3	1.61993E-3
132.566E-6	-112.220E-15	259.661E-6	-26.7306E-3	-99.4720E-15	9.91410E-3	-7.35018E-3
127.564E-6	-130.426E-15	-19.3516E-3	-15.4221E-3	-92.0954E-15	15.6185E-3	-19.1196E-3
122.561E-6	-114.992E-15	-21.3166E-3	-8.68450E-3	-137.950E-15	15.7614E-3	-20.1745E-3
117.559E-6	-115.934E-15	-4.31669E-3	-6.01202E-3	-136.808E-15	14.1884E-3	-14.8215E-3
112.556E-6	-69.2160E-15	15.8636E-3	-17.6823E-3	-112.010E-15	12.8555E-3	-4.08758E-3
107.554E-6	-91.7728E-15	20.0713E-3	-31.6813E-3	-121.078E-15	10.4520E-3	-3.85792E-3
102.551E-6	-128.315E-15	11.8863E-3	-34.3025E-3	-127.077E-15	6.08438E-3	-8.17488E-3
97.5488E-6	-105.567E-15	13.2486E-3	-27.9718E-3	-148.318E-15	3.26385E-3	-8.64281E-3
92.5463E-6	-118.515E-15	17.1035E-3	-29.7651E-3	-125.987E-15	1.14445E-3	-14.6795E-3
87.5438E-6	-93.8131E-15	6.14834E-3	-36.8549E-3	-166.122E-15	-609.079E-6	-13.4052E-3
82.5413E-6	-75.6770E-15	-8.19059E-3	-31.0594E-3	-151.003E-15	-5.70235E-3	-10.2743E-3
77.5388E-6	-144.394E-15	-9.90163E-3	-13.6428E-3	-178.696E-15	-14.4101E-3	-16.6124E-3
72.5363E-6	-184.904E-15	1.79663E-3	-2.80107E-3	-118.951E-15	-16.1756E-3	-15.3376E-3
67.5338E-6	-124.810E-15	8.72691E-3	-4.88397E-3	-152.145E-15	-13.2113E-3	-4.33445E-3
62.5313E-6	-93.4818E-15	7.08831E-3	-9.61087E-3	-176.725E-15	-6.48300E-3	-1.90427E-3
57.5288E-6	-111.967E-15	7.24180E-3	-11.9013E-3	-139.197E-15	-1.25945E-3	-12.9436E-3
52.5263E-6	-145.771E-15	3.95428E-3	-8.84889E-3	-147.480E-15	-144.287E-6	-23.0542E-3
47.5238E-6	-134.358E-15	51.8190E-6	-9.70649E-3	-152.564E-15	-981.698E-6	-22.0347E-3
42.5213E-6	-139.572E-15	9.68067E-3	-20.0438E-3	-198.096E-15	-6.25189E-3	-21.4091E-3
37.5188E-6	-143.313E-15	14.6385E-3	-26.3647E-3	-118.384E-15	-8.60083E-3	-23.8821E-3
32.5163E-6	-161.684E-15	-991.926E-6	-25.9439E-3	-179.219E-15	-5.60458E-3	-22.7737E-3
27.5138E-6	-154.447E-15	-13.0180E-3	-21.9277E-3	-180.936E-15	-4.35993E-3	-30.4255E-3
22.5113E-6	-109.421E-15	-13.5398E-3	-22.2047E-3	-197.346E-15	-9.91035E-3	-33.9086E-3
17.5088E-6	-157.935E-15	-14.9395E-3	-31.6787E-3	-128.115E-15	-7.34120E-3	-21.4944E-3
12.5063E-6	-145.170E-15	-8.64232E-3	-37.4670E-3	-131.149E-15	4.07400E-3	-16.2618E-3
7.50375E-6	-120.887E-15	4.77852E-3	-30.9375E-3	-218.621E-15	42.4368E-6	-19.1212E-3
2.50125E-6	-166.602E-15	5.91465E-3	-20.2225E-3	-188.880E-15	-10.6364E-3	-21.6974E-3
-2.50125E-6	-163.786E-15	-3.18864E-3	-12.4263E-3	-108.174E-15	-6.94433E-3	-18.8471E-3
-7.50375E-6	-190.632E-15	-2.86401E-3	-7.83929E-3	-167.073E-15	5.67065E-3	-2.05531E-3
-12.5063E-6	-152.703E-15	-771.397E-6	-16.5379E-3	-196.535E-15	14.3262E-3	-2.85619E-3
-17.5088E-6	-177.798E-15	-10.5287E-3	-21.6007E-3	-172.548E-15	15.7087E-3	-23.6463E-3
-22.5113E-6	-184.163E-15	-17.9517E-3	-4.04106E-3	-135.334E-15	12.3623E-3	-22.6999E-3
-27.5138E-6	-166.811E-15	-20.1856E-3	3.00407E-3	-152.956E-15	5.09132E-3	-11.9607E-3
-32.5163E-6	-167.012E-15	-18.4691E-3	-6.75720E-3	-205.603E-15	-896.362E-6	-13.7612E-3
-37.5188E-6	-197.215E-15	-6.06605E-3	-17.7150E-3	-173.403E-15	228.306E-6	-14.0960E-3
-42.5213E-6	-180.919E-15	6.83979E-3	-27.5047E-3	-133.774E-15	5.45159E-3	-8.82090E-3
-47.5238E-6	-153.104E-15	9.19360E-3	-21.5358E-3	-163.010E-15	5.16575E-3	-6.86680E-3
-52.5263E-6	-156.566E-15	11.1302E-3	932.626E-6	-213.843E-15	1.37168E-3	-9.55572E-3
-57.5288E-6	-180.963E-15	15.4215E-3	11.9517E-3	-176.097E-15	3.67683E-3	-15.3502E-3
-62.5313E-6	-211.716E-15	8.06992E-3	-3.08925E-3	-178.356E-15	3.08250E-3	-24.1993E-3
-67.5338E-6	-222.283E-15	-4.18471E-3	-19.4184E-3	-201.941E-15	-4.21520E-3	-27.9894E-3
-72.5363E-6	-191.862E-15	-11.8714E-3	-19.5944E-3	-225.850E-15	-4.65462E-3	-24.1556E-3
-77.5388E-6	-212.091E-15	-11.0479E-3	-13.1335E-3	-181.503E-15	-5.64568E-3	-20.5065E-3
-82.5413E-6	-182.619E-15	2.37690E-3	-8.85952E-3	-191.557E-15	-12.7009E-3	-20.3213E-3
-87.5438E-6	-175.129E-15	7.22728E-3	-13.1400E-3	-227.532E-15	-6.53086E-3	-24.5682E-3
-92.5463E-6	-155.345E-15	1.45472E-3	-18.3121E-3	-207.051E-15	10.1114E-3	-23.1939E-3
-97.5488E-6	-227.410E-15	2.29596E-3	-13.8300E-3	-175.086E-15	13.3656E-3	-13.4646E-3
-102.551E-6	-197.486E-15	9.56372E-3	-8.14907E-3	-171.363E-15	256.216E-6	-3.56303E-3
-107.554E-6	-216.293E-15	21.8208E-3	-8.47570E-3	-199.936E-15	-5.72423E-3	272.400E-6
-112.556E-6	-180.535E-15	25.7252E-3	-17.0723E-3	-209.335E-15	4.06031E-3	-8.54074E-3
-117.559E-6	-194.364E-15	5.77001E-3	-26.0628E-3	-166.227E-15	8.06655E-3	-19.2709E-3
-122.561E-6	-186.142E-15	-8.52045E-3	-21.4169E-3	-199.369E-15	5.86280E-3	-24.0323E-3
-127.564E-6	-207.112E-15	-2.26542E-3	-4.20171E-3	-226.774E-15	488.386E-6	-26.1314E-3
-132.566E-6	-191.888E-15	5.10569E-3	1.78426E-3	-206.083E-15	-3.12946E-3	-25.1351E-3
-137.569E-6	-238.929E-15	14.1703E-3	-12.5621E-3	-184.145E-15	7.57458E-3	-25.1104E-3
-142.571E-6	-195.445E-15	16.1669E-3	-26.7076E-3	-214.262E-15	9.68711E-3	-21.6076E-3
-147.574E-6	-208.585E-15	14.7983E-3	-25.2976E-3	-242.076E-15	-2.62122E-3	-17.4280E-3
-152.576E-6	-232.128E-15	18.5670E-3	-17.4462E-3	-247.099E-15	-9.16887E-3	-18.3095E-3
-157.579E-6	-257.239E-15	11.4471E-3	-17.1983E-3	-208.699E-15	-12.8470E-3	-15.2902E-3
-162.581E-6	-137.828E-15	2.69802E-3	-18.9427E-3	-204.644E-15	-10.6933E-3	-8.01447E-3
-167.584E-6	-213.869E-15	3.66741E-3	-17.0630E-3	-257.597E-15	-1.54695E-3	-4.41668E-3
-172.586E-6	-254.493E-15	-1.03657E-3	-8.86820E-3	-239.957E-15	-5.40822E-3	-1.65719E-3
-177.589E-6	-275.480E-15	-5.74370E-3	-6.03703E-3	-184.372E-15	-16.1347E-3	-2.67124E-3
-182.591E-6	-224.716E-15	8.78460E-3	-18.8010E-3	-265.610E-15	-14.9220E-3	-12.3435E-3
-187.594E-6	-215.788E-15	20.4817E-3	-27.0787E-3	-288.960E-15	-8.79734E-3	-24.3622E-3
-192.596E-6	-269.943E-15	7.64015E-3	-26.5302E-3	-248.790E-15	-10.6193E-3	-30.5405E-3
-197.599E-6	-258.216E-15	-5.96503E-3	-22.7099E-3	-242.285E-15	-12.8895E-3	-28.4777E-3
-202.601E-6	-225.640E-15	-6.28348E-3	-12.0333E-3	-244.151E-15	-5.77706E-3	-25.4635E-3
-207.604E-6	-238.205E-15	2.35814E-3	-12.9880E-3	-302.248E-15	-762.940E-6	-20.7076E-3
-212.606E-6	-268.016E-15	13.1491E-3	-34.5101E-3	-256.114E-15	2.22363E-3	-15.9559E-3
-217.609E-6	-289.309E-15	14.6455E-3	-45.4281E-3	-219.833E-15	433.664E-6	-20.7844E-3
-222.611E-6	-214.889E-15	6.77890E-3	-37.9668E-3	-321.309E-15	-8.95229E-3	-24.2468E-3
-227.614E-6	-260.256E-15	496.085E-6	-32.9442E-3	-290.704E-15	-3.85964E-3	-22.4458E-3
-232.616E-6	-275.776E-15	-308.089E-6	-20.2490E-3	-204.548E-15	18.6632E-3	-26.6329E-3
-237.619E-6	-271.330E-15	4.31341E-3	-6.96708E-3	-256.515E-15	29.3988E-3	-27.9554E-3
-242.621E-6	-293.137E-15	12.9504E-3	-21.8099E-3	-298.638E-15	19.7447E-3	-24.1019E-3
-247.624E-6	-273.910E-15	16.4425E-3	-35.2781E-3	-334.893E-15	9.27141E-3	-22.8446E-3
-252.626E-6	-294.314E-15	18.3793E-3	-19.3920E-3	-264.624E-15	5.27613E-3	-25.6725E-3
-257.629E-6	-293.232E-15	21.4383E-3	-5.44833E-3	-270.423E-15	5.36898E-3	-23.2228E-3
-262.631E-6	-290.939E-15	32.2114E-3	-10.1638E-3	-336.689E-15	10.3002E-3	-10.9777E-3
-267.634E-6	-306.277E-15	40.2991E-3	-17.1589E-3	-345.208E-15	15.0266E-3	-11.4117E-3
-272.636E-6	-314.002E-15	24.2532E-3	-18.8391E-3	-302.641E-15	15.4358E-3	-25.5976E-3
-277.639E-6	-313.557E-15	6.04678E-3	-22.4092E-3	-328.397E-15	7.64512E-3	-28.1841E-3
-282.641E-6	-291.236E-15	424.430E-6	-27.2088E-3	-327.560E-15	4.23035E-3	-17.0944E-3
-287.644E-6	-366.318E-15	-843.166E-6	-27.0462E-3	-349.760E-15	17.3705E-3	-5.10089E-3
-292.646E-6	-333.629E-15	2.22904E-3	-13.2704E-3	-348.801E-15	20.9200E-3	-4.47901E-3
-297.649E-6	-286.335E-15	8.67326E-3	1.08673E-3	-356.352E-15	3.77809E-3	-16.2727E-3
-302.651E-6	-333.472E-15	15.3500E-3	3.39164E-3	-420.761E-15	-9.18498E-3	-16.8520E-3
-307.654E-6	-346.307E-15	20.9550E-3	3.27464E-3	-350.466E-15	-6.69407E-3	-12.1701E-3
-312.656E-6	-380.748E-15	22.1968E-3	-8.10995E-3	-372.604E-15	6.73706E-3	-20.1552E-3
-317.659E-6	-363.876E-15	20.8489E-3	-19.5355E-3	-379.606E-15	19.2940E-3	-18.6984E-3
-322.661E-6	-342.357E-15	22.1723E-3	-14.5863E-3	-402.895E-15	19.0245E-3	-11.2168E-3
-327.664E-6	-384.733E-15	19.3051E-3	-4.16454E-3	-367.024E-15	12.2831E-3	-17.5389E-3
-332.666E-6	-402.599E-15	14.2535E-3	-1.20123E-3	-372.500E-15	9.34257E-3	-20.0356E-3
-337.669E-6	-410.594E-15	27.0189E-3	-12.9231E-3	-430.806E-15	13.4414E-3	-10.3307E-3
-342.671E-6	-385.064E-15	38.5837E-3	-22.0673E-3	-460.251E-15	15.9766E-3	-6.70649E-3
-347.674E-6	-437.554E-15	25.1388E-3	-24.8287E-3	-379.318E-15	15.3873E-3	-11.9848E-3
-352.676E-6	-409.330E-15	11.5950E-3	-28.0785E-3	-416.358E-15	15.6849E-3	-14.0175E-3
-357.679E-6	-411.841E-15	14.1286E-3	-26.0579E-3	-489.347E-15	12.3363E-3	-13.0032E-3
-362.681E-6	-450.529E-15	23.9380E-3	-20.1461E-3	-489.103E-15	8.06989E-3	-4.93953E-3
-367.684E-6	-489.347E-15	36.4868E-3	-13.0407E-3	-426.507E-15	4.69815E-3	11.2767E-3
-372.686E-6	-460.321E-15	47.0897E-3	-6.73773E-3	-457.400E-15	3.49169E-3	11.8277E-3
-377.689E-6	-462.718E-15	39.5026E-3	-11.1642E-3	-494.648E-15	8.52866E-3	-4.56741E-3
-382.691E-6	-487.507E-15	18.9978E-3	-22.3246E-3	-525.367E-15	15.9908E-3	-17.4167E-3
-387.694E-6	-513.595E-15	18.7435E-3	-17.0079E-3	-468.961E-15	11.7562E-3	-19.7685E-3
-392.696E-6	-511.067E-15	29.2377E-3	1.56214E-3	-476.041E-15	5.81474E-3	-16.2588E-3
-397.699E-6	-496.759E-15	21.0863E-3	12.9335E-3	-511.982E-15	12.1869E-3	-16.9409E-3
-402.701E-6	-527.564E-15	7.91400E-3	14.5946E-3	-593.116E-15	23.4503E-3	-11.4285E-3
-407.704E-6	-543.756E-15	11.4638E-3	2.83769E-3	-529.282E-15	35.2155E-3	-2.84611E-3
-412.706E-6	-510.613E-15	22.8957E-3	-13.3494E-3	-564.760E-15	32.2236E-3	-5.88967E-3
-417.709E-6	-545.377E-15	32.5676E-3	-19.2204E-3	-591.084E-15	15.2518E-3	-12.8774E-3
-422.711E-6	-622.290E-15	38.1083E-3	-27.5754E-3	-608.505E-15	14.4220E-3	-22.9110E-3
-427.714E-6	-625.656E-15	38.5099E-3	-33.0944E-3	-598.984E-15	29.8391E-3	-25.2271E-3
-432.716E-6	-572.451E-15	36.2774E-3	-24.0512E-3	-594.153E-15	34.8747E-3	-16.1000E-3
-437.719E-6	-565.292E-15	30.4202E-3	-14.9332E-3	-605.793E-15	36.7360E-3	-15.6252E-3
-442.721E-6	-637.183E-15	26.7402E-3	-12.5977E-3	-613.144E-15	49.3284E-3	-22.4736E-3
-447.724E-6	-649.983E-15	30.3411E-3	-9.28158E-3	-652.015E-15	46.4928E-3	-16.2179E-3
-452.726E-6	-646.460E-15	29.6585E-3	-6.19562E-3	-635.579E-15	30.6678E-3	-7.26721E-3
-457.729E-6	-638.456E-15	25.4881E-3	-9.20752E-3	-632.152E-15	31.4737E-3	-11.8526E-3
-462.731E-6	-675.347E-15	34.5827E-3	-23.7143E-3	-641.002E-15	36.4768E-3	-18.3559E-3
-467.734E-6	-715.883E-15	41.8981E-3	-38.7591E-3	-688.496E-15	29.8759E-3	-16.9979E-3
-472.736E-6	-724.629E-15	38.4616E-3	-36.9448E-3	-717.052E-15	34.1803E-3	-15.5295E-3
-477.739E-6	-663.637E-15	37.6819E-3	-20.4056E-3	-708.751E-15	49.7243E-3	-20.5284E-3
-482.741E-6	-748.040E-15	35.4874E-3	-1.82287E-3	-718.037E-15	53.3608E-3	-22.4108E-3
-487.744E-6	-761.311E-15	24.0674E-3	-2.00100E-3	-728.369E-15	45.2455E-3	-15.2845E-3
-492.746E-6	-761.267E-15	16.2098E-3	-13.4583E-3	-796.956E-15	39.5037E-3	-7.63858E-3
-497.749E-6	-755.269E-15	22.0660E-3	-6.99388E-3	-779.587E-15	37.8351E-3	-4.23791E-3
-502.751E-6	-782.604E-15	32.7210E-3	-3.06578E-3	-742.800E-15	33.8768E-3	-4.98653E-3
-507.754E-6	-797.810E-15	46.5747E-3	-11.9031E-3	-762.907E-15	28.6926E-3	-14.0691E-3
-512.756E-6	-809.119E-15	51.8493E-3	-13.6842E-3	-839.654E-15	25.0366E-3	-15.5951E-3
-517.759E-6	-839.872E-15	40.6188E-3	-18.1927E-3	-855.506E-15	29.1052E-3	-7.99897E-3
-522.761E-6	-837.570E-15	39.0790E-3	-25.2868E-3	-784.740E-15	40.7944E-3	-12.9317E-3
-527.764E-6	-834.797E-15	51.9699E-3	-21.4844E-3	-824.648E-15	46.7054E-3	-25.5307E-3
-532.766E-6	-874.182E-15	53.0183E-3	-15.7594E-3	-874.052E-15	43.5127E-3	-39.7840E-3
-537.769E-6	-896.059E-15	46.6689E-3	-16.6264E-3	-830.045E-15	38.3941E-3	-41.1702E-3
-542.771E-6	-887.209E-15	44.6656E-3	-22.1523E-3	-865.289E-15	35.9623E-3	-17.8384E-3
-547.774E-6	-871.889E-15	41.1729E-3	-33.0474E-3	-894.839E-15	37.0036E-3	-1.24589E-3
-552.776E-6	-834.858E-15	32.3207E-3	-31.0882E-3	-962.736E-15	43.6800E-3	-6.48494E-3
-557.779E-6	-914.928E-15	28.1268E-3	-12.6225E-3	-915.442E-15	51.5305E-3	-18.9361E-3
-562.781E-6	-960.076E-15	33.7873E-3	-1.37860E-3	-932.785E-15	51.3689E-3	-24.3643E-3
-567.784E-6	-965.491E-15	29.7785E-3	-7.16870E-3	-947.111E-15	43.9577E-3	-24.8145E-3
-572.786E-6	-918.520E-15	26.0266E-3	-18.2363E-3	-988.981E-15	35.0276E-3	-31.3821E-3
-577.789E-6	-1.01905E-12	42.7226E-3	-23.4120E-3	-973.469E-15	30.1686E-3	-31.5321E-3
-582.791E-6	-1.01058E-12	55.4684E-3	-21.4988E-3	-984.874E-15	27.5301E-3	-21.5801E-3
-587.794E-6	-1.03306E-12	50.2918E-3	-12.6708E-3	-997.194E-15	30.2270E-3	-19.6174E-3
-592.796E-6	-980.959E-15	44.3346E-3	-8.64119E-3	-1.05798E-12	48.7817E-3	-13.5271E-3
-597.799E-6	-1.05581E-12	48.3643E-3	-10.0864E-3	-1.05310E-12	66.0927E-3	-5.38089E-3
-602.801E-6	-1.04709E-12	49.8967E-3	-15.1729E-3	-1.04964E-12	68.5906E-3	-10.9977E-3
-607.804E-6	-1.06188E-12	37.2206E-3	-16.3822E-3	-1.09897E-12	68.5205E-3	-15.0281E-3
-612.806E-6	-1.08986E-12	32.3289E-3	-10.8361E-3	-1.12374E-12	63.7766E-3	-16.5726E-3
-617.809E-6	-1.13077E-12	41.0541E-3	-4.15755E-3	-1.08788E-12	48.6678E-3	-27.3641E-3
-622.811E-6	-1.12113E-12	44.9629E-3	-2.60435E-3	-1.10108E-12	33.6568E-3	-35.6860E-3
-627.814E-6	-1.11441E-12	35.1385E-3	-9.40369E-3	-1.17742E-12	39.2497E-3	-25.9628E-3
-632.816E-6	-1.13066E-12	24.3678E-3	-12.1504E-3	-1.17336E-12	57.1758E-3	-16.7058E-3
-637.819E-6	-1.16989E-12	24.8448E-3	-18.7839E-3	-1.12043E-12	58.4392E-3	-13.0027E-3
-642.821E-6	-1.16889E-12	28.2852E-3	-27.4999E-3	-1.16819E-12	44.7293E-3	-11.6013E-3
-647.824E-6	-1.15801E-12	26.8322E-3	-26.8890E-3	-1.19024E-12	37.8668E-3	-20.2567E-3
-652.826E-6	-1.22298E-12	23.8686E-3	-16.5057E-3	-1.16465E-12	38.8314E-3	-25.5430E-3
-657.829E-6	-1.19372E-12	27.3649E-3	-3.14028E-3	-1.15773E-12	36.3032E-3	-23.5438E-3
-662.831E-6	-1.15115E-12	39.8153E-3	-4.80541E-3	-1.21730E-12	30.6590E-3	-24.0478E-3
-667.834E-6	-1.16337E-12	46.9403E-3	-11.8268E-3	-1.28613E-12	27.0848E-3	-31.7096E-3
-672.836E-6	-1.23329E-12	37.3526E-3	-8.73936E-3	-1.23836E-12	29.1714E-3	-40.2411E-3
-677.839E-6	-1.28241E-12	30.9512E-3	-7.93411E-3	-1.24215E-12	34.2154E-3	-33.2687E-3
-682.841E-6	-1.20542E-12	34.2568E-3	-13.3021E-3	-1.32390E-12	32.2653E-3	-16.6737E-3
-687.844E-6	-1.20858E-12	33.5305E-3	-14.5746E-3	-1.33912E-12	26.7313E-3	-8.50457E-3
-692.846E-6	-1.25357E-12	27.8252E-3	-15.7224E-3	-1.32165E-12	31.8712E-3	-14.7499E-3
-697.849E-6	-1.29441E-12	24.5140E-3	-18.0590E-3	-1.32751E-12	37.4064E-3	-26.5923E-3
-702.851E-6	-1.25468E-12	29.7472E-3	-21.0778E-3	-1.35911E-12	24.4752E-3	-25.6327E-3
-707.854E-6	-1.29226E-12	38.1649E-3	-27.3020E-3	-1.39774E-12	12.4783E-3	-22.2475E-3
-712.856E-6	-1.33619E-12	38.9720E-3	-24.5436E-3	-1.37443E-12	20.2644E-3	-26.9695E-3
-717.859E-6	-1.33396E-12	39.3154E-3	-19.3555E-3	-1.34918E-12	30.1334E-3	-27.9733E-3
-722.861E-6	-1.28573E-12	48.4335E-3	-25.5657E-3	-1.46887E-12	29.9258E-3	-29.5871E-3
-727.864E-6	-1.31708E-12	44.8686E-3	-25.9678E-3	-1.45726E-12	28.8452E-3	-30.0421E-3
-732.866E-6	-1.34579E-12	34.7839E-3	-17.1762E-3	-1.40901E-12	30.4343E-3	-21.5010E-3
-737.869E-6	-1.41040E-12	39.2144E-3	-12.1081E-3	-1.38231E-12	22.5676E-3	-13.5889E-3
-742.871E-6	-1.39313E-12	39.2976E-3	-6.35286E-3	-1.45133E-12	8.79117E-3	-15.2141E-3
-747.874E-6	-1.38844E-12	23.7641E-3	-7.11387E-3	-1.47416E-12	14.2133E-3	-15.7726E-3
-752.876E-6	-1.45552E-12	14.8512E-3	-9.35427E-3	-1.46129E-12	35.7525E-3	-10.7572E-3
-757.879E-6	-1.47095E-12	18.4093E-3	-6.17454E-3	-1.42489E-12	39.1848E-3	-8.05430E-3
-762.881E-6	-1.43862E-12	25.1064E-3	-4.51743E-3	-1.51500E-12	29.2935E-3	-5.81240E-3
-767.884E-6	-1.44689E-12	35.0107E-3	-19.3656E-6	-1.56531E-12	28.2318E-3	-9.89706E-3
-772.886E-6	-1.53497E-12	45.6587E-3	1.56147E-3	-1.55611E-12	32.7750E-3	-14.1354E-3
-777.889E-6	-1.54013E-12	49.0079E-3	-12.3211E-3	-1.55973E-12	42.1618E-3	-14.0108E-3
-782.891E-6	-1.49265E-12	32.1701E-3	-33.5692E-3	-1.53075E-12	50.7797E-3	-28.8631E-3
-787.894E-6	-1.54877E-12	17.3275E-3	-36.8598E-3	-1.55619E-12	47.7959E-3	-40.0892E-3
-792.896E-6	-1.56141E-12	20.8165E-3	-20.7633E-3	-1.57708E-12	38.2525E-3	-30.9942E-3
-797.899E-6	-1.53177E-12	31.5609E-3	-5.62789E-3	-1.61073E-12	39.5548E-3	-25.6001E-3
-802.901E-6	-1.57814E-12	41.3227E-3	-3.97854E-3	-1.59237E-12	47.2658E-3	-24.2275E-3
-807.904E-6	-1.62422E-12	37.6949E-3	-2.86443E-3	-1.56350E-12	50.6352E-3	-21.2629E-3
-812.906E-6	-1.61841E-12	32.9844E-3	-4.34092E-3	-1.61375E-12	51.6561E-3	-23.0838E-3
-817.909E-6	-1.63982E-12	41.8246E-3	-20.1544E-3	-1.67120E-12	52.6770E-3	-26.7947E-3
-822.911E-6	-1.61360E-12	46.5159E-3	-29.9557E-3	-1.70385E-12	55.7208E-3	-26.4762E-3
-827.914E-6	-1.70300E-12	36.7191E-3	-30.9295E-3	-1.65273E-12	52.0694E-3	-19.2850E-3
-832.916E-6	-1.66430E-12	24.3816E-3	-31.2528E-3	-1.62088E-12	43.6305E-3	-19.7535E-3
-837.919E-6	-1.67890E-12	19.5471E-3	-19.6778E-3	-1.74577E-12	41.5732E-3	-32.2211E-3
-842.921E-6	-1.63867E-12	25.1074E-3	-6.15807E-3	-1.75590E-12	47.5842E-3	-34.5336E-3
-847.924E-6	-1.72628E-12	43.7616E-3	-463.875E-6	-1.64863E-12	55.8271E-3	-20.1956E-3
-852.926E-6	-1.79839E-12	58.4636E-3	-2.89579E-3	-1.66780E-12	45.1010E-3	-9.04870E-3
-857.929E-6	-1.78403E-12	53.1897E-3	-11.4616E-3	-1.82215E-12	31.8158E-3	-10.2924E-3
-862.931E-6	-1.79167E-12	42.0057E-3	-11.9726E-3	-1.80177E-12	39.1564E-3	-18.9771E-3
-867.934E-6	-1.76839E-12	42.4218E-3	-7.42581E-3	-1.75187E-12	47.0785E-3	-23.5234E-3
-872.936E-6	-1.86878E-12	50.8159E-3	-7.26355E-3	-1.80156E-12	49.7451E-3	-14.3695E-3
-877.939E-6	-1.88788E-12	53.6649E-3	-11.1640E-3	-1.90728E-12	58.0620E-3	-7.98031E-3
-882.941E-6	-1.88944E-12	45.3470E-3	-11.9125E-3	-1.91063E-12	70.1696E-3	-10.2290E-3
-887.944E-6	-1.86831E-12	40.6999E-3	-11.4765E-3	-1.83713E-12	66.1629E-3	-11.7019E-3
-892.946E-6	-1.92384E-12	51.8279E-3	-17.5512E-3	-1.91488E-12	57.0708E-3	-14.0386E-3
-897.949E-6	-1.93764E-12	70.4867E-3	-25.2915E-3	-1.92791E-12	66.4158E-3	-15.4939E-3
-902.951E-6	-1.94860E-12	79.3096E-3	-33.0986E-3	-1.99310E-12	72.9543E-3	-8.80007E-3
-907.954E-6	-1.94278E-12	70.7032E-3	-35.2567E-3	-1.97716E-12	70.2275E-3	-999.320E-6
-912.956E-6	-1.96394E-12	55.2198E-3	-22.6049E-3	-2.00773E-12	74.3257E-3	-2.13607E-3
-917.959E-6	-2.04223E-12	50.3694E-3	-10.6649E-3	-1.97135E-12	79.4644E-3	-11.3871E-3
-922.961E-6	-2.13314E-12	69.9441E-3	-15.3977E-3	-2.01391E-12	80.8338E-3	-17.9613E-3
-927.964E-6	-2.09169E-12	86.2958E-3	-18.6844E-3	-2.10394E-12	81.8694E-3	-24.2284E-3
-932.966E-6	-2.06105E-12	72.5013E-3	-15.2653E-3	-2.10031E-12	88.0707E-3	-31.8599E-3
-937.969E-6	-2.14289E-12	63.2651E-3	-8.50753E-3	-2.12640E-12	102.150E-3	-24.3806E-3
-942.971E-6	-2.25968E-12	77.8503E-3	-3.84943E-3	-2.17583E-12	110.422E-3	-8.43820E-3
-947.974E-6	-2.19036E-12	92.4810E-3	-5.60058E-3	-2.15943E-12	108.791E-3	7.51256E-3
-952.976E-6	-2.19214E-12	101.673E-3	2.17820E-3	-2.22717E-12	118.277E-3	18.3907E-3
-957.979E-6	-2.23114E-12	105.854E-3	8.51661E-3	-2.32747E-12	134.137E-3	7.50147E-3
-962.981E-6	-2.31356E-12	96.1757E-3	2.88184E-3	-2.35532E-12	130.081E-3	-7.91587E-3
-967.984E-6	-2.35655E-12	92.4381E-3	-3.78028E-3	-2.34804E-12	121.759E-3	-8.44507E-3
-972.986E-6	-2.33014E-12	116.364E-3	-5.32504E-3	-2.40105E-12	125.255E-3	-13.0244E-3
-977.989E-6	-2.35194E-12	133.907E-3	-6.51595E-3	-2.48835E-12	120.624E-3	-15.7487E-3
-982.991E-6	-2.44668E-12	128.098E-3	-11.0588E-3	-2.45095E-12	116.259E-3	-9.31322E-3
-987.994E-6	-2.52994E-12	117.456E-3	-10.9604E-3	-2.55570E-12	132.565E-3	-14.2725E-3
-992.997E-6	-2.51484E-12	110.974E-3	-9.83758E-3	-2.63410E-12	149.745E-3	-18.2852E-3
-997.999E-6	-2.54668E-12	123.433E-3	-12.2864E-3	-2.66644E-12	156.668E-3	-18.3854E-3
-1.00300E-3	-2.62130E-12	152.182E-3	-18.4554E-3	-2.66526E-12	159.684E-3	-20.6984E-3
-1.00800E-3	-2.69544E-12	164.612E-3	-30.7206E-3	-2.72202E-12	165.886E-3	-21.0825E-3
-1.01301E-3	-2.78481E-12	160.239E-3	-32.1982E-3	-2.89321E-12	180.587E-3	-25.1618E-3
-1.01801E-3	-2.82456E-12	171.587E-3	-20.7005E-3	-2.86042E-12	189.132E-3	-20.7175E-3
-1.02301E-3	-2.92116E-12	187.677E-3	-18.6040E-3	-2.87144E-12	193.425E-3	-8.54963E-3
-1.02801E-3	-2.99716E-12	181.650E-3	-14.8402E-3	-2.95948E-12	207.108E-3	-4.83668E-3
-1.03302E-3	-3.02128E-12	163.675E-3	-7.63095E-3	-3.06275E-12	215.833E-3	-7.45606E-3
-1.03802E-3	-3.14981E-12	152.538E-3	-11.3393E-3	-3.11619E-12	219.174E-3	-10.3676E-3
-1.04302E-3	-3.20797E-12	157.378E-3	-8.28289E-3	-3.18535E-12	231.247E-3	-2.86490E-3
-1.04802E-3	-3.27892E-12	180.972E-3	114.031E-6	-3.23471E-12	239.519E-3	6.53644E-3
-1.05303E-3	-3.33263E-12	207.420E-3	-4.73839E-3	-3.39297E-12	242.288E-3	2.76829E-3
-1.05803E-3	-3.39026E-12	212.154E-3	-20.9263E-3	-3.44951E-12	251.077E-3	-2.29653E-3
-1.06303E-3	-3.44216E-12	211.875E-3	-28.4320E-3	-3.46452E-12	263.437E-3	-7.24053E-3
-1.06803E-3	-3.52252E-12	226.721E-3	-25.7986E-3	-3.55047E-12	279.116E-3	-12.5589E-3
-1.07304E-3	-3.74095E-12	251.532E-3	-25.6069E-3	-3.72222E-12	300.383E-3	-11.0068E-3
-1.07804E-3	-3.75944E-12	273.466E-3	-23.5016E-3	-3.76575E-12	319.357E-3	-12.6233E-3
-1.08304E-3	-3.74762E-12	279.082E-3	-13.8883E-3	-3.85715E-12	328.763E-3	-12.6430E-3
-1.08804E-3	-3.82922E-12	278.731E-3	-9.20268E-3	-3.96805E-12	334.277E-3	-7.97359E-3
-1.09305E-3	-4.03959E-12	279.618E-3	-15.2174E-3	-4.08273E-12	334.335E-3	-15.1800E-3
-1.09805E-3	-4.26465E-12	271.747E-3	-19.7202E-3	-4.16118E-12	337.954E-3	-17.7030E-3
-1.10305E-3	-4.18445E-12	277.166E-3	-23.0443E-3	-4.25856E-12	361.114E-3	-3.38542E-3
-1.10805E-3	-4.34262E-12	307.881E-3	-23.6141E-3	-4.48570E-12	381.659E-3	-4.18113E-3
-1.11306E-3	-4.53271E-12	333.659E-3	-19.2766E-3	-4.58590E-12	386.433E-3	-26.8451E-3
-1.11806E-3	-4.77085E-12	346.711E-3	-16.6251E-3	-4.63627E-12	405.747E-3	-36.4357E-3
-1.12306E-3	-4.84979E-12	365.764E-3	-14.7836E-3	-4.83268E-12	445.927E-3	-20.5971E-3
-1.12806E-3	-4.96947E-12	391.968E-3	-14.0906E-3	-4.96807E-12	463.354E-3	-11.7326E-3
-1.13307E-3	-5.14640E-12	402.870E-3	-7.16262E-3	-5.06684E-12	461.306E-3	-18.6617E-3
-1.13807E-3	-5.29046E-12	404.894E-3	-572.902E-6	-5.16928E-12	471.448E-3	-24.1578E-3
-1.14307E-3	-5.43284E-12	412.492E-3	-11.3461E-3	-5.35377E-12	483.835E-3	-26.2350E-3
-1.14807E-3	-5.52013E-12	428.995E-3	-15.0464E-3	-5.56898E-12	495.652E-3	-17.0049E-3
-1.15308E-3	-5.60897E-12	457.789E-3	-7.66605E-3	-5.63428E-12	514.141E-3	-5.84168E-3
-1.15808E-3	-5.75637E-12	477.256E-3	-15.9060E-3	-5.75507E-12	528.910E-3	-14.3147E-3
-1.16308E-3	-5.97204E-12	473.731E-3	-22.7375E-3	-5.92781E-12	537.567E-3	-27.5003E-3
-1.16808E-3	-6.25394E-12	468.335E-3	-17.6485E-3	-6.22111E-12	556.647E-3	-29.4776E-3
-1.17309E-3	-6.38631E-12	487.671E-3	-18.6038E-3	-6.29760E-12	586.481E-3	-32.0489E-3
-1.17809E-3	-6.53992E-12	516.149E-3	-25.2688E-3	-6.43837E-12	608.995E-3	-28.0852E-3
-1.18309E-3	-6.70279E-12	531.825E-3	-34.1305E-3	-6.65844E-12	620.862E-3	-12.3595E-3
-1.18809E-3	-6.99735E-12	550.579E-3	-29.5466E-3	-7.00788E-12	632.850E-3	-12.7564E-3
-1.19310E-3	-7.19870E-12	567.575E-3	-10.7534E-3	-7.17039E-12	648.402E-3	-21.8263E-3
-1.19810E-3	-7.30310E-12	577.435E-3	-3.18008E-3	-7.27827E-12	665.479E-3	-17.4577E-3
-1.20310E-3	-7.55900E-12	598.524E-3	-4.02950E-3	-7.55033E-12	686.771E-3	-11.5593E-3
-1.20810E-3	-7.92083E-12	618.285E-3	-5.65816E-3	-7.82369E-12	710.139E-3	-19.8907E-3
-1.21311E-3	-8.21212E-12	633.110E-3	-13.6269E-3	-8.13451E-12	728.090E-3	-30.2217E-3
-1.21811E-3	-8.33307E-12	652.884E-3	-16.7795E-3	-8.22259E-12	739.903E-3	-25.0354E-3
-1.22311E-3	-8.57506E-12	672.777E-3	-16.1794E-3	-8.52530E-12	752.214E-3	-10.8792E-3
-1.22811E-3	-8.75778E-12	702.385E-3	-26.7708E-3	-8.83251E-12	772.976E-3	-4.65765E-3
-1.23312E-3	-9.17968E-12	730.686E-3	-29.6185E-3	-9.03902E-12	789.309E-3	-18.0289E-3
-1.23812E-3	-9.37665E-12	742.128E-3	-17.6864E-3	-9.26795E-12	793.781E-3	-34.2984E-3
-1.24312E-3	-9.50029E-12	750.796E-3	-11.2820E-3	-9.49868E-12	812.051E-3	-28.5655E-3
-1.24812E-3	-9.71984E-12	763.984E-3	-6.62274E-3	-9.70425E-12	842.931E-3	-15.6460E-3
-1.25313E-3	-9.98146E-12	782.810E-3	4.97328E-3	-9.98047E-12	860.105E-3	-9.80333E-3
-1.25813E-3	-10.3615E-12	807.908E-3	6.64193E-3	-10.2287E-12	864.625E-3	-12.1169E-3
-1.26313E-3	-10.5974E-12	828.740E-3	-12.4811E-3	-10.5677E-12	871.551E-3	-23.2107E-3
-1.26813E-3	-10.8459E-12	841.147E-3	-26.4893E-3	-10.8955E-12	890.462E-3	-22.7446E-3
-1.27314E-3	-11.0096E-12	851.659E-3	-23.8996E-3	-11.0849E-12	912.801E-3	-5.29824E-3
-1.27814E-3	-11.3566E-12	866.893E-3	-25.0021E-3	-11.4837E-12	936.588E-3	3.62049E-3
-1.28314E-3	-11.7687E-12	884.109E-3	-24.1247E-3	-11.8592E-12	956.238E-3	-6.86680E-3
-1.28814E-3	-12.0670E-12	892.642E-3	-23.9268E-3	-12.1313E-12	956.230E-3	-22.3171E-3
-1.29315E-3	-12.2101E-12	894.799E-3	-29.2124E-3	-12.3242E-12	963.854E-3	-35.1281E-3
-1.29815E-3	-12.3674E-12	897.737E-3	-20.2366E-3	-12.7220E-12	989.630E-3	-36.4032E-3
-1.30315E-3	-12.8529E-12	907.976E-3	-4.87084E-3	-13.2266E-12	1.01677E+0	-27.9787E-3
-1.30815E-3	-13.1836E-12	921.236E-3	-2.70521E-3	-13.4850E-12	1.03925E+0	-19.9820E-3
-1.31316E-3	-13.4970E-12	932.105E-3	-11.8786E-3	-13.7196E-12	1.04228E+0	-15.6873E-3
-1.31816E-3	-13.7159E-12	956.245E-3	-18.9180E-3	-14.0483E-12	1.03889E+0	-19.2115E-3
-1.32316E-3	-14.1675E-12	981.993E-3	-11.5597E-3	-14.5204E-12	1.04937E+0	-20.8338E-3
-1.32816E-3	-14.5445E-12	991.827E-3	-1.49752E-3	-14.8421E-12	1.05450E+0	-19.9294E-3
-1.33317E-3	-14.7644E-12	1.01049E+0	-7.48417E-3	-15.0814E-12	1.04766E+0	-23.4016E-3
-1.33817E-3	-15.1826E-12	1.03537E+0	-18.6839E-3	-15.3974E-12	1.05508E+0	-22.4114E-3
-1.34317E-3	-15.5798E-12	1.03875E+0	-20.2597E-3	-15.7883E-12	1.07745E+0	-19.5511E-3
-1.34817E-3	-16.0292E-12	1.03006E+0	-13.3250E-3	-15.9103E-12	1.08554E+0	-17.2108E-3
-1.35318E-3	-16.0401E-12	1.03988E+0	832.947E-6	-16.1255E-12	1.08692E+0	-9.85372E-3
-1.35818E-3	-16.6067E-12	1.06481E+0	3.90280E-3	-16.7152E-12	1.10630E+0	-9.08956E-3
-1.36318E-3	-17.3421E-12	1.07566E+0	-7.07198E-3	-17.2329E-12	1.12966E+0	-21.6693E-3
-1.36818E-3	-17.5757E-12	1.07975E+0	-11.3418E-3	-17.3560E-12	1.14145E+0	-27.4692E-3
-1.37319E-3	-17.9345E-12	1.08947E+0	-10.1215E-3	-17.7678E-12	1.14823E+0	-17.3133E-3
-1.37819E-3	-18.0672E-12	1.10848E+0	-6.86115E-3	-18.3763E-12	1.16274E+0	-7.44319E-3
-1.38319E-3	-18.5622E-12	1.13132E+0	-5.48660E-3	-18.9137E-12	1.16955E+0	-2.56842E-3
-1.38819E-3	-18.8580E-12	1.14155E+0	-15.5404E-3	-19.0940E-12	1.15738E+0	-10.1627E-3
-1.39320E-3	-19.2792E-12	1.13964E+0	-28.9424E-3	-19.4008E-12	1.15094E+0	-27.6507E-3
-1.39820E-3	-19.5283E-12	1.14453E+0	-32.4891E-3	-19.9288E-12	1.15122E+0	-34.0524E-3
-1.40320E-3	-19.8010E-12	1.15810E+0	-15.5116E-3	-20.3518E-12	1.14720E+0	-37.0926E-3
-1.40820E-3	-20.1442E-12	1.15795E+0	3.38973E-3	-20.7553E-12	1.15335E+0	-45.3304E-3
-1.41321E-3	-20.4970E-12	1.14967E+0	-9.94942E-3	-20.8949E-12	1.17613E+0	-48.7935E-3
-1.41821E-3	-20.9791E-12	1.13853E+0	-30.2944E-3	-21.4928E-12	1.18706E+0	-38.1997E-3
-1.42321E-3	-21.4964E-12	1.12983E+0	-32.8118E-3	-21.8303E-12	1.18126E+0	-15.7361E-3
-1.42821E-3	-21.8883E-12	1.14024E+0	-30.8388E-3	-22.1569E-12	1.19244E+0	-8.40616E-3
-1.43322E-3	-22.3558E-12	1.15693E+0	-23.1187E-3	-22.3448E-12	1.20032E+0	-20.8561E-3
-1.43822E-3	-22.9682E-12	1.17710E+0	-15.1956E-3	-22.9308E-12	1.18650E+0	-19.7396E-3
-1.44322E-3	-23.5011E-12	1.18799E+0	-11.5920E-3	-23.3649E-12	1.18415E+0	-8.62477E-3
-1.44822E-3	-23.9346E-12	1.17607E+0	-9.09763E-3	-23.4956E-12	1.19240E+0	-11.9123E-3
-1.45323E-3	-24.4067E-12	1.16320E+0	-14.8396E-3	-23.7268E-12	1.19357E+0	-20.3001E-3
-1.45823E-3	-24.8828E-12	1.17153E+0	-23.0149E-3	-24.3439E-12	1.18058E+0	-25.0286E-3
-1.46323E-3	-25.1687E-12	1.20476E+0	-19.7068E-3	-25.0450E-12	1.16220E+0	-27.8534E-3
-1.46823E-3	-25.5761E-12	1.22570E+0	-21.8939E-3	-25.2041E-12	1.16153E+0	-25.0427E-3
-1.47324E-3	-25.9434E-12	1.21238E+0	-28.9094E-3	-25.5453E-12	1.17823E+0	-23.0810E-3
-1.47824E-3	-26.1970E-12	1.20145E+0	-11.7574E-3	-25.9692E-12	1.18582E+0	-24.7756E-3
-1.48324E-3	-26.4610E-12	1.20366E+0	5.38894E-3	-26.5643E-12	1.17025E+0	-17.5277E-3
-1.48824E-3	-26.5750E-12	1.20379E+0	-1.62253E-3	-26.8262E-12	1.14863E+0	-5.68468E-3
-1.49325E-3	-26.9524E-12	1.19376E+0	-8.64131E-3	-27.0371E-12	1.14429E+0	-4.80171E-3
-1.49825E-3	-27.3530E-12	1.16559E+0	-7.31435E-3	-27.5154E-12	1.15735E+0	-17.2369E-3
-1.50325E-3	-27.6716E-12	1.15062E+0	-14.5519E-3	-27.9954E-12	1.16505E+0	-32.0081E-3
-1.50825E-3	-28.0552E-12	1.16333E+0	-15.6075E-3	-28.5214E-12	1.16254E+0	-29.3173E-3
-1.51326E-3	-28.6583E-12	1.16812E+0	-7.14216E-3	-28.6985E-12	1.15540E+0	-16.2654E-3
-1.51826E-3	-28.9579E-12	1.15298E+0	-12.0435E-3	-29.1968E-12	1.15642E+0	-5.87095E-3
-1.52326E-3	-29.1857E-12	1.14232E+0	-25.3705E-3	-29.5623E-12	1.16521E+0	-2.49840E-3
-1.52826E-3	-29.9067E-12	1.13839E+0	-24.6907E-3	-30.1143E-12	1.16052E+0	-12.8665E-3
-1.53327E-3	-30.4836E-12	1.13905E+0	-15.8701E-3	-30.5204E-12	1.15287E+0	-15.8947E-3
-1.53827E-3	-31.0032E-12	1.15639E+0	-22.0448E-3	-30.7901E-12	1.15374E+0	-8.20418E-3
-1.54327E-3	-31.3210E-12	1.17404E+0	-31.2491E-3	-30.9352E-12	1.14933E+0	-12.8227E-3
-1.54827E-3	-31.7339E-12	1.17632E+0	-29.2074E-3	-31.5142E-12	1.13162E+0	-22.3475E-3
-1.55328E-3	-32.3321E-12	1.17099E+0	-25.1851E-3	-32.2738E-12	1.11936E+0	-27.5179E-3
-1.55828E-3	-32.7781E-12	1.16397E+0	-25.0092E-3	-32.6379E-12	1.12608E+0	-30.2466E-3
-1.56328E-3	-32.8372E-12	1.15735E+0	-27.3707E-3	-32.6729E-12	1.12736E+0	-15.8693E-3
-1.56828E-3	-33.1582E-12	1.15657E+0	-30.7527E-3	-33.0441E-12	1.11796E+0	-4.94153E-3
-1.57329E-3	-33.6982E-12	1.14028E+0	-23.7382E-3	-33.7447E-12	1.11283E+0	-19.7990E-3
-1.57829E-3	-33.9942E-12	1.11138E+0	-15.5073E-3	-34.1386E-12	1.11051E+0	-24.1888E-3
-1.58329E-3	-33.9887E-12	1.10800E+0	-15.5850E-3	-34.0365E-12	1.11713E+0	-12.2512E-3
-1.58829E-3	-33.9399E-12	1.11650E+0	-16.3614E-3	-34.2004E-12	1.11849E+0	-11.2945E-3
-1.59330E-3	-34.4326E-12	1.10687E+0	-24.2639E-3	-35.2822E-12	1.10175E+0	-17.7791E-3
-1.59830E-3	-34.8607E-12	1.09264E+0	-27.1783E-3	-35.9148E-12	1.08071E+0	-13.1590E-3
-1.60330E-3	-35.0752E-12	1.08260E+0	-16.5113E-3	-35.7458E-12	1.07203E+0	-7.59378E-3
-1.60830E-3	-35.2347E-12	1.06849E+0	-14.4979E-3	-35.6668E-12	1.07997E+0	-5.21061E-3
-1.61331E-3	-35.6159E-12	1.06316E+0	-24.3771E-3	-36.1506E-12	1.07322E+0	5.05277E-3
-1.61831E-3	-36.0570E-12	1.07129E+0	-22.6345E-3	-37.0772E-12	1.06113E+0	2.37479E-3
-1.62331E-3	-36.7400E-12	1.07352E+0	-18.4684E-3	-37.6061E-12	1.06905E+0	-13.9410E-3
-1.62831E-3	-36.8812E-12	1.06330E+0	-24.6469E-3	-37.3868E-12	1.07820E+0	-23.7001E-3
-1.63332E-3	-37.2307E-12	1.05234E+0	-27.4939E-3	-37.8840E-12	1.07918E+0	-28.1539E-3
-1.63832E-3	-37.7723E-12	1.05653E+0	-28.0993E-3	-38.4290E-12	1.06498E+0	-28.1998E-3
-1.64332E-3	-38.6118E-12	1.06077E+0	-34.5118E-3	-38.8745E-12	1.04416E+0	-25.7215E-3
-1.64832E-3	-38.8771E-12	1.04475E+0	-44.7042E-3	-38.9939E-12	1.03777E+0	-13.4919E-3
-1.65333E-3	-39.5105E-12	1.03348E+0	-39.4073E-3	-39.2226E-12	1.03998E+0	8.66159E-3
-1.65833E-3	-39.9929E-12	1.04337E+0	-24.1677E-3	-39.5193E-12	1.03494E+0	18.7180E-3
-1.66333E-3	-40.2867E-12	1.05807E+0	-19.3016E-3	-40.0833E-12	1.02588E+0	10.2439E-3
-1.66833E-3	-40.6156E-12	1.05754E+0	-21.4181E-3	-40.5774E-12	1.01427E+0	-3.38546E-3
-1.67334E-3	-40.6670E-12	1.04314E+0	-20.1483E-3	-40.5092E-12	1.00638E+0	-9.14163E-3
-1.67834E-3	-41.0694E-12	1.03577E+0	-17.3560E-3	-40.5856E-12	1.00722E+0	-9.11864E-3
-1.68334E-3	-41.1581E-12	1.03308E+0	-22.4126E-3	-40.9488E-12	1.00019E+0	-15.3561E-3
-1.68834E-3	-41.1140E-12	1.02736E+0	-27.3079E-3	-41.8647E-12	998.703E-3	-16.6894E-3
-1.69335E-3	-41.6087E-12	1.01604E+0	-18.8521E-3	-42.4882E-12	1.01185E+0	-11.5614E-3
-1.69835E-3	-41.8274E-12	1.00660E+0	-8.43113E-3	-42.3693E-12	1.02490E+0	-8.39844E-3
-1.70335E-3	-42.2070E-12	1.00788E+0	-7.26330E-3	-42.7127E-12	1.02974E+0	-13.9302E-3
-1.70835E-3	-42.3120E-12	1.00024E+0	-8.23195E-3	-43.2809E-12	1.01514E+0	-27.4065E-3
-1.71336E-3	-42.5905E-12	987.134E-3	-14.9521E-3	-44.3141E-12	985.073E-3	-25.9300E-3
-1.71836E-3	-42.7575E-12	982.270E-3	-26.2062E-3	-44.0398E-12	970.983E-3	-16.8007E-3
-1.72336E-3	-43.2227E-12	972.309E-3	-23.1927E-3	-44.2437E-12	978.287E-3	-17.1900E-3
-1.72836E-3	-43.6006E-12	953.983E-3	-8.42292E-3	-44.5601E-12	978.859E-3	-24.1129E-3
-1.73337E-3	-43.8268E-12	938.065E-3	-3.48159E-3	-44.9473E-12	968.779E-3	-33.6851E-3
-1.73837E-3	-44.2985E-12	947.169E-3	-10.5657E-3	-45.2591E-12	963.018E-3	-38.3828E-3
-1.74337E-3	-44.7431E-12	971.790E-3	-12.8293E-3	-45.3029E-12	964.316E-3	-29.6892E-3
-1.74837E-3	-45.6906E-12	972.196E-3	-12.5275E-3	-45.3959E-12	961.948E-3	-17.1284E-3
-1.75338E-3	-46.1925E-12	961.066E-3	-20.1188E-3	-45.8811E-12	948.515E-3	-17.7788E-3
-1.75838E-3	-46.1545E-12	963.609E-3	-19.9138E-3	-46.4964E-12	936.964E-3	-27.2808E-3
-1.76338E-3	-46.6225E-12	966.056E-3	-14.6557E-3	-46.5431E-12	940.480E-3	-27.7596E-3
-1.76838E-3	-47.5728E-12	960.261E-3	-13.5234E-3	-46.7969E-12	955.664E-3	-18.1903E-3
-1.77339E-3	-48.0244E-12	962.381E-3	-9.47884E-3	-46.7632E-12	962.471E-3	-19.9423E-3
-1.77839E-3	-47.7247E-12	973.728E-3	-18.5002E-3	-47.1544E-12	944.639E-3	-28.7751E-3
-1.78339E-3	-48.1691E-12	974.956E-3	-33.3061E-3	-47.5240E-12	923.698E-3	-22.1352E-3
-1.78839E-3	-48.5431E-12	962.861E-3	-35.0441E-3	-47.9109E-12	915.162E-3	-21.3708E-3
-1.79340E-3	-48.5673E-12	947.576E-3	-32.3905E-3	-48.1957E-12	914.129E-3	-23.1026E-3
-1.79840E-3	-48.2063E-12	940.618E-3	-29.7465E-3	-48.6292E-12	917.615E-3	-13.0210E-3
-1.80340E-3	-48.2777E-12	927.507E-3	-29.2593E-3	-49.1642E-12	918.650E-3	-14.3296E-3
-1.80840E-3	-48.3960E-12	905.407E-3	-19.7827E-3	-49.2754E-12	923.458E-3	-16.7499E-3
-1.81341E-3	-48.8016E-12	897.663E-3	-1.30802E-3	-49.7760E-12	943.423E-3	-13.5388E-3
-1.81841E-3	-48.5179E-12	893.566E-3	-5.93601E-3	-50.0292E-12	951.538E-3	-11.9094E-3
-1.82341E-3	-48.8789E-12	886.153E-3	-34.7885E-3	-50.4884E-12	926.347E-3	-4.65273E-3
-1.82841E-3	-49.9914E-12	889.455E-3	-42.3091E-3	-50.3211E-12	900.814E-3	-618.077E-6
-1.83342E-3	-50.7155E-12	900.690E-3	-24.9946E-3	-51.1245E-12	900.900E-3	-5.18578E-3
-1.83842E-3	-50.4313E-12	910.388E-3	-26.1621E-3	-51.0871E-12	900.373E-3	-9.21940E-3
-1.84342E-3	-50.7149E-12	908.040E-3	-39.7530E-3	-51.2935E-12	886.102E-3	-5.55292E-3
-1.84842E-3	-51.3979E-12	896.875E-3	-32.9378E-3	-51.3361E-12	877.258E-3	-4.94531E-3
-1.85343E-3	-52.6326E-12	891.155E-3	-18.9905E-3	-51.4335E-12	878.467E-3	-16.6636E-3
-1.85843E-3	-53.0230E-12	883.969E-3	-18.2539E-3	-51.6104E-12	875.917E-3	-19.9646E-3
-1.86343E-3	-53.1110E-12	887.456E-3	-18.9413E-3	-51.6486E-12	866.941E-3	-15.2852E-3
-1.86843E-3	-53.2050E-12	899.203E-3	-14.8609E-3	-52.0181E-12	863.497E-3	-13.3996E-3
-1.87344E-3	-54.0321E-12	891.797E-3	-20.1847E-3	-52.1721E-12	861.557E-3	-8.52948E-3
-1.87844E-3	-54.5705E-12	880.088E-3	-19.6889E-3	-52.8381E-12	859.974E-3	-13.0738E-3
-1.88344E-3	-54.1970E-12	883.005E-3	-6.35736E-3	-53.0938E-12	861.416E-3	-23.7622E-3
-1.88844E-3	-53.8085E-12	882.201E-3	-9.64784E-3	-53.3954E-12	868.324E-3	-20.2212E-3
-1.89345E-3	-53.9688E-12	877.551E-3	-19.2198E-3	-53.8631E-12	870.564E-3	-12.0396E-3
-1.89845E-3	-54.4725E-12	875.789E-3	-17.1926E-3	-54.5703E-12	861.985E-3	-12.1746E-3
-1.90345E-3	-54.7528E-12	873.175E-3	-20.3273E-3	-54.8799E-12	864.912E-3	-12.3593E-3
-1.90845E-3	-54.1724E-12	869.253E-3	-20.7235E-3	-55.1009E-12	881.225E-3	-16.2156E-3
-1.91346E-3	-54.5639E-12	859.032E-3	-14.1925E-3	-55.2607E-12	877.177E-3	-17.8830E-3
-1.91846E-3	-54.6861E-12	848.076E-3	-19.5871E-3	-55.9843E-12	853.459E-3	-697.257E-6
-1.92346E-3	-55.6034E-12	844.158E-3	-26.5805E-3	-56.7002E-12	849.176E-3	14.0346E-3
-1.92846E-3	-55.4960E-12	849.999E-3	-20.0887E-3	-56.7354E-12	857.430E-3	2.95721E-3
-1.93347E-3	-55.0366E-12	847.563E-3	-6.34208E-3	-56.4779E-12	849.674E-3	-22.7994E-3
-1.93847E-3	-55.2229E-12	836.857E-3	-2.06889E-3	-56.7051E-12	828.530E-3	-24.3895E-3
-1.94347E-3	-56.1959E-12	833.639E-3	-7.50167E-3	-57.6831E-12	820.466E-3	-11.6985E-3
-1.94847E-3	-56.7794E-12	831.355E-3	-19.6706E-3	-57.7710E-12	831.075E-3	-8.79683E-3
-1.95348E-3	-56.9279E-12	832.805E-3	-30.9526E-3	-57.6688E-12	840.650E-3	-8.93547E-3
-1.95848E-3	-56.8997E-12	826.560E-3	-27.6916E-3	-57.9320E-12	845.230E-3	-14.0879E-3
-1.96348E-3	-57.8854E-12	810.947E-3	-18.5826E-3	-58.6049E-12	847.247E-3	-9.91003E-3
-1.96848E-3	-58.5792E-12	817.853E-3	-19.7950E-3	-59.1224E-12	844.258E-3	1.73456E-3
-1.97349E-3	-59.2663E-12	844.663E-3	-20.6659E-3	-59.3993E-12	850.336E-3	2.27999E-3
-1.97849E-3	-59.2088E-12	847.452E-3	-11.3744E-3	-59.1389E-12	858.431E-3	2.81328E-3
-1.98349E-3	-59.5245E-12	822.331E-3	-3.50868E-3	-59.4073E-12	847.234E-3	403.232E-6
-1.98849E-3	-60.1362E-12	814.285E-3	8.81526E-3	-59.9766E-12	836.320E-3	-12.5831E-3
-1.99350E-3	-61.2506E-12	823.800E-3	13.9431E-3	-60.3666E-12	842.820E-3	-10.8499E-3
-1.99850E-3	-60.8761E-12	836.908E-3	-7.19892E-3	-60.5802E-12	844.173E-3	-5.09242E-3
-2.00350E-3	-60.7541E-12	845.175E-3	-25.9561E-3	-60.6879E-12	828.549E-3	-15.4638E-3
-2.00850E-3	-60.6702E-12	830.617E-3	-22.4123E-3	-60.7644E-12	821.305E-3	-17.2516E-3
-2.01351E-3	-61.5330E-12	813.158E-3	-8.95794E-3	-60.8954E-12	821.764E-3	-15.2802E-3
-2.01851E-3	-61.4095E-12	806.241E-3	875.279E-6	-61.3572E-12	813.465E-3	-15.4217E-3
-2.02351E-3	-61.4533E-12	808.607E-3	-12.3849E-3	-61.4328E-12	805.526E-3	-97.6910E-6
-2.02851E-3	-60.9506E-12	814.247E-3	-32.9305E-3	-62.1876E-12	796.181E-3	4.04682E-3
-2.03352E-3	-61.0428E-12	815.216E-3	-30.4292E-3	-62.4235E-12	796.052E-3	-13.4020E-3
-2.03852E-3	-61.6567E-12	807.687E-3	-19.2851E-3	-62.6161E-12	815.857E-3	-15.7147E-3
-2.04352E-3	-62.0208E-12	797.935E-3	-18.8116E-3	-62.8951E-12	831.161E-3	-9.69826E-3
-2.04852E-3	-62.5615E-12	797.690E-3	-21.6702E-3	-63.2501E-12	827.395E-3	-13.9529E-3
-2.05353E-3	-62.3967E-12	802.140E-3	-15.9767E-3	-63.6697E-12	802.730E-3	-15.0027E-3
-2.05853E-3	-63.2629E-12	818.855E-3	-1.83796E-3	-63.8801E-12	789.133E-3	-14.8560E-3
-2.06353E-3	-63.6816E-12	839.000E-3	8.75552E-3	-63.9020E-12	804.871E-3	-14.8417E-3
-2.06853E-3	-64.6403E-12	835.653E-3	4.95781E-3	-64.3124E-12	807.987E-3	-15.2369E-3
-2.07354E-3	-64.7091E-12	822.703E-3	-1.75659E-3	-64.6169E-12	796.833E-3	-15.0434E-3
-2.07854E-3	-65.4234E-12	818.199E-3	-5.10746E-3	-65.0320E-12	791.425E-3	-4.64813E-3
-2.08354E-3	-66.2980E-12	811.186E-3	-7.68170E-3	-64.8051E-12	775.693E-3	3.20203E-3
-2.08854E-3	-66.4417E-12	802.341E-3	-13.2214E-3	-64.5424E-12	773.278E-3	-9.45925E-3
-2.09355E-3	-66.6112E-12	806.755E-3	-15.3574E-3	-64.7316E-12	803.014E-3	-25.3409E-3
-2.09855E-3	-66.5440E-12	812.825E-3	-4.75258E-3	-65.2817E-12	810.177E-3	-29.6411E-3
-2.10355E-3	-67.1128E-12	817.540E-3	-2.86736E-3	-65.5773E-12	785.676E-3	-32.6038E-3
-2.10855E-3	-67.3116E-12	826.637E-3	-13.1501E-3	-65.8350E-12	775.835E-3	-28.5635E-3
-2.11356E-3	-67.5438E-12	823.889E-3	-31.8734E-3	-66.0926E-12	785.671E-3	-22.5649E-3
-2.11856E-3	-66.9119E-12	809.766E-3	-42.5159E-3	-66.6216E-12	787.903E-3	-27.2559E-3
-2.12356E-3	-66.6589E-12	795.637E-3	-20.3724E-3	-67.5020E-12	782.398E-3	-39.7919E-3
-2.12856E-3	-67.0068E-12	781.050E-3	-13.3356E-3	-67.8979E-12	779.093E-3	-50.0586E-3
-2.13357E-3	-66.9840E-12	775.056E-3	-31.1524E-3	-68.1749E-12	782.919E-3	-40.0235E-3
-2.13857E-3	-66.6618E-12	777.992E-3	-32.6809E-3	-68.8239E-12	793.450E-3	-28.6629E-3
-2.14357E-3	-66.1556E-12	777.961E-3	-23.7439E-3	-68.8084E-12	787.510E-3	-40.4822E-3
-2.14857E-3	-66.8133E-12	776.981E-3	-25.0843E-3	-69.0735E-12	778.646E-3	-34.3643E-3
-2.15358E-3	-67.9798E-12	776.451E-3	-35.5442E-3	-68.7433E-12	788.244E-3	-1.71953E-3
-2.15858E-3	-67.8886E-12	763.565E-3	-42.7164E-3	-68.8789E-12	783.321E-3	3.50333E-3
-2.16358E-3	-68.1257E-12	752.509E-3	-41.2659E-3	-69.3847E-12	765.802E-3	-20.3207E-3
-2.16858E-3	-69.6267E-12	753.653E-3	-29.2715E-3	-69.8064E-12	769.703E-3	-23.3828E-3
-2.17359E-3	-71.0040E-12	749.874E-3	-11.2090E-3	-69.6850E-12	768.836E-3	-6.58152E-3
-2.17859E-3	-71.1759E-12	756.822E-3	-3.69174E-3	-69.3723E-12	738.001E-3	-2.14043E-3
-2.18359E-3	-70.9884E-12	774.895E-3	-12.8490E-3	-69.5017E-12	722.364E-3	-3.93423E-3
-2.18859E-3	-71.5177E-12	773.832E-3	-18.5074E-3	-69.5738E-12	736.850E-3	-7.11810E-3
-2.19360E-3	-72.7180E-12	763.437E-3	-22.9825E-3	-69.7769E-12	746.268E-3	-15.9169E-3
-2.19860E-3	-72.7820E-12	773.476E-3	-37.8255E-3	-69.9987E-12	749.550E-3	-15.8570E-3
-2.20360E-3	-72.6020E-12	787.640E-3	-47.9286E-3	-70.8300E-12	746.571E-3	-8.37881E-3
-2.20860E-3	-72.1961E-12	781.097E-3	-47.4102E-3	-71.1464E-12	748.815E-3	291.225E-6
-2.21361E-3	-72.5463E-12	769.690E-3	-40.7142E-3	-71.0659E-12	768.697E-3	9.60815E-3
-2.21861E-3	-72.1142E-12	766.045E-3	-21.1191E-3	-71.7766E-12	772.521E-3	2.78422E-3
-2.22361E-3	-71.9190E-12	768.702E-3	-3.12027E-3	-72.4993E-12	754.654E-3	-17.2367E-3
-2.22861E-3	-71.3680E-12	770.314E-3	-2.53065E-3	-73.2433E-12	739.326E-3	-24.2286E-3
-2.23362E-3	-71.3848E-12	769.232E-3	-8.63498E-3	-72.9383E-12	739.648E-3	-12.7612E-3
-2.23862E-3	-71.5605E-12	766.422E-3	-10.6021E-3	-73.2182E-12	758.820E-3	-9.72144E-3
-2.24362E-3	-71.6447E-12	756.697E-3	-10.5447E-3	-73.5162E-12	762.273E-3	-18.5569E-3
-2.24862E-3	-71.4391E-12	747.866E-3	-16.5941E-3	-74.0550E-12	748.557E-3	-9.69631E-3
-2.25363E-3	-71.7179E-12	744.702E-3	-29.4717E-3	-73.7818E-12	747.758E-3	5.82062E-3
-2.25863E-3	-72.2479E-12	734.818E-3	-36.0482E-3	-74.1497E-12	749.476E-3	-8.44387E-3
-2.26363E-3	-73.2689E-12	722.567E-3	-33.6500E-3	-74.1414E-12	744.459E-3	-24.4994E-3
-2.26863E-3	-73.6515E-12	722.378E-3	-26.7809E-3	-74.3523E-12	734.578E-3	-16.6163E-3
-2.27364E-3	-74.5522E-12	734.501E-3	-18.6721E-3	-74.6274E-12	725.636E-3	-6.14834E-3
-2.27864E-3	-75.2583E-12	745.927E-3	-16.5847E-3	-74.5729E-12	722.424E-3	2.09273E-3
-2.28364E-3	-76.4368E-12	752.952E-3	-12.5291E-3	-74.7802E-12	722.591E-3	6.26504E-3
-2.28864E-3	-76.0502E-12	760.500E-3	-7.13186E-3	-75.3459E-12	726.681E-3	-1.86869E-3
-2.29365E-3	-75.9939E-12	760.444E-3	-5.23525E-3	-75.9398E-12	723.002E-3	-12.9403E-3
-2.29865E-3	-76.7872E-12	766.728E-3	699.114E-6	-75.8138E-12	712.593E-3	-12.7777E-3
-2.30365E-3	-77.1306E-12	772.171E-3	-2.10528E-3	-76.1139E-12	716.575E-3	-10.4886E-3
-2.30865E-3	-77.2099E-12	759.067E-3	-12.8270E-3	-77.0309E-12	727.388E-3	-10.8539E-3
-2.31366E-3	-76.8425E-12	753.076E-3	-4.36097E-3	-77.8734E-12	732.680E-3	-23.5094E-3
-2.31866E-3	-77.0818E-12	754.202E-3	2.56232E-3	-77.9216E-12	746.974E-3	-48.6821E-3
-2.32366E-3	-77.1236E-12	751.401E-3	-15.7402E-3	-77.3353E-12	754.157E-3	-48.8078E-3
-2.32866E-3	-76.6474E-12	754.544E-3	-26.6386E-3	-77.7796E-12	742.450E-3	-29.3277E-3
-2.33367E-3	-76.2646E-12	747.669E-3	-20.8460E-3	-78.0967E-12	735.950E-3	-24.6465E-3
-2.33867E-3	-75.8810E-12	729.164E-3	-7.96549E-3	-78.8042E-12	739.800E-3	-36.9560E-3
-2.34367E-3	-76.5367E-12	732.110E-3	5.59578E-3	-78.6573E-12	743.971E-3	-40.6371E-3
-2.34867E-3	-76.4949E-12	736.252E-3	-2.64287E-3	-78.8687E-12	738.730E-3	-22.8420E-3
-2.35368E-3	-77.4338E-12	717.835E-3	-21.4450E-3	-79.1726E-12	723.301E-3	-11.7820E-3
-2.35868E-3	-78.0027E-12	706.920E-3	-15.7853E-3	-79.2909E-12	714.482E-3	-23.1363E-3
-2.36368E-3	-78.4983E-12	709.298E-3	5.52000E-3	-79.5004E-12	724.553E-3	-22.9980E-3
-2.36868E-3	-78.6220E-12	709.981E-3	11.4807E-3	-79.6076E-12	735.292E-3	-15.1305E-3
-2.37369E-3	-79.3921E-12	716.006E-3	404.288E-6	-79.5877E-12	736.288E-3	-29.4850E-3
-2.37869E-3	-80.4279E-12	715.845E-3	-6.30275E-3	-79.5294E-12	734.991E-3	-31.6404E-3
-2.38369E-3	-80.7936E-12	713.620E-3	548.227E-6	-80.1592E-12	720.816E-3	-18.8997E-3
-2.38869E-3	-81.2465E-12	721.382E-3	-11.0840E-3	-81.0257E-12	697.705E-3	-19.1548E-3
-2.39370E-3	-80.9380E-12	728.598E-3	-36.3469E-3	-80.7417E-12	711.939E-3	-12.7813E-3
-2.39870E-3	-81.8199E-12	736.710E-3	-41.9216E-3	-80.0708E-12	751.954E-3	-7.25528E-3
-2.40370E-3	-82.8794E-12	743.052E-3	-36.1080E-3	-80.7839E-12	749.205E-3	-11.4333E-3
-2.40870E-3	-82.7714E-12	745.062E-3	-19.7823E-3	-81.1913E-12	719.185E-3	-12.4029E-3
-2.41371E-3	-82.0937E-12	737.738E-3	4.31655E-3	-80.9900E-12	711.964E-3	-18.7292E-3
-2.41871E-3	-82.0504E-12	727.691E-3	10.9909E-3	-80.7277E-12	720.834E-3	-28.9439E-3
-2.42371E-3	-82.8050E-12	726.275E-3	4.62681E-3	-81.1928E-12	729.544E-3	-21.8563E-3
-2.42871E-3	-82.7721E-12	721.193E-3	-5.83072E-3	-81.9902E-12	728.759E-3	-5.70939E-3
-2.43372E-3	-82.0855E-12	719.763E-3	-23.8955E-3	-82.5064E-12	719.637E-3	-15.0797E-3
-2.43872E-3	-81.9224E-12	737.553E-3	-31.2222E-3	-81.9924E-12	707.517E-3	-27.4852E-3
-2.44372E-3	-82.7629E-12	739.476E-3	-22.4800E-3	-81.8219E-12	706.581E-3	-23.3538E-3
-2.44872E-3	-83.2113E-12	721.834E-3	-23.2730E-3	-83.1820E-12	710.955E-3	-29.6760E-3
-2.45373E-3	-82.5533E-12	717.967E-3	-29.6088E-3	-83.9952E-12	703.061E-3	-22.8422E-3
-2.45873E-3	-82.3629E-12	723.501E-3	-27.4846E-3	-84.4524E-12	706.983E-3	-1.70517E-3
-2.46373E-3	-83.0680E-12	726.835E-3	-24.8982E-3	-83.8175E-12	720.955E-3	-4.85724E-3
-2.46873E-3	-83.8844E-12	718.090E-3	-22.3079E-3	-84.4900E-12	715.112E-3	-20.4679E-3
-2.47374E-3	-83.6152E-12	707.490E-3	-24.6376E-3	-85.1612E-12	712.385E-3	-18.4875E-3
-2.47874E-3	-84.0167E-12	714.352E-3	-33.7038E-3	-85.1470E-12	721.043E-3	-6.55965E-3
-2.48374E-3	-84.5833E-12	725.689E-3	-38.2641E-3	-84.6578E-12	713.055E-3	-3.95357E-3
-2.48874E-3	-85.9566E-12	727.133E-3	-38.2130E-3	-85.0489E-12	705.877E-3	-3.39573E-3
-2.49375E-3	-86.0569E-12	719.245E-3	-41.0851E-3	-85.5826E-12	714.462E-3	-11.2329E-3
-2.49875E-3	-85.7263E-12	712.279E-3	-34.7925E-3	-85.4399E-12	714.079E-3	-19.0285E-3
-2.50375E-3	-86.1919E-12	711.102E-3	-17.4279E-3	-85.0834E-12	702.512E-3	-16.7742E-3
-2.50875E-3	-86.7559E-12	718.882E-3	-14.6729E-3	-85.0779E-12	701.190E-3	-22.5352E-3
-2.51376E-3	-87.6695E-12	739.581E-3	-18.9114E-3	-85.8668E-12	696.885E-3	-20.1575E-3
-2.51876E-3	-87.5314E-12	743.866E-3	-22.5438E-3	-85.5530E-12	685.131E-3	3.67549E-3
-2.52376E-3	-87.1865E-12	738.276E-3	-33.1987E-3	-85.6967E-12	691.241E-3	11.9773E-3
-2.52876E-3	-87.5856E-12	738.927E-3	-31.5957E-3	-86.2489E-12	706.771E-3	-7.62040E-3
-2.53377E-3	-87.9103E-12	731.219E-3	-22.8532E-3	-86.9731E-12	716.272E-3	-18.9020E-3
-2.53877E-3	-87.4400E-12	730.618E-3	-26.3508E-3	-87.4808E-12	737.609E-3	-7.44386E-3
-2.54377E-3	-86.5427E-12	730.287E-3	-26.5807E-3	-87.8431E-12	753.615E-3	-5.62601E-3
-2.54877E-3	-86.3203E-12	712.347E-3	-23.9223E-3	-89.1697E-12	741.031E-3	-22.4676E-3
-2.55378E-3	-87.3836E-12	700.210E-3	-29.8683E-3	-89.5941E-12	723.108E-3	-33.3942E-3
-2.55878E-3	-87.5389E-12	701.872E-3	-22.7202E-3	-89.7604E-12	714.137E-3	-31.8671E-3
-2.56378E-3	-86.5662E-12	702.244E-3	-8.99009E-3	-89.7482E-12	714.009E-3	-17.7951E-3
-2.56878E-3	-86.4035E-12	702.700E-3	-12.0720E-3	-90.8111E-12	715.794E-3	-13.7158E-3
-2.57379E-3	-87.3849E-12	693.901E-3	-8.42713E-3	-91.4096E-12	701.659E-3	-25.1788E-3
-2.57879E-3	-87.9217E-12	687.699E-3	5.60025E-3	-90.6645E-12	694.184E-3	-23.6894E-3
-2.58379E-3	-88.5863E-12	698.876E-3	-9.69473E-3	-90.3594E-12	709.483E-3	-3.33054E-3
-2.58879E-3	-89.0237E-12	707.101E-3	-32.6331E-3	-90.4334E-12	705.665E-3	3.72235E-3
-2.59380E-3	-90.1107E-12	706.034E-3	-19.0864E-3	-91.7179E-12	689.553E-3	-9.52336E-3
-2.59880E-3	-91.0267E-12	697.938E-3	-6.71429E-3	-91.2414E-12	704.401E-3	-10.0404E-3
-2.60380E-3	-91.8714E-12	699.574E-3	-22.6680E-3	-90.3606E-12	729.443E-3	2.45158E-3
-2.60880E-3	-91.9872E-12	702.919E-3	-28.0812E-3	-89.9199E-12	728.671E-3	6.74834E-3
-2.61381E-3	-92.2095E-12	693.005E-3	-30.0430E-3	-91.5999E-12	718.503E-3	3.67183E-3
-2.61881E-3	-93.1308E-12	699.759E-3	-38.1111E-3	-92.6263E-12	709.734E-3	-5.09340E-3
-2.62381E-3	-93.5490E-12	716.037E-3	-18.7582E-3	-91.4553E-12	695.032E-3	-14.6272E-3
-2.62881E-3	-93.2553E-12	704.812E-3	5.44043E-3	-90.9601E-12	690.212E-3	-18.4609E-3
-2.63382E-3	-92.0740E-12	696.187E-3	1.33226E-3	-91.8728E-12	702.657E-3	-26.9574E-3
-2.63882E-3	-91.9143E-12	704.937E-3	-7.30520E-3	-93.4160E-12	704.030E-3	-30.1996E-3
-2.64382E-3	-91.7570E-12	702.857E-3	-11.6877E-3	-93.3516E-12	696.582E-3	-25.7426E-3
-2.64882E-3	-91.4565E-12	709.193E-3	-24.2237E-3	-92.7498E-12	692.612E-3	-24.3805E-3
-2.65383E-3	-90.8101E-12	712.436E-3	-21.2005E-3	-93.0463E-12	690.141E-3	-20.7715E-3
-2.65883E-3	-90.6818E-12	685.243E-3	-18.4157E-3	-94.1978E-12	715.991E-3	-14.6381E-3
-2.66383E-3	-90.8213E-12	672.644E-3	-35.8366E-3	-95.2695E-12	741.706E-3	-19.0176E-3
-2.66883E-3	-90.8566E-12	682.885E-3	-31.6886E-3	-94.4525E-12	722.087E-3	-28.7914E-3
-2.67384E-3	-91.3840E-12	669.655E-3	-18.1167E-3	-93.7441E-12	684.451E-3	-28.3822E-3
-2.67884E-3	-91.7180E-12	654.298E-3	-26.9837E-3	-94.6822E-12	663.147E-3	-27.0679E-3
-2.68384E-3	-92.8381E-12	666.292E-3	-37.2808E-3	-95.2725E-12	658.302E-3	-18.0269E-3
-2.68884E-3	-93.8332E-12	679.743E-3	-32.5081E-3	-94.6650E-12	672.674E-3	3.04142E-3
-2.69385E-3	-95.3406E-12	677.197E-3	-26.1690E-3	-93.8652E-12	687.425E-3	5.46589E-3
-2.69885E-3	-96.4372E-12	670.694E-3	-15.5973E-3	-93.9606E-12	688.272E-3	-8.05799E-3
-2.70385E-3	-97.0570E-12	662.671E-3	-2.31545E-3	-95.3298E-12	692.033E-3	-11.1795E-3
-2.70885E-3	-97.1174E-12	676.321E-3	-22.3186E-3	-95.6846E-12	699.850E-3	-26.7531E-3
-2.71386E-3	-97.8021E-12	719.106E-3	-47.4589E-3	-95.5188E-12	711.247E-3	-36.6054E-3
-2.71886E-3	-98.8968E-12	733.930E-3	-37.4899E-3	-95.1059E-12	715.621E-3	-15.5247E-3
-2.72386E-3	-98.5916E-12	712.865E-3	-17.2791E-3	-96.0217E-12	710.035E-3	-269.785E-6
-2.72886E-3	-97.8865E-12	701.619E-3	-842.329E-6	-96.9011E-12	709.144E-3	9.32185E-3
-2.73387E-3	-98.0104E-12	703.658E-3	562.953E-6	-97.0364E-12	710.307E-3	15.9508E-3
-2.73887E-3	-98.6683E-12	712.921E-3	-24.8934E-3	-96.9662E-12	714.259E-3	-19.3047E-6
-2.74387E-3	-98.5653E-12	720.071E-3	-33.6265E-3	-96.6861E-12	708.070E-3	-21.0278E-3
-2.74887E-3	-96.9097E-12	704.305E-3	-10.6856E-3	-98.3467E-12	691.299E-3	-21.1727E-3
-2.75388E-3	-96.3575E-12	697.407E-3	-13.1103E-3	-99.5005E-12	689.795E-3	-3.84500E-3
-2.75888E-3	-96.5738E-12	693.271E-3	-30.5154E-3	-98.9343E-12	679.590E-3	5.17437E-3
-2.76388E-3	-97.9173E-12	671.118E-3	-21.4460E-3	-98.5076E-12	665.239E-3	-8.17822E-3
-2.76888E-3	-96.7562E-12	659.096E-3	-16.9117E-3	-98.7230E-12	672.767E-3	-24.5362E-3
-2.77389E-3	-96.7000E-12	662.727E-3	-17.0145E-3	-99.6083E-12	671.250E-3	-29.3547E-3
-2.77889E-3	-97.2683E-12	654.887E-3	-1.56241E-3	-99.5777E-12	657.713E-3	-12.3985E-3
-2.78389E-3	-98.5337E-12	638.160E-3	1.88351E-3	-99.1276E-12	665.450E-3	14.3087E-3
-2.78889E-3	-99.3924E-12	662.236E-3	-5.41071E-3	-99.8007E-12	679.480E-3	9.08087E-3
-2.79390E-3	-99.7364E-12	699.072E-3	3.34556E-3	-100.244E-12	681.424E-3	2.25625E-3
-2.79890E-3	-99.9612E-12	700.862E-3	-1.86312E-3	-100.228E-12	694.814E-3	13.2891E-3
-2.80390E-3	-100.860E-12	704.692E-3	-24.2558E-3	-99.4985E-12	698.084E-3	3.31012E-3
-2.80890E-3	-102.370E-12	708.932E-3	-25.2242E-3	-99.4850E-12	675.066E-3	-7.58300E-3
-2.81391E-3	-102.008E-12	690.943E-3	-30.0669E-3	-101.247E-12	660.562E-3	728.603E-6
-2.81891E-3	-101.120E-12	692.669E-3	-37.6840E-3	-101.558E-12	656.992E-3	-792.420E-6
-2.82391E-3	-100.967E-12	711.835E-3	-13.9054E-3	-100.895E-12	657.279E-3	-4.26440E-3
-2.82891E-3	-102.181E-12	705.379E-3	11.5225E-3	-99.7836E-12	662.034E-3	7.64356E-3
-2.83392E-3	-102.037E-12	694.650E-3	14.4997E-3	-101.010E-12	669.364E-3	4.57501E-3
-2.83892E-3	-101.357E-12	692.090E-3	14.2678E-3	-102.724E-12	671.341E-3	-7.10540E-3
-2.84392E-3	-100.262E-12	684.092E-3	7.02390E-3	-103.209E-12	666.828E-3	-4.43582E-3
-2.84892E-3	-100.804E-12	692.690E-3	-18.5350E-3	-102.203E-12	679.605E-3	-3.23720E-3
-2.85393E-3	-100.945E-12	711.567E-3	-27.9298E-3	-101.778E-12	693.959E-3	357.065E-6
-2.85893E-3	-100.921E-12	704.726E-3	-27.4726E-3	-103.138E-12	689.185E-3	7.72757E-3
-2.86393E-3	-99.7317E-12	684.303E-3	-42.1254E-3	-103.714E-12	695.502E-3	-4.59552E-3
-2.86893E-3	-99.6947E-12	678.694E-3	-50.6972E-3	-103.718E-12	704.325E-3	-15.6429E-3
-2.87394E-3	-100.616E-12	666.029E-3	-38.0960E-3	-103.749E-12	688.561E-3	-14.5748E-3
-2.87894E-3	-101.742E-12	645.488E-3	-13.4912E-3	-104.434E-12	680.087E-3	-29.6652E-3
-2.88394E-3	-101.151E-12	655.806E-3	-3.49183E-3	-104.374E-12	686.636E-3	-45.5626E-3
-2.88894E-3	-101.325E-12	675.828E-3	-14.0615E-3	-104.875E-12	674.031E-3	-44.4315E-3
-2.89395E-3	-102.046E-12	682.003E-3	-25.1458E-3	-104.529E-12	668.527E-3	-32.6982E-3
-2.89895E-3	-102.701E-12	696.144E-3	-22.4092E-3	-104.743E-12	693.814E-3	-23.9845E-3
-2.90395E-3	-102.813E-12	699.279E-3	-17.3904E-3	-104.718E-12	710.285E-3	-23.6733E-3
-2.90895E-3	-103.412E-12	683.921E-3	-26.7678E-3	-105.650E-12	706.284E-3	-27.6759E-3
-2.91396E-3	-103.855E-12	680.113E-3	-32.2638E-3	-106.011E-12	696.742E-3	-24.7749E-3
-2.91896E-3	-104.353E-12	684.296E-3	-30.5436E-3	-105.384E-12	679.799E-3	-17.2758E-3
-2.92396E-3	-105.128E-12	674.408E-3	-38.5324E-3	-104.482E-12	664.936E-3	-13.1034E-3
-2.92896E-3	-105.012E-12	666.882E-3	-40.6214E-3	-104.757E-12	649.217E-3	-12.8972E-3
-2.93397E-3	-105.103E-12	671.038E-3	-25.0397E-3	-105.231E-12	642.775E-3	-24.3433E-3
-2.93897E-3	-105.032E-12	676.869E-3	-22.8325E-3	-105.031E-12	657.031E-3	-32.3865E-3
-2.94397E-3	-106.361E-12	687.080E-3	-36.0343E-3	-105.238E-12	673.497E-3	-31.4845E-3
-2.94897E-3	-106.608E-12	690.825E-3	-15.9152E-3	-106.061E-12	688.366E-3	-27.7041E-3
-2.95398E-3	-106.105E-12	694.113E-3	22.1578E-3	-106.343E-12	697.757E-3	-23.8823E-3
-2.95898E-3	-106.390E-12	701.089E-3	28.4385E-3	-106.298E-12	700.602E-3	-21.6697E-3
-2.96398E-3	-106.349E-12	694.037E-3	7.73173E-3	-106.256E-12	713.171E-3	-30.2790E-3
-2.96898E-3	-105.712E-12	665.773E-3	-22.0755E-3	-108.101E-12	722.261E-3	-47.8428E-3
-2.97399E-3	-105.304E-12	642.995E-3	-31.8727E-3	-108.141E-12	700.680E-3	-39.8704E-3
-2.97899E-3	-104.872E-12	642.684E-3	-13.7740E-3	-107.601E-12	674.421E-3	-9.17185E-3
-2.98399E-3	-105.502E-12	632.769E-3	-6.40700E-3	-107.504E-12	675.293E-3	7.37271E-3
-2.98899E-3	-106.174E-12	629.144E-3	-9.13048E-3	-107.780E-12	675.276E-3	-16.9457E-3
-2.99400E-3	-105.825E-12	642.856E-3	-7.57412E-3	-108.452E-12	672.220E-3	-34.9498E-3
-2.99900E-3	-105.981E-12	641.903E-3	-9.89806E-3	-107.793E-12	676.911E-3	-15.4104E-3
-3.00400E-3	-107.384E-12	646.270E-3	-12.0865E-3	-107.840E-12	667.271E-3	-7.53094E-3
-3.00900E-3	-108.180E-12	654.269E-3	-2.45163E-3	-108.035E-12	659.986E-3	-12.9979E-3
-3.01401E-3	-108.951E-12	643.465E-3	12.1522E-3	-108.931E-12	672.500E-3	-9.66929E-3
-3.01901E-3	-109.140E-12	642.610E-3	16.9226E-3	-108.183E-12	672.298E-3	-6.13107E-3
-3.02401E-3	-110.635E-12	643.259E-3	23.5957E-3	-107.367E-12	652.128E-3	3.81029E-3
-3.02901E-3	-111.698E-12	639.173E-3	14.4468E-3	-107.942E-12	642.975E-3	14.5349E-3
-3.03402E-3	-112.838E-12	657.000E-3	-18.1772E-3	-108.721E-12	653.742E-3	4.22833E-3
-3.03902E-3	-112.568E-12	671.667E-3	-36.7136E-3	-108.304E-12	659.932E-3	419.765E-6
-3.04402E-3	-112.592E-12	682.166E-3	-36.2951E-3	-108.180E-12	644.107E-3	15.5563E-3
-3.04902E-3	-113.341E-12	701.808E-3	-45.4529E-3	-109.367E-12	631.385E-3	14.6827E-3
-3.05403E-3	-113.563E-12	707.120E-3	-47.9338E-3	-109.717E-12	633.970E-3	-9.32261E-3
-3.05903E-3	-111.874E-12	702.719E-3	-17.6353E-3	-110.564E-12	661.456E-3	-24.4049E-3
-3.06403E-3	-110.885E-12	696.998E-3	-11.4259E-3	-110.301E-12	692.372E-3	-28.1819E-3
-3.06903E-3	-111.518E-12	689.070E-3	-35.5139E-3	-111.508E-12	674.970E-3	-49.4180E-3
-3.07404E-3	-110.974E-12	673.209E-3	-26.6797E-3	-112.488E-12	643.541E-3	-65.6650E-3
-3.07904E-3	-111.054E-12	663.664E-3	-5.12769E-3	-112.667E-12	662.499E-3	-41.8609E-3
-3.08404E-3	-109.648E-12	670.865E-3	3.88567E-3	-111.731E-12	704.706E-3	-9.38381E-3
-3.08904E-3	-110.251E-12	656.978E-3	9.69345E-3	-111.902E-12	711.471E-3	-13.2227E-3
-3.09405E-3	-111.092E-12	630.389E-3	-1.39374E-3	-113.756E-12	698.861E-3	-21.3041E-3
-3.09905E-3	-111.759E-12	635.205E-3	-9.40456E-3	-113.124E-12	690.626E-3	-13.1424E-3
-3.10405E-3	-111.306E-12	644.695E-3	-12.8195E-3	-112.170E-12	681.103E-3	-14.7052E-3
-3.10905E-3	-112.429E-12	644.357E-3	-30.6235E-3	-112.357E-12	674.378E-3	-16.7655E-3
-3.11406E-3	-113.296E-12	647.859E-3	-34.1954E-3	-113.544E-12	659.330E-3	-18.1521E-3
-3.11906E-3	-115.109E-12	632.101E-3	-14.4027E-3	-113.008E-12	639.138E-3	-16.0969E-3
-3.12406E-3	-115.658E-12	623.309E-3	850.071E-6	-112.382E-12	640.002E-3	-7.55107E-3
-3.12906E-3	-116.010E-12	651.812E-3	5.66271E-3	-111.917E-12	641.168E-3	-4.47217E-3
-3.13407E-3	-117.669E-12	673.716E-3	7.77074E-3	-112.456E-12	633.235E-3	-4.18285E-3
-3.13907E-3	-118.007E-12	670.651E-3	-11.8734E-3	-113.066E-12	637.457E-3	-9.28863E-3
-3.14407E-3	-117.787E-12	674.817E-3	-37.4173E-3	-113.583E-12	654.769E-3	-14.5063E-3
-3.14907E-3	-117.615E-12	689.085E-3	-30.4073E-3	-113.641E-12	671.977E-3	-10.2754E-3
-3.15408E-3	-117.891E-12	684.558E-3	-20.8971E-3	-115.045E-12	671.567E-3	-5.30266E-3
-3.15908E-3	-117.146E-12	676.860E-3	-25.4691E-3	-116.098E-12	679.830E-3	-3.11308E-3
-3.16408E-3	-115.784E-12	691.700E-3	-28.3763E-3	-117.372E-12	699.168E-3	6.08515E-3
-3.16908E-3	-115.341E-12	684.954E-3	-45.5599E-3	-117.440E-12	699.708E-3	4.50851E-3
-3.17409E-3	-115.856E-12	664.434E-3	-65.0710E-3	-117.474E-12	688.287E-3	-24.7071E-3
-3.17909E-3	-115.635E-12	663.546E-3	-51.1361E-3	-117.826E-12	668.887E-3	-51.2713E-3
-3.18409E-3	-114.472E-12	644.934E-3	-24.2179E-3	-119.440E-12	656.140E-3	-34.3846E-3
-3.18909E-3	-115.153E-12	635.892E-3	-16.3707E-3	-120.378E-12	653.057E-3	7.72981E-3
-3.19410E-3	-115.929E-12	667.048E-3	-19.2475E-3	-119.159E-12	641.301E-3	17.4587E-3
-3.19910E-3	-115.794E-12	676.847E-3	-18.7591E-3	-118.812E-12	641.643E-3	1.72833E-3
-3.20410E-3	-116.218E-12	666.415E-3	-20.8830E-3	-120.494E-12	665.684E-3	-19.6431E-3
-3.20910E-3	-117.975E-12	674.999E-3	-22.8091E-3	-121.188E-12	679.575E-3	-32.8824E-3
-3.21411E-3	-119.195E-12	677.176E-3	-12.6236E-3	-119.653E-12	690.041E-3	-8.98267E-3
-3.21911E-3	-119.129E-12	668.722E-3	-13.1976E-3	-118.984E-12	689.125E-3	6.09614E-3
-3.22411E-3	-118.494E-12	655.035E-3	-21.8819E-3	-119.956E-12	662.360E-3	-13.9165E-3
-3.22911E-3	-119.472E-12	632.775E-3	-27.2440E-3	-119.848E-12	647.695E-3	-19.3875E-3
-3.23412E-3	-121.034E-12	642.897E-3	-26.8358E-3	-119.181E-12	657.388E-3	-22.4424E-3
-3.23912E-3	-120.748E-12	678.473E-3	-20.0210E-3	-118.361E-12	654.904E-3	-32.7358E-3
-3.24412E-3	-120.190E-12	687.573E-3	-28.1252E-3	-119.453E-12	648.837E-3	-22.7552E-3
-3.24912E-3	-120.735E-12	677.072E-3	-49.6572E-3	-119.918E-12	666.200E-3	-21.4088E-3
-3.25413E-3	-121.320E-12	665.816E-3	-65.6446E-3	-120.002E-12	677.234E-3	-26.4858E-3
-3.25913E-3	-121.559E-12	648.773E-3	-50.7217E-3	-119.892E-12	683.451E-3	-11.2095E-3
-3.26413E-3	-120.618E-12	639.442E-3	-30.7640E-3	-120.948E-12	694.139E-3	-10.3927E-3
-3.26913E-3	-121.030E-12	650.112E-3	-27.9139E-3	-120.944E-12	692.470E-3	-23.1620E-3
-3.27414E-3	-120.366E-12	661.947E-3	-6.45408E-3	-122.378E-12	677.907E-3	-13.3564E-3
-3.27914E-3	-120.307E-12	658.592E-3	3.41639E-3	-122.075E-12	666.666E-3	8.34157E-3
-3.28414E-3	-120.633E-12	651.046E-3	-16.7012E-3	-121.511E-12	661.239E-3	17.6377E-3
-3.28914E-3	-121.048E-12	651.556E-3	-18.1065E-3	-121.582E-12	659.129E-3	2.35459E-3
-3.29415E-3	-120.586E-12	663.110E-3	-7.10841E-3	-122.156E-12	664.763E-3	-26.6699E-3
-3.29915E-3	-119.808E-12	668.946E-3	5.59317E-3	-123.189E-12	657.272E-3	-36.2024E-3
-3.30415E-3	-120.979E-12	655.357E-3	9.23182E-3	-122.132E-12	629.386E-3	-19.5657E-3
-3.30915E-3	-121.113E-12	635.612E-3	-7.90313E-3	-121.822E-12	611.884E-3	-19.0516E-3
-3.31416E-3	-121.769E-12	622.090E-3	-15.6786E-3	-121.255E-12	621.252E-3	-45.7861E-3
-3.31916E-3	-121.242E-12	626.656E-3	-14.8390E-3	-121.686E-12	638.575E-3	-47.5341E-3
-3.32416E-3	-121.948E-12	642.335E-3	-16.5778E-3	-120.638E-12	653.997E-3	-27.9779E-3
-3.32916E-3	-123.550E-12	648.220E-3	-13.7396E-3	-120.999E-12	664.074E-3	-37.6303E-3
-3.33417E-3	-123.774E-12	650.860E-3	-13.7837E-3	-120.886E-12	647.816E-3	-46.7816E-3
-3.33917E-3	-124.282E-12	645.921E-3	-24.2693E-3	-121.814E-12	625.443E-3	-14.8637E-3
-3.34417E-3	-124.480E-12	641.013E-3	-30.2000E-3	-122.345E-12	630.019E-3	272.209E-6
-3.34917E-3	-125.309E-12	659.398E-3	-26.0920E-3	-122.508E-12	652.852E-3	-31.7658E-3
-3.35418E-3	-125.236E-12	667.572E-3	-24.6861E-3	-122.404E-12	670.245E-3	-48.4620E-3
-3.35918E-3	-126.222E-12	652.678E-3	-19.0307E-3	-122.599E-12	658.370E-3	-39.3616E-3
-3.36418E-3	-125.417E-12	636.645E-3	9.08880E-3	-123.432E-12	626.382E-3	-43.9140E-3
-3.36918E-3	-125.155E-12	632.462E-3	22.8110E-3	-123.626E-12	634.736E-3	-54.2451E-3
-3.37419E-3	-125.109E-12	656.080E-3	1.05057E-3	-124.270E-12	672.974E-3	-51.4212E-3
-3.37919E-3	-124.804E-12	680.541E-3	-15.7226E-3	-123.846E-12	675.272E-3	-43.0248E-3
-3.38419E-3	-125.058E-12	678.540E-3	-11.4160E-3	-124.639E-12	665.100E-3	-37.9938E-3
-3.38919E-3	-123.984E-12	662.162E-3	-2.48327E-3	-124.485E-12	667.934E-3	-40.5636E-3
-3.39420E-3	-123.887E-12	640.569E-3	-17.1297E-3	-124.678E-12	664.070E-3	-48.7700E-3
-3.39920E-3	-123.843E-12	629.178E-3	-47.5077E-3	-125.145E-12	672.213E-3	-46.3341E-3
-3.40420E-3	-123.441E-12	617.445E-3	-63.3101E-3	-125.888E-12	695.169E-3	-54.1505E-3
-3.40920E-3	-123.234E-12	600.488E-3	-51.6668E-3	-125.646E-12	686.042E-3	-59.7391E-3
-3.41421E-3	-123.654E-12	606.062E-3	-12.7063E-3	-125.754E-12	656.999E-3	-21.6151E-3
-3.41921E-3	-124.649E-12	626.408E-3	5.25016E-3	-126.050E-12	644.790E-3	9.64816E-3
-3.42421E-3	-125.360E-12	641.268E-3	-2.48247E-3	-127.240E-12	639.667E-3	4.45328E-3
-3.42921E-3	-126.022E-12	643.302E-3	-4.16984E-3	-127.720E-12	632.802E-3	2.54906E-3
-3.43422E-3	-126.494E-12	640.497E-3	-21.2540E-3	-127.242E-12	637.236E-3	8.25987E-3
-3.43922E-3	-128.191E-12	637.148E-3	-27.8697E-3	-127.300E-12	641.296E-3	-4.79960E-3
-3.44422E-3	-129.018E-12	626.631E-3	-11.0871E-3	-128.363E-12	641.512E-3	-19.0426E-3
-3.44922E-3	-130.384E-12	633.113E-3	-9.01809E-3	-128.884E-12	655.961E-3	-17.8060E-3
-3.45423E-3	-130.063E-12	660.921E-3	-7.58617E-3	-128.676E-12	659.722E-3	-24.2418E-3
-3.45923E-3	-130.683E-12	665.152E-3	5.30957E-3	-127.817E-12	657.821E-3	-27.8260E-3
-3.46423E-3	-130.706E-12	655.172E-3	2.90165E-3	-128.048E-12	672.762E-3	-18.5367E-3
-3.46923E-3	-131.204E-12	666.355E-3	-18.7536E-3	-128.299E-12	679.647E-3	-15.2974E-3
-3.47424E-3	-129.902E-12	684.907E-3	-36.1883E-3	-128.982E-12	668.727E-3	-12.1229E-3
-3.47924E-3	-129.685E-12	684.394E-3	-31.7510E-3	-129.150E-12	654.608E-3	1.13277E-3
-3.48424E-3	-129.457E-12	667.956E-3	-16.1794E-3	-129.884E-12	646.593E-3	3.13722E-3
-3.48924E-3	-130.182E-12	652.460E-3	-9.34408E-3	-130.391E-12	657.243E-3	-2.06171E-3
-3.49425E-3	-128.554E-12	654.341E-3	-8.68016E-3	-131.627E-12	673.041E-3	2.03226E-3
-3.49925E-3	-127.836E-12	672.103E-3	-10.9028E-3	-131.819E-12	663.014E-3	-1.25486E-3
-3.50425E-3	-128.199E-12	665.036E-3	-13.6719E-3	-131.592E-12	650.680E-3	-17.5693E-3
-3.50925E-3	-129.253E-12	633.156E-3	-29.3534E-3	-131.291E-12	665.336E-3	-33.3736E-3
-3.51426E-3	-128.698E-12	622.128E-3	-35.8031E-3	-133.075E-12	674.133E-3	-41.8407E-3
-3.51926E-3	-128.248E-12	629.089E-3	-3.22479E-3	-134.155E-12	651.799E-3	-36.8269E-3
-3.52426E-3	-129.637E-12	621.794E-3	13.9764E-3	-132.207E-12	645.245E-3	-14.7449E-3
-3.52926E-3	-130.367E-12	624.754E-3	728.637E-6	-131.741E-12	664.701E-3	-20.6886E-3
-3.53427E-3	-131.712E-12	645.803E-3	-1.63233E-3	-132.617E-12	667.608E-3	-39.7247E-3
-3.53927E-3	-131.970E-12	646.887E-3	-11.8089E-3	-134.181E-12	666.929E-3	-13.0803E-3
-3.54427E-3	-132.846E-12	648.698E-3	-24.8189E-3	-132.607E-12	669.715E-3	2.42610E-3
-3.54927E-3	-133.605E-12	656.114E-3	-11.1732E-3	-131.380E-12	663.070E-3	-16.0132E-3
-3.55428E-3	-133.978E-12	640.818E-3	-4.33298E-3	-131.882E-12	664.839E-3	-19.2159E-3
-3.55928E-3	-135.138E-12	642.413E-3	-21.6843E-3	-133.026E-12	678.297E-3	-3.93971E-3
-3.56428E-3	-135.877E-12	672.330E-3	-19.0728E-3	-133.374E-12	706.368E-3	-3.09721E-3
-3.56928E-3	-135.784E-12	674.468E-3	-5.71722E-3	-132.439E-12	720.977E-3	-12.9521E-3
-3.57429E-3	-134.476E-12	651.931E-3	-31.0899E-3	-133.373E-12	703.277E-3	-39.6076E-3
-3.57929E-3	-134.931E-12	647.557E-3	-40.9413E-3	-135.047E-12	699.474E-3	-69.7709E-3
-3.58429E-3	-135.372E-12	660.275E-3	-5.61459E-3	-134.925E-12	707.814E-3	-50.9231E-3
-3.58929E-3	-134.731E-12	661.381E-3	9.05178E-3	-135.347E-12	688.390E-3	-33.6627E-3
-3.59430E-3	-133.604E-12	657.311E-3	6.29310E-3	-136.219E-12	661.153E-3	-44.1302E-3
-3.59930E-3	-133.298E-12	659.234E-3	16.8712E-3	-137.148E-12	670.638E-3	-34.4714E-3
-3.60430E-3	-133.708E-12	642.694E-3	5.24050E-3	-137.384E-12	685.933E-3	-22.1917E-3
-3.60930E-3	-134.253E-12	629.221E-3	-16.0010E-3	-136.892E-12	658.896E-3	-38.3103E-3
-3.61431E-3	-133.572E-12	639.022E-3	-5.35355E-3	-137.331E-12	621.019E-3	-46.9932E-3
-3.61931E-3	-133.066E-12	642.964E-3	5.04014E-3	-137.029E-12	606.392E-3	-26.3695E-3
-3.62431E-3	-134.154E-12	649.972E-3	-3.37130E-3	-136.488E-12	608.027E-3	-20.3802E-3
-3.62931E-3	-135.442E-12	668.049E-3	-13.8675E-3	-135.887E-12	619.459E-3	-24.6389E-3
-3.63432E-3	-136.440E-12	663.194E-3	-27.0531E-3	-136.247E-12	643.857E-3	-18.1923E-3
-3.63932E-3	-135.742E-12	650.691E-3	-28.1106E-3	-135.381E-12	662.070E-3	-25.5343E-3
-3.64432E-3	-137.011E-12	658.613E-3	-8.05992E-3	-135.559E-12	653.226E-3	-26.3317E-3
-3.64932E-3	-138.388E-12	668.743E-3	-13.1371E-3	-135.178E-12	640.320E-3	-17.2202E-3
-3.65433E-3	-139.247E-12	684.587E-3	-23.1372E-3	-135.762E-12	639.387E-3	-29.0279E-3
-3.65933E-3	-139.257E-12	699.600E-3	-10.6053E-3	-135.651E-12	642.063E-3	-33.2563E-3
-3.66433E-3	-139.293E-12	697.916E-3	-24.8241E-3	-135.623E-12	650.363E-3	-27.0537E-3
-3.66933E-3	-140.737E-12	696.079E-3	-51.8466E-3	-135.807E-12	655.862E-3	-34.9246E-3
-3.67434E-3	-139.974E-12	690.250E-3	-50.1546E-3	-136.174E-12	646.534E-3	-28.1800E-3
-3.67934E-3	-139.695E-12	686.192E-3	-42.9519E-3	-137.336E-12	634.147E-3	-6.81038E-3
-3.68434E-3	-139.015E-12	688.775E-3	-49.9619E-3	-137.798E-12	646.541E-3	-11.5311E-3
-3.68934E-3	-139.050E-12	689.294E-3	-42.6406E-3	-138.526E-12	665.683E-3	-23.7268E-3
-3.69435E-3	-138.460E-12	679.902E-3	-8.68636E-3	-139.316E-12	657.283E-3	-12.9446E-3
-3.69935E-3	-138.221E-12	656.263E-3	5.32126E-3	-140.871E-12	655.169E-3	-3.05432E-3
-3.70435E-3	-138.303E-12	636.591E-3	-4.05390E-3	-140.741E-12	669.738E-3	-1.02159E-3
-3.70935E-3	-138.439E-12	634.616E-3	3.98832E-3	-139.993E-12	671.643E-3	-6.16839E-3
-3.71436E-3	-138.010E-12	648.883E-3	-9.26287E-3	-140.584E-12	654.355E-3	-10.8226E-3
-3.71936E-3	-137.741E-12	659.200E-3	-33.6113E-3	-141.155E-12	622.472E-3	2.16125E-3
-3.72436E-3	-139.931E-12	646.396E-3	-24.8304E-3	-142.443E-12	607.032E-3	9.69089E-3
-3.72936E-3	-139.944E-12	631.578E-3	-23.8777E-3	-140.422E-12	617.427E-3	-1.98129E-3
-3.73437E-3	-140.078E-12	620.171E-3	-30.6850E-3	-139.718E-12	630.224E-3	-24.1466E-3
-3.73937E-3	-140.612E-12	595.072E-3	-18.1891E-3	-139.642E-12	643.277E-3	-42.2550E-3
-3.74437E-3	-142.038E-12	600.015E-3	-394.173E-6	-140.007E-12	646.771E-3	-43.5000E-3
-3.74937E-3	-143.413E-12	630.683E-3	12.5083E-3	-140.105E-12	639.108E-3	-24.6742E-3
-3.75438E-3	-143.524E-12	639.068E-3	5.81362E-3	-140.784E-12	654.655E-3	-7.95054E-3
-3.75938E-3	-142.960E-12	643.842E-3	-31.6367E-3	-141.461E-12	662.997E-3	-11.3610E-3
-3.76438E-3	-143.358E-12	656.825E-3	-57.0629E-3	-141.097E-12	635.935E-3	-19.6642E-3
-3.76938E-3	-144.928E-12	663.473E-3	-46.5249E-3	-142.061E-12	642.191E-3	-28.1377E-3
-3.77439E-3	-144.471E-12	667.767E-3	-32.3371E-3	-143.810E-12	670.767E-3	-34.6220E-3
-3.77939E-3	-143.357E-12	678.952E-3	-7.24171E-3	-145.027E-12	660.600E-3	-37.5219E-3
-3.78439E-3	-143.917E-12	674.206E-3	32.4508E-3	-143.877E-12	634.621E-3	-26.1608E-3
-3.78939E-3	-144.183E-12	657.322E-3	29.3266E-3	-144.292E-12	630.184E-3	-300.825E-6
-3.79440E-3	-144.151E-12	670.630E-3	-9.24236E-3	-145.737E-12	630.634E-3	7.94906E-3
-3.79940E-3	-143.584E-12	687.633E-3	-10.7124E-3	-145.910E-12	615.949E-3	5.75594E-3
-3.80440E-3	-142.258E-12	661.752E-3	-10.1172E-3	-144.797E-12	612.194E-3	1.02174E-3
-3.80940E-3	-142.309E-12	639.841E-3	-42.9198E-3	-145.393E-12	631.773E-3	-16.8073E-3
-3.81441E-3	-144.911E-12	648.911E-3	-48.1388E-3	-145.673E-12	652.707E-3	-15.1502E-3
-3.81941E-3	-144.501E-12	650.535E-3	-43.1153E-3	-145.545E-12	653.230E-3	13.7106E-3
-3.82441E-3	-143.059E-12	663.492E-3	-40.4253E-3	-143.808E-12	632.795E-3	27.1537E-3
-3.82941E-3	-141.920E-12	673.127E-3	-7.67215E-3	-143.917E-12	625.187E-3	8.18009E-3
-3.83442E-3	-143.776E-12	643.132E-3	6.78055E-3	-144.510E-12	644.080E-3	-15.1537E-3
-3.83942E-3	-145.976E-12	630.732E-3	-19.2528E-3	-144.671E-12	665.197E-3	-38.3417E-3
-3.84442E-3	-146.054E-12	629.168E-3	-37.3200E-3	-144.128E-12	665.466E-3	-53.0464E-3
-3.84942E-3	-144.956E-12	616.492E-3	-30.2635E-3	-144.541E-12	645.769E-3	-42.4029E-3
-3.85443E-3	-146.516E-12	641.832E-3	-15.6322E-3	-145.148E-12	642.732E-3	-30.8580E-3
-3.85943E-3	-149.456E-12	656.458E-3	-6.59596E-3	-146.854E-12	661.524E-3	-29.0729E-3
-3.86443E-3	-149.338E-12	643.673E-3	-22.2725E-3	-146.849E-12	682.448E-3	-28.8066E-3
-3.86943E-3	-148.193E-12	650.440E-3	-46.3789E-3	-146.014E-12	692.340E-3	-21.3408E-3
-3.87444E-3	-148.034E-12	647.128E-3	-40.7066E-3	-147.985E-12	678.753E-3	-2.01145E-3
-3.87944E-3	-149.941E-12	628.413E-3	-21.0002E-3	-148.673E-12	663.147E-3	14.6178E-3
-3.88444E-3	-151.312E-12	621.487E-3	-12.5836E-3	-148.113E-12	664.322E-3	6.17652E-3
-3.88944E-3	-149.779E-12	631.222E-3	-9.60890E-3	-147.362E-12	651.480E-3	-23.4317E-3
-3.89445E-3	-148.676E-12	642.026E-3	-12.4069E-3	-148.892E-12	641.140E-3	-33.0050E-3
-3.89945E-3	-149.889E-12	647.185E-3	-15.4656E-3	-148.792E-12	665.224E-3	-16.2368E-3
-3.90445E-3	-152.125E-12	660.756E-3	1.67934E-3	-149.478E-12	673.550E-3	-319.876E-6
-3.90945E-3	-151.675E-12	672.428E-3	16.8124E-3	-149.103E-12	670.792E-3	5.45412E-3
-3.91446E-3	-149.069E-12	683.952E-3	-1.34461E-3	-150.613E-12	685.919E-3	-1.95727E-3
-3.91946E-3	-148.588E-12	691.741E-3	-16.7299E-3	-149.321E-12	686.132E-3	-21.2907E-3
-3.92446E-3	-150.219E-12	648.909E-3	-3.88635E-3	-148.600E-12	663.399E-3	-32.3663E-3
-3.92946E-3	-150.399E-12	604.758E-3	-1.98022E-3	-149.831E-12	646.141E-3	-29.3813E-3
-3.93447E-3	-149.685E-12	631.318E-3	-3.14877E-3	-150.474E-12	640.929E-3	-21.0088E-3
-3.93947E-3	-148.396E-12	671.447E-3	1.35413E-3	-150.461E-12	633.738E-3	-8.11237E-3
-3.94447E-3	-149.766E-12	677.559E-3	-12.3506E-3	-149.994E-12	637.062E-3	-8.61527E-3
-3.94947E-3	-150.728E-12	678.741E-3	-7.94916E-3	-150.307E-12	644.808E-3	-30.3907E-3
-3.95448E-3	-150.668E-12	691.152E-3	8.95798E-3	-149.995E-12	635.299E-3	-60.2420E-3
-3.95948E-3	-150.287E-12	701.208E-3	-11.3426E-3	-150.545E-12	637.537E-3	-68.5386E-3
-3.96448E-3	-151.380E-12	691.190E-3	-36.3458E-3	-149.553E-12	654.537E-3	-50.6897E-3
-3.96948E-3	-153.208E-12	653.035E-3	-43.4936E-3	-149.456E-12	649.661E-3	-30.9821E-3
-3.97449E-3	-153.793E-12	637.527E-3	-50.2567E-3	-149.900E-12	645.794E-3	-27.5904E-3
-3.97949E-3	-153.842E-12	670.291E-3	-41.0506E-3	-150.618E-12	654.463E-3	-24.1091E-3
-3.98449E-3	-153.530E-12	675.109E-3	-32.0364E-3	-149.766E-12	652.159E-3	-11.3830E-3
-3.98949E-3	-154.802E-12	653.052E-3	-43.6414E-3	-148.975E-12	639.698E-3	-20.1075E-3
-3.99450E-3	-154.710E-12	666.631E-3	-54.9700E-3	-150.282E-12	643.320E-3	-36.7614E-3
-3.99950E-3	-154.704E-12	668.530E-3	-34.1025E-3	-150.733E-12	654.527E-3	-21.9547E-3
-4.00450E-3	-153.770E-12	651.845E-3	-16.1677E-3	-151.495E-12	644.958E-3	853.961E-6
-4.00950E-3	-153.482E-12	655.351E-3	-14.2874E-3	-149.797E-12	647.057E-3	-4.01140E-3
-4.01451E-3	-153.003E-12	652.220E-3	-8.85056E-6	-151.510E-12	647.748E-3	-18.4736E-3
-4.01951E-3	-152.530E-12	632.377E-3	-10.3808E-3	-153.214E-12	643.011E-3	-20.9861E-3
-4.02451E-3	-151.093E-12	620.356E-3	-25.6223E-3	-155.793E-12	650.925E-3	-19.1841E-3
-4.02951E-3	-150.818E-12	610.006E-3	-5.35733E-3	-154.366E-12	650.201E-3	-35.9806E-3
-4.03452E-3	-150.522E-12	598.349E-3	12.9166E-3	-154.265E-12	658.258E-3	-48.6752E-3
-4.03952E-3	-151.495E-12	601.954E-3	17.1273E-3	-155.611E-12	671.762E-3	-29.9771E-3
-4.04452E-3	-150.528E-12	612.959E-3	-918.335E-6	-155.489E-12	666.759E-3	-16.0764E-3
-4.04952E-3	-151.733E-12	624.100E-3	-31.4385E-3	-155.485E-12	652.138E-3	-10.9153E-3
-4.05453E-3	-152.703E-12	624.209E-3	-17.0155E-3	-153.741E-12	631.179E-3	-208.017E-6
-4.05953E-3	-154.763E-12	609.225E-3	7.05992E-3	-154.460E-12	615.652E-3	260.062E-6
-4.06453E-3	-154.709E-12	619.046E-3	-9.06358E-3	-154.593E-12	628.777E-3	-29.5048E-3
-4.06953E-3	-154.554E-12	651.460E-3	-20.6604E-3	-155.010E-12	639.712E-3	-64.5031E-3
-4.07454E-3	-155.144E-12	640.496E-3	-15.8380E-3	-154.336E-12	631.090E-3	-58.7338E-3
-4.07954E-3	-155.639E-12	608.606E-3	-24.0111E-3	-153.472E-12	624.416E-3	-47.5080E-3
-4.08454E-3	-157.540E-12	623.769E-3	-32.8724E-3	-154.267E-12	617.166E-3	-55.3235E-3
-4.08954E-3	-157.507E-12	649.274E-3	-33.7870E-3	-154.151E-12	607.973E-3	-43.6307E-3
-4.09455E-3	-156.786E-12	649.052E-3	-42.0611E-3	-155.363E-12	615.774E-3	-26.9779E-3
-4.09955E-3	-156.949E-12	648.391E-3	-50.9579E-3	-155.331E-12	643.908E-3	-19.6700E-3
-4.10455E-3	-156.809E-12	634.576E-3	-36.6305E-3	-156.058E-12	666.626E-3	-17.5396E-3
-4.10955E-3	-157.430E-12	603.380E-3	-7.75780E-3	-157.438E-12	663.114E-3	-23.2881E-3
-4.11456E-3	-156.589E-12	602.998E-3	5.95816E-3	-158.417E-12	663.993E-3	-22.6717E-3
-4.11956E-3	-156.248E-12	640.820E-3	4.08678E-3	-158.934E-12	674.284E-3	-24.2676E-3
-4.12456E-3	-156.167E-12	664.609E-3	-15.0663E-3	-158.849E-12	661.262E-3	-21.7379E-3
-4.12956E-3	-157.126E-12	672.789E-3	-32.5990E-3	-159.499E-12	640.002E-3	-4.03159E-3
-4.13457E-3	-156.320E-12	683.550E-3	-14.5469E-3	-159.665E-12	628.623E-3	-9.53218E-3
-4.13957E-3	-154.483E-12	660.530E-3	-3.07443E-3	-159.503E-12	628.707E-3	-27.5483E-3
-4.14457E-3	-155.876E-12	625.804E-3	-27.5153E-3	-159.591E-12	623.751E-3	-22.9494E-3
-4.14957E-3	-158.347E-12	630.277E-3	-32.1329E-3	-158.108E-12	612.264E-3	-11.6806E-3
-4.15458E-3	-159.335E-12	655.323E-3	-20.6319E-3	-158.160E-12	610.454E-3	-6.38684E-3
-4.15958E-3	-157.699E-12	673.408E-3	-32.3935E-3	-159.183E-12	607.821E-3	-7.70025E-3
-4.16458E-3	-158.331E-12	679.624E-3	-44.9493E-3	-159.012E-12	606.579E-3	-9.82059E-3
-4.16958E-3	-161.160E-12	666.686E-3	-34.6642E-3	-157.633E-12	622.779E-3	-8.13696E-3
-4.17459E-3	-162.215E-12	653.537E-3	-28.8078E-3	-157.982E-12	632.563E-3	4.04610E-3
-4.17959E-3	-162.165E-12	674.741E-3	-34.3708E-3	-160.455E-12	614.578E-3	14.0242E-3
-4.18459E-3	-160.959E-12	706.295E-3	-43.0230E-3	-160.922E-12	600.937E-3	-953.395E-6
-4.18959E-3	-163.328E-12	684.857E-3	-44.1432E-3	-159.635E-12	617.776E-3	-25.7520E-3
-4.19460E-3	-163.121E-12	652.206E-3	-7.22355E-3	-160.139E-12	648.730E-3	-35.1266E-3
-4.19960E-3	-163.702E-12	644.557E-3	21.5767E-3	-162.309E-12	671.084E-3	-20.9190E-3
-4.20460E-3	-161.652E-12	625.040E-3	-4.53251E-3	-164.606E-12	680.013E-3	906.425E-6
-4.20960E-3	-161.360E-12	638.071E-3	-29.7742E-3	-163.573E-12	667.775E-3	1.91613E-3
-4.21461E-3	-161.629E-12	660.753E-3	-37.4770E-3	-162.989E-12	651.144E-3	-7.18520E-3
-4.21961E-3	-161.231E-12	643.779E-3	-69.2702E-3	-163.952E-12	651.265E-3	-4.39708E-3
-4.22461E-3	-160.536E-12	638.728E-3	-79.3682E-3	-164.590E-12	643.513E-3	-3.57277E-3
-4.22961E-3	-159.950E-12	641.073E-3	-28.0409E-3	-163.703E-12	634.668E-3	-2.64150E-3
-4.23462E-3	-161.538E-12	619.415E-3	15.0513E-3	-163.220E-12	652.105E-3	-11.5828E-3
-4.23962E-3	-162.912E-12	618.031E-3	10.3489E-3	-163.571E-12	670.594E-3	-33.0958E-3
-4.24462E-3	-164.141E-12	641.835E-3	8.40438E-3	-162.664E-12	657.003E-3	-20.7715E-3
-4.24962E-3	-162.159E-12	636.407E-3	2.13831E-3	-161.932E-12	638.745E-3	2.10004E-3
-4.25463E-3	-163.682E-12	624.757E-3	-23.5588E-3	-161.564E-12	646.900E-3	-4.48268E-3
-4.25963E-3	-163.803E-12	632.244E-3	-28.3557E-3	-160.829E-12	637.899E-3	-12.2903E-3
-4.26463E-3	-165.375E-12	629.550E-3	-20.0586E-3	-161.648E-12	615.014E-3	-3.14428E-3
-4.26963E-3	-164.320E-12	604.966E-3	-11.6463E-3	-161.761E-12	624.728E-3	7.38680E-3
-4.27464E-3	-164.944E-12	612.435E-3	-5.66040E-3	-162.199E-12	618.013E-3	16.9990E-3
-4.27964E-3	-165.103E-12	647.819E-3	-7.47600E-3	-162.292E-12	607.410E-3	25.6878E-3
-4.28464E-3	-166.247E-12	661.604E-3	-11.7577E-3	-162.613E-12	620.301E-3	18.1496E-3
-4.28964E-3	-166.985E-12	671.821E-3	-24.8744E-3	-163.011E-12	632.394E-3	-6.58250E-3
-4.29465E-3	-166.259E-12	651.894E-3	-53.4828E-3	-163.805E-12	672.289E-3	-35.4225E-3
-4.29965E-3	-166.643E-12	618.608E-3	-78.1347E-3	-165.233E-12	692.115E-3	-52.6181E-3
-4.30465E-3	-166.002E-12	627.512E-3	-64.4209E-3	-165.549E-12	645.173E-3	-42.0906E-3
-4.30965E-3	-167.814E-12	637.639E-3	-24.8029E-3	-164.368E-12	600.734E-3	3.85849E-3
-4.31466E-3	-167.620E-12	622.869E-3	-917.577E-6	-164.745E-12	607.019E-3	20.5316E-3
-4.31966E-3	-165.948E-12	612.867E-3	-9.54515E-3	-165.165E-12	633.524E-3	-11.7957E-3
-4.32466E-3	-165.652E-12	611.886E-3	-20.2363E-3	-165.388E-12	654.955E-3	-11.9880E-3
-4.32966E-3	-167.347E-12	608.875E-3	-12.0863E-3	-164.688E-12	663.595E-3	8.67054E-3
-4.33467E-3	-168.603E-12	603.291E-3	8.89307E-3	-165.267E-12	636.783E-3	-26.3324E-3
-4.33967E-3	-165.587E-12	620.797E-3	16.0917E-3	-166.422E-12	594.956E-3	-71.5125E-3
-4.34467E-3	-165.752E-12	638.084E-3	7.39705E-3	-166.245E-12	598.837E-3	-51.5186E-3
-4.34967E-3	-166.063E-12	612.122E-3	12.0083E-3	-166.356E-12	630.672E-3	-18.2594E-3
-4.35468E-3	-167.200E-12	599.202E-3	18.0770E-3	-166.197E-12	641.259E-3	-4.72039E-3
-4.35968E-3	-165.504E-12	614.293E-3	16.0086E-3	-167.285E-12	648.198E-3	16.0837E-3
-4.36468E-3	-165.335E-12	627.190E-3	4.85975E-3	-166.605E-12	649.156E-3	22.0085E-3
-4.36968E-3	-165.370E-12	633.221E-3	-9.18649E-3	-165.151E-12	633.979E-3	2.06378E-3
-4.37469E-3	-167.012E-12	631.989E-3	-14.1969E-3	-166.064E-12	635.224E-3	-17.9996E-3
-4.37969E-3	-167.264E-12	636.621E-3	-12.7114E-3	-167.643E-12	646.150E-3	-16.7368E-3
-4.38469E-3	-166.528E-12	643.378E-3	-15.0564E-3	-168.332E-12	650.259E-3	8.25140E-3
-4.38969E-3	-167.800E-12	647.101E-3	-25.6623E-3	-166.698E-12	651.062E-3	6.28211E-3
-4.39470E-3	-168.179E-12	638.477E-3	-36.8293E-3	-166.647E-12	630.793E-3	-22.1980E-3
-4.39970E-3	-169.283E-12	629.515E-3	-45.3690E-3	-167.813E-12	617.167E-3	-23.5397E-3
-4.40470E-3	-168.857E-12	631.397E-3	-49.4066E-3	-169.730E-12	648.845E-3	-3.09260E-3
-4.40970E-3	-168.231E-12	636.998E-3	-33.8653E-3	-169.126E-12	671.861E-3	1.38191E-3
-4.41471E-3	-168.996E-12	656.252E-3	-19.2677E-3	-168.738E-12	643.324E-3	-14.7714E-3
-4.41971E-3	-171.189E-12	667.815E-3	-34.9086E-3	-168.656E-12	613.445E-3	-19.7287E-3
-4.42471E-3	-170.657E-12	656.822E-3	-45.2514E-3	-170.989E-12	630.193E-3	-20.7166E-3
-4.42971E-3	-168.737E-12	637.336E-3	-38.7015E-3	-170.907E-12	656.360E-3	-25.1098E-3
-4.43472E-3	-168.532E-12	624.218E-3	-41.9151E-3	-171.126E-12	645.871E-3	-16.7895E-3
-4.43972E-3	-168.389E-12	625.527E-3	-46.2710E-3	-171.159E-12	625.743E-3	-24.0822E-3
-4.44472E-3	-169.082E-12	635.221E-3	-30.5764E-3	-173.763E-12	626.463E-3	-36.5598E-3
-4.44972E-3	-168.146E-12	633.426E-3	-31.0412E-3	-174.573E-12	650.895E-3	-28.8334E-3
-4.45473E-3	-167.154E-12	623.257E-3	-48.8718E-3	-174.788E-12	683.523E-3	-16.2029E-3
-4.45973E-3	-167.509E-12	610.526E-3	-26.4517E-3	-173.004E-12	677.317E-3	-14.4781E-3
-4.46473E-3	-168.166E-12	593.095E-3	-6.61677E-3	-173.618E-12	648.993E-3	-18.2452E-3
-4.46973E-3	-168.724E-12	600.529E-3	-22.4929E-3	-174.972E-12	655.336E-3	-17.1998E-3
-4.47474E-3	-169.299E-12	613.265E-3	-24.4810E-3	-174.792E-12	669.400E-3	-18.0758E-3
-4.47974E-3	-171.632E-12	618.609E-3	-24.5220E-3	-173.236E-12	679.500E-3	-7.44277E-3
-4.48474E-3	-172.309E-12	639.718E-3	-41.1319E-3	-172.146E-12	684.613E-3	24.8031E-3
-4.48974E-3	-173.153E-12	661.950E-3	-44.8155E-3	-172.691E-12	686.945E-3	46.3483E-3
-4.49475E-3	-174.436E-12	671.037E-3	-39.9130E-3	-173.261E-12	681.562E-3	24.8059E-3
-4.49975E-3	-175.246E-12	672.171E-3	-55.7702E-3	-173.046E-12	669.361E-3	-1.34297E-3
-4.50475E-3	-177.152E-12	662.114E-3	-54.2479E-3	-171.364E-12	688.077E-3	-22.4966E-3
-4.50975E-3	-176.676E-12	649.151E-3	-17.6871E-3	-171.824E-12	701.546E-3	-33.4153E-3
-4.51476E-3	-177.524E-12	645.305E-3	-29.5251E-3	-173.820E-12	673.024E-3	-12.9506E-3
-4.51976E-3	-176.330E-12	647.948E-3	-65.2940E-3	-175.063E-12	659.547E-3	1.72497E-3
-4.52476E-3	-176.205E-12	654.586E-3	-55.8920E-3	-175.919E-12	672.978E-3	9.97025E-3
-4.52976E-3	-176.489E-12	661.147E-3	-43.4605E-3	-175.033E-12	666.375E-3	5.93418E-3
-4.53477E-3	-175.839E-12	660.045E-3	-16.5547E-3	-176.785E-12	651.026E-3	-448.373E-6
-4.53977E-3	-175.148E-12	648.189E-3	33.9150E-3	-177.001E-12	636.555E-3	4.59916E-3
-4.54477E-3	-173.988E-12	637.497E-3	57.2512E-3	-177.460E-12	613.631E-3	-9.88718E-3
-4.54977E-3	-173.742E-12	640.127E-3	46.3177E-3	-177.927E-12	615.825E-3	-34.7711E-3
-4.55478E-3	-173.794E-12	651.690E-3	20.9053E-3	-177.162E-12	637.347E-3	-62.0046E-3
-4.55978E-3	-173.501E-12	644.065E-3	-1.33542E-3	-178.002E-12	634.025E-3	-70.1903E-3
-4.56478E-3	-173.720E-12	619.685E-3	-6.58773E-3	-178.197E-12	620.500E-3	-41.2483E-3
-4.56978E-3	-174.950E-12	604.850E-3	6.80410E-3	-177.659E-12	611.011E-3	-34.3027E-3
-4.57479E-3	-175.222E-12	595.910E-3	4.59558E-3	-176.796E-12	624.267E-3	-55.7557E-3
-4.57979E-3	-175.605E-12	594.830E-3	-13.9133E-3	-178.311E-12	645.193E-3	-45.3235E-3
-4.58479E-3	-177.425E-12	613.135E-3	-17.9957E-3	-176.962E-12	627.222E-3	-19.2055E-3
-4.58979E-3	-178.661E-12	637.564E-3	-14.1634E-3	-175.788E-12	598.501E-3	-12.5196E-3
-4.59480E-3	-179.359E-12	654.544E-3	-5.31242E-3	-175.175E-12	607.976E-3	-15.7887E-3
-4.59980E-3	-179.531E-12	656.572E-3	16.7675E-3	-174.953E-12	632.875E-3	-24.6813E-3
-4.60480E-3	-180.881E-12	630.277E-3	33.1237E-3	-176.783E-12	643.383E-3	-38.8016E-3
-4.60980E-3	-182.126E-12	617.289E-3	-1.30723E-3	-176.098E-12	637.667E-3	-39.5885E-3
-4.61481E-3	-182.431E-12	648.585E-3	-30.2011E-3	-176.940E-12	631.022E-3	-19.1029E-3
-4.61981E-3	-181.742E-12	671.178E-3	-19.3247E-3	-177.253E-12	645.302E-3	-15.0099E-3
-4.62481E-3	-180.086E-12	665.985E-3	-26.0557E-3	-179.377E-12	662.828E-3	-46.1848E-3
-4.62981E-3	-180.256E-12	677.111E-3	-33.3488E-3	-180.174E-12	677.953E-3	-36.7075E-3
-4.63482E-3	-179.720E-12	675.218E-3	-39.4942E-3	-180.910E-12	687.435E-3	13.1578E-3
-4.63982E-3	-180.054E-12	633.608E-3	-40.0247E-3	-182.846E-12	680.818E-3	21.2345E-3
-4.64482E-3	-178.374E-12	606.513E-3	-17.4426E-3	-183.889E-12	681.875E-3	-3.37669E-3
-4.64982E-3	-179.018E-12	609.514E-3	-22.6192E-3	-184.401E-12	672.055E-3	-12.5706E-3
-4.65483E-3	-178.020E-12	641.594E-3	-24.1417E-3	-183.363E-12	658.213E-3	-12.9280E-3
-4.65983E-3	-179.384E-12	676.919E-3	2.90541E-3	-185.138E-12	662.231E-3	-27.1568E-3
-4.66483E-3	-179.385E-12	674.888E-3	-83.8887E-6	-185.207E-12	662.622E-3	-26.5796E-3
-4.66983E-3	-179.467E-12	654.538E-3	-6.97496E-3	-182.832E-12	633.386E-3	-9.59671E-3
-4.67484E-3	-180.189E-12	648.758E-3	9.98204E-3	-181.168E-12	596.262E-3	-17.1561E-3
-4.67984E-3	-182.520E-12	657.262E-3	16.0731E-3	-182.281E-12	596.574E-3	-41.1645E-3
-4.68484E-3	-182.433E-12	663.935E-3	3.19817E-3	-183.230E-12	610.428E-3	-48.1392E-3
-4.68984E-3	-180.751E-12	663.417E-3	-8.17572E-3	-180.742E-12	616.675E-3	-34.2215E-3
-4.69485E-3	-181.479E-12	651.839E-3	-14.5678E-3	-179.167E-12	623.087E-3	-32.0056E-3
-4.69985E-3	-183.263E-12	655.164E-3	-39.0405E-3	-180.185E-12	644.047E-3	-50.3336E-3
-4.70485E-3	-184.411E-12	667.654E-3	-71.4209E-3	-182.574E-12	668.058E-3	-45.3784E-3
-4.70985E-3	-182.416E-12	651.859E-3	-69.1861E-3	-182.753E-12	663.597E-3	-32.9948E-3
-4.71486E-3	-182.704E-12	632.560E-3	-46.2393E-3	-182.282E-12	631.865E-3	-34.0174E-3
-4.71986E-3	-183.181E-12	619.672E-3	-38.3081E-3	-181.865E-12	622.516E-3	-45.2722E-3
-4.72486E-3	-183.554E-12	614.425E-3	-30.7780E-3	-183.440E-12	657.646E-3	-32.2039E-3
-4.72986E-3	-183.529E-12	621.631E-3	-9.16923E-3	-184.892E-12	679.948E-3	11.4598E-3
-4.73487E-3	-183.763E-12	623.898E-3	-11.9907E-3	-186.374E-12	685.447E-3	581.630E-6
-4.73987E-3	-181.674E-12	610.576E-3	-32.2423E-3	-185.690E-12	689.658E-3	-40.3365E-3
-4.74487E-3	-182.663E-12	601.076E-3	-20.1664E-3	-185.280E-12	673.078E-3	-35.0953E-3
-4.74988E-3	-183.809E-12	616.491E-3	-9.99352E-3	-186.055E-12	642.030E-3	-7.05363E-3
-4.75488E-3	-183.681E-12	625.346E-3	-34.0247E-3	-187.478E-12	618.772E-3	11.0215E-3
-4.75988E-3	-182.953E-12	632.268E-3	-46.1295E-3	-188.338E-12	632.198E-3	20.5727E-3
-4.76488E-3	-182.338E-12	655.996E-3	-21.4472E-3	-186.522E-12	663.973E-3	13.5540E-3
-4.76988E-3	-183.411E-12	655.041E-3	-22.0078E-3	-186.230E-12	657.393E-3	-15.6305E-3
-4.77489E-3	-184.003E-12	622.615E-3	-57.6995E-3	-187.066E-12	629.544E-3	-41.4188E-3
-4.77989E-3	-184.000E-12	618.536E-3	-56.4448E-3	-188.827E-12	623.779E-3	-46.0057E-3
-4.78489E-3	-183.668E-12	645.284E-3	-17.0287E-3	-186.519E-12	636.265E-3	-37.4395E-3
-4.78989E-3	-184.253E-12	649.592E-3	-3.17277E-3	-185.673E-12	664.178E-3	-38.0040E-3
-4.79490E-3	-185.721E-12	628.862E-3	-24.6643E-3	-186.142E-12	665.347E-3	-44.4926E-3
-4.79990E-3	-186.000E-12	635.383E-3	-40.4079E-3	-187.366E-12	638.758E-3	-47.3518E-3
-4.80490E-3	-184.251E-12	659.559E-3	-53.4414E-3	-187.358E-12	653.682E-3	-36.1579E-3
-4.80990E-3	-184.184E-12	650.906E-3	-39.3667E-3	-186.124E-12	692.999E-3	-12.8425E-3
-4.81491E-3	-186.923E-12	620.895E-3	10.2691E-3	-186.112E-12	697.807E-3	5.54250E-3
-4.81991E-3	-187.656E-12	603.947E-3	37.5459E-3	-186.740E-12	681.658E-3	7.65874E-3
-4.82491E-3	-187.664E-12	623.996E-3	13.8986E-3	-188.410E-12	669.688E-3	-23.4900E-3
-4.82991E-3	-186.829E-12	652.176E-3	-19.6172E-3	-188.620E-12	652.605E-3	-41.0661E-3
-4.83492E-3	-188.646E-12	652.573E-3	-27.8463E-3	-187.821E-12	649.100E-3	-20.3329E-3
-4.83992E-3	-189.653E-12	639.125E-3	-49.0115E-3	-188.414E-12	654.069E-3	-6.92199E-3
-4.84492E-3	-188.687E-12	630.834E-3	-45.9987E-3	-189.213E-12	628.557E-3	-15.5432E-3
-4.84992E-3	-188.762E-12	633.208E-3	-17.1669E-3	-190.354E-12	610.945E-3	-21.7604E-3
-4.85493E-3	-189.173E-12	630.674E-3	-26.8616E-3	-189.615E-12	630.557E-3	-28.0000E-3
-4.85993E-3	-189.992E-12	642.084E-3	-33.8006E-3	-190.008E-12	642.483E-3	-46.1482E-3
-4.86493E-3	-188.267E-12	655.042E-3	-34.2284E-3	-191.144E-12	638.898E-3	-28.9427E-3
-4.86993E-3	-188.761E-12	646.511E-3	-39.1643E-3	-191.622E-12	637.297E-3	3.52480E-3
-4.87494E-3	-188.859E-12	647.340E-3	-23.1951E-3	-191.786E-12	623.902E-3	-12.1218E-3
-4.87994E-3	-189.546E-12	644.449E-3	554.129E-6	-190.922E-12	602.854E-3	-45.7554E-3
-4.88494E-3	-189.622E-12	631.680E-3	-9.39967E-3	-191.702E-12	613.340E-3	-50.4835E-3
-4.88995E-3	-190.410E-12	628.604E-3	-28.0458E-3	-191.710E-12	641.778E-3	-32.3782E-3
-4.89495E-3	-190.130E-12	634.016E-3	-30.8335E-3	-192.522E-12	645.570E-3	-2.23612E-3
-4.89995E-3	-191.031E-12	646.317E-3	-49.6609E-3	-191.921E-12	634.637E-3	24.3554E-3
-4.90495E-3	-191.354E-12	656.148E-3	-48.5965E-3	-189.909E-12	634.042E-3	33.0156E-3
-4.90995E-3	-192.563E-12	652.845E-3	-12.4650E-3	-190.647E-12	648.461E-3	31.6803E-3
-4.91496E-3	-194.541E-12	638.037E-3	-7.36133E-3	-192.268E-12	679.310E-3	10.9292E-3
-4.91996E-3	-194.688E-12	643.364E-3	-20.3985E-3	-190.767E-12	697.736E-3	-15.8285E-3
-4.92496E-3	-197.114E-12	674.484E-3	5.59082E-3	-189.315E-12	677.440E-3	-13.8036E-3
-4.92996E-3	-196.822E-12	678.360E-3	21.1490E-3	-188.945E-12	668.522E-3	-18.9417E-3
-4.93497E-3	-196.156E-12	675.769E-3	208.104E-6	-190.689E-12	687.073E-3	-42.2699E-3
-4.93997E-3	-195.066E-12	674.081E-3	-18.0010E-3	-192.236E-12	688.727E-3	-45.7700E-3
-4.94497E-3	-195.961E-12	642.071E-3	-31.1731E-3	-192.239E-12	678.757E-3	-40.7106E-3
-4.94997E-3	-194.709E-12	635.475E-3	-33.3026E-3	-191.057E-12	663.496E-3	-30.5666E-3
-4.95498E-3	-193.231E-12	649.782E-3	-9.58112E-3	-193.134E-12	649.829E-3	-37.9969E-3
-4.95998E-3	-193.580E-12	638.016E-3	2.72919E-3	-193.720E-12	657.884E-3	-62.9843E-3
-4.96498E-3	-192.943E-12	617.128E-3	-13.6031E-3	-194.158E-12	679.626E-3	-60.7550E-3
-4.96998E-3	-192.603E-12	601.914E-3	-18.9017E-3	-193.779E-12	669.005E-3	-39.7304E-3
-4.97499E-3	-190.490E-12	614.304E-3	-14.0472E-3	-195.638E-12	623.899E-3	-17.1350E-3
-4.97999E-3	-191.935E-12	632.596E-3	-27.7026E-3	-195.865E-12	614.899E-3	-18.9563E-3
-4.98499E-3	-193.161E-12	633.760E-3	-44.2416E-3	-194.372E-12	636.636E-3	-39.6630E-3
-4.98999E-3	-193.631E-12	646.031E-3	-34.2674E-3	-194.088E-12	636.211E-3	-13.6402E-3
-4.99500E-3	-192.362E-12	652.099E-3	-19.4178E-3	-194.888E-12	613.413E-3	30.4260E-3
-5.00000E-3	-193.828E-12	633.351E-3	-10.1461E-3	-195.530E-12	611.015E-3	18.3739E-3
