Experiment	bias spectroscopy	
Date	19.01.2016 18:39:30	
User		
X (m)	50.3283E-9	
Y (m)	256.256E-9	
Z (m)	-132.626E-9	
Z offset (m)	0E+0	
Settling time (s)	200E-6	
Integration time (s)	5E-3	
Z-Ctrl hold	TRUE	
Final Z (m)	N/A	
Filter type	None	
Order		
Cutoff frq		
Comment01	MnPc/Pb(111)	
Comment02	dz =00pm	
Comment03	7 Sweeps	
Comment04	MagField =0.T	
Comment05	Divider 1:10	
Comment06	Setpoint:5mV,200 pA	
Comment07	Lockin: 50uVrms,5ms,5mV	
Comment08	Gain:9; 912Hz modulation	
Comment09	T=1.06K	
Bias>Bias (V)	5E-3	
Bias>Calibration (V/V)	81.475E-3	
Bias>Offset (V)	1.046E-3	
Bias Spectroscopy>Sweep Start (V)	5E-3	
Bias Spectroscopy>Sweep End (V)	-5E-3	
Bias Spectroscopy>Num Pixel	2000	
Bias Spectroscopy>Z Avg time (s)	500E-3	
Bias Spectroscopy>Z offset (m)	0E+0	
Bias Spectroscopy>1st Settling time (s)	500E-3	
Bias Spectroscopy>Settling time (s)	200E-6	
Bias Spectroscopy>Integration time (s)	5E-3	
Bias Spectroscopy>End Settling time (s)	500E-3	
Bias Spectroscopy>Z control time (s)	500E-3	
Bias Spectroscopy>Max Slew rate (V/s)	Inf	
Bias Spectroscopy>backward sweep	TRUE	
Bias Spectroscopy>Z-controller hold	TRUE	
Bias Spectroscopy>Number of sweeps	7	
Bias Spectroscopy>Channels	Current (A);X% LockIn (V);Y% LockIn (V)	
Bias Spectroscopy>Reset Bias	TRUE	
Bias Spectroscopy>Record final Z	FALSE	
Bias Spectroscopy>Lock-In run	FALSE	
Bias Spectroscopy>Sweep mode	Linear	
Bias Spectroscopy>MultiLine Settings : Segment Start (V), Segment End (V), Settling (s), Integration (s), Steps (xn)	100E-3,3.3E-3,100E-6,10E-3,2500;3.3E-3,-3.3E-3,100E-6,10E-3,10;-3.3E-3,-100E-3,100E-6,10E-3,2500	
Current>Current (A)	200.056E-12	
Current>Calibration (A/V)	999.99900E-12	
Current>Offset (A)	-455.429E-15	
Current>Gain	LN 10^9	
Z-Controller>Z (m)	-132.625E-9	
Z-Controller>Controller name	log Current	
Z-Controller>Controller status	ON	
Z-Controller>Setpoint	200E-12	
Z-Controller>Setpoint unit	A	
Z-Controller>P gain	2.96994E-12	
Z-Controller>I gain	67.0321E-9	
Z-Controller>Time const (s)	44.3062E-6	
Z-Controller>TipLift (m)	0E+0	
Z-Controller>Switch off delay (s)	50E-3	
Current (A)	199.641E-12	
Z (m)	-132.625E-9	

[DATA]
Bias calc (V)	Current (A)	X% LockIn (V)	Y% LockIn (V)	Current [bwd] (A)	X% LockIn [bwd] (V)	Y% LockIn [bwd] (V)
5.00000E-3	206.129E-12	654.733E-3	-26.6967E-3	196.659E-12	639.604E-3	-12.9807E-3
4.99500E-3	206.114E-12	677.192E-3	-18.3796E-3	195.940E-12	624.263E-3	-13.5511E-3
4.98999E-3	206.732E-12	650.081E-3	-38.2827E-3	196.342E-12	623.029E-3	-15.3121E-3
4.98499E-3	205.783E-12	626.509E-3	-56.6826E-3	196.755E-12	625.526E-3	-20.4387E-3
4.97999E-3	205.800E-12	637.083E-3	-46.8756E-3	197.421E-12	630.742E-3	-18.0825E-3
4.97499E-3	203.999E-12	643.521E-3	-25.9537E-3	198.241E-12	627.934E-3	-17.3008E-3
4.96998E-3	203.232E-12	629.947E-3	-30.6316E-3	199.651E-12	618.358E-3	-14.7617E-3
4.96498E-3	202.048E-12	621.163E-3	-38.1422E-3	201.115E-12	624.357E-3	-419.485E-6
4.95998E-3	199.775E-12	626.597E-3	-28.4428E-3	201.390E-12	627.582E-3	2.94484E-3
4.95498E-3	197.671E-12	626.442E-3	-26.7568E-3	202.317E-12	625.222E-3	8.12876E-3
4.94997E-3	195.577E-12	624.436E-3	-24.9782E-3	202.455E-12	643.409E-3	23.6124E-3
4.94497E-3	194.585E-12	627.579E-3	-29.3301E-3	203.013E-12	643.887E-3	35.3736E-3
4.93997E-3	193.364E-12	626.867E-3	-24.1694E-3	202.479E-12	627.568E-3	26.8896E-3
4.93497E-3	192.096E-12	627.785E-3	3.61876E-3	201.599E-12	634.010E-3	-11.8589E-3
4.92996E-3	192.170E-12	630.337E-3	20.6046E-3	201.395E-12	647.416E-3	-49.7591E-3
4.92496E-3	193.481E-12	636.678E-3	-6.45328E-3	198.865E-12	644.008E-3	-32.6940E-3
4.91996E-3	194.280E-12	626.458E-3	-45.9946E-3	198.054E-12	629.657E-3	-6.34354E-3
4.91496E-3	195.579E-12	597.207E-3	-53.8509E-3	195.230E-12	629.515E-3	-34.4013E-3
4.90995E-3	197.058E-12	592.044E-3	-49.2742E-3	193.710E-12	629.272E-3	-52.7828E-3
4.90495E-3	199.068E-12	636.202E-3	-35.1492E-3	191.545E-12	621.881E-3	-32.4882E-3
4.89995E-3	199.555E-12	668.966E-3	-28.5879E-3	190.033E-12	613.408E-3	-20.9040E-3
4.89495E-3	200.249E-12	660.910E-3	-28.3937E-3	188.423E-12	601.170E-3	-13.8855E-3
4.88995E-3	200.926E-12	658.900E-3	-20.9259E-3	187.870E-12	601.677E-3	-4.70143E-3
4.88494E-3	201.351E-12	648.330E-3	-20.6533E-3	187.654E-12	593.845E-3	-20.0942E-3
4.87994E-3	200.240E-12	637.224E-3	-32.2335E-3	188.527E-12	601.215E-3	-33.7545E-3
4.87494E-3	198.444E-12	661.839E-3	-39.7879E-3	189.317E-12	629.189E-3	-20.7521E-3
4.86993E-3	197.224E-12	682.356E-3	-24.3065E-3	190.388E-12	623.505E-3	-7.29374E-3
4.86493E-3	194.396E-12	667.903E-3	-15.4827E-3	191.869E-12	611.576E-3	-6.92645E-3
4.85993E-3	193.220E-12	641.207E-3	-28.6671E-3	192.919E-12	621.968E-3	-11.7417E-3
4.85493E-3	189.690E-12	620.024E-3	-19.2105E-3	194.022E-12	636.072E-3	-11.5603E-3
4.84992E-3	188.788E-12	627.236E-3	-6.65111E-3	195.968E-12	637.365E-3	-2.69517E-3
4.84492E-3	186.572E-12	629.796E-3	-11.7332E-3	196.448E-12	627.975E-3	11.0063E-3
4.83992E-3	186.389E-12	610.029E-3	-9.97544E-3	197.178E-12	631.588E-3	4.80712E-3
4.83492E-3	185.564E-12	607.307E-3	-10.2719E-3	196.755E-12	636.852E-3	-24.6595E-3
4.82991E-3	185.953E-12	620.270E-3	-22.3753E-3	197.254E-12	634.389E-3	-43.1630E-3
4.82491E-3	185.649E-12	624.637E-3	-43.4928E-3	195.469E-12	626.621E-3	-35.6641E-3
4.81991E-3	187.020E-12	600.381E-3	-52.7873E-3	194.339E-12	601.921E-3	-22.2272E-3
4.81491E-3	187.717E-12	573.683E-3	-43.2788E-3	192.267E-12	593.855E-3	-20.5520E-3
4.80990E-3	188.928E-12	578.751E-3	-7.44637E-3	190.927E-12	610.963E-3	-30.6382E-3
4.80490E-3	190.041E-12	606.255E-3	13.9736E-3	188.888E-12	623.389E-3	-42.0543E-3
4.79990E-3	191.464E-12	627.692E-3	-6.28749E-3	187.459E-12	629.696E-3	-38.9350E-3
4.79490E-3	192.487E-12	648.002E-3	-18.5081E-3	186.441E-12	639.008E-3	-19.1906E-3
4.78989E-3	193.628E-12	659.158E-3	-18.4953E-3	186.020E-12	631.219E-3	-4.60342E-3
4.78489E-3	194.175E-12	650.695E-3	-12.5799E-3	186.132E-12	625.398E-3	-8.88397E-3
4.77989E-3	194.881E-12	625.001E-3	1.84975E-3	186.538E-12	651.378E-3	-26.5701E-3
4.77489E-3	194.126E-12	604.346E-3	12.6466E-3	187.130E-12	679.358E-3	-20.8039E-3
4.76988E-3	194.040E-12	632.161E-3	7.73604E-3	187.698E-12	677.760E-3	7.87427E-3
4.76488E-3	193.215E-12	678.226E-3	-6.09362E-3	188.531E-12	652.338E-3	9.89909E-3
4.75988E-3	191.728E-12	681.600E-3	-24.8398E-3	189.374E-12	630.352E-3	-8.30110E-3
4.75488E-3	189.889E-12	662.097E-3	-41.8877E-3	190.386E-12	632.699E-3	-15.4828E-3
4.74988E-3	188.059E-12	652.717E-3	-38.2867E-3	191.313E-12	660.530E-3	-11.6505E-3
4.74487E-3	186.863E-12	654.296E-3	-36.0626E-3	192.008E-12	664.709E-3	-21.0660E-3
4.73987E-3	185.738E-12	652.134E-3	-43.6387E-3	193.546E-12	625.686E-3	-29.5175E-3
4.73487E-3	184.816E-12	629.451E-3	-27.4696E-3	193.193E-12	593.453E-3	-15.7360E-3
4.72986E-3	184.006E-12	612.012E-3	3.56473E-3	192.650E-12	606.756E-3	-3.87818E-3
4.72486E-3	184.169E-12	614.281E-3	1.72260E-3	191.614E-12	632.089E-3	-5.34219E-3
4.71986E-3	183.767E-12	634.958E-3	-28.9363E-3	191.051E-12	632.799E-3	-20.0121E-3
4.71486E-3	184.156E-12	649.315E-3	-46.6957E-3	189.813E-12	624.572E-3	-31.7176E-3
4.70985E-3	184.575E-12	640.589E-3	-32.6188E-3	188.776E-12	615.076E-3	-18.2101E-3
4.70485E-3	185.463E-12	647.859E-3	-18.2738E-3	187.020E-12	605.278E-3	476.327E-6
4.69985E-3	186.740E-12	655.941E-3	-13.6458E-3	186.435E-12	616.031E-3	-3.33344E-3
4.69485E-3	188.396E-12	653.156E-3	-5.00427E-3	185.639E-12	652.055E-3	-7.83741E-3
4.68984E-3	190.671E-12	650.968E-3	-4.90745E-3	184.585E-12	659.181E-3	-5.18595E-3
4.68484E-3	190.859E-12	629.659E-3	-12.1081E-3	184.044E-12	629.811E-3	-16.4380E-3
4.67984E-3	190.774E-12	615.835E-3	-2.45820E-3	183.424E-12	611.783E-3	-21.2485E-3
4.67484E-3	191.004E-12	635.012E-3	11.9734E-3	182.981E-12	609.811E-3	-23.4587E-3
4.66983E-3	190.986E-12	661.372E-3	-10.1863E-3	182.913E-12	627.111E-3	-39.8833E-3
4.66483E-3	189.553E-12	681.845E-3	-48.6754E-3	182.959E-12	643.834E-3	-33.0864E-3
4.65983E-3	188.363E-12	687.271E-3	-44.9271E-3	183.499E-12	638.608E-3	-20.6778E-3
4.65483E-3	187.405E-12	673.585E-3	-10.9690E-3	183.453E-12	633.069E-3	-24.9321E-3
4.64982E-3	185.937E-12	658.232E-3	10.5767E-3	183.676E-12	641.210E-3	-13.3627E-3
4.64482E-3	184.341E-12	653.344E-3	12.9489E-3	183.784E-12	649.086E-3	10.3036E-3
4.63982E-3	182.749E-12	643.606E-3	1.85828E-3	183.925E-12	638.525E-3	20.7115E-3
4.63482E-3	181.741E-12	629.606E-3	-5.55900E-3	184.146E-12	621.022E-3	1.94205E-3
4.62981E-3	181.145E-12	625.334E-3	-20.0866E-3	183.841E-12	617.645E-3	-21.2050E-3
4.62481E-3	179.903E-12	615.714E-3	-22.6126E-3	184.591E-12	635.604E-3	-23.0287E-3
4.61981E-3	179.521E-12	621.147E-3	841.796E-6	184.135E-12	649.711E-3	-17.0256E-3
4.61481E-3	179.870E-12	620.389E-3	-2.94380E-3	183.733E-12	627.917E-3	-14.7031E-3
4.60980E-3	179.702E-12	591.442E-3	-22.0018E-3	183.088E-12	598.643E-3	-23.6183E-3
4.60480E-3	181.193E-12	581.597E-3	-2.71772E-3	184.187E-12	596.184E-3	-34.0040E-3
4.59980E-3	181.811E-12	606.727E-3	14.8367E-3	182.662E-12	590.557E-3	-20.5766E-3
4.59480E-3	183.482E-12	633.397E-3	-20.1950E-3	182.386E-12	593.238E-3	-7.42754E-3
4.58979E-3	183.794E-12	644.247E-3	-38.7176E-3	181.779E-12	614.284E-3	-8.49076E-3
4.58479E-3	184.747E-12	658.939E-3	-24.9524E-3	181.612E-12	626.163E-3	-15.6794E-3
4.57979E-3	185.568E-12	668.383E-3	-16.1746E-3	180.686E-12	644.222E-3	-29.2662E-3
4.57479E-3	186.115E-12	663.405E-3	-9.00244E-3	180.642E-12	668.399E-3	-18.4818E-3
4.56978E-3	185.806E-12	656.476E-3	-8.26831E-3	180.165E-12	674.626E-3	17.8954E-3
4.56478E-3	186.181E-12	648.817E-3	-12.5526E-3	179.492E-12	667.216E-3	30.8953E-3
4.55978E-3	185.643E-12	652.702E-3	-14.7279E-3	180.256E-12	671.950E-3	7.99530E-3
4.55478E-3	184.787E-12	667.219E-3	-3.91557E-3	179.406E-12	672.551E-3	-2.84428E-3
4.54977E-3	184.133E-12	668.113E-3	7.34942E-3	179.584E-12	662.956E-3	-1.91976E-3
4.54477E-3	182.873E-12	663.605E-3	1.06016E-3	179.684E-12	647.765E-3	-1.24444E-3
4.53977E-3	181.112E-12	666.717E-3	-10.4449E-3	180.315E-12	624.774E-3	6.91229E-3
4.53477E-3	179.047E-12	649.603E-3	-13.2123E-3	180.451E-12	638.138E-3	-12.4578E-3
4.52976E-3	177.860E-12	607.135E-3	-1.69787E-3	181.361E-12	670.557E-3	-35.0303E-3
4.52476E-3	176.046E-12	594.398E-3	8.64975E-3	182.326E-12	667.958E-3	-31.4124E-3
4.51976E-3	175.474E-12	623.767E-3	-8.77787E-3	183.069E-12	663.053E-3	-25.8425E-3
4.51476E-3	175.160E-12	648.126E-3	-19.8566E-3	183.824E-12	665.740E-3	-23.2675E-3
4.50975E-3	175.326E-12	644.138E-3	329.833E-6	183.881E-12	664.578E-3	-20.3951E-3
4.50475E-3	174.712E-12	617.211E-3	11.6765E-3	183.494E-12	667.280E-3	-16.0478E-3
4.49975E-3	176.421E-12	601.145E-3	1.53761E-3	182.507E-12	668.388E-3	-12.6611E-3
4.49475E-3	177.742E-12	609.017E-3	-6.29648E-3	182.112E-12	663.427E-3	-18.8269E-3
4.48974E-3	178.565E-12	637.825E-3	-4.13341E-3	180.964E-12	651.236E-3	-42.0123E-3
4.48474E-3	179.859E-12	668.717E-3	-16.8936E-3	179.432E-12	644.970E-3	-54.1089E-3
4.47974E-3	180.415E-12	679.018E-3	-20.0580E-3	177.707E-12	633.079E-3	-52.7575E-3
4.47474E-3	181.476E-12	661.205E-3	-3.09973E-3	176.698E-12	618.587E-3	-43.8815E-3
4.46973E-3	181.542E-12	650.861E-3	-7.87501E-3	175.330E-12	617.972E-3	-15.0539E-3
4.46473E-3	182.141E-12	668.097E-3	-32.9556E-3	174.465E-12	617.798E-3	-10.3240E-3
4.45973E-3	181.390E-12	677.788E-3	-42.2109E-3	173.642E-12	620.448E-3	-33.9838E-3
4.45473E-3	181.463E-12	670.069E-3	-23.6626E-3	173.269E-12	619.101E-3	-39.3517E-3
4.44972E-3	180.053E-12	659.895E-3	-10.6567E-3	173.816E-12	617.169E-3	-33.3896E-3
4.44472E-3	179.768E-12	673.329E-3	-20.0053E-3	174.195E-12	645.579E-3	-36.9122E-3
4.43972E-3	177.764E-12	675.281E-3	-30.0963E-3	174.880E-12	663.929E-3	-31.1963E-3
4.43472E-3	176.368E-12	634.378E-3	-32.3256E-3	176.101E-12	633.874E-3	-19.7427E-3
4.42971E-3	174.420E-12	599.238E-3	-33.3266E-3	176.270E-12	622.873E-3	-30.9338E-3
4.42471E-3	172.383E-12	621.835E-3	-20.1032E-3	177.753E-12	652.747E-3	-41.2156E-3
4.41971E-3	171.511E-12	667.498E-3	7.86241E-3	177.390E-12	659.973E-3	-29.0256E-3
4.41471E-3	169.964E-12	672.256E-3	10.0196E-3	178.178E-12	648.344E-3	-11.2742E-3
4.40970E-3	169.507E-12	657.067E-3	-25.3105E-3	176.946E-12	626.286E-3	6.02157E-3
4.40470E-3	169.388E-12	656.679E-3	-48.7857E-3	177.050E-12	607.546E-3	8.57635E-3
4.39970E-3	169.823E-12	658.749E-3	-51.2465E-3	175.479E-12	615.289E-3	8.72163E-3
4.39470E-3	169.939E-12	651.135E-3	-47.2384E-3	174.281E-12	625.493E-3	13.6475E-3
4.38969E-3	170.589E-12	653.751E-3	-36.6638E-3	172.916E-12	609.616E-3	469.526E-6
4.38469E-3	171.256E-12	653.102E-3	-12.1463E-3	171.642E-12	571.720E-3	-12.6680E-3
4.37969E-3	172.379E-12	627.531E-3	3.45308E-3	170.184E-12	573.000E-3	-18.2531E-3
4.37469E-3	173.073E-12	615.257E-3	-12.5418E-3	168.944E-12	614.895E-3	-17.2926E-3
4.36968E-3	174.476E-12	641.699E-3	-11.8808E-3	167.969E-12	641.978E-3	6.50422E-3
4.36468E-3	174.925E-12	657.620E-3	-7.04695E-3	167.293E-12	644.280E-3	16.6766E-3
4.35968E-3	176.215E-12	633.903E-3	-27.9792E-3	167.230E-12	632.362E-3	-4.46594E-3
4.35468E-3	176.358E-12	625.366E-3	-42.3056E-3	167.751E-12	613.103E-3	-28.8719E-3
4.34967E-3	176.278E-12	641.582E-3	-20.5639E-3	168.642E-12	610.487E-3	-44.8137E-3
4.34467E-3	175.773E-12	663.062E-3	17.9577E-3	169.268E-12	632.507E-3	-44.1558E-3
4.33967E-3	174.845E-12	674.204E-3	17.5053E-3	170.284E-12	644.537E-3	-38.9252E-3
4.33467E-3	173.435E-12	658.825E-3	-20.0385E-3	171.583E-12	644.380E-3	-32.9148E-3
4.32966E-3	171.697E-12	636.269E-3	-46.0797E-3	172.381E-12	646.888E-3	-40.7227E-3
4.32466E-3	170.479E-12	614.521E-3	-44.2936E-3	173.082E-12	645.964E-3	-55.1577E-3
4.31966E-3	168.704E-12	615.443E-3	-31.0075E-3	172.884E-12	656.577E-3	-33.2949E-3
4.31466E-3	167.691E-12	628.007E-3	-19.7981E-3	173.120E-12	680.784E-3	-4.08243E-3
4.30965E-3	166.797E-12	621.117E-3	-19.0869E-3	173.835E-12	671.815E-3	1.97121E-3
4.30465E-3	166.356E-12	616.615E-3	-16.2555E-3	172.155E-12	637.958E-3	-992.745E-6
4.29965E-3	166.157E-12	615.511E-3	-4.06342E-3	171.323E-12	640.135E-3	-20.1620E-3
4.29465E-3	166.210E-12	617.217E-3	-5.71209E-3	170.702E-12	658.240E-3	-37.7954E-3
4.28964E-3	167.212E-12	644.988E-3	-25.8117E-3	169.449E-12	650.284E-3	-28.1203E-3
4.28464E-3	167.349E-12	662.862E-3	-28.9104E-3	168.595E-12	637.872E-3	-24.0149E-3
4.27964E-3	168.416E-12	658.332E-3	-14.1248E-3	167.869E-12	653.851E-3	-33.2808E-3
4.27464E-3	169.051E-12	658.718E-3	-11.6734E-3	166.997E-12	659.228E-3	-36.5312E-3
4.26963E-3	170.130E-12	641.876E-3	-15.7638E-3	166.122E-12	642.483E-3	-28.9255E-3
4.26463E-3	170.425E-12	625.724E-3	-21.8789E-3	166.747E-12	635.464E-3	-14.7124E-3
4.25963E-3	171.115E-12	646.894E-3	-46.4124E-3	166.351E-12	632.666E-3	-13.6846E-3
4.25463E-3	171.082E-12	656.911E-3	-68.6048E-3	166.593E-12	637.456E-3	-10.6756E-3
4.24962E-3	170.814E-12	642.379E-3	-56.1086E-3	166.576E-12	640.581E-3	5.94446E-3
4.24462E-3	170.164E-12	632.198E-3	-37.2228E-3	166.945E-12	624.026E-3	13.8273E-3
4.23962E-3	169.809E-12	635.039E-3	-32.4250E-3	167.593E-12	610.165E-3	15.7954E-3
4.23462E-3	168.798E-12	657.570E-3	-37.4128E-3	167.403E-12	624.777E-3	2.95628E-6
4.22961E-3	167.251E-12	672.278E-3	-36.7567E-3	168.576E-12	651.608E-3	-21.3806E-3
4.22461E-3	166.580E-12	663.275E-3	-22.8922E-3	168.324E-12	666.872E-3	-10.5141E-3
4.21961E-3	165.644E-12	648.492E-3	-9.46165E-3	168.844E-12	655.361E-3	-6.36848E-3
4.21461E-3	165.333E-12	641.582E-3	-1.38845E-3	168.657E-12	637.686E-3	-12.0432E-3
4.20960E-3	164.332E-12	630.648E-3	-5.98566E-3	167.977E-12	647.903E-3	-9.45080E-6
4.20460E-3	163.710E-12	618.155E-3	-8.17198E-3	167.448E-12	649.082E-3	-5.66242E-3
4.19960E-3	163.718E-12	615.431E-3	-2.06078E-3	166.679E-12	625.120E-3	-37.3947E-3
4.19460E-3	163.471E-12	626.484E-3	-2.58575E-3	165.769E-12	628.975E-3	-57.3920E-3
4.18959E-3	163.693E-12	630.128E-3	-15.8971E-3	165.427E-12	646.539E-3	-33.8863E-3
4.18459E-3	164.137E-12	630.363E-3	-25.3160E-3	164.789E-12	636.222E-3	-2.00724E-3
4.17959E-3	164.500E-12	635.884E-3	-22.0388E-3	164.296E-12	610.585E-3	-3.54842E-3
4.17459E-3	165.058E-12	633.487E-3	-19.6211E-3	163.902E-12	602.162E-3	-17.7637E-3
4.16958E-3	166.231E-12	648.501E-3	-17.9090E-3	164.276E-12	635.148E-3	-29.1051E-3
4.16458E-3	165.984E-12	672.171E-3	-40.7627E-6	163.184E-12	657.701E-3	-31.8136E-3
4.15958E-3	166.781E-12	676.690E-3	2.39845E-3	163.177E-12	643.397E-3	-28.7674E-3
4.15458E-3	167.410E-12	653.658E-3	-29.7055E-3	163.592E-12	633.145E-3	-31.5734E-3
4.14957E-3	166.824E-12	641.657E-3	-44.7843E-3	163.225E-12	638.481E-3	-16.8260E-3
4.14457E-3	166.426E-12	661.511E-3	-30.4828E-3	163.184E-12	653.599E-3	4.53190E-3
4.13957E-3	165.476E-12	655.302E-3	-26.3412E-3	162.794E-12	646.604E-3	-16.7126E-3
4.13457E-3	164.892E-12	629.705E-3	-31.3133E-3	163.094E-12	621.306E-3	-44.2643E-3
4.12956E-3	164.011E-12	629.919E-3	-29.4258E-3	163.140E-12	623.770E-3	-36.6974E-3
4.12456E-3	163.133E-12	633.975E-3	-18.4584E-3	163.298E-12	637.886E-3	-35.5195E-3
4.11956E-3	161.914E-12	626.851E-3	867.370E-6	163.110E-12	644.758E-3	-37.2234E-3
4.11456E-3	160.888E-12	628.710E-3	13.4525E-3	163.577E-12	661.921E-3	-24.8857E-3
4.10955E-3	161.082E-12	633.327E-3	7.96838E-3	163.944E-12	668.515E-3	-26.7397E-3
4.10455E-3	160.049E-12	633.832E-3	-3.22487E-3	163.527E-12	657.031E-3	-29.6355E-3
4.09955E-3	160.040E-12	618.046E-3	1.56408E-3	164.077E-12	647.718E-3	-38.4793E-3
4.09455E-3	159.543E-12	598.344E-3	-5.47247E-3	163.659E-12	646.371E-3	-45.2497E-3
4.08954E-3	159.515E-12	613.314E-3	-18.4221E-3	163.883E-12	650.535E-3	-20.8410E-3
4.08454E-3	159.054E-12	632.984E-3	-14.8948E-3	162.771E-12	648.720E-3	-11.0823E-3
4.07954E-3	159.239E-12	633.323E-3	-13.3922E-3	163.343E-12	626.135E-3	-22.9619E-3
4.07454E-3	159.416E-12	647.650E-3	-12.3043E-3	162.015E-12	601.262E-3	-15.1555E-3
4.06953E-3	159.815E-12	665.990E-3	-13.7667E-3	160.461E-12	610.040E-3	-20.9629E-3
4.06453E-3	159.688E-12	667.049E-3	-15.8972E-3	159.986E-12	624.996E-3	-43.8339E-3
4.05953E-3	160.336E-12	658.388E-3	-3.58977E-3	158.947E-12	620.193E-3	-17.7295E-3
4.05453E-3	160.289E-12	642.623E-3	15.0213E-3	157.624E-12	614.331E-3	29.1380E-3
4.04952E-3	159.986E-12	628.460E-3	133.187E-6	156.587E-12	619.236E-3	18.2142E-3
4.04452E-3	159.179E-12	618.610E-3	-25.0496E-3	156.000E-12	632.668E-3	-14.2400E-3
4.03952E-3	159.187E-12	626.924E-3	-8.26999E-3	155.457E-12	637.228E-3	-18.5285E-3
4.03452E-3	158.918E-12	650.013E-3	15.7646E-3	154.962E-12	622.145E-3	-10.5245E-3
4.02951E-3	158.314E-12	665.182E-3	6.56386E-3	155.094E-12	609.409E-3	8.68765E-3
4.02451E-3	157.685E-12	672.775E-3	-10.0970E-3	155.120E-12	618.848E-3	8.13136E-3
4.01951E-3	157.472E-12	669.666E-3	-19.4133E-3	156.030E-12	646.370E-3	-31.5331E-3
4.01451E-3	157.186E-12	663.560E-3	-31.1987E-3	156.642E-12	665.288E-3	-63.3808E-3
4.00950E-3	156.489E-12	662.363E-3	-29.0918E-3	157.704E-12	655.075E-3	-50.9714E-3
4.00450E-3	155.674E-12	644.611E-3	-22.3673E-3	158.528E-12	640.197E-3	-28.6571E-3
3.99950E-3	155.151E-12	611.167E-3	-28.6873E-3	159.019E-12	642.559E-3	-32.1129E-3
3.99450E-3	155.189E-12	604.774E-3	-32.3266E-3	159.798E-12	653.284E-3	-26.6899E-3
3.98949E-3	154.209E-12	623.745E-3	-24.4903E-3	159.842E-12	663.017E-3	-21.9130E-3
3.98449E-3	153.677E-12	636.870E-3	-28.8738E-3	160.290E-12	658.009E-3	-24.4755E-3
3.97949E-3	153.391E-12	644.319E-3	-27.3119E-3	158.779E-12	634.515E-3	-15.3357E-3
3.97449E-3	153.227E-12	637.590E-3	614.013E-6	158.880E-12	625.142E-3	-19.5437E-3
3.96948E-3	153.378E-12	628.590E-3	18.3073E-3	157.028E-12	639.120E-3	-26.3168E-3
3.96448E-3	154.032E-12	638.758E-3	9.11046E-3	156.623E-12	640.946E-3	-20.3263E-3
3.95948E-3	154.678E-12	649.929E-3	-10.9967E-3	154.437E-12	615.661E-3	-15.6820E-3
3.95448E-3	154.641E-12	661.204E-3	-23.8729E-3	153.531E-12	606.194E-3	-26.2477E-3
3.94947E-3	154.965E-12	646.185E-3	-31.6843E-3	152.278E-12	620.409E-3	-35.5315E-3
3.94447E-3	155.812E-12	610.165E-3	-25.1159E-3	151.795E-12	630.604E-3	-15.0930E-3
3.93947E-3	156.125E-12	614.735E-3	-8.27584E-3	150.955E-12	645.328E-3	6.44402E-3
3.93447E-3	156.218E-12	646.761E-3	-7.76179E-3	150.510E-12	661.977E-3	8.58459E-3
3.92946E-3	155.726E-12	665.770E-3	-14.0739E-3	151.541E-12	664.357E-3	-7.59739E-3
3.92446E-3	156.252E-12	661.507E-3	5.87709E-6	151.800E-12	655.053E-3	-25.7566E-3
3.91946E-3	155.829E-12	633.339E-3	14.5175E-3	153.312E-12	650.007E-3	-20.9434E-3
3.91446E-3	154.679E-12	620.259E-3	-2.91076E-3	153.869E-12	647.414E-3	-12.1593E-3
3.90945E-3	153.799E-12	638.653E-3	-24.7609E-3	155.442E-12	654.401E-3	4.97124E-3
3.90445E-3	153.092E-12	644.330E-3	-31.4713E-3	155.985E-12	677.216E-3	36.5079E-3
3.89945E-3	152.146E-12	638.576E-3	-38.8802E-3	157.424E-12	685.464E-3	41.1013E-3
3.89445E-3	150.778E-12	630.636E-3	-45.3074E-3	158.125E-12	669.063E-3	9.49189E-3
3.88944E-3	150.575E-12	621.855E-3	-39.1182E-3	157.669E-12	650.074E-3	-23.2498E-3
3.88444E-3	150.230E-12	634.150E-3	-31.7997E-3	157.298E-12	643.223E-3	-39.8216E-3
3.87944E-3	150.101E-12	657.662E-3	-43.1236E-3	155.995E-12	643.188E-3	-48.6709E-3
3.87444E-3	150.861E-12	653.931E-3	-57.7971E-3	155.381E-12	638.948E-3	-50.1936E-3
3.86943E-3	150.508E-12	625.775E-3	-49.1178E-3	153.065E-12	637.700E-3	-45.0578E-3
3.86443E-3	151.093E-12	618.134E-3	-39.6701E-3	152.098E-12	634.812E-3	-42.7287E-3
3.85943E-3	151.510E-12	636.381E-3	-31.1417E-3	150.418E-12	631.207E-3	-44.2141E-3
3.85443E-3	152.541E-12	638.835E-3	-7.68848E-3	148.510E-12	636.182E-3	-32.6364E-3
3.84942E-3	153.094E-12	622.324E-3	10.1160E-3	147.254E-12	638.486E-3	-23.2871E-3
3.84442E-3	152.829E-12	622.051E-3	10.7011E-3	145.952E-12	624.716E-3	-47.9513E-3
3.83942E-3	153.639E-12	635.818E-3	12.2300E-3	145.176E-12	611.928E-3	-63.7774E-3
3.83442E-3	153.225E-12	647.708E-3	20.8464E-3	145.502E-12	626.788E-3	-47.7043E-3
3.82941E-3	152.918E-12	650.878E-3	1.52357E-3	145.608E-12	645.455E-3	-28.0225E-3
3.82441E-3	151.924E-12	648.526E-3	-23.5287E-3	145.713E-12	642.382E-3	-20.3513E-3
3.81941E-3	151.385E-12	647.781E-3	-17.7845E-3	146.476E-12	631.482E-3	-28.2656E-3
3.81441E-3	150.249E-12	657.318E-3	7.79486E-3	147.103E-12	634.383E-3	-32.4403E-3
3.80940E-3	148.790E-12	654.256E-3	30.3725E-3	147.487E-12	643.938E-3	-32.6874E-3
3.80440E-3	147.487E-12	642.482E-3	27.5402E-3	148.153E-12	648.510E-3	-43.1185E-3
3.79940E-3	146.267E-12	658.115E-3	5.25473E-3	148.467E-12	651.734E-3	-48.0962E-3
3.79440E-3	145.243E-12	661.428E-3	-12.3035E-3	148.332E-12	650.187E-3	-40.5122E-3
3.78939E-3	143.964E-12	650.277E-3	-17.8167E-3	148.854E-12	660.411E-3	-30.7925E-3
3.78439E-3	144.048E-12	645.951E-3	-15.5215E-3	148.758E-12	678.729E-3	-22.7772E-3
3.77939E-3	144.152E-12	637.707E-3	-16.0155E-3	147.941E-12	677.306E-3	-21.1288E-3
3.77439E-3	144.074E-12	632.911E-3	-25.2426E-3	147.135E-12	659.273E-3	-24.9366E-3
3.76938E-3	144.645E-12	619.326E-3	-26.9683E-3	146.507E-12	643.714E-3	-32.7273E-3
3.76438E-3	146.225E-12	606.713E-3	-22.1494E-3	145.972E-12	633.787E-3	-25.8862E-3
3.75938E-3	146.568E-12	618.395E-3	-14.7874E-3	144.884E-12	630.222E-3	-20.5408E-3
3.75438E-3	146.904E-12	631.634E-3	-17.5314E-3	144.568E-12	642.617E-3	-39.8068E-3
3.74937E-3	147.650E-12	635.989E-3	-20.1140E-3	144.316E-12	651.400E-3	-43.2948E-3
3.74437E-3	148.904E-12	644.891E-3	-10.2687E-3	143.780E-12	654.043E-3	-33.9628E-3
3.73937E-3	148.616E-12	637.569E-3	-5.73717E-3	143.499E-12	647.721E-3	-30.5282E-3
3.73437E-3	148.316E-12	625.589E-3	9.25341E-3	143.171E-12	632.631E-3	-23.2458E-3
3.72936E-3	147.817E-12	642.344E-3	27.3346E-3	143.201E-12	645.787E-3	-6.32298E-3
3.72436E-3	146.965E-12	657.934E-3	19.1262E-3	143.033E-12	651.696E-3	10.7915E-3
3.71936E-3	145.042E-12	659.894E-3	-229.038E-6	143.494E-12	630.951E-3	-3.40529E-3
3.71436E-3	144.727E-12	656.467E-3	-13.1303E-3	143.499E-12	642.646E-3	-22.9626E-3
3.70935E-3	143.168E-12	646.268E-3	-24.7672E-3	143.548E-12	666.905E-3	-18.0801E-3
3.70435E-3	142.044E-12	642.037E-3	-33.3931E-3	142.985E-12	665.079E-3	-16.5816E-3
3.69935E-3	140.988E-12	646.214E-3	-31.3649E-3	143.766E-12	650.444E-3	-15.3178E-3
3.69435E-3	140.766E-12	647.157E-3	-27.1682E-3	144.091E-12	641.117E-3	-4.76107E-3
3.68934E-3	140.441E-12	646.343E-3	-24.8872E-3	144.402E-12	644.551E-3	3.05763E-3
3.68434E-3	139.896E-12	653.349E-3	-20.5345E-3	144.029E-12	655.303E-3	10.8847E-3
3.67934E-3	140.447E-12	656.200E-3	-19.6989E-3	144.888E-12	666.757E-3	5.53918E-3
3.67434E-3	140.900E-12	636.090E-3	-16.1958E-3	144.743E-12	667.943E-3	-7.34912E-3
3.66933E-3	141.465E-12	620.125E-3	-11.8321E-3	145.208E-12	675.264E-3	-4.46716E-3
3.66433E-3	142.167E-12	631.138E-3	-15.8057E-3	144.835E-12	698.673E-3	-8.93243E-3
3.65933E-3	142.630E-12	654.697E-3	-17.5277E-3	145.324E-12	706.913E-3	-17.2218E-3
3.65433E-3	143.639E-12	662.559E-3	-20.5373E-3	145.286E-12	686.922E-3	5.62863E-3
3.64932E-3	143.770E-12	649.332E-3	-31.1789E-3	145.528E-12	669.210E-3	27.1465E-3
3.64432E-3	143.843E-12	635.640E-3	-43.3623E-3	144.698E-12	669.087E-3	13.7073E-3
3.63932E-3	143.550E-12	646.487E-3	-42.5037E-3	143.777E-12	668.605E-3	-2.88980E-3
3.63432E-3	143.306E-12	670.732E-3	-29.4659E-3	142.942E-12	664.663E-3	-9.21612E-3
3.62931E-3	142.902E-12	665.852E-3	-20.9542E-3	141.543E-12	656.129E-3	-18.4417E-3
3.62431E-3	142.253E-12	651.337E-3	-24.6840E-3	140.353E-12	634.692E-3	-17.6132E-3
3.61931E-3	142.149E-12	647.065E-3	-25.3289E-3	139.515E-12	623.666E-3	-16.4332E-3
3.61431E-3	141.402E-12	638.498E-3	-13.7002E-3	138.311E-12	629.268E-3	-24.0787E-3
3.60930E-3	140.491E-12	647.155E-3	-8.69778E-3	137.909E-12	633.078E-3	-22.8551E-3
3.60430E-3	140.541E-12	673.010E-3	-19.2222E-3	137.075E-12	637.197E-3	-15.9507E-3
3.59930E-3	139.877E-12	659.760E-3	-28.8894E-3	137.087E-12	652.645E-3	-9.33201E-3
3.59430E-3	139.206E-12	621.738E-3	-23.5691E-3	136.848E-12	667.636E-3	-6.63673E-3
3.58929E-3	138.948E-12	627.119E-3	-17.5277E-3	137.640E-12	669.439E-3	442.671E-6
3.58429E-3	138.972E-12	657.679E-3	-24.8705E-3	137.491E-12	675.667E-3	10.1213E-3
3.57929E-3	138.467E-12	656.066E-3	-46.2200E-3	138.506E-12	677.718E-3	-13.2394E-3
3.57429E-3	138.223E-12	634.059E-3	-47.8522E-3	138.772E-12	662.735E-3	-48.1431E-3
3.56928E-3	138.108E-12	622.542E-3	-24.9078E-3	139.270E-12	643.595E-3	-49.3047E-3
3.56428E-3	137.907E-12	619.572E-3	-13.5954E-3	140.109E-12	627.941E-3	-28.8658E-3
3.55928E-3	138.742E-12	634.400E-3	-23.9364E-3	139.940E-12	639.549E-3	-14.2477E-3
3.55428E-3	138.250E-12	662.060E-3	-24.3983E-3	139.780E-12	647.378E-3	-18.5039E-3
3.54927E-3	138.006E-12	681.574E-3	-6.64059E-3	139.264E-12	626.904E-3	-27.6928E-3
3.54427E-3	138.439E-12	674.528E-3	-730.059E-6	138.842E-12	626.446E-3	-31.5292E-3
3.53927E-3	138.027E-12	647.877E-3	-640.703E-6	137.623E-12	647.617E-3	-30.5575E-3
3.53427E-3	137.978E-12	646.793E-3	-1.38246E-3	136.888E-12	659.546E-3	-7.29047E-3
3.52926E-3	137.995E-12	676.081E-3	-11.2309E-3	135.663E-12	654.790E-3	10.6773E-3
3.52426E-3	138.756E-12	679.415E-3	-21.6367E-3	134.468E-12	639.553E-3	-9.18796E-3
3.51926E-3	138.251E-12	664.756E-3	-24.9260E-3	133.286E-12	624.494E-3	-28.0389E-3
3.51426E-3	138.677E-12	674.126E-3	-17.2242E-3	132.493E-12	632.240E-3	-32.3518E-3
3.50925E-3	138.352E-12	679.623E-3	-1.36339E-3	131.630E-12	653.525E-3	-31.7656E-3
3.50425E-3	137.569E-12	678.829E-3	773.342E-6	131.458E-12	651.305E-3	-14.5016E-3
3.49925E-3	137.095E-12	684.282E-3	-9.78998E-3	131.562E-12	638.589E-3	-2.68865E-3
3.49425E-3	136.235E-12	674.099E-3	-10.4056E-3	131.871E-12	639.036E-3	-15.0203E-3
3.48924E-3	135.631E-12	651.847E-3	-531.677E-6	132.863E-12	638.671E-3	-32.0128E-3
3.48424E-3	133.735E-12	640.386E-3	7.20552E-3	133.038E-12	637.266E-3	-29.5596E-3
3.47924E-3	133.208E-12	639.414E-3	3.53542E-3	133.874E-12	654.395E-3	-21.1174E-3
3.47424E-3	132.287E-12	642.797E-3	-18.2105E-3	134.592E-12	666.150E-3	-22.9995E-3
3.46923E-3	131.766E-12	636.252E-3	-32.9696E-3	134.974E-12	652.416E-3	-28.8274E-3
3.46423E-3	131.201E-12	617.060E-3	-4.86959E-3	135.275E-12	643.903E-3	-30.4240E-3
3.45923E-3	130.228E-12	610.518E-3	19.6298E-3	135.014E-12	646.015E-3	-26.8971E-3
3.45423E-3	130.847E-12	618.911E-3	10.1367E-3	134.871E-12	632.924E-3	-13.2869E-3
3.44922E-3	130.211E-12	633.887E-3	-5.46429E-3	134.172E-12	636.964E-3	1.81750E-3
3.44422E-3	131.352E-12	627.123E-3	-14.7345E-3	133.871E-12	658.308E-3	-7.20045E-3
3.43922E-3	131.372E-12	616.948E-3	-6.24474E-3	133.116E-12	653.399E-3	-20.3032E-3
3.43422E-3	132.337E-12	641.259E-3	9.00854E-3	132.395E-12	648.617E-3	-15.1555E-3
3.42921E-3	132.876E-12	664.822E-3	12.6571E-3	131.491E-12	662.735E-3	-14.1227E-3
3.42421E-3	133.603E-12	660.558E-3	12.5715E-3	131.300E-12	664.827E-3	-22.4617E-3
3.41921E-3	133.965E-12	642.821E-3	327.925E-6	130.720E-12	652.505E-3	-19.7817E-3
3.41421E-3	133.853E-12	629.535E-3	-22.5804E-3	130.762E-12	652.423E-3	-8.54889E-3
3.40920E-3	133.903E-12	631.731E-3	-25.0992E-3	130.402E-12	660.171E-3	1.83362E-3
3.40420E-3	133.359E-12	645.013E-3	-29.7934E-3	131.068E-12	664.343E-3	3.37204E-3
3.39920E-3	132.660E-12	648.933E-3	-43.9832E-3	131.222E-12	663.626E-3	-8.73357E-3
3.39420E-3	131.927E-12	641.896E-3	-33.5421E-3	131.951E-12	659.735E-3	-6.80320E-3
3.38919E-3	131.120E-12	639.973E-3	-15.1313E-3	131.850E-12	664.923E-3	-5.08968E-3
3.38419E-3	130.695E-12	636.372E-3	-8.91623E-3	132.196E-12	670.592E-3	-18.0794E-3
3.37919E-3	129.184E-12	627.241E-3	-13.4060E-3	132.691E-12	685.104E-3	-17.9104E-3
3.37419E-3	127.908E-12	628.354E-3	-21.7417E-3	132.310E-12	696.063E-3	-5.39717E-3
3.36918E-3	127.565E-12	636.912E-3	-20.7849E-3	132.559E-12	667.516E-3	-8.19352E-3
3.36418E-3	126.504E-12	641.205E-3	-6.00460E-3	132.619E-12	642.956E-3	-16.7959E-3
3.35918E-3	126.412E-12	646.338E-3	12.4398E-3	131.976E-12	649.309E-3	-9.41564E-3
3.35418E-3	126.352E-12	654.081E-3	23.7923E-3	131.920E-12	660.967E-3	-16.2776E-3
3.34917E-3	127.945E-12	659.226E-3	19.7881E-3	131.720E-12	650.723E-3	-28.2578E-3
3.34417E-3	128.102E-12	654.672E-3	809.091E-6	130.323E-12	636.447E-3	-22.2908E-3
3.33917E-3	129.007E-12	640.095E-3	-14.4455E-3	129.538E-12	651.251E-3	-20.8796E-3
3.33417E-3	129.884E-12	636.034E-3	-2.43092E-3	129.072E-12	662.573E-3	-11.1882E-3
3.32916E-3	130.807E-12	651.656E-3	10.5379E-3	128.931E-12	661.651E-3	7.10826E-3
3.32416E-3	131.818E-12	665.879E-3	-7.13631E-3	128.092E-12	657.298E-3	-3.98853E-3
3.31916E-3	131.706E-12	669.067E-3	-19.2254E-3	127.294E-12	643.867E-3	-29.7298E-3
3.31416E-3	131.866E-12	668.171E-3	-25.2906E-3	127.445E-12	643.676E-3	-43.1936E-3
3.30915E-3	131.806E-12	663.288E-3	-32.7872E-3	127.015E-12	655.271E-3	-41.3811E-3
3.30415E-3	131.682E-12	672.558E-3	-23.6632E-3	127.155E-12	667.387E-3	-34.9092E-3
3.29915E-3	130.191E-12	701.505E-3	-14.5047E-3	126.905E-12	680.815E-3	-24.6003E-3
3.29415E-3	129.564E-12	704.862E-3	-14.2216E-3	126.679E-12	669.518E-3	-8.79406E-3
3.28914E-3	128.882E-12	676.997E-3	-20.4420E-3	126.784E-12	653.323E-3	-10.7518E-3
3.28414E-3	126.952E-12	649.319E-3	-28.7325E-3	127.051E-12	655.845E-3	-11.6090E-3
3.27914E-3	125.833E-12	646.551E-3	-12.8821E-3	126.527E-12	657.754E-3	-6.68528E-3
3.27414E-3	124.673E-12	650.021E-3	5.44182E-3	126.035E-12	655.193E-3	-20.8638E-3
3.26913E-3	124.747E-12	632.398E-3	-9.05281E-3	125.627E-12	651.089E-3	-40.2121E-3
3.26413E-3	123.568E-12	617.520E-3	-14.4810E-3	125.200E-12	645.861E-3	-53.7643E-3
3.25913E-3	124.249E-12	631.300E-3	2.68465E-3	124.350E-12	643.525E-3	-59.9653E-3
3.25413E-3	123.833E-12	662.003E-3	3.56707E-3	123.612E-12	658.316E-3	-32.5037E-3
3.24912E-3	124.755E-12	674.154E-3	-9.83768E-3	123.315E-12	676.021E-3	4.03199E-3
3.24412E-3	124.651E-12	663.048E-3	-22.3386E-3	122.784E-12	666.817E-3	329.093E-6
3.23912E-3	125.044E-12	658.555E-3	-41.4642E-3	122.465E-12	653.085E-3	-3.64416E-3
3.23412E-3	125.085E-12	661.404E-3	-53.4964E-3	122.208E-12	660.719E-3	948.129E-6
3.22911E-3	124.887E-12	662.734E-3	-49.3936E-3	121.858E-12	666.536E-3	-19.5189E-3
3.22411E-3	125.453E-12	672.149E-3	-39.8424E-3	122.201E-12	656.485E-3	-36.3381E-3
3.21911E-3	124.622E-12	674.850E-3	-24.4033E-3	122.059E-12	646.278E-3	-28.5469E-3
3.21411E-3	124.151E-12	669.359E-3	-12.5331E-3	122.418E-12	645.735E-3	-20.2330E-3
3.20910E-3	122.775E-12	666.363E-3	-9.39546E-3	121.613E-12	650.517E-3	-18.1180E-3
3.20410E-3	122.622E-12	670.273E-3	5.42535E-3	121.831E-12	660.113E-3	-12.5744E-3
3.19910E-3	121.191E-12	666.824E-3	1.72600E-3	121.544E-12	667.878E-3	-1.00026E-3
3.19410E-3	120.572E-12	642.262E-3	-33.0982E-3	121.509E-12	652.802E-3	4.13279E-3
3.18909E-3	120.093E-12	634.368E-3	-34.8401E-3	121.413E-12	638.973E-3	-8.92964E-3
3.18409E-3	119.376E-12	645.063E-3	-21.2517E-3	120.908E-12	644.074E-3	-23.7472E-3
3.17909E-3	119.089E-12	646.138E-3	-33.1353E-3	120.617E-12	641.782E-3	-24.7883E-3
3.17409E-3	119.068E-12	638.319E-3	-42.4369E-3	120.456E-12	632.947E-3	-5.49369E-3
3.16908E-3	118.463E-12	626.110E-3	-41.6548E-3	120.594E-12	641.508E-3	13.5175E-3
3.16408E-3	118.543E-12	627.289E-3	-31.7006E-3	120.072E-12	681.154E-3	-386.832E-6
3.15908E-3	118.702E-12	641.015E-3	-5.00197E-3	120.143E-12	710.580E-3	-19.6095E-3
3.15408E-3	119.229E-12	651.420E-3	13.9189E-3	120.134E-12	699.829E-3	-25.8440E-3
3.14907E-3	119.061E-12	658.025E-3	2.49647E-3	120.805E-12	685.549E-3	-29.0314E-3
3.14407E-3	119.272E-12	664.021E-3	-18.3415E-3	120.603E-12	675.717E-3	-35.7863E-3
3.13907E-3	119.041E-12	658.961E-3	-28.2963E-3	120.718E-12	674.475E-3	-45.0409E-3
3.13407E-3	119.234E-12	640.446E-3	-27.5833E-3	120.503E-12	672.343E-3	-43.2796E-3
3.12906E-3	119.324E-12	638.137E-3	-20.2160E-3	120.396E-12	658.395E-3	-32.4435E-3
3.12406E-3	119.212E-12	653.664E-3	-13.9865E-3	120.413E-12	667.239E-3	-17.1708E-3
3.11906E-3	118.962E-12	658.587E-3	-5.17707E-3	119.704E-12	670.165E-3	-16.6433E-3
3.11406E-3	118.818E-12	660.110E-3	9.23806E-3	119.535E-12	646.212E-3	-38.5307E-3
3.10905E-3	118.889E-12	659.575E-3	10.3082E-3	118.749E-12	648.120E-3	-31.4743E-3
3.10405E-3	118.391E-12	653.629E-3	-4.92004E-3	118.397E-12	669.059E-3	1.20047E-3
3.09905E-3	118.352E-12	661.052E-3	-18.6831E-3	117.828E-12	678.240E-3	-3.07256E-3
3.09405E-3	117.803E-12	667.615E-3	-20.2214E-3	117.491E-12	679.118E-3	-28.2842E-3
3.08904E-3	117.256E-12	662.594E-3	-24.7190E-3	117.010E-12	666.394E-3	-36.3676E-3
3.08404E-3	117.076E-12	662.054E-3	-30.2919E-3	117.069E-12	649.171E-3	-31.4345E-3
3.07904E-3	117.037E-12	665.530E-3	-15.0083E-3	116.774E-12	645.771E-3	-16.6196E-3
3.07404E-3	116.542E-12	670.604E-3	-3.83119E-3	116.618E-12	653.248E-3	-8.06921E-3
3.06903E-3	116.137E-12	684.256E-3	-12.7045E-3	116.801E-12	657.111E-3	-15.6072E-3
3.06403E-3	116.308E-12	679.413E-3	-16.1001E-3	116.655E-12	651.240E-3	-26.8976E-3
3.05903E-3	116.560E-12	656.269E-3	-17.0647E-3	117.494E-12	654.992E-3	-41.1028E-3
3.05403E-3	115.870E-12	654.584E-3	-29.0290E-3	117.090E-12	672.195E-3	-49.4013E-3
3.04902E-3	115.734E-12	666.263E-3	-34.7267E-3	117.718E-12	676.789E-3	-38.6055E-3
3.04402E-3	116.050E-12	663.947E-3	-24.1948E-3	116.883E-12	663.308E-3	-23.1489E-3
3.03902E-3	115.682E-12	657.754E-3	-20.3230E-3	117.365E-12	652.723E-3	-25.1430E-3
3.03402E-3	115.449E-12	665.764E-3	-20.9566E-3	116.570E-12	660.319E-3	-29.5614E-3
3.02901E-3	115.348E-12	675.700E-3	-10.6014E-3	116.154E-12	665.989E-3	-18.5151E-3
3.02401E-3	114.925E-12	683.165E-3	-20.8509E-3	115.211E-12	663.369E-3	719.910E-6
3.01901E-3	114.934E-12	684.491E-3	-37.5727E-3	115.054E-12	655.297E-3	12.0210E-3
3.01401E-3	114.735E-12	673.031E-3	-26.7933E-3	113.932E-12	645.670E-3	-1.41264E-3
3.00900E-3	114.020E-12	659.650E-3	-18.5530E-3	112.819E-12	656.889E-3	-22.3906E-3
3.00400E-3	114.058E-12	661.538E-3	-12.6118E-3	112.389E-12	670.296E-3	-24.7209E-3
2.99900E-3	114.078E-12	670.944E-3	7.98199E-3	111.498E-12	670.552E-3	-20.7172E-3
2.99400E-3	113.506E-12	666.707E-3	23.0990E-3	111.316E-12	663.985E-3	-21.0510E-3
2.98899E-3	112.679E-12	661.508E-3	23.0905E-3	110.701E-12	655.137E-3	-21.5988E-3
2.98399E-3	112.305E-12	659.603E-3	24.8305E-3	110.931E-12	655.209E-3	-22.0826E-3
2.97899E-3	112.138E-12	659.583E-3	15.4770E-3	111.139E-12	657.895E-3	-20.9446E-3
2.97399E-3	111.629E-12	667.600E-3	-16.9108E-3	111.774E-12	662.644E-3	-8.55859E-3
2.96898E-3	111.448E-12	675.049E-3	-19.7225E-3	111.879E-12	675.065E-3	16.2774E-3
2.96398E-3	110.849E-12	662.355E-3	-1.84867E-3	112.523E-12	676.566E-3	14.8006E-3
2.95898E-3	109.993E-12	643.352E-3	-16.1756E-3	112.267E-12	667.552E-3	-9.08374E-3
2.95398E-3	109.602E-12	640.731E-3	-23.9169E-3	112.125E-12	666.226E-3	-8.34625E-3
2.94897E-3	109.848E-12	642.028E-3	-12.5015E-3	112.531E-12	668.425E-3	-3.94958E-3
2.94397E-3	109.450E-12	641.088E-3	-16.1139E-3	111.535E-12	670.481E-3	-20.5883E-3
2.93897E-3	109.392E-12	646.208E-3	-18.6316E-3	111.332E-12	692.116E-3	-26.3871E-3
2.93397E-3	109.253E-12	643.361E-3	-3.22932E-3	110.968E-12	711.792E-3	-22.0135E-3
2.92896E-3	109.273E-12	638.751E-3	2.59328E-3	110.538E-12	689.741E-3	-23.2060E-3
2.92396E-3	109.957E-12	651.511E-3	-7.34722E-3	110.022E-12	663.270E-3	-16.2112E-3
2.91896E-3	109.893E-12	663.250E-3	-2.95581E-3	109.506E-12	663.185E-3	-13.7885E-3
2.91396E-3	110.356E-12	671.774E-3	-1.36650E-3	108.486E-12	667.090E-3	-21.3784E-3
2.90895E-3	110.776E-12	682.924E-3	-5.40633E-3	107.868E-12	667.444E-3	-16.8683E-3
2.90395E-3	111.161E-12	688.886E-3	10.2862E-3	107.376E-12	656.591E-3	-10.3430E-3
2.89895E-3	110.765E-12	688.771E-3	20.1418E-3	107.449E-12	646.778E-3	-20.1225E-3
2.89395E-3	110.572E-12	682.494E-3	3.07034E-3	106.811E-12	661.107E-3	-25.3735E-3
2.88894E-3	110.264E-12	678.381E-3	-22.1751E-3	106.983E-12	673.939E-3	-22.8590E-3
2.88394E-3	109.335E-12	683.480E-3	-33.8766E-3	106.993E-12	668.965E-3	-20.4631E-3
2.87894E-3	109.029E-12	682.470E-3	-20.6911E-3	107.070E-12	675.269E-3	-20.7921E-3
2.87394E-3	108.148E-12	680.826E-3	7.04809E-3	107.779E-12	691.285E-3	-28.7191E-3
2.86893E-3	107.228E-12	686.645E-3	11.1846E-3	107.573E-12	680.675E-3	-23.0131E-3
2.86393E-3	106.453E-12	684.872E-3	-12.8316E-3	107.683E-12	673.710E-3	-7.08358E-3
2.85893E-3	105.934E-12	671.113E-3	-21.5577E-3	108.015E-12	692.463E-3	-13.2014E-3
2.85393E-3	105.051E-12	653.077E-3	-11.6239E-3	107.915E-12	700.399E-3	-22.6368E-3
2.84892E-3	104.906E-12	653.346E-3	-9.05375E-3	107.741E-12	697.958E-3	-19.7761E-3
2.84392E-3	104.739E-12	669.113E-3	-13.3524E-3	107.900E-12	704.865E-3	-27.5861E-3
2.83892E-3	104.767E-12	675.092E-3	-18.9647E-3	107.702E-12	698.222E-3	-36.8239E-3
2.83392E-3	104.970E-12	683.167E-3	-15.5078E-3	107.512E-12	677.745E-3	-18.5048E-3
2.82891E-3	105.671E-12	695.374E-3	6.66494E-3	107.624E-12	687.550E-3	11.3198E-3
2.82391E-3	106.080E-12	684.668E-3	10.1344E-3	107.567E-12	713.959E-3	17.9059E-3
2.81891E-3	106.790E-12	676.409E-3	-12.7560E-3	106.475E-12	705.446E-3	9.77888E-3
2.81391E-3	107.668E-12	681.959E-3	-21.2079E-3	106.449E-12	672.388E-3	482.509E-6
2.80890E-3	108.253E-12	670.285E-3	-16.4162E-3	105.920E-12	650.956E-3	-11.2221E-3
2.80390E-3	108.121E-12	667.908E-3	-18.2559E-3	105.081E-12	648.009E-3	-15.9112E-3
2.79890E-3	108.009E-12	687.930E-3	-14.4899E-3	104.395E-12	655.310E-3	-22.8854E-3
2.79390E-3	107.458E-12	698.935E-3	-17.9638E-3	104.092E-12	655.933E-3	-23.2348E-3
2.78889E-3	106.729E-12	703.571E-3	-42.8861E-3	103.152E-12	657.060E-3	-11.7931E-3
2.78389E-3	105.971E-12	707.750E-3	-49.2701E-3	102.833E-12	677.168E-3	-15.8332E-3
2.77889E-3	104.561E-12	697.953E-3	-20.9095E-3	102.534E-12	701.636E-3	-20.1534E-3
2.77389E-3	103.638E-12	689.667E-3	-5.93481E-3	102.363E-12	708.657E-3	-10.8450E-3
2.76888E-3	102.663E-12	691.886E-3	-19.3086E-3	101.964E-12	694.127E-3	-2.63792E-3
2.76388E-3	101.760E-12	686.542E-3	-27.9232E-3	102.332E-12	673.114E-3	-10.5346E-3
2.75888E-3	100.914E-12	676.421E-3	-29.2008E-3	102.022E-12	666.043E-3	-29.4116E-3
2.75388E-3	100.292E-12	672.483E-3	-20.9070E-3	102.088E-12	681.715E-3	-38.5927E-3
2.74887E-3	100.000E-12	681.594E-3	-6.53075E-3	102.104E-12	697.042E-3	-41.2873E-3
2.74387E-3	99.5844E-12	689.767E-3	-2.23179E-3	101.815E-12	679.795E-3	-37.4587E-3
2.73887E-3	99.5448E-12	684.234E-3	-7.41899E-3	101.978E-12	651.811E-3	-26.7154E-3
2.73387E-3	99.7722E-12	675.603E-3	-15.6856E-3	101.873E-12	658.389E-3	-23.6052E-3
2.72886E-3	100.305E-12	667.750E-3	-19.6103E-3	101.601E-12	689.078E-3	-19.4666E-3
2.72386E-3	100.823E-12	666.756E-3	-20.9627E-3	101.810E-12	705.252E-3	-9.67350E-3
2.71886E-3	101.416E-12	685.245E-3	-25.0073E-3	101.343E-12	700.800E-3	-10.1340E-3
2.71386E-3	101.980E-12	702.829E-3	-33.2420E-3	101.274E-12	687.259E-3	-10.2357E-3
2.70885E-3	102.080E-12	695.470E-3	-27.2998E-3	100.560E-12	674.097E-3	-6.19308E-3
2.70385E-3	102.235E-12	678.696E-3	-9.89919E-3	100.589E-12	682.551E-3	-17.1868E-3
2.69885E-3	102.378E-12	678.787E-3	-5.53173E-3	99.7488E-12	699.295E-3	-46.1831E-3
2.69385E-3	102.126E-12	703.453E-3	-5.88788E-3	99.7711E-12	695.625E-3	-64.1404E-3
2.68884E-3	101.441E-12	721.177E-3	-2.09297E-3	99.0641E-12	681.328E-3	-61.1448E-3
2.68384E-3	100.701E-12	718.749E-3	-6.27577E-3	98.5003E-12	684.261E-3	-53.7077E-3
2.67884E-3	99.6145E-12	716.269E-3	-8.86496E-3	98.0106E-12	700.685E-3	-27.4474E-3
2.67384E-3	99.1485E-12	702.994E-3	5.97806E-3	97.5927E-12	700.638E-3	-1.75788E-3
2.66883E-3	97.9678E-12	684.125E-3	11.8964E-3	97.2087E-12	688.151E-3	-7.00526E-3
2.66383E-3	97.0401E-12	685.266E-3	-10.0294E-3	96.6968E-12	680.113E-3	-10.5841E-3
2.65883E-3	96.4462E-12	682.868E-3	-24.7039E-3	96.7212E-12	679.001E-3	-2.88744E-3
2.65383E-3	95.8760E-12	673.452E-3	-18.5079E-3	96.3908E-12	677.894E-3	-12.6587E-3
2.64882E-3	95.3746E-12	671.339E-3	-16.0308E-3	96.5956E-12	678.342E-3	-29.0057E-3
2.64382E-3	95.0406E-12	656.909E-3	-10.5333E-3	96.4989E-12	695.149E-3	-33.8898E-3
2.63882E-3	95.2609E-12	647.832E-3	-8.35284E-3	96.6142E-12	705.970E-3	-36.6376E-3
2.63382E-3	94.8231E-12	656.397E-3	-19.3651E-3	96.6857E-12	685.836E-3	-22.2088E-3
2.62881E-3	95.4384E-12	665.241E-3	-26.4849E-3	97.1426E-12	670.539E-3	769.209E-6
2.62381E-3	95.6154E-12	671.895E-3	-18.4117E-3	97.1811E-12	673.061E-3	-10.7318E-3
2.61881E-3	95.5395E-12	671.314E-3	-2.55779E-3	97.0455E-12	670.476E-3	-26.8483E-3
2.61381E-3	95.3364E-12	676.857E-3	-12.0212E-3	96.7762E-12	675.723E-3	-15.7132E-3
2.60880E-3	96.1072E-12	691.117E-3	-46.2680E-3	96.5346E-12	682.312E-3	-2.71077E-3
2.60380E-3	95.6451E-12	691.314E-3	-49.8520E-3	96.2773E-12	676.859E-3	-313.851E-6
2.59880E-3	95.4650E-12	688.161E-3	-16.8723E-3	95.9490E-12	675.991E-3	-7.11010E-3
2.59380E-3	95.7038E-12	695.171E-3	6.05484E-3	95.2022E-12	679.044E-3	-6.96551E-3
2.58879E-3	95.4431E-12	694.131E-3	11.2338E-3	94.4491E-12	678.266E-3	2.50802E-3
2.58379E-3	94.8978E-12	681.545E-3	10.0108E-3	93.9721E-12	672.526E-3	2.30479E-3
2.57879E-3	95.0291E-12	681.633E-3	470.267E-6	93.6281E-12	667.442E-3	-11.0154E-3
2.57379E-3	94.6349E-12	687.790E-3	-6.83303E-3	93.1899E-12	673.561E-3	-26.9352E-3
2.56878E-3	94.4364E-12	678.205E-3	-5.82896E-3	92.5131E-12	687.281E-3	-19.0218E-3
2.56378E-3	94.3645E-12	669.134E-3	-9.86512E-3	92.4751E-12	700.391E-3	-2.30252E-3
2.55878E-3	93.9247E-12	678.865E-3	-24.2590E-3	92.5218E-12	694.734E-3	-11.4815E-3
2.55378E-3	93.4496E-12	689.495E-3	-32.8141E-3	92.3137E-12	678.692E-3	-26.6840E-3
2.54877E-3	93.0392E-12	689.856E-3	-29.1655E-3	92.3227E-12	683.425E-3	-24.2245E-3
2.54377E-3	92.4895E-12	695.911E-3	-25.6018E-3	92.6416E-12	700.580E-3	-13.7352E-3
2.53877E-3	91.4627E-12	705.485E-3	-23.3951E-3	92.5852E-12	702.353E-3	-16.4753E-3
2.53377E-3	91.2429E-12	717.766E-3	-23.4201E-3	92.6852E-12	699.412E-3	-22.9724E-3
2.52876E-3	90.5440E-12	723.193E-3	-22.7672E-3	92.9687E-12	705.027E-3	-18.3934E-3
2.52376E-3	90.3233E-12	716.674E-3	-3.86679E-3	92.9633E-12	711.830E-3	-15.2992E-3
2.51876E-3	89.8207E-12	701.265E-3	5.59332E-3	93.0072E-12	721.121E-3	-13.4929E-3
2.51376E-3	89.8674E-12	690.795E-3	-12.8510E-3	92.6672E-12	710.324E-3	-8.30164E-3
2.50875E-3	89.5988E-12	703.783E-3	-34.7011E-3	92.2868E-12	682.964E-3	-10.0999E-3
2.50375E-3	89.7034E-12	708.974E-3	-37.3944E-3	92.1945E-12	677.124E-3	-16.3013E-3
2.49875E-3	90.0421E-12	693.161E-3	-25.5358E-3	91.5856E-12	691.387E-3	-15.6799E-3
2.49375E-3	89.9664E-12	691.125E-3	-27.6083E-3	90.7676E-12	699.464E-3	-21.2184E-3
2.48874E-3	90.4058E-12	709.527E-3	-29.4322E-3	90.6849E-12	689.492E-3	-25.9045E-3
2.48374E-3	90.6520E-12	712.782E-3	-22.2545E-3	89.9648E-12	682.363E-3	-19.1067E-3
2.47874E-3	91.3758E-12	694.600E-3	-13.0138E-3	89.7446E-12	690.378E-3	-10.5485E-3
2.47374E-3	91.3179E-12	695.244E-3	-2.03344E-3	89.3209E-12	702.738E-3	3.97284E-3
2.46873E-3	91.2746E-12	720.256E-3	445.714E-6	89.2748E-12	709.049E-3	11.1986E-3
2.46373E-3	90.9486E-12	725.324E-3	-8.40955E-3	88.9684E-12	701.647E-3	3.36497E-3
2.45873E-3	90.4670E-12	715.112E-3	-16.4834E-3	88.6830E-12	687.844E-3	-5.09174E-3
2.45373E-3	90.2107E-12	705.695E-3	-12.8771E-3	88.3957E-12	670.820E-3	-22.3142E-3
2.44872E-3	88.9085E-12	684.254E-3	-4.01901E-3	88.2345E-12	660.341E-3	-39.2948E-3
2.44372E-3	88.8900E-12	676.493E-3	-6.63841E-3	88.1144E-12	675.090E-3	-21.1114E-3
2.43872E-3	87.9438E-12	695.035E-3	-9.39171E-3	87.5228E-12	691.304E-3	3.74346E-3
2.43372E-3	87.3464E-12	711.621E-3	-12.2787E-3	87.4240E-12	691.088E-3	8.29082E-3
2.42871E-3	86.5018E-12	703.979E-3	-19.1816E-3	87.4105E-12	693.211E-3	8.27530E-3
2.42371E-3	86.4166E-12	685.337E-3	-10.4159E-3	87.0625E-12	696.397E-3	-4.44360E-3
2.41871E-3	86.1281E-12	692.762E-3	-11.2180E-3	86.5874E-12	697.825E-3	-12.9584E-3
2.41371E-3	85.4906E-12	708.103E-3	-23.0857E-3	86.1913E-12	702.897E-3	-7.26141E-3
2.40870E-3	85.6848E-12	698.364E-3	-25.9664E-3	85.7450E-12	701.233E-3	-17.8594E-3
2.40370E-3	85.0682E-12	684.547E-3	-30.2949E-3	85.2609E-12	694.103E-3	-23.9516E-3
2.39870E-3	85.5122E-12	683.731E-3	-25.5943E-3	85.0674E-12	692.133E-3	-10.6562E-3
2.39370E-3	85.1621E-12	694.002E-3	-11.0662E-3	84.8491E-12	693.671E-3	-13.9259E-3
2.38869E-3	85.7870E-12	713.736E-3	-14.9253E-3	84.5444E-12	688.809E-3	-23.5886E-3
2.38369E-3	85.7015E-12	729.357E-3	-27.8939E-3	84.2474E-12	687.750E-3	-15.0969E-3
2.37869E-3	85.9039E-12	724.724E-3	-23.6043E-3	83.8635E-12	691.920E-3	-13.0102E-3
2.37369E-3	85.5259E-12	707.227E-3	-7.73184E-3	83.8913E-12	690.763E-3	-17.7832E-3
2.36868E-3	85.6285E-12	713.566E-3	5.56836E-3	83.8873E-12	704.559E-3	-7.02642E-3
2.36368E-3	84.8702E-12	740.023E-3	8.61857E-3	83.3475E-12	719.591E-3	-7.62352E-3
2.35868E-3	84.5744E-12	747.816E-3	-2.04164E-3	83.4226E-12	711.610E-3	-25.5977E-3
2.35368E-3	84.1631E-12	732.908E-3	-9.42865E-3	83.3701E-12	697.244E-3	-25.3111E-3
2.34867E-3	83.3986E-12	721.045E-3	-6.39360E-3	83.3623E-12	698.686E-3	-12.4508E-3
2.34367E-3	82.3422E-12	716.996E-3	-9.15592E-3	82.7189E-12	711.560E-3	-5.02501E-3
2.33867E-3	82.1247E-12	720.304E-3	-13.8709E-3	82.9237E-12	724.774E-3	-3.56372E-3
2.33367E-3	81.3296E-12	716.826E-3	-20.7536E-3	82.8266E-12	735.442E-3	-12.1032E-3
2.32866E-3	81.2373E-12	694.235E-3	-30.4106E-3	82.7040E-12	728.400E-3	-25.9534E-3
2.32366E-3	80.3501E-12	675.901E-3	-24.9894E-3	82.2559E-12	719.153E-3	-25.0167E-3
2.31866E-3	80.6328E-12	677.283E-3	-9.80356E-3	81.8653E-12	719.320E-3	-13.9126E-3
2.31366E-3	80.2722E-12	691.397E-3	-7.38294E-3	81.5156E-12	715.981E-3	-18.5730E-3
2.30865E-3	80.1533E-12	703.725E-3	-20.3491E-3	81.3220E-12	722.039E-3	-31.2943E-3
2.30365E-3	80.4183E-12	711.016E-3	-28.2333E-3	81.4480E-12	743.918E-3	-33.4467E-3
2.29865E-3	80.4799E-12	711.879E-3	-19.3490E-3	81.1775E-12	748.464E-3	-30.9224E-3
2.29365E-3	80.8672E-12	717.161E-3	-12.1254E-3	81.1768E-12	726.995E-3	-37.6692E-3
2.28864E-3	80.8070E-12	732.562E-3	-19.0391E-3	81.3418E-12	716.287E-3	-31.1280E-3
2.28364E-3	81.1249E-12	745.107E-3	-30.7757E-3	81.2028E-12	716.529E-3	-6.52430E-3
2.27864E-3	81.2290E-12	743.682E-3	-35.9370E-3	80.6653E-12	707.811E-3	792.385E-6
2.27364E-3	81.3130E-12	744.492E-3	-32.0595E-3	80.4776E-12	710.873E-3	-8.01028E-3
2.26863E-3	81.0517E-12	753.322E-3	-27.8438E-3	80.3657E-12	730.695E-3	-15.8104E-3
2.26363E-3	80.8187E-12	749.115E-3	-23.0707E-3	80.0845E-12	742.328E-3	-27.7395E-3
2.25863E-3	80.1736E-12	738.936E-3	-24.7053E-3	80.0139E-12	739.799E-3	-40.5995E-3
2.25363E-3	79.3376E-12	730.829E-3	-31.9690E-3	79.5248E-12	736.352E-3	-36.3206E-3
2.24862E-3	79.0818E-12	728.231E-3	-29.8332E-3	79.2241E-12	738.241E-3	-21.2839E-3
2.24362E-3	78.1993E-12	730.814E-3	-26.1544E-3	78.8184E-12	740.822E-3	-14.7049E-3
2.23862E-3	77.8999E-12	736.439E-3	-26.3822E-3	78.5953E-12	752.581E-3	-17.5525E-3
2.23362E-3	77.2427E-12	743.727E-3	-34.8860E-3	78.5627E-12	757.153E-3	-13.9653E-3
2.22861E-3	76.8108E-12	742.168E-3	-47.3852E-3	78.3792E-12	741.865E-3	-4.69182E-3
2.22361E-3	76.8260E-12	729.088E-3	-41.2334E-3	78.0460E-12	737.539E-3	-11.1368E-3
2.21861E-3	76.5766E-12	720.776E-3	-15.9873E-3	77.9173E-12	746.845E-3	-21.1112E-3
2.21361E-3	76.2253E-12	726.569E-3	751.012E-6	78.0937E-12	750.262E-3	-11.5666E-3
2.20860E-3	76.1659E-12	725.797E-3	-4.12532E-3	77.6635E-12	743.641E-3	-6.89914E-3
2.20360E-3	76.5123E-12	708.691E-3	-24.1776E-3	77.6271E-12	731.601E-3	-25.0692E-3
2.19860E-3	76.3557E-12	696.765E-3	-44.7951E-3	77.2751E-12	727.821E-3	-49.6352E-3
2.19360E-3	76.4787E-12	707.960E-3	-40.1288E-3	77.1809E-12	743.377E-3	-57.0748E-3
2.18859E-3	76.3019E-12	723.047E-3	-24.5333E-3	76.4460E-12	757.875E-3	-29.4454E-3
2.18359E-3	76.3081E-12	726.100E-3	-29.2380E-3	75.6518E-12	745.913E-3	76.1809E-6
2.17859E-3	76.1410E-12	723.809E-3	-39.2415E-3	75.3346E-12	729.915E-3	-1.00696E-3
2.17359E-3	76.1502E-12	716.697E-3	-42.5014E-3	74.9766E-12	729.758E-3	-19.3081E-3
2.16858E-3	75.8782E-12	723.354E-3	-37.6389E-3	74.5090E-12	732.568E-3	-35.5652E-3
2.16358E-3	75.6293E-12	748.562E-3	-23.9744E-3	74.2224E-12	741.005E-3	-39.6142E-3
2.15858E-3	75.1672E-12	764.138E-3	-28.6048E-3	73.6616E-12	750.130E-3	-29.1674E-3
2.15358E-3	74.6548E-12	768.758E-3	-41.8183E-3	73.6584E-12	747.104E-3	-12.1957E-3
2.14857E-3	74.0055E-12	770.374E-3	-39.3003E-3	73.3415E-12	738.654E-3	-9.93466E-3
2.14357E-3	73.3976E-12	759.657E-3	-34.5381E-3	73.0018E-12	741.179E-3	-27.1993E-3
2.13857E-3	72.7742E-12	740.295E-3	-28.0984E-3	72.6637E-12	757.071E-3	-40.9021E-3
2.13357E-3	72.5921E-12	722.030E-3	-14.1904E-3	72.5771E-12	762.848E-3	-29.5293E-3
2.12856E-3	72.5867E-12	730.466E-3	-3.23108E-3	72.5093E-12	754.053E-3	-8.61363E-3
2.12356E-3	72.0978E-12	750.501E-3	-4.49161E-3	72.3282E-12	754.579E-3	-4.41360E-3
2.11856E-3	72.1480E-12	744.765E-3	-9.12165E-3	72.5288E-12	773.260E-3	-21.8679E-3
2.11356E-3	71.9024E-12	736.835E-3	-15.3974E-3	72.5390E-12	787.786E-3	-36.8546E-3
2.10855E-3	71.7130E-12	735.404E-3	-26.0765E-3	72.0307E-12	774.541E-3	-32.5566E-3
2.10355E-3	71.4077E-12	729.841E-3	-33.3914E-3	71.8327E-12	756.638E-3	-24.8709E-3
2.09855E-3	71.4191E-12	724.330E-3	-32.0043E-3	71.9121E-12	760.973E-3	-24.5011E-3
2.09355E-3	71.0028E-12	722.239E-3	-14.4370E-3	71.3181E-12	761.594E-3	-14.5346E-3
2.08854E-3	70.8500E-12	727.888E-3	5.02732E-3	70.6702E-12	756.650E-3	10.9398E-3
2.08354E-3	70.9872E-12	748.751E-3	-3.24941E-3	70.1377E-12	765.041E-3	21.2444E-3
2.07854E-3	70.8604E-12	770.779E-3	-23.9790E-3	70.0490E-12	765.451E-3	11.9122E-3
2.07354E-3	70.5368E-12	768.202E-3	-30.9836E-3	69.1363E-12	757.080E-3	921.203E-6
2.06853E-3	70.5020E-12	748.780E-3	-21.7014E-3	68.8563E-12	766.055E-3	-16.9248E-3
2.06353E-3	70.3593E-12	737.196E-3	-7.66182E-3	68.6143E-12	771.651E-3	-34.1301E-3
2.05853E-3	70.1892E-12	757.030E-3	-6.64387E-3	68.5071E-12	764.067E-3	-26.2943E-3
2.05353E-3	69.7696E-12	789.095E-3	-16.4212E-3	68.1816E-12	767.759E-3	-16.6100E-3
2.04852E-3	69.6649E-12	794.552E-3	-23.0694E-3	67.9988E-12	768.155E-3	-27.8347E-3
2.04352E-3	69.0991E-12	779.472E-3	-17.4483E-3	67.9794E-12	766.549E-3	-27.2815E-3
2.03852E-3	68.8221E-12	768.230E-3	-10.0057E-3	67.8257E-12	774.881E-3	-16.2561E-3
2.03352E-3	68.4235E-12	774.070E-3	-21.7653E-3	68.0783E-12	781.425E-3	-16.7555E-3
2.02851E-3	67.9316E-12	785.666E-3	-35.8210E-3	67.9658E-12	787.951E-3	-13.9213E-3
2.02351E-3	68.0375E-12	784.033E-3	-32.5063E-3	67.9521E-12	793.546E-3	-14.3438E-3
2.01851E-3	67.3141E-12	782.829E-3	-25.9402E-3	68.0726E-12	798.043E-3	-33.8288E-3
2.01351E-3	66.9281E-12	787.309E-3	-21.8702E-3	67.7727E-12	807.366E-3	-45.0038E-3
2.00850E-3	66.3942E-12	791.156E-3	-21.2056E-3	67.6706E-12	814.726E-3	-33.9746E-3
2.00350E-3	66.0485E-12	796.063E-3	-26.9172E-3	67.4415E-12	803.943E-3	-23.3319E-3
1.99850E-3	65.7185E-12	786.750E-3	-28.0038E-3	67.2948E-12	781.083E-3	-12.1824E-3
1.99350E-3	65.7602E-12	775.601E-3	-21.8910E-3	66.8621E-12	766.330E-3	-13.5541E-3
1.98849E-3	65.9196E-12	774.527E-3	-11.3321E-3	66.2057E-12	768.414E-3	-35.0890E-3
1.98349E-3	65.5276E-12	771.379E-3	-6.49527E-3	65.8455E-12	777.358E-3	-31.1125E-3
1.97849E-3	65.4515E-12	768.758E-3	-18.5249E-3	65.0849E-12	787.299E-3	-7.71077E-3
1.97349E-3	65.4545E-12	766.498E-3	-23.4927E-3	64.5854E-12	799.488E-3	-7.40722E-3
1.96848E-3	65.6180E-12	761.569E-3	-5.92797E-3	64.2231E-12	802.355E-3	-10.5611E-3
1.96348E-3	65.3716E-12	766.094E-3	8.12479E-3	64.1057E-12	801.707E-3	-6.42073E-3
1.95848E-3	64.9330E-12	781.650E-3	1.79123E-3	63.3559E-12	805.814E-3	-14.1606E-3
1.95348E-3	64.7635E-12	796.890E-3	-9.60198E-3	63.0680E-12	799.343E-3	-16.7774E-3
1.94847E-3	64.7668E-12	801.186E-3	-14.3623E-3	62.6660E-12	794.799E-3	-8.08231E-3
1.94347E-3	64.2556E-12	795.686E-3	-19.1351E-3	62.8171E-12	800.112E-3	-3.06250E-3
1.93847E-3	63.4653E-12	793.336E-3	-29.1070E-3	62.5138E-12	801.857E-3	-1.81224E-3
1.93347E-3	63.4113E-12	803.353E-3	-30.1800E-3	62.2144E-12	808.584E-3	-2.72873E-3
1.92846E-3	62.8024E-12	818.264E-3	-21.2866E-3	62.4086E-12	817.337E-3	-4.80437E-3
1.92346E-3	62.2373E-12	814.304E-3	-15.3030E-3	62.2116E-12	816.677E-3	-1.79272E-3
1.91846E-3	61.5622E-12	804.866E-3	-14.3496E-3	62.1700E-12	809.767E-3	-1.17825E-3
1.91346E-3	60.7765E-12	816.998E-3	-13.3784E-3	61.7090E-12	817.625E-3	-12.1247E-3
1.90845E-3	60.3110E-12	820.931E-3	-16.5606E-3	61.7143E-12	830.530E-3	-11.9724E-3
1.90345E-3	59.8707E-12	799.906E-3	-29.3712E-3	61.6394E-12	820.759E-3	-4.58240E-3
1.89845E-3	59.5594E-12	791.310E-3	-37.1896E-3	61.5287E-12	805.158E-3	-14.1533E-3
1.89345E-3	59.1879E-12	799.989E-3	-36.9987E-3	61.1665E-12	799.521E-3	-32.5320E-3
1.88844E-3	59.2959E-12	811.525E-3	-33.7825E-3	60.8747E-12	805.005E-3	-30.5310E-3
1.88344E-3	59.1559E-12	822.009E-3	-18.9913E-3	60.7171E-12	821.292E-3	-16.8607E-3
1.87844E-3	59.2042E-12	820.919E-3	758.100E-6	60.2552E-12	835.198E-3	-20.0252E-3
1.87344E-3	59.5165E-12	810.344E-3	-1.04226E-3	59.7432E-12	840.461E-3	-25.4650E-3
1.86843E-3	59.6639E-12	806.603E-3	-15.7024E-3	59.3813E-12	838.846E-3	-21.1187E-3
1.86343E-3	59.3795E-12	817.528E-3	-24.9476E-3	59.0852E-12	827.791E-3	-20.5346E-3
1.85843E-3	59.8401E-12	834.378E-3	-25.8082E-3	58.2205E-12	819.749E-3	-21.7677E-3
1.85343E-3	59.8004E-12	843.014E-3	-13.7665E-3	57.9198E-12	829.109E-3	-23.6763E-3
1.84842E-3	59.0229E-12	836.599E-3	-4.53932E-3	57.6038E-12	829.107E-3	-31.6643E-3
1.84342E-3	58.7198E-12	822.772E-3	-11.3469E-3	57.3898E-12	820.403E-3	-35.8636E-3
1.83842E-3	58.2207E-12	818.462E-3	-12.0221E-3	56.6394E-12	831.621E-3	-37.6417E-3
1.83342E-3	57.7550E-12	830.282E-3	-2.21274E-3	56.3169E-12	847.083E-3	-40.4308E-3
1.82841E-3	57.2406E-12	844.441E-3	-3.71116E-3	56.4353E-12	844.866E-3	-26.5587E-3
1.82341E-3	56.6544E-12	849.804E-3	-10.0895E-3	55.7978E-12	827.507E-3	456.578E-6
1.81841E-3	55.8092E-12	846.559E-3	-19.3065E-3	55.4042E-12	824.714E-3	5.45845E-3
1.81341E-3	55.2166E-12	846.525E-3	-30.1980E-3	55.3935E-12	842.862E-3	-12.7023E-3
1.80840E-3	54.8454E-12	851.612E-3	-32.8844E-3	55.5746E-12	859.176E-3	-24.5202E-3
1.80340E-3	54.0325E-12	850.360E-3	-26.7594E-3	55.2084E-12	870.475E-3	-24.6136E-3
1.79840E-3	53.7506E-12	854.703E-3	-21.2185E-3	55.0440E-12	869.339E-3	-22.6001E-3
1.79340E-3	53.5590E-12	855.017E-3	-22.4231E-3	55.1526E-12	867.266E-3	-21.2754E-3
1.78839E-3	53.6041E-12	843.087E-3	-23.2460E-3	54.9595E-12	877.529E-3	-19.8951E-3
1.78339E-3	53.1550E-12	840.506E-3	-22.8042E-3	54.8385E-12	885.385E-3	-10.7394E-3
1.77839E-3	53.4019E-12	854.096E-3	-8.75071E-3	54.4604E-12	882.962E-3	4.04329E-3
1.77339E-3	53.4072E-12	862.734E-3	5.10249E-3	53.9506E-12	870.983E-3	5.47126E-3
1.76838E-3	53.5938E-12	856.965E-3	-6.71866E-3	53.7582E-12	859.115E-3	-9.58760E-3
1.76338E-3	53.6778E-12	863.017E-3	-12.9513E-3	53.4763E-12	869.255E-3	-21.8153E-3
1.75838E-3	53.6563E-12	884.840E-3	2.78921E-3	53.1263E-12	894.568E-3	-17.4858E-3
1.75338E-3	53.8079E-12	896.210E-3	2.91572E-3	52.7945E-12	902.138E-3	-8.46291E-3
1.74837E-3	53.7000E-12	900.394E-3	-18.8573E-3	52.2854E-12	881.728E-3	-4.96168E-3
1.74337E-3	53.3901E-12	898.748E-3	-33.3432E-3	51.7616E-12	862.045E-3	-3.31972E-3
1.73837E-3	53.1060E-12	888.277E-3	-23.5508E-3	51.4173E-12	865.564E-3	-14.3609E-3
1.73337E-3	52.7010E-12	890.993E-3	-6.19486E-3	51.1295E-12	883.053E-3	-22.9440E-3
1.72836E-3	52.0449E-12	905.823E-3	1.57616E-3	50.5030E-12	897.348E-3	-14.0907E-3
1.72336E-3	51.4976E-12	910.586E-3	-26.9688E-6	50.2659E-12	900.768E-3	-6.58963E-3
1.71836E-3	50.9126E-12	907.153E-3	-16.4221E-3	50.0366E-12	900.260E-3	-6.43557E-3
1.71336E-3	50.4350E-12	910.538E-3	-25.7575E-3	50.0087E-12	903.177E-3	-14.3430E-3
1.70835E-3	49.7912E-12	920.170E-3	-15.5337E-3	49.8327E-12	909.819E-3	-27.7985E-3
1.70335E-3	49.1266E-12	923.740E-3	-6.86137E-3	49.7494E-12	915.428E-3	-30.3881E-3
1.69835E-3	48.7891E-12	922.680E-3	-12.5929E-3	49.6950E-12	921.284E-3	-18.9339E-3
1.69335E-3	48.4729E-12	923.880E-3	-28.4231E-3	49.6295E-12	931.157E-3	-19.9759E-3
1.68834E-3	47.9732E-12	915.489E-3	-33.9264E-3	49.6808E-12	938.510E-3	-38.4562E-3
1.68334E-3	47.6965E-12	910.964E-3	-25.5759E-3	49.1437E-12	945.985E-3	-49.7464E-3
1.67834E-3	47.9554E-12	923.651E-3	-28.0985E-3	49.0110E-12	950.772E-3	-43.2197E-3
1.67334E-3	47.5052E-12	927.517E-3	-36.4313E-3	48.7905E-12	951.179E-3	-24.3515E-3
1.66833E-3	47.4895E-12	924.260E-3	-27.5427E-3	48.5018E-12	955.300E-3	-19.8683E-3
1.66333E-3	47.2922E-12	924.528E-3	-16.4345E-3	47.7613E-12	948.647E-3	-33.8794E-3
1.65833E-3	47.6312E-12	933.716E-3	-16.7903E-3	47.0862E-12	937.200E-3	-30.9952E-3
1.65333E-3	47.3913E-12	953.278E-3	-19.0975E-3	46.9731E-12	950.236E-3	-14.9974E-3
1.64832E-3	47.2090E-12	959.673E-3	-22.7091E-3	46.3556E-12	969.898E-3	-5.20265E-3
1.64332E-3	47.0242E-12	954.759E-3	-29.1629E-3	45.7042E-12	971.548E-3	2.89016E-3
1.63832E-3	46.8613E-12	963.961E-3	-30.7172E-3	45.1537E-12	969.721E-3	3.89453E-3
1.63332E-3	46.2942E-12	984.284E-3	-18.2183E-3	44.8622E-12	965.043E-3	-4.74670E-3
1.62831E-3	45.8142E-12	993.149E-3	-8.70700E-3	44.5833E-12	953.104E-3	-5.69702E-3
1.62331E-3	45.3475E-12	991.009E-3	-19.9877E-3	43.9564E-12	946.457E-3	-716.692E-6
1.61831E-3	44.8438E-12	987.042E-3	-27.4011E-3	43.8293E-12	953.189E-3	-4.77440E-3
1.61331E-3	44.1165E-12	980.502E-3	-13.7631E-3	43.5198E-12	971.389E-3	-8.24561E-3
1.60830E-3	43.6766E-12	977.831E-3	-1.44542E-3	43.3274E-12	995.965E-3	-10.7975E-3
1.60330E-3	43.2508E-12	984.349E-3	-2.24491E-3	43.1043E-12	1.01679E+0	-19.3938E-3
1.59830E-3	42.8202E-12	985.585E-3	-12.7070E-3	43.0498E-12	1.01728E+0	-19.8497E-3
1.59330E-3	42.3186E-12	979.511E-3	-23.1336E-3	42.7510E-12	1.01426E+0	-12.5659E-3
1.58829E-3	41.7771E-12	979.691E-3	-9.98944E-3	42.4145E-12	1.03193E+0	-14.7245E-3
1.58329E-3	41.5999E-12	984.873E-3	17.5234E-3	42.1391E-12	1.05198E+0	-20.2765E-3
1.57829E-3	41.2051E-12	994.506E-3	25.1980E-3	42.1351E-12	1.05269E+0	-18.7162E-3
1.57329E-3	40.4770E-12	1.00603E+0	11.5683E-3	41.5186E-12	1.04551E+0	-17.7383E-3
1.56828E-3	40.1231E-12	1.00682E+0	-1.71331E-3	41.2183E-12	1.03443E+0	-22.5260E-3
1.56328E-3	40.0703E-12	1.00234E+0	-10.4278E-3	40.6886E-12	1.01687E+0	-26.8255E-3
1.55828E-3	39.8628E-12	1.00450E+0	-17.8089E-3	40.4810E-12	1.01040E+0	-27.8983E-3
1.55328E-3	39.4976E-12	1.00413E+0	-26.3366E-3	39.7842E-12	1.01737E+0	-22.7548E-3
1.54827E-3	39.4157E-12	1.00689E+0	-27.1957E-3	38.9886E-12	1.02093E+0	-8.80083E-3
1.54327E-3	39.4467E-12	1.01428E+0	-14.4052E-3	38.5841E-12	1.02042E+0	-1.15332E-3
1.53827E-3	39.0851E-12	1.01478E+0	-8.08783E-3	38.4018E-12	1.01960E+0	-13.3391E-3
1.53327E-3	38.8700E-12	1.02468E+0	-12.8874E-3	38.1080E-12	1.02184E+0	-29.0331E-3
1.52826E-3	38.6216E-12	1.04488E+0	-4.74818E-3	37.3144E-12	1.03394E+0	-30.0541E-3
1.52326E-3	38.3181E-12	1.05803E+0	179.356E-6	37.1285E-12	1.03798E+0	-15.1925E-3
1.51826E-3	38.0287E-12	1.06656E+0	-16.5620E-3	36.8709E-12	1.02067E+0	-2.46121E-3
1.51326E-3	37.4605E-12	1.06916E+0	-22.3439E-3	36.4158E-12	1.02014E+0	-12.7915E-3
1.50825E-3	37.0357E-12	1.06483E+0	-13.9977E-3	36.0226E-12	1.03941E+0	-30.6241E-3
1.50325E-3	36.7261E-12	1.07440E+0	-15.0811E-3	35.9697E-12	1.04490E+0	-25.6695E-3
1.49825E-3	36.2129E-12	1.07915E+0	-15.7837E-3	35.7111E-12	1.05485E+0	-12.1446E-3
1.49325E-3	35.4211E-12	1.05744E+0	-9.71693E-3	35.4519E-12	1.06852E+0	-13.3818E-3
1.48824E-3	35.2879E-12	1.04589E+0	-13.1258E-3	35.2620E-12	1.06443E+0	-13.3318E-3
1.48324E-3	34.6970E-12	1.06359E+0	-20.8096E-3	34.9816E-12	1.06845E+0	-3.86415E-3
1.47824E-3	34.1361E-12	1.08441E+0	-22.9893E-3	34.8055E-12	1.08814E+0	-1.12136E-3
1.47324E-3	33.8159E-12	1.09261E+0	-24.8394E-3	34.5317E-12	1.08608E+0	-6.80099E-3
1.46823E-3	33.4504E-12	1.08521E+0	-27.2481E-3	34.2401E-12	1.07369E+0	-12.2135E-3
1.46323E-3	33.2313E-12	1.05949E+0	-27.8885E-3	34.1454E-12	1.07626E+0	-13.1166E-3
1.45823E-3	32.7085E-12	1.03831E+0	-18.6677E-3	33.8410E-12	1.07894E+0	-12.1497E-3
1.45323E-3	32.5198E-12	1.04009E+0	-5.22751E-3	33.2022E-12	1.07810E+0	-12.0735E-3
1.44822E-3	32.4664E-12	1.04950E+0	-6.16837E-3	32.8281E-12	1.07565E+0	-9.70530E-3
1.44322E-3	32.1971E-12	1.05280E+0	-22.6316E-3	32.5726E-12	1.06536E+0	-7.49847E-3
1.43822E-3	32.1300E-12	1.05237E+0	-30.6909E-3	32.2688E-12	1.05743E+0	-5.00212E-3
1.43322E-3	31.9125E-12	1.05875E+0	-22.1876E-3	31.7139E-12	1.06038E+0	-1.27682E-3
1.42821E-3	31.8386E-12	1.07194E+0	-18.1531E-3	31.3331E-12	1.05684E+0	2.16541E-3
1.42321E-3	31.6972E-12	1.07265E+0	-21.9465E-3	31.0903E-12	1.05211E+0	-3.60331E-3
1.41821E-3	31.1728E-12	1.07580E+0	-18.3059E-3	30.6465E-12	1.05534E+0	-12.0274E-3
1.41321E-3	30.6925E-12	1.08915E+0	-13.8515E-3	30.2142E-12	1.04541E+0	-4.06457E-3
1.40820E-3	30.6686E-12	1.08551E+0	-18.9203E-3	29.8824E-12	1.03259E+0	7.92364E-3
1.40320E-3	30.1868E-12	1.07191E+0	-22.2028E-3	29.7074E-12	1.02908E+0	1.28315E-3
1.39820E-3	29.2891E-12	1.06434E+0	-22.5464E-3	29.1863E-12	1.03474E+0	-6.55352E-3
1.39320E-3	29.2015E-12	1.05941E+0	-19.9962E-3	29.0392E-12	1.04446E+0	-2.34120E-3
1.38819E-3	28.5513E-12	1.05704E+0	-12.2270E-3	28.5952E-12	1.03967E+0	-4.42925E-3
1.38319E-3	27.9502E-12	1.04553E+0	-13.5095E-3	28.5374E-12	1.02468E+0	-10.3586E-3
1.37819E-3	27.4880E-12	1.02257E+0	-13.9625E-3	28.4012E-12	1.01986E+0	-14.8981E-3
1.37319E-3	27.3117E-12	1.01061E+0	-9.68059E-3	27.9706E-12	1.02510E+0	-13.4772E-3
1.36818E-3	26.5545E-12	999.554E-3	-15.8708E-3	27.4235E-12	1.00962E+0	-8.25664E-3
1.36318E-3	26.2948E-12	986.169E-3	-23.0955E-3	27.4327E-12	973.244E-3	-11.3333E-3
1.35818E-3	25.8695E-12	983.766E-3	-21.9932E-3	26.8989E-12	953.215E-3	-15.8902E-3
1.35318E-3	25.6291E-12	978.907E-3	-16.3607E-3	26.3683E-12	960.352E-3	-20.8117E-3
1.34817E-3	25.6075E-12	967.598E-3	-12.3508E-3	26.2520E-12	966.236E-3	-23.9920E-3
1.34317E-3	25.3458E-12	965.904E-3	-11.5612E-3	25.7640E-12	955.011E-3	-20.8998E-3
1.33817E-3	24.8890E-12	963.576E-3	-20.4917E-3	25.3046E-12	937.036E-3	-16.6622E-3
1.33317E-3	24.8930E-12	958.535E-3	-35.7240E-3	24.8614E-12	923.178E-3	-3.15863E-3
1.32816E-3	24.8516E-12	962.502E-3	-41.0917E-3	24.5960E-12	923.778E-3	16.5273E-3
1.32316E-3	24.2144E-12	966.578E-3	-34.8546E-3	24.1346E-12	920.944E-3	12.6753E-3
1.31816E-3	23.8233E-12	968.212E-3	-24.1225E-3	23.6153E-12	893.351E-3	-6.79754E-3
1.31316E-3	23.8919E-12	961.004E-3	-15.4562E-3	23.1393E-12	866.780E-3	-14.0316E-3
1.30815E-3	23.5116E-12	944.220E-3	-18.1412E-3	23.0239E-12	857.926E-3	-19.1193E-3
1.30315E-3	23.0386E-12	935.236E-3	-28.0659E-3	22.7363E-12	852.277E-3	-24.0942E-3
1.29815E-3	22.8125E-12	936.210E-3	-26.1341E-3	22.1247E-12	850.351E-3	-23.4885E-3
1.29315E-3	22.4448E-12	924.201E-3	-16.6635E-3	21.8845E-12	844.627E-3	-22.1539E-3
1.28814E-3	21.9985E-12	905.335E-3	-25.6173E-3	21.8164E-12	828.436E-3	-26.4528E-3
1.28314E-3	21.7416E-12	886.747E-3	-41.7647E-3	21.4847E-12	831.952E-3	-27.0423E-3
1.27814E-3	21.1824E-12	865.151E-3	-34.1090E-3	21.0989E-12	837.038E-3	-21.1379E-3
1.27314E-3	20.7373E-12	853.697E-3	-25.0133E-3	20.9453E-12	806.336E-3	-22.6889E-3
1.26813E-3	20.5135E-12	848.353E-3	-28.9680E-3	20.8684E-12	778.358E-3	-18.5435E-3
1.26313E-3	20.0893E-12	832.507E-3	-19.1206E-3	20.6481E-12	767.743E-3	-12.9968E-3
1.25813E-3	19.8845E-12	805.815E-3	-6.75794E-3	20.4457E-12	744.882E-3	-19.1157E-3
1.25313E-3	19.6605E-12	783.870E-3	-3.81566E-3	20.1450E-12	726.891E-3	-22.7827E-3
1.24812E-3	19.4292E-12	772.984E-3	4.95987E-3	19.7982E-12	728.403E-3	-21.2518E-3
1.24312E-3	19.2059E-12	763.267E-3	6.85666E-3	19.5928E-12	721.708E-3	-21.6411E-3
1.23812E-3	19.2298E-12	751.616E-3	-2.26964E-3	19.2436E-12	702.014E-3	-17.1161E-3
1.23312E-3	19.0335E-12	739.882E-3	-8.24396E-3	19.0660E-12	683.566E-3	-14.5174E-3
1.22811E-3	18.9143E-12	730.916E-3	-9.55195E-3	18.7868E-12	668.087E-3	-22.5132E-3
1.22311E-3	18.8145E-12	725.122E-3	-11.2915E-3	18.5159E-12	662.016E-3	-24.7124E-3
1.21811E-3	18.6642E-12	715.972E-3	-12.4520E-3	18.1173E-12	655.003E-3	-21.9624E-3
1.21311E-3	18.4984E-12	702.937E-3	-7.21183E-3	17.9330E-12	633.097E-3	-21.6092E-3
1.20810E-3	18.2376E-12	693.601E-3	-4.64608E-3	17.9203E-12	608.923E-3	-22.0130E-3
1.20310E-3	18.0199E-12	691.056E-3	-11.0062E-3	17.6007E-12	591.496E-3	-23.6913E-3
1.19810E-3	17.8692E-12	684.000E-3	-18.3888E-3	17.2994E-12	578.778E-3	-23.4207E-3
1.19310E-3	17.7975E-12	663.701E-3	-17.7003E-3	17.3704E-12	566.385E-3	-17.5845E-3
1.18809E-3	17.4022E-12	636.684E-3	-7.43794E-3	17.1835E-12	557.880E-3	-12.7945E-3
1.18309E-3	16.9891E-12	612.854E-3	-2.38304E-3	16.8159E-12	549.168E-3	-21.1840E-3
1.17809E-3	17.0149E-12	599.562E-3	-10.1222E-3	16.8786E-12	534.863E-3	-23.9012E-3
1.17309E-3	16.8050E-12	595.169E-3	-9.89529E-3	16.8741E-12	530.306E-3	-14.6236E-3
1.16808E-3	16.3633E-12	588.652E-3	176.269E-6	16.6042E-12	533.163E-3	-20.9127E-3
1.16308E-3	16.2293E-12	569.555E-3	-2.65871E-3	16.2745E-12	520.396E-3	-30.4673E-3
1.15808E-3	16.1631E-12	546.468E-3	-10.0345E-3	16.2812E-12	496.910E-3	-26.5093E-3
1.15308E-3	15.9213E-12	526.243E-3	-14.0518E-3	16.1889E-12	487.579E-3	-24.8365E-3
1.14807E-3	15.6496E-12	508.566E-3	-19.9079E-3	16.0393E-12	486.174E-3	-28.1186E-3
1.14307E-3	15.6889E-12	500.523E-3	-20.2419E-3	15.8025E-12	479.184E-3	-26.1601E-3
1.13807E-3	15.3977E-12	493.490E-3	-22.1964E-3	15.5508E-12	461.702E-3	-24.4516E-3
1.13307E-3	15.3127E-12	479.463E-3	-27.3970E-3	15.4737E-12	429.784E-3	-23.2425E-3
1.12806E-3	15.2796E-12	471.257E-3	-22.0741E-3	15.3030E-12	401.910E-3	-21.7752E-3
1.12306E-3	15.0794E-12	466.866E-3	-8.92578E-3	14.9400E-12	394.639E-3	-30.0335E-3
1.11806E-3	14.9566E-12	446.030E-3	-10.2294E-3	14.7535E-12	394.237E-3	-39.2061E-3
1.11306E-3	14.8127E-12	428.073E-3	-23.9016E-3	14.6931E-12	386.094E-3	-31.8941E-3
1.10805E-3	14.6683E-12	427.022E-3	-20.6847E-3	14.4124E-12	376.800E-3	-17.0402E-3
1.10305E-3	14.5103E-12	419.749E-3	-829.983E-6	14.2294E-12	368.979E-3	-17.2749E-3
1.09805E-3	14.4852E-12	407.042E-3	11.7864E-3	14.3125E-12	358.810E-3	-17.3467E-3
1.09305E-3	14.0883E-12	390.525E-3	16.4557E-3	14.1174E-12	351.438E-3	-11.0625E-3
1.08804E-3	13.9225E-12	374.873E-3	10.5096E-3	13.9307E-12	342.314E-3	-22.0762E-3
1.08304E-3	13.8650E-12	372.642E-3	-9.60064E-3	13.8959E-12	319.911E-3	-27.0115E-3
1.07804E-3	13.8084E-12	362.472E-3	-19.4214E-3	13.7763E-12	302.000E-3	-10.2923E-3
1.07304E-3	13.4863E-12	339.219E-3	-20.0213E-3	13.7554E-12	303.072E-3	2.92659E-3
1.06803E-3	13.3618E-12	326.844E-3	-26.3911E-3	13.6180E-12	304.292E-3	2.76508E-3
1.06303E-3	13.3975E-12	317.344E-3	-28.5482E-3	13.6021E-12	293.084E-3	-4.10504E-3
1.05803E-3	13.2860E-12	300.129E-3	-33.5207E-3	13.5277E-12	277.919E-3	-5.39124E-3
1.05303E-3	13.0765E-12	292.608E-3	-41.7179E-3	13.4042E-12	265.004E-3	-9.41506E-3
1.04802E-3	12.8840E-12	291.911E-3	-38.8919E-3	13.2330E-12	248.688E-3	-17.5676E-3
1.04302E-3	13.1137E-12	281.327E-3	-26.6571E-3	13.1042E-12	227.189E-3	-19.7918E-3
1.03802E-3	12.8940E-12	274.905E-3	-11.2766E-3	13.0641E-12	215.979E-3	-13.3399E-3
1.03302E-3	12.5837E-12	275.276E-3	-12.2043E-3	12.9335E-12	217.990E-3	-9.34133E-3
1.02801E-3	12.5499E-12	260.191E-3	-18.4107E-3	12.5581E-12	227.814E-3	-23.1974E-3
1.02301E-3	12.4189E-12	250.526E-3	-15.3012E-3	12.2807E-12	238.501E-3	-30.4538E-3
1.01801E-3	12.2983E-12	256.323E-3	-15.9889E-3	12.4065E-12	226.333E-3	-24.4103E-3
1.01301E-3	12.1457E-12	244.693E-3	-18.0161E-3	12.1375E-12	198.841E-3	-20.2694E-3
1.00800E-3	12.1305E-12	221.317E-3	-18.1398E-3	11.8613E-12	179.901E-3	-9.45305E-3
1.00300E-3	12.0144E-12	206.909E-3	-22.3461E-3	11.8535E-12	179.764E-3	-6.69894E-3
997.999E-6	11.8923E-12	197.249E-3	-23.8838E-3	11.7553E-12	189.273E-3	-14.6951E-3
992.997E-6	11.8147E-12	196.214E-3	-23.0454E-3	11.6673E-12	183.634E-3	-17.2969E-3
987.994E-6	11.8015E-12	209.194E-3	-28.1401E-3	11.5912E-12	167.241E-3	-17.0275E-3
982.991E-6	11.6483E-12	214.633E-3	-34.0615E-3	11.5106E-12	155.414E-3	-18.9984E-3
977.989E-6	11.5455E-12	199.259E-3	-26.9889E-3	11.4817E-12	153.328E-3	-23.4881E-3
972.986E-6	11.4599E-12	189.874E-3	-13.0997E-3	11.5121E-12	169.746E-3	-11.6316E-3
967.984E-6	11.3996E-12	182.499E-3	-8.33071E-3	11.4735E-12	187.780E-3	3.11872E-3
962.981E-6	11.2930E-12	168.219E-3	-10.2592E-3	11.5195E-12	178.923E-3	-230.966E-6
957.979E-6	11.1898E-12	169.777E-3	-10.6456E-3	11.3930E-12	160.629E-3	-1.07684E-3
952.976E-6	11.0577E-12	170.127E-3	-3.14154E-3	11.3559E-12	158.552E-3	3.03993E-3
947.974E-6	11.1128E-12	159.139E-3	1.42359E-3	11.4245E-12	167.642E-3	-3.43180E-3
942.971E-6	11.1173E-12	155.406E-3	-7.12173E-3	11.4922E-12	174.566E-3	-11.4237E-3
937.969E-6	10.9874E-12	158.072E-3	-15.6849E-3	11.3904E-12	170.553E-3	-12.9379E-3
932.966E-6	11.0252E-12	154.064E-3	-23.4455E-3	11.2798E-12	163.853E-3	-13.2639E-3
927.964E-6	10.9639E-12	145.462E-3	-24.2314E-3	11.2549E-12	160.928E-3	-15.6263E-3
922.961E-6	10.9414E-12	139.058E-3	-10.2370E-3	11.3240E-12	160.151E-3	-14.5243E-3
917.959E-6	10.8064E-12	140.951E-3	-2.27947E-3	11.2188E-12	158.880E-3	-16.2631E-3
912.956E-6	10.7666E-12	145.508E-3	-7.25171E-3	11.0246E-12	158.489E-3	-19.8725E-3
907.954E-6	10.7868E-12	143.681E-3	-14.5992E-3	11.0263E-12	159.610E-3	-15.5440E-3
902.951E-6	10.7248E-12	147.098E-3	-15.7240E-3	11.0676E-12	157.606E-3	-15.9357E-3
897.949E-6	10.6985E-12	153.710E-3	-11.7571E-3	11.0915E-12	160.033E-3	-25.4714E-3
892.946E-6	10.7330E-12	161.627E-3	-18.0646E-3	10.8591E-12	167.481E-3	-29.0230E-3
887.944E-6	10.6241E-12	171.599E-3	-31.1005E-3	10.7155E-12	177.145E-3	-25.4024E-3
882.941E-6	10.6360E-12	167.595E-3	-35.2289E-3	10.8635E-12	179.388E-3	-17.2945E-3
877.939E-6	10.7665E-12	161.514E-3	-28.3578E-3	10.9538E-12	180.875E-3	-7.34147E-3
872.936E-6	10.6567E-12	167.514E-3	-29.8386E-3	10.7757E-12	195.235E-3	-3.64257E-3
867.934E-6	10.4839E-12	169.369E-3	-43.2193E-3	10.6995E-12	198.096E-3	-12.5980E-3
862.931E-6	10.4532E-12	165.857E-3	-33.7742E-3	10.8969E-12	188.789E-3	-24.5461E-3
857.929E-6	10.3942E-12	164.031E-3	-13.4216E-3	10.8205E-12	188.743E-3	-23.5572E-3
852.926E-6	10.3594E-12	169.400E-3	-19.2415E-3	10.6655E-12	189.024E-3	-18.9322E-3
847.924E-6	10.3709E-12	180.729E-3	-25.3749E-3	10.7113E-12	180.852E-3	-14.6767E-3
842.921E-6	10.2421E-12	180.447E-3	-12.5850E-3	10.7575E-12	176.024E-3	-7.45818E-3
837.919E-6	10.1278E-12	172.311E-3	-9.47617E-3	10.5572E-12	177.341E-3	-3.84673E-3
832.916E-6	10.2838E-12	172.952E-3	-16.8902E-3	10.6584E-12	185.689E-3	-1.75244E-3
827.914E-6	10.2338E-12	173.727E-3	-17.1947E-3	10.5252E-12	194.357E-3	-2.72623E-3
822.911E-6	9.96376E-12	173.793E-3	-13.2336E-3	10.2982E-12	197.845E-3	-10.2854E-3
817.909E-6	9.92760E-12	185.598E-3	-10.3542E-3	10.3093E-12	205.280E-3	-12.7380E-3
812.906E-6	10.0887E-12	193.694E-3	-11.8736E-3	10.2739E-12	209.933E-3	-12.2051E-3
807.904E-6	10.0638E-12	201.104E-3	-22.0861E-3	10.0166E-12	210.777E-3	-13.4326E-3
802.901E-6	9.87833E-12	209.949E-3	-28.9821E-3	9.83975E-12	213.183E-3	-6.34649E-3
797.899E-6	9.81660E-12	203.468E-3	-20.4729E-3	9.70118E-12	216.114E-3	49.1683E-6
792.896E-6	9.92815E-12	200.388E-3	-12.8474E-3	9.53281E-12	215.548E-3	-2.00612E-3
787.894E-6	9.73328E-12	210.675E-3	-14.6785E-3	9.47566E-12	210.780E-3	3.15275E-3
782.891E-6	9.63179E-12	214.481E-3	-16.0083E-3	9.41439E-12	209.890E-3	7.49648E-3
777.889E-6	9.49606E-12	214.959E-3	-8.15611E-3	9.27064E-12	217.517E-3	-10.1002E-3
772.886E-6	9.44441E-12	232.610E-3	4.31651E-3	9.14380E-12	222.805E-3	-31.5434E-3
767.884E-6	9.33078E-12	248.677E-3	3.63055E-3	9.12240E-12	221.988E-3	-34.7081E-3
762.881E-6	9.16974E-12	244.018E-3	-12.5871E-3	9.04587E-12	229.865E-3	-29.8493E-3
757.879E-6	9.02649E-12	235.278E-3	-24.8651E-3	8.91684E-12	247.021E-3	-24.3125E-3
752.876E-6	8.92520E-12	234.902E-3	-19.1083E-3	8.93572E-12	257.025E-3	-19.3434E-3
747.874E-6	8.90510E-12	234.694E-3	-12.5393E-3	8.84152E-12	243.725E-3	-14.8812E-3
742.871E-6	8.75554E-12	233.201E-3	-14.0036E-3	8.77628E-12	225.579E-3	-5.29612E-3
737.869E-6	8.70534E-12	234.606E-3	-13.4628E-3	8.69595E-12	227.791E-3	-3.87900E-3
732.866E-6	8.61150E-12	235.598E-3	-11.4657E-3	8.57858E-12	242.476E-3	-17.1496E-3
727.864E-6	8.45153E-12	247.320E-3	-9.06608E-3	8.41186E-12	251.701E-3	-15.6901E-3
722.861E-6	8.31124E-12	255.007E-3	-7.22171E-3	8.34304E-12	250.703E-3	-5.12097E-3
717.859E-6	8.42465E-12	242.435E-3	-4.47008E-3	8.22617E-12	243.550E-3	-16.3941E-3
712.856E-6	8.34339E-12	244.486E-3	-4.27198E-3	8.20711E-12	239.971E-3	-35.1872E-3
707.854E-6	8.13991E-12	265.278E-3	-6.79497E-3	8.08102E-12	258.108E-3	-36.4385E-3
702.851E-6	8.05347E-12	262.534E-3	-8.71141E-3	7.90000E-12	279.408E-3	-27.2582E-3
697.849E-6	8.06705E-12	250.214E-3	-7.53909E-3	7.79184E-12	275.786E-3	-19.9378E-3
692.846E-6	8.08996E-12	252.263E-3	-4.30323E-3	7.81274E-12	271.276E-3	-14.4888E-3
687.844E-6	7.87753E-12	248.470E-3	-11.1022E-3	7.65595E-12	273.808E-3	-16.0555E-3
682.841E-6	7.74001E-12	247.470E-3	-18.0029E-3	7.50109E-12	266.473E-3	-13.0929E-3
677.839E-6	7.63499E-12	263.531E-3	-12.8229E-3	7.39788E-12	258.935E-3	-10.9996E-3
672.836E-6	7.65828E-12	273.678E-3	-3.60269E-3	7.43713E-12	263.367E-3	-25.1638E-3
667.834E-6	7.46707E-12	273.708E-3	4.46768E-3	7.35180E-12	271.085E-3	-22.4034E-3
662.831E-6	7.32389E-12	281.270E-3	5.76458E-3	7.10166E-12	278.945E-3	142.814E-6
657.829E-6	7.21519E-12	285.779E-3	3.32369E-3	7.11078E-12	283.646E-3	5.27335E-3
652.826E-6	7.05999E-12	277.894E-3	-8.59798E-3	7.06434E-12	285.409E-3	477.870E-6
647.824E-6	6.96313E-12	269.996E-3	-22.9642E-3	7.09633E-12	302.466E-3	99.7402E-6
642.821E-6	6.90403E-12	269.268E-3	-12.4588E-3	6.90409E-12	324.367E-3	-8.50299E-3
637.819E-6	6.75649E-12	279.405E-3	-2.07808E-3	6.80778E-12	329.242E-3	-18.6691E-3
632.816E-6	6.64583E-12	298.890E-3	-12.0153E-3	6.84496E-12	323.826E-3	-13.7125E-3
627.814E-6	6.66176E-12	306.505E-3	-13.7299E-3	6.73104E-12	317.274E-3	-6.73693E-3
622.811E-6	6.55583E-12	297.255E-3	-8.33077E-3	6.58879E-12	314.052E-3	-8.97888E-3
617.809E-6	6.38916E-12	299.678E-3	-13.8838E-3	6.41573E-12	313.709E-3	-9.94051E-3
612.806E-6	6.36689E-12	319.096E-3	-20.0690E-3	6.46797E-12	310.143E-3	-15.0175E-3
607.804E-6	6.27878E-12	322.721E-3	-21.3805E-3	6.33013E-12	305.543E-3	-26.2421E-3
602.801E-6	6.27939E-12	310.693E-3	-15.3939E-3	6.20217E-12	306.934E-3	-23.4239E-3
597.799E-6	6.23777E-12	312.796E-3	-4.37149E-3	6.10711E-12	316.475E-3	-15.6818E-3
592.796E-6	6.05119E-12	319.019E-3	-8.19733E-3	6.03899E-12	321.916E-3	-24.2120E-3
587.794E-6	5.86783E-12	324.156E-3	-20.7160E-3	5.87542E-12	316.393E-3	-31.7146E-3
582.791E-6	5.93960E-12	327.161E-3	-24.6656E-3	5.82884E-12	323.612E-3	-28.0137E-3
577.789E-6	5.80846E-12	318.214E-3	-27.1445E-3	5.71728E-12	328.082E-3	-25.7456E-3
572.786E-6	5.56782E-12	318.467E-3	-29.4701E-3	5.58857E-12	310.548E-3	-23.2566E-3
567.784E-6	5.51790E-12	316.541E-3	-27.0822E-3	5.46660E-12	309.081E-3	-26.0172E-3
562.781E-6	5.43438E-12	299.402E-3	-27.9636E-3	5.40454E-12	322.122E-3	-36.6999E-3
557.779E-6	5.25869E-12	301.335E-3	-30.6488E-3	5.33715E-12	319.795E-3	-44.5748E-3
552.776E-6	5.15511E-12	319.035E-3	-39.1128E-3	5.21966E-12	316.093E-3	-41.5334E-3
547.774E-6	5.00855E-12	322.363E-3	-55.0475E-3	5.07223E-12	326.806E-3	-31.6874E-3
542.771E-6	4.99503E-12	316.066E-3	-51.3144E-3	4.96386E-12	328.446E-3	-32.6239E-3
537.769E-6	4.88790E-12	314.705E-3	-26.5110E-3	5.00886E-12	316.749E-3	-30.7588E-3
532.766E-6	4.70916E-12	311.669E-3	-12.3047E-3	4.93513E-12	309.990E-3	-26.4326E-3
527.764E-6	4.55159E-12	306.272E-3	-12.3378E-3	4.68582E-12	309.989E-3	-26.6629E-3
522.761E-6	4.53844E-12	308.604E-3	-13.5029E-3	4.57623E-12	310.650E-3	-12.9463E-3
517.759E-6	4.42563E-12	309.078E-3	-10.4055E-3	4.55896E-12	313.982E-3	-5.26147E-3
512.756E-6	4.30768E-12	305.716E-3	-2.40801E-3	4.44710E-12	318.047E-3	-16.6474E-3
507.754E-6	4.17526E-12	306.003E-3	-183.568E-6	4.26360E-12	318.831E-3	-25.7836E-3
502.751E-6	4.08362E-12	305.256E-3	-3.70528E-3	4.15952E-12	303.620E-3	-28.7188E-3
497.749E-6	3.97280E-12	305.206E-3	-12.1913E-3	4.04211E-12	282.787E-3	-18.3355E-3
492.746E-6	3.90802E-12	315.540E-3	-23.0350E-3	3.92157E-12	285.225E-3	-4.89919E-3
487.744E-6	3.85269E-12	318.338E-3	-25.5031E-3	3.81604E-12	290.799E-3	-11.5847E-3
482.741E-6	3.73524E-12	305.793E-3	-25.5852E-3	3.67374E-12	283.331E-3	-19.1344E-3
477.739E-6	3.55939E-12	300.196E-3	-27.1410E-3	3.59277E-12	276.292E-3	-11.2811E-3
472.736E-6	3.51193E-12	298.159E-3	-11.4953E-3	3.50403E-12	276.033E-3	-2.06661E-3
467.734E-6	3.48123E-12	291.981E-3	3.19217E-3	3.41228E-12	277.361E-3	-1.54778E-3
462.731E-6	3.39059E-12	286.938E-3	-5.28427E-3	3.30956E-12	264.104E-3	-3.05479E-3
457.729E-6	3.17160E-12	277.940E-3	-19.4343E-3	3.22209E-12	253.414E-3	-4.44572E-3
452.726E-6	3.08559E-12	274.754E-3	-23.2601E-3	3.08290E-12	255.683E-3	-11.9086E-3
447.724E-6	3.11149E-12	275.923E-3	-14.7729E-3	2.99449E-12	254.241E-3	-18.6287E-3
442.721E-6	3.02051E-12	261.369E-3	-3.87703E-3	2.99536E-12	260.092E-3	-18.9209E-3
437.719E-6	2.80025E-12	249.153E-3	-1.78247E-3	2.95753E-12	257.144E-3	-21.0371E-3
432.716E-6	2.69444E-12	253.154E-3	-8.72041E-3	2.71673E-12	235.834E-3	-17.9676E-3
427.714E-6	2.71506E-12	245.405E-3	-10.1485E-3	2.67006E-12	223.715E-3	-8.41312E-3
422.711E-6	2.61237E-12	226.352E-3	-13.6028E-3	2.65983E-12	220.159E-3	-6.74502E-3
417.709E-6	2.46236E-12	226.196E-3	-9.80758E-3	2.58994E-12	222.841E-3	-8.57499E-3
412.706E-6	2.34152E-12	239.408E-3	11.5150E-3	2.39299E-12	231.352E-3	-8.65370E-3
407.704E-6	2.35426E-12	243.662E-3	8.98464E-3	2.32071E-12	226.948E-3	-13.3615E-3
402.701E-6	2.24545E-12	240.867E-3	-13.8170E-3	2.36476E-12	212.281E-3	-15.3290E-3
397.699E-6	2.15504E-12	237.897E-3	-21.8866E-3	2.23741E-12	203.942E-3	-6.93424E-3
392.696E-6	2.10747E-12	225.103E-3	-17.1375E-3	2.09295E-12	204.673E-3	266.235E-6
387.694E-6	2.03528E-12	212.070E-3	-7.92764E-3	1.97471E-12	207.306E-3	1.82690E-3
382.691E-6	1.97772E-12	216.060E-3	-4.49312E-3	2.00666E-12	204.628E-3	-2.11944E-3
377.689E-6	1.93215E-12	220.438E-3	-14.1828E-3	1.93096E-12	193.453E-3	-15.9037E-3
372.686E-6	1.85379E-12	215.488E-3	-24.7492E-3	1.82291E-12	181.722E-3	-17.6123E-3
367.684E-6	1.77620E-12	210.137E-3	-22.7973E-3	1.70016E-12	174.966E-3	-800.799E-6
362.681E-6	1.68534E-12	202.973E-3	-17.3171E-3	1.69337E-12	169.572E-3	-3.56429E-3
357.679E-6	1.65000E-12	201.112E-3	-18.9393E-3	1.58795E-12	173.299E-3	-17.2480E-3
352.676E-6	1.63691E-12	195.474E-3	-9.19307E-3	1.57341E-12	174.784E-3	-17.5456E-3
347.674E-6	1.57011E-12	183.441E-3	4.21949E-3	1.49946E-12	159.775E-3	-25.5011E-3
342.671E-6	1.42278E-12	178.094E-3	-4.10346E-3	1.42993E-12	142.003E-3	-32.5843E-3
337.669E-6	1.34091E-12	182.654E-3	-6.54983E-3	1.41115E-12	136.846E-3	-23.6399E-3
332.666E-6	1.41325E-12	194.052E-3	6.82745E-3	1.30157E-12	148.041E-3	-23.6941E-3
327.664E-6	1.31307E-12	193.172E-3	8.04742E-3	1.29958E-12	156.974E-3	-25.2818E-3
322.661E-6	1.18435E-12	176.998E-3	1.38250E-3	1.25028E-12	155.844E-3	-14.6222E-3
317.659E-6	1.14605E-12	163.089E-3	-9.51218E-3	1.12439E-12	148.318E-3	-9.46811E-3
312.656E-6	1.15757E-12	158.437E-3	-28.6098E-3	1.08654E-12	130.908E-3	-12.7866E-3
307.654E-6	1.09413E-12	164.540E-3	-34.5215E-3	1.12170E-12	115.944E-3	-9.61884E-3
302.651E-6	975.174E-15	163.033E-3	-23.1034E-3	1.07742E-12	119.466E-3	-7.90343E-3
297.649E-6	929.616E-15	141.831E-3	-13.7563E-3	910.799E-15	125.108E-3	-10.5677E-3
292.646E-6	900.188E-15	133.483E-3	-9.77162E-3	888.251E-15	111.852E-3	353.272E-6
287.644E-6	925.212E-15	135.174E-3	-2.11221E-3	965.504E-15	101.425E-3	3.67573E-3
282.641E-6	811.521E-15	123.219E-3	1.53407E-3	908.262E-15	101.561E-3	-12.4492E-3
277.639E-6	798.843E-15	121.043E-3	-9.16159E-3	732.341E-15	96.7554E-3	-19.2725E-3
272.636E-6	799.933E-15	128.199E-3	-24.4251E-3	698.667E-15	89.4397E-3	-16.2834E-3
267.634E-6	742.700E-15	124.493E-3	-38.8097E-3	750.007E-15	83.4100E-3	-16.6966E-3
262.631E-6	697.804E-15	115.090E-3	-44.5998E-3	811.940E-15	82.9421E-3	-18.7219E-3
257.629E-6	694.212E-15	106.013E-3	-33.2982E-3	623.106E-15	90.0786E-3	-20.2553E-3
252.626E-6	592.222E-15	102.941E-3	-17.5788E-3	582.857E-15	99.5242E-3	-14.8476E-3
247.624E-6	532.599E-15	107.317E-3	-14.9323E-3	631.293E-15	104.361E-3	-5.56616E-3
242.621E-6	556.926E-15	105.744E-3	-20.9999E-3	612.991E-15	87.8603E-3	-8.65080E-3
237.619E-6	593.347E-15	93.0831E-3	-18.7836E-3	553.412E-15	61.0234E-3	-19.5451E-3
232.616E-6	547.309E-15	87.3779E-3	-15.6219E-3	481.164E-15	46.8261E-3	-24.3129E-3
227.614E-6	382.540E-15	90.9646E-3	-11.6856E-3	483.797E-15	52.0925E-3	-24.7460E-3
222.611E-6	402.115E-15	89.8303E-3	-4.97143E-3	443.331E-15	65.7198E-3	-17.7489E-3
217.609E-6	419.213E-15	85.6778E-3	-7.57704E-3	392.567E-15	70.0378E-3	-9.29582E-3
212.606E-6	392.785E-15	77.1689E-3	-18.4711E-3	403.371E-15	64.6742E-3	-12.9682E-3
207.604E-6	294.065E-15	66.1135E-3	-29.7285E-3	365.337E-15	54.6025E-3	-18.8340E-3
202.601E-6	288.119E-15	60.5030E-3	-33.1431E-3	277.350E-15	50.2881E-3	-17.7820E-3
197.599E-6	382.985E-15	54.5613E-3	-20.5544E-3	304.328E-15	53.0273E-3	-19.1308E-3
192.596E-6	298.094E-15	49.3723E-3	-11.2434E-3	326.248E-15	56.0639E-3	-20.4755E-3
187.594E-6	216.995E-15	52.2152E-3	-22.7474E-3	345.657E-15	57.3396E-3	-13.1800E-3
182.591E-6	193.043E-15	54.9933E-3	-29.8117E-3	163.467E-15	50.7883E-3	-10.3362E-3
177.589E-6	249.632E-15	49.0408E-3	-20.0321E-3	221.259E-15	40.0018E-3	-21.0064E-3
172.586E-6	217.161E-15	48.6353E-3	-17.9914E-3	272.232E-15	39.6528E-3	-34.3327E-3
167.584E-6	175.204E-15	55.7077E-3	-23.7029E-3	257.340E-15	47.0375E-3	-30.3286E-3
162.581E-6	130.875E-15	55.3526E-3	-19.3312E-3	140.248E-15	52.3415E-3	-10.4120E-3
157.579E-6	215.583E-15	55.3451E-3	-17.1741E-3	116.122E-15	52.5129E-3	-4.25206E-3
152.576E-6	155.097E-15	64.8936E-3	-19.6314E-3	205.224E-15	49.0621E-3	-12.5386E-3
147.574E-6	95.0994E-15	65.2451E-3	-16.9785E-3	169.222E-15	46.8201E-3	-14.0895E-3
142.571E-6	137.519E-15	49.4948E-3	-18.3931E-3	55.0865E-15	36.0351E-3	-16.1674E-3
137.569E-6	128.625E-15	43.7338E-3	-21.2281E-3	16.7913E-15	13.6031E-3	-11.4088E-3
132.566E-6	71.3044E-15	51.3199E-3	-17.7192E-3	148.034E-15	7.11704E-3	3.78977E-3
127.564E-6	90.3648E-15	52.1073E-3	-15.3728E-3	135.261E-15	16.8145E-3	1.03330E-3
122.561E-6	116.810E-15	46.3619E-3	-15.0933E-3	71.2782E-15	23.6231E-3	-17.7255E-3
117.559E-6	27.9084E-15	37.9033E-3	-11.0591E-3	18.9275E-15	23.3515E-3	-28.7395E-3
112.556E-6	32.0326E-15	28.0368E-3	-16.8519E-3	54.3802E-15	17.1258E-3	-28.2520E-3
107.554E-6	-12.8892E-15	23.3287E-3	-30.4905E-3	42.2081E-15	17.4908E-3	-25.3774E-3
102.551E-6	73.0308E-15	20.2892E-3	-21.3126E-3	27.8386E-15	17.6884E-3	-28.2340E-3
97.5488E-6	77.6521E-15	14.4355E-3	-14.4072E-3	-13.1857E-15	13.5890E-3	-31.8707E-3
92.5463E-6	-8.73885E-15	12.4074E-3	-24.1969E-3	26.2343E-15	20.2186E-3	-39.4966E-3
87.5438E-6	-73.8459E-15	18.5262E-3	-16.4977E-3	-23.9889E-15	19.9518E-3	-46.8134E-3
82.5413E-6	43.7427E-15	17.6138E-3	-6.64833E-3	-27.6859E-15	10.8764E-3	-40.7442E-3
77.5388E-6	16.9046E-15	14.1589E-3	-12.3826E-3	18.4915E-15	12.5839E-3	-33.8820E-3
72.5363E-6	-97.6409E-15	25.9975E-3	-14.9343E-3	-11.7819E-15	20.8703E-3	-31.7104E-3
67.5338E-6	-113.092E-15	31.1501E-3	-10.0912E-3	-89.2965E-15	28.6080E-3	-21.5158E-3
62.5313E-6	-24.4336E-15	28.6897E-3	-13.4057E-3	-86.9162E-15	30.4394E-3	-1.13819E-3
57.5288E-6	-15.1737E-15	30.5713E-3	-22.5381E-3	-12.2004E-15	28.3074E-3	7.87358E-3
52.5263E-6	-92.9412E-15	23.5975E-3	-22.7960E-3	-20.3966E-15	23.5934E-3	-12.0524E-3
47.5238E-6	-115.175E-15	19.5362E-3	-15.4489E-3	-189.045E-15	13.8228E-3	-34.9598E-3
42.5213E-6	-72.4944E-15	33.7884E-3	-3.56099E-3	-169.462E-15	13.8980E-3	-45.1988E-3
37.5188E-6	-79.9756E-15	38.8090E-3	3.37272E-3	-30.6505E-15	27.4845E-3	-44.7768E-3
32.5163E-6	-104.922E-15	22.6901E-3	-2.57285E-3	-76.4792E-15	34.7676E-3	-24.2461E-3
27.5138E-6	-137.462E-15	12.3445E-3	-14.0033E-3	-204.348E-15	29.5590E-3	-4.71835E-3
22.5113E-6	-71.2127E-15	14.5465E-3	-21.5943E-3	-212.152E-15	29.9786E-3	645.482E-6
17.5088E-6	-131.350E-15	12.9589E-3	-27.2649E-3	-73.4100E-15	37.1766E-3	-1.57327E-3
12.5063E-6	-157.063E-15	10.5250E-3	-23.5180E-3	-85.0851E-15	36.1035E-3	-12.2286E-3
7.50375E-6	-141.316E-15	15.5340E-3	-11.2318E-3	-197.651E-15	32.3308E-3	-17.0729E-3
2.50125E-6	-183.753E-15	19.7209E-3	-13.2169E-3	-214.436E-15	27.4839E-3	-9.12440E-3
-2.50125E-6	-210.355E-15	24.1423E-3	-16.4114E-3	-164.814E-15	18.9443E-3	-9.85579E-3
-7.50375E-6	-115.411E-15	22.9547E-3	-11.6244E-3	-131.367E-15	21.1596E-3	-20.5577E-3
-12.5063E-6	-148.108E-15	13.2987E-3	-14.3345E-3	-240.925E-15	24.2099E-3	-26.0448E-3
-17.5088E-6	-186.438E-15	3.58956E-3	-20.7667E-3	-188.095E-15	20.9786E-3	-27.0210E-3
-22.5113E-6	-304.977E-15	654.916E-6	-20.3133E-3	-210.809E-15	25.2412E-3	-24.1571E-3
-27.5138E-6	-261.904E-15	7.88684E-3	-16.1642E-3	-223.766E-15	32.2794E-3	-17.5150E-3
-32.5163E-6	-174.807E-15	25.0076E-3	-12.3423E-3	-258.181E-15	32.3349E-3	-10.7445E-3
-37.5188E-6	-181.939E-15	29.0540E-3	-8.17474E-3	-227.314E-15	22.9378E-3	-5.42646E-3
-42.5213E-6	-312.964E-15	8.11167E-3	-2.68686E-3	-269.586E-15	12.6241E-3	-7.30868E-3
-47.5238E-6	-338.747E-15	5.47150E-3	-3.95957E-3	-315.440E-15	12.0932E-3	-16.6145E-3
-52.5263E-6	-204.670E-15	18.9067E-3	-14.4850E-3	-276.648E-15	23.8762E-3	-18.5389E-3
-57.5288E-6	-250.726E-15	14.3874E-3	-21.1094E-3	-243.480E-15	33.5283E-3	-13.3777E-3
-62.5313E-6	-365.385E-15	10.9700E-3	-15.0053E-3	-245.939E-15	33.9596E-3	-5.55151E-3
-67.5338E-6	-329.888E-15	19.4527E-3	-4.79938E-3	-351.809E-15	32.3557E-3	-1.00154E-3
-72.5363E-6	-242.756E-15	25.2895E-3	-2.04168E-3	-345.574E-15	28.4442E-3	-10.6426E-3
-77.5388E-6	-304.759E-15	29.7361E-3	-8.13965E-3	-252.897E-15	30.4271E-3	-20.0108E-3
-82.5413E-6	-360.336E-15	27.8872E-3	-17.9491E-3	-286.231E-15	38.3766E-3	-16.5229E-3
-87.5438E-6	-377.042E-15	26.4009E-3	-21.1853E-3	-414.893E-15	45.0447E-3	-12.3932E-3
-92.5463E-6	-326.566E-15	34.7723E-3	-19.1557E-3	-416.122E-15	45.9719E-3	-10.0551E-3
-97.5488E-6	-370.390E-15	40.4941E-3	-10.9654E-3	-330.368E-15	40.3837E-3	-15.1178E-3
-102.551E-6	-423.185E-15	40.0420E-3	-5.47702E-3	-322.573E-15	41.7073E-3	-25.2905E-3
-107.554E-6	-396.879E-15	37.5692E-3	-17.5639E-3	-433.099E-15	54.0025E-3	-18.3800E-3
-112.556E-6	-386.913E-15	36.1565E-3	-25.7864E-3	-499.810E-15	70.3826E-3	-2.22498E-3
-117.559E-6	-430.980E-15	37.5591E-3	-22.1351E-3	-399.006E-15	72.2275E-3	6.49464E-3
-122.561E-6	-467.680E-15	42.7237E-3	-23.6136E-3	-391.856E-15	61.7272E-3	6.76950E-3
-127.564E-6	-431.791E-15	45.2348E-3	-21.7422E-3	-520.257E-15	54.3065E-3	-1.96732E-3
-132.566E-6	-483.540E-15	45.6966E-3	-16.8904E-3	-512.915E-15	48.9451E-3	-8.24124E-3
-137.569E-6	-589.924E-15	52.6821E-3	-25.6620E-3	-494.247E-15	50.2294E-3	-3.01110E-3
-142.571E-6	-563.644E-15	53.0682E-3	-35.9458E-3	-516.804E-15	64.9797E-3	-4.57510E-3
-147.574E-6	-487.577E-15	50.4942E-3	-28.2325E-3	-550.888E-15	85.6500E-3	-19.8881E-3
-152.576E-6	-550.156E-15	57.5029E-3	-14.2905E-3	-579.330E-15	82.1413E-3	-33.8305E-3
-157.579E-6	-683.535E-15	62.9291E-3	-9.20045E-3	-571.631E-15	71.1096E-3	-38.9827E-3
-162.581E-6	-719.598E-15	60.6402E-3	-15.0495E-3	-610.790E-15	83.0046E-3	-36.9270E-3
-167.584E-6	-590.003E-15	52.7441E-3	-25.6893E-3	-673.708E-15	100.741E-3	-28.4790E-3
-172.586E-6	-642.694E-15	53.7716E-3	-23.8106E-3	-642.371E-15	109.563E-3	-11.6858E-3
-177.589E-6	-789.413E-15	71.4175E-3	-9.88577E-3	-690.057E-15	106.949E-3	-7.50076E-3
-182.591E-6	-794.662E-15	86.9552E-3	-9.03728E-3	-794.697E-15	93.8357E-3	-15.4659E-3
-187.594E-6	-713.773E-15	88.8956E-3	-20.4622E-3	-819.713E-15	87.7774E-3	-12.9934E-3
-192.596E-6	-795.709E-15	91.8338E-3	-24.9581E-3	-757.736E-15	94.9299E-3	-11.5426E-3
-197.599E-6	-844.083E-15	100.226E-3	-22.6540E-3	-797.086E-15	98.1572E-3	-9.95850E-3
-202.601E-6	-880.391E-15	101.678E-3	-12.8710E-3	-960.966E-15	92.5865E-3	-10.6179E-3
-207.604E-6	-865.568E-15	97.9761E-3	-6.26372E-3	-975.169E-15	96.6044E-3	-13.1171E-3
-212.606E-6	-879.292E-15	101.171E-3	-11.9182E-3	-901.831E-15	113.602E-3	-7.57786E-3
-217.609E-6	-978.614E-15	118.443E-3	-14.4142E-3	-916.323E-15	122.342E-3	-6.53708E-3
-222.611E-6	-1.04056E-12	129.451E-3	-14.7038E-3	-1.10760E-12	119.893E-3	-11.6503E-3
-227.614E-6	-1.05192E-12	118.763E-3	-30.3161E-3	-1.15352E-12	115.431E-3	-19.4114E-3
-232.616E-6	-1.10846E-12	110.155E-3	-52.5283E-3	-1.09452E-12	118.769E-3	-23.5170E-3
-237.619E-6	-1.18523E-12	119.754E-3	-44.0369E-3	-1.14457E-12	129.430E-3	-20.2040E-3
-242.621E-6	-1.21063E-12	131.911E-3	-25.7712E-3	-1.24226E-12	139.555E-3	-17.1603E-3
-247.624E-6	-1.23140E-12	140.489E-3	-31.4655E-3	-1.30757E-12	155.653E-3	-15.8518E-3
-252.626E-6	-1.36906E-12	141.402E-3	-29.6729E-3	-1.26526E-12	176.805E-3	-12.9063E-3
-257.629E-6	-1.38065E-12	132.464E-3	-19.2411E-3	-1.34394E-12	183.800E-3	-8.05507E-3
-262.631E-6	-1.39639E-12	141.023E-3	-20.9566E-3	-1.46635E-12	177.536E-3	-9.64827E-3
-267.634E-6	-1.51524E-12	155.017E-3	-23.9583E-3	-1.52458E-12	179.297E-3	-21.7608E-3
-272.636E-6	-1.64289E-12	147.064E-3	-26.0331E-3	-1.50323E-12	185.424E-3	-32.2804E-3
-277.639E-6	-1.68102E-12	147.960E-3	-30.0268E-3	-1.62693E-12	195.347E-3	-28.9038E-3
-282.641E-6	-1.66400E-12	171.008E-3	-18.8910E-3	-1.72560E-12	209.535E-3	-24.0028E-3
-287.644E-6	-1.74252E-12	191.084E-3	-1.94653E-3	-1.73977E-12	214.962E-3	-24.0661E-3
-292.646E-6	-1.93651E-12	201.789E-3	-3.41745E-3	-1.84426E-12	217.441E-3	-17.2226E-3
-297.649E-6	-1.97445E-12	205.878E-3	-8.02007E-3	-2.02135E-12	234.616E-3	-11.6541E-3
-302.651E-6	-1.87373E-12	208.116E-3	-3.87590E-3	-2.02333E-12	255.895E-3	-15.3968E-3
-307.654E-6	-2.01144E-12	220.230E-3	-9.39233E-3	-2.03538E-12	260.225E-3	-18.5334E-3
-312.656E-6	-2.18893E-12	236.101E-3	-17.6833E-3	-2.10757E-12	262.385E-3	-13.9197E-3
-317.659E-6	-2.23184E-12	247.665E-3	-13.9351E-3	-2.30230E-12	270.822E-3	-14.0459E-3
-322.661E-6	-2.26102E-12	256.606E-3	-12.5528E-3	-2.34811E-12	277.802E-3	-25.6959E-3
-327.664E-6	-2.40853E-12	255.713E-3	-17.2937E-3	-2.36917E-12	287.251E-3	-32.3509E-3
-332.666E-6	-2.52046E-12	246.532E-3	-21.3329E-3	-2.45893E-12	299.283E-3	-29.5572E-3
-337.669E-6	-2.57830E-12	251.808E-3	-23.2313E-3	-2.68624E-12	307.436E-3	-23.8812E-3
-342.671E-6	-2.64338E-12	273.275E-3	-26.0142E-3	-2.80431E-12	319.973E-3	-11.4694E-3
-347.674E-6	-2.73718E-12	287.534E-3	-19.7264E-3	-2.76558E-12	334.191E-3	1.79689E-3
-352.676E-6	-2.88563E-12	291.440E-3	-11.4480E-3	-2.80156E-12	334.428E-3	-9.23367E-3
-357.679E-6	-2.98569E-12	305.732E-3	-12.9523E-3	-3.04567E-12	337.519E-3	-28.6423E-3
-362.681E-6	-3.08637E-12	316.986E-3	-9.19507E-3	-3.16181E-12	358.286E-3	-24.0645E-3
-367.684E-6	-3.24299E-12	314.630E-3	-11.4050E-3	-3.09310E-12	380.882E-3	-7.05929E-3
-372.686E-6	-3.37926E-12	325.915E-3	-16.2550E-3	-3.27133E-12	396.794E-3	-4.71957E-3
-377.689E-6	-3.41073E-12	343.013E-3	-11.5518E-3	-3.52470E-12	403.863E-3	-20.3942E-3
-382.691E-6	-3.55029E-12	351.224E-3	-22.6198E-3	-3.58876E-12	406.560E-3	-26.7004E-3
-387.694E-6	-3.72654E-12	363.840E-3	-35.2546E-3	-3.64225E-12	417.485E-3	-13.1426E-3
-392.696E-6	-3.89831E-12	376.957E-3	-21.9634E-3	-3.82954E-12	422.625E-3	-6.04722E-3
-397.699E-6	-3.87416E-12	383.211E-3	-8.86950E-3	-3.97801E-12	411.797E-3	-16.2416E-3
-402.701E-6	-4.05418E-12	399.503E-3	-14.4736E-3	-4.12150E-12	417.546E-3	-32.6007E-3
-407.704E-6	-4.24577E-12	417.310E-3	-21.3680E-3	-4.21952E-12	443.595E-3	-46.5842E-3
-412.706E-6	-4.42298E-12	418.044E-3	-22.3658E-3	-4.47179E-12	456.198E-3	-47.0055E-3
-417.709E-6	-4.37711E-12	424.098E-3	-23.9411E-3	-4.56129E-12	456.161E-3	-32.5275E-3
-422.711E-6	-4.55718E-12	430.623E-3	-12.5647E-3	-4.64165E-12	455.747E-3	-27.6351E-3
-427.714E-6	-4.88437E-12	428.669E-3	7.88639E-3	-4.76127E-12	457.207E-3	-27.7969E-3
-432.716E-6	-4.99301E-12	444.347E-3	10.3922E-3	-5.05181E-12	460.426E-3	-14.6250E-3
-437.719E-6	-5.01721E-12	465.483E-3	515.869E-6	-5.16835E-12	467.874E-3	-11.3099E-3
-442.721E-6	-5.22791E-12	468.509E-3	-11.6509E-3	-5.17088E-12	487.177E-3	-17.6552E-3
-447.724E-6	-5.53325E-12	469.533E-3	-26.4265E-3	-5.34699E-12	506.110E-3	-13.1311E-3
-452.726E-6	-5.64438E-12	477.898E-3	-28.3187E-3	-5.67512E-12	510.596E-3	-11.1251E-3
-457.729E-6	-5.76784E-12	482.346E-3	-23.6615E-3	-5.76827E-12	516.518E-3	-22.7349E-3
-462.731E-6	-5.99242E-12	498.162E-3	-19.6802E-3	-5.83761E-12	533.091E-3	-31.0100E-3
-467.734E-6	-6.32083E-12	523.044E-3	-7.84105E-3	-6.05513E-12	543.585E-3	-21.7200E-3
-472.736E-6	-6.47137E-12	527.759E-3	-8.40263E-3	-6.36192E-12	544.848E-3	-3.06923E-3
-477.739E-6	-6.57770E-12	530.117E-3	-16.8983E-3	-6.56905E-12	551.990E-3	-7.53336E-3
-482.741E-6	-6.77757E-12	544.097E-3	-13.6419E-3	-6.60815E-12	567.275E-3	-31.9756E-3
-487.744E-6	-7.02164E-12	554.724E-3	-13.8612E-3	-6.76713E-12	580.301E-3	-36.0843E-3
-492.746E-6	-7.18143E-12	560.935E-3	-20.9661E-3	-7.13781E-12	586.146E-3	-29.0425E-3
-497.749E-6	-7.39496E-12	565.590E-3	-28.4497E-3	-7.34115E-12	594.441E-3	-24.0123E-3
-502.751E-6	-7.58433E-12	570.370E-3	-27.6050E-3	-7.39520E-12	594.418E-3	-22.0394E-3
-507.754E-6	-7.68337E-12	569.160E-3	-22.6025E-3	-7.59998E-12	584.088E-3	-27.0579E-3
-512.756E-6	-7.92304E-12	562.721E-3	-15.6718E-3	-7.95021E-12	592.411E-3	-21.6528E-3
-517.759E-6	-8.00386E-12	563.680E-3	-8.21123E-3	-8.05887E-12	611.797E-3	-13.1054E-3
-522.761E-6	-8.25276E-12	576.554E-3	-12.7700E-3	-8.20942E-12	618.483E-3	-12.9843E-3
-527.764E-6	-8.44418E-12	589.516E-3	-14.8897E-3	-8.49581E-12	621.889E-3	-15.8105E-3
-532.766E-6	-8.48873E-12	592.569E-3	-15.0313E-3	-8.74145E-12	624.326E-3	-18.4615E-3
-537.769E-6	-8.68439E-12	585.610E-3	-16.4878E-3	-8.85353E-12	622.104E-3	-12.4090E-3
-542.771E-6	-9.04539E-12	577.542E-3	-6.38341E-3	-8.93317E-12	621.698E-3	-5.21701E-3
-547.774E-6	-9.21425E-12	577.277E-3	3.94264E-3	-9.22138E-12	622.099E-3	-6.45062E-3
-552.776E-6	-9.15519E-12	584.734E-3	1.57744E-3	-9.39926E-12	610.051E-3	-17.9718E-3
-557.779E-6	-9.32616E-12	593.323E-3	-5.44741E-3	-9.38278E-12	603.665E-3	-28.4332E-3
-562.781E-6	-9.80398E-12	592.249E-3	-2.53714E-3	-9.59556E-12	621.512E-3	-15.8953E-3
-567.784E-6	-10.1706E-12	585.136E-3	-5.19658E-3	-10.0756E-12	626.971E-3	-6.66282E-3
-572.786E-6	-10.3193E-12	592.024E-3	-22.3281E-3	-10.4629E-12	614.677E-3	-19.7758E-3
-577.789E-6	-10.6150E-12	611.884E-3	-20.8129E-3	-10.5121E-12	611.875E-3	-20.1665E-3
-582.791E-6	-10.8845E-12	621.636E-3	-13.2189E-3	-10.7171E-12	619.363E-3	-9.96073E-3
-587.794E-6	-11.1254E-12	626.700E-3	-14.0931E-3	-11.1291E-12	632.893E-3	-23.3529E-3
-592.796E-6	-11.1967E-12	630.301E-3	-4.03060E-3	-11.3591E-12	644.102E-3	-40.1014E-3
-597.799E-6	-11.4156E-12	622.184E-3	3.34264E-3	-11.3880E-12	640.413E-3	-26.7650E-3
-602.801E-6	-11.6925E-12	617.628E-3	-6.14457E-3	-11.6424E-12	623.104E-3	-11.8745E-3
-607.804E-6	-11.8074E-12	625.537E-3	-18.8055E-3	-12.0246E-12	615.364E-3	-15.0723E-3
-612.806E-6	-11.8828E-12	626.585E-3	-21.8999E-3	-12.2856E-12	623.689E-3	-16.3627E-3
-617.809E-6	-12.0461E-12	622.277E-3	-25.2891E-3	-12.3136E-12	621.125E-3	-6.94919E-3
-622.811E-6	-12.3434E-12	615.727E-3	-29.1168E-3	-12.4747E-12	605.506E-3	5.38880E-6
-627.814E-6	-12.2885E-12	601.775E-3	-23.4703E-3	-12.7645E-12	594.782E-3	-2.60369E-3
-632.816E-6	-12.4123E-12	597.739E-3	-17.7573E-3	-12.9615E-12	585.088E-3	-13.6701E-3
-637.819E-6	-12.7084E-12	604.780E-3	-11.0031E-3	-13.0002E-12	577.328E-3	-25.0218E-3
-642.821E-6	-12.8706E-12	598.181E-3	-3.75790E-3	-13.1836E-12	571.066E-3	-20.4200E-3
-647.824E-6	-12.8890E-12	571.907E-3	-14.3417E-3	-13.4760E-12	566.831E-3	-16.5970E-3
-652.826E-6	-13.1519E-12	553.002E-3	-25.9256E-3	-13.6482E-12	567.552E-3	-23.4441E-3
-657.829E-6	-13.4416E-12	552.565E-3	-22.1458E-3	-13.5701E-12	554.870E-3	-21.1825E-3
-662.831E-6	-13.7259E-12	558.426E-3	-16.8181E-3	-13.8156E-12	540.706E-3	-17.6732E-3
-667.834E-6	-13.7856E-12	567.787E-3	-17.4446E-3	-14.0371E-12	549.871E-3	-20.6774E-3
-672.836E-6	-13.9920E-12	571.825E-3	-22.2083E-3	-13.9409E-12	555.801E-3	-17.0052E-3
-677.839E-6	-14.4941E-12	566.944E-3	-26.7566E-3	-14.0700E-12	531.148E-3	-10.5145E-3
-682.841E-6	-14.6524E-12	565.770E-3	-26.1382E-3	-14.3607E-12	505.048E-3	-10.4726E-3
-687.844E-6	-14.7515E-12	568.393E-3	-21.8636E-3	-14.5491E-12	503.199E-3	-23.3635E-3
-692.846E-6	-15.0845E-12	560.085E-3	-26.2352E-3	-14.5152E-12	518.635E-3	-33.1178E-3
-697.849E-6	-15.4925E-12	552.706E-3	-30.8089E-3	-14.8095E-12	528.291E-3	-22.4489E-3
-702.851E-6	-15.4998E-12	559.708E-3	-18.9036E-3	-15.1014E-12	512.121E-3	-14.3170E-3
-707.854E-6	-15.8234E-12	554.781E-3	-7.62670E-3	-15.2908E-12	487.188E-3	-19.3424E-3
-712.856E-6	-15.9623E-12	542.959E-3	-3.03189E-3	-15.4391E-12	486.844E-3	-19.8030E-3
-717.859E-6	-16.0427E-12	529.824E-3	-1.76050E-3	-15.6319E-12	496.458E-3	-10.6027E-3
-722.861E-6	-16.1010E-12	507.812E-3	-12.4403E-3	-15.9424E-12	495.263E-3	-4.05924E-3
-727.864E-6	-16.2641E-12	499.967E-3	-23.0255E-3	-16.1007E-12	487.511E-3	-10.8438E-3
-732.866E-6	-16.3623E-12	505.748E-3	-18.4274E-3	-16.0718E-12	472.938E-3	-20.6771E-3
-737.869E-6	-16.3959E-12	509.840E-3	-11.9423E-3	-16.2880E-12	459.359E-3	-24.1994E-3
-742.871E-6	-16.4748E-12	505.999E-3	-12.3522E-3	-16.5592E-12	456.050E-3	-21.5785E-3
-747.874E-6	-16.6321E-12	493.912E-3	-11.2019E-3	-16.7301E-12	465.347E-3	-16.6649E-3
-752.876E-6	-16.8301E-12	483.859E-3	-7.26889E-3	-16.7770E-12	462.466E-3	-19.5059E-3
-757.879E-6	-16.9850E-12	486.278E-3	-4.50881E-3	-16.9502E-12	439.509E-3	-23.1352E-3
-762.881E-6	-17.0929E-12	487.376E-3	-3.56611E-3	-17.1789E-12	426.660E-3	-17.4881E-3
-767.884E-6	-17.2424E-12	466.592E-3	-14.7311E-3	-17.4793E-12	419.481E-3	-9.41704E-3
-772.886E-6	-17.6109E-12	444.902E-3	-31.8352E-3	-17.4610E-12	405.941E-3	-4.56538E-3
-777.889E-6	-18.0299E-12	443.886E-3	-27.6491E-3	-17.7055E-12	400.311E-3	-4.93519E-3
-782.891E-6	-18.0589E-12	441.234E-3	-12.7789E-3	-17.8624E-12	395.032E-3	-18.4978E-3
-787.894E-6	-18.1222E-12	429.746E-3	-21.1306E-3	-17.9205E-12	386.374E-3	-28.8806E-3
-792.896E-6	-18.7976E-12	414.368E-3	-36.9750E-3	-18.0833E-12	392.954E-3	-20.4644E-3
-797.899E-6	-18.8078E-12	397.879E-3	-31.8688E-3	-18.4134E-12	401.109E-3	-14.6002E-3
-802.901E-6	-18.7738E-12	392.628E-3	-24.9963E-3	-18.5431E-12	383.695E-3	-21.5770E-3
-807.904E-6	-18.8785E-12	393.594E-3	-23.5327E-3	-18.7311E-12	358.092E-3	-20.3295E-3
-812.906E-6	-19.2765E-12	394.836E-3	-22.1493E-3	-19.0754E-12	344.102E-3	-10.2345E-3
-817.909E-6	-19.1973E-12	395.120E-3	-27.7215E-3	-19.2395E-12	344.503E-3	-9.38722E-3
-822.911E-6	-19.0731E-12	389.938E-3	-31.1896E-3	-19.3549E-12	348.212E-3	-14.7385E-3
-827.914E-6	-19.1964E-12	373.915E-3	-20.9430E-3	-19.5338E-12	343.083E-3	-17.3426E-3
-832.916E-6	-19.0997E-12	351.220E-3	-11.1559E-3	-19.6876E-12	335.293E-3	-19.1696E-3
-837.919E-6	-19.2431E-12	341.270E-3	-11.9739E-3	-19.8394E-12	335.566E-3	-16.1018E-3
-842.921E-6	-19.1025E-12	343.512E-3	-10.0893E-3	-19.8986E-12	340.081E-3	-11.2970E-3
-847.924E-6	-19.2218E-12	334.072E-3	-13.2886E-3	-19.9617E-12	333.569E-3	-9.62943E-3
-852.926E-6	-19.3020E-12	312.724E-3	-28.9943E-3	-19.8671E-12	318.482E-3	-8.07510E-3
-857.929E-6	-19.3500E-12	301.042E-3	-41.5346E-3	-20.1461E-12	304.781E-3	-14.4855E-3
-862.931E-6	-19.1852E-12	294.493E-3	-47.2130E-3	-20.3510E-12	292.752E-3	-30.6315E-3
-867.934E-6	-19.3837E-12	280.874E-3	-30.0977E-3	-20.2969E-12	285.243E-3	-33.6137E-3
-872.936E-6	-19.5723E-12	268.038E-3	-4.18624E-3	-20.2319E-12	284.466E-3	-29.8033E-3
-877.939E-6	-19.8638E-12	269.644E-3	-12.2541E-3	-20.3247E-12	273.298E-3	-26.4162E-3
-882.941E-6	-19.7831E-12	278.020E-3	-30.5384E-3	-20.4604E-12	254.591E-3	-16.0568E-3
-887.944E-6	-20.1406E-12	277.915E-3	-24.7615E-3	-20.2263E-12	250.584E-3	-22.2852E-3
-892.946E-6	-20.3814E-12	262.673E-3	-17.9438E-3	-20.4489E-12	256.675E-3	-33.9161E-3
-897.949E-6	-20.3219E-12	249.372E-3	-24.3064E-3	-20.4123E-12	257.595E-3	-30.3320E-3
-902.951E-6	-20.5032E-12	257.038E-3	-27.1531E-3	-20.5884E-12	247.993E-3	-16.0671E-3
-907.954E-6	-20.7680E-12	266.906E-3	-24.7775E-3	-20.6107E-12	229.084E-3	3.28671E-3
-912.956E-6	-21.0517E-12	266.264E-3	-24.5699E-3	-20.7890E-12	219.956E-3	-2.26045E-3
-917.959E-6	-20.8399E-12	261.004E-3	-25.5116E-3	-20.8211E-12	222.293E-3	-21.4430E-3
-922.961E-6	-21.1348E-12	250.146E-3	-24.6676E-3	-20.7737E-12	215.259E-3	-27.3283E-3
-927.964E-6	-21.1824E-12	236.702E-3	-27.6376E-3	-20.9808E-12	209.036E-3	-26.8633E-3
-932.966E-6	-21.1652E-12	229.481E-3	-21.5812E-3	-20.9620E-12	213.259E-3	-22.9497E-3
-937.969E-6	-21.1016E-12	224.282E-3	-9.11689E-3	-21.1431E-12	214.200E-3	-21.7488E-3
-942.971E-6	-21.2115E-12	224.588E-3	-14.7746E-3	-20.7600E-12	210.457E-3	-12.9653E-3
-947.974E-6	-21.2310E-12	225.318E-3	-17.0007E-3	-20.8752E-12	210.946E-3	714.896E-6
-952.976E-6	-21.4518E-12	221.868E-3	-4.48126E-3	-21.1592E-12	206.238E-3	-466.195E-6
-957.979E-6	-21.4322E-12	228.383E-3	-1.72898E-3	-20.9596E-12	191.847E-3	-9.40354E-3
-962.981E-6	-21.2840E-12	230.136E-3	-9.29206E-3	-21.1258E-12	191.390E-3	-15.1496E-3
-967.984E-6	-21.4363E-12	217.056E-3	-15.0772E-3	-21.1517E-12	197.167E-3	-18.2820E-3
-972.986E-6	-21.5325E-12	207.824E-3	-12.5326E-3	-21.3336E-12	191.985E-3	-19.4066E-3
-977.989E-6	-21.4737E-12	203.900E-3	-7.52871E-3	-21.3904E-12	194.065E-3	-23.4022E-3
-982.991E-6	-21.5663E-12	202.588E-3	-19.9097E-3	-21.3597E-12	209.069E-3	-30.3120E-3
-987.994E-6	-21.8695E-12	211.155E-3	-29.7912E-3	-21.0598E-12	216.180E-3	-27.8025E-3
-992.997E-6	-21.8095E-12	220.606E-3	-19.3948E-3	-21.3591E-12	213.753E-3	-21.0040E-3
-997.999E-6	-22.0360E-12	215.264E-3	-28.2011E-3	-21.5922E-12	210.215E-3	-22.2446E-3
-1.00300E-3	-22.0776E-12	203.644E-3	-49.6138E-3	-21.4135E-12	207.402E-3	-19.8275E-3
-1.00800E-3	-22.3971E-12	212.335E-3	-39.5594E-3	-21.6968E-12	221.914E-3	-8.46477E-3
-1.01301E-3	-22.3534E-12	226.485E-3	-14.7907E-3	-22.1371E-12	249.501E-3	-1.61713E-3
-1.01801E-3	-22.5165E-12	226.418E-3	-7.01410E-3	-22.1523E-12	259.129E-3	-2.07404E-3
-1.02301E-3	-22.8064E-12	233.376E-3	-15.4524E-3	-22.3538E-12	262.808E-3	-8.01556E-3
-1.02801E-3	-23.0530E-12	245.469E-3	-12.0918E-3	-22.6599E-12	264.284E-3	-6.54165E-3
-1.03302E-3	-22.9640E-12	241.314E-3	5.75407E-3	-22.8461E-12	244.515E-3	-1.13935E-3
-1.03802E-3	-23.0174E-12	227.485E-3	2.74205E-3	-22.9348E-12	237.319E-3	-4.71659E-3
-1.04302E-3	-23.1185E-12	224.441E-3	-13.2173E-3	-22.8786E-12	256.087E-3	-15.5152E-3
-1.04802E-3	-23.1356E-12	237.662E-3	-18.7499E-3	-23.1035E-12	260.809E-3	-26.0562E-3
-1.05303E-3	-22.9690E-12	252.576E-3	-17.8331E-3	-23.3086E-12	252.396E-3	-30.4235E-3
-1.05803E-3	-23.1090E-12	253.149E-3	-18.1083E-3	-23.4372E-12	251.460E-3	-33.3313E-3
-1.06303E-3	-23.3701E-12	245.410E-3	-27.8786E-3	-23.4578E-12	257.716E-3	-33.5969E-3
-1.06803E-3	-23.0292E-12	246.369E-3	-37.0425E-3	-23.7999E-12	271.749E-3	-23.3621E-3
-1.07304E-3	-23.2016E-12	253.715E-3	-27.9128E-3	-23.8061E-12	284.267E-3	-9.20505E-3
-1.07804E-3	-23.2469E-12	254.574E-3	-11.4100E-3	-23.4851E-12	288.547E-3	-4.89322E-3
-1.08304E-3	-23.5824E-12	252.232E-3	-7.31839E-3	-23.8298E-12	287.662E-3	-16.2145E-3
-1.08804E-3	-23.5661E-12	257.865E-3	-16.5215E-3	-23.9732E-12	294.756E-3	-32.9862E-3
-1.09305E-3	-23.6634E-12	268.619E-3	-29.6106E-3	-23.8607E-12	315.845E-3	-35.6353E-3
-1.09805E-3	-24.0129E-12	282.110E-3	-28.8521E-3	-23.7005E-12	331.129E-3	-20.1015E-3
-1.10305E-3	-24.0602E-12	302.412E-3	-10.5673E-3	-24.1072E-12	336.580E-3	1.11560E-3
-1.10805E-3	-24.4668E-12	311.591E-3	-6.11968E-3	-23.9915E-12	340.424E-3	7.26887E-3
-1.11306E-3	-24.4568E-12	308.597E-3	-22.7493E-3	-24.2759E-12	344.198E-3	3.14747E-3
-1.11806E-3	-24.6817E-12	310.574E-3	-25.2005E-3	-24.3701E-12	363.494E-3	-2.41692E-3
-1.12306E-3	-24.5949E-12	316.185E-3	-4.96381E-3	-24.4788E-12	389.420E-3	-10.4470E-3
-1.12806E-3	-24.7057E-12	331.492E-3	7.66350E-3	-24.5313E-12	398.019E-3	-14.7732E-3
-1.13307E-3	-24.6706E-12	351.421E-3	2.79002E-3	-24.9480E-12	399.543E-3	-10.5925E-3
-1.13807E-3	-24.7496E-12	358.337E-3	-13.9303E-3	-25.0525E-12	401.226E-3	-8.84453E-3
-1.14307E-3	-24.7776E-12	365.866E-3	-30.8959E-3	-25.0135E-12	404.669E-3	-18.9116E-3
-1.14807E-3	-24.7813E-12	381.294E-3	-29.9633E-3	-25.1535E-12	419.187E-3	-22.6549E-3
-1.15308E-3	-24.8198E-12	388.818E-3	-24.3809E-3	-25.3439E-12	433.542E-3	-13.0402E-3
-1.15808E-3	-25.0062E-12	389.989E-3	-28.6160E-3	-25.4525E-12	442.561E-3	-11.8950E-3
-1.16308E-3	-25.0738E-12	399.886E-3	-26.2586E-3	-25.5772E-12	462.715E-3	-20.5850E-3
-1.16808E-3	-25.0266E-12	412.056E-3	-17.8763E-3	-25.8799E-12	483.440E-3	-26.3523E-3
-1.17309E-3	-25.2478E-12	422.501E-3	-19.3953E-3	-25.7947E-12	486.987E-3	-26.5226E-3
-1.17809E-3	-25.4967E-12	434.152E-3	-23.6627E-3	-25.6658E-12	492.929E-3	-26.2708E-3
-1.18309E-3	-25.7729E-12	437.557E-3	-16.4752E-3	-25.9645E-12	506.324E-3	-28.1513E-3
-1.18809E-3	-26.3801E-12	450.216E-3	-13.5990E-3	-25.8495E-12	511.725E-3	-28.5063E-3
-1.19310E-3	-26.2047E-12	482.161E-3	-17.9295E-3	-25.9129E-12	522.893E-3	-29.4529E-3
-1.19810E-3	-26.6861E-12	509.079E-3	-4.63198E-3	-26.0791E-12	538.272E-3	-27.9123E-3
-1.20310E-3	-27.1293E-12	515.204E-3	16.3430E-3	-26.0716E-12	544.593E-3	-29.3047E-3
-1.20810E-3	-27.0286E-12	523.071E-3	20.0581E-3	-25.9468E-12	560.905E-3	-30.0531E-3
-1.21311E-3	-27.2436E-12	541.291E-3	8.77490E-3	-26.1722E-12	588.226E-3	-26.5013E-3
-1.21811E-3	-27.6537E-12	552.705E-3	-8.70085E-3	-26.2487E-12	602.837E-3	-25.5752E-3
-1.22311E-3	-27.8324E-12	569.484E-3	-19.3852E-3	-26.4705E-12	614.784E-3	-23.0519E-3
-1.22811E-3	-27.7769E-12	595.140E-3	-9.13212E-3	-26.8266E-12	636.418E-3	-13.3249E-3
-1.23312E-3	-28.3369E-12	607.280E-3	-8.52196E-3	-26.9124E-12	652.937E-3	919.687E-6
-1.23812E-3	-28.1934E-12	623.757E-3	-28.8206E-3	-27.3992E-12	663.989E-3	511.004E-6
-1.24312E-3	-28.2946E-12	646.979E-3	-37.3795E-3	-27.8084E-12	683.384E-3	-16.0681E-3
-1.24812E-3	-28.3684E-12	653.454E-3	-34.7538E-3	-28.0142E-12	707.579E-3	-25.0736E-3
-1.25313E-3	-28.6066E-12	658.973E-3	-23.8465E-3	-28.2793E-12	723.433E-3	-20.9234E-3
-1.25813E-3	-28.8083E-12	668.354E-3	-1.13353E-3	-28.7070E-12	733.071E-3	-13.3522E-3
-1.26313E-3	-28.7736E-12	672.618E-3	2.86440E-3	-28.9975E-12	738.752E-3	-11.8203E-3
-1.26813E-3	-29.0307E-12	681.522E-3	-7.47366E-3	-29.1984E-12	740.768E-3	-23.5799E-3
-1.27314E-3	-29.2638E-12	700.511E-3	-13.3288E-3	-29.4901E-12	751.934E-3	-29.1748E-3
-1.27814E-3	-29.5881E-12	719.155E-3	-20.6687E-3	-29.7443E-12	774.802E-3	-22.7356E-3
-1.28314E-3	-29.8203E-12	736.264E-3	-22.9319E-3	-29.8769E-12	797.341E-3	-19.4571E-3
-1.28814E-3	-30.2001E-12	753.061E-3	-12.9032E-3	-30.1555E-12	808.161E-3	-12.6250E-3
-1.29315E-3	-30.3237E-12	767.502E-3	5.12422E-3	-30.3041E-12	817.732E-3	-14.0137E-3
-1.29815E-3	-30.7929E-12	778.110E-3	2.95344E-3	-30.4986E-12	833.526E-3	-23.6499E-3
-1.30315E-3	-30.9666E-12	788.460E-3	-18.6800E-3	-30.5236E-12	857.970E-3	-13.9279E-3
-1.30815E-3	-31.3421E-12	804.830E-3	-23.6273E-3	-30.8398E-12	876.279E-3	1.04584E-3
-1.31316E-3	-31.8470E-12	826.386E-3	-17.6911E-3	-31.1645E-12	872.771E-3	-1.75957E-3
-1.31816E-3	-32.0781E-12	847.434E-3	-18.6191E-3	-31.4775E-12	880.050E-3	-14.1953E-3
-1.32316E-3	-32.4279E-12	861.776E-3	-17.5845E-3	-32.1521E-12	914.528E-3	-33.1790E-3
-1.32816E-3	-32.7929E-12	869.940E-3	-14.9112E-3	-32.4649E-12	943.590E-3	-39.7176E-3
-1.33317E-3	-33.1172E-12	890.162E-3	-7.95646E-3	-32.7596E-12	954.477E-3	-29.7734E-3
-1.33817E-3	-33.6056E-12	915.199E-3	-236.206E-6	-33.3008E-12	969.397E-3	-26.3605E-3
-1.34317E-3	-33.7878E-12	928.660E-3	-8.83200E-3	-33.8410E-12	978.403E-3	-23.6928E-3
-1.34817E-3	-33.6580E-12	938.580E-3	-22.2475E-3	-34.1552E-12	978.800E-3	-20.3478E-3
-1.35318E-3	-34.0243E-12	939.182E-3	-26.3211E-3	-34.5562E-12	994.654E-3	-20.2465E-3
-1.35818E-3	-34.2178E-12	937.629E-3	-30.0953E-3	-34.9735E-12	1.01721E+0	-22.9936E-3
-1.36318E-3	-34.6688E-12	949.055E-3	-26.0105E-3	-35.5491E-12	1.02376E+0	-19.0378E-3
-1.36818E-3	-34.8393E-12	957.520E-3	-10.9785E-3	-35.9201E-12	1.00624E+0	-14.5803E-3
-1.37319E-3	-35.2436E-12	957.590E-3	-11.8992E-3	-36.4622E-12	1.00274E+0	-18.2436E-3
-1.37819E-3	-35.5018E-12	962.679E-3	-24.8513E-3	-36.8864E-12	1.03169E+0	-20.6612E-3
-1.38319E-3	-35.7501E-12	983.828E-3	-24.3316E-3	-36.9390E-12	1.05447E+0	-10.8567E-3
-1.38819E-3	-35.9630E-12	1.01114E+0	-15.7735E-3	-37.3086E-12	1.05523E+0	5.49085E-3
-1.39320E-3	-36.4155E-12	1.01990E+0	-10.7600E-3	-37.2852E-12	1.04479E+0	2.62204E-3
-1.39820E-3	-36.7550E-12	1.01442E+0	637.992E-6	-37.4175E-12	1.04733E+0	-13.5681E-3
-1.40320E-3	-36.8887E-12	1.01229E+0	7.36568E-3	-37.6998E-12	1.05948E+0	-28.5533E-3
-1.40820E-3	-37.4480E-12	1.02868E+0	-7.81333E-3	-37.9323E-12	1.06390E+0	-35.8132E-3
-1.41321E-3	-37.8688E-12	1.04953E+0	-23.8568E-3	-38.2009E-12	1.07556E+0	-32.4891E-3
-1.41821E-3	-38.1835E-12	1.05418E+0	-22.2853E-3	-38.7135E-12	1.10158E+0	-28.6705E-3
-1.42321E-3	-38.5309E-12	1.05585E+0	-17.0247E-3	-38.8815E-12	1.12604E+0	-25.8688E-3
-1.42821E-3	-39.1292E-12	1.05863E+0	-13.8619E-3	-39.2805E-12	1.13145E+0	-27.4839E-3
-1.43322E-3	-39.6370E-12	1.05069E+0	-12.8380E-3	-39.9437E-12	1.11927E+0	-34.8065E-3
-1.43822E-3	-40.0117E-12	1.04984E+0	-14.5489E-3	-40.3913E-12	1.11144E+0	-30.3736E-3
-1.44322E-3	-40.4169E-12	1.07916E+0	-13.0416E-3	-40.4398E-12	1.11181E+0	-24.7426E-3
-1.44822E-3	-40.8315E-12	1.10913E+0	-17.7603E-3	-41.2098E-12	1.11082E+0	-40.6285E-3
-1.45323E-3	-41.2158E-12	1.11665E+0	-20.4734E-3	-41.4210E-12	1.11772E+0	-41.7912E-3
-1.45823E-3	-41.4865E-12	1.11719E+0	-4.69046E-3	-42.0256E-12	1.12174E+0	-15.7838E-3
-1.46323E-3	-41.7797E-12	1.11217E+0	5.65137E-3	-42.2795E-12	1.11963E+0	-3.24316E-3
-1.46823E-3	-42.1867E-12	1.10728E+0	-7.98765E-3	-43.0223E-12	1.12125E+0	-5.69523E-3
-1.47324E-3	-42.4849E-12	1.10517E+0	-16.2583E-3	-42.9272E-12	1.12467E+0	-7.34084E-3
-1.47824E-3	-42.6035E-12	1.10159E+0	-7.55448E-3	-43.5995E-12	1.12745E+0	-11.1173E-3
-1.48324E-3	-42.9712E-12	1.10123E+0	-7.13156E-3	-44.0775E-12	1.13070E+0	-11.9055E-3
-1.48824E-3	-43.1369E-12	1.10468E+0	-18.4303E-3	-43.8682E-12	1.12962E+0	-10.8980E-3
-1.49325E-3	-43.3506E-12	1.10198E+0	-24.1993E-3	-44.1854E-12	1.11840E+0	-15.9580E-3
-1.49825E-3	-43.9795E-12	1.08934E+0	-22.5773E-3	-44.5340E-12	1.11309E+0	-14.5592E-3
-1.50325E-3	-44.2241E-12	1.09416E+0	-16.0345E-3	-44.9130E-12	1.11744E+0	-4.24036E-3
-1.50825E-3	-44.4544E-12	1.11402E+0	-7.56029E-3	-44.9261E-12	1.11762E+0	-10.2085E-3
-1.51326E-3	-45.0047E-12	1.11588E+0	263.472E-6	-45.2454E-12	1.11276E+0	-28.9461E-3
-1.51826E-3	-45.8002E-12	1.11174E+0	8.40092E-3	-45.3909E-12	1.10195E+0	-29.6423E-3
-1.52326E-3	-46.2844E-12	1.11249E+0	2.58505E-3	-45.8640E-12	1.08237E+0	-26.7262E-3
-1.52826E-3	-47.2561E-12	1.10842E+0	-23.0796E-3	-45.9128E-12	1.07618E+0	-34.6921E-3
-1.53327E-3	-47.7574E-12	1.10447E+0	-40.3683E-3	-46.0896E-12	1.09207E+0	-25.1377E-3
-1.53827E-3	-48.2758E-12	1.11033E+0	-28.0051E-3	-46.6630E-12	1.10030E+0	-10.7716E-3
-1.54327E-3	-48.6649E-12	1.12226E+0	-20.4500E-3	-46.8627E-12	1.10078E+0	-16.6419E-3
-1.54827E-3	-49.0782E-12	1.12461E+0	-33.7739E-3	-47.2437E-12	1.10902E+0	-26.6117E-3
-1.55328E-3	-49.3888E-12	1.11702E+0	-41.8131E-3	-47.5283E-12	1.11166E+0	-33.0815E-3
-1.55828E-3	-49.8330E-12	1.11236E+0	-38.2492E-3	-48.3185E-12	1.09693E+0	-30.1910E-3
-1.56328E-3	-50.1436E-12	1.11406E+0	-25.1840E-3	-48.8320E-12	1.08385E+0	-8.07626E-3
-1.56828E-3	-50.3156E-12	1.11968E+0	-11.9007E-3	-49.4433E-12	1.08455E+0	3.41005E-3
-1.57329E-3	-50.5858E-12	1.12109E+0	-14.3918E-3	-49.7624E-12	1.07829E+0	-9.43935E-3
-1.57829E-3	-50.5316E-12	1.10859E+0	-28.8170E-3	-49.6979E-12	1.06212E+0	-23.1467E-3
-1.58329E-3	-50.6870E-12	1.08872E+0	-32.5535E-3	-50.4653E-12	1.06522E+0	-30.7565E-3
-1.58829E-3	-51.1583E-12	1.07354E+0	-24.3261E-3	-50.9063E-12	1.07607E+0	-26.2445E-3
-1.59330E-3	-51.0584E-12	1.07048E+0	-19.8970E-3	-51.3180E-12	1.06764E+0	-14.7311E-3
-1.59830E-3	-51.3137E-12	1.07125E+0	-12.9349E-3	-51.6255E-12	1.06175E+0	-8.15277E-3
-1.60330E-3	-51.9045E-12	1.06006E+0	-13.4224E-3	-52.2657E-12	1.05790E+0	-8.99329E-3
-1.60830E-3	-52.3925E-12	1.05273E+0	-22.8006E-3	-52.5956E-12	1.04439E+0	-14.7938E-3
-1.61331E-3	-52.5981E-12	1.05118E+0	-15.5958E-3	-52.7967E-12	1.04138E+0	-18.2284E-3
-1.61831E-3	-53.4030E-12	1.04499E+0	-10.1899E-3	-53.0489E-12	1.05070E+0	-19.8234E-3
-1.62331E-3	-53.6956E-12	1.05512E+0	-19.2162E-3	-53.3633E-12	1.06407E+0	-20.0005E-3
-1.62831E-3	-54.1359E-12	1.07393E+0	-14.3865E-3	-53.5531E-12	1.06196E+0	-20.6841E-3
-1.63332E-3	-54.7056E-12	1.06448E+0	-12.5572E-3	-53.6721E-12	1.03660E+0	-22.9824E-3
-1.63832E-3	-55.0775E-12	1.04590E+0	-28.1806E-3	-54.0315E-12	1.02164E+0	-19.2945E-3
-1.64332E-3	-55.4698E-12	1.04946E+0	-26.3504E-3	-54.4553E-12	1.02875E+0	-11.5764E-3
-1.64832E-3	-55.6976E-12	1.05112E+0	-10.0275E-3	-54.7421E-12	1.02884E+0	-12.7604E-3
-1.65333E-3	-55.8395E-12	1.04377E+0	-7.67392E-3	-55.2210E-12	1.01647E+0	-23.2752E-3
-1.65833E-3	-56.0438E-12	1.04901E+0	-6.69712E-3	-56.0250E-12	1.01669E+0	-18.6937E-3
-1.66333E-3	-56.3169E-12	1.04893E+0	1.43405E-3	-56.5288E-12	1.02325E+0	-2.99809E-3
-1.66833E-3	-56.2806E-12	1.03361E+0	-10.2836E-3	-56.8859E-12	1.01412E+0	-287.589E-6
-1.67334E-3	-56.4604E-12	1.02476E+0	-24.5100E-3	-57.4729E-12	997.169E-3	-10.8311E-3
-1.67834E-3	-56.5385E-12	1.01559E+0	-9.43054E-3	-57.8090E-12	994.891E-3	-24.2341E-3
-1.68334E-3	-56.7567E-12	1.00344E+0	801.374E-6	-58.7496E-12	1.00464E+0	-23.7184E-3
-1.68834E-3	-56.6675E-12	1.00547E+0	-18.2058E-3	-58.7751E-12	1.00061E+0	-18.8873E-3
-1.69335E-3	-56.9680E-12	1.00986E+0	-24.8459E-3	-58.9237E-12	982.444E-3	-25.1256E-3
-1.69835E-3	-57.2311E-12	1.00133E+0	-19.8147E-3	-59.4854E-12	968.765E-3	-25.8534E-3
-1.70335E-3	-57.4123E-12	996.114E-3	-33.4343E-3	-59.8898E-12	964.459E-3	-17.6101E-3
-1.70835E-3	-58.0152E-12	988.108E-3	-40.6409E-3	-59.9320E-12	962.857E-3	-17.2667E-3
-1.71336E-3	-58.6169E-12	966.506E-3	-28.1939E-3	-60.1464E-12	956.251E-3	-19.9914E-3
-1.71836E-3	-58.9332E-12	952.492E-3	-17.3560E-3	-60.4640E-12	951.430E-3	-16.1271E-3
-1.72336E-3	-59.0984E-12	957.494E-3	-16.2432E-3	-60.3826E-12	951.003E-3	-10.1217E-3
-1.72836E-3	-59.8181E-12	963.494E-3	-21.8638E-3	-60.5058E-12	948.543E-3	-7.87539E-3
-1.73337E-3	-60.4350E-12	950.985E-3	-26.9771E-3	-60.7628E-12	942.169E-3	-10.2180E-3
-1.73837E-3	-60.6128E-12	941.763E-3	-17.7029E-3	-60.8335E-12	931.884E-3	-13.7701E-3
-1.74337E-3	-61.2898E-12	940.553E-3	-3.38624E-3	-61.0770E-12	919.517E-3	-13.8380E-3
-1.74837E-3	-61.6918E-12	950.436E-3	-4.19705E-3	-61.6273E-12	914.894E-3	-17.9354E-3
-1.75338E-3	-61.7240E-12	967.322E-3	-7.51815E-3	-61.8054E-12	933.291E-3	-21.7844E-3
-1.75838E-3	-62.1643E-12	957.024E-3	-6.09419E-3	-62.2940E-12	950.673E-3	-13.3634E-3
-1.76338E-3	-62.4216E-12	938.639E-3	-11.0627E-3	-62.7441E-12	938.628E-3	-8.46829E-3
-1.76838E-3	-62.9223E-12	939.355E-3	-7.34905E-3	-62.9719E-12	924.787E-3	-134.687E-6
-1.77339E-3	-62.8820E-12	942.849E-3	2.84543E-3	-63.2655E-12	921.894E-3	4.15697E-3
-1.77839E-3	-63.0051E-12	937.760E-3	-2.17141E-3	-63.5765E-12	916.603E-3	-21.6955E-3
-1.78339E-3	-63.2053E-12	928.614E-3	120.440E-6	-64.0201E-12	909.272E-3	-36.2077E-3
-1.78839E-3	-63.3090E-12	918.103E-3	10.4138E-3	-63.7402E-12	906.230E-3	-26.8482E-3
-1.79340E-3	-64.0224E-12	910.059E-3	-669.504E-6	-63.9071E-12	898.257E-3	-30.1451E-3
-1.79840E-3	-64.0266E-12	900.863E-3	-9.24186E-3	-64.2328E-12	883.813E-3	-43.8300E-3
-1.80340E-3	-64.3273E-12	895.051E-3	-4.18895E-3	-64.6409E-12	875.552E-3	-44.2708E-3
-1.80840E-3	-65.0913E-12	896.449E-3	-15.8394E-3	-64.4859E-12	869.358E-3	-28.6992E-3
-1.81341E-3	-65.2410E-12	898.917E-3	-28.6377E-3	-64.8416E-12	873.622E-3	-14.5715E-3
-1.81841E-3	-65.5678E-12	900.773E-3	-24.6003E-3	-64.7539E-12	883.777E-3	-990.600E-6
-1.82341E-3	-65.8334E-12	900.538E-3	-31.1516E-3	-65.2916E-12	881.502E-3	-5.74284E-3
-1.82841E-3	-66.4581E-12	892.582E-3	-36.8969E-3	-65.4254E-12	883.336E-3	-23.9050E-3
-1.83342E-3	-66.8542E-12	878.278E-3	-20.8060E-3	-65.8707E-12	888.589E-3	-25.5087E-3
-1.83842E-3	-67.3811E-12	876.908E-3	-17.9149E-3	-66.3643E-12	882.972E-3	-19.4874E-3
-1.84342E-3	-67.5428E-12	880.558E-3	-23.8742E-3	-66.9027E-12	889.239E-3	-6.68634E-3
-1.84842E-3	-68.0905E-12	872.413E-3	-10.3324E-3	-67.4592E-12	894.117E-3	4.71731E-3
-1.85343E-3	-68.7341E-12	865.035E-3	-5.22138E-3	-67.7215E-12	872.096E-3	5.66267E-3
-1.85843E-3	-69.4796E-12	867.975E-3	-20.2227E-3	-68.4308E-12	856.708E-3	5.14279E-3
-1.86343E-3	-69.7327E-12	873.207E-3	-35.7014E-3	-68.8605E-12	863.195E-3	-1.23288E-3
-1.86843E-3	-69.9916E-12	880.897E-3	-43.4485E-3	-69.0253E-12	862.808E-3	-9.08785E-3
-1.87344E-3	-70.8861E-12	888.059E-3	-32.0895E-3	-69.2189E-12	854.267E-3	-5.00893E-3
-1.87844E-3	-70.3740E-12	890.721E-3	-7.79239E-3	-69.3109E-12	854.920E-3	-3.82990E-3
-1.88344E-3	-70.8903E-12	891.039E-3	-221.523E-6	-69.7065E-12	850.635E-3	-17.9161E-3
-1.88844E-3	-71.0708E-12	885.875E-3	-14.2341E-3	-69.7641E-12	836.774E-3	-22.6931E-3
-1.89345E-3	-71.5934E-12	877.589E-3	-33.7401E-3	-69.9941E-12	825.820E-3	-24.6291E-3
-1.89845E-3	-70.8471E-12	865.599E-3	-33.6651E-3	-70.2215E-12	821.661E-3	-29.9676E-3
-1.90345E-3	-71.4536E-12	860.556E-3	-10.7155E-3	-70.7550E-12	827.717E-3	-17.3407E-3
-1.90845E-3	-71.3718E-12	866.351E-3	-5.37664E-3	-70.8593E-12	840.872E-3	-2.46758E-3
-1.91346E-3	-71.2020E-12	862.167E-3	-14.6654E-3	-71.3613E-12	843.576E-3	-9.82590E-3
-1.91846E-3	-71.1976E-12	846.390E-3	-17.2012E-3	-72.0728E-12	838.447E-3	-30.5546E-3
-1.92346E-3	-71.6886E-12	844.490E-3	-13.1764E-3	-72.4657E-12	850.685E-3	-38.7628E-3
-1.92846E-3	-71.7376E-12	853.391E-3	577.271E-6	-72.9167E-12	862.385E-3	-38.5139E-3
-1.93347E-3	-72.1721E-12	857.787E-3	6.97744E-3	-73.9005E-12	866.067E-3	-38.9976E-3
-1.93847E-3	-72.6208E-12	851.091E-3	-3.31092E-3	-74.0066E-12	873.723E-3	-30.8374E-3
-1.94347E-3	-73.0874E-12	831.754E-3	-19.4653E-3	-73.9001E-12	850.876E-3	-26.6603E-3
-1.94847E-3	-74.2083E-12	817.758E-3	-27.8232E-3	-74.4490E-12	816.182E-3	-30.1766E-3
-1.95348E-3	-74.3647E-12	819.398E-3	-18.2606E-3	-74.7587E-12	817.529E-3	-34.1714E-3
-1.95848E-3	-75.1381E-12	829.939E-3	-12.3029E-3	-74.6805E-12	835.116E-3	-44.4084E-3
-1.96348E-3	-75.3196E-12	832.290E-3	-18.7811E-3	-74.5777E-12	834.546E-3	-47.4578E-3
-1.96848E-3	-75.9733E-12	824.721E-3	-21.5317E-3	-74.6902E-12	828.206E-3	-34.5051E-3
-1.97349E-3	-75.6032E-12	819.777E-3	-18.5009E-3	-75.0445E-12	828.599E-3	-21.0281E-3
-1.97849E-3	-75.7917E-12	824.261E-3	-17.2890E-3	-74.7273E-12	817.418E-3	-18.6719E-3
-1.98349E-3	-76.1358E-12	836.964E-3	-11.7447E-3	-74.9442E-12	806.425E-3	-15.6606E-3
-1.98849E-3	-75.9359E-12	836.538E-3	855.050E-6	-75.2329E-12	810.169E-3	-9.96624E-3
-1.99350E-3	-76.2330E-12	823.101E-3	5.19459E-3	-75.3477E-12	821.722E-3	-15.6021E-3
-1.99850E-3	-75.8618E-12	827.635E-3	-4.78805E-3	-75.3321E-12	836.725E-3	-20.6581E-3
-2.00350E-3	-75.8821E-12	841.722E-3	-23.2832E-3	-75.7551E-12	846.370E-3	-18.5838E-3
-2.00850E-3	-75.5713E-12	827.432E-3	-35.4859E-3	-76.0889E-12	844.543E-3	-19.3919E-3
-2.01351E-3	-75.6357E-12	791.192E-3	-26.5640E-3	-76.6263E-12	835.025E-3	-28.2042E-3
-2.01851E-3	-75.4726E-12	783.143E-3	-18.0102E-3	-76.8411E-12	823.008E-3	-30.9037E-3
-2.02351E-3	-76.0803E-12	793.678E-3	-32.3324E-3	-77.6990E-12	812.124E-3	-9.63924E-3
-2.02851E-3	-76.2072E-12	783.322E-3	-34.2217E-3	-77.4970E-12	798.914E-3	1.55201E-3
-2.03352E-3	-76.8394E-12	769.958E-3	-15.5120E-3	-77.8749E-12	782.358E-3	-13.6617E-3
-2.03852E-3	-77.5388E-12	764.994E-3	-10.2038E-3	-77.7972E-12	778.359E-3	-24.4748E-3
-2.04352E-3	-78.1383E-12	776.088E-3	-26.8834E-3	-78.2549E-12	791.656E-3	-20.7846E-3
-2.04852E-3	-78.7077E-12	794.062E-3	-42.9871E-3	-78.5406E-12	796.947E-3	-1.62796E-3
-2.05353E-3	-78.8935E-12	797.441E-3	-37.1694E-3	-78.5385E-12	788.366E-3	11.1888E-3
-2.05853E-3	-79.7160E-12	806.422E-3	-31.9341E-3	-78.6310E-12	789.382E-3	3.88323E-3
-2.06353E-3	-79.7034E-12	816.828E-3	-31.6633E-3	-78.8603E-12	792.861E-3	-2.34771E-3
-2.06853E-3	-80.3272E-12	809.984E-3	-14.0634E-3	-78.9016E-12	791.587E-3	-21.3808E-3
-2.07354E-3	-80.8640E-12	801.182E-3	7.74756E-3	-79.2842E-12	795.429E-3	-45.4592E-3
-2.07854E-3	-81.0264E-12	799.291E-3	7.05765E-3	-79.3877E-12	794.109E-3	-41.8906E-3
-2.08354E-3	-81.1155E-12	799.749E-3	1.92360E-3	-79.7705E-12	772.422E-3	-25.9172E-3
-2.08854E-3	-81.1178E-12	793.929E-3	9.37810E-3	-80.0368E-12	744.718E-3	-15.9171E-3
-2.09355E-3	-80.9760E-12	788.818E-3	10.3456E-3	-80.7154E-12	746.782E-3	-12.0487E-3
-2.09855E-3	-80.6820E-12	799.786E-3	3.54933E-3	-81.0401E-12	774.961E-3	-13.2280E-3
-2.10355E-3	-80.8818E-12	814.193E-3	-3.91437E-3	-81.6058E-12	783.078E-3	-5.22845E-3
-2.10855E-3	-80.8753E-12	805.407E-3	-12.2063E-3	-82.1577E-12	783.583E-3	5.22853E-3
-2.11356E-3	-80.9802E-12	777.749E-3	-20.6192E-3	-82.5788E-12	792.653E-3	-3.20267E-3
-2.11856E-3	-81.5237E-12	757.005E-3	-21.4849E-3	-82.4523E-12	782.974E-3	-25.0399E-3
-2.12356E-3	-81.5862E-12	754.752E-3	-11.4386E-3	-83.0640E-12	766.953E-3	-41.5279E-3
-2.12856E-3	-81.9173E-12	763.662E-3	-6.36165E-3	-82.9958E-12	764.989E-3	-38.0402E-3
-2.13357E-3	-82.3700E-12	771.248E-3	-10.1841E-3	-83.2760E-12	772.005E-3	-29.2862E-3
-2.13857E-3	-82.8585E-12	766.420E-3	-11.3088E-3	-83.0574E-12	770.087E-3	-27.5471E-3
-2.14357E-3	-83.2546E-12	749.805E-3	-5.21957E-3	-83.0705E-12	767.963E-3	-23.8962E-3
-2.14857E-3	-83.6916E-12	742.702E-3	-7.82859E-3	-82.7542E-12	777.284E-3	-9.84872E-3
-2.15358E-3	-84.3411E-12	757.382E-3	-15.5681E-3	-83.1103E-12	764.807E-3	-4.58467E-3
-2.15858E-3	-85.2017E-12	778.374E-3	-3.30123E-3	-83.6888E-12	746.284E-3	-18.9064E-3
-2.16358E-3	-85.9098E-12	787.528E-3	-2.80423E-3	-84.2031E-12	750.101E-3	-12.9633E-3
-2.16858E-3	-86.1727E-12	782.491E-3	-25.2645E-3	-84.3737E-12	759.478E-3	7.72252E-3
-2.17359E-3	-86.4666E-12	770.886E-3	-20.8368E-3	-84.8169E-12	757.850E-3	17.0070E-3
-2.17859E-3	-87.0863E-12	764.135E-3	-5.56013E-3	-85.1450E-12	751.099E-3	18.8476E-3
-2.18359E-3	-87.1557E-12	781.352E-3	-23.9523E-3	-85.7888E-12	753.964E-3	14.6524E-3
-2.18859E-3	-86.7816E-12	801.589E-3	-38.5459E-3	-86.6303E-12	761.921E-3	7.90226E-3
-2.19360E-3	-87.1287E-12	789.489E-3	-25.9096E-3	-86.6251E-12	768.667E-3	3.32539E-3
-2.19860E-3	-87.1282E-12	775.459E-3	-17.7723E-3	-87.4112E-12	766.521E-3	6.97244E-3
-2.20360E-3	-86.8623E-12	771.531E-3	-9.89005E-3	-87.9381E-12	759.177E-3	6.61351E-3
-2.20860E-3	-86.7861E-12	759.253E-3	-2.24770E-3	-88.3653E-12	759.976E-3	-8.66555E-3
-2.21361E-3	-87.0300E-12	748.576E-3	-18.5312E-3	-88.3149E-12	757.903E-3	-16.7276E-3
-2.21861E-3	-87.0607E-12	749.176E-3	-31.5996E-3	-88.3073E-12	753.229E-3	-12.9060E-3
-2.22361E-3	-86.9550E-12	754.037E-3	-21.9770E-3	-89.0310E-12	757.424E-3	-10.6757E-3
-2.22861E-3	-87.7052E-12	749.111E-3	-20.8861E-3	-88.5902E-12	759.300E-3	-5.40620E-3
-2.23362E-3	-87.8613E-12	737.251E-3	-22.3476E-3	-88.3605E-12	759.737E-3	-6.06561E-3
-2.23862E-3	-88.0215E-12	728.110E-3	-16.0689E-3	-88.8303E-12	750.902E-3	-18.8199E-3
-2.24362E-3	-88.6551E-12	738.017E-3	-29.8259E-3	-88.9467E-12	734.777E-3	-25.9179E-3
-2.24862E-3	-89.2376E-12	750.207E-3	-40.9997E-3	-89.0045E-12	733.297E-3	-30.2946E-3
-2.25363E-3	-89.7038E-12	751.982E-3	-21.1479E-3	-89.7299E-12	740.831E-3	-33.0742E-3
-2.25863E-3	-90.1260E-12	761.133E-3	-6.79271E-3	-90.5713E-12	755.415E-3	-18.2214E-3
-2.26363E-3	-90.4453E-12	761.308E-3	-11.2403E-3	-90.4659E-12	771.007E-3	-495.466E-6
-2.26863E-3	-90.5642E-12	752.448E-3	-17.8371E-3	-90.4716E-12	763.236E-3	-974.043E-6
-2.27364E-3	-91.0468E-12	759.118E-3	-18.7517E-3	-91.2227E-12	741.851E-3	-10.2580E-3
-2.27864E-3	-91.1347E-12	775.110E-3	-10.4502E-3	-91.2707E-12	741.234E-3	-10.3237E-3
-2.28364E-3	-91.2029E-12	773.502E-3	-13.0304E-3	-91.5400E-12	757.069E-3	-7.52638E-3
-2.28864E-3	-91.1843E-12	759.021E-3	-30.4713E-3	-91.6193E-12	756.915E-3	-10.0698E-3
-2.29365E-3	-91.4351E-12	751.760E-3	-34.6168E-3	-91.9005E-12	754.493E-3	-7.63493E-3
-2.29865E-3	-91.6426E-12	744.508E-3	-25.6667E-3	-92.4159E-12	759.606E-3	-7.02630E-3
-2.30365E-3	-91.6226E-12	733.021E-3	-12.6185E-3	-93.2709E-12	741.541E-3	-8.21218E-3
-2.30865E-3	-91.9597E-12	736.482E-3	-2.80459E-3	-93.1062E-12	725.017E-3	-8.65210E-3
-2.31366E-3	-91.6865E-12	755.067E-3	-679.767E-6	-92.7366E-12	735.026E-3	-22.9861E-3
-2.31866E-3	-92.0948E-12	772.401E-3	-8.13732E-3	-93.2656E-12	746.945E-3	-34.0063E-3
-2.32366E-3	-91.8901E-12	772.751E-3	-25.5170E-3	-93.0939E-12	754.180E-3	-17.1525E-3
-2.32866E-3	-91.6953E-12	755.582E-3	-34.1875E-3	-93.3446E-12	756.551E-3	-7.93076E-3
-2.33367E-3	-91.9347E-12	742.854E-3	-34.3731E-3	-92.9849E-12	745.317E-3	-24.5219E-3
-2.33867E-3	-92.1783E-12	739.179E-3	-24.2444E-3	-94.0581E-12	741.661E-3	-20.7746E-3
-2.34367E-3	-92.6620E-12	728.620E-3	-2.50529E-3	-93.6358E-12	751.410E-3	-2.81140E-3
-2.34867E-3	-92.8350E-12	712.485E-3	3.70210E-3	-93.9590E-12	752.026E-3	1.26658E-3
-2.35368E-3	-93.8989E-12	714.669E-3	-9.95795E-3	-93.9800E-12	745.755E-3	4.81226E-3
-2.35868E-3	-93.9514E-12	724.683E-3	-25.2234E-3	-94.8763E-12	741.896E-3	-2.61584E-3
-2.36368E-3	-94.2845E-12	728.182E-3	-28.4798E-3	-94.7592E-12	742.666E-3	-21.9975E-3
-2.36868E-3	-94.5709E-12	741.028E-3	-25.1875E-3	-94.9001E-12	737.792E-3	-24.3640E-3
-2.37369E-3	-95.2319E-12	737.981E-3	-27.2027E-3	-94.6893E-12	735.878E-3	-19.2853E-3
-2.37869E-3	-95.6704E-12	715.117E-3	-20.3631E-3	-95.3956E-12	746.166E-3	-13.1174E-3
-2.38369E-3	-96.3105E-12	717.115E-3	-16.3775E-3	-95.3317E-12	747.012E-3	3.82582E-3
-2.38869E-3	-97.2245E-12	730.994E-3	-27.7155E-3	-95.5799E-12	745.808E-3	8.34645E-3
-2.39370E-3	-97.5102E-12	726.339E-3	-36.2743E-3	-96.3374E-12	750.628E-3	8.35844E-3
-2.39870E-3	-97.5817E-12	720.097E-3	-39.5782E-3	-96.2277E-12	749.206E-3	16.1205E-3
-2.40370E-3	-97.8764E-12	730.747E-3	-34.6226E-3	-96.8264E-12	739.001E-3	10.6819E-3
-2.40870E-3	-98.1009E-12	738.947E-3	-23.6139E-3	-96.7961E-12	725.311E-3	2.52845E-3
-2.41371E-3	-97.9470E-12	723.037E-3	-20.8558E-3	-97.0929E-12	727.297E-3	-525.103E-6
-2.41871E-3	-98.1401E-12	717.738E-3	-20.1202E-3	-96.9238E-12	738.585E-3	-18.2713E-3
-2.42371E-3	-97.7160E-12	734.017E-3	-12.3680E-3	-97.8205E-12	735.636E-3	-50.3835E-3
-2.42871E-3	-97.8461E-12	751.903E-3	-8.69308E-3	-97.8652E-12	722.720E-3	-62.8211E-3
-2.43372E-3	-98.3023E-12	760.122E-3	-10.9153E-3	-98.3569E-12	711.610E-3	-36.4352E-3
-2.43872E-3	-97.7100E-12	744.337E-3	-10.8650E-3	-98.8147E-12	716.383E-3	-12.2543E-3
-2.44372E-3	-98.1547E-12	712.977E-3	-5.14525E-3	-98.8285E-12	722.909E-3	-10.7593E-3
-2.44872E-3	-98.9726E-12	699.259E-3	2.11033E-3	-98.7538E-12	715.590E-3	-3.02490E-3
-2.45373E-3	-98.9151E-12	700.702E-3	-5.67717E-3	-98.9707E-12	698.783E-3	8.14041E-3
-2.45873E-3	-98.6764E-12	708.366E-3	-14.7238E-3	-99.1943E-12	673.536E-3	9.59014E-3
-2.46373E-3	-99.4336E-12	730.941E-3	-16.0025E-3	-99.1614E-12	675.982E-3	3.11345E-3
-2.46873E-3	-100.093E-12	740.158E-3	-22.9077E-3	-99.4354E-12	705.741E-3	-20.5423E-3
-2.47374E-3	-100.212E-12	723.237E-3	-25.5972E-3	-100.299E-12	724.551E-3	-41.7346E-3
-2.47874E-3	-101.939E-12	696.511E-3	-24.1515E-3	-100.255E-12	730.782E-3	-37.0881E-3
-2.48374E-3	-101.943E-12	692.252E-3	-32.7093E-3	-100.238E-12	728.024E-3	-32.2048E-3
-2.48874E-3	-102.442E-12	712.832E-3	-36.3675E-3	-100.906E-12	712.070E-3	-32.6877E-3
-2.49375E-3	-102.743E-12	724.529E-3	-25.1982E-3	-101.329E-12	700.884E-3	-24.0972E-3
-2.49875E-3	-102.963E-12	729.862E-3	-13.7384E-3	-101.438E-12	709.374E-3	-11.9907E-3
-2.50375E-3	-102.990E-12	741.813E-3	-7.68244E-3	-101.704E-12	716.329E-3	-8.96146E-3
-2.50875E-3	-102.710E-12	744.321E-3	-14.4641E-3	-102.530E-12	718.846E-3	-9.68703E-3
-2.51376E-3	-102.437E-12	735.656E-3	-25.3735E-3	-102.513E-12	720.682E-3	-13.4786E-3
-2.51876E-3	-101.979E-12	725.129E-3	-25.4650E-3	-103.279E-12	709.335E-3	-25.5714E-3
-2.52376E-3	-102.453E-12	714.965E-3	-15.8813E-3	-103.520E-12	700.993E-3	-33.7550E-3
-2.52876E-3	-102.064E-12	711.788E-3	-376.299E-6	-103.356E-12	715.513E-3	-33.5803E-3
-2.53377E-3	-101.793E-12	714.446E-3	-4.06424E-3	-103.933E-12	730.727E-3	-23.6846E-3
-2.53877E-3	-101.926E-12	719.225E-3	-27.5930E-3	-104.154E-12	727.983E-3	-8.92953E-3
-2.54377E-3	-101.685E-12	709.437E-3	-30.3005E-3	-104.180E-12	720.626E-3	-3.21501E-3
-2.54877E-3	-102.053E-12	691.932E-3	-18.7044E-3	-104.307E-12	707.370E-3	-9.30776E-3
-2.55378E-3	-101.913E-12	700.851E-3	-30.3047E-3	-104.850E-12	699.548E-3	-7.13085E-3
-2.55878E-3	-102.677E-12	723.618E-3	-42.1638E-3	-104.443E-12	705.263E-3	-240.173E-6
-2.56378E-3	-103.440E-12	724.703E-3	-29.4613E-3	-104.171E-12	697.654E-3	-8.83154E-3
-2.56878E-3	-104.315E-12	724.311E-3	-23.7103E-3	-105.161E-12	691.405E-3	-12.5906E-3
-2.57379E-3	-104.664E-12	733.007E-3	-38.9028E-3	-104.618E-12	702.214E-3	-4.30411E-3
-2.57879E-3	-105.567E-12	725.710E-3	-36.0393E-3	-104.410E-12	712.857E-3	-4.31338E-3
-2.58379E-3	-106.113E-12	709.638E-3	-22.3202E-3	-104.119E-12	704.161E-3	787.554E-6
-2.58879E-3	-106.524E-12	708.166E-3	-26.5870E-3	-104.784E-12	687.976E-3	16.3069E-3
-2.59380E-3	-107.047E-12	714.355E-3	-34.0115E-3	-104.442E-12	693.028E-3	3.20235E-3
-2.59880E-3	-107.293E-12	711.036E-3	-36.7607E-3	-104.702E-12	701.067E-3	-14.7401E-3
-2.60380E-3	-107.119E-12	713.069E-3	-42.2932E-3	-105.389E-12	689.486E-3	1.72497E-3
-2.60880E-3	-107.221E-12	720.188E-3	-39.8650E-3	-106.069E-12	675.640E-3	13.4192E-3
-2.61381E-3	-107.336E-12	714.655E-3	-27.1887E-3	-106.465E-12	677.873E-3	421.351E-6
-2.61881E-3	-107.431E-12	712.804E-3	-17.7024E-3	-107.166E-12	694.434E-3	-12.5368E-3
-2.62381E-3	-107.235E-12	723.329E-3	-3.62126E-3	-107.723E-12	713.247E-3	-9.32534E-3
-2.62881E-3	-107.273E-12	731.131E-3	-2.26569E-3	-107.648E-12	713.968E-3	-1.23816E-3
-2.63382E-3	-107.289E-12	737.418E-3	-16.1953E-3	-108.060E-12	709.600E-3	-7.63774E-3
-2.63882E-3	-107.310E-12	730.895E-3	-14.1212E-3	-108.316E-12	715.522E-3	-15.2326E-3
-2.64382E-3	-107.774E-12	699.624E-3	-13.1048E-3	-108.164E-12	713.872E-3	-11.2570E-3
-2.64882E-3	-107.692E-12	677.698E-3	-27.0211E-3	-108.867E-12	711.732E-3	8.44986E-3
-2.65383E-3	-108.308E-12	677.423E-3	-27.5430E-3	-108.884E-12	711.053E-3	19.2443E-3
-2.65883E-3	-108.178E-12	680.247E-3	-17.2920E-3	-108.858E-12	689.905E-3	2.77595E-3
-2.66383E-3	-109.740E-12	685.002E-3	-12.4352E-3	-109.212E-12	674.292E-3	-13.0728E-3
-2.66883E-3	-109.909E-12	699.173E-3	-3.08905E-3	-109.225E-12	687.215E-3	-24.7475E-3
-2.67384E-3	-110.696E-12	717.146E-3	641.461E-6	-109.110E-12	696.396E-3	-21.0992E-3
-2.67884E-3	-111.634E-12	717.234E-3	-14.2937E-3	-109.014E-12	692.999E-3	-675.886E-6
-2.68384E-3	-112.186E-12	704.646E-3	-23.5823E-3	-108.898E-12	691.801E-3	-2.72244E-3
-2.68884E-3	-112.641E-12	703.578E-3	-15.4100E-3	-109.217E-12	688.097E-3	-10.4808E-3
-2.69385E-3	-112.864E-12	712.143E-3	-16.3847E-3	-109.752E-12	678.651E-3	-4.34241E-3
-2.69885E-3	-113.275E-12	711.078E-3	-29.2095E-3	-110.264E-12	677.960E-3	-17.1438E-3
-2.70385E-3	-112.578E-12	705.603E-3	-31.4167E-3	-110.780E-12	691.921E-3	-42.1988E-3
-2.70885E-3	-112.898E-12	710.644E-3	-16.6796E-3	-111.579E-12	687.445E-3	-34.6700E-3
-2.71386E-3	-112.736E-12	719.466E-3	-7.31314E-3	-111.714E-12	673.213E-3	2.17798E-3
-2.71886E-3	-112.577E-12	719.047E-3	-16.8695E-3	-112.532E-12	687.895E-3	14.6977E-3
-2.72386E-3	-112.301E-12	712.195E-3	-29.0270E-3	-113.499E-12	708.341E-3	6.17904E-3
-2.72886E-3	-112.499E-12	714.077E-3	-29.4119E-3	-114.153E-12	711.341E-3	6.97121E-3
-2.73387E-3	-112.323E-12	714.311E-3	-21.4099E-3	-114.719E-12	714.626E-3	-16.6917E-3
-2.73887E-3	-112.186E-12	709.364E-3	-22.2634E-3	-115.106E-12	718.401E-3	-49.7578E-3
-2.74387E-3	-112.328E-12	706.870E-3	-28.2482E-3	-115.251E-12	712.598E-3	-40.1866E-3
-2.74887E-3	-112.409E-12	688.169E-3	-23.6604E-3	-115.574E-12	697.380E-3	-32.0487E-3
-2.75388E-3	-112.931E-12	675.326E-3	-24.7322E-3	-116.103E-12	681.852E-3	-38.2844E-3
-2.75888E-3	-113.098E-12	689.052E-3	-23.7294E-3	-115.777E-12	688.570E-3	-28.5267E-3
-2.76388E-3	-113.412E-12	686.007E-3	-11.2258E-3	-115.487E-12	702.724E-3	-14.2242E-3
-2.76888E-3	-113.349E-12	671.515E-3	-15.6057E-3	-115.864E-12	695.804E-3	-6.26869E-3
-2.77389E-3	-114.425E-12	677.291E-3	-18.1470E-3	-115.531E-12	691.430E-3	-11.3304E-3
-2.77889E-3	-114.551E-12	697.069E-3	-4.02991E-3	-115.252E-12	696.234E-3	-21.2670E-3
-2.78389E-3	-114.867E-12	708.596E-3	-7.71662E-3	-115.747E-12	690.762E-3	-17.9781E-3
-2.78889E-3	-114.831E-12	711.623E-3	-30.6214E-3	-116.075E-12	694.100E-3	-12.3970E-3
-2.79390E-3	-115.950E-12	727.870E-3	-39.0203E-3	-115.430E-12	709.378E-3	-33.4686E-3
-2.79890E-3	-116.129E-12	728.145E-3	-29.2846E-3	-115.590E-12	705.462E-3	-43.0743E-3
-2.80390E-3	-116.014E-12	694.531E-3	-17.6607E-3	-116.754E-12	690.338E-3	-22.0920E-3
-2.80890E-3	-116.573E-12	673.164E-3	-7.19894E-3	-116.416E-12	688.611E-3	-29.4963E-3
-2.81391E-3	-117.003E-12	686.725E-3	4.90363E-3	-116.272E-12	683.783E-3	-54.0492E-3
-2.81891E-3	-116.859E-12	698.309E-3	8.02033E-3	-117.306E-12	673.558E-3	-39.6105E-3
-2.82391E-3	-116.940E-12	691.063E-3	-2.16053E-3	-117.504E-12	679.129E-3	-16.9200E-3
-2.82891E-3	-116.847E-12	685.679E-3	-11.2851E-3	-117.254E-12	684.477E-3	-20.5334E-3
-2.83392E-3	-116.703E-12	687.832E-3	-8.01986E-3	-117.103E-12	670.942E-3	-23.1466E-3
-2.83892E-3	-117.131E-12	694.695E-3	2.28544E-3	-117.925E-12	668.652E-3	-20.8326E-3
-2.84392E-3	-116.190E-12	708.893E-3	-3.78710E-3	-117.298E-12	685.388E-3	-17.7988E-3
-2.84892E-3	-116.617E-12	721.806E-3	-23.3561E-3	-117.297E-12	696.391E-3	-2.97661E-3
-2.85393E-3	-116.694E-12	705.521E-3	-42.7238E-3	-116.870E-12	696.794E-3	2.83484E-3
-2.85893E-3	-116.435E-12	671.194E-3	-43.3312E-3	-117.088E-12	692.817E-3	-14.1194E-3
-2.86393E-3	-115.935E-12	658.964E-3	-23.8474E-3	-117.198E-12	690.818E-3	-15.1821E-3
-2.86893E-3	-116.473E-12	670.455E-3	-19.0274E-3	-116.922E-12	689.005E-3	-8.07263E-3
-2.87394E-3	-116.955E-12	676.715E-3	-27.6351E-3	-117.124E-12	668.179E-3	-19.6869E-3
-2.87894E-3	-117.150E-12	678.801E-3	-32.2217E-3	-117.476E-12	650.465E-3	-15.8479E-3
-2.88394E-3	-117.933E-12	687.535E-3	-30.9479E-3	-117.779E-12	670.801E-3	-8.90529E-3
-2.88894E-3	-118.819E-12	682.940E-3	-32.8717E-3	-117.635E-12	678.138E-3	-30.6948E-3
-2.89395E-3	-119.601E-12	673.525E-3	-35.3930E-3	-118.496E-12	657.151E-3	-52.4516E-3
-2.89895E-3	-120.099E-12	683.186E-3	-25.2246E-3	-118.786E-12	653.462E-3	-47.9698E-3
-2.90395E-3	-121.354E-12	692.513E-3	-15.7397E-3	-119.260E-12	657.766E-3	-23.5511E-3
-2.90895E-3	-121.626E-12	691.062E-3	-12.0324E-3	-119.739E-12	669.411E-3	2.60440E-3
-2.91396E-3	-122.443E-12	701.025E-3	-4.88794E-3	-120.086E-12	689.110E-3	7.95372E-3
-2.91896E-3	-122.739E-12	706.100E-3	-6.10949E-3	-120.812E-12	694.951E-3	-102.156E-6
-2.92396E-3	-122.908E-12	697.339E-3	-26.8085E-3	-121.333E-12	694.194E-3	370.884E-6
-2.92896E-3	-122.903E-12	699.903E-3	-42.2933E-3	-121.197E-12	692.155E-3	11.8789E-3
-2.93397E-3	-122.545E-12	694.557E-3	-25.8559E-3	-121.902E-12	688.718E-3	19.8667E-3
-2.93897E-3	-122.323E-12	679.154E-3	-6.66394E-3	-121.754E-12	682.159E-3	9.29722E-3
-2.94397E-3	-122.185E-12	690.739E-3	-10.7567E-3	-122.467E-12	677.901E-3	-7.59640E-3
-2.94897E-3	-121.978E-12	712.239E-3	-11.8295E-3	-122.022E-12	685.479E-3	-32.2365E-3
-2.95398E-3	-121.412E-12	707.823E-3	-8.38977E-3	-122.560E-12	683.784E-3	-44.0345E-3
-2.95898E-3	-121.925E-12	690.124E-3	-17.4336E-3	-123.157E-12	675.250E-3	-26.7556E-3
-2.96398E-3	-121.800E-12	684.468E-3	-30.0709E-3	-122.842E-12	668.416E-3	-17.3770E-3
-2.96898E-3	-121.941E-12	688.329E-3	-26.3464E-3	-123.381E-12	665.428E-3	-20.0925E-3
-2.97399E-3	-122.586E-12	679.057E-3	-15.0626E-3	-123.382E-12	679.055E-3	-14.7478E-3
-2.97899E-3	-122.936E-12	666.861E-3	-15.6522E-3	-123.844E-12	686.927E-3	-9.21872E-3
-2.98399E-3	-123.732E-12	678.345E-3	-12.8967E-3	-124.116E-12	687.576E-3	-15.8962E-3
-2.98899E-3	-124.660E-12	692.885E-3	-4.60937E-3	-124.115E-12	702.224E-3	-17.8067E-3
-2.99400E-3	-125.145E-12	681.713E-3	1.37183E-3	-124.130E-12	712.063E-3	11.4407E-3
-2.99900E-3	-125.429E-12	664.400E-3	4.74715E-3	-124.377E-12	706.211E-3	36.7367E-3
-3.00400E-3	-126.120E-12	671.254E-3	-6.31169E-3	-124.219E-12	706.248E-3	11.7361E-3
-3.00900E-3	-127.258E-12	679.174E-3	-19.2602E-3	-124.364E-12	716.778E-3	-19.0584E-3
-3.01401E-3	-126.787E-12	680.429E-3	-19.3173E-3	-125.000E-12	712.784E-3	-13.7239E-3
-3.01901E-3	-127.869E-12	679.688E-3	-16.9081E-3	-125.707E-12	697.482E-3	-2.79384E-3
-3.02401E-3	-128.330E-12	677.503E-3	-7.04985E-3	-126.267E-12	691.181E-3	-11.4354E-3
-3.02901E-3	-128.803E-12	692.586E-3	4.72283E-3	-126.354E-12	691.412E-3	-24.3930E-3
-3.03402E-3	-127.715E-12	706.574E-3	4.11453E-3	-127.598E-12	702.793E-3	-23.8541E-3
-3.03902E-3	-127.828E-12	699.463E-3	290.370E-6	-127.146E-12	706.658E-3	-8.76083E-3
-3.04402E-3	-127.647E-12	690.943E-3	-3.04246E-3	-127.336E-12	686.672E-3	-2.24134E-3
-3.04902E-3	-127.415E-12	698.673E-3	-8.93984E-3	-127.631E-12	683.895E-3	-22.8126E-3
-3.05403E-3	-126.654E-12	698.474E-3	-7.14011E-3	-128.170E-12	703.163E-3	-43.0544E-3
-3.05903E-3	-126.821E-12	673.841E-3	-618.600E-6	-128.748E-12	704.183E-3	-39.5955E-3
-3.06403E-3	-127.114E-12	643.107E-3	-8.40469E-3	-128.803E-12	695.064E-3	-20.8968E-3
-3.06903E-3	-127.258E-12	635.364E-3	-22.8934E-3	-129.392E-12	698.176E-3	-13.0943E-3
-3.07404E-3	-127.981E-12	649.365E-3	-12.9820E-3	-129.440E-12	699.562E-3	-25.8280E-3
-3.07904E-3	-128.198E-12	655.093E-3	1.95764E-3	-129.560E-12	684.295E-3	-27.7918E-3
-3.08404E-3	-128.698E-12	655.245E-3	-10.1142E-3	-128.817E-12	678.282E-3	-21.8364E-3
-3.08904E-3	-129.414E-12	666.656E-3	-24.7285E-3	-129.037E-12	683.005E-3	-26.1112E-3
-3.09405E-3	-129.484E-12	687.423E-3	-26.4063E-3	-128.832E-12	675.996E-3	-25.4163E-3
-3.09905E-3	-130.208E-12	698.024E-3	-20.2947E-3	-128.342E-12	676.978E-3	-16.9430E-3
-3.10405E-3	-130.893E-12	699.935E-3	-12.3145E-3	-128.104E-12	681.378E-3	-14.6311E-3
-3.10905E-3	-130.856E-12	699.238E-3	-18.2686E-3	-128.420E-12	660.845E-3	-20.7557E-3
-3.11406E-3	-131.215E-12	682.404E-3	-36.1781E-3	-128.922E-12	646.721E-3	-33.3731E-3
-3.11906E-3	-132.161E-12	674.203E-3	-47.1166E-3	-128.767E-12	658.093E-3	-50.7870E-3
-3.12406E-3	-132.599E-12	688.619E-3	-50.3057E-3	-129.236E-12	673.485E-3	-44.7118E-3
-3.12906E-3	-132.272E-12	697.604E-3	-40.2910E-3	-129.726E-12	696.406E-3	-11.4706E-3
-3.13407E-3	-132.019E-12	702.599E-3	-27.1080E-3	-130.288E-12	716.824E-3	-7.97804E-3
-3.13907E-3	-132.531E-12	705.630E-3	-31.5245E-3	-130.962E-12	713.249E-3	-31.4256E-3
-3.14407E-3	-131.465E-12	698.907E-3	-24.7930E-3	-131.453E-12	700.251E-3	-37.0250E-3
-3.14907E-3	-130.978E-12	681.875E-3	-22.6638E-3	-132.685E-12	697.778E-3	-17.3365E-3
-3.15408E-3	-131.214E-12	671.789E-3	-39.3966E-3	-133.176E-12	699.919E-3	4.67506E-3
-3.15908E-3	-130.995E-12	679.846E-3	-38.1109E-3	-133.669E-12	701.898E-3	435.459E-6
-3.16408E-3	-130.864E-12	683.081E-3	-27.1302E-3	-133.869E-12	707.484E-3	-21.4581E-3
-3.16908E-3	-131.289E-12	674.710E-3	-14.5879E-3	-133.733E-12	704.559E-3	-43.2117E-3
-3.17409E-3	-131.140E-12	666.030E-3	-14.1800E-3	-133.830E-12	676.365E-3	-46.0946E-3
-3.17909E-3	-131.024E-12	676.210E-3	-35.1367E-3	-132.910E-12	651.158E-3	-35.0439E-3
-3.18409E-3	-131.804E-12	695.631E-3	-41.2492E-3	-133.005E-12	659.634E-3	-39.4421E-3
-3.18909E-3	-132.043E-12	683.708E-3	-20.4586E-3	-132.291E-12	675.128E-3	-35.9184E-3
-3.19410E-3	-132.654E-12	667.019E-3	-14.5016E-3	-131.814E-12	684.401E-3	-21.3652E-3
-3.19910E-3	-133.151E-12	677.204E-3	-28.0658E-3	-131.142E-12	684.291E-3	-15.5444E-3
-3.20410E-3	-134.341E-12	683.276E-3	-32.4195E-3	-131.232E-12	667.112E-3	-10.0725E-3
-3.20910E-3	-134.476E-12	680.642E-3	-26.0906E-3	-131.056E-12	666.248E-3	-15.2425E-3
-3.21411E-3	-135.520E-12	677.384E-3	-4.53425E-3	-130.908E-12	676.956E-3	-23.9011E-3
-3.21911E-3	-136.448E-12	662.945E-3	-1.26349E-3	-132.044E-12	672.149E-3	-16.9719E-3
-3.22411E-3	-136.727E-12	656.169E-3	-26.2057E-3	-132.032E-12	670.654E-3	-5.88518E-3
-3.22911E-3	-137.075E-12	665.165E-3	-28.5443E-3	-132.804E-12	670.385E-3	-17.3154E-3
-3.23412E-3	-137.745E-12	673.515E-3	-8.32615E-3	-133.442E-12	662.256E-3	-32.4758E-3
-3.23912E-3	-137.658E-12	679.113E-3	-2.28806E-3	-134.402E-12	663.558E-3	-23.0677E-3
-3.24412E-3	-137.068E-12	676.324E-3	-11.7650E-3	-135.410E-12	669.163E-3	-12.7939E-3
-3.24912E-3	-137.488E-12	666.458E-3	-29.9340E-3	-136.364E-12	668.273E-3	-496.844E-6
-3.25413E-3	-137.006E-12	662.253E-3	-46.9098E-3	-136.980E-12	668.958E-3	17.1209E-3
-3.25913E-3	-136.610E-12	678.469E-3	-41.7906E-3	-136.557E-12	675.594E-3	2.07078E-3
-3.26413E-3	-136.847E-12	701.352E-3	-23.6437E-3	-137.036E-12	676.417E-3	-15.2352E-3
-3.26913E-3	-136.418E-12	705.460E-3	-10.4463E-3	-137.296E-12	673.766E-3	-10.9416E-3
-3.27414E-3	-135.752E-12	697.496E-3	-9.56874E-3	-137.043E-12	682.244E-3	-31.4101E-3
-3.27914E-3	-135.752E-12	688.648E-3	-19.7658E-3	-137.056E-12	689.218E-3	-52.1753E-3
-3.28414E-3	-135.816E-12	675.931E-3	-35.9808E-3	-136.721E-12	689.989E-3	-37.2120E-3
-3.28914E-3	-135.679E-12	663.981E-3	-36.5332E-3	-136.973E-12	691.207E-3	-18.8176E-3
-3.29415E-3	-136.448E-12	668.743E-3	-14.4183E-3	-136.444E-12	680.978E-3	-12.0033E-3
-3.29915E-3	-137.142E-12	675.834E-3	490.479E-6	-136.234E-12	664.216E-3	-7.33737E-3
-3.30415E-3	-137.431E-12	661.624E-3	4.01631E-3	-136.315E-12	659.947E-3	-15.3922E-3
-3.30915E-3	-138.201E-12	649.221E-3	11.3690E-3	-137.140E-12	672.556E-3	-27.3087E-3
-3.31416E-3	-140.010E-12	652.012E-3	12.5798E-3	-137.104E-12	693.633E-3	-26.6708E-3
-3.31916E-3	-140.017E-12	657.143E-3	-4.15322E-3	-137.814E-12	714.040E-3	-26.9781E-3
-3.32416E-3	-140.640E-12	666.985E-3	-25.4038E-3	-138.383E-12	718.502E-3	-10.5159E-3
-3.32916E-3	-141.702E-12	671.253E-3	-32.2041E-3	-139.434E-12	706.491E-3	13.5620E-3
-3.33417E-3	-141.909E-12	669.518E-3	-19.0425E-3	-139.628E-12	702.658E-3	11.3448E-3
-3.33917E-3	-142.244E-12	675.635E-3	-10.1995E-3	-141.200E-12	689.131E-3	6.19731E-3
-3.34417E-3	-142.241E-12	684.985E-3	-14.1832E-3	-142.354E-12	663.053E-3	7.43471E-3
-3.34917E-3	-142.094E-12	689.244E-3	-12.7459E-3	-142.700E-12	662.531E-3	6.90403E-3
-3.35418E-3	-142.202E-12	681.918E-3	-16.5873E-3	-143.107E-12	671.295E-3	-3.70044E-3
-3.35918E-3	-141.581E-12	673.546E-3	-16.8806E-3	-143.719E-12	663.668E-3	-13.4692E-3
-3.36418E-3	-141.134E-12	672.752E-3	1.01216E-3	-144.598E-12	667.550E-3	-12.5129E-3
-3.36918E-3	-140.339E-12	674.276E-3	5.55048E-3	-143.803E-12	690.736E-3	-20.8835E-3
-3.37419E-3	-140.191E-12	673.194E-3	-5.46245E-3	-144.815E-12	698.562E-3	-15.6053E-3
-3.37919E-3	-139.456E-12	660.172E-3	-13.1872E-3	-144.421E-12	682.425E-3	1.17729E-3
-3.38419E-3	-138.954E-12	643.884E-3	-34.3996E-3	-144.646E-12	669.615E-3	-6.04982E-3
-3.38919E-3	-138.752E-12	635.110E-3	-44.5608E-3	-143.969E-12	670.546E-3	-13.0090E-3
-3.39420E-3	-138.761E-12	633.121E-3	-32.0385E-3	-143.598E-12	682.884E-3	-10.5872E-3
-3.39920E-3	-139.427E-12	645.395E-3	-21.4804E-3	-143.565E-12	675.936E-3	-22.3410E-3
-3.40420E-3	-140.009E-12	656.040E-3	-11.7316E-3	-143.020E-12	642.851E-3	-28.8936E-3
-3.40920E-3	-141.326E-12	662.581E-3	-15.0679E-3	-143.193E-12	643.117E-3	-15.8814E-3
-3.41421E-3	-141.701E-12	672.249E-3	-25.7443E-3	-143.139E-12	662.246E-3	-22.1680E-3
-3.41921E-3	-142.616E-12	667.763E-3	-22.3859E-3	-143.448E-12	671.076E-3	-35.3258E-3
-3.42421E-3	-143.275E-12	659.060E-3	-16.4352E-3	-143.283E-12	671.854E-3	-33.7442E-3
-3.42921E-3	-143.913E-12	673.034E-3	-14.4494E-3	-142.982E-12	673.415E-3	-41.7533E-3
-3.43422E-3	-144.298E-12	688.323E-3	-22.5906E-3	-144.051E-12	692.277E-3	-40.2945E-3
-3.43922E-3	-145.114E-12	684.567E-3	-39.2297E-3	-144.209E-12	704.294E-3	-25.6126E-3
-3.44422E-3	-145.647E-12	677.702E-3	-31.0390E-3	-144.721E-12	683.788E-3	-24.7828E-3
-3.44922E-3	-145.904E-12	672.604E-3	-7.73321E-3	-143.965E-12	656.346E-3	-20.7484E-3
-3.45423E-3	-146.045E-12	672.994E-3	1.12126E-3	-145.010E-12	642.702E-3	-12.8463E-3
-3.45923E-3	-145.788E-12	674.215E-3	8.09828E-3	-144.205E-12	657.212E-3	-13.3919E-3
-3.46423E-3	-146.129E-12	650.252E-3	11.0385E-3	-144.150E-12	689.760E-3	-11.4060E-3
-3.46923E-3	-146.122E-12	625.349E-3	4.00370E-3	-144.802E-12	699.108E-3	-17.9420E-3
-3.47424E-3	-145.925E-12	646.068E-3	8.15459E-3	-144.713E-12	690.328E-3	-20.2460E-3
-3.47924E-3	-145.541E-12	679.247E-3	16.9527E-3	-145.028E-12	675.281E-3	-8.38140E-3
-3.48424E-3	-146.204E-12	683.289E-3	5.62202E-3	-145.214E-12	659.632E-3	-8.56748E-3
-3.48924E-3	-145.985E-12	668.100E-3	-10.0830E-3	-146.138E-12	659.526E-3	-12.5802E-3
-3.49425E-3	-146.206E-12	651.721E-3	-26.2270E-3	-146.016E-12	667.779E-3	-1.76656E-3
-3.49925E-3	-146.832E-12	656.425E-3	-45.1788E-3	-146.310E-12	670.961E-3	3.33702E-3
-3.50425E-3	-147.568E-12	667.181E-3	-37.7312E-3	-146.510E-12	655.060E-3	-15.4826E-3
-3.50925E-3	-148.056E-12	648.421E-3	-3.98129E-3	-146.810E-12	624.182E-3	-28.5605E-3
-3.51426E-3	-148.523E-12	642.408E-3	6.18632E-3	-147.048E-12	622.065E-3	-17.1878E-3
-3.51926E-3	-149.602E-12	674.957E-3	-11.9876E-3	-147.459E-12	646.503E-3	-3.91930E-3
-3.52426E-3	-149.414E-12	699.905E-3	-11.6039E-3	-147.419E-12	660.756E-3	-2.93925E-3
-3.52926E-3	-150.773E-12	703.354E-3	-3.14542E-3	-147.440E-12	667.000E-3	-7.47508E-3
-3.53427E-3	-151.572E-12	709.251E-3	-17.5915E-3	-147.832E-12	671.972E-3	3.14201E-3
-3.53927E-3	-152.006E-12	708.659E-3	-25.5749E-3	-147.471E-12	683.684E-3	14.3047E-3
-3.54427E-3	-152.295E-12	688.005E-3	-28.1205E-3	-148.238E-12	705.014E-3	3.19569E-3
-3.54927E-3	-153.760E-12	659.715E-3	-41.9240E-3	-147.787E-12	712.176E-3	-5.20342E-3
-3.55428E-3	-153.602E-12	654.649E-3	-35.7856E-3	-148.257E-12	710.730E-3	3.57315E-3
-3.55928E-3	-152.764E-12	666.367E-3	-21.7963E-3	-148.739E-12	699.980E-3	18.9986E-3
-3.56428E-3	-153.805E-12	670.515E-3	-21.2347E-3	-149.076E-12	681.482E-3	15.9015E-3
-3.56928E-3	-152.758E-12	680.531E-3	-21.7612E-3	-149.362E-12	668.492E-3	-12.1171E-3
-3.57429E-3	-152.689E-12	686.343E-3	-12.4897E-3	-150.311E-12	657.270E-3	-25.3051E-3
-3.57929E-3	-151.844E-12	686.714E-3	-6.86885E-3	-151.344E-12	657.655E-3	-17.7258E-3
-3.58429E-3	-151.842E-12	681.863E-3	-13.9868E-3	-152.598E-12	670.988E-3	-16.7772E-3
-3.58929E-3	-151.445E-12	664.721E-3	-8.54103E-3	-153.278E-12	687.958E-3	-10.5768E-3
-3.59430E-3	-151.302E-12	649.713E-3	-10.8062E-3	-153.840E-12	697.434E-3	-2.88333E-3
-3.59930E-3	-150.798E-12	648.616E-3	-27.7467E-3	-154.811E-12	694.392E-3	-13.4251E-3
-3.60430E-3	-151.148E-12	655.596E-3	-25.6692E-3	-154.709E-12	684.415E-3	-15.3974E-3
-3.60930E-3	-150.736E-12	660.647E-3	-22.5369E-3	-154.864E-12	682.280E-3	-2.71143E-3
-3.61431E-3	-151.210E-12	661.199E-3	-19.8517E-3	-154.252E-12	679.887E-3	-9.81303E-3
-3.61931E-3	-151.453E-12	647.554E-3	-10.6342E-3	-154.166E-12	654.247E-3	-41.8885E-3
-3.62431E-3	-151.565E-12	635.392E-3	-9.72311E-3	-153.767E-12	636.476E-3	-56.8994E-3
-3.62931E-3	-151.823E-12	653.293E-3	-9.84172E-3	-153.819E-12	644.371E-3	-36.4496E-3
-3.63432E-3	-152.276E-12	660.514E-3	-7.05299E-3	-152.331E-12	647.929E-3	-20.5793E-3
-3.63932E-3	-153.001E-12	643.579E-3	-2.69956E-3	-152.329E-12	642.707E-3	-10.4655E-3
-3.64432E-3	-153.581E-12	657.139E-3	-8.41700E-3	-152.304E-12	644.816E-3	-277.518E-6
-3.64932E-3	-153.924E-12	686.976E-3	-20.6823E-3	-151.989E-12	664.873E-3	-9.08335E-3
-3.65433E-3	-154.982E-12	680.949E-3	-15.4490E-3	-152.406E-12	679.139E-3	-4.75990E-3
-3.65933E-3	-154.722E-12	646.466E-3	-7.69962E-3	-152.864E-12	662.959E-3	-4.26992E-3
-3.66433E-3	-155.116E-12	623.427E-3	-1.31118E-3	-153.793E-12	651.572E-3	-26.4182E-3
-3.66933E-3	-154.436E-12	623.454E-3	9.94042E-3	-154.515E-12	668.543E-3	-36.5916E-3
-3.67434E-3	-154.530E-12	636.686E-3	12.6610E-3	-155.491E-12	685.763E-3	-42.8816E-3
-3.67934E-3	-153.660E-12	651.437E-3	9.26339E-3	-157.255E-12	676.525E-3	-34.9359E-3
-3.68434E-3	-153.765E-12	655.529E-3	2.57202E-3	-157.089E-12	652.880E-3	-10.2639E-3
-3.68934E-3	-153.205E-12	649.006E-3	2.57754E-3	-158.370E-12	648.032E-3	-5.33022E-3
-3.69435E-3	-153.139E-12	645.437E-3	-2.48768E-3	-157.858E-12	653.048E-3	-20.1337E-3
-3.69935E-3	-152.822E-12	644.188E-3	-7.72577E-3	-157.796E-12	652.500E-3	-20.1739E-3
-3.70435E-3	-153.068E-12	644.298E-3	-4.83222E-3	-157.251E-12	657.435E-3	52.7343E-6
-3.70935E-3	-153.022E-12	649.428E-3	-13.7194E-3	-157.258E-12	658.036E-3	5.27435E-3
-3.71436E-3	-153.885E-12	641.456E-3	-21.7795E-3	-156.287E-12	653.643E-3	588.231E-6
-3.71936E-3	-154.435E-12	635.811E-3	-25.9628E-3	-155.851E-12	656.340E-3	4.98185E-3
-3.72436E-3	-155.185E-12	652.621E-3	-13.4228E-3	-155.320E-12	653.683E-3	-13.6384E-3
-3.72936E-3	-156.400E-12	664.066E-3	14.9302E-3	-155.187E-12	638.734E-3	-26.2455E-3
-3.73437E-3	-156.929E-12	665.845E-3	14.3385E-3	-154.210E-12	646.503E-3	8.07848E-3
-3.73937E-3	-158.114E-12	678.748E-3	-8.28303E-3	-154.545E-12	672.473E-3	22.8586E-3
-3.74437E-3	-158.327E-12	685.921E-3	-17.1751E-3	-155.463E-12	672.039E-3	1.36087E-3
-3.74937E-3	-160.141E-12	668.897E-3	-11.4389E-3	-155.711E-12	654.407E-3	-3.43176E-3
-3.75438E-3	-160.451E-12	660.378E-3	-381.714E-6	-157.109E-12	647.356E-3	8.33665E-3
-3.75938E-3	-160.664E-12	680.152E-3	-3.12067E-3	-157.908E-12	646.942E-3	2.84358E-3
-3.76438E-3	-161.357E-12	689.761E-3	-25.3432E-3	-158.691E-12	661.490E-3	-11.3348E-3
-3.76938E-3	-160.965E-12	670.107E-3	-27.1850E-3	-160.003E-12	684.940E-3	-15.7618E-3
-3.77439E-3	-160.448E-12	661.282E-3	-7.03116E-3	-159.759E-12	686.914E-3	-14.5788E-3
-3.77939E-3	-159.776E-12	680.569E-3	-5.66156E-3	-161.327E-12	681.694E-3	-10.5688E-3
-3.78439E-3	-159.599E-12	690.856E-3	-12.9334E-3	-161.183E-12	679.155E-3	-14.4882E-3
-3.78939E-3	-158.819E-12	676.447E-3	-4.05443E-3	-161.718E-12	683.552E-3	-31.9033E-3
-3.79440E-3	-159.190E-12	662.841E-3	8.69233E-3	-160.733E-12	697.687E-3	-47.5044E-3
-3.79940E-3	-159.008E-12	661.849E-3	17.3762E-3	-161.416E-12	697.151E-3	-47.8003E-3
-3.80440E-3	-159.254E-12	659.846E-3	30.4641E-3	-161.529E-12	679.374E-3	-36.4336E-3
-3.80940E-3	-159.832E-12	651.691E-3	33.5808E-3	-160.062E-12	676.896E-3	-23.1536E-3
-3.81441E-3	-160.510E-12	648.606E-3	18.6909E-3	-160.758E-12	683.717E-3	-10.8463E-3
-3.81941E-3	-161.583E-12	650.646E-3	689.130E-6	-160.605E-12	675.208E-3	-2.96008E-3
-3.82441E-3	-162.333E-12	648.558E-3	-2.69070E-3	-160.713E-12	675.134E-3	4.87803E-3
-3.82941E-3	-163.383E-12	653.831E-3	9.58228E-6	-160.141E-12	679.124E-3	11.6077E-3
-3.83442E-3	-164.000E-12	662.502E-3	-6.00956E-3	-161.298E-12	662.270E-3	8.01709E-3
-3.83942E-3	-164.779E-12	651.340E-3	-15.0061E-3	-161.628E-12	661.128E-3	-396.458E-6
-3.84442E-3	-165.420E-12	650.794E-3	-24.0985E-3	-161.678E-12	693.942E-3	-11.8347E-3
-3.84942E-3	-165.694E-12	675.757E-3	-18.7070E-3	-162.688E-12	709.330E-3	-3.77932E-3
-3.85443E-3	-165.619E-12	680.947E-3	-14.2541E-3	-163.177E-12	690.578E-3	20.4809E-3
-3.85943E-3	-166.521E-12	668.170E-3	-27.6805E-3	-163.036E-12	688.909E-3	10.1433E-3
-3.86443E-3	-165.464E-12	664.280E-3	-37.9245E-3	-163.548E-12	690.441E-3	-21.5143E-3
-3.86943E-3	-165.978E-12	668.612E-3	-20.3356E-3	-163.822E-12	659.090E-3	-38.4836E-3
-3.87444E-3	-164.953E-12	672.849E-3	6.12993E-3	-164.537E-12	644.543E-3	-42.2389E-3
-3.87944E-3	-165.223E-12	664.097E-3	6.06440E-3	-164.169E-12	660.582E-3	-31.7442E-3
-3.88444E-3	-164.146E-12	661.763E-3	-2.68461E-3	-164.331E-12	666.340E-3	-21.9915E-3
-3.88944E-3	-165.159E-12	675.296E-3	-20.1870E-3	-164.324E-12	671.854E-3	-18.6240E-3
-3.89445E-3	-164.543E-12	673.637E-3	-45.4683E-3	-164.634E-12	672.947E-3	-22.1793E-3
-3.89945E-3	-164.654E-12	657.614E-3	-44.1808E-3	-164.752E-12	663.088E-3	-38.9966E-3
-3.90445E-3	-164.734E-12	653.180E-3	-27.2757E-3	-165.756E-12	672.559E-3	-53.1563E-3
-3.90945E-3	-165.112E-12	657.262E-3	-11.6813E-3	-165.945E-12	676.378E-3	-53.6241E-3
-3.91446E-3	-164.638E-12	649.680E-3	-7.82814E-3	-166.229E-12	663.130E-3	-46.2877E-3
-3.91946E-3	-164.482E-12	640.448E-3	-17.8081E-3	-166.591E-12	670.101E-3	-39.0190E-3
-3.92446E-3	-164.959E-12	645.493E-3	-8.14864E-3	-167.548E-12	687.603E-3	-43.4123E-3
-3.92946E-3	-165.431E-12	655.129E-3	9.52876E-3	-166.972E-12	693.418E-3	-49.7696E-3
-3.93447E-3	-166.139E-12	675.684E-3	-4.01930E-3	-169.448E-12	682.383E-3	-34.6377E-3
-3.93947E-3	-166.524E-12	689.262E-3	-24.1428E-3	-168.170E-12	656.385E-3	-12.3301E-3
-3.94447E-3	-167.217E-12	661.770E-3	-6.37968E-3	-169.581E-12	650.244E-3	-1.25575E-3
-3.94947E-3	-167.535E-12	639.334E-3	13.3062E-3	-168.557E-12	663.996E-3	-7.52876E-3
-3.95448E-3	-168.801E-12	660.991E-3	3.17824E-3	-169.279E-12	660.953E-3	-28.4698E-3
-3.95948E-3	-169.069E-12	684.200E-3	2.88290E-3	-168.275E-12	656.813E-3	-39.1547E-3
-3.96448E-3	-168.705E-12	687.692E-3	8.59717E-3	-168.724E-12	668.282E-3	-30.7913E-3
-3.96948E-3	-170.328E-12	698.582E-3	-13.5400E-3	-167.790E-12	666.421E-3	-27.7088E-3
-3.97449E-3	-169.692E-12	708.873E-3	-30.0527E-3	-167.890E-12	659.746E-3	-21.2536E-3
-3.97949E-3	-170.218E-12	682.507E-3	-16.4908E-3	-167.866E-12	670.765E-3	-14.7645E-3
-3.98449E-3	-169.888E-12	653.103E-3	-9.40791E-3	-167.643E-12	678.632E-3	-21.4918E-3
-3.98949E-3	-169.674E-12	672.999E-3	-22.4947E-3	-167.903E-12	677.589E-3	-23.3321E-3
-3.99450E-3	-168.799E-12	695.685E-3	-23.5450E-3	-168.781E-12	684.680E-3	-20.6050E-3
-3.99950E-3	-168.642E-12	670.218E-3	-11.0987E-3	-169.495E-12	678.998E-3	-19.7193E-3
-4.00450E-3	-167.974E-12	654.114E-3	-167.115E-6	-170.449E-12	651.156E-3	-41.8947E-3
-4.00950E-3	-167.823E-12	664.220E-3	11.0684E-3	-170.778E-12	642.326E-3	-51.5252E-3
-4.01451E-3	-167.239E-12	650.107E-3	1.90406E-3	-172.394E-12	649.662E-3	-30.6602E-3
-4.01951E-3	-167.142E-12	620.791E-3	-14.4817E-3	-172.193E-12	647.235E-3	-23.6174E-3
-4.02451E-3	-167.437E-12	622.725E-3	-11.9160E-3	-173.188E-12	641.786E-3	-18.8867E-3
-4.02951E-3	-168.381E-12	640.649E-3	-4.53298E-3	-173.265E-12	652.012E-3	-4.92398E-3
-4.03452E-3	-168.484E-12	639.054E-3	2.04495E-3	-173.730E-12	668.280E-3	-536.604E-6
-4.03952E-3	-169.536E-12	632.201E-3	928.353E-6	-172.914E-12	665.406E-3	-8.82824E-3
-4.04452E-3	-170.737E-12	637.200E-3	-13.7114E-3	-172.387E-12	662.884E-3	-23.3532E-3
-4.04952E-3	-172.166E-12	661.381E-3	-24.2119E-3	-171.373E-12	661.307E-3	-38.2698E-3
-4.05453E-3	-172.693E-12	683.734E-3	-15.2377E-3	-170.486E-12	641.373E-3	-33.7612E-3
-4.05953E-3	-173.876E-12	697.080E-3	-4.81936E-3	-169.533E-12	640.080E-3	-11.7183E-3
-4.06453E-3	-174.810E-12	702.569E-3	-5.35269E-3	-168.795E-12	657.667E-3	-18.0781E-3
-4.06953E-3	-175.030E-12	686.260E-3	-13.8593E-3	-169.263E-12	650.640E-3	-33.4415E-3
-4.07454E-3	-175.489E-12	662.500E-3	-33.2905E-3	-168.820E-12	631.870E-3	-18.1963E-3
-4.07954E-3	-176.763E-12	659.988E-3	-33.5931E-3	-169.318E-12	639.159E-3	-11.3919E-3
-4.08454E-3	-176.471E-12	680.039E-3	-2.23220E-3	-170.159E-12	642.653E-3	-10.7576E-3
-4.08954E-3	-175.664E-12	687.672E-3	-313.363E-6	-170.871E-12	632.810E-3	-2.85806E-3
-4.09455E-3	-175.901E-12	678.463E-3	-37.2228E-3	-171.847E-12	652.425E-3	-12.5364E-3
-4.09955E-3	-174.815E-12	671.586E-3	-45.4513E-3	-171.525E-12	680.298E-3	-25.7175E-3
-4.10455E-3	-174.282E-12	664.417E-3	-21.9858E-3	-173.136E-12	685.997E-3	-23.1783E-3
-4.10955E-3	-173.002E-12	665.155E-3	-2.07533E-3	-174.107E-12	684.541E-3	-15.3336E-3
-4.11456E-3	-172.527E-12	674.109E-3	5.24114E-3	-175.453E-12	666.267E-3	-23.8997E-3
-4.11956E-3	-172.261E-12	659.063E-3	2.72276E-3	-175.145E-12	648.922E-3	-39.9766E-3
-4.12456E-3	-172.550E-12	631.789E-3	-13.7314E-3	-176.544E-12	664.564E-3	-16.9829E-3
-4.12956E-3	-172.269E-12	642.660E-3	-24.9289E-3	-176.442E-12	680.817E-3	15.6851E-3
-4.13457E-3	-173.083E-12	661.670E-3	-7.75678E-3	-176.495E-12	685.244E-3	6.43972E-3
-4.13957E-3	-174.074E-12	651.634E-3	-1.45489E-3	-175.970E-12	679.793E-3	-14.1497E-3
-4.14457E-3	-175.259E-12	645.160E-3	-13.3348E-3	-176.919E-12	655.520E-3	-25.0940E-3
-4.14957E-3	-175.853E-12	645.479E-3	-18.3052E-3	-176.480E-12	636.130E-3	-40.2784E-3
-4.15458E-3	-177.596E-12	636.179E-3	-14.1780E-3	-176.004E-12	641.756E-3	-36.9427E-3
-4.15958E-3	-178.383E-12	626.542E-3	-10.7101E-3	-175.203E-12	659.740E-3	-14.3068E-3
-4.16458E-3	-180.574E-12	640.535E-3	-14.4291E-3	-175.809E-12	672.577E-3	-11.7610E-3
-4.16958E-3	-179.877E-12	672.334E-3	-8.57869E-3	-175.965E-12	683.215E-3	-24.4391E-3
-4.17459E-3	-181.453E-12	685.604E-3	-10.5133E-3	-175.950E-12	685.093E-3	-21.5928E-3
-4.17959E-3	-181.063E-12	680.939E-3	-7.59070E-3	-177.712E-12	677.065E-3	-11.0668E-3
-4.18459E-3	-180.653E-12	669.160E-3	1.75791E-3	-178.314E-12	675.755E-3	-19.4907E-3
-4.18959E-3	-179.879E-12	652.181E-3	-10.2616E-3	-180.033E-12	671.749E-3	-17.6082E-3
-4.19460E-3	-179.953E-12	655.359E-3	-29.2436E-3	-180.876E-12	664.879E-3	-3.05961E-3
-4.19960E-3	-178.641E-12	657.211E-3	-26.4684E-3	-182.417E-12	654.082E-3	-13.7097E-3
-4.20460E-3	-178.011E-12	646.676E-3	-1.42779E-3	-182.629E-12	638.510E-3	-29.6329E-3
-4.20960E-3	-177.379E-12	648.277E-3	-8.97912E-3	-183.070E-12	646.416E-3	-12.3912E-3
-4.21461E-3	-177.225E-12	645.767E-3	-35.9935E-3	-182.880E-12	661.356E-3	4.02305E-3
-4.21961E-3	-176.560E-12	643.652E-3	-45.8234E-3	-182.894E-12	650.309E-3	-23.5031E-3
-4.22461E-3	-176.874E-12	639.355E-3	-38.1463E-3	-182.537E-12	636.598E-3	-60.9646E-3
-4.22961E-3	-177.433E-12	637.919E-3	-23.3701E-3	-182.418E-12	628.492E-3	-74.1860E-3
-4.23462E-3	-177.824E-12	643.937E-3	-19.0505E-3	-181.671E-12	622.001E-3	-59.1840E-3
-4.23962E-3	-179.108E-12	654.619E-3	-18.9940E-3	-181.372E-12	631.833E-3	-27.4788E-3
-4.24462E-3	-179.174E-12	652.630E-3	-35.0809E-3	-180.708E-12	655.189E-3	-13.4916E-3
-4.24962E-3	-179.818E-12	617.612E-3	-54.3941E-3	-179.568E-12	649.882E-3	-33.2713E-3
-4.25463E-3	-181.216E-12	603.249E-3	-36.5584E-3	-180.663E-12	613.865E-3	-55.4594E-3
-4.25963E-3	-182.718E-12	626.092E-3	-17.3622E-3	-180.285E-12	612.052E-3	-37.9389E-3
-4.26463E-3	-182.035E-12	647.338E-3	-29.7645E-3	-181.369E-12	640.335E-3	-18.6367E-3
-4.26963E-3	-182.250E-12	661.054E-3	-36.9291E-3	-181.588E-12	657.778E-3	-28.2161E-3
-4.27464E-3	-182.943E-12	664.124E-3	-32.9310E-3	-182.124E-12	665.971E-3	-37.1345E-3
-4.27964E-3	-182.518E-12	668.690E-3	-44.1019E-3	-182.728E-12	662.472E-3	-53.8681E-3
-4.28464E-3	-181.927E-12	680.641E-3	-46.0539E-3	-183.060E-12	646.900E-3	-60.2447E-3
-4.28964E-3	-182.085E-12	665.378E-3	-29.9541E-3	-182.849E-12	641.850E-3	-26.3022E-3
-4.29465E-3	-182.423E-12	650.041E-3	-30.8166E-3	-182.792E-12	646.588E-3	-12.6429E-3
-4.29965E-3	-182.636E-12	660.406E-3	-22.0183E-3	-183.131E-12	648.730E-3	-22.3797E-3
-4.30465E-3	-182.258E-12	656.752E-3	-3.98273E-3	-182.877E-12	645.642E-3	-10.2949E-3
-4.30965E-3	-182.555E-12	651.676E-3	-9.68640E-3	-182.657E-12	645.009E-3	-6.88612E-3
-4.31466E-3	-182.336E-12	666.209E-3	-9.00671E-3	-181.787E-12	651.089E-3	-19.4425E-3
-4.31966E-3	-182.564E-12	660.895E-3	-8.57077E-3	-181.813E-12	661.475E-3	-29.2706E-3
-4.32466E-3	-182.800E-12	645.908E-3	-26.3871E-3	-181.430E-12	674.247E-3	-29.3046E-3
-4.32966E-3	-183.665E-12	657.492E-3	-27.8672E-3	-180.931E-12	671.419E-3	-16.4309E-3
-4.33467E-3	-183.555E-12	653.806E-3	-21.7791E-3	-181.344E-12	662.084E-3	-7.96052E-3
-4.33967E-3	-184.180E-12	630.282E-3	-30.5428E-3	-182.313E-12	656.368E-3	-15.2489E-3
-4.34467E-3	-184.339E-12	638.610E-3	-23.3851E-3	-182.675E-12	653.332E-3	-24.3291E-3
-4.34967E-3	-185.015E-12	668.424E-3	3.15806E-3	-182.695E-12	657.662E-3	-37.2247E-3
-4.35468E-3	-186.219E-12	680.744E-3	675.319E-6	-184.089E-12	663.104E-3	-54.3817E-3
-4.35968E-3	-186.396E-12	673.191E-3	-20.6093E-3	-185.214E-12	682.668E-3	-54.3672E-3
-4.36468E-3	-186.356E-12	660.824E-3	-12.0797E-3	-186.916E-12	695.099E-3	-37.8962E-3
-4.36968E-3	-187.282E-12	659.913E-3	-8.17031E-3	-187.455E-12	670.223E-3	-17.9234E-3
-4.37469E-3	-188.021E-12	668.393E-3	-29.2056E-3	-188.153E-12	641.128E-3	-13.1512E-3
-4.37969E-3	-188.314E-12	672.326E-3	-34.4132E-3	-188.577E-12	634.202E-3	-20.0889E-3
-4.38469E-3	-188.315E-12	670.071E-3	-17.7618E-3	-188.462E-12	646.800E-3	-16.1741E-3
-4.38969E-3	-189.749E-12	671.005E-3	8.00293E-3	-187.987E-12	669.056E-3	-11.3282E-3
-4.39470E-3	-189.427E-12	679.949E-3	29.3239E-3	-188.867E-12	689.551E-3	-15.0065E-3
-4.39970E-3	-189.780E-12	683.536E-3	22.5387E-3	-188.083E-12	700.727E-3	-21.1240E-3
-4.40470E-3	-190.147E-12	697.863E-3	-2.37792E-3	-187.547E-12	690.934E-3	-33.1365E-3
-4.40970E-3	-191.369E-12	712.045E-3	-9.76984E-3	-187.558E-12	668.410E-3	-26.2744E-3
-4.41471E-3	-190.279E-12	692.193E-3	-13.4610E-3	-186.804E-12	660.378E-3	-15.1585E-3
-4.41971E-3	-190.788E-12	675.212E-3	-26.2534E-3	-186.874E-12	650.635E-3	-33.9832E-3
-4.42471E-3	-191.084E-12	666.453E-3	-21.1175E-3	-187.735E-12	632.893E-3	-52.4209E-3
-4.42971E-3	-191.058E-12	664.281E-3	-28.1717E-3	-188.234E-12	635.752E-3	-60.6954E-3
-4.43472E-3	-190.759E-12	682.018E-3	-48.0040E-3	-189.292E-12	643.405E-3	-51.5250E-3
-4.43972E-3	-189.850E-12	692.631E-3	-29.9146E-3	-190.079E-12	643.132E-3	-18.7000E-3
-4.44472E-3	-190.453E-12	682.801E-3	241.062E-6	-190.587E-12	659.693E-3	-11.0575E-3
-4.44972E-3	-189.914E-12	660.279E-3	-6.07892E-3	-190.684E-12	685.776E-3	-23.5022E-3
-4.45473E-3	-189.402E-12	647.238E-3	-22.6983E-3	-191.729E-12	692.430E-3	-9.24117E-3
-4.45973E-3	-188.897E-12	658.128E-3	-26.2829E-3	-192.076E-12	677.413E-3	-3.22753E-3
-4.46473E-3	-189.103E-12	673.642E-3	-37.4975E-3	-191.881E-12	658.922E-3	-19.7148E-3
-4.46973E-3	-188.945E-12	681.503E-3	-35.2524E-3	-191.467E-12	646.351E-3	-19.2521E-3
-4.47474E-3	-189.287E-12	677.815E-3	-16.9463E-3	-191.526E-12	643.819E-3	-14.3490E-3
-4.47974E-3	-189.847E-12	670.873E-3	-16.0534E-3	-190.945E-12	662.970E-3	-8.53033E-3
-4.48474E-3	-191.082E-12	683.274E-3	-27.1217E-3	-189.775E-12	690.075E-3	6.39013E-3
-4.48974E-3	-191.269E-12	696.007E-3	-29.8265E-3	-189.630E-12	682.445E-3	13.2087E-3
-4.49475E-3	-191.829E-12	681.692E-3	-22.5602E-3	-189.687E-12	642.524E-3	-4.26752E-3
-4.49975E-3	-192.208E-12	659.666E-3	-13.0449E-3	-188.737E-12	627.868E-3	-28.3988E-3
-4.50475E-3	-193.059E-12	648.783E-3	4.55819E-3	-188.796E-12	646.553E-3	-19.2800E-3
-4.50975E-3	-192.467E-12	641.724E-3	9.74944E-3	-189.016E-12	673.233E-3	-9.47048E-3
-4.51476E-3	-192.049E-12	645.637E-3	876.970E-6	-190.080E-12	681.042E-3	-29.4191E-3
-4.51976E-3	-191.380E-12	655.647E-3	10.2041E-3	-189.992E-12	668.391E-3	-35.8830E-3
-4.52476E-3	-191.387E-12	658.336E-3	3.79682E-3	-190.586E-12	669.229E-3	-39.2891E-3
-4.52976E-3	-190.813E-12	656.931E-3	-14.0525E-3	-191.453E-12	676.323E-3	-43.8354E-3
-4.53477E-3	-189.478E-12	646.488E-3	-17.6588E-3	-192.329E-12	689.320E-3	-11.5078E-3
-4.53977E-3	-189.418E-12	629.931E-3	-19.4832E-3	-193.179E-12	699.833E-3	10.7858E-3
-4.54477E-3	-189.173E-12	635.413E-3	-13.8317E-3	-193.508E-12	662.715E-3	-14.6847E-3
-4.54977E-3	-189.453E-12	643.222E-3	1.02199E-3	-193.799E-12	618.599E-3	-43.9024E-3
-4.55478E-3	-189.734E-12	641.262E-3	23.0788E-3	-195.235E-12	629.385E-3	-31.3308E-3
-4.55978E-3	-190.775E-12	654.819E-3	12.2240E-3	-195.809E-12	656.890E-3	-4.18503E-3
-4.56478E-3	-191.557E-12	670.592E-3	-19.1029E-3	-194.444E-12	668.627E-3	-8.72757E-3
-4.56978E-3	-191.915E-12	672.089E-3	-13.2401E-3	-194.699E-12	679.112E-3	-34.2641E-3
-4.57479E-3	-193.508E-12	677.199E-3	2.31592E-3	-194.591E-12	671.633E-3	-47.4392E-3
-4.57979E-3	-194.524E-12	681.544E-3	3.81063E-3	-193.799E-12	656.942E-3	-31.4681E-3
-4.58479E-3	-196.303E-12	665.351E-3	-18.5062E-3	-193.596E-12	675.000E-3	-954.084E-6
-4.58979E-3	-197.193E-12	659.559E-3	-43.8815E-3	-193.435E-12	680.045E-3	-3.32906E-3
-4.59480E-3	-197.826E-12	679.065E-3	-25.6361E-3	-194.713E-12	642.421E-3	-32.5745E-3
-4.59980E-3	-197.733E-12	678.981E-3	-11.1404E-3	-194.082E-12	638.243E-3	-29.0915E-3
-4.60480E-3	-198.430E-12	678.862E-3	-14.4044E-3	-195.309E-12	668.666E-3	-11.1878E-3
-4.60980E-3	-197.085E-12	697.581E-3	404.585E-6	-195.143E-12	675.200E-3	-6.42420E-3
-4.61481E-3	-196.309E-12	688.954E-3	9.01275E-3	-196.135E-12	675.516E-3	1.84583E-3
-4.61981E-3	-195.784E-12	669.786E-3	-3.58147E-3	-196.836E-12	678.626E-3	-11.5870E-3
-4.62481E-3	-195.095E-12	669.812E-3	-20.0328E-3	-198.044E-12	662.921E-3	-39.6007E-3
-4.62981E-3	-194.096E-12	660.122E-3	-24.5164E-3	-198.658E-12	643.650E-3	-50.8453E-3
-4.63482E-3	-193.213E-12	645.196E-3	-24.6546E-3	-198.906E-12	639.975E-3	-50.1916E-3
-4.63982E-3	-193.665E-12	661.351E-3	-32.7071E-3	-199.721E-12	645.881E-3	-40.3518E-3
-4.64482E-3	-194.152E-12	678.087E-3	-43.1995E-3	-199.981E-12	651.487E-3	-28.9593E-3
-4.64982E-3	-195.024E-12	663.687E-3	-34.9162E-3	-199.746E-12	652.530E-3	-20.3867E-3
-4.65483E-3	-195.947E-12	652.985E-3	-10.2238E-3	-199.442E-12	665.098E-3	-9.00909E-3
-4.65983E-3	-197.695E-12	657.373E-3	-9.52048E-3	-198.751E-12	673.151E-3	2.47695E-3
-4.66483E-3	-198.906E-12	655.948E-3	-22.8056E-3	-198.068E-12	659.162E-3	8.21465E-3
-4.66983E-3	-199.347E-12	652.303E-3	-29.4342E-3	-198.160E-12	639.006E-3	-7.08499E-3
-4.67484E-3	-200.648E-12	641.143E-3	-16.0760E-3	-197.976E-12	644.776E-3	-16.6068E-3
-4.67984E-3	-202.337E-12	622.771E-3	13.2018E-3	-197.906E-12	677.145E-3	2.03104E-3
-4.68484E-3	-203.405E-12	615.918E-3	15.9749E-3	-198.396E-12	688.335E-3	11.5734E-3
-4.68984E-3	-202.915E-12	618.105E-3	-10.3686E-3	-198.913E-12	689.313E-3	6.74410E-3
-4.69485E-3	-203.312E-12	615.224E-3	-45.7848E-3	-199.601E-12	694.221E-3	-10.5351E-3
-4.69985E-3	-204.132E-12	612.891E-3	-49.1684E-3	-200.424E-12	684.542E-3	-16.5769E-3
-4.70485E-3	-202.908E-12	620.840E-3	-30.7900E-3	-201.187E-12	663.205E-3	419.199E-6
-4.70985E-3	-202.367E-12	644.096E-3	-31.5423E-3	-201.778E-12	653.992E-3	-4.91635E-3
-4.71486E-3	-201.493E-12	681.793E-3	-22.7129E-3	-202.172E-12	663.028E-3	-25.0960E-3
-4.71986E-3	-199.933E-12	700.096E-3	-1.97156E-3	-202.838E-12	660.962E-3	-25.1944E-3
-4.72486E-3	-199.384E-12	683.006E-3	-8.24795E-3	-202.865E-12	648.365E-3	-10.2574E-3
-4.72986E-3	-199.470E-12	679.102E-3	-27.0017E-3	-202.925E-12	645.630E-3	-9.76820E-3
-4.73487E-3	-199.512E-12	691.784E-3	-32.4392E-3	-203.249E-12	643.581E-3	-21.1781E-3
-4.73987E-3	-199.996E-12	685.249E-3	-34.6146E-3	-203.074E-12	654.848E-3	-14.6430E-3
-4.74487E-3	-201.124E-12	664.189E-3	-26.6988E-3	-202.491E-12	672.847E-3	-10.4101E-3
-4.74988E-3	-201.078E-12	647.363E-3	-8.16902E-3	-203.045E-12	674.489E-3	-18.5460E-3
-4.75488E-3	-201.687E-12	645.307E-3	-4.80821E-3	-203.021E-12	680.405E-3	-15.0645E-3
-4.75988E-3	-203.401E-12	629.950E-3	-18.3383E-3	-202.706E-12	688.931E-3	1.05367E-3
-4.76488E-3	-202.694E-12	611.823E-3	-19.4400E-3	-202.407E-12	690.144E-3	19.7702E-3
-4.76988E-3	-204.075E-12	637.292E-3	-15.4858E-3	-203.463E-12	679.762E-3	14.9057E-3
-4.77489E-3	-205.193E-12	688.645E-3	-13.2580E-3	-202.574E-12	650.300E-3	-22.2133E-3
-4.77989E-3	-205.091E-12	720.011E-3	418.702E-6	-203.845E-12	626.627E-3	-40.8341E-3
-4.78489E-3	-204.709E-12	717.051E-3	-2.34512E-3	-204.741E-12	635.582E-3	-31.4952E-3
-4.78989E-3	-204.637E-12	703.418E-3	-24.3226E-3	-205.437E-12	658.119E-3	-17.3216E-3
-4.79490E-3	-204.877E-12	691.321E-3	-22.3764E-3	-205.105E-12	672.782E-3	-6.40298E-3
-4.79990E-3	-204.351E-12	671.922E-3	7.28513E-3	-206.504E-12	677.865E-3	-17.5014E-3
-4.80490E-3	-204.807E-12	647.541E-3	28.5170E-3	-206.669E-12	681.289E-3	-36.0486E-3
-4.80990E-3	-204.710E-12	632.043E-3	17.3132E-3	-206.366E-12	680.873E-3	-30.1778E-3
-4.81491E-3	-204.879E-12	647.003E-3	-14.4401E-3	-205.725E-12	678.090E-3	-7.42678E-3
-4.81991E-3	-204.599E-12	667.905E-3	-51.3800E-3	-205.945E-12	686.856E-3	2.01795E-3
-4.82491E-3	-205.774E-12	656.191E-3	-64.6270E-3	-205.068E-12	688.435E-3	847.682E-6
-4.82991E-3	-205.903E-12	643.960E-3	-42.7891E-3	-204.749E-12	670.691E-3	19.5915E-3
-4.83492E-3	-206.707E-12	652.337E-3	-18.8599E-3	-203.640E-12	660.009E-3	35.5413E-3
-4.83992E-3	-206.217E-12	660.606E-3	-9.63114E-3	-203.850E-12	652.303E-3	14.3226E-3
-4.84492E-3	-206.486E-12	670.161E-3	-14.5003E-3	-203.731E-12	640.624E-3	-27.5330E-3
-4.84992E-3	-206.778E-12	659.691E-3	-19.8238E-3	-203.545E-12	668.544E-3	-74.2317E-3
-4.85493E-3	-207.162E-12	643.788E-3	-17.2505E-3	-204.424E-12	682.467E-3	-82.7650E-3
-4.85993E-3	-207.021E-12	642.055E-3	-10.4382E-3	-205.568E-12	638.164E-3	-26.2812E-3
-4.86493E-3	-206.931E-12	633.834E-3	1.37899E-3	-206.247E-12	632.656E-3	21.9062E-3
-4.86993E-3	-207.054E-12	646.633E-3	5.23750E-3	-206.955E-12	672.760E-3	18.6879E-3
-4.87494E-3	-207.185E-12	674.493E-3	3.12550E-3	-208.791E-12	690.387E-3	5.90731E-3
-4.87994E-3	-206.813E-12	671.198E-3	-11.3091E-3	-208.622E-12	697.059E-3	-5.76806E-3
-4.88494E-3	-207.424E-12	667.772E-3	-35.7934E-3	-209.644E-12	687.282E-3	-32.0866E-3
-4.88995E-3	-207.785E-12	679.924E-3	-37.7748E-3	-209.936E-12	664.797E-3	-31.5685E-3
-4.89495E-3	-208.549E-12	669.040E-3	-38.3580E-3	-210.225E-12	673.497E-3	4.13403E-3
-4.89995E-3	-208.742E-12	656.528E-3	-52.9402E-3	-211.231E-12	694.944E-3	-4.48989E-3
-4.90495E-3	-210.014E-12	673.927E-3	-49.5378E-3	-210.158E-12	699.194E-3	-32.2699E-3
-4.90995E-3	-211.332E-12	673.884E-3	-43.4388E-3	-210.079E-12	682.890E-3	-29.5375E-3
-4.91496E-3	-211.824E-12	663.616E-3	-62.6992E-3	-208.138E-12	664.859E-3	-46.6619E-3
-4.91996E-3	-213.009E-12	677.121E-3	-60.4902E-3	-209.496E-12	643.671E-3	-50.8146E-3
-4.92496E-3	-214.349E-12	681.592E-3	-19.5278E-3	-206.545E-12	639.807E-3	-36.5526E-3
-4.92996E-3	-213.897E-12	685.102E-3	-10.8712E-3	-206.200E-12	645.805E-3	-50.5379E-3
-4.93497E-3	-215.739E-12	683.821E-3	-24.9601E-3	-206.718E-12	626.167E-3	-44.3576E-3
-4.93997E-3	-215.588E-12	657.892E-3	-7.38347E-3	-206.756E-12	623.004E-3	-23.4078E-3
-4.94497E-3	-214.283E-12	638.774E-3	5.82630E-3	-206.754E-12	647.643E-3	-27.7393E-3
-4.94997E-3	-213.384E-12	652.740E-3	-9.77503E-3	-207.872E-12	671.415E-3	-36.3653E-3
-4.95498E-3	-212.886E-12	662.780E-3	-37.4794E-3	-209.462E-12	681.858E-3	-34.6885E-3
-4.95998E-3	-211.555E-12	648.198E-3	-58.6120E-3	-209.537E-12	668.870E-3	-42.3471E-3
-4.96498E-3	-210.332E-12	652.755E-3	-54.3122E-3	-212.220E-12	642.244E-3	-41.4427E-3
-4.96998E-3	-209.787E-12	652.972E-3	-36.1005E-3	-212.400E-12	632.503E-3	-14.1708E-3
-4.97499E-3	-209.694E-12	633.221E-3	-45.6871E-3	-214.513E-12	648.057E-3	-15.2695E-3
-4.97999E-3	-209.340E-12	640.665E-3	-56.8010E-3	-214.840E-12	661.579E-3	-31.0583E-3
-4.98499E-3	-210.534E-12	640.251E-3	-36.9759E-3	-215.298E-12	677.987E-3	-31.9366E-3
-4.98999E-3	-211.257E-12	616.340E-3	-24.1353E-3	-216.227E-12	700.809E-3	-35.9036E-3
-4.99500E-3	-213.571E-12	618.111E-3	-10.8813E-3	-215.821E-12	669.442E-3	-28.1800E-3
-5.00000E-3	-214.616E-12	609.642E-3	5.38638E-3	-215.356E-12	611.257E-3	-5.31215E-3
