Experiment	bias spectroscopy	
Date	19.01.2016 22:35:56	
User		
X (m)	50.2928E-9	
Y (m)	258.056E-9	
Z (m)	-132.67E-9	
Z offset (m)	0E+0	
Settling time (s)	200E-6	
Integration time (s)	5E-3	
Z-Ctrl hold	TRUE	
Final Z (m)	N/A	
Filter type	None	
Order		
Cutoff frq		
Comment01	MnPc/Pb(111)	
Comment02	dz =00pm	
Comment03	7 Sweeps	
Comment04	MagField =0.T	
Comment05	Divider 1:10	
Comment06	Setpoint:5mV,200 pA	
Comment07	Lockin: 50uVrms,5ms,5mV	
Comment08	Gain:9; 912Hz modulation	
Comment09	T=1.06K	
Bias>Bias (V)	5E-3	
Bias>Calibration (V/V)	81.475E-3	
Bias>Offset (V)	1.046E-3	
Bias Spectroscopy>Sweep Start (V)	5E-3	
Bias Spectroscopy>Sweep End (V)	-5E-3	
Bias Spectroscopy>Num Pixel	2000	
Bias Spectroscopy>Z Avg time (s)	500E-3	
Bias Spectroscopy>Z offset (m)	0E+0	
Bias Spectroscopy>1st Settling time (s)	500E-3	
Bias Spectroscopy>Settling time (s)	200E-6	
Bias Spectroscopy>Integration time (s)	5E-3	
Bias Spectroscopy>End Settling time (s)	500E-3	
Bias Spectroscopy>Z control time (s)	500E-3	
Bias Spectroscopy>Max Slew rate (V/s)	Inf	
Bias Spectroscopy>backward sweep	TRUE	
Bias Spectroscopy>Z-controller hold	TRUE	
Bias Spectroscopy>Number of sweeps	7	
Bias Spectroscopy>Channels	Current (A);X% LockIn (V);Y% LockIn (V)	
Bias Spectroscopy>Reset Bias	TRUE	
Bias Spectroscopy>Record final Z	FALSE	
Bias Spectroscopy>Lock-In run	FALSE	
Bias Spectroscopy>Sweep mode	Linear	
Bias Spectroscopy>MultiLine Settings : Segment Start (V), Segment End (V), Settling (s), Integration (s), Steps (xn)	100E-3,3.3E-3,100E-6,10E-3,2500;3.3E-3,-3.3E-3,100E-6,10E-3,10;-3.3E-3,-100E-3,100E-6,10E-3,2500	
Current>Current (A)	200.217E-12	
Current>Calibration (A/V)	999.99900E-12	
Current>Offset (A)	-455.429E-15	
Current>Gain	LN 10^9	
Z-Controller>Z (m)	-132.671E-9	
Z-Controller>Controller name	log Current	
Z-Controller>Controller status	ON	
Z-Controller>Setpoint	200E-12	
Z-Controller>Setpoint unit	A	
Z-Controller>P gain	2.96994E-12	
Z-Controller>I gain	67.0321E-9	
Z-Controller>Time const (s)	44.3062E-6	
Z-Controller>TipLift (m)	0E+0	
Z-Controller>Switch off delay (s)	50E-3	
Current (A)	199.764E-12	
Z (m)	-132.672E-9	

[DATA]
Bias calc (V)	Current (A)	X% LockIn (V)	Y% LockIn (V)	Current [bwd] (A)	X% LockIn [bwd] (V)	Y% LockIn [bwd] (V)
5.00000E-3	198.470E-12	645.633E-3	-57.1155E-3	198.075E-12	690.073E-3	-7.62709E-3
4.99500E-3	198.058E-12	644.688E-3	-79.5955E-3	196.984E-12	658.882E-3	-15.1669E-3
4.98999E-3	197.860E-12	642.450E-3	-58.7301E-3	196.660E-12	648.966E-3	-22.8946E-3
4.98499E-3	196.291E-12	640.994E-3	-20.3883E-3	194.692E-12	670.318E-3	-18.6617E-3
4.97999E-3	195.898E-12	651.307E-3	-9.54692E-3	193.864E-12	666.333E-3	-36.8892E-3
4.97499E-3	196.113E-12	650.464E-3	-16.2448E-3	194.666E-12	632.985E-3	-36.0662E-3
4.96998E-3	195.081E-12	653.370E-3	-34.1745E-3	194.390E-12	618.090E-3	-13.7827E-3
4.96498E-3	193.767E-12	661.135E-3	-46.7456E-3	194.640E-12	626.760E-3	-21.0539E-3
4.95998E-3	193.793E-12	658.623E-3	-31.7425E-3	194.073E-12	628.025E-3	-49.6251E-3
4.95498E-3	194.647E-12	642.336E-3	-24.9077E-3	196.172E-12	631.939E-3	-58.6877E-3
4.94997E-3	193.528E-12	607.547E-3	-39.0934E-3	195.683E-12	642.710E-3	-39.1959E-3
4.94497E-3	192.825E-12	604.067E-3	-58.8712E-3	196.284E-12	643.432E-3	-10.6863E-3
4.93997E-3	193.362E-12	641.775E-3	-79.9567E-3	196.041E-12	650.046E-3	9.61127E-3
4.93497E-3	194.161E-12	642.516E-3	-70.9174E-3	196.637E-12	675.517E-3	6.20853E-3
4.92996E-3	193.038E-12	607.947E-3	-37.6340E-3	196.524E-12	691.562E-3	2.47620E-3
4.92496E-3	192.248E-12	622.247E-3	-12.2310E-3	196.175E-12	700.828E-3	19.7439E-3
4.91996E-3	191.086E-12	657.011E-3	28.1755E-3	196.468E-12	711.385E-3	21.8215E-3
4.91496E-3	192.350E-12	665.272E-3	49.8807E-3	195.320E-12	692.928E-3	12.3107E-3
4.90995E-3	192.229E-12	658.768E-3	-1.71297E-3	195.187E-12	656.810E-3	23.8976E-3
4.90495E-3	192.885E-12	651.193E-3	-71.0283E-3	193.950E-12	635.972E-3	17.8191E-3
4.89995E-3	191.826E-12	642.048E-3	-74.1873E-3	195.192E-12	628.738E-3	-17.7382E-3
4.89495E-3	190.715E-12	620.079E-3	-39.4355E-3	193.096E-12	631.868E-3	-29.3822E-3
4.88995E-3	190.908E-12	597.254E-3	-32.8958E-3	191.501E-12	647.093E-3	-29.2570E-3
4.88494E-3	191.050E-12	595.574E-3	-48.4842E-3	191.747E-12	644.569E-3	-39.2150E-3
4.87994E-3	190.297E-12	614.544E-3	-49.2893E-3	191.437E-12	635.248E-3	-33.8983E-3
4.87494E-3	190.280E-12	618.047E-3	-22.8231E-3	192.005E-12	650.801E-3	-26.2534E-3
4.86993E-3	190.507E-12	603.177E-3	-13.3531E-3	190.536E-12	653.463E-3	-24.3400E-3
4.86493E-3	190.420E-12	604.345E-3	-25.5588E-3	192.407E-12	646.575E-3	-36.0696E-3
4.85993E-3	189.252E-12	623.952E-3	-15.3998E-3	191.673E-12	658.343E-3	-63.4172E-3
4.85493E-3	188.980E-12	633.640E-3	5.77675E-3	190.984E-12	655.226E-3	-57.7726E-3
4.84992E-3	189.071E-12	631.326E-3	-7.02125E-3	190.531E-12	639.313E-3	-13.0006E-3
4.84492E-3	189.340E-12	629.452E-3	-18.3420E-3	190.136E-12	636.699E-3	7.85182E-3
4.83992E-3	189.653E-12	640.388E-3	2.42467E-3	190.768E-12	633.263E-3	-5.05218E-3
4.83492E-3	188.933E-12	660.859E-3	-2.90583E-3	189.045E-12	643.562E-3	-14.7721E-3
4.82991E-3	188.885E-12	667.501E-3	-37.0531E-3	188.810E-12	670.076E-3	-35.9183E-3
4.82491E-3	190.554E-12	641.530E-3	-34.5714E-3	188.205E-12	677.104E-3	-38.6821E-3
4.81991E-3	191.239E-12	644.494E-3	-13.9538E-3	188.369E-12	676.954E-3	-1.52213E-3
4.81491E-3	190.413E-12	691.168E-3	-26.2483E-3	188.183E-12	671.925E-3	-2.95553E-3
4.80990E-3	189.597E-12	691.738E-3	-29.1705E-3	187.498E-12	649.794E-3	-30.2247E-3
4.80490E-3	189.411E-12	654.818E-3	-31.6072E-3	187.549E-12	643.139E-3	-13.9896E-3
4.79990E-3	189.750E-12	637.624E-3	-38.7104E-3	188.455E-12	657.143E-3	5.68862E-3
4.79490E-3	189.360E-12	634.713E-3	-25.7670E-3	189.862E-12	658.396E-3	148.743E-6
4.78989E-3	189.187E-12	642.180E-3	-18.6692E-3	189.285E-12	654.404E-3	-7.32368E-3
4.78489E-3	188.703E-12	674.621E-3	-23.1890E-3	189.536E-12	657.255E-3	-18.0394E-3
4.77989E-3	187.717E-12	693.843E-3	-25.8410E-3	189.714E-12	662.478E-3	-36.7040E-3
4.77489E-3	186.861E-12	673.598E-3	-28.8863E-3	189.848E-12	668.164E-3	-47.6538E-3
4.76988E-3	186.634E-12	639.885E-3	-21.2334E-3	190.503E-12	671.531E-3	-46.3474E-3
4.76488E-3	185.690E-12	632.953E-3	-4.45986E-3	188.714E-12	667.332E-3	-32.8754E-3
4.75988E-3	184.826E-12	643.367E-3	-8.49005E-3	188.642E-12	655.289E-3	-19.7096E-3
4.75488E-3	185.405E-12	637.355E-3	-12.9351E-3	188.122E-12	645.276E-3	-14.6950E-3
4.74988E-3	184.948E-12	623.386E-3	-1.32639E-3	188.163E-12	629.945E-3	2.92137E-3
4.74487E-3	185.011E-12	613.794E-3	16.5549E-3	185.962E-12	623.728E-3	20.3655E-3
4.73987E-3	184.578E-12	632.661E-3	19.7904E-3	185.806E-12	634.873E-3	15.0287E-3
4.73487E-3	185.334E-12	646.591E-3	18.7790E-3	185.245E-12	641.959E-3	-17.6154E-3
4.72986E-3	186.247E-12	626.225E-3	4.99328E-3	185.444E-12	648.595E-3	-39.0079E-3
4.72486E-3	185.354E-12	624.113E-3	-27.1763E-3	185.325E-12	668.973E-3	-26.0077E-3
4.71986E-3	185.962E-12	642.222E-3	-46.6388E-3	184.270E-12	693.894E-3	-6.38268E-3
4.71486E-3	185.723E-12	641.465E-3	-54.3283E-3	184.805E-12	712.224E-3	17.2319E-3
4.70985E-3	185.995E-12	649.913E-3	-38.2180E-3	185.555E-12	716.894E-3	18.7198E-3
4.70485E-3	184.608E-12	664.221E-3	-21.9975E-3	187.331E-12	679.522E-3	-19.4512E-3
4.69985E-3	184.720E-12	651.237E-3	-22.7710E-3	186.462E-12	642.616E-3	-42.6259E-3
4.69485E-3	184.747E-12	637.857E-3	-19.8624E-3	186.617E-12	660.093E-3	-42.4748E-3
4.68984E-3	184.061E-12	652.853E-3	-9.72717E-3	186.245E-12	664.364E-3	-61.4967E-3
4.68484E-3	183.511E-12	667.968E-3	2.36916E-3	187.353E-12	638.432E-3	-76.5357E-3
4.67984E-3	182.980E-12	658.576E-3	-5.82318E-3	187.003E-12	637.959E-3	-57.1040E-3
4.67484E-3	182.323E-12	646.791E-3	-23.6769E-3	185.200E-12	652.523E-3	-36.3347E-3
4.66983E-3	181.227E-12	641.757E-3	-3.52051E-3	183.500E-12	664.042E-3	-22.4064E-3
4.66483E-3	181.870E-12	647.178E-3	39.1467E-3	182.528E-12	680.523E-3	5.66970E-3
4.65983E-3	181.301E-12	645.727E-3	37.7537E-3	182.676E-12	666.137E-3	9.62205E-3
4.65483E-3	181.840E-12	645.082E-3	8.16835E-3	181.037E-12	628.455E-3	-10.1745E-3
4.64982E-3	181.296E-12	649.157E-3	-634.967E-6	179.994E-12	624.817E-3	-9.51405E-3
4.64482E-3	182.525E-12	653.067E-3	9.91787E-3	178.932E-12	647.580E-3	-18.3237E-3
4.63982E-3	182.310E-12	671.946E-3	19.4673E-3	178.788E-12	653.335E-3	-35.7204E-3
4.63482E-3	182.789E-12	686.925E-3	6.99848E-3	178.491E-12	636.346E-3	-14.0323E-3
4.62981E-3	183.778E-12	693.071E-3	-10.8175E-3	178.312E-12	636.521E-3	8.13128E-3
4.62481E-3	183.409E-12	690.058E-3	-11.1830E-3	178.582E-12	649.120E-3	-7.55640E-3
4.61981E-3	184.203E-12	686.855E-3	-17.0056E-3	178.103E-12	644.303E-3	-23.6194E-3
4.61481E-3	183.463E-12	672.354E-3	-14.0105E-3	179.216E-12	640.763E-3	-14.7692E-3
4.60980E-3	183.935E-12	661.580E-3	9.00657E-3	179.836E-12	654.154E-3	-5.28614E-3
4.60480E-3	184.578E-12	661.807E-3	4.32119E-3	179.604E-12	694.705E-3	-16.6748E-3
4.59980E-3	181.519E-12	649.939E-3	-1.08903E-3	177.945E-12	732.605E-3	-28.2044E-3
4.59480E-3	180.066E-12	637.020E-3	13.4995E-3	179.337E-12	716.852E-3	-19.1424E-3
4.58979E-3	181.032E-12	637.432E-3	17.0224E-3	179.749E-12	668.989E-3	1.29521E-3
4.58479E-3	180.779E-12	655.042E-3	19.1765E-3	178.572E-12	634.422E-3	17.2336E-3
4.57979E-3	180.162E-12	668.859E-3	16.5563E-3	177.498E-12	620.864E-3	10.3818E-3
4.57479E-3	178.622E-12	658.621E-3	-6.98277E-3	177.213E-12	618.678E-3	-8.97316E-3
4.56978E-3	177.721E-12	638.614E-3	-20.9129E-3	178.188E-12	638.474E-3	-12.0060E-3
4.56478E-3	178.332E-12	618.960E-3	-23.0448E-3	176.950E-12	655.189E-3	-12.9304E-3
4.55978E-3	179.227E-12	603.197E-3	-26.3572E-3	176.443E-12	646.389E-3	-14.3544E-3
4.55478E-3	177.157E-12	622.127E-3	-18.2379E-3	175.824E-12	644.726E-3	-689.192E-6
4.54977E-3	176.645E-12	641.506E-3	2.98701E-3	176.956E-12	664.890E-3	11.4437E-3
4.54477E-3	175.881E-12	644.418E-3	12.4507E-3	175.781E-12	671.742E-3	10.3884E-3
4.53977E-3	176.777E-12	666.824E-3	-18.6374E-3	176.411E-12	644.365E-3	4.85075E-3
4.53477E-3	176.489E-12	670.495E-3	-52.4942E-3	176.184E-12	627.470E-3	-2.54668E-3
4.52976E-3	175.292E-12	634.949E-3	-60.2033E-3	178.081E-12	619.506E-3	-4.07005E-3
4.52476E-3	175.308E-12	613.672E-3	-50.7831E-3	178.324E-12	618.597E-3	4.19641E-3
4.51976E-3	176.047E-12	621.717E-3	-36.3150E-3	178.779E-12	649.168E-3	14.6015E-3
4.51476E-3	177.290E-12	637.779E-3	-27.0989E-3	179.172E-12	670.043E-3	19.0912E-3
4.50975E-3	175.785E-12	650.996E-3	-24.3239E-3	179.632E-12	672.953E-3	5.67600E-3
4.50475E-3	175.355E-12	652.368E-3	-16.6082E-3	179.707E-12	676.628E-3	-34.6650E-3
4.49975E-3	174.506E-12	662.189E-3	-20.4815E-3	179.531E-12	689.676E-3	-61.3212E-3
4.49475E-3	175.840E-12	666.189E-3	-38.7370E-3	178.340E-12	709.297E-3	-43.8355E-3
4.48974E-3	175.496E-12	648.116E-3	-33.7824E-3	176.849E-12	697.957E-3	-19.1405E-3
4.48474E-3	173.078E-12	652.491E-3	-3.48371E-3	176.083E-12	651.519E-3	-15.0146E-3
4.47974E-3	173.709E-12	678.784E-3	23.1595E-3	176.020E-12	623.046E-3	-28.8500E-3
4.47474E-3	174.320E-12	684.558E-3	26.9725E-3	175.828E-12	630.347E-3	-47.3049E-3
4.46973E-3	176.388E-12	666.419E-3	7.95149E-3	174.481E-12	639.040E-3	-44.1673E-3
4.46473E-3	174.639E-12	648.093E-3	-10.6035E-3	173.953E-12	634.275E-3	-24.7465E-3
4.45973E-3	173.044E-12	649.392E-3	-7.15043E-3	173.839E-12	630.755E-3	-16.4047E-3
4.45473E-3	173.456E-12	645.237E-3	6.57662E-3	174.242E-12	625.570E-3	-4.64856E-3
4.44972E-3	175.036E-12	620.143E-3	10.1424E-3	173.555E-12	624.586E-3	18.6366E-3
4.44472E-3	175.141E-12	601.124E-3	-372.889E-6	172.813E-12	656.360E-3	8.95765E-3
4.43972E-3	172.476E-12	605.385E-3	-5.53970E-3	172.562E-12	694.576E-3	-21.0907E-3
4.43472E-3	172.471E-12	640.295E-3	-301.994E-6	173.241E-12	694.020E-3	-15.6759E-3
4.42971E-3	173.210E-12	678.088E-3	10.6955E-3	173.438E-12	663.563E-3	-11.1396E-3
4.42471E-3	175.754E-12	672.121E-3	4.94915E-3	173.204E-12	635.225E-3	-26.4300E-3
4.41971E-3	172.936E-12	655.686E-3	-6.20304E-3	172.840E-12	625.971E-3	-33.4515E-3
4.41471E-3	171.206E-12	661.853E-3	11.1184E-3	172.641E-12	639.534E-3	-31.0454E-3
4.40970E-3	171.530E-12	654.969E-3	12.2562E-3	172.053E-12	649.112E-3	-41.7302E-3
4.40470E-3	173.893E-12	652.283E-3	-6.27562E-3	171.456E-12	637.137E-3	-70.4740E-3
4.39970E-3	174.375E-12	664.881E-3	-13.7070E-3	171.125E-12	632.275E-3	-69.4727E-3
4.39470E-3	171.340E-12	670.192E-3	-6.99221E-3	170.171E-12	646.840E-3	-61.9459E-3
4.38969E-3	171.342E-12	675.844E-3	4.28652E-3	170.437E-12	647.406E-3	-63.7577E-3
4.38469E-3	172.479E-12	680.271E-3	14.8256E-3	170.310E-12	641.249E-3	-40.0052E-3
4.37969E-3	173.874E-12	683.016E-3	1.42966E-3	171.402E-12	639.340E-3	-27.4814E-3
4.37469E-3	171.471E-12	677.824E-3	-38.5734E-3	170.495E-12	617.993E-3	-40.1950E-3
4.36968E-3	170.245E-12	669.260E-3	-40.3301E-3	170.252E-12	619.650E-3	-42.3336E-3
4.36468E-3	170.992E-12	643.455E-3	3.29819E-3	169.970E-12	641.476E-3	-32.6399E-3
4.35968E-3	171.152E-12	610.078E-3	15.7207E-3	170.436E-12	645.502E-3	-24.5961E-3
4.35468E-3	169.601E-12	617.461E-3	-5.12144E-3	170.682E-12	655.667E-3	-21.0854E-3
4.34967E-3	167.550E-12	649.515E-3	-37.6153E-6	170.296E-12	654.924E-3	-34.6650E-3
4.34467E-3	168.191E-12	661.131E-3	10.1349E-3	170.519E-12	636.794E-3	-45.4795E-3
4.33967E-3	168.500E-12	637.551E-3	5.48395E-3	169.965E-12	639.506E-3	-25.2003E-3
4.33467E-3	168.147E-12	614.823E-3	-1.93637E-3	169.709E-12	657.797E-3	4.43338E-3
4.32966E-3	167.208E-12	627.809E-3	-10.9629E-3	168.989E-12	650.565E-3	11.2679E-3
4.32466E-3	167.350E-12	662.725E-3	-24.4382E-3	168.335E-12	624.548E-3	1.30425E-3
4.31966E-3	167.274E-12	671.735E-3	-36.0137E-3	167.866E-12	640.259E-3	-10.0756E-3
4.31466E-3	168.045E-12	659.681E-3	-40.9124E-3	167.314E-12	687.736E-3	-31.7144E-3
4.30965E-3	167.387E-12	652.486E-3	-24.6461E-3	166.851E-12	692.428E-3	-33.2763E-3
4.30465E-3	167.511E-12	646.822E-3	5.12262E-3	167.339E-12	661.876E-3	-14.7478E-3
4.29965E-3	167.966E-12	644.818E-3	11.2230E-3	167.838E-12	647.035E-3	-18.0591E-3
4.29465E-3	168.506E-12	647.152E-3	-16.1242E-3	166.688E-12	649.147E-3	-20.3001E-3
4.28964E-3	167.673E-12	669.122E-3	-39.5218E-3	167.240E-12	650.128E-3	-10.8355E-3
4.28464E-3	167.693E-12	687.676E-3	-17.9229E-3	167.292E-12	643.339E-3	-10.0100E-3
4.27964E-3	167.589E-12	688.924E-3	4.87220E-3	168.142E-12	645.264E-3	-13.5934E-3
4.27464E-3	166.863E-12	699.327E-3	-7.24046E-3	167.740E-12	650.829E-3	-23.2582E-3
4.26963E-3	166.045E-12	696.908E-3	-22.9377E-3	167.043E-12	657.083E-3	-26.3147E-3
4.26463E-3	165.717E-12	683.056E-3	-14.9945E-3	166.761E-12	670.987E-3	-21.7061E-3
4.25963E-3	166.349E-12	689.176E-3	2.28823E-3	167.193E-12	666.219E-3	-30.8894E-3
4.25463E-3	165.893E-12	687.335E-3	5.04185E-3	167.437E-12	643.464E-3	-28.1659E-3
4.24962E-3	164.636E-12	681.612E-3	-3.19117E-3	165.619E-12	634.726E-3	-12.6017E-3
4.24462E-3	164.877E-12	679.016E-3	-13.4217E-3	164.569E-12	641.525E-3	-19.5471E-3
4.23962E-3	164.140E-12	652.893E-3	-14.7643E-3	164.013E-12	663.278E-3	-36.4914E-3
4.23462E-3	164.241E-12	627.553E-3	-4.98062E-3	164.467E-12	672.870E-3	-39.6459E-3
4.22961E-3	163.571E-12	625.450E-3	-4.58453E-3	162.684E-12	659.936E-3	-19.6765E-3
4.22461E-3	162.573E-12	647.325E-3	-22.2126E-3	161.167E-12	650.863E-3	12.6784E-3
4.21961E-3	163.380E-12	668.150E-3	-29.4404E-3	162.163E-12	642.715E-3	25.6356E-3
4.21461E-3	163.542E-12	652.514E-3	-15.6833E-3	161.887E-12	655.194E-3	13.3678E-3
4.20960E-3	163.703E-12	636.316E-3	1.35777E-3	160.432E-12	680.833E-3	1.29653E-3
4.20460E-3	163.137E-12	631.375E-3	-4.90870E-3	159.180E-12	689.464E-3	6.74684E-3
4.19960E-3	162.882E-12	627.819E-3	-19.4736E-3	159.878E-12	681.154E-3	13.2696E-3
4.19460E-3	163.633E-12	646.167E-3	-5.03459E-3	160.908E-12	667.378E-3	2.12658E-3
4.18959E-3	163.781E-12	659.601E-3	8.68424E-3	160.778E-12	653.193E-3	-6.80645E-3
4.18459E-3	164.500E-12	663.627E-3	-7.25189E-3	161.715E-12	650.730E-3	-2.70369E-3
4.17959E-3	163.864E-12	679.629E-3	-23.5972E-3	161.942E-12	661.199E-3	-10.1833E-3
4.17459E-3	164.494E-12	696.885E-3	-14.0874E-3	162.152E-12	664.632E-3	-33.3295E-3
4.16958E-3	162.389E-12	697.026E-3	-24.8203E-3	161.484E-12	660.500E-3	-35.8286E-3
4.16458E-3	162.050E-12	668.857E-3	-43.1355E-3	161.365E-12	655.392E-3	-11.1025E-3
4.15958E-3	161.846E-12	641.603E-3	-27.3765E-3	162.198E-12	668.435E-3	2.16914E-3
4.15458E-3	162.186E-12	649.007E-3	-18.4547E-3	160.765E-12	699.557E-3	-1.94304E-3
4.14957E-3	161.593E-12	662.843E-3	-37.1778E-3	160.905E-12	695.435E-3	-16.8196E-3
4.14457E-3	160.049E-12	659.247E-3	-36.7017E-3	159.917E-12	653.489E-3	-33.6484E-3
4.13957E-3	160.234E-12	650.560E-3	-29.7438E-3	160.151E-12	637.462E-3	-34.9478E-3
4.13457E-3	159.728E-12	645.141E-3	-47.7230E-3	159.492E-12	647.619E-3	-41.7683E-3
4.12956E-3	159.882E-12	645.545E-3	-42.3579E-3	159.051E-12	645.001E-3	-47.3224E-3
4.12456E-3	158.026E-12	634.172E-3	-19.9839E-3	158.553E-12	640.450E-3	-42.1185E-3
4.11956E-3	158.650E-12	629.635E-3	-22.1295E-3	158.577E-12	670.985E-3	-50.0473E-3
4.11456E-3	158.191E-12	644.348E-3	-27.9212E-3	160.192E-12	697.503E-3	-45.8872E-3
4.10955E-3	158.485E-12	637.257E-3	-9.39539E-3	159.665E-12	677.821E-3	-8.14328E-3
4.10455E-3	158.162E-12	632.732E-3	-8.93178E-3	159.817E-12	657.751E-3	15.5473E-3
4.09955E-3	157.564E-12	665.028E-3	-14.7591E-3	160.165E-12	664.728E-3	-7.44193E-3
4.09455E-3	157.876E-12	672.533E-3	-18.6089E-3	160.478E-12	691.640E-3	-36.5378E-3
4.08954E-3	157.602E-12	661.671E-3	-57.0806E-3	160.345E-12	715.046E-3	-33.4044E-3
4.08454E-3	158.284E-12	671.025E-3	-73.0635E-3	160.343E-12	715.507E-3	-12.3204E-3
4.07954E-3	158.026E-12	659.582E-3	-39.5526E-3	160.824E-12	706.313E-3	5.80859E-3
4.07454E-3	158.483E-12	634.096E-3	-23.3012E-3	160.943E-12	687.969E-3	-5.51535E-3
4.06953E-3	157.012E-12	623.691E-3	-23.8079E-3	160.125E-12	669.068E-3	-38.0183E-3
4.06453E-3	157.174E-12	625.304E-3	-4.57883E-3	159.425E-12	673.003E-3	-40.1812E-3
4.05953E-3	157.240E-12	623.419E-3	-714.198E-6	158.186E-12	692.651E-3	-23.8237E-3
4.05453E-3	155.842E-12	620.960E-3	1.95226E-3	157.747E-12	702.449E-3	-20.5363E-3
4.04952E-3	155.975E-12	646.483E-3	24.1697E-3	157.920E-12	682.573E-3	-17.3228E-3
4.04452E-3	155.378E-12	679.575E-3	23.7686E-3	156.424E-12	659.315E-3	-10.2742E-3
4.03952E-3	156.333E-12	677.938E-3	9.45433E-3	155.730E-12	658.574E-3	-21.2603E-3
4.03452E-3	155.319E-12	664.063E-3	1.41786E-3	154.302E-12	637.816E-3	-44.4602E-3
4.02951E-3	155.486E-12	671.651E-3	-20.0029E-3	154.702E-12	612.990E-3	-34.4578E-3
4.02451E-3	154.996E-12	679.106E-3	-33.3886E-3	153.627E-12	629.136E-3	-18.3117E-3
4.01951E-3	155.099E-12	670.216E-3	-26.3573E-3	152.928E-12	650.248E-3	-12.4982E-3
4.01451E-3	156.439E-12	661.766E-3	-12.1221E-3	152.129E-12	651.524E-3	7.54667E-3
4.00950E-3	155.294E-12	659.707E-3	12.6071E-3	153.017E-12	650.826E-3	8.68802E-3
4.00450E-3	154.796E-12	649.259E-3	31.7593E-3	153.317E-12	638.801E-3	-6.21852E-3
3.99950E-3	153.438E-12	641.517E-3	30.5158E-3	151.812E-12	629.966E-3	-25.3757E-3
3.99450E-3	154.654E-12	658.327E-3	-4.13938E-3	151.166E-12	640.147E-3	-50.8945E-3
3.98949E-3	153.950E-12	686.584E-3	-40.1889E-3	151.503E-12	642.439E-3	-58.9866E-3
3.98449E-3	153.815E-12	694.820E-3	-32.8295E-3	152.410E-12	652.994E-3	-43.9117E-3
3.97949E-3	152.524E-12	654.887E-3	-18.0956E-3	151.208E-12	674.133E-3	-39.3087E-3
3.97449E-3	152.589E-12	615.014E-3	-14.7570E-3	150.979E-12	672.656E-3	-40.1413E-3
3.96948E-3	153.577E-12	628.657E-3	-1.00499E-3	151.658E-12	654.180E-3	-22.0559E-3
3.96448E-3	152.704E-12	671.419E-3	-6.38231E-3	152.078E-12	650.772E-3	-6.15831E-3
3.95948E-3	151.180E-12	698.529E-3	-35.0586E-3	152.180E-12	649.201E-3	-5.64051E-3
3.95448E-3	151.190E-12	696.830E-3	-22.3269E-3	151.072E-12	632.417E-3	-20.5133E-3
3.94947E-3	151.116E-12	678.220E-3	19.5684E-3	151.737E-12	629.984E-3	-25.6777E-3
3.94447E-3	150.854E-12	660.483E-3	25.1077E-3	150.853E-12	622.765E-3	-13.9534E-3
3.93947E-3	150.124E-12	653.763E-3	-5.44979E-3	152.314E-12	611.215E-3	-15.2884E-3
3.93447E-3	150.061E-12	649.785E-3	-19.8531E-3	152.064E-12	633.172E-3	-10.3435E-3
3.92946E-3	150.192E-12	629.172E-3	7.05060E-3	152.229E-12	659.685E-3	5.62615E-3
3.92446E-3	150.118E-12	626.821E-3	35.7599E-3	150.586E-12	670.424E-3	2.45477E-3
3.91946E-3	149.459E-12	662.419E-3	19.9549E-3	150.629E-12	681.059E-3	-8.73257E-3
3.91446E-3	149.296E-12	672.640E-3	-3.33813E-3	151.152E-12	677.530E-3	-25.4463E-3
3.90945E-3	149.325E-12	650.386E-3	-4.63468E-3	150.416E-12	658.286E-3	-28.4015E-3
3.90445E-3	149.017E-12	641.820E-3	-16.8794E-3	149.478E-12	651.357E-3	-5.14683E-3
3.89945E-3	148.760E-12	655.903E-3	-25.4620E-3	149.092E-12	656.707E-3	-10.4871E-3
3.89445E-3	148.682E-12	667.131E-3	-29.1561E-3	150.868E-12	672.154E-3	-38.8911E-3
3.88944E-3	149.149E-12	675.727E-3	-34.7641E-3	150.632E-12	692.879E-3	-54.8442E-3
3.88444E-3	148.712E-12	670.589E-3	-24.5226E-3	150.203E-12	707.568E-3	-68.4513E-3
3.87944E-3	148.577E-12	653.983E-3	-8.60162E-3	149.733E-12	706.340E-3	-57.3732E-3
3.87444E-3	148.538E-12	657.987E-3	-750.366E-6	149.075E-12	687.040E-3	-26.1312E-3
3.86943E-3	149.040E-12	671.201E-3	8.89294E-3	149.887E-12	667.640E-3	-16.4567E-3
3.86443E-3	148.767E-12	675.408E-3	13.8763E-3	149.983E-12	660.266E-3	-14.2472E-3
3.85943E-3	148.556E-12	676.011E-3	10.3936E-3	150.537E-12	667.709E-3	-13.4627E-3
3.85443E-3	147.934E-12	675.059E-3	5.71936E-3	148.808E-12	676.609E-3	-26.2360E-3
3.84942E-3	147.940E-12	664.572E-3	5.21296E-3	149.377E-12	671.042E-3	-32.3134E-3
3.84442E-3	147.847E-12	660.405E-3	-4.24089E-3	149.882E-12	657.329E-3	-20.0899E-3
3.83942E-3	147.447E-12	662.995E-3	-25.8378E-3	149.073E-12	667.699E-3	-17.7396E-3
3.83442E-3	146.515E-12	662.337E-3	-21.7833E-3	148.778E-12	696.655E-3	-13.9473E-3
3.82941E-3	145.700E-12	667.490E-3	-15.7556E-3	147.601E-12	692.302E-3	11.9650E-3
3.82441E-3	145.867E-12	671.932E-3	-23.6966E-3	147.863E-12	678.896E-3	16.1081E-3
3.81941E-3	145.974E-12	660.709E-3	-18.8457E-3	146.800E-12	687.643E-3	-3.93591E-3
3.81441E-3	145.261E-12	660.011E-3	-8.70929E-3	147.000E-12	681.950E-3	-19.1654E-3
3.80940E-3	144.138E-12	672.835E-3	-5.93092E-3	145.603E-12	669.914E-3	-40.4035E-3
3.80440E-3	142.798E-12	662.425E-3	-1.34133E-3	145.124E-12	676.640E-3	-53.5493E-3
3.79940E-3	143.627E-12	643.156E-3	-4.99211E-3	144.366E-12	678.921E-3	-26.4721E-3
3.79440E-3	144.363E-12	649.034E-3	-24.9269E-3	144.132E-12	669.640E-3	5.01705E-3
3.78939E-3	143.764E-12	653.334E-3	-44.4310E-3	144.082E-12	661.328E-3	-538.626E-6
3.78439E-3	142.573E-12	632.324E-3	-61.8084E-3	143.043E-12	652.357E-3	-31.3673E-3
3.77939E-3	143.239E-12	626.100E-3	-69.3449E-3	142.794E-12	654.197E-3	-36.6479E-3
3.77439E-3	144.780E-12	644.255E-3	-54.9033E-3	142.664E-12	663.906E-3	-21.3124E-3
3.76938E-3	144.517E-12	662.599E-3	-35.9569E-3	143.560E-12	653.956E-3	-25.6317E-3
3.76438E-3	143.938E-12	682.288E-3	-29.0159E-3	143.202E-12	638.733E-3	-18.8471E-3
3.75938E-3	143.967E-12	696.249E-3	-31.4637E-3	143.025E-12	653.732E-3	-10.6916E-3
3.75438E-3	144.231E-12	673.497E-3	-30.3551E-3	143.027E-12	667.795E-3	-20.5703E-3
3.74937E-3	144.792E-12	635.807E-3	-9.67738E-3	143.901E-12	654.899E-3	-19.0983E-3
3.74437E-3	143.401E-12	633.115E-3	12.7214E-3	144.329E-12	644.407E-3	-8.17170E-3
3.73937E-3	142.252E-12	646.664E-3	11.0513E-3	142.269E-12	640.455E-3	-7.37460E-3
3.73437E-3	141.711E-12	641.082E-3	-12.5883E-3	142.474E-12	636.521E-3	-27.5079E-3
3.72936E-3	141.957E-12	640.314E-3	-20.2552E-3	142.649E-12	633.212E-3	-38.8600E-3
3.72436E-3	141.417E-12	657.616E-3	1.18735E-3	143.067E-12	628.360E-3	-25.5220E-3
3.71936E-3	140.459E-12	666.540E-3	14.4664E-3	141.211E-12	638.349E-3	-28.7249E-3
3.71436E-3	139.469E-12	675.320E-3	-5.78573E-3	141.008E-12	661.287E-3	-37.5978E-3
3.70935E-3	139.391E-12	683.363E-3	-27.3938E-3	141.226E-12	664.938E-3	-31.5129E-3
3.70435E-3	139.968E-12	673.371E-3	-29.3571E-3	142.069E-12	661.670E-3	-36.8420E-3
3.69935E-3	140.065E-12	661.258E-3	-29.5902E-3	141.755E-12	675.053E-3	-21.3665E-3
3.69435E-3	139.363E-12	664.494E-3	-15.6885E-3	140.785E-12	688.641E-3	14.5498E-3
3.68934E-3	139.278E-12	659.722E-3	2.19257E-3	140.865E-12	688.525E-3	13.9574E-3
3.68434E-3	140.466E-12	645.841E-3	5.42718E-3	141.894E-12	676.811E-3	-15.7060E-3
3.67934E-3	140.450E-12	631.700E-3	-4.94843E-3	142.783E-12	673.150E-3	-43.6022E-3
3.67434E-3	140.281E-12	632.842E-3	-27.6465E-3	141.786E-12	677.527E-3	-44.1635E-3
3.66933E-3	140.116E-12	650.780E-3	-38.9858E-3	140.538E-12	662.533E-3	-16.0832E-3
3.66433E-3	141.314E-12	655.448E-3	-18.7738E-3	142.373E-12	643.804E-3	-11.6061E-3
3.65933E-3	140.899E-12	666.655E-3	-239.475E-6	141.909E-12	660.434E-3	-36.2843E-3
3.65433E-3	140.127E-12	671.690E-3	-7.15609E-3	141.288E-12	682.755E-3	-33.8838E-3
3.64932E-3	139.258E-12	657.499E-3	-9.13968E-3	139.844E-12	675.350E-3	-8.79756E-3
3.64432E-3	139.166E-12	663.351E-3	-12.5672E-3	141.048E-12	657.847E-3	444.301E-6
3.63932E-3	139.303E-12	695.444E-3	-19.3038E-3	140.670E-12	643.801E-3	-9.91222E-3
3.63432E-3	138.597E-12	713.247E-3	-3.67917E-3	140.270E-12	643.920E-3	-8.95834E-3
3.62931E-3	138.124E-12	694.691E-3	-2.44693E-3	139.177E-12	663.328E-3	-2.90147E-3
3.62431E-3	136.636E-12	661.579E-3	-13.0763E-3	138.752E-12	675.559E-3	-13.8408E-3
3.61931E-3	137.354E-12	645.232E-3	-14.7656E-3	138.310E-12	657.580E-3	-15.1221E-3
3.61431E-3	137.063E-12	645.170E-3	-17.5820E-3	137.001E-12	646.180E-3	1.71406E-3
3.60930E-3	135.775E-12	653.859E-3	-12.7550E-3	136.489E-12	656.618E-3	-833.296E-6
3.60430E-3	134.864E-12	663.021E-3	-18.5624E-3	136.245E-12	667.529E-3	-27.0273E-3
3.59930E-3	136.198E-12	652.660E-3	-27.6160E-3	136.355E-12	669.229E-3	-34.8514E-3
3.59430E-3	137.236E-12	642.283E-3	-21.3588E-3	134.867E-12	664.896E-3	-25.5939E-3
3.58929E-3	137.026E-12	645.486E-3	-12.7674E-3	134.532E-12	667.027E-3	-6.17881E-3
3.58429E-3	135.439E-12	661.455E-3	-5.95544E-3	133.726E-12	670.412E-3	14.4414E-3
3.57929E-3	135.900E-12	672.164E-3	78.5431E-6	133.617E-12	673.578E-3	9.86911E-3
3.57429E-3	136.499E-12	666.682E-3	10.6075E-3	133.751E-12	675.977E-3	3.77125E-3
3.56928E-3	136.837E-12	659.992E-3	11.8775E-3	133.789E-12	661.725E-3	6.34605E-3
3.56428E-3	136.312E-12	667.947E-3	-5.73915E-3	133.391E-12	629.726E-3	-3.55494E-3
3.55928E-3	136.143E-12	675.066E-3	-15.5672E-3	133.773E-12	618.090E-3	-25.2407E-3
3.55428E-3	136.815E-12	648.203E-3	-15.3556E-3	134.328E-12	632.837E-3	-47.2149E-3
3.54927E-3	136.719E-12	636.231E-3	-19.6604E-3	134.370E-12	647.005E-3	-52.3134E-3
3.54427E-3	135.074E-12	659.691E-3	-10.8789E-3	133.762E-12	658.081E-3	-26.7993E-3
3.53927E-3	133.595E-12	670.705E-3	6.64150E-3	133.364E-12	654.476E-3	12.5485E-3
3.53427E-3	133.435E-12	661.332E-3	11.1959E-3	134.149E-12	652.586E-3	30.9486E-3
3.52926E-3	133.643E-12	659.187E-3	4.98261E-3	133.934E-12	662.204E-3	8.68268E-3
3.52426E-3	133.609E-12	665.244E-3	-2.13745E-3	133.483E-12	663.622E-3	-25.0556E-3
3.51926E-3	132.452E-12	667.215E-3	-13.5737E-3	133.124E-12	668.009E-3	-27.6284E-3
3.51426E-3	132.474E-12	665.831E-3	-25.6184E-3	132.861E-12	667.964E-3	-10.9580E-3
3.50925E-3	132.860E-12	658.124E-3	-9.74408E-3	132.747E-12	658.176E-3	-2.90411E-3
3.50425E-3	133.511E-12	661.082E-3	3.60045E-3	132.337E-12	665.781E-3	-23.5913E-3
3.49925E-3	132.287E-12	671.973E-3	-2.82320E-3	132.493E-12	665.012E-3	-37.4176E-3
3.49425E-3	130.552E-12	662.806E-3	-15.6509E-3	132.377E-12	649.004E-3	-12.0282E-3
3.48924E-3	131.500E-12	654.189E-3	-23.8495E-3	132.447E-12	659.100E-3	3.99220E-3
3.48424E-3	132.088E-12	676.057E-3	2.81693E-3	132.646E-12	665.017E-3	-9.34317E-3
3.47924E-3	132.834E-12	687.108E-3	38.2953E-3	132.498E-12	643.270E-3	-23.1425E-3
3.47424E-3	129.963E-12	677.553E-3	26.0837E-3	131.173E-12	635.442E-3	-15.1152E-3
3.46923E-3	129.662E-12	675.237E-3	-10.7346E-3	131.135E-12	650.977E-3	312.971E-6
3.46423E-3	129.660E-12	677.513E-3	-9.01205E-3	131.698E-12	642.322E-3	-9.78953E-3
3.45923E-3	130.188E-12	686.612E-3	3.55908E-3	131.587E-12	620.256E-3	-24.8244E-3
3.45423E-3	129.259E-12	683.132E-3	6.87422E-3	130.419E-12	633.586E-3	-20.5652E-3
3.44922E-3	128.449E-12	646.091E-3	6.37205E-3	130.480E-12	651.711E-3	-8.11713E-3
3.44422E-3	128.619E-12	606.608E-3	-4.56209E-3	131.034E-12	655.107E-3	5.60701E-3
3.43922E-3	128.938E-12	608.461E-3	-3.47978E-3	130.907E-12	664.695E-3	12.0153E-3
3.43422E-3	129.560E-12	651.047E-3	-1.32498E-3	130.228E-12	675.669E-3	-5.74488E-3
3.42921E-3	127.941E-12	678.973E-3	-19.5330E-3	129.479E-12	678.024E-3	-26.1098E-3
3.42421E-3	128.002E-12	671.278E-3	-33.3151E-3	130.144E-12	671.270E-3	-25.4710E-3
3.41921E-3	128.322E-12	665.608E-3	-20.0712E-3	130.060E-12	663.559E-3	-24.1705E-3
3.41421E-3	129.175E-12	671.673E-3	-1.48663E-3	128.783E-12	657.287E-3	-32.2843E-3
3.40920E-3	128.717E-12	678.170E-3	-9.10702E-3	128.699E-12	658.175E-3	-26.6484E-3
3.40420E-3	127.525E-12	676.167E-3	-16.3432E-3	127.648E-12	661.701E-3	-15.3222E-3
3.39920E-3	127.847E-12	667.309E-3	-22.3325E-3	127.166E-12	655.128E-3	-13.2061E-3
3.39420E-3	127.427E-12	665.986E-3	-40.0121E-3	126.368E-12	651.125E-3	-5.77992E-3
3.38919E-3	127.940E-12	678.219E-3	-37.9201E-3	126.552E-12	656.096E-3	-4.44558E-3
3.38419E-3	126.232E-12	684.077E-3	-36.5606E-3	126.205E-12	656.662E-3	-12.9415E-3
3.37919E-3	126.451E-12	679.483E-3	-45.0927E-3	125.433E-12	657.687E-3	-20.9333E-3
3.37419E-3	125.917E-12	664.510E-3	-26.9162E-3	124.451E-12	665.964E-3	-25.7059E-3
3.36918E-3	126.176E-12	646.418E-3	-3.22215E-3	124.872E-12	662.001E-3	-20.0432E-3
3.36418E-3	125.157E-12	655.607E-3	-10.8030E-3	124.875E-12	653.054E-3	-5.04373E-3
3.35918E-3	124.809E-12	672.003E-3	-20.4055E-3	124.397E-12	645.784E-3	5.07041E-3
3.35418E-3	125.315E-12	676.391E-3	-10.6518E-3	124.267E-12	629.727E-3	-3.21412E-3
3.34917E-3	124.996E-12	675.500E-3	-8.18902E-3	124.530E-12	625.363E-3	-23.7372E-3
3.34417E-3	125.180E-12	678.956E-3	-16.2534E-3	124.953E-12	652.941E-3	-24.4373E-3
3.33917E-3	124.624E-12	677.433E-3	-21.9497E-3	124.665E-12	676.633E-3	1.37165E-3
3.33417E-3	125.262E-12	652.092E-3	-31.2453E-3	124.204E-12	660.453E-3	17.4656E-3
3.32916E-3	125.104E-12	647.054E-3	-33.7749E-3	124.134E-12	644.665E-3	-1.32286E-3
3.32416E-3	124.577E-12	655.478E-3	-17.6884E-3	124.385E-12	658.584E-3	-28.9534E-3
3.31916E-3	124.215E-12	640.013E-3	-24.0529E-3	124.567E-12	676.134E-3	-25.2628E-3
3.31416E-3	124.103E-12	641.562E-3	-34.0401E-3	123.770E-12	682.296E-3	-15.4959E-3
3.30915E-3	124.647E-12	661.810E-3	-9.02489E-3	123.440E-12	691.698E-3	-19.3648E-3
3.30415E-3	123.500E-12	684.283E-3	-12.4740E-3	123.086E-12	692.576E-3	-12.3382E-3
3.29915E-3	122.693E-12	705.370E-3	-42.5150E-3	123.556E-12	674.238E-3	-888.402E-6
3.29415E-3	121.772E-12	694.516E-3	-34.4566E-3	123.694E-12	668.832E-3	4.55827E-3
3.28914E-3	121.523E-12	663.219E-3	-5.47084E-3	123.327E-12	675.528E-3	11.6387E-3
3.28414E-3	121.917E-12	656.577E-3	8.22869E-3	122.895E-12	675.455E-3	4.94747E-3
3.27914E-3	121.256E-12	662.328E-3	3.89471E-3	122.840E-12	672.810E-3	-15.9943E-3
3.27414E-3	120.725E-12	653.241E-3	-5.72511E-3	123.075E-12	673.208E-3	-18.4116E-3
3.26913E-3	120.670E-12	662.789E-3	-8.28673E-3	122.359E-12	687.327E-3	-4.52271E-3
3.26413E-3	120.659E-12	680.464E-3	-20.4820E-3	122.052E-12	697.073E-3	-9.90267E-3
3.25913E-3	120.644E-12	670.688E-3	-30.9820E-3	121.838E-12	676.136E-3	-26.3030E-3
3.25413E-3	120.562E-12	665.609E-3	-20.3265E-3	121.934E-12	652.390E-3	-29.3965E-3
3.24912E-3	120.463E-12	668.631E-3	-2.44009E-3	121.452E-12	665.609E-3	-25.6605E-3
3.24412E-3	120.405E-12	672.342E-3	4.67171E-3	121.429E-12	691.798E-3	-23.1589E-3
3.23912E-3	120.524E-12	691.241E-3	-7.51834E-3	122.033E-12	683.583E-3	-11.5614E-3
3.23412E-3	120.803E-12	700.912E-3	-25.6715E-3	122.303E-12	673.326E-3	13.1482E-3
3.22911E-3	120.050E-12	684.448E-3	-31.7533E-3	122.322E-12	684.065E-3	21.0414E-3
3.22411E-3	120.000E-12	674.802E-3	-23.5768E-3	120.931E-12	684.416E-3	13.6850E-3
3.21911E-3	120.201E-12	681.775E-3	-13.6715E-3	121.055E-12	677.078E-3	-1.46837E-3
3.21411E-3	119.447E-12	686.045E-3	-6.24225E-3	121.386E-12	681.116E-3	-16.7570E-3
3.20910E-3	118.627E-12	685.482E-3	7.37589E-3	121.141E-12	678.444E-3	-6.53359E-3
3.20410E-3	117.927E-12	692.145E-3	20.7333E-3	119.947E-12	659.276E-3	-9.83434E-3
3.19910E-3	117.891E-12	683.555E-3	12.0953E-3	119.688E-12	643.793E-3	-31.9200E-3
3.19410E-3	117.424E-12	660.522E-3	-7.62620E-3	119.932E-12	638.793E-3	-33.3814E-3
3.18909E-3	116.821E-12	660.635E-3	-18.3661E-3	118.845E-12	649.653E-3	-20.3928E-3
3.18409E-3	116.157E-12	663.775E-3	-19.1057E-3	117.969E-12	657.125E-3	-2.74766E-3
3.17909E-3	116.467E-12	658.966E-3	-24.3604E-3	116.694E-12	650.796E-3	13.2173E-3
3.17409E-3	116.386E-12	662.439E-3	-34.6229E-3	117.274E-12	649.454E-3	6.56315E-3
3.16908E-3	116.107E-12	665.700E-3	-28.3232E-3	116.920E-12	652.144E-3	-28.0094E-3
3.16408E-3	116.493E-12	660.016E-3	-9.79974E-3	115.980E-12	663.971E-3	-49.7248E-3
3.15908E-3	116.638E-12	654.017E-3	-265.999E-6	114.459E-12	677.822E-3	-29.9732E-3
3.15408E-3	116.819E-12	653.001E-3	1.53134E-3	114.626E-12	664.683E-3	-8.23294E-3
3.14907E-3	116.634E-12	657.299E-3	6.60389E-3	114.742E-12	644.150E-3	-16.0190E-3
3.14407E-3	116.329E-12	665.717E-3	4.35122E-3	114.907E-12	653.561E-3	-26.0343E-3
3.13907E-3	116.770E-12	663.935E-3	-4.87753E-3	114.384E-12	673.269E-3	-20.2343E-3
3.13407E-3	116.473E-12	658.605E-3	-11.3428E-3	114.462E-12	672.747E-3	-17.1049E-3
3.12906E-3	116.149E-12	663.567E-3	-10.6873E-3	114.627E-12	660.187E-3	-11.2519E-3
3.12406E-3	115.630E-12	679.300E-3	3.97737E-3	115.006E-12	661.986E-3	-11.1511E-3
3.11906E-3	115.246E-12	689.994E-3	13.1798E-3	114.580E-12	680.379E-3	-28.0429E-3
3.11406E-3	114.604E-12	684.620E-3	8.07258E-3	115.261E-12	705.917E-3	-32.7814E-3
3.10905E-3	114.536E-12	669.419E-3	1.58787E-3	114.991E-12	712.641E-3	-15.1280E-3
3.10405E-3	114.023E-12	668.663E-3	-7.03714E-3	115.162E-12	677.540E-3	-11.5787E-3
3.09905E-3	113.425E-12	681.988E-3	-10.1156E-3	114.772E-12	644.963E-3	-25.3977E-3
3.09405E-3	113.244E-12	680.131E-3	-6.21832E-3	115.039E-12	653.271E-3	-16.9367E-3
3.08904E-3	113.088E-12	669.357E-3	-8.48097E-3	114.013E-12	676.910E-3	2.54316E-3
3.08404E-3	112.980E-12	669.713E-3	-6.98048E-3	113.568E-12	677.900E-3	4.38346E-3
3.07904E-3	112.949E-12	671.322E-3	-2.37235E-3	113.313E-12	670.335E-3	-3.63883E-3
3.07404E-3	112.757E-12	656.935E-3	-4.35272E-3	114.124E-12	662.760E-3	-12.4459E-3
3.06903E-3	112.701E-12	651.758E-3	-12.1048E-3	113.562E-12	652.872E-3	-12.4891E-3
3.06403E-3	112.744E-12	673.396E-3	-11.4446E-3	112.813E-12	661.446E-3	-5.66931E-3
3.05903E-3	112.468E-12	696.749E-3	-8.47005E-3	112.670E-12	666.616E-3	-10.1371E-3
3.05403E-3	112.329E-12	696.016E-3	-17.7974E-3	113.332E-12	657.971E-3	-20.2412E-3
3.04902E-3	112.501E-12	676.957E-3	-18.3428E-3	113.636E-12	663.332E-3	-32.2224E-3
3.04402E-3	111.677E-12	667.093E-3	-14.6679E-3	112.510E-12	677.206E-3	-35.7500E-3
3.03902E-3	111.732E-12	671.665E-3	-12.8151E-3	112.618E-12	688.870E-3	-23.3929E-3
3.03402E-3	111.459E-12	671.990E-3	-8.08213E-3	112.192E-12	697.627E-3	-10.5430E-3
3.02901E-3	111.142E-12	663.084E-3	-9.00313E-3	113.437E-12	692.513E-3	-2.31815E-3
3.02401E-3	110.135E-12	676.988E-3	-17.9135E-3	113.155E-12	695.137E-3	4.77373E-3
3.01901E-3	109.556E-12	713.677E-3	-17.4590E-3	112.632E-12	709.832E-3	5.22452E-3
3.01401E-3	109.932E-12	723.999E-3	-6.41730E-3	112.331E-12	718.218E-3	-12.0538E-3
3.00900E-3	109.172E-12	713.126E-3	-4.03948E-3	112.337E-12	706.167E-3	-18.5163E-3
3.00400E-3	108.341E-12	697.709E-3	-939.418E-6	111.985E-12	681.883E-3	-11.1427E-3
2.99900E-3	107.704E-12	669.845E-3	-770.569E-6	110.705E-12	675.643E-3	-16.2082E-3
2.99400E-3	108.271E-12	654.523E-3	-15.2917E-3	110.271E-12	675.173E-3	-8.88866E-3
2.98899E-3	108.276E-12	667.594E-3	-18.6056E-3	110.012E-12	672.457E-3	734.453E-6
2.98399E-3	107.831E-12	677.075E-3	-13.1769E-3	109.766E-12	681.003E-3	-7.27099E-3
2.97899E-3	107.275E-12	667.137E-3	-23.7057E-3	108.712E-12	685.253E-3	-9.80533E-3
2.97399E-3	107.748E-12	667.326E-3	-29.0419E-3	108.050E-12	670.821E-3	-11.8619E-3
2.96898E-3	107.521E-12	688.978E-3	-21.2148E-3	108.291E-12	663.262E-3	-17.5860E-3
2.96398E-3	106.962E-12	694.791E-3	-17.5653E-3	107.748E-12	665.860E-3	-20.7775E-3
2.95898E-3	106.959E-12	681.810E-3	-8.72089E-3	107.198E-12	663.722E-3	-15.4295E-3
2.95398E-3	107.217E-12	675.680E-3	-3.84722E-3	106.150E-12	657.834E-3	-10.4495E-3
2.94897E-3	107.216E-12	667.976E-3	-22.6589E-3	106.083E-12	662.388E-3	-19.6117E-3
2.94397E-3	106.244E-12	659.886E-3	-28.7784E-3	105.704E-12	679.233E-3	-20.2849E-3
2.93897E-3	105.741E-12	664.300E-3	-2.86364E-3	106.124E-12	685.067E-3	-11.7091E-3
2.93397E-3	105.662E-12	678.905E-3	2.01654E-3	105.904E-12	679.567E-3	951.729E-6
2.92896E-3	105.903E-12	686.923E-3	-21.5020E-3	105.832E-12	680.523E-3	6.82608E-3
2.92396E-3	105.664E-12	676.157E-3	-21.8111E-3	105.844E-12	674.799E-3	-8.31346E-3
2.91896E-3	104.780E-12	669.383E-3	-169.974E-6	106.194E-12	658.220E-3	-23.3540E-3
2.91396E-3	105.009E-12	671.955E-3	5.63640E-3	106.793E-12	664.497E-3	-19.7184E-3
2.90895E-3	104.959E-12	668.568E-3	-4.32252E-3	105.606E-12	684.441E-3	-11.9005E-3
2.90395E-3	105.444E-12	672.878E-3	-12.7525E-3	104.652E-12	689.572E-3	-23.1231E-3
2.89895E-3	104.886E-12	684.644E-3	-11.5006E-3	104.600E-12	679.492E-3	-23.8540E-3
2.89395E-3	104.614E-12	697.774E-3	-20.1228E-3	105.152E-12	664.035E-3	-17.4369E-3
2.88894E-3	104.331E-12	697.750E-3	-34.3244E-3	104.046E-12	665.288E-3	-37.9818E-3
2.88394E-3	104.828E-12	678.077E-3	-34.9375E-3	103.695E-12	670.372E-3	-41.7658E-3
2.87894E-3	103.804E-12	668.744E-3	-32.5379E-3	103.711E-12	675.270E-3	-17.9000E-3
2.87394E-3	103.498E-12	669.192E-3	-15.5521E-3	103.725E-12	684.187E-3	-21.4076E-3
2.86893E-3	102.966E-12	665.938E-3	14.5400E-3	103.597E-12	678.721E-3	-35.2442E-3
2.86393E-3	103.070E-12	673.190E-3	26.8021E-3	103.215E-12	683.277E-3	-33.1016E-3
2.85893E-3	102.691E-12	694.170E-3	-1.50544E-3	103.177E-12	703.424E-3	-33.2368E-3
2.85393E-3	102.170E-12	701.203E-3	-51.6084E-3	103.048E-12	702.408E-3	-19.7330E-3
2.84892E-3	101.951E-12	683.418E-3	-74.4713E-3	103.032E-12	678.109E-3	2.01612E-3
2.84392E-3	101.520E-12	672.098E-3	-51.3551E-3	102.889E-12	662.106E-3	-5.08443E-3
2.83892E-3	101.663E-12	683.184E-3	-20.1577E-3	103.026E-12	670.617E-3	-23.2437E-3
2.83392E-3	101.539E-12	689.651E-3	-5.20869E-3	102.728E-12	689.341E-3	-23.3458E-3
2.82891E-3	101.363E-12	683.904E-3	-2.18180E-3	102.390E-12	698.064E-3	-8.55557E-3
2.82391E-3	100.720E-12	675.636E-3	-17.6124E-3	102.212E-12	684.504E-3	1.05454E-3
2.81891E-3	101.088E-12	672.260E-3	-36.9468E-3	102.203E-12	670.928E-3	-13.2997E-3
2.81391E-3	101.281E-12	682.327E-3	-46.9499E-3	101.497E-12	678.755E-3	-25.6460E-3
2.80890E-3	101.418E-12	702.726E-3	-39.2851E-3	101.216E-12	693.804E-3	-13.1545E-3
2.80390E-3	100.761E-12	711.164E-3	-17.7879E-3	102.115E-12	694.095E-3	-7.20186E-3
2.79890E-3	100.731E-12	699.016E-3	-17.7449E-3	101.939E-12	684.989E-3	-20.9646E-3
2.79390E-3	100.702E-12	691.325E-3	-26.2501E-3	101.348E-12	680.317E-3	-33.6291E-3
2.78889E-3	100.014E-12	697.959E-3	-9.33613E-3	100.466E-12	681.494E-3	-44.9054E-3
2.78389E-3	100.009E-12	699.771E-3	1.14231E-3	100.840E-12	689.093E-3	-46.1197E-3
2.77889E-3	99.4321E-12	694.040E-3	-13.2733E-3	100.665E-12	683.056E-3	-24.7160E-3
2.77389E-3	99.0899E-12	692.689E-3	-24.4547E-3	100.038E-12	670.060E-3	-5.65793E-3
2.76888E-3	98.5803E-12	683.653E-3	-31.6690E-3	98.8154E-12	671.591E-3	-10.1274E-3
2.76388E-3	98.6262E-12	681.231E-3	-49.9550E-3	98.8761E-12	676.437E-3	-23.7541E-3
2.75888E-3	98.0614E-12	705.274E-3	-52.2016E-3	98.7531E-12	681.868E-3	-19.1963E-3
2.75388E-3	97.6089E-12	712.336E-3	-28.9320E-3	98.4417E-12	687.131E-3	-7.62227E-3
2.74887E-3	97.5718E-12	703.582E-3	-19.5371E-3	98.1171E-12	676.727E-3	-13.1265E-3
2.74387E-3	97.7400E-12	706.591E-3	-18.4248E-3	97.2695E-12	674.812E-3	-14.0860E-3
2.73887E-3	97.4883E-12	691.920E-3	-10.5619E-3	96.9867E-12	692.451E-3	-3.10240E-3
2.73387E-3	97.5490E-12	674.715E-3	-7.79253E-3	97.2240E-12	698.764E-3	254.691E-6
2.72886E-3	97.3147E-12	688.301E-3	-5.77084E-3	96.6586E-12	694.155E-3	-9.97666E-3
2.72386E-3	98.0188E-12	691.497E-3	-1.78461E-3	96.2382E-12	679.768E-3	-37.0136E-3
2.71886E-3	97.5900E-12	679.186E-3	2.59690E-3	95.8749E-12	660.448E-3	-48.0921E-3
2.71386E-3	97.6079E-12	679.063E-3	10.3883E-3	95.5406E-12	665.983E-3	-22.6370E-3
2.70885E-3	97.1397E-12	691.115E-3	14.2273E-3	95.8689E-12	695.861E-3	-410.600E-6
2.70385E-3	96.7544E-12	710.399E-3	-2.23296E-3	96.4550E-12	706.399E-3	4.11025E-3
2.69885E-3	96.4225E-12	718.505E-3	-32.2899E-3	95.9258E-12	688.891E-3	8.35583E-3
2.69385E-3	95.8317E-12	714.918E-3	-47.1037E-3	95.9906E-12	680.167E-3	3.51792E-3
2.68884E-3	95.6874E-12	708.047E-3	-27.1995E-3	95.6129E-12	675.621E-3	-19.8536E-3
2.68384E-3	95.3287E-12	699.878E-3	290.937E-6	95.3383E-12	672.862E-3	-25.1779E-3
2.67884E-3	94.7564E-12	691.997E-3	47.7466E-6	95.1417E-12	688.649E-3	-8.98286E-3
2.67384E-3	94.0735E-12	690.214E-3	-15.5349E-3	94.9062E-12	700.144E-3	-2.30117E-3
2.66883E-3	93.7492E-12	693.595E-3	-16.2128E-3	95.1784E-12	683.575E-3	-6.22514E-3
2.66383E-3	94.1618E-12	682.203E-3	-3.85268E-3	94.4305E-12	670.782E-3	-15.3354E-3
2.65883E-3	93.8869E-12	668.604E-3	-1.44271E-3	93.9142E-12	680.040E-3	-23.9280E-3
2.65383E-3	93.8629E-12	684.255E-3	-15.3192E-3	93.5884E-12	687.020E-3	-19.7614E-3
2.64882E-3	93.2726E-12	700.627E-3	-12.7030E-3	93.8292E-12	695.285E-3	-9.13086E-3
2.64382E-3	93.2662E-12	697.241E-3	10.0794E-3	93.0380E-12	699.825E-3	-14.8461E-3
2.63882E-3	93.1504E-12	699.671E-3	9.05280E-3	92.5970E-12	689.986E-3	-28.4299E-3
2.63382E-3	93.2262E-12	701.441E-3	205.296E-6	92.6278E-12	697.963E-3	-26.1136E-3
2.62881E-3	93.2425E-12	687.360E-3	-2.24924E-3	93.2228E-12	711.892E-3	-7.58060E-3
2.62381E-3	93.1403E-12	687.747E-3	-14.0678E-3	93.1188E-12	699.722E-3	4.50600E-3
2.61881E-3	92.9640E-12	705.731E-3	-10.7280E-3	92.5418E-12	688.955E-3	-8.00016E-3
2.61381E-3	92.3515E-12	699.932E-3	2.04636E-3	92.0530E-12	689.575E-3	-25.0340E-3
2.60880E-3	92.9809E-12	690.155E-3	-6.06411E-3	92.7248E-12	693.710E-3	-18.6842E-3
2.60380E-3	91.9909E-12	703.267E-3	-24.7992E-3	92.6144E-12	708.291E-3	174.595E-6
2.59880E-3	91.7077E-12	710.068E-3	-33.9367E-3	92.1100E-12	716.601E-3	-1.25774E-3
2.59380E-3	91.5289E-12	695.657E-3	-33.2454E-3	91.6998E-12	688.447E-3	-27.4792E-3
2.58879E-3	91.3640E-12	682.404E-3	-30.2197E-3	92.3350E-12	662.732E-3	-38.6614E-3
2.58379E-3	91.0634E-12	691.168E-3	-18.4824E-3	92.1447E-12	680.495E-3	-22.9071E-3
2.57879E-3	90.5826E-12	702.816E-3	-8.96010E-3	91.0694E-12	701.235E-3	887.887E-6
2.57379E-3	91.2997E-12	694.881E-3	-15.0272E-3	90.0641E-12	695.311E-3	24.8232E-3
2.56878E-3	91.0152E-12	688.773E-3	-11.6336E-3	89.6720E-12	680.045E-3	30.0902E-3
2.56378E-3	90.1212E-12	701.139E-3	-7.69225E-3	90.0300E-12	667.869E-3	11.8426E-3
2.55878E-3	89.4945E-12	718.602E-3	-10.1932E-3	88.9865E-12	671.451E-3	-4.59546E-3
2.55378E-3	90.2408E-12	726.191E-3	2.76317E-3	88.7918E-12	682.019E-3	-15.2467E-3
2.54877E-3	90.4090E-12	720.795E-3	401.385E-6	88.1210E-12	680.612E-3	-28.4752E-3
2.54377E-3	89.7093E-12	711.237E-3	-19.9099E-3	88.2198E-12	685.591E-3	-23.3142E-3
2.53877E-3	88.9596E-12	719.254E-3	-23.8988E-3	87.5168E-12	699.992E-3	-2.12989E-3
2.53377E-3	88.8475E-12	738.366E-3	-24.6735E-3	87.0287E-12	720.512E-3	113.115E-6
2.52876E-3	89.2349E-12	745.168E-3	-16.3135E-3	87.3628E-12	738.810E-3	-8.44912E-3
2.52376E-3	88.5267E-12	737.964E-3	1.47055E-3	87.1967E-12	732.744E-3	-12.0682E-3
2.51876E-3	87.5824E-12	718.140E-3	-6.99573E-3	87.0242E-12	708.533E-3	-19.6746E-3
2.51376E-3	87.3994E-12	693.011E-3	-21.8292E-3	86.8085E-12	697.069E-3	-24.2356E-3
2.50875E-3	87.7948E-12	673.586E-3	-10.1469E-3	86.9943E-12	719.174E-3	-22.5894E-3
2.50375E-3	87.7073E-12	675.345E-3	4.71025E-3	86.8231E-12	751.633E-3	-15.7430E-3
2.49875E-3	86.7279E-12	695.770E-3	-7.85747E-3	86.7304E-12	752.568E-3	-4.72498E-3
2.49375E-3	86.3756E-12	707.731E-3	-31.2268E-3	86.6736E-12	729.450E-3	-2.22923E-3
2.48874E-3	86.2613E-12	711.730E-3	-30.7689E-3	86.5057E-12	713.621E-3	-12.5141E-3
2.48374E-3	86.9846E-12	710.561E-3	-18.7349E-3	86.6547E-12	717.786E-3	-30.0198E-3
2.47874E-3	86.4925E-12	707.710E-3	-15.7280E-3	86.0324E-12	735.066E-3	-35.3568E-3
2.47374E-3	85.6840E-12	712.743E-3	-19.9851E-3	86.1003E-12	734.907E-3	-17.7993E-3
2.46873E-3	85.8104E-12	706.465E-3	-16.5514E-3	85.7583E-12	722.354E-3	1.38324E-3
2.46373E-3	86.5477E-12	691.675E-3	-1.66872E-3	85.6912E-12	729.776E-3	3.09877E-3
2.45873E-3	86.4027E-12	693.469E-3	5.09433E-3	85.5615E-12	733.217E-3	-16.9473E-3
2.45373E-3	84.9722E-12	720.686E-3	817.950E-6	85.4133E-12	723.725E-3	-28.6687E-3
2.44872E-3	84.2145E-12	748.884E-3	-3.48016E-3	84.7744E-12	727.562E-3	-16.0272E-3
2.44372E-3	84.3200E-12	739.506E-3	-9.27256E-3	84.3919E-12	735.369E-3	-8.06834E-3
2.43872E-3	84.5864E-12	719.735E-3	-8.40066E-3	84.7417E-12	723.338E-3	-13.0603E-3
2.43372E-3	83.4128E-12	727.917E-3	2.85098E-3	84.7739E-12	711.393E-3	-28.4353E-3
2.42871E-3	82.6858E-12	732.938E-3	9.72280E-3	84.1695E-12	720.527E-3	-43.2415E-3
2.42371E-3	82.6498E-12	715.431E-3	7.54323E-3	83.4093E-12	726.182E-3	-36.7131E-3
2.41871E-3	83.1266E-12	699.065E-3	-8.77249E-3	83.1859E-12	721.298E-3	-16.7580E-3
2.41371E-3	82.3598E-12	698.478E-3	-21.0484E-3	83.7437E-12	723.713E-3	-14.9544E-3
2.40870E-3	81.3534E-12	700.151E-3	-11.0279E-3	83.1419E-12	727.318E-3	-17.6983E-3
2.40370E-3	81.1882E-12	689.520E-3	-4.98662E-3	82.5564E-12	733.733E-3	-3.08820E-3
2.39870E-3	81.5146E-12	689.423E-3	-8.65381E-3	82.0955E-12	744.770E-3	-3.99554E-3
2.39370E-3	81.3886E-12	710.402E-3	-13.4433E-3	82.0268E-12	738.643E-3	-22.8511E-3
2.38869E-3	80.8635E-12	730.695E-3	-19.6783E-3	81.8334E-12	725.266E-3	-36.0244E-3
2.38369E-3	80.3424E-12	735.158E-3	-9.00390E-3	81.7122E-12	728.927E-3	-43.5738E-3
2.37869E-3	80.5864E-12	724.991E-3	6.14828E-3	81.3467E-12	742.263E-3	-26.0220E-3
2.37369E-3	80.6917E-12	718.320E-3	-790.606E-6	81.0973E-12	741.198E-3	-4.32375E-3
2.36868E-3	80.2356E-12	726.382E-3	-6.11251E-3	80.7549E-12	727.439E-3	-9.92017E-3
2.36368E-3	80.0219E-12	737.447E-3	-8.43838E-3	80.5248E-12	719.681E-3	-12.5094E-3
2.35868E-3	79.6975E-12	739.577E-3	-19.9305E-3	80.7055E-12	724.991E-3	-14.1823E-3
2.35368E-3	79.5263E-12	728.790E-3	-18.2516E-3	79.7169E-12	735.001E-3	-33.2026E-3
2.34867E-3	79.1013E-12	725.604E-3	-17.2342E-3	79.8438E-12	736.885E-3	-47.1025E-3
2.34367E-3	78.9720E-12	736.211E-3	-23.3682E-3	79.3275E-12	725.227E-3	-40.2888E-3
2.33867E-3	78.3846E-12	733.906E-3	-23.3686E-3	79.1640E-12	714.269E-3	-28.3570E-3
2.33367E-3	77.6823E-12	721.326E-3	-28.9345E-3	78.4100E-12	711.065E-3	-23.1693E-3
2.32866E-3	77.4583E-12	718.998E-3	-25.4063E-3	77.9259E-12	704.023E-3	-18.2653E-3
2.32366E-3	77.4230E-12	726.953E-3	-6.68706E-3	77.6607E-12	714.701E-3	-8.24771E-3
2.31866E-3	77.6403E-12	731.264E-3	3.49114E-3	77.8299E-12	733.728E-3	-4.93003E-3
2.31366E-3	76.9858E-12	727.942E-3	3.32715E-3	77.8529E-12	739.598E-3	-9.68162E-3
2.30865E-3	76.7657E-12	713.243E-3	4.43211E-3	76.8413E-12	735.564E-3	-16.2505E-3
2.30365E-3	77.1302E-12	699.562E-3	2.10626E-3	76.8302E-12	722.117E-3	-36.4688E-3
2.29865E-3	78.2139E-12	707.988E-3	-3.60571E-3	76.1404E-12	711.165E-3	-52.2744E-3
2.29365E-3	77.6154E-12	730.290E-3	-5.77239E-3	76.3057E-12	711.646E-3	-33.7551E-3
2.28864E-3	76.6252E-12	739.175E-3	-11.0053E-3	76.1198E-12	717.619E-3	-12.1488E-3
2.28364E-3	77.1822E-12	726.962E-3	-12.6087E-3	75.5571E-12	722.273E-3	-10.8002E-3
2.27864E-3	77.8379E-12	708.463E-3	-8.29210E-3	75.6878E-12	726.844E-3	-16.6892E-3
2.27364E-3	77.9229E-12	715.680E-3	-3.21035E-3	75.9362E-12	726.190E-3	-25.3607E-3
2.26863E-3	76.7956E-12	750.333E-3	-10.2015E-3	76.2170E-12	732.193E-3	-22.3383E-3
2.26363E-3	76.3281E-12	771.870E-3	-27.3353E-3	75.7516E-12	747.215E-3	-18.8829E-3
2.25863E-3	76.3723E-12	766.256E-3	-33.0491E-3	75.3877E-12	751.673E-3	-31.2865E-3
2.25363E-3	75.8060E-12	753.120E-3	-36.0947E-3	75.4564E-12	741.934E-3	-27.2676E-3
2.24862E-3	75.4545E-12	746.841E-3	-38.6092E-3	75.5596E-12	738.487E-3	-3.99011E-3
2.24362E-3	74.9044E-12	747.036E-3	-34.8318E-3	74.9859E-12	747.843E-3	4.54411E-3
2.23862E-3	74.4824E-12	748.714E-3	-34.6167E-3	74.4133E-12	747.596E-3	6.53296E-3
2.23362E-3	73.9659E-12	743.685E-3	-38.6053E-3	74.8110E-12	738.638E-3	4.90642E-3
2.22861E-3	74.4780E-12	740.238E-3	-37.0413E-3	75.0175E-12	737.369E-3	-15.2389E-3
2.22361E-3	74.4934E-12	732.890E-3	-32.6359E-3	74.2049E-12	744.805E-3	-34.7384E-3
2.21861E-3	73.7995E-12	730.169E-3	-26.3449E-3	73.7623E-12	756.811E-3	-33.0218E-3
2.21361E-3	73.4440E-12	746.856E-3	-24.6938E-3	73.4464E-12	763.839E-3	-22.7330E-3
2.20860E-3	73.4700E-12	760.093E-3	-31.7646E-3	73.5344E-12	750.944E-3	-27.1273E-3
2.20360E-3	74.0316E-12	756.358E-3	-27.6051E-3	73.1676E-12	740.534E-3	-33.2767E-3
2.19860E-3	73.0450E-12	751.071E-3	-14.8255E-3	73.0270E-12	753.998E-3	-24.4583E-3
2.19360E-3	72.5260E-12	760.070E-3	-12.0172E-3	72.7470E-12	773.447E-3	-4.52855E-3
2.18859E-3	72.2094E-12	767.753E-3	-4.60741E-3	72.7884E-12	781.001E-3	7.84699E-3
2.18359E-3	72.2037E-12	761.910E-3	4.67180E-3	72.9518E-12	772.558E-3	2.58167E-3
2.17859E-3	71.9271E-12	761.080E-3	-6.17385E-3	72.1479E-12	755.059E-3	-571.490E-6
2.17359E-3	71.5568E-12	773.356E-3	-11.0502E-3	71.7606E-12	750.876E-3	9.94171E-3
2.16858E-3	71.2386E-12	780.065E-3	-3.34787E-3	71.5729E-12	762.701E-3	13.8630E-3
2.16358E-3	70.5756E-12	778.774E-3	-13.7049E-3	71.4230E-12	764.053E-3	-1.25323E-3
2.15858E-3	70.8032E-12	769.116E-3	-42.3138E-3	70.4982E-12	770.362E-3	-13.4844E-3
2.15358E-3	70.1765E-12	749.259E-3	-42.8863E-3	70.1719E-12	786.533E-3	-19.3243E-3
2.14857E-3	69.8656E-12	744.410E-3	-4.02491E-3	70.0458E-12	776.726E-3	-30.1921E-3
2.14357E-3	69.0397E-12	759.840E-3	14.9746E-3	70.1376E-12	769.667E-3	-33.2854E-3
2.13857E-3	68.7595E-12	766.335E-3	-8.88633E-3	69.3525E-12	783.301E-3	-37.3360E-3
2.13357E-3	68.5569E-12	760.636E-3	-34.2443E-3	68.8369E-12	772.005E-3	-52.8747E-3
2.12856E-3	68.5688E-12	755.466E-3	-35.1735E-3	68.4747E-12	755.352E-3	-48.8234E-3
2.12356E-3	68.0742E-12	751.358E-3	-24.6387E-3	68.0134E-12	763.090E-3	-28.2692E-3
2.11856E-3	67.5014E-12	751.350E-3	-12.8017E-3	67.9835E-12	766.118E-3	-19.9224E-3
2.11356E-3	67.6899E-12	744.138E-3	-9.86732E-3	67.5473E-12	753.566E-3	-15.0100E-3
2.10855E-3	67.7714E-12	746.272E-3	-17.8364E-3	67.2628E-12	749.368E-3	-11.8265E-3
2.10355E-3	67.6787E-12	756.641E-3	-21.4753E-3	66.8353E-12	764.916E-3	-19.4681E-3
2.09855E-3	66.7756E-12	754.089E-3	-18.1162E-3	66.9428E-12	774.227E-3	-30.7021E-3
2.09355E-3	66.4834E-12	761.848E-3	-10.3243E-3	66.9960E-12	765.293E-3	-32.7671E-3
2.08854E-3	66.2449E-12	772.961E-3	-4.55027E-3	66.7866E-12	754.604E-3	-22.2823E-3
2.08354E-3	66.4970E-12	769.779E-3	-13.8348E-3	66.2490E-12	753.786E-3	-15.5455E-3
2.07854E-3	66.0761E-12	765.481E-3	-10.0446E-3	66.0742E-12	753.072E-3	-28.7377E-3
2.07354E-3	65.7283E-12	769.804E-3	7.06280E-3	65.7466E-12	754.958E-3	-46.1767E-3
2.06853E-3	65.3278E-12	778.789E-3	9.35603E-3	65.3088E-12	775.450E-3	-37.7662E-3
2.06353E-3	65.1185E-12	782.876E-3	4.57129E-3	65.5975E-12	795.542E-3	-17.0263E-3
2.05853E-3	65.2234E-12	778.551E-3	-14.8007E-3	65.1609E-12	794.749E-3	-10.4352E-3
2.05353E-3	64.4980E-12	772.995E-3	-39.0046E-3	65.0918E-12	791.590E-3	-8.82153E-3
2.04852E-3	64.1660E-12	766.034E-3	-34.1628E-3	64.7745E-12	794.667E-3	-7.25664E-3
2.04352E-3	64.0709E-12	769.016E-3	-12.3612E-3	64.6103E-12	798.742E-3	-17.8558E-3
2.03852E-3	64.7812E-12	785.512E-3	-9.55062E-3	64.1284E-12	796.078E-3	-22.0946E-3
2.03352E-3	64.0825E-12	789.984E-3	-16.2989E-3	64.2585E-12	789.868E-3	-12.4379E-3
2.02851E-3	63.6615E-12	771.086E-3	-9.93978E-3	64.3905E-12	790.187E-3	-20.2201E-3
2.02351E-3	63.3772E-12	755.336E-3	-9.56294E-3	64.0268E-12	794.778E-3	-35.0258E-3
2.01851E-3	63.6606E-12	772.259E-3	-20.9221E-3	63.4401E-12	803.613E-3	-31.0536E-3
2.01351E-3	63.5202E-12	799.797E-3	-21.3612E-3	63.0548E-12	806.637E-3	-22.5168E-3
2.00850E-3	62.8468E-12	808.351E-3	-25.5053E-3	63.3904E-12	803.354E-3	-21.6831E-3
2.00350E-3	62.4440E-12	806.816E-3	-39.0926E-3	63.4076E-12	807.165E-3	-25.4719E-3
1.99850E-3	62.2979E-12	797.530E-3	-31.5165E-3	62.6829E-12	821.860E-3	-25.4010E-3
1.99350E-3	62.4652E-12	779.807E-3	-4.29555E-3	62.2799E-12	822.547E-3	-8.45418E-3
1.98849E-3	61.7546E-12	779.105E-3	15.6065E-3	62.2428E-12	806.015E-3	4.63972E-3
1.98349E-3	61.4210E-12	792.685E-3	18.3099E-3	62.7919E-12	802.913E-3	-9.62603E-3
1.97849E-3	60.9503E-12	800.663E-3	3.07973E-3	61.9592E-12	810.370E-3	-20.1151E-3
1.97349E-3	60.9454E-12	801.272E-3	-16.2062E-3	61.0122E-12	817.829E-3	-17.4071E-3
1.96848E-3	60.7970E-12	795.549E-3	-15.4746E-3	60.8048E-12	823.570E-3	-24.8236E-3
1.96348E-3	60.2164E-12	798.392E-3	-13.2574E-3	60.9754E-12	820.211E-3	-30.8837E-3
1.95848E-3	59.7156E-12	813.149E-3	-29.9399E-3	60.8559E-12	814.957E-3	-35.1393E-3
1.95348E-3	59.4198E-12	817.952E-3	-43.5724E-3	60.0355E-12	821.454E-3	-42.6929E-3
1.94847E-3	59.9792E-12	813.492E-3	-38.8641E-3	59.5257E-12	832.290E-3	-37.0897E-3
1.94347E-3	59.4406E-12	812.854E-3	-23.3926E-3	59.7183E-12	838.921E-3	-29.0935E-3
1.93847E-3	58.8288E-12	813.547E-3	-119.707E-6	59.3940E-12	834.882E-3	-38.6322E-3
1.93347E-3	58.3460E-12	816.404E-3	23.4650E-3	58.8673E-12	822.997E-3	-38.8093E-3
1.92846E-3	58.2999E-12	817.291E-3	21.9235E-3	58.2100E-12	822.058E-3	-18.2148E-3
1.92346E-3	58.2072E-12	813.256E-3	-1.86784E-3	58.2173E-12	836.838E-3	-16.7340E-3
1.91846E-3	57.6742E-12	815.704E-3	-21.9382E-3	58.0647E-12	843.691E-3	-30.8642E-3
1.91346E-3	57.0726E-12	824.025E-3	-30.6065E-3	57.6097E-12	841.186E-3	-22.4177E-3
1.90845E-3	56.6440E-12	830.831E-3	-29.0490E-3	57.1748E-12	839.152E-3	587.629E-6
1.90345E-3	56.6243E-12	831.646E-3	-24.9288E-3	56.5046E-12	831.354E-3	2.80202E-3
1.89845E-3	56.2469E-12	828.045E-3	-23.1920E-3	56.7055E-12	824.769E-3	-12.5435E-3
1.89345E-3	55.6324E-12	823.654E-3	-20.9061E-3	56.3889E-12	820.180E-3	-19.9724E-3
1.88844E-3	55.2317E-12	820.299E-3	-19.5615E-3	56.1842E-12	821.523E-3	-20.4706E-3
1.88344E-3	55.2652E-12	826.298E-3	-16.8173E-3	55.3695E-12	831.395E-3	-23.7227E-3
1.87844E-3	55.2981E-12	836.634E-3	-11.5171E-3	55.0061E-12	841.624E-3	-25.7026E-3
1.87344E-3	54.7813E-12	837.865E-3	-14.9500E-3	54.8975E-12	844.716E-3	-24.9962E-3
1.86843E-3	54.4668E-12	835.508E-3	-23.7551E-3	54.9191E-12	835.855E-3	-26.3044E-3
1.86343E-3	54.4439E-12	838.786E-3	-24.4928E-3	54.6730E-12	838.183E-3	-22.3488E-3
1.85843E-3	54.6630E-12	832.949E-3	-19.9833E-3	54.0747E-12	863.421E-3	-2.88967E-3
1.85343E-3	54.2968E-12	821.014E-3	-22.4810E-3	53.9527E-12	875.044E-3	11.0524E-3
1.84842E-3	53.8736E-12	835.197E-3	-30.3964E-3	53.9651E-12	871.757E-3	6.81062E-3
1.84342E-3	53.4974E-12	849.037E-3	-26.6376E-3	53.8104E-12	880.080E-3	3.89798E-3
1.83842E-3	53.6137E-12	843.852E-3	-14.4184E-3	53.3831E-12	884.431E-3	6.01066E-3
1.83342E-3	53.6837E-12	850.991E-3	-14.1451E-3	52.9367E-12	874.362E-3	5.82014E-3
1.82841E-3	52.8632E-12	860.318E-3	-21.2065E-3	53.0893E-12	866.297E-3	-6.98691E-3
1.82341E-3	52.3075E-12	859.083E-3	-21.6905E-3	52.4742E-12	867.335E-3	-25.7015E-3
1.81841E-3	52.0312E-12	860.111E-3	-12.8135E-3	52.1067E-12	881.046E-3	-29.8534E-3
1.81341E-3	51.7006E-12	865.678E-3	-4.73280E-3	51.5426E-12	903.753E-3	-19.3371E-3
1.80840E-3	51.2081E-12	870.424E-3	-17.0442E-3	51.5283E-12	909.968E-3	-6.44784E-3
1.80340E-3	50.6173E-12	887.308E-3	-23.3302E-3	51.0705E-12	897.527E-3	-4.00992E-3
1.79840E-3	50.3304E-12	901.562E-3	-10.9779E-3	50.9619E-12	888.382E-3	-8.24602E-3
1.79340E-3	50.2661E-12	882.664E-3	-8.40524E-3	50.1398E-12	885.367E-3	-6.95844E-3
1.78839E-3	49.7498E-12	862.760E-3	-6.84359E-3	49.9520E-12	896.314E-3	-1.11975E-3
1.78339E-3	49.4584E-12	873.949E-3	195.914E-6	49.6774E-12	899.996E-3	-5.11591E-3
1.77839E-3	49.2253E-12	885.603E-3	-1.36242E-3	49.7462E-12	888.483E-3	-16.0675E-3
1.77339E-3	49.4478E-12	880.882E-3	-7.33810E-3	49.6433E-12	911.416E-3	-19.6884E-3
1.76838E-3	48.8521E-12	884.200E-3	-14.2990E-3	49.2631E-12	944.319E-3	-19.0932E-3
1.76338E-3	48.8342E-12	891.734E-3	-11.5409E-3	48.9321E-12	944.892E-3	-22.1135E-3
1.75838E-3	48.3747E-12	885.614E-3	-4.68151E-3	48.9748E-12	938.730E-3	-24.0100E-3
1.75338E-3	48.4373E-12	890.059E-3	-8.02381E-3	48.6590E-12	942.918E-3	-18.1247E-3
1.74837E-3	47.7809E-12	907.261E-3	-15.4566E-3	48.2170E-12	938.282E-3	-14.8887E-3
1.74337E-3	47.3332E-12	906.030E-3	-21.9621E-3	47.5998E-12	928.773E-3	-10.0302E-3
1.73837E-3	47.2032E-12	907.032E-3	-13.9799E-3	47.4961E-12	931.637E-3	-7.26633E-3
1.73337E-3	46.9860E-12	921.258E-3	-3.56638E-3	47.3877E-12	923.674E-3	-13.9086E-3
1.72836E-3	46.6108E-12	929.281E-3	-21.0135E-3	46.9564E-12	914.331E-3	-4.02084E-3
1.72336E-3	45.6333E-12	927.918E-3	-31.2979E-3	46.2080E-12	927.747E-3	3.07858E-3
1.71836E-3	45.3496E-12	921.308E-3	-14.6148E-3	45.6824E-12	940.114E-3	-10.7221E-3
1.71336E-3	45.3233E-12	922.370E-3	-7.02174E-3	45.3955E-12	939.399E-3	-16.8170E-3
1.70835E-3	44.9602E-12	939.788E-3	-3.66986E-3	45.0126E-12	943.664E-3	-15.7723E-3
1.70335E-3	44.3853E-12	957.005E-3	-1.54230E-3	44.4035E-12	948.260E-3	-24.2256E-3
1.69835E-3	44.0460E-12	954.463E-3	-22.3517E-3	43.8738E-12	943.842E-3	-27.5289E-3
1.69335E-3	43.9431E-12	943.822E-3	-52.2949E-3	43.7045E-12	950.558E-3	-19.4847E-3
1.68834E-3	43.5184E-12	926.892E-3	-53.2286E-3	43.5311E-12	972.459E-3	-16.4452E-3
1.68334E-3	43.4268E-12	923.288E-3	-34.2981E-3	43.1106E-12	990.430E-3	-8.44999E-3
1.67834E-3	43.1346E-12	945.377E-3	-20.4661E-3	42.6889E-12	1.00260E+0	10.3831E-3
1.67334E-3	42.8482E-12	955.747E-3	-7.69268E-3	42.4217E-12	1.00709E+0	24.0057E-3
1.66833E-3	42.3679E-12	955.479E-3	-1.41539E-3	42.3684E-12	998.623E-3	25.7206E-3
1.66333E-3	42.2473E-12	958.253E-3	-1.97049E-3	42.1374E-12	992.074E-3	14.3669E-3
1.65833E-3	42.2758E-12	961.788E-3	-7.17720E-3	41.8616E-12	991.615E-3	-5.44479E-3
1.65333E-3	42.0138E-12	976.449E-3	-12.7676E-3	41.5574E-12	993.133E-3	-14.8456E-3
1.64832E-3	41.5680E-12	990.025E-3	-4.78507E-3	41.4802E-12	998.773E-3	-14.1470E-3
1.64332E-3	41.3039E-12	994.119E-3	6.78186E-3	41.0351E-12	1.00248E+0	-9.57854E-3
1.63832E-3	40.7828E-12	1.00317E+0	2.10699E-3	40.6263E-12	1.00505E+0	-2.79629E-3
1.63332E-3	40.4897E-12	1.01678E+0	-11.5387E-3	40.1080E-12	1.01329E+0	-180.115E-6
1.62831E-3	40.0076E-12	1.01856E+0	-18.0395E-3	39.8596E-12	1.02172E+0	-12.6873E-3
1.62331E-3	39.8914E-12	1.00550E+0	-14.2962E-3	39.7361E-12	1.02343E+0	-20.7939E-3
1.61831E-3	39.3773E-12	1.00703E+0	-14.5717E-3	39.3807E-12	1.03583E+0	684.161E-6
1.61331E-3	39.0393E-12	1.02965E+0	-20.1244E-3	38.8400E-12	1.05659E+0	8.75545E-3
1.60830E-3	38.6094E-12	1.03447E+0	-20.8846E-3	38.2522E-12	1.05416E+0	-6.55822E-3
1.60330E-3	38.5523E-12	1.02399E+0	-20.2908E-3	38.1393E-12	1.05234E+0	-13.7863E-3
1.59830E-3	38.1498E-12	1.03057E+0	-19.2932E-3	37.9798E-12	1.06954E+0	-24.1576E-3
1.59330E-3	37.6803E-12	1.04186E+0	-24.3405E-3	37.6314E-12	1.08842E+0	-31.7816E-3
1.58829E-3	37.3509E-12	1.04365E+0	-25.8925E-3	37.1592E-12	1.09921E+0	-23.7023E-3
1.58329E-3	37.2281E-12	1.04529E+0	-4.10104E-3	36.7953E-12	1.10229E+0	-29.8827E-3
1.57829E-3	36.8344E-12	1.05686E+0	16.0011E-3	36.6327E-12	1.09616E+0	-35.1944E-3
1.57329E-3	36.3163E-12	1.07075E+0	-1.16288E-3	36.1381E-12	1.08961E+0	-19.4979E-3
1.56828E-3	35.9866E-12	1.07484E+0	-26.2901E-3	35.5946E-12	1.09165E+0	-13.0279E-3
1.56328E-3	35.5627E-12	1.07218E+0	-24.8748E-3	35.2819E-12	1.08759E+0	-8.58754E-3
1.55828E-3	35.3114E-12	1.08052E+0	-18.2884E-3	35.1080E-12	1.09328E+0	5.74486E-3
1.55328E-3	34.5722E-12	1.10547E+0	-17.8804E-3	34.4925E-12	1.11393E+0	7.62758E-3
1.54827E-3	34.1870E-12	1.11110E+0	-16.5185E-3	34.1156E-12	1.11575E+0	-6.48367E-3
1.54327E-3	33.9016E-12	1.09387E+0	-22.4563E-3	33.6733E-12	1.09947E+0	-16.2553E-3
1.53827E-3	33.5675E-12	1.08381E+0	-29.4575E-3	33.4188E-12	1.10224E+0	-17.8955E-3
1.53327E-3	33.0468E-12	1.08561E+0	-19.3221E-3	33.0685E-12	1.12052E+0	-21.0019E-3
1.52826E-3	32.6636E-12	1.10225E+0	-3.04898E-3	32.6214E-12	1.12978E+0	-14.4784E-3
1.52326E-3	32.5793E-12	1.11550E+0	2.67956E-3	32.4666E-12	1.12843E+0	-10.9992E-3
1.51826E-3	31.8631E-12	1.11428E+0	-8.59002E-3	31.8744E-12	1.12558E+0	-21.6688E-3
1.51326E-3	31.5722E-12	1.11109E+0	-23.7105E-3	31.5067E-12	1.12785E+0	-20.9040E-3
1.50825E-3	31.1730E-12	1.11685E+0	-24.9561E-3	31.1099E-12	1.12916E+0	-18.5253E-3
1.50325E-3	30.8704E-12	1.12957E+0	-24.8533E-3	30.8595E-12	1.12700E+0	-24.3638E-3
1.49825E-3	30.4116E-12	1.14325E+0	-25.4924E-3	30.2090E-12	1.12070E+0	-27.0458E-3
1.49325E-3	30.0146E-12	1.14755E+0	-12.2340E-3	29.8353E-12	1.12364E+0	-30.4025E-3
1.48824E-3	29.6655E-12	1.12860E+0	-6.46431E-3	29.5913E-12	1.12981E+0	-35.5037E-3
1.48324E-3	29.3722E-12	1.11551E+0	-21.7043E-3	29.1856E-12	1.13019E+0	-25.1989E-3
1.47824E-3	28.9276E-12	1.13643E+0	-22.4712E-3	28.6782E-12	1.14761E+0	-252.433E-6
1.47324E-3	28.3703E-12	1.15872E+0	-5.52429E-3	28.1352E-12	1.16310E+0	2.24469E-3
1.46823E-3	27.9979E-12	1.14835E+0	-5.78946E-3	27.9897E-12	1.15363E+0	-9.69204E-3
1.46323E-3	27.6400E-12	1.12802E+0	-13.9240E-3	27.6278E-12	1.14882E+0	-10.1930E-3
1.45823E-3	27.1881E-12	1.11637E+0	-6.57907E-3	27.1956E-12	1.15544E+0	-17.4901E-3
1.45323E-3	26.8778E-12	1.11764E+0	1.89639E-3	26.7590E-12	1.14975E+0	-26.5656E-3
1.44822E-3	26.6122E-12	1.14383E+0	-7.15427E-3	26.4380E-12	1.15885E+0	-24.8235E-3
1.44322E-3	26.2369E-12	1.17402E+0	-18.7846E-3	26.1461E-12	1.18297E+0	-31.3173E-3
1.43822E-3	25.7523E-12	1.17328E+0	-17.0788E-3	25.8139E-12	1.17525E+0	-37.7181E-3
1.43322E-3	25.5314E-12	1.15460E+0	-8.37101E-3	25.5004E-12	1.16258E+0	-24.8067E-3
1.42821E-3	25.3950E-12	1.14730E+0	-2.39434E-3	25.0540E-12	1.17445E+0	-13.1158E-3
1.42321E-3	25.0173E-12	1.16199E+0	-6.11169E-3	24.7638E-12	1.16943E+0	-9.00613E-3
1.41821E-3	24.3731E-12	1.18522E+0	-17.3680E-3	24.2612E-12	1.15492E+0	-3.43881E-3
1.41321E-3	23.8930E-12	1.19043E+0	-13.6655E-3	23.9879E-12	1.15656E+0	2.31447E-3
1.40820E-3	23.9016E-12	1.17397E+0	-13.2316E-3	23.5260E-12	1.15752E+0	4.84931E-3
1.40320E-3	23.5772E-12	1.15442E+0	-33.3671E-3	23.2275E-12	1.15772E+0	-363.804E-6
1.39820E-3	22.9751E-12	1.15571E+0	-37.3990E-3	22.8053E-12	1.16024E+0	-11.1486E-3
1.39320E-3	22.3780E-12	1.16636E+0	-26.2221E-3	22.4206E-12	1.15182E+0	-16.0638E-3
1.38819E-3	22.1749E-12	1.16121E+0	-13.5621E-3	22.1340E-12	1.14251E+0	-15.1383E-3
1.38319E-3	21.9541E-12	1.14906E+0	-2.24593E-3	21.6935E-12	1.15192E+0	-18.0761E-3
1.37819E-3	21.4531E-12	1.13544E+0	-9.67099E-3	21.3189E-12	1.15557E+0	-14.9217E-3
1.37319E-3	20.7476E-12	1.13108E+0	-28.5228E-3	20.9820E-12	1.14289E+0	2.39053E-3
1.36818E-3	20.3945E-12	1.14398E+0	-37.3822E-3	20.6004E-12	1.13133E+0	8.95230E-3
1.36318E-3	20.1348E-12	1.14897E+0	-35.6105E-3	20.1757E-12	1.11625E+0	-6.40359E-3
1.35818E-3	19.6232E-12	1.14449E+0	-27.6145E-3	19.7847E-12	1.10906E+0	-16.9023E-3
1.35318E-3	19.1515E-12	1.14046E+0	-18.6313E-3	19.5645E-12	1.12118E+0	-16.2440E-3
1.34817E-3	18.8008E-12	1.12559E+0	-15.3134E-3	19.1630E-12	1.12106E+0	-13.8657E-3
1.34317E-3	18.6074E-12	1.11775E+0	-19.3573E-3	18.8506E-12	1.10609E+0	-13.4765E-3
1.33817E-3	18.2703E-12	1.12220E+0	-21.5966E-3	18.3844E-12	1.10481E+0	-17.8777E-3
1.33317E-3	17.9109E-12	1.10660E+0	-9.05647E-3	18.1961E-12	1.09865E+0	-22.0312E-3
1.32816E-3	17.6414E-12	1.08949E+0	-258.249E-6	17.8328E-12	1.08343E+0	-19.1904E-3
1.32316E-3	17.2227E-12	1.09142E+0	-3.44927E-3	17.3326E-12	1.07923E+0	-20.1768E-3
1.31816E-3	16.8885E-12	1.09523E+0	-3.61455E-3	16.8564E-12	1.06724E+0	-33.4796E-3
1.31316E-3	16.6172E-12	1.09375E+0	-4.59608E-3	16.5802E-12	1.04710E+0	-35.8900E-3
1.30815E-3	16.2256E-12	1.08035E+0	-910.906E-6	16.3258E-12	1.03253E+0	-25.1017E-3
1.30315E-3	15.7140E-12	1.05126E+0	3.96128E-3	15.9569E-12	1.01268E+0	-16.3164E-3
1.29815E-3	15.3603E-12	1.03076E+0	-10.1039E-3	15.4212E-12	993.401E-3	-10.8653E-3
1.29315E-3	15.1200E-12	1.02573E+0	-32.0637E-3	15.0967E-12	982.373E-3	-15.3010E-3
1.28814E-3	14.7915E-12	1.01476E+0	-36.9654E-3	14.8406E-12	972.618E-3	-25.7196E-3
1.28314E-3	14.2752E-12	998.032E-3	-29.2489E-3	14.5241E-12	955.125E-3	-23.9853E-3
1.27814E-3	13.9354E-12	987.057E-3	-18.3586E-3	14.1082E-12	935.904E-3	-10.8443E-3
1.27314E-3	13.7058E-12	977.161E-3	-11.5662E-3	13.6898E-12	927.706E-3	-13.1597E-3
1.26813E-3	13.4562E-12	963.840E-3	-13.6529E-3	13.4232E-12	916.952E-3	-24.9473E-3
1.26313E-3	13.0722E-12	954.470E-3	-21.3164E-3	13.1590E-12	909.731E-3	-17.9001E-3
1.25813E-3	12.8141E-12	936.291E-3	-23.0504E-3	12.9414E-12	911.509E-3	-17.0295E-3
1.25313E-3	12.6184E-12	907.421E-3	-18.7343E-3	12.5020E-12	891.923E-3	-25.8931E-3
1.24812E-3	12.3818E-12	898.649E-3	-19.5516E-3	12.1991E-12	857.008E-3	-24.1779E-3
1.24312E-3	12.0803E-12	903.350E-3	-20.9045E-3	12.0713E-12	837.832E-3	-24.9017E-3
1.23812E-3	11.7629E-12	893.638E-3	-18.0655E-3	11.8705E-12	827.201E-3	-18.4732E-3
1.23312E-3	11.5338E-12	884.465E-3	-15.8941E-3	11.6995E-12	815.985E-3	-15.7377E-3
1.22811E-3	11.3381E-12	878.301E-3	-17.2729E-3	11.2788E-12	805.895E-3	-32.8519E-3
1.22311E-3	11.0374E-12	861.874E-3	-21.6469E-3	10.8432E-12	781.246E-3	-30.7010E-3
1.21811E-3	10.6861E-12	841.533E-3	-27.5404E-3	10.5848E-12	748.716E-3	-218.645E-6
1.21311E-3	10.4208E-12	827.398E-3	-18.6627E-3	10.4575E-12	728.988E-3	12.2145E-3
1.20810E-3	10.2108E-12	817.675E-3	-11.4177E-3	10.1098E-12	711.679E-3	5.20337E-3
1.20310E-3	9.91479E-12	795.594E-3	-24.7488E-3	9.71822E-12	697.360E-3	8.04603E-3
1.19810E-3	9.63549E-12	763.047E-3	-26.1944E-3	9.58365E-12	685.083E-3	1.75292E-3
1.19310E-3	9.34539E-12	737.729E-3	-24.5525E-3	9.47859E-12	655.280E-3	-15.8517E-3
1.18809E-3	9.13420E-12	721.253E-3	-30.0914E-3	9.16470E-12	636.006E-3	-19.4591E-3
1.18309E-3	8.96440E-12	711.167E-3	-21.7561E-3	8.78292E-12	637.990E-3	-14.8569E-3
1.17809E-3	8.75220E-12	701.711E-3	-10.4376E-3	8.55295E-12	624.909E-3	-8.96193E-3
1.17309E-3	8.49764E-12	683.347E-3	-1.25619E-3	8.49272E-12	605.735E-3	-5.33479E-3
1.16808E-3	8.30197E-12	665.037E-3	5.19120E-3	8.30819E-12	594.377E-3	-6.83812E-3
1.16308E-3	8.05051E-12	653.639E-3	1.43083E-3	7.98346E-12	570.020E-3	-7.97581E-3
1.15808E-3	7.98378E-12	643.440E-3	-4.59438E-3	7.70889E-12	541.695E-3	-14.6116E-3
1.15308E-3	7.74042E-12	621.058E-3	-3.54345E-3	7.61088E-12	520.812E-3	-16.5950E-3
1.14807E-3	7.53223E-12	593.960E-3	-2.21714E-3	7.48475E-12	499.442E-3	-10.0394E-3
1.14307E-3	7.32229E-12	584.766E-3	-7.41153E-3	7.27421E-12	486.436E-3	-9.28451E-3
1.13807E-3	7.11361E-12	575.825E-3	-13.8139E-3	7.02928E-12	487.141E-3	-15.6124E-3
1.13307E-3	6.99180E-12	544.140E-3	-22.3901E-3	6.82301E-12	482.770E-3	-25.5315E-3
1.12806E-3	6.79142E-12	510.908E-3	-33.4281E-3	6.69609E-12	471.284E-3	-19.7519E-3
1.12306E-3	6.56599E-12	494.886E-3	-34.7667E-3	6.59284E-12	455.461E-3	-4.55742E-3
1.11806E-3	6.38172E-12	491.793E-3	-27.2658E-3	6.39013E-12	430.841E-3	-7.42594E-3
1.11306E-3	6.26188E-12	485.101E-3	-23.6138E-3	6.11977E-12	410.456E-3	-15.0464E-3
1.10805E-3	6.09800E-12	464.281E-3	-22.2278E-3	5.96329E-12	399.983E-3	-13.4561E-3
1.10305E-3	5.90311E-12	447.067E-3	-15.2292E-3	5.94095E-12	383.799E-3	-14.2226E-3
1.09805E-3	5.76328E-12	439.624E-3	-8.68956E-3	5.81858E-12	364.766E-3	-17.9699E-3
1.09305E-3	5.66789E-12	432.059E-3	-13.8178E-3	5.63878E-12	359.976E-3	-20.9714E-3
1.08804E-3	5.52803E-12	414.481E-3	-24.1521E-3	5.42811E-12	353.207E-3	-17.7710E-3
1.08304E-3	5.43294E-12	398.644E-3	-27.7320E-3	5.40842E-12	330.273E-3	-6.54681E-3
1.07804E-3	5.26883E-12	389.399E-3	-21.8675E-3	5.32653E-12	304.926E-3	1.93549E-3
1.07304E-3	5.18820E-12	368.150E-3	-14.3727E-3	5.16032E-12	285.846E-3	-1.32540E-3
1.06803E-3	5.03270E-12	345.097E-3	-16.5871E-3	4.98199E-12	271.591E-3	-11.7060E-3
1.06303E-3	4.96607E-12	330.451E-3	-17.5360E-3	4.94521E-12	271.145E-3	-16.5377E-3
1.05803E-3	4.91320E-12	312.750E-3	-15.0468E-3	4.86977E-12	276.305E-3	-16.5715E-3
1.05303E-3	4.72358E-12	304.752E-3	-22.8893E-3	4.79686E-12	266.921E-3	-14.5793E-3
1.04802E-3	4.65648E-12	311.744E-3	-20.9375E-3	4.62366E-12	255.531E-3	-9.20108E-3
1.04302E-3	4.73234E-12	300.051E-3	-9.19507E-3	4.65187E-12	245.476E-3	-8.22332E-3
1.03802E-3	4.56558E-12	278.107E-3	-16.1848E-3	4.54088E-12	235.657E-3	-8.77829E-3
1.03302E-3	4.29890E-12	274.591E-3	-28.4002E-3	4.40756E-12	234.704E-3	198.408E-6
1.02801E-3	4.14087E-12	275.444E-3	-23.3194E-3	4.17489E-12	218.614E-3	5.02892E-3
1.02301E-3	4.01402E-12	269.853E-3	-10.9758E-3	3.98197E-12	189.409E-3	-698.469E-6
1.01801E-3	3.92468E-12	257.535E-3	-902.379E-6	3.94227E-12	179.788E-3	-10.1463E-3
1.01301E-3	3.84454E-12	234.012E-3	2.21935E-3	3.92281E-12	176.877E-3	-18.5343E-3
1.00800E-3	3.78170E-12	209.215E-3	-7.91194E-3	3.85003E-12	159.601E-3	-18.9427E-3
1.00300E-3	3.74652E-12	191.785E-3	-19.2274E-3	3.73178E-12	151.381E-3	-19.4669E-3
997.999E-6	3.72524E-12	184.258E-3	-11.6025E-3	3.62711E-12	161.509E-3	-23.3309E-3
992.997E-6	3.65817E-12	173.507E-3	-7.02155E-3	3.62096E-12	158.039E-3	-17.1761E-3
987.994E-6	3.58691E-12	153.779E-3	-22.1060E-3	3.59838E-12	142.617E-3	-5.20487E-3
982.991E-6	3.57845E-12	149.672E-3	-24.5003E-3	3.60005E-12	140.660E-3	-10.8960E-3
977.989E-6	3.49710E-12	146.616E-3	-9.86438E-3	3.41895E-12	127.370E-3	-18.3290E-3
972.986E-6	3.51907E-12	144.845E-3	2.97466E-3	3.36323E-12	100.916E-3	-9.04377E-3
967.984E-6	3.43685E-12	159.811E-3	11.9101E-3	3.35120E-12	98.3320E-3	-15.5281E-3
962.981E-6	3.30763E-12	157.545E-3	12.7563E-3	3.35512E-12	104.185E-3	-34.6936E-3
957.979E-6	3.29414E-12	141.131E-3	-1.54551E-3	3.25179E-12	105.078E-3	-26.6049E-3
952.976E-6	3.27000E-12	134.915E-3	-13.3940E-3	3.15141E-12	111.630E-3	-8.32803E-3
947.974E-6	3.27349E-12	128.914E-3	-13.8680E-3	3.13768E-12	103.787E-3	-9.79432E-3
942.971E-6	3.18698E-12	133.953E-3	-16.5729E-3	3.15763E-12	89.3908E-3	-18.4188E-3
937.969E-6	3.05877E-12	147.494E-3	-16.0745E-3	3.08238E-12	88.8958E-3	-22.4244E-3
932.966E-6	3.09016E-12	131.407E-3	-12.0961E-3	3.05365E-12	83.6076E-3	-17.7325E-3
927.964E-6	3.07088E-12	99.9273E-3	-13.9076E-3	3.00544E-12	80.6972E-3	-4.22723E-3
922.961E-6	2.98237E-12	85.4790E-3	-13.1433E-3	2.95170E-12	90.5348E-3	3.75154E-3
917.959E-6	2.92063E-12	83.3885E-3	-8.90065E-3	3.03132E-12	95.9928E-3	543.762E-6
912.956E-6	2.93364E-12	82.7704E-3	-10.7987E-3	2.90746E-12	84.5134E-3	-2.56421E-3
907.954E-6	2.90961E-12	88.1042E-3	-17.7128E-3	2.87521E-12	73.9238E-3	-3.67676E-3
902.951E-6	2.90930E-12	92.9226E-3	-20.2457E-3	2.87963E-12	68.5612E-3	-13.8298E-3
897.949E-6	2.81567E-12	85.0068E-3	-21.3705E-3	2.92286E-12	58.2236E-3	-24.1512E-3
892.946E-6	2.77390E-12	78.4766E-3	-19.4045E-3	2.87355E-12	71.1137E-3	-27.7861E-3
887.944E-6	2.80715E-12	78.3042E-3	-13.7298E-3	2.79107E-12	90.2037E-3	-34.8770E-3
882.941E-6	2.74196E-12	75.3460E-3	-19.0923E-3	2.76969E-12	79.6175E-3	-28.6880E-3
877.939E-6	2.77289E-12	62.0879E-3	-19.2249E-3	2.70643E-12	66.1171E-3	-11.7100E-3
872.936E-6	2.71377E-12	46.9263E-3	-5.81416E-3	2.76789E-12	61.1407E-3	-9.16208E-3
867.934E-6	2.60938E-12	51.2289E-3	-1.53176E-3	2.70606E-12	48.1141E-3	-12.6326E-3
862.931E-6	2.64000E-12	60.9217E-3	-9.15486E-3	2.60105E-12	41.6757E-3	-12.9059E-3
857.929E-6	2.65280E-12	56.5058E-3	-17.5408E-3	2.54209E-12	46.3054E-3	-14.0633E-3
852.926E-6	2.58067E-12	50.5831E-3	-27.1038E-3	2.62208E-12	51.6935E-3	-8.88457E-3
847.924E-6	2.51023E-12	54.3738E-3	-40.9022E-3	2.62065E-12	72.0736E-3	839.120E-6
842.921E-6	2.48545E-12	61.7514E-3	-37.5094E-3	2.48899E-12	83.6576E-3	3.81602E-3
837.919E-6	2.55898E-12	55.9958E-3	-33.4034E-3	2.49324E-12	59.8840E-3	3.48322E-3
832.916E-6	2.54221E-12	42.8607E-3	-44.0523E-3	2.56830E-12	46.4702E-3	-897.077E-6
827.914E-6	2.47741E-12	39.3300E-3	-39.5109E-3	2.54493E-12	56.3797E-3	-11.9881E-3
822.911E-6	2.44970E-12	43.6945E-3	-34.7186E-3	2.43956E-12	52.0753E-3	-18.2690E-3
817.909E-6	2.47527E-12	59.2330E-3	-37.9399E-3	2.43909E-12	50.5426E-3	-23.1725E-3
812.906E-6	2.49668E-12	78.0676E-3	-26.0201E-3	2.42580E-12	61.1745E-3	-28.7929E-3
807.904E-6	2.43847E-12	81.7080E-3	-16.4613E-3	2.43614E-12	57.5086E-3	-21.9351E-3
802.901E-6	2.39857E-12	70.9522E-3	-25.3965E-3	2.42376E-12	50.0976E-3	-9.86398E-3
797.899E-6	2.44778E-12	54.0643E-3	-21.8137E-3	2.38212E-12	50.1056E-3	-13.9288E-3
792.896E-6	2.43059E-12	37.9857E-3	-11.4893E-3	2.32722E-12	46.9792E-3	-27.4536E-3
787.894E-6	2.38673E-12	39.8255E-3	-17.2751E-3	2.35579E-12	39.3498E-3	-26.5378E-3
782.891E-6	2.34605E-12	49.7045E-3	-13.7174E-3	2.35727E-12	38.4680E-3	-16.8376E-3
777.889E-6	2.30959E-12	43.9395E-3	-7.70407E-3	2.31397E-12	47.0201E-3	-10.5964E-3
772.886E-6	2.31673E-12	44.5924E-3	-21.5690E-3	2.21763E-12	54.2810E-3	-12.5941E-3
767.884E-6	2.29063E-12	53.9966E-3	-29.0823E-3	2.27312E-12	54.0578E-3	-17.4991E-3
762.881E-6	2.24747E-12	49.4776E-3	-24.3818E-3	2.28466E-12	38.4207E-3	-12.7945E-3
757.879E-6	2.26692E-12	48.2304E-3	-26.0543E-3	2.28791E-12	22.1161E-3	-5.89070E-3
752.876E-6	2.19812E-12	45.7567E-3	-25.5427E-3	2.23027E-12	32.0801E-3	-7.53678E-3
747.874E-6	2.23854E-12	27.1832E-3	-17.8185E-3	2.17813E-12	38.8394E-3	-15.0993E-3
742.871E-6	2.19556E-12	24.3483E-3	-17.0395E-3	2.21649E-12	29.0442E-3	-12.3382E-3
737.869E-6	2.19642E-12	39.7661E-3	-11.0731E-3	2.23990E-12	33.5101E-3	-3.00002E-3
732.866E-6	2.13691E-12	41.9613E-3	-6.22114E-3	2.23660E-12	32.4039E-3	-7.86529E-3
727.864E-6	2.19428E-12	41.5440E-3	-16.0244E-3	2.16777E-12	20.8048E-3	-20.5502E-3
722.861E-6	2.14957E-12	43.7493E-3	-18.0104E-3	2.08403E-12	23.7012E-3	-31.1355E-3
717.859E-6	2.17384E-12	29.8557E-3	-7.34246E-3	2.15806E-12	22.5642E-3	-36.5298E-3
712.856E-6	2.08269E-12	27.9829E-3	-366.386E-6	2.20459E-12	10.5393E-3	-26.5829E-3
707.854E-6	2.06755E-12	43.7018E-3	-4.74633E-3	2.10609E-12	18.2193E-3	-17.5625E-3
702.851E-6	2.15212E-12	41.1139E-3	-11.6772E-3	2.05126E-12	37.3700E-3	-15.1997E-3
697.849E-6	2.12413E-12	31.2593E-3	-16.6789E-3	2.10940E-12	30.9547E-3	-3.58088E-3
692.846E-6	2.02859E-12	35.6782E-3	-13.0283E-3	2.09014E-12	16.4484E-3	-5.84664E-3
687.844E-6	1.98017E-12	38.7998E-3	-6.40663E-3	2.04073E-12	19.5089E-3	-32.0033E-3
682.841E-6	2.04978E-12	32.5538E-3	-18.2084E-3	2.04765E-12	27.8266E-3	-37.6904E-3
677.839E-6	2.01516E-12	31.9131E-3	-35.0372E-3	1.98440E-12	42.6285E-3	-23.2596E-3
672.836E-6	1.96115E-12	30.8254E-3	-31.1484E-3	2.02164E-12	48.9107E-3	-28.7813E-3
667.834E-6	1.93281E-12	26.1418E-3	-13.6110E-3	2.03065E-12	31.9409E-3	-27.9310E-3
662.831E-6	1.91325E-12	37.6498E-3	-1.95933E-3	1.96989E-12	25.6769E-3	-7.57906E-3
657.829E-6	1.99852E-12	53.9768E-3	-898.691E-6	1.90354E-12	36.9356E-3	-3.56941E-3
652.826E-6	1.97147E-12	50.3487E-3	-6.15572E-3	1.96525E-12	45.7789E-3	-9.00311E-3
647.824E-6	1.86106E-12	40.4023E-3	-9.69145E-3	1.98801E-12	54.9440E-3	-8.76760E-3
642.821E-6	1.90554E-12	32.3913E-3	-4.55811E-3	1.94404E-12	62.9493E-3	-16.8888E-3
637.819E-6	1.93938E-12	25.2773E-3	379.395E-6	1.91980E-12	63.5452E-3	-12.8714E-3
632.816E-6	1.89810E-12	26.8694E-3	2.27612E-3	1.85442E-12	59.5969E-3	5.85811E-3
627.814E-6	1.91759E-12	34.9303E-3	6.74785E-3	1.85568E-12	52.4287E-3	-163.731E-6
622.811E-6	1.88153E-12	47.4440E-3	2.98655E-3	1.94882E-12	43.8102E-3	-15.7741E-3
617.809E-6	1.87286E-12	53.1095E-3	-6.54235E-3	1.85527E-12	45.8540E-3	-14.1660E-3
612.806E-6	1.85189E-12	45.3655E-3	-9.17828E-3	1.78992E-12	46.4480E-3	-17.9644E-3
607.804E-6	1.83420E-12	36.7721E-3	-9.81157E-3	1.74685E-12	26.7825E-3	-25.2857E-3
602.801E-6	1.79100E-12	39.1269E-3	-13.1172E-3	1.87401E-12	25.8580E-3	-21.4788E-3
597.799E-6	1.73586E-12	43.8600E-3	-11.4814E-3	1.82419E-12	53.3474E-3	-18.2462E-3
592.796E-6	1.72711E-12	49.2247E-3	-14.9592E-3	1.76039E-12	56.2418E-3	-16.7903E-3
587.794E-6	1.73673E-12	55.0287E-3	-21.5939E-3	1.67621E-12	46.3136E-3	-9.62987E-3
582.791E-6	1.73919E-12	48.4533E-3	-13.9329E-3	1.67357E-12	54.2360E-3	-10.1438E-3
577.789E-6	1.65961E-12	41.4671E-3	-15.7880E-3	1.76509E-12	60.5621E-3	-16.2953E-3
572.786E-6	1.59984E-12	48.4918E-3	-29.3273E-3	1.73149E-12	62.3579E-3	-6.76035E-3
567.784E-6	1.63254E-12	50.5727E-3	-22.6715E-3	1.63339E-12	61.7142E-3	-6.11766E-3
562.781E-6	1.65526E-12	40.8423E-3	-3.28544E-3	1.62722E-12	55.8340E-3	-15.1142E-3
557.779E-6	1.60821E-12	46.2339E-3	-1.93451E-3	1.68523E-12	55.9907E-3	-12.3153E-3
552.776E-6	1.55774E-12	61.8803E-3	-11.1034E-3	1.57389E-12	65.0848E-3	-10.8115E-3
547.774E-6	1.56429E-12	69.8845E-3	-13.5135E-3	1.52317E-12	57.1764E-3	-7.55681E-3
542.771E-6	1.61186E-12	74.9093E-3	-14.1795E-3	1.48419E-12	43.7805E-3	2.18942E-3
537.769E-6	1.55436E-12	72.4842E-3	-17.5202E-3	1.56462E-12	57.4388E-3	547.015E-6
532.766E-6	1.47522E-12	64.1553E-3	-16.5436E-3	1.52309E-12	62.8324E-3	-6.41854E-3
527.764E-6	1.46729E-12	64.1140E-3	-12.4675E-3	1.47398E-12	55.8802E-3	-2.56174E-3
522.761E-6	1.53066E-12	62.4368E-3	-8.18651E-3	1.37525E-12	65.9648E-3	-4.01273E-3
517.759E-6	1.49306E-12	48.0689E-3	-4.53789E-3	1.38823E-12	67.0244E-3	-17.2660E-3
512.756E-6	1.42352E-12	42.5098E-3	-6.22624E-3	1.39326E-12	58.8560E-3	-17.4840E-3
507.754E-6	1.41983E-12	57.6154E-3	-1.37937E-3	1.40600E-12	63.1446E-3	-14.2228E-3
502.751E-6	1.38496E-12	61.4428E-3	4.65958E-3	1.31108E-12	57.9083E-3	-26.7141E-3
497.749E-6	1.34299E-12	51.9621E-3	-2.15654E-3	1.25599E-12	50.7799E-3	-30.3002E-3
492.746E-6	1.31524E-12	57.2310E-3	-12.1089E-3	1.31190E-12	67.0496E-3	-24.6683E-3
487.744E-6	1.29517E-12	67.8410E-3	-13.9339E-3	1.32734E-12	72.5033E-3	-23.5322E-3
482.741E-6	1.24594E-12	72.3419E-3	-17.6358E-3	1.31740E-12	53.4408E-3	-12.7401E-3
477.739E-6	1.29665E-12	72.0799E-3	-24.5272E-3	1.20086E-12	53.0736E-3	26.6635E-6
472.736E-6	1.23175E-12	63.6195E-3	-21.4986E-3	1.20082E-12	72.6878E-3	-9.92807E-3
467.734E-6	1.28077E-12	52.5076E-3	-12.0908E-3	1.23643E-12	70.9789E-3	-24.6943E-3
462.731E-6	1.13407E-12	54.5415E-3	-11.4847E-3	1.25148E-12	57.2597E-3	-16.7585E-3
457.729E-6	1.12094E-12	59.0379E-3	-21.9961E-3	1.16645E-12	55.2344E-3	-10.9528E-3
452.726E-6	1.18762E-12	56.9055E-3	-32.8914E-3	1.08635E-12	56.1844E-3	-15.8860E-3
447.724E-6	1.16219E-12	61.1856E-3	-27.2354E-3	1.12325E-12	63.4407E-3	-14.2144E-3
442.721E-6	1.12541E-12	62.4093E-3	-14.8030E-3	1.18953E-12	73.1997E-3	-17.1319E-3
437.719E-6	1.01805E-12	55.8786E-3	-11.4610E-3	1.11445E-12	66.8621E-3	-26.7897E-3
432.716E-6	1.04219E-12	59.1018E-3	-4.87245E-3	1.05177E-12	62.1662E-3	-35.0172E-3
427.714E-6	1.07134E-12	62.9344E-3	-3.73014E-3	1.04824E-12	64.8725E-3	-38.7684E-3
422.711E-6	1.00017E-12	61.9325E-3	-22.6720E-3	1.03472E-12	58.3259E-3	-30.7734E-3
417.709E-6	901.444E-15	60.8740E-3	-40.9216E-3	1.02245E-12	67.8625E-3	-13.1900E-3
412.706E-6	926.817E-15	52.8075E-3	-42.6245E-3	927.924E-15	84.6626E-3	-10.8408E-3
407.704E-6	994.095E-15	45.0681E-3	-30.6097E-3	945.005E-15	74.8826E-3	-15.8788E-3
402.701E-6	930.601E-15	42.9541E-3	-8.71410E-3	897.930E-15	67.5617E-3	-9.41576E-3
397.699E-6	852.092E-15	47.6040E-3	4.91489E-3	953.759E-15	75.9739E-3	-16.8594E-3
392.696E-6	865.520E-15	59.7292E-3	790.283E-6	889.594E-15	68.4556E-3	-37.6310E-3
387.694E-6	839.545E-15	65.1152E-3	-9.02157E-3	814.076E-15	58.4182E-3	-30.1790E-3
382.691E-6	860.105E-15	58.6601E-3	-12.0370E-3	810.606E-15	66.7626E-3	-12.3966E-3
377.689E-6	775.615E-15	56.9370E-3	-12.4314E-3	829.806E-15	72.8725E-3	-15.2583E-3
372.686E-6	760.522E-15	73.6347E-3	-11.1174E-3	900.737E-15	72.7808E-3	-13.1835E-3
367.684E-6	751.480E-15	79.7292E-3	-5.99100E-3	843.983E-15	81.2721E-3	-6.45400E-3
362.681E-6	726.203E-15	65.0427E-3	-10.4103E-3	707.003E-15	72.3278E-3	-7.10411E-3
357.679E-6	756.869E-15	61.3551E-3	-13.2439E-3	706.881E-15	47.7692E-3	-4.05846E-3
352.676E-6	660.320E-15	64.2524E-3	-1.19305E-3	737.006E-15	44.6255E-3	-6.20873E-3
347.674E-6	644.512E-15	60.3739E-3	583.453E-6	766.626E-15	58.1489E-3	-13.2137E-3
342.671E-6	608.300E-15	57.6106E-3	-3.97626E-3	621.562E-15	68.8129E-3	-12.0457E-3
337.669E-6	685.832E-15	63.0395E-3	-1.83415E-3	629.628E-15	66.7373E-3	-6.89585E-3
332.666E-6	631.058E-15	70.3009E-3	-10.8492E-3	630.622E-15	52.7976E-3	-3.59145E-3
327.664E-6	572.290E-15	73.3878E-3	-21.1486E-3	663.738E-15	41.9405E-3	2.83903E-3
322.661E-6	496.580E-15	75.9831E-3	-23.7675E-3	612.625E-15	44.9182E-3	5.16137E-3
317.659E-6	534.744E-15	74.9262E-3	-30.6265E-3	531.806E-15	44.4707E-3	-5.17664E-3
312.656E-6	567.913E-15	69.9892E-3	-33.8415E-3	550.256E-15	43.0875E-3	-6.52716E-3
307.654E-6	498.699E-15	65.1933E-3	-21.1420E-3	520.549E-15	51.6977E-3	3.79434E-3
302.651E-6	421.803E-15	59.9706E-3	-3.92085E-3	505.395E-15	56.9484E-3	-4.40370E-3
297.649E-6	434.185E-15	58.7913E-3	2.44502E-3	475.793E-15	58.9383E-3	-21.5745E-3
292.646E-6	529.164E-15	55.2283E-3	461.836E-6	456.654E-15	61.3839E-3	-29.8851E-3
287.644E-6	479.856E-15	48.0538E-3	-1.87898E-3	496.283E-15	60.0230E-3	-37.5659E-3
282.641E-6	361.492E-15	52.7822E-3	-10.4352E-3	487.782E-15	51.6087E-3	-30.7588E-3
277.639E-6	347.061E-15	64.7648E-3	-17.3374E-3	388.112E-15	47.8183E-3	-13.3984E-3
272.636E-6	422.169E-15	62.6208E-3	-12.3373E-3	354.185E-15	48.4320E-3	-10.2136E-3
267.634E-6	422.274E-15	52.8563E-3	-14.0598E-3	298.800E-15	41.3297E-3	-6.97671E-3
262.631E-6	355.423E-15	45.9828E-3	-20.7071E-3	386.368E-15	37.2834E-3	-1.45917E-3
257.629E-6	353.330E-15	36.5414E-3	-21.9684E-3	380.282E-15	41.2146E-3	-19.2194E-3
252.626E-6	308.635E-15	27.8702E-3	-28.0402E-3	270.192E-15	38.4595E-3	-34.0024E-3
247.624E-6	302.305E-15	30.1876E-3	-37.3020E-3	257.662E-15	33.5175E-3	-24.9122E-3
242.621E-6	313.631E-15	34.7225E-3	-39.2179E-3	308.906E-15	30.8616E-3	-18.9820E-3
237.619E-6	236.596E-15	34.8166E-3	-37.4424E-3	343.574E-15	31.2662E-3	-10.6248E-3
232.616E-6	273.741E-15	38.4043E-3	-29.9990E-3	254.471E-15	42.6460E-3	8.71785E-3
227.614E-6	250.617E-15	34.6506E-3	-11.7469E-3	247.696E-15	43.5662E-3	9.37290E-3
222.611E-6	259.328E-15	25.2297E-3	-5.48856E-3	182.502E-15	27.9305E-3	-5.99893E-3
217.609E-6	233.902E-15	25.0146E-3	-12.3107E-3	254.715E-15	34.3962E-3	-15.9894E-3
212.606E-6	207.073E-15	24.6739E-3	-8.05431E-3	264.690E-15	54.0048E-3	-28.3458E-3
207.604E-6	94.7070E-15	19.3639E-3	-3.67589E-3	200.681E-15	43.8721E-3	-27.9368E-3
202.601E-6	227.363E-15	25.4172E-3	-9.81808E-3	123.969E-15	30.1107E-3	-8.12612E-3
197.599E-6	235.262E-15	38.0275E-3	-9.70305E-3	144.276E-15	34.0662E-3	-4.85549E-3
192.596E-6	155.629E-15	42.4044E-3	-8.63704E-3	230.074E-15	24.9136E-3	-6.03476E-3
187.594E-6	90.6525E-15	40.6985E-3	-17.7673E-3	143.021E-15	20.0309E-3	2.55454E-3
182.591E-6	152.254E-15	34.5109E-3	-15.2071E-3	114.997E-15	32.4388E-3	-8.20354E-3
177.589E-6	166.449E-15	30.6975E-3	-5.67727E-3	112.154E-15	26.8194E-3	-24.2213E-3
172.586E-6	74.0423E-15	30.3230E-3	-10.1509E-3	126.297E-15	26.3558E-3	-21.9098E-3
167.584E-6	40.1067E-15	29.3659E-3	-7.49745E-3	112.521E-15	52.7668E-3	-22.1952E-3
162.581E-6	84.2962E-15	34.6968E-3	-993.321E-6	78.9425E-15	54.0406E-3	-28.6048E-3
157.579E-6	126.907E-15	41.4192E-3	-5.62776E-3	53.4473E-15	30.0191E-3	-20.2138E-3
152.576E-6	91.3239E-15	37.4770E-3	-9.20287E-3	90.0422E-15	24.2775E-3	-15.3855E-3
147.574E-6	31.9542E-15	33.4718E-3	-14.9985E-3	79.4134E-15	25.6277E-3	-19.1868E-3
142.571E-6	-2.18193E-15	43.8494E-3	-10.2886E-3	42.2429E-15	29.9045E-3	-4.85097E-3
137.569E-6	48.2767E-15	41.2398E-3	462.089E-6	11.1760E-15	48.5076E-3	496.468E-6
132.566E-6	88.1239E-15	21.4519E-3	-14.2357E-3	-8.08490E-15	49.8041E-3	-15.9694E-3
127.564E-6	19.5030E-15	20.2431E-3	-25.4668E-3	52.3573E-15	27.9690E-3	-13.0021E-3
122.561E-6	-4.11762E-15	24.7999E-3	-17.9410E-3	58.6701E-15	19.4866E-3	-4.43896E-3
117.559E-6	-5.39935E-15	15.5200E-3	-23.9884E-3	32.7389E-15	19.5452E-3	-10.4041E-3
112.556E-6	-14.2059E-15	10.2428E-3	-34.1965E-3	-60.1566E-15	12.0729E-3	-5.58640E-3
107.554E-6	-36.3791E-15	20.1333E-3	-30.8691E-3	-71.3173E-15	5.89218E-3	733.320E-6
102.551E-6	-51.1321E-15	28.3514E-3	-23.2108E-3	22.8163E-15	1.47912E-3	-13.7046E-3
97.5488E-6	-49.8242E-15	25.7953E-3	-17.4848E-3	2.04694E-15	949.794E-6	-20.8417E-3
92.5463E-6	-72.6078E-15	24.3978E-3	-20.2329E-3	-56.1544E-15	12.9995E-3	-5.16146E-3
87.5438E-6	1.27964E-15	21.3884E-3	-31.1615E-3	-122.875E-15	25.6962E-3	-559.701E-6
82.5413E-6	-8.93068E-15	14.6848E-3	-31.4460E-3	-54.9250E-15	26.8816E-3	-3.88042E-3
77.5388E-6	-72.6601E-15	14.4218E-3	-11.4531E-3	-16.0456E-15	25.0272E-3	559.962E-6
72.5363E-6	-126.685E-15	18.1303E-3	-431.710E-6	-82.4693E-15	21.9984E-3	-14.6102E-3
67.5338E-6	-72.7211E-15	25.4563E-3	-7.68161E-3	-143.714E-15	16.8771E-3	-25.3728E-3
62.5313E-6	-55.3261E-15	25.2412E-3	-9.68468E-3	-119.962E-15	25.5850E-3	-14.9476E-3
57.5288E-6	-114.644E-15	12.9506E-3	-10.7100E-3	-41.0613E-15	35.5790E-3	-16.6836E-3
52.5263E-6	-178.111E-15	12.3164E-3	-20.5216E-3	-165.311E-15	21.3417E-3	-16.3107E-3
47.5238E-6	-120.756E-15	21.1452E-3	-25.1734E-3	-114.748E-15	6.22572E-3	-13.4004E-3
42.5213E-6	-65.3010E-15	20.6224E-3	-20.2387E-3	-135.797E-15	5.97206E-3	-23.1751E-3
37.5188E-6	-81.7631E-15	13.3987E-3	-17.3262E-3	-105.811E-15	4.14979E-3	-14.9896E-3
32.5163E-6	-227.053E-15	12.7192E-3	-18.1121E-3	-134.375E-15	9.79440E-3	8.14376E-3
27.5138E-6	-160.838E-15	24.1236E-3	-17.8045E-3	-110.415E-15	24.5746E-3	-1.75378E-3
22.5113E-6	-138.465E-15	35.9507E-3	-15.4089E-3	-226.259E-15	26.7933E-3	-27.0293E-3
17.5088E-6	-120.015E-15	37.6974E-3	-13.4605E-3	-169.131E-15	29.9592E-3	-23.0550E-3
12.5063E-6	-164.413E-15	29.3430E-3	-13.2897E-3	-141.857E-15	39.7083E-3	-25.0718E-3
7.50375E-6	-219.929E-15	19.3720E-3	-15.7617E-3	-153.662E-15	34.7819E-3	-35.1790E-3
2.50125E-6	-212.431E-15	22.2728E-3	-16.4651E-3	-188.801E-15	28.7653E-3	-11.7885E-3
-2.50125E-6	-150.759E-15	23.6605E-3	-13.9390E-3	-231.918E-15	28.4688E-3	3.23427E-3
-7.50375E-6	-175.661E-15	17.2627E-3	-19.0646E-3	-204.592E-15	10.6919E-3	-10.9060E-3
-12.5063E-6	-200.939E-15	22.0980E-3	-29.9641E-3	-146.181E-15	-4.93573E-3	-13.5151E-3
-17.5088E-6	-229.294E-15	26.6131E-3	-34.0570E-3	-209.091E-15	7.56614E-3	-7.50776E-3
-22.5113E-6	-214.846E-15	24.8691E-3	-28.7577E-3	-303.608E-15	14.1087E-3	-17.4248E-3
-27.5138E-6	-199.945E-15	30.3922E-3	-19.4970E-3	-296.677E-15	14.2102E-3	-28.4436E-3
-32.5163E-6	-242.442E-15	34.2605E-3	-12.6733E-3	-209.736E-15	29.4785E-3	-33.5322E-3
-37.5188E-6	-284.801E-15	27.4922E-3	-11.3288E-3	-192.786E-15	34.5161E-3	-40.0823E-3
-42.5213E-6	-293.084E-15	29.5967E-3	-14.8017E-3	-317.272E-15	33.5653E-3	-31.3543E-3
-47.5238E-6	-257.823E-15	43.1950E-3	-17.9656E-3	-303.478E-15	46.2449E-3	-12.8306E-3
-52.5263E-6	-234.264E-15	34.5321E-3	-21.8688E-3	-263.011E-15	49.4151E-3	-10.5165E-3
-57.5288E-6	-324.866E-15	15.6653E-3	-20.0477E-3	-235.755E-15	41.4725E-3	-11.5535E-3
-62.5313E-6	-356.029E-15	10.6858E-3	-11.1462E-3	-308.291E-15	39.8653E-3	-10.5097E-3
-67.5338E-6	-280.764E-15	7.01718E-3	-12.3064E-3	-347.841E-15	28.2763E-3	-27.3720E-3
-72.5363E-6	-281.871E-15	7.09476E-3	-24.6405E-3	-366.318E-15	20.3427E-3	-36.9363E-3
-77.5388E-6	-335.530E-15	14.9439E-3	-22.4971E-3	-339.009E-15	29.2168E-3	-29.5599E-3
-82.5413E-6	-392.955E-15	26.2123E-3	-10.3297E-3	-315.179E-15	32.3512E-3	-27.3604E-3
-87.5438E-6	-371.488E-15	32.9727E-3	-10.4604E-3	-386.904E-15	30.5219E-3	-19.1495E-3
-92.5463E-6	-350.274E-15	28.2797E-3	-13.4317E-3	-380.844E-15	42.5770E-3	-7.27149E-3
-97.5488E-6	-352.009E-15	16.8512E-3	-7.81614E-3	-390.897E-15	49.0416E-3	-11.6058E-3
-102.551E-6	-424.894E-15	18.6647E-3	-4.20597E-3	-358.435E-15	32.1333E-3	-17.5414E-3
-107.554E-6	-444.957E-15	39.6852E-3	-11.6082E-3	-421.040E-15	37.7028E-3	-22.7017E-3
-112.556E-6	-393.749E-15	49.8649E-3	-16.5807E-3	-438.496E-15	62.4827E-3	-38.5433E-3
-117.559E-6	-426.734E-15	44.6177E-3	-16.7821E-3	-477.794E-15	55.4201E-3	-40.9570E-3
-122.561E-6	-430.413E-15	43.2001E-3	-13.7449E-3	-449.927E-15	35.7841E-3	-29.3810E-3
-127.564E-6	-512.436E-15	43.9311E-3	-8.77466E-3	-443.082E-15	35.5424E-3	-26.9480E-3
-132.566E-6	-513.657E-15	43.5873E-3	-9.82041E-3	-481.700E-15	46.2930E-3	-21.6770E-3
-137.569E-6	-493.750E-15	43.7806E-3	-11.9607E-3	-644.045E-15	58.4168E-3	-13.8112E-3
-142.571E-6	-553.739E-15	38.0364E-3	-20.0756E-3	-575.250E-15	59.0510E-3	-19.5371E-3
-147.574E-6	-589.514E-15	35.7433E-3	-27.9606E-3	-499.924E-15	51.4741E-3	-24.0290E-3
-152.576E-6	-593.159E-15	48.4379E-3	-26.2299E-3	-574.884E-15	55.8943E-3	-16.9983E-3
-157.579E-6	-584.013E-15	49.5040E-3	-31.2904E-3	-591.930E-15	57.9801E-3	-17.8837E-3
-162.581E-6	-616.387E-15	38.5529E-3	-36.4914E-3	-653.776E-15	59.5326E-3	-24.4129E-3
-167.584E-6	-591.067E-15	52.9569E-3	-31.4960E-3	-620.084E-15	76.1651E-3	-21.8878E-3
-172.586E-6	-674.353E-15	70.2534E-3	-24.1948E-3	-598.896E-15	83.7339E-3	-25.7930E-3
-177.589E-6	-721.987E-15	67.4980E-3	-14.7775E-3	-713.346E-15	66.0618E-3	-33.2068E-3
-182.591E-6	-700.485E-15	76.1375E-3	-9.05679E-3	-749.662E-15	54.4289E-3	-25.3608E-3
-187.594E-6	-670.491E-15	82.2872E-3	-15.5646E-3	-720.374E-15	66.6125E-3	-16.2533E-3
-192.596E-6	-758.931E-15	68.3792E-3	-21.0227E-3	-704.060E-15	76.1127E-3	-11.8642E-3
-197.599E-6	-847.623E-15	69.2297E-3	-7.83026E-3	-745.494E-15	77.7857E-3	-7.23719E-3
-202.601E-6	-790.869E-15	75.4053E-3	2.88777E-3	-824.578E-15	82.5741E-3	-12.8692E-3
-207.604E-6	-766.874E-15	70.4480E-3	-5.98726E-3	-871.636E-15	85.3000E-3	-25.2212E-3
-212.606E-6	-828.703E-15	69.7397E-3	-9.16282E-3	-863.449E-15	83.0787E-3	-22.4940E-3
-217.609E-6	-965.386E-15	76.8045E-3	-6.15949E-3	-856.404E-15	89.3724E-3	-14.8713E-3
-222.611E-6	-964.035E-15	84.8581E-3	-17.0249E-3	-908.336E-15	93.6861E-3	-17.6910E-3
-227.614E-6	-932.872E-15	83.8781E-3	-22.8958E-3	-989.495E-15	93.8020E-3	-3.69371E-3
-232.616E-6	-935.880E-15	79.8777E-3	-17.9395E-3	-1.00943E-12	114.315E-3	18.2774E-3
-237.619E-6	-1.03195E-12	80.6407E-3	-19.3191E-3	-976.416E-15	132.793E-3	9.44039E-3
-242.621E-6	-1.09112E-12	88.0262E-3	-23.8905E-3	-1.05587E-12	135.540E-3	-8.93523E-3
-247.624E-6	-1.09307E-12	95.6317E-3	-26.2943E-3	-1.13657E-12	136.594E-3	-22.4601E-3
-252.626E-6	-1.08894E-12	97.7082E-3	-29.8277E-3	-1.19229E-12	129.230E-3	-34.2240E-3
-257.629E-6	-1.11430E-12	103.542E-3	-28.2812E-3	-1.16673E-12	120.516E-3	-21.0231E-3
-262.631E-6	-1.18130E-12	110.612E-3	-12.6392E-3	-1.17775E-12	129.125E-3	-12.7362E-3
-267.634E-6	-1.22983E-12	112.899E-3	-6.45825E-3	-1.21352E-12	125.755E-3	-28.9832E-3
-272.636E-6	-1.24678E-12	115.645E-3	-15.5399E-3	-1.36836E-12	105.692E-3	-31.2365E-3
-277.639E-6	-1.25411E-12	110.910E-3	-7.53495E-3	-1.37909E-12	111.864E-3	-19.0372E-3
-282.641E-6	-1.34068E-12	105.277E-3	3.21875E-3	-1.35425E-12	120.265E-3	-19.0956E-3
-287.644E-6	-1.42439E-12	112.471E-3	-9.97913E-3	-1.30727E-12	116.801E-3	-21.9448E-3
-292.646E-6	-1.45665E-12	112.988E-3	-16.4306E-3	-1.46651E-12	129.612E-3	-18.3037E-3
-297.649E-6	-1.47400E-12	99.9142E-3	-1.18778E-3	-1.52717E-12	139.113E-3	-24.5250E-3
-302.651E-6	-1.46512E-12	101.316E-3	10.2958E-3	-1.50046E-12	131.650E-3	-27.6754E-3
-307.654E-6	-1.61205E-12	119.876E-3	14.1781E-3	-1.50942E-12	136.184E-3	-19.1523E-3
-312.656E-6	-1.68456E-12	127.542E-3	13.6036E-3	-1.62802E-12	146.765E-3	-17.2664E-3
-317.659E-6	-1.64864E-12	124.324E-3	3.39352E-3	-1.68831E-12	140.229E-3	-17.1787E-3
-322.661E-6	-1.66471E-12	132.855E-3	-6.07638E-3	-1.67429E-12	139.837E-3	-14.1640E-3
-327.664E-6	-1.76954E-12	142.884E-3	-8.88781E-3	-1.71030E-12	144.393E-3	-21.3948E-3
-332.666E-6	-1.92221E-12	142.100E-3	-7.10236E-3	-1.80111E-12	127.359E-3	-19.1859E-3
-337.669E-6	-1.90442E-12	145.209E-3	-2.66112E-3	-1.84976E-12	117.012E-3	-4.17153E-3
-342.671E-6	-1.88432E-12	157.798E-3	-10.4214E-3	-1.90942E-12	128.974E-3	-4.33151E-3
-347.674E-6	-1.96728E-12	165.704E-3	-16.0715E-3	-1.89898E-12	140.159E-3	-4.49946E-3
-352.676E-6	-2.05900E-12	164.327E-3	-9.14112E-3	-1.95828E-12	155.876E-3	3.63927E-3
-357.679E-6	-2.09693E-12	160.657E-3	-3.23294E-3	-2.03440E-12	165.060E-3	-796.012E-6
-362.681E-6	-2.10092E-12	155.754E-3	3.41014E-3	-2.14470E-12	155.785E-3	-12.8162E-3
-367.684E-6	-2.09511E-12	153.165E-3	7.41416E-3	-2.16601E-12	160.762E-3	-20.7968E-3
-372.686E-6	-2.24828E-12	153.472E-3	6.45435E-3	-2.15528E-12	172.306E-3	-35.0403E-3
-377.689E-6	-2.30876E-12	159.465E-3	-2.02944E-3	-2.22435E-12	161.532E-3	-47.9310E-3
-382.691E-6	-2.34139E-12	165.870E-3	-8.58204E-3	-2.31777E-12	152.890E-3	-28.9927E-3
-387.694E-6	-2.38038E-12	170.299E-3	-2.35827E-3	-2.41426E-12	160.875E-3	-7.29850E-3
-392.696E-6	-2.44607E-12	174.251E-3	-3.50436E-3	-2.50114E-12	167.625E-3	-15.3517E-3
-397.699E-6	-2.48628E-12	173.952E-3	-15.0476E-3	-2.43381E-12	173.008E-3	-11.0205E-3
-402.701E-6	-2.61746E-12	168.956E-3	-17.9427E-3	-2.52643E-12	174.486E-3	356.698E-6
-407.704E-6	-2.59875E-12	160.843E-3	-13.9613E-3	-2.67198E-12	167.542E-3	-5.67766E-3
-412.706E-6	-2.67735E-12	159.165E-3	-14.2526E-3	-2.72728E-12	170.651E-3	392.613E-6
-417.709E-6	-2.68391E-12	160.983E-3	-11.9712E-3	-2.74423E-12	183.912E-3	8.60313E-3
-422.711E-6	-2.77682E-12	165.096E-3	-15.3193E-3	-2.76727E-12	184.970E-3	-2.16370E-3
-427.714E-6	-2.88342E-12	164.182E-3	-20.8559E-3	-2.90835E-12	175.028E-3	-15.6332E-3
-432.716E-6	-2.88620E-12	153.347E-3	-18.1694E-3	-2.97588E-12	170.239E-3	-24.6326E-3
-437.719E-6	-2.92012E-12	155.002E-3	-24.0081E-3	-2.99184E-12	173.039E-3	-39.6841E-3
-442.721E-6	-3.02233E-12	171.822E-3	-22.6431E-3	-2.96376E-12	183.936E-3	-40.8836E-3
-447.724E-6	-3.12098E-12	176.507E-3	-11.9286E-3	-3.12127E-12	201.319E-3	-23.8224E-3
-452.726E-6	-3.06182E-12	173.402E-3	-11.3656E-3	-3.18815E-12	199.942E-3	-17.8597E-3
-457.729E-6	-3.12178E-12	176.584E-3	-4.54095E-3	-3.22636E-12	179.600E-3	-9.96204E-3
-462.731E-6	-3.17387E-12	171.054E-3	-992.405E-6	-3.19805E-12	175.954E-3	-6.07549E-3
-467.734E-6	-3.32855E-12	158.030E-3	-17.6586E-3	-3.28567E-12	177.549E-3	-18.1547E-3
-472.736E-6	-3.38978E-12	153.269E-3	-25.2387E-3	-3.37390E-12	158.682E-3	-16.8933E-3
-477.739E-6	-3.38786E-12	161.828E-3	-14.7447E-3	-3.45054E-12	150.240E-3	-10.7835E-3
-482.741E-6	-3.48736E-12	169.874E-3	-14.8316E-3	-3.47734E-12	158.262E-3	-18.3143E-3
-487.744E-6	-3.56752E-12	171.374E-3	-24.2803E-3	-3.50889E-12	160.938E-3	-23.1920E-3
-492.746E-6	-3.70453E-12	170.265E-3	-20.3926E-3	-3.59795E-12	165.655E-3	-19.0541E-3
-497.749E-6	-3.63267E-12	164.091E-3	-11.4446E-3	-3.62715E-12	165.385E-3	-14.9236E-3
-502.751E-6	-3.72172E-12	165.486E-3	-11.2545E-3	-3.71294E-12	151.937E-3	-11.1264E-3
-507.754E-6	-3.76546E-12	169.549E-3	-10.7477E-3	-3.72474E-12	144.367E-3	-12.3481E-3
-512.756E-6	-3.85252E-12	171.154E-3	-8.28889E-3	-3.72636E-12	144.213E-3	-22.0116E-3
-517.759E-6	-3.84423E-12	180.942E-3	-14.0280E-3	-3.82053E-12	143.266E-3	-21.7365E-3
-522.761E-6	-3.91906E-12	181.933E-3	-16.0686E-3	-3.93944E-12	155.654E-3	-13.8232E-3
-527.764E-6	-3.95181E-12	167.347E-3	-13.6815E-3	-4.01428E-12	166.712E-3	-21.2452E-3
-532.766E-6	-3.99688E-12	158.937E-3	-20.8174E-3	-3.99847E-12	154.643E-3	-22.8750E-3
-537.769E-6	-4.07575E-12	160.298E-3	-23.0388E-3	-4.03365E-12	148.973E-3	-11.5545E-3
-542.771E-6	-4.10876E-12	165.585E-3	-17.8317E-3	-4.20305E-12	155.578E-3	-13.5521E-3
-547.774E-6	-4.17786E-12	171.109E-3	-17.8645E-3	-4.26782E-12	144.993E-3	-17.5749E-3
-552.776E-6	-4.11934E-12	164.656E-3	-8.11353E-3	-4.20686E-12	137.508E-3	-12.5037E-3
-557.779E-6	-4.22774E-12	156.333E-3	8.72443E-3	-4.16134E-12	145.666E-3	-16.1493E-3
-562.781E-6	-4.36921E-12	159.132E-3	-2.48737E-3	-4.40905E-12	141.299E-3	-24.2361E-3
-567.784E-6	-4.34515E-12	158.152E-3	-31.2843E-3	-4.49858E-12	132.844E-3	-19.9270E-3
-572.786E-6	-4.41332E-12	145.174E-3	-35.1605E-3	-4.47894E-12	134.447E-3	-12.4417E-3
-577.789E-6	-4.53555E-12	138.832E-3	-19.9120E-3	-4.55595E-12	128.856E-3	-9.38069E-3
-582.791E-6	-4.61730E-12	143.652E-3	-9.59670E-3	-4.51854E-12	119.431E-3	-5.27614E-3
-587.794E-6	-4.66607E-12	147.679E-3	-13.7098E-3	-4.70960E-12	125.841E-3	-7.11192E-3
-592.796E-6	-4.63680E-12	160.789E-3	-32.8124E-3	-4.65975E-12	135.528E-3	-17.2356E-3
-597.799E-6	-4.68563E-12	166.577E-3	-40.7786E-3	-4.72260E-12	135.282E-3	-19.4458E-3
-602.801E-6	-4.79148E-12	145.006E-3	-34.6594E-3	-4.70539E-12	135.385E-3	-17.3119E-3
-607.804E-6	-4.85740E-12	131.977E-3	-27.2168E-3	-4.76026E-12	131.557E-3	-16.8297E-3
-612.806E-6	-4.77953E-12	138.025E-3	-13.0631E-3	-4.88715E-12	127.083E-3	-9.94062E-3
-617.809E-6	-4.85499E-12	135.084E-3	-5.25915E-3	-4.83821E-12	143.796E-3	-10.8902E-3
-622.811E-6	-4.94177E-12	132.819E-3	-16.1207E-3	-4.91689E-12	148.848E-3	-15.5659E-3
-627.814E-6	-4.96805E-12	138.680E-3	-26.1896E-3	-4.91474E-12	129.177E-3	-5.37481E-3
-632.816E-6	-4.97704E-12	131.701E-3	-17.6932E-3	-4.97658E-12	125.327E-3	-3.88940E-3
-637.819E-6	-4.99480E-12	115.707E-3	-16.3376E-3	-5.05785E-12	127.221E-3	-20.6420E-3
-642.821E-6	-5.08053E-12	110.278E-3	-29.9290E-3	-5.08295E-12	115.209E-3	-20.8679E-3
-647.824E-6	-5.15103E-12	109.963E-3	-29.2970E-3	-5.02982E-12	109.485E-3	-12.8148E-3
-652.826E-6	-5.18938E-12	114.715E-3	-14.6065E-3	-5.13044E-12	113.045E-3	-22.2949E-3
-657.829E-6	-5.26723E-12	126.315E-3	-4.19223E-3	-5.24506E-12	105.935E-3	-27.8672E-3
-662.831E-6	-5.25422E-12	125.286E-3	-3.73126E-3	-5.26588E-12	92.8666E-3	-23.6157E-3
-667.834E-6	-5.27718E-12	127.648E-3	-22.2219E-3	-5.26751E-12	87.6630E-3	-31.0286E-3
-672.836E-6	-5.34790E-12	139.912E-3	-41.7762E-3	-5.29967E-12	89.9777E-3	-38.5443E-3
-677.839E-6	-5.47031E-12	127.982E-3	-30.0192E-3	-5.41743E-12	103.153E-3	-21.6531E-3
-682.841E-6	-5.42203E-12	107.478E-3	-8.79133E-3	-5.47813E-12	106.861E-3	-8.87512E-3
-687.844E-6	-5.35614E-12	112.289E-3	-4.59815E-3	-5.45218E-12	89.2075E-3	-10.8236E-3
-692.846E-6	-5.50253E-12	121.706E-3	-14.4815E-3	-5.42429E-12	92.1364E-3	-13.4329E-3
-697.849E-6	-5.55177E-12	118.992E-3	-26.3772E-3	-5.51710E-12	110.393E-3	-18.9187E-3
-702.851E-6	-5.51123E-12	109.507E-3	-26.3886E-3	-5.60510E-12	104.255E-3	-11.4838E-3
-707.854E-6	-5.43410E-12	94.5585E-3	-21.2138E-3	-5.59142E-12	81.8565E-3	-2.81338E-3
-712.856E-6	-5.58275E-12	91.7239E-3	-17.7276E-3	-5.59614E-12	65.3688E-3	-10.7896E-3
-717.859E-6	-5.66783E-12	100.993E-3	-23.7109E-3	-5.60279E-12	65.5667E-3	-10.7831E-3
-722.861E-6	-5.67916E-12	96.1755E-3	-36.6747E-3	-5.67205E-12	88.4916E-3	-1.30302E-3
-727.864E-6	-5.63992E-12	86.3997E-3	-44.3137E-3	-5.74578E-12	111.324E-3	-3.59833E-3
-732.866E-6	-5.76608E-12	89.8576E-3	-41.5512E-3	-5.70682E-12	107.843E-3	-3.70294E-3
-737.869E-6	-5.86885E-12	86.8588E-3	-22.5278E-3	-5.69636E-12	98.3572E-3	4.92633E-3
-742.871E-6	-5.95828E-12	74.7185E-3	-5.54941E-3	-5.84255E-12	99.2675E-3	-4.46084E-3
-747.874E-6	-5.92923E-12	78.6174E-3	-3.07781E-3	-5.87665E-12	92.8136E-3	-15.5900E-3
-752.876E-6	-5.94114E-12	85.4927E-3	-2.61153E-3	-5.92479E-12	83.5967E-3	-6.87492E-3
-757.879E-6	-5.97966E-12	79.0891E-3	-507.804E-6	-5.90090E-12	85.4191E-3	-9.30941E-3
-762.881E-6	-6.03269E-12	84.4901E-3	-2.83575E-3	-5.91740E-12	84.7347E-3	-14.8397E-3
-767.884E-6	-6.08681E-12	100.850E-3	-12.9858E-3	-5.98170E-12	89.7476E-3	-5.45603E-3
-772.886E-6	-6.05336E-12	100.771E-3	-24.7043E-3	-6.12615E-12	103.378E-3	-11.3377E-3
-777.889E-6	-6.11801E-12	102.010E-3	-27.5650E-3	-6.09543E-12	98.9117E-3	-18.8369E-3
-782.891E-6	-6.12884E-12	111.293E-3	-21.3003E-3	-6.09421E-12	92.8098E-3	-5.86907E-3
-787.894E-6	-6.08363E-12	108.278E-3	-20.1965E-3	-6.02283E-12	106.352E-3	-6.26815E-3
-792.896E-6	-6.21037E-12	100.512E-3	-23.1794E-3	-6.20040E-12	113.867E-3	-12.9671E-3
-797.899E-6	-6.12105E-12	90.1447E-3	-20.8786E-3	-6.20533E-12	106.261E-3	-4.46936E-3
-802.901E-6	-6.17669E-12	80.3022E-3	-26.3527E-3	-6.17285E-12	104.442E-3	-6.88749E-3
-807.904E-6	-6.19100E-12	81.3732E-3	-36.7117E-3	-6.13971E-12	108.288E-3	-20.2145E-3
-812.906E-6	-6.36741E-12	87.6579E-3	-29.6113E-3	-6.28117E-12	113.002E-3	-14.5805E-3
-817.909E-6	-6.19812E-12	100.872E-3	-20.2787E-3	-6.40357E-12	114.690E-3	-4.06280E-3
-822.911E-6	-6.29642E-12	120.771E-3	-30.8429E-3	-6.34033E-12	103.462E-3	-5.80543E-3
-827.914E-6	-6.36814E-12	124.315E-3	-34.9875E-3	-6.37809E-12	100.014E-3	-2.33107E-3
-832.916E-6	-6.51537E-12	105.969E-3	-19.5839E-3	-6.35994E-12	111.599E-3	-1.56519E-3
-837.919E-6	-6.52497E-12	91.3541E-3	-7.80358E-3	-6.54217E-12	104.786E-3	-13.4478E-3
-842.921E-6	-6.49163E-12	93.4539E-3	-13.5516E-3	-6.54372E-12	88.1819E-3	-25.8827E-3
-847.924E-6	-6.57686E-12	104.185E-3	-26.7741E-3	-6.58352E-12	94.5297E-3	-33.4908E-3
-852.926E-6	-6.63490E-12	105.727E-3	-32.1368E-3	-6.62813E-12	103.778E-3	-36.1351E-3
-857.929E-6	-6.67709E-12	98.3640E-3	-18.7841E-3	-6.64682E-12	94.8392E-3	-22.9331E-3
-862.931E-6	-6.62476E-12	98.0302E-3	-613.577E-6	-6.76979E-12	96.9736E-3	-10.5426E-3
-867.934E-6	-6.66213E-12	106.571E-3	3.86624E-3	-6.74648E-12	111.345E-3	-17.8999E-3
-872.936E-6	-6.63774E-12	118.648E-3	7.10792E-3	-6.72621E-12	111.545E-3	-15.3538E-3
-877.939E-6	-6.77250E-12	115.569E-3	7.26569E-3	-6.75537E-12	115.950E-3	-2.97636E-3
-882.941E-6	-6.71585E-12	98.9822E-3	-4.69294E-3	-6.83511E-12	130.266E-3	-9.42514E-3
-887.944E-6	-6.73979E-12	99.1458E-3	-14.0921E-3	-6.88030E-12	125.295E-3	-16.4931E-3
-892.946E-6	-6.79161E-12	103.400E-3	-9.90164E-3	-6.91371E-12	113.663E-3	-17.8284E-3
-897.949E-6	-6.82407E-12	100.027E-3	-13.4482E-3	-6.92582E-12	119.919E-3	-23.0607E-3
-902.951E-6	-6.94980E-12	104.363E-3	-26.9993E-3	-6.90815E-12	125.338E-3	-17.2925E-3
-907.954E-6	-6.97846E-12	105.970E-3	-26.5518E-3	-7.00545E-12	129.122E-3	-10.4914E-3
-912.956E-6	-6.97881E-12	106.915E-3	-21.0791E-3	-7.05343E-12	127.486E-3	-14.7421E-3
-917.959E-6	-7.14688E-12	120.018E-3	-18.8840E-3	-6.96497E-12	113.890E-3	-17.6733E-3
-922.961E-6	-7.22722E-12	130.475E-3	-19.1530E-3	-7.00607E-12	116.127E-3	-20.1294E-3
-927.964E-6	-7.26700E-12	131.321E-3	-23.4058E-3	-7.10663E-12	131.114E-3	-21.8172E-3
-932.966E-6	-7.30227E-12	125.870E-3	-25.0377E-3	-7.22554E-12	133.392E-3	-13.7320E-3
-937.969E-6	-7.19928E-12	120.262E-3	-19.8350E-3	-7.16115E-12	128.114E-3	-12.2001E-3
-942.971E-6	-7.33895E-12	123.560E-3	-15.4760E-3	-7.24596E-12	128.765E-3	-28.5903E-3
-947.974E-6	-7.39225E-12	128.423E-3	-17.3594E-3	-7.33240E-12	134.782E-3	-27.6974E-3
-952.976E-6	-7.35376E-12	132.888E-3	-10.1710E-3	-7.41946E-12	144.525E-3	-5.18542E-3
-957.979E-6	-7.31593E-12	141.222E-3	6.83948E-3	-7.48410E-12	156.233E-3	-12.4574E-3
-962.981E-6	-7.42769E-12	149.093E-3	16.7116E-3	-7.51012E-12	158.761E-3	-31.3207E-3
-967.984E-6	-7.51494E-12	145.553E-3	16.9386E-3	-7.56871E-12	158.298E-3	-18.3828E-3
-972.986E-6	-7.52287E-12	141.372E-3	910.906E-6	-7.60149E-12	159.410E-3	-7.75024E-3
-977.989E-6	-7.52075E-12	151.297E-3	-20.3558E-3	-7.81410E-12	155.844E-3	-15.6781E-3
-982.991E-6	-7.57166E-12	151.808E-3	-20.1709E-3	-7.74912E-12	164.759E-3	-15.5579E-3
-987.994E-6	-7.76377E-12	140.265E-3	-13.1394E-3	-7.79327E-12	186.417E-3	-8.82431E-3
-992.997E-6	-7.83291E-12	142.631E-3	-15.1475E-3	-7.89499E-12	186.051E-3	-9.93842E-3
-997.999E-6	-7.78892E-12	154.170E-3	-19.1318E-3	-7.98876E-12	173.302E-3	-10.0794E-3
-1.00300E-3	-7.89081E-12	160.790E-3	-24.3561E-3	-8.09795E-12	180.605E-3	-9.10624E-3
-1.00800E-3	-8.00862E-12	176.315E-3	-20.9210E-3	-8.04253E-12	200.715E-3	-25.3460E-3
-1.01301E-3	-8.09734E-12	195.545E-3	-2.52840E-3	-8.14175E-12	212.837E-3	-36.5065E-3
-1.01801E-3	-8.16721E-12	196.911E-3	6.43014E-3	-8.16256E-12	219.137E-3	-29.7825E-3
-1.02301E-3	-8.16174E-12	193.685E-3	-10.5596E-3	-8.39582E-12	228.212E-3	-30.0648E-3
-1.02801E-3	-8.23742E-12	202.681E-3	-35.9423E-3	-8.42538E-12	232.893E-3	-30.8855E-3
-1.03302E-3	-8.35276E-12	207.693E-3	-43.9342E-3	-8.38238E-12	245.006E-3	-27.8484E-3
-1.03802E-3	-8.44000E-12	209.324E-3	-34.3549E-3	-8.41655E-12	261.730E-3	-22.3146E-3
-1.04302E-3	-8.53492E-12	221.905E-3	-20.6564E-3	-8.55649E-12	260.526E-3	237.226E-6
-1.04802E-3	-8.55908E-12	229.107E-3	-8.95494E-3	-8.68328E-12	258.265E-3	13.7241E-3
-1.05303E-3	-8.59612E-12	229.304E-3	-11.4980E-3	-8.63329E-12	267.733E-3	-57.6697E-6
-1.05803E-3	-8.76891E-12	237.204E-3	-13.9579E-3	-8.67841E-12	273.772E-3	-10.8365E-3
-1.06303E-3	-8.92642E-12	243.229E-3	-2.47532E-3	-8.86018E-12	286.967E-3	-10.1740E-3
-1.06803E-3	-9.00216E-12	252.563E-3	9.08337E-3	-9.03464E-12	300.688E-3	-11.1375E-3
-1.07304E-3	-9.06333E-12	278.953E-3	15.0354E-3	-9.06456E-12	300.971E-3	-8.60768E-3
-1.07804E-3	-9.24283E-12	292.411E-3	8.55764E-3	-9.08641E-12	312.218E-3	-8.04763E-3
-1.08304E-3	-9.41516E-12	288.090E-3	-5.38427E-3	-9.26628E-12	331.178E-3	-17.4144E-3
-1.08804E-3	-9.50105E-12	293.971E-3	-10.9178E-3	-9.38494E-12	338.551E-3	-16.8067E-3
-1.09305E-3	-9.56176E-12	301.075E-3	-8.11069E-3	-9.55549E-12	349.507E-3	-4.22368E-3
-1.09805E-3	-9.70381E-12	311.727E-3	-114.850E-6	-9.55100E-12	360.761E-3	5.90983E-3
-1.10305E-3	-9.87269E-12	325.801E-3	8.62699E-3	-9.76277E-12	360.723E-3	9.81571E-3
-1.10805E-3	-9.98676E-12	328.352E-3	6.45769E-3	-9.86794E-12	376.260E-3	9.17339E-3
-1.11306E-3	-9.95864E-12	337.625E-3	-5.51924E-3	-10.1378E-12	402.864E-3	82.9555E-6
-1.11806E-3	-10.0959E-12	354.322E-3	-12.6069E-3	-10.1284E-12	414.122E-3	-18.4384E-3
-1.12306E-3	-10.2672E-12	365.953E-3	-6.14678E-3	-10.1565E-12	424.144E-3	-27.7173E-3
-1.12806E-3	-10.4669E-12	377.767E-3	-3.47012E-3	-10.3279E-12	444.050E-3	-25.6437E-3
-1.13307E-3	-10.4847E-12	394.208E-3	-13.9550E-3	-10.5188E-12	465.419E-3	-26.4651E-3
-1.13807E-3	-10.4910E-12	411.910E-3	-18.8764E-3	-10.6351E-12	478.730E-3	-24.0964E-3
-1.14307E-3	-10.7356E-12	419.082E-3	-16.2970E-3	-10.6892E-12	490.663E-3	-15.4735E-3
-1.14807E-3	-10.9770E-12	421.976E-3	-18.3444E-3	-10.8190E-12	510.141E-3	-5.35640E-3
-1.15308E-3	-11.1728E-12	431.586E-3	-19.8726E-3	-10.9780E-12	531.117E-3	-3.92522E-3
-1.15808E-3	-11.2118E-12	442.428E-3	-21.2811E-3	-11.1517E-12	550.397E-3	-11.8560E-3
-1.16308E-3	-11.3944E-12	461.041E-3	-26.4219E-3	-11.3845E-12	556.022E-3	-13.0747E-3
-1.16808E-3	-11.7442E-12	484.819E-3	-23.2268E-3	-11.5674E-12	561.128E-3	-15.3811E-3
-1.17309E-3	-11.9958E-12	507.142E-3	-18.2633E-3	-11.7486E-12	584.831E-3	-30.9159E-3
-1.17809E-3	-12.0083E-12	529.301E-3	-19.8329E-3	-11.9904E-12	605.295E-3	-40.5411E-3
-1.18309E-3	-12.1917E-12	543.796E-3	-15.4611E-3	-12.2874E-12	621.330E-3	-34.4035E-3
-1.18809E-3	-12.4253E-12	556.715E-3	-10.7168E-3	-12.3374E-12	642.542E-3	-28.8366E-3
-1.19310E-3	-12.7146E-12	583.457E-3	-13.5042E-3	-12.5255E-12	650.509E-3	-24.6223E-3
-1.19810E-3	-12.9083E-12	609.298E-3	-14.8022E-3	-12.7772E-12	658.187E-3	-18.6678E-3
-1.20310E-3	-12.9576E-12	613.807E-3	-17.8283E-3	-13.0291E-12	683.806E-3	-23.6021E-3
-1.20810E-3	-13.0777E-12	620.275E-3	-19.9629E-3	-13.2405E-12	702.993E-3	-30.6974E-3
-1.21311E-3	-13.2537E-12	643.034E-3	-16.2624E-3	-13.3852E-12	710.164E-3	-15.7076E-3
-1.21811E-3	-13.5246E-12	656.422E-3	-5.49757E-3	-13.5692E-12	724.199E-3	237.645E-6
-1.22311E-3	-13.7770E-12	671.252E-3	3.24375E-3	-13.8299E-12	739.249E-3	-9.45982E-3
-1.22811E-3	-13.8528E-12	692.223E-3	-3.45394E-3	-14.0507E-12	754.447E-3	-13.4008E-3
-1.23312E-3	-14.1189E-12	695.696E-3	-13.1160E-3	-14.1536E-12	778.507E-3	-7.32684E-3
-1.23812E-3	-14.4994E-12	698.181E-3	-20.5098E-3	-14.4696E-12	798.469E-3	-13.7122E-3
-1.24312E-3	-14.9204E-12	717.404E-3	-22.6109E-3	-14.7697E-12	813.152E-3	-12.8944E-3
-1.24812E-3	-15.0974E-12	745.722E-3	-16.3768E-3	-14.9638E-12	830.561E-3	-5.10295E-3
-1.25313E-3	-15.2271E-12	778.997E-3	-17.9134E-3	-15.2878E-12	845.096E-3	-11.2044E-3
-1.25813E-3	-15.5732E-12	806.564E-3	-24.9697E-3	-15.5599E-12	863.691E-3	-18.4525E-3
-1.26313E-3	-16.0082E-12	819.678E-3	-26.1568E-3	-16.0836E-12	896.927E-3	-11.0854E-3
-1.26813E-3	-16.2712E-12	838.572E-3	-25.6259E-3	-16.2991E-12	926.601E-3	-1.22433E-3
-1.27314E-3	-16.3980E-12	867.551E-3	-17.7157E-3	-16.7303E-12	933.938E-3	4.21514E-3
-1.27814E-3	-16.7626E-12	885.361E-3	-5.96670E-3	-16.8942E-12	944.510E-3	1.68619E-3
-1.28314E-3	-17.1312E-12	891.299E-3	-13.8706E-3	-17.4012E-12	971.802E-3	-18.0566E-3
-1.28814E-3	-17.3615E-12	898.312E-3	-21.0256E-3	-17.7368E-12	979.374E-3	-30.7264E-3
-1.29315E-3	-17.5619E-12	910.999E-3	-9.28372E-3	-17.9525E-12	986.001E-3	-24.2244E-3
-1.29815E-3	-17.8358E-12	927.941E-3	382.385E-6	-18.2398E-12	1.00747E+0	-20.9815E-3
-1.30315E-3	-18.2690E-12	950.526E-3	6.87124E-3	-18.5060E-12	1.00918E+0	-19.4562E-3
-1.30815E-3	-18.4532E-12	967.077E-3	2.20119E-3	-18.8789E-12	1.01440E+0	-20.0703E-3
-1.31316E-3	-18.7159E-12	971.695E-3	-21.2511E-3	-19.0357E-12	1.03968E+0	-33.5776E-3
-1.31816E-3	-19.1812E-12	978.905E-3	-33.9932E-3	-19.3298E-12	1.06095E+0	-32.9522E-3
-1.32316E-3	-19.5455E-12	991.879E-3	-22.4900E-3	-19.6030E-12	1.06667E+0	-11.7384E-3
-1.32816E-3	-19.9296E-12	1.00563E+0	-7.98152E-3	-19.9974E-12	1.06260E+0	-11.3695E-3
-1.33317E-3	-20.2636E-12	1.02057E+0	-6.03102E-3	-20.2262E-12	1.06074E+0	-25.6787E-3
-1.33817E-3	-20.6619E-12	1.03561E+0	-9.72508E-3	-20.4210E-12	1.06709E+0	-23.0077E-3
-1.34317E-3	-21.1269E-12	1.05773E+0	-16.2464E-3	-20.8294E-12	1.08016E+0	-18.1713E-3
-1.34817E-3	-21.6601E-12	1.09398E+0	-17.4272E-3	-21.1611E-12	1.09683E+0	-22.9940E-3
-1.35318E-3	-21.7973E-12	1.11299E+0	-11.8519E-3	-21.3271E-12	1.11665E+0	-24.8218E-3
-1.35818E-3	-22.2768E-12	1.10337E+0	-21.9456E-3	-21.8600E-12	1.13692E+0	-25.7345E-3
-1.36318E-3	-22.7265E-12	1.10340E+0	-32.2463E-3	-22.5434E-12	1.14426E+0	-30.2823E-3
-1.36818E-3	-23.1798E-12	1.11334E+0	-11.6960E-3	-22.9478E-12	1.14493E+0	-31.1580E-3
-1.37319E-3	-23.5815E-12	1.11627E+0	5.88474E-3	-23.1720E-12	1.15935E+0	-29.9233E-3
-1.37819E-3	-23.8769E-12	1.13686E+0	-2.84480E-3	-23.5867E-12	1.16664E+0	-27.4047E-3
-1.38319E-3	-24.2063E-12	1.15816E+0	-7.44844E-3	-24.0433E-12	1.16464E+0	-19.2958E-3
-1.38819E-3	-24.4768E-12	1.15014E+0	-7.41593E-3	-24.5393E-12	1.17447E+0	-27.2111E-3
-1.39320E-3	-25.0432E-12	1.14950E+0	-6.55286E-3	-24.6930E-12	1.18097E+0	-51.4688E-3
-1.39820E-3	-25.3313E-12	1.17436E+0	5.96725E-3	-25.1196E-12	1.17782E+0	-49.7394E-3
-1.40320E-3	-25.5979E-12	1.19290E+0	6.63961E-3	-25.5028E-12	1.17845E+0	-25.7499E-3
-1.40820E-3	-26.0560E-12	1.18786E+0	-6.92214E-3	-25.9844E-12	1.18611E+0	-11.8567E-3
-1.41321E-3	-26.5067E-12	1.17517E+0	-1.02998E-3	-26.3712E-12	1.19912E+0	-10.0727E-3
-1.41821E-3	-26.7911E-12	1.17785E+0	12.9215E-3	-26.6548E-12	1.21796E+0	-9.08459E-3
-1.42321E-3	-27.0379E-12	1.19591E+0	15.2966E-3	-27.1614E-12	1.22469E+0	-12.1582E-3
-1.42821E-3	-27.6083E-12	1.20405E+0	15.2744E-3	-27.4818E-12	1.21020E+0	-12.0705E-3
-1.43322E-3	-28.0847E-12	1.19315E+0	8.08841E-3	-28.1391E-12	1.20434E+0	-4.73217E-3
-1.43822E-3	-28.4135E-12	1.18966E+0	-13.1466E-3	-28.5107E-12	1.21255E+0	-3.48988E-3
-1.44322E-3	-28.6471E-12	1.19660E+0	-27.5681E-3	-28.8474E-12	1.22312E+0	-2.25586E-3
-1.44822E-3	-29.0793E-12	1.19275E+0	-31.2562E-3	-29.1850E-12	1.23377E+0	-6.24177E-3
-1.45323E-3	-29.5977E-12	1.19292E+0	-32.6234E-3	-29.7277E-12	1.22804E+0	-12.9520E-3
-1.45823E-3	-29.9625E-12	1.20371E+0	-23.6302E-3	-30.3661E-12	1.20271E+0	-21.5986E-3
-1.46323E-3	-30.4199E-12	1.20584E+0	-12.7755E-3	-30.5786E-12	1.18709E+0	-34.6068E-3
-1.46823E-3	-30.7600E-12	1.20618E+0	-12.3703E-3	-31.0285E-12	1.19341E+0	-32.8287E-3
-1.47324E-3	-31.2107E-12	1.20804E+0	-13.7990E-3	-31.3021E-12	1.20356E+0	-17.3128E-3
-1.47824E-3	-31.7143E-12	1.19750E+0	-17.3628E-3	-31.8365E-12	1.20929E+0	-6.44809E-3
-1.48324E-3	-32.1747E-12	1.19772E+0	-18.2360E-3	-32.1109E-12	1.20924E+0	345.521E-6
-1.48824E-3	-32.2559E-12	1.22666E+0	-3.66044E-3	-32.3326E-12	1.20889E+0	-621.347E-6
-1.49325E-3	-32.7904E-12	1.23801E+0	8.74137E-3	-32.8917E-12	1.20766E+0	-8.93792E-3
-1.49825E-3	-33.3694E-12	1.21872E+0	-7.55094E-3	-33.2839E-12	1.20311E+0	-19.5656E-3
-1.50325E-3	-33.7325E-12	1.20629E+0	-24.3458E-3	-33.9049E-12	1.19957E+0	-21.5372E-3
-1.50825E-3	-34.2703E-12	1.20342E+0	-22.7678E-3	-34.2125E-12	1.19417E+0	-11.9709E-3
-1.51326E-3	-34.6338E-12	1.20312E+0	-19.8852E-3	-34.8257E-12	1.19497E+0	-16.2513E-3
-1.51826E-3	-35.3423E-12	1.21301E+0	-9.68461E-3	-34.9438E-12	1.19212E+0	-28.6137E-3
-1.52326E-3	-35.4864E-12	1.21347E+0	-12.2966E-3	-35.5099E-12	1.17769E+0	-27.7360E-3
-1.52826E-3	-35.8279E-12	1.19835E+0	-40.9485E-3	-35.9276E-12	1.16383E+0	-15.3578E-3
-1.53327E-3	-36.2109E-12	1.19329E+0	-48.3879E-3	-36.2874E-12	1.16347E+0	3.26358E-3
-1.53827E-3	-36.9839E-12	1.19448E+0	-28.6292E-3	-36.6463E-12	1.17131E+0	16.8693E-3
-1.54327E-3	-37.0080E-12	1.19837E+0	-25.6149E-3	-36.8102E-12	1.17335E+0	1.05064E-3
-1.54827E-3	-37.1133E-12	1.19999E+0	-32.6575E-3	-37.2983E-12	1.16698E+0	-17.6418E-3
-1.55328E-3	-37.7552E-12	1.17991E+0	-21.9623E-3	-37.7224E-12	1.14708E+0	-9.87082E-3
-1.55828E-3	-38.0577E-12	1.15294E+0	-10.2454E-3	-38.1060E-12	1.12586E+0	-8.47467E-3
-1.56328E-3	-38.2067E-12	1.14782E+0	-11.3248E-3	-38.0590E-12	1.11584E+0	-20.1241E-3
-1.56828E-3	-38.4190E-12	1.15561E+0	-8.92469E-3	-38.4193E-12	1.11911E+0	-15.9260E-3
-1.57329E-3	-38.8780E-12	1.16040E+0	-9.06546E-3	-38.8628E-12	1.12315E+0	-2.87352E-3
-1.57829E-3	-39.3370E-12	1.16008E+0	-16.0068E-3	-39.0868E-12	1.11205E+0	-5.09746E-3
-1.58329E-3	-39.5937E-12	1.14368E+0	-13.6713E-3	-39.3566E-12	1.10081E+0	-16.5639E-3
-1.58829E-3	-39.9616E-12	1.11458E+0	-10.4282E-3	-39.7708E-12	1.10373E+0	-25.8471E-3
-1.59330E-3	-40.7921E-12	1.10332E+0	-11.7068E-3	-40.6359E-12	1.11198E+0	-25.5646E-3
-1.59830E-3	-41.1271E-12	1.10860E+0	-8.28229E-3	-41.0767E-12	1.11766E+0	-15.3013E-3
-1.60330E-3	-41.3018E-12	1.10536E+0	-6.46373E-3	-41.4161E-12	1.12661E+0	-16.0009E-3
-1.60830E-3	-41.8104E-12	1.10367E+0	-17.5670E-3	-41.6701E-12	1.12792E+0	-24.8465E-3
-1.61331E-3	-42.2124E-12	1.10788E+0	-32.0115E-3	-42.4222E-12	1.10480E+0	-20.6039E-3
-1.61831E-3	-42.5424E-12	1.09901E+0	-35.8582E-3	-42.6481E-12	1.08898E+0	-17.6434E-3
-1.62331E-3	-42.6518E-12	1.08846E+0	-31.3785E-3	-43.1187E-12	1.09657E+0	-27.2299E-3
-1.62831E-3	-43.0124E-12	1.08850E+0	-21.8288E-3	-43.5246E-12	1.08750E+0	-20.4853E-3
-1.63332E-3	-43.6128E-12	1.08301E+0	-9.06927E-3	-43.9265E-12	1.06442E+0	296.064E-6
-1.63832E-3	-43.5829E-12	1.06969E+0	-5.01956E-3	-44.0914E-12	1.04593E+0	2.61012E-3
-1.64332E-3	-43.7511E-12	1.06056E+0	-13.6561E-3	-44.1310E-12	1.03207E+0	-6.92038E-3
-1.64832E-3	-43.9973E-12	1.04480E+0	-23.1071E-3	-44.5734E-12	1.02672E+0	-13.5154E-3
-1.65333E-3	-44.8525E-12	1.04055E+0	-27.4781E-3	-44.5903E-12	1.01592E+0	-15.8766E-3
-1.65833E-3	-45.1617E-12	1.05985E+0	-20.8102E-3	-45.1315E-12	999.450E-3	-18.0744E-3
-1.66333E-3	-45.1060E-12	1.05866E+0	-6.95379E-3	-45.0107E-12	994.772E-3	-30.1991E-3
-1.66833E-3	-45.4396E-12	1.04351E+0	-772.444E-6	-45.3814E-12	1.00157E+0	-44.3717E-3
-1.67334E-3	-46.1668E-12	1.03791E+0	-8.12013E-3	-45.7568E-12	1.00746E+0	-41.2476E-3
-1.67834E-3	-46.7830E-12	1.02764E+0	-16.8920E-3	-46.0929E-12	1.01829E+0	-16.7549E-3
-1.68334E-3	-46.7804E-12	1.01759E+0	-10.5475E-3	-46.3899E-12	1.02982E+0	40.8235E-6
-1.68834E-3	-47.2178E-12	1.01641E+0	454.904E-6	-46.7416E-12	1.02151E+0	-18.7540E-3
-1.69335E-3	-47.9142E-12	1.01170E+0	-8.94320E-3	-47.5468E-12	1.00710E+0	-36.5180E-3
-1.69835E-3	-48.7661E-12	1.00782E+0	-25.3559E-3	-48.0745E-12	1.00552E+0	-28.4217E-3
-1.70335E-3	-48.8930E-12	1.02172E+0	-22.7133E-3	-48.6276E-12	1.00862E+0	-18.1941E-3
-1.70835E-3	-48.6948E-12	1.02798E+0	-10.5512E-3	-48.9898E-12	1.00620E+0	-11.4512E-3
-1.71336E-3	-49.2060E-12	1.01775E+0	-6.94692E-3	-49.5946E-12	992.727E-3	-17.1786E-3
-1.71836E-3	-49.8913E-12	1.00734E+0	-8.13943E-3	-49.9997E-12	978.711E-3	-35.9186E-3
-1.72336E-3	-50.4155E-12	997.394E-3	-23.3412E-6	-50.2656E-12	982.131E-3	-39.6992E-3
-1.72836E-3	-50.1476E-12	992.313E-3	2.30685E-3	-50.5752E-12	987.861E-3	-25.4721E-3
-1.73337E-3	-50.4596E-12	988.721E-3	-5.20844E-3	-50.8388E-12	976.278E-3	-18.9434E-3
-1.73837E-3	-50.9048E-12	982.219E-3	1.46570E-3	-51.1717E-12	958.606E-3	-23.0079E-3
-1.74337E-3	-51.3883E-12	979.103E-3	8.67374E-3	-51.3786E-12	960.684E-3	-25.1891E-3
-1.74837E-3	-51.2093E-12	980.587E-3	1.71149E-3	-51.6535E-12	967.990E-3	-22.5623E-3
-1.75338E-3	-51.4235E-12	966.864E-3	-4.20367E-3	-51.7851E-12	952.505E-3	-13.6720E-3
-1.75838E-3	-51.9776E-12	935.923E-3	-10.9488E-3	-51.9527E-12	934.126E-3	-12.7475E-3
-1.76338E-3	-52.8090E-12	922.749E-3	-25.0209E-3	-51.9589E-12	919.674E-3	-14.7796E-3
-1.76838E-3	-53.4275E-12	939.549E-3	-26.1050E-3	-52.2511E-12	918.385E-3	-6.77596E-3
-1.77339E-3	-53.4193E-12	961.825E-3	-18.0115E-3	-52.8277E-12	941.139E-3	-11.3799E-3
-1.77839E-3	-53.5687E-12	970.728E-3	-18.9284E-3	-53.1354E-12	958.319E-3	-20.3242E-3
-1.78339E-3	-54.1203E-12	957.767E-3	-15.5563E-3	-53.4196E-12	949.426E-3	-11.7354E-3
-1.78839E-3	-54.8772E-12	930.251E-3	-16.2571E-3	-53.5876E-12	926.493E-3	-7.79506E-3
-1.79340E-3	-54.9374E-12	926.650E-3	-29.0007E-3	-54.2407E-12	914.328E-3	-19.0051E-3
-1.79840E-3	-54.8187E-12	943.205E-3	-30.4355E-3	-54.6860E-12	912.749E-3	-18.1300E-3
-1.80340E-3	-55.1246E-12	940.051E-3	-26.4217E-3	-55.0176E-12	913.744E-3	-15.2897E-3
-1.80840E-3	-55.6066E-12	923.232E-3	-40.1992E-3	-55.3052E-12	914.456E-3	-24.3424E-3
-1.81341E-3	-55.8897E-12	917.468E-3	-44.3533E-3	-55.7941E-12	901.828E-3	-17.7530E-3
-1.81841E-3	-55.4610E-12	918.224E-3	-21.9304E-3	-56.4369E-12	884.365E-3	-1.38618E-3
-1.82341E-3	-55.7687E-12	919.467E-3	-13.4067E-3	-56.3523E-12	883.876E-3	-4.26935E-3
-1.82841E-3	-56.3807E-12	906.712E-3	-15.1451E-3	-56.4255E-12	892.819E-3	-14.1585E-3
-1.83342E-3	-56.9504E-12	880.588E-3	-1.77599E-3	-56.6776E-12	883.072E-3	-14.4961E-3
-1.83842E-3	-56.7713E-12	883.827E-3	-7.26709E-3	-57.4925E-12	855.668E-3	-26.3879E-3
-1.84342E-3	-56.5280E-12	900.065E-3	-18.6836E-3	-57.5446E-12	843.117E-3	-31.8453E-3
-1.84842E-3	-57.0498E-12	886.879E-3	-11.9945E-3	-57.7199E-12	858.496E-3	-18.2951E-3
-1.85343E-3	-57.6780E-12	870.897E-3	-19.7264E-3	-57.5997E-12	872.504E-3	-20.8435E-3
-1.85843E-3	-58.3669E-12	870.332E-3	-27.3566E-3	-57.9874E-12	867.570E-3	-23.0846E-3
-1.86343E-3	-58.3225E-12	868.323E-3	-25.4821E-3	-58.2572E-12	859.415E-3	-8.70568E-3
-1.86843E-3	-58.4162E-12	869.989E-3	-30.7976E-3	-58.6935E-12	848.549E-3	-2.06496E-3
-1.87344E-3	-58.9105E-12	871.754E-3	-28.0076E-3	-58.6700E-12	837.496E-3	-6.81641E-3
-1.87844E-3	-59.7082E-12	860.038E-3	-9.10493E-3	-59.2320E-12	840.220E-3	-5.64673E-3
-1.88344E-3	-60.0225E-12	853.982E-3	1.11535E-3	-59.6239E-12	844.601E-3	7.82050E-3
-1.88844E-3	-60.2344E-12	869.918E-3	-1.29287E-3	-59.9028E-12	841.393E-3	7.96206E-3
-1.89345E-3	-60.1431E-12	873.033E-3	-4.86459E-3	-60.1904E-12	841.228E-3	-6.96361E-3
-1.89845E-3	-60.4142E-12	853.754E-3	-17.1734E-3	-60.5960E-12	851.406E-3	-8.33513E-3
-1.90345E-3	-60.6957E-12	851.745E-3	-18.8613E-3	-61.0205E-12	862.437E-3	5.32778E-3
-1.90845E-3	-60.6990E-12	867.070E-3	-6.95510E-3	-60.9967E-12	857.433E-3	14.3833E-3
-1.91346E-3	-60.9062E-12	861.017E-3	-13.3280E-3	-61.1340E-12	843.386E-3	7.44633E-3
-1.91846E-3	-60.9557E-12	849.437E-3	-22.5288E-3	-61.1590E-12	832.070E-3	-6.50507E-3
-1.92346E-3	-61.5418E-12	861.309E-3	-18.4979E-3	-61.8872E-12	837.687E-3	-18.1989E-3
-1.92846E-3	-62.0300E-12	864.024E-3	-18.8639E-3	-62.1393E-12	847.567E-3	-35.2866E-3
-1.93347E-3	-62.0246E-12	855.080E-3	-25.1406E-3	-62.4354E-12	834.201E-3	-54.2405E-3
-1.93847E-3	-62.5836E-12	843.473E-3	-16.9161E-3	-62.5713E-12	820.348E-3	-46.4554E-3
-1.94347E-3	-62.5403E-12	831.890E-3	-2.59651E-3	-62.5240E-12	817.685E-3	-27.9205E-3
-1.94847E-3	-63.0208E-12	836.965E-3	-6.23785E-3	-63.3355E-12	811.541E-3	-36.9082E-3
-1.95348E-3	-63.1447E-12	843.114E-3	-15.1565E-3	-63.2907E-12	815.251E-3	-42.6351E-3
-1.95848E-3	-63.3548E-12	835.231E-3	-21.1778E-3	-63.5879E-12	830.363E-3	-24.5230E-3
-1.96348E-3	-63.6209E-12	834.500E-3	-22.1695E-3	-63.8306E-12	828.218E-3	-12.0161E-3
-1.96848E-3	-64.2749E-12	840.362E-3	-9.86497E-3	-64.5363E-12	810.347E-3	-10.3439E-3
-1.97349E-3	-64.4982E-12	823.329E-3	-3.97995E-3	-65.0559E-12	798.591E-3	-17.5397E-3
-1.97849E-3	-64.3570E-12	806.768E-3	-20.9498E-3	-64.7080E-12	804.302E-3	-23.3004E-3
-1.98349E-3	-64.4410E-12	812.182E-3	-26.4423E-3	-65.2811E-12	815.460E-3	-18.6795E-3
-1.98849E-3	-64.9982E-12	811.365E-3	-22.1594E-3	-65.4069E-12	809.306E-3	-13.8880E-3
-1.99350E-3	-65.2067E-12	812.531E-3	-35.8776E-3	-65.9217E-12	787.936E-3	-7.99341E-3
-1.99850E-3	-65.1961E-12	817.139E-3	-33.4633E-3	-65.2725E-12	787.038E-3	-1.15709E-3
-2.00350E-3	-64.9381E-12	809.667E-3	-18.6688E-3	-65.9478E-12	819.005E-3	-12.5163E-3
-2.00850E-3	-65.4516E-12	802.466E-3	-20.1286E-3	-66.6042E-12	840.396E-3	-30.0522E-3
-2.01351E-3	-65.9952E-12	792.311E-3	-28.8107E-3	-66.5988E-12	837.110E-3	-26.6014E-3
-2.01851E-3	-66.1541E-12	782.573E-3	-28.1151E-3	-67.2323E-12	822.938E-3	-18.9458E-3
-2.02351E-3	-66.3461E-12	776.629E-3	-13.2264E-3	-67.5474E-12	809.463E-3	-28.5282E-3
-2.02851E-3	-66.6241E-12	775.602E-3	2.86288E-3	-68.2879E-12	812.131E-3	-25.6980E-3
-2.03352E-3	-66.8942E-12	782.893E-3	6.00290E-3	-67.9432E-12	816.916E-3	-3.02841E-3
-2.03852E-3	-67.1080E-12	782.583E-3	-4.34851E-3	-68.3489E-12	807.175E-3	2.83833E-3
-2.04352E-3	-67.4821E-12	776.059E-3	-10.7307E-3	-68.7936E-12	791.547E-3	-640.337E-6
-2.04852E-3	-67.9953E-12	767.909E-3	-10.9313E-3	-69.5856E-12	788.850E-3	-6.30055E-3
-2.05353E-3	-68.2672E-12	769.005E-3	-18.3588E-3	-69.5425E-12	798.569E-3	-18.6164E-3
-2.05853E-3	-69.0502E-12	783.009E-3	-17.8397E-3	-69.8134E-12	798.877E-3	-24.3734E-3
-2.06353E-3	-69.3089E-12	791.015E-3	-4.42504E-3	-70.2641E-12	787.826E-3	-24.5993E-3
-2.06853E-3	-69.1291E-12	799.576E-3	870.815E-6	-70.4704E-12	786.705E-3	-23.6604E-3
-2.07354E-3	-68.9128E-12	806.199E-3	-14.9321E-3	-70.2254E-12	789.811E-3	-28.3679E-3
-2.07854E-3	-69.7959E-12	799.544E-3	-36.8259E-3	-70.3575E-12	783.887E-3	-24.3526E-3
-2.08354E-3	-70.1397E-12	782.770E-3	-32.7085E-3	-70.2835E-12	779.185E-3	-3.26064E-3
-2.08854E-3	-70.6275E-12	775.987E-3	-4.15486E-3	-70.5532E-12	771.292E-3	1.17389E-3
-2.09355E-3	-70.6801E-12	787.177E-3	10.2547E-3	-70.5673E-12	760.086E-3	-10.7891E-3
-2.09855E-3	-71.4142E-12	792.356E-3	-3.30843E-3	-70.3913E-12	755.063E-3	-27.3250E-3
-2.10355E-3	-72.1246E-12	794.925E-3	-11.1382E-3	-70.3955E-12	749.429E-3	-38.9373E-3
-2.10855E-3	-72.0845E-12	791.910E-3	82.3539E-6	-70.5963E-12	743.922E-3	-28.7363E-3
-2.11356E-3	-72.2991E-12	778.369E-3	552.211E-6	-71.5384E-12	745.060E-3	-13.5745E-3
-2.11856E-3	-72.6902E-12	786.500E-3	-23.8259E-3	-71.6897E-12	743.594E-3	-5.66180E-3
-2.12356E-3	-73.1601E-12	803.042E-3	-37.1336E-3	-71.8342E-12	750.679E-3	-9.80593E-3
-2.12856E-3	-73.3729E-12	802.714E-3	-29.9964E-3	-72.0508E-12	764.704E-3	-30.4277E-3
-2.13357E-3	-73.5871E-12	794.056E-3	-12.1930E-3	-73.1970E-12	766.024E-3	-45.2307E-3
-2.13857E-3	-73.7995E-12	787.414E-3	16.2563E-3	-73.8117E-12	763.433E-3	-41.6086E-3
-2.14357E-3	-73.8715E-12	783.371E-3	9.48118E-3	-73.6340E-12	759.026E-3	-29.6898E-3
-2.14857E-3	-73.7407E-12	770.630E-3	-18.1630E-3	-73.3562E-12	762.163E-3	-18.6121E-3
-2.15358E-3	-73.8185E-12	761.128E-3	-6.73378E-3	-74.4499E-12	779.392E-3	-29.7435E-3
-2.15858E-3	-74.2887E-12	760.291E-3	8.75203E-3	-75.2793E-12	774.757E-3	-42.4724E-3
-2.16358E-3	-74.8213E-12	758.926E-3	-3.02286E-3	-75.1717E-12	763.318E-3	-26.6064E-3
-2.16858E-3	-74.6735E-12	766.276E-3	-15.4903E-3	-74.6054E-12	774.269E-3	-15.6344E-3
-2.17359E-3	-74.7082E-12	771.638E-3	-18.5804E-3	-75.1556E-12	767.831E-3	-17.8615E-3
-2.17859E-3	-74.8341E-12	764.491E-3	-23.3549E-3	-75.8305E-12	742.965E-3	-20.5348E-3
-2.18359E-3	-75.1375E-12	754.397E-3	-13.2375E-3	-75.3330E-12	741.547E-3	-23.4020E-3
-2.18859E-3	-75.4286E-12	753.547E-3	-2.08036E-3	-74.6168E-12	748.730E-3	-26.0510E-3
-2.19360E-3	-75.8532E-12	757.498E-3	-12.4926E-3	-74.8777E-12	742.409E-3	-17.8360E-3
-2.19860E-3	-76.1699E-12	753.030E-3	-8.53932E-3	-75.7850E-12	748.479E-3	8.59967E-3
-2.20360E-3	-76.3059E-12	742.642E-3	10.0198E-3	-76.4023E-12	755.499E-3	4.95612E-3
-2.20860E-3	-76.8884E-12	746.152E-3	5.24987E-3	-76.7704E-12	752.528E-3	-24.0154E-3
-2.21361E-3	-77.0408E-12	758.820E-3	-15.2383E-3	-76.6901E-12	761.327E-3	-24.6903E-3
-2.21861E-3	-77.3009E-12	750.526E-3	-23.5523E-3	-77.3324E-12	760.414E-3	-8.83213E-3
-2.22361E-3	-77.4879E-12	741.615E-3	-30.2396E-3	-77.9507E-12	747.247E-3	-8.26147E-3
-2.22861E-3	-77.6244E-12	758.673E-3	-36.3785E-3	-78.4742E-12	748.951E-3	-29.0074E-3
-2.23362E-3	-77.8237E-12	767.930E-3	-21.2764E-3	-78.7465E-12	766.854E-3	-49.5583E-3
-2.23862E-3	-77.4747E-12	750.154E-3	-6.34072E-3	-78.8095E-12	773.223E-3	-39.9776E-3
-2.24362E-3	-77.7478E-12	743.467E-3	-15.2981E-3	-79.3339E-12	753.639E-3	-17.5317E-3
-2.24862E-3	-78.1231E-12	743.405E-3	-22.6013E-3	-80.0335E-12	736.402E-3	-19.2256E-3
-2.25363E-3	-78.4257E-12	718.838E-3	-24.6278E-3	-80.2851E-12	731.197E-3	-20.0196E-3
-2.25863E-3	-78.1954E-12	711.011E-3	-28.7220E-3	-79.6393E-12	733.631E-3	822.353E-6
-2.26363E-3	-78.5225E-12	730.820E-3	-22.6419E-3	-79.8561E-12	740.627E-3	3.38170E-3
-2.26863E-3	-79.0643E-12	738.130E-3	-24.6029E-3	-79.8800E-12	747.263E-3	-18.8073E-3
-2.27364E-3	-79.1666E-12	746.916E-3	-35.8888E-3	-80.2546E-12	749.181E-3	-28.1053E-3
-2.27864E-3	-79.1269E-12	753.779E-3	-30.2618E-3	-80.0424E-12	742.896E-3	-30.5705E-3
-2.28364E-3	-79.5545E-12	728.781E-3	-18.0338E-3	-80.3235E-12	743.687E-3	-35.6897E-3
-2.28864E-3	-80.1464E-12	709.178E-3	-19.4014E-3	-80.5150E-12	759.761E-3	-33.7504E-3
-2.29365E-3	-80.7992E-12	719.326E-3	-26.2096E-3	-80.9402E-12	767.211E-3	-23.6302E-3
-2.29865E-3	-81.0007E-12	730.038E-3	-31.0269E-3	-81.4078E-12	751.530E-3	-20.0360E-3
-2.30365E-3	-81.3285E-12	735.916E-3	-28.9427E-3	-81.4975E-12	742.694E-3	-23.7524E-3
-2.30865E-3	-81.9950E-12	731.205E-3	-14.5659E-3	-81.6110E-12	746.570E-3	-21.0119E-3
-2.31366E-3	-82.8142E-12	722.572E-3	-11.4673E-3	-82.3979E-12	746.727E-3	-19.1560E-3
-2.31866E-3	-82.4613E-12	735.671E-3	-19.7852E-3	-82.5007E-12	742.359E-3	-20.2785E-3
-2.32366E-3	-82.9213E-12	749.820E-3	-19.7176E-3	-82.5199E-12	731.438E-3	-13.5865E-3
-2.32866E-3	-82.9222E-12	741.187E-3	-34.7665E-3	-82.9857E-12	725.951E-3	4.44794E-3
-2.33367E-3	-83.1009E-12	731.368E-3	-48.4707E-3	-83.2525E-12	729.197E-3	14.2038E-3
-2.33867E-3	-83.1229E-12	736.663E-3	-22.1897E-3	-83.2748E-12	735.515E-3	1.09530E-3
-2.34367E-3	-83.2640E-12	733.641E-3	3.02133E-3	-83.3891E-12	742.478E-3	-15.9303E-3
-2.34867E-3	-83.9712E-12	721.434E-3	-10.5941E-3	-83.7968E-12	731.823E-3	-19.9522E-3
-2.35368E-3	-83.7781E-12	732.699E-3	-29.2445E-3	-83.8691E-12	711.874E-3	-22.3377E-3
-2.35868E-3	-83.9982E-12	736.442E-3	-26.3729E-3	-83.7070E-12	701.810E-3	-28.4035E-3
-2.36368E-3	-84.4061E-12	719.674E-3	-26.3026E-3	-83.9158E-12	697.654E-3	-25.5575E-3
-2.36868E-3	-84.6062E-12	729.921E-3	-30.2222E-3	-83.9806E-12	703.289E-3	-12.9908E-3
-2.37369E-3	-84.5413E-12	750.821E-3	-25.3873E-3	-84.0972E-12	724.375E-3	-16.3402E-3
-2.37869E-3	-84.8413E-12	747.169E-3	-27.6383E-3	-84.2395E-12	744.068E-3	-25.4014E-3
-2.38369E-3	-85.8250E-12	724.542E-3	-25.5536E-3	-84.8181E-12	746.578E-3	-25.8683E-3
-2.38869E-3	-86.0368E-12	712.193E-3	-21.5575E-3	-85.2184E-12	730.490E-3	-22.8699E-3
-2.39370E-3	-85.9731E-12	730.626E-3	-38.1435E-3	-85.3467E-12	710.592E-3	-23.5137E-3
-2.39870E-3	-86.0760E-12	748.899E-3	-46.8680E-3	-85.6204E-12	713.197E-3	-31.4247E-3
-2.40370E-3	-86.7704E-12	743.582E-3	-34.9434E-3	-85.9540E-12	731.283E-3	-28.0626E-3
-2.40870E-3	-86.8732E-12	743.312E-3	-35.7057E-3	-87.1015E-12	744.198E-3	-23.6942E-3
-2.41371E-3	-86.7198E-12	741.413E-3	-43.5461E-3	-86.9396E-12	738.370E-3	-32.1276E-3
-2.41871E-3	-86.5883E-12	725.844E-3	-34.9085E-3	-87.0542E-12	735.611E-3	-42.5183E-3
-2.42371E-3	-87.0942E-12	722.086E-3	-31.3726E-3	-87.5596E-12	743.598E-3	-41.3327E-3
-2.42871E-3	-87.7828E-12	720.650E-3	-35.8282E-3	-87.9281E-12	736.847E-3	-34.2920E-3
-2.43372E-3	-87.7832E-12	706.310E-3	-25.9979E-3	-87.9902E-12	724.710E-3	-26.1125E-3
-2.43872E-3	-87.4153E-12	709.107E-3	-8.48463E-3	-87.9123E-12	722.341E-3	-13.9570E-3
-2.44372E-3	-87.6530E-12	739.816E-3	5.15398E-3	-88.2398E-12	724.407E-3	-8.35260E-3
-2.44872E-3	-88.5781E-12	751.366E-3	15.3221E-3	-88.1570E-12	715.119E-3	-16.9809E-3
-2.45373E-3	-89.0344E-12	734.420E-3	3.36242E-3	-88.9269E-12	701.199E-3	-28.9453E-3
-2.45873E-3	-88.6340E-12	729.777E-3	-24.6287E-3	-89.1950E-12	703.434E-3	-19.3511E-3
-2.46373E-3	-88.6301E-12	726.450E-3	-14.5199E-3	-89.8484E-12	720.272E-3	-9.27684E-3
-2.46873E-3	-89.0683E-12	711.135E-3	15.9304E-3	-89.7572E-12	736.477E-3	-30.0970E-3
-2.47374E-3	-89.4708E-12	714.196E-3	12.8711E-3	-89.8447E-12	740.701E-3	-45.0511E-3
-2.47874E-3	-89.5000E-12	723.078E-3	-1.01926E-3	-90.5468E-12	732.525E-3	-15.7333E-3
-2.48374E-3	-89.5384E-12	716.971E-3	-8.24588E-3	-91.2716E-12	715.954E-3	3.10425E-3
-2.48874E-3	-89.8489E-12	722.165E-3	-9.50648E-3	-91.6291E-12	702.840E-3	-10.9651E-3
-2.49375E-3	-90.5693E-12	726.522E-3	-3.73791E-3	-91.2274E-12	703.795E-3	-10.3799E-3
-2.49875E-3	-90.9285E-12	716.262E-3	-4.56816E-3	-91.3452E-12	711.191E-3	-7.86511E-3
-2.50375E-3	-90.8991E-12	723.248E-3	-14.2163E-3	-91.4842E-12	714.423E-3	-19.0029E-3
-2.50875E-3	-90.8808E-12	734.101E-3	-15.3787E-3	-91.7851E-12	713.743E-3	-30.1309E-3
-2.51376E-3	-91.2962E-12	723.319E-3	-13.7738E-3	-91.9539E-12	712.815E-3	-36.2061E-3
-2.51876E-3	-91.5942E-12	713.000E-3	-23.4790E-3	-91.4785E-12	706.328E-3	-24.4276E-3
-2.52376E-3	-91.9594E-12	723.304E-3	-13.5303E-3	-90.9704E-12	702.793E-3	-1.21970E-3
-2.52876E-3	-92.1617E-12	729.964E-3	1.18410E-3	-91.3306E-12	694.423E-3	3.89002E-3
-2.53377E-3	-93.0411E-12	727.992E-3	-6.26012E-3	-92.0042E-12	681.383E-3	-12.4939E-3
-2.53877E-3	-92.7843E-12	729.692E-3	-17.6729E-3	-92.2774E-12	686.019E-3	-17.9466E-3
-2.54377E-3	-93.9147E-12	728.572E-3	-29.7422E-3	-91.9203E-12	697.877E-3	-3.76685E-3
-2.54877E-3	-93.8631E-12	727.891E-3	-30.1234E-3	-92.1067E-12	701.428E-3	4.90256E-3
-2.55378E-3	-94.4585E-12	718.584E-3	-8.76705E-3	-93.1579E-12	698.111E-3	-1.98962E-3
-2.55878E-3	-94.4838E-12	699.430E-3	1.84338E-3	-93.6111E-12	704.036E-3	-17.6040E-3
-2.56378E-3	-94.5266E-12	704.264E-3	-20.8932E-3	-94.0441E-12	717.987E-3	-35.1617E-3
-2.56878E-3	-94.7953E-12	720.274E-3	-33.9107E-3	-93.5280E-12	720.693E-3	-43.1396E-3
-2.57379E-3	-94.7662E-12	705.917E-3	-13.0181E-3	-95.1912E-12	722.068E-3	-26.9602E-3
-2.57879E-3	-95.3750E-12	684.066E-3	281.660E-6	-95.5143E-12	722.890E-3	-4.20448E-3
-2.58379E-3	-94.6943E-12	693.760E-3	7.03558E-3	-96.0377E-12	717.582E-3	-593.119E-9
-2.58879E-3	-94.4559E-12	709.082E-3	8.12484E-3	-95.8805E-12	723.048E-3	-19.8181E-3
-2.59380E-3	-94.0746E-12	709.635E-3	-25.0861E-3	-96.2835E-12	728.282E-3	-50.2371E-3
-2.59880E-3	-94.6015E-12	703.453E-3	-55.6822E-3	-97.3388E-12	713.301E-3	-59.2596E-3
-2.60380E-3	-94.4988E-12	691.078E-3	-50.8805E-3	-96.6894E-12	704.450E-3	-48.6617E-3
-2.60880E-3	-94.1892E-12	689.161E-3	-33.3105E-3	-95.8859E-12	709.218E-3	-46.8222E-3
-2.61381E-3	-94.4796E-12	690.099E-3	-16.4000E-3	-95.7320E-12	712.859E-3	-36.9663E-3
-2.61881E-3	-94.8410E-12	678.344E-3	-4.22546E-3	-96.9759E-12	719.003E-3	-16.5920E-3
-2.62381E-3	-95.7890E-12	677.789E-3	-7.59097E-3	-97.5788E-12	719.761E-3	-11.1807E-3
-2.62881E-3	-95.7974E-12	699.014E-3	-16.8287E-3	-96.9205E-12	721.001E-3	-3.55398E-3
-2.63382E-3	-95.9129E-12	706.862E-3	-19.0012E-3	-96.2909E-12	724.700E-3	8.70325E-3
-2.63882E-3	-96.4438E-12	692.601E-3	-26.5381E-3	-96.9494E-12	728.559E-3	3.58069E-3
-2.64382E-3	-97.2228E-12	683.990E-3	-32.2307E-3	-97.9948E-12	735.412E-3	-10.4481E-3
-2.64882E-3	-97.2082E-12	691.203E-3	-23.4723E-3	-98.6307E-12	731.529E-3	-19.7147E-3
-2.65383E-3	-97.2089E-12	705.083E-3	-8.53379E-3	-98.5597E-12	725.025E-3	-31.2309E-3
-2.65883E-3	-97.5019E-12	714.707E-3	5.06553E-3	-99.3863E-12	724.875E-3	-31.0004E-3
-2.66383E-3	-98.0764E-12	702.786E-3	3.38305E-3	-100.424E-12	713.122E-3	-18.4612E-3
-2.66883E-3	-98.2152E-12	694.945E-3	-10.1915E-3	-100.517E-12	697.070E-3	-21.8406E-3
-2.67384E-3	-98.0106E-12	709.821E-3	-5.60046E-3	-100.608E-12	694.280E-3	-12.4151E-3
-2.67884E-3	-98.4194E-12	711.026E-3	-4.40627E-3	-100.252E-12	696.646E-3	11.6760E-3
-2.68384E-3	-98.7881E-12	697.504E-3	-28.0285E-3	-100.445E-12	690.576E-3	4.00983E-3
-2.68884E-3	-99.2417E-12	688.033E-3	-38.1961E-3	-100.752E-12	688.107E-3	-15.2414E-3
-2.69385E-3	-98.7917E-12	671.210E-3	-15.1023E-3	-100.857E-12	697.573E-3	-19.9029E-3
-2.69885E-3	-99.2424E-12	654.688E-3	10.2965E-3	-100.397E-12	701.081E-3	-7.81080E-3
-2.70385E-3	-99.5174E-12	665.734E-3	15.1938E-3	-100.802E-12	691.027E-3	11.7398E-3
-2.70885E-3	-100.007E-12	683.756E-3	19.0656E-3	-99.9889E-12	683.527E-3	2.99607E-3
-2.71386E-3	-100.488E-12	685.209E-3	16.3379E-3	-100.020E-12	685.546E-3	-28.6368E-3
-2.71886E-3	-101.386E-12	686.578E-3	-1.21084E-3	-100.629E-12	690.556E-3	-38.4630E-3
-2.72386E-3	-102.168E-12	688.841E-3	-2.97230E-3	-101.211E-12	684.575E-3	-31.6939E-3
-2.72886E-3	-102.363E-12	691.376E-3	8.75752E-3	-100.565E-12	679.512E-3	-25.7493E-3
-2.73387E-3	-103.643E-12	706.173E-3	10.9201E-3	-101.000E-12	697.945E-3	-13.7636E-3
-2.73887E-3	-103.787E-12	720.129E-3	5.10907E-3	-101.851E-12	715.620E-3	-7.38686E-3
-2.74387E-3	-104.109E-12	715.006E-3	-9.87834E-3	-103.568E-12	715.273E-3	-14.3321E-3
-2.74887E-3	-103.992E-12	708.913E-3	-12.7203E-3	-103.448E-12	702.125E-3	-20.6131E-3
-2.75388E-3	-103.894E-12	709.260E-3	-9.22586E-3	-103.355E-12	694.932E-3	-20.2889E-3
-2.75888E-3	-105.024E-12	695.758E-3	-26.4671E-3	-103.685E-12	695.282E-3	-15.2224E-3
-2.76388E-3	-104.497E-12	696.737E-3	-34.0492E-3	-104.360E-12	685.109E-3	-13.0891E-3
-2.76888E-3	-104.128E-12	708.916E-3	-25.2952E-3	-104.571E-12	683.337E-3	-10.0317E-3
-2.77389E-3	-104.558E-12	714.103E-3	-20.4136E-3	-103.634E-12	690.363E-3	-4.52263E-3
-2.77889E-3	-104.939E-12	718.602E-3	-7.62099E-3	-103.790E-12	685.286E-3	-10.3622E-3
-2.78389E-3	-105.153E-12	709.545E-3	1.80622E-3	-103.513E-12	669.487E-3	-14.1711E-3
-2.78889E-3	-104.624E-12	699.595E-3	-5.95694E-3	-104.213E-12	658.997E-3	-15.4483E-3
-2.79390E-3	-105.555E-12	700.056E-3	-16.1278E-3	-104.382E-12	666.647E-3	-15.2921E-3
-2.79890E-3	-106.273E-12	701.999E-3	-9.18139E-3	-104.368E-12	674.045E-3	-9.43656E-3
-2.80390E-3	-106.057E-12	694.938E-3	10.8112E-3	-103.551E-12	673.464E-3	-17.0169E-3
-2.80890E-3	-105.663E-12	692.169E-3	2.46979E-3	-103.922E-12	672.470E-3	-23.9057E-3
-2.81391E-3	-106.375E-12	707.503E-3	-23.3467E-3	-105.033E-12	660.005E-3	-19.5975E-3
-2.81891E-3	-107.821E-12	712.409E-3	-27.5356E-3	-105.337E-12	653.558E-3	-18.4987E-3
-2.82391E-3	-107.245E-12	693.305E-3	-27.4464E-3	-105.091E-12	664.762E-3	-7.50642E-3
-2.82891E-3	-105.879E-12	682.860E-3	-23.6641E-3	-105.743E-12	678.509E-3	3.00293E-3
-2.83392E-3	-106.387E-12	688.544E-3	-13.3096E-3	-106.560E-12	685.317E-3	-3.72451E-3
-2.83892E-3	-107.121E-12	683.779E-3	-27.8755E-3	-106.947E-12	678.387E-3	-12.8448E-3
-2.84392E-3	-107.529E-12	677.809E-3	-43.9857E-3	-107.030E-12	687.815E-3	-13.7122E-3
-2.84892E-3	-105.625E-12	684.874E-3	-35.3378E-3	-107.318E-12	714.103E-3	-14.6124E-3
-2.85393E-3	-105.849E-12	688.553E-3	-23.7510E-3	-107.644E-12	715.537E-3	-9.70751E-3
-2.85893E-3	-106.009E-12	685.146E-3	-14.3983E-3	-108.278E-12	702.450E-3	650.826E-6
-2.86393E-3	-106.677E-12	687.761E-3	-13.5061E-3	-108.247E-12	700.304E-3	-12.8227E-3
-2.86893E-3	-106.506E-12	689.333E-3	-26.4031E-3	-108.235E-12	706.252E-3	-29.5487E-3
-2.87394E-3	-105.934E-12	685.843E-3	-27.8275E-3	-108.580E-12	706.890E-3	-21.1071E-3
-2.87894E-3	-106.427E-12	684.493E-3	-5.54079E-3	-109.212E-12	700.162E-3	-12.0249E-3
-2.88394E-3	-107.045E-12	678.067E-3	-4.43784E-3	-109.393E-12	686.641E-3	-14.0424E-3
-2.88894E-3	-107.795E-12	676.221E-3	-31.7801E-3	-109.179E-12	668.604E-3	-24.2847E-3
-2.89395E-3	-107.929E-12	685.845E-3	-35.5378E-3	-109.586E-12	673.929E-3	-35.2962E-3
-2.89895E-3	-108.157E-12	685.848E-3	-26.6566E-3	-109.603E-12	690.779E-3	-36.7351E-3
-2.90395E-3	-108.759E-12	678.415E-3	-23.0161E-3	-110.401E-12	688.768E-3	-27.4500E-3
-2.90895E-3	-110.023E-12	686.931E-3	-4.44082E-3	-111.100E-12	681.698E-3	-22.2688E-3
-2.91396E-3	-110.539E-12	705.963E-3	6.19953E-3	-111.288E-12	682.729E-3	-24.8160E-3
-2.91896E-3	-109.761E-12	708.863E-3	-7.87769E-3	-111.351E-12	703.993E-3	-14.9925E-3
-2.92396E-3	-110.404E-12	700.555E-3	-12.3844E-3	-111.348E-12	727.298E-3	-2.06587E-3
-2.92896E-3	-110.831E-12	687.899E-3	-16.8979E-3	-112.153E-12	709.609E-3	-5.67929E-3
-2.93397E-3	-111.364E-12	687.808E-3	-41.3851E-3	-112.152E-12	676.469E-3	-13.1808E-3
-2.93897E-3	-110.148E-12	706.107E-3	-36.5964E-3	-112.296E-12	662.600E-3	-14.6599E-3
-2.94397E-3	-110.626E-12	700.880E-3	-7.92000E-3	-111.694E-12	655.836E-3	-23.4708E-3
-2.94897E-3	-110.953E-12	674.043E-3	-12.7948E-3	-111.497E-12	675.845E-3	-27.7393E-3
-2.95398E-3	-112.378E-12	663.723E-3	-22.3551E-3	-111.654E-12	710.149E-3	-19.5969E-3
-2.95898E-3	-111.257E-12	668.427E-3	-9.89460E-3	-111.254E-12	701.737E-3	-15.6909E-3
-2.96398E-3	-111.720E-12	680.506E-3	-17.1485E-3	-111.130E-12	669.667E-3	-13.6782E-3
-2.96898E-3	-112.438E-12	695.615E-3	-32.4593E-3	-111.381E-12	652.985E-3	-13.1342E-3
-2.97399E-3	-113.362E-12	700.724E-3	-17.8951E-3	-112.183E-12	653.247E-3	-15.8419E-3
-2.97899E-3	-114.114E-12	701.376E-3	-1.47580E-3	-112.147E-12	658.416E-3	-10.8642E-3
-2.98399E-3	-113.238E-12	713.359E-3	-4.82504E-3	-112.706E-12	657.264E-3	-332.956E-6
-2.98899E-3	-114.393E-12	715.740E-3	-6.77151E-3	-112.802E-12	647.022E-3	15.3789E-3
-2.99400E-3	-114.257E-12	697.397E-3	-23.4110E-3	-113.038E-12	634.468E-3	23.8286E-3
-2.99900E-3	-114.954E-12	699.388E-3	-42.9425E-3	-113.940E-12	654.150E-3	2.70482E-3
-3.00400E-3	-114.425E-12	704.686E-3	-32.8488E-3	-114.514E-12	692.709E-3	-16.4765E-3
-3.00900E-3	-115.085E-12	679.168E-3	-39.0327E-3	-114.965E-12	704.680E-3	-4.60944E-3
-3.01401E-3	-115.251E-12	675.364E-3	-46.7621E-3	-114.764E-12	707.963E-3	145.456E-6
-3.01901E-3	-114.677E-12	684.072E-3	-29.0077E-3	-116.676E-12	708.314E-3	-17.8352E-3
-3.02401E-3	-115.883E-12	661.102E-3	-35.5749E-3	-116.963E-12	704.103E-3	-27.9640E-3
-3.02901E-3	-114.679E-12	649.304E-3	-40.5264E-3	-116.519E-12	718.060E-3	-26.4314E-3
-3.03402E-3	-115.348E-12	661.985E-3	-17.0322E-3	-115.977E-12	719.262E-3	-14.4225E-3
-3.03902E-3	-114.720E-12	671.454E-3	-19.7463E-3	-115.965E-12	693.004E-3	184.876E-6
-3.04402E-3	-115.547E-12	678.699E-3	-39.4020E-3	-117.279E-12	686.869E-3	-3.06403E-3
-3.04902E-3	-115.479E-12	676.348E-3	-36.3788E-3	-116.524E-12	707.688E-3	-13.1106E-3
-3.05403E-3	-115.449E-12	662.838E-3	-24.9007E-3	-116.876E-12	720.532E-3	-20.8485E-3
-3.05903E-3	-115.765E-12	668.561E-3	-18.2531E-3	-116.516E-12	715.747E-3	-32.8741E-3
-3.06403E-3	-115.915E-12	676.873E-3	680.202E-6	-118.068E-12	700.949E-3	-39.2160E-3
-3.06903E-3	-116.210E-12	666.904E-3	15.9342E-3	-117.709E-12	693.342E-3	-24.0800E-3
-3.07404E-3	-116.084E-12	674.645E-3	-1.22238E-3	-117.946E-12	694.299E-3	3.03451E-3
-3.07904E-3	-116.603E-12	697.580E-3	-16.4758E-3	-118.430E-12	697.887E-3	15.7556E-3
-3.08404E-3	-116.639E-12	698.199E-3	-28.2600E-3	-119.314E-12	702.384E-3	3.13238E-3
-3.08904E-3	-117.251E-12	690.914E-3	-42.2992E-3	-120.416E-12	698.135E-3	-19.7872E-3
-3.09405E-3	-117.681E-12	690.685E-3	-19.9419E-3	-119.472E-12	697.100E-3	-36.6856E-3
-3.09905E-3	-117.635E-12	669.606E-3	16.4574E-3	-120.365E-12	695.430E-3	-50.1123E-3
-3.10405E-3	-117.952E-12	652.065E-3	9.09083E-3	-120.573E-12	669.927E-3	-54.0012E-3
-3.10905E-3	-118.128E-12	656.274E-3	-17.7261E-3	-121.455E-12	650.621E-3	-40.2702E-3
-3.11406E-3	-118.307E-12	662.616E-3	-15.7708E-3	-121.463E-12	664.103E-3	-19.1552E-3
-3.11906E-3	-118.614E-12	672.455E-3	-4.59200E-3	-120.917E-12	681.345E-3	-18.8805E-3
-3.12406E-3	-118.535E-12	678.457E-3	-2.77107E-3	-120.846E-12	687.767E-3	-22.3592E-3
-3.12906E-3	-119.473E-12	665.404E-3	-9.94542E-3	-120.252E-12	687.780E-3	-16.5955E-3
-3.13407E-3	-120.121E-12	648.881E-3	-22.3693E-3	-120.377E-12	676.753E-3	-27.8205E-3
-3.13907E-3	-120.542E-12	671.087E-3	-30.9673E-3	-120.505E-12	666.938E-3	-45.5639E-3
-3.14407E-3	-120.919E-12	692.805E-3	-27.6327E-3	-121.493E-12	664.861E-3	-41.2868E-3
-3.14907E-3	-121.048E-12	674.431E-3	-18.9192E-3	-121.108E-12	667.102E-3	-8.97342E-3
-3.15408E-3	-121.514E-12	658.853E-3	-13.4860E-3	-121.008E-12	674.830E-3	9.98295E-3
-3.15908E-3	-121.745E-12	659.563E-3	-4.29548E-3	-121.684E-12	672.765E-3	3.75914E-3
-3.16408E-3	-122.555E-12	660.546E-3	-6.84392E-3	-122.133E-12	667.147E-3	7.19680E-3
-3.16908E-3	-123.106E-12	668.310E-3	-8.94728E-3	-123.596E-12	676.217E-3	18.3466E-3
-3.17409E-3	-122.648E-12	670.055E-3	3.72395E-3	-122.900E-12	688.532E-3	7.44197E-3
-3.17909E-3	-122.564E-12	664.337E-3	-6.20957E-3	-123.259E-12	692.601E-3	-10.2270E-3
-3.18409E-3	-123.252E-12	679.501E-3	-4.93120E-3	-123.529E-12	691.444E-3	1.66316E-3
-3.18909E-3	-123.587E-12	687.090E-3	23.2692E-3	-124.155E-12	686.000E-3	9.60117E-3
-3.19410E-3	-122.909E-12	675.658E-3	4.94428E-3	-123.386E-12	675.728E-3	-3.18514E-3
-3.19910E-3	-123.387E-12	680.879E-3	-35.9697E-3	-123.250E-12	672.169E-3	-23.1715E-3
-3.20410E-3	-123.712E-12	672.935E-3	-43.1817E-3	-123.592E-12	681.126E-3	-42.3860E-3
-3.20910E-3	-124.330E-12	640.092E-3	-32.7216E-3	-123.751E-12	676.424E-3	-28.0152E-3
-3.21411E-3	-123.557E-12	638.328E-3	-28.5121E-3	-123.412E-12	660.872E-3	4.27750E-3
-3.21911E-3	-124.081E-12	656.554E-3	-19.9043E-3	-122.599E-12	661.402E-3	6.10629E-3
-3.22411E-3	-124.376E-12	655.897E-3	-16.4621E-3	-122.799E-12	668.069E-3	-3.34263E-3
-3.22911E-3	-124.987E-12	666.372E-3	-20.5488E-3	-122.670E-12	671.948E-3	1.25005E-3
-3.23412E-3	-124.594E-12	677.114E-3	-5.77734E-3	-123.085E-12	665.197E-3	-5.84440E-3
-3.23912E-3	-124.918E-12	655.901E-3	-9.25599E-3	-123.957E-12	658.583E-3	-26.8662E-3
-3.24412E-3	-125.589E-12	646.286E-3	-35.8745E-3	-123.672E-12	673.764E-3	-35.0079E-3
-3.24912E-3	-125.848E-12	659.586E-3	-26.4060E-3	-123.725E-12	676.278E-3	-24.0752E-3
-3.25413E-3	-125.877E-12	660.577E-3	-1.67581E-3	-124.341E-12	658.362E-3	-8.85594E-3
-3.25913E-3	-125.238E-12	660.187E-3	6.88150E-3	-125.780E-12	657.541E-3	-1.68287E-3
-3.26413E-3	-126.142E-12	671.957E-3	41.3785E-3	-125.748E-12	669.595E-3	-9.36518E-3
-3.26913E-3	-125.708E-12	670.165E-3	72.7701E-3	-125.632E-12	669.690E-3	-22.4255E-3
-3.27414E-3	-125.986E-12	668.906E-3	36.9505E-3	-125.983E-12	670.464E-3	-22.7950E-3
-3.27914E-3	-124.904E-12	673.570E-3	-10.3999E-3	-126.976E-12	672.620E-3	-21.5099E-3
-3.28414E-3	-125.768E-12	656.057E-3	-7.59936E-3	-127.617E-12	654.520E-3	-25.3887E-3
-3.28914E-3	-126.277E-12	656.606E-3	8.02579E-3	-127.741E-12	657.238E-3	-19.1818E-3
-3.29415E-3	-126.638E-12	677.040E-3	17.4031E-3	-127.661E-12	686.211E-3	-8.25530E-3
-3.29915E-3	-126.007E-12	674.488E-3	26.9960E-3	-127.501E-12	684.357E-3	-8.30996E-3
-3.30415E-3	-125.602E-12	664.179E-3	12.3486E-3	-128.691E-12	666.463E-3	-24.6992E-3
-3.30915E-3	-126.709E-12	661.783E-3	-11.2353E-3	-128.003E-12	675.885E-3	-40.6471E-3
-3.31416E-3	-128.253E-12	661.034E-3	-15.9019E-3	-127.724E-12	692.411E-3	-31.9142E-3
-3.31916E-3	-127.793E-12	668.566E-3	-27.6330E-3	-127.889E-12	677.737E-3	-21.5252E-3
-3.32416E-3	-127.501E-12	693.159E-3	-49.5878E-3	-129.598E-12	658.091E-3	-29.4016E-3
-3.32916E-3	-128.697E-12	687.538E-3	-48.0489E-3	-129.384E-12	666.338E-3	-40.5160E-3
-3.33417E-3	-130.266E-12	646.733E-3	-40.1407E-3	-128.358E-12	684.147E-3	-42.9042E-3
-3.33917E-3	-130.831E-12	638.739E-3	-31.0977E-3	-128.783E-12	680.651E-3	-31.7554E-3
-3.34417E-3	-130.842E-12	664.421E-3	-12.6881E-3	-129.854E-12	657.897E-3	-11.5933E-3
-3.34917E-3	-130.356E-12	677.133E-3	-20.7609E-3	-131.373E-12	644.672E-3	10.2298E-3
-3.35418E-3	-131.113E-12	694.543E-3	-44.2577E-3	-130.214E-12	662.677E-3	12.8262E-3
-3.35918E-3	-131.231E-12	707.693E-3	-35.5063E-3	-130.095E-12	691.249E-3	-13.6767E-3
-3.36418E-3	-131.384E-12	684.146E-3	-10.0306E-3	-130.434E-12	686.493E-3	-28.4197E-3
-3.36918E-3	-131.579E-12	666.900E-3	18.7988E-6	-131.725E-12	671.489E-3	-10.1798E-3
-3.37419E-3	-131.204E-12	672.301E-3	-2.55968E-3	-130.818E-12	662.065E-3	-6.07157E-3
-3.37919E-3	-131.752E-12	674.687E-3	-15.8761E-3	-130.572E-12	649.905E-3	-27.2710E-3
-3.38419E-3	-131.667E-12	676.552E-3	-31.8439E-3	-130.718E-12	662.170E-3	-36.1975E-3
-3.38919E-3	-131.913E-12	681.791E-3	-18.4128E-3	-130.926E-12	681.098E-3	-40.8364E-3
-3.39420E-3	-131.348E-12	678.305E-3	14.6466E-3	-131.475E-12	676.303E-3	-39.6650E-3
-3.39920E-3	-132.089E-12	679.123E-3	17.1465E-3	-130.970E-12	669.127E-3	-27.0184E-3
-3.40420E-3	-131.990E-12	681.107E-3	3.34267E-3	-131.408E-12	674.662E-3	-24.9036E-3
-3.40920E-3	-132.988E-12	659.233E-3	-6.31975E-3	-132.141E-12	667.694E-3	-19.5640E-3
-3.41421E-3	-133.425E-12	642.815E-3	-13.2549E-3	-132.695E-12	662.491E-3	-15.6774E-3
-3.41921E-3	-134.135E-12	639.700E-3	-2.09948E-3	-132.463E-12	686.559E-3	-15.1377E-3
-3.42421E-3	-134.435E-12	640.448E-3	-13.5104E-3	-132.613E-12	685.496E-3	-8.70789E-3
-3.42921E-3	-134.415E-12	682.891E-3	-42.5535E-3	-133.141E-12	652.977E-3	-11.9918E-3
-3.43422E-3	-134.343E-12	725.065E-3	-57.0904E-3	-133.733E-12	654.795E-3	-26.0647E-3
-3.43922E-3	-134.656E-12	695.951E-3	-58.3733E-3	-133.267E-12	674.666E-3	-30.7922E-3
-3.44422E-3	-134.952E-12	655.034E-3	-27.0189E-3	-133.395E-12	661.884E-3	-16.2410E-3
-3.44922E-3	-134.511E-12	655.145E-3	13.8372E-3	-134.362E-12	642.213E-3	1.96893E-3
-3.45423E-3	-134.936E-12	663.490E-3	22.8352E-3	-134.768E-12	649.302E-3	-4.51070E-3
-3.45923E-3	-134.394E-12	669.438E-3	-7.26730E-3	-134.752E-12	666.489E-3	-18.9168E-3
-3.46423E-3	-134.216E-12	669.223E-3	-26.3012E-3	-134.638E-12	670.332E-3	-24.5447E-3
-3.46923E-3	-134.674E-12	648.970E-3	-16.2378E-3	-134.770E-12	658.033E-3	-30.0419E-3
-3.47424E-3	-135.391E-12	644.601E-3	-19.0811E-3	-135.450E-12	670.036E-3	-28.0756E-3
-3.47924E-3	-136.066E-12	672.036E-3	-33.6956E-3	-135.765E-12	700.970E-3	-28.8294E-3
-3.48424E-3	-134.782E-12	683.604E-3	-33.8038E-3	-136.498E-12	699.506E-3	-29.8781E-3
-3.48924E-3	-134.850E-12	669.275E-3	-34.4258E-3	-137.167E-12	683.749E-3	-15.8101E-3
-3.49425E-3	-134.928E-12	647.667E-3	-31.9742E-3	-137.461E-12	694.495E-3	-7.51999E-3
-3.49925E-3	-135.746E-12	632.302E-3	-22.5304E-3	-137.150E-12	702.591E-3	-12.2469E-3
-3.50425E-3	-135.626E-12	641.401E-3	-36.1463E-3	-137.748E-12	694.459E-3	3.09883E-3
-3.50925E-3	-136.403E-12	653.717E-3	-35.2337E-3	-138.576E-12	688.437E-3	23.0281E-3
-3.51426E-3	-136.737E-12	655.599E-3	-28.2366E-3	-138.582E-12	671.982E-3	1.77686E-3
-3.51926E-3	-137.116E-12	655.065E-3	-35.6717E-3	-139.653E-12	653.674E-3	-21.4412E-3
-3.52426E-3	-138.183E-12	659.972E-3	-3.17962E-3	-139.089E-12	653.940E-3	7.55913E-3
-3.52926E-3	-137.231E-12	675.480E-3	14.8540E-3	-139.247E-12	664.545E-3	33.2408E-3
-3.53427E-3	-137.529E-12	685.218E-3	-24.9096E-3	-139.444E-12	668.075E-3	5.88811E-3
-3.53927E-3	-137.033E-12	677.115E-3	-53.9828E-3	-140.214E-12	670.745E-3	-27.0435E-3
-3.54427E-3	-138.147E-12	646.335E-3	-61.7520E-3	-140.019E-12	685.628E-3	-30.2700E-3
-3.54927E-3	-138.437E-12	628.725E-3	-52.1473E-3	-139.248E-12	695.796E-3	-15.0021E-3
-3.55428E-3	-138.393E-12	642.256E-3	-27.7852E-3	-138.888E-12	672.997E-3	-9.54676E-3
-3.55928E-3	-138.491E-12	644.766E-3	-8.28678E-3	-139.223E-12	641.408E-3	-17.2281E-3
-3.56428E-3	-140.315E-12	633.362E-3	-5.44025E-3	-139.173E-12	633.017E-3	-9.08128E-3
-3.56928E-3	-141.146E-12	639.144E-3	-17.7075E-3	-138.903E-12	642.761E-3	-14.8982E-3
-3.57429E-3	-140.473E-12	660.506E-3	-14.7289E-3	-138.626E-12	664.324E-3	-24.3097E-3
-3.57929E-3	-140.468E-12	677.469E-3	898.533E-6	-138.829E-12	677.674E-3	-15.6474E-3
-3.58429E-3	-141.223E-12	678.632E-3	2.83241E-3	-138.938E-12	680.631E-3	-21.5581E-3
-3.58929E-3	-143.425E-12	656.934E-3	-3.19680E-3	-139.781E-12	679.865E-3	-18.6462E-3
-3.59430E-3	-142.068E-12	642.030E-3	-20.1603E-3	-139.469E-12	672.417E-3	-1.46314E-3
-3.59930E-3	-141.583E-12	666.930E-3	-16.5604E-3	-140.446E-12	676.570E-3	-2.44234E-3
-3.60430E-3	-141.663E-12	687.465E-3	16.6774E-3	-140.815E-12	678.984E-3	-20.4220E-3
-3.60930E-3	-142.894E-12	674.105E-3	1.57225E-3	-141.411E-12	679.520E-3	-8.87273E-3
-3.61431E-3	-142.788E-12	666.471E-3	-42.4674E-3	-140.891E-12	686.926E-3	16.3218E-3
-3.61931E-3	-141.959E-12	670.078E-3	-41.1239E-3	-141.826E-12	674.152E-3	6.98473E-3
-3.62431E-3	-141.643E-12	666.916E-3	-26.5344E-3	-142.863E-12	658.673E-3	-4.20231E-3
-3.62931E-3	-142.127E-12	683.906E-3	-33.1047E-3	-143.128E-12	671.513E-3	-3.03739E-3
-3.63432E-3	-143.216E-12	704.916E-3	-31.1227E-3	-142.480E-12	681.405E-3	-17.1622E-3
-3.63932E-3	-142.438E-12	684.409E-3	-18.6336E-3	-141.876E-12	667.529E-3	-31.8281E-3
-3.64432E-3	-141.708E-12	673.288E-3	-3.90861E-3	-142.690E-12	667.388E-3	-35.2820E-3
-3.64932E-3	-142.687E-12	688.763E-3	10.5548E-3	-143.053E-12	677.545E-3	-42.5415E-3
-3.65433E-3	-143.528E-12	682.968E-3	394.723E-6	-142.565E-12	657.340E-3	-39.3800E-3
-3.65933E-3	-145.225E-12	680.195E-3	-32.1613E-3	-141.871E-12	633.063E-3	-34.0797E-3
-3.66433E-3	-144.157E-12	688.486E-3	-50.4658E-3	-141.805E-12	639.873E-3	-40.6945E-3
-3.66933E-3	-143.530E-12	667.950E-3	-45.7293E-3	-142.867E-12	650.024E-3	-37.4909E-3
-3.67434E-3	-144.306E-12	651.509E-3	-36.6698E-3	-142.938E-12	646.075E-3	-29.2445E-3
-3.67934E-3	-145.112E-12	668.061E-3	-34.1984E-3	-143.605E-12	629.627E-3	-27.9227E-3
-3.68434E-3	-145.440E-12	668.970E-3	-23.7227E-3	-143.262E-12	615.995E-3	-29.8596E-3
-3.68934E-3	-144.754E-12	650.355E-3	-12.2883E-3	-144.987E-12	644.626E-3	-21.6141E-3
-3.69435E-3	-145.205E-12	647.017E-3	-3.26152E-3	-144.786E-12	687.354E-3	-5.71086E-3
-3.69935E-3	-145.257E-12	644.830E-3	7.16995E-3	-145.917E-12	706.700E-3	6.06750E-3
-3.70435E-3	-145.023E-12	647.499E-3	658.962E-6	-145.649E-12	695.002E-3	21.7683E-3
-3.70935E-3	-144.497E-12	670.296E-3	8.12938E-3	-146.660E-12	664.122E-3	16.8873E-3
-3.71436E-3	-144.213E-12	664.246E-3	18.4667E-3	-147.300E-12	645.266E-3	9.87111E-3
-3.71936E-3	-144.693E-12	628.351E-3	-17.6341E-3	-147.320E-12	639.791E-3	13.0939E-3
-3.72436E-3	-145.406E-12	624.291E-3	-46.6124E-3	-147.972E-12	652.408E-3	-4.49312E-3
-3.72936E-3	-146.517E-12	640.347E-3	-20.4964E-3	-147.745E-12	680.335E-3	-22.0926E-3
-3.73437E-3	-145.885E-12	661.340E-3	897.688E-6	-148.333E-12	684.154E-3	-6.53240E-3
-3.73937E-3	-146.343E-12	681.967E-3	-862.096E-6	-148.477E-12	672.410E-3	16.2550E-3
-3.74437E-3	-146.862E-12	665.735E-3	7.57282E-3	-149.407E-12	669.540E-3	3.23078E-3
-3.74937E-3	-148.374E-12	647.730E-3	-4.86824E-3	-149.620E-12	660.714E-3	-4.99929E-3
-3.75438E-3	-148.634E-12	660.582E-3	-25.8876E-3	-149.159E-12	654.783E-3	4.98908E-3
-3.75938E-3	-148.749E-12	676.897E-3	-10.0952E-3	-148.918E-12	657.966E-3	-10.4551E-3
-3.76438E-3	-149.409E-12	688.981E-3	-4.05606E-3	-149.406E-12	662.269E-3	-31.4642E-3
-3.76938E-3	-150.357E-12	704.663E-3	-31.6995E-3	-149.269E-12	671.566E-3	-12.5937E-3
-3.77439E-3	-150.683E-12	703.686E-3	-40.6025E-3	-149.223E-12	677.191E-3	14.8942E-3
-3.77939E-3	-149.914E-12	678.639E-3	-39.4269E-3	-149.256E-12	671.423E-3	5.63379E-3
-3.78439E-3	-150.481E-12	669.496E-3	-43.6885E-3	-150.286E-12	656.585E-3	3.12118E-3
-3.78939E-3	-150.384E-12	679.569E-3	-16.0700E-3	-150.414E-12	650.231E-3	1.38279E-3
-3.79440E-3	-150.221E-12	671.825E-3	-1.15771E-3	-150.016E-12	655.269E-3	-28.5991E-3
-3.79940E-3	-150.371E-12	661.546E-3	-27.1331E-3	-150.840E-12	653.844E-3	-41.8518E-3
-3.80440E-3	-149.774E-12	664.347E-3	-12.8538E-3	-151.004E-12	644.510E-3	-37.9427E-3
-3.80940E-3	-150.379E-12	655.119E-3	23.2086E-3	-150.690E-12	624.835E-3	-31.9811E-3
-3.81441E-3	-149.986E-12	649.561E-3	3.79639E-3	-149.717E-12	615.976E-3	-22.6155E-3
-3.81941E-3	-149.889E-12	657.314E-3	-24.8694E-3	-151.244E-12	615.595E-3	-23.0269E-3
-3.82441E-3	-149.781E-12	650.809E-3	-39.2667E-3	-151.264E-12	608.762E-3	-27.7459E-3
-3.82941E-3	-151.683E-12	647.346E-3	-49.1133E-3	-150.936E-12	627.698E-3	-13.6855E-3
-3.83442E-3	-151.690E-12	647.255E-3	-25.3816E-3	-150.673E-12	647.343E-3	2.49106E-3
-3.83942E-3	-151.989E-12	649.583E-3	-2.14966E-3	-150.894E-12	623.993E-3	2.45173E-3
-3.84442E-3	-152.309E-12	667.535E-3	2.30333E-3	-151.143E-12	615.177E-3	6.79812E-3
-3.84942E-3	-152.793E-12	670.346E-3	17.0125E-3	-150.663E-12	650.526E-3	14.1044E-3
-3.85443E-3	-153.001E-12	658.071E-3	21.6651E-3	-151.391E-12	675.306E-3	24.7684E-3
-3.85943E-3	-152.398E-12	671.987E-3	-392.221E-6	-151.395E-12	680.234E-3	38.3857E-3
-3.86443E-3	-152.529E-12	706.790E-3	-28.1018E-3	-153.400E-12	681.394E-3	29.2453E-3
-3.86943E-3	-152.263E-12	703.034E-3	-37.6797E-3	-153.081E-12	670.251E-3	13.2255E-3
-3.87444E-3	-152.583E-12	657.977E-3	-38.1337E-3	-154.145E-12	645.587E-3	15.2619E-3
-3.87944E-3	-153.086E-12	643.300E-3	-27.3404E-3	-153.885E-12	634.929E-3	7.00539E-3
-3.88444E-3	-152.562E-12	667.185E-3	-2.07686E-3	-154.315E-12	651.193E-3	-12.8007E-3
-3.88944E-3	-152.049E-12	689.966E-3	-1.84055E-3	-154.154E-12	664.803E-3	-28.5941E-3
-3.89445E-3	-151.758E-12	692.710E-3	-11.4267E-3	-153.956E-12	661.432E-3	-43.3687E-3
-3.89945E-3	-151.927E-12	667.986E-3	-24.0203E-3	-155.580E-12	655.198E-3	-37.3923E-3
-3.90445E-3	-151.748E-12	648.316E-3	-54.8292E-3	-154.366E-12	648.629E-3	-23.1389E-3
-3.90945E-3	-152.757E-12	645.420E-3	-53.2916E-3	-155.186E-12	638.228E-3	-12.1596E-3
-3.91446E-3	-152.773E-12	642.555E-3	-20.6038E-3	-155.178E-12	638.359E-3	3.22477E-3
-3.91946E-3	-153.405E-12	644.014E-3	-15.9915E-3	-156.709E-12	647.295E-3	5.50664E-3
-3.92446E-3	-153.454E-12	651.781E-3	-24.8654E-3	-156.283E-12	659.451E-3	-3.28727E-3
-3.92946E-3	-154.871E-12	657.966E-3	-17.4409E-3	-155.222E-12	662.138E-3	-29.2240E-3
-3.93447E-3	-154.851E-12	665.591E-3	-18.9270E-3	-155.754E-12	642.853E-3	-56.5860E-3
-3.93947E-3	-155.153E-12	682.481E-3	-26.4813E-3	-157.026E-12	649.164E-3	-57.9724E-3
-3.94447E-3	-155.536E-12	675.103E-3	-31.4037E-3	-157.978E-12	687.684E-3	-37.2389E-3
-3.94947E-3	-156.881E-12	642.692E-3	-37.8239E-3	-157.187E-12	701.175E-3	-13.8613E-3
-3.95448E-3	-157.083E-12	637.409E-3	-37.3686E-3	-157.132E-12	681.387E-3	-12.3964E-3
-3.95948E-3	-157.109E-12	653.982E-3	-17.7692E-3	-158.346E-12	669.088E-3	-13.3762E-3
-3.96448E-3	-157.367E-12	655.881E-3	-1.88685E-3	-159.511E-12	676.231E-3	-5.43551E-3
-3.96948E-3	-158.385E-12	646.672E-3	-20.0036E-3	-158.643E-12	679.328E-3	-1.18196E-3
-3.97449E-3	-158.575E-12	646.676E-3	-28.5113E-3	-157.085E-12	662.032E-3	1.54600E-3
-3.97949E-3	-159.002E-12	647.962E-3	-33.3065E-3	-159.413E-12	639.389E-3	-76.4254E-6
-3.98449E-3	-158.139E-12	654.416E-3	-49.5258E-3	-159.598E-12	643.896E-3	-426.610E-6
-3.98949E-3	-158.411E-12	664.981E-3	-48.1397E-3	-159.142E-12	662.151E-3	5.60698E-3
-3.99450E-3	-158.597E-12	655.932E-3	-48.3307E-3	-157.749E-12	666.237E-3	4.02427E-3
-3.99950E-3	-159.648E-12	645.588E-3	-38.7124E-3	-158.451E-12	661.749E-3	851.152E-6
-4.00450E-3	-159.851E-12	649.750E-3	-22.4735E-3	-160.051E-12	670.128E-3	-3.99663E-3
-4.00950E-3	-159.753E-12	659.151E-3	-30.2401E-3	-159.136E-12	685.758E-3	-16.2984E-3
-4.01451E-3	-160.465E-12	673.439E-3	-43.4261E-3	-158.164E-12	684.122E-3	-32.6754E-3
-4.01951E-3	-161.159E-12	678.064E-3	-37.5151E-3	-158.864E-12	669.140E-3	-44.6229E-3
-4.02451E-3	-161.591E-12	664.800E-3	-23.4690E-3	-160.638E-12	655.681E-3	-33.7642E-3
-4.02951E-3	-161.653E-12	664.703E-3	-25.0057E-3	-160.755E-12	649.677E-3	-11.5413E-3
-4.03452E-3	-161.634E-12	672.642E-3	-12.8966E-3	-159.690E-12	648.506E-3	-3.99843E-3
-4.03952E-3	-161.441E-12	663.006E-3	-21.3228E-3	-160.289E-12	669.214E-3	-15.4854E-3
-4.04452E-3	-160.991E-12	659.813E-3	-82.8644E-3	-161.436E-12	708.363E-3	-31.6329E-3
-4.04952E-3	-160.695E-12	653.919E-3	-82.9192E-3	-163.254E-12	719.552E-3	-29.4943E-3
-4.05453E-3	-161.217E-12	629.781E-3	-25.8450E-3	-162.259E-12	716.817E-3	-4.72818E-3
-4.05953E-3	-161.113E-12	626.253E-3	-6.89106E-3	-161.808E-12	712.353E-3	3.62276E-3
-4.06453E-3	-161.173E-12	644.553E-3	7.21322E-3	-161.935E-12	686.795E-3	-22.9371E-3
-4.06953E-3	-161.089E-12	655.410E-3	11.2646E-3	-162.703E-12	674.358E-3	-45.2339E-3
-4.07454E-3	-161.225E-12	669.480E-3	-41.2063E-3	-162.778E-12	675.951E-3	-47.2638E-3
-4.07954E-3	-161.707E-12	686.540E-3	-71.0694E-3	-161.552E-12	671.815E-3	-42.1616E-3
-4.08454E-3	-161.898E-12	665.758E-3	-39.7371E-3	-162.004E-12	677.141E-3	-29.9975E-3
-4.08954E-3	-161.850E-12	661.137E-3	-27.6551E-3	-161.952E-12	676.480E-3	-28.8444E-3
-4.09455E-3	-162.622E-12	694.905E-3	-39.7995E-3	-163.402E-12	666.951E-3	-32.2305E-3
-4.09955E-3	-164.313E-12	688.553E-3	-46.9448E-3	-163.034E-12	670.882E-3	-18.2020E-3
-4.10455E-3	-163.987E-12	660.307E-3	-62.4290E-3	-163.916E-12	683.767E-3	-4.73120E-3
-4.10955E-3	-163.692E-12	653.641E-3	-52.9816E-3	-163.595E-12	674.528E-3	-11.4400E-3
-4.11456E-3	-164.594E-12	635.109E-3	-23.1711E-3	-164.473E-12	659.682E-3	-27.9167E-3
-4.11956E-3	-164.311E-12	601.130E-3	-21.5116E-3	-165.385E-12	668.638E-3	-13.4884E-3
-4.12456E-3	-163.618E-12	611.727E-3	-31.2571E-3	-166.019E-12	670.069E-3	377.075E-6
-4.12956E-3	-163.183E-12	644.484E-3	-40.8306E-3	-166.741E-12	656.288E-3	-23.8002E-3
-4.13457E-3	-163.307E-12	655.983E-3	-41.6128E-3	-167.348E-12	656.408E-3	-33.4353E-3
-4.13957E-3	-164.225E-12	664.912E-3	-21.8970E-3	-168.006E-12	677.086E-3	-2.98052E-3
-4.14457E-3	-164.699E-12	657.965E-3	-4.57793E-3	-168.126E-12	678.887E-3	24.6942E-3
-4.14957E-3	-163.839E-12	654.599E-3	1.86507E-3	-167.560E-12	646.375E-3	21.0613E-3
-4.15458E-3	-164.372E-12	670.855E-3	1.24264E-3	-167.045E-12	624.537E-3	2.87912E-3
-4.15958E-3	-164.696E-12	659.271E-3	3.70923E-3	-167.157E-12	641.717E-3	-17.4061E-3
-4.16458E-3	-165.866E-12	631.370E-3	3.02443E-3	-167.648E-12	668.100E-3	-25.1149E-3
-4.16958E-3	-166.615E-12	639.107E-3	-9.11007E-3	-167.513E-12	677.624E-3	-26.3285E-3
-4.17459E-3	-167.285E-12	673.233E-3	-14.4942E-3	-166.618E-12	655.668E-3	-31.4601E-3
-4.17959E-3	-168.125E-12	689.509E-3	-23.6884E-3	-166.981E-12	619.545E-3	-15.1715E-3
-4.18459E-3	-168.216E-12	693.100E-3	-31.9864E-3	-167.258E-12	612.773E-3	12.5238E-3
-4.18959E-3	-169.295E-12	700.059E-3	-14.2341E-3	-167.316E-12	614.946E-3	26.2313E-3
-4.19460E-3	-169.448E-12	697.323E-3	-5.19733E-3	-167.219E-12	641.262E-3	27.7436E-3
-4.19960E-3	-169.881E-12	681.619E-3	-26.4225E-3	-167.859E-12	689.329E-3	11.2619E-3
-4.20460E-3	-169.429E-12	666.531E-3	-49.3195E-3	-169.549E-12	686.825E-3	-14.8847E-3
-4.20960E-3	-169.669E-12	645.177E-3	-41.4041E-3	-169.388E-12	663.622E-3	-24.4135E-3
-4.21461E-3	-169.399E-12	643.326E-3	-2.56714E-3	-169.277E-12	667.128E-3	-22.2140E-3
-4.21961E-3	-168.691E-12	688.098E-3	20.7211E-3	-168.893E-12	672.121E-3	-11.4323E-3
-4.22461E-3	-168.272E-12	707.474E-3	23.0251E-3	-169.425E-12	667.205E-3	-8.28358E-3
-4.22961E-3	-167.979E-12	681.828E-3	-6.32677E-3	-169.062E-12	665.504E-3	-25.1046E-3
-4.23462E-3	-168.746E-12	648.732E-3	-35.6774E-3	-169.474E-12	657.009E-3	-30.1141E-3
-4.23962E-3	-169.194E-12	628.794E-3	-24.8535E-3	-169.896E-12	645.713E-3	-26.9216E-3
-4.24462E-3	-168.858E-12	646.153E-3	-20.8591E-3	-169.245E-12	643.270E-3	-23.9199E-3
-4.24962E-3	-169.676E-12	674.455E-3	-12.2420E-3	-169.219E-12	644.999E-3	-22.8902E-3
-4.25463E-3	-170.711E-12	664.429E-3	-4.54690E-3	-169.588E-12	636.546E-3	-25.7258E-3
-4.25963E-3	-171.420E-12	641.556E-3	-25.4205E-3	-169.666E-12	616.665E-3	-14.9155E-3
-4.26463E-3	-171.225E-12	648.944E-3	-21.6366E-3	-169.717E-12	622.551E-3	-1.31649E-3
-4.26963E-3	-170.208E-12	646.529E-3	2.28699E-3	-170.436E-12	638.408E-3	5.74650E-3
-4.27464E-3	-171.917E-12	642.161E-3	3.58683E-3	-170.576E-12	662.984E-3	5.49938E-3
-4.27964E-3	-174.126E-12	664.114E-3	-5.06063E-3	-170.728E-12	698.239E-3	-22.1501E-3
-4.28464E-3	-173.783E-12	674.631E-3	-10.4905E-3	-170.567E-12	693.643E-3	-45.4043E-3
-4.28964E-3	-171.891E-12	679.291E-3	-21.4340E-3	-170.884E-12	672.726E-3	-42.1980E-3
-4.29465E-3	-172.999E-12	688.193E-3	-23.5590E-3	-171.020E-12	676.486E-3	-46.0089E-3
-4.29965E-3	-174.076E-12	669.500E-3	-4.39257E-3	-171.705E-12	667.156E-3	-52.6529E-3
-4.30465E-3	-174.165E-12	648.585E-3	808.968E-6	-172.206E-12	638.757E-3	-42.9968E-3
-4.30965E-3	-171.854E-12	648.986E-3	-9.12067E-3	-173.638E-12	637.140E-3	-9.48361E-3
-4.31466E-3	-171.551E-12	645.878E-3	-23.0592E-3	-173.713E-12	646.337E-3	14.7382E-3
-4.31966E-3	-172.287E-12	643.262E-3	-40.5067E-3	-173.174E-12	627.229E-3	461.836E-6
-4.32466E-3	-172.952E-12	667.262E-3	-31.6665E-3	-173.622E-12	613.742E-3	-14.3710E-3
-4.32966E-3	-172.440E-12	691.528E-3	-12.4212E-3	-173.898E-12	640.818E-3	-1.77627E-3
-4.33467E-3	-171.569E-12	678.815E-3	-19.1917E-3	-174.193E-12	666.514E-3	3.19401E-3
-4.33967E-3	-172.453E-12	655.200E-3	-9.40489E-3	-173.932E-12	654.291E-3	-25.6641E-3
-4.34467E-3	-173.738E-12	646.723E-3	30.9355E-3	-173.767E-12	642.836E-3	-29.2476E-3
-4.34967E-3	-174.387E-12	651.737E-3	27.2377E-3	-175.680E-12	658.143E-3	2.41251E-3
-4.35468E-3	-173.850E-12	664.544E-3	-1.69522E-3	-175.475E-12	667.888E-3	2.81960E-3
-4.35968E-3	-174.805E-12	670.384E-3	8.62485E-3	-175.085E-12	666.360E-3	-23.6403E-3
-4.36468E-3	-176.316E-12	659.140E-3	2.74454E-3	-174.947E-12	663.100E-3	-10.9769E-3
-4.36968E-3	-178.177E-12	658.031E-3	-19.0188E-3	-175.811E-12	652.744E-3	33.5331E-3
-4.37469E-3	-178.676E-12	669.577E-3	-17.5662E-3	-176.367E-12	642.924E-3	21.9810E-3
-4.37969E-3	-176.754E-12	661.201E-3	-20.8489E-3	-175.873E-12	640.861E-3	-10.0238E-3
-4.38469E-3	-177.211E-12	651.242E-3	-17.7936E-3	-175.579E-12	660.790E-3	-10.8715E-3
-4.38969E-3	-179.357E-12	666.350E-3	163.313E-6	-176.044E-12	706.786E-3	-27.1253E-3
-4.39470E-3	-180.532E-12	684.179E-3	13.7326E-3	-176.120E-12	723.024E-3	-51.4506E-3
-4.39970E-3	-178.354E-12	684.639E-3	294.799E-6	-176.025E-12	681.170E-3	-65.4953E-3
-4.40470E-3	-177.302E-12	669.916E-3	-27.9840E-3	-176.254E-12	637.076E-3	-74.7543E-3
-4.40970E-3	-178.119E-12	633.197E-3	-41.1801E-3	-177.124E-12	630.127E-3	-59.8407E-3
-4.41471E-3	-178.967E-12	627.001E-3	-47.6774E-3	-176.698E-12	644.412E-3	-49.3598E-3
-4.41971E-3	-178.583E-12	682.594E-3	-43.1337E-3	-178.211E-12	643.869E-3	-60.6127E-3
-4.42471E-3	-177.558E-12	715.332E-3	-29.0082E-3	-178.334E-12	643.740E-3	-43.3328E-3
-4.42971E-3	-177.508E-12	698.032E-3	-29.0775E-3	-178.240E-12	674.082E-3	-15.0377E-3
-4.43472E-3	-177.962E-12	677.623E-3	-48.3268E-3	-177.759E-12	676.668E-3	-18.6515E-3
-4.43972E-3	-179.213E-12	668.099E-3	-58.5690E-3	-178.140E-12	651.182E-3	-39.4483E-3
-4.44472E-3	-179.141E-12	667.192E-3	-44.9612E-3	-178.921E-12	657.275E-3	-56.8372E-3
-4.44972E-3	-179.097E-12	681.546E-3	-21.0912E-3	-178.614E-12	659.332E-3	-44.8070E-3
-4.45473E-3	-178.783E-12	683.035E-3	-3.86679E-3	-178.775E-12	645.778E-3	-13.0508E-3
-4.45973E-3	-179.939E-12	653.044E-3	-16.2669E-3	-179.185E-12	654.973E-3	-9.14039E-3
-4.46473E-3	-180.214E-12	636.092E-3	-29.0338E-3	-180.435E-12	667.733E-3	-24.3931E-3
-4.46973E-3	-179.555E-12	629.412E-3	-24.1377E-3	-180.395E-12	666.692E-3	-32.7829E-3
-4.47474E-3	-179.783E-12	627.178E-3	-33.4394E-3	-180.118E-12	666.632E-3	-31.7804E-3
-4.47974E-3	-179.892E-12	662.145E-3	-40.1001E-3	-179.996E-12	682.599E-3	-34.3997E-3
-4.48474E-3	-179.908E-12	686.480E-3	-26.4010E-3	-180.004E-12	685.755E-3	-50.2008E-3
-4.48974E-3	-180.310E-12	668.810E-3	-20.8576E-3	-180.392E-12	654.156E-3	-56.3823E-3
-4.49475E-3	-180.946E-12	649.104E-3	-29.6399E-3	-180.156E-12	639.688E-3	-46.0832E-3
-4.49975E-3	-181.529E-12	640.459E-3	-26.8020E-3	-180.200E-12	654.792E-3	-28.9693E-3
-4.50475E-3	-181.663E-12	656.050E-3	-28.1505E-3	-180.241E-12	651.812E-3	-18.2091E-3
-4.50975E-3	-182.478E-12	671.305E-3	-41.3334E-3	-180.871E-12	633.617E-3	-22.5826E-3
-4.51476E-3	-181.727E-12	668.509E-3	-32.3857E-3	-180.256E-12	612.201E-3	-41.8429E-3
-4.51976E-3	-183.264E-12	672.140E-3	-7.23271E-3	-180.956E-12	603.144E-3	-46.6045E-3
-4.52476E-3	-183.678E-12	664.701E-3	-959.908E-6	-181.332E-12	621.060E-3	-8.16041E-3
-4.52976E-3	-184.154E-12	660.476E-3	-4.55601E-3	-182.153E-12	643.474E-3	20.5759E-3
-4.53477E-3	-183.151E-12	667.236E-3	-7.41361E-3	-181.499E-12	641.797E-3	3.91318E-3
-4.53977E-3	-183.698E-12	643.731E-3	-28.2300E-3	-182.217E-12	612.734E-3	-30.2511E-3
-4.54477E-3	-184.107E-12	623.409E-3	-40.6037E-3	-182.382E-12	604.861E-3	-44.1325E-3
-4.54977E-3	-182.838E-12	648.549E-3	-34.5585E-3	-183.242E-12	633.972E-3	-40.0712E-3
-4.55478E-3	-183.618E-12	678.148E-3	-28.1159E-3	-184.054E-12	654.513E-3	-51.7314E-3
-4.55978E-3	-183.585E-12	673.053E-3	-27.7754E-3	-183.565E-12	665.510E-3	-54.6735E-3
-4.56478E-3	-183.161E-12	649.271E-3	-46.4090E-3	-184.587E-12	684.474E-3	-41.5987E-3
-4.56978E-3	-182.544E-12	619.175E-3	-43.7831E-3	-185.888E-12	700.397E-3	-18.1067E-3
-4.57479E-3	-183.026E-12	605.719E-3	-6.79967E-3	-185.836E-12	695.521E-3	1.66602E-3
-4.57979E-3	-183.404E-12	642.287E-3	-7.52323E-3	-185.358E-12	674.527E-3	-16.2096E-3
-4.58479E-3	-184.922E-12	694.279E-3	-24.8074E-3	-186.613E-12	656.196E-3	-16.4969E-3
-4.58979E-3	-185.412E-12	712.520E-3	-21.4647E-3	-186.823E-12	655.182E-3	8.86388E-3
-4.59480E-3	-185.933E-12	686.858E-3	-22.4521E-3	-186.520E-12	670.541E-3	-8.05418E-3
-4.59980E-3	-186.710E-12	655.227E-3	-10.5217E-3	-185.869E-12	674.065E-3	-55.5733E-3
-4.60480E-3	-186.598E-12	667.214E-3	13.3195E-3	-186.848E-12	664.144E-3	-65.8372E-3
-4.60980E-3	-187.473E-12	690.173E-3	-8.21941E-3	-187.063E-12	659.750E-3	-35.7482E-3
-4.61481E-3	-187.329E-12	674.145E-3	-57.5793E-3	-186.039E-12	660.932E-3	-23.3630E-3
-4.61981E-3	-187.652E-12	647.576E-3	-42.0138E-3	-185.350E-12	674.126E-3	-27.9006E-3
-4.62481E-3	-187.522E-12	641.863E-3	-3.24375E-3	-185.648E-12	690.852E-3	-17.3464E-3
-4.62981E-3	-187.977E-12	655.266E-3	1.97001E-3	-185.714E-12	674.221E-3	-2.46455E-3
-4.63482E-3	-187.602E-12	665.118E-3	12.1758E-3	-186.170E-12	655.102E-3	6.39060E-3
-4.63982E-3	-187.861E-12	652.213E-3	8.35829E-3	-186.556E-12	665.999E-3	-11.0576E-3
-4.64482E-3	-188.217E-12	650.729E-3	-19.0781E-3	-186.503E-12	664.362E-3	-45.9262E-3
-4.64982E-3	-187.255E-12	663.471E-3	-24.5451E-3	-186.630E-12	652.365E-3	-39.0399E-3
-4.65483E-3	-187.675E-12	661.054E-3	-12.6005E-3	-186.740E-12	660.344E-3	-8.22076E-3
-4.65983E-3	-186.832E-12	658.208E-3	-24.7159E-3	-186.948E-12	657.975E-3	16.7935E-3
-4.66483E-3	-187.475E-12	664.904E-3	-40.0882E-3	-186.591E-12	649.128E-3	34.9166E-3
-4.66983E-3	-186.835E-12	669.056E-3	-31.7759E-3	-187.008E-12	668.071E-3	14.5631E-3
-4.67484E-3	-188.515E-12	662.278E-3	-21.7604E-3	-187.638E-12	681.653E-3	-15.8814E-3
-4.67984E-3	-188.677E-12	649.946E-3	-13.7124E-3	-188.559E-12	664.459E-3	-9.88747E-3
-4.68484E-3	-187.917E-12	643.413E-3	-13.3121E-3	-188.703E-12	667.080E-3	8.58640E-3
-4.68984E-3	-188.651E-12	637.811E-3	-15.6748E-3	-188.558E-12	685.879E-3	9.86054E-3
-4.69485E-3	-188.812E-12	624.661E-3	-7.68920E-3	-188.842E-12	671.224E-3	-501.745E-6
-4.69985E-3	-190.333E-12	626.502E-3	-7.79954E-3	-188.420E-12	672.079E-3	-16.7555E-3
-4.70485E-3	-189.396E-12	651.289E-3	-14.5428E-3	-188.994E-12	709.444E-3	-41.3289E-3
-4.70985E-3	-190.448E-12	658.755E-3	135.507E-6	-190.031E-12	703.199E-3	-40.7040E-3
-4.71486E-3	-190.424E-12	654.723E-3	13.1849E-3	-190.740E-12	664.606E-3	-20.8474E-3
-4.71986E-3	-190.556E-12	665.583E-3	-6.36130E-3	-191.186E-12	662.381E-3	-15.7069E-3
-4.72486E-3	-190.390E-12	682.773E-3	-32.7263E-3	-190.463E-12	678.143E-3	-34.7386E-3
-4.72986E-3	-189.623E-12	699.734E-3	-45.9005E-3	-191.364E-12	694.220E-3	-69.7783E-3
-4.73487E-3	-191.651E-12	694.995E-3	-52.0388E-3	-192.198E-12	704.081E-3	-67.4109E-3
-4.73987E-3	-189.925E-12	665.184E-3	-55.1710E-3	-192.592E-12	685.192E-3	-23.5313E-3
-4.74487E-3	-190.139E-12	643.603E-3	-38.9865E-3	-191.507E-12	673.224E-3	2.54572E-3
-4.74988E-3	-191.108E-12	643.652E-3	-23.8632E-3	-192.519E-12	691.859E-3	-10.8062E-3
-4.75488E-3	-192.553E-12	668.482E-3	-33.0402E-3	-193.343E-12	687.354E-3	-24.8772E-3
-4.75988E-3	-191.956E-12	681.992E-3	-47.6343E-3	-194.152E-12	667.127E-3	-15.6215E-3
-4.76488E-3	-190.639E-12	670.392E-3	-54.7353E-3	-193.954E-12	646.321E-3	-24.7528E-3
-4.76988E-3	-191.860E-12	675.873E-3	-47.1606E-3	-193.902E-12	628.706E-3	-44.1306E-3
-4.77489E-3	-193.524E-12	669.311E-3	-29.2282E-3	-194.954E-12	663.273E-3	-38.2087E-3
-4.77989E-3	-194.498E-12	649.559E-3	-24.1371E-3	-196.373E-12	704.984E-3	-29.4314E-3
-4.78489E-3	-193.082E-12	677.580E-3	-26.6801E-3	-196.581E-12	699.617E-3	-3.38146E-3
-4.78989E-3	-193.835E-12	695.914E-3	1.54832E-3	-195.848E-12	675.362E-3	27.1202E-3
-4.79490E-3	-195.479E-12	654.451E-3	14.5514E-3	-194.749E-12	662.110E-3	2.90772E-3
-4.79990E-3	-197.650E-12	632.051E-3	-20.5824E-3	-196.194E-12	675.888E-3	-37.5136E-3
-4.80490E-3	-196.276E-12	655.241E-3	-27.7512E-3	-195.816E-12	698.510E-3	-23.1341E-3
-4.80990E-3	-196.046E-12	661.483E-3	-11.0914E-3	-196.229E-12	704.453E-3	1.42172E-3
-4.81491E-3	-196.552E-12	654.096E-3	-15.5753E-3	-195.026E-12	694.290E-3	-7.33131E-3
-4.81991E-3	-198.473E-12	659.000E-3	-11.4343E-3	-196.735E-12	678.626E-3	-5.88455E-3
-4.82491E-3	-197.522E-12	648.848E-3	-1.00231E-3	-196.546E-12	669.370E-3	7.35565E-3
-4.82991E-3	-196.550E-12	636.441E-3	-16.4181E-3	-197.836E-12	667.320E-3	-12.1830E-3
-4.83492E-3	-196.340E-12	648.242E-3	-6.90628E-3	-197.739E-12	659.757E-3	-30.6187E-3
-4.83992E-3	-196.967E-12	659.864E-3	41.8649E-3	-198.624E-12	640.095E-3	-21.2385E-3
-4.84492E-3	-198.024E-12	668.156E-3	33.7143E-3	-198.705E-12	619.396E-3	-17.5285E-3
-4.84992E-3	-197.607E-12	679.450E-3	-33.2426E-3	-197.640E-12	621.272E-3	-16.6952E-3
-4.85493E-3	-197.632E-12	665.245E-3	-56.3953E-3	-198.660E-12	660.045E-3	-7.45363E-3
-4.85993E-3	-197.988E-12	657.602E-3	-23.1409E-3	-198.755E-12	696.865E-3	-3.92906E-3
-4.86493E-3	-198.403E-12	673.084E-3	13.0969E-3	-199.313E-12	692.912E-3	-9.89967E-3
-4.86993E-3	-198.396E-12	677.772E-3	17.3397E-3	-198.894E-12	681.942E-3	-21.9430E-3
-4.87494E-3	-198.292E-12	684.472E-3	1.03628E-3	-199.970E-12	691.885E-3	-34.9313E-3
-4.87994E-3	-198.137E-12	686.261E-3	-12.4990E-3	-198.903E-12	694.181E-3	-46.2957E-3
-4.88494E-3	-198.254E-12	674.403E-3	-25.2684E-3	-199.423E-12	680.903E-3	-43.4420E-3
-4.88995E-3	-198.641E-12	668.023E-3	-36.7200E-3	-199.507E-12	675.751E-3	-26.7872E-3
-4.89495E-3	-199.420E-12	665.497E-3	-38.1988E-3	-199.712E-12	680.540E-3	-19.4012E-3
-4.89995E-3	-199.150E-12	673.128E-3	-22.2549E-3	-199.083E-12	695.170E-3	-16.1899E-3
-4.90495E-3	-199.101E-12	683.382E-3	-12.1129E-3	-197.889E-12	699.917E-3	-21.3456E-3
-4.90995E-3	-199.601E-12	695.284E-3	-13.1747E-3	-198.744E-12	674.730E-3	-24.3379E-3
-4.91496E-3	-200.460E-12	708.416E-3	-9.67617E-3	-198.287E-12	632.091E-3	-1.93969E-3
-4.91996E-3	-199.520E-12	678.590E-3	-5.65691E-3	-199.533E-12	609.303E-3	12.1111E-3
-4.92496E-3	-199.514E-12	635.743E-3	8.43428E-3	-198.675E-12	628.550E-3	2.72664E-3
-4.92996E-3	-200.097E-12	630.728E-3	25.2432E-3	-200.459E-12	664.902E-3	-5.66343E-3
-4.93497E-3	-201.457E-12	631.024E-3	21.0885E-3	-200.100E-12	697.102E-3	-29.2884E-3
-4.93997E-3	-201.344E-12	641.866E-3	16.2302E-3	-200.197E-12	697.453E-3	-44.5479E-3
-4.94497E-3	-202.188E-12	665.135E-3	25.5312E-3	-200.256E-12	672.329E-3	-22.1628E-3
-4.94997E-3	-201.379E-12	657.880E-3	30.8360E-3	-201.015E-12	676.392E-3	-16.1521E-3
-4.95498E-3	-202.867E-12	657.190E-3	-6.71470E-3	-201.120E-12	687.112E-3	-31.1180E-3
-4.95998E-3	-203.720E-12	681.962E-3	-45.6314E-3	-200.306E-12	676.427E-3	-16.2798E-3
-4.96498E-3	-203.796E-12	690.423E-3	-41.7845E-3	-200.632E-12	666.177E-3	6.34266E-3
-4.96998E-3	-202.406E-12	680.081E-3	-32.8014E-3	-201.318E-12	654.823E-3	17.0251E-3
-4.97499E-3	-201.798E-12	662.479E-3	-20.8168E-3	-202.572E-12	653.892E-3	13.9197E-3
-4.97999E-3	-201.947E-12	626.331E-3	-8.19542E-3	-201.331E-12	652.044E-3	-9.09768E-3
-4.98499E-3	-202.418E-12	617.131E-3	-11.3623E-3	-201.566E-12	641.379E-3	-21.4140E-3
-4.98999E-3	-202.499E-12	657.431E-3	-17.6220E-3	-201.992E-12	657.205E-3	-20.6576E-3
-4.99500E-3	-203.426E-12	691.860E-3	-23.9621E-3	-203.797E-12	696.813E-3	-12.0595E-3
-5.00000E-3	-202.853E-12	708.810E-3	-25.3821E-3	-202.665E-12	716.583E-3	-12.4286E-3
