Experiment	bias spectroscopy	
Date	19.01.2016 18:06:31	
User		
X (m)	50.1555E-9	
Y (m)	255.893E-9	
Z (m)	-132.641E-9	
Z offset (m)	0E+0	
Settling time (s)	200E-6	
Integration time (s)	5E-3	
Z-Ctrl hold	TRUE	
Final Z (m)	N/A	
Filter type	None	
Order		
Cutoff frq		
Comment01	MnPc/Pb(111)	
Comment02	dz =00pm	
Comment03	7 Sweeps	
Comment04	MagField =0.T	
Comment05	Divider 1:10	
Comment06	Setpoint:5mV,200 pA	
Comment07	Lockin: 50uVrms,5ms,5mV	
Comment08	Gain:9; 912Hz modulation	
Comment09	T=1.06K	
Bias>Bias (V)	5E-3	
Bias>Calibration (V/V)	81.475E-3	
Bias>Offset (V)	1.046E-3	
Bias Spectroscopy>Sweep Start (V)	5E-3	
Bias Spectroscopy>Sweep End (V)	-5E-3	
Bias Spectroscopy>Num Pixel	2000	
Bias Spectroscopy>Z Avg time (s)	500E-3	
Bias Spectroscopy>Z offset (m)	0E+0	
Bias Spectroscopy>1st Settling time (s)	500E-3	
Bias Spectroscopy>Settling time (s)	200E-6	
Bias Spectroscopy>Integration time (s)	5E-3	
Bias Spectroscopy>End Settling time (s)	500E-3	
Bias Spectroscopy>Z control time (s)	500E-3	
Bias Spectroscopy>Max Slew rate (V/s)	Inf	
Bias Spectroscopy>backward sweep	TRUE	
Bias Spectroscopy>Z-controller hold	TRUE	
Bias Spectroscopy>Number of sweeps	7	
Bias Spectroscopy>Channels	Current (A);X% LockIn (V);Y% LockIn (V)	
Bias Spectroscopy>Reset Bias	TRUE	
Bias Spectroscopy>Record final Z	FALSE	
Bias Spectroscopy>Lock-In run	FALSE	
Bias Spectroscopy>Sweep mode	Linear	
Bias Spectroscopy>MultiLine Settings : Segment Start (V), Segment End (V), Settling (s), Integration (s), Steps (xn)	100E-3,3.3E-3,100E-6,10E-3,2500;3.3E-3,-3.3E-3,100E-6,10E-3,10;-3.3E-3,-100E-3,100E-6,10E-3,2500	
Current>Current (A)	200.105E-12	
Current>Calibration (A/V)	999.99900E-12	
Current>Offset (A)	-455.429E-15	
Current>Gain	LN 10^9	
Z-Controller>Z (m)	-132.641E-9	
Z-Controller>Controller name	log Current	
Z-Controller>Controller status	ON	
Z-Controller>Setpoint	200E-12	
Z-Controller>Setpoint unit	A	
Z-Controller>P gain	2.96994E-12	
Z-Controller>I gain	67.0321E-9	
Z-Controller>Time const (s)	44.3062E-6	
Z-Controller>TipLift (m)	0E+0	
Z-Controller>Switch off delay (s)	50E-3	
Current (A)	200.422E-12	
Z (m)	-132.641E-9	

[DATA]
Bias calc (V)	Current (A)	X% LockIn (V)	Y% LockIn (V)	Current [bwd] (A)	X% LockIn [bwd] (V)	Y% LockIn [bwd] (V)
5.00000E-3	205.934E-12	652.553E-3	-36.6196E-3	207.444E-12	661.477E-3	-49.8043E-3
4.99500E-3	205.681E-12	630.283E-3	-33.9933E-3	206.432E-12	640.369E-3	-38.7150E-3
4.98999E-3	203.562E-12	646.098E-3	-49.3119E-3	204.390E-12	612.776E-3	-20.8549E-3
4.98499E-3	201.904E-12	660.958E-3	-33.3773E-3	200.307E-12	608.400E-3	-27.6463E-3
4.97999E-3	201.046E-12	668.186E-3	5.48377E-3	197.818E-12	616.009E-3	-39.7961E-3
4.97499E-3	199.519E-12	703.726E-3	-3.04702E-3	196.574E-12	619.464E-3	-5.62747E-3
4.96998E-3	197.175E-12	709.767E-3	-14.6593E-3	195.464E-12	626.899E-3	17.8502E-3
4.96498E-3	196.157E-12	660.036E-3	-6.52324E-3	193.092E-12	635.826E-3	4.20483E-3
4.95998E-3	194.891E-12	633.458E-3	-10.5147E-3	191.757E-12	655.271E-3	-6.45997E-3
4.95498E-3	193.925E-12	641.618E-3	-13.8686E-3	191.722E-12	691.192E-3	-6.38405E-3
4.94997E-3	193.716E-12	633.265E-3	-16.6811E-3	193.191E-12	711.462E-3	-1.86145E-3
4.94497E-3	193.287E-12	632.446E-3	-18.3755E-3	193.665E-12	695.598E-3	-12.0895E-3
4.93997E-3	192.282E-12	659.242E-3	-4.95024E-3	194.597E-12	689.262E-3	-23.1151E-3
4.93497E-3	193.530E-12	661.097E-3	-20.8604E-3	196.625E-12	704.627E-3	-21.9283E-3
4.92996E-3	194.653E-12	647.354E-3	-37.0128E-3	199.172E-12	704.387E-3	-13.1976E-3
4.92496E-3	194.942E-12	665.019E-3	-12.5084E-3	200.836E-12	698.016E-3	-14.9184E-3
4.91996E-3	195.594E-12	677.542E-3	12.5117E-3	201.330E-12	683.969E-3	-26.1254E-3
4.91496E-3	197.632E-12	666.874E-3	26.9343E-3	201.953E-12	661.863E-3	-17.7276E-3
4.90995E-3	199.406E-12	653.678E-3	35.1969E-3	203.041E-12	681.305E-3	-13.9306E-3
4.90495E-3	201.720E-12	638.997E-3	22.6904E-3	203.711E-12	717.491E-3	-7.68065E-3
4.89995E-3	201.915E-12	646.274E-3	5.09449E-3	201.718E-12	687.915E-3	29.6843E-3
4.89495E-3	203.703E-12	663.210E-3	-16.9294E-3	200.380E-12	642.579E-3	32.0737E-3
4.88995E-3	203.830E-12	656.259E-3	-51.7869E-3	199.375E-12	640.399E-3	-17.6092E-3
4.88494E-3	204.398E-12	658.932E-3	-63.2581E-3	197.982E-12	641.538E-3	-31.8715E-3
4.87994E-3	202.404E-12	681.731E-3	-54.4399E-3	195.755E-12	631.889E-3	6.33960E-3
4.87494E-3	199.262E-12	682.187E-3	-45.8587E-3	192.927E-12	622.281E-3	21.3369E-3
4.86993E-3	197.382E-12	650.072E-3	-46.8788E-3	191.628E-12	624.850E-3	-11.3030E-3
4.86493E-3	194.855E-12	641.434E-3	-37.2591E-3	189.600E-12	641.463E-3	-38.8273E-3
4.85993E-3	192.761E-12	667.612E-3	-21.9596E-3	188.278E-12	653.059E-3	-45.3623E-3
4.85493E-3	189.536E-12	677.281E-3	-16.1869E-3	187.719E-12	644.344E-3	-24.9454E-3
4.84992E-3	188.811E-12	663.337E-3	-838.885E-6	187.934E-12	643.178E-3	5.17150E-3
4.84492E-3	187.409E-12	645.554E-3	14.6150E-3	188.101E-12	660.382E-3	3.36619E-3
4.83992E-3	187.020E-12	642.124E-3	5.72405E-3	188.769E-12	666.167E-3	-5.88246E-3
4.83492E-3	186.093E-12	641.155E-3	-15.2438E-3	191.425E-12	691.648E-3	-5.11457E-3
4.82991E-3	187.611E-12	629.217E-3	-16.2350E-3	192.785E-12	735.771E-3	-16.9159E-3
4.82491E-3	188.323E-12	631.750E-3	-9.62186E-3	195.156E-12	727.446E-3	-43.1219E-3
4.81991E-3	190.428E-12	651.956E-3	-6.58084E-3	196.925E-12	673.856E-3	-40.7323E-3
4.81491E-3	193.067E-12	666.422E-3	-16.5639E-3	198.425E-12	647.141E-3	-7.38911E-3
4.80990E-3	194.033E-12	668.156E-3	-28.4474E-3	199.273E-12	666.872E-3	9.04553E-3
4.80490E-3	195.745E-12	649.786E-3	-32.4962E-3	200.451E-12	709.907E-3	12.2536E-3
4.79990E-3	197.897E-12	647.545E-3	-24.7894E-3	200.594E-12	732.204E-3	22.9170E-3
4.79490E-3	199.118E-12	677.392E-3	-7.73139E-3	199.781E-12	702.861E-3	28.3727E-3
4.78989E-3	198.326E-12	684.368E-3	-1.82944E-3	198.593E-12	655.709E-3	20.8386E-3
4.78489E-3	197.807E-12	694.295E-3	213.807E-6	197.095E-12	646.154E-3	3.41872E-3
4.77989E-3	197.517E-12	723.956E-3	-63.3116E-6	195.185E-12	656.138E-3	-18.9464E-3
4.77489E-3	195.543E-12	722.674E-3	-8.12508E-3	193.944E-12	643.316E-3	-20.5515E-3
4.76988E-3	192.033E-12	712.404E-3	-3.05916E-3	191.973E-12	635.726E-3	5.44909E-3
4.76488E-3	189.768E-12	693.635E-3	14.3443E-3	188.728E-12	634.927E-3	15.7900E-3
4.75988E-3	187.433E-12	654.672E-3	8.77970E-3	186.676E-12	637.914E-3	-6.99200E-3
4.75488E-3	184.884E-12	656.010E-3	523.804E-6	185.634E-12	667.411E-3	-15.5057E-3
4.74988E-3	183.319E-12	681.311E-3	7.75318E-3	183.629E-12	699.954E-3	-11.3466E-3
4.74487E-3	181.495E-12	667.797E-3	11.1622E-3	183.185E-12	707.004E-3	-27.2556E-3
4.73987E-3	181.249E-12	651.446E-3	14.8572E-3	182.936E-12	676.782E-3	-23.6819E-3
4.73487E-3	181.495E-12	652.325E-3	22.0484E-3	184.112E-12	653.409E-3	-5.82130E-3
4.72986E-3	182.307E-12	643.498E-3	12.1612E-3	184.306E-12	655.921E-3	-3.35808E-3
4.72486E-3	183.546E-12	633.309E-3	-5.38735E-3	186.653E-12	669.843E-3	-15.5698E-3
4.71986E-3	185.474E-12	631.707E-3	-9.12224E-3	187.466E-12	706.125E-3	-28.7525E-3
4.71486E-3	187.352E-12	641.449E-3	1.51126E-3	189.350E-12	716.917E-3	-16.2212E-3
4.70985E-3	189.494E-12	664.236E-3	19.7618E-3	190.368E-12	695.014E-3	-2.51126E-3
4.70485E-3	191.577E-12	670.191E-3	19.5506E-3	192.928E-12	690.018E-3	-16.2497E-3
4.69985E-3	192.964E-12	657.998E-3	8.57396E-3	192.864E-12	695.988E-3	-38.4306E-3
4.69485E-3	193.966E-12	656.915E-3	-10.7571E-3	193.136E-12	698.151E-3	-48.0352E-3
4.68984E-3	193.761E-12	665.298E-3	-24.6997E-3	193.785E-12	696.427E-3	-41.8603E-3
4.68484E-3	194.369E-12	669.231E-3	-31.8726E-3	192.520E-12	693.681E-3	-21.3626E-3
4.67984E-3	192.572E-12	665.224E-3	-39.4211E-3	191.304E-12	679.194E-3	607.256E-6
4.67484E-3	191.610E-12	666.989E-3	-24.2198E-3	189.071E-12	655.700E-3	10.3729E-3
4.66983E-3	190.287E-12	678.249E-3	11.2911E-3	187.092E-12	640.443E-3	-11.6382E-3
4.66483E-3	188.490E-12	682.707E-3	11.5062E-3	184.595E-12	632.656E-3	-49.5896E-3
4.65983E-3	185.631E-12	669.042E-3	-34.7857E-3	182.434E-12	630.825E-3	-69.3933E-3
4.65483E-3	184.541E-12	662.633E-3	-41.9521E-3	180.738E-12	620.045E-3	-64.4839E-3
4.64982E-3	182.843E-12	668.945E-3	-31.1410E-3	179.317E-12	614.324E-3	-23.8083E-3
4.64482E-3	180.022E-12	666.633E-3	-45.6979E-3	177.949E-12	635.810E-3	20.6832E-3
4.63982E-3	180.051E-12	657.492E-3	-46.7578E-3	176.899E-12	648.903E-3	8.95265E-3
4.63482E-3	179.424E-12	642.288E-3	-26.1926E-3	176.979E-12	634.666E-3	-18.1028E-3
4.62981E-3	179.793E-12	631.573E-3	-15.4791E-3	177.535E-12	635.921E-3	-12.8726E-3
4.62481E-3	179.736E-12	623.603E-3	-43.2619E-3	178.758E-12	666.603E-3	-16.0106E-3
4.61981E-3	181.512E-12	625.039E-3	-61.6044E-3	179.678E-12	683.527E-3	-22.2002E-3
4.61481E-3	182.171E-12	651.679E-3	-22.5882E-3	180.471E-12	671.829E-3	-15.3797E-3
4.60980E-3	182.974E-12	683.742E-3	11.3814E-3	183.404E-12	663.305E-3	-7.55913E-3
4.60480E-3	183.892E-12	691.916E-3	15.1605E-3	185.579E-12	672.769E-3	8.23730E-3
4.59980E-3	185.540E-12	682.390E-3	12.6570E-3	186.063E-12	682.587E-3	3.05740E-3
4.59480E-3	187.208E-12	671.946E-3	-6.94904E-3	186.079E-12	677.278E-3	-20.1881E-3
4.58979E-3	186.997E-12	678.754E-3	-35.9955E-3	187.166E-12	666.248E-3	-32.3319E-3
4.58479E-3	187.909E-12	692.508E-3	-43.4229E-3	188.377E-12	678.798E-3	-48.4588E-3
4.57979E-3	188.953E-12	685.685E-3	-18.8809E-3	188.281E-12	699.006E-3	-68.9024E-3
4.57479E-3	188.818E-12	698.176E-3	7.23626E-3	186.716E-12	680.435E-3	-66.4194E-3
4.56978E-3	186.943E-12	742.626E-3	7.13921E-3	186.399E-12	645.653E-3	-47.7762E-3
4.56478E-3	185.239E-12	754.273E-3	-4.32207E-3	185.750E-12	631.177E-3	-35.8637E-3
4.55978E-3	183.520E-12	726.751E-3	-3.20041E-3	184.110E-12	646.002E-3	-25.4730E-3
4.55478E-3	181.553E-12	704.257E-3	-7.16075E-3	181.027E-12	668.048E-3	-10.4117E-3
4.54977E-3	179.088E-12	688.104E-3	-14.6724E-3	179.196E-12	667.036E-3	-8.73693E-3
4.54477E-3	176.382E-12	670.012E-3	-8.97173E-3	176.752E-12	645.445E-3	-42.6387E-3
4.53977E-3	174.920E-12	660.389E-3	-31.3839E-3	176.496E-12	608.951E-3	-62.1162E-3
4.53477E-3	173.719E-12	646.859E-3	-53.7065E-3	174.419E-12	605.202E-3	-42.1898E-3
4.52976E-3	172.876E-12	622.126E-3	-30.9297E-3	173.945E-12	636.874E-3	-49.7689E-3
4.52476E-3	172.344E-12	617.173E-3	-12.5710E-3	172.824E-12	655.716E-3	-71.8181E-3
4.51976E-3	171.639E-12	638.751E-3	-17.8792E-3	173.699E-12	662.536E-3	-53.3746E-3
4.51476E-3	172.712E-12	649.707E-3	-28.0133E-3	174.895E-12	651.671E-3	-30.8771E-3
4.50975E-3	174.519E-12	628.644E-3	-32.8726E-3	175.498E-12	648.666E-3	-21.3612E-3
4.50475E-3	176.083E-12	611.946E-3	-15.7565E-3	176.123E-12	673.730E-3	-13.7124E-3
4.49975E-3	176.469E-12	638.443E-3	474.400E-6	178.162E-12	688.096E-3	-16.5455E-3
4.49475E-3	177.925E-12	681.783E-3	-1.73000E-3	179.701E-12	677.916E-3	-20.7078E-3
4.48974E-3	180.036E-12	701.120E-3	-9.21756E-3	180.551E-12	667.881E-3	-11.1807E-3
4.48474E-3	181.384E-12	668.158E-3	-770.360E-6	181.823E-12	674.098E-3	-17.4886E-3
4.47974E-3	180.716E-12	630.903E-3	14.6452E-3	182.978E-12	687.413E-3	-35.1450E-3
4.47474E-3	181.624E-12	647.182E-3	-5.98259E-3	184.088E-12	704.310E-3	-10.5141E-3
4.46973E-3	181.070E-12	672.631E-3	-35.5226E-3	183.032E-12	707.975E-3	-2.73228E-3
4.46473E-3	179.695E-12	666.696E-3	-46.2815E-3	182.499E-12	678.670E-3	-35.6921E-3
4.45973E-3	178.220E-12	642.839E-3	-41.5589E-3	180.626E-12	659.578E-3	-47.3685E-3
4.45473E-3	176.918E-12	625.101E-3	-23.1809E-3	179.952E-12	670.097E-3	-47.1235E-3
4.44972E-3	175.064E-12	619.315E-3	-17.8585E-3	178.320E-12	660.308E-3	-53.3122E-3
4.44472E-3	172.755E-12	644.646E-3	-45.3324E-3	176.459E-12	645.935E-3	-52.4782E-3
4.43972E-3	171.660E-12	663.182E-3	-74.3026E-3	174.553E-12	637.971E-3	-60.0814E-3
4.43472E-3	170.689E-12	646.407E-3	-55.9190E-3	172.854E-12	627.134E-3	-56.3446E-3
4.42971E-3	170.114E-12	641.436E-3	-11.9573E-3	171.835E-12	638.004E-3	-14.6103E-3
4.42471E-3	169.468E-12	648.250E-3	17.0720E-3	169.486E-12	658.658E-3	6.55543E-3
4.41971E-3	169.554E-12	654.458E-3	27.9769E-3	168.812E-12	648.515E-3	370.108E-6
4.41471E-3	169.854E-12	663.721E-3	16.7425E-3	169.247E-12	638.839E-3	4.58963E-3
4.40970E-3	171.741E-12	656.582E-3	9.47382E-3	170.667E-12	676.532E-3	-4.12935E-3
4.40470E-3	172.557E-12	646.326E-3	12.4068E-3	170.906E-12	696.425E-3	-27.5380E-3
4.39970E-3	173.945E-12	661.630E-3	-8.05101E-3	171.737E-12	666.990E-3	-41.7361E-3
4.39470E-3	174.889E-12	667.089E-3	-42.5983E-3	173.090E-12	660.368E-3	-42.9729E-3
4.38969E-3	175.941E-12	644.648E-3	-62.8214E-3	175.692E-12	690.435E-3	-30.8590E-3
4.38469E-3	177.576E-12	636.155E-3	-48.0794E-3	177.276E-12	703.091E-3	-1.39599E-3
4.37969E-3	178.788E-12	639.410E-3	-18.2580E-3	178.640E-12	699.138E-3	15.3515E-3
4.37469E-3	178.512E-12	636.650E-3	-6.86315E-3	178.247E-12	694.028E-3	-13.5566E-3
4.36968E-3	178.305E-12	651.574E-3	-5.72263E-3	179.517E-12	679.800E-3	-24.3862E-3
4.36468E-3	177.964E-12	682.776E-3	7.69548E-3	178.993E-12	680.699E-3	10.4556E-3
4.35968E-3	177.289E-12	696.137E-3	14.1194E-3	178.676E-12	685.983E-3	14.6746E-3
4.35468E-3	175.249E-12	672.847E-3	-11.2873E-3	176.905E-12	658.459E-3	-6.90252E-3
4.34967E-3	173.647E-12	669.303E-3	-21.1424E-3	174.987E-12	638.641E-3	-11.6061E-3
4.34467E-3	171.814E-12	694.021E-3	-8.00911E-3	173.110E-12	628.047E-3	-15.2720E-3
4.33967E-3	170.653E-12	684.452E-3	-14.4387E-3	172.163E-12	613.166E-3	-30.2252E-3
4.33467E-3	168.760E-12	663.313E-3	-17.6918E-3	170.341E-12	635.085E-3	-37.1412E-3
4.32966E-3	167.461E-12	668.827E-3	7.39455E-3	167.928E-12	663.124E-3	-25.6610E-3
4.32466E-3	166.260E-12	689.530E-3	5.28570E-3	166.663E-12	655.523E-3	-21.5227E-3
4.31966E-3	165.498E-12	699.829E-3	-23.0901E-3	165.734E-12	648.706E-3	-12.7813E-3
4.31466E-3	165.351E-12	683.168E-3	-33.7255E-3	165.793E-12	639.810E-3	-6.70435E-3
4.30965E-3	165.965E-12	650.427E-3	-18.3213E-3	164.890E-12	616.738E-3	-30.1682E-3
4.30465E-3	166.715E-12	640.938E-3	9.39570E-3	164.188E-12	625.514E-3	-27.6615E-3
4.29965E-3	167.850E-12	651.248E-3	19.8411E-3	165.051E-12	659.155E-3	6.02707E-3
4.29465E-3	168.812E-12	657.318E-3	11.7241E-3	166.853E-12	671.942E-3	12.5052E-3
4.28964E-3	170.560E-12	671.395E-3	-5.50004E-3	167.821E-12	660.257E-3	2.42507E-3
4.28464E-3	171.186E-12	685.876E-3	-21.4779E-3	167.792E-12	660.785E-3	-5.20671E-3
4.27964E-3	172.403E-12	665.397E-3	-16.3465E-3	169.284E-12	665.576E-3	-19.4763E-3
4.27464E-3	173.317E-12	644.497E-3	9.62618E-3	171.599E-12	665.430E-3	-21.2740E-3
4.26963E-3	173.406E-12	672.946E-3	6.06980E-3	173.540E-12	670.721E-3	-16.0985E-3
4.26463E-3	172.970E-12	705.205E-3	-28.4667E-3	172.777E-12	666.386E-3	-18.6072E-3
4.25963E-3	173.006E-12	712.164E-3	-58.5969E-3	172.686E-12	666.903E-3	-5.41107E-3
4.25463E-3	172.132E-12	708.667E-3	-52.1071E-3	172.439E-12	675.951E-3	4.05798E-3
4.24962E-3	170.628E-12	692.701E-3	-12.2700E-3	172.238E-12	662.340E-3	-9.18032E-3
4.24462E-3	168.535E-12	680.160E-3	-9.08133E-3	171.079E-12	648.433E-3	-15.8733E-3
4.23962E-3	167.169E-12	678.380E-3	-27.4375E-3	169.135E-12	668.646E-3	-20.3234E-3
4.23462E-3	164.596E-12	658.872E-3	-45.4595E-3	167.748E-12	685.530E-3	-36.9330E-3
4.22961E-3	163.299E-12	629.737E-3	-71.3886E-3	166.163E-12	681.123E-3	-32.8737E-3
4.22461E-3	161.772E-12	633.617E-3	-54.2534E-3	166.568E-12	665.817E-3	-22.6816E-3
4.21961E-3	160.065E-12	657.210E-3	-26.1242E-3	165.081E-12	625.984E-3	-40.9941E-3
4.21461E-3	159.594E-12	674.284E-3	-39.5991E-3	163.415E-12	604.326E-3	-53.4178E-3
4.20960E-3	160.169E-12	679.383E-3	-51.3926E-3	161.629E-12	624.137E-3	-37.5295E-3
4.20460E-3	159.409E-12	670.616E-3	-49.1994E-3	162.981E-12	646.799E-3	-29.9388E-3
4.19960E-3	159.760E-12	660.573E-3	-51.1067E-3	163.691E-12	665.063E-3	-42.3424E-3
4.19460E-3	160.987E-12	664.163E-3	-28.2839E-3	163.561E-12	675.029E-3	-42.1298E-3
4.18959E-3	161.851E-12	664.563E-3	2.35466E-3	164.135E-12	675.294E-3	-25.0336E-3
4.18459E-3	163.178E-12	654.887E-3	-14.1949E-3	165.280E-12	685.611E-3	-23.4924E-3
4.17959E-3	165.986E-12	642.338E-3	-33.9682E-3	167.132E-12	702.487E-3	-28.9095E-3
4.17459E-3	166.966E-12	638.681E-3	7.94753E-3	167.255E-12	720.379E-3	-28.5860E-3
4.16958E-3	167.619E-12	657.616E-3	33.5439E-3	168.232E-12	718.189E-3	-41.8916E-3
4.16458E-3	168.847E-12	669.843E-3	-9.15116E-3	167.346E-12	685.239E-3	-54.2788E-3
4.15958E-3	169.393E-12	671.401E-3	-50.3540E-3	168.144E-12	675.111E-3	-66.6037E-3
4.15458E-3	168.343E-12	672.108E-3	-56.1567E-3	168.945E-12	695.093E-3	-65.0730E-3
4.14957E-3	167.053E-12	676.520E-3	-35.1485E-3	168.489E-12	696.336E-3	-20.5642E-3
4.14457E-3	166.403E-12	692.759E-3	-11.7622E-3	167.754E-12	676.280E-3	18.7802E-3
4.13957E-3	164.134E-12	688.350E-3	-26.5027E-3	165.963E-12	658.655E-3	7.78537E-3
4.13457E-3	161.431E-12	670.786E-3	-46.9003E-3	165.850E-12	655.129E-3	-16.6639E-3
4.12956E-3	159.664E-12	663.499E-3	-26.7180E-3	163.746E-12	647.759E-3	-11.2453E-3
4.12456E-3	157.454E-12	655.155E-3	-18.2379E-3	163.814E-12	634.771E-3	9.60975E-3
4.11956E-3	155.748E-12	667.790E-3	-9.77474E-3	161.392E-12	641.165E-3	5.52612E-3
4.11456E-3	154.582E-12	676.885E-3	8.77337E-3	160.814E-12	660.420E-3	-21.4638E-3
4.10955E-3	154.300E-12	655.357E-3	-8.31505E-3	160.016E-12	677.082E-3	-39.4296E-3
4.10455E-3	154.251E-12	629.389E-3	-29.3922E-3	159.450E-12	684.016E-3	-30.0616E-3
4.09955E-3	155.351E-12	621.392E-3	-17.8554E-3	159.268E-12	684.132E-3	-5.68569E-3
4.09455E-3	157.293E-12	648.175E-3	-647.104E-6	158.249E-12	672.742E-3	4.30669E-3
4.08954E-3	158.513E-12	671.140E-3	-7.09139E-3	157.846E-12	649.337E-3	-8.67962E-3
4.08454E-3	159.646E-12	669.756E-3	-37.3498E-3	158.091E-12	641.434E-3	-22.9469E-3
4.07954E-3	161.073E-12	666.451E-3	-55.1244E-3	159.157E-12	666.740E-3	-22.6360E-3
4.07454E-3	163.837E-12	670.745E-3	-53.6630E-3	158.346E-12	687.165E-3	-5.80969E-3
4.06953E-3	166.457E-12	669.982E-3	-58.9741E-3	158.740E-12	681.261E-3	4.62864E-3
4.06453E-3	166.683E-12	681.754E-3	-43.9735E-3	159.648E-12	674.857E-3	-16.3585E-3
4.05953E-3	166.291E-12	716.747E-3	-18.2039E-3	161.255E-12	676.194E-3	-29.7830E-3
4.05453E-3	166.777E-12	730.438E-3	-24.4985E-3	160.197E-12	682.259E-3	-12.2737E-3
4.04952E-3	166.350E-12	713.540E-3	-21.1024E-3	159.554E-12	676.379E-3	5.55056E-3
4.04452E-3	164.482E-12	695.296E-3	4.18582E-3	160.525E-12	652.467E-3	2.33394E-3
4.03952E-3	162.261E-12	718.864E-3	-11.0391E-3	160.952E-12	646.125E-3	-14.8869E-3
4.03452E-3	160.158E-12	743.460E-3	-25.4372E-3	159.844E-12	667.661E-3	-30.4083E-3
4.02951E-3	158.753E-12	717.127E-3	-3.14192E-3	158.637E-12	676.115E-3	-17.2697E-3
4.02451E-3	156.774E-12	693.404E-3	12.9044E-3	158.261E-12	666.280E-3	13.7574E-3
4.01951E-3	154.273E-12	705.320E-3	10.3476E-3	157.004E-12	661.642E-3	16.3133E-6
4.01451E-3	153.033E-12	708.794E-3	-16.2556E-3	155.524E-12	647.636E-3	-39.0135E-3
4.00950E-3	151.886E-12	686.159E-3	-47.1093E-3	153.756E-12	629.286E-3	-30.2288E-3
4.00450E-3	151.696E-12	646.028E-3	-48.1873E-3	153.574E-12	651.861E-3	6.69419E-3
3.99950E-3	152.140E-12	617.648E-3	-25.6366E-3	152.747E-12	673.365E-3	4.88193E-3
3.99450E-3	152.442E-12	638.352E-3	-8.76937E-3	151.612E-12	654.518E-3	-23.5697E-3
3.98949E-3	152.123E-12	669.795E-3	-16.4437E-3	151.634E-12	660.167E-3	-29.3906E-3
3.98449E-3	153.494E-12	669.675E-3	-26.8524E-3	151.763E-12	675.755E-3	-11.2920E-3
3.97949E-3	154.671E-12	649.457E-3	-18.7339E-3	152.095E-12	678.926E-3	-3.14884E-3
3.97449E-3	156.311E-12	631.415E-3	-9.97296E-3	152.774E-12	698.513E-3	-15.2735E-3
3.96948E-3	157.306E-12	636.854E-3	-2.60505E-3	155.274E-12	694.616E-3	-33.4825E-3
3.96448E-3	158.380E-12	673.170E-3	923.279E-6	155.535E-12	672.451E-3	-46.9832E-3
3.95948E-3	159.438E-12	695.368E-3	-10.6205E-3	156.597E-12	677.901E-3	-52.3402E-3
3.95448E-3	160.486E-12	686.322E-3	-22.4718E-3	158.064E-12	686.277E-3	-39.4310E-3
3.94947E-3	160.633E-12	677.047E-3	-20.4449E-3	159.309E-12	673.835E-3	-14.2271E-3
3.94447E-3	159.498E-12	674.955E-3	-19.0707E-3	158.929E-12	666.441E-3	-3.55077E-3
3.93947E-3	159.066E-12	680.835E-3	-35.6529E-3	158.305E-12	674.350E-3	-18.6916E-3
3.93447E-3	157.848E-12	680.985E-3	-45.2387E-3	158.597E-12	684.231E-3	-34.0363E-3
3.92946E-3	155.422E-12	669.305E-3	-31.3927E-3	157.950E-12	695.261E-3	-30.5888E-3
3.92446E-3	153.449E-12	641.043E-3	-18.4601E-3	156.675E-12	692.199E-3	-16.4838E-3
3.91946E-3	152.254E-12	621.996E-3	-10.4891E-3	154.549E-12	664.942E-3	-2.80529E-3
3.91446E-3	150.307E-12	642.221E-3	-623.919E-6	153.887E-12	654.808E-3	-6.33889E-3
3.90945E-3	149.423E-12	663.045E-3	-9.54429E-3	152.142E-12	674.977E-3	-28.8866E-3
3.90445E-3	148.438E-12	654.673E-3	-23.3468E-3	150.824E-12	678.529E-3	-37.3553E-3
3.89945E-3	147.801E-12	625.099E-3	-16.6116E-3	149.143E-12	661.230E-3	-20.4057E-3
3.89445E-3	147.207E-12	608.953E-3	-9.25692E-3	148.807E-12	657.480E-3	-34.1264E-3
3.88944E-3	147.205E-12	640.146E-3	-2.28134E-3	148.626E-12	669.278E-3	-68.5064E-3
3.88444E-3	148.042E-12	658.755E-3	1.36638E-3	148.144E-12	690.034E-3	-59.6176E-3
3.87944E-3	148.296E-12	638.865E-3	-7.54670E-3	148.087E-12	693.904E-3	-35.5900E-3
3.87444E-3	149.108E-12	633.216E-3	-1.79867E-3	148.525E-12	669.083E-3	-37.8612E-3
3.86943E-3	150.586E-12	643.402E-3	25.8997E-3	150.168E-12	658.114E-3	-41.5019E-3
3.86443E-3	151.381E-12	662.186E-3	26.0657E-3	150.980E-12	673.395E-3	-37.8851E-3
3.85943E-3	152.022E-12	670.024E-3	-7.15656E-3	151.518E-12	681.342E-3	-45.7419E-3
3.85443E-3	152.864E-12	652.506E-3	-27.3823E-3	151.357E-12	676.727E-3	-25.3928E-3
3.84942E-3	153.950E-12	642.856E-3	-28.1011E-3	152.245E-12	693.104E-3	14.0938E-3
3.84442E-3	153.521E-12	662.023E-3	-39.7279E-3	152.848E-12	713.550E-3	11.2123E-3
3.83942E-3	153.777E-12	688.903E-3	-53.4855E-3	152.885E-12	714.569E-3	-1.22996E-3
3.83442E-3	153.136E-12	700.863E-3	-53.8214E-3	151.435E-12	709.797E-3	-4.73689E-3
3.82941E-3	153.673E-12	697.601E-3	-47.0576E-3	151.150E-12	701.103E-3	-16.1800E-3
3.82441E-3	151.640E-12	683.064E-3	-15.0872E-3	151.794E-12	690.973E-3	-19.7149E-3
3.81941E-3	150.295E-12	680.146E-3	16.3463E-3	151.225E-12	690.893E-3	-11.1911E-3
3.81441E-3	148.776E-12	689.154E-3	1.36310E-3	149.443E-12	674.008E-3	-12.8339E-3
3.80940E-3	147.658E-12	675.417E-3	-33.5503E-3	147.655E-12	645.076E-3	-29.4072E-3
3.80440E-3	145.712E-12	654.406E-3	-31.5687E-3	146.842E-12	650.110E-3	-26.0040E-3
3.79940E-3	144.423E-12	658.387E-3	8.02162E-3	146.232E-12	664.183E-3	-19.1548E-3
3.79440E-3	143.839E-12	671.453E-3	33.0906E-3	145.551E-12	650.774E-3	-27.3741E-3
3.78939E-3	142.798E-12	665.589E-3	13.7299E-3	144.242E-12	648.285E-3	-24.5460E-3
3.78439E-3	142.982E-12	649.624E-3	-6.64770E-3	143.681E-12	673.113E-3	-19.2775E-3
3.77939E-3	143.132E-12	654.840E-3	-16.8916E-3	144.057E-12	679.905E-3	-16.8645E-3
3.77439E-3	143.601E-12	662.622E-3	-19.4980E-3	144.107E-12	681.021E-3	7.89817E-3
3.76938E-3	143.539E-12	656.437E-3	-1.95387E-3	144.491E-12	683.490E-3	12.0548E-3
3.76438E-3	144.287E-12	655.764E-3	-4.06142E-3	144.761E-12	652.329E-3	-33.1995E-3
3.75938E-3	146.219E-12	674.196E-3	-7.93744E-3	144.360E-12	638.058E-3	-42.6389E-3
3.75438E-3	148.222E-12	687.874E-3	-4.82992E-3	144.801E-12	676.354E-3	-11.6382E-3
3.74937E-3	147.980E-12	685.687E-3	-14.3848E-3	145.759E-12	702.662E-3	2.37158E-3
3.74437E-3	149.545E-12	683.026E-3	-23.3240E-3	145.787E-12	695.230E-3	16.7323E-3
3.73937E-3	150.765E-12	682.001E-3	-20.8677E-3	145.143E-12	683.501E-3	17.5237E-3
3.73437E-3	151.185E-12	689.557E-3	-18.9191E-3	145.871E-12	680.601E-3	-2.42209E-3
3.72936E-3	150.462E-12	694.837E-3	-19.6266E-3	146.417E-12	683.841E-3	-14.2755E-3
3.72436E-3	150.117E-12	693.805E-3	-8.89706E-3	145.873E-12	676.744E-3	-33.4122E-3
3.71936E-3	147.971E-12	686.148E-3	-4.24894E-3	145.709E-12	659.091E-3	-45.4919E-3
3.71436E-3	146.148E-12	684.025E-3	1.07759E-3	146.163E-12	638.977E-3	-32.2428E-3
3.70935E-3	143.865E-12	700.043E-3	1.13880E-3	145.713E-12	641.532E-3	-20.1055E-3
3.70435E-3	141.433E-12	719.016E-3	-18.0434E-3	144.823E-12	676.074E-3	-30.0647E-3
3.69935E-3	139.458E-12	708.621E-3	-28.5056E-3	144.918E-12	684.891E-3	-35.6516E-3
3.69435E-3	137.625E-12	669.643E-3	-33.8624E-3	144.527E-12	661.934E-3	-23.3700E-3
3.68934E-3	135.992E-12	659.966E-3	-24.2929E-3	142.909E-12	653.475E-3	-30.0286E-3
3.68434E-3	134.915E-12	671.035E-3	-5.03114E-3	142.206E-12	646.262E-3	-37.1694E-3
3.67934E-3	134.423E-12	661.390E-3	-10.8810E-3	141.256E-12	637.573E-3	-25.0856E-3
3.67434E-3	134.223E-12	650.316E-3	-22.4876E-3	142.204E-12	648.462E-3	-27.2864E-3
3.66933E-3	134.564E-12	653.718E-3	-23.2411E-3	140.601E-12	653.123E-3	-36.7930E-3
3.66433E-3	135.361E-12	643.787E-3	-24.1568E-3	140.481E-12	639.153E-3	-34.8144E-3
3.65933E-3	136.897E-12	624.272E-3	-43.5629E-3	139.817E-12	641.240E-3	-28.9063E-3
3.65433E-3	140.089E-12	618.441E-3	-71.2174E-3	139.703E-12	667.637E-3	-23.3719E-3
3.64932E-3	141.728E-12	629.040E-3	-59.5069E-3	139.829E-12	677.685E-3	-16.7240E-3
3.64432E-3	143.604E-12	656.046E-3	-28.2428E-3	140.717E-12	664.717E-3	-22.1064E-3
3.63932E-3	145.127E-12	691.159E-3	-19.1508E-3	141.589E-12	655.949E-3	-46.2326E-3
3.63432E-3	147.030E-12	709.299E-3	-22.1135E-3	141.307E-12	669.954E-3	-53.6987E-3
3.62931E-3	147.192E-12	698.001E-3	-20.1065E-3	142.135E-12	705.120E-3	-42.6561E-3
3.62431E-3	147.120E-12	685.136E-3	-1.70387E-3	142.517E-12	720.697E-3	-26.5898E-3
3.61931E-3	145.264E-12	691.076E-3	4.28369E-3	143.158E-12	692.692E-3	2.20190E-3
3.61431E-3	143.504E-12	705.183E-3	-14.8037E-3	142.768E-12	674.319E-3	19.7897E-3
3.60930E-3	141.907E-12	722.182E-3	-21.5951E-3	142.757E-12	690.299E-3	346.182E-6
3.60430E-3	140.105E-12	719.822E-3	-34.1359E-3	142.609E-12	698.540E-3	-16.7177E-3
3.59930E-3	137.543E-12	685.904E-3	-43.9573E-3	141.905E-12	703.583E-3	-9.67331E-3
3.59430E-3	135.488E-12	667.152E-3	-9.23048E-3	141.038E-12	706.284E-3	-26.9012E-3
3.58929E-3	134.594E-12	681.728E-3	17.5665E-3	139.497E-12	688.721E-3	-49.6823E-3
3.58429E-3	133.895E-12	689.878E-3	-2.36779E-3	139.242E-12	664.062E-3	-50.0180E-3
3.57929E-3	132.477E-12	684.720E-3	-28.0659E-3	137.420E-12	645.449E-3	-55.2020E-3
3.57429E-3	131.331E-12	686.071E-3	-32.8036E-3	136.647E-12	630.704E-3	-44.8682E-3
3.56928E-3	132.232E-12	688.239E-3	-24.3217E-3	134.676E-12	627.411E-3	-10.8910E-3
3.56428E-3	133.862E-12	680.190E-3	-5.05071E-3	134.510E-12	638.889E-3	4.88920E-3
3.55928E-3	134.982E-12	678.674E-3	-5.53991E-3	133.025E-12	647.344E-3	-1.17458E-3
3.55428E-3	135.407E-12	672.375E-3	-30.1698E-3	133.351E-12	660.326E-3	-8.74596E-3
3.54927E-3	136.721E-12	658.306E-3	-37.1581E-3	133.717E-12	672.872E-3	-24.8465E-3
3.54427E-3	139.591E-12	667.238E-3	-18.1388E-3	134.423E-12	661.238E-3	-29.7986E-3
3.53927E-3	141.233E-12	680.438E-3	337.917E-6	134.787E-12	655.142E-3	-5.75114E-3
3.53427E-3	140.437E-12	688.879E-3	-10.7409E-3	135.489E-12	669.832E-3	174.726E-6
3.52926E-3	140.210E-12	703.841E-3	-45.3112E-3	136.486E-12	676.748E-3	-21.1501E-3
3.52426E-3	141.228E-12	689.132E-3	-61.2286E-3	136.650E-12	680.248E-3	-23.7464E-3
3.51926E-3	140.893E-12	673.286E-3	-33.5121E-3	137.823E-12	685.497E-3	-13.8637E-3
3.51426E-3	139.385E-12	690.068E-3	-9.42404E-3	138.227E-12	672.372E-3	-13.8218E-3
3.50925E-3	137.687E-12	695.082E-3	-20.6020E-3	138.361E-12	656.302E-3	-21.7202E-3
3.50425E-3	136.804E-12	695.153E-3	-28.6873E-3	137.480E-12	674.320E-3	-30.0343E-3
3.49925E-3	135.795E-12	698.222E-3	-16.9507E-3	137.707E-12	695.688E-3	-12.2953E-3
3.49425E-3	134.223E-12	684.886E-3	-3.06362E-3	136.773E-12	685.718E-3	2.03016E-3
3.48924E-3	131.643E-12	679.719E-3	2.90996E-3	135.527E-12	674.905E-3	-13.4361E-3
3.48424E-3	131.065E-12	695.706E-3	-461.653E-6	133.749E-12	675.743E-3	-32.2492E-3
3.47924E-3	130.897E-12	699.231E-3	-9.46483E-3	131.961E-12	670.887E-3	-39.7495E-3
3.47424E-3	130.123E-12	664.541E-3	-21.4692E-3	130.773E-12	656.752E-3	-19.3001E-3
3.46923E-3	129.697E-12	633.161E-3	-15.8465E-3	129.880E-12	643.026E-3	-821.803E-6
3.46423E-3	129.262E-12	663.477E-3	4.40229E-3	128.751E-12	633.901E-3	-21.4571E-3
3.45923E-3	129.403E-12	710.590E-3	9.65385E-3	127.582E-12	626.313E-3	-38.0343E-3
3.45423E-3	129.808E-12	701.988E-3	10.7103E-3	127.900E-12	624.320E-3	-24.6020E-3
3.44922E-3	130.574E-12	653.730E-3	12.2940E-3	127.772E-12	642.254E-3	-1.63388E-3
3.44422E-3	130.740E-12	637.367E-3	6.82190E-3	128.633E-12	659.679E-3	6.92210E-3
3.43922E-3	131.034E-12	670.531E-3	-12.6814E-3	128.954E-12	645.179E-3	-5.10790E-3
3.43422E-3	131.846E-12	695.433E-3	-31.5136E-3	129.100E-12	634.869E-3	-16.1130E-3
3.42921E-3	133.455E-12	693.040E-3	-24.7694E-3	128.888E-12	665.810E-3	-16.6443E-3
3.42421E-3	133.103E-12	678.634E-3	-14.2592E-3	130.410E-12	698.864E-3	-23.2974E-3
3.41921E-3	133.025E-12	666.848E-3	-14.4404E-3	131.006E-12	700.177E-3	-10.7185E-3
3.41421E-3	132.632E-12	682.728E-3	-14.0862E-3	130.895E-12	683.615E-3	10.5998E-3
3.40920E-3	132.084E-12	703.299E-3	-11.1641E-3	131.340E-12	674.049E-3	-14.9063E-3
3.40420E-3	132.250E-12	697.686E-3	-25.0969E-3	131.723E-12	672.821E-3	-33.0866E-3
3.39920E-3	130.955E-12	678.798E-3	-47.6579E-3	131.857E-12	680.099E-3	-19.2243E-3
3.39420E-3	130.154E-12	670.936E-3	-37.1763E-3	131.656E-12	686.051E-3	-11.5230E-3
3.38919E-3	129.537E-12	679.500E-3	-10.8119E-3	131.417E-12	668.152E-3	-7.42766E-3
3.38419E-3	129.390E-12	699.369E-3	-15.9396E-3	131.141E-12	650.089E-3	-16.9450E-3
3.37919E-3	127.584E-12	702.741E-3	-48.1855E-3	131.211E-12	660.468E-3	-42.8032E-3
3.37419E-3	126.917E-12	671.464E-3	-60.2610E-3	130.631E-12	666.667E-3	-49.6315E-3
3.36918E-3	126.123E-12	651.078E-3	-42.6087E-3	129.807E-12	662.788E-3	-18.2609E-3
3.36418E-3	125.444E-12	664.199E-3	-15.0208E-3	129.278E-12	676.605E-3	-419.478E-6
3.35918E-3	123.737E-12	674.806E-3	-5.32336E-3	128.130E-12	693.757E-3	4.27189E-3
3.35418E-3	123.307E-12	682.056E-3	-26.7511E-3	127.893E-12	694.684E-3	26.2874E-3
3.34917E-3	123.690E-12	678.789E-3	-32.4933E-3	127.405E-12	678.265E-3	24.0921E-3
3.34417E-3	124.412E-12	651.788E-3	-10.7641E-3	127.466E-12	665.419E-3	3.88349E-3
3.33917E-3	124.560E-12	637.389E-3	1.53700E-3	126.367E-12	670.981E-3	-6.20711E-3
3.33417E-3	125.347E-12	647.934E-3	-3.73577E-3	126.669E-12	687.467E-3	-25.8132E-3
3.32916E-3	125.516E-12	655.626E-3	-22.4186E-3	127.390E-12	702.648E-3	-48.6990E-3
3.32416E-3	127.037E-12	651.541E-3	-28.5792E-3	126.827E-12	702.806E-3	-32.8332E-3
3.31916E-3	128.168E-12	661.426E-3	-6.17500E-3	126.405E-12	693.616E-3	-2.13839E-3
3.31416E-3	129.234E-12	673.249E-3	18.7363E-3	126.126E-12	690.159E-3	-6.67634E-3
3.30915E-3	129.429E-12	674.509E-3	22.2765E-3	126.758E-12	688.449E-3	-16.0818E-3
3.30415E-3	129.892E-12	682.202E-3	-7.89711E-3	126.066E-12	695.284E-3	-17.1296E-3
3.29915E-3	130.581E-12	700.288E-3	-39.7036E-3	126.200E-12	696.305E-3	-26.1630E-3
3.29415E-3	130.425E-12	703.144E-3	-43.1708E-3	126.071E-12	686.034E-3	-21.6826E-3
3.28914E-3	129.692E-12	696.391E-3	-40.7385E-3	126.408E-12	682.896E-3	-10.8519E-3
3.28414E-3	127.868E-12	715.287E-3	-23.5851E-3	126.380E-12	687.499E-3	-21.0467E-3
3.27914E-3	125.889E-12	723.717E-3	331.918E-6	126.508E-12	712.271E-3	-26.6108E-3
3.27414E-3	124.607E-12	692.689E-3	-3.06650E-3	126.115E-12	742.173E-3	-8.85401E-3
3.26913E-3	123.101E-12	661.434E-3	-17.6256E-3	125.859E-12	724.017E-3	-7.09916E-3
3.26413E-3	120.221E-12	657.986E-3	-23.7246E-3	124.496E-12	679.890E-3	-18.5232E-3
3.25913E-3	119.176E-12	673.047E-3	-32.3820E-3	124.227E-12	672.399E-3	-18.7828E-3
3.25413E-3	118.150E-12	683.648E-3	-37.1084E-3	123.927E-12	683.767E-3	-30.0361E-3
3.24912E-3	117.781E-12	685.546E-3	-16.1242E-3	122.247E-12	681.512E-3	-44.7870E-3
3.24412E-3	117.520E-12	675.554E-3	2.84331E-3	121.125E-12	676.475E-3	-38.1771E-3
3.23912E-3	117.663E-12	655.510E-3	5.93563E-3	120.591E-12	675.790E-3	-30.2428E-3
3.23412E-3	118.746E-12	659.915E-3	6.02557E-3	120.272E-12	676.587E-3	-31.9250E-3
3.22911E-3	119.446E-12	675.433E-3	-13.0478E-3	118.986E-12	677.742E-3	-13.1810E-3
3.22411E-3	121.286E-12	669.839E-3	-37.0378E-3	118.405E-12	676.377E-3	14.5234E-3
3.21911E-3	122.770E-12	651.740E-3	-36.4104E-3	118.288E-12	664.251E-3	21.3484E-3
3.21411E-3	124.210E-12	647.530E-3	-13.1845E-3	118.436E-12	657.153E-3	10.3151E-3
3.20910E-3	125.356E-12	664.057E-3	-2.26595E-3	118.644E-12	667.368E-3	-17.1569E-3
3.20410E-3	126.931E-12	673.145E-3	-12.6487E-3	119.200E-12	675.197E-3	-29.9875E-3
3.19910E-3	127.205E-12	674.536E-3	-31.2783E-3	119.756E-12	693.865E-3	-18.9034E-3
3.19410E-3	126.142E-12	692.797E-3	-37.7394E-3	120.164E-12	721.961E-3	-10.0276E-3
3.18909E-3	125.315E-12	714.382E-3	-16.9677E-3	121.218E-12	722.575E-3	-5.16165E-3
3.18409E-3	123.846E-12	726.581E-3	-948.295E-6	120.888E-12	708.985E-3	-5.11003E-3
3.17909E-3	122.380E-12	747.747E-3	-16.7351E-3	120.714E-12	707.624E-3	-18.1273E-3
3.17409E-3	120.094E-12	747.872E-3	-39.8764E-3	119.740E-12	707.935E-3	-26.5490E-3
3.16908E-3	118.485E-12	717.014E-3	-31.7520E-3	120.171E-12	710.801E-3	-15.8407E-3
3.16408E-3	116.638E-12	690.342E-3	-9.58820E-3	119.427E-12	706.815E-3	-8.88606E-3
3.15908E-3	115.384E-12	673.698E-3	-2.76154E-3	118.988E-12	680.892E-3	-11.6958E-3
3.15408E-3	114.904E-12	668.509E-3	-12.6995E-3	117.871E-12	669.074E-3	-15.1074E-3
3.14907E-3	113.442E-12	676.146E-3	-25.3244E-3	116.982E-12	689.155E-3	-18.8516E-3
3.14407E-3	113.531E-12	680.264E-3	-21.8105E-3	116.099E-12	689.422E-3	-13.4996E-3
3.13907E-3	114.149E-12	659.506E-3	-6.46479E-3	115.524E-12	658.648E-3	1.06959E-3
3.13407E-3	114.345E-12	640.016E-3	-1.46182E-3	114.644E-12	650.500E-3	2.68881E-3
3.12906E-3	114.886E-12	644.296E-3	-9.46826E-3	114.328E-12	664.940E-3	-24.7751E-3
3.12406E-3	116.201E-12	651.505E-3	-19.0765E-3	114.420E-12	679.242E-3	-40.8880E-3
3.11906E-3	117.860E-12	660.165E-3	-21.9589E-3	114.127E-12	683.224E-3	-19.8983E-3
3.11406E-3	118.875E-12	684.508E-3	-12.4002E-3	115.003E-12	666.501E-3	-9.38991E-3
3.10905E-3	119.481E-12	698.119E-3	-8.95107E-3	115.371E-12	651.974E-3	-18.8969E-3
3.10405E-3	119.843E-12	699.845E-3	-6.69063E-3	116.334E-12	665.991E-3	-20.0975E-3
3.09905E-3	120.735E-12	708.870E-3	-6.56898E-3	116.692E-12	696.374E-3	-7.48757E-3
3.09405E-3	120.625E-12	715.147E-3	-10.9342E-3	117.751E-12	704.703E-3	6.94701E-3
3.08904E-3	119.546E-12	716.550E-3	-11.8183E-3	117.891E-12	699.291E-3	6.65515E-3
3.08404E-3	117.980E-12	710.949E-3	-8.00680E-3	117.805E-12	709.631E-3	-4.30055E-3
3.07904E-3	116.891E-12	714.848E-3	-7.39264E-3	117.719E-12	708.544E-3	-17.8651E-3
3.07404E-3	115.863E-12	716.586E-3	-27.6698E-3	117.368E-12	699.315E-3	-19.9910E-3
3.06903E-3	114.520E-12	692.715E-3	-36.6098E-3	116.999E-12	706.924E-3	-18.5705E-3
3.06403E-3	113.432E-12	675.796E-3	-23.7128E-3	116.487E-12	694.866E-3	-24.7953E-3
3.05903E-3	112.296E-12	679.766E-3	-6.98547E-3	115.673E-12	667.713E-3	-21.1432E-3
3.05403E-3	111.536E-12	683.684E-3	-12.5881E-3	114.694E-12	660.533E-3	-27.2111E-3
3.04902E-3	111.022E-12	671.101E-3	-45.1185E-3	114.074E-12	661.480E-3	-39.0691E-3
3.04402E-3	110.527E-12	652.743E-3	-53.8599E-3	113.139E-12	669.714E-3	-34.6116E-3
3.03902E-3	110.630E-12	649.778E-3	-34.1898E-3	113.483E-12	682.827E-3	-25.4980E-3
3.03402E-3	110.455E-12	660.407E-3	-11.9698E-3	112.873E-12	677.883E-3	-15.0633E-3
3.02901E-3	110.940E-12	671.202E-3	-8.62932E-3	112.158E-12	669.634E-3	1.22838E-3
3.02401E-3	111.933E-12	670.289E-3	-24.8561E-3	112.117E-12	702.061E-3	13.5723E-3
3.01901E-3	112.050E-12	663.216E-3	-14.1723E-3	112.314E-12	728.454E-3	5.14232E-3
3.01401E-3	111.905E-12	657.319E-3	402.692E-6	112.414E-12	716.643E-3	-4.37374E-3
3.00900E-3	111.991E-12	661.322E-3	-15.5695E-3	111.544E-12	720.155E-3	-8.86567E-3
3.00400E-3	112.703E-12	692.981E-3	-19.3813E-3	111.684E-12	722.894E-3	-15.5770E-3
2.99900E-3	112.796E-12	712.546E-3	-11.1019E-3	111.692E-12	711.462E-3	-11.0923E-3
2.99400E-3	113.070E-12	711.731E-3	-7.73147E-3	111.939E-12	706.264E-3	-2.28741E-3
2.98899E-3	113.091E-12	715.793E-3	-4.00785E-3	111.289E-12	692.777E-3	-5.75363E-3
2.98399E-3	113.379E-12	718.188E-3	-2.67433E-3	111.270E-12	678.531E-3	-27.0087E-3
2.97899E-3	113.468E-12	727.107E-3	-21.2202E-3	110.490E-12	683.160E-3	-34.3564E-3
2.97399E-3	113.201E-12	719.201E-3	-36.8911E-3	110.371E-12	696.852E-3	-23.5827E-3
2.96898E-3	112.298E-12	704.363E-3	-28.0072E-3	110.212E-12	710.124E-3	-6.20589E-3
2.96398E-3	112.368E-12	707.835E-3	-38.3061E-3	109.772E-12	711.997E-3	4.47309E-3
2.95898E-3	112.237E-12	709.544E-3	-62.9881E-3	109.092E-12	685.722E-3	-10.3588E-3
2.95398E-3	111.239E-12	711.943E-3	-65.0656E-3	108.877E-12	663.748E-3	-22.8178E-3
2.94897E-3	109.231E-12	706.776E-3	-49.9358E-3	109.107E-12	677.714E-3	-28.3600E-3
2.94397E-3	108.905E-12	688.911E-3	-26.2237E-3	108.981E-12	691.137E-3	-32.2128E-3
2.93897E-3	108.812E-12	682.404E-3	-8.59090E-3	108.997E-12	682.473E-3	-17.7236E-3
2.93397E-3	107.867E-12	695.274E-3	-19.3017E-3	108.911E-12	684.723E-3	-14.7292E-3
2.92896E-3	105.898E-12	719.391E-3	-36.4683E-3	108.064E-12	694.478E-3	-38.9868E-3
2.92396E-3	105.555E-12	719.512E-3	-40.2317E-3	107.619E-12	692.560E-3	-37.9163E-3
2.91896E-3	105.430E-12	690.131E-3	-34.6454E-3	106.873E-12	688.939E-3	-7.80094E-3
2.91396E-3	105.640E-12	680.862E-3	-17.3194E-3	106.469E-12	684.387E-3	9.89685E-3
2.90895E-3	106.035E-12	684.854E-3	5.53394E-3	105.653E-12	676.525E-3	9.01206E-3
2.90395E-3	105.909E-12	683.479E-3	-313.878E-6	105.029E-12	679.838E-3	8.95353E-3
2.89895E-3	106.183E-12	677.151E-3	-31.1352E-3	104.560E-12	695.601E-3	17.3459E-3
2.89395E-3	107.965E-12	667.283E-3	-44.6070E-3	104.791E-12	693.184E-3	15.2945E-3
2.88894E-3	108.926E-12	665.641E-3	-35.8606E-3	104.632E-12	670.794E-3	16.0654E-3
2.88394E-3	109.074E-12	674.738E-3	-19.8755E-3	104.712E-12	668.835E-3	14.9454E-3
2.87894E-3	109.218E-12	693.394E-3	-6.46103E-3	104.608E-12	686.564E-3	-12.7669E-3
2.87394E-3	110.041E-12	716.647E-3	179.950E-6	105.356E-12	700.491E-3	-18.1207E-3
2.86893E-3	109.812E-12	727.608E-3	-6.77810E-3	105.059E-12	717.990E-3	187.518E-6
2.86393E-3	109.233E-12	739.307E-3	-11.9128E-3	105.518E-12	725.522E-3	-5.02198E-3
2.85893E-3	108.264E-12	749.005E-3	-12.8675E-3	105.585E-12	708.523E-3	-3.43476E-3
2.85393E-3	107.224E-12	725.138E-3	-20.8107E-3	105.872E-12	692.185E-3	13.2986E-3
2.84892E-3	106.210E-12	707.820E-3	-35.8510E-3	105.740E-12	689.372E-3	10.5104E-3
2.84392E-3	105.000E-12	710.243E-3	-34.4249E-3	105.110E-12	695.577E-3	-4.18248E-3
2.83892E-3	102.439E-12	707.542E-3	-7.73412E-3	104.975E-12	718.322E-3	-22.8185E-3
2.83392E-3	101.052E-12	698.838E-3	-1.73841E-3	104.286E-12	734.361E-3	-40.3033E-3
2.82891E-3	100.291E-12	691.724E-3	-23.5950E-3	103.851E-12	718.979E-3	-35.3952E-3
2.82391E-3	100.119E-12	692.936E-3	-47.1572E-3	103.268E-12	700.905E-3	-22.9946E-3
2.81891E-3	98.9730E-12	693.638E-3	-44.7573E-3	103.012E-12	698.298E-3	-16.4790E-3
2.81391E-3	98.6347E-12	682.870E-3	-17.7202E-3	102.088E-12	697.837E-3	-7.39133E-3
2.80890E-3	98.8273E-12	678.429E-3	-4.41418E-3	101.597E-12	696.826E-3	-2.18402E-3
2.80390E-3	100.180E-12	689.086E-3	-9.35583E-3	101.793E-12	706.556E-3	-6.67723E-3
2.79890E-3	100.451E-12	682.458E-3	-11.5660E-3	101.603E-12	717.466E-3	-9.67894E-3
2.79390E-3	101.139E-12	674.751E-3	-16.6672E-3	101.520E-12	717.114E-3	-3.79762E-3
2.78889E-3	101.977E-12	688.635E-3	-21.3732E-3	101.424E-12	714.437E-3	-8.94545E-3
2.78389E-3	103.249E-12	696.512E-3	-14.1719E-3	101.371E-12	712.310E-3	-19.7924E-3
2.77889E-3	104.168E-12	705.093E-3	-12.7578E-3	101.934E-12	709.403E-3	-19.5898E-3
2.77389E-3	105.115E-12	723.157E-3	-19.5793E-3	102.347E-12	714.424E-3	-26.1670E-3
2.76888E-3	105.190E-12	725.030E-3	-20.1603E-3	102.370E-12	731.799E-3	-37.0986E-3
2.76388E-3	105.078E-12	723.955E-3	-16.5018E-3	102.020E-12	739.771E-3	-33.2711E-3
2.75888E-3	104.604E-12	743.051E-3	-14.2299E-3	101.843E-12	732.711E-3	-30.7757E-3
2.75388E-3	103.593E-12	753.311E-3	-7.64613E-3	102.352E-12	723.688E-3	-39.5670E-3
2.74887E-3	102.306E-12	738.990E-3	2.47388E-3	100.941E-12	715.741E-3	-31.6283E-3
2.74387E-3	100.230E-12	723.108E-3	6.89057E-3	100.464E-12	713.063E-3	-13.8944E-3
2.73887E-3	98.5967E-12	715.724E-3	229.867E-6	100.164E-12	710.397E-3	-6.11229E-3
2.73387E-3	97.7056E-12	708.689E-3	-27.5806E-3	99.1818E-12	700.810E-3	-2.73764E-3
2.72886E-3	96.4331E-12	710.933E-3	-59.6602E-3	98.0816E-12	696.963E-3	-16.8482E-3
2.72386E-3	95.2690E-12	714.884E-3	-62.8185E-3	97.7022E-12	697.008E-3	-34.7319E-3
2.71886E-3	94.3991E-12	705.344E-3	-56.6810E-3	97.1325E-12	692.951E-3	-26.5132E-3
2.71386E-3	94.6476E-12	714.346E-3	-49.8562E-3	96.2264E-12	701.038E-3	-13.1685E-3
2.70885E-3	94.7470E-12	728.735E-3	-22.2012E-3	96.1727E-12	708.434E-3	-9.80594E-3
2.70385E-3	95.0044E-12	717.177E-3	-1.10440E-3	95.9387E-12	702.975E-3	-6.00515E-3
2.69885E-3	95.5445E-12	705.247E-3	-10.3409E-3	95.8702E-12	710.854E-3	-7.12906E-3
2.69385E-3	95.9771E-12	684.642E-3	-32.1837E-3	95.3509E-12	725.643E-3	-4.50156E-3
2.68884E-3	97.3645E-12	669.516E-3	-29.1401E-3	96.1080E-12	720.726E-3	11.8635E-3
2.68384E-3	98.2810E-12	694.972E-3	-16.4757E-3	95.9703E-12	694.605E-3	19.1067E-3
2.67884E-3	99.1241E-12	723.823E-3	-28.0781E-3	96.4417E-12	675.820E-3	1.56819E-3
2.67384E-3	99.5904E-12	719.956E-3	-39.1826E-3	96.1301E-12	683.863E-3	-26.7076E-3
2.66883E-3	99.9401E-12	713.343E-3	-33.4423E-3	95.9634E-12	705.835E-3	-41.2930E-3
2.66383E-3	100.276E-12	727.763E-3	-16.0062E-3	96.0851E-12	720.750E-3	-33.0629E-3
2.65883E-3	99.3526E-12	736.246E-3	7.88230E-3	95.5746E-12	710.121E-3	-19.1542E-3
2.65383E-3	98.4090E-12	746.039E-3	9.33184E-3	94.6321E-12	694.703E-3	-8.65851E-3
2.64882E-3	96.7100E-12	764.346E-3	-12.9726E-3	93.9247E-12	692.600E-3	-13.6388E-3
2.64382E-3	96.2964E-12	747.148E-3	-28.5110E-3	94.1543E-12	701.280E-3	-26.3152E-3
2.63882E-3	94.8500E-12	710.822E-3	-45.2192E-3	92.9540E-12	717.118E-3	-8.32028E-3
2.63382E-3	93.3986E-12	712.527E-3	-55.8501E-3	92.6910E-12	713.092E-3	7.48424E-3
2.62881E-3	92.1136E-12	725.437E-3	-52.2950E-3	92.3772E-12	695.119E-3	-12.0721E-3
2.62381E-3	92.1162E-12	711.181E-3	-48.2893E-3	92.7757E-12	689.067E-3	-25.7030E-3
2.61881E-3	91.6397E-12	694.172E-3	-37.7788E-3	92.3548E-12	687.345E-3	-17.4439E-3
2.61381E-3	90.8513E-12	700.097E-3	-13.9529E-3	92.0440E-12	691.392E-3	-8.85081E-3
2.60880E-3	90.6652E-12	715.074E-3	10.4016E-3	91.5815E-12	702.673E-3	-5.31544E-3
2.60380E-3	90.7891E-12	720.557E-3	12.9705E-3	91.5999E-12	701.587E-3	-15.5481E-3
2.59880E-3	91.0635E-12	724.444E-3	-9.07667E-3	92.3619E-12	700.264E-3	-28.1281E-3
2.59380E-3	91.3798E-12	723.415E-3	-24.8200E-3	91.9212E-12	716.692E-3	-20.6244E-3
2.58879E-3	91.6448E-12	715.999E-3	-15.9200E-3	91.6686E-12	722.940E-3	-6.88239E-3
2.58379E-3	91.4857E-12	713.318E-3	-4.79306E-3	91.8495E-12	716.142E-3	-5.75409E-3
2.57879E-3	91.6186E-12	719.376E-3	5.68141E-3	92.3343E-12	718.130E-3	-14.8956E-3
2.57379E-3	91.9484E-12	714.116E-3	5.41275E-3	92.1666E-12	716.590E-3	-20.1604E-3
2.56878E-3	92.1903E-12	712.371E-3	-17.9241E-3	91.6812E-12	715.283E-3	-22.7503E-3
2.56378E-3	92.2869E-12	738.093E-3	-35.6075E-3	91.4275E-12	730.808E-3	-16.5750E-3
2.55878E-3	92.3181E-12	753.039E-3	-35.7888E-3	90.9605E-12	742.830E-3	-8.10687E-3
2.55378E-3	91.8248E-12	747.285E-3	-30.4624E-3	91.0954E-12	731.707E-3	-19.3626E-3
2.54877E-3	91.4702E-12	738.216E-3	-24.4241E-3	91.4650E-12	712.177E-3	-28.0515E-3
2.54377E-3	91.3410E-12	724.218E-3	-18.0545E-3	90.6538E-12	707.991E-3	-25.1999E-3
2.53877E-3	90.7740E-12	712.623E-3	-14.8847E-3	90.0143E-12	720.345E-3	-24.1698E-3
2.53377E-3	89.6572E-12	706.131E-3	-3.93885E-3	90.1126E-12	729.851E-3	-9.08330E-3
2.52876E-3	89.0617E-12	708.961E-3	5.81857E-3	90.5763E-12	735.817E-3	12.3346E-3
2.52376E-3	88.0801E-12	719.112E-3	-8.07525E-3	90.2960E-12	738.749E-3	1.54709E-3
2.51876E-3	88.2038E-12	725.533E-3	-25.6891E-3	89.0546E-12	738.477E-3	-15.2352E-3
2.51376E-3	87.4707E-12	727.047E-3	-20.8258E-3	88.9508E-12	745.311E-3	-4.21580E-3
2.50875E-3	86.7774E-12	730.373E-3	-2.73858E-3	89.1766E-12	741.849E-3	-600.324E-6
2.50375E-3	86.2636E-12	739.163E-3	3.79082E-3	89.1152E-12	728.892E-3	-2.95458E-3
2.49875E-3	86.4154E-12	734.718E-3	-6.32492E-3	88.5352E-12	734.674E-3	-10.3647E-3
2.49375E-3	86.0229E-12	716.790E-3	-18.7454E-3	87.8567E-12	766.298E-3	-34.2840E-3
2.48874E-3	85.3864E-12	712.801E-3	-19.5022E-3	88.1116E-12	787.019E-3	-34.6719E-3
2.48374E-3	85.1052E-12	716.464E-3	-11.7427E-3	88.4184E-12	770.104E-3	-14.5970E-3
2.47874E-3	85.4576E-12	722.370E-3	-12.2674E-3	88.1083E-12	750.915E-3	-14.5337E-3
2.47374E-3	85.7634E-12	717.285E-3	-18.9606E-3	86.4650E-12	746.605E-3	-16.2325E-3
2.46873E-3	85.7732E-12	701.454E-3	-20.6306E-3	86.9565E-12	746.745E-3	-9.61856E-3
2.46373E-3	85.9398E-12	713.116E-3	-23.3495E-3	86.9099E-12	751.279E-3	-13.6232E-3
2.45873E-3	86.7330E-12	731.338E-3	-29.2116E-3	87.0686E-12	755.902E-3	-20.4470E-3
2.45373E-3	87.2888E-12	736.747E-3	-30.4743E-3	86.3242E-12	758.727E-3	-21.4667E-3
2.44872E-3	87.7206E-12	737.526E-3	-25.2511E-3	86.0032E-12	760.624E-3	-16.2268E-3
2.44372E-3	87.9405E-12	732.245E-3	-18.7675E-3	85.9502E-12	763.946E-3	-9.32948E-3
2.43872E-3	87.5026E-12	743.871E-3	-7.52755E-3	85.8753E-12	766.012E-3	-12.9851E-3
2.43372E-3	87.1059E-12	762.329E-3	1.34272E-3	85.3483E-12	759.500E-3	-22.1767E-3
2.42871E-3	86.5024E-12	759.238E-3	-10.0658E-3	84.5572E-12	742.614E-3	-19.5609E-3
2.42371E-3	85.7588E-12	746.209E-3	-23.8340E-3	84.2055E-12	738.001E-3	-9.39358E-3
2.41871E-3	84.6681E-12	731.284E-3	-35.1641E-3	84.2126E-12	756.490E-3	-640.224E-6
2.41371E-3	83.7311E-12	719.947E-3	-38.1088E-3	84.0154E-12	756.404E-3	-3.13232E-3
2.40870E-3	82.7637E-12	727.844E-3	-23.7618E-3	82.8589E-12	731.619E-3	-18.8815E-3
2.40370E-3	81.6924E-12	742.806E-3	-12.6854E-3	82.2194E-12	712.357E-3	-31.9534E-3
2.39870E-3	80.3739E-12	737.930E-3	-9.76769E-3	82.0623E-12	714.876E-3	-35.4846E-3
2.39370E-3	79.9527E-12	726.246E-3	-16.0261E-3	81.8451E-12	730.025E-3	-29.2255E-3
2.38869E-3	79.4683E-12	728.922E-3	-27.1923E-3	81.1697E-12	740.542E-3	-11.7947E-3
2.38369E-3	78.8816E-12	739.788E-3	-26.0456E-3	80.2515E-12	749.508E-3	-7.90377E-3
2.37869E-3	78.8721E-12	749.899E-3	-18.1190E-3	80.5377E-12	750.815E-3	-16.9644E-3
2.37369E-3	79.3309E-12	751.433E-3	-5.63335E-3	80.9642E-12	741.770E-3	-16.5444E-3
2.36868E-3	79.7732E-12	735.018E-3	11.3175E-3	80.8280E-12	734.670E-3	-11.2058E-3
2.36368E-3	80.5840E-12	710.931E-3	12.7430E-3	80.2132E-12	738.963E-3	-5.33217E-3
2.35868E-3	81.7391E-12	713.573E-3	3.50712E-3	80.3623E-12	758.336E-3	-4.24317E-3
2.35368E-3	82.6621E-12	739.516E-3	9.72512E-3	81.1530E-12	771.450E-3	-18.6203E-3
2.34867E-3	82.9560E-12	762.832E-3	6.01467E-3	81.6396E-12	761.765E-3	-32.0352E-3
2.34367E-3	83.6325E-12	768.157E-3	-18.7435E-3	80.8524E-12	751.433E-3	-20.2824E-3
2.33867E-3	83.0341E-12	769.946E-3	-20.7075E-3	80.1525E-12	747.344E-3	1.44468E-3
2.33367E-3	83.2026E-12	774.334E-3	-8.89833E-3	80.4409E-12	749.470E-3	15.6436E-3
2.32866E-3	82.7636E-12	768.966E-3	-10.5419E-3	80.7439E-12	757.392E-3	19.9662E-3
2.32366E-3	81.7038E-12	765.611E-3	-21.8843E-3	80.2759E-12	762.491E-3	9.14091E-3
2.31866E-3	79.8232E-12	768.589E-3	-22.8054E-3	79.2930E-12	761.747E-3	-8.30602E-3
2.31366E-3	79.0643E-12	769.604E-3	-15.8070E-3	78.7531E-12	751.718E-3	-15.5732E-3
2.30865E-3	77.6412E-12	764.473E-3	-3.04331E-3	78.9953E-12	751.864E-3	-17.7424E-3
2.30365E-3	76.1589E-12	766.846E-3	5.89866E-3	78.7540E-12	760.528E-3	-24.5861E-3
2.29865E-3	74.7198E-12	772.246E-3	-2.32908E-3	77.6637E-12	765.247E-3	-23.2951E-3
2.29365E-3	73.9884E-12	757.358E-3	-1.03663E-3	76.9149E-12	769.114E-3	-26.6206E-3
2.28864E-3	73.5747E-12	732.084E-3	5.79543E-3	76.9127E-12	759.710E-3	-32.9074E-3
2.28364E-3	73.1892E-12	729.123E-3	-7.12018E-3	77.1479E-12	759.330E-3	-17.6944E-3
2.27864E-3	73.4199E-12	734.625E-3	-25.9024E-3	76.3126E-12	769.809E-3	-11.3958E-3
2.27364E-3	73.9021E-12	713.949E-3	-28.1576E-3	76.3441E-12	774.292E-3	-26.0062E-3
2.26863E-3	74.1757E-12	700.927E-3	-28.7703E-3	76.6466E-12	782.418E-3	-30.1344E-3
2.26363E-3	74.7956E-12	715.964E-3	-23.2276E-3	77.0730E-12	787.101E-3	-33.2775E-3
2.25863E-3	76.0599E-12	736.192E-3	920.881E-6	76.7710E-12	779.045E-3	-48.0209E-3
2.25363E-3	76.5491E-12	753.677E-3	1.61147E-3	76.5693E-12	762.534E-3	-46.1231E-3
2.24862E-3	77.3712E-12	767.118E-3	-31.0041E-3	76.3934E-12	755.869E-3	-24.6678E-3
2.24362E-3	77.3959E-12	771.410E-3	-48.7991E-3	76.1538E-12	752.781E-3	-15.4368E-3
2.23862E-3	77.8520E-12	774.920E-3	-38.7779E-3	76.0661E-12	749.485E-3	-18.0866E-3
2.23362E-3	77.6721E-12	783.810E-3	-19.1025E-3	75.8914E-12	765.513E-3	-20.8904E-3
2.22861E-3	77.5228E-12	791.860E-3	-8.93805E-3	75.5903E-12	785.872E-3	-22.5098E-3
2.22361E-3	76.0081E-12	806.378E-3	-27.7642E-3	75.3974E-12	788.725E-3	-9.56988E-3
2.21861E-3	75.2068E-12	809.989E-3	-44.4071E-3	75.4614E-12	785.679E-3	-11.1033E-3
2.21361E-3	74.1776E-12	787.340E-3	-25.7814E-3	74.7650E-12	785.431E-3	-34.8217E-3
2.20860E-3	73.0078E-12	768.387E-3	773.778E-6	74.2221E-12	787.136E-3	-32.1516E-3
2.20360E-3	72.1442E-12	770.796E-3	4.68834E-3	73.9901E-12	793.601E-3	-22.0356E-3
2.19860E-3	71.0597E-12	776.689E-3	-7.24153E-3	73.7601E-12	796.234E-3	-22.1683E-3
2.19360E-3	70.4300E-12	766.273E-3	-11.7777E-3	73.1638E-12	798.775E-3	-8.25359E-3
2.18859E-3	70.2414E-12	749.655E-3	-9.76700E-3	72.9524E-12	808.262E-3	4.89301E-3
2.18359E-3	70.1707E-12	745.335E-3	-16.1375E-3	72.5048E-12	807.379E-3	-2.21697E-3
2.17859E-3	69.9563E-12	754.855E-3	-29.2940E-3	72.8086E-12	795.684E-3	-9.64373E-3
2.17359E-3	70.0379E-12	769.014E-3	-40.3779E-3	72.6204E-12	792.924E-3	-8.87762E-3
2.16858E-3	70.1505E-12	759.697E-3	-40.7997E-3	71.7936E-12	792.413E-3	-13.6228E-3
2.16358E-3	70.5070E-12	737.946E-3	-31.7582E-3	71.4830E-12	783.251E-3	-24.8732E-3
2.15858E-3	71.0867E-12	748.404E-3	-33.6417E-3	71.6566E-12	776.589E-3	-34.0080E-3
2.15358E-3	71.0289E-12	774.525E-3	-29.8261E-3	71.0573E-12	779.738E-3	-35.1714E-3
2.14857E-3	71.2459E-12	781.045E-3	-9.69345E-3	69.9178E-12	781.072E-3	-23.7820E-3
2.14357E-3	71.8250E-12	780.662E-3	-8.68745E-3	69.9362E-12	781.951E-3	-11.4733E-3
2.13857E-3	71.7954E-12	787.893E-3	-27.4275E-3	70.3886E-12	797.830E-3	-9.26391E-3
2.13357E-3	71.4394E-12	796.023E-3	-36.2050E-3	69.8091E-12	798.806E-3	-9.98870E-3
2.12856E-3	71.2273E-12	813.471E-3	-42.0006E-3	69.0627E-12	785.801E-3	-11.2577E-3
2.12356E-3	71.3730E-12	823.533E-3	-44.7951E-3	68.7518E-12	794.538E-3	-28.8190E-3
2.11856E-3	70.7488E-12	816.565E-3	-29.8483E-3	68.8531E-12	808.325E-3	-52.6884E-3
2.11356E-3	70.0535E-12	812.822E-3	-21.9576E-3	68.3713E-12	811.988E-3	-47.9675E-3
2.10855E-3	69.4325E-12	814.221E-3	-23.9263E-3	68.0157E-12	813.900E-3	-18.4458E-3
2.10355E-3	68.5237E-12	821.353E-3	-17.1035E-3	67.5507E-12	813.853E-3	4.95974E-3
2.09855E-3	68.1447E-12	824.178E-3	-17.1101E-3	67.5295E-12	799.362E-3	2.36707E-3
2.09355E-3	67.6385E-12	827.406E-3	-27.1975E-3	67.1737E-12	781.727E-3	-22.0607E-3
2.08854E-3	67.1948E-12	836.008E-3	-26.8879E-3	66.9782E-12	790.709E-3	-38.8529E-3
2.08354E-3	66.4137E-12	830.310E-3	-23.2036E-3	66.4959E-12	814.562E-3	-27.3431E-3
2.07854E-3	66.2018E-12	811.697E-3	-10.4936E-3	65.9507E-12	818.681E-3	-9.94176E-3
2.07354E-3	65.6068E-12	795.892E-3	406.869E-6	65.7207E-12	808.202E-3	-12.2507E-3
2.06853E-3	64.8617E-12	805.277E-3	-16.9763E-3	65.5210E-12	813.788E-3	-26.1273E-3
2.06353E-3	64.6052E-12	821.788E-3	-24.2845E-3	65.2516E-12	824.630E-3	-35.8584E-3
2.05853E-3	64.6414E-12	810.185E-3	-9.20577E-3	64.6769E-12	823.537E-3	-37.1029E-3
2.05353E-3	64.2583E-12	803.612E-3	-9.86771E-3	64.5234E-12	824.844E-3	-25.7588E-3
2.04852E-3	63.9822E-12	802.480E-3	-21.2572E-3	64.6484E-12	822.216E-3	-12.3765E-3
2.04352E-3	63.6287E-12	779.629E-3	-24.2806E-3	64.6475E-12	813.563E-3	-22.5149E-3
2.03852E-3	64.0751E-12	769.529E-3	-21.0483E-3	64.0166E-12	816.358E-3	-30.1657E-3
2.03352E-3	64.3743E-12	792.924E-3	-9.94490E-3	63.8692E-12	836.507E-3	-18.1896E-3
2.02851E-3	64.6117E-12	831.668E-3	1.41080E-3	64.0164E-12	847.448E-3	-14.3430E-3
2.02351E-3	64.3937E-12	851.263E-3	-797.756E-6	63.6039E-12	829.231E-3	-27.0404E-3
2.01851E-3	64.3507E-12	842.970E-3	-17.4631E-3	63.6224E-12	819.356E-3	-35.9093E-3
2.01351E-3	64.6933E-12	835.850E-3	-27.4789E-3	63.5417E-12	828.580E-3	-18.1096E-3
2.00850E-3	64.3681E-12	842.199E-3	-21.3122E-3	63.4877E-12	826.840E-3	-3.09943E-3
2.00350E-3	64.2070E-12	854.009E-3	-15.9294E-3	63.0661E-12	823.836E-3	-7.82417E-3
1.99850E-3	63.5857E-12	852.927E-3	-18.8501E-3	63.0723E-12	829.242E-3	-11.9287E-3
1.99350E-3	63.0673E-12	846.263E-3	-27.3600E-3	62.4640E-12	828.924E-3	-5.74527E-3
1.98849E-3	62.2128E-12	848.099E-3	-31.0992E-3	61.9743E-12	831.082E-3	2.65321E-3
1.98349E-3	61.7147E-12	847.033E-3	-22.7779E-3	61.7173E-12	846.055E-3	4.39457E-3
1.97849E-3	60.4272E-12	844.550E-3	-12.0519E-3	61.5090E-12	849.931E-3	-2.07524E-3
1.97349E-3	59.5292E-12	835.616E-3	-13.5075E-3	60.8403E-12	833.594E-3	-10.8177E-3
1.96848E-3	58.8633E-12	821.290E-3	-22.9116E-3	60.3049E-12	821.944E-3	-9.44094E-3
1.96348E-3	58.2697E-12	814.934E-3	-27.9932E-3	60.2153E-12	815.495E-3	-6.48411E-3
1.95848E-3	57.3103E-12	813.428E-3	-32.2409E-3	59.7119E-12	822.772E-3	-7.94368E-3
1.95348E-3	56.8614E-12	810.718E-3	-37.5819E-3	59.4483E-12	848.666E-3	-17.5314E-3
1.94847E-3	56.9167E-12	806.976E-3	-40.4050E-3	59.1148E-12	860.492E-3	-33.6795E-3
1.94347E-3	56.9891E-12	812.064E-3	-48.9237E-3	59.0347E-12	852.734E-3	-32.6712E-3
1.93847E-3	56.9862E-12	820.868E-3	-53.5737E-3	58.8936E-12	848.974E-3	-28.2174E-3
1.93347E-3	57.1382E-12	827.481E-3	-34.1384E-3	58.7025E-12	854.465E-3	-36.1890E-3
1.92846E-3	58.1470E-12	837.476E-3	-13.3294E-3	58.3983E-12	865.107E-3	-31.0225E-3
1.92346E-3	58.3915E-12	848.399E-3	-9.65710E-3	58.4884E-12	881.557E-3	-22.0367E-3
1.91846E-3	58.5499E-12	853.274E-3	-12.3984E-3	58.1522E-12	890.117E-3	-20.3076E-3
1.91346E-3	59.0092E-12	848.776E-3	-17.3519E-3	57.9767E-12	885.097E-3	-13.7101E-3
1.90845E-3	58.9745E-12	850.951E-3	-16.6705E-3	57.6513E-12	886.881E-3	-4.76623E-3
1.90345E-3	58.9707E-12	877.841E-3	-16.4283E-3	57.3968E-12	892.843E-3	-2.28122E-3
1.89845E-3	58.1752E-12	911.568E-3	-12.8593E-3	56.7637E-12	883.909E-3	-13.7098E-3
1.89345E-3	57.9924E-12	925.930E-3	-879.290E-6	56.2765E-12	877.212E-3	-25.8301E-3
1.88844E-3	56.7214E-12	918.982E-3	-2.68000E-3	55.9178E-12	878.375E-3	-20.9724E-3
1.88344E-3	55.8713E-12	894.026E-3	-19.2092E-3	55.4861E-12	875.814E-3	-8.21856E-3
1.87844E-3	54.7605E-12	873.146E-3	-21.9361E-3	54.8923E-12	876.961E-3	-3.72984E-3
1.87344E-3	54.1500E-12	869.705E-3	-12.7035E-3	54.5003E-12	874.457E-3	-9.16936E-3
1.86843E-3	53.5377E-12	867.426E-3	-23.4899E-3	54.2900E-12	863.076E-3	-18.2537E-3
1.86343E-3	52.8100E-12	863.620E-3	-30.0287E-3	53.4013E-12	870.369E-3	-14.8405E-3
1.85843E-3	52.0835E-12	865.151E-3	-7.48801E-3	52.9053E-12	898.696E-3	-10.1493E-3
1.85343E-3	51.6726E-12	865.950E-3	5.47331E-3	52.6704E-12	906.818E-3	-17.8792E-3
1.84842E-3	51.5815E-12	868.146E-3	-10.5276E-3	52.5188E-12	894.933E-3	-15.7702E-3
1.84342E-3	51.4576E-12	866.343E-3	-31.6469E-3	52.2335E-12	889.489E-3	-10.8884E-3
1.83842E-3	51.7693E-12	857.541E-3	-34.4138E-3	51.8658E-12	888.537E-3	-9.88015E-3
1.83342E-3	52.1506E-12	862.031E-3	-29.2258E-3	51.6844E-12	885.952E-3	-5.06866E-3
1.82841E-3	52.4546E-12	870.743E-3	-16.1088E-3	51.7208E-12	899.211E-3	-8.59061E-3
1.82341E-3	52.4512E-12	874.713E-3	-2.63055E-3	51.4478E-12	916.221E-3	-21.8043E-3
1.81841E-3	52.7422E-12	888.873E-3	-15.6598E-3	50.8168E-12	908.393E-3	-30.3415E-3
1.81341E-3	52.7752E-12	906.688E-3	-26.0891E-3	50.7675E-12	909.035E-3	-31.5126E-3
1.80840E-3	52.4796E-12	922.093E-3	-22.4304E-3	50.5126E-12	921.798E-3	-28.9664E-3
1.80340E-3	52.0739E-12	944.479E-3	-22.0321E-3	50.0223E-12	909.877E-3	-20.8143E-3
1.79840E-3	51.9409E-12	959.782E-3	-23.2448E-3	49.3736E-12	902.036E-3	-13.1204E-3
1.79340E-3	51.0689E-12	961.103E-3	-29.2966E-3	49.3678E-12	911.320E-3	-16.7980E-3
1.78839E-3	50.4230E-12	959.751E-3	-29.2594E-3	49.1635E-12	910.461E-3	-17.1937E-3
1.78339E-3	49.7142E-12	950.799E-3	-14.0654E-3	49.1535E-12	912.896E-3	1.14789E-3
1.77839E-3	48.8260E-12	937.235E-3	-11.2526E-3	48.7360E-12	918.655E-3	4.12512E-3
1.77339E-3	48.3361E-12	927.641E-3	-20.9552E-3	48.5450E-12	912.800E-3	-18.5465E-3
1.76838E-3	47.7718E-12	922.018E-3	-14.2592E-3	48.1462E-12	915.411E-3	-30.8571E-3
1.76338E-3	47.1554E-12	921.261E-3	3.99016E-3	47.4945E-12	926.784E-3	-23.9320E-3
1.75838E-3	46.6819E-12	930.109E-3	13.7362E-3	47.3197E-12	943.201E-3	-3.16823E-3
1.75338E-3	46.7017E-12	944.854E-3	11.4629E-3	47.0801E-12	962.265E-3	14.4123E-3
1.74837E-3	46.4210E-12	937.968E-3	685.478E-6	46.7078E-12	963.791E-3	3.96473E-3
1.74337E-3	46.2105E-12	915.050E-3	-19.9865E-3	46.4680E-12	962.843E-3	-11.8260E-3
1.73837E-3	46.5371E-12	911.538E-3	-23.9261E-3	46.3083E-12	981.593E-3	-15.2530E-3
1.73337E-3	46.4074E-12	924.218E-3	-5.89170E-3	46.2975E-12	995.670E-3	-24.0628E-3
1.72836E-3	46.2574E-12	944.979E-3	2.57053E-3	46.0662E-12	978.062E-3	-25.9551E-3
1.72336E-3	46.0089E-12	966.641E-3	-3.70291E-3	45.9732E-12	950.916E-3	-7.86474E-3
1.71836E-3	46.0073E-12	964.890E-3	-26.3263E-3	45.6360E-12	962.928E-3	-6.85156E-3
1.71336E-3	45.6092E-12	954.301E-3	-47.4812E-3	45.6362E-12	998.817E-3	-25.7488E-3
1.70835E-3	45.0940E-12	961.649E-3	-43.7450E-3	45.2864E-12	1.00688E+0	-20.6875E-3
1.70335E-3	44.6603E-12	980.620E-3	-30.4309E-3	44.9888E-12	1.00002E+0	-9.76883E-3
1.69835E-3	44.3553E-12	995.402E-3	-26.3323E-3	44.7088E-12	1.00258E+0	-5.01429E-3
1.69335E-3	44.0161E-12	1.00505E+0	-19.7895E-3	44.3160E-12	1.01998E+0	7.25562E-3
1.68834E-3	43.0681E-12	1.01052E+0	-12.2464E-3	44.1776E-12	1.03931E+0	9.08946E-3
1.68334E-3	42.8574E-12	1.00497E+0	-19.3197E-3	43.6930E-12	1.03252E+0	-1.00614E-3
1.67834E-3	42.4766E-12	995.562E-3	-22.3094E-3	43.1886E-12	1.01953E+0	-14.9122E-3
1.67334E-3	42.0513E-12	989.658E-3	-16.6984E-3	42.8184E-12	1.02139E+0	-14.4986E-3
1.66833E-3	41.5997E-12	984.596E-3	-17.4582E-3	42.5630E-12	1.02113E+0	-6.73758E-3
1.66333E-3	41.2330E-12	986.067E-3	-19.9374E-3	42.1598E-12	1.02366E+0	-6.47205E-3
1.65833E-3	41.4000E-12	990.210E-3	-16.6048E-3	41.4435E-12	1.03748E+0	-14.5630E-3
1.65333E-3	41.0574E-12	993.600E-3	-13.5284E-3	41.3401E-12	1.03989E+0	-30.4061E-3
1.64832E-3	40.6062E-12	1.00839E+0	-18.1274E-3	40.8305E-12	1.03516E+0	-35.0559E-3
1.64332E-3	40.1488E-12	1.01784E+0	-23.2316E-3	40.3904E-12	1.04795E+0	-29.5006E-3
1.63832E-3	40.2868E-12	1.01656E+0	-21.1644E-3	40.1276E-12	1.05800E+0	-24.9386E-3
1.63332E-3	39.8553E-12	1.02119E+0	-18.1848E-3	39.8969E-12	1.05750E+0	-17.5677E-3
1.62831E-3	39.2713E-12	1.03272E+0	-14.5267E-3	39.4028E-12	1.06839E+0	-10.5815E-3
1.62331E-3	38.9448E-12	1.04934E+0	-19.0806E-3	39.1527E-12	1.06540E+0	-10.8180E-3
1.61831E-3	38.7296E-12	1.06636E+0	-33.5611E-3	38.8895E-12	1.05372E+0	-12.0969E-3
1.61331E-3	38.4985E-12	1.06795E+0	-29.4557E-3	38.5567E-12	1.06668E+0	-16.9585E-3
1.60830E-3	38.0113E-12	1.06206E+0	-10.8393E-3	38.0470E-12	1.07827E+0	-18.9304E-3
1.60330E-3	37.8117E-12	1.07325E+0	-4.54075E-3	37.7875E-12	1.08056E+0	-13.9229E-3
1.59830E-3	37.4568E-12	1.08441E+0	-10.8243E-3	37.5176E-12	1.09663E+0	-16.4221E-3
1.59330E-3	37.3126E-12	1.08094E+0	-20.8945E-3	36.9540E-12	1.11222E+0	-30.0656E-3
1.58829E-3	37.0748E-12	1.07198E+0	-31.1023E-3	36.3574E-12	1.10609E+0	-41.0188E-3
1.58329E-3	37.0588E-12	1.07675E+0	-35.7931E-3	35.9218E-12	1.09537E+0	-35.9022E-3
1.57829E-3	36.6773E-12	1.09848E+0	-34.4230E-3	35.7952E-12	1.09673E+0	-27.8150E-3
1.57329E-3	36.1243E-12	1.11949E+0	-21.3503E-3	35.3179E-12	1.09742E+0	-24.4833E-3
1.56828E-3	35.8379E-12	1.12832E+0	-4.97159E-3	34.5662E-12	1.10356E+0	-16.6894E-3
1.56328E-3	35.4945E-12	1.12770E+0	-7.93432E-3	34.2360E-12	1.11428E+0	-20.4601E-3
1.55828E-3	34.7766E-12	1.13432E+0	-18.6882E-3	34.0152E-12	1.10712E+0	-30.2436E-3
1.55328E-3	33.9455E-12	1.14774E+0	-15.0765E-3	33.6718E-12	1.10025E+0	-22.4060E-3
1.54827E-3	33.7357E-12	1.15330E+0	-8.40057E-3	32.8654E-12	1.11915E+0	-20.1005E-3
1.54327E-3	33.4361E-12	1.15180E+0	-17.5176E-3	32.6203E-12	1.13953E+0	-27.1305E-3
1.53827E-3	32.9074E-12	1.15141E+0	-22.1525E-3	32.6141E-12	1.14688E+0	-19.7785E-3
1.53327E-3	32.0583E-12	1.14362E+0	-11.2183E-3	32.2106E-12	1.15523E+0	-6.26896E-3
1.52826E-3	31.3668E-12	1.13517E+0	-3.37473E-3	31.4422E-12	1.15208E+0	-2.46604E-3
1.52326E-3	31.3250E-12	1.13453E+0	2.22341E-3	31.3013E-12	1.14739E+0	70.5921E-6
1.51826E-3	30.8758E-12	1.13027E+0	3.02222E-3	31.2577E-12	1.16961E+0	-1.17582E-3
1.51326E-3	30.3788E-12	1.12799E+0	-6.54193E-3	30.7388E-12	1.17834E+0	-14.0068E-3
1.50825E-3	29.9934E-12	1.13412E+0	-12.2642E-3	30.3805E-12	1.16209E+0	-13.7398E-3
1.50325E-3	30.0140E-12	1.13585E+0	-14.2928E-3	30.1159E-12	1.15632E+0	53.0829E-6
1.49825E-3	29.8049E-12	1.13261E+0	-13.4608E-3	29.7670E-12	1.15518E+0	6.59780E-3
1.49325E-3	29.4757E-12	1.14540E+0	-9.09092E-3	29.3155E-12	1.16232E+0	4.01036E-3
1.48824E-3	29.2023E-12	1.16779E+0	-14.7563E-3	28.8725E-12	1.18087E+0	-4.09601E-3
1.48324E-3	29.1250E-12	1.17506E+0	-23.9096E-3	28.6101E-12	1.19004E+0	-14.4719E-3
1.47824E-3	28.7681E-12	1.18307E+0	-18.9825E-3	28.1748E-12	1.18219E+0	-21.0312E-3
1.47324E-3	28.1380E-12	1.19173E+0	-9.26593E-3	27.7517E-12	1.17492E+0	-22.5050E-3
1.46823E-3	27.7944E-12	1.17886E+0	-12.0206E-3	27.1631E-12	1.17656E+0	-33.5123E-3
1.46323E-3	27.3701E-12	1.16934E+0	-32.7965E-3	26.8294E-12	1.18049E+0	-41.5414E-3
1.45823E-3	26.7505E-12	1.18002E+0	-41.4528E-3	26.5058E-12	1.18543E+0	-34.3988E-3
1.45323E-3	25.9335E-12	1.19011E+0	-15.5154E-3	26.0187E-12	1.18535E+0	-24.6468E-3
1.44822E-3	25.6647E-12	1.19126E+0	-2.20756E-3	25.5465E-12	1.18166E+0	-16.0798E-3
1.44322E-3	25.0446E-12	1.19232E+0	-14.0366E-3	25.2441E-12	1.18911E+0	-12.1053E-3
1.43822E-3	24.2203E-12	1.18461E+0	-18.3432E-3	24.9040E-12	1.19714E+0	-19.3224E-3
1.43322E-3	23.9042E-12	1.16925E+0	-10.2985E-3	24.5782E-12	1.18938E+0	-24.8868E-3
1.42821E-3	23.7630E-12	1.16277E+0	-9.50099E-3	24.2264E-12	1.17585E+0	-21.8608E-3
1.42321E-3	23.2102E-12	1.15348E+0	-20.9283E-3	23.8964E-12	1.16953E+0	-23.6232E-3
1.41821E-3	22.7246E-12	1.13709E+0	-36.2994E-3	23.4935E-12	1.17971E+0	-21.0293E-3
1.41321E-3	22.3689E-12	1.13473E+0	-44.4257E-3	23.1137E-12	1.20193E+0	-17.2246E-3
1.40820E-3	22.4661E-12	1.14132E+0	-30.1295E-3	22.8811E-12	1.20483E+0	-26.2729E-3
1.40320E-3	22.5208E-12	1.14434E+0	-9.97054E-3	22.6484E-12	1.18105E+0	-31.6937E-3
1.39820E-3	22.1987E-12	1.15058E+0	1.83594E-3	22.0858E-12	1.16502E+0	-27.2698E-3
1.39320E-3	21.8548E-12	1.16353E+0	1.30025E-3	21.4440E-12	1.16174E+0	-31.0595E-3
1.38819E-3	21.8620E-12	1.18389E+0	-7.71065E-3	21.2024E-12	1.15066E+0	-23.7595E-3
1.38319E-3	21.7398E-12	1.19822E+0	-15.6724E-3	21.0560E-12	1.14518E+0	-1.54434E-3
1.37819E-3	21.0677E-12	1.20324E+0	-20.6644E-3	20.4215E-12	1.14913E+0	-2.54732E-3
1.37319E-3	20.6872E-12	1.20558E+0	-18.7197E-3	19.9078E-12	1.14352E+0	-20.2733E-3
1.36818E-3	20.3427E-12	1.19614E+0	-20.5357E-3	19.6940E-12	1.13576E+0	-25.8412E-3
1.36318E-3	19.5268E-12	1.17613E+0	-21.5912E-3	19.4520E-12	1.12121E+0	-16.9844E-3
1.35818E-3	18.8366E-12	1.15657E+0	-15.1637E-3	18.9353E-12	1.09404E+0	-10.5025E-3
1.35318E-3	18.4484E-12	1.15012E+0	-8.41269E-3	18.3644E-12	1.07573E+0	-9.95240E-3
1.34817E-3	18.0600E-12	1.14172E+0	-3.69880E-3	18.0546E-12	1.07777E+0	-17.5752E-3
1.34317E-3	17.2699E-12	1.11130E+0	-10.2230E-3	17.7698E-12	1.08630E+0	-28.3361E-3
1.33817E-3	16.9608E-12	1.09126E+0	-21.8140E-3	17.4697E-12	1.08728E+0	-14.9076E-3
1.33317E-3	16.5716E-12	1.08849E+0	-24.1322E-3	16.9041E-12	1.08736E+0	7.50561E-3
1.32816E-3	16.4823E-12	1.07241E+0	-30.2717E-3	16.6044E-12	1.07790E+0	9.18538E-3
1.32316E-3	15.8873E-12	1.05731E+0	-36.5143E-3	16.2952E-12	1.05438E+0	-5.76621E-3
1.31816E-3	15.6322E-12	1.05160E+0	-19.4315E-3	15.9752E-12	1.04178E+0	-21.6554E-3
1.31316E-3	15.4902E-12	1.04328E+0	-10.2498E-3	15.4760E-12	1.04255E+0	-28.0127E-3
1.30815E-3	15.4034E-12	1.03648E+0	-28.1829E-3	15.1683E-12	1.03919E+0	-21.7601E-3
1.30315E-3	14.9431E-12	1.03062E+0	-34.1700E-3	14.9831E-12	1.01851E+0	-14.5219E-3
1.29815E-3	14.7645E-12	1.02702E+0	-28.5606E-3	14.5249E-12	987.089E-3	-21.9490E-3
1.29315E-3	14.6504E-12	1.03074E+0	-33.0190E-3	14.2056E-12	967.825E-3	-29.3648E-3
1.28814E-3	14.3774E-12	1.03521E+0	-29.6558E-3	13.9252E-12	960.296E-3	-25.8036E-3
1.28314E-3	13.8513E-12	1.02416E+0	-18.9461E-3	13.4997E-12	953.784E-3	-22.9991E-3
1.27814E-3	13.6086E-12	1.01393E+0	-21.1198E-3	13.0406E-12	937.979E-3	-13.0864E-3
1.27314E-3	13.3445E-12	1.01649E+0	-26.3917E-3	12.7430E-12	914.203E-3	-5.24995E-3
1.26813E-3	13.0131E-12	1.00654E+0	-26.7781E-3	12.5101E-12	898.234E-3	-24.3423E-3
1.26313E-3	12.4237E-12	985.744E-3	-32.1166E-3	12.1398E-12	884.477E-3	-39.0201E-3
1.25813E-3	12.1281E-12	980.982E-3	-26.9362E-3	11.7696E-12	870.750E-3	-18.9325E-3
1.25313E-3	11.8183E-12	971.224E-3	-6.42716E-3	11.4090E-12	856.851E-3	-11.8546E-3
1.24812E-3	11.3928E-12	934.749E-3	-1.02205E-3	11.1903E-12	831.983E-3	-33.4409E-3
1.24312E-3	10.8996E-12	897.485E-3	-15.7667E-3	10.9111E-12	812.141E-3	-30.8483E-3
1.23812E-3	10.6344E-12	869.352E-3	-31.6533E-3	10.6142E-12	812.900E-3	-13.0838E-3
1.23312E-3	10.5338E-12	857.373E-3	-33.3079E-3	10.3766E-12	812.107E-3	-8.69829E-3
1.22811E-3	10.0571E-12	865.237E-3	-20.6416E-3	10.2024E-12	789.435E-3	-8.21680E-3
1.22311E-3	9.67361E-12	855.450E-3	-15.3032E-3	9.87452E-12	763.372E-3	-15.2531E-3
1.21811E-3	9.62850E-12	815.672E-3	-31.9054E-3	9.45956E-12	750.238E-3	-26.5885E-3
1.21311E-3	9.48069E-12	793.156E-3	-46.2347E-3	9.26762E-12	744.395E-3	-24.0869E-3
1.20810E-3	8.93389E-12	794.752E-3	-34.6862E-3	9.18711E-12	738.517E-3	-11.9936E-3
1.20310E-3	8.72985E-12	789.376E-3	-17.5059E-3	8.83171E-12	723.745E-3	-8.33419E-3
1.19810E-3	8.66622E-12	768.926E-3	-13.8968E-3	8.56791E-12	698.753E-3	-13.1687E-3
1.19310E-3	8.47235E-12	741.202E-3	-3.43467E-3	8.38836E-12	671.032E-3	-19.5440E-3
1.18809E-3	8.06657E-12	726.658E-3	11.6140E-3	8.26738E-12	652.792E-3	-27.1364E-3
1.18309E-3	7.87796E-12	722.656E-3	2.59024E-3	7.94920E-12	647.033E-3	-21.3859E-3
1.17809E-3	7.92583E-12	713.569E-3	-2.98820E-3	7.74207E-12	633.866E-3	-2.55579E-3
1.17309E-3	7.73273E-12	696.588E-3	-8.02809E-3	7.47682E-12	607.474E-3	-2.44749E-3
1.16808E-3	7.33907E-12	684.333E-3	-36.5534E-3	7.32717E-12	585.626E-3	-21.6639E-3
1.16308E-3	7.04344E-12	674.783E-3	-38.8973E-3	7.03630E-12	578.545E-3	-26.6397E-3
1.15808E-3	7.04417E-12	643.267E-3	-18.1126E-3	6.90079E-12	569.780E-3	-7.39855E-3
1.15308E-3	6.92154E-12	623.512E-3	-20.8454E-3	6.64646E-12	546.291E-3	8.65664E-3
1.14807E-3	6.49615E-12	634.173E-3	-25.4714E-3	6.47159E-12	531.757E-3	-2.39874E-3
1.14307E-3	6.23252E-12	617.760E-3	-13.6368E-3	6.21213E-12	522.791E-3	-36.3973E-3
1.13807E-3	6.12881E-12	575.803E-3	-10.7495E-3	6.08699E-12	501.593E-3	-51.4453E-3
1.13307E-3	6.09366E-12	552.543E-3	-15.9024E-3	5.94706E-12	488.922E-3	-31.7146E-3
1.12806E-3	5.76128E-12	542.999E-3	-20.2482E-3	5.69193E-12	484.203E-3	-21.1271E-3
1.12306E-3	5.51767E-12	535.423E-3	-26.9493E-3	5.49410E-12	473.938E-3	-28.5504E-3
1.11806E-3	5.43207E-12	526.531E-3	-28.4506E-3	5.36022E-12	464.566E-3	-33.0126E-3
1.11306E-3	5.24617E-12	503.329E-3	-27.5584E-3	5.22457E-12	459.183E-3	-24.9048E-3
1.10805E-3	4.92969E-12	477.436E-3	-20.5168E-3	5.03087E-12	444.534E-3	-7.71172E-3
1.10305E-3	4.83674E-12	474.310E-3	-3.71061E-3	4.75538E-12	419.552E-3	4.28399E-3
1.09805E-3	4.69733E-12	468.939E-3	-2.90499E-3	4.77548E-12	392.850E-3	3.73669E-3
1.09305E-3	4.52743E-12	448.221E-3	-23.2459E-3	4.72844E-12	374.109E-3	-5.42147E-3
1.08804E-3	4.35845E-12	432.556E-3	-33.5894E-3	4.54014E-12	378.457E-3	-9.85082E-3
1.08304E-3	4.28965E-12	416.853E-3	-21.3422E-3	4.33647E-12	378.238E-3	-10.3811E-3
1.07804E-3	4.18328E-12	395.820E-3	-10.9961E-3	4.26060E-12	349.420E-3	-11.0442E-3
1.07304E-3	4.03671E-12	378.852E-3	-9.06052E-3	4.19226E-12	321.726E-3	-14.3667E-3
1.06803E-3	3.92889E-12	362.754E-3	-12.7828E-3	4.01891E-12	307.211E-3	-23.9517E-3
1.06303E-3	3.95552E-12	346.104E-3	-23.8765E-3	3.84354E-12	303.978E-3	-32.1681E-3
1.05803E-3	3.78316E-12	342.489E-3	-22.6328E-3	3.69475E-12	312.520E-3	-28.9026E-3
1.05303E-3	3.57903E-12	337.341E-3	-9.47403E-3	3.65805E-12	299.451E-3	-13.8208E-3
1.04802E-3	3.54401E-12	328.657E-3	-8.83249E-3	3.53615E-12	263.385E-3	-2.93964E-3
1.04302E-3	3.68317E-12	323.082E-3	-26.7625E-3	3.49083E-12	234.082E-3	-8.54284E-3
1.03802E-3	3.45467E-12	307.119E-3	-33.0301E-3	3.31891E-12	218.844E-3	-17.0628E-3
1.03302E-3	3.14314E-12	290.159E-3	-26.3949E-3	3.13848E-12	219.636E-3	-11.8445E-3
1.02801E-3	2.96177E-12	288.669E-3	-27.6914E-3	2.84502E-12	218.547E-3	-5.93252E-3
1.02301E-3	2.89371E-12	284.822E-3	-24.1094E-3	2.73445E-12	206.518E-3	-11.3352E-3
1.01801E-3	2.73563E-12	260.564E-3	-22.9756E-3	2.67540E-12	195.414E-3	-16.2370E-3
1.01301E-3	2.58393E-12	240.336E-3	-28.8635E-3	2.62200E-12	191.160E-3	-8.85818E-3
1.00800E-3	2.50953E-12	223.179E-3	-17.7871E-3	2.51497E-12	199.577E-3	-345.032E-6
1.00300E-3	2.45147E-12	196.760E-3	-4.70146E-3	2.45940E-12	195.851E-3	-10.3130E-3
997.999E-6	2.36351E-12	188.365E-3	-17.8071E-3	2.37563E-12	172.460E-3	-23.8283E-3
992.997E-6	2.23564E-12	200.744E-3	-29.2151E-3	2.33615E-12	159.893E-3	-29.5298E-3
987.994E-6	2.22744E-12	195.741E-3	-21.0925E-3	2.22020E-12	153.241E-3	-33.4428E-3
982.991E-6	2.22592E-12	162.454E-3	-23.0086E-3	2.20016E-12	136.874E-3	-19.2739E-3
977.989E-6	2.10654E-12	145.827E-3	-25.4705E-3	2.17971E-12	123.730E-3	3.61353E-3
972.986E-6	2.09524E-12	151.573E-3	-19.3404E-3	2.10462E-12	119.881E-3	7.48334E-3
967.984E-6	2.13076E-12	153.257E-3	-28.3648E-3	2.00548E-12	118.462E-3	-4.70261E-3
962.981E-6	2.06047E-12	148.915E-3	-31.1597E-3	2.03806E-12	120.158E-3	-15.3582E-3
957.979E-6	1.97932E-12	136.397E-3	-22.1312E-3	1.96917E-12	120.420E-3	-14.9384E-3
952.976E-6	1.98488E-12	124.804E-3	-26.8155E-3	1.89640E-12	109.274E-3	-12.2988E-3
947.974E-6	1.98607E-12	131.682E-3	-20.7552E-3	1.81254E-12	98.9994E-3	-10.2946E-3
942.971E-6	1.89714E-12	142.504E-3	-4.14716E-3	1.83276E-12	97.3806E-3	-7.02659E-3
937.969E-6	1.79077E-12	139.006E-3	-9.38888E-3	1.83065E-12	92.7941E-3	-14.6293E-3
932.966E-6	1.75887E-12	132.308E-3	-20.5488E-3	1.74902E-12	96.3932E-3	-17.1898E-3
927.964E-6	1.80085E-12	119.164E-3	-16.6862E-3	1.66457E-12	105.973E-3	-5.73162E-3
922.961E-6	1.74858E-12	105.351E-3	-18.0184E-3	1.67203E-12	100.220E-3	-8.42575E-3
917.959E-6	1.55906E-12	100.949E-3	-23.5352E-3	1.63396E-12	92.0102E-3	-25.6724E-3
912.956E-6	1.56651E-12	89.5007E-3	-19.8312E-3	1.60087E-12	85.0263E-3	-26.0877E-3
907.954E-6	1.60214E-12	78.7912E-3	-20.1706E-3	1.55179E-12	74.8077E-3	-10.9139E-3
902.951E-6	1.55665E-12	86.1931E-3	-15.7515E-3	1.60506E-12	74.0868E-3	-5.10847E-3
897.949E-6	1.41000E-12	93.3213E-3	-2.08092E-3	1.50063E-12	74.9162E-3	-10.7862E-3
892.946E-6	1.48723E-12	78.6863E-3	-9.10220E-3	1.47887E-12	71.7299E-3	-15.1659E-3
887.944E-6	1.46937E-12	56.0722E-3	-29.0521E-3	1.42092E-12	65.6327E-3	-16.3617E-3
882.941E-6	1.42692E-12	54.8918E-3	-29.9969E-3	1.49101E-12	59.2045E-3	-17.1016E-3
877.939E-6	1.37790E-12	64.9748E-3	-16.2092E-3	1.40868E-12	56.9533E-3	-10.7995E-3
872.936E-6	1.37664E-12	64.7072E-3	-10.0680E-3	1.34806E-12	49.9814E-3	-4.70161E-3
867.934E-6	1.41254E-12	58.1766E-3	-19.5063E-3	1.35888E-12	50.6212E-3	-7.14532E-3
862.931E-6	1.36152E-12	50.7895E-3	-19.8629E-3	1.37292E-12	67.0547E-3	-12.0442E-3
857.929E-6	1.33326E-12	41.3710E-3	-8.99610E-3	1.33308E-12	78.3280E-3	-14.7522E-3
852.926E-6	1.39874E-12	42.9886E-3	-4.45339E-3	1.27003E-12	75.6309E-3	-18.5504E-3
847.924E-6	1.34976E-12	55.5871E-3	-7.97633E-3	1.29387E-12	67.6172E-3	-20.2125E-3
842.921E-6	1.26820E-12	61.2409E-3	-16.0740E-3	1.33196E-12	60.3154E-3	-20.4348E-3
837.919E-6	1.31013E-12	51.5048E-3	-10.3118E-3	1.23834E-12	55.1316E-3	-24.1579E-3
832.916E-6	1.31675E-12	30.7684E-3	-3.08442E-3	1.24430E-12	54.6827E-3	-23.6932E-3
827.914E-6	1.26350E-12	31.0021E-3	-10.8568E-3	1.21776E-12	53.9286E-3	-21.6041E-3
822.911E-6	1.18999E-12	52.3233E-3	-12.8375E-3	1.29761E-12	49.0042E-3	-19.0762E-3
817.909E-6	1.18010E-12	57.0813E-3	-14.8509E-3	1.17311E-12	44.7509E-3	-13.0302E-3
812.906E-6	1.23748E-12	40.8913E-3	-30.7626E-3	1.13052E-12	48.4288E-3	-14.6967E-3
807.904E-6	1.19073E-12	34.0401E-3	-36.6889E-3	1.18214E-12	60.0758E-3	-23.7964E-3
802.901E-6	1.06682E-12	37.2754E-3	-27.4727E-3	1.15565E-12	62.0251E-3	-18.5400E-3
797.899E-6	1.09261E-12	39.4820E-3	-22.8358E-3	1.16534E-12	42.7559E-3	350.421E-6
792.896E-6	1.20342E-12	41.6432E-3	-21.5300E-3	1.05908E-12	29.9540E-3	5.55747E-3
787.894E-6	1.10390E-12	26.5398E-3	-19.4231E-3	1.11148E-12	35.5162E-3	-10.9675E-3
782.891E-6	1.05598E-12	11.4634E-3	-19.3950E-3	1.11767E-12	35.1504E-3	-22.9637E-3
777.889E-6	1.03009E-12	18.5612E-3	-15.0393E-3	1.04411E-12	27.7470E-3	-17.4048E-3
772.886E-6	1.07238E-12	28.6402E-3	-14.6549E-3	1.02379E-12	25.6072E-3	-14.2003E-3
767.884E-6	1.06231E-12	25.4512E-3	-20.6600E-3	1.08365E-12	22.0754E-3	-19.5019E-3
762.881E-6	987.965E-15	18.9250E-3	-13.2544E-3	1.00688E-12	24.1645E-3	-28.1152E-3
757.879E-6	1.01077E-12	20.7010E-3	-2.42572E-3	958.442E-15	40.4087E-3	-30.5635E-3
752.876E-6	1.03302E-12	27.8298E-3	-10.3535E-3	945.650E-15	42.0663E-3	-15.2594E-3
747.874E-6	972.767E-15	41.2295E-3	-19.6614E-3	1.03720E-12	28.7564E-3	-2.74936E-3
742.871E-6	956.410E-15	46.6407E-3	-18.4312E-3	996.004E-15	18.1223E-3	-14.3659E-3
737.869E-6	971.032E-15	39.7209E-3	-27.9745E-3	912.657E-15	15.3340E-3	-35.4361E-3
732.866E-6	989.683E-15	40.5764E-3	-39.8978E-3	953.166E-15	30.1834E-3	-37.5198E-3
727.864E-6	891.373E-15	47.6581E-3	-22.5551E-3	978.662E-15	45.2828E-3	-16.0540E-3
722.861E-6	931.002E-15	41.5505E-3	-4.80172E-3	899.490E-15	39.8938E-3	1.32293E-3
717.859E-6	992.081E-15	29.6112E-3	-16.7277E-3	869.845E-15	26.2686E-3	-3.27745E-3
712.856E-6	933.278E-15	27.6679E-3	-23.4713E-3	946.557E-15	22.3215E-3	-15.4856E-3
707.854E-6	845.596E-15	29.7814E-3	-15.4128E-3	932.563E-15	29.6552E-3	-18.2416E-3
702.851E-6	885.330E-15	30.0390E-3	-15.0016E-3	880.849E-15	39.1886E-3	-11.3178E-3
697.849E-6	916.162E-15	29.8212E-3	-10.5803E-3	791.790E-15	35.7742E-3	-5.91475E-3
692.846E-6	866.313E-15	33.4884E-3	-6.91162E-3	840.618E-15	15.0869E-3	-8.49629E-3
687.844E-6	741.924E-15	41.6556E-3	-20.2277E-3	862.146E-15	8.87220E-3	-15.5520E-3
682.841E-6	790.246E-15	39.4430E-3	-24.2995E-3	823.406E-15	26.8724E-3	-19.0995E-3
677.839E-6	882.444E-15	26.8031E-3	-15.6796E-3	800.352E-15	33.7703E-3	-7.37927E-3
672.836E-6	813.291E-15	23.7123E-3	-16.8833E-3	739.291E-15	16.7713E-3	3.68750E-3
667.834E-6	702.731E-15	26.0120E-3	-12.2767E-3	794.527E-15	1.69897E-3	-11.3405E-3
662.831E-6	757.680E-15	15.3692E-3	-3.79461E-3	756.869E-15	11.0189E-3	-25.9500E-3
657.829E-6	800.239E-15	7.68530E-3	-7.40325E-3	738.811E-15	23.8104E-3	-21.7823E-3
652.826E-6	788.799E-15	24.6113E-3	-2.06247E-3	789.522E-15	21.0444E-3	-18.6530E-3
647.824E-6	731.748E-15	37.1490E-3	6.55858E-3	756.686E-15	13.1195E-3	-12.4259E-3
642.821E-6	749.030E-15	30.6280E-3	-4.18936E-3	695.703E-15	8.62640E-3	-6.64336E-3
637.819E-6	834.697E-15	28.9436E-3	-23.2079E-3	719.132E-15	19.3753E-3	-19.0062E-3
632.816E-6	710.839E-15	27.0354E-3	-27.6447E-3	761.926E-15	37.9645E-3	-28.5250E-3
627.814E-6	693.322E-15	29.0004E-3	-17.8264E-3	686.879E-15	46.2211E-3	-14.3225E-3
622.811E-6	683.984E-15	34.5524E-3	-15.5239E-3	632.837E-15	44.1031E-3	2.00280E-3
617.809E-6	740.084E-15	32.8244E-3	-29.9085E-3	657.608E-15	33.6461E-3	-1.88564E-3
612.806E-6	668.551E-15	28.8414E-3	-33.7913E-3	702.992E-15	21.6841E-3	-19.4694E-3
607.804E-6	640.902E-15	24.5912E-3	-18.7202E-3	672.030E-15	26.9940E-3	-34.1218E-3
602.801E-6	765.283E-15	19.6497E-3	-9.08484E-3	620.412E-15	35.5632E-3	-30.0200E-3
597.799E-6	652.621E-15	21.8978E-3	-14.6950E-3	675.544E-15	23.8832E-3	-14.0856E-3
592.796E-6	568.253E-15	34.2937E-3	-28.1918E-3	690.611E-15	10.5531E-3	-11.9677E-3
587.794E-6	620.106E-15	31.6511E-3	-29.9400E-3	619.967E-15	10.1935E-3	-23.2425E-3
582.791E-6	633.935E-15	11.8833E-3	-17.1318E-3	569.482E-15	23.9096E-3	-25.9268E-3
577.789E-6	607.237E-15	5.39846E-3	-7.99042E-3	639.402E-15	43.5989E-3	-11.7163E-3
572.786E-6	530.943E-15	16.9885E-3	-3.43750E-3	640.108E-15	46.7027E-3	5.22909E-3
567.784E-6	566.735E-15	25.7979E-3	-12.9123E-3	570.877E-15	29.8956E-3	8.23600E-3
562.781E-6	616.453E-15	31.1627E-3	-32.9425E-3	541.441E-15	16.3372E-3	-9.68658E-3
557.779E-6	567.616E-15	28.5336E-3	-30.5878E-3	546.855E-15	20.2123E-3	-26.5690E-3
552.776E-6	476.377E-15	18.9368E-3	-15.5549E-3	530.210E-15	30.1689E-3	-12.1922E-3
547.774E-6	502.736E-15	24.9754E-3	-20.3947E-3	515.553E-15	28.7422E-3	13.0545E-3
542.771E-6	589.380E-15	36.1091E-3	-31.4480E-3	496.964E-15	18.2820E-3	7.19327E-3
537.769E-6	560.989E-15	31.7893E-3	-28.4011E-3	494.025E-15	13.2988E-3	-24.2008E-3
532.766E-6	499.492E-15	27.9380E-3	-21.6101E-3	521.578E-15	20.2373E-3	-37.3897E-3
527.764E-6	455.416E-15	28.5054E-3	-12.6407E-3	448.537E-15	32.7010E-3	-27.2954E-3
522.761E-6	553.142E-15	25.4762E-3	-12.2047E-3	459.261E-15	29.1263E-3	-15.0432E-3
517.759E-6	476.831E-15	30.7949E-3	-21.9845E-3	510.016E-15	17.2961E-3	-10.7295E-3
512.756E-6	453.568E-15	40.1688E-3	-19.6669E-3	448.964E-15	26.3562E-3	-22.0886E-3
507.754E-6	477.415E-15	30.5223E-3	-8.10044E-3	383.857E-15	37.0483E-3	-35.2294E-3
502.751E-6	518.553E-15	19.2296E-3	-2.10549E-3	409.614E-15	33.4511E-3	-28.5821E-3
497.749E-6	408.829E-15	28.3541E-3	-1.27907E-3	460.482E-15	35.5140E-3	-11.6600E-3
492.746E-6	387.719E-15	34.4925E-3	-6.71885E-3	415.368E-15	38.1531E-3	-11.0376E-3
487.744E-6	407.512E-15	24.3204E-3	-19.3764E-3	351.822E-15	38.4265E-3	-28.9585E-3
482.741E-6	417.382E-15	20.2598E-3	-22.5323E-3	392.349E-15	45.1159E-3	-45.7759E-3
477.739E-6	343.922E-15	26.7531E-3	-17.6605E-3	403.580E-15	44.2329E-3	-38.2690E-3
472.736E-6	305.444E-15	36.0842E-3	-16.5266E-3	399.630E-15	35.8091E-3	-23.4201E-3
467.734E-6	418.812E-15	42.4943E-3	-16.4969E-3	347.698E-15	32.3109E-3	-31.5219E-3
462.731E-6	377.047E-15	33.6547E-3	-15.7585E-3	368.206E-15	25.8175E-3	-42.0268E-3
457.729E-6	258.935E-15	20.4361E-3	-19.1325E-3	395.323E-15	21.2486E-3	-39.2639E-3
452.726E-6	290.176E-15	25.4498E-3	-25.7335E-3	312.637E-15	31.6853E-3	-28.2231E-3
447.724E-6	354.011E-15	39.4223E-3	-27.6342E-3	288.206E-15	39.0836E-3	-15.2418E-3
442.721E-6	319.482E-15	38.5258E-3	-33.6435E-3	293.978E-15	33.2209E-3	-11.3062E-3
437.719E-6	223.779E-15	32.4457E-3	-38.4721E-3	324.182E-15	21.4646E-3	-20.6236E-3
432.716E-6	249.047E-15	22.3015E-3	-26.1750E-3	293.141E-15	26.8843E-3	-31.7655E-3
427.714E-6	345.666E-15	8.02574E-3	-12.3079E-3	259.118E-15	40.7433E-3	-29.7301E-3
422.711E-6	306.656E-15	13.4977E-3	-11.2551E-3	239.369E-15	32.0377E-3	-14.7429E-3
417.709E-6	227.302E-15	28.7586E-3	-16.2652E-3	282.390E-15	12.2221E-3	1.17956E-3
412.706E-6	277.812E-15	28.9434E-3	-23.0114E-3	223.264E-15	274.509E-6	80.9679E-6
407.704E-6	303.604E-15	19.9397E-3	-29.1774E-3	210.822E-15	15.4295E-3	-17.1565E-3
402.701E-6	304.476E-15	21.7249E-3	-21.3402E-3	275.772E-15	37.9763E-3	-29.9597E-3
397.699E-6	155.036E-15	30.5680E-3	-8.48685E-3	246.536E-15	33.1654E-3	-23.4287E-3
392.696E-6	216.054E-15	33.0394E-3	-8.09143E-3	195.607E-15	11.0905E-3	-15.8914E-3
387.694E-6	222.480E-15	29.4375E-3	-5.82458E-3	194.779E-15	401.428E-6	-25.5674E-3
382.691E-6	190.035E-15	23.2145E-3	-1.46131E-3	187.943E-15	11.5085E-3	-26.5001E-3
377.689E-6	157.381E-15	22.8431E-3	-7.04530E-3	182.258E-15	25.8344E-3	-15.4008E-3
372.686E-6	205.355E-15	33.9032E-3	-4.16964E-3	148.209E-15	27.9675E-3	-10.4312E-3
367.684E-6	244.400E-15	36.4826E-3	-2.18808E-3	162.160E-15	18.5700E-3	-15.1977E-3
362.681E-6	98.7441E-15	25.6701E-3	-20.8615E-3	178.369E-15	9.01692E-3	-27.1937E-3
357.679E-6	94.7157E-15	18.5947E-3	-36.5982E-3	122.321E-15	12.2981E-3	-33.3003E-3
352.676E-6	220.003E-15	14.3803E-3	-33.3178E-3	84.7234E-15	26.7770E-3	-26.5939E-3
347.674E-6	141.041E-15	11.6283E-3	-18.4001E-3	122.129E-15	32.5442E-3	-12.4364E-3
342.671E-6	35.2762E-15	17.6925E-3	-12.5254E-3	133.525E-15	24.0011E-3	-2.97717E-3
337.669E-6	98.5871E-15	30.9844E-3	-20.1456E-3	78.5763E-15	19.6727E-3	-9.02287E-3
332.666E-6	148.409E-15	36.4640E-3	-25.6542E-3	46.2538E-15	21.0413E-3	-21.3772E-3
327.664E-6	78.4542E-15	23.1948E-3	-25.5034E-3	104.089E-15	23.1817E-3	-25.4778E-3
322.661E-6	22.8948E-15	11.7228E-3	-22.2506E-3	135.069E-15	28.5721E-3	-21.9359E-3
317.659E-6	80.0586E-15	26.2202E-3	-20.0369E-3	100.383E-15	28.3281E-3	-14.6474E-3
312.656E-6	135.932E-15	45.1116E-3	-19.9894E-3	5.36899E-15	20.6755E-3	-13.1068E-3
307.654E-6	104.150E-15	29.2081E-3	-16.8640E-3	47.8146E-15	18.6269E-3	-18.0450E-3
302.651E-6	30.7335E-15	-581.587E-6	-19.3399E-3	60.1175E-15	23.0761E-3	-18.3787E-3
297.649E-6	27.7863E-15	-4.25882E-3	-20.5830E-3	30.4632E-15	22.6273E-3	-8.80647E-3
292.646E-6	150.240E-15	10.1078E-3	-2.37326E-3	-3.65550E-15	11.3862E-3	975.917E-6
287.644E-6	89.0133E-15	22.1248E-3	-959.568E-6	61.6434E-15	-3.08642E-3	-12.1501E-3
282.641E-6	-5.05930E-15	18.8762E-3	-21.7020E-3	61.7916E-15	-8.76854E-3	-34.8735E-3
277.639E-6	17.3319E-15	6.89423E-3	-17.7627E-3	-21.2249E-15	-5.79452E-3	-33.7766E-3
272.636E-6	65.0788E-15	4.55696E-3	2.63776E-3	5.14229E-15	4.88049E-3	-10.2754E-3
267.634E-6	-2.11218E-15	11.2559E-3	7.30977E-3	49.7764E-15	11.4495E-3	4.47228E-3
262.631E-6	-42.5698E-15	17.6203E-3	-5.42104E-3	-3.68166E-15	9.31311E-3	-10.5374E-3
257.629E-6	21.3166E-15	20.9633E-3	-27.6801E-3	-1.46695E-15	15.6800E-3	-31.3179E-3
252.626E-6	14.1929E-15	15.6541E-3	-39.5271E-3	10.9319E-15	31.0914E-3	-29.6056E-3
247.624E-6	-26.2647E-15	8.53606E-3	-32.5687E-3	17.4278E-15	38.2958E-3	-13.8821E-3
242.621E-6	-74.3255E-15	9.10329E-3	-28.2684E-3	-11.6162E-15	25.2709E-3	-6.58816E-3
237.619E-6	8.90031E-15	7.26603E-3	-30.3910E-3	-32.6734E-15	7.46711E-3	-9.81451E-3
232.616E-6	-7.63150E-15	3.10953E-3	-25.1672E-3	-28.8369E-15	356.394E-6	-19.6752E-3
227.614E-6	-70.9337E-15	-1.46093E-3	-18.9340E-3	14.7597E-15	984.994E-6	-29.7890E-3
222.611E-6	-60.4705E-15	3.26336E-3	-21.0367E-3	-45.4210E-15	16.3989E-3	-21.1077E-3
217.609E-6	31.8408E-15	24.9018E-3	-21.4589E-3	-77.5516E-15	23.0794E-3	-10.1174E-3
212.606E-6	-23.9453E-15	33.3579E-3	-16.2534E-3	2.19516E-15	8.94816E-3	-20.2069E-3
207.604E-6	-90.7439E-15	20.3932E-3	-23.2276E-3	-10.9361E-15	10.0177E-3	-33.2694E-3
202.601E-6	-96.9434E-15	10.5066E-3	-34.4326E-3	-75.8426E-15	26.0827E-3	-35.3993E-3
197.599E-6	25.9989E-15	5.52253E-3	-27.4257E-3	-117.137E-15	26.3887E-3	-16.9832E-3
192.596E-6	-65.6759E-15	10.5285E-3	-18.1641E-3	-60.8890E-15	9.65966E-3	7.24445E-3
187.594E-6	-120.250E-15	22.5345E-3	-14.4818E-3	-12.2179E-15	-1.82729E-3	2.59586E-3
182.591E-6	-117.163E-15	25.9973E-3	-17.9895E-3	-51.0449E-15	-637.931E-6	-17.9406E-3
177.589E-6	20.6016E-15	24.9306E-3	-29.7533E-3	-118.471E-15	13.0364E-3	-23.8387E-3
172.586E-6	-45.3076E-15	24.1868E-3	-26.4708E-3	-62.3016E-15	28.6405E-3	-11.7540E-3
167.584E-6	-133.495E-15	25.5837E-3	-13.3092E-3	-38.3409E-15	15.9672E-3	-9.10556E-3
162.581E-6	-107.973E-15	34.5132E-3	-13.4945E-3	-113.868E-15	-10.4441E-3	-30.5146E-3
157.579E-6	-6.68109E-15	41.8432E-3	-15.0213E-3	-89.9592E-15	-7.93034E-3	-46.4786E-3
152.576E-6	-101.164E-15	34.5896E-3	-6.46477E-3	-56.9305E-15	13.9793E-3	-37.6756E-3
147.574E-6	-122.038E-15	26.2914E-3	-6.89649E-3	-98.2164E-15	27.8432E-3	-16.7914E-3
142.571E-6	-109.961E-15	21.6589E-3	-23.3490E-3	-142.136E-15	17.3262E-3	-1.02148E-3
137.569E-6	-87.1254E-15	18.5744E-3	-37.7228E-3	-117.390E-15	-2.33003E-3	-4.48205E-3
132.566E-6	-96.4812E-15	18.9844E-3	-39.5209E-3	-73.5407E-15	1.47705E-3	-19.8651E-3
127.564E-6	-138.517E-15	13.5026E-3	-36.2789E-3	-95.3477E-15	21.3476E-3	-28.2754E-3
122.561E-6	-109.813E-15	8.95574E-3	-23.3875E-3	-152.895E-15	25.5296E-3	-20.3536E-3
117.559E-6	-71.3173E-15	15.0304E-3	-10.8608E-3	-84.4573E-15	5.32217E-3	-6.17591E-3
112.556E-6	-133.852E-15	20.2657E-3	-14.8820E-3	-79.0165E-15	-11.4474E-3	-3.75143E-3
107.554E-6	-159.679E-15	14.4049E-3	-25.4580E-3	-112.394E-15	-5.26766E-3	-21.8110E-3
102.551E-6	-12.2789E-15	7.73485E-3	-33.0652E-3	-155.476E-15	9.04598E-3	-37.8711E-3
97.5488E-6	-128.856E-15	10.0374E-3	-22.5299E-3	-141.673E-15	15.7768E-3	-33.3901E-3
92.5463E-6	-180.832E-15	14.1042E-3	-1.58069E-3	-58.5348E-15	13.3649E-3	-22.7571E-3
87.5438E-6	-162.792E-15	19.9590E-3	-2.07743E-3	-173.351E-15	-1.22301E-3	-18.8159E-3
82.5413E-6	-92.3134E-15	15.5862E-3	-15.0542E-3	-200.128E-15	-10.1443E-3	-23.5748E-3
77.5388E-6	-141.769E-15	-9.75738E-3	-17.2300E-3	-149.573E-15	6.25697E-3	-24.4805E-3
72.5363E-6	-182.000E-15	-22.5570E-3	-18.9119E-3	-87.0470E-15	24.4637E-3	-16.0695E-3
67.5338E-6	-167.378E-15	-4.86307E-3	-23.1223E-3	-148.222E-15	25.9505E-3	-7.79929E-3
62.5313E-6	-46.9905E-15	10.6615E-3	-19.9573E-3	-187.537E-15	21.4859E-3	-12.2150E-3
57.5288E-6	-109.900E-15	5.15015E-3	-16.2985E-3	-172.697E-15	16.7947E-3	-18.4410E-3
52.5263E-6	-186.491E-15	777.544E-6	-21.7925E-3	-104.015E-15	18.2686E-3	-11.9033E-3
47.5238E-6	-206.371E-15	6.30056E-3	-17.7640E-3	-134.951E-15	19.4694E-3	2.99230E-3
42.5213E-6	-75.1102E-15	5.34006E-3	186.749E-6	-230.532E-15	5.78866E-3	9.28804E-3
37.5188E-6	-136.337E-15	5.05000E-3	-826.232E-6	-137.628E-15	-2.85350E-3	-5.36121E-3
32.5163E-6	-191.496E-15	13.2531E-3	-14.1740E-3	-157.734E-15	13.9663E-3	-23.2601E-3
27.5138E-6	-188.496E-15	7.68639E-3	-13.6363E-3	-226.381E-15	32.0548E-3	-31.8587E-3
22.5113E-6	-114.862E-15	-5.33456E-3	-6.68132E-3	-168.346E-15	25.0505E-3	-21.4605E-3
17.5088E-6	-201.967E-15	-10.1327E-3	-3.08588E-3	-113.981E-15	9.20790E-3	-1.73890E-3
12.5063E-6	-146.181E-15	-8.61913E-3	-2.21686E-3	-164.326E-15	-593.602E-6	-14.3427E-3
7.50375E-6	-165.939E-15	-1.96334E-3	-11.3664E-3	-184.581E-15	-8.34753E-3	-38.2453E-3
2.50125E-6	-149.033E-15	-1.02884E-3	-19.3105E-3	-159.060E-15	-1.43053E-3	-33.2756E-3
-2.50125E-6	-194.626E-15	-5.54209E-3	-13.9734E-3	-165.590E-15	12.5151E-3	-11.1521E-3
-7.50375E-6	-232.424E-15	6.09822E-3	-8.22300E-3	-173.011E-15	1.45278E-3	9.24904E-3
-12.5063E-6	-138.543E-15	18.6797E-3	-11.3288E-3	-213.930E-15	-22.0329E-3	6.69554E-3
-17.5088E-6	-135.631E-15	5.26220E-3	-14.3804E-3	-165.442E-15	-19.5561E-3	-17.6560E-3
-22.5113E-6	-237.839E-15	-8.68441E-3	-8.08080E-3	-152.450E-15	6.75017E-3	-34.9167E-3
-27.5138E-6	-211.960E-15	-10.4951E-3	-8.06799E-3	-198.645E-15	18.1058E-3	-25.2136E-3
-32.5163E-6	-128.516E-15	-13.7034E-3	-11.6078E-3	-208.376E-15	5.19417E-3	-474.061E-6
-37.5188E-6	-171.563E-15	-12.0740E-3	-5.18465E-3	-172.705E-15	-9.96910E-3	4.97941E-3
-42.5213E-6	-213.041E-15	3.67440E-3	-11.5945E-3	-90.6132E-15	-8.39716E-3	-8.80062E-3
-47.5238E-6	-210.164E-15	17.2100E-3	-30.3918E-3	-205.612E-15	14.2697E-3	-17.6469E-3
-52.5263E-6	-141.891E-15	14.9638E-3	-32.3447E-3	-227.811E-15	33.3149E-3	-5.91918E-3
-57.5288E-6	-169.549E-15	15.2074E-3	-11.2093E-3	-187.886E-15	31.3169E-3	16.3673E-3
-62.5313E-6	-289.841E-15	16.9347E-3	-763.472E-6	-176.524E-15	10.3037E-3	8.85256E-3
-67.5338E-6	-204.357E-15	8.31769E-3	-17.7345E-3	-175.400E-15	-14.3920E-3	-27.2306E-3
-72.5363E-6	-125.673E-15	849.392E-6	-20.7980E-3	-262.959E-15	-10.3023E-3	-36.4602E-3
-77.5388E-6	-200.904E-15	-5.32014E-3	-5.60706E-3	-231.072E-15	12.2475E-3	-16.2321E-3
-82.5413E-6	-291.009E-15	-7.88654E-3	-2.74112E-3	-146.582E-15	16.0929E-3	-2.73801E-3
-87.5438E-6	-227.219E-15	-1.27351E-3	-5.56946E-3	-203.659E-15	5.07129E-3	-4.18118E-3
-92.5463E-6	-180.082E-15	5.32396E-3	-16.9115E-3	-274.843E-15	-3.98567E-3	-24.8535E-3
-97.5488E-6	-214.741E-15	8.97539E-3	-36.4536E-3	-134.044E-15	-5.66412E-3	-41.3353E-3
-102.551E-6	-244.997E-15	8.34998E-3	-27.6184E-3	-182.209E-15	-3.93575E-3	-28.2816E-3
-107.554E-6	-237.647E-15	2.13162E-3	-7.41360E-3	-237.891E-15	-2.64401E-3	-11.0008E-3
-112.556E-6	-205.403E-15	4.38465E-3	-7.32722E-3	-250.412E-15	-6.93461E-3	-14.5575E-3
-117.559E-6	-245.538E-15	12.6733E-3	-19.5671E-3	-202.935E-15	-10.8110E-3	-18.8467E-3
-122.561E-6	-272.498E-15	7.24029E-3	-30.8365E-3	-271.774E-15	-1.98238E-3	-14.9802E-3
-127.564E-6	-241.370E-15	-2.96628E-3	-30.6986E-3	-249.566E-15	6.31827E-3	-14.9158E-3
-132.566E-6	-183.299E-15	-3.78632E-3	-16.7652E-3	-235.162E-15	4.26423E-3	-9.26783E-3
-137.569E-6	-287.870E-15	-3.80521E-3	-4.71727E-3	-235.458E-15	-4.48924E-3	-5.42100E-3
-142.571E-6	-275.393E-15	-5.86993E-3	-9.68191E-3	-235.136E-15	-10.9519E-3	-19.0389E-3
-147.574E-6	-172.217E-15	-9.12349E-3	-19.7441E-3	-258.477E-15	-3.28006E-3	-31.6951E-3
-152.576E-6	-245.023E-15	-14.4044E-3	-23.8160E-3	-225.475E-15	17.0121E-3	-22.6672E-3
-157.579E-6	-315.231E-15	-2.35766E-3	-21.3752E-3	-200.389E-15	20.0659E-3	-6.45891E-3
-162.581E-6	-283.850E-15	20.8901E-3	-23.7223E-3	-260.535E-15	-4.36315E-3	1.50307E-3
-167.584E-6	-235.528E-15	29.2006E-3	-24.9628E-3	-306.983E-15	-13.4101E-3	-1.58643E-3
-172.586E-6	-244.439E-15	15.8069E-3	-18.1803E-3	-269.045E-15	471.575E-6	-19.3407E-3
-177.589E-6	-324.186E-15	2.82643E-3	-20.3524E-3	-246.078E-15	12.7295E-3	-30.4844E-3
-182.591E-6	-296.511E-15	11.5394E-3	-26.9778E-3	-239.905E-15	19.5719E-3	-22.7818E-3
-187.594E-6	-217.270E-15	18.7742E-3	-27.4261E-3	-330.568E-15	10.8830E-3	-15.2729E-3
-192.596E-6	-240.132E-15	18.2267E-3	-26.2524E-3	-275.968E-15	-7.42156E-3	-15.4770E-3
-197.599E-6	-358.671E-15	20.1824E-3	-28.1139E-3	-293.189E-15	-7.86832E-3	-20.5323E-3
-202.601E-6	-333.019E-15	17.4295E-3	-30.0921E-3	-292.483E-15	16.9098E-3	-22.6108E-3
-207.604E-6	-270.885E-15	8.63240E-3	-33.0537E-3	-339.924E-15	26.8547E-3	-18.0668E-3
-212.606E-6	-294.741E-15	7.06300E-3	-26.7009E-3	-299.938E-15	13.4898E-3	-12.8375E-3
-217.609E-6	-388.098E-15	12.3945E-3	-14.1595E-3	-285.062E-15	13.5192E-3	-18.7961E-3
-222.611E-6	-346.664E-15	17.2613E-3	-24.5140E-3	-355.759E-15	31.1490E-3	-37.7624E-3
-227.614E-6	-277.128E-15	20.5701E-3	-34.9209E-3	-363.606E-15	38.3838E-3	-35.1436E-3
-232.616E-6	-358.767E-15	16.8296E-3	-15.3935E-3	-325.101E-15	25.7610E-3	-25.1419E-3
-237.619E-6	-377.784E-15	12.5163E-3	610.770E-6	-336.681E-15	13.1317E-3	-34.2240E-3
-242.621E-6	-344.476E-15	17.9686E-3	-4.92192E-3	-371.262E-15	13.6558E-3	-28.6654E-3
-247.624E-6	-318.989E-15	19.3521E-3	-3.89185E-3	-371.898E-15	22.1366E-3	-11.7075E-3
-252.626E-6	-407.979E-15	6.37467E-3	2.34435E-3	-331.711E-15	27.1339E-3	-11.1574E-3
-257.629E-6	-401.291E-15	5.50003E-3	-2.95966E-3	-390.610E-15	28.3780E-3	-6.21736E-3
-262.631E-6	-357.232E-15	15.6956E-3	-8.40524E-3	-440.188E-15	28.3764E-3	2.24009E-3
-267.634E-6	-364.242E-15	17.5408E-3	-7.79473E-3	-401.648E-15	30.5905E-3	-13.0506E-3
-272.636E-6	-477.253E-15	23.5390E-3	-19.6608E-3	-360.275E-15	36.4079E-3	-29.0049E-3
-277.639E-6	-413.655E-15	27.2281E-3	-23.7207E-3	-434.442E-15	42.7810E-3	-32.5592E-3
-282.641E-6	-364.112E-15	18.9533E-3	-7.27074E-3	-455.987E-15	35.0645E-3	-33.8629E-3
-287.644E-6	-379.737E-15	18.5980E-3	530.299E-6	-408.920E-15	20.5753E-3	-29.3256E-3
-292.646E-6	-503.246E-15	21.2814E-3	-3.61665E-3	-391.115E-15	21.0761E-3	-26.6260E-3
-297.649E-6	-472.188E-15	10.4841E-3	-20.4661E-3	-490.672E-15	24.8481E-3	-31.9570E-3
-302.651E-6	-363.240E-15	2.52733E-3	-34.1510E-3	-507.291E-15	35.6682E-3	-26.0067E-3
-307.654E-6	-436.325E-15	7.81852E-3	-18.3308E-3	-446.125E-15	46.2157E-3	-5.81424E-3
-312.656E-6	-553.286E-15	12.4335E-3	-1.79285E-3	-457.469E-15	37.8461E-3	3.19921E-3
-317.659E-6	-560.218E-15	25.4083E-3	-1.90771E-3	-493.157E-15	27.6645E-3	-4.83755E-3
-322.661E-6	-472.946E-15	44.6140E-3	-3.60007E-3	-533.589E-15	24.7517E-3	-17.0812E-3
-327.664E-6	-520.885E-15	41.2153E-3	-5.99688E-3	-526.500E-15	31.2387E-3	-22.9161E-3
-332.666E-6	-583.298E-15	27.1416E-3	-12.3412E-3	-480.820E-15	36.1633E-3	-16.4904E-3
-337.669E-6	-555.832E-15	13.9779E-3	-15.5850E-3	-544.366E-15	28.0266E-3	-11.9600E-3
-342.671E-6	-524.102E-15	13.0012E-3	-8.85610E-3	-607.494E-15	22.9991E-3	-20.0204E-3
-347.674E-6	-570.733E-15	30.3621E-3	-10.5694E-3	-515.531E-15	35.9207E-3	-29.2468E-3
-352.676E-6	-607.319E-15	42.4637E-3	-14.8339E-3	-559.442E-15	57.3783E-3	-24.4308E-3
-357.679E-6	-632.902E-15	42.0364E-3	-7.78614E-3	-636.512E-15	64.3679E-3	-10.1748E-3
-362.681E-6	-558.875E-15	44.2047E-3	-7.60200E-3	-608.741E-15	48.3464E-3	-4.74226E-3
-367.684E-6	-605.610E-15	51.5976E-3	-14.6277E-3	-577.918E-15	27.7559E-3	-13.5417E-3
-372.686E-6	-685.287E-15	46.9050E-3	-20.0286E-3	-675.801E-15	29.5819E-3	-32.5376E-3
-377.689E-6	-618.393E-15	37.3804E-3	-18.9339E-3	-659.914E-15	44.1801E-3	-36.6207E-3
-382.691E-6	-586.812E-15	37.6930E-3	-14.2438E-3	-690.432E-15	49.8728E-3	-16.1416E-3
-387.694E-6	-684.067E-15	30.4816E-3	-7.29905E-3	-639.284E-15	47.5556E-3	-4.85724E-3
-392.696E-6	-730.270E-15	21.7576E-3	475.690E-6	-691.766E-15	35.5372E-3	-12.4796E-3
-397.699E-6	-588.329E-15	25.0458E-3	-621.896E-6	-744.125E-15	27.6127E-3	-16.4475E-3
-402.701E-6	-669.270E-15	25.0823E-3	-11.4408E-3	-659.199E-15	40.9896E-3	-14.7399E-3
-407.704E-6	-822.320E-15	23.6781E-3	-23.3719E-3	-680.675E-15	48.1487E-3	-18.1562E-3
-412.706E-6	-794.915E-15	30.4001E-3	-16.7916E-3	-758.085E-15	36.9491E-3	-17.7125E-3
-417.709E-6	-708.263E-15	37.2361E-3	-3.40024E-3	-802.091E-15	41.5724E-3	-22.4155E-3
-422.711E-6	-773.187E-15	39.5229E-3	-13.1124E-3	-750.935E-15	52.4566E-3	-38.6921E-3
-427.714E-6	-834.178E-15	38.6572E-3	-23.6051E-3	-744.718E-15	51.6077E-3	-40.8925E-3
-432.716E-6	-837.936E-15	32.6628E-3	-16.2307E-3	-834.056E-15	52.9405E-3	-27.8017E-3
-437.719E-6	-763.194E-15	35.0044E-3	-18.8049E-3	-886.808E-15	46.6518E-3	-9.09058E-3
-442.721E-6	-823.253E-15	50.3237E-3	-20.3293E-3	-857.563E-15	28.6763E-3	1.31437E-3
-447.724E-6	-926.071E-15	53.6767E-3	-5.85361E-3	-828.580E-15	26.8128E-3	-7.23880E-3
-452.726E-6	-902.433E-15	42.2020E-3	237.618E-6	-872.508E-15	46.0894E-3	-17.3849E-3
-457.729E-6	-824.892E-15	42.7667E-3	-15.0531E-3	-907.604E-15	54.2415E-3	-21.4141E-3
-462.731E-6	-895.022E-15	45.4085E-3	-34.0864E-3	-867.931E-15	48.0608E-3	-17.3452E-3
-467.734E-6	-974.594E-15	45.6650E-3	-39.3682E-3	-938.470E-15	40.0802E-3	-17.5919E-3
-472.736E-6	-995.163E-15	56.6708E-3	-40.5810E-3	-989.853E-15	28.4208E-3	-30.5708E-3
-477.739E-6	-882.073E-15	52.6429E-3	-42.2106E-3	-989.783E-15	26.2530E-3	-30.7070E-3
-482.741E-6	-972.571E-15	32.7109E-3	-30.4558E-3	-941.958E-15	39.9217E-3	-22.5306E-3
-487.744E-6	-993.715E-15	33.2965E-3	-12.3851E-3	-986.740E-15	45.2853E-3	-14.3656E-3
-492.746E-6	-936.002E-15	53.6186E-3	-10.5922E-3	-1.04084E-12	39.0851E-3	-8.32433E-3
-497.749E-6	-929.864E-15	58.8498E-3	-27.3910E-3	-1.00204E-12	33.8247E-3	-17.1014E-3
-502.751E-6	-1.05483E-12	50.0724E-3	-33.5712E-3	-972.667E-15	29.7460E-3	-24.9665E-3
-507.754E-6	-1.08275E-12	41.0882E-3	-14.8729E-3	-1.05225E-12	35.7876E-3	-14.8290E-3
-512.756E-6	-1.02203E-12	30.8818E-3	3.95571E-3	-1.05514E-12	38.5781E-3	-4.86589E-3
-517.759E-6	-1.06110E-12	30.6820E-3	5.28046E-3	-1.09533E-12	28.4627E-3	-8.47952E-3
-522.761E-6	-1.18462E-12	40.3082E-3	540.658E-6	-1.04401E-12	41.2902E-3	-23.1579E-3
-527.764E-6	-1.17312E-12	46.2849E-3	-7.63592E-3	-1.13988E-12	69.5980E-3	-41.2885E-3
-532.766E-6	-1.07374E-12	47.2374E-3	-27.4673E-3	-1.16895E-12	67.9620E-3	-39.3948E-3
-537.769E-6	-1.12563E-12	45.7210E-3	-29.0524E-3	-1.19777E-12	55.8215E-3	-16.5585E-3
-542.771E-6	-1.27987E-12	42.0486E-3	-5.22839E-3	-1.12724E-12	49.6596E-3	-4.50819E-3
-547.774E-6	-1.24912E-12	48.4284E-3	296.021E-6	-1.22469E-12	37.6512E-3	-13.6749E-3
-552.776E-6	-1.13631E-12	57.0519E-3	-12.7010E-3	-1.27683E-12	39.1439E-3	-16.3307E-3
-557.779E-6	-1.18782E-12	47.5586E-3	-16.4156E-3	-1.21115E-12	52.1568E-3	-3.41065E-3
-562.781E-6	-1.31591E-12	40.4109E-3	-13.6567E-3	-1.25294E-12	50.6096E-3	7.59542E-3
-567.784E-6	-1.31137E-12	47.0321E-3	-13.3421E-3	-1.28193E-12	41.4924E-3	8.91977E-3
-572.786E-6	-1.23981E-12	45.4139E-3	-12.8928E-3	-1.36350E-12	45.0215E-3	-5.43105E-3
-577.789E-6	-1.23283E-12	37.7324E-3	-22.3194E-3	-1.30574E-12	54.3406E-3	-19.5204E-3
-582.791E-6	-1.37303E-12	31.7078E-3	-38.2487E-3	-1.28815E-12	47.5810E-3	-14.5364E-3
-587.794E-6	-1.31642E-12	31.4492E-3	-31.9247E-3	-1.35479E-12	33.2843E-3	-7.91043E-3
-592.796E-6	-1.29065E-12	40.1754E-3	-9.28943E-3	-1.35636E-12	31.7559E-3	-9.05171E-3
-597.799E-6	-1.34370E-12	51.0171E-3	-1.53422E-6	-1.28745E-12	31.5456E-3	-19.7083E-3
-602.801E-6	-1.40070E-12	49.5889E-3	-3.03229E-3	-1.31997E-12	40.6258E-3	-29.3654E-3
-607.804E-6	-1.40889E-12	34.7039E-3	-10.0585E-3	-1.39702E-12	59.4236E-3	-29.9474E-3
-612.806E-6	-1.35714E-12	30.4564E-3	-17.7886E-3	-1.45560E-12	63.6048E-3	-24.0709E-3
-617.809E-6	-1.41833E-12	39.7429E-3	-17.4390E-3	-1.34559E-12	59.6412E-3	-18.3623E-3
-622.811E-6	-1.52685E-12	47.0016E-3	-17.1002E-3	-1.44405E-12	56.6685E-3	-26.0995E-3
-627.814E-6	-1.49609E-12	53.1953E-3	-22.2404E-3	-1.43353E-12	52.2287E-3	-31.5006E-3
-632.816E-6	-1.45718E-12	50.5058E-3	-21.6830E-3	-1.46211E-12	50.3758E-3	-26.4184E-3
-637.819E-6	-1.58382E-12	28.9547E-3	-18.8906E-3	-1.46783E-12	44.1954E-3	-21.8216E-3
-642.821E-6	-1.58379E-12	16.2981E-3	-21.5853E-3	-1.48809E-12	25.2179E-3	-15.4189E-3
-647.824E-6	-1.51233E-12	35.0509E-3	-25.1216E-3	-1.53610E-12	24.5001E-3	-16.4307E-3
-652.826E-6	-1.56720E-12	54.9013E-3	-29.3101E-3	-1.49959E-12	47.6481E-3	-23.3354E-3
-657.829E-6	-1.67245E-12	54.1327E-3	-31.8327E-3	-1.52171E-12	56.7549E-3	-21.6269E-3
-662.831E-6	-1.67538E-12	46.9262E-3	-20.6546E-3	-1.58094E-12	55.0413E-3	-15.4325E-3
-667.834E-6	-1.56978E-12	41.0882E-3	-6.73195E-3	-1.64004E-12	45.1795E-3	-13.8074E-3
-672.836E-6	-1.59251E-12	46.5097E-3	-6.39053E-3	-1.55460E-12	31.0404E-3	-15.5664E-3
-677.839E-6	-1.72482E-12	57.3165E-3	-14.2719E-3	-1.56193E-12	36.2009E-3	-21.0314E-3
-682.841E-6	-1.68210E-12	52.9023E-3	-21.1662E-3	-1.66934E-12	50.6862E-3	-28.2201E-3
-687.844E-6	-1.58989E-12	46.2707E-3	-16.8529E-3	-1.73589E-12	55.0467E-3	-29.4736E-3
-692.846E-6	-1.60497E-12	53.8106E-3	-5.88136E-3	-1.66558E-12	47.5688E-3	-24.1916E-3
-697.849E-6	-1.73378E-12	52.6104E-3	-3.00196E-3	-1.64182E-12	43.4985E-3	-23.8015E-3
-702.851E-6	-1.68733E-12	36.4083E-3	-10.7568E-3	-1.71927E-12	42.2111E-3	-27.8178E-3
-707.854E-6	-1.65841E-12	26.5083E-3	-14.2047E-3	-1.75680E-12	31.1914E-3	-20.8837E-3
-712.856E-6	-1.66612E-12	29.7633E-3	-1.42461E-3	-1.69989E-12	26.5787E-3	-13.6116E-3
-717.859E-6	-1.74317E-12	34.7589E-3	4.73786E-3	-1.67645E-12	30.7487E-3	-18.4800E-3
-722.861E-6	-1.78612E-12	32.7726E-3	-14.5069E-3	-1.78153E-12	37.0593E-3	-26.1095E-3
-727.864E-6	-1.74754E-12	28.7011E-3	-29.6228E-3	-1.77756E-12	56.3369E-3	-34.0842E-3
-732.866E-6	-1.76416E-12	21.2237E-3	-27.3421E-3	-1.72823E-12	66.0373E-3	-37.0552E-3
-737.869E-6	-1.83169E-12	15.7684E-3	-20.0740E-3	-1.75877E-12	50.9222E-3	-20.5910E-3
-742.871E-6	-1.79646E-12	22.2489E-3	-10.9872E-3	-1.85140E-12	36.1869E-3	-5.88752E-3
-747.874E-6	-1.83245E-12	31.6485E-3	-12.8245E-3	-1.81234E-12	28.2861E-3	-11.0020E-3
-752.876E-6	-1.93475E-12	37.2477E-3	-20.6473E-3	-1.78990E-12	28.7334E-3	-18.7543E-3
-757.879E-6	-1.91657E-12	42.5165E-3	-20.0069E-3	-1.83381E-12	45.6325E-3	-18.7112E-3
-762.881E-6	-1.82395E-12	48.2753E-3	-19.3787E-3	-1.86136E-12	60.4666E-3	-15.8972E-3
-767.884E-6	-1.86902E-12	51.1234E-3	-21.5907E-3	-1.88416E-12	55.3076E-3	-21.9469E-3
-772.886E-6	-1.96474E-12	51.1358E-3	-18.6078E-3	-1.89552E-12	41.3596E-3	-25.0361E-3
-777.889E-6	-1.94086E-12	44.7220E-3	-15.3114E-3	-1.97207E-12	36.3264E-3	-19.2375E-3
-782.891E-6	-1.85456E-12	38.3372E-3	-23.5907E-3	-1.99122E-12	36.8087E-3	-14.0329E-3
-787.894E-6	-1.89724E-12	28.1880E-3	-25.4284E-3	-1.95831E-12	35.0478E-3	-13.8786E-3
-792.896E-6	-1.98603E-12	10.5775E-3	-10.3343E-3	-1.89379E-12	32.2699E-3	-23.0893E-3
-797.899E-6	-1.96744E-12	14.3869E-3	-821.124E-6	-1.99003E-12	32.9203E-3	-35.2961E-3
-802.901E-6	-1.86239E-12	41.4595E-3	-2.47580E-3	-2.03558E-12	43.2662E-3	-43.0903E-3
-807.904E-6	-1.90569E-12	57.9449E-3	-9.59540E-3	-1.99933E-12	55.8440E-3	-38.2625E-3
-812.906E-6	-2.01137E-12	49.9983E-3	-17.3450E-3	-1.99485E-12	49.0404E-3	-23.1743E-3
-817.909E-6	-2.00977E-12	38.9894E-3	-19.4255E-3	-2.04772E-12	31.3998E-3	-16.4476E-3
-822.911E-6	-1.93139E-12	40.7496E-3	-12.7807E-3	-2.11052E-12	34.2655E-3	-13.6709E-3
-827.914E-6	-1.98700E-12	42.5275E-3	-9.40392E-3	-2.09282E-12	49.4140E-3	-11.8703E-3
-832.916E-6	-2.09293E-12	39.0522E-3	-6.13472E-3	-2.04775E-12	58.0450E-3	-13.7542E-3
-837.919E-6	-2.08385E-12	43.7130E-3	4.19697E-3	-2.13296E-12	58.4821E-3	-9.76658E-3
-842.921E-6	-2.01047E-12	48.1623E-3	-2.33361E-3	-2.15436E-12	47.8561E-3	-15.0672E-3
-847.924E-6	-2.08150E-12	40.5528E-3	-16.8784E-3	-2.09123E-12	36.3012E-3	-31.5509E-3
-852.926E-6	-2.16919E-12	41.5327E-3	-22.4106E-3	-2.10534E-12	38.9424E-3	-35.1127E-3
-857.929E-6	-2.14786E-12	52.6231E-3	-33.4273E-3	-2.18336E-12	57.1577E-3	-22.5432E-3
-862.931E-6	-2.15616E-12	58.0521E-3	-41.3282E-3	-2.18612E-12	71.2397E-3	-6.21858E-3
-867.934E-6	-2.20337E-12	57.4161E-3	-25.9549E-3	-2.13453E-12	69.8027E-3	-3.93929E-3
-872.936E-6	-2.27006E-12	57.9961E-3	-4.25281E-3	-2.22048E-12	55.3818E-3	-23.9178E-3
-877.939E-6	-2.23083E-12	63.9797E-3	-8.72069E-3	-2.24610E-12	44.3548E-3	-36.5777E-3
-882.941E-6	-2.21941E-12	63.4349E-3	-14.6258E-3	-2.24969E-12	57.8281E-3	-21.0858E-3
-887.944E-6	-2.24700E-12	56.7250E-3	-7.07324E-3	-2.22382E-12	71.9268E-3	202.175E-6
-892.946E-6	-2.30470E-12	62.8006E-3	-12.2524E-3	-2.29245E-12	64.1286E-3	981.114E-6
-897.949E-6	-2.19329E-12	76.6594E-3	-16.8901E-3	-2.36198E-12	64.5203E-3	-15.0331E-3
-902.951E-6	-2.27206E-12	73.6084E-3	-18.3075E-3	-2.38231E-12	79.7657E-3	-20.7892E-3
-907.954E-6	-2.42034E-12	65.7180E-3	-19.8237E-3	-2.33221E-12	87.2744E-3	-10.6373E-3
-912.956E-6	-2.41841E-12	65.8582E-3	-9.73495E-3	-2.36913E-12	93.3274E-3	2.06688E-3
-917.959E-6	-2.30162E-12	64.2502E-3	602.495E-6	-2.46781E-12	98.3060E-3	-1.24675E-3
-922.961E-6	-2.36436E-12	73.5495E-3	6.49240E-3	-2.45123E-12	89.8403E-3	-16.3756E-3
-927.964E-6	-2.48589E-12	85.9715E-3	7.80292E-3	-2.42036E-12	82.3698E-3	-16.4270E-3
-932.966E-6	-2.51203E-12	84.8899E-3	-3.11516E-3	-2.50936E-12	89.7905E-3	-4.55762E-3
-937.969E-6	-2.43974E-12	81.8153E-3	-18.0013E-3	-2.59041E-12	101.027E-3	7.46572E-3
-942.971E-6	-2.51448E-12	79.6330E-3	-16.3755E-3	-2.57743E-12	97.7855E-3	13.7580E-3
-947.974E-6	-2.66203E-12	71.4763E-3	-4.89069E-3	-2.58090E-12	91.6803E-3	5.68874E-3
-952.976E-6	-2.69840E-12	72.1262E-3	-5.35454E-3	-2.71518E-12	109.581E-3	-13.6117E-3
-957.979E-6	-2.64471E-12	92.2393E-3	-16.0892E-3	-2.70246E-12	133.358E-3	-23.0729E-3
-962.981E-6	-2.74692E-12	104.766E-3	-17.8015E-3	-2.71213E-12	132.524E-3	-11.4964E-3
-967.984E-6	-2.81212E-12	101.601E-3	-13.7335E-3	-2.76039E-12	115.829E-3	-6.91753E-3
-972.986E-6	-2.83279E-12	96.3773E-3	-7.50555E-3	-2.81706E-12	106.961E-3	-17.4657E-3
-977.989E-6	-2.88036E-12	96.0625E-3	3.20764E-3	-2.87814E-12	116.386E-3	-23.2909E-3
-982.991E-6	-2.86753E-12	96.1780E-3	-8.92864E-3	-2.89568E-12	135.380E-3	-31.1152E-3
-987.994E-6	-3.01090E-12	98.0521E-3	-28.9332E-3	-2.91420E-12	141.948E-3	-28.7068E-3
-992.997E-6	-3.00717E-12	115.847E-3	-27.3308E-3	-2.97549E-12	131.357E-3	-12.3943E-3
-997.999E-6	-2.96488E-12	125.984E-3	-25.7559E-3	-3.00509E-12	129.392E-3	-12.8033E-3
-1.00300E-3	-3.05248E-12	118.032E-3	-33.9598E-3	-2.97761E-12	150.511E-3	-21.4084E-3
-1.00800E-3	-3.11273E-12	114.894E-3	-35.4060E-3	-3.12678E-12	177.603E-3	-21.7151E-3
-1.01301E-3	-3.04926E-12	116.738E-3	-26.6105E-3	-3.21659E-12	190.607E-3	-17.4567E-3
-1.01801E-3	-3.09802E-12	129.541E-3	-18.7536E-3	-3.14093E-12	185.516E-3	-11.2138E-3
-1.02301E-3	-3.24963E-12	148.861E-3	-15.9231E-3	-3.24689E-12	177.680E-3	-13.3318E-3
-1.02801E-3	-3.27855E-12	161.677E-3	-21.5658E-3	-3.30499E-12	182.148E-3	-22.9440E-3
-1.03302E-3	-3.24161E-12	174.375E-3	-29.8034E-3	-3.41930E-12	186.889E-3	-21.4181E-3
-1.03802E-3	-3.33836E-12	179.312E-3	-26.2990E-3	-3.41628E-12	191.208E-3	-8.95878E-3
-1.04302E-3	-3.51612E-12	179.187E-3	-25.4169E-3	-3.42363E-12	206.219E-3	-4.64022E-3
-1.04802E-3	-3.57685E-12	187.625E-3	-25.1491E-3	-3.60009E-12	217.845E-3	-11.5160E-3
-1.05303E-3	-3.61761E-12	200.518E-3	-11.5352E-3	-3.63931E-12	228.934E-3	-11.9621E-3
-1.05803E-3	-3.72941E-12	211.582E-3	-9.54560E-3	-3.74881E-12	249.953E-3	-11.4683E-3
-1.06303E-3	-3.91033E-12	218.126E-3	-23.1510E-3	-3.75213E-12	260.646E-3	-17.8363E-3
-1.06803E-3	-4.00362E-12	228.995E-3	-24.2854E-3	-3.95253E-12	259.352E-3	-24.9053E-3
-1.07304E-3	-3.99449E-12	242.851E-3	-20.2198E-3	-4.05539E-12	270.973E-3	-33.3375E-3
-1.07804E-3	-4.09305E-12	249.786E-3	-24.7753E-3	-4.06735E-12	292.784E-3	-34.7541E-3
-1.08304E-3	-4.29409E-12	264.975E-3	-23.3004E-3	-4.12321E-12	317.631E-3	-25.8409E-3
-1.08804E-3	-4.32508E-12	287.595E-3	-10.8347E-3	-4.29097E-12	342.584E-3	-11.8158E-3
-1.09305E-3	-4.32956E-12	288.108E-3	-6.60923E-3	-4.35493E-12	343.550E-3	-10.0659E-3
-1.09805E-3	-4.46380E-12	275.396E-3	-11.2650E-3	-4.43231E-12	325.308E-3	-19.5507E-3
-1.10305E-3	-4.57220E-12	280.703E-3	-11.3016E-3	-4.50808E-12	323.528E-3	-17.1184E-3
-1.10805E-3	-4.64309E-12	299.474E-3	-16.3557E-3	-4.68115E-12	347.043E-3	-11.5120E-3
-1.11306E-3	-4.64784E-12	302.661E-3	-28.4090E-3	-4.76018E-12	368.858E-3	-5.99097E-3
-1.11806E-3	-4.77810E-12	294.518E-3	-32.7572E-3	-4.81153E-12	386.634E-3	-877.668E-6
-1.12306E-3	-4.94939E-12	311.012E-3	-31.1680E-3	-4.93863E-12	401.742E-3	-7.44784E-3
-1.12806E-3	-5.02668E-12	344.319E-3	-22.7212E-3	-5.13690E-12	407.398E-3	-13.7661E-3
-1.13307E-3	-5.15611E-12	360.405E-3	-15.7663E-3	-5.20224E-12	426.430E-3	-9.85191E-3
-1.13807E-3	-5.32651E-12	367.540E-3	-24.8206E-3	-5.33097E-12	439.099E-3	-9.68059E-3
-1.14307E-3	-5.53733E-12	381.013E-3	-28.6178E-3	-5.47372E-12	432.642E-3	-12.9635E-3
-1.14807E-3	-5.58712E-12	397.083E-3	-16.9131E-3	-5.68735E-12	441.578E-3	-10.5813E-3
-1.15308E-3	-5.73247E-12	418.703E-3	-12.9041E-3	-5.81371E-12	467.827E-3	-11.8693E-3
-1.15808E-3	-6.00355E-12	437.665E-3	-17.9610E-3	-5.94614E-12	504.268E-3	-13.2835E-3
-1.16308E-3	-6.27168E-12	442.273E-3	-16.6323E-3	-6.14007E-12	534.668E-3	-9.32519E-3
-1.16808E-3	-6.31110E-12	454.569E-3	-12.0340E-3	-6.37555E-12	546.296E-3	-6.87316E-3
-1.17309E-3	-6.51222E-12	489.350E-3	-14.9598E-3	-6.53693E-12	556.949E-3	-8.69973E-3
-1.17809E-3	-6.83022E-12	505.705E-3	-18.8641E-3	-6.67119E-12	572.047E-3	-13.4939E-3
-1.18309E-3	-7.10322E-12	502.094E-3	-16.7260E-3	-6.90244E-12	593.553E-3	-7.89011E-3
-1.18809E-3	-7.08690E-12	521.858E-3	-21.3885E-3	-7.15787E-12	609.496E-3	3.34993E-3
-1.19310E-3	-7.33645E-12	551.180E-3	-31.1967E-3	-7.27293E-12	610.029E-3	1.66811E-3
-1.19810E-3	-7.61360E-12	566.049E-3	-32.9771E-3	-7.36633E-12	615.793E-3	-10.3253E-3
-1.20310E-3	-7.80447E-12	582.379E-3	-23.7160E-3	-7.63571E-12	637.588E-3	-24.5133E-3
-1.20810E-3	-7.82705E-12	605.860E-3	-10.5155E-3	-7.80256E-12	669.542E-3	-21.8575E-3
-1.21311E-3	-7.96982E-12	617.785E-3	-11.7595E-3	-7.98638E-12	693.151E-3	-3.23298E-3
-1.21811E-3	-8.31785E-12	619.931E-3	-27.0478E-3	-8.20857E-12	700.574E-3	-8.31185E-3
-1.22311E-3	-8.47603E-12	636.423E-3	-30.2792E-3	-8.45470E-12	709.045E-3	-36.2738E-3
-1.22811E-3	-8.59751E-12	658.880E-3	-23.5703E-3	-8.66101E-12	724.515E-3	-41.4711E-3
-1.23312E-3	-8.73397E-12	667.752E-3	-21.9693E-3	-8.93530E-12	740.626E-3	-27.0489E-3
-1.23812E-3	-9.04404E-12	676.013E-3	-20.9575E-3	-9.19088E-12	753.708E-3	-20.6078E-3
-1.24312E-3	-9.34336E-12	689.856E-3	-15.8991E-3	-9.42918E-12	765.918E-3	-22.1959E-3
-1.24812E-3	-9.44083E-12	691.048E-3	-9.86112E-3	-9.60994E-12	786.708E-3	-27.0569E-3
-1.25313E-3	-9.75857E-12	692.510E-3	-11.2209E-3	-9.85444E-12	816.032E-3	-28.2631E-3
-1.25813E-3	-10.0912E-12	720.258E-3	-13.4298E-3	-10.1857E-12	838.513E-3	-20.2868E-3
-1.26313E-3	-10.4118E-12	755.137E-3	-8.54009E-3	-10.5842E-12	841.065E-3	-12.3411E-3
-1.26813E-3	-10.7066E-12	780.399E-3	-8.18050E-3	-10.8618E-12	842.114E-3	-9.44411E-3
-1.27314E-3	-11.0986E-12	804.094E-3	-11.6404E-3	-11.0573E-12	859.218E-3	-10.6665E-3
-1.27814E-3	-11.4352E-12	823.373E-3	-6.16929E-3	-11.3457E-12	885.627E-3	-21.8822E-3
-1.28314E-3	-11.7113E-12	833.009E-3	-2.77894E-3	-11.6942E-12	909.470E-3	-30.3209E-3
-1.28814E-3	-11.9772E-12	851.248E-3	-15.9533E-3	-11.9645E-12	921.942E-3	-28.8135E-3
-1.29315E-3	-12.4148E-12	891.754E-3	-31.6757E-3	-12.1848E-12	934.011E-3	-32.9484E-3
-1.29815E-3	-12.8149E-12	913.117E-3	-26.1343E-3	-12.5479E-12	951.079E-3	-43.5303E-3
-1.30315E-3	-12.9618E-12	907.153E-3	-12.3225E-3	-12.8075E-12	966.045E-3	-43.7601E-3
-1.30815E-3	-13.1964E-12	921.600E-3	-13.3504E-3	-13.1530E-12	986.083E-3	-31.7221E-3
-1.31316E-3	-13.6132E-12	949.104E-3	-21.9268E-3	-13.3357E-12	1.00705E+0	-14.2160E-3
-1.31816E-3	-13.9251E-12	958.782E-3	-26.2531E-3	-13.7524E-12	1.01480E+0	358.747E-6
-1.32316E-3	-14.0298E-12	965.651E-3	-32.2851E-3	-14.0082E-12	1.01362E+0	-8.61040E-3
-1.32816E-3	-14.0475E-12	975.590E-3	-36.5206E-3	-14.2772E-12	1.01593E+0	-29.1003E-3
-1.33317E-3	-14.3983E-12	987.753E-3	-24.4452E-3	-14.5704E-12	1.03135E+0	-35.3383E-3
-1.33817E-3	-14.8004E-12	1.00309E+0	-18.9048E-3	-14.9503E-12	1.06289E+0	-31.7371E-3
-1.34317E-3	-14.8181E-12	1.00485E+0	-19.8216E-3	-15.3015E-12	1.07168E+0	-22.3923E-3
-1.34817E-3	-14.9103E-12	996.496E-3	-8.64771E-3	-15.6226E-12	1.05736E+0	-11.0605E-3
-1.35318E-3	-15.3018E-12	993.196E-3	-4.49885E-3	-15.8434E-12	1.07451E+0	-6.67430E-3
-1.35818E-3	-15.9070E-12	1.00346E+0	-6.11757E-3	-16.2151E-12	1.11106E+0	-2.60980E-3
-1.36318E-3	-16.3831E-12	1.02162E+0	565.063E-6	-16.7307E-12	1.13002E+0	6.85275E-3
-1.36818E-3	-16.7423E-12	1.03520E+0	-1.78012E-3	-17.2260E-12	1.12808E+0	7.89174E-3
-1.37319E-3	-17.3189E-12	1.05180E+0	-17.3659E-3	-17.5566E-12	1.12658E+0	-9.15792E-3
-1.37819E-3	-17.8590E-12	1.06859E+0	-23.5736E-3	-17.9330E-12	1.13699E+0	-21.0350E-3
-1.38319E-3	-18.3215E-12	1.08461E+0	-20.6963E-3	-18.4518E-12	1.15535E+0	-20.8913E-3
-1.38819E-3	-18.8271E-12	1.10471E+0	-19.5910E-3	-18.7704E-12	1.17563E+0	-24.2745E-3
-1.39320E-3	-19.5102E-12	1.12774E+0	-17.4840E-3	-19.1794E-12	1.17827E+0	-23.0842E-3
-1.39820E-3	-19.8982E-12	1.15644E+0	-15.4772E-3	-19.5552E-12	1.17711E+0	-19.8917E-3
-1.40320E-3	-20.2431E-12	1.17198E+0	-21.3573E-3	-19.8727E-12	1.19214E+0	-25.7709E-3
-1.40820E-3	-20.6661E-12	1.17411E+0	-23.8228E-3	-20.2612E-12	1.21042E+0	-22.9801E-3
-1.41321E-3	-21.0835E-12	1.18368E+0	-17.1820E-3	-20.7484E-12	1.21909E+0	-1.90207E-3
-1.41821E-3	-21.2856E-12	1.19622E+0	-16.1148E-3	-21.1843E-12	1.20847E+0	11.1990E-3
-1.42321E-3	-21.3695E-12	1.21021E+0	-18.4470E-3	-21.4470E-12	1.18674E+0	2.88903E-3
-1.42821E-3	-21.5240E-12	1.21601E+0	-15.5862E-3	-21.8094E-12	1.18102E+0	-12.2953E-3
-1.43322E-3	-21.7654E-12	1.20283E+0	-15.0988E-3	-22.1224E-12	1.19781E+0	-27.1647E-3
-1.43822E-3	-21.8430E-12	1.19357E+0	-20.4624E-3	-22.5179E-12	1.20211E+0	-32.6530E-3
-1.44322E-3	-21.9840E-12	1.19353E+0	-20.7782E-3	-22.8534E-12	1.18886E+0	-16.3430E-3
-1.44822E-3	-22.3480E-12	1.17871E+0	-28.9110E-3	-23.0375E-12	1.19410E+0	-974.217E-6
-1.45323E-3	-22.7750E-12	1.15426E+0	-44.9781E-3	-23.2589E-12	1.19959E+0	-3.70776E-3
-1.45823E-3	-23.0508E-12	1.15145E+0	-40.5955E-3	-23.7976E-12	1.18617E+0	-3.53785E-3
-1.46323E-3	-23.5376E-12	1.16373E+0	-31.2355E-3	-24.3580E-12	1.17913E+0	-2.84671E-3
-1.46823E-3	-24.2753E-12	1.16953E+0	-29.6416E-3	-24.6082E-12	1.17892E+0	-17.8546E-3
-1.47324E-3	-24.9214E-12	1.16849E+0	-25.4108E-3	-24.8453E-12	1.16854E+0	-30.1344E-3
-1.47824E-3	-25.5514E-12	1.16837E+0	-27.8726E-3	-25.4048E-12	1.17508E+0	-33.7821E-3
-1.48324E-3	-26.1292E-12	1.18811E+0	-35.3521E-3	-25.9472E-12	1.20490E+0	-36.9069E-3
-1.48824E-3	-26.9586E-12	1.21905E+0	-31.2494E-3	-26.2925E-12	1.22067E+0	-24.5404E-3
-1.49325E-3	-27.7049E-12	1.23683E+0	-14.0086E-3	-26.7892E-12	1.22296E+0	-5.34661E-3
-1.49825E-3	-28.0861E-12	1.24475E+0	-8.13578E-3	-27.1203E-12	1.22318E+0	-3.86678E-3
-1.50325E-3	-28.6034E-12	1.24839E+0	-14.5083E-3	-27.7520E-12	1.23116E+0	-15.0201E-3
-1.50825E-3	-29.2012E-12	1.25139E+0	-19.3892E-3	-28.3237E-12	1.25068E+0	-32.4440E-3
-1.51326E-3	-29.4459E-12	1.25460E+0	-19.7189E-3	-28.8924E-12	1.25374E+0	-39.8557E-3
-1.51826E-3	-29.4607E-12	1.25980E+0	-8.67219E-3	-29.2764E-12	1.23177E+0	-28.0483E-3
-1.52326E-3	-29.7348E-12	1.25734E+0	-4.71922E-3	-29.7880E-12	1.20946E+0	-20.8270E-3
-1.52826E-3	-30.1205E-12	1.24121E+0	-11.8955E-3	-30.1508E-12	1.20237E+0	-17.0506E-3
-1.53327E-3	-30.0163E-12	1.22731E+0	-14.6063E-3	-30.4454E-12	1.20220E+0	-7.98792E-3
-1.53827E-3	-29.9253E-12	1.21662E+0	-23.1814E-3	-30.8764E-12	1.18968E+0	3.81539E-3
-1.54327E-3	-30.2268E-12	1.19786E+0	-30.7014E-3	-31.0765E-12	1.16907E+0	6.52403E-3
-1.54827E-3	-30.4097E-12	1.17817E+0	-25.2608E-3	-31.5256E-12	1.15611E+0	-4.30253E-3
-1.55328E-3	-30.7021E-12	1.15528E+0	-19.0576E-3	-31.5875E-12	1.15992E+0	-3.41421E-3
-1.55828E-3	-31.1154E-12	1.13848E+0	-21.2873E-3	-31.8800E-12	1.16355E+0	-706.604E-6
-1.56328E-3	-31.5875E-12	1.14759E+0	-31.9762E-3	-32.0224E-12	1.14625E+0	-14.9149E-3
-1.56828E-3	-32.1445E-12	1.15744E+0	-38.9788E-3	-32.6016E-12	1.13389E+0	-20.8543E-3
-1.57329E-3	-32.9369E-12	1.14686E+0	-31.2381E-3	-32.8980E-12	1.13794E+0	-19.3079E-3
-1.57829E-3	-33.5041E-12	1.13884E+0	-5.02354E-3	-33.2674E-12	1.14085E+0	-20.9502E-3
-1.58329E-3	-34.0919E-12	1.14742E+0	18.8967E-3	-33.6396E-12	1.14434E+0	-10.1133E-3
-1.58829E-3	-34.8795E-12	1.15561E+0	10.6497E-3	-34.2073E-12	1.16196E+0	-886.736E-6
-1.59330E-3	-35.5431E-12	1.16339E+0	-4.74456E-3	-34.8444E-12	1.17287E+0	-7.82874E-3
-1.59830E-3	-35.9895E-12	1.17357E+0	638.891E-6	-35.3874E-12	1.15382E+0	-13.9886E-3
-1.60330E-3	-36.5791E-12	1.17806E+0	1.70073E-3	-35.8931E-12	1.14380E+0	-32.7022E-3
-1.60830E-3	-36.9610E-12	1.17328E+0	-4.41288E-3	-36.4303E-12	1.14307E+0	-52.3608E-3
-1.61331E-3	-37.1550E-12	1.16688E+0	-5.74052E-3	-37.0080E-12	1.12681E+0	-33.8773E-3
-1.61831E-3	-37.4140E-12	1.16584E+0	-10.3720E-3	-37.2759E-12	1.11303E+0	-3.47848E-3
-1.62331E-3	-37.6853E-12	1.16794E+0	-12.4162E-3	-37.5094E-12	1.10182E+0	5.48790E-3
-1.62831E-3	-37.5111E-12	1.16794E+0	-8.63824E-3	-37.8767E-12	1.08663E+0	-9.55120E-3
-1.63332E-3	-37.7021E-12	1.14172E+0	-7.97344E-3	-38.2052E-12	1.08787E+0	-33.1678E-3
-1.63832E-3	-38.0066E-12	1.10497E+0	-9.97786E-3	-38.3797E-12	1.09971E+0	-31.5761E-3
-1.64332E-3	-38.0243E-12	1.09730E+0	-9.70567E-3	-38.3285E-12	1.08996E+0	-9.50545E-3
-1.64832E-3	-38.1585E-12	1.09138E+0	-17.2262E-3	-38.5956E-12	1.07520E+0	-2.59580E-3
-1.65333E-3	-38.2070E-12	1.07308E+0	-31.5900E-3	-38.9209E-12	1.07675E+0	-15.5829E-3
-1.65833E-3	-38.5450E-12	1.06379E+0	-31.7208E-3	-39.3669E-12	1.06201E+0	-24.0200E-3
-1.66333E-3	-38.8514E-12	1.05062E+0	-24.0937E-3	-39.6139E-12	1.03477E+0	-14.6955E-3
-1.66833E-3	-39.1629E-12	1.03798E+0	-26.5419E-3	-39.9864E-12	1.02548E+0	-14.8326E-3
-1.67334E-3	-39.3358E-12	1.04267E+0	-31.6941E-3	-40.4779E-12	1.02907E+0	-20.5006E-3
-1.67834E-3	-40.0038E-12	1.04568E+0	-31.1371E-3	-41.0810E-12	1.03573E+0	-12.3818E-3
-1.68334E-3	-40.5060E-12	1.03329E+0	-19.1412E-3	-41.3495E-12	1.04469E+0	-16.4041E-3
-1.68834E-3	-40.9427E-12	1.02276E+0	-3.81081E-3	-41.7329E-12	1.05511E+0	-20.2480E-3
-1.69335E-3	-41.2486E-12	1.02854E+0	-8.55506E-3	-42.0913E-12	1.05166E+0	-12.7441E-3
-1.69835E-3	-41.9396E-12	1.03939E+0	-19.4540E-3	-42.7301E-12	1.03854E+0	-18.2182E-3
-1.70335E-3	-42.3315E-12	1.03679E+0	-17.9771E-3	-43.1040E-12	1.03219E+0	-32.9008E-3
-1.70835E-3	-42.9571E-12	1.02123E+0	-12.0755E-3	-43.3187E-12	1.03994E+0	-32.5707E-3
-1.71336E-3	-43.6100E-12	1.01094E+0	-12.3263E-3	-43.6908E-12	1.04576E+0	-20.5711E-3
-1.71836E-3	-44.2000E-12	1.02171E+0	-17.2956E-3	-44.0872E-12	1.02783E+0	-14.9319E-3
-1.72336E-3	-44.6908E-12	1.03172E+0	-17.9147E-3	-44.3935E-12	1.00397E+0	-18.9356E-3
-1.72836E-3	-45.3185E-12	1.02736E+0	-18.4225E-3	-44.6140E-12	992.219E-3	-25.9376E-3
-1.73337E-3	-45.6367E-12	1.02623E+0	-15.6861E-3	-44.6438E-12	984.271E-3	-21.1918E-3
-1.73837E-3	-45.8813E-12	1.02277E+0	-8.51136E-3	-44.9977E-12	974.518E-3	-4.08317E-3
-1.74337E-3	-46.1012E-12	1.01469E+0	-15.3801E-3	-45.3456E-12	976.481E-3	-5.31000E-3
-1.74837E-3	-46.2276E-12	1.01068E+0	-24.6460E-3	-45.3706E-12	981.482E-3	-32.3953E-3
-1.75338E-3	-46.2544E-12	999.923E-3	-21.9327E-3	-45.8303E-12	980.253E-3	-38.2307E-3
-1.75838E-3	-46.1114E-12	989.010E-3	-17.5415E-3	-46.5958E-12	992.714E-3	-28.0793E-3
-1.76338E-3	-46.0868E-12	991.881E-3	-11.0212E-3	-46.8399E-12	1.00352E+0	-34.2556E-3
-1.76838E-3	-45.9130E-12	983.584E-3	-12.1615E-3	-47.2582E-12	995.097E-3	-33.4129E-3
-1.77339E-3	-46.0518E-12	959.025E-3	-26.9929E-3	-47.5757E-12	981.094E-3	-29.1598E-3
-1.77839E-3	-46.0182E-12	941.481E-3	-37.1495E-3	-47.8426E-12	971.246E-3	-33.3823E-3
-1.78339E-3	-46.2134E-12	932.602E-3	-34.3340E-3	-48.2629E-12	973.720E-3	-21.6356E-3
-1.78839E-3	-46.5222E-12	924.617E-3	-24.1756E-3	-48.6769E-12	984.209E-3	-4.16406E-3
-1.79340E-3	-47.2672E-12	921.284E-3	-15.1590E-3	-49.2270E-12	981.407E-3	-10.0777E-3
-1.79840E-3	-47.8187E-12	922.253E-3	-20.3969E-3	-49.3089E-12	955.068E-3	-18.3109E-3
-1.80340E-3	-48.5327E-12	916.202E-3	-31.5169E-3	-49.5739E-12	928.542E-3	-12.9363E-3
-1.80840E-3	-49.5294E-12	908.113E-3	-25.5063E-3	-50.0494E-12	927.566E-3	-8.02012E-3
-1.81341E-3	-50.2500E-12	921.579E-3	-9.25943E-3	-50.3415E-12	940.586E-3	4.33852E-3
-1.81841E-3	-51.0890E-12	939.746E-3	-7.52930E-3	-50.3068E-12	953.480E-3	11.3890E-3
-1.82341E-3	-52.0074E-12	935.767E-3	-25.1898E-3	-50.5532E-12	952.931E-3	-8.79299E-3
-1.82841E-3	-52.7043E-12	928.907E-3	-45.6178E-3	-50.8499E-12	940.165E-3	-30.8684E-3
-1.83342E-3	-53.3347E-12	924.896E-3	-43.2746E-3	-51.2644E-12	935.885E-3	-27.0564E-3
-1.83842E-3	-53.5620E-12	927.034E-3	-27.0791E-3	-51.5588E-12	940.363E-3	-8.79920E-3
-1.84342E-3	-53.4104E-12	940.489E-3	-14.2747E-3	-51.8641E-12	944.469E-3	-6.57404E-3
-1.84842E-3	-53.4050E-12	948.350E-3	-5.07842E-3	-51.9328E-12	933.210E-3	-24.3537E-3
-1.85343E-3	-53.0981E-12	958.433E-3	-12.9681E-3	-52.3548E-12	905.783E-3	-43.3872E-3
-1.85843E-3	-53.0843E-12	961.490E-3	-29.3640E-3	-52.6044E-12	890.296E-3	-51.1190E-3
-1.86343E-3	-52.5267E-12	936.999E-3	-35.1747E-3	-52.9414E-12	893.112E-3	-31.2821E-3
-1.86843E-3	-52.3069E-12	915.141E-3	-29.9520E-3	-53.4380E-12	894.378E-3	-16.4390E-3
-1.87344E-3	-52.4590E-12	910.997E-3	-24.7007E-3	-53.4348E-12	879.924E-3	-28.5439E-3
-1.87844E-3	-52.5141E-12	905.809E-3	-32.9573E-3	-53.7895E-12	859.124E-3	-28.1172E-3
-1.88344E-3	-52.4073E-12	894.338E-3	-45.4134E-3	-54.2035E-12	870.997E-3	-26.2297E-3
-1.88844E-3	-52.8921E-12	882.845E-3	-34.1125E-3	-54.3066E-12	897.351E-3	-37.3867E-3
-1.89345E-3	-53.4928E-12	877.548E-3	-14.4972E-3	-54.4246E-12	883.582E-3	-31.8188E-3
-1.89845E-3	-54.2099E-12	880.343E-3	-8.83617E-3	-54.8030E-12	858.662E-3	-11.5423E-3
-1.90345E-3	-54.6930E-12	888.736E-3	-10.2318E-3	-55.0390E-12	861.456E-3	-8.23949E-3
-1.90845E-3	-55.6868E-12	886.987E-3	-7.16302E-3	-55.1471E-12	867.423E-3	-20.4748E-3
-1.91346E-3	-56.2171E-12	875.634E-3	-5.20217E-3	-55.6767E-12	873.180E-3	-25.2324E-3
-1.91846E-3	-57.1158E-12	870.094E-3	-15.7767E-3	-56.1767E-12	881.671E-3	-17.8834E-3
-1.92346E-3	-57.8797E-12	871.208E-3	-23.1651E-3	-56.2044E-12	875.223E-3	-10.4756E-3
-1.92846E-3	-58.5430E-12	874.637E-3	-13.9672E-3	-56.7313E-12	880.321E-3	-20.4098E-3
-1.93347E-3	-58.8160E-12	889.217E-3	-4.63021E-3	-57.2497E-12	893.258E-3	-29.2947E-3
-1.93847E-3	-59.4488E-12	912.085E-3	-10.7068E-3	-57.6179E-12	876.048E-3	-13.2223E-3
-1.94347E-3	-59.4660E-12	910.243E-3	-17.1967E-3	-58.1034E-12	863.497E-3	-1.31852E-3
-1.94847E-3	-59.5180E-12	898.199E-3	-21.0742E-3	-58.4505E-12	871.226E-3	-13.1816E-3
-1.95348E-3	-59.1555E-12	897.941E-3	-19.1664E-3	-58.9772E-12	864.961E-3	-21.9091E-3
-1.95848E-3	-59.2190E-12	884.430E-3	-7.92241E-3	-59.2010E-12	865.989E-3	-19.7670E-3
-1.96348E-3	-58.8887E-12	868.918E-3	-10.8205E-3	-59.3673E-12	884.537E-3	-24.3598E-3
-1.96848E-3	-59.1130E-12	873.195E-3	-14.8631E-3	-59.6255E-12	871.843E-3	-31.9085E-3
-1.97349E-3	-58.4031E-12	887.183E-3	-6.46812E-3	-59.9963E-12	841.843E-3	-24.9755E-3
-1.97849E-3	-58.5564E-12	890.753E-3	-14.8076E-3	-60.0887E-12	835.693E-3	-22.2634E-3
-1.98349E-3	-58.8569E-12	863.715E-3	-25.7567E-3	-60.0192E-12	843.131E-3	-24.7549E-3
-1.98849E-3	-59.2218E-12	828.592E-3	-12.4776E-3	-60.3908E-12	848.731E-3	-16.9213E-3
-1.99350E-3	-59.2540E-12	823.823E-3	-3.92883E-3	-60.6452E-12	850.081E-3	-24.0161E-3
-1.99850E-3	-60.1014E-12	832.391E-3	-15.4325E-3	-60.7748E-12	847.337E-3	-41.0228E-3
-2.00350E-3	-61.3073E-12	827.783E-3	-21.9351E-3	-60.8045E-12	838.676E-3	-37.4249E-3
-2.00850E-3	-61.7209E-12	830.065E-3	-19.2625E-3	-61.3804E-12	840.539E-3	-29.8738E-3
-2.01351E-3	-61.9084E-12	843.239E-3	-17.9081E-3	-62.1274E-12	852.996E-3	-38.3303E-3
-2.01851E-3	-62.8063E-12	850.506E-3	-10.1842E-3	-62.3368E-12	851.392E-3	-42.4537E-3
-2.02351E-3	-63.4195E-12	848.167E-3	-7.42614E-3	-62.7546E-12	850.090E-3	-37.8557E-3
-2.02851E-3	-63.6779E-12	846.252E-3	-22.7807E-3	-63.2005E-12	845.704E-3	-42.5291E-3
-2.03352E-3	-64.3532E-12	850.615E-3	-31.3758E-3	-63.6512E-12	836.491E-3	-46.9203E-3
-2.03852E-3	-64.5252E-12	850.309E-3	-18.2050E-3	-64.2145E-12	837.771E-3	-43.4462E-3
-2.04352E-3	-64.3163E-12	856.028E-3	-4.27971E-3	-64.2901E-12	822.680E-3	-35.8537E-3
-2.04852E-3	-64.6264E-12	861.019E-3	-3.27507E-3	-64.3020E-12	804.201E-3	-21.0798E-3
-2.05353E-3	-64.2855E-12	856.498E-3	-8.99470E-3	-64.1510E-12	814.817E-3	-24.3856E-3
-2.05853E-3	-64.4449E-12	853.306E-3	-18.0622E-3	-64.4878E-12	828.556E-3	-36.9640E-3
-2.06353E-3	-64.5658E-12	842.052E-3	-19.6750E-3	-64.9450E-12	815.111E-3	-26.0743E-3
-2.06853E-3	-64.5261E-12	826.657E-3	-6.25909E-3	-64.7513E-12	805.907E-3	-10.2196E-3
-2.07354E-3	-64.4066E-12	810.017E-3	-7.07363E-3	-64.3688E-12	808.632E-3	-21.1930E-3
-2.07854E-3	-64.4593E-12	796.741E-3	-20.6536E-3	-64.6365E-12	795.898E-3	-42.9472E-3
-2.08354E-3	-64.3583E-12	796.278E-3	-15.5203E-3	-64.9507E-12	796.359E-3	-41.1850E-3
-2.08854E-3	-64.7573E-12	802.333E-3	-6.84236E-3	-65.1526E-12	816.591E-3	-39.1161E-3
-2.09355E-3	-64.9640E-12	813.795E-3	-3.71259E-3	-65.1424E-12	819.334E-3	-33.5108E-3
-2.09855E-3	-65.4573E-12	815.462E-3	568.351E-6	-65.6381E-12	814.734E-3	-8.05912E-3
-2.10355E-3	-65.8169E-12	810.092E-3	513.419E-6	-66.3450E-12	811.923E-3	-7.72151E-3
-2.10855E-3	-66.4641E-12	809.370E-3	-9.67903E-3	-66.9953E-12	800.122E-3	-18.2310E-3
-2.11356E-3	-67.3133E-12	802.309E-3	-20.2424E-3	-67.1300E-12	807.149E-3	-5.88173E-3
-2.11856E-3	-67.6610E-12	797.462E-3	-26.1539E-3	-67.5229E-12	818.470E-3	-10.7522E-3
-2.12356E-3	-68.3538E-12	801.989E-3	-41.8549E-3	-68.0957E-12	798.698E-3	-33.6266E-3
-2.12856E-3	-68.8677E-12	816.788E-3	-50.0225E-3	-68.7616E-12	778.597E-3	-24.9661E-3
-2.13357E-3	-69.1417E-12	830.563E-3	-35.5439E-3	-68.6773E-12	790.294E-3	-7.38568E-3
-2.13857E-3	-69.5375E-12	835.359E-3	-24.9247E-3	-68.7158E-12	802.844E-3	-10.5618E-3
-2.14357E-3	-69.9266E-12	825.422E-3	-18.9563E-3	-68.3323E-12	795.661E-3	826.050E-6
-2.14857E-3	-69.5547E-12	801.064E-3	-15.3195E-3	-68.4455E-12	791.642E-3	4.78313E-3
-2.15358E-3	-70.1355E-12	804.973E-3	-27.1216E-3	-68.4073E-12	786.728E-3	-32.2869E-3
-2.15858E-3	-70.5940E-12	828.261E-3	-27.7198E-3	-68.3615E-12	779.473E-3	-62.8324E-3
-2.16358E-3	-70.7179E-12	821.810E-3	-17.2130E-3	-68.4067E-12	774.755E-3	-61.1734E-3
-2.16858E-3	-70.2266E-12	804.165E-3	-14.1244E-3	-69.0570E-12	764.827E-3	-41.4023E-3
-2.17359E-3	-70.4077E-12	795.876E-3	-9.15857E-3	-69.0847E-12	760.464E-3	-23.9327E-3
-2.17859E-3	-70.3923E-12	788.719E-3	-7.06932E-3	-69.3306E-12	774.358E-3	-24.6616E-3
-2.18359E-3	-70.1135E-12	784.934E-3	-19.6616E-3	-69.6333E-12	794.242E-3	-22.0464E-3
-2.18859E-3	-69.8428E-12	782.895E-3	-33.4366E-3	-70.1196E-12	798.323E-3	-6.64715E-3
-2.19360E-3	-70.0583E-12	779.388E-3	-29.0844E-3	-70.9380E-12	793.589E-3	-6.89867E-3
-2.19860E-3	-70.4518E-12	785.361E-3	-14.1543E-3	-71.7418E-12	786.948E-3	-20.0586E-3
-2.20360E-3	-70.6374E-12	790.586E-3	-6.52507E-3	-72.0502E-12	777.093E-3	-27.3793E-3
-2.20860E-3	-70.5730E-12	772.655E-3	-12.1988E-3	-72.6032E-12	783.858E-3	-22.9399E-3
-2.21361E-3	-71.0652E-12	757.154E-3	-21.8137E-3	-73.1368E-12	802.538E-3	-14.7450E-3
-2.21861E-3	-71.7722E-12	757.748E-3	-27.9850E-3	-73.7553E-12	798.159E-3	-10.1062E-3
-2.22361E-3	-72.3137E-12	755.523E-3	-26.0466E-3	-74.2443E-12	779.825E-3	-1.64462E-3
-2.22861E-3	-72.7110E-12	756.234E-3	-28.1029E-3	-74.4127E-12	780.187E-3	-10.0277E-3
-2.23362E-3	-73.4045E-12	761.929E-3	-30.3706E-3	-74.3632E-12	778.647E-3	-22.4414E-3
-2.23862E-3	-74.3433E-12	770.765E-3	-15.5643E-3	-74.3421E-12	767.038E-3	-11.3430E-3
-2.24362E-3	-75.1798E-12	793.113E-3	-2.48696E-3	-74.2216E-12	756.168E-3	-9.81189E-3
-2.24862E-3	-75.5520E-12	810.462E-3	-1.01385E-3	-73.9330E-12	733.894E-3	-18.4980E-3
-2.25363E-3	-76.1626E-12	793.323E-3	-14.6160E-3	-73.5931E-12	730.544E-3	-28.9709E-3
-2.25863E-3	-76.6096E-12	771.574E-3	-34.9951E-3	-73.6720E-12	746.775E-3	-49.6443E-3
-2.26363E-3	-76.5393E-12	785.463E-3	-36.8692E-3	-73.6841E-12	756.113E-3	-54.7765E-3
-2.26863E-3	-76.5093E-12	798.353E-3	-30.8151E-3	-73.7057E-12	762.784E-3	-28.4960E-3
-2.27364E-3	-76.7469E-12	788.271E-3	-32.6779E-3	-73.7610E-12	760.108E-3	-7.87293E-3
-2.27864E-3	-76.3747E-12	785.225E-3	-35.7398E-3	-74.4718E-12	749.229E-3	-13.6956E-3
-2.28364E-3	-75.8691E-12	781.385E-3	-30.1794E-3	-74.9835E-12	749.818E-3	-18.7379E-3
-2.28864E-3	-76.1874E-12	763.541E-3	-15.2181E-3	-75.8340E-12	765.041E-3	-21.2497E-3
-2.29365E-3	-76.0977E-12	745.526E-3	-9.83518E-3	-76.3813E-12	770.527E-3	-24.4278E-3
-2.29865E-3	-75.4342E-12	745.715E-3	-17.9088E-3	-77.5114E-12	770.256E-3	-8.37574E-3
-2.30365E-3	-75.0215E-12	751.654E-3	-18.4756E-3	-78.2761E-12	772.659E-3	-11.1157E-3
-2.30865E-3	-75.5326E-12	743.544E-3	-14.9214E-3	-78.4112E-12	763.745E-3	-41.2805E-3
-2.31366E-3	-75.8466E-12	726.358E-3	-17.6858E-3	-78.9504E-12	766.795E-3	-37.7257E-3
-2.31866E-3	-75.8066E-12	705.547E-3	-17.5060E-3	-79.5217E-12	771.869E-3	-15.0839E-3
-2.32366E-3	-76.1000E-12	705.237E-3	-18.3642E-3	-79.6837E-12	748.363E-3	-11.4140E-3
-2.32866E-3	-77.1868E-12	728.490E-3	-27.5048E-3	-79.1791E-12	725.566E-3	-17.1266E-3
-2.33367E-3	-78.0759E-12	738.277E-3	-31.7695E-3	-79.1465E-12	737.373E-3	-30.1459E-3
-2.33867E-3	-78.7297E-12	736.763E-3	-27.5259E-3	-79.3847E-12	750.997E-3	-36.0911E-3
-2.34367E-3	-79.9801E-12	741.964E-3	-15.7999E-3	-79.1672E-12	739.910E-3	-9.44015E-3
-2.34867E-3	-81.0592E-12	754.756E-3	-5.45164E-3	-79.2120E-12	733.972E-3	1.16156E-3
-2.35368E-3	-82.1482E-12	764.359E-3	-6.04984E-3	-79.0820E-12	732.070E-3	-36.6517E-3
-2.35868E-3	-82.7169E-12	764.990E-3	-12.7559E-3	-79.6300E-12	729.539E-3	-60.5611E-3
-2.36368E-3	-82.8747E-12	772.303E-3	-22.4402E-3	-79.8779E-12	742.013E-3	-53.5122E-3
-2.36868E-3	-83.1582E-12	785.919E-3	-23.9577E-3	-79.9538E-12	755.229E-3	-48.8348E-3
-2.37369E-3	-82.9133E-12	796.266E-3	-17.5486E-3	-80.4864E-12	747.228E-3	-35.0314E-3
-2.37869E-3	-82.4039E-12	787.440E-3	-29.1445E-3	-80.8152E-12	738.155E-3	-21.0265E-3
-2.38369E-3	-81.7108E-12	770.975E-3	-53.2573E-3	-80.9752E-12	741.010E-3	-35.2871E-3
-2.38869E-3	-81.3697E-12	768.426E-3	-53.6155E-3	-81.1553E-12	742.168E-3	-45.2632E-3
-2.39370E-3	-80.5836E-12	754.083E-3	-29.5456E-3	-81.6425E-12	744.659E-3	-18.3886E-3
-2.39870E-3	-80.4578E-12	736.147E-3	-14.4342E-3	-81.5128E-12	743.023E-3	9.59672E-3
-2.40370E-3	-80.4257E-12	742.025E-3	-8.13688E-3	-81.7130E-12	724.162E-3	14.2756E-3
-2.40870E-3	-80.5077E-12	741.176E-3	3.40531E-3	-81.5842E-12	708.648E-3	7.59387E-3
-2.41371E-3	-80.3233E-12	726.225E-3	-1.46268E-3	-81.8763E-12	720.624E-3	-12.4416E-3
-2.41871E-3	-80.8987E-12	711.121E-3	-19.3650E-3	-82.0085E-12	737.711E-3	-25.0224E-3
-2.42371E-3	-81.4700E-12	699.467E-3	-27.4514E-3	-82.3376E-12	738.629E-3	-10.6995E-3
-2.42871E-3	-82.3726E-12	706.504E-3	-13.6399E-3	-82.8700E-12	734.987E-3	-6.82382E-3
-2.43372E-3	-83.0429E-12	716.061E-3	-1.42435E-3	-82.9968E-12	728.060E-3	-13.4122E-3
-2.43872E-3	-84.0544E-12	718.517E-3	-7.97490E-3	-83.6007E-12	726.546E-3	2.45043E-3
-2.44372E-3	-85.0666E-12	720.232E-3	-13.0217E-3	-83.8560E-12	739.604E-3	5.81821E-3
-2.44872E-3	-85.7688E-12	719.876E-3	-28.1074E-3	-84.7091E-12	731.541E-3	-6.60671E-3
-2.45373E-3	-86.4555E-12	727.925E-3	-35.7462E-3	-85.1384E-12	712.717E-3	-13.5845E-3
-2.45873E-3	-86.5783E-12	735.857E-3	-15.0416E-3	-85.3291E-12	722.765E-3	-32.6955E-3
-2.46373E-3	-87.0563E-12	728.446E-3	-2.46841E-3	-85.2556E-12	741.983E-3	-47.9015E-3
-2.46873E-3	-87.0784E-12	717.067E-3	-3.89530E-3	-85.4248E-12	743.710E-3	-30.7965E-3
-2.47374E-3	-87.1016E-12	727.946E-3	-6.84830E-3	-85.7123E-12	726.135E-3	-6.77495E-3
-2.47874E-3	-86.4878E-12	744.891E-3	-15.0643E-3	-85.2039E-12	702.268E-3	-13.0547E-3
-2.48374E-3	-86.3245E-12	746.817E-3	-18.1128E-3	-85.7358E-12	688.051E-3	-29.0437E-3
-2.48874E-3	-85.6871E-12	748.392E-3	-22.9525E-3	-85.7586E-12	699.409E-3	-25.8880E-3
-2.49375E-3	-85.4084E-12	753.950E-3	-24.6747E-3	-85.7473E-12	711.900E-3	-22.4926E-3
-2.49875E-3	-84.4786E-12	753.126E-3	-11.5230E-3	-85.4522E-12	700.162E-3	-25.2551E-3
-2.50375E-3	-84.3889E-12	738.983E-3	-11.7064E-3	-85.6100E-12	699.768E-3	-23.2998E-3
-2.50875E-3	-84.5391E-12	718.702E-3	-28.5336E-3	-85.8506E-12	711.118E-3	-24.8810E-3
-2.51376E-3	-84.6770E-12	707.311E-3	-24.3269E-3	-86.1292E-12	712.902E-3	-22.8271E-3
-2.51876E-3	-84.8360E-12	693.435E-3	-7.74164E-3	-86.6511E-12	722.398E-3	-2.69426E-3
-2.52376E-3	-85.5159E-12	678.117E-3	-9.15254E-3	-87.1452E-12	733.735E-3	3.95568E-3
-2.52876E-3	-86.3605E-12	680.096E-3	-10.3249E-3	-87.9933E-12	723.056E-3	-17.2019E-3
-2.53377E-3	-87.0965E-12	680.816E-3	-14.0402E-3	-88.8942E-12	716.140E-3	-34.0417E-3
-2.53877E-3	-87.5068E-12	686.586E-3	-26.8907E-3	-89.4724E-12	736.308E-3	-36.7628E-3
-2.54377E-3	-88.6478E-12	709.068E-3	-23.9882E-3	-89.8475E-12	746.684E-3	-16.1606E-3
-2.54877E-3	-89.1113E-12	711.014E-3	-15.4403E-3	-90.8431E-12	748.582E-3	10.8361E-3
-2.55378E-3	-89.6674E-12	699.928E-3	-19.8589E-3	-91.7842E-12	756.491E-3	361.023E-6
-2.55878E-3	-89.8872E-12	709.733E-3	-20.9562E-3	-91.7638E-12	742.570E-3	-18.0795E-3
-2.56378E-3	-90.9988E-12	721.439E-3	-7.47446E-3	-91.4702E-12	728.629E-3	-7.22974E-3
-2.56878E-3	-91.3497E-12	732.318E-3	5.08793E-3	-91.8290E-12	731.372E-3	-2.85987E-3
-2.57379E-3	-91.5717E-12	741.245E-3	8.70176E-3	-91.9798E-12	731.395E-3	-14.1388E-3
-2.57879E-3	-91.3644E-12	727.134E-3	1.48167E-3	-91.3839E-12	732.816E-3	-21.4170E-3
-2.58379E-3	-91.8008E-12	713.970E-3	-18.9672E-3	-90.7060E-12	737.741E-3	-25.5316E-3
-2.58879E-3	-91.1143E-12	714.411E-3	-20.4568E-3	-90.0430E-12	730.271E-3	-34.7673E-3
-2.59380E-3	-91.2701E-12	708.802E-3	8.84688E-3	-90.1841E-12	717.705E-3	-32.6036E-3
-2.59880E-3	-91.0708E-12	708.281E-3	22.2529E-3	-90.0654E-12	704.835E-3	-19.3440E-3
-2.60380E-3	-91.2686E-12	733.227E-3	14.7560E-3	-89.3757E-12	678.981E-3	-16.4776E-3
-2.60880E-3	-90.7206E-12	754.041E-3	11.6102E-3	-89.5722E-12	665.773E-3	-8.83007E-3
-2.61381E-3	-90.5154E-12	745.952E-3	-4.08087E-3	-89.9405E-12	694.561E-3	-7.61649E-3
-2.61881E-3	-90.8818E-12	730.329E-3	-29.6953E-3	-90.5995E-12	728.299E-3	-25.0814E-3
-2.62381E-3	-91.2878E-12	716.840E-3	-34.0993E-3	-92.1271E-12	725.054E-3	-27.5856E-3
-2.62881E-3	-91.1782E-12	697.195E-3	-38.7918E-3	-93.6230E-12	713.914E-3	-13.6376E-3
-2.63382E-3	-91.0787E-12	696.060E-3	-55.3382E-3	-94.0300E-12	719.068E-3	-27.7555E-3
-2.63882E-3	-92.2926E-12	713.959E-3	-51.7554E-3	-94.4375E-12	721.931E-3	-46.1949E-3
-2.64382E-3	-92.5162E-12	701.415E-3	-35.2285E-3	-95.5803E-12	729.896E-3	-34.3460E-3
-2.64882E-3	-92.8208E-12	683.473E-3	-23.3633E-3	-96.6207E-12	739.950E-3	-26.1746E-3
-2.65383E-3	-93.2725E-12	695.561E-3	-17.4078E-3	-96.6523E-12	738.755E-3	-22.3516E-3
-2.65883E-3	-94.5102E-12	704.793E-3	-17.2073E-3	-96.1841E-12	742.657E-3	-17.8346E-3
-2.66383E-3	-94.9610E-12	709.132E-3	-30.9718E-3	-96.3897E-12	740.781E-3	-33.9871E-3
-2.66883E-3	-95.3648E-12	715.779E-3	-37.5829E-3	-96.5925E-12	717.027E-3	-38.7475E-3
-2.67384E-3	-96.3205E-12	714.527E-3	-17.1604E-3	-96.2521E-12	695.119E-3	-7.49386E-3
-2.67884E-3	-97.4298E-12	722.582E-3	3.66538E-3	-95.6973E-12	691.700E-3	12.2772E-3
-2.68384E-3	-97.9093E-12	742.131E-3	16.4107E-3	-95.4239E-12	701.604E-3	1.79871E-3
-2.68884E-3	-98.0734E-12	741.365E-3	9.95122E-3	-94.8830E-12	704.155E-3	-2.01926E-3
-2.69385E-3	-98.4812E-12	729.919E-3	-4.78040E-3	-94.7252E-12	706.843E-3	7.22695E-3
-2.69885E-3	-98.3497E-12	740.688E-3	-5.55173E-3	-95.0284E-12	712.374E-3	15.9414E-3
-2.70385E-3	-98.1283E-12	742.180E-3	-6.82527E-3	-95.2594E-12	704.096E-3	14.9943E-3
-2.70885E-3	-97.5006E-12	718.186E-3	-16.6369E-3	-95.6087E-12	707.980E-3	-1.38525E-3
-2.71386E-3	-97.9175E-12	710.110E-3	-18.5796E-3	-95.9404E-12	722.689E-3	-18.5013E-3
-2.71886E-3	-96.9781E-12	709.049E-3	-1.21787E-3	-97.1003E-12	729.114E-3	-25.4103E-3
-2.72386E-3	-95.9443E-12	697.316E-3	8.26018E-3	-97.4356E-12	737.475E-3	-18.0099E-3
-2.72886E-3	-95.8146E-12	695.998E-3	-5.93671E-3	-97.6672E-12	731.785E-3	-1.55623E-3
-2.73387E-3	-95.8587E-12	692.047E-3	-22.4256E-3	-98.3354E-12	711.210E-3	-221.156E-6
-2.73887E-3	-95.9356E-12	681.809E-3	-37.5047E-3	-98.9678E-12	716.693E-3	-21.9613E-3
-2.74387E-3	-95.5495E-12	691.990E-3	-44.5589E-3	-99.2577E-12	732.745E-3	-42.5854E-3
-2.74887E-3	-96.1036E-12	705.545E-3	-38.1047E-3	-99.3297E-12	719.661E-3	-30.9806E-3
-2.75388E-3	-96.5821E-12	707.182E-3	-35.8921E-3	-99.4644E-12	705.382E-3	-14.9565E-3
-2.75888E-3	-97.7246E-12	712.301E-3	-38.7651E-3	-99.7180E-12	703.727E-3	-30.2924E-3
-2.76388E-3	-98.4352E-12	712.486E-3	-35.8802E-3	-100.150E-12	691.330E-3	-32.4491E-3
-2.76888E-3	-99.6816E-12	696.140E-3	-32.6199E-3	-99.5094E-12	693.070E-3	-13.5325E-3
-2.77389E-3	-100.947E-12	686.851E-3	-31.1348E-3	-99.0148E-12	703.969E-3	-17.9000E-3
-2.77889E-3	-102.753E-12	699.754E-3	-21.1657E-3	-99.7147E-12	694.240E-3	-18.7853E-3
-2.78389E-3	-103.181E-12	705.676E-3	-6.97566E-3	-99.4180E-12	688.984E-3	-3.51277E-3
-2.78889E-3	-103.450E-12	701.581E-3	1.18839E-3	-99.2968E-12	684.164E-3	-12.6461E-3
-2.79390E-3	-104.103E-12	704.911E-3	5.27251E-3	-99.8278E-12	680.664E-3	-12.8060E-3
-2.79890E-3	-104.326E-12	721.791E-3	-2.35195E-3	-100.426E-12	697.473E-3	9.30840E-3
-2.80390E-3	-103.849E-12	744.543E-3	-12.7245E-3	-100.735E-12	693.336E-3	-2.78744E-3
-2.80890E-3	-103.007E-12	742.901E-3	-9.53058E-3	-100.876E-12	667.603E-3	-27.4936E-3
-2.81391E-3	-102.582E-12	716.138E-3	-15.8255E-3	-101.338E-12	677.437E-3	-28.1345E-3
-2.81891E-3	-102.222E-12	707.046E-3	-20.7088E-3	-101.944E-12	706.449E-3	-19.8922E-3
-2.82391E-3	-102.081E-12	715.609E-3	403.085E-6	-102.243E-12	698.915E-3	5.01871E-3
-2.82891E-3	-101.326E-12	700.930E-3	7.08775E-3	-102.124E-12	671.344E-3	19.9010E-3
-2.83392E-3	-100.514E-12	689.976E-3	-9.18746E-3	-102.481E-12	666.366E-3	-4.80441E-3
-2.83892E-3	-100.958E-12	694.801E-3	-18.4516E-3	-102.471E-12	681.939E-3	-28.8926E-3
-2.84392E-3	-100.921E-12	689.217E-3	-27.8088E-3	-102.865E-12	704.721E-3	-30.1655E-3
-2.84892E-3	-101.434E-12	683.363E-3	-23.1914E-3	-102.531E-12	709.728E-3	-20.4396E-3
-2.85393E-3	-100.964E-12	683.770E-3	-9.97475E-3	-102.981E-12	694.537E-3	-8.78809E-3
-2.85893E-3	-101.977E-12	683.694E-3	-21.7671E-3	-103.682E-12	698.064E-3	-2.53724E-3
-2.86393E-3	-102.521E-12	685.849E-3	-42.7540E-3	-103.990E-12	711.920E-3	-10.6084E-3
-2.86893E-3	-104.044E-12	691.708E-3	-35.8344E-3	-104.057E-12	703.655E-3	-10.0921E-3
-2.87394E-3	-105.137E-12	686.696E-3	-16.6735E-3	-104.538E-12	702.241E-3	15.2934E-3
-2.87894E-3	-105.877E-12	675.624E-3	-13.9641E-3	-104.861E-12	717.083E-3	13.0752E-3
-2.88394E-3	-106.343E-12	686.748E-3	-12.9094E-3	-105.357E-12	709.968E-3	-18.1718E-3
-2.88894E-3	-107.485E-12	697.596E-3	5.83654E-3	-105.607E-12	693.460E-3	-21.6361E-3
-2.89395E-3	-108.380E-12	691.483E-3	1.56268E-3	-105.733E-12	704.357E-3	-13.9344E-3
-2.89895E-3	-107.779E-12	707.045E-3	-31.4460E-3	-106.127E-12	717.683E-3	-7.62508E-3
-2.90395E-3	-107.808E-12	721.448E-3	-19.4064E-3	-106.655E-12	704.126E-3	-2.28567E-3
-2.90895E-3	-108.273E-12	706.771E-3	14.8438E-3	-106.267E-12	678.950E-3	-26.2199E-3
-2.91396E-3	-108.099E-12	695.639E-3	10.6315E-3	-106.050E-12	658.640E-3	-56.6936E-3
-2.91896E-3	-106.877E-12	704.428E-3	-8.02874E-3	-106.477E-12	662.113E-3	-56.9211E-3
-2.92396E-3	-106.569E-12	708.917E-3	-12.4739E-3	-106.140E-12	694.635E-3	-43.3633E-3
-2.92896E-3	-106.713E-12	700.547E-3	-7.24199E-3	-105.459E-12	710.604E-3	-35.7716E-3
-2.93397E-3	-105.899E-12	687.737E-3	-3.65131E-3	-105.819E-12	690.900E-3	-24.4596E-3
-2.93897E-3	-105.452E-12	669.457E-3	-9.29875E-3	-105.912E-12	687.770E-3	-16.9449E-3
-2.94397E-3	-104.584E-12	667.423E-3	-19.6162E-3	-106.114E-12	705.848E-3	-28.9232E-3
-2.94897E-3	-104.959E-12	685.113E-3	-25.5163E-3	-106.235E-12	705.436E-3	-32.7140E-3
-2.95398E-3	-105.059E-12	689.584E-3	-18.8740E-3	-107.253E-12	704.522E-3	-17.8698E-3
-2.95898E-3	-105.579E-12	685.354E-3	-9.82175E-3	-107.847E-12	717.239E-3	-20.2912E-3
-2.96398E-3	-105.605E-12	680.888E-3	-9.59692E-3	-109.097E-12	712.188E-3	-23.3821E-3
-2.96898E-3	-107.313E-12	668.915E-3	-17.8187E-3	-109.248E-12	702.925E-3	-5.50623E-3
-2.97399E-3	-108.200E-12	663.469E-3	-23.3536E-3	-110.248E-12	705.993E-3	3.92549E-3
-2.97899E-3	-108.716E-12	682.018E-3	-11.5573E-3	-110.724E-12	687.451E-3	9.83810E-3
-2.98399E-3	-109.370E-12	703.147E-3	-844.230E-6	-110.341E-12	670.040E-3	18.8123E-3
-2.98899E-3	-110.689E-12	702.825E-3	-13.1252E-3	-110.678E-12	680.780E-3	-5.65689E-3
-2.99400E-3	-111.527E-12	693.014E-3	-38.1011E-3	-110.915E-12	685.835E-3	-40.0468E-3
-2.99900E-3	-111.504E-12	680.410E-3	-37.3117E-3	-110.027E-12	687.817E-3	-37.7886E-3
-3.00400E-3	-112.479E-12	679.293E-3	-13.8629E-3	-109.155E-12	702.561E-3	-27.1541E-3
-3.00900E-3	-112.048E-12	697.561E-3	4.34180E-3	-109.660E-12	702.736E-3	-23.4884E-3
-3.01401E-3	-112.459E-12	706.561E-3	6.73812E-3	-110.144E-12	688.816E-3	-13.9541E-3
-3.01901E-3	-112.548E-12	702.142E-3	-14.3222E-3	-109.461E-12	684.593E-3	-21.4142E-3
-3.02401E-3	-112.668E-12	693.598E-3	-39.7958E-3	-108.863E-12	678.329E-3	-25.5906E-3
-3.02901E-3	-111.753E-12	685.470E-3	-41.7024E-3	-109.212E-12	671.484E-3	285.592E-6
-3.03402E-3	-111.399E-12	687.296E-3	-23.7526E-3	-110.104E-12	681.688E-3	7.58224E-3
-3.03902E-3	-111.286E-12	693.802E-3	-15.6728E-3	-110.223E-12	679.187E-3	-23.6382E-3
-3.04402E-3	-111.064E-12	682.859E-3	-16.1462E-3	-110.696E-12	658.469E-3	-35.3679E-3
-3.04902E-3	-110.512E-12	665.416E-3	-7.23056E-3	-111.686E-12	665.982E-3	-3.46448E-3
-3.05403E-3	-110.412E-12	677.163E-3	490.426E-6	-112.879E-12	684.725E-3	16.1453E-3
-3.05903E-3	-110.996E-12	685.008E-3	-1.44608E-3	-113.837E-12	686.579E-3	-37.8857E-6
-3.06403E-3	-111.535E-12	667.284E-3	-8.44238E-3	-114.612E-12	702.817E-3	-30.3090E-3
-3.06903E-3	-112.135E-12	659.393E-3	-12.5348E-3	-115.339E-12	709.936E-3	-42.1103E-3
-3.07404E-3	-112.305E-12	671.886E-3	-2.52515E-3	-115.683E-12	691.458E-3	-8.20287E-3
-3.07904E-3	-112.898E-12	686.592E-3	5.07713E-3	-115.592E-12	678.429E-3	17.5406E-3
-3.08404E-3	-114.049E-12	684.462E-3	4.33156E-3	-115.915E-12	658.046E-3	-13.6263E-3
-3.08904E-3	-114.721E-12	675.362E-3	9.73057E-3	-115.957E-12	641.562E-3	-45.3087E-3
-3.09405E-3	-115.569E-12	681.252E-3	-3.42404E-3	-115.272E-12	651.247E-3	-40.3733E-3
-3.09905E-3	-115.959E-12	698.612E-3	-27.7577E-3	-114.600E-12	664.550E-3	-23.6787E-3
-3.10405E-3	-117.230E-12	722.735E-3	-36.2988E-3	-115.099E-12	660.769E-3	-9.62492E-3
-3.10905E-3	-118.372E-12	716.862E-3	-34.3428E-3	-114.861E-12	655.396E-3	-5.35405E-3
-3.11406E-3	-118.684E-12	699.418E-3	-26.6100E-3	-114.283E-12	663.584E-3	-11.4523E-3
-3.11906E-3	-118.409E-12	708.081E-3	-26.3037E-3	-114.171E-12	666.364E-3	-17.0697E-3
-3.12406E-3	-118.768E-12	708.567E-3	-30.8286E-3	-114.529E-12	668.491E-3	-5.19534E-3
-3.12906E-3	-118.307E-12	702.852E-3	-16.8807E-3	-115.598E-12	679.815E-3	-9.56687E-3
-3.13407E-3	-118.338E-12	699.950E-3	17.1658E-3	-115.638E-12	677.907E-3	-43.5591E-3
-3.13907E-3	-117.969E-12	691.426E-3	33.2269E-3	-116.293E-12	682.684E-3	-50.2981E-3
-3.14407E-3	-117.118E-12	695.769E-3	-593.994E-6	-116.983E-12	697.260E-3	-38.9747E-3
-3.14907E-3	-116.773E-12	702.600E-3	-32.8504E-3	-118.764E-12	695.366E-3	-32.6206E-3
-3.15408E-3	-116.884E-12	682.425E-3	-28.4270E-3	-119.285E-12	686.070E-3	-18.8876E-3
-3.15908E-3	-116.328E-12	667.166E-3	-33.1923E-3	-119.554E-12	692.394E-3	-28.2944E-3
-3.16408E-3	-116.002E-12	677.006E-3	-31.1576E-3	-120.081E-12	689.521E-3	-55.6525E-3
-3.16908E-3	-116.190E-12	682.466E-3	-4.57934E-3	-120.294E-12	668.274E-3	-54.4088E-3
-3.17409E-3	-116.518E-12	683.181E-3	-1.66736E-3	-120.657E-12	665.073E-3	-48.5077E-3
-3.17909E-3	-116.960E-12	683.238E-3	-12.6380E-3	-120.594E-12	667.954E-3	-49.9125E-3
-3.18409E-3	-118.083E-12	682.388E-3	-18.5676E-3	-120.345E-12	674.532E-3	-23.0692E-3
-3.18909E-3	-119.222E-12	679.872E-3	-26.9658E-3	-120.212E-12	694.341E-3	-4.11330E-3
-3.19410E-3	-119.681E-12	672.729E-3	-21.6000E-3	-120.445E-12	700.761E-3	-24.3345E-3
-3.19910E-3	-120.364E-12	688.872E-3	-7.18249E-3	-120.008E-12	686.123E-3	-22.4881E-3
-3.20410E-3	-121.789E-12	710.020E-3	-1.89502E-3	-120.154E-12	681.360E-3	7.77570E-3
-3.20910E-3	-122.349E-12	709.926E-3	7.64282E-3	-120.205E-12	680.773E-3	15.1901E-3
-3.21411E-3	-123.170E-12	703.181E-3	21.9649E-3	-119.933E-12	663.697E-3	2.31251E-3
-3.21911E-3	-123.725E-12	689.104E-3	28.2891E-3	-119.869E-12	667.805E-3	-14.8865E-3
-3.22411E-3	-124.065E-12	682.195E-3	19.3284E-3	-119.539E-12	683.498E-3	-30.4495E-3
-3.22911E-3	-124.190E-12	683.090E-3	-2.75176E-3	-119.678E-12	671.320E-3	-38.9579E-3
-3.23412E-3	-124.137E-12	682.514E-3	-19.3860E-3	-120.252E-12	661.000E-3	-45.6555E-3
-3.23912E-3	-123.361E-12	694.337E-3	-13.7525E-3	-120.872E-12	666.417E-3	-48.7957E-3
-3.24412E-3	-122.053E-12	688.264E-3	4.01054E-3	-121.131E-12	673.124E-3	-30.8510E-3
-3.24912E-3	-120.760E-12	661.950E-3	2.16889E-3	-121.475E-12	691.555E-3	-4.72723E-3
-3.25413E-3	-120.504E-12	654.796E-3	-14.8489E-3	-122.068E-12	709.125E-3	-7.92977E-3
-3.25913E-3	-119.613E-12	649.530E-3	-17.8523E-3	-122.855E-12	694.228E-3	-31.5290E-3
-3.26413E-3	-118.697E-12	638.519E-3	-19.3004E-3	-122.920E-12	668.770E-3	-37.0194E-3
-3.26913E-3	-117.765E-12	645.203E-3	-19.0119E-3	-123.312E-12	667.573E-3	-38.1043E-3
-3.27414E-3	-118.841E-12	656.941E-3	-13.4177E-3	-123.415E-12	667.950E-3	-38.9181E-3
-3.27914E-3	-119.764E-12	653.837E-3	-12.2654E-3	-124.010E-12	669.442E-3	-13.2606E-3
-3.28414E-3	-120.820E-12	643.523E-3	-3.76219E-3	-124.229E-12	671.947E-3	-5.29885E-3
-3.28914E-3	-121.985E-12	636.517E-3	-6.18289E-3	-124.458E-12	658.913E-3	-21.6561E-3
-3.29415E-3	-123.267E-12	642.295E-3	-25.3721E-3	-124.347E-12	667.935E-3	-6.64139E-3
-3.29915E-3	-124.893E-12	655.389E-3	-23.6695E-3	-124.259E-12	698.154E-3	4.20024E-3
-3.30415E-3	-126.156E-12	668.716E-3	-5.59171E-3	-124.439E-12	701.673E-3	-12.5860E-3
-3.30915E-3	-127.732E-12	682.946E-3	-14.1670E-3	-123.999E-12	688.797E-3	-7.00972E-3
-3.31416E-3	-128.359E-12	686.995E-3	-32.2093E-3	-123.825E-12	677.691E-3	4.20564E-3
-3.31916E-3	-129.101E-12	691.348E-3	-20.4011E-3	-123.306E-12	668.686E-3	-17.6631E-3
-3.32416E-3	-129.170E-12	691.777E-3	-7.76084E-3	-123.647E-12	675.823E-3	-33.4268E-3
-3.32916E-3	-129.394E-12	683.220E-3	-25.3214E-3	-123.508E-12	684.071E-3	-29.2619E-3
-3.33417E-3	-128.706E-12	684.467E-3	-24.0292E-3	-123.692E-12	669.068E-3	-28.8284E-3
-3.33917E-3	-127.351E-12	677.007E-3	11.6412E-3	-123.991E-12	647.708E-3	-16.5702E-3
-3.34417E-3	-126.178E-12	661.004E-3	15.0598E-3	-124.174E-12	651.056E-3	-4.18731E-3
-3.34917E-3	-125.773E-12	664.185E-3	-8.22109E-3	-124.156E-12	670.641E-3	-10.3256E-3
-3.35418E-3	-125.208E-12	673.594E-3	-9.95512E-3	-125.020E-12	683.070E-3	-26.4603E-3
-3.35918E-3	-124.058E-12	669.015E-3	2.94916E-3	-125.630E-12	686.828E-3	-38.6627E-3
-3.36418E-3	-123.078E-12	645.874E-3	12.0367E-3	-125.450E-12	675.867E-3	-37.7196E-3
-3.36918E-3	-123.454E-12	624.286E-3	-2.63561E-3	-126.874E-12	662.616E-3	-29.9161E-3
-3.37419E-3	-123.832E-12	633.063E-3	-33.2896E-3	-127.616E-12	674.631E-3	-37.3580E-3
-3.37919E-3	-123.684E-12	660.564E-3	-43.9171E-3	-128.288E-12	689.372E-3	-42.9674E-3
-3.38419E-3	-124.476E-12	678.782E-3	-29.9450E-3	-128.851E-12	677.524E-3	-9.09563E-3
-3.38919E-3	-126.069E-12	671.266E-3	-15.9249E-3	-129.812E-12	668.308E-3	22.2120E-3
-3.39420E-3	-127.343E-12	646.045E-3	-12.5274E-3	-130.890E-12	684.543E-3	14.1814E-3
-3.39920E-3	-128.483E-12	650.132E-3	-10.9068E-3	-131.416E-12	701.171E-3	-6.61513E-3
-3.40420E-3	-129.605E-12	682.611E-3	2.14813E-3	-131.234E-12	704.550E-3	-3.69459E-3
-3.40920E-3	-131.401E-12	686.279E-3	16.4311E-3	-130.599E-12	700.158E-3	2.97352E-3
-3.41421E-3	-131.404E-12	683.137E-3	4.92770E-3	-130.959E-12	688.007E-3	-19.3404E-3
-3.41921E-3	-132.281E-12	701.242E-3	-17.2839E-3	-131.091E-12	676.924E-3	-33.3411E-3
-3.42421E-3	-132.774E-12	700.345E-3	-25.7381E-3	-130.417E-12	664.714E-3	-31.0268E-3
-3.42921E-3	-133.114E-12	680.753E-3	-13.2253E-3	-129.090E-12	656.702E-3	-11.5662E-3
-3.43422E-3	-132.152E-12	683.660E-3	2.37011E-3	-128.930E-12	664.449E-3	9.59546E-3
-3.43922E-3	-131.832E-12	700.439E-3	-2.05142E-3	-128.491E-12	672.559E-3	-11.6662E-3
-3.44422E-3	-132.203E-12	702.047E-3	-13.8450E-3	-128.704E-12	678.699E-3	-26.2192E-3
-3.44922E-3	-132.326E-12	679.336E-3	-22.4835E-3	-128.177E-12	688.276E-3	-14.4765E-3
-3.45423E-3	-131.118E-12	663.171E-3	-29.6696E-3	-129.045E-12	697.042E-3	-25.9078E-3
-3.45923E-3	-129.995E-12	673.083E-3	-33.1630E-3	-129.609E-12	689.162E-3	-46.7223E-3
-3.46423E-3	-130.824E-12	663.047E-3	-36.7587E-3	-129.973E-12	679.430E-3	-49.0093E-3
-3.46923E-3	-130.478E-12	634.057E-3	-24.2448E-3	-131.388E-12	688.609E-3	-38.1873E-3
-3.47424E-3	-129.910E-12	626.011E-3	2.63308E-3	-132.314E-12	687.786E-3	-18.8285E-3
-3.47924E-3	-128.722E-12	640.128E-3	5.16383E-3	-133.809E-12	685.914E-3	262.704E-6
-3.48424E-3	-129.636E-12	668.839E-3	-9.30056E-3	-135.083E-12	694.890E-3	-104.614E-6
-3.48924E-3	-130.806E-12	674.705E-3	-20.4004E-3	-136.387E-12	681.942E-3	-11.4552E-3
-3.49425E-3	-132.087E-12	642.364E-3	-29.4224E-3	-136.348E-12	672.733E-3	-13.2880E-3
-3.49925E-3	-132.836E-12	622.527E-3	-24.3146E-3	-136.104E-12	698.917E-3	-20.6565E-3
-3.50425E-3	-133.383E-12	628.348E-3	-16.4299E-3	-137.175E-12	718.111E-3	-29.2226E-3
-3.50925E-3	-134.912E-12	639.272E-3	-24.3620E-3	-137.319E-12	696.086E-3	-33.0823E-3
-3.51426E-3	-136.229E-12	668.943E-3	-34.1461E-3	-137.382E-12	679.109E-3	-42.0384E-3
-3.51926E-3	-136.583E-12	698.339E-3	-27.2829E-3	-135.839E-12	678.462E-3	-50.5683E-3
-3.52426E-3	-137.249E-12	697.726E-3	-11.4339E-3	-136.035E-12	667.681E-3	-38.1239E-3
-3.52926E-3	-138.466E-12	695.808E-3	-7.78893E-3	-134.935E-12	665.609E-3	-14.9865E-3
-3.53427E-3	-138.919E-12	693.538E-3	-14.6373E-3	-135.063E-12	664.691E-3	-15.0843E-3
-3.53927E-3	-138.523E-12	692.254E-3	-18.1620E-3	-133.698E-12	651.726E-3	-18.2775E-3
-3.54427E-3	-138.336E-12	698.279E-3	-25.4133E-3	-133.250E-12	646.234E-3	-11.1792E-3
-3.54927E-3	-137.895E-12	689.165E-3	-23.5871E-3	-132.499E-12	656.320E-3	-22.6146E-3
-3.55428E-3	-137.252E-12	678.224E-3	118.330E-6	-132.844E-12	650.929E-3	-38.5194E-3
-3.55928E-3	-136.894E-12	677.898E-3	7.61468E-3	-133.058E-12	642.761E-3	-26.7115E-3
-3.56428E-3	-135.703E-12	679.565E-3	6.32685E-3	-133.450E-12	656.176E-3	-25.2451E-3
-3.56928E-3	-135.190E-12	677.629E-3	-651.333E-6	-134.506E-12	660.956E-3	-34.7594E-3
-3.57429E-3	-134.602E-12	665.736E-3	-26.1604E-3	-134.786E-12	679.065E-3	-15.9561E-3
-3.57929E-3	-134.749E-12	658.905E-3	-21.9087E-3	-135.521E-12	705.618E-3	-2.12490E-3
-3.58429E-3	-134.827E-12	664.689E-3	1.32917E-3	-137.009E-12	684.612E-3	-8.29229E-3
-3.58929E-3	-134.466E-12	664.310E-3	1.74733E-3	-138.161E-12	657.274E-3	-9.05330E-3
-3.59430E-3	-134.890E-12	659.066E-3	-8.35970E-3	-138.802E-12	657.590E-3	-6.23798E-3
-3.59930E-3	-135.526E-12	658.350E-3	-25.1577E-3	-138.964E-12	661.790E-3	-92.8785E-6
-3.60430E-3	-136.997E-12	670.102E-3	-37.7834E-3	-139.422E-12	666.249E-3	5.75738E-3
-3.60930E-3	-137.413E-12	686.930E-3	-29.1121E-3	-140.095E-12	663.402E-3	2.97651E-3
-3.61431E-3	-137.960E-12	696.482E-3	-16.4028E-3	-140.345E-12	657.287E-3	854.310E-6
-3.61931E-3	-138.991E-12	693.634E-3	-18.8997E-3	-139.547E-12	658.617E-3	2.10347E-3
-3.62431E-3	-141.069E-12	690.551E-3	-27.6324E-3	-138.905E-12	668.963E-3	-5.51666E-3
-3.62931E-3	-141.684E-12	684.757E-3	-25.7238E-3	-139.188E-12	666.950E-3	-11.2125E-3
-3.63432E-3	-142.110E-12	668.251E-3	-23.8689E-3	-139.573E-12	668.627E-3	4.02417E-3
-3.63932E-3	-143.400E-12	681.318E-3	-22.1029E-3	-138.373E-12	689.284E-3	2.23402E-3
-3.64432E-3	-143.850E-12	707.185E-3	-9.58688E-3	-137.421E-12	683.328E-3	-30.7411E-3
-3.64932E-3	-143.714E-12	701.450E-3	2.87688E-3	-137.728E-12	655.472E-3	-22.6428E-3
-3.65433E-3	-141.933E-12	684.129E-3	3.89594E-3	-137.971E-12	656.485E-3	17.2454E-3
-3.65933E-3	-142.260E-12	684.201E-3	-1.00222E-3	-137.131E-12	674.656E-3	13.9425E-3
-3.66433E-3	-141.185E-12	697.461E-3	-16.4528E-3	-137.517E-12	664.665E-3	265.119E-6
-3.66933E-3	-140.619E-12	692.141E-3	-43.8302E-3	-138.027E-12	639.842E-3	7.21922E-3
-3.67434E-3	-138.887E-12	682.829E-3	-50.5503E-3	-139.273E-12	634.603E-3	-2.58923E-3
-3.67934E-3	-138.502E-12	683.832E-3	-40.8238E-3	-139.655E-12	657.783E-3	-9.06805E-3
-3.68434E-3	-137.949E-12	670.658E-3	-38.8399E-3	-141.131E-12	684.965E-3	7.44114E-3
-3.68934E-3	-137.433E-12	655.528E-3	-43.6203E-3	-141.537E-12	687.114E-3	3.06947E-3
-3.69435E-3	-137.724E-12	650.956E-3	-41.2543E-3	-142.774E-12	661.048E-3	-12.7547E-3
-3.69935E-3	-137.605E-12	638.977E-3	-22.5057E-3	-143.877E-12	631.496E-3	-6.47800E-3
-3.70435E-3	-138.163E-12	632.441E-3	-6.44697E-3	-144.947E-12	636.925E-3	-2.45375E-3
-3.70935E-3	-138.430E-12	628.648E-3	-4.25339E-3	-144.737E-12	675.062E-3	-14.7106E-3
-3.71436E-3	-141.008E-12	625.364E-3	-5.81757E-3	-145.388E-12	700.830E-3	-37.9606E-3
-3.71936E-3	-142.497E-12	640.072E-3	-3.51614E-3	-145.503E-12	703.778E-3	-54.4454E-3
-3.72436E-3	-143.721E-12	653.539E-3	-2.92367E-3	-145.420E-12	691.871E-3	-42.2101E-3
-3.72936E-3	-145.159E-12	647.550E-3	-11.0461E-3	-146.223E-12	676.927E-3	-19.1367E-3
-3.73437E-3	-147.051E-12	646.451E-3	-16.8211E-3	-145.169E-12	676.334E-3	-19.0567E-3
-3.73937E-3	-148.632E-12	668.297E-3	-23.6218E-3	-143.894E-12	661.909E-3	-46.8326E-3
-3.74437E-3	-148.329E-12	690.188E-3	-32.2124E-3	-144.662E-12	643.401E-3	-45.8798E-3
-3.74937E-3	-148.152E-12	699.491E-3	-20.1712E-3	-144.483E-12	659.859E-3	-19.4881E-3
-3.75438E-3	-148.119E-12	701.593E-3	-5.63370E-3	-143.415E-12	681.311E-3	-24.3031E-3
-3.75938E-3	-148.003E-12	698.157E-3	-7.64988E-3	-143.681E-12	681.490E-3	-23.5957E-3
-3.76438E-3	-146.364E-12	697.576E-3	-15.1895E-3	-144.079E-12	660.868E-3	-14.6514E-3
-3.76938E-3	-145.785E-12	691.409E-3	-23.9752E-3	-143.837E-12	639.101E-3	-32.4609E-3
-3.77439E-3	-143.752E-12	659.947E-3	-21.8347E-3	-144.229E-12	639.565E-3	-42.3528E-3
-3.77939E-3	-143.157E-12	626.296E-3	-8.54834E-3	-144.783E-12	655.445E-3	-25.3411E-3
-3.78439E-3	-142.922E-12	629.156E-3	6.53473E-3	-145.148E-12	671.443E-3	-12.5287E-3
-3.78939E-3	-142.300E-12	650.825E-3	18.8797E-3	-145.907E-12	682.397E-3	-14.2283E-3
-3.79440E-3	-142.075E-12	648.675E-3	24.1037E-3	-146.773E-12	670.952E-3	-10.5547E-3
-3.79940E-3	-142.298E-12	638.215E-3	1.49077E-3	-147.394E-12	652.120E-3	-5.67408E-3
-3.80440E-3	-143.413E-12	640.181E-3	-35.4889E-3	-147.693E-12	667.258E-3	-1.48888E-3
-3.80940E-3	-144.051E-12	640.246E-3	-31.5806E-3	-148.224E-12	705.925E-3	17.2060E-3
-3.81441E-3	-145.731E-12	634.706E-3	-10.8648E-3	-149.299E-12	720.359E-3	27.0760E-3
-3.81941E-3	-146.942E-12	638.098E-3	-8.90918E-3	-149.316E-12	705.894E-3	15.6553E-3
-3.82441E-3	-148.226E-12	661.259E-3	-1.67009E-3	-149.861E-12	697.620E-3	-3.82314E-3
-3.82941E-3	-149.776E-12	663.730E-3	959.072E-6	-149.303E-12	684.525E-3	-27.3704E-3
-3.83442E-3	-150.970E-12	645.228E-3	-15.6995E-3	-148.767E-12	666.864E-3	-18.5689E-3
-3.83942E-3	-152.569E-12	648.412E-3	-41.0100E-3	-148.546E-12	663.897E-3	15.1752E-3
-3.84442E-3	-152.836E-12	644.676E-3	-54.1697E-3	-148.727E-12	668.109E-3	13.6744E-3
-3.84942E-3	-153.315E-12	636.122E-3	-35.7473E-3	-147.444E-12	658.573E-3	-5.19533E-3
-3.85443E-3	-153.771E-12	645.167E-3	-14.8726E-3	-147.032E-12	643.825E-3	-14.8220E-3
-3.85943E-3	-153.221E-12	645.076E-3	-7.94210E-3	-146.540E-12	650.666E-3	-26.8238E-3
-3.86443E-3	-151.717E-12	643.416E-3	2.85249E-3	-146.429E-12	657.928E-3	-33.9845E-3
-3.86943E-3	-150.546E-12	657.843E-3	3.34860E-3	-145.579E-12	654.855E-3	-33.0741E-3
-3.87444E-3	-150.714E-12	672.639E-3	-11.5656E-3	-145.717E-12	660.252E-3	-32.7653E-3
-3.87944E-3	-149.686E-12	660.382E-3	-14.4151E-3	-145.951E-12	662.928E-3	-24.6498E-3
-3.88444E-3	-148.081E-12	635.706E-3	-9.36445E-3	-146.559E-12	646.437E-3	-6.65513E-3
-3.88944E-3	-148.078E-12	646.087E-3	-5.31491E-3	-147.365E-12	631.884E-3	-3.56430E-3
-3.89445E-3	-147.759E-12	675.010E-3	-16.0816E-3	-148.563E-12	629.900E-3	-12.9666E-3
-3.89945E-3	-147.354E-12	675.197E-3	-46.9446E-3	-149.464E-12	637.841E-3	-6.40600E-3
-3.90445E-3	-147.748E-12	654.491E-3	-60.5566E-3	-150.790E-12	664.551E-3	10.0215E-3
-3.90945E-3	-148.331E-12	640.320E-3	-41.2088E-3	-152.311E-12	681.547E-3	-1.11330E-3
-3.91446E-3	-148.567E-12	630.004E-3	-27.6442E-3	-153.292E-12	692.363E-3	-17.4033E-3
-3.91946E-3	-149.407E-12	629.605E-3	-37.8451E-3	-154.570E-12	707.477E-3	-25.8874E-3
-3.92446E-3	-151.236E-12	636.414E-3	-29.7952E-3	-154.584E-12	686.177E-3	-34.0780E-3
-3.92946E-3	-152.168E-12	628.400E-3	-8.22491E-3	-155.943E-12	656.685E-3	-32.1197E-3
-3.93447E-3	-153.194E-12	633.327E-3	3.66552E-3	-155.745E-12	663.255E-3	-36.2069E-3
-3.93947E-3	-154.391E-12	649.476E-3	11.0127E-3	-155.052E-12	676.136E-3	-25.8538E-3
-3.94447E-3	-155.754E-12	653.483E-3	9.35864E-3	-154.820E-12	671.668E-3	-10.9820E-3
-3.94947E-3	-156.496E-12	668.024E-3	6.56602E-3	-154.796E-12	665.782E-3	-16.7374E-3
-3.95448E-3	-157.207E-12	680.005E-3	13.0459E-3	-153.638E-12	658.761E-3	-29.1254E-3
-3.95948E-3	-157.253E-12	675.694E-3	6.36794E-3	-152.606E-12	653.123E-3	-27.0472E-3
-3.96448E-3	-157.238E-12	675.529E-3	-13.0061E-3	-152.353E-12	658.818E-3	-21.9838E-3
-3.96948E-3	-156.578E-12	660.046E-3	-18.8547E-3	-151.865E-12	657.665E-3	-45.6863E-3
-3.97449E-3	-155.748E-12	648.291E-3	-8.51866E-3	-152.031E-12	648.140E-3	-65.3631E-3
-3.97949E-3	-154.757E-12	657.876E-3	7.26780E-3	-151.772E-12	660.226E-3	-58.3895E-3
-3.98449E-3	-154.397E-12	656.037E-3	3.44768E-3	-152.232E-12	673.790E-3	-47.9027E-3
-3.98949E-3	-153.818E-12	663.915E-3	-13.8883E-3	-152.206E-12	659.474E-3	-38.2216E-3
-3.99450E-3	-152.644E-12	672.561E-3	-13.3302E-3	-153.520E-12	653.639E-3	-25.6416E-3
-3.99950E-3	-152.033E-12	655.652E-3	2.85722E-3	-154.750E-12	649.801E-3	-10.1258E-3
-4.00450E-3	-152.734E-12	639.043E-3	6.49010E-3	-156.095E-12	635.428E-3	6.79764E-3
-4.00950E-3	-152.270E-12	632.473E-3	12.4417E-3	-157.078E-12	642.589E-3	11.2045E-3
-4.01451E-3	-153.017E-12	632.815E-3	17.1033E-3	-158.780E-12	653.317E-3	-12.6008E-3
-4.01951E-3	-154.017E-12	649.184E-3	-9.04602E-3	-160.771E-12	663.102E-3	-35.9792E-3
-4.02451E-3	-154.519E-12	666.553E-3	-25.0878E-3	-160.235E-12	692.106E-3	-38.6046E-3
-4.02951E-3	-155.028E-12	669.797E-3	-22.7996E-3	-160.160E-12	703.363E-3	-33.1898E-3
-4.03452E-3	-155.909E-12	661.003E-3	-17.1259E-3	-160.903E-12	692.802E-3	-21.8161E-3
-4.03952E-3	-156.989E-12	650.236E-3	-5.88735E-3	-160.680E-12	679.153E-3	-22.2685E-3
-4.04452E-3	-158.572E-12	653.710E-3	-6.22206E-3	-159.479E-12	669.098E-3	-34.9016E-3
-4.04952E-3	-159.941E-12	664.312E-3	-9.62661E-3	-159.056E-12	664.453E-3	-26.8690E-3
-4.05453E-3	-159.753E-12	673.285E-3	-6.71526E-3	-158.459E-12	639.840E-3	-15.8355E-3
-4.05953E-3	-160.694E-12	671.065E-3	3.04160E-3	-157.614E-12	621.388E-3	-29.5598E-3
-4.06453E-3	-161.434E-12	677.841E-3	7.82757E-3	-156.737E-12	640.402E-3	-39.7149E-3
-4.06953E-3	-161.720E-12	693.461E-3	-3.20626E-3	-156.527E-12	669.250E-3	-31.5174E-3
-4.07454E-3	-160.580E-12	690.566E-3	-7.24563E-3	-156.395E-12	681.179E-3	-17.0106E-3
-4.07954E-3	-160.878E-12	677.830E-3	-2.66931E-3	-156.033E-12	665.054E-3	-11.8642E-3
-4.08454E-3	-160.788E-12	671.519E-3	-19.4947E-3	-157.251E-12	642.656E-3	-4.94016E-3
-4.08954E-3	-159.378E-12	680.814E-3	-27.1210E-3	-157.879E-12	646.351E-3	7.63037E-3
-4.09455E-3	-158.970E-12	688.837E-3	-22.4253E-3	-158.396E-12	663.692E-3	1.41561E-3
-4.09955E-3	-158.135E-12	669.560E-3	-50.9679E-3	-159.261E-12	678.256E-3	-20.2663E-3
-4.10455E-3	-157.356E-12	642.229E-3	-63.1177E-3	-160.228E-12	696.606E-3	-37.3314E-3
-4.10955E-3	-156.762E-12	631.978E-3	-46.7289E-3	-161.466E-12	700.379E-3	-31.6784E-3
-4.11456E-3	-156.230E-12	643.401E-3	-37.8433E-3	-161.727E-12	687.921E-3	-23.2671E-3
-4.11956E-3	-156.603E-12	664.792E-3	-20.1275E-3	-162.299E-12	692.288E-3	-18.1825E-3
-4.12456E-3	-156.817E-12	659.329E-3	-2.42277E-3	-162.961E-12	691.037E-3	2.21497E-3
-4.12956E-3	-158.002E-12	637.259E-3	1.64839E-3	-163.846E-12	671.810E-3	20.4555E-3
-4.13457E-3	-158.204E-12	621.283E-3	12.9047E-3	-163.275E-12	670.784E-3	12.6565E-3
-4.13957E-3	-159.411E-12	620.591E-3	19.1754E-3	-162.583E-12	676.069E-3	-4.97212E-3
-4.14457E-3	-160.689E-12	629.068E-3	1.27935E-3	-162.555E-12	662.147E-3	-12.3417E-3
-4.14957E-3	-163.314E-12	636.697E-3	-12.3333E-3	-162.479E-12	644.484E-3	-28.6164E-3
-4.15458E-3	-163.772E-12	648.581E-3	-21.9993E-3	-162.321E-12	633.511E-3	-39.8488E-3
-4.15958E-3	-165.678E-12	649.735E-3	-22.6744E-3	-160.789E-12	624.026E-3	-28.0823E-3
-4.16458E-3	-166.229E-12	641.837E-3	-5.84065E-3	-159.715E-12	615.933E-3	-4.17839E-3
-4.16958E-3	-166.288E-12	638.338E-3	-3.94157E-3	-159.163E-12	612.733E-3	-7.68637E-3
-4.17459E-3	-166.969E-12	639.349E-3	-26.9572E-3	-160.005E-12	620.694E-3	-51.7536E-3
-4.17959E-3	-167.540E-12	645.170E-3	-57.1116E-3	-160.115E-12	621.619E-3	-47.0398E-3
-4.18459E-3	-167.259E-12	654.515E-3	-68.5947E-3	-159.127E-12	629.342E-3	-13.3579E-6
-4.18959E-3	-165.873E-12	659.758E-3	-61.6951E-3	-160.382E-12	663.739E-3	15.6907E-3
-4.19460E-3	-165.687E-12	669.940E-3	-42.7213E-3	-160.800E-12	688.878E-3	21.7460E-3
-4.19960E-3	-165.319E-12	669.822E-3	-28.5077E-3	-162.292E-12	694.685E-3	38.6995E-3
-4.20460E-3	-163.840E-12	659.389E-3	-28.3645E-3	-162.529E-12	693.954E-3	32.1598E-3
-4.20960E-3	-162.176E-12	642.018E-3	-6.25918E-3	-163.208E-12	700.399E-3	11.8018E-3
-4.21461E-3	-161.759E-12	608.586E-3	15.3308E-3	-163.126E-12	702.662E-3	5.20264E-3
-4.21961E-3	-162.459E-12	609.369E-3	1.97950E-3	-165.384E-12	684.290E-3	-12.6279E-3
-4.22461E-3	-161.762E-12	635.992E-3	-16.3827E-3	-166.504E-12	674.016E-3	-31.9341E-3
-4.22961E-3	-161.372E-12	660.060E-3	-17.4907E-3	-166.637E-12	676.111E-3	-27.8077E-3
-4.23462E-3	-161.885E-12	671.323E-3	-4.84647E-3	-168.008E-12	672.042E-3	-10.6934E-3
-4.23962E-3	-163.714E-12	652.848E-3	-2.63423E-3	-167.868E-12	675.102E-3	-11.7363E-3
-4.24462E-3	-164.929E-12	634.353E-3	-19.2299E-3	-168.436E-12	671.250E-3	-21.1522E-3
-4.24962E-3	-166.911E-12	635.956E-3	-22.1302E-3	-167.856E-12	654.875E-3	-7.70315E-3
-4.25463E-3	-168.092E-12	639.456E-3	-41.5365E-3	-168.021E-12	659.636E-3	5.29609E-3
-4.25963E-3	-170.428E-12	643.391E-3	-66.3975E-3	-167.385E-12	676.267E-3	4.76499E-3
-4.26463E-3	-172.394E-12	651.870E-3	-31.0948E-3	-167.247E-12	668.170E-3	-7.31560E-3
-4.26963E-3	-173.718E-12	664.073E-3	15.0461E-3	-166.623E-12	638.520E-3	-17.2247E-3
-4.27464E-3	-173.982E-12	677.129E-3	17.7957E-3	-165.741E-12	628.749E-3	-13.1926E-3
-4.27964E-3	-174.763E-12	676.324E-3	443.028E-6	-165.183E-12	656.456E-3	-22.0060E-3
-4.28464E-3	-175.101E-12	663.651E-3	-16.1475E-3	-164.205E-12	682.840E-3	-34.8896E-3
-4.28964E-3	-174.133E-12	642.105E-3	-24.6181E-3	-164.401E-12	673.202E-3	-23.7849E-3
-4.29465E-3	-172.835E-12	638.805E-3	-9.17056E-3	-164.551E-12	655.469E-3	-5.63292E-3
-4.29965E-3	-171.751E-12	657.343E-3	17.9336E-3	-164.753E-12	646.342E-3	-14.3678E-3
-4.30465E-3	-170.461E-12	647.139E-3	9.68216E-3	-164.839E-12	641.641E-3	-27.5905E-3
-4.30965E-3	-169.340E-12	626.545E-3	-18.6520E-3	-166.724E-12	657.669E-3	-28.8291E-3
-4.31466E-3	-167.967E-12	630.987E-3	-20.6950E-3	-167.991E-12	662.062E-3	-32.5718E-3
-4.31966E-3	-167.477E-12	646.099E-3	-24.3563E-3	-169.154E-12	645.336E-3	-30.2430E-3
-4.32466E-3	-167.358E-12	657.275E-3	-28.6101E-3	-170.440E-12	661.119E-3	-33.9089E-3
-4.32966E-3	-166.996E-12	670.239E-3	-23.2399E-3	-172.156E-12	702.609E-3	-36.5137E-3
-4.33467E-3	-167.523E-12	672.834E-3	-20.2100E-3	-173.294E-12	725.646E-3	-17.1912E-3
-4.33967E-3	-168.105E-12	656.424E-3	-14.8347E-3	-174.688E-12	706.676E-3	-2.44124E-3
-4.34467E-3	-167.517E-12	645.836E-3	-35.0763E-3	-174.564E-12	667.819E-3	-13.8321E-3
-4.34967E-3	-169.218E-12	643.852E-3	-54.8051E-3	-175.598E-12	648.594E-3	-23.3981E-3
-4.35468E-3	-171.285E-12	641.678E-3	-31.8490E-3	-174.892E-12	641.225E-3	-15.8065E-3
-4.35968E-3	-172.493E-12	635.617E-3	-21.8595E-3	-174.812E-12	639.158E-3	-9.29224E-3
-4.36468E-3	-172.617E-12	647.155E-3	-31.2291E-3	-173.519E-12	637.739E-3	-5.00779E-3
-4.36968E-3	-174.631E-12	666.612E-3	-24.6432E-3	-173.322E-12	626.210E-3	-6.73285E-3
-4.37469E-3	-175.530E-12	652.525E-3	-25.0298E-3	-171.642E-12	631.801E-3	-30.3339E-3
-4.37969E-3	-175.843E-12	645.666E-3	-38.7681E-3	-170.073E-12	655.484E-3	-40.1055E-3
-4.38469E-3	-174.662E-12	661.462E-3	-30.2729E-3	-169.612E-12	661.823E-3	-12.8726E-3
-4.38969E-3	-174.650E-12	657.953E-3	-11.5507E-3	-169.342E-12	666.642E-3	-1.39028E-3
-4.39470E-3	-174.740E-12	634.114E-3	-23.8924E-3	-169.691E-12	685.561E-3	-9.56066E-3
-4.39970E-3	-173.037E-12	633.456E-3	-27.4426E-3	-169.546E-12	698.187E-3	-11.0666E-3
-4.40470E-3	-172.543E-12	647.016E-3	-11.4835E-3	-171.131E-12	698.172E-3	-11.5580E-3
-4.40970E-3	-171.501E-12	624.673E-3	-24.6528E-3	-170.741E-12	677.998E-3	-745.579E-6
-4.41471E-3	-170.592E-12	615.817E-3	-33.2458E-3	-171.783E-12	639.799E-3	16.0525E-3
-4.41971E-3	-170.167E-12	644.703E-3	-4.36612E-3	-173.199E-12	641.318E-3	18.3414E-3
-4.42471E-3	-169.877E-12	676.058E-3	11.4118E-3	-174.564E-12	661.564E-3	-2.41518E-3
-4.42971E-3	-169.520E-12	699.727E-3	7.76953E-3	-174.852E-12	645.363E-3	-31.1630E-3
-4.43472E-3	-169.197E-12	680.805E-3	-6.48974E-3	-176.112E-12	654.183E-3	-28.3351E-3
-4.43972E-3	-169.445E-12	660.309E-3	-34.3216E-3	-177.945E-12	689.202E-3	-366.080E-6
-4.44472E-3	-170.498E-12	670.017E-3	-39.1021E-3	-177.228E-12	691.650E-3	7.76188E-3
-4.44972E-3	-172.206E-12	655.648E-3	-31.5966E-3	-177.813E-12	679.550E-3	-1.97529E-3
-4.45473E-3	-172.231E-12	627.750E-3	-39.7459E-3	-177.875E-12	677.688E-3	-24.3304E-3
-4.45973E-3	-173.743E-12	617.641E-3	-37.3411E-3	-178.124E-12	684.140E-3	-38.3229E-3
-4.46473E-3	-175.373E-12	635.436E-3	-23.3282E-3	-176.819E-12	688.603E-3	-15.2905E-3
-4.46973E-3	-178.133E-12	659.940E-3	-26.2687E-3	-175.449E-12	674.746E-3	-4.27957E-3
-4.47474E-3	-178.301E-12	673.635E-3	-24.3416E-3	-174.814E-12	645.979E-3	-16.5739E-3
-4.47974E-3	-179.228E-12	683.850E-3	417.925E-6	-174.565E-12	646.979E-3	-34.5411E-3
-4.48474E-3	-180.029E-12	678.884E-3	11.5179E-3	-173.507E-12	672.260E-3	-53.1003E-3
-4.48974E-3	-181.290E-12	677.979E-3	2.00756E-3	-172.464E-12	660.252E-3	-49.7920E-3
-4.49475E-3	-182.314E-12	684.091E-3	-15.6809E-3	-172.609E-12	653.584E-3	-38.7633E-3
-4.49975E-3	-182.168E-12	685.283E-3	-35.2286E-3	-172.775E-12	671.087E-3	-38.7582E-3
-4.50475E-3	-181.583E-12	685.747E-3	-39.6724E-3	-173.768E-12	671.524E-3	-36.6622E-3
-4.50975E-3	-181.682E-12	660.124E-3	-39.9457E-3	-175.670E-12	678.047E-3	-19.4001E-3
-4.51476E-3	-182.070E-12	633.955E-3	-40.8330E-3	-176.417E-12	700.878E-3	9.51585E-3
-4.51976E-3	-180.992E-12	658.350E-3	-31.2987E-3	-176.925E-12	705.502E-3	20.4572E-3
-4.52476E-3	-179.412E-12	704.477E-3	-22.0354E-3	-179.513E-12	677.853E-3	-1.26385E-3
-4.52976E-3	-178.318E-12	702.909E-3	-23.6211E-3	-182.089E-12	648.242E-3	-19.7951E-3
-4.53477E-3	-177.431E-12	654.057E-3	-21.8097E-3	-182.744E-12	649.509E-3	-20.3919E-3
-4.53977E-3	-177.291E-12	620.633E-3	-5.91331E-3	-182.581E-12	670.394E-3	-15.6492E-3
-4.54477E-3	-175.778E-12	624.178E-3	8.59593E-3	-183.788E-12	677.493E-3	-13.6897E-3
-4.54977E-3	-175.753E-12	637.478E-3	4.34106E-3	-185.239E-12	680.211E-3	-20.1283E-3
-4.55478E-3	-176.599E-12	643.173E-3	-6.91318E-3	-184.629E-12	686.519E-3	-25.4425E-3
-4.55978E-3	-178.031E-12	639.461E-3	-11.5384E-3	-183.624E-12	673.760E-3	-10.2443E-3
-4.56478E-3	-178.536E-12	639.987E-3	-13.9344E-3	-183.463E-12	648.764E-3	8.92808E-3
-4.56978E-3	-179.149E-12	643.511E-3	-2.11963E-3	-183.431E-12	621.760E-3	2.59217E-3
-4.57479E-3	-180.143E-12	624.828E-3	6.45581E-3	-182.425E-12	619.838E-3	-19.5905E-3
-4.57979E-3	-182.927E-12	624.239E-3	-12.1462E-3	-180.440E-12	636.435E-3	-33.3926E-3
-4.58479E-3	-184.673E-12	652.477E-3	-25.8119E-3	-179.824E-12	627.182E-3	-26.0080E-3
-4.58979E-3	-184.968E-12	663.817E-3	-28.0560E-3	-179.256E-12	610.338E-3	-18.2028E-3
-4.59480E-3	-185.888E-12	669.745E-3	-37.5902E-3	-178.661E-12	618.691E-3	-26.4478E-3
-4.59980E-3	-187.495E-12	668.718E-3	-48.2043E-3	-177.595E-12	653.336E-3	-18.7369E-3
-4.60480E-3	-188.009E-12	655.859E-3	-50.7544E-3	-177.714E-12	667.350E-3	19.7442E-3
-4.60980E-3	-187.423E-12	648.735E-3	-36.5297E-3	-178.700E-12	654.936E-3	43.6571E-3
-4.61481E-3	-186.951E-12	657.412E-3	-23.7938E-3	-179.397E-12	654.513E-3	27.4396E-3
-4.61981E-3	-185.905E-12	685.168E-3	-39.3674E-3	-180.119E-12	675.300E-3	7.17228E-3
-4.62481E-3	-185.683E-12	703.942E-3	-62.1236E-3	-181.610E-12	698.452E-3	-20.3957E-3
-4.62981E-3	-184.108E-12	693.195E-3	-52.4512E-3	-183.114E-12	696.765E-3	-45.4412E-3
-4.63482E-3	-182.619E-12	666.830E-3	-29.8847E-3	-184.194E-12	688.909E-3	-26.9481E-3
-4.63982E-3	-179.653E-12	651.943E-3	-13.0737E-3	-185.270E-12	682.847E-3	-12.2466E-3
-4.64482E-3	-179.578E-12	665.992E-3	-1.79718E-3	-186.207E-12	658.400E-3	-17.9602E-3
-4.64982E-3	-179.118E-12	686.423E-3	44.2587E-6	-187.058E-12	643.961E-3	1.30051E-3
-4.65483E-3	-178.898E-12	675.922E-3	2.50092E-3	-188.497E-12	657.228E-3	29.3419E-3
-4.65983E-3	-178.248E-12	653.923E-3	-10.4939E-3	-188.732E-12	670.840E-3	21.7230E-3
-4.66483E-3	-178.754E-12	634.692E-3	-21.4141E-3	-189.142E-12	681.047E-3	-5.11013E-3
-4.66983E-3	-180.470E-12	596.134E-3	-2.37433E-3	-188.161E-12	692.853E-3	-18.7845E-3
-4.67484E-3	-182.223E-12	596.433E-3	10.5721E-3	-187.495E-12	684.705E-3	-30.5634E-3
-4.67984E-3	-183.842E-12	647.709E-3	4.86487E-3	-186.698E-12	672.685E-3	-30.6404E-3
-4.68484E-3	-185.781E-12	665.647E-3	-6.56926E-3	-186.188E-12	664.207E-3	-13.9867E-3
-4.68984E-3	-187.196E-12	651.739E-3	-9.03284E-3	-184.396E-12	623.373E-3	-18.7413E-3
-4.69485E-3	-189.677E-12	661.322E-3	12.3226E-3	-183.656E-12	598.811E-3	-42.7944E-3
-4.69985E-3	-191.430E-12	686.236E-3	34.0860E-3	-182.552E-12	623.985E-3	-58.5619E-3
-4.70485E-3	-192.078E-12	689.851E-3	27.9326E-3	-182.200E-12	644.372E-3	-65.1379E-3
-4.70985E-3	-191.324E-12	666.757E-3	7.57983E-3	-181.388E-12	649.928E-3	-53.3366E-3
-4.71486E-3	-192.186E-12	627.080E-3	9.43008E-3	-180.588E-12	639.859E-3	-24.9499E-3
-4.71986E-3	-191.217E-12	609.604E-3	22.9932E-3	-180.371E-12	615.554E-3	-5.42834E-3
-4.72486E-3	-190.227E-12	654.006E-3	12.2435E-3	-181.518E-12	624.037E-3	-1.21297E-3
-4.72986E-3	-188.361E-12	701.427E-3	-10.5402E-3	-182.967E-12	653.678E-3	-2.68281E-3
-4.73487E-3	-187.695E-12	694.211E-3	-29.5144E-3	-183.404E-12	643.511E-3	-5.75081E-3
-4.73987E-3	-186.650E-12	679.128E-3	-32.4793E-3	-184.132E-12	617.102E-3	-4.45561E-3
-4.74487E-3	-185.576E-12	686.539E-3	-16.2476E-3	-185.726E-12	637.517E-3	-1.98638E-3
-4.74988E-3	-184.032E-12	670.021E-3	-10.0430E-3	-187.938E-12	670.001E-3	-9.81895E-3
-4.75488E-3	-184.661E-12	651.532E-3	-17.7778E-3	-188.877E-12	659.897E-3	-17.5013E-3
-4.75988E-3	-185.450E-12	651.333E-3	-35.9285E-3	-190.175E-12	642.210E-3	-13.7625E-3
-4.76488E-3	-184.771E-12	632.769E-3	-48.9038E-3	-190.257E-12	642.827E-3	-24.2358E-3
-4.76988E-3	-184.779E-12	616.238E-3	-35.2599E-3	-191.903E-12	637.469E-3	-28.3288E-3
-4.77489E-3	-185.944E-12	614.033E-3	-8.82439E-3	-191.683E-12	616.398E-3	-14.5997E-3
-4.77989E-3	-189.336E-12	621.267E-3	-1.40004E-3	-191.029E-12	608.824E-3	-18.2411E-3
-4.78489E-3	-189.939E-12	645.942E-3	-6.75045E-3	-189.687E-12	621.118E-3	-29.2760E-3
-4.78989E-3	-191.008E-12	661.109E-3	-13.2890E-3	-190.435E-12	625.746E-3	-26.3302E-3
-4.79490E-3	-192.238E-12	646.754E-3	-39.0276E-3	-189.802E-12	610.244E-3	-13.7168E-3
-4.79990E-3	-193.918E-12	645.953E-3	-55.8094E-3	-188.462E-12	590.421E-3	9.14544E-3
-4.80490E-3	-195.176E-12	652.343E-3	-35.4201E-3	-187.627E-12	596.431E-3	34.3545E-3
-4.80990E-3	-195.122E-12	644.684E-3	-13.0667E-3	-187.587E-12	639.402E-3	29.7892E-3
-4.81491E-3	-195.478E-12	648.622E-3	-22.2161E-3	-187.233E-12	691.003E-3	4.90963E-3
-4.81991E-3	-195.130E-12	666.051E-3	-59.9779E-3	-186.585E-12	709.579E-3	-5.85195E-3
-4.82491E-3	-195.975E-12	665.340E-3	-69.3439E-3	-187.232E-12	684.788E-3	-7.26487E-3
-4.82991E-3	-194.394E-12	642.864E-3	-33.3777E-3	-187.404E-12	647.799E-3	-11.6988E-3
-4.83492E-3	-193.702E-12	641.869E-3	-14.4855E-3	-189.677E-12	614.128E-3	10.5366E-3
-4.83992E-3	-192.375E-12	639.575E-3	-9.58828E-3	-191.637E-12	618.922E-3	34.3458E-3
-4.84492E-3	-192.111E-12	631.515E-3	-12.2119E-3	-192.853E-12	641.021E-3	9.50160E-3
-4.84992E-3	-192.146E-12	646.666E-3	-29.9538E-3	-194.149E-12	648.590E-3	-20.5425E-3
-4.85493E-3	-190.742E-12	647.062E-3	-33.6181E-3	-196.751E-12	683.747E-3	-26.5277E-3
-4.85993E-3	-189.388E-12	633.091E-3	-20.8703E-3	-198.698E-12	714.864E-3	-14.4272E-3
-4.86493E-3	-189.221E-12	647.030E-3	-27.4328E-3	-199.668E-12	722.509E-3	12.1273E-3
-4.86993E-3	-191.489E-12	650.115E-3	-44.2694E-3	-199.327E-12	729.078E-3	13.5893E-3
-4.87494E-3	-190.986E-12	613.371E-3	-41.3261E-3	-198.717E-12	717.386E-3	-4.96077E-3
-4.87994E-3	-190.917E-12	617.884E-3	-34.5837E-3	-200.491E-12	678.334E-3	-6.15444E-3
-4.88494E-3	-191.701E-12	647.782E-3	-14.4526E-3	-200.081E-12	662.089E-3	9.46157E-3
-4.88995E-3	-194.250E-12	655.201E-3	3.79864E-3	-196.703E-12	676.608E-3	9.62731E-3
-4.89495E-3	-195.520E-12	671.052E-3	-7.50634E-3	-194.758E-12	674.044E-3	6.37244E-3
-4.89995E-3	-195.591E-12	653.163E-3	-13.8009E-3	-195.702E-12	664.007E-3	2.99154E-3
-4.90495E-3	-195.818E-12	618.038E-3	-21.1098E-3	-193.870E-12	662.919E-3	-19.7435E-3
-4.90995E-3	-196.939E-12	632.390E-3	-33.2421E-3	-192.963E-12	653.682E-3	-34.6507E-3
-4.91496E-3	-199.439E-12	661.191E-3	-26.7106E-3	-192.382E-12	650.820E-3	-22.8866E-3
-4.91996E-3	-199.391E-12	673.449E-3	-17.2069E-3	-192.660E-12	673.336E-3	-5.14615E-3
-4.92496E-3	-198.516E-12	665.268E-3	-17.1787E-3	-192.389E-12	673.354E-3	-7.87518E-3
-4.92996E-3	-198.243E-12	644.972E-3	-16.4312E-3	-193.575E-12	644.864E-3	-27.5784E-3
-4.93497E-3	-197.828E-12	654.057E-3	13.2163E-3	-194.788E-12	645.228E-3	-32.5695E-3
-4.93997E-3	-197.284E-12	666.563E-3	37.5219E-3	-194.975E-12	662.901E-3	-9.54034E-3
-4.94497E-3	-195.733E-12	665.104E-3	15.6729E-3	-196.243E-12	665.389E-3	9.65037E-3
-4.94997E-3	-194.278E-12	680.241E-3	686.672E-6	-198.488E-12	668.882E-3	-5.94587E-3
-4.95498E-3	-193.754E-12	690.078E-3	12.8363E-3	-200.649E-12	670.734E-3	-7.51598E-3
-4.95998E-3	-194.298E-12	689.794E-3	14.7144E-3	-201.470E-12	654.320E-3	41.4196E-3
-4.96498E-3	-192.971E-12	697.790E-3	3.59873E-3	-203.886E-12	654.012E-3	62.7423E-3
-4.96998E-3	-192.345E-12	701.888E-3	-6.87333E-3	-203.997E-12	653.223E-3	24.9390E-3
-4.97499E-3	-192.509E-12	684.159E-3	-11.4783E-3	-204.105E-12	632.998E-3	516.357E-6
-4.97999E-3	-193.514E-12	661.156E-3	-16.3959E-3	-203.980E-12	648.268E-3	-413.680E-6
-4.98499E-3	-193.814E-12	648.526E-3	-29.0247E-3	-202.642E-12	669.437E-3	-20.2241E-3
-4.98999E-3	-194.190E-12	646.395E-3	-19.7034E-3	-201.289E-12	663.103E-3	-36.9614E-3
-4.99500E-3	-196.423E-12	637.771E-3	-7.60525E-3	-200.590E-12	663.146E-3	-35.1623E-3
-5.00000E-3	-198.507E-12	633.869E-3	-29.7217E-3	-199.211E-12	654.075E-3	-40.4655E-3
