Experiment	bias spectroscopy	
Date	19.01.2016 18:23:01	
User		
X (m)	51.0065E-9	
Y (m)	256.558E-9	
Z (m)	-132.644E-9	
Z offset (m)	0E+0	
Settling time (s)	200E-6	
Integration time (s)	5E-3	
Z-Ctrl hold	TRUE	
Final Z (m)	N/A	
Filter type	None	
Order		
Cutoff frq		
Comment01	MnPc/Pb(111)	
Comment02	dz =00pm	
Comment03	7 Sweeps	
Comment04	MagField =0.T	
Comment05	Divider 1:10	
Comment06	Setpoint:5mV,200 pA	
Comment07	Lockin: 50uVrms,5ms,5mV	
Comment08	Gain:9; 912Hz modulation	
Comment09	T=1.06K	
Bias>Bias (V)	5E-3	
Bias>Calibration (V/V)	81.475E-3	
Bias>Offset (V)	1.046E-3	
Bias Spectroscopy>Sweep Start (V)	5E-3	
Bias Spectroscopy>Sweep End (V)	-5E-3	
Bias Spectroscopy>Num Pixel	2000	
Bias Spectroscopy>Z Avg time (s)	500E-3	
Bias Spectroscopy>Z offset (m)	0E+0	
Bias Spectroscopy>1st Settling time (s)	500E-3	
Bias Spectroscopy>Settling time (s)	200E-6	
Bias Spectroscopy>Integration time (s)	5E-3	
Bias Spectroscopy>End Settling time (s)	500E-3	
Bias Spectroscopy>Z control time (s)	500E-3	
Bias Spectroscopy>Max Slew rate (V/s)	Inf	
Bias Spectroscopy>backward sweep	TRUE	
Bias Spectroscopy>Z-controller hold	TRUE	
Bias Spectroscopy>Number of sweeps	7	
Bias Spectroscopy>Channels	Current (A);X% LockIn (V);Y% LockIn (V)	
Bias Spectroscopy>Reset Bias	TRUE	
Bias Spectroscopy>Record final Z	FALSE	
Bias Spectroscopy>Lock-In run	FALSE	
Bias Spectroscopy>Sweep mode	Linear	
Bias Spectroscopy>MultiLine Settings : Segment Start (V), Segment End (V), Settling (s), Integration (s), Steps (xn)	100E-3,3.3E-3,100E-6,10E-3,2500;3.3E-3,-3.3E-3,100E-6,10E-3,10;-3.3E-3,-100E-3,100E-6,10E-3,2500	
Current>Current (A)	200.058E-12	
Current>Calibration (A/V)	999.99900E-12	
Current>Offset (A)	-455.429E-15	
Current>Gain	LN 10^9	
Z-Controller>Z (m)	-132.646E-9	
Z-Controller>Controller name	log Current	
Z-Controller>Controller status	ON	
Z-Controller>Setpoint	200E-12	
Z-Controller>Setpoint unit	A	
Z-Controller>P gain	2.96994E-12	
Z-Controller>I gain	67.0321E-9	
Z-Controller>Time const (s)	44.3062E-6	
Z-Controller>TipLift (m)	0E+0	
Z-Controller>Switch off delay (s)	50E-3	
Current (A)	200.232E-12	
Z (m)	-132.646E-9	

[DATA]
Bias calc (V)	Current (A)	X% LockIn (V)	Y% LockIn (V)	Current [bwd] (A)	X% LockIn [bwd] (V)	Y% LockIn [bwd] (V)
5.00000E-3	200.350E-12	623.573E-3	-9.52798E-3	201.908E-12	606.837E-3	-56.6889E-3
4.99500E-3	200.131E-12	634.595E-3	-37.2736E-3	199.558E-12	615.944E-3	-43.4626E-3
4.98999E-3	200.018E-12	623.174E-3	-34.7770E-3	198.358E-12	650.748E-3	-23.5743E-3
4.98499E-3	199.052E-12	594.323E-3	-1.19520E-3	198.157E-12	660.674E-3	-5.26388E-3
4.97999E-3	198.887E-12	579.645E-3	626.457E-6	197.697E-12	640.003E-3	-7.01154E-3
4.97499E-3	197.756E-12	598.176E-3	-8.13176E-3	196.278E-12	626.016E-3	-26.7384E-3
4.96998E-3	197.570E-12	623.696E-3	-8.08841E-3	197.293E-12	648.044E-3	-20.9358E-3
4.96498E-3	196.738E-12	629.005E-3	-19.2590E-3	197.624E-12	676.628E-3	16.9561E-3
4.95998E-3	196.227E-12	627.787E-3	-30.8147E-3	197.700E-12	679.928E-3	24.6182E-3
4.95498E-3	196.101E-12	651.718E-3	-46.9566E-3	198.441E-12	666.481E-3	26.4538E-3
4.94997E-3	196.067E-12	687.019E-3	-73.8708E-3	200.813E-12	653.484E-3	19.7974E-3
4.94497E-3	195.660E-12	679.977E-3	-63.5157E-3	200.140E-12	651.710E-3	-26.3757E-3
4.93997E-3	195.572E-12	627.478E-3	-34.5989E-3	201.409E-12	640.958E-3	-34.9473E-3
4.93497E-3	195.574E-12	584.140E-3	-10.0985E-3	202.222E-12	648.361E-3	15.7237E-3
4.92996E-3	195.321E-12	580.127E-3	31.9663E-3	203.437E-12	662.899E-3	56.8234E-3
4.92496E-3	195.771E-12	605.147E-3	29.9484E-3	202.413E-12	657.758E-3	56.9356E-3
4.91996E-3	196.054E-12	651.010E-3	-36.1630E-3	201.814E-12	654.811E-3	15.5591E-3
4.91496E-3	196.567E-12	672.040E-3	-72.9190E-3	201.015E-12	644.811E-3	-39.4235E-3
4.90995E-3	197.071E-12	676.012E-3	-48.5366E-3	200.165E-12	656.749E-3	-59.1910E-3
4.90495E-3	197.127E-12	681.939E-3	-11.1647E-3	196.866E-12	683.013E-3	-54.6296E-3
4.89995E-3	196.492E-12	670.843E-3	22.6671E-3	195.817E-12	695.239E-3	-36.0324E-3
4.89495E-3	196.233E-12	650.406E-3	29.8308E-3	194.838E-12	689.323E-3	-18.0692E-3
4.88995E-3	196.211E-12	634.259E-3	8.74284E-3	192.745E-12	654.507E-3	-15.2386E-3
4.88494E-3	195.441E-12	650.343E-3	-7.43204E-3	191.528E-12	631.709E-3	-3.25147E-3
4.87994E-3	194.943E-12	667.307E-3	1.31806E-3	192.166E-12	622.610E-3	4.83703E-3
4.87494E-3	195.042E-12	653.753E-3	-1.06124E-3	191.432E-12	617.102E-3	3.34299E-3
4.86993E-3	195.192E-12	650.067E-3	-25.2680E-3	190.782E-12	638.853E-3	2.76926E-3
4.86493E-3	195.634E-12	647.559E-3	-23.3598E-3	190.352E-12	673.223E-3	-20.0370E-3
4.85993E-3	195.287E-12	617.827E-3	-15.2044E-3	191.624E-12	674.292E-3	-42.7940E-3
4.85493E-3	194.150E-12	621.013E-3	-10.5816E-3	191.918E-12	651.877E-3	-33.4490E-3
4.84992E-3	192.960E-12	654.070E-3	4.00113E-3	192.831E-12	670.598E-3	-20.4675E-3
4.84492E-3	193.425E-12	645.984E-3	4.02968E-3	194.528E-12	718.397E-3	-6.09844E-3
4.83992E-3	191.983E-12	609.180E-3	-7.22852E-3	195.034E-12	725.328E-3	5.81928E-3
4.83492E-3	191.255E-12	583.844E-3	9.59193E-3	195.305E-12	690.593E-3	-6.26369E-3
4.82991E-3	191.899E-12	600.211E-3	29.0312E-3	196.125E-12	659.743E-3	-10.7643E-3
4.82491E-3	192.523E-12	651.180E-3	5.93158E-3	196.191E-12	643.632E-3	9.17895E-3
4.81991E-3	191.502E-12	686.930E-3	-7.40629E-3	195.347E-12	634.272E-3	16.4615E-3
4.81491E-3	191.754E-12	681.127E-3	11.7427E-3	194.277E-12	635.604E-3	944.763E-6
4.80990E-3	192.422E-12	660.633E-3	13.4872E-3	192.725E-12	637.041E-3	106.777E-6
4.80490E-3	192.160E-12	646.652E-3	17.6299E-3	191.710E-12	639.453E-3	9.92644E-3
4.79990E-3	192.230E-12	642.565E-3	31.2005E-3	191.038E-12	640.041E-3	2.73158E-3
4.79490E-3	192.273E-12	660.923E-3	31.9467E-3	189.525E-12	635.184E-3	1.52285E-3
4.78989E-3	192.725E-12	686.373E-3	35.2656E-3	188.097E-12	625.538E-3	-6.29198E-3
4.78489E-3	192.269E-12	671.984E-3	11.1223E-3	188.264E-12	614.651E-3	-32.2074E-3
4.77989E-3	191.916E-12	637.543E-3	-12.8870E-3	187.902E-12	635.104E-3	-33.6202E-3
4.77489E-3	192.380E-12	641.400E-3	19.9925E-3	186.339E-12	659.364E-3	-30.4357E-3
4.76988E-3	192.025E-12	667.948E-3	39.4483E-3	186.894E-12	652.192E-3	-26.4965E-3
4.76488E-3	191.145E-12	672.280E-3	-5.67951E-3	187.326E-12	635.323E-3	2.54079E-3
4.75988E-3	191.070E-12	649.330E-3	-42.2380E-3	187.429E-12	645.841E-3	20.5790E-3
4.75488E-3	190.277E-12	636.955E-3	-31.0140E-3	188.048E-12	672.090E-3	10.5669E-3
4.74988E-3	189.306E-12	645.528E-3	-18.1956E-3	189.336E-12	687.341E-3	-8.16111E-3
4.74487E-3	188.184E-12	657.759E-3	-9.01609E-3	189.321E-12	691.240E-3	-28.0631E-3
4.73987E-3	188.322E-12	655.054E-3	3.68347E-3	189.626E-12	678.252E-3	-38.4454E-3
4.73487E-3	187.675E-12	648.651E-3	19.9423E-3	191.525E-12	662.303E-3	-33.8314E-3
4.72986E-3	187.003E-12	647.183E-3	13.0421E-3	191.078E-12	662.767E-3	-36.6596E-3
4.72486E-3	186.685E-12	637.987E-3	-27.9620E-3	190.110E-12	667.607E-3	-39.7335E-3
4.71986E-3	186.412E-12	644.374E-3	-57.5010E-3	190.807E-12	647.568E-3	-11.4253E-3
4.71486E-3	186.856E-12	651.438E-3	-48.3855E-3	190.689E-12	637.444E-3	-876.151E-6
4.70985E-3	186.352E-12	632.675E-3	-17.5491E-3	191.113E-12	662.497E-3	-18.3686E-3
4.70485E-3	186.204E-12	628.909E-3	3.25210E-3	189.773E-12	673.775E-3	-16.7172E-3
4.69985E-3	186.941E-12	656.519E-3	-3.13935E-3	189.954E-12	661.819E-3	4.42481E-3
4.69485E-3	187.875E-12	681.652E-3	-24.3707E-3	189.454E-12	645.762E-3	27.7291E-3
4.68984E-3	188.141E-12	683.118E-3	-26.3576E-3	189.012E-12	642.956E-3	22.3274E-3
4.68484E-3	187.893E-12	671.991E-3	-11.5499E-3	187.360E-12	646.304E-3	-2.38345E-3
4.67984E-3	188.608E-12	672.461E-3	-7.45115E-3	186.444E-12	647.268E-3	-22.2154E-3
4.67484E-3	188.768E-12	680.075E-3	-22.1063E-3	186.377E-12	662.051E-3	-24.1503E-3
4.66983E-3	187.395E-12	684.046E-3	-40.4627E-3	185.791E-12	690.501E-3	-9.53956E-3
4.66483E-3	186.189E-12	674.022E-3	-55.0149E-3	184.133E-12	706.747E-3	-10.7613E-3
4.65983E-3	186.635E-12	664.427E-3	-53.6538E-3	184.470E-12	684.773E-3	-13.6006E-3
4.65483E-3	185.271E-12	690.585E-3	-27.9912E-3	184.516E-12	659.283E-3	5.68572E-3
4.64982E-3	184.110E-12	720.288E-3	9.96228E-3	183.261E-12	645.848E-3	10.5812E-3
4.64482E-3	183.232E-12	720.678E-3	33.1110E-3	183.794E-12	630.081E-3	8.82388E-3
4.63982E-3	182.607E-12	699.715E-3	37.1187E-3	185.074E-12	629.178E-3	22.2097E-3
4.63482E-3	182.475E-12	670.190E-3	36.7941E-3	184.951E-12	645.000E-3	16.9608E-3
4.62981E-3	181.477E-12	651.277E-3	7.88516E-3	184.520E-12	667.993E-3	-1.64833E-3
4.62481E-3	180.952E-12	655.903E-3	-33.5579E-3	185.981E-12	691.931E-3	-10.1896E-3
4.61981E-3	180.364E-12	656.928E-3	-32.7775E-3	186.314E-12	689.682E-3	-19.9980E-3
4.61481E-3	180.684E-12	648.037E-3	-11.6276E-3	186.025E-12	672.693E-3	-29.9041E-3
4.60980E-3	180.740E-12	646.711E-3	-8.63537E-3	186.709E-12	675.240E-3	-28.9417E-3
4.60480E-3	181.879E-12	643.452E-3	4.08962E-3	186.970E-12	677.010E-3	-20.0098E-3
4.59980E-3	181.975E-12	652.709E-3	21.3358E-3	186.302E-12	662.787E-3	-18.4964E-3
4.59480E-3	182.731E-12	668.456E-3	15.3612E-3	185.140E-12	644.732E-3	-16.3905E-3
4.58979E-3	183.689E-12	666.218E-3	16.3970E-3	183.930E-12	621.078E-3	-6.74903E-3
4.58479E-3	184.885E-12	657.025E-3	28.2299E-3	182.714E-12	610.038E-3	-30.0479E-3
4.57979E-3	184.483E-12	656.386E-3	22.1115E-3	181.493E-12	608.178E-3	-49.2839E-3
4.57479E-3	183.765E-12	666.022E-3	16.9345E-3	180.172E-12	600.542E-3	-10.9929E-3
4.56978E-3	183.446E-12	677.618E-3	17.3684E-3	179.516E-12	609.869E-3	21.2227E-3
4.56478E-3	183.299E-12	694.270E-3	861.503E-6	179.558E-12	616.907E-3	-5.98237E-3
4.55978E-3	182.390E-12	695.073E-3	-10.8351E-3	178.267E-12	620.495E-3	-49.0683E-3
4.55478E-3	180.902E-12	661.503E-3	-23.8857E-3	177.704E-12	646.307E-3	-62.6023E-3
4.54977E-3	179.777E-12	642.823E-3	-48.1721E-3	178.065E-12	658.680E-3	-57.3870E-3
4.54477E-3	179.023E-12	668.927E-3	-45.1874E-3	178.036E-12	632.855E-3	-42.8506E-3
4.53977E-3	178.620E-12	679.936E-3	-16.2893E-3	177.588E-12	604.514E-3	-25.5731E-3
4.53477E-3	178.193E-12	630.231E-3	-5.64075E-3	177.335E-12	612.489E-3	-9.28771E-3
4.52976E-3	177.848E-12	588.554E-3	-7.54926E-3	177.929E-12	646.326E-3	-3.54055E-3
4.52476E-3	177.980E-12	602.792E-3	-3.56699E-3	178.728E-12	657.568E-3	-30.8560E-3
4.51976E-3	178.588E-12	635.798E-3	-2.78254E-3	179.705E-12	633.733E-3	-40.5802E-3
4.51476E-3	178.679E-12	675.053E-3	-7.00987E-3	179.683E-12	633.559E-3	-14.5953E-3
4.50975E-3	179.183E-12	688.378E-3	-14.9228E-3	180.202E-12	670.217E-3	3.17868E-3
4.50475E-3	179.405E-12	662.961E-3	-23.7102E-3	180.624E-12	694.256E-3	-6.10097E-3
4.49975E-3	179.116E-12	664.275E-3	-17.1937E-3	179.490E-12	694.662E-3	-46.5951E-3
4.49475E-3	180.248E-12	694.553E-3	-2.33462E-3	179.458E-12	675.449E-3	-74.3472E-3
4.48974E-3	179.810E-12	703.782E-3	961.662E-6	178.487E-12	644.739E-3	-56.9980E-3
4.48474E-3	179.166E-12	687.968E-3	-26.3841E-3	177.206E-12	631.820E-3	-17.3913E-3
4.47974E-3	179.363E-12	645.760E-3	-54.2126E-3	176.241E-12	635.368E-3	8.92865E-3
4.47474E-3	179.164E-12	600.078E-3	-36.0768E-3	176.593E-12	642.210E-3	19.3488E-3
4.46973E-3	178.328E-12	597.300E-3	-10.6455E-3	174.948E-12	659.922E-3	26.7319E-3
4.46473E-3	178.231E-12	611.748E-3	4.78347E-3	174.870E-12	673.466E-3	-3.76065E-3
4.45973E-3	178.063E-12	621.903E-3	7.36571E-3	175.078E-12	666.041E-3	-52.6347E-3
4.45473E-3	177.495E-12	636.429E-3	-3.46967E-3	175.470E-12	655.932E-3	-50.3862E-3
4.44972E-3	176.412E-12	639.488E-3	11.0853E-3	175.238E-12	652.728E-3	-28.4918E-3
4.44472E-3	176.374E-12	625.872E-3	28.1475E-3	175.446E-12	654.799E-3	-31.2189E-3
4.43972E-3	176.491E-12	640.737E-3	16.3577E-3	175.722E-12	655.886E-3	-39.7393E-3
4.43472E-3	175.492E-12	671.058E-3	-16.3791E-3	176.353E-12	647.717E-3	-39.6164E-3
4.42971E-3	175.086E-12	652.939E-3	-34.1562E-3	176.073E-12	647.534E-3	-30.6889E-3
4.42471E-3	175.631E-12	628.112E-3	-22.9017E-3	177.105E-12	683.758E-3	-1.87416E-3
4.41971E-3	175.020E-12	628.704E-3	-13.4264E-3	178.332E-12	699.426E-3	18.4360E-3
4.41471E-3	174.186E-12	626.052E-3	-99.4440E-6	178.193E-12	668.992E-3	52.7083E-6
4.40970E-3	174.137E-12	635.834E-3	26.9059E-3	179.023E-12	659.422E-3	-26.6657E-3
4.40470E-3	173.982E-12	646.217E-3	53.4151E-3	179.492E-12	679.601E-3	-24.5281E-3
4.39970E-3	173.124E-12	638.972E-3	49.2884E-3	178.586E-12	694.279E-3	-1.51292E-3
4.39470E-3	172.786E-12	663.346E-3	15.2183E-3	177.550E-12	691.347E-3	10.9120E-3
4.38969E-3	173.064E-12	691.357E-3	-8.14677E-3	177.124E-12	671.384E-3	-3.09930E-3
4.38469E-3	172.468E-12	674.264E-3	-24.8198E-3	177.040E-12	650.635E-3	-24.5213E-3
4.37969E-3	171.841E-12	644.626E-3	-42.8248E-3	175.671E-12	642.243E-3	-24.2663E-3
4.37469E-3	172.305E-12	634.560E-3	-32.7631E-3	174.353E-12	644.340E-3	-7.17223E-3
4.36968E-3	172.211E-12	645.997E-3	5.12284E-3	173.883E-12	653.625E-3	-225.542E-6
4.36468E-3	172.910E-12	661.993E-3	28.4318E-3	173.394E-12	663.468E-3	-17.0917E-3
4.35968E-3	173.139E-12	666.357E-3	15.9979E-3	172.775E-12	675.295E-3	-40.0763E-3
4.35468E-3	173.214E-12	649.382E-3	-11.3681E-3	172.359E-12	685.828E-3	-29.5794E-3
4.34967E-3	172.331E-12	644.832E-3	-25.8101E-3	171.997E-12	687.363E-3	7.65996E-3
4.34467E-3	172.888E-12	663.114E-3	-19.9842E-3	172.638E-12	665.859E-3	32.9671E-3
4.33967E-3	172.311E-12	660.433E-3	-19.0363E-3	172.312E-12	637.978E-3	33.5892E-3
4.33467E-3	171.720E-12	650.691E-3	-26.8467E-3	171.946E-12	649.624E-3	2.38463E-3
4.32966E-3	171.226E-12	661.294E-3	-34.0592E-3	173.188E-12	684.086E-3	-29.8255E-3
4.32466E-3	170.702E-12	660.681E-3	-41.1335E-3	172.991E-12	697.943E-3	-43.2978E-3
4.31966E-3	169.087E-12	653.479E-3	-39.8105E-3	172.883E-12	688.856E-3	-49.0448E-3
4.31466E-3	168.902E-12	656.649E-3	-18.9300E-3	173.392E-12	676.615E-3	-29.1655E-3
4.30965E-3	168.429E-12	655.996E-3	12.0661E-3	174.925E-12	663.352E-3	-10.2355E-3
4.30465E-3	167.000E-12	646.028E-3	10.0032E-3	173.120E-12	645.694E-3	-14.6092E-3
4.29965E-3	167.362E-12	651.581E-3	-6.40706E-3	172.708E-12	628.482E-3	-13.9459E-3
4.29465E-3	167.398E-12	671.993E-3	4.04689E-3	172.158E-12	643.594E-3	-10.4913E-3
4.28964E-3	166.950E-12	659.100E-3	23.2104E-3	171.678E-12	667.162E-3	-13.9749E-3
4.28464E-3	167.325E-12	636.959E-3	25.2884E-3	170.031E-12	649.361E-3	-12.3768E-3
4.27964E-3	167.482E-12	630.639E-3	15.0196E-3	168.733E-12	648.611E-3	-9.81703E-3
4.27464E-3	168.101E-12	632.993E-3	398.525E-6	167.944E-12	675.274E-3	-17.7577E-3
4.26963E-3	168.570E-12	659.294E-3	-3.02727E-3	167.371E-12	683.817E-3	-28.0308E-3
4.26463E-3	168.916E-12	693.178E-3	7.49450E-3	166.009E-12	658.212E-3	-23.2206E-3
4.25963E-3	168.966E-12	699.430E-3	-3.43022E-3	164.548E-12	621.872E-3	-11.8754E-3
4.25463E-3	169.376E-12	694.992E-3	-24.0633E-3	163.989E-12	617.648E-3	-9.39506E-3
4.24962E-3	168.865E-12	690.960E-3	-20.3936E-3	163.882E-12	621.992E-3	7.72779E-3
4.24462E-3	169.454E-12	670.063E-3	-3.42403E-3	163.253E-12	620.434E-3	19.1264E-3
4.23962E-3	168.937E-12	655.555E-3	306.405E-6	163.140E-12	628.899E-3	-5.82976E-3
4.23462E-3	167.918E-12	648.296E-3	-17.2740E-3	162.957E-12	630.531E-3	-35.5697E-3
4.22961E-3	167.568E-12	635.814E-3	-40.8031E-3	162.899E-12	618.352E-3	-43.1705E-3
4.22461E-3	167.442E-12	626.196E-3	-52.5833E-3	163.804E-12	610.675E-3	-14.9419E-3
4.21961E-3	166.797E-12	625.225E-3	-46.9890E-3	164.790E-12	626.060E-3	4.85833E-3
4.21461E-3	165.550E-12	627.116E-3	-29.6970E-3	164.974E-12	650.951E-3	-9.35828E-3
4.20960E-3	164.654E-12	633.116E-3	-31.3753E-3	166.127E-12	662.592E-3	3.28957E-3
4.20460E-3	164.296E-12	634.778E-3	-46.0994E-3	166.517E-12	663.807E-3	24.5248E-3
4.19960E-3	163.684E-12	629.877E-3	-35.5945E-3	167.024E-12	658.835E-3	11.8575E-3
4.19460E-3	163.322E-12	648.538E-3	-20.2006E-3	166.100E-12	655.662E-3	-1.67875E-3
4.18959E-3	163.587E-12	664.773E-3	-6.54763E-3	165.266E-12	644.030E-3	-4.56820E-3
4.18459E-3	163.667E-12	654.030E-3	2.75973E-3	164.963E-12	618.439E-3	-5.93588E-3
4.17959E-3	164.143E-12	633.523E-3	-6.52940E-3	164.750E-12	605.458E-3	-1.25011E-3
4.17459E-3	164.641E-12	624.514E-3	-9.22341E-3	163.171E-12	607.482E-3	7.49810E-3
4.16958E-3	164.461E-12	633.023E-3	-4.57446E-3	162.504E-12	611.416E-3	10.8546E-3
4.16458E-3	164.582E-12	645.721E-3	-3.36998E-3	161.671E-12	617.350E-3	-6.41180E-3
4.15958E-3	164.307E-12	658.420E-3	5.23059E-3	161.262E-12	615.397E-3	-26.0153E-3
4.15458E-3	165.125E-12	658.571E-3	5.68774E-3	160.347E-12	614.783E-3	-30.1940E-3
4.14957E-3	164.609E-12	662.431E-3	-22.2762E-3	159.732E-12	646.887E-3	-46.1158E-3
4.14457E-3	164.796E-12	654.712E-3	-38.3911E-3	159.889E-12	678.870E-3	-53.0234E-3
4.13957E-3	164.484E-12	620.268E-3	-19.5517E-3	159.468E-12	678.629E-3	-19.8904E-3
4.13457E-3	164.264E-12	610.101E-3	-14.4199E-3	158.995E-12	668.692E-3	14.5635E-3
4.12956E-3	163.756E-12	632.884E-3	-37.7740E-3	159.932E-12	668.975E-3	18.1222E-3
4.12456E-3	163.135E-12	661.012E-3	-45.3315E-3	160.874E-12	666.674E-3	1.14897E-3
4.11956E-3	162.229E-12	678.220E-3	-27.5654E-3	161.031E-12	656.787E-3	-6.72572E-3
4.11456E-3	161.947E-12	677.519E-3	-13.0600E-3	162.096E-12	652.439E-3	4.58015E-3
4.10955E-3	162.206E-12	687.076E-3	-11.2721E-3	162.741E-12	662.274E-3	-15.7849E-3
4.10455E-3	161.127E-12	703.152E-3	-31.5331E-3	163.149E-12	666.259E-3	-46.6356E-3
4.09955E-3	160.480E-12	692.494E-3	-41.9977E-3	164.016E-12	640.828E-3	-42.0411E-3
4.09455E-3	160.882E-12	671.217E-3	4.58719E-3	164.525E-12	633.390E-3	-33.9472E-3
4.08954E-3	161.007E-12	664.316E-3	37.0975E-3	164.660E-12	644.390E-3	-25.0573E-3
4.08454E-3	160.051E-12	681.141E-3	11.6739E-3	163.409E-12	640.169E-3	-31.4845E-3
4.07954E-3	160.516E-12	690.781E-3	-10.0247E-3	162.814E-12	644.229E-3	-49.1091E-3
4.07454E-3	160.120E-12	656.190E-3	-35.8707E-3	162.414E-12	657.028E-3	-35.5735E-3
4.06953E-3	160.006E-12	633.599E-3	-60.2816E-3	161.834E-12	660.831E-3	-11.7844E-3
4.06453E-3	159.137E-12	662.594E-3	-20.2366E-3	160.791E-12	656.359E-3	-1.91637E-3
4.05953E-3	159.194E-12	679.425E-3	28.3168E-3	160.206E-12	656.355E-3	3.12115E-3
4.05453E-3	158.472E-12	666.738E-3	2.87477E-3	160.395E-12	667.926E-3	3.05074E-3
4.04952E-3	157.537E-12	645.388E-3	-43.2779E-3	159.245E-12	666.876E-3	-9.57227E-3
4.04452E-3	157.800E-12	641.416E-3	-68.7476E-3	158.616E-12	645.112E-3	-19.4531E-3
4.03952E-3	157.705E-12	658.030E-3	-75.3013E-3	158.614E-12	635.925E-3	-1.40254E-3
4.03452E-3	157.624E-12	655.755E-3	-63.3271E-3	158.149E-12	649.366E-3	795.306E-6
4.02951E-3	156.639E-12	634.296E-3	-63.7183E-3	158.015E-12	654.347E-3	-20.8531E-3
4.02451E-3	157.063E-12	634.888E-3	-69.7583E-3	157.498E-12	655.143E-3	-11.4173E-3
4.01951E-3	157.106E-12	646.317E-3	-54.9387E-3	157.617E-12	670.032E-3	-1.75033E-3
4.01451E-3	157.312E-12	643.071E-3	-30.5380E-3	158.485E-12	678.056E-3	-13.7319E-3
4.00950E-3	156.572E-12	651.722E-3	-33.5641E-3	158.614E-12	676.736E-3	-9.57339E-3
4.00450E-3	156.404E-12	659.775E-3	-49.4442E-3	158.217E-12	662.073E-3	-341.221E-6
3.99950E-3	156.996E-12	641.198E-3	-35.0634E-3	158.803E-12	649.442E-3	-8.82724E-3
3.99450E-3	156.752E-12	630.088E-3	-18.9632E-3	159.191E-12	654.289E-3	-12.4971E-3
3.98949E-3	156.366E-12	640.336E-3	-8.70272E-3	158.420E-12	647.739E-3	5.67226E-3
3.98449E-3	155.484E-12	652.900E-3	14.2635E-3	158.684E-12	641.360E-3	15.8555E-3
3.97949E-3	155.221E-12	656.438E-3	3.20991E-3	158.971E-12	640.136E-3	6.42456E-3
3.97449E-3	154.779E-12	635.039E-3	-28.3152E-3	157.635E-12	651.779E-3	18.9926E-3
3.96948E-3	154.599E-12	616.390E-3	-40.4074E-3	157.179E-12	676.579E-3	27.7169E-3
3.96448E-3	154.069E-12	624.387E-3	-36.8097E-3	156.968E-12	668.652E-3	-8.03818E-3
3.95948E-3	153.544E-12	652.296E-3	-20.1180E-3	155.699E-12	642.848E-3	-45.1064E-3
3.95448E-3	153.485E-12	666.932E-3	-9.66645E-3	154.023E-12	628.087E-3	-57.7126E-3
3.94947E-3	152.920E-12	648.382E-3	-6.10950E-3	153.341E-12	617.070E-3	-51.2611E-3
3.94447E-3	153.027E-12	642.656E-3	-4.26468E-3	151.751E-12	616.752E-3	-12.2257E-3
3.93947E-3	152.764E-12	653.131E-3	478.480E-6	150.991E-12	633.829E-3	33.0108E-3
3.93447E-3	153.432E-12	647.438E-3	5.71913E-3	149.851E-12	639.612E-3	39.9865E-3
3.92946E-3	153.402E-12	645.569E-3	-2.94446E-3	149.256E-12	622.954E-3	27.8484E-3
3.92446E-3	153.365E-12	658.115E-3	-8.86686E-3	149.582E-12	619.518E-3	16.9558E-3
3.91946E-3	153.609E-12	659.102E-3	-5.39516E-3	149.499E-12	639.146E-3	7.56212E-3
3.91446E-3	153.279E-12	655.569E-3	-2.56093E-3	149.075E-12	647.343E-3	5.30016E-3
3.90945E-3	153.591E-12	666.630E-3	994.759E-6	150.599E-12	638.081E-3	-5.80001E-3
3.90445E-3	152.818E-12	679.968E-3	-5.31068E-3	151.071E-12	636.012E-3	-35.7084E-3
3.89945E-3	152.883E-12	667.032E-3	-9.79606E-3	151.335E-12	644.865E-3	-52.7007E-3
3.89445E-3	153.098E-12	640.384E-3	-2.59957E-3	151.377E-12	662.719E-3	-35.1585E-3
3.88944E-3	152.780E-12	634.133E-3	-770.316E-6	152.736E-12	676.748E-3	-12.0330E-3
3.88444E-3	152.163E-12	650.140E-3	1.21250E-3	151.882E-12	671.861E-3	-5.92741E-3
3.87944E-3	151.636E-12	679.178E-3	-678.956E-6	152.428E-12	649.677E-3	-18.1236E-3
3.87444E-3	151.973E-12	673.565E-3	-11.7262E-3	152.500E-12	640.447E-3	-34.7932E-3
3.86943E-3	151.307E-12	640.800E-3	-16.0094E-3	152.162E-12	675.747E-3	-26.2567E-3
3.86443E-3	150.779E-12	644.527E-3	9.01347E-3	150.620E-12	688.203E-3	-17.9871E-3
3.85943E-3	151.018E-12	671.796E-3	24.8116E-3	150.273E-12	656.562E-3	-38.2477E-3
3.85443E-3	150.971E-12	683.750E-3	1.02694E-3	148.944E-12	639.550E-3	-37.9638E-3
3.84942E-3	150.382E-12	678.246E-3	-18.8912E-3	148.326E-12	640.168E-3	-16.3493E-3
3.84442E-3	150.301E-12	674.990E-3	-32.5849E-3	147.052E-12	654.960E-3	-25.2037E-3
3.83942E-3	150.110E-12	673.471E-3	-51.0856E-3	146.820E-12	670.634E-3	-30.3803E-3
3.83442E-3	149.739E-12	658.269E-3	-51.5094E-3	146.352E-12	671.691E-3	-7.84504E-3
3.82941E-3	149.570E-12	626.748E-3	-31.3418E-3	146.947E-12	672.418E-3	5.91622E-3
3.82441E-3	150.078E-12	596.391E-3	-27.9840E-3	146.638E-12	676.527E-3	-5.11983E-3
3.81941E-3	150.110E-12	609.449E-3	-23.8281E-3	147.179E-12	667.025E-3	-15.4499E-3
3.81441E-3	149.178E-12	644.039E-3	15.6907E-3	147.675E-12	656.794E-3	-14.3482E-3
3.80940E-3	148.255E-12	652.958E-3	39.7173E-3	148.500E-12	663.762E-3	-27.9788E-3
3.80440E-3	148.269E-12	664.493E-3	21.6514E-3	148.249E-12	670.442E-3	-37.0095E-3
3.79940E-3	148.458E-12	664.979E-3	-9.52666E-3	149.970E-12	683.315E-3	-29.5689E-3
3.79440E-3	147.672E-12	640.315E-3	-14.1206E-3	150.333E-12	709.027E-3	-27.6924E-3
3.78939E-3	147.036E-12	653.768E-3	18.2239E-3	150.563E-12	711.720E-3	-23.8755E-3
3.78439E-3	146.957E-12	702.147E-3	40.2359E-3	151.180E-12	676.953E-3	-19.4652E-3
3.77939E-3	147.372E-12	712.713E-3	22.7014E-3	152.161E-12	642.317E-3	-23.8812E-3
3.77439E-3	146.873E-12	688.393E-3	-4.26882E-3	151.447E-12	656.137E-3	-27.2433E-3
3.76938E-3	146.510E-12	673.468E-3	-20.8397E-3	151.403E-12	687.525E-3	-26.6547E-3
3.76438E-3	146.666E-12	668.915E-3	-40.3099E-3	151.477E-12	678.701E-3	-30.1471E-3
3.75938E-3	145.947E-12	655.223E-3	-54.4932E-3	150.940E-12	670.071E-3	-33.7663E-3
3.75438E-3	145.794E-12	629.490E-3	-38.0092E-3	149.462E-12	670.351E-3	-31.3283E-3
3.74937E-3	145.786E-12	627.718E-3	-8.16058E-3	148.102E-12	658.188E-3	-29.0440E-3
3.74437E-3	146.130E-12	660.000E-3	4.26828E-3	147.365E-12	656.522E-3	-26.5118E-3
3.73937E-3	145.325E-12	681.228E-3	7.20155E-3	146.660E-12	667.770E-3	-16.1641E-3
3.73437E-3	145.228E-12	663.136E-3	31.6528E-3	145.965E-12	676.289E-3	-15.1298E-3
3.72936E-3	144.924E-12	653.977E-3	49.4777E-3	144.795E-12	661.182E-3	-19.1924E-3
3.72436E-3	144.960E-12	688.524E-3	17.2646E-3	144.773E-12	636.129E-3	-9.95292E-3
3.71936E-3	144.265E-12	707.845E-3	-20.9527E-3	144.153E-12	637.605E-3	-3.79363E-3
3.71436E-3	143.724E-12	686.428E-3	-29.2731E-3	143.845E-12	659.232E-3	-2.15031E-3
3.70935E-3	143.722E-12	665.934E-3	-20.6483E-3	143.404E-12	664.453E-3	-734.166E-6
3.70435E-3	143.070E-12	652.729E-3	-9.42565E-3	143.677E-12	661.377E-3	8.27722E-3
3.69935E-3	142.259E-12	653.781E-3	-11.9325E-3	143.351E-12	668.461E-3	13.8960E-3
3.69435E-3	142.025E-12	661.599E-3	-13.9326E-3	143.884E-12	673.671E-3	-4.01050E-3
3.68934E-3	141.921E-12	650.861E-3	9.65024E-3	145.121E-12	673.778E-3	-17.6932E-3
3.68434E-3	141.865E-12	640.763E-3	36.3270E-3	145.519E-12	679.181E-3	-11.1257E-3
3.67934E-3	141.971E-12	640.336E-3	37.0642E-3	144.978E-12	686.831E-3	-5.44949E-3
3.67434E-3	142.274E-12	642.749E-3	17.6885E-3	145.748E-12	677.669E-3	-7.80233E-3
3.66933E-3	142.390E-12	648.310E-3	-7.35947E-3	145.257E-12	672.994E-3	-8.54552E-3
3.66433E-3	142.241E-12	661.394E-3	-26.2289E-3	144.790E-12	679.165E-3	-19.8407E-3
3.65933E-3	141.893E-12	657.078E-3	-23.0147E-3	143.991E-12	666.709E-3	-40.1226E-3
3.65433E-3	141.797E-12	641.139E-3	-19.7539E-3	143.738E-12	660.320E-3	-52.1398E-3
3.64932E-3	141.183E-12	646.765E-3	-36.9507E-3	142.652E-12	682.696E-3	-48.8008E-3
3.64432E-3	141.258E-12	642.073E-3	-35.8259E-3	141.275E-12	687.599E-3	-28.2081E-3
3.63932E-3	141.289E-12	634.242E-3	-15.7483E-3	140.034E-12	669.017E-3	-23.6586E-3
3.63432E-3	140.609E-12	656.086E-3	-13.2159E-3	139.393E-12	659.309E-3	-36.8271E-3
3.62931E-3	140.043E-12	677.776E-3	-32.1796E-3	139.127E-12	649.686E-3	-38.0639E-3
3.62431E-3	139.880E-12	674.700E-3	-56.9028E-3	137.611E-12	643.768E-3	-31.4732E-3
3.61931E-3	139.424E-12	671.090E-3	-59.6041E-3	137.465E-12	648.234E-3	-26.5413E-3
3.61431E-3	138.621E-12	676.908E-3	-25.8744E-3	137.463E-12	644.494E-3	-16.1512E-3
3.60930E-3	139.022E-12	664.267E-3	9.00067E-3	136.409E-12	636.438E-3	-18.0648E-3
3.60430E-3	139.101E-12	636.854E-3	-2.67513E-3	136.432E-12	635.564E-3	-37.1722E-3
3.59930E-3	139.219E-12	641.828E-3	-17.2827E-3	136.877E-12	637.021E-3	-39.7744E-3
3.59430E-3	138.913E-12	673.358E-3	-11.6878E-3	136.443E-12	637.862E-3	-35.1972E-3
3.58929E-3	138.900E-12	685.022E-3	-16.7659E-3	136.291E-12	645.423E-3	-23.5536E-3
3.58429E-3	138.512E-12	671.177E-3	-3.56909E-3	137.400E-12	663.011E-3	-4.77539E-3
3.57929E-3	138.569E-12	665.219E-3	14.8683E-3	137.915E-12	683.955E-3	5.34378E-3
3.57429E-3	138.403E-12	680.914E-3	-6.12429E-3	138.412E-12	696.193E-3	10.3389E-3
3.56928E-3	138.540E-12	682.596E-3	-35.4489E-3	137.894E-12	682.096E-3	10.1202E-3
3.56428E-3	138.189E-12	680.654E-3	-29.7287E-3	138.300E-12	660.341E-3	10.0316E-3
3.55928E-3	138.087E-12	681.312E-3	-16.1697E-3	138.755E-12	655.853E-3	13.3919E-3
3.55428E-3	137.519E-12	673.642E-3	-13.2893E-3	138.152E-12	650.112E-3	13.0720E-3
3.54927E-3	137.631E-12	670.516E-3	-8.03809E-3	137.065E-12	645.889E-3	3.47196E-3
3.54427E-3	137.254E-12	659.412E-3	-7.58227E-3	136.867E-12	658.045E-3	-13.0158E-3
3.53927E-3	136.854E-12	658.723E-3	-15.5375E-3	135.767E-12	665.479E-3	-20.8433E-3
3.53427E-3	136.469E-12	679.905E-3	-13.7459E-3	135.146E-12	652.286E-3	-15.9355E-3
3.52926E-3	136.529E-12	693.506E-3	-6.32812E-3	134.086E-12	632.458E-3	932.879E-6
3.52426E-3	135.912E-12	689.263E-3	-8.08739E-3	134.134E-12	631.412E-3	14.0070E-3
3.51926E-3	135.655E-12	674.423E-3	-12.9813E-3	132.907E-12	643.949E-3	-9.48587E-3
3.51426E-3	135.464E-12	657.938E-3	-20.8508E-3	132.257E-12	642.844E-3	-34.8009E-3
3.50925E-3	135.186E-12	664.642E-3	-30.6624E-3	132.462E-12	629.928E-3	-25.9283E-3
3.50425E-3	134.959E-12	679.369E-3	-28.4863E-3	132.453E-12	631.022E-3	-19.9771E-3
3.49925E-3	134.298E-12	678.751E-3	-16.8825E-3	131.954E-12	647.650E-3	-27.1707E-3
3.49425E-3	134.128E-12	677.190E-3	-20.8718E-3	132.309E-12	660.776E-3	-24.2865E-3
3.48924E-3	134.302E-12	680.129E-3	-31.9931E-3	133.367E-12	670.210E-3	-24.4493E-3
3.48424E-3	133.396E-12	671.232E-3	-12.0534E-3	133.820E-12	677.988E-3	-28.3001E-3
3.47924E-3	132.795E-12	650.303E-3	6.86296E-3	134.154E-12	678.464E-3	-13.8089E-3
3.47424E-3	132.694E-12	672.976E-3	-25.0951E-3	135.118E-12	674.060E-3	-10.9647E-3
3.46923E-3	132.725E-12	718.516E-3	-60.1199E-3	136.390E-12	665.588E-3	-20.7081E-3
3.46423E-3	132.036E-12	709.901E-3	-57.1339E-3	136.281E-12	671.642E-3	-3.86784E-3
3.45923E-3	132.216E-12	670.147E-3	-33.8543E-3	135.502E-12	673.124E-3	6.56460E-3
3.45423E-3	132.004E-12	665.304E-3	-19.6672E-3	136.246E-12	639.801E-3	-12.7147E-3
3.44922E-3	131.713E-12	678.120E-3	-16.3518E-3	135.755E-12	619.577E-3	-23.3074E-3
3.44422E-3	131.651E-12	676.864E-3	-11.4930E-3	134.463E-12	640.544E-3	-9.70434E-3
3.43922E-3	130.844E-12	669.951E-3	-20.1488E-3	134.178E-12	663.142E-3	166.024E-6
3.43422E-3	131.430E-12	661.619E-3	-22.3613E-3	133.874E-12	666.091E-3	-466.806E-6
3.42921E-3	131.054E-12	658.293E-3	-9.60464E-3	132.496E-12	661.475E-3	4.71136E-3
3.42421E-3	131.422E-12	668.470E-3	3.22106E-3	131.628E-12	655.321E-3	-2.61084E-3
3.41921E-3	131.141E-12	686.912E-3	9.07581E-3	131.212E-12	654.541E-3	-7.75730E-3
3.41421E-3	131.097E-12	693.116E-3	5.08133E-3	130.323E-12	667.028E-3	1.75349E-3
3.40920E-3	130.090E-12	678.458E-3	6.84844E-3	129.678E-12	670.600E-3	-2.49739E-3
3.40420E-3	129.638E-12	663.355E-3	12.3148E-3	129.147E-12	651.215E-3	-19.8960E-3
3.39920E-3	129.403E-12	648.773E-3	11.3385E-3	129.555E-12	643.162E-3	-39.3885E-3
3.39420E-3	129.047E-12	631.286E-3	4.61619E-3	129.771E-12	650.175E-3	-36.5606E-3
3.38919E-3	128.207E-12	629.598E-3	-2.93631E-3	129.866E-12	661.247E-3	-5.89441E-3
3.38419E-3	127.972E-12	637.844E-3	1.43487E-3	129.630E-12	675.156E-3	15.1678E-3
3.37919E-3	128.315E-12	649.823E-3	15.6180E-3	130.901E-12	682.063E-3	17.6442E-3
3.37419E-3	127.576E-12	674.917E-3	9.26410E-3	131.153E-12	679.647E-3	14.6622E-3
3.36918E-3	127.737E-12	697.195E-3	-7.26700E-3	131.195E-12	661.211E-3	-80.8454E-6
3.36418E-3	127.519E-12	679.337E-3	-20.8240E-3	131.377E-12	651.559E-3	-21.2986E-3
3.35918E-3	127.732E-12	642.756E-3	-29.2592E-3	132.014E-12	685.625E-3	-23.8600E-3
3.35418E-3	127.219E-12	642.766E-3	-12.3813E-3	131.546E-12	710.754E-3	-15.2847E-3
3.34917E-3	127.284E-12	655.022E-3	3.37426E-3	131.003E-12	694.512E-3	-18.4429E-3
3.34417E-3	127.209E-12	659.130E-3	-2.02081E-3	130.499E-12	686.995E-3	-19.9087E-3
3.33917E-3	127.464E-12	672.568E-3	-8.59696E-3	130.530E-12	686.984E-3	-2.84023E-3
3.33417E-3	127.130E-12	683.910E-3	-14.2439E-3	129.986E-12	667.627E-3	19.2431E-3
3.32916E-3	126.894E-12	685.551E-3	-24.5317E-3	128.971E-12	651.726E-3	28.1619E-3
3.32416E-3	127.327E-12	686.983E-3	-17.4063E-3	127.906E-12	661.674E-3	21.1743E-3
3.31916E-3	127.227E-12	688.283E-3	-4.86979E-3	127.171E-12	673.913E-3	-2.91501E-3
3.31416E-3	127.122E-12	684.201E-3	-10.4726E-3	126.001E-12	678.973E-3	-8.63675E-3
3.30915E-3	126.996E-12	672.524E-3	-18.4970E-3	124.984E-12	680.552E-3	4.59038E-3
3.30415E-3	126.866E-12	671.190E-3	-27.4609E-3	124.690E-12	677.923E-3	8.04408E-3
3.29915E-3	126.029E-12	678.495E-3	-30.2495E-3	123.991E-12	689.004E-3	2.71017E-3
3.29415E-3	126.221E-12	680.272E-3	-21.9924E-3	123.697E-12	688.603E-3	-28.3102E-3
3.28914E-3	125.891E-12	673.293E-3	-19.3178E-3	123.825E-12	673.013E-3	-52.4317E-3
3.28414E-3	125.238E-12	648.941E-3	-21.4713E-3	123.878E-12	685.625E-3	-40.7730E-3
3.27914E-3	125.147E-12	637.227E-3	-18.8228E-3	123.357E-12	716.319E-3	-24.2135E-3
3.27414E-3	125.103E-12	638.014E-3	-6.24930E-3	123.727E-12	718.999E-3	-5.92638E-3
3.26913E-3	125.104E-12	635.196E-3	2.55792E-3	124.137E-12	694.699E-3	10.7631E-3
3.26413E-3	124.690E-12	655.280E-3	-8.17054E-3	124.537E-12	688.657E-3	25.0912E-3
3.25913E-3	124.479E-12	668.477E-3	-7.96167E-3	124.809E-12	694.922E-3	30.2050E-3
3.25413E-3	124.076E-12	662.911E-3	13.3394E-3	124.968E-12	691.535E-3	3.66192E-3
3.24912E-3	123.940E-12	684.961E-3	36.7681E-3	125.145E-12	694.391E-3	-21.3589E-3
3.24412E-3	123.603E-12	714.121E-3	45.6668E-3	125.037E-12	696.387E-3	-25.4357E-3
3.23912E-3	123.791E-12	705.393E-3	20.5166E-3	124.881E-12	675.208E-3	-22.1998E-3
3.23412E-3	123.552E-12	687.564E-3	-26.5615E-3	124.306E-12	663.519E-3	-6.66895E-3
3.22911E-3	123.441E-12	683.122E-3	-29.1358E-3	123.937E-12	677.339E-3	-66.7811E-6
3.22411E-3	122.639E-12	674.257E-3	14.7753E-3	122.664E-12	690.555E-3	-7.78124E-3
3.21911E-3	122.616E-12	680.812E-3	24.3875E-3	122.213E-12	692.252E-3	-7.53088E-3
3.21411E-3	122.309E-12	682.249E-3	-961.583E-6	121.480E-12	681.220E-3	-8.02241E-3
3.20910E-3	121.750E-12	659.474E-3	-4.71774E-3	120.501E-12	665.238E-3	-9.06546E-3
3.20410E-3	121.591E-12	654.327E-3	8.87117E-3	119.531E-12	661.764E-3	-11.2118E-3
3.19910E-3	121.257E-12	659.021E-3	15.5114E-3	119.640E-12	663.555E-3	-26.2225E-3
3.19410E-3	120.987E-12	662.077E-3	1.02205E-3	119.360E-12	646.671E-3	-33.1958E-3
3.18909E-3	120.877E-12	675.728E-3	-21.2657E-3	118.646E-12	645.161E-3	-14.1649E-3
3.18409E-3	120.724E-12	692.865E-3	-19.1798E-3	118.513E-12	667.067E-3	190.264E-6
3.17909E-3	121.026E-12	700.837E-3	-10.1449E-3	118.657E-12	684.150E-3	-7.90934E-3
3.17409E-3	120.902E-12	707.999E-3	-8.16515E-3	119.182E-12	692.830E-3	-20.0554E-3
3.16908E-3	120.989E-12	707.385E-3	-11.6290E-3	118.827E-12	688.677E-3	-31.2295E-3
3.16408E-3	120.588E-12	679.708E-3	-21.2135E-3	119.575E-12	678.899E-3	-27.3759E-3
3.15908E-3	120.168E-12	672.338E-3	-33.6669E-3	120.090E-12	673.283E-3	-8.11782E-3
3.15408E-3	119.493E-12	695.729E-3	-33.8887E-3	120.423E-12	683.389E-3	-889.893E-6
3.14907E-3	119.151E-12	713.062E-3	-29.4729E-3	120.345E-12	699.118E-3	-381.051E-6
3.14407E-3	118.713E-12	714.151E-3	-28.2156E-3	120.346E-12	703.847E-3	10.0677E-3
3.13907E-3	117.827E-12	693.800E-3	-17.9369E-3	120.693E-12	689.753E-3	17.4279E-3
3.13407E-3	117.563E-12	668.976E-3	-17.1244E-3	119.992E-12	676.339E-3	16.9072E-3
3.12906E-3	117.221E-12	661.416E-3	-30.8730E-3	118.992E-12	691.276E-3	8.51891E-3
3.12406E-3	116.841E-12	664.326E-3	-40.8163E-3	118.855E-12	699.477E-3	-12.8240E-3
3.11906E-3	116.142E-12	670.083E-3	-32.2820E-3	118.344E-12	687.512E-3	-33.0295E-3
3.11406E-3	115.653E-12	663.425E-3	-25.5142E-3	117.111E-12	687.585E-3	-34.1819E-3
3.10905E-3	115.574E-12	647.204E-3	-29.5731E-3	116.560E-12	695.794E-3	-21.3797E-3
3.10405E-3	115.702E-12	648.476E-3	-28.9882E-3	116.368E-12	686.713E-3	-20.6788E-3
3.09905E-3	115.609E-12	648.606E-3	-34.1581E-3	115.596E-12	671.302E-3	-22.2078E-3
3.09405E-3	115.641E-12	647.250E-3	-33.4892E-3	114.573E-12	683.078E-3	-10.5769E-3
3.08904E-3	116.672E-12	665.365E-3	-12.9545E-3	114.601E-12	702.203E-3	-3.31539E-3
3.08404E-3	116.215E-12	686.534E-3	3.83394E-3	114.795E-12	701.750E-3	6.92289E-3
3.07904E-3	116.557E-12	695.267E-3	-3.62173E-3	114.527E-12	693.670E-3	7.82696E-3
3.07404E-3	116.659E-12	698.331E-3	-13.7431E-3	114.455E-12	670.386E-3	-4.68848E-3
3.06903E-3	116.363E-12	704.820E-3	-9.88215E-3	114.721E-12	661.857E-3	-10.4586E-3
3.06403E-3	115.141E-12	710.277E-3	-665.483E-6	115.620E-12	694.401E-3	-23.4376E-3
3.05903E-3	115.332E-12	701.535E-3	1.37588E-3	115.007E-12	709.481E-3	-37.3129E-3
3.05403E-3	114.612E-12	670.963E-3	-6.21365E-3	115.650E-12	699.713E-3	-34.2338E-3
3.04902E-3	113.900E-12	643.295E-3	-13.9180E-3	115.670E-12	701.350E-3	-31.0241E-3
3.04402E-3	113.659E-12	638.130E-3	-3.23923E-3	115.789E-12	710.725E-3	-32.9726E-3
3.03902E-3	113.287E-12	650.430E-3	7.04950E-3	115.254E-12	711.804E-3	-21.3882E-3
3.03402E-3	113.374E-12	668.730E-3	-5.53448E-3	115.536E-12	703.250E-3	-11.2469E-3
3.02901E-3	113.063E-12	665.944E-3	-14.4641E-3	115.269E-12	691.103E-3	-17.5894E-3
3.02401E-3	112.411E-12	651.434E-3	-24.7930E-3	114.586E-12	678.470E-3	-19.9881E-3
3.01901E-3	112.812E-12	666.160E-3	-22.0295E-3	113.850E-12	681.577E-3	-23.3918E-3
3.01401E-3	113.328E-12	692.280E-3	-12.5159E-3	113.385E-12	687.846E-3	-36.8417E-3
3.00900E-3	112.286E-12	692.585E-3	-37.0425E-3	112.440E-12	679.839E-3	-31.5361E-3
3.00400E-3	112.663E-12	690.821E-3	-54.7251E-3	111.335E-12	677.631E-3	-13.6490E-3
2.99900E-3	112.941E-12	693.226E-3	-44.8834E-3	111.116E-12	678.423E-3	-8.00145E-3
2.99400E-3	111.991E-12	677.997E-3	-39.0529E-3	110.480E-12	660.693E-3	-20.7179E-3
2.98899E-3	111.986E-12	682.915E-3	-34.7517E-3	109.677E-12	647.512E-3	-40.6991E-3
2.98399E-3	111.925E-12	714.277E-3	-28.4266E-3	109.499E-12	659.431E-3	-44.1255E-3
2.97899E-3	111.437E-12	722.702E-3	-17.2802E-3	109.591E-12	667.810E-3	-20.2479E-3
2.97399E-3	110.977E-12	709.496E-3	5.60296E-3	109.722E-12	666.054E-3	15.2677E-3
2.96898E-3	110.597E-12	696.250E-3	26.5738E-3	109.495E-12	672.878E-3	15.2325E-3
2.96398E-3	109.800E-12	685.354E-3	23.0927E-3	109.991E-12	679.684E-3	-6.57481E-3
2.95898E-3	109.520E-12	680.464E-3	-2.84147E-3	110.014E-12	684.187E-3	-7.94917E-3
2.95398E-3	109.439E-12	675.315E-3	-12.9357E-3	110.325E-12	696.371E-3	3.10303E-3
2.94897E-3	109.231E-12	662.142E-3	1.11666E-3	110.430E-12	704.788E-3	8.49150E-3
2.94397E-3	109.048E-12	653.890E-3	3.19051E-3	110.899E-12	701.930E-3	-10.7553E-3
2.93897E-3	108.471E-12	671.047E-3	-12.4512E-3	110.301E-12	700.071E-3	-40.7436E-3
2.93397E-3	108.131E-12	695.957E-3	-21.1611E-3	110.654E-12	700.305E-3	-44.8399E-3
2.92896E-3	108.506E-12	695.077E-3	-18.9656E-3	110.399E-12	697.848E-3	-31.4522E-3
2.92396E-3	108.594E-12	681.909E-3	-18.4891E-3	109.867E-12	689.649E-3	-22.6177E-3
2.91896E-3	108.365E-12	685.741E-3	-14.1535E-3	109.763E-12	671.906E-3	-16.7200E-3
2.91396E-3	107.933E-12	692.013E-3	-3.15874E-3	108.722E-12	665.337E-3	-12.5806E-3
2.90895E-3	108.170E-12	690.018E-3	-16.4623E-3	108.091E-12	680.168E-3	-23.5156E-3
2.90395E-3	108.137E-12	691.160E-3	-42.1776E-3	108.180E-12	692.849E-3	-33.0546E-3
2.89895E-3	107.945E-12	700.839E-3	-33.1320E-3	107.616E-12	678.376E-3	-21.6554E-3
2.89395E-3	107.635E-12	707.089E-3	-541.634E-6	106.213E-12	660.493E-3	-10.1441E-3
2.88894E-3	107.296E-12	702.893E-3	11.3265E-6	106.176E-12	663.481E-3	-898.734E-6
2.88394E-3	107.242E-12	700.941E-3	-27.6908E-3	106.150E-12	675.193E-3	15.8481E-3
2.87894E-3	106.532E-12	699.405E-3	-33.6212E-3	105.326E-12	672.754E-3	26.6108E-3
2.87394E-3	106.358E-12	694.484E-3	-25.0181E-3	104.825E-12	655.593E-3	6.78420E-3
2.86893E-3	106.157E-12	691.675E-3	-20.2152E-3	105.409E-12	656.835E-3	-25.1487E-3
2.86393E-3	105.732E-12	692.641E-3	-19.6122E-3	105.399E-12	664.429E-3	-35.8775E-3
2.85893E-3	105.582E-12	684.202E-3	-24.8644E-3	105.161E-12	666.128E-3	-33.9220E-3
2.85393E-3	105.590E-12	666.899E-3	-31.2076E-3	105.289E-12	683.530E-3	-22.9084E-3
2.84892E-3	105.587E-12	667.207E-3	-29.6715E-3	105.383E-12	697.207E-3	-9.51298E-3
2.84392E-3	105.250E-12	684.037E-3	-14.4786E-3	105.308E-12	701.535E-3	-3.17257E-3
2.83892E-3	105.360E-12	699.975E-3	3.53165E-3	105.430E-12	719.563E-3	-1.74735E-3
2.83392E-3	105.469E-12	716.997E-3	-1.51529E-3	105.654E-12	742.314E-3	-3.02786E-3
2.82891E-3	104.877E-12	724.975E-3	-18.2116E-3	105.998E-12	743.957E-3	-8.49111E-3
2.82391E-3	104.747E-12	722.280E-3	-15.7421E-3	106.104E-12	727.702E-3	-15.3400E-3
2.81891E-3	104.792E-12	726.354E-3	-1.21010E-3	105.640E-12	719.938E-3	-13.9853E-3
2.81391E-3	104.425E-12	734.844E-3	2.09501E-3	105.262E-12	714.009E-3	-12.0432E-3
2.80890E-3	103.897E-12	735.122E-3	-2.54261E-3	105.412E-12	707.670E-3	-11.9155E-3
2.80390E-3	103.574E-12	732.756E-3	-8.23973E-3	104.967E-12	710.254E-3	-9.19905E-3
2.79890E-3	103.573E-12	714.153E-3	-17.1276E-3	104.157E-12	699.256E-3	-732.910E-6
2.79390E-3	102.515E-12	691.597E-3	-7.90085E-3	103.338E-12	689.066E-3	410.148E-6
2.78889E-3	102.216E-12	686.505E-3	3.02970E-3	103.096E-12	704.194E-3	-3.79511E-3
2.78389E-3	101.651E-12	682.781E-3	-18.8336E-3	102.082E-12	713.146E-3	882.900E-6
2.77889E-3	101.773E-12	688.589E-3	-41.5658E-3	100.988E-12	700.640E-3	-1.70701E-3
2.77389E-3	101.334E-12	689.760E-3	-46.0710E-3	100.712E-12	690.085E-3	-18.0478E-3
2.76888E-3	101.205E-12	686.584E-3	-34.7325E-3	100.253E-12	681.184E-3	-29.1742E-3
2.76388E-3	100.943E-12	691.566E-3	-11.7870E-3	99.8943E-12	669.728E-3	-31.9008E-3
2.75888E-3	100.752E-12	694.131E-3	661.935E-6	99.8886E-12	673.190E-3	-30.4126E-3
2.75388E-3	100.653E-12	695.960E-3	476.885E-6	100.308E-12	686.104E-3	-15.1115E-3
2.74887E-3	101.024E-12	685.372E-3	-4.71828E-3	100.125E-12	687.651E-3	3.88232E-3
2.74387E-3	101.157E-12	672.698E-3	-16.3195E-3	100.277E-12	681.034E-3	5.15241E-3
2.73887E-3	100.775E-12	685.726E-3	-31.9967E-3	101.004E-12	695.417E-3	-12.8825E-3
2.73387E-3	100.392E-12	706.571E-3	-25.2164E-3	101.023E-12	714.667E-3	-28.1240E-3
2.72886E-3	100.155E-12	704.431E-3	-9.66449E-3	100.454E-12	711.652E-3	-25.9427E-3
2.72386E-3	99.7410E-12	694.942E-3	-18.1400E-3	101.544E-12	717.008E-3	-21.2631E-3
2.71886E-3	99.2012E-12	696.281E-3	-31.8390E-3	101.387E-12	731.099E-3	-19.7706E-3
2.71386E-3	98.8460E-12	707.341E-3	-30.9932E-3	100.710E-12	730.912E-3	-11.5068E-3
2.70885E-3	98.2432E-12	715.911E-3	-29.5136E-3	100.160E-12	725.849E-3	-14.2422E-3
2.70385E-3	98.2517E-12	720.111E-3	-34.3497E-3	100.301E-12	718.885E-3	-28.2909E-3
2.69885E-3	98.0249E-12	720.371E-3	-25.8170E-3	99.6767E-12	708.933E-3	-24.5828E-3
2.69385E-3	97.6406E-12	712.813E-3	-71.6985E-6	99.1181E-12	703.522E-3	-13.8616E-3
2.68884E-3	97.3509E-12	702.901E-3	23.5471E-3	98.2112E-12	696.435E-3	-17.4543E-3
2.68384E-3	97.0431E-12	703.201E-3	20.1809E-3	97.2755E-12	697.322E-3	-29.0952E-3
2.67884E-3	96.8323E-12	714.906E-3	-10.3411E-3	96.5542E-12	713.241E-3	-26.7895E-3
2.67384E-3	96.7932E-12	710.102E-3	-28.8985E-3	95.8754E-12	720.905E-3	-27.5963E-3
2.66883E-3	96.9649E-12	692.747E-3	-27.2344E-3	95.6078E-12	710.586E-3	-36.4427E-3
2.66383E-3	96.6206E-12	681.034E-3	-17.2650E-3	95.4102E-12	701.941E-3	-19.2947E-3
2.65883E-3	96.5290E-12	681.207E-3	-6.94812E-3	94.7303E-12	698.205E-3	-2.40251E-3
2.65383E-3	96.1032E-12	690.013E-3	-23.1671E-3	94.7504E-12	693.503E-3	-4.16508E-3
2.64882E-3	96.0166E-12	692.349E-3	-31.7463E-3	95.0041E-12	707.378E-3	-3.77649E-3
2.64382E-3	95.2377E-12	689.623E-3	3.63769E-3	95.1193E-12	727.072E-3	-4.47000E-3
2.63882E-3	95.3292E-12	694.025E-3	16.3928E-3	94.7414E-12	728.322E-3	-5.64017E-3
2.63382E-3	95.2806E-12	703.557E-3	-10.8072E-3	95.0245E-12	723.455E-3	-5.01501E-3
2.62881E-3	94.5294E-12	697.387E-3	-21.5327E-3	95.7680E-12	731.649E-3	-11.9762E-3
2.62381E-3	94.0968E-12	688.642E-3	-24.5120E-3	95.8044E-12	737.173E-3	-33.7598E-3
2.61881E-3	94.1300E-12	692.334E-3	-29.9452E-3	95.5662E-12	730.646E-3	-54.7803E-3
2.61381E-3	93.5730E-12	693.135E-3	-27.2828E-3	95.4168E-12	731.298E-3	-57.7862E-3
2.60880E-3	93.3637E-12	696.931E-3	-31.4413E-3	95.4268E-12	725.163E-3	-39.0116E-3
2.60380E-3	93.1575E-12	717.097E-3	-37.0462E-3	94.9543E-12	715.697E-3	-7.89333E-3
2.59880E-3	93.1038E-12	726.161E-3	-40.6855E-3	94.3041E-12	728.713E-3	-3.61628E-3
2.59380E-3	93.0010E-12	700.168E-3	-35.2135E-3	93.3622E-12	734.211E-3	-16.5833E-3
2.58879E-3	93.2016E-12	691.956E-3	-13.3053E-3	92.6499E-12	724.582E-3	-8.81345E-3
2.58379E-3	92.8798E-12	708.339E-3	2.34162E-3	91.9524E-12	721.011E-3	4.33404E-3
2.57879E-3	92.8413E-12	710.616E-3	-7.48483E-3	91.2768E-12	710.332E-3	-2.40735E-3
2.57379E-3	92.6744E-12	710.019E-3	-21.7024E-3	90.9917E-12	703.068E-3	-14.4701E-3
2.56878E-3	92.2277E-12	707.535E-3	-5.36974E-3	90.3144E-12	706.033E-3	-5.47000E-3
2.56378E-3	92.2731E-12	702.393E-3	20.3319E-3	89.7929E-12	701.505E-3	4.60529E-3
2.55878E-3	91.8697E-12	711.645E-3	20.3472E-3	90.1095E-12	699.684E-3	1.98799E-3
2.55378E-3	91.3766E-12	726.304E-3	9.23250E-3	90.3484E-12	716.141E-3	-2.76343E-3
2.54877E-3	90.7491E-12	734.892E-3	1.05076E-3	90.1012E-12	733.081E-3	-4.64166E-3
2.54377E-3	90.7773E-12	727.617E-3	-4.18763E-3	89.8724E-12	721.920E-3	-4.30562E-3
2.53877E-3	89.9884E-12	715.400E-3	-6.00330E-3	90.4429E-12	702.495E-3	-14.1132E-3
2.53377E-3	89.1518E-12	718.556E-3	-17.2339E-3	90.2233E-12	707.944E-3	-25.8882E-3
2.52876E-3	89.0570E-12	713.953E-3	-24.0330E-3	90.2601E-12	724.518E-3	-29.5081E-3
2.52376E-3	89.5426E-12	702.122E-3	-3.89301E-3	90.2489E-12	732.221E-3	-25.1814E-3
2.51876E-3	89.3007E-12	703.696E-3	1.39966E-3	90.5538E-12	735.230E-3	-29.2497E-3
2.51376E-3	88.7057E-12	714.192E-3	-30.9065E-3	89.8910E-12	741.448E-3	-31.3046E-3
2.50875E-3	88.6752E-12	728.339E-3	-49.1553E-3	89.6989E-12	743.857E-3	-6.83871E-3
2.50375E-3	89.3286E-12	742.125E-3	-36.7581E-3	89.5067E-12	734.854E-3	14.7789E-3
2.49875E-3	88.9094E-12	733.457E-3	-21.7380E-3	89.0814E-12	713.734E-3	10.2990E-3
2.49375E-3	88.6869E-12	703.801E-3	-20.9288E-3	88.5696E-12	707.743E-3	-3.22118E-3
2.48874E-3	88.6585E-12	691.942E-3	-26.5561E-3	88.3012E-12	720.880E-3	-11.9456E-3
2.48374E-3	88.8525E-12	706.342E-3	-28.1026E-3	87.7964E-12	718.989E-3	-13.4051E-3
2.47874E-3	88.2590E-12	714.086E-3	-30.2913E-3	87.5717E-12	719.803E-3	-5.92170E-3
2.47374E-3	88.2448E-12	723.386E-3	-24.5993E-3	87.1169E-12	725.344E-3	-11.6016E-3
2.46873E-3	87.6339E-12	739.916E-3	-20.4330E-3	86.6448E-12	717.023E-3	-16.2059E-3
2.46373E-3	87.0037E-12	739.039E-3	-26.6047E-3	86.7684E-12	711.717E-3	2.15402E-3
2.45873E-3	86.4618E-12	727.630E-3	-20.0612E-3	86.2415E-12	708.373E-3	1.99658E-3
2.45373E-3	86.2125E-12	713.268E-3	-8.66626E-3	85.8691E-12	708.939E-3	-14.3417E-3
2.44872E-3	85.7175E-12	714.089E-3	-13.3367E-3	85.6713E-12	732.015E-3	-25.2941E-3
2.44372E-3	85.2719E-12	730.541E-3	-26.4871E-3	85.3710E-12	748.171E-3	-38.1607E-3
2.43872E-3	84.9151E-12	733.399E-3	-32.3553E-3	84.6415E-12	727.412E-3	-28.0401E-3
2.43372E-3	84.6689E-12	731.181E-3	-22.4465E-3	84.6664E-12	719.953E-3	2.21760E-3
2.42871E-3	84.2458E-12	739.408E-3	-15.3222E-3	84.4353E-12	733.100E-3	7.69236E-3
2.42371E-3	84.0842E-12	742.841E-3	-31.9498E-3	84.4621E-12	727.315E-3	-6.22662E-3
2.41871E-3	84.1052E-12	726.626E-3	-54.4742E-3	84.0434E-12	723.628E-3	-6.64462E-3
2.41371E-3	83.9214E-12	697.053E-3	-55.9269E-3	84.3888E-12	743.520E-3	-4.92317E-3
2.40870E-3	83.9845E-12	687.269E-3	-38.7931E-3	84.5255E-12	756.252E-3	-3.00807E-3
2.40370E-3	83.8250E-12	705.720E-3	-30.9824E-3	84.7191E-12	756.920E-3	3.60957E-3
2.39870E-3	83.8086E-12	727.560E-3	-45.9676E-3	84.4717E-12	762.997E-3	-2.75566E-3
2.39370E-3	83.6549E-12	735.154E-3	-56.1144E-3	84.6198E-12	756.849E-3	-16.0220E-3
2.38869E-3	83.3916E-12	730.827E-3	-32.5957E-3	84.3447E-12	748.916E-3	-21.9882E-3
2.38369E-3	83.5033E-12	738.950E-3	-8.57818E-3	84.0569E-12	760.005E-3	-24.0869E-3
2.37869E-3	83.2532E-12	755.660E-3	-7.38995E-3	83.6215E-12	767.815E-3	-32.7119E-3
2.37369E-3	83.1572E-12	753.019E-3	-16.3969E-3	83.3199E-12	763.321E-3	-30.5638E-3
2.36868E-3	82.6155E-12	737.736E-3	-38.6056E-3	82.8458E-12	769.623E-3	-14.6776E-3
2.36368E-3	82.2253E-12	730.647E-3	-46.8709E-3	82.3220E-12	767.760E-3	-6.43073E-3
2.35868E-3	82.2445E-12	738.053E-3	-30.3423E-3	81.7183E-12	744.096E-3	8.54051E-3
2.35368E-3	81.8186E-12	757.559E-3	-12.9730E-3	81.3513E-12	739.866E-3	18.0082E-3
2.34867E-3	81.0572E-12	772.964E-3	-2.73780E-3	80.6102E-12	753.143E-3	421.622E-6
2.34367E-3	81.0141E-12	768.131E-3	2.70926E-3	79.9608E-12	745.894E-3	-10.0361E-3
2.33867E-3	81.3156E-12	749.659E-3	1.26025E-3	79.6715E-12	737.810E-3	-7.41991E-3
2.33367E-3	80.7958E-12	735.442E-3	-3.24765E-3	79.5820E-12	746.874E-3	-19.8859E-3
2.32866E-3	80.2123E-12	739.418E-3	1.07993E-3	79.3330E-12	744.526E-3	-32.5590E-3
2.32366E-3	80.1632E-12	748.212E-3	-2.89567E-3	79.3904E-12	741.983E-3	-29.9074E-3
2.31866E-3	80.0020E-12	740.815E-3	-10.5568E-3	79.6150E-12	747.022E-3	-29.2516E-3
2.31366E-3	79.6692E-12	733.820E-3	4.04524E-3	79.7818E-12	737.020E-3	-26.4578E-3
2.30865E-3	79.6598E-12	738.959E-3	16.9818E-3	79.9005E-12	737.114E-3	-4.95209E-3
2.30365E-3	79.5096E-12	736.060E-3	1.58649E-3	80.1303E-12	767.623E-3	4.90067E-3
2.29865E-3	79.1419E-12	734.410E-3	-20.0647E-3	80.3965E-12	796.713E-3	-13.0881E-3
2.29365E-3	79.1797E-12	747.979E-3	-22.5067E-3	80.2013E-12	803.265E-3	-14.6213E-3
2.28864E-3	79.0360E-12	746.388E-3	-6.64832E-3	79.8373E-12	792.562E-3	4.91562E-3
2.28364E-3	78.8006E-12	746.134E-3	2.44400E-3	79.8207E-12	775.451E-3	4.51657E-3
2.27864E-3	78.4261E-12	773.541E-3	-7.72893E-3	79.1901E-12	771.509E-3	-8.26281E-3
2.27364E-3	78.4639E-12	784.749E-3	-20.9728E-3	78.7248E-12	772.973E-3	-13.7409E-3
2.26863E-3	78.4458E-12	766.163E-3	-23.8836E-3	78.1425E-12	766.559E-3	-20.3962E-3
2.26363E-3	77.6920E-12	758.249E-3	-24.0630E-3	77.6533E-12	761.455E-3	-18.1312E-3
2.25863E-3	77.4340E-12	763.074E-3	-19.5019E-3	76.5964E-12	761.156E-3	-8.99156E-3
2.25363E-3	77.0036E-12	770.652E-3	-5.21654E-3	75.9140E-12	757.940E-3	-15.1936E-3
2.24862E-3	76.8492E-12	784.803E-3	-12.3111E-3	75.6501E-12	751.503E-3	-27.7203E-3
2.24362E-3	76.4772E-12	790.306E-3	-34.1888E-3	75.1588E-12	747.894E-3	-38.8768E-3
2.23862E-3	76.3035E-12	786.403E-3	-32.5454E-3	74.5142E-12	747.073E-3	-47.4648E-3
2.23362E-3	75.6749E-12	784.815E-3	-12.4679E-3	74.3499E-12	760.418E-3	-28.3446E-3
2.22861E-3	75.7285E-12	784.419E-3	-31.2759E-6	74.6034E-12	784.670E-3	-6.64968E-3
2.22361E-3	75.0552E-12	782.332E-3	-3.50442E-3	74.3470E-12	794.589E-3	-7.90778E-3
2.21861E-3	74.7343E-12	784.766E-3	-12.2649E-3	74.1135E-12	784.667E-3	-3.07347E-3
2.21361E-3	73.9953E-12	780.177E-3	-23.3785E-3	74.1436E-12	777.848E-3	-1.56783E-3
2.20860E-3	73.8987E-12	765.260E-3	-25.0637E-3	74.6268E-12	780.522E-3	-21.1221E-3
2.20360E-3	73.3049E-12	764.685E-3	-16.4645E-3	74.5176E-12	789.165E-3	-37.6135E-3
2.19860E-3	72.9236E-12	771.068E-3	-15.6439E-3	74.3222E-12	800.817E-3	-40.0662E-3
2.19360E-3	72.8344E-12	764.568E-3	-20.5513E-3	74.4031E-12	800.601E-3	-43.6222E-3
2.18859E-3	72.5939E-12	759.517E-3	-21.9154E-3	74.3377E-12	787.322E-3	-41.4916E-3
2.18359E-3	72.0850E-12	763.923E-3	-18.9784E-3	73.8218E-12	786.581E-3	-31.5747E-3
2.17859E-3	72.2883E-12	769.309E-3	-17.0924E-3	73.8480E-12	801.060E-3	-30.2678E-3
2.17359E-3	72.3873E-12	777.781E-3	-17.2192E-3	73.2500E-12	801.027E-3	-29.7746E-3
2.16858E-3	72.0880E-12	790.675E-3	-15.4858E-3	72.6199E-12	788.778E-3	-26.1282E-3
2.16358E-3	71.9226E-12	791.802E-3	-22.2794E-3	71.9279E-12	773.702E-3	-23.2567E-3
2.15858E-3	71.8955E-12	776.391E-3	-31.9466E-3	71.5040E-12	764.886E-3	-24.6697E-3
2.15358E-3	71.7758E-12	770.476E-3	-20.1871E-3	71.3826E-12	779.771E-3	-20.2274E-3
2.14857E-3	71.4680E-12	784.268E-3	-15.3896E-3	70.7492E-12	795.763E-3	-18.7524E-3
2.14357E-3	71.2284E-12	798.635E-3	-37.3479E-3	69.8270E-12	789.159E-3	-27.0658E-3
2.13857E-3	70.5735E-12	798.753E-3	-47.1547E-3	70.0004E-12	783.759E-3	-15.1989E-3
2.13357E-3	70.4206E-12	787.112E-3	-41.0159E-3	69.8510E-12	785.690E-3	-3.39650E-3
2.12856E-3	70.3013E-12	781.359E-3	-23.6249E-3	69.2921E-12	777.488E-3	-15.3623E-3
2.12356E-3	69.4471E-12	800.408E-3	-2.70620E-3	69.0015E-12	779.440E-3	-17.6440E-3
2.11856E-3	68.6909E-12	818.416E-3	-5.27641E-3	69.5784E-12	799.539E-3	-6.16500E-3
2.11356E-3	68.6431E-12	808.991E-3	-19.5035E-3	69.2578E-12	807.842E-3	3.01895E-3
2.10855E-3	68.2783E-12	799.697E-3	-39.5466E-3	69.3874E-12	809.909E-3	8.34401E-3
2.10355E-3	67.7734E-12	795.564E-3	-49.5363E-3	69.1908E-12	816.449E-3	-3.83830E-3
2.09855E-3	67.6696E-12	787.393E-3	-30.1140E-3	68.8804E-12	812.991E-3	-12.6781E-3
2.09355E-3	67.6279E-12	787.369E-3	-14.4857E-3	68.6307E-12	812.790E-3	-3.11098E-3
2.08854E-3	67.7017E-12	795.600E-3	-16.6875E-3	68.4887E-12	821.806E-3	359.558E-6
2.08354E-3	67.4957E-12	802.757E-3	-16.1503E-3	68.2885E-12	811.095E-3	3.63331E-3
2.07854E-3	67.5920E-12	804.292E-3	-24.1805E-3	67.9768E-12	790.304E-3	-3.86587E-3
2.07354E-3	67.4046E-12	801.307E-3	-34.9025E-3	67.9000E-12	796.217E-3	-33.8403E-3
2.06853E-3	67.4436E-12	802.297E-3	-27.0228E-3	67.3877E-12	813.930E-3	-45.8548E-3
2.06353E-3	67.0210E-12	810.019E-3	-15.5712E-3	66.7939E-12	821.008E-3	-34.2491E-3
2.05853E-3	66.9739E-12	811.121E-3	-5.30839E-3	66.7631E-12	824.325E-3	-29.6967E-3
2.05353E-3	66.5189E-12	802.910E-3	3.23976E-3	66.0906E-12	821.502E-3	-24.9023E-3
2.04852E-3	66.1285E-12	809.023E-3	2.35875E-3	65.4252E-12	817.875E-3	-15.1659E-3
2.04352E-3	65.8524E-12	826.639E-3	-4.76981E-3	65.3114E-12	816.839E-3	-15.0539E-3
2.03852E-3	65.3504E-12	826.628E-3	-14.5688E-3	64.8109E-12	818.646E-3	-26.9541E-3
2.03352E-3	64.8829E-12	819.783E-3	-29.8734E-3	64.1669E-12	816.250E-3	-35.5893E-3
2.02851E-3	64.3988E-12	825.094E-3	-37.7243E-3	64.1364E-12	794.571E-3	-25.9961E-3
2.02351E-3	64.2128E-12	826.930E-3	-23.6015E-3	63.8974E-12	783.871E-3	-8.99072E-3
2.01851E-3	63.7624E-12	825.400E-3	-6.37190E-3	63.3947E-12	810.868E-3	-1.49767E-3
2.01351E-3	63.6094E-12	829.941E-3	841.362E-6	63.1172E-12	840.739E-3	-5.73298E-3
2.00850E-3	63.4660E-12	830.431E-3	1.51854E-3	63.1411E-12	842.876E-3	-13.7744E-3
2.00350E-3	63.1699E-12	829.846E-3	-3.78595E-3	62.7761E-12	835.768E-3	-22.9742E-3
1.99850E-3	62.7608E-12	839.648E-3	-4.96767E-3	62.2355E-12	847.623E-3	-25.3857E-3
1.99350E-3	62.8924E-12	854.715E-3	-7.84031E-3	62.3356E-12	858.832E-3	-28.8180E-3
1.98849E-3	62.9973E-12	868.458E-3	-17.6500E-3	62.4030E-12	841.293E-3	-27.1429E-3
1.98349E-3	62.2486E-12	870.216E-3	-18.9062E-3	61.9155E-12	837.513E-3	-14.5844E-3
1.97849E-3	62.3180E-12	860.784E-3	-13.8800E-3	61.8345E-12	852.536E-3	-16.5012E-3
1.97349E-3	62.2301E-12	853.070E-3	-14.2729E-3	61.8853E-12	839.328E-3	-19.6760E-3
1.96848E-3	61.8565E-12	855.642E-3	-18.3692E-3	61.7423E-12	836.206E-3	-14.0934E-3
1.96348E-3	61.2749E-12	866.861E-3	-21.8362E-3	61.3693E-12	857.913E-3	-11.8053E-3
1.95848E-3	61.0540E-12	870.059E-3	-25.1580E-3	61.0267E-12	852.954E-3	-12.0481E-3
1.95348E-3	60.7264E-12	860.831E-3	-27.4336E-3	60.6169E-12	827.737E-3	-17.9561E-3
1.94847E-3	60.1761E-12	848.455E-3	-20.6842E-3	60.1424E-12	820.623E-3	-20.1808E-3
1.94347E-3	59.8265E-12	843.097E-3	-7.23948E-3	59.7875E-12	831.019E-3	-12.0388E-3
1.93847E-3	59.4371E-12	858.149E-3	922.537E-6	59.4045E-12	841.742E-3	-2.98995E-3
1.93347E-3	59.1265E-12	872.927E-3	-5.53362E-3	58.7697E-12	847.797E-3	-4.44114E-3
1.92846E-3	59.0852E-12	866.774E-3	-14.6688E-3	58.2389E-12	840.152E-3	-13.2749E-3
1.92346E-3	58.6922E-12	865.483E-3	-8.59620E-3	57.9348E-12	832.542E-3	-13.8713E-3
1.91846E-3	58.1209E-12	870.770E-3	2.30720E-3	57.4928E-12	849.615E-3	-8.79110E-3
1.91346E-3	57.8478E-12	872.160E-3	5.42432E-3	57.0668E-12	872.672E-3	-4.89129E-3
1.90845E-3	57.9098E-12	869.645E-3	-2.59406E-3	56.9290E-12	881.179E-3	-12.0357E-3
1.90345E-3	57.3657E-12	853.778E-3	-15.3750E-3	56.9529E-12	880.688E-3	-29.2375E-3
1.89845E-3	57.1327E-12	851.866E-3	-19.3889E-3	56.9071E-12	882.362E-3	-35.9663E-3
1.89345E-3	56.7202E-12	874.580E-3	-12.5325E-3	56.7456E-12	899.508E-3	-31.5007E-3
1.88844E-3	56.6784E-12	881.704E-3	-15.4873E-3	56.8836E-12	923.138E-3	-34.6557E-3
1.88344E-3	56.3948E-12	867.456E-3	-31.4276E-3	57.0126E-12	924.108E-3	-43.6579E-3
1.87844E-3	56.0439E-12	856.948E-3	-31.5061E-3	56.9666E-12	914.892E-3	-40.5524E-3
1.87344E-3	55.5814E-12	865.072E-3	-13.4645E-3	56.6939E-12	918.761E-3	-32.7484E-3
1.86843E-3	55.2471E-12	879.245E-3	-1.51749E-3	56.5795E-12	921.660E-3	-37.9472E-3
1.86343E-3	55.1930E-12	890.193E-3	-5.57490E-3	56.4920E-12	920.096E-3	-31.4734E-3
1.85843E-3	54.7922E-12	890.633E-3	-10.6901E-3	55.9981E-12	925.563E-3	-9.47390E-3
1.85343E-3	54.1496E-12	872.885E-3	-3.72191E-3	55.2229E-12	913.482E-3	-12.6398E-3
1.84842E-3	53.9807E-12	865.721E-3	-6.94975E-3	54.8020E-12	894.379E-3	-15.8578E-3
1.84342E-3	53.9985E-12	876.808E-3	-21.1664E-3	54.6574E-12	911.548E-3	-4.60954E-3
1.83842E-3	53.4368E-12	890.154E-3	-20.2733E-3	54.0876E-12	926.960E-3	-19.1276E-3
1.83342E-3	53.3149E-12	891.297E-3	-19.0604E-3	53.6485E-12	911.270E-3	-33.6744E-3
1.82841E-3	53.1826E-12	873.290E-3	-28.0052E-3	52.9921E-12	893.043E-3	-24.1384E-3
1.82341E-3	52.9555E-12	870.544E-3	-29.9727E-3	52.5553E-12	885.757E-3	-19.1834E-3
1.81841E-3	52.6340E-12	893.692E-3	-23.8624E-3	51.9669E-12	898.274E-3	-21.8603E-3
1.81341E-3	52.2950E-12	917.170E-3	-20.2291E-3	51.3832E-12	932.696E-3	-13.3304E-3
1.80840E-3	51.9690E-12	924.854E-3	-11.4911E-3	51.3350E-12	948.693E-3	-3.28110E-3
1.80340E-3	51.7025E-12	918.645E-3	-10.8467E-3	51.1924E-12	945.084E-3	-4.85467E-3
1.79840E-3	51.5515E-12	916.132E-3	-25.8656E-3	50.9268E-12	945.682E-3	-12.5671E-3
1.79340E-3	51.0563E-12	929.882E-3	-26.0670E-3	50.9416E-12	929.782E-3	-16.3922E-3
1.78839E-3	50.6976E-12	941.283E-3	-18.4227E-3	51.1291E-12	920.715E-3	-8.08590E-3
1.78339E-3	50.3984E-12	938.471E-3	-13.7702E-3	50.9422E-12	944.349E-3	5.53538E-3
1.77839E-3	50.1432E-12	925.329E-3	-10.6766E-3	50.6207E-12	958.885E-3	4.44635E-3
1.77339E-3	49.8529E-12	908.035E-3	-15.6966E-3	50.4059E-12	953.732E-3	-15.1693E-3
1.76838E-3	49.4080E-12	912.159E-3	-14.6092E-3	50.2386E-12	959.519E-3	-17.1692E-3
1.76338E-3	49.0946E-12	941.820E-3	-11.0824E-3	49.7076E-12	974.003E-3	319.240E-6
1.75838E-3	48.9590E-12	963.937E-3	-22.5986E-3	49.3780E-12	971.468E-3	-904.288E-6
1.75338E-3	48.7615E-12	960.706E-3	-25.0316E-3	48.9703E-12	959.216E-3	-13.4768E-3
1.74837E-3	48.4514E-12	949.757E-3	-6.15723E-3	48.6072E-12	967.944E-3	-17.2742E-3
1.74337E-3	48.3302E-12	954.462E-3	3.15799E-3	48.1576E-12	973.096E-3	-8.10333E-3
1.73837E-3	48.0793E-12	958.541E-3	-3.25388E-3	47.7264E-12	959.680E-3	13.3982E-3
1.73337E-3	47.8160E-12	951.280E-3	-15.7311E-3	47.0112E-12	955.522E-3	24.5956E-3
1.72836E-3	47.3633E-12	955.255E-3	-33.0090E-3	46.5464E-12	960.090E-3	15.5611E-3
1.72336E-3	47.2005E-12	958.702E-3	-30.6510E-3	46.4855E-12	968.216E-3	2.63499E-3
1.71836E-3	46.5526E-12	952.970E-3	3.05957E-3	46.0216E-12	975.503E-3	-6.32618E-3
1.71336E-3	45.9324E-12	957.013E-3	28.4449E-3	45.6302E-12	971.353E-3	-14.6359E-3
1.70835E-3	45.6479E-12	975.397E-3	23.2487E-3	45.1772E-12	977.654E-3	-16.4306E-3
1.70335E-3	45.4486E-12	987.976E-3	270.272E-6	45.1960E-12	1.00026E+0	-22.4990E-3
1.69835E-3	44.7701E-12	989.704E-3	-18.8942E-3	44.7951E-12	1.01089E+0	-38.3701E-3
1.69335E-3	44.3025E-12	997.103E-3	-22.9068E-3	44.5259E-12	1.01040E+0	-35.4407E-3
1.68834E-3	43.9619E-12	1.00144E+0	-19.2169E-3	44.3928E-12	1.00685E+0	-20.2963E-3
1.68334E-3	43.7129E-12	1.00561E+0	-15.6038E-3	44.1541E-12	997.503E-3	-20.2303E-3
1.67834E-3	43.4786E-12	1.00881E+0	-20.6257E-3	43.8718E-12	995.611E-3	-23.1793E-3
1.67334E-3	43.0343E-12	998.099E-3	-22.4873E-3	43.6579E-12	1.01472E+0	-17.7759E-3
1.66833E-3	42.8658E-12	993.209E-3	-16.1310E-3	43.4832E-12	1.02853E+0	-18.8120E-3
1.66333E-3	42.6631E-12	1.00025E+0	-15.5179E-3	43.1217E-12	1.01989E+0	-21.9026E-3
1.65833E-3	42.4569E-12	1.00045E+0	-20.1873E-3	42.6700E-12	1.02555E+0	-9.07131E-3
1.65333E-3	42.2463E-12	998.635E-3	-29.0858E-3	42.4672E-12	1.05190E+0	-256.758E-6
1.64832E-3	42.1174E-12	1.01040E+0	-29.8549E-3	41.9560E-12	1.04828E+0	-15.7583E-3
1.64332E-3	41.8857E-12	1.02291E+0	-26.5737E-3	41.5331E-12	1.03744E+0	-29.0913E-3
1.63832E-3	41.5175E-12	1.02734E+0	-30.2645E-3	41.2181E-12	1.05384E+0	-27.7653E-3
1.63332E-3	41.0963E-12	1.03403E+0	-26.1955E-3	40.6786E-12	1.05159E+0	-25.4311E-3
1.62831E-3	40.7767E-12	1.03642E+0	-23.1314E-3	40.2730E-12	1.04826E+0	-25.3970E-3
1.62331E-3	40.3043E-12	1.02701E+0	-25.4398E-3	40.0245E-12	1.06513E+0	-25.8183E-3
1.61831E-3	39.4047E-12	1.02997E+0	-19.8427E-3	39.3675E-12	1.06127E+0	-20.3114E-3
1.61331E-3	38.9575E-12	1.04745E+0	-5.34086E-3	38.9535E-12	1.05325E+0	-13.3165E-3
1.60830E-3	38.6585E-12	1.05504E+0	9.06207E-3	38.6616E-12	1.05816E+0	-14.2298E-3
1.60330E-3	38.1988E-12	1.05681E+0	5.11791E-3	38.4060E-12	1.07178E+0	-11.7194E-3
1.59830E-3	37.3345E-12	1.05377E+0	-8.65902E-3	37.8646E-12	1.09415E+0	-5.50922E-3
1.59330E-3	37.1861E-12	1.04093E+0	-7.74168E-3	37.6212E-12	1.09313E+0	-12.1204E-3
1.58829E-3	37.1033E-12	1.03569E+0	4.36155E-3	37.5902E-12	1.07560E+0	-19.2112E-3
1.58329E-3	36.7110E-12	1.04929E+0	9.66668E-3	37.3208E-12	1.08543E+0	-11.1882E-3
1.57829E-3	36.2289E-12	1.06677E+0	726.999E-6	36.8583E-12	1.11185E+0	-5.23610E-3
1.57329E-3	36.1581E-12	1.07350E+0	-15.0678E-3	36.7980E-12	1.11234E+0	-11.9517E-3
1.56828E-3	35.8955E-12	1.06883E+0	-20.9119E-3	36.4935E-12	1.10465E+0	-19.1123E-3
1.56328E-3	35.5470E-12	1.06794E+0	-18.9252E-3	36.0516E-12	1.12224E+0	-19.5159E-3
1.55828E-3	35.3397E-12	1.08416E+0	-25.0334E-3	35.6770E-12	1.13077E+0	-16.6494E-3
1.55328E-3	34.9322E-12	1.09949E+0	-32.8026E-3	35.4781E-12	1.12365E+0	-8.94175E-3
1.54827E-3	34.7899E-12	1.10248E+0	-25.0882E-3	35.0443E-12	1.12774E+0	-12.6029E-3
1.54327E-3	34.3792E-12	1.10119E+0	-17.8396E-6	34.4772E-12	1.13698E+0	-33.6340E-3
1.53827E-3	33.9813E-12	1.10083E+0	17.7929E-3	34.0791E-12	1.14088E+0	-34.9910E-3
1.53327E-3	33.5947E-12	1.11268E+0	19.2625E-3	33.8708E-12	1.14084E+0	-29.8547E-3
1.52826E-3	33.2751E-12	1.13191E+0	4.19692E-3	33.2169E-12	1.13121E+0	-33.3173E-3
1.52326E-3	32.6376E-12	1.13378E+0	-27.2607E-3	32.4880E-12	1.11664E+0	-26.4638E-3
1.51826E-3	32.1558E-12	1.12218E+0	-34.3742E-3	31.9489E-12	1.11780E+0	-24.5119E-3
1.51326E-3	31.8913E-12	1.12199E+0	-15.9067E-3	31.7349E-12	1.11339E+0	-34.2311E-3
1.50825E-3	31.5220E-12	1.14015E+0	-11.7289E-3	31.1591E-12	1.10255E+0	-32.3761E-3
1.50325E-3	31.1015E-12	1.15338E+0	-14.8646E-3	30.5334E-12	1.11159E+0	-13.2321E-3
1.49825E-3	30.7604E-12	1.15413E+0	-14.0275E-3	30.1587E-12	1.12802E+0	-3.18268E-3
1.49325E-3	30.4069E-12	1.14802E+0	-8.22173E-3	29.9607E-12	1.13492E+0	-8.01029E-3
1.48824E-3	30.0882E-12	1.15111E+0	-4.71334E-3	29.5671E-12	1.14040E+0	-8.66980E-3
1.48324E-3	29.7000E-12	1.16287E+0	-15.0689E-3	29.0631E-12	1.15040E+0	-10.9735E-3
1.47824E-3	29.2834E-12	1.15787E+0	-18.8449E-3	28.9128E-12	1.15543E+0	-16.8682E-3
1.47324E-3	29.0018E-12	1.15559E+0	-14.7114E-3	28.7779E-12	1.16245E+0	-17.4038E-3
1.46823E-3	28.6963E-12	1.16527E+0	-15.5046E-3	28.4525E-12	1.16958E+0	-28.0946E-3
1.46323E-3	28.1136E-12	1.16461E+0	-16.1163E-3	28.0307E-12	1.16967E+0	-36.7547E-3
1.45823E-3	27.6891E-12	1.16731E+0	-9.88021E-3	27.7936E-12	1.17154E+0	-27.3795E-3
1.45323E-3	27.4501E-12	1.18132E+0	-2.90863E-3	27.6509E-12	1.18024E+0	-19.6541E-3
1.44822E-3	27.1086E-12	1.18951E+0	-1.36042E-3	27.1279E-12	1.18654E+0	-19.5428E-3
1.44322E-3	26.5489E-12	1.19132E+0	-625.654E-6	26.6975E-12	1.18390E+0	-26.6826E-3
1.43822E-3	26.2260E-12	1.18900E+0	-4.19862E-3	26.6059E-12	1.17743E+0	-44.6231E-3
1.43322E-3	25.9435E-12	1.18297E+0	-10.3026E-3	26.2192E-12	1.16322E+0	-50.4843E-3
1.42821E-3	25.6407E-12	1.17394E+0	-5.58917E-3	25.5550E-12	1.14585E+0	-28.3348E-3
1.42321E-3	25.0424E-12	1.16616E+0	-3.55923E-3	24.9335E-12	1.14601E+0	-22.8305E-3
1.41821E-3	24.6072E-12	1.15936E+0	-16.9735E-3	24.5049E-12	1.14924E+0	-32.8547E-3
1.41321E-3	24.5477E-12	1.14856E+0	-25.4889E-3	23.8628E-12	1.13799E+0	-13.3536E-3
1.40820E-3	24.1605E-12	1.15251E+0	-22.4191E-3	23.3964E-12	1.12792E+0	7.34827E-3
1.40320E-3	23.6354E-12	1.17732E+0	-18.2522E-3	22.8974E-12	1.12228E+0	3.08742E-3
1.39820E-3	23.2164E-12	1.19368E+0	-19.4711E-3	22.4839E-12	1.12432E+0	-7.36488E-3
1.39320E-3	22.9846E-12	1.18967E+0	-25.2486E-3	22.0422E-12	1.13340E+0	-17.9691E-3
1.38819E-3	22.5017E-12	1.18813E+0	-30.3548E-3	21.7108E-12	1.13718E+0	-27.6532E-3
1.38319E-3	22.0506E-12	1.18517E+0	-28.4676E-3	21.4763E-12	1.13597E+0	-21.2222E-3
1.37819E-3	21.6983E-12	1.16396E+0	-15.5856E-3	21.1941E-12	1.13507E+0	-11.8022E-3
1.37319E-3	21.3364E-12	1.15523E+0	-9.22586E-3	20.8361E-12	1.13176E+0	-20.9532E-3
1.36818E-3	20.8604E-12	1.15675E+0	-10.7065E-3	20.7109E-12	1.12574E+0	-23.4762E-3
1.36318E-3	20.3486E-12	1.14230E+0	-10.6259E-3	20.3945E-12	1.13558E+0	-16.4031E-3
1.35818E-3	19.9770E-12	1.13177E+0	-15.4215E-3	20.1975E-12	1.13946E+0	-11.2815E-3
1.35318E-3	19.6113E-12	1.13714E+0	-18.5483E-3	19.9139E-12	1.12147E+0	3.25330E-3
1.34817E-3	19.1975E-12	1.14195E+0	-16.7675E-3	19.4943E-12	1.12136E+0	10.7514E-3
1.34317E-3	18.7739E-12	1.13224E+0	-20.0582E-3	19.1062E-12	1.12613E+0	1.22684E-3
1.33817E-3	18.5209E-12	1.11786E+0	-25.2998E-3	18.9517E-12	1.10651E+0	6.33275E-3
1.33317E-3	18.2486E-12	1.10902E+0	-26.2780E-3	18.5540E-12	1.08315E+0	19.2997E-3
1.32816E-3	17.8076E-12	1.09114E+0	-17.6432E-3	17.9567E-12	1.07021E+0	1.89808E-3
1.32316E-3	17.4031E-12	1.07377E+0	-8.79444E-3	17.5285E-12	1.06652E+0	-17.7308E-3
1.31816E-3	17.2105E-12	1.07615E+0	-19.1423E-3	17.1995E-12	1.06540E+0	-11.3476E-3
1.31316E-3	17.0151E-12	1.08351E+0	-29.0896E-3	16.7915E-12	1.04732E+0	-14.4858E-3
1.30815E-3	16.5772E-12	1.08082E+0	-22.1712E-3	16.2540E-12	1.01364E+0	-22.2074E-3
1.30315E-3	16.1754E-12	1.07239E+0	-9.36124E-3	15.9079E-12	994.213E-3	-10.4350E-3
1.29815E-3	15.8952E-12	1.06231E+0	-9.38114E-3	15.5652E-12	992.348E-3	-8.99825E-3
1.29315E-3	15.5468E-12	1.05257E+0	-23.1830E-3	15.1911E-12	990.751E-3	-11.7351E-3
1.28814E-3	15.0534E-12	1.03853E+0	-26.1441E-3	14.7490E-12	990.776E-3	160.069E-6
1.28314E-3	14.7366E-12	1.02498E+0	-18.2271E-3	14.4583E-12	992.703E-3	7.09983E-3
1.27814E-3	14.4012E-12	1.02938E+0	-15.1584E-3	14.2967E-12	984.310E-3	10.9616E-3
1.27314E-3	14.0098E-12	1.03117E+0	-15.6475E-3	13.9448E-12	972.304E-3	-65.6912E-6
1.26813E-3	13.5758E-12	1.00827E+0	-20.1811E-3	13.6999E-12	973.844E-3	-30.0963E-3
1.26313E-3	13.3092E-12	980.156E-3	-28.3852E-3	13.4723E-12	969.948E-3	-40.4020E-3
1.25813E-3	13.0097E-12	959.667E-3	-25.2450E-3	13.1564E-12	953.174E-3	-26.4903E-3
1.25313E-3	12.5982E-12	946.655E-3	-17.2951E-3	12.8771E-12	940.065E-3	-19.7800E-3
1.24812E-3	12.2598E-12	944.134E-3	-14.7867E-3	12.5586E-12	925.906E-3	-27.8948E-3
1.24312E-3	11.9476E-12	941.598E-3	-11.6119E-3	12.2977E-12	906.985E-3	-25.1284E-3
1.23812E-3	11.7916E-12	925.958E-3	-19.2581E-3	12.0198E-12	888.777E-3	-19.7589E-3
1.23312E-3	11.4874E-12	905.617E-3	-26.7155E-3	11.7131E-12	872.549E-3	-21.8519E-3
1.22811E-3	11.1457E-12	899.528E-3	-13.9929E-3	11.3260E-12	858.947E-3	-4.68104E-3
1.22311E-3	10.9665E-12	898.774E-3	-4.39318E-3	11.0922E-12	846.288E-3	2.82851E-3
1.21811E-3	10.7589E-12	881.481E-3	-8.94730E-3	10.7157E-12	833.414E-3	-17.8837E-3
1.21311E-3	10.3756E-12	859.822E-3	-12.3135E-3	10.3072E-12	824.038E-3	-26.7763E-3
1.20810E-3	10.1022E-12	852.561E-3	-9.94251E-3	9.93783E-12	805.904E-3	-19.2695E-3
1.20310E-3	9.91441E-12	846.744E-3	-8.14078E-3	9.79782E-12	774.246E-3	-12.4794E-3
1.19810E-3	9.67313E-12	834.977E-3	-8.26420E-3	9.44217E-12	751.166E-3	-4.43361E-3
1.19310E-3	9.27225E-12	817.668E-3	-6.36209E-3	9.07219E-12	747.128E-3	1.55137E-3
1.18809E-3	8.94057E-12	795.477E-3	-230.007E-6	8.84674E-12	736.626E-3	6.73620E-3
1.18309E-3	8.68957E-12	778.828E-3	9.07016E-3	8.68173E-12	711.024E-3	18.9986E-3
1.17809E-3	8.52326E-12	769.105E-3	5.87822E-3	8.39902E-12	690.103E-3	14.9504E-3
1.17309E-3	8.22794E-12	757.959E-3	-15.8179E-3	8.12343E-12	677.349E-3	-13.1741E-3
1.16808E-3	7.88466E-12	742.678E-3	-30.8032E-3	7.89088E-12	666.611E-3	-24.8815E-3
1.16308E-3	7.73605E-12	719.303E-3	-25.8952E-3	7.77302E-12	658.718E-3	-17.2302E-3
1.15808E-3	7.60289E-12	695.770E-3	-15.8777E-3	7.55547E-12	642.279E-3	-16.6993E-3
1.15308E-3	7.20413E-12	683.759E-3	-7.56649E-3	7.28735E-12	608.506E-3	-13.5208E-3
1.14807E-3	7.04047E-12	671.064E-3	-122.166E-6	7.12763E-12	590.234E-3	-11.2143E-3
1.14307E-3	6.89213E-12	651.078E-3	-5.76032E-3	6.96300E-12	588.429E-3	-23.3315E-3
1.13807E-3	6.78007E-12	635.698E-3	-17.4890E-3	6.74756E-12	572.679E-3	-29.6524E-3
1.13307E-3	6.50764E-12	628.335E-3	-17.8433E-3	6.52895E-12	554.204E-3	-18.4612E-3
1.12806E-3	6.30674E-12	619.274E-3	-12.1146E-3	6.33507E-12	535.745E-3	-18.7269E-3
1.12306E-3	6.18183E-12	606.657E-3	-16.4204E-3	6.07260E-12	508.325E-3	-30.5835E-3
1.11806E-3	5.95184E-12	589.913E-3	-24.1307E-3	5.82622E-12	493.466E-3	-25.5374E-3
1.11306E-3	5.76535E-12	568.131E-3	-21.5255E-3	5.64547E-12	491.285E-3	-20.1966E-3
1.10805E-3	5.61104E-12	549.568E-3	-14.6739E-3	5.46689E-12	471.599E-3	-19.5080E-3
1.10305E-3	5.47897E-12	533.662E-3	-8.92212E-3	5.26941E-12	447.221E-3	-15.0886E-3
1.09805E-3	5.23238E-12	521.883E-3	-3.47599E-3	5.05825E-12	440.166E-3	-14.3050E-3
1.09305E-3	5.02466E-12	512.427E-3	795.175E-6	4.87655E-12	434.028E-3	-9.70911E-3
1.08804E-3	4.90947E-12	499.750E-3	3.22090E-3	4.75848E-12	423.053E-3	-3.04559E-3
1.08304E-3	4.82588E-12	479.952E-3	3.55562E-3	4.61880E-12	402.354E-3	-4.58619E-3
1.07804E-3	4.54679E-12	454.713E-3	-6.43158E-3	4.40072E-12	373.817E-3	-11.6191E-3
1.07304E-3	4.38396E-12	436.473E-3	-18.4137E-3	4.24341E-12	373.244E-3	-9.79776E-3
1.06803E-3	4.28882E-12	428.773E-3	-24.6717E-3	4.17144E-12	389.153E-3	-4.31540E-3
1.06303E-3	4.20501E-12	420.240E-3	-23.7197E-3	4.06266E-12	377.533E-3	-8.56688E-3
1.05803E-3	4.08430E-12	397.504E-3	-17.8276E-3	3.89970E-12	357.009E-3	-15.5634E-3
1.05303E-3	3.88312E-12	379.777E-3	-15.6580E-3	3.84711E-12	348.298E-3	-22.5766E-3
1.04802E-3	3.78618E-12	381.381E-3	-11.5423E-3	3.74055E-12	328.107E-3	-27.2014E-3
1.04302E-3	3.82531E-12	375.147E-3	-6.53871E-3	3.84935E-12	308.062E-3	-24.2318E-3
1.03802E-3	3.58999E-12	361.291E-3	-9.94591E-3	3.57132E-12	299.416E-3	-25.2512E-3
1.03302E-3	3.29730E-12	355.731E-3	-15.8558E-3	3.34955E-12	285.467E-3	-34.0061E-3
1.02801E-3	3.18262E-12	344.583E-3	-20.3924E-3	3.20891E-12	266.697E-3	-27.5568E-3
1.02301E-3	3.02731E-12	326.171E-3	-23.2910E-3	2.99268E-12	252.110E-3	-10.8525E-3
1.01801E-3	2.83907E-12	307.865E-3	-20.5678E-3	2.83791E-12	240.422E-3	-18.6941E-3
1.01301E-3	2.67974E-12	288.862E-3	-21.9544E-3	2.77686E-12	225.144E-3	-31.2135E-3
1.00800E-3	2.69465E-12	264.638E-3	-23.0439E-3	2.65527E-12	215.473E-3	-26.4494E-3
1.00300E-3	2.57353E-12	244.283E-3	-12.6114E-3	2.59597E-12	205.394E-3	-24.0438E-3
997.999E-6	2.49524E-12	240.253E-3	-7.37878E-3	2.53565E-12	180.913E-3	-16.2028E-3
992.997E-6	2.45753E-12	235.205E-3	-20.6132E-3	2.40416E-12	171.412E-3	857.230E-6
987.994E-6	2.35141E-12	219.147E-3	-28.5673E-3	2.29434E-12	177.405E-3	1.04113E-3
982.991E-6	2.28527E-12	204.998E-3	-29.6672E-3	2.24799E-12	166.371E-3	-6.01058E-3
977.989E-6	2.22944E-12	192.727E-3	-31.9124E-3	2.22712E-12	162.527E-3	-5.05420E-3
972.986E-6	2.16167E-12	193.221E-3	-22.1052E-3	2.18222E-12	173.044E-3	-15.9376E-3
967.984E-6	2.14613E-12	203.948E-3	-9.62090E-3	2.06952E-12	165.576E-3	-25.6413E-3
962.981E-6	2.02956E-12	196.633E-3	-5.09511E-3	2.01034E-12	157.288E-3	-11.6979E-3
957.979E-6	1.93893E-12	169.208E-3	-3.40350E-3	1.95392E-12	157.557E-3	122.803E-6
952.976E-6	1.96785E-12	154.112E-3	-816.929E-6	1.99906E-12	145.493E-3	-7.20398E-3
947.974E-6	1.95113E-12	171.363E-3	-256.714E-6	1.95162E-12	137.305E-3	-14.2011E-3
942.971E-6	1.79393E-12	186.727E-3	-12.2866E-3	1.83828E-12	140.489E-3	-24.0444E-3
937.969E-6	1.75563E-12	166.245E-3	-28.5153E-3	1.84666E-12	127.364E-3	-28.2526E-3
932.966E-6	1.70815E-12	131.072E-3	-29.3827E-3	1.81418E-12	105.247E-3	-11.4577E-3
927.964E-6	1.73661E-12	115.452E-3	-18.9581E-3	1.76592E-12	96.3296E-3	-2.75548E-3
922.961E-6	1.63524E-12	121.419E-3	-1.86626E-3	1.64601E-12	94.3366E-3	-5.25308E-3
917.959E-6	1.52453E-12	125.194E-3	5.11032E-3	1.62944E-12	96.2294E-3	-13.0336E-3
912.956E-6	1.52773E-12	113.168E-3	-12.4515E-3	1.64153E-12	98.2162E-3	-32.8185E-3
907.954E-6	1.54959E-12	87.8477E-3	-33.3588E-3	1.60156E-12	92.6962E-3	-41.0116E-3
902.951E-6	1.48330E-12	70.4558E-3	-32.7345E-3	1.48561E-12	96.0119E-3	-24.1507E-3
897.949E-6	1.44026E-12	79.0565E-3	-21.2210E-3	1.49039E-12	99.7168E-3	-8.67436E-3
892.946E-6	1.42138E-12	96.6601E-3	-19.7008E-3	1.46750E-12	74.3191E-3	-6.35487E-3
887.944E-6	1.39970E-12	104.809E-3	-22.2959E-3	1.42118E-12	51.2192E-3	-2.02843E-3
882.941E-6	1.36658E-12	95.5711E-3	-23.7768E-3	1.37163E-12	57.9375E-3	-4.22233E-3
877.939E-6	1.40403E-12	77.0253E-3	-22.1748E-3	1.31692E-12	68.0489E-3	-12.9402E-3
872.936E-6	1.30694E-12	70.1208E-3	-16.1129E-3	1.28935E-12	70.3423E-3	-7.09747E-3
867.934E-6	1.29105E-12	73.3380E-3	-11.7731E-3	1.25997E-12	76.9145E-3	-9.61871E-3
862.931E-6	1.24687E-12	77.2414E-3	-9.44400E-3	1.29420E-12	78.7779E-3	-24.2655E-3
857.929E-6	1.27861E-12	75.3911E-3	-8.65860E-3	1.22987E-12	68.4423E-3	-17.1286E-3
852.926E-6	1.22744E-12	64.5982E-3	-7.64945E-3	1.17639E-12	65.0095E-3	-4.31452E-3
847.924E-6	1.18358E-12	57.8533E-3	-6.44030E-3	1.17077E-12	63.2109E-3	-10.3283E-3
842.921E-6	1.16005E-12	55.3098E-3	-13.0737E-3	1.21791E-12	52.0095E-3	-19.0086E-3
837.919E-6	1.18558E-12	55.3919E-3	-13.0054E-3	1.17281E-12	50.3241E-3	-16.4251E-3
832.916E-6	1.18913E-12	55.8739E-3	-6.56921E-3	1.15338E-12	54.5399E-3	-8.08849E-3
827.914E-6	1.09300E-12	48.5741E-3	-10.2839E-3	1.08406E-12	52.0640E-3	-2.22092E-3
822.911E-6	1.05659E-12	46.3866E-3	-5.14026E-3	1.08259E-12	52.3555E-3	-8.86714E-3
817.909E-6	1.06497E-12	58.3222E-3	-1.44860E-3	1.12631E-12	45.0010E-3	-24.2957E-3
812.906E-6	1.11701E-12	64.6261E-3	-20.8881E-3	1.04669E-12	27.6041E-3	-32.8633E-3
807.904E-6	1.04101E-12	52.6129E-3	-38.9090E-3	1.01437E-12	24.1646E-3	-24.5590E-3
802.901E-6	956.933E-15	41.7815E-3	-37.2565E-3	996.824E-15	30.4858E-3	-9.51067E-3
797.899E-6	1.00348E-12	43.4316E-3	-30.4065E-3	1.01634E-12	27.3346E-3	-10.0804E-3
792.896E-6	1.08151E-12	46.9735E-3	-24.0896E-3	1.02504E-12	22.2553E-3	-16.7409E-3
787.894E-6	947.734E-15	51.2275E-3	-13.1358E-3	947.072E-15	22.3854E-3	-20.8862E-3
782.891E-6	950.272E-15	52.0420E-3	-11.4811E-3	899.264E-15	17.9255E-3	-21.1822E-3
777.889E-6	1.00583E-12	45.1929E-3	-18.5020E-3	962.400E-15	21.7999E-3	-11.2920E-3
772.886E-6	982.027E-15	35.5984E-3	-20.1903E-3	905.358E-15	32.8425E-3	-12.1969E-3
767.884E-6	930.322E-15	23.8619E-3	-10.3538E-3	843.905E-15	28.7338E-3	-30.5621E-3
762.881E-6	895.846E-15	23.1074E-3	4.17200E-3	863.009E-15	23.8716E-3	-36.0102E-3
757.879E-6	908.166E-15	30.7631E-3	-6.11689E-3	798.085E-15	26.9359E-3	-25.9118E-3
752.876E-6	867.674E-15	41.4654E-3	-34.3320E-3	803.290E-15	22.3602E-3	-19.4721E-3
747.874E-6	858.265E-15	53.3941E-3	-41.4416E-3	902.743E-15	20.1744E-3	-10.5216E-3
742.871E-6	869.897E-15	51.2014E-3	-33.9307E-3	849.041E-15	23.6941E-3	-3.84201E-3
737.869E-6	871.275E-15	43.4457E-3	-30.2279E-3	764.236E-15	20.4045E-3	-19.2200E-3
732.866E-6	816.116E-15	41.1033E-3	-30.0280E-3	812.097E-15	21.6740E-3	-33.3138E-3
727.864E-6	794.754E-15	28.1155E-3	-27.0435E-3	896.770E-15	29.0192E-3	-26.8244E-3
722.861E-6	830.774E-15	9.30927E-3	-9.22409E-3	826.667E-15	27.4005E-3	-16.0557E-3
717.859E-6	810.771E-15	12.6288E-3	11.8304E-3	761.220E-15	17.3426E-3	-2.16502E-3
712.856E-6	752.954E-15	25.2395E-3	7.36221E-3	768.544E-15	11.7471E-3	-2.11393E-3
707.854E-6	735.210E-15	25.1265E-3	-17.9193E-3	806.098E-15	15.5758E-3	-19.1255E-3
702.851E-6	796.916E-15	20.1602E-3	-32.1211E-3	801.965E-15	20.9553E-3	-20.6787E-3
697.849E-6	764.673E-15	13.5466E-3	-20.2741E-3	768.195E-15	24.3086E-3	-11.0908E-3
692.846E-6	740.904E-15	15.7703E-3	-4.80882E-3	773.863E-15	20.0404E-3	-8.93217E-3
687.844E-6	685.309E-15	26.4241E-3	-8.80718E-3	737.974E-15	12.1557E-3	-10.3482E-3
682.841E-6	690.837E-15	19.5453E-3	-15.0077E-3	718.364E-15	17.9888E-3	-11.6379E-3
677.839E-6	730.048E-15	8.45101E-3	-13.5703E-3	717.126E-15	33.0357E-3	-17.6838E-3
672.836E-6	676.625E-15	14.2237E-3	-14.1177E-3	678.142E-15	37.1654E-3	-22.4315E-3
667.834E-6	627.404E-15	20.5321E-3	-9.47450E-3	659.204E-15	30.4043E-3	-16.4070E-3
662.831E-6	710.316E-15	30.3979E-3	-6.85863E-3	672.213E-15	22.8328E-3	-17.3440E-3
657.829E-6	683.217E-15	43.3161E-3	-15.4612E-3	711.197E-15	15.7441E-3	-22.3649E-3
652.826E-6	623.149E-15	40.0960E-3	-22.8066E-3	626.637E-15	21.2238E-3	-25.9250E-3
647.824E-6	639.951E-15	21.8100E-3	-25.8092E-3	601.508E-15	30.8867E-3	-33.4767E-3
642.821E-6	644.573E-15	11.2769E-3	-24.3501E-3	647.851E-15	25.8071E-3	-28.1057E-3
637.819E-6	637.222E-15	22.9941E-3	-17.5476E-3	614.822E-15	23.9658E-3	-26.4757E-3
632.816E-6	584.340E-15	35.5841E-3	-9.87025E-3	660.442E-15	29.3262E-3	-36.7515E-3
627.814E-6	634.685E-15	31.0912E-3	-13.0422E-3	649.508E-15	29.6141E-3	-31.0544E-3
622.811E-6	605.318E-15	9.81798E-3	-17.1070E-3	568.244E-15	33.3165E-3	-19.2995E-3
617.809E-6	562.873E-15	-7.69038E-3	-13.2585E-3	612.207E-15	40.6097E-3	-24.5686E-3
612.806E-6	549.271E-15	9.47567E-3	-15.5277E-3	652.106E-15	38.3273E-3	-29.8882E-3
607.804E-6	550.134E-15	34.5882E-3	-20.1725E-3	621.222E-15	36.2102E-3	-21.0016E-3
602.801E-6	559.865E-15	36.8803E-3	-23.4733E-3	502.343E-15	36.4368E-3	-13.0236E-3
597.799E-6	491.418E-15	30.8550E-3	-18.8927E-3	547.841E-15	23.0427E-3	-15.9371E-3
592.796E-6	487.180E-15	27.2519E-3	-7.07122E-3	590.862E-15	12.8337E-3	-17.4280E-3
587.794E-6	544.798E-15	29.3907E-3	-6.25681E-3	543.490E-15	17.1297E-3	-20.5792E-3
582.791E-6	546.376E-15	31.4797E-3	-13.9027E-3	516.765E-15	19.1463E-3	-32.1832E-3
577.789E-6	464.807E-15	25.8357E-3	-18.7712E-3	462.296E-15	23.2747E-3	-31.3376E-3
572.786E-6	485.550E-15	19.8335E-3	-17.6789E-3	491.627E-15	35.6487E-3	-21.6965E-3
567.784E-6	532.460E-15	28.6141E-3	-15.0835E-3	517.201E-15	34.8820E-3	-20.8076E-3
562.781E-6	520.122E-15	47.8696E-3	-14.6364E-3	492.996E-15	24.8246E-3	-24.6604E-3
557.779E-6	461.720E-15	50.6680E-3	-13.3810E-3	429.825E-15	22.4677E-3	-25.8267E-3
552.776E-6	408.672E-15	34.1333E-3	-16.3722E-3	435.091E-15	14.4611E-3	-18.3781E-3
547.774E-6	446.322E-15	24.7119E-3	-21.2887E-3	438.448E-15	1.25578E-3	2.11191E-3
542.771E-6	454.099E-15	29.8425E-3	-25.8908E-3	419.676E-15	4.21454E-3	6.87094E-3
537.769E-6	420.251E-15	39.4918E-3	-25.1498E-3	415.360E-15	11.1751E-3	-13.6745E-3
532.766E-6	423.329E-15	41.1776E-3	-16.2223E-3	454.222E-15	13.9088E-3	-23.8180E-3
527.764E-6	429.589E-15	27.2697E-3	-8.95862E-3	417.722E-15	17.5981E-3	-28.4073E-3
522.761E-6	387.249E-15	9.24167E-3	-3.62858E-3	415.525E-15	15.6492E-3	-31.9208E-3
517.759E-6	387.327E-15	6.08561E-3	-1.89121E-3	384.406E-15	13.5895E-3	-15.9960E-3
512.756E-6	370.682E-15	16.2595E-3	-8.94826E-3	404.077E-15	16.9179E-3	-6.73267E-3
507.754E-6	352.790E-15	26.2185E-3	-17.7908E-3	331.820E-15	23.7013E-3	-18.5119E-3
502.751E-6	358.082E-15	33.7236E-3	-21.7450E-3	324.853E-15	28.4607E-3	-22.3077E-3
497.749E-6	323.833E-15	29.4931E-3	-16.9596E-3	393.021E-15	34.0180E-3	-19.7806E-3
492.746E-6	339.362E-15	10.7304E-3	-16.3504E-3	353.540E-15	30.9179E-3	-28.2631E-3
487.744E-6	275.327E-15	8.54109E-3	-28.1498E-3	297.396E-15	16.3576E-3	-26.5428E-3
482.741E-6	285.172E-15	29.5414E-3	-31.9494E-3	303.822E-15	14.1723E-3	-9.88965E-3
477.739E-6	296.062E-15	34.9872E-3	-26.7172E-3	329.553E-15	23.1153E-3	-12.9788E-3
472.736E-6	347.052E-15	22.4175E-3	-17.6097E-3	317.782E-15	25.6238E-3	-23.1003E-3
467.734E-6	315.079E-15	20.0232E-3	-10.0859E-3	264.088E-15	23.4838E-3	-16.2691E-3
462.731E-6	276.845E-15	31.2651E-3	-14.8111E-3	184.106E-15	18.9667E-3	-12.1792E-3
457.729E-6	227.450E-15	44.8451E-3	-19.3545E-3	239.526E-15	16.8648E-3	-19.3236E-3
452.726E-6	334.043E-15	43.7911E-3	-16.8899E-3	283.175E-15	25.6037E-3	-29.8878E-3
447.724E-6	301.956E-15	27.3683E-3	-20.8039E-3	231.304E-15	28.2585E-3	-32.7703E-3
442.721E-6	214.039E-15	18.9295E-3	-26.7071E-3	204.073E-15	11.6895E-3	-19.6912E-3
437.719E-6	236.945E-15	27.9530E-3	-22.3698E-3	244.182E-15	738.307E-6	-6.36823E-3
432.716E-6	189.957E-15	38.3044E-3	-22.4277E-3	268.300E-15	5.82376E-3	-8.83078E-3
427.714E-6	256.346E-15	33.3457E-3	-35.8576E-3	220.335E-15	13.2853E-3	-12.6718E-3
422.711E-6	223.116E-15	21.6088E-3	-27.7749E-3	225.427E-15	31.0971E-3	-9.07978E-3
417.709E-6	155.079E-15	13.5982E-3	-7.30567E-3	170.870E-15	48.4142E-3	-9.51045E-3
412.706E-6	220.596E-15	14.0937E-3	-14.1741E-3	221.835E-15	36.8331E-3	-11.9976E-3
407.704E-6	222.079E-15	20.5486E-3	-20.7629E-3	198.205E-15	23.2267E-3	-18.1146E-3
402.701E-6	182.667E-15	16.8718E-3	-11.7141E-3	152.656E-15	30.1383E-3	-28.9924E-3
397.699E-6	141.390E-15	14.2724E-3	-11.6413E-3	162.752E-15	35.0217E-3	-16.6115E-3
392.696E-6	161.235E-15	19.6414E-3	-17.5502E-3	151.688E-15	36.0087E-3	1.15519E-3
387.694E-6	177.680E-15	18.6922E-3	-11.1002E-3	186.199E-15	33.3103E-3	-10.3986E-3
382.691E-6	153.972E-15	17.1638E-3	-6.95877E-3	150.266E-15	24.5728E-3	-22.9523E-3
377.689E-6	141.774E-15	23.6517E-3	-17.5714E-3	138.155E-15	22.6553E-3	-21.4668E-3
372.686E-6	174.271E-15	26.2369E-3	-23.1211E-3	111.108E-15	21.1062E-3	-19.8603E-3
367.684E-6	102.328E-15	18.7692E-3	-16.0654E-3	98.5261E-15	11.5294E-3	-16.6117E-3
362.681E-6	126.986E-15	14.7150E-3	-8.57850E-3	157.992E-15	9.23860E-3	-8.25895E-3
357.679E-6	118.685E-15	12.6255E-3	-15.4419E-3	88.7517E-15	28.1502E-3	-6.59535E-3
352.676E-6	131.136E-15	8.71491E-3	-32.3806E-3	2.88399E-15	39.9171E-3	-11.1785E-3
347.674E-6	95.6313E-15	9.24101E-3	-40.5649E-3	82.5436E-15	33.3271E-3	-555.516E-6
342.671E-6	47.6663E-15	8.28843E-3	-27.9909E-3	107.708E-15	31.5161E-3	10.4807E-3
337.669E-6	104.717E-15	9.65948E-3	-18.4255E-3	133.865E-15	17.3969E-3	-5.09630E-3
332.666E-6	122.469E-15	25.5686E-3	-22.6445E-3	62.4194E-15	-5.86440E-3	-23.6933E-3
327.664E-6	4.59297E-15	44.7725E-3	-20.2651E-3	7.06053E-15	-4.49735E-3	-22.1621E-3
322.661E-6	-41.0090E-15	40.1390E-3	-14.2056E-3	82.3343E-15	13.1254E-3	-17.6888E-3
317.659E-6	76.5883E-15	18.0876E-3	-2.82550E-3	68.2178E-15	15.6315E-3	-10.9920E-3
312.656E-6	81.8286E-15	9.79231E-3	7.52140E-3	14.4981E-15	7.69806E-3	3.86550E-3
307.654E-6	11.3766E-15	10.0876E-3	-55.3678E-6	12.2747E-15	13.9407E-3	2.23679E-3
302.651E-6	-16.9001E-15	12.6899E-3	-27.3920E-3	25.0833E-15	21.2002E-3	-7.64140E-3
297.649E-6	-1.73724E-15	14.8173E-3	-39.3946E-3	29.7046E-15	27.4324E-3	-15.5334E-3
292.646E-6	12.4142E-15	14.3049E-3	-24.5100E-3	57.0134E-15	39.1024E-3	-27.0399E-3
287.644E-6	-14.9208E-15	21.3022E-3	-11.3794E-3	6.09269E-15	31.6684E-3	-29.0940E-3
282.641E-6	-67.3936E-15	25.8564E-3	-7.63926E-3	-40.1196E-15	14.2578E-3	-23.5615E-3
277.639E-6	29.7569E-15	21.0977E-3	-16.2948E-3	60.1001E-15	20.6851E-3	-21.6172E-3
272.636E-6	1.75919E-15	17.0545E-3	-19.5896E-3	-23.7273E-15	30.3727E-3	-22.4849E-3
267.634E-6	32.0850E-15	14.6867E-3	-3.39403E-3	-25.4450E-15	22.8689E-3	-17.6194E-3
262.631E-6	-48.1414E-15	7.15791E-3	4.38165E-3	18.5351E-15	14.2239E-3	-15.8394E-3
257.629E-6	4.76736E-15	10.3873E-3	-12.9159E-3	-22.2363E-15	3.23376E-3	-26.0559E-3
252.626E-6	-14.6593E-15	26.6462E-3	-30.7068E-3	-3.77756E-15	-51.7927E-6	-34.9516E-3
247.624E-6	-50.4607E-15	24.4755E-3	-27.1350E-3	-17.4756E-15	8.69783E-3	-27.6376E-3
242.621E-6	25.3013E-15	124.451E-6	-19.4567E-3	-33.5278E-15	9.62163E-3	-2.55726E-3
237.619E-6	-35.1845E-15	-11.0234E-3	-17.9741E-3	-84.2917E-15	5.20376E-3	7.71057E-3
232.616E-6	-39.6662E-15	6.95393E-3	-14.2762E-3	-38.3060E-15	5.89529E-3	-15.1489E-3
227.614E-6	-55.3610E-15	26.9080E-3	-17.4637E-3	7.60114E-15	16.7937E-3	-31.1863E-3
222.611E-6	-52.8585E-15	33.4989E-3	-22.3341E-3	-22.1579E-15	24.7758E-3	-13.7854E-3
217.609E-6	-49.2052E-15	28.9502E-3	-11.5733E-3	-83.4372E-15	18.2511E-3	1.79758E-3
212.606E-6	-96.9346E-15	20.5718E-3	3.81117E-3	-111.217E-15	6.74868E-3	-6.47118E-3
207.604E-6	-57.7588E-15	26.7974E-3	6.28775E-3	-70.7418E-15	-4.13220E-3	-17.1960E-3
202.601E-6	-55.3436E-15	40.9709E-3	-11.2059E-3	-7.99771E-15	-624.294E-6	-21.8737E-3
197.599E-6	-39.3872E-15	39.1915E-3	-38.9626E-3	-85.0502E-15	10.2977E-3	-17.3367E-3
192.596E-6	-115.341E-15	18.7912E-3	-39.6740E-3	-108.950E-15	10.8911E-3	-2.22210E-3
187.594E-6	-95.3129E-15	1.93333E-3	-14.2777E-3	-119.169E-15	8.45340E-3	-3.54700E-3
182.591E-6	-61.2727E-15	-2.02953E-3	-825.667E-6	-38.5502E-15	-768.206E-6	-15.6010E-3
177.589E-6	-50.6526E-15	3.64989E-3	-9.39121E-3	-66.8443E-15	-8.40097E-3	-17.1874E-3
172.586E-6	-42.4564E-15	9.61743E-3	-29.1018E-3	-86.1837E-15	-2.07390E-3	-23.2154E-3
167.584E-6	-132.727E-15	-4.27363E-3	-36.1445E-3	-113.196E-15	-1.05487E-3	-28.4503E-3
162.581E-6	-111.749E-15	-23.9561E-3	-23.9406E-3	-131.917E-15	-10.3743E-3	-15.6179E-3
157.579E-6	-95.2780E-15	-17.7631E-3	-8.66227E-3	-104.180E-15	-15.7533E-3	-2.25866E-3
152.576E-6	-132.780E-15	3.94867E-3	962.367E-6	-112.656E-15	-7.67426E-3	-3.46799E-3
147.574E-6	-140.069E-15	12.0125E-3	-2.03952E-3	-110.947E-15	12.3224E-3	-6.92396E-3
142.571E-6	-101.495E-15	2.39954E-3	-10.5134E-3	-137.366E-15	20.7253E-3	-6.24660E-3
137.569E-6	-85.6867E-15	-9.04574E-3	-11.9557E-3	-100.117E-15	7.05008E-3	-6.91918E-3
132.566E-6	-95.6442E-15	-2.84910E-3	-4.18778E-3	-112.324E-15	-9.81218E-3	-6.15475E-3
127.564E-6	-71.0993E-15	13.2559E-3	-3.49819E-3	-106.927E-15	-4.01998E-3	-5.55691E-3
122.561E-6	-116.806E-15	5.92550E-3	-22.9365E-3	-129.065E-15	10.1290E-3	-14.4012E-3
117.559E-6	-138.343E-15	-15.6811E-3	-32.5431E-3	-154.779E-15	9.26011E-6	-15.8194E-3
112.556E-6	-96.6208E-15	-15.8685E-3	-18.0701E-3	-102.925E-15	-7.50543E-3	-2.11167E-3
107.554E-6	-106.168E-15	-6.68709E-3	-6.55689E-3	-90.9706E-15	-2.66897E-3	-6.57875E-3
102.551E-6	-141.063E-15	-2.83166E-3	-2.58419E-3	-203.415E-15	-7.47723E-3	-21.6874E-3
97.5488E-6	-156.418E-15	2.29689E-3	4.54727E-3	-147.568E-15	-11.9725E-3	-11.0375E-3
92.5463E-6	-143.740E-15	-1.49430E-3	4.51918E-3	-72.6775E-15	-7.58007E-3	4.83595E-3
87.5438E-6	-103.056E-15	-13.1844E-3	-8.86507E-3	-107.154E-15	-2.09342E-3	4.34091E-3
82.5413E-6	-107.171E-15	-13.5599E-3	-16.6734E-3	-171.929E-15	220.773E-6	-3.87429E-3
77.5388E-6	-127.478E-15	-3.94523E-3	-8.13996E-3	-167.378E-15	3.90345E-3	-12.2216E-3
72.5363E-6	-173.490E-15	1.50962E-3	-8.79493E-3	-132.989E-15	11.2592E-3	-9.00264E-3
67.5338E-6	-125.673E-15	-3.65029E-3	-20.8260E-3	-97.7804E-15	19.7487E-3	-4.15742E-3
62.5313E-6	-126.275E-15	-14.6482E-3	-20.4541E-3	-144.089E-15	22.5790E-3	-18.2463E-3
57.5288E-6	-201.453E-15	-14.6639E-3	-17.1933E-3	-163.088E-15	13.3904E-3	-22.9157E-3
52.5263E-6	-160.402E-15	-955.453E-6	-18.5944E-3	-199.282E-15	-1.97655E-3	-14.5017E-3
47.5238E-6	-170.395E-15	9.34924E-3	-20.9348E-3	-171.772E-15	-9.82233E-3	-18.4130E-3
42.5213E-6	-109.281E-15	3.36255E-3	-25.8773E-3	-139.494E-15	279.271E-6	-21.8316E-3
37.5188E-6	-140.514E-15	-8.88157E-3	-19.3666E-3	-163.803E-15	18.9228E-3	-14.8838E-3
32.5163E-6	-148.021E-15	-14.8345E-3	-733.565E-6	-184.476E-15	19.6635E-3	-11.7288E-3
27.5138E-6	-138.866E-15	-11.2621E-3	4.50730E-3	-169.741E-15	7.84311E-3	-19.8632E-3
22.5113E-6	-135.640E-15	-802.246E-6	-12.5762E-3	-120.808E-15	11.9805E-3	-24.4267E-3
17.5088E-6	-144.315E-15	-4.10545E-3	-33.4459E-3	-130.190E-15	21.2797E-3	-19.5879E-3
12.5063E-6	-154.299E-15	-13.9802E-3	-36.5440E-3	-172.548E-15	10.0621E-3	-16.6687E-3
7.50375E-6	-170.552E-15	-15.0809E-3	-22.4710E-3	-151.334E-15	-2.62034E-3	-21.2853E-3
2.50125E-6	-170.770E-15	-10.8075E-3	-6.62135E-3	-188.112E-15	5.25998E-3	-33.9301E-3
-2.50125E-6	-190.379E-15	4.84576E-3	-6.62828E-3	-129.894E-15	11.7598E-3	-45.5076E-3
-7.50375E-6	-135.910E-15	23.1012E-3	-21.3073E-3	-135.675E-15	10.6607E-3	-37.6225E-3
-12.5063E-6	-160.045E-15	20.2035E-3	-24.5012E-3	-193.806E-15	9.42627E-3	-20.9001E-3
-17.5088E-6	-184.450E-15	994.385E-6	-16.7105E-3	-204.653E-15	344.823E-6	-13.0757E-3
-22.5113E-6	-155.485E-15	-7.94416E-3	-13.6942E-3	-137.113E-15	-7.89692E-3	-12.2248E-3
-27.5138E-6	-134.436E-15	-1.24833E-3	-11.7949E-3	-148.736E-15	-1.84800E-3	-27.2577E-3
-32.5163E-6	-156.810E-15	2.91881E-3	-14.3002E-3	-193.902E-15	3.11093E-3	-41.7391E-3
-37.5188E-6	-221.656E-15	-3.02986E-3	-14.9422E-3	-218.560E-15	-2.96300E-3	-23.4947E-3
-42.5213E-6	-223.513E-15	-4.82797E-3	-5.01978E-3	-146.966E-15	-8.66098E-3	407.976E-6
-47.5238E-6	-158.458E-15	-3.11766E-3	-2.52773E-3	-130.173E-15	-10.7220E-3	-11.2559E-3
-52.5263E-6	-152.642E-15	3.90139E-3	-13.6152E-3	-177.039E-15	1.93788E-3	-34.6124E-3
-57.5288E-6	-207.208E-15	15.8763E-3	-25.0987E-3	-232.171E-15	24.2198E-3	-39.5067E-3
-62.5313E-6	-238.745E-15	9.46068E-3	-30.8780E-3	-191.853E-15	27.3680E-3	-27.1287E-3
-67.5338E-6	-182.672E-15	-1.38959E-3	-36.0306E-3	-150.689E-15	14.8931E-3	-5.51498E-3
-72.5363E-6	-180.832E-15	6.15840E-3	-29.6798E-3	-205.010E-15	9.93477E-3	-3.42650E-3
-77.5388E-6	-193.562E-15	11.9484E-3	-10.4711E-3	-218.656E-15	20.0687E-3	-24.5598E-3
-82.5413E-6	-254.161E-15	2.77557E-3	-3.73832E-3	-210.059E-15	21.9515E-3	-28.1146E-3
-87.5438E-6	-201.662E-15	-12.0745E-3	-17.6391E-3	-175.382E-15	10.5434E-3	-10.1862E-3
-92.5463E-6	-174.101E-15	-24.1794E-3	-30.5131E-3	-212.160E-15	3.00748E-3	-10.5272E-3
-97.5488E-6	-256.576E-15	-23.1065E-3	-29.9827E-3	-242.373E-15	-4.25123E-3	-27.3628E-3
-102.551E-6	-220.278E-15	-7.67386E-3	-26.7908E-3	-246.453E-15	5.21515E-3	-32.0376E-3
-107.554E-6	-204.191E-15	-1.25697E-3	-21.0957E-3	-235.929E-15	22.3535E-3	-27.7609E-3
-112.556E-6	-200.677E-15	-14.3370E-3	-21.7287E-3	-195.341E-15	24.6125E-3	-10.5974E-3
-117.559E-6	-202.447E-15	-21.8527E-3	-27.0966E-3	-228.893E-15	26.5871E-3	4.79587E-3
-122.561E-6	-195.611E-15	-14.9457E-3	-24.6153E-3	-201.505E-15	21.9636E-3	-9.05399E-3
-127.564E-6	-186.848E-15	-6.17906E-3	-21.1826E-3	-268.827E-15	9.76552E-3	-24.3858E-3
-132.566E-6	-246.436E-15	7.49893E-3	-23.9269E-3	-252.260E-15	6.52833E-3	-19.5069E-3
-137.569E-6	-215.639E-15	4.17676E-3	-31.1460E-3	-177.266E-15	11.7700E-3	-9.85937E-3
-142.571E-6	-202.552E-15	-19.1554E-3	-34.8339E-3	-205.141E-15	12.7869E-3	-8.01052E-3
-147.574E-6	-211.689E-15	-8.47228E-3	-28.5941E-3	-312.990E-15	4.49452E-3	-13.9529E-3
-152.576E-6	-206.606E-15	22.2868E-3	-19.6244E-3	-267.292E-15	-2.81778E-3	-18.0623E-3
-157.579E-6	-277.817E-15	20.0039E-3	-30.6775E-3	-194.565E-15	-1.35246E-3	-13.8496E-3
-162.581E-6	-262.070E-15	5.52502E-3	-50.4611E-3	-228.675E-15	6.93483E-3	-12.3197E-3
-167.584E-6	-185.566E-15	867.031E-6	-38.7890E-3	-262.610E-15	15.6889E-3	-23.0321E-3
-172.586E-6	-281.793E-15	-1.61726E-3	-5.18597E-3	-305.344E-15	9.76239E-3	-29.5330E-3
-177.589E-6	-275.942E-15	6.90279E-3	9.88627E-3	-251.406E-15	-4.20066E-3	-21.8757E-3
-182.591E-6	-249.959E-15	20.3301E-3	4.15192E-3	-206.929E-15	-1.15370E-3	-12.1660E-3
-187.594E-6	-220.444E-15	16.9316E-3	-10.1731E-3	-260.666E-15	5.70090E-3	-6.63036E-3
-192.596E-6	-260.352E-15	6.49890E-3	-19.3953E-3	-268.906E-15	1.55653E-3	-7.25471E-3
-197.599E-6	-298.011E-15	7.37473E-3	-12.7795E-3	-264.136E-15	-2.83046E-3	-15.4789E-3
-202.601E-6	-295.691E-15	5.94465E-3	-4.86440E-3	-242.669E-15	-2.42900E-3	-19.0525E-3
-207.604E-6	-255.338E-15	-282.933E-6	-10.8821E-3	-304.768E-15	2.46590E-3	-15.3722E-3
-212.606E-6	-248.302E-15	3.12347E-3	-25.4641E-3	-300.121E-15	11.2079E-3	-16.9910E-3
-217.609E-6	-308.866E-15	5.09263E-3	-28.6406E-3	-305.614E-15	15.8417E-3	-25.2416E-3
-222.611E-6	-244.919E-15	5.35434E-3	-17.2976E-3	-269.891E-15	7.75609E-3	-20.4312E-3
-227.614E-6	-280.502E-15	20.5768E-3	-5.05328E-3	-244.518E-15	-1.41332E-3	-9.81295E-3
-232.616E-6	-309.337E-15	25.5406E-3	-11.7948E-3	-302.754E-15	1.55820E-3	-16.2475E-3
-237.619E-6	-291.053E-15	3.95919E-3	-27.6586E-3	-303.329E-15	15.5610E-3	-11.3178E-3
-242.621E-6	-275.131E-15	-15.1046E-3	-23.6418E-3	-292.544E-15	22.4601E-3	2.27164E-3
-247.624E-6	-289.274E-15	-13.7043E-3	-9.15088E-3	-306.154E-15	11.2534E-3	-3.96725E-3
-252.626E-6	-303.765E-15	8.66242E-3	-5.63937E-3	-278.776E-15	1.88873E-3	-12.1200E-3
-257.629E-6	-319.948E-15	27.9926E-3	-11.2901E-3	-275.646E-15	13.6309E-3	-17.7647E-3
-262.631E-6	-306.268E-15	17.5393E-3	-17.7908E-3	-369.239E-15	30.5918E-3	-23.5837E-3
-267.634E-6	-326.810E-15	-6.01589E-3	-28.1592E-3	-338.669E-15	27.4172E-3	-16.3872E-3
-272.636E-6	-326.087E-15	-10.7479E-3	-30.5479E-3	-283.999E-15	15.0606E-3	-3.27400E-3
-277.639E-6	-358.366E-15	-3.37944E-3	-12.4971E-3	-344.205E-15	8.78312E-3	-6.14669E-3
-282.641E-6	-303.007E-15	-5.90806E-3	-5.24913E-3	-389.310E-15	5.32682E-3	-20.4621E-3
-287.644E-6	-365.341E-15	-7.54147E-3	-20.2355E-3	-375.176E-15	18.7884E-3	-24.3304E-3
-292.646E-6	-424.842E-15	-8.73456E-3	-23.2921E-3	-359.665E-15	36.1133E-3	-9.87403E-3
-297.649E-6	-370.032E-15	-12.6463E-3	-14.3238E-3	-333.934E-15	25.8755E-3	-2.35604E-3
-302.651E-6	-372.552E-15	9.47081E-3	-10.3210E-3	-400.820E-15	11.9383E-3	-10.4555E-3
-307.654E-6	-379.876E-15	36.9910E-3	-6.42865E-3	-468.543E-15	19.7300E-3	-11.0142E-3
-312.656E-6	-443.946E-15	32.1582E-3	-10.0443E-3	-372.709E-15	32.2066E-3	-2.42968E-3
-317.659E-6	-386.538E-15	16.9194E-3	-24.7296E-3	-381.855E-15	36.2933E-3	14.3298E-3
-322.661E-6	-389.188E-15	15.5831E-3	-21.6321E-3	-406.854E-15	32.0563E-3	20.7346E-3
-327.664E-6	-428.521E-15	18.3566E-3	-1.41801E-3	-450.808E-15	19.2349E-3	2.91488E-3
-332.666E-6	-443.876E-15	22.3443E-3	596.933E-6	-475.571E-15	23.2568E-3	-12.7374E-3
-337.669E-6	-380.068E-15	23.6271E-3	-15.0920E-3	-435.253E-15	40.1688E-3	-19.0208E-3
-342.671E-6	-407.560E-15	13.2148E-3	-26.0667E-3	-427.998E-15	38.1257E-3	-20.1997E-3
-347.674E-6	-479.189E-15	7.50496E-3	-25.8986E-3	-472.065E-15	25.5799E-3	-8.14105E-3
-352.676E-6	-517.266E-15	10.1221E-3	-15.0565E-3	-515.880E-15	17.0858E-3	-6.95831E-3
-357.679E-6	-447.015E-15	17.9743E-3	-18.3437E-3	-453.807E-15	17.6151E-3	-24.7836E-3
-362.681E-6	-499.296E-15	29.1816E-3	-31.2490E-3	-463.738E-15	27.0901E-3	-29.2334E-3
-367.684E-6	-492.974E-15	16.1181E-3	-18.8677E-3	-505.146E-15	27.8000E-3	-23.0070E-3
-372.686E-6	-495.895E-15	-12.3996E-3	-1.43067E-3	-496.166E-15	8.31279E-3	-22.1508E-3
-377.689E-6	-487.098E-15	-19.1867E-3	-1.43517E-3	-525.393E-15	-7.60511E-3	-20.3628E-3
-382.691E-6	-472.074E-15	-3.54789E-3	-2.33470E-3	-518.095E-15	1.98697E-3	-8.16929E-3
-387.694E-6	-504.597E-15	17.3617E-3	-13.1058E-3	-499.871E-15	20.5917E-3	-1.50718E-3
-392.696E-6	-542.422E-15	23.3776E-3	-34.9833E-3	-527.067E-15	32.7540E-3	-2.63051E-3
-397.699E-6	-527.512E-15	14.7413E-3	-32.5729E-3	-574.230E-15	34.0218E-3	1.67718E-3
-402.701E-6	-529.744E-15	10.9485E-3	-17.4677E-3	-564.307E-15	19.3254E-3	-1.99297E-3
-407.704E-6	-602.219E-15	23.7606E-3	-21.5904E-3	-492.329E-15	11.2467E-3	-9.54387E-3
-412.706E-6	-540.495E-15	37.9329E-3	-31.9313E-3	-539.884E-15	27.0947E-3	-2.51990E-3
-417.709E-6	-542.151E-15	32.6026E-3	-31.5493E-3	-585.948E-15	37.5799E-3	2.55310E-3
-422.711E-6	-567.830E-15	28.6083E-3	-29.9007E-3	-662.460E-15	29.3426E-3	-11.2026E-3
-427.714E-6	-597.580E-15	32.8710E-3	-28.8515E-3	-553.722E-15	26.5316E-3	-20.5500E-3
-432.716E-6	-601.303E-15	35.2649E-3	-20.0351E-3	-513.447E-15	36.9902E-3	-19.6699E-3
-437.719E-6	-561.595E-15	41.6376E-3	-19.6429E-3	-641.586E-15	37.4666E-3	-21.3875E-3
-442.721E-6	-653.357E-15	44.2840E-3	-27.1889E-3	-712.928E-15	25.3761E-3	-16.7840E-3
-447.724E-6	-705.037E-15	35.1121E-3	-23.1003E-3	-652.093E-15	23.4532E-3	-733.285E-6
-452.726E-6	-678.268E-15	31.4848E-3	-20.2364E-3	-653.070E-15	28.4170E-3	2.18795E-3
-457.729E-6	-631.725E-15	46.1714E-3	-23.2714E-3	-645.510E-15	32.8860E-3	-13.6967E-3
-462.731E-6	-672.801E-15	52.5879E-3	-27.3368E-3	-708.507E-15	39.5535E-3	-20.5215E-3
-467.734E-6	-710.791E-15	35.7490E-3	-35.9097E-3	-705.080E-15	37.9139E-3	-8.56023E-3
-472.736E-6	-704.287E-15	22.0818E-3	-37.8194E-3	-673.141E-15	28.3636E-3	1.02128E-3
-477.739E-6	-688.130E-15	27.2937E-3	-30.7023E-3	-666.698E-15	26.1334E-3	-10.0008E-3
-482.741E-6	-738.946E-15	44.5211E-3	-29.6104E-3	-739.426E-15	27.7560E-3	-14.9927E-3
-487.744E-6	-749.374E-15	52.5952E-3	-34.7014E-3	-737.830E-15	32.0184E-3	-3.28561E-3
-492.746E-6	-735.877E-15	41.5511E-3	-33.1463E-3	-731.753E-15	37.2187E-3	-8.46667E-3
-497.749E-6	-758.346E-15	26.7973E-3	-28.3004E-3	-754.929E-15	36.9450E-3	-13.8639E-3
-502.751E-6	-790.843E-15	22.5207E-3	-19.8012E-3	-743.053E-15	28.4904E-3	-5.80876E-3
-507.754E-6	-763.491E-15	28.3686E-3	-327.018E-6	-788.986E-15	22.3243E-3	-18.2674E-3
-512.756E-6	-763.770E-15	40.0222E-3	2.78197E-3	-822.503E-15	28.0985E-3	-37.1336E-3
-517.759E-6	-820.794E-15	47.1227E-3	-16.1649E-3	-830.037E-15	36.7231E-3	-34.1049E-3
-522.761E-6	-822.189E-15	34.9472E-3	-16.7221E-3	-791.707E-15	40.8406E-3	-28.3838E-3
-527.764E-6	-794.933E-15	23.4762E-3	-4.00711E-3	-822.093E-15	32.8029E-3	-39.5488E-3
-532.766E-6	-836.227E-15	30.7010E-3	-5.59771E-3	-895.745E-15	27.1460E-3	-43.2148E-3
-537.769E-6	-883.843E-15	45.2074E-3	-11.7917E-3	-863.336E-15	42.9959E-3	-28.4173E-3
-542.771E-6	-901.727E-15	51.4280E-3	-13.7654E-3	-847.196E-15	53.8948E-3	-13.2382E-3
-547.774E-6	-849.036E-15	38.2443E-3	-11.6077E-3	-834.257E-15	42.6205E-3	-1.90339E-3
-552.776E-6	-845.976E-15	28.1634E-3	-7.97075E-3	-905.738E-15	31.4845E-3	-6.87711E-3
-557.779E-6	-925.208E-15	35.3422E-3	-11.7545E-3	-963.547E-15	22.1077E-3	-26.0950E-3
-562.781E-6	-940.092E-15	42.5230E-3	-26.9544E-3	-913.541E-15	18.4929E-3	-32.8003E-3
-567.784E-6	-948.602E-15	33.8738E-3	-35.8151E-3	-901.640E-15	30.2772E-3	-25.8971E-3
-572.786E-6	-935.261E-15	17.7188E-3	-23.8360E-3	-939.438E-15	35.4119E-3	-14.1543E-3
-577.789E-6	-938.906E-15	23.8542E-3	-7.18662E-3	-977.515E-15	27.2509E-3	-10.6696E-3
-582.791E-6	-1.01021E-12	45.3311E-3	-1.60802E-3	-960.704E-15	26.6715E-3	-18.3578E-3
-587.794E-6	-1.01153E-12	57.7455E-3	-8.43754E-3	-997.805E-15	36.4171E-3	-22.1993E-3
-592.796E-6	-975.867E-15	55.0904E-3	-19.4204E-3	-978.788E-15	44.5506E-3	-16.0932E-3
-597.799E-6	-1.02762E-12	36.2533E-3	-24.3910E-3	-1.01859E-12	43.6401E-3	-9.03869E-3
-602.801E-6	-1.03124E-12	22.2576E-3	-18.1059E-3	-1.06457E-12	32.5690E-3	-20.2731E-3
-607.804E-6	-1.02044E-12	30.1196E-3	-7.75416E-3	-1.03845E-12	26.8524E-3	-33.2949E-3
-612.806E-6	-1.04066E-12	42.7461E-3	-10.4026E-3	-1.02192E-12	39.9311E-3	-31.6027E-3
-617.809E-6	-1.05767E-12	37.0599E-3	-23.5769E-3	-1.05346E-12	49.4933E-3	-32.9649E-3
-622.811E-6	-1.05694E-12	23.5759E-3	-32.1046E-3	-1.05922E-12	47.0860E-3	-27.5679E-3
-627.814E-6	-1.05099E-12	23.5133E-3	-28.6233E-3	-1.09497E-12	51.5756E-3	-12.2051E-3
-632.816E-6	-1.07988E-12	29.6978E-3	-16.8029E-3	-1.13228E-12	43.0123E-3	-8.76118E-3
-637.819E-6	-1.08332E-12	32.7856E-3	-13.6786E-3	-1.07279E-12	23.1682E-3	-17.9034E-3
-642.821E-6	-1.09421E-12	31.1253E-3	-24.0066E-3	-1.12102E-12	30.2214E-3	-23.8313E-3
-647.824E-6	-1.09421E-12	24.2026E-3	-34.4081E-3	-1.16934E-12	43.1138E-3	-15.2284E-3
-652.826E-6	-1.13886E-12	14.9237E-3	-34.5698E-3	-1.12986E-12	35.7549E-3	-2.15864E-3
-657.829E-6	-1.12355E-12	15.0795E-3	-21.0608E-3	-1.11876E-12	21.8947E-3	-6.48663E-3
-662.831E-6	-1.08776E-12	25.6568E-3	-4.31504E-3	-1.18537E-12	20.2082E-3	-25.2377E-3
-667.834E-6	-1.12096E-12	28.6197E-3	-9.05648E-3	-1.20586E-12	29.8724E-3	-27.7838E-3
-672.836E-6	-1.22412E-12	15.6180E-3	-24.8464E-3	-1.25266E-12	34.6010E-3	-15.8859E-3
-677.839E-6	-1.23888E-12	5.99454E-3	-15.2111E-3	-1.12835E-12	35.9888E-3	-7.94434E-3
-682.841E-6	-1.18878E-12	20.0347E-3	1.47806E-3	-1.15686E-12	37.1460E-3	-5.97222E-3
-687.844E-6	-1.18159E-12	39.4565E-3	-1.06350E-3	-1.22848E-12	36.0452E-3	-9.96126E-3
-692.846E-6	-1.22212E-12	40.6235E-3	-13.0500E-3	-1.24905E-12	34.9103E-3	-15.6031E-3
-697.849E-6	-1.28583E-12	23.0455E-3	-24.0255E-3	-1.21721E-12	28.4457E-3	-10.3857E-3
-702.851E-6	-1.25659E-12	13.2334E-3	-19.6835E-3	-1.20554E-12	25.5789E-3	1.39726E-3
-707.854E-6	-1.21790E-12	31.1586E-3	-8.85788E-3	-1.23562E-12	28.6460E-3	-3.07526E-3
-712.856E-6	-1.26626E-12	43.6499E-3	-17.0663E-3	-1.28492E-12	23.0735E-3	-12.0878E-3
-717.859E-6	-1.31387E-12	37.5831E-3	-25.7429E-3	-1.26440E-12	27.3590E-3	-5.96823E-3
-722.861E-6	-1.23081E-12	35.2493E-3	-14.6946E-3	-1.28190E-12	35.1119E-3	-9.45752E-3
-727.864E-6	-1.27048E-12	24.6482E-3	2.34580E-3	-1.24242E-12	20.4272E-3	-28.7747E-3
-732.866E-6	-1.28502E-12	14.8896E-3	9.18945E-3	-1.33915E-12	10.7836E-3	-32.5000E-3
-737.869E-6	-1.30989E-12	23.9456E-3	-3.18969E-3	-1.34287E-12	28.9682E-3	-22.5823E-3
-742.871E-6	-1.29721E-12	27.1371E-3	-25.8932E-3	-1.32388E-12	45.2410E-3	-17.9252E-3
-747.874E-6	-1.34811E-12	29.8281E-3	-42.3744E-3	-1.32269E-12	34.5185E-3	-8.27693E-3
-752.876E-6	-1.37221E-12	36.8539E-3	-38.0648E-3	-1.32474E-12	20.4696E-3	6.81265E-3
-757.879E-6	-1.37330E-12	26.3366E-3	-24.0861E-3	-1.38363E-12	17.7511E-3	3.86483E-3
-762.881E-6	-1.37805E-12	20.0871E-3	-18.6025E-3	-1.43588E-12	23.2320E-3	-12.2401E-3
-767.884E-6	-1.41428E-12	31.5275E-3	-24.8701E-3	-1.42390E-12	31.9113E-3	-29.6886E-3
-772.886E-6	-1.43797E-12	27.5188E-3	-35.4608E-3	-1.31585E-12	27.9626E-3	-38.1363E-3
-777.889E-6	-1.41384E-12	15.9983E-3	-35.3687E-3	-1.45273E-12	22.6481E-3	-29.3001E-3
-782.891E-6	-1.39200E-12	35.2937E-3	-20.3529E-3	-1.53164E-12	30.8398E-3	-21.9242E-3
-787.894E-6	-1.44364E-12	61.5923E-3	-8.88087E-3	-1.47790E-12	40.6536E-3	-33.3915E-3
-792.896E-6	-1.51864E-12	62.9582E-3	-20.3854E-3	-1.41804E-12	45.7187E-3	-41.5776E-3
-797.899E-6	-1.48507E-12	56.5304E-3	-39.7325E-3	-1.39171E-12	46.6448E-3	-31.5496E-3
-802.901E-6	-1.48100E-12	43.9316E-3	-44.3511E-3	-1.53878E-12	35.3551E-3	-24.6530E-3
-807.904E-6	-1.49708E-12	26.3746E-3	-30.7769E-3	-1.53457E-12	25.8799E-3	-14.7336E-3
-812.906E-6	-1.52919E-12	21.9526E-3	-11.5203E-3	-1.42822E-12	36.3385E-3	1.46845E-3
-817.909E-6	-1.55595E-12	35.0095E-3	-3.91507E-3	-1.43030E-12	40.8274E-3	-6.83861E-3
-822.911E-6	-1.53348E-12	44.8704E-3	-18.6330E-3	-1.50919E-12	33.6527E-3	-22.2520E-3
-827.914E-6	-1.50278E-12	38.7343E-3	-41.5687E-3	-1.59422E-12	29.4359E-3	-21.1935E-3
-832.916E-6	-1.53844E-12	37.2924E-3	-30.9316E-3	-1.55600E-12	29.6258E-3	-23.8525E-3
-837.919E-6	-1.56636E-12	41.6358E-3	-6.94675E-3	-1.53282E-12	33.4453E-3	-20.5210E-3
-842.921E-6	-1.58120E-12	53.1206E-3	-17.7534E-3	-1.53002E-12	40.5696E-3	-11.3162E-3
-847.924E-6	-1.64364E-12	62.3825E-3	-29.7180E-3	-1.60214E-12	49.2715E-3	-21.8918E-3
-852.926E-6	-1.65310E-12	50.0460E-3	-16.5499E-3	-1.65173E-12	43.4863E-3	-29.1508E-3
-857.929E-6	-1.60872E-12	40.2873E-3	-8.86327E-3	-1.61626E-12	34.7522E-3	-23.0908E-3
-862.931E-6	-1.69132E-12	47.8767E-3	-14.7132E-3	-1.64580E-12	38.7827E-3	-29.5062E-3
-867.934E-6	-1.71086E-12	54.7186E-3	-15.0007E-3	-1.67076E-12	49.1043E-3	-30.3483E-3
-872.936E-6	-1.75670E-12	57.5826E-3	-15.5678E-3	-1.73156E-12	65.0383E-3	-10.0208E-3
-877.939E-6	-1.74286E-12	57.7595E-3	-25.4730E-3	-1.73128E-12	64.3721E-3	75.6398E-6
-882.941E-6	-1.74263E-12	45.2074E-3	-26.6473E-3	-1.76900E-12	41.3438E-3	-3.07515E-3
-887.944E-6	-1.85469E-12	41.0667E-3	-19.6371E-3	-1.76453E-12	36.8429E-3	-1.99417E-3
-892.946E-6	-1.80358E-12	58.1014E-3	-19.8586E-3	-1.78927E-12	59.0209E-3	-2.29926E-3
-897.949E-6	-1.82371E-12	71.9218E-3	-29.6693E-3	-1.81615E-12	71.2186E-3	-7.05536E-3
-902.951E-6	-1.86531E-12	71.6894E-3	-43.3709E-3	-1.79041E-12	71.0600E-3	-8.68590E-3
-907.954E-6	-1.93174E-12	64.9427E-3	-36.5539E-3	-1.74474E-12	70.8917E-3	-9.83255E-3
-912.956E-6	-1.87832E-12	61.7915E-3	-14.0568E-3	-1.82635E-12	70.5836E-3	-16.2469E-3
-917.959E-6	-1.91369E-12	73.7906E-3	-10.5036E-3	-1.92264E-12	84.3804E-3	-19.0710E-3
-922.961E-6	-1.96707E-12	87.1823E-3	-22.9411E-3	-1.96818E-12	104.715E-3	-20.1857E-3
-927.964E-6	-2.00463E-12	81.9763E-3	-32.0064E-3	-1.93844E-12	110.353E-3	-21.7284E-3
-932.966E-6	-1.98175E-12	69.7236E-3	-29.0091E-3	-1.97572E-12	104.114E-3	-18.7015E-3
-937.969E-6	-1.96955E-12	71.4114E-3	-19.2385E-3	-2.06611E-12	105.766E-3	-20.8360E-3
-942.971E-6	-2.05060E-12	85.8264E-3	-12.0346E-3	-2.13438E-12	116.417E-3	-26.7262E-3
-947.974E-6	-2.10223E-12	93.7112E-3	-14.2853E-3	-2.14264E-12	117.836E-3	-19.3723E-3
-952.976E-6	-2.12169E-12	89.6115E-3	-24.6083E-3	-2.16564E-12	114.658E-3	-13.2418E-3
-957.979E-6	-2.15739E-12	82.8529E-3	-16.0484E-3	-2.22885E-12	105.569E-3	-24.2569E-3
-962.981E-6	-2.19688E-12	87.2546E-3	-7.47369E-3	-2.28572E-12	96.0087E-3	-30.9532E-3
-967.984E-6	-2.25059E-12	104.933E-3	-15.7983E-3	-2.34547E-12	117.778E-3	-28.1589E-3
-972.986E-6	-2.31168E-12	121.171E-3	-27.5439E-3	-2.35355E-12	147.915E-3	-23.3022E-3
-977.989E-6	-2.32828E-12	124.345E-3	-41.0181E-3	-2.39779E-12	146.919E-3	-8.13249E-3
-982.991E-6	-2.41535E-12	122.403E-3	-36.2557E-3	-2.47217E-12	139.265E-3	-9.32359E-3
-987.994E-6	-2.44181E-12	127.399E-3	-15.4011E-3	-2.50048E-12	149.594E-3	-34.0515E-3
-992.997E-6	-2.46381E-12	144.116E-3	-4.64761E-3	-2.51707E-12	168.104E-3	-34.6594E-3
-997.999E-6	-2.51584E-12	159.256E-3	-20.2668E-3	-2.55698E-12	185.880E-3	-15.3564E-3
-1.00300E-3	-2.63999E-12	156.361E-3	-40.1708E-3	-2.66281E-12	185.096E-3	-8.55782E-3
-1.00800E-3	-2.62006E-12	155.505E-3	-36.9965E-3	-2.66930E-12	171.555E-3	-7.54442E-3
-1.01301E-3	-2.67077E-12	171.826E-3	-26.3777E-3	-2.73765E-12	176.068E-3	-5.40954E-3
-1.01801E-3	-2.72361E-12	192.516E-3	-22.4125E-3	-2.83169E-12	195.329E-3	-9.28244E-3
-1.02301E-3	-2.87212E-12	201.134E-3	-29.0366E-3	-2.83187E-12	205.476E-3	-14.8532E-3
-1.02801E-3	-2.93416E-12	193.052E-3	-35.3378E-3	-2.91082E-12	210.254E-3	-10.5192E-3
-1.03302E-3	-2.91471E-12	181.564E-3	-22.5229E-3	-2.98798E-12	218.573E-3	-5.21301E-3
-1.03802E-3	-3.00222E-12	178.104E-3	-6.26357E-3	-3.11236E-12	223.429E-3	-4.82133E-3
-1.04302E-3	-3.10525E-12	182.694E-3	-8.06035E-3	-3.10784E-12	232.354E-3	-1.77100E-3
-1.04802E-3	-3.20021E-12	197.003E-3	-21.1883E-3	-3.12676E-12	256.121E-3	242.781E-6
-1.05303E-3	-3.22803E-12	209.307E-3	-34.9284E-3	-3.26796E-12	282.599E-3	612.453E-6
-1.05803E-3	-3.35815E-12	211.965E-3	-41.1882E-3	-3.48624E-12	298.687E-3	-1.29644E-3
-1.06303E-3	-3.46620E-12	218.124E-3	-27.1113E-3	-3.50987E-12	305.367E-3	-14.6055E-3
-1.06803E-3	-3.47309E-12	234.117E-3	-11.0679E-3	-3.48717E-12	301.496E-3	-27.7663E-3
-1.07304E-3	-3.57154E-12	259.739E-3	-14.7704E-3	-3.65072E-12	307.886E-3	-18.3728E-3
-1.07804E-3	-3.71013E-12	277.678E-3	-23.8057E-3	-3.80559E-12	330.065E-3	-4.23730E-3
-1.08304E-3	-3.84846E-12	278.433E-3	-30.7172E-3	-3.92897E-12	334.637E-3	-5.86826E-3
-1.08804E-3	-3.90719E-12	283.178E-3	-29.6310E-3	-3.92436E-12	333.615E-3	-16.0931E-3
-1.09305E-3	-3.99596E-12	299.606E-3	-16.5562E-3	-4.06498E-12	355.654E-3	-30.2277E-3
-1.09805E-3	-4.19084E-12	314.987E-3	-15.3838E-3	-4.22213E-12	366.483E-3	-36.3958E-3
-1.10305E-3	-4.33127E-12	326.732E-3	-25.3435E-3	-4.35016E-12	361.125E-3	-25.8604E-3
-1.10805E-3	-4.38321E-12	340.286E-3	-16.5518E-3	-4.40383E-12	376.471E-3	-21.5182E-3
-1.11306E-3	-4.50110E-12	356.732E-3	2.61987E-3	-4.47535E-12	393.581E-3	-28.3406E-3
-1.11806E-3	-4.70430E-12	374.513E-3	-2.81955E-3	-4.61817E-12	398.970E-3	-14.5368E-3
-1.12306E-3	-4.79413E-12	388.142E-3	-20.3359E-3	-4.76295E-12	414.577E-3	5.66704E-3
-1.12806E-3	-4.86620E-12	385.373E-3	-30.7129E-3	-4.81703E-12	428.826E-3	-5.54716E-3
-1.13307E-3	-5.00930E-12	373.864E-3	-33.9711E-3	-4.94497E-12	432.724E-3	-26.7818E-3
-1.13807E-3	-5.23841E-12	385.147E-3	-21.1199E-3	-5.12556E-12	453.294E-3	-32.1115E-3
-1.14307E-3	-5.31633E-12	420.535E-3	-11.4027E-3	-5.23732E-12	483.023E-3	-35.6211E-3
-1.14807E-3	-5.41063E-12	453.458E-3	-20.1172E-3	-5.39629E-12	502.039E-3	-33.0733E-3
-1.15308E-3	-5.51680E-12	464.055E-3	-37.1301E-3	-5.55592E-12	524.528E-3	-20.9901E-3
-1.15808E-3	-5.81914E-12	460.443E-3	-45.9788E-3	-5.69091E-12	538.768E-3	-20.5659E-3
-1.16308E-3	-5.88867E-12	469.795E-3	-36.1645E-3	-5.91410E-12	535.874E-3	-20.5601E-3
-1.16808E-3	-6.05247E-12	492.615E-3	-17.5688E-3	-6.15905E-12	552.540E-3	-8.39642E-3
-1.17309E-3	-6.26359E-12	507.386E-3	-8.72442E-3	-6.40559E-12	577.862E-3	-5.27125E-3
-1.17809E-3	-6.52401E-12	512.524E-3	-17.1124E-3	-6.61594E-12	584.517E-3	-3.99885E-3
-1.18309E-3	-6.66972E-12	519.274E-3	-34.2250E-3	-6.77085E-12	600.056E-3	-2.60823E-3
-1.18809E-3	-6.95738E-12	533.630E-3	-32.5518E-3	-7.06902E-12	632.973E-3	-18.4100E-3
-1.19310E-3	-7.18387E-12	561.041E-3	-14.5966E-3	-7.40231E-12	659.951E-3	-20.9263E-3
-1.19810E-3	-7.50018E-12	597.582E-3	-11.6564E-3	-7.57531E-12	676.886E-3	20.4204E-6
-1.20310E-3	-7.66808E-12	632.713E-3	-21.9349E-3	-7.69267E-12	692.803E-3	839.931E-6
-1.20810E-3	-7.85561E-12	646.505E-3	-29.6033E-3	-7.82032E-12	698.480E-3	-10.0786E-3
-1.21311E-3	-8.10116E-12	645.781E-3	-31.0625E-3	-8.10019E-12	705.443E-3	-8.45217E-3
-1.21811E-3	-8.38874E-12	658.436E-3	-33.3846E-3	-8.29849E-12	723.634E-3	-19.1935E-3
-1.22311E-3	-8.54505E-12	676.776E-3	-39.2030E-3	-8.47920E-12	732.568E-3	-39.8919E-3
-1.22811E-3	-8.70613E-12	695.219E-3	-44.0399E-3	-8.61630E-12	747.628E-3	-37.1116E-3
-1.23312E-3	-8.96862E-12	711.888E-3	-39.4170E-3	-8.89080E-12	772.466E-3	-19.5597E-3
-1.23812E-3	-9.19906E-12	714.172E-3	-21.7539E-3	-9.20007E-12	775.359E-3	-4.85521E-3
-1.24312E-3	-9.37551E-12	716.405E-3	-1.45712E-3	-9.37945E-12	781.043E-3	5.01991E-3
-1.24812E-3	-9.49513E-12	740.151E-3	5.05313E-3	-9.61089E-12	814.816E-3	-5.99834E-3
-1.25313E-3	-9.80157E-12	757.490E-3	-5.45102E-3	-9.86023E-12	842.493E-3	-16.3409E-3
-1.25813E-3	-10.1337E-12	754.692E-3	-18.5567E-3	-10.2476E-12	862.071E-3	56.2571E-6
-1.26313E-3	-10.3260E-12	768.583E-3	-16.7122E-3	-10.5782E-12	893.370E-3	15.2275E-3
-1.26813E-3	-10.6006E-12	806.274E-3	-3.34251E-3	-10.9361E-12	916.787E-3	-1.69707E-3
-1.27314E-3	-10.9791E-12	841.821E-3	-11.8170E-3	-11.2478E-12	933.339E-3	-22.8625E-3
-1.27814E-3	-11.3148E-12	851.785E-3	-31.4530E-3	-11.6701E-12	957.104E-3	-20.3837E-3
-1.28314E-3	-11.6016E-12	848.967E-3	-25.9098E-3	-12.0503E-12	971.953E-3	-23.4328E-3
-1.28814E-3	-11.9581E-12	869.212E-3	-8.98013E-3	-12.3507E-12	963.016E-3	-29.8299E-3
-1.29315E-3	-12.4119E-12	899.997E-3	-412.633E-6	-12.6318E-12	950.494E-3	-29.9651E-3
-1.29815E-3	-12.7242E-12	910.717E-3	-5.45294E-3	-12.9089E-12	956.884E-3	-35.4395E-3
-1.30315E-3	-12.9001E-12	918.823E-3	-21.7120E-3	-13.2167E-12	976.171E-3	-22.5104E-3
-1.30815E-3	-13.3440E-12	932.469E-3	-27.4525E-3	-13.4670E-12	999.135E-3	-3.79060E-3
-1.31316E-3	-13.7769E-12	937.873E-3	-16.8371E-3	-13.6762E-12	1.00022E+0	-21.2025E-3
-1.31816E-3	-13.9959E-12	957.827E-3	-7.16086E-3	-13.9417E-12	990.082E-3	-37.1480E-3
-1.32316E-3	-14.1753E-12	996.629E-3	-7.97883E-3	-14.1968E-12	1.01016E+0	-19.1654E-3
-1.32816E-3	-14.4675E-12	1.02615E+0	-13.2950E-3	-14.3176E-12	1.03577E+0	-6.01270E-3
-1.33317E-3	-14.8708E-12	1.03404E+0	-16.9201E-3	-14.7148E-12	1.04515E+0	-5.18998E-3
-1.33817E-3	-15.1404E-12	1.02015E+0	-20.4026E-3	-15.0105E-12	1.05231E+0	-2.95141E-3
-1.34317E-3	-15.2391E-12	1.01162E+0	-16.0222E-3	-15.1647E-12	1.05446E+0	-16.3598E-3
-1.34817E-3	-15.4758E-12	1.02759E+0	-6.06166E-3	-15.4350E-12	1.06096E+0	-26.7507E-3
-1.35318E-3	-15.9023E-12	1.05658E+0	-13.6185E-3	-15.8944E-12	1.08867E+0	-24.2491E-3
-1.35818E-3	-16.1955E-12	1.06664E+0	-27.3092E-3	-16.4396E-12	1.11184E+0	-25.6485E-3
-1.36318E-3	-16.5475E-12	1.04864E+0	-33.6460E-3	-16.8026E-12	1.10778E+0	-21.8857E-3
-1.36818E-3	-16.9508E-12	1.04765E+0	-40.8246E-3	-17.3590E-12	1.11098E+0	-20.4425E-3
-1.37319E-3	-17.5398E-12	1.07115E+0	-33.1687E-3	-17.9798E-12	1.13059E+0	-31.1024E-3
-1.37819E-3	-17.8271E-12	1.08864E+0	-17.5781E-3	-18.3086E-12	1.13686E+0	-36.9391E-3
-1.38319E-3	-18.2888E-12	1.09983E+0	-22.9953E-3	-18.6063E-12	1.14234E+0	-31.3785E-3
-1.38819E-3	-18.7931E-12	1.11472E+0	-28.0381E-3	-19.1288E-12	1.15533E+0	-31.1561E-3
-1.39320E-3	-19.2730E-12	1.12743E+0	-12.3097E-3	-19.4474E-12	1.15047E+0	-31.9496E-3
-1.39820E-3	-19.5432E-12	1.13920E+0	2.24366E-3	-19.8932E-12	1.14588E+0	-23.7910E-3
-1.40320E-3	-19.8782E-12	1.15865E+0	3.01183E-3	-20.0289E-12	1.15163E+0	-24.1905E-3
-1.40820E-3	-20.3276E-12	1.16078E+0	-15.9377E-3	-20.4350E-12	1.15071E+0	-31.7446E-3
-1.41321E-3	-20.7402E-12	1.14348E+0	-26.9131E-3	-20.7345E-12	1.15757E+0	-29.4650E-3
-1.41821E-3	-20.9419E-12	1.14336E+0	-10.3171E-3	-20.9621E-12	1.16678E+0	-30.1774E-3
-1.42321E-3	-21.2456E-12	1.16159E+0	-2.16415E-3	-21.1726E-12	1.15884E+0	-26.4378E-3
-1.42821E-3	-21.7014E-12	1.17204E+0	-15.9133E-3	-21.6000E-12	1.14934E+0	-3.06657E-3
-1.43322E-3	-21.9651E-12	1.17604E+0	-30.9852E-3	-21.7969E-12	1.14926E+0	440.953E-6
-1.43822E-3	-22.2598E-12	1.18205E+0	-27.8800E-3	-22.1077E-12	1.15796E+0	-14.4073E-3
-1.44322E-3	-22.7640E-12	1.18046E+0	-9.71384E-3	-22.5906E-12	1.17497E+0	-13.5074E-3
-1.44822E-3	-23.2213E-12	1.17357E+0	-2.02857E-3	-23.0572E-12	1.19039E+0	-13.1224E-3
-1.45323E-3	-23.6523E-12	1.16139E+0	-16.1896E-3	-23.3674E-12	1.19202E+0	-19.0639E-3
-1.45823E-3	-23.8789E-12	1.15269E+0	-33.1415E-3	-23.7954E-12	1.18664E+0	-13.5253E-3
-1.46323E-3	-24.4519E-12	1.16175E+0	-33.1519E-3	-24.4065E-12	1.19172E+0	-2.27415E-3
-1.46823E-3	-24.9533E-12	1.16718E+0	-19.7840E-3	-24.9841E-12	1.19258E+0	-6.01191E-3
-1.47324E-3	-25.2938E-12	1.16896E+0	-10.5699E-3	-25.4147E-12	1.18649E+0	-7.14341E-3
-1.47824E-3	-25.7241E-12	1.18083E+0	-13.8184E-3	-25.7585E-12	1.19048E+0	-3.76912E-3
-1.48324E-3	-26.2814E-12	1.18839E+0	-21.4444E-3	-26.3916E-12	1.19026E+0	-14.9635E-3
-1.48824E-3	-26.5896E-12	1.18954E+0	-28.7447E-3	-26.9442E-12	1.17997E+0	-16.5568E-3
-1.49325E-3	-26.9941E-12	1.18975E+0	-26.5222E-3	-27.2294E-12	1.18607E+0	-19.2926E-3
-1.49825E-3	-27.3942E-12	1.18292E+0	-12.4761E-3	-27.5952E-12	1.20110E+0	-34.7759E-3
-1.50325E-3	-27.8327E-12	1.17230E+0	-12.2299E-3	-28.0415E-12	1.19841E+0	-25.8907E-3
-1.50825E-3	-28.2390E-12	1.17124E+0	-26.3819E-3	-28.4710E-12	1.19540E+0	-1.98892E-3
-1.51326E-3	-28.5637E-12	1.17718E+0	-34.6677E-3	-28.7549E-12	1.19182E+0	-5.40133E-3
-1.51826E-3	-28.9746E-12	1.17630E+0	-26.9682E-3	-29.2128E-12	1.17400E+0	-12.4620E-3
-1.52326E-3	-29.4504E-12	1.17638E+0	-16.6316E-3	-29.3864E-12	1.16763E+0	-9.87480E-3
-1.52826E-3	-29.8340E-12	1.19673E+0	-14.7410E-3	-29.7024E-12	1.17612E+0	-17.8514E-3
-1.53327E-3	-30.1590E-12	1.21566E+0	-20.8616E-3	-30.0905E-12	1.18344E+0	-17.7654E-3
-1.53827E-3	-30.7226E-12	1.20238E+0	-28.3273E-3	-30.3958E-12	1.18596E+0	-3.42323E-3
-1.54327E-3	-31.1446E-12	1.17687E+0	-20.4113E-3	-30.7358E-12	1.17353E+0	-5.38715E-3
-1.54827E-3	-31.4867E-12	1.16522E+0	-11.5048E-3	-31.1873E-12	1.15200E+0	-26.7719E-3
-1.55328E-3	-31.7112E-12	1.16627E+0	-20.0985E-3	-31.6993E-12	1.14756E+0	-26.0256E-3
-1.55828E-3	-32.0451E-12	1.17006E+0	-29.1370E-3	-32.0970E-12	1.14605E+0	-15.9182E-3
-1.56328E-3	-32.4586E-12	1.15945E+0	-32.6246E-3	-32.5299E-12	1.13838E+0	-23.4871E-3
-1.56828E-3	-32.7240E-12	1.14841E+0	-27.1181E-3	-32.8996E-12	1.14766E+0	-21.8484E-3
-1.57329E-3	-32.8764E-12	1.15741E+0	-2.85696E-3	-33.3929E-12	1.15918E+0	-18.0484E-3
-1.57829E-3	-33.1513E-12	1.16973E+0	-614.223E-6	-33.8321E-12	1.16348E+0	-23.3227E-3
-1.58329E-3	-33.6266E-12	1.16968E+0	-20.7102E-3	-34.2841E-12	1.16654E+0	-9.16597E-3
-1.58829E-3	-34.1251E-12	1.14401E+0	-19.9511E-3	-34.9053E-12	1.16460E+0	5.71264E-3
-1.59330E-3	-34.3383E-12	1.11645E+0	-13.6947E-3	-35.3730E-12	1.15541E+0	8.68703E-3
-1.59830E-3	-34.7459E-12	1.11931E+0	-15.4596E-3	-35.7027E-12	1.14188E+0	18.3913E-3
-1.60330E-3	-35.2740E-12	1.13356E+0	-11.9075E-3	-36.1475E-12	1.13194E+0	10.0878E-3
-1.60830E-3	-35.6785E-12	1.12795E+0	-10.5882E-3	-36.6796E-12	1.11453E+0	-11.1190E-3
-1.61331E-3	-36.0825E-12	1.11723E+0	-17.4013E-3	-36.8455E-12	1.09896E+0	-12.7403E-3
-1.61831E-3	-36.6499E-12	1.11302E+0	-19.8871E-3	-37.0984E-12	1.10106E+0	-16.6230E-3
-1.62331E-3	-37.2174E-12	1.10267E+0	-16.3993E-3	-37.7199E-12	1.09583E+0	-23.7252E-3
-1.62831E-3	-37.6838E-12	1.10020E+0	-13.9838E-3	-38.0616E-12	1.08264E+0	-17.5906E-3
-1.63332E-3	-38.1660E-12	1.10819E+0	-20.0592E-3	-38.3450E-12	1.08277E+0	-18.5618E-3
-1.63832E-3	-38.7267E-12	1.11442E+0	-28.1132E-3	-38.3637E-12	1.07576E+0	-23.2017E-3
-1.64332E-3	-39.0370E-12	1.11593E+0	-31.5964E-3	-38.6114E-12	1.05344E+0	-18.8925E-3
-1.64832E-3	-39.2452E-12	1.11370E+0	-32.8819E-3	-38.8711E-12	1.04500E+0	-13.7807E-3
-1.65333E-3	-39.3505E-12	1.09879E+0	-28.0978E-3	-38.9937E-12	1.04211E+0	-20.3950E-3
-1.65833E-3	-39.4623E-12	1.08642E+0	-19.4412E-3	-39.0730E-12	1.03160E+0	-22.2401E-3
-1.66333E-3	-39.7302E-12	1.08718E+0	-7.33293E-3	-39.4936E-12	1.02529E+0	-15.0438E-3
-1.66833E-3	-39.7036E-12	1.07048E+0	-7.87020E-3	-39.8566E-12	1.01827E+0	-18.1281E-3
-1.67334E-3	-39.7754E-12	1.04613E+0	-21.3564E-3	-40.1887E-12	1.01705E+0	-16.7203E-3
-1.67834E-3	-40.1124E-12	1.04180E+0	-19.4863E-3	-40.3936E-12	1.03159E+0	-5.37452E-3
-1.68334E-3	-40.5159E-12	1.04379E+0	-5.55532E-3	-41.1356E-12	1.04105E+0	-5.87319E-3
-1.68834E-3	-40.7708E-12	1.03369E+0	-7.41901E-3	-41.8427E-12	1.04046E+0	-13.5179E-3
-1.69335E-3	-41.0844E-12	1.01861E+0	-24.5070E-3	-42.2256E-12	1.04498E+0	-7.14136E-3
-1.69835E-3	-41.8113E-12	1.00897E+0	-27.1106E-3	-42.8140E-12	1.04425E+0	-5.31684E-3
-1.70335E-3	-42.2836E-12	1.01477E+0	-16.0306E-3	-43.4773E-12	1.02687E+0	-16.1536E-3
-1.70835E-3	-42.6452E-12	1.03543E+0	-10.4401E-3	-43.8753E-12	1.02550E+0	-21.4039E-3
-1.71336E-3	-43.1089E-12	1.04261E+0	-18.0164E-3	-44.1532E-12	1.03706E+0	-25.0658E-3
-1.71836E-3	-43.8767E-12	1.02683E+0	-27.8328E-3	-44.6859E-12	1.02133E+0	-15.7049E-3
-1.72336E-3	-44.2216E-12	1.00621E+0	-23.7814E-3	-44.9804E-12	999.352E-3	4.36558E-3
-1.72836E-3	-44.8463E-12	999.738E-3	-17.8373E-3	-44.8199E-12	992.129E-3	3.20498E-3
-1.73337E-3	-45.2371E-12	1.00513E+0	-14.8996E-3	-45.0006E-12	982.199E-3	-6.73588E-3
-1.73837E-3	-45.7146E-12	1.01128E+0	-19.0744E-3	-45.1564E-12	974.477E-3	-2.11091E-3
-1.74337E-3	-45.7517E-12	1.01646E+0	-35.7419E-3	-44.8881E-12	967.579E-3	-3.86281E-3
-1.74837E-3	-46.0819E-12	1.01351E+0	-47.5609E-3	-44.6115E-12	948.963E-3	-14.2905E-3
-1.75338E-3	-46.1151E-12	1.00333E+0	-41.7496E-3	-44.6110E-12	941.525E-3	-13.2985E-3
-1.75838E-3	-46.2615E-12	1.00005E+0	-23.5845E-3	-44.7946E-12	950.880E-3	-16.5630E-3
-1.76338E-3	-46.3661E-12	996.566E-3	-11.9754E-3	-45.1112E-12	943.915E-3	-20.7290E-3
-1.76838E-3	-46.3091E-12	983.874E-3	-13.0379E-3	-45.3034E-12	935.763E-3	-14.5062E-3
-1.77339E-3	-46.4116E-12	972.551E-3	-17.2100E-3	-45.7319E-12	945.399E-3	-13.3211E-3
-1.77839E-3	-46.6796E-12	962.840E-3	-20.6056E-3	-46.3630E-12	942.711E-3	-17.9593E-3
-1.78339E-3	-46.9968E-12	962.311E-3	-16.4634E-3	-47.1701E-12	945.430E-3	-23.7110E-3
-1.78839E-3	-47.2842E-12	970.411E-3	-11.2729E-3	-47.6775E-12	967.876E-3	-31.0020E-3
-1.79340E-3	-47.8236E-12	960.568E-3	-17.2946E-3	-48.5354E-12	978.866E-3	-31.9617E-3
-1.79840E-3	-48.3629E-12	943.109E-3	-21.7869E-3	-49.5023E-12	982.089E-3	-15.8580E-3
-1.80340E-3	-48.7617E-12	934.294E-3	-20.1257E-3	-50.1647E-12	984.839E-3	-5.07810E-3
-1.80840E-3	-49.3270E-12	922.058E-3	-23.0932E-3	-50.8070E-12	976.324E-3	-15.6651E-3
-1.81341E-3	-49.9175E-12	911.351E-3	-22.3705E-3	-51.3432E-12	966.463E-3	-23.6877E-3
-1.81841E-3	-50.3895E-12	917.528E-3	-19.2891E-3	-51.7289E-12	960.990E-3	-17.6465E-3
-1.82341E-3	-50.8758E-12	939.635E-3	-16.7859E-3	-51.7887E-12	941.840E-3	-12.7103E-3
-1.82841E-3	-51.3322E-12	957.641E-3	-13.1301E-3	-51.8533E-12	917.021E-3	-10.1737E-3
-1.83342E-3	-51.6332E-12	961.742E-3	-10.1491E-3	-51.6368E-12	921.294E-3	-14.3898E-3
-1.83842E-3	-51.8999E-12	954.624E-3	2.05451E-3	-51.4838E-12	924.408E-3	-22.9733E-3
-1.84342E-3	-52.3971E-12	945.577E-3	2.73944E-3	-51.2240E-12	895.638E-3	-16.1123E-3
-1.84842E-3	-52.4012E-12	947.188E-3	-14.1525E-3	-51.3342E-12	870.609E-3	-13.5729E-3
-1.85343E-3	-52.4756E-12	946.772E-3	-24.7432E-3	-51.0447E-12	866.819E-3	-28.1287E-3
-1.85843E-3	-52.4797E-12	935.364E-3	-30.1813E-3	-51.2856E-12	876.221E-3	-23.9896E-3
-1.86343E-3	-52.5436E-12	929.246E-3	-33.9449E-3	-51.5144E-12	893.527E-3	-2.44094E-3
-1.86843E-3	-52.7353E-12	928.281E-3	-32.8679E-3	-51.9594E-12	911.770E-3	2.38894E-3
-1.87344E-3	-53.0431E-12	917.516E-3	-23.8392E-3	-52.2453E-12	922.723E-3	-12.6924E-3
-1.87844E-3	-53.3437E-12	910.898E-3	-16.2775E-3	-53.2181E-12	929.762E-3	-25.7743E-3
-1.88344E-3	-53.7753E-12	907.703E-3	-14.9207E-3	-53.6714E-12	929.615E-3	-25.4142E-3
-1.88844E-3	-54.2086E-12	899.186E-3	-17.5261E-3	-54.5316E-12	921.496E-3	-19.9322E-3
-1.89345E-3	-54.5802E-12	894.899E-3	-22.1492E-3	-55.2356E-12	924.914E-3	-8.54909E-3
-1.89845E-3	-55.0130E-12	889.359E-3	-12.2751E-3	-56.0950E-12	933.502E-3	1.17088E-3
-1.90345E-3	-55.6181E-12	889.265E-3	-3.92163E-3	-56.5333E-12	933.533E-3	-15.3643E-3
-1.90845E-3	-56.0100E-12	899.601E-3	-11.3258E-3	-57.1892E-12	931.521E-3	-34.6384E-3
-1.91346E-3	-56.3306E-12	899.770E-3	-15.8586E-3	-57.7686E-12	926.055E-3	-35.3587E-3
-1.91846E-3	-56.9051E-12	894.693E-3	-17.9797E-3	-58.1592E-12	909.167E-3	-26.0160E-3
-1.92346E-3	-57.2911E-12	896.001E-3	-16.3346E-3	-58.0280E-12	893.771E-3	-4.46127E-3
-1.92846E-3	-57.5015E-12	909.524E-3	-14.4152E-3	-58.0666E-12	895.102E-3	5.92901E-3
-1.93347E-3	-57.6283E-12	924.081E-3	-22.4754E-3	-58.0720E-12	883.046E-3	2.65206E-3
-1.93847E-3	-58.1452E-12	918.619E-3	-27.2197E-3	-58.2258E-12	853.761E-3	7.55190E-3
-1.94347E-3	-58.3652E-12	899.228E-3	-18.6014E-3	-58.0207E-12	843.704E-3	7.16408E-3
-1.94847E-3	-58.2772E-12	875.846E-3	-10.6798E-3	-57.6639E-12	842.850E-3	-12.8100E-3
-1.95348E-3	-58.4385E-12	866.053E-3	-11.0155E-3	-57.7211E-12	850.030E-3	-22.2349E-3
-1.95848E-3	-58.5037E-12	876.779E-3	-11.6424E-3	-58.1535E-12	857.254E-3	-10.4749E-3
-1.96348E-3	-58.6325E-12	880.625E-3	-12.8371E-3	-58.0437E-12	845.346E-3	-5.02549E-3
-1.96848E-3	-58.8261E-12	865.624E-3	-16.6821E-3	-58.1824E-12	845.590E-3	-3.98526E-3
-1.97349E-3	-59.1426E-12	856.174E-3	-19.2941E-3	-58.6449E-12	864.186E-3	-3.70224E-3
-1.97849E-3	-59.1662E-12	862.002E-3	-20.2037E-3	-59.0933E-12	862.856E-3	-20.6456E-3
-1.98349E-3	-59.4184E-12	862.978E-3	-21.7804E-3	-59.5921E-12	849.397E-3	-31.4687E-3
-1.98849E-3	-59.9602E-12	858.239E-3	-19.2300E-3	-60.1861E-12	856.403E-3	-29.4457E-3
-1.99350E-3	-60.1277E-12	861.981E-3	-10.2452E-3	-60.7398E-12	866.627E-3	-29.6622E-3
-1.99850E-3	-60.2065E-12	861.896E-3	-11.9335E-3	-61.1934E-12	862.167E-3	-21.9250E-3
-2.00350E-3	-60.6448E-12	847.850E-3	-17.4191E-3	-61.5622E-12	854.376E-3	-19.5078E-3
-2.00850E-3	-60.8627E-12	840.894E-3	-9.17982E-3	-61.7873E-12	843.968E-3	-24.6590E-3
-2.01351E-3	-61.1255E-12	854.181E-3	525.556E-6	-62.4851E-12	828.710E-3	-16.1961E-3
-2.01851E-3	-61.3161E-12	868.317E-3	-2.05155E-3	-62.6472E-12	832.359E-3	-2.30967E-3
-2.02351E-3	-61.7389E-12	872.146E-3	-7.31206E-3	-62.8844E-12	851.025E-3	-5.76430E-3
-2.02851E-3	-62.2127E-12	861.240E-3	-1.87149E-3	-63.2106E-12	852.594E-3	-15.8968E-3
-2.03352E-3	-62.7463E-12	846.879E-3	2.37545E-3	-63.9121E-12	842.906E-3	-18.8050E-3
-2.03852E-3	-63.1160E-12	845.275E-3	-7.44583E-3	-63.6686E-12	831.340E-3	-23.4128E-3
-2.04352E-3	-63.4839E-12	843.593E-3	-28.6717E-3	-63.7094E-12	815.626E-3	-16.7420E-3
-2.04852E-3	-63.7449E-12	838.331E-3	-43.7711E-3	-64.1195E-12	810.152E-3	-6.53956E-3
-2.05353E-3	-64.4265E-12	843.682E-3	-33.2987E-3	-64.1336E-12	819.332E-3	-20.8853E-3
-2.05853E-3	-64.5880E-12	846.515E-3	-12.5482E-3	-63.8303E-12	821.075E-3	-34.6059E-3
-2.06353E-3	-64.9989E-12	845.705E-3	-15.6131E-3	-64.0828E-12	805.782E-3	-24.7681E-3
-2.06853E-3	-65.3662E-12	854.272E-3	-35.2816E-3	-64.1988E-12	793.064E-3	-10.1629E-3
-2.07354E-3	-65.4531E-12	844.904E-3	-32.2533E-3	-64.2168E-12	792.059E-3	-13.5695E-3
-2.07854E-3	-65.8853E-12	819.852E-3	-14.1197E-3	-64.0585E-12	805.811E-3	-33.2168E-3
-2.08354E-3	-66.0579E-12	813.839E-3	-14.9341E-3	-64.5075E-12	814.144E-3	-40.6445E-3
-2.08854E-3	-65.9722E-12	821.608E-3	-24.3018E-3	-64.8938E-12	799.865E-3	-29.5672E-3
-2.09355E-3	-65.8880E-12	824.749E-3	-20.2062E-3	-65.0648E-12	795.364E-3	-18.9321E-3
-2.09855E-3	-66.1211E-12	821.221E-3	-13.6134E-3	-65.3012E-12	800.745E-3	-26.8221E-3
-2.10355E-3	-65.9123E-12	819.127E-3	-15.3660E-3	-66.0389E-12	799.943E-3	-36.0296E-3
-2.10855E-3	-66.0464E-12	829.574E-3	-14.0340E-3	-66.6922E-12	810.522E-3	-23.6703E-3
-2.11356E-3	-66.0048E-12	830.536E-3	-5.76333E-3	-66.9692E-12	824.051E-3	-15.9074E-3
-2.11856E-3	-66.5708E-12	811.569E-3	-683.219E-6	-68.0118E-12	825.315E-3	-15.7501E-3
-2.12356E-3	-67.1126E-12	792.215E-3	-4.15460E-3	-69.1703E-12	821.356E-3	-7.88545E-3
-2.12856E-3	-67.3214E-12	780.401E-3	-9.76263E-3	-69.6406E-12	809.220E-3	-23.5222E-3
-2.13357E-3	-67.9969E-12	777.131E-3	-15.5531E-3	-70.0118E-12	801.400E-3	-60.0146E-3
-2.13857E-3	-68.8451E-12	786.495E-3	-17.0510E-3	-70.6015E-12	817.309E-3	-54.7961E-3
-2.14357E-3	-69.5983E-12	804.532E-3	-17.0846E-3	-70.8949E-12	829.587E-3	-27.5717E-3
-2.14857E-3	-69.7152E-12	821.216E-3	-25.2407E-3	-70.6213E-12	810.391E-3	-26.6274E-3
-2.15358E-3	-70.4998E-12	825.401E-3	-30.8375E-3	-70.7366E-12	786.927E-3	-33.7448E-3
-2.15858E-3	-71.0823E-12	818.397E-3	-22.4885E-3	-70.5902E-12	785.540E-3	-31.1559E-3
-2.16358E-3	-71.5340E-12	823.706E-3	-16.8727E-3	-70.4942E-12	790.156E-3	-29.7787E-3
-2.16858E-3	-71.5537E-12	831.096E-3	-16.1463E-3	-70.1010E-12	783.735E-3	-43.2376E-3
-2.17359E-3	-71.8521E-12	825.009E-3	-16.9792E-3	-70.0458E-12	776.600E-3	-42.8203E-3
-2.17859E-3	-71.9623E-12	807.197E-3	-25.7066E-3	-69.5928E-12	777.303E-3	-17.0325E-3
-2.18359E-3	-71.6994E-12	784.203E-3	-20.9633E-3	-69.4722E-12	767.597E-3	523.132E-6
-2.18859E-3	-71.4578E-12	774.837E-3	-3.37372E-3	-69.9494E-12	758.412E-3	-3.83027E-3
-2.19360E-3	-71.2174E-12	780.466E-3	74.5499E-6	-69.9739E-12	768.260E-3	-11.4786E-3
-2.19860E-3	-70.8906E-12	784.838E-3	-10.8349E-3	-70.2232E-12	766.030E-3	-5.60538E-3
-2.20360E-3	-70.5305E-12	772.286E-3	-17.2190E-3	-70.9744E-12	756.993E-3	-5.77740E-3
-2.20860E-3	-71.0668E-12	757.025E-3	-29.5204E-3	-71.8211E-12	777.120E-3	-24.9395E-3
-2.21361E-3	-71.2832E-12	755.117E-3	-45.0648E-3	-72.8006E-12	806.701E-3	-19.1752E-3
-2.21861E-3	-71.6613E-12	754.392E-3	-39.3155E-3	-73.6450E-12	822.479E-3	-534.206E-6
-2.22361E-3	-72.2478E-12	759.807E-3	-27.2035E-3	-74.6565E-12	819.620E-3	-14.6612E-3
-2.22861E-3	-73.0465E-12	766.470E-3	-12.8777E-3	-75.3166E-12	801.535E-3	-19.3141E-3
-2.23362E-3	-73.9358E-12	760.618E-3	9.00936E-3	-76.5704E-12	796.287E-3	-7.25455E-3
-2.23862E-3	-74.6007E-12	758.928E-3	5.68905E-3	-76.6036E-12	802.705E-3	-12.1726E-3
-2.24362E-3	-75.3154E-12	775.600E-3	-9.43681E-3	-77.0756E-12	801.903E-3	-16.0844E-3
-2.24862E-3	-75.7351E-12	796.509E-3	-10.3198E-3	-77.2749E-12	797.596E-3	-6.88608E-3
-2.25363E-3	-76.1625E-12	800.467E-3	-11.3917E-3	-77.1425E-12	779.940E-3	-14.5406E-3
-2.25863E-3	-76.1168E-12	795.936E-3	-14.3631E-3	-76.2136E-12	751.357E-3	-28.1086E-3
-2.26363E-3	-76.3544E-12	792.933E-3	-23.6007E-3	-76.1306E-12	746.270E-3	-15.2045E-3
-2.26863E-3	-76.4868E-12	789.940E-3	-34.1351E-3	-76.0402E-12	763.516E-3	-3.47743E-3
-2.27364E-3	-76.0897E-12	791.243E-3	-32.5951E-3	-75.1838E-12	763.208E-3	-13.4397E-3
-2.27864E-3	-75.7192E-12	786.185E-3	-21.8491E-3	-74.6192E-12	739.767E-3	-10.6691E-3
-2.28364E-3	-75.8098E-12	776.289E-3	-11.6618E-3	-74.4809E-12	727.748E-3	-1.80845E-3
-2.28864E-3	-75.6846E-12	770.733E-3	-11.5073E-3	-74.2448E-12	735.436E-3	-13.2377E-3
-2.29365E-3	-75.2146E-12	769.432E-3	-24.2956E-3	-74.1768E-12	744.094E-3	-16.1667E-3
-2.29865E-3	-75.4636E-12	768.691E-3	-30.6405E-3	-74.5585E-12	748.057E-3	-14.8785E-3
-2.30365E-3	-76.0235E-12	765.218E-3	-15.1334E-3	-75.3412E-12	742.897E-3	-19.9769E-3
-2.30865E-3	-76.3762E-12	758.314E-3	2.17319E-3	-76.2459E-12	736.701E-3	-24.5728E-3
-2.31366E-3	-76.4767E-12	741.628E-3	-4.75283E-3	-76.8374E-12	756.543E-3	-29.2927E-3
-2.31866E-3	-77.4527E-12	733.186E-3	-16.2539E-3	-77.9934E-12	786.409E-3	-19.3148E-3
-2.32366E-3	-78.1756E-12	740.935E-3	-5.90298E-3	-79.3854E-12	786.469E-3	-7.41509E-3
-2.32866E-3	-78.9758E-12	745.073E-3	2.59379E-3	-80.0477E-12	766.283E-3	-17.4076E-3
-2.33367E-3	-79.2063E-12	753.534E-3	-19.5088E-3	-80.4442E-12	748.711E-3	-38.4197E-3
-2.33867E-3	-79.9615E-12	764.094E-3	-43.7117E-3	-81.2433E-12	741.008E-3	-37.7977E-3
-2.34367E-3	-80.3850E-12	753.973E-3	-42.3593E-3	-81.2879E-12	749.583E-3	-27.0553E-3
-2.34867E-3	-80.7393E-12	746.018E-3	-24.9826E-3	-81.0257E-12	755.566E-3	-29.9448E-3
-2.35368E-3	-80.7888E-12	755.664E-3	-3.30852E-3	-80.9966E-12	747.790E-3	-22.3566E-3
-2.35868E-3	-80.7773E-12	764.546E-3	-3.86712E-3	-80.9526E-12	744.027E-3	-3.32278E-3
-2.36368E-3	-80.6604E-12	767.382E-3	-25.9433E-3	-80.4969E-12	739.736E-3	2.83339E-3
-2.36868E-3	-81.1567E-12	767.584E-3	-35.4663E-3	-79.9381E-12	730.969E-3	249.399E-6
-2.37369E-3	-80.9871E-12	761.445E-3	-26.7524E-3	-79.7825E-12	730.853E-3	-6.33360E-3
-2.37869E-3	-80.9260E-12	753.301E-3	-15.8625E-3	-79.4167E-12	732.663E-3	-10.7650E-3
-2.38369E-3	-80.9367E-12	757.957E-3	-12.1284E-3	-79.3135E-12	731.436E-3	-9.87569E-3
-2.38869E-3	-80.9469E-12	771.259E-3	-18.4964E-3	-79.2182E-12	720.732E-3	-9.59493E-3
-2.39370E-3	-80.9640E-12	776.206E-3	-36.5377E-3	-79.5640E-12	712.198E-3	-6.74558E-3
-2.39870E-3	-81.2833E-12	761.981E-3	-47.8739E-3	-80.3131E-12	722.986E-3	-3.60845E-3
-2.40370E-3	-81.5704E-12	737.031E-3	-42.2314E-3	-80.6143E-12	737.928E-3	-10.5867E-3
-2.40870E-3	-81.7953E-12	727.576E-3	-33.9789E-3	-81.6017E-12	748.279E-3	-31.1042E-3
-2.41371E-3	-82.0348E-12	731.677E-3	-21.1675E-3	-82.4397E-12	748.141E-3	-33.8110E-3
-2.41871E-3	-82.5890E-12	728.637E-3	-12.2872E-3	-83.1425E-12	749.470E-3	-16.7039E-3
-2.42371E-3	-83.1108E-12	726.737E-3	-19.1017E-3	-83.7414E-12	763.711E-3	-25.4254E-3
-2.42871E-3	-83.2420E-12	729.537E-3	-26.1970E-3	-84.4026E-12	760.540E-3	-43.2669E-3
-2.43372E-3	-83.3937E-12	732.321E-3	-25.5792E-3	-84.6313E-12	753.361E-3	-35.4439E-3
-2.43872E-3	-84.0065E-12	742.163E-3	-23.9274E-3	-85.1860E-12	759.929E-3	-18.8249E-3
-2.44372E-3	-84.0973E-12	755.398E-3	-20.4859E-3	-84.9818E-12	749.842E-3	-9.58571E-3
-2.44872E-3	-84.2828E-12	743.469E-3	-18.4773E-3	-85.5522E-12	731.181E-3	1.00592E-3
-2.45373E-3	-84.3947E-12	722.184E-3	-19.7042E-3	-86.0141E-12	730.678E-3	7.92188E-3
-2.45873E-3	-85.1555E-12	727.108E-3	-13.1993E-3	-86.3203E-12	733.453E-3	-12.6962E-3
-2.46373E-3	-85.2633E-12	742.331E-3	3.29266E-3	-86.1852E-12	731.604E-3	-30.0251E-3
-2.46873E-3	-85.8127E-12	751.205E-3	13.8966E-3	-86.1767E-12	741.263E-3	-12.3934E-3
-2.47374E-3	-86.0048E-12	753.204E-3	1.74640E-3	-86.5181E-12	737.026E-3	9.72094E-3
-2.47874E-3	-86.4049E-12	745.897E-3	-6.39769E-3	-86.3295E-12	723.931E-3	9.60933E-3
-2.48374E-3	-87.0504E-12	738.575E-3	-7.39715E-3	-86.2408E-12	730.857E-3	2.93018E-3
-2.48874E-3	-87.3285E-12	753.351E-3	-25.2085E-3	-86.4009E-12	732.166E-3	7.22040E-3
-2.49375E-3	-86.7777E-12	768.182E-3	-22.7628E-3	-86.8000E-12	729.522E-3	5.56825E-3
-2.49875E-3	-87.2236E-12	751.540E-3	1.23986E-3	-86.4969E-12	731.890E-3	-4.08771E-3
-2.50375E-3	-87.5706E-12	731.728E-3	779.140E-6	-86.9081E-12	726.830E-3	-1.84419E-3
-2.50875E-3	-87.1198E-12	736.181E-3	-12.0991E-3	-87.3957E-12	725.312E-3	-3.39866E-3
-2.51376E-3	-86.9121E-12	741.052E-3	-16.7953E-3	-87.6488E-12	737.642E-3	-23.8966E-3
-2.51876E-3	-87.1405E-12	737.123E-3	-19.1099E-3	-87.8829E-12	740.489E-3	-37.8252E-3
-2.52376E-3	-87.1984E-12	744.052E-3	-10.4353E-3	-88.1591E-12	728.022E-3	-37.6578E-3
-2.52876E-3	-87.0990E-12	739.657E-3	10.6750E-3	-88.5376E-12	720.640E-3	-38.4844E-3
-2.53377E-3	-87.3785E-12	720.199E-3	18.7949E-3	-88.4962E-12	718.267E-3	-34.9260E-3
-2.53877E-3	-87.9138E-12	727.816E-3	-1.24745E-3	-89.1750E-12	722.154E-3	-26.3962E-3
-2.54377E-3	-88.0906E-12	740.043E-3	-19.3612E-3	-89.7096E-12	738.597E-3	-23.2537E-3
-2.54877E-3	-88.1371E-12	729.601E-3	-20.4655E-3	-90.3149E-12	750.905E-3	-33.1154E-3
-2.55378E-3	-89.0380E-12	716.434E-3	-17.9974E-3	-90.8103E-12	737.518E-3	-46.8091E-3
-2.55878E-3	-89.7051E-12	708.733E-3	-15.7128E-3	-91.6984E-12	714.140E-3	-36.5589E-3
-2.56378E-3	-89.9712E-12	709.549E-3	-13.1681E-3	-91.9241E-12	701.138E-3	-10.6989E-3
-2.56878E-3	-90.4537E-12	725.317E-3	-3.40050E-3	-91.8972E-12	699.140E-3	2.39689E-3
-2.57379E-3	-91.1423E-12	743.495E-3	8.83215E-3	-92.1683E-12	712.153E-3	-2.66346E-3
-2.57879E-3	-91.6438E-12	737.376E-3	10.5924E-3	-92.2556E-12	715.988E-3	-16.4077E-3
-2.58379E-3	-92.0159E-12	719.459E-3	4.89599E-3	-91.8180E-12	707.554E-3	-20.7017E-3
-2.58879E-3	-91.9371E-12	719.938E-3	-9.25828E-3	-91.3618E-12	708.215E-3	-14.7697E-3
-2.59380E-3	-92.1670E-12	728.635E-3	-27.2122E-3	-91.0616E-12	700.248E-3	-11.2620E-3
-2.59880E-3	-92.0906E-12	732.352E-3	-29.9310E-3	-90.5252E-12	684.319E-3	-10.8461E-3
-2.60380E-3	-91.9541E-12	731.603E-3	-24.6192E-3	-90.3563E-12	681.335E-3	-10.0172E-3
-2.60880E-3	-91.2018E-12	724.033E-3	-23.2589E-3	-90.0129E-12	694.566E-3	-10.4997E-3
-2.61381E-3	-91.0578E-12	710.871E-3	-12.8819E-3	-90.0760E-12	703.048E-3	-9.56467E-3
-2.61881E-3	-91.0759E-12	692.371E-3	-9.88446E-3	-90.1446E-12	692.186E-3	-6.79700E-3
-2.62381E-3	-90.8679E-12	675.490E-3	-17.9699E-3	-90.4370E-12	686.255E-3	-13.8704E-3
-2.62881E-3	-90.6819E-12	685.248E-3	-1.19926E-3	-91.1020E-12	705.414E-3	-31.8113E-3
-2.63382E-3	-91.3645E-12	704.345E-3	16.7520E-3	-91.6376E-12	727.391E-3	-37.9900E-3
-2.63882E-3	-91.9853E-12	697.492E-3	3.40468E-3	-92.8900E-12	731.781E-3	-35.2406E-3
-2.64382E-3	-92.2039E-12	693.536E-3	-10.6996E-3	-93.5795E-12	738.095E-3	-37.3258E-3
-2.64882E-3	-92.8287E-12	696.478E-3	-18.1733E-3	-94.6094E-12	740.981E-3	-33.1371E-3
-2.65383E-3	-93.8555E-12	689.629E-3	-39.1788E-3	-95.7189E-12	725.680E-3	-23.7832E-3
-2.65883E-3	-94.3667E-12	692.690E-3	-42.0023E-3	-96.6429E-12	712.505E-3	-17.4103E-3
-2.66383E-3	-94.9891E-12	708.670E-3	-12.7528E-3	-96.9140E-12	708.710E-3	-12.9278E-3
-2.66883E-3	-95.6486E-12	716.947E-3	-3.63201E-3	-97.6259E-12	707.594E-3	-10.2597E-3
-2.67384E-3	-96.3157E-12	717.499E-3	-22.5595E-3	-97.8135E-12	705.721E-3	-1.04275E-3
-2.67884E-3	-96.7697E-12	717.878E-3	-26.1130E-3	-97.1439E-12	700.645E-3	9.21415E-3
-2.68384E-3	-97.1255E-12	709.961E-3	-20.1718E-3	-96.8800E-12	700.365E-3	1.10365E-3
-2.68884E-3	-97.1276E-12	711.116E-3	-15.9197E-3	-96.0563E-12	703.944E-3	-22.6285E-3
-2.69385E-3	-97.2128E-12	732.822E-3	-1.18905E-3	-95.3793E-12	711.059E-3	-32.2588E-3
-2.69885E-3	-96.8746E-12	749.555E-3	-494.045E-6	-94.5881E-12	720.467E-3	-13.5262E-3
-2.70385E-3	-96.7293E-12	752.160E-3	-10.9677E-3	-94.1590E-12	705.760E-3	6.72238E-3
-2.70885E-3	-96.5365E-12	735.686E-3	-2.42183E-3	-93.6012E-12	677.647E-3	13.3258E-3
-2.71386E-3	-96.2190E-12	710.930E-3	10.7119E-3	-93.5611E-12	672.520E-3	11.4761E-3
-2.71886E-3	-96.3972E-12	710.175E-3	2.81263E-3	-93.7634E-12	692.135E-3	1.33285E-3
-2.72386E-3	-96.1970E-12	707.134E-3	-285.182E-6	-94.7711E-12	708.216E-3	-9.25423E-3
-2.72886E-3	-96.2933E-12	679.410E-3	16.4921E-3	-95.4480E-12	711.655E-3	-13.2132E-3
-2.73387E-3	-97.0182E-12	673.178E-3	18.6051E-3	-95.8821E-12	711.286E-3	-14.8092E-3
-2.73887E-3	-97.1898E-12	706.980E-3	11.1239E-3	-97.4092E-12	703.734E-3	-6.17668E-3
-2.74387E-3	-97.7562E-12	726.792E-3	4.19660E-3	-98.5628E-12	705.602E-3	3.57758E-3
-2.74887E-3	-98.3145E-12	715.009E-3	-16.7324E-3	-99.5681E-12	718.279E-3	-6.13780E-3
-2.75388E-3	-99.1305E-12	711.912E-3	-26.7041E-3	-100.692E-12	735.051E-3	-20.1401E-3
-2.75888E-3	-99.7035E-12	721.112E-3	-12.4777E-3	-102.044E-12	740.665E-3	-25.2132E-3
-2.76388E-3	-100.349E-12	727.818E-3	-309.858E-6	-102.123E-12	723.063E-3	-18.6470E-3
-2.76888E-3	-100.904E-12	738.004E-3	7.07747E-3	-102.946E-12	708.314E-3	-13.5647E-3
-2.77389E-3	-101.665E-12	725.399E-3	4.45572E-3	-103.033E-12	709.306E-3	-19.6267E-3
-2.77889E-3	-101.660E-12	701.799E-3	-18.9463E-3	-102.928E-12	707.273E-3	-17.8581E-3
-2.78389E-3	-101.657E-12	706.305E-3	-31.7805E-3	-102.224E-12	694.738E-3	-9.69107E-3
-2.78889E-3	-101.481E-12	704.697E-3	-12.7167E-3	-101.579E-12	694.228E-3	-20.2357E-3
-2.79390E-3	-101.415E-12	683.770E-3	-3.10391E-3	-100.541E-12	706.428E-3	-35.4535E-3
-2.79890E-3	-101.686E-12	680.357E-3	-22.3089E-3	-99.6291E-12	717.498E-3	-38.7358E-3
-2.80390E-3	-101.348E-12	692.687E-3	-29.3199E-3	-99.5334E-12	735.274E-3	-41.2836E-3
-2.80890E-3	-101.116E-12	701.353E-3	-17.5943E-3	-99.0909E-12	735.578E-3	-45.0290E-3
-2.81391E-3	-101.105E-12	705.115E-3	-12.3846E-3	-99.2012E-12	692.695E-3	-38.6132E-3
-2.81891E-3	-101.827E-12	702.921E-3	-2.71811E-3	-100.110E-12	658.084E-3	-23.3105E-3
-2.82391E-3	-101.297E-12	697.984E-3	4.67167E-3	-101.067E-12	667.488E-3	-12.4856E-3
-2.82891E-3	-101.507E-12	694.122E-3	-6.79218E-3	-101.046E-12	692.977E-3	-8.31111E-3
-2.83392E-3	-102.077E-12	693.327E-3	-18.0071E-3	-102.335E-12	714.070E-3	-27.1304E-3
-2.83892E-3	-102.624E-12	692.185E-3	-21.2591E-3	-103.401E-12	721.211E-3	-28.9134E-3
-2.84392E-3	-102.483E-12	697.480E-3	-22.0803E-3	-104.475E-12	719.844E-3	4.48912E-3
-2.84892E-3	-103.253E-12	702.202E-3	-13.2696E-3	-105.531E-12	713.594E-3	13.6743E-3
-2.85393E-3	-104.039E-12	675.308E-3	-2.30259E-3	-106.596E-12	698.399E-3	-5.36671E-3
-2.85893E-3	-103.913E-12	654.729E-3	-10.6397E-3	-107.054E-12	686.192E-3	-24.8302E-3
-2.86393E-3	-104.260E-12	682.868E-3	-12.5361E-3	-107.017E-12	690.233E-3	-27.9254E-3
-2.86893E-3	-104.942E-12	707.801E-3	-3.33164E-3	-107.407E-12	715.431E-3	-16.6833E-3
-2.87394E-3	-105.010E-12	707.738E-3	-20.9000E-3	-107.057E-12	725.408E-3	-8.44897E-3
-2.87894E-3	-105.437E-12	698.993E-3	-42.3613E-3	-106.360E-12	701.172E-3	-11.4922E-3
-2.88394E-3	-106.029E-12	672.452E-3	-41.0792E-3	-106.151E-12	680.626E-3	-24.2908E-3
-2.88894E-3	-106.592E-12	653.268E-3	-30.9679E-3	-106.292E-12	680.999E-3	-24.4214E-3
-2.89395E-3	-106.271E-12	668.729E-3	-22.0077E-3	-106.072E-12	674.600E-3	-13.1600E-3
-2.89895E-3	-106.201E-12	687.350E-3	-32.3499E-3	-105.532E-12	665.499E-3	-16.0521E-3
-2.90395E-3	-106.728E-12	695.665E-3	-45.0846E-3	-105.876E-12	672.060E-3	-25.7285E-3
-2.90895E-3	-107.482E-12	711.427E-3	-38.8628E-3	-105.811E-12	686.973E-3	-21.1021E-3
-2.91396E-3	-107.142E-12	702.419E-3	-20.0045E-3	-105.878E-12	694.981E-3	-12.1324E-3
-2.91896E-3	-107.330E-12	674.669E-3	3.45975E-3	-105.330E-12	685.098E-3	-21.6351E-3
-2.92396E-3	-107.700E-12	685.387E-3	5.25741E-3	-106.424E-12	676.238E-3	-28.6415E-3
-2.92896E-3	-107.712E-12	701.797E-3	-6.95491E-3	-106.368E-12	676.193E-3	-26.7368E-3
-2.93397E-3	-107.598E-12	700.071E-3	-13.5941E-3	-106.169E-12	678.845E-3	-27.8359E-3
-2.93897E-3	-107.417E-12	697.893E-3	-13.2600E-3	-106.668E-12	683.098E-3	-22.3181E-3
-2.94397E-3	-107.151E-12	680.527E-3	-8.26903E-3	-107.218E-12	689.018E-3	-23.4894E-3
-2.94897E-3	-107.418E-12	669.065E-3	-18.7175E-3	-106.806E-12	701.579E-3	-31.1777E-3
-2.95398E-3	-107.488E-12	680.774E-3	-28.8183E-3	-107.138E-12	709.434E-3	-32.6022E-3
-2.95898E-3	-107.453E-12	685.345E-3	-14.7542E-3	-108.362E-12	703.408E-3	-33.3211E-3
-2.96398E-3	-108.282E-12	672.205E-3	-11.8194E-3	-108.668E-12	709.245E-3	-36.1217E-3
-2.96898E-3	-108.338E-12	680.732E-3	-23.9543E-3	-108.686E-12	724.919E-3	-30.8542E-3
-2.97399E-3	-108.503E-12	697.737E-3	-12.1344E-3	-109.632E-12	717.130E-3	-21.3568E-3
-2.97899E-3	-109.048E-12	675.958E-3	8.65602E-3	-109.984E-12	711.397E-3	-23.6684E-3
-2.98399E-3	-109.830E-12	655.309E-3	-10.4358E-3	-110.314E-12	720.333E-3	-18.3436E-3
-2.98899E-3	-109.987E-12	673.083E-3	-39.1646E-3	-111.196E-12	716.704E-3	-588.920E-6
-2.99400E-3	-110.368E-12	687.539E-3	-36.9048E-3	-111.432E-12	690.409E-3	4.64232E-3
-2.99900E-3	-111.410E-12	680.628E-3	-22.1788E-3	-111.516E-12	666.452E-3	-5.65144E-3
-3.00400E-3	-111.501E-12	685.853E-3	1.61597E-3	-111.406E-12	668.166E-3	-24.0814E-3
-3.00900E-3	-111.272E-12	688.041E-3	9.96005E-3	-111.216E-12	669.713E-3	-39.9640E-3
-3.01401E-3	-111.379E-12	677.426E-3	-14.4428E-3	-110.979E-12	660.181E-3	-24.3531E-3
-3.01901E-3	-111.217E-12	678.853E-3	-19.7631E-3	-110.638E-12	661.831E-3	6.45403E-3
-3.02401E-3	-111.544E-12	681.536E-3	-5.63956E-3	-110.271E-12	674.987E-3	-22.1668E-3
-3.02901E-3	-111.149E-12	673.038E-3	-10.1632E-3	-109.815E-12	676.534E-3	-78.5806E-3
-3.03402E-3	-111.269E-12	670.712E-3	3.09203E-3	-109.857E-12	676.707E-3	-81.0798E-3
-3.03902E-3	-110.922E-12	682.971E-3	31.1008E-3	-109.757E-12	673.781E-3	-51.3308E-3
-3.04402E-3	-110.521E-12	691.269E-3	24.6679E-3	-109.579E-12	657.485E-3	-22.1118E-3
-3.04902E-3	-111.022E-12	685.882E-3	-5.28031E-3	-109.461E-12	663.444E-3	-7.52303E-3
-3.05403E-3	-111.350E-12	673.730E-3	-37.9918E-3	-110.897E-12	676.691E-3	-14.5397E-3
-3.05903E-3	-111.373E-12	681.396E-3	-53.5654E-3	-111.634E-12	679.293E-3	-15.9631E-3
-3.06403E-3	-111.620E-12	701.427E-3	-16.8493E-3	-112.445E-12	696.145E-3	-8.04390E-3
-3.06903E-3	-112.506E-12	697.742E-3	33.3858E-3	-113.401E-12	701.045E-3	-10.0237E-3
-3.07404E-3	-113.210E-12	680.761E-3	23.8752E-3	-115.025E-12	688.514E-3	-15.6522E-3
-3.07904E-3	-113.989E-12	664.717E-3	-8.34542E-3	-115.792E-12	687.662E-3	-10.5705E-3
-3.08404E-3	-114.569E-12	653.663E-3	-25.7417E-3	-117.149E-12	688.773E-3	11.8629E-3
-3.08904E-3	-115.285E-12	667.252E-3	-30.6426E-3	-118.116E-12	694.858E-3	33.8570E-3
-3.09405E-3	-116.001E-12	703.139E-3	-11.5432E-3	-118.652E-12	708.839E-3	32.4197E-3
-3.09905E-3	-116.066E-12	711.426E-3	-11.7694E-3	-118.732E-12	703.056E-3	3.63014E-3
-3.10405E-3	-116.778E-12	686.520E-3	-38.2075E-3	-118.793E-12	687.782E-3	-32.3514E-3
-3.10905E-3	-116.730E-12	674.070E-3	-46.4408E-3	-118.988E-12	700.033E-3	-35.3555E-3
-3.11406E-3	-116.830E-12	674.694E-3	-39.4437E-3	-117.470E-12	723.208E-3	-17.8907E-3
-3.11906E-3	-116.738E-12	689.202E-3	-41.6583E-3	-116.244E-12	708.991E-3	-17.7813E-3
-3.12406E-3	-116.996E-12	715.347E-3	-34.7433E-3	-116.122E-12	668.641E-3	-26.3023E-3
-3.12906E-3	-116.325E-12	715.891E-3	-14.4645E-3	-115.072E-12	651.708E-3	-30.1197E-3
-3.13407E-3	-116.124E-12	709.727E-3	-16.6361E-3	-114.232E-12	666.951E-3	-31.9065E-3
-3.13907E-3	-115.788E-12	714.891E-3	-23.0471E-3	-113.789E-12	674.400E-3	-13.4405E-3
-3.14407E-3	-116.006E-12	697.871E-3	-2.99784E-3	-114.011E-12	653.589E-3	17.5629E-3
-3.14907E-3	-115.820E-12	678.693E-3	4.53122E-3	-114.641E-12	635.804E-3	23.8210E-3
-3.15408E-3	-116.036E-12	681.654E-3	-20.4489E-3	-115.289E-12	648.789E-3	17.1951E-3
-3.15908E-3	-116.599E-12	682.809E-3	-17.7380E-3	-115.240E-12	675.937E-3	-15.5512E-3
-3.16408E-3	-117.345E-12	679.594E-3	13.7483E-3	-116.869E-12	689.079E-3	-57.4403E-3
-3.16908E-3	-117.791E-12	686.994E-3	26.5640E-3	-118.276E-12	685.552E-3	-56.6454E-3
-3.17409E-3	-118.773E-12	688.583E-3	22.2159E-3	-119.551E-12	682.717E-3	-34.6877E-3
-3.17909E-3	-119.247E-12	682.133E-3	8.32495E-3	-120.754E-12	685.646E-3	-21.8418E-3
-3.18409E-3	-120.010E-12	692.304E-3	-14.7862E-3	-122.395E-12	694.085E-3	-8.48107E-3
-3.18909E-3	-120.677E-12	702.315E-3	-27.2427E-3	-123.449E-12	697.360E-3	-5.47447E-3
-3.19410E-3	-120.824E-12	692.117E-3	-28.3940E-3	-123.759E-12	689.589E-3	-10.9215E-3
-3.19910E-3	-121.068E-12	689.153E-3	-39.9929E-3	-122.989E-12	676.498E-3	-10.3593E-3
-3.20410E-3	-121.371E-12	689.261E-3	-31.2667E-3	-122.801E-12	667.341E-3	-22.7487E-3
-3.20910E-3	-121.716E-12	667.639E-3	-13.1201E-3	-122.816E-12	668.455E-3	-38.8803E-3
-3.21411E-3	-121.700E-12	665.531E-3	-34.9205E-3	-121.467E-12	677.628E-3	-35.6005E-3
-3.21911E-3	-121.604E-12	681.352E-3	-55.9948E-3	-120.105E-12	682.823E-3	-12.6035E-3
-3.22411E-3	-121.271E-12	682.917E-3	-59.1707E-3	-119.120E-12	665.477E-3	-2.52282E-3
-3.22911E-3	-121.046E-12	693.162E-3	-62.8455E-3	-118.172E-12	656.688E-3	-18.2404E-3
-3.23412E-3	-120.680E-12	701.284E-3	-34.6926E-3	-117.728E-12	663.499E-3	-33.2243E-3
-3.23912E-3	-120.858E-12	683.915E-3	-4.96041E-3	-117.985E-12	656.986E-3	-40.7092E-3
-3.24412E-3	-120.382E-12	683.538E-3	-28.4272E-3	-117.565E-12	655.406E-3	-38.9945E-3
-3.24912E-3	-120.898E-12	700.642E-3	-35.8343E-3	-117.972E-12	664.628E-3	-43.9507E-3
-3.25413E-3	-121.279E-12	688.481E-3	3.36922E-3	-119.217E-12	666.810E-3	-63.4352E-3
-3.25913E-3	-121.283E-12	681.585E-3	6.59424E-3	-120.269E-12	674.081E-3	-64.7417E-3
-3.26413E-3	-121.422E-12	690.625E-3	1.15090E-3	-121.134E-12	696.813E-3	-49.8681E-3
-3.26913E-3	-122.007E-12	671.361E-3	21.3753E-3	-121.978E-12	708.718E-3	-37.0878E-3
-3.27414E-3	-122.506E-12	646.711E-3	13.8303E-3	-123.632E-12	705.550E-3	-33.3903E-3
-3.27914E-3	-122.656E-12	659.233E-3	-2.64498E-3	-124.289E-12	703.542E-3	-37.0244E-3
-3.28414E-3	-122.822E-12	684.786E-3	-2.24404E-3	-125.093E-12	695.867E-3	-58.5426E-3
-3.28914E-3	-123.434E-12	694.133E-3	-2.72345E-3	-126.084E-12	682.342E-3	-79.9586E-3
-3.29415E-3	-123.969E-12	709.753E-3	-3.28862E-3	-126.809E-12	681.117E-3	-46.9189E-3
-3.29915E-3	-124.117E-12	713.880E-3	-11.0262E-3	-126.233E-12	686.122E-3	-1.56278E-3
-3.30415E-3	-125.029E-12	687.032E-3	-30.5029E-3	-126.396E-12	684.198E-3	-543.622E-6
-3.30915E-3	-125.463E-12	677.235E-3	-28.6915E-3	-125.934E-12	686.612E-3	650.992E-6
-3.31416E-3	-125.162E-12	682.686E-3	-2.53348E-3	-125.110E-12	691.221E-3	12.8124E-3
-3.31916E-3	-125.789E-12	674.377E-3	-1.99607E-3	-124.257E-12	695.188E-3	-204.433E-6
-3.32416E-3	-126.509E-12	684.443E-3	-31.7933E-3	-124.234E-12	689.335E-3	-22.9861E-3
-3.32916E-3	-126.024E-12	705.300E-3	-36.4692E-3	-123.899E-12	666.816E-3	-34.0628E-3
-3.33417E-3	-125.646E-12	704.699E-3	-28.1165E-3	-123.918E-12	645.809E-3	-34.2405E-3
-3.33917E-3	-125.887E-12	706.889E-3	-34.4556E-3	-123.523E-12	642.762E-3	-17.4341E-3
-3.34417E-3	-125.686E-12	701.730E-3	-27.3626E-3	-124.082E-12	656.760E-3	730.573E-6
-3.34917E-3	-126.001E-12	677.576E-3	-15.5090E-3	-124.515E-12	657.813E-3	110.246E-6
-3.35418E-3	-125.958E-12	673.174E-3	-24.9445E-3	-124.119E-12	648.070E-3	-1.97078E-3
-3.35918E-3	-125.894E-12	679.340E-3	-38.7190E-3	-124.387E-12	653.617E-3	-9.74701E-3
-3.36418E-3	-126.350E-12	667.052E-3	-40.7477E-3	-125.415E-12	657.182E-3	-24.2516E-3
-3.36918E-3	-126.998E-12	662.549E-3	-44.9956E-3	-125.836E-12	661.181E-3	-14.1489E-3
-3.37419E-3	-126.998E-12	669.487E-3	-34.5720E-3	-125.745E-12	669.469E-3	5.15844E-3
-3.37919E-3	-127.160E-12	668.573E-3	-16.7105E-3	-126.834E-12	659.614E-3	3.30917E-3
-3.38419E-3	-128.278E-12	673.567E-3	-34.2485E-3	-128.099E-12	663.492E-3	-18.0914E-3
-3.38919E-3	-128.480E-12	693.001E-3	-51.1402E-3	-128.434E-12	679.048E-3	-31.5673E-3
-3.39420E-3	-128.825E-12	699.314E-3	-39.8852E-3	-129.098E-12	680.811E-3	-26.6664E-3
-3.39920E-3	-130.058E-12	696.891E-3	-26.6731E-3	-130.251E-12	687.415E-3	-11.3287E-3
-3.40420E-3	-130.683E-12	707.559E-3	-5.12090E-3	-130.984E-12	683.636E-3	6.54451E-3
-3.40920E-3	-130.972E-12	697.950E-3	2.87173E-3	-130.896E-12	669.121E-3	4.51408E-3
-3.41421E-3	-130.447E-12	687.882E-3	-9.57630E-3	-131.204E-12	683.249E-3	11.7712E-3
-3.41921E-3	-131.033E-12	689.852E-3	1.27964E-3	-131.594E-12	713.939E-3	25.5987E-3
-3.42421E-3	-130.927E-12	667.053E-3	19.2319E-3	-131.758E-12	706.872E-3	4.25766E-3
-3.42921E-3	-130.212E-12	667.791E-3	13.2313E-3	-131.812E-12	674.632E-3	-12.3794E-3
-3.43422E-3	-130.122E-12	694.643E-3	-2.67648E-3	-131.896E-12	672.048E-3	-12.9743E-3
-3.43922E-3	-130.096E-12	698.953E-3	-15.8310E-3	-132.049E-12	684.751E-3	-18.9677E-3
-3.44422E-3	-129.685E-12	698.150E-3	-38.2638E-3	-130.968E-12	670.878E-3	-10.5423E-3
-3.44922E-3	-129.776E-12	697.445E-3	-44.5773E-3	-131.052E-12	641.062E-3	14.7748E-3
-3.45423E-3	-130.299E-12	672.055E-3	2.02692E-3	-130.897E-12	622.917E-3	19.0115E-3
-3.45923E-3	-129.766E-12	643.543E-3	18.0689E-3	-130.471E-12	637.291E-3	-13.0927E-3
-3.46423E-3	-129.852E-12	657.457E-3	-18.2326E-3	-130.239E-12	669.514E-3	-35.4618E-3
-3.46923E-3	-130.720E-12	666.927E-3	-15.7808E-3	-129.946E-12	685.010E-3	-24.6918E-3
-3.47424E-3	-131.060E-12	650.271E-3	-3.63521E-3	-130.546E-12	688.173E-3	-1.53966E-3
-3.47924E-3	-130.735E-12	663.160E-3	-7.52866E-3	-130.870E-12	679.349E-3	10.9394E-3
-3.48424E-3	-131.458E-12	667.641E-3	-257.472E-6	-131.564E-12	659.434E-3	5.04619E-3
-3.48924E-3	-132.408E-12	654.380E-3	-6.85291E-3	-132.319E-12	666.179E-3	-5.31017E-3
-3.49425E-3	-132.861E-12	660.344E-3	-30.9682E-3	-133.602E-12	684.980E-3	-15.4805E-3
-3.49925E-3	-133.277E-12	655.037E-3	-35.5710E-3	-134.888E-12	683.787E-3	-11.4635E-3
-3.50425E-3	-134.119E-12	649.169E-3	-23.4512E-3	-136.059E-12	675.170E-3	13.3192E-3
-3.50925E-3	-134.817E-12	668.007E-3	-13.4403E-3	-136.975E-12	683.767E-3	17.9950E-3
-3.51426E-3	-134.959E-12	679.509E-3	-4.38830E-3	-137.562E-12	716.088E-3	-1.39240E-3
-3.51926E-3	-135.149E-12	667.606E-3	-13.5067E-3	-137.778E-12	733.761E-3	-10.9835E-3
-3.52426E-3	-135.552E-12	655.689E-3	-16.4884E-3	-138.069E-12	726.034E-3	-6.10940E-3
-3.52926E-3	-135.679E-12	653.585E-3	2.87837E-3	-138.839E-12	705.199E-3	-11.0351E-3
-3.53427E-3	-134.977E-12	643.009E-3	-7.93686E-3	-137.370E-12	682.772E-3	-22.2447E-3
-3.53927E-3	-135.379E-12	649.830E-3	-43.4177E-3	-137.318E-12	683.611E-3	-19.1301E-3
-3.54427E-3	-135.353E-12	667.934E-3	-34.2859E-3	-136.279E-12	685.081E-3	-6.80238E-3
-3.54927E-3	-135.216E-12	668.486E-3	-2.95793E-3	-135.216E-12	655.498E-3	17.8303E-3
-3.55428E-3	-134.700E-12	675.058E-3	2.70763E-3	-133.506E-12	641.620E-3	37.3613E-3
-3.55928E-3	-134.880E-12	678.076E-3	1.39343E-3	-133.679E-12	651.370E-3	10.4383E-3
-3.56428E-3	-134.899E-12	666.113E-3	-20.3099E-3	-132.516E-12	639.823E-3	-40.3280E-3
-3.56928E-3	-134.651E-12	668.404E-3	-42.4666E-3	-132.403E-12	633.782E-3	-54.4191E-3
-3.57429E-3	-134.752E-12	681.514E-3	-28.2637E-3	-132.914E-12	639.412E-3	-41.9024E-3
-3.57929E-3	-134.930E-12	666.134E-3	-24.8571E-3	-133.151E-12	630.101E-3	-34.1220E-3
-3.58429E-3	-135.758E-12	666.004E-3	-43.2215E-3	-133.885E-12	630.909E-3	-30.4341E-3
-3.58929E-3	-135.952E-12	697.762E-3	-43.3707E-3	-135.177E-12	645.561E-3	-43.4658E-3
-3.59430E-3	-136.649E-12	679.161E-3	-45.2175E-3	-136.419E-12	653.432E-3	-59.9812E-3
-3.59930E-3	-137.073E-12	647.329E-3	-45.3479E-3	-137.397E-12	668.169E-3	-31.5345E-3
-3.60430E-3	-138.603E-12	655.873E-3	-13.0290E-3	-139.334E-12	684.071E-3	1.30815E-3
-3.60930E-3	-138.709E-12	659.484E-3	7.69212E-3	-140.217E-12	672.495E-3	-7.19393E-3
-3.61431E-3	-139.778E-12	653.365E-3	-26.0579E-3	-140.637E-12	658.777E-3	-18.5119E-3
-3.61931E-3	-140.473E-12	659.967E-3	-60.3032E-3	-141.437E-12	665.596E-3	-16.0032E-3
-3.62431E-3	-140.731E-12	670.610E-3	-49.8656E-3	-142.248E-12	681.548E-3	-8.43758E-3
-3.62931E-3	-140.347E-12	667.165E-3	-44.2248E-3	-141.640E-12	689.637E-3	1.68286E-3
-3.63432E-3	-140.709E-12	653.692E-3	-46.3182E-3	-141.022E-12	683.624E-3	3.07406E-3
-3.63932E-3	-140.659E-12	647.318E-3	-32.6810E-3	-140.283E-12	677.731E-3	317.479E-6
-3.64432E-3	-139.961E-12	653.205E-3	-37.8298E-3	-139.745E-12	679.030E-3	1.15514E-3
-3.64932E-3	-139.500E-12	667.831E-3	-48.7685E-3	-138.698E-12	687.053E-3	3.60149E-3
-3.65433E-3	-139.395E-12	675.475E-3	-32.7516E-3	-137.703E-12	674.445E-3	10.8823E-3
-3.65933E-3	-139.142E-12	676.667E-3	-12.5923E-3	-137.108E-12	643.747E-3	-884.783E-6
-3.66433E-3	-139.152E-12	682.175E-3	-13.5933E-3	-136.821E-12	651.074E-3	-28.3524E-3
-3.66933E-3	-138.792E-12	661.339E-3	-25.1230E-3	-136.337E-12	671.385E-3	-50.1013E-3
-3.67434E-3	-139.009E-12	633.446E-3	-26.1574E-3	-136.760E-12	666.345E-3	-44.7484E-3
-3.67934E-3	-139.122E-12	634.844E-3	-17.4074E-3	-137.731E-12	662.293E-3	-8.90350E-3
-3.68434E-3	-139.938E-12	639.039E-3	-20.4017E-3	-138.300E-12	655.461E-3	-4.08334E-3
-3.68934E-3	-139.883E-12	643.051E-3	-33.0425E-3	-139.572E-12	638.568E-3	-23.6748E-3
-3.69435E-3	-140.568E-12	652.446E-3	-41.3711E-3	-140.669E-12	648.120E-3	-16.7002E-3
-3.69935E-3	-141.119E-12	649.008E-3	-35.8211E-3	-141.529E-12	702.913E-3	-22.1326E-3
-3.70435E-3	-142.224E-12	642.345E-3	-15.5771E-3	-142.826E-12	738.248E-3	-37.7667E-3
-3.70935E-3	-142.522E-12	664.960E-3	-11.2175E-3	-144.143E-12	728.462E-3	-23.3055E-3
-3.71436E-3	-143.017E-12	687.372E-3	-20.9301E-3	-145.058E-12	704.337E-3	-8.99693E-3
-3.71936E-3	-143.846E-12	658.591E-3	-21.9186E-3	-145.504E-12	645.370E-3	-11.5308E-3
-3.72436E-3	-143.990E-12	630.212E-3	-29.4807E-3	-146.278E-12	614.450E-3	629.133E-6
-3.72936E-3	-145.018E-12	649.104E-3	-40.4419E-3	-146.308E-12	647.936E-3	12.2595E-3
-3.73437E-3	-145.375E-12	671.727E-3	-41.0083E-3	-146.044E-12	660.257E-3	-24.1722E-3
-3.73937E-3	-145.561E-12	697.119E-3	-30.7720E-3	-144.954E-12	651.760E-3	-45.6828E-3
-3.74437E-3	-145.359E-12	714.190E-3	-24.9306E-3	-144.931E-12	666.416E-3	-12.9084E-3
-3.74937E-3	-145.766E-12	688.610E-3	-31.6228E-3	-145.039E-12	678.567E-3	8.97872E-3
-3.75438E-3	-145.340E-12	658.141E-3	-29.8692E-3	-144.272E-12	678.144E-3	2.95707E-3
-3.75938E-3	-144.922E-12	651.124E-3	-9.84338E-3	-143.961E-12	676.443E-3	-4.49541E-3
-3.76438E-3	-144.772E-12	650.163E-3	2.79022E-3	-144.023E-12	643.423E-3	252.904E-6
-3.76938E-3	-145.016E-12	650.128E-3	-12.0490E-3	-144.074E-12	608.592E-3	5.58503E-3
-3.77439E-3	-144.702E-12	657.713E-3	-30.6897E-3	-143.275E-12	623.011E-3	-4.02658E-3
-3.77939E-3	-144.746E-12	654.274E-3	-45.1677E-3	-143.155E-12	641.503E-3	-12.2114E-3
-3.78439E-3	-144.782E-12	654.442E-3	-53.7990E-3	-144.101E-12	639.361E-3	-3.99325E-3
-3.78939E-3	-144.564E-12	663.132E-3	-35.6366E-3	-144.897E-12	653.280E-3	-2.78703E-3
-3.79440E-3	-145.015E-12	651.888E-3	-12.9801E-3	-145.401E-12	678.793E-3	-20.9484E-3
-3.79940E-3	-145.750E-12	659.919E-3	-18.4384E-3	-145.726E-12	680.917E-3	-18.1750E-3
-3.80440E-3	-146.032E-12	683.510E-3	-24.0719E-3	-146.481E-12	662.360E-3	11.8899E-3
-3.80940E-3	-146.823E-12	655.304E-3	-4.17875E-3	-147.657E-12	650.232E-3	21.6205E-3
-3.81441E-3	-147.613E-12	613.961E-3	14.6258E-3	-147.847E-12	647.612E-3	8.09571E-3
-3.81941E-3	-148.272E-12	633.823E-3	20.1772E-3	-148.915E-12	660.944E-3	-11.7779E-3
-3.82441E-3	-148.796E-12	653.954E-3	-2.22460E-3	-150.138E-12	687.614E-3	-18.2249E-3
-3.82941E-3	-149.136E-12	655.086E-3	-44.7911E-3	-150.678E-12	680.240E-3	2.03713E-3
-3.83442E-3	-149.605E-12	691.029E-3	-42.0537E-3	-150.283E-12	639.457E-3	14.9050E-3
-3.83942E-3	-149.841E-12	693.735E-3	-17.7613E-3	-150.905E-12	623.687E-3	-1.72454E-3
-3.84442E-3	-149.993E-12	659.393E-3	-33.2975E-3	-150.771E-12	636.804E-3	-15.2506E-3
-3.84942E-3	-149.530E-12	662.509E-3	-59.1987E-3	-150.507E-12	642.066E-3	1.42437E-3
-3.85443E-3	-149.562E-12	672.521E-3	-50.8090E-3	-150.606E-12	637.089E-3	3.32651E-3
-3.85943E-3	-148.889E-12	668.624E-3	-26.5633E-3	-150.702E-12	638.560E-3	-8.22313E-3
-3.86443E-3	-148.596E-12	676.783E-3	-8.00303E-3	-149.260E-12	646.384E-3	5.29286E-3
-3.86943E-3	-148.122E-12	673.043E-3	7.50058E-3	-149.244E-12	648.125E-3	-13.0568E-3
-3.87444E-3	-148.044E-12	651.670E-3	-8.26400E-3	-149.553E-12	649.015E-3	-60.1613E-3
-3.87944E-3	-147.753E-12	646.564E-3	-32.9047E-3	-148.559E-12	662.853E-3	-61.1927E-3
-3.88444E-3	-147.844E-12	638.772E-3	-18.7468E-3	-147.294E-12	659.156E-3	-31.5391E-3
-3.88944E-3	-147.965E-12	615.299E-3	-12.9918E-3	-147.635E-12	623.581E-3	-15.6871E-3
-3.89445E-3	-148.403E-12	620.028E-3	-26.9222E-3	-148.015E-12	613.432E-3	-11.7577E-3
-3.89945E-3	-148.492E-12	642.870E-3	-11.3994E-3	-148.252E-12	646.236E-3	-16.2267E-3
-3.90445E-3	-148.825E-12	652.675E-3	1.85966E-3	-148.211E-12	668.470E-3	-19.9955E-3
-3.90945E-3	-149.942E-12	667.657E-3	-2.53886E-3	-148.911E-12	664.013E-3	-2.50978E-3
-3.91446E-3	-151.236E-12	673.626E-3	10.2424E-3	-150.394E-12	660.577E-3	3.69257E-3
-3.91946E-3	-151.529E-12	660.740E-3	7.60762E-3	-151.602E-12	661.822E-3	-27.3591E-3
-3.92446E-3	-152.218E-12	663.461E-3	-32.4712E-3	-151.903E-12	662.184E-3	-36.0889E-3
-3.92946E-3	-153.172E-12	675.439E-3	-39.2345E-3	-152.966E-12	674.702E-3	-14.0721E-3
-3.93447E-3	-153.754E-12	669.866E-3	-2.43414E-3	-154.380E-12	680.405E-3	-10.0397E-3
-3.93947E-3	-153.433E-12	666.113E-3	20.6851E-3	-155.204E-12	657.911E-3	-10.0994E-3
-3.94447E-3	-153.725E-12	689.802E-3	9.74329E-3	-154.802E-12	648.393E-3	-18.8788E-3
-3.94947E-3	-153.758E-12	704.871E-3	-26.1473E-3	-154.812E-12	672.123E-3	-26.6954E-3
-3.95448E-3	-153.722E-12	698.288E-3	-46.9400E-3	-155.117E-12	700.165E-3	-2.19831E-3
-3.95948E-3	-153.657E-12	681.236E-3	-31.6842E-3	-154.803E-12	717.108E-3	16.9632E-3
-3.96448E-3	-153.347E-12	653.501E-3	-14.7881E-3	-154.500E-12	702.255E-3	7.43242E-3
-3.96948E-3	-153.305E-12	649.246E-3	-20.5412E-3	-153.589E-12	640.916E-3	-8.33177E-3
-3.97449E-3	-152.724E-12	653.915E-3	-27.2978E-3	-152.951E-12	599.359E-3	-2.77372E-3
-3.97949E-3	-153.257E-12	641.573E-3	-22.1414E-3	-152.143E-12	618.165E-3	12.8366E-3
-3.98449E-3	-153.277E-12	637.837E-3	-25.7558E-3	-151.876E-12	648.605E-3	19.3216E-3
-3.98949E-3	-153.136E-12	645.004E-3	-17.5187E-3	-151.553E-12	666.557E-3	18.0653E-3
-3.99450E-3	-152.544E-12	641.373E-3	14.6452E-3	-150.767E-12	667.058E-3	-6.03753E-3
-3.99950E-3	-153.420E-12	632.794E-3	7.65353E-3	-151.098E-12	640.278E-3	-34.5746E-3
-4.00450E-3	-154.450E-12	623.370E-3	-38.0545E-3	-152.908E-12	624.724E-3	-46.7184E-3
-4.00950E-3	-154.700E-12	619.823E-3	-67.1352E-3	-153.580E-12	644.140E-3	-51.6580E-3
-4.01451E-3	-154.838E-12	618.011E-3	-63.9646E-3	-153.816E-12	640.334E-3	-36.3102E-3
-4.01951E-3	-156.415E-12	619.684E-3	-44.7115E-3	-155.845E-12	624.446E-3	-28.1588E-3
-4.02451E-3	-157.450E-12	634.470E-3	-29.0825E-3	-157.697E-12	652.403E-3	-44.2665E-3
-4.02951E-3	-157.281E-12	636.238E-3	-20.2146E-3	-158.372E-12	698.045E-3	-34.4791E-3
-4.03452E-3	-157.470E-12	631.096E-3	-9.93270E-3	-159.166E-12	718.713E-3	-2.53164E-3
-4.03952E-3	-158.319E-12	645.814E-3	8.83458E-3	-160.009E-12	700.756E-3	4.20068E-3
-4.04452E-3	-158.769E-12	665.685E-3	6.68549E-3	-161.054E-12	662.512E-3	-13.7731E-3
-4.04952E-3	-158.685E-12	669.052E-3	-35.4132E-3	-160.237E-12	669.720E-3	-24.3139E-3
-4.05453E-3	-158.616E-12	655.219E-3	-57.6448E-3	-160.556E-12	699.155E-3	-27.1315E-3
-4.05953E-3	-159.093E-12	640.870E-3	-32.2982E-3	-160.765E-12	672.979E-3	-26.8066E-3
-4.06453E-3	-159.557E-12	654.994E-3	-8.63584E-3	-160.056E-12	633.834E-3	-13.8116E-3
-4.06953E-3	-159.334E-12	688.123E-3	956.604E-6	-159.621E-12	638.050E-3	-7.04141E-3
-4.07454E-3	-159.126E-12	692.715E-3	-7.53718E-3	-159.307E-12	657.790E-3	-12.6477E-3
-4.07954E-3	-160.008E-12	686.719E-3	-33.4898E-3	-159.076E-12	672.544E-3	-16.6725E-3
-4.08454E-3	-159.684E-12	691.499E-3	-31.1998E-3	-158.234E-12	673.562E-3	-17.7560E-3
-4.08954E-3	-159.516E-12	668.159E-3	-22.6735E-3	-157.707E-12	630.475E-3	-9.54919E-3
-4.09455E-3	-159.992E-12	634.789E-3	-33.8371E-3	-157.938E-12	590.443E-3	-1.29860E-3
-4.09955E-3	-159.866E-12	642.597E-3	-23.0911E-3	-158.548E-12	609.177E-3	-20.9293E-3
-4.10455E-3	-159.947E-12	677.913E-3	-2.73090E-3	-158.042E-12	655.315E-3	-47.6559E-3
-4.10955E-3	-160.164E-12	697.507E-3	-13.1669E-3	-159.326E-12	689.797E-3	-36.0529E-3
-4.11456E-3	-159.779E-12	673.296E-3	-20.7982E-3	-160.396E-12	707.754E-3	-3.93532E-3
-4.11956E-3	-159.788E-12	641.953E-3	-16.7615E-3	-161.479E-12	708.661E-3	3.42952E-3
-4.12456E-3	-160.202E-12	649.460E-3	-32.7282E-3	-162.000E-12	701.700E-3	-14.9929E-3
-4.12956E-3	-161.058E-12	640.197E-3	-37.8927E-3	-163.214E-12	698.865E-3	-46.3480E-3
-4.13457E-3	-161.127E-12	593.425E-3	-20.9223E-3	-164.092E-12	686.987E-3	-62.4147E-3
-4.13957E-3	-161.486E-12	579.364E-3	-13.5439E-3	-163.992E-12	659.257E-3	-35.5839E-3
-4.14457E-3	-162.069E-12	612.220E-3	5.85153E-3	-164.695E-12	646.455E-3	-14.1500E-3
-4.14957E-3	-162.884E-12	634.207E-3	24.5402E-3	-165.261E-12	652.841E-3	-32.3883E-3
-4.15458E-3	-163.389E-12	634.848E-3	5.62835E-3	-164.728E-12	669.262E-3	-31.5445E-3
-4.15958E-3	-163.383E-12	638.316E-3	-6.74149E-3	-163.543E-12	685.793E-3	10.0273E-3
-4.16458E-3	-164.146E-12	634.297E-3	-8.49702E-3	-164.344E-12	674.052E-3	30.5730E-3
-4.16958E-3	-164.682E-12	631.734E-3	-17.1075E-3	-163.672E-12	633.461E-3	7.95278E-3
-4.17459E-3	-164.382E-12	641.676E-3	-16.9692E-3	-163.276E-12	614.577E-3	-26.1777E-3
-4.17959E-3	-163.872E-12	638.288E-3	-18.3782E-3	-162.755E-12	633.766E-3	-52.1918E-3
-4.18459E-3	-163.628E-12	619.800E-3	-19.1911E-3	-162.865E-12	649.420E-3	-54.2557E-3
-4.18959E-3	-163.342E-12	628.788E-3	-11.3556E-3	-162.778E-12	663.636E-3	-29.3373E-3
-4.19460E-3	-163.075E-12	655.452E-3	-9.15145E-3	-162.246E-12	669.904E-3	-25.3406E-3
-4.19960E-3	-162.610E-12	658.656E-3	-22.5093E-3	-161.656E-12	649.057E-3	-36.0655E-3
-4.20460E-3	-162.458E-12	653.278E-3	-21.8590E-3	-162.044E-12	642.808E-3	-21.2402E-3
-4.20960E-3	-162.638E-12	635.943E-3	-2.72838E-3	-161.802E-12	660.723E-3	-21.2962E-3
-4.21461E-3	-162.804E-12	616.223E-3	-18.7699E-3	-161.841E-12	660.048E-3	-21.1607E-3
-4.21961E-3	-162.927E-12	619.120E-3	-42.6404E-3	-162.118E-12	660.244E-3	7.14653E-3
-4.22461E-3	-163.512E-12	623.829E-3	-35.4468E-3	-162.955E-12	678.351E-3	9.59754E-3
-4.22961E-3	-163.971E-12	625.632E-3	-33.3618E-3	-163.407E-12	667.481E-3	-32.0990E-3
-4.23462E-3	-164.190E-12	640.358E-3	-31.5230E-3	-163.833E-12	659.901E-3	-56.2715E-3
-4.23962E-3	-165.439E-12	641.189E-3	-3.42498E-3	-164.443E-12	679.461E-3	-33.6359E-3
-4.24462E-3	-166.604E-12	629.121E-3	8.84222E-3	-165.388E-12	663.936E-3	-8.23281E-3
-4.24962E-3	-166.983E-12	656.968E-3	-17.8894E-3	-165.629E-12	640.739E-3	-4.78685E-3
-4.25463E-3	-167.285E-12	696.633E-3	-10.6244E-3	-166.560E-12	666.249E-3	-29.0112E-3
-4.25963E-3	-168.422E-12	692.829E-3	23.9555E-3	-167.148E-12	697.233E-3	-48.2602E-3
-4.26463E-3	-168.349E-12	672.007E-3	8.09931E-3	-167.576E-12	691.596E-3	-14.5134E-3
-4.26963E-3	-167.725E-12	660.510E-3	-14.3411E-3	-167.377E-12	659.548E-3	9.20316E-3
-4.27464E-3	-168.389E-12	651.925E-3	-6.41765E-3	-167.602E-12	623.642E-3	-20.6049E-3
-4.27964E-3	-168.345E-12	674.905E-3	2.68017E-3	-167.193E-12	618.912E-3	-44.2032E-3
-4.28464E-3	-166.996E-12	699.403E-3	-1.70749E-3	-166.780E-12	641.694E-3	-42.6288E-3
-4.28964E-3	-166.589E-12	665.165E-3	-40.0829E-3	-166.655E-12	664.586E-3	-33.4647E-3
-4.29465E-3	-166.763E-12	630.877E-3	-44.3588E-3	-166.608E-12	682.168E-3	87.4813E-6
-4.29965E-3	-165.800E-12	637.577E-3	5.84412E-3	-165.735E-12	680.238E-3	42.0082E-3
-4.30465E-3	-165.547E-12	645.940E-3	10.0379E-3	-165.554E-12	650.281E-3	30.1821E-3
-4.30965E-3	-165.788E-12	651.733E-3	-21.3535E-3	-165.263E-12	627.632E-3	-13.0219E-3
-4.31466E-3	-166.482E-12	656.875E-3	-37.8256E-3	-165.401E-12	637.375E-3	-27.0286E-3
-4.31966E-3	-166.661E-12	620.922E-3	-36.9827E-3	-165.611E-12	641.990E-3	-30.2555E-3
-4.32466E-3	-167.948E-12	588.618E-3	-21.0819E-3	-166.742E-12	629.285E-3	-30.4981E-3
-4.32966E-3	-168.344E-12	618.749E-3	-14.1077E-3	-167.287E-12	621.748E-3	-22.1201E-3
-4.33467E-3	-169.859E-12	643.856E-3	-28.2888E-3	-168.566E-12	625.113E-3	-21.5063E-3
-4.33967E-3	-171.202E-12	639.481E-3	-54.5901E-3	-169.924E-12	631.167E-3	10.8491E-3
-4.34467E-3	-171.642E-12	646.737E-3	-61.2201E-3	-171.163E-12	628.824E-3	45.0356E-3
-4.34967E-3	-172.414E-12	660.158E-3	-48.8796E-3	-172.333E-12	624.120E-3	12.8918E-3
-4.35468E-3	-173.059E-12	670.106E-3	-29.0862E-3	-174.042E-12	624.965E-3	-27.0598E-3
-4.35968E-3	-174.099E-12	688.712E-3	8.17331E-3	-175.292E-12	658.598E-3	-21.5850E-3
-4.36468E-3	-173.683E-12	685.446E-3	25.1469E-3	-175.918E-12	684.629E-3	-14.2894E-3
-4.36968E-3	-173.764E-12	657.087E-3	616.629E-6	-175.656E-12	656.969E-3	-16.3324E-3
-4.37469E-3	-173.928E-12	657.914E-3	-12.1901E-3	-175.886E-12	639.076E-3	-22.6738E-3
-4.37969E-3	-173.437E-12	665.257E-3	4.00936E-3	-175.242E-12	654.657E-3	-58.4439E-3
-4.38469E-3	-172.643E-12	667.890E-3	-4.25091E-3	-174.343E-12	654.208E-3	-73.5810E-3
-4.38969E-3	-172.301E-12	686.713E-3	-13.1225E-3	-174.397E-12	639.804E-3	-32.0207E-3
-4.39470E-3	-172.467E-12	668.439E-3	7.95466E-3	-173.527E-12	624.555E-3	22.9196E-3
-4.39970E-3	-171.618E-12	633.275E-3	4.97761E-3	-171.884E-12	607.256E-3	43.5228E-3
-4.40470E-3	-172.687E-12	638.805E-3	-20.2734E-3	-170.945E-12	618.940E-3	16.4078E-3
-4.40970E-3	-172.461E-12	653.966E-3	-25.6837E-3	-171.461E-12	655.221E-3	-8.93940E-3
-4.41471E-3	-172.097E-12	645.753E-3	-10.0809E-3	-170.641E-12	666.274E-3	-18.3244E-3
-4.41971E-3	-173.375E-12	630.991E-3	-302.290E-6	-171.248E-12	647.069E-3	-35.2414E-3
-4.42471E-3	-174.260E-12	639.877E-3	-15.5992E-3	-172.616E-12	641.158E-3	-52.3366E-3
-4.42971E-3	-174.767E-12	643.943E-3	-46.4411E-3	-173.529E-12	642.621E-3	-42.7762E-3
-4.43472E-3	-175.240E-12	632.931E-3	-62.9906E-3	-174.019E-12	650.770E-3	-26.1013E-3
-4.43972E-3	-176.019E-12	641.869E-3	-54.9304E-3	-175.021E-12	677.350E-3	-31.7913E-3
-4.44472E-3	-176.442E-12	659.884E-3	-42.1966E-3	-177.118E-12	680.434E-3	-34.3555E-3
-4.44972E-3	-176.955E-12	671.367E-3	-17.0675E-3	-177.076E-12	655.323E-3	-3.69614E-3
-4.45473E-3	-176.718E-12	675.410E-3	2.84480E-3	-177.540E-12	636.387E-3	22.9850E-3
-4.45973E-3	-176.611E-12	664.632E-3	-28.1482E-3	-178.899E-12	630.527E-3	-657.105E-6
-4.46473E-3	-175.902E-12	654.679E-3	-52.2711E-3	-179.502E-12	652.901E-3	-22.8227E-3
-4.46973E-3	-176.397E-12	651.822E-3	-13.1757E-3	-178.617E-12	681.893E-3	-13.1502E-3
-4.47474E-3	-176.578E-12	648.019E-3	17.7185E-3	-178.913E-12	673.799E-3	-16.7089E-3
-4.47974E-3	-176.396E-12	666.252E-3	3.54575E-3	-178.926E-12	651.768E-3	-38.2136E-3
-4.48474E-3	-176.060E-12	682.427E-3	-8.13200E-3	-177.743E-12	649.203E-3	-45.5907E-3
-4.48974E-3	-176.671E-12	663.501E-3	-10.4037E-3	-176.980E-12	659.229E-3	-34.1650E-3
-4.49475E-3	-176.199E-12	644.877E-3	-16.5399E-3	-177.019E-12	663.749E-3	-2.70442E-3
-4.49975E-3	-176.725E-12	616.814E-3	-27.0005E-3	-176.458E-12	672.404E-3	17.5811E-3
-4.50475E-3	-177.215E-12	591.509E-3	-49.8764E-3	-175.808E-12	672.994E-3	-2.76765E-3
-4.50975E-3	-177.013E-12	619.148E-3	-81.4977E-3	-175.747E-12	665.912E-3	-15.9466E-3
-4.51476E-3	-177.051E-12	652.750E-3	-73.6128E-3	-175.965E-12	671.290E-3	-15.1900E-3
-4.51976E-3	-178.177E-12	653.189E-3	-38.6125E-3	-175.559E-12	655.773E-3	-24.6949E-3
-4.52476E-3	-177.488E-12	648.865E-3	-17.7714E-3	-176.308E-12	616.837E-3	-7.65997E-3
-4.52976E-3	-177.525E-12	659.547E-3	826.442E-6	-177.560E-12	605.612E-3	8.67313E-3
-4.53477E-3	-177.294E-12	644.784E-3	-2.91137E-3	-178.111E-12	627.984E-3	-30.0335E-3
-4.53977E-3	-178.259E-12	619.234E-3	-30.3639E-3	-178.088E-12	640.995E-3	-47.1583E-3
-4.54477E-3	-178.846E-12	637.767E-3	-33.7720E-3	-178.739E-12	648.243E-3	-10.7222E-3
-4.54977E-3	-179.166E-12	659.501E-3	-14.8095E-3	-179.697E-12	669.489E-3	5.54372E-3
-4.55478E-3	-178.358E-12	672.737E-3	-6.66786E-3	-180.290E-12	666.047E-3	-7.66007E-3
-4.55978E-3	-179.302E-12	664.275E-3	-25.5883E-3	-180.521E-12	659.199E-3	-8.45289E-3
-4.56478E-3	-179.377E-12	629.534E-3	-66.4568E-3	-180.188E-12	676.984E-3	-3.27614E-3
-4.56978E-3	-179.412E-12	631.671E-3	-88.5273E-3	-181.413E-12	684.214E-3	-6.36029E-3
-4.57479E-3	-180.811E-12	644.612E-3	-56.0123E-3	-182.350E-12	680.910E-3	-20.0573E-3
-4.57979E-3	-180.776E-12	630.649E-3	-24.3919E-3	-182.387E-12	671.034E-3	-42.5190E-3
-4.58479E-3	-180.736E-12	636.859E-3	-36.2405E-3	-182.029E-12	645.423E-3	-27.0420E-3
-4.58979E-3	-182.455E-12	664.507E-3	-32.9378E-3	-182.399E-12	648.304E-3	2.59386E-3
-4.59480E-3	-183.243E-12	670.118E-3	-7.05589E-3	-182.706E-12	682.292E-3	-13.7567E-3
-4.59980E-3	-182.349E-12	663.405E-3	-3.15054E-3	-181.754E-12	686.552E-3	-35.8761E-3
-4.60480E-3	-183.560E-12	672.401E-3	-10.5925E-3	-181.609E-12	681.623E-3	-41.9438E-3
-4.60980E-3	-183.552E-12	664.317E-3	-9.19240E-3	-181.617E-12	699.229E-3	-39.9882E-3
-4.61481E-3	-182.861E-12	631.047E-3	-5.83319E-3	-181.052E-12	697.249E-3	-29.3740E-3
-4.61981E-3	-182.425E-12	632.891E-3	-10.9192E-3	-181.546E-12	680.011E-3	-32.6804E-3
-4.62481E-3	-182.139E-12	657.635E-3	-15.7904E-3	-180.737E-12	676.506E-3	-49.1259E-3
-4.62981E-3	-180.765E-12	652.185E-3	-23.7640E-3	-181.167E-12	645.875E-3	-53.7720E-3
-4.63482E-3	-181.216E-12	647.487E-3	-25.8235E-3	-181.762E-12	602.801E-3	-11.9239E-3
-4.63982E-3	-180.903E-12	662.689E-3	-10.7514E-3	-180.800E-12	619.806E-3	24.0152E-3
-4.64482E-3	-180.738E-12	650.032E-3	-18.5724E-3	-181.391E-12	653.190E-3	2.10753E-3
-4.64982E-3	-181.459E-12	637.807E-3	-31.7215E-3	-182.396E-12	648.035E-3	-4.81545E-3
-4.65483E-3	-182.707E-12	647.412E-3	-16.3897E-3	-182.083E-12	631.858E-3	8.89826E-3
-4.65983E-3	-182.767E-12	644.514E-3	-8.09189E-3	-183.093E-12	619.937E-3	-14.7677E-3
-4.66483E-3	-184.357E-12	659.911E-3	-14.7533E-3	-184.505E-12	599.869E-3	-31.6874E-3
-4.66983E-3	-185.369E-12	693.920E-3	-3.34623E-3	-185.309E-12	579.902E-3	-22.2002E-3
-4.67484E-3	-186.187E-12	690.289E-3	6.12505E-3	-185.834E-12	586.514E-3	-19.7252E-3
-4.67984E-3	-187.334E-12	652.486E-3	-18.3077E-3	-187.468E-12	601.933E-3	-23.9112E-3
-4.68484E-3	-188.980E-12	635.481E-3	-31.6816E-3	-188.044E-12	622.297E-3	-25.6088E-3
-4.68984E-3	-189.460E-12	634.962E-3	-23.6509E-3	-187.964E-12	653.470E-3	-9.88920E-3
-4.69485E-3	-189.842E-12	642.472E-3	-40.4194E-3	-187.736E-12	661.626E-3	12.7921E-3
-4.69985E-3	-189.628E-12	669.722E-3	-48.8299E-3	-188.192E-12	667.485E-3	17.4985E-3
-4.70485E-3	-188.146E-12	668.382E-3	-39.3341E-3	-187.336E-12	688.974E-3	-7.58978E-3
-4.70985E-3	-187.317E-12	653.224E-3	-31.7624E-3	-187.209E-12	692.194E-3	-33.1374E-3
-4.71486E-3	-187.119E-12	660.100E-3	-16.3164E-3	-187.640E-12	689.544E-3	-33.2888E-3
-4.71986E-3	-186.010E-12	659.668E-3	-4.41911E-3	-186.766E-12	696.742E-3	-34.2186E-3
-4.72486E-3	-185.415E-12	664.955E-3	9.90211E-3	-186.523E-12	682.295E-3	-29.7466E-3
-4.72986E-3	-184.944E-12	676.355E-3	22.7108E-3	-186.214E-12	653.664E-3	756.967E-6
-4.73487E-3	-185.120E-12	659.395E-3	21.4398E-3	-185.361E-12	642.666E-3	6.98396E-3
-4.73987E-3	-185.034E-12	620.739E-3	9.10048E-3	-185.842E-12	635.158E-3	-30.2735E-3
-4.74487E-3	-185.294E-12	609.749E-3	-9.66267E-3	-185.587E-12	647.313E-3	-37.6469E-3
-4.74988E-3	-185.953E-12	613.505E-3	-21.4069E-3	-185.662E-12	671.296E-3	-2.10832E-3
-4.75488E-3	-187.282E-12	602.412E-3	-18.6991E-3	-186.669E-12	660.832E-3	30.4584E-3
-4.75988E-3	-188.356E-12	606.294E-3	-17.5115E-3	-187.697E-12	662.801E-3	35.4318E-3
-4.76488E-3	-189.374E-12	624.177E-3	-14.3456E-3	-188.696E-12	699.143E-3	-4.05707E-3
-4.76988E-3	-190.911E-12	652.533E-3	-11.6860E-3	-189.660E-12	711.380E-3	-30.6157E-3
-4.77489E-3	-192.331E-12	662.611E-3	-38.1977E-3	-190.142E-12	706.298E-3	4.14295E-3
-4.77989E-3	-193.407E-12	654.885E-3	-67.1158E-3	-190.759E-12	706.923E-3	18.8162E-3
-4.78489E-3	-193.660E-12	671.701E-3	-65.7770E-3	-191.599E-12	695.912E-3	-22.2891E-3
-4.78989E-3	-193.383E-12	670.398E-3	-48.2958E-3	-192.615E-12	699.620E-3	-47.8210E-3
-4.79490E-3	-193.393E-12	649.312E-3	-23.2298E-3	-192.776E-12	713.758E-3	-42.6917E-3
-4.79990E-3	-193.209E-12	653.086E-3	-17.6874E-3	-192.032E-12	694.266E-3	-34.5952E-3
-4.80490E-3	-191.397E-12	674.990E-3	-50.3214E-3	-192.228E-12	672.278E-3	-15.6027E-3
-4.80990E-3	-191.766E-12	682.137E-3	-64.6808E-3	-192.096E-12	655.741E-3	-12.0073E-3
-4.81491E-3	-191.490E-12	656.360E-3	-41.4056E-3	-190.320E-12	624.798E-3	-39.8137E-3
-4.81991E-3	-189.876E-12	652.316E-3	-26.7206E-3	-188.987E-12	604.788E-3	-58.0062E-3
-4.82491E-3	-189.702E-12	676.490E-3	-22.5022E-3	-188.362E-12	618.228E-3	-74.1856E-3
-4.82991E-3	-190.137E-12	678.751E-3	-25.9196E-3	-188.471E-12	625.354E-3	-81.5682E-3
-4.83492E-3	-189.715E-12	676.330E-3	-21.3765E-3	-187.222E-12	607.961E-3	-46.3461E-3
-4.83992E-3	-189.922E-12	675.245E-3	6.87538E-3	-187.578E-12	617.887E-3	-23.9070E-3
-4.84492E-3	-191.322E-12	683.108E-3	18.9061E-3	-188.142E-12	659.824E-3	-24.1144E-3
-4.84992E-3	-190.691E-12	702.229E-3	-11.9013E-3	-189.324E-12	696.802E-3	7.41533E-3
-4.85493E-3	-191.840E-12	671.033E-3	-30.2732E-3	-190.165E-12	714.214E-3	26.8125E-3
-4.85993E-3	-193.070E-12	615.047E-3	-7.12261E-3	-191.827E-12	692.209E-3	-1.57631E-3
-4.86493E-3	-193.824E-12	614.312E-3	-7.42841E-3	-192.642E-12	657.618E-3	-21.9070E-3
-4.86993E-3	-193.788E-12	653.381E-3	-21.2691E-3	-193.339E-12	667.083E-3	-13.5263E-3
-4.87494E-3	-194.512E-12	666.580E-3	2.79531E-3	-194.236E-12	685.820E-3	-7.88402E-3
-4.87994E-3	-195.008E-12	650.609E-3	5.68644E-3	-194.615E-12	668.078E-3	-1.85808E-3
-4.88494E-3	-195.002E-12	648.605E-3	-31.5033E-3	-195.094E-12	636.863E-3	2.58636E-3
-4.88995E-3	-195.316E-12	655.952E-3	-24.0389E-3	-194.963E-12	632.364E-3	-5.38477E-3
-4.89495E-3	-193.901E-12	657.197E-3	17.5535E-3	-195.754E-12	650.253E-3	1.35923E-3
-4.89995E-3	-195.318E-12	657.075E-3	1.38468E-3	-195.651E-12	668.437E-3	9.06767E-3
-4.90495E-3	-195.327E-12	648.682E-3	-46.5141E-3	-194.940E-12	670.104E-3	-1.64855E-3
-4.90995E-3	-195.103E-12	630.792E-3	-38.2981E-3	-194.317E-12	638.150E-3	-12.3850E-3
-4.91496E-3	-195.333E-12	630.193E-3	-8.59681E-3	-194.429E-12	625.230E-3	-18.5424E-3
-4.91996E-3	-196.449E-12	630.535E-3	-14.8253E-3	-193.878E-12	659.663E-3	-25.2430E-3
-4.92496E-3	-196.223E-12	619.682E-3	-15.7254E-3	-193.167E-12	673.174E-3	-18.4519E-3
-4.92996E-3	-195.980E-12	642.187E-3	3.87327E-3	-193.298E-12	645.311E-3	6.36614E-3
-4.93497E-3	-195.754E-12	663.625E-3	21.7992E-3	-193.499E-12	624.731E-3	6.61659E-3
-4.93997E-3	-196.111E-12	622.450E-3	18.5418E-3	-194.268E-12	640.900E-3	-26.2840E-3
-4.94497E-3	-196.423E-12	568.015E-3	3.15623E-3	-195.274E-12	665.319E-3	-40.9373E-3
-4.94997E-3	-197.015E-12	582.228E-3	-6.67172E-3	-195.393E-12	667.946E-3	-29.2840E-3
-4.95498E-3	-197.192E-12	633.727E-3	-22.8237E-3	-196.431E-12	664.342E-3	-31.2257E-3
-4.95998E-3	-197.097E-12	656.321E-3	-29.5527E-3	-198.215E-12	651.424E-3	-46.1589E-3
-4.96498E-3	-197.009E-12	648.563E-3	-20.9916E-3	-198.950E-12	638.342E-3	-51.8343E-3
-4.96998E-3	-197.416E-12	638.652E-3	-2.74004E-3	-199.027E-12	646.200E-3	-42.3757E-3
-4.97499E-3	-197.993E-12	645.000E-3	2.52717E-3	-199.977E-12	674.654E-3	-11.1665E-3
-4.97999E-3	-197.237E-12	661.037E-3	-7.50792E-3	-200.297E-12	696.661E-3	10.6845E-3
-4.98499E-3	-198.016E-12	663.475E-3	-14.3019E-3	-200.612E-12	675.723E-3	1.55635E-3
-4.98999E-3	-199.138E-12	667.343E-3	-31.6744E-3	-200.705E-12	664.909E-3	-24.0402E-3
-4.99500E-3	-199.428E-12	670.663E-3	-48.2108E-3	-201.816E-12	686.644E-3	-55.7435E-3
-5.00000E-3	-199.493E-12	651.884E-3	-60.5066E-3	-200.306E-12	667.871E-3	-69.0955E-3
