Experiment	bias spectroscopy	
Date	19.01.2016 20:54:13	
User		
X (m)	49.6324E-9	
Y (m)	256.855E-9	
Z (m)	-132.581E-9	
Z offset (m)	0E+0	
Settling time (s)	200E-6	
Integration time (s)	5E-3	
Z-Ctrl hold	TRUE	
Final Z (m)	N/A	
Filter type	None	
Order		
Cutoff frq		
Comment01	MnPc/Pb(111)	
Comment02	dz =00pm	
Comment03	7 Sweeps	
Comment04	MagField =0.T	
Comment05	Divider 1:10	
Comment06	Setpoint:5mV,200 pA	
Comment07	Lockin: 50uVrms,5ms,5mV	
Comment08	Gain:9; 912Hz modulation	
Comment09	T=1.06K	
Bias>Bias (V)	5E-3	
Bias>Calibration (V/V)	81.475E-3	
Bias>Offset (V)	1.046E-3	
Bias Spectroscopy>Sweep Start (V)	5E-3	
Bias Spectroscopy>Sweep End (V)	-5E-3	
Bias Spectroscopy>Num Pixel	2000	
Bias Spectroscopy>Z Avg time (s)	500E-3	
Bias Spectroscopy>Z offset (m)	0E+0	
Bias Spectroscopy>1st Settling time (s)	500E-3	
Bias Spectroscopy>Settling time (s)	200E-6	
Bias Spectroscopy>Integration time (s)	5E-3	
Bias Spectroscopy>End Settling time (s)	500E-3	
Bias Spectroscopy>Z control time (s)	500E-3	
Bias Spectroscopy>Max Slew rate (V/s)	Inf	
Bias Spectroscopy>backward sweep	TRUE	
Bias Spectroscopy>Z-controller hold	TRUE	
Bias Spectroscopy>Number of sweeps	7	
Bias Spectroscopy>Channels	Current (A);X% LockIn (V);Y% LockIn (V)	
Bias Spectroscopy>Reset Bias	TRUE	
Bias Spectroscopy>Record final Z	FALSE	
Bias Spectroscopy>Lock-In run	FALSE	
Bias Spectroscopy>Sweep mode	Linear	
Bias Spectroscopy>MultiLine Settings : Segment Start (V), Segment End (V), Settling (s), Integration (s), Steps (xn)	100E-3,3.3E-3,100E-6,10E-3,2500;3.3E-3,-3.3E-3,100E-6,10E-3,10;-3.3E-3,-100E-3,100E-6,10E-3,2500	
Current>Current (A)	200.135E-12	
Current>Calibration (A/V)	999.99900E-12	
Current>Offset (A)	-455.429E-15	
Current>Gain	LN 10^9	
Z-Controller>Z (m)	-132.58E-9	
Z-Controller>Controller name	log Current	
Z-Controller>Controller status	ON	
Z-Controller>Setpoint	200E-12	
Z-Controller>Setpoint unit	A	
Z-Controller>P gain	2.96994E-12	
Z-Controller>I gain	67.0321E-9	
Z-Controller>Time const (s)	44.3062E-6	
Z-Controller>TipLift (m)	0E+0	
Z-Controller>Switch off delay (s)	50E-3	
Current (A)	200.406E-12	
Z (m)	-132.58E-9	

[DATA]
Bias calc (V)	Current (A)	X% LockIn (V)	Y% LockIn (V)	Current [bwd] (A)	X% LockIn [bwd] (V)	Y% LockIn [bwd] (V)
5.00000E-3	201.213E-12	574.634E-3	-17.0466E-3	203.459E-12	539.342E-3	-29.1073E-3
4.99500E-3	203.042E-12	571.115E-3	6.47186E-3	200.521E-12	542.953E-3	-6.80091E-3
4.98999E-3	202.083E-12	551.323E-3	-8.45384E-3	198.190E-12	572.108E-3	-17.1020E-3
4.98499E-3	199.461E-12	561.022E-3	-34.3822E-3	199.551E-12	591.231E-3	-38.5372E-3
4.97999E-3	197.400E-12	595.703E-3	5.57014E-3	200.792E-12	600.302E-3	-15.1288E-3
4.97499E-3	197.993E-12	615.290E-3	43.0894E-3	200.102E-12	592.948E-3	24.5800E-3
4.96998E-3	199.284E-12	607.350E-3	15.7065E-3	197.789E-12	576.286E-3	11.0249E-3
4.96498E-3	198.204E-12	592.966E-3	-26.4301E-3	198.144E-12	569.761E-3	-45.9323E-3
4.95998E-3	196.742E-12	588.529E-3	-31.5626E-3	200.104E-12	579.150E-3	-58.2432E-3
4.95498E-3	196.862E-12	576.008E-3	-21.5502E-3	199.353E-12	592.594E-3	-36.6116E-3
4.94997E-3	200.013E-12	570.459E-3	-11.1763E-3	198.699E-12	600.656E-3	-28.4159E-3
4.94497E-3	199.346E-12	565.417E-3	-15.1568E-3	199.572E-12	614.280E-3	-12.1042E-3
4.93997E-3	200.471E-12	546.027E-3	-26.1157E-3	199.993E-12	616.356E-3	579.267E-6
4.93497E-3	199.731E-12	555.592E-3	-11.0692E-3	199.586E-12	597.006E-3	-5.73419E-3
4.92996E-3	201.131E-12	604.987E-3	12.8318E-3	198.881E-12	583.845E-3	-19.2726E-3
4.92496E-3	200.529E-12	654.186E-3	2.35146E-3	199.140E-12	597.291E-3	-27.8041E-3
4.91996E-3	200.666E-12	639.232E-3	-22.5387E-3	199.975E-12	601.341E-3	-46.1171E-3
4.91496E-3	199.390E-12	585.499E-3	-30.6891E-3	200.621E-12	565.881E-3	-52.1833E-3
4.90995E-3	198.672E-12	570.200E-3	-34.7288E-3	199.151E-12	538.611E-3	-26.1797E-3
4.90495E-3	197.545E-12	591.478E-3	-27.3954E-3	197.058E-12	557.308E-3	-14.6357E-3
4.89995E-3	197.205E-12	596.163E-3	-10.9809E-3	196.964E-12	584.678E-3	3.27545E-3
4.89495E-3	196.259E-12	596.319E-3	-6.99541E-3	196.870E-12	592.277E-3	32.2189E-3
4.88995E-3	195.058E-12	603.684E-3	-5.21228E-3	197.572E-12	607.618E-3	33.1054E-3
4.88494E-3	193.775E-12	594.951E-3	6.44459E-3	196.124E-12	628.160E-3	6.36792E-3
4.87994E-3	194.195E-12	576.795E-3	162.938E-6	194.851E-12	623.833E-3	-22.3519E-3
4.87494E-3	194.100E-12	570.687E-3	-4.98381E-3	195.711E-12	617.777E-3	-17.0827E-3
4.86993E-3	194.260E-12	588.885E-3	-7.33837E-3	197.690E-12	624.906E-3	-4.61358E-3
4.86493E-3	193.406E-12	587.964E-3	-19.7327E-3	197.545E-12	636.465E-3	-30.8090E-3
4.85993E-3	193.917E-12	559.861E-3	-17.5565E-3	196.441E-12	639.827E-3	-58.0367E-3
4.85493E-3	194.988E-12	566.246E-3	-11.1238E-3	195.977E-12	595.947E-3	-45.7996E-3
4.84992E-3	194.881E-12	593.469E-3	-19.4436E-3	196.247E-12	563.551E-3	-30.8729E-3
4.84492E-3	194.503E-12	586.831E-3	-56.3184E-3	196.750E-12	584.942E-3	-39.1389E-3
4.83992E-3	195.227E-12	573.981E-3	-82.9253E-3	195.670E-12	608.218E-3	-45.4216E-3
4.83492E-3	196.893E-12	586.508E-3	-46.1862E-3	195.732E-12	628.565E-3	-29.8901E-3
4.82991E-3	195.869E-12	606.748E-3	3.17303E-3	194.413E-12	623.837E-3	-8.95724E-3
4.82491E-3	194.405E-12	616.333E-3	-41.3555E-6	194.332E-12	587.766E-3	2.95637E-3
4.81991E-3	192.974E-12	593.977E-3	-22.0499E-3	193.184E-12	593.419E-3	18.0171E-3
4.81491E-3	193.089E-12	564.025E-3	-23.3004E-3	193.782E-12	627.327E-3	3.79857E-3
4.80990E-3	193.927E-12	551.067E-3	-10.5581E-3	193.527E-12	620.892E-3	-44.6221E-3
4.80490E-3	193.023E-12	557.836E-3	-5.01804E-3	192.176E-12	605.125E-3	-57.5684E-3
4.79990E-3	192.198E-12	589.324E-3	-915.178E-6	192.039E-12	599.315E-3	-37.8873E-3
4.79490E-3	190.897E-12	590.358E-3	19.7173E-3	190.927E-12	588.003E-3	-33.9857E-3
4.78989E-3	191.738E-12	556.464E-3	25.0079E-3	193.148E-12	587.108E-3	-39.2393E-3
4.78489E-3	191.768E-12	554.526E-3	3.36696E-3	192.002E-12	594.284E-3	-30.5021E-3
4.77989E-3	190.515E-12	572.362E-3	-12.8574E-3	192.266E-12	598.831E-3	-12.1342E-3
4.77489E-3	191.471E-12	583.075E-3	-16.3815E-3	191.454E-12	587.691E-3	-9.05062E-3
4.76988E-3	191.969E-12	609.699E-3	-31.9488E-3	193.626E-12	565.120E-3	-16.5417E-3
4.76488E-3	192.917E-12	641.539E-3	-55.6387E-3	195.893E-12	571.471E-3	-24.9738E-3
4.75988E-3	193.089E-12	627.559E-3	-53.2846E-3	194.074E-12	595.415E-3	-26.8329E-3
4.75488E-3	194.135E-12	586.406E-3	-41.3723E-3	194.375E-12	611.828E-3	-4.93342E-3
4.74988E-3	193.865E-12	596.993E-3	-51.2267E-3	193.377E-12	621.936E-3	14.2855E-3
4.74487E-3	193.396E-12	621.901E-3	-46.9202E-3	195.468E-12	618.205E-3	8.49178E-3
4.73987E-3	193.591E-12	612.143E-3	-12.9346E-3	193.953E-12	610.538E-3	1.89491E-3
4.73487E-3	193.471E-12	610.750E-3	1.32758E-3	193.851E-12	608.296E-3	-7.76721E-3
4.72986E-3	193.361E-12	628.549E-3	3.91541E-3	192.640E-12	612.728E-3	-14.5396E-3
4.72486E-3	190.501E-12	632.486E-3	10.6035E-3	191.616E-12	623.201E-3	-138.872E-6
4.71986E-3	189.452E-12	638.638E-3	2.45995E-3	191.565E-12	617.546E-3	4.38768E-3
4.71486E-3	189.317E-12	651.469E-3	-9.87161E-3	190.451E-12	603.980E-3	-15.2254E-3
4.70985E-3	190.039E-12	635.474E-3	-15.8365E-3	190.604E-12	618.886E-3	-22.8893E-3
4.70485E-3	188.443E-12	599.721E-3	-39.5126E-3	188.952E-12	645.078E-3	-17.0396E-3
4.69985E-3	188.002E-12	594.122E-3	-55.9483E-3	189.193E-12	644.226E-3	-16.1291E-3
4.69485E-3	187.776E-12	615.345E-3	-48.6854E-3	189.224E-12	623.639E-3	-18.2157E-3
4.68984E-3	187.941E-12	603.736E-3	-50.1740E-3	189.860E-12	612.831E-3	-20.8958E-3
4.68484E-3	187.664E-12	592.363E-3	-45.9323E-3	188.121E-12	619.199E-3	-11.4818E-3
4.67984E-3	188.285E-12	603.293E-3	-24.5712E-3	188.476E-12	634.640E-3	858.268E-6
4.67484E-3	187.817E-12	614.927E-3	-23.6586E-3	189.018E-12	656.770E-3	2.88303E-3
4.66983E-3	189.150E-12	610.763E-3	-28.2799E-3	189.459E-12	662.588E-3	-7.60080E-3
4.66483E-3	188.911E-12	581.862E-3	-19.7532E-3	187.801E-12	637.751E-3	-22.6521E-3
4.65983E-3	188.652E-12	593.799E-3	-20.9613E-3	186.934E-12	597.927E-3	-36.7189E-3
4.65483E-3	187.468E-12	630.481E-3	-8.71074E-3	187.289E-12	560.488E-3	-52.8409E-3
4.64982E-3	187.546E-12	637.595E-3	9.94422E-3	187.481E-12	553.870E-3	-56.0574E-3
4.64482E-3	186.166E-12	629.236E-3	-4.54134E-3	186.816E-12	596.129E-3	-41.2109E-3
4.63982E-3	186.195E-12	594.095E-3	-42.6005E-3	184.704E-12	624.977E-3	-30.7194E-3
4.63482E-3	185.354E-12	554.710E-3	-53.4790E-3	184.572E-12	593.353E-3	-37.3266E-3
4.62981E-3	185.182E-12	551.311E-3	-46.1838E-3	185.059E-12	565.049E-3	-34.8097E-3
4.62481E-3	185.655E-12	592.561E-3	-46.5051E-3	185.696E-12	566.885E-3	-12.4718E-3
4.61981E-3	186.585E-12	635.018E-3	-31.6239E-3	185.258E-12	575.502E-3	-6.44460E-3
4.61481E-3	184.972E-12	622.045E-3	-21.9382E-3	184.190E-12	597.706E-3	-31.1149E-3
4.60980E-3	185.571E-12	609.512E-3	-28.1587E-3	185.309E-12	624.639E-3	-57.5192E-3
4.60480E-3	185.169E-12	608.833E-3	-26.1548E-3	185.139E-12	624.032E-3	-44.1381E-3
4.59980E-3	186.274E-12	594.328E-3	-35.3030E-3	186.335E-12	595.336E-3	-21.7759E-3
4.59480E-3	185.945E-12	611.941E-3	-48.3700E-3	186.610E-12	597.416E-3	-25.9128E-3
4.58979E-3	184.523E-12	640.896E-3	-25.2451E-3	185.106E-12	622.556E-3	-11.6789E-3
4.58479E-3	184.311E-12	609.154E-3	-17.3246E-3	184.214E-12	629.541E-3	857.291E-6
4.57979E-3	184.413E-12	561.977E-3	-42.0720E-3	184.300E-12	628.295E-3	-26.0140E-3
4.57479E-3	184.471E-12	556.304E-3	-34.5662E-3	185.427E-12	609.653E-3	-49.4277E-3
4.56978E-3	184.565E-12	557.503E-3	-19.4958E-3	184.845E-12	578.080E-3	-48.9748E-3
4.56478E-3	183.766E-12	577.416E-3	-38.1422E-3	184.669E-12	563.193E-3	-39.1283E-3
4.55978E-3	182.147E-12	604.694E-3	-58.1006E-3	182.761E-12	577.679E-3	-13.2211E-3
4.55478E-3	180.991E-12	601.690E-3	-59.3628E-3	183.169E-12	612.188E-3	25.4065E-3
4.54977E-3	181.882E-12	594.079E-3	-47.8362E-3	184.783E-12	619.383E-3	14.7136E-3
4.54477E-3	181.760E-12	593.314E-3	-25.0287E-3	184.235E-12	585.438E-3	-31.9876E-3
4.53977E-3	180.433E-12	584.977E-3	-3.23087E-3	182.847E-12	577.385E-3	-44.5685E-3
4.53477E-3	180.509E-12	573.198E-3	-6.77665E-3	181.517E-12	606.706E-3	-36.6225E-3
4.52976E-3	182.305E-12	563.096E-3	-24.3328E-3	183.483E-12	616.669E-3	-27.4862E-3
4.52476E-3	184.255E-12	563.349E-3	-27.6874E-3	183.602E-12	595.273E-3	-18.0808E-3
4.51976E-3	183.092E-12	588.685E-3	-24.2172E-3	182.852E-12	579.522E-3	-17.1564E-3
4.51476E-3	182.173E-12	603.909E-3	-17.2077E-3	181.471E-12	589.841E-3	-23.0197E-3
4.50975E-3	182.438E-12	600.936E-3	-743.496E-6	183.079E-12	616.544E-3	-30.4889E-3
4.50475E-3	184.014E-12	608.624E-3	30.7847E-3	184.399E-12	632.463E-3	-32.0251E-3
4.49975E-3	184.965E-12	613.508E-3	47.6702E-3	183.470E-12	630.060E-3	-14.1615E-3
4.49475E-3	183.838E-12	611.707E-3	13.7466E-3	181.215E-12	608.427E-3	1.01932E-3
4.48974E-3	183.227E-12	634.960E-3	-19.5345E-3	182.284E-12	592.550E-3	-6.47940E-3
4.48474E-3	182.846E-12	661.325E-3	-31.2312E-3	183.103E-12	613.920E-3	-20.0022E-3
4.47974E-3	182.450E-12	641.407E-3	-46.7110E-3	182.235E-12	642.628E-3	-17.0026E-3
4.47474E-3	180.740E-12	611.977E-3	-35.1523E-3	180.307E-12	621.169E-3	-12.0766E-3
4.46973E-3	179.137E-12	605.573E-3	-16.1578E-3	179.198E-12	574.025E-3	-3.13429E-3
4.46473E-3	178.503E-12	608.779E-3	-26.8236E-3	180.173E-12	564.073E-3	12.0627E-3
4.45973E-3	177.742E-12	623.192E-3	-37.9673E-3	180.894E-12	585.032E-3	3.27843E-3
4.45473E-3	176.986E-12	632.614E-3	-44.1712E-3	178.439E-12	610.205E-3	1.59437E-3
4.44972E-3	175.794E-12	605.275E-3	-26.7786E-3	177.623E-12	604.277E-3	4.54284E-3
4.44472E-3	176.833E-12	582.826E-3	-3.45623E-3	178.120E-12	588.000E-3	-27.0062E-3
4.43972E-3	177.792E-12	606.651E-3	-15.3779E-3	178.852E-12	584.255E-3	-51.0677E-3
4.43472E-3	178.853E-12	613.982E-3	-21.7363E-3	177.735E-12	578.708E-3	-38.4547E-3
4.42971E-3	177.896E-12	583.894E-3	-20.5585E-3	176.677E-12	580.820E-3	-22.4903E-3
4.42471E-3	178.218E-12	583.937E-3	-27.8356E-3	177.165E-12	591.613E-3	-8.49932E-3
4.41971E-3	178.308E-12	600.130E-3	-20.7495E-3	177.970E-12	613.077E-3	18.2978E-3
4.41471E-3	178.848E-12	594.560E-3	-14.8120E-3	177.968E-12	636.054E-3	28.3951E-3
4.40970E-3	179.035E-12	594.337E-3	-43.1346E-3	176.238E-12	646.688E-3	-6.49684E-3
4.40470E-3	178.734E-12	609.460E-3	-59.9361E-3	175.848E-12	644.290E-3	-35.8372E-3
4.39970E-3	178.610E-12	619.867E-3	-35.1752E-3	174.568E-12	636.237E-3	-5.93031E-3
4.39470E-3	178.444E-12	612.317E-3	-28.1432E-3	176.504E-12	609.325E-3	6.39148E-3
4.38969E-3	177.331E-12	601.968E-3	-44.8260E-3	175.908E-12	553.229E-3	-2.35507E-3
4.38469E-3	177.743E-12	597.797E-3	-33.4157E-3	173.670E-12	538.575E-3	13.0595E-3
4.37969E-3	177.111E-12	600.678E-3	-551.339E-6	172.224E-12	569.594E-3	8.20132E-3
4.37469E-3	175.760E-12	603.732E-3	9.14086E-3	173.461E-12	574.360E-3	8.12222E-3
4.36968E-3	175.276E-12	608.359E-3	-14.8446E-3	174.328E-12	588.056E-3	17.1190E-3
4.36468E-3	176.598E-12	614.155E-3	-32.1614E-3	172.328E-12	610.953E-3	-497.986E-6
4.35968E-3	176.179E-12	623.252E-3	-19.4387E-3	171.131E-12	583.687E-3	-10.2638E-3
4.35468E-3	173.974E-12	631.243E-3	-578.840E-6	172.615E-12	568.941E-3	-6.02895E-3
4.34967E-3	173.666E-12	611.277E-3	15.3060E-3	174.732E-12	591.540E-3	-13.3271E-3
4.34467E-3	175.068E-12	571.335E-3	18.2231E-3	173.662E-12	605.435E-3	-18.6645E-3
4.33967E-3	176.308E-12	563.737E-3	-2.36433E-3	171.820E-12	622.058E-3	-17.1273E-3
4.33467E-3	176.977E-12	596.370E-3	-14.8751E-3	172.728E-12	633.645E-3	-18.3794E-3
4.32966E-3	174.971E-12	611.070E-3	1.98895E-3	176.344E-12	634.558E-3	-37.3373E-3
4.32466E-3	174.780E-12	613.092E-3	-5.19865E-3	177.086E-12	622.526E-3	-53.6006E-3
4.31966E-3	174.934E-12	644.266E-3	-12.4163E-3	173.732E-12	592.791E-3	-28.5606E-3
4.31466E-3	176.257E-12	667.839E-3	8.55669E-3	172.451E-12	570.866E-3	-23.4677E-3
4.30965E-3	174.556E-12	637.006E-3	-8.76176E-3	174.448E-12	569.616E-3	-50.2197E-3
4.30465E-3	173.662E-12	606.278E-3	-51.4759E-3	175.569E-12	580.091E-3	-41.4757E-3
4.29965E-3	173.529E-12	610.835E-3	-66.2205E-3	173.027E-12	582.720E-3	-30.3464E-3
4.29465E-3	175.640E-12	604.704E-3	-46.0501E-3	171.274E-12	586.290E-3	-27.7177E-3
4.28964E-3	176.125E-12	594.849E-3	-10.8251E-3	171.575E-12	614.318E-3	-14.8021E-3
4.28464E-3	173.906E-12	595.851E-3	14.5652E-3	174.138E-12	634.826E-3	-21.6901E-3
4.27964E-3	173.754E-12	591.132E-3	9.89994E-3	173.108E-12	618.433E-3	-32.4313E-3
4.27464E-3	174.287E-12	586.829E-3	-7.01564E-3	170.351E-12	603.230E-3	-25.8970E-3
4.26963E-3	173.517E-12	605.342E-3	-8.83328E-3	170.100E-12	596.106E-3	-17.2044E-3
4.26463E-3	173.289E-12	627.948E-3	2.19408E-3	171.146E-12	580.146E-3	-7.26305E-3
4.25963E-3	172.520E-12	617.741E-3	9.42396E-3	172.662E-12	577.595E-3	2.29769E-3
4.25463E-3	171.405E-12	598.343E-3	-11.2278E-3	171.010E-12	592.943E-3	-586.225E-6
4.24962E-3	170.886E-12	601.473E-3	-40.1585E-3	169.748E-12	606.623E-3	-5.12141E-3
4.24462E-3	169.392E-12	615.146E-3	-37.2302E-3	171.093E-12	610.864E-3	-8.80096E-3
4.23962E-3	170.317E-12	619.063E-3	-19.2154E-3	172.955E-12	607.960E-3	-17.8561E-3
4.23462E-3	169.242E-12	611.461E-3	-17.5869E-3	173.279E-12	600.915E-3	-25.9929E-3
4.22961E-3	168.685E-12	608.347E-3	-15.1885E-3	171.011E-12	581.057E-3	-17.6569E-3
4.22461E-3	168.553E-12	615.083E-3	6.68519E-3	170.155E-12	577.115E-3	10.6908E-3
4.21961E-3	168.746E-12	603.746E-3	23.2315E-3	171.198E-12	614.514E-3	7.93590E-3
4.21461E-3	167.742E-12	596.981E-3	-1.01830E-3	171.754E-12	613.567E-3	-23.3226E-3
4.20960E-3	167.159E-12	592.222E-3	-21.1799E-3	170.834E-12	576.080E-3	-37.3675E-3
4.20460E-3	168.060E-12	567.546E-3	-9.71566E-3	168.195E-12	577.768E-3	-41.1238E-3
4.19960E-3	168.527E-12	568.788E-3	3.33316E-3	167.681E-12	592.677E-3	-31.1417E-3
4.19460E-3	167.851E-12	577.353E-3	9.77988E-3	167.824E-12	598.262E-3	-19.7846E-3
4.18959E-3	166.797E-12	579.314E-3	-3.16017E-3	168.213E-12	612.079E-3	-29.5278E-3
4.18459E-3	167.341E-12	597.873E-3	-34.8076E-3	166.995E-12	617.669E-3	-49.0162E-3
4.17959E-3	167.722E-12	591.399E-3	-47.9310E-3	166.325E-12	614.359E-3	-47.9772E-3
4.17459E-3	168.355E-12	561.916E-3	-28.6041E-3	166.652E-12	610.325E-3	-25.5429E-3
4.16958E-3	168.240E-12	561.689E-3	-25.6101E-3	166.404E-12	591.936E-3	-23.6663E-3
4.16458E-3	167.417E-12	579.812E-3	-48.2170E-3	166.721E-12	575.089E-3	-19.0729E-3
4.15958E-3	167.382E-12	584.589E-3	-49.8119E-3	166.229E-12	588.641E-3	12.1418E-3
4.15458E-3	167.661E-12	573.227E-3	-26.1502E-3	165.984E-12	612.266E-3	31.2859E-3
4.14957E-3	166.931E-12	583.027E-3	-14.6582E-3	165.982E-12	610.376E-3	5.89245E-3
4.14457E-3	165.305E-12	610.725E-3	-28.8870E-3	166.091E-12	604.644E-3	-44.2870E-3
4.13957E-3	165.863E-12	614.336E-3	-46.7403E-3	166.173E-12	599.738E-3	-54.1707E-3
4.13457E-3	165.466E-12	598.303E-3	-55.1506E-3	167.105E-12	585.166E-3	-50.1809E-3
4.12956E-3	165.609E-12	583.854E-3	-42.7677E-3	166.692E-12	596.487E-3	-70.2627E-3
4.12456E-3	164.529E-12	575.166E-3	-8.34556E-3	165.574E-12	623.917E-3	-76.8868E-3
4.11956E-3	164.234E-12	572.173E-3	10.0787E-3	164.995E-12	616.478E-3	-44.1869E-3
4.11456E-3	164.213E-12	581.775E-3	-16.1270E-3	165.280E-12	589.859E-3	-632.386E-6
4.10955E-3	164.772E-12	584.736E-3	-47.3723E-3	165.249E-12	590.625E-3	3.73075E-3
4.10455E-3	164.845E-12	572.143E-3	-42.2320E-3	164.976E-12	616.595E-3	-15.7280E-3
4.09955E-3	164.922E-12	572.174E-3	-19.8703E-3	164.231E-12	636.455E-3	-9.73329E-3
4.09455E-3	164.548E-12	602.112E-3	-4.19284E-3	163.922E-12	629.202E-3	13.5997E-3
4.08954E-3	164.409E-12	636.054E-3	-12.2485E-3	164.147E-12	612.340E-3	3.86373E-3
4.08454E-3	165.639E-12	636.333E-3	-37.9136E-3	164.308E-12	603.388E-3	-45.2324E-3
4.07954E-3	165.563E-12	609.658E-3	-61.0310E-3	164.032E-12	603.825E-3	-59.0238E-3
4.07454E-3	165.009E-12	606.029E-3	-67.5232E-3	162.653E-12	594.066E-3	-16.2542E-3
4.06953E-3	164.156E-12	616.569E-3	-50.2001E-3	162.206E-12	565.776E-3	22.3042E-3
4.06453E-3	164.846E-12	604.041E-3	-33.2234E-3	162.365E-12	564.168E-3	13.9536E-3
4.05953E-3	165.320E-12	598.508E-3	-27.9316E-3	163.463E-12	573.957E-3	-7.00814E-3
4.05453E-3	163.958E-12	612.698E-3	-35.4771E-3	163.492E-12	551.848E-3	-12.6615E-3
4.04952E-3	163.713E-12	618.912E-3	-39.2843E-3	163.240E-12	549.963E-3	-24.9620E-3
4.04452E-3	163.380E-12	609.701E-3	-14.8198E-3	163.773E-12	594.123E-3	-28.7443E-3
4.03952E-3	165.005E-12	606.434E-3	-4.35711E-3	163.060E-12	630.128E-3	-26.3406E-3
4.03452E-3	162.915E-12	623.868E-3	-9.99285E-3	162.894E-12	631.841E-3	-16.0843E-3
4.02951E-3	160.785E-12	633.565E-3	-11.1279E-3	161.883E-12	624.407E-3	15.0202E-3
4.02451E-3	159.874E-12	620.844E-3	-30.1744E-3	161.867E-12	620.490E-3	19.8648E-3
4.01951E-3	162.952E-12	607.851E-3	-34.8482E-3	161.736E-12	619.786E-3	-5.62026E-3
4.01451E-3	163.105E-12	611.517E-3	-2.46221E-3	160.564E-12	632.306E-3	-28.9640E-3
4.00950E-3	160.154E-12	627.590E-3	2.22076E-3	160.671E-12	637.220E-3	-37.0966E-3
4.00450E-3	159.058E-12	626.987E-3	-40.1296E-3	159.725E-12	620.127E-3	-11.3711E-3
3.99950E-3	161.135E-12	607.741E-3	-56.2221E-3	160.948E-12	603.026E-3	14.9365E-3
3.99450E-3	163.015E-12	587.377E-3	-11.1172E-3	161.096E-12	596.520E-3	4.06615E-3
3.98949E-3	160.328E-12	584.933E-3	23.4328E-3	161.255E-12	585.471E-3	-22.2194E-3
3.98449E-3	157.945E-12	606.258E-3	-8.72275E-3	160.144E-12	583.932E-3	-32.5778E-3
3.97949E-3	159.181E-12	616.808E-3	-27.2740E-3	159.326E-12	602.957E-3	-30.5089E-3
3.97449E-3	160.701E-12	609.816E-3	-1.78991E-3	160.316E-12	615.759E-3	-30.1922E-3
3.96948E-3	161.543E-12	598.697E-3	8.84333E-3	159.860E-12	619.463E-3	-27.1588E-3
3.96448E-3	159.139E-12	583.395E-3	-3.12546E-3	159.129E-12	606.577E-3	-14.6248E-3
3.95948E-3	158.288E-12	570.582E-3	-32.4280E-3	158.106E-12	575.062E-3	-919.678E-6
3.95448E-3	157.738E-12	574.822E-3	-48.2595E-3	158.811E-12	574.857E-3	-5.78435E-3
3.94947E-3	158.003E-12	575.224E-3	-35.6839E-3	158.588E-12	613.058E-3	-8.25346E-3
3.94447E-3	157.347E-12	567.861E-3	-35.7702E-3	157.664E-12	642.489E-3	13.2150E-3
3.93947E-3	156.832E-12	593.201E-3	-38.6498E-3	156.535E-12	624.063E-3	24.7243E-3
3.93447E-3	156.911E-12	621.167E-3	-14.3460E-3	156.560E-12	600.716E-3	3.94672E-3
3.92946E-3	156.285E-12	615.419E-3	8.48108E-3	157.296E-12	632.973E-3	-22.9645E-3
3.92446E-3	156.438E-12	606.088E-3	9.63277E-3	156.326E-12	650.696E-3	-22.5855E-3
3.91946E-3	155.660E-12	601.968E-3	1.35621E-3	155.577E-12	631.334E-3	-14.6051E-3
3.91446E-3	155.852E-12	590.390E-3	-12.5847E-3	155.699E-12	617.906E-3	-18.8621E-3
3.90945E-3	155.845E-12	575.114E-3	-24.9367E-3	156.978E-12	609.224E-3	-22.8288E-3
3.90445E-3	156.765E-12	568.032E-3	-19.0493E-3	157.867E-12	607.660E-3	-25.7285E-3
3.89945E-3	156.306E-12	577.941E-3	5.00378E-3	157.421E-12	613.862E-3	-22.6793E-3
3.89445E-3	155.630E-12	602.532E-3	15.1231E-3	156.390E-12	627.511E-3	-23.0092E-3
3.88944E-3	156.274E-12	631.332E-3	14.7557E-3	156.960E-12	639.964E-3	-28.8281E-3
3.88444E-3	157.091E-12	632.554E-3	21.0991E-3	157.672E-12	649.154E-3	-27.5031E-3
3.87944E-3	156.344E-12	612.251E-3	24.5176E-3	157.533E-12	652.619E-3	-23.4477E-3
3.87444E-3	155.598E-12	610.419E-3	16.2553E-3	156.445E-12	624.760E-3	-21.3418E-3
3.86943E-3	156.797E-12	620.088E-3	-1.42167E-3	155.928E-12	598.884E-3	-19.9618E-3
3.86443E-3	156.934E-12	640.255E-3	-16.8083E-3	156.118E-12	611.686E-3	-35.5690E-3
3.85943E-3	156.293E-12	657.249E-3	-22.8965E-3	156.305E-12	617.926E-3	-45.8769E-3
3.85443E-3	155.364E-12	634.899E-3	-15.0803E-3	155.479E-12	607.844E-3	-27.9811E-3
3.84942E-3	156.169E-12	584.822E-3	-5.44780E-3	153.866E-12	615.349E-3	-29.4126E-3
3.84442E-3	155.990E-12	571.410E-3	-22.3596E-3	153.620E-12	606.531E-3	-38.2162E-3
3.83942E-3	155.101E-12	597.899E-3	-47.1015E-3	153.787E-12	575.661E-3	-29.9425E-3
3.83442E-3	154.407E-12	608.558E-3	-44.2293E-3	153.043E-12	570.386E-3	-20.2262E-3
3.82941E-3	154.320E-12	620.838E-3	-30.2998E-3	151.591E-12	594.483E-3	-295.820E-6
3.82441E-3	154.549E-12	626.518E-3	-28.3770E-3	151.801E-12	620.250E-3	9.96068E-3
3.81941E-3	154.458E-12	605.894E-3	-23.3099E-3	151.624E-12	621.538E-3	-4.43429E-3
3.81441E-3	154.116E-12	593.794E-3	-8.86566E-3	151.217E-12	612.729E-3	-21.7892E-3
3.80940E-3	153.560E-12	597.103E-3	-7.14516E-3	151.592E-12	617.634E-3	-33.8299E-3
3.80440E-3	154.310E-12	608.045E-3	-9.83200E-3	152.342E-12	632.434E-3	-31.3868E-3
3.79940E-3	153.215E-12	618.153E-3	-1.24474E-3	152.724E-12	626.783E-3	-26.0015E-3
3.79440E-3	152.352E-12	622.375E-3	6.83446E-3	152.836E-12	595.899E-3	-26.3901E-3
3.78939E-3	152.113E-12	637.556E-3	1.59768E-3	153.261E-12	583.906E-3	-24.5745E-3
3.78439E-3	152.685E-12	648.225E-3	-19.8020E-3	152.913E-12	592.921E-3	-21.5596E-3
3.77939E-3	152.583E-12	647.104E-3	-24.3054E-3	152.168E-12	602.320E-3	-29.4475E-3
3.77439E-3	151.136E-12	634.503E-3	-13.4628E-3	151.530E-12	625.831E-3	-47.2814E-3
3.76938E-3	151.402E-12	618.403E-3	-16.0349E-3	151.419E-12	639.291E-3	-42.4869E-3
3.76438E-3	150.815E-12	606.986E-3	-22.2341E-3	152.888E-12	618.805E-3	-16.6266E-3
3.75938E-3	151.919E-12	606.999E-3	-33.4113E-3	151.498E-12	594.647E-3	-6.12963E-3
3.75438E-3	150.490E-12	638.174E-3	-26.0969E-3	149.951E-12	584.753E-3	-14.8056E-3
3.74937E-3	149.672E-12	652.721E-3	8.95308E-3	149.324E-12	579.044E-3	-19.9121E-3
3.74437E-3	148.829E-12	627.850E-3	10.5072E-3	150.956E-12	577.181E-3	-10.3697E-3
3.73937E-3	148.662E-12	612.594E-3	-14.8399E-3	150.284E-12	584.886E-3	-6.61939E-3
3.73437E-3	148.612E-12	610.680E-3	-18.6750E-3	148.870E-12	602.939E-3	-19.5232E-3
3.72936E-3	148.455E-12	607.785E-3	-10.6176E-3	148.423E-12	619.011E-3	-27.5483E-3
3.72436E-3	148.187E-12	613.943E-3	-2.34879E-3	149.849E-12	627.829E-3	-18.5648E-3
3.71936E-3	147.952E-12	621.013E-3	-3.46435E-3	150.276E-12	627.231E-3	-7.67291E-3
3.71436E-3	148.910E-12	614.824E-3	-18.5201E-3	149.664E-12	611.747E-3	-13.6498E-3
3.70935E-3	149.568E-12	598.137E-3	-49.6222E-3	148.692E-12	613.979E-3	-35.2423E-3
3.70435E-3	148.846E-12	610.154E-3	-65.2012E-3	148.334E-12	622.446E-3	-55.9268E-3
3.69935E-3	148.307E-12	623.907E-3	-45.5836E-3	148.662E-12	613.408E-3	-56.6341E-3
3.69435E-3	148.808E-12	624.079E-3	-33.3182E-3	148.710E-12	611.639E-3	-54.3041E-3
3.68934E-3	149.585E-12	639.661E-3	-35.3334E-3	149.004E-12	612.572E-3	-40.9196E-3
3.68434E-3	148.228E-12	621.953E-3	-18.5136E-3	149.367E-12	614.451E-3	-13.0590E-3
3.67934E-3	148.377E-12	582.089E-3	-8.12952E-3	148.765E-12	619.322E-3	-13.4541E-3
3.67434E-3	147.866E-12	557.809E-3	-19.6671E-3	149.046E-12	614.844E-3	-33.0646E-3
3.66933E-3	149.226E-12	557.242E-3	-16.2730E-3	149.422E-12	607.338E-3	-37.5724E-3
3.66433E-3	147.962E-12	584.392E-3	-14.1844E-3	149.696E-12	607.935E-3	-26.1906E-3
3.65933E-3	147.600E-12	608.870E-3	-20.7548E-3	148.357E-12	613.744E-3	-22.3264E-3
3.65433E-3	147.617E-12	609.807E-3	-25.8985E-3	147.655E-12	618.763E-3	-37.8018E-3
3.64932E-3	146.800E-12	606.370E-3	-38.2971E-3	148.107E-12	633.454E-3	-48.4952E-3
3.64432E-3	146.522E-12	618.258E-3	-57.1687E-3	148.150E-12	646.840E-3	-44.4904E-3
3.63932E-3	145.750E-12	622.688E-3	-40.9414E-3	147.972E-12	634.414E-3	-33.3431E-3
3.63432E-3	146.217E-12	605.403E-3	-3.85354E-3	146.288E-12	626.639E-3	-16.1561E-3
3.62931E-3	145.565E-12	590.456E-3	4.21903E-3	146.293E-12	634.019E-3	-20.2530E-3
3.62431E-3	145.560E-12	592.392E-3	54.5140E-6	146.201E-12	637.544E-3	-51.2339E-3
3.61931E-3	145.721E-12	599.921E-3	-9.58570E-3	146.566E-12	638.437E-3	-59.4007E-3
3.61431E-3	147.078E-12	606.467E-3	-20.3539E-3	144.974E-12	615.239E-3	-30.4509E-3
3.60930E-3	146.022E-12	602.850E-3	-19.9030E-3	144.216E-12	577.477E-3	-10.5999E-3
3.60430E-3	145.022E-12	590.611E-3	-21.9317E-3	143.968E-12	567.641E-3	-23.7758E-3
3.59930E-3	145.338E-12	606.411E-3	-29.7783E-3	143.889E-12	590.373E-3	-38.7795E-3
3.59430E-3	146.189E-12	628.434E-3	-20.2168E-3	143.417E-12	604.440E-3	-37.3852E-3
3.58929E-3	147.097E-12	620.938E-3	-11.4649E-3	141.747E-12	581.017E-3	-19.6249E-3
3.58429E-3	146.524E-12	622.300E-3	-13.5556E-3	142.698E-12	556.427E-3	-11.7563E-3
3.57929E-3	145.365E-12	630.762E-3	-18.2902E-3	142.743E-12	570.887E-3	-21.3324E-3
3.57429E-3	145.566E-12	627.829E-3	-33.5690E-3	142.786E-12	595.962E-3	-35.3654E-3
3.56928E-3	145.690E-12	619.563E-3	-50.7656E-3	141.824E-12	614.440E-3	-50.1587E-3
3.56428E-3	145.527E-12	618.034E-3	-47.1185E-3	141.396E-12	612.892E-3	-48.9376E-3
3.55928E-3	144.042E-12	626.122E-3	-22.9913E-3	141.622E-12	588.015E-3	-28.7164E-3
3.55428E-3	144.426E-12	612.165E-3	-23.5390E-3	141.889E-12	587.642E-3	-7.05077E-3
3.54927E-3	144.216E-12	596.383E-3	-29.8437E-3	142.083E-12	605.947E-3	2.59859E-3
3.54427E-3	143.622E-12	594.971E-3	21.7374E-6	141.492E-12	623.090E-3	-2.66462E-3
3.53927E-3	141.854E-12	597.435E-3	21.9280E-3	141.680E-12	622.367E-3	-13.2268E-3
3.53427E-3	142.047E-12	603.230E-3	-6.85380E-3	141.813E-12	597.784E-3	-17.0826E-3
3.52926E-3	142.227E-12	594.730E-3	-38.4351E-3	141.670E-12	588.434E-3	-12.1849E-3
3.52426E-3	142.387E-12	592.012E-3	-34.0011E-3	141.512E-12	600.850E-3	-3.34774E-3
3.51926E-3	141.617E-12	601.659E-3	-22.3893E-3	141.462E-12	623.210E-3	1.32219E-3
3.51426E-3	140.341E-12	615.416E-3	-27.0370E-3	140.803E-12	625.113E-3	3.90015E-3
3.50925E-3	141.050E-12	633.146E-3	-32.1040E-3	139.862E-12	600.239E-3	4.79496E-3
3.50425E-3	140.321E-12	632.447E-3	-18.7214E-3	139.049E-12	600.126E-3	-4.80664E-3
3.49925E-3	140.257E-12	607.951E-3	-16.5657E-3	139.944E-12	610.780E-3	-20.2681E-3
3.49425E-3	139.130E-12	590.162E-3	-31.7992E-3	140.442E-12	599.623E-3	-26.9266E-3
3.48924E-3	139.950E-12	593.715E-3	-32.3146E-3	139.891E-12	603.556E-3	-31.4941E-3
3.48424E-3	139.621E-12	595.180E-3	-23.4695E-3	138.594E-12	620.306E-3	-32.0257E-3
3.47924E-3	139.536E-12	600.625E-3	-14.5184E-3	139.460E-12	612.385E-3	-13.0444E-3
3.47424E-3	138.890E-12	612.634E-3	-4.89546E-3	140.373E-12	622.770E-3	-8.93237E-3
3.46923E-3	138.720E-12	602.509E-3	-16.0210E-3	139.617E-12	652.960E-3	-21.6229E-3
3.46423E-3	138.935E-12	592.853E-3	-47.5349E-3	138.887E-12	651.305E-3	-20.8410E-3
3.45923E-3	139.489E-12	605.748E-3	-64.0917E-3	139.421E-12	642.767E-3	-26.7699E-3
3.45423E-3	139.413E-12	627.477E-3	-41.5742E-3	139.285E-12	638.074E-3	-37.5486E-3
3.44922E-3	138.945E-12	642.493E-3	-14.4318E-3	138.873E-12	623.169E-3	-19.0751E-3
3.44422E-3	139.190E-12	626.963E-3	-15.5065E-3	138.331E-12	623.664E-3	17.2773E-3
3.43922E-3	138.957E-12	618.835E-3	-28.5143E-3	138.543E-12	642.163E-3	26.5042E-3
3.43422E-3	138.821E-12	625.967E-3	-19.7847E-3	138.549E-12	648.945E-3	10.5546E-3
3.42921E-3	137.952E-12	631.242E-3	-1.54395E-3	137.872E-12	643.404E-3	-15.7717E-3
3.42421E-3	136.944E-12	639.553E-3	-14.8267E-3	137.420E-12	636.066E-3	-22.2726E-3
3.41921E-3	137.428E-12	628.973E-3	-31.6361E-3	137.411E-12	617.685E-3	3.41205E-3
3.41421E-3	137.461E-12	617.531E-3	-10.4529E-3	137.337E-12	611.049E-3	19.2439E-3
3.40920E-3	136.009E-12	601.350E-3	10.3785E-3	136.600E-12	624.797E-3	23.6311E-3
3.40420E-3	134.566E-12	590.086E-3	-10.1646E-3	135.720E-12	625.454E-3	30.3807E-3
3.39920E-3	134.851E-12	594.875E-3	-13.0761E-3	134.913E-12	616.225E-3	18.6489E-3
3.39420E-3	135.012E-12	593.446E-3	10.0875E-3	135.207E-12	602.791E-3	-13.2800E-3
3.38919E-3	134.216E-12	605.362E-3	15.8275E-3	135.569E-12	593.380E-3	-40.7997E-3
3.38419E-3	133.320E-12	626.273E-3	3.15324E-3	135.349E-12	588.480E-3	-48.9432E-3
3.37919E-3	133.327E-12	633.979E-3	-16.7272E-3	133.932E-12	589.083E-3	-49.4676E-3
3.37419E-3	133.477E-12	633.695E-3	-23.1465E-3	133.668E-12	597.831E-3	-64.7482E-3
3.36918E-3	132.681E-12	620.793E-3	-24.0114E-3	134.496E-12	592.979E-3	-56.7711E-3
3.36418E-3	133.252E-12	607.126E-3	-38.5310E-3	134.884E-12	587.611E-3	-16.3398E-3
3.35918E-3	133.763E-12	617.238E-3	-54.9088E-3	134.452E-12	587.921E-3	-3.74474E-3
3.35418E-3	134.487E-12	630.700E-3	-60.1717E-3	133.615E-12	605.271E-3	-25.7704E-3
3.34917E-3	132.934E-12	636.616E-3	-59.1488E-3	133.573E-12	631.533E-3	-34.5127E-3
3.34417E-3	133.948E-12	626.882E-3	-23.6458E-3	133.904E-12	625.628E-3	-15.2032E-3
3.33917E-3	135.552E-12	613.372E-3	14.1627E-3	133.317E-12	618.884E-3	7.98526E-3
3.33417E-3	134.774E-12	623.081E-3	3.70339E-3	131.816E-12	626.615E-3	7.29881E-3
3.32916E-3	133.368E-12	630.313E-3	-9.67655E-3	131.523E-12	626.289E-3	-2.66340E-3
3.32416E-3	133.276E-12	614.128E-3	-17.3280E-3	131.999E-12	639.796E-3	-4.59722E-3
3.31916E-3	133.248E-12	610.151E-3	-32.2780E-3	131.775E-12	648.379E-3	-11.6379E-3
3.31416E-3	132.977E-12	618.057E-3	-30.5225E-3	131.693E-12	626.409E-3	-9.87060E-3
3.30915E-3	131.977E-12	606.110E-3	-20.2722E-3	131.421E-12	609.742E-3	3.32823E-3
3.30415E-3	131.247E-12	589.938E-3	-21.6075E-3	131.416E-12	608.759E-3	4.60893E-3
3.29915E-3	131.357E-12	585.467E-3	-10.1772E-3	131.998E-12	613.070E-3	-19.7399E-3
3.29415E-3	131.234E-12	584.916E-3	-1.75507E-3	132.035E-12	617.615E-3	-52.1075E-3
3.28914E-3	130.216E-12	600.091E-3	-16.4165E-3	131.883E-12	613.827E-3	-59.1625E-3
3.28414E-3	130.262E-12	623.680E-3	-24.7034E-3	132.154E-12	618.394E-3	-49.8482E-3
3.27914E-3	131.699E-12	628.980E-3	-15.1719E-3	133.000E-12	625.756E-3	-47.8889E-3
3.27414E-3	132.637E-12	632.026E-3	327.401E-6	133.226E-12	617.250E-3	-30.6044E-3
3.26913E-3	131.558E-12	642.256E-3	17.8264E-3	132.915E-12	620.945E-3	4.38979E-3
3.26413E-3	131.041E-12	637.009E-3	14.4987E-3	132.230E-12	639.001E-3	24.0634E-3
3.25913E-3	132.065E-12	627.083E-3	-15.7997E-3	132.968E-12	638.199E-3	18.1346E-3
3.25413E-3	133.450E-12	642.036E-3	-26.1562E-3	133.793E-12	641.384E-3	-9.66068E-3
3.24912E-3	132.891E-12	657.328E-3	-16.4651E-3	132.922E-12	659.350E-3	-28.1265E-3
3.24412E-3	131.530E-12	663.291E-3	-18.4901E-3	131.553E-12	659.055E-3	-18.5611E-3
3.23912E-3	130.750E-12	657.030E-3	-26.4517E-3	131.765E-12	647.888E-3	-9.76117E-3
3.23412E-3	131.444E-12	620.093E-3	-18.2501E-3	132.514E-12	630.418E-3	-4.09045E-3
3.22911E-3	132.014E-12	595.098E-3	-11.7303E-3	132.006E-12	615.770E-3	10.1499E-3
3.22411E-3	130.043E-12	589.986E-3	-22.8125E-3	129.475E-12	621.720E-3	10.8099E-3
3.21911E-3	129.334E-12	600.731E-3	-37.2629E-3	129.348E-12	632.214E-3	-6.10039E-3
3.21411E-3	129.273E-12	633.371E-3	-38.1337E-3	130.197E-12	630.741E-3	-13.9087E-3
3.20910E-3	128.919E-12	661.227E-3	-43.7855E-3	129.690E-12	620.477E-3	2.88728E-3
3.20410E-3	127.862E-12	673.455E-3	-42.7873E-3	128.588E-12	629.914E-3	8.67334E-3
3.19910E-3	126.736E-12	657.354E-3	-25.4223E-3	127.665E-12	642.848E-3	-12.6240E-3
3.19410E-3	126.877E-12	630.980E-3	-16.8283E-3	128.413E-12	632.268E-3	-25.3554E-3
3.18909E-3	127.559E-12	624.815E-3	-2.81645E-6	129.319E-12	641.934E-3	-13.7014E-3
3.18409E-3	127.103E-12	623.476E-3	6.42940E-3	128.162E-12	652.105E-3	-3.24297E-3
3.17909E-3	127.398E-12	625.731E-3	-4.21333E-3	126.835E-12	641.469E-3	-11.8831E-3
3.17409E-3	126.674E-12	631.252E-3	-1.56801E-3	126.556E-12	634.114E-3	-20.9801E-3
3.16908E-3	126.498E-12	619.694E-3	720.136E-6	127.876E-12	621.904E-3	-30.4393E-3
3.16408E-3	127.564E-12	602.696E-3	-17.5151E-3	127.348E-12	630.561E-3	-15.4808E-3
3.15908E-3	127.829E-12	604.381E-3	-20.9073E-3	126.837E-12	650.127E-3	18.0793E-3
3.15408E-3	126.691E-12	622.533E-3	-3.04103E-3	126.429E-12	637.031E-3	11.9880E-3
3.14907E-3	126.238E-12	636.017E-3	2.93769E-3	127.593E-12	619.702E-3	-7.76313E-3
3.14407E-3	126.698E-12	618.878E-3	1.43970E-3	126.787E-12	622.858E-3	-14.8978E-3
3.13907E-3	127.370E-12	596.149E-3	-5.63091E-3	126.254E-12	627.636E-3	-20.8636E-3
3.13407E-3	126.306E-12	614.888E-3	-7.95554E-3	125.508E-12	623.105E-3	-16.8725E-3
3.12906E-3	124.768E-12	643.955E-3	3.74741E-3	125.999E-12	618.210E-3	-7.55213E-3
3.12406E-3	124.608E-12	644.770E-3	12.5551E-3	125.614E-12	618.894E-3	-13.2455E-3
3.11906E-3	125.238E-12	630.885E-3	4.08107E-3	125.335E-12	620.958E-3	-27.7453E-3
3.11406E-3	123.973E-12	620.364E-3	4.60945E-3	123.654E-12	615.412E-3	-17.3844E-3
3.10905E-3	123.333E-12	610.738E-3	14.0965E-3	124.469E-12	614.820E-3	-2.23207E-3
3.10405E-3	122.997E-12	610.206E-3	-233.616E-6	124.413E-12	626.203E-3	-3.23619E-3
3.09905E-3	123.787E-12	634.095E-3	-26.9200E-3	124.983E-12	628.256E-3	-1.94483E-3
3.09405E-3	124.606E-12	651.455E-3	-26.8171E-3	123.946E-12	631.735E-3	-1.79376E-3
3.08904E-3	123.255E-12	644.185E-3	-3.93440E-3	123.189E-12	638.042E-3	3.38960E-3
3.08404E-3	122.817E-12	633.438E-3	1.40965E-3	123.799E-12	634.672E-3	10.4118E-3
3.07904E-3	123.617E-12	617.613E-3	-12.1855E-3	124.512E-12	637.909E-3	3.83538E-3
3.07404E-3	124.180E-12	601.026E-3	-28.0609E-3	124.000E-12	637.433E-3	-7.95351E-3
3.06903E-3	123.876E-12	607.801E-3	-32.0129E-3	123.003E-12	616.241E-3	-21.3123E-3
3.06403E-3	123.278E-12	626.635E-3	-33.8278E-3	123.798E-12	594.142E-3	-45.7074E-3
3.05903E-3	122.596E-12	631.375E-3	-50.5880E-3	125.025E-12	595.588E-3	-52.7096E-3
3.05403E-3	122.790E-12	628.891E-3	-50.8446E-3	124.157E-12	608.057E-3	-31.6941E-3
3.04902E-3	122.702E-12	644.101E-3	-11.9699E-3	122.408E-12	618.850E-3	-23.3746E-3
3.04402E-3	121.766E-12	655.748E-3	9.41214E-3	122.335E-12	630.322E-3	-25.9500E-3
3.03902E-3	121.095E-12	656.915E-3	2.16421E-3	123.104E-12	639.149E-3	-27.5691E-3
3.03402E-3	120.527E-12	657.953E-3	4.10356E-3	122.815E-12	648.726E-3	-36.9234E-3
3.02901E-3	120.371E-12	632.963E-3	5.71375E-3	122.292E-12	640.598E-3	-46.1820E-3
3.02401E-3	120.091E-12	618.605E-3	-5.96987E-3	121.917E-12	626.402E-3	-42.3093E-3
3.01901E-3	119.913E-12	635.822E-3	-12.3638E-3	122.022E-12	640.365E-3	-26.3351E-3
3.01401E-3	120.796E-12	641.171E-3	-17.9519E-3	121.729E-12	655.778E-3	-16.6051E-3
3.00900E-3	121.612E-12	645.582E-3	-40.5157E-3	120.838E-12	656.267E-3	-17.4436E-3
3.00400E-3	122.085E-12	658.433E-3	-34.9760E-3	119.901E-12	647.347E-3	-17.3779E-3
2.99900E-3	120.385E-12	650.442E-3	-12.4571E-3	119.533E-12	627.996E-3	-17.1013E-3
2.99400E-3	121.456E-12	648.344E-3	-20.1893E-3	119.327E-12	629.460E-3	-24.1530E-3
2.98899E-3	121.562E-12	656.878E-3	-26.2056E-3	119.552E-12	638.946E-3	-43.2954E-3
2.98399E-3	122.452E-12	650.323E-3	-24.5678E-3	120.144E-12	622.947E-3	-44.1089E-3
2.97899E-3	120.503E-12	648.939E-3	-29.6652E-3	118.814E-12	617.710E-3	-18.3796E-3
2.97399E-3	120.159E-12	659.089E-3	-19.4774E-3	119.027E-12	639.684E-3	-4.60839E-3
2.96898E-3	120.910E-12	649.024E-3	2.41875E-3	118.440E-12	653.179E-3	-19.3435E-3
2.96398E-3	121.079E-12	624.364E-3	-4.01758E-3	119.291E-12	647.612E-3	-42.7293E-3
2.95898E-3	120.359E-12	621.808E-3	-32.3558E-3	118.594E-12	630.953E-3	-49.0917E-3
2.95398E-3	117.602E-12	627.131E-3	-37.9967E-3	118.036E-12	611.011E-3	-34.2605E-3
2.94897E-3	119.031E-12	615.324E-3	-23.9652E-3	118.173E-12	605.458E-3	-26.8305E-3
2.94397E-3	119.015E-12	603.797E-3	-18.7241E-3	117.250E-12	619.034E-3	-43.2507E-3
2.93897E-3	119.184E-12	629.848E-3	-20.5177E-3	117.403E-12	639.902E-3	-43.7597E-3
2.93397E-3	116.467E-12	660.954E-3	-28.1181E-3	116.804E-12	640.537E-3	-19.5062E-3
2.92896E-3	116.624E-12	650.199E-3	-32.2703E-3	116.470E-12	632.416E-3	-739.441E-6
2.92396E-3	117.555E-12	634.836E-3	-17.1864E-3	116.071E-12	632.157E-3	9.92766E-3
2.91896E-3	119.026E-12	637.519E-3	3.33827E-3	115.769E-12	614.153E-3	-512.739E-6
2.91396E-3	118.843E-12	652.291E-3	8.45145E-3	115.991E-12	604.351E-3	-24.7379E-3
2.90895E-3	117.054E-12	668.824E-3	-4.13090E-3	114.915E-12	624.851E-3	-33.2869E-3
2.90395E-3	117.720E-12	673.198E-3	-17.2149E-3	114.812E-12	636.185E-3	-26.8892E-3
2.89895E-3	118.947E-12	656.613E-3	-27.0280E-3	113.820E-12	625.015E-3	-6.82758E-3
2.89395E-3	119.812E-12	630.187E-3	-28.0098E-3	114.076E-12	611.329E-3	-1.92680E-3
2.88894E-3	117.172E-12	628.011E-3	-15.2204E-3	113.268E-12	617.330E-3	-11.0525E-3
2.88394E-3	115.328E-12	644.167E-3	-13.3568E-3	113.507E-12	644.102E-3	-5.14687E-3
2.87894E-3	115.190E-12	655.155E-3	-12.6761E-3	112.765E-12	653.930E-3	-1.43742E-3
2.87394E-3	116.849E-12	656.453E-3	2.90643E-3	113.004E-12	631.407E-3	123.326E-6
2.86893E-3	115.668E-12	643.646E-3	1.57365E-3	113.231E-12	621.021E-3	-8.25310E-3
2.86393E-3	112.996E-12	622.256E-3	-8.22296E-3	113.456E-12	630.365E-3	-27.4809E-3
2.85893E-3	112.653E-12	615.021E-3	-14.8498E-3	113.754E-12	636.035E-3	-25.4510E-3
2.85393E-3	113.413E-12	621.774E-3	-27.9465E-3	114.084E-12	649.002E-3	-16.5394E-3
2.84892E-3	114.933E-12	622.355E-3	-29.9801E-3	115.406E-12	654.059E-3	-23.5416E-3
2.84392E-3	113.646E-12	610.868E-3	-20.5555E-3	115.619E-12	645.921E-3	-28.7355E-3
2.83892E-3	112.999E-12	612.258E-3	-24.3456E-3	115.463E-12	645.185E-3	-15.1285E-3
2.83392E-3	114.064E-12	633.122E-3	-38.6795E-3	115.317E-12	648.199E-3	-5.67770E-3
2.82891E-3	115.517E-12	645.035E-3	-50.5488E-3	116.162E-12	650.418E-3	-13.4470E-3
2.82391E-3	114.808E-12	655.655E-3	-51.0069E-3	116.195E-12	641.757E-3	-7.51808E-3
2.81891E-3	113.585E-12	657.380E-3	-31.4682E-3	114.568E-12	637.502E-3	15.7869E-3
2.81391E-3	113.402E-12	634.114E-3	-21.3051E-3	114.356E-12	645.244E-3	4.97000E-3
2.80890E-3	114.330E-12	614.317E-3	-31.2154E-3	113.866E-12	642.628E-3	-20.1261E-3
2.80390E-3	113.782E-12	625.852E-3	-37.6696E-3	113.033E-12	648.905E-3	-16.4478E-3
2.79890E-3	110.891E-12	650.035E-3	-33.4254E-3	112.065E-12	655.078E-3	-22.0476E-3
2.79390E-3	110.528E-12	647.829E-3	-24.2091E-3	111.174E-12	644.422E-3	-30.1849E-3
2.78889E-3	111.164E-12	636.984E-3	-24.1808E-3	110.941E-12	651.061E-3	-29.7292E-3
2.78389E-3	111.828E-12	642.693E-3	-15.7264E-3	109.591E-12	655.456E-3	-35.1613E-3
2.77889E-3	110.537E-12	654.577E-3	2.17362E-3	109.298E-12	635.762E-3	-28.8588E-3
2.77389E-3	108.186E-12	642.725E-3	-6.22959E-3	109.544E-12	623.070E-3	-19.4836E-3
2.76888E-3	108.299E-12	616.003E-3	-18.8349E-3	110.334E-12	616.868E-3	-23.6908E-3
2.76388E-3	109.408E-12	603.553E-3	-15.7441E-3	108.690E-12	614.644E-3	-18.3866E-3
2.75888E-3	110.501E-12	605.635E-3	-26.2251E-3	109.249E-12	619.127E-3	-835.039E-6
2.75388E-3	108.828E-12	632.800E-3	-34.2531E-3	109.818E-12	611.173E-3	-6.88192E-3
2.74887E-3	108.481E-12	666.646E-3	-18.2913E-3	110.808E-12	600.444E-3	-39.5371E-3
2.74387E-3	109.256E-12	676.441E-3	-8.31743E-3	109.800E-12	604.467E-3	-59.0026E-3
2.73887E-3	110.072E-12	673.556E-3	-3.93544E-3	109.935E-12	616.793E-3	-45.9758E-3
2.73387E-3	109.970E-12	663.815E-3	-232.265E-6	110.549E-12	631.850E-3	-13.5522E-3
2.72886E-3	109.191E-12	654.206E-3	-10.4153E-3	110.066E-12	644.641E-3	7.51270E-3
2.72386E-3	109.931E-12	663.725E-3	-21.6136E-3	109.451E-12	648.138E-3	-10.1653E-3
2.71886E-3	109.394E-12	683.435E-3	-22.5287E-3	108.740E-12	639.501E-3	-28.9319E-3
2.71386E-3	108.760E-12	688.638E-3	-17.5299E-3	108.284E-12	634.659E-3	-15.7614E-3
2.70885E-3	107.946E-12	679.442E-3	-7.02154E-3	108.197E-12	638.707E-3	-11.6375E-3
2.70385E-3	107.216E-12	651.184E-3	-7.58191E-3	107.445E-12	627.731E-3	-15.7932E-3
2.69885E-3	106.579E-12	616.007E-3	-11.7430E-3	106.647E-12	619.326E-3	-8.25799E-3
2.69385E-3	105.456E-12	610.475E-3	-234.357E-6	106.412E-12	630.197E-3	-11.9065E-3
2.68884E-3	105.675E-12	625.905E-3	3.46553E-3	106.213E-12	647.192E-3	-24.4536E-3
2.68384E-3	105.605E-12	626.606E-3	-3.32794E-3	105.014E-12	659.877E-3	-23.2686E-3
2.67884E-3	104.778E-12	618.857E-3	-17.3501E-3	104.849E-12	659.547E-3	-4.23210E-3
2.67384E-3	104.428E-12	621.830E-3	-29.2340E-3	105.539E-12	656.938E-3	1.66370E-3
2.66883E-3	104.949E-12	618.374E-3	-17.6606E-3	106.448E-12	639.734E-3	-19.5841E-3
2.66383E-3	106.338E-12	617.083E-3	-12.4494E-3	106.047E-12	618.682E-3	-29.7855E-3
2.65883E-3	106.073E-12	634.559E-3	-20.6032E-3	104.984E-12	623.915E-3	-24.0988E-3
2.65383E-3	106.275E-12	652.553E-3	-21.1908E-3	105.059E-12	634.054E-3	-21.2697E-3
2.64882E-3	106.574E-12	642.725E-3	-11.9310E-3	105.422E-12	636.149E-3	-10.0581E-3
2.64382E-3	107.883E-12	613.279E-3	632.499E-6	105.300E-12	635.672E-3	-7.30632E-3
2.63882E-3	107.122E-12	612.531E-3	-5.02492E-3	104.596E-12	633.427E-3	-14.2761E-3
2.63382E-3	106.609E-12	639.100E-3	-23.4865E-3	104.682E-12	644.825E-3	-1.95031E-3
2.62881E-3	107.132E-12	652.827E-3	-28.6055E-3	104.764E-12	656.603E-3	6.72528E-3
2.62381E-3	106.846E-12	665.179E-3	-8.09662E-3	104.272E-12	646.154E-3	-2.73330E-3
2.61881E-3	106.051E-12	669.249E-3	10.1234E-3	103.603E-12	645.224E-3	-12.4110E-3
2.61381E-3	104.547E-12	646.954E-3	2.16600E-3	102.781E-12	653.262E-3	-19.4657E-3
2.60880E-3	104.457E-12	634.921E-3	-12.1853E-3	102.410E-12	643.552E-3	-23.4425E-3
2.60380E-3	103.965E-12	629.898E-3	-15.0434E-3	102.486E-12	632.599E-3	-19.7503E-3
2.59880E-3	103.651E-12	638.549E-3	-21.6866E-3	102.729E-12	636.272E-3	-19.2303E-3
2.59380E-3	102.817E-12	651.981E-3	-28.5136E-3	102.137E-12	646.893E-3	-31.2499E-3
2.58879E-3	103.036E-12	647.597E-3	-25.2614E-3	101.961E-12	645.864E-3	-32.5044E-3
2.58379E-3	102.152E-12	659.197E-3	-23.7051E-3	102.031E-12	648.285E-3	-26.5573E-3
2.57879E-3	102.531E-12	672.319E-3	-9.15283E-3	102.609E-12	659.188E-3	-36.8471E-3
2.57379E-3	103.584E-12	665.661E-3	8.44195E-3	102.695E-12	657.568E-3	-45.3670E-3
2.56878E-3	103.371E-12	659.356E-3	6.48853E-3	101.980E-12	645.077E-3	-33.2274E-3
2.56378E-3	102.254E-12	652.127E-3	-764.396E-6	101.547E-12	635.222E-3	-24.1677E-3
2.55878E-3	101.840E-12	650.396E-3	-5.14126E-3	101.080E-12	640.583E-3	-29.2674E-3
2.55378E-3	101.888E-12	655.981E-3	-5.37437E-3	101.594E-12	658.152E-3	-34.6198E-3
2.54877E-3	101.751E-12	645.840E-3	-11.2947E-3	99.7953E-12	658.150E-3	-36.6656E-3
2.54377E-3	101.630E-12	645.618E-3	-19.2658E-3	98.8378E-12	641.629E-3	-29.2181E-3
2.53877E-3	100.613E-12	659.366E-3	-21.9474E-3	98.5688E-12	646.609E-3	-20.6422E-3
2.53377E-3	100.872E-12	663.188E-3	-22.7135E-3	98.7846E-12	659.523E-3	-21.6722E-3
2.52876E-3	101.410E-12	661.448E-3	-17.0133E-3	98.5744E-12	648.088E-3	-10.1986E-3
2.52376E-3	100.285E-12	664.260E-3	-19.4163E-3	98.5208E-12	633.807E-3	22.8530E-3
2.51876E-3	98.7436E-12	662.743E-3	-20.8110E-3	97.9503E-12	626.577E-3	27.8058E-3
2.51376E-3	97.6895E-12	656.776E-3	-15.2859E-3	96.8398E-12	624.550E-3	-5.31334E-3
2.50875E-3	98.9711E-12	661.084E-3	-21.3118E-3	97.2513E-12	638.378E-3	-29.8005E-3
2.50375E-3	98.7500E-12	664.716E-3	-22.9908E-3	97.7022E-12	650.170E-3	-41.9692E-3
2.49875E-3	98.5577E-12	656.880E-3	-7.82988E-3	98.2711E-12	647.493E-3	-37.0688E-3
2.49375E-3	97.6946E-12	642.469E-3	-1.23456E-3	98.3229E-12	635.664E-3	-17.5253E-3
2.48874E-3	98.5092E-12	629.274E-3	-11.2756E-3	98.3027E-12	625.453E-3	-14.2988E-3
2.48374E-3	99.0831E-12	620.900E-3	-24.0971E-3	97.7926E-12	630.949E-3	-15.8257E-3
2.47874E-3	98.4628E-12	627.624E-3	-32.1724E-3	97.6737E-12	641.224E-3	-16.5062E-3
2.47374E-3	97.2335E-12	643.556E-3	-30.2013E-3	97.9095E-12	655.663E-3	-9.88068E-3
2.46873E-3	96.6113E-12	655.595E-3	-16.8443E-3	97.4178E-12	671.322E-3	2.77284E-3
2.46373E-3	97.1082E-12	656.137E-3	-1.69144E-3	96.2059E-12	653.943E-3	8.11925E-3
2.45873E-3	97.2920E-12	651.279E-3	3.67170E-3	96.5064E-12	634.917E-3	5.61829E-3
2.45373E-3	96.5095E-12	651.873E-3	3.11449E-3	96.8694E-12	628.201E-3	-436.480E-6
2.44872E-3	95.2748E-12	638.001E-3	-9.31791E-3	96.1467E-12	618.890E-3	-4.85606E-3
2.44372E-3	95.0611E-12	618.946E-3	-27.2387E-3	94.7027E-12	635.516E-3	-19.5446E-3
2.43872E-3	95.9917E-12	622.335E-3	-28.9672E-3	94.6420E-12	642.804E-3	-20.2700E-3
2.43372E-3	95.1964E-12	639.168E-3	-24.5816E-3	95.6402E-12	628.146E-3	8.04870E-3
2.42871E-3	94.3231E-12	651.530E-3	-21.3947E-3	95.2663E-12	637.560E-3	13.9202E-3
2.42371E-3	94.4949E-12	642.748E-3	-19.3628E-3	93.8407E-12	653.689E-3	-15.3585E-3
2.41871E-3	95.0234E-12	626.819E-3	-11.6458E-3	94.1492E-12	661.978E-3	-29.2713E-3
2.41371E-3	94.8366E-12	635.459E-3	1.96751E-3	94.7232E-12	677.983E-3	-22.9887E-3
2.40870E-3	95.3417E-12	633.739E-3	5.46425E-3	95.4628E-12	679.003E-3	-23.9891E-3
2.40370E-3	95.8204E-12	630.431E-3	2.74120E-3	94.9913E-12	661.875E-3	-19.9520E-3
2.39870E-3	95.8442E-12	652.132E-3	-6.83619E-3	94.5850E-12	667.952E-3	-10.4156E-3
2.39370E-3	95.6509E-12	664.191E-3	-28.4810E-3	94.1431E-12	683.228E-3	-21.3452E-3
2.38869E-3	94.6645E-12	681.308E-3	-51.5675E-3	95.2100E-12	677.332E-3	-34.7461E-3
2.38369E-3	95.6345E-12	691.514E-3	-50.9680E-3	95.5658E-12	680.357E-3	-28.1750E-3
2.37869E-3	95.4577E-12	667.779E-3	-40.7190E-3	93.6719E-12	682.730E-3	-25.4341E-3
2.37369E-3	94.9605E-12	651.513E-3	-19.0224E-3	92.2383E-12	652.550E-3	-22.9110E-3
2.36868E-3	93.1784E-12	673.407E-3	23.1200E-3	92.6622E-12	627.371E-3	-12.9459E-3
2.36368E-3	93.2720E-12	699.545E-3	25.7944E-3	93.9888E-12	640.645E-3	-22.3528E-3
2.35868E-3	92.8591E-12	700.406E-3	-6.64662E-3	92.2414E-12	669.996E-3	-27.4916E-3
2.35368E-3	91.3782E-12	689.935E-3	-20.8145E-3	90.1870E-12	672.770E-3	-8.81023E-3
2.34867E-3	90.8756E-12	669.084E-3	-15.2063E-3	90.1726E-12	658.044E-3	-10.1427E-3
2.34367E-3	90.5587E-12	647.640E-3	-4.36222E-3	91.5696E-12	646.574E-3	-33.7521E-3
2.33867E-3	90.6295E-12	645.262E-3	1.06322E-3	91.3659E-12	641.987E-3	-40.0495E-3
2.33367E-3	89.8699E-12	653.707E-3	1.10390E-3	89.8943E-12	662.413E-3	-27.3735E-3
2.32866E-3	89.9912E-12	644.590E-3	-1.24120E-3	89.7599E-12	675.577E-3	-20.3566E-3
2.32366E-3	90.5794E-12	632.734E-3	-13.4857E-3	91.6507E-12	655.833E-3	-15.7005E-3
2.31866E-3	90.9248E-12	643.401E-3	-23.3644E-3	93.1721E-12	642.483E-3	-11.1337E-3
2.31366E-3	91.2116E-12	652.436E-3	-21.3100E-3	91.3018E-12	648.950E-3	-16.2845E-3
2.30865E-3	90.7835E-12	652.350E-3	-25.3424E-3	90.1476E-12	647.483E-3	-25.6838E-3
2.30365E-3	90.6411E-12	664.626E-3	-29.6508E-3	90.4425E-12	643.434E-3	-25.6959E-3
2.29865E-3	90.4536E-12	670.542E-3	-28.9367E-3	91.7865E-12	647.728E-3	-18.0242E-3
2.29365E-3	90.9089E-12	653.379E-3	-25.7245E-3	90.1789E-12	652.227E-3	-21.3424E-3
2.28864E-3	90.5372E-12	651.618E-3	-8.67236E-3	88.5885E-12	668.709E-3	-30.7658E-3
2.28364E-3	90.0678E-12	667.844E-3	2.02038E-3	88.1279E-12	678.600E-3	-35.6765E-3
2.27864E-3	89.3829E-12	667.816E-3	-20.5070E-3	88.5397E-12	661.196E-3	-19.1699E-3
2.27364E-3	89.6340E-12	654.494E-3	-54.8039E-3	88.9703E-12	646.474E-3	3.27203E-3
2.26863E-3	88.8734E-12	652.857E-3	-59.7135E-3	87.9761E-12	643.829E-3	-9.63851E-3
2.26363E-3	87.9793E-12	662.327E-3	-44.5260E-3	86.8485E-12	654.654E-3	-26.5169E-3
2.25863E-3	87.4776E-12	670.980E-3	-35.4175E-3	87.1144E-12	682.100E-3	-18.4463E-3
2.25363E-3	87.2392E-12	661.161E-3	-32.7312E-3	88.4783E-12	701.348E-3	-11.9759E-3
2.24862E-3	87.2191E-12	630.391E-3	-36.2623E-3	88.4316E-12	687.574E-3	-8.44418E-3
2.24362E-3	87.3941E-12	631.504E-3	-35.4171E-3	87.9080E-12	668.991E-3	-732.422E-6
2.23862E-3	86.5703E-12	656.416E-3	-22.4923E-3	86.9971E-12	676.050E-3	-14.6268E-3
2.23362E-3	87.0702E-12	654.968E-3	-24.5024E-3	87.7650E-12	672.535E-3	-33.0296E-3
2.22861E-3	87.6325E-12	660.325E-3	-35.5014E-3	89.2920E-12	667.757E-3	-20.7746E-3
2.22361E-3	88.5035E-12	675.273E-3	-17.1535E-3	88.5331E-12	684.286E-3	-11.1324E-3
2.21861E-3	88.1282E-12	669.117E-3	5.04457E-3	87.0804E-12	679.265E-3	-23.8147E-3
2.21361E-3	87.4893E-12	676.709E-3	673.801E-6	86.0465E-12	669.987E-3	-28.5745E-3
2.20860E-3	87.8384E-12	693.428E-3	-7.94821E-3	87.1137E-12	679.330E-3	-25.0535E-3
2.20360E-3	87.7836E-12	694.371E-3	-30.6386E-3	86.0903E-12	678.446E-3	-20.5740E-3
2.19860E-3	87.4023E-12	695.087E-3	-57.7145E-3	84.9179E-12	675.506E-3	-4.07653E-3
2.19360E-3	86.5678E-12	696.764E-3	-48.5735E-3	83.8880E-12	671.233E-3	-5.76442E-3
2.18859E-3	87.2784E-12	694.351E-3	-28.4362E-3	83.7570E-12	652.678E-3	-26.5256E-3
2.18359E-3	86.3565E-12	694.798E-3	-24.4163E-3	83.2787E-12	652.204E-3	-19.6636E-3
2.17859E-3	85.0683E-12	700.985E-3	-24.2240E-3	82.9899E-12	667.406E-3	-4.51026E-3
2.17359E-3	84.5010E-12	687.551E-3	-19.1792E-3	82.5904E-12	669.469E-3	-9.41376E-3
2.16858E-3	83.9205E-12	667.577E-3	-15.9889E-3	82.6530E-12	673.430E-3	-21.8275E-3
2.16358E-3	84.1364E-12	676.358E-3	-17.1534E-3	82.9704E-12	674.180E-3	-32.8465E-3
2.15858E-3	83.1426E-12	693.138E-3	-22.8490E-3	82.5540E-12	661.164E-3	-30.3242E-3
2.15358E-3	83.2923E-12	703.475E-3	-35.1597E-3	82.9313E-12	655.821E-3	-11.8073E-3
2.14857E-3	83.0788E-12	707.109E-3	-43.4455E-3	83.1312E-12	667.281E-3	-5.44086E-3
2.14357E-3	83.6259E-12	699.968E-3	-41.9413E-3	83.9417E-12	675.195E-3	-25.3186E-3
2.13857E-3	83.4495E-12	697.050E-3	-37.3165E-3	83.4285E-12	679.056E-3	-34.0979E-3
2.13357E-3	83.0283E-12	701.959E-3	-35.8066E-3	83.0070E-12	696.045E-3	-17.8505E-3
2.12856E-3	82.8424E-12	690.913E-3	-32.6102E-3	82.5117E-12	708.132E-3	-2.41570E-3
2.12356E-3	83.1774E-12	671.819E-3	-10.1972E-3	82.7705E-12	695.557E-3	-693.325E-6
2.11856E-3	83.6245E-12	679.029E-3	10.9197E-3	82.9989E-12	690.962E-3	-8.05260E-3
2.11356E-3	82.6604E-12	698.573E-3	6.13612E-3	81.6390E-12	703.453E-3	-9.88907E-3
2.10855E-3	81.3327E-12	695.829E-3	-6.91178E-3	81.1001E-12	707.154E-3	-16.7623E-3
2.10355E-3	80.6042E-12	677.907E-3	-24.2910E-3	79.8997E-12	698.889E-3	-29.0923E-3
2.09855E-3	80.7045E-12	664.505E-3	-27.3867E-3	79.9910E-12	681.956E-3	-29.7520E-3
2.09355E-3	81.5916E-12	657.315E-3	-13.5916E-3	79.2289E-12	659.248E-3	-16.3540E-3
2.08854E-3	80.1388E-12	666.548E-3	-9.70771E-3	78.5922E-12	651.322E-3	514.483E-6
2.08354E-3	78.8479E-12	680.351E-3	-3.77371E-3	77.9344E-12	665.492E-3	-11.6062E-3
2.07854E-3	78.6686E-12	678.984E-3	-9.78579E-3	77.8971E-12	671.207E-3	-33.6562E-3
2.07354E-3	79.5905E-12	681.258E-3	-36.5271E-3	78.1862E-12	680.297E-3	-27.0150E-3
2.06853E-3	79.5760E-12	690.597E-3	-42.6747E-3	77.5765E-12	698.980E-3	-19.9225E-3
2.06353E-3	79.0978E-12	695.120E-3	-24.8902E-3	77.4629E-12	695.197E-3	-28.0706E-3
2.05853E-3	78.7256E-12	696.884E-3	-7.09259E-3	77.2315E-12	684.681E-3	-21.2526E-3
2.05353E-3	79.0898E-12	687.588E-3	-6.93381E-3	78.1955E-12	689.612E-3	-1.22979E-3
2.04852E-3	79.7629E-12	672.208E-3	-30.9827E-3	78.4164E-12	686.397E-3	11.8443E-3
2.04352E-3	79.0461E-12	679.288E-3	-40.3923E-3	77.4346E-12	686.193E-3	22.0716E-3
2.03852E-3	78.5037E-12	704.213E-3	-13.2368E-3	77.5762E-12	700.586E-3	12.4225E-3
2.03352E-3	78.1949E-12	716.144E-3	9.51539E-3	77.3700E-12	703.809E-3	-5.78885E-3
2.02851E-3	79.0349E-12	712.788E-3	842.669E-6	78.8383E-12	698.451E-3	5.98508E-3
2.02351E-3	77.8043E-12	693.109E-3	-21.4693E-3	77.5369E-12	692.475E-3	8.88286E-3
2.01851E-3	76.6580E-12	665.244E-3	-25.9877E-3	76.7973E-12	690.794E-3	-6.39921E-3
2.01351E-3	76.5508E-12	670.182E-3	-19.7534E-3	76.1086E-12	688.307E-3	-7.10366E-3
2.00850E-3	77.2126E-12	695.900E-3	-36.6976E-3	76.3851E-12	701.488E-3	-10.3770E-3
2.00350E-3	77.1731E-12	697.121E-3	-56.3434E-3	76.5234E-12	724.786E-3	-15.1285E-3
1.99850E-3	75.0596E-12	686.337E-3	-41.5449E-3	75.9392E-12	715.140E-3	-6.10270E-3
1.99350E-3	75.2855E-12	682.168E-3	-4.38668E-3	75.6543E-12	702.924E-3	1.93020E-3
1.98849E-3	75.5359E-12	674.190E-3	24.9174E-3	75.2251E-12	711.554E-3	-7.75555E-3
1.98349E-3	75.5849E-12	670.271E-3	15.5794E-3	76.3299E-12	716.341E-3	-19.3972E-3
1.97849E-3	74.5608E-12	675.802E-3	-18.3683E-3	76.4514E-12	724.400E-3	-24.8703E-3
1.97349E-3	74.7447E-12	681.344E-3	-28.5788E-3	75.5116E-12	731.096E-3	-29.0756E-3
1.96848E-3	75.5525E-12	689.074E-3	-15.4428E-3	74.7765E-12	722.740E-3	-21.3246E-3
1.96348E-3	76.3520E-12	704.966E-3	-3.77914E-3	75.6296E-12	707.048E-3	-2.78812E-3
1.95848E-3	76.0474E-12	727.869E-3	2.28843E-3	76.8485E-12	703.352E-3	4.78550E-3
1.95348E-3	74.8217E-12	739.457E-3	-5.68461E-3	75.0597E-12	720.114E-3	-12.7115E-3
1.94847E-3	75.3182E-12	725.357E-3	-28.6286E-3	73.9025E-12	732.328E-3	-31.8157E-3
1.94347E-3	75.1024E-12	711.089E-3	-33.2766E-3	73.5013E-12	721.736E-3	-32.8341E-3
1.93847E-3	75.1179E-12	727.314E-3	-20.6273E-3	74.3662E-12	705.646E-3	-32.9430E-3
1.93347E-3	73.7701E-12	742.976E-3	-13.8074E-3	73.7521E-12	707.360E-3	-23.8043E-3
1.92846E-3	72.8344E-12	736.697E-3	-4.29648E-3	71.9777E-12	719.592E-3	-3.80195E-3
1.92346E-3	72.6256E-12	730.943E-3	8.07139E-3	71.1572E-12	725.136E-3	-11.5987E-3
1.91846E-3	72.8541E-12	723.051E-3	25.0398E-3	72.1019E-12	724.451E-3	-31.8839E-3
1.91346E-3	72.0515E-12	708.418E-3	26.1137E-3	72.8928E-12	725.013E-3	-26.8520E-3
1.90845E-3	70.9816E-12	710.740E-3	91.1694E-6	71.7884E-12	719.688E-3	-13.9525E-3
1.90345E-3	71.3467E-12	737.793E-3	-14.5689E-3	71.1919E-12	715.201E-3	-14.7150E-3
1.89845E-3	71.5626E-12	745.871E-3	-17.1488E-3	72.0420E-12	725.039E-3	-25.5492E-3
1.89345E-3	70.9685E-12	726.385E-3	-13.8886E-3	73.1715E-12	729.621E-3	-32.9766E-3
1.88844E-3	69.8742E-12	708.631E-3	1.38974E-3	72.1082E-12	742.857E-3	-30.4278E-3
1.88344E-3	70.4775E-12	707.755E-3	4.49880E-3	71.0394E-12	764.055E-3	-37.7563E-3
1.87844E-3	71.1740E-12	718.772E-3	-5.49510E-3	71.9103E-12	750.226E-3	-49.8840E-3
1.87344E-3	70.9140E-12	719.195E-3	-5.58428E-3	72.6516E-12	724.714E-3	-39.5441E-3
1.86843E-3	69.9678E-12	713.937E-3	8.06187E-3	72.7792E-12	714.212E-3	-21.0736E-3
1.86343E-3	69.4479E-12	720.686E-3	9.01637E-3	70.3024E-12	715.579E-3	-20.7762E-3
1.85843E-3	69.5501E-12	737.707E-3	-15.3070E-3	69.3843E-12	718.673E-3	-38.0074E-3
1.85343E-3	69.0063E-12	742.699E-3	-33.8249E-3	69.6357E-12	717.445E-3	-48.2801E-3
1.84842E-3	68.8091E-12	727.727E-3	-25.0032E-3	70.1599E-12	727.521E-3	-41.8274E-3
1.84342E-3	67.8342E-12	722.915E-3	-13.5521E-3	68.6606E-12	734.673E-3	-21.5961E-3
1.83842E-3	67.6131E-12	735.858E-3	-9.73440E-3	67.9747E-12	735.286E-3	-3.78241E-3
1.83342E-3	67.4875E-12	744.266E-3	-4.59221E-3	67.9291E-12	730.820E-3	-7.53181E-3
1.82841E-3	67.5456E-12	733.790E-3	-8.76360E-3	68.1085E-12	714.813E-3	-4.89531E-3
1.82341E-3	66.9936E-12	721.991E-3	-20.8078E-3	67.9401E-12	720.033E-3	8.05317E-3
1.81841E-3	66.6586E-12	724.162E-3	-31.0182E-3	67.3237E-12	747.362E-3	-4.39444E-3
1.81341E-3	66.7256E-12	728.264E-3	-25.7230E-3	67.3374E-12	764.266E-3	-31.3962E-3
1.80840E-3	66.8817E-12	736.163E-3	-5.78413E-3	67.4173E-12	773.665E-3	-32.3447E-3
1.80340E-3	67.0438E-12	748.149E-3	-40.9982E-6	68.2805E-12	782.612E-3	-27.8745E-3
1.79840E-3	66.6041E-12	753.582E-3	-18.5574E-3	68.7916E-12	772.178E-3	-47.4738E-3
1.79340E-3	66.7137E-12	752.311E-3	-28.8313E-3	68.0195E-12	761.321E-3	-44.1334E-3
1.78839E-3	66.5034E-12	752.411E-3	-13.7081E-3	67.5203E-12	759.966E-3	-20.5903E-3
1.78339E-3	66.4651E-12	755.835E-3	-4.47072E-3	66.9236E-12	749.316E-3	-19.8877E-3
1.77839E-3	65.8459E-12	767.379E-3	-10.2232E-3	66.9223E-12	756.805E-3	-23.3065E-3
1.77339E-3	65.4042E-12	771.154E-3	-9.98206E-3	66.1220E-12	769.458E-3	-22.9801E-3
1.76838E-3	64.9640E-12	756.297E-3	-14.9581E-3	65.2493E-12	749.817E-3	-25.3109E-3
1.76338E-3	64.4341E-12	753.352E-3	-28.6646E-3	64.8383E-12	721.475E-3	-29.2405E-3
1.75838E-3	63.7079E-12	765.123E-3	-37.5194E-3	64.2152E-12	718.214E-3	-36.3244E-3
1.75338E-3	63.0644E-12	757.072E-3	-35.6829E-3	63.4380E-12	734.245E-3	-39.6340E-3
1.74837E-3	63.0990E-12	740.500E-3	-19.1014E-3	62.9838E-12	750.994E-3	-28.1473E-3
1.74337E-3	62.4328E-12	745.906E-3	-8.50145E-3	62.7309E-12	761.449E-3	-9.92910E-3
1.73837E-3	61.6832E-12	748.021E-3	-23.8427E-3	62.5834E-12	755.534E-3	-10.3364E-3
1.73337E-3	61.3625E-12	742.733E-3	-33.0311E-3	62.2266E-12	750.248E-3	-20.6375E-3
1.72836E-3	62.0650E-12	746.226E-3	-20.2747E-3	61.3559E-12	759.129E-3	-23.0899E-3
1.72336E-3	61.6298E-12	748.200E-3	-21.4377E-3	61.6867E-12	764.849E-3	-19.6519E-3
1.71836E-3	61.3022E-12	753.861E-3	-36.4437E-3	62.4996E-12	773.178E-3	-13.8540E-3
1.71336E-3	61.5424E-12	764.320E-3	-41.4600E-3	62.4681E-12	800.557E-3	-13.3108E-3
1.70835E-3	61.9158E-12	763.805E-3	-32.7602E-3	62.0031E-12	816.677E-3	-24.5670E-3
1.70335E-3	62.2477E-12	752.368E-3	-12.6263E-3	61.5120E-12	808.837E-3	-26.7214E-3
1.69835E-3	61.8527E-12	757.432E-3	7.28874E-3	62.2005E-12	811.111E-3	-13.0162E-3
1.69335E-3	61.6400E-12	782.435E-3	11.8601E-3	62.2084E-12	814.402E-3	-9.05522E-3
1.68834E-3	61.1088E-12	790.211E-3	2.77399E-3	61.6244E-12	797.165E-3	-11.4425E-3
1.68334E-3	61.4089E-12	778.025E-3	-5.75671E-3	61.2665E-12	787.655E-3	-15.3416E-3
1.67834E-3	60.8017E-12	783.450E-3	-154.113E-6	61.1337E-12	806.930E-3	-26.7597E-3
1.67334E-3	60.2295E-12	808.831E-3	9.75278E-3	61.1897E-12	820.084E-3	-20.8184E-3
1.66833E-3	59.4468E-12	826.052E-3	2.96217E-3	60.2122E-12	809.506E-3	7.05408E-3
1.66333E-3	59.0963E-12	817.852E-3	-9.80769E-3	59.7452E-12	793.789E-3	7.77531E-3
1.65833E-3	59.1608E-12	799.597E-3	-15.9143E-3	59.1912E-12	784.299E-3	-18.9211E-3
1.65333E-3	58.8126E-12	796.604E-3	-9.89291E-3	59.5733E-12	797.086E-3	-25.5053E-3
1.64832E-3	57.7939E-12	798.721E-3	-4.75729E-3	59.0042E-12	832.246E-3	-13.7345E-3
1.64332E-3	57.4526E-12	794.572E-3	-7.97826E-3	58.6724E-12	845.623E-3	-4.60631E-3
1.63832E-3	57.7270E-12	792.806E-3	-2.75233E-3	58.2794E-12	829.651E-3	-3.72302E-3
1.63332E-3	57.7471E-12	792.008E-3	2.42999E-3	57.9663E-12	813.071E-3	-16.9683E-3
1.62831E-3	57.5696E-12	792.764E-3	-2.75615E-3	57.9119E-12	803.891E-3	-28.9184E-3
1.62331E-3	57.4024E-12	807.780E-3	-8.52834E-3	57.7624E-12	819.840E-3	-21.7307E-3
1.61831E-3	57.3163E-12	817.375E-3	-11.0554E-3	57.7505E-12	854.440E-3	-17.9679E-3
1.61331E-3	57.4499E-12	808.062E-3	-17.6736E-3	57.1750E-12	856.175E-3	-27.0208E-3
1.60830E-3	57.1217E-12	808.053E-3	-17.9050E-3	57.4746E-12	837.932E-3	-27.9043E-3
1.60330E-3	57.2744E-12	819.782E-3	-15.3736E-3	58.6041E-12	845.312E-3	-27.7660E-3
1.59830E-3	56.8387E-12	818.360E-3	-29.3159E-3	57.4295E-12	851.629E-3	-30.1317E-3
1.59330E-3	56.5209E-12	813.219E-3	-35.1725E-3	55.7023E-12	845.306E-3	-12.2915E-3
1.58829E-3	55.7538E-12	818.576E-3	-23.6698E-3	55.4909E-12	843.932E-3	-924.587E-6
1.58329E-3	55.2999E-12	832.103E-3	-17.9310E-3	56.3423E-12	836.900E-3	-21.8639E-3
1.57829E-3	54.8212E-12	840.373E-3	-18.8043E-3	55.7313E-12	834.302E-3	-16.6008E-3
1.57329E-3	54.7294E-12	832.930E-3	-16.1338E-3	54.5172E-12	843.209E-3	9.01473E-3
1.56828E-3	54.4719E-12	831.172E-3	-21.7053E-3	53.9616E-12	842.134E-3	2.40802E-3
1.56328E-3	53.7531E-12	838.726E-3	-26.1001E-3	54.2973E-12	836.442E-3	-7.48947E-3
1.55828E-3	53.3122E-12	841.898E-3	-18.3479E-3	54.9452E-12	847.678E-3	-1.99189E-3
1.55328E-3	52.9879E-12	840.255E-3	-12.9459E-3	54.4601E-12	861.245E-3	2.31023E-3
1.54827E-3	52.9855E-12	839.052E-3	-10.9155E-3	54.1259E-12	856.054E-3	2.52092E-3
1.54327E-3	52.6300E-12	831.459E-3	-14.8606E-3	53.0965E-12	847.197E-3	1.09208E-3
1.53827E-3	52.5605E-12	825.046E-3	-27.3077E-3	53.5506E-12	833.797E-3	-7.97271E-3
1.53327E-3	52.6826E-12	840.389E-3	-36.4599E-3	53.7603E-12	819.605E-3	-26.6191E-3
1.52826E-3	52.5146E-12	854.923E-3	-31.3712E-3	53.5777E-12	839.236E-3	-27.6778E-3
1.52326E-3	52.0326E-12	856.652E-3	-26.8950E-3	52.1754E-12	874.579E-3	-24.4950E-3
1.51826E-3	51.6544E-12	862.593E-3	-16.6200E-3	52.0617E-12	883.236E-3	-34.2001E-3
1.51326E-3	51.6631E-12	866.406E-3	3.05964E-3	52.4805E-12	871.928E-3	-23.7991E-3
1.50825E-3	51.1743E-12	864.597E-3	-1.97265E-3	51.7896E-12	866.433E-3	-18.6773E-3
1.50325E-3	50.9118E-12	870.046E-3	-26.0357E-3	50.3743E-12	852.081E-3	-38.7860E-3
1.49825E-3	50.3076E-12	877.426E-3	-35.1640E-3	49.3275E-12	833.752E-3	-38.2994E-3
1.49325E-3	50.5660E-12	874.127E-3	-29.7396E-3	49.8147E-12	840.842E-3	-27.6968E-3
1.48824E-3	49.6668E-12	869.140E-3	-22.2149E-3	49.4699E-12	844.148E-3	-34.9398E-3
1.48324E-3	49.0465E-12	869.494E-3	-13.8448E-3	48.2474E-12	845.783E-3	-34.9010E-3
1.47824E-3	48.6531E-12	861.970E-3	-19.1169E-3	48.0077E-12	870.722E-3	-35.0540E-3
1.47324E-3	48.5013E-12	853.938E-3	-33.9403E-3	48.4568E-12	873.521E-3	-37.8751E-3
1.46823E-3	48.4295E-12	852.740E-3	-34.0601E-3	48.5498E-12	855.966E-3	-21.0100E-3
1.46323E-3	48.4317E-12	846.711E-3	-20.2772E-3	47.9605E-12	854.939E-3	-19.8998E-3
1.45823E-3	48.0331E-12	843.345E-3	-5.58094E-3	48.0275E-12	842.611E-3	-44.5826E-3
1.45323E-3	47.4467E-12	853.820E-3	-4.31481E-3	48.0067E-12	824.480E-3	-44.3207E-3
1.44822E-3	47.5560E-12	866.014E-3	-11.1577E-3	48.3369E-12	838.272E-3	-28.7261E-3
1.44322E-3	47.8919E-12	865.736E-3	-6.64159E-3	48.1372E-12	859.180E-3	-24.8027E-3
1.43822E-3	47.4616E-12	854.281E-3	-5.07889E-3	47.4223E-12	853.261E-3	-16.4905E-3
1.43322E-3	46.3065E-12	843.008E-3	-3.96306E-3	46.8303E-12	848.464E-3	-6.80772E-3
1.42821E-3	45.9641E-12	836.412E-3	6.05974E-3	46.6642E-12	851.806E-3	-4.48731E-3
1.42321E-3	45.6573E-12	831.454E-3	3.10392E-3	47.4977E-12	830.030E-3	-999.765E-6
1.41821E-3	46.0372E-12	837.852E-3	-13.5850E-3	46.6448E-12	800.600E-3	39.4463E-6
1.41321E-3	45.3584E-12	840.333E-3	-29.7498E-3	44.8953E-12	786.068E-3	-21.3557E-3
1.40820E-3	44.3561E-12	825.109E-3	-38.6902E-3	44.6804E-12	773.995E-3	-39.6516E-3
1.40320E-3	44.0497E-12	808.341E-3	-39.1990E-3	44.9438E-12	775.763E-3	-35.9234E-3
1.39820E-3	44.0014E-12	804.193E-3	-37.7603E-3	44.8078E-12	785.566E-3	-45.6753E-3
1.39320E-3	44.5649E-12	810.851E-3	-32.9523E-3	43.6221E-12	782.940E-3	-33.7802E-3
1.38819E-3	44.0511E-12	807.457E-3	-18.5587E-3	43.1159E-12	783.896E-3	6.85787E-3
1.38319E-3	43.6811E-12	796.098E-3	-5.15930E-3	43.8697E-12	790.426E-3	10.1201E-3
1.37819E-3	43.6235E-12	800.719E-3	-1.69094E-3	44.1767E-12	794.202E-3	-16.3382E-3
1.37319E-3	44.1933E-12	806.126E-3	-943.159E-6	43.3745E-12	794.266E-3	-27.2269E-3
1.36818E-3	43.9082E-12	786.068E-3	1.77891E-3	43.2130E-12	779.855E-3	-13.7326E-3
1.36318E-3	43.2418E-12	772.780E-3	3.32958E-3	43.5175E-12	755.199E-3	-4.29273E-3
1.35818E-3	43.2065E-12	783.090E-3	2.07555E-3	44.0097E-12	742.387E-3	-17.7693E-3
1.35318E-3	43.6731E-12	787.302E-3	2.96820E-3	43.4912E-12	741.095E-3	-33.4674E-3
1.34817E-3	43.6796E-12	781.101E-3	4.82492E-3	43.0289E-12	733.441E-3	-31.8651E-3
1.34317E-3	42.5440E-12	768.407E-3	-1.18178E-3	43.0563E-12	721.367E-3	-11.8807E-3
1.33817E-3	41.9722E-12	743.857E-3	-3.87599E-3	42.5908E-12	712.970E-3	-4.88192E-3
1.33317E-3	41.7015E-12	728.639E-3	-4.35765E-3	41.8352E-12	694.856E-3	-28.5800E-3
1.32816E-3	41.5057E-12	737.113E-3	-19.9912E-3	41.2855E-12	672.359E-3	-37.0463E-3
1.32316E-3	40.8436E-12	739.967E-3	-28.9455E-3	40.7991E-12	665.929E-3	-27.2210E-3
1.31816E-3	40.0478E-12	722.276E-3	-21.7934E-3	40.3362E-12	665.134E-3	-29.5290E-3
1.31316E-3	39.5168E-12	701.920E-3	-14.6953E-3	39.5951E-12	651.619E-3	-19.1778E-3
1.30815E-3	39.2323E-12	689.153E-3	-13.8440E-3	38.7286E-12	634.886E-3	-3.73314E-3
1.30315E-3	39.0192E-12	680.136E-3	-23.6213E-3	39.0384E-12	624.806E-3	-16.3170E-3
1.29815E-3	38.5865E-12	682.199E-3	-29.3229E-3	39.0410E-12	613.507E-3	-23.7327E-3
1.29315E-3	38.2491E-12	677.277E-3	-19.1649E-3	38.9066E-12	613.233E-3	-11.4508E-3
1.28814E-3	38.9108E-12	651.747E-3	-12.4576E-3	38.7729E-12	618.883E-3	-13.5570E-3
1.28314E-3	39.1039E-12	639.823E-3	-12.2876E-3	39.2781E-12	602.895E-3	-18.1442E-3
1.27814E-3	38.9683E-12	640.393E-3	-13.1829E-3	39.6052E-12	588.367E-3	-15.2365E-3
1.27314E-3	38.2563E-12	637.435E-3	-16.3739E-3	39.3808E-12	585.793E-3	-18.9411E-3
1.26813E-3	38.5976E-12	631.720E-3	-11.0755E-3	38.9986E-12	569.615E-3	-13.5399E-3
1.26313E-3	39.1538E-12	617.037E-3	-12.2143E-3	38.7809E-12	560.258E-3	-2.92036E-3
1.25813E-3	39.1555E-12	601.063E-3	-28.3449E-3	39.1053E-12	560.473E-3	-11.0253E-3
1.25313E-3	38.3138E-12	592.181E-3	-35.9775E-3	38.7836E-12	541.571E-3	-18.8979E-3
1.24812E-3	37.7895E-12	581.396E-3	-24.3381E-3	38.1614E-12	526.932E-3	-6.07486E-3
1.24312E-3	37.8648E-12	570.045E-3	-13.1912E-3	37.6602E-12	516.705E-3	1.95483E-3
1.23812E-3	38.1942E-12	576.165E-3	-17.4327E-3	37.4929E-12	486.621E-3	-830.340E-6
1.23312E-3	37.4287E-12	572.102E-3	-17.6649E-3	37.6402E-12	468.167E-3	1.66118E-3
1.22811E-3	36.5457E-12	535.465E-3	-11.9417E-3	37.5663E-12	464.571E-3	-7.21793E-3
1.22311E-3	36.6792E-12	514.468E-3	-18.3982E-3	36.4142E-12	449.668E-3	-25.8971E-3
1.21811E-3	36.5224E-12	518.685E-3	-20.8700E-3	35.4585E-12	431.002E-3	-23.6263E-3
1.21311E-3	36.0297E-12	511.120E-3	-9.81273E-3	36.0893E-12	427.922E-3	-15.5992E-3
1.20810E-3	35.7381E-12	484.022E-3	-3.83287E-3	36.7564E-12	421.641E-3	-13.1281E-3
1.20310E-3	35.7849E-12	457.159E-3	-3.14954E-3	36.3002E-12	410.591E-3	-1.54829E-3
1.19810E-3	35.7922E-12	440.424E-3	-8.55485E-3	35.4792E-12	416.366E-3	1.41114E-3
1.19310E-3	35.7727E-12	431.894E-3	-19.2854E-3	35.7071E-12	408.706E-3	-7.28953E-3
1.18809E-3	35.9387E-12	438.621E-3	-21.3700E-3	37.2773E-12	380.223E-3	-12.8180E-3
1.18309E-3	35.5704E-12	435.543E-3	-12.0633E-3	36.8995E-12	363.947E-3	-20.8656E-3
1.17809E-3	35.1321E-12	413.954E-3	-3.77310E-3	36.1309E-12	371.610E-3	-30.8883E-3
1.17309E-3	35.1884E-12	398.363E-3	-9.75078E-3	35.4358E-12	376.551E-3	-30.3488E-3
1.16808E-3	35.8243E-12	381.301E-3	-16.1024E-3	36.2786E-12	367.650E-3	-18.7602E-3
1.16308E-3	35.4496E-12	370.418E-3	-11.2880E-3	36.6226E-12	353.539E-3	-12.3548E-3
1.15808E-3	34.6201E-12	376.952E-3	-14.7704E-3	35.5758E-12	330.035E-3	-13.7353E-3
1.15308E-3	34.7021E-12	387.737E-3	-23.6006E-3	34.6142E-12	317.837E-3	-16.8992E-3
1.14807E-3	35.2608E-12	384.897E-3	-15.3502E-3	34.8307E-12	319.380E-3	-25.5594E-3
1.14307E-3	35.1976E-12	361.577E-3	-8.10071E-3	35.9075E-12	309.445E-3	-21.0818E-3
1.13807E-3	34.1335E-12	344.114E-3	-7.59191E-3	35.1104E-12	294.568E-3	2.17480E-3
1.13307E-3	33.7786E-12	338.079E-3	-5.83085E-3	33.7919E-12	277.621E-3	-5.34133E-3
1.12806E-3	34.1584E-12	322.158E-3	-14.7387E-3	33.3657E-12	255.341E-3	-30.4530E-3
1.12306E-3	34.6669E-12	293.543E-3	-22.2917E-3	34.1230E-12	257.013E-3	-20.7787E-3
1.11806E-3	34.5430E-12	268.037E-3	-15.2824E-3	34.9114E-12	267.809E-3	-9.31157E-3
1.11306E-3	33.9612E-12	268.209E-3	-9.80752E-3	34.3463E-12	254.855E-3	-10.1582E-3
1.10805E-3	34.5488E-12	280.107E-3	-13.0969E-3	33.8763E-12	240.002E-3	-5.88716E-3
1.10305E-3	34.8696E-12	271.267E-3	-8.67100E-3	34.2027E-12	236.978E-3	-13.3858E-3
1.09805E-3	34.9984E-12	258.077E-3	-16.5976E-3	34.9180E-12	233.292E-3	-24.7852E-3
1.09305E-3	34.6051E-12	258.494E-3	-48.4858E-3	34.5632E-12	231.342E-3	-26.7687E-3
1.08804E-3	35.1859E-12	247.217E-3	-57.6343E-3	33.8391E-12	228.471E-3	-21.7802E-3
1.08304E-3	35.0515E-12	224.281E-3	-39.4750E-3	33.6338E-12	205.567E-3	-17.7277E-3
1.07804E-3	34.6437E-12	223.535E-3	-25.8213E-3	33.7874E-12	184.851E-3	-17.2335E-3
1.07304E-3	34.4029E-12	229.248E-3	-15.4698E-3	33.5511E-12	193.872E-3	-16.7876E-3
1.06803E-3	34.6386E-12	217.429E-3	-13.9264E-3	33.5118E-12	197.042E-3	-8.31902E-3
1.06303E-3	34.1085E-12	212.774E-3	-20.2031E-3	33.2743E-12	179.204E-3	9.00456E-3
1.05803E-3	33.4752E-12	210.311E-3	-13.5537E-3	33.0529E-12	159.292E-3	4.40775E-3
1.05303E-3	33.0231E-12	190.956E-3	-10.4600E-3	33.1067E-12	151.075E-3	-22.8752E-3
1.04802E-3	33.6229E-12	176.067E-3	-20.7285E-3	32.7997E-12	154.142E-3	-29.3269E-3
1.04302E-3	33.8330E-12	170.037E-3	-18.1744E-3	32.6822E-12	148.087E-3	-13.2149E-3
1.03802E-3	33.5727E-12	168.871E-3	-1.24642E-3	32.7043E-12	132.818E-3	-12.0579E-3
1.03302E-3	33.7575E-12	173.969E-3	10.7013E-3	33.1375E-12	120.576E-3	-11.3827E-3
1.02801E-3	34.3828E-12	169.761E-3	15.7783E-3	33.3484E-12	122.979E-3	-5.59360E-3
1.02301E-3	33.7429E-12	156.731E-3	12.5259E-3	32.8465E-12	128.622E-3	-18.3140E-3
1.01801E-3	33.3903E-12	153.339E-3	6.67991E-3	32.8837E-12	129.845E-3	-26.2871E-3
1.01301E-3	33.0288E-12	151.775E-3	3.08317E-3	33.7421E-12	142.422E-3	-23.9066E-3
1.00800E-3	33.1028E-12	144.442E-3	-6.24352E-3	34.2997E-12	145.617E-3	-28.4923E-3
1.00300E-3	32.9560E-12	139.865E-3	-9.21323E-3	33.5394E-12	128.477E-3	-18.9158E-3
997.999E-6	33.3220E-12	130.520E-3	-10.0148E-3	33.0521E-12	121.356E-3	-3.75629E-3
992.997E-6	33.1481E-12	116.788E-3	-20.1525E-3	33.2390E-12	121.735E-3	-5.14373E-3
987.994E-6	32.8153E-12	107.183E-3	-30.1910E-3	32.9846E-12	107.321E-3	5.26007E-3
982.991E-6	32.2689E-12	105.031E-3	-23.5638E-3	32.9352E-12	99.2978E-3	21.7628E-3
977.989E-6	32.7393E-12	118.376E-3	-3.94273E-3	32.5019E-12	97.4538E-3	5.53653E-3
972.986E-6	32.6628E-12	139.402E-3	-180.368E-6	32.5778E-12	82.9357E-3	-14.0114E-3
967.984E-6	31.9682E-12	142.453E-3	-18.6157E-3	32.4167E-12	92.2625E-3	-2.14736E-3
962.981E-6	31.2387E-12	123.192E-3	-37.0314E-3	32.6539E-12	112.183E-3	7.36452E-3
957.979E-6	31.4730E-12	100.007E-3	-39.4984E-3	32.4012E-12	99.0466E-3	-878.496E-6
952.976E-6	32.3315E-12	97.3908E-3	-24.5266E-3	32.2605E-12	86.5037E-3	-15.2763E-3
947.974E-6	32.1753E-12	109.429E-3	-15.4369E-3	32.2176E-12	107.309E-3	-32.5689E-3
942.971E-6	31.7656E-12	109.993E-3	-34.4436E-3	32.2853E-12	125.344E-3	-38.0181E-3
937.969E-6	31.9009E-12	106.345E-3	-36.4544E-3	32.6053E-12	111.642E-3	-22.8063E-3
932.966E-6	32.4929E-12	103.592E-3	-10.6170E-3	32.8303E-12	102.219E-3	-15.7394E-3
927.964E-6	33.0944E-12	108.515E-3	-7.19727E-3	33.5217E-12	108.436E-3	-34.3081E-3
922.961E-6	32.5060E-12	122.682E-3	-16.6061E-3	32.6273E-12	105.409E-3	-46.5881E-3
917.959E-6	32.1559E-12	118.104E-3	-18.8753E-3	32.5204E-12	106.010E-3	-46.2076E-3
912.956E-6	32.2645E-12	103.021E-3	-22.8855E-3	32.3107E-12	110.179E-3	-34.1177E-3
907.954E-6	33.3914E-12	106.682E-3	-12.2553E-3	32.6305E-12	105.604E-3	-8.75604E-3
902.951E-6	32.7402E-12	113.520E-3	-595.049E-6	32.3214E-12	110.988E-3	-6.87224E-3
897.949E-6	31.9465E-12	112.676E-3	-13.9497E-3	31.4430E-12	125.084E-3	-35.3771E-3
892.946E-6	31.8659E-12	112.061E-3	-19.0066E-3	31.2315E-12	129.988E-3	-44.9016E-3
887.944E-6	32.3256E-12	102.811E-3	-10.1887E-3	31.2974E-12	130.825E-3	-22.5088E-3
882.941E-6	32.3027E-12	84.0361E-3	-6.17589E-3	31.4915E-12	122.989E-3	-16.2443E-3
877.939E-6	31.0976E-12	89.5177E-3	-12.7805E-3	31.3297E-12	114.064E-3	-27.9823E-3
872.936E-6	30.9703E-12	120.760E-3	-23.9580E-3	30.9116E-12	129.112E-3	-38.6100E-3
867.934E-6	31.3727E-12	127.639E-3	-29.1499E-3	30.9328E-12	137.082E-3	-47.5858E-3
862.931E-6	32.6627E-12	114.137E-3	-37.3002E-3	31.4378E-12	130.857E-3	-29.5467E-3
857.929E-6	31.7819E-12	112.313E-3	-31.6801E-3	31.5749E-12	140.203E-3	-1.62279E-3
852.926E-6	30.5138E-12	112.520E-3	-9.06217E-3	31.5304E-12	147.212E-3	-8.68650E-3
847.924E-6	30.7239E-12	104.920E-3	-4.68907E-3	31.3103E-12	146.439E-3	-31.0807E-3
842.921E-6	31.9818E-12	108.954E-3	-9.18941E-3	31.9722E-12	152.233E-3	-26.6019E-3
837.919E-6	32.3561E-12	125.915E-3	-2.57465E-3	32.5957E-12	151.131E-3	-18.2526E-3
832.916E-6	30.9258E-12	136.948E-3	-6.52718E-3	32.3952E-12	138.125E-3	-19.4474E-3
827.914E-6	30.8051E-12	140.544E-3	-20.2983E-3	31.9810E-12	144.719E-3	-10.9719E-3
822.911E-6	31.5459E-12	141.362E-3	-28.1748E-3	31.4051E-12	166.153E-3	-14.0285E-3
817.909E-6	32.4206E-12	140.354E-3	-37.5095E-3	31.6251E-12	165.623E-3	-23.8899E-3
812.906E-6	31.1266E-12	148.639E-3	-43.7911E-3	31.3800E-12	162.357E-3	-20.9499E-3
807.904E-6	30.3751E-12	161.804E-3	-34.0528E-3	31.0277E-12	171.158E-3	-15.6248E-3
802.901E-6	30.9051E-12	157.853E-3	-26.9920E-3	30.3058E-12	171.867E-3	-13.1194E-3
797.899E-6	31.7014E-12	152.926E-3	-28.8478E-3	30.1474E-12	172.981E-3	-12.1506E-3
792.896E-6	31.8440E-12	156.511E-3	-22.7697E-3	30.3210E-12	187.825E-3	-14.8043E-3
787.894E-6	30.3190E-12	157.739E-3	-23.5377E-3	29.8204E-12	206.876E-3	-14.0452E-3
782.891E-6	30.3367E-12	153.303E-3	-24.7372E-3	29.8031E-12	208.840E-3	-9.98211E-3
777.889E-6	30.9568E-12	150.236E-3	-12.6873E-3	29.8634E-12	201.092E-3	-14.8357E-3
772.886E-6	31.1362E-12	164.890E-3	-16.9655E-3	30.4068E-12	209.009E-3	-28.6357E-3
767.884E-6	30.6937E-12	186.552E-3	-31.2666E-3	30.4255E-12	224.926E-3	-33.8617E-3
762.881E-6	30.2810E-12	195.868E-3	-23.3806E-3	30.7089E-12	237.436E-3	-25.3022E-3
757.879E-6	30.6276E-12	194.276E-3	-10.2305E-3	30.6563E-12	236.411E-3	-16.5150E-3
752.876E-6	30.9011E-12	204.019E-3	-12.4039E-3	30.6038E-12	232.326E-3	-12.2825E-3
747.874E-6	30.7665E-12	219.546E-3	-17.9605E-3	30.9770E-12	264.364E-3	-12.5166E-3
742.871E-6	30.7953E-12	216.650E-3	-18.5803E-3	31.0887E-12	296.307E-3	-13.0945E-3
737.869E-6	30.4833E-12	214.656E-3	-14.1414E-3	30.5909E-12	289.502E-3	-10.5799E-3
732.866E-6	30.6615E-12	223.852E-3	-6.71059E-3	30.3724E-12	288.655E-3	-9.15483E-3
727.864E-6	30.3651E-12	236.126E-3	-1.19014E-3	30.1824E-12	298.029E-3	-13.5286E-3
722.861E-6	29.6854E-12	258.805E-3	-8.54093E-3	30.2601E-12	302.954E-3	-4.81399E-3
717.859E-6	29.6493E-12	279.414E-3	-29.9319E-3	29.7150E-12	319.670E-3	5.33608E-3
712.856E-6	29.2527E-12	277.448E-3	-43.2418E-3	29.0030E-12	332.654E-3	-10.0722E-3
707.854E-6	29.4097E-12	270.815E-3	-45.7903E-3	29.2350E-12	331.335E-3	-10.8257E-3
702.851E-6	28.9494E-12	287.157E-3	-32.8058E-3	28.9612E-12	334.287E-3	-4.54497E-3
697.849E-6	28.3953E-12	312.715E-3	-10.4805E-3	28.9792E-12	350.288E-3	-30.7185E-3
692.846E-6	28.3092E-12	324.042E-3	-16.1629E-3	28.6390E-12	372.430E-3	-40.5327E-3
687.844E-6	28.5973E-12	332.289E-3	-27.1814E-3	28.5581E-12	399.100E-3	-7.31235E-3
682.841E-6	29.0785E-12	341.708E-3	-20.6179E-3	28.5155E-12	413.158E-3	7.26725E-3
677.839E-6	28.5284E-12	352.227E-3	-19.4269E-3	28.3920E-12	410.947E-3	-14.6989E-3
672.836E-6	28.1514E-12	377.319E-3	-12.3328E-3	28.6720E-12	419.892E-3	-26.7164E-3
667.834E-6	28.7835E-12	394.394E-3	-26.9778E-6	28.4050E-12	429.677E-3	-25.4842E-3
662.831E-6	29.4716E-12	396.526E-3	-11.0957E-3	28.6683E-12	434.304E-3	-11.3978E-3
657.829E-6	28.8654E-12	408.351E-3	-22.9518E-3	28.4607E-12	457.605E-3	10.2438E-3
652.826E-6	28.2352E-12	417.744E-3	-10.0294E-3	28.5781E-12	483.784E-3	1.60889E-3
647.824E-6	28.3340E-12	416.366E-3	-7.48849E-3	28.3103E-12	487.353E-3	-22.6138E-3
642.821E-6	28.2535E-12	424.100E-3	-24.4958E-3	27.8826E-12	497.249E-3	-23.8329E-3
637.819E-6	28.2519E-12	432.834E-3	-30.8097E-3	27.9044E-12	522.518E-3	-17.1073E-3
632.816E-6	27.2062E-12	431.182E-3	-29.9661E-3	27.7697E-12	531.436E-3	-17.1842E-3
627.814E-6	26.8389E-12	442.328E-3	-25.1793E-3	27.6376E-12	538.058E-3	-16.2633E-3
622.811E-6	26.8017E-12	468.098E-3	-19.6614E-3	26.7256E-12	558.498E-3	-24.3976E-3
617.809E-6	26.3158E-12	492.200E-3	-27.2946E-3	26.9522E-12	572.267E-3	-36.3179E-3
612.806E-6	26.2539E-12	510.191E-3	-33.7417E-3	26.6827E-12	574.584E-3	-18.3192E-3
607.804E-6	26.0317E-12	519.169E-3	-27.2705E-3	26.5157E-12	583.294E-3	5.18981E-3
602.801E-6	25.8861E-12	528.635E-3	-16.2239E-3	26.0100E-12	602.297E-3	-11.0574E-3
597.799E-6	25.6480E-12	551.318E-3	-11.0604E-3	25.8033E-12	616.833E-3	-26.3921E-3
592.796E-6	26.0279E-12	568.679E-3	-10.0517E-3	26.0919E-12	633.473E-3	-17.3676E-3
587.794E-6	25.5781E-12	568.828E-3	-4.86345E-3	26.1733E-12	655.544E-3	-16.1243E-3
582.791E-6	25.1488E-12	583.506E-3	-91.2736E-6	25.9977E-12	660.695E-3	-16.9481E-3
577.789E-6	24.9823E-12	603.714E-3	113.124E-6	25.1293E-12	675.446E-3	-14.3101E-3
572.786E-6	24.8243E-12	610.549E-3	-7.29308E-3	25.1035E-12	703.739E-3	-18.0609E-3
567.784E-6	24.8819E-12	636.426E-3	-18.7930E-3	25.5469E-12	705.218E-3	-12.6805E-3
562.781E-6	24.5857E-12	661.589E-3	-29.6573E-3	25.7067E-12	697.069E-3	-653.276E-6
557.779E-6	23.9539E-12	651.347E-3	-33.3220E-3	24.7468E-12	704.421E-3	4.50262E-3
552.776E-6	23.7035E-12	633.084E-3	-29.9126E-3	23.9763E-12	712.106E-3	3.82979E-3
547.774E-6	23.7609E-12	639.212E-3	-24.6529E-3	24.1393E-12	712.375E-3	-4.20363E-3
542.771E-6	23.5544E-12	665.799E-3	-15.5907E-3	24.2567E-12	729.890E-3	-19.1949E-3
537.769E-6	22.9444E-12	699.380E-3	-13.3857E-3	23.7718E-12	765.264E-3	-23.3751E-3
532.766E-6	22.5444E-12	724.003E-3	-16.8345E-3	22.8953E-12	786.099E-3	-2.56946E-3
527.764E-6	22.4867E-12	713.055E-3	-7.72785E-3	23.0556E-12	793.976E-3	-465.097E-6
522.761E-6	22.3491E-12	707.189E-3	-3.15905E-3	23.1209E-12	793.965E-3	-27.0067E-3
517.759E-6	22.1130E-12	731.307E-3	-11.2060E-3	23.0206E-12	795.355E-3	-31.7269E-3
512.756E-6	22.0032E-12	746.360E-3	-3.41723E-3	22.4999E-12	829.748E-3	-18.8184E-3
507.754E-6	22.0753E-12	747.906E-3	2.60093E-3	21.9769E-12	856.503E-3	-18.9052E-3
502.751E-6	21.8904E-12	760.648E-3	-283.378E-6	22.1483E-12	842.512E-3	-25.3339E-3
497.749E-6	21.3740E-12	789.532E-3	8.05028E-3	22.5665E-12	832.802E-3	-22.6311E-3
492.746E-6	21.1038E-12	805.801E-3	11.5546E-3	21.9920E-12	849.534E-3	-9.75575E-3
487.744E-6	21.2842E-12	805.962E-3	-654.689E-6	21.3205E-12	865.503E-3	4.42533E-3
482.741E-6	21.3044E-12	814.147E-3	-11.4348E-3	20.9508E-12	863.362E-3	-1.28575E-3
477.739E-6	20.3856E-12	827.795E-3	-14.0300E-3	20.7995E-12	855.965E-3	-24.7502E-3
472.736E-6	19.9177E-12	841.789E-3	-20.0976E-3	20.8253E-12	851.737E-3	-40.9823E-3
467.734E-6	20.0702E-12	851.215E-3	-21.7764E-3	19.8516E-12	860.030E-3	-43.1164E-3
462.731E-6	19.9861E-12	850.705E-3	-16.3107E-3	19.3279E-12	874.604E-3	-35.4417E-3
457.729E-6	19.1032E-12	858.502E-3	-14.8318E-3	18.9469E-12	876.637E-3	-16.4158E-3
452.726E-6	18.5240E-12	867.508E-3	-11.4696E-3	18.9870E-12	876.013E-3	501.823E-6
447.724E-6	18.4808E-12	861.485E-3	-8.56503E-3	18.4594E-12	875.768E-3	-9.13788E-3
442.721E-6	18.2304E-12	865.958E-3	-6.52817E-3	18.2131E-12	877.254E-3	-27.9442E-3
437.719E-6	17.8360E-12	885.276E-3	-1.70156E-3	18.1364E-12	899.845E-3	-25.1357E-3
432.716E-6	17.5124E-12	881.710E-3	-5.82867E-3	17.9298E-12	924.048E-3	-14.6022E-3
427.714E-6	17.2280E-12	861.674E-3	-13.0453E-3	17.7756E-12	926.931E-3	-16.8768E-3
422.711E-6	16.8906E-12	871.191E-3	-7.54827E-3	17.3605E-12	932.900E-3	-24.5892E-3
417.709E-6	16.9007E-12	893.522E-3	-8.96870E-3	17.2109E-12	947.730E-3	-31.8882E-3
412.706E-6	16.7844E-12	902.637E-3	-27.6906E-3	17.2655E-12	946.865E-3	-15.1100E-3
407.704E-6	16.4290E-12	913.606E-3	-28.8413E-3	17.0593E-12	942.781E-3	13.6799E-3
402.701E-6	16.0457E-12	917.589E-3	-12.5517E-3	16.5800E-12	946.719E-3	13.9407E-3
397.699E-6	15.7146E-12	913.898E-3	-13.0912E-3	16.3216E-12	937.622E-3	5.28331E-3
392.696E-6	15.5313E-12	921.200E-3	-22.5222E-3	15.9932E-12	917.136E-3	-1.82507E-3
387.694E-6	15.2632E-12	923.727E-3	-18.8154E-3	15.6538E-12	904.368E-3	-21.9097E-3
382.691E-6	14.8445E-12	915.729E-3	-11.5391E-3	15.1624E-12	889.327E-3	-27.5370E-3
377.689E-6	14.4464E-12	913.603E-3	-3.93559E-3	14.5524E-12	881.157E-3	-9.87560E-3
372.686E-6	14.3914E-12	910.613E-3	2.52599E-3	14.0676E-12	891.285E-3	-16.2351E-3
367.684E-6	13.9932E-12	896.902E-3	-13.7298E-3	13.8378E-12	891.487E-3	-44.1678E-3
362.681E-6	13.4336E-12	883.346E-3	-26.4509E-3	13.6965E-12	883.621E-3	-41.3503E-3
357.679E-6	13.0656E-12	873.036E-3	-12.3946E-3	13.2533E-12	879.556E-3	-16.4375E-3
352.676E-6	13.0211E-12	863.975E-3	-16.4410E-3	12.8363E-12	866.426E-3	-5.24535E-3
347.674E-6	12.7372E-12	870.043E-3	-33.9052E-3	12.6500E-12	855.078E-3	-3.70803E-3
342.671E-6	12.2872E-12	884.373E-3	-27.5825E-3	12.6399E-12	861.315E-3	-3.90256E-3
337.669E-6	12.1117E-12	883.769E-3	-21.7531E-3	12.3386E-12	864.190E-3	-6.00072E-3
332.666E-6	12.1547E-12	869.895E-3	-23.4523E-3	11.9541E-12	852.392E-3	-9.15400E-3
327.664E-6	11.9375E-12	858.008E-3	-16.3976E-3	11.7118E-12	849.895E-3	-11.7741E-3
322.661E-6	11.4571E-12	857.483E-3	-20.0878E-3	11.5860E-12	856.207E-3	-12.0965E-3
317.659E-6	11.2320E-12	873.121E-3	-33.7965E-3	11.2854E-12	849.552E-3	-7.40083E-3
312.656E-6	10.9919E-12	878.821E-3	-33.7831E-3	10.9391E-12	833.702E-3	5.07443E-3
307.654E-6	10.7103E-12	865.522E-3	-26.9974E-3	10.6917E-12	814.713E-3	9.71887E-3
302.651E-6	10.3506E-12	854.481E-3	-21.7133E-3	10.4573E-12	791.978E-3	1.70183E-3
297.649E-6	10.0232E-12	848.077E-3	-7.00665E-3	10.0196E-12	770.922E-3	-1.98637E-3
292.646E-6	9.78127E-12	832.901E-3	6.83706E-3	9.56774E-12	749.853E-3	-6.90744E-3
287.644E-6	9.49712E-12	814.237E-3	2.51671E-3	9.30787E-12	735.275E-3	-10.8333E-3
282.641E-6	9.07655E-12	802.981E-3	-6.90543E-3	9.05301E-12	735.663E-3	-8.25415E-3
277.639E-6	8.89439E-12	779.595E-3	-12.6763E-3	8.68005E-12	730.283E-3	-16.1554E-3
272.636E-6	8.44340E-12	760.365E-3	-22.1915E-3	8.30457E-12	710.524E-3	-24.7931E-3
267.634E-6	8.17226E-12	757.046E-3	-27.4012E-3	8.14065E-12	697.036E-3	-28.5514E-3
262.631E-6	7.83301E-12	744.303E-3	-21.1254E-3	7.86562E-12	700.786E-3	-42.4456E-3
257.629E-6	7.73358E-12	725.597E-3	-20.7125E-3	7.66931E-12	695.663E-3	-46.7376E-3
252.626E-6	7.50352E-12	712.756E-3	-22.5027E-3	7.52467E-12	674.242E-3	-27.0881E-3
247.624E-6	7.27583E-12	709.390E-3	-7.93920E-3	7.46540E-12	657.332E-3	-17.6032E-3
242.621E-6	7.13808E-12	705.696E-3	2.17029E-3	7.27003E-12	650.444E-3	-23.2421E-3
237.619E-6	7.13621E-12	693.174E-3	-10.1281E-3	7.11854E-12	654.051E-3	-12.4153E-3
232.616E-6	6.94160E-12	677.890E-3	-18.9044E-3	6.82402E-12	643.060E-3	-2.03805E-3
227.614E-6	6.58646E-12	666.433E-3	-9.93987E-3	6.62209E-12	608.544E-3	-13.5449E-3
222.611E-6	6.39817E-12	672.019E-3	-4.43655E-3	6.50347E-12	585.812E-3	-18.8722E-3
217.609E-6	6.14790E-12	667.993E-3	-8.75157E-3	6.13281E-12	580.379E-3	-11.2118E-3
212.606E-6	6.07607E-12	632.385E-3	-18.9291E-3	5.88419E-12	566.833E-3	-10.3115E-3
207.604E-6	5.89835E-12	609.706E-3	-26.4235E-3	5.73969E-12	547.991E-3	-17.5422E-3
202.601E-6	5.65483E-12	617.695E-3	-13.3327E-3	5.57310E-12	539.617E-3	-25.4499E-3
197.599E-6	5.38842E-12	624.309E-3	-1.59986E-3	5.13144E-12	524.534E-3	-27.0841E-3
192.596E-6	5.28354E-12	617.256E-3	-5.61807E-3	4.90146E-12	502.859E-3	-12.8789E-3
187.594E-6	5.09640E-12	595.985E-3	-10.0374E-3	4.85054E-12	496.778E-3	-1.22637E-3
182.591E-6	4.81124E-12	566.128E-3	-13.7098E-3	4.66495E-12	489.228E-3	-8.02632E-3
177.589E-6	4.60248E-12	553.657E-3	-9.43159E-3	4.33392E-12	472.711E-3	-13.7076E-3
172.586E-6	4.43440E-12	556.856E-3	-495.998E-6	4.21245E-12	471.503E-3	-18.6137E-3
167.584E-6	4.41962E-12	549.066E-3	-2.12980E-3	4.21961E-12	483.053E-3	-28.6588E-3
162.581E-6	4.15381E-12	531.181E-3	-13.4095E-3	4.07532E-12	484.140E-3	-20.1022E-3
157.579E-6	3.90541E-12	513.482E-3	-19.7925E-3	3.81065E-12	470.833E-3	3.50947E-3
152.576E-6	3.75679E-12	494.152E-3	-14.5900E-3	3.67069E-12	452.374E-3	4.17344E-3
147.574E-6	3.73685E-12	477.471E-3	-13.5553E-3	3.65781E-12	438.616E-3	-7.97956E-3
142.571E-6	3.59758E-12	464.310E-3	-14.4376E-3	3.54917E-12	432.872E-3	-14.9739E-3
137.569E-6	3.30562E-12	453.679E-3	-4.67730E-3	3.29474E-12	429.360E-3	-23.8538E-3
132.566E-6	3.13397E-12	449.455E-3	-2.64298E-3	3.11670E-12	408.277E-3	-24.5387E-3
127.564E-6	3.10202E-12	440.440E-3	-10.4621E-3	3.06442E-12	378.595E-3	-17.2211E-3
122.561E-6	2.96186E-12	418.393E-3	-8.49644E-3	2.91510E-12	372.523E-3	-13.6957E-3
117.559E-6	2.73617E-12	409.036E-3	-13.5185E-3	2.70518E-12	377.222E-3	-16.0350E-3
112.556E-6	2.55508E-12	424.832E-3	-31.1092E-3	2.53990E-12	375.327E-3	-12.9851E-3
107.554E-6	2.48559E-12	422.422E-3	-32.9162E-3	2.41828E-12	367.394E-3	-4.74394E-3
102.551E-6	2.37880E-12	397.783E-3	-18.8434E-3	2.33081E-12	351.781E-3	-9.85440E-3
97.5488E-6	2.19321E-12	391.299E-3	-14.1374E-3	2.11412E-12	346.556E-3	-19.4520E-3
92.5463E-6	2.12254E-12	391.008E-3	-12.3050E-3	2.03787E-12	349.946E-3	-22.6394E-3
87.5438E-6	1.98637E-12	382.362E-3	-5.35967E-3	1.92860E-12	335.376E-3	-28.9014E-3
82.5413E-6	1.84712E-12	375.209E-3	-5.17474E-3	1.74955E-12	321.637E-3	-29.3561E-3
77.5388E-6	1.75385E-12	367.450E-3	-9.23710E-3	1.65280E-12	332.252E-3	-22.1366E-3
72.5363E-6	1.58035E-12	357.237E-3	-14.2339E-3	1.62314E-12	341.706E-3	-20.2491E-3
67.5338E-6	1.53534E-12	353.566E-3	-11.3915E-3	1.52231E-12	341.946E-3	-19.9170E-3
62.5313E-6	1.38134E-12	348.487E-3	2.05941E-3	1.29965E-12	352.129E-3	-25.0302E-3
57.5288E-6	1.22510E-12	338.516E-3	6.33922E-3	1.16043E-12	347.573E-3	-30.4615E-3
52.5263E-6	1.18984E-12	340.980E-3	-1.74117E-3	1.18574E-12	325.760E-3	-26.5102E-3
47.5238E-6	1.10218E-12	344.434E-3	-8.39954E-3	1.13264E-12	325.519E-3	-23.6090E-3
42.5213E-6	927.349E-15	339.342E-3	-15.7054E-3	850.122E-15	334.055E-3	-24.7265E-3
37.5188E-6	755.875E-15	337.851E-3	-26.4112E-3	709.244E-15	331.617E-3	-10.5301E-3
32.5163E-6	728.758E-15	334.606E-3	-25.1590E-3	735.236E-15	332.879E-3	9.72147E-3
27.5138E-6	620.717E-15	326.530E-3	-10.2020E-3	615.014E-15	333.653E-3	3.97460E-3
22.5113E-6	420.617E-15	328.520E-3	-7.91704E-3	391.469E-15	328.251E-3	-4.94778E-3
17.5088E-6	235.803E-15	335.563E-3	-12.1639E-3	227.240E-15	328.248E-3	459.743E-6
12.5063E-6	250.617E-15	334.974E-3	-15.9719E-3	234.975E-15	333.330E-3	-364.144E-6
7.50375E-6	179.075E-15	328.774E-3	-32.2393E-3	156.204E-15	340.372E-3	-4.14444E-3
2.50125E-6	-18.1034E-15	322.659E-3	-28.8905E-3	-22.7595E-15	349.133E-3	-7.02891E-3
-2.50125E-6	-205.202E-15	323.616E-3	-13.5296E-3	-181.529E-15	351.924E-3	-17.9751E-3
-7.50375E-6	-199.552E-15	330.309E-3	-15.5618E-3	-274.024E-15	351.059E-3	-30.0028E-3
-12.5063E-6	-326.924E-15	336.234E-3	-16.9411E-3	-340.064E-15	357.271E-3	-29.6544E-3
-17.5088E-6	-502.443E-15	337.656E-3	-22.7849E-3	-489.033E-15	376.599E-3	-28.1955E-3
-22.5113E-6	-618.445E-15	341.037E-3	-27.4183E-3	-669.401E-15	399.130E-3	-34.5807E-3
-27.5138E-6	-723.958E-15	353.989E-3	-5.45249E-3	-730.323E-15	406.352E-3	-26.1595E-3
-32.5163E-6	-892.545E-15	369.797E-3	11.5171E-3	-895.466E-15	407.184E-3	-9.17161E-3
-37.5188E-6	-1.04934E-12	380.098E-3	-2.72682E-3	-1.12948E-12	420.871E-3	-2.71305E-3
-42.5213E-6	-1.09716E-12	388.263E-3	-20.6448E-3	-1.10296E-12	444.493E-3	-387.949E-6
-47.5238E-6	-1.26975E-12	389.602E-3	-26.0261E-3	-1.20544E-12	454.471E-3	837.699E-6
-52.5263E-6	-1.40754E-12	386.081E-3	-28.5182E-3	-1.49184E-12	445.894E-3	-4.69678E-3
-57.5288E-6	-1.60679E-12	395.127E-3	-25.9048E-3	-1.65587E-12	450.904E-3	-12.4789E-3
-62.5313E-6	-1.67360E-12	405.980E-3	-20.1433E-3	-1.69010E-12	482.423E-3	-16.3155E-3
-67.5338E-6	-1.76365E-12	411.250E-3	-31.0232E-3	-1.77178E-12	511.833E-3	-14.4555E-3
-72.5363E-6	-2.01706E-12	429.397E-3	-40.8303E-3	-2.08527E-12	524.870E-3	-5.40019E-3
-77.5388E-6	-2.20549E-12	458.576E-3	-26.3385E-3	-2.37355E-12	536.237E-3	1.37000E-3
-82.5413E-6	-2.36135E-12	478.146E-3	-16.2708E-3	-2.40582E-12	551.440E-3	-1.12914E-3
-87.5438E-6	-2.50111E-12	486.713E-3	-22.0018E-3	-2.48266E-12	570.054E-3	-2.49565E-3
-92.5463E-6	-2.73775E-12	496.797E-3	-21.4894E-3	-2.79389E-12	595.325E-3	5.54504E-3
-97.5488E-6	-2.98637E-12	505.566E-3	-14.0756E-3	-3.06534E-12	612.077E-3	7.30817E-3
-102.551E-6	-3.11968E-12	511.807E-3	-8.07931E-3	-3.20384E-12	621.972E-3	-3.22572E-3
-107.554E-6	-3.31611E-12	534.590E-3	-2.37677E-3	-3.29844E-12	649.306E-3	-4.19162E-3
-112.556E-6	-3.58691E-12	576.231E-3	-3.24727E-3	-3.64783E-12	680.330E-3	-1.75462E-3
-117.559E-6	-3.78977E-12	609.991E-3	-16.7906E-3	-3.82089E-12	690.208E-3	-3.59635E-3
-122.561E-6	-3.99419E-12	624.780E-3	-21.1625E-3	-4.05467E-12	695.712E-3	-5.79994E-3
-127.564E-6	-4.23685E-12	638.136E-3	-15.8328E-3	-4.24133E-12	705.176E-3	-19.1989E-3
-132.566E-6	-4.47173E-12	661.009E-3	-20.9252E-3	-4.46144E-12	722.721E-3	-34.4645E-3
-137.569E-6	-4.71077E-12	692.596E-3	-32.2153E-3	-4.61810E-12	755.981E-3	-34.0316E-3
-142.571E-6	-4.86994E-12	715.607E-3	-34.1447E-3	-4.75333E-12	775.772E-3	-23.7525E-3
-147.574E-6	-5.14085E-12	722.449E-3	-24.3952E-3	-5.08406E-12	772.288E-3	-12.7051E-3
-152.576E-6	-5.33232E-12	735.145E-3	-13.6022E-3	-5.31235E-12	786.599E-3	-2.24407E-3
-157.579E-6	-5.52129E-12	751.028E-3	-12.8199E-3	-5.34473E-12	834.310E-3	-422.982E-6
-162.581E-6	-5.67437E-12	772.148E-3	-23.7614E-3	-5.53273E-12	887.952E-3	-6.14873E-3
-167.584E-6	-6.10910E-12	795.790E-3	-27.5488E-3	-6.18089E-12	932.138E-3	-8.87922E-3
-172.586E-6	-6.43113E-12	799.986E-3	-16.2882E-3	-6.58413E-12	966.401E-3	-14.3969E-3
-177.589E-6	-6.67075E-12	814.615E-3	-9.07203E-3	-6.68136E-12	998.486E-3	-24.6932E-3
-182.591E-6	-6.83732E-12	857.714E-3	-15.8006E-3	-7.03064E-12	1.02441E+0	-32.1874E-3
-187.594E-6	-7.26282E-12	893.390E-3	-27.1751E-3	-7.73807E-12	1.04371E+0	-35.4543E-3
-192.596E-6	-7.64344E-12	910.240E-3	-34.9321E-3	-8.24793E-12	1.08201E+0	-24.9758E-3
-197.599E-6	-8.00529E-12	930.999E-3	-29.6919E-3	-8.20883E-12	1.13775E+0	-10.5252E-3
-202.601E-6	-8.28743E-12	964.757E-3	-17.5321E-3	-8.41902E-12	1.17390E+0	-5.80557E-3
-207.604E-6	-8.78812E-12	1.00551E+0	-13.9021E-3	-9.09874E-12	1.18565E+0	-5.93412E-3
-212.606E-6	-9.17489E-12	1.03968E+0	-15.3564E-3	-9.66767E-12	1.19147E+0	-6.89759E-3
-217.609E-6	-9.50240E-12	1.06136E+0	-18.7194E-3	-9.67279E-12	1.20709E+0	-13.5516E-3
-222.611E-6	-9.91627E-12	1.08697E+0	-28.8030E-3	-9.70426E-12	1.23506E+0	-27.6114E-3
-227.614E-6	-10.4627E-12	1.12089E+0	-28.9080E-3	-10.2135E-12	1.25180E+0	-25.2841E-3
-232.616E-6	-10.8555E-12	1.15774E+0	-9.23886E-3	-10.6781E-12	1.25455E+0	-14.4557E-3
-237.619E-6	-11.1237E-12	1.20072E+0	-5.18183E-3	-10.9881E-12	1.26467E+0	-19.8686E-3
-242.621E-6	-11.4163E-12	1.22967E+0	-23.6454E-3	-11.2229E-12	1.30551E+0	-22.4439E-3
-247.624E-6	-12.0489E-12	1.24282E+0	-31.4369E-3	-11.5761E-12	1.35264E+0	-17.4076E-3
-252.626E-6	-12.4492E-12	1.26885E+0	-23.4177E-3	-12.0516E-12	1.37241E+0	-19.2989E-3
-257.629E-6	-12.8288E-12	1.31149E+0	-18.0382E-3	-12.5534E-12	1.39937E+0	-17.5484E-3
-262.631E-6	-13.1675E-12	1.35442E+0	-22.2583E-3	-13.1107E-12	1.46147E+0	-6.99797E-3
-267.634E-6	-13.7461E-12	1.37651E+0	-25.8637E-3	-13.5698E-12	1.52759E+0	-6.26644E-3
-272.636E-6	-14.1413E-12	1.38269E+0	-32.4442E-3	-14.1814E-12	1.56262E+0	-9.08504E-3
-277.639E-6	-14.5435E-12	1.40098E+0	-32.5250E-3	-14.9554E-12	1.58115E+0	-5.01925E-3
-282.641E-6	-15.0593E-12	1.42838E+0	-12.8316E-3	-15.8101E-12	1.60727E+0	-17.3381E-3
-287.644E-6	-15.5598E-12	1.45008E+0	-4.85733E-3	-16.3256E-12	1.63828E+0	-25.6194E-3
-292.646E-6	-16.0114E-12	1.47727E+0	-19.2690E-3	-16.6135E-12	1.66105E+0	-9.89309E-3
-297.649E-6	-16.5946E-12	1.49769E+0	-32.7284E-3	-17.2833E-12	1.66500E+0	-8.89901E-3
-302.651E-6	-17.1025E-12	1.50377E+0	-33.2191E-3	-18.3022E-12	1.64935E+0	-21.0657E-3
-307.654E-6	-17.3958E-12	1.52790E+0	-21.2003E-3	-18.5871E-12	1.65249E+0	-20.7142E-3
-312.656E-6	-17.7610E-12	1.56378E+0	-7.87135E-3	-18.5695E-12	1.67524E+0	-17.6930E-3
-317.659E-6	-18.2949E-12	1.58475E+0	-7.11472E-3	-19.0162E-12	1.68061E+0	-22.3138E-3
-322.661E-6	-18.9397E-12	1.60002E+0	-16.4242E-3	-19.9288E-12	1.67946E+0	-23.4692E-3
-327.664E-6	-19.5067E-12	1.61038E+0	-18.4291E-3	-20.3984E-12	1.69296E+0	-24.0726E-3
-332.666E-6	-19.6954E-12	1.62402E+0	-12.5776E-3	-20.1730E-12	1.71839E+0	-33.4018E-3
-337.669E-6	-20.3143E-12	1.64715E+0	-11.8414E-3	-20.4483E-12	1.73451E+0	-31.2742E-3
-342.671E-6	-21.2592E-12	1.65570E+0	-19.4765E-3	-21.6748E-12	1.74423E+0	-16.6499E-3
-347.674E-6	-22.1296E-12	1.65991E+0	-31.4699E-3	-22.6821E-12	1.76869E+0	-6.69587E-3
-352.676E-6	-22.2204E-12	1.68461E+0	-32.1239E-3	-22.2835E-12	1.80522E+0	-8.17409E-3
-357.679E-6	-22.7056E-12	1.71246E+0	-20.8201E-3	-22.8753E-12	1.82048E+0	-27.9528E-3
-362.681E-6	-23.8209E-12	1.72438E+0	-15.3874E-3	-24.2181E-12	1.80223E+0	-39.3911E-3
-367.684E-6	-24.5762E-12	1.73959E+0	-23.1153E-3	-25.4331E-12	1.79605E+0	-18.4950E-3
-372.686E-6	-25.1767E-12	1.76696E+0	-24.7804E-3	-25.2956E-12	1.82646E+0	1.65466E-3
-377.689E-6	-25.6739E-12	1.79180E+0	-5.68069E-3	-25.7063E-12	1.86228E+0	-6.62734E-3
-382.691E-6	-26.3728E-12	1.80836E+0	10.5005E-3	-26.4388E-12	1.87275E+0	-17.1209E-3
-387.694E-6	-27.2567E-12	1.80980E+0	2.65302E-3	-27.4906E-12	1.85957E+0	-19.3815E-3
-392.696E-6	-27.8146E-12	1.81426E+0	-21.6811E-3	-28.3768E-12	1.84340E+0	-24.9605E-3
-397.699E-6	-28.0739E-12	1.83020E+0	-30.8816E-3	-28.5164E-12	1.84496E+0	-19.1103E-3
-402.701E-6	-28.9455E-12	1.83109E+0	-16.7171E-3	-29.0204E-12	1.85514E+0	-6.25594E-3
-407.704E-6	-29.2628E-12	1.82206E+0	-3.83303E-3	-29.4389E-12	1.84800E+0	-5.68787E-3
-412.706E-6	-29.9748E-12	1.82196E+0	-11.0651E-3	-30.2496E-12	1.83468E+0	-14.8832E-3
-417.709E-6	-30.4277E-12	1.82760E+0	-26.6160E-3	-31.1768E-12	1.84413E+0	-20.9986E-3
-422.711E-6	-30.8720E-12	1.82946E+0	-32.2892E-3	-31.3521E-12	1.86666E+0	-20.0599E-3
-427.714E-6	-31.2861E-12	1.82652E+0	-27.1461E-3	-31.4756E-12	1.85256E+0	-20.5628E-3
-432.716E-6	-31.9211E-12	1.81541E+0	-15.3710E-3	-32.5482E-12	1.80617E+0	-37.9653E-3
-437.719E-6	-32.5647E-12	1.80020E+0	-7.55523E-3	-33.9980E-12	1.79108E+0	-55.7574E-3
-442.721E-6	-33.2885E-12	1.79188E+0	-5.44752E-3	-34.1686E-12	1.80525E+0	-38.3758E-3
-447.724E-6	-33.6871E-12	1.78687E+0	-7.49921E-3	-33.8348E-12	1.79517E+0	-9.63789E-3
-452.726E-6	-34.1299E-12	1.77297E+0	-11.2928E-3	-35.0979E-12	1.76037E+0	-7.32104E-3
-457.729E-6	-35.1087E-12	1.75778E+0	-19.1656E-3	-36.5403E-12	1.74719E+0	-21.5855E-3
-462.731E-6	-36.1679E-12	1.75723E+0	-26.8419E-3	-36.5870E-12	1.76191E+0	-35.9909E-3
-467.734E-6	-36.6674E-12	1.76590E+0	-26.3921E-3	-36.1765E-12	1.77255E+0	-44.4710E-3
-472.736E-6	-37.6763E-12	1.76469E+0	-30.2684E-3	-37.2820E-12	1.75574E+0	-40.7657E-3
-477.739E-6	-37.9578E-12	1.76136E+0	-31.6052E-3	-38.6921E-12	1.71903E+0	-30.6770E-3
-482.741E-6	-38.5660E-12	1.75960E+0	-9.29708E-3	-38.8541E-12	1.71143E+0	-27.7780E-3
-487.744E-6	-38.5704E-12	1.74381E+0	6.65563E-3	-38.4437E-12	1.72662E+0	-29.7178E-3
-492.746E-6	-39.8407E-12	1.72335E+0	-3.57859E-3	-39.2935E-12	1.70504E+0	-26.8307E-3
-497.749E-6	-40.4955E-12	1.70326E+0	-15.1562E-3	-41.3590E-12	1.65785E+0	-22.8788E-3
-502.751E-6	-40.4106E-12	1.68844E+0	-18.1945E-3	-41.9834E-12	1.62876E+0	-21.2492E-3
-507.754E-6	-40.9485E-12	1.67552E+0	-15.4508E-3	-40.8752E-12	1.62567E+0	-19.5888E-3
-512.756E-6	-41.3082E-12	1.64600E+0	-10.9779E-3	-41.4136E-12	1.61865E+0	-18.1928E-3
-517.759E-6	-42.3791E-12	1.61579E+0	-16.2701E-3	-43.0952E-12	1.58481E+0	-21.0139E-3
-522.761E-6	-42.5018E-12	1.61292E+0	-29.6833E-3	-44.5470E-12	1.54769E+0	-23.5662E-3
-527.764E-6	-42.6826E-12	1.62224E+0	-28.8991E-3	-43.7635E-12	1.52317E+0	-17.6797E-3
-532.766E-6	-43.2717E-12	1.60045E+0	-29.9243E-3	-44.1941E-12	1.50510E+0	-10.7429E-3
-537.769E-6	-44.8619E-12	1.56430E+0	-51.0350E-3	-44.3812E-12	1.49338E+0	-21.3374E-3
-542.771E-6	-45.2364E-12	1.55069E+0	-54.2882E-3	-45.4204E-12	1.47430E+0	-37.5267E-3
-547.774E-6	-44.6643E-12	1.53405E+0	-38.6097E-3	-45.7646E-12	1.42791E+0	-38.1409E-3
-552.776E-6	-45.0807E-12	1.50243E+0	-28.6539E-3	-45.4121E-12	1.37537E+0	-31.0504E-3
-557.779E-6	-46.5412E-12	1.47880E+0	-16.1540E-3	-45.5245E-12	1.33384E+0	-28.9122E-3
-562.781E-6	-47.6401E-12	1.46756E+0	-9.97869E-3	-45.7302E-12	1.29363E+0	-20.6879E-3
-567.784E-6	-46.6827E-12	1.47030E+0	-18.7327E-3	-46.4977E-12	1.26692E+0	-10.8946E-3
-572.786E-6	-46.9144E-12	1.46373E+0	-25.7418E-3	-46.9452E-12	1.26198E+0	-15.9416E-3
-577.789E-6	-48.5149E-12	1.41019E+0	-23.6733E-3	-47.1036E-12	1.24768E+0	-19.6593E-3
-582.791E-6	-48.7386E-12	1.34550E+0	-19.6164E-3	-47.0229E-12	1.21778E+0	-22.4060E-3
-587.794E-6	-47.5704E-12	1.32214E+0	-12.9447E-3	-47.6968E-12	1.19689E+0	-22.9119E-3
-592.796E-6	-48.2408E-12	1.30284E+0	-10.4195E-3	-48.3795E-12	1.17515E+0	-9.49115E-3
-597.799E-6	-50.3269E-12	1.25574E+0	-18.8990E-3	-48.6835E-12	1.15220E+0	-4.34687E-3
-602.801E-6	-50.7144E-12	1.22828E+0	-16.5885E-3	-49.4307E-12	1.13949E+0	-13.4999E-3
-607.804E-6	-50.0831E-12	1.23306E+0	-2.11275E-3	-50.2687E-12	1.12454E+0	-20.7271E-3
-612.806E-6	-49.7659E-12	1.21164E+0	4.69675E-3	-51.0247E-12	1.09967E+0	-18.0782E-3
-617.809E-6	-51.3608E-12	1.17252E+0	-647.322E-6	-51.5609E-12	1.07385E+0	-13.2346E-3
-622.811E-6	-51.9613E-12	1.14634E+0	-13.2904E-3	-52.2893E-12	1.04122E+0	-19.9947E-3
-627.814E-6	-52.1360E-12	1.11021E+0	-18.6976E-3	-52.8243E-12	998.967E-3	-20.0199E-3
-632.816E-6	-52.4221E-12	1.07675E+0	-23.5215E-3	-53.8951E-12	982.406E-3	-1.17560E-3
-637.819E-6	-53.7193E-12	1.06644E+0	-31.1865E-3	-54.1737E-12	984.862E-3	11.1166E-3
-642.821E-6	-54.0802E-12	1.05883E+0	-31.1345E-3	-53.7431E-12	970.859E-3	-558.550E-6
-647.824E-6	-54.1150E-12	1.03356E+0	-26.9456E-3	-54.2278E-12	934.400E-3	-18.6057E-3
-652.826E-6	-54.3975E-12	994.130E-3	-6.47885E-3	-54.8354E-12	887.791E-3	-30.8014E-3
-657.829E-6	-54.6586E-12	958.745E-3	11.0079E-3	-54.7319E-12	839.423E-3	-33.7062E-3
-662.831E-6	-55.5352E-12	946.116E-3	-4.68631E-3	-53.9143E-12	801.384E-3	-21.3545E-3
-667.834E-6	-54.8325E-12	938.245E-3	-23.5915E-3	-53.9304E-12	791.645E-3	-16.8314E-3
-672.836E-6	-54.9226E-12	909.274E-3	-32.2664E-3	-54.2087E-12	778.849E-3	-27.1185E-3
-677.839E-6	-54.9023E-12	867.130E-3	-32.7501E-3	-54.6489E-12	738.349E-3	-28.0087E-3
-682.841E-6	-55.5183E-12	816.687E-3	-17.9410E-3	-54.8027E-12	708.139E-3	-25.4983E-3
-687.844E-6	-54.9045E-12	773.475E-3	-14.3381E-3	-54.3946E-12	699.607E-3	-24.2586E-3
-692.846E-6	-54.7079E-12	764.285E-3	-32.9341E-3	-54.8799E-12	682.080E-3	-10.6911E-3
-697.849E-6	-54.7828E-12	763.135E-3	-35.1867E-3	-55.7040E-12	655.044E-3	2.69398E-3
-702.851E-6	-55.2061E-12	727.389E-3	-11.9277E-3	-56.8794E-12	626.528E-3	345.485E-6
-707.854E-6	-55.7740E-12	692.289E-3	-6.03451E-3	-56.1970E-12	610.642E-3	-6.76954E-3
-712.856E-6	-56.2330E-12	687.773E-3	-19.2662E-3	-56.8526E-12	607.796E-3	1.46731E-3
-717.859E-6	-57.1615E-12	672.176E-3	-22.2881E-3	-57.3589E-12	591.319E-3	6.80841E-3
-722.861E-6	-57.2321E-12	639.826E-3	-26.3957E-3	-58.1813E-12	564.802E-3	-1.89450E-3
-727.864E-6	-57.4658E-12	612.674E-3	-26.1936E-3	-58.5616E-12	545.207E-3	926.427E-6
-732.866E-6	-57.6531E-12	600.964E-3	-12.0769E-3	-58.4654E-12	528.206E-3	-2.34247E-3
-737.869E-6	-57.5795E-12	598.905E-3	-15.0015E-3	-58.3784E-12	511.059E-3	-32.9836E-3
-742.871E-6	-57.9015E-12	587.464E-3	-29.5766E-3	-58.2072E-12	507.196E-3	-50.6215E-3
-747.874E-6	-57.6402E-12	553.964E-3	-30.8737E-3	-58.4179E-12	493.476E-3	-32.6833E-3
-752.876E-6	-58.7310E-12	512.008E-3	-28.1393E-3	-58.3175E-12	449.191E-3	-10.8902E-3
-757.879E-6	-57.6456E-12	493.596E-3	-24.1989E-3	-58.0298E-12	418.185E-3	-3.83391E-3
-762.881E-6	-57.2043E-12	483.860E-3	-8.98552E-3	-57.7895E-12	417.283E-3	-3.79509E-3
-767.884E-6	-57.5251E-12	459.892E-3	-2.57120E-3	-57.6242E-12	407.165E-3	-8.18154E-3
-772.886E-6	-58.3192E-12	439.950E-3	-9.55749E-3	-57.4811E-12	388.961E-3	-9.02601E-3
-777.889E-6	-57.8159E-12	419.360E-3	-11.4169E-3	-57.2140E-12	379.979E-3	-15.1173E-3
-782.891E-6	-57.8778E-12	388.704E-3	-13.2080E-3	-57.4933E-12	358.892E-3	-31.6143E-3
-787.894E-6	-58.2528E-12	378.658E-3	-14.1515E-3	-57.0122E-12	328.226E-3	-40.4393E-3
-792.896E-6	-58.3889E-12	396.117E-3	-9.61206E-3	-57.1332E-12	312.972E-3	-42.0243E-3
-797.899E-6	-57.9068E-12	403.716E-3	-11.8124E-3	-57.3972E-12	322.222E-3	-37.7907E-3
-802.901E-6	-58.1424E-12	383.334E-3	-26.0157E-3	-58.1198E-12	336.498E-3	-31.0939E-3
-807.904E-6	-59.6010E-12	358.974E-3	-23.8663E-3	-58.6600E-12	325.049E-3	-29.1674E-3
-812.906E-6	-59.5738E-12	341.102E-3	-8.16679E-3	-58.7962E-12	290.747E-3	-28.5734E-3
-817.909E-6	-59.6282E-12	327.338E-3	-14.2747E-3	-59.4694E-12	266.571E-3	-26.2198E-3
-822.911E-6	-59.8039E-12	307.889E-3	-26.8974E-3	-59.9950E-12	266.548E-3	-16.7580E-3
-827.914E-6	-60.9349E-12	282.715E-3	-29.6662E-3	-59.5432E-12	261.152E-3	-13.9821E-3
-832.916E-6	-60.5473E-12	275.041E-3	-33.2271E-3	-59.6078E-12	249.436E-3	-28.4507E-3
-837.919E-6	-61.0521E-12	285.291E-3	-37.0614E-3	-60.4091E-12	251.165E-3	-43.8502E-3
-842.921E-6	-61.1750E-12	295.649E-3	-30.0311E-3	-61.3391E-12	242.933E-3	-48.2317E-3
-847.924E-6	-61.6118E-12	282.695E-3	-21.4977E-3	-61.3874E-12	233.405E-3	-31.8937E-3
-852.926E-6	-61.6004E-12	249.766E-3	-17.3104E-3	-59.9769E-12	233.915E-3	-19.7575E-3
-857.929E-6	-60.3350E-12	235.464E-3	-10.5539E-3	-60.0055E-12	209.862E-3	-28.1590E-3
-862.931E-6	-60.6166E-12	238.392E-3	-11.3788E-3	-60.8232E-12	181.543E-3	-29.5079E-3
-867.934E-6	-61.4670E-12	237.224E-3	-13.9005E-3	-61.2177E-12	194.682E-3	-20.5125E-3
-872.936E-6	-62.8025E-12	236.342E-3	-7.53954E-3	-59.6305E-12	212.253E-3	-20.1799E-3
-877.939E-6	-62.0133E-12	221.970E-3	-8.25365E-3	-59.0635E-12	199.959E-3	-24.7949E-3
-882.941E-6	-60.2392E-12	204.869E-3	-17.0766E-3	-59.4314E-12	186.297E-3	-23.2622E-3
-887.944E-6	-61.1664E-12	204.346E-3	-25.4004E-3	-60.2159E-12	181.913E-3	-10.9013E-3
-892.946E-6	-61.7135E-12	202.924E-3	-32.5143E-3	-60.0483E-12	179.374E-3	-5.79957E-3
-897.949E-6	-61.4128E-12	196.430E-3	-26.4449E-3	-59.5655E-12	177.033E-3	-13.7091E-3
-902.951E-6	-60.0696E-12	188.944E-3	-17.7871E-3	-59.7812E-12	165.017E-3	-7.22114E-3
-907.954E-6	-60.5097E-12	179.867E-3	-29.1229E-3	-60.3570E-12	149.286E-3	-3.02798E-3
-912.956E-6	-62.5280E-12	179.493E-3	-41.3865E-3	-60.6633E-12	141.132E-3	-16.2285E-3
-917.959E-6	-62.7304E-12	184.202E-3	-35.3832E-3	-60.4018E-12	127.499E-3	-23.9239E-3
-922.961E-6	-61.1127E-12	173.643E-3	-22.6670E-3	-60.8566E-12	121.572E-3	-22.9390E-3
-927.964E-6	-60.6570E-12	170.066E-3	-8.28411E-3	-60.6869E-12	129.574E-3	-18.2044E-3
-932.966E-6	-62.9154E-12	177.912E-3	7.90195E-3	-61.0686E-12	136.549E-3	-14.3871E-3
-937.969E-6	-63.1437E-12	178.431E-3	804.993E-6	-61.0576E-12	139.260E-3	-25.9960E-3
-942.971E-6	-61.7777E-12	180.030E-3	-22.4402E-3	-60.9387E-12	149.324E-3	-33.5387E-3
-947.974E-6	-60.6351E-12	171.566E-3	-27.9513E-3	-61.2407E-12	162.265E-3	-21.2352E-3
-952.976E-6	-61.9994E-12	143.600E-3	-26.4938E-3	-61.5462E-12	155.428E-3	-14.3537E-3
-957.979E-6	-64.5016E-12	128.807E-3	-26.8648E-3	-62.4537E-12	142.664E-3	-9.31228E-3
-962.981E-6	-63.3206E-12	139.149E-3	-19.9690E-3	-62.3054E-12	135.194E-3	-8.76950E-3
-967.984E-6	-62.4038E-12	154.856E-3	-10.8770E-3	-61.7434E-12	126.368E-3	-13.8724E-3
-972.986E-6	-62.5078E-12	174.133E-3	-16.3926E-3	-61.4718E-12	127.549E-3	-3.39859E-3
-977.989E-6	-65.6642E-12	182.899E-3	-24.3256E-3	-61.7833E-12	136.759E-3	-8.18288E-3
-982.991E-6	-64.4261E-12	168.830E-3	-12.9690E-3	-61.9096E-12	141.385E-3	-25.0194E-3
-987.994E-6	-62.7425E-12	155.477E-3	-12.3367E-3	-61.4477E-12	149.199E-3	-16.5902E-3
-992.997E-6	-62.3303E-12	152.132E-3	-28.7634E-3	-61.0459E-12	161.419E-3	-1.39733E-3
-997.999E-6	-62.4701E-12	153.604E-3	-25.8605E-3	-60.7718E-12	166.798E-3	3.91831E-3
-1.00300E-3	-64.2101E-12	157.472E-3	-16.6991E-3	-62.1272E-12	164.544E-3	510.140E-6
-1.00800E-3	-61.6687E-12	162.946E-3	-28.4345E-3	-61.6719E-12	162.815E-3	-4.26516E-3
-1.01301E-3	-61.0853E-12	160.015E-3	-28.6256E-3	-61.2794E-12	165.793E-3	-8.64441E-3
-1.01801E-3	-60.5277E-12	144.576E-3	-5.69121E-3	-60.3151E-12	165.761E-3	-18.8967E-3
-1.02301E-3	-61.6582E-12	148.320E-3	-8.94993E-3	-60.9074E-12	166.958E-3	-20.5365E-3
-1.02801E-3	-60.9882E-12	169.341E-3	-26.9457E-3	-61.8931E-12	168.542E-3	-12.1326E-3
-1.03302E-3	-60.4966E-12	173.862E-3	-22.9654E-3	-61.7805E-12	153.443E-3	-11.7794E-3
-1.03802E-3	-60.1621E-12	173.069E-3	-17.3196E-3	-61.9215E-12	142.394E-3	-16.4514E-3
-1.04302E-3	-61.1062E-12	181.560E-3	-21.8782E-3	-61.6952E-12	148.046E-3	-21.5824E-3
-1.04802E-3	-62.5056E-12	186.100E-3	-22.1353E-3	-62.9351E-12	161.396E-3	-24.9301E-3
-1.05303E-3	-61.7276E-12	183.842E-3	-16.7427E-3	-62.2470E-12	179.765E-3	-26.5618E-3
-1.05803E-3	-62.2714E-12	177.970E-3	-20.1899E-3	-62.5678E-12	192.968E-3	-32.7287E-3
-1.06303E-3	-62.2881E-12	178.929E-3	-23.7867E-3	-62.7100E-12	196.766E-3	-31.6584E-3
-1.06803E-3	-63.6657E-12	189.616E-3	-20.3186E-3	-63.3251E-12	197.707E-3	-19.5242E-3
-1.07304E-3	-64.0204E-12	203.132E-3	-20.4654E-3	-63.7664E-12	206.148E-3	-5.71613E-3
-1.07804E-3	-64.1673E-12	199.418E-3	-16.9927E-3	-63.3813E-12	221.917E-3	-10.5888E-3
-1.08304E-3	-64.2242E-12	187.200E-3	-18.7236E-3	-63.8059E-12	226.358E-3	-25.0858E-3
-1.08804E-3	-64.6265E-12	202.535E-3	-16.9364E-3	-62.9739E-12	226.038E-3	-22.3912E-3
-1.09305E-3	-65.3924E-12	220.762E-3	-4.09260E-3	-63.3669E-12	236.555E-3	-20.4797E-3
-1.09805E-3	-64.5400E-12	212.088E-3	-11.7824E-3	-62.2238E-12	244.023E-3	-27.3028E-3
-1.10305E-3	-63.6003E-12	205.622E-3	-27.2985E-3	-62.9580E-12	256.098E-3	-37.0630E-3
-1.10805E-3	-62.8226E-12	217.931E-3	-33.4079E-3	-62.4571E-12	264.661E-3	-56.7209E-3
-1.11306E-3	-64.2445E-12	234.149E-3	-35.1908E-3	-62.3463E-12	252.121E-3	-65.2220E-3
-1.11806E-3	-64.0677E-12	242.651E-3	-32.9421E-3	-62.7689E-12	258.530E-3	-38.9688E-3
-1.12306E-3	-62.4045E-12	240.973E-3	-31.9545E-3	-63.5027E-12	284.297E-3	-17.1490E-3
-1.12806E-3	-61.7469E-12	252.698E-3	-35.3996E-3	-63.9513E-12	290.714E-3	-22.3386E-3
-1.13307E-3	-62.2728E-12	268.714E-3	-29.3954E-3	-63.2954E-12	290.744E-3	-24.3279E-3
-1.13807E-3	-63.7150E-12	281.511E-3	-4.11381E-3	-64.5216E-12	295.299E-3	-18.5146E-3
-1.14307E-3	-62.9195E-12	300.867E-3	14.7885E-3	-64.4119E-12	300.093E-3	-19.2183E-3
-1.14807E-3	-63.0514E-12	300.843E-3	6.92063E-3	-65.5483E-12	320.240E-3	-20.6805E-3
-1.15308E-3	-63.0260E-12	286.111E-3	-19.9164E-3	-64.9683E-12	345.695E-3	-20.4953E-3
-1.15808E-3	-64.1315E-12	284.406E-3	-33.5426E-3	-65.1376E-12	354.630E-3	-24.2166E-3
-1.16308E-3	-64.6459E-12	301.353E-3	-25.3318E-3	-65.5700E-12	358.755E-3	-23.7021E-3
-1.16808E-3	-64.4861E-12	322.100E-3	-15.3554E-3	-65.5108E-12	376.538E-3	-20.0442E-3
-1.17309E-3	-65.0549E-12	333.941E-3	-15.8643E-3	-65.5548E-12	396.400E-3	-18.4861E-3
-1.17809E-3	-64.7134E-12	342.313E-3	-13.6706E-3	-64.9061E-12	393.715E-3	-24.0918E-3
-1.18309E-3	-65.4908E-12	345.433E-3	-1.19000E-3	-64.4224E-12	388.381E-3	-22.0594E-3
-1.18809E-3	-64.9361E-12	348.481E-3	-4.64042E-3	-64.6852E-12	402.868E-3	-7.67044E-3
-1.19310E-3	-65.5063E-12	362.335E-3	-11.1540E-3	-64.9106E-12	421.249E-3	-9.22386E-3
-1.19810E-3	-65.1177E-12	376.600E-3	-1.56150E-3	-64.5714E-12	436.622E-3	-16.1306E-3
-1.20310E-3	-65.3174E-12	390.270E-3	3.16657E-3	-64.4067E-12	449.676E-3	-24.5968E-3
-1.20810E-3	-65.2840E-12	398.838E-3	3.02700E-3	-63.9199E-12	461.181E-3	-30.5898E-3
-1.21311E-3	-65.7147E-12	404.547E-3	10.2574E-3	-64.3128E-12	473.036E-3	-23.1193E-3
-1.21811E-3	-66.3966E-12	422.060E-3	6.37347E-3	-64.4915E-12	478.899E-3	-20.9200E-3
-1.22311E-3	-65.6346E-12	445.407E-3	-11.0595E-3	-64.6798E-12	488.210E-3	-29.9749E-3
-1.22811E-3	-66.5774E-12	459.999E-3	-23.8806E-3	-66.1779E-12	517.888E-3	-29.8259E-3
-1.23312E-3	-65.9651E-12	472.052E-3	-24.7735E-3	-66.6826E-12	556.369E-3	-18.7455E-3
-1.23812E-3	-66.3800E-12	494.600E-3	-9.25602E-3	-66.0291E-12	560.421E-3	-21.1228E-3
-1.24312E-3	-65.6427E-12	502.927E-3	507.107E-6	-66.8615E-12	538.125E-3	-17.7486E-3
-1.24812E-3	-66.6148E-12	488.834E-3	-8.16067E-3	-67.6218E-12	551.244E-3	-3.61439E-3
-1.25313E-3	-67.1598E-12	493.642E-3	-18.0003E-3	-69.2050E-12	583.376E-3	-11.4702E-3
-1.25813E-3	-67.4583E-12	525.759E-3	-15.1596E-3	-68.4753E-12	591.634E-3	-11.9264E-3
-1.26313E-3	-68.8898E-12	546.829E-3	-13.1427E-3	-68.5848E-12	605.240E-3	-1.61124E-3
-1.26813E-3	-68.8236E-12	558.033E-3	-14.8067E-3	-68.8892E-12	625.651E-3	-13.0029E-3
-1.27314E-3	-69.0788E-12	574.821E-3	3.39297E-3	-69.8930E-12	625.623E-3	-13.4192E-3
-1.27814E-3	-69.1716E-12	580.996E-3	4.95338E-3	-68.2814E-12	618.459E-3	5.05256E-3
-1.28314E-3	-70.9300E-12	590.984E-3	-27.1020E-3	-67.8493E-12	631.826E-3	3.61673E-3
-1.28814E-3	-70.9288E-12	612.316E-3	-33.2127E-3	-69.3464E-12	663.388E-3	-11.1886E-3
-1.29315E-3	-70.5646E-12	630.255E-3	-14.7856E-3	-69.0892E-12	695.163E-3	-16.9488E-3
-1.29815E-3	-70.7920E-12	650.419E-3	-19.3351E-3	-68.3341E-12	712.223E-3	-16.2782E-3
-1.30315E-3	-70.4713E-12	669.456E-3	-28.9472E-3	-68.4164E-12	709.112E-3	1.23594E-3
-1.30815E-3	-71.0737E-12	673.751E-3	-21.2617E-3	-69.5657E-12	699.377E-3	13.1453E-3
-1.31316E-3	-70.2004E-12	677.803E-3	-19.3226E-3	-69.8238E-12	698.171E-3	-15.0495E-3
-1.31816E-3	-71.1519E-12	695.313E-3	-17.8495E-3	-69.1258E-12	711.550E-3	-35.5561E-3
-1.32316E-3	-70.5545E-12	713.674E-3	-4.92811E-3	-70.0474E-12	736.329E-3	-15.6464E-3
-1.32816E-3	-71.7444E-12	728.261E-3	2.11109E-3	-70.7779E-12	755.732E-3	3.09568E-3
-1.33317E-3	-70.5563E-12	742.505E-3	-7.26046E-3	-70.3889E-12	762.869E-3	-3.56402E-3
-1.33817E-3	-70.1973E-12	744.937E-3	-22.9950E-3	-70.4558E-12	776.038E-3	-14.5878E-3
-1.34317E-3	-70.4903E-12	739.297E-3	-26.8181E-3	-71.8460E-12	801.013E-3	-19.6144E-3
-1.34817E-3	-71.5573E-12	739.948E-3	-22.4300E-3	-71.9916E-12	821.587E-3	-21.7602E-3
-1.35318E-3	-71.7355E-12	744.218E-3	-20.0259E-3	-71.7148E-12	816.720E-3	-9.14402E-3
-1.35818E-3	-71.1186E-12	757.870E-3	-20.9173E-3	-71.9043E-12	804.232E-3	-2.75284E-3
-1.36318E-3	-72.5946E-12	776.725E-3	-16.3038E-3	-72.2883E-12	801.275E-3	-14.7402E-3
-1.36818E-3	-72.1528E-12	777.931E-3	-8.13525E-3	-73.3212E-12	802.499E-3	-11.0317E-3
-1.37319E-3	-72.2167E-12	772.443E-3	-18.6809E-3	-73.0421E-12	810.569E-3	2.16097E-3
-1.37819E-3	-72.2724E-12	781.574E-3	-25.4641E-3	-73.3465E-12	823.507E-3	598.153E-6
-1.38319E-3	-73.9469E-12	790.192E-3	-3.65369E-3	-73.0827E-12	849.355E-3	-7.54508E-3
-1.38819E-3	-73.8268E-12	789.693E-3	6.71787E-3	-72.9186E-12	869.689E-3	-10.9165E-3
-1.39320E-3	-73.9057E-12	805.758E-3	-14.0774E-3	-73.9593E-12	859.639E-3	-14.1903E-3
-1.39820E-3	-74.2602E-12	839.645E-3	-30.8784E-3	-75.7188E-12	846.178E-3	-17.1647E-3
-1.40320E-3	-75.6514E-12	862.912E-3	-23.3528E-3	-74.7860E-12	852.581E-3	-20.5225E-3
-1.40820E-3	-75.7096E-12	870.196E-3	-8.57554E-3	-73.0420E-12	860.771E-3	-34.2803E-3
-1.41321E-3	-74.7707E-12	871.114E-3	-3.43052E-3	-73.5194E-12	860.253E-3	-39.8996E-3
-1.41821E-3	-75.7303E-12	879.666E-3	-8.39922E-3	-75.2890E-12	865.635E-3	-19.8484E-3
-1.42321E-3	-75.9389E-12	891.215E-3	-13.9485E-3	-75.9988E-12	874.747E-3	-5.19816E-3
-1.42821E-3	-76.3801E-12	886.854E-3	-14.8459E-3	-74.8430E-12	886.268E-3	-6.62272E-3
-1.43322E-3	-76.1552E-12	877.922E-3	-17.9521E-3	-74.9771E-12	907.805E-3	-8.88115E-3
-1.43822E-3	-76.8638E-12	876.641E-3	-24.0800E-3	-75.8923E-12	910.296E-3	-19.0644E-3
-1.44322E-3	-77.2458E-12	881.084E-3	-20.1927E-3	-78.2933E-12	898.218E-3	-29.1415E-3
-1.44822E-3	-78.2707E-12	891.753E-3	-9.29693E-3	-78.1556E-12	918.579E-3	-29.6340E-3
-1.45323E-3	-78.3456E-12	902.629E-3	-13.2910E-3	-76.6713E-12	939.348E-3	-33.2893E-3
-1.45823E-3	-77.1002E-12	907.407E-3	-23.8055E-3	-77.0525E-12	919.993E-3	-25.1239E-3
-1.46323E-3	-77.5301E-12	900.437E-3	-16.8280E-3	-78.5688E-12	904.654E-3	-2.27620E-3
-1.46823E-3	-78.3856E-12	894.370E-3	-1.55062E-3	-80.3619E-12	909.481E-3	2.98216E-3
-1.47324E-3	-79.3786E-12	903.223E-3	-2.91261E-3	-78.6599E-12	916.808E-3	-7.15136E-3
-1.47824E-3	-78.3305E-12	909.459E-3	-11.1947E-3	-78.4440E-12	930.474E-3	-5.85079E-3
-1.48324E-3	-79.2287E-12	900.241E-3	-17.7724E-3	-79.0132E-12	934.448E-3	-2.34616E-3
-1.48824E-3	-80.1295E-12	897.034E-3	-17.7420E-3	-81.0922E-12	923.186E-3	-6.74960E-3
-1.49325E-3	-80.7963E-12	910.589E-3	-3.67446E-3	-80.3246E-12	923.414E-3	-6.70089E-3
-1.49825E-3	-80.3037E-12	921.436E-3	-2.43047E-3	-79.2289E-12	930.859E-3	-10.2450E-3
-1.50325E-3	-80.1676E-12	935.813E-3	-22.9689E-3	-79.4391E-12	919.714E-3	-16.1977E-3
-1.50825E-3	-81.6969E-12	941.134E-3	-41.6355E-3	-80.4665E-12	904.822E-3	-12.2880E-3
-1.51326E-3	-82.2094E-12	923.647E-3	-34.3204E-3	-81.8927E-12	904.741E-3	-5.10473E-3
-1.51826E-3	-81.8230E-12	929.478E-3	-9.03085E-3	-80.5445E-12	910.041E-3	1.08051E-3
-1.52326E-3	-81.2760E-12	957.875E-3	-9.75222E-3	-80.5460E-12	909.732E-3	-438.808E-6
-1.52826E-3	-82.5988E-12	974.461E-3	-28.7697E-3	-81.1110E-12	907.126E-3	-16.2748E-3
-1.53327E-3	-83.8196E-12	984.114E-3	-30.5860E-3	-83.2675E-12	918.009E-3	-24.0464E-3
-1.53827E-3	-83.7348E-12	975.502E-3	-17.4185E-3	-82.8610E-12	932.878E-3	-15.4439E-3
-1.54327E-3	-82.4298E-12	939.373E-3	-3.75229E-3	-82.0744E-12	937.346E-3	-17.7040E-3
-1.54827E-3	-82.0381E-12	911.452E-3	-519.662E-6	-82.5990E-12	935.063E-3	-18.9778E-3
-1.55328E-3	-83.3823E-12	901.160E-3	-9.70958E-3	-83.7178E-12	926.292E-3	-1.69232E-3
-1.55828E-3	-84.1203E-12	903.489E-3	-18.2768E-3	-85.8431E-12	923.554E-3	2.27200E-3
-1.56328E-3	-82.9855E-12	916.089E-3	-15.1571E-3	-85.0926E-12	932.432E-3	-3.46390E-3
-1.56828E-3	-82.8706E-12	923.628E-3	-7.13239E-3	-85.4390E-12	947.589E-3	4.95700E-3
-1.57329E-3	-84.1196E-12	930.825E-3	-11.5785E-3	-86.1547E-12	958.079E-3	8.08599E-3
-1.57829E-3	-84.7413E-12	936.937E-3	-22.5351E-3	-86.5402E-12	942.322E-3	4.95558E-3
-1.58329E-3	-84.5963E-12	932.300E-3	-23.0638E-3	-87.1319E-12	916.687E-3	2.93038E-3
-1.58829E-3	-84.4227E-12	912.797E-3	-17.4377E-3	-88.2037E-12	909.772E-3	-8.54868E-3
-1.59330E-3	-84.9605E-12	891.255E-3	-21.3023E-3	-88.0196E-12	910.913E-3	-24.0621E-3
-1.59830E-3	-86.3656E-12	889.356E-3	-33.7832E-3	-86.8828E-12	899.547E-3	-30.7792E-3
-1.60330E-3	-86.7991E-12	901.290E-3	-30.7362E-3	-87.4392E-12	887.684E-3	-29.1990E-3
-1.60830E-3	-86.8938E-12	903.966E-3	-24.5898E-3	-87.5319E-12	889.334E-3	-32.4862E-3
-1.61331E-3	-86.7535E-12	894.174E-3	-26.4941E-3	-87.6210E-12	896.924E-3	-37.2898E-3
-1.61831E-3	-87.6966E-12	886.517E-3	-21.3369E-3	-86.3572E-12	904.741E-3	-30.3272E-3
-1.62331E-3	-88.3857E-12	911.308E-3	-14.0238E-3	-85.6822E-12	896.746E-3	-34.9684E-3
-1.62831E-3	-88.4138E-12	937.439E-3	-13.3241E-3	-85.4925E-12	871.136E-3	-40.9434E-3
-1.63332E-3	-87.9302E-12	910.232E-3	-16.8231E-3	-85.8553E-12	847.336E-3	-31.4477E-3
-1.63832E-3	-88.1980E-12	881.844E-3	-28.3776E-3	-86.7332E-12	831.250E-3	-34.2019E-3
-1.64332E-3	-88.8685E-12	883.073E-3	-36.6020E-3	-86.3295E-12	827.484E-3	-36.5579E-3
-1.64832E-3	-89.1201E-12	889.727E-3	-33.5052E-3	-87.1022E-12	846.329E-3	-40.8117E-3
-1.65333E-3	-88.8216E-12	891.892E-3	-37.8093E-3	-87.4581E-12	875.555E-3	-43.8256E-3
-1.65833E-3	-88.1534E-12	872.199E-3	-45.0701E-3	-89.2260E-12	886.590E-3	-24.9328E-3
-1.66333E-3	-88.7761E-12	844.036E-3	-30.4650E-3	-90.1015E-12	882.785E-3	-12.6931E-3
-1.66833E-3	-90.6560E-12	838.453E-3	-4.47589E-3	-90.3490E-12	878.689E-3	-9.89086E-3
-1.67334E-3	-91.3499E-12	866.305E-3	4.90747E-3	-91.5373E-12	874.103E-3	8.02250E-3
-1.67834E-3	-91.1889E-12	879.767E-3	634.043E-6	-92.4843E-12	866.431E-3	19.7605E-3
-1.68334E-3	-90.5795E-12	855.777E-3	-17.2798E-3	-94.2157E-12	857.034E-3	8.30279E-3
-1.68834E-3	-91.6081E-12	840.627E-3	-34.3719E-3	-93.2730E-12	860.487E-3	-10.0882E-3
-1.69335E-3	-93.4320E-12	844.384E-3	-21.7055E-3	-94.0981E-12	872.738E-3	-28.6027E-3
-1.69835E-3	-93.2698E-12	862.996E-3	-4.04276E-3	-92.7453E-12	879.404E-3	-28.9387E-3
-1.70335E-3	-92.9198E-12	882.630E-3	2.79485E-3	-94.2473E-12	881.577E-3	1.26930E-3
-1.70835E-3	-93.1320E-12	879.029E-3	3.97321E-3	-93.1595E-12	874.846E-3	16.9114E-3
-1.71336E-3	-93.5059E-12	860.094E-3	-11.7429E-3	-92.4116E-12	853.806E-3	4.88274E-3
-1.71836E-3	-94.5040E-12	844.635E-3	-22.4000E-3	-91.1885E-12	823.284E-3	-326.599E-6
-1.72336E-3	-94.2594E-12	850.047E-3	-10.6770E-3	-91.4601E-12	807.725E-3	696.088E-6
-1.72836E-3	-92.8887E-12	861.408E-3	906.616E-6	-92.0091E-12	809.592E-3	6.64070E-3
-1.73337E-3	-93.2135E-12	847.444E-3	-6.22425E-3	-91.3808E-12	806.909E-3	1.33275E-3
-1.73837E-3	-92.9148E-12	837.760E-3	-13.2901E-3	-91.6831E-12	808.270E-3	-9.12102E-3
-1.74337E-3	-93.3217E-12	845.649E-3	3.18216E-3	-92.1715E-12	824.640E-3	-6.33814E-3
-1.74837E-3	-92.5023E-12	842.675E-3	11.3604E-3	-93.3257E-12	844.247E-3	4.09333E-3
-1.75338E-3	-92.9212E-12	840.983E-3	-8.76904E-3	-94.0576E-12	840.301E-3	13.4216E-3
-1.75838E-3	-94.7603E-12	834.376E-3	-24.9924E-3	-94.1951E-12	820.265E-3	8.22916E-3
-1.76338E-3	-96.0832E-12	806.976E-3	-22.8334E-3	-95.0677E-12	812.834E-3	3.13879E-3
-1.76838E-3	-95.4516E-12	800.410E-3	-11.2870E-3	-96.0738E-12	810.578E-3	-2.51478E-3
-1.77339E-3	-95.4843E-12	814.733E-3	-10.5853E-3	-97.2544E-12	812.689E-3	-25.5012E-3
-1.77839E-3	-96.4035E-12	812.375E-3	-25.0140E-3	-96.9256E-12	830.922E-3	-36.6090E-3
-1.78339E-3	-97.6197E-12	814.923E-3	-24.3251E-3	-97.3352E-12	839.643E-3	-20.7006E-3
-1.78839E-3	-98.0700E-12	815.303E-3	-8.52889E-3	-98.8015E-12	813.604E-3	-11.5655E-3
-1.79340E-3	-97.4310E-12	803.044E-3	-7.91017E-3	-99.3953E-12	790.025E-3	-11.6146E-3
-1.79840E-3	-97.8871E-12	816.698E-3	-18.2219E-3	-99.6304E-12	789.245E-3	-7.73580E-3
-1.80340E-3	-98.3894E-12	828.921E-3	-28.1025E-3	-98.4808E-12	788.062E-3	-2.46728E-3
-1.80840E-3	-99.2506E-12	815.539E-3	-41.5836E-3	-98.5509E-12	785.821E-3	3.01201E-3
-1.81341E-3	-99.3931E-12	803.360E-3	-50.9657E-3	-98.6298E-12	785.114E-3	-2.21107E-3
-1.81841E-3	-98.6252E-12	797.408E-3	-39.5556E-3	-98.0537E-12	779.992E-3	-16.1484E-3
-1.82341E-3	-98.1139E-12	801.849E-3	-24.4634E-3	-97.0735E-12	783.200E-3	-37.5049E-3
-1.82841E-3	-98.5652E-12	801.701E-3	-29.0433E-3	-97.0763E-12	784.953E-3	-56.5272E-3
-1.83342E-3	-99.2599E-12	794.881E-3	-37.8038E-3	-98.1970E-12	768.860E-3	-51.8101E-3
-1.83842E-3	-99.1268E-12	794.065E-3	-27.5541E-3	-97.6778E-12	758.594E-3	-24.8145E-3
-1.84342E-3	-99.2777E-12	780.861E-3	-4.79411E-3	-97.5688E-12	753.810E-3	-2.88651E-3
-1.84842E-3	-99.2075E-12	761.242E-3	3.78710E-3	-98.3694E-12	748.762E-3	-7.29952E-3
-1.85343E-3	-100.907E-12	744.423E-3	2.77622E-3	-98.7877E-12	755.815E-3	-22.7730E-3
-1.85843E-3	-101.737E-12	744.423E-3	-10.7862E-3	-99.0231E-12	769.579E-3	-30.8733E-3
-1.86343E-3	-101.006E-12	756.301E-3	-19.6374E-3	-99.1659E-12	774.237E-3	-31.6483E-3
-1.86843E-3	-101.342E-12	754.769E-3	-10.6128E-3	-100.556E-12	764.518E-3	-37.4823E-3
-1.87344E-3	-101.790E-12	755.278E-3	-21.8823E-3	-101.402E-12	759.960E-3	-40.4244E-3
-1.87844E-3	-102.621E-12	770.579E-3	-31.3083E-3	-102.546E-12	767.697E-3	-26.1778E-3
-1.88344E-3	-102.709E-12	786.487E-3	-19.8671E-3	-101.906E-12	766.532E-3	-3.35503E-3
-1.88844E-3	-103.211E-12	779.618E-3	-15.9265E-3	-102.917E-12	761.610E-3	-1.01642E-3
-1.89345E-3	-102.098E-12	759.428E-3	-14.6038E-3	-101.783E-12	771.210E-3	-14.9159E-3
-1.89845E-3	-102.889E-12	758.075E-3	1.98349E-3	-103.746E-12	778.524E-3	-19.5536E-3
-1.90345E-3	-102.315E-12	763.213E-3	3.59364E-3	-103.642E-12	770.784E-3	-23.4494E-3
-1.90845E-3	-103.688E-12	765.343E-3	-9.35910E-3	-102.816E-12	753.358E-3	-15.1648E-3
-1.91346E-3	-104.276E-12	765.410E-3	225.185E-6	-102.715E-12	740.846E-3	4.46861E-3
-1.91846E-3	-103.112E-12	761.472E-3	8.37721E-3	-103.813E-12	739.623E-3	12.2772E-3
-1.92346E-3	-102.412E-12	771.752E-3	11.8827E-3	-104.064E-12	738.739E-3	-808.672E-6
-1.92846E-3	-103.156E-12	778.672E-3	28.0385E-3	-102.992E-12	743.541E-3	-16.2051E-3
-1.93347E-3	-105.303E-12	770.747E-3	16.8643E-3	-103.022E-12	752.818E-3	-11.2410E-3
-1.93847E-3	-104.852E-12	774.396E-3	-24.6633E-3	-103.388E-12	745.757E-3	5.75173E-3
-1.94347E-3	-103.452E-12	781.375E-3	-33.9455E-3	-104.128E-12	736.349E-3	15.6629E-3
-1.94847E-3	-103.161E-12	769.238E-3	-19.2355E-3	-104.379E-12	746.705E-3	13.2751E-3
-1.95348E-3	-104.456E-12	756.783E-3	-16.4347E-3	-103.704E-12	750.437E-3	4.56741E-3
-1.95848E-3	-104.845E-12	759.074E-3	-14.1816E-3	-104.169E-12	747.763E-3	6.22882E-3
-1.96348E-3	-103.910E-12	758.813E-3	-11.4968E-3	-104.429E-12	754.782E-3	16.8172E-3
-1.96848E-3	-104.123E-12	749.352E-3	-5.89000E-3	-106.124E-12	747.609E-3	12.3179E-3
-1.97349E-3	-106.225E-12	740.125E-3	5.00527E-3	-105.898E-12	741.153E-3	5.87549E-3
-1.97849E-3	-107.706E-12	735.199E-3	-5.24114E-3	-105.235E-12	759.910E-3	4.29317E-3
-1.98349E-3	-105.446E-12	722.095E-3	-38.7475E-3	-105.507E-12	764.864E-3	-12.5846E-3
-1.98849E-3	-105.517E-12	716.191E-3	-46.6714E-3	-107.686E-12	743.520E-3	-18.8602E-3
-1.99350E-3	-106.819E-12	726.539E-3	-16.0505E-3	-110.117E-12	728.781E-3	-127.154E-6
-1.99850E-3	-108.599E-12	736.049E-3	-1.14927E-3	-109.191E-12	746.644E-3	4.74166E-3
-2.00350E-3	-107.980E-12	745.236E-3	-16.4909E-3	-108.930E-12	777.894E-3	-6.26043E-3
-2.00850E-3	-107.634E-12	744.686E-3	-27.5944E-3	-110.070E-12	773.469E-3	-11.6819E-3
-2.01351E-3	-109.131E-12	737.953E-3	-23.1418E-3	-112.218E-12	756.157E-3	-12.0268E-3
-2.01851E-3	-109.990E-12	738.063E-3	-10.4447E-3	-111.655E-12	748.215E-3	-9.37469E-3
-2.02351E-3	-109.834E-12	749.924E-3	8.98460E-3	-111.270E-12	747.145E-3	-4.91180E-3
-2.02851E-3	-109.544E-12	756.157E-3	9.97807E-3	-110.467E-12	751.151E-3	-5.44997E-3
-2.03352E-3	-111.002E-12	752.167E-3	-17.1892E-3	-110.656E-12	737.251E-3	-19.9688E-3
-2.03852E-3	-110.594E-12	761.453E-3	-23.7721E-3	-110.071E-12	716.409E-3	-30.8127E-3
-2.04352E-3	-110.405E-12	766.497E-3	-19.0425E-3	-110.326E-12	710.284E-3	-37.2122E-3
-2.04852E-3	-110.976E-12	765.509E-3	-44.5494E-3	-108.414E-12	716.489E-3	-41.4154E-3
-2.05353E-3	-110.953E-12	763.364E-3	-56.9283E-3	-108.820E-12	720.589E-3	-21.1772E-3
-2.05853E-3	-110.194E-12	749.369E-3	-44.5648E-3	-108.413E-12	707.782E-3	-2.03250E-3
-2.06353E-3	-109.838E-12	755.261E-3	-44.5674E-3	-109.314E-12	689.707E-3	-4.96163E-3
-2.06853E-3	-109.889E-12	775.899E-3	-30.1114E-3	-108.070E-12	700.124E-3	-4.69745E-3
-2.07354E-3	-109.774E-12	756.985E-3	-7.86632E-3	-108.549E-12	724.821E-3	-7.66887E-3
-2.07854E-3	-110.119E-12	727.483E-3	-17.5946E-3	-109.552E-12	728.666E-3	-25.3412E-3
-2.08354E-3	-109.818E-12	731.117E-3	-28.4494E-3	-110.127E-12	731.792E-3	-19.9339E-3
-2.08854E-3	-110.592E-12	731.398E-3	-29.9661E-3	-110.043E-12	744.963E-3	-10.2996E-3
-2.09355E-3	-111.698E-12	723.098E-3	-29.1928E-3	-110.762E-12	753.108E-3	-38.6165E-3
-2.09855E-3	-113.843E-12	724.565E-3	-9.56158E-3	-111.955E-12	759.127E-3	-49.7611E-3
-2.10355E-3	-114.323E-12	742.349E-3	1.24064E-3	-113.996E-12	765.424E-3	-24.1370E-3
-2.10855E-3	-113.972E-12	748.834E-3	-13.5198E-3	-114.404E-12	765.416E-3	-22.9374E-3
-2.11356E-3	-116.091E-12	726.014E-3	-33.0943E-3	-113.432E-12	750.257E-3	-32.2761E-3
-2.11856E-3	-117.730E-12	718.682E-3	-30.2792E-3	-113.093E-12	717.214E-3	-18.6693E-3
-2.12356E-3	-118.303E-12	751.674E-3	-6.43971E-3	-114.899E-12	694.137E-3	-12.3694E-3
-2.12856E-3	-117.096E-12	785.079E-3	2.89138E-3	-115.109E-12	709.700E-3	-10.6831E-3
-2.13357E-3	-117.624E-12	770.023E-3	-9.26309E-3	-113.650E-12	735.619E-3	1.82920E-3
-2.13857E-3	-117.808E-12	729.903E-3	-24.3057E-3	-113.056E-12	737.894E-3	-6.26502E-3
-2.14357E-3	-117.109E-12	718.137E-3	-25.9854E-3	-113.660E-12	708.836E-3	-29.9340E-3
-2.14857E-3	-117.361E-12	732.643E-3	-10.4828E-3	-114.062E-12	696.604E-3	-40.3097E-3
-2.15358E-3	-117.293E-12	750.697E-3	-2.70617E-3	-113.024E-12	715.234E-3	-39.0741E-3
-2.15858E-3	-117.206E-12	765.154E-3	-10.1501E-3	-112.693E-12	739.848E-3	-18.5896E-3
-2.16358E-3	-115.577E-12	756.621E-3	-12.0736E-3	-113.945E-12	760.314E-3	1.90332E-3
-2.16858E-3	-115.752E-12	714.289E-3	-3.94665E-3	-114.576E-12	736.480E-3	-11.2376E-3
-2.17359E-3	-116.396E-12	688.517E-3	-4.63667E-3	-114.710E-12	708.317E-3	-32.1208E-3
-2.17859E-3	-116.030E-12	700.620E-3	-9.84367E-3	-115.550E-12	721.188E-3	-21.9410E-3
-2.18359E-3	-116.457E-12	727.068E-3	-14.2270E-3	-116.089E-12	760.713E-3	-2.11207E-3
-2.18859E-3	-115.827E-12	742.843E-3	-15.3734E-3	-116.473E-12	791.419E-3	-5.89667E-3
-2.19360E-3	-117.035E-12	722.820E-3	-13.7851E-3	-117.948E-12	767.239E-3	-24.3576E-3
-2.19860E-3	-117.569E-12	698.772E-3	-17.0417E-3	-119.433E-12	732.968E-3	-18.9627E-3
-2.20360E-3	-118.112E-12	695.948E-3	-12.4154E-3	-118.382E-12	733.328E-3	8.47377E-3
-2.20860E-3	-118.973E-12	711.269E-3	-11.9046E-3	-118.169E-12	727.988E-3	14.4774E-3
-2.21361E-3	-119.028E-12	742.835E-3	-23.7678E-3	-118.664E-12	704.899E-3	-7.45163E-3
-2.21861E-3	-120.215E-12	759.364E-3	-25.3283E-3	-119.218E-12	695.157E-3	-16.8424E-3
-2.22361E-3	-121.310E-12	746.073E-3	-9.72333E-3	-118.998E-12	715.886E-3	-5.95986E-3
-2.22861E-3	-121.651E-12	736.054E-3	388.158E-6	-118.574E-12	734.529E-3	-11.2506E-3
-2.23362E-3	-121.048E-12	731.650E-3	2.30055E-3	-118.240E-12	721.292E-3	-35.9943E-3
-2.23862E-3	-119.878E-12	734.283E-3	-6.50298E-3	-118.195E-12	697.570E-3	-48.1433E-3
-2.24362E-3	-121.783E-12	735.136E-3	-25.5092E-3	-117.977E-12	687.740E-3	-38.4755E-3
-2.24862E-3	-121.479E-12	723.997E-3	-30.6840E-3	-117.211E-12	694.524E-3	-33.0058E-3
-2.25363E-3	-121.202E-12	731.747E-3	-32.1765E-3	-117.666E-12	704.131E-3	-32.4981E-3
-2.25863E-3	-120.734E-12	734.244E-3	-38.2529E-3	-117.444E-12	711.921E-3	-20.7637E-3
-2.26363E-3	-121.716E-12	703.049E-3	-31.4324E-3	-118.881E-12	721.490E-3	-5.93024E-3
-2.26863E-3	-121.893E-12	682.483E-3	-12.7984E-3	-120.277E-12	716.073E-3	-11.4572E-3
-2.27364E-3	-120.535E-12	691.959E-3	1.63555E-3	-121.309E-12	702.253E-3	-34.1307E-3
-2.27864E-3	-120.939E-12	706.030E-3	-17.8431E-3	-121.903E-12	708.734E-3	-51.9705E-3
-2.28364E-3	-122.791E-12	724.207E-3	-59.3246E-3	-123.248E-12	715.783E-3	-46.4189E-3
-2.28864E-3	-123.431E-12	732.476E-3	-59.4860E-3	-123.661E-12	711.216E-3	-10.5230E-3
-2.29365E-3	-122.640E-12	729.205E-3	-32.7403E-3	-123.846E-12	713.770E-3	15.0196E-3
-2.29865E-3	-122.462E-12	721.572E-3	-35.0791E-3	-124.590E-12	731.495E-3	-4.48581E-3
-2.30365E-3	-123.783E-12	717.092E-3	-43.1433E-3	-124.266E-12	740.334E-3	-27.4338E-3
-2.30865E-3	-125.551E-12	728.827E-3	-37.0909E-3	-124.770E-12	723.288E-3	-25.1301E-3
-2.31366E-3	-124.583E-12	727.972E-3	-37.7460E-3	-124.724E-12	712.584E-3	-19.4308E-3
-2.31866E-3	-124.390E-12	715.413E-3	-41.5589E-3	-125.290E-12	714.046E-3	-27.5470E-3
-2.32366E-3	-124.860E-12	712.886E-3	-27.7190E-3	-124.863E-12	705.880E-3	-38.4394E-3
-2.32866E-3	-125.119E-12	727.648E-3	-10.6926E-3	-124.457E-12	708.596E-3	-38.2825E-3
-2.33367E-3	-124.931E-12	748.323E-3	-15.1549E-3	-124.594E-12	720.221E-3	-26.2412E-3
-2.33867E-3	-124.662E-12	737.589E-3	-21.4071E-3	-124.126E-12	709.155E-3	58.8910E-6
-2.34367E-3	-125.932E-12	717.235E-3	-20.0583E-3	-124.532E-12	699.755E-3	14.6291E-3
-2.34867E-3	-124.337E-12	721.898E-3	-23.9856E-3	-124.929E-12	706.727E-3	-9.13829E-3
-2.35368E-3	-124.429E-12	724.365E-3	-21.2108E-3	-125.081E-12	706.699E-3	-36.1092E-3
-2.35868E-3	-125.054E-12	710.404E-3	-18.4835E-3	-124.528E-12	709.636E-3	-47.9745E-3
-2.36368E-3	-127.528E-12	703.862E-3	-23.6460E-3	-125.559E-12	708.992E-3	-48.9720E-3
-2.36868E-3	-125.321E-12	717.083E-3	-16.3265E-3	-125.714E-12	693.207E-3	-30.8754E-3
-2.37369E-3	-124.762E-12	722.610E-3	-9.84199E-3	-126.407E-12	698.483E-3	-14.2678E-3
-2.37869E-3	-126.300E-12	706.107E-3	-22.1122E-3	-127.484E-12	715.025E-3	-9.41581E-3
-2.38369E-3	-126.329E-12	707.802E-3	-34.6353E-3	-126.590E-12	714.459E-3	-18.9285E-3
-2.38869E-3	-126.761E-12	723.702E-3	-30.2914E-3	-127.385E-12	704.268E-3	-38.7801E-3
-2.39370E-3	-126.310E-12	700.758E-3	-12.1149E-3	-127.910E-12	689.314E-3	-21.0077E-3
-2.39870E-3	-127.812E-12	669.138E-3	95.5109E-6	-128.693E-12	683.612E-3	16.4673E-3
-2.40370E-3	-126.816E-12	676.092E-3	-3.58668E-3	-128.499E-12	693.588E-3	3.58681E-3
-2.40870E-3	-126.942E-12	688.925E-3	-18.2131E-3	-129.448E-12	703.116E-3	-15.7755E-3
-2.41371E-3	-127.213E-12	687.678E-3	-19.5250E-3	-130.103E-12	706.618E-3	-12.7097E-3
-2.41871E-3	-128.348E-12	696.846E-3	5.06997E-3	-129.004E-12	704.868E-3	-12.6518E-3
-2.42371E-3	-127.423E-12	713.186E-3	28.5643E-3	-128.280E-12	695.729E-3	3.47132E-3
-2.42871E-3	-126.929E-12	728.197E-3	19.5333E-3	-129.704E-12	702.820E-3	24.3500E-3
-2.43372E-3	-128.069E-12	741.329E-3	-10.4717E-3	-130.153E-12	716.003E-3	11.2801E-3
-2.43872E-3	-129.366E-12	729.478E-3	-28.0738E-3	-129.728E-12	699.977E-3	-24.5598E-3
-2.44372E-3	-129.673E-12	698.327E-3	-31.0296E-3	-128.068E-12	672.347E-3	-33.3623E-3
-2.44872E-3	-128.995E-12	690.865E-3	-29.5647E-3	-128.529E-12	670.630E-3	-5.87242E-3
-2.45373E-3	-129.453E-12	726.715E-3	-13.1530E-3	-129.353E-12	684.929E-3	-3.33525E-3
-2.45873E-3	-130.498E-12	754.463E-3	-8.14013E-3	-129.731E-12	700.873E-3	-22.1879E-3
-2.46373E-3	-131.587E-12	740.282E-3	-27.6805E-3	-127.843E-12	719.209E-3	-18.0440E-3
-2.46873E-3	-131.406E-12	727.681E-3	-38.5083E-3	-128.034E-12	704.547E-3	-19.6986E-3
-2.47374E-3	-131.754E-12	733.506E-3	-33.0441E-3	-129.249E-12	677.896E-3	-15.1871E-3
-2.47874E-3	-131.243E-12	728.247E-3	-14.1350E-3	-129.069E-12	695.971E-3	10.9302E-3
-2.48374E-3	-132.121E-12	713.632E-3	-7.97759E-3	-129.275E-12	714.782E-3	18.2310E-3
-2.48874E-3	-131.766E-12	718.365E-3	-17.0739E-3	-128.761E-12	698.423E-3	27.6776E-3
-2.49375E-3	-130.946E-12	730.048E-3	-16.7016E-3	-129.006E-12	694.142E-3	43.0435E-3
-2.49875E-3	-131.008E-12	723.172E-3	-24.3254E-3	-130.965E-12	703.623E-3	16.9624E-3
-2.50375E-3	-131.026E-12	706.087E-3	-33.2007E-3	-132.401E-12	712.671E-3	-12.8939E-3
-2.50875E-3	-131.327E-12	700.120E-3	-26.3102E-3	-132.543E-12	724.519E-3	-9.09848E-3
-2.51376E-3	-130.708E-12	708.268E-3	-19.3719E-3	-132.329E-12	711.308E-3	1.89006E-3
-2.51876E-3	-131.734E-12	714.727E-3	-3.64410E-3	-134.048E-12	692.149E-3	8.90074E-3
-2.52376E-3	-131.920E-12	707.476E-3	13.7591E-3	-134.711E-12	701.294E-3	-908.962E-6
-2.52876E-3	-132.444E-12	684.914E-3	3.58543E-3	-134.674E-12	721.035E-3	-18.8311E-3
-2.53377E-3	-132.759E-12	673.031E-3	-6.35590E-3	-134.008E-12	729.290E-3	-23.0431E-3
-2.53877E-3	-133.825E-12	684.181E-3	573.783E-6	-134.531E-12	736.785E-3	-25.6184E-3
-2.54377E-3	-134.151E-12	692.053E-3	-10.5633E-3	-135.175E-12	728.372E-3	-29.0275E-3
-2.54877E-3	-134.686E-12	688.243E-3	-15.6345E-3	-135.020E-12	691.617E-3	-43.9837E-3
-2.55378E-3	-136.099E-12	676.821E-3	-10.2175E-3	-134.382E-12	688.431E-3	-53.7007E-3
-2.55878E-3	-136.142E-12	681.242E-3	-22.4203E-3	-134.020E-12	722.962E-3	-30.8463E-3
-2.56378E-3	-135.818E-12	696.903E-3	-25.2479E-3	-134.659E-12	708.149E-3	-14.7075E-3
-2.56878E-3	-137.017E-12	689.540E-3	-17.2936E-3	-134.264E-12	661.004E-3	-20.8604E-3
-2.57379E-3	-136.906E-12	676.548E-3	-11.5317E-3	-134.130E-12	669.598E-3	-20.3644E-3
-2.57879E-3	-136.157E-12	686.828E-3	-10.7103E-3	-133.366E-12	699.318E-3	-15.4235E-3
-2.58379E-3	-135.673E-12	709.154E-3	-17.4115E-3	-134.114E-12	698.864E-3	-12.5237E-3
-2.58879E-3	-135.057E-12	715.537E-3	-19.3531E-3	-135.668E-12	695.510E-3	-5.28246E-3
-2.59380E-3	-135.470E-12	704.949E-3	-35.4244E-3	-136.952E-12	678.321E-3	3.38174E-3
-2.59880E-3	-135.412E-12	705.172E-3	-53.8141E-3	-137.910E-12	672.608E-3	9.54837E-3
-2.60380E-3	-134.864E-12	709.715E-3	-37.3853E-3	-137.463E-12	713.406E-3	1.94458E-3
-2.60880E-3	-134.938E-12	699.309E-3	-31.5156E-3	-138.662E-12	733.486E-3	-9.97244E-3
-2.61381E-3	-135.463E-12	693.952E-3	-34.6302E-3	-140.234E-12	713.221E-3	-4.86948E-3
-2.61881E-3	-136.112E-12	687.489E-3	-23.6837E-3	-142.124E-12	699.190E-3	5.43129E-3
-2.62381E-3	-136.908E-12	674.673E-3	-37.6994E-3	-141.413E-12	690.850E-3	784.886E-6
-2.62881E-3	-137.468E-12	691.915E-3	-49.4770E-3	-141.229E-12	699.187E-3	-19.6877E-3
-2.63382E-3	-136.724E-12	714.338E-3	-28.1733E-3	-141.872E-12	725.246E-3	-41.4365E-3
-2.63882E-3	-137.808E-12	705.959E-3	-12.8014E-3	-143.642E-12	717.551E-3	-47.0252E-3
-2.64382E-3	-138.527E-12	696.616E-3	-8.03477E-3	-143.236E-12	707.793E-3	-18.7045E-3
-2.64882E-3	-139.402E-12	700.770E-3	5.87008E-3	-140.112E-12	720.146E-3	1.43734E-3
-2.65383E-3	-138.669E-12	703.383E-3	3.37463E-3	-139.608E-12	698.656E-3	-24.6797E-3
-2.65883E-3	-138.738E-12	703.571E-3	-27.9850E-3	-140.171E-12	668.868E-3	-43.5782E-3
-2.66383E-3	-139.758E-12	710.305E-3	-50.3494E-3	-141.468E-12	681.028E-3	-38.1887E-3
-2.66883E-3	-140.357E-12	715.065E-3	-45.5970E-3	-137.712E-12	700.348E-3	-29.6594E-3
-2.67384E-3	-139.759E-12	699.609E-3	-40.0471E-3	-136.639E-12	684.351E-3	-23.2214E-3
-2.67884E-3	-140.012E-12	678.381E-3	-38.1956E-3	-137.386E-12	660.081E-3	-29.2603E-3
-2.68384E-3	-139.998E-12	682.948E-3	-20.1272E-3	-141.378E-12	673.789E-3	-39.1744E-3
-2.68884E-3	-140.400E-12	698.218E-3	-3.32440E-3	-141.276E-12	678.028E-3	-36.6115E-3
-2.69385E-3	-139.974E-12	705.412E-3	-160.016E-6	-138.334E-12	662.889E-3	-15.4539E-3
-2.69885E-3	-140.724E-12	708.944E-3	-5.79374E-3	-139.648E-12	668.816E-3	1.39905E-3
-2.70385E-3	-141.113E-12	710.956E-3	-10.5055E-3	-141.926E-12	677.683E-3	-9.36430E-3
-2.70885E-3	-141.339E-12	717.955E-3	3.72094E-3	-144.435E-12	687.504E-3	-15.7576E-3
-2.71386E-3	-140.796E-12	726.471E-3	9.52161E-3	-143.137E-12	695.152E-3	-16.8067E-3
-2.71886E-3	-142.098E-12	716.920E-3	-429.251E-6	-144.099E-12	706.825E-3	-26.4835E-3
-2.72386E-3	-142.644E-12	686.780E-3	-6.48031E-3	-145.477E-12	724.929E-3	-32.6537E-3
-2.72886E-3	-143.014E-12	680.184E-3	-3.22144E-3	-147.276E-12	736.384E-3	-37.6155E-3
-2.73387E-3	-142.483E-12	701.339E-3	4.12913E-3	-146.086E-12	738.739E-3	-27.5054E-3
-2.73887E-3	-142.508E-12	702.348E-3	10.2691E-3	-145.218E-12	720.635E-3	-2.16384E-3
-2.74387E-3	-144.097E-12	676.095E-3	11.2541E-3	-145.314E-12	676.218E-3	23.1881E-3
-2.74887E-3	-144.474E-12	657.985E-3	-1.59254E-3	-144.416E-12	660.087E-3	17.0150E-3
-2.75388E-3	-143.370E-12	672.589E-3	-7.49671E-3	-145.137E-12	693.453E-3	-15.2176E-3
-2.75888E-3	-142.675E-12	688.546E-3	-10.6410E-3	-143.947E-12	706.483E-3	-33.0954E-3
-2.76388E-3	-144.103E-12	696.372E-3	-27.5155E-3	-143.082E-12	701.005E-3	-24.9671E-3
-2.76888E-3	-144.050E-12	708.613E-3	-18.3991E-3	-141.431E-12	702.593E-3	-4.12626E-3
-2.77389E-3	-143.135E-12	707.645E-3	10.1440E-3	-141.282E-12	710.541E-3	9.54719E-3
-2.77889E-3	-141.833E-12	688.229E-3	17.9187E-3	-140.890E-12	716.685E-3	-763.751E-6
-2.78389E-3	-142.066E-12	670.358E-3	30.6912E-3	-142.645E-12	692.892E-3	-7.92332E-3
-2.78889E-3	-142.800E-12	666.469E-3	35.3465E-3	-142.655E-12	662.517E-3	-3.96794E-3
-2.79390E-3	-142.496E-12	674.872E-3	6.30110E-3	-142.593E-12	670.592E-3	-28.9309E-3
-2.79890E-3	-142.375E-12	686.291E-3	-12.6928E-3	-143.394E-12	694.320E-3	-42.7157E-3
-2.80390E-3	-143.701E-12	683.374E-3	-14.0303E-3	-144.325E-12	712.334E-3	-22.6839E-3
-2.80890E-3	-144.383E-12	670.801E-3	-15.3635E-3	-145.592E-12	725.054E-3	-20.8855E-3
-2.81391E-3	-144.121E-12	677.995E-3	-16.0176E-3	-146.315E-12	716.518E-3	-20.4147E-3
-2.81891E-3	-145.271E-12	689.008E-3	-10.4361E-3	-147.504E-12	694.765E-3	-9.47845E-3
-2.82391E-3	-146.752E-12	675.360E-3	-1.26351E-3	-147.604E-12	683.717E-3	-7.18069E-3
-2.82891E-3	-147.872E-12	684.873E-3	-5.29971E-3	-148.392E-12	690.093E-3	-10.5883E-3
-2.83392E-3	-147.362E-12	710.813E-3	-13.2482E-3	-148.714E-12	686.836E-3	-29.0722E-3
-2.83892E-3	-147.209E-12	702.090E-3	-3.16310E-3	-148.703E-12	674.726E-3	-37.3290E-3
-2.84392E-3	-149.484E-12	688.499E-3	6.33978E-3	-149.106E-12	673.029E-3	-9.48750E-3
-2.84892E-3	-148.546E-12	682.219E-3	-1.00322E-3	-148.874E-12	701.301E-3	22.5415E-3
-2.85393E-3	-148.039E-12	682.994E-3	-13.0766E-3	-149.035E-12	745.881E-3	32.3211E-3
-2.85893E-3	-147.744E-12	702.275E-3	-28.7538E-3	-148.393E-12	758.325E-3	29.6704E-3
-2.86393E-3	-149.310E-12	710.819E-3	-32.4367E-3	-148.604E-12	734.378E-3	14.8510E-3
-2.86893E-3	-150.017E-12	710.223E-3	-32.9752E-3	-148.616E-12	702.736E-3	-8.67386E-3
-2.87394E-3	-149.371E-12	716.534E-3	-41.4080E-3	-148.098E-12	686.055E-3	-3.93033E-3
-2.87894E-3	-148.828E-12	701.860E-3	-22.4972E-3	-148.099E-12	690.998E-3	12.8326E-3
-2.88394E-3	-150.104E-12	670.618E-3	9.87009E-6	-148.240E-12	683.644E-3	13.7094E-3
-2.88894E-3	-150.010E-12	668.823E-3	-11.6819E-3	-149.532E-12	674.991E-3	22.8331E-3
-2.89395E-3	-149.747E-12	691.558E-3	-25.7252E-3	-148.917E-12	696.694E-3	19.2427E-3
-2.89895E-3	-150.970E-12	686.487E-3	-14.9393E-3	-149.300E-12	703.026E-3	-16.3628E-3
-2.90395E-3	-152.047E-12	681.897E-3	-105.277E-6	-148.946E-12	685.671E-3	-38.4711E-3
-2.90895E-3	-151.638E-12	696.291E-3	14.2147E-3	-149.213E-12	682.828E-3	-23.6041E-3
-2.91396E-3	-151.752E-12	694.148E-3	21.5164E-3	-150.820E-12	680.776E-3	-268.363E-6
-2.91896E-3	-151.745E-12	685.864E-3	11.1721E-3	-151.979E-12	662.788E-3	8.42931E-3
-2.92396E-3	-151.889E-12	682.641E-3	3.54286E-3	-150.836E-12	658.967E-3	1.82303E-3
-2.92896E-3	-151.415E-12	689.715E-3	7.69395E-3	-150.431E-12	694.597E-3	3.09202E-3
-2.93397E-3	-152.061E-12	702.607E-3	14.3106E-3	-152.713E-12	730.919E-3	12.0812E-3
-2.93897E-3	-151.961E-12	694.029E-3	-54.2332E-6	-153.841E-12	713.040E-3	19.7944E-3
-2.94397E-3	-152.947E-12	669.302E-3	-14.8849E-3	-153.085E-12	680.393E-3	34.6581E-3
-2.94897E-3	-152.890E-12	656.261E-3	-15.6765E-3	-152.973E-12	681.423E-3	34.2588E-3
-2.95398E-3	-152.680E-12	666.878E-3	-30.7649E-3	-154.413E-12	694.698E-3	5.43975E-3
-2.95898E-3	-153.590E-12	678.016E-3	-40.6280E-3	-156.981E-12	697.331E-3	-20.4601E-3
-2.96398E-3	-154.357E-12	679.562E-3	-14.6996E-3	-157.000E-12	680.590E-3	-43.4950E-3
-2.96898E-3	-154.801E-12	680.705E-3	8.18413E-3	-155.368E-12	669.209E-3	-61.7188E-3
-2.97399E-3	-155.294E-12	688.798E-3	-10.6410E-3	-154.667E-12	689.327E-3	-50.7439E-3
-2.97899E-3	-155.945E-12	697.102E-3	-31.3613E-3	-154.169E-12	712.815E-3	-31.2124E-3
-2.98399E-3	-155.283E-12	688.629E-3	-23.8716E-3	-154.727E-12	714.574E-3	-10.0655E-3
-2.98899E-3	-154.405E-12	683.231E-3	-7.60176E-3	-155.292E-12	696.623E-3	3.23652E-3
-2.99400E-3	-154.999E-12	682.770E-3	-755.353E-6	-155.989E-12	665.611E-3	-10.0191E-3
-2.99900E-3	-156.513E-12	678.045E-3	-2.53809E-3	-154.658E-12	660.414E-3	-25.8156E-3
-3.00400E-3	-155.115E-12	673.414E-3	10.0335E-3	-153.383E-12	679.027E-3	-19.0270E-3
-3.00900E-3	-153.741E-12	674.938E-3	16.8694E-3	-153.483E-12	688.293E-3	-17.6989E-3
-3.01401E-3	-153.498E-12	671.486E-3	-14.9351E-3	-153.780E-12	689.199E-3	-26.8336E-3
-3.01901E-3	-155.758E-12	659.242E-3	-49.6229E-3	-154.952E-12	677.269E-3	-6.96943E-3
-3.02401E-3	-155.734E-12	654.633E-3	-39.9778E-3	-154.225E-12	691.115E-3	24.4641E-3
-3.02901E-3	-154.129E-12	659.728E-3	-6.00135E-3	-154.356E-12	718.410E-3	39.6392E-3
-3.03402E-3	-154.269E-12	678.658E-3	-7.86450E-3	-156.267E-12	711.228E-3	29.8838E-3
-3.03902E-3	-156.322E-12	693.474E-3	-35.0164E-3	-158.388E-12	695.117E-3	6.49023E-3
-3.04402E-3	-157.246E-12	678.379E-3	-56.2964E-3	-159.227E-12	684.965E-3	-13.7999E-3
-3.04902E-3	-156.489E-12	654.188E-3	-47.5040E-3	-158.361E-12	684.627E-3	-24.2373E-3
-3.05403E-3	-156.421E-12	658.345E-3	-15.0275E-3	-159.280E-12	693.938E-3	-21.0027E-3
-3.05903E-3	-158.329E-12	675.047E-3	-26.5351E-3	-161.233E-12	701.726E-3	-11.5150E-3
-3.06403E-3	-159.996E-12	691.430E-3	-47.2652E-3	-161.386E-12	682.815E-3	5.34246E-3
-3.06903E-3	-159.642E-12	714.044E-3	-27.5610E-3	-159.936E-12	630.419E-3	12.1528E-3
-3.07404E-3	-157.560E-12	694.460E-3	-14.4412E-3	-159.020E-12	613.783E-3	-763.880E-6
-3.07904E-3	-158.933E-12	657.728E-3	-6.05964E-3	-159.706E-12	641.658E-3	-11.2503E-3
-3.08404E-3	-160.230E-12	687.014E-3	-7.41356E-3	-158.732E-12	661.013E-3	-14.1639E-3
-3.08904E-3	-160.409E-12	719.697E-3	-30.4541E-3	-157.444E-12	677.924E-3	-16.5824E-3
-3.09405E-3	-157.730E-12	697.622E-3	-47.1018E-3	-155.692E-12	686.217E-3	-17.7024E-3
-3.09905E-3	-156.863E-12	666.645E-3	-29.5487E-3	-157.245E-12	663.427E-3	-20.9803E-3
-3.10405E-3	-159.017E-12	647.603E-3	21.4389E-3	-158.717E-12	653.446E-3	-22.4810E-3
-3.10905E-3	-160.994E-12	645.623E-3	25.4246E-3	-157.887E-12	679.167E-3	-25.7825E-3
-3.11406E-3	-158.805E-12	667.272E-3	-22.4377E-3	-156.587E-12	698.824E-3	-23.2680E-3
-3.11906E-3	-157.547E-12	687.985E-3	-31.2502E-3	-157.966E-12	691.322E-3	-17.9782E-3
-3.12406E-3	-159.091E-12	681.352E-3	-7.33504E-3	-161.569E-12	678.902E-3	-9.77402E-3
-3.12906E-3	-161.809E-12	675.125E-3	19.9487E-3	-163.324E-12	692.773E-3	-8.27170E-3
-3.13407E-3	-162.995E-12	680.620E-3	25.2584E-3	-161.768E-12	698.238E-3	-31.3669E-3
-3.13907E-3	-160.999E-12	677.561E-3	-10.6796E-3	-162.515E-12	671.555E-3	-42.1772E-3
-3.14407E-3	-160.700E-12	661.710E-3	-47.8378E-3	-164.399E-12	647.921E-3	-30.0384E-3
-3.14907E-3	-163.023E-12	658.167E-3	-54.4400E-3	-167.337E-12	645.753E-3	-23.5993E-3
-3.15408E-3	-165.091E-12	693.783E-3	-36.3310E-3	-165.612E-12	671.513E-3	-18.6793E-3
-3.15908E-3	-163.379E-12	724.242E-3	-10.5421E-3	-165.674E-12	716.657E-3	-3.91216E-3
-3.16408E-3	-163.462E-12	713.384E-3	9.21475E-3	-165.378E-12	739.128E-3	10.9148E-3
-3.16908E-3	-166.310E-12	685.566E-3	11.9330E-3	-167.480E-12	720.094E-3	11.8500E-3
-3.17409E-3	-166.416E-12	682.928E-3	137.791E-6	-166.507E-12	699.079E-3	-15.6124E-3
-3.17909E-3	-164.567E-12	713.867E-3	-5.80709E-3	-165.636E-12	681.368E-3	-49.7656E-3
-3.18409E-3	-163.156E-12	743.703E-3	-11.3663E-3	-165.273E-12	665.288E-3	-46.2953E-3
-3.18909E-3	-165.558E-12	747.326E-3	-21.9290E-3	-165.372E-12	660.518E-3	-35.8601E-3
-3.19410E-3	-165.692E-12	719.068E-3	-24.3970E-3	-165.664E-12	659.490E-3	-53.4845E-3
-3.19910E-3	-164.208E-12	681.573E-3	-23.0730E-3	-162.851E-12	661.182E-3	-54.1501E-3
-3.20410E-3	-164.061E-12	675.922E-3	-11.0279E-3	-163.752E-12	645.264E-3	-37.0194E-3
-3.20910E-3	-162.662E-12	694.953E-3	-140.328E-6	-164.787E-12	648.301E-3	-35.3633E-3
-3.21411E-3	-163.905E-12	705.912E-3	-23.5235E-3	-165.717E-12	676.611E-3	-47.4935E-3
-3.21911E-3	-164.160E-12	702.100E-3	-71.0948E-3	-164.927E-12	674.029E-3	-56.2683E-3
-3.22411E-3	-163.368E-12	686.217E-3	-102.013E-3	-164.545E-12	673.128E-3	-40.6501E-3
-3.22911E-3	-163.236E-12	672.034E-3	-79.1743E-3	-166.745E-12	687.745E-3	-24.8878E-3
-3.23412E-3	-164.519E-12	664.167E-3	-19.3228E-3	-168.093E-12	677.523E-3	-26.4150E-3
-3.23912E-3	-165.572E-12	673.339E-3	3.80291E-3	-167.352E-12	665.272E-3	-35.3694E-3
-3.24412E-3	-164.932E-12	702.017E-3	-17.1379E-3	-166.411E-12	668.628E-3	-38.2115E-3
-3.24912E-3	-166.155E-12	702.089E-3	-36.1741E-3	-167.764E-12	663.835E-3	-33.3000E-3
-3.25413E-3	-167.328E-12	684.842E-3	-45.6656E-3	-167.912E-12	671.527E-3	-33.5488E-3
-3.25913E-3	-167.851E-12	687.512E-3	-41.6724E-3	-166.853E-12	700.126E-3	-30.1876E-3
-3.26413E-3	-166.511E-12	710.471E-3	-31.9512E-3	-166.622E-12	730.338E-3	-35.7885E-3
-3.26913E-3	-168.381E-12	739.147E-3	-16.9801E-3	-168.229E-12	739.265E-3	-50.9866E-3
-3.27414E-3	-168.828E-12	733.597E-3	3.74303E-3	-167.549E-12	713.652E-3	-51.4677E-3
-3.27914E-3	-170.869E-12	700.187E-3	10.6823E-3	-166.292E-12	682.449E-3	-20.3060E-3
-3.28414E-3	-170.289E-12	685.155E-3	2.48236E-3	-165.452E-12	698.299E-3	19.0021E-3
-3.28914E-3	-169.986E-12	689.503E-3	-32.1457E-3	-167.033E-12	734.278E-3	15.8997E-3
-3.29415E-3	-170.896E-12	702.889E-3	-62.8961E-3	-168.870E-12	729.026E-3	-8.00157E-3
-3.29915E-3	-170.425E-12	692.578E-3	-50.7094E-3	-167.969E-12	708.496E-3	-15.2868E-3
-3.30415E-3	-170.183E-12	649.711E-3	-13.2476E-3	-168.722E-12	705.573E-3	-18.0033E-3
-3.30915E-3	-170.010E-12	653.671E-3	12.5477E-3	-169.192E-12	696.351E-3	-11.2471E-3
-3.31416E-3	-170.797E-12	682.697E-3	9.54168E-3	-168.951E-12	695.418E-3	2.92467E-3
-3.31916E-3	-169.634E-12	668.349E-3	5.50317E-3	-169.577E-12	715.015E-3	10.0877E-3
-3.32416E-3	-169.144E-12	662.444E-3	2.52229E-3	-171.037E-12	709.884E-3	-2.60686E-3
-3.32916E-3	-168.951E-12	684.526E-3	-3.89284E-3	-170.679E-12	710.432E-3	-34.2997E-3
-3.33417E-3	-168.374E-12	702.416E-3	11.7342E-3	-169.806E-12	720.815E-3	-49.2203E-3
-3.33917E-3	-167.934E-12	703.563E-3	21.7510E-3	-170.259E-12	711.381E-3	-31.8868E-3
-3.34417E-3	-168.084E-12	694.080E-3	-2.65674E-3	-171.247E-12	716.748E-3	-6.73702E-3
-3.34917E-3	-169.441E-12	697.289E-3	-29.3863E-3	-172.707E-12	739.264E-3	14.7842E-3
-3.35418E-3	-168.414E-12	679.373E-3	-40.2971E-3	-171.779E-12	745.873E-3	22.7803E-3
-3.35918E-3	-168.981E-12	664.297E-3	-45.2036E-3	-172.190E-12	720.032E-3	-8.81641E-3
-3.36418E-3	-167.929E-12	693.982E-3	-31.7059E-3	-173.851E-12	691.462E-3	-35.2628E-3
-3.36918E-3	-170.090E-12	688.651E-3	-24.3392E-3	-174.911E-12	680.283E-3	-24.6765E-3
-3.37419E-3	-169.796E-12	665.535E-3	-33.3778E-3	-174.348E-12	667.621E-3	-16.6050E-3
-3.37919E-3	-169.431E-12	666.554E-3	-19.9293E-3	-173.437E-12	679.617E-3	-26.3863E-3
-3.38419E-3	-169.144E-12	656.494E-3	-21.0760E-3	-173.983E-12	695.024E-3	-38.7238E-3
-3.38919E-3	-171.158E-12	664.287E-3	-27.6744E-3	-175.026E-12	665.422E-3	-25.3311E-3
-3.39420E-3	-172.897E-12	683.380E-3	-8.39498E-3	-175.399E-12	660.453E-3	-20.7812E-3
-3.39920E-3	-171.440E-12	682.113E-3	2.32890E-3	-173.868E-12	691.455E-3	-39.1123E-3
-3.40420E-3	-172.005E-12	683.617E-3	-2.26231E-3	-173.489E-12	693.045E-3	-16.9111E-3
-3.40920E-3	-171.329E-12	686.440E-3	-2.84864E-3	-174.114E-12	681.469E-3	-807.224E-6
-3.41421E-3	-173.288E-12	680.897E-3	-11.7619E-3	-174.398E-12	683.512E-3	-20.4578E-3
-3.41921E-3	-173.445E-12	673.948E-3	-24.0452E-3	-173.133E-12	694.690E-3	-2.84005E-3
-3.42421E-3	-173.195E-12	646.365E-3	-16.1122E-3	-171.796E-12	703.004E-3	15.3678E-3
-3.42921E-3	-173.791E-12	624.238E-3	-6.01223E-3	-172.981E-12	688.447E-3	-9.53366E-3
-3.43422E-3	-173.726E-12	648.699E-3	-2.15525E-3	-173.890E-12	672.381E-3	-37.6804E-3
-3.43922E-3	-174.538E-12	683.371E-3	3.05529E-3	-174.096E-12	692.776E-3	-50.8316E-3
-3.44422E-3	-173.091E-12	695.601E-3	-8.60052E-3	-173.663E-12	720.725E-3	-47.6708E-3
-3.44922E-3	-174.216E-12	690.516E-3	-34.9865E-3	-175.342E-12	730.226E-3	-42.7512E-3
-3.45423E-3	-174.136E-12	690.381E-3	-34.6011E-3	-176.704E-12	728.511E-3	-39.4031E-3
-3.45923E-3	-175.295E-12	692.642E-3	-16.8369E-3	-178.039E-12	716.469E-3	-25.5965E-3
-3.46423E-3	-174.316E-12	681.450E-3	-12.1184E-3	-177.886E-12	693.898E-3	-13.5514E-3
-3.46923E-3	-175.385E-12	674.719E-3	-21.8942E-3	-178.072E-12	684.551E-3	16.8941E-3
-3.47424E-3	-177.067E-12	668.883E-3	-36.0427E-3	-178.610E-12	701.176E-3	41.8112E-3
-3.47924E-3	-176.826E-12	667.727E-3	-25.0941E-3	-179.475E-12	721.326E-3	-180.717E-6
-3.48424E-3	-176.948E-12	677.517E-3	-1.51142E-3	-180.149E-12	735.785E-3	-41.3225E-3
-3.48924E-3	-176.364E-12	661.506E-3	12.5248E-3	-178.530E-12	747.968E-3	-23.2276E-3
-3.49425E-3	-178.798E-12	645.461E-3	24.0024E-3	-177.136E-12	733.404E-3	-17.2276E-3
-3.49925E-3	-179.476E-12	651.428E-3	20.5265E-3	-176.806E-12	687.232E-3	-23.0374E-3
-3.50425E-3	-179.108E-12	660.403E-3	5.96543E-3	-177.278E-12	660.716E-3	7.98180E-3
-3.50925E-3	-178.568E-12	680.445E-3	-3.83028E-3	-178.930E-12	663.027E-3	32.6246E-3
-3.51426E-3	-180.382E-12	701.104E-3	-11.9062E-3	-177.563E-12	655.852E-3	16.0619E-3
-3.51926E-3	-180.888E-12	692.104E-3	-30.2056E-3	-175.803E-12	648.291E-3	-11.4452E-3
-3.52426E-3	-179.062E-12	657.651E-3	-67.9625E-3	-174.987E-12	646.482E-3	-17.7546E-3
-3.52926E-3	-179.187E-12	649.839E-3	-73.9176E-3	-178.052E-12	634.171E-3	-18.3824E-3
-3.53427E-3	-179.261E-12	666.200E-3	-26.6064E-3	-178.574E-12	636.660E-3	-19.6893E-3
-3.53927E-3	-180.110E-12	665.872E-3	7.33234E-3	-177.196E-12	662.883E-3	1.40377E-3
-3.54427E-3	-180.825E-12	670.556E-3	6.23217E-3	-176.991E-12	668.528E-3	16.6276E-3
-3.54927E-3	-179.959E-12	673.504E-3	2.60387E-3	-179.939E-12	666.766E-3	3.38328E-3
-3.55428E-3	-179.111E-12	663.120E-3	6.37938E-3	-182.489E-12	700.833E-3	-22.0332E-3
-3.55928E-3	-179.441E-12	676.047E-3	-10.4242E-3	-182.067E-12	711.705E-3	-42.7355E-3
-3.56428E-3	-181.713E-12	703.510E-3	-24.5039E-3	-182.134E-12	680.002E-3	-33.7787E-3
-3.56928E-3	-182.168E-12	704.465E-3	-4.79539E-3	-183.462E-12	668.576E-3	-14.2410E-3
-3.57429E-3	-180.814E-12	682.776E-3	8.84382E-3	-186.017E-12	681.419E-3	-23.5433E-3
-3.57929E-3	-180.087E-12	676.178E-3	575.161E-6	-184.282E-12	683.310E-3	-31.0282E-3
-3.58429E-3	-181.427E-12	671.602E-3	7.61364E-3	-182.894E-12	677.635E-3	-28.4348E-3
-3.58929E-3	-182.020E-12	670.662E-3	27.8736E-3	-182.481E-12	672.154E-3	-34.7725E-3
-3.59430E-3	-182.992E-12	695.864E-3	27.0349E-3	-183.726E-12	662.888E-3	-36.2859E-3
-3.59930E-3	-181.710E-12	695.997E-3	-11.0075E-3	-183.555E-12	647.993E-3	-29.3838E-3
-3.60430E-3	-183.410E-12	686.533E-3	-33.6640E-3	-181.060E-12	643.420E-3	-31.4991E-3
-3.60930E-3	-182.781E-12	698.840E-3	4.49901E-3	-180.399E-12	668.153E-3	-41.1809E-3
-3.61431E-3	-182.358E-12	712.083E-3	16.1135E-3	-180.969E-12	702.467E-3	-44.5060E-3
-3.61931E-3	-182.160E-12	713.686E-3	-28.9933E-3	-182.971E-12	729.904E-3	-45.4745E-3
-3.62431E-3	-182.076E-12	686.325E-3	-65.5283E-3	-182.333E-12	721.221E-3	-26.6382E-3
-3.62931E-3	-181.294E-12	673.336E-3	-62.4618E-3	-181.520E-12	675.894E-3	7.91646E-3
-3.63432E-3	-181.658E-12	683.675E-3	-38.2805E-3	-181.756E-12	673.488E-3	9.04902E-3
-3.63932E-3	-181.755E-12	657.450E-3	-31.4943E-3	-183.392E-12	702.666E-3	-20.8961E-3
-3.64432E-3	-180.808E-12	624.369E-3	-41.2862E-3	-184.951E-12	690.596E-3	-42.9150E-3
-3.64932E-3	-181.183E-12	645.208E-3	-34.2227E-3	-185.233E-12	656.319E-3	-47.4509E-3
-3.65433E-3	-183.136E-12	676.785E-3	-28.5760E-3	-185.375E-12	617.223E-3	-26.9396E-3
-3.65933E-3	-184.143E-12	677.562E-3	-11.9479E-3	-184.477E-12	596.007E-3	-4.95355E-3
-3.66433E-3	-183.579E-12	668.696E-3	30.3812E-3	-185.859E-12	630.022E-3	-6.32878E-3
-3.66933E-3	-181.917E-12	686.600E-3	22.1606E-3	-187.109E-12	686.936E-3	-23.2165E-3
-3.67434E-3	-183.448E-12	713.488E-3	-13.9797E-3	-187.359E-12	719.651E-3	-43.6280E-3
-3.67934E-3	-184.729E-12	698.895E-3	-19.4214E-3	-185.821E-12	724.119E-3	-39.0232E-3
-3.68434E-3	-183.804E-12	680.991E-3	-20.8944E-3	-185.562E-12	719.262E-3	-32.4387E-3
-3.68934E-3	-183.911E-12	674.703E-3	-24.9397E-3	-186.598E-12	694.364E-3	-50.3553E-3
-3.69435E-3	-184.772E-12	658.362E-3	-11.4070E-3	-188.327E-12	647.862E-3	-46.2953E-3
-3.69935E-3	-186.795E-12	656.376E-3	6.41001E-3	-186.749E-12	629.161E-3	-18.3959E-3
-3.70435E-3	-187.903E-12	647.817E-3	9.36522E-3	-186.159E-12	638.733E-3	2.25862E-3
-3.70935E-3	-186.600E-12	627.475E-3	4.11868E-3	-185.334E-12	664.099E-3	4.13667E-3
-3.71436E-3	-185.060E-12	628.296E-3	8.37465E-3	-187.593E-12	694.895E-3	-3.59710E-3
-3.71936E-3	-185.400E-12	639.876E-3	2.36787E-3	-187.609E-12	689.661E-3	-13.4462E-3
-3.72436E-3	-186.383E-12	668.317E-3	-16.2729E-3	-185.940E-12	667.194E-3	-23.0064E-3
-3.72936E-3	-186.842E-12	681.526E-3	-25.3219E-3	-185.152E-12	664.714E-3	-31.0337E-3
-3.73437E-3	-185.759E-12	663.769E-3	-20.4092E-3	-186.921E-12	669.456E-3	-40.8668E-3
-3.73937E-3	-186.494E-12	659.188E-3	-1.34877E-3	-186.766E-12	656.597E-3	-34.9865E-3
-3.74437E-3	-187.841E-12	655.449E-3	-10.7705E-3	-186.884E-12	622.089E-3	-20.8524E-3
-3.74937E-3	-189.313E-12	652.369E-3	-45.2736E-3	-186.529E-12	611.956E-3	-19.0424E-3
-3.75438E-3	-189.820E-12	655.091E-3	-40.8450E-3	-186.856E-12	630.217E-3	-13.5516E-3
-3.75938E-3	-189.455E-12	664.913E-3	-24.7244E-3	-187.606E-12	644.165E-3	-23.1463E-3
-3.76438E-3	-190.686E-12	684.634E-3	-43.6532E-3	-188.947E-12	677.197E-3	-57.2681E-3
-3.76938E-3	-191.423E-12	687.160E-3	-45.3043E-3	-187.922E-12	697.552E-3	-50.5315E-3
-3.77439E-3	-192.133E-12	682.352E-3	-20.0943E-3	-187.910E-12	679.689E-3	-24.5490E-3
-3.77939E-3	-191.408E-12	689.287E-3	-9.86091E-3	-188.564E-12	672.220E-3	-21.0586E-3
-3.78439E-3	-191.876E-12	701.816E-3	-16.0565E-3	-190.121E-12	681.645E-3	-21.5037E-3
-3.78939E-3	-192.933E-12	696.922E-3	-12.6102E-3	-190.206E-12	703.666E-3	-23.4149E-3
-3.79440E-3	-193.951E-12	678.220E-3	-9.28116E-3	-189.648E-12	723.693E-3	-22.7103E-3
-3.79940E-3	-193.839E-12	675.916E-3	-39.2914E-3	-190.117E-12	716.656E-3	-25.6470E-3
-3.80440E-3	-192.331E-12	687.003E-3	-70.5674E-3	-191.510E-12	694.124E-3	-24.6856E-3
-3.80940E-3	-191.753E-12	688.834E-3	-48.3387E-3	-191.570E-12	683.669E-3	-35.3863E-3
-3.81441E-3	-192.383E-12	686.264E-3	399.196E-6	-190.798E-12	678.792E-3	-39.3559E-3
-3.81941E-3	-193.137E-12	688.326E-3	11.3221E-3	-189.676E-12	669.600E-3	6.63422E-3
-3.82441E-3	-192.651E-12	696.637E-3	-16.2204E-3	-190.480E-12	672.471E-3	25.4335E-3
-3.82941E-3	-192.741E-12	707.129E-3	-36.4063E-3	-190.584E-12	673.045E-3	-14.1558E-3
-3.83442E-3	-193.652E-12	688.831E-3	-30.9740E-3	-189.736E-12	658.765E-3	-20.0307E-3
-3.83942E-3	-193.556E-12	672.703E-3	-23.1111E-3	-188.789E-12	651.803E-3	1.43964E-3
-3.84442E-3	-193.603E-12	676.363E-3	-21.0147E-3	-189.458E-12	662.617E-3	-15.5391E-3
-3.84942E-3	-192.556E-12	661.245E-3	-31.7911E-3	-190.739E-12	670.518E-3	-41.4378E-3
-3.85443E-3	-194.323E-12	653.866E-3	-15.9231E-3	-191.980E-12	654.322E-3	-49.0310E-3
-3.85943E-3	-194.326E-12	650.608E-3	24.9397E-3	-192.356E-12	646.031E-3	-43.8741E-3
-3.86443E-3	-193.559E-12	638.922E-3	19.9619E-3	-192.988E-12	647.074E-3	-37.2247E-3
-3.86943E-3	-194.138E-12	658.051E-3	-3.49125E-3	-195.090E-12	631.182E-3	-26.8294E-3
-3.87444E-3	-196.733E-12	695.166E-3	-12.2149E-3	-195.586E-12	642.217E-3	-4.90060E-3
-3.87944E-3	-198.808E-12	705.521E-3	-8.50224E-3	-195.795E-12	670.814E-3	-4.65289E-3
-3.88444E-3	-198.394E-12	702.755E-3	1.21455E-3	-197.027E-12	676.386E-3	-21.7194E-3
-3.88944E-3	-197.240E-12	709.323E-3	-8.05381E-3	-198.820E-12	693.150E-3	-19.3002E-3
-3.89445E-3	-198.913E-12	686.204E-3	-14.3920E-3	-198.491E-12	711.581E-3	-27.6797E-3
-3.89945E-3	-201.647E-12	642.568E-3	-5.75819E-3	-198.263E-12	700.764E-3	-47.8262E-3
-3.90445E-3	-200.796E-12	638.570E-3	-27.6632E-3	-198.989E-12	684.892E-3	-36.9668E-3
-3.90945E-3	-198.134E-12	669.591E-3	-52.6037E-3	-198.903E-12	672.771E-3	-14.7830E-3
-3.91446E-3	-198.445E-12	684.607E-3	-35.7506E-3	-197.874E-12	660.171E-3	-24.5725E-3
-3.91946E-3	-199.899E-12	683.128E-3	-18.5990E-3	-196.119E-12	649.267E-3	-47.6017E-3
-3.92446E-3	-201.283E-12	696.409E-3	-17.6840E-3	-195.247E-12	637.004E-3	-41.3569E-3
-3.92946E-3	-197.961E-12	685.798E-3	-19.9443E-3	-196.048E-12	646.453E-3	-19.8126E-3
-3.93447E-3	-195.431E-12	659.126E-3	-17.4359E-3	-195.696E-12	673.968E-3	-138.733E-6
-3.93947E-3	-197.435E-12	669.267E-3	-4.33845E-3	-195.127E-12	692.326E-3	6.44531E-3
-3.94447E-3	-199.394E-12	680.798E-3	-2.95957E-3	-194.406E-12	698.840E-3	11.5366E-3
-3.94947E-3	-197.557E-12	688.756E-3	-9.42745E-3	-196.105E-12	690.354E-3	23.8065E-3
-3.95448E-3	-194.272E-12	678.112E-3	-3.71012E-3	-198.296E-12	690.255E-3	2.68528E-3
-3.95948E-3	-195.236E-12	632.899E-3	-2.87175E-3	-197.380E-12	699.175E-3	-24.5740E-3
-3.96448E-3	-199.764E-12	624.300E-3	-15.4666E-3	-197.098E-12	680.204E-3	-22.5388E-3
-3.96948E-3	-199.758E-12	651.532E-3	-4.07888E-3	-198.245E-12	659.027E-3	-19.5940E-3
-3.97449E-3	-198.754E-12	670.422E-3	14.0023E-3	-200.302E-12	668.024E-3	-18.3862E-3
-3.97949E-3	-198.552E-12	691.220E-3	737.994E-6	-203.164E-12	676.620E-3	-25.6453E-3
-3.98449E-3	-201.557E-12	703.727E-3	-5.05196E-3	-203.147E-12	692.823E-3	-45.2992E-3
-3.98949E-3	-203.328E-12	695.087E-3	-10.5707E-3	-203.835E-12	709.424E-3	-51.2778E-3
-3.99450E-3	-202.522E-12	688.919E-3	-26.8973E-3	-202.844E-12	681.558E-3	-33.9828E-3
-3.99950E-3	-201.378E-12	692.321E-3	-10.5565E-3	-204.755E-12	642.722E-3	-18.7726E-3
-4.00450E-3	-200.840E-12	675.533E-3	26.4016E-3	-204.273E-12	647.752E-3	-27.1882E-3
-4.00950E-3	-203.330E-12	634.868E-3	30.9596E-3	-204.350E-12	678.678E-3	-31.1402E-3
-4.01451E-3	-205.575E-12	631.220E-3	-5.50881E-3	-202.706E-12	706.264E-3	-25.3353E-3
-4.01951E-3	-202.471E-12	668.989E-3	-49.4153E-3	-202.974E-12	721.535E-3	-41.7343E-3
-4.02451E-3	-200.994E-12	707.769E-3	-66.0745E-3	-203.705E-12	705.649E-3	-47.6257E-3
-4.02951E-3	-203.543E-12	715.407E-3	-38.8178E-3	-202.119E-12	655.298E-3	-32.0328E-3
-4.03452E-3	-206.149E-12	693.642E-3	2.98710E-3	-201.629E-12	609.386E-3	-23.7577E-3
-4.03952E-3	-204.085E-12	692.094E-3	5.75090E-3	-201.230E-12	608.293E-3	-13.5634E-3
-4.04452E-3	-202.187E-12	709.830E-3	-34.0254E-3	-203.369E-12	636.145E-3	-27.6159E-3
-4.04952E-3	-203.188E-12	723.855E-3	-50.2469E-3	-202.859E-12	662.561E-3	-48.4537E-3
-4.05453E-3	-204.819E-12	706.697E-3	-28.9928E-3	-202.264E-12	692.021E-3	-48.1930E-3
-4.05953E-3	-204.258E-12	688.535E-3	-16.2101E-3	-201.279E-12	712.754E-3	-59.8176E-3
-4.06453E-3	-203.748E-12	691.789E-3	-30.6499E-3	-200.861E-12	706.973E-3	-63.0720E-3
-4.06953E-3	-204.328E-12	687.761E-3	-33.3931E-3	-203.455E-12	696.922E-3	-48.4373E-3
-4.07454E-3	-206.497E-12	714.858E-3	-18.1523E-3	-202.621E-12	685.294E-3	-27.8036E-3
-4.07954E-3	-206.062E-12	757.949E-3	-22.4527E-3	-202.397E-12	675.184E-3	-6.16162E-3
-4.08454E-3	-205.575E-12	740.523E-3	-29.8567E-3	-202.822E-12	677.335E-3	-22.0014E-3
-4.08954E-3	-205.727E-12	684.417E-3	-31.1177E-3	-204.444E-12	672.341E-3	-34.2106E-3
-4.09455E-3	-207.505E-12	669.027E-3	-22.1799E-3	-205.369E-12	654.748E-3	-6.47547E-3
-4.09955E-3	-208.636E-12	675.905E-3	-17.9715E-3	-203.847E-12	653.818E-3	13.8624E-3
-4.10455E-3	-207.678E-12	663.279E-3	-14.2352E-3	-203.555E-12	686.645E-3	34.8168E-3
-4.10955E-3	-205.020E-12	641.995E-3	-4.95912E-3	-204.970E-12	713.749E-3	41.0190E-3
-4.11456E-3	-205.444E-12	625.701E-3	-17.8019E-3	-206.865E-12	720.695E-3	21.2191E-3
-4.11956E-3	-206.928E-12	649.701E-3	-9.34562E-3	-205.851E-12	709.628E-3	16.5868E-3
-4.12456E-3	-207.972E-12	693.962E-3	16.7344E-3	-204.565E-12	702.542E-3	15.0680E-3
-4.12956E-3	-205.439E-12	689.289E-3	2.11439E-3	-205.045E-12	701.250E-3	15.5399E-3
-4.13457E-3	-204.703E-12	662.885E-3	-46.5379E-3	-206.605E-12	678.625E-3	23.5101E-3
-4.13957E-3	-205.736E-12	671.544E-3	-60.7492E-3	-206.692E-12	662.095E-3	24.7685E-3
-4.14457E-3	-205.805E-12	695.721E-3	-23.0350E-3	-205.711E-12	649.792E-3	15.1043E-3
-4.14957E-3	-205.178E-12	704.901E-3	-14.3873E-3	-204.927E-12	642.942E-3	-4.51785E-3
-4.15458E-3	-205.725E-12	706.857E-3	-41.0965E-3	-206.567E-12	640.725E-3	-14.6154E-3
-4.15958E-3	-206.193E-12	690.649E-3	-58.5666E-3	-206.415E-12	627.771E-3	1.99376E-3
-4.16458E-3	-206.571E-12	652.442E-3	-51.8929E-3	-204.645E-12	629.089E-3	37.5992E-3
-4.16958E-3	-207.066E-12	628.843E-3	-15.3371E-3	-203.780E-12	652.123E-3	49.0564E-3
-4.17459E-3	-208.858E-12	633.368E-3	-4.06436E-3	-207.037E-12	680.549E-3	23.1857E-3
-4.17959E-3	-207.848E-12	658.876E-3	-31.4809E-3	-207.223E-12	698.792E-3	-5.97472E-3
-4.18459E-3	-208.001E-12	679.139E-3	-20.8951E-3	-206.965E-12	701.346E-3	-22.9776E-3
-4.18959E-3	-209.190E-12	676.788E-3	12.1602E-3	-206.717E-12	695.686E-3	-17.9735E-3
-4.19460E-3	-210.434E-12	689.795E-3	12.3002E-3	-209.977E-12	685.947E-3	91.5696E-6
-4.19960E-3	-210.600E-12	708.504E-3	6.46060E-3	-211.140E-12	699.161E-3	2.84131E-3
-4.20460E-3	-210.045E-12	711.474E-3	10.7723E-3	-210.765E-12	731.729E-3	-1.36068E-3
-4.20960E-3	-212.093E-12	713.596E-3	7.29989E-3	-212.141E-12	728.271E-3	3.03722E-3
-4.21461E-3	-211.674E-12	721.259E-3	1.58048E-3	-213.029E-12	715.742E-3	3.92532E-3
-4.21961E-3	-210.781E-12	739.841E-3	1.58397E-3	-215.573E-12	722.683E-3	-4.77666E-3
-4.22461E-3	-211.092E-12	732.583E-3	-1.37021E-3	-213.966E-12	717.800E-3	-24.8176E-3
-4.22961E-3	-211.118E-12	692.003E-3	-8.30575E-3	-213.621E-12	704.614E-3	-30.1352E-3
-4.23462E-3	-212.466E-12	652.316E-3	10.4678E-3	-215.087E-12	718.418E-3	-12.3631E-3
-4.23962E-3	-210.654E-12	631.096E-3	33.9399E-3	-215.802E-12	725.270E-3	762.426E-6
-4.24462E-3	-209.307E-12	646.110E-3	40.5646E-3	-212.948E-12	685.148E-3	8.29714E-3
-4.24962E-3	-209.649E-12	676.680E-3	67.8972E-3	-211.221E-12	645.523E-3	-7.08246E-3
-4.25463E-3	-211.122E-12	678.132E-3	70.2901E-3	-212.186E-12	625.821E-3	-35.5037E-3
-4.25963E-3	-209.394E-12	669.016E-3	12.8227E-3	-211.221E-12	613.485E-3	-27.2253E-3
-4.26463E-3	-209.277E-12	683.175E-3	-14.9630E-3	-211.646E-12	622.284E-3	-3.50045E-3
-4.26963E-3	-208.908E-12	678.423E-3	-43.9800E-6	-210.716E-12	651.316E-3	-25.1801E-3
-4.27464E-3	-208.437E-12	660.982E-3	-7.37478E-3	-211.118E-12	674.093E-3	-58.0098E-3
-4.27964E-3	-210.652E-12	689.742E-3	-15.3588E-3	-211.465E-12	672.249E-3	-37.2084E-3
-4.28464E-3	-209.043E-12	714.471E-3	-7.04346E-3	-210.836E-12	657.232E-3	-26.8235E-3
-4.28964E-3	-211.045E-12	682.294E-3	-21.4778E-3	-208.982E-12	641.968E-3	-57.3936E-3
-4.29465E-3	-210.407E-12	650.874E-3	-36.7639E-3	-211.991E-12	658.417E-3	-56.4736E-3
-4.29965E-3	-213.796E-12	653.503E-3	-7.41223E-3	-215.803E-12	690.831E-3	-21.6403E-3
-4.30465E-3	-212.672E-12	667.212E-3	6.67733E-3	-215.231E-12	672.975E-3	-34.4575E-3
-4.30965E-3	-213.263E-12	679.617E-3	-1.65464E-3	-213.785E-12	650.028E-3	-76.4872E-3
-4.31466E-3	-214.812E-12	690.989E-3	7.43576E-3	-214.332E-12	652.146E-3	-62.3356E-3
-4.31966E-3	-218.680E-12	691.223E-3	-4.25187E-3	-219.850E-12	662.892E-3	-43.4574E-3
-4.32466E-3	-217.940E-12	699.469E-3	-21.4282E-3	-218.847E-12	694.879E-3	-48.1266E-3
-4.32966E-3	-216.261E-12	718.462E-3	-12.5656E-3	-217.488E-12	703.252E-3	-47.2937E-3
-4.33467E-3	-216.508E-12	688.069E-3	-18.4602E-3	-216.346E-12	692.159E-3	-26.0518E-3
-4.33967E-3	-219.876E-12	638.159E-3	-53.0283E-3	-218.036E-12	695.820E-3	-5.84915E-3
-4.34467E-3	-221.324E-12	615.873E-3	-78.3318E-3	-219.649E-12	706.001E-3	-24.7337E-3
-4.34967E-3	-218.924E-12	615.080E-3	-52.7690E-3	-218.416E-12	722.978E-3	-47.0547E-3
-4.35468E-3	-217.437E-12	654.822E-3	-264.588E-6	-215.859E-12	710.227E-3	-45.1564E-3
-4.35968E-3	-218.879E-12	691.891E-3	14.7955E-3	-216.848E-12	691.594E-3	-31.9321E-3
-4.36468E-3	-218.117E-12	670.697E-3	-24.3633E-3	-219.003E-12	720.225E-3	-15.1989E-3
-4.36968E-3	-217.595E-12	651.699E-3	-64.3393E-3	-217.196E-12	728.383E-3	-34.2057E-3
-4.37469E-3	-217.904E-12	646.888E-3	-66.0741E-3	-215.949E-12	679.134E-3	-58.6132E-3
-4.37969E-3	-218.190E-12	604.540E-3	-55.4420E-3	-215.571E-12	652.510E-3	-45.5618E-3
-4.38469E-3	-216.360E-12	587.689E-3	-47.8752E-3	-218.059E-12	679.737E-3	-43.0072E-3
-4.38969E-3	-216.053E-12	625.081E-3	-40.8646E-3	-220.389E-12	671.466E-3	-38.8608E-3
-4.39470E-3	-219.591E-12	646.807E-3	-20.9691E-3	-218.547E-12	630.383E-3	-37.0035E-3
-4.39970E-3	-221.621E-12	655.323E-3	-6.66957E-3	-217.740E-12	625.109E-3	-66.0853E-3
-4.40470E-3	-219.191E-12	670.147E-3	-9.22854E-3	-217.528E-12	647.545E-3	-79.5918E-3
-4.40970E-3	-218.016E-12	671.549E-3	-465.193E-6	-219.697E-12	666.750E-3	-41.0542E-3
-4.41471E-3	-221.216E-12	661.855E-3	11.5105E-3	-218.120E-12	677.474E-3	-12.6274E-3
-4.41971E-3	-222.001E-12	659.600E-3	5.90872E-3	-217.178E-12	669.779E-3	-15.5753E-3
-4.42471E-3	-220.460E-12	658.127E-3	-4.68909E-3	-217.024E-12	670.902E-3	2.51054E-3
-4.42971E-3	-218.460E-12	670.070E-3	694.947E-6	-220.395E-12	701.140E-3	10.0196E-3
-4.43472E-3	-220.110E-12	713.046E-3	-2.22682E-3	-220.417E-12	691.879E-3	-14.5600E-3
-4.43972E-3	-221.662E-12	717.732E-3	-36.6822E-3	-219.101E-12	677.462E-3	-16.3655E-3
-4.44472E-3	-220.251E-12	687.975E-3	-51.5164E-3	-220.506E-12	696.777E-3	5.54618E-3
-4.44972E-3	-217.783E-12	691.320E-3	-17.6446E-3	-222.512E-12	693.844E-3	-23.8070E-3
-4.45473E-3	-219.120E-12	705.195E-3	-15.9657E-3	-223.782E-12	661.726E-3	-74.8187E-3
-4.45973E-3	-220.079E-12	704.983E-3	-51.7950E-3	-221.461E-12	636.971E-3	-62.9731E-3
-4.46473E-3	-219.901E-12	698.797E-3	-52.8004E-3	-222.944E-12	651.501E-3	-26.4392E-3
-4.46973E-3	-219.248E-12	701.878E-3	-37.3230E-3	-222.963E-12	688.842E-3	-18.1686E-3
-4.47474E-3	-218.957E-12	728.527E-3	-40.6935E-3	-223.541E-12	729.777E-3	-32.8726E-3
-4.47974E-3	-219.974E-12	744.617E-3	-53.5702E-3	-221.551E-12	740.267E-3	-52.1013E-3
-4.48474E-3	-221.544E-12	723.708E-3	-54.0865E-3	-222.774E-12	695.151E-3	-34.0410E-3
-4.48974E-3	-221.696E-12	699.800E-3	-53.1214E-3	-224.897E-12	660.278E-3	21.8333E-3
-4.49475E-3	-222.025E-12	698.523E-3	-54.7653E-3	-225.007E-12	686.342E-3	19.9154E-3
-4.49975E-3	-223.242E-12	684.495E-3	-46.8713E-3	-223.015E-12	714.235E-3	-26.6700E-3
-4.50475E-3	-224.257E-12	663.132E-3	-33.9178E-3	-222.920E-12	672.901E-3	-22.5185E-3
-4.50975E-3	-226.279E-12	688.488E-3	-20.5643E-3	-224.320E-12	599.385E-3	12.5042E-3
-4.51476E-3	-226.837E-12	721.959E-3	-16.0273E-3	-222.665E-12	577.876E-3	36.0626E-3
-4.51976E-3	-224.999E-12	696.969E-3	-22.8961E-3	-222.312E-12	628.106E-3	34.0017E-3
-4.52476E-3	-223.527E-12	643.419E-3	-21.2340E-3	-223.500E-12	691.501E-3	-1.79899E-3
-4.52976E-3	-224.283E-12	624.025E-3	-8.98908E-3	-224.423E-12	689.700E-3	-38.0472E-3
-4.53477E-3	-226.022E-12	636.374E-3	-23.6731E-3	-223.879E-12	641.240E-3	-45.3732E-3
-4.53977E-3	-224.389E-12	649.848E-3	-56.1554E-3	-224.111E-12	619.490E-3	-37.5116E-3
-4.54477E-3	-223.240E-12	658.286E-3	-53.6277E-3	-223.927E-12	644.957E-3	-42.4057E-3
-4.54977E-3	-224.333E-12	664.058E-3	-20.0224E-3	-223.840E-12	687.066E-3	-55.9290E-3
-4.55478E-3	-225.196E-12	647.253E-3	-17.5381E-3	-223.920E-12	695.664E-3	-61.6237E-3
-4.55978E-3	-225.904E-12	631.393E-3	-40.9486E-3	-224.831E-12	675.963E-3	-65.7753E-3
-4.56478E-3	-224.191E-12	639.525E-3	-35.7100E-3	-224.460E-12	680.153E-3	-40.2699E-3
-4.56978E-3	-224.096E-12	645.433E-3	-31.4149E-3	-224.738E-12	708.086E-3	4.57422E-3
-4.57479E-3	-225.459E-12	658.325E-3	-36.9592E-3	-224.214E-12	703.582E-3	8.10711E-3
-4.57979E-3	-225.732E-12	672.177E-3	-53.2507E-3	-223.559E-12	681.235E-3	-12.6140E-3
-4.58479E-3	-225.449E-12	678.890E-3	-44.2111E-3	-224.211E-12	676.782E-3	-23.3953E-3
-4.58979E-3	-226.515E-12	679.493E-3	18.2711E-3	-227.867E-12	647.846E-3	-20.1576E-3
-4.59480E-3	-228.189E-12	645.055E-3	33.2700E-3	-228.844E-12	613.368E-3	-6.56247E-3
-4.59980E-3	-228.171E-12	622.592E-3	-7.13851E-3	-226.001E-12	624.029E-3	895.220E-6
-4.60480E-3	-229.891E-12	656.367E-3	-26.4981E-3	-225.771E-12	650.202E-3	-2.80344E-3
-4.60980E-3	-231.012E-12	690.208E-3	-37.9099E-3	-228.162E-12	675.399E-3	-32.5314E-3
-4.61481E-3	-231.664E-12	684.026E-3	-49.3152E-3	-231.024E-12	691.214E-3	-75.9338E-3
-4.61981E-3	-231.664E-12	672.022E-3	-15.3476E-3	-229.532E-12	688.497E-3	-88.1300E-3
-4.62481E-3	-231.835E-12	676.467E-3	11.1419E-3	-227.241E-12	679.168E-3	-49.4924E-3
-4.62981E-3	-232.104E-12	667.032E-3	-6.34816E-3	-228.301E-12	680.068E-3	-3.13507E-3
-4.63482E-3	-232.128E-12	666.145E-3	-22.5628E-3	-230.605E-12	676.936E-3	-5.95561E-3
-4.63982E-3	-230.793E-12	688.641E-3	-5.34627E-3	-229.262E-12	655.782E-3	-39.7172E-3
-4.64482E-3	-231.392E-12	689.837E-3	28.6128E-3	-227.883E-12	646.111E-3	-53.9790E-3
-4.64982E-3	-231.598E-12	672.507E-3	-3.09128E-3	-226.813E-12	665.672E-3	-30.4510E-3
-4.65483E-3	-231.881E-12	665.081E-3	-66.5237E-3	-228.818E-12	672.789E-3	3.98163E-3
-4.65983E-3	-230.622E-12	666.423E-3	-96.6839E-3	-229.385E-12	665.203E-3	7.25775E-3
-4.66483E-3	-230.286E-12	674.590E-3	-101.288E-3	-230.167E-12	691.285E-3	-14.8119E-3
-4.66983E-3	-230.236E-12	683.905E-3	-61.6811E-3	-226.631E-12	706.860E-3	-11.4601E-3
-4.67484E-3	-230.650E-12	669.034E-3	-33.9628E-3	-227.852E-12	683.812E-3	18.2907E-3
-4.67984E-3	-232.191E-12	657.106E-3	-61.4082E-3	-229.973E-12	663.191E-3	22.8480E-3
-4.68484E-3	-231.676E-12	677.611E-3	-77.6043E-3	-233.224E-12	669.245E-3	-7.80940E-3
-4.68984E-3	-230.457E-12	680.343E-3	-51.2798E-3	-229.407E-12	686.852E-3	-12.4853E-3
-4.69485E-3	-230.162E-12	674.387E-3	-5.04087E-3	-229.048E-12	698.193E-3	900.888E-6
-4.69985E-3	-232.668E-12	697.114E-3	15.7445E-3	-230.547E-12	696.951E-3	-18.7793E-3
-4.70485E-3	-234.520E-12	705.001E-3	-7.98286E-3	-235.640E-12	666.545E-3	-40.6059E-3
-4.70985E-3	-234.320E-12	680.571E-3	-42.9167E-3	-232.483E-12	648.496E-3	-39.6353E-3
-4.71486E-3	-232.144E-12	648.896E-3	-41.0422E-3	-232.522E-12	665.524E-3	-13.9120E-3
-4.71986E-3	-232.706E-12	646.855E-3	-19.2274E-3	-232.485E-12	659.954E-3	11.4116E-3
-4.72486E-3	-236.913E-12	681.037E-3	-37.4018E-3	-235.999E-12	647.145E-3	-14.4861E-3
-4.72986E-3	-236.902E-12	681.074E-3	-72.1563E-3	-235.378E-12	670.694E-3	-58.1298E-3
-4.73487E-3	-235.002E-12	641.107E-3	-63.1740E-3	-234.737E-12	679.020E-3	-52.0177E-3
-4.73987E-3	-233.123E-12	647.496E-3	-31.8942E-3	-235.435E-12	671.784E-3	-29.5531E-3
-4.74487E-3	-234.685E-12	682.353E-3	-20.5396E-3	-235.503E-12	674.299E-3	-48.7672E-3
-4.74988E-3	-235.144E-12	667.777E-3	-3.97837E-3	-237.204E-12	652.817E-3	-68.7715E-3
-4.75488E-3	-234.422E-12	644.051E-3	20.7641E-3	-235.626E-12	631.739E-3	-36.1240E-3
-4.75988E-3	-232.169E-12	652.655E-3	1.86501E-3	-236.921E-12	636.951E-3	-20.0729E-3
-4.76488E-3	-232.873E-12	640.552E-3	-23.7479E-3	-239.476E-12	634.813E-3	-39.2528E-3
-4.76988E-3	-235.568E-12	626.883E-3	-22.4578E-3	-237.936E-12	637.878E-3	-41.5155E-3
-4.77489E-3	-233.662E-12	660.515E-3	-16.4135E-3	-234.673E-12	672.819E-3	-51.7447E-3
-4.77989E-3	-232.697E-12	677.791E-3	387.285E-6	-233.047E-12	699.402E-3	-54.5752E-3
-4.78489E-3	-233.520E-12	665.582E-3	-4.96806E-3	-235.625E-12	713.270E-3	-41.8136E-3
-4.78989E-3	-236.469E-12	662.154E-3	-21.2295E-3	-235.287E-12	720.236E-3	-38.8854E-3
-4.79490E-3	-234.183E-12	644.791E-3	-24.9956E-3	-235.354E-12	718.728E-3	-40.2368E-3
-4.79990E-3	-232.476E-12	638.439E-3	-41.7351E-3	-234.503E-12	721.718E-3	-43.9731E-3
-4.80490E-3	-234.399E-12	665.207E-3	-60.4644E-3	-236.630E-12	698.516E-3	-43.7860E-3
-4.80990E-3	-237.692E-12	664.860E-3	-51.7209E-3	-239.125E-12	654.666E-3	-41.0749E-3
-4.81491E-3	-238.990E-12	658.521E-3	-7.55741E-3	-237.653E-12	632.220E-3	-20.4904E-3
-4.81991E-3	-237.218E-12	681.193E-3	32.6905E-3	-237.122E-12	644.801E-3	-23.2543E-3
-4.82491E-3	-239.557E-12	673.344E-3	18.1268E-3	-237.462E-12	679.815E-3	-76.7137E-3
-4.82991E-3	-242.298E-12	636.532E-3	-26.5819E-3	-239.518E-12	712.155E-3	-92.1590E-3
-4.83492E-3	-241.673E-12	636.639E-3	-50.9051E-3	-240.155E-12	714.857E-3	-59.0288E-3
-4.83992E-3	-240.303E-12	662.574E-3	-22.0158E-3	-238.695E-12	686.230E-3	-32.3301E-3
-4.84492E-3	-240.652E-12	667.448E-3	25.6763E-3	-238.522E-12	647.941E-3	-18.5904E-3
-4.84992E-3	-240.533E-12	679.992E-3	4.10718E-3	-239.142E-12	655.165E-3	-22.4799E-3
-4.85493E-3	-240.662E-12	688.667E-3	-35.8694E-3	-243.000E-12	692.160E-3	-43.6262E-3
-4.85993E-3	-238.989E-12	653.773E-3	-35.2068E-3	-240.298E-12	693.646E-3	-46.3389E-3
-4.86493E-3	-240.204E-12	617.475E-3	-10.8811E-3	-237.740E-12	681.024E-3	-39.9526E-3
-4.86993E-3	-239.778E-12	615.783E-3	41.9393E-6	-237.039E-12	656.131E-3	-49.7124E-3
-4.87494E-3	-238.293E-12	629.042E-3	-6.86142E-3	-239.959E-12	643.076E-3	-51.6106E-3
-4.87994E-3	-237.205E-12	636.400E-3	15.6546E-3	-240.768E-12	675.098E-3	-42.8292E-3
-4.88494E-3	-236.691E-12	653.185E-3	46.6874E-3	-237.272E-12	671.746E-3	-62.9637E-3
-4.88995E-3	-238.066E-12	660.540E-3	40.3424E-3	-234.412E-12	637.586E-3	-97.3576E-3
-4.89495E-3	-237.311E-12	635.593E-3	8.81405E-3	-237.750E-12	642.191E-3	-102.780E-3
-4.89995E-3	-239.713E-12	620.814E-3	-17.4744E-3	-241.150E-12	659.375E-3	-68.7278E-3
-4.90495E-3	-240.636E-12	625.967E-3	-28.5043E-3	-239.794E-12	658.265E-3	1.08976E-3
-4.90995E-3	-241.879E-12	614.990E-3	-33.8410E-3	-235.938E-12	690.150E-3	36.0173E-3
-4.91496E-3	-241.906E-12	627.100E-3	-45.7998E-3	-236.369E-12	722.862E-3	3.45071E-3
-4.91996E-3	-242.086E-12	640.856E-3	-38.2856E-3	-240.900E-12	679.476E-3	-42.7671E-3
-4.92496E-3	-244.402E-12	633.197E-3	-40.8386E-3	-242.522E-12	648.356E-3	-56.8546E-3
-4.92996E-3	-243.630E-12	662.557E-3	-26.3111E-3	-239.448E-12	667.487E-3	-63.8586E-3
-4.93497E-3	-245.452E-12	679.834E-3	23.4754E-3	-238.673E-12	662.059E-3	-73.1788E-3
-4.93997E-3	-244.228E-12	663.338E-3	16.7699E-3	-242.238E-12	648.906E-3	-55.2198E-3
-4.94497E-3	-246.682E-12	676.806E-3	-14.7808E-3	-244.159E-12	649.284E-3	-41.2660E-3
-4.94997E-3	-244.442E-12	682.799E-3	-32.5252E-3	-242.806E-12	650.618E-3	-57.4769E-3
-4.95498E-3	-244.619E-12	671.002E-3	-63.5222E-3	-242.058E-12	684.469E-3	-73.0726E-3
-4.95998E-3	-243.345E-12	671.401E-3	-45.6427E-3	-244.123E-12	717.059E-3	-63.2487E-3
-4.96498E-3	-242.750E-12	644.835E-3	28.2698E-3	-245.663E-12	691.160E-3	-48.1977E-3
-4.96998E-3	-241.452E-12	614.267E-3	49.9939E-3	-243.568E-12	661.659E-3	-24.1177E-3
-4.97499E-3	-240.934E-12	610.795E-3	14.1548E-3	-240.465E-12	685.381E-3	12.9422E-3
-4.97999E-3	-239.561E-12	610.544E-3	181.599E-6	-242.779E-12	693.975E-3	18.4717E-3
-4.98499E-3	-238.896E-12	599.555E-3	1.87392E-3	-242.777E-12	652.781E-3	10.1324E-3
-4.98999E-3	-238.881E-12	596.538E-3	-17.6726E-3	-241.391E-12	645.608E-3	-5.53531E-3
-4.99500E-3	-239.871E-12	609.686E-3	-2.48966E-3	-239.120E-12	655.997E-3	-31.9425E-3
-5.00000E-3	-240.045E-12	614.595E-3	27.0692E-3	-239.281E-12	630.049E-3	-5.17889E-3
