Experiment	bias spectroscopy	
Date	19.01.2016 21:51:56	
User		
X (m)	49.5526E-9	
Y (m)	257.249E-9	
Z (m)	-132.569E-9	
Z offset (m)	0E+0	
Settling time (s)	200E-6	
Integration time (s)	5E-3	
Z-Ctrl hold	TRUE	
Final Z (m)	N/A	
Filter type	None	
Order		
Cutoff frq		
Comment01	MnPc/Pb(111)	
Comment02	dz =00pm	
Comment03	7 Sweeps	
Comment04	MagField =0.T	
Comment05	Divider 1:10	
Comment06	Setpoint:5mV,200 pA	
Comment07	Lockin: 50uVrms,5ms,5mV	
Comment08	Gain:9; 912Hz modulation	
Comment09	T=1.06K	
Bias>Bias (V)	5E-3	
Bias>Calibration (V/V)	81.475E-3	
Bias>Offset (V)	1.046E-3	
Bias Spectroscopy>Sweep Start (V)	5E-3	
Bias Spectroscopy>Sweep End (V)	-5E-3	
Bias Spectroscopy>Num Pixel	2000	
Bias Spectroscopy>Z Avg time (s)	500E-3	
Bias Spectroscopy>Z offset (m)	0E+0	
Bias Spectroscopy>1st Settling time (s)	500E-3	
Bias Spectroscopy>Settling time (s)	200E-6	
Bias Spectroscopy>Integration time (s)	5E-3	
Bias Spectroscopy>End Settling time (s)	500E-3	
Bias Spectroscopy>Z control time (s)	500E-3	
Bias Spectroscopy>Max Slew rate (V/s)	Inf	
Bias Spectroscopy>backward sweep	TRUE	
Bias Spectroscopy>Z-controller hold	TRUE	
Bias Spectroscopy>Number of sweeps	7	
Bias Spectroscopy>Channels	Current (A);X% LockIn (V);Y% LockIn (V)	
Bias Spectroscopy>Reset Bias	TRUE	
Bias Spectroscopy>Record final Z	FALSE	
Bias Spectroscopy>Lock-In run	FALSE	
Bias Spectroscopy>Sweep mode	Linear	
Bias Spectroscopy>MultiLine Settings : Segment Start (V), Segment End (V), Settling (s), Integration (s), Steps (xn)	100E-3,3.3E-3,100E-6,10E-3,2500;3.3E-3,-3.3E-3,100E-6,10E-3,10;-3.3E-3,-100E-3,100E-6,10E-3,2500	
Current>Current (A)	200.025E-12	
Current>Calibration (A/V)	999.99900E-12	
Current>Offset (A)	-455.429E-15	
Current>Gain	LN 10^9	
Z-Controller>Z (m)	-132.567E-9	
Z-Controller>Controller name	log Current	
Z-Controller>Controller status	ON	
Z-Controller>Setpoint	200E-12	
Z-Controller>Setpoint unit	A	
Z-Controller>P gain	2.96994E-12	
Z-Controller>I gain	67.0321E-9	
Z-Controller>Time const (s)	44.3062E-6	
Z-Controller>TipLift (m)	0E+0	
Z-Controller>Switch off delay (s)	50E-3	
Current (A)	200.052E-12	
Z (m)	-132.567E-9	

[DATA]
Bias calc (V)	Current (A)	X% LockIn (V)	Y% LockIn (V)	Current [bwd] (A)	X% LockIn [bwd] (V)	Y% LockIn [bwd] (V)
5.00000E-3	200.373E-12	701.499E-3	-42.4358E-3	196.735E-12	652.278E-3	2.47982E-3
4.99500E-3	200.939E-12	692.051E-3	-36.8146E-3	197.537E-12	669.508E-3	20.1492E-3
4.98999E-3	200.342E-12	667.856E-3	1.95278E-3	197.286E-12	659.560E-3	10.3038E-3
4.98499E-3	200.404E-12	664.498E-3	8.14954E-3	197.657E-12	640.305E-3	-4.08052E-3
4.97999E-3	200.557E-12	680.788E-3	-12.1501E-3	198.972E-12	653.634E-3	11.6533E-3
4.97499E-3	200.837E-12	656.651E-3	-3.29125E-3	198.683E-12	668.824E-3	8.00269E-3
4.96998E-3	201.466E-12	626.439E-3	11.3531E-3	198.107E-12	653.636E-3	-27.0902E-3
4.96498E-3	201.988E-12	632.042E-3	-853.638E-6	197.226E-12	635.276E-3	-34.2238E-3
4.95998E-3	202.315E-12	623.404E-3	1.04444E-3	196.755E-12	628.547E-3	-14.1564E-3
4.95498E-3	201.739E-12	614.511E-3	-938.615E-6	196.079E-12	631.697E-3	-8.27042E-3
4.94997E-3	202.543E-12	653.722E-3	-19.6029E-3	195.917E-12	611.021E-3	-11.5988E-3
4.94497E-3	202.443E-12	676.358E-3	-22.5103E-3	194.683E-12	592.654E-3	-7.20040E-3
4.93997E-3	201.281E-12	660.105E-3	-28.8553E-3	194.360E-12	632.899E-3	-21.9801E-3
4.93497E-3	200.131E-12	655.501E-3	-38.0475E-3	194.176E-12	654.049E-3	-39.2667E-3
4.92996E-3	199.836E-12	649.136E-3	-28.8310E-3	194.907E-12	640.240E-3	-38.1384E-3
4.92496E-3	199.149E-12	635.888E-3	-13.4978E-3	195.116E-12	643.416E-3	-41.1459E-3
4.91996E-3	198.435E-12	652.946E-3	178.171E-6	195.428E-12	638.538E-3	-44.7564E-3
4.91496E-3	197.045E-12	674.653E-3	15.6660E-3	195.090E-12	633.995E-3	-41.3420E-3
4.90995E-3	196.652E-12	667.022E-3	10.9392E-3	196.244E-12	642.963E-3	-33.7794E-3
4.90495E-3	196.290E-12	670.681E-3	1.47136E-3	196.202E-12	650.198E-3	-14.3281E-3
4.89995E-3	196.360E-12	682.385E-3	10.7285E-3	197.675E-12	651.550E-3	-3.35884E-3
4.89495E-3	195.322E-12	669.152E-3	9.68523E-3	196.574E-12	661.326E-3	-5.04056E-3
4.88995E-3	195.434E-12	678.042E-3	-10.9761E-3	196.271E-12	681.818E-3	-11.1039E-3
4.88494E-3	195.257E-12	695.363E-3	-18.4465E-3	195.785E-12	682.930E-3	-28.8974E-3
4.87994E-3	194.186E-12	673.905E-3	-25.6704E-3	196.240E-12	672.380E-3	-43.6136E-3
4.87494E-3	193.765E-12	655.022E-3	-37.1463E-3	195.720E-12	682.139E-3	-39.2433E-3
4.86993E-3	193.622E-12	651.810E-3	-28.7390E-3	193.833E-12	690.773E-3	-12.3995E-3
4.86493E-3	193.418E-12	643.158E-3	-6.43889E-3	192.160E-12	686.890E-3	-2.67652E-3
4.85993E-3	191.869E-12	645.201E-3	5.48742E-3	192.278E-12	689.631E-3	-23.8499E-3
4.85493E-3	190.876E-12	650.525E-3	-1.71696E-3	191.781E-12	690.979E-3	-41.0117E-3
4.84992E-3	190.514E-12	656.983E-3	-14.0484E-3	191.380E-12	665.357E-3	-43.6109E-3
4.84492E-3	190.259E-12	666.815E-3	-24.7378E-3	191.086E-12	648.060E-3	-33.7540E-3
4.83992E-3	189.398E-12	656.908E-3	-28.1693E-3	190.813E-12	663.445E-3	-27.1307E-3
4.83492E-3	188.475E-12	639.081E-3	-27.6744E-3	191.537E-12	678.677E-3	-34.2259E-3
4.82991E-3	188.568E-12	633.585E-3	-17.5458E-3	192.476E-12	690.656E-3	-41.4207E-3
4.82491E-3	188.655E-12	627.271E-3	4.02694E-3	192.700E-12	687.194E-3	-28.8945E-3
4.81991E-3	189.503E-12	623.120E-3	14.1430E-3	192.827E-12	666.454E-3	4.20325E-3
4.81491E-3	189.091E-12	645.165E-3	-1.45617E-3	193.525E-12	653.091E-3	18.0161E-3
4.80990E-3	190.036E-12	677.936E-3	-14.6492E-3	194.672E-12	644.896E-3	-10.3437E-3
4.80490E-3	190.527E-12	667.005E-3	-20.4697E-3	193.648E-12	649.725E-3	-28.1500E-3
4.79990E-3	192.328E-12	620.304E-3	-17.9246E-3	192.984E-12	676.103E-3	-22.8513E-3
4.79490E-3	192.277E-12	615.788E-3	-15.8915E-3	192.787E-12	694.284E-3	-28.7565E-3
4.78989E-3	192.416E-12	637.481E-3	-26.8962E-3	192.402E-12	688.825E-3	-43.8824E-3
4.78489E-3	193.095E-12	637.630E-3	-22.8791E-3	190.650E-12	668.821E-3	-59.2953E-3
4.77989E-3	193.393E-12	637.513E-3	-29.8843E-3	189.048E-12	653.140E-3	-59.1821E-3
4.77489E-3	193.087E-12	652.647E-3	-36.2989E-3	188.546E-12	653.511E-3	-41.9907E-3
4.76988E-3	191.877E-12	659.327E-3	-25.6012E-3	187.796E-12	645.807E-3	-25.5792E-3
4.76488E-3	191.980E-12	670.939E-3	-29.3817E-3	187.078E-12	634.058E-3	-17.0161E-3
4.75988E-3	189.908E-12	706.193E-3	-28.9762E-3	186.643E-12	640.477E-3	-33.4175E-3
4.75488E-3	189.371E-12	704.545E-3	-44.4734E-3	186.683E-12	646.501E-3	-65.9198E-3
4.74988E-3	188.287E-12	692.245E-3	-61.4879E-3	186.422E-12	650.548E-3	-69.6551E-3
4.74487E-3	188.975E-12	673.554E-3	-31.8601E-3	186.985E-12	671.508E-3	-48.8894E-3
4.73987E-3	188.034E-12	632.243E-3	-19.4372E-3	189.101E-12	686.867E-3	-32.2679E-3
4.73487E-3	187.496E-12	639.886E-3	-28.1467E-3	189.981E-12	687.265E-3	-18.6490E-3
4.72986E-3	187.555E-12	663.427E-3	-3.69944E-3	189.768E-12	699.322E-3	-3.78394E-3
4.72486E-3	188.085E-12	657.306E-3	7.87517E-3	191.318E-12	712.240E-3	7.18684E-3
4.71986E-3	188.109E-12	668.221E-3	-12.4913E-3	192.604E-12	707.242E-3	715.366E-6
4.71486E-3	188.366E-12	681.477E-3	-10.7555E-3	192.462E-12	681.105E-3	-18.0614E-3
4.70985E-3	189.404E-12	678.109E-3	-11.1613E-3	191.380E-12	651.411E-3	-17.2779E-3
4.70485E-3	188.992E-12	690.141E-3	-27.3358E-3	191.446E-12	660.969E-3	-4.48523E-3
4.69985E-3	188.710E-12	692.208E-3	-8.25534E-3	190.700E-12	683.261E-3	-11.3699E-3
4.69485E-3	188.667E-12	665.044E-3	21.5928E-3	189.396E-12	674.709E-3	-15.2864E-3
4.68984E-3	189.336E-12	653.596E-3	17.8156E-3	187.396E-12	661.957E-3	-484.236E-6
4.68484E-3	186.924E-12	663.922E-3	-11.5877E-3	186.318E-12	653.265E-3	-14.7540E-3
4.67984E-3	186.208E-12	665.823E-3	-27.0950E-3	185.131E-12	657.607E-3	-41.4789E-3
4.67484E-3	185.457E-12	670.594E-3	-21.2953E-3	184.664E-12	679.479E-3	-36.6749E-3
4.66983E-3	184.776E-12	662.028E-3	-12.2370E-3	183.824E-12	673.195E-3	-34.7416E-3
4.66483E-3	182.467E-12	635.720E-3	-6.29088E-3	183.703E-12	644.450E-3	-47.6164E-3
4.65983E-3	180.972E-12	623.261E-3	-10.8893E-3	183.398E-12	645.814E-3	-37.2446E-3
4.65483E-3	181.092E-12	644.692E-3	-8.59566E-3	183.687E-12	660.194E-3	-15.9108E-3
4.64982E-3	179.972E-12	659.991E-3	-8.25356E-3	184.674E-12	659.289E-3	-18.6846E-3
4.64482E-3	179.826E-12	635.371E-3	-28.3150E-3	185.641E-12	677.878E-3	-29.3117E-3
4.63982E-3	179.117E-12	637.614E-3	-37.9527E-3	185.737E-12	693.947E-3	-37.0651E-3
4.63482E-3	180.131E-12	657.854E-3	-27.1119E-3	185.146E-12	680.253E-3	-37.4355E-3
4.62981E-3	181.163E-12	641.170E-3	-24.7531E-3	185.174E-12	674.386E-3	-10.1250E-3
4.62481E-3	182.140E-12	628.945E-3	-35.2009E-3	185.611E-12	681.131E-3	4.19653E-3
4.61981E-3	182.417E-12	624.721E-3	-44.2010E-3	184.237E-12	666.207E-3	-10.0085E-3
4.61481E-3	183.116E-12	619.882E-3	-52.0916E-3	182.677E-12	640.558E-3	-11.7828E-3
4.60980E-3	184.071E-12	651.590E-3	-51.5350E-3	181.726E-12	638.719E-3	-12.8232E-3
4.60480E-3	184.309E-12	663.911E-3	-27.1421E-3	181.412E-12	638.009E-3	-23.5266E-3
4.59980E-3	184.502E-12	637.381E-3	4.51404E-3	179.275E-12	619.139E-3	-16.7771E-3
4.59480E-3	183.180E-12	627.825E-3	4.81232E-3	178.358E-12	617.788E-3	-1.60345E-3
4.58979E-3	182.262E-12	638.213E-3	-15.4905E-3	177.028E-12	650.207E-3	-5.65219E-3
4.58479E-3	183.008E-12	642.112E-3	-19.6240E-3	177.394E-12	660.873E-3	-13.4929E-3
4.57979E-3	183.166E-12	642.516E-3	-7.88347E-3	177.033E-12	643.745E-3	-8.13996E-3
4.57479E-3	181.668E-12	661.793E-3	-2.99831E-3	177.540E-12	647.637E-3	-9.43223E-3
4.56978E-3	180.905E-12	658.985E-3	-12.8725E-3	177.078E-12	654.282E-3	-27.4428E-3
4.56478E-3	181.102E-12	652.147E-3	-17.5869E-3	177.462E-12	649.001E-3	-38.8106E-3
4.55978E-3	180.979E-12	673.496E-3	-3.04362E-3	178.873E-12	655.817E-3	-39.1389E-3
4.55478E-3	180.680E-12	669.796E-3	21.4018E-3	179.276E-12	667.299E-3	-25.6088E-3
4.54977E-3	180.900E-12	654.929E-3	29.4309E-3	179.599E-12	677.896E-3	-7.72549E-3
4.54477E-3	180.739E-12	652.589E-3	8.43606E-3	180.031E-12	689.495E-3	5.54743E-3
4.53977E-3	180.831E-12	641.483E-3	-10.6484E-3	180.440E-12	684.821E-3	5.60513E-3
4.53477E-3	180.658E-12	627.644E-3	-15.9589E-3	180.896E-12	674.926E-3	-27.0818E-3
4.52976E-3	181.309E-12	627.033E-3	-18.5581E-3	180.612E-12	675.545E-3	-53.1436E-3
4.52476E-3	181.736E-12	632.263E-3	-2.07070E-3	179.394E-12	668.975E-3	-36.4966E-3
4.51976E-3	181.732E-12	616.296E-3	-8.93379E-3	179.012E-12	655.565E-3	-5.17800E-3
4.51476E-3	181.912E-12	602.679E-3	-34.9785E-3	179.982E-12	656.079E-3	4.27966E-3
4.50975E-3	181.654E-12	622.044E-3	-9.72309E-3	178.809E-12	666.141E-3	-3.98094E-3
4.50475E-3	181.518E-12	649.829E-3	7.32507E-3	177.822E-12	666.143E-3	-13.2188E-3
4.49975E-3	180.519E-12	676.347E-3	-3.11161E-3	177.082E-12	651.316E-3	-15.3720E-3
4.49475E-3	180.548E-12	696.492E-3	-8.13791E-3	178.275E-12	646.583E-3	-15.5138E-3
4.48974E-3	179.226E-12	691.686E-3	-23.3731E-3	179.135E-12	664.129E-3	-29.8859E-3
4.48474E-3	178.413E-12	681.749E-3	-16.7783E-3	179.164E-12	692.395E-3	-45.6815E-3
4.47974E-3	176.976E-12	674.259E-3	10.0799E-3	178.967E-12	699.601E-3	-45.8749E-3
4.47474E-3	176.586E-12	657.260E-3	-869.934E-6	179.828E-12	659.950E-3	-40.5005E-3
4.46973E-3	175.998E-12	657.738E-3	-37.9838E-3	180.601E-12	636.814E-3	-44.7079E-3
4.46473E-3	174.001E-12	674.648E-3	-48.8020E-3	180.473E-12	667.039E-3	-48.0446E-3
4.45973E-3	173.592E-12	672.558E-3	-37.1579E-3	179.259E-12	693.942E-3	-41.9168E-3
4.45473E-3	173.725E-12	656.971E-3	-40.1847E-3	178.409E-12	692.313E-3	-26.0431E-3
4.44972E-3	174.013E-12	651.876E-3	-49.8319E-3	177.877E-12	671.971E-3	-7.27632E-3
4.44472E-3	172.831E-12	657.404E-3	-41.8806E-3	177.965E-12	649.295E-3	-5.14469E-3
4.43972E-3	172.450E-12	664.061E-3	-45.0921E-3	175.827E-12	650.585E-3	-9.04733E-3
4.43472E-3	172.386E-12	664.233E-3	-47.0377E-3	173.884E-12	656.134E-3	-19.5639E-3
4.42971E-3	172.798E-12	637.688E-3	-25.3845E-3	173.574E-12	645.753E-3	-31.6938E-3
4.42471E-3	172.376E-12	619.012E-3	-21.3351E-3	174.035E-12	643.193E-3	-42.9659E-3
4.41971E-3	171.482E-12	639.560E-3	-23.6996E-3	173.712E-12	656.129E-3	-59.9724E-3
4.41471E-3	171.728E-12	640.431E-3	-3.60682E-3	171.856E-12	680.432E-3	-45.7246E-3
4.40970E-3	172.121E-12	625.334E-3	1.71848E-3	171.894E-12	687.065E-3	-11.1739E-3
4.40470E-3	173.128E-12	636.924E-3	-8.32745E-3	172.844E-12	677.580E-3	4.00705E-3
4.39970E-3	172.012E-12	657.232E-3	-24.6433E-3	173.373E-12	664.361E-3	-9.66974E-3
4.39470E-3	172.006E-12	663.137E-3	-42.4457E-3	173.091E-12	631.816E-3	-35.2341E-3
4.38969E-3	172.194E-12	659.269E-3	-45.8545E-3	173.096E-12	625.189E-3	-48.2997E-3
4.38469E-3	173.102E-12	638.732E-3	-44.5851E-3	173.709E-12	644.715E-3	-56.9988E-3
4.37969E-3	172.953E-12	613.325E-3	-37.4435E-3	173.849E-12	642.735E-3	-43.4641E-3
4.37469E-3	173.132E-12	616.617E-3	-24.4709E-3	174.142E-12	635.732E-3	-6.49177E-3
4.36968E-3	173.329E-12	646.394E-3	-21.9457E-3	173.101E-12	646.295E-3	-14.5852E-3
4.36468E-3	174.407E-12	668.119E-3	-48.2442E-3	172.514E-12	654.744E-3	-46.1595E-3
4.35968E-3	174.376E-12	667.840E-3	-68.2230E-3	171.640E-12	646.852E-3	-34.1143E-3
4.35468E-3	173.862E-12	657.999E-3	-48.8422E-3	170.644E-12	651.445E-3	-9.64248E-3
4.34967E-3	174.291E-12	655.316E-3	-25.1711E-3	169.261E-12	662.642E-3	-5.13937E-3
4.34467E-3	174.382E-12	675.518E-3	-22.7932E-3	168.362E-12	657.740E-3	-5.86024E-3
4.33967E-3	174.139E-12	686.493E-3	-31.0042E-3	167.612E-12	656.373E-3	-8.68645E-3
4.33467E-3	172.867E-12	674.270E-3	-34.3228E-3	167.734E-12	660.791E-3	-18.1756E-3
4.32966E-3	172.386E-12	666.482E-3	-32.0870E-3	167.579E-12	675.733E-3	-18.5693E-3
4.32466E-3	171.705E-12	661.682E-3	-35.7523E-3	166.800E-12	705.928E-3	-22.5004E-3
4.31966E-3	171.582E-12	653.250E-3	-36.3764E-3	167.183E-12	724.119E-3	-26.4949E-3
4.31466E-3	171.084E-12	653.436E-3	-26.4814E-3	168.064E-12	720.981E-3	-14.0751E-3
4.30965E-3	170.019E-12	651.970E-3	-15.4361E-3	169.709E-12	712.645E-3	-8.88541E-3
4.30465E-3	168.610E-12	649.175E-3	-8.20502E-3	170.834E-12	704.044E-3	-12.0843E-3
4.29965E-3	168.608E-12	669.979E-3	-25.7970E-3	171.115E-12	683.697E-3	-12.6663E-3
4.29465E-3	168.567E-12	701.124E-3	-44.3437E-3	172.187E-12	672.259E-3	-15.6251E-3
4.28964E-3	168.628E-12	681.171E-3	-30.2671E-3	172.872E-12	676.706E-3	-21.1246E-3
4.28464E-3	167.645E-12	640.644E-3	-29.9109E-3	173.303E-12	679.708E-3	-11.6237E-3
4.27964E-3	167.751E-12	640.945E-3	-39.7991E-3	171.718E-12	666.828E-3	13.1463E-3
4.27464E-3	168.829E-12	642.309E-3	-19.8241E-3	170.931E-12	643.966E-3	-3.26035E-3
4.26963E-3	169.276E-12	638.291E-3	-14.3855E-3	171.028E-12	641.019E-3	-39.5559E-3
4.26463E-3	168.627E-12	651.968E-3	-20.2382E-3	169.661E-12	660.915E-3	-41.5162E-3
4.25963E-3	167.469E-12	666.139E-3	-8.42498E-3	167.928E-12	668.789E-3	-36.0654E-3
4.25463E-3	168.221E-12	651.337E-3	-9.76331E-3	166.536E-12	653.364E-3	-29.2366E-3
4.24962E-3	167.650E-12	640.625E-3	-17.9909E-3	166.317E-12	645.728E-3	-17.5652E-3
4.24462E-3	166.469E-12	647.096E-3	-14.5431E-3	164.864E-12	652.339E-3	-6.91905E-3
4.23962E-3	164.770E-12	643.791E-3	-15.1473E-3	164.223E-12	657.307E-3	6.15520E-3
4.23462E-3	164.501E-12	647.529E-3	-32.5313E-3	164.160E-12	650.142E-3	13.6828E-3
4.22961E-3	164.636E-12	650.739E-3	-38.5622E-3	164.580E-12	640.854E-3	3.22319E-3
4.22461E-3	163.631E-12	656.416E-3	-19.3682E-3	164.843E-12	653.671E-3	-23.2271E-3
4.21961E-3	162.797E-12	667.685E-3	-3.68457E-3	165.261E-12	676.821E-3	-30.2203E-3
4.21461E-3	162.405E-12	653.851E-3	7.20085E-3	165.459E-12	687.105E-3	-23.4792E-3
4.20960E-3	162.503E-12	625.442E-3	25.9012E-3	165.572E-12	678.977E-3	-40.2808E-3
4.20460E-3	162.791E-12	628.036E-3	29.9783E-3	166.077E-12	661.720E-3	-53.5357E-3
4.19960E-3	162.743E-12	653.317E-3	11.0931E-3	165.521E-12	637.642E-3	-40.8788E-3
4.19460E-3	163.375E-12	646.243E-3	-6.24521E-3	165.677E-12	624.768E-3	-27.1457E-3
4.18959E-3	164.224E-12	619.405E-3	-6.49487E-3	164.997E-12	639.930E-3	-26.2074E-3
4.18459E-3	165.074E-12	626.775E-3	-11.9807E-3	164.526E-12	652.656E-3	-18.5204E-3
4.17959E-3	165.854E-12	653.861E-3	-39.0142E-3	163.517E-12	648.457E-3	-19.8151E-3
4.17459E-3	165.982E-12	660.546E-3	-52.2962E-3	163.170E-12	639.718E-3	-38.6167E-3
4.16958E-3	166.521E-12	654.523E-3	-40.6209E-3	162.198E-12	642.703E-3	-28.4644E-3
4.16458E-3	166.938E-12	647.414E-3	-28.0436E-3	161.750E-12	665.114E-3	-9.20204E-3
4.15958E-3	166.933E-12	651.788E-3	-24.8245E-3	161.299E-12	676.963E-3	-9.84750E-3
4.15458E-3	165.859E-12	656.854E-3	-16.7740E-3	161.453E-12	649.133E-3	-2.25716E-3
4.14957E-3	164.883E-12	654.327E-3	-7.23005E-3	160.486E-12	628.185E-3	1.58091E-3
4.14457E-3	164.764E-12	652.278E-3	-20.0571E-3	160.607E-12	641.557E-3	-6.79494E-3
4.13957E-3	163.977E-12	641.226E-3	-35.4431E-3	160.254E-12	672.823E-3	-17.3438E-3
4.13457E-3	163.123E-12	637.335E-3	-20.6875E-3	161.471E-12	702.943E-3	-32.6934E-3
4.12956E-3	161.858E-12	641.270E-3	2.38756E-3	161.824E-12	698.292E-3	-34.8967E-3
4.12456E-3	161.501E-12	639.816E-3	9.10362E-3	161.842E-12	670.032E-3	-30.0278E-3
4.11956E-3	160.804E-12	631.474E-3	16.4448E-3	161.863E-12	657.625E-3	-37.0546E-3
4.11456E-3	160.780E-12	634.854E-3	21.4560E-3	162.577E-12	666.259E-3	-25.0378E-3
4.10955E-3	160.569E-12	649.001E-3	30.6548E-3	162.184E-12	682.776E-3	2.51771E-3
4.10455E-3	159.848E-12	642.552E-3	32.1454E-3	161.902E-12	682.013E-3	16.9632E-3
4.09955E-3	160.218E-12	615.789E-3	12.9982E-3	161.236E-12	654.325E-3	21.7432E-3
4.09455E-3	160.649E-12	608.828E-3	14.3743E-3	160.983E-12	631.223E-3	3.65733E-3
4.08954E-3	160.479E-12	627.973E-3	11.9054E-3	160.714E-12	632.516E-3	-10.5071E-3
4.08454E-3	160.109E-12	635.614E-3	-16.0521E-3	160.385E-12	655.578E-3	-10.9556E-3
4.07954E-3	161.318E-12	644.190E-3	-28.9920E-3	160.552E-12	668.478E-3	-23.4685E-3
4.07454E-3	160.947E-12	661.156E-3	-32.6202E-3	159.990E-12	651.736E-3	-28.9900E-3
4.06953E-3	160.520E-12	674.607E-3	-36.6025E-3	160.067E-12	645.237E-3	-29.2854E-3
4.06453E-3	159.543E-12	688.910E-3	-39.4238E-3	160.258E-12	650.996E-3	-26.7487E-3
4.05953E-3	159.607E-12	682.488E-3	-53.9563E-3	160.020E-12	641.357E-3	-14.3918E-3
4.05453E-3	158.819E-12	661.511E-3	-51.0746E-3	160.088E-12	630.533E-3	-18.4337E-3
4.04952E-3	157.462E-12	662.392E-3	-17.6632E-3	159.927E-12	632.942E-3	-34.8153E-3
4.04452E-3	156.441E-12	665.067E-3	-2.46563E-3	160.511E-12	645.232E-3	-29.3510E-3
4.03952E-3	155.570E-12	653.591E-3	-18.9699E-3	160.065E-12	648.309E-3	-6.14574E-3
4.03452E-3	154.651E-12	644.784E-3	-30.2933E-3	159.591E-12	648.431E-3	879.796E-6
4.02951E-3	153.425E-12	636.241E-3	-25.6457E-3	159.516E-12	647.414E-3	-15.5451E-3
4.02451E-3	153.195E-12	632.580E-3	-14.5363E-3	158.673E-12	635.963E-3	-22.9736E-3
4.01951E-3	153.294E-12	640.142E-3	-18.9378E-3	158.219E-12	641.434E-3	-28.3907E-3
4.01451E-3	153.118E-12	631.409E-3	-39.4224E-3	157.246E-12	650.894E-3	-38.8432E-3
4.00950E-3	152.837E-12	605.641E-3	-53.7297E-3	156.575E-12	643.380E-3	-25.3157E-3
4.00450E-3	153.113E-12	598.051E-3	-56.3924E-3	155.299E-12	646.014E-3	-14.7905E-3
3.99950E-3	154.110E-12	614.048E-3	-47.0912E-3	155.466E-12	649.643E-3	-40.1895E-3
3.99450E-3	154.936E-12	628.048E-3	-45.6624E-3	154.476E-12	641.993E-3	-46.5067E-3
3.98949E-3	155.170E-12	633.977E-3	-57.4746E-3	154.118E-12	653.404E-3	-19.3536E-3
3.98449E-3	155.696E-12	641.909E-3	-60.3158E-3	153.871E-12	664.222E-3	-22.4939E-3
3.97949E-3	156.063E-12	647.430E-3	-36.9316E-3	154.050E-12	650.863E-3	-17.1196E-3
3.97449E-3	155.860E-12	660.224E-3	-9.57880E-3	154.432E-12	657.804E-3	19.5880E-3
3.96948E-3	155.968E-12	678.559E-3	-3.07517E-3	154.052E-12	680.536E-3	18.5038E-3
3.96448E-3	155.860E-12	694.976E-3	-5.93205E-3	154.015E-12	678.024E-3	-6.55613E-3
3.95948E-3	155.972E-12	691.888E-3	-14.4593E-3	154.518E-12	664.409E-3	-8.07592E-3
3.95448E-3	155.644E-12	655.706E-3	-13.6060E-3	155.186E-12	654.136E-3	6.95278E-3
3.94947E-3	155.323E-12	623.185E-3	-7.19378E-3	155.255E-12	651.622E-3	10.8896E-3
3.94447E-3	155.712E-12	635.814E-3	-10.3434E-3	155.061E-12	660.024E-3	-10.7882E-3
3.93947E-3	156.190E-12	681.309E-3	-18.5059E-3	155.201E-12	666.495E-3	-49.5222E-3
3.93447E-3	156.058E-12	693.724E-3	-25.8959E-3	154.703E-12	661.619E-3	-63.3379E-3
3.92946E-3	156.186E-12	666.935E-3	-29.3399E-3	154.740E-12	665.477E-3	-34.0496E-3
3.92446E-3	156.391E-12	648.330E-3	-19.3664E-3	154.067E-12	681.857E-3	-17.6293E-3
3.91946E-3	157.059E-12	641.218E-3	-4.65082E-3	153.411E-12	677.440E-3	-32.4332E-3
3.91446E-3	156.698E-12	630.289E-3	-13.1916E-3	152.305E-12	665.404E-3	-38.0875E-3
3.90945E-3	155.593E-12	632.047E-3	-31.6688E-3	152.650E-12	672.029E-3	-19.7816E-3
3.90445E-3	155.294E-12	635.412E-3	-27.2477E-3	151.884E-12	670.664E-3	-186.724E-6
3.89945E-3	154.528E-12	635.252E-3	-10.0942E-3	151.663E-12	648.933E-3	1.38607E-3
3.89445E-3	153.872E-12	657.679E-3	-5.42252E-3	151.879E-12	636.775E-3	-12.4647E-3
3.88944E-3	152.426E-12	681.397E-3	-3.17404E-3	151.973E-12	647.597E-3	-23.2390E-3
3.88444E-3	151.432E-12	686.263E-3	-2.60292E-3	151.660E-12	669.705E-3	-8.35967E-3
3.87944E-3	150.835E-12	681.916E-3	-7.21349E-3	151.789E-12	680.181E-3	1.55057E-3
3.87444E-3	150.372E-12	684.116E-3	-11.3156E-3	151.872E-12	668.369E-3	-5.74540E-3
3.86943E-3	149.026E-12	686.034E-3	-9.18094E-3	151.982E-12	660.938E-3	-2.72943E-3
3.86443E-3	148.204E-12	672.772E-3	-13.1649E-3	152.766E-12	669.744E-3	5.63546E-3
3.85943E-3	148.505E-12	659.945E-3	-14.9558E-3	152.150E-12	683.623E-3	-6.78589E-3
3.85443E-3	148.527E-12	661.838E-3	-2.11346E-3	152.286E-12	676.237E-3	-24.0337E-3
3.84942E-3	148.344E-12	664.412E-3	5.02961E-3	152.216E-12	648.902E-3	-23.2359E-3
3.84442E-3	147.752E-12	662.744E-3	4.67926E-3	152.351E-12	663.966E-3	-35.3080E-3
3.83942E-3	148.042E-12	658.964E-3	-6.85683E-3	151.346E-12	704.565E-3	-55.7623E-3
3.83442E-3	148.691E-12	655.165E-3	-31.4261E-3	150.971E-12	705.041E-3	-45.7112E-3
3.82941E-3	148.791E-12	661.461E-3	-42.6882E-3	150.509E-12	689.914E-3	-19.0227E-3
3.82441E-3	148.995E-12	668.134E-3	-22.7703E-3	149.170E-12	679.300E-3	-3.47000E-3
3.81941E-3	148.121E-12	676.299E-3	-7.02277E-3	149.048E-12	664.388E-3	-13.0870E-3
3.81441E-3	148.279E-12	668.921E-3	-2.14155E-3	148.124E-12	649.467E-3	-35.1759E-3
3.80940E-3	147.382E-12	650.229E-3	-3.91625E-3	147.527E-12	629.989E-3	-30.9193E-3
3.80440E-3	146.893E-12	647.717E-3	-22.5886E-3	146.750E-12	618.845E-3	-13.9704E-3
3.79940E-3	146.041E-12	661.464E-3	-18.9425E-3	146.649E-12	623.474E-3	-15.0792E-3
3.79440E-3	145.157E-12	681.880E-3	3.92576E-3	146.187E-12	636.212E-3	-25.0275E-3
3.78939E-3	144.441E-12	682.235E-3	9.20688E-3	146.052E-12	651.665E-3	-19.3876E-3
3.78439E-3	143.768E-12	668.658E-3	-1.45959E-3	146.065E-12	663.400E-3	2.46003E-3
3.77939E-3	143.811E-12	653.210E-3	-15.1477E-3	146.279E-12	666.507E-3	12.3291E-3
3.77439E-3	143.238E-12	637.454E-3	-21.7817E-3	146.527E-12	653.221E-3	2.93927E-3
3.76938E-3	144.143E-12	636.577E-3	-15.4486E-3	146.205E-12	634.275E-3	-3.97306E-3
3.76438E-3	144.445E-12	644.225E-3	-16.9786E-3	146.053E-12	622.095E-3	-9.05299E-3
3.75938E-3	144.630E-12	657.154E-3	-34.4950E-3	146.235E-12	628.056E-3	-19.2995E-3
3.75438E-3	145.612E-12	658.726E-3	-36.9794E-3	145.536E-12	642.316E-3	-20.9808E-3
3.74937E-3	146.985E-12	638.822E-3	-24.7325E-3	144.931E-12	655.367E-3	-17.8185E-3
3.74437E-3	148.035E-12	638.277E-3	-24.7323E-3	144.562E-12	668.835E-3	-23.7960E-3
3.73937E-3	148.037E-12	674.923E-3	-23.7931E-3	145.122E-12	671.857E-3	-27.4557E-3
3.73437E-3	148.386E-12	704.867E-3	-18.1034E-3	144.709E-12	685.372E-3	-22.3094E-3
3.72936E-3	148.727E-12	697.112E-3	-21.8770E-3	144.802E-12	686.228E-3	-30.8767E-3
3.72436E-3	148.941E-12	686.632E-3	-28.7750E-3	144.485E-12	643.882E-3	-45.8010E-3
3.71936E-3	147.504E-12	692.541E-3	-20.0089E-3	144.244E-12	623.695E-3	-43.4998E-3
3.71436E-3	146.238E-12	688.955E-3	7.50240E-3	143.726E-12	644.687E-3	-18.7418E-3
3.70935E-3	145.945E-12	678.679E-3	17.2499E-3	143.183E-12	645.927E-3	8.67371E-3
3.70435E-3	144.964E-12	673.857E-3	1.37964E-3	142.808E-12	635.580E-3	20.3292E-3
3.69935E-3	143.750E-12	675.575E-3	-20.5239E-3	143.454E-12	640.037E-3	4.90528E-3
3.69435E-3	142.742E-12	680.362E-3	-35.4166E-3	143.670E-12	653.049E-3	-12.1326E-3
3.68934E-3	141.844E-12	674.552E-3	-30.5154E-3	143.674E-12	654.754E-3	9.24701E-3
3.68434E-3	141.642E-12	660.577E-3	-22.3930E-3	143.967E-12	644.923E-3	17.1794E-3
3.67934E-3	140.782E-12	654.765E-3	-10.4024E-3	144.263E-12	646.071E-3	-4.51816E-3
3.67434E-3	140.847E-12	659.487E-3	6.48867E-3	144.364E-12	665.052E-3	-11.9899E-3
3.66933E-3	140.613E-12	665.693E-3	5.27355E-3	144.485E-12	675.660E-3	-21.9353E-3
3.66433E-3	140.727E-12	670.684E-3	-18.0061E-3	144.378E-12	664.877E-3	-37.6105E-3
3.65933E-3	141.171E-12	671.095E-3	-34.1297E-3	144.279E-12	661.563E-3	-31.6879E-3
3.65433E-3	142.072E-12	651.393E-3	-34.8620E-3	143.776E-12	666.001E-3	-14.8265E-3
3.64932E-3	141.719E-12	637.791E-3	-49.3231E-3	143.389E-12	663.402E-3	-12.8914E-3
3.64432E-3	141.771E-12	649.721E-3	-51.5240E-3	142.982E-12	653.028E-3	-8.78446E-3
3.63932E-3	141.585E-12	660.932E-3	-31.7037E-3	141.764E-12	650.422E-3	-11.1667E-3
3.63432E-3	140.232E-12	664.205E-3	-38.4727E-3	141.320E-12	658.647E-3	-45.4084E-3
3.62931E-3	140.202E-12	651.946E-3	-47.5604E-3	141.227E-12	656.794E-3	-53.9899E-3
3.62431E-3	139.564E-12	633.685E-3	-23.0791E-3	141.088E-12	650.447E-3	-22.0447E-3
3.61931E-3	137.924E-12	636.244E-3	-4.93983E-3	140.132E-12	657.242E-3	-10.5964E-3
3.61431E-3	137.371E-12	657.102E-3	3.80626E-3	139.677E-12	674.197E-3	-15.5497E-3
3.60930E-3	137.090E-12	667.771E-3	13.1492E-3	139.415E-12	686.079E-3	-10.4621E-3
3.60430E-3	136.506E-12	663.647E-3	-6.38213E-3	139.136E-12	674.356E-3	-7.61419E-3
3.59930E-3	135.663E-12	663.147E-3	-25.2712E-3	139.189E-12	658.319E-3	-3.14335E-3
3.59430E-3	135.483E-12	663.559E-3	14.5962E-6	139.026E-12	655.237E-3	-3.94185E-3
3.58929E-3	135.723E-12	661.151E-3	16.8708E-3	139.174E-12	658.749E-3	-20.0390E-3
3.58429E-3	135.642E-12	660.818E-3	-10.9731E-3	138.978E-12	674.127E-3	-20.3149E-3
3.57929E-3	135.197E-12	669.516E-3	-23.4190E-3	139.124E-12	688.502E-3	-2.06411E-3
3.57429E-3	136.356E-12	673.115E-3	-3.92738E-3	138.366E-12	683.651E-3	394.095E-6
3.56928E-3	136.969E-12	664.230E-3	-5.05355E-3	138.088E-12	665.048E-3	-6.77651E-3
3.56428E-3	137.678E-12	661.351E-3	-19.6594E-3	137.574E-12	660.560E-3	1.72758E-3
3.55928E-3	138.077E-12	662.827E-3	-29.2788E-3	137.169E-12	669.455E-3	24.7041E-3
3.55428E-3	138.482E-12	664.967E-3	-32.8340E-3	136.149E-12	661.515E-3	43.1504E-3
3.54927E-3	138.638E-12	665.443E-3	-17.4108E-3	136.118E-12	656.835E-3	36.4214E-3
3.54427E-3	138.447E-12	645.317E-3	-5.36223E-3	135.743E-12	671.922E-3	10.6603E-3
3.53927E-3	138.210E-12	635.724E-3	-8.12835E-3	135.782E-12	678.483E-3	-5.37708E-3
3.53427E-3	136.890E-12	661.746E-3	-22.0501E-3	134.886E-12	670.063E-3	-2.15656E-3
3.52926E-3	136.916E-12	678.634E-3	-36.4145E-3	134.965E-12	667.957E-3	11.2356E-3
3.52426E-3	136.233E-12	667.740E-3	-42.6447E-3	134.318E-12	669.962E-3	14.4217E-3
3.51926E-3	136.550E-12	664.120E-3	-24.3068E-3	134.681E-12	665.970E-3	1.74453E-3
3.51426E-3	135.518E-12	682.698E-3	16.5562E-3	134.839E-12	661.143E-3	-8.60095E-3
3.50925E-3	135.260E-12	701.727E-3	21.6707E-3	134.867E-12	652.743E-3	-4.67878E-3
3.50425E-3	134.906E-12	706.008E-3	3.49030E-3	134.448E-12	636.754E-3	4.33564E-3
3.49925E-3	135.253E-12	685.892E-3	1.05599E-3	134.619E-12	637.161E-3	-3.27828E-3
3.49425E-3	135.033E-12	666.829E-3	-11.0223E-3	134.827E-12	659.151E-3	-21.5684E-3
3.48924E-3	134.868E-12	678.350E-3	-26.3468E-3	134.459E-12	670.790E-3	-16.4532E-3
3.48424E-3	135.441E-12	691.286E-3	-15.1514E-3	133.741E-12	673.998E-3	-12.2617E-3
3.47924E-3	135.400E-12	677.965E-3	-16.8774E-3	133.426E-12	668.945E-3	-27.0341E-3
3.47424E-3	135.461E-12	673.499E-3	-42.7313E-3	133.346E-12	658.681E-3	-24.5279E-3
3.46923E-3	134.407E-12	698.708E-3	-44.7811E-3	133.307E-12	667.325E-3	-21.4948E-3
3.46423E-3	134.008E-12	710.048E-3	-34.0618E-3	132.709E-12	681.176E-3	-28.0522E-3
3.45923E-3	132.673E-12	693.385E-3	-34.0586E-3	132.773E-12	677.752E-3	-20.0653E-3
3.45423E-3	131.895E-12	667.652E-3	-18.2488E-3	132.602E-12	674.667E-3	-6.21231E-3
3.44922E-3	131.276E-12	645.001E-3	-8.08237E-3	132.422E-12	684.307E-3	-8.02289E-3
3.44422E-3	130.211E-12	639.967E-3	-12.5617E-3	131.637E-12	690.994E-3	-17.6720E-3
3.43922E-3	129.663E-12	647.243E-3	7.12150E-3	131.600E-12	680.973E-3	-20.4546E-3
3.43422E-3	128.836E-12	646.358E-3	17.4097E-3	131.486E-12	658.902E-3	-30.8695E-3
3.42921E-3	128.306E-12	640.978E-3	-2.01926E-3	132.222E-12	655.712E-3	-26.8872E-3
3.42421E-3	128.031E-12	644.300E-3	-4.07083E-3	131.723E-12	678.135E-3	-7.81041E-3
3.41921E-3	127.921E-12	643.063E-3	13.1587E-3	130.871E-12	685.255E-3	-20.5975E-3
3.41421E-3	128.182E-12	637.474E-3	15.9516E-3	131.253E-12	672.883E-3	-36.1574E-3
3.40920E-3	127.856E-12	651.802E-3	2.83316E-3	130.793E-12	677.975E-3	-24.8623E-3
3.40420E-3	128.597E-12	668.493E-3	-10.1509E-3	130.450E-12	683.553E-3	-11.4610E-3
3.39920E-3	128.418E-12	668.843E-3	-16.3897E-3	129.010E-12	673.923E-3	-13.8458E-3
3.39420E-3	129.667E-12	661.799E-3	-23.0368E-3	128.387E-12	675.699E-3	-18.3971E-3
3.38919E-3	129.170E-12	653.556E-3	-20.0125E-3	127.770E-12	670.626E-3	-9.29892E-3
3.38419E-3	129.750E-12	647.177E-3	-17.8708E-3	127.406E-12	657.411E-3	-3.57350E-3
3.37919E-3	129.484E-12	646.756E-3	-24.4039E-3	127.310E-12	664.846E-3	-23.8402E-3
3.37419E-3	129.606E-12	659.362E-3	-15.3242E-3	126.681E-12	671.336E-3	-50.8267E-3
3.36918E-3	129.271E-12	674.972E-3	-3.02461E-3	126.195E-12	661.235E-3	-53.0849E-3
3.36418E-3	128.640E-12	682.733E-3	1.54864E-3	126.609E-12	659.022E-3	-40.2697E-3
3.35918E-3	128.189E-12	686.058E-3	2.34615E-3	127.039E-12	673.992E-3	-27.8276E-3
3.35418E-3	127.087E-12	686.279E-3	-22.1301E-3	126.794E-12	685.555E-3	-15.9030E-3
3.34917E-3	126.992E-12	678.248E-3	-55.4802E-3	126.594E-12	694.872E-3	-4.24564E-3
3.34417E-3	126.552E-12	663.591E-3	-56.1153E-3	126.911E-12	701.441E-3	-16.6069E-3
3.33917E-3	126.695E-12	656.851E-3	-37.2272E-3	127.055E-12	682.342E-3	-38.4997E-3
3.33417E-3	126.433E-12	668.089E-3	-25.5040E-3	127.640E-12	652.562E-3	-41.4091E-3
3.32916E-3	126.831E-12	671.399E-3	-12.4830E-3	127.744E-12	648.631E-3	-34.3943E-3
3.32416E-3	127.387E-12	652.455E-3	5.87695E-3	127.019E-12	664.529E-3	-8.05343E-3
3.31916E-3	127.743E-12	654.418E-3	1.36664E-3	126.713E-12	671.710E-3	25.0318E-3
3.31416E-3	128.060E-12	664.953E-3	-27.2974E-3	127.014E-12	661.592E-3	26.6062E-3
3.30915E-3	128.064E-12	662.766E-3	-56.6462E-3	126.736E-12	643.894E-3	6.43156E-3
3.30415E-3	128.316E-12	668.616E-3	-63.5142E-3	125.698E-12	656.109E-3	1.34230E-3
3.29915E-3	128.691E-12	677.716E-3	-31.3719E-3	124.505E-12	675.740E-3	2.63620E-3
3.29415E-3	128.064E-12	688.464E-3	-3.84757E-3	124.152E-12	659.405E-3	-19.7714E-3
3.28914E-3	127.345E-12	703.046E-3	5.01636E-3	123.901E-12	652.298E-3	-47.4813E-3
3.28414E-3	125.755E-12	709.711E-3	4.43271E-3	123.625E-12	661.708E-3	-44.1080E-3
3.27914E-3	125.148E-12	699.167E-3	-5.77010E-3	123.246E-12	643.119E-3	-25.4607E-3
3.27414E-3	124.096E-12	685.265E-3	-2.30436E-3	123.069E-12	625.341E-3	-5.47174E-3
3.26913E-3	123.618E-12	665.853E-3	15.4432E-3	123.704E-12	638.457E-3	6.53890E-3
3.26413E-3	122.239E-12	659.693E-3	24.2387E-3	123.932E-12	654.681E-3	-16.8425E-3
3.25913E-3	121.308E-12	690.035E-3	13.4916E-3	124.112E-12	669.981E-3	-35.9670E-3
3.25413E-3	120.997E-12	706.246E-3	-3.69825E-3	124.033E-12	685.624E-3	-15.2329E-3
3.24912E-3	121.083E-12	677.698E-3	-18.9219E-3	124.349E-12	683.397E-3	-12.0087E-3
3.24412E-3	121.205E-12	641.870E-3	-13.0732E-3	124.745E-12	662.580E-3	-24.5988E-3
3.23912E-3	121.190E-12	634.264E-3	-4.98913E-3	123.887E-12	661.052E-3	-9.14975E-3
3.23412E-3	121.598E-12	645.611E-3	-16.7386E-3	123.772E-12	685.829E-3	8.44750E-3
3.22911E-3	122.072E-12	666.310E-3	-16.4624E-3	123.298E-12	687.376E-3	6.92642E-3
3.22411E-3	122.502E-12	681.289E-3	-7.00593E-3	122.999E-12	666.253E-3	-2.10157E-3
3.21911E-3	122.339E-12	662.925E-3	-11.1825E-3	122.176E-12	655.533E-3	-11.0875E-3
3.21411E-3	122.422E-12	653.273E-3	-22.8295E-3	121.508E-12	654.793E-3	-15.9007E-3
3.20910E-3	122.137E-12	678.995E-3	-35.3475E-3	120.700E-12	658.178E-3	-18.8124E-3
3.20410E-3	121.877E-12	682.418E-3	-33.6397E-3	119.957E-12	668.022E-3	-11.4388E-3
3.19910E-3	120.941E-12	661.454E-3	-22.5193E-3	119.283E-12	671.795E-3	-3.14178E-3
3.19410E-3	120.231E-12	668.298E-3	-10.2920E-3	118.673E-12	656.747E-3	-6.02308E-3
3.18909E-3	119.293E-12	679.249E-3	4.21271E-3	118.416E-12	645.768E-3	-14.5317E-3
3.18409E-3	118.353E-12	666.416E-3	-11.5515E-3	117.419E-12	649.025E-3	-27.1705E-3
3.17909E-3	117.964E-12	670.370E-3	-32.0634E-3	117.265E-12	648.963E-3	-15.9327E-3
3.17409E-3	116.669E-12	676.685E-3	-19.4543E-3	117.583E-12	649.913E-3	-4.84905E-3
3.16908E-3	116.325E-12	666.002E-3	-10.5363E-3	117.738E-12	655.373E-3	-16.2456E-3
3.16408E-3	116.165E-12	664.960E-3	-23.2475E-3	117.594E-12	665.759E-3	-21.2499E-3
3.15908E-3	116.580E-12	669.558E-3	-31.3281E-3	118.138E-12	692.214E-3	-21.9673E-3
3.15408E-3	116.743E-12	660.354E-3	-27.6784E-3	118.175E-12	718.750E-3	-23.0670E-3
3.14907E-3	116.659E-12	636.077E-3	-24.8333E-3	118.173E-12	706.183E-3	-19.5232E-3
3.14407E-3	117.776E-12	630.252E-3	-25.4182E-3	117.947E-12	682.985E-3	-23.8564E-3
3.13907E-3	118.322E-12	647.005E-3	-21.8566E-3	118.278E-12	685.624E-3	-49.4638E-3
3.13407E-3	119.446E-12	662.026E-3	-20.6005E-3	117.819E-12	683.649E-3	-64.3362E-3
3.12906E-3	119.163E-12	667.367E-3	-15.2802E-3	117.683E-12	683.615E-3	-40.6299E-3
3.12406E-3	119.575E-12	666.907E-3	-8.54479E-3	117.360E-12	690.030E-3	-11.8740E-3
3.11906E-3	119.748E-12	674.721E-3	-24.2386E-3	117.134E-12	687.983E-3	-4.12426E-3
3.11406E-3	119.988E-12	684.611E-3	-27.4853E-3	116.497E-12	687.071E-3	-5.31994E-3
3.10905E-3	119.244E-12	681.761E-3	-9.59287E-3	116.207E-12	684.785E-3	-5.63822E-3
3.10405E-3	118.236E-12	683.903E-3	-11.7078E-3	116.574E-12	678.718E-3	914.673E-6
3.09905E-3	117.609E-12	701.952E-3	-28.2511E-3	115.977E-12	685.011E-3	1.20657E-3
3.09405E-3	116.862E-12	703.469E-3	-35.5561E-3	116.047E-12	686.024E-3	-27.6805E-3
3.08904E-3	116.001E-12	685.405E-3	-35.9240E-3	115.931E-12	667.997E-3	-46.3657E-3
3.08404E-3	115.309E-12	685.051E-3	-32.0476E-3	115.992E-12	664.179E-3	-29.4536E-3
3.07904E-3	115.103E-12	683.196E-3	-13.9186E-3	116.096E-12	682.130E-3	-17.1541E-3
3.07404E-3	114.654E-12	652.730E-3	-1.85396E-3	115.986E-12	691.907E-3	-15.4887E-3
3.06903E-3	114.661E-12	636.294E-3	-8.09460E-3	116.338E-12	687.978E-3	-12.3262E-3
3.06403E-3	114.346E-12	650.385E-3	-11.2701E-3	116.529E-12	691.205E-3	-14.1396E-3
3.05903E-3	114.728E-12	675.656E-3	-9.28530E-3	116.614E-12	701.229E-3	-16.2313E-3
3.05403E-3	114.481E-12	686.000E-3	-8.23643E-3	116.390E-12	702.208E-3	-20.5251E-3
3.04902E-3	114.111E-12	666.377E-3	-7.42415E-3	116.027E-12	685.982E-3	-41.0751E-3
3.04402E-3	113.935E-12	652.739E-3	-16.0861E-3	115.819E-12	663.239E-3	-54.9387E-3
3.03902E-3	114.528E-12	669.906E-3	-12.4638E-3	115.169E-12	674.700E-3	-38.5814E-3
3.03402E-3	113.820E-12	693.866E-3	-4.85489E-3	114.708E-12	702.431E-3	-22.6838E-3
3.02901E-3	113.174E-12	706.169E-3	-23.1328E-3	114.090E-12	698.157E-3	-20.2612E-3
3.02401E-3	113.026E-12	706.999E-3	-29.3363E-3	113.361E-12	681.734E-3	-16.7223E-3
3.01901E-3	112.309E-12	687.382E-3	-5.39485E-3	113.183E-12	680.107E-3	-15.6274E-3
3.01401E-3	110.998E-12	662.623E-3	7.73029E-3	112.592E-12	689.581E-3	-20.9605E-3
3.00900E-3	110.234E-12	672.592E-3	-6.37312E-3	112.113E-12	710.025E-3	-21.3328E-3
3.00400E-3	109.716E-12	682.605E-3	-27.4770E-3	111.961E-12	721.087E-3	-15.5933E-3
2.99900E-3	109.041E-12	655.607E-3	-42.3583E-3	111.917E-12	701.146E-3	-5.03697E-3
2.99400E-3	108.957E-12	645.075E-3	-41.2466E-3	111.735E-12	677.470E-3	-5.04661E-3
2.98899E-3	109.378E-12	658.761E-3	-32.0742E-3	111.474E-12	689.100E-3	-23.1001E-3
2.98399E-3	109.411E-12	659.878E-3	-34.9874E-3	111.303E-12	705.896E-3	-27.2799E-3
2.97899E-3	109.280E-12	665.995E-3	-35.3593E-3	110.528E-12	692.578E-3	-10.3911E-3
2.97399E-3	109.409E-12	672.868E-3	-12.6404E-3	110.851E-12	685.565E-3	-6.68444E-3
2.96898E-3	110.601E-12	656.325E-3	12.0347E-3	110.469E-12	689.823E-3	-27.1973E-3
2.96398E-3	110.830E-12	646.443E-3	12.3669E-3	110.446E-12	686.008E-3	-30.1495E-3
2.95898E-3	110.769E-12	668.485E-3	1.34911E-3	109.420E-12	672.151E-3	-7.71218E-3
2.95398E-3	110.622E-12	701.545E-3	-3.19454E-3	109.540E-12	662.123E-3	-7.02591E-3
2.94897E-3	110.890E-12	717.938E-3	-11.8473E-3	109.257E-12	666.045E-3	-11.3939E-3
2.94397E-3	110.676E-12	708.186E-3	-29.4097E-3	108.634E-12	675.836E-3	10.8511E-3
2.93897E-3	109.554E-12	689.059E-3	-36.0399E-3	107.905E-12	687.290E-3	21.9581E-3
2.93397E-3	108.787E-12	674.862E-3	-29.1419E-3	107.525E-12	690.055E-3	-1.00541E-3
2.92896E-3	108.460E-12	670.730E-3	-24.9843E-3	107.387E-12	680.435E-3	-28.3167E-3
2.92396E-3	107.745E-12	683.814E-3	-24.4700E-3	107.443E-12	670.907E-3	-37.1576E-3
2.91896E-3	107.286E-12	691.863E-3	-23.0807E-3	107.145E-12	668.323E-3	-26.5304E-3
2.91396E-3	106.773E-12	690.024E-3	-16.9888E-3	106.859E-12	668.244E-3	-9.79116E-3
2.90895E-3	106.484E-12	684.556E-3	-15.3939E-3	107.394E-12	669.587E-3	-10.5069E-3
2.90395E-3	106.448E-12	687.284E-3	-18.8090E-3	107.423E-12	668.343E-3	-19.5774E-3
2.89895E-3	106.900E-12	694.982E-3	-17.1836E-3	107.434E-12	668.902E-3	-8.80926E-3
2.89395E-3	106.910E-12	688.273E-3	-15.5107E-3	107.097E-12	676.196E-3	-7.07570E-3
2.88894E-3	106.953E-12	680.096E-3	-17.7137E-3	107.299E-12	680.740E-3	-29.0152E-3
2.88394E-3	107.433E-12	689.997E-3	-24.2338E-3	106.684E-12	679.834E-3	-38.5244E-3
2.87894E-3	108.082E-12	709.629E-3	-36.8472E-3	105.787E-12	680.963E-3	-26.2810E-3
2.87394E-3	107.889E-12	711.533E-3	-46.5999E-3	106.011E-12	684.099E-3	-15.8121E-3
2.86893E-3	107.842E-12	691.216E-3	-42.0828E-3	105.849E-12	682.761E-3	-21.5929E-3
2.86393E-3	107.661E-12	674.080E-3	-32.7628E-3	105.583E-12	687.700E-3	-28.0805E-3
2.85893E-3	107.161E-12	680.869E-3	-24.3644E-3	104.971E-12	697.460E-3	-33.0735E-3
2.85393E-3	106.374E-12	706.128E-3	-13.8193E-3	104.916E-12	688.304E-3	-26.9628E-3
2.84892E-3	105.399E-12	720.159E-3	-13.2283E-3	104.849E-12	679.413E-3	-16.9926E-3
2.84392E-3	104.031E-12	706.775E-3	-24.0718E-3	104.385E-12	692.429E-3	-30.9290E-3
2.83892E-3	103.791E-12	696.535E-3	-24.0957E-3	104.242E-12	695.083E-3	-27.2643E-3
2.83392E-3	102.966E-12	702.260E-3	-13.7297E-3	104.342E-12	696.556E-3	-3.54202E-3
2.82891E-3	101.629E-12	700.009E-3	-23.2488E-3	104.349E-12	710.848E-3	-10.2537E-3
2.82391E-3	101.557E-12	690.032E-3	-55.1390E-3	104.373E-12	703.810E-3	-30.1995E-3
2.81891E-3	101.648E-12	683.064E-3	-52.6883E-3	104.419E-12	686.530E-3	-31.6296E-3
2.81391E-3	101.897E-12	666.817E-3	-19.4986E-3	104.396E-12	680.366E-3	-30.9906E-3
2.80890E-3	101.790E-12	647.471E-3	-9.24431E-3	103.943E-12	677.564E-3	-36.1882E-3
2.80390E-3	101.884E-12	649.364E-3	-13.9676E-3	103.671E-12	681.935E-3	-24.9957E-3
2.79890E-3	101.814E-12	665.130E-3	-15.8514E-3	103.609E-12	685.143E-3	-13.5178E-3
2.79390E-3	102.429E-12	673.161E-3	-26.4736E-3	103.337E-12	679.136E-3	-16.8698E-3
2.78889E-3	102.979E-12	677.481E-3	-29.7296E-3	102.507E-12	684.113E-3	-4.20595E-3
2.78389E-3	102.536E-12	689.972E-3	-21.3557E-3	101.838E-12	704.349E-3	4.52319E-3
2.77889E-3	102.870E-12	706.850E-3	-33.1485E-3	101.330E-12	709.567E-3	-14.8854E-3
2.77389E-3	102.476E-12	727.448E-3	-34.1515E-3	100.683E-12	693.718E-3	-24.7657E-3
2.76888E-3	102.643E-12	726.494E-3	-18.2126E-3	100.015E-12	680.436E-3	-15.5854E-3
2.76388E-3	101.504E-12	699.296E-3	-28.6641E-3	99.6304E-12	673.554E-3	-15.3527E-3
2.75888E-3	101.098E-12	689.609E-3	-49.6581E-3	99.4544E-12	676.862E-3	-16.1280E-3
2.75388E-3	100.049E-12	700.218E-3	-45.1365E-3	99.3235E-12	691.144E-3	-11.9838E-3
2.74887E-3	99.5602E-12	706.933E-3	-29.4785E-3	99.1055E-12	705.426E-3	-10.9273E-3
2.74387E-3	98.9855E-12	707.570E-3	-25.2714E-3	98.9957E-12	707.401E-3	-6.97668E-3
2.73887E-3	98.5341E-12	698.202E-3	-30.0967E-3	99.1359E-12	697.155E-3	-11.3016E-3
2.73387E-3	98.3808E-12	681.117E-3	-31.2206E-3	99.7635E-12	688.098E-3	-27.1068E-3
2.72886E-3	97.7057E-12	689.404E-3	-30.3153E-3	100.029E-12	693.419E-3	-38.8828E-3
2.72386E-3	98.1846E-12	697.631E-3	-22.1254E-3	100.111E-12	706.775E-3	-45.2194E-3
2.71886E-3	98.1510E-12	682.213E-3	1.57961E-3	99.9574E-12	708.964E-3	-48.8980E-3
2.71386E-3	98.6406E-12	679.608E-3	1.17509E-3	99.9049E-12	709.869E-3	-36.9716E-3
2.70885E-3	98.7397E-12	693.795E-3	-23.8224E-3	99.6726E-12	721.912E-3	-9.00331E-3
2.70385E-3	98.9943E-12	704.537E-3	-36.2227E-3	99.6717E-12	720.146E-3	10.0320E-3
2.69885E-3	99.2385E-12	710.573E-3	-21.7656E-3	98.9353E-12	708.708E-3	102.329E-6
2.69385E-3	99.3717E-12	708.166E-3	464.932E-6	98.1294E-12	718.899E-3	-26.2849E-3
2.68884E-3	99.1342E-12	691.132E-3	-254.290E-6	97.6191E-12	730.989E-3	-39.9608E-3
2.68384E-3	98.6183E-12	684.281E-3	-5.96164E-3	97.0096E-12	727.417E-3	-36.8053E-3
2.67884E-3	98.5421E-12	696.184E-3	-6.91234E-3	96.5947E-12	724.646E-3	-25.9101E-3
2.67384E-3	98.0852E-12	711.198E-3	-21.9545E-3	96.4734E-12	714.297E-3	-14.1125E-3
2.66883E-3	97.8364E-12	710.318E-3	-24.4679E-3	95.8372E-12	691.964E-3	-15.7287E-3
2.66383E-3	97.2324E-12	703.723E-3	2.50024E-3	96.0221E-12	683.796E-3	-38.0042E-3
2.65883E-3	96.5569E-12	707.056E-3	10.1423E-3	96.1219E-12	694.855E-3	-54.8300E-3
2.65383E-3	95.8426E-12	725.613E-3	-4.68931E-3	96.4885E-12	700.878E-3	-34.4348E-3
2.64882E-3	95.5096E-12	743.496E-3	-18.7456E-3	96.0030E-12	693.915E-3	2.73171E-3
2.64382E-3	95.1941E-12	727.853E-3	-35.5423E-3	96.2101E-12	699.638E-3	11.0821E-3
2.63882E-3	94.7445E-12	691.820E-3	-28.0987E-3	96.4248E-12	711.089E-3	-6.97759E-3
2.63382E-3	94.3448E-12	670.329E-3	-4.57652E-3	96.6576E-12	717.491E-3	-8.91702E-3
2.62881E-3	94.4372E-12	673.512E-3	-2.80921E-3	96.5341E-12	722.800E-3	1.11805E-3
2.62381E-3	94.7473E-12	686.420E-3	-10.6894E-3	96.2452E-12	712.423E-3	-2.27367E-3
2.61881E-3	94.5200E-12	707.448E-3	-9.30315E-3	95.5027E-12	691.972E-3	-7.30179E-3
2.61381E-3	93.8742E-12	726.866E-3	-3.56827E-3	94.8688E-12	683.154E-3	-13.2504E-3
2.60880E-3	93.6325E-12	714.581E-3	-1.72772E-3	94.5223E-12	679.264E-3	-25.1161E-3
2.60380E-3	93.6276E-12	696.887E-3	-6.85025E-3	93.4050E-12	680.329E-3	-24.2185E-3
2.59880E-3	93.3524E-12	687.539E-3	-9.30472E-3	92.4028E-12	702.885E-3	-7.83391E-3
2.59380E-3	92.8737E-12	684.330E-3	-6.63773E-3	91.7593E-12	723.373E-3	-5.55991E-3
2.58879E-3	92.2373E-12	696.857E-3	-3.72293E-3	91.4667E-12	725.362E-3	-15.3376E-3
2.58379E-3	91.6118E-12	708.050E-3	5.41990E-3	91.0002E-12	715.384E-3	-8.52514E-3
2.57879E-3	91.3940E-12	712.439E-3	4.40141E-3	90.1149E-12	687.089E-3	9.76952E-3
2.57379E-3	90.8968E-12	702.564E-3	-10.1629E-3	89.8790E-12	664.748E-3	19.2685E-3
2.56878E-3	90.0306E-12	678.414E-3	-6.83894E-3	89.9760E-12	673.246E-3	9.28611E-3
2.56378E-3	89.6387E-12	672.528E-3	-5.06217E-3	90.2814E-12	690.525E-3	-10.0629E-3
2.55878E-3	89.7453E-12	701.305E-3	-9.79453E-3	90.0859E-12	716.109E-3	-15.3780E-3
2.55378E-3	90.1424E-12	728.962E-3	-2.29403E-3	90.1051E-12	753.680E-3	-15.5335E-3
2.54877E-3	89.7167E-12	721.791E-3	-15.5892E-3	90.3775E-12	760.597E-3	-12.3173E-3
2.54377E-3	89.4328E-12	701.657E-3	-40.2074E-3	90.8313E-12	732.652E-3	1.05231E-3
2.53877E-3	89.9701E-12	704.487E-3	-35.8435E-3	90.6341E-12	717.408E-3	779.027E-6
2.53377E-3	90.7420E-12	725.162E-3	-29.1560E-3	90.5464E-12	711.073E-3	-17.5891E-3
2.52876E-3	90.7614E-12	740.646E-3	-36.0518E-3	89.8306E-12	699.144E-3	-25.7460E-3
2.52376E-3	90.5952E-12	741.971E-3	-23.9423E-3	89.8815E-12	704.247E-3	-14.0823E-3
2.51876E-3	90.1914E-12	735.393E-3	-8.59085E-3	89.4749E-12	721.403E-3	-13.3973E-3
2.51376E-3	90.2672E-12	732.559E-3	-15.4840E-3	88.9509E-12	727.845E-3	-27.2042E-3
2.50875E-3	89.6865E-12	735.869E-3	-22.0300E-3	88.3051E-12	734.711E-3	-35.7523E-3
2.50375E-3	89.3543E-12	744.940E-3	-27.1892E-3	88.1951E-12	740.093E-3	-31.9679E-3
2.49875E-3	88.7970E-12	759.243E-3	-40.1195E-3	87.8625E-12	718.545E-3	-10.6409E-3
2.49375E-3	88.5206E-12	743.092E-3	-41.0992E-3	87.2623E-12	699.607E-3	1.42657E-3
2.48874E-3	87.9330E-12	695.059E-3	-24.7530E-3	86.7516E-12	704.111E-3	-12.5030E-3
2.48374E-3	87.6408E-12	681.987E-3	-11.0830E-3	86.8692E-12	702.096E-3	-10.0613E-3
2.47874E-3	87.0839E-12	708.649E-3	-6.58971E-3	86.8173E-12	700.017E-3	13.7491E-3
2.47374E-3	86.4487E-12	727.995E-3	-5.59212E-3	86.5791E-12	717.082E-3	15.2380E-3
2.46873E-3	86.5105E-12	719.559E-3	-9.93749E-3	86.4925E-12	735.043E-3	-915.876E-6
2.46373E-3	86.8107E-12	706.067E-3	-8.79326E-3	86.4604E-12	749.643E-3	-6.79274E-3
2.45873E-3	86.5013E-12	725.266E-3	-5.28485E-3	86.3859E-12	755.650E-3	-9.53841E-3
2.45373E-3	86.1808E-12	749.273E-3	-24.1527E-3	86.5447E-12	730.373E-3	-14.0993E-3
2.44872E-3	86.3870E-12	739.694E-3	-40.7377E-3	86.7652E-12	716.419E-3	-15.9482E-3
2.44372E-3	86.5387E-12	733.287E-3	-28.9948E-3	86.4659E-12	742.395E-3	-17.2012E-3
2.43872E-3	86.0913E-12	745.306E-3	-16.4231E-3	86.5238E-12	761.406E-3	-13.9041E-3
2.43372E-3	85.6867E-12	747.466E-3	-16.1593E-3	86.2879E-12	754.715E-3	-6.13568E-3
2.42871E-3	85.4041E-12	733.706E-3	-7.68694E-3	86.2798E-12	743.638E-3	-18.1874E-3
2.42371E-3	85.1054E-12	716.491E-3	249.137E-6	86.2077E-12	746.314E-3	-50.5265E-3
2.41871E-3	84.0998E-12	717.661E-3	-5.99167E-3	85.5257E-12	743.246E-3	-44.3676E-3
2.41371E-3	83.5327E-12	721.685E-3	557.390E-6	84.8953E-12	725.632E-3	-8.01906E-3
2.40870E-3	83.4707E-12	711.932E-3	17.3180E-3	84.5935E-12	724.670E-3	-1.47447E-3
2.40370E-3	82.8776E-12	708.868E-3	23.1020E-3	83.9556E-12	737.958E-3	-4.38557E-3
2.39870E-3	82.1877E-12	718.321E-3	9.52758E-3	83.8158E-12	741.438E-3	12.3733E-3
2.39370E-3	81.4419E-12	728.996E-3	-10.3519E-3	83.5153E-12	731.553E-3	18.4125E-3
2.38869E-3	81.8110E-12	735.773E-3	-11.3182E-3	83.1935E-12	713.500E-3	-3.04762E-3
2.38369E-3	81.6730E-12	730.262E-3	-966.805E-6	82.7654E-12	708.927E-3	-31.0450E-3
2.37869E-3	81.6647E-12	717.838E-3	1.06156E-3	82.9279E-12	725.552E-3	-39.7185E-3
2.37369E-3	81.3265E-12	711.759E-3	-10.0844E-3	82.4025E-12	729.916E-3	-32.3074E-3
2.36868E-3	81.7022E-12	702.021E-3	-23.0440E-3	82.0156E-12	726.010E-3	-33.0055E-3
2.36368E-3	82.2361E-12	694.764E-3	-28.8144E-3	81.6189E-12	731.666E-3	-43.9243E-3
2.35868E-3	82.1883E-12	713.754E-3	-30.7462E-3	81.3923E-12	730.136E-3	-37.1676E-3
2.35368E-3	82.0301E-12	744.538E-3	-20.7348E-3	81.2463E-12	716.673E-3	-15.1138E-3
2.34867E-3	81.8790E-12	747.045E-3	991.873E-6	80.6479E-12	708.704E-3	-16.8668E-3
2.34367E-3	81.8153E-12	727.967E-3	3.22638E-3	80.2938E-12	706.776E-3	-27.6673E-3
2.33867E-3	81.4344E-12	724.663E-3	-13.2703E-3	80.2594E-12	712.829E-3	-33.0722E-3
2.33367E-3	81.1860E-12	743.097E-3	-26.3667E-3	80.0447E-12	738.381E-3	-40.6297E-3
2.32866E-3	80.2116E-12	754.659E-3	-12.6865E-3	79.7613E-12	748.929E-3	-34.5151E-3
2.32366E-3	80.1124E-12	745.616E-3	7.40995E-3	79.4351E-12	740.441E-3	-14.4901E-3
2.31866E-3	79.6414E-12	724.448E-3	3.50014E-3	79.0086E-12	739.110E-3	-2.90363E-3
2.31366E-3	79.2311E-12	716.535E-3	-9.33161E-3	78.9666E-12	729.359E-3	-8.32396E-3
2.30865E-3	78.8117E-12	733.350E-3	-13.2596E-3	79.2119E-12	737.010E-3	-5.66715E-3
2.30365E-3	78.3290E-12	747.117E-3	-18.5328E-3	78.9647E-12	772.484E-3	179.479E-6
2.29865E-3	78.1558E-12	741.679E-3	-31.3588E-3	78.6397E-12	782.332E-3	-5.07286E-3
2.29365E-3	78.0113E-12	734.589E-3	-24.9016E-3	78.6331E-12	753.398E-3	-105.966E-6
2.28864E-3	78.1419E-12	731.701E-3	-11.4963E-3	78.6363E-12	727.736E-3	7.44762E-3
2.28364E-3	77.7984E-12	735.418E-3	-8.30681E-3	78.3370E-12	728.256E-3	470.921E-6
2.27864E-3	78.2986E-12	741.526E-3	-4.03225E-3	78.0122E-12	741.753E-3	-5.55507E-3
2.27364E-3	78.2966E-12	734.943E-3	3.98794E-3	77.5276E-12	754.214E-3	-1.37368E-3
2.26863E-3	78.4133E-12	736.647E-3	1.89535E-3	77.5269E-12	746.167E-3	-12.5480E-3
2.26363E-3	78.4449E-12	746.868E-3	-15.5420E-3	77.1709E-12	722.420E-3	-39.4817E-3
2.25863E-3	78.1553E-12	739.939E-3	-25.5266E-3	76.7968E-12	724.607E-3	-43.4124E-3
2.25363E-3	78.1041E-12	734.266E-3	-27.4257E-3	75.9925E-12	747.815E-3	-21.8549E-3
2.24862E-3	77.8820E-12	749.775E-3	-28.5023E-3	75.8314E-12	752.756E-3	-203.735E-6
2.24362E-3	77.2880E-12	756.684E-3	-22.2285E-3	75.9128E-12	741.762E-3	-6.46851E-3
2.23862E-3	76.3938E-12	745.978E-3	-22.4890E-3	75.8328E-12	730.067E-3	-25.8801E-3
2.23362E-3	76.0918E-12	743.284E-3	-30.8305E-3	75.7171E-12	731.026E-3	-25.1307E-3
2.22861E-3	75.8027E-12	741.660E-3	-30.4238E-3	75.4814E-12	748.309E-3	-17.6121E-3
2.22361E-3	75.1466E-12	736.103E-3	-32.1893E-3	75.2236E-12	756.942E-3	-14.7262E-3
2.21861E-3	74.3813E-12	740.432E-3	-36.2242E-3	75.4533E-12	750.923E-3	-11.6085E-3
2.21361E-3	74.0446E-12	755.329E-3	-22.6046E-3	75.3087E-12	757.482E-3	-19.2201E-3
2.20860E-3	74.1225E-12	766.489E-3	-10.8842E-3	74.9041E-12	772.742E-3	-26.4041E-3
2.20360E-3	73.5497E-12	771.077E-3	-19.3811E-3	74.6577E-12	764.588E-3	-14.7785E-3
2.19860E-3	73.2834E-12	765.571E-3	-15.7240E-3	74.5109E-12	745.228E-3	-2.89975E-3
2.19360E-3	73.1542E-12	747.260E-3	2.19961E-3	74.6438E-12	744.460E-3	-13.8562E-3
2.18859E-3	73.6603E-12	745.744E-3	1.82642E-3	73.9582E-12	739.615E-3	-25.9485E-3
2.18359E-3	73.4715E-12	757.197E-3	-7.23010E-3	73.1894E-12	726.490E-3	-15.1801E-3
2.17859E-3	73.4080E-12	748.763E-3	-7.84017E-3	73.0310E-12	733.743E-3	-14.9674E-3
2.17359E-3	73.0716E-12	741.271E-3	-13.7894E-3	72.6956E-12	742.323E-3	-27.0104E-3
2.16858E-3	73.3063E-12	756.290E-3	-17.5523E-3	72.0060E-12	737.405E-3	-17.7140E-3
2.16358E-3	72.9142E-12	766.875E-3	-25.8537E-3	70.7984E-12	735.368E-3	-10.8989E-3
2.15858E-3	72.4474E-12	759.301E-3	-36.1775E-3	70.5830E-12	730.987E-3	-31.6576E-3
2.15358E-3	72.0910E-12	762.995E-3	-23.2798E-3	70.3538E-12	726.430E-3	-39.8824E-3
2.14857E-3	71.4602E-12	772.320E-3	-18.3479E-3	70.1943E-12	746.516E-3	-21.1435E-3
2.14357E-3	70.7989E-12	762.180E-3	-25.6008E-3	69.6522E-12	762.110E-3	-17.0673E-3
2.13857E-3	70.3431E-12	759.870E-3	-8.32522E-3	69.5932E-12	749.087E-3	-28.9486E-3
2.13357E-3	69.9895E-12	765.692E-3	-170.027E-6	69.8992E-12	750.123E-3	-38.3030E-3
2.12856E-3	69.4217E-12	766.446E-3	-22.5247E-3	70.1810E-12	770.096E-3	-39.8979E-3
2.12356E-3	69.0567E-12	764.955E-3	-30.2206E-3	69.9776E-12	772.568E-3	-27.5667E-3
2.11856E-3	68.6990E-12	761.334E-3	-28.2643E-3	69.6845E-12	756.117E-3	-17.4820E-3
2.11356E-3	68.5187E-12	761.613E-3	-31.1055E-3	69.8985E-12	754.772E-3	-18.8272E-3
2.10855E-3	68.1044E-12	766.950E-3	-29.6169E-3	69.9192E-12	771.267E-3	-23.3737E-3
2.10355E-3	68.5005E-12	770.325E-3	-20.2961E-3	69.7697E-12	785.721E-3	-26.4012E-3
2.09855E-3	68.7485E-12	766.603E-3	-11.1645E-3	69.2381E-12	789.238E-3	-19.0433E-3
2.09355E-3	68.5340E-12	771.850E-3	-9.31577E-3	68.9555E-12	782.489E-3	-5.53944E-3
2.08854E-3	68.6019E-12	781.724E-3	-8.21143E-3	68.6300E-12	775.177E-3	-5.90579E-3
2.08354E-3	68.6934E-12	791.069E-3	-23.6810E-3	68.2598E-12	773.268E-3	-18.0477E-3
2.07854E-3	68.6627E-12	807.967E-3	-45.7596E-3	67.7875E-12	773.525E-3	-25.0024E-3
2.07354E-3	68.1941E-12	816.058E-3	-45.1293E-3	67.2539E-12	771.175E-3	-21.3502E-3
2.06853E-3	67.8974E-12	803.482E-3	-32.6134E-3	66.9530E-12	764.013E-3	-14.6272E-3
2.06353E-3	67.3494E-12	792.364E-3	-26.6106E-3	66.2573E-12	763.914E-3	-12.5563E-3
2.05853E-3	66.9147E-12	789.971E-3	-27.8012E-3	66.1133E-12	789.237E-3	-12.4286E-3
2.05353E-3	66.3809E-12	791.450E-3	-23.2680E-3	65.9757E-12	817.242E-3	-4.89352E-3
2.04852E-3	65.8321E-12	807.477E-3	-5.20346E-3	65.4744E-12	816.088E-3	7.45239E-3
2.04352E-3	65.5260E-12	821.648E-3	6.88465E-3	65.3373E-12	794.910E-3	9.91090E-3
2.03852E-3	64.9799E-12	812.557E-3	-3.48609E-3	65.5764E-12	784.320E-3	-4.79336E-3
2.03352E-3	64.5180E-12	795.107E-3	-8.15554E-3	65.9056E-12	787.844E-3	-19.5343E-3
2.02851E-3	64.2850E-12	776.294E-3	380.816E-6	65.4321E-12	792.168E-3	-18.2221E-3
2.02351E-3	63.9459E-12	759.128E-3	-10.7233E-3	65.3485E-12	803.244E-3	-19.1359E-3
2.01851E-3	63.5854E-12	771.981E-3	-29.4057E-3	65.2412E-12	815.367E-3	-29.1315E-3
2.01351E-3	63.3229E-12	795.178E-3	-30.4648E-3	65.2527E-12	814.834E-3	-30.0578E-3
2.00850E-3	63.0413E-12	790.546E-3	-30.7284E-3	64.9175E-12	809.019E-3	-28.1527E-3
2.00350E-3	63.0733E-12	782.888E-3	-31.9268E-3	64.3043E-12	804.624E-3	-24.2160E-3
1.99850E-3	63.0727E-12	796.988E-3	-17.9996E-3	63.9103E-12	795.786E-3	-12.5487E-3
1.99350E-3	63.0212E-12	799.819E-3	-11.4095E-3	63.6603E-12	797.269E-3	-8.60569E-3
1.98849E-3	62.6593E-12	783.334E-3	-17.7074E-3	62.8739E-12	816.354E-3	-24.1505E-3
1.98349E-3	62.2976E-12	781.342E-3	-18.9601E-3	62.4312E-12	831.098E-3	-41.8443E-3
1.97849E-3	61.9468E-12	795.384E-3	-18.2188E-3	62.0662E-12	824.489E-3	-35.9272E-3
1.97349E-3	61.7267E-12	804.442E-3	-26.9047E-3	61.9008E-12	803.236E-3	-24.8108E-3
1.96848E-3	61.1454E-12	806.639E-3	-37.3496E-3	61.1955E-12	797.958E-3	-20.8870E-3
1.96348E-3	60.6221E-12	809.417E-3	-40.7309E-3	60.9087E-12	818.187E-3	-16.5231E-3
1.95848E-3	60.3418E-12	805.357E-3	-41.5129E-3	60.5766E-12	824.232E-3	-23.0482E-3
1.95348E-3	60.2487E-12	795.511E-3	-31.7281E-3	60.3508E-12	810.467E-3	-23.8437E-3
1.94847E-3	60.3977E-12	789.343E-3	-23.0514E-3	60.4613E-12	823.618E-3	-6.36345E-3
1.94347E-3	60.0137E-12	794.850E-3	-21.1180E-3	60.2928E-12	841.957E-3	-2.83005E-3
1.93847E-3	59.6345E-12	814.152E-3	-18.2164E-3	59.9312E-12	826.327E-3	-6.42170E-3
1.93347E-3	59.6417E-12	822.920E-3	-18.3165E-3	59.5036E-12	817.486E-3	-2.03251E-3
1.92846E-3	59.9101E-12	814.763E-3	-20.6847E-3	59.6485E-12	832.979E-3	-8.12466E-3
1.92346E-3	59.8500E-12	812.224E-3	-25.0921E-3	59.6016E-12	839.360E-3	-13.9199E-3
1.91846E-3	59.6217E-12	807.781E-3	-21.7049E-3	58.9501E-12	826.490E-3	-3.67849E-3
1.91346E-3	59.1063E-12	801.665E-3	-11.9277E-3	58.5939E-12	812.112E-3	-4.81742E-3
1.90845E-3	59.0569E-12	821.237E-3	-12.3922E-3	58.3238E-12	824.139E-3	-21.1675E-3
1.90345E-3	59.0474E-12	850.844E-3	-8.42030E-3	58.3725E-12	855.829E-3	-24.0059E-3
1.89845E-3	58.4579E-12	867.607E-3	-3.42244E-3	57.7258E-12	868.076E-3	-17.0938E-3
1.89345E-3	58.0762E-12	873.799E-3	-12.7896E-3	57.0673E-12	847.151E-3	-8.43826E-3
1.88844E-3	57.3991E-12	858.198E-3	-20.3633E-3	56.7431E-12	828.112E-3	-7.81615E-3
1.88344E-3	57.0319E-12	839.768E-3	-24.7120E-3	56.8704E-12	835.988E-3	-21.0242E-3
1.87844E-3	56.5579E-12	847.897E-3	-22.1083E-3	56.4914E-12	852.750E-3	-30.3911E-3
1.87344E-3	56.0599E-12	860.879E-3	-16.0281E-3	55.9378E-12	877.791E-3	-28.5026E-3
1.86843E-3	55.7923E-12	854.938E-3	-19.5609E-3	55.8731E-12	890.385E-3	-29.3134E-3
1.86343E-3	55.3986E-12	844.120E-3	-29.9673E-3	55.6463E-12	876.949E-3	-31.0758E-3
1.85843E-3	55.3302E-12	842.208E-3	-39.0929E-3	55.8251E-12	871.629E-3	-32.3462E-3
1.85343E-3	54.9057E-12	847.078E-3	-39.0929E-3	55.4155E-12	886.884E-3	-39.8203E-3
1.84842E-3	54.9303E-12	862.374E-3	-33.8743E-3	55.0254E-12	905.421E-3	-31.2888E-3
1.84342E-3	54.7143E-12	873.239E-3	-24.2331E-3	54.8110E-12	898.655E-3	-7.02957E-3
1.83842E-3	54.7026E-12	863.814E-3	-12.9361E-3	55.1321E-12	883.673E-3	-5.80525E-3
1.83342E-3	54.5909E-12	859.759E-3	-14.4838E-3	55.0747E-12	886.759E-3	-22.6617E-3
1.82841E-3	54.6746E-12	872.502E-3	-14.9900E-3	54.7159E-12	885.803E-3	-26.5823E-3
1.82341E-3	54.3014E-12	878.695E-3	1.01750E-3	54.3540E-12	889.553E-3	-20.3952E-3
1.81841E-3	53.6481E-12	885.731E-3	11.1077E-3	53.8735E-12	896.742E-3	-22.7116E-3
1.81341E-3	53.3139E-12	896.983E-3	893.938E-6	53.6237E-12	892.614E-3	-23.5855E-3
1.80840E-3	53.0991E-12	889.866E-3	-18.0596E-3	53.3984E-12	897.084E-3	-17.7734E-3
1.80340E-3	52.4755E-12	886.776E-3	-25.1673E-3	52.7510E-12	905.962E-3	-24.5091E-3
1.79840E-3	51.5931E-12	902.014E-3	-17.9013E-3	52.0304E-12	905.613E-3	-29.3850E-3
1.79340E-3	51.4998E-12	906.805E-3	-588.292E-6	51.8160E-12	897.343E-3	-25.4731E-3
1.78839E-3	50.9391E-12	904.335E-3	5.45714E-3	51.8607E-12	899.052E-3	-33.0327E-3
1.78339E-3	50.4701E-12	908.912E-3	-12.0238E-3	51.2865E-12	921.159E-3	-43.9910E-3
1.77839E-3	50.2152E-12	903.239E-3	-15.3729E-3	50.8045E-12	940.381E-3	-45.7426E-3
1.77339E-3	49.9100E-12	891.719E-3	-7.96964E-3	50.5650E-12	941.205E-3	-39.2557E-3
1.76838E-3	49.7163E-12	899.675E-3	-13.0575E-3	50.3590E-12	927.241E-3	-29.4695E-3
1.76338E-3	49.6447E-12	911.521E-3	-18.2934E-3	50.1124E-12	912.387E-3	-23.6372E-3
1.75838E-3	49.5118E-12	911.902E-3	-27.9447E-3	49.3738E-12	916.333E-3	-19.7079E-3
1.75338E-3	49.2430E-12	922.096E-3	-36.0680E-3	48.8422E-12	929.401E-3	-15.0863E-3
1.74837E-3	49.1366E-12	924.255E-3	-18.1354E-3	48.6567E-12	939.887E-3	-16.4178E-3
1.74337E-3	49.1912E-12	911.917E-3	-1.75055E-3	48.4826E-12	944.918E-3	-24.4499E-3
1.73837E-3	48.7883E-12	921.044E-3	-8.57451E-3	47.9052E-12	940.001E-3	-30.2444E-3
1.73337E-3	48.5226E-12	950.147E-3	-6.44471E-3	47.6405E-12	943.047E-3	-27.7574E-3
1.72836E-3	48.1961E-12	963.358E-3	305.838E-6	47.2986E-12	957.883E-3	-24.7588E-3
1.72336E-3	47.7730E-12	952.823E-3	-8.87431E-3	46.8529E-12	968.413E-3	-18.7859E-3
1.71836E-3	47.2292E-12	947.957E-3	-9.39046E-3	46.6167E-12	967.795E-3	-8.58289E-3
1.71336E-3	46.9151E-12	956.901E-3	-5.42747E-3	46.4145E-12	958.034E-3	-14.6912E-3
1.70835E-3	46.3212E-12	962.938E-3	-18.5784E-3	45.8620E-12	955.426E-3	-24.1859E-3
1.70335E-3	45.7156E-12	964.796E-3	-34.7290E-3	45.5908E-12	974.395E-3	-23.8911E-3
1.69835E-3	45.5375E-12	962.995E-3	-33.6437E-3	45.3636E-12	993.721E-3	-27.8113E-3
1.69335E-3	45.1046E-12	959.660E-3	-27.5464E-3	45.0591E-12	995.812E-3	-29.2335E-3
1.68834E-3	44.7538E-12	965.831E-3	-40.3771E-3	45.1251E-12	1.00021E+0	-21.1742E-3
1.68334E-3	44.6148E-12	967.101E-3	-41.7527E-3	44.8568E-12	1.00959E+0	-17.2397E-3
1.67834E-3	44.2277E-12	973.661E-3	-28.0695E-3	44.3056E-12	1.01054E+0	-27.8112E-3
1.67334E-3	44.0941E-12	998.733E-3	-25.9080E-3	44.1254E-12	1.00519E+0	-29.8059E-3
1.66833E-3	43.9757E-12	1.01454E+0	-17.5768E-3	43.9694E-12	1.00515E+0	-18.3806E-3
1.66333E-3	43.9811E-12	1.02056E+0	-5.05579E-3	43.5985E-12	1.01196E+0	-22.0298E-3
1.65833E-3	43.6207E-12	1.02295E+0	-6.30966E-3	43.1377E-12	1.02281E+0	-26.8359E-3
1.65333E-3	43.4910E-12	1.01267E+0	-15.6772E-3	42.7239E-12	1.04197E+0	-20.3236E-3
1.64832E-3	43.1666E-12	1.00859E+0	-21.9755E-3	42.3547E-12	1.05228E+0	-26.1941E-3
1.64332E-3	43.1233E-12	1.01713E+0	-11.5025E-3	42.0271E-12	1.04287E+0	-35.5949E-3
1.63832E-3	42.5836E-12	1.03150E+0	4.20481E-3	41.7936E-12	1.03600E+0	-25.7666E-3
1.63332E-3	42.3015E-12	1.04705E+0	-974.706E-6	41.3590E-12	1.04359E+0	-14.5373E-3
1.62831E-3	41.8320E-12	1.04776E+0	-9.80925E-3	40.9592E-12	1.05472E+0	-12.6528E-3
1.62331E-3	41.0335E-12	1.03957E+0	-8.57677E-3	40.8809E-12	1.06874E+0	-5.02936E-3
1.61831E-3	40.4162E-12	1.03162E+0	-14.4105E-3	40.5207E-12	1.08862E+0	3.04817E-3
1.61331E-3	40.0537E-12	1.03499E+0	-21.7260E-3	40.2101E-12	1.10142E+0	11.4250E-3
1.60830E-3	39.5103E-12	1.04613E+0	-16.6437E-3	39.8503E-12	1.10640E+0	17.8366E-3
1.60330E-3	39.0396E-12	1.05187E+0	-15.3136E-3	39.7490E-12	1.10240E+0	12.6745E-3
1.59830E-3	38.5476E-12	1.06009E+0	-28.0908E-3	39.3860E-12	1.09134E+0	2.05292E-3
1.59330E-3	38.2341E-12	1.06638E+0	-36.6493E-3	39.0225E-12	1.09476E+0	-1.51065E-3
1.58829E-3	38.2943E-12	1.06092E+0	-36.5476E-3	38.8288E-12	1.10778E+0	528.992E-6
1.58329E-3	37.7810E-12	1.05295E+0	-30.5111E-3	38.3703E-12	1.11557E+0	-9.45739E-3
1.57829E-3	37.4614E-12	1.06214E+0	-24.8875E-3	38.0591E-12	1.11598E+0	-15.7940E-3
1.57329E-3	37.0995E-12	1.07829E+0	-17.8840E-3	37.4852E-12	1.12305E+0	-5.67220E-3
1.56828E-3	36.8470E-12	1.07881E+0	-10.8665E-3	36.9248E-12	1.12917E+0	-11.3297E-3
1.56328E-3	36.4228E-12	1.08517E+0	-13.2127E-3	36.4068E-12	1.11874E+0	-20.1994E-3
1.55828E-3	36.0427E-12	1.10307E+0	-17.8345E-3	36.0729E-12	1.12302E+0	-6.70975E-3
1.55328E-3	35.8555E-12	1.10667E+0	-18.0541E-3	35.6867E-12	1.13747E+0	-1.72234E-3
1.54827E-3	35.5014E-12	1.11040E+0	-11.8475E-3	35.1035E-12	1.13203E+0	-11.1703E-3
1.54327E-3	35.0125E-12	1.11712E+0	-4.15163E-3	34.5367E-12	1.12022E+0	-14.8828E-3
1.53827E-3	34.6577E-12	1.12583E+0	-14.2336E-3	34.0765E-12	1.11939E+0	-23.8203E-3
1.53327E-3	34.1329E-12	1.13990E+0	-33.8534E-3	33.7632E-12	1.12813E+0	-36.4542E-3
1.52826E-3	33.7193E-12	1.13209E+0	-28.2525E-3	33.2644E-12	1.14378E+0	-33.0392E-3
1.52326E-3	33.2535E-12	1.11932E+0	-11.5558E-3	32.8923E-12	1.16286E+0	-24.0029E-3
1.51826E-3	32.8098E-12	1.12788E+0	-8.52985E-3	32.4970E-12	1.16586E+0	-25.5521E-3
1.51326E-3	32.3800E-12	1.13672E+0	-6.77460E-3	32.4521E-12	1.15521E+0	-17.3928E-3
1.50825E-3	32.1136E-12	1.13370E+0	-7.43747E-3	32.2968E-12	1.15769E+0	-10.9263E-3
1.50325E-3	31.6714E-12	1.13420E+0	-22.7264E-3	31.8422E-12	1.16451E+0	-22.7081E-3
1.49825E-3	31.4466E-12	1.13763E+0	-33.3670E-3	31.5375E-12	1.16466E+0	-17.0409E-3
1.49325E-3	31.0577E-12	1.13837E+0	-30.7118E-3	31.2399E-12	1.16564E+0	2.09209E-3
1.48824E-3	30.7246E-12	1.14270E+0	-28.7806E-3	31.0771E-12	1.16197E+0	248.091E-6
1.48324E-3	30.2698E-12	1.15109E+0	-17.3797E-3	30.6942E-12	1.15988E+0	-16.0825E-3
1.47824E-3	30.0901E-12	1.16378E+0	-4.07207E-3	30.0368E-12	1.16848E+0	-20.0069E-3
1.47324E-3	29.5516E-12	1.17762E+0	-10.4888E-3	29.7212E-12	1.17704E+0	-17.2786E-3
1.46823E-3	29.1898E-12	1.17803E+0	-18.6284E-3	29.2726E-12	1.17841E+0	-15.4779E-3
1.46323E-3	28.7850E-12	1.17038E+0	-17.5707E-3	28.9123E-12	1.17442E+0	-13.3058E-3
1.45823E-3	28.5448E-12	1.17419E+0	-21.5142E-3	28.3662E-12	1.16584E+0	-24.3676E-3
1.45323E-3	27.9866E-12	1.18098E+0	-21.0363E-3	27.8484E-12	1.16532E+0	-27.4557E-3
1.44822E-3	27.5161E-12	1.16950E+0	-14.7065E-3	27.3259E-12	1.17206E+0	-16.7733E-3
1.44322E-3	26.8802E-12	1.15575E+0	-13.0413E-3	27.0201E-12	1.16037E+0	-19.2855E-3
1.43822E-3	26.6088E-12	1.15692E+0	-5.43855E-3	26.6771E-12	1.15254E+0	-15.3591E-3
1.43322E-3	26.3663E-12	1.15704E+0	-5.02979E-3	26.3708E-12	1.17876E+0	-3.65709E-3
1.42821E-3	25.9029E-12	1.16084E+0	-20.4738E-3	25.9283E-12	1.19075E+0	-7.09475E-3
1.42321E-3	25.5811E-12	1.16521E+0	-29.0361E-3	25.6880E-12	1.17095E+0	-20.7815E-3
1.41821E-3	25.1552E-12	1.15042E+0	-22.3532E-3	25.3944E-12	1.16019E+0	-29.8815E-3
1.41321E-3	24.9739E-12	1.14799E+0	-8.86703E-3	25.0072E-12	1.15132E+0	-30.0648E-3
1.40820E-3	24.5930E-12	1.16719E+0	-406.224E-6	24.7761E-12	1.14454E+0	-25.6458E-3
1.40320E-3	24.1659E-12	1.16628E+0	-4.49153E-3	24.3853E-12	1.14924E+0	-17.0955E-3
1.39820E-3	23.7642E-12	1.15540E+0	-12.0510E-3	24.0235E-12	1.15141E+0	-13.6331E-3
1.39320E-3	23.5901E-12	1.16405E+0	-12.9951E-3	23.5038E-12	1.15077E+0	-10.7081E-3
1.38819E-3	23.0668E-12	1.16526E+0	-17.1160E-3	23.0585E-12	1.14252E+0	-2.96373E-3
1.38319E-3	22.6086E-12	1.14686E+0	-29.9876E-3	22.7742E-12	1.12420E+0	-12.1743E-3
1.37819E-3	22.1755E-12	1.14282E+0	-28.8179E-3	22.3779E-12	1.10373E+0	-30.4382E-3
1.37319E-3	21.9222E-12	1.14648E+0	-17.6956E-3	21.9683E-12	1.09245E+0	-22.5091E-3
1.36818E-3	21.4721E-12	1.12819E+0	-20.0090E-3	21.4339E-12	1.08684E+0	3.27306E-3
1.36318E-3	20.9368E-12	1.11286E+0	-17.5349E-3	20.9434E-12	1.06852E+0	7.13190E-3
1.35818E-3	20.5803E-12	1.10399E+0	-3.62492E-3	20.6600E-12	1.04233E+0	-132.752E-6
1.35318E-3	20.3269E-12	1.08846E+0	-5.59484E-3	20.3287E-12	1.03369E+0	-1.81597E-3
1.34817E-3	19.8166E-12	1.09070E+0	-26.8011E-3	19.7726E-12	1.04167E+0	-14.4994E-3
1.34317E-3	19.5377E-12	1.09565E+0	-36.0094E-3	19.3981E-12	1.04245E+0	-23.7876E-3
1.33817E-3	19.3103E-12	1.08597E+0	-32.2985E-3	19.1896E-12	1.02647E+0	-22.7721E-3
1.33317E-3	19.0460E-12	1.07706E+0	-27.0507E-3	18.9967E-12	1.01201E+0	-21.4416E-3
1.32816E-3	18.8118E-12	1.07115E+0	-13.1956E-3	18.6386E-12	1.01298E+0	-21.8898E-3
1.32316E-3	18.4999E-12	1.04841E+0	-5.25916E-3	18.2130E-12	1.00897E+0	-21.2919E-3
1.31816E-3	18.2146E-12	1.02449E+0	-1.98728E-3	17.7941E-12	980.728E-3	-8.30244E-3
1.31316E-3	18.0478E-12	1.02214E+0	2.15299E-3	17.5787E-12	952.865E-3	1.73649E-3
1.30815E-3	17.6158E-12	1.03042E+0	-9.55362E-3	17.3559E-12	942.037E-3	-10.4190E-3
1.30315E-3	17.2921E-12	1.03470E+0	-17.2151E-3	16.9506E-12	935.760E-3	-26.1996E-3
1.29815E-3	17.0825E-12	1.01569E+0	-9.66371E-3	16.4695E-12	926.747E-3	-27.3180E-3
1.29315E-3	16.8201E-12	980.098E-3	-20.0411E-3	16.2802E-12	919.047E-3	-25.7347E-3
1.28814E-3	16.3490E-12	963.506E-3	-38.0443E-3	16.1153E-12	910.299E-3	-31.8826E-3
1.28314E-3	16.0163E-12	962.611E-3	-35.0145E-3	15.6914E-12	894.078E-3	-34.1830E-3
1.27814E-3	15.7025E-12	951.761E-3	-29.1571E-3	15.3086E-12	877.832E-3	-24.4835E-3
1.27314E-3	15.2724E-12	935.669E-3	-28.8017E-3	15.0644E-12	852.957E-3	-8.22730E-3
1.26813E-3	14.7976E-12	921.102E-3	-19.7621E-3	14.7867E-12	829.993E-3	-2.01406E-3
1.26313E-3	14.4755E-12	905.637E-3	-8.01109E-3	14.5595E-12	818.124E-3	-7.00267E-3
1.25813E-3	14.1977E-12	882.117E-3	-5.28410E-3	14.2725E-12	802.991E-3	-7.19059E-3
1.25313E-3	13.9104E-12	854.750E-3	-13.1529E-3	13.9204E-12	788.241E-3	-7.27877E-3
1.24812E-3	13.5762E-12	820.733E-3	-23.1177E-3	13.7004E-12	781.890E-3	-7.36891E-3
1.24312E-3	13.3657E-12	801.302E-3	-26.1082E-3	13.4943E-12	774.549E-3	-6.28814E-3
1.23812E-3	13.2251E-12	812.409E-3	-19.4170E-3	13.3141E-12	754.023E-3	-12.4262E-3
1.23312E-3	13.0353E-12	811.249E-3	-14.7518E-3	13.0689E-12	733.091E-3	-15.4990E-3
1.22811E-3	12.7727E-12	785.094E-3	-16.4101E-3	12.7408E-12	712.145E-3	-11.2636E-3
1.22311E-3	12.5767E-12	759.528E-3	-8.90581E-3	12.5075E-12	687.614E-3	-16.1522E-3
1.21811E-3	12.3969E-12	740.492E-3	-8.20465E-3	12.3004E-12	673.912E-3	-20.2744E-3
1.21311E-3	12.1668E-12	727.343E-3	-24.7718E-3	12.0368E-12	669.376E-3	-19.2751E-3
1.20810E-3	11.8735E-12	721.892E-3	-34.1914E-3	11.6989E-12	657.753E-3	-21.5759E-3
1.20310E-3	11.6955E-12	708.652E-3	-27.4390E-3	11.4562E-12	637.233E-3	-21.0878E-3
1.19810E-3	11.4876E-12	689.239E-3	-22.9695E-3	11.2945E-12	616.636E-3	-23.4987E-3
1.19310E-3	11.1618E-12	670.358E-3	-21.4551E-3	11.1453E-12	589.896E-3	-26.3329E-3
1.18809E-3	11.0024E-12	651.003E-3	-11.6144E-3	10.8021E-12	565.152E-3	-15.7249E-3
1.18309E-3	10.7605E-12	632.972E-3	-11.4295E-3	10.5952E-12	552.692E-3	-6.56367E-3
1.17809E-3	10.4116E-12	618.777E-3	-14.0163E-3	10.4430E-12	543.080E-3	-10.5356E-3
1.17309E-3	10.2289E-12	605.065E-3	-5.73811E-3	10.2739E-12	526.216E-3	-8.72885E-3
1.16808E-3	9.95292E-12	585.222E-3	-9.37591E-3	10.0401E-12	508.191E-3	-2.21411E-3
1.16308E-3	9.68411E-12	569.197E-3	-19.3071E-3	9.83297E-12	498.790E-3	-3.50565E-3
1.15808E-3	9.58913E-12	553.622E-3	-17.3938E-3	9.69938E-12	484.032E-3	-5.50602E-3
1.15308E-3	9.36521E-12	535.152E-3	-6.67600E-3	9.52584E-12	463.075E-3	-1.04391E-3
1.14807E-3	9.14737E-12	524.962E-3	-4.22472E-3	9.36430E-12	452.854E-3	-209.935E-6
1.14307E-3	9.21640E-12	511.233E-3	-15.8788E-3	9.17759E-12	448.814E-3	-5.48755E-3
1.13807E-3	9.08259E-12	484.818E-3	-23.6113E-3	8.91145E-12	432.323E-3	-7.73088E-3
1.13307E-3	8.82355E-12	467.500E-3	-31.8876E-3	8.85665E-12	404.075E-3	-14.3464E-3
1.12806E-3	8.81949E-12	454.243E-3	-33.2149E-3	8.69650E-12	384.800E-3	-19.9468E-3
1.12306E-3	8.74220E-12	432.050E-3	-14.9637E-3	8.45508E-12	376.316E-3	-19.7597E-3
1.11806E-3	8.52939E-12	423.778E-3	-7.87165E-3	8.34925E-12	364.624E-3	-25.9312E-3
1.11306E-3	8.38408E-12	422.963E-3	-14.8572E-3	8.22948E-12	341.343E-3	-29.1675E-3
1.10805E-3	8.24068E-12	408.752E-3	-17.9190E-3	8.13948E-12	323.036E-3	-23.0258E-3
1.10305E-3	8.15609E-12	389.896E-3	-26.7521E-3	7.94757E-12	322.317E-3	-23.8819E-3
1.09805E-3	8.02183E-12	364.570E-3	-29.7363E-3	7.83535E-12	317.687E-3	-22.8756E-3
1.09305E-3	7.78922E-12	339.168E-3	-11.7388E-3	7.73519E-12	301.675E-3	-11.0625E-3
1.08804E-3	7.63647E-12	333.816E-3	6.06282E-3	7.63165E-12	284.948E-3	-16.6254E-3
1.08304E-3	7.58736E-12	336.653E-3	4.17512E-3	7.50745E-12	276.914E-3	-27.5807E-3
1.07804E-3	7.57654E-12	331.702E-3	-11.4726E-3	7.50591E-12	269.898E-3	-19.3701E-3
1.07304E-3	7.37222E-12	320.619E-3	-24.5844E-3	7.41253E-12	261.093E-3	-13.3873E-3
1.06803E-3	7.27269E-12	311.275E-3	-18.2999E-3	7.27586E-12	262.154E-3	-14.3484E-3
1.06303E-3	7.21040E-12	297.084E-3	-689.114E-6	7.23055E-12	252.214E-3	-12.0956E-3
1.05803E-3	7.07121E-12	277.480E-3	-22.6794E-6	7.22292E-12	231.638E-3	-9.86177E-3
1.05303E-3	7.04189E-12	262.588E-3	-13.3120E-3	7.05241E-12	219.416E-3	-2.10403E-3
1.04802E-3	6.93822E-12	250.750E-3	-23.6653E-3	6.91798E-12	210.884E-3	7.69756E-3
1.04302E-3	7.03685E-12	237.171E-3	-30.4570E-3	6.99027E-12	204.520E-3	1.32608E-3
1.03802E-3	6.88761E-12	228.493E-3	-22.7960E-3	6.87741E-12	186.443E-3	-10.1421E-3
1.03302E-3	6.72707E-12	220.060E-3	-6.43713E-3	6.70572E-12	161.906E-3	-13.0283E-3
1.02801E-3	6.55077E-12	209.487E-3	1.76613E-3	6.44679E-12	152.289E-3	-19.8987E-3
1.02301E-3	6.52780E-12	212.816E-3	135.751E-6	6.27022E-12	145.458E-3	-32.0550E-3
1.01801E-3	6.34737E-12	213.330E-3	-8.80947E-3	6.28170E-12	132.907E-3	-30.4350E-3
1.01301E-3	6.20248E-12	205.966E-3	-16.9592E-3	6.32084E-12	131.488E-3	-20.8359E-3
1.00800E-3	6.20650E-12	201.851E-3	-21.7288E-3	6.06083E-12	134.822E-3	-22.5397E-3
1.00300E-3	6.18105E-12	182.848E-3	-23.9840E-3	6.02139E-12	130.548E-3	-14.5331E-3
997.999E-6	6.04370E-12	152.996E-3	-21.5768E-3	6.11029E-12	133.206E-3	-1.45149E-3
992.997E-6	5.95342E-12	140.723E-3	-14.2351E-3	6.09016E-12	141.631E-3	-7.56478E-3
987.994E-6	6.02851E-12	146.835E-3	-11.4299E-3	6.00958E-12	135.947E-3	-22.2282E-3
982.991E-6	6.04719E-12	148.928E-3	-23.4750E-3	5.96004E-12	112.566E-3	-27.4476E-3
977.989E-6	5.96528E-12	138.876E-3	-38.2592E-3	5.93336E-12	90.8471E-3	-22.3226E-3
972.986E-6	5.92587E-12	129.338E-3	-26.4991E-3	5.94017E-12	86.5694E-3	-21.2021E-3
967.984E-6	5.88363E-12	116.833E-3	-12.8584E-3	5.89156E-12	95.7040E-3	-22.2540E-3
962.981E-6	5.87935E-12	105.620E-3	-17.1506E-3	5.87937E-12	101.752E-3	-21.6515E-3
957.979E-6	5.85927E-12	107.584E-3	-12.9744E-3	5.76035E-12	98.1957E-3	-24.0596E-3
952.976E-6	5.77191E-12	103.594E-3	-9.53760E-3	5.73067E-12	92.4957E-3	-18.6551E-3
947.974E-6	5.73076E-12	97.7533E-3	-13.9177E-3	5.70716E-12	88.2831E-3	-11.8546E-3
942.971E-6	5.68104E-12	101.919E-3	-7.61809E-3	5.67607E-12	85.2593E-3	-8.96324E-3
937.969E-6	5.60887E-12	98.2101E-3	-5.76167E-3	5.61538E-12	82.2878E-3	3.99867E-3
932.966E-6	5.64638E-12	93.7715E-3	-20.5707E-3	5.51735E-12	81.5940E-3	9.74554E-3
927.964E-6	5.69198E-12	99.6180E-3	-18.1140E-3	5.45099E-12	80.6652E-3	-3.84868E-3
922.961E-6	5.56358E-12	108.588E-3	-8.41636E-3	5.51507E-12	79.1441E-3	-13.1801E-3
917.959E-6	5.48470E-12	108.238E-3	-15.9972E-3	5.55691E-12	82.2320E-3	-11.2094E-3
912.956E-6	5.50363E-12	91.1645E-3	-18.6067E-3	5.36150E-12	77.9032E-3	-8.13542E-3
907.954E-6	5.47621E-12	69.8808E-3	-14.0599E-3	5.30672E-12	67.0770E-3	-9.98429E-3
902.951E-6	5.42167E-12	58.0202E-3	-17.8904E-3	5.40097E-12	53.9848E-3	-13.3414E-3
897.949E-6	5.39027E-12	61.2333E-3	-19.1520E-3	5.49615E-12	41.3433E-3	-13.6994E-3
892.946E-6	5.42228E-12	65.4371E-3	-10.9546E-3	5.33493E-12	43.2867E-3	-16.9505E-3
887.944E-6	5.50173E-12	59.4307E-3	-14.4049E-3	5.24278E-12	45.1732E-3	-22.7876E-3
882.941E-6	5.48926E-12	59.1527E-3	-26.0151E-3	5.29798E-12	35.1020E-3	-30.6662E-3
877.939E-6	5.41463E-12	65.9332E-3	-30.2430E-3	5.38390E-12	22.2257E-3	-30.1362E-3
872.936E-6	5.44155E-12	66.5917E-3	-32.0529E-3	5.30842E-12	22.5234E-3	-16.7546E-3
867.934E-6	5.50008E-12	63.4400E-3	-33.3136E-3	5.27334E-12	40.9796E-3	-17.2952E-3
862.931E-6	5.34194E-12	56.3330E-3	-28.6347E-3	5.26274E-12	42.8007E-3	-28.5574E-3
857.929E-6	5.38926E-12	43.6114E-3	-19.2483E-3	5.27094E-12	30.6464E-3	-31.8763E-3
852.926E-6	5.37773E-12	40.8883E-3	-19.2806E-3	5.19522E-12	28.1694E-3	-30.6423E-3
847.924E-6	5.25980E-12	48.7837E-3	-25.8718E-3	5.13634E-12	24.8062E-3	-22.8670E-3
842.921E-6	5.16844E-12	45.0791E-3	-19.9087E-3	5.10420E-12	24.4802E-3	-14.5947E-3
837.919E-6	5.26170E-12	36.4720E-3	-7.80035E-3	5.09327E-12	28.4616E-3	-19.9043E-3
832.916E-6	5.15235E-12	31.9458E-3	-5.25290E-3	5.11217E-12	33.1803E-3	-27.0459E-3
827.914E-6	5.10442E-12	35.8388E-3	-9.39982E-3	5.16212E-12	35.1715E-3	-23.2549E-3
822.911E-6	5.07670E-12	49.8723E-3	-15.6806E-3	5.09676E-12	34.2117E-3	-19.8357E-3
817.909E-6	5.02938E-12	47.2575E-3	-20.2656E-3	4.99234E-12	36.0904E-3	-11.6381E-3
812.906E-6	5.16571E-12	31.9812E-3	-16.4764E-3	5.04682E-12	44.7772E-3	3.77108E-3
807.904E-6	5.13415E-12	38.1677E-3	-6.07847E-3	5.15082E-12	53.5758E-3	5.01958E-3
802.901E-6	4.98291E-12	58.3116E-3	3.83159E-3	5.08144E-12	42.6620E-3	-5.90875E-3
797.899E-6	5.06694E-12	52.5692E-3	4.61155E-3	4.99568E-12	33.4290E-3	-12.2719E-3
792.896E-6	5.09123E-12	27.4571E-3	-11.8668E-3	4.93916E-12	41.2443E-3	-21.3602E-3
787.894E-6	5.08426E-12	23.1096E-3	-21.5210E-3	5.06850E-12	41.9980E-3	-35.3955E-3
782.891E-6	4.99961E-12	33.4456E-3	-13.8990E-3	5.09125E-12	44.2947E-3	-29.4564E-3
777.889E-6	5.09094E-12	38.3395E-3	-18.1739E-3	4.96053E-12	60.8936E-3	-6.18078E-3
772.886E-6	5.05617E-12	42.1273E-3	-30.6371E-3	4.87325E-12	69.3865E-3	10.5884E-3
767.884E-6	5.04468E-12	45.4974E-3	-26.9599E-3	5.00898E-12	60.6233E-3	10.3271E-3
762.881E-6	4.97943E-12	48.4294E-3	-12.9398E-3	5.04462E-12	54.2188E-3	705.837E-6
757.879E-6	4.98617E-12	56.1547E-3	-6.80580E-3	4.82697E-12	47.9472E-3	-4.75247E-3
752.876E-6	4.91833E-12	62.2731E-3	-9.51889E-3	4.79957E-12	41.2026E-3	-5.60934E-3
747.874E-6	4.84594E-12	54.8184E-3	-20.2447E-3	4.87807E-12	48.7369E-3	-8.95421E-3
742.871E-6	4.82103E-12	45.3824E-3	-30.8726E-3	4.88423E-12	58.4398E-3	-19.8881E-3
737.869E-6	4.82675E-12	46.3548E-3	-34.1093E-3	4.88019E-12	54.9848E-3	-24.6953E-3
732.866E-6	4.82586E-12	43.3724E-3	-35.5411E-3	4.77834E-12	50.0091E-3	-21.4146E-3
727.864E-6	4.71275E-12	39.9757E-3	-35.6739E-3	4.76851E-12	47.1460E-3	-25.9703E-3
722.861E-6	4.77173E-12	41.7785E-3	-32.3363E-3	4.84867E-12	42.7009E-3	-34.3332E-3
717.859E-6	4.86916E-12	40.7903E-3	-29.2881E-3	4.77324E-12	53.2661E-3	-34.3314E-3
712.856E-6	4.90798E-12	41.7058E-3	-29.8700E-3	4.70024E-12	60.5031E-3	-29.7636E-3
707.854E-6	4.78883E-12	48.4236E-3	-21.8857E-3	4.69295E-12	41.0328E-3	-33.7415E-3
702.851E-6	4.75677E-12	46.3574E-3	-7.22277E-3	4.73397E-12	35.4891E-3	-38.0178E-3
697.849E-6	4.96381E-12	40.5169E-3	-5.98032E-3	4.72282E-12	51.8570E-3	-29.9110E-3
692.846E-6	4.80187E-12	41.6349E-3	-14.0288E-3	4.80487E-12	48.5213E-3	-20.1147E-3
687.844E-6	4.72734E-12	38.9672E-3	-16.3994E-3	4.71087E-12	35.4895E-3	-19.0572E-3
682.841E-6	4.85042E-12	38.8801E-3	-14.9755E-3	4.68118E-12	34.4495E-3	-33.6002E-3
677.839E-6	4.81354E-12	42.2781E-3	-18.3346E-3	4.62815E-12	29.9234E-3	-45.3714E-3
672.836E-6	4.73088E-12	49.2612E-3	-25.7250E-3	4.72336E-12	22.3522E-3	-29.0052E-3
667.834E-6	4.67255E-12	60.0438E-3	-27.2198E-3	4.67242E-12	31.3838E-3	-14.3870E-3
662.831E-6	4.68657E-12	56.5383E-3	-17.7151E-3	4.58284E-12	45.1078E-3	-23.9400E-3
657.829E-6	4.63513E-12	41.5011E-3	-7.19318E-3	4.56403E-12	46.8721E-3	-35.5698E-3
652.826E-6	4.50245E-12	41.0068E-3	-14.6163E-3	4.56646E-12	54.5090E-3	-37.5482E-3
647.824E-6	4.46757E-12	57.1484E-3	-32.4963E-3	4.62217E-12	73.1684E-3	-32.8700E-3
642.821E-6	4.52429E-12	65.6238E-3	-30.2921E-3	4.48762E-12	79.9699E-3	-19.2126E-3
637.819E-6	4.48797E-12	63.2831E-3	-21.3509E-3	4.47597E-12	77.1477E-3	-4.84094E-3
632.816E-6	4.38794E-12	68.2224E-3	-23.0392E-3	4.60959E-12	69.0183E-3	-3.31232E-3
627.814E-6	4.37672E-12	77.0768E-3	-15.4788E-3	4.56084E-12	54.2686E-3	-6.19693E-3
622.811E-6	4.41106E-12	73.1733E-3	-14.2797E-3	4.37599E-12	57.8553E-3	-6.65358E-3
617.809E-6	4.48361E-12	64.7564E-3	-20.7776E-3	4.42104E-12	73.1620E-3	-10.5821E-3
612.806E-6	4.39932E-12	60.7520E-3	-7.75361E-3	4.45868E-12	77.6935E-3	-16.2796E-3
607.804E-6	4.27219E-12	55.4397E-3	-2.21069E-3	4.42133E-12	78.7937E-3	-15.4103E-3
602.801E-6	4.42282E-12	54.8005E-3	-13.6533E-3	4.29342E-12	75.9516E-3	-8.55738E-3
597.799E-6	4.45642E-12	63.1231E-3	-21.1213E-3	4.26892E-12	74.1617E-3	-3.13749E-3
592.796E-6	4.33559E-12	71.7664E-3	-29.9293E-3	4.27665E-12	82.9066E-3	-13.3590E-3
587.794E-6	4.23039E-12	78.3510E-3	-29.8151E-3	4.20835E-12	89.2210E-3	-24.9400E-3
582.791E-6	4.27122E-12	73.6824E-3	-15.7698E-3	4.20607E-12	86.3568E-3	-15.5024E-3
577.789E-6	4.26887E-12	70.0809E-3	-9.72164E-3	4.13416E-12	83.4022E-3	-6.89959E-3
572.786E-6	4.17918E-12	80.7735E-3	-18.3192E-3	4.08694E-12	85.7020E-3	-8.22213E-3
567.784E-6	4.06787E-12	85.4070E-3	-27.8391E-3	4.06664E-12	89.4975E-3	-9.55704E-3
562.781E-6	4.15268E-12	74.9637E-3	-37.9063E-3	4.06940E-12	91.2626E-3	-16.6095E-3
557.779E-6	4.11206E-12	71.2797E-3	-38.4716E-3	4.06681E-12	91.4993E-3	-29.3655E-3
552.776E-6	4.02006E-12	93.6929E-3	-19.2145E-3	4.11163E-12	88.1700E-3	-32.0990E-3
547.774E-6	3.95142E-12	110.318E-3	-8.46552E-3	3.90554E-12	90.7069E-3	-26.4551E-3
542.771E-6	3.97061E-12	102.175E-3	-18.7834E-3	3.92479E-12	94.1802E-3	-24.1634E-3
537.769E-6	3.91499E-12	88.0512E-3	-26.2924E-3	4.04270E-12	89.1070E-3	-16.3855E-3
532.766E-6	3.85687E-12	78.8942E-3	-17.6797E-3	3.95327E-12	101.611E-3	-1.65483E-3
527.764E-6	3.85931E-12	85.2045E-3	-6.53374E-3	3.76064E-12	122.348E-3	535.078E-6
522.761E-6	3.93843E-12	104.790E-3	-3.99450E-3	3.77387E-12	119.885E-3	-2.40941E-3
517.759E-6	3.86226E-12	120.348E-3	-3.28629E-3	3.80963E-12	106.251E-3	4.27035E-3
512.756E-6	3.76955E-12	117.942E-3	4.80595E-3	3.78911E-12	104.683E-3	-5.42861E-3
507.754E-6	3.69816E-12	116.542E-3	6.82726E-3	3.66532E-12	117.109E-3	-24.4531E-3
502.751E-6	3.75091E-12	119.688E-3	-3.12542E-3	3.57591E-12	127.580E-3	-16.1437E-3
497.749E-6	3.60643E-12	113.477E-3	-9.84104E-3	3.58640E-12	128.155E-3	-3.51066E-3
492.746E-6	3.52878E-12	119.986E-3	-10.3017E-3	3.57960E-12	123.844E-3	-12.2001E-3
487.744E-6	3.55555E-12	130.868E-3	-9.96887E-3	3.50162E-12	119.307E-3	-16.7439E-3
482.741E-6	3.58835E-12	128.655E-3	-14.9293E-3	3.35535E-12	123.226E-3	-9.74848E-3
477.739E-6	3.42310E-12	127.522E-3	-21.2907E-3	3.40276E-12	135.528E-3	-13.4520E-3
472.736E-6	3.36624E-12	122.592E-3	-25.3690E-3	3.42902E-12	139.833E-3	-24.3730E-3
467.734E-6	3.38853E-12	119.848E-3	-31.3997E-3	3.31809E-12	138.867E-3	-28.5954E-3
462.731E-6	3.33516E-12	126.674E-3	-26.5523E-3	3.27563E-12	140.196E-3	-34.8147E-3
457.729E-6	3.23816E-12	128.510E-3	-17.0851E-3	3.25988E-12	140.895E-3	-43.0203E-3
452.726E-6	3.19501E-12	129.697E-3	-24.4238E-3	3.24029E-12	144.063E-3	-36.2132E-3
447.724E-6	3.17355E-12	140.609E-3	-32.7538E-3	3.17753E-12	145.756E-3	-27.4418E-3
442.721E-6	3.13291E-12	155.009E-3	-34.1099E-3	3.21756E-12	131.694E-3	-22.6044E-3
437.719E-6	3.04260E-12	158.196E-3	-41.1017E-3	3.12818E-12	111.322E-3	-11.8845E-3
432.716E-6	3.06459E-12	156.240E-3	-39.3717E-3	3.03670E-12	104.867E-3	-9.74044E-3
427.714E-6	3.03743E-12	153.364E-3	-25.0674E-3	2.92348E-12	108.191E-3	-14.5494E-3
422.711E-6	2.89957E-12	141.254E-3	-21.3864E-3	2.94213E-12	116.881E-3	-16.1081E-3
417.709E-6	2.81516E-12	136.046E-3	-34.1470E-3	2.89538E-12	126.393E-3	-26.0383E-3
412.706E-6	2.81489E-12	134.795E-3	-34.6087E-3	2.72186E-12	122.505E-3	-36.9030E-3
407.704E-6	2.80018E-12	127.545E-3	-11.6993E-3	2.72574E-12	116.970E-3	-30.8747E-3
402.701E-6	2.70367E-12	130.383E-3	1.96223E-3	2.78037E-12	130.588E-3	-33.5957E-3
397.699E-6	2.58535E-12	138.427E-3	-295.838E-6	2.65268E-12	143.731E-3	-44.9202E-3
392.696E-6	2.59852E-12	143.465E-3	810.469E-6	2.54427E-12	144.012E-3	-31.8138E-3
387.694E-6	2.55447E-12	143.755E-3	-6.61731E-3	2.49929E-12	153.088E-3	-9.34386E-3
382.691E-6	2.50937E-12	141.402E-3	-18.0795E-3	2.58023E-12	162.264E-3	-10.8766E-3
377.689E-6	2.42513E-12	139.818E-3	-16.1071E-3	2.54200E-12	156.563E-3	-22.2305E-3
372.686E-6	2.48554E-12	133.337E-3	-21.0384E-3	2.41579E-12	153.906E-3	-21.6898E-3
367.684E-6	2.46829E-12	127.891E-3	-25.5966E-3	2.36080E-12	154.179E-3	-24.2896E-3
362.681E-6	2.38143E-12	130.621E-3	-20.7697E-3	2.40670E-12	144.809E-3	-30.2320E-3
357.679E-6	2.26438E-12	142.393E-3	-24.6096E-3	2.37849E-12	146.287E-3	-22.6863E-3
352.676E-6	2.31122E-12	152.900E-3	-22.7276E-3	2.29717E-12	154.260E-3	-10.7505E-3
347.674E-6	2.28072E-12	148.711E-3	-14.1655E-3	2.21995E-12	147.388E-3	-8.43881E-3
342.671E-6	2.19203E-12	141.964E-3	-21.9625E-3	2.21013E-12	146.073E-3	-13.6897E-3
337.669E-6	2.10741E-12	138.946E-3	-31.9513E-3	2.13555E-12	147.943E-3	-22.3328E-3
332.666E-6	2.08686E-12	137.456E-3	-24.1569E-3	2.09057E-12	129.948E-3	-20.0725E-3
327.664E-6	2.06531E-12	147.048E-3	-18.4574E-3	2.03806E-12	117.602E-3	-10.1555E-3
322.661E-6	1.92500E-12	155.815E-3	-22.2398E-3	1.96813E-12	133.454E-3	-8.65039E-3
317.659E-6	1.90735E-12	142.715E-3	-15.2620E-3	1.86753E-12	147.182E-3	-6.96068E-3
312.656E-6	1.92834E-12	122.290E-3	-8.29696E-3	1.78929E-12	137.706E-3	-4.65413E-3
307.654E-6	1.80011E-12	121.081E-3	-9.64854E-3	1.85225E-12	121.938E-3	-9.11844E-3
302.651E-6	1.70719E-12	131.587E-3	-972.203E-6	1.79760E-12	116.899E-3	-21.0508E-3
297.649E-6	1.68316E-12	132.999E-3	8.32243E-3	1.68204E-12	121.046E-3	-34.9643E-3
292.646E-6	1.73318E-12	131.403E-3	-452.950E-6	1.66259E-12	122.342E-3	-38.2606E-3
287.644E-6	1.63132E-12	133.378E-3	-10.8859E-3	1.69957E-12	107.682E-3	-35.2499E-3
282.641E-6	1.55733E-12	131.288E-3	-5.92784E-3	1.64062E-12	97.7024E-3	-31.4406E-3
277.639E-6	1.58151E-12	136.340E-3	-1.12653E-3	1.46968E-12	112.478E-3	-22.1637E-3
272.636E-6	1.60636E-12	151.411E-3	-5.70509E-3	1.44401E-12	125.705E-3	-5.11285E-3
267.634E-6	1.47328E-12	152.352E-3	-5.27368E-3	1.49750E-12	135.104E-3	1.38976E-3
262.631E-6	1.40958E-12	140.466E-3	-6.91405E-3	1.52174E-12	143.632E-3	-19.3041E-3
257.629E-6	1.39279E-12	136.129E-3	-11.1938E-3	1.33240E-12	128.373E-3	-35.9631E-3
252.626E-6	1.42669E-12	137.393E-3	-11.8150E-3	1.29443E-12	114.073E-3	-27.0647E-3
247.624E-6	1.33106E-12	138.119E-3	-24.7452E-3	1.30706E-12	116.865E-3	-17.5916E-3
242.621E-6	1.19469E-12	135.333E-3	-30.1654E-3	1.28624E-12	113.411E-3	-16.2429E-3
237.619E-6	1.31002E-12	121.518E-3	-26.5117E-3	1.21850E-12	111.909E-3	-3.43127E-3
232.616E-6	1.22543E-12	104.911E-3	-30.3920E-3	1.07759E-12	113.808E-3	3.08654E-3
227.614E-6	1.09149E-12	105.011E-3	-16.1821E-3	1.13321E-12	102.885E-3	-18.6015E-3
222.611E-6	1.07376E-12	112.320E-3	-1.74885E-3	1.11415E-12	99.9631E-3	-29.3772E-3
217.609E-6	999.483E-15	108.407E-3	-13.4902E-3	978.104E-15	112.474E-3	-21.4316E-3
212.606E-6	1.00206E-12	102.085E-3	-17.5801E-3	969.698E-15	109.333E-3	-20.4850E-3
207.604E-6	969.288E-15	97.0783E-3	-11.5487E-3	922.710E-15	95.0214E-3	-22.9646E-3
202.601E-6	930.549E-15	91.9618E-3	-17.8157E-3	867.517E-15	90.6520E-3	-21.9905E-3
197.599E-6	919.833E-15	93.1193E-3	-25.2965E-3	832.875E-15	86.3335E-3	-17.4815E-3
192.596E-6	883.473E-15	88.6711E-3	-30.6690E-3	910.084E-15	83.3601E-3	-11.9697E-3
187.594E-6	804.206E-15	81.5628E-3	-38.1047E-3	832.657E-15	86.1463E-3	-15.0509E-3
182.591E-6	788.188E-15	88.2604E-3	-34.8502E-3	745.586E-15	74.5607E-3	-28.1918E-3
177.589E-6	814.128E-15	98.7018E-3	-20.6210E-3	688.535E-15	59.4138E-3	-28.8575E-3
172.586E-6	728.827E-15	102.432E-3	-21.0352E-3	771.168E-15	68.4236E-3	-15.4457E-3
167.584E-6	680.723E-15	102.021E-3	-38.1061E-3	723.282E-15	83.3247E-3	-11.9311E-3
162.581E-6	676.503E-15	99.8655E-3	-47.6850E-3	597.236E-15	79.6321E-3	-10.3989E-3
157.579E-6	700.882E-15	94.3246E-3	-46.4385E-3	573.807E-15	71.8735E-3	-145.674E-6
152.576E-6	613.567E-15	91.8603E-3	-40.1192E-3	626.986E-15	74.5958E-3	1.56797E-3
147.574E-6	532.172E-15	94.3717E-3	-31.7644E-3	643.117E-15	75.6434E-3	-9.56069E-3
142.571E-6	571.078E-15	88.4117E-3	-24.3074E-3	492.752E-15	70.5600E-3	-14.1950E-3
137.569E-6	561.722E-15	78.8867E-3	-19.1560E-3	427.235E-15	68.9259E-3	-4.66875E-3
132.566E-6	460.473E-15	86.1547E-3	-9.21091E-3	539.226E-15	64.4848E-3	8.57141E-3
127.564E-6	394.904E-15	95.7671E-3	-660.113E-6	551.904E-15	56.5164E-3	9.24355E-3
122.561E-6	460.194E-15	96.1460E-3	-5.08452E-3	394.878E-15	57.8369E-3	-3.23062E-3
117.559E-6	464.833E-15	98.8467E-3	-9.03163E-3	373.960E-15	68.3343E-3	-5.47513E-3
112.556E-6	343.626E-15	92.3690E-3	-7.88173E-3	402.054E-15	82.6163E-3	3.48745E-3
107.554E-6	333.974E-15	85.4832E-3	-7.92227E-3	407.878E-15	90.8076E-3	-2.49799E-3
102.551E-6	380.822E-15	88.0617E-3	-7.76358E-3	329.806E-15	86.2539E-3	-19.9858E-3
97.5488E-6	319.534E-15	79.9810E-3	-9.20693E-3	265.719E-15	84.4932E-3	-23.2612E-3
92.5463E-6	260.592E-15	69.5230E-3	-15.9436E-3	263.164E-15	77.8005E-3	-20.2807E-3
87.5438E-6	227.075E-15	65.4847E-3	-24.8368E-3	264.332E-15	62.5910E-3	-22.6745E-3
82.5413E-6	233.300E-15	62.3803E-3	-22.5258E-3	241.933E-15	61.6492E-3	-14.0438E-3
77.5388E-6	255.866E-15	71.5168E-3	-18.4429E-3	236.457E-15	63.8240E-3	-3.82774E-3
72.5363E-6	157.652E-15	86.1951E-3	-27.4727E-3	179.947E-15	66.4229E-3	-7.52969E-3
67.5338E-6	123.768E-15	82.5924E-3	-27.1597E-3	131.136E-15	76.1243E-3	-7.30179E-3
62.5313E-6	202.774E-15	74.2430E-3	-16.4244E-3	59.2717E-15	79.1758E-3	-7.17403E-3
57.5288E-6	124.431E-15	75.3106E-3	-10.3072E-3	166.894E-15	71.1809E-3	-12.8831E-3
52.5263E-6	49.0527E-15	70.4481E-3	-3.79492E-3	127.544E-15	56.8043E-3	-3.09114E-3
47.5238E-6	77.8962E-15	64.9455E-3	1.21480E-3	-2.32144E-15	55.7028E-3	7.93460E-3
42.5213E-6	96.4073E-15	60.6590E-3	874.207E-6	3.93902E-15	71.4012E-3	-3.42590E-3
37.5188E-6	23.9760E-15	44.3451E-3	-8.51210E-3	30.9776E-15	77.9913E-3	-12.0606E-3
32.5163E-6	-43.4155E-15	36.2437E-3	-14.6337E-3	43.9519E-15	72.3538E-3	-6.53382E-3
27.5138E-6	14.5417E-15	46.7324E-3	-6.89133E-3	-91.4764E-15	67.3362E-3	-22.3263E-3
22.5113E-6	14.2016E-15	55.5270E-3	-2.24000E-3	-141.185E-15	70.8614E-3	-42.6886E-3
17.5088E-6	-88.3985E-15	64.3868E-3	-9.14398E-3	-51.8994E-15	80.4690E-3	-25.9254E-3
12.5063E-6	-99.3935E-15	77.7708E-3	-16.9967E-3	-25.3579E-15	81.4581E-3	-6.66428E-3
7.50375E-6	-127.845E-15	73.4282E-3	-13.5521E-3	-207.862E-15	69.4833E-3	-10.8102E-3
2.50125E-6	-82.3908E-15	60.7510E-3	-6.91613E-3	-183.003E-15	61.6124E-3	-8.14879E-3
-2.50125E-6	-175.374E-15	69.6962E-3	-1.69517E-3	-127.557E-15	73.7823E-3	-7.58995E-3
-7.50375E-6	-230.000E-15	77.7141E-3	4.01350E-3	-129.693E-15	87.8041E-3	-10.0637E-3
-12.5063E-6	-185.854E-15	65.3338E-3	2.68624E-3	-269.385E-15	83.2096E-3	-3.51395E-3
-17.5088E-6	-167.971E-15	54.8539E-3	1.29294E-3	-264.084E-15	72.0220E-3	-7.38330E-3
-22.5113E-6	-332.635E-15	61.9576E-3	-236.128E-6	-273.701E-15	61.6150E-3	-11.5212E-3
-27.5138E-6	-297.034E-15	72.7860E-3	-9.46851E-3	-254.955E-15	57.2801E-3	-7.29821E-3
-32.5163E-6	-236.165E-15	71.9475E-3	-18.8184E-3	-356.064E-15	68.4938E-3	-6.64641E-3
-37.5188E-6	-336.864E-15	61.0562E-3	-18.4925E-3	-340.543E-15	82.0791E-3	-6.62224E-3
-42.5213E-6	-393.757E-15	45.5395E-3	-14.1907E-3	-343.743E-15	86.2126E-3	-13.3817E-3
-47.5238E-6	-409.818E-15	43.2462E-3	-12.9197E-3	-438.173E-15	88.7183E-3	-25.4661E-3
-52.5263E-6	-387.410E-15	57.9054E-3	-10.4507E-3	-445.960E-15	94.7553E-3	-29.9205E-3
-57.5288E-6	-442.254E-15	66.4630E-3	-8.35165E-3	-438.409E-15	107.899E-3	-23.3033E-3
-62.5313E-6	-517.938E-15	68.0854E-3	-11.0622E-3	-430.893E-15	116.195E-3	-9.58323E-3
-67.5338E-6	-506.568E-15	70.9763E-3	-13.0769E-3	-565.223E-15	104.997E-3	-5.34264E-3
-72.5363E-6	-498.258E-15	75.1676E-3	-4.10907E-3	-633.887E-15	99.8550E-3	-11.1851E-3
-77.5388E-6	-577.037E-15	83.5712E-3	5.53983E-3	-535.141E-15	112.377E-3	-17.5510E-3
-82.5413E-6	-664.169E-15	89.4412E-3	-6.10486E-3	-570.114E-15	112.689E-3	-20.9795E-3
-87.5438E-6	-662.460E-15	83.5423E-3	-26.1834E-3	-694.530E-15	102.917E-3	-14.3192E-3
-92.5463E-6	-631.202E-15	81.8618E-3	-30.0799E-3	-764.537E-15	104.419E-3	-9.29068E-3
-97.5488E-6	-734.290E-15	87.8434E-3	-23.9843E-3	-678.390E-15	109.002E-3	-18.9529E-3
-102.551E-6	-797.418E-15	97.3853E-3	-21.1464E-3	-699.230E-15	114.827E-3	-17.3732E-3
-107.554E-6	-798.063E-15	108.546E-3	-18.2523E-3	-835.800E-15	119.848E-3	-3.05378E-3
-112.556E-6	-796.336E-15	109.257E-3	-10.4891E-3	-913.724E-15	114.266E-3	-5.84104E-3
-117.559E-6	-875.673E-15	102.486E-3	-3.25583E-3	-833.795E-15	108.429E-3	-12.5042E-3
-122.561E-6	-934.346E-15	94.8313E-3	-7.08461E-3	-834.065E-15	117.903E-3	-3.60655E-3
-127.564E-6	-934.590E-15	111.042E-3	-23.1646E-3	-970.391E-15	128.262E-3	-3.18064E-3
-132.566E-6	-947.102E-15	140.254E-3	-34.7689E-3	-1.05486E-12	134.070E-3	-15.7657E-3
-137.569E-6	-1.05381E-12	143.614E-3	-33.8512E-3	-1.01964E-12	148.915E-3	-17.5813E-3
-142.571E-6	-1.13632E-12	130.863E-3	-21.5659E-3	-1.02557E-12	154.895E-3	-18.8190E-3
-147.574E-6	-1.07362E-12	130.637E-3	-13.9133E-3	-1.14653E-12	148.479E-3	-24.3090E-3
-152.576E-6	-1.19749E-12	137.214E-3	-19.3297E-3	-1.20915E-12	152.687E-3	-23.5705E-3
-157.579E-6	-1.23987E-12	140.596E-3	-21.8763E-3	-1.20668E-12	163.404E-3	-26.7541E-3
-162.581E-6	-1.34502E-12	149.053E-3	-18.1210E-3	-1.24556E-12	161.449E-3	-34.0207E-3
-167.584E-6	-1.35070E-12	148.990E-3	-13.3758E-3	-1.37990E-12	155.323E-3	-41.1053E-3
-172.586E-6	-1.39314E-12	141.180E-3	-7.51327E-3	-1.42073E-12	162.069E-3	-46.9580E-3
-177.589E-6	-1.50310E-12	148.180E-3	-10.9073E-3	-1.43260E-12	168.988E-3	-37.2805E-3
-182.591E-6	-1.53411E-12	160.228E-3	-25.7991E-3	-1.59289E-12	174.763E-3	-11.2738E-3
-187.594E-6	-1.59127E-12	166.947E-3	-23.3387E-3	-1.66971E-12	191.148E-3	1.99363E-3
-192.596E-6	-1.61382E-12	176.480E-3	-6.85295E-3	-1.62692E-12	197.796E-3	-13.4457E-3
-197.599E-6	-1.72429E-12	182.904E-3	-6.23043E-3	-1.63162E-12	191.083E-3	-28.9887E-3
-202.601E-6	-1.70652E-12	183.974E-3	-18.3105E-3	-1.80825E-12	189.205E-3	-22.7789E-3
-207.604E-6	-1.73637E-12	186.788E-3	-22.5599E-3	-1.83250E-12	192.541E-3	-15.4173E-3
-212.606E-6	-1.86643E-12	187.030E-3	-14.3004E-3	-1.79910E-12	199.153E-3	-10.7964E-3
-217.609E-6	-1.92225E-12	181.917E-3	-8.40892E-3	-1.87845E-12	202.197E-3	401.471E-6
-222.611E-6	-1.94930E-12	178.894E-3	-8.96951E-3	-2.06835E-12	195.852E-3	424.918E-6
-227.614E-6	-2.00108E-12	180.517E-3	-12.5612E-3	-2.15538E-12	202.193E-3	-13.2774E-3
-232.616E-6	-2.10011E-12	194.477E-3	-17.5361E-3	-2.07603E-12	226.247E-3	-24.1921E-3
-237.619E-6	-2.23202E-12	214.497E-3	-21.6430E-3	-2.11159E-12	236.420E-3	-33.3500E-3
-242.621E-6	-2.25220E-12	218.113E-3	-25.1221E-3	-2.37886E-12	224.349E-3	-36.0743E-3
-247.624E-6	-2.30197E-12	216.233E-3	-22.2461E-3	-2.43844E-12	216.106E-3	-28.5394E-3
-252.626E-6	-2.42418E-12	221.710E-3	-16.0660E-3	-2.46495E-12	224.816E-3	-30.8540E-3
-257.629E-6	-2.57986E-12	218.975E-3	-9.30646E-3	-2.54910E-12	231.232E-3	-34.1555E-3
-262.631E-6	-2.53802E-12	210.452E-3	-5.28244E-3	-2.65520E-12	231.986E-3	-19.4996E-3
-267.634E-6	-2.68900E-12	208.304E-3	-8.98198E-3	-2.78402E-12	240.090E-3	-4.77189E-3
-272.636E-6	-2.81229E-12	220.412E-3	-12.3481E-3	-2.76739E-12	247.019E-3	1.95455E-3
-277.639E-6	-2.81492E-12	241.432E-3	-17.4143E-3	-2.84797E-12	253.120E-3	5.30051E-3
-282.641E-6	-2.90431E-12	249.598E-3	-20.7739E-3	-2.99801E-12	262.329E-3	-3.19315E-3
-287.644E-6	-3.00234E-12	244.017E-3	-22.0025E-3	-3.03851E-12	264.220E-3	-10.9410E-3
-292.646E-6	-3.11110E-12	240.738E-3	-27.8447E-3	-3.09945E-12	260.477E-3	-10.0548E-3
-297.649E-6	-3.15702E-12	243.359E-3	-24.8934E-3	-3.22668E-12	254.437E-3	-11.9780E-3
-302.651E-6	-3.20128E-12	247.030E-3	-9.42092E-3	-3.29514E-12	251.049E-3	-10.9615E-3
-307.654E-6	-3.33638E-12	250.308E-3	1.34086E-3	-3.31055E-12	256.065E-3	-2.76911E-3
-312.656E-6	-3.36511E-12	257.621E-3	-10.8558E-3	-3.38205E-12	261.862E-3	1.67603E-3
-317.659E-6	-3.43111E-12	258.622E-3	-27.4396E-3	-3.54709E-12	267.005E-3	-5.03977E-3
-322.661E-6	-3.52778E-12	249.881E-3	-24.8821E-3	-3.69016E-12	279.253E-3	-9.32565E-3
-327.664E-6	-3.63620E-12	246.430E-3	-20.0411E-3	-3.64760E-12	290.614E-3	-13.7031E-3
-332.666E-6	-3.71590E-12	247.947E-3	-21.4186E-3	-3.71251E-12	288.898E-3	-26.5865E-3
-337.669E-6	-3.86408E-12	251.878E-3	-18.0695E-3	-3.95512E-12	275.902E-3	-26.1082E-3
-342.671E-6	-3.92347E-12	256.999E-3	-10.5740E-3	-4.04674E-12	271.184E-3	-18.6066E-3
-347.674E-6	-4.07383E-12	258.030E-3	-1.47172E-3	-4.01772E-12	273.026E-3	-21.6204E-3
-352.676E-6	-4.22335E-12	257.262E-3	235.186E-6	-4.10571E-12	264.261E-3	-22.6977E-3
-357.679E-6	-4.26735E-12	267.176E-3	-6.47734E-3	-4.31935E-12	265.418E-3	-28.6547E-3
-362.681E-6	-4.28143E-12	286.484E-3	-15.1577E-3	-4.47423E-12	274.632E-3	-41.6058E-3
-367.684E-6	-4.43629E-12	288.463E-3	-28.7661E-3	-4.42341E-12	264.623E-3	-28.5970E-3
-372.686E-6	-4.67302E-12	275.720E-3	-34.4651E-3	-4.48233E-12	254.194E-3	-6.98261E-3
-377.689E-6	-4.65248E-12	283.620E-3	-24.4596E-3	-4.68442E-12	256.858E-3	-13.3299E-3
-382.691E-6	-4.63021E-12	301.250E-3	-11.1485E-3	-4.77792E-12	260.125E-3	-22.9571E-3
-387.694E-6	-4.83686E-12	303.131E-3	-4.06477E-3	-4.82164E-12	270.711E-3	-13.6585E-3
-392.696E-6	-4.93570E-12	293.125E-3	-9.07897E-3	-4.92202E-12	282.731E-3	-5.51425E-3
-397.699E-6	-4.93755E-12	280.186E-3	-13.0296E-3	-5.09051E-12	283.064E-3	-16.4391E-3
-402.701E-6	-5.08356E-12	268.268E-3	-6.43362E-3	-5.18329E-12	281.818E-3	-35.0924E-3
-407.704E-6	-5.20232E-12	273.483E-3	-9.30595E-3	-5.19827E-12	284.584E-3	-46.0902E-3
-412.706E-6	-5.19921E-12	290.090E-3	-27.0894E-3	-5.31851E-12	285.705E-3	-40.9162E-3
-417.709E-6	-5.34414E-12	285.968E-3	-41.0568E-3	-5.43097E-12	287.027E-3	-28.1685E-3
-422.711E-6	-5.43940E-12	274.587E-3	-31.6438E-3	-5.50871E-12	285.094E-3	-26.0594E-3
-427.714E-6	-5.52799E-12	278.211E-3	-12.6839E-3	-5.70952E-12	277.543E-3	-30.8035E-3
-432.716E-6	-5.70077E-12	285.963E-3	-10.3892E-3	-5.76992E-12	268.220E-3	-25.8124E-3
-437.719E-6	-5.75966E-12	288.184E-3	-20.0416E-3	-5.78676E-12	263.043E-3	-11.6933E-3
-442.721E-6	-5.88035E-12	290.054E-3	-24.3728E-3	-5.88022E-12	258.094E-3	2.03114E-3
-447.724E-6	-6.05478E-12	292.376E-3	-18.6675E-3	-5.90113E-12	259.362E-3	4.38721E-3
-452.726E-6	-6.03881E-12	285.790E-3	-13.2565E-3	-6.02952E-12	271.381E-3	-8.72277E-3
-457.729E-6	-6.08172E-12	276.821E-3	-11.7850E-3	-6.00614E-12	273.320E-3	-17.1373E-3
-462.731E-6	-6.26782E-12	274.901E-3	-18.9357E-3	-5.99366E-12	269.504E-3	-5.36202E-3
-467.734E-6	-6.44129E-12	266.429E-3	-25.6942E-3	-6.17466E-12	268.157E-3	677.560E-6
-472.736E-6	-6.38038E-12	252.997E-3	-24.4407E-3	-6.30548E-12	255.398E-3	-11.1560E-3
-477.739E-6	-6.31215E-12	254.776E-3	-17.0754E-3	-6.40876E-12	245.393E-3	-14.9148E-3
-482.741E-6	-6.52949E-12	260.886E-3	-6.93749E-3	-6.42914E-12	249.529E-3	-12.3294E-3
-487.744E-6	-6.68170E-12	256.488E-3	-5.60846E-3	-6.51290E-12	246.862E-3	-23.2028E-3
-492.746E-6	-6.56543E-12	242.848E-3	-7.34919E-3	-6.80345E-12	236.950E-3	-37.0737E-3
-497.749E-6	-6.57182E-12	226.391E-3	-967.739E-6	-6.90526E-12	231.269E-3	-44.6932E-3
-502.751E-6	-6.86277E-12	223.376E-3	3.01868E-3	-6.87563E-12	225.980E-3	-49.8016E-3
-507.754E-6	-6.93499E-12	233.719E-3	-15.9176E-3	-6.94357E-12	216.691E-3	-40.8757E-3
-512.756E-6	-6.94314E-12	243.760E-3	-38.7351E-3	-7.12851E-12	213.928E-3	-27.4628E-3
-517.759E-6	-7.05147E-12	236.748E-3	-37.3050E-3	-7.22687E-12	217.819E-3	-21.8745E-3
-522.761E-6	-7.16481E-12	218.976E-3	-22.4771E-3	-7.19918E-12	208.918E-3	-17.4978E-3
-527.764E-6	-7.24788E-12	215.573E-3	-7.85278E-3	-7.27402E-12	196.783E-3	-22.2838E-3
-532.766E-6	-7.36758E-12	224.408E-3	-1.26617E-3	-7.36136E-12	198.129E-3	-36.6490E-3
-537.769E-6	-7.37567E-12	228.433E-3	-8.79020E-3	-7.40157E-12	203.102E-3	-39.3660E-3
-542.771E-6	-7.43160E-12	226.579E-3	-19.0615E-3	-7.42766E-12	197.371E-3	-23.6109E-3
-547.774E-6	-7.49142E-12	220.771E-3	-22.1002E-3	-7.49297E-12	185.101E-3	-19.9376E-3
-552.776E-6	-7.54096E-12	215.980E-3	-20.6738E-3	-7.42268E-12	176.994E-3	-34.2007E-3
-557.779E-6	-7.62081E-12	207.770E-3	-24.3507E-3	-7.47752E-12	178.598E-3	-36.3160E-3
-562.781E-6	-7.69220E-12	191.908E-3	-29.2832E-3	-7.53150E-12	187.347E-3	-25.5349E-3
-567.784E-6	-7.75027E-12	186.142E-3	-28.4092E-3	-7.68807E-12	190.513E-3	-11.4736E-3
-572.786E-6	-7.77391E-12	193.610E-3	-25.0031E-3	-7.85163E-12	180.925E-3	-3.91788E-3
-577.789E-6	-7.83887E-12	194.103E-3	-15.6316E-3	-7.90811E-12	168.714E-3	-13.0377E-3
-582.791E-6	-7.86470E-12	183.542E-3	-11.8728E-3	-8.00255E-12	166.507E-3	-25.2699E-3
-587.794E-6	-7.92808E-12	179.291E-3	-28.1256E-3	-8.16645E-12	175.393E-3	-22.5369E-3
-592.796E-6	-7.98844E-12	177.721E-3	-36.9342E-3	-8.31827E-12	174.403E-3	-15.1829E-3
-597.799E-6	-8.17407E-12	170.415E-3	-29.3698E-3	-8.41672E-12	155.231E-3	-9.40821E-3
-602.801E-6	-8.19282E-12	169.448E-3	-24.5863E-3	-8.32741E-12	138.531E-3	-7.37598E-3
-607.804E-6	-8.14596E-12	171.754E-3	-18.2459E-3	-8.46787E-12	142.808E-3	-14.4107E-3
-612.806E-6	-8.23780E-12	168.242E-3	-17.4301E-3	-8.74320E-12	161.258E-3	-15.9148E-3
-617.809E-6	-8.27845E-12	159.415E-3	-26.0123E-3	-8.76425E-12	165.100E-3	1.95749E-3
-622.811E-6	-8.37038E-12	142.692E-3	-31.1656E-3	-8.62005E-12	154.075E-3	11.9494E-3
-627.814E-6	-8.36565E-12	124.889E-3	-25.6045E-3	-8.66803E-12	137.869E-3	-5.07035E-3
-632.816E-6	-8.31290E-12	116.449E-3	-22.7881E-3	-8.66524E-12	124.147E-3	-15.8910E-3
-637.819E-6	-8.36810E-12	122.135E-3	-32.4040E-3	-8.73692E-12	126.388E-3	-9.42112E-3
-642.821E-6	-8.61308E-12	131.791E-3	-27.0501E-3	-8.71938E-12	134.895E-3	-908.499E-6
-647.824E-6	-8.49717E-12	127.676E-3	-5.83078E-3	-8.59720E-12	132.119E-3	-189.165E-6
-652.826E-6	-8.48134E-12	112.438E-3	-3.08041E-3	-8.58526E-12	123.305E-3	-7.10935E-3
-657.829E-6	-8.66066E-12	97.1494E-3	-18.6682E-3	-8.74378E-12	120.856E-3	-13.9277E-3
-662.831E-6	-8.63814E-12	94.2886E-3	-23.4152E-3	-8.76703E-12	126.787E-3	-20.1575E-3
-667.834E-6	-8.76282E-12	106.928E-3	-20.4658E-3	-8.83072E-12	130.101E-3	-23.5232E-3
-672.836E-6	-8.94727E-12	112.553E-3	-21.4984E-3	-8.95993E-12	118.542E-3	-23.3624E-3
-677.839E-6	-8.96944E-12	108.327E-3	-14.2598E-3	-8.84464E-12	105.590E-3	-23.1301E-3
-682.841E-6	-8.97545E-12	113.184E-3	-3.80038E-3	-9.19395E-12	108.049E-3	-17.4162E-3
-687.844E-6	-9.12484E-12	125.232E-3	-5.08241E-3	-9.25652E-12	114.746E-3	-13.3584E-3
-692.846E-6	-9.31562E-12	120.899E-3	-20.0596E-3	-9.02156E-12	113.994E-3	-12.9206E-3
-697.849E-6	-9.24347E-12	104.873E-3	-28.3972E-3	-9.05106E-12	108.136E-3	-6.49180E-3
-702.851E-6	-9.28544E-12	98.8858E-3	-13.6348E-3	-9.39513E-12	95.7465E-3	-5.23844E-3
-707.854E-6	-9.19164E-12	99.1989E-3	3.68854E-3	-9.32822E-12	81.5877E-3	-4.89669E-3
-712.856E-6	-9.26277E-12	106.222E-3	-1.58782E-3	-9.01712E-12	77.7639E-3	-9.59827E-3
-717.859E-6	-9.40325E-12	108.905E-3	-16.2020E-3	-9.09774E-12	79.4373E-3	-24.7371E-3
-722.861E-6	-9.19543E-12	88.5553E-3	-20.3574E-3	-9.21532E-12	70.2502E-3	-29.6682E-3
-727.864E-6	-9.08170E-12	69.2859E-3	-14.6327E-3	-9.23816E-12	63.2736E-3	-29.4927E-3
-732.866E-6	-9.10142E-12	70.6395E-3	-4.60679E-3	-9.03715E-12	72.9504E-3	-32.7885E-3
-737.869E-6	-9.10534E-12	71.5208E-3	-6.40696E-3	-8.98457E-12	81.8386E-3	-32.3044E-3
-742.871E-6	-9.10218E-12	68.4883E-3	-12.5643E-3	-9.23098E-12	79.2391E-3	-23.4460E-3
-747.874E-6	-9.12845E-12	65.5030E-3	-9.77218E-3	-9.25557E-12	66.1345E-3	-9.56955E-3
-752.876E-6	-9.07961E-12	66.6990E-3	-8.18869E-3	-9.19831E-12	48.4255E-3	-402.301E-6
-757.879E-6	-9.27759E-12	79.0319E-3	-11.6134E-3	-9.10032E-12	51.1939E-3	-652.780E-6
-762.881E-6	-9.23086E-12	88.6149E-3	-14.4906E-3	-9.26530E-12	74.2719E-3	-6.61814E-3
-767.884E-6	-9.30532E-12	89.7265E-3	-20.0378E-3	-9.50516E-12	84.7714E-3	-12.7996E-3
-772.886E-6	-9.46676E-12	76.2668E-3	-19.1312E-3	-9.53637E-12	72.9737E-3	-16.0117E-3
-777.889E-6	-9.53017E-12	59.7055E-3	-10.9654E-3	-9.51397E-12	60.9214E-3	-18.7871E-3
-782.891E-6	-9.48874E-12	62.9694E-3	-8.39145E-3	-9.45935E-12	57.5828E-3	-21.1875E-3
-787.894E-6	-9.54640E-12	72.2517E-3	-13.0689E-3	-9.59727E-12	61.2384E-3	-18.1738E-3
-792.896E-6	-9.62498E-12	65.7722E-3	-22.5934E-3	-9.62975E-12	71.1108E-3	-11.9528E-3
-797.899E-6	-9.69105E-12	60.1863E-3	-21.6703E-3	-9.73504E-12	67.0943E-3	-2.08711E-3
-802.901E-6	-9.56096E-12	68.9002E-3	-11.9116E-3	-9.54734E-12	54.5079E-3	9.90657E-3
-807.904E-6	-9.58268E-12	66.0695E-3	-11.2128E-3	-9.50215E-12	52.0165E-3	2.69904E-3
-812.906E-6	-9.73816E-12	58.7908E-3	-20.4865E-3	-9.58935E-12	54.6529E-3	-17.3880E-3
-817.909E-6	-9.59747E-12	63.1306E-3	-22.0586E-3	-9.72517E-12	58.2864E-3	-28.7126E-3
-822.911E-6	-9.58207E-12	64.4652E-3	-14.0672E-3	-9.62786E-12	56.2240E-3	-36.6217E-3
-827.914E-6	-9.69274E-12	66.7985E-3	-13.9422E-3	-9.51615E-12	47.4773E-3	-41.8008E-3
-832.916E-6	-9.67968E-12	78.6786E-3	-22.3330E-3	-9.69083E-12	48.3183E-3	-40.3185E-3
-837.919E-6	-9.52893E-12	80.2072E-3	-25.5361E-3	-9.74440E-12	55.1212E-3	-27.6341E-3
-842.921E-6	-9.64128E-12	67.7313E-3	-24.4385E-3	-9.83283E-12	50.4600E-3	-10.0777E-3
-847.924E-6	-9.85786E-12	58.3845E-3	-25.1465E-3	-9.77768E-12	39.6243E-3	-4.82408E-3
-852.926E-6	-9.79006E-12	54.1225E-3	-20.5557E-3	-9.71447E-12	37.0191E-3	-17.4132E-3
-857.929E-6	-9.86148E-12	54.2188E-3	-24.1633E-3	-10.0215E-12	37.3354E-3	-29.6409E-3
-862.931E-6	-10.0764E-12	59.9823E-3	-31.5906E-3	-10.1064E-12	42.6261E-3	-28.4990E-3
-867.934E-6	-9.86805E-12	73.8954E-3	-25.7164E-3	-9.88832E-12	60.8374E-3	-23.5129E-3
-872.936E-6	-10.0318E-12	82.7769E-3	-16.4930E-3	-9.77096E-12	69.1873E-3	-23.7617E-3
-877.939E-6	-10.2583E-12	73.3878E-3	-5.58450E-3	-9.97718E-12	59.8420E-3	-17.2458E-3
-882.941E-6	-10.1577E-12	58.5819E-3	5.29001E-3	-10.1550E-12	57.4392E-3	-7.88583E-3
-887.944E-6	-10.0834E-12	49.1770E-3	7.63829E-3	-10.0349E-12	65.1637E-3	-15.6024E-3
-892.946E-6	-10.1922E-12	52.6508E-3	-3.01233E-3	-9.84652E-12	74.1294E-3	-16.7938E-3
-897.949E-6	-10.1271E-12	70.1859E-3	-19.3130E-3	-9.89915E-12	77.9437E-3	-9.14440E-3
-902.951E-6	-10.1001E-12	84.9242E-3	-15.4589E-3	-10.0094E-12	72.6838E-3	-16.0544E-3
-907.954E-6	-10.0915E-12	84.7609E-3	119.411E-6	-10.0655E-12	75.3201E-3	-29.2912E-3
-912.956E-6	-10.0104E-12	80.0823E-3	-10.1229E-3	-10.0252E-12	81.3034E-3	-43.2728E-3
-917.959E-6	-9.93843E-12	90.4933E-3	-26.7487E-3	-9.98852E-12	74.0867E-3	-53.2997E-3
-922.961E-6	-10.0072E-12	100.091E-3	-24.2036E-3	-10.1968E-12	69.1572E-3	-38.0135E-3
-927.964E-6	-10.0822E-12	83.0383E-3	-13.1528E-3	-10.3688E-12	76.7724E-3	-12.9978E-3
-932.966E-6	-10.0902E-12	66.9025E-3	-4.02443E-3	-10.3774E-12	85.3345E-3	-8.87279E-3
-937.969E-6	-9.96956E-12	78.8368E-3	-4.41695E-3	-10.2610E-12	89.0091E-3	-12.8817E-3
-942.971E-6	-10.1053E-12	102.735E-3	-11.0630E-3	-10.2855E-12	98.6082E-3	-6.05873E-3
-947.974E-6	-10.3461E-12	107.684E-3	-9.70364E-3	-10.4094E-12	106.225E-3	-3.37188E-3
-952.976E-6	-10.4253E-12	88.6018E-3	-6.39896E-3	-10.5575E-12	97.6008E-3	-16.6990E-3
-957.979E-6	-10.2284E-12	79.4666E-3	-6.83899E-3	-10.4170E-12	93.1185E-3	-20.6408E-3
-962.981E-6	-10.3211E-12	90.1073E-3	-297.223E-6	-10.2849E-12	98.8933E-3	-14.5012E-3
-967.984E-6	-10.5670E-12	95.2213E-3	-7.53516E-3	-10.4981E-12	103.739E-3	-13.9199E-3
-972.986E-6	-10.6945E-12	86.4719E-3	-33.0357E-3	-10.5893E-12	114.258E-3	-9.19827E-3
-977.989E-6	-10.5006E-12	76.3244E-3	-30.4069E-3	-10.5588E-12	125.461E-3	-819.213E-6
-982.991E-6	-10.6646E-12	74.6179E-3	-12.9450E-3	-10.3692E-12	121.008E-3	1.55269E-3
-987.994E-6	-10.7847E-12	94.3371E-3	-18.2075E-3	-10.4212E-12	121.361E-3	-1.42108E-3
-992.997E-6	-10.7069E-12	120.370E-3	-28.1627E-3	-10.6551E-12	144.337E-3	-7.83352E-3
-997.999E-6	-10.7560E-12	116.586E-3	-25.9724E-3	-10.6524E-12	160.007E-3	-7.62049E-3
-1.00300E-3	-10.9038E-12	98.3658E-3	-22.8959E-3	-10.6870E-12	147.450E-3	-3.08380E-3
-1.00800E-3	-10.8178E-12	99.2560E-3	-18.8718E-3	-10.6897E-12	135.583E-3	-18.1413E-3
-1.01301E-3	-10.7918E-12	120.865E-3	-8.65255E-3	-11.0893E-12	153.071E-3	-32.8026E-3
-1.01801E-3	-10.9138E-12	148.219E-3	-12.4317E-3	-11.2270E-12	179.289E-3	-25.0083E-3
-1.02301E-3	-10.9937E-12	160.547E-3	-17.1434E-3	-11.0604E-12	189.411E-3	-12.7819E-3
-1.02801E-3	-10.9547E-12	160.385E-3	-5.17506E-3	-11.2145E-12	185.086E-3	-5.46192E-3
-1.03302E-3	-10.9939E-12	167.066E-3	-6.46000E-3	-11.2330E-12	175.284E-3	-11.2406E-3
-1.03802E-3	-11.1651E-12	171.261E-3	-20.7258E-3	-11.4767E-12	174.764E-3	-21.3341E-3
-1.04302E-3	-11.2830E-12	169.518E-3	-20.4998E-3	-11.4916E-12	187.766E-3	-13.4618E-3
-1.04802E-3	-11.2188E-12	173.316E-3	-9.91373E-3	-11.3181E-12	200.273E-3	-3.43999E-3
-1.05303E-3	-11.2965E-12	173.281E-3	-6.03756E-3	-11.2772E-12	211.607E-3	-12.4737E-3
-1.05803E-3	-11.4742E-12	170.946E-3	-16.4973E-3	-11.4809E-12	221.611E-3	-23.6140E-3
-1.06303E-3	-11.4971E-12	180.357E-3	-26.3083E-3	-11.4474E-12	227.055E-3	-21.7736E-3
-1.06803E-3	-11.4510E-12	187.953E-3	-23.8862E-3	-11.4265E-12	235.220E-3	-18.7008E-3
-1.07304E-3	-11.4349E-12	188.096E-3	-15.1701E-3	-11.3932E-12	244.520E-3	-20.0028E-3
-1.07804E-3	-11.5774E-12	190.281E-3	-11.0456E-3	-11.3179E-12	262.049E-3	-20.7137E-3
-1.08304E-3	-11.6948E-12	199.039E-3	-17.3000E-3	-11.4820E-12	286.823E-3	-18.9026E-3
-1.08804E-3	-11.9063E-12	219.519E-3	-13.8933E-3	-11.7434E-12	290.709E-3	-23.6276E-3
-1.09305E-3	-11.7456E-12	236.998E-3	-7.24939E-3	-11.7556E-12	280.799E-3	-27.9013E-3
-1.09805E-3	-11.9941E-12	249.206E-3	-20.9191E-3	-11.8213E-12	286.273E-3	-14.2997E-3
-1.10305E-3	-12.3535E-12	261.785E-3	-29.5848E-3	-12.2184E-12	307.760E-3	-2.58085E-3
-1.10805E-3	-12.2851E-12	266.059E-3	-25.0127E-3	-12.4464E-12	330.922E-3	-7.09284E-3
-1.11306E-3	-12.2292E-12	279.699E-3	-25.0876E-3	-12.5998E-12	347.569E-3	-6.30669E-3
-1.11806E-3	-12.5407E-12	298.997E-3	-19.2973E-3	-12.8269E-12	355.257E-3	1.59154E-3
-1.12306E-3	-12.5947E-12	305.207E-3	-10.3709E-3	-12.8986E-12	361.421E-3	5.93886E-3
-1.12806E-3	-12.7050E-12	316.519E-3	-10.4670E-3	-13.1563E-12	378.676E-3	8.26792E-3
-1.13307E-3	-12.7552E-12	336.801E-3	-17.0682E-3	-13.1883E-12	396.196E-3	-1.08311E-3
-1.13807E-3	-12.9560E-12	349.135E-3	-17.0396E-3	-13.1443E-12	401.608E-3	-13.0709E-3
-1.14307E-3	-13.2085E-12	364.349E-3	-4.08119E-3	-13.1682E-12	409.702E-3	-3.83453E-3
-1.14807E-3	-13.1832E-12	387.053E-3	825.405E-6	-13.4133E-12	420.286E-3	1.58474E-3
-1.15308E-3	-13.1807E-12	396.766E-3	-8.65463E-3	-13.3252E-12	424.894E-3	-17.9953E-3
-1.15808E-3	-13.4063E-12	400.979E-3	-14.0704E-3	-13.3258E-12	437.043E-3	-33.5886E-3
-1.16308E-3	-13.6584E-12	416.717E-3	-17.0132E-3	-13.4499E-12	461.981E-3	-30.9605E-3
-1.16808E-3	-13.5858E-12	431.839E-3	-17.3988E-3	-13.5879E-12	482.003E-3	-26.6142E-3
-1.17309E-3	-13.7076E-12	439.504E-3	-9.45749E-3	-13.6531E-12	496.279E-3	-21.4237E-3
-1.17809E-3	-14.0275E-12	455.506E-3	-7.30909E-3	-13.8762E-12	511.634E-3	-12.8500E-3
-1.18309E-3	-14.1422E-12	470.889E-3	-13.9057E-3	-13.9591E-12	522.835E-3	-13.5671E-3
-1.18809E-3	-14.2605E-12	477.400E-3	-19.8531E-3	-14.2962E-12	535.189E-3	-8.12273E-3
-1.19310E-3	-14.5858E-12	496.631E-3	-21.8360E-3	-14.7003E-12	554.033E-3	3.28477E-3
-1.19810E-3	-14.8259E-12	517.206E-3	-20.2321E-3	-14.7117E-12	573.107E-3	-4.47440E-3
-1.20310E-3	-15.0249E-12	528.787E-3	-20.7834E-3	-15.0340E-12	593.998E-3	-13.9937E-3
-1.20810E-3	-15.2004E-12	545.377E-3	-19.8221E-3	-15.3602E-12	625.894E-3	-13.1919E-3
-1.21311E-3	-15.4581E-12	556.785E-3	-16.4036E-3	-15.4491E-12	653.278E-3	-15.7919E-3
-1.21811E-3	-15.8486E-12	559.187E-3	-14.6659E-3	-15.8287E-12	664.726E-3	-23.4500E-3
-1.22311E-3	-16.0067E-12	578.364E-3	-15.4072E-3	-16.2103E-12	666.209E-3	-21.7212E-3
-1.22811E-3	-16.0152E-12	606.474E-3	-20.8318E-3	-16.2668E-12	665.388E-3	-10.0425E-3
-1.23312E-3	-16.3708E-12	620.769E-3	-21.0969E-3	-16.2852E-12	677.982E-3	-8.26175E-3
-1.23812E-3	-16.7130E-12	630.623E-3	-23.1791E-3	-16.7453E-12	697.767E-3	-20.0622E-3
-1.24312E-3	-16.6861E-12	648.754E-3	-25.2333E-3	-16.8057E-12	710.570E-3	-29.1756E-3
-1.24812E-3	-16.7780E-12	672.185E-3	-15.5459E-3	-16.7972E-12	731.571E-3	-17.6625E-3
-1.25313E-3	-17.1287E-12	692.949E-3	-13.4431E-3	-16.9592E-12	750.955E-3	-5.05815E-3
-1.25813E-3	-17.3251E-12	704.851E-3	-22.9913E-3	-17.2151E-12	758.725E-3	-6.95848E-3
-1.26313E-3	-17.3421E-12	710.820E-3	-21.9513E-3	-17.4956E-12	783.238E-3	-17.4920E-3
-1.26813E-3	-17.6547E-12	720.694E-3	-14.4205E-3	-17.6376E-12	824.096E-3	-29.1952E-3
-1.27314E-3	-17.7984E-12	732.689E-3	-15.3704E-3	-17.8433E-12	848.922E-3	-21.1185E-3
-1.27814E-3	-18.1285E-12	740.461E-3	-14.9270E-3	-18.2615E-12	854.368E-3	-4.93545E-3
-1.28314E-3	-18.5570E-12	750.956E-3	-17.5502E-3	-18.5400E-12	863.793E-3	-7.77255E-3
-1.28814E-3	-18.8019E-12	777.829E-3	-25.8215E-3	-18.8442E-12	877.494E-3	-24.1668E-3
-1.29315E-3	-19.1725E-12	802.166E-3	-25.5087E-3	-19.3462E-12	893.314E-3	-32.6145E-3
-1.29815E-3	-19.8345E-12	815.315E-3	-28.8759E-3	-19.7009E-12	918.095E-3	-26.9874E-3
-1.30315E-3	-20.0524E-12	834.912E-3	-33.5214E-3	-19.8647E-12	940.237E-3	-13.8733E-3
-1.30815E-3	-20.2346E-12	862.451E-3	-28.4311E-3	-20.2613E-12	950.098E-3	5.16199E-3
-1.31316E-3	-20.7949E-12	887.845E-3	-31.6551E-3	-20.4940E-12	958.566E-3	10.9354E-3
-1.31816E-3	-21.0044E-12	905.557E-3	-33.3180E-3	-20.9301E-12	974.212E-3	-14.3206E-3
-1.32316E-3	-21.1241E-12	914.380E-3	-24.3020E-3	-21.1699E-12	993.692E-3	-37.6259E-3
-1.32816E-3	-21.5437E-12	919.722E-3	-19.8363E-3	-21.3987E-12	1.01259E+0	-21.5253E-3
-1.33317E-3	-21.8464E-12	937.738E-3	-18.5792E-3	-21.7419E-12	1.02444E+0	1.20977E-3
-1.33817E-3	-21.8635E-12	956.641E-3	-17.4862E-3	-22.1814E-12	1.02352E+0	-6.92902E-3
-1.34317E-3	-22.0663E-12	964.177E-3	-29.4955E-3	-22.3619E-12	1.03460E+0	-23.5372E-3
-1.34817E-3	-22.3791E-12	977.584E-3	-43.2516E-3	-22.5932E-12	1.06027E+0	-31.2984E-3
-1.35318E-3	-22.5325E-12	991.204E-3	-29.7285E-3	-22.8915E-12	1.07378E+0	-31.1711E-3
-1.35818E-3	-22.7993E-12	992.163E-3	-11.0260E-3	-23.4370E-12	1.08483E+0	-25.9757E-3
-1.36318E-3	-23.1305E-12	995.663E-3	-10.4291E-3	-23.7834E-12	1.09645E+0	-25.3687E-3
-1.36818E-3	-23.5250E-12	1.01614E+0	-8.97327E-3	-24.1860E-12	1.10263E+0	-24.6903E-3
-1.37319E-3	-23.9969E-12	1.04266E+0	-8.58926E-3	-24.5406E-12	1.11514E+0	-22.5898E-3
-1.37819E-3	-24.2997E-12	1.06010E+0	-23.1465E-3	-24.8901E-12	1.11724E+0	-19.3650E-3
-1.38319E-3	-24.6602E-12	1.06861E+0	-28.4367E-3	-25.2645E-12	1.09746E+0	-17.8297E-3
-1.38819E-3	-25.4556E-12	1.07081E+0	-17.8276E-3	-25.4457E-12	1.09388E+0	-22.3128E-3
-1.39320E-3	-25.8839E-12	1.07489E+0	-24.3638E-3	-25.8819E-12	1.12280E+0	-25.7766E-3
-1.39820E-3	-26.2305E-12	1.08949E+0	-36.6893E-3	-26.1246E-12	1.14507E+0	-29.2006E-3
-1.40320E-3	-26.7309E-12	1.10416E+0	-34.3261E-3	-26.3147E-12	1.14349E+0	-19.4269E-3
-1.40820E-3	-27.1641E-12	1.12195E+0	-32.1764E-3	-26.7029E-12	1.14291E+0	-42.6464E-6
-1.41321E-3	-27.7353E-12	1.14351E+0	-25.2634E-3	-27.0841E-12	1.14439E+0	-2.70400E-3
-1.41821E-3	-27.9399E-12	1.15065E+0	-14.1436E-3	-27.3998E-12	1.14747E+0	-10.8245E-3
-1.42321E-3	-28.1748E-12	1.16034E+0	-16.2463E-3	-27.7063E-12	1.17195E+0	-3.74174E-3
-1.42821E-3	-28.7407E-12	1.17563E+0	-18.1579E-3	-28.2137E-12	1.18985E+0	-6.10780E-3
-1.43322E-3	-29.0634E-12	1.17446E+0	-9.67337E-3	-28.8122E-12	1.17046E+0	-20.0343E-3
-1.43822E-3	-29.1974E-12	1.17069E+0	-4.11540E-3	-29.3485E-12	1.16174E+0	-27.3340E-3
-1.44322E-3	-29.7255E-12	1.17949E+0	-2.69244E-3	-29.7048E-12	1.19590E+0	-23.4902E-3
-1.44822E-3	-30.0390E-12	1.18118E+0	-6.21211E-3	-30.2052E-12	1.22560E+0	-11.7346E-3
-1.45323E-3	-30.3406E-12	1.17201E+0	-18.1956E-3	-30.9499E-12	1.22419E+0	-9.45002E-3
-1.45823E-3	-30.6548E-12	1.17791E+0	-27.2439E-3	-31.5436E-12	1.22345E+0	-23.2577E-3
-1.46323E-3	-31.1332E-12	1.18936E+0	-25.3363E-3	-31.7315E-12	1.22349E+0	-28.1878E-3
-1.46823E-3	-31.6679E-12	1.18664E+0	-26.6120E-3	-32.3955E-12	1.21014E+0	-19.0547E-3
-1.47324E-3	-32.1161E-12	1.19020E+0	-32.1093E-3	-32.9710E-12	1.20493E+0	-12.8327E-3
-1.47824E-3	-32.3271E-12	1.20224E+0	-23.1958E-3	-33.0605E-12	1.21350E+0	-14.6279E-3
-1.48324E-3	-32.9223E-12	1.20585E+0	-12.5342E-3	-33.2406E-12	1.21800E+0	-18.5169E-3
-1.48824E-3	-33.6102E-12	1.20263E+0	-16.6019E-3	-33.5571E-12	1.20781E+0	-22.3553E-3
-1.49325E-3	-33.7671E-12	1.19944E+0	-16.7587E-3	-33.8039E-12	1.19495E+0	-22.7987E-3
-1.49825E-3	-33.9888E-12	1.19480E+0	-14.6803E-3	-33.8771E-12	1.19423E+0	-19.1254E-3
-1.50325E-3	-34.3604E-12	1.20028E+0	-21.6568E-3	-34.0205E-12	1.19782E+0	-18.7576E-3
-1.50825E-3	-34.8797E-12	1.20867E+0	-17.6739E-3	-34.4899E-12	1.18707E+0	-19.4274E-3
-1.51326E-3	-35.0463E-12	1.19944E+0	-16.3270E-3	-34.9227E-12	1.16826E+0	-5.94813E-3
-1.51826E-3	-35.2205E-12	1.19436E+0	-29.6612E-3	-35.2465E-12	1.15898E+0	5.41521E-3
-1.52326E-3	-35.7358E-12	1.19247E+0	-29.3756E-3	-35.5788E-12	1.15888E+0	-2.57822E-3
-1.52826E-3	-36.0587E-12	1.17895E+0	-17.4821E-3	-36.2636E-12	1.16722E+0	-2.58221E-3
-1.53327E-3	-36.2676E-12	1.18184E+0	-7.28622E-3	-37.0049E-12	1.17842E+0	1.90785E-3
-1.53827E-3	-36.5729E-12	1.20054E+0	1.74854E-3	-37.3962E-12	1.17915E+0	-11.5710E-3
-1.54327E-3	-37.0830E-12	1.19363E+0	467.233E-6	-37.7833E-12	1.17836E+0	-32.5159E-3
-1.54827E-3	-37.5412E-12	1.17201E+0	-14.0796E-3	-38.5973E-12	1.18973E+0	-48.3518E-3
-1.55328E-3	-37.9712E-12	1.16697E+0	-25.1695E-3	-39.0599E-12	1.19526E+0	-57.7262E-3
-1.55828E-3	-38.2762E-12	1.16515E+0	-21.2624E-3	-39.4990E-12	1.17627E+0	-49.2244E-3
-1.56328E-3	-38.8826E-12	1.16503E+0	-14.2241E-3	-39.8186E-12	1.15769E+0	-26.0480E-3
-1.56828E-3	-39.2808E-12	1.16595E+0	-7.63081E-3	-40.1884E-12	1.14680E+0	-13.2322E-3
-1.57329E-3	-39.7200E-12	1.15196E+0	1.93008E-3	-40.2801E-12	1.13002E+0	-17.2271E-3
-1.57829E-3	-39.8817E-12	1.14715E+0	-117.545E-6	-40.3240E-12	1.11886E+0	-23.0959E-3
-1.58329E-3	-40.5867E-12	1.15699E+0	-9.37981E-3	-40.5788E-12	1.11283E+0	-22.6938E-3
-1.58829E-3	-41.0352E-12	1.14942E+0	-9.79052E-3	-40.7071E-12	1.11072E+0	-14.9701E-3
-1.59330E-3	-41.1004E-12	1.12965E+0	-17.0042E-3	-40.7842E-12	1.11003E+0	-10.5234E-3
-1.59830E-3	-41.6618E-12	1.12843E+0	-19.9232E-3	-40.8228E-12	1.10255E+0	-19.0886E-3
-1.60330E-3	-42.1339E-12	1.12789E+0	-6.84053E-3	-41.0602E-12	1.09128E+0	-28.8788E-3
-1.60830E-3	-42.3159E-12	1.10900E+0	-9.35070E-3	-41.6788E-12	1.08084E+0	-32.7999E-3
-1.61331E-3	-42.7496E-12	1.10365E+0	-23.2318E-3	-41.9208E-12	1.08322E+0	-35.5125E-3
-1.61831E-3	-43.2363E-12	1.09916E+0	-22.6182E-3	-42.1252E-12	1.09194E+0	-36.0057E-3
-1.62331E-3	-43.5895E-12	1.08217E+0	-23.5804E-3	-42.9884E-12	1.08794E+0	-31.0469E-3
-1.62831E-3	-44.0190E-12	1.09024E+0	-29.4229E-3	-43.6688E-12	1.07805E+0	-24.2018E-3
-1.63332E-3	-44.3341E-12	1.11388E+0	-26.1785E-3	-44.1813E-12	1.07136E+0	-26.1251E-3
-1.63832E-3	-44.9987E-12	1.11667E+0	-25.2212E-3	-44.7189E-12	1.06439E+0	-32.0583E-3
-1.64332E-3	-45.3274E-12	1.11266E+0	-26.0462E-3	-45.5556E-12	1.05020E+0	-35.3077E-3
-1.64832E-3	-45.6122E-12	1.10606E+0	-22.4839E-3	-46.0378E-12	1.03657E+0	-31.9049E-3
-1.65333E-3	-46.0306E-12	1.08846E+0	-20.4228E-3	-46.3146E-12	1.04215E+0	-13.6700E-3
-1.65833E-3	-46.6045E-12	1.07731E+0	-25.6127E-3	-46.6108E-12	1.05550E+0	-6.36785E-3
-1.66333E-3	-46.9977E-12	1.06842E+0	-19.5395E-3	-46.9503E-12	1.04820E+0	-18.0289E-3
-1.66833E-3	-47.2427E-12	1.05689E+0	-1.83068E-3	-47.2631E-12	1.02772E+0	-19.3624E-3
-1.67334E-3	-47.5011E-12	1.05043E+0	-3.74425E-3	-47.0772E-12	1.01697E+0	-6.98188E-3
-1.67834E-3	-47.5423E-12	1.04602E+0	-16.6954E-3	-47.1445E-12	1.02229E+0	1.27774E-3
-1.68334E-3	-47.9243E-12	1.02748E+0	-21.0945E-3	-47.6506E-12	1.03156E+0	-6.08679E-3
-1.68834E-3	-48.1966E-12	1.01743E+0	-27.7840E-3	-47.8929E-12	1.03152E+0	-15.7637E-3
-1.69335E-3	-48.4746E-12	1.03806E+0	-35.5254E-3	-47.9203E-12	1.01908E+0	-15.4188E-3
-1.69835E-3	-48.9201E-12	1.03587E+0	-41.9291E-3	-48.6393E-12	1.00621E+0	-10.9376E-3
-1.70335E-3	-49.1032E-12	1.01093E+0	-56.0157E-3	-49.2316E-12	1.00817E+0	-11.4822E-3
-1.70835E-3	-49.4059E-12	1.00093E+0	-50.3542E-3	-49.7228E-12	1.01217E+0	-23.0184E-3
-1.71336E-3	-50.0210E-12	992.281E-3	-21.6257E-3	-50.2625E-12	1.00669E+0	-29.8841E-3
-1.71836E-3	-50.5415E-12	992.376E-3	-11.0083E-3	-50.8665E-12	998.709E-3	-30.6627E-3
-1.72336E-3	-50.8125E-12	1.01597E+0	-11.1089E-3	-51.6580E-12	997.006E-3	-31.6479E-3
-1.72836E-3	-51.4112E-12	1.02154E+0	-7.70299E-3	-51.9901E-12	994.399E-3	-22.5786E-3
-1.73337E-3	-51.8873E-12	999.667E-3	-13.9835E-3	-52.3623E-12	991.862E-3	-7.37491E-3
-1.73837E-3	-52.3874E-12	998.407E-3	-12.3667E-3	-53.0905E-12	989.150E-3	4.25129E-3
-1.74337E-3	-52.5063E-12	1.01332E+0	-2.69130E-3	-53.0752E-12	986.798E-3	4.14015E-3
-1.74837E-3	-52.6188E-12	1.01698E+0	-3.60228E-3	-53.0691E-12	985.742E-3	355.181E-6
-1.75338E-3	-52.8571E-12	1.01290E+0	-13.2277E-3	-53.2603E-12	969.599E-3	-3.52283E-3
-1.75838E-3	-52.9843E-12	999.339E-3	-18.8000E-3	-53.2602E-12	948.324E-3	-5.31411E-3
-1.76338E-3	-53.3187E-12	978.546E-3	-13.3973E-3	-53.4003E-12	939.105E-3	4.01515E-3
-1.76838E-3	-53.1314E-12	972.443E-3	-9.53742E-3	-53.2480E-12	933.789E-3	8.07619E-3
-1.77339E-3	-53.1255E-12	974.276E-3	-2.76647E-3	-53.2792E-12	918.659E-3	88.4921E-6
-1.77839E-3	-53.3665E-12	964.302E-3	-2.68304E-3	-53.4397E-12	911.125E-3	-5.51955E-3
-1.78339E-3	-53.2698E-12	952.307E-3	-18.4307E-3	-53.9160E-12	921.931E-3	-8.65361E-3
-1.78839E-3	-53.2645E-12	939.753E-3	-20.3451E-3	-54.0956E-12	922.669E-3	-14.4118E-3
-1.79340E-3	-53.7829E-12	921.343E-3	-9.82729E-3	-54.5101E-12	919.604E-3	-11.9593E-3
-1.79840E-3	-54.1870E-12	921.099E-3	-5.26326E-3	-55.1912E-12	924.323E-3	-7.94634E-3
-1.80340E-3	-54.3537E-12	928.434E-3	-6.47904E-3	-55.8406E-12	919.343E-3	-8.22852E-3
-1.80840E-3	-55.0626E-12	916.806E-3	-7.86328E-3	-56.4360E-12	915.372E-3	-4.33343E-3
-1.81341E-3	-56.0159E-12	913.717E-3	-153.843E-6	-56.6848E-12	922.908E-3	-2.37233E-3
-1.81841E-3	-56.7312E-12	929.813E-3	3.76161E-3	-57.2999E-12	913.811E-3	-1.48288E-3
-1.82341E-3	-57.2523E-12	945.250E-3	-7.95389E-3	-57.7246E-12	892.840E-3	-6.21395E-3
-1.82841E-3	-57.8044E-12	951.467E-3	-9.84871E-3	-57.9241E-12	887.505E-3	-23.7715E-3
-1.83342E-3	-58.5407E-12	938.311E-3	-2.27046E-3	-57.7659E-12	878.792E-3	-28.2087E-3
-1.83842E-3	-59.0237E-12	901.020E-3	-8.22419E-3	-58.1658E-12	868.741E-3	-11.5780E-3
-1.84342E-3	-59.2738E-12	880.812E-3	-21.1925E-3	-58.4004E-12	881.160E-3	-528.503E-6
-1.84842E-3	-59.3753E-12	899.691E-3	-32.0968E-3	-58.2556E-12	897.005E-3	-4.72911E-3
-1.85343E-3	-59.4195E-12	922.325E-3	-34.2838E-3	-58.2821E-12	890.288E-3	-14.3816E-3
-1.85843E-3	-59.5339E-12	926.962E-3	-23.6446E-3	-58.8286E-12	877.121E-3	-20.7913E-3
-1.86343E-3	-59.6429E-12	911.631E-3	-13.1625E-3	-59.0008E-12	872.684E-3	-26.8608E-3
-1.86843E-3	-59.7056E-12	891.416E-3	-13.1449E-3	-59.0840E-12	877.021E-3	-29.3252E-3
-1.87344E-3	-59.6747E-12	886.664E-3	-23.9761E-3	-59.6408E-12	893.208E-3	-19.0388E-3
-1.87844E-3	-59.6273E-12	888.214E-3	-21.9317E-3	-60.0944E-12	904.476E-3	-8.97007E-3
-1.88344E-3	-59.8221E-12	877.722E-3	466.893E-6	-60.4081E-12	896.919E-3	-7.65904E-3
-1.88844E-3	-60.0118E-12	862.141E-3	9.40439E-3	-60.7832E-12	877.835E-3	-14.5500E-3
-1.89345E-3	-60.2612E-12	855.208E-3	417.131E-6	-61.3672E-12	861.446E-3	-28.6867E-3
-1.89845E-3	-60.3475E-12	852.033E-3	-12.0703E-3	-61.8070E-12	859.042E-3	-28.0313E-3
-1.90345E-3	-61.0997E-12	850.376E-3	-31.1193E-3	-62.0970E-12	865.866E-3	-12.2863E-3
-1.90845E-3	-61.9422E-12	849.967E-3	-44.2574E-3	-62.3574E-12	869.950E-3	-14.1506E-3
-1.91346E-3	-62.5488E-12	846.477E-3	-40.7069E-3	-62.6625E-12	862.208E-3	-26.3293E-3
-1.91846E-3	-62.9623E-12	847.128E-3	-38.8775E-3	-63.2969E-12	843.677E-3	-25.8563E-3
-1.92346E-3	-63.5326E-12	857.945E-3	-29.8532E-3	-63.0245E-12	828.166E-3	-21.5921E-3
-1.92846E-3	-63.9684E-12	867.135E-3	-13.2028E-3	-63.0067E-12	831.168E-3	-18.9401E-3
-1.93347E-3	-64.2667E-12	858.583E-3	-13.3646E-3	-63.3728E-12	842.837E-3	-13.4231E-3
-1.93847E-3	-64.2965E-12	851.256E-3	-24.6383E-3	-63.4228E-12	848.715E-3	-15.6168E-3
-1.94347E-3	-64.3987E-12	859.111E-3	-27.9288E-3	-63.4942E-12	848.839E-3	-24.0816E-3
-1.94847E-3	-64.3816E-12	865.041E-3	-25.7986E-3	-63.6331E-12	845.977E-3	-20.4302E-3
-1.95348E-3	-64.4449E-12	864.354E-3	-26.1737E-3	-64.1725E-12	846.662E-3	-15.3000E-3
-1.95848E-3	-64.3985E-12	861.957E-3	-16.2703E-3	-64.6297E-12	836.287E-3	-21.5734E-3
-1.96348E-3	-64.4605E-12	848.178E-3	-8.17678E-3	-65.0816E-12	822.440E-3	-14.9215E-3
-1.96848E-3	-64.5771E-12	829.759E-3	-11.6398E-3	-65.4595E-12	835.419E-3	4.35017E-3
-1.97349E-3	-64.3224E-12	822.432E-3	-6.31154E-3	-66.1024E-12	833.993E-3	8.31201E-3
-1.97849E-3	-64.6996E-12	804.632E-3	-3.61686E-3	-66.3202E-12	807.204E-3	3.38031E-3
-1.98349E-3	-64.8659E-12	788.724E-3	-13.7680E-3	-66.6970E-12	807.214E-3	-5.49530E-3
-1.98849E-3	-65.0123E-12	800.083E-3	-17.6981E-3	-67.0020E-12	805.198E-3	-17.3870E-3
-1.99350E-3	-65.4349E-12	803.557E-3	-13.6273E-3	-67.4537E-12	792.535E-3	-11.5629E-3
-1.99850E-3	-66.1463E-12	792.852E-3	-11.3801E-3	-67.3651E-12	804.649E-3	-5.05714E-3
-2.00350E-3	-66.6184E-12	799.843E-3	-10.3622E-3	-67.0988E-12	813.211E-3	-18.9505E-3
-2.00850E-3	-67.4520E-12	810.681E-3	-6.07658E-3	-67.1845E-12	799.261E-3	-28.3426E-3
-2.01351E-3	-68.1667E-12	816.529E-3	-11.8927E-3	-67.4005E-12	785.352E-3	-16.7567E-3
-2.01851E-3	-68.5022E-12	829.255E-3	-11.6492E-3	-67.3129E-12	781.316E-3	-9.66798E-3
-2.02351E-3	-68.8788E-12	813.826E-3	7.56085E-3	-67.2052E-12	786.438E-3	-17.9392E-3
-2.02851E-3	-69.3456E-12	785.835E-3	3.69640E-3	-67.1948E-12	805.664E-3	-26.4337E-3
-2.03352E-3	-69.6273E-12	794.161E-3	-24.0563E-3	-67.8566E-12	810.517E-3	-31.1362E-3
-2.03852E-3	-69.9751E-12	799.527E-3	-29.6398E-3	-68.2997E-12	796.305E-3	-28.7040E-3
-2.04352E-3	-70.3807E-12	784.044E-3	-16.7636E-3	-68.8589E-12	806.301E-3	-21.7128E-3
-2.04852E-3	-70.5024E-12	799.903E-3	-10.1524E-3	-69.6535E-12	826.730E-3	-20.9570E-3
-2.05353E-3	-70.4754E-12	827.871E-3	-4.05655E-3	-70.7976E-12	822.371E-3	-25.4830E-3
-2.05853E-3	-70.8956E-12	824.368E-3	-9.90441E-3	-71.2396E-12	826.642E-3	-12.9016E-3
-2.06353E-3	-71.1674E-12	820.391E-3	-20.0765E-3	-71.8034E-12	846.323E-3	-4.15152E-3
-2.06853E-3	-71.0666E-12	818.592E-3	-6.51156E-3	-72.7372E-12	830.602E-3	-6.47302E-3
-2.07354E-3	-71.3634E-12	803.777E-3	4.16437E-3	-72.8978E-12	798.675E-3	-3.92606E-3
-2.07854E-3	-71.2900E-12	815.359E-3	1.14134E-3	-73.0705E-12	788.568E-3	-17.7420E-3
-2.08354E-3	-71.8166E-12	831.777E-3	7.61344E-3	-73.3254E-12	785.250E-3	-27.9550E-3
-2.08854E-3	-72.1061E-12	800.417E-3	7.38282E-3	-73.3236E-12	781.022E-3	-7.46742E-3
-2.09355E-3	-72.1062E-12	777.342E-3	-3.03467E-3	-73.1302E-12	776.679E-3	4.10531E-3
-2.09855E-3	-72.3459E-12	787.233E-3	-5.89258E-3	-72.7226E-12	764.741E-3	-10.8163E-3
-2.10355E-3	-72.4270E-12	784.222E-3	-8.98825E-3	-72.4668E-12	755.647E-3	-11.2364E-3
-2.10855E-3	-72.4684E-12	777.334E-3	-11.2547E-3	-72.2837E-12	753.691E-3	-8.90146E-3
-2.11356E-3	-72.7404E-12	768.101E-3	-2.33609E-3	-72.4590E-12	746.577E-3	-19.3210E-3
-2.11856E-3	-73.0975E-12	749.844E-3	-2.48291E-3	-72.3137E-12	746.673E-3	-6.65987E-3
-2.12356E-3	-73.4709E-12	762.772E-3	-21.1987E-3	-72.6009E-12	758.452E-3	14.4249E-3
-2.12856E-3	-73.9352E-12	796.038E-3	-19.4786E-3	-72.9908E-12	762.425E-3	8.82349E-3
-2.13357E-3	-74.0811E-12	797.252E-3	-4.10632E-3	-73.7220E-12	756.559E-3	-8.40563E-3
-2.13857E-3	-74.2565E-12	781.789E-3	-9.23486E-3	-73.8479E-12	773.638E-3	-18.7666E-3
-2.14357E-3	-74.5187E-12	784.348E-3	-11.4424E-3	-74.3933E-12	797.029E-3	-19.5207E-3
-2.14857E-3	-74.5887E-12	782.748E-3	-1.92725E-3	-75.3305E-12	776.569E-3	-10.4048E-3
-2.15358E-3	-75.2162E-12	773.927E-3	-10.5156E-3	-76.1935E-12	761.371E-3	4.79016E-3
-2.15858E-3	-75.9771E-12	781.830E-3	-26.0745E-3	-76.6615E-12	780.569E-3	4.79091E-3
-2.16358E-3	-76.5122E-12	789.749E-3	-23.3131E-3	-77.4833E-12	786.420E-3	-7.53487E-3
-2.16858E-3	-76.9127E-12	782.057E-3	-16.7389E-3	-77.7255E-12	770.125E-3	-13.2780E-3
-2.17359E-3	-77.0741E-12	777.724E-3	-15.1195E-3	-77.5288E-12	750.152E-3	-26.0804E-3
-2.17859E-3	-77.5200E-12	780.395E-3	-14.9142E-3	-77.4034E-12	735.729E-3	-40.2207E-3
-2.18359E-3	-77.3437E-12	772.826E-3	-25.9317E-3	-77.1366E-12	727.806E-3	-35.5995E-3
-2.18859E-3	-77.3395E-12	764.742E-3	-31.4462E-3	-76.5721E-12	731.889E-3	-23.7444E-3
-2.19360E-3	-77.2196E-12	759.065E-3	-19.0429E-3	-76.3069E-12	738.301E-3	-11.1379E-3
-2.19860E-3	-76.9083E-12	750.718E-3	-24.7437E-3	-76.1855E-12	731.652E-3	-3.75557E-3
-2.20360E-3	-76.7228E-12	755.517E-3	-39.8675E-3	-75.8503E-12	724.114E-3	-18.1354E-3
-2.20860E-3	-76.5083E-12	759.015E-3	-27.3274E-3	-75.9728E-12	732.748E-3	-38.9011E-3
-2.21361E-3	-76.4249E-12	740.865E-3	-22.8210E-3	-75.8888E-12	744.489E-3	-46.1260E-3
-2.21861E-3	-76.3785E-12	727.934E-3	-39.5879E-3	-76.1345E-12	744.131E-3	-39.1927E-3
-2.22361E-3	-76.6991E-12	730.638E-3	-40.5260E-3	-76.6156E-12	735.391E-3	-17.8094E-3
-2.22861E-3	-76.9642E-12	732.121E-3	-31.6459E-3	-77.0909E-12	728.760E-3	-3.31631E-3
-2.23362E-3	-77.8185E-12	736.779E-3	-32.4288E-3	-77.7275E-12	729.772E-3	-11.6716E-3
-2.23862E-3	-78.4549E-12	737.182E-3	-35.2986E-3	-78.3867E-12	726.611E-3	-20.8096E-3
-2.24362E-3	-79.1151E-12	721.292E-3	-31.9565E-3	-79.1873E-12	726.471E-3	-21.1138E-3
-2.24862E-3	-79.8191E-12	717.732E-3	-26.1661E-3	-79.9801E-12	733.380E-3	-26.8964E-3
-2.25363E-3	-80.7905E-12	733.250E-3	-22.8533E-3	-80.3283E-12	738.173E-3	-24.0279E-3
-2.25863E-3	-81.7020E-12	746.225E-3	-28.5534E-3	-80.6512E-12	753.004E-3	-6.60617E-3
-2.26363E-3	-82.2184E-12	760.701E-3	-42.3380E-3	-81.2592E-12	767.070E-3	5.32462E-3
-2.26863E-3	-82.8161E-12	774.766E-3	-41.6906E-3	-81.6633E-12	755.928E-3	-2.37080E-3
-2.27364E-3	-83.3178E-12	768.974E-3	-24.9075E-3	-81.5928E-12	735.241E-3	-24.1410E-3
-2.27864E-3	-83.7298E-12	764.236E-3	-12.0959E-3	-81.7142E-12	736.183E-3	-38.7343E-3
-2.28364E-3	-83.2631E-12	768.873E-3	-2.98016E-3	-81.8842E-12	741.164E-3	-45.4774E-3
-2.28864E-3	-83.2847E-12	756.311E-3	-2.43733E-3	-81.8484E-12	735.449E-3	-35.1537E-3
-2.29365E-3	-83.2040E-12	744.046E-3	-16.0792E-3	-81.8119E-12	739.212E-3	-22.8180E-3
-2.29865E-3	-83.2471E-12	756.701E-3	-17.1177E-3	-82.1308E-12	746.935E-3	-20.4483E-3
-2.30365E-3	-82.9394E-12	769.642E-3	-10.9065E-3	-82.5129E-12	747.631E-3	-8.22577E-3
-2.30865E-3	-82.6595E-12	769.219E-3	-17.5006E-3	-83.0816E-12	751.026E-3	-7.15814E-3
-2.31366E-3	-82.6934E-12	764.437E-3	-18.2879E-3	-83.5515E-12	759.083E-3	-13.1339E-3
-2.31866E-3	-82.8193E-12	749.963E-3	-13.6129E-3	-84.0569E-12	753.459E-3	-1.01626E-3
-2.32366E-3	-82.9018E-12	739.116E-3	-15.0930E-3	-84.4117E-12	738.777E-3	17.2981E-3
-2.32866E-3	-83.2808E-12	746.849E-3	-9.69275E-3	-84.9715E-12	737.073E-3	18.8671E-3
-2.33367E-3	-83.6506E-12	759.610E-3	-6.33167E-3	-85.8018E-12	734.838E-3	-3.70415E-3
-2.33867E-3	-84.0296E-12	754.422E-3	-15.1261E-3	-85.5095E-12	724.709E-3	-21.8754E-3
-2.34367E-3	-84.6189E-12	730.213E-3	-14.2901E-3	-85.4276E-12	722.503E-3	-25.5958E-3
-2.34867E-3	-85.0641E-12	709.095E-3	-1.67026E-3	-85.8664E-12	724.354E-3	-14.9813E-3
-2.35368E-3	-85.6364E-12	713.417E-3	-1.74287E-3	-85.6278E-12	718.300E-3	-3.46090E-3
-2.35868E-3	-86.1932E-12	735.133E-3	-6.72753E-3	-85.7443E-12	715.191E-3	-14.9335E-3
-2.36368E-3	-86.5601E-12	747.236E-3	-5.20210E-3	-85.5172E-12	718.740E-3	-21.8127E-3
-2.36868E-3	-86.9057E-12	747.597E-3	-18.4262E-3	-85.7278E-12	728.810E-3	-9.76437E-3
-2.37369E-3	-86.8440E-12	743.888E-3	-41.0569E-3	-85.4493E-12	739.651E-3	-8.88837E-3
-2.37869E-3	-86.8318E-12	736.812E-3	-42.2931E-3	-86.1742E-12	729.345E-3	-22.4968E-3
-2.38369E-3	-86.7363E-12	721.990E-3	-30.9842E-3	-86.6192E-12	714.568E-3	-13.9660E-3
-2.38869E-3	-86.4770E-12	717.138E-3	-25.6837E-3	-86.6637E-12	718.290E-3	-2.93712E-3
-2.39370E-3	-86.3256E-12	732.140E-3	-15.4495E-3	-87.0808E-12	713.749E-3	-10.0971E-3
-2.39870E-3	-86.0512E-12	737.902E-3	-16.0560E-3	-87.9052E-12	705.332E-3	-9.60384E-3
-2.40370E-3	-86.2289E-12	729.942E-3	-31.5131E-3	-88.0132E-12	716.795E-3	-13.3615E-3
-2.40870E-3	-86.3935E-12	728.306E-3	-34.2602E-3	-88.4565E-12	723.065E-3	-23.6309E-3
-2.41371E-3	-86.7445E-12	735.355E-3	-27.5827E-3	-88.8932E-12	731.168E-3	-19.0992E-3
-2.41871E-3	-86.5888E-12	743.762E-3	-30.2048E-3	-89.2274E-12	751.568E-3	-14.0348E-3
-2.42371E-3	-87.6282E-12	742.264E-3	-22.5518E-3	-89.2625E-12	751.431E-3	-22.5092E-3
-2.42871E-3	-87.9447E-12	718.403E-3	-4.38368E-3	-89.1122E-12	735.999E-3	-24.1611E-3
-2.43372E-3	-88.4854E-12	709.265E-3	-7.29510E-3	-88.8546E-12	725.154E-3	-19.5080E-3
-2.43872E-3	-88.8529E-12	727.858E-3	-17.7891E-3	-88.7490E-12	711.114E-3	-27.0438E-3
-2.44372E-3	-89.7706E-12	724.617E-3	-14.0037E-3	-88.6349E-12	699.611E-3	-32.1449E-3
-2.44872E-3	-89.8150E-12	713.120E-3	-6.61426E-3	-88.2713E-12	712.825E-3	-13.7657E-3
-2.45373E-3	-90.6838E-12	729.193E-3	-4.29732E-3	-88.0795E-12	723.027E-3	-2.48602E-3
-2.45873E-3	-91.0308E-12	749.168E-3	-2.54423E-3	-88.3236E-12	715.665E-3	-23.1429E-3
-2.46373E-3	-90.9343E-12	750.256E-3	-22.7019E-3	-88.0861E-12	726.333E-3	-44.3492E-3
-2.46873E-3	-91.4010E-12	744.906E-3	-45.0136E-3	-88.7013E-12	736.232E-3	-51.5752E-3
-2.47374E-3	-91.7824E-12	739.827E-3	-23.7215E-3	-89.3235E-12	715.842E-3	-37.9795E-3
-2.47874E-3	-91.7914E-12	732.014E-3	-3.13818E-3	-90.5302E-12	693.846E-3	-10.3062E-3
-2.48374E-3	-92.0120E-12	731.221E-3	-5.64812E-3	-91.2123E-12	698.503E-3	-10.7337E-3
-2.48874E-3	-92.4602E-12	733.313E-3	-3.12435E-3	-92.2296E-12	721.847E-3	-18.1392E-3
-2.49375E-3	-92.2412E-12	730.857E-3	-11.5466E-3	-93.2571E-12	744.429E-3	-12.4202E-3
-2.49875E-3	-92.3449E-12	727.931E-3	-26.6294E-3	-94.2510E-12	757.929E-3	-16.2474E-3
-2.50375E-3	-92.7016E-12	726.998E-3	-27.0479E-3	-94.6030E-12	753.635E-3	-15.2075E-3
-2.50875E-3	-92.9816E-12	737.353E-3	-26.0489E-3	-94.8464E-12	734.765E-3	-11.2799E-3
-2.51376E-3	-92.8824E-12	741.513E-3	-27.2378E-3	-95.2447E-12	727.024E-3	-27.1868E-3
-2.51876E-3	-93.4058E-12	715.571E-3	-15.2854E-3	-95.2755E-12	724.204E-3	-44.0383E-3
-2.52376E-3	-94.0513E-12	689.910E-3	4.89175E-3	-94.9418E-12	710.474E-3	-37.5130E-3
-2.52876E-3	-94.4737E-12	702.907E-3	14.1325E-3	-94.9988E-12	704.300E-3	-33.8081E-3
-2.53377E-3	-94.6387E-12	729.113E-3	6.71546E-3	-94.6568E-12	704.302E-3	-45.2109E-3
-2.53877E-3	-95.0870E-12	732.557E-3	-12.6750E-3	-93.9891E-12	703.651E-3	-47.9368E-3
-2.54377E-3	-95.2528E-12	740.656E-3	-33.1858E-3	-93.5639E-12	702.749E-3	-41.8080E-3
-2.54877E-3	-95.1523E-12	751.950E-3	-24.4755E-3	-93.2832E-12	700.510E-3	-30.9122E-3
-2.55378E-3	-95.3002E-12	738.787E-3	2.32922E-3	-93.4436E-12	708.790E-3	-17.4396E-3
-2.55878E-3	-95.2488E-12	726.810E-3	-5.46280E-3	-93.4666E-12	723.124E-3	-12.0562E-3
-2.56378E-3	-95.3690E-12	730.552E-3	-24.7833E-3	-93.7996E-12	730.299E-3	-20.3977E-3
-2.56878E-3	-95.3710E-12	724.767E-3	-19.1670E-3	-94.6437E-12	725.719E-3	-23.4339E-3
-2.57379E-3	-95.1515E-12	700.839E-3	-22.9448E-3	-95.3689E-12	710.026E-3	-4.53518E-3
-2.57879E-3	-95.5514E-12	684.699E-3	-28.9830E-3	-95.9492E-12	707.877E-3	8.51663E-3
-2.58379E-3	-95.8065E-12	697.704E-3	-13.3432E-3	-96.5792E-12	718.369E-3	6.48338E-3
-2.58879E-3	-96.1417E-12	716.691E-3	-8.40771E-3	-97.7374E-12	724.499E-3	3.87637E-3
-2.59380E-3	-96.4910E-12	712.544E-3	-19.9819E-3	-97.9715E-12	720.384E-3	-10.9262E-3
-2.59880E-3	-96.9250E-12	697.003E-3	-17.5998E-3	-98.4420E-12	713.444E-3	-13.3748E-3
-2.60380E-3	-96.8608E-12	695.930E-3	-10.2174E-3	-98.8010E-12	719.299E-3	3.68731E-3
-2.60880E-3	-97.1155E-12	715.702E-3	-9.40584E-3	-99.0034E-12	719.651E-3	-9.29431E-3
-2.61381E-3	-97.2200E-12	737.183E-3	-8.00010E-3	-98.7494E-12	704.388E-3	-26.7347E-3
-2.61881E-3	-97.5936E-12	740.857E-3	-20.9257E-3	-98.5843E-12	710.985E-3	-21.9188E-3
-2.62381E-3	-97.4201E-12	735.959E-3	-33.0069E-3	-98.3415E-12	735.852E-3	-10.4540E-3
-2.62881E-3	-97.5823E-12	718.341E-3	-18.0139E-3	-98.5231E-12	731.205E-3	-2.77744E-3
-2.63382E-3	-97.8461E-12	680.666E-3	-3.11741E-3	-98.3344E-12	701.940E-3	-8.64371E-3
-2.63882E-3	-98.3524E-12	668.270E-3	3.81869E-3	-98.1146E-12	693.538E-3	-18.2778E-3
-2.64382E-3	-98.1829E-12	689.847E-3	9.23049E-3	-98.4483E-12	706.295E-3	-17.8785E-3
-2.64882E-3	-98.2723E-12	692.600E-3	-7.61322E-3	-98.7919E-12	710.382E-3	-7.56816E-3
-2.65383E-3	-98.5200E-12	689.110E-3	-34.8403E-3	-98.5396E-12	712.669E-3	-12.3470E-3
-2.65883E-3	-99.0532E-12	706.101E-3	-41.1316E-3	-99.1352E-12	706.953E-3	-21.8110E-3
-2.66383E-3	-98.9107E-12	718.427E-3	-33.4689E-3	-100.098E-12	699.063E-3	-5.12857E-3
-2.66883E-3	-99.2059E-12	715.931E-3	-22.3803E-3	-100.461E-12	705.090E-3	12.9431E-3
-2.67384E-3	-99.6346E-12	711.544E-3	-5.80463E-3	-100.979E-12	709.795E-3	9.78536E-3
-2.67884E-3	-99.9514E-12	706.476E-3	4.11265E-3	-101.414E-12	710.180E-3	2.48196E-3
-2.68384E-3	-100.563E-12	700.894E-3	250.147E-6	-102.210E-12	724.180E-3	145.770E-6
-2.68884E-3	-100.820E-12	697.816E-3	-14.5159E-3	-102.712E-12	723.592E-3	-8.83475E-3
-2.69385E-3	-101.735E-12	700.999E-3	-26.3161E-3	-102.279E-12	692.504E-3	-26.5695E-3
-2.69885E-3	-102.061E-12	707.870E-3	-25.3440E-3	-102.722E-12	686.032E-3	-38.8227E-3
-2.70385E-3	-102.574E-12	714.966E-3	-21.3162E-3	-102.602E-12	705.312E-3	-39.5844E-3
-2.70885E-3	-102.717E-12	715.714E-3	-21.0232E-3	-102.450E-12	699.115E-3	-32.1513E-3
-2.71386E-3	-103.297E-12	704.300E-3	-25.3378E-3	-102.560E-12	671.756E-3	-30.1589E-3
-2.71886E-3	-103.664E-12	695.056E-3	-17.4884E-3	-102.772E-12	668.480E-3	-36.3678E-3
-2.72386E-3	-103.187E-12	689.176E-3	-14.0990E-3	-102.740E-12	685.889E-3	-24.4902E-3
-2.72886E-3	-103.538E-12	689.773E-3	-36.2202E-3	-103.291E-12	702.426E-3	-8.39946E-3
-2.73387E-3	-103.735E-12	706.887E-3	-35.0941E-3	-103.101E-12	710.222E-3	-25.7972E-3
-2.73887E-3	-104.067E-12	714.295E-3	-8.44720E-3	-103.809E-12	698.042E-3	-41.7928E-3
-2.74387E-3	-103.640E-12	707.132E-3	-10.9468E-3	-104.282E-12	680.295E-3	-26.2148E-3
-2.74887E-3	-103.836E-12	708.780E-3	-12.0174E-3	-104.663E-12	680.668E-3	-20.6929E-3
-2.75388E-3	-104.236E-12	704.187E-3	12.6549E-3	-104.824E-12	683.730E-3	-23.3539E-3
-2.75888E-3	-104.570E-12	687.569E-3	112.775E-6	-105.212E-12	678.734E-3	-6.80286E-3
-2.76388E-3	-104.248E-12	682.347E-3	-32.4009E-3	-105.589E-12	681.329E-3	4.41241E-3
-2.76888E-3	-104.689E-12	680.598E-3	-32.9859E-3	-105.484E-12	685.484E-3	-8.23718E-3
-2.77389E-3	-105.255E-12	676.100E-3	-28.1347E-3	-105.436E-12	684.466E-3	-12.1168E-3
-2.77889E-3	-105.380E-12	688.754E-3	-28.4286E-3	-104.848E-12	687.226E-3	-4.58623E-3
-2.78389E-3	-105.585E-12	700.227E-3	-12.5539E-3	-104.986E-12	680.057E-3	-18.3230E-3
-2.78889E-3	-105.437E-12	696.309E-3	3.55308E-3	-104.376E-12	668.343E-3	-25.4377E-3
-2.79390E-3	-106.341E-12	695.453E-3	-758.475E-6	-104.305E-12	669.970E-3	-10.3911E-3
-2.79890E-3	-106.151E-12	701.832E-3	-7.84795E-3	-104.430E-12	674.449E-3	-6.58001E-3
-2.80390E-3	-105.995E-12	709.433E-3	-20.9712E-3	-104.211E-12	676.893E-3	-6.21538E-3
-2.80890E-3	-105.940E-12	708.468E-3	-35.1163E-3	-104.501E-12	678.739E-3	-2.80152E-3
-2.81391E-3	-106.150E-12	704.308E-3	-14.3109E-3	-104.678E-12	672.977E-3	-9.86790E-3
-2.81891E-3	-105.599E-12	689.340E-3	5.48241E-3	-105.564E-12	665.083E-3	-3.76307E-3
-2.82391E-3	-105.309E-12	679.087E-3	-8.87945E-3	-105.608E-12	674.092E-3	5.12946E-3
-2.82891E-3	-105.513E-12	686.319E-3	-26.9388E-3	-106.344E-12	691.220E-3	-16.4719E-3
-2.83392E-3	-105.197E-12	677.067E-3	-25.0930E-3	-106.940E-12	677.332E-3	-29.5193E-3
-2.83892E-3	-105.597E-12	673.868E-3	-15.0607E-3	-108.273E-12	664.854E-3	-13.1021E-3
-2.84392E-3	-106.199E-12	687.943E-3	-15.4370E-3	-108.712E-12	691.872E-3	3.17076E-3
-2.84892E-3	-107.100E-12	680.136E-3	-19.6666E-3	-109.001E-12	706.047E-3	9.29223E-3
-2.85393E-3	-107.879E-12	678.441E-3	-17.3327E-3	-109.690E-12	692.202E-3	-1.24590E-3
-2.85893E-3	-108.294E-12	707.087E-3	-7.75069E-3	-110.275E-12	685.244E-3	-14.6045E-3
-2.86393E-3	-109.318E-12	713.170E-3	618.574E-6	-109.793E-12	693.046E-3	-17.2537E-3
-2.86893E-3	-110.487E-12	698.409E-3	-12.4500E-3	-109.762E-12	695.179E-3	-22.8725E-3
-2.87394E-3	-111.600E-12	701.011E-3	-28.1662E-3	-109.513E-12	696.850E-3	-32.0506E-3
-2.87894E-3	-112.169E-12	690.194E-3	-27.0540E-3	-109.979E-12	694.902E-3	-25.0607E-3
-2.88394E-3	-112.699E-12	683.759E-3	-27.8791E-3	-110.058E-12	667.220E-3	-16.5586E-3
-2.88894E-3	-113.323E-12	709.043E-3	-18.2999E-3	-110.051E-12	658.434E-3	-20.1216E-3
-2.89395E-3	-113.767E-12	716.040E-3	-10.2133E-3	-110.396E-12	675.224E-3	-25.8742E-3
-2.89895E-3	-113.486E-12	705.110E-3	-33.6521E-3	-110.776E-12	681.057E-3	-29.0867E-3
-2.90395E-3	-113.545E-12	708.771E-3	-44.2355E-3	-110.952E-12	688.824E-3	-28.2755E-3
-2.90895E-3	-113.033E-12	707.541E-3	-24.5814E-3	-111.762E-12	699.857E-3	-24.1589E-3
-2.91396E-3	-112.415E-12	690.027E-3	-17.8109E-3	-112.685E-12	699.880E-3	-12.0470E-3
-2.91896E-3	-112.002E-12	676.482E-3	-25.6484E-3	-113.375E-12	694.181E-3	-1.34311E-3
-2.92396E-3	-111.864E-12	670.686E-3	-19.9223E-3	-114.443E-12	698.898E-3	5.81720E-3
-2.92896E-3	-111.539E-12	665.679E-3	-14.3043E-3	-114.482E-12	695.341E-3	7.77326E-3
-2.93397E-3	-111.701E-12	670.945E-3	-27.4908E-3	-115.108E-12	685.143E-3	-10.6301E-3
-2.93897E-3	-111.270E-12	690.174E-3	-38.6730E-3	-114.878E-12	689.258E-3	-27.2686E-3
-2.94397E-3	-112.215E-12	695.957E-3	-32.9210E-3	-115.082E-12	688.298E-3	-15.9671E-3
-2.94897E-3	-112.896E-12	690.972E-3	-14.9062E-3	-115.113E-12	689.581E-3	4.42561E-3
-2.95398E-3	-113.510E-12	689.909E-3	7.15026E-3	-115.222E-12	698.459E-3	7.06541E-3
-2.95898E-3	-113.852E-12	676.677E-3	13.4296E-3	-114.700E-12	689.871E-3	-5.33795E-3
-2.96398E-3	-114.341E-12	661.409E-3	-6.37554E-3	-114.270E-12	680.404E-3	-26.4282E-3
-2.96898E-3	-115.202E-12	665.992E-3	-17.9903E-3	-114.096E-12	673.850E-3	-38.8445E-3
-2.97399E-3	-115.697E-12	669.753E-3	-17.2324E-3	-113.792E-12	669.126E-3	-27.4951E-3
-2.97899E-3	-115.956E-12	673.898E-3	-33.1998E-3	-113.865E-12	672.807E-3	-6.91092E-3
-2.98399E-3	-115.422E-12	690.770E-3	-34.6651E-3	-113.665E-12	677.129E-3	5.04841E-3
-2.98899E-3	-116.100E-12	701.786E-3	-10.9916E-3	-113.749E-12	689.118E-3	-2.74158E-3
-2.99400E-3	-115.784E-12	712.744E-3	-10.6518E-3	-114.096E-12	698.390E-3	-20.2197E-3
-2.99900E-3	-115.571E-12	722.444E-3	-21.0985E-3	-114.451E-12	710.394E-3	-32.3604E-3
-3.00400E-3	-114.495E-12	706.279E-3	-11.2749E-3	-114.820E-12	715.650E-3	-29.3402E-3
-3.00900E-3	-114.380E-12	684.136E-3	-1.60199E-3	-115.379E-12	696.840E-3	-24.3699E-3
-3.01401E-3	-114.058E-12	682.484E-3	-2.04568E-3	-116.063E-12	674.894E-3	-32.2076E-3
-3.01901E-3	-114.095E-12	680.208E-3	-10.8596E-3	-116.147E-12	663.588E-3	-28.1842E-3
-3.02401E-3	-113.774E-12	658.435E-3	-28.6436E-3	-116.593E-12	665.322E-3	-21.3162E-3
-3.02901E-3	-113.719E-12	642.627E-3	-37.4145E-3	-116.944E-12	665.782E-3	-30.1624E-3
-3.03402E-3	-114.294E-12	652.449E-3	-15.5133E-3	-116.950E-12	657.764E-3	-21.0050E-3
-3.03902E-3	-114.809E-12	667.430E-3	8.10364E-3	-116.119E-12	651.477E-3	2.92940E-3
-3.04402E-3	-115.888E-12	669.154E-3	-8.04681E-3	-115.784E-12	645.208E-3	211.278E-6
-3.04902E-3	-116.548E-12	657.957E-3	-22.8774E-3	-115.749E-12	644.234E-3	-14.6453E-3
-3.05403E-3	-116.992E-12	647.967E-3	-17.2245E-3	-115.905E-12	658.659E-3	-7.98628E-3
-3.05903E-3	-118.003E-12	665.351E-3	-16.1816E-3	-115.499E-12	672.595E-3	57.1291E-6
-3.06403E-3	-118.720E-12	691.804E-3	-6.84059E-3	-114.986E-12	675.092E-3	-125.872E-6
-3.06903E-3	-119.135E-12	692.623E-3	2.40492E-3	-115.392E-12	678.607E-3	7.07569E-3
-3.07404E-3	-119.122E-12	687.486E-3	-6.66800E-3	-116.425E-12	676.854E-3	-6.63277E-3
-3.07904E-3	-119.132E-12	692.710E-3	-12.4720E-3	-116.996E-12	672.553E-3	-32.5492E-3
-3.08404E-3	-119.893E-12	687.425E-3	633.458E-6	-117.295E-12	684.726E-3	-18.6079E-3
-3.08904E-3	-119.765E-12	679.186E-3	8.71097E-3	-118.049E-12	697.535E-3	-916.983E-6
-3.09405E-3	-119.559E-12	694.423E-3	-2.07274E-3	-119.561E-12	696.034E-3	-7.04352E-3
-3.09905E-3	-119.859E-12	716.188E-3	-2.11475E-3	-120.145E-12	693.945E-3	7.53276E-3
-3.10405E-3	-120.485E-12	707.487E-3	7.09309E-3	-121.273E-12	701.267E-3	27.9602E-3
-3.10905E-3	-120.329E-12	688.154E-3	10.2103E-3	-121.959E-12	708.075E-3	13.7422E-3
-3.11406E-3	-121.152E-12	681.790E-3	7.79000E-3	-122.889E-12	710.662E-3	-7.02112E-3
-3.11906E-3	-121.884E-12	670.238E-3	-11.2662E-3	-123.317E-12	702.430E-3	-10.7297E-3
-3.12406E-3	-122.413E-12	668.000E-3	-39.1938E-3	-123.752E-12	688.472E-3	-9.17365E-3
-3.12906E-3	-122.688E-12	682.699E-3	-50.3701E-3	-123.630E-12	684.475E-3	-5.97830E-3
-3.13407E-3	-123.397E-12	693.714E-3	-31.4718E-3	-123.613E-12	687.797E-3	-18.0318E-3
-3.13907E-3	-124.265E-12	701.758E-3	-3.60588E-3	-123.514E-12	686.902E-3	-35.9452E-3
-3.14407E-3	-123.630E-12	702.537E-3	5.45881E-3	-123.707E-12	692.940E-3	-26.9007E-3
-3.14907E-3	-123.883E-12	705.227E-3	-5.47702E-3	-123.058E-12	699.446E-3	-11.8973E-3
-3.15408E-3	-124.602E-12	706.714E-3	-25.2107E-3	-122.242E-12	689.041E-3	-15.2452E-3
-3.15908E-3	-124.332E-12	693.101E-3	-29.3539E-3	-122.564E-12	674.155E-3	-14.6867E-3
-3.16408E-3	-124.194E-12	692.319E-3	-15.1253E-3	-123.050E-12	670.870E-3	-11.1449E-3
-3.16908E-3	-123.908E-12	689.000E-3	836.295E-6	-122.968E-12	682.583E-3	-17.7102E-3
-3.17409E-3	-124.087E-12	672.564E-3	7.35583E-3	-122.860E-12	689.052E-3	-26.8032E-3
-3.17909E-3	-123.945E-12	671.377E-3	-2.16187E-3	-123.330E-12	681.196E-3	-20.6297E-3
-3.18409E-3	-124.247E-12	690.250E-3	-10.7279E-3	-123.927E-12	676.280E-3	-16.9625E-3
-3.18909E-3	-124.071E-12	709.052E-3	-11.9121E-3	-124.792E-12	664.715E-3	-37.1082E-3
-3.19410E-3	-124.517E-12	699.903E-3	-19.3636E-3	-125.330E-12	647.523E-3	-34.6054E-3
-3.19910E-3	-124.929E-12	675.410E-3	-24.7234E-3	-125.338E-12	654.282E-3	6.22880E-3
-3.20410E-3	-125.775E-12	670.220E-3	-14.3430E-3	-126.250E-12	671.081E-3	22.1017E-3
-3.20910E-3	-126.174E-12	675.760E-3	3.12797E-3	-126.736E-12	683.820E-3	4.77032E-3
-3.21411E-3	-126.706E-12	687.941E-3	-2.03131E-3	-125.657E-12	675.741E-3	-1.05555E-3
-3.21911E-3	-127.069E-12	708.442E-3	-15.5289E-3	-126.209E-12	645.099E-3	-895.560E-6
-3.22411E-3	-126.381E-12	708.700E-3	-21.3508E-3	-125.781E-12	636.005E-3	-6.11705E-3
-3.22911E-3	-126.329E-12	699.387E-3	-21.4416E-3	-125.416E-12	649.278E-3	520.709E-6
-3.23412E-3	-126.466E-12	700.418E-3	-2.70607E-3	-125.155E-12	656.825E-3	6.58858E-3
-3.23912E-3	-125.022E-12	699.572E-3	11.7548E-3	-125.580E-12	659.438E-3	-5.03101E-3
-3.24412E-3	-124.828E-12	700.386E-3	2.68793E-3	-125.532E-12	670.877E-3	-23.0844E-3
-3.24912E-3	-124.649E-12	697.304E-3	-9.05552E-3	-125.479E-12	679.101E-3	-32.7841E-3
-3.25413E-3	-124.299E-12	666.273E-3	-5.05255E-3	-125.576E-12	673.970E-3	-30.1416E-3
-3.25913E-3	-123.477E-12	634.662E-3	-5.89811E-3	-126.297E-12	683.896E-3	-23.8410E-3
-3.26413E-3	-123.896E-12	633.953E-3	-18.1454E-3	-126.605E-12	691.785E-3	-24.7297E-3
-3.26913E-3	-123.859E-12	648.397E-3	-25.3259E-3	-126.451E-12	673.977E-3	-22.1956E-3
-3.27414E-3	-124.232E-12	661.284E-3	-34.4490E-3	-127.015E-12	670.861E-3	2.64042E-3
-3.27914E-3	-125.268E-12	673.199E-3	-37.3203E-3	-127.362E-12	680.557E-3	19.2970E-3
-3.28414E-3	-126.022E-12	681.592E-3	-31.5862E-3	-127.670E-12	662.574E-3	5.80667E-3
-3.28914E-3	-126.909E-12	674.292E-3	-31.2082E-3	-127.724E-12	651.967E-3	-9.75134E-3
-3.29415E-3	-128.621E-12	661.438E-3	-23.2209E-3	-128.153E-12	665.175E-3	-19.8801E-3
-3.29915E-3	-129.459E-12	666.311E-3	-15.0691E-3	-128.719E-12	677.161E-3	-32.3360E-3
-3.30415E-3	-130.494E-12	693.321E-3	-32.8516E-3	-129.464E-12	689.184E-3	-23.6545E-3
-3.30915E-3	-131.418E-12	710.264E-3	-27.7419E-3	-129.123E-12	672.820E-3	-3.38341E-3
-3.31416E-3	-132.709E-12	703.670E-3	7.29022E-3	-129.798E-12	631.930E-3	-1.64836E-3
-3.31916E-3	-133.212E-12	697.985E-3	6.11006E-3	-130.685E-12	615.427E-3	-4.76242E-3
-3.32416E-3	-133.355E-12	694.134E-3	-16.7201E-3	-130.618E-12	641.376E-3	-2.04987E-3
-3.32916E-3	-133.040E-12	681.660E-3	-19.5362E-3	-130.518E-12	679.456E-3	-3.93107E-3
-3.33417E-3	-132.989E-12	668.292E-3	-13.0102E-3	-130.613E-12	699.577E-3	-4.60269E-3
-3.33917E-3	-132.215E-12	672.499E-3	-9.30628E-3	-131.514E-12	699.003E-3	1.13179E-3
-3.34417E-3	-131.644E-12	681.275E-3	-5.77588E-3	-132.330E-12	675.403E-3	733.887E-6
-3.34917E-3	-131.418E-12	671.333E-3	-24.5826E-3	-132.384E-12	661.335E-3	-2.54375E-3
-3.35418E-3	-131.289E-12	647.801E-3	-44.6496E-3	-132.668E-12	681.902E-3	-6.48604E-3
-3.35918E-3	-130.322E-12	641.033E-3	-28.5796E-3	-133.832E-12	686.015E-3	-14.0133E-3
-3.36418E-3	-130.231E-12	664.092E-3	-9.84936E-3	-133.681E-12	646.790E-3	-14.4186E-3
-3.36918E-3	-130.803E-12	692.075E-3	-9.17950E-3	-133.488E-12	615.463E-3	-14.5288E-3
-3.37419E-3	-131.315E-12	697.043E-3	-15.2061E-3	-132.881E-12	623.375E-3	-10.8058E-3
-3.37919E-3	-131.350E-12	671.372E-3	-15.3121E-3	-133.470E-12	650.725E-3	-4.26216E-3
-3.38419E-3	-132.221E-12	652.019E-3	-3.73508E-3	-133.707E-12	664.760E-3	-15.8994E-3
-3.38919E-3	-133.829E-12	662.948E-3	2.37592E-3	-132.403E-12	658.045E-3	-11.8933E-3
-3.39420E-3	-134.789E-12	685.754E-3	-6.65877E-3	-131.948E-12	642.454E-3	-1.09662E-3
-3.39920E-3	-134.967E-12	697.614E-3	-17.1827E-3	-131.851E-12	642.211E-3	-9.58139E-3
-3.40420E-3	-135.666E-12	683.064E-3	-11.4068E-3	-131.763E-12	651.903E-3	-22.7542E-3
-3.40920E-3	-136.579E-12	665.037E-3	-3.32745E-3	-131.626E-12	662.479E-3	-32.0753E-3
-3.41421E-3	-136.313E-12	677.472E-3	-9.86581E-3	-131.995E-12	687.322E-3	-3.07098E-3
-3.41921E-3	-136.069E-12	698.595E-3	-20.9230E-3	-132.447E-12	700.823E-3	33.0365E-3
-3.42421E-3	-135.670E-12	697.191E-3	-42.7165E-3	-132.988E-12	703.822E-3	30.9731E-3
-3.42921E-3	-135.869E-12	678.576E-3	-59.0537E-3	-133.700E-12	699.656E-3	16.9872E-3
-3.43422E-3	-135.028E-12	651.329E-3	-32.4331E-3	-133.972E-12	678.203E-3	4.65242E-3
-3.43922E-3	-134.381E-12	646.153E-3	3.70710E-3	-134.910E-12	658.785E-3	-11.6388E-3
-3.44422E-3	-134.090E-12	668.897E-3	6.91247E-3	-135.477E-12	656.165E-3	-16.8496E-3
-3.44922E-3	-134.265E-12	677.674E-3	-2.31588E-3	-136.668E-12	672.252E-3	-12.4669E-3
-3.45423E-3	-133.999E-12	662.570E-3	-3.19056E-3	-137.640E-12	684.657E-3	-18.2205E-3
-3.45923E-3	-134.094E-12	645.519E-3	-5.02259E-3	-137.926E-12	687.325E-3	-19.1619E-3
-3.46423E-3	-135.063E-12	645.934E-3	-8.18024E-3	-137.587E-12	704.549E-3	132.839E-6
-3.46923E-3	-135.759E-12	654.536E-3	-10.7183E-3	-138.022E-12	699.932E-3	22.0163E-3
-3.47424E-3	-136.088E-12	649.382E-3	-18.9525E-3	-137.477E-12	657.508E-3	22.1718E-3
-3.47924E-3	-136.896E-12	655.172E-3	-29.6617E-3	-137.236E-12	642.591E-3	12.0206E-3
-3.48424E-3	-137.850E-12	666.809E-3	-20.6176E-3	-136.539E-12	654.513E-3	-5.51584E-3
-3.48924E-3	-138.279E-12	650.032E-3	-4.93801E-3	-136.089E-12	667.858E-3	-19.8952E-3
-3.49425E-3	-138.808E-12	646.785E-3	-5.61210E-3	-135.732E-12	676.944E-3	-9.00786E-3
-3.49925E-3	-139.237E-12	669.246E-3	-13.2906E-3	-135.428E-12	681.602E-3	-4.45345E-3
-3.50425E-3	-139.410E-12	686.127E-3	-30.1286E-3	-135.843E-12	693.068E-3	-14.1340E-3
-3.50925E-3	-139.483E-12	708.900E-3	-29.3698E-3	-136.685E-12	700.314E-3	-21.0288E-3
-3.51426E-3	-139.786E-12	718.895E-3	-24.0772E-3	-137.304E-12	688.245E-3	-20.6626E-3
-3.51926E-3	-139.640E-12	704.175E-3	-40.8354E-3	-137.599E-12	667.850E-3	-7.32980E-3
-3.52426E-3	-139.633E-12	686.862E-3	-42.6718E-3	-138.137E-12	669.876E-3	5.17798E-3
-3.52926E-3	-138.788E-12	661.265E-3	-22.9878E-3	-140.170E-12	689.369E-3	-6.01401E-3
-3.53427E-3	-139.265E-12	634.469E-3	-12.8095E-3	-141.198E-12	691.905E-3	-40.1215E-3
-3.53927E-3	-139.453E-12	656.533E-3	-13.1658E-3	-141.704E-12	677.986E-3	-48.3653E-3
-3.54427E-3	-139.872E-12	698.732E-3	2.10080E-3	-142.080E-12	670.914E-3	-20.4590E-3
-3.54927E-3	-139.747E-12	683.075E-3	-5.45119E-3	-143.329E-12	670.534E-3	-5.54013E-3
-3.55428E-3	-140.335E-12	650.271E-3	-33.3616E-3	-143.802E-12	665.078E-3	-3.62393E-3
-3.55928E-3	-141.038E-12	639.934E-3	-16.4670E-3	-143.409E-12	653.955E-3	-16.3654E-3
-3.56428E-3	-141.605E-12	636.748E-3	5.26056E-3	-142.737E-12	654.640E-3	-57.2955E-3
-3.56928E-3	-141.976E-12	651.973E-3	-14.3547E-3	-142.276E-12	663.100E-3	-77.2782E-3
-3.57429E-3	-142.196E-12	678.337E-3	-41.2199E-3	-142.409E-12	668.687E-3	-54.5151E-3
-3.57929E-3	-142.886E-12	688.773E-3	-59.4894E-3	-141.999E-12	678.557E-3	-26.6111E-3
-3.58429E-3	-143.204E-12	680.794E-3	-62.0298E-3	-140.806E-12	686.619E-3	-24.3308E-3
-3.58929E-3	-142.563E-12	665.571E-3	-33.8848E-3	-140.179E-12	672.020E-3	-31.3325E-3
-3.59430E-3	-142.280E-12	657.977E-3	-5.86108E-3	-139.838E-12	652.749E-3	-20.6662E-3
-3.59930E-3	-142.612E-12	646.111E-3	14.9949E-3	-140.419E-12	652.154E-3	-12.9423E-3
-3.60430E-3	-142.798E-12	631.408E-3	36.0201E-3	-139.620E-12	642.842E-3	-18.4583E-3
-3.60930E-3	-142.493E-12	647.869E-3	28.2576E-3	-139.713E-12	636.882E-3	-24.1721E-3
-3.61431E-3	-142.012E-12	662.788E-3	14.5468E-3	-140.015E-12	655.532E-3	-30.1470E-3
-3.61931E-3	-142.067E-12	652.597E-3	11.1958E-3	-140.467E-12	660.059E-3	-33.7563E-3
-3.62431E-3	-142.936E-12	651.396E-3	-1.54408E-3	-140.635E-12	654.831E-3	-24.8593E-3
-3.62931E-3	-142.804E-12	655.587E-3	-16.0551E-3	-141.802E-12	664.799E-3	2.32253E-3
-3.63432E-3	-142.869E-12	654.241E-3	-40.5933E-3	-142.558E-12	673.594E-3	27.9561E-3
-3.63932E-3	-143.131E-12	651.220E-3	-51.7405E-3	-142.573E-12	671.883E-3	28.4834E-3
-3.64432E-3	-144.474E-12	655.474E-3	-33.9924E-3	-142.539E-12	662.827E-3	8.92513E-3
-3.64932E-3	-144.508E-12	668.569E-3	-32.5722E-3	-143.931E-12	651.631E-3	-19.7956E-3
-3.65433E-3	-145.035E-12	667.348E-3	-41.3698E-3	-143.871E-12	638.764E-3	-35.7075E-3
-3.65933E-3	-145.197E-12	656.723E-3	-46.0036E-3	-144.143E-12	640.699E-3	-24.6320E-3
-3.66433E-3	-145.811E-12	668.302E-3	-51.1517E-3	-144.191E-12	644.972E-3	-9.67673E-3
-3.66933E-3	-145.050E-12	686.543E-3	-37.6810E-3	-144.493E-12	636.269E-3	-3.79085E-3
-3.67434E-3	-145.178E-12	691.243E-3	-16.8362E-3	-144.636E-12	645.888E-3	5.13264E-3
-3.67934E-3	-144.851E-12	688.773E-3	-3.25673E-3	-144.576E-12	665.709E-3	4.82127E-3
-3.68434E-3	-144.346E-12	654.795E-3	-5.19385E-3	-145.206E-12	677.738E-3	-10.6817E-3
-3.68934E-3	-143.896E-12	619.299E-3	-38.3387E-3	-145.506E-12	688.935E-3	-10.4453E-3
-3.69435E-3	-144.174E-12	621.654E-3	-54.8146E-3	-145.350E-12	686.515E-3	-6.54391E-3
-3.69935E-3	-144.444E-12	630.199E-3	-31.2972E-3	-145.538E-12	658.514E-3	-26.8562E-3
-3.70435E-3	-144.673E-12	644.425E-3	-23.5519E-3	-146.470E-12	638.491E-3	-30.8662E-3
-3.70935E-3	-145.205E-12	652.497E-3	-23.6327E-3	-146.831E-12	644.496E-3	-19.3034E-3
-3.71436E-3	-146.282E-12	638.181E-3	-43.2482E-6	-147.724E-12	642.593E-3	-33.6253E-3
-3.71936E-3	-147.719E-12	626.425E-3	12.5314E-3	-148.009E-12	642.979E-3	-44.6438E-3
-3.72436E-3	-148.810E-12	639.634E-3	6.67689E-3	-149.034E-12	656.645E-3	-24.7659E-3
-3.72936E-3	-149.074E-12	661.077E-3	-1.93680E-3	-150.165E-12	663.740E-3	-11.7637E-3
-3.73437E-3	-151.128E-12	659.411E-3	-20.5191E-3	-149.554E-12	660.187E-3	-22.9609E-3
-3.73937E-3	-152.113E-12	655.180E-3	-33.6929E-3	-149.681E-12	651.377E-3	-34.0848E-3
-3.74437E-3	-153.114E-12	670.155E-3	-36.7329E-3	-150.573E-12	651.219E-3	-42.1960E-3
-3.74937E-3	-152.963E-12	682.159E-3	-44.8433E-3	-151.158E-12	660.027E-3	-50.1865E-3
-3.75438E-3	-153.879E-12	695.757E-3	-52.5883E-3	-151.315E-12	691.149E-3	-58.0731E-3
-3.75938E-3	-153.562E-12	708.649E-3	-41.8256E-3	-150.969E-12	721.809E-3	-57.6744E-3
-3.76438E-3	-153.622E-12	702.344E-3	-27.4313E-3	-151.543E-12	712.187E-3	-28.3770E-3
-3.76938E-3	-152.385E-12	690.489E-3	-36.5761E-3	-152.077E-12	697.061E-3	4.75630E-3
-3.77439E-3	-151.287E-12	673.408E-3	-38.8080E-3	-152.720E-12	689.405E-3	16.5330E-3
-3.77939E-3	-151.256E-12	647.125E-3	-11.5234E-3	-152.708E-12	675.344E-3	2.92751E-3
-3.78439E-3	-150.828E-12	635.608E-3	-2.67782E-3	-152.648E-12	666.239E-3	-17.1247E-3
-3.78939E-3	-150.265E-12	648.067E-3	-4.53609E-3	-152.838E-12	674.507E-3	-26.6992E-3
-3.79440E-3	-149.458E-12	665.832E-3	6.09176E-3	-153.177E-12	697.737E-3	-45.5937E-3
-3.79940E-3	-149.463E-12	681.180E-3	-9.67439E-3	-153.478E-12	698.868E-3	-68.3237E-3
-3.80440E-3	-150.205E-12	687.482E-3	-15.5693E-3	-152.941E-12	676.698E-3	-64.4147E-3
-3.80940E-3	-150.584E-12	668.705E-3	10.1248E-3	-153.016E-12	679.727E-3	-39.6917E-3
-3.81441E-3	-150.533E-12	646.048E-3	6.94061E-3	-152.930E-12	703.076E-3	-31.1362E-3
-3.81941E-3	-151.099E-12	651.756E-3	-19.2522E-3	-152.733E-12	693.386E-3	-40.2998E-3
-3.82441E-3	-152.188E-12	659.325E-3	-22.6646E-3	-152.475E-12	658.221E-3	-40.5993E-3
-3.82941E-3	-152.982E-12	642.032E-3	-24.2504E-3	-152.185E-12	648.620E-3	-25.1459E-3
-3.83442E-3	-153.380E-12	634.242E-3	-33.0586E-3	-151.097E-12	647.395E-3	-17.4414E-3
-3.83942E-3	-152.892E-12	632.056E-3	-30.4932E-3	-151.401E-12	629.602E-3	-31.9747E-3
-3.84442E-3	-153.247E-12	618.735E-3	-28.6116E-3	-150.807E-12	621.451E-3	-27.7849E-3
-3.84942E-3	-153.779E-12	620.934E-3	-17.6676E-3	-150.555E-12	625.932E-3	317.818E-6
-3.85443E-3	-153.241E-12	637.471E-3	-2.69939E-3	-150.663E-12	630.262E-3	-6.12471E-3
-3.85943E-3	-152.157E-12	654.645E-3	-10.5903E-3	-150.841E-12	640.566E-3	-31.0502E-3
-3.86443E-3	-151.418E-12	663.140E-3	-28.8085E-3	-151.894E-12	655.582E-3	-27.6761E-3
-3.86943E-3	-151.808E-12	664.976E-3	-19.1465E-3	-151.914E-12	670.461E-3	-11.8465E-3
-3.87444E-3	-151.679E-12	661.832E-3	1.21637E-3	-152.797E-12	676.596E-3	-5.58168E-3
-3.87944E-3	-151.095E-12	646.231E-3	-5.20159E-3	-153.623E-12	664.106E-3	-11.9926E-3
-3.88444E-3	-151.840E-12	627.978E-3	-19.2160E-3	-154.548E-12	648.314E-3	-16.2860E-3
-3.88944E-3	-152.196E-12	608.053E-3	-20.2823E-3	-154.913E-12	646.921E-3	-19.8235E-3
-3.89445E-3	-153.201E-12	597.624E-3	-24.4562E-3	-155.080E-12	642.771E-3	-36.6277E-3
-3.89945E-3	-154.035E-12	624.212E-3	-24.1444E-3	-156.250E-12	639.823E-3	-49.7037E-3
-3.90445E-3	-154.541E-12	657.177E-3	-10.7050E-3	-156.386E-12	656.634E-3	-44.3249E-3
-3.90945E-3	-155.498E-12	665.004E-3	5.82916E-3	-156.736E-12	664.005E-3	-33.0880E-3
-3.91446E-3	-157.230E-12	662.126E-3	25.2222E-3	-155.825E-12	646.835E-3	-18.0204E-3
-3.91946E-3	-158.208E-12	641.649E-3	17.5968E-3	-156.839E-12	636.193E-3	-15.7027E-3
-3.92446E-3	-158.059E-12	640.589E-3	-21.0442E-3	-156.966E-12	646.570E-3	-27.3447E-3
-3.92946E-3	-159.146E-12	665.055E-3	-46.5528E-3	-156.417E-12	661.704E-3	-25.3336E-3
-3.93447E-3	-159.780E-12	651.797E-3	-30.9686E-3	-156.023E-12	658.745E-3	-16.7058E-3
-3.93947E-3	-159.657E-12	635.820E-3	-2.68810E-3	-156.369E-12	649.104E-3	-16.9488E-3
-3.94447E-3	-159.211E-12	651.571E-3	-1.90540E-3	-156.346E-12	663.734E-3	-12.7209E-3
-3.94947E-3	-159.026E-12	667.443E-3	-6.85107E-3	-156.431E-12	673.691E-3	-10.5646E-3
-3.95448E-3	-159.181E-12	678.021E-3	-10.1346E-3	-156.787E-12	657.940E-3	-13.7643E-3
-3.95948E-3	-157.812E-12	690.087E-3	-7.71062E-3	-157.847E-12	650.530E-3	-7.06687E-3
-3.96448E-3	-157.338E-12	692.495E-3	11.7061E-3	-158.933E-12	661.303E-3	-4.55788E-3
-3.96948E-3	-157.624E-12	670.124E-3	9.51399E-3	-160.033E-12	672.428E-3	-281.860E-6
-3.97449E-3	-158.364E-12	654.916E-3	-13.9669E-3	-160.536E-12	686.918E-3	20.4840E-3
-3.97949E-3	-159.155E-12	657.936E-3	-11.4866E-3	-161.105E-12	687.806E-3	28.2752E-3
-3.98449E-3	-160.011E-12	653.158E-3	18.9844E-3	-161.710E-12	684.365E-3	12.7743E-3
-3.98949E-3	-160.172E-12	651.948E-3	23.6822E-3	-162.473E-12	682.827E-3	-8.00695E-3
-3.99450E-3	-160.729E-12	675.708E-3	-2.31887E-3	-162.509E-12	663.077E-3	-22.5111E-3
-3.99950E-3	-162.263E-12	686.658E-3	-19.5678E-3	-161.878E-12	657.526E-3	-8.69537E-3
-4.00450E-3	-162.329E-12	660.225E-3	-31.0991E-3	-161.385E-12	678.836E-3	6.18496E-3
-4.00950E-3	-162.814E-12	646.774E-3	-42.4619E-3	-161.292E-12	683.755E-3	-11.3755E-3
-4.01451E-3	-162.891E-12	658.862E-3	-40.1619E-3	-161.150E-12	656.529E-3	-13.9438E-3
-4.01951E-3	-163.346E-12	682.798E-3	-19.1999E-3	-160.117E-12	641.120E-3	5.19712E-3
-4.02451E-3	-164.000E-12	716.244E-3	2.16251E-3	-158.979E-12	644.212E-3	-5.14961E-3
-4.02951E-3	-163.730E-12	721.498E-3	-7.25627E-3	-158.872E-12	629.268E-3	-31.9989E-3
-4.03452E-3	-163.015E-12	698.256E-3	-21.6323E-3	-160.130E-12	629.770E-3	-25.9392E-3
-4.03952E-3	-162.664E-12	680.896E-3	-9.73158E-3	-159.726E-12	670.985E-3	-11.3466E-3
-4.04452E-3	-162.523E-12	669.817E-3	4.96977E-3	-159.361E-12	686.716E-3	-13.6035E-3
-4.04952E-3	-161.746E-12	660.012E-3	6.30219E-3	-160.631E-12	661.737E-3	-7.04089E-3
-4.05453E-3	-161.246E-12	651.103E-3	4.52043E-3	-161.680E-12	652.890E-3	-4.61437E-3
-4.05953E-3	-160.843E-12	649.561E-3	589.042E-6	-162.889E-12	661.534E-3	-27.1397E-3
-4.06453E-3	-161.308E-12	658.330E-3	-323.590E-6	-162.983E-12	655.193E-3	-52.4795E-3
-4.06953E-3	-161.459E-12	662.487E-3	20.2708E-3	-163.991E-12	663.674E-3	-46.4939E-3
-4.07454E-3	-161.356E-12	659.734E-3	30.9505E-3	-164.846E-12	676.325E-3	-24.0845E-3
-4.07954E-3	-161.606E-12	661.596E-3	4.35150E-3	-164.660E-12	660.073E-3	-11.5185E-3
-4.08454E-3	-162.153E-12	656.163E-3	-7.46157E-3	-164.847E-12	647.616E-3	-6.07371E-3
-4.08954E-3	-162.936E-12	655.304E-3	-346.880E-6	-164.968E-12	647.148E-3	-2.46075E-3
-4.09455E-3	-162.958E-12	679.162E-3	-10.8768E-3	-164.638E-12	658.725E-3	7.56744E-3
-4.09955E-3	-162.999E-12	704.304E-3	-24.4687E-3	-164.006E-12	673.458E-3	7.65856E-3
-4.10455E-3	-164.095E-12	703.240E-3	-20.6776E-3	-163.679E-12	662.304E-3	-15.4328E-3
-4.10955E-3	-164.186E-12	675.587E-3	-8.38698E-3	-163.587E-12	644.569E-3	-37.1696E-3
-4.11456E-3	-164.350E-12	653.715E-3	-3.22136E-3	-163.499E-12	641.539E-3	-37.5443E-3
-4.11956E-3	-164.728E-12	647.892E-3	-3.25078E-3	-163.508E-12	644.440E-3	-32.6752E-3
-4.12456E-3	-164.875E-12	650.714E-3	-8.02193E-3	-163.333E-12	649.825E-3	-25.8448E-3
-4.12956E-3	-164.590E-12	658.148E-3	-17.7160E-3	-164.968E-12	664.249E-3	1.94414E-3
-4.13457E-3	-165.175E-12	651.873E-3	-33.1782E-3	-165.566E-12	684.185E-3	20.1809E-3
-4.13957E-3	-165.942E-12	641.872E-3	-41.0878E-3	-166.268E-12	689.295E-3	-1.85815E-3
-4.14457E-3	-165.734E-12	652.198E-3	-35.2779E-3	-167.060E-12	682.179E-3	-27.1564E-3
-4.14957E-3	-166.267E-12	668.911E-3	-27.7610E-3	-168.898E-12	675.410E-3	-20.9963E-3
-4.15458E-3	-167.525E-12	660.510E-3	-19.8834E-3	-169.328E-12	663.032E-3	-6.47193E-3
-4.15958E-3	-168.127E-12	643.982E-3	-28.6149E-3	-170.069E-12	658.703E-3	-7.05323E-3
-4.16458E-3	-169.198E-12	645.254E-3	-41.8811E-3	-169.891E-12	670.155E-3	-12.0985E-3
-4.16958E-3	-168.945E-12	653.980E-3	-34.9206E-3	-170.648E-12	675.101E-3	-13.8901E-3
-4.17459E-3	-169.770E-12	658.017E-3	-27.1801E-3	-170.663E-12	656.516E-3	-2.82738E-3
-4.17959E-3	-170.490E-12	670.322E-3	-23.5564E-3	-170.425E-12	643.014E-3	-129.334E-6
-4.18459E-3	-171.033E-12	690.621E-3	-24.9764E-3	-169.942E-12	647.406E-3	-28.7926E-3
-4.18959E-3	-170.927E-12	692.526E-3	-19.4034E-3	-169.763E-12	645.751E-3	-40.4582E-3
-4.19460E-3	-170.830E-12	663.755E-3	-8.40267E-3	-168.616E-12	641.803E-3	-33.0424E-3
-4.19960E-3	-170.601E-12	648.645E-3	-10.0026E-3	-168.249E-12	628.459E-3	-32.7969E-3
-4.20460E-3	-170.262E-12	666.040E-3	-10.1058E-3	-168.398E-12	620.037E-3	-20.0899E-3
-4.20960E-3	-169.631E-12	657.745E-3	-2.45059E-3	-169.030E-12	630.264E-3	-20.5866E-3
-4.21461E-3	-168.571E-12	640.473E-3	4.72138E-3	-168.384E-12	638.672E-3	-36.7733E-3
-4.21961E-3	-169.026E-12	645.824E-3	1.23958E-3	-168.784E-12	639.991E-3	-32.4565E-3
-4.22461E-3	-169.803E-12	650.523E-3	-1.21134E-3	-168.937E-12	635.947E-3	-21.1935E-3
-4.22961E-3	-169.378E-12	657.916E-3	11.3895E-3	-170.839E-12	638.631E-3	-28.2948E-3
-4.23462E-3	-169.111E-12	662.105E-3	7.02274E-3	-170.477E-12	645.081E-3	-33.3109E-3
-4.23962E-3	-169.517E-12	655.582E-3	-29.9549E-3	-170.709E-12	655.225E-3	-15.1383E-3
-4.24462E-3	-170.702E-12	654.802E-3	-55.5771E-3	-170.741E-12	667.611E-3	7.39104E-3
-4.24962E-3	-171.295E-12	647.635E-3	-34.4485E-3	-171.992E-12	655.224E-3	23.2864E-3
-4.25463E-3	-171.718E-12	642.924E-3	-3.32901E-3	-172.056E-12	646.380E-3	22.2675E-3
-4.25963E-3	-171.960E-12	647.921E-3	-14.9182E-3	-171.331E-12	650.521E-3	-8.38136E-3
-4.26463E-3	-172.906E-12	648.192E-3	-26.8753E-3	-171.044E-12	646.572E-3	-33.5233E-3
-4.26963E-3	-173.495E-12	652.528E-3	-17.6063E-3	-170.314E-12	642.473E-3	-35.3415E-3
-4.27464E-3	-173.061E-12	662.521E-3	-24.3230E-3	-170.650E-12	635.692E-3	-49.4217E-3
-4.27964E-3	-172.714E-12	663.631E-3	-35.2655E-3	-170.354E-12	637.076E-3	-46.8916E-3
-4.28464E-3	-172.647E-12	637.748E-3	-36.3980E-3	-169.978E-12	658.749E-3	-28.5935E-3
-4.28964E-3	-173.057E-12	609.383E-3	-39.7717E-3	-169.890E-12	676.672E-3	-33.7341E-3
-4.29465E-3	-171.922E-12	634.941E-3	-34.6138E-3	-170.486E-12	668.901E-3	-31.7866E-3
-4.29965E-3	-170.965E-12	680.842E-3	-15.1298E-3	-171.299E-12	665.455E-3	-19.3092E-3
-4.30465E-3	-170.326E-12	672.939E-3	-337.368E-6	-172.091E-12	668.677E-3	-11.2148E-3
-4.30965E-3	-170.390E-12	637.218E-3	-496.878E-6	-172.297E-12	647.748E-3	-14.3961E-3
-4.31466E-3	-171.238E-12	623.127E-3	-2.47997E-3	-173.073E-12	639.741E-3	-19.0745E-3
-4.31966E-3	-170.800E-12	627.085E-3	-913.460E-6	-174.699E-12	658.575E-3	-21.2402E-3
-4.32466E-3	-171.990E-12	623.421E-3	-1.18398E-3	-175.606E-12	666.762E-3	-21.5721E-3
-4.32966E-3	-173.252E-12	619.209E-3	-2.38753E-3	-176.070E-12	657.118E-3	-16.2490E-3
-4.33467E-3	-174.667E-12	635.977E-3	-9.75963E-3	-175.795E-12	647.219E-3	-35.7081E-3
-4.33967E-3	-176.151E-12	659.025E-3	-12.5025E-3	-176.958E-12	656.435E-3	-51.1609E-3
-4.34467E-3	-177.084E-12	677.001E-3	-17.1870E-3	-176.827E-12	672.251E-3	-37.6637E-3
-4.34967E-3	-178.650E-12	682.243E-3	-34.2439E-3	-176.446E-12	677.195E-3	-38.0962E-3
-4.35468E-3	-179.906E-12	676.522E-3	-34.9831E-3	-176.239E-12	668.935E-3	-36.6199E-3
-4.35968E-3	-180.226E-12	660.625E-3	-11.4016E-3	-176.680E-12	658.283E-3	-25.6143E-3
-4.36468E-3	-179.530E-12	648.533E-3	840.175E-6	-177.349E-12	663.764E-3	-27.8631E-3
-4.36968E-3	-179.300E-12	660.041E-3	-8.30573E-3	-177.033E-12	666.162E-3	-30.2042E-3
-4.37469E-3	-179.630E-12	667.509E-3	-13.8332E-3	-175.917E-12	654.109E-3	-41.2661E-3
-4.37969E-3	-179.153E-12	668.909E-3	-27.0226E-3	-177.220E-12	635.222E-3	-52.0666E-3
-4.38469E-3	-177.722E-12	676.856E-3	-36.1927E-3	-178.549E-12	625.479E-3	-44.9169E-3
-4.38969E-3	-177.273E-12	675.275E-3	-12.9187E-3	-178.458E-12	634.940E-3	-19.8610E-3
-4.39470E-3	-176.182E-12	654.896E-3	9.30239E-3	-178.460E-12	650.429E-3	-6.13752E-3
-4.39970E-3	-175.718E-12	633.769E-3	7.54840E-3	-179.866E-12	671.284E-3	-27.7523E-3
-4.40470E-3	-175.677E-12	634.252E-3	-6.48847E-3	-180.474E-12	682.681E-3	-49.8859E-3
-4.40970E-3	-175.645E-12	650.917E-3	-18.7574E-3	-180.533E-12	680.165E-3	-46.6360E-3
-4.41471E-3	-175.291E-12	649.755E-3	-19.5235E-3	-180.639E-12	673.613E-3	-33.8665E-3
-4.41971E-3	-175.135E-12	629.473E-3	-18.4686E-3	-180.373E-12	665.599E-3	-33.2660E-3
-4.42471E-3	-176.359E-12	639.069E-3	-11.2565E-3	-179.194E-12	659.126E-3	-34.1514E-3
-4.42971E-3	-177.294E-12	661.188E-3	-8.35604E-3	-178.845E-12	656.645E-3	-38.2324E-3
-4.43472E-3	-178.124E-12	662.440E-3	-13.4613E-3	-178.330E-12	660.613E-3	-36.8005E-3
-4.43972E-3	-178.779E-12	660.155E-3	-23.2509E-3	-177.469E-12	660.051E-3	-22.9047E-3
-4.44472E-3	-179.814E-12	652.385E-3	-36.6643E-3	-177.256E-12	659.402E-3	-14.1766E-3
-4.44972E-3	-181.009E-12	645.320E-3	-30.6753E-3	-177.122E-12	656.616E-3	-18.5681E-3
-4.45473E-3	-181.033E-12	651.626E-3	-18.5724E-3	-177.664E-12	644.452E-3	-25.1712E-3
-4.45973E-3	-180.974E-12	665.844E-3	-21.4536E-3	-177.512E-12	650.938E-3	-26.8960E-3
-4.46473E-3	-181.355E-12	660.831E-3	-28.3771E-3	-177.889E-12	669.596E-3	-26.4960E-3
-4.46973E-3	-182.239E-12	631.188E-3	-18.2664E-3	-178.643E-12	673.750E-3	-17.6509E-3
-4.47474E-3	-181.650E-12	623.536E-3	-8.59303E-3	-179.460E-12	669.574E-3	-11.1754E-3
-4.47974E-3	-181.054E-12	646.113E-3	-19.9544E-3	-180.567E-12	672.543E-3	-6.87243E-3
-4.48474E-3	-180.537E-12	667.544E-3	-33.8427E-3	-181.691E-12	675.050E-3	-6.29654E-3
-4.48974E-3	-180.629E-12	663.452E-3	-48.9629E-3	-182.670E-12	674.083E-3	-21.0420E-3
-4.49475E-3	-180.847E-12	653.911E-3	-57.0262E-3	-183.275E-12	673.512E-3	-25.3759E-3
-4.49975E-3	-180.097E-12	660.649E-3	-40.4624E-3	-183.872E-12	651.341E-3	-16.7013E-3
-4.50475E-3	-180.180E-12	660.804E-3	-16.0172E-3	-183.809E-12	629.908E-3	-22.7996E-3
-4.50975E-3	-180.703E-12	642.882E-3	-14.0022E-3	-184.178E-12	642.138E-3	-33.8760E-3
-4.51476E-3	-181.825E-12	624.111E-3	-21.8804E-3	-183.523E-12	659.327E-3	-20.2272E-3
-4.51976E-3	-181.730E-12	609.787E-3	-6.00189E-3	-183.084E-12	641.031E-3	4.92673E-3
-4.52476E-3	-182.140E-12	610.223E-3	-6.70179E-3	-182.379E-12	616.291E-3	8.46527E-3
-4.52976E-3	-183.612E-12	635.010E-3	-36.2124E-3	-182.346E-12	611.225E-3	-6.49787E-3
-4.53477E-3	-184.310E-12	646.109E-3	-36.2099E-3	-181.842E-12	611.182E-3	-17.8680E-3
-4.53977E-3	-184.545E-12	638.061E-3	-15.9365E-3	-182.163E-12	617.332E-3	-14.6508E-3
-4.54477E-3	-185.395E-12	638.863E-3	-8.77379E-3	-182.605E-12	638.050E-3	-21.4237E-3
-4.54977E-3	-185.739E-12	650.115E-3	-9.78618E-3	-183.650E-12	654.918E-3	-37.7675E-3
-4.55478E-3	-186.066E-12	657.224E-3	531.564E-6	-182.795E-12	654.652E-3	-37.9275E-3
-4.55978E-3	-187.433E-12	650.235E-3	11.1871E-3	-184.303E-12	665.447E-3	-33.8148E-3
-4.56478E-3	-187.233E-12	659.542E-3	2.95139E-3	-185.638E-12	679.290E-3	-31.3294E-3
-4.56978E-3	-187.362E-12	666.131E-3	-15.5607E-3	-186.404E-12	680.381E-3	-23.4620E-3
-4.57479E-3	-187.928E-12	655.974E-3	-27.1031E-3	-186.879E-12	684.947E-3	-11.7273E-3
-4.57979E-3	-188.081E-12	655.249E-3	-8.42712E-3	-188.478E-12	675.594E-3	-5.30992E-3
-4.58479E-3	-187.861E-12	650.408E-3	3.25929E-3	-189.472E-12	636.613E-3	-14.6001E-3
-4.58979E-3	-188.375E-12	649.901E-3	-1.41029E-3	-190.473E-12	619.142E-3	-33.3076E-3
-4.59480E-3	-188.474E-12	658.022E-3	-1.76514E-3	-190.753E-12	636.989E-3	-35.2716E-3
-4.59980E-3	-189.227E-12	662.361E-3	-8.80676E-3	-190.270E-12	643.595E-3	-14.3310E-3
-4.60480E-3	-189.211E-12	671.461E-3	-12.8266E-3	-189.713E-12	636.089E-3	651.210E-6
-4.60980E-3	-188.787E-12	684.268E-3	-9.63456E-3	-188.674E-12	639.367E-3	-9.08910E-3
-4.61481E-3	-190.120E-12	676.937E-3	1.41073E-3	-188.483E-12	637.810E-3	-10.8511E-3
-4.61981E-3	-189.928E-12	663.341E-3	9.03648E-3	-187.036E-12	639.815E-3	3.77628E-3
-4.62481E-3	-189.575E-12	674.734E-3	-5.97665E-3	-186.562E-12	676.720E-3	2.26330E-3
-4.62981E-3	-188.933E-12	682.604E-3	-31.2165E-3	-186.552E-12	696.915E-3	-13.7677E-3
-4.63482E-3	-188.277E-12	669.947E-3	-34.8512E-3	-184.996E-12	677.230E-3	-33.2996E-3
-4.63982E-3	-187.896E-12	653.966E-3	-17.1095E-3	-185.477E-12	662.608E-3	-35.5011E-3
-4.64482E-3	-187.216E-12	645.443E-3	-8.25920E-3	-185.736E-12	668.775E-3	-26.6788E-3
-4.64982E-3	-186.373E-12	639.461E-3	6.41999E-3	-186.249E-12	665.428E-3	-32.3339E-3
-4.65483E-3	-186.778E-12	637.471E-3	23.1662E-3	-185.682E-12	652.453E-3	-29.8446E-3
-4.65983E-3	-186.603E-12	643.388E-3	9.45503E-3	-186.154E-12	650.299E-3	-17.4615E-3
-4.66483E-3	-186.592E-12	651.706E-3	8.12327E-3	-186.360E-12	655.812E-3	-13.9453E-3
-4.66983E-3	-186.337E-12	657.985E-3	18.4573E-3	-187.794E-12	650.091E-3	-6.23225E-3
-4.67484E-3	-186.461E-12	650.931E-3	2.48935E-3	-187.344E-12	625.426E-3	3.14101E-3
-4.67984E-3	-187.406E-12	648.372E-3	-6.44309E-3	-188.286E-12	632.300E-3	13.2634E-3
-4.68484E-3	-187.881E-12	664.847E-3	-6.50434E-3	-188.893E-12	673.021E-3	13.8978E-3
-4.68984E-3	-187.808E-12	678.000E-3	2.17942E-3	-188.848E-12	696.369E-3	-20.1534E-3
-4.69485E-3	-188.893E-12	690.067E-3	17.6062E-3	-189.108E-12	674.427E-3	-49.9243E-3
-4.69985E-3	-189.749E-12	702.888E-3	13.5210E-3	-188.670E-12	627.536E-3	-41.3551E-3
-4.70485E-3	-190.254E-12	687.135E-3	11.5184E-3	-190.128E-12	604.402E-3	-36.5829E-3
-4.70985E-3	-190.039E-12	652.719E-3	596.365E-6	-189.636E-12	626.705E-3	-45.5373E-3
-4.71486E-3	-190.546E-12	631.126E-3	-22.1112E-3	-189.764E-12	667.331E-3	-39.3658E-3
-4.71986E-3	-190.198E-12	622.745E-3	-29.5133E-3	-189.154E-12	678.107E-3	-21.4479E-3
-4.72486E-3	-189.749E-12	610.251E-3	-19.2774E-3	-189.191E-12	654.004E-3	-3.12818E-3
-4.72986E-3	-189.019E-12	618.487E-3	502.258E-6	-190.077E-12	634.833E-3	-2.49465E-3
-4.73487E-3	-189.368E-12	655.175E-3	-275.068E-6	-190.637E-12	651.467E-3	-8.12116E-3
-4.73987E-3	-188.747E-12	670.067E-3	-27.3818E-3	-190.810E-12	672.070E-3	2.35341E-3
-4.74487E-3	-189.501E-12	655.709E-3	-36.1885E-3	-191.369E-12	666.524E-3	9.53844E-3
-4.74988E-3	-190.332E-12	644.800E-3	-25.7313E-3	-193.069E-12	655.758E-3	3.23819E-3
-4.75488E-3	-190.843E-12	657.201E-3	-27.7629E-3	-193.292E-12	641.531E-3	-6.94285E-3
-4.75988E-3	-191.683E-12	670.144E-3	-22.4738E-3	-193.869E-12	620.964E-3	-7.54500E-3
-4.76488E-3	-192.331E-12	673.753E-3	1.99174E-3	-193.567E-12	617.574E-3	4.42403E-3
-4.76988E-3	-193.363E-12	676.062E-3	26.6761E-3	-194.443E-12	628.416E-3	9.59642E-3
-4.77489E-3	-194.317E-12	657.965E-3	21.4126E-3	-194.964E-12	627.698E-3	-16.8835E-3
-4.77989E-3	-195.571E-12	644.216E-3	-5.52295E-3	-195.222E-12	626.991E-3	-37.8299E-3
-4.78489E-3	-195.633E-12	640.625E-3	-13.8393E-3	-195.907E-12	637.064E-3	-17.8136E-3
-4.78989E-3	-196.877E-12	625.951E-3	4.68080E-3	-196.260E-12	648.247E-3	8.03963E-3
-4.79490E-3	-197.250E-12	615.387E-3	8.52088E-3	-196.245E-12	662.736E-3	11.7130E-3
-4.79990E-3	-198.693E-12	607.501E-3	-5.81509E-3	-197.032E-12	676.481E-3	-23.7310E-3
-4.80490E-3	-197.511E-12	631.413E-3	6.44960E-3	-197.269E-12	676.382E-3	-62.3280E-3
-4.80990E-3	-197.478E-12	674.699E-3	23.1850E-3	-197.804E-12	646.883E-3	-24.8815E-3
-4.81491E-3	-197.348E-12	651.013E-3	-7.76529E-3	-198.181E-12	624.000E-3	29.8560E-3
-4.81991E-3	-197.013E-12	599.253E-3	-59.3915E-3	-198.362E-12	614.900E-3	23.8533E-3
-4.82491E-3	-196.909E-12	610.246E-3	-55.4947E-3	-199.261E-12	620.473E-3	4.74283E-3
-4.82991E-3	-196.475E-12	644.780E-3	-20.3734E-3	-199.699E-12	675.393E-3	1.73471E-3
-4.83492E-3	-196.696E-12	647.473E-3	-10.0593E-3	-199.681E-12	706.044E-3	-7.90478E-3
-4.83992E-3	-196.690E-12	651.522E-3	-14.3833E-3	-199.389E-12	676.769E-3	-17.0658E-3
-4.84492E-3	-196.652E-12	661.694E-3	-17.7043E-3	-198.544E-12	651.642E-3	-15.9795E-3
-4.84992E-3	-197.776E-12	646.900E-3	-22.4892E-3	-198.779E-12	651.216E-3	-13.5824E-3
-4.85493E-3	-198.504E-12	625.709E-3	-26.6785E-3	-198.557E-12	656.992E-3	-8.61964E-3
-4.85993E-3	-198.473E-12	632.173E-3	-22.2539E-3	-197.768E-12	665.932E-3	-4.56070E-3
-4.86493E-3	-198.297E-12	653.867E-3	-27.3829E-3	-197.204E-12	667.528E-3	-6.75203E-3
-4.86993E-3	-199.403E-12	658.712E-3	-31.4775E-3	-196.571E-12	656.841E-3	-13.4257E-3
-4.87494E-3	-200.308E-12	652.608E-3	-1.45710E-3	-196.590E-12	666.904E-3	-14.3630E-3
-4.87994E-3	-199.970E-12	660.405E-3	16.3148E-3	-196.486E-12	677.577E-3	3.69979E-3
-4.88494E-3	-200.047E-12	685.407E-3	-6.29972E-3	-196.543E-12	649.670E-3	20.7128E-3
-4.88995E-3	-200.090E-12	692.823E-3	-8.50578E-3	-196.585E-12	632.441E-3	-8.90018E-3
-4.89495E-3	-199.905E-12	670.834E-3	18.6337E-3	-197.581E-12	657.740E-3	-40.2175E-3
-4.89995E-3	-199.075E-12	651.655E-3	27.1050E-3	-197.637E-12	674.968E-3	-32.8729E-3
-4.90495E-3	-198.010E-12	646.050E-3	-4.30143E-3	-197.982E-12	671.798E-3	-20.4150E-3
-4.90995E-3	-198.722E-12	655.853E-3	-33.9879E-3	-199.384E-12	664.449E-3	-15.2650E-3
-4.91496E-3	-198.397E-12	685.146E-3	-14.8085E-3	-199.732E-12	645.584E-3	-19.3907E-3
-4.91996E-3	-197.233E-12	682.321E-3	30.7580E-3	-200.532E-12	634.228E-3	-13.5855E-3
-4.92496E-3	-197.709E-12	630.399E-3	29.4795E-3	-201.208E-12	639.506E-3	4.12817E-3
-4.92996E-3	-198.826E-12	610.807E-3	-15.2076E-3	-202.227E-12	646.217E-3	13.8418E-3
-4.93497E-3	-198.907E-12	642.528E-3	-32.4007E-3	-202.416E-12	665.284E-3	18.8067E-3
-4.93997E-3	-198.886E-12	666.474E-3	-35.1261E-3	-202.955E-12	685.956E-3	8.72973E-3
-4.94497E-3	-199.712E-12	663.674E-3	-52.6565E-3	-202.379E-12	664.605E-3	-27.4936E-3
-4.94997E-3	-200.599E-12	655.596E-3	-56.3480E-3	-202.962E-12	650.036E-3	-55.7137E-3
-4.95498E-3	-200.936E-12	648.782E-3	-42.2086E-3	-202.677E-12	674.664E-3	-32.3758E-3
-4.95998E-3	-201.808E-12	641.602E-3	-36.4890E-3	-201.939E-12	688.639E-3	1.60467E-3
-4.96498E-3	-202.530E-12	649.775E-3	-35.1166E-3	-202.073E-12	679.407E-3	14.1491E-3
-4.96998E-3	-203.159E-12	648.216E-3	-20.7965E-3	-202.234E-12	671.679E-3	16.6257E-3
-4.97499E-3	-204.210E-12	615.788E-3	-3.59536E-3	-201.934E-12	683.174E-3	13.4506E-3
-4.97999E-3	-203.900E-12	601.707E-3	9.86374E-3	-201.743E-12	689.783E-3	3.73508E-3
-4.98499E-3	-204.417E-12	633.984E-3	2.46097E-3	-202.477E-12	686.636E-3	-19.8048E-3
-4.98999E-3	-203.653E-12	667.495E-3	-33.5660E-3	-202.045E-12	669.686E-3	-20.7326E-3
-4.99500E-3	-203.178E-12	674.189E-3	-42.4904E-3	-201.665E-12	647.852E-3	-3.75241E-3
-5.00000E-3	-203.718E-12	673.159E-3	-16.1263E-3	-203.107E-12	659.003E-3	-680.926E-6
