Experiment	bias spectroscopy	
Date	19.01.2016 18:17:31	
User		
X (m)	50.7228E-9	
Y (m)	256.336E-9	
Z (m)	-132.633E-9	
Z offset (m)	0E+0	
Settling time (s)	200E-6	
Integration time (s)	5E-3	
Z-Ctrl hold	TRUE	
Final Z (m)	N/A	
Filter type	None	
Order		
Cutoff frq		
Comment01	MnPc/Pb(111)	
Comment02	dz =00pm	
Comment03	7 Sweeps	
Comment04	MagField =0.T	
Comment05	Divider 1:10	
Comment06	Setpoint:5mV,200 pA	
Comment07	Lockin: 50uVrms,5ms,5mV	
Comment08	Gain:9; 912Hz modulation	
Comment09	T=1.06K	
Bias>Bias (V)	5E-3	
Bias>Calibration (V/V)	81.475E-3	
Bias>Offset (V)	1.046E-3	
Bias Spectroscopy>Sweep Start (V)	5E-3	
Bias Spectroscopy>Sweep End (V)	-5E-3	
Bias Spectroscopy>Num Pixel	2000	
Bias Spectroscopy>Z Avg time (s)	500E-3	
Bias Spectroscopy>Z offset (m)	0E+0	
Bias Spectroscopy>1st Settling time (s)	500E-3	
Bias Spectroscopy>Settling time (s)	200E-6	
Bias Spectroscopy>Integration time (s)	5E-3	
Bias Spectroscopy>End Settling time (s)	500E-3	
Bias Spectroscopy>Z control time (s)	500E-3	
Bias Spectroscopy>Max Slew rate (V/s)	Inf	
Bias Spectroscopy>backward sweep	TRUE	
Bias Spectroscopy>Z-controller hold	TRUE	
Bias Spectroscopy>Number of sweeps	7	
Bias Spectroscopy>Channels	Current (A);X% LockIn (V);Y% LockIn (V)	
Bias Spectroscopy>Reset Bias	TRUE	
Bias Spectroscopy>Record final Z	FALSE	
Bias Spectroscopy>Lock-In run	FALSE	
Bias Spectroscopy>Sweep mode	Linear	
Bias Spectroscopy>MultiLine Settings : Segment Start (V), Segment End (V), Settling (s), Integration (s), Steps (xn)	100E-3,3.3E-3,100E-6,10E-3,2500;3.3E-3,-3.3E-3,100E-6,10E-3,10;-3.3E-3,-100E-3,100E-6,10E-3,2500	
Current>Current (A)	200.035E-12	
Current>Calibration (A/V)	999.99900E-12	
Current>Offset (A)	-455.429E-15	
Current>Gain	LN 10^9	
Z-Controller>Z (m)	-132.632E-9	
Z-Controller>Controller name	log Current	
Z-Controller>Controller status	ON	
Z-Controller>Setpoint	200E-12	
Z-Controller>Setpoint unit	A	
Z-Controller>P gain	2.96994E-12	
Z-Controller>I gain	67.0321E-9	
Z-Controller>Time const (s)	44.3062E-6	
Z-Controller>TipLift (m)	0E+0	
Z-Controller>Switch off delay (s)	50E-3	
Current (A)	200.16E-12	
Z (m)	-132.634E-9	

[DATA]
Bias calc (V)	Current (A)	X% LockIn (V)	Y% LockIn (V)	Current [bwd] (A)	X% LockIn [bwd] (V)	Y% LockIn [bwd] (V)
5.00000E-3	199.636E-12	693.797E-3	-21.8544E-3	194.752E-12	662.356E-3	-29.5205E-3
4.99500E-3	199.781E-12	662.059E-3	-36.0559E-3	194.836E-12	670.078E-3	-1.99173E-3
4.98999E-3	199.395E-12	636.412E-3	-3.00096E-3	195.839E-12	665.569E-3	4.41485E-3
4.98499E-3	199.790E-12	616.626E-3	6.94927E-3	195.972E-12	660.542E-3	-23.7064E-3
4.97999E-3	200.618E-12	625.490E-3	-23.7056E-3	196.905E-12	676.706E-3	-31.3715E-3
4.97499E-3	200.713E-12	651.974E-3	-44.7912E-3	198.329E-12	682.587E-3	-16.6262E-3
4.96998E-3	200.293E-12	681.648E-3	-43.0482E-3	199.946E-12	661.586E-3	581.124E-6
4.96498E-3	200.537E-12	714.411E-3	-27.7196E-3	200.486E-12	650.499E-3	22.6761E-3
4.95998E-3	199.836E-12	721.998E-3	1.94038E-3	201.008E-12	660.492E-3	33.7235E-3
4.95498E-3	199.555E-12	701.719E-3	3.84959E-3	202.372E-12	672.812E-3	28.4376E-3
4.94997E-3	198.946E-12	675.363E-3	-17.1571E-3	201.969E-12	671.225E-3	10.0098E-3
4.94497E-3	198.563E-12	651.347E-3	-15.3780E-3	202.876E-12	667.403E-3	-2.94754E-3
4.93997E-3	196.971E-12	638.438E-3	-17.6189E-3	201.958E-12	649.743E-3	2.95353E-3
4.93497E-3	196.994E-12	643.325E-3	-38.5720E-3	201.956E-12	630.683E-3	7.19214E-3
4.92996E-3	195.955E-12	659.912E-3	-38.0596E-3	201.220E-12	643.048E-3	1.68195E-3
4.92496E-3	194.624E-12	662.058E-3	-27.7226E-3	199.767E-12	646.055E-3	1.20460E-3
4.91996E-3	193.045E-12	636.067E-3	-37.0023E-3	199.070E-12	621.833E-3	-1.96913E-3
4.91496E-3	193.500E-12	621.833E-3	-52.1316E-3	198.722E-12	602.827E-3	-10.4317E-3
4.90995E-3	192.623E-12	630.888E-3	-40.1978E-3	197.303E-12	609.523E-3	-22.1788E-3
4.90495E-3	191.782E-12	646.104E-3	-9.26918E-3	196.859E-12	633.292E-3	-46.2553E-3
4.89995E-3	191.461E-12	647.022E-3	1.21858E-3	196.510E-12	640.144E-3	-68.0674E-3
4.89495E-3	192.516E-12	628.826E-3	3.01035E-3	196.640E-12	641.416E-3	-64.6748E-3
4.88995E-3	192.341E-12	632.007E-3	7.66643E-3	196.776E-12	672.482E-3	-31.3102E-3
4.88494E-3	193.072E-12	650.350E-3	6.56724E-3	196.704E-12	695.645E-3	9.42251E-3
4.87994E-3	193.598E-12	649.992E-3	-1.59495E-3	195.731E-12	688.028E-3	29.5021E-3
4.87494E-3	194.477E-12	640.776E-3	-26.4977E-3	196.527E-12	670.933E-3	15.0466E-3
4.86993E-3	194.974E-12	642.067E-3	-47.7765E-3	197.577E-12	668.037E-3	-16.5829E-3
4.86493E-3	194.945E-12	657.119E-3	-31.8903E-3	197.257E-12	668.788E-3	-45.5248E-3
4.85993E-3	195.003E-12	666.434E-3	-26.4181E-3	197.148E-12	660.063E-3	-42.9882E-3
4.85493E-3	194.228E-12	680.557E-3	-28.1433E-3	197.273E-12	670.436E-3	-40.2677E-3
4.84992E-3	194.132E-12	691.045E-3	-3.08630E-3	198.508E-12	680.009E-3	-74.4139E-3
4.84492E-3	193.265E-12	674.013E-3	14.8418E-3	197.352E-12	666.640E-3	-69.7974E-3
4.83992E-3	192.919E-12	674.314E-3	27.5515E-3	197.093E-12	666.044E-3	-25.9999E-3
4.83492E-3	191.248E-12	680.606E-3	29.8103E-3	195.681E-12	669.951E-3	-20.5344E-3
4.82991E-3	191.309E-12	672.948E-3	8.83505E-3	195.880E-12	649.962E-3	-30.4777E-3
4.82491E-3	190.178E-12	674.373E-3	-15.9170E-3	195.328E-12	646.398E-3	-21.0389E-3
4.81991E-3	189.898E-12	656.600E-3	-28.6886E-3	194.864E-12	674.355E-3	-28.6345E-3
4.81491E-3	189.218E-12	624.173E-3	-31.2835E-3	192.093E-12	674.414E-3	-41.5261E-3
4.80990E-3	190.056E-12	630.257E-3	-28.8148E-3	192.022E-12	649.372E-3	-21.3689E-3
4.80490E-3	189.260E-12	653.396E-3	-34.1932E-3	191.418E-12	636.355E-3	-1.95382E-3
4.79990E-3	190.476E-12	639.775E-3	-54.8567E-3	189.582E-12	627.366E-3	-6.36383E-3
4.79490E-3	190.658E-12	626.550E-3	-65.4513E-3	188.088E-12	628.379E-3	-9.25698E-3
4.78989E-3	190.958E-12	645.195E-3	-32.9488E-3	187.266E-12	635.750E-3	4.01507E-3
4.78489E-3	191.144E-12	655.570E-3	-2.99377E-3	186.793E-12	628.457E-3	19.8597E-3
4.77989E-3	192.301E-12	661.682E-3	5.18796E-3	186.987E-12	618.018E-3	26.4748E-3
4.77489E-3	191.152E-12	661.173E-3	32.4956E-3	186.756E-12	623.331E-3	13.2875E-3
4.76988E-3	191.080E-12	640.235E-3	31.3229E-3	185.577E-12	625.624E-3	3.82464E-3
4.76488E-3	191.556E-12	648.976E-3	-5.78394E-3	185.393E-12	627.954E-3	24.7244E-3
4.75988E-3	191.124E-12	667.585E-3	-8.72418E-3	186.303E-12	654.134E-3	32.2363E-3
4.75488E-3	190.181E-12	668.472E-3	-10.3045E-3	186.051E-12	662.480E-3	4.22839E-3
4.74988E-3	189.808E-12	687.941E-3	-42.7395E-3	185.882E-12	623.785E-3	-33.9848E-3
4.74487E-3	189.068E-12	697.355E-3	-43.6092E-3	186.456E-12	609.521E-3	-34.0132E-3
4.73987E-3	187.619E-12	679.878E-3	-20.4900E-3	186.682E-12	638.538E-3	1.47523E-3
4.73487E-3	186.850E-12	668.530E-3	-11.2045E-3	187.309E-12	651.143E-3	12.9204E-3
4.72986E-3	186.265E-12	667.196E-3	2.33047E-3	187.279E-12	634.946E-3	-1.28656E-3
4.72486E-3	185.650E-12	669.304E-3	10.8203E-3	186.825E-12	621.373E-3	-8.25471E-3
4.71986E-3	185.217E-12	660.274E-3	-9.37967E-3	186.044E-12	618.307E-3	889.047E-6
4.71486E-3	185.970E-12	635.184E-3	-28.2160E-3	186.327E-12	615.044E-3	5.94164E-3
4.70985E-3	185.903E-12	631.459E-3	-31.3101E-3	186.054E-12	618.259E-3	431.650E-6
4.70485E-3	185.539E-12	663.981E-3	-37.9129E-3	185.058E-12	637.253E-3	-7.80804E-3
4.69985E-3	186.383E-12	689.268E-3	-31.4905E-3	184.811E-12	660.206E-3	-10.9212E-3
4.69485E-3	186.539E-12	675.046E-3	-27.0721E-3	185.150E-12	668.528E-3	-4.28823E-3
4.68984E-3	186.586E-12	647.278E-3	-31.8291E-3	185.304E-12	652.499E-3	-5.86350E-3
4.68484E-3	185.899E-12	629.866E-3	-14.9468E-3	184.564E-12	623.383E-3	-4.82622E-3
4.67984E-3	186.404E-12	630.124E-3	-3.32630E-3	184.619E-12	609.960E-3	-7.20054E-3
4.67484E-3	186.525E-12	650.982E-3	-13.4984E-3	185.410E-12	620.639E-3	-33.8895E-3
4.66983E-3	185.648E-12	673.310E-3	-9.39623E-3	185.800E-12	653.308E-3	-59.2115E-3
4.66483E-3	184.770E-12	669.091E-3	16.7985E-3	185.304E-12	688.057E-3	-62.7572E-3
4.65983E-3	184.467E-12	631.273E-3	22.6560E-3	186.613E-12	676.220E-3	-44.3534E-3
4.65483E-3	184.248E-12	608.328E-3	1.51096E-3	186.833E-12	639.218E-3	-29.5231E-3
4.64982E-3	183.368E-12	618.091E-3	-8.50930E-3	187.082E-12	647.433E-3	-23.8979E-3
4.64482E-3	183.226E-12	643.290E-3	-9.46348E-3	187.803E-12	675.881E-3	-17.9225E-3
4.63982E-3	183.007E-12	663.665E-3	-21.2636E-3	189.069E-12	693.358E-3	-11.3103E-3
4.63482E-3	182.779E-12	649.797E-3	-17.8995E-3	187.974E-12	699.321E-3	-7.20715E-3
4.62981E-3	182.864E-12	639.512E-3	-3.29810E-3	188.921E-12	683.769E-3	-21.2280E-3
4.62481E-3	183.266E-12	664.351E-3	5.48747E-3	188.114E-12	674.096E-3	-48.4813E-3
4.61981E-3	183.681E-12	687.794E-3	2.89481E-3	188.019E-12	673.439E-3	-70.6339E-3
4.61481E-3	183.258E-12	686.052E-3	-13.5768E-3	187.072E-12	659.327E-3	-67.1032E-3
4.60980E-3	182.897E-12	671.181E-3	981.184E-6	186.249E-12	647.651E-3	-34.2557E-3
4.60480E-3	183.567E-12	662.656E-3	36.8402E-3	185.204E-12	641.100E-3	-7.40279E-3
4.59980E-3	183.116E-12	671.492E-3	34.3827E-3	184.804E-12	629.679E-3	-11.5615E-3
4.59480E-3	182.014E-12	678.058E-3	11.3370E-3	183.082E-12	644.039E-3	-22.7620E-3
4.58979E-3	182.932E-12	666.695E-3	10.0931E-3	182.236E-12	666.893E-3	-12.2578E-3
4.58479E-3	183.248E-12	656.642E-3	15.1781E-3	181.786E-12	662.919E-3	7.40949E-3
4.57979E-3	182.834E-12	658.038E-3	16.1536E-3	181.131E-12	645.288E-3	3.29166E-3
4.57479E-3	181.958E-12	662.276E-3	-2.75446E-3	180.182E-12	629.381E-3	-24.6381E-3
4.56978E-3	182.584E-12	657.204E-3	-33.1743E-3	180.135E-12	624.980E-3	-32.8437E-3
4.56478E-3	183.096E-12	661.066E-3	-49.1540E-3	179.677E-12	630.867E-3	-8.91761E-3
4.55978E-3	182.287E-12	673.518E-3	-41.1624E-3	179.353E-12	646.027E-3	1.10022E-3
4.55478E-3	182.673E-12	677.438E-3	-25.5679E-3	179.244E-12	646.979E-3	-14.1731E-3
4.54977E-3	182.163E-12	686.002E-3	-17.1972E-3	179.754E-12	641.255E-3	-25.9720E-3
4.54477E-3	182.678E-12	694.185E-3	6.69769E-3	179.985E-12	643.908E-3	-31.6262E-3
4.53977E-3	182.563E-12	675.646E-3	8.69474E-3	181.076E-12	646.202E-3	-19.1767E-3
4.53477E-3	182.503E-12	654.809E-3	-23.1425E-3	181.454E-12	660.477E-3	9.82097E-3
4.52976E-3	182.069E-12	654.271E-3	-30.0095E-3	181.972E-12	664.068E-3	12.6266E-3
4.52476E-3	181.667E-12	655.221E-3	-22.9470E-3	180.640E-12	642.406E-3	-17.2837E-3
4.51976E-3	181.954E-12	657.093E-3	-33.3799E-3	180.953E-12	628.841E-3	-39.4328E-3
4.51476E-3	181.510E-12	659.725E-3	-39.9705E-3	180.013E-12	640.702E-3	-39.0337E-3
4.50975E-3	180.813E-12	644.686E-3	-40.3603E-3	179.005E-12	638.000E-3	-38.5814E-3
4.50475E-3	179.451E-12	635.694E-3	-27.2265E-3	177.535E-12	621.085E-3	-43.3791E-3
4.49975E-3	179.361E-12	658.361E-3	-4.52420E-3	176.891E-12	622.953E-3	-46.3339E-3
4.49475E-3	178.874E-12	670.599E-3	-1.59887E-3	175.133E-12	642.729E-3	-44.7472E-3
4.48974E-3	178.443E-12	670.630E-3	-14.4509E-3	174.259E-12	671.309E-3	-28.9743E-3
4.48474E-3	177.531E-12	672.203E-3	-19.8854E-3	173.446E-12	694.975E-3	-17.7165E-3
4.47974E-3	177.218E-12	662.511E-3	-3.68518E-3	172.936E-12	679.706E-3	-27.7087E-3
4.47474E-3	177.158E-12	661.751E-3	15.9395E-3	173.362E-12	621.258E-3	-44.6439E-3
4.46973E-3	177.218E-12	682.229E-3	146.362E-6	172.682E-12	597.780E-3	-42.9768E-3
4.46473E-3	177.468E-12	679.480E-3	-30.3668E-3	172.635E-12	621.145E-3	-16.1416E-3
4.45973E-3	177.402E-12	653.595E-3	-23.3526E-3	173.137E-12	637.160E-3	19.8781E-3
4.45473E-3	177.289E-12	651.403E-3	-4.69842E-3	173.982E-12	646.030E-3	38.4262E-3
4.44972E-3	178.272E-12	669.354E-3	4.95207E-3	174.519E-12	676.079E-3	23.9220E-3
4.44472E-3	177.745E-12	679.500E-3	6.11134E-3	175.651E-12	695.823E-3	-6.97744E-3
4.43972E-3	177.630E-12	680.575E-3	-6.38578E-3	177.487E-12	691.887E-3	-15.3256E-3
4.43472E-3	176.310E-12	684.837E-3	-11.3368E-3	176.989E-12	690.224E-3	4.24273E-3
4.42971E-3	175.941E-12	689.806E-3	-28.0103E-3	178.139E-12	668.366E-3	7.85938E-3
4.42471E-3	175.231E-12	692.720E-3	-43.2244E-3	178.542E-12	643.161E-3	-3.43365E-3
4.41971E-3	174.386E-12	681.016E-3	-28.5111E-3	177.450E-12	641.459E-3	-4.03382E-3
4.41471E-3	173.357E-12	642.193E-3	-23.5474E-3	177.307E-12	647.127E-3	-11.2059E-3
4.40970E-3	172.694E-12	613.052E-3	-6.75461E-3	178.362E-12	650.074E-3	-12.6345E-3
4.40470E-3	171.856E-12	628.410E-3	29.0830E-3	176.876E-12	661.727E-3	-1.03830E-3
4.39970E-3	171.431E-12	659.743E-3	14.9902E-3	175.143E-12	680.789E-3	-13.9234E-3
4.39470E-3	170.740E-12	669.844E-3	-5.99716E-3	175.191E-12	683.226E-3	-26.1047E-3
4.38969E-3	170.343E-12	661.608E-3	-2.23810E-3	173.959E-12	675.271E-3	-10.1485E-3
4.38469E-3	169.592E-12	642.781E-3	-18.3004E-3	172.813E-12	676.519E-3	-7.43148E-3
4.37969E-3	169.514E-12	644.652E-3	-27.8464E-3	171.921E-12	683.902E-3	-13.5562E-3
4.37469E-3	170.232E-12	668.973E-3	-13.1973E-3	171.335E-12	686.849E-3	-15.7636E-3
4.36968E-3	170.144E-12	672.660E-3	-9.33392E-3	171.045E-12	686.229E-3	-23.4567E-3
4.36468E-3	170.399E-12	654.220E-3	-25.7858E-3	170.695E-12	682.725E-3	-11.5761E-3
4.35968E-3	170.808E-12	638.552E-3	-25.5880E-3	171.260E-12	681.446E-3	-2.05176E-3
4.35468E-3	170.981E-12	632.377E-3	-1.70598E-3	171.911E-12	674.317E-3	-9.12097E-3
4.34967E-3	171.005E-12	632.628E-3	11.7128E-3	172.181E-12	649.149E-3	-6.09649E-3
4.34467E-3	170.893E-12	644.658E-3	545.619E-6	172.165E-12	626.812E-3	-10.9391E-3
4.33967E-3	170.277E-12	648.383E-3	-27.3388E-3	172.088E-12	640.565E-3	-28.6026E-3
4.33467E-3	170.498E-12	640.782E-3	-54.4580E-3	173.272E-12	668.527E-3	-39.2486E-3
4.32966E-3	170.258E-12	657.106E-3	-44.0827E-3	173.431E-12	664.967E-3	-27.7780E-3
4.32466E-3	169.259E-12	681.235E-3	-10.2825E-3	173.273E-12	662.802E-3	-6.54997E-3
4.31966E-3	168.998E-12	679.222E-3	490.261E-6	173.267E-12	672.659E-3	-6.10802E-3
4.31466E-3	168.369E-12	665.897E-3	-6.85567E-3	172.630E-12	670.140E-3	-17.6942E-3
4.30965E-3	167.501E-12	636.729E-3	-23.4252E-3	172.144E-12	670.277E-3	-24.0154E-3
4.30465E-3	167.210E-12	606.173E-3	-29.6892E-3	171.538E-12	664.387E-3	-22.3368E-3
4.29965E-3	167.282E-12	619.202E-3	-15.9159E-3	170.671E-12	639.533E-3	-20.7122E-3
4.29465E-3	166.960E-12	649.167E-3	6.28092E-3	170.025E-12	635.473E-3	-4.34665E-3
4.28964E-3	167.076E-12	656.558E-3	-2.63822E-3	169.569E-12	662.647E-3	4.65953E-3
4.28464E-3	167.499E-12	650.339E-3	-34.4722E-3	168.850E-12	667.491E-3	-10.1030E-3
4.27964E-3	168.133E-12	631.758E-3	-36.6535E-3	168.590E-12	639.291E-3	-14.4333E-3
4.27464E-3	168.621E-12	625.130E-3	-14.1421E-3	167.133E-12	625.441E-3	-19.4689E-3
4.26963E-3	169.135E-12	651.275E-3	2.45128E-3	166.519E-12	636.462E-3	-28.8338E-3
4.26463E-3	168.988E-12	661.324E-3	12.6763E-3	166.388E-12	640.932E-3	-33.8963E-3
4.25963E-3	169.218E-12	645.837E-3	7.00186E-3	166.973E-12	639.629E-3	-23.0953E-3
4.25463E-3	169.940E-12	643.794E-3	-7.97170E-3	166.237E-12	647.959E-3	-7.16943E-3
4.24962E-3	170.366E-12	640.521E-3	-1.06600E-3	165.880E-12	656.127E-3	-6.95491E-3
4.24462E-3	169.619E-12	627.419E-3	-9.76283E-3	166.866E-12	662.603E-3	-14.4762E-3
4.23962E-3	169.899E-12	640.711E-3	-31.5295E-3	167.460E-12	669.393E-3	-25.6110E-3
4.23462E-3	169.117E-12	644.356E-3	-27.3305E-3	167.774E-12	662.271E-3	-19.0766E-3
4.22961E-3	168.288E-12	627.686E-3	-30.4316E-3	166.469E-12	648.157E-3	-8.12517E-3
4.22461E-3	167.859E-12	646.047E-3	-37.5068E-3	166.901E-12	639.481E-3	-1.97949E-3
4.21961E-3	167.121E-12	671.222E-3	-19.6522E-3	167.184E-12	641.562E-3	15.4653E-3
4.21461E-3	166.258E-12	647.341E-3	-6.89430E-3	167.571E-12	649.687E-3	10.1324E-3
4.20960E-3	165.747E-12	608.745E-3	-8.70030E-3	168.266E-12	661.230E-3	-2.10651E-3
4.20460E-3	165.586E-12	599.910E-3	-16.7512E-3	166.729E-12	666.173E-3	12.7610E-3
4.19960E-3	164.289E-12	601.851E-3	-27.3020E-3	165.834E-12	661.851E-3	12.5967E-3
4.19460E-3	165.053E-12	600.190E-3	-27.3719E-3	166.676E-12	645.364E-3	-1.34764E-3
4.18959E-3	165.058E-12	618.833E-3	-7.52643E-3	166.280E-12	630.836E-3	-1.75500E-3
4.18459E-3	165.410E-12	637.237E-3	6.22093E-3	164.123E-12	650.590E-3	5.90513E-3
4.17959E-3	165.102E-12	632.257E-3	6.51446E-3	163.795E-12	661.586E-3	6.57622E-3
4.17459E-3	165.025E-12	651.354E-3	25.4895E-3	163.657E-12	649.792E-3	-5.57270E-3
4.16958E-3	164.883E-12	669.920E-3	33.3479E-3	163.236E-12	635.177E-3	-26.1772E-3
4.16458E-3	164.559E-12	657.766E-3	6.19837E-3	162.256E-12	630.851E-3	-36.3709E-3
4.15958E-3	164.267E-12	651.589E-3	-20.0227E-3	161.402E-12	652.620E-3	-28.0046E-3
4.15458E-3	164.516E-12	653.845E-3	-14.4398E-3	160.830E-12	660.376E-3	-11.6190E-3
4.14957E-3	163.795E-12	647.121E-3	-13.1970E-3	161.043E-12	651.488E-3	1.77836E-3
4.14457E-3	163.194E-12	651.073E-3	-23.3602E-3	160.745E-12	655.252E-3	-785.200E-6
4.13957E-3	162.907E-12	665.327E-3	-8.61404E-3	160.825E-12	661.072E-3	-11.9773E-3
4.13457E-3	162.433E-12	656.972E-3	-9.95788E-3	160.920E-12	665.466E-3	-24.2866E-3
4.12956E-3	161.570E-12	652.839E-3	-26.2082E-3	160.886E-12	684.212E-3	-29.6854E-3
4.12456E-3	161.431E-12	650.837E-3	-15.1212E-3	162.246E-12	694.606E-3	-29.6212E-3
4.11956E-3	161.077E-12	642.886E-3	-10.9993E-3	162.734E-12	658.318E-3	-28.7769E-3
4.11456E-3	160.796E-12	658.138E-3	-12.9929E-3	162.628E-12	633.098E-3	-14.7333E-3
4.10955E-3	160.640E-12	660.614E-3	-6.60201E-3	163.165E-12	656.344E-3	111.206E-6
4.10455E-3	159.261E-12	631.202E-3	-15.8377E-3	163.145E-12	669.036E-3	1.19125E-3
4.09955E-3	158.936E-12	628.448E-3	-12.9505E-3	163.015E-12	650.783E-3	-6.14179E-3
4.09455E-3	158.890E-12	655.268E-3	-5.07519E-3	163.020E-12	627.153E-3	-20.8848E-3
4.08954E-3	158.401E-12	663.162E-3	-29.6665E-3	162.711E-12	629.047E-3	-36.7577E-3
4.08454E-3	157.245E-12	661.399E-3	-48.4716E-3	161.852E-12	655.023E-3	-38.2591E-3
4.07954E-3	157.505E-12	644.605E-3	-27.2488E-3	161.760E-12	667.387E-3	-29.8474E-3
4.07454E-3	156.886E-12	617.741E-3	-7.08919E-3	160.635E-12	654.843E-3	-9.87822E-3
4.06953E-3	156.862E-12	632.992E-3	-9.70375E-3	159.045E-12	652.880E-3	8.97958E-3
4.06453E-3	156.257E-12	660.614E-3	-8.14033E-3	158.646E-12	665.829E-3	-4.46118E-3
4.05953E-3	156.325E-12	633.602E-3	-15.9341E-3	158.033E-12	671.416E-3	-17.9973E-3
4.05453E-3	155.777E-12	602.692E-3	-19.6287E-3	157.053E-12	661.552E-3	-11.8161E-3
4.04952E-3	156.775E-12	612.935E-3	12.8955E-3	156.807E-12	636.357E-3	-11.7991E-3
4.04452E-3	156.114E-12	628.982E-3	27.6420E-3	157.747E-12	620.080E-3	-15.2335E-3
4.03952E-3	156.666E-12	643.882E-3	-2.74132E-3	156.532E-12	621.236E-3	-14.9030E-3
4.03452E-3	156.633E-12	623.429E-3	-18.6116E-3	156.392E-12	629.546E-3	-13.3086E-3
4.02951E-3	156.996E-12	581.483E-3	-10.1472E-3	156.947E-12	651.088E-3	-1.74030E-3
4.02451E-3	157.095E-12	591.702E-3	-19.8700E-3	157.629E-12	663.488E-3	2.59311E-3
4.01951E-3	157.104E-12	648.551E-3	-23.5141E-3	157.082E-12	648.521E-3	-4.62846E-3
4.01451E-3	156.981E-12	670.828E-3	-2.60060E-3	158.252E-12	638.686E-3	-19.9950E-3
4.00950E-3	156.660E-12	650.386E-3	-15.7991E-3	158.276E-12	648.826E-3	-20.5512E-3
4.00450E-3	156.609E-12	641.396E-3	-42.1579E-3	158.604E-12	661.026E-3	7.70311E-3
3.99950E-3	156.311E-12	642.711E-3	-26.3206E-3	159.037E-12	672.016E-3	11.0680E-3
3.99450E-3	156.299E-12	641.672E-3	4.86376E-3	158.528E-12	677.105E-3	-5.47600E-3
3.98949E-3	156.223E-12	641.590E-3	22.7802E-3	157.619E-12	670.481E-3	6.96080E-3
3.98449E-3	156.072E-12	643.821E-3	-371.643E-6	157.095E-12	665.587E-3	20.4416E-3
3.97949E-3	155.901E-12	650.299E-3	-33.8610E-3	156.605E-12	667.036E-3	3.71937E-3
3.97449E-3	155.868E-12	652.446E-3	-16.3382E-3	155.243E-12	659.229E-3	-10.8080E-3
3.96948E-3	155.903E-12	638.870E-3	12.1585E-3	154.502E-12	639.254E-3	-15.3080E-3
3.96448E-3	155.351E-12	626.286E-3	-1.97137E-3	153.121E-12	617.952E-3	-22.0305E-3
3.95948E-3	155.192E-12	632.362E-3	-22.7929E-3	151.881E-12	611.367E-3	-26.7194E-3
3.95448E-3	155.013E-12	636.972E-3	-16.9061E-3	151.177E-12	632.741E-3	-26.9481E-3
3.94947E-3	154.975E-12	629.106E-3	-6.91765E-3	150.803E-12	649.937E-3	-22.5356E-3
3.94447E-3	154.252E-12	651.921E-3	-11.2992E-3	149.758E-12	646.311E-3	-16.1777E-3
3.93947E-3	154.180E-12	675.062E-3	-16.9611E-3	149.785E-12	642.082E-3	-11.1020E-3
3.93447E-3	154.781E-12	653.028E-3	-24.8891E-3	151.015E-12	645.372E-3	-17.1219E-3
3.92946E-3	154.766E-12	631.271E-3	-54.5501E-3	150.589E-12	659.818E-3	-20.8511E-3
3.92446E-3	154.206E-12	629.502E-3	-64.1294E-3	151.504E-12	676.686E-3	-10.1195E-3
3.91946E-3	154.249E-12	637.136E-3	-45.4160E-3	151.984E-12	672.534E-3	-7.75971E-3
3.91446E-3	153.707E-12	662.862E-3	-33.7040E-3	152.650E-12	650.909E-3	-21.5727E-3
3.90945E-3	153.421E-12	674.945E-3	-26.5620E-3	152.626E-12	634.872E-3	-28.1689E-3
3.90445E-3	152.798E-12	648.513E-3	-38.9515E-3	153.628E-12	638.498E-3	-22.5627E-3
3.89945E-3	153.008E-12	629.208E-3	-44.9447E-3	154.226E-12	662.278E-3	-17.4006E-3
3.89445E-3	152.038E-12	641.387E-3	-2.16174E-3	154.167E-12	685.232E-3	-11.4534E-3
3.88944E-3	151.984E-12	666.548E-3	17.5006E-3	153.375E-12	684.535E-3	-26.0692E-3
3.88444E-3	151.280E-12	684.406E-3	-14.5009E-3	153.667E-12	670.785E-3	-55.3533E-3
3.87944E-3	151.214E-12	678.739E-3	-33.8662E-3	153.261E-12	670.132E-3	-48.0558E-3
3.87444E-3	150.326E-12	663.718E-3	-36.4030E-3	152.204E-12	672.141E-3	-17.6490E-3
3.86943E-3	149.492E-12	661.219E-3	-29.4010E-3	151.267E-12	666.718E-3	-9.96538E-3
3.86443E-3	149.298E-12	653.501E-3	-16.6171E-3	150.965E-12	652.903E-3	-21.3766E-3
3.85943E-3	149.242E-12	643.045E-3	-13.3971E-3	150.123E-12	636.254E-3	-25.1963E-3
3.85443E-3	149.393E-12	647.662E-3	-24.8058E-3	149.226E-12	653.294E-3	-28.8316E-3
3.84942E-3	148.877E-12	658.820E-3	-28.3020E-3	149.304E-12	685.539E-3	-28.7617E-3
3.84442E-3	148.642E-12	666.101E-3	-6.10212E-3	149.012E-12	685.769E-3	-14.5401E-3
3.83942E-3	149.008E-12	669.001E-3	6.71970E-3	149.164E-12	652.981E-3	-30.2940E-3
3.83442E-3	148.222E-12	668.388E-3	-8.65533E-3	149.272E-12	639.501E-3	-57.3192E-3
3.82941E-3	148.878E-12	649.637E-3	-22.5030E-3	149.524E-12	661.301E-3	-41.9430E-3
3.82441E-3	148.071E-12	646.562E-3	-17.4213E-3	149.466E-12	664.840E-3	-26.5741E-3
3.81941E-3	147.942E-12	671.285E-3	-19.8157E-3	150.180E-12	652.197E-3	-33.7088E-3
3.81441E-3	147.360E-12	677.384E-3	-29.8894E-3	150.120E-12	662.289E-3	-25.8928E-3
3.80940E-3	147.166E-12	663.226E-3	-28.7756E-3	149.779E-12	681.816E-3	-8.14632E-3
3.80440E-3	146.481E-12	647.094E-3	-14.7383E-3	149.725E-12	683.526E-3	-7.36042E-3
3.79940E-3	146.221E-12	633.421E-3	96.8721E-6	149.383E-12	669.008E-3	-10.5788E-3
3.79440E-3	145.651E-12	632.172E-3	4.48218E-3	149.328E-12	646.491E-3	-14.3294E-3
3.78939E-3	145.385E-12	660.953E-3	2.73678E-3	149.223E-12	626.333E-3	-19.0127E-3
3.78439E-3	144.729E-12	682.117E-3	7.32393E-3	147.618E-12	609.739E-3	-13.5438E-3
3.77939E-3	144.149E-12	662.518E-3	-306.796E-6	147.633E-12	619.286E-3	-15.8236E-3
3.77439E-3	143.859E-12	643.428E-3	-9.64532E-3	147.368E-12	656.277E-3	-16.2701E-3
3.76938E-3	143.633E-12	649.707E-3	-1.36293E-3	147.089E-12	685.537E-3	-11.9846E-3
3.76438E-3	143.624E-12	641.518E-3	-6.20421E-3	145.801E-12	679.401E-3	-24.7695E-3
3.75938E-3	143.695E-12	635.999E-3	-18.7078E-3	145.822E-12	644.338E-3	-34.9919E-3
3.75438E-3	145.012E-12	647.139E-3	-18.2275E-3	145.513E-12	639.256E-3	-35.0716E-3
3.74937E-3	145.154E-12	641.159E-3	-9.55997E-3	144.976E-12	650.392E-3	-40.6740E-3
3.74437E-3	144.852E-12	643.041E-3	-5.06715E-3	144.006E-12	654.907E-3	-32.5986E-3
3.73937E-3	145.027E-12	670.076E-3	-7.28958E-3	143.970E-12	664.391E-3	-13.8046E-3
3.73437E-3	145.424E-12	688.556E-3	-18.6070E-3	142.731E-12	659.836E-3	-20.8788E-3
3.72936E-3	145.598E-12	670.511E-3	-23.2838E-3	142.572E-12	651.320E-3	-45.8379E-3
3.72436E-3	145.910E-12	645.294E-3	348.319E-6	143.315E-12	660.035E-3	-51.7916E-3
3.71936E-3	145.219E-12	635.901E-3	21.6405E-3	142.544E-12	674.185E-3	-39.8524E-3
3.71436E-3	145.341E-12	650.981E-3	3.51863E-3	142.335E-12	662.976E-3	-33.9924E-3
3.70935E-3	144.802E-12	685.581E-3	-6.02401E-3	142.516E-12	640.042E-3	-32.8525E-3
3.70435E-3	144.700E-12	689.804E-3	4.59080E-3	141.934E-12	637.464E-3	-40.8637E-3
3.69935E-3	145.004E-12	671.966E-3	-9.23584E-3	141.917E-12	657.624E-3	-51.2233E-3
3.69435E-3	143.850E-12	687.140E-3	-8.54374E-3	141.840E-12	663.514E-3	-40.6767E-3
3.68934E-3	143.799E-12	703.207E-3	-5.64152E-3	141.672E-12	636.308E-3	-29.2902E-3
3.68434E-3	143.817E-12	697.301E-3	-28.5372E-3	142.117E-12	616.342E-3	-29.8788E-3
3.67934E-3	143.059E-12	683.670E-3	-33.2780E-3	142.382E-12	630.472E-3	-11.9319E-3
3.67434E-3	142.929E-12	649.574E-3	-25.7272E-3	141.173E-12	654.020E-3	11.1316E-3
3.66933E-3	142.504E-12	642.109E-3	-18.1356E-3	141.497E-12	657.342E-3	7.95571E-3
3.66433E-3	142.314E-12	673.104E-3	-7.62997E-3	141.219E-12	655.425E-3	-1.46415E-3
3.65933E-3	141.861E-12	683.641E-3	-20.1633E-3	140.531E-12	641.823E-3	-8.70186E-3
3.65433E-3	143.065E-12	677.458E-3	-49.7766E-3	140.029E-12	628.731E-3	-16.8304E-3
3.64932E-3	142.406E-12	680.877E-3	-44.3076E-3	140.519E-12	649.353E-3	-21.5045E-3
3.64432E-3	142.164E-12	676.388E-3	-2.32603E-3	139.389E-12	671.270E-3	-22.5559E-3
3.63932E-3	142.546E-12	670.243E-3	6.33879E-3	138.612E-12	666.780E-3	-13.9172E-3
3.63432E-3	142.623E-12	678.927E-3	-20.7938E-3	138.326E-12	653.763E-3	-7.86955E-3
3.62931E-3	142.473E-12	676.585E-3	-26.2938E-3	138.727E-12	652.820E-3	-17.7429E-3
3.62431E-3	142.383E-12	661.053E-3	-20.3991E-3	138.090E-12	657.572E-3	-25.2777E-3
3.61931E-3	142.394E-12	658.275E-3	-11.4155E-3	138.299E-12	665.373E-3	-3.47570E-3
3.61431E-3	142.148E-12	667.376E-3	9.15304E-3	138.534E-12	675.689E-3	17.0078E-3
3.60930E-3	141.141E-12	675.344E-3	18.1824E-3	138.821E-12	674.415E-3	9.87430E-3
3.60430E-3	140.686E-12	679.667E-3	6.46056E-3	138.867E-12	670.121E-3	9.31573E-3
3.59930E-3	139.669E-12	670.646E-3	-6.10865E-3	139.556E-12	676.789E-3	18.1918E-3
3.59430E-3	139.200E-12	650.557E-3	-11.8172E-3	139.344E-12	688.405E-3	12.9006E-3
3.58929E-3	138.099E-12	662.835E-3	-21.3460E-3	140.100E-12	696.444E-3	2.38246E-3
3.58429E-3	138.372E-12	698.211E-3	-22.5796E-3	141.130E-12	690.445E-3	4.51360E-3
3.57929E-3	137.552E-12	692.068E-3	-23.6347E-3	140.875E-12	686.488E-3	-7.48329E-3
3.57429E-3	137.195E-12	671.451E-3	-41.0200E-3	141.202E-12	687.486E-3	-36.2601E-3
3.56928E-3	136.837E-12	668.533E-3	-41.8906E-3	141.100E-12	688.572E-3	-39.2833E-3
3.56428E-3	137.134E-12	660.482E-3	-15.3022E-3	140.410E-12	693.938E-3	-28.5590E-3
3.55928E-3	136.999E-12	667.612E-3	-11.6094E-3	140.345E-12	675.196E-3	-16.8102E-3
3.55428E-3	137.162E-12	684.258E-3	-27.1291E-3	139.886E-12	644.518E-3	-3.45520E-3
3.54927E-3	137.068E-12	669.208E-3	-24.3212E-3	138.869E-12	644.680E-3	-9.08221E-3
3.54427E-3	136.704E-12	647.595E-3	-14.6578E-3	137.853E-12	656.920E-3	-15.9603E-3
3.53927E-3	136.826E-12	652.182E-3	-7.77271E-3	137.344E-12	662.633E-3	-10.6493E-3
3.53427E-3	136.853E-12	659.805E-3	-12.2027E-3	136.321E-12	672.810E-3	-17.7690E-3
3.52926E-3	136.260E-12	658.981E-3	-27.8209E-3	135.238E-12	674.367E-3	-29.5803E-3
3.52426E-3	135.599E-12	660.347E-3	-30.0800E-3	134.715E-12	681.038E-3	-16.9395E-3
3.51926E-3	135.325E-12	662.766E-3	-12.4997E-3	134.244E-12	707.919E-3	-9.88722E-3
3.51426E-3	135.216E-12	673.593E-3	-8.70933E-3	133.463E-12	707.312E-3	-25.4216E-3
3.50925E-3	133.970E-12	682.324E-3	-21.3663E-3	134.474E-12	675.234E-3	-27.7319E-3
3.50425E-3	133.830E-12	664.054E-3	-29.0826E-3	135.104E-12	667.734E-3	-33.0588E-3
3.49925E-3	133.024E-12	651.878E-3	-42.6725E-3	134.742E-12	682.315E-3	-41.3472E-3
3.49425E-3	132.711E-12	656.445E-3	-36.1032E-3	135.200E-12	679.194E-3	-27.8393E-3
3.48924E-3	132.291E-12	653.207E-3	-10.2219E-3	136.226E-12	674.997E-3	-12.1001E-3
3.48424E-3	131.961E-12	650.888E-3	-5.45725E-3	136.902E-12	694.715E-3	-10.1046E-3
3.47924E-3	131.706E-12	654.078E-3	-6.74514E-3	136.492E-12	705.877E-3	-26.7216E-3
3.47424E-3	131.353E-12	651.320E-3	-3.33350E-3	136.386E-12	709.175E-3	-29.7011E-3
3.46923E-3	130.917E-12	641.813E-3	4.37611E-3	136.053E-12	705.440E-3	-21.8117E-3
3.46423E-3	131.344E-12	652.271E-3	21.1906E-3	135.235E-12	671.069E-3	-27.4307E-3
3.45923E-3	131.361E-12	669.193E-3	19.1217E-3	133.961E-12	642.607E-3	-24.2181E-3
3.45423E-3	130.576E-12	672.119E-3	-14.6392E-3	132.986E-12	647.390E-3	-27.0583E-3
3.44922E-3	130.318E-12	674.314E-3	-40.0557E-3	131.905E-12	648.251E-3	-31.3465E-3
3.44422E-3	130.339E-12	656.814E-3	-34.9175E-3	130.926E-12	642.347E-3	-14.6948E-3
3.43922E-3	129.931E-12	633.698E-3	-13.5259E-3	129.617E-12	650.794E-3	3.35584E-3
3.43422E-3	130.085E-12	651.690E-3	3.86846E-3	128.682E-12	657.396E-3	4.32171E-3
3.42921E-3	130.220E-12	675.819E-3	-7.06905E-3	128.282E-12	664.059E-3	-6.66379E-3
3.42421E-3	130.216E-12	670.252E-3	-34.1117E-3	127.564E-12	678.606E-3	-23.4416E-3
3.41921E-3	129.580E-12	673.636E-3	-39.6788E-3	127.227E-12	681.359E-3	-19.5140E-3
3.41421E-3	130.080E-12	676.188E-3	-20.3561E-3	127.009E-12	666.783E-3	7.77010E-3
3.40920E-3	130.160E-12	658.516E-3	-3.47113E-3	127.080E-12	639.240E-3	17.1817E-3
3.40420E-3	130.013E-12	663.226E-3	-18.9064E-3	127.394E-12	607.455E-3	13.1901E-3
3.39920E-3	130.247E-12	672.620E-3	-39.0556E-3	128.042E-12	619.123E-3	1.49094E-3
3.39420E-3	130.520E-12	655.909E-3	-31.9811E-3	128.353E-12	663.107E-3	-20.6359E-3
3.38919E-3	130.583E-12	656.501E-3	-11.2383E-3	128.424E-12	669.974E-3	-17.4445E-3
3.38419E-3	129.822E-12	678.977E-3	11.5478E-3	128.746E-12	655.311E-3	-8.54386E-3
3.37919E-3	129.610E-12	692.007E-3	7.76825E-3	128.891E-12	655.389E-3	-27.5632E-3
3.37419E-3	129.455E-12	689.724E-3	-27.6115E-3	129.036E-12	665.301E-3	-28.9981E-3
3.36918E-3	128.766E-12	672.154E-3	-40.4771E-3	128.618E-12	672.445E-3	-5.57713E-3
3.36418E-3	128.188E-12	663.414E-3	-15.8657E-3	128.060E-12	676.209E-3	-280.073E-6
3.35918E-3	128.191E-12	670.473E-3	3.47949E-3	126.961E-12	675.493E-3	-8.78782E-3
3.35418E-3	127.879E-12	676.054E-3	8.06608E-3	127.143E-12	657.702E-3	-10.9258E-3
3.34917E-3	127.125E-12	675.337E-3	-4.41820E-3	126.935E-12	644.057E-3	-15.4546E-3
3.34417E-3	127.452E-12	675.206E-3	-21.8852E-3	126.339E-12	646.036E-3	-19.1966E-3
3.33917E-3	126.983E-12	678.613E-3	-15.7217E-3	125.474E-12	641.373E-3	-6.58672E-3
3.33417E-3	126.847E-12	669.979E-3	-16.9173E-3	125.304E-12	634.975E-3	11.2986E-3
3.32916E-3	126.726E-12	664.931E-3	-40.7494E-3	124.785E-12	625.795E-3	13.3602E-3
3.32416E-3	126.413E-12	666.326E-3	-42.2609E-3	124.721E-12	620.566E-3	5.17722E-3
3.31916E-3	126.664E-12	639.878E-3	-24.5060E-3	125.335E-12	648.276E-3	5.03035E-3
3.31416E-3	127.004E-12	632.598E-3	-30.9024E-3	124.675E-12	678.528E-3	404.097E-6
3.30915E-3	126.793E-12	673.530E-3	-36.1682E-3	124.498E-12	683.171E-3	-95.9562E-6
3.30415E-3	126.506E-12	702.863E-3	-4.52574E-3	124.681E-12	680.117E-3	7.60681E-3
3.29915E-3	127.064E-12	701.193E-3	4.66440E-3	125.436E-12	675.430E-3	1.16101E-3
3.29415E-3	126.871E-12	697.678E-3	-26.0794E-3	125.300E-12	677.922E-3	-7.68483E-3
3.28914E-3	125.890E-12	684.196E-3	-37.3121E-3	125.261E-12	678.769E-3	-9.59958E-3
3.28414E-3	125.124E-12	653.639E-3	-33.0202E-3	125.484E-12	666.927E-3	-6.12539E-3
3.27914E-3	124.589E-12	658.146E-3	-35.0567E-3	125.622E-12	653.352E-3	-8.74847E-3
3.27414E-3	124.106E-12	678.791E-3	-48.2033E-3	125.843E-12	649.006E-3	-16.2062E-3
3.26913E-3	123.432E-12	668.746E-3	-56.5724E-3	125.718E-12	664.184E-3	-25.1919E-3
3.26413E-3	122.889E-12	664.898E-3	-36.3687E-3	125.875E-12	683.493E-3	-40.8853E-3
3.25913E-3	122.333E-12	659.595E-3	-8.23439E-3	125.438E-12	681.851E-3	-41.0137E-3
3.25413E-3	121.866E-12	645.618E-3	-5.25424E-3	125.450E-12	672.014E-3	-23.8998E-3
3.24912E-3	121.810E-12	658.940E-3	-12.0577E-3	125.347E-12	663.393E-3	-21.1634E-3
3.24412E-3	121.213E-12	669.662E-3	-9.27420E-3	125.149E-12	664.861E-3	-22.0665E-3
3.23912E-3	121.096E-12	641.893E-3	-9.94836E-3	124.586E-12	679.373E-3	-5.81348E-3
3.23412E-3	120.421E-12	615.273E-3	-14.2527E-3	124.715E-12	675.985E-3	4.23090E-3
3.22911E-3	120.930E-12	626.356E-3	-11.9386E-3	124.425E-12	653.277E-3	-5.70391E-3
3.22411E-3	120.984E-12	654.930E-3	-17.1927E-3	123.563E-12	641.972E-3	-20.0201E-3
3.21911E-3	120.741E-12	668.669E-3	-36.4286E-3	122.678E-12	644.682E-3	-24.6757E-3
3.21411E-3	120.436E-12	661.381E-3	-31.2758E-3	122.418E-12	641.270E-3	-30.9398E-3
3.20910E-3	120.822E-12	642.449E-3	-7.70000E-3	122.339E-12	645.643E-3	-29.3695E-3
3.20410E-3	120.645E-12	637.470E-3	-16.5289E-3	121.675E-12	662.315E-3	-17.4115E-3
3.19910E-3	120.552E-12	663.184E-3	-36.4653E-3	121.205E-12	670.762E-3	-8.57603E-3
3.19410E-3	120.243E-12	679.435E-3	-35.2107E-3	120.386E-12	683.586E-3	-12.5495E-3
3.18909E-3	119.692E-12	681.150E-3	-21.1261E-3	120.686E-12	702.707E-3	-12.8613E-3
3.18409E-3	119.450E-12	685.380E-3	-952.226E-6	120.814E-12	676.785E-3	19.9996E-3
3.17909E-3	119.943E-12	683.866E-3	-13.4982E-3	120.689E-12	642.549E-3	39.9718E-3
3.17409E-3	119.322E-12	681.719E-3	-46.8738E-3	120.574E-12	653.219E-3	14.9578E-3
3.16908E-3	118.955E-12	674.653E-3	-39.7530E-3	120.430E-12	677.217E-3	-6.58667E-3
3.16408E-3	118.596E-12	671.256E-3	-13.8009E-3	120.675E-12	689.960E-3	-6.34639E-3
3.15908E-3	118.467E-12	673.389E-3	-6.00341E-3	121.225E-12	685.000E-3	-19.1910E-3
3.15408E-3	117.761E-12	655.621E-3	1.75569E-3	120.861E-12	674.553E-3	-28.7789E-3
3.14907E-3	117.845E-12	632.880E-3	4.80266E-3	120.186E-12	673.019E-3	-22.1870E-3
3.14407E-3	118.088E-12	636.263E-3	-14.7198E-3	120.379E-12	694.407E-3	-25.5246E-3
3.13907E-3	117.324E-12	654.038E-3	-29.2115E-3	120.218E-12	709.596E-3	-19.2784E-3
3.13407E-3	117.479E-12	664.741E-3	-21.7679E-3	119.599E-12	690.986E-3	9.78121E-3
3.12906E-3	117.755E-12	670.833E-3	-16.7745E-3	118.371E-12	671.464E-3	28.2568E-3
3.12406E-3	117.809E-12	684.424E-3	-24.7761E-3	117.657E-12	649.579E-3	11.7387E-3
3.11906E-3	118.004E-12	674.762E-3	-32.8477E-3	117.097E-12	634.865E-3	-16.7649E-3
3.11406E-3	117.992E-12	648.106E-3	-25.6918E-3	115.878E-12	657.873E-3	-25.3962E-3
3.10905E-3	117.861E-12	645.331E-3	-11.4534E-3	114.146E-12	671.092E-3	-15.7881E-3
3.10405E-3	117.421E-12	651.471E-3	-8.40326E-3	113.419E-12	657.771E-3	259.861E-6
3.09905E-3	117.476E-12	662.427E-3	-19.4040E-3	113.301E-12	650.272E-3	12.2814E-3
3.09405E-3	116.911E-12	676.220E-3	-24.0099E-3	113.255E-12	654.673E-3	-6.32792E-3
3.08904E-3	116.673E-12	669.664E-3	-10.5829E-3	113.395E-12	675.933E-3	-38.9781E-3
3.08404E-3	116.615E-12	654.507E-3	-4.83776E-3	113.660E-12	683.063E-3	-53.1647E-3
3.07904E-3	116.012E-12	671.349E-3	-5.93432E-3	113.241E-12	659.482E-3	-49.9900E-3
3.07404E-3	115.513E-12	698.145E-3	9.87538E-3	113.856E-12	643.479E-3	-31.7997E-3
3.06903E-3	115.619E-12	682.473E-3	16.1091E-3	114.793E-12	653.693E-3	-21.4236E-3
3.06403E-3	114.945E-12	665.894E-3	-3.01747E-3	114.618E-12	666.986E-3	-35.0226E-3
3.05903E-3	114.988E-12	671.489E-3	-13.0237E-3	114.324E-12	669.724E-3	-37.7648E-3
3.05403E-3	114.687E-12	669.430E-3	-13.3521E-3	115.340E-12	675.487E-3	-16.6016E-3
3.04902E-3	114.713E-12	684.348E-3	-23.3589E-3	116.209E-12	683.774E-3	-12.4382E-3
3.04402E-3	114.662E-12	709.526E-3	-31.8104E-3	115.836E-12	682.651E-3	-17.2470E-3
3.03902E-3	114.344E-12	701.362E-3	-26.8962E-3	115.454E-12	694.865E-3	-9.75892E-3
3.03402E-3	114.074E-12	689.784E-3	-21.0032E-3	115.299E-12	721.093E-3	-7.83852E-3
3.02901E-3	113.661E-12	707.430E-3	-15.1799E-3	114.680E-12	715.590E-3	6.96112E-3
3.02401E-3	113.909E-12	709.796E-3	-17.5083E-3	113.995E-12	693.388E-3	24.3889E-3
3.01901E-3	113.475E-12	690.823E-3	-38.4710E-3	113.057E-12	684.166E-3	7.51140E-3
3.01401E-3	113.056E-12	680.193E-3	-29.5939E-3	112.670E-12	677.389E-3	-13.6693E-3
3.00900E-3	112.595E-12	674.957E-3	6.76420E-3	112.160E-12	678.512E-3	-13.9010E-3
3.00400E-3	111.575E-12	677.393E-3	9.92273E-3	111.637E-12	671.758E-3	-10.5016E-3
2.99900E-3	111.641E-12	684.496E-3	-9.97799E-3	111.247E-12	655.426E-3	-9.63881E-3
2.99400E-3	111.350E-12	692.520E-3	-28.4615E-3	110.908E-12	675.787E-3	-19.3508E-3
2.98899E-3	110.319E-12	688.313E-3	-43.2827E-3	111.471E-12	710.924E-3	-32.4278E-3
2.98399E-3	109.822E-12	682.979E-3	-32.4621E-3	110.885E-12	718.094E-3	-17.5336E-3
2.97899E-3	109.924E-12	689.661E-3	-8.92071E-3	111.475E-12	706.463E-3	9.36864E-3
2.97399E-3	109.570E-12	678.443E-3	-15.8010E-3	111.724E-12	693.592E-3	2.68002E-3
2.96898E-3	109.605E-12	662.485E-3	-38.3051E-3	112.416E-12	690.607E-3	-18.2005E-3
2.96398E-3	109.558E-12	659.114E-3	-36.2873E-3	112.658E-12	694.537E-3	-21.8352E-3
2.95898E-3	109.265E-12	668.152E-3	-21.0063E-3	113.064E-12	711.015E-3	-13.5842E-3
2.95398E-3	109.162E-12	684.707E-3	-7.26754E-3	112.714E-12	706.398E-3	-8.04241E-3
2.94897E-3	109.416E-12	688.974E-3	184.606E-6	112.403E-12	683.990E-3	-9.48222E-3
2.94397E-3	109.393E-12	680.297E-3	-20.4635E-3	112.309E-12	687.469E-3	-12.4033E-3
2.93897E-3	108.581E-12	670.101E-3	-48.8396E-3	111.448E-12	693.486E-3	-21.2560E-3
2.93397E-3	108.794E-12	658.725E-3	-37.7146E-3	111.241E-12	695.221E-3	-25.7249E-3
2.92896E-3	108.369E-12	659.744E-3	-2.93488E-3	110.312E-12	703.451E-3	-16.5872E-3
2.92396E-3	108.169E-12	667.016E-3	18.7844E-3	109.920E-12	691.728E-3	-2.64796E-3
2.91896E-3	107.614E-12	662.819E-3	8.58228E-3	109.397E-12	668.804E-3	-510.175E-6
2.91396E-3	107.508E-12	656.230E-3	-24.2692E-3	109.143E-12	671.388E-3	-11.0378E-3
2.90895E-3	106.875E-12	655.492E-3	-35.3935E-3	108.518E-12	688.467E-3	-20.6385E-3
2.90395E-3	106.804E-12	670.180E-3	-22.9664E-3	107.770E-12	692.586E-3	-21.6390E-3
2.89895E-3	106.817E-12	687.744E-3	-12.5087E-3	107.359E-12	685.079E-3	-21.5385E-3
2.89395E-3	106.724E-12	696.138E-3	-12.5503E-3	107.099E-12	680.236E-3	-26.8255E-3
2.88894E-3	106.051E-12	703.940E-3	-8.28603E-3	106.663E-12	687.211E-3	-25.3926E-3
2.88394E-3	106.255E-12	711.729E-3	-16.4653E-3	106.330E-12	701.777E-3	-19.6982E-3
2.87894E-3	106.477E-12	712.831E-3	-42.9743E-3	105.872E-12	696.795E-3	-8.92808E-3
2.87394E-3	106.260E-12	699.472E-3	-48.5501E-3	105.806E-12	664.537E-3	-2.01803E-3
2.86893E-3	105.699E-12	680.212E-3	-30.5528E-3	105.591E-12	653.380E-3	-2.17623E-3
2.86393E-3	105.877E-12	668.308E-3	-18.1132E-3	106.100E-12	674.285E-3	-10.2487E-3
2.85893E-3	105.650E-12	659.010E-3	-16.5674E-3	105.191E-12	676.598E-3	-23.0530E-3
2.85393E-3	105.791E-12	653.454E-3	-5.44393E-3	105.270E-12	675.621E-3	-13.1985E-3
2.84892E-3	105.666E-12	659.754E-3	4.33642E-3	104.710E-12	687.175E-3	1.03083E-3
2.84392E-3	105.153E-12	683.036E-3	5.43350E-3	104.930E-12	668.046E-3	5.81935E-3
2.83892E-3	105.013E-12	685.199E-3	867.876E-6	104.098E-12	666.827E-3	9.91509E-3
2.83392E-3	104.915E-12	672.440E-3	-21.6998E-3	103.718E-12	708.725E-3	9.21238E-3
2.82891E-3	104.396E-12	686.635E-3	-35.3632E-3	103.840E-12	716.595E-3	23.5065E-3
2.82391E-3	103.908E-12	700.489E-3	-28.7925E-3	104.058E-12	697.909E-3	42.4883E-3
2.81891E-3	103.717E-12	706.360E-3	-29.7897E-3	103.232E-12	685.231E-3	25.6255E-3
2.81391E-3	103.952E-12	704.078E-3	-19.8854E-3	103.088E-12	671.212E-3	-12.7913E-3
2.80890E-3	103.375E-12	694.553E-3	6.95339E-3	103.061E-12	667.495E-3	-34.8640E-3
2.80390E-3	103.481E-12	694.046E-3	21.4870E-3	102.103E-12	672.365E-3	-35.0769E-3
2.79890E-3	103.164E-12	700.688E-3	21.5926E-3	101.997E-12	673.188E-3	-24.3076E-3
2.79390E-3	102.909E-12	699.139E-3	-489.607E-6	101.548E-12	680.684E-3	-18.1826E-3
2.78889E-3	102.976E-12	683.728E-3	-28.7816E-3	101.747E-12	697.473E-3	-31.1365E-3
2.78389E-3	103.116E-12	670.493E-3	-24.9953E-3	100.835E-12	716.374E-3	-38.2250E-3
2.77889E-3	102.539E-12	670.648E-3	-603.150E-6	100.376E-12	728.866E-3	-12.7023E-3
2.77389E-3	102.208E-12	687.930E-3	19.1996E-3	100.915E-12	718.938E-3	5.08939E-3
2.76888E-3	102.430E-12	717.127E-3	24.1257E-3	100.262E-12	689.728E-3	-18.0739E-3
2.76388E-3	101.935E-12	724.382E-3	6.80443E-3	100.007E-12	673.417E-3	-41.8495E-3
2.75888E-3	101.024E-12	698.446E-3	-5.03181E-3	99.9149E-12	688.151E-3	-36.7617E-3
2.75388E-3	100.533E-12	680.501E-3	-1.37741E-3	99.6259E-12	686.281E-3	-13.9212E-3
2.74887E-3	100.697E-12	684.358E-3	-7.61790E-3	99.4570E-12	661.473E-3	1.71790E-3
2.74387E-3	100.003E-12	684.616E-3	-14.7936E-3	99.3142E-12	668.747E-3	-5.65288E-3
2.73887E-3	99.4019E-12	682.949E-3	-25.1147E-3	99.3884E-12	694.973E-3	-20.8730E-3
2.73387E-3	99.0665E-12	670.572E-3	-23.5932E-3	99.7807E-12	706.644E-3	-20.6446E-3
2.72886E-3	98.6941E-12	648.430E-3	-5.55526E-3	99.8162E-12	723.420E-3	14.4916E-6
2.72386E-3	98.4170E-12	659.628E-3	792.437E-6	99.7344E-12	739.074E-3	18.3718E-3
2.71886E-3	98.3706E-12	681.658E-3	-3.07710E-3	100.434E-12	715.749E-3	14.0517E-3
2.71386E-3	97.9821E-12	677.832E-3	-30.4613E-3	100.233E-12	688.594E-3	-12.3815E-3
2.70885E-3	97.5382E-12	676.512E-3	-58.6918E-3	99.7321E-12	690.638E-3	-39.5767E-3
2.70385E-3	98.2502E-12	678.921E-3	-39.2822E-3	99.3826E-12	691.752E-3	-25.8094E-3
2.69885E-3	97.8694E-12	681.938E-3	-8.43106E-3	99.2664E-12	696.116E-3	3.27746E-3
2.69385E-3	97.0557E-12	700.972E-3	-4.47258E-3	98.6324E-12	701.407E-3	-9.86418E-3
2.68884E-3	96.8129E-12	711.662E-3	-4.60882E-3	98.1593E-12	701.885E-3	-28.8841E-3
2.68384E-3	97.3666E-12	690.924E-3	-14.3189E-3	97.9640E-12	724.159E-3	-26.9465E-3
2.67884E-3	97.2232E-12	665.019E-3	-25.3583E-3	97.2840E-12	746.586E-3	-26.7012E-3
2.67384E-3	96.6815E-12	665.873E-3	-18.8692E-3	96.6233E-12	733.287E-3	-20.2536E-3
2.66883E-3	96.4035E-12	691.091E-3	-17.3678E-3	97.0365E-12	706.598E-3	-14.5456E-3
2.66383E-3	96.0120E-12	707.104E-3	-20.2903E-3	96.2208E-12	687.624E-3	-32.5347E-3
2.65883E-3	95.8500E-12	704.225E-3	-15.5908E-3	95.8846E-12	684.304E-3	-38.6196E-3
2.65383E-3	94.9832E-12	692.639E-3	-16.0406E-3	96.3716E-12	709.177E-3	-18.9535E-3
2.64882E-3	94.6015E-12	673.318E-3	-17.1780E-3	96.0709E-12	726.262E-3	-9.62520E-3
2.64382E-3	93.9750E-12	675.654E-3	-14.1270E-3	95.7717E-12	708.829E-3	4.38306E-3
2.63882E-3	94.0239E-12	695.204E-3	-18.0722E-3	95.9360E-12	697.854E-3	21.0456E-3
2.63382E-3	94.2047E-12	701.926E-3	-24.4715E-3	95.5861E-12	706.881E-3	11.7527E-3
2.62881E-3	93.9490E-12	706.212E-3	-23.5716E-3	96.1087E-12	711.071E-3	-3.01755E-3
2.62381E-3	93.6580E-12	701.579E-3	-17.1149E-3	95.8294E-12	709.417E-3	-8.84310E-3
2.61881E-3	93.5866E-12	693.774E-3	-20.8091E-3	95.8319E-12	702.022E-3	-16.2583E-3
2.61381E-3	93.5123E-12	701.115E-3	-35.2336E-3	95.2672E-12	686.365E-3	-25.5686E-3
2.60880E-3	93.3798E-12	701.482E-3	-36.8044E-3	94.8858E-12	695.028E-3	-18.7249E-3
2.60380E-3	93.3219E-12	683.821E-3	-23.5859E-3	94.3236E-12	730.057E-3	-6.86793E-3
2.59880E-3	93.1262E-12	682.700E-3	-2.35459E-3	93.9647E-12	726.797E-3	-2.06895E-3
2.59380E-3	92.9822E-12	705.207E-3	13.4917E-3	93.2522E-12	695.702E-3	3.36516E-3
2.58879E-3	93.2892E-12	717.590E-3	-5.57616E-3	92.6590E-12	687.256E-3	-17.5066E-3
2.58379E-3	93.1583E-12	715.188E-3	-30.6627E-3	92.4680E-12	681.898E-3	-56.8716E-3
2.57879E-3	92.9547E-12	703.321E-3	-28.0213E-3	91.8843E-12	677.251E-3	-56.5739E-3
2.57379E-3	92.2852E-12	691.136E-3	-12.8446E-3	91.6306E-12	700.780E-3	-32.9874E-3
2.56878E-3	92.1514E-12	709.357E-3	216.535E-6	90.5929E-12	707.432E-3	-24.5725E-3
2.56378E-3	91.8668E-12	735.867E-3	-1.26680E-3	91.0004E-12	671.378E-3	-19.8220E-3
2.55878E-3	91.8080E-12	718.356E-3	-16.6214E-3	91.0762E-12	675.741E-3	-27.3516E-3
2.55378E-3	90.9666E-12	688.586E-3	-23.1723E-3	90.9214E-12	717.983E-3	-40.8210E-3
2.54877E-3	90.8863E-12	687.701E-3	-12.8293E-3	91.3654E-12	726.645E-3	-36.1719E-3
2.54377E-3	90.5844E-12	699.762E-3	-6.75533E-3	91.3744E-12	721.305E-3	-23.3511E-3
2.53877E-3	90.6590E-12	711.311E-3	-15.3642E-3	91.4223E-12	706.700E-3	-27.2465E-3
2.53377E-3	90.7300E-12	708.905E-3	-20.8016E-3	91.1568E-12	693.246E-3	-33.1164E-3
2.52876E-3	90.1633E-12	697.238E-3	-24.7821E-3	91.0923E-12	720.798E-3	-22.0081E-3
2.52376E-3	89.7314E-12	700.991E-3	-32.5688E-3	90.4320E-12	751.823E-3	-25.4917E-3
2.51876E-3	89.5426E-12	714.604E-3	-24.8869E-3	90.6563E-12	733.110E-3	-23.4879E-3
2.51376E-3	89.6523E-12	716.703E-3	-25.1617E-3	90.5489E-12	699.500E-3	3.90007E-3
2.50875E-3	88.8173E-12	713.293E-3	-41.7665E-3	89.9471E-12	697.541E-3	-1.31469E-3
2.50375E-3	88.9543E-12	714.944E-3	-40.9961E-3	89.5580E-12	701.383E-3	-23.1080E-3
2.49875E-3	88.5610E-12	709.706E-3	-23.8056E-3	89.0210E-12	709.773E-3	-13.2845E-3
2.49375E-3	88.7673E-12	704.969E-3	-15.3662E-3	88.9014E-12	724.710E-3	2.21222E-3
2.48874E-3	88.5666E-12	699.933E-3	-24.9791E-3	88.6440E-12	707.198E-3	500.654E-6
2.48374E-3	88.2046E-12	690.001E-3	-33.6264E-3	88.0291E-12	686.561E-3	-12.4160E-3
2.47874E-3	87.6195E-12	678.361E-3	-36.9894E-3	87.1898E-12	701.636E-3	-24.3313E-3
2.47374E-3	87.6096E-12	679.125E-3	-36.2101E-3	87.1921E-12	707.012E-3	-23.4085E-3
2.46873E-3	87.2209E-12	704.293E-3	-27.3345E-3	86.7988E-12	696.902E-3	-9.38328E-3
2.46373E-3	86.7313E-12	721.830E-3	-29.8733E-3	86.8732E-12	711.806E-3	-7.15914E-3
2.45873E-3	86.5235E-12	725.890E-3	-33.9307E-3	86.4953E-12	731.983E-3	-13.1145E-3
2.45373E-3	86.1817E-12	718.029E-3	-18.8140E-3	86.6395E-12	740.444E-3	1.09055E-3
2.44872E-3	85.9667E-12	699.505E-3	-16.1654E-3	86.8312E-12	751.706E-3	1.38297E-3
2.44372E-3	85.7059E-12	702.842E-3	-21.0274E-3	86.8433E-12	749.027E-3	-15.1710E-3
2.43872E-3	85.5309E-12	720.591E-3	-4.97813E-3	86.9060E-12	719.785E-3	-7.84278E-3
2.43372E-3	84.9424E-12	712.956E-3	-412.432E-6	87.0900E-12	710.737E-3	-5.92681E-3
2.42871E-3	84.9455E-12	697.048E-3	-11.0363E-3	86.7337E-12	729.918E-3	-25.9094E-3
2.42371E-3	84.7925E-12	702.624E-3	-5.19890E-3	86.7923E-12	737.152E-3	-13.6216E-3
2.41871E-3	84.5562E-12	718.041E-3	8.01832E-3	86.5691E-12	740.324E-3	11.2673E-3
2.41371E-3	84.7396E-12	723.550E-3	9.77605E-3	86.0236E-12	736.215E-3	6.55898E-3
2.40870E-3	83.9615E-12	717.999E-3	5.08832E-3	85.6196E-12	724.278E-3	2.08756E-3
2.40370E-3	83.9955E-12	717.956E-3	-10.2279E-3	85.7307E-12	739.494E-3	-2.96464E-3
2.39870E-3	84.0069E-12	719.801E-3	-26.3963E-3	85.0605E-12	755.306E-3	-14.8255E-3
2.39370E-3	83.5148E-12	723.054E-3	-12.9115E-3	84.7239E-12	743.440E-3	-12.2164E-3
2.38869E-3	82.8918E-12	720.734E-3	-9.09821E-3	83.9598E-12	733.477E-3	-2.13122E-3
2.38369E-3	83.3497E-12	716.058E-3	-33.5787E-3	83.7091E-12	732.628E-3	-18.1219E-3
2.37869E-3	83.3315E-12	728.434E-3	-38.6422E-3	83.1293E-12	736.725E-3	-46.1566E-3
2.37369E-3	82.8905E-12	721.578E-3	-37.6036E-3	83.3291E-12	750.779E-3	-46.2081E-3
2.36868E-3	82.5677E-12	703.247E-3	-39.0506E-3	82.8860E-12	757.217E-3	-31.0500E-3
2.36368E-3	82.3747E-12	713.775E-3	-19.4873E-3	82.2795E-12	737.183E-3	-16.1270E-3
2.35868E-3	82.0513E-12	734.274E-3	-11.1319E-3	82.0947E-12	722.441E-3	-1.75923E-3
2.35368E-3	82.3324E-12	738.543E-3	-31.4497E-3	81.9117E-12	734.444E-3	-8.37432E-3
2.34867E-3	82.4394E-12	730.450E-3	-33.6630E-3	81.7768E-12	733.197E-3	-19.3201E-3
2.34367E-3	81.9154E-12	724.797E-3	-14.6866E-3	81.6250E-12	729.033E-3	-6.08766E-3
2.33867E-3	82.0684E-12	734.717E-3	-23.2859E-3	81.0781E-12	736.290E-3	1.91000E-3
2.33367E-3	81.3004E-12	757.625E-3	-46.7119E-3	81.0939E-12	723.306E-3	-13.4524E-3
2.32866E-3	81.1121E-12	758.300E-3	-45.1774E-3	80.8485E-12	719.998E-3	-38.2661E-3
2.32366E-3	80.9848E-12	744.045E-3	-27.7251E-3	80.4931E-12	754.340E-3	-57.0056E-3
2.31866E-3	80.0511E-12	748.951E-3	-10.6499E-3	80.2061E-12	781.106E-3	-55.4976E-3
2.31366E-3	79.3340E-12	757.720E-3	-5.75053E-3	79.9201E-12	774.991E-3	-36.1436E-3
2.30865E-3	79.5379E-12	753.973E-3	-27.0956E-3	79.7685E-12	755.909E-3	-29.8579E-3
2.30365E-3	78.6852E-12	741.903E-3	-54.2515E-3	80.0327E-12	737.419E-3	-31.8756E-3
2.29865E-3	78.0641E-12	725.734E-3	-51.7008E-3	79.3582E-12	739.855E-3	-12.0480E-3
2.29365E-3	78.0631E-12	723.150E-3	-26.0895E-3	78.6064E-12	757.712E-3	1.63526E-3
2.28864E-3	77.7145E-12	738.717E-3	-10.2200E-3	78.5435E-12	749.434E-3	-4.01852E-3
2.28364E-3	77.6862E-12	743.745E-3	-15.5746E-3	78.2939E-12	737.357E-3	-12.3036E-3
2.27864E-3	77.5141E-12	731.026E-3	-29.5429E-3	77.6265E-12	751.021E-3	-27.3563E-3
2.27364E-3	77.4801E-12	723.049E-3	-33.6929E-3	77.1264E-12	756.016E-3	-36.1471E-3
2.26863E-3	77.3546E-12	723.642E-3	-18.5557E-3	76.7081E-12	750.099E-3	-19.4852E-3
2.26363E-3	77.6776E-12	721.538E-3	-8.88969E-3	76.5657E-12	745.970E-3	-5.67174E-3
2.25863E-3	77.6025E-12	728.017E-3	-17.0766E-3	75.9307E-12	729.647E-3	-21.5400E-3
2.25363E-3	77.0790E-12	739.030E-3	-23.8116E-3	75.9783E-12	713.766E-3	-36.4913E-3
2.24862E-3	77.5838E-12	738.273E-3	-23.1218E-3	75.4289E-12	724.700E-3	-32.2483E-3
2.24362E-3	77.3525E-12	747.044E-3	-11.6308E-3	74.7843E-12	742.031E-3	-20.6205E-3
2.23862E-3	76.9397E-12	755.086E-3	12.0574E-3	74.9337E-12	739.741E-3	-3.66759E-3
2.23362E-3	76.2867E-12	750.312E-3	26.7759E-3	74.7870E-12	733.655E-3	1.54974E-3
2.22861E-3	76.3094E-12	760.743E-3	10.4198E-3	74.4703E-12	735.353E-3	-17.0165E-3
2.22361E-3	75.2182E-12	759.346E-3	-7.72453E-3	74.2621E-12	752.518E-3	-30.0154E-3
2.21861E-3	74.8159E-12	737.208E-3	362.383E-6	74.2750E-12	775.713E-3	-18.9976E-3
2.21361E-3	74.4378E-12	738.078E-3	7.98104E-3	74.5448E-12	784.096E-3	1.33510E-3
2.20860E-3	74.3029E-12	755.669E-3	1.23236E-3	74.2829E-12	781.888E-3	2.55562E-3
2.20360E-3	73.6940E-12	748.571E-3	-8.01795E-3	74.4871E-12	792.808E-3	-9.13948E-3
2.19860E-3	73.6544E-12	729.093E-3	-12.8578E-3	74.4139E-12	814.738E-3	-17.6358E-3
2.19360E-3	73.5140E-12	734.900E-3	-13.2630E-3	74.5385E-12	803.368E-3	-26.0125E-3
2.18859E-3	73.0392E-12	754.331E-3	-19.1594E-3	74.1806E-12	778.439E-3	-16.9382E-3
2.18359E-3	72.6775E-12	774.327E-3	-26.2023E-3	74.3351E-12	781.346E-3	-9.73877E-3
2.17859E-3	72.6461E-12	782.001E-3	-29.6599E-3	73.7643E-12	777.718E-3	-25.1999E-3
2.17359E-3	72.5371E-12	767.273E-3	-37.6041E-3	73.2632E-12	777.399E-3	-25.0967E-3
2.16858E-3	72.1502E-12	749.143E-3	-38.6471E-3	73.3066E-12	797.312E-3	-16.8344E-3
2.16358E-3	71.6621E-12	748.785E-3	-17.4201E-3	73.0480E-12	791.280E-3	-15.7231E-3
2.15858E-3	71.3955E-12	757.980E-3	2.51427E-3	72.4379E-12	770.959E-3	-4.26768E-3
2.15358E-3	71.3669E-12	761.316E-3	-8.16564E-3	72.2566E-12	774.985E-3	-15.3544E-3
2.14857E-3	71.4501E-12	760.795E-3	-24.2064E-3	71.8627E-12	782.790E-3	-35.1484E-3
2.14357E-3	70.8086E-12	760.588E-3	-15.0717E-3	71.1308E-12	790.529E-3	-18.2220E-3
2.13857E-3	70.4675E-12	774.103E-3	-3.41320E-3	71.0660E-12	800.389E-3	-3.87319E-3
2.13357E-3	70.2191E-12	793.274E-3	-2.76898E-3	70.8634E-12	787.727E-3	-6.12163E-3
2.12856E-3	70.3499E-12	794.405E-3	-18.0094E-3	70.5501E-12	787.559E-3	422.773E-6
2.12356E-3	69.9027E-12	772.699E-3	-44.4498E-3	70.4826E-12	820.373E-3	-8.25589E-3
2.11856E-3	69.3192E-12	755.732E-3	-39.5098E-3	70.2625E-12	827.936E-3	-27.5701E-3
2.11356E-3	69.1037E-12	762.480E-3	-13.0049E-3	70.4237E-12	807.845E-3	-19.1173E-3
2.10855E-3	68.9073E-12	773.763E-3	-10.1047E-3	70.6042E-12	804.358E-3	-6.31480E-3
2.10355E-3	68.7763E-12	786.688E-3	-18.0097E-3	70.1970E-12	796.380E-3	-9.45499E-3
2.09855E-3	68.5477E-12	788.272E-3	-15.9153E-3	70.3234E-12	788.124E-3	-12.8899E-3
2.09355E-3	68.1027E-12	758.772E-3	-15.6918E-3	70.3901E-12	807.235E-3	-21.7995E-3
2.08854E-3	68.1495E-12	741.569E-3	-12.6854E-3	70.3074E-12	815.150E-3	-25.3512E-3
2.08354E-3	67.9558E-12	762.172E-3	-16.2132E-3	69.6963E-12	803.945E-3	-4.88266E-3
2.07854E-3	67.5008E-12	785.943E-3	-34.8681E-3	68.7682E-12	805.477E-3	315.674E-6
2.07354E-3	66.9737E-12	798.244E-3	-39.1741E-3	68.5617E-12	808.601E-3	-27.3117E-3
2.06853E-3	67.0079E-12	787.935E-3	-21.4183E-3	68.2336E-12	811.651E-3	-43.6502E-3
2.06353E-3	66.8336E-12	769.649E-3	-17.0054E-3	67.1308E-12	820.547E-3	-38.9607E-3
2.05853E-3	67.0429E-12	781.736E-3	-30.3509E-3	66.4316E-12	797.627E-3	-29.5401E-3
2.05353E-3	66.9299E-12	803.562E-3	-29.5778E-3	66.0414E-12	762.550E-3	-13.3091E-3
2.04852E-3	66.7824E-12	796.142E-3	-20.0171E-3	65.6293E-12	770.771E-3	-5.55422E-3
2.04352E-3	66.5813E-12	788.027E-3	-9.53656E-3	64.9442E-12	791.759E-3	-12.7688E-3
2.03852E-3	66.5397E-12	804.026E-3	140.398E-6	64.7155E-12	792.608E-3	-2.78313E-3
2.03352E-3	66.7228E-12	826.619E-3	-5.06250E-3	64.4449E-12	796.285E-3	19.0279E-3
2.02851E-3	66.2323E-12	844.536E-3	-17.2797E-3	64.4263E-12	813.674E-3	3.22338E-3
2.02351E-3	65.7220E-12	845.933E-3	-18.5464E-3	64.2580E-12	823.193E-3	-21.3770E-3
2.01851E-3	65.7640E-12	830.834E-3	-6.28695E-3	63.8631E-12	828.490E-3	-11.1864E-3
2.01351E-3	65.6071E-12	819.211E-3	2.44925E-3	63.8312E-12	833.500E-3	-14.4747E-3
2.00850E-3	65.0011E-12	826.531E-3	-2.33308E-3	63.3581E-12	811.916E-3	-29.2979E-3
2.00350E-3	64.0469E-12	831.026E-3	-14.0836E-3	63.2341E-12	797.204E-3	-24.5693E-3
1.99850E-3	64.2857E-12	827.282E-3	-31.1734E-3	63.1841E-12	824.745E-3	-34.7636E-3
1.99350E-3	63.9839E-12	826.487E-3	-35.6332E-3	62.9113E-12	849.101E-3	-40.9043E-3
1.98849E-3	63.5136E-12	829.153E-3	-18.9635E-3	62.8720E-12	857.262E-3	-16.9885E-3
1.98349E-3	63.0179E-12	832.375E-3	-8.66626E-3	62.5569E-12	850.341E-3	-12.3104E-3
1.97849E-3	62.8301E-12	827.308E-3	-18.2367E-3	62.2843E-12	815.124E-3	-26.9531E-3
1.97349E-3	62.4184E-12	818.389E-3	-34.8507E-3	61.9407E-12	800.441E-3	-30.5573E-3
1.96848E-3	62.2134E-12	815.165E-3	-50.9680E-3	61.6196E-12	818.848E-3	-28.9292E-3
1.96348E-3	61.8207E-12	831.390E-3	-43.3276E-3	61.0315E-12	830.117E-3	-25.2166E-3
1.95848E-3	61.6306E-12	846.672E-3	-16.1006E-3	60.8185E-12	832.204E-3	-25.5554E-3
1.95348E-3	61.3938E-12	837.816E-3	-14.7234E-3	60.5265E-12	839.551E-3	-44.6234E-3
1.94847E-3	60.9303E-12	832.789E-3	-18.7177E-3	59.8940E-12	837.689E-3	-52.3500E-3
1.94347E-3	60.7421E-12	829.288E-3	-17.4087E-3	59.6231E-12	833.292E-3	-20.8671E-3
1.93847E-3	60.3319E-12	819.403E-3	-37.6090E-3	59.5290E-12	845.736E-3	-4.56602E-3
1.93347E-3	60.1253E-12	828.923E-3	-45.6556E-3	59.2854E-12	847.396E-3	-22.1227E-3
1.92846E-3	59.8107E-12	843.999E-3	-27.7426E-3	58.7564E-12	829.360E-3	-17.5863E-3
1.92346E-3	59.7897E-12	847.154E-3	-20.6768E-3	58.5832E-12	833.314E-3	-8.45308E-3
1.91846E-3	59.1149E-12	841.516E-3	-28.7590E-3	58.5070E-12	850.938E-3	-22.7820E-3
1.91346E-3	58.7430E-12	839.890E-3	-30.1022E-3	58.1830E-12	843.490E-3	-18.2164E-3
1.90845E-3	58.5048E-12	847.895E-3	-24.1079E-3	58.1236E-12	838.362E-3	-10.8134E-3
1.90345E-3	58.1670E-12	861.341E-3	-21.0401E-3	57.9387E-12	840.088E-3	-23.7420E-3
1.89845E-3	57.9858E-12	873.013E-3	-23.7933E-3	57.7280E-12	840.328E-3	-20.2186E-3
1.89345E-3	57.3998E-12	870.778E-3	-30.3548E-3	57.4383E-12	863.207E-3	-10.2550E-3
1.88844E-3	57.0959E-12	869.796E-3	-29.8816E-3	57.0557E-12	877.278E-3	-22.9772E-3
1.88344E-3	56.8727E-12	875.035E-3	-18.5877E-3	56.6837E-12	858.498E-3	-25.0729E-3
1.87844E-3	56.5868E-12	882.167E-3	-18.4397E-3	56.4373E-12	851.054E-3	-15.6796E-3
1.87344E-3	55.8776E-12	893.661E-3	-28.4107E-3	56.3718E-12	869.552E-3	-28.2045E-3
1.86843E-3	55.3820E-12	884.035E-3	-21.7846E-3	56.0259E-12	885.625E-3	-30.6273E-3
1.86343E-3	55.1625E-12	858.042E-3	-8.66632E-3	55.8701E-12	898.276E-3	-12.9279E-3
1.85843E-3	54.8553E-12	854.745E-3	-5.39369E-3	55.6770E-12	903.322E-3	-7.15049E-3
1.85343E-3	54.5067E-12	865.109E-3	-10.3787E-3	55.4314E-12	889.752E-3	-3.02032E-3
1.84842E-3	54.1905E-12	866.243E-3	-15.4421E-3	54.9909E-12	881.659E-3	1.62373E-3
1.84342E-3	54.3129E-12	860.436E-3	-11.5607E-3	54.5488E-12	886.742E-3	-12.9559E-3
1.83842E-3	54.0158E-12	849.416E-3	-8.82615E-3	54.6514E-12	890.638E-3	-18.2179E-3
1.83342E-3	53.7294E-12	856.934E-3	-11.2591E-3	54.2511E-12	910.551E-3	851.746E-6
1.82841E-3	53.5524E-12	880.408E-3	-23.3100E-3	53.7425E-12	925.994E-3	4.14313E-3
1.82341E-3	53.4315E-12	881.693E-3	-36.2737E-3	53.4910E-12	906.409E-3	-1.15001E-3
1.81841E-3	52.9955E-12	867.526E-3	-37.4835E-3	52.8792E-12	892.204E-3	-1.56953E-3
1.81341E-3	52.4534E-12	875.654E-3	-31.1322E-3	52.5684E-12	910.376E-3	-18.3347E-3
1.80840E-3	52.2718E-12	909.226E-3	-21.7085E-3	52.1154E-12	919.408E-3	-28.4915E-3
1.80340E-3	51.9250E-12	930.643E-3	-24.4088E-3	51.8444E-12	898.548E-3	-15.5375E-3
1.79840E-3	51.6786E-12	926.029E-3	-42.8098E-3	51.6628E-12	888.280E-3	-18.8813E-3
1.79340E-3	51.1135E-12	910.412E-3	-42.4655E-3	51.3033E-12	904.920E-3	-42.9625E-3
1.78839E-3	50.8690E-12	897.681E-3	-25.0300E-3	51.2847E-12	935.171E-3	-40.4168E-3
1.78339E-3	50.8645E-12	905.852E-3	-23.8251E-3	51.1483E-12	960.185E-3	-18.1658E-3
1.77839E-3	50.3912E-12	928.044E-3	-22.0682E-3	50.8883E-12	958.450E-3	-285.488E-6
1.77339E-3	49.9183E-12	926.358E-3	-15.1757E-3	50.7379E-12	945.326E-3	15.9736E-3
1.76838E-3	49.5094E-12	910.220E-3	-22.3754E-3	50.6963E-12	949.034E-3	7.39887E-3
1.76338E-3	49.4348E-12	916.118E-3	-14.5689E-3	50.6682E-12	954.203E-3	-15.9274E-3
1.75838E-3	49.0142E-12	934.775E-3	10.6402E-3	50.4149E-12	956.242E-3	-14.0939E-3
1.75338E-3	48.5440E-12	942.686E-3	6.42599E-3	49.9076E-12	966.439E-3	-9.52516E-3
1.74837E-3	48.4508E-12	941.402E-3	-15.6199E-3	49.5345E-12	959.502E-3	-25.3554E-3
1.74337E-3	48.5109E-12	930.858E-3	-22.5515E-3	49.3338E-12	943.426E-3	-29.6844E-3
1.73837E-3	48.1490E-12	913.628E-3	-24.0206E-3	48.9773E-12	954.150E-3	-13.3266E-3
1.73337E-3	47.7760E-12	918.228E-3	-14.7523E-3	48.1205E-12	964.474E-3	-8.41948E-3
1.72836E-3	47.6865E-12	945.298E-3	8.78416E-3	47.6122E-12	954.866E-3	-1.72918E-3
1.72336E-3	47.4835E-12	960.864E-3	-1.75766E-3	47.5329E-12	960.695E-3	16.7566E-3
1.71836E-3	46.9489E-12	959.336E-3	-26.9242E-3	47.0751E-12	979.509E-3	5.14998E-3
1.71336E-3	46.5152E-12	958.655E-3	-15.1143E-3	46.1404E-12	981.936E-3	-17.3033E-3
1.70835E-3	46.4770E-12	965.908E-3	4.09993E-3	45.7941E-12	986.459E-3	-15.1474E-3
1.70335E-3	46.3398E-12	983.354E-3	1.54304E-3	45.4876E-12	989.912E-3	-12.2586E-3
1.69835E-3	45.7006E-12	996.914E-3	-9.09821E-3	45.2272E-12	981.106E-3	-13.6771E-3
1.69335E-3	45.4424E-12	990.203E-3	-20.0916E-3	44.9134E-12	997.166E-3	-14.9949E-3
1.68834E-3	45.1796E-12	985.867E-3	-25.1407E-3	44.8813E-12	1.02356E+0	-22.8498E-3
1.68334E-3	44.5930E-12	997.548E-3	-13.3110E-3	44.6328E-12	1.01499E+0	-13.4146E-3
1.67834E-3	44.2361E-12	1.00475E+0	-6.51289E-3	44.4032E-12	996.506E-3	8.82449E-3
1.67334E-3	43.8746E-12	1.01354E+0	-14.4487E-3	44.1781E-12	996.223E-3	1.99745E-3
1.66833E-3	43.4881E-12	1.01573E+0	-18.8982E-3	43.8107E-12	998.945E-3	-16.4693E-3
1.66333E-3	43.1404E-12	995.617E-3	-5.96094E-3	43.5528E-12	1.00999E+0	-19.8949E-3
1.65833E-3	42.7539E-12	988.797E-3	8.65934E-3	43.2699E-12	1.02707E+0	-23.0539E-3
1.65333E-3	42.4064E-12	1.01216E+0	10.0453E-3	42.7501E-12	1.02201E+0	-21.1571E-3
1.64832E-3	42.2527E-12	1.02631E+0	3.74092E-3	42.1529E-12	1.01572E+0	-4.12606E-3
1.64332E-3	41.6783E-12	1.02476E+0	-6.85134E-3	41.9148E-12	1.02872E+0	-4.10148E-3
1.63832E-3	41.6065E-12	1.02873E+0	-4.12498E-3	41.2885E-12	1.03827E+0	-23.9620E-3
1.63332E-3	41.3099E-12	1.02484E+0	6.58650E-3	40.7351E-12	1.03895E+0	-18.8336E-3
1.62831E-3	41.0556E-12	1.02746E+0	7.39327E-3	40.3311E-12	1.03774E+0	-6.30261E-3
1.62331E-3	40.6179E-12	1.05143E+0	6.41411E-3	40.2075E-12	1.03834E+0	-18.2162E-3
1.61831E-3	40.0954E-12	1.05960E+0	-4.70912E-3	39.6431E-12	1.05194E+0	-25.3675E-3
1.61331E-3	40.0341E-12	1.04514E+0	-27.7276E-3	39.1392E-12	1.07350E+0	-24.1710E-3
1.60830E-3	39.8509E-12	1.03726E+0	-19.8107E-3	39.1234E-12	1.06964E+0	-24.7909E-3
1.60330E-3	39.0878E-12	1.04265E+0	3.77097E-3	38.9134E-12	1.05306E+0	-4.46305E-3
1.59830E-3	38.6885E-12	1.05007E+0	-9.32853E-3	38.4198E-12	1.05773E+0	14.7078E-3
1.59330E-3	38.7036E-12	1.06047E+0	-30.7966E-3	38.2320E-12	1.06419E+0	-1.70753E-3
1.58829E-3	38.1612E-12	1.07209E+0	-25.0832E-3	38.2692E-12	1.07919E+0	-17.0909E-3
1.58329E-3	37.5759E-12	1.07702E+0	-19.7839E-3	37.9958E-12	1.11031E+0	-15.3280E-3
1.57829E-3	37.3368E-12	1.08042E+0	-19.0253E-3	37.5470E-12	1.11316E+0	-21.1695E-3
1.57329E-3	37.0157E-12	1.08503E+0	-7.80202E-3	37.2430E-12	1.10143E+0	-20.7968E-3
1.56828E-3	36.6717E-12	1.08899E+0	-8.82062E-3	37.1038E-12	1.11630E+0	-16.8347E-3
1.56328E-3	36.3525E-12	1.09024E+0	-17.5879E-3	36.6139E-12	1.13260E+0	-25.5239E-3
1.55828E-3	36.0111E-12	1.08760E+0	-22.4917E-3	36.3638E-12	1.13576E+0	-11.6717E-3
1.55328E-3	35.5539E-12	1.09482E+0	-30.0892E-3	35.8806E-12	1.14248E+0	11.4572E-3
1.54827E-3	35.1392E-12	1.12535E+0	-44.8532E-3	35.6354E-12	1.14102E+0	-7.80902E-3
1.54327E-3	34.5065E-12	1.14392E+0	-52.8100E-3	35.3577E-12	1.12817E+0	-27.6669E-3
1.53827E-3	34.1848E-12	1.13449E+0	-42.9679E-3	34.6961E-12	1.13148E+0	-15.5463E-3
1.53327E-3	34.0088E-12	1.13000E+0	-26.8718E-3	34.4861E-12	1.15318E+0	-9.93131E-3
1.52826E-3	33.5501E-12	1.12564E+0	-1.70176E-3	34.1211E-12	1.15890E+0	-11.2828E-3
1.52326E-3	33.0586E-12	1.11566E+0	6.51172E-3	33.6022E-12	1.14803E+0	-4.52108E-3
1.51826E-3	32.8283E-12	1.11444E+0	-17.3841E-3	33.1629E-12	1.14844E+0	-18.8418E-3
1.51326E-3	32.6309E-12	1.11677E+0	-21.6958E-3	32.9421E-12	1.14902E+0	-37.0184E-3
1.50825E-3	32.0759E-12	1.12117E+0	-5.82019E-3	32.4904E-12	1.15081E+0	-15.1253E-3
1.50325E-3	31.7127E-12	1.13585E+0	-147.086E-6	32.2367E-12	1.15753E+0	2.42556E-3
1.49825E-3	31.4991E-12	1.15632E+0	-190.063E-6	31.7799E-12	1.14323E+0	-9.12350E-3
1.49325E-3	31.3798E-12	1.16113E+0	-19.1429E-3	31.3525E-12	1.14241E+0	-20.0876E-3
1.48824E-3	30.9179E-12	1.14555E+0	-36.8433E-3	31.1435E-12	1.16856E+0	-33.1136E-3
1.48324E-3	30.3962E-12	1.12949E+0	-17.1079E-3	30.4867E-12	1.17364E+0	-39.0212E-3
1.47824E-3	30.0601E-12	1.13199E+0	8.34050E-3	29.8145E-12	1.15505E+0	-24.3540E-3
1.47324E-3	29.8074E-12	1.16453E+0	4.95398E-3	29.7977E-12	1.14451E+0	-13.8748E-3
1.46823E-3	29.2077E-12	1.20144E+0	-11.9994E-3	29.3799E-12	1.14978E+0	-15.3030E-3
1.46323E-3	28.6410E-12	1.19767E+0	-15.3476E-3	28.4716E-12	1.15273E+0	-4.08588E-3
1.45823E-3	28.3572E-12	1.15724E+0	-16.1972E-3	28.1701E-12	1.15346E+0	478.873E-6
1.45323E-3	28.1240E-12	1.13351E+0	-14.6748E-3	28.0448E-12	1.15269E+0	-9.84694E-3
1.44822E-3	27.6089E-12	1.13939E+0	1.18692E-3	27.4276E-12	1.14464E+0	4.85406E-3
1.44322E-3	27.3566E-12	1.15300E+0	-6.24846E-3	26.7554E-12	1.14075E+0	16.0798E-3
1.43822E-3	27.0877E-12	1.16950E+0	-28.5759E-3	26.5244E-12	1.13974E+0	-1.19915E-3
1.43322E-3	26.6314E-12	1.17407E+0	-19.4767E-3	26.3459E-12	1.13975E+0	-5.79169E-3
1.42821E-3	26.3091E-12	1.16976E+0	1.91358E-3	25.8664E-12	1.14865E+0	-304.390E-6
1.42321E-3	25.9075E-12	1.17700E+0	4.36599E-3	25.3206E-12	1.14322E+0	-15.9095E-3
1.41821E-3	25.4170E-12	1.18010E+0	-8.06091E-3	24.8905E-12	1.12400E+0	-21.5842E-3
1.41321E-3	25.0712E-12	1.17045E+0	-26.2194E-3	24.7315E-12	1.12673E+0	-7.71200E-3
1.40820E-3	24.7026E-12	1.16526E+0	-30.0424E-3	24.3592E-12	1.13797E+0	-14.3332E-3
1.40320E-3	24.3823E-12	1.15376E+0	-16.4806E-3	23.7499E-12	1.13162E+0	-21.5639E-3
1.39820E-3	24.0250E-12	1.14156E+0	-16.6172E-3	23.4816E-12	1.12068E+0	-13.7180E-3
1.39320E-3	23.8320E-12	1.15041E+0	-34.0510E-3	23.1364E-12	1.11280E+0	-18.3955E-3
1.38819E-3	23.2297E-12	1.15761E+0	-36.9665E-3	22.5722E-12	1.10685E+0	-23.5269E-3
1.38319E-3	22.9102E-12	1.14467E+0	-23.9016E-3	22.2992E-12	1.11564E+0	-20.9174E-3
1.37819E-3	22.6056E-12	1.13961E+0	-8.63545E-3	21.9665E-12	1.11561E+0	-32.0693E-3
1.37319E-3	22.2324E-12	1.14635E+0	2.55545E-3	21.7112E-12	1.09652E+0	-41.4537E-3
1.36818E-3	21.4830E-12	1.15076E+0	-11.5649E-3	21.2366E-12	1.09613E+0	-38.5851E-3
1.36318E-3	21.2070E-12	1.15437E+0	-36.3448E-3	20.8507E-12	1.09995E+0	-35.9419E-3
1.35818E-3	20.8212E-12	1.14522E+0	-26.5971E-3	20.7531E-12	1.08528E+0	-22.5348E-3
1.35318E-3	20.2495E-12	1.12435E+0	-1.80982E-3	20.4382E-12	1.07879E+0	-7.08231E-3
1.34817E-3	19.6813E-12	1.11604E+0	-382.995E-6	19.8478E-12	1.07741E+0	-15.4518E-3
1.34317E-3	19.5842E-12	1.12061E+0	-8.11714E-3	19.5628E-12	1.06699E+0	-29.9184E-3
1.33817E-3	19.2633E-12	1.11057E+0	-23.1192E-3	19.5181E-12	1.06506E+0	-21.5342E-3
1.33317E-3	18.8656E-12	1.08985E+0	-43.0393E-3	19.1061E-12	1.07080E+0	-17.7088E-3
1.32816E-3	18.4386E-12	1.07668E+0	-41.0828E-3	18.7055E-12	1.05388E+0	-22.1836E-3
1.32316E-3	18.0879E-12	1.07087E+0	-21.3014E-3	18.3511E-12	1.03497E+0	-11.3480E-3
1.31816E-3	17.7471E-12	1.07580E+0	-14.3536E-3	17.9417E-12	1.04023E+0	-18.2820E-3
1.31316E-3	17.3792E-12	1.07186E+0	-19.8719E-3	17.6415E-12	1.03094E+0	-31.3575E-3
1.30815E-3	17.0436E-12	1.04687E+0	-21.5810E-3	17.2429E-12	1.01144E+0	-15.7519E-3
1.30315E-3	16.8615E-12	1.03184E+0	-19.3249E-3	16.7850E-12	1.00997E+0	-9.62219E-3
1.29815E-3	16.4741E-12	1.02859E+0	-8.47220E-3	16.5359E-12	997.182E-3	-27.5506E-3
1.29315E-3	16.1836E-12	1.00935E+0	-7.85744E-3	16.2906E-12	968.343E-3	-28.9814E-3
1.28814E-3	15.7839E-12	994.246E-3	-21.2528E-3	15.8099E-12	966.461E-3	-19.9671E-3
1.28314E-3	15.5797E-12	993.266E-3	-27.2697E-3	15.4948E-12	969.068E-3	-25.2094E-3
1.27814E-3	15.2512E-12	972.735E-3	-15.3421E-3	15.3242E-12	948.595E-3	-18.9955E-3
1.27314E-3	14.7793E-12	954.632E-3	-2.11287E-3	15.0792E-12	936.179E-3	-6.81541E-3
1.26813E-3	14.5229E-12	967.827E-3	-6.95110E-3	14.5974E-12	921.943E-3	-17.3507E-3
1.26313E-3	14.2417E-12	961.521E-3	-13.7897E-3	14.4183E-12	909.046E-3	-18.8892E-3
1.25813E-3	13.8504E-12	928.007E-3	-14.4959E-3	14.3198E-12	920.152E-3	-2.31921E-3
1.25313E-3	13.4352E-12	913.331E-3	-2.09006E-3	13.8874E-12	915.331E-3	729.275E-6
1.24812E-3	13.1863E-12	906.107E-3	12.4568E-3	13.4455E-12	880.311E-3	-3.10731E-3
1.24312E-3	13.0065E-12	900.868E-3	-1.82627E-3	13.2239E-12	857.736E-3	-7.75885E-3
1.23812E-3	12.6968E-12	907.794E-3	-29.8403E-3	12.9939E-12	847.313E-3	-23.8899E-3
1.23312E-3	12.3978E-12	900.579E-3	-31.9961E-3	12.6213E-12	820.093E-3	-31.0977E-3
1.22811E-3	12.1295E-12	869.322E-3	-15.9481E-3	12.2119E-12	796.376E-3	-18.4822E-3
1.22311E-3	12.0453E-12	846.901E-3	-8.50853E-3	11.9002E-12	786.745E-3	-18.8296E-3
1.21811E-3	11.5517E-12	843.615E-3	-11.5016E-3	11.6604E-12	769.191E-3	-22.4979E-3
1.21311E-3	11.2660E-12	828.743E-3	-28.5449E-3	11.2771E-12	752.559E-3	-13.5494E-3
1.20810E-3	11.0682E-12	797.451E-3	-52.8932E-3	10.8539E-12	739.663E-3	-18.3922E-3
1.20310E-3	10.9477E-12	773.059E-3	-57.0092E-3	10.6093E-12	718.901E-3	-22.3729E-3
1.19810E-3	10.6397E-12	767.228E-3	-43.8863E-3	10.4158E-12	710.629E-3	-6.05564E-3
1.19310E-3	10.3392E-12	775.263E-3	-27.4496E-3	10.1675E-12	710.679E-3	-2.19072E-3
1.18809E-3	10.1333E-12	774.177E-3	-11.2753E-3	9.84776E-12	690.480E-3	-18.2529E-3
1.18309E-3	9.88618E-12	748.331E-3	-13.4280E-3	9.76323E-12	675.132E-3	-23.3955E-3
1.17809E-3	9.71482E-12	726.236E-3	-25.2022E-3	9.60701E-12	680.241E-3	-24.7391E-3
1.17309E-3	9.43070E-12	715.659E-3	-11.2449E-3	9.31195E-12	660.977E-3	-26.2737E-3
1.16808E-3	9.30086E-12	704.251E-3	6.06289E-3	9.11357E-12	630.395E-3	-11.5184E-3
1.16308E-3	9.13681E-12	693.495E-3	-7.75694E-3	9.10920E-12	624.478E-3	-3.17020E-3
1.15808E-3	8.74647E-12	670.451E-3	-20.8402E-3	8.84634E-12	608.756E-3	-15.5292E-3
1.15308E-3	8.65045E-12	631.021E-3	-14.7736E-3	8.64063E-12	578.973E-3	-24.6818E-3
1.14807E-3	8.51282E-12	605.477E-3	-11.7603E-3	8.39112E-12	560.548E-3	-23.5798E-3
1.14307E-3	8.20934E-12	606.293E-3	-10.1771E-3	8.27349E-12	542.863E-3	-21.7359E-3
1.13807E-3	7.98630E-12	604.878E-3	-12.8661E-3	8.04853E-12	522.678E-3	-22.1509E-3
1.13307E-3	7.91362E-12	593.739E-3	-25.3622E-3	7.75497E-12	518.035E-3	-25.0990E-3
1.12806E-3	7.68943E-12	573.615E-3	-18.1745E-3	7.59408E-12	510.115E-3	-29.3457E-3
1.12306E-3	7.51765E-12	544.395E-3	5.52933E-3	7.39807E-12	492.594E-3	-23.8218E-3
1.11806E-3	7.27106E-12	538.709E-3	4.75604E-3	7.21023E-12	484.989E-3	-13.8694E-3
1.11306E-3	7.12661E-12	546.160E-3	-12.6021E-3	6.85583E-12	467.819E-3	-14.7709E-3
1.10805E-3	7.00018E-12	522.357E-3	-17.5219E-3	6.79617E-12	439.704E-3	-12.5789E-3
1.10305E-3	6.88716E-12	486.816E-3	-19.9518E-3	6.72432E-12	423.237E-3	-9.03476E-3
1.09805E-3	6.59780E-12	474.690E-3	-16.2440E-3	6.47231E-12	407.818E-3	-16.3169E-3
1.09305E-3	6.49119E-12	477.141E-3	-5.38868E-3	6.17347E-12	393.536E-3	-6.73678E-3
1.08804E-3	6.43488E-12	476.730E-3	-18.6698E-3	6.18203E-12	401.221E-3	8.87150E-3
1.08304E-3	6.25779E-12	481.167E-3	-38.6406E-3	6.11737E-12	402.903E-3	-7.71522E-3
1.07804E-3	6.04498E-12	473.751E-3	-35.3320E-3	5.95027E-12	383.081E-3	-18.2436E-3
1.07304E-3	5.89062E-12	441.759E-3	-23.3662E-3	5.79257E-12	374.636E-3	-14.6493E-3
1.06803E-3	5.84646E-12	420.824E-3	-15.4040E-3	5.72333E-12	366.185E-3	-24.3244E-3
1.06303E-3	5.70306E-12	401.055E-3	-10.6445E-3	5.66281E-12	337.320E-3	-21.1367E-3
1.05803E-3	5.56850E-12	370.102E-3	-16.3773E-3	5.56157E-12	321.580E-3	-6.65440E-3
1.05303E-3	5.42233E-12	350.916E-3	-23.6413E-3	5.37314E-12	323.069E-3	-9.00367E-3
1.04802E-3	5.23932E-12	335.147E-3	-16.7955E-3	5.33739E-12	310.766E-3	-16.5635E-3
1.04302E-3	5.22663E-12	319.180E-3	-15.7261E-3	5.34817E-12	291.376E-3	-12.9032E-3
1.03802E-3	5.06479E-12	324.560E-3	-19.7803E-3	5.10777E-12	277.482E-3	-13.2809E-3
1.03302E-3	4.94814E-12	329.297E-3	-22.2788E-3	4.88417E-12	258.277E-3	-17.8084E-3
1.02801E-3	4.69322E-12	300.500E-3	-36.9802E-3	4.69179E-12	241.786E-3	-17.7291E-3
1.02301E-3	4.43963E-12	273.142E-3	-34.0467E-3	4.48368E-12	235.033E-3	-25.0542E-3
1.01801E-3	4.34540E-12	268.859E-3	-2.86541E-3	4.34167E-12	217.288E-3	-30.4877E-3
1.01301E-3	4.33879E-12	266.101E-3	4.11067E-3	4.28680E-12	207.124E-3	-28.4752E-3
1.00800E-3	4.20023E-12	257.901E-3	-14.9768E-3	4.21803E-12	210.232E-3	-37.0452E-3
1.00300E-3	4.10036E-12	235.464E-3	-20.7669E-3	4.09713E-12	203.871E-3	-43.4873E-3
997.999E-6	4.09425E-12	204.834E-3	-16.4263E-3	3.99379E-12	198.564E-3	-43.3919E-3
992.997E-6	4.05986E-12	196.507E-3	-14.0456E-3	3.94668E-12	187.374E-3	-51.2703E-3
987.994E-6	3.93867E-12	209.323E-3	-10.3964E-3	3.95986E-12	164.642E-3	-52.3091E-3
982.991E-6	3.84243E-12	208.893E-3	-20.9099E-3	3.84242E-12	156.459E-3	-32.8794E-3
977.989E-6	3.84705E-12	184.119E-3	-31.1062E-3	3.72895E-12	165.798E-3	-14.8091E-3
972.986E-6	3.82872E-12	163.612E-3	-18.4135E-3	3.74312E-12	159.044E-3	-22.0078E-3
967.984E-6	3.70454E-12	163.257E-3	-6.92698E-3	3.75632E-12	139.623E-3	-28.8959E-3
962.981E-6	3.65456E-12	168.016E-3	-11.9040E-3	3.65037E-12	135.858E-3	-20.5511E-3
957.979E-6	3.61266E-12	161.759E-3	-16.6234E-3	3.55875E-12	134.765E-3	-14.4143E-3
952.976E-6	3.57584E-12	138.186E-3	-13.7343E-3	3.52218E-12	133.726E-3	-14.7085E-3
947.974E-6	3.51731E-12	126.903E-3	-12.2282E-3	3.56655E-12	147.640E-3	-20.8116E-3
942.971E-6	3.51018E-12	139.657E-3	-3.01073E-3	3.51651E-12	145.687E-3	-24.0958E-3
937.969E-6	3.35246E-12	143.613E-3	2.81093E-3	3.42400E-12	122.922E-3	-23.9393E-3
932.966E-6	3.36589E-12	145.380E-3	-11.7908E-3	3.38474E-12	114.872E-3	-22.9605E-3
927.964E-6	3.30516E-12	147.487E-3	-25.0600E-3	3.38098E-12	114.424E-3	-27.7879E-3
922.961E-6	3.25852E-12	125.696E-3	-23.6842E-3	3.27222E-12	107.645E-3	-36.7280E-3
917.959E-6	3.29926E-12	108.728E-3	-22.7156E-3	3.24557E-12	103.520E-3	-31.7756E-3
912.956E-6	3.15119E-12	118.888E-3	-19.9439E-3	3.22440E-12	99.9541E-3	-24.6052E-3
907.954E-6	3.07614E-12	122.298E-3	-8.01845E-3	3.15818E-12	92.2070E-3	-17.2140E-3
902.951E-6	3.12541E-12	115.572E-3	-7.37548E-3	3.05838E-12	90.4822E-3	-9.32378E-3
897.949E-6	3.15369E-12	109.230E-3	-13.8750E-3	2.98980E-12	94.7304E-3	-23.7616E-3
892.946E-6	2.97204E-12	100.986E-3	-8.88076E-3	2.99455E-12	92.5328E-3	-41.1290E-3
887.944E-6	2.92370E-12	106.007E-3	-18.3830E-3	2.93722E-12	86.6860E-3	-37.3135E-3
882.941E-6	3.03054E-12	115.096E-3	-45.2124E-3	2.85692E-12	85.4577E-3	-30.3258E-3
877.939E-6	2.98195E-12	108.993E-3	-50.1417E-3	2.81552E-12	83.2891E-3	-29.5510E-3
872.936E-6	2.85429E-12	92.1477E-3	-38.8047E-3	2.83049E-12	87.7582E-3	-16.5318E-3
867.934E-6	2.78222E-12	85.9439E-3	-31.2687E-3	2.75139E-12	93.7622E-3	-4.82025E-3
862.931E-6	2.86280E-12	95.2831E-3	-26.0759E-3	2.67696E-12	87.2130E-3	-7.81418E-3
857.929E-6	2.83940E-12	100.265E-3	-24.9379E-3	2.71866E-12	88.9360E-3	-875.724E-6
852.926E-6	2.75891E-12	103.454E-3	-19.3511E-3	2.77065E-12	95.4930E-3	-826.425E-6
847.924E-6	2.72849E-12	100.576E-3	-6.09268E-3	2.68089E-12	80.4091E-3	-13.4573E-3
842.921E-6	2.71064E-12	87.1900E-3	8.88856E-3	2.62033E-12	60.8357E-3	-13.7370E-3
837.919E-6	2.70622E-12	86.6395E-3	11.3920E-3	2.61539E-12	63.9885E-3	-20.9104E-3
832.916E-6	2.66901E-12	85.2057E-3	1.46648E-3	2.66587E-12	73.9789E-3	-35.2794E-3
827.914E-6	2.54525E-12	63.0400E-3	-16.1941E-3	2.61668E-12	73.5647E-3	-26.3691E-3
822.911E-6	2.53985E-12	47.5309E-3	-29.9223E-3	2.55210E-12	74.6681E-3	-12.9952E-3
817.909E-6	2.53740E-12	63.3363E-3	-7.82936E-3	2.50322E-12	81.8653E-3	-21.4944E-3
812.906E-6	2.51037E-12	78.3955E-3	14.2791E-3	2.52237E-12	80.8722E-3	-27.4103E-3
807.904E-6	2.44412E-12	78.5748E-3	-15.1546E-3	2.46648E-12	74.0378E-3	-25.6483E-3
802.901E-6	2.48195E-12	77.8583E-3	-41.7028E-3	2.44474E-12	65.4170E-3	-23.5254E-3
797.899E-6	2.42622E-12	67.3433E-3	-22.8158E-3	2.43404E-12	53.2281E-3	-4.48852E-3
792.896E-6	2.37177E-12	65.8326E-3	-848.981E-6	2.42250E-12	57.6572E-3	7.70624E-3
787.894E-6	2.37769E-12	85.9267E-3	9.07453E-3	2.30925E-12	64.3370E-3	-11.7532E-3
782.891E-6	2.39210E-12	89.5213E-3	3.08122E-3	2.28065E-12	62.0254E-3	-32.7607E-3
777.889E-6	2.29822E-12	74.0893E-3	-27.0168E-3	2.34608E-12	68.7323E-3	-35.5077E-3
772.886E-6	2.22153E-12	67.4698E-3	-34.6750E-3	2.25926E-12	77.3797E-3	-27.4582E-3
767.884E-6	2.30385E-12	59.9666E-3	-8.22424E-3	2.20809E-12	71.1881E-3	-10.0715E-3
762.881E-6	2.28419E-12	57.3322E-3	619.185E-6	2.23350E-12	61.3032E-3	-3.35431E-3
757.879E-6	2.15867E-12	72.0248E-3	-13.9933E-3	2.30770E-12	68.1454E-3	-22.0049E-3
752.876E-6	2.12304E-12	72.1377E-3	-26.8046E-3	2.19494E-12	71.8086E-3	-30.2348E-3
747.874E-6	2.16651E-12	53.2168E-3	-29.1998E-3	2.17005E-12	69.0895E-3	-19.1614E-3
742.871E-6	2.18249E-12	50.2168E-3	-12.6700E-3	2.20722E-12	72.6075E-3	-25.4727E-3
737.869E-6	2.13528E-12	62.8075E-3	6.71516E-3	2.19271E-12	71.2168E-3	-31.2352E-3
732.866E-6	2.07441E-12	75.0534E-3	-7.89553E-3	2.17586E-12	77.1296E-3	-11.6889E-3
727.864E-6	2.06065E-12	80.9215E-3	-39.7740E-3	2.13275E-12	87.0806E-3	-1.50582E-3
722.861E-6	2.11222E-12	80.4995E-3	-44.0771E-3	2.14937E-12	77.2199E-3	-6.51177E-3
717.859E-6	1.98682E-12	77.0089E-3	-28.3807E-3	2.22004E-12	71.2051E-3	-12.4031E-3
712.856E-6	1.96032E-12	78.1624E-3	-12.2983E-3	2.13053E-12	76.0072E-3	-29.4297E-3
707.854E-6	1.95128E-12	83.7682E-3	2.15020E-3	2.07091E-12	72.4928E-3	-33.5667E-3
702.851E-6	1.96111E-12	73.9379E-3	-7.05668E-3	2.03694E-12	77.0544E-3	-14.5182E-3
697.849E-6	1.96639E-12	67.1925E-3	-26.4903E-3	2.00929E-12	88.7452E-3	-17.9895E-3
692.846E-6	1.90783E-12	77.3455E-3	-13.5923E-3	1.97988E-12	76.4903E-3	-33.3770E-3
687.844E-6	1.87910E-12	86.0551E-3	9.09452E-3	1.93293E-12	69.7459E-3	-31.4819E-3
682.841E-6	1.86549E-12	90.9807E-3	4.45249E-3	1.87516E-12	81.3776E-3	-29.1167E-3
677.839E-6	1.75516E-12	89.1923E-3	-11.6793E-3	1.86058E-12	73.7150E-3	-20.8469E-3
672.836E-6	1.82264E-12	75.9600E-3	-22.3337E-3	1.82825E-12	72.6538E-3	-15.1773E-3
667.834E-6	1.83625E-12	58.8048E-3	-24.5005E-3	1.76509E-12	83.6089E-3	-32.0704E-3
662.831E-6	1.70675E-12	55.6007E-3	-12.8890E-3	1.76771E-12	76.0589E-3	-41.0676E-3
657.829E-6	1.64649E-12	69.3064E-3	-17.7951E-3	1.77178E-12	75.2087E-3	-27.0112E-3
652.826E-6	1.73770E-12	90.2784E-3	-35.8535E-3	1.65809E-12	91.1347E-3	-18.3498E-3
647.824E-6	1.69712E-12	95.0331E-3	-28.6070E-3	1.70599E-12	84.2991E-3	-19.5841E-3
642.821E-6	1.61626E-12	77.5969E-3	-13.2567E-3	1.64743E-12	64.0050E-3	-15.2255E-3
637.819E-6	1.59971E-12	70.0593E-3	-8.29587E-3	1.63587E-12	72.1591E-3	-21.6237E-3
632.816E-6	1.62686E-12	76.5212E-3	2.13252E-3	1.56430E-12	85.7175E-3	-39.6264E-3
627.814E-6	1.65018E-12	71.2688E-3	5.48533E-3	1.57756E-12	80.8068E-3	-42.3417E-3
622.811E-6	1.52755E-12	62.5835E-3	-16.4314E-3	1.52992E-12	75.0954E-3	-38.0578E-3
617.809E-6	1.48429E-12	66.2645E-3	-24.4010E-3	1.47174E-12	66.4418E-3	-35.1876E-3
612.806E-6	1.54083E-12	80.0613E-3	-3.99725E-3	1.43794E-12	60.0025E-3	-20.7357E-3
607.804E-6	1.54814E-12	100.317E-3	-3.76853E-3	1.40755E-12	67.7620E-3	-12.0894E-3
602.801E-6	1.40878E-12	116.821E-3	-28.0186E-3	1.44160E-12	68.5075E-3	-21.2012E-3
597.799E-6	1.37816E-12	106.094E-3	-33.4818E-3	1.33177E-12	56.3369E-3	-21.4810E-3
592.796E-6	1.43998E-12	76.5128E-3	-26.2883E-3	1.22551E-12	57.9779E-3	-5.76253E-3
587.794E-6	1.38307E-12	71.9574E-3	-14.7687E-3	1.31476E-12	67.9082E-3	-2.91643E-3
582.791E-6	1.32912E-12	82.9865E-3	34.6596E-6	1.27482E-12	70.7389E-3	-9.40796E-3
577.789E-6	1.31249E-12	90.5271E-3	-16.8751E-3	1.24167E-12	81.1076E-3	-5.53179E-3
572.786E-6	1.24337E-12	95.4874E-3	-32.4292E-3	1.16905E-12	78.3501E-3	-16.8679E-3
567.784E-6	1.22661E-12	77.4421E-3	-13.8519E-3	1.19225E-12	57.4199E-3	-32.8706E-3
562.781E-6	1.24652E-12	53.0749E-3	-10.5363E-3	1.17025E-12	55.7617E-3	-26.7367E-3
557.779E-6	1.20324E-12	63.2403E-3	-28.6159E-3	1.10709E-12	69.2469E-3	-22.8442E-3
552.776E-6	1.17993E-12	81.5229E-3	-29.9840E-3	1.06176E-12	70.3905E-3	-20.9656E-3
547.774E-6	1.11620E-12	72.6032E-3	-22.5730E-3	1.07048E-12	65.1320E-3	-14.8384E-3
542.771E-6	1.07375E-12	64.8804E-3	-20.2153E-3	1.05344E-12	64.3123E-3	-19.6029E-3
537.769E-6	1.11764E-12	76.1829E-3	-8.88254E-3	1.00562E-12	57.6583E-3	-26.2121E-3
532.766E-6	1.13286E-12	89.1684E-3	-4.07774E-3	1.00220E-12	61.6217E-3	-21.7892E-3
527.764E-6	976.569E-15	94.0586E-3	-17.2920E-3	977.851E-15	74.5354E-3	-18.1089E-3
522.761E-6	933.016E-15	85.5279E-3	-25.3574E-3	953.228E-15	69.4184E-3	-18.5303E-3
517.759E-6	1.01156E-12	51.8174E-3	-28.5367E-3	969.315E-15	61.4592E-3	-18.9605E-3
512.756E-6	980.972E-15	33.0177E-3	-25.6464E-3	889.184E-15	65.6754E-3	-21.3704E-3
507.754E-6	855.432E-15	53.4268E-3	-6.53967E-3	948.842E-15	66.5120E-3	-13.5183E-3
502.751E-6	816.300E-15	65.0133E-3	-493.966E-6	903.370E-15	65.4125E-3	5.08504E-3
497.749E-6	905.341E-15	60.6468E-3	-22.8559E-3	830.529E-15	71.0068E-3	6.99406E-3
492.746E-6	857.123E-15	63.0011E-3	-30.2556E-3	845.902E-15	69.1204E-3	-7.57460E-3
487.744E-6	822.769E-15	61.4806E-3	-11.6069E-3	838.848E-15	59.6273E-3	-11.8865E-3
482.741E-6	711.345E-15	67.1874E-3	-7.47018E-3	794.301E-15	61.7902E-3	-4.51943E-3
477.739E-6	809.612E-15	86.3675E-3	-18.6397E-3	719.655E-15	63.7982E-3	-4.37204E-3
472.736E-6	748.019E-15	85.1631E-3	-26.7628E-3	734.137E-15	51.7974E-3	-12.8562E-3
467.734E-6	673.582E-15	69.9732E-3	-33.7724E-3	799.646E-15	49.7120E-3	-15.8298E-3
462.731E-6	674.698E-15	69.2849E-3	-28.7023E-3	662.491E-15	57.5550E-3	-17.7645E-3
457.729E-6	701.562E-15	74.5609E-3	-15.2337E-3	628.965E-15	66.9342E-3	-17.0289E-3
452.726E-6	655.568E-15	74.8030E-3	-23.6883E-3	676.285E-15	82.2624E-3	-12.7138E-3
447.724E-6	639.123E-15	69.9863E-3	-32.5104E-3	621.153E-15	81.1244E-3	-23.0699E-3
442.721E-6	612.739E-15	57.2168E-3	-12.5897E-3	619.853E-15	60.4513E-3	-35.6750E-3
437.719E-6	574.400E-15	42.6235E-3	4.14096E-3	564.931E-15	44.5767E-3	-31.5627E-3
432.716E-6	577.077E-15	50.0936E-3	12.0518E-3	613.794E-15	41.0137E-3	-20.2532E-3
427.714E-6	507.627E-15	67.6140E-3	4.37973E-3	578.890E-15	43.9597E-3	-15.6648E-3
422.711E-6	501.088E-15	58.7895E-3	-30.2603E-3	504.994E-15	55.0045E-3	-11.0939E-3
417.709E-6	512.414E-15	43.2562E-3	-34.8406E-3	501.881E-15	60.5346E-3	-8.36957E-3
412.706E-6	501.628E-15	34.4617E-3	-691.659E-6	550.788E-15	48.6124E-3	-12.0079E-3
407.704E-6	384.484E-15	35.6188E-3	6.09669E-3	486.963E-15	46.8248E-3	-17.6494E-3
402.701E-6	461.520E-15	65.4684E-3	-20.5657E-3	458.049E-15	58.3336E-3	-21.5662E-3
397.699E-6	485.855E-15	76.0000E-3	-32.9187E-3	459.008E-15	55.8860E-3	-17.8108E-3
392.696E-6	356.321E-15	41.2947E-3	-23.7752E-3	448.231E-15	44.4541E-3	-16.4928E-3
387.694E-6	334.078E-15	23.8465E-3	-15.3069E-3	422.518E-15	32.3143E-3	-26.6650E-3
382.691E-6	441.439E-15	35.6447E-3	-7.96443E-3	367.813E-15	22.4679E-3	-34.8212E-3
377.689E-6	412.840E-15	44.4503E-3	-8.23957E-3	384.650E-15	35.2141E-3	-27.2413E-3
372.686E-6	331.846E-15	55.4867E-3	-26.6233E-3	396.526E-15	51.4030E-3	-19.3040E-3
367.684E-6	280.733E-15	57.8101E-3	-41.9577E-3	334.636E-15	45.0396E-3	-13.6565E-3
362.681E-6	338.072E-15	38.4729E-3	-35.7505E-3	306.237E-15	39.9922E-3	-5.92572E-3
357.679E-6	325.054E-15	33.8844E-3	-15.4262E-3	319.247E-15	42.5840E-3	-7.64262E-3
352.676E-6	257.113E-15	50.9412E-3	1.00189E-3	323.519E-15	42.0052E-3	-15.4167E-3
347.674E-6	253.669E-15	59.3866E-3	-2.29866E-3	250.940E-15	48.6733E-3	-22.6476E-3
342.671E-6	312.210E-15	47.4828E-3	-17.4905E-3	182.406E-15	47.8173E-3	-24.8631E-3
337.669E-6	252.683E-15	30.0253E-3	-9.79333E-3	262.310E-15	26.9084E-3	-17.4451E-3
332.666E-6	234.765E-15	26.5603E-3	3.74846E-3	272.921E-15	21.7072E-3	-10.5695E-3
327.664E-6	228.017E-15	38.1499E-3	-14.0027E-3	250.687E-15	35.7950E-3	-16.7740E-3
322.661E-6	200.481E-15	46.5469E-3	-31.9277E-3	187.167E-15	40.8883E-3	-19.3515E-3
317.659E-6	164.278E-15	35.2371E-3	-34.2162E-3	182.842E-15	37.7661E-3	-6.11680E-3
312.656E-6	194.552E-15	22.0678E-3	-32.7192E-3	169.388E-15	35.4497E-3	-2.27954E-3
307.654E-6	181.028E-15	22.3263E-3	-19.6130E-3	155.324E-15	26.3795E-3	-12.1065E-3
302.651E-6	157.931E-15	25.3273E-3	-8.36457E-3	86.9381E-15	16.5228E-3	-14.1834E-3
297.649E-6	112.381E-15	33.7889E-3	-14.9350E-3	136.760E-15	20.4858E-3	-14.9141E-3
292.646E-6	103.252E-15	36.0446E-3	-20.5370E-3	150.554E-15	24.5549E-3	-28.3249E-3
287.644E-6	135.479E-15	21.2905E-3	-16.0875E-3	90.3735E-15	16.3880E-3	-30.1526E-3
282.641E-6	216.960E-15	16.7213E-3	-11.6682E-3	43.6380E-15	10.5865E-3	-18.0434E-3
277.639E-6	50.5437E-15	28.7040E-3	-7.95319E-3	130.910E-15	16.4495E-3	-17.7114E-3
272.636E-6	30.6811E-15	25.4982E-3	-8.66558E-3	106.461E-15	31.3581E-3	-14.6802E-3
267.634E-6	162.212E-15	5.78813E-3	-21.7732E-3	28.3705E-15	45.1769E-3	-7.30149E-3
262.631E-6	125.015E-15	1.55579E-3	-21.8122E-3	38.0054E-15	34.1337E-3	-12.4941E-3
257.629E-6	-12.4358E-15	12.2364E-3	-4.24646E-3	94.3321E-15	9.47784E-3	-18.4479E-3
252.626E-6	-16.5514E-15	27.5205E-3	-8.76833E-3	33.1051E-15	8.82685E-3	-14.3680E-3
247.624E-6	72.2897E-15	33.5637E-3	-26.7414E-3	29.6435E-15	21.5888E-3	-14.8370E-3
242.621E-6	108.658E-15	11.7989E-3	-30.0450E-3	12.2224E-15	22.1273E-3	-12.3215E-3
237.619E-6	11.8562E-15	-11.6678E-3	-29.7736E-3	54.3192E-15	11.9689E-3	-2.45926E-3
232.616E-6	608.243E-18	406.572E-6	-27.0916E-3	22.0229E-15	-3.04280E-3	-8.67518E-3
227.614E-6	42.3214E-15	24.8247E-3	-16.7785E-3	-26.5524E-15	2.73589E-3	-14.9533E-3
222.611E-6	52.2789E-15	32.9933E-3	-23.6899E-3	-2.42607E-15	26.9571E-3	-7.81631E-3
217.609E-6	-37.4515E-15	30.3207E-3	-37.9535E-3	59.1497E-15	31.7298E-3	-7.36610E-3
212.606E-6	-52.2133E-15	7.89859E-3	-26.7627E-3	-11.8255E-15	16.0733E-3	-16.7075E-3
207.604E-6	-26.5088E-15	-13.3568E-3	-6.60174E-3	-51.1234E-15	-2.47850E-3	-17.8524E-3
202.601E-6	11.6294E-15	2.31382E-3	-7.27477E-3	-49.0918E-15	-6.73799E-3	-25.9503E-3
197.599E-6	-42.3779E-15	22.5246E-3	-19.4015E-3	-11.9999E-15	2.17644E-3	-38.5632E-3
192.596E-6	-58.8662E-15	9.17064E-3	-29.6580E-3	-47.1910E-15	4.65364E-3	-23.3909E-3
187.594E-6	-29.1682E-15	-3.41467E-3	-34.1555E-3	-30.9121E-15	-28.0150E-6	-5.50074E-3
182.591E-6	-92.1913E-15	3.82732E-3	-15.1737E-3	-45.9965E-15	643.023E-6	-13.8704E-3
177.589E-6	-52.6929E-15	6.51304E-3	3.80116E-3	-13.9879E-15	12.3569E-3	-29.9703E-3
172.586E-6	-28.5927E-15	9.33713E-3	-13.4109E-3	-100.858E-15	22.5114E-3	-30.8685E-3
167.584E-6	-41.6455E-15	10.4531E-3	-37.0735E-3	-100.274E-15	13.1247E-3	-22.8084E-3
162.581E-6	-88.8344E-15	-136.056E-6	-39.6000E-3	-37.6608E-15	690.613E-6	-18.1042E-3
157.579E-6	-149.006E-15	1.48324E-3	-37.3870E-3	-31.2259E-15	8.87071E-3	-18.1085E-3
152.576E-6	-61.1680E-15	19.1399E-3	-35.4885E-3	-141.630E-15	15.0259E-3	-20.1521E-3
147.574E-6	21.9706E-15	19.7341E-3	-33.0666E-3	-87.7881E-15	8.15378E-3	-20.9687E-3
142.571E-6	-154.107E-15	8.24411E-3	-36.7376E-3	-65.6498E-15	8.24253E-3	-25.2405E-3
137.569E-6	-169.601E-15	-1.24648E-3	-34.9382E-3	-77.2552E-15	9.98031E-3	-27.2089E-3
132.566E-6	-34.6526E-15	-11.9853E-3	-19.1118E-3	-88.2328E-15	8.33068E-3	-22.3199E-3
127.564E-6	-81.0132E-15	-2.54646E-3	-5.25244E-3	-104.712E-15	7.68853E-3	-23.4859E-3
122.561E-6	-149.268E-15	19.3626E-3	-5.94723E-3	-55.0209E-15	-1.18964E-3	-32.6125E-3
117.559E-6	-187.310E-15	17.4589E-3	-15.4145E-3	-92.4355E-15	-8.18464E-3	-26.1190E-3
112.556E-6	-68.3702E-15	-884.033E-6	-19.8045E-3	-132.588E-15	598.955E-6	-14.1197E-3
107.554E-6	-63.4787E-15	-4.38325E-3	-6.92938E-3	-127.505E-15	-795.079E-6	-20.4381E-3
102.551E-6	-147.393E-15	546.151E-6	7.60236E-3	-39.1082E-15	-19.9697E-3	-16.7918E-3
97.5488E-6	-168.163E-15	3.25724E-3	-1.29153E-3	-104.826E-15	-17.5530E-3	187.134E-6
92.5463E-6	-110.807E-15	5.66043E-3	-13.6624E-3	-180.788E-15	11.9553E-3	1.38742E-3
87.5438E-6	-85.8263E-15	-10.9175E-3	-10.0572E-3	-123.119E-15	21.0168E-3	-7.66374E-3
82.5413E-6	-137.584E-15	-20.6452E-3	-6.66438E-3	-68.5184E-15	1.88613E-3	-13.9439E-3
77.5388E-6	-151.334E-15	8.12632E-3	-6.91097E-3	-155.537E-15	-3.53431E-3	-16.3462E-3
72.5363E-6	-150.462E-15	31.4509E-3	-10.5375E-3	-149.948E-15	1.92886E-3	-10.5143E-3
67.5338E-6	-163.759E-15	21.4899E-3	-30.0104E-3	-153.375E-15	-4.99355E-3	684.998E-6
62.5313E-6	-126.380E-15	11.1489E-3	-44.0538E-3	-130.164E-15	-12.9692E-3	5.69837E-3
57.5288E-6	-122.247E-15	1.66398E-3	-21.4622E-3	-170.360E-15	-15.3905E-3	-3.35750E-3
52.5263E-6	-148.483E-15	-4.77365E-3	4.43437E-3	-157.525E-15	-6.94784E-3	-15.0668E-3
47.5238E-6	-169.619E-15	12.1511E-3	3.61507E-3	-127.008E-15	14.4768E-3	-22.2091E-3
42.5213E-6	-196.736E-15	23.6861E-3	-12.9408E-3	-103.579E-15	20.8996E-3	-22.8721E-3
37.5188E-6	-161.100E-15	8.96087E-3	-32.6562E-3	-177.501E-15	16.2569E-3	-17.8772E-3
32.5163E-6	-84.6927E-15	-4.35543E-3	-34.7576E-3	-178.120E-15	8.76259E-3	-22.1095E-3
27.5138E-6	-211.036E-15	-3.40101E-3	-21.5535E-3	-118.811E-15	-6.93640E-3	-28.2146E-3
22.5113E-6	-246.314E-15	-7.07409E-3	-25.8688E-3	-177.989E-15	-11.6070E-3	-25.5452E-3
17.5088E-6	-159.653E-15	-2.11956E-3	-43.1632E-3	-190.196E-15	-2.83306E-3	-18.1800E-3
12.5063E-6	-127.731E-15	8.43348E-3	-39.4823E-3	-193.100E-15	5.33083E-3	-12.1091E-3
7.50375E-6	-228.936E-15	3.99675E-3	-28.0680E-3	-124.880E-15	10.0623E-3	-8.39387E-3
2.50125E-6	-252.810E-15	9.78974E-3	-19.8344E-3	-137.000E-15	15.9917E-3	-9.70581E-3
-2.50125E-6	-152.834E-15	25.1954E-3	-7.66908E-3	-188.653E-15	17.5859E-3	-16.7485E-3
-7.50375E-6	-114.966E-15	15.0112E-3	-15.5600E-3	-190.109E-15	15.0628E-3	-19.2455E-3
-12.5063E-6	-227.934E-15	745.422E-6	-38.5600E-3	-153.218E-15	15.2602E-3	-17.1954E-3
-17.5088E-6	-220.043E-15	-454.328E-6	-35.6383E-3	-179.829E-15	4.02386E-3	-20.0171E-3
-22.5113E-6	-171.180E-15	-9.10527E-3	-12.8832E-3	-242.050E-15	-4.39736E-3	-22.1372E-3
-27.5138E-6	-197.050E-15	-3.15519E-3	-15.7900E-3	-212.666E-15	11.6006E-3	-22.1561E-3
-32.5163E-6	-231.142E-15	15.5933E-3	-26.9229E-3	-149.634E-15	20.7924E-3	-21.1553E-3
-37.5188E-6	-235.903E-15	5.02388E-3	-24.0444E-3	-174.162E-15	16.4824E-3	-16.6289E-3
-42.5213E-6	-185.061E-15	-6.84971E-3	-25.1948E-3	-274.451E-15	14.8547E-3	-14.0679E-3
-47.5238E-6	-213.913E-15	17.2966E-3	-14.8333E-3	-204.627E-15	7.84052E-3	-24.5340E-3
-52.5263E-6	-232.058E-15	41.8096E-3	-115.399E-6	-193.361E-15	6.29956E-3	-37.2985E-3
-57.5288E-6	-185.610E-15	37.8162E-3	-13.4886E-3	-208.786E-15	17.3825E-3	-26.6137E-3
-62.5313E-6	-231.753E-15	21.6371E-3	-30.3401E-3	-223.530E-15	17.0807E-3	-7.20668E-3
-67.5338E-6	-233.313E-15	-4.13259E-3	-19.0604E-3	-231.247E-15	7.98738E-3	-3.48302E-3
-72.5363E-6	-228.038E-15	-19.2795E-3	-3.89795E-3	-175.888E-15	7.87693E-3	-10.1791E-3
-77.5388E-6	-217.776E-15	3.65914E-3	-7.42534E-3	-231.709E-15	13.5619E-3	-23.5914E-3
-82.5413E-6	-202.421E-15	24.6189E-3	-15.9119E-3	-279.534E-15	17.9601E-3	-26.5203E-3
-87.5438E-6	-266.107E-15	11.6312E-3	-32.5316E-3	-188.592E-15	13.0929E-3	-10.9088E-3
-92.5463E-6	-328.563E-15	-2.61701E-3	-43.4993E-3	-232.921E-15	2.65079E-3	-4.61314E-3
-97.5488E-6	-201.898E-15	265.163E-6	-17.2752E-3	-287.138E-15	-4.34215E-3	-8.42836E-3
-102.551E-6	-172.522E-15	11.0768E-3	8.69982E-3	-259.637E-15	-3.47016E-3	-5.12457E-3
-107.554E-6	-312.424E-15	23.7856E-3	-449.079E-6	-228.073E-15	4.77007E-3	-325.527E-6
-112.556E-6	-312.833E-15	12.0893E-3	-14.2775E-3	-240.524E-15	717.390E-6	170.951E-6
-117.559E-6	-191.827E-15	-14.7878E-3	-10.4807E-3	-308.230E-15	-11.0840E-3	4.04787E-3
-122.561E-6	-222.153E-15	-7.43189E-3	9.61878E-3	-263.447E-15	-2.93398E-3	407.967E-6
-127.564E-6	-286.501E-15	17.7329E-3	21.9653E-3	-277.947E-15	15.6849E-3	-13.4588E-3
-132.566E-6	-349.734E-15	20.5216E-3	-3.10861E-3	-299.737E-15	23.4417E-3	-14.7303E-3
-137.569E-6	-269.594E-15	12.5537E-3	-43.5895E-3	-360.005E-15	18.9389E-3	-5.26437E-3
-142.571E-6	-278.828E-15	-508.771E-6	-45.1007E-3	-272.568E-15	15.1564E-3	-1.73921E-3
-147.574E-6	-312.546E-15	-5.47491E-3	-18.2785E-3	-267.118E-15	23.4916E-3	-5.65617E-3
-152.576E-6	-409.191E-15	11.1286E-3	-11.1391E-3	-331.013E-15	25.0005E-3	-19.7851E-3
-157.579E-6	-262.558E-15	19.2685E-3	-20.2562E-3	-366.387E-15	13.9697E-3	-17.6932E-3
-162.581E-6	-320.785E-15	7.46678E-3	-29.5055E-3	-333.925E-15	9.62476E-3	9.58441E-3
-167.584E-6	-296.319E-15	-842.111E-6	-33.9395E-3	-292.221E-15	14.1245E-3	21.3900E-3
-172.586E-6	-324.866E-15	3.42564E-3	-13.0775E-3	-298.272E-15	24.2488E-3	1.63842E-3
-177.589E-6	-362.394E-15	10.9866E-3	13.0010E-3	-401.369E-15	26.4875E-3	-22.0544E-3
-182.591E-6	-361.470E-15	24.7806E-3	1.98515E-3	-365.603E-15	18.4978E-3	-23.3033E-3
-187.594E-6	-378.621E-15	33.2892E-3	-16.6132E-3	-387.401E-15	20.9959E-3	-13.8735E-3
-192.596E-6	-345.400E-15	13.9186E-3	-10.9486E-3	-367.704E-15	23.3624E-3	-7.32416E-3
-197.599E-6	-398.274E-15	3.10246E-3	795.750E-6	-414.222E-15	15.1203E-3	-3.86302E-3
-202.601E-6	-407.028E-15	22.7298E-3	4.40899E-3	-375.935E-15	13.7090E-3	-8.67986E-3
-207.604E-6	-386.756E-15	33.6400E-3	-3.28859E-3	-366.623E-15	29.2969E-3	-17.3330E-3
-212.606E-6	-375.708E-15	25.0865E-3	-20.9207E-3	-454.295E-15	45.1933E-3	-26.3093E-3
-217.609E-6	-358.906E-15	17.7519E-3	-23.2344E-3	-416.087E-15	43.3651E-3	-36.8146E-3
-222.611E-6	-471.525E-15	14.7466E-3	-4.46017E-3	-383.015E-15	34.6387E-3	-46.2051E-3
-227.614E-6	-501.362E-15	22.6511E-3	-354.196E-6	-469.580E-15	33.2765E-3	-49.5630E-3
-232.616E-6	-442.629E-15	52.9961E-3	-11.9341E-3	-468.255E-15	38.6304E-3	-42.6354E-3
-237.619E-6	-426.237E-15	62.8074E-3	-19.4471E-3	-468.334E-15	37.0499E-3	-39.6913E-3
-242.621E-6	-556.181E-15	30.8243E-3	-28.6967E-3	-454.557E-15	29.0947E-3	-38.2146E-3
-247.624E-6	-570.367E-15	16.1541E-3	-21.4005E-3	-508.460E-15	28.5613E-3	-26.5528E-3
-252.626E-6	-509.907E-15	37.8250E-3	6.04567E-3	-541.942E-15	42.0894E-3	-18.0640E-3
-257.629E-6	-456.842E-15	56.0069E-3	2.78323E-3	-521.861E-15	57.5867E-3	-18.5577E-3
-262.631E-6	-574.587E-15	61.5944E-3	-19.1233E-3	-551.812E-15	62.1839E-3	-16.2588E-3
-267.634E-6	-646.251E-15	44.7163E-3	-15.2956E-3	-563.915E-15	53.2863E-3	-13.7221E-3
-272.636E-6	-573.951E-15	14.1765E-3	-10.3992E-3	-684.503E-15	46.6992E-3	-15.2499E-3
-277.639E-6	-568.571E-15	23.4447E-3	-12.1599E-3	-536.240E-15	50.2502E-3	-14.4246E-3
-282.641E-6	-665.625E-15	52.5340E-3	-9.40060E-3	-581.554E-15	59.3703E-3	-17.0289E-3
-287.644E-6	-686.953E-15	50.5044E-3	-27.9258E-3	-651.927E-15	69.4157E-3	-9.62094E-3
-292.646E-6	-631.803E-15	40.8081E-3	-49.8197E-3	-671.921E-15	60.2464E-3	6.58402E-3
-297.649E-6	-661.074E-15	42.7308E-3	-31.1919E-3	-676.211E-15	51.3896E-3	-56.2743E-6
-302.651E-6	-699.683E-15	37.0041E-3	-994.646E-6	-681.259E-15	63.5418E-3	-20.9951E-3
-307.654E-6	-712.640E-15	47.0916E-3	-4.33377E-3	-730.985E-15	69.9789E-3	-32.2426E-3
-312.656E-6	-779.081E-15	73.4025E-3	-23.5849E-3	-754.152E-15	74.6813E-3	-28.2695E-3
-317.659E-6	-767.598E-15	68.0813E-3	-27.5908E-3	-733.706E-15	80.6147E-3	-13.5253E-3
-322.661E-6	-796.354E-15	50.9577E-3	-19.5628E-3	-740.890E-15	75.9184E-3	-11.0550E-3
-327.664E-6	-808.761E-15	53.2833E-3	-3.94593E-3	-801.385E-15	68.6079E-3	-22.9598E-3
-332.666E-6	-815.946E-15	60.9853E-3	-5.47931E-3	-909.478E-15	67.8002E-3	-26.1946E-3
-337.669E-6	-900.140E-15	71.3883E-3	-34.3200E-3	-833.934E-15	78.7536E-3	-15.1235E-3
-342.671E-6	-938.967E-15	79.6754E-3	-36.3303E-3	-896.765E-15	85.0659E-3	-3.71339E-3
-347.674E-6	-880.260E-15	66.4861E-3	-11.5300E-3	-972.344E-15	80.2698E-3	-5.96823E-3
-352.676E-6	-877.138E-15	62.7864E-3	-5.98866E-3	-975.353E-15	84.7858E-3	-14.2464E-3
-357.679E-6	-1.00686E-12	92.3270E-3	-4.31410E-3	-980.575E-15	95.7565E-3	-16.4415E-3
-362.681E-6	-1.01835E-12	92.6709E-3	-9.54935E-3	-1.02300E-12	99.8436E-3	-16.9782E-3
-367.684E-6	-985.929E-15	58.8090E-3	-33.2768E-3	-1.07294E-12	109.704E-3	-22.0917E-3
-372.686E-6	-1.00682E-12	57.0984E-3	-31.4423E-3	-1.07434E-12	110.411E-3	-26.8743E-3
-377.689E-6	-1.12702E-12	78.2752E-3	-7.82717E-3	-1.07501E-12	90.7114E-3	-26.7604E-3
-382.691E-6	-1.22108E-12	92.5410E-3	-2.33214E-3	-1.12043E-12	85.5906E-3	-18.4649E-3
-387.694E-6	-1.15770E-12	107.834E-3	-6.06712E-3	-1.16912E-12	106.065E-3	-9.29981E-3
-392.696E-6	-1.13267E-12	103.220E-3	-5.02519E-3	-1.22031E-12	120.661E-3	-10.3540E-3
-397.699E-6	-1.24417E-12	82.3302E-3	-6.11371E-3	-1.19095E-12	118.041E-3	-19.3072E-3
-402.701E-6	-1.28497E-12	93.0542E-3	-5.39002E-3	-1.27929E-12	111.459E-3	-29.2296E-3
-407.704E-6	-1.29419E-12	125.053E-3	3.67200E-3	-1.36107E-12	111.068E-3	-35.6480E-3
-412.706E-6	-1.27861E-12	136.370E-3	-2.95426E-3	-1.35309E-12	121.451E-3	-29.1553E-3
-417.709E-6	-1.39860E-12	124.851E-3	-31.0785E-3	-1.36830E-12	121.470E-3	-15.2064E-3
-422.711E-6	-1.44213E-12	105.385E-3	-41.5208E-3	-1.39616E-12	103.918E-3	-8.95025E-3
-427.714E-6	-1.43538E-12	100.572E-3	-30.3257E-3	-1.52238E-12	99.6695E-3	-7.88880E-3
-432.716E-6	-1.49283E-12	125.274E-3	-30.6216E-3	-1.48846E-12	106.769E-3	-17.3124E-3
-437.719E-6	-1.54624E-12	141.561E-3	-36.4164E-3	-1.54207E-12	112.375E-3	-32.1139E-3
-442.721E-6	-1.58025E-12	124.498E-3	-27.0373E-3	-1.63172E-12	123.743E-3	-26.7388E-3
-447.724E-6	-1.60306E-12	116.087E-3	-12.1374E-3	-1.64170E-12	125.890E-3	-18.6206E-3
-452.726E-6	-1.64345E-12	128.896E-3	-1.97260E-3	-1.65196E-12	119.170E-3	-20.1458E-3
-457.729E-6	-1.72691E-12	133.122E-3	-4.42078E-3	-1.71322E-12	118.228E-3	-16.2646E-3
-462.731E-6	-1.74747E-12	127.378E-3	-21.0208E-3	-1.79771E-12	116.865E-3	-10.7253E-3
-467.734E-6	-1.72708E-12	119.751E-3	-31.2385E-3	-1.83353E-12	116.617E-3	-6.67479E-3
-472.736E-6	-1.87233E-12	115.442E-3	-28.2942E-3	-1.79582E-12	119.845E-3	-3.32685E-3
-477.739E-6	-1.99121E-12	128.928E-3	-17.0393E-3	-1.86269E-12	125.717E-3	-15.3569E-3
-482.741E-6	-1.88951E-12	147.199E-3	603.437E-6	-1.97534E-12	132.952E-3	-34.0438E-3
-487.744E-6	-1.91537E-12	146.919E-3	1.75758E-3	-2.02638E-12	133.754E-3	-30.4750E-3
-492.746E-6	-2.06857E-12	143.547E-3	-11.5552E-3	-1.99220E-12	136.678E-3	-16.9063E-3
-497.749E-6	-2.16575E-12	142.706E-3	-11.3891E-3	-2.06160E-12	145.755E-3	-9.98008E-3
-502.751E-6	-2.11678E-12	131.775E-3	-2.01706E-3	-2.13852E-12	139.791E-3	-6.24132E-3
-507.754E-6	-2.12203E-12	126.724E-3	-6.07955E-3	-2.14313E-12	124.181E-3	-7.87769E-3
-512.756E-6	-2.26501E-12	140.301E-3	-13.3965E-3	-2.18035E-12	129.085E-3	-10.7148E-3
-517.759E-6	-2.33598E-12	138.686E-3	-14.7387E-3	-2.26777E-12	142.793E-3	-10.5455E-3
-522.761E-6	-2.28131E-12	128.342E-3	-20.2434E-3	-2.33604E-12	145.176E-3	-13.8512E-3
-527.764E-6	-2.36048E-12	139.580E-3	-11.4657E-3	-2.30122E-12	143.532E-3	-30.3093E-3
-532.766E-6	-2.41495E-12	142.497E-3	8.29379E-3	-2.30247E-12	147.227E-3	-36.9971E-3
-537.769E-6	-2.51181E-12	137.512E-3	-4.54861E-3	-2.47806E-12	156.458E-3	-14.1655E-3
-542.771E-6	-2.48643E-12	140.621E-3	-31.3678E-3	-2.54443E-12	162.084E-3	7.10165E-3
-547.774E-6	-2.49326E-12	136.254E-3	-39.6449E-3	-2.54154E-12	153.344E-3	10.7756E-3
-552.776E-6	-2.58541E-12	135.567E-3	-46.9093E-3	-2.50317E-12	138.091E-3	4.01092E-3
-557.779E-6	-2.64489E-12	148.556E-3	-36.3890E-3	-2.62478E-12	133.039E-3	-9.29168E-3
-562.781E-6	-2.71773E-12	157.753E-3	-6.53742E-3	-2.70811E-12	137.455E-3	-19.1676E-3
-567.784E-6	-2.80120E-12	155.497E-3	-6.92950E-3	-2.71029E-12	139.689E-3	-22.5915E-3
-572.786E-6	-2.89936E-12	145.881E-3	-22.9435E-3	-2.74953E-12	137.321E-3	-21.3908E-3
-577.789E-6	-2.91240E-12	140.284E-3	-8.84643E-3	-2.89271E-12	137.584E-3	-19.1047E-3
-582.791E-6	-2.92184E-12	148.321E-3	114.362E-6	-2.86749E-12	135.253E-3	-18.2147E-3
-587.794E-6	-3.01835E-12	157.967E-3	-19.4355E-3	-2.85946E-12	129.895E-3	-15.3214E-3
-592.796E-6	-3.18851E-12	156.287E-3	-32.4520E-3	-2.93514E-12	129.139E-3	-7.25756E-3
-597.799E-6	-3.09556E-12	143.207E-3	-29.6185E-3	-3.05524E-12	127.005E-3	4.28951E-3
-602.801E-6	-3.07903E-12	147.719E-3	-12.0369E-3	-3.10869E-12	123.695E-3	2.86315E-3
-607.804E-6	-3.31066E-12	167.579E-3	20.0555E-3	-3.07664E-12	131.034E-3	-10.8625E-3
-612.806E-6	-3.27327E-12	170.275E-3	23.2692E-3	-3.14005E-12	136.431E-3	-20.9377E-3
-617.809E-6	-3.16161E-12	168.116E-3	-10.1740E-3	-3.25598E-12	134.162E-3	-18.6060E-3
-622.811E-6	-3.24603E-12	162.939E-3	-27.5347E-3	-3.34468E-12	129.808E-3	-17.1470E-3
-627.814E-6	-3.37838E-12	143.955E-3	-22.3855E-3	-3.28739E-12	119.040E-3	-25.6319E-3
-632.816E-6	-3.41074E-12	141.837E-3	-13.9839E-3	-3.37600E-12	120.746E-3	-25.6113E-3
-637.819E-6	-3.41615E-12	154.710E-3	-13.4615E-3	-3.45103E-12	137.350E-3	-23.6868E-3
-642.821E-6	-3.41910E-12	143.334E-3	-27.1748E-3	-3.51565E-12	148.657E-3	-24.7991E-3
-647.824E-6	-3.50570E-12	123.949E-3	-35.5461E-3	-3.49844E-12	149.815E-3	-19.8731E-3
-652.826E-6	-3.61347E-12	120.423E-3	-23.4380E-3	-3.59738E-12	140.499E-3	-15.2601E-3
-657.829E-6	-3.59072E-12	121.489E-3	-8.49447E-3	-3.75156E-12	134.454E-3	-21.1297E-3
-662.831E-6	-3.61121E-12	138.503E-3	-13.7530E-3	-3.73271E-12	138.080E-3	-31.0289E-3
-667.834E-6	-3.73193E-12	162.836E-3	-20.2419E-3	-3.71565E-12	138.294E-3	-28.7588E-3
-672.836E-6	-3.77583E-12	149.885E-3	-17.5714E-3	-3.81085E-12	137.507E-3	-16.7799E-3
-677.839E-6	-3.79669E-12	121.349E-3	-25.1511E-3	-3.87347E-12	134.501E-3	-11.5044E-3
-682.841E-6	-3.82203E-12	112.644E-3	-24.1093E-3	-3.82898E-12	127.403E-3	-14.7234E-3
-687.844E-6	-3.90215E-12	112.843E-3	-18.1071E-3	-3.89521E-12	126.279E-3	-10.6414E-3
-692.846E-6	-3.94092E-12	120.571E-3	-31.8696E-3	-3.97282E-12	124.804E-3	448.827E-6
-697.849E-6	-3.94188E-12	128.942E-3	-41.7357E-3	-4.04058E-12	115.684E-3	4.43827E-3
-702.851E-6	-4.06198E-12	116.537E-3	-37.2749E-3	-4.06051E-12	115.340E-3	-575.021E-6
-707.854E-6	-4.12924E-12	107.428E-3	-28.9334E-3	-4.02257E-12	120.091E-3	-11.6914E-3
-712.856E-6	-4.02318E-12	129.897E-3	-17.8049E-3	-4.18830E-12	117.982E-3	-25.9159E-3
-717.859E-6	-4.09202E-12	143.676E-3	-14.3996E-3	-4.20489E-12	125.834E-3	-19.1654E-3
-722.861E-6	-4.22412E-12	125.112E-3	-29.5287E-3	-4.15490E-12	143.045E-3	3.20110E-3
-727.864E-6	-4.28429E-12	106.781E-3	-46.9877E-3	-4.23660E-12	142.999E-3	1.38633E-3
-732.866E-6	-4.17612E-12	96.3240E-3	-38.3231E-3	-4.36470E-12	122.790E-3	-13.7527E-3
-737.869E-6	-4.25606E-12	98.3502E-3	-21.8634E-3	-4.34182E-12	112.533E-3	-10.1129E-3
-742.871E-6	-4.36307E-12	120.071E-3	-19.1218E-3	-4.43905E-12	117.620E-3	-745.091E-6
-747.874E-6	-4.36898E-12	122.745E-3	-21.1821E-3	-4.48534E-12	120.460E-3	2.27118E-3
-752.876E-6	-4.35605E-12	106.143E-3	-30.1565E-3	-4.55017E-12	117.415E-3	563.739E-6
-757.879E-6	-4.38655E-12	104.097E-3	-39.7719E-3	-4.53766E-12	112.355E-3	-8.92750E-3
-762.881E-6	-4.46305E-12	103.286E-3	-34.3049E-3	-4.50476E-12	104.772E-3	-20.9441E-3
-767.884E-6	-4.56959E-12	95.3274E-3	-30.4196E-3	-4.56625E-12	92.8232E-3	-26.1896E-3
-772.886E-6	-4.59805E-12	104.967E-3	-33.8797E-3	-4.63109E-12	87.2821E-3	-13.9898E-3
-777.889E-6	-4.61805E-12	114.795E-3	-20.2731E-3	-4.57973E-12	88.5181E-3	6.68239E-3
-782.891E-6	-4.64502E-12	99.4665E-3	-4.28666E-3	-4.55353E-12	87.8215E-3	5.28046E-3
-787.894E-6	-4.69616E-12	96.6765E-3	-12.6195E-3	-4.63378E-12	94.2963E-3	-14.4887E-3
-792.896E-6	-4.74418E-12	104.984E-3	-23.8729E-3	-4.71457E-12	100.249E-3	-22.7398E-3
-797.899E-6	-4.80533E-12	87.7818E-3	-29.7948E-3	-4.63143E-12	100.539E-3	-15.3167E-3
-802.901E-6	-4.80355E-12	68.5689E-3	-37.2975E-3	-4.66813E-12	107.038E-3	-10.6683E-3
-807.904E-6	-4.83499E-12	68.3611E-3	-20.6112E-3	-4.71597E-12	101.779E-3	-11.0085E-3
-812.906E-6	-4.87328E-12	81.6175E-3	4.54103E-3	-4.72071E-12	83.2573E-3	-6.61428E-3
-817.909E-6	-4.86055E-12	98.7469E-3	-1.83834E-3	-4.74583E-12	77.3569E-3	-7.03409E-3
-822.911E-6	-4.89368E-12	107.659E-3	-21.0842E-3	-4.73005E-12	79.6356E-3	-13.9718E-3
-827.914E-6	-5.00013E-12	98.8915E-3	-22.5381E-3	-4.82151E-12	74.0993E-3	-20.2688E-3
-832.916E-6	-4.95201E-12	82.2155E-3	-7.90009E-3	-4.83255E-12	70.2637E-3	-25.3143E-3
-837.919E-6	-4.97887E-12	85.5027E-3	7.18352E-3	-4.85756E-12	80.1648E-3	-27.7319E-3
-842.921E-6	-5.09203E-12	88.1901E-3	-6.87574E-3	-4.90073E-12	85.4023E-3	-22.8661E-3
-847.924E-6	-4.99162E-12	77.1268E-3	-40.2758E-3	-5.01123E-12	84.9620E-3	-11.2189E-3
-852.926E-6	-4.95283E-12	75.5256E-3	-40.6295E-3	-4.99792E-12	93.1091E-3	-6.31981E-3
-857.929E-6	-5.11980E-12	73.8374E-3	-18.8121E-3	-4.99111E-12	92.8598E-3	-19.9434E-3
-862.931E-6	-5.16092E-12	76.2003E-3	-11.9776E-3	-5.03726E-12	84.0207E-3	-28.0682E-3
-867.934E-6	-5.06968E-12	94.4559E-3	-12.8817E-3	-5.09651E-12	79.1430E-3	-16.3510E-3
-872.936E-6	-5.12906E-12	98.1969E-3	-14.4088E-3	-5.17408E-12	75.2665E-3	-18.0163E-3
-877.939E-6	-5.19852E-12	86.9880E-3	-23.7788E-3	-5.14570E-12	74.6288E-3	-27.2507E-3
-882.941E-6	-5.26217E-12	92.4675E-3	-25.6028E-3	-5.14535E-12	82.5188E-3	-23.0497E-3
-887.944E-6	-5.29868E-12	97.2318E-3	-9.44687E-3	-5.24597E-12	93.4004E-3	-21.5878E-3
-892.946E-6	-5.26123E-12	88.4520E-3	-9.95965E-3	-5.28225E-12	97.8339E-3	-18.1998E-3
-897.949E-6	-5.27374E-12	84.7283E-3	-25.5330E-3	-5.22481E-12	104.337E-3	-4.82007E-3
-902.951E-6	-5.43361E-12	74.3728E-3	-24.9861E-3	-5.32414E-12	108.168E-3	195.191E-6
-907.954E-6	-5.35070E-12	66.8235E-3	-17.7064E-3	-5.46560E-12	101.015E-3	-5.19116E-3
-912.956E-6	-5.35223E-12	88.9935E-3	-10.2121E-3	-5.43138E-12	102.076E-3	-15.5028E-3
-917.959E-6	-5.50851E-12	115.299E-3	-1.38166E-3	-5.38100E-12	108.437E-3	-23.4031E-3
-922.961E-6	-5.52030E-12	117.763E-3	-7.87223E-3	-5.50300E-12	106.953E-3	-19.2400E-3
-927.964E-6	-5.47656E-12	110.328E-3	-21.9812E-3	-5.63254E-12	104.730E-3	-20.6442E-3
-932.966E-6	-5.56367E-12	99.9270E-3	-14.2808E-3	-5.65868E-12	105.269E-3	-28.3892E-3
-937.969E-6	-5.62454E-12	79.2104E-3	-3.65005E-3	-5.64514E-12	113.380E-3	-26.6967E-3
-942.971E-6	-5.54542E-12	81.3175E-3	-13.0167E-3	-5.75186E-12	119.305E-3	-21.7289E-3
-947.974E-6	-5.61592E-12	101.571E-3	-18.6302E-3	-5.85709E-12	109.455E-3	-23.1552E-3
-952.976E-6	-5.68345E-12	92.4979E-3	-20.4467E-3	-5.81431E-12	103.580E-3	-27.4246E-3
-957.979E-6	-5.73910E-12	86.0097E-3	-24.3317E-3	-5.83929E-12	112.928E-3	-25.6370E-3
-962.981E-6	-5.67652E-12	99.8624E-3	-12.3029E-3	-6.00856E-12	122.062E-3	-16.8734E-3
-967.984E-6	-5.74141E-12	101.583E-3	-2.12015E-3	-6.04018E-12	130.065E-3	-6.35927E-3
-972.986E-6	-5.90765E-12	104.987E-3	-20.5063E-3	-6.02411E-12	142.213E-3	-10.3404E-3
-977.989E-6	-5.96905E-12	120.836E-3	-31.8636E-3	-6.07494E-12	145.608E-3	-29.7306E-3
-982.991E-6	-5.92331E-12	126.305E-3	-19.8937E-3	-6.20382E-12	146.813E-3	-47.3367E-3
-987.994E-6	-5.99840E-12	121.881E-3	-23.3803E-3	-6.34836E-12	164.432E-3	-51.4658E-3
-992.997E-6	-6.12192E-12	132.531E-3	-31.7966E-3	-6.26021E-12	170.130E-3	-36.9574E-3
-997.999E-6	-6.33007E-12	149.829E-3	-32.4293E-3	-6.20570E-12	160.832E-3	-17.1988E-3
-1.00300E-3	-6.37339E-12	152.408E-3	-40.8080E-3	-6.43434E-12	159.823E-3	-8.95907E-3
-1.00800E-3	-6.25606E-12	148.609E-3	-30.7945E-3	-6.34666E-12	163.379E-3	-14.2643E-3
-1.01301E-3	-6.39328E-12	147.907E-3	-11.1972E-3	-6.31860E-12	166.890E-3	-20.6327E-3
-1.01801E-3	-6.61466E-12	159.373E-3	-20.4653E-3	-6.54267E-12	175.484E-3	-22.9134E-3
-1.02301E-3	-6.49462E-12	176.439E-3	-33.6359E-3	-6.58508E-12	189.854E-3	-22.7207E-3
-1.02801E-3	-6.55904E-12	180.801E-3	-37.2884E-3	-6.47274E-12	198.299E-3	-18.8560E-3
-1.03302E-3	-6.72653E-12	174.988E-3	-45.1874E-3	-6.54523E-12	199.875E-3	-21.9352E-3
-1.03802E-3	-6.75727E-12	176.377E-3	-39.8132E-3	-6.69772E-12	214.235E-3	-29.6755E-3
-1.04302E-3	-6.74748E-12	185.971E-3	-28.6193E-3	-6.76639E-12	242.902E-3	-20.7491E-3
-1.04802E-3	-6.83013E-12	201.831E-3	-38.7931E-3	-6.84319E-12	259.492E-3	-5.60013E-3
-1.05303E-3	-6.82639E-12	220.378E-3	-38.7736E-3	-6.97513E-12	252.985E-3	-11.0908E-3
-1.05803E-3	-6.93973E-12	220.416E-3	-14.3577E-3	-6.91405E-12	239.587E-3	-20.5792E-3
-1.06303E-3	-7.15078E-12	209.896E-3	-2.27853E-3	-7.20424E-12	239.423E-3	-15.3648E-3
-1.06803E-3	-7.19402E-12	217.854E-3	-622.201E-6	-7.25141E-12	251.004E-3	-10.4678E-3
-1.07304E-3	-7.24030E-12	240.851E-3	1.09674E-3	-7.21649E-12	264.749E-3	-13.2094E-3
-1.07804E-3	-7.46792E-12	250.818E-3	-11.9122E-3	-7.39555E-12	284.962E-3	-15.7104E-3
-1.08304E-3	-7.49346E-12	264.127E-3	-23.7124E-3	-7.67038E-12	305.832E-3	-13.4363E-3
-1.08804E-3	-7.61501E-12	291.370E-3	-5.30529E-3	-7.50104E-12	317.819E-3	-4.11040E-3
-1.09305E-3	-7.79542E-12	303.252E-3	14.6349E-3	-7.45155E-12	336.552E-3	3.71545E-3
-1.09805E-3	-7.86930E-12	310.425E-3	5.23701E-3	-7.68222E-12	353.429E-3	-824.271E-6
-1.10305E-3	-7.88452E-12	320.990E-3	-3.00937E-3	-7.69246E-12	353.125E-3	-3.88039E-3
-1.10805E-3	-8.13574E-12	314.135E-3	-726.109E-6	-7.74344E-12	357.454E-3	-6.67491E-3
-1.11306E-3	-8.23331E-12	325.518E-3	-7.06166E-3	-7.83265E-12	375.436E-3	-12.6014E-3
-1.11806E-3	-8.21651E-12	364.375E-3	-9.46875E-3	-8.02681E-12	395.971E-3	-13.8031E-3
-1.12306E-3	-8.34472E-12	376.124E-3	-9.23337E-3	-8.05921E-12	406.245E-3	-10.8494E-3
-1.12806E-3	-8.41974E-12	364.787E-3	-22.3531E-3	-8.15107E-12	408.978E-3	-5.43137E-3
-1.13307E-3	-8.57596E-12	367.169E-3	-26.7729E-3	-8.32805E-12	415.905E-3	-5.60678E-3
-1.13807E-3	-8.62450E-12	380.771E-3	-16.9649E-3	-8.50850E-12	425.046E-3	-7.47788E-3
-1.14307E-3	-8.67121E-12	398.928E-3	-11.6983E-3	-8.69268E-12	435.962E-3	-12.1402E-3
-1.14807E-3	-8.86157E-12	419.715E-3	-11.1304E-3	-8.82111E-12	451.106E-3	-30.6268E-3
-1.15308E-3	-9.04419E-12	423.648E-3	-13.6028E-3	-9.02453E-12	470.375E-3	-41.7862E-3
-1.15808E-3	-9.11330E-12	414.157E-3	-17.7538E-3	-9.30758E-12	493.702E-3	-35.3843E-3
-1.16308E-3	-9.23872E-12	413.290E-3	-16.2174E-3	-9.58549E-12	515.168E-3	-26.9179E-3
-1.16808E-3	-9.52842E-12	419.517E-3	-8.30222E-3	-9.67812E-12	529.248E-3	-20.1472E-3
-1.17309E-3	-9.74520E-12	449.019E-3	-5.72573E-3	-9.82139E-12	551.671E-3	-21.7279E-3
-1.17809E-3	-9.77976E-12	495.523E-3	-10.1542E-3	-10.1177E-12	583.212E-3	-25.3710E-3
-1.18309E-3	-9.96493E-12	512.781E-3	-15.3740E-3	-10.2836E-12	599.659E-3	-20.5304E-3
-1.18809E-3	-10.2221E-12	513.195E-3	-20.1621E-3	-10.3331E-12	610.185E-3	-17.2438E-3
-1.19310E-3	-10.4185E-12	526.701E-3	-10.6904E-3	-10.6660E-12	625.539E-3	-16.1639E-3
-1.19810E-3	-10.4995E-12	543.121E-3	4.07917E-3	-10.8567E-12	641.281E-3	-12.6173E-3
-1.20310E-3	-10.6764E-12	559.219E-3	-10.8990E-3	-10.8124E-12	657.997E-3	-8.62267E-3
-1.20810E-3	-10.8782E-12	580.276E-3	-25.7074E-3	-11.0661E-12	658.458E-3	-6.98447E-3
-1.21311E-3	-11.0276E-12	592.100E-3	-11.9021E-3	-11.5242E-12	652.116E-3	-12.0131E-3
-1.21811E-3	-11.2040E-12	596.324E-3	-9.26123E-3	-11.6561E-12	664.452E-3	-18.0573E-3
-1.22311E-3	-11.4445E-12	614.775E-3	-25.3396E-3	-11.7569E-12	684.072E-3	-23.3840E-3
-1.22811E-3	-11.7026E-12	631.746E-3	-21.9930E-3	-12.0546E-12	696.743E-3	-32.4060E-3
-1.23312E-3	-11.8660E-12	635.853E-3	-10.9889E-3	-12.2338E-12	712.247E-3	-35.1555E-3
-1.23812E-3	-12.1057E-12	659.138E-3	-6.53844E-3	-12.5998E-12	732.979E-3	-23.9338E-3
-1.24312E-3	-12.4082E-12	688.116E-3	5.60739E-3	-12.7622E-12	751.503E-3	-11.1539E-3
-1.24812E-3	-12.6701E-12	698.033E-3	8.61081E-3	-12.8997E-12	776.032E-3	-9.22674E-3
-1.25313E-3	-12.8901E-12	714.947E-3	-6.80075E-3	-13.1722E-12	802.733E-3	-16.6151E-3
-1.25813E-3	-13.0494E-12	735.145E-3	-15.8390E-3	-13.5565E-12	815.139E-3	-24.0799E-3
-1.26313E-3	-13.4413E-12	738.372E-3	-17.2145E-3	-13.7809E-12	824.687E-3	-30.5808E-3
-1.26813E-3	-13.7832E-12	750.184E-3	-12.7799E-3	-13.9202E-12	847.446E-3	-40.1268E-3
-1.27314E-3	-13.9371E-12	781.204E-3	8.85081E-3	-14.3200E-12	866.622E-3	-32.6214E-3
-1.27814E-3	-14.2654E-12	794.555E-3	5.95232E-3	-14.5812E-12	873.014E-3	-11.0774E-3
-1.28314E-3	-14.6396E-12	798.155E-3	-26.4713E-3	-14.7955E-12	882.586E-3	-1.52727E-3
-1.28814E-3	-14.8823E-12	816.737E-3	-26.4112E-3	-15.1081E-12	897.345E-3	-4.48328E-3
-1.29315E-3	-15.2256E-12	830.953E-3	-567.077E-6	-15.3504E-12	910.365E-3	-5.63416E-3
-1.29815E-3	-15.6030E-12	853.790E-3	-1.84456E-3	-15.6208E-12	926.840E-3	-5.52496E-3
-1.30315E-3	-15.8958E-12	892.717E-3	-15.7724E-3	-16.0189E-12	946.275E-3	-18.2129E-3
-1.30815E-3	-16.2030E-12	907.335E-3	-20.2915E-3	-16.1566E-12	962.618E-3	-29.6110E-3
-1.31316E-3	-16.5276E-12	906.854E-3	-28.5496E-3	-16.5194E-12	971.839E-3	-22.0882E-3
-1.31816E-3	-16.8606E-12	927.232E-3	-26.9829E-3	-16.8372E-12	975.992E-3	-15.2376E-3
-1.32316E-3	-17.1839E-12	944.661E-3	-18.0513E-3	-17.0956E-12	981.682E-3	-15.6011E-3
-1.32816E-3	-17.6487E-12	948.215E-3	-28.9033E-3	-17.3848E-12	993.002E-3	-17.0786E-3
-1.33317E-3	-17.9652E-12	955.688E-3	-30.3766E-3	-17.8213E-12	1.00589E+0	-29.4160E-3
-1.33817E-3	-18.1965E-12	956.362E-3	-14.9330E-3	-18.0752E-12	1.01570E+0	-38.7097E-3
-1.34317E-3	-18.6094E-12	971.146E-3	-19.6477E-3	-18.0661E-12	1.02779E+0	-35.4031E-3
-1.34817E-3	-18.9452E-12	1.00865E+0	-31.5137E-3	-18.5591E-12	1.03699E+0	-36.6801E-3
-1.35318E-3	-19.0917E-12	1.02254E+0	-29.5045E-3	-18.7804E-12	1.03547E+0	-35.6697E-3
-1.35818E-3	-19.4682E-12	1.01744E+0	-29.1960E-3	-19.1114E-12	1.03984E+0	-33.1034E-3
-1.36318E-3	-19.9107E-12	1.03298E+0	-29.5973E-3	-19.6225E-12	1.05307E+0	-35.2370E-3
-1.36818E-3	-20.2140E-12	1.04863E+0	-16.0195E-3	-19.9562E-12	1.06335E+0	-29.1754E-3
-1.37319E-3	-20.5995E-12	1.04422E+0	-4.39799E-3	-20.3975E-12	1.07193E+0	-20.3998E-3
-1.37819E-3	-20.9506E-12	1.06216E+0	-4.06420E-3	-20.8155E-12	1.08155E+0	-19.2521E-3
-1.38319E-3	-21.2774E-12	1.08105E+0	-12.4917E-3	-21.0295E-12	1.09610E+0	-20.4944E-3
-1.38819E-3	-21.6798E-12	1.07731E+0	-29.4359E-3	-21.6516E-12	1.11725E+0	-20.5081E-3
-1.39320E-3	-21.9193E-12	1.08796E+0	-29.1085E-3	-22.1648E-12	1.13264E+0	-21.8810E-3
-1.39820E-3	-22.1967E-12	1.08818E+0	-6.63076E-3	-22.3111E-12	1.14198E+0	-14.8903E-3
-1.40320E-3	-22.7378E-12	1.07454E+0	-3.54361E-3	-22.8367E-12	1.14997E+0	3.25100E-3
-1.40820E-3	-23.1823E-12	1.09634E+0	-18.6934E-3	-23.3075E-12	1.14695E+0	10.7421E-3
-1.41321E-3	-23.3154E-12	1.12667E+0	-20.1494E-3	-23.5316E-12	1.14661E+0	1.11294E-3
-1.41821E-3	-23.9434E-12	1.12699E+0	-17.9749E-3	-23.7257E-12	1.15100E+0	-2.66964E-3
-1.42321E-3	-24.4566E-12	1.13224E+0	-19.7329E-3	-24.1594E-12	1.14826E+0	8.02978E-3
-1.42821E-3	-24.7673E-12	1.14380E+0	-15.9217E-3	-24.5202E-12	1.14605E+0	7.99649E-3
-1.43322E-3	-25.0413E-12	1.13491E+0	-17.6823E-3	-24.8184E-12	1.13656E+0	-14.0946E-3
-1.43822E-3	-25.6017E-12	1.13775E+0	-26.8494E-3	-25.0627E-12	1.12842E+0	-30.8193E-3
-1.44322E-3	-25.9578E-12	1.16316E+0	-21.9528E-3	-25.5028E-12	1.13615E+0	-25.6527E-3
-1.44822E-3	-25.9253E-12	1.17698E+0	-7.89729E-3	-25.8569E-12	1.15081E+0	-12.2526E-3
-1.45323E-3	-26.5446E-12	1.17726E+0	-5.91616E-3	-26.1697E-12	1.16401E+0	-3.96240E-3
-1.45823E-3	-26.9145E-12	1.17087E+0	-13.5768E-3	-26.5767E-12	1.16524E+0	2.47588E-3
-1.46323E-3	-27.0071E-12	1.16223E+0	-20.2303E-3	-27.1778E-12	1.16554E+0	5.67860E-3
-1.46823E-3	-27.2765E-12	1.16293E+0	-19.6536E-3	-27.7072E-12	1.17512E+0	-1.81489E-3
-1.47324E-3	-27.9073E-12	1.16845E+0	-8.87605E-3	-28.3039E-12	1.19010E+0	-10.0846E-3
-1.47824E-3	-28.1399E-12	1.16956E+0	-8.10358E-3	-28.7854E-12	1.20288E+0	-11.4191E-3
-1.48324E-3	-28.2892E-12	1.17090E+0	-27.6131E-3	-29.3003E-12	1.20462E+0	-14.0034E-3
-1.48824E-3	-28.7725E-12	1.16810E+0	-40.8354E-3	-29.7523E-12	1.21042E+0	-21.0300E-3
-1.49325E-3	-29.3520E-12	1.14660E+0	-35.7922E-3	-30.2843E-12	1.21606E+0	-21.2406E-3
-1.49825E-3	-29.5495E-12	1.13861E+0	-11.3576E-3	-30.7553E-12	1.21225E+0	-17.9360E-3
-1.50325E-3	-30.2994E-12	1.16039E+0	10.7422E-3	-31.1878E-12	1.20221E+0	-19.6950E-3
-1.50825E-3	-30.7642E-12	1.17186E+0	5.79101E-3	-31.4335E-12	1.18297E+0	-17.4101E-3
-1.51326E-3	-31.0324E-12	1.18489E+0	-5.70703E-3	-31.7822E-12	1.16821E+0	-17.3609E-3
-1.51826E-3	-31.7462E-12	1.19708E+0	4.78226E-3	-32.0831E-12	1.16232E+0	-26.3005E-3
-1.52326E-3	-32.1501E-12	1.17970E+0	16.4279E-3	-32.3165E-12	1.15819E+0	-29.3779E-3
-1.52826E-3	-32.2796E-12	1.16440E+0	-4.91479E-3	-32.3754E-12	1.15915E+0	-23.6742E-3
-1.53327E-3	-32.8178E-12	1.17148E+0	-23.9298E-3	-32.5933E-12	1.16919E+0	-17.0138E-3
-1.53827E-3	-33.2437E-12	1.17574E+0	-5.43962E-3	-32.9284E-12	1.18086E+0	-7.70529E-3
-1.54327E-3	-33.5109E-12	1.16797E+0	8.89567E-3	-33.3252E-12	1.17903E+0	1.17549E-3
-1.54827E-3	-33.6202E-12	1.16400E+0	8.08240E-3	-33.7693E-12	1.16527E+0	1.42869E-3
-1.55328E-3	-34.2857E-12	1.16019E+0	10.3911E-3	-34.1492E-12	1.15335E+0	-3.96886E-3
-1.55828E-3	-34.4930E-12	1.15652E+0	-2.74922E-3	-34.5027E-12	1.14591E+0	-6.38096E-3
-1.56328E-3	-34.8161E-12	1.16486E+0	-25.1812E-3	-35.2325E-12	1.14865E+0	-5.97560E-3
-1.56828E-3	-35.1034E-12	1.15838E+0	-35.3083E-3	-35.8128E-12	1.16005E+0	-3.10404E-3
-1.57329E-3	-35.4815E-12	1.13447E+0	-37.7952E-3	-36.0416E-12	1.16572E+0	-9.98223E-3
-1.57829E-3	-35.6080E-12	1.13630E+0	-27.8380E-3	-36.6230E-12	1.16607E+0	-25.1956E-3
-1.58329E-3	-36.2950E-12	1.14395E+0	-7.60220E-3	-37.2656E-12	1.15836E+0	-19.5496E-3
-1.58829E-3	-37.0283E-12	1.12689E+0	-6.91337E-3	-37.5317E-12	1.14515E+0	-6.41429E-3
-1.59330E-3	-37.2776E-12	1.11365E+0	-14.4199E-3	-37.8138E-12	1.13613E+0	-12.9173E-3
-1.59830E-3	-37.7673E-12	1.12070E+0	-6.76529E-3	-38.3786E-12	1.12475E+0	-13.9405E-3
-1.60330E-3	-38.4536E-12	1.12738E+0	-5.74643E-3	-38.4640E-12	1.11778E+0	3.22582E-3
-1.60830E-3	-38.7010E-12	1.13170E+0	-18.7664E-3	-38.8929E-12	1.10821E+0	8.37367E-3
-1.61331E-3	-39.3672E-12	1.13266E+0	-24.2874E-3	-39.1078E-12	1.08127E+0	-5.77640E-3
-1.61831E-3	-39.7663E-12	1.11436E+0	-22.3668E-3	-39.2074E-12	1.06468E+0	-16.9547E-3
-1.62331E-3	-40.0796E-12	1.10246E+0	-14.3813E-3	-39.4625E-12	1.07040E+0	-15.0151E-3
-1.62831E-3	-40.2869E-12	1.10975E+0	243.260E-6	-39.7482E-12	1.07155E+0	-9.26973E-3
-1.63332E-3	-40.9725E-12	1.10426E+0	-1.23236E-3	-39.9081E-12	1.06362E+0	-12.9066E-3
-1.63832E-3	-41.3104E-12	1.09166E+0	-18.4157E-3	-40.0175E-12	1.05797E+0	-27.4094E-3
-1.64332E-3	-41.2444E-12	1.09129E+0	-15.4099E-3	-40.6361E-12	1.05779E+0	-33.1080E-3
-1.64832E-3	-41.6238E-12	1.09058E+0	-8.03496E-3	-40.8954E-12	1.05610E+0	-22.4067E-3
-1.65333E-3	-41.8562E-12	1.09257E+0	-29.7582E-3	-41.1436E-12	1.04741E+0	-15.2137E-3
-1.65833E-3	-42.0215E-12	1.09630E+0	-50.7262E-3	-41.3426E-12	1.03852E+0	-19.4157E-3
-1.66333E-3	-42.3159E-12	1.08230E+0	-45.3676E-3	-41.7746E-12	1.03100E+0	-21.9455E-3
-1.66833E-3	-42.6910E-12	1.06005E+0	-34.2908E-3	-42.1829E-12	1.03038E+0	-19.0150E-3
-1.67334E-3	-42.9151E-12	1.04252E+0	-33.2950E-3	-42.5372E-12	1.03194E+0	-19.9136E-3
-1.67834E-3	-43.6348E-12	1.02730E+0	-32.3690E-3	-43.0008E-12	1.02316E+0	-12.9817E-3
-1.68334E-3	-44.0255E-12	1.02816E+0	-31.4094E-3	-43.3907E-12	1.01830E+0	-5.76863E-3
-1.68834E-3	-44.2963E-12	1.03223E+0	-27.7894E-3	-44.0030E-12	1.02564E+0	-7.80685E-3
-1.69335E-3	-44.5683E-12	1.01022E+0	-21.4109E-3	-44.3565E-12	1.02981E+0	-10.9303E-3
-1.69835E-3	-45.0420E-12	996.622E-3	-29.0828E-3	-44.8006E-12	1.02553E+0	-24.5895E-3
-1.70335E-3	-45.5861E-12	1.01777E+0	-29.3058E-3	-44.9961E-12	1.00405E+0	-37.2770E-3
-1.70835E-3	-46.0011E-12	1.03898E+0	-6.24275E-3	-45.4012E-12	987.680E-3	-32.3782E-3
-1.71336E-3	-46.3929E-12	1.03634E+0	-1.04949E-3	-45.9685E-12	997.416E-3	-18.7431E-3
-1.71836E-3	-46.5485E-12	1.02976E+0	-22.3575E-3	-46.2680E-12	1.00285E+0	-14.5321E-3
-1.72336E-3	-46.9466E-12	1.02564E+0	-24.2308E-3	-46.5259E-12	997.728E-3	-11.6536E-3
-1.72836E-3	-47.1778E-12	1.00856E+0	-10.8977E-3	-47.1676E-12	999.476E-3	-6.75245E-3
-1.73337E-3	-47.2066E-12	995.638E-3	-11.6241E-3	-47.3594E-12	999.725E-3	-14.3668E-3
-1.73837E-3	-47.3231E-12	994.075E-3	-20.3749E-3	-47.6721E-12	985.168E-3	-22.5987E-3
-1.74337E-3	-47.6723E-12	984.071E-3	-30.3429E-3	-48.2516E-12	973.022E-3	-22.0967E-3
-1.74837E-3	-47.7627E-12	968.930E-3	-25.4524E-3	-48.5406E-12	977.008E-3	-20.0208E-3
-1.75338E-3	-47.7032E-12	960.301E-3	-3.73592E-3	-48.5938E-12	971.558E-3	-14.2405E-3
-1.75838E-3	-48.5158E-12	949.370E-3	4.77045E-3	-49.1591E-12	957.087E-3	-7.63890E-3
-1.76338E-3	-48.7137E-12	955.494E-3	-1.79676E-3	-49.3493E-12	951.657E-3	-14.9776E-3
-1.76838E-3	-49.2378E-12	976.061E-3	276.219E-6	-49.4839E-12	941.031E-3	-22.1683E-3
-1.77339E-3	-49.3226E-12	973.561E-3	3.36694E-3	-49.9101E-12	942.328E-3	-9.78948E-3
-1.77839E-3	-49.7531E-12	969.579E-3	-587.254E-6	-50.1127E-12	956.889E-3	-1.74684E-3
-1.78339E-3	-50.0188E-12	976.256E-3	3.42421E-3	-50.2643E-12	946.154E-3	-16.6200E-3
-1.78839E-3	-50.4927E-12	967.144E-3	3.50283E-3	-50.8882E-12	930.336E-3	-28.6423E-3
-1.79340E-3	-50.7203E-12	944.344E-3	-10.4267E-3	-51.3187E-12	947.590E-3	-20.1371E-3
-1.79840E-3	-50.7153E-12	925.955E-3	-18.7318E-3	-51.5746E-12	962.178E-3	-9.30700E-3
-1.80340E-3	-50.8566E-12	921.342E-3	-18.5550E-3	-52.1255E-12	950.087E-3	-12.8483E-3
-1.80840E-3	-51.1700E-12	926.926E-3	-14.1823E-3	-52.8127E-12	949.645E-3	-22.2931E-3
-1.81341E-3	-51.5613E-12	929.630E-3	-5.33021E-3	-53.0461E-12	951.000E-3	-13.2535E-3
-1.81841E-3	-51.8605E-12	923.227E-3	2.13261E-3	-53.5289E-12	933.488E-3	1.50362E-3
-1.82341E-3	-52.3531E-12	917.820E-3	-5.30693E-3	-54.1933E-12	926.330E-3	-18.5385E-3
-1.82841E-3	-52.5943E-12	926.029E-3	-20.3975E-3	-54.4809E-12	927.377E-3	-49.4994E-3
-1.83342E-3	-53.1796E-12	933.864E-3	-28.8832E-3	-54.7570E-12	918.965E-3	-45.1644E-3
-1.83842E-3	-54.0576E-12	926.945E-3	-35.7624E-3	-55.1268E-12	908.388E-3	-23.7458E-3
-1.84342E-3	-54.2500E-12	917.166E-3	-29.3623E-3	-55.1458E-12	902.753E-3	-16.9817E-3
-1.84842E-3	-54.1603E-12	910.602E-3	-7.01140E-3	-55.0382E-12	901.348E-3	-18.2090E-3
-1.85343E-3	-54.6489E-12	905.187E-3	7.91941E-3	-55.1290E-12	899.211E-3	-11.4587E-3
-1.85843E-3	-55.2311E-12	909.275E-3	12.1966E-3	-55.2370E-12	889.723E-3	-5.83514E-3
-1.86343E-3	-55.4648E-12	906.918E-3	-253.880E-6	-55.0329E-12	874.949E-3	-7.21407E-3
-1.86843E-3	-55.6955E-12	898.274E-3	-22.7428E-3	-55.2806E-12	866.802E-3	-11.5150E-3
-1.87344E-3	-56.1474E-12	903.800E-3	-32.1622E-3	-55.2740E-12	866.506E-3	-13.1332E-3
-1.87844E-3	-56.5477E-12	909.206E-3	-24.6427E-3	-55.4963E-12	869.762E-3	-852.295E-6
-1.88344E-3	-56.6022E-12	907.698E-3	-17.6560E-3	-55.7747E-12	879.748E-3	6.21298E-3
-1.88844E-3	-56.7381E-12	910.659E-3	-21.5222E-3	-56.2191E-12	881.685E-3	-13.8153E-3
-1.89345E-3	-56.7865E-12	897.827E-3	-16.9729E-3	-56.4958E-12	869.497E-3	-25.8076E-3
-1.89845E-3	-57.0714E-12	882.258E-3	-7.88791E-3	-56.9779E-12	869.051E-3	-21.8800E-3
-1.90345E-3	-57.3441E-12	898.045E-3	-5.01838E-3	-57.4192E-12	868.313E-3	-29.9732E-3
-1.90845E-3	-57.5540E-12	906.275E-3	1.19942E-3	-58.1203E-12	851.556E-3	-26.8193E-3
-1.91346E-3	-57.8262E-12	886.127E-3	-3.85506E-3	-58.3311E-12	853.494E-3	-7.63729E-3
-1.91846E-3	-58.6189E-12	878.200E-3	-26.4901E-3	-58.7061E-12	869.941E-3	-1.19850E-3
-1.92346E-3	-59.3590E-12	876.675E-3	-26.4728E-3	-58.9170E-12	857.966E-3	-10.6643E-3
-1.92846E-3	-59.7656E-12	866.184E-3	-3.35448E-3	-59.0873E-12	837.008E-3	-15.4745E-3
-1.93347E-3	-60.4403E-12	873.342E-3	7.05836E-3	-59.4417E-12	836.346E-3	-17.2135E-3
-1.93847E-3	-61.0480E-12	885.907E-3	1.38216E-3	-59.4193E-12	835.944E-3	-22.5305E-3
-1.94347E-3	-61.4416E-12	887.402E-3	-11.6970E-3	-59.4622E-12	829.910E-3	-22.8495E-3
-1.94847E-3	-61.6899E-12	887.564E-3	-27.1884E-3	-59.4982E-12	838.330E-3	-28.2632E-3
-1.95348E-3	-62.2463E-12	886.878E-3	-23.4636E-3	-59.4686E-12	848.270E-3	-24.9365E-3
-1.95848E-3	-62.4737E-12	880.918E-3	-4.44315E-3	-59.7065E-12	842.761E-3	-1.23567E-3
-1.96348E-3	-62.3881E-12	870.539E-3	5.47831E-3	-59.9248E-12	830.887E-3	7.95640E-3
-1.96848E-3	-62.4110E-12	867.101E-3	565.726E-6	-60.0140E-12	820.963E-3	-6.58910E-3
-1.97349E-3	-63.0261E-12	862.446E-3	-15.2087E-3	-60.4024E-12	824.054E-3	-18.5304E-3
-1.97849E-3	-62.8061E-12	845.090E-3	-21.0449E-3	-60.9792E-12	841.264E-3	-26.8100E-3
-1.98349E-3	-62.2950E-12	828.098E-3	-7.42709E-3	-61.4118E-12	847.602E-3	-30.6060E-3
-1.98849E-3	-62.6255E-12	830.520E-3	-535.540E-6	-62.0693E-12	844.112E-3	-19.0758E-3
-1.99350E-3	-62.7422E-12	850.496E-3	-21.3585E-3	-62.6384E-12	840.373E-3	-15.3262E-3
-1.99850E-3	-62.7608E-12	864.310E-3	-33.2530E-3	-63.3644E-12	831.364E-3	-36.2869E-3
-2.00350E-3	-63.0370E-12	856.102E-3	-22.9877E-3	-63.8579E-12	833.474E-3	-38.1065E-3
-2.00850E-3	-63.4985E-12	834.481E-3	-28.2957E-3	-64.2373E-12	841.096E-3	-13.4261E-3
-2.01351E-3	-63.5347E-12	820.137E-3	-41.9502E-3	-64.8873E-12	829.649E-3	-6.34259E-3
-2.01851E-3	-64.4194E-12	820.770E-3	-41.7790E-3	-65.3147E-12	814.961E-3	-2.13885E-3
-2.02351E-3	-64.6474E-12	830.541E-3	-37.7766E-3	-65.6085E-12	819.516E-3	-5.37956E-3
-2.02851E-3	-64.8895E-12	830.711E-3	-33.8751E-3	-65.6357E-12	827.742E-3	-34.1393E-3
-2.03352E-3	-65.2748E-12	820.522E-3	-28.2893E-3	-65.6638E-12	830.167E-3	-41.8701E-3
-2.03852E-3	-65.7314E-12	815.783E-3	-20.2842E-3	-66.0118E-12	833.520E-3	-32.9202E-3
-2.04352E-3	-65.8893E-12	822.862E-3	-19.2247E-3	-66.2665E-12	833.816E-3	-40.8464E-3
-2.04852E-3	-66.0883E-12	826.457E-3	-34.5075E-3	-66.3672E-12	830.996E-3	-40.7970E-3
-2.05353E-3	-66.4657E-12	817.997E-3	-40.9543E-3	-66.4746E-12	830.905E-3	-32.8403E-3
-2.05853E-3	-66.2240E-12	819.519E-3	-19.7204E-3	-66.7642E-12	825.019E-3	-30.8424E-3
-2.06353E-3	-66.5972E-12	830.040E-3	478.062E-6	-66.8293E-12	818.051E-3	-21.1701E-3
-2.06853E-3	-66.7106E-12	826.227E-3	-572.457E-6	-66.9113E-12	821.896E-3	-8.67928E-3
-2.07354E-3	-66.6175E-12	811.692E-3	-8.35347E-3	-67.6002E-12	822.830E-3	-11.1150E-3
-2.07854E-3	-66.8820E-12	796.262E-3	-7.65768E-3	-68.1695E-12	811.933E-3	-16.3595E-3
-2.08354E-3	-66.7662E-12	786.085E-3	154.314E-6	-68.2396E-12	808.090E-3	-12.2884E-3
-2.08854E-3	-66.5602E-12	793.313E-3	4.99366E-3	-68.5014E-12	813.163E-3	-18.6002E-3
-2.09355E-3	-67.2139E-12	803.375E-3	-2.50989E-3	-69.0438E-12	800.372E-3	-33.2955E-3
-2.09855E-3	-67.1802E-12	798.246E-3	-26.0600E-3	-69.4774E-12	788.158E-3	-39.2088E-3
-2.10355E-3	-67.2878E-12	783.554E-3	-30.7319E-3	-69.8172E-12	796.975E-3	-49.9675E-3
-2.10855E-3	-68.1133E-12	774.572E-3	-4.98745E-3	-69.9664E-12	812.632E-3	-52.7027E-3
-2.11356E-3	-68.7604E-12	776.825E-3	6.52662E-3	-70.2061E-12	819.238E-3	-32.0794E-3
-2.11856E-3	-68.8650E-12	784.553E-3	-582.389E-6	-70.3678E-12	806.751E-3	-24.4352E-3
-2.12356E-3	-69.4979E-12	788.322E-3	-6.86789E-3	-70.6680E-12	791.942E-3	-29.5206E-3
-2.12856E-3	-69.8314E-12	774.032E-3	-14.1406E-3	-71.0189E-12	796.057E-3	-27.3517E-3
-2.13357E-3	-70.4064E-12	766.859E-3	-22.8492E-3	-71.1953E-12	805.541E-3	-33.2473E-3
-2.13857E-3	-70.5276E-12	772.759E-3	-20.5187E-3	-71.0305E-12	800.024E-3	-46.1374E-3
-2.14357E-3	-70.8009E-12	774.396E-3	-11.1699E-3	-70.9777E-12	783.357E-3	-43.1433E-3
-2.14857E-3	-71.1861E-12	781.957E-3	-13.0858E-3	-71.0977E-12	776.880E-3	-24.8405E-3
-2.15358E-3	-71.7049E-12	786.991E-3	-7.09482E-3	-71.4495E-12	782.236E-3	-12.4265E-3
-2.15858E-3	-72.2106E-12	788.990E-3	10.3496E-3	-71.5422E-12	783.968E-3	-7.30619E-3
-2.16358E-3	-72.5006E-12	790.707E-3	6.21770E-3	-72.0672E-12	785.349E-3	1.46529E-3
-2.16858E-3	-72.9297E-12	797.224E-3	-13.3368E-3	-72.5364E-12	778.690E-3	7.20353E-3
-2.17359E-3	-73.4157E-12	805.823E-3	-18.9104E-3	-72.8485E-12	768.243E-3	2.94407E-3
-2.17859E-3	-73.0842E-12	795.888E-3	-11.1780E-3	-72.7559E-12	784.397E-3	-1.79539E-3
-2.18359E-3	-73.3612E-12	781.370E-3	-5.14804E-3	-73.3178E-12	806.877E-3	1.92573E-3
-2.18859E-3	-74.1703E-12	785.597E-3	-13.7150E-3	-72.9333E-12	804.594E-3	11.1176E-3
-2.19360E-3	-74.1260E-12	794.366E-3	-32.3102E-3	-72.9777E-12	791.225E-3	10.8396E-3
-2.19860E-3	-73.9006E-12	787.675E-3	-32.6863E-3	-73.3818E-12	770.631E-3	-11.4590E-3
-2.20360E-3	-74.9136E-12	766.460E-3	-19.4991E-3	-72.9320E-12	748.531E-3	-22.3925E-3
-2.20860E-3	-74.8268E-12	757.443E-3	-30.0682E-3	-73.2314E-12	746.242E-3	-15.5464E-3
-2.21361E-3	-74.7319E-12	771.423E-3	-42.1379E-3	-73.7408E-12	760.693E-3	-21.4745E-3
-2.21861E-3	-74.8333E-12	780.783E-3	-29.0050E-3	-73.7029E-12	763.080E-3	-21.2638E-3
-2.22361E-3	-75.3831E-12	783.409E-3	-25.8464E-3	-74.1475E-12	758.301E-3	-27.2184E-3
-2.22861E-3	-75.3394E-12	784.546E-3	-26.4019E-3	-74.8817E-12	763.162E-3	-36.9320E-3
-2.23362E-3	-75.8451E-12	770.942E-3	-13.1235E-3	-75.2988E-12	770.849E-3	-19.0111E-3
-2.23862E-3	-76.2766E-12	762.368E-3	-9.30193E-3	-75.9587E-12	784.451E-3	-5.40517E-3
-2.24362E-3	-76.3894E-12	767.144E-3	-15.2700E-3	-76.2900E-12	787.540E-3	-8.96009E-3
-2.24862E-3	-77.0032E-12	756.147E-3	-14.3323E-3	-76.5802E-12	773.650E-3	-19.0548E-3
-2.25363E-3	-77.3525E-12	742.030E-3	-17.5820E-3	-76.8613E-12	774.828E-3	-29.9785E-3
-2.25863E-3	-77.1569E-12	751.476E-3	-22.7024E-3	-77.5975E-12	776.879E-3	-29.7369E-3
-2.26363E-3	-77.4064E-12	766.643E-3	-8.60916E-3	-77.9423E-12	766.665E-3	-23.7507E-3
-2.26863E-3	-78.0400E-12	772.938E-3	3.32411E-3	-77.6423E-12	759.170E-3	-13.3437E-3
-2.27364E-3	-78.0321E-12	773.939E-3	-901.891E-6	-77.8642E-12	742.610E-3	-8.78958E-3
-2.27864E-3	-77.7355E-12	768.787E-3	-15.9460E-3	-77.9862E-12	729.092E-3	-12.8491E-3
-2.28364E-3	-78.8089E-12	756.009E-3	-32.5041E-3	-77.7420E-12	735.211E-3	-10.5241E-3
-2.28864E-3	-78.7411E-12	753.443E-3	-28.0118E-3	-77.7027E-12	745.733E-3	-3.78419E-3
-2.29365E-3	-78.6062E-12	766.209E-3	-7.71330E-3	-77.7590E-12	741.275E-3	-273.385E-6
-2.29865E-3	-78.8185E-12	772.089E-3	-8.74374E-3	-77.7895E-12	736.286E-3	2.01358E-3
-2.30365E-3	-79.3411E-12	771.334E-3	-19.4815E-3	-77.7536E-12	740.094E-3	-10.5058E-3
-2.30865E-3	-78.7881E-12	765.939E-3	-17.5364E-3	-78.4283E-12	736.440E-3	-27.5444E-3
-2.31366E-3	-78.6380E-12	750.054E-3	-24.5765E-3	-79.1119E-12	732.422E-3	-21.7291E-3
-2.31866E-3	-79.0758E-12	743.798E-3	-25.7904E-3	-79.0527E-12	736.161E-3	-11.5037E-3
-2.32366E-3	-79.2518E-12	738.582E-3	-17.3633E-3	-79.9567E-12	737.359E-3	-9.83806E-3
-2.32866E-3	-79.2837E-12	725.939E-3	-25.1221E-3	-81.2174E-12	742.636E-3	-8.89131E-3
-2.33367E-3	-79.9727E-12	724.731E-3	-27.8327E-3	-82.2707E-12	757.386E-3	-15.6804E-3
-2.33867E-3	-80.5345E-12	725.151E-3	-12.7519E-3	-82.3374E-12	758.166E-3	-27.8185E-3
-2.34367E-3	-81.0845E-12	714.781E-3	-6.34889E-3	-82.9248E-12	757.382E-3	-23.1345E-3
-2.34867E-3	-81.1380E-12	714.799E-3	-11.2107E-3	-83.6640E-12	772.086E-3	-518.938E-6
-2.35368E-3	-81.5431E-12	730.764E-3	-11.8865E-3	-83.7422E-12	765.064E-3	2.72559E-3
-2.35868E-3	-82.1062E-12	738.006E-3	-12.2478E-3	-83.9687E-12	738.434E-3	-26.6638E-3
-2.36368E-3	-82.3366E-12	742.708E-3	-26.5891E-3	-83.7868E-12	743.773E-3	-47.8733E-3
-2.36868E-3	-82.6084E-12	751.275E-3	-29.6532E-3	-83.7984E-12	754.565E-3	-38.7748E-3
-2.37369E-3	-83.1154E-12	745.791E-3	-17.4156E-3	-84.1415E-12	730.982E-3	-20.2156E-3
-2.37869E-3	-83.0971E-12	735.847E-3	-19.9205E-3	-83.4203E-12	718.158E-3	-21.4431E-3
-2.38369E-3	-83.7644E-12	733.198E-3	-11.2536E-3	-83.1378E-12	721.608E-3	-40.2105E-3
-2.38869E-3	-84.0510E-12	728.426E-3	7.98730E-3	-82.9616E-12	711.527E-3	-34.9195E-3
-2.39370E-3	-83.8850E-12	738.224E-3	651.690E-6	-82.9488E-12	711.178E-3	-7.87982E-3
-2.39870E-3	-84.0917E-12	756.345E-3	-10.8172E-3	-83.3054E-12	732.833E-3	-127.276E-6
-2.40370E-3	-84.8021E-12	753.272E-3	-11.7927E-3	-83.6467E-12	747.300E-3	-2.86782E-3
-2.40870E-3	-85.1069E-12	740.594E-3	-16.3690E-3	-84.1248E-12	753.396E-3	-1.75486E-3
-2.41371E-3	-84.5959E-12	737.455E-3	-6.80098E-3	-84.1520E-12	746.600E-3	-9.07593E-3
-2.41871E-3	-85.0576E-12	733.230E-3	8.43118E-3	-85.0495E-12	722.086E-3	-14.1486E-3
-2.42371E-3	-85.0666E-12	727.720E-3	5.69373E-3	-85.7976E-12	712.197E-3	-6.86365E-3
-2.42871E-3	-84.8517E-12	742.684E-3	-7.05288E-3	-86.5641E-12	712.114E-3	-14.7398E-3
-2.43372E-3	-85.1611E-12	760.797E-3	-17.0311E-3	-86.4364E-12	713.841E-3	-32.7643E-3
-2.43872E-3	-85.0303E-12	739.021E-3	-21.3544E-3	-87.1674E-12	727.295E-3	-24.1083E-3
-2.44372E-3	-84.9329E-12	706.007E-3	-20.7124E-3	-87.9069E-12	735.460E-3	-8.12221E-3
-2.44872E-3	-85.5237E-12	712.410E-3	-8.82216E-3	-87.7005E-12	721.421E-3	-3.52432E-3
-2.45373E-3	-86.2417E-12	732.878E-3	2.98075E-3	-87.6004E-12	705.467E-3	98.3715E-6
-2.45873E-3	-86.3258E-12	728.607E-3	-9.99704E-3	-87.5637E-12	709.636E-3	-4.54792E-3
-2.46373E-3	-86.6408E-12	706.994E-3	-31.4809E-3	-87.2772E-12	718.161E-3	-13.3485E-3
-2.46873E-3	-87.0044E-12	695.893E-3	-35.1099E-3	-87.0299E-12	720.004E-3	-9.20592E-3
-2.47374E-3	-87.7056E-12	718.028E-3	-33.6480E-3	-86.5385E-12	722.541E-3	-7.71063E-3
-2.47874E-3	-88.5795E-12	744.941E-3	-29.6049E-3	-86.7816E-12	718.779E-3	-19.9169E-3
-2.48374E-3	-88.8017E-12	738.044E-3	-25.1788E-3	-86.7797E-12	703.172E-3	-21.1273E-3
-2.48874E-3	-88.8579E-12	735.523E-3	-33.8325E-3	-86.6805E-12	698.688E-3	-14.4583E-3
-2.49375E-3	-89.2510E-12	743.687E-3	-22.8015E-3	-86.8811E-12	699.514E-3	-9.09864E-3
-2.49875E-3	-89.9917E-12	726.013E-3	-1.85421E-3	-87.4310E-12	692.091E-3	-937.875E-6
-2.50375E-3	-89.9091E-12	725.255E-3	-15.8174E-3	-87.4855E-12	696.989E-3	394.863E-6
-2.50875E-3	-89.4958E-12	753.638E-3	-32.0290E-3	-87.4936E-12	716.189E-3	-12.1526E-3
-2.51376E-3	-89.2935E-12	755.873E-3	-24.7460E-3	-87.9791E-12	718.535E-3	-27.2629E-3
-2.51876E-3	-89.3424E-12	735.311E-3	-9.97678E-3	-88.5190E-12	697.830E-3	-30.2570E-3
-2.52376E-3	-89.0157E-12	729.442E-3	-1.91369E-3	-89.2795E-12	682.764E-3	-21.7923E-3
-2.52876E-3	-88.6936E-12	731.895E-3	-14.5225E-3	-89.2956E-12	690.339E-3	-8.14103E-3
-2.53377E-3	-88.9531E-12	724.630E-3	-32.2193E-3	-89.7219E-12	718.695E-3	-6.30739E-3
-2.53877E-3	-89.4330E-12	717.579E-3	-20.2644E-3	-90.2422E-12	739.281E-3	-26.6526E-3
-2.54377E-3	-89.6441E-12	708.667E-3	470.694E-6	-90.0153E-12	725.567E-3	-30.4340E-3
-2.54877E-3	-90.0804E-12	703.366E-3	-7.28939E-3	-90.3577E-12	707.803E-3	-6.98351E-3
-2.55378E-3	-90.6853E-12	714.114E-3	-20.2439E-3	-90.5796E-12	700.948E-3	-434.317E-6
-2.55878E-3	-91.4617E-12	719.520E-3	-16.4518E-3	-91.0416E-12	680.238E-3	-4.81893E-3
-2.56378E-3	-91.7673E-12	713.427E-3	-20.1023E-3	-90.9335E-12	678.924E-3	-8.54379E-3
-2.56878E-3	-92.2965E-12	720.008E-3	-25.4350E-3	-91.3715E-12	705.018E-3	-12.0878E-3
-2.57379E-3	-92.7721E-12	727.301E-3	-17.7352E-3	-91.8687E-12	710.620E-3	-7.67386E-3
-2.57879E-3	-92.7573E-12	716.492E-3	-24.5304E-3	-92.4262E-12	705.169E-3	-5.62299E-3
-2.58379E-3	-93.0606E-12	714.606E-3	-33.6996E-3	-93.1692E-12	710.802E-3	-22.5569E-3
-2.58879E-3	-93.2142E-12	711.924E-3	-23.2536E-3	-93.4827E-12	719.053E-3	-36.4569E-3
-2.59380E-3	-93.0091E-12	696.214E-3	-21.0646E-3	-93.3734E-12	726.271E-3	-27.2916E-3
-2.59880E-3	-92.9408E-12	706.399E-3	-24.7395E-3	-94.7034E-12	724.292E-3	-22.5626E-3
-2.60380E-3	-93.1694E-12	725.486E-3	-13.1644E-3	-94.6162E-12	712.533E-3	-22.4265E-3
-2.60880E-3	-93.4443E-12	716.237E-3	-5.02468E-3	-94.9093E-12	722.538E-3	-20.3912E-3
-2.61381E-3	-93.8060E-12	700.905E-3	-5.65522E-3	-95.0624E-12	745.851E-3	-25.3446E-3
-2.61881E-3	-93.6099E-12	688.081E-3	-9.51542E-3	-95.0907E-12	742.295E-3	-22.7840E-3
-2.62381E-3	-93.5608E-12	683.427E-3	-27.8965E-3	-95.1611E-12	731.941E-3	-13.7879E-3
-2.62881E-3	-94.2353E-12	696.457E-3	-36.3793E-3	-95.4550E-12	726.841E-3	-15.5598E-3
-2.63382E-3	-94.2562E-12	701.959E-3	-24.0490E-3	-95.2716E-12	698.341E-3	-13.1336E-3
-2.63882E-3	-94.1568E-12	688.298E-3	-12.8681E-3	-96.0340E-12	682.771E-3	-5.55931E-3
-2.64382E-3	-94.6425E-12	675.010E-3	-10.1949E-3	-96.3711E-12	715.817E-3	-4.60693E-3
-2.64882E-3	-95.5155E-12	677.873E-3	-16.5579E-3	-96.5877E-12	742.455E-3	-11.6678E-3
-2.65383E-3	-95.8621E-12	682.572E-3	-19.2420E-3	-97.2682E-12	731.722E-3	-11.9714E-3
-2.65883E-3	-96.0421E-12	682.243E-3	-19.1095E-3	-98.1679E-12	722.822E-3	-3.20573E-3
-2.66383E-3	-96.6652E-12	693.698E-3	-27.8376E-3	-98.6674E-12	735.230E-3	-6.35613E-3
-2.66883E-3	-96.7837E-12	707.848E-3	-40.9477E-3	-99.1977E-12	756.022E-3	-12.9295E-3
-2.67384E-3	-96.7021E-12	709.069E-3	-52.7140E-3	-99.7845E-12	764.534E-3	-23.4806E-3
-2.67884E-3	-96.9992E-12	708.467E-3	-48.0521E-3	-99.8620E-12	741.706E-3	-37.4589E-3
-2.68384E-3	-97.1441E-12	703.445E-3	-24.9769E-3	-99.5914E-12	707.097E-3	-29.0662E-3
-2.68884E-3	-97.5037E-12	690.809E-3	-16.2128E-3	-99.6215E-12	699.216E-3	-8.47962E-3
-2.69385E-3	-97.4074E-12	686.458E-3	-26.7762E-3	-99.7987E-12	709.566E-3	-1.62416E-3
-2.69885E-3	-97.6398E-12	697.508E-3	-43.2403E-3	-99.2232E-12	709.954E-3	-9.72243E-3
-2.70385E-3	-97.6341E-12	705.536E-3	-54.0289E-3	-98.7299E-12	706.244E-3	-14.5903E-3
-2.70885E-3	-97.7629E-12	702.046E-3	-37.9794E-3	-98.6067E-12	700.182E-3	-11.1964E-3
-2.71386E-3	-98.3398E-12	701.924E-3	-26.4445E-3	-98.7204E-12	674.062E-3	-5.54596E-3
-2.71886E-3	-98.4091E-12	699.132E-3	-28.2978E-3	-98.4776E-12	660.849E-3	-11.7230E-3
-2.72386E-3	-98.7811E-12	686.279E-3	-18.9677E-3	-98.1009E-12	674.531E-3	-39.4777E-3
-2.72886E-3	-99.3486E-12	673.052E-3	-24.5415E-3	-98.3355E-12	669.715E-3	-39.6803E-3
-2.73387E-3	-99.5872E-12	684.909E-3	-39.2076E-3	-98.8890E-12	663.763E-3	-15.3111E-3
-2.73887E-3	-99.3973E-12	710.405E-3	-27.1879E-3	-98.8492E-12	681.438E-3	-21.9862E-3
-2.74387E-3	-99.6248E-12	701.954E-3	-18.1366E-3	-99.1748E-12	695.038E-3	-41.2974E-3
-2.74887E-3	-100.258E-12	674.880E-3	-29.1432E-3	-99.7518E-12	698.060E-3	-33.1655E-3
-2.75388E-3	-100.463E-12	678.453E-3	-28.3642E-3	-100.891E-12	692.975E-3	-13.6877E-3
-2.75888E-3	-100.530E-12	701.627E-3	-7.24375E-3	-101.315E-12	677.709E-3	-14.3569E-3
-2.76388E-3	-101.471E-12	713.406E-3	3.33999E-3	-101.487E-12	679.035E-3	-13.7333E-3
-2.76888E-3	-101.354E-12	712.137E-3	-15.5350E-3	-102.903E-12	704.549E-3	-12.9473E-3
-2.77389E-3	-101.950E-12	704.764E-3	-22.8345E-3	-102.836E-12	714.540E-3	-18.7683E-3
-2.77889E-3	-101.823E-12	699.871E-3	-11.9326E-3	-102.281E-12	706.089E-3	-7.58546E-3
-2.78389E-3	-102.286E-12	695.558E-3	-22.7490E-3	-102.336E-12	689.080E-3	-7.33096E-3
-2.78889E-3	-102.637E-12	687.794E-3	-39.7861E-3	-102.756E-12	664.257E-3	-17.5887E-3
-2.79390E-3	-102.335E-12	670.663E-3	-36.2950E-3	-102.176E-12	658.576E-3	-10.8116E-3
-2.79890E-3	-102.337E-12	662.766E-3	-31.3157E-3	-102.302E-12	668.707E-3	-20.4439E-3
-2.80390E-3	-103.013E-12	682.596E-3	-34.3239E-3	-102.328E-12	671.984E-3	-33.0290E-3
-2.80890E-3	-103.220E-12	707.611E-3	-44.0223E-3	-101.552E-12	662.030E-3	-12.8192E-3
-2.81391E-3	-103.106E-12	705.726E-3	-51.6143E-3	-101.280E-12	652.320E-3	-434.030E-6
-2.81891E-3	-103.099E-12	683.478E-3	-39.3695E-3	-101.294E-12	667.604E-3	-7.91385E-3
-2.82391E-3	-103.909E-12	666.723E-3	-28.6694E-3	-101.638E-12	683.514E-3	-14.7142E-3
-2.82891E-3	-103.926E-12	671.573E-3	-21.7604E-3	-101.188E-12	678.718E-3	-22.6243E-3
-2.83392E-3	-104.136E-12	698.462E-3	-6.51365E-3	-101.742E-12	672.876E-3	-21.3614E-3
-2.83892E-3	-104.139E-12	707.290E-3	-7.44618E-3	-102.287E-12	673.068E-3	-19.6693E-3
-2.84392E-3	-104.071E-12	691.802E-3	-13.2150E-3	-102.971E-12	687.668E-3	-21.6404E-3
-2.84892E-3	-104.008E-12	680.139E-3	7.27341E-3	-103.779E-12	698.423E-3	-23.6836E-3
-2.85393E-3	-104.304E-12	677.819E-3	24.1844E-3	-104.615E-12	687.121E-3	-31.7590E-3
-2.85893E-3	-104.421E-12	682.408E-3	10.4296E-3	-105.107E-12	682.336E-3	-28.7633E-3
-2.86393E-3	-104.863E-12	680.514E-3	-7.92864E-3	-105.539E-12	688.988E-3	-21.2276E-3
-2.86893E-3	-104.964E-12	673.849E-3	-21.4934E-3	-106.150E-12	689.820E-3	-16.7650E-3
-2.87394E-3	-105.166E-12	681.080E-3	-31.0470E-3	-106.735E-12	698.588E-3	-8.13199E-3
-2.87894E-3	-105.445E-12	693.583E-3	-32.7469E-3	-106.725E-12	707.280E-3	-10.6415E-3
-2.88394E-3	-105.788E-12	687.851E-3	-28.6619E-3	-107.290E-12	712.887E-3	-11.3580E-3
-2.88894E-3	-106.364E-12	692.339E-3	-18.7538E-3	-107.512E-12	723.152E-3	-11.9051E-3
-2.89395E-3	-106.660E-12	704.720E-3	-1.09379E-3	-107.178E-12	712.445E-3	-27.9449E-3
-2.89895E-3	-107.294E-12	700.339E-3	3.63149E-3	-107.400E-12	689.693E-3	-23.9795E-3
-2.90395E-3	-107.941E-12	700.858E-3	-20.4866E-3	-107.684E-12	681.217E-3	-2.42318E-3
-2.90895E-3	-108.153E-12	704.942E-3	-39.4120E-3	-107.618E-12	680.371E-3	-4.73902E-3
-2.91396E-3	-108.657E-12	689.693E-3	-25.7403E-3	-108.095E-12	680.749E-3	-29.8874E-3
-2.91896E-3	-108.707E-12	672.577E-3	-10.5067E-3	-108.219E-12	688.860E-3	-33.1672E-3
-2.92396E-3	-108.827E-12	676.262E-3	-21.1129E-3	-108.625E-12	701.764E-3	-16.4710E-3
-2.92896E-3	-108.371E-12	690.818E-3	-27.2408E-3	-108.892E-12	700.714E-3	-18.9795E-3
-2.93397E-3	-108.627E-12	698.702E-3	-27.9377E-3	-109.349E-12	696.918E-3	-26.9799E-3
-2.93897E-3	-108.728E-12	694.416E-3	-45.0331E-3	-109.272E-12	703.553E-3	-22.0035E-3
-2.94397E-3	-108.376E-12	691.225E-3	-52.0771E-3	-110.200E-12	688.931E-3	-18.7466E-3
-2.94897E-3	-108.096E-12	694.151E-3	-32.0687E-3	-110.833E-12	674.282E-3	-18.9633E-3
-2.95398E-3	-108.251E-12	696.519E-3	-15.7552E-3	-111.068E-12	689.875E-3	-21.8308E-3
-2.95898E-3	-108.943E-12	703.614E-3	-22.3313E-3	-110.782E-12	690.442E-3	-26.0308E-3
-2.96398E-3	-109.347E-12	715.697E-3	-30.4874E-3	-112.065E-12	681.541E-3	-26.1830E-3
-2.96898E-3	-110.139E-12	709.621E-3	-34.8537E-3	-112.062E-12	691.575E-3	-25.6002E-3
-2.97399E-3	-110.713E-12	691.675E-3	-44.7368E-3	-112.323E-12	679.217E-3	-36.0460E-3
-2.97899E-3	-111.617E-12	678.513E-3	-37.6036E-3	-112.574E-12	664.194E-3	-35.3654E-3
-2.98399E-3	-111.756E-12	667.832E-3	-19.0975E-3	-112.570E-12	679.448E-3	-14.5102E-3
-2.98899E-3	-112.481E-12	671.350E-3	-20.9551E-3	-112.688E-12	688.422E-3	-6.94551E-3
-2.99400E-3	-112.758E-12	675.611E-3	-27.2053E-3	-112.826E-12	682.746E-3	-12.4580E-3
-2.99900E-3	-113.349E-12	676.813E-3	-26.3126E-3	-112.847E-12	681.190E-3	-19.7505E-3
-3.00400E-3	-114.007E-12	693.067E-3	-16.8763E-3	-113.452E-12	675.111E-3	-26.3970E-3
-3.00900E-3	-114.030E-12	703.599E-3	-4.44046E-3	-113.397E-12	658.628E-3	-33.3952E-3
-3.01401E-3	-113.187E-12	697.733E-3	-15.3027E-3	-112.892E-12	655.691E-3	-29.0724E-3
-3.01901E-3	-113.777E-12	684.516E-3	-25.3585E-3	-113.157E-12	662.870E-3	-15.1925E-3
-3.02401E-3	-113.862E-12	666.773E-3	-16.5723E-3	-113.111E-12	660.182E-3	-14.8313E-3
-3.02901E-3	-112.766E-12	670.372E-3	-18.7589E-3	-112.555E-12	664.339E-3	-22.1102E-3
-3.03402E-3	-112.594E-12	685.501E-3	-28.8606E-3	-112.626E-12	681.317E-3	-17.4185E-3
-3.03902E-3	-112.479E-12	672.406E-3	-38.9092E-3	-112.583E-12	680.651E-3	-2.08783E-3
-3.04402E-3	-111.903E-12	658.506E-3	-45.5460E-3	-112.600E-12	673.543E-3	-1.21662E-3
-3.04902E-3	-112.281E-12	656.199E-3	-29.5440E-3	-112.310E-12	682.191E-3	-7.86995E-3
-3.05403E-3	-112.423E-12	654.170E-3	-9.94250E-3	-112.557E-12	675.396E-3	-8.67414E-3
-3.05903E-3	-112.885E-12	669.673E-3	-11.3314E-3	-113.452E-12	656.202E-3	-24.1301E-3
-3.06403E-3	-112.940E-12	685.877E-3	-28.6767E-3	-113.599E-12	652.502E-3	-42.9978E-3
-3.06903E-3	-113.762E-12	679.585E-3	-40.4467E-3	-113.411E-12	656.993E-3	-38.8126E-3
-3.07404E-3	-114.057E-12	668.180E-3	-36.3854E-3	-113.630E-12	668.368E-3	-28.0410E-3
-3.07904E-3	-114.424E-12	658.061E-3	-16.8411E-3	-114.592E-12	675.802E-3	-24.4354E-3
-3.08404E-3	-114.992E-12	650.307E-3	4.30996E-3	-115.198E-12	677.227E-3	-15.9012E-3
-3.08904E-3	-115.167E-12	657.896E-3	-16.6313E-3	-114.937E-12	695.692E-3	-545.420E-6
-3.09405E-3	-115.561E-12	671.946E-3	-51.8217E-3	-115.591E-12	706.222E-3	2.13493E-3
-3.09905E-3	-116.017E-12	675.580E-3	-46.8011E-3	-116.691E-12	701.733E-3	-8.69262E-3
-3.10405E-3	-116.251E-12	671.599E-3	-25.4754E-3	-116.931E-12	700.613E-3	-1.47464E-3
-3.10905E-3	-116.317E-12	681.179E-3	-20.4332E-3	-117.038E-12	676.610E-3	5.96875E-3
-3.11406E-3	-117.195E-12	684.375E-3	-24.2302E-3	-117.421E-12	641.134E-3	-13.4398E-3
-3.11906E-3	-117.355E-12	665.766E-3	-29.9678E-3	-117.307E-12	639.700E-3	-32.5481E-3
-3.12406E-3	-117.361E-12	663.191E-3	-26.9686E-3	-116.692E-12	673.596E-3	-40.5662E-3
-3.12906E-3	-117.109E-12	660.518E-3	-11.0468E-3	-116.855E-12	689.276E-3	-39.2205E-3
-3.13407E-3	-117.148E-12	655.316E-3	-17.5905E-3	-116.913E-12	678.856E-3	-24.8229E-3
-3.13907E-3	-117.238E-12	674.672E-3	-31.0169E-3	-116.916E-12	679.800E-3	-17.4136E-3
-3.14407E-3	-117.293E-12	679.887E-3	-24.8608E-3	-116.440E-12	689.440E-3	-28.3579E-3
-3.14907E-3	-116.997E-12	666.183E-3	-24.5471E-3	-116.734E-12	694.217E-3	-39.3639E-3
-3.15408E-3	-117.215E-12	659.888E-3	-22.0981E-3	-116.710E-12	697.053E-3	-40.9507E-3
-3.15908E-3	-117.823E-12	662.294E-3	-7.76671E-3	-117.348E-12	697.889E-3	-24.7804E-3
-3.16408E-3	-117.656E-12	669.300E-3	-9.53796E-3	-117.682E-12	699.294E-3	-3.29109E-3
-3.16908E-3	-118.277E-12	668.074E-3	-14.8945E-3	-118.619E-12	701.546E-3	-5.63609E-3
-3.17409E-3	-119.109E-12	652.813E-3	-2.93368E-3	-119.248E-12	693.184E-3	-28.6844E-3
-3.17909E-3	-118.874E-12	656.123E-3	-7.01436E-3	-120.339E-12	679.321E-3	-25.4420E-3
-3.18409E-3	-119.895E-12	693.750E-3	-31.9183E-3	-121.660E-12	667.669E-3	-5.69503E-3
-3.18909E-3	-120.460E-12	714.981E-3	-45.3444E-3	-122.583E-12	670.963E-3	-17.3506E-3
-3.19410E-3	-121.204E-12	696.801E-3	-47.8178E-3	-122.535E-12	677.700E-3	-31.6848E-3
-3.19910E-3	-121.228E-12	686.332E-3	-38.8932E-3	-123.594E-12	688.619E-3	-29.1733E-3
-3.20410E-3	-122.311E-12	689.321E-3	-11.5307E-3	-123.843E-12	709.780E-3	-25.6127E-3
-3.20910E-3	-122.730E-12	682.304E-3	10.7055E-3	-123.740E-12	709.485E-3	-16.6635E-3
-3.21411E-3	-123.270E-12	688.540E-3	9.05971E-3	-123.922E-12	692.492E-3	-12.3113E-3
-3.21911E-3	-123.188E-12	698.520E-3	-29.2709E-6	-123.495E-12	664.862E-3	-20.4017E-3
-3.22411E-3	-123.609E-12	678.352E-3	-1.35395E-3	-123.553E-12	640.872E-3	-19.3529E-3
-3.22911E-3	-123.833E-12	661.066E-3	-1.24663E-3	-123.657E-12	642.517E-3	-19.1911E-3
-3.23412E-3	-123.858E-12	672.575E-3	7.05886E-3	-122.899E-12	656.280E-3	-31.8493E-3
-3.23912E-3	-123.939E-12	682.015E-3	15.6575E-3	-122.728E-12	666.802E-3	-34.3894E-3
-3.24412E-3	-123.946E-12	685.848E-3	3.71934E-3	-122.783E-12	664.793E-3	-26.2604E-3
-3.24912E-3	-123.861E-12	693.427E-3	-19.7098E-3	-123.145E-12	667.916E-3	-26.4671E-3
-3.25413E-3	-123.878E-12	691.793E-3	-27.8208E-3	-123.335E-12	674.888E-3	-16.5514E-3
-3.25913E-3	-123.303E-12	683.027E-3	-29.6117E-3	-123.744E-12	680.973E-3	3.62561E-3
-3.26413E-3	-123.165E-12	687.690E-3	-38.3296E-3	-123.936E-12	689.992E-3	-3.01292E-3
-3.26913E-3	-123.598E-12	690.603E-3	-43.6343E-3	-125.055E-12	687.972E-3	-15.7419E-3
-3.27414E-3	-123.540E-12	682.006E-3	-49.1590E-3	-125.223E-12	674.410E-3	-9.95938E-3
-3.27914E-3	-123.310E-12	689.141E-3	-44.8977E-3	-126.343E-12	661.750E-3	-3.55017E-3
-3.28414E-3	-123.933E-12	686.926E-3	-27.3566E-3	-127.292E-12	662.545E-3	-17.2465E-3
-3.28914E-3	-124.709E-12	662.988E-3	-18.6195E-3	-126.995E-12	661.058E-3	-33.4104E-3
-3.29415E-3	-124.577E-12	658.881E-3	-9.33978E-3	-127.886E-12	660.731E-3	-28.7330E-3
-3.29915E-3	-125.183E-12	669.983E-3	180.367E-6	-128.255E-12	655.651E-3	-19.7731E-3
-3.30415E-3	-125.722E-12	669.484E-3	-13.6152E-3	-127.914E-12	645.915E-3	-15.5864E-3
-3.30915E-3	-126.119E-12	673.119E-3	-31.4126E-3	-128.246E-12	662.693E-3	-12.7609E-3
-3.31416E-3	-126.576E-12	673.863E-3	-23.6884E-3	-128.185E-12	675.563E-3	-12.4769E-3
-3.31916E-3	-126.763E-12	665.547E-3	-10.6559E-3	-127.613E-12	655.885E-3	-23.0643E-3
-3.32416E-3	-126.776E-12	665.556E-3	-13.9244E-3	-126.953E-12	645.252E-3	-28.7818E-3
-3.32916E-3	-127.399E-12	663.528E-3	-16.6358E-3	-127.311E-12	649.602E-3	-15.9727E-3
-3.33417E-3	-127.228E-12	670.390E-3	-7.73600E-3	-126.719E-12	650.578E-3	-4.48016E-3
-3.33917E-3	-126.913E-12	685.123E-3	-5.33800E-3	-126.016E-12	655.762E-3	-8.76679E-3
-3.34417E-3	-126.771E-12	669.509E-3	-26.6781E-3	-126.078E-12	657.276E-3	-17.5094E-3
-3.34917E-3	-126.814E-12	641.764E-3	-47.9977E-3	-126.111E-12	652.772E-3	-14.5168E-3
-3.35418E-3	-126.484E-12	642.083E-3	-35.3150E-3	-125.639E-12	659.728E-3	-2.61244E-3
-3.35918E-3	-126.258E-12	651.049E-3	-4.36875E-3	-125.557E-12	658.091E-3	-1.54344E-3
-3.36418E-3	-126.684E-12	647.499E-3	-5.89348E-3	-126.490E-12	645.483E-3	-20.3678E-3
-3.36918E-3	-126.246E-12	651.090E-3	-32.0294E-3	-126.721E-12	638.977E-3	-28.5639E-3
-3.37419E-3	-126.468E-12	664.340E-3	-29.8399E-3	-126.955E-12	638.702E-3	-29.9641E-3
-3.37919E-3	-127.508E-12	660.756E-3	-11.1029E-3	-127.174E-12	653.064E-3	-43.1711E-3
-3.38419E-3	-127.795E-12	644.651E-3	-2.78892E-3	-128.068E-12	670.479E-3	-31.6611E-3
-3.38919E-3	-128.373E-12	639.086E-3	2.64104E-3	-128.284E-12	679.505E-3	-15.0770E-3
-3.39420E-3	-129.018E-12	647.744E-3	6.15451E-3	-128.921E-12	674.275E-3	-20.2286E-3
-3.39920E-3	-129.689E-12	657.600E-3	4.66828E-3	-129.349E-12	670.788E-3	-17.5228E-3
-3.40420E-3	-129.634E-12	658.752E-3	4.91449E-3	-130.031E-12	677.043E-3	-18.9885E-3
-3.40920E-3	-129.817E-12	664.658E-3	9.32703E-3	-129.867E-12	669.299E-3	-34.3534E-3
-3.41421E-3	-130.512E-12	685.386E-3	5.43746E-3	-130.657E-12	661.687E-3	-39.5925E-3
-3.41921E-3	-130.897E-12	702.671E-3	-8.20571E-3	-130.923E-12	662.347E-3	-32.3657E-3
-3.42421E-3	-130.827E-12	690.333E-3	-18.2794E-3	-130.838E-12	659.081E-3	-25.1447E-3
-3.42921E-3	-130.937E-12	665.913E-3	-15.0450E-3	-130.556E-12	663.247E-3	-18.3117E-3
-3.43422E-3	-130.877E-12	655.965E-3	-3.30082E-3	-130.690E-12	677.444E-3	-17.4760E-3
-3.43922E-3	-131.602E-12	659.097E-3	-5.11410E-3	-130.236E-12	677.190E-3	-21.3425E-3
-3.44422E-3	-131.787E-12	669.661E-3	-15.8859E-3	-130.747E-12	660.552E-3	-22.8616E-3
-3.44922E-3	-131.330E-12	669.236E-3	-17.2081E-3	-130.066E-12	663.678E-3	-29.5170E-3
-3.45423E-3	-131.534E-12	662.473E-3	-23.8322E-3	-130.351E-12	671.734E-3	-34.9168E-3
-3.45923E-3	-132.158E-12	661.177E-3	-31.0128E-3	-130.624E-12	676.550E-3	-19.3142E-3
-3.46423E-3	-132.032E-12	660.403E-3	-9.35431E-3	-130.882E-12	681.546E-3	6.57063E-3
-3.46923E-3	-132.144E-12	665.857E-3	11.1470E-3	-130.959E-12	669.801E-3	19.3202E-3
-3.47424E-3	-132.005E-12	666.198E-3	-1.24867E-3	-131.193E-12	653.572E-3	23.1083E-3
-3.47924E-3	-132.610E-12	652.926E-3	-15.1331E-3	-131.612E-12	650.648E-3	19.0201E-3
-3.48424E-3	-133.120E-12	656.937E-3	-15.3188E-3	-132.496E-12	652.718E-3	7.98465E-3
-3.48924E-3	-133.424E-12	670.240E-3	-19.7192E-3	-132.861E-12	647.746E-3	-10.5443E-3
-3.49425E-3	-133.547E-12	657.987E-3	-20.2748E-3	-133.716E-12	653.345E-3	-29.1080E-3
-3.49925E-3	-133.792E-12	651.641E-3	-2.10231E-3	-134.327E-12	659.588E-3	-38.3574E-3
-3.50425E-3	-134.345E-12	653.214E-3	20.6638E-3	-135.565E-12	658.723E-3	-28.5529E-3
-3.50925E-3	-134.675E-12	650.462E-3	26.5694E-3	-136.153E-12	664.894E-3	-1.91799E-3
-3.51426E-3	-135.280E-12	661.241E-3	15.8298E-3	-137.083E-12	664.945E-3	1.99679E-3
-3.51926E-3	-135.459E-12	670.869E-3	-241.098E-6	-137.328E-12	656.037E-3	-5.34691E-3
-3.52426E-3	-136.289E-12	675.305E-3	-11.9826E-3	-137.883E-12	653.929E-3	-13.6739E-3
-3.52926E-3	-136.383E-12	668.495E-3	-8.28582E-3	-138.472E-12	653.663E-3	-39.3809E-3
-3.53427E-3	-137.131E-12	654.023E-3	-4.75327E-3	-138.258E-12	664.046E-3	-49.6067E-3
-3.53927E-3	-137.182E-12	660.273E-3	-4.06329E-3	-137.276E-12	683.757E-3	-42.3241E-3
-3.54427E-3	-137.441E-12	673.339E-3	-2.62811E-3	-137.693E-12	689.511E-3	-31.1494E-3
-3.54927E-3	-137.526E-12	668.879E-3	-15.7167E-3	-137.243E-12	683.580E-3	-9.23328E-3
-3.55428E-3	-138.088E-12	665.568E-3	-19.8499E-3	-136.735E-12	678.626E-3	1.83182E-3
-3.55928E-3	-137.830E-12	675.362E-3	-5.15301E-3	-136.194E-12	679.316E-3	-11.0187E-3
-3.56428E-3	-137.622E-12	676.589E-3	-3.04153E-3	-136.070E-12	671.134E-3	-29.3501E-3
-3.56928E-3	-137.272E-12	664.960E-3	-19.4552E-3	-135.843E-12	661.407E-3	-33.9655E-3
-3.57429E-3	-137.614E-12	658.247E-3	-38.1477E-3	-135.197E-12	651.186E-3	-27.4811E-3
-3.57929E-3	-137.314E-12	651.310E-3	-39.5980E-3	-135.425E-12	647.853E-3	-26.8466E-3
-3.58429E-3	-137.923E-12	638.955E-3	-34.3956E-3	-136.412E-12	664.090E-3	-29.9095E-3
-3.58929E-3	-138.745E-12	636.659E-3	-38.1220E-3	-136.291E-12	681.913E-3	-21.5958E-3
-3.59430E-3	-138.401E-12	652.919E-3	-34.9713E-3	-137.362E-12	689.099E-3	-13.3412E-3
-3.59930E-3	-138.359E-12	667.144E-3	-28.3885E-3	-138.568E-12	669.524E-3	-12.0049E-3
-3.60430E-3	-139.079E-12	669.754E-3	-17.0330E-3	-139.492E-12	645.377E-3	-5.53816E-3
-3.60930E-3	-139.583E-12	668.300E-3	-6.66604E-3	-139.466E-12	648.333E-3	-1.73277E-3
-3.61431E-3	-139.374E-12	666.302E-3	-19.3373E-3	-140.759E-12	649.131E-3	2.21961E-3
-3.61931E-3	-140.186E-12	665.273E-3	-31.2697E-3	-140.884E-12	649.630E-3	6.08853E-3
-3.62431E-3	-141.494E-12	656.360E-3	-33.3451E-3	-141.362E-12	676.276E-3	-441.529E-6
-3.62931E-3	-141.688E-12	645.561E-3	-35.7598E-3	-141.670E-12	700.466E-3	-7.84270E-3
-3.63432E-3	-141.980E-12	656.187E-3	-30.6893E-3	-141.511E-12	697.655E-3	-24.1618E-3
-3.63932E-3	-141.865E-12	672.464E-3	-27.0903E-3	-141.476E-12	675.498E-3	-45.1058E-3
-3.64432E-3	-142.175E-12	675.048E-3	-22.1875E-3	-140.668E-12	649.710E-3	-34.5946E-3
-3.64932E-3	-141.788E-12	681.526E-3	-14.5855E-3	-140.615E-12	640.340E-3	-11.8387E-3
-3.65433E-3	-142.438E-12	689.488E-3	-15.0931E-3	-140.176E-12	632.562E-3	-12.7867E-3
-3.65933E-3	-142.038E-12	669.370E-3	-22.1688E-3	-140.293E-12	615.353E-3	-16.9773E-3
-3.66433E-3	-141.257E-12	636.279E-3	-21.3742E-3	-139.439E-12	620.741E-3	-9.26969E-3
-3.66933E-3	-141.073E-12	633.227E-3	-11.7670E-3	-139.927E-12	644.537E-3	-1.39658E-3
-3.67434E-3	-141.041E-12	646.552E-3	-10.4699E-3	-139.881E-12	653.182E-3	14.2904E-3
-3.67934E-3	-140.460E-12	656.757E-3	-6.80955E-3	-139.870E-12	653.842E-3	16.0335E-3
-3.68434E-3	-140.500E-12	647.876E-3	-216.221E-6	-140.866E-12	670.484E-3	-11.7131E-3
-3.68934E-3	-141.250E-12	611.485E-3	-7.96944E-3	-141.505E-12	684.167E-3	-37.9065E-3
-3.69435E-3	-141.309E-12	602.931E-3	-12.0024E-3	-141.369E-12	675.194E-3	-31.3363E-3
-3.69935E-3	-141.487E-12	626.617E-3	-7.58789E-3	-142.725E-12	671.425E-3	-5.84834E-3
-3.70435E-3	-142.664E-12	638.572E-3	-7.48931E-3	-143.379E-12	669.222E-3	-3.51232E-3
-3.70935E-3	-142.674E-12	644.205E-3	-11.7437E-3	-143.787E-12	655.379E-3	-6.63361E-3
-3.71436E-3	-143.175E-12	646.315E-3	-20.3267E-3	-145.093E-12	656.365E-3	-3.06836E-3
-3.71936E-3	-144.155E-12	645.046E-3	-23.5970E-3	-145.902E-12	668.244E-3	-20.4637E-3
-3.72436E-3	-145.313E-12	653.024E-3	-26.1064E-3	-146.257E-12	673.058E-3	-40.8127E-3
-3.72936E-3	-145.280E-12	665.135E-3	-26.4514E-3	-146.563E-12	672.970E-3	-49.8402E-3
-3.73437E-3	-145.278E-12	661.851E-3	-29.9187E-3	-146.908E-12	664.671E-3	-55.4523E-3
-3.73937E-3	-145.765E-12	652.906E-3	-46.0481E-3	-147.015E-12	654.434E-3	-37.9573E-3
-3.74437E-3	-145.778E-12	663.120E-3	-44.5699E-3	-146.668E-12	648.165E-3	-12.4172E-3
-3.74937E-3	-145.625E-12	671.407E-3	-27.1368E-3	-146.537E-12	649.900E-3	-13.6085E-3
-3.75438E-3	-145.276E-12	660.530E-3	-25.3107E-3	-145.800E-12	647.777E-3	-20.5278E-3
-3.75938E-3	-144.912E-12	648.377E-3	-31.9107E-3	-146.053E-12	633.740E-3	-13.1377E-3
-3.76438E-3	-144.678E-12	638.177E-3	-23.0285E-3	-145.315E-12	640.426E-3	-588.963E-6
-3.76938E-3	-144.607E-12	636.522E-3	-13.2661E-3	-145.187E-12	669.377E-3	5.51201E-3
-3.77439E-3	-144.858E-12	655.134E-3	-19.7609E-3	-144.633E-12	682.402E-3	-1.84111E-3
-3.77939E-3	-145.378E-12	667.405E-3	-29.3235E-3	-144.770E-12	678.714E-3	-9.30804E-3
-3.78439E-3	-144.637E-12	659.761E-3	-35.2595E-3	-145.130E-12	679.010E-3	-24.8595E-3
-3.78939E-3	-145.760E-12	662.067E-3	-26.5939E-3	-145.207E-12	670.726E-3	-36.7454E-3
-3.79440E-3	-147.062E-12	660.047E-3	-757.621E-6	-145.365E-12	657.055E-3	-12.4135E-3
-3.79940E-3	-147.310E-12	640.479E-3	-543.090E-6	-146.289E-12	652.972E-3	20.7866E-3
-3.80440E-3	-147.343E-12	647.011E-3	-20.6702E-3	-147.045E-12	653.061E-3	9.65342E-3
-3.80940E-3	-148.814E-12	665.564E-3	-20.1421E-3	-147.965E-12	647.505E-3	-27.5425E-3
-3.81441E-3	-149.363E-12	660.028E-3	-32.8165E-3	-148.489E-12	636.674E-3	-43.6546E-3
-3.81941E-3	-149.646E-12	658.183E-3	-40.3035E-3	-149.430E-12	646.371E-3	-40.3965E-3
-3.82441E-3	-150.705E-12	665.714E-3	-14.9386E-3	-149.821E-12	658.207E-3	-26.8669E-3
-3.82941E-3	-151.344E-12	659.473E-3	-19.2098E-3	-150.869E-12	646.793E-3	-13.4673E-3
-3.83442E-3	-150.459E-12	668.213E-3	-18.1477E-3	-150.916E-12	636.235E-3	-18.4917E-3
-3.83942E-3	-150.392E-12	686.701E-3	14.9936E-3	-151.579E-12	648.629E-3	-30.9134E-3
-3.84442E-3	-151.388E-12	696.003E-3	13.7128E-3	-151.328E-12	666.990E-3	-23.3623E-3
-3.84942E-3	-150.723E-12	700.161E-3	-10.9475E-3	-152.047E-12	662.922E-3	-7.27481E-3
-3.85443E-3	-149.453E-12	679.236E-3	-9.34468E-3	-151.749E-12	645.346E-3	586.836E-6
-3.85943E-3	-150.195E-12	661.108E-3	-915.448E-6	-151.238E-12	639.240E-3	2.56334E-3
-3.86443E-3	-150.399E-12	661.115E-3	-19.4283E-3	-150.623E-12	650.847E-3	6.67474E-3
-3.86943E-3	-149.925E-12	652.071E-3	-36.4916E-3	-150.182E-12	659.006E-3	17.8566E-3
-3.87444E-3	-149.698E-12	628.049E-3	-28.5132E-3	-149.430E-12	643.272E-3	25.9530E-3
-3.87944E-3	-150.520E-12	622.167E-3	-16.7914E-3	-149.070E-12	616.612E-3	30.6929E-3
-3.88444E-3	-149.977E-12	635.087E-3	-10.2261E-3	-148.928E-12	608.464E-3	19.0491E-3
-3.88944E-3	-150.216E-12	623.117E-3	-9.34420E-3	-148.474E-12	618.877E-3	889.587E-6
-3.89445E-3	-150.962E-12	608.547E-3	-16.4203E-3	-148.556E-12	639.005E-3	-2.04740E-3
-3.89945E-3	-151.366E-12	621.452E-3	-25.5418E-3	-149.311E-12	661.800E-3	-366.167E-6
-3.90445E-3	-151.838E-12	633.339E-3	-24.4154E-3	-149.360E-12	654.637E-3	-11.3869E-3
-3.90945E-3	-152.120E-12	630.818E-3	-3.55082E-3	-150.447E-12	627.719E-3	-14.2106E-3
-3.91446E-3	-152.772E-12	633.821E-3	18.9177E-3	-150.842E-12	617.711E-3	8.43455E-3
-3.91946E-3	-153.893E-12	648.084E-3	3.21564E-3	-152.712E-12	629.983E-3	21.2060E-3
-3.92446E-3	-153.033E-12	657.820E-3	-42.3022E-3	-153.387E-12	651.591E-3	22.8108E-3
-3.92946E-3	-152.569E-12	662.506E-3	-57.1434E-3	-153.871E-12	664.460E-3	21.8159E-3
-3.93447E-3	-153.496E-12	657.216E-3	-42.4040E-3	-154.339E-12	670.570E-3	10.6424E-3
-3.93947E-3	-154.708E-12	648.531E-3	-35.2562E-3	-154.774E-12	661.359E-3	6.99908E-3
-3.94447E-3	-154.279E-12	652.282E-3	-29.5953E-3	-155.928E-12	638.041E-3	4.74667E-3
-3.94947E-3	-153.645E-12	654.364E-3	-26.9767E-3	-156.231E-12	638.005E-3	-8.41390E-3
-3.95448E-3	-154.640E-12	663.261E-3	-27.3700E-3	-156.041E-12	661.495E-3	-17.5905E-3
-3.95948E-3	-155.737E-12	683.072E-3	-16.4767E-3	-155.183E-12	664.918E-3	-19.1671E-3
-3.96448E-3	-155.631E-12	673.801E-3	-9.40970E-3	-155.331E-12	639.293E-3	-21.6987E-3
-3.96948E-3	-155.143E-12	656.640E-3	-30.2648E-3	-154.811E-12	632.733E-3	-22.4337E-3
-3.97449E-3	-154.529E-12	669.263E-3	-58.0786E-3	-153.504E-12	643.626E-3	-15.9635E-3
-3.97949E-3	-155.349E-12	673.542E-3	-61.1150E-3	-153.232E-12	636.369E-3	-2.92867E-3
-3.98449E-3	-155.244E-12	667.602E-3	-57.5420E-3	-153.811E-12	627.458E-3	349.330E-6
-3.98949E-3	-155.201E-12	681.053E-3	-54.8526E-3	-153.178E-12	623.663E-3	-8.94216E-3
-3.99450E-3	-154.249E-12	680.199E-3	-27.6254E-3	-152.855E-12	623.918E-3	-24.0781E-3
-3.99950E-3	-154.866E-12	648.503E-3	-12.1951E-3	-154.599E-12	630.300E-3	-41.0811E-3
-4.00450E-3	-155.537E-12	634.132E-3	-31.7020E-3	-154.990E-12	623.422E-3	-32.7987E-3
-4.00950E-3	-157.000E-12	637.827E-3	-35.8860E-3	-154.781E-12	621.989E-3	-11.7535E-3
-4.01451E-3	-155.769E-12	636.401E-3	-27.2438E-3	-156.139E-12	644.950E-3	-6.17718E-3
-4.01951E-3	-157.215E-12	631.862E-3	-26.4361E-3	-157.300E-12	672.060E-3	-3.73622E-3
-4.02451E-3	-157.973E-12	631.292E-3	-18.4085E-3	-157.549E-12	683.222E-3	60.5307E-6
-4.02951E-3	-158.347E-12	641.275E-3	-22.3664E-3	-158.979E-12	671.757E-3	5.76488E-3
-4.03452E-3	-158.758E-12	648.588E-3	-40.0483E-3	-160.555E-12	668.908E-3	-9.03239E-3
-4.03952E-3	-160.006E-12	639.843E-3	-39.6463E-3	-160.896E-12	686.513E-3	-45.1703E-3
-4.04452E-3	-161.021E-12	623.342E-3	-35.0363E-3	-161.357E-12	685.501E-3	-49.1432E-3
-4.04952E-3	-161.240E-12	640.475E-3	-44.0705E-3	-162.198E-12	668.364E-3	-20.9696E-3
-4.05453E-3	-163.128E-12	688.756E-3	-43.9749E-3	-162.331E-12	663.619E-3	-20.5213E-3
-4.05953E-3	-162.495E-12	693.320E-3	-31.7723E-3	-161.941E-12	658.050E-3	-40.5204E-3
-4.06453E-3	-161.005E-12	666.020E-3	-25.2459E-3	-162.030E-12	654.682E-3	-29.0728E-3
-4.06953E-3	-161.975E-12	660.062E-3	-148.995E-6	-162.346E-12	664.788E-3	-22.1800E-3
-4.07454E-3	-161.893E-12	665.753E-3	16.6092E-3	-161.584E-12	668.725E-3	-53.0211E-3
-4.07954E-3	-159.293E-12	677.723E-3	-25.9558E-3	-160.649E-12	669.407E-3	-60.8501E-3
-4.08454E-3	-158.865E-12	682.014E-3	-43.4835E-3	-160.817E-12	674.647E-3	-29.2553E-3
-4.08954E-3	-159.775E-12	656.702E-3	-4.80463E-3	-160.460E-12	668.854E-3	-6.00935E-3
-4.09455E-3	-158.726E-12	639.156E-3	17.8053E-3	-160.389E-12	665.863E-3	1.51276E-3
-4.09955E-3	-157.957E-12	659.017E-3	13.4514E-3	-159.718E-12	682.999E-3	-7.67674E-3
-4.10455E-3	-158.340E-12	662.142E-3	-4.17662E-3	-160.634E-12	673.061E-3	-19.3510E-3
-4.10955E-3	-158.820E-12	645.894E-3	-30.5184E-3	-160.979E-12	630.480E-3	-17.1775E-3
-4.11456E-3	-159.683E-12	644.224E-3	-33.2194E-3	-161.582E-12	614.353E-3	-25.0076E-3
-4.11956E-3	-160.183E-12	638.083E-3	-14.5404E-3	-161.004E-12	635.675E-3	-25.8434E-3
-4.12456E-3	-161.898E-12	642.213E-3	-13.2769E-3	-162.360E-12	656.275E-3	-5.89315E-3
-4.12956E-3	-162.661E-12	668.284E-3	-21.2403E-3	-163.090E-12	653.895E-3	-9.59649E-3
-4.13457E-3	-163.461E-12	679.407E-3	-22.9531E-3	-163.101E-12	652.670E-3	-41.7422E-3
-4.13957E-3	-164.693E-12	670.349E-3	-18.7853E-3	-164.475E-12	661.775E-3	-58.3280E-3
-4.14457E-3	-165.867E-12	663.058E-3	5.10904E-3	-165.721E-12	672.855E-3	-35.0540E-3
-4.14957E-3	-166.889E-12	668.840E-3	24.3351E-3	-164.857E-12	668.423E-3	-18.6149E-3
-4.15458E-3	-167.420E-12	668.759E-3	617.136E-6	-166.327E-12	643.770E-3	-43.3192E-3
-4.15958E-3	-167.653E-12	654.084E-3	-25.3036E-3	-166.691E-12	631.095E-3	-62.8762E-3
-4.16458E-3	-167.206E-12	654.688E-3	-20.2297E-3	-166.152E-12	637.640E-3	-41.5801E-3
-4.16958E-3	-166.559E-12	656.704E-3	-12.6708E-3	-165.848E-12	650.265E-3	-5.85026E-3
-4.17459E-3	-165.704E-12	661.693E-3	-17.0129E-3	-166.090E-12	667.054E-3	-1.26031E-3
-4.17959E-3	-164.308E-12	673.735E-3	-15.0113E-3	-164.433E-12	661.800E-3	-13.1371E-3
-4.18459E-3	-164.197E-12	668.455E-3	-16.5508E-3	-163.843E-12	629.534E-3	-24.4396E-3
-4.18959E-3	-163.327E-12	663.647E-3	-22.3367E-3	-162.980E-12	620.588E-3	-44.1174E-3
-4.19460E-3	-162.406E-12	669.648E-3	-11.1305E-3	-162.654E-12	633.003E-3	-63.2089E-3
-4.19960E-3	-162.264E-12	659.640E-3	-14.8243E-3	-162.839E-12	631.473E-3	-64.1779E-3
-4.20460E-3	-162.482E-12	642.071E-3	-40.0212E-3	-162.664E-12	640.979E-3	-42.5039E-3
-4.20960E-3	-163.102E-12	637.757E-3	-51.1789E-3	-161.908E-12	653.234E-3	-36.7260E-3
-4.21461E-3	-163.354E-12	636.193E-3	-44.9247E-3	-163.083E-12	642.453E-3	-56.9347E-3
-4.21961E-3	-163.353E-12	638.515E-3	-24.2533E-3	-163.376E-12	637.276E-3	-47.2019E-3
-4.22461E-3	-164.466E-12	637.306E-3	-5.86680E-3	-163.726E-12	643.770E-3	-5.99965E-3
-4.22961E-3	-166.595E-12	639.474E-3	-10.3110E-3	-164.651E-12	638.000E-3	25.1450E-3
-4.23462E-3	-167.200E-12	653.115E-3	-32.5896E-3	-165.298E-12	626.293E-3	12.9903E-3
-4.23962E-3	-166.943E-12	660.440E-3	-32.6722E-3	-166.685E-12	639.306E-3	-15.5690E-3
-4.24462E-3	-168.613E-12	643.391E-3	-11.6674E-3	-167.711E-12	660.539E-3	-10.2915E-3
-4.24962E-3	-169.101E-12	632.236E-3	-11.9393E-3	-167.331E-12	664.902E-3	2.93815E-3
-4.25463E-3	-169.560E-12	660.097E-3	-8.45052E-3	-168.571E-12	675.921E-3	2.36604E-3
-4.25963E-3	-170.495E-12	660.423E-3	-1.18628E-3	-169.613E-12	670.193E-3	-6.45232E-3
-4.26463E-3	-170.487E-12	638.362E-3	-26.0449E-3	-169.609E-12	630.687E-3	-16.5660E-3
-4.26963E-3	-169.689E-12	650.075E-3	-37.5106E-3	-169.289E-12	614.965E-3	-7.30389E-3
-4.27464E-3	-169.278E-12	663.112E-3	-29.2386E-3	-170.431E-12	643.433E-3	4.81738E-3
-4.27964E-3	-168.727E-12	667.082E-3	-34.8566E-3	-169.566E-12	661.307E-3	-8.84576E-3
-4.28464E-3	-167.749E-12	675.041E-3	-23.2107E-3	-169.424E-12	646.297E-3	-23.7559E-3
-4.28964E-3	-166.724E-12	662.204E-3	-7.50133E-3	-170.119E-12	638.835E-3	-28.2746E-3
-4.29465E-3	-166.610E-12	641.944E-3	-21.8532E-3	-169.032E-12	646.636E-3	-30.6230E-3
-4.29965E-3	-166.975E-12	636.525E-3	-35.8465E-3	-168.218E-12	643.894E-3	-20.2237E-3
-4.30465E-3	-166.479E-12	631.305E-3	-32.8710E-3	-168.018E-12	639.298E-3	-16.0671E-3
-4.30965E-3	-165.907E-12	643.310E-3	-20.4121E-3	-169.291E-12	648.078E-3	-32.8178E-3
-4.31466E-3	-166.460E-12	677.804E-3	-9.72601E-3	-168.734E-12	663.415E-3	-37.0722E-3
-4.31966E-3	-167.854E-12	683.504E-3	-18.9900E-3	-168.549E-12	670.937E-3	-20.2043E-3
-4.32466E-3	-168.169E-12	661.490E-3	-31.2056E-3	-169.605E-12	661.288E-3	-15.9406E-3
-4.32966E-3	-169.333E-12	650.783E-3	-32.5473E-3	-170.086E-12	664.841E-3	-15.5239E-3
-4.33467E-3	-169.813E-12	647.492E-3	-37.1216E-3	-170.602E-12	685.865E-3	-2.51285E-3
-4.33967E-3	-171.154E-12	646.149E-3	-43.0509E-3	-171.488E-12	680.701E-3	-10.9681E-3
-4.34467E-3	-172.105E-12	654.786E-3	-27.1598E-3	-173.097E-12	678.456E-3	-31.9137E-3
-4.34967E-3	-172.792E-12	669.738E-3	1.28845E-3	-174.184E-12	692.414E-3	-32.0383E-3
-4.35468E-3	-173.238E-12	666.987E-3	-1.62580E-3	-175.809E-12	671.618E-3	-14.3284E-3
-4.35968E-3	-173.663E-12	662.653E-3	-22.0010E-3	-175.786E-12	641.338E-3	2.20550E-3
-4.36468E-3	-173.450E-12	675.153E-3	-20.2762E-3	-176.882E-12	646.846E-3	8.15497E-3
-4.36968E-3	-174.694E-12	676.253E-3	-10.3053E-3	-177.135E-12	665.744E-3	-8.41258E-3
-4.37469E-3	-174.173E-12	661.412E-3	-6.20902E-3	-176.618E-12	665.183E-3	-32.6482E-3
-4.37969E-3	-173.191E-12	652.708E-3	-6.96054E-3	-175.989E-12	654.443E-3	-33.8714E-3
-4.38469E-3	-173.959E-12	663.550E-3	-19.3046E-3	-175.401E-12	651.688E-3	-33.1467E-3
-4.38969E-3	-173.307E-12	684.234E-3	-38.2378E-3	-174.246E-12	655.190E-3	-20.5585E-3
-4.39470E-3	-172.746E-12	682.748E-3	-46.1861E-3	-173.320E-12	662.309E-3	7.79570E-3
-4.39970E-3	-173.072E-12	660.030E-3	-36.0099E-3	-173.221E-12	659.319E-3	10.4955E-3
-4.40470E-3	-173.177E-12	662.112E-3	-26.1410E-3	-172.255E-12	638.862E-3	-1.62284E-3
-4.40970E-3	-172.548E-12	678.595E-3	-25.5907E-3	-171.232E-12	620.740E-3	8.07814E-3
-4.41471E-3	-173.803E-12	675.556E-3	-36.3129E-3	-171.520E-12	609.114E-3	17.3748E-3
-4.41971E-3	-174.264E-12	668.050E-3	-59.8532E-3	-170.940E-12	621.909E-3	-17.6250E-3
-4.42471E-3	-173.569E-12	669.653E-3	-58.0917E-3	-171.465E-12	657.698E-3	-47.6346E-3
-4.42971E-3	-173.683E-12	679.525E-3	-21.8603E-3	-172.266E-12	680.878E-3	-43.6909E-3
-4.43472E-3	-174.616E-12	689.786E-3	7.34245E-3	-173.559E-12	673.557E-3	-47.7920E-3
-4.43972E-3	-175.622E-12	691.814E-3	11.5397E-3	-174.284E-12	630.656E-3	-42.7172E-3
-4.44472E-3	-175.738E-12	668.065E-3	-5.78059E-3	-175.871E-12	618.417E-3	-22.4835E-3
-4.44972E-3	-176.234E-12	629.625E-3	-28.3082E-3	-177.295E-12	665.312E-3	-22.7893E-3
-4.45473E-3	-175.885E-12	611.864E-3	-18.3447E-3	-178.308E-12	696.797E-3	-25.1303E-3
-4.45973E-3	-176.630E-12	617.381E-3	8.97272E-3	-178.755E-12	694.470E-3	-19.6817E-3
-4.46473E-3	-177.307E-12	646.130E-3	2.06145E-3	-180.678E-12	669.302E-3	-39.4005E-3
-4.46973E-3	-176.773E-12	670.002E-3	-18.5078E-3	-180.186E-12	641.731E-3	-56.3810E-3
-4.47474E-3	-177.448E-12	666.265E-3	-12.7528E-3	-180.444E-12	653.389E-3	-31.0813E-3
-4.47974E-3	-178.687E-12	660.258E-3	-3.77123E-3	-180.113E-12	663.488E-3	-10.4972E-3
-4.48474E-3	-179.246E-12	653.969E-3	4.84091E-3	-179.882E-12	628.293E-3	1.69697E-3
-4.48974E-3	-178.567E-12	648.054E-3	11.9175E-3	-178.383E-12	614.371E-3	22.3673E-3
-4.49475E-3	-178.413E-12	652.254E-3	-8.92051E-3	-178.308E-12	639.973E-3	15.7873E-3
-4.49975E-3	-178.540E-12	647.151E-3	-18.6645E-3	-177.616E-12	642.646E-3	-5.85009E-3
-4.50475E-3	-177.277E-12	632.422E-3	-7.57916E-3	-177.086E-12	627.196E-3	-19.8202E-3
-4.50975E-3	-177.029E-12	640.481E-3	-11.3510E-3	-176.405E-12	624.364E-3	-24.1403E-3
-4.51476E-3	-176.795E-12	671.772E-3	-25.8836E-3	-176.106E-12	622.141E-3	-20.4261E-3
-4.51976E-3	-176.776E-12	673.545E-3	-40.9056E-3	-176.212E-12	628.230E-3	-28.1586E-3
-4.52476E-3	-175.944E-12	628.306E-3	-37.0193E-3	-176.429E-12	651.865E-3	-53.9398E-3
-4.52976E-3	-176.543E-12	619.857E-3	-27.1741E-3	-177.131E-12	658.958E-3	-66.4843E-3
-4.53477E-3	-176.385E-12	649.197E-3	-16.0280E-3	-176.762E-12	657.999E-3	-59.2385E-3
-4.53977E-3	-176.045E-12	636.426E-3	5.43754E-3	-177.858E-12	666.203E-3	-46.7889E-3
-4.54477E-3	-175.967E-12	624.652E-3	6.39174E-3	-179.331E-12	657.100E-3	-29.7778E-3
-4.54977E-3	-176.830E-12	628.929E-3	5.66747E-3	-180.334E-12	647.660E-3	-17.5048E-3
-4.55478E-3	-178.082E-12	602.520E-3	12.1749E-3	-181.079E-12	653.129E-3	-16.7190E-3
-4.55978E-3	-178.730E-12	577.016E-3	-4.13682E-3	-181.970E-12	654.806E-3	-15.8699E-3
-4.56478E-3	-180.342E-12	589.770E-3	-17.5283E-3	-182.569E-12	659.353E-3	-14.7149E-3
-4.56978E-3	-181.007E-12	614.322E-3	-16.8816E-3	-182.781E-12	661.184E-3	-17.0430E-3
-4.57479E-3	-182.756E-12	623.866E-3	-22.3070E-3	-183.706E-12	653.914E-3	-19.9695E-3
-4.57979E-3	-183.158E-12	638.795E-3	-15.6971E-3	-183.847E-12	648.865E-3	-12.0212E-3
-4.58479E-3	-183.669E-12	665.512E-3	-6.24136E-3	-183.346E-12	646.657E-3	6.85338E-3
-4.58979E-3	-183.792E-12	670.609E-3	-13.8881E-3	-183.287E-12	651.160E-3	15.6370E-3
-4.59480E-3	-184.681E-12	647.918E-3	-21.7787E-3	-183.559E-12	656.612E-3	25.2438E-3
-4.59980E-3	-183.934E-12	640.169E-3	-33.5606E-3	-182.912E-12	661.058E-3	23.6615E-3
-4.60480E-3	-183.498E-12	660.966E-3	-46.0443E-3	-183.211E-12	667.297E-3	-3.89247E-3
-4.60980E-3	-183.062E-12	673.945E-3	-36.0756E-3	-182.950E-12	649.569E-3	-17.1793E-3
-4.61481E-3	-183.048E-12	674.960E-3	-11.3474E-3	-182.990E-12	639.324E-3	-21.1352E-3
-4.61981E-3	-183.279E-12	667.324E-3	-5.32522E-3	-182.683E-12	652.531E-3	-34.7419E-3
-4.62481E-3	-182.797E-12	662.158E-3	-19.1161E-3	-181.604E-12	645.983E-3	-37.0992E-3
-4.62981E-3	-182.375E-12	671.375E-3	-18.7132E-3	-181.507E-12	637.852E-3	-24.6019E-3
-4.63482E-3	-182.545E-12	657.652E-3	-14.4567E-3	-182.426E-12	638.502E-3	-15.4929E-3
-4.63982E-3	-182.922E-12	640.227E-3	-21.2865E-3	-181.748E-12	647.772E-3	-21.6933E-3
-4.64482E-3	-182.995E-12	636.821E-3	-13.8130E-3	-182.631E-12	672.512E-3	-36.5282E-3
-4.64982E-3	-184.031E-12	627.963E-3	-3.04276E-3	-183.698E-12	672.336E-3	-34.7607E-3
-4.65483E-3	-185.375E-12	636.604E-3	-1.91222E-3	-183.805E-12	652.343E-3	-10.4649E-3
-4.65983E-3	-186.774E-12	642.698E-3	-3.06818E-3	-185.072E-12	645.840E-3	10.2013E-3
-4.66483E-3	-187.922E-12	634.358E-3	-16.3162E-3	-185.161E-12	638.760E-3	18.3361E-3
-4.66983E-3	-188.360E-12	635.699E-3	-15.9182E-3	-184.880E-12	638.865E-3	12.2087E-3
-4.67484E-3	-190.175E-12	651.726E-3	6.95277E-3	-186.763E-12	650.504E-3	-4.62000E-3
-4.67984E-3	-189.826E-12	674.446E-3	12.6169E-3	-188.135E-12	654.891E-3	-1.08420E-3
-4.68484E-3	-190.217E-12	678.830E-3	14.3980E-3	-186.947E-12	658.126E-3	-3.64929E-3
-4.68984E-3	-190.354E-12	665.387E-3	30.9797E-3	-187.957E-12	656.671E-3	-27.6170E-3
-4.69485E-3	-189.125E-12	644.955E-3	20.9318E-3	-189.432E-12	653.368E-3	-33.5136E-3
-4.69985E-3	-187.880E-12	636.677E-3	-7.78339E-3	-188.528E-12	665.053E-3	-31.1417E-3
-4.70485E-3	-187.736E-12	648.446E-3	-6.87974E-3	-188.994E-12	682.921E-3	-29.6590E-3
-4.70985E-3	-187.686E-12	649.480E-3	2.24515E-3	-189.116E-12	692.356E-3	-26.0242E-3
-4.71486E-3	-186.172E-12	632.215E-3	-6.53644E-3	-187.136E-12	675.280E-3	-31.5831E-3
-4.71986E-3	-186.133E-12	631.512E-3	-14.0879E-3	-187.358E-12	644.578E-3	-32.9847E-3
-4.72486E-3	-185.762E-12	658.329E-3	-6.47062E-3	-187.725E-12	645.635E-3	-13.8350E-3
-4.72986E-3	-185.713E-12	674.517E-3	-7.70779E-3	-186.487E-12	664.751E-3	2.61428E-3
-4.73487E-3	-185.365E-12	665.390E-3	-22.2324E-3	-185.883E-12	661.946E-3	2.58480E-3
-4.73987E-3	-186.104E-12	644.337E-3	-46.1014E-3	-186.689E-12	642.667E-3	-10.5005E-3
-4.74487E-3	-186.327E-12	625.677E-3	-61.5890E-3	-186.435E-12	623.360E-3	-29.3264E-3
-4.74988E-3	-187.575E-12	639.839E-3	-36.8870E-3	-186.440E-12	615.794E-3	-25.9503E-3
-4.75488E-3	-188.948E-12	653.732E-3	-7.15892E-3	-186.874E-12	643.877E-3	-16.8503E-3
-4.75988E-3	-189.437E-12	643.686E-3	-15.1707E-3	-187.174E-12	663.873E-3	-24.0406E-3
-4.76488E-3	-190.550E-12	619.752E-3	-26.6146E-3	-188.194E-12	649.121E-3	-25.5029E-3
-4.76988E-3	-191.887E-12	603.357E-3	-28.0819E-3	-189.360E-12	629.726E-3	-32.7765E-3
-4.77489E-3	-192.891E-12	621.941E-3	-38.8121E-3	-189.998E-12	604.363E-3	-40.5547E-3
-4.77989E-3	-192.067E-12	637.273E-3	-19.9877E-3	-191.194E-12	610.339E-3	-29.6964E-3
-4.78489E-3	-192.597E-12	634.304E-3	17.0620E-3	-192.700E-12	647.125E-3	-24.2934E-3
-4.78989E-3	-192.263E-12	617.796E-3	15.0325E-3	-193.285E-12	661.046E-3	-23.5441E-3
-4.79490E-3	-191.714E-12	606.026E-3	-4.46436E-3	-193.814E-12	642.693E-3	-32.2701E-3
-4.79990E-3	-191.709E-12	617.800E-3	-14.9474E-3	-193.893E-12	641.166E-3	-34.5479E-3
-4.80490E-3	-192.441E-12	627.317E-3	-31.1196E-3	-192.826E-12	669.985E-3	-13.3106E-3
-4.80990E-3	-190.691E-12	635.150E-3	-49.4616E-3	-192.202E-12	670.717E-3	-6.00574E-3
-4.81491E-3	-190.323E-12	651.302E-3	-34.8798E-3	-192.181E-12	638.465E-3	146.362E-6
-4.81991E-3	-190.885E-12	645.636E-3	-14.8896E-3	-191.536E-12	610.101E-3	9.04727E-3
-4.82491E-3	-191.306E-12	616.869E-3	-27.3580E-3	-189.855E-12	608.784E-3	-3.05138E-3
-4.82991E-3	-190.862E-12	603.672E-3	-19.4550E-3	-190.114E-12	616.728E-3	-16.1884E-3
-4.83492E-3	-190.502E-12	601.899E-3	675.065E-6	-190.267E-12	621.310E-3	-20.7972E-3
-4.83992E-3	-192.038E-12	611.565E-3	-8.11452E-3	-189.379E-12	616.575E-3	-5.47413E-3
-4.84492E-3	-192.862E-12	633.529E-3	-13.7264E-3	-188.921E-12	597.569E-3	15.0293E-3
-4.84992E-3	-193.081E-12	644.194E-3	-17.5524E-3	-190.511E-12	601.523E-3	-16.1671E-3
-4.85493E-3	-193.040E-12	656.161E-3	-22.4227E-3	-191.098E-12	621.383E-3	-58.9810E-3
-4.85993E-3	-193.891E-12	660.881E-3	-10.8943E-3	-190.912E-12	631.275E-3	-58.9931E-3
-4.86493E-3	-194.480E-12	637.807E-3	-10.0980E-3	-193.331E-12	646.140E-3	-41.8487E-3
-4.86993E-3	-195.077E-12	618.885E-3	-26.5289E-3	-194.838E-12	668.935E-3	-19.4462E-3
-4.87494E-3	-195.074E-12	637.035E-3	-19.1813E-3	-195.277E-12	666.160E-3	13.5271E-3
-4.87994E-3	-195.576E-12	660.950E-3	11.9122E-3	-196.278E-12	659.628E-3	8.88441E-3
-4.88494E-3	-195.952E-12	668.810E-3	21.8651E-3	-197.994E-12	685.557E-3	-35.9068E-3
-4.88995E-3	-195.863E-12	669.036E-3	15.2802E-3	-199.032E-12	713.887E-3	-44.4032E-3
-4.89495E-3	-195.571E-12	649.348E-3	-4.52341E-3	-199.556E-12	722.822E-3	-34.9474E-3
-4.89995E-3	-194.757E-12	647.610E-3	-31.2796E-3	-198.741E-12	710.393E-3	-41.1096E-3
-4.90495E-3	-195.704E-12	664.844E-3	-29.1872E-3	-199.338E-12	692.421E-3	-27.8545E-3
-4.90995E-3	-196.076E-12	640.118E-3	-23.7190E-3	-199.432E-12	693.637E-3	-18.4400E-3
-4.91496E-3	-194.312E-12	621.530E-3	-47.1810E-3	-198.697E-12	703.220E-3	-31.5449E-3
-4.91996E-3	-194.863E-12	639.728E-3	-59.9024E-3	-197.160E-12	687.557E-3	-11.4972E-3
-4.92496E-3	-195.272E-12	643.715E-3	-44.5749E-3	-197.383E-12	663.004E-3	23.9626E-3
-4.92996E-3	-195.062E-12	661.605E-3	-40.9265E-3	-196.936E-12	659.896E-3	20.5043E-3
-4.93497E-3	-195.451E-12	695.223E-3	-30.7358E-3	-195.935E-12	667.098E-3	2.90561E-3
-4.93997E-3	-196.020E-12	684.709E-3	-4.95975E-3	-195.370E-12	663.778E-3	-14.1832E-3
-4.94497E-3	-196.040E-12	646.725E-3	1.93382E-3	-195.519E-12	647.027E-3	-26.8536E-3
-4.94997E-3	-196.748E-12	627.167E-3	-3.26543E-3	-196.392E-12	650.090E-3	-28.0823E-3
-4.95498E-3	-196.738E-12	617.333E-3	-4.62078E-3	-196.639E-12	658.127E-3	-33.9833E-3
-4.95998E-3	-196.019E-12	603.966E-3	2.96809E-3	-196.992E-12	645.305E-3	-35.8123E-3
-4.96498E-3	-196.776E-12	608.099E-3	-6.62786E-3	-198.076E-12	646.448E-3	-13.5994E-3
-4.96998E-3	-197.226E-12	630.974E-3	-41.6874E-3	-198.499E-12	651.157E-3	16.3925E-3
-4.97499E-3	-197.215E-12	636.982E-3	-53.9766E-3	-199.768E-12	635.749E-3	24.4993E-3
-4.97999E-3	-198.659E-12	635.840E-3	-28.8025E-3	-200.540E-12	629.922E-3	13.3958E-3
-4.98499E-3	-200.135E-12	640.183E-3	15.4519E-3	-201.466E-12	651.944E-3	-1.22679E-3
-4.98999E-3	-200.311E-12	637.960E-3	22.3660E-3	-201.772E-12	666.159E-3	-10.8886E-3
-4.99500E-3	-200.822E-12	648.387E-3	-20.8145E-3	-202.191E-12	637.418E-3	-6.12788E-3
-5.00000E-3	-201.729E-12	635.155E-3	-35.3709E-3	-202.101E-12	612.674E-3	-13.1927E-3
