Experiment	bias spectroscopy	
Date	19.01.2016 19:17:59	
User		
X (m)	50.7849E-9	
Y (m)	256.841E-9	
Z (m)	-132.632E-9	
Z offset (m)	0E+0	
Settling time (s)	200E-6	
Integration time (s)	5E-3	
Z-Ctrl hold	TRUE	
Final Z (m)	N/A	
Filter type	None	
Order		
Cutoff frq		
Comment01	MnPc/Pb(111)	
Comment02	dz =00pm	
Comment03	7 Sweeps	
Comment04	MagField =0.T	
Comment05	Divider 1:10	
Comment06	Setpoint:5mV,200 pA	
Comment07	Lockin: 50uVrms,5ms,5mV	
Comment08	Gain:9; 912Hz modulation	
Comment09	T=1.06K	
Bias>Bias (V)	5E-3	
Bias>Calibration (V/V)	81.475E-3	
Bias>Offset (V)	1.046E-3	
Bias Spectroscopy>Sweep Start (V)	5E-3	
Bias Spectroscopy>Sweep End (V)	-5E-3	
Bias Spectroscopy>Num Pixel	2000	
Bias Spectroscopy>Z Avg time (s)	500E-3	
Bias Spectroscopy>Z offset (m)	0E+0	
Bias Spectroscopy>1st Settling time (s)	500E-3	
Bias Spectroscopy>Settling time (s)	200E-6	
Bias Spectroscopy>Integration time (s)	5E-3	
Bias Spectroscopy>End Settling time (s)	500E-3	
Bias Spectroscopy>Z control time (s)	500E-3	
Bias Spectroscopy>Max Slew rate (V/s)	Inf	
Bias Spectroscopy>backward sweep	TRUE	
Bias Spectroscopy>Z-controller hold	TRUE	
Bias Spectroscopy>Number of sweeps	7	
Bias Spectroscopy>Channels	Current (A);X% LockIn (V);Y% LockIn (V)	
Bias Spectroscopy>Reset Bias	TRUE	
Bias Spectroscopy>Record final Z	FALSE	
Bias Spectroscopy>Lock-In run	FALSE	
Bias Spectroscopy>Sweep mode	Linear	
Bias Spectroscopy>MultiLine Settings : Segment Start (V), Segment End (V), Settling (s), Integration (s), Steps (xn)	100E-3,3.3E-3,100E-6,10E-3,2500;3.3E-3,-3.3E-3,100E-6,10E-3,10;-3.3E-3,-100E-3,100E-6,10E-3,2500	
Current>Current (A)	200.463E-12	
Current>Calibration (A/V)	999.99900E-12	
Current>Offset (A)	-455.429E-15	
Current>Gain	LN 10^9	
Z-Controller>Z (m)	-132.632E-9	
Z-Controller>Controller name	log Current	
Z-Controller>Controller status	ON	
Z-Controller>Setpoint	200E-12	
Z-Controller>Setpoint unit	A	
Z-Controller>P gain	2.96994E-12	
Z-Controller>I gain	67.0321E-9	
Z-Controller>Time const (s)	44.3062E-6	
Z-Controller>TipLift (m)	0E+0	
Z-Controller>Switch off delay (s)	50E-3	
Current (A)	200.448E-12	
Z (m)	-132.632E-9	

[DATA]
Bias calc (V)	Current (A)	X% LockIn (V)	Y% LockIn (V)	Current [bwd] (A)	X% LockIn [bwd] (V)	Y% LockIn [bwd] (V)
5.00000E-3	190.382E-12	595.809E-3	-838.440E-6	195.175E-12	623.004E-3	-48.3779E-3
4.99500E-3	189.067E-12	598.832E-3	2.29982E-3	196.079E-12	633.885E-3	-37.7092E-3
4.98999E-3	188.977E-12	575.181E-3	13.7069E-3	194.820E-12	662.927E-3	-33.8697E-3
4.98499E-3	190.298E-12	570.024E-3	-694.816E-6	193.127E-12	671.438E-3	-21.1791E-3
4.97999E-3	190.388E-12	575.372E-3	-10.7555E-3	194.110E-12	659.984E-3	-480.128E-6
4.97499E-3	189.379E-12	593.422E-3	-7.53009E-3	196.095E-12	650.856E-3	4.73081E-3
4.96998E-3	188.657E-12	616.084E-3	-14.2111E-3	195.386E-12	622.208E-3	1.67023E-3
4.96498E-3	189.163E-12	609.411E-3	-4.35049E-3	193.276E-12	603.451E-3	-1.34575E-3
4.95998E-3	189.386E-12	588.295E-3	7.48677E-3	192.723E-12	609.317E-3	-34.1748E-3
4.95498E-3	189.127E-12	574.481E-3	-13.0372E-3	194.089E-12	596.174E-3	-68.7064E-3
4.94997E-3	188.599E-12	570.399E-3	-28.8544E-3	193.739E-12	574.176E-3	-58.5717E-3
4.94497E-3	187.747E-12	580.932E-3	-10.6303E-3	190.791E-12	576.030E-3	-55.6753E-3
4.93997E-3	189.359E-12	598.395E-3	2.72185E-3	189.146E-12	582.253E-3	-79.6428E-3
4.93497E-3	189.724E-12	621.002E-3	-23.5001E-3	189.807E-12	589.048E-3	-79.6173E-3
4.92996E-3	189.394E-12	639.336E-3	-35.2442E-3	190.849E-12	610.069E-3	-56.2831E-3
4.92496E-3	188.241E-12	647.495E-3	-14.2146E-3	189.226E-12	614.379E-3	-34.1809E-3
4.91996E-3	188.321E-12	651.139E-3	6.87423E-3	187.081E-12	578.972E-3	-20.1454E-3
4.91496E-3	189.199E-12	635.484E-3	19.6712E-3	187.160E-12	576.243E-3	-17.5010E-3
4.90995E-3	189.131E-12	612.502E-3	2.02141E-3	187.906E-12	614.726E-3	-42.2083E-3
4.90495E-3	187.757E-12	632.369E-3	-17.0604E-3	188.811E-12	627.770E-3	-65.0697E-3
4.89995E-3	187.061E-12	667.060E-3	-10.9010E-3	188.601E-12	645.633E-3	-35.3628E-3
4.89495E-3	185.927E-12	663.668E-3	18.0790E-3	188.032E-12	650.109E-3	-9.89949E-3
4.88995E-3	186.132E-12	634.148E-3	61.1380E-3	187.133E-12	630.334E-3	-8.72185E-3
4.88494E-3	184.981E-12	619.056E-3	53.0236E-3	188.998E-12	635.691E-3	16.1874E-3
4.87994E-3	185.423E-12	617.652E-3	2.86734E-3	190.638E-12	647.320E-3	16.7088E-3
4.87494E-3	185.573E-12	602.662E-3	-29.3293E-3	190.860E-12	669.388E-3	-3.57323E-3
4.86993E-3	185.412E-12	599.500E-3	-36.4804E-3	189.466E-12	684.162E-3	10.5375E-3
4.86493E-3	184.596E-12	606.898E-3	-7.83939E-3	188.303E-12	667.014E-3	14.7343E-3
4.85993E-3	186.266E-12	605.879E-3	692.035E-6	190.289E-12	640.699E-3	6.72267E-3
4.85493E-3	186.338E-12	593.037E-3	-17.2987E-3	189.566E-12	616.740E-3	20.3901E-3
4.84992E-3	185.045E-12	593.265E-3	772.035E-6	187.891E-12	597.571E-3	21.1747E-3
4.84492E-3	184.349E-12	601.083E-3	9.50544E-3	184.773E-12	572.230E-3	1.51723E-3
4.83992E-3	185.268E-12	598.965E-3	-9.47865E-3	184.587E-12	578.289E-3	-12.9543E-3
4.83492E-3	185.790E-12	601.993E-3	-4.65808E-3	184.472E-12	621.552E-3	-38.3105E-3
4.82991E-3	184.941E-12	608.902E-3	11.9266E-3	182.514E-12	631.583E-3	-49.0706E-3
4.82491E-3	183.384E-12	612.818E-3	-16.4585E-3	181.713E-12	621.711E-3	-22.2790E-3
4.81991E-3	183.515E-12	605.504E-3	-43.6571E-3	180.865E-12	618.877E-3	-23.3414E-3
4.81491E-3	184.328E-12	605.265E-3	-32.7405E-3	181.904E-12	608.651E-3	-38.0114E-3
4.80990E-3	183.331E-12	623.635E-3	-28.3516E-3	181.740E-12	613.613E-3	-13.9780E-3
4.80490E-3	182.877E-12	632.844E-3	-33.3821E-3	179.324E-12	611.640E-3	16.7990E-3
4.79990E-3	181.702E-12	608.829E-3	-55.9433E-3	178.782E-12	582.996E-3	31.8423E-3
4.79490E-3	180.867E-12	603.802E-3	-67.9443E-3	182.187E-12	567.066E-3	20.4766E-3
4.78989E-3	181.491E-12	633.742E-3	-37.4303E-3	183.940E-12	561.423E-3	-14.1698E-3
4.78489E-3	183.381E-12	646.392E-3	-6.27366E-3	182.012E-12	591.070E-3	-55.0319E-3
4.77989E-3	182.379E-12	650.877E-3	2.18644E-3	181.550E-12	650.280E-3	-69.9302E-3
4.77489E-3	180.553E-12	652.509E-3	-2.20111E-3	182.881E-12	649.483E-3	-30.2537E-3
4.76988E-3	182.146E-12	619.711E-3	-6.49525E-3	184.751E-12	599.973E-3	9.89183E-3
4.76488E-3	183.605E-12	599.634E-3	18.6535E-3	183.554E-12	586.320E-3	19.5611E-3
4.75988E-3	184.069E-12	615.429E-3	36.7604E-3	182.835E-12	609.462E-3	32.8732E-3
4.75488E-3	183.456E-12	632.478E-3	9.90182E-3	182.444E-12	628.435E-3	43.9368E-3
4.74988E-3	183.745E-12	655.564E-3	-23.7253E-3	183.680E-12	633.151E-3	34.6176E-3
4.74487E-3	184.018E-12	653.423E-3	-43.0707E-3	183.708E-12	642.037E-3	138.314E-6
4.73987E-3	184.487E-12	614.272E-3	-26.5127E-3	181.342E-12	641.224E-3	-41.1863E-3
4.73487E-3	184.062E-12	611.610E-3	8.51024E-3	180.198E-12	611.081E-3	-49.2888E-3
4.72986E-3	183.194E-12	654.970E-3	7.73757E-3	180.604E-12	602.206E-3	-37.3948E-3
4.72486E-3	182.891E-12	667.833E-3	-12.3353E-3	179.714E-12	618.041E-3	-25.4970E-3
4.71986E-3	182.276E-12	631.393E-3	-17.3011E-3	179.239E-12	607.389E-3	3.58996E-3
4.71486E-3	181.744E-12	601.807E-3	-15.6443E-3	177.903E-12	595.737E-3	34.3842E-3
4.70985E-3	180.197E-12	589.835E-3	-15.8428E-3	177.308E-12	616.953E-3	19.1983E-3
4.70485E-3	179.169E-12	591.039E-3	-28.8946E-3	178.349E-12	646.688E-3	-19.2579E-3
4.69985E-3	178.131E-12	605.175E-3	-41.1778E-3	179.924E-12	647.693E-3	-14.7236E-3
4.69485E-3	177.897E-12	605.762E-3	-22.1305E-3	180.177E-12	623.397E-3	-1.71916E-3
4.68984E-3	178.000E-12	590.631E-3	-5.88039E-3	179.515E-12	626.624E-3	-30.1101E-3
4.68484E-3	177.158E-12	593.357E-3	-22.5677E-3	182.991E-12	640.650E-3	-46.8710E-3
4.67984E-3	176.705E-12	604.471E-3	-32.7300E-3	185.351E-12	638.515E-3	-40.6073E-3
4.67484E-3	177.038E-12	601.564E-3	-15.5289E-3	183.254E-12	653.268E-3	-24.7178E-3
4.66983E-3	177.948E-12	610.858E-3	-9.56248E-3	181.866E-12	663.031E-3	-2.63515E-3
4.66483E-3	176.800E-12	619.668E-3	-7.58433E-3	184.439E-12	660.298E-3	-15.7299E-3
4.65983E-3	177.520E-12	614.060E-3	7.81814E-3	186.490E-12	652.406E-3	-23.8086E-3
4.65483E-3	177.939E-12	611.872E-3	23.2202E-3	183.973E-12	636.737E-3	-7.01813E-3
4.64982E-3	177.478E-12	594.178E-3	22.5829E-3	182.178E-12	639.781E-3	-4.66996E-3
4.64482E-3	176.377E-12	588.046E-3	-4.71994E-3	182.129E-12	629.851E-3	-6.52524E-3
4.63982E-3	176.203E-12	607.788E-3	-22.1144E-3	183.518E-12	604.858E-3	3.92216E-3
4.63482E-3	177.607E-12	625.580E-3	-18.0065E-3	183.733E-12	604.087E-3	-1.24821E-3
4.62981E-3	177.580E-12	649.056E-3	-1.66478E-3	179.928E-12	623.732E-3	-26.7275E-3
4.62481E-3	176.084E-12	650.857E-3	14.1424E-3	177.711E-12	651.508E-3	-11.7491E-3
4.61981E-3	175.587E-12	635.262E-3	1.20340E-3	177.777E-12	647.049E-3	15.9238E-3
4.61481E-3	176.036E-12	633.923E-3	-11.9407E-3	178.786E-12	614.502E-3	4.86476E-3
4.60980E-3	175.271E-12	655.231E-3	-5.15344E-3	177.600E-12	618.160E-3	-21.9650E-3
4.60480E-3	173.159E-12	689.854E-3	-14.7858E-3	176.879E-12	640.509E-3	-47.3998E-3
4.59980E-3	174.513E-12	701.782E-3	-33.6316E-3	174.424E-12	640.752E-3	-49.5246E-3
4.59480E-3	174.008E-12	683.469E-3	-50.9463E-3	175.067E-12	622.500E-3	-29.9151E-3
4.58979E-3	175.212E-12	661.027E-3	-47.2235E-3	175.408E-12	596.854E-3	-25.0321E-3
4.58479E-3	172.980E-12	656.013E-3	-38.2651E-3	175.195E-12	590.751E-3	-53.8159E-3
4.57979E-3	173.484E-12	646.311E-3	-53.6688E-3	174.244E-12	611.200E-3	-78.6885E-3
4.57479E-3	173.584E-12	611.709E-3	-72.8491E-3	174.434E-12	643.706E-3	-55.5146E-3
4.56978E-3	174.195E-12	604.834E-3	-75.3676E-3	174.880E-12	644.759E-3	-22.9101E-3
4.56478E-3	174.860E-12	636.051E-3	-59.5814E-3	175.299E-12	617.739E-3	-5.89613E-3
4.55978E-3	171.729E-12	645.669E-3	-48.5863E-3	175.365E-12	616.283E-3	10.0170E-3
4.55478E-3	172.098E-12	639.357E-3	-20.1520E-3	174.843E-12	644.802E-3	5.62972E-3
4.54977E-3	173.180E-12	648.828E-3	29.1368E-3	175.628E-12	680.398E-3	-15.7744E-3
4.54477E-3	175.833E-12	647.820E-3	40.7710E-3	176.164E-12	680.690E-3	-22.1381E-3
4.53977E-3	173.835E-12	603.331E-3	12.9222E-3	175.537E-12	654.980E-3	-15.1954E-3
4.53477E-3	173.393E-12	558.349E-3	-16.1268E-3	173.839E-12	641.969E-3	-16.8116E-3
4.52976E-3	173.792E-12	566.828E-3	-32.2111E-3	174.066E-12	629.164E-3	-11.1996E-3
4.52476E-3	174.450E-12	588.990E-3	-39.1481E-3	173.716E-12	601.866E-3	-14.5780E-3
4.51976E-3	174.108E-12	598.377E-3	-39.8927E-3	173.573E-12	583.580E-3	-16.9410E-3
4.51476E-3	172.245E-12	609.756E-3	-29.7390E-3	171.840E-12	584.220E-3	15.5844E-3
4.50975E-3	173.768E-12	618.744E-3	-15.7652E-3	170.692E-12	582.585E-3	28.0427E-3
4.50475E-3	173.770E-12	630.397E-3	-128.165E-6	170.114E-12	587.952E-3	-11.9434E-3
4.49975E-3	174.373E-12	643.748E-3	11.3039E-3	170.836E-12	619.372E-3	-47.5963E-3
4.49475E-3	172.545E-12	628.023E-3	-4.03068E-3	169.736E-12	635.315E-3	-42.4437E-3
4.48974E-3	172.225E-12	595.435E-3	-30.8050E-3	168.820E-12	616.879E-3	-36.9260E-3
4.48474E-3	172.086E-12	583.805E-3	-24.3943E-3	169.451E-12	606.906E-3	-39.7579E-3
4.47974E-3	172.647E-12	604.947E-3	-9.89169E-3	171.557E-12	618.918E-3	-13.6302E-3
4.47474E-3	172.464E-12	632.822E-3	-15.9995E-3	169.650E-12	642.570E-3	18.7378E-3
4.46973E-3	171.029E-12	633.244E-3	-14.4432E-3	169.982E-12	659.130E-3	19.8788E-3
4.46473E-3	171.129E-12	628.903E-3	-25.3024E-3	170.916E-12	660.005E-3	13.1384E-3
4.45973E-3	172.660E-12	635.114E-3	-35.1789E-3	172.883E-12	655.373E-3	7.31371E-3
4.45473E-3	173.216E-12	636.228E-3	-25.4283E-3	171.798E-12	643.873E-3	-15.8458E-3
4.44972E-3	171.816E-12	641.111E-3	-21.0417E-3	171.461E-12	640.754E-3	-43.3889E-3
4.44472E-3	171.682E-12	643.779E-3	-24.2776E-3	172.410E-12	629.852E-3	-48.9588E-3
4.43972E-3	172.453E-12	638.423E-3	-32.6146E-3	172.215E-12	600.916E-3	-41.1501E-3
4.43472E-3	172.393E-12	636.787E-3	-19.6449E-3	173.055E-12	588.662E-3	-33.5564E-3
4.42971E-3	171.603E-12	634.455E-3	-3.78579E-3	172.138E-12	595.443E-3	-17.2868E-3
4.42471E-3	171.026E-12	640.595E-3	-13.2028E-3	170.213E-12	606.484E-3	1.08934E-3
4.41971E-3	171.607E-12	656.677E-3	-44.4288E-3	169.237E-12	609.738E-3	650.259E-6
4.41471E-3	170.667E-12	654.328E-3	-49.4389E-3	168.617E-12	604.121E-3	-9.61450E-3
4.40970E-3	169.410E-12	641.835E-3	-17.6773E-3	167.248E-12	615.939E-3	-17.0494E-3
4.40470E-3	168.866E-12	639.526E-3	-15.3211E-3	165.507E-12	640.429E-3	-18.8962E-3
4.39970E-3	168.794E-12	646.602E-3	-23.8440E-3	164.583E-12	626.946E-3	-19.8189E-3
4.39470E-3	167.037E-12	653.124E-3	-5.34984E-3	165.018E-12	596.813E-3	-33.8460E-3
4.38969E-3	164.437E-12	663.328E-3	1.09944E-3	165.776E-12	593.223E-3	-57.0483E-3
4.38469E-3	164.573E-12	664.952E-3	-20.3970E-3	163.901E-12	596.297E-3	-61.6190E-3
4.37969E-3	165.192E-12	648.927E-3	-21.8933E-3	163.868E-12	614.939E-3	-40.4250E-3
4.37469E-3	164.239E-12	610.467E-3	4.15099E-3	164.886E-12	638.186E-3	-15.6945E-3
4.36968E-3	161.879E-12	564.390E-3	18.8747E-3	166.891E-12	637.550E-3	1.22215E-3
4.36468E-3	161.559E-12	567.756E-3	-4.99870E-3	166.700E-12	633.616E-3	-8.79393E-3
4.35968E-3	163.447E-12	597.105E-3	-29.5674E-3	167.981E-12	620.333E-3	-24.2776E-3
4.35468E-3	164.439E-12	603.677E-3	-24.7306E-3	168.247E-12	623.176E-3	-16.0377E-3
4.34967E-3	163.229E-12	614.692E-3	-23.3898E-3	169.096E-12	643.439E-3	-23.0059E-3
4.34467E-3	162.065E-12	636.656E-3	-21.8325E-3	169.382E-12	651.811E-3	-37.7294E-3
4.33967E-3	164.278E-12	629.044E-3	5.56549E-3	168.427E-12	670.876E-3	-22.8579E-3
4.33467E-3	166.692E-12	604.412E-3	39.4018E-3	167.701E-12	668.432E-3	-12.5690E-3
4.32966E-3	166.490E-12	595.669E-3	38.4376E-3	167.130E-12	633.588E-3	-14.7522E-3
4.32466E-3	164.935E-12	623.018E-3	9.85710E-3	167.997E-12	618.547E-3	-4.52045E-3
4.31966E-3	164.411E-12	663.542E-3	-5.88159E-3	166.743E-12	614.648E-3	-28.0329E-6
4.31466E-3	165.547E-12	651.919E-3	-9.03536E-3	165.508E-12	595.580E-3	-7.76951E-3
4.30965E-3	166.594E-12	617.555E-3	302.167E-6	164.274E-12	594.169E-3	-45.8453E-3
4.30465E-3	165.611E-12	630.262E-3	25.4783E-3	164.514E-12	613.853E-3	-85.4278E-3
4.29965E-3	163.603E-12	634.559E-3	10.1776E-3	164.484E-12	643.084E-3	-81.0470E-3
4.29465E-3	163.952E-12	616.119E-3	-26.6822E-3	163.816E-12	667.571E-3	-67.1124E-3
4.28964E-3	164.462E-12	606.422E-3	-45.4802E-3	162.330E-12	653.677E-3	-40.3098E-3
4.28464E-3	162.846E-12	586.075E-3	-63.8037E-3	161.655E-12	636.008E-3	-27.7382E-3
4.27964E-3	160.162E-12	607.734E-3	-64.8538E-3	162.568E-12	632.051E-3	-62.5967E-3
4.27464E-3	160.037E-12	644.283E-3	-56.0087E-3	164.383E-12	622.781E-3	-78.2497E-3
4.26963E-3	161.315E-12	622.756E-3	-41.6587E-3	164.718E-12	631.011E-3	-58.4539E-3
4.26463E-3	161.714E-12	601.560E-3	369.044E-6	163.872E-12	633.779E-3	-59.5790E-3
4.25963E-3	159.199E-12	599.041E-3	27.8387E-3	162.228E-12	600.609E-3	-72.6308E-3
4.25463E-3	159.533E-12	581.993E-3	19.0673E-3	164.580E-12	587.075E-3	-66.3783E-3
4.24962E-3	161.597E-12	585.974E-3	-7.21510E-3	165.211E-12	622.444E-3	-51.1704E-3
4.24462E-3	162.738E-12	612.833E-3	-44.7345E-3	164.674E-12	659.958E-3	-47.1773E-3
4.23962E-3	160.978E-12	620.994E-3	-46.8088E-3	163.617E-12	660.035E-3	-49.0061E-3
4.23462E-3	160.120E-12	615.996E-3	-16.5417E-3	162.410E-12	631.645E-3	-24.1480E-3
4.22961E-3	161.052E-12	629.065E-3	8.97046E-3	163.099E-12	601.778E-3	-583.940E-6
4.22461E-3	162.717E-12	644.331E-3	5.12420E-3	163.624E-12	598.129E-3	-21.1829E-3
4.21961E-3	163.963E-12	637.856E-3	-19.9628E-3	161.787E-12	623.025E-3	-25.7811E-3
4.21461E-3	161.622E-12	637.972E-3	-40.2307E-3	160.375E-12	639.660E-3	-9.04824E-3
4.20960E-3	161.806E-12	640.011E-3	-30.7280E-3	159.785E-12	625.471E-3	-28.0228E-3
4.20460E-3	160.234E-12	644.955E-3	-2.08557E-3	159.657E-12	608.596E-3	-34.2716E-3
4.19960E-3	160.514E-12	661.492E-3	-4.89955E-3	158.637E-12	608.360E-3	-23.8720E-3
4.19460E-3	159.623E-12	669.749E-3	-10.2910E-3	157.239E-12	606.156E-3	-29.5226E-3
4.18959E-3	159.277E-12	662.786E-3	-6.92934E-3	156.591E-12	603.578E-3	-21.4398E-3
4.18459E-3	159.900E-12	622.307E-3	-23.6869E-3	157.857E-12	599.723E-3	-9.13583E-3
4.17959E-3	160.424E-12	598.418E-3	-34.6667E-3	156.989E-12	591.547E-3	-2.91879E-3
4.17459E-3	159.336E-12	617.202E-3	-16.6318E-3	154.697E-12	612.080E-3	-6.44398E-3
4.16958E-3	157.193E-12	615.539E-3	-17.7259E-3	154.921E-12	638.025E-3	-29.3053E-3
4.16458E-3	157.828E-12	604.116E-3	-49.3080E-3	155.918E-12	635.134E-3	-30.7454E-3
4.15958E-3	159.325E-12	610.302E-3	-40.8487E-3	156.621E-12	619.635E-3	-10.0702E-3
4.15458E-3	159.032E-12	613.178E-3	-10.1801E-3	155.392E-12	617.059E-3	-12.4602E-3
4.14957E-3	157.753E-12	628.027E-3	-2.50493E-3	155.215E-12	639.575E-3	-40.0004E-3
4.14457E-3	157.064E-12	635.934E-3	-1.96052E-3	155.947E-12	645.647E-3	-59.3436E-3
4.13957E-3	157.942E-12	613.311E-3	-10.2781E-3	157.079E-12	628.521E-3	-41.3046E-3
4.13457E-3	159.165E-12	603.046E-3	-17.9203E-3	156.633E-12	620.635E-3	-12.1492E-3
4.12956E-3	159.252E-12	612.292E-3	171.926E-6	155.871E-12	600.949E-3	-7.81939E-3
4.12456E-3	157.122E-12	606.088E-3	5.04279E-3	155.714E-12	598.181E-3	-16.3494E-3
4.11956E-3	157.380E-12	599.007E-3	-18.8465E-3	156.258E-12	649.771E-3	-10.3751E-3
4.11456E-3	157.671E-12	617.094E-3	-21.1882E-3	155.499E-12	675.624E-3	-10.7429E-3
4.10955E-3	158.622E-12	637.489E-3	-22.3338E-3	156.015E-12	650.978E-3	-28.2489E-3
4.10455E-3	157.231E-12	649.192E-3	-20.3834E-3	154.892E-12	646.099E-3	-42.1315E-3
4.09955E-3	156.364E-12	655.018E-3	9.23703E-3	154.188E-12	655.642E-3	-37.2483E-3
4.09455E-3	154.217E-12	652.939E-3	23.5649E-3	153.320E-12	630.859E-3	-18.9795E-3
4.08954E-3	154.809E-12	641.420E-3	-1.41706E-3	153.535E-12	608.903E-3	-8.15092E-3
4.08454E-3	154.971E-12	628.423E-3	-35.2450E-3	152.811E-12	623.517E-3	-20.8482E-3
4.07954E-3	152.815E-12	631.031E-3	-35.6179E-3	151.696E-12	642.537E-3	-32.2949E-3
4.07454E-3	152.642E-12	641.359E-3	-17.0507E-3	151.654E-12	650.599E-3	-4.44946E-3
4.06953E-3	152.599E-12	629.248E-3	1.71128E-3	151.371E-12	652.639E-3	17.3432E-3
4.06453E-3	152.884E-12	612.880E-3	14.5566E-3	152.230E-12	641.008E-3	16.3006E-3
4.05953E-3	151.139E-12	610.181E-3	2.38066E-3	151.545E-12	628.423E-3	24.6011E-3
4.05453E-3	151.940E-12	616.320E-3	-1.13945E-3	151.520E-12	636.350E-3	10.0783E-3
4.04952E-3	151.355E-12	626.026E-3	6.54049E-3	152.090E-12	640.059E-3	-34.2430E-3
4.04452E-3	151.776E-12	619.698E-3	6.07997E-3	151.655E-12	648.903E-3	-38.8109E-3
4.03952E-3	152.212E-12	612.370E-3	20.5180E-3	152.677E-12	671.782E-3	-9.77039E-3
4.03452E-3	151.509E-12	591.744E-3	12.1630E-3	152.635E-12	661.202E-3	1.35157E-3
4.02951E-3	151.165E-12	573.724E-3	-19.4449E-3	152.705E-12	623.880E-3	-11.3945E-3
4.02451E-3	151.873E-12	583.675E-3	-13.9247E-3	153.272E-12	615.214E-3	-42.9725E-3
4.01951E-3	152.422E-12	594.714E-3	3.23137E-3	153.174E-12	621.014E-3	-60.5444E-3
4.01451E-3	151.503E-12	615.448E-3	-12.9311E-3	152.539E-12	618.721E-3	-43.8586E-3
4.00950E-3	151.458E-12	619.989E-3	-25.7951E-3	152.563E-12	624.585E-3	-14.0989E-3
4.00450E-3	151.719E-12	615.258E-3	-5.46535E-3	151.806E-12	609.889E-3	8.89968E-3
3.99950E-3	152.309E-12	633.763E-3	21.4850E-3	151.222E-12	598.135E-3	11.2443E-3
3.99450E-3	151.963E-12	642.203E-3	15.6714E-3	151.197E-12	624.012E-3	-17.0965E-3
3.98949E-3	150.118E-12	629.536E-3	-2.95096E-3	149.042E-12	643.350E-3	-45.4974E-3
3.98449E-3	150.108E-12	621.196E-3	4.85659E-3	148.773E-12	627.255E-3	-38.8881E-3
3.97949E-3	151.350E-12	623.839E-3	13.8633E-3	147.448E-12	587.995E-3	-29.7418E-3
3.97449E-3	150.979E-12	622.194E-3	-20.2499E-3	147.116E-12	572.405E-3	-39.6562E-3
3.96948E-3	149.017E-12	610.845E-3	-74.5529E-3	147.262E-12	594.586E-3	-33.5448E-3
3.96448E-3	148.624E-12	619.078E-3	-80.0295E-3	147.152E-12	624.684E-3	-16.6564E-3
3.95948E-3	149.264E-12	625.160E-3	-41.1728E-3	146.622E-12	641.728E-3	-13.4502E-3
3.95448E-3	149.152E-12	583.735E-3	-12.0773E-3	146.192E-12	637.538E-3	-24.7019E-3
3.94947E-3	148.323E-12	551.474E-3	-13.6311E-3	146.927E-12	634.872E-3	-35.0689E-3
3.94447E-3	147.382E-12	574.194E-3	-18.4970E-3	147.291E-12	637.073E-3	-31.3330E-3
3.93947E-3	147.547E-12	592.527E-3	-28.3267E-3	148.160E-12	640.071E-3	-24.6213E-3
3.93447E-3	147.862E-12	590.584E-3	-53.4508E-3	148.335E-12	643.788E-3	-20.8405E-3
3.92946E-3	148.281E-12	602.951E-3	-54.4787E-3	148.337E-12	647.110E-3	-31.4929E-3
3.92446E-3	147.689E-12	598.827E-3	-30.0636E-3	148.959E-12	651.517E-3	-38.7732E-3
3.91946E-3	148.420E-12	568.213E-3	-11.1585E-3	149.911E-12	640.949E-3	-25.7508E-3
3.91446E-3	149.784E-12	561.292E-3	689.915E-6	149.163E-12	624.422E-3	-19.9244E-3
3.90945E-3	150.204E-12	593.821E-3	-6.05532E-3	147.766E-12	603.905E-3	-20.7869E-3
3.90445E-3	148.646E-12	624.198E-3	-22.7515E-3	147.420E-12	586.683E-3	-41.5848E-3
3.89945E-3	148.698E-12	640.889E-3	-13.6149E-3	147.878E-12	581.290E-3	-67.8372E-3
3.89445E-3	149.761E-12	654.769E-3	6.37905E-3	148.505E-12	575.068E-3	-56.4585E-3
3.88944E-3	150.223E-12	659.172E-3	23.7394E-3	146.645E-12	582.065E-3	-38.3149E-3
3.88444E-3	148.287E-12	655.506E-3	22.5204E-3	144.727E-12	586.255E-3	-23.8324E-3
3.87944E-3	147.751E-12	653.351E-3	1.48128E-3	144.734E-12	580.234E-3	-8.76439E-3
3.87444E-3	148.129E-12	656.808E-3	-21.4407E-3	145.930E-12	600.026E-3	-16.2388E-3
3.86943E-3	148.132E-12	660.867E-3	-38.6610E-3	143.940E-12	631.591E-3	-21.5526E-3
3.86443E-3	146.596E-12	660.592E-3	-27.2616E-3	142.392E-12	633.920E-3	-2.02522E-3
3.85943E-3	146.426E-12	650.034E-3	-7.37165E-3	143.525E-12	613.860E-3	22.9948E-3
3.85443E-3	145.600E-12	658.343E-3	-7.23551E-3	144.515E-12	602.736E-3	20.4545E-3
3.84942E-3	145.113E-12	665.020E-3	-11.4125E-3	144.359E-12	605.802E-3	-2.82254E-3
3.84442E-3	143.913E-12	630.528E-3	-13.0226E-3	143.602E-12	604.781E-3	-8.73152E-3
3.83942E-3	143.441E-12	591.807E-3	-25.4060E-3	143.598E-12	606.027E-3	-2.23886E-3
3.83442E-3	143.251E-12	589.815E-3	-29.1531E-3	144.111E-12	612.772E-3	6.87339E-3
3.82941E-3	143.499E-12	617.355E-3	-24.7861E-3	145.310E-12	635.220E-3	14.2967E-3
3.82441E-3	143.127E-12	628.492E-3	-37.3832E-3	145.593E-12	660.529E-3	-39.8814E-6
3.81941E-3	142.229E-12	609.063E-3	-42.8822E-3	145.433E-12	648.344E-3	-26.9924E-3
3.81441E-3	142.211E-12	600.998E-3	-22.9072E-3	144.362E-12	641.518E-3	-33.1314E-3
3.80940E-3	142.417E-12	633.816E-3	-5.30790E-3	144.231E-12	649.559E-3	-26.9720E-3
3.80440E-3	143.132E-12	660.299E-3	-2.38155E-3	144.631E-12	649.357E-3	-25.8826E-3
3.79940E-3	143.443E-12	643.419E-3	-1.47701E-3	144.692E-12	666.709E-3	-24.1613E-3
3.79440E-3	142.459E-12	625.881E-3	-5.56534E-3	143.746E-12	689.021E-3	-16.9128E-3
3.78939E-3	142.049E-12	632.272E-3	-22.9490E-3	142.455E-12	672.519E-3	-6.45054E-3
3.78439E-3	141.808E-12	630.859E-3	-40.0713E-3	142.724E-12	619.984E-3	-14.8748E-3
3.77939E-3	141.383E-12	599.377E-3	-39.9764E-3	141.799E-12	581.981E-3	-39.6646E-3
3.77439E-3	139.854E-12	573.377E-3	-28.0011E-3	141.774E-12	557.933E-3	-33.0811E-3
3.76938E-3	139.046E-12	592.446E-3	-13.8878E-3	139.718E-12	548.620E-3	-899.546E-6
3.76438E-3	138.871E-12	623.605E-3	-11.6401E-3	140.189E-12	597.780E-3	2.54652E-3
3.75938E-3	138.633E-12	633.813E-3	-23.1410E-3	141.537E-12	633.465E-3	-13.8368E-3
3.75438E-3	138.320E-12	627.562E-3	-28.3210E-3	140.007E-12	621.080E-3	-33.5939E-3
3.74937E-3	137.096E-12	604.251E-3	-13.4304E-3	138.715E-12	626.806E-3	-53.2391E-3
3.74437E-3	136.313E-12	588.842E-3	4.05260E-3	138.475E-12	630.598E-3	-57.8118E-3
3.73937E-3	136.008E-12	593.839E-3	18.9380E-6	140.839E-12	610.778E-3	-46.4796E-3
3.73437E-3	137.284E-12	594.425E-3	-17.7854E-3	140.287E-12	586.047E-3	-24.3680E-3
3.72936E-3	136.310E-12	583.216E-3	-17.5733E-3	139.417E-12	601.668E-3	-11.8971E-3
3.72436E-3	135.803E-12	574.680E-3	2.12593E-3	138.873E-12	655.599E-3	-23.1800E-3
3.71936E-3	137.174E-12	581.922E-3	2.62171E-3	140.415E-12	673.735E-3	-46.0846E-3
3.71436E-3	138.837E-12	592.056E-3	-9.17959E-3	140.640E-12	675.634E-3	-52.1728E-3
3.70935E-3	138.121E-12	591.852E-3	-12.5113E-3	139.954E-12	679.269E-3	-38.1967E-3
3.70435E-3	137.645E-12	612.446E-3	-12.9454E-3	140.167E-12	663.018E-3	-10.5154E-3
3.69935E-3	137.132E-12	634.715E-3	-6.04377E-3	140.816E-12	645.684E-3	-2.79659E-3
3.69435E-3	138.656E-12	627.122E-3	-2.87503E-3	141.537E-12	631.686E-3	-27.7722E-3
3.68934E-3	139.356E-12	631.187E-3	-9.62389E-3	140.782E-12	616.899E-3	-25.5864E-3
3.68434E-3	137.772E-12	628.486E-3	-5.15063E-3	139.567E-12	615.446E-3	-13.9708E-3
3.67934E-3	136.700E-12	614.181E-3	-6.38839E-3	140.542E-12	628.179E-3	-18.2456E-3
3.67434E-3	137.147E-12	627.800E-3	-32.1318E-3	140.548E-12	638.259E-3	-8.66357E-3
3.66933E-3	138.973E-12	638.286E-3	-25.0935E-3	139.392E-12	633.408E-3	-11.4771E-3
3.66433E-3	137.159E-12	625.352E-3	8.81287E-3	137.455E-12	630.879E-3	-32.0121E-3
3.65933E-3	134.789E-12	621.344E-3	-2.30456E-3	137.289E-12	654.492E-3	-17.5567E-3
3.65433E-3	134.113E-12	629.896E-3	-33.4986E-3	137.682E-12	670.913E-3	7.98764E-3
3.64932E-3	137.075E-12	637.728E-3	-39.9002E-3	138.313E-12	650.281E-3	-509.408E-6
3.64432E-3	136.465E-12	634.379E-3	-39.4056E-3	137.410E-12	620.616E-3	-17.0309E-3
3.63932E-3	134.703E-12	618.993E-3	-15.2690E-3	136.513E-12	612.081E-3	-31.6247E-3
3.63432E-3	133.530E-12	612.379E-3	19.3531E-3	135.975E-12	619.859E-3	-40.2728E-3
3.62931E-3	133.643E-12	607.400E-3	9.38194E-3	136.189E-12	621.866E-3	-31.3060E-3
3.62431E-3	135.246E-12	606.465E-3	-18.1835E-3	136.262E-12	621.303E-3	-23.3036E-3
3.61931E-3	135.395E-12	612.442E-3	-28.8725E-3	136.523E-12	631.231E-3	-22.8521E-3
3.61431E-3	134.704E-12	619.088E-3	-32.6925E-3	134.945E-12	639.408E-3	-39.8780E-3
3.60930E-3	134.111E-12	634.133E-3	-29.9147E-3	134.912E-12	636.753E-3	-54.2596E-3
3.60430E-3	134.535E-12	644.149E-3	-18.3715E-3	136.064E-12	618.712E-3	-27.9470E-3
3.59930E-3	136.021E-12	633.137E-3	-32.1660E-3	136.793E-12	597.973E-3	-8.50955E-3
3.59430E-3	136.625E-12	640.580E-3	-56.0214E-3	135.854E-12	605.916E-3	-13.4704E-3
3.58929E-3	135.087E-12	662.961E-3	-41.5570E-3	135.271E-12	615.703E-3	-6.49397E-3
3.58429E-3	133.661E-12	650.853E-3	-18.9577E-3	136.969E-12	606.594E-3	-16.5749E-3
3.57929E-3	134.130E-12	638.384E-3	-16.4425E-3	136.980E-12	606.640E-3	-45.5054E-3
3.57429E-3	134.808E-12	645.133E-3	-14.2992E-3	134.870E-12	627.359E-3	-47.4176E-3
3.56928E-3	134.043E-12	644.067E-3	3.44884E-3	134.143E-12	638.058E-3	-37.0036E-3
3.56428E-3	132.425E-12	652.833E-3	15.4796E-3	134.827E-12	626.708E-3	-34.3765E-3
3.55928E-3	132.054E-12	670.263E-3	2.84623E-3	134.051E-12	622.716E-3	-27.1513E-3
3.55428E-3	132.798E-12	650.576E-3	-11.8907E-3	132.100E-12	630.307E-3	-14.2012E-3
3.54927E-3	132.146E-12	622.570E-3	-34.6491E-3	130.041E-12	624.138E-3	-4.88580E-3
3.54427E-3	131.342E-12	597.960E-3	-53.5565E-3	130.315E-12	617.236E-3	-15.1291E-3
3.53927E-3	130.675E-12	569.179E-3	-29.1317E-3	130.514E-12	623.009E-3	-28.3665E-3
3.53427E-3	130.917E-12	600.786E-3	-11.4719E-3	130.371E-12	610.260E-3	-25.5272E-3
3.52926E-3	130.819E-12	652.403E-3	-14.4434E-3	129.317E-12	598.693E-3	-20.6494E-3
3.52426E-3	130.166E-12	649.968E-3	-1.14216E-3	129.625E-12	628.297E-3	-9.14966E-3
3.51926E-3	129.591E-12	641.839E-3	22.7006E-3	129.135E-12	651.624E-3	2.68113E-3
3.51426E-3	129.652E-12	643.113E-3	25.7436E-3	129.904E-12	645.360E-3	-3.43828E-3
3.50925E-3	129.411E-12	633.974E-3	-12.0064E-3	130.327E-12	650.650E-3	-18.3251E-3
3.50425E-3	129.313E-12	646.357E-3	-50.4981E-3	130.393E-12	652.767E-3	-23.9881E-3
3.49925E-3	128.908E-12	663.633E-3	-69.8693E-3	131.106E-12	637.800E-3	-17.0148E-3
3.49425E-3	128.410E-12	651.079E-3	-84.1470E-3	131.282E-12	619.029E-3	-17.6426E-3
3.48924E-3	129.582E-12	633.811E-3	-78.9883E-3	131.198E-12	594.354E-3	-33.2471E-3
3.48424E-3	130.046E-12	637.523E-3	-53.8365E-3	130.367E-12	601.483E-3	-27.6329E-3
3.47924E-3	129.279E-12	644.936E-3	-51.2521E-3	129.945E-12	637.575E-3	6.92502E-3
3.47424E-3	128.462E-12	640.087E-3	-39.5411E-3	129.210E-12	638.043E-3	18.5852E-3
3.46923E-3	129.598E-12	632.749E-3	9.87792E-3	129.112E-12	623.071E-3	-1.02025E-3
3.46423E-3	130.778E-12	626.669E-3	40.0310E-3	128.430E-12	618.488E-3	-22.4771E-3
3.45923E-3	130.519E-12	621.075E-3	22.3429E-3	127.949E-12	612.812E-3	-34.6181E-3
3.45423E-3	128.853E-12	628.194E-3	-8.64570E-3	126.535E-12	608.666E-3	-36.1098E-3
3.44922E-3	128.547E-12	631.889E-3	-6.80518E-3	126.285E-12	605.810E-3	-31.0699E-3
3.44422E-3	128.366E-12	621.540E-3	-5.20135E-3	126.094E-12	616.269E-3	-9.17022E-3
3.43922E-3	127.735E-12	623.931E-3	-27.1987E-3	125.754E-12	629.705E-3	2.28286E-3
3.43422E-3	127.974E-12	612.571E-3	-23.4815E-3	124.647E-12	641.043E-3	-14.8669E-3
3.42921E-3	126.868E-12	596.907E-3	-3.49857E-3	125.014E-12	639.709E-3	-18.5889E-3
3.42421E-3	126.766E-12	621.030E-3	-13.7497E-3	126.092E-12	613.841E-3	-13.9340E-3
3.41921E-3	126.037E-12	643.047E-3	-31.3875E-3	126.887E-12	599.681E-3	-33.7435E-3
3.41421E-3	126.712E-12	632.491E-3	-36.8253E-3	125.353E-12	623.681E-3	-55.3235E-3
3.40920E-3	125.209E-12	629.354E-3	-28.3149E-3	126.095E-12	657.697E-3	-33.7395E-3
3.40420E-3	125.000E-12	654.768E-3	-3.28500E-3	127.532E-12	657.634E-3	-7.45557E-3
3.39920E-3	125.698E-12	667.431E-3	-8.77861E-3	128.681E-12	653.857E-3	-7.49696E-3
3.39420E-3	125.879E-12	658.056E-3	-43.4859E-3	127.448E-12	665.638E-3	-8.10837E-3
3.38919E-3	125.449E-12	643.638E-3	-39.9737E-3	127.364E-12	663.545E-3	-13.9402E-3
3.38419E-3	125.212E-12	631.318E-3	-8.10757E-3	127.919E-12	645.116E-3	1.14893E-3
3.37919E-3	125.209E-12	641.842E-3	4.95634E-3	126.872E-12	632.854E-3	24.5794E-3
3.37419E-3	125.229E-12	666.746E-3	18.8481E-3	126.281E-12	643.204E-3	5.44587E-3
3.36918E-3	125.045E-12	672.058E-3	31.8087E-3	125.704E-12	641.093E-3	-25.0672E-3
3.36418E-3	123.792E-12	654.017E-3	18.3955E-3	125.428E-12	625.945E-3	-30.7809E-3
3.35918E-3	123.819E-12	630.592E-3	3.63347E-3	124.198E-12	633.030E-3	-11.0001E-3
3.35418E-3	124.188E-12	602.212E-3	-6.59347E-3	123.862E-12	633.668E-3	21.5449E-3
3.34917E-3	123.912E-12	594.073E-3	-35.0970E-3	122.774E-12	622.952E-3	39.6525E-3
3.34417E-3	122.094E-12	630.574E-3	-46.8891E-3	123.452E-12	628.038E-3	26.3524E-3
3.33917E-3	121.137E-12	653.468E-3	-16.0593E-3	123.262E-12	633.352E-3	3.03486E-3
3.33417E-3	121.429E-12	643.507E-3	3.21169E-3	122.286E-12	631.184E-3	-1.63450E-3
3.32916E-3	121.132E-12	644.440E-3	1.33081E-3	121.739E-12	633.613E-3	11.1882E-3
3.32416E-3	120.188E-12	635.444E-3	7.50327E-3	122.114E-12	641.262E-3	13.0847E-3
3.31916E-3	119.523E-12	619.918E-3	7.84323E-3	122.843E-12	658.649E-3	-8.16211E-3
3.31416E-3	119.668E-12	618.620E-3	-3.22258E-3	122.240E-12	670.983E-3	-37.1846E-3
3.30915E-3	120.541E-12	603.383E-3	38.9580E-6	121.712E-12	662.302E-3	-67.2397E-3
3.30415E-3	121.690E-12	600.459E-3	-3.64035E-3	122.126E-12	649.178E-3	-75.1766E-3
3.29915E-3	120.983E-12	631.911E-3	-29.5287E-3	123.518E-12	640.080E-3	-42.9039E-3
3.29415E-3	120.198E-12	642.042E-3	-33.0510E-3	123.946E-12	629.166E-3	-5.91249E-3
3.28914E-3	121.333E-12	628.707E-3	-23.2359E-3	122.633E-12	615.449E-3	973.144E-6
3.28414E-3	122.472E-12	633.491E-3	-23.7148E-3	121.278E-12	624.245E-3	-10.0264E-3
3.27914E-3	122.761E-12	650.232E-3	-21.0334E-3	121.161E-12	665.600E-3	-3.31670E-3
3.27414E-3	120.813E-12	661.270E-3	-21.0768E-3	122.965E-12	679.761E-3	-7.00647E-3
3.26913E-3	121.114E-12	657.138E-3	-17.3973E-3	121.712E-12	655.206E-3	-34.9181E-3
3.26413E-3	121.309E-12	634.395E-3	-9.20270E-3	119.512E-12	638.442E-3	-50.1334E-3
3.25913E-3	121.636E-12	618.320E-3	-26.0260E-3	119.511E-12	634.685E-3	-45.3242E-3
3.25413E-3	120.209E-12	638.787E-3	-43.9768E-3	121.327E-12	635.356E-3	-21.2360E-3
3.24912E-3	119.052E-12	663.756E-3	-29.7629E-3	120.856E-12	641.113E-3	3.35502E-3
3.24412E-3	118.594E-12	663.179E-3	-6.09903E-3	119.389E-12	633.568E-3	5.38541E-3
3.23912E-3	118.795E-12	654.277E-3	14.0382E-6	117.969E-12	629.088E-3	2.47587E-3
3.23412E-3	117.284E-12	644.127E-3	-11.5730E-3	118.964E-12	644.649E-3	-2.69264E-3
3.22911E-3	116.528E-12	636.475E-3	-19.3824E-3	119.404E-12	634.731E-3	-19.9587E-3
3.22411E-3	117.035E-12	639.272E-3	-8.44257E-3	118.527E-12	611.300E-3	-24.9263E-3
3.21911E-3	116.998E-12	650.664E-3	3.35609E-3	116.730E-12	608.151E-3	-26.4114E-3
3.21411E-3	116.717E-12	651.261E-3	718.157E-6	116.619E-12	619.918E-3	-41.7716E-3
3.20910E-3	116.490E-12	632.701E-3	-17.4384E-3	116.720E-12	635.487E-3	-41.9039E-3
3.20410E-3	116.448E-12	616.363E-3	-32.1989E-3	116.542E-12	626.693E-3	-36.4138E-3
3.19910E-3	115.924E-12	613.710E-3	-34.8850E-3	116.408E-12	614.273E-3	-31.4797E-3
3.19410E-3	116.387E-12	616.435E-3	-52.4313E-3	115.536E-12	632.364E-3	-10.6984E-3
3.18909E-3	116.543E-12	633.524E-3	-57.7249E-3	115.852E-12	652.141E-3	5.43152E-3
3.18409E-3	116.688E-12	645.409E-3	-13.7569E-3	116.639E-12	648.071E-3	1.16762E-3
3.17909E-3	116.334E-12	632.587E-3	13.5826E-3	116.716E-12	643.642E-3	-7.47852E-3
3.17409E-3	116.196E-12	625.095E-3	-11.8743E-3	116.005E-12	668.613E-3	-9.07217E-3
3.16908E-3	116.538E-12	610.337E-3	-36.8688E-3	115.711E-12	690.751E-3	-24.7430E-3
3.16408E-3	115.825E-12	586.610E-3	-34.9922E-3	116.220E-12	661.026E-3	-35.5761E-3
3.15908E-3	116.015E-12	602.443E-3	-7.91271E-3	116.248E-12	626.251E-3	-36.0636E-3
3.15408E-3	115.260E-12	629.210E-3	3.69277E-3	115.418E-12	623.316E-3	-43.1440E-3
3.14907E-3	115.339E-12	638.102E-3	-12.0534E-3	114.146E-12	629.556E-3	-24.0571E-3
3.14407E-3	114.482E-12	654.837E-3	-8.87736E-3	114.692E-12	627.604E-3	-8.68808E-3
3.13907E-3	114.259E-12	656.272E-3	-4.26862E-3	114.402E-12	606.047E-3	-26.7690E-3
3.13407E-3	114.301E-12	643.306E-3	-16.6133E-3	114.147E-12	609.808E-3	-31.2308E-3
3.12906E-3	113.475E-12	652.893E-3	-11.9281E-3	112.630E-12	646.339E-3	-16.4745E-3
3.12406E-3	113.767E-12	673.130E-3	920.001E-6	112.225E-12	661.523E-3	-6.04395E-3
3.11906E-3	113.298E-12	681.070E-3	-11.2415E-3	111.763E-12	649.384E-3	8.25021E-3
3.11406E-3	112.674E-12	675.000E-3	-16.2370E-3	112.797E-12	633.260E-3	16.7534E-3
3.10905E-3	113.172E-12	656.817E-3	-3.57378E-3	112.263E-12	622.063E-3	4.48143E-3
3.10405E-3	113.320E-12	633.539E-3	9.99742E-3	111.775E-12	623.514E-3	-7.83175E-3
3.09905E-3	113.145E-12	619.014E-3	8.84450E-3	111.919E-12	636.216E-3	-12.3482E-3
3.09405E-3	112.397E-12	628.722E-3	-10.7005E-3	112.979E-12	634.905E-3	-21.0751E-3
3.08904E-3	112.443E-12	626.499E-3	-21.1955E-3	112.793E-12	621.224E-3	-20.3799E-3
3.08404E-3	112.648E-12	614.177E-3	-18.3884E-3	113.166E-12	622.726E-3	-3.72085E-3
3.07904E-3	111.623E-12	632.803E-3	-22.4317E-3	113.046E-12	630.325E-3	-17.7008E-3
3.07404E-3	111.046E-12	648.709E-3	-28.8693E-3	113.522E-12	634.965E-3	-44.8439E-3
3.06903E-3	111.040E-12	642.886E-3	-17.3860E-3	114.436E-12	641.339E-3	-32.7280E-3
3.06403E-3	111.232E-12	631.195E-3	-7.03503E-3	114.061E-12	630.976E-3	-29.7302E-3
3.05903E-3	109.568E-12	631.237E-3	-7.60278E-3	112.711E-12	608.214E-3	-42.5855E-3
3.05403E-3	109.739E-12	639.942E-3	-8.24670E-3	111.910E-12	606.117E-3	-38.6558E-3
3.04902E-3	110.599E-12	626.597E-3	-2.98381E-3	112.059E-12	633.176E-3	-34.3671E-3
3.04402E-3	110.486E-12	610.667E-3	1.58347E-3	110.611E-12	642.759E-3	-23.7854E-3
3.03902E-3	109.159E-12	633.039E-3	-3.02263E-3	109.606E-12	618.053E-3	-2.95918E-3
3.03402E-3	108.865E-12	648.437E-3	-7.34337E-3	109.000E-12	610.272E-3	-2.72761E-3
3.02901E-3	110.141E-12	617.173E-3	-17.3446E-3	109.643E-12	607.533E-3	-29.6576E-3
3.02401E-3	109.990E-12	605.684E-3	-41.0518E-3	108.675E-12	591.615E-3	-37.6757E-3
3.01901E-3	108.499E-12	629.991E-3	-57.1030E-3	107.589E-12	601.926E-3	-26.1531E-3
3.01401E-3	108.123E-12	639.743E-3	-42.3000E-3	107.123E-12	622.167E-3	-22.7051E-3
3.00900E-3	108.961E-12	633.857E-3	-3.89580E-3	107.670E-12	622.921E-3	-26.3093E-3
3.00400E-3	108.391E-12	635.315E-3	26.9456E-3	107.875E-12	634.856E-3	-20.6725E-3
2.99900E-3	107.625E-12	636.796E-3	21.1342E-3	108.049E-12	656.654E-3	-5.18508E-3
2.99400E-3	107.420E-12	632.169E-3	-7.41524E-3	107.598E-12	649.899E-3	1.62451E-3
2.98899E-3	107.356E-12	642.110E-3	-20.9626E-3	108.423E-12	637.797E-3	-1.53391E-3
2.98399E-3	107.691E-12	653.250E-3	-11.4099E-3	109.069E-12	651.862E-3	-14.4996E-3
2.97899E-3	106.802E-12	656.396E-3	-12.9955E-3	108.746E-12	663.604E-3	-9.51291E-3
2.97399E-3	106.784E-12	654.959E-3	-20.6762E-3	108.440E-12	652.370E-3	5.39785E-3
2.96898E-3	105.967E-12	635.628E-3	-18.9308E-3	109.540E-12	638.728E-3	3.44165E-3
2.96398E-3	107.114E-12	620.469E-3	-30.3772E-3	109.975E-12	628.035E-3	-8.83733E-3
2.95898E-3	106.935E-12	627.246E-3	-32.3363E-3	109.806E-12	615.107E-3	-28.5265E-3
2.95398E-3	106.642E-12	629.471E-3	-15.2141E-3	107.976E-12	617.875E-3	-38.6583E-3
2.94897E-3	106.146E-12	627.436E-3	-6.95721E-3	107.098E-12	618.901E-3	-33.6351E-3
2.94397E-3	107.188E-12	634.524E-3	-1.54900E-3	107.041E-12	610.977E-3	-33.3816E-3
2.93897E-3	107.042E-12	636.065E-3	7.08055E-3	106.035E-12	620.356E-3	-28.7023E-3
2.93397E-3	107.130E-12	640.536E-3	-7.01760E-3	104.534E-12	629.760E-3	-25.4806E-3
2.92896E-3	106.081E-12	672.394E-3	-18.4782E-3	104.759E-12	631.025E-3	-30.5302E-3
2.92396E-3	105.340E-12	697.105E-3	-14.6640E-3	104.385E-12	637.523E-3	-26.8011E-3
2.91896E-3	105.381E-12	681.037E-3	-25.8584E-3	103.377E-12	635.310E-3	-21.5547E-3
2.91396E-3	104.536E-12	661.455E-3	-29.5562E-3	102.611E-12	616.040E-3	-13.7290E-3
2.90895E-3	103.814E-12	639.431E-3	-24.8557E-3	101.953E-12	612.320E-3	-19.6985E-3
2.90395E-3	103.142E-12	604.738E-3	-30.7143E-3	101.940E-12	634.347E-3	-38.4259E-3
2.89895E-3	102.638E-12	605.354E-3	-25.4462E-3	101.836E-12	662.088E-3	-18.2657E-3
2.89395E-3	102.704E-12	648.652E-3	-6.94492E-3	102.356E-12	683.242E-3	11.1324E-3
2.88894E-3	103.376E-12	680.445E-3	-15.4923E-3	102.532E-12	674.179E-3	4.19108E-3
2.88394E-3	103.005E-12	680.116E-3	-26.4604E-3	102.332E-12	651.036E-3	-16.2643E-3
2.87894E-3	102.035E-12	667.568E-3	395.159E-6	102.423E-12	633.665E-3	-27.5899E-3
2.87394E-3	102.497E-12	640.569E-3	24.0089E-3	104.079E-12	631.935E-3	-29.7395E-3
2.86893E-3	103.355E-12	620.449E-3	-967.634E-6	103.462E-12	662.283E-3	-15.3076E-3
2.86393E-3	104.171E-12	635.201E-3	-31.1693E-3	102.349E-12	677.907E-3	-1.58938E-3
2.85893E-3	103.418E-12	648.879E-3	-28.4894E-3	102.635E-12	663.630E-3	-18.8648E-3
2.85393E-3	103.398E-12	643.234E-3	-18.9080E-3	103.800E-12	653.145E-3	-32.0968E-3
2.84892E-3	103.632E-12	634.473E-3	744.603E-6	102.652E-12	659.514E-3	-25.6518E-3
2.84392E-3	103.640E-12	626.140E-3	22.9464E-3	101.514E-12	666.699E-3	-23.1973E-3
2.83892E-3	103.167E-12	634.322E-3	15.3787E-3	101.277E-12	663.650E-3	-22.7478E-3
2.83392E-3	102.512E-12	651.441E-3	-7.07445E-3	101.289E-12	664.946E-3	-15.0155E-3
2.82891E-3	102.365E-12	634.956E-3	-22.6717E-3	100.732E-12	663.664E-3	-16.7662E-3
2.82391E-3	102.433E-12	618.658E-3	-31.1302E-3	100.032E-12	650.283E-3	-34.5757E-3
2.81891E-3	102.268E-12	631.706E-3	-21.0684E-3	100.393E-12	645.191E-3	-27.6293E-3
2.81391E-3	101.084E-12	632.796E-3	-10.3196E-3	99.9241E-12	651.479E-3	-1.28000E-3
2.80890E-3	100.123E-12	623.563E-3	-7.75078E-3	99.4289E-12	656.798E-3	-1.06899E-3
2.80390E-3	99.4187E-12	630.290E-3	-9.10994E-3	99.2944E-12	668.038E-3	-20.9407E-3
2.79890E-3	99.6501E-12	642.331E-3	-11.2106E-3	99.6909E-12	680.196E-3	-21.8064E-3
2.79390E-3	99.6961E-12	643.439E-3	-12.6821E-3	99.0569E-12	676.595E-3	-820.007E-6
2.78889E-3	98.6395E-12	647.436E-3	-23.7573E-3	98.4549E-12	658.029E-3	7.47188E-3
2.78389E-3	97.9288E-12	655.063E-3	-26.4315E-3	99.2123E-12	648.390E-3	-12.2579E-3
2.77889E-3	98.3345E-12	637.927E-3	-24.4670E-3	100.470E-12	658.364E-3	-30.2903E-3
2.77389E-3	99.0732E-12	616.252E-3	-23.8886E-3	99.5328E-12	663.903E-3	-15.0046E-3
2.76888E-3	98.9888E-12	624.902E-3	-14.0926E-3	98.2281E-12	665.267E-3	7.90135E-3
2.76388E-3	98.6785E-12	646.928E-3	-2.78670E-3	98.3735E-12	669.067E-3	11.9455E-3
2.75888E-3	99.1780E-12	662.434E-3	400.225E-6	98.7519E-12	657.408E-3	15.6945E-3
2.75388E-3	98.7837E-12	662.541E-3	12.9759E-3	98.9641E-12	648.249E-3	12.8425E-3
2.74887E-3	99.1749E-12	655.556E-3	16.8699E-3	98.1334E-12	650.383E-3	-4.80137E-3
2.74387E-3	98.5307E-12	668.089E-3	-8.63534E-3	97.8845E-12	660.967E-3	-13.3181E-3
2.73887E-3	97.4400E-12	680.698E-3	-15.6960E-3	97.9964E-12	677.688E-3	-21.0342E-3
2.73387E-3	96.9573E-12	660.634E-3	-7.18955E-3	98.6538E-12	681.026E-3	-35.5374E-3
2.72886E-3	97.3523E-12	644.883E-3	-13.7639E-3	98.3264E-12	680.959E-3	-38.3951E-3
2.72386E-3	97.4968E-12	655.141E-3	-22.2503E-3	96.8403E-12	681.982E-3	-34.1696E-3
2.71886E-3	96.7643E-12	674.378E-3	-23.9025E-3	96.1986E-12	673.830E-3	-33.5074E-3
2.71386E-3	95.5737E-12	700.521E-3	-28.2060E-3	96.2924E-12	663.371E-3	-19.7941E-3
2.70885E-3	95.1571E-12	719.406E-3	-19.8831E-3	96.5949E-12	659.464E-3	2.93636E-3
2.70385E-3	95.6907E-12	702.224E-3	-6.02112E-3	94.8308E-12	659.183E-3	-56.8318E-6
2.69885E-3	94.9276E-12	670.197E-3	-9.10481E-3	94.6013E-12	653.704E-3	-24.6092E-3
2.69385E-3	94.1896E-12	655.473E-3	-25.4409E-3	93.8938E-12	648.345E-3	-25.1492E-3
2.68884E-3	93.7785E-12	650.100E-3	-36.3493E-3	93.8345E-12	656.256E-3	-12.8704E-3
2.68384E-3	94.5192E-12	656.315E-3	-28.4563E-3	93.5068E-12	656.758E-3	-21.4598E-3
2.67884E-3	94.3120E-12	660.592E-3	-17.1873E-3	93.1918E-12	648.926E-3	-27.5588E-3
2.67384E-3	94.1649E-12	657.017E-3	-20.2976E-3	93.6543E-12	659.507E-3	-22.7572E-3
2.66883E-3	93.7702E-12	652.482E-3	-32.5292E-3	93.4341E-12	679.377E-3	-27.6227E-3
2.66383E-3	93.9832E-12	654.029E-3	-26.3559E-3	94.3328E-12	686.771E-3	-25.2365E-3
2.65883E-3	93.7825E-12	659.631E-3	-18.2562E-3	94.3194E-12	671.343E-3	-11.6158E-3
2.65383E-3	93.7088E-12	659.330E-3	-38.8784E-3	94.4218E-12	654.285E-3	-4.00675E-3
2.64882E-3	93.8330E-12	657.135E-3	-54.6032E-3	93.5990E-12	664.977E-3	-7.68426E-3
2.64382E-3	93.7031E-12	648.265E-3	-45.2357E-3	94.3568E-12	678.837E-3	-14.6032E-3
2.63882E-3	92.3879E-12	649.616E-3	-29.8553E-3	93.9044E-12	665.703E-3	-17.5020E-3
2.63382E-3	92.3913E-12	659.919E-3	-19.7250E-3	93.5849E-12	662.688E-3	-27.9659E-3
2.62881E-3	93.2625E-12	662.085E-3	-19.7300E-3	93.5033E-12	674.048E-3	-21.8829E-3
2.62381E-3	93.4836E-12	660.142E-3	-28.1783E-3	92.6593E-12	668.563E-3	-11.3059E-3
2.61881E-3	91.8774E-12	663.373E-3	-24.3271E-3	92.7905E-12	668.920E-3	-28.6068E-3
2.61381E-3	91.1650E-12	674.196E-3	-5.99465E-3	91.5154E-12	672.900E-3	-43.9613E-3
2.60880E-3	91.7610E-12	675.050E-3	-10.0888E-3	89.8568E-12	673.609E-3	-38.3914E-3
2.60380E-3	92.6201E-12	670.842E-3	-32.0759E-3	89.8804E-12	687.769E-3	-25.1574E-3
2.59880E-3	91.9030E-12	671.343E-3	-39.2636E-3	89.4185E-12	695.001E-3	-12.3790E-3
2.59380E-3	90.6654E-12	675.838E-3	-29.5157E-3	88.9967E-12	670.713E-3	-8.39716E-3
2.58879E-3	90.4228E-12	684.977E-3	-10.3243E-3	87.6976E-12	638.013E-3	-14.4750E-3
2.58379E-3	91.2739E-12	686.051E-3	807.234E-6	87.2180E-12	626.994E-3	-11.0317E-3
2.57879E-3	91.6142E-12	676.464E-3	-20.3564E-3	87.2051E-12	633.392E-3	965.410E-6
2.57379E-3	90.7268E-12	676.248E-3	-41.6720E-3	88.4301E-12	659.040E-3	8.65391E-3
2.56878E-3	89.5230E-12	691.035E-3	-40.1056E-3	88.0597E-12	697.393E-3	4.49418E-3
2.56378E-3	89.2761E-12	705.860E-3	-33.3177E-3	88.2674E-12	709.492E-3	-3.70455E-3
2.55878E-3	90.7670E-12	707.185E-3	-19.9243E-3	88.4666E-12	698.993E-3	5.87605E-3
2.55378E-3	90.7527E-12	695.181E-3	-11.5175E-3	89.8285E-12	694.008E-3	4.50813E-3
2.54877E-3	89.5954E-12	688.350E-3	-19.6307E-3	90.1405E-12	679.123E-3	-12.4740E-3
2.54377E-3	88.5750E-12	705.046E-3	-38.3691E-3	89.3537E-12	665.099E-3	-10.8631E-3
2.53877E-3	89.4966E-12	719.966E-3	-40.8323E-3	88.9397E-12	682.413E-3	-653.555E-6
2.53377E-3	90.9422E-12	701.150E-3	-20.6349E-3	89.6310E-12	699.988E-3	1.57473E-3
2.52876E-3	89.9887E-12	685.336E-3	-20.0640E-3	89.6371E-12	700.361E-3	-8.74738E-3
2.52376E-3	88.3390E-12	690.421E-3	-15.7153E-3	88.9073E-12	703.985E-3	-21.3870E-3
2.51876E-3	88.6719E-12	686.446E-3	3.23668E-3	88.1909E-12	694.220E-3	-24.3306E-3
2.51376E-3	89.7620E-12	691.175E-3	-996.425E-6	87.6741E-12	668.352E-3	-12.8670E-3
2.50875E-3	89.0108E-12	709.376E-3	-6.74233E-3	87.6103E-12	664.226E-3	14.4045E-3
2.50375E-3	87.3215E-12	698.243E-3	-2.55414E-3	86.9005E-12	683.729E-3	29.2659E-3
2.49875E-3	86.4340E-12	668.988E-3	-7.17641E-3	85.4931E-12	701.313E-3	6.77401E-3
2.49375E-3	87.0940E-12	652.709E-3	-6.25442E-3	85.6997E-12	704.401E-3	-25.7740E-3
2.48874E-3	86.6935E-12	655.077E-3	3.08868E-3	86.0258E-12	699.120E-3	-31.6904E-3
2.48374E-3	85.0735E-12	672.499E-3	-7.14098E-3	85.9593E-12	689.816E-3	-16.6839E-3
2.47874E-3	84.0451E-12	680.660E-3	-15.4121E-3	85.1762E-12	684.291E-3	-6.15105E-3
2.47374E-3	83.9835E-12	667.800E-3	-8.50539E-3	84.3099E-12	692.536E-3	-17.3593E-3
2.46873E-3	83.6638E-12	653.626E-3	-19.7986E-3	84.6749E-12	694.328E-3	-34.0839E-3
2.46373E-3	83.8131E-12	648.759E-3	-35.3891E-3	85.2613E-12	688.956E-3	-32.3809E-3
2.45873E-3	83.3803E-12	659.529E-3	-24.5976E-3	85.5175E-12	679.843E-3	-28.8175E-3
2.45373E-3	82.9056E-12	675.821E-3	-11.6014E-3	84.4655E-12	663.357E-3	-30.3502E-3
2.44872E-3	82.5276E-12	673.677E-3	-7.99461E-3	84.1727E-12	666.051E-3	-28.3900E-3
2.44372E-3	83.1327E-12	667.799E-3	-9.09334E-3	84.3261E-12	685.288E-3	-24.1516E-3
2.43872E-3	83.3649E-12	664.686E-3	-33.3684E-3	85.1124E-12	697.361E-3	-16.0510E-3
2.43372E-3	83.9587E-12	678.884E-3	-57.3447E-3	85.0435E-12	701.139E-3	-14.1936E-3
2.42871E-3	83.4475E-12	704.462E-3	-34.5856E-3	83.6919E-12	702.575E-3	-16.0135E-3
2.42371E-3	84.3247E-12	700.864E-3	-5.60684E-3	83.3573E-12	707.755E-3	-7.86705E-3
2.41871E-3	84.6693E-12	692.471E-3	-6.93991E-3	83.0736E-12	693.848E-3	896.947E-6
2.41371E-3	84.2233E-12	698.607E-3	-2.52564E-3	82.7594E-12	679.000E-3	-459.899E-6
2.40870E-3	82.9542E-12	694.475E-3	742.406E-6	82.1030E-12	681.899E-3	-2.71640E-3
2.40370E-3	82.4348E-12	682.265E-3	-9.44734E-3	81.2282E-12	682.732E-3	485.788E-6
2.39870E-3	83.3211E-12	670.474E-3	-10.7098E-3	81.6106E-12	684.626E-3	-5.71880E-3
2.39370E-3	82.3470E-12	662.913E-3	5.92934E-3	80.8777E-12	681.043E-3	-24.3148E-3
2.38869E-3	80.6580E-12	669.235E-3	10.5056E-3	80.8510E-12	670.956E-3	-32.7065E-3
2.38369E-3	80.2235E-12	685.075E-3	-381.322E-6	80.5108E-12	675.613E-3	-23.8522E-3
2.37869E-3	81.0150E-12	694.379E-3	-11.9019E-3	80.6227E-12	682.647E-3	-20.4739E-3
2.37369E-3	80.3012E-12	697.905E-3	-20.5642E-3	80.4153E-12	670.605E-3	-22.9067E-3
2.36868E-3	78.6804E-12	710.183E-3	-9.23088E-3	80.0937E-12	664.984E-3	-15.9885E-3
2.36368E-3	77.9850E-12	706.716E-3	-9.46052E-3	79.4676E-12	679.502E-3	-21.6795E-3
2.35868E-3	78.0541E-12	682.879E-3	-21.4385E-3	79.9069E-12	701.989E-3	-32.3361E-3
2.35368E-3	78.4908E-12	672.613E-3	-25.0429E-3	79.8944E-12	713.577E-3	-29.9393E-3
2.34867E-3	78.2824E-12	669.047E-3	-29.5783E-3	79.8712E-12	697.505E-3	-23.6411E-3
2.34367E-3	78.5927E-12	673.955E-3	-27.4694E-3	79.3476E-12	676.173E-3	-12.9633E-3
2.33867E-3	78.1842E-12	688.746E-3	-21.2176E-3	78.9259E-12	680.751E-3	-11.8241E-3
2.33367E-3	78.3866E-12	694.180E-3	-17.9308E-3	78.8386E-12	692.929E-3	-17.9394E-3
2.32866E-3	78.5696E-12	706.281E-3	-27.4041E-3	78.3027E-12	697.567E-3	-22.6805E-3
2.32366E-3	78.9029E-12	711.884E-3	-36.8871E-3	78.1014E-12	700.477E-3	-20.8396E-3
2.31866E-3	78.6003E-12	684.358E-3	-40.8413E-3	77.6417E-12	693.393E-3	-17.2585E-3
2.31366E-3	78.3231E-12	669.848E-3	-46.5260E-3	77.9695E-12	687.821E-3	-21.1248E-3
2.30865E-3	78.2002E-12	690.593E-3	-35.8007E-3	77.7925E-12	687.739E-3	-18.0587E-3
2.30365E-3	78.0796E-12	708.510E-3	-12.1379E-3	77.4609E-12	685.214E-3	-10.3577E-3
2.29865E-3	78.2637E-12	715.764E-3	6.08911E-3	76.9564E-12	683.500E-3	-8.75065E-3
2.29365E-3	76.9275E-12	729.054E-3	14.4662E-3	76.3938E-12	696.223E-3	-10.6725E-3
2.28864E-3	76.4817E-12	735.096E-3	11.6176E-3	76.5903E-12	720.341E-3	-12.9384E-3
2.28364E-3	76.1907E-12	717.049E-3	3.51715E-3	75.7592E-12	713.503E-3	-11.5998E-3
2.27864E-3	76.6214E-12	708.497E-3	-6.83122E-3	75.4765E-12	684.822E-3	-8.39123E-3
2.27364E-3	75.6215E-12	710.638E-3	-19.5598E-3	75.6196E-12	674.943E-3	-22.7173E-3
2.26863E-3	75.3561E-12	703.026E-3	-28.3077E-3	75.4538E-12	686.874E-3	-32.6287E-3
2.26363E-3	75.7574E-12	708.086E-3	-28.9021E-3	75.2005E-12	705.041E-3	-10.1653E-3
2.25863E-3	76.1040E-12	720.984E-3	-33.9071E-3	74.9919E-12	716.245E-3	1.46824E-3
2.25363E-3	75.4554E-12	721.595E-3	-38.9585E-3	74.7993E-12	709.203E-3	-15.7237E-3
2.24862E-3	75.0744E-12	721.984E-3	-17.0453E-3	75.1641E-12	692.845E-3	-12.2437E-3
2.24362E-3	76.0335E-12	714.243E-3	2.43318E-3	74.6042E-12	690.781E-3	4.97738E-3
2.23862E-3	76.5785E-12	699.686E-3	-2.73938E-3	74.3660E-12	690.262E-3	-2.14720E-3
2.23362E-3	75.7480E-12	706.744E-3	-13.1231E-3	74.2380E-12	694.273E-3	-12.5187E-3
2.22861E-3	75.2975E-12	727.093E-3	-21.0482E-3	74.1593E-12	712.813E-3	-24.9995E-3
2.22361E-3	75.8741E-12	729.195E-3	-29.7972E-3	73.9731E-12	724.044E-3	-31.4603E-3
2.21861E-3	76.4563E-12	719.830E-3	-27.9871E-3	74.4625E-12	726.331E-3	-10.2868E-3
2.21361E-3	75.4208E-12	720.107E-3	-24.5859E-3	74.6718E-12	721.442E-3	5.34565E-3
2.20860E-3	74.3495E-12	711.378E-3	-35.0546E-3	74.1724E-12	718.583E-3	5.33744E-3
2.20360E-3	73.7449E-12	704.729E-3	-35.6932E-3	73.3664E-12	732.044E-3	12.9027E-3
2.19860E-3	73.7545E-12	723.505E-3	-28.0096E-3	73.3107E-12	741.197E-3	15.7738E-3
2.19360E-3	73.4665E-12	739.701E-3	-26.9567E-3	73.4205E-12	736.745E-3	12.7012E-3
2.18859E-3	72.2449E-12	731.745E-3	-24.6578E-3	72.3020E-12	734.340E-3	21.3891E-3
2.18359E-3	71.7111E-12	715.020E-3	-23.4631E-3	71.9367E-12	739.060E-3	18.6988E-3
2.17859E-3	71.7190E-12	712.224E-3	-23.8885E-3	71.6946E-12	738.895E-3	-869.123E-6
2.17359E-3	71.3699E-12	723.432E-3	-17.6569E-3	71.0581E-12	730.634E-3	-9.25885E-3
2.16858E-3	70.2000E-12	721.565E-3	-22.2723E-3	70.8216E-12	716.857E-3	-8.63774E-3
2.16358E-3	69.9383E-12	709.989E-3	-31.4646E-3	70.7885E-12	705.317E-3	-14.8027E-3
2.15858E-3	69.8378E-12	709.664E-3	-31.3821E-3	69.7945E-12	707.781E-3	-17.3701E-3
2.15358E-3	69.8567E-12	709.706E-3	-34.4440E-3	69.0444E-12	715.353E-3	-11.5132E-3
2.14857E-3	69.6108E-12	704.103E-3	-30.0305E-3	69.1791E-12	721.370E-3	-3.78329E-3
2.14357E-3	69.0314E-12	706.386E-3	-25.1111E-3	70.1882E-12	722.617E-3	-1.20389E-3
2.13857E-3	68.7660E-12	720.655E-3	-28.0374E-3	70.1366E-12	729.566E-3	-10.6276E-3
2.13357E-3	69.0669E-12	723.690E-3	-20.4598E-3	68.9329E-12	739.643E-3	-14.5225E-3
2.12856E-3	69.2204E-12	719.255E-3	-17.1250E-3	69.4817E-12	738.258E-3	-11.4053E-3
2.12356E-3	68.9627E-12	731.363E-3	-28.7056E-3	70.5562E-12	739.142E-3	-25.0485E-3
2.11856E-3	68.6420E-12	744.925E-3	-34.4044E-3	70.5913E-12	740.833E-3	-36.7469E-3
2.11356E-3	68.3105E-12	752.421E-3	-31.0205E-3	69.3457E-12	739.090E-3	-25.4682E-3
2.10855E-3	68.5066E-12	752.587E-3	-16.8300E-3	69.1853E-12	730.689E-3	-19.8858E-3
2.10355E-3	68.9491E-12	738.796E-3	-9.45824E-3	68.9203E-12	729.458E-3	-26.8235E-3
2.09855E-3	68.0072E-12	736.719E-3	-16.3019E-3	69.0577E-12	749.278E-3	-22.6392E-3
2.09355E-3	67.1353E-12	761.628E-3	-16.4215E-3	68.6519E-12	752.582E-3	-23.8935E-3
2.08854E-3	66.6374E-12	770.611E-3	-20.9991E-3	67.0769E-12	746.915E-3	-39.0114E-3
2.08354E-3	66.9647E-12	752.971E-3	-31.2847E-3	66.2384E-12	751.328E-3	-36.9221E-3
2.07854E-3	66.6655E-12	742.475E-3	-26.6099E-3	66.1791E-12	746.093E-3	-11.7280E-3
2.07354E-3	65.6447E-12	747.350E-3	-14.5563E-3	66.7605E-12	746.689E-3	1.66166E-3
2.06853E-3	64.5725E-12	755.782E-3	-12.5518E-3	65.5748E-12	754.439E-3	-5.05127E-3
2.06353E-3	64.5638E-12	744.177E-3	-14.9923E-3	64.5385E-12	754.331E-3	-11.1416E-3
2.05853E-3	65.1829E-12	715.082E-3	-18.5628E-3	63.8571E-12	748.472E-3	-13.1942E-3
2.05353E-3	64.2137E-12	715.810E-3	-19.9600E-3	64.6439E-12	739.598E-3	-19.6004E-3
2.04852E-3	63.4537E-12	734.189E-3	-16.0264E-3	64.7200E-12	740.716E-3	-26.0415E-3
2.04352E-3	63.3594E-12	729.684E-3	-14.4190E-3	63.9002E-12	763.492E-3	-23.0627E-3
2.03852E-3	64.0263E-12	722.391E-3	-10.0547E-3	63.5731E-12	774.585E-3	-17.4025E-3
2.03352E-3	63.9142E-12	732.659E-3	-7.65993E-3	63.8183E-12	756.213E-3	-21.4262E-3
2.02851E-3	62.6644E-12	756.317E-3	-17.7173E-3	64.7196E-12	747.633E-3	-22.7908E-3
2.02351E-3	62.9508E-12	764.988E-3	-29.5810E-3	64.2143E-12	764.520E-3	-15.6324E-3
2.01851E-3	63.1198E-12	756.172E-3	-41.1663E-3	63.5501E-12	779.310E-3	-7.13719E-3
2.01351E-3	64.3498E-12	743.357E-3	-36.3355E-3	63.0981E-12	779.450E-3	2.77443E-3
2.00850E-3	63.5331E-12	736.813E-3	-14.3625E-3	63.7228E-12	770.457E-3	14.4036E-3
2.00350E-3	62.8395E-12	756.442E-3	-10.1591E-3	63.2999E-12	761.721E-3	27.7331E-3
1.99850E-3	62.8467E-12	773.513E-3	-12.0622E-3	62.3944E-12	767.583E-3	20.8611E-3
1.99350E-3	63.7021E-12	764.251E-3	-20.9182E-3	61.6387E-12	767.219E-3	-14.5621E-3
1.98849E-3	63.7174E-12	763.797E-3	-30.3528E-3	61.5945E-12	756.264E-3	-41.9816E-3
1.98349E-3	62.4333E-12	779.842E-3	-13.2492E-3	61.8023E-12	764.842E-3	-35.5174E-3
1.97849E-3	62.5018E-12	785.931E-3	-2.16505E-3	61.2620E-12	778.632E-3	-15.0241E-3
1.97349E-3	63.0904E-12	785.015E-3	-11.6999E-3	60.2081E-12	774.379E-3	-14.2916E-3
1.96848E-3	62.6928E-12	787.687E-3	-12.9438E-3	60.0845E-12	773.109E-3	-32.9862E-3
1.96348E-3	60.9870E-12	787.978E-3	-6.23210E-3	60.7329E-12	783.476E-3	-48.0741E-3
1.95848E-3	60.1686E-12	784.519E-3	-4.79643E-3	60.4106E-12	787.179E-3	-31.7311E-3
1.95348E-3	60.2061E-12	788.357E-3	-425.493E-6	59.7380E-12	783.480E-3	-10.4082E-3
1.94847E-3	60.5863E-12	792.109E-3	-9.51328E-3	59.7193E-12	789.474E-3	-20.2554E-3
1.94347E-3	59.6364E-12	788.396E-3	-31.3118E-3	60.2145E-12	804.019E-3	-28.3390E-3
1.93847E-3	58.9879E-12	790.151E-3	-35.5942E-3	60.3329E-12	807.220E-3	-17.5389E-3
1.93347E-3	58.8212E-12	786.668E-3	-30.0980E-3	59.5802E-12	804.825E-3	-4.31795E-3
1.92846E-3	59.2193E-12	773.443E-3	-37.4164E-3	59.1150E-12	807.731E-3	-3.65941E-3
1.92346E-3	58.8859E-12	782.076E-3	-36.5341E-3	59.1697E-12	796.786E-3	-11.7613E-3
1.91846E-3	57.8500E-12	792.730E-3	-9.53847E-3	59.0252E-12	780.670E-3	-14.8270E-3
1.91346E-3	57.4382E-12	778.372E-3	6.17949E-3	58.9448E-12	786.615E-3	-12.6439E-3
1.90845E-3	57.7855E-12	773.722E-3	10.3554E-3	58.1425E-12	798.427E-3	-9.60434E-3
1.90345E-3	58.9283E-12	786.095E-3	18.0936E-3	57.3993E-12	807.056E-3	-9.28254E-3
1.89845E-3	58.1684E-12	798.245E-3	10.9093E-3	57.5098E-12	815.308E-3	-17.0649E-3
1.89345E-3	57.3734E-12	804.076E-3	7.71265E-3	57.3188E-12	813.762E-3	-14.7050E-3
1.88844E-3	57.0830E-12	812.255E-3	16.2374E-3	56.6705E-12	806.243E-3	-11.2851E-3
1.88344E-3	57.0471E-12	821.114E-3	11.5187E-3	56.0496E-12	788.719E-3	-24.3830E-3
1.87844E-3	56.7886E-12	819.468E-3	-1.03642E-3	56.3002E-12	779.092E-3	-28.5954E-3
1.87344E-3	55.9578E-12	814.173E-3	-15.1631E-3	56.3771E-12	800.348E-3	-29.3741E-3
1.86843E-3	55.9329E-12	812.169E-3	-35.6330E-3	55.6122E-12	821.052E-3	-41.9561E-3
1.86343E-3	55.6448E-12	817.473E-3	-45.7390E-3	54.8101E-12	815.684E-3	-42.8975E-3
1.85843E-3	55.6109E-12	822.714E-3	-35.2062E-3	55.3990E-12	808.276E-3	-17.8957E-3
1.85343E-3	54.3329E-12	822.309E-3	-23.2819E-3	55.5467E-12	813.753E-3	824.184E-6
1.84842E-3	54.0837E-12	823.278E-3	-24.3933E-3	55.3061E-12	813.743E-3	-1.03161E-3
1.84342E-3	53.9263E-12	825.780E-3	-28.8738E-3	54.2875E-12	815.134E-3	-1.24662E-3
1.83842E-3	53.9924E-12	812.536E-3	-36.5719E-3	53.7391E-12	825.466E-3	3.53804E-3
1.83342E-3	53.5353E-12	801.113E-3	-44.2723E-3	54.0205E-12	832.868E-3	-1.04082E-3
1.82841E-3	53.2124E-12	815.062E-3	-29.9829E-3	53.5297E-12	834.539E-3	-13.2923E-3
1.82341E-3	53.1256E-12	828.064E-3	-18.2488E-3	52.8784E-12	839.896E-3	-16.2681E-3
1.81841E-3	52.7413E-12	824.497E-3	-26.5463E-3	52.5521E-12	845.380E-3	-7.84144E-3
1.81341E-3	52.8409E-12	815.232E-3	-25.5233E-3	52.7686E-12	841.538E-3	-6.04653E-3
1.80840E-3	52.5668E-12	806.416E-3	-29.8119E-3	52.7898E-12	845.566E-3	-16.7496E-3
1.80340E-3	52.4706E-12	813.603E-3	-45.0165E-3	52.5080E-12	853.112E-3	-25.5969E-3
1.79840E-3	52.1016E-12	832.088E-3	-38.8631E-3	51.6783E-12	858.688E-3	-21.8957E-3
1.79340E-3	51.9563E-12	830.657E-3	-24.3139E-3	51.7777E-12	872.727E-3	-11.2279E-3
1.78839E-3	51.5732E-12	832.153E-3	-21.3152E-3	51.9449E-12	882.897E-3	-18.2881E-3
1.78339E-3	51.1868E-12	857.310E-3	-14.4937E-3	51.8009E-12	880.515E-3	-40.7179E-3
1.77839E-3	51.1065E-12	876.928E-3	-14.6603E-3	51.4237E-12	876.445E-3	-44.5352E-3
1.77339E-3	50.9506E-12	880.736E-3	-34.6092E-3	50.4599E-12	873.244E-3	-34.7978E-3
1.76838E-3	50.6033E-12	886.081E-3	-36.1785E-3	50.1281E-12	855.303E-3	-24.9506E-3
1.76338E-3	49.6935E-12	881.185E-3	-14.5336E-3	49.9367E-12	846.458E-3	-13.3437E-3
1.75838E-3	48.9882E-12	860.710E-3	-5.85311E-3	49.8091E-12	856.530E-3	-14.7890E-3
1.75338E-3	48.6308E-12	856.376E-3	-3.34038E-3	49.2005E-12	854.519E-3	-19.7422E-3
1.74837E-3	48.4684E-12	865.123E-3	3.71779E-3	48.4960E-12	854.168E-3	-15.5372E-3
1.74337E-3	47.9606E-12	872.470E-3	521.877E-6	48.2180E-12	864.173E-3	-14.0093E-3
1.73837E-3	47.4235E-12	878.660E-3	-9.40927E-3	47.6480E-12	870.130E-3	-16.8113E-3
1.73337E-3	47.4308E-12	879.339E-3	-11.5757E-3	47.3292E-12	874.804E-3	-22.5372E-3
1.72836E-3	47.2567E-12	873.457E-3	-15.7215E-3	46.9099E-12	869.768E-3	-18.2690E-3
1.72336E-3	47.3310E-12	875.443E-3	-23.1333E-3	46.8377E-12	866.755E-3	-9.42252E-3
1.71836E-3	46.6371E-12	882.383E-3	-26.2976E-3	46.6754E-12	889.711E-3	-11.1020E-3
1.71336E-3	46.5080E-12	880.527E-3	-25.4518E-3	46.5109E-12	911.177E-3	-7.12343E-3
1.70835E-3	46.4330E-12	884.641E-3	-18.2195E-3	46.3829E-12	915.311E-3	-4.74767E-3
1.70335E-3	46.6232E-12	903.838E-3	-16.6767E-3	46.4882E-12	929.987E-3	-17.5501E-3
1.69835E-3	46.7662E-12	921.508E-3	-20.0990E-3	46.7233E-12	944.064E-3	-22.2910E-3
1.69335E-3	46.0616E-12	924.445E-3	-17.2729E-3	46.2185E-12	948.339E-3	-20.7160E-3
1.68834E-3	45.5147E-12	911.883E-3	-9.23610E-3	46.0994E-12	948.630E-3	-34.5252E-3
1.68334E-3	45.3963E-12	899.250E-3	-6.59556E-3	45.8295E-12	932.092E-3	-45.0587E-3
1.67834E-3	45.3841E-12	908.529E-3	-15.4655E-3	45.6988E-12	922.682E-3	-35.1712E-3
1.67334E-3	44.7859E-12	928.129E-3	-23.5451E-3	45.0597E-12	935.028E-3	-21.8722E-3
1.66833E-3	44.2898E-12	930.081E-3	-28.7725E-3	44.6825E-12	945.976E-3	-16.1004E-3
1.66333E-3	44.0089E-12	918.457E-3	-23.4290E-3	44.0695E-12	942.773E-3	-6.62651E-3
1.65833E-3	44.0083E-12	915.090E-3	-3.91360E-3	43.9835E-12	938.013E-3	2.90390E-3
1.65333E-3	43.1439E-12	922.937E-3	1.57174E-3	43.4468E-12	948.084E-3	1.21269E-3
1.64832E-3	42.2534E-12	934.826E-3	-10.6503E-3	42.7532E-12	956.748E-3	-11.7777E-3
1.64332E-3	42.0309E-12	937.514E-3	-15.6848E-3	42.2235E-12	955.693E-3	-22.5893E-3
1.63832E-3	41.9163E-12	931.807E-3	-14.9245E-3	42.3780E-12	963.835E-3	-23.2216E-3
1.63332E-3	41.6751E-12	941.997E-3	-20.8835E-3	42.2948E-12	968.930E-3	-25.2536E-3
1.62831E-3	41.2205E-12	962.493E-3	-29.3863E-3	41.8176E-12	967.418E-3	-31.7752E-3
1.62331E-3	41.0867E-12	963.830E-3	-27.4355E-3	41.4254E-12	985.114E-3	-37.7548E-3
1.61831E-3	40.7090E-12	964.848E-3	-14.6317E-3	41.5723E-12	1.00615E+0	-37.7097E-3
1.61331E-3	40.5455E-12	982.233E-3	-10.0059E-3	41.0771E-12	1.01422E+0	-30.6722E-3
1.60830E-3	39.7807E-12	986.940E-3	-21.1034E-3	40.3884E-12	1.01979E+0	-15.4425E-3
1.60330E-3	39.5973E-12	977.472E-3	-24.7894E-3	40.2407E-12	1.02338E+0	1.00967E-3
1.59830E-3	39.8401E-12	974.636E-3	-14.6996E-3	40.2718E-12	1.02029E+0	4.90177E-3
1.59330E-3	39.6219E-12	979.508E-3	-12.0529E-3	40.1327E-12	1.01862E+0	2.59485E-3
1.58829E-3	39.0669E-12	983.974E-3	-16.7505E-3	39.6717E-12	1.01733E+0	-3.09096E-3
1.58329E-3	38.6600E-12	992.992E-3	-17.5034E-3	39.3726E-12	1.01219E+0	-9.65098E-3
1.57829E-3	38.8593E-12	999.930E-3	-20.3560E-3	38.9303E-12	1.00788E+0	-12.9925E-3
1.57329E-3	38.9817E-12	1.00320E+0	-32.2757E-3	38.4892E-12	1.00763E+0	-17.0700E-3
1.56828E-3	37.9319E-12	1.00465E+0	-41.4862E-3	37.9912E-12	1.01496E+0	-14.6047E-3
1.56328E-3	37.2888E-12	994.771E-3	-41.5951E-3	37.4567E-12	1.02566E+0	-9.35338E-3
1.55828E-3	37.3469E-12	1.00004E+0	-37.2588E-3	36.8259E-12	1.03170E+0	-8.86558E-3
1.55328E-3	37.5688E-12	1.03232E+0	-20.5790E-3	36.4761E-12	1.03592E+0	214.504E-6
1.54827E-3	36.8274E-12	1.05387E+0	822.728E-6	36.2645E-12	1.04048E+0	13.6506E-3
1.54327E-3	36.1238E-12	1.05340E+0	1.99546E-3	35.8513E-12	1.03758E+0	14.0303E-3
1.53827E-3	35.7272E-12	1.05100E+0	-8.54267E-3	35.0953E-12	1.03748E+0	3.05482E-3
1.53327E-3	35.8928E-12	1.04677E+0	-10.4221E-3	34.8762E-12	1.04937E+0	-1.41877E-3
1.52826E-3	35.4931E-12	1.04530E+0	-19.6902E-3	34.8818E-12	1.06645E+0	1.50267E-3
1.52326E-3	34.7742E-12	1.05187E+0	-31.6366E-3	34.8130E-12	1.07250E+0	-1.68176E-3
1.51826E-3	34.0860E-12	1.04962E+0	-22.8386E-3	34.1981E-12	1.06679E+0	-6.02616E-3
1.51326E-3	33.8869E-12	1.04653E+0	-17.0429E-3	33.7956E-12	1.07296E+0	-10.0178E-3
1.50825E-3	33.4886E-12	1.05255E+0	-23.6129E-3	33.6868E-12	1.09373E+0	-17.3485E-3
1.50325E-3	33.0807E-12	1.05903E+0	-23.5461E-3	33.8898E-12	1.11176E+0	-19.9591E-3
1.49825E-3	32.6123E-12	1.06136E+0	-13.8658E-3	33.4982E-12	1.11144E+0	-17.9847E-3
1.49325E-3	32.2175E-12	1.06609E+0	-5.86281E-3	32.7294E-12	1.09872E+0	-11.8725E-3
1.48824E-3	32.2800E-12	1.07335E+0	-14.7407E-3	31.8623E-12	1.08848E+0	-1.98796E-3
1.48324E-3	31.9811E-12	1.07567E+0	-32.5165E-3	31.7792E-12	1.08107E+0	-3.77915E-3
1.47824E-3	31.3753E-12	1.08225E+0	-33.9676E-3	31.8839E-12	1.08186E+0	-13.3026E-3
1.47324E-3	31.1118E-12	1.09069E+0	-20.0380E-3	31.1775E-12	1.08939E+0	-12.9251E-3
1.46823E-3	30.8584E-12	1.08024E+0	-5.05212E-3	30.3843E-12	1.08204E+0	-11.7537E-3
1.46323E-3	31.0246E-12	1.06439E+0	586.182E-6	30.1094E-12	1.06006E+0	-13.4172E-3
1.45823E-3	30.4390E-12	1.07193E+0	251.395E-6	29.9555E-12	1.04866E+0	-15.7949E-3
1.45323E-3	29.8035E-12	1.08678E+0	-1.87820E-3	29.6968E-12	1.05479E+0	-28.0600E-3
1.44822E-3	29.2431E-12	1.10146E+0	-12.1743E-3	29.0152E-12	1.06629E+0	-35.5107E-3
1.44322E-3	29.0797E-12	1.10875E+0	-7.80560E-3	28.2664E-12	1.07153E+0	-30.2124E-3
1.43822E-3	28.8866E-12	1.08845E+0	-1.66481E-3	28.0142E-12	1.06145E+0	-27.2966E-3
1.43322E-3	28.2561E-12	1.07072E+0	-16.1430E-3	27.8983E-12	1.04470E+0	-19.2924E-3
1.42821E-3	27.4864E-12	1.07750E+0	-18.4612E-3	27.8176E-12	1.04153E+0	-4.10966E-3
1.42321E-3	27.0277E-12	1.08373E+0	-18.4530E-3	27.2199E-12	1.05350E+0	-3.82148E-3
1.41821E-3	26.9546E-12	1.07624E+0	-27.1618E-3	26.6729E-12	1.05087E+0	-12.2570E-3
1.41321E-3	26.1671E-12	1.06389E+0	-11.6334E-3	26.5701E-12	1.03188E+0	-7.92913E-3
1.40820E-3	26.0588E-12	1.04783E+0	9.09229E-3	26.6141E-12	1.03792E+0	-1.20626E-3
1.40320E-3	25.7692E-12	1.03365E+0	260.925E-6	25.8403E-12	1.06190E+0	1.99244E-3
1.39820E-3	25.5564E-12	1.03326E+0	-8.20738E-3	25.2405E-12	1.06451E+0	7.06848E-3
1.39320E-3	25.2946E-12	1.04621E+0	-4.94333E-3	25.2265E-12	1.04989E+0	-1.53954E-3
1.38819E-3	24.8719E-12	1.06276E+0	-17.4020E-3	25.2777E-12	1.03743E+0	-12.7121E-3
1.38319E-3	24.9032E-12	1.05876E+0	-26.0919E-3	25.0351E-12	1.03163E+0	-8.22026E-3
1.37819E-3	24.3148E-12	1.03068E+0	-12.3598E-3	24.2587E-12	1.03403E+0	-2.28551E-3
1.37319E-3	23.9070E-12	1.01280E+0	-3.90315E-3	24.1587E-12	1.02738E+0	-4.10237E-3
1.36818E-3	23.8472E-12	1.02299E+0	-12.5545E-3	24.0954E-12	1.00108E+0	-9.45621E-3
1.36318E-3	23.7002E-12	1.02596E+0	-26.0773E-3	23.8353E-12	979.481E-3	-14.6786E-3
1.35818E-3	23.0627E-12	1.00891E+0	-38.0424E-3	23.0692E-12	970.592E-3	-23.6623E-3
1.35318E-3	22.7202E-12	999.115E-3	-37.2711E-3	22.7601E-12	969.033E-3	-23.6645E-3
1.34817E-3	22.3631E-12	999.356E-3	-28.4780E-3	22.6648E-12	962.010E-3	-12.7212E-3
1.34317E-3	21.8317E-12	1.00610E+0	-27.2439E-3	22.3958E-12	944.156E-3	-8.07162E-3
1.33817E-3	21.5502E-12	1.00494E+0	-36.6053E-3	21.9851E-12	926.283E-3	-9.04483E-3
1.33317E-3	21.1739E-12	985.249E-3	-33.8835E-3	21.3274E-12	916.945E-3	-8.32562E-3
1.32816E-3	20.8633E-12	963.198E-3	-17.3192E-3	21.1515E-12	918.307E-3	-7.09113E-3
1.32316E-3	20.3646E-12	955.482E-3	-9.48016E-3	20.6950E-12	911.960E-3	-14.3752E-3
1.31816E-3	20.0124E-12	953.246E-3	-8.50371E-3	20.2496E-12	902.612E-3	-19.4769E-3
1.31316E-3	19.6496E-12	930.718E-3	-15.5652E-3	19.9244E-12	900.309E-3	-9.82398E-3
1.30815E-3	19.2138E-12	906.826E-3	-19.9265E-3	19.7354E-12	895.356E-3	-14.1067E-3
1.30315E-3	19.0528E-12	906.760E-3	-10.0138E-3	19.6893E-12	881.946E-3	-27.7237E-3
1.29815E-3	18.8603E-12	913.572E-3	-3.03028E-3	19.1444E-12	860.419E-3	-28.0156E-3
1.29315E-3	18.5941E-12	917.794E-3	2.51952E-3	18.9966E-12	847.921E-3	-21.6874E-3
1.28814E-3	18.1978E-12	902.268E-3	5.16962E-3	18.7172E-12	842.537E-3	-14.5202E-3
1.28314E-3	18.0857E-12	866.295E-3	-10.8156E-3	18.8083E-12	836.051E-3	-14.5705E-3
1.27814E-3	17.8347E-12	848.440E-3	-20.0180E-3	18.1286E-12	837.493E-3	-13.7333E-3
1.27314E-3	17.8464E-12	842.912E-3	-8.56727E-3	18.2120E-12	829.670E-3	-9.67306E-3
1.26813E-3	17.4250E-12	832.502E-3	-1.09660E-3	17.9827E-12	803.109E-3	-12.1883E-3
1.26313E-3	17.2157E-12	827.953E-3	-7.11159E-3	17.5284E-12	776.427E-3	-17.6114E-3
1.25813E-3	16.7897E-12	825.102E-3	-18.2180E-3	17.1958E-12	765.868E-3	-23.6611E-3
1.25313E-3	16.7248E-12	815.838E-3	-26.0081E-3	16.8062E-12	756.666E-3	-34.4548E-3
1.24812E-3	16.5030E-12	801.702E-3	-23.3331E-3	16.8142E-12	739.337E-3	-41.1091E-3
1.24312E-3	16.2354E-12	779.961E-3	-6.18985E-3	16.4818E-12	725.199E-3	-31.2610E-3
1.23812E-3	15.8281E-12	747.849E-3	8.99432E-3	16.1055E-12	710.929E-3	-17.4625E-3
1.23312E-3	15.6206E-12	725.884E-3	517.046E-6	15.8667E-12	685.838E-3	-12.0838E-3
1.22811E-3	15.5290E-12	726.190E-3	-13.4672E-3	15.7072E-12	655.822E-3	-19.6317E-3
1.22311E-3	15.2912E-12	721.764E-3	-21.0877E-3	15.4457E-12	639.621E-3	-26.8081E-3
1.21811E-3	15.0492E-12	710.957E-3	-26.2310E-3	15.0072E-12	632.988E-3	-19.7833E-3
1.21311E-3	14.5887E-12	702.974E-3	-18.5907E-3	14.6718E-12	628.515E-3	-12.6739E-3
1.20810E-3	14.7676E-12	685.126E-3	-10.7492E-3	14.4832E-12	626.621E-3	-11.9172E-3
1.20310E-3	14.8771E-12	668.803E-3	-16.5565E-3	14.3230E-12	620.313E-3	-10.5544E-3
1.19810E-3	14.5360E-12	660.800E-3	-19.5364E-3	13.9611E-12	605.806E-3	-8.95943E-3
1.19310E-3	13.9871E-12	637.774E-3	-11.3277E-3	13.8033E-12	589.011E-3	-11.4865E-3
1.18809E-3	13.7860E-12	611.313E-3	-11.7517E-3	13.7532E-12	571.485E-3	-17.3451E-3
1.18309E-3	14.0455E-12	604.435E-3	-21.9267E-3	13.6811E-12	551.800E-3	-17.4882E-3
1.17809E-3	14.0329E-12	596.427E-3	-32.4945E-3	13.6872E-12	534.430E-3	-9.49303E-3
1.17309E-3	13.6955E-12	577.501E-3	-41.2455E-3	13.5624E-12	522.593E-3	-4.02456E-3
1.16808E-3	13.4362E-12	570.863E-3	-36.7978E-3	13.1903E-12	515.971E-3	-13.1379E-3
1.16308E-3	13.2110E-12	564.369E-3	-26.6892E-3	13.0736E-12	509.249E-3	-25.6595E-3
1.15808E-3	13.2701E-12	542.031E-3	-26.0489E-3	12.8605E-12	490.121E-3	-23.7607E-3
1.15308E-3	13.3324E-12	521.536E-3	-32.4700E-3	12.6557E-12	458.032E-3	-20.8172E-3
1.14807E-3	12.6539E-12	505.047E-3	-30.6177E-3	12.4257E-12	436.852E-3	-18.9194E-3
1.14307E-3	12.3466E-12	490.717E-3	-20.3081E-3	12.1605E-12	432.944E-3	-8.38458E-3
1.13807E-3	12.4710E-12	480.362E-3	-16.7626E-3	11.9861E-12	427.965E-3	709.839E-6
1.13307E-3	12.6461E-12	469.439E-3	-19.2200E-3	11.9439E-12	408.326E-3	-7.59034E-3
1.12806E-3	12.2636E-12	453.569E-3	-21.1350E-3	11.5447E-12	375.932E-3	-18.7836E-3
1.12306E-3	11.7400E-12	447.845E-3	-23.7808E-3	11.5097E-12	357.166E-3	-21.0718E-3
1.11806E-3	11.5137E-12	439.549E-3	-20.5820E-3	11.3432E-12	355.848E-3	-35.2067E-3
1.11306E-3	11.5303E-12	408.641E-3	-15.8988E-3	11.4522E-12	354.972E-3	-45.6307E-3
1.10805E-3	11.8330E-12	391.697E-3	-16.2717E-3	11.2217E-12	350.854E-3	-35.7636E-3
1.10305E-3	11.4821E-12	390.633E-3	-10.9158E-3	10.8693E-12	338.500E-3	-24.4611E-3
1.09805E-3	10.7659E-12	376.679E-3	-15.2317E-3	10.7275E-12	322.056E-3	-19.7674E-3
1.09305E-3	10.6815E-12	360.436E-3	-35.4776E-3	10.8401E-12	308.133E-3	-17.5217E-3
1.08804E-3	10.9613E-12	353.820E-3	-40.7892E-3	11.0816E-12	297.552E-3	-11.9282E-3
1.08304E-3	10.9991E-12	349.988E-3	-31.0435E-3	10.6742E-12	285.709E-3	-10.1164E-3
1.07804E-3	10.3860E-12	345.183E-3	-27.2021E-3	10.6091E-12	278.329E-3	-12.2607E-3
1.07304E-3	10.2209E-12	339.045E-3	-20.2477E-3	10.4745E-12	267.061E-3	-6.42539E-3
1.06803E-3	10.3428E-12	328.265E-3	-10.4315E-3	10.8540E-12	248.191E-3	-58.3496E-6
1.06303E-3	10.6768E-12	314.153E-3	-14.1763E-3	10.6091E-12	244.528E-3	-980.443E-6
1.05803E-3	10.1132E-12	299.161E-3	-19.5124E-3	10.0332E-12	255.607E-3	-7.98523E-3
1.05303E-3	9.78195E-12	278.878E-3	-16.9470E-3	9.84925E-12	251.850E-3	-17.3183E-3
1.04802E-3	9.85948E-12	260.817E-3	-19.2367E-3	10.0217E-12	228.673E-3	-7.96052E-3
1.04302E-3	10.2173E-12	260.374E-3	-11.7671E-3	10.3159E-12	215.159E-3	5.17276E-3
1.03802E-3	10.0418E-12	262.404E-3	3.87045E-3	9.74777E-12	208.999E-3	-3.78843E-3
1.03302E-3	9.49473E-12	256.293E-3	-10.3984E-3	9.40858E-12	199.600E-3	-7.53090E-3
1.02801E-3	9.35315E-12	251.880E-3	-33.9581E-3	9.25805E-12	196.297E-3	-8.76617E-3
1.02301E-3	9.16555E-12	239.625E-3	-33.2583E-3	9.42728E-12	195.578E-3	-23.0731E-3
1.01801E-3	9.12457E-12	210.179E-3	-22.3083E-3	9.00753E-12	189.159E-3	-31.3533E-3
1.01301E-3	9.00473E-12	190.066E-3	-10.7828E-3	8.76930E-12	178.490E-3	-33.6976E-3
1.00800E-3	9.11589E-12	191.984E-3	-713.074E-6	8.94285E-12	163.717E-3	-27.9258E-3
1.00300E-3	8.92023E-12	193.969E-3	1.33279E-3	8.71192E-12	164.044E-3	-12.3674E-3
997.999E-6	8.79392E-12	189.023E-3	-4.72185E-3	8.81204E-12	181.886E-3	-5.79335E-3
992.997E-6	8.84312E-12	180.243E-3	-13.0820E-3	8.61365E-12	183.815E-3	-14.5341E-3
987.994E-6	8.69748E-12	167.306E-3	-16.5330E-3	8.77093E-12	169.730E-3	-25.4028E-3
982.991E-6	8.60498E-12	159.834E-3	-18.1606E-3	8.64135E-12	158.543E-3	-29.1967E-3
977.989E-6	8.76847E-12	162.339E-3	-17.2126E-3	8.55287E-12	142.768E-3	-30.4498E-3
972.986E-6	8.68659E-12	157.831E-3	-17.0258E-3	8.49702E-12	121.224E-3	-33.7264E-3
967.984E-6	8.34515E-12	155.186E-3	-17.6529E-3	8.60405E-12	123.084E-3	-34.4638E-3
962.981E-6	8.28468E-12	156.045E-3	-11.7251E-3	8.66911E-12	143.799E-3	-23.6473E-3
957.979E-6	8.64656E-12	145.327E-3	-12.9063E-3	8.38999E-12	140.889E-3	-9.10334E-3
952.976E-6	8.65279E-12	145.892E-3	-10.0913E-3	8.45411E-12	120.778E-3	-3.03238E-3
947.974E-6	8.38877E-12	154.172E-3	3.20264E-3	8.36612E-12	116.193E-3	-2.58909E-3
942.971E-6	8.16965E-12	149.137E-3	3.17916E-3	8.51696E-12	133.574E-3	-2.24981E-3
937.969E-6	8.41795E-12	144.724E-3	-2.48862E-3	8.18697E-12	154.647E-3	-1.20604E-3
932.966E-6	8.85343E-12	144.566E-3	6.46761E-3	7.89594E-12	156.269E-3	-8.42032E-3
927.964E-6	8.46404E-12	141.988E-3	5.81696E-3	7.90242E-12	141.050E-3	-8.18746E-3
922.961E-6	8.15844E-12	138.154E-3	-7.93882E-3	8.16816E-12	140.241E-3	8.34479E-3
917.959E-6	8.17458E-12	134.285E-3	-4.02840E-3	8.04089E-12	155.797E-3	12.7789E-3
912.956E-6	8.61947E-12	124.938E-3	1.06199E-3	7.66518E-12	154.583E-3	-3.41139E-3
907.954E-6	8.44943E-12	119.739E-3	-8.94428E-3	7.73822E-12	141.550E-3	-17.7965E-3
902.951E-6	7.90288E-12	132.964E-3	-10.6945E-3	8.05454E-12	131.299E-3	-16.6154E-3
897.949E-6	7.82184E-12	139.784E-3	-13.8767E-3	8.12125E-12	125.116E-3	-8.37776E-3
892.946E-6	8.11594E-12	132.737E-3	-36.7449E-3	7.73205E-12	128.835E-3	-2.51869E-3
887.944E-6	8.28674E-12	132.483E-3	-44.9578E-3	7.49984E-12	134.856E-3	-3.64598E-3
882.941E-6	7.83589E-12	131.180E-3	-25.4446E-3	7.68763E-12	138.468E-3	-9.31306E-3
877.939E-6	7.71745E-12	117.639E-3	-5.38641E-3	8.05553E-12	142.687E-3	-9.47564E-3
872.936E-6	7.98184E-12	112.782E-3	5.42998E-3	7.90543E-12	145.321E-3	-12.8529E-3
867.934E-6	8.18486E-12	124.523E-3	4.51920E-3	7.42553E-12	143.541E-3	-19.7476E-3
862.931E-6	7.80056E-12	138.579E-3	-3.09486E-3	7.38658E-12	140.352E-3	-13.4646E-3
857.929E-6	7.54478E-12	152.839E-3	470.171E-6	7.76453E-12	145.489E-3	-9.54622E-3
852.926E-6	7.58738E-12	149.516E-3	6.55670E-3	7.95923E-12	150.356E-3	-17.2185E-3
847.924E-6	8.01540E-12	135.267E-3	-918.318E-6	7.53555E-12	148.676E-3	-17.6306E-3
842.921E-6	7.88143E-12	141.137E-3	-5.02622E-3	7.24828E-12	149.451E-3	-18.1191E-3
837.919E-6	7.31609E-12	153.878E-3	-3.54229E-3	7.28164E-12	148.725E-3	-28.0351E-3
832.916E-6	7.30610E-12	162.956E-3	1.74994E-3	7.55618E-12	147.025E-3	-31.6940E-3
827.914E-6	7.42914E-12	167.820E-3	11.7595E-3	7.34350E-12	148.379E-3	-26.3637E-3
822.911E-6	7.57119E-12	162.229E-3	8.75922E-3	6.99888E-12	149.118E-3	-20.5222E-3
817.909E-6	7.14254E-12	163.262E-3	-6.11347E-3	6.95872E-12	150.838E-3	-12.6891E-3
812.906E-6	6.98297E-12	170.297E-3	-17.4680E-3	7.04940E-12	159.983E-3	-7.37379E-3
807.904E-6	7.06669E-12	162.301E-3	-20.1797E-3	7.09002E-12	171.122E-3	-11.7515E-3
802.901E-6	7.21341E-12	158.285E-3	-26.3528E-3	6.96124E-12	174.021E-3	-19.5826E-3
797.899E-6	7.02462E-12	177.372E-3	-30.9998E-3	6.62247E-12	175.699E-3	-17.1273E-3
792.896E-6	6.75060E-12	182.243E-3	-26.7727E-3	6.87835E-12	175.911E-3	-10.4647E-3
787.894E-6	6.78623E-12	167.926E-3	-25.8169E-3	7.05078E-12	177.815E-3	-9.41955E-3
782.891E-6	6.87931E-12	168.794E-3	-21.4216E-3	6.78143E-12	183.407E-3	-9.32684E-3
777.889E-6	6.80585E-12	172.190E-3	-13.6844E-3	6.45532E-12	183.187E-3	-21.0100E-3
772.886E-6	6.66013E-12	168.672E-3	-17.9113E-3	6.43618E-12	185.233E-3	-32.0332E-3
767.884E-6	6.61739E-12	178.076E-3	-27.6640E-3	6.67537E-12	184.613E-3	-27.3204E-3
762.881E-6	6.60405E-12	191.799E-3	-19.1697E-3	6.56572E-12	185.728E-3	-20.3696E-3
757.879E-6	6.53592E-12	195.574E-3	4.67514E-3	6.16552E-12	197.311E-3	-12.7108E-3
752.876E-6	6.57601E-12	201.082E-3	7.56524E-3	5.94122E-12	201.541E-3	-4.41815E-3
747.874E-6	6.16766E-12	204.166E-3	-15.6848E-3	6.06750E-12	193.585E-3	2.41940E-3
742.871E-6	6.14142E-12	199.825E-3	-31.9230E-3	6.17859E-12	180.942E-3	-626.395E-6
737.869E-6	6.30892E-12	199.486E-3	-26.0770E-3	5.99437E-12	177.899E-3	-5.65485E-3
732.866E-6	6.20419E-12	201.579E-3	-14.6882E-3	5.76935E-12	194.218E-3	-1.30144E-3
727.864E-6	5.83525E-12	202.469E-3	-14.3812E-3	5.74351E-12	211.232E-3	-3.89524E-3
722.861E-6	6.10225E-12	206.264E-3	-16.6736E-3	5.76650E-12	216.817E-3	-13.8131E-3
717.859E-6	6.03575E-12	211.987E-3	-11.6853E-3	5.73028E-12	216.009E-3	-19.1964E-3
712.856E-6	5.79416E-12	214.507E-3	-3.61454E-3	5.68129E-12	214.422E-3	-23.5119E-3
707.854E-6	5.73697E-12	218.683E-3	1.23337E-3	5.48974E-12	215.275E-3	-22.9364E-3
702.851E-6	5.87174E-12	226.746E-3	-9.65532E-3	5.47028E-12	213.196E-3	-17.7105E-3
697.849E-6	5.73765E-12	216.744E-3	-30.9873E-3	5.52079E-12	213.294E-3	-17.4101E-3
692.846E-6	5.33925E-12	205.874E-3	-36.1122E-3	5.50607E-12	226.384E-3	-15.0413E-3
687.844E-6	5.45120E-12	217.648E-3	-17.7038E-3	5.38219E-12	236.241E-3	-14.7045E-3
682.841E-6	5.65406E-12	222.192E-3	-1.02803E-3	5.19697E-12	230.384E-3	-22.2419E-3
677.839E-6	5.44910E-12	222.408E-3	-8.69520E-3	5.08307E-12	221.916E-3	-19.3507E-3
672.836E-6	5.17482E-12	233.710E-3	-20.2249E-3	4.96735E-12	214.496E-3	-8.18535E-3
667.834E-6	5.10609E-12	231.783E-3	-22.6941E-3	4.99347E-12	213.196E-3	-9.94620E-3
662.831E-6	5.32306E-12	224.903E-3	-19.9072E-3	4.81129E-12	228.405E-3	-17.6688E-3
657.829E-6	5.17745E-12	233.682E-3	-11.6895E-3	4.80346E-12	241.087E-3	-19.5076E-3
652.826E-6	4.93302E-12	233.334E-3	-6.56241E-3	4.72094E-12	240.574E-3	-19.9434E-3
647.824E-6	4.74362E-12	222.776E-3	-10.4248E-3	4.73973E-12	236.062E-3	-19.6114E-3
642.821E-6	4.97046E-12	223.124E-3	-15.7546E-3	4.67986E-12	234.884E-3	-10.8876E-3
637.819E-6	5.00220E-12	231.144E-3	-14.2915E-3	4.57438E-12	235.813E-3	-5.85026E-3
632.816E-6	4.79105E-12	242.208E-3	-11.9754E-3	4.47511E-12	230.238E-3	-6.46361E-3
627.814E-6	4.50269E-12	245.312E-3	-13.2265E-3	4.40136E-12	230.908E-3	599.269E-6
622.811E-6	4.50166E-12	242.575E-3	-13.8097E-3	4.25385E-12	234.576E-3	-3.64684E-3
617.809E-6	4.55800E-12	239.678E-3	-16.6456E-3	4.18537E-12	227.811E-3	-13.1130E-3
612.806E-6	4.50278E-12	236.013E-3	-26.8973E-3	4.23889E-12	223.568E-3	-5.33249E-3
607.804E-6	4.25744E-12	231.312E-3	-27.3550E-3	4.03008E-12	225.201E-3	-2.83780E-3
602.801E-6	4.02518E-12	228.110E-3	-19.6045E-3	3.97380E-12	221.158E-3	-5.73892E-3
597.799E-6	4.24946E-12	230.736E-3	-22.8523E-3	4.01170E-12	211.775E-3	1.66817E-3
592.796E-6	4.12725E-12	236.364E-3	-19.5059E-3	3.92225E-12	219.999E-3	3.12381E-3
587.794E-6	3.92020E-12	238.611E-3	-9.18454E-3	3.77194E-12	237.825E-3	-5.75864E-3
582.791E-6	3.68656E-12	236.945E-3	-13.3282E-3	3.60687E-12	242.642E-3	-14.7995E-3
577.789E-6	3.72291E-12	242.274E-3	-23.1970E-3	3.74988E-12	239.501E-3	-16.8853E-3
572.786E-6	3.70692E-12	241.685E-3	-31.7520E-3	3.72089E-12	230.210E-3	-15.4959E-3
567.784E-6	3.61167E-12	238.155E-3	-29.7817E-3	3.50445E-12	230.499E-3	-22.7864E-3
562.781E-6	3.51213E-12	239.536E-3	-13.6475E-3	3.34534E-12	244.016E-3	-25.3746E-3
557.779E-6	3.35006E-12	229.128E-3	-9.59423E-3	3.38842E-12	237.960E-3	-11.9310E-3
552.776E-6	3.32459E-12	220.031E-3	-21.4327E-3	3.55509E-12	216.809E-3	-8.33484E-3
547.774E-6	3.28607E-12	222.960E-3	-25.7161E-3	3.39862E-12	211.745E-3	-20.7901E-3
542.771E-6	3.22561E-12	223.524E-3	-28.5072E-3	3.03215E-12	219.803E-3	-30.8384E-3
537.769E-6	3.00776E-12	226.955E-3	-31.3557E-3	3.07382E-12	219.287E-3	-30.9657E-3
532.766E-6	2.95955E-12	236.425E-3	-22.1046E-3	3.21179E-12	217.905E-3	-22.4052E-3
527.764E-6	3.02299E-12	228.987E-3	-9.65753E-3	3.02544E-12	218.831E-3	-19.0947E-3
522.761E-6	2.88257E-12	217.061E-3	-5.67941E-3	2.83441E-12	213.745E-3	-16.0755E-3
517.759E-6	2.72793E-12	228.824E-3	-14.4879E-3	2.76565E-12	215.388E-3	-12.1486E-3
512.756E-6	2.61175E-12	234.067E-3	-19.9498E-3	2.79829E-12	224.611E-3	-20.7529E-3
507.754E-6	2.65040E-12	220.566E-3	-21.7469E-3	2.83587E-12	229.939E-3	-20.5228E-3
502.751E-6	2.54461E-12	213.363E-3	-25.3674E-3	2.61970E-12	227.464E-3	-6.50753E-3
497.749E-6	2.47324E-12	209.292E-3	-22.1564E-3	2.48373E-12	213.344E-3	-11.0202E-3
492.746E-6	2.33909E-12	209.191E-3	-22.0784E-3	2.55453E-12	189.893E-3	-28.4529E-3
487.744E-6	2.23828E-12	212.007E-3	-17.9090E-3	2.40377E-12	177.726E-3	-27.8627E-3
482.741E-6	2.19861E-12	209.928E-3	-4.00657E-3	2.32055E-12	178.325E-3	-24.0505E-3
477.739E-6	2.19144E-12	209.970E-3	5.26085E-3	2.17724E-12	179.391E-3	-26.9748E-3
472.736E-6	2.11023E-12	214.787E-3	-2.04123E-3	2.09443E-12	185.584E-3	-20.4579E-3
467.734E-6	2.01244E-12	211.484E-3	-15.3805E-3	2.10214E-12	188.986E-3	-14.7374E-3
462.731E-6	1.94187E-12	197.896E-3	-18.9644E-3	2.02958E-12	181.077E-3	-12.3244E-3
457.729E-6	1.86038E-12	191.592E-3	-19.4283E-3	1.88638E-12	174.368E-3	-2.77828E-3
452.726E-6	1.82270E-12	189.030E-3	-20.0905E-3	1.82504E-12	171.504E-3	7.33691E-3
447.724E-6	1.78987E-12	180.639E-3	-21.0084E-3	1.75580E-12	162.991E-3	8.37490E-3
442.721E-6	1.68579E-12	178.009E-3	-15.9752E-3	1.77154E-12	158.650E-3	326.834E-6
437.719E-6	1.64664E-12	175.327E-3	-4.78798E-3	1.69740E-12	165.178E-3	-9.63908E-3
432.716E-6	1.64434E-12	165.325E-3	-2.49421E-3	1.56675E-12	165.780E-3	-19.1464E-3
427.714E-6	1.50701E-12	168.801E-3	-7.42426E-3	1.52101E-12	162.276E-3	-28.4576E-3
422.711E-6	1.43995E-12	170.978E-3	-4.56907E-3	1.49559E-12	160.250E-3	-32.3059E-3
417.709E-6	1.44349E-12	157.241E-3	-5.42574E-3	1.48607E-12	150.392E-3	-27.3269E-3
412.706E-6	1.43441E-12	154.054E-3	-13.8310E-3	1.36607E-12	144.615E-3	-21.5019E-3
407.704E-6	1.36120E-12	152.811E-3	-11.9799E-3	1.26158E-12	149.979E-3	-25.3854E-3
402.701E-6	1.21205E-12	143.161E-3	-16.9889E-3	1.29399E-12	147.790E-3	-34.0349E-3
397.699E-6	1.17430E-12	141.329E-3	-26.8430E-3	1.26397E-12	141.162E-3	-29.2011E-3
392.696E-6	1.21448E-12	147.364E-3	-15.3486E-3	1.20243E-12	140.316E-3	-16.1228E-3
387.694E-6	1.14313E-12	149.468E-3	-11.2293E-3	1.12386E-12	127.179E-3	-10.4147E-3
382.691E-6	1.03327E-12	141.761E-3	-19.3487E-3	1.12545E-12	116.631E-3	-6.57473E-3
377.689E-6	1.00127E-12	131.758E-3	-15.7839E-3	1.08425E-12	130.386E-3	-2.80403E-3
372.686E-6	1.07995E-12	120.900E-3	-12.4131E-3	975.392E-15	134.567E-3	-12.6535E-3
367.684E-6	1.04955E-12	111.647E-3	-9.89382E-3	959.828E-15	125.875E-3	-19.4756E-3
362.681E-6	935.449E-15	106.632E-3	-3.35326E-3	896.578E-15	132.820E-3	-8.63506E-3
357.679E-6	881.598E-15	101.280E-3	-1.69483E-3	867.430E-15	128.987E-3	-4.96837E-3
352.676E-6	856.443E-15	101.345E-3	-10.4072E-3	884.389E-15	102.606E-3	-9.87577E-3
347.674E-6	802.715E-15	106.867E-3	-15.1388E-3	802.715E-15	92.2592E-3	-9.75329E-3
342.671E-6	794.972E-15	107.576E-3	-10.2006E-3	704.396E-15	93.7648E-3	-9.26107E-3
337.669E-6	719.934E-15	101.440E-3	-12.3564E-3	695.755E-15	85.8505E-3	-13.8926E-3
332.666E-6	707.483E-15	97.6329E-3	-14.7552E-3	679.799E-15	85.6827E-3	-21.8065E-3
327.664E-6	646.953E-15	95.7392E-3	-19.9856E-3	714.118E-15	77.8341E-3	-24.6775E-3
322.661E-6	630.709E-15	93.0640E-3	-34.9171E-3	642.820E-15	59.4535E-3	-23.6569E-3
317.659E-6	643.492E-15	90.7481E-3	-28.4224E-3	570.084E-15	61.5307E-3	-21.4955E-3
312.656E-6	571.549E-15	78.3192E-3	-10.8273E-3	540.569E-15	69.4759E-3	-18.4025E-3
307.654E-6	489.221E-15	63.1208E-3	-8.42678E-3	604.551E-15	72.5013E-3	-17.4993E-3
302.651E-6	503.276E-15	68.8570E-3	-5.79952E-3	555.278E-15	74.9087E-3	-17.4876E-3
297.649E-6	486.823E-15	84.5719E-3	1.22026E-3	425.055E-15	73.8193E-3	-21.1677E-3
292.646E-6	481.051E-15	87.3601E-3	-4.18658E-3	405.725E-15	72.7794E-3	-21.3604E-3
287.644E-6	379.567E-15	89.9392E-3	-12.7585E-3	450.943E-15	73.6711E-3	-11.5225E-3
282.641E-6	387.815E-15	88.1081E-3	-10.4843E-3	451.370E-15	76.4090E-3	-11.0961E-3
277.639E-6	425.954E-15	71.0610E-3	-16.1599E-3	414.496E-15	71.0089E-3	-11.9832E-3
272.636E-6	369.496E-15	68.2614E-3	-27.4537E-3	286.436E-15	61.8817E-3	349.687E-6
267.634E-6	284.064E-15	74.2393E-3	-19.6804E-3	365.276E-15	56.4209E-3	1.52295E-3
262.631E-6	306.769E-15	72.6342E-3	-11.7000E-3	362.372E-15	48.1232E-3	-8.06989E-3
257.629E-6	302.227E-15	77.0935E-3	-18.2529E-3	350.915E-15	55.9772E-3	-11.4888E-3
252.626E-6	321.208E-15	73.4056E-3	-10.1857E-3	246.388E-15	74.1562E-3	-16.5448E-3
247.624E-6	191.317E-15	57.6523E-3	2.23674E-3	266.408E-15	66.6669E-3	-23.3692E-3
242.621E-6	204.762E-15	46.7988E-3	-4.50253E-3	286.976E-15	52.6137E-3	-23.6807E-3
237.619E-6	227.397E-15	34.1146E-3	-12.3380E-3	239.099E-15	57.5458E-3	-20.4911E-3
232.616E-6	252.753E-15	23.4882E-3	-23.8344E-3	216.751E-15	57.9122E-3	-12.2309E-3
227.614E-6	177.942E-15	27.3047E-3	-35.8790E-3	218.791E-15	53.8073E-3	-1.77485E-3
222.611E-6	159.631E-15	37.0229E-3	-27.0177E-3	171.062E-15	62.9185E-3	-2.58718E-3
217.609E-6	167.975E-15	44.0877E-3	-16.0293E-3	178.962E-15	60.4335E-3	-13.2638E-3
212.606E-6	136.028E-15	37.2940E-3	-15.6083E-3	167.496E-15	41.8924E-3	-14.0794E-3
207.604E-6	93.9572E-15	18.7576E-3	-11.5467E-3	142.410E-15	43.1974E-3	-3.80787E-3
202.601E-6	105.048E-15	14.0224E-3	-13.4151E-3	102.520E-15	47.6184E-3	-3.01643E-3
197.599E-6	118.589E-15	25.1045E-3	-21.6081E-3	58.0510E-15	24.2809E-3	-11.6506E-3
192.596E-6	15.7886E-15	35.9146E-3	-20.2855E-3	150.781E-15	1.73739E-3	-17.0112E-3
187.594E-6	100.383E-15	38.1025E-3	-17.3698E-3	139.960E-15	2.78136E-3	-22.2143E-3
182.591E-6	85.5779E-15	36.9754E-3	-23.3422E-3	52.0696E-15	19.7651E-3	-25.4784E-3
177.589E-6	43.3416E-15	34.9359E-3	-23.4810E-3	7.85399E-15	38.2740E-3	-21.3859E-3
172.586E-6	27.0103E-15	18.4122E-3	-14.2565E-3	54.2843E-15	34.7135E-3	-23.5404E-3
167.584E-6	12.7106E-15	1.99203E-3	-11.7681E-3	124.640E-15	18.1621E-3	-25.6454E-3
162.581E-6	54.9470E-15	10.1853E-3	-12.1273E-3	3.71232E-15	21.7550E-3	-24.9594E-3
157.579E-6	18.9014E-15	23.8379E-3	-16.4309E-3	-17.4146E-15	21.7089E-3	-35.6250E-3
152.576E-6	-38.9948E-15	26.4683E-3	-23.2424E-3	50.8227E-15	5.65617E-3	-34.2245E-3
147.574E-6	-34.7747E-15	23.3438E-3	-18.5033E-3	18.8839E-15	9.40103E-3	-15.4408E-3
142.571E-6	82.8488E-15	20.0691E-3	-14.1056E-3	17.8986E-15	21.9362E-3	-13.3258E-3
137.569E-6	14.1929E-15	23.9723E-3	-25.1759E-3	-60.2525E-15	13.7399E-3	-19.5031E-3
132.566E-6	-32.7867E-15	23.8199E-3	-33.1617E-3	-38.0444E-15	11.8224E-3	-15.5493E-3
127.564E-6	-47.2433E-15	12.2741E-3	-25.8408E-3	-36.8848E-15	17.9201E-3	-14.8971E-3
122.561E-6	-19.0451E-15	9.54974E-3	-25.8852E-3	-5.82660E-15	3.51570E-3	-7.84821E-3
117.559E-6	9.37115E-15	20.9947E-3	-28.9878E-3	-36.0564E-15	-7.64473E-3	5.52613E-3
112.556E-6	-80.7865E-15	22.6562E-3	-16.0534E-3	-42.4826E-15	1.69962E-3	287.868E-6
107.554E-6	-78.8159E-15	13.6364E-3	-9.79860E-3	-64.1152E-15	11.1553E-3	-10.5533E-3
102.551E-6	-57.9855E-15	9.82316E-3	-16.8139E-3	-75.8775E-15	15.6534E-3	-7.32618E-3
97.5488E-6	-66.3996E-15	5.35315E-3	-20.6892E-3	-58.5523E-15	23.3628E-3	1.47995E-3
92.5463E-6	-76.0693E-15	3.02588E-3	-24.8044E-3	-97.5450E-15	18.3575E-3	2.59243E-3
87.5438E-6	-67.8122E-15	17.7241E-3	-25.6200E-3	-103.274E-15	12.1743E-3	-11.1664E-3
82.5413E-6	-105.061E-15	26.3027E-3	-21.9795E-3	-100.422E-15	21.4004E-3	-31.0787E-3
77.5388E-6	-113.022E-15	13.2500E-3	-21.9450E-3	-80.2895E-15	24.7066E-3	-31.2259E-3
72.5363E-6	-80.6295E-15	17.7781E-3	-19.2572E-3	-68.3528E-15	19.8490E-3	-21.3881E-3
67.5338E-6	-42.1861E-15	31.2921E-3	-10.5837E-3	-104.983E-15	14.2312E-3	-27.2051E-3
62.5313E-6	-133.887E-15	26.9910E-3	-12.5391E-3	-149.216E-15	2.61766E-3	-27.9759E-3
57.5288E-6	-170.351E-15	21.5925E-3	-26.0843E-3	-95.7575E-15	-4.87166E-3	-9.05825E-3
52.5263E-6	-108.723E-15	16.7943E-3	-23.0133E-3	-68.7451E-15	-3.60557E-3	7.99201E-3
47.5238E-6	-59.5027E-15	4.16497E-3	-14.4219E-3	-162.696E-15	-211.548E-6	8.80517E-3
42.5213E-6	-102.123E-15	1.60549E-3	-17.2227E-3	-164.117E-15	5.45792E-3	-542.175E-6
37.5188E-6	-212.884E-15	11.7312E-3	-17.0995E-3	-123.572E-15	6.75010E-3	-13.1442E-3
32.5163E-6	-126.641E-15	15.4844E-3	-16.8516E-3	-83.6639E-15	-9.28452E-3	-25.6916E-3
27.5138E-6	-113.798E-15	15.4503E-3	-20.4615E-3	-113.214E-15	-24.8491E-3	-31.9436E-3
22.5113E-6	-125.447E-15	16.0294E-3	-12.0059E-3	-200.625E-15	-13.2315E-3	-31.0665E-3
17.5088E-6	-218.900E-15	12.0822E-3	-5.18496E-3	-126.240E-15	2.81570E-3	-30.2907E-3
12.5063E-6	-169.008E-15	2.94881E-3	-6.64685E-3	-112.830E-15	5.49268E-3	-29.5200E-3
7.50375E-6	-137.732E-15	-4.28394E-3	-7.47693E-3	-129.388E-15	7.90050E-3	-26.3598E-3
2.50125E-6	-119.029E-15	-1.94452E-3	-18.3521E-3	-188.557E-15	5.75319E-3	-26.3697E-3
-2.50125E-6	-194.417E-15	8.21397E-3	-21.8481E-3	-138.238E-15	-4.43578E-3	-21.4398E-3
-7.50375E-6	-240.402E-15	9.59120E-3	-2.14283E-3	-161.928E-15	-8.13109E-3	-9.88106E-3
-12.5063E-6	-137.209E-15	9.76201E-3	9.74956E-3	-168.729E-15	5.41319E-3	-18.1438E-3
-17.5088E-6	-155.912E-15	18.9120E-3	-3.41461E-3	-194.216E-15	14.3444E-3	-37.8628E-3
-22.5113E-6	-207.077E-15	19.1693E-3	-5.99740E-3	-178.957E-15	6.96794E-3	-36.3117E-3
-27.5138E-6	-180.082E-15	3.84306E-3	-2.56663E-3	-200.782E-15	6.64741E-3	-30.0128E-3
-32.5163E-6	-197.616E-15	-10.9907E-3	-15.1541E-3	-173.577E-15	11.9475E-3	-35.7958E-3
-37.5188E-6	-208.629E-15	-8.79368E-3	-15.4539E-3	-186.194E-15	13.1672E-3	-29.5004E-3
-42.5213E-6	-201.357E-15	5.73996E-3	-866.813E-6	-202.761E-15	7.57457E-3	-15.0485E-3
-47.5238E-6	-188.836E-15	18.4479E-3	-299.307E-6	-233.453E-15	-1.68353E-3	-5.74592E-3
-52.5263E-6	-208.036E-15	15.9615E-3	-10.2637E-3	-239.234E-15	1.94809E-3	6.11632E-3
-57.5288E-6	-226.922E-15	8.36564E-3	-17.6996E-3	-140.531E-15	11.5120E-3	-135.097E-6
-62.5313E-6	-209.623E-15	8.26645E-3	-17.9814E-3	-176.594E-15	10.3759E-3	-20.7261E-3
-67.5338E-6	-207.914E-15	3.36887E-3	-18.3928E-3	-275.262E-15	9.95531E-3	-27.4207E-3
-72.5363E-6	-254.109E-15	-686.698E-6	-23.8810E-3	-283.336E-15	17.2592E-3	-28.3392E-3
-77.5388E-6	-290.495E-15	8.55205E-3	-25.7876E-3	-201.462E-15	12.5999E-3	-28.3420E-3
-82.5413E-6	-278.880E-15	26.2269E-3	-20.4821E-3	-162.050E-15	872.541E-6	-20.0392E-3
-87.5438E-6	-195.097E-15	30.2019E-3	-5.56621E-3	-268.879E-15	5.05567E-3	-20.7036E-3
-92.5463E-6	-254.911E-15	14.5018E-3	-2.17767E-3	-336.384E-15	13.7277E-3	-32.0693E-3
-97.5488E-6	-318.536E-15	2.19758E-3	-12.4462E-3	-287.181E-15	20.2974E-3	-35.4233E-3
-102.551E-6	-328.833E-15	1.27196E-3	-10.8846E-3	-219.014E-15	23.1990E-3	-31.2044E-3
-107.554E-6	-210.556E-15	10.1129E-3	-5.26656E-3	-257.841E-15	13.6760E-3	-26.2302E-3
-112.556E-6	-256.045E-15	21.3550E-3	-1.91539E-3	-342.095E-15	15.3632E-3	-25.0695E-3
-117.559E-6	-323.488E-15	21.5398E-3	-4.78343E-3	-333.803E-15	28.4972E-3	-29.8408E-3
-122.561E-6	-333.899E-15	11.9617E-3	-22.5584E-3	-305.945E-15	32.5025E-3	-31.9252E-3
-127.564E-6	-260.073E-15	8.39111E-3	-27.4828E-3	-316.714E-15	37.1201E-3	-23.7785E-3
-132.566E-6	-302.431E-15	19.1143E-3	-16.1505E-3	-354.930E-15	37.3818E-3	-14.3892E-3
-137.569E-6	-347.580E-15	28.2332E-3	-23.2630E-3	-333.376E-15	20.8711E-3	-15.3525E-3
-142.571E-6	-412.687E-15	32.7573E-3	-34.9657E-3	-371.131E-15	16.3571E-3	-15.8130E-3
-147.574E-6	-346.647E-15	36.1896E-3	-30.2586E-3	-367.931E-15	36.1400E-3	-5.87046E-3
-152.576E-6	-339.488E-15	29.0728E-3	-21.7108E-3	-369.352E-15	39.0763E-3	-11.7645E-3
-157.579E-6	-362.525E-15	20.3378E-3	-13.6937E-3	-383.015E-15	18.2026E-3	-19.5389E-3
-162.581E-6	-390.383E-15	15.5985E-3	-5.52546E-3	-437.188E-15	12.2174E-3	-12.3983E-3
-167.584E-6	-394.891E-15	12.3758E-3	-10.3471E-3	-399.748E-15	22.5004E-3	-16.8671E-3
-172.586E-6	-400.715E-15	24.9886E-3	-19.5448E-3	-389.005E-15	29.4326E-3	-23.1791E-3
-177.589E-6	-388.046E-15	41.5462E-3	-8.62022E-3	-393.827E-15	40.8094E-3	-21.6306E-3
-182.591E-6	-404.377E-15	40.0596E-3	-3.35277E-3	-470.949E-15	52.2067E-3	-20.8248E-3
-187.594E-6	-461.576E-15	33.5857E-3	-16.9695E-3	-479.677E-15	56.3841E-3	-5.44956E-3
-192.596E-6	-501.109E-15	29.1825E-3	-23.5438E-3	-434.154E-15	64.1514E-3	9.55544E-3
-197.599E-6	-467.819E-15	20.6852E-3	-20.2635E-3	-462.256E-15	63.8689E-3	-7.77393E-3
-202.601E-6	-405.938E-15	20.1922E-3	-15.6627E-3	-536.257E-15	46.6257E-3	-28.8580E-3
-207.604E-6	-483.898E-15	34.2106E-3	-6.79321E-3	-561.447E-15	41.5629E-3	-28.0635E-3
-212.606E-6	-581.781E-15	45.8134E-3	3.19875E-3	-528.427E-15	50.1850E-3	-20.7946E-3
-217.609E-6	-564.760E-15	46.6261E-3	-4.51714E-3	-504.013E-15	51.4837E-3	-16.6636E-3
-222.611E-6	-581.903E-15	50.7516E-3	-21.2015E-3	-607.302E-15	57.7713E-3	-17.9184E-3
-227.614E-6	-534.810E-15	54.5873E-3	-24.3448E-3	-635.788E-15	70.3131E-3	-23.2966E-3
-232.616E-6	-682.576E-15	56.0039E-3	-23.2748E-3	-625.900E-15	67.9025E-3	-30.7464E-3
-237.619E-6	-652.991E-15	66.9090E-3	-21.9977E-3	-642.528E-15	68.3541E-3	-31.9053E-3
-242.621E-6	-623.511E-15	77.2080E-3	-11.5752E-3	-635.788E-15	85.4244E-3	-18.6007E-3
-247.624E-6	-633.643E-15	75.8160E-3	-3.84632E-3	-720.574E-15	91.9445E-3	-5.08608E-3
-252.626E-6	-730.863E-15	78.8066E-3	-8.02012E-3	-737.071E-15	91.7964E-3	-7.00267E-3
-257.629E-6	-776.369E-15	82.6555E-3	-11.7358E-3	-743.593E-15	96.1007E-3	-16.3197E-3
-262.631E-6	-729.921E-15	71.9772E-3	-12.7795E-3	-738.170E-15	94.3974E-3	-15.9429E-3
-267.634E-6	-729.023E-15	62.1682E-3	-10.7527E-3	-804.777E-15	86.9599E-3	-12.1622E-3
-272.636E-6	-822.181E-15	65.2912E-3	-8.42282E-3	-776.099E-15	86.7017E-3	-22.7090E-3
-277.639E-6	-836.097E-15	71.8657E-3	-18.5894E-3	-845.766E-15	95.9831E-3	-33.7936E-3
-282.641E-6	-882.021E-15	80.9321E-3	-28.8496E-3	-835.608E-15	104.897E-3	-23.2752E-3
-287.644E-6	-871.488E-15	89.3695E-3	-25.4659E-3	-885.648E-15	109.135E-3	-5.51499E-3
-292.646E-6	-910.943E-15	88.8634E-3	-23.6659E-3	-930.527E-15	108.165E-3	-4.66645E-3
-297.649E-6	-950.189E-15	91.3949E-3	-22.2879E-3	-995.398E-15	109.979E-3	-9.64457E-3
-302.651E-6	-999.610E-15	94.7924E-3	-16.8460E-3	-995.904E-15	117.102E-3	-7.77017E-3
-307.654E-6	-1.05747E-12	89.5393E-3	-12.5647E-3	-1.02150E-12	126.849E-3	-14.5176E-3
-312.656E-6	-1.09128E-12	93.6048E-3	-2.33052E-3	-1.10513E-12	135.777E-3	-23.0969E-3
-317.659E-6	-1.04280E-12	106.761E-3	3.00582E-3	-1.20833E-12	134.939E-3	-24.8815E-3
-322.661E-6	-1.13869E-12	107.392E-3	-7.21811E-3	-1.23438E-12	132.147E-3	-33.3059E-3
-327.664E-6	-1.25994E-12	99.6413E-3	-17.3575E-3	-1.23840E-12	132.450E-3	-37.0236E-3
-332.666E-6	-1.27324E-12	101.990E-3	-12.9952E-3	-1.23997E-12	137.797E-3	-29.2564E-3
-337.669E-6	-1.25015E-12	119.813E-3	-11.0303E-3	-1.35564E-12	149.138E-3	-25.8461E-3
-342.671E-6	-1.33536E-12	135.769E-3	-21.2721E-3	-1.40077E-12	150.477E-3	-27.1826E-3
-347.674E-6	-1.40466E-12	144.093E-3	-23.5607E-3	-1.37141E-12	152.782E-3	-24.3930E-3
-352.676E-6	-1.43127E-12	145.581E-3	-12.7346E-3	-1.44032E-12	164.068E-3	-21.2648E-3
-357.679E-6	-1.43117E-12	144.073E-3	-5.16197E-3	-1.48950E-12	174.121E-3	-19.2744E-3
-362.681E-6	-1.44036E-12	155.864E-3	-4.68646E-3	-1.55537E-12	181.394E-3	-15.4641E-3
-367.684E-6	-1.56430E-12	159.896E-3	-12.5718E-3	-1.56457E-12	179.432E-3	-14.2511E-3
-372.686E-6	-1.66327E-12	150.013E-3	-17.5315E-3	-1.58621E-12	179.959E-3	-17.1908E-3
-377.689E-6	-1.66437E-12	153.241E-3	-9.37942E-3	-1.69402E-12	193.156E-3	-16.2841E-3
-382.691E-6	-1.66089E-12	162.761E-3	-11.3740E-3	-1.89411E-12	202.486E-3	-16.5391E-3
-387.694E-6	-1.82372E-12	172.903E-3	-24.1397E-3	-1.89071E-12	196.752E-3	-15.1559E-3
-392.696E-6	-1.96483E-12	183.092E-3	-18.1038E-3	-1.95307E-12	183.139E-3	-5.90322E-3
-397.699E-6	-2.03577E-12	194.511E-3	-8.51756E-3	-1.98187E-12	185.007E-3	-12.1007E-3
-402.701E-6	-1.97625E-12	210.096E-3	-17.0968E-3	-2.12151E-12	205.016E-3	-25.1848E-3
-407.704E-6	-2.06909E-12	211.596E-3	-23.7122E-3	-2.22683E-12	229.943E-3	-22.7569E-3
-412.706E-6	-2.19118E-12	205.921E-3	-24.4267E-3	-2.21795E-12	253.342E-3	-16.6751E-3
-417.709E-6	-2.27456E-12	210.624E-3	-26.1832E-3	-2.24759E-12	249.746E-3	-11.0355E-3
-422.711E-6	-2.34509E-12	214.280E-3	-15.1850E-3	-2.41132E-12	234.157E-3	-5.25468E-3
-427.714E-6	-2.36810E-12	215.355E-3	-8.00515E-3	-2.51781E-12	245.266E-3	-3.67344E-3
-432.716E-6	-2.46526E-12	217.269E-3	-21.0908E-3	-2.61379E-12	266.421E-3	-4.25510E-3
-437.719E-6	-2.53695E-12	222.754E-3	-23.7240E-3	-2.61088E-12	273.046E-3	-3.33765E-3
-442.721E-6	-2.64620E-12	235.723E-3	-13.9477E-3	-2.71089E-12	276.491E-3	-4.79191E-3
-447.724E-6	-2.73512E-12	251.953E-3	-8.32568E-3	-2.93026E-12	283.816E-3	-11.6907E-3
-452.726E-6	-2.77899E-12	262.853E-3	-6.25536E-3	-3.02433E-12	283.674E-3	-17.4156E-3
-457.729E-6	-2.95397E-12	260.305E-3	-13.1591E-3	-3.05005E-12	295.145E-3	-22.6827E-3
-462.731E-6	-3.07590E-12	263.887E-3	-25.8418E-3	-3.06757E-12	306.685E-3	-28.7682E-3
-467.734E-6	-3.27049E-12	273.413E-3	-29.6299E-3	-3.17987E-12	296.580E-3	-25.3217E-3
-472.736E-6	-3.28395E-12	273.348E-3	-14.5594E-3	-3.38229E-12	301.031E-3	-20.4115E-3
-477.739E-6	-3.32862E-12	275.328E-3	-3.22588E-3	-3.37840E-12	318.891E-3	-19.3376E-3
-482.741E-6	-3.61656E-12	291.521E-3	-13.9001E-3	-3.53032E-12	320.835E-3	-10.9101E-3
-487.744E-6	-3.66866E-12	313.578E-3	-23.7884E-3	-3.65787E-12	323.256E-3	-10.0782E-3
-492.746E-6	-3.72952E-12	323.026E-3	-21.2771E-3	-3.87841E-12	335.104E-3	-19.8249E-3
-497.749E-6	-3.75087E-12	318.637E-3	-11.1443E-3	-3.92209E-12	340.590E-3	-23.8298E-3
-502.751E-6	-4.00550E-12	313.024E-3	3.44297E-3	-3.90774E-12	355.596E-3	-23.7533E-3
-507.754E-6	-4.23371E-12	320.715E-3	-2.53773E-3	-3.99313E-12	372.771E-3	-26.5534E-3
-512.756E-6	-4.29448E-12	343.776E-3	-20.3818E-3	-4.13688E-12	364.128E-3	-23.9661E-3
-517.759E-6	-4.14569E-12	357.017E-3	-17.4062E-3	-4.31071E-12	359.610E-3	-16.2676E-3
-522.761E-6	-4.27817E-12	346.438E-3	-17.3181E-3	-4.40216E-12	368.107E-3	-19.7208E-3
-527.764E-6	-4.67992E-12	330.976E-3	-32.5481E-3	-4.57406E-12	367.023E-3	-27.5696E-3
-532.766E-6	-4.61320E-12	334.554E-3	-38.3610E-3	-4.58645E-12	361.436E-3	-24.5394E-3
-537.769E-6	-4.58513E-12	349.033E-3	-33.6131E-3	-4.78327E-12	351.937E-3	-20.6579E-3
-542.771E-6	-4.69497E-12	349.035E-3	-25.4129E-3	-4.97600E-12	340.513E-3	-20.9253E-3
-547.774E-6	-5.01546E-12	337.781E-3	-22.2608E-3	-4.89816E-12	352.062E-3	-14.4848E-3
-552.776E-6	-5.09908E-12	337.846E-3	-27.0369E-3	-4.88040E-12	375.512E-3	-14.0505E-3
-557.779E-6	-4.84448E-12	357.646E-3	-24.4496E-3	-5.05213E-12	379.805E-3	-23.7468E-3
-562.781E-6	-5.09392E-12	370.133E-3	-11.3387E-3	-5.48514E-12	370.539E-3	-21.9640E-3
-567.784E-6	-5.63453E-12	357.524E-3	61.8549E-6	-5.51006E-12	367.433E-3	-20.6986E-3
-572.786E-6	-5.82323E-12	353.937E-3	-3.59805E-3	-5.63402E-12	375.253E-3	-28.8976E-3
-577.789E-6	-5.76142E-12	374.142E-3	-12.9759E-3	-5.63202E-12	387.681E-3	-30.5600E-3
-582.791E-6	-5.82902E-12	389.107E-3	-5.61651E-3	-5.88773E-12	407.413E-3	-29.4057E-3
-587.794E-6	-6.27528E-12	379.960E-3	-6.34233E-3	-6.13781E-12	414.428E-3	-30.8430E-3
-592.796E-6	-6.41865E-12	369.684E-3	-19.8092E-3	-6.19523E-12	407.743E-3	-31.0963E-3
-597.799E-6	-6.33313E-12	386.252E-3	-14.0960E-3	-6.42912E-12	402.241E-3	-34.4042E-3
-602.801E-6	-6.32875E-12	403.572E-3	-11.0374E-3	-6.50755E-12	384.326E-3	-34.0654E-3
-607.804E-6	-6.44929E-12	401.771E-3	-27.1524E-3	-6.80050E-12	377.344E-3	-13.9952E-3
-612.806E-6	-6.80193E-12	391.675E-3	-32.5245E-3	-6.75215E-12	387.814E-3	-5.36726E-3
-617.809E-6	-7.03284E-12	382.279E-3	-27.4197E-3	-6.92686E-12	384.205E-3	-25.6508E-3
-622.811E-6	-6.92868E-12	390.875E-3	-31.3468E-3	-7.00791E-12	373.330E-3	-36.0295E-3
-627.814E-6	-6.93598E-12	404.034E-3	-27.8936E-3	-7.26809E-12	376.484E-3	-24.2063E-3
-632.816E-6	-7.13911E-12	398.490E-3	-19.8487E-3	-7.38686E-12	381.138E-3	-16.7634E-3
-637.819E-6	-7.52423E-12	388.694E-3	-17.0764E-3	-7.42818E-12	382.452E-3	-21.5274E-3
-642.821E-6	-7.43353E-12	388.743E-3	-6.63789E-3	-7.69616E-12	388.240E-3	-24.4046E-3
-647.824E-6	-7.57511E-12	391.577E-3	-1.45785E-3	-7.70956E-12	378.395E-3	-21.9088E-3
-652.826E-6	-7.67580E-12	388.471E-3	-7.37818E-3	-7.87052E-12	361.698E-3	-11.7740E-3
-657.829E-6	-7.88649E-12	391.607E-3	-11.9254E-3	-7.84593E-12	366.443E-3	-5.39874E-3
-662.831E-6	-8.22431E-12	393.377E-3	-18.2360E-3	-8.17612E-12	379.179E-3	-11.0534E-3
-667.834E-6	-8.16300E-12	384.048E-3	-20.1812E-3	-7.98339E-12	373.702E-3	-14.0218E-3
-672.836E-6	-8.13499E-12	376.503E-3	-8.77570E-3	-8.38398E-12	362.411E-3	-13.8658E-3
-677.839E-6	-8.11935E-12	368.129E-3	904.515E-6	-8.24556E-12	361.266E-3	-26.3874E-3
-682.841E-6	-8.70450E-12	362.525E-3	-8.29702E-3	-8.22729E-12	364.199E-3	-38.7356E-3
-687.844E-6	-8.73185E-12	362.455E-3	-19.7156E-3	-8.39377E-12	363.545E-3	-24.9383E-3
-692.846E-6	-8.66634E-12	366.478E-3	-25.6727E-3	-8.62496E-12	356.579E-3	-9.63195E-3
-697.849E-6	-8.71120E-12	368.886E-3	-32.6982E-3	-8.70589E-12	357.296E-3	-9.01227E-3
-702.851E-6	-9.03790E-12	358.402E-3	-25.2169E-3	-8.70094E-12	362.471E-3	-14.7027E-3
-707.854E-6	-8.98028E-12	354.121E-3	-6.63385E-3	-9.01476E-12	358.287E-3	-27.6327E-3
-712.856E-6	-9.13397E-12	360.232E-3	-3.61319E-3	-9.16517E-12	345.393E-3	-32.2140E-3
-717.859E-6	-9.22546E-12	355.639E-3	-26.5820E-3	-9.17493E-12	334.469E-3	-24.7732E-3
-722.861E-6	-9.07050E-12	348.289E-3	-43.4341E-3	-9.38687E-12	334.386E-3	-20.7842E-3
-727.864E-6	-9.33298E-12	340.381E-3	-33.8640E-3	-9.20653E-12	328.551E-3	-19.4948E-3
-732.866E-6	-9.82352E-12	336.711E-3	-21.2310E-3	-9.50759E-12	320.851E-3	-20.5531E-3
-737.869E-6	-9.84723E-12	339.833E-3	-26.1248E-3	-10.0446E-12	326.158E-3	-17.5530E-3
-742.871E-6	-9.89436E-12	336.350E-3	-36.6872E-3	-10.1102E-12	325.688E-3	-93.1835E-6
-747.874E-6	-10.0683E-12	335.612E-3	-35.4193E-3	-9.87049E-12	315.143E-3	7.26182E-3
-752.876E-6	-10.0793E-12	334.465E-3	-23.2515E-3	-9.72916E-12	313.294E-3	-9.93042E-3
-757.879E-6	-9.92030E-12	328.104E-3	-19.1043E-3	-10.1141E-12	315.200E-3	-22.8303E-3
-762.881E-6	-9.97155E-12	323.597E-3	-27.5427E-3	-10.1718E-12	301.195E-3	-16.9479E-3
-767.884E-6	-10.1247E-12	313.133E-3	-25.7125E-3	-10.5017E-12	284.731E-3	-13.2271E-3
-772.886E-6	-10.2338E-12	305.551E-3	-11.8274E-3	-10.7114E-12	280.375E-3	-20.6351E-3
-777.889E-6	-10.4588E-12	314.278E-3	-5.61247E-3	-10.4653E-12	280.395E-3	-19.7266E-3
-782.891E-6	-10.5048E-12	323.802E-3	-10.5320E-3	-10.4189E-12	289.694E-3	-17.1792E-3
-787.894E-6	-10.3206E-12	317.986E-3	-15.9497E-3	-10.5151E-12	288.677E-3	-19.9460E-3
-792.896E-6	-10.6549E-12	302.000E-3	-20.1544E-3	-10.9619E-12	266.590E-3	-17.3151E-3
-797.899E-6	-11.1002E-12	282.660E-3	-15.7452E-3	-10.9278E-12	260.573E-3	-25.5571E-3
-802.901E-6	-10.8731E-12	267.162E-3	-7.86844E-3	-11.0415E-12	270.644E-3	-37.4903E-3
-807.904E-6	-10.6000E-12	273.005E-3	-6.06602E-3	-10.7487E-12	268.663E-3	-35.4553E-3
-812.906E-6	-10.8654E-12	279.210E-3	-7.52083E-3	-10.8286E-12	254.166E-3	-26.1260E-3
-817.909E-6	-11.4293E-12	268.367E-3	-20.3860E-3	-11.5485E-12	241.870E-3	-14.5595E-3
-822.911E-6	-11.6357E-12	263.605E-3	-40.4143E-3	-11.4601E-12	237.462E-3	-5.49216E-3
-827.914E-6	-11.2478E-12	262.022E-3	-37.4371E-3	-11.3799E-12	240.842E-3	-12.1481E-3
-832.916E-6	-11.3248E-12	245.227E-3	-19.0921E-3	-11.1454E-12	242.443E-3	-32.8341E-3
-837.919E-6	-11.8759E-12	231.757E-3	-20.7447E-3	-11.5542E-12	233.567E-3	-40.1430E-3
-842.921E-6	-12.2697E-12	246.184E-3	-28.8946E-3	-11.7396E-12	224.951E-3	-28.1540E-3
-847.924E-6	-11.7801E-12	254.637E-3	-23.4099E-3	-11.5577E-12	213.558E-3	-20.7385E-3
-852.926E-6	-11.5489E-12	247.778E-3	-16.3860E-3	-11.4223E-12	196.494E-3	-21.2411E-3
-857.929E-6	-11.8360E-12	246.470E-3	-17.0183E-3	-11.8299E-12	198.493E-3	-21.4637E-3
-862.931E-6	-12.2301E-12	240.299E-3	-18.5871E-3	-11.8320E-12	212.150E-3	-31.0034E-3
-867.934E-6	-12.2212E-12	228.747E-3	-24.3557E-3	-11.4713E-12	206.714E-3	-36.0538E-3
-872.936E-6	-12.1505E-12	211.079E-3	-26.8533E-3	-11.6855E-12	201.345E-3	-18.2610E-3
-877.939E-6	-12.1815E-12	198.050E-3	-18.9705E-3	-11.7112E-12	206.597E-3	-1.67948E-3
-882.941E-6	-12.1870E-12	216.045E-3	-20.9789E-3	-12.1801E-12	197.150E-3	-1.75783E-3
-887.944E-6	-12.3092E-12	230.202E-3	-19.9499E-3	-11.6014E-12	186.593E-3	619.934E-6
-892.946E-6	-12.2189E-12	214.232E-3	-6.56973E-3	-12.0193E-12	194.279E-3	4.23352E-3
-897.949E-6	-12.1625E-12	191.488E-3	-9.03942E-3	-11.9185E-12	202.290E-3	-3.29613E-3
-902.951E-6	-12.3409E-12	179.245E-3	-21.7786E-3	-12.1133E-12	193.639E-3	-4.91629E-3
-907.954E-6	-12.9746E-12	184.127E-3	-27.3742E-3	-12.2196E-12	180.921E-3	-3.01283E-3
-912.956E-6	-13.0839E-12	189.248E-3	-33.4422E-3	-12.2190E-12	181.656E-3	-11.0872E-3
-917.959E-6	-12.6730E-12	187.497E-3	-32.2095E-3	-12.2815E-12	181.050E-3	-18.8011E-3
-922.961E-6	-12.4196E-12	186.288E-3	-23.4364E-3	-12.4176E-12	177.599E-3	-24.6419E-3
-927.964E-6	-12.9981E-12	180.793E-3	-12.8940E-3	-12.9280E-12	177.993E-3	-25.1349E-3
-932.966E-6	-13.6126E-12	172.146E-3	-858.242E-6	-12.8758E-12	175.549E-3	-13.3682E-3
-937.969E-6	-13.5916E-12	173.715E-3	1.66832E-3	-13.0222E-12	176.266E-3	-4.42660E-3
-942.971E-6	-13.1812E-12	185.628E-3	-9.76640E-3	-12.4841E-12	173.492E-3	-10.5964E-3
-947.974E-6	-13.2007E-12	187.322E-3	-24.4479E-3	-12.5608E-12	163.586E-3	-22.0150E-3
-952.976E-6	-13.6423E-12	168.523E-3	-28.0646E-3	-13.1026E-12	160.161E-3	-25.2038E-3
-957.979E-6	-13.8443E-12	157.115E-3	-26.6830E-3	-12.9089E-12	166.822E-3	-25.0764E-3
-962.981E-6	-14.3260E-12	171.834E-3	-20.1144E-3	-12.7841E-12	170.423E-3	-22.2468E-3
-967.984E-6	-13.7279E-12	195.175E-3	-14.0581E-3	-12.7759E-12	170.341E-3	-17.1000E-3
-972.986E-6	-13.5141E-12	204.887E-3	-20.5309E-3	-13.7591E-12	176.335E-3	-16.1150E-3
-977.989E-6	-13.3932E-12	193.357E-3	-23.4359E-3	-13.4805E-12	178.358E-3	-17.3642E-3
-982.991E-6	-14.0124E-12	170.290E-3	-14.0810E-3	-13.1282E-12	170.766E-3	-21.7772E-3
-987.994E-6	-13.7997E-12	157.302E-3	-7.21628E-3	-13.0290E-12	150.099E-3	-24.8878E-3
-992.997E-6	-13.6124E-12	164.264E-3	-4.07937E-3	-13.3183E-12	138.372E-3	-16.7081E-3
-997.999E-6	-13.8390E-12	176.591E-3	-3.41788E-3	-13.4012E-12	161.773E-3	-183.140E-6
-1.00300E-3	-13.7226E-12	183.728E-3	-15.3660E-3	-13.3068E-12	189.412E-3	8.17668E-3
-1.00800E-3	-13.7509E-12	179.573E-3	-25.2463E-3	-13.2891E-12	197.179E-3	6.98711E-3
-1.01301E-3	-13.7251E-12	164.499E-3	-17.6936E-3	-13.3824E-12	200.071E-3	5.36163E-3
-1.01801E-3	-13.8128E-12	166.426E-3	-1.77213E-3	-14.0403E-12	201.684E-3	2.25067E-3
-1.02301E-3	-13.9058E-12	193.306E-3	-4.36277E-3	-14.1007E-12	196.863E-3	-1.58029E-3
-1.02801E-3	-14.0481E-12	211.609E-3	-31.1881E-3	-13.4590E-12	194.281E-3	-7.21116E-3
-1.03302E-3	-14.0064E-12	204.243E-3	-39.7064E-3	-13.4380E-12	197.897E-3	-16.6058E-3
-1.03802E-3	-14.0107E-12	194.478E-3	-13.1883E-3	-13.8910E-12	205.224E-3	-28.0118E-3
-1.04302E-3	-14.1395E-12	203.079E-3	7.63579E-3	-14.3279E-12	212.700E-3	-32.0893E-3
-1.04802E-3	-14.3487E-12	210.483E-3	-2.95791E-3	-14.2629E-12	218.260E-3	-30.6541E-3
-1.05303E-3	-14.5801E-12	201.526E-3	-18.7239E-3	-14.3509E-12	220.745E-3	-26.7750E-3
-1.05803E-3	-14.2804E-12	201.408E-3	-24.8731E-3	-14.5065E-12	231.101E-3	-15.6257E-3
-1.06303E-3	-14.8132E-12	208.392E-3	-30.2232E-3	-14.9408E-12	246.240E-3	-5.77330E-3
-1.06803E-3	-14.4305E-12	206.048E-3	-33.2398E-3	-15.0521E-12	246.722E-3	4.92802E-3
-1.07304E-3	-14.7236E-12	212.442E-3	-27.4826E-3	-14.4073E-12	252.391E-3	12.0990E-3
-1.07804E-3	-14.7921E-12	225.446E-3	-21.4392E-3	-14.3256E-12	271.153E-3	6.09984E-3
-1.08304E-3	-15.4888E-12	236.064E-3	-20.3172E-3	-15.1507E-12	274.423E-3	-4.65457E-3
-1.08804E-3	-14.8966E-12	249.840E-3	-23.8493E-3	-15.8164E-12	276.173E-3	-14.8174E-3
-1.09305E-3	-14.6007E-12	261.654E-3	-33.7363E-3	-14.9222E-12	290.524E-3	-16.7998E-3
-1.09805E-3	-15.6618E-12	266.750E-3	-27.9654E-3	-14.5443E-12	295.793E-3	-16.0858E-3
-1.10305E-3	-16.2608E-12	263.205E-3	-12.3735E-3	-15.0678E-12	299.190E-3	-22.1385E-3
-1.10805E-3	-15.9016E-12	261.681E-3	-8.97562E-3	-15.9356E-12	309.667E-3	-18.3851E-3
-1.11306E-3	-15.0063E-12	267.099E-3	-7.24960E-3	-15.4772E-12	310.614E-3	-16.3269E-3
-1.11806E-3	-15.7389E-12	277.876E-3	-3.87909E-3	-15.0835E-12	311.181E-3	-26.9474E-3
-1.12306E-3	-16.2015E-12	299.641E-3	-3.55622E-3	-15.0562E-12	318.785E-3	-18.6965E-3
-1.12806E-3	-16.0815E-12	316.140E-3	934.841E-6	-16.1872E-12	331.368E-3	1.57878E-3
-1.13307E-3	-15.4304E-12	324.049E-3	1.53284E-3	-16.1811E-12	357.987E-3	4.18532E-3
-1.13807E-3	-15.7725E-12	325.046E-3	-2.94017E-3	-15.3407E-12	379.554E-3	-3.27983E-3
-1.14307E-3	-16.3196E-12	322.348E-3	-6.62418E-3	-15.3746E-12	391.723E-3	-5.58579E-3
-1.14807E-3	-16.0370E-12	335.491E-3	-9.29780E-3	-15.9147E-12	405.677E-3	-1.06328E-3
-1.15308E-3	-16.1056E-12	352.037E-3	-12.2518E-3	-16.4221E-12	414.246E-3	-6.59462E-3
-1.15808E-3	-15.8896E-12	356.037E-3	-16.0979E-3	-16.2262E-12	419.086E-3	-21.6786E-3
-1.16308E-3	-16.8021E-12	359.495E-3	-9.20865E-3	-16.4100E-12	433.536E-3	-27.4245E-3
-1.16808E-3	-16.3794E-12	363.773E-3	-6.58775E-3	-16.5282E-12	457.746E-3	-33.0200E-3
-1.17309E-3	-16.1355E-12	376.682E-3	-16.2238E-3	-16.9469E-12	470.285E-3	-46.6782E-3
-1.17809E-3	-16.7376E-12	404.171E-3	-11.8162E-3	-16.9838E-12	479.000E-3	-44.5282E-3
-1.18309E-3	-17.4210E-12	421.082E-3	-1.18140E-3	-17.2510E-12	502.649E-3	-26.2091E-3
-1.18809E-3	-17.9773E-12	428.832E-3	-1.60959E-3	-17.1991E-12	521.313E-3	-16.9600E-3
-1.19310E-3	-17.2722E-12	447.268E-3	-2.58871E-3	-17.6137E-12	517.416E-3	-10.1894E-3
-1.19810E-3	-17.4391E-12	459.558E-3	2.10293E-3	-17.6935E-12	516.070E-3	1.21384E-3
-1.20310E-3	-17.5377E-12	462.852E-3	2.02604E-3	-17.3836E-12	538.176E-3	-1.42129E-3
-1.20810E-3	-18.7325E-12	481.452E-3	673.017E-6	-17.5247E-12	558.684E-3	-11.9767E-3
-1.21311E-3	-18.8839E-12	507.291E-3	2.44538E-3	-18.2126E-12	578.720E-3	-19.4844E-3
-1.21811E-3	-18.7758E-12	529.552E-3	1.21970E-3	-18.4534E-12	601.600E-3	-25.8051E-3
-1.22311E-3	-18.4013E-12	548.840E-3	-778.032E-6	-18.3535E-12	612.636E-3	-18.3964E-3
-1.22811E-3	-18.6119E-12	560.652E-3	-6.39608E-3	-18.4689E-12	628.352E-3	2.24743E-3
-1.23312E-3	-19.8083E-12	567.039E-3	-21.3907E-3	-18.7778E-12	656.843E-3	5.82372E-3
-1.23812E-3	-19.3259E-12	578.191E-3	-30.1357E-3	-19.3761E-12	677.504E-3	-9.43991E-3
-1.24312E-3	-19.1536E-12	602.358E-3	-23.1297E-3	-20.1853E-12	692.063E-3	-14.3827E-3
-1.24812E-3	-19.5149E-12	628.705E-3	-18.2284E-3	-20.2121E-12	705.807E-3	-17.7640E-3
-1.25313E-3	-20.4607E-12	634.351E-3	-14.2986E-3	-19.9258E-12	706.259E-3	-17.7414E-3
-1.25813E-3	-20.2431E-12	632.394E-3	-10.5118E-3	-20.2996E-12	695.597E-3	-9.86802E-3
-1.26313E-3	-20.3850E-12	659.214E-3	-21.7041E-3	-20.8739E-12	695.848E-3	-18.0183E-3
-1.26813E-3	-20.2994E-12	693.220E-3	-27.0770E-3	-20.3255E-12	723.233E-3	-29.5577E-3
-1.27314E-3	-20.2917E-12	704.393E-3	-19.6700E-3	-20.5083E-12	744.950E-3	-20.7782E-3
-1.27814E-3	-20.9043E-12	708.524E-3	-17.9130E-3	-20.6751E-12	754.072E-3	-10.4338E-3
-1.28314E-3	-20.8528E-12	711.768E-3	-28.3222E-3	-21.3436E-12	767.309E-3	-15.7600E-3
-1.28814E-3	-21.2216E-12	713.104E-3	-43.8537E-3	-21.4535E-12	780.589E-3	-20.6371E-3
-1.29315E-3	-21.3613E-12	728.245E-3	-45.6269E-3	-21.4212E-12	801.307E-3	-15.5736E-3
-1.29815E-3	-22.0834E-12	754.943E-3	-36.5086E-3	-21.4136E-12	825.774E-3	-19.3836E-3
-1.30315E-3	-22.7114E-12	770.237E-3	-34.3313E-3	-22.0417E-12	850.240E-3	-27.6269E-3
-1.30815E-3	-22.3802E-12	778.303E-3	-35.4654E-3	-22.4903E-12	861.166E-3	-22.0313E-3
-1.31316E-3	-22.7231E-12	795.665E-3	-27.3777E-3	-22.9080E-12	859.956E-3	-12.7705E-3
-1.31816E-3	-23.1949E-12	816.572E-3	-14.3780E-3	-22.8922E-12	870.885E-3	-9.12823E-3
-1.32316E-3	-24.1735E-12	832.549E-3	-17.6374E-3	-23.0258E-12	887.914E-3	-16.2501E-3
-1.32816E-3	-24.0422E-12	845.979E-3	-26.6670E-3	-23.5711E-12	896.932E-3	-24.7535E-3
-1.33317E-3	-24.6520E-12	862.845E-3	-14.7049E-3	-24.2594E-12	904.865E-3	-20.6857E-3
-1.33817E-3	-24.5830E-12	892.404E-3	453.247E-6	-24.0781E-12	915.717E-3	-17.6848E-3
-1.34317E-3	-25.1805E-12	920.142E-3	-7.35009E-3	-24.0091E-12	928.992E-3	-27.7485E-3
-1.34817E-3	-25.6721E-12	931.142E-3	-22.6697E-3	-24.4541E-12	949.026E-3	-37.5859E-3
-1.35318E-3	-25.5445E-12	936.915E-3	-22.6342E-3	-24.3691E-12	969.879E-3	-29.5973E-3
-1.35818E-3	-25.3654E-12	939.293E-3	-12.5689E-3	-24.4729E-12	984.433E-3	-17.9172E-3
-1.36318E-3	-25.9989E-12	946.869E-3	-6.89502E-3	-24.8612E-12	996.675E-3	-13.2867E-3
-1.36818E-3	-27.1300E-12	969.211E-3	-13.4821E-3	-25.3819E-12	1.01069E+0	-9.15158E-3
-1.37319E-3	-26.7692E-12	984.489E-3	-18.2220E-3	-26.0497E-12	1.02532E+0	-18.7524E-3
-1.37819E-3	-26.6736E-12	984.216E-3	-12.7071E-3	-26.0855E-12	1.02599E+0	-31.1589E-3
-1.38319E-3	-26.7412E-12	991.825E-3	-4.89261E-3	-26.4652E-12	1.02048E+0	-20.1331E-3
-1.38819E-3	-27.9453E-12	1.00321E+0	384.068E-6	-26.9795E-12	1.01945E+0	-42.6635E-6
-1.39320E-3	-28.0445E-12	1.00796E+0	-10.2923E-3	-27.6327E-12	1.02284E+0	6.84218E-3
-1.39820E-3	-27.4622E-12	1.00872E+0	-28.8533E-3	-28.0350E-12	1.03473E+0	-3.60115E-3
-1.40320E-3	-28.3319E-12	999.422E-3	-29.8080E-3	-28.3617E-12	1.04078E+0	-16.0417E-3
-1.40820E-3	-29.0840E-12	994.552E-3	-17.5994E-3	-28.4720E-12	1.03794E+0	-20.4817E-3
-1.41321E-3	-29.9511E-12	1.01321E+0	-956.203E-6	-28.6848E-12	1.04198E+0	-16.1239E-3
-1.41821E-3	-29.5043E-12	1.03932E+0	3.82177E-3	-29.0466E-12	1.06415E+0	-3.29035E-3
-1.42321E-3	-29.5888E-12	1.04994E+0	-4.14149E-3	-29.0583E-12	1.07778E+0	3.10896E-3
-1.42821E-3	-30.5026E-12	1.05351E+0	-13.7087E-3	-29.5751E-12	1.07838E+0	5.39945E-3
-1.43322E-3	-31.7092E-12	1.06501E+0	-26.3976E-3	-29.8874E-12	1.08610E+0	-2.44059E-3
-1.43822E-3	-32.1722E-12	1.07760E+0	-28.1802E-3	-30.4029E-12	1.08483E+0	-18.2282E-3
-1.44322E-3	-31.5188E-12	1.08395E+0	-28.3799E-3	-30.3910E-12	1.08248E+0	-20.3719E-3
-1.44822E-3	-31.8185E-12	1.08147E+0	-30.3432E-3	-31.3027E-12	1.10675E+0	-13.6901E-3
-1.45323E-3	-32.0266E-12	1.06741E+0	-16.0920E-3	-32.5596E-12	1.13031E+0	-8.03694E-3
-1.45823E-3	-32.9376E-12	1.06968E+0	-13.3908E-3	-32.4182E-12	1.13579E+0	439.435E-6
-1.46323E-3	-33.3286E-12	1.08873E+0	-25.3831E-3	-32.7870E-12	1.14288E+0	4.05634E-3
-1.46823E-3	-33.1093E-12	1.09075E+0	-27.3587E-3	-33.7067E-12	1.14403E+0	-2.87077E-3
-1.47324E-3	-33.2071E-12	1.09024E+0	-35.5736E-3	-34.7547E-12	1.13390E+0	-10.5625E-3
-1.47824E-3	-34.0375E-12	1.09830E+0	-34.7609E-3	-34.6429E-12	1.12383E+0	-15.2115E-3
-1.48324E-3	-35.3106E-12	1.09556E+0	-20.2586E-3	-34.5196E-12	1.11406E+0	-20.0466E-3
-1.48824E-3	-35.3037E-12	1.09825E+0	-16.5870E-3	-34.8486E-12	1.09816E+0	-23.2608E-3
-1.49325E-3	-35.0710E-12	1.12188E+0	-15.4937E-3	-35.6003E-12	1.08401E+0	-27.8714E-3
-1.49825E-3	-35.2667E-12	1.12976E+0	-17.1358E-3	-36.0227E-12	1.07917E+0	-39.4717E-3
-1.50325E-3	-36.9188E-12	1.12253E+0	-23.9427E-3	-35.5527E-12	1.07928E+0	-38.0340E-3
-1.50825E-3	-38.5551E-12	1.11431E+0	-25.8784E-3	-36.5071E-12	1.09052E+0	-31.2714E-3
-1.51326E-3	-38.4743E-12	1.10804E+0	-25.6176E-3	-36.2051E-12	1.10553E+0	-28.3653E-3
-1.51826E-3	-37.8047E-12	1.11700E+0	-20.0994E-3	-36.6525E-12	1.10829E+0	-10.6357E-3
-1.52326E-3	-38.6763E-12	1.13277E+0	-5.46217E-3	-37.0706E-12	1.10295E+0	7.48491E-3
-1.52826E-3	-40.3415E-12	1.14063E+0	-5.32869E-3	-37.9271E-12	1.09777E+0	-751.997E-6
-1.53327E-3	-40.1583E-12	1.13180E+0	-15.3846E-3	-37.9112E-12	1.09769E+0	-12.3702E-3
-1.53827E-3	-39.1046E-12	1.12406E+0	-24.3274E-3	-38.3708E-12	1.10003E+0	-7.66786E-3
-1.54327E-3	-39.4191E-12	1.13256E+0	-36.1465E-3	-39.6268E-12	1.09931E+0	-11.6643E-3
-1.54827E-3	-41.2746E-12	1.14008E+0	-42.0018E-3	-39.3620E-12	1.10369E+0	-23.5163E-3
-1.55328E-3	-41.9413E-12	1.14008E+0	-46.4935E-3	-39.8064E-12	1.11942E+0	-32.3240E-3
-1.55828E-3	-41.4031E-12	1.13527E+0	-47.5934E-3	-39.2664E-12	1.12095E+0	-28.6289E-3
-1.56328E-3	-40.6002E-12	1.12308E+0	-38.7971E-3	-40.7464E-12	1.10724E+0	-15.8195E-3
-1.56828E-3	-40.8278E-12	1.12120E+0	-34.4630E-3	-41.9038E-12	1.09788E+0	-10.3146E-3
-1.57329E-3	-41.8342E-12	1.12771E+0	-29.6357E-3	-42.2347E-12	1.09519E+0	-13.5709E-3
-1.57829E-3	-41.9410E-12	1.11854E+0	-15.7016E-3	-41.3635E-12	1.09130E+0	-28.3614E-3
-1.58329E-3	-41.9200E-12	1.10452E+0	-14.7089E-3	-41.4098E-12	1.08005E+0	-35.7909E-3
-1.58829E-3	-41.9462E-12	1.08918E+0	-22.7428E-3	-42.9332E-12	1.07085E+0	-24.1362E-3
-1.59330E-3	-42.5316E-12	1.07346E+0	-24.1421E-3	-43.8648E-12	1.06941E+0	-13.7024E-3
-1.59830E-3	-43.5193E-12	1.07266E+0	-30.2396E-3	-43.3810E-12	1.05988E+0	-22.4480E-3
-1.60330E-3	-43.8586E-12	1.07341E+0	-34.0166E-3	-42.8952E-12	1.04691E+0	-33.1248E-3
-1.60830E-3	-44.0603E-12	1.06710E+0	-20.6700E-3	-44.3672E-12	1.04816E+0	-20.4211E-3
-1.61331E-3	-44.1040E-12	1.05069E+0	-11.7107E-3	-45.2287E-12	1.04514E+0	-4.96939E-3
-1.61831E-3	-45.2054E-12	1.03461E+0	-16.5756E-3	-44.4093E-12	1.03522E+0	-5.22689E-3
-1.62331E-3	-45.1050E-12	1.04347E+0	-2.55751E-3	-43.7392E-12	1.03629E+0	-10.8550E-3
-1.62831E-3	-45.6689E-12	1.06063E+0	24.4415E-3	-44.6210E-12	1.04263E+0	-15.8881E-3
-1.63332E-3	-45.5121E-12	1.07267E+0	21.3611E-3	-45.6964E-12	1.03669E+0	-14.3340E-3
-1.63832E-3	-45.9289E-12	1.07458E+0	-4.47285E-3	-45.7185E-12	1.02656E+0	-9.83433E-3
-1.64332E-3	-47.0323E-12	1.06444E+0	-27.6738E-3	-45.2723E-12	1.02918E+0	-12.2801E-3
-1.64832E-3	-47.6791E-12	1.06403E+0	-37.2507E-3	-45.5904E-12	1.03509E+0	-23.2047E-3
-1.65333E-3	-47.7413E-12	1.06145E+0	-25.5115E-3	-46.8868E-12	1.03512E+0	-35.0296E-3
-1.65833E-3	-47.0624E-12	1.04604E+0	-22.4527E-3	-47.2950E-12	1.02627E+0	-26.3659E-3
-1.66333E-3	-47.4295E-12	1.04336E+0	-45.9515E-3	-46.9686E-12	1.02159E+0	-10.8607E-3
-1.66833E-3	-48.4295E-12	1.04111E+0	-60.8829E-3	-47.0747E-12	1.01788E+0	-4.64016E-3
-1.67334E-3	-49.1092E-12	1.02737E+0	-49.8391E-3	-48.2864E-12	999.632E-3	7.39253E-3
-1.67834E-3	-48.6379E-12	1.02432E+0	-30.3371E-3	-49.0343E-12	979.614E-3	1.03790E-3
-1.68334E-3	-48.2094E-12	1.01611E+0	-11.0018E-3	-48.2870E-12	971.684E-3	-25.6285E-3
-1.68834E-3	-48.8572E-12	996.619E-3	382.830E-6	-48.1573E-12	973.959E-3	-27.1513E-3
-1.69335E-3	-49.6589E-12	974.108E-3	-10.6869E-3	-48.5403E-12	973.313E-3	-14.9661E-3
-1.69835E-3	-50.2522E-12	966.879E-3	-26.9512E-3	-49.5009E-12	958.782E-3	-21.3366E-3
-1.70335E-3	-49.5750E-12	986.037E-3	-22.8444E-3	-49.6175E-12	943.607E-3	-31.5190E-3
-1.70835E-3	-48.8135E-12	987.136E-3	-17.9289E-3	-48.9102E-12	941.985E-3	-29.5420E-3
-1.71336E-3	-50.2565E-12	966.407E-3	-24.6148E-3	-49.2352E-12	935.699E-3	-13.2138E-3
-1.71836E-3	-51.6593E-12	954.885E-3	-18.4298E-3	-49.7131E-12	921.640E-3	5.55346E-3
-1.72336E-3	-52.1083E-12	958.487E-3	-3.69174E-3	-50.4901E-12	927.642E-3	5.04137E-3
-1.72836E-3	-50.5126E-12	973.315E-3	1.49611E-3	-50.2633E-12	938.999E-3	-12.0870E-3
-1.73337E-3	-51.1056E-12	975.581E-3	-3.81809E-3	-50.5245E-12	928.093E-3	-23.7702E-3
-1.73837E-3	-51.9145E-12	960.585E-3	-16.5814E-3	-51.0378E-12	908.159E-3	-14.8879E-3
-1.74337E-3	-52.9511E-12	950.936E-3	-19.6633E-3	-51.7418E-12	901.863E-3	-2.79749E-3
-1.74837E-3	-52.4354E-12	938.244E-3	-14.3756E-3	-52.1823E-12	904.746E-3	-7.04206E-3
-1.75338E-3	-52.0092E-12	923.487E-3	-17.4191E-3	-51.6969E-12	895.876E-3	-18.5331E-3
-1.75838E-3	-52.8824E-12	922.068E-3	-14.8654E-3	-52.1661E-12	889.112E-3	-31.9369E-3
-1.76338E-3	-54.7115E-12	922.345E-3	-5.83029E-3	-52.2977E-12	897.528E-3	-45.5200E-3
-1.76838E-3	-55.0105E-12	923.969E-3	-13.7248E-3	-53.5363E-12	908.037E-3	-39.0905E-3
-1.77339E-3	-54.1512E-12	929.095E-3	-22.7591E-3	-54.3741E-12	915.395E-3	-27.7151E-3
-1.77839E-3	-53.9597E-12	930.498E-3	-14.4293E-3	-54.7555E-12	909.157E-3	-34.0112E-3
-1.78339E-3	-55.3817E-12	921.899E-3	703.334E-6	-54.1422E-12	889.450E-3	-39.8315E-3
-1.78839E-3	-55.7162E-12	908.824E-3	11.3341E-3	-54.5572E-12	874.791E-3	-36.9905E-3
-1.79340E-3	-55.1335E-12	906.987E-3	-518.790E-6	-55.2598E-12	873.035E-3	-30.9815E-3
-1.79840E-3	-55.0789E-12	908.874E-3	-15.0236E-3	-55.1564E-12	889.977E-3	-29.9400E-3
-1.80340E-3	-55.6645E-12	901.653E-3	-12.3027E-3	-55.5637E-12	912.347E-3	-41.4363E-3
-1.80840E-3	-56.2190E-12	899.931E-3	-9.64991E-3	-55.4845E-12	910.649E-3	-40.0227E-3
-1.81341E-3	-55.7850E-12	902.440E-3	-8.92761E-3	-56.3973E-12	888.594E-3	-14.6656E-3
-1.81841E-3	-56.1332E-12	896.858E-3	-8.40129E-3	-56.5406E-12	867.858E-3	-5.46180E-3
-1.82341E-3	-56.7299E-12	885.942E-3	-13.0155E-3	-56.5741E-12	871.495E-3	-17.7573E-3
-1.82841E-3	-56.9877E-12	865.754E-3	-16.9014E-3	-56.7314E-12	883.250E-3	-11.6005E-3
-1.83342E-3	-57.9048E-12	844.082E-3	-21.8146E-3	-56.9100E-12	880.454E-3	4.35516E-3
-1.83842E-3	-57.7087E-12	835.025E-3	-26.5858E-3	-57.5281E-12	874.491E-3	-4.44559E-3
-1.84342E-3	-58.0246E-12	834.912E-3	-16.7236E-3	-57.9531E-12	850.071E-3	-23.4280E-3
-1.84842E-3	-58.0342E-12	844.671E-3	-4.90908E-3	-58.2791E-12	824.814E-3	-31.2044E-3
-1.85343E-3	-59.2370E-12	858.852E-3	-1.02209E-3	-58.4847E-12	835.798E-3	-28.9226E-3
-1.85843E-3	-59.3961E-12	856.265E-3	-7.46992E-3	-59.0793E-12	856.086E-3	-24.7373E-3
-1.86343E-3	-59.3850E-12	836.304E-3	-17.7830E-3	-59.5898E-12	850.056E-3	-23.7944E-3
-1.86843E-3	-61.0616E-12	819.116E-3	-12.0545E-3	-59.8571E-12	838.571E-3	-25.7847E-3
-1.87344E-3	-60.9897E-12	818.926E-3	-12.1069E-3	-59.3621E-12	830.519E-3	-30.4458E-3
-1.87844E-3	-60.9326E-12	841.639E-3	-34.2849E-3	-59.6689E-12	818.581E-3	-32.3195E-3
-1.88344E-3	-59.8646E-12	864.132E-3	-43.9282E-3	-60.4702E-12	824.737E-3	-29.7413E-3
-1.88844E-3	-60.9579E-12	861.613E-3	-36.1816E-3	-61.1846E-12	844.099E-3	-24.2692E-3
-1.89345E-3	-61.3080E-12	850.798E-3	-27.8524E-3	-61.3907E-12	850.945E-3	-9.19775E-3
-1.89845E-3	-60.3671E-12	838.447E-3	-13.8688E-3	-61.1454E-12	840.024E-3	5.66996E-3
-1.90345E-3	-60.3884E-12	823.122E-3	-14.5422E-3	-61.9293E-12	827.405E-3	-3.73671E-3
-1.90845E-3	-60.5374E-12	811.076E-3	-36.6234E-3	-63.3551E-12	819.530E-3	-23.0007E-3
-1.91346E-3	-61.1711E-12	807.276E-3	-37.2674E-3	-63.2485E-12	812.037E-3	-30.2486E-3
-1.91846E-3	-61.6346E-12	816.963E-3	-15.2299E-3	-62.2742E-12	808.908E-3	-22.1972E-3
-1.92346E-3	-61.8184E-12	814.983E-3	-7.44189E-3	-62.2758E-12	824.209E-3	-6.56504E-3
-1.92846E-3	-62.2428E-12	800.558E-3	-13.5087E-3	-63.2435E-12	840.319E-3	1.58788E-3
-1.93347E-3	-63.5370E-12	793.996E-3	-9.74935E-3	-63.9734E-12	829.953E-3	4.78845E-3
-1.93847E-3	-64.1600E-12	785.684E-3	-3.82361E-3	-63.8842E-12	807.847E-3	-5.44203E-3
-1.94347E-3	-64.2350E-12	785.701E-3	-20.6493E-3	-63.5369E-12	798.154E-3	-28.1022E-3
-1.94847E-3	-64.1123E-12	804.399E-3	-36.1506E-3	-63.7156E-12	791.411E-3	-35.5791E-3
-1.95348E-3	-64.9906E-12	819.174E-3	-28.3169E-3	-64.9571E-12	784.217E-3	-21.1561E-3
-1.95848E-3	-65.9946E-12	827.811E-3	-24.0808E-3	-64.2315E-12	781.792E-3	-2.79139E-3
-1.96348E-3	-65.8509E-12	824.339E-3	-21.6064E-3	-64.1809E-12	785.222E-3	1.27250E-3
-1.96848E-3	-65.2840E-12	809.564E-3	-10.5370E-3	-65.4938E-12	792.336E-3	-6.10768E-3
-1.97349E-3	-65.5786E-12	805.553E-3	-4.91053E-3	-66.3362E-12	795.013E-3	-14.6584E-3
-1.97849E-3	-66.3924E-12	798.952E-3	-5.16736E-3	-65.6786E-12	796.993E-3	-15.9286E-3
-1.98349E-3	-66.3736E-12	784.569E-3	-9.41700E-3	-65.4560E-12	798.044E-3	-12.3620E-3
-1.98849E-3	-66.3272E-12	794.194E-3	-11.9505E-3	-66.1891E-12	792.800E-3	-6.94495E-3
-1.99350E-3	-66.1402E-12	806.996E-3	-15.7322E-3	-66.3930E-12	783.004E-3	-2.87625E-3
-1.99850E-3	-66.2409E-12	786.992E-3	-21.0628E-3	-66.6798E-12	786.587E-3	-5.72112E-3
-2.00350E-3	-66.5008E-12	761.783E-3	-10.8836E-3	-66.4015E-12	794.977E-3	-5.24765E-3
-2.00850E-3	-66.3258E-12	763.798E-3	-3.19298E-3	-66.4435E-12	790.919E-3	6.19536E-3
-2.01351E-3	-66.9739E-12	774.563E-3	-13.2418E-3	-67.0651E-12	777.316E-3	19.5086E-3
-2.01851E-3	-67.2043E-12	770.342E-3	-20.7293E-3	-67.6408E-12	760.546E-3	26.1951E-3
-2.02351E-3	-67.1599E-12	773.279E-3	-6.61298E-3	-67.2385E-12	756.584E-3	15.9103E-3
-2.02851E-3	-66.9810E-12	786.555E-3	19.5876E-3	-66.9856E-12	762.325E-3	-16.5083E-3
-2.03352E-3	-68.1480E-12	788.744E-3	21.6751E-3	-67.0160E-12	763.607E-3	-28.3859E-3
-2.03852E-3	-68.6317E-12	792.266E-3	3.53250E-3	-67.3165E-12	746.657E-3	-8.67267E-3
-2.04352E-3	-68.8503E-12	795.785E-3	-6.13362E-3	-67.2399E-12	723.285E-3	-1.80927E-3
-2.04852E-3	-68.8030E-12	795.463E-3	-18.8621E-3	-67.2975E-12	729.151E-3	-12.8260E-3
-2.05353E-3	-69.2433E-12	805.550E-3	-25.9876E-3	-67.8762E-12	755.609E-3	-22.5644E-3
-2.05853E-3	-70.3092E-12	792.918E-3	-14.0347E-3	-68.2934E-12	760.805E-3	-23.7546E-3
-2.06353E-3	-70.5894E-12	773.181E-3	-22.4585E-3	-68.5578E-12	743.853E-3	-24.2422E-3
-2.06853E-3	-70.2505E-12	784.778E-3	-38.1805E-3	-68.7986E-12	747.359E-3	-25.3687E-3
-2.07354E-3	-70.7796E-12	782.782E-3	-28.9448E-3	-69.1128E-12	762.277E-3	-15.6598E-3
-2.07854E-3	-71.7380E-12	764.912E-3	-9.55477E-3	-69.6313E-12	764.435E-3	-8.59377E-3
-2.08354E-3	-72.0775E-12	773.379E-3	-820.722E-6	-70.7026E-12	759.647E-3	-14.4425E-3
-2.08854E-3	-72.1279E-12	787.750E-3	-13.7220E-3	-71.1245E-12	750.017E-3	-30.0812E-3
-2.09355E-3	-71.7222E-12	772.892E-3	-25.1714E-3	-71.4804E-12	753.692E-3	-39.0642E-3
-2.09855E-3	-72.4386E-12	753.044E-3	-20.9856E-3	-70.9313E-12	759.843E-3	-38.5878E-3
-2.10355E-3	-72.8470E-12	754.528E-3	-21.1296E-3	-71.4993E-12	750.633E-3	-41.0897E-3
-2.10855E-3	-72.8484E-12	761.150E-3	-32.6628E-3	-72.2547E-12	744.151E-3	-39.2176E-3
-2.11356E-3	-72.0457E-12	761.688E-3	-40.7150E-3	-72.1921E-12	751.482E-3	-23.5275E-3
-2.11856E-3	-72.6685E-12	762.492E-3	-30.9659E-3	-71.6384E-12	752.844E-3	-10.8420E-3
-2.12356E-3	-73.1762E-12	754.456E-3	-15.2522E-3	-71.9045E-12	736.425E-3	-13.7343E-3
-2.12856E-3	-73.0568E-12	742.342E-3	-10.3768E-3	-72.5297E-12	719.317E-3	-15.1018E-3
-2.13357E-3	-72.7613E-12	757.270E-3	-7.61046E-3	-72.6638E-12	720.246E-3	-13.0012E-3
-2.13857E-3	-72.5495E-12	769.992E-3	-16.8012E-3	-72.0786E-12	732.479E-3	-1.89735E-3
-2.14357E-3	-73.4577E-12	752.720E-3	-40.9067E-3	-72.1473E-12	740.770E-3	12.3038E-3
-2.14857E-3	-73.4493E-12	733.291E-3	-30.9958E-3	-73.0558E-12	747.053E-3	16.8891E-3
-2.15358E-3	-74.1891E-12	724.700E-3	-4.33621E-3	-73.2389E-12	758.808E-3	18.4221E-3
-2.15858E-3	-73.5836E-12	731.939E-3	-9.89125E-3	-72.9275E-12	767.778E-3	13.7430E-3
-2.16358E-3	-74.4514E-12	740.138E-3	-20.0431E-3	-73.4616E-12	756.264E-3	-3.44545E-3
-2.16858E-3	-75.6375E-12	737.259E-3	-21.0890E-3	-75.3478E-12	742.297E-3	-24.9790E-3
-2.17359E-3	-76.2495E-12	736.726E-3	-24.6091E-3	-75.0909E-12	747.551E-3	-27.5840E-3
-2.17859E-3	-76.0761E-12	729.455E-3	-20.5079E-3	-74.5523E-12	758.438E-3	-17.7436E-3
-2.18359E-3	-75.4556E-12	718.246E-3	-12.1940E-3	-75.0674E-12	749.147E-3	-15.8080E-3
-2.18859E-3	-77.3375E-12	713.020E-3	-16.3205E-3	-77.0269E-12	719.716E-3	-24.8526E-3
-2.19360E-3	-77.2268E-12	714.596E-3	-27.0709E-3	-76.9428E-12	702.055E-3	-40.3296E-3
-2.19860E-3	-78.2791E-12	711.270E-3	-29.0081E-3	-76.2544E-12	707.673E-3	-43.6176E-3
-2.20360E-3	-77.2955E-12	701.939E-3	-33.8903E-3	-76.1506E-12	723.420E-3	-33.3107E-3
-2.20860E-3	-76.8779E-12	717.854E-3	-27.1061E-3	-77.3735E-12	734.397E-3	-19.0645E-3
-2.21361E-3	-77.0399E-12	737.776E-3	9.15713E-3	-78.0668E-12	725.286E-3	-11.0150E-3
-2.21861E-3	-77.0837E-12	724.364E-3	19.5792E-3	-77.2014E-12	710.211E-3	-13.8301E-3
-2.22361E-3	-77.9780E-12	706.957E-3	-2.99071E-3	-76.8553E-12	703.423E-3	-26.0390E-3
-2.22861E-3	-76.9424E-12	707.023E-3	-4.70077E-3	-77.1460E-12	697.761E-3	-36.1521E-3
-2.23362E-3	-77.2715E-12	717.967E-3	-9.44964E-3	-77.3350E-12	707.067E-3	-31.0566E-3
-2.23862E-3	-76.9080E-12	736.652E-3	-41.0108E-3	-77.5322E-12	741.367E-3	-29.7483E-3
-2.24362E-3	-77.9544E-12	726.049E-3	-53.7591E-3	-77.5233E-12	757.321E-3	-36.3393E-3
-2.24862E-3	-77.6575E-12	697.141E-3	-38.9259E-3	-78.2142E-12	733.976E-3	-29.0448E-3
-2.25363E-3	-77.8897E-12	706.731E-3	-35.8630E-3	-79.0609E-12	704.565E-3	-7.07826E-3
-2.25863E-3	-77.9662E-12	717.657E-3	-32.4934E-3	-79.4638E-12	693.662E-3	-1.49867E-3
-2.26363E-3	-78.5281E-12	699.344E-3	-11.0605E-3	-79.0318E-12	694.376E-3	-16.2697E-3
-2.26863E-3	-80.0666E-12	700.831E-3	6.18871E-3	-79.5616E-12	691.162E-3	-19.9958E-3
-2.27364E-3	-79.7967E-12	725.136E-3	15.3561E-3	-79.5687E-12	688.552E-3	-16.3905E-3
-2.27864E-3	-80.3396E-12	734.454E-3	8.76406E-3	-81.7606E-12	703.905E-3	-17.5492E-3
-2.28364E-3	-80.3568E-12	724.828E-3	-9.56448E-3	-81.3634E-12	731.196E-3	-22.4966E-3
-2.28864E-3	-81.3387E-12	719.915E-3	-7.63151E-3	-80.2187E-12	728.455E-3	-29.5909E-3
-2.29365E-3	-81.5029E-12	718.559E-3	5.24751E-3	-80.3206E-12	700.590E-3	-28.7288E-3
-2.29865E-3	-81.7151E-12	714.608E-3	-8.24971E-3	-81.3921E-12	680.393E-3	-20.8222E-3
-2.30365E-3	-81.0599E-12	726.841E-3	-32.0793E-3	-82.5316E-12	671.643E-3	-11.6767E-3
-2.30865E-3	-82.0197E-12	734.200E-3	-38.5301E-3	-81.4279E-12	679.341E-3	-9.89868E-3
-2.31366E-3	-81.9276E-12	708.630E-3	-28.5175E-3	-80.8531E-12	699.586E-3	-24.3335E-3
-2.31866E-3	-81.3533E-12	690.318E-3	-16.5363E-3	-81.7949E-12	711.372E-3	-26.0114E-3
-2.32366E-3	-81.5761E-12	693.189E-3	-14.4166E-3	-82.6970E-12	711.879E-3	-3.43235E-3
-2.32866E-3	-81.3243E-12	696.348E-3	-19.3015E-3	-82.7358E-12	705.768E-3	14.0275E-3
-2.33367E-3	-81.4649E-12	695.260E-3	-15.7272E-3	-82.0153E-12	699.067E-3	13.1630E-3
-2.33867E-3	-81.4940E-12	687.357E-3	-739.920E-6	-82.1003E-12	697.973E-3	1.67009E-3
-2.34367E-3	-82.1032E-12	687.306E-3	-5.52059E-3	-83.0763E-12	703.910E-3	-7.35091E-3
-2.34867E-3	-82.4598E-12	692.486E-3	-15.0679E-3	-84.0905E-12	706.650E-3	-12.8029E-3
-2.35368E-3	-83.1576E-12	683.342E-3	-8.54426E-3	-83.9400E-12	700.160E-3	-16.7455E-3
-2.35868E-3	-83.3094E-12	682.363E-3	-9.35298E-3	-83.9931E-12	692.926E-3	-14.9740E-3
-2.36368E-3	-83.6317E-12	701.283E-3	-5.28954E-3	-84.0659E-12	682.282E-3	-7.92642E-3
-2.36868E-3	-84.4890E-12	696.685E-3	8.03404E-3	-83.9984E-12	682.202E-3	-5.12498E-3
-2.37369E-3	-84.7346E-12	679.288E-3	6.90426E-3	-83.7915E-12	694.512E-3	-11.3740E-3
-2.37869E-3	-85.6522E-12	687.708E-3	-2.86052E-3	-84.4399E-12	696.429E-3	-12.0476E-3
-2.38369E-3	-85.5499E-12	709.996E-3	-1.75000E-3	-84.2338E-12	698.638E-3	-9.92640E-3
-2.38869E-3	-86.0839E-12	726.359E-3	1.50447E-3	-84.1288E-12	694.806E-3	-14.8758E-3
-2.39370E-3	-86.1675E-12	719.882E-3	-4.11006E-3	-84.4928E-12	676.056E-3	-15.6161E-3
-2.39870E-3	-86.9540E-12	694.845E-3	-9.15982E-3	-84.7026E-12	674.001E-3	-4.02083E-3
-2.40370E-3	-87.0004E-12	693.529E-3	-12.5324E-3	-85.3799E-12	689.933E-3	17.2376E-3
-2.40870E-3	-87.0196E-12	711.439E-3	-10.6434E-3	-85.3009E-12	706.429E-3	14.2639E-3
-2.41371E-3	-86.8084E-12	714.091E-3	-21.7130E-3	-87.1182E-12	721.688E-3	-14.9018E-3
-2.41871E-3	-86.5061E-12	701.980E-3	-41.3880E-3	-87.6095E-12	733.168E-3	-28.5320E-3
-2.42371E-3	-86.0470E-12	694.200E-3	-32.2617E-3	-88.0068E-12	719.334E-3	-20.6167E-3
-2.42871E-3	-86.2142E-12	705.363E-3	-12.6941E-3	-87.4547E-12	685.651E-3	-11.6928E-3
-2.43372E-3	-87.0801E-12	718.868E-3	-4.41438E-3	-88.1322E-12	680.557E-3	-16.3246E-3
-2.43872E-3	-87.1545E-12	710.908E-3	-283.438E-6	-88.7252E-12	700.010E-3	-29.6937E-3
-2.44372E-3	-87.5057E-12	694.024E-3	-7.31948E-3	-88.7666E-12	716.035E-3	-44.7310E-3
-2.44872E-3	-87.3241E-12	683.069E-3	-20.1885E-3	-88.2152E-12	721.736E-3	-38.9943E-3
-2.45373E-3	-87.1255E-12	674.841E-3	-22.8945E-3	-87.8698E-12	708.798E-3	-14.0502E-3
-2.45873E-3	-87.4111E-12	664.123E-3	-19.0954E-3	-88.7661E-12	682.826E-3	-11.1891E-3
-2.46373E-3	-88.2968E-12	660.737E-3	-14.7015E-3	-89.2929E-12	668.063E-3	-22.6131E-3
-2.46873E-3	-88.8407E-12	664.041E-3	1.24248E-3	-89.1160E-12	675.303E-3	-26.2273E-3
-2.47374E-3	-89.0603E-12	661.710E-3	13.5515E-3	-88.4344E-12	680.020E-3	-37.6417E-3
-2.47874E-3	-89.3297E-12	656.190E-3	-515.345E-6	-88.5919E-12	674.368E-3	-51.1331E-3
-2.48374E-3	-89.7081E-12	667.674E-3	-12.8280E-3	-89.3075E-12	673.069E-3	-47.0726E-3
-2.48874E-3	-90.5497E-12	678.238E-3	-7.23871E-3	-90.8306E-12	682.665E-3	-36.1947E-3
-2.49375E-3	-90.5692E-12	677.523E-3	-10.6103E-3	-90.2937E-12	690.069E-3	-27.0112E-3
-2.49875E-3	-90.3632E-12	693.402E-3	-29.3921E-3	-90.2326E-12	689.225E-3	-20.3027E-3
-2.50375E-3	-90.6291E-12	703.414E-3	-38.0444E-3	-90.7695E-12	692.496E-3	-18.8720E-3
-2.50875E-3	-91.1388E-12	695.029E-3	-32.6766E-3	-92.6347E-12	693.608E-3	-17.9126E-3
-2.51376E-3	-91.6820E-12	682.186E-3	-30.3201E-3	-93.1875E-12	689.245E-3	-31.1712E-3
-2.51876E-3	-90.7631E-12	678.230E-3	-22.3771E-3	-92.3405E-12	688.593E-3	-41.0296E-3
-2.52376E-3	-90.8273E-12	682.682E-3	-864.144E-6	-92.4755E-12	692.240E-3	-24.4247E-3
-2.52876E-3	-90.6599E-12	683.296E-3	6.20198E-3	-93.2108E-12	699.359E-3	-6.93019E-3
-2.53377E-3	-90.7208E-12	689.725E-3	-6.58834E-3	-93.6206E-12	705.154E-3	-16.0259E-3
-2.53877E-3	-91.0277E-12	687.290E-3	-14.1399E-3	-93.4453E-12	690.315E-3	-39.2494E-3
-2.54377E-3	-90.9876E-12	663.898E-3	-12.2273E-3	-93.4015E-12	668.454E-3	-26.0999E-3
-2.54877E-3	-90.9282E-12	661.579E-3	-6.44130E-3	-93.5623E-12	668.537E-3	6.50287E-3
-2.55378E-3	-91.6452E-12	652.660E-3	-9.13389E-3	-93.5973E-12	671.892E-3	12.7589E-3
-2.55878E-3	-92.4277E-12	622.582E-3	-30.0035E-3	-93.9507E-12	670.756E-3	-3.48679E-3
-2.56378E-3	-91.9972E-12	634.127E-3	-45.0214E-3	-94.5107E-12	684.579E-3	-23.9158E-3
-2.56878E-3	-92.7606E-12	666.835E-3	-30.7808E-3	-95.0163E-12	696.094E-3	-34.5622E-3
-2.57379E-3	-92.9594E-12	670.542E-3	-10.4201E-3	-95.5433E-12	683.708E-3	-21.5420E-3
-2.57879E-3	-92.9720E-12	663.250E-3	-10.2848E-3	-95.7607E-12	666.527E-3	-3.04235E-3
-2.58379E-3	-92.8060E-12	664.181E-3	-17.9343E-3	-95.7669E-12	667.683E-3	-9.12462E-3
-2.58879E-3	-92.9747E-12	669.391E-3	-19.5007E-3	-96.2155E-12	678.189E-3	-16.2332E-3
-2.59380E-3	-93.7105E-12	669.813E-3	-4.67200E-3	-96.5914E-12	681.353E-3	-10.9726E-3
-2.59880E-3	-94.5123E-12	663.161E-3	13.4567E-3	-96.0417E-12	675.111E-3	-20.7613E-3
-2.60380E-3	-95.9091E-12	665.773E-3	-2.87760E-3	-96.2465E-12	655.539E-3	-31.1581E-3
-2.60880E-3	-96.2113E-12	677.055E-3	-15.1007E-3	-96.2469E-12	646.561E-3	-16.4265E-3
-2.61381E-3	-96.2719E-12	689.603E-3	-4.46424E-3	-96.5969E-12	678.823E-3	-6.34706E-3
-2.61881E-3	-96.4978E-12	688.991E-3	-15.3149E-3	-96.6426E-12	693.290E-3	-19.9308E-3
-2.62381E-3	-96.5302E-12	674.861E-3	-28.1105E-3	-96.1259E-12	655.524E-3	-42.3346E-3
-2.62881E-3	-96.9657E-12	666.667E-3	-28.8827E-3	-96.5536E-12	637.893E-3	-55.2987E-3
-2.63382E-3	-96.1458E-12	668.407E-3	-32.2859E-3	-97.3410E-12	660.424E-3	-44.7355E-3
-2.63882E-3	-96.3377E-12	668.903E-3	-31.7288E-3	-97.2153E-12	668.840E-3	-18.0871E-3
-2.64382E-3	-96.5933E-12	672.069E-3	-15.8516E-3	-96.1957E-12	651.891E-3	1.17109E-3
-2.64882E-3	-96.0825E-12	686.555E-3	1.52708E-3	-95.0911E-12	645.672E-3	-2.86147E-3
-2.65383E-3	-96.3693E-12	687.763E-3	-12.9635E-3	-96.4623E-12	648.882E-3	-25.1040E-3
-2.65883E-3	-97.3059E-12	674.907E-3	-35.3184E-3	-96.9913E-12	641.516E-3	-44.2698E-3
-2.66383E-3	-96.9497E-12	658.589E-3	-22.9266E-3	-96.6130E-12	647.722E-3	-54.2032E-3
-2.66883E-3	-97.2420E-12	644.497E-3	-7.16893E-3	-96.3934E-12	668.049E-3	-47.3029E-3
-2.67384E-3	-98.2373E-12	652.899E-3	-16.6072E-3	-96.6024E-12	668.287E-3	-19.0615E-3
-2.67884E-3	-99.4326E-12	663.291E-3	-10.3608E-3	-97.8598E-12	653.010E-3	2.56907E-3
-2.68384E-3	-100.534E-12	663.354E-3	-3.28209E-3	-98.2868E-12	638.909E-3	3.06260E-3
-2.68884E-3	-100.026E-12	666.393E-3	-23.6715E-3	-97.7236E-12	639.064E-3	-851.545E-6
-2.69385E-3	-100.752E-12	649.795E-3	-27.1178E-3	-98.0065E-12	664.772E-3	-4.07342E-3
-2.69885E-3	-101.689E-12	636.627E-3	-15.2336E-3	-98.8036E-12	686.895E-3	-9.30184E-3
-2.70385E-3	-102.725E-12	659.134E-3	-8.46904E-3	-99.8223E-12	675.292E-3	-2.98510E-3
-2.70885E-3	-102.656E-12	680.178E-3	331.351E-6	-99.1037E-12	659.845E-3	4.98500E-3
-2.71386E-3	-102.979E-12	681.646E-3	8.86390E-3	-99.1459E-12	666.452E-3	-15.2225E-3
-2.71886E-3	-102.295E-12	682.913E-3	2.41398E-3	-99.3873E-12	677.304E-3	-35.9544E-3
-2.72386E-3	-102.769E-12	689.168E-3	-13.9720E-3	-100.337E-12	678.262E-3	-28.3156E-3
-2.72886E-3	-103.237E-12	688.250E-3	-19.8953E-3	-100.785E-12	669.603E-3	-9.04570E-3
-2.73387E-3	-103.166E-12	675.276E-3	-22.5522E-3	-99.6170E-12	667.888E-3	-6.77350E-3
-2.73887E-3	-103.131E-12	654.995E-3	-17.4083E-3	-100.115E-12	669.825E-3	-19.7887E-3
-2.74387E-3	-103.163E-12	642.821E-3	-15.8644E-3	-100.790E-12	659.854E-3	-18.7556E-3
-2.74887E-3	-102.329E-12	654.132E-3	-17.4725E-3	-100.919E-12	652.083E-3	-7.33313E-3
-2.75388E-3	-102.538E-12	675.364E-3	-582.894E-6	-101.218E-12	668.560E-3	-375.175E-6
-2.75888E-3	-102.043E-12	678.122E-3	1.45423E-3	-101.152E-12	687.239E-3	-4.44269E-3
-2.76388E-3	-102.652E-12	672.222E-3	-14.2165E-3	-101.898E-12	673.223E-3	-14.7541E-3
-2.76888E-3	-102.956E-12	666.963E-3	-8.93175E-3	-103.389E-12	658.311E-3	-16.1516E-3
-2.77389E-3	-102.653E-12	653.345E-3	-8.54837E-3	-103.838E-12	671.534E-3	-3.90588E-3
-2.77889E-3	-103.556E-12	651.663E-3	-25.1491E-3	-102.536E-12	682.167E-3	-5.28040E-3
-2.78389E-3	-103.759E-12	657.311E-3	-16.1619E-3	-103.173E-12	664.740E-3	-18.0917E-3
-2.78889E-3	-103.879E-12	656.878E-3	-9.63547E-3	-103.620E-12	648.923E-3	-20.5958E-3
-2.79390E-3	-104.686E-12	661.547E-3	-20.7410E-3	-104.113E-12	658.938E-3	-18.8540E-3
-2.79890E-3	-104.976E-12	669.402E-3	-23.0149E-3	-103.626E-12	662.334E-3	-15.0131E-3
-2.80390E-3	-105.110E-12	681.223E-3	-28.4574E-3	-102.979E-12	655.385E-3	-24.3311E-3
-2.80890E-3	-105.585E-12	690.824E-3	-31.2019E-3	-104.959E-12	664.162E-3	-28.6977E-3
-2.81391E-3	-105.922E-12	688.009E-3	-26.9154E-3	-104.851E-12	676.215E-3	-12.9063E-3
-2.81891E-3	-106.931E-12	674.144E-3	-13.8464E-3	-104.416E-12	672.790E-3	-6.85298E-3
-2.82391E-3	-106.268E-12	651.901E-3	-1.06357E-3	-103.700E-12	663.171E-3	-17.9439E-3
-2.82891E-3	-105.430E-12	650.160E-3	-4.55039E-3	-104.514E-12	655.680E-3	-22.7680E-3
-2.83392E-3	-105.207E-12	669.540E-3	-15.0689E-3	-105.097E-12	645.641E-3	-3.95379E-3
-2.83892E-3	-105.433E-12	674.137E-3	-30.2313E-3	-105.516E-12	646.601E-3	12.0169E-3
-2.84392E-3	-105.423E-12	666.165E-3	-48.7014E-3	-105.629E-12	656.674E-3	-6.90723E-3
-2.84892E-3	-104.992E-12	661.531E-3	-61.3689E-3	-105.830E-12	655.910E-3	-30.8100E-3
-2.85393E-3	-104.878E-12	650.353E-3	-41.1708E-3	-107.805E-12	658.580E-3	-22.7619E-3
-2.85893E-3	-104.166E-12	613.966E-3	-7.38956E-3	-108.309E-12	669.184E-3	-11.0876E-3
-2.86393E-3	-104.645E-12	595.534E-3	7.10977E-3	-108.351E-12	665.751E-3	-24.2780E-3
-2.86893E-3	-105.182E-12	627.855E-3	4.13628E-3	-107.973E-12	658.765E-3	-36.8468E-3
-2.87394E-3	-105.805E-12	657.523E-3	-3.55486E-3	-107.894E-12	653.725E-3	-34.4723E-3
-2.87894E-3	-105.586E-12	652.992E-3	-6.90402E-3	-109.327E-12	641.411E-3	-32.1554E-3
-2.88394E-3	-105.157E-12	650.990E-3	-6.80710E-3	-109.937E-12	639.099E-3	-25.7011E-3
-2.88894E-3	-106.955E-12	660.883E-3	-9.88867E-3	-109.160E-12	656.946E-3	-25.3688E-3
-2.89395E-3	-107.681E-12	650.803E-3	-18.8335E-3	-107.170E-12	675.670E-3	-29.5228E-3
-2.89895E-3	-108.253E-12	636.402E-3	-15.0728E-3	-108.129E-12	681.683E-3	-7.86710E-3
-2.90395E-3	-107.932E-12	629.508E-3	-6.63078E-3	-109.793E-12	678.549E-3	10.3660E-3
-2.90895E-3	-109.162E-12	614.991E-3	-7.05608E-3	-109.598E-12	650.072E-3	-1.67703E-3
-2.91396E-3	-109.637E-12	612.298E-3	-12.0214E-3	-107.762E-12	606.106E-3	-19.7018E-3
-2.91896E-3	-110.172E-12	625.947E-3	-13.9964E-3	-109.303E-12	606.446E-3	-18.0552E-3
-2.92396E-3	-109.302E-12	633.981E-3	-11.6900E-3	-110.379E-12	645.769E-3	2.15402E-3
-2.92896E-3	-109.640E-12	646.753E-3	-29.4904E-3	-109.932E-12	670.746E-3	744.254E-6
-2.93397E-3	-110.567E-12	666.491E-3	-51.7023E-3	-109.887E-12	673.268E-3	-20.7386E-3
-2.93897E-3	-110.038E-12	682.497E-3	-43.8979E-3	-110.235E-12	678.315E-3	-18.8846E-3
-2.94397E-3	-110.009E-12	684.047E-3	-29.7416E-3	-112.454E-12	680.009E-3	-4.56554E-3
-2.94897E-3	-109.383E-12	662.114E-3	-18.5150E-3	-112.401E-12	676.056E-3	-6.67348E-3
-2.95398E-3	-109.529E-12	642.145E-3	-7.88014E-3	-111.827E-12	681.109E-3	-16.6622E-3
-2.95898E-3	-109.489E-12	635.884E-3	-23.5232E-3	-111.778E-12	669.471E-3	-17.7639E-3
-2.96398E-3	-108.725E-12	646.810E-3	-30.9556E-3	-112.211E-12	646.802E-3	-15.2575E-3
-2.96898E-3	-109.016E-12	657.202E-3	-10.9572E-3	-111.873E-12	643.670E-3	-26.5164E-3
-2.97399E-3	-109.966E-12	661.579E-3	-3.19269E-3	-112.156E-12	651.475E-3	-43.1622E-3
-2.97899E-3	-110.078E-12	680.611E-3	-8.89490E-3	-111.121E-12	667.228E-3	-30.4436E-3
-2.98399E-3	-110.011E-12	684.286E-3	-7.79357E-3	-109.940E-12	674.018E-3	11.0437E-3
-2.98899E-3	-111.044E-12	665.977E-3	-2.83390E-3	-110.898E-12	657.124E-3	17.5536E-3
-2.99400E-3	-111.633E-12	658.218E-3	-6.06286E-3	-111.951E-12	643.947E-3	-21.6258E-3
-2.99900E-3	-112.949E-12	663.691E-3	-6.20822E-3	-110.856E-12	639.142E-3	-35.6895E-3
-3.00400E-3	-112.873E-12	669.638E-3	-12.2244E-3	-110.081E-12	642.983E-3	-27.8209E-3
-3.00900E-3	-113.721E-12	681.852E-3	-42.0333E-3	-110.790E-12	655.905E-3	-39.7733E-3
-3.01401E-3	-114.511E-12	693.865E-3	-60.5315E-3	-113.051E-12	664.066E-3	-43.8782E-3
-3.01901E-3	-114.229E-12	674.172E-3	-42.8299E-3	-113.035E-12	657.141E-3	-26.6397E-3
-3.02401E-3	-114.451E-12	645.898E-3	-26.9979E-3	-111.529E-12	638.847E-3	-8.66048E-3
-3.02901E-3	-114.021E-12	651.531E-3	-18.7770E-3	-112.439E-12	634.492E-3	10.8850E-3
-3.03402E-3	-114.443E-12	653.307E-3	-1.87802E-3	-113.731E-12	642.675E-3	15.9055E-3
-3.03902E-3	-114.476E-12	637.462E-3	-4.67712E-3	-115.652E-12	646.338E-3	5.41117E-3
-3.04402E-3	-114.368E-12	657.602E-3	-13.2942E-3	-115.517E-12	640.343E-3	-6.35728E-3
-3.04902E-3	-114.745E-12	686.827E-3	-1.47245E-3	-114.872E-12	634.114E-3	-24.0242E-3
-3.05403E-3	-114.664E-12	681.108E-3	-5.31233E-3	-115.011E-12	647.415E-3	-32.8362E-3
-3.05903E-3	-115.512E-12	681.990E-3	-13.4705E-3	-117.043E-12	675.596E-3	-28.3235E-3
-3.06403E-3	-115.329E-12	688.090E-3	489.572E-6	-117.068E-12	701.348E-3	-33.3617E-3
-3.06903E-3	-115.140E-12	669.229E-3	-703.744E-6	-116.886E-12	695.354E-3	-44.2476E-3
-3.07404E-3	-114.446E-12	642.730E-3	-8.41958E-3	-116.488E-12	668.405E-3	-34.2370E-3
-3.07904E-3	-115.685E-12	612.017E-3	37.7111E-6	-117.244E-12	652.667E-3	-19.1929E-3
-3.08404E-3	-116.228E-12	600.131E-3	-9.04759E-3	-119.445E-12	628.211E-3	-17.5380E-3
-3.08904E-3	-115.883E-12	626.353E-3	-26.5059E-3	-117.852E-12	611.287E-3	-6.59868E-3
-3.09405E-3	-116.332E-12	648.527E-3	-26.8699E-3	-116.253E-12	638.372E-3	2.01069E-3
-3.09905E-3	-118.017E-12	640.495E-3	-22.5083E-3	-117.700E-12	673.802E-3	-8.08091E-3
-3.10405E-3	-118.910E-12	609.980E-3	-20.2448E-3	-119.825E-12	684.778E-3	-25.1659E-3
-3.10905E-3	-118.817E-12	600.967E-3	-6.56555E-3	-120.367E-12	687.129E-3	-38.5640E-3
-3.11406E-3	-118.057E-12	622.231E-3	-1.38817E-3	-118.463E-12	681.626E-3	-29.0675E-3
-3.11906E-3	-119.881E-12	644.836E-3	-30.4092E-3	-118.435E-12	661.095E-3	-19.0525E-3
-3.12406E-3	-121.886E-12	656.928E-3	-40.4423E-3	-119.812E-12	658.884E-3	-18.8900E-3
-3.12906E-3	-121.382E-12	648.889E-3	-23.8139E-3	-120.583E-12	688.873E-3	-12.0379E-3
-3.13407E-3	-120.062E-12	653.883E-3	-22.1581E-3	-119.775E-12	694.727E-3	-22.0894E-3
-3.13907E-3	-120.541E-12	668.938E-3	-18.8463E-3	-119.508E-12	678.908E-3	-47.0614E-3
-3.14407E-3	-121.551E-12	655.400E-3	-21.8214E-3	-119.964E-12	658.304E-3	-54.8580E-3
-3.14907E-3	-120.249E-12	646.775E-3	-46.2908E-3	-121.625E-12	630.832E-3	-39.2479E-3
-3.15408E-3	-119.656E-12	655.595E-3	-38.4172E-3	-121.897E-12	620.546E-3	-18.0769E-3
-3.15908E-3	-120.424E-12	658.715E-3	-7.19043E-3	-119.460E-12	638.906E-3	-21.3353E-3
-3.16408E-3	-119.920E-12	657.093E-3	-8.89832E-3	-119.933E-12	672.634E-3	-40.1903E-3
-3.16908E-3	-118.926E-12	642.077E-3	-8.74925E-3	-121.931E-12	686.765E-3	-45.1448E-3
-3.17409E-3	-117.734E-12	619.309E-3	-6.44797E-3	-122.691E-12	665.135E-3	-41.9910E-3
-3.17909E-3	-118.521E-12	612.878E-3	-25.4918E-3	-120.471E-12	634.453E-3	-45.1353E-3
-3.18409E-3	-117.891E-12	621.743E-3	-13.9831E-3	-119.663E-12	633.898E-3	-50.1898E-3
-3.18909E-3	-117.215E-12	634.857E-3	10.0092E-3	-122.125E-12	644.728E-3	-39.5423E-3
-3.19410E-3	-116.493E-12	642.326E-3	-7.42732E-3	-123.876E-12	642.029E-3	-15.5585E-3
-3.19910E-3	-117.452E-12	647.228E-3	-12.9807E-3	-122.272E-12	645.913E-3	-168.221E-6
-3.20410E-3	-118.729E-12	643.805E-3	4.90903E-3	-120.926E-12	665.332E-3	4.47330E-3
-3.20910E-3	-118.324E-12	630.153E-3	-13.4549E-3	-122.982E-12	666.626E-3	7.31602E-3
-3.21411E-3	-119.895E-12	633.897E-3	-37.4020E-3	-124.139E-12	659.562E-3	9.23792E-3
-3.21911E-3	-120.778E-12	623.554E-3	-24.3906E-3	-124.286E-12	678.577E-3	5.30979E-3
-3.22411E-3	-122.801E-12	591.467E-3	-17.9216E-3	-123.029E-12	692.733E-3	-12.3102E-3
-3.22911E-3	-122.790E-12	602.808E-3	-22.6755E-3	-122.458E-12	689.119E-3	-25.3918E-3
-3.23412E-3	-123.147E-12	643.534E-3	-7.48975E-3	-123.165E-12	677.958E-3	-19.2562E-3
-3.23912E-3	-124.669E-12	663.635E-3	11.3003E-3	-122.634E-12	666.912E-3	-12.4711E-3
-3.24412E-3	-126.212E-12	677.320E-3	3.69995E-3	-122.793E-12	670.534E-3	-22.7375E-3
-3.24912E-3	-125.939E-12	671.738E-3	-14.8497E-3	-122.061E-12	657.598E-3	-33.5667E-3
-3.25413E-3	-124.664E-12	640.556E-3	-17.5366E-3	-122.194E-12	627.589E-3	-30.0898E-3
-3.25913E-3	-125.000E-12	637.716E-3	-21.3562E-3	-121.837E-12	618.500E-3	-8.92859E-3
-3.26413E-3	-125.581E-12	651.234E-3	-16.6786E-3	-122.865E-12	627.909E-3	8.02447E-3
-3.26913E-3	-125.734E-12	658.052E-3	3.36993E-3	-123.395E-12	638.564E-3	-1.37138E-3
-3.27414E-3	-124.324E-12	668.849E-3	2.23234E-3	-123.152E-12	653.904E-3	-9.12600E-3
-3.27914E-3	-124.316E-12	666.068E-3	11.2038E-3	-123.245E-12	659.594E-3	-3.13620E-3
-3.28414E-3	-124.085E-12	643.394E-3	41.7012E-3	-124.383E-12	642.451E-3	1.35338E-3
-3.28914E-3	-124.215E-12	646.652E-3	30.4996E-3	-124.276E-12	646.916E-3	3.20089E-3
-3.29415E-3	-124.164E-12	664.753E-3	-1.75416E-3	-123.807E-12	661.275E-3	-896.083E-6
-3.29915E-3	-123.849E-12	655.754E-3	-14.6622E-3	-124.292E-12	646.746E-3	-8.22425E-3
-3.30415E-3	-125.460E-12	642.208E-3	-17.1470E-3	-125.131E-12	635.773E-3	-721.696E-6
-3.30915E-3	-125.933E-12	632.628E-3	-29.3811E-3	-125.411E-12	647.440E-3	-430.018E-6
-3.31416E-3	-127.332E-12	625.360E-3	-49.1312E-3	-125.149E-12	647.026E-3	-8.70589E-3
-3.31916E-3	-126.512E-12	639.061E-3	-61.9862E-3	-124.366E-12	627.665E-3	-15.9945E-3
-3.32416E-3	-127.619E-12	666.279E-3	-52.0223E-3	-125.172E-12	618.780E-3	-27.0524E-3
-3.32916E-3	-129.430E-12	670.374E-3	-15.4539E-3	-125.365E-12	613.840E-3	-19.3293E-3
-3.33417E-3	-129.238E-12	647.810E-3	14.9156E-3	-124.595E-12	606.896E-3	-166.137E-6
-3.33917E-3	-129.716E-12	633.134E-3	5.18747E-3	-124.917E-12	586.844E-3	9.33459E-3
-3.34417E-3	-129.211E-12	618.312E-3	-35.5922E-3	-124.831E-12	563.795E-3	11.6819E-3
-3.34917E-3	-129.694E-12	625.268E-3	-56.3860E-3	-125.446E-12	583.518E-3	2.28071E-3
-3.35418E-3	-128.842E-12	663.631E-3	-28.8671E-3	-125.635E-12	624.615E-3	-32.2803E-3
-3.35918E-3	-129.244E-12	665.640E-3	-4.34103E-3	-126.022E-12	644.941E-3	-41.5964E-3
-3.36418E-3	-129.349E-12	655.123E-3	-19.2419E-3	-125.965E-12	654.401E-3	-11.2315E-3
-3.36918E-3	-129.903E-12	665.473E-3	-28.9943E-3	-126.568E-12	650.838E-3	-6.53273E-3
-3.37419E-3	-129.429E-12	663.634E-3	-41.9363E-3	-126.987E-12	620.869E-3	-25.8399E-3
-3.37919E-3	-127.794E-12	668.331E-3	-63.9400E-3	-127.596E-12	613.272E-3	-19.7834E-3
-3.38419E-3	-128.282E-12	679.932E-3	-54.5278E-3	-127.499E-12	638.638E-3	-597.935E-6
-3.38919E-3	-128.611E-12	660.501E-3	-15.1047E-3	-128.176E-12	637.591E-3	-2.24353E-3
-3.39420E-3	-129.351E-12	635.333E-3	15.9520E-3	-128.909E-12	620.618E-3	-7.31484E-3
-3.39920E-3	-128.818E-12	629.154E-3	9.92288E-3	-128.860E-12	620.088E-3	-19.3215E-3
-3.40420E-3	-129.461E-12	624.034E-3	5.41963E-3	-128.370E-12	631.140E-3	-40.8922E-3
-3.40920E-3	-130.363E-12	624.242E-3	2.61278E-3	-129.076E-12	635.373E-3	-37.4673E-3
-3.41421E-3	-130.413E-12	636.739E-3	-27.5544E-3	-129.339E-12	613.956E-3	-17.6360E-3
-3.41921E-3	-130.844E-12	640.434E-3	-43.5309E-3	-128.846E-12	604.359E-3	-13.3908E-3
-3.42421E-3	-131.682E-12	626.068E-3	-36.2917E-3	-128.225E-12	610.835E-3	-18.5475E-3
-3.42921E-3	-132.943E-12	601.304E-3	-30.9797E-3	-128.285E-12	595.113E-3	-25.2070E-3
-3.43422E-3	-132.280E-12	585.061E-3	-26.5131E-3	-130.111E-12	583.496E-3	-31.0483E-3
-3.43922E-3	-132.392E-12	592.041E-3	-42.6276E-3	-130.463E-12	590.569E-3	-19.1750E-3
-3.44422E-3	-131.257E-12	607.034E-3	-59.0112E-3	-130.102E-12	609.140E-3	-6.03439E-3
-3.44922E-3	-131.425E-12	625.127E-3	-38.6655E-3	-131.347E-12	631.046E-3	-7.51318E-3
-3.45423E-3	-131.837E-12	649.748E-3	-12.2425E-3	-131.971E-12	648.996E-3	-17.0831E-3
-3.45923E-3	-132.471E-12	665.239E-3	-2.27341E-3	-132.736E-12	657.594E-3	-15.8276E-3
-3.46423E-3	-131.827E-12	669.303E-3	1.94294E-3	-133.046E-12	644.338E-3	507.194E-6
-3.46923E-3	-130.469E-12	663.421E-3	6.96871E-3	-133.819E-12	631.428E-3	366.768E-6
-3.47424E-3	-131.001E-12	664.147E-3	-10.4711E-3	-133.833E-12	640.495E-3	-13.6132E-3
-3.47924E-3	-131.449E-12	663.399E-3	-40.2942E-3	-134.254E-12	654.141E-3	-4.45238E-3
-3.48424E-3	-131.549E-12	655.127E-3	-30.6501E-3	-135.627E-12	657.427E-3	4.67307E-3
-3.48924E-3	-130.309E-12	659.967E-3	-15.8118E-3	-136.520E-12	654.851E-3	-30.6386E-3
-3.49425E-3	-130.415E-12	645.454E-3	-30.0413E-3	-136.537E-12	653.178E-3	-58.2664E-3
-3.49925E-3	-130.975E-12	619.559E-3	-33.7598E-3	-135.668E-12	656.366E-3	-50.0142E-3
-3.50425E-3	-132.425E-12	621.023E-3	-35.9918E-3	-136.803E-12	658.704E-3	-51.1609E-3
-3.50925E-3	-132.113E-12	641.285E-3	-48.0128E-3	-137.090E-12	647.059E-3	-50.3267E-3
-3.51426E-3	-131.817E-12	648.092E-3	-38.7328E-3	-136.535E-12	639.630E-3	-45.5552E-3
-3.51926E-3	-133.531E-12	640.781E-3	-5.87088E-3	-136.692E-12	647.023E-3	-43.7322E-3
-3.52426E-3	-134.114E-12	641.355E-3	25.9871E-3	-136.919E-12	642.721E-3	-39.9328E-3
-3.52926E-3	-134.997E-12	628.610E-3	12.1064E-3	-137.790E-12	638.683E-3	-27.7916E-3
-3.53427E-3	-135.625E-12	618.782E-3	-34.2235E-3	-137.048E-12	660.755E-3	-3.70671E-3
-3.53927E-3	-135.202E-12	643.748E-3	-37.9746E-3	-136.935E-12	666.506E-3	11.0059E-3
-3.54427E-3	-136.064E-12	666.097E-3	-13.4055E-3	-136.695E-12	627.590E-3	22.8159E-3
-3.54927E-3	-136.530E-12	666.917E-3	-15.6080E-3	-137.695E-12	596.697E-3	9.30369E-3
-3.55428E-3	-138.831E-12	656.067E-3	-27.3026E-3	-138.202E-12	606.801E-3	-34.9340E-3
-3.55928E-3	-139.011E-12	631.187E-3	-23.9120E-3	-138.450E-12	638.000E-3	-33.5715E-3
-3.56428E-3	-138.293E-12	605.147E-3	-20.3338E-3	-138.635E-12	658.342E-3	-4.21979E-3
-3.56928E-3	-137.062E-12	601.026E-3	-8.04702E-3	-137.476E-12	658.730E-3	-922.599E-6
-3.57429E-3	-138.860E-12	610.340E-3	-6.09854E-3	-139.149E-12	640.263E-3	12.0992E-3
-3.57929E-3	-140.338E-12	620.385E-3	-16.0870E-3	-139.405E-12	624.130E-3	13.6603E-3
-3.58429E-3	-139.801E-12	625.488E-3	2.30681E-3	-138.768E-12	628.070E-3	-26.6191E-3
-3.58929E-3	-137.588E-12	622.174E-3	13.2214E-3	-137.442E-12	630.355E-3	-56.0984E-3
-3.59430E-3	-137.310E-12	636.180E-3	-9.32253E-3	-137.752E-12	640.310E-3	-49.4598E-3
-3.59930E-3	-139.505E-12	662.705E-3	-38.5494E-3	-138.240E-12	660.226E-3	-44.8778E-3
-3.60430E-3	-139.150E-12	649.191E-3	-46.8500E-3	-138.521E-12	656.686E-3	-46.3864E-3
-3.60930E-3	-136.624E-12	613.927E-3	-29.4608E-3	-137.153E-12	649.258E-3	-26.0934E-3
-3.61431E-3	-136.905E-12	617.173E-3	-16.8817E-3	-137.164E-12	650.626E-3	-13.3988E-3
-3.61931E-3	-139.186E-12	635.194E-3	483.721E-6	-138.288E-12	629.917E-3	-30.7768E-3
-3.62431E-3	-141.156E-12	627.586E-3	-2.17174E-3	-138.793E-12	601.531E-3	-37.5444E-3
-3.62931E-3	-140.322E-12	629.594E-3	-31.7638E-3	-138.176E-12	606.113E-3	-30.0160E-3
-3.63432E-3	-139.024E-12	649.275E-3	-20.8558E-3	-137.835E-12	634.744E-3	-32.5287E-3
-3.63932E-3	-141.339E-12	644.510E-3	2.07022E-3	-139.366E-12	638.148E-3	-39.6701E-3
-3.64432E-3	-145.178E-12	638.148E-3	1.27577E-3	-140.180E-12	630.793E-3	-44.3763E-3
-3.64932E-3	-145.101E-12	656.847E-3	8.98092E-3	-141.040E-12	634.082E-3	-45.2803E-3
-3.65433E-3	-145.029E-12	649.727E-3	23.5151E-3	-140.367E-12	627.521E-3	-28.1248E-3
-3.65933E-3	-144.978E-12	621.392E-3	19.4206E-3	-141.203E-12	622.537E-3	-5.02010E-3
-3.66433E-3	-146.298E-12	625.384E-3	12.9574E-3	-142.005E-12	616.201E-3	-11.8367E-3
-3.66933E-3	-147.958E-12	628.039E-3	13.7879E-3	-141.677E-12	608.404E-3	-14.7187E-3
-3.67434E-3	-149.026E-12	622.806E-3	-6.75017E-3	-141.448E-12	623.371E-3	-11.6886E-3
-3.67934E-3	-148.705E-12	638.121E-3	-25.0853E-3	-141.388E-12	646.929E-3	-37.8540E-3
-3.68434E-3	-146.731E-12	648.459E-3	-18.5830E-3	-141.721E-12	643.860E-3	-46.1328E-3
-3.68934E-3	-147.233E-12	651.744E-3	-23.7582E-3	-142.576E-12	627.462E-3	-30.9184E-3
-3.69435E-3	-148.582E-12	655.872E-3	-36.4777E-3	-142.440E-12	618.592E-3	-37.0745E-3
-3.69935E-3	-148.564E-12	650.499E-3	-28.8836E-3	-142.460E-12	605.691E-3	-30.5035E-3
-3.70435E-3	-145.738E-12	654.604E-3	-12.2441E-3	-143.016E-12	603.586E-3	4.25053E-3
-3.70935E-3	-147.178E-12	677.847E-3	18.4063E-3	-144.844E-12	631.917E-3	25.7579E-3
-3.71436E-3	-148.320E-12	681.531E-3	48.4747E-3	-143.146E-12	650.338E-3	38.8272E-3
-3.71936E-3	-146.375E-12	658.683E-3	35.2001E-3	-142.781E-12	647.213E-3	50.2456E-3
-3.72436E-3	-144.687E-12	644.682E-3	11.7420E-3	-144.617E-12	652.052E-3	37.2695E-3
-3.72936E-3	-145.129E-12	620.943E-3	5.71541E-3	-146.790E-12	644.620E-3	5.05911E-3
-3.73437E-3	-149.353E-12	606.247E-3	-11.1282E-3	-145.440E-12	623.547E-3	-35.2322E-3
-3.73937E-3	-149.985E-12	643.236E-3	-22.2707E-3	-143.762E-12	620.334E-3	-77.2621E-3
-3.74437E-3	-147.455E-12	656.472E-3	-19.5703E-3	-144.963E-12	628.989E-3	-79.5238E-3
-3.74937E-3	-147.259E-12	636.424E-3	-38.8632E-3	-146.948E-12	637.557E-3	-39.7751E-3
-3.75438E-3	-151.512E-12	647.998E-3	-49.5846E-3	-145.946E-12	638.051E-3	-12.9771E-3
-3.75938E-3	-153.446E-12	676.073E-3	-21.2703E-3	-142.991E-12	631.088E-3	6.25256E-3
-3.76438E-3	-150.545E-12	685.866E-3	19.3134E-3	-144.025E-12	633.394E-3	27.4389E-3
-3.76938E-3	-148.756E-12	677.399E-3	42.8374E-3	-146.395E-12	637.003E-3	24.7790E-3
-3.77439E-3	-149.249E-12	652.518E-3	24.1315E-3	-146.304E-12	623.237E-3	-2.84000E-3
-3.77939E-3	-151.995E-12	626.498E-3	-9.59430E-3	-144.473E-12	619.591E-3	-30.8589E-3
-3.78439E-3	-148.836E-12	643.321E-3	-21.9039E-3	-144.076E-12	629.237E-3	-45.9164E-3
-3.78939E-3	-145.739E-12	678.318E-3	-32.3855E-3	-146.240E-12	646.556E-3	-29.7774E-3
-3.79440E-3	-146.324E-12	681.386E-3	-27.8847E-3	-147.785E-12	669.070E-3	1.96078E-3
-3.79940E-3	-148.280E-12	674.999E-3	-4.66411E-3	-148.361E-12	665.699E-3	-1.92426E-3
-3.80440E-3	-148.220E-12	661.586E-3	-13.9024E-3	-148.024E-12	659.899E-3	-25.4557E-3
-3.80940E-3	-144.656E-12	629.273E-3	-24.6352E-3	-147.758E-12	668.255E-3	-32.6536E-3
-3.81441E-3	-144.842E-12	623.344E-3	-11.5282E-3	-149.076E-12	662.353E-3	-42.4141E-3
-3.81941E-3	-146.135E-12	636.150E-3	-13.5495E-3	-150.275E-12	635.840E-3	-73.6050E-3
-3.82441E-3	-145.385E-12	632.943E-3	-39.0332E-3	-148.920E-12	610.461E-3	-82.8017E-3
-3.82941E-3	-145.955E-12	632.489E-3	-58.7896E-3	-148.046E-12	622.184E-3	-57.1398E-3
-3.83442E-3	-146.046E-12	648.994E-3	-41.0535E-3	-148.500E-12	645.497E-3	-22.9991E-3
-3.83942E-3	-148.816E-12	646.973E-3	-10.0185E-3	-149.557E-12	644.788E-3	-4.45402E-3
-3.84442E-3	-148.740E-12	639.661E-3	-7.70230E-3	-149.518E-12	639.743E-3	-16.4494E-3
-3.84942E-3	-148.728E-12	642.264E-3	-26.7403E-3	-147.613E-12	622.479E-3	-45.4583E-3
-3.85443E-3	-147.916E-12	640.023E-3	-41.5742E-3	-148.143E-12	592.890E-3	-63.2648E-3
-3.85943E-3	-148.924E-12	657.640E-3	-40.6207E-3	-149.704E-12	580.922E-3	-49.9066E-3
-3.86443E-3	-149.773E-12	658.121E-3	-19.0445E-3	-149.436E-12	602.521E-3	-28.3981E-3
-3.86943E-3	-149.384E-12	624.875E-3	-1.68299E-3	-147.940E-12	634.809E-3	-19.9906E-3
-3.87444E-3	-148.643E-12	604.095E-3	-16.6729E-3	-148.842E-12	634.222E-3	-9.59774E-3
-3.87944E-3	-148.600E-12	603.951E-3	-29.3336E-3	-150.166E-12	622.590E-3	-5.25204E-3
-3.88444E-3	-148.562E-12	622.115E-3	-3.52056E-3	-150.994E-12	627.482E-3	-32.1145E-3
-3.88944E-3	-150.010E-12	649.639E-3	25.1711E-3	-149.891E-12	640.694E-3	-54.2851E-3
-3.89445E-3	-149.556E-12	671.273E-3	33.5075E-3	-150.711E-12	647.707E-3	-64.8941E-3
-3.89945E-3	-149.243E-12	659.218E-3	32.3334E-3	-152.485E-12	643.005E-3	-72.3450E-3
-3.90445E-3	-148.759E-12	626.702E-3	673.077E-6	-152.521E-12	644.734E-3	-43.1600E-3
-3.90945E-3	-150.426E-12	625.574E-3	-27.3805E-3	-152.656E-12	657.162E-3	-640.066E-6
-3.91446E-3	-150.569E-12	640.131E-3	-8.75050E-3	-152.761E-12	648.933E-3	2.04292E-3
-3.91946E-3	-150.304E-12	627.454E-3	3.20069E-3	-153.024E-12	608.417E-3	-35.8727E-3
-3.92446E-3	-150.916E-12	600.388E-3	-6.20685E-3	-153.705E-12	590.769E-3	-49.8892E-3
-3.92946E-3	-152.051E-12	602.513E-3	-4.62481E-3	-152.680E-12	601.893E-3	-44.8220E-3
-3.93447E-3	-153.117E-12	612.873E-3	7.53475E-3	-152.564E-12	599.625E-3	-64.1430E-3
-3.93947E-3	-151.915E-12	605.292E-3	-1.29591E-3	-152.443E-12	596.938E-3	-62.9637E-3
-3.94447E-3	-153.566E-12	596.866E-3	-13.3826E-3	-151.605E-12	615.300E-3	-44.3196E-3
-3.94947E-3	-155.615E-12	599.347E-3	-13.7711E-3	-151.132E-12	627.965E-3	-36.3285E-3
-3.95448E-3	-156.678E-12	633.558E-3	-39.0437E-3	-150.977E-12	617.583E-3	-23.2034E-3
-3.95948E-3	-155.649E-12	658.450E-3	-57.3936E-3	-151.688E-12	610.245E-3	-24.8626E-3
-3.96448E-3	-156.067E-12	632.333E-3	-57.7947E-3	-151.305E-12	613.298E-3	-34.2326E-3
-3.96948E-3	-158.021E-12	626.372E-3	-66.4112E-3	-151.183E-12	622.184E-3	-13.4388E-3
-3.97449E-3	-158.730E-12	648.568E-3	-67.4501E-3	-151.648E-12	630.989E-3	9.57819E-3
-3.97949E-3	-157.961E-12	649.998E-3	-61.2045E-3	-152.286E-12	620.858E-3	-1.52953E-3
-3.98449E-3	-157.561E-12	649.103E-3	-55.9016E-3	-151.458E-12	598.799E-3	-2.76178E-3
-3.98949E-3	-158.027E-12	650.374E-3	-39.7246E-3	-152.556E-12	606.551E-3	21.0235E-3
-3.99450E-3	-159.822E-12	643.947E-3	-12.8692E-3	-153.410E-12	637.514E-3	20.3677E-3
-3.99950E-3	-158.812E-12	646.190E-3	-21.9676E-3	-154.077E-12	637.281E-3	-5.44114E-3
-4.00450E-3	-158.225E-12	660.326E-3	-56.9065E-3	-153.526E-12	617.506E-3	-13.0098E-3
-4.00950E-3	-157.054E-12	653.901E-3	-52.0256E-3	-154.235E-12	609.510E-3	-24.6978E-3
-4.01451E-3	-157.987E-12	639.668E-3	-37.0321E-3	-155.580E-12	611.276E-3	-48.3339E-3
-4.01951E-3	-157.414E-12	662.278E-3	-32.3345E-3	-155.079E-12	617.047E-3	-67.5844E-3
-4.02451E-3	-157.848E-12	662.735E-3	-33.5767E-3	-155.798E-12	621.046E-3	-96.6144E-3
-4.02951E-3	-156.013E-12	631.176E-3	-54.6164E-3	-154.462E-12	624.855E-3	-86.6341E-3
-4.03452E-3	-155.939E-12	633.440E-3	-67.9309E-3	-155.999E-12	622.238E-3	-31.4831E-3
-4.03952E-3	-157.248E-12	631.082E-3	-45.6858E-3	-155.630E-12	618.819E-3	-862.409E-6
-4.04452E-3	-159.201E-12	616.384E-3	-17.5469E-3	-156.161E-12	620.220E-3	-2.37768E-3
-4.04952E-3	-157.011E-12	626.989E-3	-21.8111E-3	-156.149E-12	606.647E-3	-7.75295E-3
-4.05453E-3	-157.024E-12	632.473E-3	-25.6812E-3	-156.115E-12	589.775E-3	-24.2341E-3
-4.05953E-3	-158.866E-12	625.026E-3	-14.5283E-3	-157.177E-12	602.781E-3	-52.0252E-3
-4.06453E-3	-159.497E-12	635.704E-3	-16.8131E-3	-157.592E-12	621.480E-3	-48.7747E-3
-4.06953E-3	-159.237E-12	650.797E-3	-36.7730E-3	-159.405E-12	635.430E-3	-25.2667E-3
-4.07454E-3	-158.769E-12	640.506E-3	-62.6601E-3	-157.650E-12	642.941E-3	-18.5332E-3
-4.07954E-3	-159.435E-12	646.475E-3	-69.2700E-3	-158.041E-12	618.492E-3	-4.60191E-3
-4.08454E-3	-160.209E-12	675.187E-3	-52.6987E-3	-160.369E-12	598.176E-3	2.01918E-3
-4.08954E-3	-159.603E-12	655.232E-3	-50.2463E-3	-162.031E-12	607.702E-3	-4.69820E-3
-4.09455E-3	-159.654E-12	626.977E-3	-39.5495E-3	-161.137E-12	640.993E-3	4.20573E-3
-4.09955E-3	-159.614E-12	643.570E-3	-22.0318E-3	-160.326E-12	673.238E-3	11.1146E-3
-4.10455E-3	-160.894E-12	652.469E-3	-33.2279E-3	-162.925E-12	655.595E-3	-1.61628E-3
-4.10955E-3	-161.256E-12	644.826E-3	-34.3733E-3	-164.004E-12	616.605E-3	-7.69336E-3
-4.11456E-3	-160.135E-12	628.751E-3	-9.39251E-3	-163.329E-12	597.352E-3	-489.363E-6
-4.11956E-3	-159.017E-12	617.569E-3	13.1790E-3	-162.429E-12	602.780E-3	-6.15754E-3
-4.12456E-3	-158.194E-12	631.036E-3	30.0091E-3	-163.778E-12	646.219E-3	-19.2500E-3
-4.12956E-3	-158.930E-12	626.757E-3	34.6896E-3	-164.551E-12	677.658E-3	-18.4697E-3
-4.13457E-3	-159.226E-12	626.485E-3	13.7339E-3	-164.233E-12	665.424E-3	-1.16627E-3
-4.13957E-3	-158.008E-12	634.968E-3	-7.80246E-3	-163.489E-12	643.695E-3	-7.04163E-3
-4.14457E-3	-157.475E-12	606.718E-3	-20.2775E-3	-164.498E-12	619.137E-3	-31.9351E-3
-4.14957E-3	-158.059E-12	582.018E-3	-40.1693E-3	-165.484E-12	625.282E-3	-26.3045E-3
-4.15458E-3	-159.900E-12	593.557E-3	-65.0225E-3	-164.027E-12	649.585E-3	-17.4819E-3
-4.15958E-3	-160.219E-12	621.448E-3	-54.2392E-3	-163.001E-12	646.512E-3	-35.0918E-3
-4.16458E-3	-159.244E-12	643.952E-3	-8.85717E-3	-163.320E-12	646.096E-3	-42.2258E-3
-4.16958E-3	-159.257E-12	659.418E-3	2.40973E-3	-164.305E-12	648.857E-3	-18.2522E-3
-4.17459E-3	-161.840E-12	653.676E-3	-15.0175E-3	-164.382E-12	627.028E-3	12.2749E-3
-4.17959E-3	-163.416E-12	624.052E-3	-12.0791E-3	-162.952E-12	622.990E-3	9.15936E-3
-4.18459E-3	-161.435E-12	608.650E-3	-7.08852E-3	-163.489E-12	638.454E-3	-21.8387E-3
-4.18959E-3	-162.877E-12	609.047E-3	-4.09276E-3	-164.116E-12	630.284E-3	-34.9276E-3
-4.19460E-3	-165.228E-12	608.205E-3	-14.7291E-3	-165.454E-12	637.308E-3	-29.9959E-3
-4.19960E-3	-165.790E-12	611.017E-3	-52.3151E-3	-162.933E-12	645.073E-3	-14.5206E-3
-4.20460E-3	-163.569E-12	615.804E-3	-65.6144E-3	-162.758E-12	626.787E-3	-560.800E-6
-4.20960E-3	-163.142E-12	624.669E-3	-46.5258E-3	-163.131E-12	619.969E-3	-6.89212E-3
-4.21461E-3	-162.997E-12	645.408E-3	-42.7418E-3	-166.133E-12	622.534E-3	-7.25709E-3
-4.21961E-3	-164.255E-12	658.810E-3	-32.0919E-3	-165.541E-12	629.892E-3	1.77120E-3
-4.22461E-3	-164.366E-12	647.855E-3	-11.3709E-6	-164.417E-12	641.940E-3	3.81647E-3
-4.22961E-3	-163.628E-12	638.826E-3	-2.19555E-3	-165.178E-12	632.613E-3	11.5421E-3
-4.23462E-3	-165.326E-12	629.133E-3	-10.3858E-3	-165.568E-12	608.316E-3	14.6539E-3
-4.23962E-3	-167.030E-12	607.000E-3	8.10936E-3	-165.176E-12	614.213E-3	11.2622E-3
-4.24462E-3	-167.048E-12	589.631E-3	5.81051E-3	-164.046E-12	644.313E-3	17.0292E-3
-4.24962E-3	-165.765E-12	607.140E-3	-6.61669E-3	-164.616E-12	659.152E-3	6.26304E-3
-4.25463E-3	-166.524E-12	651.471E-3	-7.72674E-3	-166.631E-12	654.899E-3	-1.89546E-3
-4.25963E-3	-168.132E-12	652.415E-3	-33.2887E-3	-167.263E-12	657.757E-3	20.5996E-3
-4.26463E-3	-169.627E-12	643.977E-3	-42.7331E-3	-167.118E-12	669.154E-3	19.8018E-3
-4.26963E-3	-170.243E-12	639.622E-3	-19.4894E-3	-166.132E-12	643.790E-3	17.2807E-3
-4.27464E-3	-170.388E-12	606.029E-3	-36.9269E-3	-167.563E-12	598.330E-3	33.9434E-3
-4.27964E-3	-170.876E-12	606.700E-3	-67.4511E-3	-168.444E-12	587.133E-3	4.87268E-3
-4.28464E-3	-172.255E-12	624.011E-3	-57.2238E-3	-168.003E-12	598.206E-3	-53.3859E-3
-4.28964E-3	-172.947E-12	599.919E-3	-49.2797E-3	-165.278E-12	609.217E-3	-87.2945E-3
-4.29465E-3	-173.016E-12	589.444E-3	-35.4081E-3	-165.200E-12	618.807E-3	-82.5503E-3
-4.29965E-3	-170.631E-12	614.487E-3	1.00591E-3	-167.913E-12	628.047E-3	-53.0718E-3
-4.30465E-3	-170.863E-12	637.452E-3	1.62285E-3	-165.975E-12	639.205E-3	-327.105E-6
-4.30965E-3	-172.531E-12	675.099E-3	-36.8274E-3	-165.043E-12	639.984E-3	43.0804E-3
-4.31466E-3	-173.064E-12	690.049E-3	-50.6021E-3	-164.092E-12	618.496E-3	30.4528E-3
-4.31966E-3	-170.243E-12	652.911E-3	-8.09288E-3	-167.729E-12	597.159E-3	18.3132E-3
-4.32466E-3	-169.821E-12	640.943E-3	15.6885E-3	-168.568E-12	607.374E-3	31.4859E-3
-4.32966E-3	-172.379E-12	658.728E-3	-6.58240E-3	-169.388E-12	632.580E-3	32.9280E-3
-4.33467E-3	-172.931E-12	643.702E-3	-24.4863E-3	-166.940E-12	646.374E-3	22.6220E-3
-4.33967E-3	-171.412E-12	647.117E-3	-35.4021E-3	-168.416E-12	655.802E-3	16.0807E-3
-4.34467E-3	-171.055E-12	685.176E-3	-24.6050E-3	-171.222E-12	645.783E-3	15.6298E-3
-4.34967E-3	-174.514E-12	681.333E-3	-2.39539E-3	-172.293E-12	606.998E-3	18.9774E-3
-4.35468E-3	-173.701E-12	660.999E-3	-18.0148E-3	-170.346E-12	597.872E-3	28.0200E-3
-4.35968E-3	-171.492E-12	666.494E-3	-25.9182E-3	-168.701E-12	623.385E-3	12.5180E-3
-4.36468E-3	-170.689E-12	660.175E-3	842.372E-6	-172.085E-12	619.036E-3	-18.9605E-3
-4.36968E-3	-174.395E-12	632.190E-3	2.19970E-3	-173.713E-12	609.630E-3	-18.0003E-3
-4.37469E-3	-174.229E-12	607.588E-3	-16.8245E-3	-172.952E-12	613.370E-3	-10.2820E-3
-4.37969E-3	-171.158E-12	579.397E-3	-37.2877E-3	-171.463E-12	607.353E-3	-1.31831E-3
-4.38469E-3	-169.715E-12	579.215E-3	-64.8438E-3	-170.931E-12	598.435E-3	8.25351E-3
-4.38969E-3	-171.570E-12	627.101E-3	-72.4459E-3	-172.149E-12	593.114E-3	1.09896E-3
-4.39470E-3	-173.007E-12	647.336E-3	-46.8710E-3	-172.186E-12	606.360E-3	-7.00475E-3
-4.39970E-3	-169.690E-12	620.703E-3	-17.5851E-3	-171.302E-12	636.457E-3	-8.86861E-3
-4.40470E-3	-168.880E-12	601.536E-3	-14.2050E-3	-170.798E-12	644.051E-3	700.832E-6
-4.40970E-3	-170.901E-12	607.913E-3	-22.5353E-3	-173.146E-12	616.006E-3	8.86269E-3
-4.41471E-3	-173.757E-12	615.227E-3	-12.0631E-3	-173.986E-12	602.928E-3	-11.9221E-3
-4.41971E-3	-172.684E-12	610.469E-3	5.28494E-3	-176.910E-12	628.234E-3	-41.5031E-3
-4.42471E-3	-171.141E-12	621.088E-3	-7.16318E-3	-176.154E-12	643.666E-3	-30.6268E-3
-4.42971E-3	-172.607E-12	642.595E-3	-23.0995E-3	-175.676E-12	616.265E-3	1.67704E-3
-4.43472E-3	-174.177E-12	633.220E-3	-10.7500E-3	-175.904E-12	586.115E-3	16.9762E-3
-4.43972E-3	-174.469E-12	607.045E-3	-16.8118E-3	-177.129E-12	590.449E-3	8.95124E-3
-4.44472E-3	-171.910E-12	605.286E-3	-38.6632E-3	-178.290E-12	616.108E-3	-36.8899E-3
-4.44972E-3	-172.848E-12	623.520E-3	-16.5657E-3	-177.923E-12	630.966E-3	-69.2447E-3
-4.45473E-3	-175.191E-12	646.589E-3	25.4693E-3	-177.675E-12	627.175E-3	-40.4287E-3
-4.45973E-3	-175.638E-12	661.484E-3	25.7423E-3	-178.394E-12	630.069E-3	-3.39883E-3
-4.46473E-3	-174.470E-12	641.595E-3	3.81655E-3	-178.889E-12	642.928E-3	1.88851E-3
-4.46973E-3	-173.452E-12	602.976E-3	4.83143E-3	-176.072E-12	640.743E-3	-17.5563E-3
-4.47474E-3	-172.818E-12	595.492E-3	5.83974E-3	-176.684E-12	633.322E-3	-21.2851E-3
-4.47974E-3	-173.633E-12	635.993E-3	1.81561E-3	-175.582E-12	616.411E-3	-25.4533E-3
-4.48474E-3	-173.804E-12	668.007E-3	5.92012E-3	-175.274E-12	613.063E-3	-58.0371E-3
-4.48974E-3	-173.343E-12	650.913E-3	-3.70795E-3	-175.454E-12	631.141E-3	-55.6965E-3
-4.49475E-3	-172.500E-12	641.166E-3	-14.5090E-3	-174.922E-12	611.856E-3	-32.2955E-3
-4.49975E-3	-173.260E-12	642.179E-3	-24.0399E-3	-175.396E-12	593.837E-3	-46.5709E-3
-4.50475E-3	-176.387E-12	634.404E-3	-30.8428E-3	-175.298E-12	629.187E-3	-44.1395E-3
-4.50975E-3	-175.908E-12	634.996E-3	-41.3815E-3	-176.955E-12	664.130E-3	-23.5518E-3
-4.51476E-3	-175.254E-12	629.328E-3	-55.9577E-3	-178.703E-12	645.665E-3	-57.1273E-3
-4.51976E-3	-176.756E-12	609.886E-3	-46.8148E-3	-179.309E-12	611.938E-3	-91.0953E-3
-4.52476E-3	-177.793E-12	606.497E-3	-28.9487E-3	-178.440E-12	605.428E-3	-66.4087E-3
-4.52976E-3	-178.161E-12	647.875E-3	-7.13231E-3	-179.918E-12	620.264E-3	-44.1820E-3
-4.53477E-3	-177.814E-12	657.941E-3	9.49418E-3	-180.781E-12	637.747E-3	-40.2640E-3
-4.53977E-3	-177.614E-12	622.587E-3	5.20796E-3	-181.076E-12	657.043E-3	-15.2545E-3
-4.54477E-3	-178.462E-12	602.113E-3	-1.70882E-3	-181.089E-12	657.442E-3	-10.6637E-3
-4.54977E-3	-179.538E-12	587.893E-3	8.29109E-3	-178.795E-12	613.236E-3	-36.8357E-3
-4.55478E-3	-178.334E-12	593.221E-3	3.09124E-3	-178.014E-12	575.209E-3	-50.0680E-3
-4.55978E-3	-177.856E-12	634.385E-3	-12.6099E-3	-178.336E-12	562.560E-3	-57.9094E-3
-4.56478E-3	-177.788E-12	662.653E-3	3.93147E-3	-180.069E-12	564.086E-3	-42.2770E-3
-4.56978E-3	-180.153E-12	634.773E-3	22.6802E-3	-178.484E-12	576.836E-3	-14.9281E-3
-4.57479E-3	-179.154E-12	617.727E-3	21.8059E-3	-176.259E-12	581.256E-3	-16.1422E-3
-4.57979E-3	-178.646E-12	643.521E-3	21.6624E-3	-176.584E-12	603.436E-3	-22.7374E-3
-4.58479E-3	-179.201E-12	663.543E-3	-1.42449E-3	-178.150E-12	633.982E-3	-37.7675E-3
-4.58979E-3	-182.700E-12	667.197E-3	-15.5291E-3	-178.402E-12	630.718E-3	-48.7527E-3
-4.59480E-3	-184.030E-12	647.384E-3	9.32081E-3	-177.200E-12	630.654E-3	-42.3955E-3
-4.59980E-3	-182.898E-12	623.345E-3	-6.46167E-3	-178.470E-12	661.174E-3	-23.7886E-3
-4.60480E-3	-183.508E-12	645.959E-3	-47.2018E-3	-180.226E-12	679.726E-3	14.9747E-3
-4.60980E-3	-186.014E-12	670.112E-3	-49.3560E-3	-180.181E-12	680.322E-3	34.5498E-3
-4.61481E-3	-186.583E-12	646.074E-3	-22.8075E-3	-179.915E-12	683.314E-3	18.7418E-3
-4.61981E-3	-185.286E-12	610.176E-3	3.83203E-3	-179.851E-12	669.830E-3	-14.7550E-3
-4.62481E-3	-184.169E-12	617.248E-3	9.17906E-3	-180.692E-12	652.348E-3	-45.9314E-3
-4.62981E-3	-184.472E-12	635.443E-3	-5.14456E-3	-181.109E-12	649.214E-3	-59.8748E-3
-4.63482E-3	-184.675E-12	621.305E-3	-36.9931E-3	-180.796E-12	641.571E-3	-39.7061E-3
-4.63982E-3	-182.372E-12	607.451E-3	-69.1344E-3	-180.780E-12	638.863E-3	-8.58747E-3
-4.64482E-3	-181.400E-12	611.591E-3	-68.2639E-3	-181.363E-12	631.491E-3	-28.2430E-3
-4.64982E-3	-181.085E-12	642.331E-3	-39.8786E-3	-181.356E-12	600.773E-3	-53.9932E-3
-4.65483E-3	-182.143E-12	666.839E-3	-20.1634E-3	-181.502E-12	572.201E-3	-33.8975E-3
-4.65983E-3	-182.285E-12	660.702E-3	-41.2430E-3	-182.795E-12	575.390E-3	3.29092E-3
-4.66483E-3	-182.619E-12	640.616E-3	-58.6639E-3	-180.995E-12	614.601E-3	9.38225E-3
-4.66983E-3	-181.279E-12	621.486E-3	-23.5421E-3	-184.232E-12	648.788E-3	-11.8553E-3
-4.67484E-3	-182.530E-12	608.753E-3	15.9592E-3	-184.123E-12	639.776E-3	-7.67219E-3
-4.67984E-3	-185.588E-12	594.491E-3	20.3536E-3	-183.856E-12	633.420E-3	28.2504E-3
-4.68484E-3	-185.506E-12	589.493E-3	27.2731E-3	-183.390E-12	665.192E-3	49.7809E-3
-4.68984E-3	-186.003E-12	609.308E-3	36.5562E-3	-184.405E-12	666.496E-3	49.2939E-3
-4.69485E-3	-186.520E-12	627.650E-3	12.3745E-3	-186.349E-12	628.027E-3	50.1609E-3
-4.69985E-3	-187.887E-12	618.424E-3	-9.92435E-3	-186.485E-12	610.177E-3	23.9674E-3
-4.70485E-3	-187.957E-12	600.019E-3	22.0885E-3	-185.801E-12	600.043E-3	-3.84740E-3
-4.70985E-3	-187.214E-12	607.542E-3	40.4897E-3	-184.527E-12	607.868E-3	13.6861E-3
-4.71486E-3	-187.361E-12	641.620E-3	4.62968E-3	-185.389E-12	618.742E-3	30.4692E-3
-4.71986E-3	-188.250E-12	643.341E-3	-27.4187E-3	-185.783E-12	603.060E-3	14.7186E-3
-4.72486E-3	-187.618E-12	626.831E-3	-50.3632E-3	-185.169E-12	614.788E-3	-27.3717E-3
-4.72986E-3	-187.451E-12	636.914E-3	-64.8430E-3	-183.193E-12	634.200E-3	-71.8070E-3
-4.73487E-3	-186.262E-12	653.855E-3	-49.5312E-3	-185.761E-12	633.906E-3	-56.0429E-3
-4.73987E-3	-185.738E-12	657.578E-3	-10.9567E-3	-186.823E-12	642.434E-3	2.43587E-3
-4.74487E-3	-185.081E-12	629.215E-3	478.359E-6	-186.005E-12	635.589E-3	18.1382E-3
-4.74988E-3	-184.885E-12	606.225E-3	-26.0784E-3	-186.399E-12	617.272E-3	-6.00739E-3
-4.75488E-3	-186.067E-12	617.099E-3	-58.2126E-3	-187.824E-12	626.812E-3	-2.97355E-3
-4.75988E-3	-186.533E-12	639.533E-3	-75.8537E-3	-190.622E-12	656.172E-3	20.4911E-3
-4.76488E-3	-187.231E-12	658.240E-3	-67.9053E-3	-189.922E-12	658.998E-3	15.2130E-3
-4.76988E-3	-187.165E-12	646.766E-3	-31.2831E-3	-189.817E-12	633.330E-3	-1.58542E-3
-4.77489E-3	-187.104E-12	617.800E-3	-1.38551E-3	-190.203E-12	633.063E-3	-14.3057E-3
-4.77989E-3	-188.641E-12	611.781E-3	13.0524E-3	-191.447E-12	650.637E-3	-25.5488E-3
-4.78489E-3	-188.063E-12	611.835E-3	20.9451E-3	-191.938E-12	654.191E-3	-24.5537E-3
-4.78989E-3	-189.522E-12	622.137E-3	-1.98104E-3	-190.727E-12	658.937E-3	-21.7532E-3
-4.79490E-3	-188.045E-12	642.471E-3	-15.6903E-3	-192.406E-12	671.602E-3	-19.9200E-3
-4.79990E-3	-189.774E-12	640.992E-3	-1.52815E-3	-192.892E-12	676.017E-3	-19.1859E-3
-4.80490E-3	-189.593E-12	648.969E-3	8.04937E-3	-192.453E-12	657.916E-3	-43.7704E-3
-4.80990E-3	-190.393E-12	654.101E-3	12.6468E-3	-190.097E-12	619.394E-3	-57.3767E-3
-4.81491E-3	-189.581E-12	628.339E-3	-700.239E-6	-189.857E-12	595.011E-3	-21.9604E-3
-4.81991E-3	-189.736E-12	619.458E-3	-32.2230E-3	-190.081E-12	599.351E-3	-1.07184E-3
-4.82491E-3	-191.507E-12	608.721E-3	-43.5306E-3	-190.286E-12	619.210E-3	-25.7749E-3
-4.82991E-3	-190.840E-12	591.116E-3	-22.3472E-3	-190.337E-12	632.893E-3	-40.0683E-3
-4.83492E-3	-191.594E-12	602.465E-3	19.0829E-3	-191.686E-12	616.289E-3	-18.6426E-3
-4.83992E-3	-190.930E-12	612.976E-3	40.8294E-3	-192.063E-12	575.180E-3	-979.334E-6
-4.84492E-3	-193.791E-12	618.199E-3	24.8360E-3	-193.223E-12	565.199E-3	-1.49336E-3
-4.84992E-3	-193.339E-12	620.969E-3	8.69022E-3	-193.288E-12	602.103E-3	-1.39212E-3
-4.85493E-3	-193.928E-12	610.574E-3	3.07246E-3	-192.403E-12	648.541E-3	-10.2544E-3
-4.85993E-3	-194.581E-12	608.756E-3	-1.73676E-3	-193.376E-12	688.281E-3	-43.9924E-3
-4.86493E-3	-196.034E-12	638.430E-3	-14.8550E-3	-195.074E-12	691.133E-3	-76.0267E-3
-4.86993E-3	-196.935E-12	668.559E-3	-1.84616E-3	-197.360E-12	662.458E-3	-80.9172E-3
-4.87494E-3	-195.284E-12	657.083E-3	40.3979E-3	-194.142E-12	635.045E-3	-59.9786E-3
-4.87994E-3	-196.740E-12	642.600E-3	26.5778E-3	-193.375E-12	621.203E-3	-16.3747E-3
-4.88494E-3	-196.352E-12	643.905E-3	-5.58963E-3	-193.477E-12	621.102E-3	14.0502E-3
-4.88995E-3	-196.764E-12	643.337E-3	8.29317E-3	-196.677E-12	627.895E-3	10.1889E-3
-4.89495E-3	-197.639E-12	644.336E-3	-3.09944E-3	-195.521E-12	624.322E-3	-3.60011E-3
-4.89995E-3	-197.386E-12	650.480E-3	-55.1205E-3	-192.344E-12	605.368E-3	-25.6849E-3
-4.90495E-3	-195.360E-12	640.368E-3	-73.8803E-3	-189.930E-12	595.984E-3	-55.8058E-3
-4.90995E-3	-193.918E-12	615.527E-3	-59.2482E-3	-190.857E-12	584.863E-3	-50.5516E-3
-4.91496E-3	-196.076E-12	623.471E-3	-52.2154E-3	-193.019E-12	571.551E-3	-20.0175E-3
-4.91996E-3	-197.015E-12	642.086E-3	-32.4348E-3	-191.490E-12	591.175E-3	-13.6939E-3
-4.92496E-3	-197.196E-12	632.924E-3	-6.44523E-3	-188.978E-12	617.434E-3	-3.53685E-3
-4.92996E-3	-194.011E-12	626.588E-3	-24.4086E-3	-191.692E-12	627.443E-3	13.5679E-3
-4.93497E-3	-198.489E-12	643.225E-3	-62.2873E-3	-195.612E-12	650.506E-3	14.1114E-3
-4.93997E-3	-200.346E-12	657.074E-3	-40.3532E-3	-196.851E-12	660.846E-3	9.37574E-3
-4.94497E-3	-198.594E-12	655.224E-3	17.0151E-3	-194.241E-12	637.003E-3	2.23060E-3
-4.94997E-3	-195.937E-12	647.041E-3	36.0761E-3	-195.320E-12	628.014E-3	3.95493E-3
-4.95498E-3	-198.137E-12	638.349E-3	10.6102E-3	-198.268E-12	651.807E-3	-10.3990E-3
-4.95998E-3	-199.947E-12	623.841E-3	-16.6478E-3	-199.411E-12	672.335E-3	-42.6756E-3
-4.96498E-3	-199.276E-12	612.665E-3	-37.4071E-3	-197.764E-12	662.720E-3	-24.1756E-3
-4.96998E-3	-195.556E-12	650.103E-3	-43.0546E-3	-196.465E-12	611.023E-3	8.84312E-3
-4.97499E-3	-196.251E-12	686.243E-3	-18.0461E-3	-198.147E-12	582.065E-3	5.08099E-3
-4.97999E-3	-197.365E-12	680.813E-3	-381.070E-6	-199.075E-12	611.549E-3	-7.01159E-3
-4.98499E-3	-196.718E-12	684.899E-3	5.56120E-3	-197.171E-12	623.060E-3	-14.7493E-3
-4.98999E-3	-195.781E-12	680.533E-3	25.7970E-3	-196.184E-12	619.823E-3	4.37570E-3
-4.99500E-3	-197.167E-12	640.361E-3	33.1619E-3	-196.484E-12	624.799E-3	31.4784E-3
-5.00000E-3	-198.549E-12	614.506E-3	15.9819E-3	-199.512E-12	618.103E-3	21.4897E-3
