Experiment	bias spectroscopy	
Date	19.01.2016 22:11:11	
User		
X (m)	49.0162E-9	
Y (m)	257.059E-9	
Z (m)	-132.623E-9	
Z offset (m)	0E+0	
Settling time (s)	200E-6	
Integration time (s)	5E-3	
Z-Ctrl hold	TRUE	
Final Z (m)	N/A	
Filter type	None	
Order		
Cutoff frq		
Comment01	MnPc/Pb(111)	
Comment02	dz =00pm	
Comment03	7 Sweeps	
Comment04	MagField =0.T	
Comment05	Divider 1:10	
Comment06	Setpoint:5mV,200 pA	
Comment07	Lockin: 50uVrms,5ms,5mV	
Comment08	Gain:9; 912Hz modulation	
Comment09	T=1.06K	
Bias>Bias (V)	5E-3	
Bias>Calibration (V/V)	81.475E-3	
Bias>Offset (V)	1.046E-3	
Bias Spectroscopy>Sweep Start (V)	5E-3	
Bias Spectroscopy>Sweep End (V)	-5E-3	
Bias Spectroscopy>Num Pixel	2000	
Bias Spectroscopy>Z Avg time (s)	500E-3	
Bias Spectroscopy>Z offset (m)	0E+0	
Bias Spectroscopy>1st Settling time (s)	500E-3	
Bias Spectroscopy>Settling time (s)	200E-6	
Bias Spectroscopy>Integration time (s)	5E-3	
Bias Spectroscopy>End Settling time (s)	500E-3	
Bias Spectroscopy>Z control time (s)	500E-3	
Bias Spectroscopy>Max Slew rate (V/s)	Inf	
Bias Spectroscopy>backward sweep	TRUE	
Bias Spectroscopy>Z-controller hold	TRUE	
Bias Spectroscopy>Number of sweeps	7	
Bias Spectroscopy>Channels	Current (A);X% LockIn (V);Y% LockIn (V)	
Bias Spectroscopy>Reset Bias	TRUE	
Bias Spectroscopy>Record final Z	FALSE	
Bias Spectroscopy>Lock-In run	FALSE	
Bias Spectroscopy>Sweep mode	Linear	
Bias Spectroscopy>MultiLine Settings : Segment Start (V), Segment End (V), Settling (s), Integration (s), Steps (xn)	100E-3,3.3E-3,100E-6,10E-3,2500;3.3E-3,-3.3E-3,100E-6,10E-3,10;-3.3E-3,-100E-3,100E-6,10E-3,2500	
Current>Current (A)	200.073E-12	
Current>Calibration (A/V)	999.99900E-12	
Current>Offset (A)	-455.429E-15	
Current>Gain	LN 10^9	
Z-Controller>Z (m)	-132.624E-9	
Z-Controller>Controller name	log Current	
Z-Controller>Controller status	ON	
Z-Controller>Setpoint	200E-12	
Z-Controller>Setpoint unit	A	
Z-Controller>P gain	2.96994E-12	
Z-Controller>I gain	67.0321E-9	
Z-Controller>Time const (s)	44.3062E-6	
Z-Controller>TipLift (m)	0E+0	
Z-Controller>Switch off delay (s)	50E-3	
Current (A)	200.679E-12	
Z (m)	-132.624E-9	

[DATA]
Bias calc (V)	Current (A)	X% LockIn (V)	Y% LockIn (V)	Current [bwd] (A)	X% LockIn [bwd] (V)	Y% LockIn [bwd] (V)
5.00000E-3	200.279E-12	664.643E-3	1.59776E-3	200.907E-12	693.942E-3	-27.2636E-3
4.99500E-3	199.352E-12	657.001E-3	3.39297E-3	200.666E-12	663.704E-3	-22.6604E-3
4.98999E-3	198.214E-12	666.754E-3	-22.3474E-3	200.762E-12	651.224E-3	-7.43625E-3
4.98499E-3	197.553E-12	687.197E-3	-42.4668E-3	199.638E-12	660.760E-3	7.90750E-3
4.97999E-3	197.629E-12	673.057E-3	-17.4173E-3	197.784E-12	661.656E-3	13.5067E-3
4.97499E-3	196.514E-12	632.343E-3	8.96089E-3	196.945E-12	656.261E-3	-13.2019E-3
4.96998E-3	195.981E-12	622.202E-3	-1.09408E-3	198.069E-12	661.451E-3	-41.1602E-3
4.96498E-3	196.041E-12	624.589E-3	-26.7354E-3	198.457E-12	648.435E-3	-16.4818E-3
4.95998E-3	196.668E-12	628.553E-3	-55.3234E-3	197.666E-12	628.497E-3	17.9719E-3
4.95498E-3	196.385E-12	648.047E-3	-70.0597E-3	195.415E-12	632.139E-3	28.0777E-3
4.94997E-3	197.173E-12	653.841E-3	-51.2903E-3	195.784E-12	645.910E-3	12.5071E-3
4.94497E-3	197.228E-12	645.983E-3	-24.9844E-3	197.097E-12	657.784E-3	-24.7900E-3
4.93997E-3	197.838E-12	651.714E-3	-22.8259E-3	198.536E-12	661.514E-3	-47.5504E-3
4.93497E-3	197.569E-12	665.167E-3	-26.0170E-3	196.858E-12	642.478E-3	-31.0497E-3
4.92996E-3	198.759E-12	671.877E-3	-14.5032E-3	196.463E-12	612.908E-3	-13.7735E-3
4.92496E-3	198.467E-12	661.514E-3	-2.76182E-3	196.468E-12	630.298E-3	-22.5721E-3
4.91996E-3	198.120E-12	647.672E-3	602.871E-6	197.289E-12	683.955E-3	-26.1298E-3
4.91496E-3	198.193E-12	648.383E-3	-4.82670E-3	198.002E-12	708.991E-3	-36.0431E-3
4.90995E-3	197.843E-12	671.622E-3	-18.4443E-3	195.557E-12	704.776E-3	-47.6597E-3
4.90495E-3	198.831E-12	684.073E-3	-10.5146E-3	196.222E-12	693.209E-3	-21.9261E-3
4.89995E-3	197.445E-12	676.777E-3	-1.85681E-3	195.595E-12	687.851E-3	759.626E-6
4.89495E-3	196.450E-12	680.285E-3	-22.2816E-3	196.847E-12	680.592E-3	4.70435E-3
4.88995E-3	195.077E-12	677.296E-3	-20.2142E-3	195.692E-12	665.867E-3	12.8258E-3
4.88494E-3	195.583E-12	654.215E-3	-3.08009E-3	193.956E-12	672.090E-3	-7.24945E-3
4.87994E-3	195.800E-12	628.843E-3	-5.80602E-3	194.318E-12	684.466E-3	-35.6071E-3
4.87494E-3	195.647E-12	620.079E-3	-21.3651E-3	195.048E-12	676.578E-3	-28.5831E-3
4.86993E-3	194.285E-12	631.249E-3	-11.2288E-3	195.961E-12	678.754E-3	-29.5829E-3
4.86493E-3	194.590E-12	654.304E-3	2.31975E-3	193.014E-12	673.474E-3	-32.8175E-3
4.85993E-3	196.364E-12	668.382E-3	-10.0396E-3	194.065E-12	646.192E-3	-1.93720E-3
4.85493E-3	196.027E-12	683.736E-3	-8.05136E-3	193.129E-12	648.212E-3	15.7041E-3
4.84992E-3	195.829E-12	710.664E-3	-17.4444E-3	195.752E-12	648.562E-3	-7.41587E-3
4.84492E-3	195.139E-12	720.435E-3	-38.9904E-3	194.718E-12	616.860E-3	-22.5488E-3
4.83992E-3	196.558E-12	712.070E-3	-24.8758E-3	194.610E-12	610.493E-3	-6.84133E-3
4.83492E-3	196.289E-12	697.135E-3	-9.42798E-3	194.832E-12	624.141E-3	-20.3342E-3
4.82991E-3	196.183E-12	678.054E-3	-24.4826E-3	195.990E-12	634.295E-3	-43.6911E-3
4.82491E-3	195.946E-12	671.451E-3	-31.9485E-3	197.461E-12	661.249E-3	-30.7862E-3
4.81991E-3	195.866E-12	668.775E-3	-30.1294E-3	195.202E-12	674.567E-3	-19.7421E-3
4.81491E-3	195.350E-12	651.973E-3	-38.0326E-3	196.229E-12	648.687E-3	-6.79575E-3
4.80990E-3	194.880E-12	642.771E-3	-38.7459E-3	195.413E-12	632.270E-3	1.80521E-3
4.80490E-3	193.736E-12	640.550E-3	-10.8664E-3	196.650E-12	643.108E-3	-15.3230E-3
4.79990E-3	192.411E-12	647.907E-3	23.4866E-3	195.268E-12	662.765E-3	-20.2023E-3
4.79490E-3	191.551E-12	670.735E-3	26.5175E-3	194.366E-12	688.771E-3	-10.0886E-3
4.78989E-3	191.009E-12	684.041E-3	11.8733E-3	193.864E-12	700.172E-3	-15.8545E-3
4.78489E-3	190.924E-12	664.940E-3	-14.0900E-3	193.293E-12	676.497E-3	-15.0036E-3
4.77989E-3	189.396E-12	642.439E-3	-41.7599E-3	192.540E-12	652.799E-3	-4.58081E-3
4.77489E-3	187.721E-12	630.355E-3	-37.7375E-3	190.730E-12	661.148E-3	-15.2070E-3
4.76988E-3	187.713E-12	626.889E-3	-20.6632E-3	189.734E-12	670.922E-3	-20.6247E-3
4.76488E-3	188.560E-12	666.687E-3	-35.9309E-3	189.504E-12	665.468E-3	-9.76185E-3
4.75988E-3	187.920E-12	696.052E-3	-40.7711E-3	188.266E-12	656.954E-3	-15.2207E-3
4.75488E-3	187.449E-12	674.921E-3	413.975E-6	188.532E-12	641.186E-3	-21.5837E-3
4.74988E-3	187.596E-12	662.876E-3	14.0987E-3	187.254E-12	649.187E-3	-19.2847E-3
4.74487E-3	188.747E-12	682.383E-3	-328.867E-6	187.001E-12	669.098E-3	-34.3388E-3
4.73987E-3	188.196E-12	682.909E-3	1.79149E-3	187.226E-12	661.762E-3	-52.3789E-3
4.73487E-3	187.949E-12	662.980E-3	274.710E-6	186.881E-12	660.816E-3	-46.3340E-3
4.72986E-3	188.811E-12	656.844E-3	1.18280E-3	186.949E-12	669.198E-3	-28.4681E-3
4.72486E-3	189.142E-12	662.095E-3	4.75393E-3	187.899E-12	652.101E-3	-6.82899E-3
4.71986E-3	188.712E-12	666.641E-3	-8.13178E-3	188.387E-12	630.701E-3	17.9759E-3
4.71486E-3	187.961E-12	660.937E-3	-16.3489E-3	187.944E-12	646.718E-3	18.9169E-3
4.70985E-3	188.188E-12	657.378E-3	-26.0368E-3	187.790E-12	660.096E-3	-12.8740E-3
4.70485E-3	188.093E-12	677.493E-3	-34.8826E-3	188.261E-12	651.507E-3	-28.2210E-3
4.69985E-3	188.259E-12	700.612E-3	-26.1611E-3	188.197E-12	651.043E-3	-23.1561E-3
4.69485E-3	187.590E-12	697.842E-3	-6.58531E-3	187.109E-12	653.668E-3	-24.3863E-3
4.68984E-3	187.106E-12	674.279E-3	-15.0952E-3	186.106E-12	657.179E-3	-415.579E-6
4.68484E-3	185.893E-12	656.092E-3	-40.9695E-3	186.112E-12	656.825E-3	21.7588E-3
4.67984E-3	185.735E-12	671.493E-3	-39.6328E-3	186.162E-12	631.719E-3	10.7096E-3
4.67484E-3	185.413E-12	679.496E-3	-35.9641E-3	185.959E-12	601.203E-3	1.65676E-3
4.66983E-3	185.348E-12	661.297E-3	-28.6814E-3	184.959E-12	606.670E-3	-19.6348E-3
4.66483E-3	183.655E-12	664.706E-3	-8.43069E-3	184.315E-12	628.800E-3	-51.8998E-3
4.65983E-3	183.879E-12	663.262E-3	11.9019E-3	184.804E-12	637.025E-3	-44.6335E-3
4.65483E-3	184.930E-12	651.547E-3	7.81106E-3	184.466E-12	642.636E-3	-659.076E-6
4.64982E-3	185.814E-12	664.055E-3	-18.1276E-3	183.967E-12	641.728E-3	16.1968E-3
4.64482E-3	184.762E-12	674.242E-3	-20.9549E-3	184.085E-12	638.219E-3	8.95127E-3
4.63982E-3	184.402E-12	676.995E-3	-2.29939E-3	185.132E-12	662.283E-3	5.88998E-3
4.63482E-3	186.249E-12	681.394E-3	13.4410E-3	185.510E-12	687.814E-3	-3.40172E-3
4.62981E-3	187.172E-12	662.618E-3	10.0126E-3	186.334E-12	682.182E-3	11.7918E-3
4.62481E-3	186.650E-12	633.314E-3	-13.2007E-3	184.735E-12	679.182E-3	24.9207E-3
4.61981E-3	186.084E-12	626.192E-3	-25.6314E-3	185.305E-12	677.047E-3	-17.1550E-3
4.61481E-3	186.586E-12	640.325E-3	-23.4855E-3	186.264E-12	667.352E-3	-55.6409E-3
4.60980E-3	186.602E-12	652.650E-3	-26.2184E-3	186.411E-12	670.664E-3	-45.1451E-3
4.60480E-3	185.984E-12	656.143E-3	-27.7929E-3	185.026E-12	667.296E-3	-43.4804E-3
4.59980E-3	185.412E-12	669.779E-3	-30.4646E-3	183.705E-12	655.706E-3	-46.7047E-3
4.59480E-3	184.475E-12	692.287E-3	-29.7368E-3	183.553E-12	659.546E-3	-24.4380E-3
4.58979E-3	183.830E-12	695.920E-3	-20.1196E-3	184.051E-12	671.024E-3	-31.4572E-3
4.58479E-3	182.692E-12	680.200E-3	2.05992E-3	183.513E-12	663.345E-3	-60.6081E-3
4.57979E-3	181.681E-12	672.988E-3	19.4106E-3	181.553E-12	656.755E-3	-62.7124E-3
4.57479E-3	180.480E-12	663.041E-3	9.87463E-3	181.298E-12	672.810E-3	-56.6279E-3
4.56978E-3	179.095E-12	646.818E-3	-993.426E-6	181.626E-12	668.725E-3	-48.8591E-3
4.56478E-3	178.440E-12	642.867E-3	-8.33149E-3	181.861E-12	645.983E-3	-29.0695E-3
4.55978E-3	177.492E-12	662.560E-3	-6.41191E-3	180.563E-12	649.169E-3	-12.0895E-3
4.55478E-3	177.041E-12	686.451E-3	-1.68102E-3	179.024E-12	661.600E-3	-10.8779E-3
4.54977E-3	176.800E-12	679.203E-3	-11.1947E-3	179.283E-12	669.861E-3	-12.7874E-3
4.54477E-3	176.415E-12	657.140E-3	-11.0381E-3	179.441E-12	677.870E-3	-18.3155E-3
4.53977E-3	176.315E-12	638.702E-3	1.19103E-3	179.913E-12	671.253E-3	-33.5357E-3
4.53477E-3	176.726E-12	626.871E-3	10.1250E-3	178.123E-12	652.257E-3	-26.3945E-3
4.52976E-3	176.389E-12	629.769E-3	3.66377E-3	178.071E-12	619.880E-3	-19.7797E-3
4.52476E-3	177.441E-12	641.546E-3	-36.4492E-3	178.345E-12	602.768E-3	-34.0499E-3
4.51976E-3	177.102E-12	655.853E-3	-48.6951E-3	179.307E-12	617.378E-3	-28.6857E-3
4.51476E-3	178.211E-12	669.583E-3	-22.1897E-3	178.279E-12	647.936E-3	-11.2943E-3
4.50975E-3	178.166E-12	654.055E-3	-31.0277E-3	177.519E-12	681.411E-3	-9.18071E-3
4.50475E-3	179.520E-12	629.589E-3	-52.2484E-3	178.100E-12	681.134E-3	-7.48459E-3
4.49975E-3	178.483E-12	630.426E-3	-33.3728E-3	178.741E-12	675.165E-3	-15.1660E-3
4.49475E-3	178.512E-12	652.776E-3	2.96120E-3	179.104E-12	683.504E-3	-33.5076E-3
4.48974E-3	177.946E-12	680.165E-3	11.8880E-3	177.181E-12	676.177E-3	-31.9669E-3
4.48474E-3	177.839E-12	687.936E-3	-2.03216E-3	177.197E-12	665.031E-3	-8.81705E-3
4.47974E-3	177.084E-12	677.302E-3	-20.8213E-3	176.961E-12	652.805E-3	1.47334E-3
4.47474E-3	176.173E-12	665.719E-3	-28.4077E-3	178.504E-12	648.637E-3	-13.9550E-3
4.46973E-3	175.104E-12	664.258E-3	-21.4708E-3	177.126E-12	667.958E-3	-15.7579E-3
4.46473E-3	175.040E-12	673.327E-3	-17.0650E-3	176.309E-12	683.493E-3	-16.8152E-3
4.45973E-3	174.883E-12	676.360E-3	-21.4680E-3	176.127E-12	676.719E-3	-35.5945E-3
4.45473E-3	174.776E-12	647.218E-3	-24.7909E-3	176.871E-12	661.593E-3	-32.9503E-3
4.44972E-3	174.741E-12	624.263E-3	-21.4383E-3	176.093E-12	660.011E-3	-24.7620E-3
4.44472E-3	174.991E-12	632.324E-3	-17.8439E-3	175.913E-12	660.773E-3	-34.0007E-3
4.43972E-3	176.062E-12	641.470E-3	-8.71462E-3	175.478E-12	658.372E-3	-37.4991E-3
4.43472E-3	176.120E-12	636.732E-3	-9.14560E-3	175.601E-12	662.284E-3	-34.4623E-3
4.42971E-3	176.510E-12	633.187E-3	-24.7680E-3	175.790E-12	659.171E-3	-25.9879E-3
4.42471E-3	176.719E-12	651.694E-3	-32.2059E-3	175.165E-12	663.416E-3	-9.83234E-3
4.41971E-3	177.766E-12	665.112E-3	-22.8008E-3	175.469E-12	679.839E-3	-25.2444E-3
4.41471E-3	178.049E-12	656.515E-3	-6.52038E-3	175.162E-12	689.417E-3	-62.5837E-3
4.40970E-3	178.754E-12	652.327E-3	-1.16356E-3	176.187E-12	692.334E-3	-63.5468E-3
4.40470E-3	179.221E-12	660.393E-3	-2.03031E-3	175.908E-12	693.203E-3	-41.6079E-3
4.39970E-3	179.198E-12	679.010E-3	-1.64065E-3	176.718E-12	682.760E-3	-20.7788E-3
4.39470E-3	177.820E-12	706.880E-3	-3.54769E-3	175.605E-12	665.676E-3	3.96597E-3
4.38969E-3	177.312E-12	702.176E-3	2.28936E-3	175.649E-12	655.564E-3	9.82057E-3
4.38469E-3	176.987E-12	669.872E-3	1.94068E-3	175.532E-12	641.795E-3	-16.5109E-3
4.37969E-3	176.171E-12	671.343E-3	-3.05027E-3	175.632E-12	647.269E-3	-22.9632E-3
4.37469E-3	174.134E-12	683.887E-3	6.13199E-3	173.958E-12	680.138E-3	-15.7936E-3
4.36968E-3	173.336E-12	676.916E-3	-10.8922E-3	173.751E-12	687.578E-3	-23.6168E-3
4.36468E-3	172.680E-12	673.789E-3	-54.7572E-3	172.908E-12	655.509E-3	-9.56152E-3
4.35968E-3	171.984E-12	680.490E-3	-71.3662E-3	173.576E-12	633.071E-3	8.39445E-3
4.35468E-3	169.890E-12	687.949E-3	-61.7727E-3	172.372E-12	640.829E-3	1.84141E-3
4.34967E-3	169.082E-12	679.944E-3	-43.8089E-3	170.801E-12	644.506E-3	-17.3112E-3
4.34467E-3	168.420E-12	645.480E-3	-20.7314E-3	169.328E-12	645.179E-3	-28.4981E-3
4.33967E-3	167.787E-12	629.440E-3	-18.1583E-3	169.666E-12	655.728E-3	-23.6774E-3
4.33467E-3	167.041E-12	656.702E-3	-31.6077E-3	169.273E-12	656.789E-3	-5.28645E-3
4.32966E-3	167.215E-12	682.378E-3	-42.1225E-3	168.127E-12	662.005E-3	10.0822E-3
4.32466E-3	167.789E-12	677.682E-3	-41.4324E-3	166.902E-12	673.973E-3	-3.10116E-3
4.31966E-3	167.323E-12	670.544E-3	-33.7016E-3	167.741E-12	659.186E-3	-21.7073E-3
4.31466E-3	167.494E-12	659.439E-3	-30.7063E-3	168.517E-12	651.043E-3	-8.25226E-3
4.30965E-3	167.839E-12	651.578E-3	-17.8057E-3	168.250E-12	665.065E-3	11.5595E-3
4.30465E-3	168.068E-12	669.534E-3	-155.187E-6	167.587E-12	665.877E-3	1.77572E-3
4.29965E-3	168.533E-12	679.217E-3	3.37333E-3	168.308E-12	671.734E-3	-17.8940E-3
4.29465E-3	167.648E-12	677.616E-3	-10.6801E-3	168.617E-12	683.123E-3	-16.4966E-3
4.28964E-3	168.520E-12	687.098E-3	-41.2212E-3	168.965E-12	677.558E-3	-2.08040E-3
4.28464E-3	168.261E-12	694.019E-3	-49.8326E-3	168.225E-12	665.589E-3	-834.001E-6
4.27964E-3	167.963E-12	688.876E-3	-19.0364E-3	169.144E-12	660.985E-3	-9.73461E-3
4.27464E-3	167.693E-12	688.878E-3	5.57993E-3	168.196E-12	651.262E-3	-12.8821E-3
4.26963E-3	167.254E-12	682.328E-3	12.8046E-3	168.327E-12	632.684E-3	-19.3574E-3
4.26463E-3	167.905E-12	664.156E-3	7.47352E-3	167.591E-12	619.143E-3	-38.9295E-3
4.25963E-3	167.345E-12	647.530E-3	4.87825E-3	167.363E-12	624.693E-3	-41.9191E-3
4.25463E-3	167.709E-12	639.378E-3	843.872E-6	166.146E-12	652.875E-3	-8.54142E-3
4.24962E-3	167.299E-12	644.910E-3	-28.4679E-3	165.522E-12	672.411E-3	2.25848E-3
4.24462E-3	167.757E-12	665.288E-3	-34.1436E-3	165.737E-12	671.879E-3	-29.8168E-3
4.23962E-3	167.446E-12	685.822E-3	-13.2963E-3	165.243E-12	667.778E-3	-47.1104E-3
4.23462E-3	166.916E-12	679.076E-3	-16.4506E-3	164.467E-12	660.570E-3	-32.7113E-3
4.22961E-3	167.566E-12	657.870E-3	-18.6695E-3	164.248E-12	661.383E-3	-18.2726E-3
4.22461E-3	167.056E-12	650.687E-3	-1.34685E-3	164.584E-12	668.241E-3	-17.9985E-3
4.21961E-3	167.412E-12	650.464E-3	2.83977E-3	165.257E-12	669.748E-3	-15.9951E-3
4.21461E-3	166.932E-12	649.553E-3	1.48247E-3	165.483E-12	670.041E-3	-6.93931E-3
4.20960E-3	167.705E-12	675.142E-3	7.50039E-3	165.122E-12	683.883E-3	13.8154E-3
4.20460E-3	166.766E-12	702.163E-3	604.667E-6	165.719E-12	712.306E-3	24.2658E-3
4.19960E-3	167.047E-12	692.247E-3	-16.2501E-3	166.074E-12	715.601E-3	6.07501E-3
4.19460E-3	166.970E-12	674.395E-3	-34.9225E-3	165.574E-12	701.114E-3	-8.88309E-3
4.18959E-3	166.906E-12	662.502E-3	-34.4673E-3	165.350E-12	690.866E-3	-20.3653E-3
4.18459E-3	167.303E-12	673.989E-3	-9.41979E-3	165.086E-12	658.947E-3	-33.2798E-3
4.17959E-3	166.249E-12	700.103E-3	-6.67805E-3	164.952E-12	635.614E-3	-34.6534E-3
4.17459E-3	166.652E-12	694.289E-3	-15.9127E-3	163.684E-12	649.225E-3	-37.1152E-3
4.16958E-3	165.557E-12	682.216E-3	-12.9276E-3	163.065E-12	655.904E-3	-53.8664E-3
4.16458E-3	165.931E-12	698.112E-3	-26.2204E-3	162.420E-12	657.859E-3	-57.0097E-3
4.15958E-3	165.277E-12	703.058E-3	-38.2766E-3	161.256E-12	659.980E-3	-39.1504E-3
4.15458E-3	164.356E-12	679.809E-3	-40.3037E-3	160.654E-12	647.183E-3	-23.0153E-3
4.14957E-3	163.601E-12	669.840E-3	-43.6778E-3	160.000E-12	639.934E-3	-2.46247E-3
4.14457E-3	164.175E-12	678.289E-3	-31.2796E-3	160.060E-12	642.641E-3	4.10938E-3
4.13957E-3	162.942E-12	665.684E-3	-5.54949E-3	160.326E-12	644.734E-3	-15.9284E-3
4.13457E-3	161.718E-12	654.446E-3	-834.386E-6	160.120E-12	650.675E-3	-25.9700E-3
4.12956E-3	161.125E-12	662.459E-3	-20.0970E-3	159.271E-12	664.687E-3	-18.1033E-3
4.12456E-3	160.372E-12	656.622E-3	-18.2743E-3	159.185E-12	670.419E-3	-15.3754E-3
4.11956E-3	160.280E-12	652.795E-3	-10.2914E-3	159.197E-12	661.101E-3	-13.3938E-3
4.11456E-3	158.745E-12	657.727E-3	-20.2885E-3	158.886E-12	656.208E-3	-25.0376E-3
4.10955E-3	158.400E-12	641.851E-3	-37.6260E-3	158.657E-12	654.850E-3	-36.0805E-3
4.10455E-3	158.278E-12	630.697E-3	-44.9718E-3	158.716E-12	642.779E-3	-17.8511E-3
4.09955E-3	158.490E-12	648.246E-3	-31.3281E-3	159.055E-12	633.249E-3	-10.2514E-3
4.09455E-3	158.711E-12	659.990E-3	-6.36438E-3	158.867E-12	623.957E-3	-19.0443E-3
4.08954E-3	157.465E-12	667.527E-3	10.2841E-3	158.397E-12	620.700E-3	-17.5663E-3
4.08454E-3	157.541E-12	663.585E-3	1.21518E-3	157.930E-12	627.702E-3	-29.1283E-3
4.07954E-3	156.775E-12	652.178E-3	-6.99582E-3	158.825E-12	620.672E-3	-46.3409E-3
4.07454E-3	157.405E-12	659.629E-3	-7.86611E-3	158.946E-12	612.273E-3	-26.7644E-3
4.06953E-3	156.543E-12	668.043E-3	-4.39774E-3	158.474E-12	632.671E-3	-8.58570E-3
4.06453E-3	156.987E-12	661.177E-3	1.70406E-3	158.361E-12	652.529E-3	-26.9268E-3
4.05953E-3	156.934E-12	662.443E-3	-15.0834E-3	158.408E-12	644.848E-3	-39.4654E-3
4.05453E-3	157.999E-12	678.323E-3	-31.8135E-3	159.148E-12	660.535E-3	-23.2350E-3
4.04952E-3	157.663E-12	685.789E-3	-20.3251E-3	159.122E-12	691.970E-3	-14.1510E-3
4.04452E-3	156.975E-12	674.126E-3	-15.4943E-3	158.116E-12	675.719E-3	-24.4762E-3
4.03952E-3	157.518E-12	660.721E-3	-10.7871E-3	157.813E-12	646.080E-3	-13.2923E-3
4.03452E-3	158.574E-12	674.954E-3	7.83243E-3	157.924E-12	646.352E-3	3.88825E-3
4.02951E-3	158.829E-12	684.715E-3	2.99697E-3	158.782E-12	656.865E-3	14.2298E-3
4.02451E-3	157.710E-12	661.209E-3	-11.4546E-3	158.102E-12	661.411E-3	23.7992E-3
4.01951E-3	158.106E-12	653.457E-3	-22.6481E-3	157.563E-12	661.246E-3	-8.66766E-3
4.01451E-3	159.098E-12	665.938E-3	-29.5836E-3	157.473E-12	668.084E-3	-48.0921E-3
4.00950E-3	159.281E-12	659.175E-3	-16.6174E-3	157.709E-12	687.342E-3	-29.2870E-3
4.00450E-3	158.544E-12	663.654E-3	-7.05218E-3	157.152E-12	697.921E-3	-6.10379E-3
3.99950E-3	157.463E-12	688.325E-3	-8.35328E-3	156.841E-12	690.968E-3	-20.5918E-3
3.99450E-3	157.804E-12	704.446E-3	-5.59641E-3	156.084E-12	685.467E-3	-25.7983E-3
3.98949E-3	157.942E-12	702.995E-3	-11.8900E-3	156.937E-12	697.928E-3	-16.6204E-3
3.98449E-3	157.617E-12	680.363E-3	-22.1559E-3	157.337E-12	714.090E-3	-21.0871E-3
3.97949E-3	156.781E-12	665.278E-3	-39.3493E-3	156.999E-12	706.748E-3	-24.5229E-3
3.97449E-3	155.540E-12	674.146E-3	-59.0172E-3	156.861E-12	693.501E-3	-20.9500E-3
3.96948E-3	155.016E-12	678.631E-3	-60.7706E-3	156.169E-12	683.657E-3	-31.8424E-3
3.96448E-3	154.875E-12	672.591E-3	-43.1609E-3	156.079E-12	679.475E-3	-26.1891E-3
3.95948E-3	154.669E-12	680.421E-3	-11.1302E-3	155.970E-12	694.690E-3	-15.1003E-3
3.95448E-3	153.685E-12	686.640E-3	-7.61019E-3	155.678E-12	689.014E-3	-31.6752E-3
3.94947E-3	152.302E-12	678.273E-3	-41.8524E-3	154.539E-12	655.275E-3	-41.0453E-3
3.94447E-3	152.380E-12	667.402E-3	-56.5776E-3	153.909E-12	640.729E-3	-30.0663E-3
3.93947E-3	152.001E-12	658.093E-3	-37.7174E-3	154.415E-12	654.453E-3	-26.6251E-3
3.93447E-3	151.154E-12	651.983E-3	-16.5929E-3	154.065E-12	663.678E-3	-27.2122E-3
3.92946E-3	150.298E-12	655.345E-3	-12.4814E-3	152.983E-12	666.738E-3	-9.28673E-3
3.92446E-3	150.866E-12	659.449E-3	-17.8362E-3	151.187E-12	671.472E-3	-2.32726E-3
3.91946E-3	151.508E-12	657.113E-3	-18.8001E-3	151.177E-12	664.394E-3	-21.1814E-3
3.91446E-3	151.027E-12	660.960E-3	-5.79987E-3	151.605E-12	660.716E-3	-25.7678E-3
3.90945E-3	150.866E-12	667.409E-3	15.5693E-3	150.294E-12	666.579E-3	-22.1768E-3
3.90445E-3	150.891E-12	666.791E-3	2.99549E-3	148.212E-12	666.530E-3	-34.9790E-3
3.89945E-3	151.506E-12	662.850E-3	-30.9168E-3	148.029E-12	659.446E-3	-44.0708E-3
3.89445E-3	150.917E-12	678.146E-3	-25.7061E-3	148.689E-12	650.052E-3	-47.2070E-3
3.88944E-3	151.095E-12	703.981E-3	-15.0444E-3	148.633E-12	648.498E-3	-42.9795E-3
3.88444E-3	151.369E-12	698.642E-3	-29.2745E-3	148.375E-12	668.550E-3	-39.4548E-3
3.87944E-3	150.743E-12	673.309E-3	-31.1468E-3	147.991E-12	687.143E-3	-44.0732E-3
3.87444E-3	150.506E-12	664.533E-3	-24.5335E-3	148.874E-12	667.660E-3	-34.5258E-3
3.86943E-3	150.106E-12	663.963E-3	-31.5459E-3	149.300E-12	652.465E-3	-12.3627E-3
3.86443E-3	149.835E-12	650.408E-3	-25.7944E-3	149.389E-12	669.174E-3	-11.7389E-3
3.85943E-3	148.842E-12	652.084E-3	7.71058E-3	148.597E-12	680.178E-3	-27.8191E-3
3.85443E-3	150.099E-12	671.793E-3	15.1215E-3	148.877E-12	679.538E-3	-15.8996E-3
3.84942E-3	149.747E-12	685.952E-3	-4.87892E-3	148.728E-12	677.058E-3	-1.61656E-3
3.84442E-3	149.322E-12	679.188E-3	-2.64207E-3	149.256E-12	670.430E-3	-12.2055E-3
3.83942E-3	148.790E-12	665.287E-3	4.81561E-3	148.205E-12	662.367E-3	-14.9455E-3
3.83442E-3	149.275E-12	664.072E-3	-4.80263E-3	148.772E-12	671.469E-3	-9.54999E-3
3.82941E-3	150.451E-12	654.910E-3	-17.0451E-3	147.906E-12	678.565E-3	-17.6161E-3
3.82441E-3	150.270E-12	653.106E-3	-22.5261E-3	147.754E-12	655.634E-3	-22.8169E-3
3.81941E-3	150.381E-12	666.964E-3	-8.30492E-3	147.476E-12	633.285E-3	-14.1775E-3
3.81441E-3	150.353E-12	680.352E-3	9.29143E-3	146.881E-12	639.571E-3	-15.0662E-3
3.80940E-3	150.871E-12	695.359E-3	12.6583E-3	146.588E-12	665.806E-3	-23.5541E-3
3.80440E-3	150.674E-12	699.814E-3	6.75627E-3	147.001E-12	691.072E-3	-20.3279E-3
3.79940E-3	149.897E-12	681.333E-3	-11.6175E-3	147.076E-12	685.133E-3	-9.77835E-3
3.79440E-3	150.046E-12	678.526E-3	-22.6446E-3	146.419E-12	664.854E-3	3.55756E-3
3.78939E-3	149.516E-12	693.181E-3	-9.96876E-3	146.842E-12	668.619E-3	1.21933E-3
3.78439E-3	149.763E-12	680.994E-3	8.12316E-3	147.655E-12	683.619E-3	-24.0283E-3
3.77939E-3	148.713E-12	670.530E-3	-1.85282E-3	147.831E-12	697.469E-3	-17.6038E-3
3.77439E-3	147.939E-12	677.644E-3	-19.2011E-3	147.077E-12	710.500E-3	7.56880E-3
3.76938E-3	147.555E-12	680.042E-3	2.69085E-3	147.843E-12	714.151E-3	-14.4289E-3
3.76438E-3	146.429E-12	671.182E-3	20.5508E-3	148.078E-12	711.251E-3	-43.3559E-3
3.75938E-3	146.639E-12	659.903E-3	-16.1503E-3	147.967E-12	720.061E-3	-31.6393E-3
3.75438E-3	145.278E-12	665.177E-3	-53.0026E-3	147.129E-12	726.443E-3	-23.7534E-3
3.74937E-3	144.896E-12	673.680E-3	-45.1381E-3	147.107E-12	702.716E-3	-32.9737E-3
3.74437E-3	144.453E-12	680.681E-3	-25.2224E-3	146.536E-12	682.866E-3	-26.3710E-3
3.73937E-3	144.825E-12	685.427E-3	-17.7976E-3	145.380E-12	676.083E-3	-25.5120E-3
3.73437E-3	143.338E-12	660.464E-3	-23.6920E-3	144.528E-12	647.564E-3	-25.2135E-3
3.72936E-3	143.516E-12	648.479E-3	-40.7542E-3	144.007E-12	636.890E-3	-240.827E-6
3.72436E-3	143.155E-12	655.511E-3	-47.1464E-3	143.253E-12	660.019E-3	8.58095E-3
3.71936E-3	143.031E-12	638.951E-3	-32.7421E-3	142.140E-12	669.233E-3	-21.6805E-3
3.71436E-3	142.765E-12	634.610E-3	-18.6867E-3	141.856E-12	663.787E-3	-40.0934E-3
3.70935E-3	142.109E-12	656.241E-3	-5.94304E-3	141.362E-12	667.984E-3	-23.7431E-3
3.70435E-3	142.841E-12	665.739E-3	10.7692E-3	141.219E-12	672.942E-3	-10.3715E-3
3.69935E-3	141.478E-12	661.881E-3	6.16526E-3	141.273E-12	664.119E-3	-10.4620E-3
3.69435E-3	141.753E-12	666.096E-3	-20.5344E-3	141.112E-12	669.570E-3	-11.9552E-3
3.68934E-3	140.977E-12	669.813E-3	-30.2377E-3	141.551E-12	668.039E-3	-16.5402E-3
3.68434E-3	141.449E-12	665.362E-3	-12.1417E-3	141.278E-12	652.969E-3	-22.4140E-3
3.67934E-3	139.784E-12	659.107E-3	8.95191E-3	141.493E-12	660.332E-3	-24.1612E-3
3.67434E-3	139.391E-12	658.686E-3	11.4559E-3	141.372E-12	662.104E-3	-30.8559E-3
3.66933E-3	139.531E-12	656.487E-3	-4.97927E-3	141.905E-12	655.790E-3	-33.2073E-3
3.66433E-3	139.785E-12	659.988E-3	-2.72123E-3	141.694E-12	663.667E-3	-31.0388E-3
3.65933E-3	138.972E-12	675.968E-3	12.3062E-3	141.144E-12	674.336E-3	-35.2718E-3
3.65433E-3	138.173E-12	687.308E-3	-1.81176E-3	140.740E-12	683.365E-3	-27.8928E-3
3.64932E-3	138.591E-12	693.877E-3	-15.3578E-3	140.480E-12	688.137E-3	-8.64682E-3
3.64432E-3	138.783E-12	695.644E-3	1.40728E-3	140.497E-12	675.421E-3	-5.19725E-3
3.63932E-3	138.822E-12	691.314E-3	2.14186E-3	139.317E-12	657.631E-3	-22.6514E-3
3.63432E-3	138.256E-12	690.010E-3	-6.41901E-3	138.778E-12	654.354E-3	-40.2284E-3
3.62931E-3	138.737E-12	698.053E-3	9.39333E-3	138.530E-12	660.645E-3	-44.8028E-3
3.62431E-3	139.806E-12	713.501E-3	12.9161E-3	138.408E-12	663.783E-3	-30.9336E-3
3.61931E-3	140.139E-12	719.295E-3	-5.51706E-3	138.470E-12	668.079E-3	-15.4296E-3
3.61431E-3	140.959E-12	697.765E-3	-20.9396E-3	137.437E-12	674.698E-3	-15.7411E-3
3.60930E-3	140.064E-12	678.633E-3	-31.4923E-3	137.169E-12	683.259E-3	-23.4592E-3
3.60430E-3	140.636E-12	696.093E-3	-30.3822E-3	137.399E-12	686.992E-3	-17.7204E-3
3.59930E-3	140.957E-12	705.000E-3	-7.32116E-3	137.619E-12	676.979E-3	-6.06934E-3
3.59430E-3	142.428E-12	683.051E-3	6.17822E-3	137.444E-12	665.802E-3	-15.3995E-3
3.58929E-3	140.787E-12	676.667E-3	-1.31021E-3	137.414E-12	657.949E-3	-31.4491E-3
3.58429E-3	140.218E-12	677.501E-3	-12.2761E-3	137.388E-12	655.093E-3	-28.6574E-3
3.57929E-3	139.826E-12	661.804E-3	-18.7430E-3	137.009E-12	665.760E-3	-14.1612E-3
3.57429E-3	140.185E-12	663.013E-3	-8.93279E-3	136.816E-12	683.106E-3	-8.92943E-3
3.56928E-3	140.156E-12	681.936E-3	7.11489E-3	137.174E-12	678.797E-3	-23.7288E-3
3.56428E-3	138.101E-12	680.995E-3	25.5216E-6	136.860E-12	660.908E-3	-35.5063E-3
3.55928E-3	138.578E-12	674.229E-3	-30.0705E-3	136.253E-12	661.377E-3	-22.6443E-3
3.55428E-3	137.771E-12	682.014E-3	-43.3277E-3	135.570E-12	664.580E-3	-10.6772E-3
3.54927E-3	138.379E-12	688.886E-3	-33.8998E-3	136.172E-12	657.357E-3	-18.6061E-3
3.54427E-3	136.458E-12	695.441E-3	-24.4401E-3	135.522E-12	666.036E-3	-18.4229E-3
3.53927E-3	135.806E-12	700.824E-3	-11.7850E-3	135.243E-12	681.067E-3	-10.4509E-3
3.53427E-3	135.014E-12	678.343E-3	7.22946E-3	134.742E-12	681.670E-3	-20.1644E-3
3.52926E-3	134.564E-12	658.594E-3	8.01609E-3	134.874E-12	673.834E-3	-33.0026E-3
3.52426E-3	134.246E-12	670.542E-3	-9.87598E-3	134.796E-12	674.188E-3	-26.7403E-3
3.51926E-3	133.576E-12	665.954E-3	-25.7379E-3	133.879E-12	690.841E-3	-16.8684E-3
3.51426E-3	133.109E-12	638.700E-3	-37.8341E-3	134.053E-12	685.667E-3	-11.8441E-3
3.50925E-3	131.821E-12	641.630E-3	-35.6650E-3	133.784E-12	665.509E-3	-1.74485E-3
3.50425E-3	131.952E-12	662.659E-3	-18.2143E-3	133.624E-12	669.936E-3	-4.26001E-3
3.49925E-3	131.671E-12	664.947E-3	-19.7706E-3	132.945E-12	655.312E-3	2.86321E-3
3.49425E-3	131.536E-12	663.266E-3	-31.6766E-3	132.854E-12	624.847E-3	32.9918E-3
3.48924E-3	130.871E-12	654.815E-3	-17.5290E-3	132.155E-12	629.677E-3	29.5286E-3
3.48424E-3	130.803E-12	630.871E-3	-1.11226E-3	131.539E-12	640.113E-3	-3.00739E-3
3.47924E-3	131.607E-12	640.683E-3	-10.1293E-3	131.200E-12	646.048E-3	-15.9399E-3
3.47424E-3	130.748E-12	675.320E-3	-37.3297E-3	130.938E-12	670.354E-3	-15.4096E-3
3.46923E-3	131.500E-12	677.614E-3	-53.4452E-3	130.341E-12	691.108E-3	-15.8499E-3
3.46423E-3	130.909E-12	670.996E-3	-49.5588E-3	129.388E-12	689.565E-3	-11.6589E-3
3.45923E-3	131.054E-12	665.123E-3	-31.8551E-3	129.508E-12	683.496E-3	-20.6154E-3
3.45423E-3	130.487E-12	650.322E-3	-1.66140E-3	129.554E-12	678.997E-3	-45.9506E-3
3.44922E-3	130.643E-12	652.791E-3	19.3415E-3	129.611E-12	676.053E-3	-37.3448E-3
3.44422E-3	130.303E-12	682.703E-3	13.1872E-3	129.493E-12	670.437E-3	-3.85958E-3
3.43922E-3	129.786E-12	698.251E-3	-3.44454E-3	129.969E-12	653.965E-3	7.38929E-3
3.43422E-3	129.353E-12	701.513E-3	-9.02524E-3	130.326E-12	654.895E-3	-7.32483E-3
3.42921E-3	128.650E-12	715.624E-3	-7.72228E-3	130.053E-12	679.662E-3	-21.9912E-3
3.42421E-3	128.374E-12	711.034E-3	-11.7624E-3	130.161E-12	688.518E-3	-20.5425E-3
3.41921E-3	128.405E-12	678.225E-3	-29.8835E-3	130.043E-12	681.091E-3	-19.1036E-3
3.41421E-3	128.324E-12	655.645E-3	-45.8350E-3	130.709E-12	676.175E-3	-19.8247E-3
3.40920E-3	127.525E-12	661.720E-3	-45.4821E-3	129.695E-12	674.444E-3	-22.6659E-3
3.40420E-3	127.499E-12	677.566E-3	-27.4758E-3	129.475E-12	691.164E-3	-25.2573E-3
3.39920E-3	127.901E-12	699.151E-3	-10.7358E-3	128.539E-12	706.826E-3	-17.0432E-3
3.39420E-3	128.545E-12	705.599E-3	-8.65553E-3	129.109E-12	694.831E-3	-10.7154E-3
3.38919E-3	128.480E-12	694.205E-3	-3.04110E-3	128.434E-12	681.625E-3	-3.60191E-3
3.38419E-3	128.492E-12	691.261E-3	4.92304E-3	128.208E-12	695.791E-3	-1.21901E-3
3.37919E-3	129.295E-12	695.182E-3	6.20360E-3	127.633E-12	701.097E-3	-22.5429E-3
3.37419E-3	130.155E-12	692.918E-3	-2.44552E-3	127.360E-12	675.657E-3	-29.0497E-3
3.36918E-3	129.807E-12	679.178E-3	-13.7730E-3	127.892E-12	666.051E-3	-2.49989E-3
3.36418E-3	129.440E-12	673.628E-3	-19.5267E-3	127.875E-12	660.014E-3	9.15078E-3
3.35918E-3	129.124E-12	678.648E-3	-19.2565E-3	128.057E-12	640.163E-3	-3.34853E-3
3.35418E-3	128.698E-12	689.780E-3	-4.10523E-3	127.396E-12	652.127E-3	-15.3881E-3
3.34917E-3	128.620E-12	709.358E-3	11.6227E-3	128.255E-12	686.719E-3	-6.19528E-3
3.34417E-3	127.410E-12	712.913E-3	-1.22621E-3	128.248E-12	688.236E-3	7.76801E-3
3.33917E-3	126.945E-12	691.880E-3	-15.9452E-3	128.212E-12	664.834E-3	-5.27051E-3
3.33417E-3	126.367E-12	680.958E-3	-15.1598E-3	127.864E-12	655.701E-3	-32.9913E-3
3.32916E-3	126.218E-12	689.760E-3	-28.2139E-3	127.515E-12	649.862E-3	-45.3270E-3
3.32416E-3	125.184E-12	700.173E-3	-39.3569E-3	127.256E-12	643.338E-3	-38.4040E-3
3.31916E-3	124.233E-12	692.114E-3	-26.0224E-3	126.197E-12	658.115E-3	-36.6835E-3
3.31416E-3	123.880E-12	674.701E-3	-25.2561E-3	125.691E-12	664.969E-3	-32.4974E-3
3.30915E-3	124.711E-12	672.923E-3	-30.3655E-3	124.197E-12	639.718E-3	-11.0333E-3
3.30415E-3	123.656E-12	675.456E-3	-12.9045E-3	123.462E-12	633.568E-3	8.55209E-3
3.29915E-3	122.798E-12	666.042E-3	-5.53458E-3	122.937E-12	663.553E-3	-6.30588E-3
3.29415E-3	122.970E-12	654.079E-3	-10.9825E-3	122.497E-12	684.090E-3	-26.9309E-3
3.28914E-3	123.549E-12	656.015E-3	-15.4001E-3	121.560E-12	671.408E-3	-17.4286E-3
3.28414E-3	123.309E-12	667.739E-3	-22.7402E-3	120.949E-12	645.104E-3	-7.84805E-3
3.27914E-3	122.635E-12	687.049E-3	-25.7215E-3	121.184E-12	641.867E-3	-8.73067E-3
3.27414E-3	122.308E-12	705.015E-3	-19.2401E-3	120.752E-12	654.147E-3	-17.0664E-3
3.26913E-3	122.655E-12	699.989E-3	-24.6052E-3	120.899E-12	668.242E-3	-29.3074E-3
3.26413E-3	122.874E-12	681.412E-3	-44.2541E-3	120.837E-12	685.179E-3	-30.7027E-3
3.25913E-3	121.921E-12	671.608E-3	-44.4757E-3	121.266E-12	680.890E-3	-23.1878E-3
3.25413E-3	121.292E-12	663.723E-3	-38.0850E-3	121.290E-12	676.956E-3	-19.8375E-3
3.24912E-3	121.185E-12	670.460E-3	-44.1674E-3	120.951E-12	694.604E-3	-7.58887E-3
3.24412E-3	121.897E-12	696.965E-3	-35.1419E-3	121.055E-12	711.515E-3	1.51671E-3
3.23912E-3	121.404E-12	704.219E-3	-21.2040E-3	121.365E-12	709.985E-3	-9.63259E-3
3.23412E-3	120.868E-12	688.079E-3	-34.0142E-3	121.250E-12	689.458E-3	-11.8002E-3
3.22911E-3	120.496E-12	670.540E-3	-32.8707E-3	120.727E-12	679.863E-3	-5.37609E-3
3.22411E-3	120.810E-12	664.572E-3	-17.2432E-3	120.939E-12	682.889E-3	-11.1001E-3
3.21911E-3	120.906E-12	670.666E-3	-32.1227E-3	120.833E-12	686.339E-3	-4.32831E-3
3.21411E-3	120.794E-12	668.845E-3	-36.9015E-3	120.443E-12	685.664E-3	10.5645E-3
3.20910E-3	120.354E-12	663.707E-3	-10.6194E-3	119.398E-12	682.126E-3	-6.77557E-3
3.20410E-3	120.577E-12	682.750E-3	-11.0984E-3	119.202E-12	694.522E-3	-15.4065E-3
3.19910E-3	120.826E-12	706.971E-3	-29.0603E-3	119.332E-12	701.671E-3	39.9342E-6
3.19410E-3	120.088E-12	704.438E-3	-25.5030E-3	119.132E-12	691.623E-3	116.734E-6
3.18909E-3	119.922E-12	687.072E-3	-26.1048E-3	119.303E-12	683.097E-3	-3.48487E-3
3.18409E-3	119.838E-12	682.456E-3	-27.3365E-3	118.612E-12	684.245E-3	-13.7676E-3
3.17909E-3	119.869E-12	688.662E-3	-10.4841E-3	118.726E-12	692.190E-3	-37.3452E-3
3.17409E-3	120.196E-12	686.819E-3	-12.2106E-3	118.507E-12	703.323E-3	-29.0663E-3
3.16908E-3	119.854E-12	684.433E-3	-23.9733E-3	118.700E-12	712.643E-3	4.24083E-3
3.16408E-3	119.915E-12	689.127E-3	-19.6051E-3	118.589E-12	694.908E-3	3.62107E-3
3.15908E-3	119.623E-12	690.240E-3	-24.4947E-3	118.154E-12	666.610E-3	-19.3414E-3
3.15408E-3	119.669E-12	700.935E-3	-35.0412E-3	118.130E-12	685.567E-3	-29.4738E-3
3.14907E-3	118.579E-12	714.794E-3	-34.3925E-3	118.481E-12	736.602E-3	-35.4271E-3
3.14407E-3	118.548E-12	707.049E-3	-46.4332E-3	118.712E-12	737.268E-3	-29.8131E-3
3.13907E-3	118.820E-12	699.709E-3	-68.4140E-3	118.332E-12	699.440E-3	-5.68191E-3
3.13407E-3	118.821E-12	686.645E-3	-56.4819E-3	118.030E-12	679.914E-3	2.29183E-3
3.12906E-3	118.538E-12	662.657E-3	-20.5848E-3	118.518E-12	663.702E-3	-5.09182E-3
3.12406E-3	117.833E-12	663.830E-3	326.826E-6	118.533E-12	659.311E-3	-2.71019E-3
3.11906E-3	117.490E-12	682.388E-3	5.09516E-3	117.924E-12	679.660E-3	-18.5192E-3
3.11406E-3	117.420E-12	682.314E-3	-5.74022E-3	117.097E-12	678.523E-3	-38.8163E-3
3.10905E-3	116.709E-12	665.622E-3	-22.5864E-3	116.893E-12	653.500E-3	-26.2025E-3
3.10405E-3	115.424E-12	654.032E-3	-22.2762E-3	116.361E-12	660.676E-3	-23.1576E-3
3.09905E-3	114.971E-12	659.242E-3	-18.0027E-3	116.044E-12	683.222E-3	-33.0736E-3
3.09405E-3	114.400E-12	685.876E-3	-16.1533E-3	115.681E-12	682.152E-3	-16.9814E-3
3.08904E-3	113.703E-12	701.890E-3	-2.52518E-3	115.898E-12	682.806E-3	72.1958E-6
3.08404E-3	112.600E-12	688.563E-3	4.80940E-3	115.109E-12	686.935E-3	-12.0818E-3
3.07904E-3	112.451E-12	683.715E-3	-2.55078E-3	113.842E-12	675.859E-3	-28.5629E-3
3.07404E-3	112.002E-12	691.820E-3	-2.19699E-3	113.513E-12	669.693E-3	-18.7749E-3
3.06903E-3	112.039E-12	681.171E-3	3.56533E-3	112.993E-12	673.377E-3	-6.23673E-3
3.06403E-3	111.595E-12	665.330E-3	-6.52423E-3	112.525E-12	658.727E-3	-11.3464E-3
3.05903E-3	111.334E-12	665.619E-3	-23.1773E-3	111.907E-12	651.838E-3	-13.2781E-3
3.05403E-3	111.734E-12	665.648E-3	-18.5778E-3	112.143E-12	666.585E-3	-5.47456E-3
3.04902E-3	111.346E-12	665.062E-3	-5.95323E-3	111.731E-12	677.049E-3	-6.97838E-3
3.04402E-3	111.771E-12	677.888E-3	833.566E-6	111.364E-12	685.145E-3	-12.0784E-3
3.03902E-3	111.011E-12	683.752E-3	4.20687E-3	111.484E-12	687.782E-3	-9.16375E-3
3.03402E-3	111.791E-12	680.488E-3	-8.12685E-3	111.482E-12	690.274E-3	-9.69607E-3
3.02901E-3	111.648E-12	693.721E-3	-16.0717E-3	111.222E-12	700.969E-3	-19.5818E-3
3.02401E-3	111.711E-12	697.205E-3	-5.08169E-3	111.404E-12	708.569E-3	-33.5410E-3
3.01901E-3	111.218E-12	676.633E-3	-16.3247E-3	111.754E-12	702.246E-3	-26.6588E-3
3.01401E-3	110.955E-12	672.322E-3	-50.0777E-3	111.114E-12	684.926E-3	1.80477E-3
3.00900E-3	110.990E-12	688.374E-3	-54.7495E-3	111.491E-12	676.823E-3	15.6897E-3
3.00400E-3	110.368E-12	707.801E-3	-35.3865E-3	110.894E-12	674.554E-3	4.13960E-3
2.99900E-3	110.100E-12	719.695E-3	-22.2808E-3	110.809E-12	686.856E-3	-10.7252E-3
2.99400E-3	109.508E-12	707.948E-3	-16.2282E-3	110.371E-12	717.840E-3	-15.3301E-3
2.98899E-3	110.170E-12	696.508E-3	-20.1448E-3	110.583E-12	714.634E-3	-6.63375E-3
2.98399E-3	109.411E-12	699.189E-3	-32.9870E-3	109.967E-12	691.263E-3	10.7924E-3
2.97899E-3	109.633E-12	681.377E-3	-19.0765E-3	109.915E-12	685.513E-3	12.1587E-3
2.97399E-3	109.354E-12	657.071E-3	8.09814E-3	109.780E-12	678.700E-3	-4.42912E-3
2.96898E-3	109.376E-12	671.395E-3	913.531E-6	108.551E-12	674.719E-3	-10.7069E-3
2.96398E-3	109.764E-12	696.968E-3	-6.31431E-3	108.835E-12	678.177E-3	-5.13181E-3
2.95898E-3	109.679E-12	690.341E-3	1.59212E-3	108.136E-12	681.134E-3	-16.8604E-3
2.95398E-3	109.306E-12	676.920E-3	-7.67142E-3	107.854E-12	679.728E-3	-31.7112E-3
2.94897E-3	108.537E-12	678.275E-3	-21.9883E-3	107.643E-12	675.300E-3	-18.9811E-3
2.94397E-3	108.490E-12	687.949E-3	-19.4368E-3	107.808E-12	675.577E-3	-9.87488E-3
2.93897E-3	108.494E-12	699.646E-3	-11.7884E-3	107.838E-12	677.380E-3	-12.0006E-3
2.93397E-3	108.010E-12	697.977E-3	-9.13958E-3	107.479E-12	683.476E-3	-6.29150E-3
2.92896E-3	107.624E-12	678.974E-3	-4.99591E-3	107.842E-12	689.509E-3	-11.3734E-3
2.92396E-3	106.886E-12	668.231E-3	-10.1912E-3	107.421E-12	686.450E-3	-18.0612E-3
2.91896E-3	107.036E-12	687.392E-3	-27.4191E-3	107.593E-12	679.583E-3	-18.7157E-3
2.91396E-3	106.364E-12	712.767E-3	-20.9052E-3	107.314E-12	680.088E-3	-24.7658E-3
2.90895E-3	106.277E-12	718.430E-3	-388.201E-6	107.416E-12	683.785E-3	-15.0515E-3
2.90395E-3	105.514E-12	707.558E-3	2.22389E-3	107.351E-12	683.692E-3	-7.57071E-3
2.89895E-3	105.705E-12	694.346E-3	-2.57920E-3	106.991E-12	688.835E-3	-28.6770E-3
2.89395E-3	105.503E-12	687.951E-3	-11.4994E-3	106.345E-12	696.861E-3	-36.8994E-3
2.88894E-3	104.894E-12	694.219E-3	-15.1789E-3	105.600E-12	711.091E-3	-24.8334E-3
2.88394E-3	104.548E-12	710.405E-3	-12.8043E-3	105.743E-12	713.577E-3	-20.5039E-3
2.87894E-3	104.578E-12	699.248E-3	-13.0134E-3	105.608E-12	688.735E-3	-23.0146E-3
2.87394E-3	104.181E-12	672.233E-3	-14.2987E-3	104.694E-12	682.862E-3	-25.3808E-3
2.86893E-3	104.057E-12	672.817E-3	-4.95631E-3	103.710E-12	696.105E-3	-28.5933E-3
2.86393E-3	103.958E-12	689.328E-3	14.7730E-3	103.085E-12	691.136E-3	-23.8371E-3
2.85893E-3	103.830E-12	700.398E-3	21.7642E-3	102.901E-12	678.463E-3	-5.73904E-3
2.85393E-3	103.657E-12	688.540E-3	9.44204E-3	102.556E-12	666.790E-3	-8.14511E-3
2.84892E-3	103.388E-12	674.724E-3	7.23887E-3	101.951E-12	662.951E-3	-25.0162E-3
2.84392E-3	102.905E-12	684.502E-3	22.3211E-3	101.563E-12	680.660E-3	-23.4743E-3
2.83892E-3	102.570E-12	680.193E-3	8.47193E-3	101.788E-12	698.468E-3	-18.1681E-3
2.83392E-3	102.378E-12	663.065E-3	-28.9537E-3	101.667E-12	698.987E-3	-26.4314E-3
2.82891E-3	102.091E-12	667.155E-3	-49.4450E-3	101.422E-12	695.602E-3	-29.6117E-3
2.82391E-3	101.437E-12	673.708E-3	-42.5070E-3	101.221E-12	693.045E-3	-26.2007E-3
2.81891E-3	101.239E-12	675.133E-3	-29.4533E-3	101.652E-12	689.058E-3	-25.8948E-3
2.81391E-3	100.960E-12	683.680E-3	-13.6446E-3	102.352E-12	694.433E-3	-11.2454E-3
2.80890E-3	100.969E-12	678.254E-3	-3.60113E-3	101.984E-12	709.986E-3	850.507E-6
2.80390E-3	100.738E-12	651.381E-3	-23.5384E-3	102.124E-12	712.930E-3	-5.58069E-3
2.79890E-3	100.598E-12	654.872E-3	-36.5853E-3	102.085E-12	703.623E-3	-11.8539E-3
2.79390E-3	100.454E-12	687.551E-3	-10.1817E-3	102.067E-12	711.080E-3	-18.9137E-3
2.78889E-3	100.855E-12	691.900E-3	4.50822E-3	101.833E-12	724.501E-3	-24.4527E-3
2.78389E-3	100.535E-12	683.903E-3	-12.1323E-3	101.252E-12	722.587E-3	-9.36009E-3
2.77889E-3	100.229E-12	692.324E-3	-12.3068E-3	101.089E-12	713.381E-3	837.228E-6
2.77389E-3	100.724E-12	688.186E-3	-8.70936E-3	100.564E-12	693.119E-3	-23.4011E-3
2.76888E-3	100.917E-12	679.523E-3	-26.9948E-3	99.8717E-12	683.386E-3	-50.1619E-3
2.76388E-3	100.964E-12	692.068E-3	-31.4195E-3	99.3927E-12	704.185E-3	-49.0112E-3
2.75888E-3	100.475E-12	704.325E-3	-9.63076E-3	98.8538E-12	710.712E-3	-41.3409E-3
2.75388E-3	100.427E-12	703.978E-3	-9.09428E-3	98.5182E-12	690.130E-3	-28.6513E-3
2.74887E-3	100.427E-12	704.481E-3	-16.9559E-3	98.3209E-12	675.228E-3	-15.8055E-3
2.74387E-3	100.306E-12	708.039E-3	-10.9014E-3	98.1708E-12	679.026E-3	-18.8688E-3
2.73887E-3	99.4771E-12	715.281E-3	-7.29628E-3	97.4812E-12	694.057E-3	-11.3690E-3
2.73387E-3	99.1707E-12	722.757E-3	3.46508E-3	97.6467E-12	708.015E-3	-6.10291E-3
2.72886E-3	99.5239E-12	711.194E-3	9.20578E-3	98.0074E-12	709.800E-3	-24.2933E-3
2.72386E-3	98.9645E-12	699.803E-3	-10.1758E-3	97.9203E-12	703.546E-3	-34.4227E-3
2.71886E-3	98.1269E-12	711.986E-3	-25.8242E-3	98.1453E-12	715.220E-3	-32.9972E-3
2.71386E-3	97.5918E-12	717.586E-3	-16.8417E-3	97.7851E-12	734.733E-3	-29.9920E-3
2.70885E-3	97.5207E-12	702.597E-3	-7.37919E-3	97.7462E-12	729.052E-3	-17.4782E-3
2.70385E-3	96.8222E-12	687.479E-3	-17.6024E-3	97.8303E-12	717.746E-3	-11.8773E-3
2.69885E-3	96.8265E-12	673.589E-3	-28.5504E-3	97.2984E-12	712.911E-3	-22.8404E-3
2.69385E-3	96.3790E-12	671.805E-3	-23.7934E-3	97.0856E-12	704.938E-3	-29.0440E-3
2.68884E-3	96.4867E-12	687.438E-3	-21.5487E-3	96.5956E-12	715.595E-3	-17.7049E-3
2.68384E-3	95.7371E-12	698.958E-3	-24.3836E-3	96.3633E-12	720.625E-3	-12.5422E-3
2.67884E-3	95.4822E-12	693.941E-3	-34.5635E-3	95.6902E-12	693.989E-3	-18.1829E-3
2.67384E-3	95.4710E-12	691.711E-3	-32.2411E-3	95.0149E-12	689.427E-3	-12.7488E-3
2.66883E-3	95.2929E-12	710.286E-3	-4.57392E-3	94.2532E-12	711.896E-3	-11.2120E-3
2.66383E-3	94.4793E-12	712.588E-3	-4.50291E-3	94.2712E-12	704.220E-3	-7.66693E-3
2.65883E-3	94.3915E-12	697.440E-3	-20.1208E-3	93.8901E-12	677.535E-3	7.09534E-3
2.65383E-3	94.2639E-12	703.793E-3	-4.81668E-3	93.5720E-12	666.697E-3	7.08758E-3
2.64882E-3	94.1538E-12	711.640E-3	9.12651E-3	92.7419E-12	665.794E-3	-4.85678E-3
2.64382E-3	93.4748E-12	703.748E-3	3.66591E-3	92.8212E-12	673.483E-3	-13.0338E-3
2.63882E-3	93.3949E-12	695.765E-3	-1.02725E-3	92.5876E-12	693.026E-3	-15.2213E-3
2.63382E-3	93.2895E-12	693.358E-3	-16.4248E-3	92.2586E-12	707.278E-3	-3.71077E-3
2.62881E-3	93.2492E-12	698.109E-3	-36.0866E-3	92.0817E-12	707.449E-3	10.8899E-3
2.62381E-3	92.6594E-12	708.662E-3	-29.8971E-3	92.0143E-12	712.152E-3	-4.07439E-3
2.61881E-3	92.4144E-12	715.129E-3	-3.74963E-3	92.2108E-12	717.197E-3	-27.5513E-3
2.61381E-3	92.1385E-12	723.507E-3	9.41388E-3	92.1387E-12	706.908E-3	-17.7784E-3
2.60880E-3	92.0324E-12	729.460E-3	-288.217E-6	91.7643E-12	700.922E-3	-5.27924E-3
2.60380E-3	91.4893E-12	719.542E-3	-8.82959E-3	91.9553E-12	703.257E-3	-16.4401E-3
2.59880E-3	91.4771E-12	708.956E-3	-6.97540E-3	91.7868E-12	698.572E-3	-18.2065E-3
2.59380E-3	91.1657E-12	700.818E-3	9.18162E-3	92.0289E-12	692.688E-3	-5.12194E-3
2.58879E-3	91.1467E-12	689.566E-3	21.4287E-3	91.4166E-12	697.754E-3	-3.60687E-3
2.58379E-3	90.5554E-12	685.655E-3	5.93469E-3	91.6646E-12	714.333E-3	-16.3755E-3
2.57879E-3	89.9426E-12	692.911E-3	-13.3349E-3	91.1976E-12	722.361E-3	-29.7332E-3
2.57379E-3	89.8619E-12	703.721E-3	-10.7888E-3	90.7543E-12	715.846E-3	-40.9877E-3
2.56878E-3	89.6156E-12	713.480E-3	-6.91494E-3	90.6259E-12	706.934E-3	-35.7581E-3
2.56378E-3	89.4702E-12	720.270E-3	-12.6157E-3	90.4741E-12	715.761E-3	-17.3897E-3
2.55878E-3	89.3563E-12	722.126E-3	-18.8822E-3	89.8070E-12	731.264E-3	-18.9153E-3
2.55378E-3	89.3720E-12	722.568E-3	-33.2162E-3	89.3828E-12	715.416E-3	-23.2368E-3
2.54877E-3	89.3534E-12	724.022E-3	-38.8256E-3	88.9529E-12	700.662E-3	-12.8490E-3
2.54377E-3	89.2094E-12	719.425E-3	-26.7795E-3	88.9680E-12	703.148E-3	-11.1505E-3
2.53877E-3	89.1603E-12	710.145E-3	-36.0114E-3	88.0904E-12	702.561E-3	-22.7113E-3
2.53377E-3	89.4079E-12	714.408E-3	-60.9264E-3	88.1158E-12	707.022E-3	-19.5503E-3
2.52876E-3	89.1951E-12	730.521E-3	-43.5316E-3	87.4242E-12	705.551E-3	-259.111E-6
2.52376E-3	89.3973E-12	726.618E-3	-680.298E-6	87.7712E-12	697.127E-3	6.83175E-3
2.51876E-3	88.6640E-12	725.427E-3	10.0496E-3	87.2469E-12	706.026E-3	7.04899E-3
2.51376E-3	88.8374E-12	740.724E-3	1.21055E-3	87.0422E-12	730.371E-3	6.04749E-3
2.50875E-3	88.1033E-12	730.081E-3	-9.06145E-3	87.0004E-12	740.849E-3	2.39999E-3
2.50375E-3	87.9132E-12	716.795E-3	-27.5556E-3	86.9534E-12	727.671E-3	4.43337E-3
2.49875E-3	87.5977E-12	727.465E-3	-31.6008E-3	87.0420E-12	723.026E-3	-7.03514E-3
2.49375E-3	87.0770E-12	733.876E-3	-25.5651E-3	87.0550E-12	730.672E-3	-23.5209E-3
2.48874E-3	86.3167E-12	736.690E-3	-31.9264E-3	86.8294E-12	732.846E-3	-17.7835E-3
2.48374E-3	85.6228E-12	741.953E-3	-24.7045E-3	86.7333E-12	731.704E-3	-13.4325E-3
2.47874E-3	85.6593E-12	732.588E-3	-13.3129E-3	86.4217E-12	722.083E-3	-22.7294E-3
2.47374E-3	85.0900E-12	716.267E-3	-16.3948E-3	86.0262E-12	715.517E-3	-20.6149E-3
2.46873E-3	84.7714E-12	712.010E-3	-2.20181E-3	86.0023E-12	730.963E-3	-9.44517E-3
2.46373E-3	84.1685E-12	713.860E-3	16.9044E-3	85.1905E-12	738.599E-3	-14.0995E-3
2.45873E-3	84.1846E-12	725.542E-3	8.07255E-3	84.9039E-12	725.934E-3	-19.7363E-3
2.45373E-3	84.0091E-12	731.932E-3	-2.08637E-3	84.6364E-12	723.305E-3	-4.68257E-3
2.44872E-3	84.3637E-12	710.939E-3	3.52605E-3	84.3626E-12	715.193E-3	2.44913E-3
2.44372E-3	84.0342E-12	698.858E-3	-1.88614E-3	83.4151E-12	706.427E-3	-10.3835E-3
2.43872E-3	83.7331E-12	718.745E-3	1.18946E-3	83.3314E-12	724.504E-3	-24.5990E-3
2.43372E-3	83.8342E-12	733.548E-3	16.2351E-3	82.9359E-12	735.920E-3	-32.4199E-3
2.42871E-3	84.2500E-12	732.860E-3	3.73342E-3	83.0041E-12	719.633E-3	-19.5639E-3
2.42371E-3	84.7123E-12	740.460E-3	-21.3766E-3	82.3553E-12	713.413E-3	3.97768E-3
2.41871E-3	83.8103E-12	735.588E-3	-26.9257E-3	82.3140E-12	725.580E-3	-28.1720E-6
2.41371E-3	83.4487E-12	730.024E-3	-18.1674E-3	81.7381E-12	730.380E-3	-18.6808E-3
2.40870E-3	83.7711E-12	754.698E-3	-14.6170E-3	82.1079E-12	727.828E-3	-27.4253E-3
2.40370E-3	83.6350E-12	768.650E-3	-20.1178E-3	82.0844E-12	731.711E-3	-38.7089E-3
2.39870E-3	82.7262E-12	753.834E-3	-31.0100E-3	82.1658E-12	733.870E-3	-40.0814E-3
2.39370E-3	81.9432E-12	736.621E-3	-30.2916E-3	81.9061E-12	736.826E-3	-35.4214E-3
2.38869E-3	81.6706E-12	730.806E-3	-12.6474E-3	81.7049E-12	739.152E-3	-48.7940E-3
2.38369E-3	81.4540E-12	738.360E-3	-5.02945E-3	82.1502E-12	722.451E-3	-45.0252E-3
2.37869E-3	81.0804E-12	743.597E-3	-21.6491E-3	81.4922E-12	713.058E-3	-25.8386E-3
2.37369E-3	80.3205E-12	738.328E-3	-39.7744E-3	81.4253E-12	720.890E-3	-24.9677E-3
2.36868E-3	79.8257E-12	728.402E-3	-42.2885E-3	80.9453E-12	721.378E-3	-21.4728E-3
2.36368E-3	79.5211E-12	724.629E-3	-33.0472E-3	81.1535E-12	728.347E-3	-7.30525E-3
2.35868E-3	79.5914E-12	727.792E-3	-21.1232E-3	80.8320E-12	751.301E-3	-2.17008E-3
2.35368E-3	79.5701E-12	730.985E-3	-24.9054E-3	80.1954E-12	756.249E-3	-3.14106E-3
2.34867E-3	79.1210E-12	734.380E-3	-30.1560E-3	80.1619E-12	750.722E-3	-7.82120E-3
2.34367E-3	79.4579E-12	737.986E-3	-19.6727E-3	79.6384E-12	764.100E-3	-26.1542E-3
2.33867E-3	78.9520E-12	729.903E-3	-22.3793E-3	79.8908E-12	778.209E-3	-39.8284E-3
2.33367E-3	79.6765E-12	722.586E-3	-36.8288E-3	78.8162E-12	767.598E-3	-29.6286E-3
2.32866E-3	79.3444E-12	738.723E-3	-33.8297E-3	78.3797E-12	746.094E-3	-18.0876E-3
2.32366E-3	79.3270E-12	739.418E-3	-36.1801E-3	77.9603E-12	730.221E-3	-28.6399E-3
2.31866E-3	78.9843E-12	720.729E-3	-42.7082E-3	78.1678E-12	724.397E-3	-31.7725E-3
2.31366E-3	79.0701E-12	727.218E-3	-26.8592E-3	78.1291E-12	737.581E-3	-21.9760E-3
2.30865E-3	79.2560E-12	746.999E-3	-7.90559E-3	77.4730E-12	752.487E-3	-28.0785E-3
2.30365E-3	78.7013E-12	755.742E-3	7.74510E-3	77.5626E-12	758.069E-3	-30.1121E-3
2.29865E-3	78.1942E-12	767.273E-3	23.6026E-3	77.2785E-12	757.751E-3	-13.3506E-3
2.29365E-3	77.3868E-12	767.786E-3	14.9653E-3	77.8848E-12	757.435E-3	-4.16781E-3
2.28864E-3	77.3207E-12	754.770E-3	-14.1404E-3	77.3768E-12	760.800E-3	-7.61251E-3
2.28364E-3	77.1439E-12	753.308E-3	-18.9058E-3	77.2492E-12	761.089E-3	-13.5926E-3
2.27864E-3	76.4966E-12	756.689E-3	-1.68739E-3	76.8281E-12	766.687E-3	-20.5214E-3
2.27364E-3	76.0153E-12	752.116E-3	-3.76228E-3	76.9475E-12	767.423E-3	-22.5743E-3
2.26863E-3	75.9113E-12	743.254E-3	-11.0982E-3	76.8338E-12	756.483E-3	-19.5398E-3
2.26363E-3	75.6760E-12	739.745E-3	-3.22426E-3	76.3902E-12	753.913E-3	-18.0769E-3
2.25863E-3	75.2957E-12	744.015E-3	-7.51037E-3	75.9852E-12	761.000E-3	-10.7700E-3
2.25363E-3	74.6771E-12	757.580E-3	-20.1444E-3	75.3507E-12	769.850E-3	2.34574E-3
2.24862E-3	74.5214E-12	755.572E-3	-17.1037E-3	74.8841E-12	766.731E-3	-7.77422E-3
2.24362E-3	74.4585E-12	736.355E-3	-8.97930E-3	74.2844E-12	761.875E-3	-27.4800E-3
2.23862E-3	74.6709E-12	743.751E-3	-3.61299E-3	73.7974E-12	769.859E-3	-24.2615E-3
2.23362E-3	74.2260E-12	757.767E-3	-1.31487E-3	73.6119E-12	771.386E-3	-21.7660E-3
2.22861E-3	74.0602E-12	752.814E-3	-9.37544E-3	73.0077E-12	769.302E-3	-26.1805E-3
2.22361E-3	74.0185E-12	759.660E-3	-21.3830E-3	72.7055E-12	770.914E-3	-22.8756E-3
2.21861E-3	73.6711E-12	767.150E-3	-28.5723E-3	72.5986E-12	768.194E-3	-22.8657E-3
2.21361E-3	73.7767E-12	757.113E-3	-24.7105E-3	72.2411E-12	768.769E-3	-23.6144E-3
2.20860E-3	73.3061E-12	759.123E-3	-15.9295E-3	71.7935E-12	781.989E-3	-7.50695E-3
2.20360E-3	73.0609E-12	771.239E-3	-9.63738E-3	71.9724E-12	785.004E-3	11.0418E-3
2.19860E-3	72.8320E-12	761.643E-3	-8.61507E-3	71.9839E-12	761.882E-3	7.62523E-3
2.19360E-3	72.5093E-12	744.064E-3	-25.1083E-3	71.6131E-12	757.997E-3	-4.02653E-3
2.18859E-3	72.7339E-12	743.288E-3	-37.6913E-3	71.4834E-12	778.840E-3	-14.2228E-3
2.18359E-3	72.1890E-12	756.121E-3	-30.5398E-3	71.4032E-12	775.607E-3	-15.3670E-3
2.17859E-3	72.1392E-12	778.425E-3	-28.1536E-3	71.4485E-12	763.164E-3	5.40748E-3
2.17359E-3	71.5264E-12	793.567E-3	-33.1613E-3	70.8570E-12	767.154E-3	5.00314E-3
2.16858E-3	71.6875E-12	781.305E-3	-38.9861E-3	70.4015E-12	757.869E-3	-16.0894E-3
2.16358E-3	71.0918E-12	766.669E-3	-41.2866E-3	70.1748E-12	754.320E-3	-12.0831E-3
2.15858E-3	70.9389E-12	774.395E-3	-21.0957E-3	70.3264E-12	778.580E-3	-13.7541E-3
2.15358E-3	70.3996E-12	774.713E-3	-4.94277E-3	69.8649E-12	778.746E-3	-26.8946E-3
2.14857E-3	70.1716E-12	769.504E-3	-18.9145E-3	69.3812E-12	759.088E-3	-19.3310E-3
2.14357E-3	69.5227E-12	783.164E-3	-22.2373E-3	68.9849E-12	753.876E-3	-14.5053E-3
2.13857E-3	69.0178E-12	794.079E-3	-10.7395E-3	68.8249E-12	754.999E-3	-12.8860E-3
2.13357E-3	68.4454E-12	789.803E-3	-22.4675E-3	68.5185E-12	768.525E-3	-1.77753E-3
2.12856E-3	68.3417E-12	782.233E-3	-31.3925E-3	68.1078E-12	785.443E-3	557.940E-6
2.12356E-3	68.1914E-12	781.165E-3	-20.7450E-3	67.9304E-12	782.711E-3	-6.58650E-3
2.11856E-3	68.0072E-12	772.667E-3	-23.2402E-3	67.5884E-12	771.545E-3	-21.6004E-3
2.11356E-3	67.5885E-12	764.701E-3	-32.8001E-3	67.4684E-12	776.010E-3	-31.3097E-3
2.10855E-3	67.5090E-12	775.905E-3	-30.0695E-3	67.3208E-12	793.333E-3	-29.8088E-3
2.10355E-3	67.5019E-12	782.377E-3	-33.2117E-3	67.1466E-12	795.526E-3	-22.5707E-3
2.09855E-3	67.9631E-12	786.498E-3	-45.5987E-3	67.1355E-12	799.373E-3	-10.3832E-3
2.09355E-3	67.6175E-12	800.623E-3	-47.1078E-3	66.6430E-12	806.193E-3	-10.8949E-3
2.08854E-3	67.5159E-12	804.117E-3	-37.6686E-3	66.9169E-12	791.659E-3	-6.27802E-3
2.08354E-3	67.1742E-12	806.315E-3	-22.5277E-3	66.8802E-12	796.750E-3	5.56587E-3
2.07854E-3	67.1043E-12	816.647E-3	-13.3959E-3	66.4934E-12	816.097E-3	-18.8857E-3
2.07354E-3	67.0476E-12	814.392E-3	-23.1745E-3	66.1446E-12	804.024E-3	-47.7201E-3
2.06853E-3	66.6648E-12	813.293E-3	-31.4051E-3	65.7511E-12	796.913E-3	-34.4249E-3
2.06353E-3	66.2713E-12	813.371E-3	-19.3593E-3	65.5287E-12	813.033E-3	-23.3174E-3
2.05853E-3	65.8114E-12	796.010E-3	350.142E-6	64.8696E-12	818.878E-3	-30.4961E-3
2.05353E-3	65.7115E-12	797.224E-3	9.82557E-3	64.4328E-12	819.842E-3	-21.4181E-3
2.04852E-3	64.6976E-12	823.726E-3	16.7067E-3	63.9031E-12	823.907E-3	-14.9900E-3
2.04352E-3	64.1368E-12	823.124E-3	2.04940E-3	63.9344E-12	813.461E-3	-21.0400E-3
2.03852E-3	63.6324E-12	805.724E-3	-34.9426E-3	63.4347E-12	804.665E-3	-16.9315E-3
2.03352E-3	63.1623E-12	810.484E-3	-33.6316E-3	63.3394E-12	810.462E-3	-18.3338E-3
2.02851E-3	62.7711E-12	797.199E-3	-12.5552E-3	62.9922E-12	809.560E-3	-16.7258E-3
2.02351E-3	62.5731E-12	770.622E-3	-16.8972E-3	62.7372E-12	802.711E-3	3.38439E-3
2.01851E-3	62.7114E-12	775.071E-3	-27.9122E-3	62.5024E-12	810.663E-3	1.66476E-3
2.01351E-3	62.1439E-12	779.423E-3	-38.5225E-3	62.0246E-12	823.522E-3	-13.6418E-3
2.00850E-3	62.2766E-12	790.512E-3	-49.0349E-3	62.0996E-12	824.225E-3	-5.41775E-3
2.00350E-3	62.2156E-12	821.354E-3	-42.7496E-3	61.7401E-12	822.570E-3	2.68815E-3
1.99850E-3	62.2331E-12	827.872E-3	-29.5677E-3	61.8014E-12	810.674E-3	-7.81138E-3
1.99350E-3	61.9360E-12	816.607E-3	-31.6848E-3	61.3128E-12	808.212E-3	-16.3825E-3
1.98849E-3	61.3783E-12	822.127E-3	-30.2856E-3	61.4715E-12	829.914E-3	-15.2553E-3
1.98349E-3	61.6698E-12	839.625E-3	-18.2613E-3	61.2280E-12	838.517E-3	-13.5662E-3
1.97849E-3	61.4869E-12	847.897E-3	-16.3974E-3	60.9165E-12	826.515E-3	-14.5553E-3
1.97349E-3	61.2705E-12	841.474E-3	-19.2220E-3	60.6805E-12	826.692E-3	-13.3299E-3
1.96848E-3	60.2482E-12	829.778E-3	-22.4253E-3	60.3991E-12	837.941E-3	-14.1915E-3
1.96348E-3	60.4031E-12	817.435E-3	-22.6233E-3	60.3265E-12	835.185E-3	-29.4321E-3
1.95848E-3	59.9641E-12	815.835E-3	-15.7325E-3	59.7224E-12	836.379E-3	-39.6121E-3
1.95348E-3	59.2480E-12	828.594E-3	-16.0478E-3	59.6502E-12	842.560E-3	-32.0329E-3
1.94847E-3	58.8402E-12	833.622E-3	-26.2105E-3	59.1291E-12	839.726E-3	-24.6053E-3
1.94347E-3	58.4283E-12	824.191E-3	-36.7497E-3	59.0683E-12	845.942E-3	-23.5914E-3
1.93847E-3	58.4656E-12	821.300E-3	-36.7382E-3	58.9032E-12	861.669E-3	-26.6770E-3
1.93347E-3	58.0680E-12	826.158E-3	-18.4051E-3	58.3665E-12	862.261E-3	-25.2268E-3
1.92846E-3	57.6257E-12	839.061E-3	615.287E-6	58.2138E-12	854.642E-3	-22.1607E-3
1.92346E-3	57.0551E-12	853.993E-3	-4.73956E-3	57.6663E-12	848.470E-3	-27.8019E-3
1.91846E-3	57.0437E-12	845.485E-3	-29.9351E-3	57.2938E-12	837.277E-3	-31.5439E-3
1.91346E-3	56.9646E-12	832.667E-3	-42.8466E-3	56.8446E-12	845.984E-3	-34.3818E-3
1.90845E-3	56.6692E-12	833.995E-3	-25.8619E-3	56.4435E-12	867.635E-3	-43.3025E-3
1.90345E-3	56.6219E-12	849.514E-3	-10.5768E-3	56.2729E-12	863.136E-3	-37.3153E-3
1.89845E-3	56.0979E-12	864.701E-3	-17.5133E-3	55.9985E-12	851.972E-3	-12.6718E-3
1.89345E-3	56.0895E-12	861.469E-3	-20.2256E-3	56.0070E-12	854.770E-3	-8.75954E-3
1.88844E-3	55.8489E-12	852.957E-3	-25.0825E-3	55.6436E-12	848.509E-3	-33.1490E-3
1.88344E-3	55.7274E-12	851.096E-3	-26.0214E-3	55.0689E-12	843.519E-3	-40.6372E-3
1.87844E-3	55.1474E-12	852.946E-3	-7.84563E-3	54.9197E-12	846.347E-3	-22.9635E-3
1.87344E-3	54.7080E-12	851.194E-3	-4.17646E-3	54.8261E-12	844.874E-3	-9.38327E-3
1.86843E-3	54.5345E-12	850.125E-3	-14.1509E-3	54.8625E-12	861.180E-3	-11.3043E-3
1.86343E-3	54.3776E-12	861.339E-3	-4.85304E-3	54.3381E-12	894.242E-3	-27.5064E-3
1.85843E-3	53.9468E-12	881.883E-3	8.54809E-3	53.8388E-12	910.856E-3	-40.6224E-3
1.85343E-3	53.1343E-12	899.497E-3	9.57966E-3	53.6290E-12	912.016E-3	-26.6212E-3
1.84842E-3	52.9313E-12	902.759E-3	8.47350E-3	53.6180E-12	910.524E-3	-4.82651E-3
1.84342E-3	52.7490E-12	886.875E-3	2.14153E-3	53.0281E-12	897.097E-3	1.63573E-3
1.83842E-3	52.6192E-12	877.219E-3	-17.5611E-3	52.4490E-12	887.132E-3	1.19131E-3
1.83342E-3	52.1357E-12	886.263E-3	-27.7958E-3	52.0855E-12	895.044E-3	-11.2937E-3
1.82841E-3	51.9967E-12	885.252E-3	-13.0980E-3	51.9983E-12	896.757E-3	-26.6566E-3
1.82341E-3	51.6823E-12	882.969E-3	-2.02246E-3	51.5438E-12	885.312E-3	-21.9730E-3
1.81841E-3	51.2346E-12	900.079E-3	-17.0789E-3	50.9405E-12	888.377E-3	-8.63495E-3
1.81341E-3	50.6933E-12	906.485E-3	-37.0128E-3	50.5513E-12	910.332E-3	-8.64437E-3
1.80840E-3	50.3282E-12	896.279E-3	-33.5529E-3	50.1184E-12	921.168E-3	-19.3819E-3
1.80340E-3	50.3265E-12	891.921E-3	-22.8602E-3	49.9843E-12	913.881E-3	-25.4756E-3
1.79840E-3	50.1052E-12	889.116E-3	-17.4433E-3	49.7577E-12	907.977E-3	-22.1156E-3
1.79340E-3	49.6608E-12	895.409E-3	-17.5169E-3	49.4094E-12	915.382E-3	-12.6299E-3
1.78839E-3	49.2346E-12	917.706E-3	-21.1260E-3	49.1119E-12	928.178E-3	-6.28267E-3
1.78339E-3	48.8873E-12	927.676E-3	-12.4942E-3	48.8767E-12	928.321E-3	-4.64984E-3
1.77839E-3	48.6177E-12	921.291E-3	-10.0012E-3	48.9388E-12	915.055E-3	-9.02472E-3
1.77339E-3	48.4533E-12	919.405E-3	-20.8549E-3	48.5970E-12	913.001E-3	-4.88056E-3
1.76838E-3	48.3322E-12	925.383E-3	-22.5594E-3	48.4851E-12	929.222E-3	6.11865E-3
1.76338E-3	48.0082E-12	930.080E-3	-19.9938E-3	48.0882E-12	936.143E-3	-7.29487E-3
1.75838E-3	47.5469E-12	932.664E-3	-17.5637E-3	48.1320E-12	937.537E-3	-20.3857E-3
1.75338E-3	47.7481E-12	934.013E-3	-11.5435E-3	47.7701E-12	945.977E-3	-13.1207E-3
1.74837E-3	47.6183E-12	933.015E-3	-10.5429E-3	47.6141E-12	953.972E-3	-10.6402E-3
1.74337E-3	47.1208E-12	948.357E-3	-12.1670E-3	47.0572E-12	965.767E-3	-15.0021E-3
1.73837E-3	46.5378E-12	972.051E-3	-10.2232E-3	46.7390E-12	967.937E-3	-23.8829E-3
1.73337E-3	46.4987E-12	966.626E-3	-3.49448E-3	46.4022E-12	963.027E-3	-40.4468E-3
1.72836E-3	46.4327E-12	955.913E-3	-2.85066E-3	45.8904E-12	979.025E-3	-44.4396E-3
1.72336E-3	45.7852E-12	972.897E-3	-7.10658E-3	45.2657E-12	995.282E-3	-27.3240E-3
1.71836E-3	45.1528E-12	989.745E-3	-3.46879E-3	44.9741E-12	980.418E-3	-10.1784E-3
1.71336E-3	44.7378E-12	989.579E-3	-8.78976E-3	44.4478E-12	960.869E-3	-5.31717E-3
1.70835E-3	45.1141E-12	990.692E-3	-14.5953E-3	44.0312E-12	965.321E-3	-10.6080E-3
1.70335E-3	44.4057E-12	995.876E-3	-7.57669E-3	43.7922E-12	983.635E-3	-24.7641E-3
1.69835E-3	43.9771E-12	993.999E-3	-5.36999E-3	43.4141E-12	998.860E-3	-28.4048E-3
1.69335E-3	43.2715E-12	993.623E-3	-155.466E-6	43.1754E-12	1.01666E+0	-24.8398E-3
1.68834E-3	43.2631E-12	998.401E-3	8.56043E-3	42.9363E-12	1.03324E+0	-35.8842E-3
1.68334E-3	42.9956E-12	1.00587E+0	-1.61374E-3	42.7385E-12	1.03263E+0	-34.5588E-3
1.67834E-3	42.4332E-12	1.01973E+0	-14.0005E-3	42.5825E-12	1.03651E+0	-19.7907E-3
1.67334E-3	42.0982E-12	1.02768E+0	-15.2293E-3	42.2263E-12	1.05458E+0	-11.6960E-3
1.66833E-3	41.9455E-12	1.01865E+0	-18.2166E-3	42.1127E-12	1.06847E+0	3.08540E-3
1.66333E-3	41.8449E-12	1.01027E+0	-12.1168E-3	41.6332E-12	1.07617E+0	12.1028E-3
1.65833E-3	41.3576E-12	1.01767E+0	9.45346E-3	41.5737E-12	1.07501E+0	-4.18887E-3
1.65333E-3	41.1434E-12	1.02911E+0	20.9462E-3	41.1269E-12	1.06101E+0	-20.2788E-3
1.64832E-3	40.6937E-12	1.04144E+0	10.1340E-3	40.8076E-12	1.05182E+0	-27.6846E-3
1.64332E-3	40.2952E-12	1.04697E+0	-2.73748E-3	40.3196E-12	1.05186E+0	-28.6848E-3
1.63832E-3	40.0850E-12	1.03415E+0	-5.09355E-3	39.8283E-12	1.05354E+0	-16.3433E-3
1.63332E-3	39.7364E-12	1.03063E+0	-3.97157E-3	39.7434E-12	1.06291E+0	-6.82212E-3
1.62831E-3	39.1474E-12	1.03560E+0	-2.26932E-3	39.2421E-12	1.07681E+0	-5.35270E-3
1.62331E-3	38.7263E-12	1.03017E+0	-8.32505E-3	38.8364E-12	1.08090E+0	-5.94640E-3
1.61831E-3	38.2523E-12	1.04047E+0	-15.2085E-3	38.3168E-12	1.07597E+0	-539.071E-6
1.61331E-3	37.8912E-12	1.05879E+0	-10.5611E-3	37.9176E-12	1.08606E+0	-2.78265E-3
1.60830E-3	37.3691E-12	1.06729E+0	-9.47546E-3	37.6268E-12	1.10111E+0	-23.3600E-3
1.60330E-3	36.8663E-12	1.08492E+0	-5.63640E-3	37.0077E-12	1.10191E+0	-33.3383E-3
1.59830E-3	36.7497E-12	1.10057E+0	558.777E-6	36.7658E-12	1.11054E+0	-25.1132E-3
1.59330E-3	36.3457E-12	1.09446E+0	-8.73803E-3	36.3893E-12	1.12249E+0	-18.6249E-3
1.58829E-3	36.1406E-12	1.09121E+0	-28.6187E-3	36.1758E-12	1.12398E+0	-14.8314E-3
1.58329E-3	35.7315E-12	1.10822E+0	-40.9156E-3	35.9314E-12	1.12796E+0	-14.6297E-3
1.57829E-3	35.5224E-12	1.11206E+0	-26.0693E-3	35.4283E-12	1.12738E+0	-15.0397E-3
1.57329E-3	35.2304E-12	1.10288E+0	-198.356E-6	35.3451E-12	1.13244E+0	-4.68200E-3
1.56828E-3	34.9986E-12	1.11430E+0	7.97893E-3	35.0190E-12	1.14249E+0	3.27009E-3
1.56328E-3	34.4691E-12	1.12501E+0	-8.98410E-3	34.5580E-12	1.12947E+0	-4.59342E-3
1.55828E-3	34.1202E-12	1.11723E+0	-29.3803E-3	33.8920E-12	1.12237E+0	-10.0786E-3
1.55328E-3	33.6970E-12	1.11825E+0	-22.9170E-3	33.7646E-12	1.13285E+0	-8.16483E-3
1.54827E-3	33.2208E-12	1.12430E+0	-7.16797E-3	33.3925E-12	1.13399E+0	-15.2988E-3
1.54327E-3	32.7863E-12	1.12230E+0	-19.5196E-3	32.9973E-12	1.13239E+0	-15.7390E-3
1.53827E-3	32.3803E-12	1.11700E+0	-36.9599E-3	32.3634E-12	1.14470E+0	-15.2006E-3
1.53327E-3	32.0495E-12	1.11567E+0	-27.0149E-3	31.9380E-12	1.16391E+0	-29.7118E-3
1.52826E-3	31.5570E-12	1.13104E+0	-14.6684E-3	31.7384E-12	1.17187E+0	-23.5878E-3
1.52326E-3	31.1548E-12	1.15254E+0	2.46897E-3	31.4120E-12	1.17625E+0	-6.61945E-3
1.51826E-3	30.6089E-12	1.16009E+0	17.2518E-3	30.8466E-12	1.18931E+0	-13.2328E-3
1.51326E-3	30.2867E-12	1.15498E+0	-1.94215E-3	30.2517E-12	1.20052E+0	-28.6132E-3
1.50825E-3	29.7661E-12	1.15378E+0	-21.1062E-3	29.9509E-12	1.20610E+0	-29.2923E-3
1.50325E-3	29.4433E-12	1.15545E+0	-15.1399E-3	29.8077E-12	1.20406E+0	-22.5091E-3
1.49825E-3	29.1669E-12	1.15426E+0	-6.79958E-3	29.3479E-12	1.19060E+0	-22.0794E-3
1.49325E-3	28.7941E-12	1.16072E+0	-13.5353E-3	28.9964E-12	1.17791E+0	-13.6669E-3
1.48824E-3	28.4065E-12	1.16436E+0	-29.5061E-3	28.6507E-12	1.16832E+0	2.63932E-3
1.48324E-3	28.2008E-12	1.16479E+0	-41.2616E-3	28.4716E-12	1.16474E+0	10.4329E-3
1.47824E-3	27.8648E-12	1.18250E+0	-36.8837E-3	27.9842E-12	1.18488E+0	6.80187E-3
1.47324E-3	27.4810E-12	1.20012E+0	-25.8741E-3	27.5040E-12	1.20593E+0	-7.16858E-3
1.46823E-3	26.9545E-12	1.20349E+0	-28.1748E-3	27.0527E-12	1.19164E+0	-21.0086E-3
1.46323E-3	26.7048E-12	1.20769E+0	-36.8482E-3	26.6794E-12	1.16519E+0	-22.0253E-3
1.45823E-3	26.3461E-12	1.20020E+0	-28.5240E-3	26.2308E-12	1.16661E+0	-19.5138E-3
1.45323E-3	26.0034E-12	1.18324E+0	-15.4789E-3	25.7719E-12	1.18581E+0	-30.0970E-3
1.44822E-3	25.4341E-12	1.18913E+0	-10.7264E-3	25.2645E-12	1.19651E+0	-23.7977E-3
1.44322E-3	25.0543E-12	1.19922E+0	2.30832E-3	24.8453E-12	1.18900E+0	-5.93427E-3
1.43822E-3	24.8247E-12	1.19998E+0	12.8150E-3	24.5589E-12	1.17434E+0	-18.2289E-3
1.43322E-3	24.2438E-12	1.19618E+0	212.341E-6	24.3089E-12	1.17071E+0	-23.9761E-3
1.42821E-3	23.7738E-12	1.18276E+0	-14.3083E-3	23.9934E-12	1.17921E+0	-11.7955E-3
1.42321E-3	23.3241E-12	1.17429E+0	-6.43692E-3	23.4593E-12	1.18910E+0	-16.4701E-3
1.41821E-3	22.9731E-12	1.17676E+0	1.37108E-3	23.0182E-12	1.18325E+0	-25.6891E-3
1.41321E-3	22.5163E-12	1.18040E+0	-15.8746E-3	22.8194E-12	1.16860E+0	-25.7116E-3
1.40820E-3	22.2030E-12	1.17973E+0	-37.5328E-3	22.4573E-12	1.16437E+0	-26.1251E-3
1.40320E-3	21.8682E-12	1.17193E+0	-42.6341E-3	21.8769E-12	1.16386E+0	-23.4513E-3
1.39820E-3	21.4807E-12	1.16240E+0	-31.1795E-3	21.5033E-12	1.16657E+0	-14.9560E-3
1.39320E-3	21.3412E-12	1.15842E+0	-16.4473E-3	21.2932E-12	1.16028E+0	-5.80593E-3
1.38819E-3	21.0075E-12	1.16376E+0	-15.3638E-3	20.8337E-12	1.14132E+0	-5.15297E-3
1.38319E-3	20.7058E-12	1.17583E+0	-14.4912E-3	20.3719E-12	1.14390E+0	-16.5556E-3
1.37819E-3	20.0509E-12	1.17208E+0	-1.41331E-3	19.8652E-12	1.14388E+0	-30.1333E-3
1.37319E-3	19.7598E-12	1.15941E+0	6.80557E-3	19.5716E-12	1.13137E+0	-34.6566E-3
1.36818E-3	19.4422E-12	1.16779E+0	7.48798E-3	19.2071E-12	1.13150E+0	-27.3645E-3
1.36318E-3	19.0801E-12	1.16801E+0	2.76932E-3	18.6521E-12	1.12140E+0	-28.1441E-3
1.35818E-3	18.4621E-12	1.13838E+0	-10.0448E-3	18.3760E-12	1.10224E+0	-27.8360E-3
1.35318E-3	17.9444E-12	1.11761E+0	-19.4656E-3	18.0222E-12	1.09492E+0	-23.6352E-3
1.34817E-3	17.7058E-12	1.11391E+0	-17.9173E-3	17.6082E-12	1.09011E+0	-30.0342E-3
1.34317E-3	17.4583E-12	1.10900E+0	-14.3327E-3	17.2761E-12	1.07830E+0	-25.0478E-3
1.33817E-3	16.9174E-12	1.10790E+0	-17.6574E-3	16.9601E-12	1.06464E+0	-14.8101E-3
1.33317E-3	16.4705E-12	1.10649E+0	-24.4179E-3	16.8182E-12	1.05206E+0	-12.5251E-3
1.32816E-3	16.2491E-12	1.08681E+0	-24.4324E-3	16.3105E-12	1.03436E+0	-5.20512E-3
1.32316E-3	15.9797E-12	1.06135E+0	-12.0861E-3	15.9656E-12	1.01698E+0	-95.4586E-6
1.31816E-3	15.4519E-12	1.04684E+0	-1.25464E-3	15.6521E-12	1.00153E+0	-2.97574E-3
1.31316E-3	15.0984E-12	1.04372E+0	-7.30903E-3	15.3782E-12	976.316E-3	-7.11435E-3
1.30815E-3	14.9190E-12	1.04413E+0	-21.0637E-3	14.8581E-12	959.813E-3	-12.5351E-3
1.30315E-3	14.6412E-12	1.03209E+0	-19.6716E-3	14.5142E-12	967.444E-3	-18.1690E-3
1.29815E-3	14.2010E-12	1.01269E+0	-8.47205E-3	14.2608E-12	969.382E-3	-18.4391E-3
1.29315E-3	13.9011E-12	1.00382E+0	-13.0146E-3	13.8322E-12	952.459E-3	-12.8326E-3
1.28814E-3	13.6667E-12	997.708E-3	-30.0859E-3	13.4559E-12	931.139E-3	-10.6563E-3
1.28314E-3	13.2337E-12	985.018E-3	-31.8815E-3	12.9848E-12	907.892E-3	-21.0177E-3
1.27814E-3	12.9007E-12	981.285E-3	-26.7112E-3	12.8236E-12	891.616E-3	-28.8559E-3
1.27314E-3	12.6987E-12	975.629E-3	-27.5058E-3	12.4324E-12	894.063E-3	-22.2998E-3
1.26813E-3	12.3619E-12	960.602E-3	-21.8949E-3	12.0794E-12	890.860E-3	-17.0422E-3
1.26313E-3	11.9251E-12	948.550E-3	-25.4777E-3	11.7777E-12	864.434E-3	-20.4987E-3
1.25813E-3	11.6094E-12	929.496E-3	-27.8785E-3	11.5944E-12	838.284E-3	-23.2809E-3
1.25313E-3	11.5254E-12	895.648E-3	-21.2326E-3	11.3100E-12	827.977E-3	-22.2799E-3
1.24812E-3	11.1960E-12	862.229E-3	-22.4454E-3	11.0237E-12	825.118E-3	-13.6931E-3
1.24312E-3	10.8039E-12	850.188E-3	-23.1820E-3	10.7958E-12	818.428E-3	4.60559E-3
1.23812E-3	10.5562E-12	852.840E-3	-20.3522E-3	10.5706E-12	807.680E-3	6.09222E-3
1.23312E-3	10.5115E-12	850.330E-3	-22.3142E-3	10.4572E-12	789.529E-3	-13.4022E-3
1.22811E-3	10.2033E-12	842.072E-3	-28.9316E-3	10.1151E-12	766.279E-3	-22.1183E-3
1.22311E-3	9.73739E-12	826.188E-3	-27.4996E-3	9.74008E-12	751.443E-3	-15.8357E-3
1.21811E-3	9.40711E-12	800.743E-3	-13.3763E-3	9.49919E-12	737.106E-3	-9.84054E-3
1.21311E-3	9.49312E-12	774.002E-3	-583.836E-6	9.25288E-12	711.179E-3	-14.4526E-3
1.20810E-3	9.20503E-12	747.455E-3	-58.0006E-6	8.97823E-12	680.581E-3	-30.6081E-3
1.20310E-3	8.73047E-12	729.171E-3	-13.5948E-3	8.67624E-12	659.234E-3	-37.4290E-3
1.19810E-3	8.46509E-12	727.339E-3	-24.0654E-3	8.49586E-12	649.097E-3	-32.1697E-3
1.19310E-3	8.38372E-12	720.658E-3	-21.3949E-3	8.17746E-12	641.551E-3	-22.5161E-3
1.18809E-3	8.20761E-12	695.611E-3	-23.0753E-3	7.94997E-12	627.193E-3	-10.8920E-3
1.18309E-3	7.81444E-12	679.968E-3	-35.2333E-3	7.74679E-12	608.217E-3	-5.90538E-3
1.17809E-3	7.58974E-12	673.320E-3	-35.9570E-3	7.57896E-12	594.906E-3	-10.0046E-3
1.17309E-3	7.44490E-12	641.895E-3	-19.5108E-3	7.37815E-12	576.795E-3	-19.9778E-3
1.16808E-3	7.20289E-12	608.723E-3	-7.01224E-3	7.09255E-12	561.361E-3	-23.8635E-3
1.16308E-3	6.93197E-12	602.012E-3	-2.20814E-3	7.02912E-12	551.786E-3	-20.0135E-3
1.15808E-3	6.84354E-12	594.191E-3	-1.87912E-3	6.86364E-12	533.379E-3	-11.1993E-3
1.15308E-3	6.68748E-12	574.188E-3	-6.17574E-3	6.62312E-12	522.832E-3	-1.81119E-3
1.14807E-3	6.38955E-12	556.496E-3	-9.47687E-3	6.38572E-12	516.774E-3	1.07530E-3
1.14307E-3	6.25821E-12	550.619E-3	-15.7573E-3	6.30439E-12	502.584E-3	-4.74783E-3
1.13807E-3	6.19758E-12	552.177E-3	-19.0642E-3	6.23651E-12	490.336E-3	-8.53326E-3
1.13307E-3	6.10638E-12	538.442E-3	-17.6466E-3	5.99033E-12	477.026E-3	-17.2910E-3
1.12806E-3	5.77596E-12	507.822E-3	-24.9448E-3	5.67598E-12	461.138E-3	-37.4647E-3
1.12306E-3	5.51210E-12	480.832E-3	-31.3518E-3	5.56060E-12	446.175E-3	-41.9092E-3
1.11806E-3	5.51239E-12	475.876E-3	-17.5322E-3	5.46060E-12	432.727E-3	-26.9786E-3
1.11306E-3	5.49967E-12	477.793E-3	-4.01288E-3	5.22368E-12	406.915E-3	-8.10315E-3
1.10805E-3	5.09889E-12	467.390E-3	-10.3481E-3	5.02432E-12	370.759E-3	1.18054E-3
1.10305E-3	4.88127E-12	455.026E-3	-14.0124E-3	4.91454E-12	361.706E-3	-5.17991E-3
1.09805E-3	4.91248E-12	435.278E-3	-11.4764E-3	4.81315E-12	371.133E-3	-18.9432E-3
1.09305E-3	4.78059E-12	411.788E-3	-3.81554E-3	4.60786E-12	365.100E-3	-23.1716E-3
1.08804E-3	4.49742E-12	396.341E-3	-650.033E-6	4.43765E-12	353.391E-3	-12.0780E-3
1.08304E-3	4.34093E-12	385.688E-3	-12.9525E-3	4.36460E-12	343.122E-3	-6.35844E-3
1.07804E-3	4.33488E-12	372.507E-3	-20.5343E-3	4.31992E-12	332.013E-3	-18.7925E-3
1.07304E-3	4.25965E-12	363.253E-3	-16.9709E-3	4.11752E-12	329.202E-3	-33.7331E-3
1.06803E-3	4.02766E-12	361.384E-3	-9.78425E-3	3.98495E-12	320.312E-3	-35.8716E-3
1.06303E-3	3.96041E-12	348.922E-3	-2.02796E-3	3.97259E-12	299.675E-3	-34.0329E-3
1.05803E-3	3.94423E-12	328.728E-3	-8.96615E-3	3.87760E-12	289.866E-3	-25.5682E-3
1.05303E-3	3.81741E-12	307.212E-3	-26.3939E-3	3.71591E-12	282.392E-3	-12.9399E-3
1.04802E-3	3.63815E-12	291.777E-3	-26.8971E-3	3.61643E-12	267.760E-3	-15.1544E-3
1.04302E-3	3.74483E-12	289.145E-3	-13.7107E-3	3.72715E-12	252.290E-3	-14.1361E-3
1.03802E-3	3.65089E-12	282.497E-3	-9.94867E-3	3.52794E-12	232.284E-3	-3.90605E-3
1.03302E-3	3.34720E-12	266.183E-3	-16.4603E-3	3.25773E-12	216.203E-3	-6.64971E-3
1.02801E-3	3.16242E-12	250.966E-3	-19.8589E-3	3.13289E-12	213.930E-3	-10.9324E-3
1.02301E-3	3.10937E-12	239.605E-3	-18.8622E-3	3.01438E-12	211.961E-3	-8.70385E-3
1.01801E-3	3.08220E-12	236.027E-3	-20.1033E-3	2.87236E-12	194.465E-3	-5.98201E-3
1.01301E-3	2.75605E-12	242.460E-3	-24.0845E-3	2.75944E-12	176.511E-3	-3.96786E-3
1.00800E-3	2.64973E-12	247.161E-3	-26.9463E-3	2.74386E-12	177.628E-3	-7.14483E-3
1.00300E-3	2.70522E-12	240.538E-3	-29.3405E-3	2.74550E-12	183.255E-3	-9.34590E-3
997.999E-6	2.72510E-12	221.634E-3	-30.1559E-3	2.55891E-12	179.984E-3	-6.54316E-3
992.997E-6	2.47217E-12	203.468E-3	-18.9216E-3	2.42989E-12	175.446E-3	-12.6423E-3
987.994E-6	2.32326E-12	196.439E-3	-4.91975E-3	2.45625E-12	163.317E-3	-20.8328E-3
982.991E-6	2.42425E-12	184.339E-3	-11.3358E-3	2.54190E-12	151.414E-3	-16.7217E-3
977.989E-6	2.45805E-12	176.046E-3	-28.0774E-3	2.35487E-12	153.729E-3	-16.4386E-3
972.986E-6	2.24828E-12	183.049E-3	-35.1228E-3	2.19253E-12	152.115E-3	-23.7940E-3
967.984E-6	2.12146E-12	176.770E-3	-31.2450E-3	2.27270E-12	143.379E-3	-22.7760E-3
962.981E-6	2.22394E-12	154.981E-3	-20.4723E-3	2.27449E-12	145.939E-3	-14.0670E-3
957.979E-6	2.22652E-12	142.938E-3	-11.5132E-3	2.16112E-12	143.294E-3	-6.51603E-3
952.976E-6	2.05228E-12	139.136E-3	-3.90151E-3	1.97285E-12	129.044E-3	2.82907E-3
947.974E-6	1.99400E-12	131.273E-3	1.71252E-3	2.07437E-12	129.449E-3	3.76451E-3
942.971E-6	2.04394E-12	122.924E-3	-8.41817E-3	2.04162E-12	134.519E-3	-15.4985E-3
937.969E-6	1.97597E-12	119.930E-3	-19.5156E-3	1.93373E-12	124.383E-3	-24.1625E-3
932.966E-6	1.85794E-12	121.062E-3	-22.6783E-3	1.87011E-12	106.612E-3	-11.2592E-3
927.964E-6	1.91543E-12	120.869E-3	-27.2977E-3	1.91515E-12	99.0584E-3	-7.07903E-3
922.961E-6	1.90857E-12	115.288E-3	-26.3945E-3	1.90224E-12	97.2653E-3	-7.32423E-3
917.959E-6	1.75319E-12	107.714E-3	-22.6552E-3	1.74042E-12	96.6114E-3	-3.54591E-3
912.956E-6	1.65624E-12	110.621E-3	-26.5667E-3	1.70734E-12	106.540E-3	-9.08132E-3
907.954E-6	1.76062E-12	119.729E-3	-28.3700E-3	1.76774E-12	111.936E-3	-22.6676E-3
902.951E-6	1.82343E-12	117.090E-3	-19.1811E-3	1.72294E-12	101.679E-3	-29.2666E-3
897.949E-6	1.61371E-12	97.7233E-3	-15.1570E-3	1.57559E-12	90.4688E-3	-23.2170E-3
892.946E-6	1.48014E-12	86.8180E-3	-20.8350E-3	1.57175E-12	83.5123E-3	-22.2574E-3
887.944E-6	1.61352E-12	90.5670E-3	-12.7513E-3	1.60975E-12	86.0041E-3	-21.3337E-3
882.941E-6	1.72442E-12	91.6134E-3	1.24234E-3	1.61588E-12	91.7989E-3	-11.3989E-3
877.939E-6	1.47079E-12	90.2419E-3	-1.39201E-3	1.42703E-12	77.6156E-3	-11.7228E-3
872.936E-6	1.35961E-12	89.5178E-3	-8.31989E-3	1.43811E-12	61.3750E-3	-15.5386E-3
867.934E-6	1.45514E-12	92.6657E-3	-6.78407E-3	1.51303E-12	66.0356E-3	-15.1688E-3
862.931E-6	1.51733E-12	96.1784E-3	-10.5346E-3	1.37768E-12	76.2480E-3	-15.7511E-3
857.929E-6	1.35240E-12	98.4586E-3	-16.6169E-3	1.29981E-12	74.9110E-3	-16.5751E-3
852.926E-6	1.28073E-12	94.2135E-3	-7.11437E-3	1.30985E-12	67.7520E-3	-15.3048E-3
847.924E-6	1.36738E-12	67.5798E-3	-1.82985E-3	1.41905E-12	60.2023E-3	-12.3797E-3
842.921E-6	1.37895E-12	51.6455E-3	-8.52379E-3	1.25351E-12	50.9261E-3	-11.3894E-3
837.919E-6	1.24723E-12	67.7096E-3	-8.91493E-3	1.20895E-12	52.9225E-3	-11.2389E-3
832.916E-6	1.21570E-12	77.8487E-3	-16.6394E-3	1.26268E-12	61.3866E-3	-16.9529E-3
827.914E-6	1.27119E-12	77.1375E-3	-38.0678E-3	1.28547E-12	61.1467E-3	-17.0247E-3
822.911E-6	1.27936E-12	68.4810E-3	-42.0701E-3	1.19531E-12	59.1315E-3	-11.3891E-3
817.909E-6	1.20495E-12	51.2629E-3	-25.7780E-3	1.13884E-12	59.8215E-3	-15.8333E-3
812.906E-6	1.21583E-12	49.5933E-3	-11.0356E-3	1.25015E-12	57.4427E-3	-17.2874E-3
807.904E-6	1.27745E-12	54.8348E-3	-15.0621E-3	1.18030E-12	51.3813E-3	-17.2322E-3
802.901E-6	1.16127E-12	44.7904E-3	-32.9229E-3	1.14474E-12	45.5935E-3	-21.4802E-3
797.899E-6	1.07754E-12	36.7383E-3	-37.7768E-3	1.05598E-12	38.6817E-3	-25.2700E-3
792.896E-6	1.17629E-12	37.2940E-3	-25.9969E-3	1.17765E-12	41.7292E-3	-34.8337E-3
787.894E-6	1.22088E-12	39.6395E-3	-11.8771E-3	1.09996E-12	54.9717E-3	-32.5616E-3
782.891E-6	1.05109E-12	42.6654E-3	-3.62953E-3	974.032E-15	49.2880E-3	-11.5993E-3
777.889E-6	1.00309E-12	45.4412E-3	-9.67793E-3	982.341E-15	34.3562E-3	-2.08572E-3
772.886E-6	1.10246E-12	44.4206E-3	-18.7094E-3	1.08069E-12	44.5608E-3	-7.94150E-3
767.884E-6	1.15702E-12	35.6463E-3	-11.7979E-3	1.03039E-12	52.6384E-3	-16.2206E-3
762.881E-6	964.624E-15	30.2973E-3	-10.2990E-3	932.772E-15	44.1845E-3	-18.9261E-3
757.879E-6	891.556E-15	33.1521E-3	-13.9713E-3	944.247E-15	45.8698E-3	-5.42581E-3
752.876E-6	1.03925E-12	37.0017E-3	-3.36270E-3	1.01057E-12	39.6587E-3	4.60751E-3
747.874E-6	1.08496E-12	37.9712E-3	-4.74530E-3	962.156E-15	27.3561E-3	-4.97934E-3
742.871E-6	906.326E-15	39.4546E-3	-14.7192E-3	842.510E-15	26.8547E-3	-20.5682E-3
737.869E-6	888.399E-15	38.2438E-3	-6.43310E-3	923.198E-15	34.1826E-3	-35.1579E-3
732.866E-6	979.028E-15	28.8921E-3	-3.39314E-3	976.874E-15	41.4885E-3	-40.0088E-3
727.864E-6	982.106E-15	19.3583E-3	-15.3592E-3	892.942E-15	38.1275E-3	-30.9188E-3
722.861E-6	914.392E-15	14.2085E-3	-22.9875E-3	776.095E-15	26.0292E-3	-22.8625E-3
717.859E-6	912.325E-15	15.6213E-3	-19.6896E-3	929.773E-15	16.7205E-3	-22.8230E-3
712.856E-6	942.076E-15	27.5236E-3	-7.79287E-3	963.543E-15	23.0127E-3	-22.5109E-3
707.854E-6	948.877E-15	35.2595E-3	-7.26668E-3	819.561E-15	26.7946E-3	-15.3806E-3
702.851E-6	847.349E-15	33.6266E-3	-19.1089E-3	797.143E-15	15.4680E-3	-5.80771E-3
697.849E-6	853.505E-15	35.6850E-3	-23.9619E-3	901.348E-15	12.1909E-3	7.93842E-3
692.846E-6	972.227E-15	32.9942E-3	-23.5197E-3	880.378E-15	10.6875E-3	13.0011E-3
687.844E-6	880.439E-15	25.7049E-3	-16.8206E-3	791.920E-15	2.48859E-3	4.81695E-3
682.841E-6	783.541E-15	23.0936E-3	-7.46007E-3	789.836E-15	9.75092E-3	2.62452E-3
677.839E-6	847.715E-15	22.3774E-3	-13.3947E-3	863.218E-15	19.5436E-3	-5.10460E-3
672.836E-6	924.096E-15	23.9567E-3	-24.3395E-3	805.453E-15	17.7652E-3	-17.2878E-3
667.834E-6	837.880E-15	24.5454E-3	-24.5343E-3	682.816E-15	16.2488E-3	-8.31745E-3
662.831E-6	695.188E-15	18.9129E-3	-13.5023E-3	730.676E-15	12.6959E-3	3.97945E-3
657.829E-6	859.460E-15	20.6061E-3	6.01602E-3	830.024E-15	6.58064E-3	-1.90609E-3
652.826E-6	918.856E-15	34.2381E-3	13.1191E-3	742.098E-15	20.2880E-3	-6.24358E-3
647.824E-6	724.912E-15	40.1346E-3	3.24261E-3	664.601E-15	37.5921E-3	-7.90193E-3
642.821E-6	711.738E-15	29.7989E-3	-2.84622E-3	694.491E-15	28.8131E-3	-19.4100E-3
637.819E-6	767.105E-15	16.8753E-3	-8.75834E-3	830.678E-15	16.7307E-3	-17.3902E-3
632.816E-6	863.183E-15	16.1639E-3	-18.8192E-3	780.097E-15	9.45864E-3	-3.80145E-3
627.814E-6	732.411E-15	22.3387E-3	-16.4020E-3	629.035E-15	2.60216E-3	-7.54847E-3
622.811E-6	640.632E-15	26.8624E-3	-4.99554E-3	668.254E-15	8.10032E-3	-11.8081E-3
617.809E-6	771.962E-15	25.6537E-3	-5.41634E-3	791.702E-15	19.5282E-3	-14.5061E-3
612.806E-6	806.795E-15	16.0821E-3	-14.8525E-3	683.269E-15	22.6767E-3	-25.5133E-3
607.804E-6	677.758E-15	8.98715E-3	-20.7881E-3	588.202E-15	18.1098E-3	-24.7416E-3
602.801E-6	642.960E-15	12.1484E-3	-29.1678E-3	644.538E-15	13.9748E-3	-16.9169E-3
597.799E-6	768.901E-15	13.4451E-3	-32.2138E-3	778.353E-15	6.61595E-3	-17.1331E-3
592.796E-6	774.857E-15	6.20600E-3	-28.4586E-3	707.971E-15	-8.16336E-3	-12.2734E-3
587.794E-6	678.979E-15	3.27987E-3	-26.6665E-3	607.847E-15	-6.53833E-3	-9.01574E-3
582.791E-6	656.039E-15	9.70155E-3	-17.0076E-3	684.734E-15	891.323E-6	-17.9219E-3
577.789E-6	751.733E-15	19.5734E-3	-15.3884E-3	722.157E-15	-2.63484E-3	-16.2321E-3
572.786E-6	719.184E-15	25.3589E-3	-23.5017E-3	640.065E-15	7.16267E-3	-7.88565E-3
567.784E-6	648.470E-15	22.5064E-3	-21.5454E-3	589.554E-15	16.3548E-3	-13.5749E-3
562.781E-6	682.074E-15	15.3672E-3	-20.9413E-3	692.503E-15	12.0377E-3	-19.8728E-3
557.779E-6	675.047E-15	13.9435E-3	-25.1769E-3	706.236E-15	17.5104E-3	-20.0028E-3
552.776E-6	591.952E-15	19.8122E-3	-24.0169E-3	600.688E-15	19.8703E-3	-25.1233E-3
547.774E-6	553.221E-15	21.5546E-3	-26.3671E-3	603.915E-15	3.57008E-3	-30.8806E-3
542.771E-6	686.652E-15	19.4174E-3	-32.8895E-3	666.885E-15	-6.21082E-3	-27.5763E-3
537.769E-6	742.421E-15	19.5577E-3	-27.1835E-3	659.954E-15	3.32752E-3	-23.4679E-3
532.766E-6	586.886E-15	12.8608E-3	-15.0985E-3	537.072E-15	13.8647E-3	-14.9060E-3
527.764E-6	497.487E-15	6.57481E-3	-18.6081E-3	576.850E-15	12.9137E-3	1.85462E-3
522.761E-6	678.168E-15	8.33803E-3	-22.1677E-3	686.129E-15	7.62388E-3	3.89285E-3
517.759E-6	696.043E-15	8.31870E-3	-8.90548E-3	659.823E-15	1.95624E-3	-2.26958E-3
512.756E-6	552.811E-15	5.62854E-3	-8.37351E-3	509.049E-15	1.16031E-3	-9.77645E-3
507.754E-6	517.157E-15	14.4068E-3	-12.7691E-3	523.113E-15	11.6434E-3	-23.0058E-3
502.751E-6	614.587E-15	26.4203E-3	-342.451E-6	672.658E-15	17.8549E-3	-28.5127E-3
497.749E-6	656.021E-15	10.3802E-3	2.68027E-3	653.240E-15	15.2087E-3	-21.0466E-3
492.746E-6	511.220E-15	-6.28405E-3	-13.1319E-3	482.263E-15	13.7178E-3	-18.2505E-3
487.744E-6	538.101E-15	-3.18876E-3	-22.1530E-3	506.860E-15	10.9039E-3	-27.2555E-3
482.741E-6	605.231E-15	-1.42931E-3	-23.1698E-3	629.567E-15	8.49034E-3	-24.8407E-3
477.739E-6	614.840E-15	5.75694E-3	-27.8421E-3	589.484E-15	13.1064E-3	-13.5729E-3
472.736E-6	525.842E-15	9.37479E-3	-27.5566E-3	448.580E-15	18.7015E-3	-7.55771E-3
467.734E-6	419.431E-15	172.642E-6	-30.4384E-3	504.785E-15	21.6480E-3	-10.6550E-3
462.731E-6	587.880E-15	2.63318E-3	-39.0979E-3	570.337E-15	26.8993E-3	-27.6624E-3
457.729E-6	570.729E-15	11.2205E-3	-35.5148E-3	475.758E-15	20.6675E-3	-37.2626E-3
452.726E-6	463.324E-15	11.4031E-3	-24.3366E-3	436.652E-15	14.1668E-3	-21.0256E-3
447.724E-6	501.585E-15	16.9397E-3	-17.4045E-3	538.520E-15	21.8602E-3	-7.51074E-3
442.721E-6	568.514E-15	24.3017E-3	-10.8326E-3	544.710E-15	15.4809E-3	-21.1554E-3
437.719E-6	524.874E-15	17.7189E-3	-11.7191E-3	438.719E-15	-2.18325E-3	-29.7843E-3
432.716E-6	471.085E-15	9.42205E-3	-21.8014E-3	442.477E-15	-9.51162E-3	-22.0965E-3
427.714E-6	516.844E-15	12.6469E-3	-27.5077E-3	484.190E-15	-4.93496E-3	-24.4668E-3
422.711E-6	542.618E-15	15.2640E-3	-25.2411E-3	529.007E-15	-320.862E-6	-27.8768E-3
417.709E-6	457.631E-15	12.8939E-3	-22.5407E-3	365.825E-15	7.03404E-3	-20.6260E-3
412.706E-6	367.220E-15	9.62127E-3	-28.8019E-3	357.664E-15	17.7784E-3	-23.9426E-3
407.704E-6	547.701E-15	509.391E-6	-27.6794E-3	485.254E-15	9.02483E-3	-28.2811E-3
402.701E-6	539.889E-15	-26.4023E-6	-20.2496E-3	437.995E-15	-697.554E-6	-11.2449E-3
397.699E-6	382.453E-15	15.3100E-3	-16.2935E-3	381.729E-15	2.88969E-3	-5.90476E-3
392.696E-6	342.196E-15	24.8201E-3	-8.90724E-3	404.216E-15	2.93806E-3	-22.9317E-3
387.694E-6	486.021E-15	25.5139E-3	-6.07314E-3	499.405E-15	5.32615E-3	-25.5552E-3
382.691E-6	481.373E-15	31.2729E-3	-1.62064E-3	440.768E-15	14.6122E-3	-21.3083E-3
377.689E-6	417.592E-15	25.7241E-3	-2.98837E-3	315.689E-15	21.1869E-3	-21.9370E-3
372.686E-6	295.303E-15	13.9905E-3	-11.2428E-3	352.807E-15	15.8562E-3	-16.2085E-3
367.684E-6	485.585E-15	16.1827E-3	-15.1256E-3	462.636E-15	8.88754E-3	-19.7378E-3
362.681E-6	509.615E-15	13.8186E-3	-20.1723E-3	412.255E-15	8.81669E-3	-21.2563E-3
357.679E-6	344.838E-15	12.8826E-3	-20.2862E-3	290.272E-15	13.1262E-3	-10.6175E-3
352.676E-6	285.529E-15	23.0973E-3	-17.5601E-3	344.803E-15	20.9749E-3	-17.6421E-3
347.674E-6	420.600E-15	28.3799E-3	-21.8724E-3	473.291E-15	13.1580E-3	-29.4484E-3
342.671E-6	434.664E-15	28.2811E-3	-23.0859E-3	367.534E-15	10.4191E-3	-26.1377E-3
337.669E-6	326.501E-15	27.4445E-3	-12.2169E-3	246.388E-15	33.2010E-3	-28.3717E-3
332.666E-6	291.275E-15	22.5178E-3	-3.07755E-3	348.674E-15	33.5409E-3	-33.1697E-3
327.664E-6	389.672E-15	22.7175E-3	-9.92648E-3	431.595E-15	11.4921E-3	-18.3324E-3
322.661E-6	371.493E-15	27.4445E-3	-17.3364E-3	291.179E-15	5.66541E-3	-5.39103E-3
317.659E-6	277.132E-15	23.5621E-3	-11.8940E-3	275.415E-15	794.765E-6	-15.6955E-3
312.656E-6	328.864E-15	20.5723E-3	-7.77453E-3	367.142E-15	-3.41874E-3	-22.8733E-3
307.654E-6	368.659E-15	31.2469E-3	-8.80402E-3	382.435E-15	11.3356E-3	-21.6183E-3
302.651E-6	325.995E-15	32.6029E-3	-8.38065E-3	253.686E-15	26.6707E-3	-27.5233E-3
297.649E-6	222.157E-15	21.3578E-3	-9.18877E-3	232.943E-15	28.9721E-3	-26.3502E-3
292.646E-6	355.240E-15	23.7214E-3	-10.0003E-3	353.557E-15	25.9674E-3	-19.1727E-3
287.644E-6	329.222E-15	30.8288E-3	-12.8406E-3	345.989E-15	19.2916E-3	-24.9916E-3
282.641E-6	202.504E-15	28.3314E-3	-20.2643E-3	241.505E-15	18.1758E-3	-30.3995E-3
277.639E-6	158.794E-15	18.9022E-3	-19.0674E-3	213.237E-15	27.0260E-3	-19.8951E-3
272.636E-6	310.083E-15	7.24552E-3	-12.7617E-3	316.369E-15	23.8426E-3	-10.8697E-3
267.634E-6	359.478E-15	5.54669E-3	-17.7159E-3	285.355E-15	11.0009E-3	-11.1366E-3
262.631E-6	229.229E-15	12.8748E-3	-17.5225E-3	177.872E-15	9.45139E-3	-11.9195E-3
257.629E-6	151.278E-15	14.7080E-3	3.72716E-3	173.216E-15	4.43127E-3	-11.2634E-3
252.626E-6	281.222E-15	18.7203E-3	15.5764E-3	310.196E-15	-8.29713E-3	-5.65970E-3
247.624E-6	310.615E-15	28.3276E-3	5.41090E-3	278.257E-15	-9.95431E-3	2.33949E-3
242.621E-6	162.648E-15	30.1950E-3	-6.17391E-3	137.606E-15	-619.777E-6	-2.28936E-3
237.619E-6	136.813E-15	19.9655E-3	-11.7207E-3	184.682E-15	11.4333E-3	-7.00306E-3
232.616E-6	264.167E-15	5.92245E-3	-14.2130E-3	303.691E-15	17.6124E-3	-2.91775E-3
227.614E-6	262.004E-15	8.49403E-3	-15.7797E-3	182.249E-15	16.5234E-3	-9.93991E-3
222.611E-6	141.198E-15	19.3163E-3	-21.5115E-3	97.0699E-15	17.5551E-3	-18.0067E-3
217.609E-6	126.332E-15	21.0789E-3	-31.0002E-3	197.237E-15	19.0849E-3	-13.5168E-3
212.606E-6	213.516E-15	17.5074E-3	-28.0958E-3	254.480E-15	23.1772E-3	-13.5527E-3
207.604E-6	225.462E-15	11.3724E-3	-12.5613E-3	121.676E-15	27.5127E-3	-17.7817E-3
202.601E-6	100.967E-15	7.27828E-3	-2.95777E-3	75.8820E-15	21.9859E-3	-19.7145E-3
197.599E-6	109.565E-15	11.3536E-3	-6.63088E-3	127.326E-15	16.5746E-3	-24.5357E-3
192.596E-6	162.386E-15	20.1919E-3	-13.3495E-3	168.019E-15	13.2318E-3	-22.1082E-3
187.594E-6	162.360E-15	22.7326E-3	-11.7274E-3	88.1675E-15	12.8851E-3	-7.56688E-3
182.591E-6	21.6479E-15	19.3749E-3	-11.2256E-3	75.6030E-15	14.4690E-3	-10.9688E-3
177.589E-6	97.9855E-15	11.5974E-3	-15.0055E-3	132.941E-15	6.90904E-3	-25.8705E-3
172.586E-6	181.037E-15	5.27655E-3	-20.0077E-3	179.180E-15	2.97819E-3	-16.3525E-3
167.584E-6	39.6359E-15	8.66115E-3	-26.7931E-3	16.2245E-15	16.4036E-3	-11.2426E-3
162.581E-6	-38.4630E-15	5.44058E-3	-26.6761E-3	63.9104E-15	21.0460E-3	-30.3635E-3
157.579E-6	142.253E-15	-10.2830E-3	-17.7143E-3	114.788E-15	13.0932E-3	-34.4426E-3
152.576E-6	165.325E-15	-9.84096E-3	-8.78293E-3	115.790E-15	22.0580E-3	-17.6517E-3
147.574E-6	15.7537E-15	10.0378E-3	-7.69629E-3	-13.6042E-15	29.2345E-3	-7.64144E-3
142.571E-6	-50.0073E-15	19.3755E-3	-15.3406E-3	10.2780E-15	17.4207E-3	-8.19422E-3
137.569E-6	90.1381E-15	18.4365E-3	-13.7820E-3	141.783E-15	15.8432E-3	-16.4773E-3
132.566E-6	140.701E-15	19.1367E-3	-11.3063E-3	87.3305E-15	23.6815E-3	-26.1329E-3
127.564E-6	-4.10018E-15	23.0421E-3	-29.6363E-3	-41.0875E-15	31.6415E-3	-24.2665E-3
122.561E-6	-63.6007E-15	33.3133E-3	-43.2623E-3	-27.5290E-15	44.9024E-3	-12.9790E-3
117.559E-6	87.9060E-15	35.6363E-3	-35.3533E-3	59.7164E-15	42.1734E-3	-12.9005E-3
112.556E-6	43.7601E-15	24.4821E-3	-22.1612E-3	8.78696E-15	25.9341E-3	-19.8973E-3
107.554E-6	-31.6270E-15	23.3677E-3	-23.5052E-3	-82.5391E-15	22.0098E-3	-23.8793E-3
102.551E-6	-133.216E-15	20.7280E-3	-25.3273E-3	-32.7693E-15	28.1907E-3	-23.8390E-3
97.5488E-6	53.4473E-15	6.77981E-3	-18.8800E-3	40.5252E-15	23.3661E-3	-18.3334E-3
92.5463E-6	57.2837E-15	8.46756E-3	-18.7062E-3	-10.7356E-15	7.68535E-3	-21.4555E-3
87.5438E-6	-20.5012E-15	19.3107E-3	-19.4127E-3	-140.906E-15	545.620E-6	-27.0858E-3
82.5413E-6	-95.0862E-15	18.4509E-3	-21.6318E-3	-11.0320E-15	5.79291E-3	-24.2076E-3
77.5388E-6	-17.5802E-15	14.6723E-3	-16.2254E-3	66.6221E-15	20.0481E-3	-20.1286E-3
72.5363E-6	-77.4121E-15	23.2927E-3	980.687E-6	-105.017E-15	33.1415E-3	-19.7093E-3
67.5338E-6	-117.878E-15	25.6866E-3	1.06427E-3	-105.000E-15	33.7627E-3	-10.3982E-3
62.5313E-6	-72.1457E-15	15.4327E-3	-15.2047E-3	-19.9868E-15	36.1493E-3	1.22972E-3
57.5288E-6	5.12485E-15	8.43827E-3	-18.8786E-3	-29.6652E-15	42.9443E-3	-4.34137E-3
52.5263E-6	-63.5659E-15	4.23493E-3	-10.0748E-3	-96.3417E-15	27.1637E-3	-17.3115E-3
47.5238E-6	-164.919E-15	3.48141E-3	-4.65522E-3	-127.356E-15	9.25803E-3	-18.8548E-3
42.5213E-6	-46.4324E-15	11.6661E-3	-8.80633E-3	-11.1192E-15	12.3143E-3	-16.5717E-3
37.5188E-6	-20.8238E-15	18.3878E-3	-16.6634E-3	-45.3251E-15	8.79860E-3	-16.1855E-3
32.5163E-6	-192.149E-15	7.75055E-3	-20.3289E-3	-145.510E-15	5.25712E-3	-8.51499E-3
27.5138E-6	-218.508E-15	3.13885E-3	-13.9978E-3	-149.059E-15	19.9685E-3	-8.11483E-3
22.5113E-6	-81.8590E-15	15.3589E-3	-2.30399E-3	-78.0661E-15	31.5989E-3	-13.7546E-3
17.5088E-6	-84.3527E-15	22.2606E-3	390.032E-6	-119.797E-15	27.4002E-3	-14.9896E-3
12.5063E-6	-182.384E-15	23.1357E-3	-10.9363E-3	-231.465E-15	22.3152E-3	-23.8391E-3
7.50375E-6	-260.021E-15	21.1911E-3	-23.7309E-3	-180.239E-15	9.47772E-3	-31.3923E-3
2.50125E-6	-85.6083E-15	14.7643E-3	-30.2448E-3	-86.5499E-15	2.08873E-3	-21.5025E-3
-2.50125E-6	-84.1347E-15	12.1824E-3	-29.4320E-3	-152.965E-15	24.9663E-3	-14.0312E-3
-7.50375E-6	-255.094E-15	10.9105E-3	-21.5014E-3	-247.578E-15	31.8755E-3	-24.3075E-3
-12.5063E-6	-268.609E-15	6.67106E-3	-21.8050E-3	-182.070E-15	11.8120E-3	-25.9244E-3
-17.5088E-6	-137.706E-15	17.4015E-3	-31.7430E-3	-96.4028E-15	6.35028E-3	-12.3545E-3
-22.5113E-6	-132.675E-15	30.0603E-3	-26.9221E-3	-206.231E-15	17.8805E-3	-9.03361E-3
-27.5138E-6	-256.315E-15	24.1263E-3	-17.4784E-3	-273.937E-15	25.3282E-3	-8.79177E-3
-32.5163E-6	-304.062E-15	17.2308E-3	-15.6410E-3	-228.439E-15	28.2730E-3	-10.6871E-3
-37.5188E-6	-207.548E-15	14.1114E-3	-10.2613E-3	-130.530E-15	20.5843E-3	-20.9431E-3
-42.5213E-6	-179.350E-15	20.3253E-3	-6.60467E-3	-208.664E-15	8.72366E-3	-23.4424E-3
-47.5238E-6	-313.522E-15	31.4733E-3	-2.28480E-3	-328.528E-15	24.0985E-3	-24.1605E-3
-52.5263E-6	-275.271E-15	34.1543E-3	5.93764E-3	-222.240E-15	38.5297E-3	-23.9589E-3
-57.5288E-6	-210.591E-15	36.8528E-3	2.20296E-3	-181.041E-15	22.5301E-3	-9.54408E-3
-62.5313E-6	-256.733E-15	40.1882E-3	-11.7347E-3	-305.963E-15	25.9321E-3	-3.56893E-3
-67.5338E-6	-330.577E-15	35.6362E-3	-15.4119E-3	-345.138E-15	38.7850E-3	-17.8938E-3
-72.5363E-6	-289.797E-15	24.7711E-3	-16.2903E-3	-234.142E-15	17.1417E-3	-19.8346E-3
-77.5388E-6	-214.968E-15	28.9235E-3	-18.4622E-3	-231.343E-15	11.6683E-3	-8.30991E-3
-82.5413E-6	-322.739E-15	38.6715E-3	-16.9725E-3	-357.904E-15	32.2590E-3	-15.8562E-3
-87.5438E-6	-381.803E-15	36.1764E-3	-21.7033E-3	-339.209E-15	30.5037E-3	-26.1220E-3
-92.5463E-6	-281.854E-15	31.1262E-3	-24.3527E-3	-254.597E-15	26.3310E-3	-11.0446E-3
-97.5488E-6	-237.211E-15	35.9534E-3	-13.0062E-3	-299.109E-15	33.0101E-3	-3.58479E-3
-102.551E-6	-369.544E-15	37.3631E-3	-13.3479E-3	-374.191E-15	23.9148E-3	-7.93588E-3
-107.554E-6	-444.024E-15	24.3776E-3	-29.1073E-3	-365.393E-15	11.6660E-3	1.62808E-3
-112.556E-6	-308.500E-15	23.6479E-3	-28.6765E-3	-336.166E-15	19.4916E-3	1.51862E-3
-117.559E-6	-267.920E-15	23.8157E-3	-16.5997E-3	-349.158E-15	28.0186E-3	-15.2147E-3
-122.561E-6	-404.029E-15	12.2416E-3	-8.90825E-3	-492.948E-15	24.3062E-3	-22.7612E-3
-127.564E-6	-489.574E-15	11.4491E-3	-3.65638E-3	-401.718E-15	29.4589E-3	-20.8897E-3
-132.566E-6	-335.408E-15	14.3061E-3	-7.18410E-3	-321.779E-15	28.4191E-3	-13.7121E-3
-137.569E-6	-346.150E-15	16.9559E-3	-20.0295E-3	-358.191E-15	18.4604E-3	-2.76918E-3
-142.571E-6	-446.448E-15	30.4699E-3	-21.3543E-3	-522.725E-15	33.4254E-3	-10.5526E-3
-147.574E-6	-500.473E-15	41.3970E-3	-11.4833E-3	-442.803E-15	49.3931E-3	-29.8370E-3
-152.576E-6	-426.751E-15	36.3963E-3	-11.1464E-3	-341.747E-15	44.3639E-3	-29.6736E-3
-157.579E-6	-373.136E-15	31.4254E-3	-20.0958E-3	-447.181E-15	36.7743E-3	-18.7393E-3
-162.581E-6	-477.654E-15	35.2118E-3	-24.3371E-3	-509.053E-15	23.5391E-3	-13.3857E-3
-167.584E-6	-530.886E-15	31.6100E-3	-22.8688E-3	-453.406E-15	16.3505E-3	-2.41605E-3
-172.586E-6	-423.455E-15	21.8605E-3	-14.5128E-3	-383.207E-15	35.5495E-3	-4.46452E-3
-177.589E-6	-498.895E-15	18.3646E-3	-8.32440E-3	-477.088E-15	43.2299E-3	-27.6865E-3
-182.591E-6	-583.960E-15	19.0861E-3	-11.6894E-3	-550.487E-15	25.6898E-3	-29.0239E-3
-187.594E-6	-520.955E-15	23.6420E-3	-15.4613E-3	-476.085E-15	24.3826E-3	-21.4513E-3
-192.596E-6	-466.424E-15	32.4235E-3	-23.0020E-3	-453.057E-15	35.0698E-3	-36.4920E-3
-197.599E-6	-544.471E-15	32.5106E-3	-32.7377E-3	-587.091E-15	32.8426E-3	-41.5939E-3
-202.601E-6	-614.504E-15	26.5110E-3	-30.6367E-3	-591.468E-15	34.4284E-3	-26.1804E-3
-207.604E-6	-532.647E-15	27.7833E-3	-12.4519E-3	-481.936E-15	44.3980E-3	-26.7851E-3
-212.606E-6	-465.735E-15	23.1459E-3	4.04694E-3	-523.108E-15	41.5880E-3	-33.8640E-3
-217.609E-6	-638.064E-15	20.6742E-3	-1.64505E-3	-637.340E-15	35.5611E-3	-28.2431E-3
-222.611E-6	-703.223E-15	43.7722E-3	-11.7781E-3	-604.468E-15	32.3115E-3	-30.0294E-3
-227.614E-6	-559.764E-15	52.9519E-3	-13.3768E-3	-539.553E-15	31.3662E-3	-30.6341E-3
-232.616E-6	-516.133E-15	38.4899E-3	-16.9234E-3	-571.509E-15	42.4724E-3	-17.9493E-3
-237.619E-6	-663.463E-15	37.8835E-3	-9.77134E-3	-718.334E-15	42.6878E-3	-16.3722E-3
-242.621E-6	-737.926E-15	28.6195E-3	1.06529E-3	-683.692E-15	27.3118E-3	-17.5401E-3
-247.624E-6	-628.115E-15	14.0880E-3	-4.46995E-3	-567.455E-15	32.9094E-3	-8.29210E-3
-252.626E-6	-600.588E-15	20.7083E-3	-10.4186E-3	-630.966E-15	50.8786E-3	-22.4397E-3
-257.629E-6	-714.950E-15	27.5931E-3	-11.5172E-3	-749.618E-15	49.2827E-3	-36.0366E-3
-262.631E-6	-790.338E-15	34.2385E-3	-20.7769E-3	-729.346E-15	41.4035E-3	-19.1122E-3
-267.634E-6	-662.478E-15	36.9507E-3	-23.7259E-3	-608.313E-15	36.3939E-3	-8.27931E-3
-272.636E-6	-652.956E-15	28.2214E-3	-12.8065E-3	-698.445E-15	25.9532E-3	-10.3605E-3
-277.639E-6	-781.923E-15	21.6884E-3	-9.29543E-3	-842.122E-15	21.6421E-3	-6.97155E-3
-282.641E-6	-778.192E-15	19.4465E-3	-6.67580E-3	-767.746E-15	21.9542E-3	-4.49269E-3
-287.644E-6	-712.910E-15	18.2707E-3	1.00640E-3	-656.444E-15	21.6798E-3	-7.02552E-3
-292.646E-6	-726.259E-15	21.2452E-3	-5.98411E-3	-770.894E-15	28.6465E-3	-8.01981E-3
-297.649E-6	-813.845E-15	25.0829E-3	-14.3141E-3	-873.258E-15	40.0496E-3	-13.7082E-3
-302.651E-6	-822.695E-15	24.9197E-3	-6.65620E-3	-776.535E-15	33.4915E-3	-14.6529E-3
-307.654E-6	-714.820E-15	26.6470E-3	-5.97210E-3	-761.825E-15	13.2053E-3	-6.04344E-3
-312.656E-6	-804.149E-15	37.0647E-3	-22.3734E-3	-876.851E-15	18.7825E-3	-6.99984E-3
-317.659E-6	-880.120E-15	39.7443E-3	-25.9527E-3	-897.620E-15	28.9648E-3	-8.11904E-3
-322.661E-6	-854.407E-15	33.3940E-3	-18.9086E-3	-824.962E-15	29.5888E-3	2.73480E-3
-327.664E-6	-792.988E-15	41.1016E-3	-20.1707E-3	-863.981E-15	38.3554E-3	1.59446E-3
-332.666E-6	-869.457E-15	46.2710E-3	-19.8457E-3	-975.789E-15	27.8117E-3	-15.0838E-3
-337.669E-6	-996.854E-15	40.3607E-3	-20.2069E-3	-964.157E-15	13.4993E-3	-20.1507E-3
-342.671E-6	-828.580E-15	36.8531E-3	-24.8383E-3	-842.078E-15	31.7462E-3	-16.7487E-3
-347.674E-6	-800.949E-15	30.9932E-3	-25.0742E-3	-853.021E-15	41.7766E-3	-18.7945E-3
-352.676E-6	-1.05544E-12	22.9424E-3	-26.1938E-3	-1.01119E-12	21.7594E-3	-22.5420E-3
-357.679E-6	-1.01604E-12	20.3311E-3	-21.6329E-3	-1.00013E-12	19.8398E-3	-18.1061E-3
-362.681E-6	-964.785E-15	31.8709E-3	-10.2194E-3	-903.767E-15	34.6484E-3	-10.5187E-3
-367.684E-6	-879.414E-15	43.4297E-3	-18.1202E-3	-930.614E-15	34.2130E-3	-15.1560E-3
-372.686E-6	-1.02591E-12	42.5085E-3	-32.4523E-3	-1.02150E-12	34.4254E-3	-18.9524E-3
-377.689E-6	-1.11293E-12	38.9643E-3	-24.7803E-3	-1.05340E-12	38.8870E-3	-18.7601E-3
-382.691E-6	-937.493E-15	36.5479E-3	-6.45821E-3	-913.498E-15	31.5845E-3	-15.2230E-3
-387.694E-6	-935.087E-15	35.5343E-3	-4.69764E-3	-981.910E-15	32.0485E-3	-4.29696E-3
-392.696E-6	-1.09761E-12	40.4791E-3	-16.3409E-3	-1.12926E-12	45.8782E-3	-8.82631E-3
-397.699E-6	-1.15801E-12	49.6461E-3	-20.4251E-3	-1.06777E-12	42.3698E-3	-17.3548E-3
-402.701E-6	-1.06774E-12	52.1999E-3	-23.2502E-3	-1.00831E-12	38.0582E-3	-5.61326E-3
-407.704E-6	-991.544E-15	47.6404E-3	-30.4667E-3	-1.07435E-12	47.3833E-3	-2.05441E-3
-412.706E-6	-1.09286E-12	43.7257E-3	-25.1620E-3	-1.18449E-12	32.5005E-3	-22.7758E-3
-417.709E-6	-1.21086E-12	49.0141E-3	-10.0403E-3	-1.10723E-12	12.6419E-3	-30.9732E-3
-422.711E-6	-1.12700E-12	59.6327E-3	-3.37161E-3	-1.03818E-12	23.8207E-3	-35.1626E-3
-427.714E-6	-1.13951E-12	50.3730E-3	-9.78605E-3	-1.16929E-12	34.4253E-3	-42.5429E-3
-432.716E-6	-1.23054E-12	29.0591E-3	-24.2891E-3	-1.24598E-12	31.1585E-3	-18.1789E-3
-437.719E-6	-1.16350E-12	26.1454E-3	-28.2653E-3	-1.12461E-12	39.5291E-3	-4.37614E-3
-442.721E-6	-1.13296E-12	28.2773E-3	-21.3667E-3	-1.12920E-12	50.2974E-3	-17.5238E-3
-447.724E-6	-1.19443E-12	25.4400E-3	-27.7589E-3	-1.26257E-12	40.4053E-3	-13.8665E-3
-452.726E-6	-1.28362E-12	30.9955E-3	-29.7937E-3	-1.29820E-12	32.5214E-3	-7.16254E-3
-457.729E-6	-1.15964E-12	37.6229E-3	-10.6354E-3	-1.19653E-12	36.9663E-3	-16.4438E-3
-462.731E-6	-1.14528E-12	38.0451E-3	1.23268E-3	-1.16934E-12	34.8529E-3	-18.3510E-3
-467.734E-6	-1.33821E-12	33.7333E-3	-5.60339E-3	-1.30927E-12	33.9997E-3	-12.2351E-3
-472.736E-6	-1.36947E-12	28.2316E-3	-17.9984E-3	-1.32228E-12	31.0564E-3	-16.7366E-3
-477.739E-6	-1.18765E-12	35.2229E-3	-28.1639E-3	-1.20864E-12	22.4799E-3	-12.1874E-3
-482.741E-6	-1.20638E-12	47.3729E-3	-33.2124E-3	-1.22935E-12	25.7583E-3	-4.73748E-3
-487.744E-6	-1.32440E-12	43.6751E-3	-34.3847E-3	-1.32758E-12	37.3405E-3	-14.6048E-3
-492.746E-6	-1.44541E-12	32.0484E-3	-32.1414E-3	-1.34278E-12	37.6839E-3	-15.2934E-3
-497.749E-6	-1.26058E-12	30.3460E-3	-28.2068E-3	-1.21138E-12	34.3524E-3	-13.1851E-3
-502.751E-6	-1.26411E-12	25.5058E-3	-24.3529E-3	-1.28152E-12	30.6399E-3	-20.4104E-3
-507.754E-6	-1.42423E-12	21.0812E-3	-19.8815E-3	-1.42926E-12	23.1044E-3	-14.6106E-3
-512.756E-6	-1.48885E-12	31.6891E-3	-19.0520E-3	-1.38029E-12	25.9288E-3	-11.6629E-3
-517.759E-6	-1.34557E-12	41.5123E-3	-22.0485E-3	-1.26028E-12	26.4288E-3	-25.6827E-3
-522.761E-6	-1.28003E-12	38.6236E-3	-30.7297E-3	-1.35081E-12	22.0194E-3	-29.5638E-3
-527.764E-6	-1.44469E-12	30.2770E-3	-36.0573E-3	-1.48586E-12	34.2615E-3	-19.1821E-3
-532.766E-6	-1.45651E-12	20.8925E-3	-23.7521E-3	-1.44667E-12	45.4261E-3	-18.3398E-3
-537.769E-6	-1.34795E-12	17.1305E-3	-16.4318E-3	-1.37973E-12	41.1108E-3	-17.6730E-3
-542.771E-6	-1.35854E-12	34.5486E-3	-31.5972E-3	-1.41533E-12	40.1514E-3	-7.01096E-3
-547.774E-6	-1.47126E-12	43.8237E-3	-33.2147E-3	-1.56786E-12	42.6671E-3	-13.0126E-3
-552.776E-6	-1.46013E-12	25.0479E-3	-14.3982E-3	-1.46688E-12	25.1129E-3	-17.4410E-3
-557.779E-6	-1.36690E-12	24.2212E-3	-5.85917E-3	-1.41294E-12	7.01506E-3	-4.49899E-3
-562.781E-6	-1.45112E-12	40.5987E-3	-9.43495E-3	-1.50008E-12	11.4889E-3	-10.7450E-3
-567.784E-6	-1.56189E-12	32.3037E-3	-19.6295E-3	-1.52535E-12	10.2097E-3	-24.5437E-3
-572.786E-6	-1.50032E-12	18.9524E-3	-33.0116E-3	-1.42558E-12	17.3033E-3	-21.8064E-3
-577.789E-6	-1.46460E-12	25.4969E-3	-30.2900E-3	-1.43446E-12	39.7158E-3	-15.7568E-3
-582.791E-6	-1.56745E-12	27.5759E-3	-8.32792E-3	-1.51418E-12	36.9284E-3	-19.6931E-3
-587.794E-6	-1.65409E-12	16.2934E-3	-4.80307E-3	-1.55715E-12	28.4055E-3	-23.1739E-3
-592.796E-6	-1.49105E-12	12.2790E-3	-19.5893E-3	-1.43465E-12	31.5615E-3	-25.0998E-3
-597.799E-6	-1.49660E-12	18.3539E-3	-19.7996E-3	-1.44336E-12	29.3095E-3	-33.6612E-3
-602.801E-6	-1.67766E-12	24.9483E-3	-15.9629E-3	-1.57365E-12	31.8412E-3	-27.6206E-3
-607.804E-6	-1.72097E-12	31.6539E-3	-15.2213E-3	-1.57909E-12	33.2948E-3	-10.6313E-3
-612.806E-6	-1.55408E-12	39.4664E-3	-5.68896E-3	-1.49812E-12	21.2589E-3	-9.16477E-3
-617.809E-6	-1.47905E-12	41.3936E-3	-5.44795E-3	-1.55988E-12	11.1574E-3	-13.3647E-3
-622.811E-6	-1.67298E-12	37.5126E-3	-17.1383E-3	-1.65520E-12	25.7432E-3	-13.2340E-3
-627.814E-6	-1.76929E-12	36.4534E-3	-22.8164E-3	-1.66978E-12	46.8268E-3	-12.4594E-3
-632.816E-6	-1.60395E-12	36.5968E-3	-21.8455E-3	-1.52260E-12	47.9711E-3	-7.14325E-3
-637.819E-6	-1.57564E-12	39.3290E-3	-18.9908E-3	-1.59931E-12	38.9547E-3	-12.4468E-3
-642.821E-6	-1.69694E-12	42.8743E-3	-13.0711E-3	-1.75005E-12	26.2885E-3	-29.0919E-3
-647.824E-6	-1.72467E-12	34.9054E-3	-4.88375E-3	-1.65229E-12	21.8870E-3	-33.8305E-3
-652.826E-6	-1.65754E-12	29.9660E-3	1.88606E-3	-1.57217E-12	29.8158E-3	-38.3287E-3
-657.829E-6	-1.64059E-12	37.6196E-3	1.84020E-3	-1.67196E-12	23.7449E-3	-44.7337E-3
-662.831E-6	-1.73733E-12	38.8552E-3	-17.1561E-3	-1.73470E-12	13.8378E-3	-27.6595E-3
-667.834E-6	-1.74205E-12	35.5262E-3	-39.1616E-3	-1.70414E-12	21.2529E-3	-12.3374E-3
-672.836E-6	-1.66598E-12	27.6866E-3	-34.8892E-3	-1.58912E-12	28.5551E-3	-16.7023E-3
-677.839E-6	-1.75037E-12	8.63486E-3	-20.2220E-3	-1.73258E-12	35.6861E-3	-13.0921E-3
-682.841E-6	-1.77843E-12	5.15479E-3	-20.1664E-3	-1.75829E-12	49.8808E-3	-3.45673E-3
-687.844E-6	-1.73630E-12	20.4166E-3	-20.3045E-3	-1.66663E-12	50.0142E-3	-4.44594E-3
-692.846E-6	-1.74024E-12	35.0062E-3	-15.2619E-3	-1.68259E-12	32.3839E-3	-5.08465E-3
-697.849E-6	-1.82973E-12	45.3115E-3	-17.1536E-3	-1.72993E-12	26.5568E-3	-2.80277E-3
-702.851E-6	-1.88782E-12	45.7213E-3	-18.7804E-3	-1.78416E-12	32.3043E-3	-18.2647E-3
-707.854E-6	-1.74627E-12	31.6557E-3	-15.8187E-3	-1.73496E-12	30.8977E-3	-28.6427E-3
-712.856E-6	-1.70051E-12	29.0329E-3	-19.1782E-3	-1.75964E-12	33.5215E-3	-9.72818E-3
-717.859E-6	-1.89666E-12	45.2395E-3	-24.3102E-3	-1.84462E-12	41.2928E-3	-7.51360E-3
-722.861E-6	-1.93298E-12	43.5808E-3	-18.9241E-3	-1.84960E-12	33.6436E-3	-26.6476E-3
-727.864E-6	-1.76683E-12	29.9572E-3	-7.58150E-3	-1.79119E-12	22.1903E-3	-25.3956E-3
-732.866E-6	-1.75111E-12	31.8834E-3	-2.57148E-3	-1.85811E-12	27.6680E-3	-20.3901E-3
-737.869E-6	-1.95393E-12	40.0673E-3	-5.79280E-3	-1.98511E-12	32.7059E-3	-25.6018E-3
-742.871E-6	-2.01739E-12	43.0637E-3	-13.3842E-3	-1.93140E-12	33.7104E-3	-25.2149E-3
-747.874E-6	-1.91469E-12	52.5490E-3	-15.1329E-3	-1.91099E-12	41.4929E-3	-20.5017E-3
-752.876E-6	-1.80022E-12	57.7038E-3	-6.18277E-3	-1.93659E-12	41.5647E-3	-20.9771E-3
-757.879E-6	-2.01654E-12	56.3373E-3	-10.7372E-3	-2.06207E-12	37.6126E-3	-26.9213E-3
-762.881E-6	-2.04688E-12	64.7406E-3	-25.4442E-3	-2.01523E-12	46.2406E-3	-30.1090E-3
-767.884E-6	-1.95635E-12	61.0060E-3	-26.9608E-3	-1.86447E-12	47.8126E-3	-25.9887E-3
-772.886E-6	-1.95082E-12	48.6345E-3	-24.3498E-3	-2.01193E-12	42.9125E-3	-19.4849E-3
-777.889E-6	-2.03868E-12	46.4768E-3	-20.8451E-3	-2.10537E-12	53.5729E-3	-24.4748E-3
-782.891E-6	-2.06206E-12	42.2777E-3	-19.6540E-3	-2.03810E-12	60.4999E-3	-31.4238E-3
-787.894E-6	-2.01195E-12	49.3564E-3	-28.5074E-3	-1.97561E-12	56.9375E-3	-23.8063E-3
-792.896E-6	-2.00440E-12	70.0302E-3	-31.0730E-3	-2.02417E-12	63.8122E-3	-17.9078E-3
-797.899E-6	-2.13196E-12	75.4275E-3	-23.0483E-3	-2.16014E-12	67.0535E-3	-25.2242E-3
-802.901E-6	-2.14682E-12	69.2498E-3	-18.6800E-3	-2.08654E-12	57.8306E-3	-31.0530E-3
-807.904E-6	-2.04318E-12	64.7825E-3	-15.5222E-3	-2.04316E-12	59.5948E-3	-28.5593E-3
-812.906E-6	-2.19243E-12	58.8232E-3	-9.14102E-3	-2.19755E-12	60.6482E-3	-27.9306E-3
-817.909E-6	-2.28071E-12	51.5399E-3	-18.3169E-3	-2.23439E-12	54.3235E-3	-20.0520E-3
-822.911E-6	-2.24000E-12	58.7266E-3	-35.9279E-3	-2.15213E-12	65.7556E-3	-5.26304E-3
-827.914E-6	-2.20564E-12	75.6597E-3	-29.6857E-3	-2.18753E-12	80.9042E-3	-9.55429E-3
-832.916E-6	-2.31424E-12	76.0302E-3	-10.2836E-3	-2.27549E-12	79.2727E-3	-18.2275E-3
-837.919E-6	-2.44097E-12	71.4871E-3	-3.75632E-3	-2.35093E-12	85.8497E-3	-17.5998E-3
-842.921E-6	-2.35281E-12	72.1443E-3	-9.56717E-3	-2.27215E-12	98.4463E-3	-26.3807E-3
-847.924E-6	-2.26915E-12	66.8509E-3	-18.2013E-3	-2.29442E-12	92.1275E-3	-29.9800E-3
-852.926E-6	-2.45498E-12	72.4122E-3	-20.9676E-3	-2.43625E-12	89.8583E-3	-18.4711E-3
-857.929E-6	-2.51875E-12	86.1103E-3	-12.2069E-3	-2.44393E-12	102.612E-3	-16.4519E-3
-862.931E-6	-2.41523E-12	82.8635E-3	-5.74500E-3	-2.36121E-12	106.642E-3	-16.8835E-3
-867.934E-6	-2.38596E-12	86.1474E-3	-13.7674E-3	-2.41250E-12	110.268E-3	-5.44075E-3
-872.936E-6	-2.54724E-12	104.751E-3	-23.7721E-3	-2.58358E-12	114.616E-3	-5.79976E-3
-877.939E-6	-2.65783E-12	106.616E-3	-34.2093E-3	-2.56370E-12	103.035E-3	-16.3843E-3
-882.941E-6	-2.50413E-12	96.9123E-3	-45.7170E-3	-2.45257E-12	102.064E-3	-13.2968E-3
-887.944E-6	-2.48765E-12	97.2829E-3	-40.6974E-3	-2.54230E-12	115.447E-3	-12.3459E-3
-892.946E-6	-2.63790E-12	99.0017E-3	-28.7979E-3	-2.71327E-12	118.034E-3	-15.7604E-3
-897.949E-6	-2.71119E-12	97.9553E-3	-29.0503E-3	-2.61792E-12	123.943E-3	-4.68733E-3
-902.951E-6	-2.66052E-12	110.137E-3	-27.8895E-3	-2.58529E-12	130.572E-3	-7.59623E-3
-907.954E-6	-2.66363E-12	125.226E-3	-23.4501E-3	-2.71180E-12	120.603E-3	-24.2403E-3
-912.956E-6	-2.83608E-12	119.265E-3	-35.2053E-3	-2.85342E-12	118.172E-3	-19.0474E-3
-917.959E-6	-2.89586E-12	109.501E-3	-38.1298E-3	-2.81804E-12	129.512E-3	-12.6678E-3
-922.961E-6	-2.87797E-12	113.187E-3	-19.2643E-3	-2.77213E-12	131.587E-3	-17.5735E-3
-927.964E-6	-2.99062E-12	126.084E-3	-16.6209E-3	-2.95131E-12	125.746E-3	-23.6941E-3
-932.966E-6	-3.11587E-12	143.043E-3	-24.3688E-3	-3.04986E-12	130.437E-3	-35.3906E-3
-937.969E-6	-3.03018E-12	146.960E-3	-16.9112E-3	-2.96872E-12	145.566E-3	-36.5089E-3
-942.971E-6	-3.04701E-12	144.609E-3	-11.3289E-3	-3.04095E-12	154.474E-3	-14.9631E-3
-947.974E-6	-3.16964E-12	155.757E-3	-15.7645E-3	-3.22027E-12	159.997E-3	-9.53096E-3
-952.976E-6	-3.32287E-12	160.150E-3	-12.5660E-3	-3.27072E-12	160.551E-3	-31.6040E-3
-957.979E-6	-3.25181E-12	147.881E-3	-8.70068E-3	-3.24488E-12	150.287E-3	-34.0436E-3
-962.981E-6	-3.19473E-12	148.184E-3	-5.12792E-3	-3.26054E-12	154.426E-3	-26.1388E-3
-967.984E-6	-3.44470E-12	166.643E-3	6.99312E-3	-3.46890E-12	172.005E-3	-26.4088E-3
-972.986E-6	-3.54209E-12	179.699E-3	1.71512E-3	-3.50520E-12	179.652E-3	-17.0355E-3
-977.989E-6	-3.40805E-12	178.259E-3	-13.6844E-3	-3.45852E-12	185.169E-3	-18.7752E-3
-982.991E-6	-3.43468E-12	170.076E-3	-4.63356E-3	-3.58229E-12	190.011E-3	-29.7474E-3
-987.994E-6	-3.64649E-12	166.805E-3	-4.62021E-3	-3.71545E-12	192.174E-3	-15.7312E-3
-992.997E-6	-3.76548E-12	172.920E-3	-19.9436E-3	-3.68414E-12	198.405E-3	722.866E-6
-997.999E-6	-3.69912E-12	190.368E-3	-17.7013E-3	-3.67148E-12	207.240E-3	-3.28455E-3
-1.00300E-3	-3.65543E-12	202.608E-3	-15.7012E-3	-3.76039E-12	215.091E-3	-9.00213E-3
-1.00800E-3	-3.91920E-12	194.588E-3	-17.3101E-3	-3.85069E-12	226.656E-3	-10.5995E-3
-1.01301E-3	-4.06334E-12	185.972E-3	-13.8310E-3	-3.87098E-12	234.977E-3	-15.1190E-3
-1.01801E-3	-4.01374E-12	190.087E-3	-15.0945E-3	-3.87436E-12	227.117E-3	-18.7379E-3
-1.02301E-3	-4.01757E-12	204.071E-3	-11.3470E-3	-4.02439E-12	233.727E-3	-13.1004E-3
-1.02801E-3	-4.30326E-12	219.102E-3	-1.72899E-3	-4.18678E-12	263.668E-3	-14.9661E-3
-1.03302E-3	-4.37890E-12	225.891E-3	-10.8722E-3	-4.19821E-12	283.260E-3	-25.9951E-3
-1.03802E-3	-4.32991E-12	233.154E-3	-28.7636E-3	-4.30705E-12	296.341E-3	-22.0105E-3
-1.04302E-3	-4.44064E-12	241.052E-3	-32.4574E-3	-4.47046E-12	300.482E-3	-9.09361E-3
-1.04802E-3	-4.62944E-12	245.518E-3	-28.6829E-3	-4.67168E-12	279.974E-3	-10.8159E-3
-1.05303E-3	-4.68875E-12	260.221E-3	-22.4145E-3	-4.72265E-12	278.472E-3	-19.7343E-3
-1.05803E-3	-4.67312E-12	281.701E-3	-17.7162E-3	-4.77688E-12	312.342E-3	-23.9733E-3
-1.06303E-3	-4.84466E-12	286.456E-3	-22.9743E-3	-5.01279E-12	331.410E-3	-23.9161E-3
-1.06803E-3	-5.03658E-12	284.931E-3	-27.7787E-3	-5.11740E-12	325.718E-3	-14.5412E-3
-1.07304E-3	-5.13026E-12	301.972E-3	-20.7466E-3	-5.12928E-12	336.330E-3	-15.5192E-3
-1.07804E-3	-5.10032E-12	318.884E-3	-17.2565E-3	-5.20947E-12	354.126E-3	-24.0429E-3
-1.08304E-3	-5.27619E-12	323.481E-3	-22.5976E-3	-5.42034E-12	364.927E-3	-15.8205E-3
-1.08804E-3	-5.50192E-12	326.017E-3	-19.4998E-3	-5.48092E-12	381.823E-3	-9.25764E-3
-1.09305E-3	-5.50780E-12	319.350E-3	-10.7574E-3	-5.47648E-12	384.179E-3	-10.0170E-3
-1.09805E-3	-5.57363E-12	316.585E-3	-10.0981E-3	-5.56374E-12	379.249E-3	-2.85649E-3
-1.10305E-3	-5.81766E-12	340.625E-3	-16.0753E-3	-5.76790E-12	381.072E-3	-7.17457E-3
-1.10805E-3	-5.97606E-12	366.903E-3	-21.9973E-3	-5.77933E-12	378.648E-3	-18.0922E-3
-1.11306E-3	-5.97220E-12	374.908E-3	-26.1013E-3	-5.83585E-12	392.296E-3	-5.39378E-3
-1.11806E-3	-6.05192E-12	387.763E-3	-26.5998E-3	-6.10674E-12	427.025E-3	6.54632E-3
-1.12306E-3	-6.32886E-12	401.894E-3	-21.1029E-3	-6.30910E-12	451.287E-3	-5.36262E-3
-1.12806E-3	-6.51151E-12	406.543E-3	-19.2853E-3	-6.37641E-12	458.632E-3	-15.5695E-3
-1.13307E-3	-6.46608E-12	410.216E-3	-19.9459E-3	-6.47872E-12	475.449E-3	-13.2619E-3
-1.13807E-3	-6.60650E-12	414.697E-3	-19.9769E-3	-6.78618E-12	495.715E-3	-14.2506E-3
-1.14307E-3	-6.95529E-12	425.190E-3	-21.0094E-3	-7.05689E-12	494.603E-3	-18.5022E-3
-1.14807E-3	-7.13025E-12	439.034E-3	-14.5176E-3	-7.10796E-12	501.982E-3	-21.4933E-3
-1.15308E-3	-7.13478E-12	450.486E-3	-3.67141E-3	-7.23439E-12	534.285E-3	-25.9554E-3
-1.15808E-3	-7.30484E-12	460.182E-3	-5.15206E-3	-7.52441E-12	558.029E-3	-22.0778E-3
-1.16308E-3	-7.70124E-12	474.225E-3	-15.5086E-3	-7.71780E-12	570.033E-3	-12.3912E-3
-1.16808E-3	-7.92256E-12	494.859E-3	-14.9164E-3	-7.84484E-12	576.731E-3	-12.9297E-3
-1.17309E-3	-7.97603E-12	514.353E-3	-12.1950E-3	-8.00375E-12	577.270E-3	-11.0762E-3
-1.17809E-3	-8.16908E-12	536.867E-3	-15.4899E-3	-8.31130E-12	594.077E-3	-5.23348E-3
-1.18309E-3	-8.48864E-12	560.686E-3	-19.7090E-3	-8.41804E-12	613.036E-3	-16.9691E-3
-1.18809E-3	-8.67995E-12	566.906E-3	-25.5397E-3	-8.46284E-12	615.494E-3	-28.3073E-3
-1.19310E-3	-8.77034E-12	573.013E-3	-23.5444E-3	-8.72027E-12	629.752E-3	-13.5562E-3
-1.19810E-3	-8.99061E-12	596.524E-3	-14.2361E-3	-8.95947E-12	654.800E-3	-1.68673E-3
-1.20310E-3	-9.36532E-12	617.251E-3	-2.75854E-3	-9.05565E-12	657.158E-3	-14.7225E-3
-1.20810E-3	-9.44614E-12	632.381E-3	6.91838E-3	-9.14145E-12	663.445E-3	-18.6363E-3
-1.21311E-3	-9.50256E-12	654.959E-3	8.24707E-3	-9.46090E-12	701.735E-3	-8.06771E-3
-1.21811E-3	-9.84973E-12	675.641E-3	-2.67388E-3	-9.80068E-12	733.960E-3	-4.67201E-3
-1.22311E-3	-10.2248E-12	677.131E-3	-16.1296E-3	-9.93728E-12	743.844E-3	-4.99414E-3
-1.22811E-3	-10.2677E-12	678.988E-3	-12.3942E-3	-10.1221E-12	756.409E-3	-15.5087E-3
-1.23312E-3	-10.3926E-12	691.936E-3	-7.12445E-3	-10.4313E-12	775.680E-3	-30.7781E-3
-1.23812E-3	-10.7645E-12	704.705E-3	-16.9241E-3	-10.7499E-12	795.838E-3	-22.6641E-3
-1.24312E-3	-11.2621E-12	720.284E-3	-18.1628E-3	-10.9303E-12	820.131E-3	-5.88000E-3
-1.24812E-3	-11.3293E-12	737.304E-3	-7.67143E-3	-11.1304E-12	828.408E-3	-4.59190E-3
-1.25313E-3	-11.5199E-12	758.105E-3	-12.2163E-3	-11.5698E-12	837.714E-3	-1.61800E-3
-1.25813E-3	-12.0482E-12	783.769E-3	-23.7637E-3	-11.9674E-12	868.693E-3	-1.48914E-3
-1.26313E-3	-12.4613E-12	802.802E-3	-23.8010E-3	-12.0923E-12	889.859E-3	-13.2777E-3
-1.26813E-3	-12.5360E-12	825.630E-3	-18.8157E-3	-12.3437E-12	904.260E-3	-16.1761E-3
-1.27314E-3	-12.7951E-12	857.721E-3	-14.4361E-3	-12.8256E-12	928.894E-3	-16.8670E-3
-1.27814E-3	-13.2840E-12	886.015E-3	-16.9019E-3	-13.2253E-12	950.915E-3	-23.8851E-3
-1.28314E-3	-13.6268E-12	907.736E-3	-20.8304E-3	-13.3918E-12	961.545E-3	-20.0719E-3
-1.28814E-3	-13.7245E-12	912.594E-3	-20.0306E-3	-13.6751E-12	973.450E-3	-11.5016E-3
-1.29315E-3	-13.8427E-12	904.453E-3	-19.1645E-3	-14.0825E-12	981.267E-3	-13.2444E-3
-1.29815E-3	-14.2493E-12	906.481E-3	-17.8963E-3	-14.4578E-12	978.102E-3	-12.7407E-3
-1.30315E-3	-14.6284E-12	922.784E-3	-22.1083E-3	-14.5489E-12	990.685E-3	-10.0212E-3
-1.30815E-3	-14.7648E-12	949.265E-3	-21.0481E-3	-14.8815E-12	1.02361E+0	-19.8687E-3
-1.31316E-3	-14.9736E-12	968.457E-3	-12.0033E-3	-15.3863E-12	1.04716E+0	-23.6531E-3
-1.31816E-3	-15.4902E-12	978.707E-3	-7.67215E-3	-15.5937E-12	1.05275E+0	-11.2043E-3
-1.32316E-3	-15.8045E-12	999.564E-3	-11.8846E-3	-15.8004E-12	1.05589E+0	-8.19991E-3
-1.32816E-3	-15.9188E-12	1.01419E+0	-22.3772E-3	-16.2063E-12	1.05545E+0	-11.2879E-3
-1.33317E-3	-16.3265E-12	1.01500E+0	-17.9830E-3	-16.6914E-12	1.07080E+0	-4.03160E-3
-1.33817E-3	-16.9166E-12	1.02462E+0	-4.40269E-3	-16.8396E-12	1.10479E+0	-15.2376E-3
-1.34317E-3	-17.1680E-12	1.03986E+0	-8.44959E-3	-17.1010E-12	1.11458E+0	-24.6009E-3
-1.34817E-3	-17.3513E-12	1.05671E+0	-15.4182E-3	-17.6399E-12	1.11220E+0	-3.99323E-3
-1.35318E-3	-17.8434E-12	1.07398E+0	-13.0476E-3	-18.0005E-12	1.12846E+0	165.318E-6
-1.35818E-3	-18.4504E-12	1.07808E+0	-12.8369E-3	-18.3882E-12	1.15092E+0	-7.94981E-3
-1.36318E-3	-18.8494E-12	1.08266E+0	-14.3710E-3	-18.8553E-12	1.16339E+0	-1.19899E-3
-1.36818E-3	-19.0775E-12	1.10497E+0	-11.0807E-3	-19.5678E-12	1.18068E+0	-2.72410E-3
-1.37319E-3	-19.7068E-12	1.13528E+0	-9.12177E-3	-19.9508E-12	1.19642E+0	-10.8404E-3
-1.37819E-3	-20.2664E-12	1.15211E+0	-14.6991E-3	-20.1697E-12	1.19881E+0	-14.3639E-3
-1.38319E-3	-20.4501E-12	1.16041E+0	-19.5620E-3	-20.5870E-12	1.20049E+0	-22.0218E-3
-1.38819E-3	-20.6975E-12	1.17680E+0	-24.1943E-3	-21.1975E-12	1.20055E+0	-17.8743E-3
-1.39320E-3	-21.1825E-12	1.19081E+0	-29.6870E-3	-21.6529E-12	1.20358E+0	-6.24157E-3
-1.39820E-3	-21.7013E-12	1.19358E+0	-19.6139E-3	-21.5930E-12	1.21594E+0	-9.16244E-3
-1.40320E-3	-21.7335E-12	1.19547E+0	-8.22067E-3	-21.9353E-12	1.21483E+0	-19.1879E-3
-1.40820E-3	-22.1408E-12	1.20531E+0	-14.5966E-3	-22.4280E-12	1.19924E+0	-20.1524E-3
-1.41321E-3	-22.6985E-12	1.21274E+0	-25.5332E-3	-22.7097E-12	1.19927E+0	-18.3372E-3
-1.41821E-3	-23.2166E-12	1.20506E+0	-28.2205E-3	-22.6861E-12	1.20342E+0	-19.3341E-3
-1.42321E-3	-23.3614E-12	1.19918E+0	-22.5338E-3	-23.0062E-12	1.19494E+0	-11.8778E-3
-1.42821E-3	-23.7658E-12	1.20898E+0	-21.2783E-3	-23.5033E-12	1.19224E+0	-12.7031E-3
-1.43322E-3	-24.4802E-12	1.22058E+0	-21.9627E-3	-23.8577E-12	1.18873E+0	-24.9100E-3
-1.43822E-3	-24.8281E-12	1.23018E+0	-26.9277E-3	-23.9885E-12	1.18650E+0	-18.3480E-3
-1.44322E-3	-24.9936E-12	1.23518E+0	-38.4403E-3	-24.4426E-12	1.21096E+0	-9.74830E-3
-1.44822E-3	-25.4598E-12	1.22817E+0	-38.4981E-3	-25.0373E-12	1.23428E+0	-22.8835E-3
-1.45323E-3	-26.3027E-12	1.22583E+0	-26.9129E-3	-25.4802E-12	1.23611E+0	-28.2077E-3
-1.45823E-3	-26.4781E-12	1.24916E+0	-17.3477E-3	-25.8241E-12	1.23791E+0	-17.3666E-3
-1.46323E-3	-26.6462E-12	1.27272E+0	-12.3766E-3	-26.4783E-12	1.24211E+0	-10.8516E-3
-1.46823E-3	-27.1932E-12	1.27363E+0	-17.8101E-3	-27.0247E-12	1.24334E+0	-8.94099E-3
-1.47324E-3	-27.6677E-12	1.26647E+0	-22.6814E-3	-27.4816E-12	1.25116E+0	-8.39461E-3
-1.47824E-3	-27.9473E-12	1.26029E+0	-15.9305E-3	-27.9127E-12	1.25471E+0	-21.9964E-3
-1.48324E-3	-27.9803E-12	1.23983E+0	-15.9477E-3	-28.7041E-12	1.24565E+0	-34.5130E-3
-1.48824E-3	-28.5875E-12	1.21890E+0	-18.8198E-3	-29.2649E-12	1.24260E+0	-25.4853E-3
-1.49325E-3	-29.1712E-12	1.22259E+0	-8.98972E-3	-29.3749E-12	1.24087E+0	-16.3435E-3
-1.49825E-3	-29.3719E-12	1.22320E+0	-1.78860E-3	-29.6817E-12	1.22175E+0	-14.0350E-3
-1.50325E-3	-29.5388E-12	1.21483E+0	-9.40564E-3	-30.3022E-12	1.20368E+0	-13.4231E-3
-1.50825E-3	-30.2263E-12	1.22093E+0	-13.9473E-3	-30.6680E-12	1.20568E+0	-21.2037E-3
-1.51326E-3	-30.9279E-12	1.23236E+0	-12.9235E-3	-30.6485E-12	1.21581E+0	-28.4373E-3
-1.51826E-3	-31.1287E-12	1.23490E+0	-13.1665E-3	-30.8310E-12	1.21810E+0	-28.5907E-3
-1.52326E-3	-31.4172E-12	1.23225E+0	-6.56942E-3	-31.5825E-12	1.20637E+0	-28.9103E-3
-1.52826E-3	-31.9163E-12	1.22655E+0	-8.01604E-3	-31.8262E-12	1.18225E+0	-23.1980E-3
-1.53327E-3	-32.5862E-12	1.22660E+0	-26.8129E-3	-31.9069E-12	1.16553E+0	-16.4775E-3
-1.53827E-3	-32.7632E-12	1.22947E+0	-33.7057E-3	-32.2506E-12	1.17228E+0	-29.0642E-3
-1.54327E-3	-33.1267E-12	1.22131E+0	-29.3697E-3	-32.8744E-12	1.18433E+0	-38.1605E-3
-1.54827E-3	-33.5152E-12	1.21660E+0	-33.9888E-3	-33.3701E-12	1.19230E+0	-22.0988E-3
-1.55328E-3	-33.8884E-12	1.22166E+0	-25.1024E-3	-33.5600E-12	1.20232E+0	-13.6145E-3
-1.55828E-3	-34.2846E-12	1.22136E+0	-8.33357E-3	-34.2235E-12	1.21317E+0	-16.5996E-3
-1.56328E-3	-34.6963E-12	1.21051E+0	-13.2827E-3	-35.1731E-12	1.21675E+0	-11.1095E-3
-1.56828E-3	-35.2690E-12	1.19654E+0	-13.4723E-3	-35.6208E-12	1.22230E+0	-8.02941E-3
-1.57329E-3	-35.5390E-12	1.18692E+0	2.41846E-3	-36.1178E-12	1.22670E+0	-7.74747E-3
-1.57829E-3	-35.6950E-12	1.18078E+0	4.16706E-3	-36.7719E-12	1.21393E+0	-4.82114E-3
-1.58329E-3	-36.2288E-12	1.17511E+0	-8.81971E-3	-37.5371E-12	1.19953E+0	-2.78910E-3
-1.58829E-3	-36.9823E-12	1.17623E+0	-19.5621E-3	-37.8620E-12	1.19489E+0	-6.55204E-3
-1.59330E-3	-37.2905E-12	1.17924E+0	-23.9493E-3	-38.0832E-12	1.18550E+0	-9.87667E-3
-1.59830E-3	-37.4010E-12	1.18144E+0	-20.4847E-3	-38.5334E-12	1.16430E+0	-4.39873E-3
-1.60330E-3	-38.1770E-12	1.18374E+0	-21.8658E-3	-38.9513E-12	1.14686E+0	-2.49210E-3
-1.60830E-3	-38.6812E-12	1.16626E+0	-30.9572E-3	-39.0530E-12	1.14283E+0	-6.16520E-3
-1.61331E-3	-38.9651E-12	1.14637E+0	-29.9649E-3	-39.0043E-12	1.14345E+0	-16.4287E-3
-1.61831E-3	-39.0599E-12	1.15201E+0	-28.5726E-3	-39.2914E-12	1.12611E+0	-25.9515E-3
-1.62331E-3	-39.7214E-12	1.16935E+0	-30.9351E-3	-39.7104E-12	1.10912E+0	-22.1412E-3
-1.62831E-3	-40.1547E-12	1.16179E+0	-20.9033E-3	-39.9035E-12	1.11717E+0	-19.6906E-3
-1.63332E-3	-40.4566E-12	1.12641E+0	-3.55793E-3	-39.9574E-12	1.11578E+0	-24.6731E-3
-1.63832E-3	-40.6312E-12	1.11198E+0	1.78422E-3	-40.4101E-12	1.10397E+0	-22.3196E-3
-1.64332E-3	-41.1233E-12	1.12394E+0	-10.0754E-3	-40.6887E-12	1.11189E+0	-16.9961E-3
-1.64832E-3	-41.7293E-12	1.12735E+0	-15.9655E-3	-40.9832E-12	1.11085E+0	-21.1834E-3
-1.65333E-3	-41.8594E-12	1.11550E+0	-7.79296E-3	-41.2199E-12	1.08720E+0	-28.0164E-3
-1.65833E-3	-42.1484E-12	1.10753E+0	-7.40583E-3	-41.8373E-12	1.07634E+0	-28.4182E-3
-1.66333E-3	-42.5906E-12	1.09974E+0	-17.0622E-3	-42.2510E-12	1.08636E+0	-32.2368E-3
-1.66833E-3	-43.2861E-12	1.08211E+0	-20.3216E-3	-42.5401E-12	1.08438E+0	-27.0375E-3
-1.67334E-3	-43.4778E-12	1.07666E+0	-13.9301E-3	-43.0365E-12	1.05810E+0	-3.47061E-3
-1.67834E-3	-43.9178E-12	1.08049E+0	-8.03852E-3	-43.7440E-12	1.04427E+0	2.59068E-3
-1.68334E-3	-44.4885E-12	1.07529E+0	-6.33667E-3	-44.3748E-12	1.05133E+0	-7.57103E-3
-1.68834E-3	-45.0314E-12	1.07709E+0	-8.68848E-3	-44.4254E-12	1.06757E+0	-14.6465E-3
-1.69335E-3	-45.2310E-12	1.09572E+0	-13.7605E-3	-44.8423E-12	1.08075E+0	-18.7263E-3
-1.69835E-3	-45.4184E-12	1.10064E+0	-17.2183E-3	-45.4810E-12	1.05765E+0	-13.8713E-3
-1.70335E-3	-46.0251E-12	1.08893E+0	-15.0880E-3	-45.7981E-12	1.01846E+0	-10.4438E-3
-1.70835E-3	-46.1222E-12	1.08217E+0	-14.4981E-3	-45.9363E-12	1.01355E+0	-17.4578E-3
-1.71336E-3	-46.2979E-12	1.07043E+0	-15.2881E-3	-46.1256E-12	1.02598E+0	-28.4299E-3
-1.71836E-3	-46.6594E-12	1.05682E+0	-19.0323E-3	-46.7956E-12	1.02374E+0	-22.6062E-3
-1.72336E-3	-46.7487E-12	1.04460E+0	-23.3128E-3	-46.9419E-12	1.01320E+0	-9.40894E-3
-1.72836E-3	-46.8802E-12	1.02623E+0	-17.5980E-3	-47.1131E-12	998.035E-3	-18.0680E-3
-1.73337E-3	-47.0617E-12	1.01177E+0	-16.3183E-3	-46.9775E-12	984.226E-3	-32.2460E-3
-1.73837E-3	-47.6376E-12	1.00261E+0	-17.7013E-3	-47.4577E-12	977.399E-3	-29.7297E-3
-1.74337E-3	-47.6038E-12	1.00326E+0	-17.6193E-3	-47.6543E-12	973.993E-3	-27.8183E-3
-1.74837E-3	-47.5155E-12	1.01159E+0	-15.2696E-3	-47.6591E-12	976.429E-3	-33.9760E-3
-1.75338E-3	-47.9118E-12	1.00271E+0	-7.55800E-3	-48.1665E-12	982.586E-3	-32.4571E-3
-1.75838E-3	-49.0057E-12	981.664E-3	-8.73938E-3	-48.6732E-12	977.055E-3	-20.6902E-3
-1.76338E-3	-49.5771E-12	974.509E-3	-13.4766E-3	-49.1416E-12	972.865E-3	-333.444E-6
-1.76838E-3	-49.4207E-12	978.861E-3	-8.15134E-3	-49.4431E-12	984.122E-3	8.07054E-3
-1.77339E-3	-49.8388E-12	973.954E-3	-816.328E-6	-50.0461E-12	977.978E-3	642.203E-6
-1.77839E-3	-50.8660E-12	956.945E-3	2.33606E-3	-50.5431E-12	959.105E-3	-776.898E-6
-1.78339E-3	-51.6050E-12	952.939E-3	-3.10734E-3	-50.9169E-12	967.800E-3	-8.90280E-3
-1.78839E-3	-51.5802E-12	976.160E-3	-15.9007E-3	-51.3180E-12	981.342E-3	-29.7002E-3
-1.79340E-3	-51.7191E-12	998.089E-3	-21.3236E-3	-51.9810E-12	966.646E-3	-32.1574E-3
-1.79840E-3	-52.5866E-12	1.00229E+0	-20.6121E-3	-52.4985E-12	947.997E-3	-17.3280E-3
-1.80340E-3	-52.8839E-12	993.241E-3	-16.9007E-3	-52.5052E-12	930.270E-3	-4.57894E-3
-1.80840E-3	-52.7210E-12	973.661E-3	-5.34171E-3	-52.7795E-12	914.107E-3	10.2402E-3
-1.81341E-3	-52.5069E-12	965.656E-3	6.15012E-3	-53.3073E-12	918.307E-3	9.62702E-3
-1.81841E-3	-53.1113E-12	963.114E-3	3.21365E-3	-53.3957E-12	918.393E-3	-7.93237E-3
-1.82341E-3	-53.3500E-12	946.666E-3	-11.5709E-3	-53.1263E-12	905.791E-3	-16.9433E-3
-1.82841E-3	-53.2711E-12	936.321E-3	-23.7823E-3	-53.4213E-12	900.149E-3	-9.30720E-3
-1.83342E-3	-53.3551E-12	934.393E-3	-23.0125E-3	-53.8864E-12	896.862E-3	-8.25288E-3
-1.83842E-3	-53.8693E-12	921.461E-3	-10.3375E-3	-53.7615E-12	887.326E-3	-17.9452E-3
-1.84342E-3	-54.1050E-12	905.324E-3	1.44255E-3	-53.5653E-12	870.394E-3	-9.37989E-3
-1.84842E-3	-54.7341E-12	899.254E-3	3.25794E-3	-53.7347E-12	857.601E-3	2.20421E-3
-1.85343E-3	-55.0560E-12	901.076E-3	-8.27335E-3	-54.1841E-12	850.217E-3	-2.61429E-3
-1.85843E-3	-55.4235E-12	902.342E-3	-24.0118E-3	-54.5970E-12	852.389E-3	-15.2291E-3
-1.86343E-3	-56.1026E-12	906.609E-3	-18.2301E-3	-54.6442E-12	866.486E-3	-30.5705E-3
-1.86843E-3	-56.7023E-12	909.469E-3	-6.04761E-3	-55.1189E-12	882.545E-3	-37.9440E-3
-1.87344E-3	-57.1894E-12	912.563E-3	-20.2160E-3	-55.6104E-12	900.401E-3	-29.9812E-3
-1.87844E-3	-57.3292E-12	916.439E-3	-35.2674E-3	-56.5884E-12	904.388E-3	-28.4073E-3
-1.88344E-3	-57.7896E-12	905.686E-3	-25.2379E-3	-56.7488E-12	894.497E-3	-33.3192E-3
-1.88844E-3	-58.2468E-12	896.164E-3	-6.08470E-3	-57.5817E-12	891.545E-3	-28.5223E-3
-1.89345E-3	-58.9325E-12	896.484E-3	278.373E-6	-58.1042E-12	890.729E-3	-16.6546E-3
-1.89845E-3	-58.7995E-12	891.534E-3	-10.0471E-3	-58.6552E-12	882.842E-3	-11.7875E-3
-1.90345E-3	-58.6306E-12	875.682E-3	-18.9073E-3	-58.9546E-12	876.052E-3	-6.64859E-3
-1.90845E-3	-58.9202E-12	869.257E-3	-10.6699E-3	-59.4272E-12	881.180E-3	3.47416E-3
-1.91346E-3	-59.1778E-12	883.239E-3	3.56995E-3	-59.7488E-12	881.620E-3	-1.85671E-3
-1.91846E-3	-59.2103E-12	893.039E-3	6.50034E-3	-59.9344E-12	861.436E-3	-2.61621E-3
-1.92346E-3	-58.8465E-12	878.805E-3	-330.645E-6	-59.8156E-12	848.914E-3	5.91155E-3
-1.92846E-3	-58.8905E-12	862.516E-3	-11.4016E-3	-60.0494E-12	846.519E-3	3.66775E-3
-1.93347E-3	-59.3052E-12	867.905E-3	-21.5422E-3	-60.3445E-12	843.008E-3	-6.68479E-3
-1.93847E-3	-59.7098E-12	882.877E-3	-19.6734E-3	-60.0640E-12	858.458E-3	-20.9136E-3
-1.94347E-3	-59.7083E-12	879.861E-3	-16.2433E-3	-60.0954E-12	878.462E-3	-22.8268E-3
-1.94847E-3	-60.1324E-12	864.486E-3	-11.7719E-3	-60.4881E-12	871.568E-3	-7.21298E-3
-1.95348E-3	-60.6674E-12	865.330E-3	-11.4107E-3	-60.7006E-12	854.288E-3	4.73531E-3
-1.95848E-3	-61.1997E-12	874.820E-3	-23.8195E-3	-60.8661E-12	850.129E-3	-2.09677E-3
-1.96348E-3	-61.5624E-12	880.204E-3	-27.2055E-3	-61.1923E-12	853.038E-3	-17.1584E-3
-1.96848E-3	-61.8474E-12	883.423E-3	-16.2659E-3	-61.9694E-12	861.639E-3	-23.1431E-3
-1.97349E-3	-62.1506E-12	875.659E-3	-2.63285E-3	-62.4145E-12	866.056E-3	-24.5584E-3
-1.97849E-3	-62.6370E-12	855.815E-3	-7.66916E-3	-63.0173E-12	858.348E-3	-22.6221E-3
-1.98349E-3	-63.0068E-12	838.296E-3	-27.2586E-3	-63.9653E-12	860.675E-3	-21.6267E-3
-1.98849E-3	-63.4835E-12	832.151E-3	-18.5565E-3	-64.6526E-12	869.770E-3	-25.5636E-3
-1.99350E-3	-63.7510E-12	844.677E-3	-3.70220E-3	-65.1584E-12	860.005E-3	-23.7271E-3
-1.99850E-3	-63.8455E-12	849.123E-3	-19.8419E-3	-65.0838E-12	856.543E-3	-16.0804E-3
-2.00350E-3	-64.1718E-12	828.245E-3	-32.9253E-3	-65.8216E-12	871.403E-3	3.98996E-3
-2.00850E-3	-64.5744E-12	818.662E-3	-32.0540E-3	-66.4862E-12	866.268E-3	25.0406E-3
-2.01351E-3	-64.7522E-12	834.323E-3	-17.8841E-3	-66.5299E-12	847.377E-3	17.9266E-3
-2.01851E-3	-64.6700E-12	841.728E-3	9.71214E-3	-65.9430E-12	834.094E-3	-2.26422E-3
-2.02351E-3	-65.0102E-12	825.750E-3	5.52337E-3	-65.9130E-12	815.280E-3	-19.3907E-3
-2.02851E-3	-65.3939E-12	821.767E-3	-19.8315E-3	-66.2578E-12	798.226E-3	-33.0077E-3
-2.03352E-3	-66.0412E-12	826.156E-3	-22.4612E-3	-65.9137E-12	790.689E-3	-38.3765E-3
-2.03852E-3	-65.9694E-12	818.097E-3	-12.4284E-3	-65.6390E-12	782.701E-3	-33.0227E-3
-2.04352E-3	-66.3739E-12	815.960E-3	-1.72524E-3	-65.6254E-12	781.063E-3	-20.1399E-3
-2.04852E-3	-67.1190E-12	819.774E-3	4.92898E-3	-65.8510E-12	798.463E-3	-14.8472E-3
-2.05353E-3	-67.3697E-12	822.346E-3	6.54457E-3	-65.5199E-12	811.743E-3	-18.1185E-3
-2.05853E-3	-67.2454E-12	825.494E-3	8.19515E-3	-64.8795E-12	802.466E-3	-16.0502E-3
-2.06353E-3	-67.4541E-12	827.800E-3	8.54010E-3	-65.3265E-12	795.095E-3	-21.5490E-3
-2.06853E-3	-68.0151E-12	814.030E-3	6.90081E-3	-65.4930E-12	804.184E-3	-26.6729E-3
-2.07354E-3	-68.3674E-12	792.822E-3	-7.40031E-3	-66.0268E-12	807.723E-3	-12.7651E-3
-2.07854E-3	-68.6018E-12	794.161E-3	-36.5202E-3	-66.0110E-12	803.489E-3	-18.2834E-3
-2.08354E-3	-68.4573E-12	798.098E-3	-42.5854E-3	-67.0395E-12	809.628E-3	-34.9202E-3
-2.08854E-3	-68.8649E-12	789.147E-3	-24.8853E-3	-67.4330E-12	808.146E-3	-30.9834E-3
-2.09355E-3	-68.6409E-12	780.695E-3	-23.3321E-3	-67.9952E-12	799.881E-3	-27.6478E-3
-2.09855E-3	-69.3092E-12	777.912E-3	-28.7084E-3	-68.3433E-12	798.872E-3	-27.2398E-3
-2.10355E-3	-69.8710E-12	787.479E-3	-26.0470E-3	-69.3585E-12	791.707E-3	-11.8760E-3
-2.10855E-3	-70.3296E-12	809.458E-3	-17.2378E-3	-70.0046E-12	786.108E-3	5.76716E-3
-2.11356E-3	-70.5905E-12	821.979E-3	-9.05740E-3	-70.4464E-12	791.338E-3	877.319E-6
-2.11856E-3	-70.7915E-12	823.242E-3	-19.7434E-3	-70.7906E-12	794.917E-3	-6.99069E-3
-2.12356E-3	-71.9023E-12	824.467E-3	-29.6248E-3	-71.1492E-12	799.966E-3	-6.22216E-3
-2.12856E-3	-72.4133E-12	810.959E-3	-32.3509E-3	-71.2137E-12	804.844E-3	-5.15302E-3
-2.13357E-3	-72.5604E-12	775.883E-3	-33.6560E-3	-71.3117E-12	788.136E-3	-7.09214E-3
-2.13857E-3	-72.2226E-12	758.008E-3	-21.8217E-3	-71.5983E-12	765.403E-3	-16.2404E-3
-2.14357E-3	-72.5679E-12	779.191E-3	-6.15745E-3	-71.6494E-12	759.010E-3	-22.4845E-3
-2.14857E-3	-72.3144E-12	798.931E-3	-6.32537E-3	-70.7344E-12	764.450E-3	-19.0614E-3
-2.15358E-3	-72.1159E-12	804.829E-3	-23.2448E-3	-70.7252E-12	771.288E-3	-22.4312E-3
-2.15858E-3	-71.8047E-12	808.973E-3	-28.0428E-3	-71.5647E-12	768.230E-3	-39.9721E-3
-2.16358E-3	-72.0823E-12	801.023E-3	-24.5452E-3	-72.0650E-12	764.510E-3	-42.7862E-3
-2.16858E-3	-72.5798E-12	790.559E-3	-35.2812E-3	-71.6262E-12	766.800E-3	-18.8624E-3
-2.17359E-3	-72.1959E-12	786.905E-3	-36.4228E-3	-71.6137E-12	765.182E-3	1.54539E-3
-2.17859E-3	-72.2147E-12	786.007E-3	-19.3751E-3	-72.6446E-12	757.071E-3	-4.17109E-3
-2.18359E-3	-72.5636E-12	788.697E-3	-13.9321E-3	-73.3318E-12	756.495E-3	-1.14055E-3
-2.18859E-3	-73.4296E-12	771.288E-3	-22.1927E-3	-73.6905E-12	766.992E-3	5.29490E-3
-2.19360E-3	-73.8059E-12	748.936E-3	-26.0479E-3	-73.5370E-12	765.038E-3	-13.7880E-3
-2.19860E-3	-74.3852E-12	752.658E-3	-23.5954E-3	-74.5816E-12	757.014E-3	-15.2455E-3
-2.20360E-3	-74.6204E-12	763.352E-3	-11.1694E-3	-75.3943E-12	772.618E-3	2.93289E-3
-2.20860E-3	-75.4658E-12	768.978E-3	590.123E-6	-75.8482E-12	789.104E-3	520.822E-6
-2.21361E-3	-76.1254E-12	773.451E-3	-2.62463E-3	-76.4224E-12	784.657E-3	-11.3956E-3
-2.21861E-3	-76.6599E-12	781.321E-3	-10.0978E-3	-76.9858E-12	789.305E-3	-21.3548E-3
-2.22361E-3	-76.7049E-12	786.543E-3	-24.7551E-3	-77.3224E-12	785.120E-3	-23.9932E-3
-2.22861E-3	-76.3410E-12	787.322E-3	-43.0766E-3	-77.1218E-12	767.658E-3	-13.5713E-3
-2.23362E-3	-76.9013E-12	774.673E-3	-39.1656E-3	-77.2514E-12	770.616E-3	-14.8622E-3
-2.23862E-3	-77.0971E-12	760.392E-3	-21.8321E-3	-77.2806E-12	766.727E-3	-23.6955E-3
-2.24362E-3	-76.6020E-12	775.790E-3	-23.8406E-3	-77.5498E-12	752.081E-3	-10.9643E-3
-2.24862E-3	-76.1786E-12	790.857E-3	-32.9201E-3	-77.0079E-12	757.918E-3	6.49256E-3
-2.25363E-3	-76.2226E-12	775.819E-3	-28.8675E-3	-76.6445E-12	764.219E-3	6.26380E-3
-2.25863E-3	-76.6877E-12	768.068E-3	-24.4577E-3	-76.5361E-12	749.251E-3	8.24783E-3
-2.26363E-3	-76.6958E-12	776.646E-3	-20.5654E-3	-76.5498E-12	728.715E-3	5.77209E-3
-2.26863E-3	-76.2859E-12	767.599E-3	-11.0226E-3	-76.4360E-12	722.373E-3	-12.4209E-3
-2.27364E-3	-76.7565E-12	745.394E-3	-12.2554E-3	-76.0467E-12	736.597E-3	-12.7866E-3
-2.27864E-3	-77.4843E-12	738.809E-3	-26.9929E-3	-76.4157E-12	751.720E-3	-1.84331E-3
-2.28364E-3	-78.1052E-12	738.957E-3	-31.6080E-3	-76.6589E-12	745.106E-3	-15.4094E-3
-2.28864E-3	-78.2383E-12	730.154E-3	-21.1354E-3	-77.2368E-12	724.117E-3	-31.8383E-3
-2.29365E-3	-79.0555E-12	737.267E-3	-15.2164E-3	-77.5440E-12	715.545E-3	-36.1169E-3
-2.29865E-3	-79.7320E-12	753.165E-3	-14.1497E-3	-78.2292E-12	730.125E-3	-34.6792E-3
-2.30365E-3	-80.2897E-12	762.331E-3	-19.1416E-3	-78.7940E-12	745.130E-3	-19.3618E-3
-2.30865E-3	-80.3859E-12	766.881E-3	-27.1867E-3	-79.5654E-12	747.728E-3	-2.63463E-3
-2.31366E-3	-80.4622E-12	756.355E-3	-18.9192E-3	-80.6970E-12	754.716E-3	-7.17157E-3
-2.31866E-3	-81.0712E-12	745.177E-3	-15.9822E-3	-80.9527E-12	764.386E-3	-17.7565E-3
-2.32366E-3	-81.1101E-12	753.331E-3	-27.4129E-3	-81.2009E-12	766.287E-3	-19.2323E-3
-2.32866E-3	-80.8509E-12	766.069E-3	-32.3099E-3	-81.6497E-12	751.937E-3	-22.2110E-3
-2.33367E-3	-80.3464E-12	768.459E-3	-22.3474E-3	-82.6366E-12	732.220E-3	-16.7385E-3
-2.33867E-3	-80.6081E-12	755.818E-3	-16.6453E-3	-82.9658E-12	731.310E-3	1.25109E-3
-2.34367E-3	-80.4818E-12	741.073E-3	-20.4315E-3	-82.2152E-12	743.317E-3	2.31810E-3
-2.34867E-3	-80.1687E-12	739.063E-3	-19.6796E-3	-82.0090E-12	756.689E-3	-16.3873E-3
-2.35368E-3	-80.4753E-12	731.563E-3	-24.1762E-3	-82.7733E-12	757.082E-3	-25.9044E-3
-2.35868E-3	-80.7912E-12	715.263E-3	-28.3739E-3	-82.6895E-12	735.497E-3	-21.0704E-3
-2.36368E-3	-81.5933E-12	718.812E-3	-25.0508E-3	-81.7898E-12	708.540E-3	-16.0513E-3
-2.36868E-3	-81.9817E-12	745.014E-3	-19.0148E-3	-81.4314E-12	705.754E-3	-20.3267E-3
-2.37369E-3	-82.2280E-12	764.354E-3	-16.9003E-3	-82.0715E-12	726.117E-3	-27.1659E-3
-2.37869E-3	-82.7835E-12	762.653E-3	-26.1260E-3	-82.3157E-12	735.127E-3	-24.5719E-3
-2.38369E-3	-83.6797E-12	755.461E-3	-29.4778E-3	-82.0574E-12	727.392E-3	-18.1193E-3
-2.38869E-3	-84.3090E-12	753.251E-3	-21.3432E-3	-82.1923E-12	726.038E-3	-30.4939E-3
-2.39370E-3	-84.5488E-12	751.370E-3	-18.2750E-3	-83.1952E-12	734.990E-3	-39.6679E-3
-2.39870E-3	-84.5516E-12	748.198E-3	-22.4894E-3	-83.9178E-12	729.664E-3	-17.3698E-3
-2.40370E-3	-84.8618E-12	736.809E-3	-27.2938E-3	-84.4572E-12	721.222E-3	5.63635E-3
-2.40870E-3	-85.0170E-12	722.197E-3	-31.4712E-3	-84.9630E-12	721.354E-3	860.753E-6
-2.41371E-3	-84.9565E-12	715.106E-3	-28.9956E-3	-86.1073E-12	726.751E-3	-9.03816E-3
-2.41871E-3	-84.9592E-12	710.952E-3	-15.3821E-3	-86.6099E-12	741.294E-3	-11.1838E-3
-2.42371E-3	-84.8033E-12	706.669E-3	-11.0973E-3	-87.2339E-12	739.328E-3	-37.7118E-3
-2.42871E-3	-85.4260E-12	716.427E-3	-18.9838E-3	-87.6572E-12	728.345E-3	-60.5488E-3
-2.43372E-3	-85.6908E-12	731.477E-3	-18.6672E-3	-88.0187E-12	748.498E-3	-44.9587E-3
-2.43872E-3	-85.4550E-12	725.005E-3	-18.1079E-3	-88.5510E-12	771.647E-3	-36.0123E-3
-2.44372E-3	-85.0947E-12	713.824E-3	-23.4560E-3	-88.5280E-12	755.942E-3	-40.2759E-3
-2.44872E-3	-85.7961E-12	719.630E-3	-22.7298E-3	-88.6305E-12	734.204E-3	-28.5414E-3
-2.45373E-3	-86.9470E-12	728.216E-3	-27.5980E-3	-87.6134E-12	737.952E-3	-19.2377E-3
-2.45873E-3	-87.1990E-12	728.080E-3	-34.4456E-3	-87.1167E-12	740.449E-3	-27.0633E-3
-2.46373E-3	-87.2721E-12	725.016E-3	-10.3677E-3	-87.3002E-12	730.151E-3	-23.2368E-3
-2.46873E-3	-88.2060E-12	722.170E-3	23.1888E-3	-87.4080E-12	714.764E-3	-12.3978E-3
-2.47374E-3	-89.1992E-12	722.445E-3	8.95295E-3	-86.8993E-12	700.910E-3	-8.07603E-3
-2.47874E-3	-89.6338E-12	734.734E-3	-32.0726E-3	-86.1097E-12	712.790E-3	-4.23902E-3
-2.48374E-3	-89.2862E-12	741.074E-3	-41.1131E-3	-86.2410E-12	725.352E-3	-13.7528E-3
-2.48874E-3	-89.9583E-12	721.494E-3	-25.0781E-3	-86.6874E-12	705.173E-3	-18.5932E-3
-2.49375E-3	-90.0562E-12	714.432E-3	-2.90019E-3	-86.8194E-12	701.955E-3	-5.42800E-3
-2.49875E-3	-90.5307E-12	732.722E-3	14.0516E-3	-87.0122E-12	727.040E-3	-1.06655E-3
-2.50375E-3	-89.6804E-12	740.297E-3	-4.13977E-3	-87.4755E-12	723.953E-3	-2.61748E-3
-2.50875E-3	-89.9985E-12	743.644E-3	-31.4361E-3	-88.4866E-12	710.607E-3	-2.38452E-3
-2.51376E-3	-90.1408E-12	753.116E-3	-23.7599E-3	-88.9593E-12	708.285E-3	-17.2474E-3
-2.51876E-3	-90.1464E-12	756.565E-3	-12.0323E-3	-89.8899E-12	700.445E-3	-32.7293E-3
-2.52376E-3	-90.1568E-12	758.476E-3	-9.32245E-3	-90.3801E-12	713.723E-3	-19.9935E-3
-2.52876E-3	-90.4845E-12	746.723E-3	-1.68662E-3	-91.3858E-12	736.083E-3	-837.751E-6
-2.53377E-3	-90.7977E-12	723.085E-3	-14.3086E-3	-91.8825E-12	722.551E-3	-12.8655E-3
-2.53877E-3	-91.2751E-12	719.894E-3	-35.3937E-3	-92.0307E-12	706.549E-3	-24.7701E-3
-2.54377E-3	-91.8145E-12	721.974E-3	-29.7378E-3	-92.2779E-12	718.835E-3	-28.4841E-3
-2.54877E-3	-91.9416E-12	706.177E-3	-19.4686E-3	-92.7664E-12	717.307E-3	-46.7834E-3
-2.55378E-3	-92.5886E-12	705.829E-3	-29.4450E-3	-92.9996E-12	708.297E-3	-45.7235E-3
-2.55878E-3	-92.5653E-12	720.224E-3	-46.5480E-3	-92.9913E-12	723.025E-3	-26.4787E-3
-2.56378E-3	-93.6570E-12	714.399E-3	-58.2829E-3	-92.8760E-12	721.091E-3	-15.9714E-3
-2.56878E-3	-93.3617E-12	714.349E-3	-57.7192E-3	-92.3662E-12	700.979E-3	-11.7151E-3
-2.57379E-3	-93.2861E-12	736.148E-3	-32.3029E-3	-92.4431E-12	709.444E-3	-17.3949E-3
-2.57879E-3	-93.0849E-12	755.081E-3	-4.17278E-3	-92.9912E-12	721.107E-3	-23.6083E-3
-2.58379E-3	-93.5461E-12	748.411E-3	-4.93372E-3	-92.5679E-12	711.340E-3	-10.5300E-3
-2.58879E-3	-93.6817E-12	719.817E-3	-8.59383E-3	-92.2587E-12	706.500E-3	10.9514E-3
-2.59380E-3	-92.6007E-12	694.850E-3	7.12799E-3	-92.0760E-12	702.047E-3	1.50141E-3
-2.59880E-3	-92.3746E-12	685.334E-3	9.76451E-3	-92.6823E-12	685.721E-3	-17.3591E-3
-2.60380E-3	-92.9211E-12	690.648E-3	-13.5234E-3	-93.0396E-12	685.277E-3	-15.6209E-3
-2.60880E-3	-93.3132E-12	708.858E-3	-30.5320E-3	-93.0688E-12	703.209E-3	-16.9935E-3
-2.61381E-3	-93.5624E-12	725.007E-3	-27.9237E-3	-93.5909E-12	704.138E-3	-21.0760E-3
-2.61881E-3	-93.9856E-12	726.831E-3	-17.5662E-3	-94.1633E-12	707.670E-3	-25.4852E-3
-2.62381E-3	-94.8834E-12	722.291E-3	2.01666E-3	-95.5828E-12	730.459E-3	-24.6581E-3
-2.62881E-3	-95.6770E-12	713.134E-3	16.1041E-3	-96.0637E-12	726.202E-3	-3.80826E-3
-2.63382E-3	-96.2605E-12	704.452E-3	-2.44194E-3	-96.1718E-12	710.619E-3	4.67221E-3
-2.63882E-3	-95.9568E-12	704.236E-3	-29.0289E-3	-96.6907E-12	716.329E-3	-15.3292E-3
-2.64382E-3	-96.5249E-12	709.710E-3	-22.6067E-3	-97.8943E-12	722.401E-3	-26.3922E-3
-2.64882E-3	-96.4423E-12	721.287E-3	-592.355E-6	-98.4261E-12	734.800E-3	-17.9498E-3
-2.65383E-3	-96.8746E-12	723.520E-3	-80.4967E-6	-98.2080E-12	753.436E-3	-15.0235E-3
-2.65883E-3	-97.1231E-12	714.072E-3	-16.2737E-3	-98.3766E-12	746.916E-3	-28.5932E-3
-2.66383E-3	-97.0622E-12	710.122E-3	-25.9156E-3	-98.7794E-12	727.239E-3	-38.0550E-3
-2.66883E-3	-96.4456E-12	708.386E-3	-19.9120E-3	-98.7146E-12	720.613E-3	-35.1340E-3
-2.67384E-3	-96.4242E-12	696.880E-3	-15.7784E-3	-97.9641E-12	713.193E-3	-28.5753E-3
-2.67884E-3	-96.3798E-12	688.099E-3	-19.9054E-3	-97.1467E-12	699.044E-3	-12.8857E-3
-2.68384E-3	-96.2994E-12	686.282E-3	-20.4676E-3	-97.3713E-12	698.886E-3	-1.89763E-3
-2.68884E-3	-96.3598E-12	671.960E-3	-18.4910E-3	-96.7540E-12	701.096E-3	-7.81038E-3
-2.69385E-3	-97.0458E-12	670.486E-3	-14.7441E-3	-96.4336E-12	684.982E-3	-11.7072E-3
-2.69885E-3	-97.8087E-12	680.648E-3	-12.7574E-3	-96.1973E-12	678.877E-3	-6.72450E-3
-2.70385E-3	-98.3669E-12	679.705E-3	-18.0892E-3	-96.4824E-12	686.202E-3	-7.99509E-3
-2.70885E-3	-98.6672E-12	683.311E-3	-30.6248E-3	-96.4506E-12	682.148E-3	-12.9113E-3
-2.71386E-3	-99.4427E-12	685.143E-3	-31.1413E-3	-96.9471E-12	688.247E-3	-15.2790E-3
-2.71886E-3	-100.917E-12	691.132E-3	-8.74812E-3	-97.6426E-12	703.080E-3	-23.7848E-3
-2.72386E-3	-101.198E-12	717.655E-3	286.500E-6	-98.2199E-12	703.525E-3	-35.8143E-3
-2.72886E-3	-101.219E-12	747.873E-3	-16.5347E-3	-99.2192E-12	714.190E-3	-40.2435E-3
-2.73387E-3	-100.952E-12	752.121E-3	-33.1389E-3	-100.135E-12	725.341E-3	-34.8459E-3
-2.73887E-3	-101.499E-12	735.327E-3	-34.5276E-3	-101.478E-12	716.105E-3	-13.6944E-3
-2.74387E-3	-101.626E-12	727.940E-3	-23.4428E-3	-101.875E-12	713.300E-3	12.8519E-3
-2.74887E-3	-100.829E-12	721.009E-3	-8.87573E-3	-102.396E-12	719.461E-3	6.24768E-3
-2.75388E-3	-100.623E-12	710.596E-3	-14.1704E-3	-102.732E-12	718.104E-3	-21.8908E-3
-2.75888E-3	-100.390E-12	715.559E-3	-32.8744E-3	-103.078E-12	713.411E-3	-27.6182E-3
-2.76388E-3	-100.579E-12	707.852E-3	-28.7632E-3	-103.466E-12	708.538E-3	-16.8223E-3
-2.76888E-3	-100.004E-12	692.669E-3	-18.0115E-3	-102.949E-12	701.425E-3	-15.2336E-3
-2.77389E-3	-99.7678E-12	696.133E-3	-21.3969E-3	-102.840E-12	697.444E-3	-21.7667E-3
-2.77889E-3	-100.563E-12	698.524E-3	-25.6426E-3	-102.573E-12	692.735E-3	-15.9306E-3
-2.78389E-3	-101.076E-12	695.569E-3	-33.1995E-3	-102.492E-12	671.897E-3	-730.669E-6
-2.78889E-3	-101.794E-12	693.739E-3	-41.4997E-3	-101.912E-12	654.549E-3	-6.79169E-3
-2.79390E-3	-102.107E-12	697.102E-3	-36.3419E-3	-101.951E-12	664.322E-3	-15.9431E-3
-2.79890E-3	-103.030E-12	709.816E-3	-21.6150E-3	-101.858E-12	685.043E-3	-7.07776E-3
-2.80390E-3	-103.955E-12	717.054E-3	-11.4133E-3	-101.821E-12	700.662E-3	6.08376E-3
-2.80890E-3	-104.868E-12	714.086E-3	-11.6633E-3	-101.713E-12	699.159E-3	18.7797E-3
-2.81391E-3	-105.525E-12	715.689E-3	-16.8156E-3	-102.158E-12	689.369E-3	11.7803E-3
-2.81891E-3	-105.912E-12	717.476E-3	-10.4171E-3	-103.270E-12	698.776E-3	-7.68428E-3
-2.82391E-3	-106.290E-12	708.905E-3	6.81362E-3	-103.703E-12	722.640E-3	-17.7099E-3
-2.82891E-3	-106.295E-12	705.919E-3	5.18407E-3	-104.644E-12	721.949E-3	-11.7737E-3
-2.83392E-3	-106.498E-12	709.425E-3	-4.52112E-3	-105.224E-12	700.399E-3	2.82798E-3
-2.83892E-3	-106.310E-12	699.912E-3	-1.73914E-3	-106.133E-12	698.621E-3	-4.34676E-3
-2.84392E-3	-105.829E-12	702.542E-3	-7.01911E-3	-107.557E-12	706.864E-3	-26.8220E-3
-2.84892E-3	-105.913E-12	715.857E-3	-15.3850E-3	-107.780E-12	707.540E-3	-27.1604E-3
-2.85393E-3	-105.812E-12	710.924E-3	-14.5352E-3	-107.826E-12	707.757E-3	-10.5374E-3
-2.85893E-3	-105.175E-12	716.985E-3	-19.9901E-3	-107.364E-12	705.371E-3	-206.378E-6
-2.86393E-3	-104.803E-12	726.675E-3	-29.5308E-3	-107.432E-12	699.429E-3	-5.37576E-3
-2.86893E-3	-105.351E-12	707.944E-3	-13.7037E-3	-107.725E-12	695.492E-3	-16.3330E-3
-2.87394E-3	-106.057E-12	698.956E-3	2.22172E-3	-107.278E-12	696.697E-3	-24.9016E-3
-2.87894E-3	-105.744E-12	704.421E-3	-11.8293E-3	-106.928E-12	693.661E-3	-24.4043E-3
-2.88394E-3	-106.060E-12	706.055E-3	-18.9903E-3	-106.246E-12	689.301E-3	-11.5430E-3
-2.88894E-3	-106.804E-12	703.795E-3	-14.3866E-3	-106.859E-12	686.154E-3	-9.50584E-3
-2.89395E-3	-107.756E-12	691.323E-3	-12.8555E-3	-106.134E-12	666.785E-3	-23.5055E-3
-2.89895E-3	-108.128E-12	688.212E-3	-11.1194E-3	-106.137E-12	662.457E-3	-37.8661E-3
-2.90395E-3	-108.135E-12	695.391E-3	-8.26164E-3	-105.617E-12	677.265E-3	-36.0593E-3
-2.90895E-3	-109.283E-12	702.924E-3	-13.4425E-3	-106.412E-12	677.528E-3	-11.1709E-3
-2.91396E-3	-109.906E-12	703.977E-3	-24.3749E-3	-106.394E-12	684.855E-3	11.8361E-3
-2.91896E-3	-109.834E-12	689.561E-3	-17.4350E-3	-107.048E-12	691.459E-3	14.6988E-3
-2.92396E-3	-109.102E-12	683.055E-3	-5.34212E-3	-107.796E-12	682.733E-3	4.12130E-3
-2.92896E-3	-109.720E-12	687.881E-3	-4.87469E-3	-108.614E-12	700.196E-3	-18.3861E-3
-2.93397E-3	-109.928E-12	684.801E-3	-14.6038E-3	-109.140E-12	726.126E-3	-39.3107E-3
-2.93897E-3	-110.213E-12	685.236E-3	-32.0344E-3	-109.121E-12	719.106E-3	-31.0300E-3
-2.94397E-3	-109.379E-12	700.365E-3	-31.3751E-3	-110.261E-12	703.841E-3	5.20115E-3
-2.94897E-3	-110.289E-12	704.620E-3	-14.6341E-3	-111.479E-12	708.566E-3	12.3181E-3
-2.95398E-3	-109.763E-12	694.964E-3	-11.2236E-3	-112.011E-12	730.590E-3	-11.9131E-3
-2.95898E-3	-109.753E-12	694.210E-3	-13.5961E-3	-112.193E-12	733.380E-3	-9.62708E-3
-2.96398E-3	-110.144E-12	690.450E-3	-15.7041E-3	-112.353E-12	703.917E-3	-6.92848E-3
-2.96898E-3	-110.996E-12	681.404E-3	-25.9612E-3	-113.749E-12	685.568E-3	-25.6147E-3
-2.97399E-3	-111.286E-12	675.351E-3	-20.9879E-3	-113.685E-12	692.487E-3	-22.9676E-3
-2.97899E-3	-110.894E-12	671.117E-3	-7.00884E-3	-112.862E-12	693.787E-3	-6.21554E-3
-2.98399E-3	-111.558E-12	664.280E-3	-24.7886E-3	-112.675E-12	685.721E-3	-10.6354E-3
-2.98899E-3	-112.211E-12	652.147E-3	-48.6229E-3	-113.258E-12	691.095E-3	-17.6463E-3
-2.99400E-3	-112.253E-12	649.799E-3	-43.5429E-3	-113.659E-12	693.491E-3	-21.3005E-3
-2.99900E-3	-111.765E-12	663.235E-3	-30.3535E-3	-112.828E-12	680.317E-3	-35.8165E-3
-3.00400E-3	-112.323E-12	682.802E-3	-22.1280E-3	-112.522E-12	677.403E-3	-33.8624E-3
-3.00900E-3	-113.084E-12	694.322E-3	-10.2497E-3	-113.114E-12	685.384E-3	-13.2903E-3
-3.01401E-3	-112.842E-12	697.574E-3	-4.14302E-3	-113.786E-12	687.364E-3	-5.73815E-3
-3.01901E-3	-113.207E-12	703.384E-3	-12.3084E-3	-113.398E-12	688.085E-3	-20.4323E-3
-3.02401E-3	-113.192E-12	704.912E-3	-15.5958E-3	-112.923E-12	690.068E-3	-37.6417E-3
-3.02901E-3	-114.349E-12	696.595E-3	-11.0997E-3	-113.472E-12	680.302E-3	-41.8362E-3
-3.03402E-3	-114.270E-12	691.293E-3	-12.3454E-3	-114.045E-12	672.317E-3	-26.8196E-3
-3.03902E-3	-114.655E-12	687.238E-3	-18.4780E-3	-114.212E-12	680.702E-3	-6.37862E-3
-3.04402E-3	-114.808E-12	680.309E-3	-21.8972E-3	-114.475E-12	699.906E-3	-3.52038E-3
-3.04902E-3	-115.786E-12	688.898E-3	-16.7907E-3	-114.844E-12	718.867E-3	560.878E-6
-3.05403E-3	-116.373E-12	699.222E-3	-15.0690E-3	-115.718E-12	726.822E-3	10.6357E-3
-3.05903E-3	-116.898E-12	693.976E-3	-35.2000E-3	-116.924E-12	726.682E-3	14.3020E-3
-3.06403E-3	-116.891E-12	694.547E-3	-53.3770E-3	-118.364E-12	707.453E-3	10.6027E-3
-3.06903E-3	-117.181E-12	699.140E-3	-41.8525E-3	-117.663E-12	689.714E-3	7.32525E-3
-3.07404E-3	-117.380E-12	688.658E-3	-22.3682E-3	-117.840E-12	702.121E-3	-3.20988E-3
-3.07904E-3	-117.194E-12	680.391E-3	-12.1929E-3	-118.623E-12	718.564E-3	-20.1119E-3
-3.08404E-3	-117.000E-12	690.901E-3	-3.86809E-3	-120.093E-12	720.518E-3	-30.6872E-3
-3.08904E-3	-116.698E-12	689.956E-3	-2.23459E-3	-118.708E-12	711.862E-3	-43.0069E-3
-3.09405E-3	-116.441E-12	674.899E-3	-12.9864E-3	-117.696E-12	705.954E-3	-37.0767E-3
-3.09905E-3	-116.462E-12	677.196E-3	-18.4196E-3	-117.543E-12	688.946E-3	-22.1381E-3
-3.10405E-3	-116.296E-12	692.368E-3	-7.43451E-3	-118.621E-12	658.197E-3	-25.7664E-3
-3.10905E-3	-116.212E-12	686.577E-3	-7.98989E-3	-117.367E-12	652.096E-3	-14.8324E-3
-3.11406E-3	-116.815E-12	666.452E-3	-19.1901E-3	-115.639E-12	664.512E-3	510.176E-6
-3.11906E-3	-117.233E-12	666.602E-3	-13.7105E-3	-115.094E-12	666.991E-3	-9.61734E-3
-3.12406E-3	-118.175E-12	680.080E-3	-5.67963E-3	-115.748E-12	662.576E-3	-14.2291E-3
-3.12906E-3	-118.059E-12	694.315E-3	50.8507E-6	-116.167E-12	681.410E-3	-6.34231E-3
-3.13407E-3	-118.486E-12	699.997E-3	3.40769E-3	-114.930E-12	714.120E-3	-1.37668E-3
-3.13907E-3	-119.250E-12	688.339E-3	-22.2809E-3	-115.358E-12	710.584E-3	-2.09573E-3
-3.14407E-3	-120.522E-12	687.886E-3	-34.3067E-3	-117.087E-12	680.614E-3	-526.306E-6
-3.14907E-3	-120.611E-12	696.899E-3	-11.5742E-3	-118.295E-12	663.014E-3	2.26891E-3
-3.15408E-3	-121.042E-12	698.416E-3	-14.0554E-3	-118.813E-12	671.299E-3	-4.29408E-3
-3.15908E-3	-121.207E-12	703.299E-3	-24.1953E-3	-119.526E-12	692.865E-3	-1.35615E-3
-3.16408E-3	-121.456E-12	689.993E-3	-17.4304E-3	-120.955E-12	705.376E-3	3.68793E-3
-3.16908E-3	-120.955E-12	659.983E-3	-13.2633E-3	-122.280E-12	701.981E-3	-16.2410E-3
-3.17409E-3	-120.140E-12	659.867E-3	-4.00863E-3	-122.864E-12	691.283E-3	-37.2267E-3
-3.17909E-3	-120.150E-12	686.242E-3	3.67425E-3	-122.924E-12	704.665E-3	-33.1741E-3
-3.18409E-3	-120.474E-12	698.116E-3	-6.49219E-3	-123.537E-12	722.336E-3	-18.7794E-3
-3.18909E-3	-120.510E-12	689.360E-3	-17.2347E-3	-123.444E-12	718.212E-3	-9.03521E-3
-3.19410E-3	-119.794E-12	684.553E-3	-16.0057E-3	-124.087E-12	714.261E-3	-2.28323E-3
-3.19910E-3	-120.496E-12	676.283E-3	-15.8871E-3	-122.814E-12	700.706E-3	-1.57795E-3
-3.20410E-3	-121.065E-12	666.560E-3	-26.8125E-3	-121.966E-12	679.540E-3	-3.37830E-3
-3.20910E-3	-120.860E-12	677.955E-3	-38.5917E-3	-121.037E-12	667.462E-3	-2.24794E-3
-3.21411E-3	-120.998E-12	691.475E-3	-35.9700E-3	-121.798E-12	661.438E-3	-4.83095E-3
-3.21911E-3	-122.718E-12	696.311E-3	-28.4656E-3	-121.653E-12	660.291E-3	-17.9304E-3
-3.22411E-3	-122.893E-12	698.382E-3	-24.1480E-3	-120.209E-12	657.152E-3	-24.9122E-3
-3.22911E-3	-123.504E-12	697.859E-3	-20.1770E-3	-120.243E-12	647.913E-3	-24.0188E-3
-3.23412E-3	-124.131E-12	706.164E-3	-21.0072E-3	-121.086E-12	646.762E-3	-35.2141E-3
-3.23912E-3	-125.443E-12	700.083E-3	-20.5182E-3	-122.689E-12	663.298E-3	-39.4296E-3
-3.24412E-3	-125.102E-12	678.950E-3	-22.5749E-3	-122.888E-12	684.453E-3	-21.6478E-3
-3.24912E-3	-125.028E-12	679.309E-3	-27.1879E-3	-123.733E-12	687.818E-3	-12.3307E-3
-3.25413E-3	-125.539E-12	695.376E-3	-32.6384E-3	-124.633E-12	676.738E-3	-14.5967E-3
-3.25913E-3	-126.338E-12	713.815E-3	-40.4120E-3	-126.840E-12	674.342E-3	-26.0467E-3
-3.26413E-3	-125.865E-12	727.198E-3	-35.1349E-3	-127.779E-12	677.912E-3	-45.1964E-3
-3.26913E-3	-124.579E-12	733.346E-3	-18.1098E-3	-127.825E-12	682.919E-3	-47.1774E-3
-3.27414E-3	-125.157E-12	728.817E-3	-10.2455E-3	-128.538E-12	692.986E-3	-40.2189E-3
-3.27914E-3	-125.393E-12	704.390E-3	-18.9447E-3	-129.051E-12	685.917E-3	-32.4153E-3
-3.28414E-3	-125.528E-12	689.014E-3	-32.8003E-3	-129.024E-12	675.477E-3	-22.1715E-3
-3.28914E-3	-124.542E-12	694.700E-3	-37.3074E-3	-127.987E-12	691.776E-3	-8.76276E-3
-3.29415E-3	-125.363E-12	690.369E-3	-26.9354E-3	-127.709E-12	702.590E-3	-3.44344E-3
-3.29915E-3	-126.275E-12	676.135E-3	-13.9784E-3	-126.946E-12	691.219E-3	-21.2696E-3
-3.30415E-3	-126.366E-12	678.582E-3	-10.2428E-3	-126.477E-12	680.101E-3	-37.8201E-3
-3.30915E-3	-126.288E-12	694.919E-3	-19.1964E-3	-125.468E-12	681.147E-3	-25.3539E-3
-3.31416E-3	-126.791E-12	707.652E-3	-33.8261E-3	-125.050E-12	682.985E-3	-8.35093E-3
-3.31916E-3	-127.434E-12	700.239E-3	-38.7088E-3	-124.687E-12	673.269E-3	-15.3506E-3
-3.32416E-3	-127.521E-12	680.491E-3	-27.0461E-3	-124.652E-12	667.700E-3	-28.7254E-3
-3.32916E-3	-127.870E-12	667.593E-3	-10.5897E-3	-125.782E-12	672.160E-3	-30.4569E-3
-3.33417E-3	-128.400E-12	662.719E-3	-14.5540E-3	-125.343E-12	684.190E-3	-16.5675E-3
-3.33917E-3	-128.638E-12	664.132E-3	-28.6538E-3	-126.389E-12	699.451E-3	-5.04210E-3
-3.34417E-3	-128.131E-12	667.156E-3	-34.4642E-3	-126.327E-12	691.575E-3	5.10572E-3
-3.34917E-3	-128.247E-12	659.046E-3	-31.6997E-3	-127.958E-12	677.923E-3	9.42321E-3
-3.35418E-3	-129.128E-12	641.376E-3	-11.3853E-3	-128.233E-12	691.442E-3	-8.13003E-3
-3.35918E-3	-129.272E-12	645.308E-3	-2.17550E-3	-129.027E-12	710.640E-3	-16.4840E-3
-3.36418E-3	-128.458E-12	652.196E-3	-16.3127E-3	-129.717E-12	705.319E-3	-14.1725E-3
-3.36918E-3	-128.961E-12	648.182E-3	-35.6430E-3	-130.634E-12	686.241E-3	-12.9172E-3
-3.37419E-3	-129.794E-12	664.894E-3	-45.5890E-3	-131.420E-12	691.656E-3	-688.346E-6
-3.37919E-3	-129.935E-12	691.915E-3	-30.4467E-3	-131.355E-12	702.851E-3	2.94357E-3
-3.38419E-3	-129.566E-12	701.658E-3	-16.4138E-3	-131.237E-12	686.235E-3	-1.27536E-3
-3.38919E-3	-129.107E-12	693.306E-3	-13.7853E-3	-131.682E-12	666.490E-3	8.84930E-3
-3.39420E-3	-130.372E-12	685.110E-3	-17.5752E-3	-132.049E-12	664.520E-3	6.66898E-3
-3.39920E-3	-130.647E-12	682.497E-3	-31.0658E-3	-131.662E-12	661.556E-3	-16.0060E-3
-3.40420E-3	-130.662E-12	669.831E-3	-38.4233E-3	-130.744E-12	652.196E-3	-18.1488E-3
-3.40920E-3	-130.942E-12	661.448E-3	-37.7099E-3	-131.582E-12	660.929E-3	-7.16490E-3
-3.41421E-3	-131.683E-12	677.115E-3	-12.9494E-3	-131.856E-12	661.951E-3	-9.14152E-3
-3.41921E-3	-132.211E-12	686.638E-3	4.16302E-3	-131.314E-12	657.796E-3	-22.2176E-3
-3.42421E-3	-132.332E-12	676.208E-3	-16.4199E-3	-131.034E-12	681.461E-3	-39.5591E-3
-3.42921E-3	-132.222E-12	672.412E-3	-31.2513E-3	-131.486E-12	689.200E-3	-37.1499E-3
-3.43422E-3	-132.333E-12	664.676E-3	-29.7803E-3	-132.020E-12	668.844E-3	-13.0685E-3
-3.43922E-3	-132.664E-12	656.197E-3	-28.2271E-3	-132.290E-12	659.342E-3	-5.74868E-3
-3.44422E-3	-133.011E-12	665.975E-3	-29.7647E-3	-131.423E-12	670.871E-3	-18.6412E-3
-3.44922E-3	-133.214E-12	673.821E-3	-30.9276E-3	-132.220E-12	681.298E-3	-20.3781E-3
-3.45423E-3	-133.329E-12	677.314E-3	-27.0387E-3	-132.312E-12	676.870E-3	-29.7911E-3
-3.45923E-3	-133.194E-12	681.043E-3	-16.0742E-3	-132.602E-12	692.586E-3	-50.6050E-3
-3.46423E-3	-133.615E-12	665.570E-3	-16.2093E-3	-132.410E-12	708.147E-3	-43.2604E-3
-3.46923E-3	-133.715E-12	648.392E-3	-30.6895E-3	-133.543E-12	690.289E-3	-15.3241E-3
-3.47424E-3	-133.734E-12	665.707E-3	-33.9954E-3	-134.260E-12	690.130E-3	-9.11566E-3
-3.47924E-3	-133.672E-12	686.253E-3	-22.1600E-3	-134.204E-12	701.251E-3	-24.6665E-3
-3.48424E-3	-133.552E-12	675.273E-3	-15.7456E-3	-134.140E-12	690.611E-3	-28.8344E-3
-3.48924E-3	-133.957E-12	657.616E-3	-25.4589E-3	-134.875E-12	676.998E-3	-24.5153E-3
-3.49425E-3	-134.020E-12	660.316E-3	-25.2342E-3	-135.508E-12	669.982E-3	-20.5555E-3
-3.49925E-3	-133.485E-12	677.203E-3	-11.4344E-3	-135.710E-12	668.380E-3	-7.43966E-3
-3.50425E-3	-133.769E-12	691.394E-3	-12.9209E-3	-135.796E-12	673.894E-3	-6.05117E-3
-3.50925E-3	-135.125E-12	697.490E-3	-21.0700E-3	-136.263E-12	682.157E-3	-16.4221E-3
-3.51426E-3	-135.760E-12	689.850E-3	-20.8685E-3	-135.621E-12	684.414E-3	-20.0672E-3
-3.51926E-3	-135.332E-12	669.100E-3	-14.4656E-3	-136.276E-12	686.831E-3	-18.5773E-3
-3.52426E-3	-135.330E-12	650.522E-3	-18.6131E-3	-136.019E-12	680.496E-3	-13.8352E-3
-3.52926E-3	-136.305E-12	647.909E-3	-28.5481E-3	-136.357E-12	664.998E-3	-10.8359E-3
-3.53427E-3	-137.142E-12	662.279E-3	-26.7529E-3	-135.277E-12	668.601E-3	-14.1211E-3
-3.53927E-3	-137.268E-12	689.129E-3	-13.7845E-3	-134.950E-12	675.848E-3	-17.4187E-3
-3.54427E-3	-136.986E-12	701.463E-3	4.45219E-3	-135.157E-12	671.519E-3	-25.0235E-3
-3.54927E-3	-138.289E-12	683.497E-3	4.89437E-3	-135.039E-12	674.423E-3	-42.1001E-3
-3.55428E-3	-139.172E-12	662.949E-3	-5.23713E-3	-135.178E-12	680.475E-3	-45.6816E-3
-3.55928E-3	-139.642E-12	660.003E-3	3.95927E-3	-134.878E-12	679.325E-3	-25.7669E-3
-3.56428E-3	-138.734E-12	672.752E-3	4.44763E-3	-135.934E-12	682.723E-3	-10.4484E-3
-3.56928E-3	-138.788E-12	685.535E-3	-8.21464E-3	-136.601E-12	675.175E-3	-3.87266E-3
-3.57429E-3	-138.811E-12	686.652E-3	-1.59845E-3	-137.986E-12	661.526E-3	-5.23664E-3
-3.57929E-3	-138.964E-12	680.335E-3	-1.06534E-3	-138.673E-12	679.031E-3	-28.4588E-3
-3.58429E-3	-138.549E-12	683.723E-3	-15.3730E-3	-140.237E-12	706.183E-3	-44.9343E-3
-3.58929E-3	-138.709E-12	691.321E-3	-23.2399E-3	-141.780E-12	717.550E-3	-40.2199E-3
-3.59430E-3	-138.664E-12	690.587E-3	-31.9588E-3	-142.936E-12	720.981E-3	-36.1475E-3
-3.59930E-3	-139.247E-12	673.216E-3	-37.4397E-3	-144.224E-12	708.638E-3	-31.2466E-3
-3.60430E-3	-139.494E-12	653.929E-3	-28.6318E-3	-144.572E-12	679.717E-3	-27.1027E-3
-3.60930E-3	-139.065E-12	653.434E-3	-18.1327E-3	-144.295E-12	664.837E-3	-19.4686E-3
-3.61431E-3	-138.959E-12	667.665E-3	-24.0805E-3	-144.120E-12	660.965E-3	1.25607E-3
-3.61931E-3	-139.919E-12	684.262E-3	-28.7153E-3	-144.140E-12	651.448E-3	18.0518E-3
-3.62431E-3	-141.129E-12	683.040E-3	-18.5684E-3	-142.987E-12	650.020E-3	6.51033E-3
-3.62931E-3	-140.944E-12	672.739E-3	-13.8885E-3	-141.747E-12	658.930E-3	-28.5244E-3
-3.63432E-3	-141.218E-12	687.181E-3	-8.82483E-3	-141.212E-12	657.041E-3	-37.2248E-3
-3.63932E-3	-142.063E-12	703.912E-3	-1.31233E-3	-140.764E-12	657.603E-3	-21.5883E-3
-3.64432E-3	-143.767E-12	680.878E-3	-1.22611E-3	-140.623E-12	667.629E-3	-12.4144E-3
-3.64932E-3	-143.954E-12	669.768E-3	-10.2103E-3	-139.147E-12	661.614E-3	-9.14442E-3
-3.65433E-3	-143.477E-12	687.266E-3	-7.35472E-3	-139.138E-12	640.486E-3	-18.0891E-3
-3.65933E-3	-144.100E-12	689.732E-3	6.98941E-3	-139.930E-12	625.169E-3	-41.6962E-3
-3.66433E-3	-145.134E-12	686.840E-3	-1.84172E-3	-140.838E-12	646.046E-3	-43.5466E-3
-3.66933E-3	-145.522E-12	688.595E-3	-27.7217E-3	-141.429E-12	689.898E-3	-23.9758E-3
-3.67434E-3	-143.861E-12	686.905E-3	-33.8739E-3	-142.177E-12	700.966E-3	-19.1576E-3
-3.67934E-3	-143.702E-12	682.243E-3	-18.2699E-3	-144.581E-12	678.767E-3	-25.1406E-3
-3.68434E-3	-144.404E-12	689.671E-3	-17.4283E-3	-145.921E-12	663.117E-3	-27.5352E-3
-3.68934E-3	-144.746E-12	707.985E-3	-42.4390E-3	-146.386E-12	663.652E-3	-20.2783E-3
-3.69435E-3	-142.881E-12	711.604E-3	-61.3124E-3	-146.387E-12	676.745E-3	-9.58515E-3
-3.69935E-3	-142.589E-12	690.767E-3	-51.1572E-3	-147.462E-12	675.986E-3	8.55171E-3
-3.70435E-3	-142.992E-12	658.338E-3	-25.0339E-3	-147.793E-12	662.795E-3	7.57093E-3
-3.70935E-3	-144.011E-12	659.983E-3	-196.219E-6	-146.994E-12	664.079E-3	-29.6949E-3
-3.71436E-3	-143.515E-12	692.011E-3	-1.84715E-3	-146.633E-12	666.929E-3	-42.1340E-3
-3.71936E-3	-143.331E-12	681.922E-3	-30.6656E-3	-146.056E-12	662.657E-3	-23.9696E-3
-3.72436E-3	-144.347E-12	652.354E-3	-50.2572E-3	-145.774E-12	643.630E-3	-18.0790E-3
-3.72936E-3	-145.719E-12	649.815E-3	-37.8867E-3	-143.836E-12	621.322E-3	-30.6794E-3
-3.73437E-3	-146.725E-12	654.052E-3	-23.4015E-3	-143.032E-12	634.583E-3	-55.9729E-3
-3.73937E-3	-145.755E-12	654.677E-3	-33.4182E-3	-142.498E-12	655.169E-3	-66.4572E-3
-3.74437E-3	-146.344E-12	667.667E-3	-32.9405E-3	-143.005E-12	649.400E-3	-42.7855E-3
-3.74937E-3	-146.718E-12	682.494E-3	-30.7661E-3	-142.022E-12	652.221E-3	-2.91714E-3
-3.75438E-3	-148.552E-12	678.273E-3	-37.8745E-3	-143.193E-12	668.475E-3	23.8562E-3
-3.75938E-3	-148.205E-12	675.170E-3	-30.1221E-3	-143.673E-12	670.972E-3	33.7525E-3
-3.76438E-3	-147.651E-12	682.405E-3	-17.0987E-3	-145.157E-12	683.835E-3	21.9420E-3
-3.76938E-3	-147.916E-12	687.737E-3	-10.5418E-3	-145.965E-12	699.746E-3	-14.4895E-3
-3.77439E-3	-148.919E-12	686.747E-3	-13.7721E-3	-147.125E-12	685.229E-3	-32.4371E-3
-3.77939E-3	-149.144E-12	683.342E-3	-22.5449E-3	-148.822E-12	681.740E-3	-21.1139E-3
-3.78439E-3	-148.498E-12	674.208E-3	-14.7561E-3	-149.847E-12	694.040E-3	-11.6937E-3
-3.78939E-3	-147.665E-12	663.604E-3	3.13240E-3	-150.626E-12	701.984E-3	-10.7293E-3
-3.79440E-3	-148.334E-12	665.666E-3	-6.78472E-3	-152.425E-12	695.398E-3	-1.89497E-3
-3.79940E-3	-148.522E-12	662.286E-3	-20.7158E-3	-152.955E-12	659.735E-3	9.11289E-3
-3.80440E-3	-147.336E-12	647.867E-3	-16.0140E-3	-152.274E-12	642.221E-3	-993.443E-6
-3.80940E-3	-146.789E-12	656.968E-3	-13.8250E-3	-152.634E-12	657.023E-3	-14.3402E-3
-3.81441E-3	-147.736E-12	684.509E-3	-12.2723E-3	-152.796E-12	664.731E-3	-18.5708E-3
-3.81941E-3	-148.616E-12	696.035E-3	-16.6799E-3	-152.518E-12	676.391E-3	-31.6697E-3
-3.82441E-3	-149.312E-12	696.338E-3	-26.0225E-3	-150.941E-12	688.763E-3	-49.3163E-3
-3.82941E-3	-148.815E-12	674.021E-3	-27.7299E-3	-150.719E-12	673.538E-3	-48.1266E-3
-3.83442E-3	-149.070E-12	641.828E-3	-25.3323E-3	-151.137E-12	652.452E-3	-29.1907E-3
-3.83942E-3	-150.423E-12	647.079E-3	-20.9743E-3	-150.440E-12	657.379E-3	-22.8598E-3
-3.84442E-3	-151.264E-12	665.198E-3	-19.2715E-3	-150.297E-12	676.252E-3	-27.5941E-3
-3.84942E-3	-151.354E-12	668.389E-3	-37.1856E-3	-150.572E-12	663.698E-3	-15.2362E-3
-3.85443E-3	-151.228E-12	673.615E-3	-53.2332E-3	-151.619E-12	637.911E-3	-1.06246E-3
-3.85943E-3	-151.985E-12	667.804E-3	-34.8116E-3	-151.855E-12	645.670E-3	-9.70817E-3
-3.86443E-3	-153.335E-12	656.351E-3	-7.65746E-3	-152.315E-12	682.523E-3	-13.9450E-3
-3.86943E-3	-154.803E-12	667.185E-3	-4.43150E-3	-152.518E-12	715.523E-3	11.0724E-3
-3.87444E-3	-153.972E-12	668.018E-3	-17.3156E-3	-153.408E-12	704.337E-3	24.7393E-3
-3.87944E-3	-153.758E-12	652.855E-3	-22.9225E-3	-154.007E-12	663.305E-3	15.3313E-3
-3.88444E-3	-154.757E-12	654.739E-3	-11.8301E-3	-154.500E-12	641.829E-3	-3.38665E-3
-3.88944E-3	-156.508E-12	668.950E-3	-1.69616E-3	-153.732E-12	645.913E-3	-28.6792E-3
-3.89445E-3	-156.480E-12	677.085E-3	-12.5059E-3	-154.673E-12	651.124E-3	-40.3420E-3
-3.89945E-3	-154.219E-12	680.861E-3	-37.7474E-3	-154.497E-12	655.598E-3	-32.3837E-3
-3.90445E-3	-153.900E-12	683.709E-3	-39.3143E-3	-154.634E-12	669.736E-3	-22.6765E-3
-3.90945E-3	-153.681E-12	680.865E-3	-14.2122E-3	-154.923E-12	680.555E-3	-15.0089E-3
-3.91446E-3	-155.370E-12	679.962E-3	-9.71036E-3	-154.416E-12	679.305E-3	-5.32996E-3
-3.91946E-3	-153.898E-12	685.218E-3	-25.4055E-3	-154.532E-12	674.793E-3	-4.20227E-3
-3.92446E-3	-153.624E-12	685.778E-3	-15.7766E-3	-154.640E-12	671.898E-3	-8.24918E-3
-3.92946E-3	-152.924E-12	664.294E-3	-3.40254E-3	-155.107E-12	662.522E-3	-6.58263E-3
-3.93447E-3	-154.525E-12	633.823E-3	-14.7359E-3	-154.674E-12	664.415E-3	-6.20196E-3
-3.93947E-3	-154.284E-12	622.866E-3	-14.0253E-3	-154.725E-12	671.437E-3	-6.52325E-3
-3.94447E-3	-154.285E-12	633.740E-3	-18.2443E-3	-155.182E-12	655.688E-3	-5.40696E-3
-3.94947E-3	-155.154E-12	651.950E-3	-43.8463E-3	-155.700E-12	655.011E-3	-6.94839E-3
-3.95448E-3	-156.750E-12	648.943E-3	-40.1076E-3	-154.714E-12	656.678E-3	-15.8467E-3
-3.95948E-3	-157.772E-12	633.449E-3	-16.4514E-3	-153.560E-12	642.364E-3	-22.7260E-3
-3.96448E-3	-157.614E-12	637.238E-3	-11.4189E-3	-153.732E-12	655.842E-3	-6.35270E-3
-3.96948E-3	-158.870E-12	654.040E-3	-11.3057E-3	-153.963E-12	668.238E-3	17.9936E-3
-3.97449E-3	-159.077E-12	669.514E-3	-21.4421E-3	-154.275E-12	653.571E-3	23.7507E-3
-3.97949E-3	-160.039E-12	690.203E-3	-24.0889E-3	-153.415E-12	648.728E-3	5.68002E-3
-3.98449E-3	-159.402E-12	703.935E-3	695.269E-6	-154.068E-12	655.329E-3	-19.1715E-3
-3.98949E-3	-160.229E-12	693.116E-3	8.36448E-3	-154.415E-12	660.945E-3	-26.4493E-3
-3.99450E-3	-160.564E-12	686.553E-3	-15.0033E-3	-155.874E-12	670.203E-3	-29.5889E-3
-3.99950E-3	-159.518E-12	685.534E-3	-33.8618E-3	-156.073E-12	670.482E-3	-34.3955E-3
-4.00450E-3	-159.913E-12	670.404E-3	-26.7581E-3	-156.621E-12	658.310E-3	-24.8171E-3
-4.00950E-3	-159.195E-12	661.435E-3	758.422E-6	-157.734E-12	659.212E-3	-12.5894E-3
-4.01451E-3	-158.625E-12	674.518E-3	23.7269E-3	-158.966E-12	672.201E-3	-11.1375E-3
-4.01951E-3	-157.836E-12	700.046E-3	9.63739E-3	-159.962E-12	691.061E-3	-15.1156E-3
-4.02451E-3	-158.349E-12	697.741E-3	-19.7352E-3	-160.282E-12	702.427E-3	-17.8641E-3
-4.02951E-3	-157.835E-12	654.764E-3	-9.89697E-3	-161.721E-12	678.978E-3	-26.0414E-3
-4.03452E-3	-157.912E-12	644.493E-3	16.2343E-3	-160.972E-12	662.314E-3	-25.0051E-3
-4.03952E-3	-157.689E-12	668.800E-3	-1.56018E-3	-161.342E-12	680.128E-3	-9.54615E-3
-4.04452E-3	-158.142E-12	674.569E-3	-35.3954E-3	-161.340E-12	677.975E-3	-3.63840E-3
-4.04952E-3	-158.931E-12	673.813E-3	-38.9726E-3	-162.276E-12	649.724E-3	9.34348E-3
-4.05453E-3	-158.930E-12	671.107E-3	-39.4137E-3	-160.900E-12	645.413E-3	21.7984E-3
-4.05953E-3	-159.169E-12	657.369E-3	-35.3743E-3	-160.001E-12	655.352E-3	-393.031E-6
-4.06453E-3	-160.273E-12	636.928E-3	-13.3082E-3	-158.897E-12	647.113E-3	-14.4166E-3
-4.06953E-3	-161.117E-12	639.662E-3	-3.82684E-3	-159.226E-12	646.678E-3	-6.43372E-3
-4.07454E-3	-161.578E-12	656.662E-3	-13.1228E-3	-157.810E-12	669.842E-3	-4.42381E-3
-4.07954E-3	-161.356E-12	665.862E-3	-3.74401E-3	-157.455E-12	674.181E-3	-4.48353E-3
-4.08454E-3	-161.886E-12	678.633E-3	18.1587E-3	-157.750E-12	658.435E-3	-3.61553E-3
-4.08954E-3	-163.187E-12	693.690E-3	14.7793E-3	-158.609E-12	660.672E-3	-21.9904E-3
-4.09455E-3	-162.388E-12	705.905E-3	-1.85728E-3	-159.666E-12	670.819E-3	-47.7164E-3
-4.09955E-3	-162.227E-12	686.111E-3	-17.8153E-3	-160.640E-12	677.445E-3	-46.0701E-3
-4.10455E-3	-161.578E-12	643.735E-3	-31.3465E-3	-161.563E-12	682.178E-3	-31.9102E-3
-4.10955E-3	-161.998E-12	628.953E-3	-40.7233E-3	-163.134E-12	673.650E-3	-21.7643E-3
-4.11456E-3	-161.559E-12	644.049E-3	-31.5266E-3	-164.289E-12	661.093E-3	-26.2132E-3
-4.11956E-3	-161.832E-12	658.141E-3	-9.70982E-3	-166.307E-12	669.415E-3	-33.5799E-3
-4.12456E-3	-161.343E-12	666.926E-3	-15.0141E-3	-166.479E-12	681.279E-3	-19.1030E-3
-4.12956E-3	-161.979E-12	665.405E-3	-19.8953E-3	-166.920E-12	664.339E-3	2.67566E-3
-4.13457E-3	-162.208E-12	634.935E-3	-4.76314E-3	-166.636E-12	650.309E-3	16.6901E-3
-4.13957E-3	-161.995E-12	615.766E-3	-2.16421E-3	-167.583E-12	665.560E-3	13.1271E-3
-4.14457E-3	-162.796E-12	635.990E-3	-10.2262E-3	-167.345E-12	679.336E-3	7.55329E-3
-4.14957E-3	-163.110E-12	651.223E-3	-20.7417E-3	-166.234E-12	695.174E-3	13.3218E-3
-4.15458E-3	-163.242E-12	644.718E-3	-19.6325E-3	-164.158E-12	711.427E-3	4.21028E-3
-4.15958E-3	-163.976E-12	635.371E-3	1.07738E-3	-164.211E-12	692.268E-3	-16.1273E-3
-4.16458E-3	-164.371E-12	621.915E-3	22.3444E-3	-163.779E-12	665.891E-3	-24.4449E-3
-4.16958E-3	-164.807E-12	628.464E-3	29.0659E-3	-162.396E-12	655.489E-3	-28.3147E-3
-4.17459E-3	-165.382E-12	657.577E-3	20.5350E-3	-161.061E-12	646.475E-3	-26.1226E-3
-4.17959E-3	-166.154E-12	656.844E-3	-1.63337E-3	-161.932E-12	636.608E-3	-19.6105E-3
-4.18459E-3	-166.954E-12	639.254E-3	-23.0039E-3	-163.484E-12	639.267E-3	-13.6366E-3
-4.18959E-3	-167.541E-12	643.919E-3	-15.8052E-3	-163.796E-12	653.020E-3	-2.85182E-3
-4.19460E-3	-167.489E-12	669.656E-3	3.56368E-3	-163.605E-12	668.736E-3	-11.4450E-3
-4.19960E-3	-167.732E-12	704.566E-3	6.16091E-3	-165.059E-12	679.690E-3	-38.3454E-3
-4.20460E-3	-168.157E-12	728.120E-3	7.66982E-3	-166.931E-12	682.054E-3	-41.8332E-3
-4.20960E-3	-168.734E-12	715.449E-3	8.45296E-3	-168.296E-12	686.265E-3	-25.3093E-3
-4.21461E-3	-168.589E-12	698.221E-3	-11.2325E-3	-169.407E-12	688.375E-3	-41.5395E-3
-4.21961E-3	-168.983E-12	711.149E-3	-18.7975E-3	-170.222E-12	698.917E-3	-63.8427E-3
-4.22461E-3	-169.476E-12	698.458E-3	-667.245E-6	-170.809E-12	714.262E-3	-52.2818E-3
-4.22961E-3	-169.959E-12	665.147E-3	-541.383E-6	-171.174E-12	711.393E-3	-42.2303E-3
-4.23462E-3	-170.475E-12	663.769E-3	-18.0517E-3	-171.377E-12	693.451E-3	-39.9627E-3
-4.23962E-3	-169.896E-12	660.119E-3	-15.9961E-3	-171.008E-12	672.519E-3	-35.5896E-3
-4.24462E-3	-170.015E-12	645.824E-3	-6.08688E-3	-169.668E-12	655.551E-3	-45.0927E-3
-4.24962E-3	-169.565E-12	666.499E-3	-12.7104E-3	-168.839E-12	647.334E-3	-63.6993E-3
-4.25463E-3	-169.830E-12	695.892E-3	-32.3769E-3	-168.461E-12	647.731E-3	-67.9550E-3
-4.25963E-3	-170.100E-12	681.856E-3	-45.5805E-3	-168.280E-12	660.011E-3	-47.3387E-3
-4.26463E-3	-169.744E-12	649.313E-3	-45.9976E-3	-167.333E-12	670.486E-3	-23.6778E-3
-4.26963E-3	-169.190E-12	636.401E-3	-38.7502E-3	-166.706E-12	665.376E-3	-22.3352E-3
-4.27464E-3	-169.517E-12	638.211E-3	-30.3603E-3	-167.422E-12	666.684E-3	-39.1922E-3
-4.27964E-3	-171.034E-12	653.208E-3	-30.2283E-3	-168.229E-12	673.594E-3	-42.6659E-3
-4.28464E-3	-171.139E-12	673.934E-3	-27.9295E-3	-168.386E-12	672.991E-3	-22.3126E-3
-4.28964E-3	-170.288E-12	658.534E-3	-21.1812E-3	-168.180E-12	679.787E-3	-15.0703E-3
-4.29465E-3	-170.964E-12	627.499E-3	-22.8867E-3	-169.983E-12	685.948E-3	-5.75470E-3
-4.29965E-3	-173.304E-12	625.831E-3	-21.9073E-3	-171.167E-12	673.804E-3	3.73969E-3
-4.30465E-3	-174.149E-12	664.412E-3	-7.07494E-3	-172.077E-12	666.163E-3	1.53110E-3
-4.30965E-3	-172.594E-12	696.435E-3	1.81504E-3	-171.394E-12	669.349E-3	1.04215E-3
-4.31466E-3	-173.306E-12	679.427E-3	-3.30886E-3	-172.502E-12	667.395E-3	-16.2375E-3
-4.31966E-3	-173.930E-12	667.872E-3	-16.9492E-3	-172.507E-12	670.928E-3	-29.1953E-3
-4.32466E-3	-174.619E-12	675.450E-3	-32.9791E-3	-172.852E-12	665.617E-3	-34.5045E-3
-4.32966E-3	-173.486E-12	672.204E-3	-35.2069E-3	-172.043E-12	649.546E-3	-38.2662E-3
-4.33467E-3	-173.629E-12	678.918E-3	-28.2961E-3	-171.794E-12	661.809E-3	-21.9195E-3
-4.33967E-3	-173.363E-12	697.412E-3	-16.2589E-3	-171.123E-12	693.595E-3	-1.02252E-3
-4.34467E-3	-172.531E-12	713.542E-3	2.70293E-3	-171.179E-12	696.695E-3	354.309E-6
-4.34967E-3	-171.930E-12	706.021E-3	-5.35789E-3	-171.419E-12	667.832E-3	-7.64275E-3
-4.35468E-3	-171.900E-12	673.519E-3	-15.3134E-3	-172.152E-12	656.522E-3	-13.2310E-3
-4.35968E-3	-171.953E-12	666.569E-3	1.62542E-3	-171.495E-12	659.665E-3	-17.8382E-3
-4.36468E-3	-171.575E-12	679.954E-3	5.00136E-3	-172.069E-12	646.969E-3	-5.84479E-3
-4.36968E-3	-172.144E-12	668.884E-3	-5.55707E-3	-172.740E-12	641.848E-3	-3.94564E-3
-4.37469E-3	-173.647E-12	659.934E-3	-7.73752E-3	-174.071E-12	667.042E-3	-15.2926E-3
-4.37969E-3	-174.104E-12	666.491E-3	-15.7056E-3	-174.081E-12	692.852E-3	-2.48880E-3
-4.38469E-3	-175.088E-12	651.959E-3	-13.3918E-3	-173.762E-12	686.915E-3	-5.01213E-3
-4.38969E-3	-175.897E-12	633.824E-3	24.5173E-3	-174.962E-12	670.724E-3	-24.2076E-3
-4.39470E-3	-177.122E-12	646.658E-3	44.0817E-3	-175.720E-12	665.880E-3	-12.8763E-3
-4.39970E-3	-177.799E-12	675.279E-3	19.2323E-3	-176.097E-12	668.330E-3	-8.51304E-3
-4.40470E-3	-178.403E-12	682.555E-3	-492.955E-6	-174.977E-12	671.136E-3	-22.4769E-3
-4.40970E-3	-179.238E-12	657.642E-3	6.11501E-3	-175.607E-12	666.254E-3	-15.5155E-3
-4.41471E-3	-179.197E-12	649.346E-3	-1.69926E-3	-176.002E-12	655.342E-3	659.416E-6
-4.41971E-3	-178.871E-12	679.923E-3	-15.4610E-3	-176.197E-12	647.819E-3	-3.67700E-3
-4.42471E-3	-178.838E-12	703.381E-3	-5.78385E-3	-175.332E-12	654.568E-3	-13.5228E-3
-4.42971E-3	-178.776E-12	692.992E-3	6.25240E-3	-175.299E-12	676.681E-3	-2.51859E-3
-4.43472E-3	-177.779E-12	676.887E-3	9.87524E-3	-176.481E-12	688.847E-3	2.50627E-3
-4.43972E-3	-177.263E-12	664.694E-3	6.89512E-3	-176.961E-12	686.139E-3	-1.19822E-3
-4.44472E-3	-177.618E-12	649.455E-3	-4.12919E-3	-177.549E-12	684.894E-3	-7.52885E-3
-4.44972E-3	-177.435E-12	652.110E-3	-27.9451E-3	-178.310E-12	670.492E-3	-21.1234E-3
-4.45473E-3	-177.061E-12	653.013E-3	-39.5514E-3	-179.472E-12	639.662E-3	-13.6883E-3
-4.45973E-3	-176.483E-12	648.722E-3	-25.4905E-3	-179.941E-12	627.268E-3	6.71445E-3
-4.46473E-3	-178.437E-12	663.400E-3	-18.4525E-3	-180.699E-12	639.037E-3	2.38596E-3
-4.46973E-3	-179.085E-12	683.379E-3	-19.7353E-3	-181.554E-12	638.704E-3	-31.4183E-3
-4.47474E-3	-179.915E-12	695.306E-3	-34.1751E-3	-181.336E-12	641.477E-3	-53.6923E-3
-4.47974E-3	-179.597E-12	685.077E-3	-56.2712E-3	-180.780E-12	670.023E-3	-47.9322E-3
-4.48474E-3	-181.216E-12	667.548E-3	-48.3438E-3	-180.276E-12	686.509E-3	-35.1340E-3
-4.48974E-3	-181.038E-12	678.769E-3	-41.4405E-3	-181.017E-12	678.429E-3	-31.9285E-3
-4.49475E-3	-181.988E-12	720.533E-3	-44.0113E-3	-180.023E-12	671.185E-3	-29.9939E-3
-4.49975E-3	-181.364E-12	735.966E-3	-32.7640E-3	-179.031E-12	670.491E-3	-19.1355E-3
-4.50475E-3	-180.533E-12	703.530E-3	-19.1415E-3	-178.921E-12	669.862E-3	-25.2360E-3
-4.50975E-3	-181.472E-12	675.210E-3	-29.6693E-3	-180.028E-12	661.348E-3	-33.6199E-3
-4.51476E-3	-181.703E-12	654.280E-3	-56.6570E-3	-179.711E-12	650.994E-3	-11.7232E-3
-4.51976E-3	-181.171E-12	643.939E-3	-56.1829E-3	-179.214E-12	661.205E-3	11.4989E-3
-4.52476E-3	-179.956E-12	653.176E-3	-38.8236E-3	-178.630E-12	690.879E-3	24.2978E-3
-4.52976E-3	-179.492E-12	653.003E-3	-23.0198E-3	-180.316E-12	699.900E-3	16.6489E-3
-4.53477E-3	-180.637E-12	646.821E-3	-14.8647E-3	-181.212E-12	679.403E-3	-17.5384E-3
-4.53977E-3	-181.023E-12	659.764E-3	-14.4671E-3	-181.687E-12	666.142E-3	-39.1477E-3
-4.54477E-3	-179.615E-12	695.614E-3	-6.02168E-3	-181.858E-12	647.260E-3	-34.8316E-3
-4.54977E-3	-179.953E-12	716.125E-3	12.6143E-3	-183.594E-12	627.749E-3	-14.0021E-3
-4.55478E-3	-181.956E-12	686.899E-3	20.5780E-3	-184.932E-12	643.141E-3	1.04138E-3
-4.55978E-3	-183.168E-12	637.328E-3	10.8979E-3	-184.192E-12	666.501E-3	-6.17936E-3
-4.56478E-3	-183.300E-12	636.689E-3	-1.52175E-3	-183.798E-12	667.695E-3	2.81564E-3
-4.56978E-3	-183.393E-12	671.950E-3	-16.8356E-3	-183.806E-12	661.270E-3	22.8763E-3
-4.57479E-3	-184.881E-12	681.048E-3	-24.3486E-3	-182.461E-12	646.692E-3	24.8154E-3
-4.57979E-3	-185.089E-12	660.596E-3	-1.04481E-3	-181.956E-12	623.427E-3	9.72174E-3
-4.58479E-3	-185.323E-12	632.442E-3	12.6509E-3	-181.494E-12	626.899E-3	-36.0264E-3
-4.58979E-3	-185.045E-12	640.030E-3	330.584E-6	-180.444E-12	646.794E-3	-78.3307E-3
-4.59480E-3	-184.792E-12	680.387E-3	-197.658E-6	-180.152E-12	651.035E-3	-63.5089E-3
-4.59980E-3	-185.833E-12	687.294E-3	-3.28903E-3	-180.287E-12	648.191E-3	-28.2372E-3
-4.60480E-3	-185.788E-12	667.838E-3	-19.4975E-3	-181.202E-12	656.710E-3	-30.2789E-3
-4.60980E-3	-186.219E-12	656.736E-3	-33.4376E-3	-181.658E-12	669.653E-3	-46.4626E-3
-4.61481E-3	-184.879E-12	640.180E-3	-41.5597E-3	-182.562E-12	679.680E-3	-44.4035E-3
-4.61981E-3	-184.939E-12	644.830E-3	-16.1651E-3	-183.705E-12	690.835E-3	-39.5186E-3
-4.62481E-3	-185.411E-12	668.923E-3	15.6259E-3	-185.493E-12	685.187E-3	-32.9443E-3
-4.62981E-3	-186.308E-12	652.997E-3	-5.84153E-3	-186.458E-12	672.793E-3	-30.6461E-3
-4.63482E-3	-185.318E-12	623.535E-3	-32.0833E-3	-187.529E-12	675.744E-3	-41.5698E-3
-4.63982E-3	-185.906E-12	625.689E-3	-14.8506E-3	-188.863E-12	666.395E-3	-27.1146E-3
-4.64482E-3	-186.881E-12	648.739E-3	-5.78178E-3	-190.025E-12	648.473E-3	9.82508E-3
-4.64982E-3	-188.163E-12	679.770E-3	-17.5493E-3	-190.023E-12	670.224E-3	12.3390E-3
-4.65483E-3	-188.311E-12	686.500E-3	-19.1357E-3	-189.347E-12	707.316E-3	-11.4246E-3
-4.65983E-3	-188.703E-12	671.137E-3	-31.0523E-3	-190.076E-12	701.890E-3	-13.1355E-3
-4.66483E-3	-189.398E-12	663.743E-3	-44.5185E-3	-189.948E-12	675.685E-3	-27.9353E-3
-4.66983E-3	-189.785E-12	667.702E-3	-34.1899E-3	-188.797E-12	667.652E-3	-57.7259E-3
-4.67484E-3	-189.388E-12	677.085E-3	-21.1185E-3	-186.977E-12	669.422E-3	-45.3162E-3
-4.67984E-3	-189.794E-12	681.585E-3	-16.0898E-3	-186.846E-12	678.941E-3	-22.0425E-3
-4.68484E-3	-189.526E-12	698.912E-3	-11.1248E-3	-187.821E-12	682.240E-3	-19.8175E-3
-4.68984E-3	-188.811E-12	709.576E-3	-11.4281E-3	-187.347E-12	698.882E-3	-19.5943E-3
-4.69485E-3	-188.929E-12	689.232E-3	-18.8914E-3	-186.725E-12	721.958E-3	-5.62778E-3
-4.69985E-3	-188.897E-12	681.100E-3	2.12119E-3	-187.815E-12	699.007E-3	-161.307E-6
-4.70485E-3	-189.979E-12	669.317E-3	34.5363E-3	-189.556E-12	679.125E-3	-15.8119E-3
-4.70985E-3	-189.458E-12	639.446E-3	12.3371E-3	-190.769E-12	697.391E-3	-36.2832E-3
-4.71486E-3	-190.221E-12	633.771E-3	-10.4855E-3	-190.585E-12	709.201E-3	-43.3206E-3
-4.71986E-3	-190.542E-12	637.279E-3	9.21458E-3	-191.980E-12	701.790E-3	-14.9819E-3
-4.72486E-3	-191.018E-12	631.523E-3	13.0041E-3	-193.368E-12	689.295E-3	12.8538E-3
-4.72986E-3	-191.091E-12	634.626E-3	-6.26760E-3	-194.810E-12	672.465E-3	14.2423E-3
-4.73487E-3	-191.221E-12	657.947E-3	4.37603E-3	-194.880E-12	660.376E-3	9.39701E-3
-4.73987E-3	-192.149E-12	677.888E-3	17.3727E-3	-194.967E-12	684.414E-3	-14.4585E-3
-4.74487E-3	-191.416E-12	663.704E-3	-12.2711E-3	-195.507E-12	713.705E-3	-49.0503E-3
-4.74988E-3	-192.130E-12	640.742E-3	-42.7330E-3	-195.664E-12	702.437E-3	-58.3176E-3
-4.75488E-3	-191.500E-12	637.710E-3	-53.8597E-3	-194.794E-12	678.496E-3	-56.9111E-3
-4.75988E-3	-191.694E-12	643.266E-3	-51.2614E-3	-193.610E-12	678.195E-3	-56.0415E-3
-4.76488E-3	-190.219E-12	636.685E-3	-20.7978E-3	-192.994E-12	684.732E-3	-35.4893E-3
-4.76988E-3	-189.373E-12	630.482E-3	4.81875E-3	-192.343E-12	669.507E-3	-11.4048E-3
-4.77489E-3	-189.550E-12	646.947E-3	-12.9537E-3	-191.536E-12	664.335E-3	-13.7874E-3
-4.77989E-3	-190.056E-12	670.474E-3	-19.5666E-3	-191.606E-12	665.582E-3	-16.5001E-3
-4.78489E-3	-189.718E-12	681.207E-3	-11.0270E-3	-190.034E-12	656.731E-3	-11.6177E-3
-4.78989E-3	-188.891E-12	672.008E-3	-25.5345E-3	-190.755E-12	662.326E-3	-10.1683E-3
-4.79490E-3	-190.368E-12	662.868E-3	-33.0152E-3	-190.292E-12	665.730E-3	14.1828E-3
-4.79990E-3	-190.964E-12	663.382E-3	-32.4885E-3	-191.749E-12	664.479E-3	32.4280E-3
-4.80490E-3	-193.130E-12	669.502E-3	-35.3368E-3	-192.028E-12	656.190E-3	1.55608E-3
-4.80990E-3	-192.911E-12	674.659E-3	-32.6128E-3	-192.563E-12	637.277E-3	-25.1118E-3
-4.81491E-3	-194.957E-12	672.112E-3	-21.9432E-3	-193.365E-12	634.050E-3	-3.92336E-3
-4.81991E-3	-195.945E-12	659.002E-3	-12.1090E-3	-194.929E-12	632.432E-3	7.10944E-3
-4.82491E-3	-196.925E-12	648.826E-3	-13.2804E-3	-195.166E-12	636.938E-3	-20.4770E-3
-4.82991E-3	-197.753E-12	669.534E-3	-18.5532E-3	-194.451E-12	663.261E-3	-40.3237E-3
-4.83492E-3	-198.090E-12	685.262E-3	-9.63491E-3	-194.644E-12	679.701E-3	-32.8438E-3
-4.83992E-3	-197.852E-12	670.006E-3	13.9380E-3	-195.192E-12	671.018E-3	-23.9027E-3
-4.84492E-3	-198.141E-12	654.776E-3	7.19788E-3	-195.369E-12	652.335E-3	-17.7344E-3
-4.84992E-3	-198.785E-12	662.342E-3	-18.6702E-3	-194.689E-12	642.373E-3	-12.2782E-3
-4.85493E-3	-197.608E-12	679.049E-3	-37.6366E-3	-194.395E-12	630.593E-3	-18.4959E-3
-4.85993E-3	-196.066E-12	671.601E-3	-39.2434E-3	-194.526E-12	632.106E-3	-9.13667E-3
-4.86493E-3	-195.754E-12	656.587E-3	-15.2418E-3	-194.621E-12	660.796E-3	-3.69184E-3
-4.86993E-3	-195.711E-12	662.282E-3	-1.93060E-3	-195.508E-12	682.206E-3	-23.8373E-3
-4.87494E-3	-196.151E-12	664.477E-3	1.22534E-3	-195.140E-12	682.982E-3	-23.9813E-3
-4.87994E-3	-194.268E-12	641.519E-3	-13.2757E-3	-196.421E-12	676.650E-3	129.857E-6
-4.88494E-3	-195.199E-12	628.690E-3	-31.8715E-3	-196.486E-12	685.282E-3	20.0605E-3
-4.88995E-3	-195.848E-12	635.266E-3	-18.4074E-3	-197.390E-12	690.613E-3	15.2135E-3
-4.89495E-3	-197.588E-12	642.074E-3	-3.36699E-3	-198.077E-12	678.385E-3	-15.7644E-3
-4.89995E-3	-198.001E-12	668.544E-3	-13.6233E-3	-197.320E-12	679.303E-3	-37.4108E-3
-4.90495E-3	-198.797E-12	695.670E-3	-29.2449E-3	-197.909E-12	688.817E-3	-32.5447E-3
-4.90995E-3	-200.474E-12	698.512E-3	-27.8529E-3	-198.994E-12	679.261E-3	-42.6588E-3
-4.91496E-3	-202.037E-12	698.276E-3	-23.8500E-3	-199.605E-12	663.988E-3	-56.7143E-3
-4.91996E-3	-202.851E-12	682.964E-3	-33.4658E-3	-198.118E-12	665.452E-3	-34.8908E-3
-4.92496E-3	-202.805E-12	660.121E-3	-19.9147E-3	-198.428E-12	669.499E-3	-14.9740E-3
-4.92996E-3	-203.647E-12	670.918E-3	-9.18964E-3	-199.164E-12	650.617E-3	-20.2450E-3
-4.93497E-3	-204.172E-12	697.137E-3	-27.1115E-3	-199.788E-12	632.190E-3	-19.2167E-3
-4.93997E-3	-203.115E-12	696.106E-3	-38.8980E-3	-198.679E-12	660.392E-3	-18.3518E-3
-4.94497E-3	-201.278E-12	675.043E-3	-41.9660E-3	-198.202E-12	682.351E-3	-32.0512E-3
-4.94997E-3	-199.987E-12	670.871E-3	-33.3684E-3	-200.268E-12	646.146E-3	-28.2205E-3
-4.95498E-3	-200.467E-12	663.891E-3	-31.4036E-3	-201.504E-12	627.602E-3	-14.9529E-3
-4.95998E-3	-199.642E-12	650.972E-3	-40.4302E-3	-202.052E-12	650.061E-3	-13.2288E-3
-4.96498E-3	-198.500E-12	662.148E-3	-39.0510E-3	-201.247E-12	664.012E-3	-20.1651E-3
-4.96998E-3	-198.112E-12	661.234E-3	-17.3958E-3	-203.156E-12	664.661E-3	-30.9243E-3
-4.97499E-3	-198.525E-12	651.546E-3	7.67821E-3	-204.917E-12	665.107E-3	-29.9041E-3
-4.97999E-3	-198.986E-12	669.283E-3	10.7775E-3	-204.496E-12	665.014E-3	-34.2010E-3
-4.98499E-3	-198.732E-12	666.857E-3	4.53256E-3	-203.806E-12	668.536E-3	-55.8385E-3
-4.98999E-3	-199.775E-12	634.768E-3	-11.9977E-3	-203.518E-12	690.875E-3	-59.5955E-3
-4.99500E-3	-200.777E-12	634.336E-3	-33.6494E-3	-204.249E-12	694.215E-3	-37.9350E-3
-5.00000E-3	-203.057E-12	652.256E-3	-31.4181E-3	-203.799E-12	668.397E-3	-23.3889E-3
