Experiment	bias spectroscopy	
Date	19.01.2016 21:18:57	
User		
X (m)	49.3797E-9	
Y (m)	256.886E-9	
Z (m)	-132.609E-9	
Z offset (m)	0E+0	
Settling time (s)	200E-6	
Integration time (s)	5E-3	
Z-Ctrl hold	TRUE	
Final Z (m)	N/A	
Filter type	None	
Order		
Cutoff frq		
Comment01	MnPc/Pb(111)	
Comment02	dz =00pm	
Comment03	7 Sweeps	
Comment04	MagField =0.T	
Comment05	Divider 1:10	
Comment06	Setpoint:5mV,200 pA	
Comment07	Lockin: 50uVrms,5ms,5mV	
Comment08	Gain:9; 912Hz modulation	
Comment09	T=1.06K	
Bias>Bias (V)	5E-3	
Bias>Calibration (V/V)	81.475E-3	
Bias>Offset (V)	1.046E-3	
Bias Spectroscopy>Sweep Start (V)	5E-3	
Bias Spectroscopy>Sweep End (V)	-5E-3	
Bias Spectroscopy>Num Pixel	2000	
Bias Spectroscopy>Z Avg time (s)	500E-3	
Bias Spectroscopy>Z offset (m)	0E+0	
Bias Spectroscopy>1st Settling time (s)	500E-3	
Bias Spectroscopy>Settling time (s)	200E-6	
Bias Spectroscopy>Integration time (s)	5E-3	
Bias Spectroscopy>End Settling time (s)	500E-3	
Bias Spectroscopy>Z control time (s)	500E-3	
Bias Spectroscopy>Max Slew rate (V/s)	Inf	
Bias Spectroscopy>backward sweep	TRUE	
Bias Spectroscopy>Z-controller hold	TRUE	
Bias Spectroscopy>Number of sweeps	7	
Bias Spectroscopy>Channels	Current (A);X% LockIn (V);Y% LockIn (V)	
Bias Spectroscopy>Reset Bias	TRUE	
Bias Spectroscopy>Record final Z	FALSE	
Bias Spectroscopy>Lock-In run	FALSE	
Bias Spectroscopy>Sweep mode	Linear	
Bias Spectroscopy>MultiLine Settings : Segment Start (V), Segment End (V), Settling (s), Integration (s), Steps (xn)	100E-3,3.3E-3,100E-6,10E-3,2500;3.3E-3,-3.3E-3,100E-6,10E-3,10;-3.3E-3,-100E-3,100E-6,10E-3,2500	
Current>Current (A)	200.054E-12	
Current>Calibration (A/V)	999.99900E-12	
Current>Offset (A)	-455.429E-15	
Current>Gain	LN 10^9	
Z-Controller>Z (m)	-132.611E-9	
Z-Controller>Controller name	log Current	
Z-Controller>Controller status	ON	
Z-Controller>Setpoint	200E-12	
Z-Controller>Setpoint unit	A	
Z-Controller>P gain	2.96994E-12	
Z-Controller>I gain	67.0321E-9	
Z-Controller>Time const (s)	44.3062E-6	
Z-Controller>TipLift (m)	0E+0	
Z-Controller>Switch off delay (s)	50E-3	
Current (A)	199.632E-12	
Z (m)	-132.611E-9	

[DATA]
Bias calc (V)	Current (A)	X% LockIn (V)	Y% LockIn (V)	Current [bwd] (A)	X% LockIn [bwd] (V)	Y% LockIn [bwd] (V)
5.00000E-3	201.721E-12	642.982E-3	-19.5116E-3	199.513E-12	646.688E-3	-20.0976E-3
4.99500E-3	201.363E-12	613.246E-3	-24.7546E-3	198.283E-12	651.620E-3	-25.9505E-3
4.98999E-3	201.075E-12	603.901E-3	-52.4637E-3	200.600E-12	675.431E-3	-10.8476E-3
4.98499E-3	201.081E-12	613.711E-3	-63.8267E-3	200.304E-12	692.589E-3	-15.0938E-3
4.97999E-3	201.553E-12	607.822E-3	-37.3421E-3	199.499E-12	678.365E-3	-27.5864E-3
4.97499E-3	200.289E-12	627.399E-3	-31.4030E-3	199.385E-12	645.371E-3	-17.8597E-3
4.96998E-3	199.988E-12	666.535E-3	-31.4118E-3	200.933E-12	636.212E-3	-23.0338E-3
4.96498E-3	199.984E-12	661.993E-3	-7.04864E-3	201.184E-12	647.557E-3	-50.8464E-3
4.95998E-3	199.838E-12	622.760E-3	-9.33207E-3	199.582E-12	651.133E-3	-58.3802E-3
4.95498E-3	198.427E-12	618.839E-3	-26.5894E-3	198.664E-12	681.034E-3	-54.8774E-3
4.94997E-3	197.295E-12	653.054E-3	-37.7675E-3	199.749E-12	706.161E-3	-57.9996E-3
4.94497E-3	197.559E-12	666.831E-3	-42.5254E-3	199.809E-12	685.841E-3	-61.1106E-3
4.93997E-3	195.479E-12	676.532E-3	-31.1578E-3	200.898E-12	668.096E-3	-62.1606E-3
4.93497E-3	194.722E-12	676.650E-3	-16.1557E-3	198.106E-12	654.058E-3	-51.0707E-3
4.92996E-3	193.983E-12	652.106E-3	-3.54695E-3	198.893E-12	632.591E-3	-16.0049E-3
4.92496E-3	194.786E-12	644.323E-3	11.8832E-3	199.975E-12	634.488E-3	-6.28782E-3
4.91996E-3	194.819E-12	642.304E-3	15.1118E-3	200.002E-12	647.960E-3	-20.8404E-3
4.91496E-3	194.033E-12	629.519E-3	4.13927E-3	199.490E-12	656.146E-3	10.2728E-3
4.90995E-3	194.654E-12	634.412E-3	-6.08984E-3	198.197E-12	663.352E-3	37.0905E-3
4.90495E-3	196.266E-12	649.811E-3	-17.9179E-3	197.288E-12	649.848E-3	2.75437E-3
4.89995E-3	197.756E-12	659.022E-3	-28.9787E-3	197.889E-12	633.823E-3	-9.49097E-3
4.89495E-3	194.721E-12	672.022E-3	-24.8281E-3	198.586E-12	639.605E-3	-8.76387E-3
4.88995E-3	194.659E-12	675.399E-3	-2.92852E-3	197.041E-12	629.707E-3	-35.8292E-3
4.88494E-3	196.835E-12	664.744E-3	-16.4447E-3	196.923E-12	628.139E-3	-27.3047E-3
4.87994E-3	196.061E-12	670.404E-3	-50.3482E-3	197.671E-12	661.069E-3	-17.2645E-3
4.87494E-3	195.317E-12	676.047E-3	-35.7993E-3	199.140E-12	664.392E-3	-43.3468E-3
4.86993E-3	193.884E-12	641.570E-3	-12.7172E-3	196.905E-12	644.901E-3	-49.3865E-3
4.86493E-3	194.480E-12	625.442E-3	-36.1285E-3	196.076E-12	665.634E-3	-33.2063E-3
4.85993E-3	194.615E-12	648.094E-3	-55.5228E-3	195.946E-12	686.933E-3	-34.2687E-3
4.85493E-3	193.489E-12	647.236E-3	-49.2605E-3	197.541E-12	673.679E-3	-31.3792E-3
4.84992E-3	194.034E-12	637.600E-3	-43.7337E-3	196.704E-12	675.316E-3	-20.1318E-3
4.84492E-3	193.035E-12	650.810E-3	-23.6554E-3	195.112E-12	686.269E-3	-25.3964E-3
4.83992E-3	192.931E-12	653.593E-3	-18.1378E-3	194.550E-12	686.864E-3	-22.2148E-3
4.83492E-3	192.911E-12	630.357E-3	-36.4330E-3	192.913E-12	694.502E-3	-4.17905E-3
4.82991E-3	191.835E-12	617.402E-3	-48.3566E-3	194.765E-12	688.527E-3	-7.13495E-3
4.82491E-3	192.213E-12	636.348E-3	-37.6100E-3	194.785E-12	650.175E-3	-455.375E-6
4.81991E-3	193.209E-12	652.804E-3	-42.3245E-3	193.165E-12	635.678E-3	17.3086E-3
4.81491E-3	191.627E-12	643.314E-3	-71.7448E-3	191.633E-12	664.303E-3	4.10225E-3
4.80990E-3	192.373E-12	642.817E-3	-58.0627E-3	193.702E-12	670.410E-3	-19.0191E-3
4.80490E-3	192.317E-12	637.331E-3	-27.4232E-3	193.333E-12	661.680E-3	-38.8042E-3
4.79990E-3	191.377E-12	615.054E-3	-26.5478E-3	191.319E-12	671.715E-3	-49.3184E-3
4.79490E-3	191.501E-12	605.643E-3	-22.5394E-3	191.637E-12	667.414E-3	-32.7056E-3
4.78989E-3	190.546E-12	610.437E-3	-14.9036E-3	191.616E-12	636.667E-3	11.7213E-3
4.78489E-3	190.852E-12	616.617E-3	-19.8423E-3	192.940E-12	626.201E-3	13.1154E-3
4.77989E-3	190.996E-12	614.567E-3	-21.6798E-3	191.392E-12	624.835E-3	-27.8376E-3
4.77489E-3	190.589E-12	614.185E-3	-20.1001E-3	190.407E-12	613.347E-3	-19.4864E-3
4.76988E-3	190.858E-12	621.237E-3	-2.50142E-3	190.850E-12	626.769E-3	6.22782E-3
4.76488E-3	190.236E-12	637.163E-3	6.60506E-3	192.920E-12	637.010E-3	12.6358E-3
4.75988E-3	189.362E-12	656.802E-3	3.52204E-3	190.291E-12	618.005E-3	6.14358E-3
4.75488E-3	189.820E-12	674.672E-3	23.5845E-3	188.740E-12	626.984E-3	-26.3797E-3
4.74988E-3	189.362E-12	692.047E-3	19.1039E-3	188.036E-12	676.033E-3	-45.5637E-3
4.74487E-3	189.405E-12	697.266E-3	-3.03524E-3	189.507E-12	712.335E-3	-16.2226E-3
4.73987E-3	189.702E-12	669.030E-3	-8.27265E-3	190.714E-12	715.907E-3	-273.307E-6
4.73487E-3	189.050E-12	633.114E-3	-19.0394E-3	189.036E-12	705.548E-3	-13.4303E-3
4.72986E-3	189.975E-12	643.787E-3	-41.3829E-3	188.526E-12	683.053E-3	-6.22583E-3
4.72486E-3	189.589E-12	662.208E-3	-49.5095E-3	188.097E-12	639.917E-3	10.8734E-3
4.71986E-3	188.547E-12	651.435E-3	-45.7258E-3	189.772E-12	604.413E-3	-2.08970E-3
4.71486E-3	186.585E-12	655.084E-3	-46.0833E-3	189.524E-12	598.078E-3	-29.1608E-3
4.70985E-3	188.235E-12	676.087E-3	-31.4192E-3	188.036E-12	612.501E-3	-34.0858E-3
4.70485E-3	186.808E-12	680.995E-3	-20.2807E-3	186.836E-12	632.410E-3	-27.9425E-3
4.69985E-3	186.817E-12	666.054E-3	-18.3445E-3	187.116E-12	637.751E-3	-27.5310E-3
4.69485E-3	185.034E-12	643.328E-3	269.897E-6	187.662E-12	644.752E-3	-36.6060E-3
4.68984E-3	184.663E-12	627.142E-3	12.2837E-3	188.369E-12	674.910E-3	-37.3760E-3
4.68484E-3	186.143E-12	628.829E-3	12.9832E-3	188.352E-12	700.249E-3	-44.2664E-3
4.67984E-3	185.406E-12	654.167E-3	8.71921E-3	186.870E-12	713.981E-3	-49.1211E-3
4.67484E-3	183.761E-12	663.255E-3	-13.1154E-3	187.875E-12	708.258E-3	-32.5620E-3
4.66983E-3	185.173E-12	646.620E-3	-18.6062E-3	186.516E-12	683.177E-3	-16.9309E-3
4.66483E-3	187.354E-12	648.133E-3	-3.92432E-3	187.415E-12	669.866E-3	-14.6338E-3
4.65983E-3	186.435E-12	664.668E-3	-20.3519E-3	188.720E-12	666.817E-3	-21.8605E-3
4.65483E-3	185.791E-12	675.077E-3	-59.7070E-3	188.098E-12	675.622E-3	-12.0059E-3
4.64982E-3	185.765E-12	677.283E-3	-64.8146E-3	187.510E-12	699.447E-3	-4.71034E-3
4.64482E-3	186.236E-12	679.749E-3	-44.6291E-3	189.252E-12	686.333E-3	-21.1976E-3
4.63982E-3	185.440E-12	677.824E-3	-33.9580E-3	191.063E-12	659.967E-3	-15.2296E-3
4.63482E-3	185.862E-12	665.879E-3	-34.6780E-3	188.314E-12	675.661E-3	-7.64051E-3
4.62981E-3	183.730E-12	651.863E-3	-32.7222E-3	188.273E-12	673.431E-3	-19.2382E-3
4.62481E-3	183.171E-12	643.945E-3	-10.8892E-3	188.498E-12	660.812E-3	-3.70357E-3
4.61981E-3	183.734E-12	648.428E-3	6.65193E-3	189.429E-12	669.736E-3	7.61871E-3
4.61481E-3	182.072E-12	650.159E-3	3.08711E-3	184.476E-12	642.453E-3	5.07518E-3
4.60980E-3	180.465E-12	633.469E-3	-18.0499E-3	184.183E-12	616.881E-3	6.74319E-3
4.60480E-3	181.215E-12	630.151E-3	-31.7409E-3	184.407E-12	640.577E-3	-5.57573E-3
4.59980E-3	181.017E-12	636.821E-3	-27.9913E-3	182.237E-12	658.875E-3	-7.02132E-3
4.59480E-3	180.298E-12	613.729E-3	-9.67183E-3	180.784E-12	649.316E-3	19.0500E-3
4.58979E-3	180.769E-12	577.428E-3	4.89736E-3	180.987E-12	638.882E-3	30.4983E-3
4.58479E-3	180.370E-12	583.869E-3	1.36420E-3	182.453E-12	646.223E-3	3.65935E-3
4.57979E-3	179.537E-12	626.002E-3	-3.27051E-3	180.786E-12	654.714E-3	-16.2368E-3
4.57479E-3	181.943E-12	637.359E-3	-11.2655E-3	179.174E-12	662.724E-3	-7.17095E-3
4.56978E-3	180.619E-12	619.325E-3	-11.6249E-3	179.362E-12	667.052E-3	-1.65705E-3
4.56478E-3	180.732E-12	602.021E-3	-5.49451E-3	180.712E-12	653.541E-3	6.47018E-3
4.55978E-3	180.310E-12	598.010E-3	-5.47133E-3	181.210E-12	663.341E-3	4.45088E-3
4.55478E-3	181.280E-12	611.161E-3	-10.0683E-3	181.283E-12	691.509E-3	-9.92087E-3
4.54977E-3	180.111E-12	626.039E-3	-10.9594E-3	180.735E-12	688.531E-3	13.1848E-3
4.54477E-3	180.848E-12	634.967E-3	-13.6467E-3	181.742E-12	677.925E-3	38.9060E-3
4.53977E-3	179.919E-12	648.348E-3	-22.9618E-3	183.916E-12	677.294E-3	20.2262E-3
4.53477E-3	178.773E-12	677.195E-3	-18.8286E-3	183.368E-12	673.862E-3	-8.38524E-3
4.52976E-3	178.615E-12	685.660E-3	-8.07024E-3	181.394E-12	685.037E-3	-27.5202E-3
4.52476E-3	178.745E-12	651.341E-3	-22.2343E-3	179.355E-12	687.687E-3	-27.5579E-3
4.51976E-3	178.178E-12	609.305E-3	-43.7481E-3	180.201E-12	653.713E-3	-5.86802E-3
4.51476E-3	176.414E-12	595.134E-3	-30.3432E-3	179.851E-12	625.956E-3	-555.734E-6
4.50975E-3	177.512E-12	615.864E-3	-442.566E-6	179.787E-12	643.460E-3	-16.3341E-3
4.50475E-3	177.353E-12	653.397E-3	10.2146E-3	176.641E-12	654.426E-3	-22.8920E-3
4.49975E-3	176.627E-12	666.208E-3	3.24370E-3	177.043E-12	649.047E-3	-10.8025E-3
4.49475E-3	177.432E-12	645.891E-3	4.60352E-3	177.925E-12	648.657E-3	-11.7005E-3
4.48974E-3	176.910E-12	626.625E-3	12.8794E-3	176.980E-12	635.045E-3	-32.9527E-3
4.48474E-3	177.015E-12	619.141E-3	358.032E-6	175.416E-12	634.443E-3	-25.0286E-3
4.47974E-3	176.872E-12	613.567E-3	-13.7451E-3	175.659E-12	645.391E-3	-19.4932E-3
4.47474E-3	177.270E-12	617.186E-3	-4.44100E-3	177.344E-12	642.951E-3	-20.6628E-3
4.46973E-3	176.796E-12	637.891E-3	-5.53587E-3	177.719E-12	639.648E-3	9.34821E-3
4.46473E-3	176.805E-12	655.042E-3	-24.0651E-3	178.052E-12	640.236E-3	24.5776E-3
4.45973E-3	176.604E-12	662.462E-3	-30.0956E-3	176.789E-12	638.936E-3	11.3796E-3
4.45473E-3	176.585E-12	670.263E-3	-24.1322E-3	177.627E-12	650.199E-3	-15.2344E-3
4.44972E-3	176.405E-12	677.221E-3	-19.6927E-3	177.751E-12	656.702E-3	-32.5374E-3
4.44472E-3	176.240E-12	672.696E-3	-24.2784E-3	176.991E-12	646.720E-3	-23.9173E-3
4.43972E-3	175.397E-12	662.037E-3	-30.0097E-3	177.046E-12	636.260E-3	-18.5689E-3
4.43472E-3	175.411E-12	653.411E-3	-17.0624E-3	176.809E-12	632.281E-3	-11.4282E-3
4.42971E-3	175.521E-12	651.191E-3	4.71769E-3	175.714E-12	651.891E-3	-1.61483E-3
4.42471E-3	174.697E-12	659.301E-3	12.2028E-3	173.723E-12	670.444E-3	-7.31228E-3
4.41971E-3	173.231E-12	664.128E-3	7.49935E-3	174.101E-12	662.004E-3	-3.94666E-3
4.41471E-3	174.611E-12	661.359E-3	-35.8603E-3	174.879E-12	649.108E-3	-3.89238E-3
4.40970E-3	174.298E-12	653.035E-3	-68.7287E-3	174.245E-12	638.445E-3	-28.0220E-3
4.40470E-3	173.473E-12	631.619E-3	-33.6375E-3	174.781E-12	631.712E-3	-29.9175E-3
4.39970E-3	172.180E-12	616.981E-3	-5.22949E-3	173.521E-12	639.894E-3	394.427E-6
4.39470E-3	172.941E-12	628.810E-3	-19.0983E-3	175.446E-12	669.366E-3	3.48370E-3
4.38969E-3	173.574E-12	634.249E-3	-23.0161E-3	174.728E-12	689.241E-3	-17.7341E-3
4.38469E-3	172.579E-12	645.088E-3	-15.2752E-3	174.838E-12	676.813E-3	-31.5121E-3
4.37969E-3	172.066E-12	666.343E-3	-15.5670E-3	172.959E-12	670.239E-3	-39.5973E-3
4.37469E-3	171.815E-12	666.747E-3	-4.04717E-3	173.851E-12	672.899E-3	-33.9937E-3
4.36968E-3	173.683E-12	661.097E-3	10.6652E-3	174.660E-12	669.857E-3	-1.09335E-3
4.36468E-3	173.840E-12	646.165E-3	5.02556E-3	172.922E-12	659.310E-3	28.8583E-3
4.35968E-3	171.802E-12	638.787E-3	-14.2154E-3	171.338E-12	617.051E-3	7.82543E-3
4.35468E-3	171.862E-12	652.969E-3	-19.7049E-3	171.320E-12	587.809E-3	-37.3531E-3
4.34967E-3	172.791E-12	644.959E-3	-8.17437E-3	172.158E-12	613.506E-3	-65.7869E-3
4.34467E-3	174.049E-12	624.125E-3	9.32342E-3	170.962E-12	644.249E-3	-59.4597E-3
4.33967E-3	172.680E-12	620.545E-3	8.65206E-3	168.826E-12	661.346E-3	-29.7884E-3
4.33467E-3	171.629E-12	617.001E-3	-19.3231E-3	169.946E-12	664.585E-3	-12.8275E-3
4.32966E-3	170.636E-12	631.953E-3	-25.8337E-3	171.160E-12	661.807E-3	-11.5130E-3
4.32466E-3	171.921E-12	658.948E-3	-11.2599E-3	170.051E-12	687.715E-3	-17.7940E-3
4.31966E-3	171.208E-12	681.407E-3	-22.6594E-3	169.676E-12	713.080E-3	-15.3688E-3
4.31466E-3	170.440E-12	693.824E-3	-42.3319E-3	172.421E-12	692.335E-3	-9.39287E-3
4.30965E-3	170.418E-12	675.095E-3	-32.9818E-3	171.221E-12	656.429E-3	-8.45456E-3
4.30465E-3	170.527E-12	635.392E-3	-20.7111E-3	171.679E-12	649.450E-3	-11.1117E-3
4.29965E-3	171.061E-12	618.993E-3	-38.3233E-3	173.314E-12	657.803E-3	-29.6082E-3
4.29465E-3	170.797E-12	646.041E-3	-55.9706E-3	172.067E-12	653.140E-3	-28.6832E-3
4.28964E-3	170.766E-12	661.123E-3	-36.4684E-3	170.460E-12	637.437E-3	-13.9544E-3
4.28464E-3	167.987E-12	639.259E-3	-11.9022E-3	170.754E-12	626.248E-3	-23.3725E-3
4.27964E-3	169.038E-12	631.296E-3	218.192E-6	171.567E-12	618.333E-3	-26.1187E-3
4.27464E-3	171.360E-12	645.491E-3	13.4367E-3	170.028E-12	613.648E-3	-18.7939E-3
4.26963E-3	168.602E-12	655.865E-3	7.48331E-3	168.105E-12	631.035E-3	-26.9506E-3
4.26463E-3	167.889E-12	668.876E-3	-19.9730E-3	166.737E-12	645.378E-3	-19.6631E-3
4.25963E-3	169.655E-12	676.151E-3	-42.8644E-3	167.503E-12	633.487E-3	2.64421E-3
4.25463E-3	171.049E-12	671.902E-3	-39.5573E-3	167.005E-12	641.351E-3	-10.6343E-3
4.24962E-3	167.746E-12	655.313E-3	-36.7856E-3	166.495E-12	672.125E-3	-31.7623E-3
4.24462E-3	167.823E-12	645.447E-3	-47.4534E-3	165.599E-12	676.614E-3	-10.6375E-3
4.23962E-3	167.130E-12	660.064E-3	-51.2466E-3	166.145E-12	665.929E-3	-2.27395E-3
4.23462E-3	168.108E-12	665.965E-3	-49.2407E-3	165.829E-12	663.313E-3	-19.4609E-3
4.22961E-3	169.533E-12	663.841E-3	-34.0904E-3	166.106E-12	661.806E-3	-15.8012E-3
4.22461E-3	166.501E-12	658.978E-3	6.91696E-3	168.033E-12	656.598E-3	-19.2259E-3
4.21961E-3	167.049E-12	641.830E-3	31.3084E-3	167.753E-12	639.330E-3	-38.0042E-3
4.21461E-3	165.763E-12	623.108E-3	5.14381E-3	167.135E-12	637.164E-3	-38.3611E-3
4.20960E-3	165.694E-12	604.883E-3	-21.1391E-3	167.211E-12	657.985E-3	-13.9871E-3
4.20460E-3	164.008E-12	601.892E-3	-32.1614E-3	167.752E-12	662.038E-3	-1.26701E-3
4.19960E-3	164.569E-12	625.041E-3	-46.1414E-3	167.388E-12	651.655E-3	-23.9205E-3
4.19460E-3	164.071E-12	632.348E-3	-50.7572E-3	166.378E-12	660.715E-3	-52.8098E-3
4.18959E-3	163.311E-12	601.629E-3	-31.6949E-3	166.998E-12	683.153E-3	-66.1544E-3
4.18459E-3	162.920E-12	595.388E-3	-9.85583E-3	165.148E-12	660.747E-3	-58.3129E-3
4.17959E-3	164.023E-12	618.688E-3	-7.28395E-3	164.856E-12	623.355E-3	-35.1976E-3
4.17459E-3	164.104E-12	634.885E-3	-17.6766E-3	164.072E-12	626.756E-3	-46.5557E-3
4.16958E-3	162.497E-12	652.571E-3	-32.0516E-3	164.162E-12	624.919E-3	-68.0278E-3
4.16458E-3	162.397E-12	671.718E-3	-33.9521E-3	162.951E-12	630.976E-3	-42.5778E-3
4.15958E-3	163.025E-12	679.890E-3	-24.1317E-3	162.482E-12	660.255E-3	-6.44536E-3
4.15458E-3	164.369E-12	662.647E-3	-17.6284E-3	162.867E-12	652.944E-3	7.62594E-3
4.14957E-3	162.815E-12	629.300E-3	-16.9491E-3	162.907E-12	630.279E-3	5.65389E-3
4.14457E-3	162.971E-12	626.100E-3	-15.5323E-3	162.017E-12	637.322E-3	-21.6594E-3
4.13957E-3	162.699E-12	644.021E-3	-14.6599E-3	160.924E-12	646.205E-3	-38.7180E-3
4.13457E-3	163.376E-12	659.199E-3	-25.2920E-3	162.931E-12	652.661E-3	-13.3849E-3
4.12956E-3	164.002E-12	671.051E-3	-31.4389E-3	163.170E-12	665.477E-3	-8.80832E-3
4.12456E-3	164.056E-12	657.860E-3	-14.2091E-3	162.360E-12	653.561E-3	-15.8902E-3
4.11956E-3	162.278E-12	633.985E-3	-2.93652E-3	161.980E-12	630.610E-3	10.9736E-3
4.11456E-3	162.191E-12	640.823E-3	-5.07682E-3	164.418E-12	628.342E-3	17.0300E-3
4.10955E-3	162.316E-12	655.020E-3	-11.6548E-3	164.265E-12	635.026E-3	-16.2976E-3
4.10455E-3	161.897E-12	647.061E-3	-21.1225E-3	163.081E-12	636.367E-3	-35.4444E-3
4.09955E-3	160.225E-12	651.403E-3	-19.3749E-3	161.743E-12	627.705E-3	-22.6694E-3
4.09455E-3	161.002E-12	648.351E-3	-16.0934E-3	161.540E-12	616.525E-3	-17.1588E-3
4.08954E-3	161.485E-12	624.733E-3	-17.0461E-3	161.423E-12	636.489E-3	-21.1770E-3
4.08454E-3	160.165E-12	622.285E-3	-11.3676E-3	160.933E-12	670.707E-3	-8.98083E-3
4.07954E-3	158.649E-12	632.709E-3	-16.1912E-3	159.290E-12	670.200E-3	-1.29748E-3
4.07454E-3	158.373E-12	623.474E-3	-23.4748E-3	158.113E-12	631.920E-3	-2.45055E-3
4.06953E-3	157.815E-12	610.672E-3	-2.21332E-3	159.540E-12	613.826E-3	-397.540E-6
4.06453E-3	158.420E-12	612.126E-3	2.03196E-3	159.188E-12	648.564E-3	7.24074E-3
4.05953E-3	158.866E-12	623.724E-3	-35.2584E-3	159.436E-12	674.131E-3	24.1648E-3
4.05453E-3	157.386E-12	631.249E-3	-49.7905E-3	158.765E-12	664.869E-3	30.5785E-3
4.04952E-3	156.935E-12	616.854E-3	-31.2649E-3	159.588E-12	646.094E-3	13.3236E-3
4.04452E-3	158.124E-12	611.569E-3	-23.8989E-3	158.956E-12	653.430E-3	-4.16404E-3
4.03952E-3	158.579E-12	627.056E-3	-22.8451E-3	158.958E-12	678.166E-3	-28.9404E-3
4.03452E-3	158.389E-12	641.491E-3	-16.6189E-3	158.901E-12	671.403E-3	-59.2237E-3
4.02951E-3	157.285E-12	653.461E-3	-17.8979E-3	157.931E-12	642.268E-3	-47.6113E-3
4.02451E-3	158.388E-12	664.037E-3	-20.8166E-3	157.670E-12	632.865E-3	-21.3526E-3
4.01951E-3	157.787E-12	663.066E-3	-11.9143E-3	157.719E-12	641.719E-3	-16.4121E-3
4.01451E-3	158.430E-12	659.380E-3	6.55560E-3	157.246E-12	648.485E-3	-11.6336E-3
4.00950E-3	156.506E-12	672.152E-3	4.48572E-3	156.841E-12	647.947E-3	-9.76282E-3
4.00450E-3	157.579E-12	687.677E-3	-20.9176E-3	155.067E-12	630.571E-3	-7.12507E-3
3.99950E-3	157.399E-12	677.735E-3	-30.0226E-3	154.886E-12	621.926E-3	11.6240E-3
3.99450E-3	157.567E-12	654.380E-3	-10.9033E-3	154.637E-12	625.707E-3	16.3406E-3
3.98949E-3	156.315E-12	653.020E-3	10.5015E-3	154.924E-12	626.391E-3	1.17530E-3
3.98449E-3	156.384E-12	664.106E-3	15.7221E-3	153.247E-12	659.006E-3	-1.43080E-3
3.97949E-3	157.496E-12	664.954E-3	-2.63272E-3	152.726E-12	687.039E-3	-14.4326E-3
3.97449E-3	155.408E-12	654.586E-3	-26.3390E-3	153.886E-12	683.135E-3	-30.3081E-3
3.96948E-3	155.959E-12	663.972E-3	-35.3410E-3	155.557E-12	662.594E-3	-9.48807E-3
3.96448E-3	155.071E-12	687.057E-3	-31.3681E-3	154.821E-12	643.027E-3	-7.06601E-3
3.95948E-3	156.261E-12	670.596E-3	-19.9019E-3	154.273E-12	648.174E-3	-25.7578E-3
3.95448E-3	154.453E-12	628.486E-3	-18.3246E-3	155.099E-12	650.173E-3	-4.94259E-3
3.94947E-3	153.377E-12	606.185E-3	-16.0534E-3	155.488E-12	646.318E-3	10.7562E-3
3.94447E-3	154.278E-12	614.560E-3	-15.4367E-3	155.420E-12	637.753E-3	-19.2291E-3
3.93947E-3	155.235E-12	648.483E-3	-27.0972E-3	155.011E-12	625.415E-3	-39.4809E-3
3.93447E-3	155.051E-12	677.664E-3	-18.6554E-3	153.829E-12	646.197E-3	-29.7208E-3
3.92946E-3	154.992E-12	676.885E-3	10.5116E-3	154.049E-12	660.494E-3	-21.4313E-3
3.92446E-3	155.776E-12	668.716E-3	5.18590E-3	152.342E-12	638.521E-3	-31.7802E-3
3.91946E-3	155.207E-12	661.354E-3	-22.4768E-3	152.664E-12	630.704E-3	-33.9340E-3
3.91446E-3	154.648E-12	665.124E-3	-29.1713E-3	152.378E-12	634.056E-3	-16.3980E-3
3.90945E-3	154.508E-12	676.626E-3	-19.2091E-3	151.902E-12	619.846E-3	-5.99787E-3
3.90445E-3	154.774E-12	668.014E-3	-2.50058E-3	151.150E-12	630.588E-3	-6.31028E-3
3.89945E-3	154.650E-12	665.772E-3	-12.7703E-3	152.277E-12	676.411E-3	-6.14630E-3
3.89445E-3	153.181E-12	679.208E-3	-30.0469E-3	152.418E-12	672.189E-3	-12.1154E-3
3.88944E-3	152.961E-12	677.232E-3	-19.0893E-3	151.229E-12	641.011E-3	-29.4155E-3
3.88444E-3	154.152E-12	667.304E-3	-14.0118E-3	151.995E-12	654.170E-3	-32.4865E-3
3.87944E-3	153.976E-12	670.334E-3	-51.0426E-6	152.135E-12	666.602E-3	-32.5900E-3
3.87444E-3	152.109E-12	675.248E-3	20.4821E-3	152.535E-12	652.967E-3	-30.7577E-3
3.86943E-3	152.899E-12	661.531E-3	11.6061E-3	152.839E-12	643.839E-3	-16.5067E-3
3.86443E-3	152.066E-12	650.696E-3	1.77354E-3	153.075E-12	651.049E-3	-24.1633E-3
3.85943E-3	151.385E-12	657.314E-3	14.5519E-3	153.384E-12	664.654E-3	-33.2432E-3
3.85443E-3	150.652E-12	648.845E-3	15.9055E-3	151.915E-12	681.249E-3	-19.5678E-3
3.84942E-3	151.266E-12	655.355E-3	-15.7669E-3	151.530E-12	686.418E-3	-10.7667E-3
3.84442E-3	150.890E-12	679.054E-3	-37.4413E-3	152.168E-12	673.400E-3	-5.28338E-3
3.83942E-3	151.056E-12	668.646E-3	-26.3970E-3	152.817E-12	656.612E-3	22.8622E-3
3.83442E-3	149.731E-12	650.255E-3	-20.5671E-3	150.060E-12	642.202E-3	52.9578E-3
3.82941E-3	148.452E-12	663.333E-3	-19.1921E-3	148.112E-12	648.343E-3	27.3492E-3
3.82441E-3	148.778E-12	673.300E-3	-13.8055E-3	149.775E-12	667.390E-3	-17.4701E-3
3.81941E-3	149.816E-12	659.329E-3	-19.9243E-3	151.749E-12	649.772E-3	-20.3569E-3
3.81441E-3	148.820E-12	651.332E-3	-28.3325E-3	149.511E-12	623.822E-3	-10.8689E-3
3.80940E-3	146.798E-12	645.133E-3	-24.0319E-3	148.065E-12	624.937E-3	-14.9302E-3
3.80440E-3	147.524E-12	639.045E-3	-8.34573E-3	149.377E-12	619.643E-3	-28.6446E-3
3.79940E-3	149.421E-12	653.040E-3	3.44399E-3	151.301E-12	624.314E-3	-29.5934E-3
3.79440E-3	149.541E-12	674.593E-3	8.63340E-3	149.912E-12	648.317E-3	-15.9952E-3
3.78939E-3	147.439E-12	662.677E-3	-2.26027E-3	148.856E-12	656.115E-3	-11.1700E-3
3.78439E-3	145.901E-12	634.309E-3	-40.7050E-3	149.439E-12	649.331E-3	-13.1500E-3
3.77939E-3	146.100E-12	640.749E-3	-59.7224E-3	151.151E-12	646.549E-3	-29.0865E-3
3.77439E-3	147.431E-12	657.273E-3	-35.5660E-3	151.991E-12	642.103E-3	-46.3865E-3
3.76938E-3	146.678E-12	658.320E-3	-21.6767E-3	149.089E-12	642.297E-3	-44.3959E-3
3.76438E-3	145.217E-12	658.683E-3	-16.1194E-3	147.610E-12	651.210E-3	-42.1665E-3
3.75938E-3	144.161E-12	640.262E-3	567.915E-6	147.419E-12	641.323E-3	-31.7007E-3
3.75438E-3	144.575E-12	626.683E-3	1.17766E-3	149.198E-12	639.765E-3	-5.03449E-3
3.74937E-3	145.104E-12	635.081E-3	-5.52026E-3	149.436E-12	667.893E-3	9.72555E-3
3.74437E-3	144.200E-12	633.534E-3	-9.06410E-3	146.456E-12	668.176E-3	18.8516E-3
3.73937E-3	144.434E-12	626.269E-3	-10.5359E-3	144.373E-12	656.691E-3	36.4740E-3
3.73437E-3	143.896E-12	620.888E-3	-10.7367E-3	144.853E-12	671.351E-3	27.0171E-3
3.72936E-3	144.960E-12	619.399E-3	-27.2610E-3	147.258E-12	665.508E-3	-19.4092E-3
3.72436E-3	144.047E-12	622.890E-3	-47.2767E-3	145.092E-12	642.231E-3	-50.7347E-3
3.71936E-3	143.724E-12	641.832E-3	-39.9856E-3	142.630E-12	653.598E-3	-54.7469E-3
3.71436E-3	144.947E-12	667.747E-3	-20.3053E-3	144.035E-12	673.029E-3	-52.8280E-3
3.70935E-3	145.969E-12	665.013E-3	-5.28952E-3	146.841E-12	669.533E-3	-28.1925E-3
3.70435E-3	145.361E-12	644.950E-3	3.50352E-3	147.235E-12	676.133E-3	-12.7179E-3
3.69935E-3	143.153E-12	647.257E-3	6.24656E-3	145.055E-12	683.758E-3	-38.1317E-3
3.69435E-3	144.655E-12	658.954E-3	-208.007E-6	144.461E-12	676.767E-3	-37.8856E-3
3.68934E-3	146.135E-12	644.570E-3	-16.2853E-3	145.117E-12	682.929E-3	2.61184E-3
3.68434E-3	145.018E-12	627.600E-3	-21.0088E-3	147.301E-12	687.021E-3	15.6235E-3
3.67934E-3	143.912E-12	636.349E-3	-17.1164E-3	146.345E-12	665.518E-3	-3.22301E-3
3.67434E-3	144.605E-12	653.603E-3	-15.1639E-3	143.579E-12	662.245E-3	-4.45642E-3
3.66933E-3	145.095E-12	669.899E-3	-25.4012E-3	143.962E-12	678.102E-3	2.36135E-3
3.66433E-3	143.780E-12	677.849E-3	-33.2259E-3	144.380E-12	670.492E-3	6.20846E-3
3.65933E-3	143.080E-12	674.565E-3	-28.7143E-3	144.915E-12	672.727E-3	17.8527E-3
3.65433E-3	144.162E-12	669.948E-3	-31.6639E-3	141.485E-12	685.983E-3	4.43311E-3
3.64932E-3	143.120E-12	665.891E-3	-27.8138E-3	139.508E-12	659.653E-3	-32.6882E-3
3.64432E-3	142.136E-12	677.380E-3	-19.9888E-3	139.798E-12	640.920E-3	-43.0892E-3
3.63932E-3	140.998E-12	693.756E-3	-33.5615E-3	142.123E-12	646.261E-3	-19.2174E-3
3.63432E-3	141.203E-12	673.837E-3	-36.5708E-3	140.247E-12	638.444E-3	195.818E-6
3.62931E-3	141.900E-12	649.690E-3	-14.3276E-3	138.531E-12	647.404E-3	-651.760E-6
3.62431E-3	141.220E-12	656.000E-3	-187.082E-6	139.510E-12	668.838E-3	-20.2152E-3
3.61931E-3	140.535E-12	665.913E-3	4.04331E-3	141.393E-12	667.617E-3	-29.1945E-3
3.61431E-3	139.731E-12	660.618E-3	5.59877E-3	140.785E-12	664.201E-3	-9.72947E-3
3.60930E-3	141.959E-12	646.456E-3	-231.978E-6	139.146E-12	683.518E-3	8.18008E-3
3.60430E-3	141.818E-12	648.913E-3	-14.5861E-3	138.516E-12	681.581E-3	8.01832E-3
3.59930E-3	141.400E-12	670.468E-3	-24.2355E-3	140.361E-12	646.701E-3	-2.19884E-3
3.59430E-3	139.549E-12	685.963E-3	-12.6191E-3	140.572E-12	640.165E-3	-9.78020E-3
3.58929E-3	140.400E-12	687.690E-3	5.21548E-3	138.444E-12	659.715E-3	-13.4194E-3
3.58429E-3	141.469E-12	671.915E-3	-9.54751E-3	137.999E-12	665.520E-3	-15.6054E-3
3.57929E-3	141.467E-12	648.901E-3	-33.4872E-3	137.578E-12	659.813E-3	-10.5504E-3
3.57429E-3	140.631E-12	648.945E-3	-14.6679E-3	137.447E-12	677.018E-3	-8.58582E-3
3.56928E-3	138.432E-12	666.050E-3	3.25299E-3	136.516E-12	705.956E-3	-15.0914E-3
3.56428E-3	138.972E-12	686.440E-3	-12.5970E-3	136.444E-12	692.786E-3	-19.3965E-3
3.55928E-3	139.795E-12	675.139E-3	-25.0861E-3	136.302E-12	672.253E-3	-15.6885E-3
3.55428E-3	139.957E-12	642.568E-3	-20.7698E-3	136.631E-12	668.202E-3	-19.3938E-3
3.54927E-3	137.023E-12	660.967E-3	-18.5664E-3	137.583E-12	664.988E-3	-36.4289E-3
3.54427E-3	137.254E-12	691.355E-3	-18.0949E-3	136.552E-12	675.103E-3	-28.7495E-3
3.53927E-3	140.021E-12	686.080E-3	-25.2204E-3	135.600E-12	677.862E-3	-20.1575E-3
3.53427E-3	139.329E-12	686.892E-3	-18.6136E-3	135.727E-12	661.357E-3	-35.3305E-3
3.52926E-3	138.166E-12	677.378E-3	10.6011E-3	137.094E-12	650.749E-3	-26.5493E-3
3.52426E-3	136.303E-12	654.691E-3	7.63047E-3	135.981E-12	657.227E-3	-9.68325E-3
3.51926E-3	137.746E-12	668.167E-3	-30.3270E-3	137.118E-12	662.520E-3	-8.22375E-3
3.51426E-3	138.166E-12	690.609E-3	-50.9272E-3	136.608E-12	663.841E-3	-21.3240E-3
3.50925E-3	137.544E-12	695.392E-3	-41.4142E-3	137.082E-12	676.419E-3	-46.8616E-3
3.50425E-3	135.036E-12	692.290E-3	-42.0748E-3	136.905E-12	683.149E-3	-67.7459E-3
3.49925E-3	134.815E-12	692.512E-3	-33.0773E-3	136.597E-12	659.274E-3	-75.6500E-3
3.49425E-3	137.988E-12	689.265E-3	7.84363E-3	135.918E-12	625.399E-3	-58.4281E-3
3.48924E-3	136.557E-12	675.033E-3	9.79471E-3	136.083E-12	640.717E-3	-39.7828E-3
3.48424E-3	134.257E-12	675.825E-3	-19.5390E-3	134.624E-12	682.692E-3	-27.8307E-3
3.47924E-3	133.140E-12	688.538E-3	-11.7020E-3	134.699E-12	698.489E-3	-10.7296E-3
3.47424E-3	137.119E-12	682.662E-3	-7.93901E-3	134.215E-12	705.837E-3	-16.5446E-3
3.46923E-3	136.948E-12	671.435E-3	-9.96531E-3	134.931E-12	696.113E-3	-42.3908E-3
3.46423E-3	135.780E-12	682.041E-3	10.2351E-3	134.773E-12	690.288E-3	-32.7598E-3
3.45923E-3	133.943E-12	689.290E-3	8.54795E-3	134.684E-12	699.880E-3	-7.12108E-3
3.45423E-3	135.617E-12	685.446E-3	-9.29610E-3	133.587E-12	690.537E-3	-2.65080E-3
3.44922E-3	137.201E-12	675.943E-3	-5.42816E-3	133.923E-12	684.429E-3	7.97907E-3
3.44422E-3	136.709E-12	662.955E-3	488.586E-6	134.944E-12	696.854E-3	7.10135E-3
3.43922E-3	134.280E-12	671.430E-3	-26.6470E-3	134.723E-12	692.477E-3	1.60750E-3
3.43422E-3	133.811E-12	690.434E-3	-47.6731E-3	134.099E-12	672.652E-3	18.2465E-3
3.42921E-3	135.920E-12	705.288E-3	-31.9541E-3	132.546E-12	668.236E-3	5.51383E-3
3.42421E-3	136.095E-12	718.778E-3	-21.1596E-3	133.406E-12	664.281E-3	-14.2747E-3
3.41921E-3	133.417E-12	714.614E-3	-23.1613E-3	133.634E-12	664.100E-3	6.26196E-3
3.41421E-3	132.512E-12	679.686E-3	-21.8307E-3	132.985E-12	672.225E-3	8.18487E-3
3.40920E-3	133.675E-12	652.514E-3	-29.6214E-3	130.450E-12	659.557E-3	-20.6653E-3
3.40420E-3	134.452E-12	668.712E-3	-33.9046E-3	129.885E-12	651.926E-3	-22.8890E-3
3.39920E-3	132.757E-12	675.472E-3	-25.9363E-3	130.155E-12	674.122E-3	-7.12374E-3
3.39420E-3	132.701E-12	650.238E-3	-18.8393E-3	129.888E-12	676.771E-3	-14.0966E-3
3.38919E-3	131.391E-12	646.037E-3	-11.1697E-3	128.168E-12	658.239E-3	-21.4365E-3
3.38419E-3	132.601E-12	661.730E-3	2.04778E-3	128.650E-12	664.917E-3	-13.5996E-3
3.37919E-3	132.518E-12	669.847E-3	6.49483E-3	129.458E-12	668.414E-3	-9.30155E-3
3.37419E-3	131.748E-12	673.619E-3	1.20303E-3	128.950E-12	662.193E-3	-10.6384E-3
3.36918E-3	131.108E-12	671.912E-3	11.8742E-3	128.481E-12	676.419E-3	-16.8809E-3
3.36418E-3	131.814E-12	669.938E-3	12.2865E-3	128.781E-12	678.466E-3	-22.9511E-3
3.35918E-3	134.055E-12	685.902E-3	-13.4548E-3	128.894E-12	652.294E-3	-14.2605E-3
3.35418E-3	131.291E-12	711.243E-3	-26.7776E-3	130.597E-12	648.986E-3	-5.34590E-3
3.34917E-3	130.815E-12	717.510E-3	-30.3958E-3	129.768E-12	664.528E-3	-16.4013E-3
3.34417E-3	130.757E-12	710.658E-3	-45.6901E-3	128.635E-12	652.015E-3	-20.3244E-3
3.33917E-3	131.422E-12	708.655E-3	-23.1007E-3	127.864E-12	648.059E-3	-16.3103E-3
3.33417E-3	130.970E-12	703.627E-3	24.6262E-3	128.871E-12	648.567E-3	-27.7123E-3
3.32916E-3	128.745E-12	691.544E-3	8.17130E-3	128.444E-12	624.363E-3	-23.3297E-3
3.32416E-3	129.125E-12	691.366E-3	-38.0892E-3	128.011E-12	624.177E-3	-1.93504E-3
3.31916E-3	128.902E-12	694.556E-3	-34.6441E-3	125.901E-12	646.686E-3	661.420E-6
3.31416E-3	128.997E-12	679.496E-3	-9.07831E-3	125.106E-12	663.180E-3	-13.4348E-3
3.30915E-3	127.678E-12	680.191E-3	-19.3716E-3	125.603E-12	685.460E-3	-13.5813E-3
3.30415E-3	126.497E-12	694.158E-3	-41.5675E-3	126.125E-12	690.635E-3	-6.80271E-3
3.29915E-3	126.260E-12	671.670E-3	-40.9972E-3	124.427E-12	668.356E-3	-3.33914E-3
3.29415E-3	126.083E-12	644.323E-3	-21.0089E-3	124.329E-12	667.864E-3	2.35548E-3
3.28914E-3	126.656E-12	662.466E-3	-15.8883E-3	125.682E-12	664.764E-3	-7.43019E-3
3.28414E-3	125.625E-12	680.968E-3	-20.3347E-3	126.005E-12	632.829E-3	-20.9480E-3
3.27914E-3	126.447E-12	673.149E-3	-10.3801E-3	125.073E-12	631.925E-3	-28.5781E-3
3.27414E-3	124.868E-12	687.647E-3	-11.0180E-3	124.612E-12	660.269E-3	-36.1466E-3
3.26913E-3	125.711E-12	697.696E-3	-20.1092E-3	124.901E-12	669.659E-3	-28.3004E-3
3.26413E-3	125.555E-12	676.737E-3	-28.8032E-3	125.929E-12	668.186E-3	-23.7348E-3
3.25913E-3	126.766E-12	675.052E-3	-29.1827E-3	125.824E-12	666.147E-3	-30.8982E-3
3.25413E-3	125.513E-12	690.633E-3	-16.4862E-3	125.508E-12	660.898E-3	-31.0947E-3
3.24912E-3	125.239E-12	698.726E-3	-10.2078E-3	126.233E-12	666.278E-3	-22.9982E-3
3.24412E-3	125.597E-12	696.424E-3	-10.6018E-3	127.238E-12	670.170E-3	-8.66636E-3
3.23912E-3	126.371E-12	695.607E-3	4.89635E-3	125.930E-12	663.150E-3	-7.24071E-3
3.23412E-3	126.177E-12	698.325E-3	11.3038E-3	124.584E-12	661.014E-3	-23.8313E-3
3.22911E-3	124.898E-12	696.816E-3	-24.0387E-3	123.981E-12	665.932E-3	-33.5493E-3
3.22411E-3	123.598E-12	696.447E-3	-54.0112E-3	123.399E-12	668.545E-3	-31.2352E-3
3.21911E-3	123.645E-12	678.379E-3	-42.9144E-3	122.761E-12	664.568E-3	-29.9520E-3
3.21411E-3	124.900E-12	660.040E-3	-26.5916E-3	122.091E-12	657.023E-3	-16.1982E-3
3.20910E-3	122.921E-12	682.454E-3	-14.7746E-3	121.246E-12	655.685E-3	-867.598E-6
3.20410E-3	122.173E-12	702.006E-3	-1.72096E-3	121.502E-12	668.005E-3	-17.7019E-3
3.19910E-3	121.500E-12	669.154E-3	-5.78707E-3	121.104E-12	677.909E-3	-36.1894E-3
3.19410E-3	123.108E-12	641.336E-3	-24.2135E-3	120.488E-12	675.026E-3	-31.5858E-3
3.18909E-3	122.350E-12	651.104E-3	-32.6138E-3	120.777E-12	674.607E-3	-18.4430E-3
3.18409E-3	120.308E-12	679.292E-3	-19.5349E-3	120.836E-12	675.086E-3	-31.7415E-3
3.17909E-3	120.059E-12	701.578E-3	-9.91739E-3	121.022E-12	670.743E-3	-57.6662E-3
3.17409E-3	122.668E-12	689.179E-3	-13.8545E-3	120.320E-12	671.380E-3	-43.3267E-3
3.16908E-3	122.940E-12	676.899E-3	-22.0122E-3	120.477E-12	681.799E-3	-20.8244E-3
3.16408E-3	119.826E-12	692.135E-3	-18.8264E-3	120.113E-12	677.263E-3	-8.89358E-3
3.15908E-3	118.346E-12	698.853E-3	-5.81492E-3	121.128E-12	656.987E-3	4.74959E-3
3.15408E-3	120.174E-12	663.877E-3	-6.73971E-3	120.579E-12	655.036E-3	-3.15172E-3
3.14907E-3	122.035E-12	648.263E-3	-14.7035E-3	119.539E-12	672.721E-3	-23.5096E-3
3.14407E-3	122.533E-12	683.466E-3	-11.5765E-3	119.343E-12	684.611E-3	-23.9535E-3
3.13907E-3	120.242E-12	705.476E-3	7.30976E-3	119.402E-12	686.645E-3	-20.3516E-3
3.13407E-3	119.632E-12	704.205E-3	12.9203E-3	119.926E-12	691.664E-3	-22.1181E-3
3.12906E-3	121.385E-12	707.239E-3	3.39359E-3	119.251E-12	691.405E-3	-13.2764E-3
3.12406E-3	121.268E-12	693.400E-3	-1.80285E-3	118.135E-12	671.731E-3	-7.63959E-3
3.11906E-3	119.351E-12	669.268E-3	-7.56482E-3	117.850E-12	649.810E-3	2.79964E-3
3.11406E-3	119.657E-12	669.645E-3	648.987E-6	117.840E-12	644.140E-3	12.1186E-3
3.10905E-3	120.265E-12	673.618E-3	15.6934E-3	117.467E-12	645.206E-3	468.305E-6
3.10405E-3	119.200E-12	665.547E-3	9.54074E-3	116.830E-12	647.454E-3	-3.77774E-3
3.09905E-3	118.931E-12	657.163E-3	4.02548E-3	116.561E-12	655.100E-3	1.28737E-3
3.09405E-3	118.112E-12	648.452E-3	14.8868E-3	116.530E-12	659.967E-3	-607.910E-6
3.08904E-3	117.385E-12	656.505E-3	16.7318E-3	117.829E-12	664.845E-3	-12.3878E-3
3.08404E-3	117.023E-12	681.430E-3	24.2808E-3	117.141E-12	677.926E-3	-14.2577E-3
3.07904E-3	117.214E-12	679.444E-3	25.7045E-3	116.188E-12	683.708E-3	-13.3097E-3
3.07404E-3	117.194E-12	667.061E-3	-9.38711E-3	115.887E-12	672.893E-3	-29.2434E-3
3.06903E-3	117.429E-12	699.230E-3	-35.7776E-3	116.824E-12	664.856E-3	-21.6413E-3
3.06403E-3	116.581E-12	723.919E-3	-24.4587E-3	117.132E-12	678.031E-3	4.12057E-3
3.05903E-3	116.485E-12	705.682E-3	-24.3317E-3	115.953E-12	678.760E-3	15.8880E-3
3.05403E-3	116.737E-12	700.746E-3	-45.4975E-3	116.059E-12	663.008E-3	18.8927E-3
3.04902E-3	116.903E-12	704.279E-3	-41.4355E-3	116.587E-12	668.574E-3	-4.26590E-3
3.04402E-3	116.833E-12	692.020E-3	-27.4465E-3	117.348E-12	670.300E-3	-39.5399E-3
3.03902E-3	116.293E-12	696.445E-3	-22.4538E-3	116.224E-12	670.743E-3	-26.5632E-3
3.03402E-3	116.177E-12	688.546E-3	-6.13321E-3	115.402E-12	699.712E-3	-5.76586E-3
3.02901E-3	115.322E-12	659.042E-3	-2.81162E-3	116.620E-12	717.932E-3	-37.8745E-3
3.02401E-3	115.462E-12	665.949E-3	-19.5100E-3	117.067E-12	702.524E-3	-42.9662E-3
3.01901E-3	114.063E-12	685.313E-3	-20.5147E-3	116.054E-12	699.118E-3	-6.37297E-3
3.01401E-3	114.485E-12	679.748E-3	-10.7613E-3	114.707E-12	701.898E-3	-9.51827E-3
3.00900E-3	114.467E-12	680.776E-3	-6.28189E-3	115.724E-12	683.832E-3	-15.8766E-3
3.00400E-3	114.298E-12	699.315E-3	-10.1224E-3	115.478E-12	682.451E-3	9.77889E-3
2.99900E-3	113.458E-12	711.184E-3	-21.4341E-3	116.090E-12	679.543E-3	14.0550E-3
2.99400E-3	112.686E-12	705.049E-3	-29.7182E-3	115.933E-12	666.309E-3	11.8935E-6
2.98899E-3	112.780E-12	683.585E-3	-23.9978E-3	115.529E-12	693.798E-3	-16.7584E-3
2.98399E-3	112.018E-12	665.065E-3	-23.3356E-3	114.604E-12	713.374E-3	-33.8762E-3
2.97899E-3	112.208E-12	664.873E-3	-17.9240E-3	115.103E-12	692.750E-3	-23.8167E-3
2.97399E-3	110.492E-12	673.000E-3	10.7496E-3	114.129E-12	674.637E-3	3.21754E-3
2.96898E-3	110.351E-12	674.067E-3	14.8434E-3	112.145E-12	668.107E-3	-4.23422E-3
2.96398E-3	110.847E-12	673.243E-3	-20.9514E-3	111.654E-12	670.487E-3	-36.8861E-3
2.95898E-3	111.060E-12	673.381E-3	-41.0364E-3	111.258E-12	691.119E-3	-38.7768E-3
2.95398E-3	110.137E-12	671.746E-3	-15.8816E-3	112.426E-12	716.336E-3	-21.5490E-3
2.94897E-3	109.206E-12	663.359E-3	4.72497E-3	111.055E-12	701.983E-3	-3.38190E-3
2.94397E-3	109.597E-12	661.876E-3	-5.68046E-3	110.637E-12	671.567E-3	9.55006E-3
2.93897E-3	110.021E-12	672.874E-3	-15.3844E-3	110.853E-12	676.410E-3	-6.98557E-3
2.93397E-3	110.565E-12	686.776E-3	-23.9387E-3	111.424E-12	692.373E-3	-23.6408E-3
2.92896E-3	109.576E-12	690.370E-3	-25.9487E-3	111.019E-12	696.613E-3	-15.8039E-3
2.92396E-3	109.240E-12	678.324E-3	-17.5475E-3	110.827E-12	700.934E-3	-9.42683E-3
2.91896E-3	109.648E-12	667.502E-3	-19.1024E-3	112.159E-12	704.860E-3	-11.7697E-3
2.91396E-3	109.121E-12	663.582E-3	-23.3928E-3	111.929E-12	707.718E-3	-17.0432E-3
2.90895E-3	107.373E-12	672.697E-3	-20.7909E-3	111.150E-12	698.803E-3	-28.4756E-3
2.90395E-3	107.252E-12	674.872E-3	-20.5344E-3	110.866E-12	683.447E-3	-35.6343E-3
2.89895E-3	107.341E-12	667.289E-3	-26.9288E-3	112.123E-12	694.402E-3	-23.6416E-3
2.89395E-3	106.848E-12	677.878E-3	-42.1977E-3	110.045E-12	704.827E-3	-11.1682E-3
2.88894E-3	106.558E-12	692.603E-3	-42.7983E-3	109.910E-12	685.414E-3	-1.10505E-3
2.88394E-3	106.174E-12	681.855E-3	-14.6229E-3	109.406E-12	681.292E-3	10.0462E-3
2.87894E-3	107.097E-12	660.563E-3	5.01869E-3	108.493E-12	705.042E-3	4.13761E-3
2.87394E-3	106.415E-12	648.171E-3	1.61582E-3	107.482E-12	703.993E-3	-10.3537E-3
2.86893E-3	105.763E-12	642.337E-3	-8.26948E-3	106.924E-12	689.592E-3	-28.5557E-3
2.86393E-3	105.903E-12	655.868E-3	-17.9903E-3	106.740E-12	690.864E-3	-42.1834E-3
2.85893E-3	106.466E-12	671.126E-3	-25.7615E-3	106.682E-12	697.363E-3	-31.3325E-3
2.85393E-3	106.086E-12	674.356E-3	-26.4638E-3	106.857E-12	704.679E-3	-20.5197E-3
2.84892E-3	104.984E-12	677.170E-3	-33.6215E-3	105.318E-12	709.582E-3	-22.7069E-3
2.84392E-3	105.625E-12	679.052E-3	-34.4891E-3	105.982E-12	712.640E-3	-10.0825E-3
2.83892E-3	105.697E-12	677.536E-3	-16.2331E-3	105.826E-12	720.969E-3	-476.868E-6
2.83392E-3	105.064E-12	682.377E-3	-11.5951E-3	106.510E-12	709.427E-3	-18.6440E-3
2.82891E-3	103.957E-12	692.875E-3	-30.1963E-3	107.121E-12	676.390E-3	-30.5705E-3
2.82391E-3	103.723E-12	690.639E-3	-39.1128E-3	106.104E-12	693.766E-3	-22.6814E-3
2.81891E-3	103.881E-12	679.546E-3	-23.5269E-3	105.852E-12	732.442E-3	-18.2853E-3
2.81391E-3	103.447E-12	680.183E-3	-16.2625E-3	106.563E-12	718.599E-3	-15.2133E-3
2.80890E-3	102.831E-12	676.122E-3	-19.1699E-3	108.400E-12	687.992E-3	-12.1975E-3
2.80390E-3	102.387E-12	663.517E-3	-8.98186E-3	105.314E-12	682.640E-3	-10.2395E-3
2.79890E-3	103.679E-12	661.261E-3	4.14061E-3	104.013E-12	697.618E-3	5.27365E-3
2.79390E-3	103.174E-12	667.222E-3	12.6842E-3	104.358E-12	697.702E-3	26.9502E-3
2.78889E-3	102.884E-12	678.773E-3	-314.584E-6	105.039E-12	673.711E-3	21.7204E-3
2.78389E-3	103.030E-12	683.817E-3	-32.7700E-3	103.186E-12	658.549E-3	-1.26280E-3
2.77889E-3	103.467E-12	688.839E-3	-35.3760E-3	101.425E-12	664.694E-3	-4.91629E-3
2.77389E-3	103.125E-12	695.200E-3	-23.1029E-3	102.037E-12	679.708E-3	-1.90912E-3
2.76888E-3	103.013E-12	690.838E-3	-26.5994E-3	102.882E-12	679.662E-3	-8.29010E-3
2.76388E-3	102.900E-12	679.892E-3	-18.2633E-3	103.264E-12	666.036E-3	-7.91361E-3
2.75888E-3	102.168E-12	667.761E-3	-21.6090E-3	100.992E-12	657.925E-3	-4.22949E-3
2.75388E-3	102.155E-12	665.930E-3	-34.4310E-3	100.604E-12	661.049E-3	-9.93179E-3
2.74887E-3	102.089E-12	669.024E-3	-7.63169E-3	101.914E-12	681.844E-3	-11.3518E-3
2.74387E-3	101.545E-12	671.607E-3	6.15654E-3	102.854E-12	708.219E-3	-18.6386E-3
2.73887E-3	100.443E-12	689.364E-3	-20.4442E-3	101.419E-12	710.769E-3	-35.6668E-3
2.73387E-3	100.617E-12	702.865E-3	-32.6722E-3	100.904E-12	711.481E-3	-24.2295E-3
2.72886E-3	100.986E-12	681.259E-3	-30.4485E-3	101.896E-12	723.184E-3	-8.59794E-3
2.72386E-3	100.243E-12	676.992E-3	-38.4414E-3	101.565E-12	712.337E-3	-18.3690E-3
2.71886E-3	99.5677E-12	716.058E-3	-46.3269E-3	102.201E-12	697.665E-3	-32.3983E-3
2.71386E-3	99.2179E-12	732.486E-3	-45.0927E-3	101.017E-12	709.331E-3	-39.0764E-3
2.70885E-3	99.6707E-12	722.656E-3	-39.2659E-3	99.8882E-12	715.477E-3	-39.6451E-3
2.70385E-3	100.487E-12	711.532E-3	-22.9235E-3	99.3263E-12	699.012E-3	-33.5800E-3
2.69885E-3	100.466E-12	696.351E-3	-9.61984E-3	100.522E-12	692.864E-3	-13.1326E-3
2.69385E-3	99.0469E-12	689.255E-3	-17.3595E-3	99.6225E-12	699.882E-3	1.37724E-3
2.68884E-3	98.6857E-12	702.171E-3	-28.0856E-3	97.9173E-12	700.812E-3	-1.61945E-3
2.68384E-3	98.9048E-12	710.130E-3	-30.2677E-3	97.8044E-12	710.839E-3	-2.09152E-3
2.67884E-3	99.6503E-12	697.603E-3	-24.9213E-3	98.4692E-12	726.109E-3	-8.78586E-3
2.67384E-3	98.9161E-12	694.964E-3	1.87013E-3	98.1399E-12	714.128E-3	-29.7187E-3
2.66883E-3	97.5186E-12	693.211E-3	16.5592E-3	97.5306E-12	696.410E-3	-42.1174E-3
2.66383E-3	97.3605E-12	683.351E-3	-374.538E-6	97.8263E-12	695.444E-3	-48.1765E-3
2.65883E-3	98.4960E-12	689.195E-3	-14.1006E-3	97.3752E-12	695.190E-3	-46.5463E-3
2.65383E-3	97.9128E-12	699.437E-3	-33.9435E-3	97.3491E-12	696.749E-3	-29.8425E-3
2.64882E-3	96.1373E-12	702.679E-3	-47.5897E-3	96.6369E-12	706.275E-3	-30.4390E-3
2.64382E-3	95.8939E-12	710.539E-3	-31.5671E-3	96.5690E-12	709.495E-3	-38.8156E-3
2.63882E-3	96.4637E-12	705.317E-3	-17.7613E-3	97.7062E-12	704.414E-3	-18.5714E-3
2.63382E-3	97.4127E-12	695.840E-3	-27.1948E-3	97.1561E-12	710.857E-3	98.2225E-6
2.62881E-3	95.8928E-12	714.339E-3	-25.6769E-3	96.6636E-12	728.965E-3	1.09936E-3
2.62381E-3	95.3913E-12	726.770E-3	-3.26440E-3	96.6801E-12	738.364E-3	-3.85455E-3
2.61881E-3	95.0530E-12	698.419E-3	-1.06942E-3	97.0151E-12	730.716E-3	-23.3581E-3
2.61381E-3	96.7518E-12	676.914E-3	-16.5567E-3	95.9702E-12	714.919E-3	-28.9282E-3
2.60880E-3	95.3873E-12	691.211E-3	-23.2790E-3	95.2085E-12	700.167E-3	-7.18550E-3
2.60380E-3	93.5478E-12	709.727E-3	-21.7631E-3	94.9072E-12	692.789E-3	-5.78975E-3
2.59880E-3	93.0247E-12	715.083E-3	-21.2700E-3	94.3853E-12	691.740E-3	-30.9763E-3
2.59380E-3	94.6736E-12	704.152E-3	-15.7863E-3	93.2881E-12	690.148E-3	-42.0626E-3
2.58879E-3	94.5303E-12	690.825E-3	-16.6767E-3	94.0613E-12	688.479E-3	-24.1920E-3
2.58379E-3	93.0221E-12	690.306E-3	-21.8249E-3	93.9989E-12	688.214E-3	3.93195E-3
2.57879E-3	91.7465E-12	682.420E-3	-10.0300E-3	92.6965E-12	689.226E-3	9.48443E-3
2.57379E-3	91.6456E-12	673.382E-3	-8.10948E-3	92.9872E-12	700.935E-3	-15.1945E-3
2.56878E-3	93.4176E-12	683.635E-3	-28.3170E-3	91.9690E-12	718.707E-3	-32.8350E-3
2.56378E-3	92.3817E-12	687.273E-3	-36.3265E-3	91.6726E-12	730.334E-3	-15.8001E-3
2.55878E-3	90.9855E-12	695.944E-3	-26.6491E-3	92.0872E-12	727.829E-3	7.99608E-3
2.55378E-3	91.5587E-12	716.038E-3	-13.1106E-3	91.9132E-12	707.151E-3	994.429E-6
2.54877E-3	92.1728E-12	712.733E-3	-8.95773E-3	91.0159E-12	692.716E-3	-26.1045E-3
2.54377E-3	92.4781E-12	699.165E-3	-21.4633E-3	90.3391E-12	693.121E-3	-37.2797E-3
2.53877E-3	91.4228E-12	705.492E-3	-27.5044E-3	90.2418E-12	693.434E-3	-21.4854E-3
2.53377E-3	91.5401E-12	718.839E-3	-18.2062E-3	89.7412E-12	692.151E-3	-5.59991E-3
2.52876E-3	91.1544E-12	711.210E-3	-14.1599E-3	88.9107E-12	683.627E-3	-15.1990E-3
2.52376E-3	92.4933E-12	696.412E-3	-14.1271E-3	88.7496E-12	678.857E-3	-27.4067E-3
2.51876E-3	91.7374E-12	699.147E-3	-3.42440E-3	88.8105E-12	692.964E-3	-24.8623E-3
2.51376E-3	90.2493E-12	717.187E-3	-5.59389E-3	88.6614E-12	703.260E-3	-26.3315E-3
2.50875E-3	90.0841E-12	724.602E-3	-29.3430E-3	88.5070E-12	699.679E-3	-22.7203E-3
2.50375E-3	90.5163E-12	712.898E-3	-33.7284E-3	88.4134E-12	700.507E-3	-14.9190E-3
2.49875E-3	90.9725E-12	700.076E-3	-23.2793E-3	88.5458E-12	709.432E-3	-23.6851E-3
2.49375E-3	88.9477E-12	697.284E-3	-16.8944E-3	89.0288E-12	709.240E-3	-23.3914E-3
2.48874E-3	87.8194E-12	699.007E-3	-15.1874E-3	88.1276E-12	712.072E-3	-5.73493E-3
2.48374E-3	87.9421E-12	697.200E-3	-15.3605E-3	88.2602E-12	727.024E-3	1.15635E-3
2.47874E-3	89.0420E-12	704.298E-3	-2.84573E-3	87.8994E-12	720.095E-3	-3.86432E-3
2.47374E-3	88.3647E-12	715.845E-3	3.95749E-3	89.4645E-12	708.407E-3	-9.12626E-3
2.46873E-3	86.0763E-12	721.377E-3	-4.96724E-3	88.9062E-12	725.862E-3	-16.1557E-3
2.46373E-3	86.0111E-12	727.331E-3	-15.0086E-3	87.5900E-12	736.067E-3	-25.5367E-3
2.45873E-3	87.3383E-12	713.881E-3	-19.7131E-3	86.8930E-12	713.451E-3	-29.0217E-3
2.45373E-3	87.5537E-12	690.429E-3	-32.5005E-3	88.0422E-12	699.343E-3	-29.7187E-3
2.44872E-3	86.8424E-12	692.665E-3	-41.5389E-3	88.0399E-12	706.644E-3	-27.6723E-3
2.44372E-3	86.1963E-12	712.012E-3	-20.6576E-3	86.8256E-12	710.510E-3	-16.4726E-3
2.43872E-3	86.3114E-12	712.578E-3	-11.7433E-3	86.6756E-12	721.095E-3	-5.85928E-3
2.43372E-3	87.4860E-12	705.024E-3	-26.6649E-3	86.7112E-12	737.560E-3	-10.7708E-3
2.42871E-3	87.7134E-12	711.066E-3	-26.2397E-3	86.8503E-12	739.539E-3	-20.7170E-3
2.42371E-3	86.4356E-12	714.868E-3	-13.8872E-3	85.3858E-12	721.848E-3	-33.8626E-3
2.41871E-3	85.8840E-12	718.293E-3	-8.24756E-3	84.9299E-12	702.381E-3	-45.4956E-3
2.41371E-3	86.0280E-12	713.686E-3	-12.4522E-3	85.5766E-12	706.575E-3	-29.2311E-3
2.40870E-3	86.1080E-12	694.460E-3	-24.8060E-3	85.4543E-12	724.178E-3	-2.82034E-3
2.40370E-3	85.0808E-12	696.299E-3	-36.1677E-3	85.8520E-12	723.310E-3	-4.18854E-3
2.39870E-3	84.3782E-12	721.245E-3	-25.5397E-3	85.2197E-12	709.817E-3	-12.1781E-3
2.39370E-3	84.4925E-12	730.135E-3	-10.2546E-3	85.1966E-12	724.685E-3	-3.13332E-3
2.38869E-3	85.3094E-12	722.821E-3	-11.7430E-3	85.3500E-12	750.851E-3	-8.29402E-3
2.38369E-3	84.5722E-12	713.978E-3	-14.2656E-3	85.9984E-12	753.836E-3	-22.7548E-3
2.37869E-3	83.0400E-12	697.878E-3	-19.3568E-3	85.8086E-12	754.841E-3	-18.0271E-3
2.37369E-3	83.2992E-12	689.708E-3	-17.5661E-3	85.2014E-12	742.118E-3	-15.9800E-3
2.36868E-3	83.8016E-12	705.272E-3	-1.78906E-3	84.9528E-12	718.652E-3	-27.6834E-3
2.36368E-3	83.1647E-12	720.400E-3	-3.83572E-3	84.2916E-12	725.211E-3	-31.7968E-3
2.35868E-3	82.4218E-12	731.715E-3	-14.2384E-3	84.2014E-12	734.873E-3	-21.0706E-3
2.35368E-3	81.9963E-12	733.306E-3	-9.50681E-3	83.1205E-12	725.887E-3	1.74781E-3
2.34867E-3	83.0621E-12	715.004E-3	-11.1773E-3	82.0936E-12	725.784E-3	14.0497E-3
2.34367E-3	82.8162E-12	715.828E-3	-20.3617E-3	81.7177E-12	726.398E-3	-10.2530E-3
2.33867E-3	82.2283E-12	732.979E-3	-10.0188E-3	81.8448E-12	714.122E-3	-39.0556E-3
2.33367E-3	81.3043E-12	725.849E-3	3.47093E-3	81.5957E-12	711.894E-3	-26.6690E-3
2.32866E-3	81.5005E-12	713.862E-3	-7.54295E-3	80.5785E-12	718.131E-3	-1.11777E-3
2.32366E-3	82.4037E-12	730.373E-3	-20.7192E-3	79.9709E-12	715.701E-3	-3.38007E-3
2.31866E-3	81.5272E-12	748.899E-3	-19.9823E-3	79.9449E-12	728.604E-3	-26.2315E-3
2.31366E-3	79.5922E-12	736.079E-3	-20.0403E-3	80.2365E-12	752.691E-3	-42.2774E-3
2.30865E-3	79.5302E-12	716.338E-3	-10.7003E-3	80.7918E-12	754.834E-3	-26.3535E-3
2.30365E-3	80.4200E-12	702.052E-3	10.0013E-3	80.5735E-12	741.564E-3	-1.89994E-3
2.29865E-3	79.9075E-12	703.279E-3	14.3174E-3	79.7492E-12	726.424E-3	1.57369E-3
2.29365E-3	79.0537E-12	728.641E-3	1.11465E-3	80.2289E-12	709.494E-3	-5.46348E-3
2.28864E-3	78.6247E-12	734.168E-3	-2.07105E-3	79.8721E-12	713.438E-3	-18.7838E-3
2.28364E-3	79.4978E-12	725.469E-3	3.32203E-3	80.5466E-12	735.528E-3	-38.8626E-3
2.27864E-3	79.7965E-12	739.174E-3	2.59634E-3	80.3141E-12	746.686E-3	-34.4909E-3
2.27364E-3	78.7385E-12	743.939E-3	1.42527E-3	79.6650E-12	738.124E-3	-7.55001E-3
2.26863E-3	77.8344E-12	730.929E-3	3.55700E-3	79.0682E-12	716.663E-3	-11.8242E-3
2.26363E-3	77.7672E-12	718.752E-3	2.78884E-3	79.1665E-12	704.767E-3	-25.4102E-3
2.25863E-3	79.0134E-12	710.440E-3	-2.93694E-3	78.4446E-12	720.660E-3	-13.5784E-3
2.25363E-3	78.2738E-12	714.529E-3	-11.7918E-3	77.1908E-12	744.477E-3	-6.57025E-3
2.24862E-3	76.4440E-12	728.228E-3	-16.0307E-3	76.2983E-12	739.327E-3	-18.2144E-3
2.24362E-3	75.8546E-12	734.022E-3	-22.1091E-3	76.0859E-12	722.017E-3	-21.5061E-3
2.23862E-3	76.4231E-12	725.377E-3	-34.4008E-3	76.8868E-12	715.277E-3	-22.7000E-3
2.23362E-3	76.5818E-12	732.261E-3	-27.4340E-3	77.0413E-12	715.551E-3	-35.4243E-3
2.22861E-3	75.5403E-12	742.519E-3	-8.46485E-3	76.2222E-12	738.516E-3	-16.6217E-3
2.22361E-3	74.6412E-12	727.595E-3	-3.90239E-3	75.4335E-12	769.940E-3	2.59953E-3
2.21861E-3	74.7299E-12	717.696E-3	1.52672E-3	76.0626E-12	762.608E-3	-10.7414E-3
2.21361E-3	75.2087E-12	722.734E-3	15.7992E-3	77.4918E-12	756.529E-3	-27.2951E-3
2.20860E-3	74.5679E-12	730.767E-3	8.91772E-3	76.4377E-12	784.266E-3	-49.0195E-3
2.20360E-3	74.1561E-12	742.287E-3	-7.32377E-3	76.1095E-12	785.478E-3	-50.8055E-3
2.19860E-3	74.4117E-12	746.836E-3	-12.3652E-3	76.1238E-12	760.845E-3	-23.0972E-3
2.19360E-3	74.7426E-12	749.761E-3	-21.8164E-3	76.9983E-12	755.747E-3	-14.6119E-3
2.18859E-3	74.7640E-12	760.478E-3	-22.2643E-3	76.9832E-12	760.693E-3	-27.1701E-3
2.18359E-3	74.5755E-12	763.601E-3	-6.82893E-3	75.6466E-12	766.510E-3	-30.5934E-3
2.17859E-3	74.1891E-12	770.790E-3	-4.12306E-3	75.2166E-12	777.785E-3	-24.1089E-3
2.17359E-3	73.7302E-12	789.051E-3	-14.6973E-3	75.2633E-12	776.971E-3	-13.7059E-3
2.16858E-3	73.8987E-12	776.859E-3	-15.0274E-3	75.8889E-12	766.285E-3	-2.86068E-3
2.16358E-3	72.9592E-12	748.267E-3	-10.2302E-3	74.6675E-12	762.786E-3	-7.91282E-3
2.15858E-3	72.3919E-12	748.462E-3	-6.32057E-3	73.5333E-12	766.980E-3	-29.3052E-3
2.15358E-3	72.0816E-12	762.819E-3	507.490E-6	72.7268E-12	778.071E-3	-38.0612E-3
2.14857E-3	71.8291E-12	768.851E-3	-3.67269E-3	73.2001E-12	790.304E-3	-31.5632E-3
2.14357E-3	71.3646E-12	761.546E-3	-12.6559E-3	73.4985E-12	782.375E-3	-17.6148E-3
2.13857E-3	70.6052E-12	745.467E-3	-4.53767E-3	72.1312E-12	765.198E-3	-5.10503E-3
2.13357E-3	70.6407E-12	735.521E-3	-4.33359E-3	71.7893E-12	777.166E-3	-14.0433E-3
2.12856E-3	70.5300E-12	737.744E-3	-14.8249E-3	71.8574E-12	787.347E-3	-23.6336E-3
2.12356E-3	70.2961E-12	742.758E-3	-13.5893E-3	72.6854E-12	769.877E-3	-2.70327E-3
2.11856E-3	70.0112E-12	745.991E-3	-18.7042E-3	71.8766E-12	763.079E-3	14.5743E-3
2.11356E-3	70.0649E-12	755.530E-3	-30.4708E-3	71.0858E-12	773.870E-3	-2.88747E-3
2.10855E-3	69.8016E-12	760.001E-3	-26.1622E-3	70.4542E-12	785.271E-3	-5.71479E-3
2.10355E-3	70.1680E-12	754.255E-3	-22.5768E-3	70.8481E-12	788.641E-3	7.97444E-3
2.09855E-3	70.1618E-12	762.917E-3	-30.7650E-3	70.9694E-12	782.813E-3	-13.9646E-3
2.09355E-3	70.3534E-12	781.176E-3	-30.4736E-3	70.1349E-12	777.547E-3	-33.2390E-3
2.08854E-3	69.5272E-12	781.983E-3	-24.4843E-3	69.6620E-12	781.794E-3	-33.2465E-3
2.08354E-3	68.9804E-12	774.288E-3	-19.6110E-3	68.9794E-12	778.261E-3	-36.6119E-3
2.07854E-3	69.0761E-12	763.196E-3	-12.8814E-3	70.1445E-12	760.562E-3	-30.3810E-3
2.07354E-3	69.2130E-12	748.929E-3	-7.55813E-3	68.8552E-12	766.492E-3	-16.6925E-3
2.06853E-3	68.5216E-12	751.043E-3	-9.98630E-3	68.5136E-12	786.616E-3	-10.6956E-3
2.06353E-3	67.6019E-12	756.966E-3	-8.57517E-3	67.9159E-12	791.711E-3	-17.2343E-3
2.05853E-3	66.9715E-12	750.400E-3	-8.41445E-3	68.5203E-12	801.629E-3	-23.2927E-3
2.05353E-3	67.0674E-12	758.569E-3	-24.8661E-3	67.2809E-12	808.682E-3	-29.6571E-3
2.04852E-3	66.7859E-12	774.977E-3	-28.1592E-3	67.7213E-12	794.319E-3	-34.2095E-3
2.04352E-3	65.7297E-12	758.220E-3	-13.7934E-3	67.9746E-12	781.637E-3	-27.5738E-3
2.03852E-3	65.3593E-12	743.581E-3	-14.9482E-3	67.6773E-12	780.655E-3	-21.3555E-3
2.03352E-3	66.1992E-12	764.121E-3	-23.7075E-3	67.1222E-12	777.472E-3	-18.9807E-3
2.02851E-3	66.2179E-12	777.777E-3	-23.1881E-3	66.9351E-12	774.075E-3	-16.6664E-3
2.02351E-3	65.7533E-12	787.130E-3	-29.2354E-3	67.3987E-12	777.253E-3	-8.28958E-3
2.01851E-3	65.2374E-12	797.442E-3	-29.5907E-3	66.9986E-12	784.891E-3	-1.23084E-3
2.01351E-3	64.9856E-12	783.677E-3	-16.4050E-3	66.2274E-12	799.456E-3	-4.84120E-3
2.00850E-3	65.7745E-12	777.418E-3	-13.8332E-3	65.8633E-12	807.612E-3	-8.28427E-3
2.00350E-3	65.6621E-12	791.800E-3	-1.76278E-3	65.8695E-12	791.219E-3	-4.57839E-3
1.99850E-3	65.2272E-12	792.992E-3	10.7023E-3	65.2772E-12	772.088E-3	4.23261E-3
1.99350E-3	64.4852E-12	779.585E-3	-3.42889E-3	64.0012E-12	774.311E-3	7.51090E-3
1.98849E-3	64.6056E-12	778.614E-3	-12.6102E-3	63.9913E-12	775.438E-3	-1.04998E-3
1.98349E-3	64.4614E-12	794.575E-3	-8.89004E-3	63.7733E-12	778.184E-3	-15.5386E-3
1.97849E-3	64.0602E-12	806.145E-3	-16.1228E-3	63.4264E-12	796.138E-3	-28.6910E-3
1.97349E-3	62.8327E-12	807.010E-3	-20.6382E-3	62.9725E-12	800.985E-3	-27.6294E-3
1.96848E-3	62.7903E-12	804.945E-3	-17.7872E-3	63.0806E-12	794.750E-3	-13.0503E-3
1.96348E-3	62.8364E-12	803.910E-3	-27.8703E-3	63.5426E-12	804.294E-3	-21.7951E-3
1.95848E-3	62.5535E-12	808.746E-3	-29.2202E-3	62.8972E-12	825.595E-3	-38.7180E-3
1.95348E-3	62.3746E-12	804.129E-3	827.610E-6	63.0255E-12	840.021E-3	-19.7795E-3
1.94847E-3	61.8512E-12	802.485E-3	17.3337E-3	62.9736E-12	832.436E-3	2.00770E-3
1.94347E-3	61.2035E-12	827.577E-3	3.66265E-3	62.7071E-12	811.142E-3	-8.02447E-3
1.93847E-3	61.9590E-12	836.726E-3	-5.31437E-3	62.1781E-12	808.039E-3	-20.7098E-3
1.93347E-3	61.6849E-12	823.541E-3	-18.1564E-3	61.3094E-12	816.149E-3	-23.0707E-3
1.92846E-3	61.1010E-12	837.327E-3	-16.9902E-3	61.3075E-12	810.620E-3	-20.7369E-3
1.92346E-3	60.7435E-12	858.917E-3	8.58099E-3	61.1959E-12	808.873E-3	-14.9884E-3
1.91846E-3	60.5115E-12	844.441E-3	13.5437E-3	60.0550E-12	814.753E-3	-16.7009E-3
1.91346E-3	60.3170E-12	822.528E-3	499.930E-6	58.6745E-12	813.192E-3	-18.2427E-3
1.90845E-3	60.2044E-12	814.762E-3	-6.81144E-3	58.7878E-12	812.459E-3	-9.20866E-3
1.90345E-3	60.0570E-12	816.463E-3	-13.4362E-3	58.7850E-12	810.207E-3	-4.94126E-3
1.89845E-3	59.4605E-12	822.712E-3	-22.3070E-3	57.9603E-12	812.755E-3	-15.8509E-3
1.89345E-3	58.9333E-12	824.864E-3	-21.2527E-3	57.2070E-12	828.190E-3	-22.1710E-3
1.88844E-3	59.2223E-12	825.753E-3	-21.6075E-3	57.1580E-12	835.844E-3	-21.0125E-3
1.88344E-3	58.2080E-12	832.093E-3	-29.4880E-3	57.8168E-12	828.858E-3	-23.6689E-3
1.87844E-3	58.1620E-12	833.582E-3	-31.2811E-3	57.7387E-12	832.825E-3	-25.6630E-3
1.87344E-3	57.8550E-12	824.664E-3	-30.3138E-3	57.3507E-12	862.888E-3	-24.9492E-3
1.86843E-3	57.6219E-12	833.097E-3	-22.2792E-3	57.3214E-12	880.463E-3	-29.1462E-3
1.86343E-3	56.9498E-12	847.663E-3	-18.3417E-3	57.8899E-12	869.044E-3	-37.0228E-3
1.85843E-3	57.1702E-12	846.959E-3	-35.8418E-3	57.5084E-12	858.411E-3	-43.1374E-3
1.85343E-3	56.9424E-12	852.144E-3	-44.6204E-3	56.8218E-12	853.293E-3	-47.2333E-3
1.84842E-3	56.3577E-12	876.957E-3	-26.6709E-3	56.1780E-12	852.587E-3	-39.9265E-3
1.84342E-3	56.5638E-12	895.589E-3	-6.88461E-3	56.5759E-12	862.914E-3	-19.2952E-3
1.83842E-3	56.4792E-12	891.820E-3	-1.08878E-3	56.6294E-12	857.789E-3	-1.87096E-3
1.83342E-3	55.9084E-12	876.157E-3	-3.35752E-3	55.6973E-12	836.835E-3	2.68100E-3
1.82841E-3	55.7290E-12	851.492E-3	-11.7870E-3	54.8531E-12	841.544E-3	-10.4817E-3
1.82341E-3	55.8066E-12	840.997E-3	-17.8428E-3	54.3908E-12	858.031E-3	-38.4425E-3
1.81841E-3	55.7698E-12	859.801E-3	-1.87489E-3	54.0777E-12	863.036E-3	-35.4325E-3
1.81341E-3	54.3184E-12	874.932E-3	8.43043E-3	53.7205E-12	865.995E-3	-8.80771E-3
1.80840E-3	53.5422E-12	882.360E-3	-5.51627E-3	53.2340E-12	863.657E-3	-15.0513E-3
1.80340E-3	53.5025E-12	896.110E-3	-16.3815E-3	52.7287E-12	870.915E-3	-32.6585E-3
1.79840E-3	53.6219E-12	883.140E-3	-23.2175E-3	52.8383E-12	897.187E-3	-27.4222E-3
1.79340E-3	52.8819E-12	866.361E-3	-31.1979E-3	53.0856E-12	906.118E-3	-13.6377E-3
1.78839E-3	52.4328E-12	883.296E-3	-28.5435E-3	53.1272E-12	891.358E-3	-11.6185E-3
1.78339E-3	52.2654E-12	894.752E-3	-25.2556E-3	52.1388E-12	892.600E-3	-14.3942E-3
1.77839E-3	52.7444E-12	888.772E-3	-23.0564E-3	52.3794E-12	912.208E-3	-20.8031E-3
1.77339E-3	52.2849E-12	887.680E-3	-5.09329E-3	52.9577E-12	920.612E-3	-25.9730E-3
1.76838E-3	51.5894E-12	890.209E-3	638.977E-6	52.6203E-12	924.450E-3	-15.7885E-3
1.76338E-3	50.8764E-12	888.761E-3	-12.9125E-3	51.8205E-12	936.951E-3	-11.4576E-3
1.75838E-3	51.3382E-12	893.180E-3	-27.6229E-3	51.7481E-12	940.703E-3	-13.3630E-3
1.75338E-3	51.7845E-12	900.950E-3	-44.5989E-3	51.7292E-12	938.317E-3	-6.62544E-3
1.74837E-3	51.4274E-12	901.771E-3	-45.7302E-3	51.6576E-12	936.050E-3	-9.76304E-3
1.74337E-3	50.3339E-12	902.820E-3	-33.4919E-3	50.6811E-12	923.590E-3	-21.9537E-3
1.73837E-3	50.0577E-12	912.013E-3	-24.8371E-3	50.3459E-12	917.737E-3	-23.8936E-3
1.73337E-3	50.6185E-12	920.655E-3	-11.6154E-3	49.7944E-12	933.549E-3	-21.1634E-3
1.72836E-3	49.7647E-12	927.343E-3	630.292E-6	49.4055E-12	945.194E-3	-8.69191E-3
1.72336E-3	48.9365E-12	939.596E-3	236.555E-6	48.8075E-12	939.019E-3	6.53598E-3
1.71836E-3	48.3521E-12	951.773E-3	-1.94577E-3	48.5243E-12	932.806E-3	1.66609E-3
1.71336E-3	48.4490E-12	951.740E-3	3.94679E-3	48.3141E-12	943.217E-3	-8.25139E-3
1.70835E-3	48.3448E-12	944.717E-3	10.4980E-3	47.7189E-12	955.651E-3	-14.6133E-3
1.70335E-3	47.3513E-12	952.718E-3	-518.781E-6	47.6124E-12	944.502E-3	-27.5579E-3
1.69835E-3	47.1007E-12	963.400E-3	-12.4066E-3	47.4966E-12	941.966E-3	-32.1143E-3
1.69335E-3	46.8064E-12	962.416E-3	-14.9765E-3	46.9495E-12	969.777E-3	-21.0433E-3
1.68834E-3	46.8136E-12	965.554E-3	-15.8465E-3	46.5584E-12	985.171E-3	-13.4976E-3
1.68334E-3	46.3435E-12	965.654E-3	-15.0780E-3	46.3545E-12	981.556E-3	-14.7227E-3
1.67834E-3	46.0715E-12	953.509E-3	-26.4849E-3	46.1681E-12	981.746E-3	-9.61266E-3
1.67334E-3	45.7049E-12	952.798E-3	-37.5033E-3	45.5376E-12	988.164E-3	-1.97966E-3
1.66833E-3	45.7826E-12	961.275E-3	-27.0173E-3	45.2708E-12	986.336E-3	2.79861E-3
1.66333E-3	45.9494E-12	966.233E-3	-18.0902E-3	44.8873E-12	975.766E-3	4.50331E-3
1.65833E-3	45.4784E-12	984.571E-3	-24.5877E-3	44.5820E-12	979.061E-3	3.01237E-3
1.65333E-3	45.0230E-12	1.01070E+0	-25.2556E-3	43.5796E-12	990.197E-3	8.52343E-3
1.64832E-3	44.3368E-12	1.02097E+0	-24.4345E-3	43.3054E-12	1.00577E+0	12.8271E-3
1.64332E-3	44.3234E-12	1.01905E+0	-33.5993E-3	43.4623E-12	1.02402E+0	3.74659E-3
1.63832E-3	44.1146E-12	1.01984E+0	-34.3272E-3	43.0544E-12	1.02409E+0	-3.66290E-3
1.63332E-3	43.6957E-12	1.01854E+0	-21.7860E-3	42.7241E-12	1.02238E+0	8.56794E-3
1.62831E-3	42.7404E-12	1.01599E+0	-13.3325E-3	42.0786E-12	1.02603E+0	14.2225E-3
1.62331E-3	42.7588E-12	1.02284E+0	-16.0821E-3	41.8424E-12	1.01996E+0	-1.27868E-3
1.61831E-3	42.8944E-12	1.02240E+0	-25.9357E-3	42.1069E-12	1.03096E+0	-987.348E-6
1.61331E-3	42.0813E-12	1.01964E+0	-27.3508E-3	42.1040E-12	1.06148E+0	-46.4129E-6
1.60830E-3	41.4224E-12	1.03376E+0	-14.9916E-3	41.4509E-12	1.07173E+0	-18.8311E-3
1.60330E-3	40.8268E-12	1.03072E+0	-7.66871E-3	41.0555E-12	1.06489E+0	-26.8253E-3
1.59830E-3	40.8853E-12	1.01316E+0	-24.3265E-3	40.9877E-12	1.05853E+0	-21.9689E-3
1.59330E-3	40.9201E-12	1.01418E+0	-36.7163E-3	40.8905E-12	1.05340E+0	-13.5091E-3
1.58829E-3	40.8585E-12	1.02676E+0	-21.9841E-3	40.4561E-12	1.05569E+0	-11.4743E-3
1.58329E-3	40.0102E-12	1.05120E+0	-6.31047E-3	39.7684E-12	1.06246E+0	-16.7335E-3
1.57829E-3	39.4814E-12	1.07694E+0	-222.970E-6	39.3655E-12	1.06063E+0	-15.8600E-3
1.57329E-3	39.4445E-12	1.07615E+0	-6.85706E-3	39.0605E-12	1.05363E+0	-15.9162E-3
1.56828E-3	39.7070E-12	1.06775E+0	-22.5374E-3	38.7835E-12	1.06002E+0	-24.4561E-3
1.56328E-3	39.2004E-12	1.07604E+0	-29.7933E-3	37.9298E-12	1.08015E+0	-34.0932E-3
1.55828E-3	38.0923E-12	1.09265E+0	-23.6747E-3	37.1761E-12	1.09521E+0	-31.4039E-3
1.55328E-3	37.5432E-12	1.10555E+0	-15.7294E-3	36.7971E-12	1.09248E+0	-14.7331E-3
1.54827E-3	37.5042E-12	1.10753E+0	-11.0572E-3	36.7423E-12	1.08618E+0	-5.66855E-3
1.54327E-3	37.2464E-12	1.09582E+0	-5.86919E-3	36.7362E-12	1.09218E+0	-9.22265E-3
1.53827E-3	35.9559E-12	1.08094E+0	-7.66772E-3	36.2808E-12	1.10563E+0	-8.71654E-3
1.53327E-3	35.5309E-12	1.07585E+0	-15.7399E-3	35.7045E-12	1.11616E+0	-10.1517E-3
1.52826E-3	35.5620E-12	1.07669E+0	-25.2960E-3	35.9086E-12	1.11804E+0	-13.0153E-3
1.52326E-3	35.9473E-12	1.08839E+0	-31.7766E-3	35.9247E-12	1.12054E+0	-5.36649E-3
1.51826E-3	35.1448E-12	1.10933E+0	-33.0981E-3	35.5456E-12	1.11609E+0	-9.44060E-3
1.51326E-3	34.1399E-12	1.11392E+0	-28.6233E-3	34.7381E-12	1.10429E+0	-15.2454E-3
1.50825E-3	33.9257E-12	1.10037E+0	-27.6945E-3	34.6146E-12	1.10665E+0	-14.1864E-3
1.50325E-3	33.9479E-12	1.09606E+0	-36.4167E-3	34.4108E-12	1.11891E+0	-27.8950E-3
1.49825E-3	33.9222E-12	1.10916E+0	-32.3398E-3	33.9571E-12	1.11674E+0	-30.8190E-3
1.49325E-3	32.9428E-12	1.12220E+0	-25.6513E-3	33.3756E-12	1.10537E+0	-22.1831E-3
1.48824E-3	32.7778E-12	1.12459E+0	-28.1444E-3	32.6702E-12	1.10856E+0	-24.8563E-3
1.48324E-3	32.7522E-12	1.11623E+0	-18.2365E-3	32.1393E-12	1.10798E+0	-17.1180E-3
1.47824E-3	32.5215E-12	1.10717E+0	-5.74186E-3	31.5742E-12	1.09968E+0	-10.7383E-3
1.47324E-3	31.8779E-12	1.10553E+0	-864.415E-6	31.1895E-12	1.10275E+0	-16.2820E-3
1.46823E-3	31.4676E-12	1.10732E+0	-2.81301E-3	30.7394E-12	1.09919E+0	-5.16144E-3
1.46323E-3	31.3211E-12	1.11430E+0	-17.1732E-3	30.5841E-12	1.09856E+0	8.67215E-3
1.45823E-3	31.1878E-12	1.12620E+0	-23.2151E-3	30.1596E-12	1.11671E+0	-1.11377E-3
1.45323E-3	30.3736E-12	1.13765E+0	-6.66422E-3	29.8557E-12	1.12007E+0	-10.6879E-3
1.44822E-3	29.4425E-12	1.14191E+0	542.201E-6	29.4610E-12	1.11389E+0	-9.62350E-3
1.44322E-3	29.1702E-12	1.14242E+0	-18.4236E-3	29.2869E-12	1.12169E+0	-21.4033E-3
1.43822E-3	29.1082E-12	1.13654E+0	-32.7786E-3	29.1285E-12	1.12207E+0	-31.0494E-3
1.43322E-3	28.8957E-12	1.12735E+0	-21.8912E-3	28.8198E-12	1.11195E+0	-26.4820E-3
1.42821E-3	28.2092E-12	1.13264E+0	-7.93480E-3	28.7883E-12	1.10233E+0	-31.8923E-3
1.42321E-3	27.7005E-12	1.14132E+0	-4.49887E-3	28.4476E-12	1.08842E+0	-37.6836E-3
1.41821E-3	27.5653E-12	1.12876E+0	-1.23896E-3	27.5243E-12	1.08161E+0	-29.3108E-3
1.41321E-3	27.5246E-12	1.09872E+0	-277.012E-6	27.4324E-12	1.08642E+0	-32.5899E-3
1.40820E-3	26.9900E-12	1.08392E+0	-2.59201E-3	27.2596E-12	1.08933E+0	-32.5527E-3
1.40320E-3	26.3679E-12	1.09075E+0	-3.98103E-3	26.8407E-12	1.09311E+0	-13.3589E-3
1.39820E-3	26.3425E-12	1.10333E+0	-5.85460E-3	26.1047E-12	1.08650E+0	-8.73832E-3
1.39320E-3	26.2037E-12	1.12136E+0	-8.62333E-3	25.4852E-12	1.05392E+0	-11.7148E-3
1.38819E-3	25.9315E-12	1.12293E+0	-10.9318E-3	25.3665E-12	1.02183E+0	-3.50299E-3
1.38319E-3	25.4948E-12	1.10180E+0	-18.0456E-3	24.9483E-12	1.01214E+0	-15.2936E-3
1.37819E-3	24.7468E-12	1.08591E+0	-25.5994E-3	24.1788E-12	1.00626E+0	-34.8775E-3
1.37319E-3	24.5558E-12	1.08133E+0	-14.1674E-3	23.7234E-12	1.00319E+0	-24.1077E-3
1.36818E-3	24.2995E-12	1.07779E+0	-1.17284E-3	23.5299E-12	1.01294E+0	-16.6727E-3
1.36318E-3	23.9148E-12	1.06781E+0	-9.66095E-3	23.2437E-12	1.01268E+0	-21.4631E-3
1.35818E-3	23.3022E-12	1.05455E+0	-17.7213E-3	22.7978E-12	1.01040E+0	-12.6234E-3
1.35318E-3	22.9070E-12	1.04241E+0	-14.5571E-3	22.4526E-12	1.01709E+0	-10.4161E-3
1.34817E-3	22.5916E-12	1.03423E+0	-9.80513E-3	22.4596E-12	1.00294E+0	-17.4212E-3
1.34317E-3	22.3306E-12	1.02775E+0	-17.6029E-3	22.2789E-12	980.477E-3	-17.0719E-3
1.33817E-3	21.8131E-12	1.01927E+0	-29.0908E-3	21.9708E-12	979.703E-3	-19.8594E-3
1.33317E-3	21.5080E-12	1.00901E+0	-23.8798E-3	21.7657E-12	965.319E-3	-29.0087E-3
1.32816E-3	21.4030E-12	995.107E-3	-13.4678E-3	21.5693E-12	939.455E-3	-23.3553E-3
1.32316E-3	21.1440E-12	994.128E-3	-12.0432E-3	21.1809E-12	937.769E-3	-8.45537E-3
1.31816E-3	20.7288E-12	991.893E-3	-21.4156E-3	20.6215E-12	922.588E-3	-14.7410E-3
1.31316E-3	20.1608E-12	968.625E-3	-32.3561E-3	20.3580E-12	893.853E-3	-19.8742E-3
1.30815E-3	20.0541E-12	945.085E-3	-28.5963E-3	20.1053E-12	879.300E-3	-4.31396E-3
1.30315E-3	19.8241E-12	932.137E-3	-15.3934E-3	19.6453E-12	862.742E-3	-8.96560E-3
1.29815E-3	19.4044E-12	922.983E-3	-15.1292E-3	19.3161E-12	845.809E-3	-21.6161E-3
1.29315E-3	18.9317E-12	914.337E-3	-21.0473E-3	18.9641E-12	846.650E-3	-13.0578E-3
1.28814E-3	18.6112E-12	903.503E-3	-20.5165E-3	18.6483E-12	852.604E-3	-4.13484E-3
1.28314E-3	18.4183E-12	883.468E-3	-28.1749E-3	18.2868E-12	835.309E-3	2.37684E-3
1.27814E-3	18.1666E-12	857.516E-3	-38.3336E-3	18.2183E-12	814.395E-3	1.55630E-3
1.27314E-3	17.7010E-12	844.217E-3	-27.4938E-3	18.0712E-12	803.932E-3	-11.2611E-3
1.26813E-3	17.3197E-12	837.035E-3	-9.92504E-3	17.5811E-12	782.221E-3	-17.9706E-3
1.26313E-3	17.2980E-12	824.226E-3	-12.6919E-3	17.2880E-12	758.776E-3	-16.0706E-3
1.25813E-3	17.2009E-12	818.618E-3	-22.1303E-3	17.1730E-12	733.391E-3	-10.9726E-3
1.25313E-3	17.0370E-12	808.191E-3	-19.1963E-3	17.1347E-12	710.304E-3	-7.09974E-3
1.24812E-3	16.7272E-12	797.229E-3	-11.2202E-3	16.7763E-12	713.161E-3	-16.2998E-3
1.24312E-3	16.4716E-12	790.753E-3	-5.01544E-3	16.3802E-12	719.774E-3	-34.3439E-3
1.23812E-3	16.3933E-12	769.092E-3	-7.80348E-3	16.2279E-12	701.470E-3	-35.5649E-3
1.23312E-3	16.2135E-12	753.302E-3	-18.9492E-3	16.4069E-12	666.659E-3	-19.5147E-3
1.22811E-3	15.9716E-12	749.524E-3	-26.0822E-3	16.1201E-12	638.121E-3	-12.6583E-3
1.22311E-3	15.6961E-12	728.314E-3	-19.5130E-3	15.4685E-12	617.130E-3	-15.2280E-3
1.21811E-3	15.4950E-12	698.267E-3	340.646E-6	15.0068E-12	603.373E-3	-12.0819E-3
1.21311E-3	15.1782E-12	687.695E-3	8.59620E-3	14.8553E-12	597.294E-3	-2.51324E-3
1.20810E-3	14.8221E-12	683.501E-3	-4.55022E-3	14.7417E-12	573.556E-3	7.17651E-3
1.20310E-3	14.5247E-12	657.350E-3	-25.3517E-3	14.4281E-12	549.363E-3	8.92076E-3
1.19810E-3	14.3023E-12	625.087E-3	-29.5258E-3	14.1285E-12	551.866E-3	-3.12153E-3
1.19310E-3	14.0758E-12	617.864E-3	-14.2842E-3	13.9414E-12	553.524E-3	-21.7168E-3
1.18809E-3	13.8640E-12	620.157E-3	-4.54351E-3	13.7998E-12	542.542E-3	-35.0585E-3
1.18309E-3	13.5201E-12	600.788E-3	-6.04095E-3	13.6388E-12	523.162E-3	-36.3883E-3
1.17809E-3	13.2747E-12	570.070E-3	-16.3438E-3	13.4793E-12	500.894E-3	-23.8975E-3
1.17309E-3	13.1223E-12	549.256E-3	-19.7893E-3	13.4065E-12	493.343E-3	-12.8789E-3
1.16808E-3	13.1802E-12	537.443E-3	-6.48629E-3	13.3922E-12	487.269E-3	-12.5954E-3
1.16308E-3	13.0378E-12	526.692E-3	2.98353E-3	13.2236E-12	477.594E-3	-3.67160E-3
1.15808E-3	12.6369E-12	517.825E-3	-11.2694E-3	13.1726E-12	470.897E-3	6.95204E-3
1.15308E-3	12.6276E-12	510.752E-3	-23.7442E-3	12.9373E-12	455.947E-3	-1.92011E-3
1.14807E-3	12.7079E-12	492.396E-3	-19.5132E-3	12.7203E-12	425.334E-3	-11.2916E-3
1.14307E-3	12.5799E-12	474.687E-3	-16.8326E-3	12.5283E-12	401.101E-3	-12.8229E-3
1.13807E-3	12.2914E-12	467.646E-3	-15.0937E-3	12.2944E-12	389.329E-3	-16.5941E-3
1.13307E-3	12.2388E-12	455.343E-3	-21.5677E-3	12.0869E-12	366.446E-3	-16.1532E-3
1.12806E-3	12.1872E-12	432.710E-3	-29.8591E-3	11.8009E-12	351.304E-3	-12.1123E-3
1.12306E-3	11.9595E-12	406.313E-3	-15.3387E-3	11.6202E-12	348.176E-3	-15.3949E-3
1.11806E-3	11.7455E-12	391.175E-3	8.85529E-3	11.5696E-12	335.510E-3	-15.3712E-3
1.11306E-3	11.4491E-12	390.711E-3	15.5282E-3	11.3120E-12	328.726E-3	-8.58220E-3
1.10805E-3	11.3605E-12	390.504E-3	8.48961E-3	11.0724E-12	331.992E-3	-12.9612E-3
1.10305E-3	11.2032E-12	373.441E-3	-7.07595E-3	11.0311E-12	317.105E-3	-19.5155E-3
1.09805E-3	10.9550E-12	347.098E-3	-20.1442E-3	11.1347E-12	298.121E-3	-4.94148E-3
1.09305E-3	10.7861E-12	330.974E-3	-16.1726E-3	11.0304E-12	297.086E-3	5.27196E-3
1.08804E-3	10.6865E-12	319.920E-3	-630.014E-6	10.8852E-12	290.641E-3	-7.68354E-3
1.08304E-3	10.5421E-12	318.298E-3	3.98918E-3	10.7237E-12	273.983E-3	-4.14628E-3
1.07804E-3	10.5724E-12	315.894E-3	-9.86868E-3	10.7998E-12	263.138E-3	5.13935E-3
1.07304E-3	10.5815E-12	294.833E-3	-27.7298E-3	10.7751E-12	256.639E-3	-6.43201E-3
1.06803E-3	10.4088E-12	273.300E-3	-39.4638E-3	10.6107E-12	249.796E-3	-15.6448E-3
1.06303E-3	10.3574E-12	264.516E-3	-29.5558E-3	10.4570E-12	239.762E-3	-17.6157E-3
1.05803E-3	10.3813E-12	262.729E-3	-15.1327E-3	10.2066E-12	223.674E-3	-17.2897E-3
1.05303E-3	10.3490E-12	261.002E-3	-13.4755E-3	10.1765E-12	207.976E-3	-12.6564E-3
1.04802E-3	10.2452E-12	253.316E-3	-17.0052E-3	10.1351E-12	198.647E-3	-7.46639E-3
1.04302E-3	10.3307E-12	242.103E-3	-18.5114E-3	10.0965E-12	190.181E-3	132.307E-6
1.03802E-3	10.2493E-12	240.847E-3	-16.0866E-3	9.84392E-12	182.511E-3	6.73956E-3
1.03302E-3	10.0472E-12	241.555E-3	-10.9568E-3	9.60322E-12	173.372E-3	1.64659E-3
1.02801E-3	9.86432E-12	229.322E-3	-9.75368E-3	9.61920E-12	153.280E-3	-14.3209E-3
1.02301E-3	9.67331E-12	210.980E-3	-20.3555E-3	9.78521E-12	138.169E-3	-21.6754E-3
1.01801E-3	9.49231E-12	199.041E-3	-24.0136E-3	9.47544E-12	145.496E-3	-21.0380E-3
1.01301E-3	9.41169E-12	191.507E-3	-12.0974E-3	9.35050E-12	153.734E-3	-20.2352E-3
1.00800E-3	9.27902E-12	179.837E-3	-9.61504E-3	9.51008E-12	147.113E-3	-10.3868E-3
1.00300E-3	9.27503E-12	163.736E-3	-25.7018E-3	9.74484E-12	138.801E-3	-3.43566E-3
997.999E-6	9.27855E-12	152.151E-3	-37.5778E-3	9.54590E-12	134.251E-3	-5.46044E-3
992.997E-6	9.22429E-12	142.958E-3	-33.5851E-3	9.53209E-12	125.660E-3	-11.0357E-3
987.994E-6	9.10610E-12	134.980E-3	-14.8702E-3	9.47817E-12	120.063E-3	-25.9880E-3
982.991E-6	9.16591E-12	134.451E-3	1.79001E-3	9.43009E-12	118.562E-3	-25.6366E-3
977.989E-6	9.18189E-12	124.655E-3	698.495E-6	9.40692E-12	107.894E-3	-5.31154E-3
972.986E-6	9.24691E-12	119.298E-3	-9.57472E-3	9.29983E-12	105.734E-3	-2.85616E-3
967.984E-6	9.10185E-12	120.933E-3	-16.3431E-3	9.12698E-12	112.379E-3	-12.8975E-3
962.981E-6	9.04017E-12	118.890E-3	-28.6738E-3	8.98645E-12	100.562E-3	-9.54237E-3
957.979E-6	9.05091E-12	126.770E-3	-36.3901E-3	8.93170E-12	89.4400E-3	-1.17905E-3
952.976E-6	9.11746E-12	131.978E-3	-25.0895E-3	8.82852E-12	90.1034E-3	-2.26549E-3
947.974E-6	9.05295E-12	126.723E-3	-27.1115E-3	8.71448E-12	89.2329E-3	-2.26916E-3
942.971E-6	8.86763E-12	121.923E-3	-33.0545E-3	8.62365E-12	96.9599E-3	629.647E-6
937.969E-6	9.07087E-12	115.565E-3	-15.8691E-3	8.59028E-12	102.654E-3	-1.88475E-3
932.966E-6	9.00064E-12	107.341E-3	-1.59576E-3	8.61669E-12	97.6963E-3	-1.01498E-3
927.964E-6	8.99898E-12	103.793E-3	-1.29083E-3	8.59976E-12	101.720E-3	2.30119E-3
922.961E-6	8.85588E-12	97.3300E-3	-8.77832E-3	8.71703E-12	98.6789E-3	-1.63329E-3
917.959E-6	8.71895E-12	84.3539E-3	-28.3793E-3	8.75875E-12	77.6022E-3	-499.416E-6
912.956E-6	8.89131E-12	76.7320E-3	-36.8192E-3	8.87488E-12	65.1549E-3	4.06986E-3
907.954E-6	8.83804E-12	72.4322E-3	-18.3372E-3	8.90729E-12	63.6989E-3	-2.35054E-3
902.951E-6	8.81353E-12	68.8714E-3	-13.7377E-3	8.87161E-12	53.4665E-3	-4.33680E-3
897.949E-6	8.79827E-12	81.8646E-3	-23.5876E-3	8.77073E-12	47.5323E-3	923.157E-6
892.946E-6	8.79344E-12	94.6746E-3	-23.5890E-3	8.85548E-12	53.8306E-3	-8.41854E-3
887.944E-6	8.77765E-12	84.6762E-3	-27.3373E-3	8.87582E-12	59.4480E-3	-28.5372E-3
882.941E-6	8.76403E-12	71.7550E-3	-24.2968E-3	8.66310E-12	65.5756E-3	-31.7130E-3
877.939E-6	8.54539E-12	70.8897E-3	-7.98677E-3	8.54141E-12	59.6661E-3	-26.3742E-3
872.936E-6	8.57381E-12	77.6992E-3	-2.70626E-3	8.39957E-12	46.4090E-3	-25.1104E-3
867.934E-6	8.59817E-12	86.1105E-3	-12.0263E-3	8.46889E-12	55.9987E-3	-9.70979E-3
862.931E-6	8.63075E-12	78.8576E-3	-16.4491E-3	8.33147E-12	69.3882E-3	2.47072E-3
857.929E-6	8.53600E-12	61.7797E-3	-7.46178E-3	8.18931E-12	61.3735E-3	-9.17259E-3
852.926E-6	8.44875E-12	56.6795E-3	-4.09145E-3	8.12930E-12	54.0333E-3	-22.0442E-3
847.924E-6	8.43567E-12	57.6601E-3	-9.26688E-3	8.19949E-12	55.2797E-3	-26.0180E-3
842.921E-6	8.47069E-12	62.3445E-3	-21.0082E-3	8.23755E-12	55.0566E-3	-26.2584E-3
837.919E-6	8.49988E-12	70.7271E-3	-36.6298E-3	8.18210E-12	50.0167E-3	-15.3127E-3
832.916E-6	8.30161E-12	65.9877E-3	-35.6584E-3	8.17337E-12	42.4603E-3	-5.73467E-3
827.914E-6	8.22230E-12	50.9784E-3	-27.5716E-3	8.29200E-12	41.3610E-3	-16.4613E-3
822.911E-6	8.51296E-12	45.3009E-3	-21.4466E-3	8.40169E-12	45.5808E-3	-28.8421E-3
817.909E-6	8.45900E-12	53.2022E-3	-20.3764E-3	8.36099E-12	49.1353E-3	-33.6188E-3
812.906E-6	8.30407E-12	63.9657E-3	-30.2998E-3	8.42742E-12	45.8512E-3	-31.0211E-3
807.904E-6	8.29835E-12	72.5181E-3	-33.9272E-3	8.44028E-12	38.2328E-3	-24.3606E-3
802.901E-6	8.46412E-12	71.0034E-3	-24.0918E-3	8.44303E-12	44.1345E-3	-25.7133E-3
797.899E-6	8.43611E-12	56.7043E-3	-16.0061E-3	8.48160E-12	51.0034E-3	-21.5097E-3
792.896E-6	8.38972E-12	50.2865E-3	-19.1371E-3	8.30225E-12	50.7872E-3	-7.29094E-3
787.894E-6	8.37712E-12	56.7895E-3	-20.9491E-3	8.20049E-12	48.7092E-3	-1.97634E-3
782.891E-6	8.26840E-12	53.8244E-3	-14.2958E-3	8.14149E-12	39.5641E-3	-10.1749E-3
777.889E-6	8.29766E-12	54.7038E-3	-14.2984E-3	8.13647E-12	43.7750E-3	-15.5900E-3
772.886E-6	8.18010E-12	70.8770E-3	-17.4586E-3	8.16711E-12	58.8986E-3	-15.3401E-3
767.884E-6	8.29862E-12	74.8128E-3	-18.0769E-3	8.01078E-12	49.1123E-3	-20.0904E-3
762.881E-6	8.13054E-12	55.5341E-3	-20.2998E-3	7.86315E-12	32.1317E-3	-24.2829E-3
757.879E-6	8.01711E-12	43.3046E-3	-10.1688E-3	7.96328E-12	36.0999E-3	-14.6393E-3
752.876E-6	7.91047E-12	46.7210E-3	1.52163E-3	8.10442E-12	37.2213E-3	-9.70975E-3
747.874E-6	8.08092E-12	53.1256E-3	-5.94513E-3	7.95608E-12	40.1353E-3	-18.8692E-3
742.871E-6	8.07723E-12	64.0020E-3	-17.9067E-3	7.89806E-12	65.3252E-3	-19.3621E-3
737.869E-6	7.86879E-12	69.2395E-3	-26.4513E-3	8.22699E-12	82.1463E-3	-16.0798E-3
732.866E-6	7.94980E-12	66.2980E-3	-35.6625E-3	8.48071E-12	66.5385E-3	-14.6806E-3
727.864E-6	7.93983E-12	57.9505E-3	-25.5558E-3	8.28148E-12	44.5691E-3	-10.7933E-3
722.861E-6	8.02384E-12	44.4380E-3	-6.07405E-3	8.06965E-12	34.9791E-3	-9.26775E-3
717.859E-6	7.94850E-12	45.9402E-3	-7.83237E-3	8.13489E-12	40.2431E-3	1.49001E-3
712.856E-6	7.82804E-12	70.8887E-3	-18.4190E-3	8.40063E-12	59.7900E-3	15.1090E-3
707.854E-6	7.87938E-12	79.2965E-3	-23.3607E-3	8.29034E-12	68.8530E-3	11.3990E-3
702.851E-6	7.80976E-12	60.1841E-3	-24.3293E-3	8.05309E-12	64.0022E-3	1.03204E-3
697.849E-6	7.74938E-12	54.0685E-3	-16.1871E-3	7.96443E-12	72.7115E-3	-12.3732E-3
692.846E-6	7.66969E-12	68.3718E-3	-5.44638E-3	7.97774E-12	78.2060E-3	-27.4041E-3
687.844E-6	7.78045E-12	78.1768E-3	-9.90948E-3	7.96312E-12	70.6688E-3	-23.8590E-3
682.841E-6	7.67518E-12	75.1757E-3	-22.1167E-3	7.73210E-12	75.1694E-3	-5.97056E-3
677.839E-6	7.63727E-12	66.4787E-3	-25.2431E-3	7.66030E-12	80.4346E-3	-6.40046E-3
672.836E-6	7.44445E-12	58.3730E-3	-21.3923E-3	7.66771E-12	80.1271E-3	-20.7019E-3
667.834E-6	7.48231E-12	68.5927E-3	-17.3548E-3	7.85810E-12	89.2317E-3	-19.1715E-3
662.831E-6	7.52588E-12	86.7515E-3	-15.6962E-3	7.83768E-12	93.7392E-3	-10.4846E-3
657.829E-6	7.50435E-12	87.0787E-3	-27.3796E-3	7.60600E-12	84.7882E-3	-4.37197E-3
652.826E-6	7.54460E-12	85.7375E-3	-34.5236E-3	7.63539E-12	84.7524E-3	-6.22380E-3
647.824E-6	7.44339E-12	87.7872E-3	-16.0049E-3	7.78602E-12	90.4032E-3	-30.8459E-3
642.821E-6	7.49492E-12	88.2935E-3	-11.4277E-3	7.72859E-12	85.7346E-3	-35.5921E-3
637.819E-6	7.49675E-12	103.238E-3	-25.9039E-3	7.70147E-12	85.0551E-3	-9.97947E-3
632.816E-6	7.53486E-12	108.204E-3	-27.2388E-3	7.65564E-12	93.4340E-3	-10.7798E-3
627.814E-6	7.47244E-12	88.7215E-3	-22.4150E-3	7.47748E-12	99.4525E-3	-23.4241E-3
622.811E-6	7.36209E-12	78.7032E-3	-18.9184E-3	7.49574E-12	100.799E-3	-10.0122E-3
617.809E-6	7.27490E-12	79.9246E-3	-13.6184E-3	7.44353E-12	102.720E-3	1.44493E-3
612.806E-6	7.22298E-12	81.4859E-3	-11.8024E-3	7.17342E-12	108.143E-3	-1.23835E-3
607.804E-6	7.26322E-12	95.1730E-3	-11.4765E-3	7.12907E-12	123.780E-3	-4.76868E-3
602.801E-6	7.13461E-12	111.362E-3	-9.73289E-3	7.17751E-12	139.484E-3	-17.7816E-3
597.799E-6	7.14145E-12	104.647E-3	-12.9837E-3	7.21934E-12	129.462E-3	-23.8785E-3
592.796E-6	7.02190E-12	97.5076E-3	-9.42392E-3	7.02862E-12	120.804E-3	-12.6103E-3
587.794E-6	6.94221E-12	113.089E-3	-4.62189E-3	6.86331E-12	137.372E-3	-10.4081E-3
582.791E-6	6.78547E-12	118.556E-3	-15.4488E-3	6.92804E-12	144.100E-3	-15.1192E-3
577.789E-6	6.73864E-12	104.538E-3	-22.9892E-3	7.07947E-12	136.024E-3	-13.4245E-3
572.786E-6	6.73543E-12	98.2772E-3	-17.9297E-3	7.04536E-12	131.980E-3	-12.6992E-3
567.784E-6	6.65370E-12	106.108E-3	-13.3955E-3	6.82273E-12	133.807E-3	-14.3681E-3
562.781E-6	6.62592E-12	116.718E-3	-9.63614E-3	6.94050E-12	154.693E-3	-10.2889E-3
557.779E-6	6.60150E-12	125.999E-3	-6.55811E-3	7.01303E-12	174.668E-3	-8.50347E-3
552.776E-6	6.73025E-12	129.019E-3	-13.0952E-3	6.93788E-12	160.280E-3	-21.9916E-3
547.774E-6	6.66976E-12	134.287E-3	-21.8925E-3	6.76343E-12	144.364E-3	-30.4230E-3
542.771E-6	6.54045E-12	142.691E-3	-18.5536E-3	6.70868E-12	147.206E-3	-28.6071E-3
537.769E-6	6.55656E-12	141.129E-3	-20.6829E-3	6.67798E-12	155.428E-3	-26.8346E-3
532.766E-6	6.61381E-12	146.896E-3	-35.0837E-3	6.60109E-12	172.869E-3	-18.1542E-3
527.764E-6	6.64775E-12	157.857E-3	-27.3767E-3	6.45141E-12	181.254E-3	-13.5120E-3
522.761E-6	6.49515E-12	154.588E-3	-12.1559E-3	6.25188E-12	171.995E-3	-8.90588E-3
517.759E-6	6.38497E-12	155.028E-3	-18.6108E-3	6.16311E-12	171.739E-3	-585.363E-6
512.756E-6	6.44113E-12	175.865E-3	-25.8837E-3	6.16465E-12	178.135E-3	-10.3179E-3
507.754E-6	6.36330E-12	190.609E-3	-26.7818E-3	6.22508E-12	177.747E-3	-25.9436E-3
502.751E-6	6.21307E-12	181.161E-3	-31.5978E-3	6.09860E-12	176.832E-3	-26.3202E-3
497.749E-6	6.13627E-12	170.855E-3	-22.0994E-3	6.05680E-12	175.441E-3	-29.2876E-3
492.746E-6	6.13384E-12	170.508E-3	-6.10615E-3	6.10247E-12	175.003E-3	-37.1889E-3
487.744E-6	6.03200E-12	177.538E-3	-9.67044E-3	6.18366E-12	183.987E-3	-33.4447E-3
482.741E-6	5.96995E-12	187.192E-3	-16.7238E-3	6.19739E-12	192.600E-3	-26.5876E-3
477.739E-6	5.87674E-12	181.167E-3	-19.4409E-3	6.10643E-12	191.996E-3	-14.5426E-3
472.736E-6	5.76333E-12	176.411E-3	-24.4771E-3	6.10023E-12	194.687E-3	3.76202E-3
467.734E-6	5.68332E-12	177.755E-3	-24.1334E-3	6.10719E-12	206.106E-3	-4.25664E-3
462.731E-6	5.64001E-12	174.926E-3	-19.5180E-3	6.03786E-12	211.427E-3	-34.1144E-3
457.729E-6	5.60405E-12	188.662E-3	-17.5520E-3	5.90395E-12	210.905E-3	-39.5684E-3
452.726E-6	5.60114E-12	209.543E-3	-6.10334E-3	5.69977E-12	214.306E-3	-29.2182E-3
447.724E-6	5.49043E-12	208.276E-3	1.29765E-3	5.65169E-12	211.898E-3	-21.3681E-3
442.721E-6	5.48533E-12	196.411E-3	-11.6904E-3	5.64043E-12	200.736E-3	-7.30743E-3
437.719E-6	5.53655E-12	198.795E-3	-14.3918E-3	5.49173E-12	195.500E-3	-9.24723E-3
432.716E-6	5.40279E-12	199.493E-3	-1.59349E-3	5.16907E-12	199.438E-3	-26.3217E-3
427.714E-6	5.22169E-12	196.835E-3	-6.95595E-3	5.01504E-12	211.481E-3	-23.5206E-3
422.711E-6	5.13488E-12	204.367E-3	-19.5820E-3	5.06579E-12	226.964E-3	-6.72654E-3
417.709E-6	5.16542E-12	214.209E-3	-6.39813E-3	5.03011E-12	218.081E-3	2.35413E-3
412.706E-6	5.05974E-12	221.775E-3	1.88184E-3	4.83066E-12	205.776E-3	3.40308E-3
407.704E-6	4.87764E-12	229.797E-3	-15.6463E-3	4.84769E-12	224.197E-3	-2.80755E-3
402.701E-6	4.85044E-12	227.770E-3	-32.0579E-3	4.83989E-12	240.043E-3	-15.9951E-3
397.699E-6	4.85785E-12	214.464E-3	-40.0992E-3	4.80751E-12	237.087E-3	-17.8523E-3
392.696E-6	4.72639E-12	217.217E-3	-37.8116E-3	4.74435E-12	237.895E-3	-10.7434E-3
387.694E-6	4.53765E-12	229.920E-3	-16.3277E-3	4.79516E-12	235.919E-3	-15.1650E-3
382.691E-6	4.46100E-12	228.597E-3	-10.0473E-3	4.62161E-12	229.208E-3	-13.3812E-3
377.689E-6	4.51886E-12	229.554E-3	-22.2495E-3	4.54955E-12	240.544E-3	-1.43207E-3
372.686E-6	4.45113E-12	231.253E-3	-22.5459E-3	4.51440E-12	244.056E-3	-1.47158E-3
367.684E-6	4.29000E-12	223.246E-3	-28.6210E-3	4.44552E-12	224.065E-3	-3.17088E-3
362.681E-6	4.20049E-12	221.336E-3	-32.1253E-3	4.26717E-12	216.540E-3	1.73649E-3
357.679E-6	4.24620E-12	220.530E-3	-15.4358E-3	4.16186E-12	221.626E-3	-4.78896E-3
352.676E-6	4.17354E-12	216.775E-3	-9.44865E-3	3.97770E-12	226.100E-3	-11.7268E-3
347.674E-6	3.96148E-12	228.548E-3	-25.3379E-3	3.99594E-12	234.232E-3	-11.7820E-3
342.671E-6	3.91055E-12	246.574E-3	-20.2965E-3	3.94057E-12	226.706E-3	-25.5153E-3
337.669E-6	3.89374E-12	247.234E-3	-1.55696E-3	3.68963E-12	209.466E-3	-28.4921E-3
332.666E-6	3.81055E-12	244.396E-3	1.05408E-3	3.67931E-12	215.251E-3	-21.3245E-3
327.664E-6	3.73859E-12	240.784E-3	7.19697E-3	3.71055E-12	228.937E-3	-25.7016E-3
322.661E-6	3.66948E-12	223.575E-3	452.192E-6	3.61589E-12	227.911E-3	-14.7634E-3
317.659E-6	3.60113E-12	218.016E-3	-22.7215E-3	3.39478E-12	229.239E-3	-5.42048E-3
312.656E-6	3.53189E-12	223.849E-3	-25.7580E-3	3.40820E-12	228.172E-3	-19.0486E-3
307.654E-6	3.44497E-12	220.156E-3	-16.1348E-3	3.51728E-12	222.457E-3	-20.5710E-3
302.651E-6	3.42023E-12	224.190E-3	-9.45839E-3	3.47482E-12	232.850E-3	-9.18951E-3
297.649E-6	3.27195E-12	231.285E-3	-9.73758E-3	3.37049E-12	236.830E-3	-9.52428E-3
292.646E-6	3.19085E-12	221.099E-3	-20.9358E-3	3.28324E-12	226.277E-3	-10.0490E-3
287.644E-6	3.20536E-12	215.836E-3	-24.6181E-3	3.24251E-12	220.341E-3	-10.1153E-3
282.641E-6	3.18749E-12	227.730E-3	-16.3437E-3	3.18056E-12	217.999E-3	-23.3598E-3
277.639E-6	2.99026E-12	232.592E-3	-10.4503E-3	3.04328E-12	217.619E-3	-29.8277E-3
272.636E-6	2.85345E-12	225.126E-3	-10.3839E-3	2.88589E-12	221.730E-3	-16.4851E-3
267.634E-6	2.86548E-12	215.900E-3	-11.7451E-3	2.83457E-12	220.677E-3	-3.28657E-3
262.631E-6	2.75933E-12	210.758E-3	-14.5866E-3	2.69574E-12	204.872E-3	1.89310E-3
257.629E-6	2.70610E-12	221.669E-3	-19.4657E-3	2.57414E-12	193.780E-3	-392.238E-6
252.626E-6	2.55460E-12	226.498E-3	-22.9521E-3	2.55533E-12	197.360E-3	-17.4080E-3
247.624E-6	2.49464E-12	212.701E-3	-27.9729E-3	2.42138E-12	197.019E-3	-23.4044E-3
242.621E-6	2.44399E-12	210.481E-3	-40.1473E-3	2.33277E-12	192.435E-3	-11.2316E-3
237.619E-6	2.40885E-12	213.953E-3	-39.1435E-3	2.36609E-12	188.377E-3	-13.1445E-3
232.616E-6	2.23343E-12	199.033E-3	-19.0779E-3	2.35203E-12	189.318E-3	-22.1196E-3
227.614E-6	2.17303E-12	188.600E-3	-9.49636E-3	2.18073E-12	199.258E-3	-22.7645E-3
222.611E-6	2.11710E-12	197.366E-3	-2.26629E-3	2.06493E-12	196.002E-3	-27.8231E-3
217.609E-6	2.03707E-12	203.419E-3	1.49940E-3	2.10250E-12	183.441E-3	-24.2119E-3
212.606E-6	1.97009E-12	202.333E-3	-14.4175E-3	2.13121E-12	194.658E-3	-10.9436E-3
207.604E-6	1.95237E-12	196.030E-3	-18.0024E-3	1.98042E-12	207.136E-3	-13.4232E-3
202.601E-6	1.98353E-12	185.391E-3	-7.92999E-3	1.84719E-12	197.187E-3	-17.8711E-3
197.599E-6	1.88483E-12	183.520E-3	-15.2467E-3	1.85391E-12	191.550E-3	-24.4177E-3
192.596E-6	1.77162E-12	192.446E-3	-26.6800E-3	1.90766E-12	194.850E-3	-38.9947E-3
187.594E-6	1.82123E-12	194.908E-3	-26.8474E-3	1.75585E-12	183.003E-3	-25.9358E-3
182.591E-6	1.71503E-12	188.569E-3	-23.6756E-3	1.57577E-12	163.687E-3	4.77107E-3
177.589E-6	1.60730E-12	188.117E-3	-17.0423E-3	1.54373E-12	154.488E-3	12.8532E-3
172.586E-6	1.58012E-12	181.289E-3	-13.1561E-3	1.58420E-12	146.794E-3	6.55869E-3
167.584E-6	1.56805E-12	168.407E-3	-22.0462E-3	1.51260E-12	150.239E-3	1.90215E-3
162.581E-6	1.49409E-12	165.533E-3	-22.7661E-3	1.35753E-12	160.210E-3	-9.87783E-3
157.579E-6	1.28016E-12	161.444E-3	-6.83825E-3	1.31876E-12	151.247E-3	-20.8696E-3
152.576E-6	1.25182E-12	155.788E-3	-4.86006E-3	1.24191E-12	142.672E-3	-18.1945E-3
147.574E-6	1.24279E-12	160.098E-3	-12.2918E-3	1.30674E-12	153.694E-3	-22.4278E-3
142.571E-6	1.17200E-12	164.996E-3	-9.01190E-3	1.20032E-12	161.905E-3	-30.8009E-3
137.569E-6	1.04997E-12	158.773E-3	-9.32832E-3	1.12497E-12	159.757E-3	-26.8104E-3
132.566E-6	1.00750E-12	146.183E-3	-15.1889E-3	1.08471E-12	162.327E-3	-22.4156E-3
127.564E-6	1.04843E-12	134.866E-3	-14.1284E-3	1.01758E-12	155.604E-3	-22.9945E-3
122.561E-6	1.01238E-12	131.475E-3	-12.8858E-3	1.01067E-12	138.991E-3	-21.7969E-3
117.559E-6	904.992E-15	141.685E-3	-10.5823E-3	973.073E-15	138.408E-3	-21.5429E-3
112.556E-6	820.084E-15	150.747E-3	-6.86374E-3	878.093E-15	144.551E-3	-20.0729E-3
107.554E-6	837.121E-15	145.195E-3	-9.39725E-3	763.574E-15	145.666E-3	-5.59444E-3
102.551E-6	811.748E-15	138.231E-3	-8.43352E-3	800.055E-15	145.705E-3	-3.17671E-3
97.5488E-6	713.045E-15	131.780E-3	-8.65837E-3	767.245E-15	136.642E-3	-22.6356E-3
92.5463E-6	728.496E-15	128.719E-3	-21.2965E-3	665.473E-15	130.014E-3	-27.0512E-3
87.5438E-6	670.844E-15	134.287E-3	-28.8207E-3	571.653E-15	137.264E-3	-20.4090E-3
82.5413E-6	645.427E-15	123.328E-3	-18.8330E-3	568.689E-15	140.876E-3	-26.6351E-3
77.5388E-6	539.906E-15	107.961E-3	-16.0724E-3	670.408E-15	134.285E-3	-30.4257E-3
72.5363E-6	495.002E-15	117.984E-3	-22.2574E-3	533.375E-15	125.734E-3	-27.0897E-3
67.5338E-6	449.426E-15	125.805E-3	-18.6140E-3	412.447E-15	118.029E-3	-21.8362E-3
62.5313E-6	439.399E-15	122.785E-3	-18.0706E-3	424.698E-15	120.131E-3	-2.87397E-3
57.5288E-6	342.362E-15	127.813E-3	-16.0122E-3	447.647E-15	131.005E-3	5.83493E-3
52.5263E-6	322.316E-15	131.320E-3	-3.88143E-3	385.234E-15	121.829E-3	-6.29575E-3
47.5238E-6	299.541E-15	129.311E-3	-9.75374E-3	247.469E-15	107.123E-3	-14.1904E-3
42.5213E-6	192.642E-15	133.215E-3	-21.3934E-3	251.559E-15	127.647E-3	-26.5595E-3
37.5188E-6	164.767E-15	138.110E-3	-13.6891E-3	234.059E-15	154.307E-3	-34.8380E-3
32.5163E-6	226.264E-15	136.234E-3	-9.54360E-3	207.570E-15	151.636E-3	-17.6692E-3
27.5138E-6	139.350E-15	142.118E-3	-12.5011E-3	93.9746E-15	146.761E-3	-10.9734E-3
22.5113E-6	-7.24785E-15	150.570E-3	-18.9910E-3	38.1274E-15	145.108E-3	-33.2362E-3
17.5088E-6	32.6691E-15	135.980E-3	-28.2196E-3	4.54065E-15	139.663E-3	-39.7651E-3
12.5063E-6	28.3444E-15	119.209E-3	-27.9843E-3	-57.0264E-15	142.497E-3	-23.5341E-3
7.50375E-6	-34.2428E-15	123.688E-3	-25.4088E-3	-82.3037E-15	134.938E-3	-17.4293E-3
2.50125E-6	-178.478E-15	125.829E-3	-24.0183E-3	-86.3494E-15	113.124E-3	-18.0080E-3
-2.50125E-6	-173.054E-15	122.042E-3	-15.0757E-3	-197.904E-15	116.308E-3	-16.9591E-3
-7.50375E-6	-178.792E-15	134.932E-3	-5.90306E-3	-230.140E-15	137.430E-3	-12.4257E-3
-12.5063E-6	-217.627E-15	149.691E-3	-14.2318E-3	-280.764E-15	146.172E-3	-3.94114E-3
-17.5088E-6	-270.562E-15	144.409E-3	-21.1257E-3	-270.231E-15	155.979E-3	-11.9465E-3
-22.5113E-6	-373.651E-15	133.154E-3	-6.02127E-3	-352.567E-15	154.384E-3	-31.6729E-3
-27.5138E-6	-368.428E-15	124.431E-3	-5.19383E-3	-465.849E-15	142.900E-3	-31.5188E-3
-32.5163E-6	-488.528E-15	123.950E-3	-27.4949E-3	-496.471E-15	157.255E-3	-22.0680E-3
-37.5188E-6	-487.350E-15	136.707E-3	-31.3019E-3	-475.335E-15	180.106E-3	-24.9331E-3
-42.5213E-6	-546.990E-15	146.267E-3	-17.0757E-3	-567.943E-15	180.846E-3	-21.7465E-3
-47.5238E-6	-608.636E-15	146.264E-3	-18.2112E-3	-726.634E-15	179.084E-3	-21.7973E-3
-52.5263E-6	-670.778E-15	150.268E-3	-28.1789E-3	-719.423E-15	185.405E-3	-34.5309E-3
-57.5288E-6	-695.541E-15	159.470E-3	-33.0626E-3	-690.754E-15	181.527E-3	-27.1417E-3
-62.5313E-6	-746.288E-15	168.463E-3	-38.3538E-3	-802.449E-15	183.720E-3	-16.6598E-3
-67.5338E-6	-838.468E-15	176.258E-3	-36.1691E-3	-938.880E-15	191.728E-3	-23.6768E-3
-72.5363E-6	-880.068E-15	170.273E-3	-24.1580E-3	-968.046E-15	184.673E-3	-14.4285E-3
-77.5388E-6	-950.546E-15	158.133E-3	-16.4400E-3	-906.775E-15	188.319E-3	4.07487E-3
-82.5413E-6	-968.804E-15	161.798E-3	-10.1522E-3	-970.156E-15	201.369E-3	-1.55436E-3
-87.5438E-6	-1.07092E-12	163.169E-3	-7.65111E-3	-1.09945E-12	189.782E-3	-12.3156E-3
-92.5463E-6	-1.21049E-12	158.218E-3	-16.0912E-3	-1.19561E-12	192.093E-3	-3.53374E-3
-97.5488E-6	-1.30316E-12	172.960E-3	-18.6935E-3	-1.19489E-12	224.092E-3	5.80838E-3
-102.551E-6	-1.25591E-12	195.751E-3	-15.0897E-3	-1.24859E-12	233.477E-3	2.30095E-3
-107.554E-6	-1.33707E-12	208.713E-3	-19.6773E-3	-1.30747E-12	233.483E-3	-11.7251E-3
-112.556E-6	-1.46581E-12	216.151E-3	-25.9745E-3	-1.44804E-12	249.808E-3	-37.3256E-3
-117.559E-6	-1.54743E-12	221.483E-3	-28.5897E-3	-1.52931E-12	260.219E-3	-41.7416E-3
-122.561E-6	-1.57620E-12	224.101E-3	-28.5476E-3	-1.60578E-12	258.201E-3	-22.0406E-3
-127.564E-6	-1.65360E-12	232.087E-3	-19.6187E-3	-1.71502E-12	255.221E-3	-26.6083E-3
-132.566E-6	-1.73176E-12	235.873E-3	-10.9291E-3	-1.76989E-12	260.865E-3	-35.2199E-3
-137.569E-6	-1.86921E-12	237.431E-3	-16.8021E-3	-1.92135E-12	284.488E-3	-23.2168E-3
-142.571E-6	-1.92162E-12	248.466E-3	-20.4082E-3	-2.06201E-12	308.589E-3	-22.9014E-3
-147.574E-6	-1.98612E-12	253.395E-3	-12.0142E-3	-2.11600E-12	306.126E-3	-23.5709E-3
-152.576E-6	-2.10724E-12	262.237E-3	-12.6897E-3	-2.15267E-12	304.323E-3	-2.37295E-3
-157.579E-6	-2.10592E-12	271.918E-3	-17.9682E-3	-2.28232E-12	319.424E-3	6.12714E-3
-162.581E-6	-2.21834E-12	260.538E-3	-13.9279E-3	-2.41559E-12	314.789E-3	-8.00390E-3
-167.584E-6	-2.32596E-12	247.875E-3	-10.3054E-3	-2.48093E-12	308.678E-3	-12.7752E-3
-172.586E-6	-2.51652E-12	262.392E-3	-10.4550E-3	-2.42519E-12	321.235E-3	-15.5258E-3
-177.589E-6	-2.62007E-12	283.481E-3	-10.6175E-3	-2.62103E-12	319.490E-3	-19.7153E-3
-182.591E-6	-2.70699E-12	290.863E-3	-12.1044E-3	-2.78502E-12	319.424E-3	-11.3011E-3
-187.594E-6	-2.74594E-12	302.492E-3	-13.3491E-3	-2.78687E-12	335.118E-3	-16.0093E-3
-192.596E-6	-2.78695E-12	310.385E-3	-16.6229E-3	-2.79164E-12	344.810E-3	-29.7990E-3
-197.599E-6	-2.97152E-12	303.085E-3	-30.6631E-3	-2.97601E-12	355.425E-3	-11.5880E-3
-202.601E-6	-3.09035E-12	296.985E-3	-37.5587E-3	-3.15581E-12	363.266E-3	8.10426E-3
-207.604E-6	-3.20961E-12	299.876E-3	-26.1398E-3	-3.25348E-12	354.606E-3	1.37171E-3
-212.606E-6	-3.36625E-12	303.307E-3	-27.8322E-3	-3.31493E-12	362.123E-3	-3.78836E-3
-217.609E-6	-3.42078E-12	317.183E-3	-38.8596E-3	-3.56245E-12	385.942E-3	-11.7614E-3
-222.611E-6	-3.63883E-12	346.101E-3	-26.3099E-3	-3.68355E-12	392.391E-3	-25.7863E-3
-227.614E-6	-3.89456E-12	364.597E-3	-14.4595E-3	-3.82022E-12	404.075E-3	-21.6013E-3
-232.616E-6	-3.98197E-12	371.344E-3	-27.2283E-3	-3.92283E-12	418.886E-3	-14.4613E-3
-237.619E-6	-3.97464E-12	382.321E-3	-36.9551E-3	-4.08427E-12	402.691E-3	-16.4878E-3
-242.621E-6	-4.18074E-12	386.644E-3	-36.2638E-3	-4.28096E-12	388.085E-3	-10.2354E-3
-247.624E-6	-4.35349E-12	383.088E-3	-29.6249E-3	-4.29716E-12	405.399E-3	-16.2743E-3
-252.626E-6	-4.35796E-12	385.628E-3	-16.9594E-3	-4.44140E-12	417.542E-3	-28.2480E-3
-257.629E-6	-4.44470E-12	393.184E-3	-17.8956E-3	-4.55867E-12	416.757E-3	-13.0885E-3
-262.631E-6	-4.55403E-12	401.482E-3	-34.5286E-3	-4.73262E-12	426.089E-3	-857.413E-6
-267.634E-6	-4.73206E-12	411.554E-3	-34.0718E-3	-4.87184E-12	432.053E-3	-15.3799E-3
-272.636E-6	-4.76485E-12	415.217E-3	-21.5272E-3	-5.03700E-12	426.407E-3	-21.6702E-3
-277.639E-6	-4.80132E-12	412.459E-3	-25.1107E-3	-5.14695E-12	437.089E-3	-18.3391E-3
-282.641E-6	-4.99015E-12	402.531E-3	-24.0887E-3	-5.20530E-12	449.868E-3	-27.2055E-3
-287.644E-6	-5.17948E-12	385.458E-3	-21.9121E-3	-5.28586E-12	444.571E-3	-21.1415E-3
-292.646E-6	-5.31793E-12	387.156E-3	-25.9183E-3	-5.66808E-12	450.312E-3	-12.4451E-3
-297.649E-6	-5.37870E-12	406.531E-3	-20.1794E-3	-5.80838E-12	456.489E-3	-27.3397E-3
-302.651E-6	-5.74121E-12	415.891E-3	-17.0765E-3	-5.82085E-12	460.479E-3	-23.7614E-3
-307.654E-6	-6.01642E-12	430.880E-3	-19.5758E-3	-5.89065E-12	480.786E-3	-2.08637E-3
-312.656E-6	-6.17416E-12	454.881E-3	-17.3991E-3	-6.20593E-12	479.915E-3	-468.305E-6
-317.659E-6	-6.29539E-12	455.385E-3	-8.32711E-3	-6.53069E-12	449.153E-3	-3.55877E-3
-322.661E-6	-6.60289E-12	442.861E-3	-1.94822E-3	-6.43790E-12	441.314E-3	-5.09666E-3
-327.664E-6	-6.74576E-12	449.589E-3	2.22538E-3	-6.41275E-12	452.365E-3	-13.9711E-3
-332.666E-6	-6.95866E-12	467.616E-3	-3.15451E-3	-6.58563E-12	448.636E-3	-12.8254E-3
-337.669E-6	-7.13021E-12	480.489E-3	-22.2833E-3	-6.96458E-12	454.767E-3	-4.54293E-3
-342.671E-6	-7.16779E-12	493.531E-3	-22.6843E-3	-6.99193E-12	470.036E-3	-11.5903E-3
-347.674E-6	-7.35604E-12	491.330E-3	-8.80722E-3	-6.91502E-12	471.396E-3	-14.3700E-3
-352.676E-6	-7.29277E-12	476.619E-3	-8.14757E-3	-7.10453E-12	480.028E-3	-5.57360E-3
-357.679E-6	-7.20555E-12	477.000E-3	-16.6005E-3	-7.44499E-12	484.398E-3	-13.8735E-3
-362.681E-6	-7.43214E-12	483.512E-3	-17.6867E-3	-7.66727E-12	467.741E-3	-19.3963E-3
-367.684E-6	-7.56029E-12	485.293E-3	-17.8020E-3	-7.79160E-12	459.515E-3	-10.0573E-3
-372.686E-6	-7.55044E-12	482.591E-3	-28.5863E-3	-7.98480E-12	463.841E-3	-25.3713E-3
-377.689E-6	-7.70652E-12	471.758E-3	-26.2313E-3	-8.16492E-12	461.430E-3	-39.0662E-3
-382.691E-6	-7.92851E-12	466.433E-3	-9.87342E-3	-8.39416E-12	463.655E-3	-24.3932E-3
-387.694E-6	-7.98653E-12	460.893E-3	-4.18056E-3	-8.63644E-12	464.822E-3	-21.4325E-3
-392.696E-6	-8.19015E-12	434.181E-3	-5.26009E-3	-8.81045E-12	443.707E-3	-25.0156E-3
-397.699E-6	-8.48196E-12	405.898E-3	-5.90644E-3	-8.94397E-12	435.284E-3	-13.3606E-3
-402.701E-6	-8.76558E-12	408.008E-3	-3.35700E-3	-9.15289E-12	444.529E-3	-17.5474E-3
-407.704E-6	-8.90244E-12	431.332E-3	-756.042E-6	-9.34372E-12	438.580E-3	-31.8056E-3
-412.706E-6	-9.38782E-12	452.229E-3	-6.25971E-3	-9.39682E-12	441.695E-3	-25.7683E-3
-417.709E-6	-9.67589E-12	466.204E-3	-3.25020E-3	-9.33393E-12	452.022E-3	-27.1773E-3
-422.711E-6	-9.69782E-12	464.466E-3	3.33946E-3	-9.37041E-12	426.226E-3	-28.7959E-3
-427.714E-6	-9.80708E-12	453.195E-3	-10.5015E-3	-9.51816E-12	406.329E-3	-8.71148E-3
-432.716E-6	-10.0901E-12	449.820E-3	-25.8502E-3	-9.67212E-12	432.275E-3	4.30185E-3
-437.719E-6	-10.2404E-12	448.038E-3	-27.2961E-3	-9.61971E-12	435.665E-3	7.75316E-3
-442.721E-6	-10.4427E-12	443.733E-3	-28.3270E-3	-9.69824E-12	407.746E-3	3.64377E-3
-447.724E-6	-10.3707E-12	448.957E-3	-29.3607E-3	-10.0801E-12	401.609E-3	-14.5070E-3
-452.726E-6	-10.3412E-12	448.689E-3	-20.5172E-3	-10.2511E-12	395.547E-3	-24.8077E-3
-457.729E-6	-10.4964E-12	432.773E-3	-12.2074E-3	-10.2897E-12	389.165E-3	-12.8663E-3
-462.731E-6	-10.6380E-12	425.010E-3	-10.2510E-3	-10.4513E-12	403.225E-3	-6.34122E-3
-467.734E-6	-10.6268E-12	426.260E-3	-3.43725E-3	-10.9999E-12	411.093E-3	-11.0822E-3
-472.736E-6	-10.5516E-12	421.412E-3	-9.95217E-3	-11.1600E-12	408.332E-3	214.347E-6
-477.739E-6	-10.6902E-12	411.285E-3	-18.2934E-3	-11.3034E-12	402.765E-3	-168.562E-6
-482.741E-6	-10.9713E-12	403.749E-3	-11.5053E-3	-11.3857E-12	390.910E-3	-17.5934E-3
-487.744E-6	-11.1905E-12	398.060E-3	-19.1113E-3	-11.6905E-12	388.303E-3	-13.6854E-3
-492.746E-6	-11.2963E-12	391.796E-3	-28.5884E-3	-11.7835E-12	393.912E-3	-14.2148E-3
-497.749E-6	-11.3621E-12	382.628E-3	-27.3419E-3	-11.6831E-12	369.672E-3	-26.4322E-3
-502.751E-6	-11.5477E-12	371.735E-3	-26.9627E-3	-11.7178E-12	334.946E-3	-20.7902E-3
-507.754E-6	-12.0578E-12	363.546E-3	-15.8991E-3	-11.7628E-12	335.053E-3	-17.1194E-3
-512.756E-6	-12.1195E-12	354.769E-3	1.15834E-3	-11.8940E-12	336.682E-3	-24.3866E-3
-517.759E-6	-12.1953E-12	347.698E-3	3.68532E-3	-11.7384E-12	326.876E-3	-21.6239E-3
-522.761E-6	-12.3969E-12	347.002E-3	-2.39879E-3	-11.7560E-12	323.427E-3	-19.8182E-3
-527.764E-6	-12.8319E-12	352.474E-3	-7.93947E-3	-11.8184E-12	315.935E-3	-29.8437E-3
-532.766E-6	-12.9408E-12	354.764E-3	-9.89581E-3	-11.9890E-12	309.481E-3	-34.8944E-3
-537.769E-6	-12.9003E-12	347.502E-3	-5.75942E-3	-12.0621E-12	311.130E-3	-31.1427E-3
-542.771E-6	-12.8455E-12	346.462E-3	-2.12406E-3	-12.2853E-12	294.940E-3	-20.0602E-3
-547.774E-6	-13.0650E-12	350.438E-3	-6.19027E-3	-12.4315E-12	274.844E-3	-5.10252E-3
-552.776E-6	-13.3869E-12	339.451E-3	-13.4914E-3	-12.5614E-12	278.349E-3	-3.16771E-3
-557.779E-6	-12.9667E-12	321.323E-3	-21.1912E-3	-12.8338E-12	276.014E-3	-23.2975E-3
-562.781E-6	-12.8065E-12	306.391E-3	-23.8942E-3	-12.9575E-12	265.884E-3	-35.2599E-3
-567.784E-6	-13.1780E-12	301.456E-3	-17.9909E-3	-13.3200E-12	274.155E-3	-28.6175E-3
-572.786E-6	-13.6086E-12	308.935E-3	-22.0930E-3	-13.6221E-12	276.605E-3	-27.9694E-3
-577.789E-6	-13.6534E-12	302.053E-3	-38.3365E-3	-13.6322E-12	258.706E-3	-25.1369E-3
-582.791E-6	-13.2358E-12	276.886E-3	-39.5559E-3	-13.8175E-12	253.946E-3	-20.3700E-3
-587.794E-6	-13.3410E-12	267.712E-3	-26.8423E-3	-14.0378E-12	253.497E-3	-28.1204E-3
-592.796E-6	-13.7079E-12	271.256E-3	-24.9257E-3	-13.7460E-12	244.357E-3	-27.3774E-3
-597.799E-6	-14.3305E-12	266.205E-3	-28.5934E-3	-13.5004E-12	237.250E-3	-19.4307E-3
-602.801E-6	-13.8036E-12	268.037E-3	-27.4729E-3	-13.6453E-12	219.561E-3	-27.4358E-3
-607.804E-6	-13.7413E-12	271.234E-3	-22.4275E-3	-13.8453E-12	203.913E-3	-28.0350E-3
-612.806E-6	-14.2300E-12	248.499E-3	-11.9750E-3	-13.4699E-12	212.148E-3	-21.6980E-3
-617.809E-6	-14.6416E-12	223.418E-3	-10.6093E-3	-13.6514E-12	227.652E-3	-32.7462E-3
-622.811E-6	-14.5951E-12	220.991E-3	-13.8243E-3	-13.8653E-12	221.917E-3	-32.9812E-3
-627.814E-6	-14.4029E-12	220.950E-3	-14.4757E-3	-13.7730E-12	214.969E-3	-18.8778E-3
-632.816E-6	-14.5352E-12	219.733E-3	-19.3893E-3	-13.8071E-12	211.710E-3	-19.2876E-3
-637.819E-6	-14.6369E-12	211.750E-3	-9.15183E-3	-14.0909E-12	193.688E-3	-17.2876E-3
-642.821E-6	-15.2181E-12	194.675E-3	5.33678E-3	-14.2164E-12	184.345E-3	-7.08408E-3
-647.824E-6	-15.1285E-12	190.311E-3	3.83428E-3	-14.4079E-12	174.325E-3	-22.0591E-3
-652.826E-6	-14.8843E-12	197.915E-3	-5.55798E-3	-14.5527E-12	154.745E-3	-33.1165E-3
-657.829E-6	-15.2345E-12	194.182E-3	-22.2399E-3	-14.7214E-12	162.910E-3	-18.9891E-3
-662.831E-6	-15.1996E-12	177.480E-3	-31.9948E-3	-14.8050E-12	181.061E-3	-26.9539E-3
-667.834E-6	-15.1731E-12	170.564E-3	-19.0263E-3	-15.0143E-12	177.001E-3	-42.8133E-3
-672.836E-6	-14.8484E-12	175.850E-3	-10.5541E-3	-15.1613E-12	172.784E-3	-29.3355E-3
-677.839E-6	-14.9189E-12	177.252E-3	-23.4800E-3	-15.0537E-12	164.373E-3	-18.3005E-3
-682.841E-6	-15.0228E-12	164.648E-3	-31.0206E-3	-15.0458E-12	135.197E-3	-14.6707E-3
-687.844E-6	-14.9207E-12	142.831E-3	-31.4184E-3	-15.1947E-12	111.227E-3	-4.81443E-3
-692.846E-6	-14.6207E-12	134.375E-3	-28.7522E-3	-15.1124E-12	111.385E-3	-11.5502E-3
-697.849E-6	-14.5252E-12	142.517E-3	-15.3867E-3	-14.9135E-12	112.245E-3	-19.8452E-3
-702.851E-6	-14.8480E-12	142.580E-3	-4.56798E-3	-14.8657E-12	108.483E-3	-15.4684E-3
-707.854E-6	-15.0616E-12	138.551E-3	385.141E-6	-14.7759E-12	111.042E-3	-25.7384E-3
-712.856E-6	-14.9415E-12	137.864E-3	-3.94632E-3	-14.8333E-12	107.124E-3	-38.1803E-3
-717.859E-6	-14.8084E-12	131.854E-3	-16.6681E-3	-14.8317E-12	105.165E-3	-34.8912E-3
-722.861E-6	-14.8508E-12	128.621E-3	-18.2618E-3	-14.8561E-12	114.286E-3	-33.7615E-3
-727.864E-6	-15.1991E-12	129.644E-3	-19.1334E-3	-14.9279E-12	114.673E-3	-27.7062E-3
-732.866E-6	-15.4875E-12	128.816E-3	-43.9436E-3	-15.1998E-12	108.203E-3	-15.2229E-3
-737.869E-6	-15.6335E-12	123.002E-3	-58.7657E-3	-15.2877E-12	106.457E-3	-19.3839E-3
-742.871E-6	-15.5277E-12	109.158E-3	-34.2309E-3	-15.3628E-12	100.472E-3	-25.3905E-3
-747.874E-6	-15.8512E-12	100.011E-3	-4.71730E-3	-15.3483E-12	105.266E-3	-11.7309E-3
-752.876E-6	-15.9018E-12	103.634E-3	-1.45328E-3	-15.4072E-12	120.762E-3	441.816E-6
-757.879E-6	-16.0256E-12	108.111E-3	-16.3692E-3	-15.7085E-12	114.804E-3	5.07092E-3
-762.881E-6	-15.8036E-12	110.072E-3	-28.0307E-3	-15.6312E-12	100.670E-3	7.62008E-3
-767.884E-6	-15.8666E-12	113.147E-3	-30.6843E-3	-15.5192E-12	98.8856E-3	-7.43935E-3
-772.886E-6	-15.6385E-12	118.138E-3	-19.7753E-3	-15.6043E-12	101.336E-3	-20.9957E-3
-777.889E-6	-15.7336E-12	117.747E-3	-3.19126E-3	-15.9298E-12	99.0470E-3	-13.1939E-3
-782.891E-6	-15.6135E-12	110.272E-3	-1.77127E-3	-15.7379E-12	85.8620E-3	-18.2973E-3
-787.894E-6	-15.5491E-12	93.2580E-3	-8.12428E-3	-15.3311E-12	66.0976E-3	-30.8394E-3
-792.896E-6	-15.1428E-12	69.8099E-3	-7.69440E-3	-15.3953E-12	64.2519E-3	-21.9503E-3
-797.899E-6	-15.1953E-12	65.1626E-3	-2.59482E-3	-15.7305E-12	86.9145E-3	-10.2920E-3
-802.901E-6	-15.3619E-12	78.7781E-3	695.679E-6	-15.7491E-12	98.8385E-3	-6.83228E-3
-807.904E-6	-15.3249E-12	87.0439E-3	-6.23894E-3	-15.4951E-12	92.5824E-3	1.09150E-3
-812.906E-6	-15.1776E-12	82.7204E-3	-14.7266E-3	-15.5231E-12	85.1829E-3	1.72163E-3
-817.909E-6	-15.2965E-12	78.9398E-3	-18.9085E-3	-15.9217E-12	72.6160E-3	-14.2588E-3
-822.911E-6	-15.3538E-12	78.3478E-3	-25.1223E-3	-16.1267E-12	71.3055E-3	-15.6906E-3
-827.914E-6	-15.6039E-12	77.9740E-3	-21.5946E-3	-15.7643E-12	85.6553E-3	-4.21872E-3
-832.916E-6	-15.8188E-12	92.6488E-3	-18.2866E-3	-15.8214E-12	87.5988E-3	-2.59444E-3
-837.919E-6	-16.0916E-12	111.871E-3	-18.5397E-3	-16.2908E-12	84.6684E-3	-4.31393E-3
-842.921E-6	-15.9908E-12	109.862E-3	-7.87367E-3	-16.4970E-12	96.8817E-3	-9.02829E-3
-847.924E-6	-16.2952E-12	101.396E-3	-4.53530E-3	-15.9477E-12	97.0470E-3	-16.4315E-3
-852.926E-6	-16.6934E-12	92.7862E-3	-1.83922E-3	-16.0226E-12	75.6245E-3	-13.6768E-3
-857.929E-6	-16.6570E-12	85.7973E-3	6.15322E-3	-16.3554E-12	73.2650E-3	-1.69751E-3
-862.931E-6	-16.5274E-12	99.5321E-3	-1.96992E-3	-16.4012E-12	82.6873E-3	1.66999E-3
-867.934E-6	-16.5720E-12	106.207E-3	-11.6841E-3	-16.3382E-12	76.8697E-3	-2.72818E-3
-872.936E-6	-16.6488E-12	84.5702E-3	-11.7172E-3	-16.0410E-12	79.3595E-3	-11.5353E-3
-877.939E-6	-16.4758E-12	67.6721E-3	-9.81057E-3	-16.0044E-12	97.2836E-3	-24.8677E-3
-882.941E-6	-16.3528E-12	69.4849E-3	-4.69985E-3	-16.2501E-12	119.371E-3	-14.9205E-3
-887.944E-6	-15.9767E-12	81.1796E-3	-8.68623E-3	-16.4491E-12	129.784E-3	306.911E-6
-892.946E-6	-16.0396E-12	94.3208E-3	-20.3180E-3	-16.4473E-12	111.575E-3	-13.8045E-3
-897.949E-6	-16.0398E-12	92.3595E-3	-25.7414E-3	-16.4212E-12	91.0941E-3	-27.1955E-3
-902.951E-6	-15.9505E-12	89.2692E-3	-19.8083E-3	-16.5870E-12	98.0541E-3	-25.2411E-3
-907.954E-6	-15.8398E-12	109.551E-3	-9.84692E-3	-16.5396E-12	108.518E-3	-24.8733E-3
-912.956E-6	-16.1630E-12	129.871E-3	-12.6013E-3	-16.7466E-12	108.533E-3	-16.9200E-3
-917.959E-6	-16.0951E-12	121.232E-3	-23.8041E-3	-16.7578E-12	116.403E-3	-4.61969E-3
-922.961E-6	-16.2039E-12	96.2739E-3	-30.6665E-3	-16.8064E-12	119.049E-3	-4.78285E-3
-927.964E-6	-16.4846E-12	86.9750E-3	-21.5530E-3	-17.0461E-12	104.223E-3	-5.90940E-3
-932.966E-6	-16.6098E-12	94.5199E-3	913.766E-6	-16.9916E-12	101.586E-3	-6.09254E-3
-937.969E-6	-16.9166E-12	107.914E-3	7.64095E-3	-16.9430E-12	117.598E-3	-9.02791E-3
-942.971E-6	-17.1341E-12	123.280E-3	-12.2902E-3	-16.9830E-12	126.016E-3	-5.12687E-3
-947.974E-6	-16.9927E-12	122.122E-3	-19.9460E-3	-16.8969E-12	124.017E-3	-748.317E-6
-952.976E-6	-17.1913E-12	112.098E-3	-4.98217E-3	-16.8303E-12	124.690E-3	-10.9716E-3
-957.979E-6	-17.4150E-12	112.040E-3	-2.92003E-3	-16.7281E-12	133.605E-3	-22.5908E-3
-962.981E-6	-17.3538E-12	111.157E-3	-10.5476E-3	-16.8925E-12	149.940E-3	-16.3385E-3
-967.984E-6	-17.1240E-12	116.270E-3	-22.3612E-3	-17.2645E-12	157.073E-3	-13.6511E-3
-972.986E-6	-17.4579E-12	127.718E-3	-35.1105E-3	-17.1219E-12	148.627E-3	-14.0281E-3
-977.989E-6	-17.4660E-12	135.309E-3	-23.0308E-3	-16.9666E-12	156.232E-3	-18.6821E-3
-982.991E-6	-17.2389E-12	143.864E-3	-4.19410E-3	-17.5955E-12	173.612E-3	-36.6456E-3
-987.994E-6	-17.0274E-12	152.062E-3	-11.7919E-3	-17.6837E-12	162.902E-3	-37.6521E-3
-992.997E-6	-16.8942E-12	156.885E-3	-25.3721E-3	-17.6496E-12	149.498E-3	-26.1868E-3
-997.999E-6	-16.9205E-12	153.085E-3	-26.4159E-3	-17.6803E-12	169.456E-3	-25.2462E-3
-1.00300E-3	-17.1975E-12	148.058E-3	-19.6385E-3	-17.8770E-12	196.621E-3	-23.3662E-3
-1.00800E-3	-17.0622E-12	165.722E-3	-12.3574E-3	-17.9540E-12	211.288E-3	-16.6055E-3
-1.01301E-3	-16.9974E-12	196.904E-3	-16.2272E-3	-18.2962E-12	214.227E-3	-18.0800E-3
-1.01801E-3	-17.0446E-12	207.560E-3	-15.3899E-3	-18.0263E-12	198.131E-3	-26.3773E-3
-1.02301E-3	-17.2945E-12	196.211E-3	-4.01298E-3	-17.7665E-12	187.390E-3	-25.8215E-3
-1.02801E-3	-17.5809E-12	190.048E-3	-3.08037E-3	-17.9704E-12	200.443E-3	-21.9559E-3
-1.03302E-3	-17.7085E-12	200.825E-3	-18.4287E-3	-17.9852E-12	210.841E-3	-18.7396E-3
-1.03802E-3	-17.4908E-12	204.768E-3	-37.3249E-3	-17.6091E-12	213.520E-3	-8.87754E-3
-1.04302E-3	-17.7595E-12	201.396E-3	-46.5150E-3	-17.5226E-12	215.702E-3	-9.45149E-3
-1.04802E-3	-18.2451E-12	209.665E-3	-38.6119E-3	-17.6696E-12	217.813E-3	-13.8608E-3
-1.05303E-3	-18.1819E-12	215.720E-3	-18.5705E-3	-17.6358E-12	238.494E-3	-12.2419E-3
-1.05803E-3	-18.0612E-12	215.621E-3	-12.7036E-3	-17.7511E-12	274.335E-3	-19.4822E-3
-1.06303E-3	-18.3146E-12	227.980E-3	-18.5936E-3	-17.7558E-12	291.123E-3	-21.4923E-3
-1.06803E-3	-18.5144E-12	245.242E-3	-19.9318E-3	-18.0542E-12	290.681E-3	-10.8489E-3
-1.07304E-3	-18.8164E-12	244.612E-3	-22.0266E-3	-18.4923E-12	294.925E-3	-4.48509E-3
-1.07804E-3	-18.7962E-12	240.239E-3	-23.4467E-3	-18.4685E-12	300.502E-3	-8.42828E-3
-1.08304E-3	-18.6988E-12	257.477E-3	-18.2543E-3	-18.3855E-12	309.949E-3	-7.78316E-3
-1.08804E-3	-18.7522E-12	284.412E-3	-9.28512E-3	-19.0156E-12	324.947E-3	2.18630E-3
-1.09305E-3	-19.0383E-12	295.279E-3	-11.7565E-3	-19.8498E-12	326.041E-3	894.514E-6
-1.09805E-3	-18.8058E-12	292.615E-3	-22.2764E-3	-19.4199E-12	325.478E-3	818.525E-6
-1.10305E-3	-18.6053E-12	288.833E-3	-22.4825E-3	-19.2765E-12	346.641E-3	5.04694E-3
-1.10805E-3	-19.0808E-12	288.045E-3	-16.7068E-3	-19.3776E-12	364.413E-3	-7.79349E-3
-1.11306E-3	-19.5402E-12	298.905E-3	-11.1414E-3	-19.8991E-12	375.788E-3	-17.0346E-3
-1.11806E-3	-19.4648E-12	318.049E-3	-9.32829E-3	-19.9992E-12	395.039E-3	-12.2976E-3
-1.12306E-3	-19.1343E-12	344.014E-3	-11.1242E-3	-19.6694E-12	398.623E-3	-13.0178E-3
-1.12806E-3	-19.3369E-12	368.057E-3	-12.1344E-3	-19.3621E-12	398.174E-3	-16.9399E-3
-1.13307E-3	-19.8351E-12	372.697E-3	-14.6981E-3	-19.5991E-12	416.592E-3	-22.1699E-3
-1.13807E-3	-20.1097E-12	373.157E-3	-10.8125E-3	-19.9793E-12	420.075E-3	-27.3656E-3
-1.14307E-3	-19.8069E-12	377.956E-3	-7.13883E-3	-19.7349E-12	413.981E-3	-17.8935E-3
-1.14807E-3	-20.0214E-12	383.793E-3	-12.4482E-3	-19.4108E-12	434.161E-3	-6.57410E-3
-1.15308E-3	-20.6273E-12	392.068E-3	-8.20927E-3	-19.6052E-12	451.223E-3	-12.5831E-3
-1.15808E-3	-20.7247E-12	401.844E-3	-2.55706E-3	-20.1849E-12	458.569E-3	-9.02415E-3
-1.16308E-3	-21.1316E-12	422.766E-3	-9.09770E-3	-20.3885E-12	485.478E-3	10.9550E-3
-1.16808E-3	-21.1120E-12	446.653E-3	-13.3329E-3	-20.4329E-12	519.737E-3	10.7666E-3
-1.17309E-3	-21.2332E-12	458.338E-3	-15.7885E-3	-20.4335E-12	535.549E-3	2.51321E-3
-1.17809E-3	-21.5300E-12	466.881E-3	-17.6036E-3	-21.2857E-12	543.655E-3	1.39059E-3
-1.18309E-3	-21.7385E-12	488.559E-3	-20.9191E-3	-22.0126E-12	556.545E-3	-6.20425E-3
-1.18809E-3	-21.6682E-12	523.116E-3	-26.9830E-3	-21.8153E-12	562.575E-3	-9.69543E-3
-1.19310E-3	-21.6961E-12	539.788E-3	-24.3076E-3	-21.6380E-12	570.605E-3	-16.2141E-3
-1.19810E-3	-21.7788E-12	541.283E-3	-21.9694E-3	-22.1434E-12	584.651E-3	-24.6877E-3
-1.20310E-3	-21.8858E-12	558.895E-3	-26.2197E-3	-22.7708E-12	600.359E-3	-14.5305E-3
-1.20810E-3	-21.9197E-12	566.527E-3	-23.7353E-3	-22.4917E-12	618.683E-3	-3.17954E-3
-1.21311E-3	-21.8953E-12	564.005E-3	-12.7362E-3	-22.6245E-12	636.689E-3	-15.5938E-3
-1.21811E-3	-21.9701E-12	580.264E-3	-6.71543E-3	-22.5273E-12	655.836E-3	-26.6725E-3
-1.22311E-3	-22.1729E-12	597.421E-3	-11.0254E-3	-23.2068E-12	670.360E-3	-18.3383E-3
-1.22811E-3	-22.4086E-12	605.028E-3	-20.6211E-3	-23.3513E-12	671.893E-3	-11.9158E-3
-1.23312E-3	-22.7604E-12	610.891E-3	-35.4671E-3	-23.1391E-12	677.551E-3	-14.6464E-3
-1.23812E-3	-22.9489E-12	619.348E-3	-44.6367E-3	-22.9428E-12	713.406E-3	-22.7267E-3
-1.24312E-3	-23.3543E-12	633.088E-3	-35.6887E-3	-23.4174E-12	745.516E-3	-27.4562E-3
-1.24812E-3	-23.6533E-12	656.094E-3	-27.5111E-3	-24.0387E-12	749.197E-3	-15.5149E-3
-1.25313E-3	-24.0782E-12	677.350E-3	-37.7711E-3	-24.1125E-12	761.244E-3	-3.37833E-3
-1.25813E-3	-24.4192E-12	698.974E-3	-38.0110E-3	-24.2682E-12	777.939E-3	-7.57480E-3
-1.26313E-3	-25.0723E-12	727.896E-3	-15.2644E-3	-24.6544E-12	791.274E-3	-12.6182E-3
-1.26813E-3	-25.4477E-12	749.945E-3	2.84063E-3	-25.0259E-12	811.555E-3	-16.7892E-3
-1.27314E-3	-25.4770E-12	772.387E-3	5.96743E-3	-25.4932E-12	823.757E-3	-23.8702E-3
-1.27814E-3	-26.1024E-12	792.233E-3	-3.78060E-3	-26.1112E-12	828.268E-3	-18.1197E-3
-1.28314E-3	-26.6252E-12	795.792E-3	-10.6129E-3	-26.0835E-12	849.300E-3	520.011E-6
-1.28814E-3	-27.3218E-12	812.444E-3	-14.8329E-3	-26.0463E-12	877.783E-3	1.84714E-3
-1.29315E-3	-27.1925E-12	846.984E-3	-18.1552E-3	-26.2846E-12	893.659E-3	-12.1761E-3
-1.29815E-3	-26.8965E-12	870.691E-3	-8.92345E-3	-26.8200E-12	907.775E-3	-15.1628E-3
-1.30315E-3	-26.9992E-12	884.390E-3	-5.17848E-3	-26.9005E-12	919.921E-3	-5.11344E-3
-1.30815E-3	-27.4739E-12	896.392E-3	-5.14871E-3	-26.8711E-12	928.623E-3	11.5113E-3
-1.31316E-3	-27.5123E-12	905.346E-3	-629.438E-6	-27.2135E-12	937.824E-3	2.97291E-3
-1.31816E-3	-27.3583E-12	915.557E-3	-5.65605E-3	-27.5106E-12	951.247E-3	-21.2150E-3
-1.32316E-3	-27.8966E-12	924.273E-3	-6.52389E-3	-27.8466E-12	972.206E-3	-21.8002E-3
-1.32816E-3	-27.8437E-12	925.942E-3	-387.338E-6	-27.9039E-12	988.634E-3	-13.8532E-3
-1.33317E-3	-28.1334E-12	937.131E-3	-9.91221E-3	-28.2323E-12	1.00135E+0	-21.7391E-3
-1.33817E-3	-28.5065E-12	957.786E-3	-27.4412E-3	-28.6706E-12	1.00837E+0	-38.0717E-3
-1.34317E-3	-29.0991E-12	961.707E-3	-35.6562E-3	-29.1740E-12	1.01450E+0	-46.4792E-3
-1.34817E-3	-29.3572E-12	963.703E-3	-30.1154E-3	-29.3095E-12	1.03187E+0	-44.5690E-3
-1.35318E-3	-29.9758E-12	982.403E-3	-19.2942E-3	-29.5158E-12	1.04136E+0	-36.1069E-3
-1.35818E-3	-30.8087E-12	1.00644E+0	-12.9526E-3	-30.3404E-12	1.04947E+0	-28.6519E-3
-1.36318E-3	-31.1280E-12	1.02305E+0	-13.4954E-3	-30.7792E-12	1.06957E+0	-25.2781E-3
-1.36818E-3	-31.8051E-12	1.03041E+0	-18.8685E-3	-30.9900E-12	1.08258E+0	-24.1893E-3
-1.37319E-3	-32.3297E-12	1.05264E+0	-20.9241E-3	-30.9805E-12	1.09279E+0	-9.94805E-3
-1.37819E-3	-33.4338E-12	1.07942E+0	-25.3151E-3	-31.4140E-12	1.10638E+0	4.69555E-3
-1.38319E-3	-33.3231E-12	1.08457E+0	-31.8582E-3	-31.5967E-12	1.10213E+0	1.82581E-3
-1.38819E-3	-33.8247E-12	1.09099E+0	-30.7568E-3	-31.7841E-12	1.07902E+0	-2.60134E-3
-1.39320E-3	-34.1578E-12	1.10262E+0	-28.4355E-3	-31.9921E-12	1.07447E+0	-7.35962E-3
-1.39820E-3	-34.5000E-12	1.11524E+0	-32.6755E-3	-32.3241E-12	1.09236E+0	-11.9583E-3
-1.40320E-3	-34.8100E-12	1.13436E+0	-27.0562E-3	-32.7697E-12	1.11471E+0	-13.9572E-3
-1.40820E-3	-34.3595E-12	1.14480E+0	-10.6959E-3	-33.3281E-12	1.14037E+0	-24.4930E-3
-1.41321E-3	-34.7781E-12	1.13665E+0	-11.5946E-3	-33.6278E-12	1.14970E+0	-39.3875E-3
-1.41821E-3	-34.3821E-12	1.12915E+0	-16.1733E-3	-34.3653E-12	1.14174E+0	-38.3757E-3
-1.42321E-3	-34.5625E-12	1.12920E+0	-6.05360E-3	-34.9229E-12	1.14666E+0	-25.9183E-3
-1.42821E-3	-34.5711E-12	1.13222E+0	-1.44287E-3	-35.4213E-12	1.16769E+0	-11.9817E-3
-1.43322E-3	-35.5817E-12	1.13885E+0	3.03651E-3	-36.0561E-12	1.18320E+0	-3.81378E-3
-1.43822E-3	-35.9049E-12	1.13660E+0	7.48235E-3	-36.8619E-12	1.18964E+0	-12.4955E-3
-1.44322E-3	-35.8103E-12	1.13087E+0	-3.77550E-3	-37.0003E-12	1.19324E+0	-22.9106E-3
-1.44822E-3	-36.1112E-12	1.13444E+0	-17.5552E-3	-37.3514E-12	1.19819E+0	-24.9423E-3
-1.45323E-3	-36.7616E-12	1.13455E+0	-21.6232E-3	-37.5547E-12	1.19460E+0	-22.5888E-3
-1.45823E-3	-38.2448E-12	1.13187E+0	-26.5052E-3	-38.1746E-12	1.17199E+0	-26.7560E-3
-1.46323E-3	-38.5082E-12	1.15137E+0	-24.0271E-3	-38.4071E-12	1.15171E+0	-33.3020E-3
-1.46823E-3	-39.0640E-12	1.17152E+0	-8.53015E-3	-38.2796E-12	1.15519E+0	-27.4023E-3
-1.47324E-3	-39.7332E-12	1.18022E+0	-3.88171E-3	-38.3813E-12	1.16664E+0	-14.2861E-3
-1.47824E-3	-41.2436E-12	1.20036E+0	-5.14874E-3	-38.7818E-12	1.16364E+0	-10.0644E-3
-1.48324E-3	-41.4519E-12	1.21070E+0	-13.5485E-3	-39.1815E-12	1.15990E+0	-17.2618E-3
-1.48824E-3	-41.1510E-12	1.21170E+0	-32.4756E-3	-39.3590E-12	1.16383E+0	-10.6176E-3
-1.49325E-3	-41.7854E-12	1.22577E+0	-30.3391E-3	-39.5275E-12	1.16874E+0	2.66418E-3
-1.49825E-3	-42.8177E-12	1.23202E+0	-15.8588E-3	-40.0852E-12	1.17775E+0	-3.47488E-3
-1.50325E-3	-43.1813E-12	1.23310E+0	-15.2882E-3	-40.6835E-12	1.17927E+0	-17.5351E-3
-1.50825E-3	-42.4897E-12	1.24965E+0	-17.2000E-3	-41.6311E-12	1.17697E+0	-21.6125E-3
-1.51326E-3	-42.5174E-12	1.24869E+0	-16.8286E-3	-41.9734E-12	1.18499E+0	-19.0962E-3
-1.51826E-3	-42.8011E-12	1.21587E+0	-20.9026E-3	-42.5918E-12	1.18540E+0	-26.3140E-3
-1.52326E-3	-43.6996E-12	1.19575E+0	-25.0687E-3	-43.5247E-12	1.18038E+0	-33.9410E-3
-1.52826E-3	-43.0015E-12	1.19142E+0	-17.1221E-3	-44.6896E-12	1.18280E+0	-26.9687E-3
-1.53327E-3	-42.8656E-12	1.17746E+0	-7.32702E-3	-44.6129E-12	1.18127E+0	-21.1219E-3
-1.53827E-3	-43.0596E-12	1.16213E+0	-13.9532E-3	-44.7283E-12	1.17987E+0	-19.4404E-3
-1.54327E-3	-43.9658E-12	1.14738E+0	-22.8339E-3	-45.0514E-12	1.17421E+0	-23.0450E-3
-1.54827E-3	-44.5860E-12	1.12706E+0	-14.1510E-3	-45.5165E-12	1.15560E+0	-29.7130E-3
-1.55328E-3	-44.3405E-12	1.12468E+0	-1.61276E-3	-45.4406E-12	1.13598E+0	-18.6797E-3
-1.55828E-3	-44.7338E-12	1.14564E+0	6.97312E-3	-45.1900E-12	1.12809E+0	-9.88914E-3
-1.56328E-3	-45.6961E-12	1.15329E+0	10.2517E-3	-45.2032E-12	1.11811E+0	-15.9449E-3
-1.56828E-3	-47.2486E-12	1.14802E+0	-2.90183E-3	-45.5391E-12	1.10724E+0	-15.7668E-3
-1.57329E-3	-47.7340E-12	1.16390E+0	-22.1229E-3	-45.8631E-12	1.11622E+0	-9.55773E-3
-1.57829E-3	-47.3045E-12	1.17666E+0	-31.9589E-3	-46.0864E-12	1.11712E+0	-15.9242E-3
-1.58329E-3	-47.6590E-12	1.15804E+0	-30.6129E-3	-46.4362E-12	1.10317E+0	-34.4186E-3
-1.58829E-3	-48.5561E-12	1.13609E+0	-21.0895E-3	-46.4942E-12	1.11223E+0	-38.4600E-3
-1.59330E-3	-50.1607E-12	1.13023E+0	-13.7184E-3	-47.0955E-12	1.12605E+0	-27.4679E-3
-1.59830E-3	-49.9016E-12	1.13254E+0	-9.86228E-3	-48.0517E-12	1.11466E+0	-29.4352E-3
-1.60330E-3	-49.5118E-12	1.14277E+0	-7.72370E-3	-49.0629E-12	1.11214E+0	-34.8117E-3
-1.60830E-3	-49.5349E-12	1.14293E+0	-9.67190E-3	-49.7902E-12	1.12948E+0	-23.7506E-3
-1.61331E-3	-50.0023E-12	1.13466E+0	-3.17588E-3	-50.3801E-12	1.13200E+0	-10.3447E-3
-1.61831E-3	-50.7702E-12	1.13464E+0	3.50964E-3	-50.9854E-12	1.11796E+0	-8.41790E-3
-1.62331E-3	-50.3399E-12	1.12681E+0	978.586E-6	-51.6645E-12	1.09853E+0	-10.0311E-3
-1.62831E-3	-50.3001E-12	1.11848E+0	-908.639E-6	-51.7596E-12	1.08472E+0	-8.82023E-3
-1.63332E-3	-50.1969E-12	1.10518E+0	761.779E-6	-51.9330E-12	1.08679E+0	-24.3054E-3
-1.63832E-3	-50.8439E-12	1.07649E+0	584.516E-6	-51.5169E-12	1.07872E+0	-45.4258E-3
-1.64332E-3	-50.9515E-12	1.05791E+0	-13.4602E-3	-52.1476E-12	1.05349E+0	-34.1703E-3
-1.64832E-3	-50.7794E-12	1.06168E+0	-27.3145E-3	-52.4154E-12	1.03460E+0	-6.21416E-3
-1.65333E-3	-51.1036E-12	1.05908E+0	-19.4285E-3	-51.9968E-12	1.02705E+0	-893.128E-6
-1.65833E-3	-51.9249E-12	1.03947E+0	-4.72492E-3	-51.6388E-12	1.01989E+0	-15.6417E-3
-1.66333E-3	-52.7517E-12	1.03117E+0	-2.87992E-3	-51.9222E-12	1.01194E+0	-17.1501E-3
-1.66833E-3	-53.0249E-12	1.03293E+0	-10.1668E-3	-52.3205E-12	1.00224E+0	-10.2381E-3
-1.67334E-3	-53.3997E-12	1.02747E+0	-13.6945E-3	-52.5498E-12	998.329E-3	-7.59991E-3
-1.67834E-3	-54.0113E-12	1.02358E+0	-9.97735E-3	-52.9620E-12	1.01577E+0	-8.15239E-3
-1.68334E-3	-54.8584E-12	1.03005E+0	-10.5648E-3	-53.5890E-12	1.02402E+0	-26.4329E-3
-1.68834E-3	-55.8384E-12	1.04307E+0	-13.3542E-3	-54.5401E-12	1.01075E+0	-30.3788E-3
-1.69335E-3	-56.1207E-12	1.04520E+0	-4.08617E-3	-55.4894E-12	1.01458E+0	-2.81285E-3
-1.69835E-3	-56.7424E-12	1.03422E+0	3.11202E-3	-55.8418E-12	1.02708E+0	3.72580E-3
-1.70335E-3	-57.3924E-12	1.03317E+0	-3.61288E-3	-56.5621E-12	1.01358E+0	-4.72414E-3
-1.70835E-3	-58.1872E-12	1.03715E+0	-12.5366E-3	-56.8662E-12	995.051E-3	3.50698E-3
-1.71336E-3	-58.4468E-12	1.03814E+0	-7.28428E-3	-57.4619E-12	998.330E-3	-2.69570E-3
-1.71836E-3	-58.3131E-12	1.03667E+0	-3.03405E-3	-57.9614E-12	997.825E-3	-14.6089E-3
-1.72336E-3	-58.0382E-12	1.02686E+0	-8.73138E-3	-57.9730E-12	994.144E-3	-2.54965E-3
-1.72836E-3	-58.1423E-12	1.01645E+0	-4.48995E-3	-58.2095E-12	992.144E-3	5.09153E-3
-1.73337E-3	-58.2834E-12	1.01251E+0	4.50624E-3	-58.4467E-12	974.542E-3	-8.59867E-3
-1.73837E-3	-57.3492E-12	1.00692E+0	8.84166E-3	-58.7156E-12	956.451E-3	-17.0533E-3
-1.74337E-3	-57.0358E-12	999.301E-3	768.755E-6	-58.3893E-12	945.049E-3	-8.75126E-3
-1.74837E-3	-57.5295E-12	980.502E-3	-18.9778E-3	-58.2639E-12	935.897E-3	-4.38151E-3
-1.75338E-3	-57.6615E-12	947.170E-3	-34.4082E-3	-58.6389E-12	942.190E-3	-6.54370E-3
-1.75838E-3	-57.8051E-12	933.592E-3	-27.4259E-3	-59.2588E-12	953.120E-3	-9.88601E-3
-1.76338E-3	-58.1731E-12	946.182E-3	-8.35863E-3	-59.6219E-12	950.345E-3	-17.7210E-3
-1.76838E-3	-59.4289E-12	953.671E-3	-10.3094E-3	-59.5004E-12	939.775E-3	-8.46378E-3
-1.77339E-3	-59.5390E-12	933.492E-3	-18.7045E-3	-60.3300E-12	930.618E-3	-1.84587E-3
-1.77839E-3	-59.4100E-12	918.242E-3	-17.0046E-3	-60.6975E-12	923.802E-3	-12.3948E-3
-1.78339E-3	-60.4517E-12	930.186E-3	-18.4445E-3	-61.1040E-12	922.824E-3	-11.8953E-3
-1.78839E-3	-62.1105E-12	936.678E-3	-23.0515E-3	-61.7065E-12	926.189E-3	-13.5695E-3
-1.79340E-3	-62.7791E-12	935.501E-3	-21.4251E-3	-62.3544E-12	918.067E-3	-22.7760E-3
-1.79840E-3	-62.7214E-12	949.819E-3	-3.81625E-3	-62.7653E-12	912.490E-3	-23.4280E-3
-1.80340E-3	-63.0783E-12	954.758E-3	6.84410E-3	-62.4543E-12	908.942E-3	-21.9375E-3
-1.80840E-3	-64.0176E-12	938.629E-3	-5.37864E-3	-62.6513E-12	895.598E-3	-30.6594E-3
-1.81341E-3	-64.7677E-12	937.233E-3	-21.3035E-3	-62.9695E-12	891.569E-3	-34.6764E-3
-1.81841E-3	-64.1731E-12	940.108E-3	-39.5594E-3	-63.3965E-12	891.509E-3	-24.1065E-3
-1.82341E-3	-64.0956E-12	931.614E-3	-47.1975E-3	-63.0674E-12	889.363E-3	-18.6177E-3
-1.82841E-3	-63.6868E-12	925.549E-3	-36.7811E-3	-63.1733E-12	896.089E-3	-24.3424E-3
-1.83342E-3	-64.0208E-12	919.866E-3	-30.4336E-3	-63.2523E-12	899.796E-3	-29.8487E-3
-1.83842E-3	-64.2439E-12	905.141E-3	-22.5553E-3	-63.9372E-12	889.964E-3	-32.0507E-3
-1.84342E-3	-63.9512E-12	898.307E-3	-12.7673E-3	-64.2330E-12	882.898E-3	-18.0112E-3
-1.84842E-3	-63.3467E-12	903.220E-3	-11.1955E-3	-64.8160E-12	889.345E-3	-5.77538E-3
-1.85343E-3	-63.3002E-12	894.767E-3	-2.49051E-3	-64.9392E-12	898.204E-3	-3.00801E-3
-1.85843E-3	-63.9393E-12	884.293E-3	4.78207E-3	-65.6171E-12	904.043E-3	12.8318E-3
-1.86343E-3	-64.0306E-12	884.650E-3	-1.01927E-3	-66.2431E-12	901.897E-3	12.8095E-3
-1.86843E-3	-63.7805E-12	871.778E-3	-4.39454E-3	-66.8528E-12	882.741E-3	-7.44735E-3
-1.87344E-3	-64.2363E-12	857.043E-3	-7.28526E-3	-67.2198E-12	866.015E-3	-13.6064E-3
-1.87844E-3	-65.5231E-12	857.217E-3	-3.10767E-3	-67.1623E-12	861.424E-3	-15.8323E-3
-1.88344E-3	-66.8724E-12	850.107E-3	12.1145E-3	-67.1995E-12	848.478E-3	-23.8489E-3
-1.88844E-3	-67.2920E-12	842.571E-3	7.08069E-3	-67.8550E-12	831.565E-3	-12.0899E-3
-1.89345E-3	-68.1538E-12	851.850E-3	-16.5640E-3	-67.8972E-12	830.230E-3	1.14935E-3
-1.89845E-3	-68.8363E-12	872.003E-3	-30.0646E-3	-67.5783E-12	836.690E-3	-13.5337E-3
-1.90345E-3	-70.4796E-12	876.491E-3	-29.0942E-3	-66.8921E-12	833.395E-3	-31.9754E-3
-1.90845E-3	-71.0739E-12	867.209E-3	-23.0559E-3	-67.0403E-12	826.094E-3	-35.4759E-3
-1.91346E-3	-70.8019E-12	875.466E-3	-14.0870E-3	-67.5938E-12	818.102E-3	-37.7086E-3
-1.91846E-3	-70.4687E-12	885.928E-3	-4.16554E-3	-67.6242E-12	810.717E-3	-43.3481E-3
-1.92346E-3	-70.9497E-12	883.861E-3	-6.32653E-3	-67.6062E-12	827.490E-3	-37.3322E-3
-1.92846E-3	-70.7638E-12	871.148E-3	-11.1284E-3	-67.9014E-12	858.048E-3	-20.3049E-3
-1.93347E-3	-70.3987E-12	862.150E-3	-4.23268E-3	-69.0633E-12	867.920E-3	-9.30327E-3
-1.93847E-3	-70.3848E-12	859.688E-3	4.59029E-3	-70.0226E-12	866.296E-3	-12.4832E-3
-1.94347E-3	-70.1078E-12	854.558E-3	10.1489E-3	-70.6181E-12	864.727E-3	-14.8319E-3
-1.94847E-3	-70.0759E-12	854.466E-3	-3.04238E-3	-71.2792E-12	847.095E-3	-9.21885E-3
-1.95348E-3	-69.6841E-12	844.540E-3	-32.5976E-3	-72.3560E-12	823.427E-3	-8.70132E-3
-1.95848E-3	-69.8063E-12	822.133E-3	-35.6864E-3	-73.2145E-12	818.101E-3	-15.0915E-3
-1.96348E-3	-70.4768E-12	813.052E-3	-7.88401E-3	-73.5070E-12	823.495E-3	-10.1458E-3
-1.96848E-3	-70.4514E-12	822.116E-3	5.27198E-3	-73.5257E-12	831.509E-3	1.15886E-3
-1.97349E-3	-70.7356E-12	836.035E-3	-3.02570E-3	-73.4876E-12	826.288E-3	-3.51039E-3
-1.97849E-3	-70.9630E-12	838.685E-3	-12.2857E-3	-74.0177E-12	810.031E-3	-7.57102E-3
-1.98349E-3	-71.9647E-12	836.438E-3	-18.0168E-3	-73.4621E-12	803.793E-3	-4.46500E-3
-1.98849E-3	-72.5454E-12	823.829E-3	-13.5953E-3	-72.7703E-12	790.297E-3	-6.84427E-3
-1.99350E-3	-73.5857E-12	801.498E-3	-11.0521E-3	-72.5703E-12	772.949E-3	-5.43463E-3
-1.99850E-3	-74.4724E-12	807.895E-3	-19.4365E-3	-72.2541E-12	784.164E-3	-10.6681E-3
-2.00350E-3	-75.2216E-12	825.373E-3	-23.3992E-3	-72.1714E-12	808.192E-3	-30.4944E-3
-2.00850E-3	-75.9976E-12	823.259E-3	-22.3453E-3	-72.6191E-12	804.628E-3	-21.5387E-3
-2.01351E-3	-76.1633E-12	816.636E-3	-18.7619E-3	-72.9401E-12	797.126E-3	4.20201E-3
-2.01851E-3	-76.4252E-12	823.965E-3	-4.16831E-3	-72.7857E-12	812.064E-3	-4.96271E-3
-2.02351E-3	-76.4713E-12	825.893E-3	-6.18854E-3	-73.8791E-12	826.433E-3	-25.8757E-3
-2.02851E-3	-77.4702E-12	821.815E-3	-28.3853E-3	-74.2443E-12	840.790E-3	-31.1986E-3
-2.03352E-3	-77.3877E-12	830.810E-3	-33.3880E-3	-76.0350E-12	847.536E-3	-38.0912E-3
-2.03852E-3	-76.7138E-12	833.296E-3	-24.3411E-3	-76.4362E-12	832.125E-3	-34.5802E-3
-2.04352E-3	-76.1219E-12	824.588E-3	-17.7223E-3	-77.4646E-12	829.670E-3	-20.3781E-3
-2.04852E-3	-76.3555E-12	807.589E-3	-9.99768E-3	-78.0881E-12	843.432E-3	-26.7751E-3
-2.05353E-3	-76.6292E-12	789.443E-3	-4.56379E-3	-78.9488E-12	831.298E-3	-32.3591E-3
-2.05853E-3	-76.3512E-12	781.751E-3	-6.37237E-3	-79.1952E-12	808.718E-3	-19.5540E-3
-2.06353E-3	-75.4642E-12	775.870E-3	-13.3288E-3	-78.6286E-12	794.472E-3	-15.1012E-3
-2.06853E-3	-75.9442E-12	781.170E-3	-20.6920E-3	-79.0422E-12	776.391E-3	-16.7152E-3
-2.07354E-3	-76.8849E-12	792.037E-3	-20.0864E-3	-78.1111E-12	768.017E-3	-7.87450E-3
-2.07854E-3	-77.0395E-12	792.924E-3	-18.2595E-3	-78.2047E-12	772.992E-3	-5.33175E-3
-2.08354E-3	-76.7095E-12	793.641E-3	-9.45484E-3	-77.3976E-12	775.691E-3	-10.0808E-3
-2.08854E-3	-77.5600E-12	786.600E-3	13.2905E-3	-77.4055E-12	772.331E-3	-2.23514E-3
-2.09355E-3	-79.0495E-12	776.995E-3	21.2603E-3	-77.1442E-12	777.130E-3	4.38724E-3
-2.09855E-3	-79.6598E-12	781.599E-3	11.2782E-3	-77.5202E-12	790.342E-3	2.45916E-3
-2.10355E-3	-80.1780E-12	795.527E-3	1.23119E-3	-78.0800E-12	803.715E-3	4.05191E-3
-2.10855E-3	-80.5801E-12	796.008E-3	-10.5156E-3	-78.5041E-12	809.703E-3	1.08954E-3
-2.11356E-3	-82.0213E-12	791.791E-3	-22.2099E-3	-79.3165E-12	793.754E-3	3.57181E-3
-2.11856E-3	-82.4576E-12	799.148E-3	-29.8809E-3	-79.8344E-12	784.065E-3	14.0296E-3
-2.12356E-3	-82.9738E-12	797.921E-3	-26.9317E-3	-81.0816E-12	799.507E-3	-2.67107E-3
-2.12856E-3	-82.3058E-12	803.513E-3	-16.4172E-3	-82.4325E-12	803.620E-3	-26.6953E-3
-2.13357E-3	-82.4970E-12	819.480E-3	-18.2925E-3	-83.0958E-12	800.130E-3	-27.6305E-3
-2.13857E-3	-83.0163E-12	813.701E-3	-27.9883E-3	-82.6683E-12	808.336E-3	-25.1350E-3
-2.14357E-3	-82.8583E-12	791.782E-3	-31.5735E-3	-83.1343E-12	794.602E-3	-20.9109E-3
-2.14857E-3	-81.7848E-12	783.355E-3	-23.8966E-3	-83.9353E-12	775.543E-3	-17.6276E-3
-2.15358E-3	-82.0367E-12	801.501E-3	-15.8054E-3	-84.3785E-12	780.201E-3	-17.8780E-3
-2.15858E-3	-82.1976E-12	816.112E-3	-23.0417E-3	-84.1727E-12	775.915E-3	-13.7940E-3
-2.16358E-3	-81.9328E-12	805.970E-3	-35.5338E-3	-84.0837E-12	769.037E-3	-4.20630E-3
-2.16858E-3	-81.4719E-12	791.225E-3	-33.2599E-3	-83.5517E-12	777.608E-3	6.65475E-3
-2.17359E-3	-81.3342E-12	780.036E-3	-22.4846E-3	-82.6826E-12	771.001E-3	5.23501E-3
-2.17859E-3	-82.4763E-12	771.471E-3	-15.6547E-3	-82.5203E-12	759.357E-3	1.60965E-3
-2.18359E-3	-81.8961E-12	765.207E-3	-18.7470E-3	-82.2275E-12	762.818E-3	-1.71406E-3
-2.18859E-3	-82.4707E-12	756.659E-3	-26.4312E-3	-82.2848E-12	765.544E-3	-16.6167E-3
-2.19360E-3	-82.9527E-12	755.543E-3	-21.2305E-3	-83.1677E-12	768.943E-3	-21.7086E-3
-2.19860E-3	-83.6328E-12	771.119E-3	-22.5366E-3	-83.6484E-12	772.473E-3	-19.9116E-3
-2.20360E-3	-84.3249E-12	785.404E-3	-41.4073E-3	-83.4300E-12	764.261E-3	-32.7087E-3
-2.20860E-3	-85.2553E-12	780.104E-3	-47.3388E-3	-84.2350E-12	753.811E-3	-28.8587E-3
-2.21361E-3	-86.5846E-12	765.662E-3	-44.6745E-3	-85.4909E-12	761.652E-3	-14.2288E-3
-2.21861E-3	-87.2237E-12	762.525E-3	-39.4787E-3	-86.3224E-12	759.955E-3	-22.5131E-3
-2.22361E-3	-87.6500E-12	775.962E-3	-23.8641E-3	-86.0432E-12	736.681E-3	-31.6972E-3
-2.22861E-3	-88.3893E-12	792.019E-3	-20.6024E-3	-85.8845E-12	742.636E-3	-26.4148E-3
-2.23362E-3	-89.0663E-12	790.506E-3	-24.9222E-3	-87.0431E-12	768.352E-3	-16.9443E-3
-2.23862E-3	-88.5881E-12	770.990E-3	-33.4755E-3	-87.6625E-12	778.711E-3	-4.19507E-3
-2.24362E-3	-88.1244E-12	762.666E-3	-30.1386E-3	-87.7324E-12	783.127E-3	472.491E-6
-2.24862E-3	-88.8209E-12	776.573E-3	-10.9391E-3	-87.0116E-12	772.391E-3	-13.7194E-3
-2.25363E-3	-88.6825E-12	784.852E-3	-4.88133E-3	-87.3489E-12	738.110E-3	-28.0191E-3
-2.25863E-3	-87.2448E-12	782.968E-3	-1.38700E-3	-87.6803E-12	722.709E-3	-24.5520E-3
-2.26363E-3	-86.2913E-12	778.186E-3	-10.2567E-3	-87.6022E-12	742.902E-3	-21.1650E-3
-2.26863E-3	-86.3155E-12	762.203E-3	-27.0930E-3	-86.8798E-12	749.340E-3	-28.5656E-3
-2.27364E-3	-86.3825E-12	749.105E-3	-27.2619E-3	-86.5865E-12	738.585E-3	-22.1297E-3
-2.27864E-3	-86.5517E-12	748.235E-3	-17.2852E-3	-86.8511E-12	732.644E-3	-7.52481E-3
-2.28364E-3	-86.6868E-12	747.515E-3	-9.83412E-3	-87.6302E-12	714.991E-3	-8.79870E-3
-2.28864E-3	-87.1290E-12	741.950E-3	-17.0422E-3	-88.1385E-12	698.583E-3	-10.9266E-3
-2.29365E-3	-87.8768E-12	731.359E-3	-18.1567E-3	-88.1639E-12	701.347E-3	-11.5411E-3
-2.29865E-3	-88.1381E-12	722.185E-3	5.51733E-3	-88.2958E-12	706.763E-3	-13.7941E-3
-2.30365E-3	-89.1732E-12	717.236E-3	14.1547E-3	-88.8642E-12	718.802E-3	-3.64303E-3
-2.30865E-3	-89.4650E-12	728.752E-3	-10.5136E-3	-90.3600E-12	737.715E-3	-5.15249E-3
-2.31366E-3	-90.6883E-12	762.133E-3	-29.8978E-3	-90.5872E-12	750.500E-3	-18.9377E-3
-2.31866E-3	-91.2564E-12	778.388E-3	-23.9790E-3	-90.3153E-12	755.817E-3	-14.6984E-3
-2.32366E-3	-92.6634E-12	764.237E-3	-9.50434E-3	-90.3716E-12	747.729E-3	-8.91513E-3
-2.32866E-3	-93.1999E-12	747.335E-3	-8.70852E-3	-91.0754E-12	733.912E-3	-9.39764E-3
-2.33367E-3	-93.8170E-12	765.396E-3	-9.21759E-3	-91.5935E-12	734.273E-3	-10.5813E-3
-2.33867E-3	-93.6341E-12	783.558E-3	1.40819E-3	-91.5581E-12	737.252E-3	-26.1528E-3
-2.34367E-3	-93.6271E-12	751.633E-3	3.53714E-3	-90.7936E-12	727.438E-3	-27.5382E-3
-2.34867E-3	-94.4154E-12	740.616E-3	-8.84025E-3	-90.4480E-12	725.456E-3	-12.0496E-3
-2.35368E-3	-94.1776E-12	768.449E-3	-17.7714E-3	-91.1152E-12	735.979E-3	-27.9783E-3
-2.35868E-3	-93.5225E-12	772.372E-3	-20.2799E-3	-93.0490E-12	744.914E-3	-49.9445E-3
-2.36368E-3	-92.8137E-12	762.604E-3	-20.4021E-3	-92.6147E-12	755.947E-3	-31.2393E-3
-2.36868E-3	-92.6771E-12	759.075E-3	-6.95983E-3	-92.3782E-12	765.384E-3	4.98918E-3
-2.37369E-3	-92.4315E-12	745.438E-3	-9.63755E-3	-93.5972E-12	759.324E-3	11.9942E-3
-2.37869E-3	-91.5228E-12	729.360E-3	-32.6609E-3	-95.5814E-12	747.787E-3	3.01139E-3
-2.38369E-3	-91.8771E-12	721.254E-3	-27.0434E-3	-95.6732E-12	756.918E-3	3.88736E-3
-2.38869E-3	-91.7398E-12	716.365E-3	-7.01749E-3	-95.2351E-12	770.648E-3	-1.64702E-3
-2.39370E-3	-92.9304E-12	714.950E-3	514.997E-6	-95.1284E-12	764.661E-3	-4.51534E-3
-2.39870E-3	-92.5898E-12	715.733E-3	10.9196E-3	-96.9491E-12	730.571E-3	-6.50426E-3
-2.40370E-3	-93.7419E-12	715.454E-3	20.7932E-3	-96.8005E-12	690.898E-3	-20.3442E-3
-2.40870E-3	-94.4422E-12	718.252E-3	2.36493E-3	-96.6312E-12	696.936E-3	-18.3700E-3
-2.41371E-3	-95.8789E-12	722.685E-3	-17.8973E-3	-95.4631E-12	726.635E-3	-13.5814E-3
-2.41871E-3	-96.5300E-12	724.105E-3	-11.5867E-3	-94.7999E-12	723.492E-3	-15.0703E-3
-2.42371E-3	-96.7222E-12	735.444E-3	-15.4826E-3	-95.0052E-12	711.625E-3	1.83366E-3
-2.42871E-3	-97.3892E-12	741.089E-3	-16.5765E-3	-95.1479E-12	721.703E-3	2.58523E-3
-2.43372E-3	-98.8198E-12	743.479E-3	5.94424E-3	-94.3215E-12	716.758E-3	-16.0641E-3
-2.43872E-3	-99.8471E-12	759.746E-3	9.19592E-3	-94.0975E-12	701.628E-3	-14.4486E-3
-2.44372E-3	-99.4200E-12	760.277E-3	-13.9893E-3	-94.7356E-12	716.915E-3	-8.01947E-3
-2.44872E-3	-99.2339E-12	739.456E-3	-33.1591E-3	-95.0649E-12	730.175E-3	-17.6842E-3
-2.45373E-3	-99.2657E-12	723.081E-3	-23.8435E-3	-95.1571E-12	715.203E-3	-28.3358E-3
-2.45873E-3	-99.2109E-12	726.907E-3	-8.77870E-3	-95.5727E-12	714.803E-3	-23.4725E-3
-2.46373E-3	-98.7687E-12	732.966E-3	-12.4941E-3	-97.0482E-12	736.057E-3	-11.3493E-3
-2.46873E-3	-97.2795E-12	734.639E-3	-16.2791E-3	-98.4591E-12	750.166E-3	-977.923E-6
-2.47374E-3	-96.2726E-12	746.105E-3	-8.54646E-3	-98.9262E-12	770.271E-3	-1.02890E-3
-2.47874E-3	-95.9154E-12	739.237E-3	1.59688E-3	-99.3789E-12	784.446E-3	-25.6283E-3
-2.48374E-3	-96.7623E-12	716.644E-3	-1.00943E-3	-99.7768E-12	765.975E-3	-35.2966E-3
-2.48874E-3	-96.2174E-12	712.904E-3	-7.36445E-3	-101.475E-12	743.182E-3	-23.9606E-3
-2.49375E-3	-95.7178E-12	724.149E-3	-11.7353E-3	-101.814E-12	734.249E-3	-35.0574E-3
-2.49875E-3	-96.2228E-12	724.353E-3	-29.7683E-3	-101.181E-12	721.405E-3	-43.0082E-3
-2.50375E-3	-96.4624E-12	707.548E-3	-44.9443E-3	-99.5140E-12	707.104E-3	-35.0882E-3
-2.50875E-3	-98.3299E-12	690.005E-3	-34.8311E-3	-99.4082E-12	700.465E-3	-38.2030E-3
-2.51376E-3	-99.0344E-12	693.669E-3	-19.6033E-3	-99.7951E-12	701.904E-3	-31.2986E-3
-2.51876E-3	-99.3871E-12	719.842E-3	-15.7977E-3	-97.7031E-12	713.264E-3	-11.6830E-3
-2.52376E-3	-99.4636E-12	735.236E-3	-22.7964E-3	-96.5837E-12	712.754E-3	-17.0743E-3
-2.52876E-3	-102.456E-12	718.830E-3	-34.1832E-3	-97.0414E-12	700.403E-3	-24.8782E-3
-2.53377E-3	-103.807E-12	711.257E-3	-26.9106E-3	-99.1808E-12	704.730E-3	-19.0554E-3
-2.53877E-3	-103.547E-12	731.344E-3	-2.45544E-3	-99.0606E-12	717.367E-3	-23.6211E-3
-2.54377E-3	-103.534E-12	743.061E-3	4.94366E-3	-98.7740E-12	721.716E-3	-15.3341E-3
-2.54877E-3	-104.708E-12	746.730E-3	-9.86574E-3	-98.9880E-12	731.881E-3	-4.03115E-3
-2.55378E-3	-105.997E-12	742.371E-3	-9.47061E-3	-101.790E-12	742.205E-3	-20.1606E-3
-2.55878E-3	-105.900E-12	716.747E-3	9.72255E-3	-104.034E-12	732.645E-3	-24.6387E-3
-2.56378E-3	-105.204E-12	710.998E-3	4.67955E-3	-103.819E-12	732.892E-3	-4.43841E-3
-2.56878E-3	-104.528E-12	739.825E-3	-12.7726E-3	-103.520E-12	753.557E-3	-11.7145E-3
-2.57379E-3	-104.371E-12	750.394E-3	-20.2604E-3	-104.854E-12	750.175E-3	-29.7144E-3
-2.57879E-3	-104.333E-12	740.547E-3	-34.0459E-3	-107.112E-12	740.499E-3	-14.4074E-3
-2.58379E-3	-102.895E-12	725.036E-3	-28.1292E-3	-106.401E-12	749.592E-3	-4.80735E-3
-2.58879E-3	-102.163E-12	707.952E-3	-12.6132E-3	-105.775E-12	740.164E-3	-13.1575E-3
-2.59380E-3	-101.633E-12	708.828E-3	-23.1939E-3	-104.530E-12	721.208E-3	-5.30161E-3
-2.59880E-3	-102.570E-12	704.295E-3	-35.1910E-3	-106.088E-12	709.660E-3	-3.71412E-3
-2.60380E-3	-102.892E-12	685.653E-3	-34.7039E-3	-105.908E-12	692.017E-3	-9.67440E-3
-2.60880E-3	-102.339E-12	686.863E-3	-19.9625E-3	-105.003E-12	688.696E-3	-35.1041E-6
-2.61381E-3	-102.171E-12	700.758E-3	-6.39067E-3	-103.214E-12	698.707E-3	-5.89051E-3
-2.61881E-3	-103.875E-12	703.676E-3	-3.84717E-3	-103.603E-12	694.734E-3	-24.6231E-3
-2.62381E-3	-105.180E-12	707.616E-3	-8.79774E-3	-104.532E-12	693.915E-3	-17.2558E-3
-2.62881E-3	-104.725E-12	721.715E-3	-20.4656E-3	-104.940E-12	716.292E-3	-5.23109E-3
-2.63382E-3	-105.519E-12	726.715E-3	-21.4776E-3	-104.573E-12	738.520E-3	-7.70706E-3
-2.63882E-3	-107.425E-12	714.865E-3	-12.0461E-3	-104.043E-12	746.616E-3	-12.6092E-3
-2.64382E-3	-109.392E-12	706.788E-3	-9.72662E-3	-106.256E-12	746.064E-3	-22.8435E-3
-2.64882E-3	-109.766E-12	715.710E-3	-17.3154E-3	-108.704E-12	742.593E-3	-29.8185E-3
-2.65383E-3	-109.372E-12	735.254E-3	-28.8435E-3	-107.821E-12	740.586E-3	-27.6457E-3
-2.65883E-3	-109.122E-12	737.884E-3	-28.1950E-3	-107.623E-12	723.899E-3	-20.6025E-3
-2.66383E-3	-109.883E-12	732.177E-3	-11.9590E-3	-108.689E-12	697.442E-3	-24.3832E-3
-2.66883E-3	-109.962E-12	749.699E-3	9.52175E-3	-111.131E-12	691.785E-3	-35.6329E-3
-2.67384E-3	-109.995E-12	766.207E-3	18.7094E-3	-110.122E-12	718.097E-3	-40.8398E-3
-2.67884E-3	-109.040E-12	748.226E-3	4.96599E-3	-109.375E-12	729.733E-3	-45.6803E-3
-2.68384E-3	-106.788E-12	715.163E-3	-5.76424E-3	-108.896E-12	697.995E-3	-33.9916E-3
-2.68884E-3	-106.305E-12	709.840E-3	-6.02702E-3	-109.235E-12	683.803E-3	-14.6309E-3
-2.69385E-3	-106.986E-12	724.461E-3	-17.3715E-3	-108.774E-12	691.482E-3	-10.7999E-3
-2.69885E-3	-106.688E-12	718.090E-3	-21.9275E-3	-107.672E-12	697.860E-3	-5.77586E-3
-2.70385E-3	-105.841E-12	700.472E-3	-23.5078E-3	-108.849E-12	714.887E-3	-5.29840E-3
-2.70885E-3	-104.770E-12	687.721E-3	-29.6649E-3	-107.828E-12	713.418E-3	-22.5224E-3
-2.71386E-3	-106.109E-12	671.800E-3	-20.3975E-3	-108.358E-12	690.597E-3	-18.3862E-3
-2.71886E-3	-107.287E-12	663.973E-3	-21.4567E-3	-108.610E-12	685.211E-3	-55.1487E-6
-2.72386E-3	-108.664E-12	682.319E-3	-23.1414E-3	-110.384E-12	704.185E-3	-12.4192E-3
-2.72886E-3	-108.471E-12	707.016E-3	-6.30402E-3	-109.842E-12	720.877E-3	-29.0309E-3
-2.73387E-3	-109.124E-12	707.120E-3	1.47134E-3	-109.720E-12	726.851E-3	-29.3217E-3
-2.73887E-3	-110.939E-12	691.211E-3	-9.00475E-3	-111.282E-12	723.996E-3	-32.2269E-3
-2.74387E-3	-112.870E-12	670.174E-3	-35.7275E-3	-111.916E-12	713.491E-3	-30.0968E-3
-2.74887E-3	-113.283E-12	676.198E-3	-39.7154E-3	-112.086E-12	719.138E-3	-30.4896E-3
-2.75388E-3	-112.343E-12	694.006E-3	-8.13703E-3	-111.088E-12	725.225E-3	-43.5617E-3
-2.75888E-3	-114.077E-12	688.115E-3	-2.83338E-6	-111.536E-12	710.069E-3	-40.2310E-3
-2.76388E-3	-114.524E-12	694.336E-3	-8.15309E-3	-111.906E-12	696.414E-3	-22.5712E-3
-2.76888E-3	-114.471E-12	700.966E-3	3.46014E-3	-111.566E-12	697.141E-3	-30.4197E-3
-2.77389E-3	-113.638E-12	704.617E-3	10.3909E-3	-110.886E-12	698.687E-3	-42.4962E-3
-2.77889E-3	-113.098E-12	724.847E-3	6.54465E-3	-109.939E-12	694.730E-3	-27.1248E-3
-2.78389E-3	-112.905E-12	728.385E-3	6.04089E-3	-111.201E-12	692.160E-3	-21.0326E-3
-2.78889E-3	-111.838E-12	719.565E-3	-4.69887E-3	-111.110E-12	685.905E-3	-16.2195E-3
-2.79390E-3	-111.627E-12	706.522E-3	-15.5803E-3	-111.030E-12	693.068E-3	-7.70270E-3
-2.79890E-3	-110.990E-12	688.422E-3	-11.5707E-3	-110.536E-12	709.685E-3	-25.1259E-3
-2.80390E-3	-110.873E-12	694.333E-3	-10.8106E-3	-112.779E-12	706.584E-3	-35.2338E-3
-2.80890E-3	-109.961E-12	705.078E-3	-10.1562E-3	-114.159E-12	702.319E-3	-18.2960E-3
-2.81391E-3	-110.073E-12	690.475E-3	-10.6782E-3	-114.196E-12	698.413E-3	1.25254E-3
-2.81891E-3	-111.044E-12	676.191E-3	-16.4125E-3	-114.424E-12	683.137E-3	3.83493E-3
-2.82391E-3	-111.975E-12	684.391E-3	-21.3090E-3	-114.714E-12	683.758E-3	-6.55300E-3
-2.82891E-3	-112.668E-12	696.006E-3	-21.0882E-3	-116.873E-12	700.084E-3	-20.9568E-3
-2.83392E-3	-112.420E-12	681.842E-3	-16.6036E-3	-115.300E-12	701.532E-3	-19.2148E-3
-2.83892E-3	-114.505E-12	673.245E-3	-27.0440E-3	-115.946E-12	695.127E-3	7.85823E-3
-2.84392E-3	-115.841E-12	688.974E-3	-17.9346E-3	-115.025E-12	683.029E-3	9.42991E-3
-2.84892E-3	-117.795E-12	678.280E-3	436.489E-6	-116.620E-12	668.484E-3	-11.8785E-3
-2.85393E-3	-117.693E-12	669.476E-3	-22.7139E-3	-116.589E-12	669.260E-3	-14.8112E-3
-2.85893E-3	-118.827E-12	704.396E-3	-33.7783E-3	-114.895E-12	682.776E-3	-10.0772E-3
-2.86393E-3	-119.935E-12	726.752E-3	-23.6064E-3	-113.901E-12	694.803E-3	-1.51297E-3
-2.86893E-3	-121.025E-12	724.141E-3	-22.9556E-3	-116.031E-12	695.646E-3	3.20673E-3
-2.87394E-3	-119.934E-12	726.148E-3	-11.5548E-3	-118.355E-12	699.851E-3	-6.33250E-3
-2.87894E-3	-119.701E-12	709.570E-3	-3.24394E-3	-115.638E-12	697.257E-3	-29.9638E-3
-2.88394E-3	-120.276E-12	693.729E-3	-21.7321E-3	-115.732E-12	688.213E-3	-39.4376E-3
-2.88894E-3	-119.088E-12	702.965E-3	-41.2027E-3	-116.519E-12	704.573E-3	-11.5810E-3
-2.89395E-3	-117.559E-12	700.200E-3	-26.7374E-3	-118.508E-12	722.143E-3	-1.90645E-3
-2.89895E-3	-117.045E-12	696.478E-3	-5.83897E-3	-119.288E-12	718.816E-3	-17.9081E-3
-2.90395E-3	-117.005E-12	696.391E-3	-12.1136E-3	-119.506E-12	730.593E-3	-11.6882E-3
-2.90895E-3	-116.738E-12	674.634E-3	-21.8953E-3	-120.078E-12	736.186E-3	-8.17755E-3
-2.91396E-3	-116.725E-12	664.062E-3	-26.9167E-3	-120.795E-12	704.392E-3	-12.8764E-3
-2.91896E-3	-116.315E-12	682.467E-3	-25.1448E-3	-123.322E-12	685.482E-3	-958.234E-6
-2.92396E-3	-116.517E-12	694.707E-3	-11.0182E-3	-121.248E-12	697.558E-3	382.682E-6
-2.92896E-3	-116.953E-12	696.891E-3	-11.4165E-3	-120.841E-12	706.899E-3	-13.4031E-3
-2.93397E-3	-118.229E-12	708.052E-3	-37.0513E-3	-119.888E-12	720.424E-3	-12.6624E-3
-2.93897E-3	-118.762E-12	705.434E-3	-45.6262E-3	-120.797E-12	719.631E-3	-5.25829E-3
-2.94397E-3	-118.795E-12	674.155E-3	-24.8383E-3	-119.786E-12	689.703E-3	-5.90608E-3
-2.94897E-3	-120.207E-12	660.203E-3	-18.5565E-3	-118.291E-12	677.466E-3	-4.36681E-3
-2.95398E-3	-122.201E-12	678.997E-3	-21.9631E-3	-117.508E-12	677.674E-3	-9.91705E-3
-2.95898E-3	-123.079E-12	691.636E-3	-24.6553E-3	-118.428E-12	669.230E-3	-11.2537E-3
-2.96398E-3	-123.914E-12	694.518E-3	-38.1606E-3	-119.411E-12	669.007E-3	-1.73482E-3
-2.96898E-3	-124.361E-12	714.573E-3	-44.6507E-3	-118.012E-12	680.064E-3	-17.1652E-3
-2.97399E-3	-124.839E-12	730.393E-3	-35.5668E-3	-118.887E-12	675.180E-3	-44.7867E-3
-2.97899E-3	-125.009E-12	725.335E-3	-32.6980E-3	-120.695E-12	657.908E-3	-46.9020E-3
-2.98399E-3	-124.714E-12	714.784E-3	-29.6899E-3	-122.714E-12	671.121E-3	-34.0569E-3
-2.98899E-3	-124.487E-12	696.381E-3	-9.74482E-3	-123.314E-12	705.455E-3	-24.8444E-3
-2.99400E-3	-123.572E-12	698.649E-3	185.913E-6	-124.039E-12	714.346E-3	-1.98506E-3
-2.99900E-3	-122.756E-12	712.261E-3	10.9467E-3	-124.900E-12	697.384E-3	22.1415E-3
-3.00400E-3	-122.384E-12	694.510E-3	20.0395E-3	-126.135E-12	694.053E-3	16.3589E-3
-3.00900E-3	-121.453E-12	671.922E-3	5.02657E-3	-126.162E-12	708.049E-3	-10.9711E-3
-3.01401E-3	-120.365E-12	674.178E-3	-11.6959E-3	-126.184E-12	706.617E-3	-21.8897E-3
-3.01901E-3	-119.466E-12	679.623E-3	-26.5427E-3	-126.363E-12	694.184E-3	-11.9932E-3
-3.02401E-3	-120.638E-12	664.728E-3	-37.8467E-3	-125.606E-12	694.979E-3	-17.0987E-3
-3.02901E-3	-120.161E-12	658.774E-3	-42.5097E-3	-124.674E-12	695.789E-3	-34.8893E-3
-3.03402E-3	-120.351E-12	671.766E-3	-35.5442E-3	-123.058E-12	679.605E-3	-38.1891E-3
-3.03902E-3	-120.355E-12	680.067E-3	-10.7590E-3	-122.449E-12	666.971E-3	-28.4638E-3
-3.04402E-3	-121.946E-12	691.777E-3	12.5835E-3	-121.909E-12	663.150E-3	-22.2466E-3
-3.04902E-3	-123.623E-12	690.760E-3	6.94485E-3	-121.936E-12	661.175E-3	-3.99570E-3
-3.05403E-3	-124.663E-12	680.533E-3	-21.7597E-3	-122.197E-12	667.375E-3	22.0223E-3
-3.05903E-3	-124.558E-12	685.362E-3	-36.2111E-3	-121.020E-12	669.460E-3	13.0150E-3
-3.06403E-3	-125.350E-12	687.798E-3	-23.0203E-3	-121.475E-12	669.782E-3	-11.7810E-3
-3.06903E-3	-127.257E-12	688.442E-3	-14.2391E-3	-123.163E-12	681.568E-3	-16.2955E-3
-3.07404E-3	-129.166E-12	683.586E-3	-19.0428E-3	-124.811E-12	685.380E-3	-25.4873E-3
-3.07904E-3	-129.764E-12	669.879E-3	-29.6432E-3	-125.020E-12	678.907E-3	-29.0683E-3
-3.08404E-3	-128.141E-12	683.999E-3	-44.0480E-3	-126.522E-12	687.206E-3	-11.7720E-3
-3.08904E-3	-129.244E-12	719.708E-3	-36.8831E-3	-127.753E-12	700.133E-3	-13.8423E-3
-3.09405E-3	-129.371E-12	727.322E-3	-23.0824E-3	-127.903E-12	704.811E-3	-25.1042E-3
-3.09905E-3	-128.553E-12	715.750E-3	-27.9239E-3	-128.665E-12	709.364E-3	-10.6813E-3
-3.10405E-3	-127.019E-12	706.915E-3	-26.8651E-3	-128.982E-12	708.102E-3	-17.7256E-3
-3.10905E-3	-126.768E-12	696.683E-3	-16.0555E-3	-129.524E-12	689.682E-3	-49.2623E-3
-3.11406E-3	-126.551E-12	698.500E-3	-18.8089E-3	-128.585E-12	676.111E-3	-30.7199E-3
-3.11906E-3	-125.205E-12	702.343E-3	-28.1841E-3	-127.149E-12	698.841E-3	2.99924E-3
-3.12406E-3	-125.621E-12	689.981E-3	-15.6021E-3	-126.304E-12	706.165E-3	-10.3381E-3
-3.12906E-3	-125.324E-12	691.223E-3	-8.66403E-3	-126.188E-12	669.061E-3	-9.67188E-3
-3.13407E-3	-126.034E-12	713.912E-3	-22.9277E-3	-126.519E-12	646.565E-3	14.8068E-3
-3.13907E-3	-125.564E-12	709.800E-3	-20.5448E-3	-125.070E-12	649.694E-3	6.69153E-3
-3.14407E-3	-126.618E-12	662.725E-3	-24.3960E-3	-124.628E-12	658.669E-3	-3.80181E-3
-3.14907E-3	-127.346E-12	635.872E-3	-24.2276E-3	-125.225E-12	674.467E-3	4.70724E-3
-3.15408E-3	-128.162E-12	649.097E-3	2.58491E-3	-128.145E-12	680.773E-3	10.1076E-3
-3.15908E-3	-129.945E-12	665.056E-3	9.05731E-3	-127.567E-12	685.552E-3	-4.65353E-3
-3.16408E-3	-131.398E-12	691.410E-3	1.35883E-3	-127.963E-12	701.748E-3	-27.0599E-3
-3.16908E-3	-133.352E-12	695.013E-3	6.65338E-3	-129.039E-12	690.839E-3	-27.4321E-3
-3.17409E-3	-133.178E-12	660.414E-3	-4.01323E-3	-130.223E-12	654.214E-3	1.90619E-3
-3.17909E-3	-134.629E-12	669.474E-3	-20.6243E-3	-132.187E-12	653.584E-3	13.0969E-3
-3.18409E-3	-135.084E-12	712.011E-3	-4.88196E-3	-132.328E-12	694.830E-3	-16.0111E-3
-3.18909E-3	-136.687E-12	715.680E-3	4.45590E-3	-132.748E-12	720.456E-3	-17.3736E-3
-3.19410E-3	-135.174E-12	695.204E-3	-24.9732E-3	-133.219E-12	715.851E-3	-1.35004E-3
-3.19910E-3	-134.200E-12	701.566E-3	-30.8573E-3	-134.028E-12	687.843E-3	-12.5585E-3
-3.20410E-3	-134.123E-12	718.750E-3	-7.30357E-3	-133.730E-12	643.806E-3	-16.6862E-3
-3.20910E-3	-134.707E-12	727.095E-3	13.8988E-6	-131.372E-12	622.066E-3	-1.52943E-3
-3.21411E-3	-134.157E-12	729.918E-3	-53.2745E-6	-131.607E-12	639.956E-3	1.04413E-3
-3.21911E-3	-130.829E-12	711.728E-3	-9.85095E-3	-131.860E-12	664.640E-3	-6.32474E-3
-3.22411E-3	-130.101E-12	703.929E-3	-29.0197E-3	-132.343E-12	679.597E-3	5.99690E-3
-3.22911E-3	-130.823E-12	702.976E-3	-26.1331E-3	-131.905E-12	681.076E-3	5.01610E-3
-3.23412E-3	-131.995E-12	690.177E-3	-10.3595E-3	-132.114E-12	667.450E-3	-22.4452E-3
-3.23912E-3	-129.598E-12	701.454E-3	-7.28360E-3	-131.160E-12	676.298E-3	-27.5406E-3
-3.24412E-3	-130.718E-12	705.378E-3	-12.0512E-3	-132.852E-12	701.652E-3	-20.1033E-3
-3.24912E-3	-131.349E-12	667.825E-3	-7.63510E-3	-133.254E-12	713.452E-3	-5.61641E-3
-3.25413E-3	-133.792E-12	650.466E-3	15.6991E-3	-133.416E-12	713.374E-3	20.3438E-3
-3.25913E-3	-136.072E-12	674.910E-3	36.1846E-3	-133.962E-12	695.733E-3	15.9833E-3
-3.26413E-3	-135.350E-12	701.055E-3	12.5251E-3	-135.289E-12	677.027E-3	3.41772E-3
-3.26913E-3	-135.937E-12	706.411E-3	-20.1510E-3	-136.697E-12	681.596E-3	8.21613E-3
-3.27414E-3	-137.845E-12	700.976E-3	-22.2623E-3	-135.149E-12	701.696E-3	-4.68513E-3
-3.27914E-3	-140.411E-12	698.853E-3	-18.1898E-3	-135.061E-12	707.687E-3	-25.4205E-3
-3.28414E-3	-138.113E-12	691.788E-3	-8.53069E-3	-135.756E-12	690.032E-3	-38.6596E-3
-3.28914E-3	-137.963E-12	680.460E-3	-8.54093E-3	-136.534E-12	680.464E-3	-48.6841E-3
-3.29415E-3	-138.749E-12	674.160E-3	-17.2261E-3	-135.133E-12	679.000E-3	-49.0096E-3
-3.29915E-3	-138.279E-12	691.145E-3	-28.1179E-3	-134.499E-12	675.099E-3	-41.1354E-3
-3.30415E-3	-138.663E-12	711.653E-3	-35.7126E-3	-135.874E-12	677.440E-3	-25.2029E-3
-3.30915E-3	-137.162E-12	710.950E-3	-24.1464E-3	-136.873E-12	673.924E-3	-17.2564E-3
-3.31416E-3	-137.208E-12	709.706E-3	-20.3858E-3	-137.086E-12	677.594E-3	-24.0318E-3
-3.31916E-3	-135.489E-12	697.855E-3	-24.0996E-3	-137.421E-12	693.132E-3	-47.6116E-3
-3.32416E-3	-134.675E-12	677.880E-3	-22.7994E-3	-137.967E-12	687.161E-3	-58.0808E-3
-3.32916E-3	-134.192E-12	675.587E-3	-13.0813E-3	-139.604E-12	673.789E-3	-21.5914E-3
-3.33417E-3	-134.321E-12	679.068E-3	12.2926E-3	-140.150E-12	682.720E-3	-12.9799E-3
-3.33917E-3	-134.028E-12	680.310E-3	15.8136E-3	-140.056E-12	695.138E-3	-34.7934E-3
-3.34417E-3	-134.334E-12	666.927E-3	-2.76003E-3	-139.674E-12	696.030E-3	-31.4555E-3
-3.34917E-3	-133.943E-12	642.779E-3	-21.5112E-3	-140.377E-12	699.638E-3	-31.9540E-3
-3.35418E-3	-135.236E-12	637.216E-3	-33.9243E-3	-140.752E-12	687.939E-3	-24.1383E-3
-3.35918E-3	-139.164E-12	648.397E-3	-34.9718E-3	-140.313E-12	656.947E-3	-4.91918E-3
-3.36418E-3	-139.155E-12	669.755E-3	-39.1514E-3	-138.675E-12	651.549E-3	-23.5825E-3
-3.36918E-3	-139.105E-12	692.974E-3	-28.0292E-3	-137.802E-12	651.511E-3	-44.6614E-3
-3.37419E-3	-139.701E-12	693.274E-3	-21.8382E-3	-138.399E-12	642.062E-3	-19.5772E-3
-3.37919E-3	-143.496E-12	673.895E-3	-38.8991E-3	-139.476E-12	652.214E-3	-1.59644E-3
-3.38419E-3	-144.563E-12	669.944E-3	-24.4990E-3	-137.539E-12	662.757E-3	-1.11006E-3
-3.38919E-3	-143.662E-12	695.288E-3	-6.50264E-3	-136.554E-12	658.282E-3	8.41342E-3
-3.39420E-3	-143.001E-12	724.078E-3	-11.1283E-3	-138.458E-12	667.241E-3	-5.02395E-3
-3.39920E-3	-143.979E-12	713.761E-3	-11.0277E-3	-140.430E-12	684.977E-3	-36.8514E-3
-3.40420E-3	-144.469E-12	689.815E-3	-25.5162E-3	-139.626E-12	703.270E-3	-39.1228E-3
-3.40920E-3	-143.732E-12	695.665E-3	-29.6504E-3	-139.440E-12	718.391E-3	-21.4842E-3
-3.41421E-3	-143.174E-12	692.832E-3	-6.27514E-3	-141.128E-12	702.836E-3	-12.4779E-3
-3.41921E-3	-141.922E-12	685.510E-3	-6.79160E-3	-143.678E-12	677.500E-3	-2.23272E-3
-3.42421E-3	-141.661E-12	704.196E-3	-27.8194E-3	-144.095E-12	669.607E-3	3.27086E-3
-3.42921E-3	-141.835E-12	699.713E-3	-30.3019E-3	-144.844E-12	659.688E-3	-10.9343E-3
-3.43422E-3	-140.589E-12	661.634E-3	-16.7966E-3	-145.936E-12	667.165E-3	-25.5144E-3
-3.43922E-3	-141.083E-12	634.158E-3	1.32747E-3	-146.638E-12	687.384E-3	-25.0513E-3
-3.44422E-3	-140.578E-12	641.194E-3	18.4462E-3	-147.021E-12	684.642E-3	-25.4022E-3
-3.44922E-3	-140.857E-12	672.364E-3	23.5790E-3	-146.539E-12	673.741E-3	-13.2736E-3
-3.45423E-3	-141.080E-12	694.877E-3	25.5635E-3	-145.596E-12	665.315E-3	13.7147E-3
-3.45923E-3	-141.277E-12	681.753E-3	23.2658E-3	-144.380E-12	659.945E-3	24.3241E-3
-3.46423E-3	-142.766E-12	643.017E-3	5.37667E-3	-142.620E-12	651.801E-3	23.1077E-3
-3.46923E-3	-143.574E-12	629.478E-3	2.26904E-3	-141.487E-12	656.645E-3	15.9614E-3
-3.47424E-3	-145.282E-12	641.648E-3	24.0897E-3	-141.387E-12	668.603E-3	-9.89818E-3
-3.47924E-3	-145.412E-12	654.157E-3	21.8979E-3	-142.098E-12	651.980E-3	-38.0335E-3
-3.48424E-3	-147.004E-12	669.353E-3	-7.82310E-3	-140.975E-12	651.245E-3	-39.3637E-3
-3.48924E-3	-148.498E-12	688.958E-3	-6.18109E-3	-140.557E-12	664.460E-3	-35.9493E-3
-3.49425E-3	-151.937E-12	704.251E-3	1.67445E-3	-141.174E-12	662.976E-3	-29.5590E-3
-3.49925E-3	-151.976E-12	715.161E-3	-3.21076E-3	-143.229E-12	688.321E-3	-6.81828E-3
-3.50425E-3	-150.347E-12	721.274E-3	-3.79173E-3	-145.187E-12	711.619E-3	-9.90378E-3
-3.50925E-3	-149.371E-12	712.302E-3	-12.1001E-3	-146.998E-12	703.802E-3	-26.6819E-3
-3.51426E-3	-150.757E-12	697.590E-3	-12.6296E-3	-147.650E-12	691.039E-3	-16.0332E-3
-3.51926E-3	-151.249E-12	685.592E-3	-8.46779E-3	-149.220E-12	664.756E-3	67.7839E-6
-3.52426E-3	-149.444E-12	682.907E-3	-17.4231E-3	-151.722E-12	647.544E-3	2.69028E-3
-3.52926E-3	-147.959E-12	693.246E-3	-18.8818E-3	-151.323E-12	677.511E-3	-4.33445E-3
-3.53427E-3	-147.457E-12	701.077E-3	8.90269E-3	-150.675E-12	706.945E-3	-23.3684E-3
-3.53927E-3	-148.527E-12	698.366E-3	20.4757E-3	-151.756E-12	700.971E-3	-30.5448E-3
-3.54427E-3	-146.575E-12	683.921E-3	-16.0304E-3	-151.937E-12	690.906E-3	-5.66455E-3
-3.54927E-3	-145.157E-12	672.361E-3	-33.5487E-3	-150.284E-12	692.567E-3	9.46433E-3
-3.55428E-3	-145.527E-12	656.602E-3	-28.0143E-3	-146.954E-12	686.676E-3	215.890E-6
-3.55928E-3	-147.477E-12	626.418E-3	-41.2763E-3	-147.662E-12	675.904E-3	-4.78975E-3
-3.56428E-3	-148.510E-12	619.233E-3	-47.2308E-3	-148.212E-12	677.947E-3	-12.7948E-3
-3.56928E-3	-147.482E-12	647.979E-3	-27.4376E-3	-147.338E-12	675.130E-3	-19.6145E-3
-3.57429E-3	-147.964E-12	674.466E-3	-16.4810E-3	-145.632E-12	682.334E-3	-10.5672E-3
-3.57929E-3	-149.718E-12	683.112E-3	-25.9741E-3	-146.281E-12	692.919E-3	-12.8415E-3
-3.58429E-3	-151.258E-12	685.631E-3	-11.0669E-3	-148.592E-12	682.706E-3	-15.2824E-3
-3.58929E-3	-151.722E-12	682.428E-3	12.6583E-3	-150.030E-12	693.191E-3	4.07478E-3
-3.59430E-3	-155.054E-12	678.082E-3	7.33156E-3	-150.278E-12	710.828E-3	17.7728E-3
-3.59930E-3	-157.190E-12	674.051E-3	-19.5555E-3	-150.756E-12	698.979E-3	11.4434E-3
-3.60430E-3	-156.979E-12	689.988E-3	-29.4314E-3	-153.205E-12	687.445E-3	-6.23117E-3
-3.60930E-3	-155.613E-12	710.942E-3	-3.05721E-3	-154.472E-12	692.337E-3	-22.3851E-3
-3.61431E-3	-154.680E-12	707.931E-3	12.2674E-3	-154.805E-12	700.447E-3	-24.4628E-3
-3.61931E-3	-157.092E-12	694.626E-3	4.27080E-3	-154.356E-12	684.485E-3	-17.2017E-3
-3.62431E-3	-156.013E-12	686.119E-3	-15.0297E-3	-153.611E-12	654.199E-3	-12.6608E-3
-3.62931E-3	-154.745E-12	689.382E-3	-39.3748E-3	-155.706E-12	663.206E-3	1.12531E-3
-3.63432E-3	-151.220E-12	692.086E-3	-36.4845E-3	-154.113E-12	686.768E-3	5.20112E-3
-3.63932E-3	-150.191E-12	696.002E-3	-9.92099E-3	-152.251E-12	687.876E-3	-12.1470E-3
-3.64432E-3	-152.576E-12	693.531E-3	-1.08178E-3	-150.987E-12	671.615E-3	-19.0103E-3
-3.64932E-3	-152.070E-12	682.021E-3	-3.99411E-3	-151.939E-12	664.159E-3	-21.2044E-3
-3.65433E-3	-149.194E-12	681.002E-3	5.55402E-3	-151.257E-12	660.569E-3	-17.9969E-3
-3.65933E-3	-147.954E-12	682.880E-3	8.09927E-3	-150.983E-12	642.466E-3	-6.24118E-3
-3.66433E-3	-151.269E-12	674.300E-3	-265.537E-6	-151.265E-12	650.920E-3	-6.06266E-3
-3.66933E-3	-153.828E-12	646.864E-3	-3.92317E-3	-151.002E-12	658.161E-3	-20.2919E-3
-3.67434E-3	-153.362E-12	631.682E-3	-6.72409E-3	-152.280E-12	643.046E-3	-33.6886E-3
-3.67934E-3	-152.597E-12	647.058E-3	-10.1223E-3	-151.496E-12	646.852E-3	-32.4847E-3
-3.68434E-3	-153.682E-12	662.801E-3	-3.24043E-3	-152.788E-12	660.745E-3	-37.0427E-3
-3.68934E-3	-158.464E-12	657.826E-3	8.55820E-3	-154.409E-12	667.747E-3	-50.5002E-3
-3.69435E-3	-159.664E-12	647.215E-3	586.426E-6	-155.429E-12	678.125E-3	-42.1244E-3
-3.69935E-3	-159.475E-12	670.383E-3	-1.80713E-3	-154.616E-12	695.138E-3	-29.2541E-3
-3.70435E-3	-158.515E-12	703.046E-3	11.5841E-3	-155.318E-12	693.796E-3	-28.9040E-3
-3.70935E-3	-162.607E-12	697.907E-3	-1.19273E-3	-156.061E-12	686.981E-3	-26.9146E-3
-3.71436E-3	-164.123E-12	676.923E-3	-7.92256E-3	-155.147E-12	682.702E-3	-34.3917E-3
-3.71936E-3	-162.047E-12	664.624E-3	6.08691E-3	-154.512E-12	665.658E-3	-43.5329E-3
-3.72436E-3	-161.401E-12	675.209E-3	-9.50764E-3	-154.089E-12	667.693E-3	-34.9656E-3
-3.72936E-3	-160.591E-12	701.510E-3	-23.5507E-3	-155.290E-12	686.287E-3	-26.3705E-3
-3.73437E-3	-160.523E-12	708.576E-3	-5.81588E-3	-153.605E-12	679.009E-3	-27.5259E-3
-3.73937E-3	-157.955E-12	709.560E-3	-7.91382E-3	-154.043E-12	662.703E-3	-9.54328E-3
-3.74437E-3	-156.221E-12	702.209E-3	-10.4626E-3	-155.113E-12	664.433E-3	8.83023E-3
-3.74937E-3	-156.286E-12	676.564E-3	2.44026E-3	-156.790E-12	676.436E-3	-911.438E-6
-3.75438E-3	-157.449E-12	662.695E-3	-3.75216E-3	-157.851E-12	692.334E-3	-5.18272E-3
-3.75938E-3	-156.591E-12	659.976E-3	-104.527E-6	-157.233E-12	700.806E-3	-16.6633E-3
-3.76438E-3	-153.897E-12	666.394E-3	-6.20499E-3	-159.210E-12	700.641E-3	-31.4918E-3
-3.76938E-3	-154.142E-12	658.178E-3	-26.9471E-3	-159.095E-12	711.429E-3	-19.8624E-3
-3.77439E-3	-156.415E-12	625.619E-3	-3.05577E-3	-160.529E-12	737.163E-3	-14.1998E-3
-3.77939E-3	-158.501E-12	620.731E-3	29.5638E-3	-159.128E-12	737.088E-3	-19.5476E-3
-3.78439E-3	-157.173E-12	649.126E-3	19.3792E-3	-160.679E-12	707.250E-3	-25.8348E-3
-3.78939E-3	-157.496E-12	667.834E-3	6.55941E-3	-160.853E-12	685.043E-3	-27.9000E-3
-3.79440E-3	-158.980E-12	665.920E-3	9.21633E-3	-159.466E-12	662.739E-3	-17.8013E-3
-3.79940E-3	-160.986E-12	659.898E-3	-7.24736E-3	-158.757E-12	634.979E-3	-6.19004E-3
-3.80440E-3	-160.101E-12	664.903E-3	-33.9012E-3	-158.714E-12	646.472E-3	-6.82397E-3
-3.80940E-3	-160.367E-12	684.642E-3	-37.3850E-3	-159.593E-12	675.845E-3	-16.1225E-3
-3.81441E-3	-164.019E-12	690.407E-3	-25.6114E-3	-157.381E-12	678.022E-3	-15.4092E-3
-3.81941E-3	-163.934E-12	689.172E-3	-12.6940E-3	-158.464E-12	679.803E-3	-22.4228E-3
-3.82441E-3	-163.189E-12	691.906E-3	6.27481E-3	-159.175E-12	699.649E-3	-27.8755E-3
-3.82941E-3	-162.319E-12	683.818E-3	4.28739E-3	-158.992E-12	717.192E-3	-11.5579E-3
-3.83442E-3	-163.516E-12	695.461E-3	-12.0965E-3	-159.825E-12	714.314E-3	-9.30477E-3
-3.83942E-3	-163.586E-12	708.651E-3	-10.2757E-3	-160.532E-12	704.474E-3	-13.3945E-3
-3.84442E-3	-163.269E-12	702.635E-3	-19.9593E-3	-162.891E-12	685.807E-3	723.763E-6
-3.84942E-3	-160.915E-12	699.771E-3	-26.7579E-3	-162.623E-12	668.962E-3	4.63293E-3
-3.85443E-3	-160.368E-12	690.596E-3	-770.752E-6	-165.254E-12	672.869E-3	-11.7319E-3
-3.85943E-3	-161.471E-12	679.922E-3	3.56453E-3	-165.377E-12	686.082E-3	-27.1111E-3
-3.86443E-3	-160.086E-12	670.611E-3	-17.8780E-3	-165.827E-12	683.956E-3	-17.0525E-3
-3.86943E-3	-160.022E-12	645.674E-3	-31.6739E-3	-165.416E-12	664.061E-3	11.1626E-3
-3.87444E-3	-159.639E-12	631.950E-3	-38.0811E-3	-164.881E-12	662.140E-3	-6.68385E-3
-3.87944E-3	-160.335E-12	647.076E-3	-14.6955E-3	-165.083E-12	665.909E-3	-47.2567E-3
-3.88444E-3	-161.068E-12	658.303E-3	20.6892E-3	-163.308E-12	665.316E-3	-42.9942E-3
-3.88944E-3	-162.076E-12	631.965E-3	18.6765E-3	-162.158E-12	672.612E-3	-19.8464E-3
-3.89445E-3	-161.571E-12	615.646E-3	-12.9576E-3	-161.385E-12	660.396E-3	2.75008E-3
-3.89945E-3	-163.320E-12	642.611E-3	-26.6209E-3	-163.171E-12	643.068E-3	22.5163E-3
-3.90445E-3	-166.261E-12	654.198E-3	-1.71521E-3	-161.083E-12	657.128E-3	7.50235E-3
-3.90945E-3	-165.756E-12	637.794E-3	17.6865E-3	-159.660E-12	669.651E-3	-23.0786E-3
-3.91446E-3	-166.365E-12	623.662E-3	578.779E-6	-160.256E-12	675.219E-3	-30.8689E-3
-3.91946E-3	-168.303E-12	628.406E-3	-22.7422E-3	-162.751E-12	694.618E-3	-24.3237E-3
-3.92446E-3	-170.526E-12	658.210E-3	-30.6894E-3	-163.435E-12	692.707E-3	-14.3365E-3
-3.92946E-3	-169.504E-12	684.559E-3	-24.5100E-3	-164.211E-12	662.678E-3	4.80058E-3
-3.93447E-3	-169.222E-12	691.504E-3	-20.9300E-3	-166.246E-12	660.343E-3	15.8246E-3
-3.93947E-3	-169.026E-12	708.711E-3	-16.6062E-3	-167.131E-12	681.695E-3	-1.10353E-3
-3.94447E-3	-169.527E-12	724.213E-3	-13.7754E-3	-169.067E-12	679.245E-3	-17.9125E-3
-3.94947E-3	-167.754E-12	716.070E-3	-34.9246E-3	-170.521E-12	677.104E-3	-15.6090E-3
-3.95448E-3	-164.930E-12	700.601E-3	-49.6148E-3	-171.377E-12	697.177E-3	-26.2523E-3
-3.95948E-3	-164.482E-12	689.915E-3	-31.9141E-3	-169.257E-12	719.087E-3	-40.5479E-3
-3.96448E-3	-165.431E-12	677.785E-3	-7.69666E-3	-168.967E-12	696.463E-3	-24.9031E-3
-3.96948E-3	-164.878E-12	664.303E-3	-7.09641E-3	-168.479E-12	655.258E-3	-9.04876E-3
-3.97449E-3	-161.079E-12	646.409E-3	-14.9904E-3	-167.930E-12	659.590E-3	-10.3332E-3
-3.97949E-3	-162.531E-12	646.040E-3	-20.6493E-3	-165.926E-12	673.202E-3	-14.2030E-3
-3.98449E-3	-164.222E-12	673.724E-3	-22.4806E-3	-165.670E-12	671.619E-3	-11.5933E-3
-3.98949E-3	-164.581E-12	690.427E-3	-12.6289E-3	-165.260E-12	677.456E-3	-18.2976E-3
-3.99450E-3	-163.805E-12	693.766E-3	-24.2261E-3	-165.662E-12	661.256E-3	-33.4631E-3
-3.99950E-3	-165.060E-12	671.255E-3	-37.2802E-3	-165.362E-12	636.696E-3	-31.8016E-3
-4.00450E-3	-166.690E-12	645.018E-3	-17.4563E-3	-165.652E-12	640.846E-3	-24.3838E-3
-4.00950E-3	-168.149E-12	651.545E-3	2.66009E-3	-165.807E-12	657.297E-3	-18.0696E-3
-4.01451E-3	-169.223E-12	669.744E-3	9.95138E-3	-166.746E-12	677.420E-3	-1.97587E-3
-4.01951E-3	-169.677E-12	688.253E-3	-2.02506E-3	-168.041E-12	700.855E-3	3.47301E-3
-4.02451E-3	-172.066E-12	691.909E-3	-19.9197E-3	-169.358E-12	711.198E-3	-5.94079E-3
-4.02951E-3	-172.015E-12	691.467E-3	-25.9714E-3	-170.602E-12	696.244E-3	-3.02202E-3
-4.03452E-3	-172.093E-12	686.824E-3	-23.6429E-3	-172.115E-12	699.073E-3	4.44883E-3
-4.03952E-3	-171.936E-12	664.299E-3	-18.3487E-3	-174.227E-12	717.893E-3	4.53947E-3
-4.04452E-3	-172.775E-12	659.251E-3	-21.6055E-3	-173.475E-12	708.457E-3	-4.85994E-3
-4.04952E-3	-172.361E-12	666.968E-3	-15.7557E-3	-174.827E-12	701.894E-3	-28.9698E-3
-4.05453E-3	-170.194E-12	668.320E-3	-6.04923E-3	-174.214E-12	693.380E-3	-30.1364E-3
-4.05953E-3	-170.554E-12	675.863E-3	-12.8715E-3	-174.321E-12	677.763E-3	3.67637E-3
-4.06453E-3	-170.709E-12	688.742E-3	-10.2905E-3	-173.086E-12	685.212E-3	7.62686E-3
-4.06953E-3	-170.452E-12	696.734E-3	7.12776E-3	-173.554E-12	681.628E-3	-21.8799E-3
-4.07454E-3	-168.478E-12	686.651E-3	-8.77219E-3	-172.433E-12	659.112E-3	-32.3911E-3
-4.07954E-3	-167.685E-12	675.067E-3	-35.4031E-3	-171.115E-12	645.394E-3	-29.6699E-3
-4.08454E-3	-169.190E-12	680.360E-3	-8.95816E-3	-169.719E-12	651.787E-3	-33.0736E-3
-4.08954E-3	-169.585E-12	667.449E-3	23.5057E-3	-169.805E-12	672.486E-3	-33.8982E-3
-4.09455E-3	-167.644E-12	652.079E-3	25.7484E-3	-170.253E-12	679.639E-3	-18.7754E-3
-4.09955E-3	-168.302E-12	660.273E-3	22.7643E-3	-170.395E-12	670.390E-3	13.3351E-3
-4.10455E-3	-171.303E-12	657.149E-3	15.9232E-3	-170.425E-12	657.176E-3	17.5556E-3
-4.10955E-3	-170.993E-12	645.203E-3	7.07414E-3	-170.839E-12	644.495E-3	-24.5940E-3
-4.11456E-3	-170.995E-12	660.712E-3	5.63014E-3	-171.302E-12	648.673E-3	-50.0622E-3
-4.11956E-3	-172.036E-12	685.351E-3	8.80911E-3	-171.545E-12	679.370E-3	-47.6057E-3
-4.12456E-3	-174.232E-12	685.431E-3	2.19335E-3	-172.410E-12	683.711E-3	-57.9432E-3
-4.12956E-3	-175.759E-12	668.430E-3	-26.4916E-3	-172.287E-12	661.117E-3	-49.3958E-3
-4.13457E-3	-175.301E-12	649.419E-3	-54.1963E-3	-172.976E-12	667.638E-3	-20.0713E-3
-4.13957E-3	-176.156E-12	650.311E-3	-48.1258E-3	-172.788E-12	675.470E-3	-22.4359E-3
-4.14457E-3	-176.840E-12	668.152E-3	-11.8687E-3	-173.604E-12	662.527E-3	-31.2301E-3
-4.14957E-3	-177.249E-12	686.324E-3	17.6116E-3	-173.992E-12	660.683E-3	-18.3183E-3
-4.15458E-3	-175.796E-12	708.395E-3	12.1447E-3	-173.046E-12	673.238E-3	-10.6617E-3
-4.15958E-3	-175.886E-12	705.791E-3	14.7591E-3	-174.500E-12	673.849E-3	-4.15057E-3
-4.16458E-3	-174.314E-12	676.006E-3	21.2067E-3	-174.087E-12	667.256E-3	16.6371E-3
-4.16958E-3	-172.926E-12	669.532E-3	2.92078E-3	-174.100E-12	656.954E-3	16.5693E-3
-4.17459E-3	-172.658E-12	672.919E-3	-22.8480E-3	-173.045E-12	648.879E-3	-17.8185E-3
-4.17959E-3	-171.087E-12	659.969E-3	-42.2950E-3	-173.981E-12	654.060E-3	-38.3516E-3
-4.18459E-3	-171.141E-12	645.018E-3	-18.0462E-3	-173.965E-12	646.182E-3	-46.2406E-3
-4.18959E-3	-172.606E-12	637.082E-3	4.16053E-3	-175.276E-12	633.670E-3	-44.2612E-3
-4.19460E-3	-172.804E-12	644.572E-3	-1.10675E-3	-175.401E-12	649.853E-3	-30.5883E-3
-4.19960E-3	-172.146E-12	652.824E-3	1.64317E-3	-176.266E-12	682.211E-3	-28.3589E-3
-4.20460E-3	-173.001E-12	660.035E-3	-2.13028E-3	-177.055E-12	686.557E-3	-15.0402E-3
-4.20960E-3	-174.972E-12	679.710E-3	-4.45270E-3	-177.375E-12	670.720E-3	7.95285E-3
-4.21461E-3	-176.974E-12	681.508E-3	-16.3710E-3	-177.884E-12	671.760E-3	2.05090E-3
-4.21961E-3	-178.951E-12	655.391E-3	-33.3564E-3	-175.543E-12	676.488E-3	-21.6017E-3
-4.22461E-3	-178.627E-12	642.020E-3	-21.3937E-3	-176.419E-12	669.202E-3	-29.6418E-3
-4.22961E-3	-179.800E-12	645.855E-3	-6.10082E-3	-176.916E-12	654.559E-3	-22.0396E-3
-4.23462E-3	-182.606E-12	652.881E-3	-14.5017E-3	-178.246E-12	659.615E-3	-8.41156E-3
-4.23962E-3	-186.099E-12	676.531E-3	-29.9694E-3	-177.446E-12	676.169E-3	11.2679E-3
-4.24462E-3	-183.510E-12	722.005E-3	-18.6998E-3	-178.786E-12	669.869E-3	2.04043E-3
-4.24962E-3	-182.755E-12	766.754E-3	656.347E-6	-179.017E-12	659.322E-3	-46.0329E-3
-4.25463E-3	-183.746E-12	761.451E-3	-16.7978E-3	-181.216E-12	652.079E-3	-63.7456E-3
-4.25963E-3	-185.415E-12	725.593E-3	-39.2865E-3	-182.337E-12	660.567E-3	-36.9134E-3
-4.26463E-3	-183.546E-12	687.494E-3	-30.5605E-3	-180.692E-12	693.447E-3	-21.2640E-3
-4.26963E-3	-179.595E-12	648.691E-3	-4.25389E-3	-181.985E-12	721.439E-3	-35.8619E-3
-4.27464E-3	-180.757E-12	656.181E-3	27.2601E-3	-182.322E-12	716.770E-3	-52.3198E-3
-4.27964E-3	-182.551E-12	666.056E-3	24.2250E-3	-183.721E-12	683.738E-3	-39.6399E-3
-4.28464E-3	-181.808E-12	646.933E-3	-10.9323E-3	-184.579E-12	677.624E-3	-8.33783E-3
-4.28964E-3	-178.580E-12	635.946E-3	-29.8739E-3	-183.413E-12	699.196E-3	6.53570E-3
-4.29465E-3	-178.495E-12	644.709E-3	-41.7430E-3	-183.873E-12	706.875E-3	-3.72614E-3
-4.29965E-3	-180.831E-12	684.351E-3	-66.0709E-3	-183.225E-12	684.395E-3	-20.6622E-3
-4.30465E-3	-183.335E-12	703.063E-3	-71.0723E-3	-183.377E-12	669.651E-3	-21.0769E-3
-4.30965E-3	-181.671E-12	695.160E-3	-60.1259E-3	-180.616E-12	696.810E-3	-29.9668E-3
-4.31466E-3	-181.168E-12	683.836E-3	-61.4545E-3	-180.985E-12	701.653E-3	-31.5525E-3
-4.31966E-3	-183.201E-12	655.738E-3	-55.3497E-3	-181.375E-12	673.206E-3	-14.2100E-3
-4.32466E-3	-187.659E-12	642.145E-3	-46.0489E-3	-180.958E-12	663.476E-3	-18.1485E-3
-4.32966E-3	-187.976E-12	646.333E-3	-43.5584E-3	-179.279E-12	663.273E-3	-23.0565E-3
-4.33467E-3	-187.706E-12	644.290E-3	-40.5957E-3	-178.011E-12	660.622E-3	-10.2737E-3
-4.33967E-3	-188.314E-12	636.508E-3	-38.6405E-3	-178.747E-12	670.305E-3	-13.4690E-3
-4.34467E-3	-188.742E-12	645.877E-3	-41.5961E-3	-180.394E-12	670.364E-3	-32.7935E-3
-4.34967E-3	-190.277E-12	687.503E-3	-48.1869E-3	-182.988E-12	662.401E-3	-30.8550E-3
-4.35468E-3	-188.670E-12	714.605E-3	-22.3725E-3	-182.489E-12	678.862E-3	-11.5642E-3
-4.35968E-3	-188.663E-12	712.606E-3	-22.4558E-3	-183.192E-12	689.570E-3	9.19949E-3
-4.36468E-3	-185.916E-12	710.742E-3	-50.8988E-3	-185.786E-12	668.928E-3	6.40638E-3
-4.36968E-3	-187.203E-12	691.075E-3	-23.2226E-3	-188.510E-12	661.439E-3	-22.4720E-3
-4.37469E-3	-186.354E-12	656.512E-3	-10.6266E-3	-189.520E-12	694.953E-3	-38.0932E-3
-4.37969E-3	-184.216E-12	657.149E-3	-30.0768E-3	-188.627E-12	725.356E-3	-46.2338E-3
-4.38469E-3	-183.667E-12	670.027E-3	-37.1565E-3	-189.176E-12	714.081E-3	-40.9277E-3
-4.38969E-3	-182.178E-12	657.560E-3	-37.4196E-3	-189.554E-12	679.092E-3	-14.8804E-3
-4.39470E-3	-183.360E-12	662.056E-3	-12.7653E-3	-191.672E-12	660.916E-3	-4.63319E-3
-4.39970E-3	-182.017E-12	668.768E-3	-2.54509E-3	-189.442E-12	665.366E-3	-76.0148E-6
-4.40470E-3	-181.337E-12	658.949E-3	-40.4514E-3	-185.767E-12	678.493E-3	10.9612E-3
-4.40970E-3	-181.213E-12	665.235E-3	-68.8109E-3	-185.660E-12	682.514E-3	-3.88582E-3
-4.41471E-3	-184.619E-12	648.511E-3	-55.5068E-3	-185.949E-12	666.685E-3	-22.0282E-3
-4.41971E-3	-185.470E-12	606.386E-3	-21.0805E-3	-186.427E-12	668.519E-3	-13.4315E-3
-4.42471E-3	-184.928E-12	595.876E-3	22.7100E-3	-183.228E-12	687.640E-3	-14.6676E-3
-4.42971E-3	-185.954E-12	625.004E-3	46.9335E-3	-183.507E-12	679.607E-3	-26.9802E-3
-4.43472E-3	-187.758E-12	668.302E-3	25.5705E-3	-185.041E-12	659.505E-3	-6.82193E-3
-4.43972E-3	-189.954E-12	690.683E-3	-11.4831E-3	-187.404E-12	657.206E-3	6.95167E-3
-4.44472E-3	-188.842E-12	696.841E-3	-11.7281E-3	-186.610E-12	657.194E-3	-4.21449E-3
-4.44972E-3	-190.111E-12	684.569E-3	7.30156E-3	-187.716E-12	659.717E-3	-3.06766E-3
-4.45473E-3	-189.106E-12	667.410E-3	-6.67277E-3	-190.259E-12	675.197E-3	-7.32260E-3
-4.45973E-3	-192.036E-12	685.234E-3	-15.6504E-3	-193.546E-12	682.335E-3	-15.1304E-3
-4.46473E-3	-193.700E-12	711.596E-3	-5.95625E-3	-194.912E-12	678.668E-3	6.92924E-3
-4.46973E-3	-193.304E-12	703.337E-3	-27.1744E-3	-193.814E-12	704.229E-3	2.93700E-3
-4.47474E-3	-190.013E-12	679.639E-3	-60.4746E-3	-194.694E-12	718.559E-3	-54.0865E-3
-4.47974E-3	-190.235E-12	666.125E-3	-54.4019E-3	-197.192E-12	693.155E-3	-66.3926E-3
-4.48474E-3	-190.743E-12	672.445E-3	-26.7504E-3	-197.126E-12	675.816E-3	-31.8063E-3
-4.48974E-3	-190.825E-12	702.867E-3	-24.3977E-3	-193.665E-12	667.763E-3	-13.1204E-3
-4.49475E-3	-189.931E-12	706.004E-3	-29.2747E-3	-191.418E-12	661.731E-3	7.98645E-3
-4.49975E-3	-189.800E-12	673.331E-3	-8.93170E-3	-189.986E-12	657.413E-3	7.84416E-3
-4.50475E-3	-190.185E-12	662.735E-3	4.36709E-3	-190.817E-12	643.175E-3	-29.0689E-3
-4.50975E-3	-190.759E-12	671.183E-3	-17.5440E-3	-188.877E-12	631.494E-3	-38.4822E-3
-4.51476E-3	-191.282E-12	672.516E-3	-26.1744E-3	-186.488E-12	640.960E-3	-26.5161E-3
-4.51976E-3	-190.919E-12	676.791E-3	-6.83426E-3	-186.264E-12	665.996E-3	-25.6235E-3
-4.52476E-3	-191.789E-12	690.053E-3	6.97239E-3	-185.983E-12	679.106E-3	-22.3520E-3
-4.52976E-3	-191.352E-12	696.395E-3	7.78595E-3	-188.530E-12	693.038E-3	-34.4864E-3
-4.53477E-3	-192.371E-12	687.960E-3	3.33596E-3	-187.060E-12	709.772E-3	-76.0068E-3
-4.53977E-3	-193.139E-12	672.519E-3	5.19007E-3	-188.809E-12	679.554E-3	-80.3368E-3
-4.54477E-3	-193.910E-12	673.981E-3	479.745E-6	-190.293E-12	650.871E-3	-36.1636E-3
-4.54977E-3	-195.005E-12	673.642E-3	-6.73462E-3	-192.558E-12	674.809E-3	-3.52195E-3
-4.55478E-3	-196.634E-12	653.834E-3	-7.97745E-3	-194.526E-12	691.591E-3	7.46369E-3
-4.55978E-3	-197.305E-12	660.583E-3	-13.3594E-3	-193.166E-12	703.570E-3	-2.11706E-3
-4.56478E-3	-197.324E-12	683.083E-3	-25.8787E-3	-195.662E-12	717.673E-3	-16.9508E-3
-4.56978E-3	-199.301E-12	688.590E-3	-37.1512E-3	-196.575E-12	678.551E-3	-10.3562E-3
-4.57479E-3	-198.603E-12	701.564E-3	-33.1973E-3	-198.360E-12	628.115E-3	-1.79502E-3
-4.57979E-3	-197.819E-12	710.544E-3	-33.4094E-3	-196.380E-12	634.403E-3	-8.34390E-3
-4.58479E-3	-196.638E-12	692.955E-3	-55.7814E-3	-196.118E-12	659.638E-3	-25.6671E-3
-4.58979E-3	-199.690E-12	694.222E-3	-56.8460E-3	-198.098E-12	684.891E-3	-11.5094E-3
-4.59480E-3	-198.170E-12	714.300E-3	-32.3105E-3	-197.569E-12	722.914E-3	14.0736E-3
-4.59980E-3	-195.406E-12	719.462E-3	-35.1550E-3	-196.461E-12	727.719E-3	-10.8035E-3
-4.60480E-3	-193.292E-12	711.795E-3	-51.0348E-3	-195.056E-12	734.542E-3	-35.0544E-3
-4.60980E-3	-194.563E-12	689.412E-3	-35.0146E-3	-198.866E-12	768.699E-3	-46.3813E-3
-4.61481E-3	-194.361E-12	677.968E-3	-15.3001E-3	-198.347E-12	749.921E-3	-57.6672E-3
-4.61981E-3	-193.358E-12	681.815E-3	-25.5125E-3	-197.753E-12	691.241E-3	-35.2745E-3
-4.62481E-3	-193.658E-12	676.431E-3	-34.9375E-3	-196.804E-12	664.199E-3	-15.6355E-3
-4.62981E-3	-193.455E-12	638.188E-3	-23.6832E-3	-198.718E-12	660.621E-3	-26.7886E-3
-4.63482E-3	-194.208E-12	602.560E-3	-18.3250E-3	-199.560E-12	650.379E-3	-28.2857E-3
-4.63982E-3	-195.588E-12	637.217E-3	-11.3370E-3	-197.168E-12	668.183E-3	-3.77381E-3
-4.64482E-3	-196.779E-12	680.044E-3	-14.8852E-3	-198.447E-12	701.987E-3	-3.00687E-3
-4.64982E-3	-196.342E-12	686.663E-3	-38.2159E-3	-197.394E-12	693.274E-3	-16.4619E-3
-4.65483E-3	-198.116E-12	694.469E-3	-37.9642E-3	-199.109E-12	692.378E-3	-24.5165E-3
-4.65983E-3	-201.500E-12	680.938E-3	-2.73204E-3	-197.960E-12	707.011E-3	-53.0852E-3
-4.66483E-3	-200.762E-12	664.765E-3	13.4940E-3	-199.327E-12	695.341E-3	-35.9489E-3
-4.66983E-3	-199.273E-12	664.906E-3	9.75523E-3	-196.776E-12	679.207E-3	21.5792E-3
-4.67484E-3	-199.362E-12	654.426E-3	24.3989E-3	-196.547E-12	676.129E-3	26.9412E-3
-4.67984E-3	-203.726E-12	661.155E-3	13.5678E-3	-199.092E-12	671.370E-3	6.38940E-3
-4.68484E-3	-202.724E-12	688.581E-3	-2.00496E-3	-199.657E-12	662.165E-3	11.8587E-3
-4.68984E-3	-199.597E-12	696.317E-3	15.9111E-3	-198.717E-12	656.534E-3	2.87280E-3
-4.69485E-3	-197.223E-12	676.615E-3	21.1562E-3	-197.745E-12	645.835E-3	-24.4243E-3
-4.69985E-3	-199.370E-12	675.875E-3	16.7307E-3	-200.417E-12	644.365E-3	-29.4028E-3
-4.70485E-3	-199.397E-12	678.270E-3	15.5895E-3	-200.922E-12	644.043E-3	-27.1576E-3
-4.70985E-3	-199.233E-12	665.497E-3	-8.56354E-3	-201.408E-12	641.466E-3	-37.9318E-3
-4.71486E-3	-196.215E-12	667.428E-3	-44.7990E-3	-199.528E-12	637.394E-3	-47.4897E-3
-4.71986E-3	-194.719E-12	661.278E-3	-36.3269E-3	-198.791E-12	632.570E-3	-34.2674E-3
-4.72486E-3	-199.363E-12	652.232E-3	694.903E-6	-200.314E-12	631.468E-3	-21.9290E-3
-4.72986E-3	-198.842E-12	659.480E-3	14.5941E-3	-201.302E-12	606.567E-3	-6.24942E-3
-4.73487E-3	-198.009E-12	661.337E-3	5.51553E-3	-200.708E-12	605.459E-3	-8.03164E-3
-4.73987E-3	-198.772E-12	643.652E-3	-33.5504E-3	-196.190E-12	638.080E-3	-46.5250E-3
-4.74487E-3	-203.005E-12	640.081E-3	-50.9380E-3	-196.800E-12	648.869E-3	-43.0222E-3
-4.74988E-3	-202.600E-12	654.763E-3	-9.41507E-3	-197.945E-12	659.339E-3	-9.29706E-3
-4.75488E-3	-203.406E-12	641.400E-3	6.48098E-3	-199.187E-12	650.875E-3	-12.9488E-3
-4.75988E-3	-203.584E-12	645.080E-3	-25.5165E-3	-196.005E-12	624.747E-3	-35.3387E-3
-4.76488E-3	-204.883E-12	686.996E-3	-31.7103E-3	-196.645E-12	639.820E-3	-48.9055E-3
-4.76988E-3	-205.001E-12	690.903E-3	-22.8195E-3	-199.237E-12	661.646E-3	-56.4651E-3
-4.77489E-3	-206.224E-12	665.186E-3	-43.3142E-3	-200.992E-12	689.223E-3	-36.3799E-3
-4.77989E-3	-204.673E-12	651.731E-3	-60.6543E-3	-201.002E-12	729.409E-3	-1.04292E-3
-4.78489E-3	-203.630E-12	657.793E-3	-52.3158E-3	-202.160E-12	728.863E-3	-6.06611E-3
-4.78989E-3	-204.568E-12	675.462E-3	-14.7882E-3	-205.390E-12	701.388E-3	-35.7569E-3
-4.79490E-3	-202.716E-12	685.492E-3	20.4180E-3	-209.356E-12	702.018E-3	-32.7081E-3
-4.79990E-3	-202.653E-12	678.769E-3	8.69805E-3	-208.207E-12	718.278E-3	3.22573E-3
-4.80490E-3	-200.800E-12	668.372E-3	-23.9338E-3	-208.177E-12	715.639E-3	17.2392E-3
-4.80990E-3	-199.665E-12	675.782E-3	-42.9422E-3	-207.318E-12	709.115E-3	-11.0704E-3
-4.81491E-3	-200.338E-12	655.169E-3	-44.6222E-3	-209.946E-12	682.879E-3	-38.2374E-3
-4.81991E-3	-201.607E-12	622.427E-3	-36.7429E-3	-208.808E-12	659.262E-3	-41.9511E-3
-4.82491E-3	-201.797E-12	629.230E-3	-13.1011E-3	-207.530E-12	673.979E-3	-27.4678E-3
-4.82991E-3	-200.968E-12	630.239E-3	18.2059E-3	-205.748E-12	669.733E-3	8.42862E-3
-4.83492E-3	-204.103E-12	641.089E-3	23.9911E-3	-204.853E-12	648.649E-3	28.1553E-3
-4.83992E-3	-205.618E-12	675.040E-3	-9.90678E-3	-204.836E-12	649.917E-3	10.8622E-3
-4.84492E-3	-207.081E-12	666.417E-3	-35.5637E-3	-203.053E-12	660.774E-3	-4.25166E-3
-4.84992E-3	-206.256E-12	648.898E-3	-19.5170E-3	-200.533E-12	651.553E-3	-5.25021E-3
-4.85493E-3	-206.661E-12	666.143E-3	7.65742E-3	-201.126E-12	631.333E-3	-3.71314E-3
-4.85993E-3	-208.965E-12	669.605E-3	5.82935E-3	-203.946E-12	631.891E-3	-14.4773E-3
-4.86493E-3	-209.855E-12	662.237E-3	-35.2181E-3	-203.181E-12	641.647E-3	-32.8088E-3
-4.86993E-3	-210.203E-12	679.872E-3	-39.6411E-3	-202.321E-12	682.748E-3	-26.5611E-3
-4.87494E-3	-208.728E-12	697.179E-3	2.32373E-3	-204.021E-12	718.853E-3	-12.8720E-3
-4.87994E-3	-210.082E-12	700.384E-3	420.332E-6	-206.355E-12	693.762E-3	-9.17547E-3
-4.88494E-3	-209.909E-12	700.391E-3	-33.5152E-3	-208.859E-12	681.319E-3	-10.9227E-3
-4.88995E-3	-209.168E-12	703.723E-3	-42.9501E-3	-209.398E-12	692.223E-3	-11.6286E-3
-4.89495E-3	-208.654E-12	701.635E-3	-33.9301E-3	-211.368E-12	684.604E-3	7.47232E-3
-4.89995E-3	-210.287E-12	691.181E-3	-16.7258E-3	-213.087E-12	686.500E-3	15.8609E-3
-4.90495E-3	-209.543E-12	664.623E-3	1.57476E-3	-215.112E-12	706.784E-3	-23.9745E-3
-4.90995E-3	-207.458E-12	628.300E-3	-6.48306E-3	-213.907E-12	709.793E-3	-49.0813E-3
-4.91496E-3	-207.118E-12	617.556E-3	-22.6934E-3	-212.342E-12	670.696E-3	-26.0073E-3
-4.91996E-3	-209.267E-12	630.536E-3	-33.8825E-3	-212.811E-12	635.270E-3	-16.8840E-3
-4.92496E-3	-209.526E-12	648.405E-3	-39.2882E-3	-212.931E-12	640.818E-3	-14.2624E-3
-4.92996E-3	-209.108E-12	656.784E-3	-21.0749E-3	-210.203E-12	660.859E-3	4.27275E-3
-4.93497E-3	-208.247E-12	654.257E-3	-5.98807E-3	-206.938E-12	667.944E-3	-146.685E-6
-4.93997E-3	-209.860E-12	662.243E-3	-9.66451E-3	-205.069E-12	661.624E-3	-19.1883E-3
-4.94497E-3	-210.277E-12	675.379E-3	-765.128E-6	-205.953E-12	671.367E-3	-35.6821E-3
-4.94997E-3	-209.791E-12	659.517E-3	-6.70104E-3	-209.276E-12	680.888E-3	-54.9223E-3
-4.95498E-3	-209.416E-12	623.245E-3	-34.1961E-3	-206.637E-12	659.561E-3	-47.6489E-3
-4.95998E-3	-210.858E-12	603.262E-3	-34.4124E-3	-203.097E-12	647.296E-3	4.72326E-3
-4.96498E-3	-210.878E-12	597.821E-3	-46.4407E-3	-205.617E-12	653.579E-3	28.9037E-3
-4.96998E-3	-210.564E-12	628.074E-3	-61.3866E-3	-210.160E-12	659.441E-3	22.6521E-6
-4.97499E-3	-210.991E-12	691.226E-3	-19.6012E-3	-209.679E-12	668.557E-3	-8.36763E-3
-4.97999E-3	-210.486E-12	708.657E-3	7.64629E-3	-207.059E-12	657.687E-3	-2.99867E-3
-4.98499E-3	-213.363E-12	677.975E-3	-34.0993E-3	-208.063E-12	629.205E-3	-10.9212E-3
-4.98999E-3	-214.545E-12	677.846E-3	-64.3222E-3	-212.101E-12	638.863E-3	-4.28299E-3
-4.99500E-3	-213.429E-12	695.177E-3	-55.3268E-3	-214.699E-12	682.678E-3	1.58944E-3
-5.00000E-3	-211.599E-12	691.549E-3	-26.0702E-3	-211.635E-12	696.036E-3	-4.35412E-3
