Experiment	bias spectroscopy	
Date	19.01.2016 18:50:30	
User		
X (m)	50.8957E-9	
Y (m)	256.7E-9	
Z (m)	-132.645E-9	
Z offset (m)	0E+0	
Settling time (s)	200E-6	
Integration time (s)	5E-3	
Z-Ctrl hold	TRUE	
Final Z (m)	N/A	
Filter type	None	
Order		
Cutoff frq		
Comment01	MnPc/Pb(111)	
Comment02	dz =00pm	
Comment03	7 Sweeps	
Comment04	MagField =0.T	
Comment05	Divider 1:10	
Comment06	Setpoint:5mV,200 pA	
Comment07	Lockin: 50uVrms,5ms,5mV	
Comment08	Gain:9; 912Hz modulation	
Comment09	T=1.06K	
Bias>Bias (V)	5E-3	
Bias>Calibration (V/V)	81.475E-3	
Bias>Offset (V)	1.046E-3	
Bias Spectroscopy>Sweep Start (V)	5E-3	
Bias Spectroscopy>Sweep End (V)	-5E-3	
Bias Spectroscopy>Num Pixel	2000	
Bias Spectroscopy>Z Avg time (s)	500E-3	
Bias Spectroscopy>Z offset (m)	0E+0	
Bias Spectroscopy>1st Settling time (s)	500E-3	
Bias Spectroscopy>Settling time (s)	200E-6	
Bias Spectroscopy>Integration time (s)	5E-3	
Bias Spectroscopy>End Settling time (s)	500E-3	
Bias Spectroscopy>Z control time (s)	500E-3	
Bias Spectroscopy>Max Slew rate (V/s)	Inf	
Bias Spectroscopy>backward sweep	TRUE	
Bias Spectroscopy>Z-controller hold	TRUE	
Bias Spectroscopy>Number of sweeps	7	
Bias Spectroscopy>Channels	Current (A);X% LockIn (V);Y% LockIn (V)	
Bias Spectroscopy>Reset Bias	TRUE	
Bias Spectroscopy>Record final Z	FALSE	
Bias Spectroscopy>Lock-In run	FALSE	
Bias Spectroscopy>Sweep mode	Linear	
Bias Spectroscopy>MultiLine Settings : Segment Start (V), Segment End (V), Settling (s), Integration (s), Steps (xn)	100E-3,3.3E-3,100E-6,10E-3,2500;3.3E-3,-3.3E-3,100E-6,10E-3,10;-3.3E-3,-100E-3,100E-6,10E-3,2500	
Current>Current (A)	200.654E-12	
Current>Calibration (A/V)	999.99900E-12	
Current>Offset (A)	-455.429E-15	
Current>Gain	LN 10^9	
Z-Controller>Z (m)	-132.648E-9	
Z-Controller>Controller name	log Current	
Z-Controller>Controller status	ON	
Z-Controller>Setpoint	200E-12	
Z-Controller>Setpoint unit	A	
Z-Controller>P gain	2.96994E-12	
Z-Controller>I gain	67.0321E-9	
Z-Controller>Time const (s)	44.3062E-6	
Z-Controller>TipLift (m)	0E+0	
Z-Controller>Switch off delay (s)	50E-3	
Current (A)	199.515E-12	
Z (m)	-132.648E-9	

[DATA]
Bias calc (V)	Current (A)	X% LockIn (V)	Y% LockIn (V)	Current [bwd] (A)	X% LockIn [bwd] (V)	Y% LockIn [bwd] (V)
5.00000E-3	193.722E-12	616.742E-3	-32.6371E-3	200.941E-12	624.322E-3	-41.5731E-3
4.99500E-3	195.857E-12	628.375E-3	8.04209E-3	201.048E-12	598.441E-3	-45.8332E-3
4.98999E-3	195.557E-12	606.927E-3	2.83190E-3	199.919E-12	611.641E-3	-8.10244E-3
4.98499E-3	192.891E-12	622.702E-3	-19.4193E-3	199.423E-12	641.379E-3	9.30465E-3
4.97999E-3	193.054E-12	678.875E-3	-13.8674E-3	195.610E-12	639.845E-3	-18.0213E-3
4.97499E-3	195.187E-12	675.704E-3	-3.87849E-3	193.681E-12	647.543E-3	-59.2800E-3
4.96998E-3	195.916E-12	647.661E-3	5.76604E-3	191.744E-12	661.967E-3	-55.5527E-3
4.96498E-3	194.069E-12	649.903E-3	-7.08828E-3	189.831E-12	655.535E-3	-7.09604E-3
4.95998E-3	192.610E-12	663.710E-3	-36.6404E-3	188.513E-12	634.139E-3	21.3394E-3
4.95498E-3	194.279E-12	656.685E-3	-52.6094E-3	186.757E-12	605.324E-3	15.3660E-3
4.94997E-3	194.553E-12	638.926E-3	-72.5799E-3	187.463E-12	592.091E-3	-2.60640E-3
4.94497E-3	194.525E-12	633.471E-3	-89.4137E-3	186.550E-12	606.767E-3	-14.0252E-3
4.93997E-3	192.727E-12	634.091E-3	-72.7237E-3	186.866E-12	631.038E-3	-3.35979E-3
4.93497E-3	193.568E-12	622.257E-3	-32.2854E-3	189.105E-12	638.737E-3	5.27939E-3
4.92996E-3	192.893E-12	604.493E-3	-23.5343E-3	192.343E-12	652.404E-3	-1.39342E-3
4.92496E-3	193.233E-12	602.164E-3	-38.6696E-3	194.362E-12	676.891E-3	7.91162E-3
4.91996E-3	191.488E-12	612.052E-3	-18.9384E-3	194.891E-12	684.215E-3	10.6641E-3
4.91496E-3	190.904E-12	618.262E-3	1.10986E-3	195.882E-12	675.951E-3	1.63670E-3
4.90995E-3	192.104E-12	617.367E-3	2.84393E-3	197.575E-12	666.964E-3	-5.05815E-3
4.90495E-3	191.848E-12	635.849E-3	3.28550E-3	199.119E-12	677.118E-3	-16.3898E-3
4.89995E-3	191.828E-12	656.148E-3	-13.0016E-3	198.556E-12	678.762E-3	-27.5933E-3
4.89495E-3	191.020E-12	663.029E-3	-33.7633E-3	196.725E-12	645.983E-3	-33.4265E-3
4.88995E-3	191.095E-12	673.578E-3	-15.2981E-3	196.629E-12	612.431E-3	-9.67646E-3
4.88494E-3	191.694E-12	673.311E-3	19.0247E-3	195.229E-12	601.078E-3	13.5398E-3
4.87994E-3	190.931E-12	646.376E-3	16.3666E-3	193.245E-12	597.765E-3	21.6551E-3
4.87494E-3	190.182E-12	618.511E-3	-176.096E-6	189.609E-12	605.030E-3	17.8037E-3
4.86993E-3	189.275E-12	617.232E-3	-11.1948E-3	187.931E-12	621.439E-3	-11.2220E-3
4.86493E-3	189.075E-12	620.816E-3	-25.6184E-3	186.904E-12	618.272E-3	-28.8805E-3
4.85993E-3	188.373E-12	611.957E-3	-16.1648E-3	186.327E-12	618.586E-3	-37.6335E-3
4.85493E-3	189.417E-12	600.867E-3	16.9625E-3	184.952E-12	631.754E-3	-22.5255E-3
4.84992E-3	188.447E-12	612.747E-3	32.6314E-3	183.140E-12	639.274E-3	17.5935E-3
4.84492E-3	186.941E-12	631.387E-3	28.4915E-3	183.256E-12	650.855E-3	-2.94677E-3
4.83992E-3	186.390E-12	618.881E-3	13.3039E-3	184.384E-12	634.757E-3	-37.5430E-3
4.83492E-3	187.210E-12	610.990E-3	5.23743E-3	187.221E-12	620.303E-3	-8.72819E-3
4.82991E-3	187.391E-12	627.880E-3	7.03780E-3	187.500E-12	645.984E-3	12.9990E-3
4.82491E-3	187.067E-12	644.059E-3	-3.13059E-3	187.103E-12	647.067E-3	5.53734E-3
4.81991E-3	186.525E-12	643.969E-3	-12.4379E-3	188.103E-12	621.830E-3	2.45701E-3
4.81491E-3	187.170E-12	621.273E-3	-19.5950E-3	192.572E-12	621.632E-3	-6.91561E-3
4.80990E-3	188.005E-12	620.011E-3	-20.1777E-3	193.620E-12	640.828E-3	2.09546E-3
4.80490E-3	188.236E-12	631.473E-3	-6.61809E-3	189.929E-12	659.511E-3	15.5253E-3
4.79990E-3	188.224E-12	639.217E-3	-3.40663E-3	189.671E-12	678.264E-3	4.26487E-3
4.79490E-3	187.513E-12	651.087E-3	-27.4746E-3	191.518E-12	687.878E-3	2.82085E-3
4.78989E-3	188.194E-12	629.451E-3	-48.2279E-3	193.174E-12	667.260E-3	5.43969E-3
4.78489E-3	187.343E-12	607.746E-3	-30.7568E-3	190.391E-12	622.327E-3	11.7967E-3
4.77989E-3	187.035E-12	610.209E-3	8.05924E-3	187.685E-12	598.877E-3	6.78679E-3
4.77489E-3	185.693E-12	608.824E-3	-1.81032E-3	187.214E-12	605.428E-3	-28.6484E-3
4.76988E-3	184.975E-12	615.139E-3	-46.0171E-3	187.842E-12	613.826E-3	-45.8848E-3
4.76488E-3	184.045E-12	617.962E-3	-50.1587E-3	186.161E-12	635.408E-3	-39.3538E-3
4.75988E-3	182.079E-12	623.540E-3	-35.3866E-3	182.752E-12	655.021E-3	-27.5821E-3
4.75488E-3	182.352E-12	644.430E-3	-22.3445E-3	181.670E-12	636.629E-3	-4.40995E-3
4.74988E-3	183.005E-12	659.549E-3	-7.07953E-3	182.204E-12	594.724E-3	12.8117E-3
4.74487E-3	183.291E-12	655.001E-3	-19.2084E-3	183.316E-12	574.838E-3	7.10552E-3
4.73987E-3	182.908E-12	620.778E-3	-49.7152E-3	181.788E-12	592.759E-3	-9.64848E-3
4.73487E-3	183.609E-12	611.515E-3	-63.2308E-3	180.981E-12	613.734E-3	-1.25321E-3
4.72986E-3	185.034E-12	639.755E-3	-55.0457E-3	183.068E-12	622.629E-3	12.3222E-3
4.72486E-3	184.076E-12	665.158E-3	-47.6431E-3	184.114E-12	622.810E-3	-13.0643E-3
4.71986E-3	184.550E-12	684.640E-3	-61.7854E-3	184.753E-12	631.628E-3	-32.9025E-3
4.71486E-3	185.292E-12	672.724E-3	-76.2367E-3	185.437E-12	657.502E-3	-10.1975E-3
4.70985E-3	185.006E-12	644.988E-3	-64.0872E-3	186.495E-12	672.594E-3	5.70446E-3
4.70485E-3	184.001E-12	637.122E-3	-29.7891E-3	187.444E-12	667.652E-3	3.61468E-3
4.69985E-3	183.771E-12	641.547E-3	-21.9807E-3	188.518E-12	669.756E-3	12.7950E-3
4.69485E-3	182.983E-12	650.209E-3	-30.8125E-3	189.426E-12	673.905E-3	10.7347E-3
4.68984E-3	181.746E-12	648.962E-3	-24.5061E-3	187.348E-12	664.867E-3	-6.91989E-3
4.68484E-3	181.113E-12	631.164E-3	-23.0918E-3	187.102E-12	655.981E-3	3.35665E-3
4.67984E-3	180.143E-12	615.486E-3	-20.8720E-3	187.241E-12	646.627E-3	16.9623E-3
4.67484E-3	179.539E-12	623.191E-3	-20.4145E-3	187.798E-12	644.563E-3	-23.5716E-3
4.66983E-3	177.393E-12	626.123E-3	-22.9919E-3	185.230E-12	634.640E-3	-71.5725E-3
4.66483E-3	178.449E-12	612.364E-3	-22.2852E-3	182.592E-12	622.075E-3	-72.2497E-3
4.65983E-3	178.619E-12	619.024E-3	-15.3197E-3	182.354E-12	624.685E-3	-50.3428E-3
4.65483E-3	178.091E-12	624.387E-3	-12.6892E-3	182.878E-12	623.792E-3	-16.6933E-3
4.64982E-3	178.462E-12	614.789E-3	-25.0725E-3	180.368E-12	624.640E-3	17.4326E-3
4.64482E-3	177.947E-12	622.854E-3	-26.2116E-3	177.001E-12	624.569E-3	2.20611E-3
4.63982E-3	179.425E-12	631.504E-3	-28.7885E-3	177.347E-12	623.580E-3	-24.6213E-3
4.63482E-3	180.396E-12	612.390E-3	-48.1311E-3	177.708E-12	628.552E-3	-12.6971E-3
4.62981E-3	179.914E-12	589.348E-3	-57.1201E-3	178.353E-12	629.176E-3	393.083E-6
4.62481E-3	178.842E-12	593.981E-3	-46.6963E-3	177.094E-12	631.976E-3	7.89323E-3
4.61981E-3	180.078E-12	620.028E-3	-26.4053E-3	176.970E-12	651.997E-3	19.4364E-3
4.61481E-3	180.916E-12	641.931E-3	-24.1415E-3	178.512E-12	668.287E-3	21.1732E-3
4.60980E-3	180.103E-12	640.660E-3	-43.4229E-3	180.588E-12	663.750E-3	18.3319E-3
4.60480E-3	178.330E-12	633.750E-3	-28.5060E-3	181.742E-12	666.295E-3	6.11079E-3
4.59980E-3	176.768E-12	626.277E-3	-10.1364E-3	180.305E-12	674.744E-3	-6.80405E-3
4.59480E-3	177.960E-12	617.006E-3	-34.5426E-3	180.591E-12	671.426E-3	-6.73512E-3
4.58979E-3	177.264E-12	625.595E-3	-38.2100E-3	181.871E-12	672.262E-3	-6.01440E-3
4.58479E-3	175.337E-12	617.843E-3	-26.9816E-3	182.180E-12	670.189E-3	-6.97452E-3
4.57979E-3	173.985E-12	585.041E-3	-47.5158E-3	180.771E-12	655.082E-3	-20.8816E-3
4.57479E-3	175.243E-12	573.771E-3	-52.0015E-3	180.530E-12	626.920E-3	-36.3176E-3
4.56978E-3	175.159E-12	615.153E-3	-36.5237E-3	179.848E-12	612.254E-3	-34.7125E-3
4.56478E-3	176.104E-12	676.258E-3	-36.9197E-3	179.116E-12	638.245E-3	-20.3094E-3
4.55978E-3	175.468E-12	686.287E-3	-31.9858E-3	177.225E-12	657.249E-3	-2.58947E-3
4.55478E-3	175.468E-12	652.194E-3	-28.9712E-3	174.575E-12	639.066E-3	-3.09344E-3
4.54977E-3	176.902E-12	650.130E-3	-29.8148E-3	173.073E-12	608.415E-3	-3.84447E-3
4.54477E-3	176.656E-12	674.308E-3	-20.3446E-3	172.812E-12	584.440E-3	6.52369E-3
4.53977E-3	176.593E-12	671.171E-3	-16.3459E-3	170.586E-12	585.410E-3	-428.354E-6
4.53477E-3	177.551E-12	668.650E-3	-26.8467E-3	169.761E-12	614.227E-3	-12.2188E-3
4.52976E-3	177.288E-12	675.213E-3	-30.3112E-3	170.544E-12	642.752E-3	-13.6865E-3
4.52476E-3	176.763E-12	665.218E-3	-22.7180E-3	169.289E-12	645.983E-3	-21.0518E-3
4.51976E-3	175.948E-12	654.501E-3	-28.6255E-3	169.045E-12	624.674E-3	-34.4039E-3
4.51476E-3	175.179E-12	665.884E-3	-38.2616E-3	171.441E-12	632.887E-3	-30.7400E-3
4.50975E-3	173.922E-12	663.347E-3	-27.4325E-3	173.112E-12	675.695E-3	-14.8796E-3
4.50475E-3	175.436E-12	660.522E-3	-4.83275E-3	173.666E-12	686.871E-3	-15.8203E-3
4.49975E-3	174.979E-12	658.054E-3	2.43315E-3	175.329E-12	676.253E-3	-17.8598E-3
4.49475E-3	174.941E-12	644.054E-3	-2.55987E-3	177.389E-12	676.263E-3	-14.8073E-3
4.48974E-3	173.143E-12	652.329E-3	-21.7764E-3	177.996E-12	659.497E-3	-4.60568E-3
4.48474E-3	174.051E-12	657.921E-3	-45.3547E-3	177.862E-12	635.324E-3	8.88109E-3
4.47974E-3	173.995E-12	652.587E-3	-47.6098E-3	178.852E-12	647.479E-3	-2.12020E-3
4.47474E-3	173.671E-12	635.867E-3	-34.1005E-3	178.033E-12	657.170E-3	-1.06390E-3
4.46973E-3	172.908E-12	623.867E-3	-22.1153E-3	177.095E-12	634.142E-3	16.7429E-3
4.46473E-3	173.503E-12	625.311E-3	-10.6441E-3	175.832E-12	610.528E-3	3.67417E-3
4.45973E-3	173.547E-12	607.905E-3	-19.0786E-3	174.623E-12	606.656E-3	-10.4441E-3
4.45473E-3	173.350E-12	611.007E-3	-29.7030E-3	172.820E-12	611.715E-3	-3.54381E-3
4.44972E-3	174.241E-12	656.112E-3	-7.28788E-3	170.744E-12	602.565E-3	410.156E-6
4.44472E-3	172.328E-12	668.998E-3	-3.34662E-3	170.166E-12	593.881E-3	3.74597E-3
4.43972E-3	172.459E-12	647.829E-3	-28.1995E-3	168.723E-12	591.238E-3	949.009E-6
4.43472E-3	173.022E-12	634.894E-3	-49.9840E-3	167.925E-12	601.387E-3	-12.1501E-3
4.42971E-3	174.050E-12	640.746E-3	-51.3935E-3	167.013E-12	616.183E-3	-12.7674E-3
4.42471E-3	171.530E-12	664.438E-3	-27.1516E-3	168.145E-12	621.455E-3	5.85424E-3
4.41971E-3	170.434E-12	667.385E-3	371.651E-6	168.339E-12	616.636E-3	13.1543E-3
4.41471E-3	170.350E-12	639.669E-3	2.82012E-3	168.657E-12	611.479E-3	-3.21810E-3
4.40970E-3	170.318E-12	624.104E-3	-21.2975E-3	169.858E-12	627.733E-3	-27.4825E-3
4.40470E-3	169.343E-12	631.318E-3	-51.8931E-3	170.425E-12	630.015E-3	-35.3839E-3
4.39970E-3	167.976E-12	649.945E-3	-64.1180E-3	171.688E-12	623.167E-3	-30.3291E-3
4.39470E-3	169.602E-12	662.970E-3	-47.5584E-3	172.596E-12	631.398E-3	-49.2543E-3
4.38969E-3	169.792E-12	640.036E-3	-27.6249E-3	173.738E-12	613.312E-3	-79.4894E-3
4.38469E-3	169.149E-12	630.898E-3	-5.90855E-3	173.035E-12	596.818E-3	-68.0009E-3
4.37969E-3	169.105E-12	642.204E-3	14.4829E-3	174.638E-12	610.858E-3	-25.2693E-3
4.37469E-3	170.138E-12	629.806E-3	-5.25047E-3	175.040E-12	642.052E-3	-6.94218E-3
4.36968E-3	171.474E-12	640.688E-3	-31.6927E-3	175.205E-12	678.037E-3	-29.7112E-3
4.36468E-3	170.852E-12	664.586E-3	-31.0778E-3	172.918E-12	666.514E-3	-65.0486E-3
4.35968E-3	168.394E-12	670.033E-3	-13.4053E-3	172.027E-12	634.256E-3	-72.2118E-3
4.35468E-3	168.479E-12	661.771E-3	-3.78346E-3	171.670E-12	637.785E-3	-50.6801E-3
4.34967E-3	170.273E-12	635.300E-3	-28.6249E-3	169.730E-12	650.446E-3	-37.2066E-3
4.34467E-3	169.161E-12	627.368E-3	-38.5344E-3	166.619E-12	651.711E-3	-48.1753E-3
4.33967E-3	166.025E-12	659.443E-3	-1.70198E-3	165.200E-12	642.145E-3	-69.4049E-3
4.33467E-3	166.343E-12	669.116E-3	13.3923E-3	164.805E-12	620.848E-3	-75.9668E-3
4.32966E-3	166.970E-12	641.240E-3	-19.5073E-3	164.038E-12	596.716E-3	-48.5500E-3
4.32466E-3	166.129E-12	612.728E-3	-32.3839E-3	162.704E-12	580.988E-3	2.15996E-3
4.31966E-3	164.519E-12	609.756E-3	-23.6031E-3	161.310E-12	584.043E-3	44.6177E-3
4.31466E-3	163.893E-12	624.935E-3	-20.8655E-3	161.046E-12	605.311E-3	43.1559E-3
4.30965E-3	165.081E-12	610.399E-3	-17.1185E-3	162.606E-12	621.783E-3	-4.48322E-3
4.30465E-3	165.235E-12	590.685E-3	59.8409E-6	162.929E-12	621.363E-3	-37.0557E-3
4.29965E-3	165.063E-12	594.959E-3	32.2462E-3	163.669E-12	614.395E-3	-19.2335E-3
4.29465E-3	164.803E-12	595.572E-3	26.5629E-3	163.831E-12	614.075E-3	-7.75388E-3
4.28964E-3	165.508E-12	595.561E-3	-18.7255E-3	166.261E-12	623.021E-3	-27.6635E-3
4.28464E-3	168.467E-12	608.279E-3	-34.5391E-3	166.931E-12	632.729E-3	-28.4901E-3
4.27964E-3	167.974E-12	618.661E-3	-34.6026E-3	167.635E-12	649.038E-3	-8.24884E-3
4.27464E-3	166.116E-12	621.010E-3	-17.0571E-3	167.758E-12	646.214E-3	-18.9942E-3
4.26963E-3	164.887E-12	631.614E-3	30.3081E-3	169.180E-12	633.174E-3	-30.3769E-3
4.26463E-3	166.379E-12	641.481E-3	31.0223E-3	168.303E-12	636.672E-3	-34.8544E-3
4.25963E-3	165.579E-12	645.160E-3	-5.68593E-3	167.099E-12	630.712E-3	-47.6725E-3
4.25463E-3	164.402E-12	656.788E-3	-13.8723E-3	166.655E-12	631.990E-3	-24.8113E-3
4.24962E-3	162.530E-12	659.270E-3	-6.94288E-3	165.572E-12	643.592E-3	8.46586E-3
4.24462E-3	162.676E-12	638.349E-3	1.18997E-3	164.351E-12	630.545E-3	8.88504E-3
4.23962E-3	161.896E-12	623.436E-3	6.57078E-3	162.675E-12	618.520E-3	-17.0020E-3
4.23462E-3	161.106E-12	649.282E-3	-12.6116E-3	162.111E-12	609.174E-3	-40.0443E-3
4.22961E-3	159.689E-12	662.051E-3	-36.8890E-3	160.171E-12	598.863E-3	-36.5334E-3
4.22461E-3	159.511E-12	619.362E-3	-28.9979E-3	159.337E-12	609.054E-3	-31.8036E-3
4.21961E-3	161.301E-12	606.605E-3	2.29636E-3	158.449E-12	608.578E-3	-47.2406E-3
4.21461E-3	161.359E-12	642.808E-3	24.6179E-3	157.513E-12	590.183E-3	-48.5311E-3
4.20960E-3	161.023E-12	653.502E-3	10.3894E-3	157.713E-12	572.637E-3	-55.0912E-3
4.20460E-3	160.556E-12	642.894E-3	-21.3370E-3	158.164E-12	586.214E-3	-53.7981E-3
4.19960E-3	161.278E-12	651.787E-3	-10.0604E-3	159.291E-12	631.257E-3	-16.8129E-3
4.19460E-3	161.832E-12	677.865E-3	11.1613E-3	159.518E-12	649.694E-3	-1.52501E-3
4.18959E-3	160.963E-12	674.072E-3	-9.57940E-3	159.946E-12	647.985E-3	-13.0953E-3
4.18459E-3	160.173E-12	652.188E-3	-44.4304E-3	160.710E-12	655.709E-3	-28.3855E-3
4.17959E-3	160.079E-12	646.073E-3	-45.2033E-3	161.950E-12	653.899E-3	-26.5882E-3
4.17459E-3	160.002E-12	642.153E-3	-16.7947E-3	162.789E-12	665.513E-3	-1.71747E-3
4.16958E-3	159.160E-12	646.143E-3	-4.66642E-3	162.780E-12	669.100E-3	11.6762E-3
4.16458E-3	158.235E-12	653.429E-3	-10.5441E-3	162.579E-12	628.542E-3	11.8804E-3
4.15958E-3	158.390E-12	660.791E-3	-38.5936E-3	163.791E-12	610.856E-3	3.30835E-3
4.15458E-3	158.914E-12	673.894E-3	-73.5633E-3	163.539E-12	615.084E-3	-40.3208E-3
4.14957E-3	158.463E-12	667.502E-3	-74.0532E-3	163.112E-12	599.976E-3	-71.5691E-3
4.14457E-3	156.784E-12	648.287E-3	-38.8445E-3	161.706E-12	606.840E-3	-56.4734E-3
4.13957E-3	156.315E-12	645.719E-3	-9.32342E-3	161.042E-12	617.049E-3	-26.5180E-3
4.13457E-3	157.327E-12	634.769E-3	-18.6418E-3	160.411E-12	608.372E-3	-2.75690E-3
4.12956E-3	158.760E-12	597.559E-3	-29.9050E-3	159.697E-12	616.896E-3	-9.91287E-3
4.12456E-3	159.076E-12	591.775E-3	-5.65192E-3	157.275E-12	631.376E-3	-12.0194E-3
4.11956E-3	158.879E-12	623.385E-3	22.9871E-3	156.588E-12	636.235E-3	17.2144E-3
4.11456E-3	157.772E-12	617.975E-3	33.2377E-3	156.212E-12	624.891E-3	15.8405E-3
4.10955E-3	160.166E-12	605.024E-3	30.2971E-3	155.931E-12	601.178E-3	-12.1200E-3
4.10455E-3	159.737E-12	626.416E-3	4.79271E-3	155.746E-12	605.056E-3	-20.7216E-3
4.09955E-3	159.752E-12	643.103E-3	-33.2095E-3	154.579E-12	637.991E-3	-8.16531E-3
4.09455E-3	158.146E-12	649.062E-3	-46.8549E-3	155.177E-12	657.284E-3	7.28557E-3
4.08954E-3	158.613E-12	665.771E-3	-20.6390E-3	155.425E-12	655.077E-3	79.0666E-6
4.08454E-3	159.311E-12	674.218E-3	8.31520E-3	155.951E-12	651.236E-3	-19.4622E-3
4.07954E-3	157.500E-12	661.986E-3	-4.77452E-3	156.521E-12	643.184E-3	-41.8638E-3
4.07454E-3	155.911E-12	634.438E-3	-57.8185E-3	157.617E-12	625.560E-3	-48.4320E-3
4.06953E-3	155.861E-12	600.238E-3	-80.5816E-3	158.299E-12	630.343E-3	-21.2722E-3
4.06453E-3	156.945E-12	598.359E-3	-40.8317E-3	158.710E-12	662.223E-3	-8.93946E-3
4.05953E-3	156.139E-12	608.064E-3	-1.70226E-3	159.565E-12	690.419E-3	-27.8080E-3
4.05453E-3	155.420E-12	625.400E-3	13.6976E-3	159.428E-12	698.887E-3	-45.2826E-3
4.04952E-3	154.981E-12	645.683E-3	25.7101E-3	160.143E-12	673.029E-3	-35.9340E-3
4.04452E-3	155.153E-12	609.717E-3	36.8371E-3	159.053E-12	629.086E-3	-15.0429E-3
4.03952E-3	156.541E-12	561.473E-3	24.7677E-3	158.193E-12	617.612E-3	4.59705E-3
4.03452E-3	155.675E-12	579.798E-3	-11.2341E-3	156.759E-12	634.759E-3	24.2765E-3
4.02951E-3	154.647E-12	634.952E-3	-31.7309E-3	155.549E-12	642.764E-3	11.4392E-3
4.02451E-3	154.967E-12	663.015E-3	-24.8455E-3	155.219E-12	638.290E-3	-15.7235E-3
4.01951E-3	155.593E-12	689.608E-3	-4.23108E-3	153.265E-12	623.458E-3	-15.5342E-3
4.01451E-3	154.642E-12	714.664E-3	18.2049E-3	150.980E-12	602.117E-3	1.61366E-3
4.00950E-3	152.712E-12	689.027E-3	21.1256E-3	149.800E-12	581.736E-3	-9.50756E-3
4.00450E-3	153.295E-12	636.754E-3	20.1527E-3	150.206E-12	588.996E-3	-28.7006E-3
3.99950E-3	152.383E-12	612.450E-3	23.0952E-3	150.009E-12	623.309E-3	-32.0111E-3
3.99450E-3	151.264E-12	624.737E-3	24.7831E-3	149.205E-12	644.678E-3	-31.5630E-3
3.98949E-3	150.219E-12	643.707E-3	25.5066E-3	148.539E-12	637.338E-3	-19.3368E-3
3.98449E-3	150.142E-12	654.968E-3	14.8003E-3	150.182E-12	622.597E-3	-14.8278E-3
3.97949E-3	151.131E-12	653.414E-3	11.6596E-3	153.242E-12	625.267E-3	-30.9181E-3
3.97449E-3	150.379E-12	639.873E-3	23.4560E-3	153.904E-12	654.458E-3	-46.1711E-3
3.96948E-3	149.291E-12	644.559E-3	19.7790E-3	152.680E-12	680.884E-3	-44.6890E-3
3.96448E-3	149.736E-12	660.324E-3	8.47127E-3	152.651E-12	676.644E-3	-52.9669E-3
3.95948E-3	152.311E-12	656.502E-3	9.98320E-3	155.719E-12	656.226E-3	-58.6058E-3
3.95448E-3	152.681E-12	644.898E-3	2.36299E-3	157.538E-12	648.552E-3	-37.9154E-3
3.94947E-3	151.784E-12	643.270E-3	-20.3283E-3	155.626E-12	658.464E-3	-39.0639E-3
3.94447E-3	151.537E-12	651.003E-3	-29.3247E-3	153.728E-12	659.209E-3	-35.1779E-3
3.93947E-3	150.590E-12	642.232E-3	-38.4816E-3	154.390E-12	645.955E-3	-8.84233E-3
3.93447E-3	151.438E-12	639.806E-3	-55.5278E-3	154.396E-12	634.525E-3	-9.81437E-3
3.92946E-3	150.633E-12	651.941E-3	-39.8896E-3	152.210E-12	627.727E-3	-13.5889E-3
3.92446E-3	150.151E-12	640.612E-3	-27.1255E-3	148.717E-12	621.211E-3	-14.3411E-3
3.91946E-3	148.829E-12	625.738E-3	-39.7672E-3	148.386E-12	608.577E-3	-37.8598E-3
3.91446E-3	148.617E-12	625.661E-3	-32.8995E-3	147.825E-12	596.899E-3	-33.2067E-3
3.90945E-3	148.111E-12	620.681E-3	-18.6986E-3	146.825E-12	593.289E-3	-9.63364E-3
3.90445E-3	146.429E-12	615.710E-3	-23.2191E-3	144.438E-12	601.009E-3	-13.9377E-3
3.89945E-3	145.047E-12	624.669E-3	-33.4896E-3	143.792E-12	627.343E-3	-27.5247E-3
3.89445E-3	143.931E-12	627.956E-3	-36.5069E-3	144.417E-12	646.092E-3	-57.9589E-3
3.88944E-3	144.336E-12	616.205E-3	-34.9891E-3	145.327E-12	630.302E-3	-77.7240E-3
3.88444E-3	144.185E-12	620.059E-3	-21.8145E-3	145.403E-12	614.148E-3	-61.8999E-3
3.87944E-3	143.781E-12	634.590E-3	-13.6446E-3	145.247E-12	622.845E-3	-53.0718E-3
3.87444E-3	143.414E-12	620.561E-3	-17.3297E-3	146.136E-12	641.029E-3	-37.2186E-3
3.86943E-3	144.545E-12	590.570E-3	-17.7809E-3	149.260E-12	661.238E-3	-10.2845E-3
3.86443E-3	144.975E-12	566.750E-3	-11.2155E-3	150.445E-12	658.000E-3	-13.6358E-3
3.85943E-3	144.684E-12	581.786E-3	-577.463E-6	149.908E-12	643.530E-3	-19.6879E-3
3.85443E-3	145.190E-12	633.525E-3	-1.00842E-3	150.478E-12	655.031E-3	-10.9118E-3
3.84942E-3	146.284E-12	661.188E-3	-4.09649E-3	151.823E-12	683.185E-3	-11.5088E-3
3.84442E-3	148.413E-12	652.929E-3	1.06344E-3	151.870E-12	681.584E-3	6.48972E-3
3.83942E-3	147.411E-12	642.189E-3	3.71995E-3	149.611E-12	627.798E-3	40.8040E-3
3.83442E-3	146.001E-12	629.045E-3	-5.99917E-3	148.404E-12	604.092E-3	38.2839E-3
3.82941E-3	145.958E-12	634.134E-3	-17.1477E-3	147.829E-12	635.263E-3	8.79062E-3
3.82441E-3	146.490E-12	662.291E-3	-24.3648E-3	147.286E-12	665.308E-3	-24.6910E-3
3.81941E-3	145.922E-12	675.402E-3	-26.4764E-3	146.509E-12	677.629E-3	-44.2722E-3
3.81441E-3	144.216E-12	686.287E-3	-17.5625E-3	145.077E-12	666.634E-3	-23.5516E-3
3.80940E-3	143.582E-12	680.337E-3	-15.3377E-3	144.851E-12	636.187E-3	-3.22936E-3
3.80440E-3	143.655E-12	659.520E-3	-29.9281E-3	143.418E-12	613.716E-3	-12.8759E-3
3.79940E-3	143.978E-12	655.912E-3	-41.2160E-3	143.893E-12	609.314E-3	-19.0331E-3
3.79440E-3	142.982E-12	646.946E-3	-48.7735E-3	143.528E-12	623.523E-3	-4.16859E-3
3.78939E-3	142.502E-12	630.009E-3	-44.9955E-3	143.944E-12	662.235E-3	15.6561E-3
3.78439E-3	142.261E-12	620.576E-3	-12.9567E-3	143.944E-12	681.016E-3	8.56703E-3
3.77939E-3	142.575E-12	618.903E-3	8.22121E-3	144.809E-12	649.793E-3	-9.52258E-3
3.77439E-3	142.601E-12	632.119E-3	1.47058E-3	145.869E-12	608.597E-3	-20.4597E-3
3.76938E-3	143.406E-12	653.289E-3	-756.295E-6	144.878E-12	612.691E-3	-19.7740E-3
3.76438E-3	143.391E-12	653.307E-3	681.720E-6	144.842E-12	646.775E-3	10.7429E-3
3.75938E-3	143.252E-12	633.032E-3	-14.0743E-3	145.520E-12	670.411E-3	19.0792E-3
3.75438E-3	143.413E-12	624.556E-3	-40.8502E-3	146.209E-12	680.096E-3	1.02151E-3
3.74937E-3	145.405E-12	635.612E-3	-72.3841E-3	146.361E-12	677.411E-3	6.67992E-3
3.74437E-3	145.672E-12	646.792E-3	-74.5270E-3	146.923E-12	683.535E-3	3.36789E-3
3.73937E-3	144.039E-12	647.761E-3	-29.0920E-3	146.986E-12	692.637E-3	-9.67841E-3
3.73437E-3	144.471E-12	653.353E-3	11.7800E-3	146.204E-12	679.616E-3	-16.3285E-3
3.72936E-3	145.426E-12	667.949E-3	19.7148E-3	145.399E-12	650.002E-3	-24.8066E-3
3.72436E-3	145.182E-12	660.989E-3	3.61192E-3	145.609E-12	634.700E-3	-29.0744E-3
3.71936E-3	143.942E-12	645.293E-3	-8.36531E-3	144.665E-12	641.466E-3	-33.4320E-3
3.71436E-3	143.294E-12	646.944E-3	1.29769E-3	142.360E-12	654.807E-3	-39.6704E-3
3.70935E-3	142.532E-12	662.342E-3	2.86896E-3	141.136E-12	663.331E-3	-31.2119E-3
3.70435E-3	144.198E-12	667.832E-3	2.28649E-3	140.294E-12	661.256E-3	-724.287E-6
3.69935E-3	143.850E-12	651.464E-3	-4.45345E-3	140.057E-12	661.632E-3	21.9871E-3
3.69435E-3	142.008E-12	636.357E-3	-32.1542E-3	138.888E-12	664.015E-3	11.9585E-3
3.68934E-3	140.683E-12	644.540E-3	-43.7153E-3	137.960E-12	662.458E-3	-2.73434E-3
3.68434E-3	141.844E-12	666.770E-3	-23.1091E-3	137.468E-12	663.081E-3	-1.45365E-3
3.67934E-3	143.267E-12	666.812E-3	-10.0788E-3	136.574E-12	668.346E-3	3.41172E-3
3.67434E-3	141.023E-12	668.035E-3	-14.6857E-3	136.562E-12	668.829E-3	4.60837E-3
3.66933E-3	140.045E-12	675.035E-3	-9.77121E-3	137.070E-12	665.682E-3	5.73423E-3
3.66433E-3	140.629E-12	650.243E-3	-23.9209E-3	137.551E-12	654.562E-3	-5.44971E-3
3.65933E-3	141.074E-12	632.910E-3	-29.2985E-3	137.400E-12	631.224E-3	-37.2342E-3
3.65433E-3	138.892E-12	641.488E-3	2.44796E-3	138.213E-12	606.951E-3	-52.5321E-3
3.64932E-3	136.947E-12	632.018E-3	-3.30629E-3	139.509E-12	602.989E-3	-48.9821E-3
3.64432E-3	136.940E-12	635.527E-3	-25.2067E-3	138.819E-12	644.356E-3	-36.8630E-3
3.63932E-3	138.269E-12	662.302E-3	-24.7272E-3	138.503E-12	708.863E-3	-16.9098E-3
3.63432E-3	139.576E-12	648.286E-3	-20.6110E-3	138.945E-12	722.983E-3	201.347E-6
3.62931E-3	137.618E-12	632.910E-3	-4.11415E-3	139.386E-12	676.068E-3	4.35633E-3
3.62431E-3	137.723E-12	655.652E-3	-11.6173E-3	139.247E-12	646.564E-3	-5.84916E-3
3.61931E-3	138.758E-12	665.883E-3	-37.2683E-3	138.722E-12	630.592E-3	-15.2604E-3
3.61431E-3	139.978E-12	650.526E-3	-32.2314E-3	138.241E-12	609.711E-3	-25.2598E-3
3.60930E-3	138.459E-12	652.803E-3	-22.8141E-3	136.828E-12	623.007E-3	-31.7122E-3
3.60430E-3	136.596E-12	665.598E-3	-13.7043E-3	135.269E-12	650.744E-3	-41.2755E-3
3.59930E-3	137.019E-12	656.208E-3	4.90138E-3	134.938E-12	651.185E-3	-47.3984E-3
3.59430E-3	137.871E-12	640.147E-3	-8.89309E-3	133.248E-12	639.143E-3	-32.1188E-3
3.58929E-3	136.217E-12	631.456E-3	-22.6596E-3	132.620E-12	621.294E-3	-14.0444E-3
3.58429E-3	134.928E-12	637.886E-3	-1.98926E-3	131.881E-12	599.099E-3	2.82322E-3
3.57929E-3	134.893E-12	639.861E-3	14.1796E-3	131.649E-12	602.283E-3	15.2332E-3
3.57429E-3	133.947E-12	636.869E-3	10.0602E-3	131.833E-12	628.495E-3	8.01413E-3
3.56928E-3	132.635E-12	657.860E-3	-635.707E-6	132.485E-12	659.779E-3	-5.50150E-3
3.56428E-3	131.895E-12	670.045E-3	-8.97424E-3	133.392E-12	669.220E-3	895.080E-6
3.55928E-3	131.923E-12	665.746E-3	-13.0075E-3	133.569E-12	658.017E-3	6.23591E-3
3.55428E-3	131.179E-12	658.091E-3	-5.65578E-3	134.409E-12	639.568E-3	-5.84442E-3
3.54927E-3	130.549E-12	661.106E-3	-15.6250E-3	135.010E-12	625.697E-3	-12.3213E-3
3.54427E-3	131.105E-12	679.003E-3	-37.5784E-3	135.780E-12	619.059E-3	-29.7770E-3
3.53927E-3	131.324E-12	668.081E-3	-41.5501E-3	135.876E-12	624.741E-3	-42.3254E-3
3.53427E-3	132.731E-12	651.165E-3	-29.6312E-3	136.243E-12	647.112E-3	-35.1204E-3
3.52926E-3	132.542E-12	669.848E-3	-14.5216E-3	136.560E-12	646.696E-3	-44.6424E-3
3.52426E-3	131.673E-12	671.813E-3	-14.4951E-3	136.765E-12	642.942E-3	-54.2224E-3
3.51926E-3	133.440E-12	653.566E-3	-31.0246E-3	136.322E-12	654.641E-3	-41.9513E-3
3.51426E-3	135.640E-12	656.209E-3	-46.0893E-3	134.693E-12	661.100E-3	-20.4351E-3
3.50925E-3	134.466E-12	649.966E-3	-32.2325E-3	133.779E-12	660.555E-3	63.3545E-6
3.50425E-3	133.127E-12	640.822E-3	-188.878E-6	132.288E-12	641.052E-3	-1.37960E-3
3.49925E-3	134.167E-12	662.669E-3	7.62769E-3	130.173E-12	611.995E-3	-22.1786E-3
3.49425E-3	134.421E-12	682.998E-3	-9.30484E-3	128.600E-12	612.959E-3	-43.6583E-3
3.48924E-3	132.926E-12	697.416E-3	-27.3751E-3	127.390E-12	646.479E-3	-49.3785E-3
3.48424E-3	131.291E-12	708.644E-3	-33.3105E-3	126.769E-12	672.563E-3	-32.0775E-3
3.47924E-3	130.362E-12	692.587E-3	-27.0921E-3	126.679E-12	653.965E-3	-19.1405E-3
3.47424E-3	129.733E-12	673.493E-3	-36.0335E-3	126.186E-12	635.145E-3	-34.9924E-3
3.46923E-3	128.727E-12	677.364E-3	-44.7456E-3	125.742E-12	650.157E-3	-40.7714E-3
3.46423E-3	128.153E-12	682.041E-3	-41.2382E-3	126.869E-12	643.835E-3	-20.4890E-3
3.45923E-3	128.646E-12	661.144E-3	-49.5640E-3	127.671E-12	633.562E-3	-8.65519E-3
3.45423E-3	129.168E-12	643.314E-3	-40.8265E-3	128.360E-12	652.503E-3	3.97087E-3
3.44922E-3	127.860E-12	644.557E-3	-14.1343E-3	128.944E-12	654.274E-3	6.79068E-3
3.44422E-3	127.503E-12	650.913E-3	-7.96491E-3	130.681E-12	652.226E-3	-23.3302E-3
3.43922E-3	128.027E-12	653.032E-3	-12.2262E-3	132.212E-12	655.686E-3	-40.6857E-3
3.43422E-3	129.782E-12	648.307E-3	-16.2800E-3	132.061E-12	641.861E-3	-24.4699E-3
3.42921E-3	129.512E-12	639.761E-3	-11.0847E-3	132.405E-12	631.592E-3	-7.80747E-3
3.42421E-3	130.710E-12	633.625E-3	8.36890E-3	131.203E-12	635.053E-3	-5.88903E-3
3.41921E-3	130.659E-12	641.181E-3	9.96188E-3	131.374E-12	642.663E-3	-26.8640E-3
3.41421E-3	130.495E-12	649.431E-3	-6.21053E-3	130.950E-12	642.693E-3	-42.4660E-3
3.40920E-3	129.972E-12	646.702E-3	-28.6209E-3	129.055E-12	637.485E-3	-41.4852E-3
3.40420E-3	131.201E-12	644.050E-3	-48.0261E-3	127.020E-12	628.740E-3	-38.0392E-3
3.39920E-3	130.974E-12	643.055E-3	-37.6613E-3	125.834E-12	607.281E-3	-27.1159E-3
3.39420E-3	129.167E-12	654.421E-3	-16.8598E-3	125.389E-12	601.772E-3	-13.6066E-3
3.38919E-3	127.711E-12	686.522E-3	-28.2758E-3	123.848E-12	638.192E-3	-15.9831E-3
3.38419E-3	127.242E-12	692.530E-3	-53.5982E-3	122.898E-12	673.479E-3	-20.5526E-3
3.37919E-3	128.423E-12	667.341E-3	-48.2592E-3	122.395E-12	671.839E-3	-18.0511E-3
3.37419E-3	125.789E-12	666.439E-3	-24.0877E-3	122.959E-12	645.228E-3	-42.9367E-3
3.36918E-3	124.169E-12	667.175E-3	-15.1469E-3	122.515E-12	641.825E-3	-66.7021E-3
3.36418E-3	124.008E-12	648.296E-3	-21.1870E-3	121.595E-12	670.802E-3	-48.4469E-3
3.35918E-3	125.655E-12	642.688E-3	-17.5316E-3	121.854E-12	687.265E-3	-18.4531E-3
3.35418E-3	123.992E-12	634.556E-3	-11.0422E-3	122.432E-12	683.571E-3	-2.05101E-3
3.34917E-3	123.039E-12	614.316E-3	3.04423E-3	122.760E-12	669.617E-3	10.6581E-3
3.34417E-3	123.137E-12	605.439E-3	22.4933E-3	122.602E-12	657.468E-3	11.3093E-3
3.33917E-3	124.381E-12	619.198E-3	15.5108E-3	123.754E-12	654.792E-3	-21.5199E-3
3.33417E-3	124.372E-12	645.088E-3	7.90556E-3	125.090E-12	659.580E-3	-50.5037E-3
3.32916E-3	122.809E-12	649.698E-3	11.3165E-3	124.693E-12	659.044E-3	-35.5841E-3
3.32416E-3	122.422E-12	645.058E-3	-5.23989E-3	124.067E-12	657.107E-3	-11.5556E-3
3.31916E-3	123.031E-12	645.114E-3	-29.1872E-3	124.846E-12	661.528E-3	-7.17181E-3
3.31416E-3	123.836E-12	636.319E-3	-34.4419E-3	124.588E-12	672.837E-3	-7.98421E-3
3.30915E-3	123.368E-12	631.268E-3	-36.6135E-3	123.381E-12	681.251E-3	-21.2245E-3
3.30415E-3	121.867E-12	647.904E-3	-51.8573E-3	122.675E-12	664.002E-3	-37.0078E-3
3.29915E-3	122.339E-12	668.489E-3	-62.4396E-3	123.081E-12	647.930E-3	-29.0791E-3
3.29415E-3	122.049E-12	676.598E-3	-43.2921E-3	122.603E-12	647.297E-3	-22.7057E-3
3.28914E-3	121.877E-12	667.495E-3	-19.2483E-3	121.162E-12	651.307E-3	-42.3111E-3
3.28414E-3	121.597E-12	635.570E-3	-11.4345E-3	120.562E-12	659.536E-3	-40.6482E-3
3.27914E-3	121.094E-12	619.982E-3	5.10986E-3	120.109E-12	657.886E-3	-9.50178E-3
3.27414E-3	121.186E-12	622.391E-3	8.84889E-3	120.000E-12	652.503E-3	-9.15383E-3
3.26913E-3	120.541E-12	630.288E-3	-5.35145E-3	119.008E-12	644.328E-3	-16.0264E-3
3.26413E-3	120.128E-12	642.049E-3	-18.0407E-3	118.697E-12	635.477E-3	-5.49480E-3
3.25913E-3	119.464E-12	648.024E-3	-27.0668E-3	118.390E-12	630.457E-3	-6.37510E-3
3.25413E-3	119.586E-12	653.327E-3	-21.4736E-3	118.500E-12	623.570E-3	-9.24111E-3
3.24912E-3	119.478E-12	651.838E-3	-3.49193E-3	117.994E-12	626.426E-3	-10.5524E-3
3.24412E-3	119.464E-12	648.789E-3	-4.96863E-3	118.305E-12	643.641E-3	-24.4324E-3
3.23912E-3	119.085E-12	662.267E-3	-15.4161E-3	119.234E-12	651.558E-3	-40.1403E-3
3.23412E-3	119.652E-12	674.106E-3	-10.1727E-3	120.146E-12	645.683E-3	-37.1220E-3
3.22911E-3	119.015E-12	674.647E-3	-18.5681E-3	120.428E-12	662.036E-3	-16.2479E-3
3.22411E-3	119.518E-12	673.657E-3	-31.5598E-3	121.099E-12	671.424E-3	-1.37962E-3
3.21911E-3	119.622E-12	668.188E-3	-22.3621E-3	120.830E-12	659.390E-3	-8.32314E-3
3.21411E-3	119.194E-12	668.380E-3	-15.3012E-3	121.411E-12	674.137E-3	-16.3095E-3
3.20910E-3	118.430E-12	660.424E-3	-15.4649E-3	122.105E-12	695.038E-3	7.27337E-3
3.20410E-3	119.140E-12	635.403E-3	-6.62875E-3	122.012E-12	694.395E-3	18.2534E-3
3.19910E-3	119.287E-12	622.800E-3	-10.8450E-3	120.939E-12	686.933E-3	-5.88061E-3
3.19410E-3	119.628E-12	637.054E-3	-18.6303E-3	120.561E-12	662.989E-3	-15.3372E-3
3.18909E-3	119.220E-12	660.768E-3	-16.0395E-3	120.398E-12	631.266E-3	-8.66034E-3
3.18409E-3	119.695E-12	677.810E-3	-22.7403E-3	119.498E-12	625.359E-3	-15.0445E-3
3.17909E-3	121.041E-12	680.546E-3	-24.2898E-3	117.987E-12	631.811E-3	-35.1092E-3
3.17409E-3	120.324E-12	675.201E-3	-23.0195E-3	116.279E-12	622.486E-3	-41.0300E-3
3.16908E-3	119.049E-12	682.100E-3	-38.2662E-3	116.617E-12	608.365E-3	-32.0152E-3
3.16408E-3	118.338E-12	704.686E-3	-32.0401E-3	115.895E-12	606.023E-3	-25.4651E-3
3.15908E-3	118.156E-12	731.611E-3	-14.5313E-3	114.581E-12	622.431E-3	-12.1095E-3
3.15408E-3	117.549E-12	720.473E-3	-25.3297E-3	113.827E-12	636.535E-3	3.38552E-3
3.14907E-3	116.807E-12	686.088E-3	-32.5619E-3	113.948E-12	642.099E-3	8.04481E-3
3.14407E-3	116.054E-12	671.150E-3	-26.2188E-3	114.876E-12	665.553E-3	-7.91918E-3
3.13907E-3	114.682E-12	664.192E-3	-25.0924E-3	114.502E-12	686.361E-3	-20.9544E-3
3.13407E-3	114.397E-12	661.973E-3	-39.8043E-3	115.160E-12	685.520E-3	-9.53691E-3
3.12906E-3	114.402E-12	675.291E-3	-46.9689E-3	115.854E-12	671.653E-3	-2.37060E-3
3.12406E-3	114.794E-12	685.506E-3	-40.9996E-3	117.244E-12	653.188E-3	-5.70470E-3
3.11906E-3	113.516E-12	671.091E-3	-40.0309E-3	117.679E-12	647.875E-3	-16.0591E-3
3.11406E-3	113.317E-12	651.771E-3	-49.1506E-3	118.225E-12	648.605E-3	-27.3727E-3
3.10905E-3	114.166E-12	643.822E-3	-60.4182E-3	117.258E-12	646.338E-3	-14.1328E-3
3.10405E-3	114.952E-12	638.699E-3	-53.9033E-3	116.911E-12	660.551E-3	-2.16536E-3
3.09905E-3	115.306E-12	630.082E-3	-40.4675E-3	117.236E-12	671.168E-3	-28.6648E-3
3.09405E-3	115.349E-12	642.266E-3	-31.4157E-3	116.289E-12	653.949E-3	-40.3566E-3
3.08904E-3	115.672E-12	665.950E-3	-12.2255E-3	114.800E-12	646.371E-3	-24.3582E-3
3.08404E-3	116.166E-12	661.794E-3	-8.79829E-3	113.332E-12	655.666E-3	-24.9653E-3
3.07904E-3	116.314E-12	655.439E-3	-29.8841E-3	112.894E-12	663.687E-3	-19.0396E-3
3.07404E-3	116.086E-12	652.383E-3	-39.4935E-3	111.799E-12	667.444E-3	-7.52444E-3
3.06903E-3	115.893E-12	653.223E-3	-46.7313E-3	111.221E-12	657.436E-3	-19.8274E-3
3.06403E-3	114.598E-12	680.588E-3	-48.0678E-3	110.337E-12	647.694E-3	-32.1328E-3
3.05903E-3	113.515E-12	700.070E-3	-38.6400E-3	109.460E-12	642.430E-3	-27.5642E-3
3.05403E-3	112.349E-12	689.990E-3	-24.8827E-3	109.102E-12	631.926E-3	-25.6771E-3
3.04902E-3	111.423E-12	676.772E-3	5.06959E-3	108.454E-12	641.182E-3	-23.6222E-3
3.04402E-3	110.935E-12	679.501E-3	14.4819E-3	108.236E-12	656.845E-3	-10.0369E-3
3.03902E-3	109.683E-12	699.359E-3	5.83347E-6	108.866E-12	654.384E-3	-3.89188E-3
3.03402E-3	108.471E-12	700.649E-3	5.69860E-3	110.259E-12	656.835E-3	-5.99191E-3
3.02901E-3	108.070E-12	656.157E-3	2.47957E-3	110.123E-12	661.672E-3	-8.73400E-3
3.02401E-3	108.696E-12	622.372E-3	-21.6327E-3	109.911E-12	665.148E-3	-16.1623E-3
3.01901E-3	108.986E-12	635.013E-3	-22.8042E-3	110.693E-12	658.940E-3	-16.7996E-3
3.01401E-3	108.702E-12	650.907E-3	-17.4954E-3	111.765E-12	647.772E-3	-3.23867E-3
3.00900E-3	108.434E-12	658.993E-3	-20.1924E-3	112.159E-12	656.667E-3	-219.953E-6
3.00400E-3	109.024E-12	675.170E-3	-14.9281E-3	111.252E-12	667.418E-3	-20.3490E-3
2.99900E-3	110.284E-12	681.490E-3	-20.4578E-3	111.073E-12	672.373E-3	-20.8788E-3
2.99400E-3	110.725E-12	679.731E-3	-36.3901E-3	110.438E-12	675.778E-3	-10.4639E-3
2.98899E-3	110.058E-12	683.940E-3	-31.4320E-3	109.685E-12	663.854E-3	-22.5090E-3
2.98399E-3	108.836E-12	693.885E-3	-9.27243E-3	108.890E-12	663.202E-3	-27.5240E-3
2.97899E-3	109.400E-12	692.556E-3	-10.4196E-3	108.273E-12	676.228E-3	-22.4940E-3
2.97399E-3	109.426E-12	687.522E-3	-32.1772E-3	108.331E-12	676.585E-3	-2.68694E-3
2.96898E-3	108.854E-12	690.789E-3	-46.4546E-3	107.341E-12	676.532E-3	24.3618E-3
2.96398E-3	107.186E-12	700.514E-3	-43.6721E-3	106.423E-12	670.606E-3	7.69794E-3
2.95898E-3	106.285E-12	702.522E-3	-13.2936E-3	105.666E-12	653.608E-3	-26.9758E-3
2.95398E-3	106.676E-12	677.996E-3	7.34893E-3	104.863E-12	653.585E-3	-28.4731E-3
2.94897E-3	106.228E-12	663.778E-3	-16.7113E-3	104.093E-12	661.206E-3	-19.3082E-3
2.94397E-3	104.782E-12	661.484E-3	-44.6464E-3	103.922E-12	664.122E-3	-28.4636E-3
2.93897E-3	104.347E-12	650.985E-3	-38.1844E-3	104.453E-12	670.039E-3	-33.4187E-3
2.93397E-3	104.675E-12	658.678E-3	-13.7008E-3	104.417E-12	665.603E-3	-16.8873E-3
2.92896E-3	104.866E-12	665.710E-3	-15.6253E-3	104.597E-12	676.095E-3	-4.86944E-3
2.92396E-3	104.706E-12	660.254E-3	-28.7118E-3	105.370E-12	685.141E-3	-11.9220E-3
2.91896E-3	104.267E-12	660.352E-3	-20.8302E-3	106.733E-12	664.424E-3	-18.3643E-3
2.91396E-3	104.834E-12	656.310E-3	-12.2957E-3	106.655E-12	658.097E-3	-29.6558E-3
2.90895E-3	105.242E-12	659.457E-3	-3.87122E-3	105.988E-12	671.114E-3	-48.3579E-3
2.90395E-3	104.590E-12	659.646E-3	1.98180E-3	106.479E-12	673.167E-3	-50.6340E-3
2.89895E-3	103.969E-12	649.444E-3	5.69436E-3	107.340E-12	673.206E-3	-36.1064E-3
2.89395E-3	104.251E-12	652.673E-3	10.5837E-3	106.890E-12	684.049E-3	-20.5664E-3
2.88894E-3	104.823E-12	669.989E-3	7.98569E-3	105.415E-12	685.355E-3	-14.6091E-3
2.88394E-3	104.508E-12	677.839E-3	3.51860E-3	104.981E-12	669.843E-3	-8.60374E-3
2.87894E-3	104.420E-12	669.351E-3	-1.96187E-3	105.238E-12	660.687E-3	5.31335E-3
2.87394E-3	103.611E-12	662.180E-3	-21.1241E-3	105.177E-12	666.140E-3	14.9470E-3
2.86893E-3	104.509E-12	641.049E-3	-30.6610E-3	103.748E-12	681.567E-3	9.77138E-3
2.86393E-3	104.515E-12	627.338E-3	-28.7020E-3	103.381E-12	690.394E-3	-10.3131E-3
2.85893E-3	103.539E-12	660.506E-3	-50.2479E-3	103.018E-12	691.573E-3	-38.5572E-3
2.85393E-3	102.841E-12	692.745E-3	-70.7631E-3	102.842E-12	690.395E-3	-44.4957E-3
2.84892E-3	103.356E-12	687.252E-3	-67.9252E-3	102.082E-12	678.679E-3	-30.5363E-3
2.84392E-3	103.917E-12	666.454E-3	-45.3788E-3	101.207E-12	664.601E-3	-17.6781E-3
2.83892E-3	102.452E-12	656.324E-3	-25.3724E-3	100.162E-12	663.855E-3	-9.97991E-3
2.83392E-3	102.706E-12	652.660E-3	-17.4787E-3	100.180E-12	682.804E-3	-17.4874E-3
2.82891E-3	102.411E-12	654.296E-3	-12.4497E-3	101.097E-12	702.477E-3	-38.0948E-3
2.82391E-3	102.787E-12	662.507E-3	-9.77003E-3	100.617E-12	712.008E-3	-41.5278E-3
2.81891E-3	102.004E-12	667.141E-3	-12.7370E-3	99.9958E-12	718.975E-3	-20.6263E-3
2.81391E-3	102.286E-12	664.905E-3	-22.6417E-3	100.493E-12	709.125E-3	-18.0040E-3
2.80890E-3	102.432E-12	664.624E-3	-30.0383E-3	102.257E-12	687.849E-3	-27.8462E-3
2.80390E-3	101.413E-12	681.838E-3	-27.0245E-3	102.388E-12	671.915E-3	-30.9325E-3
2.79890E-3	101.313E-12	707.475E-3	-22.8144E-3	102.156E-12	672.863E-3	-29.7347E-3
2.79390E-3	101.391E-12	701.299E-3	-37.4058E-3	101.861E-12	686.705E-3	-12.6123E-3
2.78889E-3	101.895E-12	681.163E-3	-35.3151E-3	102.635E-12	680.131E-3	-5.64395E-3
2.78389E-3	101.353E-12	677.218E-3	-10.4611E-3	103.058E-12	661.319E-3	-16.2723E-3
2.77889E-3	101.680E-12	673.509E-3	-10.4735E-3	102.004E-12	669.475E-3	-14.8697E-3
2.77389E-3	100.803E-12	675.886E-3	-9.41707E-3	100.943E-12	704.444E-3	-20.6764E-3
2.76888E-3	100.632E-12	681.919E-3	10.9937E-3	100.506E-12	717.853E-3	-33.5918E-3
2.76388E-3	100.322E-12	680.173E-3	16.9316E-3	100.879E-12	692.246E-3	-31.8343E-3
2.75888E-3	101.135E-12	675.614E-3	10.1758E-3	100.137E-12	667.643E-3	-26.7562E-3
2.75388E-3	100.257E-12	678.024E-3	-3.59256E-3	98.2911E-12	659.786E-3	-28.5690E-3
2.74887E-3	99.4293E-12	682.411E-3	-25.3690E-3	97.3090E-12	669.549E-3	-30.3193E-3
2.74387E-3	99.9884E-12	681.864E-3	-29.1910E-3	97.2460E-12	680.278E-3	-29.8910E-3
2.73887E-3	99.5615E-12	686.117E-3	-12.7742E-3	96.8813E-12	672.248E-3	-23.6925E-3
2.73387E-3	98.8018E-12	693.248E-3	-892.439E-6	95.7985E-12	666.382E-3	-18.4431E-3
2.72886E-3	97.9819E-12	692.983E-3	-9.91685E-3	95.4278E-12	658.990E-3	-20.3578E-3
2.72386E-3	97.3652E-12	686.039E-3	-21.0413E-3	95.3818E-12	669.806E-3	-17.5006E-3
2.71886E-3	96.3738E-12	670.443E-3	-16.8402E-3	95.4210E-12	695.741E-3	-26.6425E-3
2.71386E-3	95.8403E-12	667.441E-3	-1.46106E-3	95.2691E-12	685.176E-3	-42.5554E-3
2.70885E-3	95.7131E-12	687.557E-3	10.9283E-3	95.4201E-12	674.567E-3	-44.9616E-3
2.70385E-3	94.7114E-12	691.213E-3	-2.94891E-3	96.0231E-12	689.738E-3	-31.4019E-3
2.69885E-3	94.9888E-12	678.958E-3	-22.6777E-3	96.4933E-12	707.712E-3	-9.40712E-3
2.69385E-3	93.8480E-12	667.762E-3	-24.5285E-3	96.5530E-12	705.449E-3	-1.82475E-3
2.68884E-3	93.8592E-12	647.116E-3	-20.3035E-3	96.0368E-12	681.871E-3	1.40154E-3
2.68384E-3	94.1517E-12	633.043E-3	-4.17392E-3	96.7833E-12	690.214E-3	25.2707E-3
2.67884E-3	94.8409E-12	649.056E-3	2.43385E-3	96.7060E-12	723.436E-3	39.8714E-3
2.67384E-3	95.0566E-12	678.828E-3	-24.0393E-3	96.1597E-12	741.003E-3	27.1756E-3
2.66883E-3	95.7125E-12	688.202E-3	-28.2767E-3	95.0472E-12	746.300E-3	12.1779E-3
2.66383E-3	95.8232E-12	679.877E-3	-3.49103E-3	94.5274E-12	725.650E-3	-307.626E-6
2.65883E-3	95.5714E-12	676.970E-3	-80.6541E-6	94.1673E-12	693.465E-3	-10.3530E-3
2.65383E-3	95.4756E-12	684.792E-3	-13.4701E-3	93.1579E-12	686.270E-3	-6.31752E-3
2.64882E-3	95.5098E-12	699.208E-3	-8.41250E-3	92.7216E-12	682.904E-3	7.80856E-3
2.64382E-3	94.3726E-12	708.481E-3	10.3284E-3	91.9184E-12	676.576E-3	11.2143E-3
2.63882E-3	93.8056E-12	710.347E-3	11.7887E-3	91.2737E-12	679.101E-3	-13.6201E-3
2.63382E-3	93.7035E-12	712.337E-3	2.06065E-3	90.4518E-12	671.595E-3	-45.4236E-3
2.62881E-3	93.0468E-12	703.746E-3	-10.4862E-3	90.9178E-12	661.529E-3	-42.0052E-3
2.62381E-3	91.7878E-12	693.563E-3	-18.5485E-3	90.5205E-12	665.764E-3	-14.7800E-3
2.61881E-3	90.2868E-12	682.534E-3	-11.2126E-3	90.3110E-12	687.791E-3	-6.91419E-3
2.61381E-3	89.9537E-12	655.764E-3	-7.49071E-3	90.9556E-12	705.131E-3	-18.7157E-3
2.60880E-3	90.3229E-12	639.692E-3	-18.1515E-3	90.9950E-12	706.121E-3	-11.9950E-3
2.60380E-3	90.2388E-12	658.619E-3	-29.5692E-3	91.1960E-12	710.895E-3	8.21180E-3
2.59880E-3	89.2257E-12	684.239E-3	-37.8813E-3	91.5039E-12	707.696E-3	14.2230E-3
2.59380E-3	89.4575E-12	678.521E-3	-33.9263E-3	92.0558E-12	711.316E-3	15.6974E-3
2.58879E-3	90.4701E-12	659.589E-3	-25.9342E-3	92.5481E-12	732.164E-3	14.7948E-3
2.58379E-3	90.7265E-12	668.127E-3	-20.0009E-3	91.9040E-12	740.434E-3	3.75207E-3
2.57879E-3	90.2027E-12	694.282E-3	-18.7238E-3	92.2412E-12	725.725E-3	-5.71202E-3
2.57379E-3	90.5275E-12	705.581E-3	-27.9681E-3	92.4441E-12	702.635E-3	-8.84434E-3
2.56878E-3	91.4496E-12	705.767E-3	-28.9279E-3	92.3107E-12	705.178E-3	-14.6011E-3
2.56378E-3	91.5801E-12	694.705E-3	-17.4869E-3	91.1959E-12	717.973E-3	-21.9276E-3
2.55878E-3	90.6433E-12	688.878E-3	-15.2879E-3	91.3146E-12	710.756E-3	-33.1587E-3
2.55378E-3	90.1692E-12	711.837E-3	-23.3288E-3	90.9477E-12	702.143E-3	-51.3376E-3
2.54877E-3	90.2406E-12	730.017E-3	-27.9269E-3	89.9287E-12	700.282E-3	-49.4160E-3
2.54377E-3	89.9195E-12	725.094E-3	-37.8739E-3	89.2175E-12	694.948E-3	-27.3134E-3
2.53877E-3	88.9501E-12	718.226E-3	-42.5107E-3	88.8035E-12	686.115E-3	-9.40761E-3
2.53377E-3	87.8149E-12	715.080E-3	-33.6663E-3	88.2330E-12	675.587E-3	3.16961E-3
2.52876E-3	87.8512E-12	717.841E-3	-35.5970E-3	87.4685E-12	671.630E-3	5.67868E-3
2.52376E-3	87.4860E-12	718.073E-3	-38.6573E-3	87.5234E-12	697.226E-3	5.82900E-3
2.51876E-3	86.7985E-12	701.817E-3	-17.1258E-3	86.8456E-12	710.362E-3	7.47474E-3
2.51376E-3	86.0492E-12	690.450E-3	11.7505E-3	87.0207E-12	691.112E-3	9.86037E-3
2.50875E-3	86.7329E-12	692.477E-3	24.9831E-3	86.7018E-12	690.464E-3	194.493E-6
2.50375E-3	86.8770E-12	701.164E-3	10.8182E-3	86.9684E-12	702.148E-3	-26.6877E-3
2.49875E-3	86.0571E-12	699.722E-3	-9.62338E-3	86.7411E-12	696.982E-3	-34.9224E-3
2.49375E-3	85.3303E-12	678.637E-3	-15.3667E-3	86.4206E-12	696.548E-3	-27.8074E-3
2.48874E-3	85.6136E-12	673.021E-3	-19.4428E-3	87.3002E-12	706.209E-3	-21.1090E-3
2.48374E-3	85.8541E-12	694.497E-3	-16.1620E-3	87.5115E-12	707.354E-3	-11.2356E-3
2.47874E-3	85.9083E-12	709.664E-3	-12.6591E-3	87.0172E-12	719.113E-3	-16.3534E-3
2.47374E-3	85.1250E-12	712.315E-3	-17.9393E-3	86.4493E-12	739.300E-3	-35.1503E-3
2.46873E-3	85.1652E-12	714.127E-3	-24.6194E-3	85.9826E-12	738.180E-3	-39.8026E-3
2.46373E-3	85.6763E-12	719.927E-3	-42.6254E-3	85.9020E-12	712.566E-3	-32.5281E-3
2.45873E-3	85.6926E-12	725.507E-3	-56.5455E-3	85.3450E-12	688.169E-3	-38.9313E-3
2.45373E-3	85.2484E-12	724.652E-3	-44.9230E-3	85.4640E-12	693.602E-3	-51.6100E-3
2.44872E-3	84.3153E-12	738.137E-3	-22.6527E-3	84.1276E-12	708.249E-3	-55.4187E-3
2.44372E-3	84.5958E-12	739.108E-3	-9.50135E-3	83.5682E-12	700.819E-3	-42.5597E-3
2.43872E-3	84.6234E-12	711.108E-3	1.45762E-3	83.3930E-12	691.760E-3	-28.8648E-3
2.43372E-3	84.9165E-12	691.169E-3	1.67948E-3	83.5575E-12	691.630E-3	-23.7390E-3
2.42871E-3	84.3992E-12	690.565E-3	3.15162E-3	82.2939E-12	686.579E-3	-21.7723E-3
2.42371E-3	83.5294E-12	704.225E-3	9.25821E-3	81.4248E-12	689.026E-3	-34.4230E-3
2.41871E-3	83.6380E-12	707.413E-3	-5.14568E-3	80.8567E-12	699.306E-3	-39.2921E-3
2.41371E-3	83.4790E-12	703.003E-3	-20.6404E-3	80.9154E-12	702.009E-3	-22.0816E-3
2.40870E-3	83.5935E-12	704.596E-3	-25.8978E-3	80.7423E-12	698.258E-3	-7.69267E-3
2.40370E-3	81.8490E-12	715.612E-3	-21.7440E-3	80.3054E-12	690.678E-3	-13.2850E-3
2.39870E-3	81.4695E-12	715.463E-3	-11.6985E-3	80.1366E-12	698.878E-3	-24.0032E-3
2.39370E-3	81.9561E-12	696.794E-3	-15.7211E-3	80.5357E-12	717.948E-3	-15.1918E-3
2.38869E-3	82.0493E-12	701.708E-3	-25.8366E-3	80.7454E-12	732.599E-3	-5.75763E-3
2.38369E-3	80.9423E-12	718.217E-3	-19.1501E-3	80.9252E-12	742.714E-3	-15.5287E-3
2.37869E-3	80.2347E-12	731.123E-3	-13.3266E-3	80.8587E-12	728.770E-3	-26.0541E-3
2.37369E-3	80.3693E-12	746.646E-3	-19.9315E-3	81.3968E-12	706.009E-3	-22.2509E-3
2.36868E-3	80.7557E-12	745.656E-3	-22.7437E-3	81.1805E-12	716.853E-3	-15.1296E-3
2.36368E-3	80.1745E-12	728.014E-3	-24.2324E-3	81.5448E-12	737.688E-3	-13.7386E-3
2.35868E-3	79.4898E-12	713.941E-3	-23.7502E-3	80.8538E-12	742.548E-3	-11.5633E-3
2.35368E-3	79.3941E-12	711.635E-3	-9.44376E-3	80.5092E-12	735.440E-3	-9.96490E-3
2.34867E-3	79.6090E-12	713.504E-3	-6.89581E-3	80.2076E-12	707.481E-3	-13.5937E-3
2.34367E-3	80.0067E-12	713.338E-3	-21.8097E-3	79.7472E-12	681.355E-3	-16.5815E-3
2.33867E-3	80.0781E-12	721.978E-3	-28.2491E-3	79.2808E-12	680.480E-3	-19.9087E-3
2.33367E-3	80.3476E-12	736.855E-3	-30.2292E-3	78.0468E-12	696.580E-3	-14.7206E-3
2.32866E-3	79.9320E-12	727.461E-3	-28.9736E-3	77.4415E-12	709.324E-3	-8.24494E-3
2.32366E-3	80.0804E-12	707.780E-3	-17.1887E-3	76.9154E-12	704.936E-3	-15.8475E-3
2.31866E-3	79.9999E-12	718.205E-3	-10.0704E-3	76.8445E-12	704.541E-3	-30.2611E-3
2.31366E-3	79.2941E-12	742.552E-3	-23.7070E-3	76.1519E-12	717.373E-3	-37.0389E-3
2.30865E-3	78.7649E-12	755.365E-3	-36.4603E-3	75.6124E-12	716.317E-3	-30.9034E-3
2.30365E-3	77.8728E-12	753.676E-3	-28.2618E-3	75.2432E-12	702.045E-3	-29.9949E-3
2.29865E-3	77.2605E-12	738.852E-3	-1.37679E-3	75.6806E-12	706.623E-3	-26.5906E-3
2.29365E-3	76.4080E-12	716.333E-3	17.6596E-3	76.4522E-12	732.329E-3	-8.37189E-3
2.28864E-3	75.7513E-12	703.891E-3	-559.928E-6	76.2688E-12	736.979E-3	-2.98669E-3
2.28364E-3	75.2810E-12	711.262E-3	-18.7878E-3	76.3593E-12	729.147E-3	-16.2377E-3
2.27864E-3	74.6712E-12	717.684E-3	-9.67300E-3	76.2915E-12	747.895E-3	-18.0285E-3
2.27364E-3	74.4936E-12	726.837E-3	-10.0160E-3	77.2261E-12	768.933E-3	-7.75996E-3
2.26863E-3	74.0153E-12	731.153E-3	-17.7065E-3	77.3132E-12	770.806E-3	-8.89952E-3
2.26363E-3	74.7164E-12	725.142E-3	-17.3655E-3	77.0453E-12	765.478E-3	-11.5174E-3
2.25863E-3	75.0018E-12	724.622E-3	-17.8073E-3	76.4371E-12	758.936E-3	-11.0719E-3
2.25363E-3	75.4996E-12	717.109E-3	-19.7534E-3	76.4257E-12	748.923E-3	-18.5634E-3
2.24862E-3	75.6993E-12	714.283E-3	-22.5379E-3	76.3128E-12	744.863E-3	-20.6551E-3
2.24362E-3	75.9984E-12	737.049E-3	-19.3792E-3	75.5441E-12	750.705E-3	-28.6135E-3
2.23862E-3	76.1783E-12	758.120E-3	-15.6091E-3	74.4514E-12	746.276E-3	-43.5777E-3
2.23362E-3	75.5740E-12	771.875E-3	-18.7406E-3	73.6872E-12	733.150E-3	-29.6591E-3
2.22861E-3	75.3245E-12	785.862E-3	-20.5075E-3	73.6584E-12	726.927E-3	380.981E-6
2.22361E-3	74.4097E-12	779.961E-3	-17.0725E-3	73.1867E-12	733.557E-3	-861.320E-6
2.21861E-3	74.3524E-12	763.134E-3	-12.0954E-3	72.8625E-12	746.432E-3	-19.9765E-3
2.21361E-3	73.6472E-12	751.613E-3	-11.6949E-3	71.8370E-12	738.030E-3	-30.3512E-3
2.20860E-3	73.2298E-12	745.806E-3	-22.3596E-3	71.8515E-12	722.561E-3	-37.1666E-3
2.20360E-3	72.4643E-12	740.115E-3	-33.6769E-3	72.2940E-12	726.291E-3	-35.0760E-3
2.19860E-3	71.7866E-12	739.685E-3	-32.9960E-3	72.5943E-12	738.306E-3	-20.5334E-3
2.19360E-3	71.2946E-12	748.612E-3	-24.4190E-3	72.0458E-12	762.721E-3	-7.46170E-3
2.18859E-3	70.4491E-12	748.779E-3	-15.0600E-3	71.7961E-12	786.115E-3	-12.0647E-3
2.18359E-3	70.3077E-12	746.234E-3	-13.2814E-3	72.9956E-12	788.070E-3	-27.8427E-3
2.17859E-3	70.5793E-12	747.400E-3	-20.7649E-3	72.8603E-12	787.572E-3	-31.4244E-3
2.17359E-3	70.4753E-12	740.227E-3	-25.2010E-3	72.2475E-12	781.960E-3	-15.7137E-3
2.16858E-3	69.8553E-12	738.496E-3	-22.0039E-3	72.1489E-12	765.382E-3	2.19736E-3
2.16358E-3	70.1131E-12	745.957E-3	-24.5172E-3	72.3758E-12	751.473E-3	-1.31788E-3
2.15858E-3	70.6058E-12	746.948E-3	-32.5597E-3	72.0691E-12	743.153E-3	-20.3346E-3
2.15358E-3	70.9894E-12	751.997E-3	-33.4626E-3	72.1332E-12	748.706E-3	-23.3847E-3
2.14857E-3	70.8271E-12	763.153E-3	-20.7953E-3	71.5779E-12	764.940E-3	-8.71750E-3
2.14357E-3	70.6760E-12	778.100E-3	-3.84705E-3	71.0242E-12	774.147E-3	-237.889E-6
2.13857E-3	71.0012E-12	790.773E-3	-3.23772E-3	70.7051E-12	770.797E-3	837.289E-6
2.13357E-3	71.2855E-12	789.268E-3	-19.7190E-3	69.9324E-12	761.331E-3	-3.29479E-3
2.12856E-3	71.2062E-12	779.284E-3	-33.3788E-3	69.7837E-12	754.054E-3	-15.0801E-3
2.12356E-3	69.8285E-12	779.605E-3	-31.5825E-3	68.7064E-12	766.188E-3	-28.6750E-3
2.11856E-3	69.5173E-12	792.478E-3	-30.1850E-3	68.0649E-12	786.039E-3	-38.5829E-3
2.11356E-3	69.6128E-12	787.202E-3	-30.9401E-3	67.5124E-12	780.494E-3	-31.6440E-3
2.10855E-3	69.2980E-12	774.506E-3	-23.2499E-3	67.2875E-12	771.790E-3	-18.0121E-3
2.10355E-3	67.6885E-12	779.470E-3	-15.2242E-3	66.8627E-12	779.764E-3	-12.8533E-3
2.09855E-3	67.1324E-12	786.065E-3	-9.13559E-3	66.4701E-12	778.756E-3	-12.9872E-3
2.09355E-3	67.4345E-12	783.332E-3	-615.827E-6	66.2806E-12	767.847E-3	-10.5893E-3
2.08854E-3	67.3134E-12	780.938E-3	-1.92076E-3	66.1191E-12	769.037E-3	-10.6420E-3
2.08354E-3	66.6880E-12	792.140E-3	-18.2869E-3	66.1347E-12	784.117E-3	-14.5142E-3
2.07854E-3	66.1074E-12	800.554E-3	-35.2502E-3	66.1687E-12	797.146E-3	-14.0562E-3
2.07354E-3	66.1951E-12	786.194E-3	-47.2437E-3	65.8875E-12	804.728E-3	-14.7859E-3
2.06853E-3	66.3428E-12	770.836E-3	-49.1519E-3	65.5159E-12	797.554E-3	-17.9608E-3
2.06353E-3	66.3158E-12	777.122E-3	-46.6201E-3	65.9965E-12	780.807E-3	-13.8178E-3
2.05853E-3	66.1293E-12	789.410E-3	-40.4820E-3	66.3640E-12	776.426E-3	-7.27330E-3
2.05353E-3	65.5480E-12	794.500E-3	-30.0502E-3	65.8144E-12	787.287E-3	-4.87949E-3
2.04852E-3	65.8886E-12	790.646E-3	-23.6824E-3	65.2050E-12	798.817E-3	-6.35856E-3
2.04352E-3	66.0381E-12	784.919E-3	-23.4485E-3	64.8673E-12	790.603E-3	-7.04803E-3
2.03852E-3	65.4773E-12	789.868E-3	-35.3358E-3	65.2468E-12	772.249E-3	-3.56649E-3
2.03352E-3	64.4691E-12	789.389E-3	-35.1508E-3	64.8703E-12	767.670E-3	-4.28734E-3
2.02851E-3	64.3725E-12	778.486E-3	-15.3378E-3	64.0858E-12	785.237E-3	-3.76538E-3
2.02351E-3	64.5134E-12	776.566E-3	-9.37973E-3	62.9047E-12	802.579E-3	-1.57347E-3
2.01851E-3	64.1696E-12	792.485E-3	-14.8222E-3	62.9379E-12	794.227E-3	-1.60979E-3
2.01351E-3	63.3995E-12	816.808E-3	-17.4481E-3	62.7474E-12	778.949E-3	-2.68597E-3
2.00850E-3	63.0485E-12	824.603E-3	-20.7910E-3	61.6728E-12	778.646E-3	-8.38036E-3
2.00350E-3	62.4731E-12	815.083E-3	-16.7888E-3	60.6164E-12	796.391E-3	-1.35102E-3
1.99850E-3	62.5181E-12	811.471E-3	-20.6329E-3	60.7824E-12	810.130E-3	7.16039E-3
1.99350E-3	62.1008E-12	810.277E-3	-27.7163E-3	60.7483E-12	800.902E-3	-7.92818E-3
1.98849E-3	61.5530E-12	811.773E-3	-15.5388E-3	60.5462E-12	792.363E-3	-30.1824E-3
1.98349E-3	60.9467E-12	817.564E-3	-4.66140E-3	59.6064E-12	800.552E-3	-39.2143E-3
1.97849E-3	61.0424E-12	806.295E-3	1.13123E-3	59.5172E-12	810.883E-3	-33.9301E-3
1.97349E-3	60.3017E-12	786.223E-3	5.03092E-3	60.2064E-12	811.615E-3	-20.2388E-3
1.96848E-3	59.9393E-12	783.209E-3	-3.20244E-3	60.5716E-12	820.817E-3	-15.5076E-3
1.96348E-3	59.7113E-12	789.673E-3	-15.3719E-3	60.1759E-12	833.432E-3	-26.9583E-3
1.95848E-3	59.6159E-12	791.989E-3	-19.5662E-3	60.0895E-12	837.676E-3	-31.4183E-3
1.95348E-3	58.6926E-12	802.604E-3	-14.2925E-3	60.6778E-12	843.796E-3	-20.4109E-3
1.94847E-3	57.7655E-12	808.866E-3	1.39212E-3	60.6794E-12	844.482E-3	-8.71919E-3
1.94347E-3	57.8671E-12	793.275E-3	3.56400E-3	60.7984E-12	839.573E-3	-3.15113E-3
1.93847E-3	58.3217E-12	787.387E-3	-14.1181E-3	60.3944E-12	838.917E-3	-12.3206E-3
1.93347E-3	57.8558E-12	800.894E-3	-17.6165E-3	60.1107E-12	843.075E-3	-19.9804E-3
1.92846E-3	57.8126E-12	811.440E-3	-11.8170E-3	59.6002E-12	846.009E-3	-14.6963E-3
1.92346E-3	57.9326E-12	811.517E-3	-15.2999E-3	59.3640E-12	843.283E-3	-17.0813E-3
1.91846E-3	57.6664E-12	804.638E-3	-22.0621E-3	58.4514E-12	837.083E-3	-23.6575E-3
1.91346E-3	57.2759E-12	808.975E-3	-32.6697E-3	57.9017E-12	833.799E-3	-23.8862E-3
1.90845E-3	57.3212E-12	822.607E-3	-27.6995E-3	57.1727E-12	835.725E-3	-17.9708E-3
1.90345E-3	57.0348E-12	830.244E-3	1.12803E-3	56.3839E-12	846.918E-3	-7.30042E-3
1.89845E-3	56.6233E-12	837.819E-3	5.19365E-3	55.9183E-12	853.715E-3	9.71384E-3
1.89345E-3	56.3336E-12	840.439E-3	-13.1561E-3	55.9163E-12	844.530E-3	22.6620E-3
1.88844E-3	56.4909E-12	836.378E-3	-6.70870E-3	55.4898E-12	842.341E-3	13.6516E-3
1.88344E-3	55.8814E-12	843.012E-3	2.53257E-3	54.6353E-12	850.119E-3	-7.74043E-3
1.87844E-3	54.9539E-12	852.411E-3	-4.56615E-3	54.9366E-12	860.682E-3	-24.4023E-3
1.87344E-3	54.0003E-12	850.882E-3	-2.21852E-3	55.0433E-12	869.353E-3	-30.7042E-3
1.86843E-3	53.6738E-12	847.804E-3	526.515E-6	54.6865E-12	865.140E-3	-22.2839E-3
1.86343E-3	53.3862E-12	843.278E-3	-7.25497E-3	54.5517E-12	866.300E-3	-7.28890E-3
1.85843E-3	52.6156E-12	842.296E-3	-5.40210E-3	54.7997E-12	875.865E-3	-17.1644E-3
1.85343E-3	52.1641E-12	849.904E-3	-4.56220E-3	54.8798E-12	883.980E-3	-35.2933E-3
1.84842E-3	52.4842E-12	844.147E-3	-17.4158E-3	54.7088E-12	899.342E-3	-25.8108E-3
1.84342E-3	52.7112E-12	829.985E-3	-25.9866E-3	54.5764E-12	910.074E-3	-10.0440E-3
1.83842E-3	52.2726E-12	833.589E-3	-21.8668E-3	54.1413E-12	912.496E-3	6.22000E-3
1.83342E-3	52.4982E-12	852.004E-3	-16.1691E-3	53.9809E-12	913.219E-3	5.56107E-3
1.82841E-3	52.7522E-12	879.903E-3	-20.2704E-3	53.5977E-12	900.145E-3	-17.6257E-3
1.82341E-3	52.9823E-12	895.406E-3	-23.4604E-3	53.1091E-12	887.216E-3	-19.0989E-3
1.81841E-3	53.2037E-12	888.777E-3	-16.3268E-3	52.4890E-12	889.919E-3	-8.49656E-3
1.81341E-3	52.9441E-12	888.581E-3	-12.2542E-3	51.6401E-12	892.824E-3	-12.3987E-3
1.80840E-3	52.6200E-12	899.903E-3	-12.6449E-3	51.1147E-12	881.568E-3	-19.2085E-3
1.80340E-3	52.5459E-12	900.143E-3	-10.8990E-3	50.6922E-12	866.639E-3	-16.9647E-3
1.79840E-3	52.6062E-12	891.447E-3	-9.64347E-3	50.2776E-12	869.536E-3	-11.5336E-3
1.79340E-3	51.9268E-12	897.050E-3	-11.3455E-3	49.6777E-12	880.883E-3	-17.6758E-3
1.78839E-3	51.1024E-12	922.098E-3	-9.97201E-3	49.2558E-12	890.371E-3	-23.5427E-3
1.78339E-3	50.3475E-12	937.820E-3	-9.03138E-3	49.0517E-12	906.600E-3	-17.8734E-3
1.77839E-3	50.1243E-12	931.639E-3	-25.6154E-3	48.9769E-12	919.050E-3	-28.5437E-3
1.77339E-3	49.8474E-12	922.453E-3	-40.6679E-3	48.6524E-12	927.045E-3	-40.2271E-3
1.76838E-3	49.2809E-12	925.065E-3	-38.6026E-3	48.5169E-12	929.334E-3	-28.3512E-3
1.76338E-3	47.9239E-12	933.380E-3	-37.7964E-3	48.5468E-12	917.801E-3	-20.2115E-3
1.75838E-3	47.5779E-12	925.844E-3	-32.2643E-3	48.3671E-12	910.604E-3	-17.3318E-3
1.75338E-3	47.6022E-12	915.555E-3	-25.1419E-3	48.0066E-12	914.879E-3	-11.7497E-3
1.74837E-3	47.5798E-12	912.233E-3	-28.6352E-3	47.9488E-12	918.296E-3	-14.6624E-3
1.74337E-3	47.0155E-12	901.344E-3	-29.4975E-3	47.7268E-12	920.355E-3	-15.4239E-3
1.73837E-3	46.7950E-12	897.411E-3	-28.6723E-3	47.5590E-12	924.870E-3	-18.7031E-3
1.73337E-3	47.1109E-12	902.966E-3	-14.4764E-3	47.3864E-12	931.662E-3	-30.3227E-3
1.72836E-3	47.8533E-12	920.740E-3	-9.25422E-3	46.7468E-12	939.828E-3	-30.0200E-3
1.72336E-3	47.5257E-12	949.588E-3	-36.4973E-3	46.6245E-12	955.130E-3	-26.2095E-3
1.71836E-3	46.9299E-12	960.514E-3	-47.2956E-3	46.3610E-12	969.937E-3	-20.0752E-3
1.71336E-3	46.6145E-12	958.646E-3	-29.5512E-3	45.9261E-12	967.817E-3	-10.5658E-3
1.70835E-3	46.9178E-12	960.408E-3	-18.2818E-3	45.4615E-12	956.988E-3	-15.0431E-3
1.70335E-3	46.4389E-12	958.680E-3	-21.0452E-3	45.1367E-12	960.292E-3	-24.6644E-3
1.69835E-3	45.6805E-12	964.159E-3	-20.8912E-3	44.4940E-12	969.035E-3	-22.2319E-3
1.69335E-3	44.9524E-12	979.320E-3	-13.6245E-3	43.5132E-12	972.228E-3	-11.5405E-3
1.68834E-3	44.5662E-12	981.932E-3	-11.5712E-3	43.2688E-12	979.455E-3	-15.0670E-3
1.68334E-3	44.2544E-12	978.522E-3	-19.4960E-3	43.2866E-12	980.135E-3	-30.1164E-3
1.67834E-3	43.4940E-12	987.780E-3	-28.9421E-3	42.9086E-12	974.737E-3	-26.6237E-3
1.67334E-3	42.6297E-12	996.983E-3	-26.7116E-3	42.3763E-12	973.676E-3	-3.78940E-3
1.66833E-3	41.8748E-12	980.232E-3	-17.7191E-3	42.1328E-12	972.893E-3	13.7210E-3
1.66333E-3	41.4694E-12	950.259E-3	-9.84400E-3	41.8882E-12	977.448E-3	7.59242E-3
1.65833E-3	41.0936E-12	944.755E-3	4.14529E-3	41.6491E-12	985.881E-3	-15.2474E-3
1.65333E-3	40.8319E-12	959.829E-3	9.56394E-3	40.8805E-12	995.163E-3	-27.0900E-3
1.64832E-3	40.3188E-12	971.688E-3	-14.0704E-3	40.6951E-12	1.01358E+0	-26.4333E-3
1.64332E-3	39.9602E-12	971.670E-3	-31.2003E-3	40.7226E-12	1.02852E+0	-27.7948E-3
1.63832E-3	40.0235E-12	971.740E-3	-22.2227E-3	40.7588E-12	1.03644E+0	-24.1383E-3
1.63332E-3	40.0508E-12	984.912E-3	-14.4836E-3	40.6001E-12	1.04328E+0	-11.5453E-3
1.62831E-3	39.7238E-12	998.579E-3	-8.89322E-3	40.2674E-12	1.04956E+0	1.60051E-3
1.62331E-3	39.5245E-12	1.00211E+0	-5.82088E-3	40.0556E-12	1.04762E+0	2.43250E-3
1.61831E-3	39.5308E-12	1.00032E+0	-7.64030E-3	39.7784E-12	1.03317E+0	-6.59808E-3
1.61331E-3	39.6497E-12	1.00903E+0	-14.3288E-3	39.4165E-12	1.01586E+0	-10.7246E-3
1.60830E-3	39.1248E-12	1.03478E+0	-26.6443E-3	38.8500E-12	1.00529E+0	-8.48706E-3
1.60330E-3	38.7751E-12	1.05474E+0	-30.4297E-3	38.4800E-12	1.01226E+0	-3.11206E-3
1.59830E-3	38.3359E-12	1.05758E+0	-30.8024E-3	37.8807E-12	1.03132E+0	430.001E-6
1.59330E-3	37.9924E-12	1.05881E+0	-33.4943E-3	37.4315E-12	1.04999E+0	-6.52072E-3
1.58829E-3	37.4941E-12	1.05726E+0	-25.7216E-3	36.9721E-12	1.05704E+0	-7.55674E-3
1.58329E-3	37.1128E-12	1.05114E+0	-14.9477E-3	36.6330E-12	1.06324E+0	-2.02362E-3
1.57829E-3	36.8379E-12	1.04346E+0	-12.9883E-3	36.2731E-12	1.06955E+0	-7.58903E-3
1.57329E-3	36.2753E-12	1.04419E+0	-13.3214E-3	35.6971E-12	1.06249E+0	-12.5033E-3
1.56828E-3	35.8092E-12	1.05434E+0	-11.7619E-3	35.1866E-12	1.06646E+0	-10.1475E-3
1.56328E-3	35.2347E-12	1.06052E+0	3.56499E-3	34.8658E-12	1.07820E+0	-9.91301E-3
1.55828E-3	34.9142E-12	1.06329E+0	22.0901E-3	34.7773E-12	1.08069E+0	-12.1085E-3
1.55328E-3	34.3177E-12	1.06527E+0	12.4637E-3	34.4380E-12	1.08582E+0	-6.48592E-3
1.54827E-3	33.7262E-12	1.06537E+0	-15.9160E-3	34.1914E-12	1.09603E+0	-5.99654E-3
1.54327E-3	33.2040E-12	1.06707E+0	-33.1988E-3	33.7872E-12	1.11508E+0	-9.91018E-3
1.53827E-3	32.8998E-12	1.06683E+0	-34.7123E-3	33.5521E-12	1.13589E+0	-7.26033E-3
1.53327E-3	32.4560E-12	1.06714E+0	-30.3282E-3	33.5380E-12	1.14007E+0	-14.8274E-3
1.52826E-3	32.0607E-12	1.08236E+0	-27.5610E-3	33.4531E-12	1.13434E+0	-20.2043E-3
1.52326E-3	31.9439E-12	1.09421E+0	-15.9899E-3	33.2129E-12	1.13260E+0	-17.0296E-3
1.51826E-3	31.6781E-12	1.08439E+0	-1.67102E-3	32.4580E-12	1.13680E+0	-23.7455E-3
1.51326E-3	31.4063E-12	1.07694E+0	-1.78707E-3	32.2400E-12	1.13712E+0	-34.8452E-3
1.50825E-3	30.9847E-12	1.08269E+0	-4.69298E-3	32.2913E-12	1.13515E+0	-34.6733E-3
1.50325E-3	31.0799E-12	1.09042E+0	-5.13963E-3	31.7010E-12	1.13644E+0	-23.4487E-3
1.49825E-3	31.1663E-12	1.10944E+0	-10.1370E-3	30.5411E-12	1.13166E+0	-14.3362E-3
1.49325E-3	30.9183E-12	1.13217E+0	-25.0623E-3	30.1493E-12	1.13009E+0	-10.7956E-3
1.48824E-3	30.4768E-12	1.14436E+0	-33.9347E-3	29.9526E-12	1.13045E+0	-18.8073E-3
1.48324E-3	30.2233E-12	1.15491E+0	-19.9303E-3	29.7110E-12	1.12227E+0	-33.7347E-3
1.47824E-3	29.9861E-12	1.16621E+0	-11.6183E-3	28.6713E-12	1.11325E+0	-40.8698E-3
1.47324E-3	29.6344E-12	1.17232E+0	-21.1547E-3	28.1998E-12	1.10979E+0	-40.6777E-3
1.46823E-3	28.9379E-12	1.17104E+0	-19.6810E-3	27.9443E-12	1.11027E+0	-31.6072E-3
1.46323E-3	28.2696E-12	1.17057E+0	-5.63709E-3	27.5764E-12	1.11933E+0	-17.6676E-3
1.45823E-3	27.7737E-12	1.16884E+0	-699.515E-6	26.8701E-12	1.12756E+0	-19.7106E-3
1.45323E-3	27.2018E-12	1.15975E+0	-9.22658E-3	26.4857E-12	1.11920E+0	-22.5874E-3
1.44822E-3	26.5581E-12	1.14627E+0	-18.3755E-3	26.4881E-12	1.11864E+0	-15.6206E-3
1.44322E-3	25.9922E-12	1.13475E+0	-23.9006E-3	26.3444E-12	1.13835E+0	-25.4774E-3
1.43822E-3	25.5839E-12	1.12489E+0	-18.6234E-3	25.9275E-12	1.14692E+0	-38.2518E-3
1.43322E-3	25.3031E-12	1.11320E+0	-4.32029E-3	25.7250E-12	1.14101E+0	-41.3987E-3
1.42821E-3	24.8218E-12	1.10983E+0	-5.04714E-3	25.5315E-12	1.13442E+0	-37.6891E-3
1.42321E-3	24.4013E-12	1.10977E+0	-14.1669E-3	25.3105E-12	1.13096E+0	-22.5436E-3
1.41821E-3	24.0862E-12	1.11101E+0	-21.1856E-3	24.8933E-12	1.13574E+0	-10.5788E-3
1.41321E-3	23.9477E-12	1.11671E+0	-24.9584E-3	24.4483E-12	1.13449E+0	-9.22097E-3
1.40820E-3	23.8641E-12	1.11732E+0	-21.9672E-3	24.0438E-12	1.12505E+0	-17.3016E-3
1.40320E-3	23.6716E-12	1.12087E+0	-20.4512E-3	23.6620E-12	1.12181E+0	-24.2654E-3
1.39820E-3	23.3698E-12	1.12837E+0	-22.1644E-3	23.2576E-12	1.11715E+0	-20.1071E-3
1.39320E-3	23.0359E-12	1.11449E+0	-26.0093E-3	22.6278E-12	1.10752E+0	-9.65963E-3
1.38819E-3	22.9165E-12	1.09688E+0	-19.0124E-3	22.3481E-12	1.10082E+0	-5.82375E-3
1.38319E-3	22.7842E-12	1.10962E+0	-8.09571E-3	22.0072E-12	1.08990E+0	-10.7889E-3
1.37819E-3	22.3980E-12	1.13367E+0	-11.8626E-3	21.4749E-12	1.07928E+0	-10.5260E-3
1.37319E-3	21.7603E-12	1.14554E+0	-10.7277E-3	21.0316E-12	1.07701E+0	-8.40595E-3
1.36818E-3	21.2450E-12	1.15002E+0	-2.97382E-3	20.5481E-12	1.08337E+0	-10.4992E-3
1.36318E-3	21.1073E-12	1.14373E+0	-5.35672E-3	20.2415E-12	1.08463E+0	-10.6348E-3
1.35818E-3	20.4399E-12	1.12992E+0	-3.66598E-3	19.7817E-12	1.07201E+0	-4.95385E-3
1.35318E-3	19.8082E-12	1.12050E+0	8.22599E-3	19.5741E-12	1.06319E+0	-2.98870E-3
1.34817E-3	19.2230E-12	1.10150E+0	3.36708E-3	19.3397E-12	1.05994E+0	-12.4223E-3
1.34317E-3	18.9580E-12	1.07962E+0	-13.4122E-3	18.9854E-12	1.05510E+0	-8.98569E-3
1.33817E-3	18.5202E-12	1.07206E+0	-12.0157E-3	18.7363E-12	1.04970E+0	7.15816E-3
1.33317E-3	17.9746E-12	1.06686E+0	-503.025E-6	18.5812E-12	1.04273E+0	11.0465E-3
1.32816E-3	17.5946E-12	1.04693E+0	-3.16112E-3	18.2238E-12	1.04013E+0	1.35000E-3
1.32316E-3	17.3834E-12	1.02906E+0	-12.7761E-3	17.7210E-12	1.04338E+0	-11.3729E-3
1.31816E-3	17.1609E-12	1.02544E+0	-20.4310E-3	17.3376E-12	1.03901E+0	-23.3713E-3
1.31316E-3	16.6630E-12	1.01825E+0	-23.5483E-3	17.1996E-12	1.02590E+0	-26.3489E-3
1.30815E-3	16.6184E-12	1.01174E+0	-20.7701E-3	17.0432E-12	1.01681E+0	-20.7037E-3
1.30315E-3	16.4871E-12	1.00944E+0	-20.5308E-3	16.6712E-12	1.00924E+0	-19.5895E-3
1.29815E-3	16.2307E-12	999.969E-3	-17.1299E-3	16.2168E-12	993.994E-3	-19.2451E-3
1.29315E-3	16.0062E-12	993.668E-3	-17.4767E-3	16.0040E-12	979.652E-3	-16.5684E-3
1.28814E-3	15.7841E-12	1.00467E+0	-18.5928E-3	15.6644E-12	966.337E-3	-13.5050E-3
1.28314E-3	15.4326E-12	1.01273E+0	-7.57953E-3	15.2070E-12	935.853E-3	-8.07772E-3
1.27814E-3	14.9555E-12	1.00502E+0	-6.11842E-3	14.7984E-12	902.409E-3	727.373E-6
1.27314E-3	14.6222E-12	984.711E-3	-6.34714E-3	14.5662E-12	896.296E-3	-1.43116E-3
1.26813E-3	14.3416E-12	957.226E-3	459.429E-6	14.2275E-12	893.698E-3	-20.5332E-3
1.26313E-3	13.9866E-12	939.790E-3	-6.55146E-3	13.7965E-12	876.201E-3	-31.7283E-3
1.25813E-3	13.5118E-12	940.672E-3	-17.7674E-3	13.4650E-12	866.827E-3	-28.6409E-3
1.25313E-3	13.1828E-12	938.756E-3	-13.3894E-3	13.1547E-12	854.766E-3	-22.4804E-3
1.24812E-3	12.7976E-12	919.339E-3	-470.285E-6	12.8254E-12	845.561E-3	-17.6931E-3
1.24312E-3	12.5076E-12	895.677E-3	3.41976E-3	12.5392E-12	849.552E-3	-11.8134E-3
1.23812E-3	12.1060E-12	868.886E-3	-5.13087E-3	12.4189E-12	839.166E-3	-14.3758E-3
1.23312E-3	11.8952E-12	840.359E-3	-11.9526E-3	12.1309E-12	815.335E-3	-17.2239E-3
1.22811E-3	11.5579E-12	818.478E-3	-3.59310E-3	11.7746E-12	794.516E-3	-6.38697E-3
1.22311E-3	11.3132E-12	803.505E-3	3.71043E-3	11.4724E-12	774.552E-3	-13.3501E-3
1.21811E-3	11.0106E-12	790.320E-3	-2.73431E-3	11.2563E-12	753.427E-3	-32.4608E-3
1.21311E-3	10.7603E-12	778.170E-3	-15.4481E-3	11.0110E-12	733.314E-3	-30.9044E-3
1.20810E-3	10.6461E-12	773.427E-3	-23.7977E-3	10.7204E-12	716.790E-3	-14.2693E-3
1.20310E-3	10.3262E-12	764.044E-3	-21.0028E-3	10.4142E-12	696.790E-3	-4.31362E-3
1.19810E-3	10.0479E-12	747.263E-3	-11.9463E-3	10.2632E-12	674.566E-3	-14.2070E-3
1.19310E-3	9.98554E-12	737.234E-3	-9.32672E-3	10.0197E-12	664.549E-3	-27.9549E-3
1.18809E-3	9.90590E-12	723.529E-3	-17.8328E-3	9.73170E-12	660.261E-3	-21.8624E-3
1.18309E-3	9.54902E-12	709.657E-3	-21.8946E-3	9.49517E-12	647.295E-3	-8.95339E-3
1.17809E-3	9.34252E-12	700.502E-3	-14.4273E-3	9.37779E-12	622.002E-3	-12.3512E-3
1.17309E-3	9.13696E-12	680.751E-3	-9.80014E-3	9.14713E-12	598.693E-3	-28.7871E-3
1.16808E-3	8.96028E-12	660.953E-3	-5.22242E-3	8.76336E-12	593.579E-3	-35.4739E-3
1.16308E-3	8.69767E-12	656.237E-3	2.15038E-3	8.51125E-12	586.111E-3	-22.7465E-3
1.15808E-3	8.41494E-12	647.797E-3	-4.90417E-3	8.40865E-12	564.832E-3	-5.55945E-3
1.15308E-3	8.15020E-12	628.719E-3	-16.1337E-3	8.10547E-12	551.209E-3	-4.94407E-3
1.14807E-3	8.03055E-12	611.031E-3	-10.7265E-3	7.82080E-12	544.312E-3	-20.1662E-3
1.14307E-3	7.78377E-12	596.878E-3	-3.16679E-3	7.71268E-12	533.839E-3	-28.9023E-3
1.13807E-3	7.50893E-12	580.670E-3	-5.74513E-3	7.50539E-12	521.453E-3	-23.0796E-3
1.13307E-3	7.33492E-12	561.875E-3	-16.5170E-3	7.38274E-12	503.626E-3	-19.4406E-3
1.12806E-3	7.14923E-12	546.418E-3	-21.0701E-3	7.16202E-12	467.876E-3	-25.5808E-3
1.12306E-3	6.96160E-12	524.657E-3	-14.3959E-3	6.96868E-12	430.849E-3	-22.5367E-3
1.11806E-3	6.75642E-12	508.868E-3	-15.5135E-3	6.75906E-12	419.114E-3	-16.5038E-3
1.11306E-3	6.65412E-12	511.618E-3	-21.7174E-3	6.62172E-12	422.020E-3	-22.0791E-3
1.10805E-3	6.52768E-12	500.097E-3	-14.0421E-3	6.46617E-12	430.820E-3	-26.3943E-3
1.10305E-3	6.28744E-12	467.873E-3	103.995E-6	6.33703E-12	422.442E-3	-24.8494E-3
1.09805E-3	6.30136E-12	448.860E-3	-214.059E-6	6.30340E-12	388.669E-3	-16.1813E-3
1.09305E-3	6.19055E-12	446.479E-3	-10.6244E-3	6.13114E-12	368.430E-3	-9.92815E-3
1.08804E-3	6.02155E-12	439.992E-3	-24.1306E-3	6.00455E-12	369.029E-3	-20.1863E-3
1.08304E-3	5.85870E-12	423.077E-3	-38.6619E-3	5.90794E-12	361.723E-3	-22.6625E-3
1.07804E-3	5.83300E-12	401.588E-3	-40.4939E-3	5.77168E-12	346.736E-3	-5.25073E-3
1.07304E-3	5.70570E-12	386.705E-3	-28.1079E-3	5.57755E-12	329.126E-3	3.24420E-3
1.06803E-3	5.62202E-12	382.341E-3	-11.6957E-3	5.51157E-12	303.476E-3	-5.23263E-3
1.06303E-3	5.44398E-12	381.448E-3	-146.136E-6	5.40459E-12	299.616E-3	-5.89648E-3
1.05803E-3	5.37815E-12	372.388E-3	-6.53756E-3	5.24658E-12	311.236E-3	-4.52985E-3
1.05303E-3	5.32930E-12	348.912E-3	-21.7832E-3	5.14121E-12	303.939E-3	-16.7819E-3
1.04802E-3	5.19303E-12	330.476E-3	-21.3237E-3	5.08759E-12	287.467E-3	-22.7788E-3
1.04302E-3	5.18772E-12	331.292E-3	-2.08743E-3	5.13307E-12	271.272E-3	-20.0223E-3
1.03802E-3	4.98644E-12	332.929E-3	6.35472E-3	4.85616E-12	261.040E-3	-27.2065E-3
1.03302E-3	4.70237E-12	326.040E-3	-3.13878E-3	4.65339E-12	250.094E-3	-32.0528E-3
1.02801E-3	4.57692E-12	311.851E-3	-4.35242E-3	4.50138E-12	235.205E-3	-24.8905E-3
1.02301E-3	4.34949E-12	281.760E-3	1.38699E-3	4.42775E-12	227.442E-3	-23.5052E-3
1.01801E-3	4.25288E-12	255.779E-3	3.02801E-3	4.28696E-12	213.209E-3	-22.9483E-3
1.01301E-3	4.17655E-12	249.407E-3	-1.21845E-3	4.22820E-12	197.620E-3	-23.9736E-3
1.00800E-3	4.07973E-12	242.885E-3	-7.40211E-3	4.18236E-12	198.565E-3	-35.6766E-3
1.00300E-3	3.98762E-12	228.189E-3	-10.7362E-3	4.15043E-12	202.094E-3	-32.6429E-3
997.999E-6	3.99023E-12	212.871E-3	-14.0683E-3	4.02155E-12	192.273E-3	-14.6238E-3
992.997E-6	3.88717E-12	203.143E-3	-13.0817E-3	3.99546E-12	177.446E-3	-4.34047E-3
987.994E-6	3.76020E-12	194.602E-3	-2.66498E-3	3.94262E-12	173.711E-3	-2.30227E-3
982.991E-6	3.73370E-12	180.078E-3	1.56834E-3	3.86316E-12	177.525E-3	-1.38529E-3
977.989E-6	3.75055E-12	170.656E-3	-5.35336E-3	3.75957E-12	160.173E-3	848.694E-6
972.986E-6	3.78746E-12	175.042E-3	-9.75405E-3	3.79463E-12	130.723E-3	4.30507E-3
967.984E-6	3.67271E-12	178.055E-3	-4.89031E-3	3.68245E-12	124.607E-3	-368.722E-6
962.981E-6	3.58437E-12	175.823E-3	-1.28169E-3	3.66309E-12	127.935E-3	-26.5408E-3
957.979E-6	3.57684E-12	162.508E-3	-12.1037E-3	3.53647E-12	125.954E-3	-43.4918E-3
952.976E-6	3.53511E-12	144.195E-3	-20.9874E-3	3.54666E-12	123.979E-3	-26.0913E-3
947.974E-6	3.48765E-12	140.172E-3	-19.2118E-3	3.49340E-12	118.139E-3	-11.9717E-3
942.971E-6	3.35519E-12	137.879E-3	-23.9860E-3	3.41260E-12	115.449E-3	-15.4586E-3
937.969E-6	3.35235E-12	137.416E-3	-29.3514E-3	3.36919E-12	121.765E-3	-6.38294E-3
932.966E-6	3.29447E-12	145.838E-3	-22.0941E-3	3.29780E-12	125.982E-3	2.62669E-3
927.964E-6	3.25847E-12	139.973E-3	-14.1742E-3	3.36106E-12	122.765E-3	-12.2713E-3
922.961E-6	3.19070E-12	122.810E-3	-13.3936E-3	3.22606E-12	113.586E-3	-29.3718E-3
917.959E-6	3.10101E-12	116.044E-3	-14.7741E-3	3.20957E-12	110.063E-3	-31.1901E-3
912.956E-6	3.03990E-12	111.300E-3	-12.7060E-3	3.18206E-12	105.375E-3	-26.1759E-3
907.954E-6	2.99235E-12	101.875E-3	-6.21006E-3	3.14857E-12	96.0575E-3	-18.2946E-3
902.951E-6	3.07231E-12	83.0823E-3	1.60209E-3	3.13321E-12	97.2724E-3	-10.1488E-3
897.949E-6	3.00539E-12	74.3504E-3	-2.68558E-3	3.05528E-12	95.9132E-3	-13.1128E-3
892.946E-6	2.95072E-12	91.1473E-3	-15.6892E-3	2.99604E-12	81.7954E-3	-22.9434E-3
887.944E-6	2.94748E-12	103.894E-3	-24.6616E-3	3.02081E-12	79.6158E-3	-27.1940E-3
882.941E-6	2.95030E-12	91.0290E-3	-33.1758E-3	3.03458E-12	94.4540E-3	-28.8861E-3
877.939E-6	2.93806E-12	77.9915E-3	-29.9209E-3	2.90880E-12	96.7868E-3	-24.3123E-3
872.936E-6	2.94829E-12	90.5857E-3	-18.8164E-3	2.82373E-12	86.2250E-3	-17.2176E-3
867.934E-6	2.84463E-12	96.0093E-3	-18.8981E-3	2.80422E-12	81.8647E-3	-23.3702E-3
862.931E-6	2.82580E-12	85.0409E-3	-20.9768E-3	2.75128E-12	83.9221E-3	-25.6614E-3
857.929E-6	2.86476E-12	86.7291E-3	-16.1221E-3	2.76053E-12	81.7224E-3	-17.4329E-3
852.926E-6	2.87507E-12	82.9341E-3	-24.2599E-3	2.73156E-12	68.2938E-3	-15.8931E-3
847.924E-6	2.75861E-12	60.2076E-3	-37.0386E-3	2.66384E-12	55.7356E-3	-13.1721E-3
842.921E-6	2.67417E-12	52.5019E-3	-29.5837E-3	2.68224E-12	53.1178E-3	-14.1089E-3
837.919E-6	2.72894E-12	67.7426E-3	-21.0960E-3	2.62919E-12	61.1381E-3	-28.3697E-3
832.916E-6	2.75349E-12	84.8357E-3	-22.3054E-3	2.65998E-12	73.4188E-3	-37.1400E-3
827.914E-6	2.59435E-12	86.7751E-3	-25.7812E-3	2.55319E-12	76.4518E-3	-23.1009E-3
822.911E-6	2.56585E-12	74.1859E-3	-30.3663E-3	2.50566E-12	65.9249E-3	-5.80378E-3
817.909E-6	2.61300E-12	66.9671E-3	-26.5353E-3	2.49981E-12	49.4777E-3	-4.60748E-3
812.906E-6	2.60591E-12	72.5041E-3	-13.8715E-3	2.47582E-12	55.5813E-3	-8.18301E-3
807.904E-6	2.54327E-12	82.3108E-3	-5.09088E-3	2.45222E-12	85.1131E-3	-9.42126E-3
802.901E-6	2.47389E-12	82.5143E-3	-10.7780E-3	2.37063E-12	99.8167E-3	-9.65858E-3
797.899E-6	2.42743E-12	73.0765E-3	-20.8748E-3	2.39679E-12	90.4026E-3	-16.2695E-3
792.896E-6	2.44557E-12	66.1414E-3	-13.9418E-3	2.39249E-12	74.3441E-3	-22.5126E-3
787.894E-6	2.50142E-12	62.2082E-3	-5.60015E-3	2.38918E-12	68.2594E-3	-17.3995E-3
782.891E-6	2.42348E-12	61.2305E-3	-10.2719E-3	2.26985E-12	78.2393E-3	-15.8614E-3
777.889E-6	2.32876E-12	67.6167E-3	-4.41477E-3	2.22658E-12	76.0221E-3	-17.9492E-3
772.886E-6	2.31345E-12	70.3132E-3	2.12102E-3	2.29255E-12	60.0048E-3	-10.7175E-3
767.884E-6	2.37856E-12	62.0736E-3	-9.09997E-3	2.27058E-12	62.4729E-3	-1.54335E-3
762.881E-6	2.28644E-12	64.0512E-3	-22.7109E-3	2.21956E-12	69.8487E-3	-11.2992E-3
757.879E-6	2.23351E-12	78.7851E-3	-28.6922E-3	2.15156E-12	69.2895E-3	-23.0085E-3
752.876E-6	2.24049E-12	80.3054E-3	-26.3898E-3	2.11662E-12	75.5811E-3	-21.4527E-3
747.874E-6	2.26008E-12	70.7807E-3	-16.3253E-3	2.09836E-12	74.7700E-3	-22.7864E-3
742.871E-6	2.19577E-12	68.0363E-3	-3.34451E-3	2.10807E-12	58.4605E-3	-23.0208E-3
737.869E-6	2.15913E-12	68.2794E-3	1.92541E-3	2.06196E-12	52.5265E-3	-25.7177E-3
732.866E-6	2.10831E-12	71.1454E-3	-3.89510E-3	2.03842E-12	71.1010E-3	-31.4518E-3
727.864E-6	2.06965E-12	74.8610E-3	-6.78082E-3	1.96670E-12	84.0258E-3	-22.6693E-3
722.861E-6	2.10662E-12	72.8843E-3	-1.17863E-3	2.03781E-12	78.4582E-3	-8.33092E-3
717.859E-6	2.02791E-12	68.0912E-3	-1.47886E-3	2.00370E-12	82.1215E-3	-4.58127E-3
712.856E-6	1.94500E-12	60.8587E-3	-8.49158E-3	1.95909E-12	84.5582E-3	-7.70212E-3
707.854E-6	1.89959E-12	65.1135E-3	-11.0056E-3	1.87111E-12	79.4071E-3	-7.02957E-3
702.851E-6	1.89664E-12	79.2707E-3	-8.32589E-3	1.94009E-12	91.0879E-3	-8.09348E-3
697.849E-6	1.90049E-12	82.6471E-3	-6.89417E-3	1.96785E-12	97.2705E-3	-22.3185E-3
692.846E-6	1.84710E-12	73.1378E-3	-6.67323E-3	1.88536E-12	84.5923E-3	-31.8874E-3
687.844E-6	1.78024E-12	67.7141E-3	-8.25274E-3	1.87152E-12	74.9903E-3	-30.5406E-3
682.841E-6	1.78279E-12	73.7818E-3	-17.8208E-3	1.84067E-12	64.6965E-3	-34.6117E-3
677.839E-6	1.83606E-12	80.9470E-3	-28.5604E-3	1.86687E-12	65.5123E-3	-32.7164E-3
672.836E-6	1.76277E-12	76.1491E-3	-28.3303E-3	1.78060E-12	81.7097E-3	-25.0694E-3
667.834E-6	1.66132E-12	60.3795E-3	-20.8143E-3	1.69269E-12	77.3243E-3	-27.7662E-3
662.831E-6	1.60435E-12	50.4885E-3	-12.3221E-3	1.72345E-12	51.1478E-3	-25.6451E-3
657.829E-6	1.68040E-12	51.9098E-3	-3.93927E-3	1.69292E-12	50.5549E-3	-18.6361E-3
652.826E-6	1.71187E-12	61.4356E-3	-496.835E-6	1.65354E-12	76.9867E-3	-18.3428E-3
647.824E-6	1.58499E-12	78.8187E-3	-8.98342E-3	1.64049E-12	83.6330E-3	-20.1065E-3
642.821E-6	1.55082E-12	85.5365E-3	-11.8113E-3	1.55392E-12	72.0168E-3	-15.9315E-3
637.819E-6	1.51600E-12	80.4653E-3	-5.31276E-3	1.51960E-12	64.9346E-3	-18.5773E-3
632.816E-6	1.64410E-12	87.5470E-3	-1.73868E-3	1.56357E-12	59.1852E-3	-28.7367E-3
627.814E-6	1.49502E-12	91.0394E-3	-4.47191E-3	1.52050E-12	57.5954E-3	-24.8323E-3
622.811E-6	1.40900E-12	80.7088E-3	-17.2303E-3	1.48473E-12	64.5672E-3	-19.4667E-3
617.809E-6	1.43676E-12	70.7193E-3	-23.0747E-3	1.41106E-12	71.2042E-3	-24.1864E-3
612.806E-6	1.40650E-12	64.8621E-3	-14.3713E-3	1.35476E-12	73.1786E-3	-21.6898E-3
607.804E-6	1.38658E-12	66.0783E-3	-3.17914E-3	1.38090E-12	78.2899E-3	-7.32332E-3
602.801E-6	1.31850E-12	77.5054E-3	-7.55616E-3	1.37950E-12	91.6548E-3	-3.70721E-3
597.799E-6	1.25404E-12	90.0281E-3	-28.1452E-3	1.29651E-12	94.8578E-3	-10.3377E-3
592.796E-6	1.26118E-12	90.4691E-3	-36.7311E-3	1.23329E-12	76.5419E-3	-27.8462E-3
587.794E-6	1.31371E-12	80.1754E-3	-28.2076E-3	1.31098E-12	58.5671E-3	-43.2417E-3
582.791E-6	1.27445E-12	71.9585E-3	-24.4936E-3	1.29728E-12	58.7555E-3	-23.5259E-3
577.789E-6	1.17402E-12	69.9644E-3	-28.0011E-3	1.18416E-12	72.3452E-3	734.026E-6
572.786E-6	1.16108E-12	67.2824E-3	-28.4492E-3	1.11937E-12	72.8926E-3	2.40111E-3
567.784E-6	1.15538E-12	73.3461E-3	-35.8526E-3	1.15521E-12	65.4477E-3	2.88156E-3
562.781E-6	1.21559E-12	81.6731E-3	-40.6907E-3	1.20391E-12	73.1711E-3	1.62251E-3
557.779E-6	1.10030E-12	74.7409E-3	-29.4267E-3	1.11891E-12	84.4002E-3	-2.71270E-3
552.776E-6	1.05204E-12	65.0455E-3	-26.0825E-3	1.01905E-12	92.8090E-3	2.75115E-3
547.774E-6	1.05662E-12	63.1049E-3	-26.2488E-3	987.773E-15	94.3697E-3	1.34762E-3
542.771E-6	1.10416E-12	58.4488E-3	-19.6739E-3	1.00728E-12	85.8808E-3	-17.5268E-3
537.769E-6	1.08716E-12	60.7929E-3	-17.0296E-3	991.959E-15	70.2391E-3	-26.8003E-3
532.766E-6	1.00138E-12	69.3115E-3	-9.10069E-3	954.187E-15	63.8434E-3	-24.6789E-3
527.764E-6	968.312E-15	73.1264E-3	-2.95094E-3	913.581E-15	74.6207E-3	-34.5052E-3
522.761E-6	965.347E-15	79.5557E-3	-10.0754E-3	897.241E-15	77.1445E-3	-43.7945E-3
517.759E-6	941.561E-15	72.0251E-3	-13.6630E-3	904.766E-15	68.9326E-3	-36.6074E-3
512.756E-6	945.040E-15	62.9784E-3	-10.2577E-3	895.105E-15	68.5025E-3	-24.6882E-3
507.754E-6	830.451E-15	73.8931E-3	-11.0388E-3	813.649E-15	73.3258E-3	-20.7619E-3
502.751E-6	859.399E-15	86.3745E-3	-19.2929E-3	772.947E-15	82.2870E-3	-23.9599E-3
497.749E-6	878.337E-15	79.0778E-3	-22.3697E-3	798.033E-15	99.4726E-3	-24.6901E-3
492.746E-6	811.774E-15	57.5377E-3	-13.4864E-3	815.227E-15	93.1272E-3	-18.6502E-3
487.744E-6	744.383E-15	49.8033E-3	-6.92528E-3	740.729E-15	59.0163E-3	-14.0925E-3
482.741E-6	748.228E-15	54.1656E-3	-7.97126E-3	699.914E-15	37.3353E-3	-14.2741E-3
477.739E-6	751.454E-15	56.5750E-3	-12.6934E-3	655.193E-15	36.1622E-3	-20.5768E-3
472.736E-6	736.274E-15	62.5053E-3	-17.6464E-3	708.686E-15	48.9968E-3	-27.6774E-3
467.734E-6	667.382E-15	67.0264E-3	-21.7323E-3	774.891E-15	64.5509E-3	-21.2998E-3
462.731E-6	631.459E-15	59.7304E-3	-23.3416E-3	629.122E-15	70.0836E-3	-13.4864E-3
457.729E-6	625.538E-15	54.5778E-3	-16.5564E-3	606.670E-15	71.3083E-3	-19.2628E-3
452.726E-6	633.081E-15	61.4974E-3	-8.35609E-3	589.423E-15	66.9085E-3	-22.8717E-3
447.724E-6	591.577E-15	74.2881E-3	-16.1993E-3	634.580E-15	55.8922E-3	-16.7216E-3
442.721E-6	604.037E-15	81.6165E-3	-33.3201E-3	570.459E-15	51.2517E-3	-18.2134E-3
437.719E-6	567.573E-15	73.7192E-3	-30.2339E-3	493.232E-15	44.9547E-3	-24.8709E-3
432.716E-6	550.666E-15	57.0605E-3	-15.8056E-3	544.231E-15	36.8033E-3	-20.2996E-3
427.714E-6	561.399E-15	56.8310E-3	-13.9007E-3	538.127E-15	48.2710E-3	-17.2070E-3
422.711E-6	454.361E-15	68.5187E-3	-13.6102E-3	480.964E-15	61.0917E-3	-21.6602E-3
417.709E-6	458.250E-15	65.6730E-3	-10.6731E-3	395.296E-15	55.4204E-3	-14.0668E-3
412.706E-6	455.390E-15	51.8848E-3	-19.5019E-3	416.955E-15	48.4536E-3	380.982E-6
407.704E-6	460.508E-15	41.3264E-3	-26.7279E-3	462.182E-15	39.6670E-3	-2.32950E-3
402.701E-6	432.807E-15	43.2066E-3	-11.4242E-3	421.184E-15	26.8621E-3	-18.5819E-3
397.699E-6	390.239E-15	50.5920E-3	6.87283E-3	378.756E-15	29.2039E-3	-30.4354E-3
392.696E-6	348.709E-15	52.4858E-3	550.232E-6	378.268E-15	48.2796E-3	-31.5160E-3
387.694E-6	321.984E-15	49.2436E-3	-19.0682E-3	327.957E-15	47.0558E-3	-27.9103E-3
382.691E-6	381.189E-15	46.9530E-3	-22.7629E-3	334.357E-15	28.6501E-3	-19.8786E-3
377.689E-6	331.445E-15	45.5680E-3	-16.3941E-3	325.472E-15	36.7759E-3	-10.3357E-3
372.686E-6	313.143E-15	45.6538E-3	-21.3479E-3	327.103E-15	49.3545E-3	-8.37876E-3
367.684E-6	281.492E-15	47.5112E-3	-29.0288E-3	296.271E-15	40.0984E-3	-7.26701E-3
362.681E-6	311.565E-15	38.8609E-3	-34.9668E-3	252.117E-15	26.8565E-3	-14.7762E-3
357.679E-6	280.603E-15	23.7294E-3	-29.9564E-3	296.568E-15	18.6626E-3	-24.2925E-3
352.676E-6	231.809E-15	29.0523E-3	-16.8756E-3	304.354E-15	20.2120E-3	-16.1579E-3
347.674E-6	211.833E-15	51.8774E-3	-23.0746E-3	186.600E-15	32.9062E-3	-5.98279E-3
342.671E-6	191.517E-15	54.1575E-3	-32.8695E-3	133.935E-15	37.6169E-3	-12.4484E-3
337.669E-6	247.757E-15	40.8019E-3	-27.8900E-3	241.906E-15	35.3924E-3	-23.3674E-3
332.666E-6	198.397E-15	40.8049E-3	-28.6014E-3	239.770E-15	42.9858E-3	-26.1557E-3
327.664E-6	193.192E-15	41.1264E-3	-36.4011E-3	185.222E-15	46.7358E-3	-28.6546E-3
322.661E-6	149.857E-15	35.6825E-3	-33.9718E-3	122.286E-15	42.5783E-3	-28.1183E-3
317.659E-6	131.223E-15	32.5253E-3	-21.7844E-3	141.355E-15	39.2603E-3	-16.7748E-3
312.656E-6	144.390E-15	24.3271E-3	-14.2997E-3	212.793E-15	35.6465E-3	-12.8731E-3
307.654E-6	103.365E-15	17.8792E-3	-21.0700E-3	168.603E-15	27.9561E-3	-27.1407E-3
302.651E-6	95.4307E-15	22.8903E-3	-22.5467E-3	78.5240E-15	26.2179E-3	-35.5830E-3
297.649E-6	121.318E-15	22.1657E-3	-15.9531E-3	68.8804E-15	31.8237E-3	-30.6859E-3
292.646E-6	123.402E-15	12.1157E-3	-20.9337E-3	116.688E-15	31.5970E-3	-26.9308E-3
287.644E-6	97.0351E-15	14.0247E-3	-24.8372E-3	113.785E-15	33.1702E-3	-19.4393E-3
282.641E-6	41.5890E-15	25.3150E-3	-16.8141E-3	49.1661E-15	32.6260E-3	-12.6931E-3
277.639E-6	82.8575E-15	29.8124E-3	-16.8164E-3	28.5013E-15	22.5589E-3	-20.8243E-3
272.636E-6	84.2264E-15	29.6942E-3	-26.0542E-3	63.5791E-15	14.3208E-3	-27.9671E-3
267.634E-6	35.9738E-15	28.2846E-3	-29.7564E-3	89.5713E-15	18.5692E-3	-25.0606E-3
262.631E-6	56.8042E-15	18.2304E-3	-22.3488E-3	64.5556E-15	23.8364E-3	-23.2703E-3
257.629E-6	3.02350E-15	6.25092E-3	-13.0457E-3	23.2523E-15	21.6873E-3	-23.9564E-3
252.626E-6	26.4610E-15	-721.976E-6	-13.2521E-3	-13.0636E-15	26.9352E-3	-26.5886E-3
247.624E-6	58.1470E-15	1.00525E-3	-12.2479E-3	31.2741E-15	31.1289E-3	-21.3165E-3
242.621E-6	13.5390E-15	14.5467E-3	-9.21423E-3	8.45562E-15	25.1947E-3	-823.521E-6
237.619E-6	-16.2723E-15	18.3899E-3	-15.8271E-3	29.5476E-15	26.1193E-3	7.49666E-3
232.616E-6	-2.38248E-15	-1.95549E-3	-20.4048E-3	-40.9218E-15	20.4677E-3	-7.12999E-3
227.614E-6	17.7504E-15	-16.5490E-3	-18.7788E-3	-55.0994E-15	-3.24789E-3	-22.3076E-3
222.611E-6	-21.8701E-15	640.477E-6	-18.5822E-3	-5.66094E-15	-10.0106E-3	-23.2136E-3
217.609E-6	-21.4778E-15	26.2442E-3	-23.0804E-3	23.3918E-15	6.59564E-3	-17.5025E-3
212.606E-6	-66.1293E-15	28.7239E-3	-30.1919E-3	-23.4832E-15	16.9058E-3	-18.6382E-3
207.604E-6	-20.0565E-15	15.1336E-3	-26.8338E-3	-100.257E-15	13.6862E-3	-26.6456E-3
202.601E-6	-9.28817E-15	2.13082E-3	-24.2687E-3	-26.5698E-15	10.6846E-3	-23.3387E-3
197.599E-6	-11.7557E-15	-971.095E-6	-30.7324E-3	20.7324E-15	13.7397E-3	-12.3641E-3
192.596E-6	-56.6863E-15	4.62246E-3	-30.5688E-3	-94.0747E-15	18.5619E-3	-10.4011E-3
187.594E-6	-45.2292E-15	7.34333E-3	-27.8858E-3	-114.112E-15	17.7542E-3	-10.3883E-3
182.591E-6	-46.2144E-15	8.72537E-3	-33.1952E-3	-59.6160E-15	4.73238E-3	-13.1413E-3
177.589E-6	-44.9676E-15	11.8449E-3	-32.1017E-3	-1.38848E-15	-5.89886E-3	-17.5761E-3
172.586E-6	-44.1828E-15	15.8968E-3	-25.9227E-3	-31.0080E-15	-3.52369E-3	-24.6114E-3
167.584E-6	-134.105E-15	12.9286E-3	-26.8160E-3	-129.196E-15	3.88953E-3	-31.5664E-3
162.581E-6	-73.6977E-15	-1.35724E-3	-24.7585E-3	-137.793E-15	6.79919E-3	-24.9448E-3
157.579E-6	-52.2656E-15	-8.46337E-3	-18.6529E-3	-76.5751E-15	-1.50957E-3	-13.0708E-3
152.576E-6	-32.1415E-15	-375.401E-6	-15.3733E-3	-69.9745E-15	-12.6645E-3	-9.65844E-3
147.574E-6	-98.6872E-15	7.60336E-3	-12.9609E-3	-93.0197E-15	-4.34530E-3	-15.5976E-3
142.571E-6	-110.702E-15	17.3913E-3	-18.4963E-3	-122.229E-15	9.07516E-3	-23.7929E-3
137.569E-6	-83.7598E-15	29.8795E-3	-27.1430E-3	-111.941E-15	-1.45993E-3	-22.2865E-3
132.566E-6	-55.1343E-15	21.8524E-3	-19.1641E-3	-68.6318E-15	-9.79131E-3	-14.9417E-3
127.564E-6	-83.2192E-15	4.54725E-3	-1.61377E-3	-63.4874E-15	-6.14716E-3	-16.1742E-3
122.561E-6	-137.078E-15	3.50836E-3	4.41108E-3	-110.685E-15	-1.57073E-3	-23.2379E-3
117.559E-6	-95.0862E-15	3.20595E-3	-539.080E-6	-110.886E-15	12.5718E-3	-25.4011E-3
112.556E-6	-111.383E-15	457.746E-6	-8.20305E-3	-146.949E-15	23.1151E-3	-20.4519E-3
107.554E-6	-101.826E-15	7.76025E-3	-16.8543E-3	-101.015E-15	20.2347E-3	-12.6172E-3
102.551E-6	-161.902E-15	14.4773E-3	-19.7962E-3	-99.8120E-15	15.4022E-3	-5.88821E-3
97.5488E-6	-146.678E-15	15.3656E-3	-14.2543E-3	-119.814E-15	8.10756E-3	-2.49832E-3
92.5463E-6	-138.552E-15	12.2373E-3	-7.74260E-3	-203.720E-15	1.86809E-3	-5.85016E-3
87.5438E-6	-83.2802E-15	3.84916E-3	-13.5977E-3	-132.222E-15	3.05445E-3	-14.9965E-3
82.5413E-6	-114.635E-15	-1.69407E-3	-34.3104E-3	-36.6058E-15	3.98791E-3	-22.2849E-3
77.5388E-6	-152.477E-15	-3.47225E-3	-49.2488E-3	-155.572E-15	-2.51859E-3	-19.6093E-3
72.5363E-6	-153.976E-15	-7.41786E-3	-37.9835E-3	-231.613E-15	-6.31689E-3	-14.3871E-3
67.5338E-6	-135.962E-15	-8.92826E-3	-14.2144E-3	-178.434E-15	4.97356E-3	-11.5273E-3
62.5313E-6	-131.498E-15	-14.5462E-3	-7.46735E-3	-36.7801E-15	19.3070E-3	-9.53216E-3
57.5288E-6	-132.117E-15	-21.7232E-3	-14.1296E-3	-133.277E-15	18.7637E-3	-14.5403E-3
52.5263E-6	-161.832E-15	-20.9391E-3	-15.8261E-3	-198.985E-15	8.35277E-3	-19.3936E-3
47.5238E-6	-147.873E-15	-13.3271E-3	-9.99412E-3	-136.887E-15	-2.56934E-3	-15.7667E-3
42.5213E-6	-90.7352E-15	2.85508E-3	-9.12241E-3	-125.447E-15	-8.21361E-3	-10.5185E-3
37.5188E-6	-189.874E-15	8.90034E-3	-10.5573E-3	-111.662E-15	-2.59785E-3	-16.1572E-3
32.5163E-6	-195.690E-15	-3.96190E-3	-12.9004E-3	-174.458E-15	-2.19016E-3	-28.0229E-3
27.5138E-6	-201.662E-15	-12.2727E-3	-25.9862E-3	-220.775E-15	-13.9502E-3	-24.7995E-3
22.5113E-6	-134.951E-15	-8.12889E-3	-29.2849E-3	-185.383E-15	-7.30328E-3	-20.8061E-3
17.5088E-6	-147.228E-15	680.097E-6	-15.6961E-3	-124.252E-15	8.78465E-3	-25.6926E-3
12.5063E-6	-184.389E-15	12.1846E-3	-5.54569E-3	-139.938E-15	4.25274E-3	-22.2800E-3
7.50375E-6	-215.814E-15	15.6986E-3	-3.60551E-3	-157.115E-15	-3.02399E-3	-23.3820E-3
2.50125E-6	-175.033E-15	4.57921E-3	-1.20076E-3	-185.253E-15	-6.82933E-3	-34.4331E-3
-2.50125E-6	-126.545E-15	-7.72311E-3	-405.422E-6	-169.462E-15	-3.32200E-3	-30.5206E-3
-7.50375E-6	-205.560E-15	794.721E-6	-3.64994E-3	-138.273E-15	13.6378E-3	-15.1938E-3
-12.5063E-6	-187.755E-15	23.2689E-3	-14.3896E-3	-147.140E-15	15.9252E-3	-8.98437E-3
-17.5088E-6	-176.708E-15	29.3527E-3	-23.0690E-3	-207.661E-15	1.78651E-3	-7.62039E-3
-22.5113E-6	-152.616E-15	16.5942E-3	-18.5520E-3	-231.430E-15	2.65027E-3	-8.00259E-3
-27.5138E-6	-157.046E-15	4.25766E-3	-9.49553E-3	-142.118E-15	17.7218E-3	-21.2646E-3
-32.5163E-6	-181.181E-15	8.51597E-3	-4.84695E-3	-139.964E-15	14.8679E-3	-35.2240E-3
-37.5188E-6	-221.664E-15	21.4349E-3	-6.56991E-3	-254.719E-15	-1.66194E-3	-33.3207E-3
-42.5213E-6	-195.951E-15	25.1524E-3	-8.60169E-3	-266.211E-15	-5.57145E-3	-25.1676E-3
-47.5238E-6	-162.731E-15	14.6637E-3	-12.6859E-3	-186.813E-15	5.93475E-3	-12.9004E-3
-52.5263E-6	-190.414E-15	944.737E-6	-15.4178E-3	-149.067E-15	16.1291E-3	3.45620E-3
-57.5288E-6	-238.641E-15	-1.67709E-3	-11.1936E-3	-206.467E-15	9.04212E-3	3.50963E-3
-62.5313E-6	-260.143E-15	4.51753E-3	-12.1030E-3	-275.088E-15	-7.41446E-3	-5.49078E-3
-67.5338E-6	-182.584E-15	11.6950E-3	-16.2200E-3	-209.876E-15	-12.6591E-3	-7.57347E-3
-72.5363E-6	-166.279E-15	9.63966E-3	-18.8558E-3	-148.291E-15	-7.59452E-3	-11.4611E-3
-77.5388E-6	-232.424E-15	-7.39348E-3	-21.8499E-3	-205.167E-15	-1.69632E-3	-18.4666E-3
-82.5413E-6	-217.540E-15	-19.8921E-3	-19.8664E-3	-258.800E-15	6.08654E-3	-22.0078E-3
-87.5438E-6	-226.303E-15	-14.9757E-3	-22.1875E-3	-249.313E-15	12.2766E-3	-13.2139E-3
-92.5463E-6	-187.903E-15	-1.46577E-3	-23.9838E-3	-171.990E-15	11.0634E-3	2.80373E-3
-97.5488E-6	-204.313E-15	7.90977E-3	-16.7285E-3	-207.766E-15	4.69790E-3	7.20034E-3
-102.551E-6	-239.670E-15	-638.672E-6	-7.18474E-3	-264.110E-15	5.74753E-3	-12.3916E-3
-107.554E-6	-262.166E-15	-13.2605E-3	4.38567E-3	-233.671E-15	11.4555E-3	-30.8906E-3
-112.556E-6	-188.435E-15	-11.6602E-3	3.72483E-3	-241.318E-15	7.18840E-3	-18.0018E-3
-117.559E-6	-196.265E-15	-5.48356E-3	-13.7204E-3	-251.275E-15	-2.77961E-3	-3.54169E-3
-122.561E-6	-206.292E-15	-1.80131E-3	-26.0174E-3	-249.313E-15	-6.39622E-3	-6.60269E-3
-127.564E-6	-287.731E-15	-6.75017E-3	-27.9214E-3	-238.780E-15	-2.40856E-3	-8.83808E-3
-132.566E-6	-217.898E-15	-12.8627E-3	-29.4216E-3	-304.036E-15	5.57612E-3	-17.6177E-3
-137.569E-6	-226.216E-15	-1.50968E-3	-24.5257E-3	-235.842E-15	6.17528E-3	-28.8422E-3
-142.571E-6	-258.216E-15	11.9331E-3	-13.2478E-3	-223.923E-15	-5.84402E-3	-27.2272E-3
-147.574E-6	-259.053E-15	12.6282E-3	-10.9156E-3	-230.663E-15	-13.6575E-3	-22.6352E-3
-152.576E-6	-287.931E-15	4.42398E-3	-6.41990E-3	-273.056E-15	-6.27936E-3	-20.6230E-3
-157.579E-6	-238.833E-15	-14.0678E-3	-5.76127E-3	-335.111E-15	3.62224E-3	-18.9527E-3
-162.581E-6	-245.547E-15	-20.6424E-3	-15.9807E-3	-235.798E-15	12.5807E-3	-11.9066E-3
-167.584E-6	-270.440E-15	-759.268E-6	-19.6527E-3	-220.365E-15	17.2141E-3	-4.30613E-3
-172.586E-6	-308.491E-15	18.7702E-3	-21.6639E-3	-308.997E-15	10.7280E-3	-11.4934E-3
-177.589E-6	-279.944E-15	23.7251E-3	-18.9825E-3	-323.201E-15	4.44915E-3	-29.9270E-3
-182.591E-6	-309.276E-15	20.8079E-3	-9.53008E-3	-313.566E-15	2.72324E-3	-42.4418E-3
-187.594E-6	-257.039E-15	15.2936E-3	-7.56838E-3	-222.493E-15	7.97344E-3	-36.7327E-3
-192.596E-6	-292.587E-15	16.3963E-3	-13.1674E-3	-310.706E-15	17.4848E-3	-23.7827E-3
-197.599E-6	-301.202E-15	21.6386E-3	-20.6538E-3	-335.033E-15	17.4599E-3	-26.4414E-3
-202.601E-6	-278.994E-15	11.9855E-3	-20.7657E-3	-331.161E-15	15.9728E-3	-27.6725E-3
-207.604E-6	-288.332E-15	3.77385E-3	-12.8204E-3	-270.022E-15	19.0162E-3	-16.2104E-3
-212.606E-6	-323.654E-15	15.5813E-3	-9.36933E-3	-291.497E-15	15.2094E-3	-14.4306E-3
-217.609E-6	-363.475E-15	23.2111E-3	-12.0957E-3	-359.238E-15	7.41044E-3	-17.0106E-3
-222.611E-6	-342.837E-15	20.4934E-3	-11.8747E-3	-370.311E-15	9.95376E-3	-17.5879E-3
-227.614E-6	-323.113E-15	19.6505E-3	-8.98080E-3	-308.587E-15	21.7894E-3	-22.8322E-3
-232.616E-6	-298.699E-15	13.8055E-3	-11.4163E-3	-339.192E-15	30.3273E-3	-27.3036E-3
-237.619E-6	-370.102E-15	10.7775E-3	-17.7454E-3	-360.005E-15	38.2189E-3	-21.6000E-3
-242.621E-6	-369.073E-15	12.2108E-3	-28.0942E-3	-394.411E-15	42.7166E-3	-11.4272E-3
-247.624E-6	-350.771E-15	4.27992E-3	-27.2111E-3	-413.881E-15	32.3134E-3	-6.34083E-3
-252.626E-6	-366.143E-15	5.96066E-3	-17.9729E-3	-413.428E-15	21.6554E-3	-10.2844E-3
-257.629E-6	-375.133E-15	15.5837E-3	-23.5643E-3	-340.543E-15	19.8038E-3	-20.2708E-3
-262.631E-6	-434.677E-15	11.4662E-3	-34.0943E-3	-393.103E-15	18.0825E-3	-24.0688E-3
-267.634E-6	-427.771E-15	5.04299E-3	-33.4318E-3	-413.036E-15	22.2008E-3	-18.4330E-3
-272.636E-6	-385.797E-15	10.2891E-3	-34.3702E-3	-462.108E-15	27.4903E-3	-17.2379E-3
-277.639E-6	-403.078E-15	11.9092E-3	-33.8837E-3	-408.066E-15	26.7842E-3	-20.5523E-3
-282.641E-6	-456.650E-15	8.22695E-3	-21.9649E-3	-359.456E-15	24.9521E-3	-14.2592E-3
-287.644E-6	-472.205E-15	18.4613E-3	-17.3877E-3	-479.468E-15	22.0484E-3	-10.1819E-3
-292.646E-6	-471.132E-15	36.7989E-3	-21.3518E-3	-553.338E-15	26.7147E-3	-11.5278E-3
-297.649E-6	-427.030E-15	47.8871E-3	-27.1680E-3	-440.118E-15	41.8770E-3	-10.7256E-3
-302.651E-6	-522.324E-15	48.9016E-3	-26.9541E-3	-446.500E-15	46.4232E-3	-12.7733E-3
-307.654E-6	-483.680E-15	46.4193E-3	-17.8379E-3	-516.604E-15	37.6754E-3	-12.8171E-3
-312.656E-6	-492.617E-15	47.0725E-3	-13.2516E-3	-628.769E-15	33.2071E-3	-8.97886E-3
-317.659E-6	-518.391E-15	43.1287E-3	-16.1335E-3	-533.083E-15	37.2792E-3	-9.44691E-3
-322.661E-6	-518.940E-15	38.4361E-3	-16.9373E-3	-467.418E-15	36.6691E-3	-5.31344E-3
-327.664E-6	-545.438E-15	32.8137E-3	-17.1893E-3	-538.742E-15	30.6538E-3	-1.55037E-3
-332.666E-6	-592.322E-15	23.0811E-3	-18.2278E-3	-596.708E-15	31.9971E-3	-15.8110E-3
-337.669E-6	-594.258E-15	32.6327E-3	-13.1363E-3	-622.325E-15	37.1918E-3	-27.8768E-3
-342.671E-6	-530.956E-15	43.9208E-3	-9.05281E-3	-602.803E-15	52.1411E-3	-24.5271E-3
-347.674E-6	-588.276E-15	31.0999E-3	-8.96460E-3	-580.098E-15	68.5398E-3	-17.7733E-3
-352.676E-6	-613.693E-15	19.7962E-3	-4.25847E-3	-660.368E-15	65.9040E-3	-15.4909E-3
-357.679E-6	-712.779E-15	24.2197E-3	-496.329E-6	-673.185E-15	59.4954E-3	-18.2706E-3
-362.681E-6	-609.604E-15	39.5311E-3	-5.65053E-3	-679.489E-15	61.6334E-3	-21.8217E-3
-367.684E-6	-671.581E-15	58.6886E-3	-9.86369E-3	-671.537E-15	71.4699E-3	-24.0651E-3
-372.686E-6	-727.454E-15	70.9547E-3	-7.25443E-3	-699.317E-15	80.8529E-3	-15.5640E-3
-377.689E-6	-780.188E-15	61.7078E-3	-3.90129E-3	-734.987E-15	76.4206E-3	-1.19485E-3
-382.691E-6	-732.738E-15	46.1070E-3	-3.74093E-3	-802.885E-15	65.4092E-3	-4.87211E-3
-387.694E-6	-748.886E-15	52.4059E-3	-10.6598E-3	-785.917E-15	59.1152E-3	-19.9672E-3
-392.696E-6	-806.059E-15	61.2148E-3	-25.1912E-3	-746.113E-15	62.6427E-3	-24.5775E-3
-397.699E-6	-859.203E-15	61.0319E-3	-34.3591E-3	-807.262E-15	74.9822E-3	-24.3723E-3
-402.701E-6	-864.940E-15	61.7354E-3	-28.6817E-3	-866.414E-15	74.8467E-3	-27.7376E-3
-407.704E-6	-863.484E-15	62.1400E-3	-23.1612E-3	-934.529E-15	59.4618E-3	-28.6442E-3
-412.706E-6	-861.295E-15	61.6600E-3	-21.1108E-3	-899.739E-15	58.4057E-3	-25.8454E-3
-417.709E-6	-942.202E-15	61.8625E-3	-13.1844E-3	-854.259E-15	73.4582E-3	-20.6505E-3
-422.711E-6	-971.560E-15	64.1041E-3	-15.1113E-3	-943.545E-15	87.2254E-3	-20.0850E-3
-427.714E-6	-968.203E-15	65.8392E-3	-31.0046E-3	-1.03552E-12	89.3502E-3	-16.4205E-3
-432.716E-6	-970.156E-15	67.3432E-3	-33.3835E-3	-1.00480E-12	76.6166E-3	-11.0236E-3
-437.719E-6	-984.639E-15	61.9914E-3	-23.7785E-3	-931.059E-15	63.6347E-3	-20.1332E-3
-442.721E-6	-1.02893E-12	54.9185E-3	-20.8075E-3	-1.02316E-12	62.5045E-3	-35.7608E-3
-447.724E-6	-1.06895E-12	63.6324E-3	-18.4621E-3	-1.11664E-12	75.9453E-3	-39.5454E-3
-452.726E-6	-1.08216E-12	76.6044E-3	-15.4424E-3	-1.06727E-12	91.2429E-3	-24.2036E-3
-457.729E-6	-1.10350E-12	82.5310E-3	-14.9266E-3	-1.08641E-12	85.4449E-3	-11.9231E-3
-462.731E-6	-1.08390E-12	85.0637E-3	-15.1595E-3	-1.09838E-12	80.1011E-3	-16.2744E-3
-467.734E-6	-1.21977E-12	87.4518E-3	-14.3301E-3	-1.20567E-12	100.187E-3	-21.4297E-3
-472.736E-6	-1.21087E-12	89.9338E-3	-14.4840E-3	-1.19307E-12	113.602E-3	-23.7491E-3
-477.739E-6	-1.18388E-12	88.6750E-3	-16.4896E-3	-1.23805E-12	98.1640E-3	-23.0373E-3
-482.741E-6	-1.18515E-12	77.7380E-3	-18.1865E-3	-1.23535E-12	75.4163E-3	-20.7694E-3
-487.744E-6	-1.26736E-12	69.6198E-3	-15.6106E-3	-1.32154E-12	70.5019E-3	-24.8652E-3
-492.746E-6	-1.35555E-12	74.3223E-3	-3.66492E-3	-1.35061E-12	72.7734E-3	-27.7293E-3
-497.749E-6	-1.36109E-12	81.5535E-3	8.56430E-3	-1.39228E-12	70.5215E-3	-21.2442E-3
-502.751E-6	-1.36049E-12	87.7258E-3	2.97995E-3	-1.44181E-12	77.0113E-3	-15.0787E-3
-507.754E-6	-1.43759E-12	94.2610E-3	-16.7197E-3	-1.37599E-12	91.7478E-3	-23.0394E-3
-512.756E-6	-1.48128E-12	101.568E-3	-26.0534E-3	-1.46159E-12	99.8299E-3	-29.5604E-3
-517.759E-6	-1.50595E-12	107.236E-3	-18.0754E-3	-1.49645E-12	98.5518E-3	-21.7754E-3
-522.761E-6	-1.51667E-12	111.878E-3	-12.4044E-3	-1.55473E-12	93.5649E-3	-19.1047E-3
-527.764E-6	-1.57074E-12	113.022E-3	-18.1707E-3	-1.59771E-12	92.8146E-3	-23.2006E-3
-532.766E-6	-1.60941E-12	110.291E-3	-23.3835E-3	-1.53857E-12	98.9536E-3	-18.8129E-3
-537.769E-6	-1.64043E-12	111.107E-3	-19.6119E-3	-1.61736E-12	104.271E-3	-8.66606E-3
-542.771E-6	-1.64010E-12	106.857E-3	-13.2145E-3	-1.73455E-12	111.879E-3	-3.25361E-3
-547.774E-6	-1.67283E-12	101.550E-3	-14.0326E-3	-1.67734E-12	118.737E-3	-1.66948E-3
-552.776E-6	-1.69878E-12	110.507E-3	-20.5040E-3	-1.67890E-12	119.639E-3	-2.14965E-3
-557.779E-6	-1.73559E-12	118.184E-3	-20.2942E-3	-1.68260E-12	112.077E-3	-8.67582E-3
-562.781E-6	-1.73088E-12	114.784E-3	-5.31169E-3	-1.85945E-12	98.5719E-3	-15.7668E-3
-567.784E-6	-1.78788E-12	114.552E-3	5.51558E-3	-1.86768E-12	91.5060E-3	-22.3560E-3
-572.786E-6	-1.86058E-12	117.491E-3	-7.46933E-3	-1.85676E-12	92.9714E-3	-26.3541E-3
-577.789E-6	-1.87773E-12	112.606E-3	-25.3598E-3	-1.97729E-12	100.771E-3	-15.0169E-3
-582.791E-6	-1.93847E-12	98.6582E-3	-23.1904E-3	-1.99986E-12	110.626E-3	-8.58276E-3
-587.794E-6	-1.98916E-12	86.1221E-3	-10.1750E-3	-2.06840E-12	112.125E-3	-17.1802E-3
-592.796E-6	-1.98766E-12	85.6513E-3	-5.30556E-3	-2.01830E-12	116.912E-3	-16.7072E-3
-597.799E-6	-1.99818E-12	91.3824E-3	-7.58757E-3	-2.07887E-12	127.929E-3	-13.8534E-3
-602.801E-6	-2.05912E-12	88.4361E-3	-10.8285E-3	-2.06319E-12	123.229E-3	-18.5676E-3
-607.804E-6	-2.13167E-12	84.8726E-3	-21.7681E-3	-2.17482E-12	110.824E-3	-18.0357E-3
-612.806E-6	-2.13233E-12	91.9940E-3	-29.1761E-3	-2.20341E-12	113.119E-3	-19.9800E-3
-617.809E-6	-2.17303E-12	100.981E-3	-18.9999E-3	-2.21683E-12	117.446E-3	-23.2044E-3
-622.811E-6	-2.25373E-12	109.421E-3	-11.5858E-3	-2.22936E-12	116.667E-3	-20.8413E-3
-627.814E-6	-2.38202E-12	111.450E-3	-20.0099E-3	-2.28060E-12	122.745E-3	-26.4682E-3
-632.816E-6	-2.33841E-12	104.833E-3	-29.9325E-3	-2.28672E-12	121.110E-3	-31.4988E-3
-637.819E-6	-2.31878E-12	100.168E-3	-24.7004E-3	-2.30699E-12	110.768E-3	-25.0229E-3
-642.821E-6	-2.36109E-12	107.784E-3	-20.4563E-3	-2.32932E-12	98.8354E-3	-18.0885E-3
-647.824E-6	-2.44229E-12	125.030E-3	-25.1020E-3	-2.42724E-12	86.7325E-3	-17.2855E-3
-652.826E-6	-2.46366E-12	116.306E-3	-21.6241E-3	-2.39935E-12	88.5797E-3	-22.6345E-3
-657.829E-6	-2.47804E-12	88.4884E-3	-20.5754E-3	-2.44885E-12	97.1190E-3	-27.2133E-3
-662.831E-6	-2.54975E-12	88.2278E-3	-19.5549E-3	-2.45181E-12	94.5925E-3	-23.1698E-3
-667.834E-6	-2.49903E-12	102.013E-3	-7.96408E-3	-2.43687E-12	86.2064E-3	-15.6904E-3
-672.836E-6	-2.63812E-12	104.774E-3	-2.08649E-3	-2.52110E-12	84.0768E-3	-11.6482E-3
-677.839E-6	-2.58791E-12	95.4578E-3	-6.88286E-3	-2.63621E-12	85.2172E-3	-12.7097E-3
-682.841E-6	-2.64728E-12	83.5773E-3	-6.86366E-3	-2.65400E-12	85.2257E-3	-18.9772E-3
-687.844E-6	-2.67421E-12	78.8193E-3	-5.38550E-3	-2.59246E-12	96.2890E-3	-21.1853E-3
-692.846E-6	-2.74112E-12	82.9508E-3	-16.4207E-3	-2.70660E-12	105.308E-3	-18.8301E-3
-697.849E-6	-2.80647E-12	98.2305E-3	-17.3676E-3	-2.85727E-12	96.1202E-3	-23.1487E-3
-702.851E-6	-2.82304E-12	106.202E-3	-7.22245E-3	-2.72731E-12	83.0510E-3	-18.0444E-3
-707.854E-6	-2.83461E-12	95.7735E-3	-21.2536E-3	-2.63881E-12	73.2913E-3	-7.78905E-3
-712.856E-6	-2.86487E-12	87.3153E-3	-40.0438E-3	-2.76959E-12	70.8969E-3	-16.2868E-3
-717.859E-6	-2.93952E-12	98.4444E-3	-35.4905E-3	-2.85088E-12	78.4503E-3	-28.1476E-3
-722.861E-6	-2.97325E-12	111.017E-3	-24.2572E-3	-2.91090E-12	81.6797E-3	-20.2501E-3
-727.864E-6	-3.01555E-12	102.803E-3	-21.3376E-3	-2.83274E-12	83.1862E-3	-3.18515E-3
-732.866E-6	-3.07910E-12	91.4505E-3	-30.4010E-3	-2.86713E-12	87.2428E-3	-2.51391E-3
-737.869E-6	-3.16467E-12	95.8027E-3	-29.2079E-3	-2.94703E-12	82.0468E-3	-2.75185E-3
-742.871E-6	-3.17379E-12	102.897E-3	-13.3206E-3	-2.97909E-12	73.6336E-3	9.02371E-3
-747.874E-6	-3.11746E-12	105.838E-3	-12.1158E-3	-2.94297E-12	74.0321E-3	10.5957E-3
-752.876E-6	-3.05258E-12	104.098E-3	-28.6674E-3	-2.94991E-12	87.2811E-3	-9.29381E-3
-757.879E-6	-3.09208E-12	92.4163E-3	-34.4534E-3	-3.06905E-12	98.4832E-3	-31.3600E-3
-762.881E-6	-3.17272E-12	77.2025E-3	-17.9697E-3	-3.04798E-12	100.119E-3	-36.3163E-3
-767.884E-6	-3.12415E-12	71.5757E-3	-8.38797E-3	-3.05985E-12	96.9463E-3	-31.4692E-3
-772.886E-6	-3.10674E-12	73.4224E-3	-13.2642E-3	-3.12313E-12	87.0297E-3	-23.9551E-3
-777.889E-6	-3.13422E-12	69.6094E-3	-12.3983E-3	-3.17366E-12	87.2995E-3	-15.5466E-3
-782.891E-6	-3.16746E-12	65.9489E-3	-6.69509E-3	-3.11528E-12	90.3743E-3	-12.8303E-3
-787.894E-6	-3.21288E-12	67.6477E-3	-4.49090E-3	-3.18722E-12	69.8843E-3	-11.8495E-3
-792.896E-6	-3.17254E-12	69.1712E-3	-4.61358E-3	-3.25241E-12	56.7221E-3	-13.0004E-3
-797.899E-6	-3.23346E-12	73.4893E-3	-1.04623E-3	-3.20117E-12	68.0281E-3	-19.0844E-3
-802.901E-6	-3.27373E-12	82.5250E-3	-4.08238E-3	-3.20319E-12	73.5569E-3	-16.4204E-3
-807.904E-6	-3.36745E-12	83.0215E-3	-18.1174E-3	-3.31534E-12	64.5052E-3	-4.06648E-3
-812.906E-6	-3.34543E-12	65.6250E-3	-24.7969E-3	-3.34156E-12	64.1115E-3	-2.22200E-3
-817.909E-6	-3.48569E-12	51.5072E-3	-18.8628E-3	-3.31584E-12	75.4784E-3	-18.3533E-3
-822.911E-6	-3.60617E-12	60.8851E-3	-12.2132E-3	-3.29637E-12	78.4940E-3	-27.4526E-3
-827.914E-6	-3.62884E-12	82.8189E-3	-10.0616E-3	-3.47041E-12	75.4957E-3	-20.1908E-3
-832.916E-6	-3.66536E-12	90.8580E-3	-12.5119E-3	-3.45138E-12	73.3166E-3	-11.1419E-3
-837.919E-6	-3.51191E-12	82.6789E-3	-16.6604E-3	-3.42886E-12	67.5869E-3	-6.65907E-3
-842.921E-6	-3.56934E-12	75.3484E-3	-17.6465E-3	-3.38402E-12	60.4343E-3	-9.24548E-3
-847.924E-6	-3.58074E-12	74.5563E-3	-17.3594E-3	-3.53205E-12	64.2861E-3	-15.7688E-3
-852.926E-6	-3.61935E-12	80.0078E-3	-14.6871E-3	-3.58924E-12	77.8749E-3	-18.5831E-3
-857.929E-6	-3.57946E-12	80.7562E-3	-8.11039E-3	-3.59950E-12	86.7959E-3	-17.1046E-3
-862.931E-6	-3.49745E-12	71.4414E-3	-7.24610E-3	-3.51179E-12	81.9402E-3	-16.6269E-3
-867.934E-6	-3.63878E-12	64.3783E-3	-11.7123E-3	-3.55840E-12	72.9470E-3	-18.8158E-3
-872.936E-6	-3.66951E-12	68.1681E-3	-16.1585E-3	-3.62649E-12	74.5854E-3	-14.8519E-3
-877.939E-6	-3.68426E-12	84.4264E-3	-19.6695E-3	-3.65906E-12	82.0047E-3	-8.76593E-3
-882.941E-6	-3.58917E-12	92.0907E-3	-17.3687E-3	-3.73150E-12	86.6858E-3	-12.3432E-3
-887.944E-6	-3.61439E-12	84.8871E-3	-16.9299E-3	-3.63775E-12	87.9968E-3	-17.1447E-3
-892.946E-6	-3.79383E-12	80.4814E-3	-24.5194E-3	-3.67814E-12	84.4833E-3	-21.1763E-3
-897.949E-6	-3.81275E-12	79.9616E-3	-30.4196E-3	-3.68566E-12	77.3311E-3	-25.1750E-3
-902.951E-6	-3.75822E-12	84.2978E-3	-25.2286E-3	-3.85749E-12	74.5123E-3	-21.4453E-3
-907.954E-6	-3.78897E-12	88.7160E-3	-14.7305E-3	-3.88516E-12	83.1970E-3	-16.0077E-3
-912.956E-6	-3.92609E-12	84.1129E-3	-17.8541E-3	-3.91163E-12	97.7028E-3	-6.76201E-3
-917.959E-6	-4.02521E-12	74.6742E-3	-19.1760E-3	-3.96003E-12	110.630E-3	8.04607E-3
-922.961E-6	-4.15461E-12	74.0898E-3	-17.2930E-3	-4.02381E-12	115.355E-3	4.12279E-3
-927.964E-6	-4.04773E-12	84.6643E-3	-33.0459E-3	-4.08430E-12	108.475E-3	-10.1500E-3
-932.966E-6	-4.10766E-12	91.9293E-3	-40.6384E-3	-4.05235E-12	106.875E-3	-9.39890E-3
-937.969E-6	-4.28955E-12	99.4143E-3	-31.5379E-3	-4.06263E-12	106.881E-3	-5.23641E-3
-942.971E-6	-4.33735E-12	109.253E-3	-28.6011E-3	-4.16121E-12	90.0097E-3	-13.2275E-3
-947.974E-6	-4.18327E-12	111.960E-3	-22.4893E-3	-4.19769E-12	78.4966E-3	-31.2430E-3
-952.976E-6	-4.16508E-12	106.852E-3	-8.72378E-3	-4.16674E-12	86.9921E-3	-39.2560E-3
-957.979E-6	-4.34037E-12	100.503E-3	-4.94917E-3	-4.13011E-12	96.2293E-3	-25.4364E-3
-962.981E-6	-4.39634E-12	92.5475E-3	-6.78920E-3	-4.20795E-12	104.171E-3	-11.7747E-3
-967.984E-6	-4.33854E-12	79.8458E-3	-11.0208E-3	-4.31351E-12	113.296E-3	-16.6563E-3
-972.986E-6	-4.25345E-12	82.5590E-3	-18.4635E-3	-4.44371E-12	115.384E-3	-29.4592E-3
-977.989E-6	-4.35017E-12	101.889E-3	-14.8963E-3	-4.34309E-12	113.737E-3	-35.5682E-3
-982.991E-6	-4.48687E-12	111.749E-3	-12.5384E-3	-4.33624E-12	124.288E-3	-33.4470E-3
-987.994E-6	-4.51086E-12	108.539E-3	-21.3680E-3	-4.44286E-12	136.134E-3	-25.4472E-3
-992.997E-6	-4.48436E-12	109.497E-3	-17.2409E-3	-4.52767E-12	132.613E-3	-17.1815E-3
-997.999E-6	-4.41800E-12	119.314E-3	-881.932E-6	-4.59492E-12	137.146E-3	-17.2602E-3
-1.00300E-3	-4.55020E-12	133.311E-3	6.61190E-3	-4.62871E-12	155.192E-3	-20.9160E-3
-1.00800E-3	-4.70271E-12	146.100E-3	-2.54394E-3	-4.69603E-12	166.755E-3	-13.3618E-3
-1.01301E-3	-4.76191E-12	149.504E-3	-14.2353E-3	-4.73800E-12	170.648E-3	-4.54665E-3
-1.01801E-3	-4.63353E-12	150.028E-3	-11.1138E-3	-4.94529E-12	174.153E-3	-4.44788E-3
-1.02301E-3	-4.79495E-12	156.740E-3	-11.4189E-3	-4.98398E-12	182.128E-3	1.14264E-3
-1.02801E-3	-5.14743E-12	167.295E-3	-23.1242E-3	-5.10493E-12	202.049E-3	11.4020E-3
-1.03302E-3	-5.25221E-12	176.926E-3	-27.6320E-3	-4.93115E-12	222.973E-3	12.3609E-3
-1.03802E-3	-5.12095E-12	182.425E-3	-33.4139E-3	-5.11052E-12	228.192E-3	5.39916E-3
-1.04302E-3	-5.05643E-12	191.012E-3	-34.3941E-3	-5.21296E-12	219.471E-3	701.146E-6
-1.04802E-3	-5.32662E-12	199.615E-3	-14.3219E-3	-5.28521E-12	213.506E-3	-7.93034E-3
-1.05303E-3	-5.49406E-12	203.059E-3	3.04347E-3	-5.15227E-12	223.449E-3	-24.6797E-3
-1.05803E-3	-5.38342E-12	206.774E-3	-3.88677E-3	-5.15950E-12	237.767E-3	-31.7616E-3
-1.06303E-3	-5.33593E-12	207.157E-3	-17.8856E-3	-5.45823E-12	238.112E-3	-23.1350E-3
-1.06803E-3	-5.49362E-12	206.707E-3	-14.2141E-3	-5.60606E-12	231.470E-3	-16.6656E-3
-1.07304E-3	-5.70089E-12	214.978E-3	-12.5290E-3	-5.57377E-12	251.775E-3	-16.6208E-3
-1.07804E-3	-5.62324E-12	236.275E-3	-25.8695E-3	-5.42390E-12	283.906E-3	-15.0634E-3
-1.08304E-3	-5.65809E-12	255.554E-3	-28.5750E-3	-5.61163E-12	292.547E-3	-15.5867E-3
-1.08804E-3	-5.69135E-12	260.868E-3	-20.4387E-3	-5.90049E-12	295.178E-3	-17.9278E-3
-1.09305E-3	-5.92135E-12	261.990E-3	-15.2327E-3	-5.86075E-12	303.550E-3	-12.1326E-3
-1.09805E-3	-5.94203E-12	263.246E-3	-14.1487E-3	-5.88428E-12	317.804E-3	-12.9712E-3
-1.10305E-3	-6.04845E-12	274.218E-3	-10.9196E-3	-6.02109E-12	345.252E-3	-31.5045E-3
-1.10805E-3	-6.10136E-12	291.263E-3	-4.85002E-3	-6.42301E-12	369.009E-3	-36.1127E-3
-1.11306E-3	-6.16086E-12	302.010E-3	-14.8335E-3	-6.62893E-12	374.442E-3	-25.8120E-3
-1.11806E-3	-6.45964E-12	309.283E-3	-26.5586E-3	-6.62240E-12	377.402E-3	-12.9181E-3
-1.12306E-3	-6.67775E-12	324.565E-3	-17.6825E-3	-6.59695E-12	382.736E-3	7.47540E-3
-1.12806E-3	-6.79841E-12	349.234E-3	-8.23227E-3	-6.82829E-12	386.180E-3	10.6691E-3
-1.13307E-3	-6.93572E-12	363.717E-3	-6.42110E-3	-7.02404E-12	398.671E-3	-6.10337E-3
-1.13807E-3	-7.11670E-12	375.635E-3	-7.69680E-3	-7.06085E-12	417.624E-3	-15.2127E-3
-1.14307E-3	-7.45563E-12	388.023E-3	-11.4097E-3	-6.95648E-12	433.816E-3	-16.7491E-3
-1.14807E-3	-7.44793E-12	382.408E-3	-14.1904E-3	-7.10533E-12	447.378E-3	-22.5449E-3
-1.15308E-3	-7.53348E-12	382.665E-3	-11.2710E-3	-7.50763E-12	452.143E-3	-26.3575E-3
-1.15808E-3	-7.58184E-12	416.167E-3	-5.01256E-3	-7.66431E-12	462.801E-3	-32.7817E-3
-1.16308E-3	-7.84790E-12	450.806E-3	-4.36161E-3	-7.52874E-12	480.827E-3	-42.2621E-3
-1.16808E-3	-7.93514E-12	461.965E-3	-15.1747E-3	-7.53343E-12	491.217E-3	-35.5140E-3
-1.17309E-3	-8.04731E-12	465.004E-3	-24.8157E-3	-7.89343E-12	508.883E-3	-19.0075E-3
-1.17809E-3	-7.98706E-12	475.455E-3	-16.2061E-3	-8.17100E-12	538.927E-3	-15.4262E-3
-1.18309E-3	-8.22277E-12	497.298E-3	-10.3705E-3	-8.38668E-12	560.450E-3	-21.1942E-3
-1.18809E-3	-8.39787E-12	513.136E-3	-20.1864E-3	-8.40585E-12	573.556E-3	-27.2743E-3
-1.19310E-3	-8.47793E-12	510.496E-3	-25.0206E-3	-8.69075E-12	601.604E-3	-21.7927E-3
-1.19810E-3	-8.61130E-12	510.031E-3	-23.1337E-3	-9.06066E-12	632.770E-3	-11.3029E-3
-1.20310E-3	-8.83122E-12	524.988E-3	-15.7815E-3	-9.34934E-12	645.271E-3	-14.3810E-3
-1.20810E-3	-9.12433E-12	541.363E-3	-5.22770E-3	-9.39221E-12	650.954E-3	-21.8610E-3
-1.21311E-3	-9.27326E-12	555.972E-3	-11.2560E-3	-9.53610E-12	661.449E-3	-22.5568E-3
-1.21811E-3	-9.57931E-12	570.712E-3	-25.4383E-3	-9.97036E-12	672.483E-3	-19.6952E-3
-1.22311E-3	-9.93374E-12	588.360E-3	-28.6775E-3	-10.3503E-12	691.704E-3	-13.7764E-3
-1.22811E-3	-10.1589E-12	614.851E-3	-20.3712E-3	-10.3622E-12	717.786E-3	-2.59439E-3
-1.23312E-3	-10.4954E-12	644.076E-3	-12.1885E-3	-10.4086E-12	736.026E-3	-602.461E-6
-1.23812E-3	-10.8139E-12	670.451E-3	-19.0790E-3	-10.7178E-12	743.530E-3	-9.38191E-3
-1.24312E-3	-11.0882E-12	692.634E-3	-41.4222E-3	-11.1838E-12	755.396E-3	-11.0850E-3
-1.24812E-3	-11.3414E-12	713.765E-3	-51.3048E-3	-11.2211E-12	785.060E-3	-8.55049E-3
-1.25313E-3	-11.7172E-12	726.347E-3	-28.8697E-3	-11.3082E-12	813.371E-3	-8.36460E-3
-1.25813E-3	-11.8993E-12	735.332E-3	-15.7983E-3	-11.5512E-12	825.241E-3	-10.4246E-3
-1.26313E-3	-12.1621E-12	756.958E-3	-32.7179E-3	-12.1804E-12	829.668E-3	-18.3087E-3
-1.26813E-3	-12.3567E-12	786.648E-3	-38.6684E-3	-12.6396E-12	839.842E-3	-19.1981E-3
-1.27314E-3	-12.6192E-12	807.919E-3	-29.6710E-3	-12.5650E-12	860.588E-3	-12.1275E-3
-1.27814E-3	-12.7630E-12	815.952E-3	-29.7447E-3	-12.7190E-12	873.967E-3	-6.63575E-3
-1.28314E-3	-13.0790E-12	818.977E-3	-28.5565E-3	-13.1106E-12	874.466E-3	-1.09333E-3
-1.28814E-3	-13.0812E-12	824.842E-3	-15.7943E-3	-13.7039E-12	879.923E-3	-4.50922E-3
-1.29315E-3	-13.1538E-12	839.064E-3	-16.0751E-3	-13.8467E-12	896.007E-3	-18.6367E-3
-1.29815E-3	-13.3022E-12	848.187E-3	-29.7709E-3	-13.9639E-12	921.462E-3	-23.3025E-3
-1.30315E-3	-13.6191E-12	853.212E-3	-24.5235E-3	-14.1235E-12	943.301E-3	-14.8882E-3
-1.30815E-3	-13.9863E-12	863.560E-3	-8.65739E-3	-14.4144E-12	950.032E-3	-11.6745E-3
-1.31316E-3	-14.1040E-12	869.051E-3	-12.3741E-3	-15.0492E-12	958.526E-3	-16.3610E-3
-1.31816E-3	-14.5435E-12	871.497E-3	-23.5174E-3	-15.2531E-12	977.416E-3	-17.7884E-3
-1.32316E-3	-14.9213E-12	881.251E-3	-18.5567E-3	-15.4122E-12	993.192E-3	-17.2946E-3
-1.32816E-3	-15.5309E-12	908.822E-3	-11.6496E-3	-15.6262E-12	992.287E-3	-11.9015E-3
-1.33317E-3	-15.7890E-12	946.659E-3	-12.1856E-3	-15.9825E-12	985.102E-3	-4.94407E-3
-1.33817E-3	-16.1513E-12	971.911E-3	-18.1177E-3	-16.5138E-12	993.289E-3	-9.48099E-3
-1.34317E-3	-16.7118E-12	986.970E-3	-34.2591E-3	-16.8144E-12	1.01870E+0	-15.4420E-3
-1.34817E-3	-17.1526E-12	997.376E-3	-44.7890E-3	-17.0195E-12	1.05228E+0	-20.3709E-3
-1.35318E-3	-17.3842E-12	1.00186E+0	-33.5834E-3	-17.1995E-12	1.06949E+0	-27.2544E-3
-1.35818E-3	-17.6517E-12	1.01302E+0	-9.66473E-3	-17.9441E-12	1.05725E+0	-36.7835E-3
-1.36318E-3	-18.4968E-12	1.03330E+0	-7.87070E-3	-18.3295E-12	1.05125E+0	-46.2707E-3
-1.36818E-3	-18.8465E-12	1.05786E+0	-28.2369E-3	-18.5371E-12	1.07061E+0	-41.0465E-3
-1.37319E-3	-18.9669E-12	1.08621E+0	-23.2670E-3	-18.6874E-12	1.08282E+0	-20.4881E-3
-1.37819E-3	-18.9390E-12	1.09328E+0	-10.4654E-3	-19.2173E-12	1.08129E+0	-4.71198E-3
-1.38319E-3	-19.3374E-12	1.07809E+0	-13.9929E-3	-19.3418E-12	1.08884E+0	-8.74159E-3
-1.38819E-3	-19.4389E-12	1.06601E+0	-8.97498E-3	-19.5417E-12	1.09364E+0	-20.8479E-3
-1.39320E-3	-19.6434E-12	1.07052E+0	-1.90971E-3	-19.8680E-12	1.08584E+0	-17.2150E-3
-1.39820E-3	-19.8395E-12	1.08842E+0	-13.3115E-3	-20.1973E-12	1.09211E+0	-4.24814E-3
-1.40320E-3	-20.0226E-12	1.09189E+0	-27.2903E-3	-20.5259E-12	1.11826E+0	-4.06423E-3
-1.40820E-3	-20.3966E-12	1.08391E+0	-11.4239E-3	-20.6308E-12	1.14032E+0	-13.8973E-3
-1.41321E-3	-20.6199E-12	1.08617E+0	8.36235E-3	-21.1707E-12	1.14158E+0	-22.2752E-3
-1.41821E-3	-21.0614E-12	1.09075E+0	-7.48947E-3	-21.6325E-12	1.12920E+0	-29.9431E-3
-1.42321E-3	-21.6328E-12	1.09284E+0	-20.2613E-3	-22.0854E-12	1.13690E+0	-33.0695E-3
-1.42821E-3	-22.2742E-12	1.09131E+0	-8.18148E-3	-22.3161E-12	1.16162E+0	-28.7233E-3
-1.43322E-3	-22.8839E-12	1.09415E+0	-1.09701E-3	-23.1685E-12	1.16858E+0	-29.5395E-3
-1.43822E-3	-23.5414E-12	1.11777E+0	555.865E-6	-23.8214E-12	1.17662E+0	-29.5207E-3
-1.44322E-3	-24.1362E-12	1.14480E+0	-1.86384E-3	-23.8080E-12	1.19440E+0	-22.8223E-3
-1.44822E-3	-24.5987E-12	1.15589E+0	-13.5005E-3	-24.2548E-12	1.19846E+0	-19.6697E-3
-1.45323E-3	-24.9256E-12	1.15618E+0	-26.0856E-3	-24.8466E-12	1.19129E+0	-17.1992E-3
-1.45823E-3	-25.7465E-12	1.16731E+0	-26.6400E-3	-25.6406E-12	1.17301E+0	-18.5923E-3
-1.46323E-3	-26.2290E-12	1.19523E+0	-20.4658E-3	-25.8095E-12	1.15828E+0	-28.1719E-3
-1.46823E-3	-26.2967E-12	1.21401E+0	-16.1136E-3	-26.0643E-12	1.15513E+0	-32.6718E-3
-1.47324E-3	-26.5175E-12	1.20636E+0	-8.34054E-3	-26.2628E-12	1.15292E+0	-22.6526E-3
-1.47824E-3	-27.2306E-12	1.18907E+0	-4.97437E-3	-26.6305E-12	1.15339E+0	-9.96683E-3
-1.48324E-3	-27.5395E-12	1.19085E+0	-9.39065E-3	-26.9066E-12	1.14605E+0	-10.6231E-3
-1.48824E-3	-27.0887E-12	1.20254E+0	-14.1861E-3	-27.1923E-12	1.14055E+0	-24.3325E-3
-1.49325E-3	-27.2489E-12	1.20046E+0	-12.8989E-3	-27.2087E-12	1.14608E+0	-37.9552E-3
-1.49825E-3	-27.5420E-12	1.18429E+0	-7.52975E-3	-27.5053E-12	1.14277E+0	-37.8578E-3
-1.50325E-3	-27.8175E-12	1.15638E+0	-4.55767E-3	-27.9852E-12	1.13442E+0	-25.9030E-3
-1.50825E-3	-27.8794E-12	1.13725E+0	-7.18415E-3	-28.5098E-12	1.12864E+0	-23.6311E-3
-1.51326E-3	-28.1109E-12	1.14076E+0	-15.1652E-3	-29.0003E-12	1.13317E+0	-30.3900E-3
-1.51826E-3	-28.5285E-12	1.13885E+0	-19.2521E-3	-29.5424E-12	1.14585E+0	-32.5691E-3
-1.52326E-3	-29.3109E-12	1.12153E+0	-16.0801E-3	-30.1972E-12	1.15388E+0	-27.1314E-3
-1.52826E-3	-29.8456E-12	1.11296E+0	-8.74656E-3	-30.7581E-12	1.16584E+0	-12.3065E-3
-1.53327E-3	-30.0458E-12	1.11878E+0	1.56545E-3	-31.1870E-12	1.17536E+0	-1.69693E-3
-1.53827E-3	-30.9157E-12	1.12536E+0	954.337E-6	-31.8184E-12	1.16802E+0	-380.667E-6
-1.54327E-3	-31.5827E-12	1.12292E+0	-10.5288E-3	-32.4400E-12	1.16091E+0	-3.78641E-3
-1.54827E-3	-32.0547E-12	1.12536E+0	-15.9686E-3	-32.7626E-12	1.17012E+0	-4.94591E-3
-1.55328E-3	-32.4418E-12	1.13908E+0	-14.9000E-3	-33.1676E-12	1.18116E+0	-1.13222E-3
-1.55828E-3	-33.2702E-12	1.15242E+0	-16.7889E-3	-33.7617E-12	1.17409E+0	-12.6474E-3
-1.56328E-3	-33.7240E-12	1.16058E+0	-9.72827E-3	-34.2408E-12	1.15681E+0	-28.7556E-3
-1.56828E-3	-34.3569E-12	1.16918E+0	5.18706E-3	-34.4277E-12	1.14082E+0	-34.5981E-3
-1.57329E-3	-34.5639E-12	1.18465E+0	2.27325E-3	-34.4165E-12	1.11184E+0	-32.4754E-3
-1.57829E-3	-34.8797E-12	1.18518E+0	-6.71065E-3	-34.5553E-12	1.08878E+0	-18.1902E-3
-1.58329E-3	-35.0337E-12	1.16363E+0	-5.23240E-3	-34.8292E-12	1.09389E+0	-18.0979E-3
-1.58829E-3	-35.3354E-12	1.14117E+0	-1.97000E-3	-34.8897E-12	1.09884E+0	-35.1650E-3
-1.59330E-3	-35.4700E-12	1.13463E+0	8.36747E-3	-35.1028E-12	1.08861E+0	-30.6032E-3
-1.59830E-3	-35.4520E-12	1.13563E+0	13.1844E-3	-35.2080E-12	1.08125E+0	-15.1305E-3
-1.60330E-3	-35.4873E-12	1.12171E+0	5.15651E-3	-35.7151E-12	1.08221E+0	-15.5234E-3
-1.60830E-3	-35.6809E-12	1.10092E+0	363.813E-6	-36.2345E-12	1.09040E+0	-17.4132E-3
-1.61331E-3	-35.8798E-12	1.08930E+0	-11.1499E-3	-36.8742E-12	1.09921E+0	-10.9810E-3
-1.61831E-3	-36.0376E-12	1.08273E+0	-21.6553E-3	-37.0605E-12	1.09968E+0	-18.7158E-3
-1.62331E-3	-36.3802E-12	1.07276E+0	-14.5392E-3	-37.7358E-12	1.09154E+0	-34.5300E-3
-1.62831E-3	-36.6850E-12	1.05754E+0	-14.6762E-3	-38.1403E-12	1.07269E+0	-25.7245E-3
-1.63332E-3	-37.2055E-12	1.04339E+0	-24.8730E-3	-38.9257E-12	1.05449E+0	-13.9233E-3
-1.63832E-3	-37.8124E-12	1.03957E+0	-19.9583E-3	-39.0633E-12	1.04707E+0	-20.4476E-3
-1.64332E-3	-38.5595E-12	1.04663E+0	-17.0261E-3	-39.0644E-12	1.04657E+0	-18.5729E-3
-1.64832E-3	-39.0529E-12	1.04780E+0	-27.0478E-3	-39.4529E-12	1.04740E+0	-5.99466E-3
-1.65333E-3	-39.6826E-12	1.05221E+0	-27.3732E-3	-40.3085E-12	1.04077E+0	-5.78675E-3
-1.65833E-3	-40.4043E-12	1.06677E+0	-16.5878E-3	-40.5627E-12	1.02682E+0	-13.1458E-3
-1.66333E-3	-41.3717E-12	1.06700E+0	-8.39398E-3	-40.2978E-12	1.01971E+0	-25.4284E-3
-1.66833E-3	-41.9055E-12	1.06041E+0	-8.43732E-3	-40.3287E-12	1.02127E+0	-37.1288E-3
-1.67334E-3	-42.2558E-12	1.06482E+0	-17.2439E-3	-40.7954E-12	1.02086E+0	-30.9616E-3
-1.67834E-3	-42.9082E-12	1.07206E+0	-27.1307E-3	-41.0450E-12	1.00772E+0	-20.3060E-3
-1.68334E-3	-43.4884E-12	1.07146E+0	-28.1021E-3	-41.3716E-12	988.158E-3	-10.8856E-3
-1.68834E-3	-43.2997E-12	1.07002E+0	-27.7449E-3	-41.4432E-12	984.874E-3	2.44942E-3
-1.69335E-3	-43.3452E-12	1.08185E+0	-26.9025E-3	-41.6733E-12	992.864E-3	-1.01850E-3
-1.69835E-3	-43.5951E-12	1.07527E+0	-18.2666E-3	-41.9423E-12	984.974E-3	-24.2833E-3
-1.70335E-3	-43.6138E-12	1.04451E+0	-15.7445E-3	-42.5095E-12	968.222E-3	-38.6354E-3
-1.70835E-3	-43.3493E-12	1.02480E+0	-23.3592E-3	-43.1421E-12	962.170E-3	-30.4861E-3
-1.71336E-3	-43.5865E-12	1.01567E+0	-30.6210E-3	-42.9511E-12	961.844E-3	-17.3625E-3
-1.71836E-3	-43.2399E-12	1.01513E+0	-36.0838E-3	-43.2674E-12	962.074E-3	-22.6565E-3
-1.72336E-3	-43.3542E-12	1.00874E+0	-35.4984E-3	-44.0284E-12	965.253E-3	-33.4657E-3
-1.72836E-3	-43.8812E-12	988.179E-3	-25.7813E-3	-44.7721E-12	969.906E-3	-24.9347E-3
-1.73337E-3	-44.1709E-12	969.632E-3	-8.96188E-3	-44.7902E-12	969.452E-3	-17.4006E-3
-1.73837E-3	-44.3251E-12	955.900E-3	-3.64198E-3	-45.0933E-12	970.955E-3	-22.6995E-3
-1.74337E-3	-45.0191E-12	949.890E-3	-4.35746E-3	-45.8816E-12	969.988E-3	-28.4473E-3
-1.74837E-3	-45.7200E-12	952.573E-3	12.4962E-3	-46.5157E-12	953.746E-3	-30.3071E-3
-1.75338E-3	-46.7531E-12	951.544E-3	9.66460E-3	-46.7501E-12	946.340E-3	-27.3065E-3
-1.75838E-3	-46.9103E-12	957.975E-3	-29.2191E-3	-47.0000E-12	945.619E-3	-33.0864E-3
-1.76338E-3	-47.2799E-12	971.354E-3	-50.8745E-3	-47.5381E-12	936.107E-3	-30.5503E-3
-1.76838E-3	-48.1797E-12	960.705E-3	-37.9740E-3	-48.0191E-12	939.979E-3	-11.8345E-3
-1.77339E-3	-49.1787E-12	955.715E-3	-18.5063E-3	-48.1793E-12	947.585E-3	-9.93916E-3
-1.77839E-3	-49.0523E-12	976.374E-3	-5.40099E-3	-48.5826E-12	942.310E-3	-19.5307E-3
-1.78339E-3	-48.9099E-12	978.846E-3	-6.14748E-3	-49.1370E-12	939.247E-3	-19.2129E-3
-1.78839E-3	-49.3174E-12	964.428E-3	-14.6124E-3	-49.3612E-12	927.435E-3	-14.7481E-3
-1.79340E-3	-49.4685E-12	952.258E-3	-19.4302E-3	-49.4775E-12	911.116E-3	-11.4665E-3
-1.79840E-3	-49.3094E-12	935.169E-3	-25.5964E-3	-49.7705E-12	917.337E-3	-12.9226E-3
-1.80340E-3	-49.6551E-12	933.204E-3	-28.6556E-3	-50.0971E-12	930.109E-3	-18.1718E-3
-1.80840E-3	-49.4927E-12	937.103E-3	-26.3634E-3	-50.4161E-12	929.998E-3	-20.1906E-3
-1.81341E-3	-49.1919E-12	921.771E-3	-28.6511E-3	-50.5016E-12	925.169E-3	-30.1655E-3
-1.81841E-3	-49.3789E-12	910.129E-3	-25.3729E-3	-50.7252E-12	916.194E-3	-41.2921E-3
-1.82341E-3	-49.3848E-12	904.450E-3	-12.6125E-3	-51.4683E-12	911.547E-3	-38.6097E-3
-1.82841E-3	-49.1773E-12	889.502E-3	-10.5346E-3	-51.6066E-12	917.535E-3	-22.1588E-3
-1.83342E-3	-49.2705E-12	878.519E-3	-10.9885E-3	-51.8434E-12	921.845E-3	-4.82605E-3
-1.83842E-3	-49.1227E-12	876.090E-3	-9.42438E-3	-51.5621E-12	921.917E-3	2.67597E-3
-1.84342E-3	-49.7816E-12	866.941E-3	-11.0895E-3	-52.5593E-12	915.112E-3	4.63346E-3
-1.84842E-3	-50.1706E-12	857.668E-3	-11.2611E-3	-53.2251E-12	901.496E-3	-7.13287E-3
-1.85343E-3	-50.8252E-12	867.989E-3	-6.11058E-3	-53.6047E-12	903.373E-3	-29.4400E-3
-1.85843E-3	-51.7571E-12	882.909E-3	-1.70906E-3	-53.8947E-12	918.882E-3	-42.6481E-3
-1.86343E-3	-52.6817E-12	884.343E-3	-8.70925E-3	-54.5914E-12	922.111E-3	-40.1707E-3
-1.86843E-3	-53.5410E-12	879.591E-3	-4.84226E-3	-55.5695E-12	908.238E-3	-24.4897E-3
-1.87344E-3	-54.0378E-12	875.724E-3	3.08540E-3	-55.9552E-12	907.780E-3	-2.34610E-3
-1.87844E-3	-54.8506E-12	885.438E-3	-13.8744E-3	-55.6613E-12	922.754E-3	8.63021E-3
-1.88344E-3	-55.6700E-12	903.441E-3	-25.5580E-3	-55.9308E-12	907.256E-3	-7.60659E-3
-1.88844E-3	-56.2077E-12	910.304E-3	-14.0478E-3	-57.1428E-12	869.663E-3	-18.7731E-3
-1.89345E-3	-56.2876E-12	898.021E-3	-4.95836E-3	-57.5824E-12	847.623E-3	-16.5016E-3
-1.89845E-3	-56.4749E-12	883.420E-3	-2.50869E-3	-56.3594E-12	835.305E-3	-30.9193E-3
-1.90345E-3	-56.6356E-12	887.698E-3	-2.99578E-3	-55.9949E-12	834.461E-3	-34.3291E-3
-1.90845E-3	-56.8841E-12	891.825E-3	-8.73733E-3	-56.5123E-12	847.668E-3	-16.9547E-3
-1.91346E-3	-56.6539E-12	889.120E-3	-10.3582E-3	-56.2808E-12	841.853E-3	-22.1905E-3
-1.91846E-3	-56.2393E-12	878.419E-3	-2.40741E-3	-55.9412E-12	821.750E-3	-31.4199E-3
-1.92346E-3	-56.0821E-12	849.542E-3	1.41180E-3	-56.2209E-12	815.683E-3	-15.9100E-3
-1.92846E-3	-56.2593E-12	828.201E-3	731.550E-6	-56.4695E-12	825.378E-3	-8.67551E-3
-1.93347E-3	-56.0488E-12	830.339E-3	1.47518E-3	-56.6901E-12	831.298E-3	-18.7120E-3
-1.93847E-3	-56.5423E-12	827.888E-3	-6.36012E-3	-57.3151E-12	830.939E-3	-15.8337E-3
-1.94347E-3	-57.0592E-12	822.181E-3	-18.7126E-3	-57.9701E-12	844.642E-3	-17.0739E-3
-1.94847E-3	-57.7071E-12	831.944E-3	-10.0661E-3	-58.2097E-12	860.486E-3	-37.4651E-3
-1.95348E-3	-57.8824E-12	834.872E-3	5.28519E-3	-58.3839E-12	865.118E-3	-48.8732E-3
-1.95848E-3	-58.8662E-12	831.258E-3	-13.3914E-3	-58.7030E-12	867.393E-3	-45.1362E-3
-1.96348E-3	-60.1288E-12	836.009E-3	-42.0456E-3	-59.7291E-12	858.383E-3	-34.1730E-3
-1.96848E-3	-60.7729E-12	841.174E-3	-41.0344E-3	-60.8679E-12	836.511E-3	-34.9146E-3
-1.97349E-3	-61.0126E-12	854.521E-3	-26.7224E-3	-60.4995E-12	833.843E-3	-30.7322E-3
-1.97849E-3	-61.8753E-12	864.124E-3	-21.4109E-3	-60.6274E-12	848.373E-3	-9.31376E-3
-1.98349E-3	-62.4529E-12	854.176E-3	-18.9068E-3	-61.2938E-12	845.134E-3	-2.91982E-3
-1.98849E-3	-63.0948E-12	848.647E-3	-12.4212E-3	-61.5721E-12	831.097E-3	-9.56035E-3
-1.99350E-3	-63.0875E-12	853.639E-3	-6.68025E-3	-60.8953E-12	818.058E-3	-17.7836E-3
-1.99850E-3	-63.0374E-12	856.124E-3	-12.0629E-3	-60.3453E-12	811.296E-3	-18.5527E-3
-2.00350E-3	-62.6154E-12	855.186E-3	-23.3513E-3	-60.5137E-12	814.592E-3	-7.67285E-3
-2.00850E-3	-62.8948E-12	857.031E-3	-29.4509E-3	-60.7831E-12	812.297E-3	-10.8170E-3
-2.01351E-3	-63.0002E-12	862.956E-3	-17.6004E-3	-61.0946E-12	806.445E-3	-26.9801E-3
-2.01851E-3	-61.9096E-12	861.966E-3	-10.1303E-3	-60.3877E-12	808.700E-3	-32.5220E-3
-2.02351E-3	-61.2573E-12	851.175E-3	-29.2256E-3	-60.3145E-12	815.402E-3	-27.3053E-3
-2.02851E-3	-61.6509E-12	826.134E-3	-30.0089E-3	-61.1286E-12	810.621E-3	-21.6084E-3
-2.03352E-3	-61.9372E-12	804.482E-3	-14.2586E-3	-61.7591E-12	792.100E-3	-12.3507E-3
-2.03852E-3	-61.7429E-12	805.309E-3	-20.5607E-3	-61.7389E-12	787.894E-3	5.65894E-3
-2.04352E-3	-61.3459E-12	796.381E-3	-27.2921E-3	-62.1513E-12	803.244E-3	10.9361E-3
-2.04852E-3	-62.1765E-12	766.767E-3	-28.3071E-3	-62.4705E-12	807.007E-3	-9.13102E-3
-2.05353E-3	-63.0393E-12	757.708E-3	-31.6731E-3	-62.8483E-12	803.237E-3	-20.8257E-3
-2.05853E-3	-63.6605E-12	779.218E-3	-25.0158E-3	-64.0218E-12	803.254E-3	2.92040E-3
-2.06353E-3	-63.6305E-12	801.998E-3	-18.8224E-3	-64.3892E-12	792.223E-3	14.6801E-3
-2.06853E-3	-64.4496E-12	812.176E-3	-13.3681E-3	-64.7746E-12	785.633E-3	-9.00394E-3
-2.07354E-3	-65.7276E-12	796.520E-3	-5.46454E-3	-64.8186E-12	807.374E-3	-19.3456E-3
-2.07854E-3	-66.0758E-12	778.972E-3	-14.0526E-3	-65.1951E-12	821.291E-3	-17.6043E-3
-2.08354E-3	-65.9657E-12	791.109E-3	-26.4195E-3	-65.5277E-12	798.644E-3	-18.3036E-3
-2.08854E-3	-66.6114E-12	810.300E-3	-16.3005E-3	-66.0168E-12	773.913E-3	-11.4248E-3
-2.09355E-3	-67.9008E-12	823.758E-3	-3.38844E-3	-66.1482E-12	761.008E-3	-7.45898E-3
-2.09855E-3	-68.3559E-12	827.572E-3	-8.04868E-3	-65.9706E-12	742.163E-3	-9.40355E-3
-2.10355E-3	-67.8369E-12	828.696E-3	-11.0680E-3	-66.2630E-12	723.312E-3	-15.6489E-3
-2.10855E-3	-67.9302E-12	841.003E-3	-2.70445E-3	-66.5317E-12	731.726E-3	-29.2195E-3
-2.11356E-3	-68.3512E-12	839.475E-3	-4.51130E-3	-67.1597E-12	763.266E-3	-29.3681E-3
-2.11856E-3	-68.5934E-12	819.357E-3	-18.3045E-3	-66.9437E-12	778.947E-3	-19.5782E-3
-2.12356E-3	-67.8059E-12	800.437E-3	-19.9181E-3	-67.2785E-12	761.024E-3	-14.2146E-3
-2.12856E-3	-67.2431E-12	801.789E-3	-5.16105E-3	-67.5680E-12	750.069E-3	-5.76488E-3
-2.13357E-3	-67.3418E-12	812.991E-3	16.8565E-3	-67.9480E-12	772.865E-3	-7.28536E-3
-2.13857E-3	-67.4135E-12	804.271E-3	15.1513E-3	-68.1824E-12	790.282E-3	-19.0100E-3
-2.14357E-3	-66.8827E-12	790.104E-3	-12.8952E-3	-68.5953E-12	778.483E-3	-26.8660E-3
-2.14857E-3	-67.2675E-12	785.985E-3	-14.0093E-3	-69.6616E-12	755.774E-3	-33.2774E-3
-2.15358E-3	-67.7416E-12	779.472E-3	2.62240E-3	-70.1231E-12	746.332E-3	-28.8416E-3
-2.15858E-3	-68.0115E-12	779.939E-3	-5.89955E-3	-70.1650E-12	757.292E-3	-17.3142E-3
-2.16358E-3	-68.4052E-12	786.281E-3	-11.3395E-3	-70.2762E-12	775.876E-3	-14.6747E-3
-2.16858E-3	-68.6391E-12	767.838E-3	-2.56766E-3	-71.3049E-12	786.533E-3	-14.5820E-3
-2.17359E-3	-69.5566E-12	755.978E-3	-15.0408E-3	-72.3193E-12	776.134E-3	-7.26297E-3
-2.17859E-3	-70.2672E-12	770.708E-3	-18.2182E-3	-72.7873E-12	763.365E-3	970.049E-6
-2.18359E-3	-71.1276E-12	772.357E-3	-4.77723E-3	-72.4110E-12	767.368E-3	-8.89075E-3
-2.18859E-3	-71.5060E-12	768.347E-3	-9.11343E-3	-72.6677E-12	780.375E-3	-27.9678E-3
-2.19360E-3	-71.7893E-12	780.299E-3	-13.3757E-3	-73.5863E-12	789.489E-3	-27.2697E-3
-2.19860E-3	-73.0055E-12	781.869E-3	-20.5033E-3	-74.0552E-12	779.128E-3	-15.3824E-3
-2.20360E-3	-73.8816E-12	774.635E-3	-31.6277E-3	-73.8494E-12	749.469E-3	-11.4366E-3
-2.20860E-3	-73.6761E-12	784.353E-3	-23.1058E-3	-73.4166E-12	734.864E-3	-15.7471E-3
-2.21361E-3	-73.1324E-12	791.537E-3	-13.0005E-3	-73.6417E-12	744.030E-3	-12.8813E-3
-2.21861E-3	-73.7794E-12	782.689E-3	-18.2655E-3	-73.8405E-12	753.367E-3	-1.61677E-3
-2.22361E-3	-74.2215E-12	773.301E-3	-14.4961E-3	-74.1939E-12	761.824E-3	-6.00333E-3
-2.22861E-3	-73.6825E-12	764.184E-3	1.49608E-3	-74.1303E-12	758.109E-3	-16.7000E-3
-2.23362E-3	-72.9323E-12	749.483E-3	-326.834E-6	-73.7436E-12	741.844E-3	-23.1647E-3
-2.23862E-3	-73.1516E-12	737.460E-3	-13.9643E-3	-74.2302E-12	741.629E-3	-27.1249E-3
-2.24362E-3	-72.8995E-12	732.885E-3	-8.62608E-3	-74.7059E-12	745.519E-3	-14.0500E-3
-2.24862E-3	-72.3544E-12	735.089E-3	-2.56708E-3	-74.3035E-12	733.447E-3	-4.29661E-3
-2.25363E-3	-72.5188E-12	732.234E-3	-7.56354E-3	-73.6303E-12	727.077E-3	-19.8612E-3
-2.25863E-3	-72.6629E-12	718.893E-3	-9.02226E-3	-74.9598E-12	739.279E-3	-46.4272E-3
-2.26363E-3	-72.7382E-12	705.170E-3	-10.8510E-3	-76.0724E-12	753.111E-3	-57.8776E-3
-2.26863E-3	-73.2249E-12	703.515E-3	-12.7321E-3	-76.3154E-12	759.984E-3	-36.9906E-3
-2.27364E-3	-74.0082E-12	706.509E-3	-11.4432E-3	-75.6358E-12	763.519E-3	-15.1486E-3
-2.27864E-3	-74.5942E-12	696.814E-3	-19.5930E-3	-76.4147E-12	753.504E-3	-22.3568E-3
-2.28364E-3	-75.0447E-12	698.988E-3	-21.4299E-3	-77.3727E-12	738.021E-3	-37.2264E-3
-2.28864E-3	-76.4402E-12	720.034E-3	185.616E-6	-77.6948E-12	750.692E-3	-36.0108E-3
-2.29365E-3	-78.1130E-12	723.158E-3	3.41269E-3	-77.7406E-12	763.800E-3	-29.1920E-3
-2.29865E-3	-77.9829E-12	714.058E-3	-13.1052E-3	-77.6982E-12	740.891E-3	-28.1353E-3
-2.30365E-3	-78.1510E-12	723.613E-3	-13.5859E-3	-77.8397E-12	717.696E-3	-26.0825E-3
-2.30865E-3	-78.7053E-12	749.635E-3	-6.07505E-3	-78.5399E-12	724.565E-3	-15.9464E-3
-2.31366E-3	-80.0752E-12	771.327E-3	191.947E-6	-78.0016E-12	736.172E-3	-10.1459E-3
-2.31866E-3	-80.3078E-12	779.740E-3	4.15362E-3	-77.1012E-12	727.325E-3	-33.6083E-3
-2.32366E-3	-78.9971E-12	776.720E-3	3.16711E-3	-77.3910E-12	720.681E-3	-53.8546E-3
-2.32866E-3	-78.9884E-12	772.226E-3	-7.49608E-3	-78.1856E-12	720.655E-3	-30.2766E-3
-2.33367E-3	-78.9967E-12	775.981E-3	-21.4649E-3	-77.0283E-12	719.216E-3	-17.1664E-3
-2.33867E-3	-78.8162E-12	780.373E-3	-37.1530E-3	-76.5320E-12	717.779E-3	-32.4203E-3
-2.34367E-3	-77.4826E-12	779.004E-3	-34.4349E-3	-77.1258E-12	708.014E-3	-25.4438E-3
-2.34867E-3	-76.6917E-12	763.202E-3	-1.81337E-3	-78.5928E-12	709.910E-3	1.55405E-3
-2.35368E-3	-76.5222E-12	729.244E-3	6.93146E-3	-77.6316E-12	711.352E-3	8.13512E-3
-2.35868E-3	-77.0788E-12	709.739E-3	-12.1555E-3	-77.3498E-12	691.350E-3	-14.4009E-3
-2.36368E-3	-77.2897E-12	715.332E-3	-25.5923E-3	-78.0171E-12	685.334E-3	-28.2968E-3
-2.36868E-3	-76.7299E-12	712.901E-3	-32.9390E-3	-79.0241E-12	707.500E-3	-17.8176E-3
-2.37369E-3	-76.6746E-12	694.548E-3	-44.9925E-3	-79.2852E-12	726.804E-3	-9.57942E-3
-2.37869E-3	-78.0822E-12	688.273E-3	-47.9344E-3	-79.7951E-12	729.189E-3	-15.7617E-3
-2.38369E-3	-79.8438E-12	695.235E-3	-32.5443E-3	-80.2374E-12	726.630E-3	-35.9283E-3
-2.38869E-3	-80.0067E-12	681.641E-3	-35.0719E-3	-81.3009E-12	719.874E-3	-48.5690E-3
-2.39370E-3	-80.5783E-12	681.640E-3	-61.2752E-3	-81.9371E-12	705.556E-3	-35.0550E-3
-2.39870E-3	-81.4369E-12	706.950E-3	-53.0047E-3	-81.9165E-12	696.348E-3	-17.9441E-3
-2.40370E-3	-83.5911E-12	713.090E-3	-16.9539E-3	-81.4402E-12	708.249E-3	-9.38944E-3
-2.40870E-3	-83.7867E-12	714.949E-3	-13.9870E-3	-81.6625E-12	727.153E-3	-4.24013E-3
-2.41371E-3	-83.7957E-12	731.012E-3	-26.6924E-3	-82.4218E-12	729.700E-3	-4.63789E-3
-2.41871E-3	-83.5476E-12	739.563E-3	-31.5214E-3	-82.8120E-12	725.891E-3	-10.0483E-3
-2.42371E-3	-84.1800E-12	731.865E-3	-32.1910E-3	-81.9714E-12	719.320E-3	-15.8725E-3
-2.42871E-3	-84.2116E-12	726.316E-3	-18.7967E-3	-81.9734E-12	706.571E-3	-21.7327E-3
-2.43372E-3	-83.1889E-12	726.678E-3	-14.0070E-3	-82.4744E-12	693.663E-3	-26.6577E-3
-2.43872E-3	-82.4610E-12	718.594E-3	-23.6215E-3	-83.3577E-12	685.091E-3	-34.4761E-3
-2.44372E-3	-82.2948E-12	709.039E-3	-18.9431E-3	-82.7890E-12	679.708E-3	-26.6531E-3
-2.44872E-3	-82.2784E-12	703.920E-3	-15.5971E-3	-81.7697E-12	678.610E-3	-9.23505E-3
-2.45373E-3	-82.1140E-12	678.832E-3	-16.8913E-3	-82.2050E-12	695.622E-3	-9.64561E-3
-2.45873E-3	-81.2779E-12	659.263E-3	-15.6199E-3	-82.8509E-12	719.937E-3	-8.78369E-3
-2.46373E-3	-80.7058E-12	673.667E-3	-11.1467E-3	-83.9640E-12	727.801E-3	1.03714E-3
-2.46873E-3	-81.6285E-12	684.736E-3	-3.71121E-3	-83.7624E-12	714.861E-3	2.67435E-3
-2.47374E-3	-82.7938E-12	685.992E-3	-1.67083E-3	-84.1441E-12	703.086E-3	-5.20435E-3
-2.47874E-3	-82.7716E-12	677.190E-3	-368.914E-6	-84.8103E-12	700.977E-3	-22.8281E-3
-2.48374E-3	-82.9714E-12	665.482E-3	-9.77291E-3	-85.4694E-12	695.474E-3	-42.0453E-3
-2.48874E-3	-84.0545E-12	672.804E-3	-25.7073E-3	-86.3462E-12	701.554E-3	-41.8255E-3
-2.49375E-3	-85.8565E-12	678.888E-3	-34.4603E-3	-86.4908E-12	715.355E-3	-27.2253E-3
-2.49875E-3	-86.9934E-12	684.979E-3	-40.6714E-3	-86.9810E-12	713.290E-3	-12.9611E-3
-2.50375E-3	-87.5394E-12	701.787E-3	-39.2364E-3	-87.2985E-12	707.729E-3	-16.1368E-3
-2.50875E-3	-88.8499E-12	706.728E-3	-22.8571E-3	-88.4051E-12	705.625E-3	-30.6379E-3
-2.51376E-3	-90.3496E-12	708.909E-3	-9.17117E-3	-87.7401E-12	701.949E-3	-18.6277E-3
-2.51876E-3	-91.4114E-12	726.924E-3	-8.16442E-3	-87.7289E-12	704.823E-3	252.363E-6
-2.52376E-3	-91.1465E-12	738.094E-3	-11.6424E-3	-88.4079E-12	704.041E-3	-2.68420E-3
-2.52876E-3	-90.5897E-12	727.987E-3	-13.6855E-3	-88.2985E-12	700.626E-3	-11.9699E-3
-2.53377E-3	-90.0223E-12	720.555E-3	-17.2578E-3	-87.4931E-12	712.800E-3	-22.2149E-3
-2.53877E-3	-90.0729E-12	727.072E-3	-16.1923E-3	-87.5036E-12	713.979E-3	-30.8504E-3
-2.54377E-3	-89.9395E-12	733.778E-3	-7.30392E-3	-88.2840E-12	697.515E-3	-30.3006E-3
-2.54877E-3	-88.6123E-12	736.297E-3	-10.5939E-3	-88.2557E-12	696.623E-3	-26.2893E-3
-2.55378E-3	-87.6153E-12	723.466E-3	-20.0065E-3	-88.2394E-12	699.026E-3	-30.6300E-3
-2.55878E-3	-87.5145E-12	701.971E-3	-13.9044E-3	-88.9210E-12	703.811E-3	-29.5229E-3
-2.56378E-3	-88.8355E-12	696.056E-3	-13.7717E-3	-88.9578E-12	719.058E-3	-17.8236E-3
-2.56878E-3	-88.4787E-12	712.568E-3	-21.2041E-3	-90.0018E-12	707.376E-3	-10.1403E-3
-2.57379E-3	-87.2927E-12	724.820E-3	-25.2962E-3	-89.5196E-12	696.963E-3	-7.13612E-3
-2.57879E-3	-87.3129E-12	721.843E-3	-38.6010E-3	-90.0106E-12	705.440E-3	-5.07490E-3
-2.58379E-3	-89.0493E-12	696.628E-3	-37.0391E-3	-90.4862E-12	688.044E-3	-9.96740E-3
-2.58879E-3	-90.5013E-12	659.402E-3	-23.5757E-3	-91.3491E-12	682.581E-3	-26.1113E-3
-2.59380E-3	-90.3873E-12	673.197E-3	-28.2896E-3	-91.4624E-12	705.523E-3	-30.7335E-3
-2.59880E-3	-90.5865E-12	705.780E-3	-32.9505E-3	-92.1146E-12	708.208E-3	-10.0060E-3
-2.60380E-3	-91.9125E-12	689.436E-3	-28.3377E-3	-92.1418E-12	696.781E-3	6.49162E-3
-2.60880E-3	-94.5076E-12	660.007E-3	-13.2449E-3	-93.1834E-12	711.296E-3	-69.5188E-6
-2.61381E-3	-94.2346E-12	655.844E-3	10.1323E-3	-92.7332E-12	723.352E-3	-14.3481E-3
-2.61881E-3	-93.9915E-12	667.809E-3	6.77110E-3	-93.1152E-12	721.936E-3	-12.4921E-3
-2.62381E-3	-94.2165E-12	691.223E-3	-4.44158E-3	-93.1957E-12	722.330E-3	-11.5544E-3
-2.62881E-3	-96.1380E-12	716.410E-3	-5.89199E-3	-93.6555E-12	702.255E-3	-22.0801E-3
-2.63382E-3	-96.7520E-12	728.606E-3	-18.0406E-3	-92.9856E-12	682.864E-3	-21.9492E-3
-2.63882E-3	-95.5392E-12	739.894E-3	-17.5170E-3	-92.8403E-12	688.933E-3	-8.43072E-3
-2.64382E-3	-94.0774E-12	754.013E-3	-10.0745E-3	-92.0350E-12	702.177E-3	7.87036E-3
-2.64882E-3	-93.7748E-12	753.527E-3	-24.1154E-3	-93.0554E-12	708.202E-3	9.78098E-3
-2.65383E-3	-93.9212E-12	737.830E-3	-40.5384E-3	-92.4715E-12	698.008E-3	-231.795E-6
-2.65883E-3	-92.7715E-12	711.648E-3	-39.5846E-3	-92.4629E-12	689.746E-3	-4.97486E-3
-2.66383E-3	-92.2811E-12	685.976E-3	-32.4111E-3	-92.7104E-12	697.835E-3	4.63383E-3
-2.66883E-3	-91.6581E-12	675.731E-3	-32.6164E-3	-92.7329E-12	701.613E-3	15.6202E-3
-2.67384E-3	-91.6108E-12	680.751E-3	-14.9618E-3	-92.9963E-12	700.278E-3	2.79473E-3
-2.67884E-3	-92.0873E-12	678.663E-3	-4.14366E-3	-93.0656E-12	694.225E-3	9.46942E-6
-2.68384E-3	-91.9965E-12	662.551E-3	-28.5732E-3	-93.5075E-12	678.580E-3	23.1350E-3
-2.68884E-3	-91.5590E-12	655.465E-3	-38.6303E-3	-94.1854E-12	682.281E-3	26.7859E-3
-2.69385E-3	-91.5536E-12	651.052E-3	-18.8459E-3	-94.1154E-12	702.578E-3	30.1651E-3
-2.69885E-3	-92.9163E-12	639.396E-3	-3.59645E-3	-94.7972E-12	705.281E-3	21.3082E-3
-2.70385E-3	-95.0597E-12	641.809E-3	-3.04671E-3	-95.4745E-12	682.434E-3	-14.1151E-3
-2.70885E-3	-95.6499E-12	652.682E-3	-4.97692E-3	-96.5251E-12	648.798E-3	-12.3297E-3
-2.71386E-3	-95.9146E-12	651.128E-3	-24.7978E-3	-96.6081E-12	654.752E-3	-7.34155E-3
-2.71886E-3	-97.5878E-12	653.597E-3	-40.4964E-3	-96.2199E-12	696.848E-3	-30.6664E-3
-2.72386E-3	-100.175E-12	660.313E-3	-21.8405E-3	-96.6331E-12	713.255E-3	-23.6127E-3
-2.72886E-3	-99.7648E-12	673.928E-3	-5.65597E-3	-97.0667E-12	699.842E-3	-3.67210E-3
-2.73387E-3	-99.7661E-12	708.609E-3	-10.6607E-3	-97.1535E-12	696.192E-3	-10.3946E-3
-2.73887E-3	-100.508E-12	731.769E-3	-22.7068E-3	-96.2095E-12	695.776E-3	-14.9737E-3
-2.74387E-3	-101.622E-12	736.384E-3	-31.5665E-3	-95.6577E-12	679.735E-3	-15.2171E-3
-2.74887E-3	-101.188E-12	727.581E-3	-17.8213E-3	-95.9938E-12	669.749E-3	-21.5363E-3
-2.75388E-3	-99.5130E-12	706.430E-3	6.78960E-3	-96.3436E-12	671.991E-3	-28.6708E-3
-2.75888E-3	-98.9060E-12	698.629E-3	191.311E-6	-95.8648E-12	672.709E-3	-41.2033E-3
-2.76388E-3	-98.3442E-12	694.206E-3	-9.34015E-3	-95.3417E-12	671.792E-3	-38.7731E-3
-2.76888E-3	-97.9506E-12	677.371E-3	-2.78882E-3	-95.4483E-12	675.820E-3	-23.5076E-3
-2.77389E-3	-96.1039E-12	666.125E-3	-10.2165E-3	-96.1807E-12	675.418E-3	-20.1411E-3
-2.77889E-3	-95.7271E-12	668.175E-3	-12.5932E-3	-95.8087E-12	664.328E-3	-15.2598E-3
-2.78389E-3	-95.1403E-12	667.466E-3	-4.42094E-3	-96.7689E-12	654.005E-3	-4.02474E-3
-2.78889E-3	-95.4796E-12	646.935E-3	-12.6803E-3	-97.9183E-12	655.352E-3	6.45261E-3
-2.79390E-3	-95.9180E-12	623.131E-3	-32.5161E-3	-98.8348E-12	674.826E-3	2.53542E-3
-2.79890E-3	-96.0785E-12	623.879E-3	-47.0635E-3	-98.4635E-12	694.635E-3	-22.2561E-3
-2.80390E-3	-96.7003E-12	638.515E-3	-49.0281E-3	-99.1236E-12	700.084E-3	-31.0772E-3
-2.80890E-3	-97.5458E-12	658.176E-3	-44.8368E-3	-100.481E-12	699.701E-3	-21.2095E-3
-2.81391E-3	-99.0637E-12	679.149E-3	-41.9586E-3	-101.249E-12	688.014E-3	-21.6541E-3
-2.81891E-3	-100.390E-12	686.686E-3	-39.5320E-3	-100.657E-12	679.649E-3	-27.9084E-3
-2.82391E-3	-101.215E-12	683.560E-3	-42.4821E-3	-101.091E-12	687.822E-3	-28.0034E-3
-2.82891E-3	-102.159E-12	682.176E-3	-30.6258E-3	-102.258E-12	685.517E-3	-17.6391E-3
-2.83392E-3	-103.488E-12	681.515E-3	-8.80935E-3	-102.313E-12	673.122E-3	-7.16261E-3
-2.83892E-3	-105.119E-12	680.494E-3	-17.6995E-3	-101.913E-12	664.911E-3	-16.1442E-3
-2.84392E-3	-105.339E-12	682.670E-3	-34.1790E-3	-101.650E-12	647.890E-3	-30.4119E-3
-2.84892E-3	-105.018E-12	676.855E-3	-27.9403E-3	-102.058E-12	633.371E-3	-29.7599E-3
-2.85393E-3	-104.150E-12	664.890E-3	-12.3302E-3	-101.858E-12	637.150E-3	-29.9386E-3
-2.85893E-3	-104.670E-12	659.536E-3	-7.17608E-3	-101.987E-12	649.993E-3	-36.0428E-3
-2.86393E-3	-103.278E-12	668.788E-3	-12.7596E-3	-101.627E-12	664.687E-3	-28.1709E-3
-2.86893E-3	-101.631E-12	679.700E-3	-2.89490E-3	-101.940E-12	674.176E-3	-10.0366E-3
-2.87394E-3	-101.133E-12	669.011E-3	4.09297E-3	-102.011E-12	683.645E-3	5.44380E-3
-2.87894E-3	-100.984E-12	667.741E-3	-10.9822E-3	-102.623E-12	695.971E-3	4.10884E-3
-2.88394E-3	-100.924E-12	669.433E-3	-14.8774E-3	-103.093E-12	692.977E-3	-21.3602E-3
-2.88894E-3	-99.8050E-12	636.160E-3	-11.9389E-3	-103.897E-12	678.671E-3	-37.8936E-3
-2.89395E-3	-99.4142E-12	618.867E-3	-33.0073E-3	-104.203E-12	675.108E-3	-28.1884E-3
-2.89895E-3	-100.181E-12	634.434E-3	-52.7605E-3	-104.522E-12	667.064E-3	-14.1377E-3
-2.90395E-3	-101.420E-12	632.306E-3	-37.7808E-3	-104.617E-12	656.475E-3	-5.17011E-3
-2.90895E-3	-102.583E-12	628.258E-3	-15.7743E-3	-104.984E-12	665.744E-3	-790.763E-6
-2.91396E-3	-103.468E-12	648.970E-3	-11.8806E-3	-105.771E-12	666.222E-3	4.96884E-3
-2.91896E-3	-104.634E-12	664.106E-3	-16.3475E-3	-106.480E-12	668.293E-3	8.38774E-3
-2.92396E-3	-106.299E-12	672.542E-3	-15.5392E-3	-106.518E-12	693.429E-3	-4.48329E-3
-2.92896E-3	-108.052E-12	688.607E-3	-3.34424E-3	-106.381E-12	695.903E-3	-18.9059E-3
-2.93397E-3	-109.219E-12	694.564E-3	5.34373E-3	-107.005E-12	668.121E-3	-16.2476E-3
-2.93897E-3	-109.153E-12	683.751E-3	-11.4517E-3	-106.690E-12	648.363E-3	-2.64062E-3
-2.94397E-3	-109.136E-12	693.711E-3	-37.8452E-3	-107.251E-12	661.079E-3	-4.32091E-3
-2.94897E-3	-110.065E-12	721.971E-3	-34.8183E-3	-107.272E-12	676.915E-3	-14.0931E-3
-2.95398E-3	-110.175E-12	721.816E-3	-16.1659E-3	-107.545E-12	667.523E-3	-4.00849E-3
-2.95898E-3	-108.704E-12	715.340E-3	-10.9071E-3	-107.280E-12	657.701E-3	13.5048E-3
-2.96398E-3	-108.120E-12	697.713E-3	-20.7840E-3	-107.243E-12	660.375E-3	18.5491E-3
-2.96898E-3	-107.485E-12	666.095E-3	-24.5413E-3	-107.501E-12	663.922E-3	11.6769E-3
-2.97399E-3	-107.275E-12	666.631E-3	-17.6232E-3	-107.062E-12	651.470E-3	-5.65956E-3
-2.97899E-3	-105.504E-12	677.418E-3	-3.71777E-3	-107.590E-12	643.088E-3	-8.16493E-3
-2.98399E-3	-103.736E-12	668.057E-3	11.2083E-3	-108.289E-12	646.410E-3	8.32944E-3
-2.98899E-3	-104.097E-12	659.999E-3	-5.09043E-3	-108.037E-12	637.758E-3	3.15676E-3
-2.99400E-3	-104.859E-12	667.729E-3	-25.5671E-3	-107.200E-12	625.054E-3	-15.0152E-3
-2.99900E-3	-104.906E-12	666.854E-3	-16.0062E-3	-107.966E-12	629.243E-3	-26.3280E-3
-3.00400E-3	-103.961E-12	650.625E-3	-12.3817E-3	-108.536E-12	646.151E-3	-29.9966E-3
-3.00900E-3	-105.204E-12	650.908E-3	-30.5620E-3	-108.972E-12	663.617E-3	-13.9091E-3
-3.01401E-3	-106.722E-12	657.705E-3	-39.2684E-3	-109.166E-12	679.377E-3	4.45249E-3
-3.01901E-3	-107.909E-12	658.571E-3	-42.5494E-3	-109.367E-12	685.661E-3	6.89656E-3
-3.02401E-3	-108.305E-12	661.810E-3	-47.8787E-3	-110.490E-12	685.069E-3	6.03375E-3
-3.02901E-3	-109.569E-12	660.055E-3	-27.1742E-3	-110.046E-12	686.871E-3	-985.988E-6
-3.03402E-3	-111.030E-12	662.645E-3	-2.99452E-3	-110.753E-12	686.086E-3	-2.99649E-3
-3.03902E-3	-112.323E-12	671.282E-3	-4.75215E-3	-111.003E-12	685.556E-3	-5.80818E-3
-3.04402E-3	-112.645E-12	662.317E-3	5.63025E-3	-111.614E-12	689.249E-3	-25.6637E-3
-3.04902E-3	-112.203E-12	638.039E-3	21.7984E-3	-111.657E-12	682.648E-3	-14.9205E-3
-3.05403E-3	-113.422E-12	639.731E-3	17.8398E-3	-111.602E-12	673.604E-3	9.81174E-3
-3.05903E-3	-112.772E-12	680.142E-3	6.68203E-3	-112.456E-12	666.824E-3	2.41302E-3
-3.06403E-3	-112.507E-12	707.445E-3	-6.72168E-3	-112.046E-12	667.366E-3	1.87312E-3
-3.06903E-3	-112.025E-12	695.721E-3	-5.37827E-3	-111.592E-12	671.710E-3	405.326E-6
-3.07404E-3	-111.697E-12	674.632E-3	-4.35665E-3	-111.572E-12	665.867E-3	-19.1108E-3
-3.07904E-3	-111.715E-12	666.854E-3	-19.0813E-3	-112.233E-12	675.002E-3	-24.6373E-3
-3.08404E-3	-111.167E-12	665.654E-3	-34.1237E-3	-111.269E-12	678.032E-3	-16.2359E-3
-3.08904E-3	-110.500E-12	663.121E-3	-30.8424E-3	-110.849E-12	647.076E-3	-979.144E-6
-3.09405E-3	-109.665E-12	653.494E-3	-16.7233E-3	-111.708E-12	620.942E-3	-7.36404E-3
-3.09905E-3	-109.581E-12	635.890E-3	-18.4201E-3	-111.132E-12	634.030E-3	-32.2543E-3
-3.10405E-3	-110.579E-12	618.715E-3	-24.5641E-3	-111.063E-12	657.957E-3	-40.4708E-3
-3.10905E-3	-111.314E-12	611.908E-3	-8.82590E-3	-111.237E-12	651.211E-3	-35.7936E-3
-3.11406E-3	-110.661E-12	625.517E-3	-4.54610E-3	-112.123E-12	648.833E-3	-18.7273E-3
-3.11906E-3	-111.342E-12	639.737E-3	-30.0346E-3	-112.754E-12	663.400E-3	-8.19600E-3
-3.12406E-3	-113.412E-12	651.063E-3	-38.5855E-3	-114.081E-12	673.470E-3	-13.9581E-3
-3.12906E-3	-115.963E-12	655.602E-3	-27.2654E-3	-114.165E-12	683.356E-3	-7.06258E-3
-3.13407E-3	-116.181E-12	643.165E-3	-7.44453E-3	-115.300E-12	688.615E-3	9.69970E-3
-3.13907E-3	-116.669E-12	629.855E-3	-2.84050E-3	-115.371E-12	681.490E-3	24.2064E-3
-3.14407E-3	-117.990E-12	636.632E-3	-30.6841E-3	-116.368E-12	681.077E-3	13.1870E-3
-3.14907E-3	-120.490E-12	667.985E-3	-41.8226E-3	-117.408E-12	675.444E-3	-21.2632E-3
-3.15408E-3	-120.684E-12	680.515E-3	-13.9441E-3	-117.402E-12	657.972E-3	-32.4913E-3
-3.15908E-3	-120.112E-12	673.357E-3	13.3573E-3	-116.325E-12	660.450E-3	-22.9219E-3
-3.16408E-3	-119.752E-12	681.564E-3	15.4484E-3	-116.771E-12	663.586E-3	-15.3456E-3
-3.16908E-3	-120.511E-12	693.503E-3	1.16924E-3	-118.445E-12	659.213E-3	-12.7077E-3
-3.17409E-3	-121.303E-12	687.282E-3	-12.5264E-3	-117.404E-12	656.196E-3	-18.8883E-3
-3.17909E-3	-120.272E-12	676.714E-3	-16.3159E-3	-115.846E-12	661.635E-3	-31.1134E-3
-3.18409E-3	-118.409E-12	674.778E-3	-12.7057E-3	-116.035E-12	667.553E-3	-36.9418E-3
-3.18909E-3	-118.012E-12	673.956E-3	1.59661E-3	-117.079E-12	664.334E-3	-30.1589E-3
-3.19410E-3	-117.840E-12	660.582E-3	7.87744E-3	-117.559E-12	664.171E-3	-22.5829E-3
-3.19910E-3	-116.738E-12	634.423E-3	-7.66519E-3	-115.654E-12	665.445E-3	-10.3271E-3
-3.20410E-3	-115.618E-12	618.852E-3	-24.1647E-3	-115.715E-12	664.542E-3	3.96013E-3
-3.20910E-3	-115.433E-12	630.696E-3	-19.8842E-3	-116.837E-12	658.708E-3	3.33310E-3
-3.21411E-3	-115.918E-12	665.339E-3	-3.65404E-3	-119.186E-12	655.301E-3	251.693E-6
-3.21911E-3	-115.723E-12	681.683E-3	714.217E-6	-119.343E-12	663.405E-3	-8.39414E-3
-3.22411E-3	-115.695E-12	675.645E-3	1.04420E-3	-118.520E-12	672.786E-3	-14.2973E-3
-3.22911E-3	-116.830E-12	680.183E-3	18.4143E-3	-119.548E-12	657.521E-3	-4.30197E-3
-3.23412E-3	-118.217E-12	682.998E-3	30.7346E-3	-121.071E-12	635.166E-3	-12.3127E-3
-3.23912E-3	-119.936E-12	673.480E-3	9.94207E-3	-122.697E-12	645.595E-3	-33.0985E-3
-3.24412E-3	-120.374E-12	664.244E-3	-14.3856E-3	-122.042E-12	670.877E-3	-26.4961E-3
-3.24912E-3	-122.444E-12	652.728E-3	-18.9116E-3	-121.785E-12	682.696E-3	-10.7932E-3
-3.25413E-3	-123.372E-12	642.644E-3	1.11899E-3	-121.760E-12	670.843E-3	-13.3916E-3
-3.25913E-3	-124.050E-12	651.320E-3	29.5018E-3	-123.071E-12	659.800E-3	-15.5043E-3
-3.26413E-3	-124.642E-12	675.016E-3	21.4165E-3	-122.181E-12	667.269E-3	-15.8565E-3
-3.26913E-3	-125.030E-12	701.599E-3	-17.2764E-3	-120.888E-12	665.108E-3	-14.9589E-3
-3.27414E-3	-124.988E-12	714.418E-3	-40.0737E-3	-121.026E-12	646.920E-3	-2.66928E-3
-3.27914E-3	-123.183E-12	701.346E-3	-25.5530E-3	-122.098E-12	634.178E-3	7.36843E-3
-3.28414E-3	-123.082E-12	681.036E-3	-20.1003E-3	-121.192E-12	636.775E-3	17.1664E-3
-3.28914E-3	-122.080E-12	675.243E-3	-24.3016E-3	-120.650E-12	634.758E-3	24.9606E-3
-3.29415E-3	-121.459E-12	680.380E-3	-14.4499E-3	-120.715E-12	626.892E-3	20.3621E-3
-3.29915E-3	-119.354E-12	681.789E-3	-25.1919E-3	-121.653E-12	641.624E-3	-2.35570E-3
-3.30415E-3	-118.907E-12	667.898E-3	-29.2481E-3	-120.981E-12	648.739E-3	-11.6384E-3
-3.30915E-3	-118.970E-12	646.656E-3	-7.57091E-3	-122.390E-12	633.305E-3	4.20528E-3
-3.31416E-3	-119.504E-12	641.744E-3	858.539E-6	-122.379E-12	638.176E-3	3.92904E-3
-3.31916E-3	-119.380E-12	639.179E-3	-2.24313E-3	-122.695E-12	660.541E-3	254.499E-6
-3.32416E-3	-120.422E-12	629.268E-3	-17.3644E-3	-122.959E-12	683.058E-3	7.87716E-3
-3.32916E-3	-120.519E-12	625.305E-3	-36.6436E-3	-123.539E-12	691.665E-3	-5.71175E-3
-3.33417E-3	-121.565E-12	625.455E-3	-26.8207E-3	-123.759E-12	670.855E-3	-21.6631E-3
-3.33917E-3	-122.922E-12	625.990E-3	-5.53779E-3	-124.457E-12	653.325E-3	-19.9152E-3
-3.34417E-3	-125.705E-12	638.995E-3	6.97757E-3	-125.151E-12	653.170E-3	-23.5498E-3
-3.34917E-3	-127.164E-12	650.868E-3	5.57888E-3	-125.049E-12	640.020E-3	-27.4888E-3
-3.35418E-3	-127.461E-12	647.738E-3	-1.81307E-3	-125.508E-12	632.128E-3	-20.6500E-3
-3.35918E-3	-129.006E-12	657.761E-3	808.254E-6	-125.351E-12	650.930E-3	-8.92611E-3
-3.36418E-3	-129.835E-12	677.373E-3	-20.0102E-3	-124.946E-12	660.527E-3	640.790E-6
-3.36918E-3	-129.407E-12	686.825E-3	-33.6117E-3	-125.695E-12	643.243E-3	8.87445E-3
-3.37419E-3	-129.514E-12	674.746E-3	-9.93352E-3	-125.429E-12	636.293E-3	17.3186E-3
-3.37919E-3	-129.329E-12	653.973E-3	6.92168E-3	-125.506E-12	642.518E-3	22.2314E-3
-3.38419E-3	-128.379E-12	654.682E-3	23.1488E-3	-125.422E-12	623.819E-3	20.8064E-3
-3.38919E-3	-127.271E-12	641.619E-3	14.8271E-3	-125.965E-12	615.275E-3	17.1342E-3
-3.39420E-3	-126.237E-12	627.136E-3	-30.0899E-3	-125.781E-12	627.794E-3	1.91848E-3
-3.39920E-3	-125.479E-12	651.423E-3	-51.6586E-3	-125.507E-12	619.489E-3	-16.2534E-3
-3.40420E-3	-125.089E-12	658.003E-3	-30.8971E-3	-125.069E-12	622.178E-3	-8.57249E-3
-3.40920E-3	-124.059E-12	632.169E-3	-6.72699E-3	-125.277E-12	651.353E-3	-10.0734E-3
-3.41421E-3	-123.919E-12	618.003E-3	8.31665E-3	-125.299E-12	661.193E-3	-24.4731E-3
-3.41921E-3	-124.357E-12	627.705E-3	12.5635E-3	-126.055E-12	648.782E-3	-17.1494E-3
-3.42421E-3	-124.227E-12	644.795E-3	-3.83389E-3	-125.602E-12	644.359E-3	-12.9101E-3
-3.42921E-3	-124.553E-12	636.095E-3	-5.31273E-3	-125.852E-12	658.939E-3	-27.4346E-3
-3.43422E-3	-125.813E-12	616.320E-3	-16.5637E-3	-126.928E-12	663.628E-3	-25.4587E-3
-3.43922E-3	-127.469E-12	624.154E-3	-45.1004E-3	-126.756E-12	660.814E-3	1.48148E-3
-3.44422E-3	-127.608E-12	641.571E-3	-41.8620E-3	-126.940E-12	666.512E-3	3.38633E-3
-3.44922E-3	-129.770E-12	648.298E-3	-30.6314E-3	-127.286E-12	652.903E-3	-15.8483E-3
-3.45423E-3	-132.169E-12	637.576E-3	-26.4514E-3	-128.809E-12	632.811E-3	-3.41741E-3
-3.45923E-3	-133.555E-12	626.974E-3	-16.1953E-3	-129.935E-12	628.601E-3	6.97196E-3
-3.46423E-3	-133.173E-12	639.175E-3	-11.4007E-3	-130.831E-12	629.402E-3	-5.98145E-3
-3.46923E-3	-133.438E-12	666.199E-3	-15.5190E-3	-130.309E-12	632.808E-3	-7.31168E-3
-3.47424E-3	-133.824E-12	694.476E-3	-17.4395E-3	-130.402E-12	633.445E-3	-13.0022E-3
-3.47924E-3	-133.975E-12	699.218E-3	-1.28891E-3	-131.166E-12	638.958E-3	-22.6413E-3
-3.48424E-3	-132.480E-12	672.198E-3	4.36141E-3	-130.865E-12	663.960E-3	-15.8229E-3
-3.48924E-3	-132.056E-12	656.222E-3	-31.4771E-3	-131.082E-12	691.395E-3	-8.71572E-3
-3.49425E-3	-131.765E-12	679.664E-3	-48.6419E-3	-130.473E-12	684.932E-3	-4.17213E-3
-3.49925E-3	-130.933E-12	700.280E-3	-41.6642E-3	-130.413E-12	656.719E-3	-14.9128E-3
-3.50425E-3	-130.969E-12	690.033E-3	-35.4069E-3	-129.893E-12	638.523E-3	-33.6326E-3
-3.50925E-3	-130.184E-12	673.902E-3	-10.8878E-3	-129.668E-12	639.253E-3	-27.0491E-3
-3.51426E-3	-128.663E-12	654.293E-3	1.51320E-3	-129.609E-12	654.358E-3	-5.27195E-3
-3.51926E-3	-128.064E-12	644.473E-3	-9.37232E-3	-128.868E-12	657.248E-3	8.92412E-3
-3.52426E-3	-130.041E-12	658.738E-3	-19.6770E-3	-128.884E-12	644.890E-3	-2.76058E-3
-3.52926E-3	-130.821E-12	655.917E-3	-29.8878E-3	-129.348E-12	639.866E-3	-17.9718E-3
-3.53427E-3	-130.713E-12	641.016E-3	-26.6160E-3	-129.619E-12	656.666E-3	-12.8513E-3
-3.53927E-3	-130.793E-12	637.191E-3	-5.88369E-3	-130.213E-12	668.785E-3	-12.0078E-3
-3.54427E-3	-132.224E-12	627.618E-3	5.33113E-3	-130.984E-12	653.756E-3	-23.1956E-3
-3.54927E-3	-133.582E-12	618.847E-3	5.01227E-3	-132.324E-12	638.717E-3	-20.9734E-3
-3.55428E-3	-133.745E-12	617.268E-3	-2.83419E-3	-133.293E-12	635.883E-3	-9.35004E-3
-3.55928E-3	-135.542E-12	631.351E-3	-19.9262E-3	-134.207E-12	653.837E-3	-10.2094E-3
-3.56428E-3	-136.975E-12	670.043E-3	-28.2653E-3	-135.139E-12	669.521E-3	-29.4113E-3
-3.56928E-3	-137.909E-12	681.566E-3	-20.9704E-3	-135.719E-12	655.894E-3	-39.0316E-3
-3.57429E-3	-138.554E-12	665.243E-3	-20.3131E-3	-135.873E-12	647.582E-3	-25.0236E-3
-3.57929E-3	-138.294E-12	662.127E-3	-16.7539E-3	-136.290E-12	652.143E-3	-27.9179E-3
-3.58429E-3	-137.776E-12	660.501E-3	4.42507E-3	-135.974E-12	638.081E-3	-26.8600E-3
-3.58929E-3	-137.613E-12	657.710E-3	18.8615E-3	-136.122E-12	613.145E-3	-5.01682E-3
-3.59430E-3	-138.344E-12	660.267E-3	26.4841E-3	-134.975E-12	622.372E-3	-830.112E-6
-3.59930E-3	-137.484E-12	651.222E-3	30.2346E-3	-134.091E-12	634.698E-3	-20.1997E-3
-3.60430E-3	-136.649E-12	627.924E-3	8.79481E-3	-134.009E-12	624.207E-3	-27.2325E-3
-3.60930E-3	-136.026E-12	626.029E-3	-26.4466E-3	-133.655E-12	622.810E-3	-2.18043E-3
-3.61431E-3	-135.645E-12	649.818E-3	-41.0270E-3	-131.798E-12	617.876E-3	9.93961E-3
-3.61931E-3	-135.246E-12	661.645E-3	-41.1913E-3	-130.969E-12	615.765E-3	9.19264E-3
-3.62431E-3	-134.017E-12	672.014E-3	-34.5597E-3	-132.266E-12	633.509E-3	12.9969E-3
-3.62931E-3	-132.926E-12	685.158E-3	-22.2128E-3	-133.554E-12	633.024E-3	-877.014E-6
-3.63432E-3	-133.729E-12	661.611E-3	-16.9207E-3	-134.017E-12	619.912E-3	-20.3776E-3
-3.63932E-3	-133.874E-12	634.279E-3	-18.5735E-3	-133.484E-12	639.165E-3	-26.0493E-3
-3.64432E-3	-134.298E-12	638.328E-3	-16.6154E-3	-135.022E-12	656.974E-3	-21.5084E-3
-3.64932E-3	-134.020E-12	647.147E-3	-18.2836E-3	-136.482E-12	639.739E-3	9.06084E-3
-3.65433E-3	-135.330E-12	643.171E-3	-38.2514E-3	-136.364E-12	633.039E-3	37.9025E-3
-3.65933E-3	-135.517E-12	633.431E-3	-45.3686E-3	-137.567E-12	642.743E-3	9.07478E-3
-3.66433E-3	-137.257E-12	633.055E-3	-29.0647E-3	-139.161E-12	641.257E-3	-20.7815E-3
-3.66933E-3	-138.283E-12	642.532E-3	-16.7621E-3	-140.627E-12	631.490E-3	-26.7046E-3
-3.67434E-3	-138.198E-12	644.964E-3	-8.57191E-3	-139.764E-12	633.714E-3	-44.4343E-3
-3.67934E-3	-139.125E-12	638.303E-3	-9.99744E-3	-139.933E-12	642.345E-3	-38.2121E-3
-3.68434E-3	-140.902E-12	634.943E-3	-22.4387E-3	-139.846E-12	634.848E-3	-11.4108E-3
-3.68934E-3	-141.368E-12	632.812E-3	-30.7199E-3	-138.936E-12	636.373E-3	-24.2470E-3
-3.69435E-3	-139.847E-12	637.973E-3	-24.6939E-3	-139.061E-12	653.317E-3	-43.0964E-3
-3.69935E-3	-140.507E-12	657.352E-3	1.86298E-3	-138.607E-12	645.626E-3	-27.3690E-3
-3.70435E-3	-140.056E-12	667.580E-3	16.6228E-3	-138.162E-12	631.548E-3	-26.8122E-3
-3.70935E-3	-139.468E-12	655.388E-3	3.80048E-3	-137.170E-12	626.235E-3	-36.6933E-3
-3.71436E-3	-138.395E-12	642.921E-3	-9.49066E-3	-137.164E-12	615.432E-3	-18.5350E-3
-3.71936E-3	-137.702E-12	645.769E-3	-4.05178E-3	-137.272E-12	630.140E-3	-16.3842E-3
-3.72436E-3	-137.354E-12	654.492E-3	3.48555E-3	-137.633E-12	640.061E-3	-40.6565E-3
-3.72936E-3	-137.106E-12	644.539E-3	-7.22333E-3	-137.934E-12	621.302E-3	-31.9226E-3
-3.73437E-3	-136.849E-12	627.671E-3	-18.7604E-3	-138.586E-12	618.552E-3	-7.19827E-3
-3.73937E-3	-135.748E-12	630.084E-3	-23.0932E-3	-139.772E-12	626.688E-3	2.90344E-3
-3.74437E-3	-138.653E-12	627.254E-3	-32.9746E-3	-140.729E-12	619.965E-3	4.88050E-3
-3.74937E-3	-139.875E-12	621.323E-3	-40.1127E-3	-141.655E-12	621.723E-3	-12.1213E-3
-3.75438E-3	-139.881E-12	625.864E-3	-28.0428E-3	-143.276E-12	648.326E-3	-19.1834E-3
-3.75938E-3	-140.624E-12	621.468E-3	-17.1965E-3	-143.105E-12	651.761E-3	9.06841E-3
-3.76438E-3	-143.064E-12	620.984E-3	-18.8866E-3	-143.391E-12	633.753E-3	23.0499E-3
-3.76938E-3	-145.455E-12	640.155E-3	-15.9542E-3	-145.430E-12	648.855E-3	4.89358E-3
-3.77439E-3	-145.665E-12	666.353E-3	-20.1347E-3	-145.060E-12	669.552E-3	-5.51707E-3
-3.77939E-3	-146.055E-12	668.682E-3	-25.6131E-3	-144.263E-12	654.977E-3	-10.8788E-3
-3.78439E-3	-146.960E-12	652.625E-3	-2.33509E-3	-144.582E-12	625.710E-3	-16.9682E-3
-3.78939E-3	-149.165E-12	653.461E-3	11.8328E-3	-144.362E-12	608.254E-3	-13.4446E-3
-3.79440E-3	-148.792E-12	654.227E-3	-6.60470E-3	-143.659E-12	607.113E-3	-8.38165E-3
-3.79940E-3	-147.705E-12	658.065E-3	-18.2126E-3	-142.886E-12	607.893E-3	-16.8458E-3
-3.80440E-3	-145.548E-12	668.386E-3	-24.3271E-3	-143.163E-12	613.471E-3	-41.3050E-3
-3.80940E-3	-145.347E-12	663.918E-3	-34.3755E-3	-142.397E-12	641.867E-3	-59.1275E-3
-3.81441E-3	-145.686E-12	664.331E-3	-45.4107E-3	-142.539E-12	653.181E-3	-51.9393E-3
-3.81941E-3	-143.342E-12	658.847E-3	-44.5632E-3	-143.031E-12	637.223E-3	-17.0125E-3
-3.82441E-3	-141.664E-12	644.917E-3	-31.5247E-3	-143.610E-12	634.100E-3	18.9385E-3
-3.82941E-3	-140.373E-12	642.499E-3	-15.7312E-3	-143.896E-12	645.768E-3	16.1355E-3
-3.83442E-3	-141.976E-12	635.579E-3	7.40487E-3	-143.750E-12	666.157E-3	4.85054E-3
-3.83942E-3	-142.188E-12	641.865E-3	2.05259E-3	-143.301E-12	667.034E-3	16.9783E-3
-3.84442E-3	-140.954E-12	654.808E-3	-19.2451E-3	-144.681E-12	643.360E-3	21.6142E-3
-3.84942E-3	-140.566E-12	648.216E-3	-16.1973E-3	-146.188E-12	628.080E-3	18.8518E-3
-3.85443E-3	-142.544E-12	649.780E-3	-12.7300E-3	-146.046E-12	633.617E-3	7.45261E-3
-3.85943E-3	-144.758E-12	652.731E-3	-25.4700E-3	-146.440E-12	654.518E-3	-28.2851E-3
-3.86443E-3	-144.997E-12	631.136E-3	-39.1392E-3	-147.762E-12	677.620E-3	-47.8845E-3
-3.86943E-3	-145.460E-12	618.530E-3	-35.9041E-3	-148.249E-12	695.897E-3	-42.8443E-3
-3.87444E-3	-146.463E-12	631.342E-3	-36.4960E-3	-148.090E-12	691.124E-3	-30.0876E-3
-3.87944E-3	-149.318E-12	640.384E-3	-51.9957E-3	-148.297E-12	667.857E-3	-24.7755E-3
-3.88444E-3	-150.671E-12	640.238E-3	-55.6169E-3	-149.668E-12	655.408E-3	-36.3601E-3
-3.88944E-3	-151.065E-12	642.669E-3	-51.5002E-3	-149.146E-12	664.115E-3	-30.4037E-3
-3.89445E-3	-150.384E-12	652.008E-3	-33.8416E-3	-149.200E-12	664.008E-3	-25.5761E-3
-3.89945E-3	-151.419E-12	658.033E-3	-2.00862E-3	-150.959E-12	650.228E-3	-20.9892E-3
-3.90445E-3	-152.819E-12	656.543E-3	1.06206E-3	-150.779E-12	648.181E-3	2.63218E-3
-3.90945E-3	-151.865E-12	663.951E-3	-23.1796E-3	-149.733E-12	634.190E-3	25.3160E-3
-3.91446E-3	-150.121E-12	662.988E-3	-46.6206E-3	-148.760E-12	621.047E-3	44.0728E-3
-3.91946E-3	-149.369E-12	643.767E-3	-50.2803E-3	-149.776E-12	644.717E-3	33.7038E-3
-3.92446E-3	-149.043E-12	641.034E-3	-41.9293E-3	-149.663E-12	662.899E-3	1.20435E-3
-3.92946E-3	-148.146E-12	650.699E-3	-41.2070E-3	-149.062E-12	654.968E-3	-5.43691E-3
-3.93447E-3	-146.741E-12	650.498E-3	-38.7447E-3	-147.719E-12	637.483E-3	-5.10195E-3
-3.93947E-3	-146.238E-12	627.657E-3	-33.8706E-3	-147.232E-12	621.914E-3	-19.2471E-3
-3.94447E-3	-146.461E-12	595.108E-3	-19.1405E-3	-147.898E-12	621.544E-3	-18.6192E-3
-3.94947E-3	-146.894E-12	587.283E-3	-3.25384E-3	-147.119E-12	606.763E-3	-7.71349E-3
-3.95448E-3	-147.016E-12	601.184E-3	3.29986E-3	-147.059E-12	583.787E-3	-5.57042E-3
-3.95948E-3	-148.418E-12	621.853E-3	-10.9218E-3	-146.582E-12	588.912E-3	-13.4715E-3
-3.96448E-3	-149.400E-12	631.950E-3	-34.7839E-3	-147.651E-12	603.330E-3	-13.6732E-3
-3.96948E-3	-150.818E-12	623.307E-3	-14.0727E-3	-149.464E-12	609.931E-3	-1.26496E-3
-3.97449E-3	-150.999E-12	625.121E-3	10.7701E-3	-150.983E-12	621.997E-3	13.5069E-3
-3.97949E-3	-151.901E-12	644.584E-3	-12.8931E-3	-151.187E-12	632.389E-3	20.3863E-3
-3.98449E-3	-154.135E-12	646.613E-3	-33.8866E-3	-150.901E-12	635.209E-3	-1.90684E-3
-3.98949E-3	-155.475E-12	632.035E-3	-18.2161E-3	-152.997E-12	642.596E-3	-29.5311E-3
-3.99450E-3	-155.787E-12	623.903E-3	-4.70675E-3	-155.023E-12	652.698E-3	-39.9925E-3
-3.99950E-3	-155.342E-12	620.832E-3	-14.2652E-3	-155.410E-12	640.715E-3	-41.3029E-3
-4.00450E-3	-155.754E-12	639.985E-3	-34.7399E-3	-155.383E-12	620.357E-3	-17.9424E-3
-4.00950E-3	-155.473E-12	670.682E-3	-35.5627E-3	-154.791E-12	628.562E-3	1.65579E-3
-4.01451E-3	-154.212E-12	670.507E-3	-19.2468E-3	-154.839E-12	642.889E-3	-6.11217E-3
-4.01951E-3	-153.558E-12	649.122E-3	-21.8219E-3	-154.255E-12	633.274E-3	4.54688E-3
-4.02451E-3	-152.302E-12	633.942E-3	-43.3277E-3	-152.298E-12	637.429E-3	16.8270E-3
-4.02951E-3	-151.777E-12	642.593E-3	-56.6215E-3	-151.305E-12	650.767E-3	-3.45534E-3
-4.03452E-3	-151.315E-12	660.574E-3	-46.9455E-3	-151.159E-12	629.571E-3	-16.9129E-3
-4.03952E-3	-150.797E-12	663.638E-3	-25.9784E-3	-151.204E-12	617.592E-3	-4.71082E-3
-4.04452E-3	-150.405E-12	656.919E-3	-24.3802E-3	-149.952E-12	630.501E-3	2.53085E-3
-4.04952E-3	-149.208E-12	637.597E-3	-49.9718E-3	-149.598E-12	636.892E-3	-4.03510E-3
-4.05453E-3	-149.669E-12	625.591E-3	-65.0530E-3	-150.950E-12	641.745E-3	-2.90697E-3
-4.05953E-3	-151.612E-12	635.991E-3	-42.0423E-3	-151.922E-12	630.028E-3	-11.7386E-3
-4.06453E-3	-151.078E-12	644.768E-3	-20.6649E-3	-152.377E-12	609.717E-3	-28.2937E-3
-4.06953E-3	-152.086E-12	644.036E-3	-30.5730E-3	-151.887E-12	624.737E-3	-21.2923E-3
-4.07454E-3	-154.258E-12	640.783E-3	-24.1570E-3	-154.622E-12	649.712E-3	-14.2883E-3
-4.07954E-3	-155.381E-12	634.824E-3	-8.65738E-3	-156.247E-12	637.872E-3	-17.4787E-3
-4.08454E-3	-155.753E-12	635.027E-3	5.15006E-3	-156.620E-12	627.310E-3	-16.3942E-3
-4.08954E-3	-157.782E-12	638.930E-3	27.3178E-3	-156.954E-12	648.657E-3	-16.1505E-3
-4.09455E-3	-158.715E-12	631.233E-3	20.9240E-3	-158.435E-12	660.116E-3	-19.4851E-3
-4.09955E-3	-158.586E-12	622.240E-3	10.0560E-3	-159.282E-12	646.809E-3	-24.5632E-3
-4.10455E-3	-159.552E-12	613.283E-3	15.4294E-3	-159.381E-12	639.689E-3	-23.6645E-3
-4.10955E-3	-159.307E-12	625.011E-3	23.5928E-3	-158.768E-12	642.538E-3	-25.4025E-3
-4.11456E-3	-159.071E-12	663.017E-3	29.9030E-3	-158.485E-12	637.693E-3	-25.8298E-3
-4.11956E-3	-158.641E-12	674.981E-3	13.4261E-3	-158.431E-12	629.984E-3	-24.3240E-3
-4.12456E-3	-159.204E-12	671.830E-3	-11.4349E-3	-156.831E-12	611.856E-3	-39.3884E-3
-4.12956E-3	-157.400E-12	680.899E-3	-34.7020E-3	-155.786E-12	600.004E-3	-40.7409E-3
-4.13457E-3	-156.128E-12	668.292E-3	-51.5511E-3	-154.964E-12	606.610E-3	-26.0324E-3
-4.13957E-3	-156.135E-12	629.472E-3	-36.8587E-3	-156.304E-12	603.364E-3	-12.6263E-3
-4.14457E-3	-156.300E-12	613.406E-3	-19.4180E-3	-155.946E-12	602.941E-3	2.13654E-3
-4.14957E-3	-155.026E-12	630.856E-3	-16.4919E-3	-156.179E-12	624.665E-3	12.8024E-3
-4.15458E-3	-153.882E-12	647.392E-3	-21.9188E-3	-155.412E-12	639.488E-3	5.46697E-3
-4.15958E-3	-155.186E-12	647.620E-3	-43.3595E-3	-157.914E-12	640.894E-3	-11.2947E-3
-4.16458E-3	-156.984E-12	639.978E-3	-61.7533E-3	-158.589E-12	655.236E-3	-18.7763E-3
-4.16958E-3	-157.974E-12	633.713E-3	-56.3729E-3	-158.899E-12	669.810E-3	-43.2372E-3
-4.17459E-3	-156.669E-12	630.284E-3	-40.3178E-3	-158.789E-12	672.895E-3	-52.1545E-3
-4.17959E-3	-157.993E-12	638.621E-3	-17.7075E-3	-160.607E-12	679.181E-3	-14.3997E-3
-4.18459E-3	-160.143E-12	641.806E-3	-7.11725E-3	-162.092E-12	690.917E-3	16.4911E-3
-4.18959E-3	-163.695E-12	633.576E-3	-33.6182E-3	-163.575E-12	690.640E-3	21.6416E-3
-4.19460E-3	-163.301E-12	630.780E-3	-56.4237E-3	-163.305E-12	685.971E-3	2.28792E-3
-4.19960E-3	-162.785E-12	640.713E-3	-31.9779E-3	-162.053E-12	678.604E-3	-42.5322E-3
-4.20460E-3	-164.399E-12	660.069E-3	937.038E-6	-163.216E-12	652.093E-3	-61.4628E-3
-4.20960E-3	-166.220E-12	659.461E-3	-9.08151E-3	-163.804E-12	644.051E-3	-31.3228E-3
-4.21461E-3	-166.640E-12	639.187E-3	-23.7237E-3	-164.451E-12	654.293E-3	-20.4297E-3
-4.21961E-3	-165.556E-12	651.357E-3	-20.9840E-3	-161.620E-12	639.748E-3	-40.7335E-3
-4.22461E-3	-165.229E-12	676.967E-3	-23.6991E-3	-160.851E-12	638.083E-3	-27.1946E-3
-4.22961E-3	-165.784E-12	666.436E-3	-28.3367E-3	-161.593E-12	657.472E-3	7.13560E-3
-4.23462E-3	-164.320E-12	660.193E-3	-38.1517E-3	-162.350E-12	647.139E-3	7.64362E-3
-4.23962E-3	-162.585E-12	668.161E-3	-53.0501E-3	-161.506E-12	631.105E-3	-13.7559E-3
-4.24462E-3	-161.334E-12	666.652E-3	-50.7244E-3	-160.448E-12	629.948E-3	-29.5336E-3
-4.24962E-3	-161.026E-12	648.527E-3	-26.6413E-3	-161.449E-12	607.255E-3	-27.9171E-3
-4.25463E-3	-161.066E-12	618.880E-3	-23.0135E-3	-162.591E-12	594.969E-3	-19.6173E-3
-4.25963E-3	-159.217E-12	633.432E-3	-25.2183E-3	-163.066E-12	623.880E-3	-25.2347E-3
-4.26463E-3	-159.519E-12	674.016E-3	-2.07352E-3	-162.124E-12	655.978E-3	-45.1567E-3
-4.26963E-3	-159.564E-12	668.242E-3	7.10742E-3	-161.249E-12	671.087E-3	-54.7523E-3
-4.27464E-3	-161.769E-12	649.974E-3	-1.99316E-3	-162.418E-12	671.651E-3	-24.4502E-3
-4.27964E-3	-160.789E-12	644.252E-3	-8.52326E-3	-164.087E-12	665.483E-3	-6.77077E-3
-4.28464E-3	-161.166E-12	636.177E-3	-14.1257E-3	-164.800E-12	660.323E-3	-39.0430E-3
-4.28964E-3	-161.937E-12	633.707E-3	-23.5126E-3	-163.945E-12	663.946E-3	-52.9775E-3
-4.29465E-3	-164.536E-12	631.887E-3	-16.0190E-3	-164.408E-12	643.323E-3	-29.1517E-3
-4.29965E-3	-164.810E-12	633.542E-3	-4.50174E-3	-164.338E-12	603.447E-3	-6.19858E-3
-4.30465E-3	-165.664E-12	643.658E-3	9.94671E-3	-165.298E-12	605.159E-3	1.02032E-3
-4.30965E-3	-166.209E-12	640.183E-3	39.4864E-3	-166.324E-12	604.914E-3	10.6652E-3
-4.31466E-3	-168.511E-12	634.380E-3	31.6871E-3	-166.100E-12	608.697E-3	1.65597E-3
-4.31966E-3	-169.591E-12	649.103E-3	3.77763E-3	-164.393E-12	643.066E-3	-52.7742E-3
-4.32466E-3	-168.389E-12	665.366E-3	9.91216E-3	-165.344E-12	638.136E-3	-75.9734E-3
-4.32966E-3	-168.533E-12	681.731E-3	12.8870E-3	-166.637E-12	630.014E-3	-43.8991E-3
-4.33467E-3	-167.071E-12	705.722E-3	2.59927E-3	-166.343E-12	640.661E-3	-13.5191E-3
-4.33967E-3	-166.469E-12	725.004E-3	722.064E-6	-165.391E-12	633.140E-3	-10.9687E-3
-4.34467E-3	-167.590E-12	712.170E-3	-16.0751E-3	-165.119E-12	632.327E-3	-21.8112E-3
-4.34967E-3	-167.385E-12	671.179E-3	-20.4987E-3	-165.603E-12	630.856E-3	-29.9598E-3
-4.35468E-3	-165.810E-12	655.874E-3	3.29959E-3	-165.990E-12	620.426E-3	-41.2519E-3
-4.35968E-3	-163.749E-12	665.100E-3	10.5036E-3	-165.465E-12	626.720E-3	-35.1500E-3
-4.36468E-3	-165.809E-12	653.483E-3	-5.96550E-3	-164.433E-12	654.579E-3	-96.7583E-6
-4.36968E-3	-166.413E-12	637.743E-3	-22.4278E-3	-165.092E-12	668.520E-3	13.6450E-3
-4.37469E-3	-165.947E-12	630.462E-3	-13.5078E-3	-165.868E-12	655.037E-3	9.45863E-3
-4.37969E-3	-164.412E-12	601.787E-3	-462.349E-6	-166.156E-12	664.292E-3	13.7220E-3
-4.38469E-3	-166.742E-12	586.540E-3	-1.75922E-3	-166.196E-12	675.753E-3	-22.3664E-3
-4.38969E-3	-168.516E-12	617.284E-3	5.43649E-3	-167.414E-12	635.919E-3	-33.2029E-3
-4.39470E-3	-168.222E-12	638.973E-3	3.86989E-3	-168.627E-12	591.600E-3	13.2332E-3
-4.39970E-3	-169.265E-12	637.345E-3	4.38410E-3	-169.385E-12	577.447E-3	18.0759E-3
-4.40470E-3	-170.422E-12	632.389E-3	12.3023E-3	-170.038E-12	588.507E-3	1.80448E-3
-4.40970E-3	-173.010E-12	627.161E-3	2.14405E-3	-169.093E-12	635.571E-3	20.2569E-3
-4.41471E-3	-173.930E-12	633.724E-3	-9.23206E-3	-169.957E-12	660.887E-3	34.8157E-3
-4.41971E-3	-172.785E-12	629.615E-3	-8.76593E-3	-170.834E-12	640.623E-3	19.7141E-3
-4.42471E-3	-172.668E-12	607.874E-3	-22.5935E-3	-172.150E-12	648.346E-3	-6.63135E-3
-4.42971E-3	-173.738E-12	612.449E-3	-20.5910E-3	-172.718E-12	662.831E-3	-28.0928E-3
-4.43472E-3	-174.687E-12	638.004E-3	14.4708E-3	-172.563E-12	644.215E-3	-36.7980E-3
-4.43972E-3	-172.604E-12	672.629E-3	15.1537E-3	-173.354E-12	629.061E-3	-20.6789E-3
-4.44472E-3	-171.599E-12	705.444E-3	-2.37105E-3	-171.833E-12	632.879E-3	-14.5097E-3
-4.44972E-3	-171.312E-12	699.410E-3	-24.7951E-3	-170.421E-12	633.352E-3	-33.7090E-3
-4.45473E-3	-172.335E-12	677.920E-3	-51.3614E-3	-169.771E-12	633.286E-3	-17.2112E-3
-4.45973E-3	-170.082E-12	671.456E-3	-39.5353E-3	-169.908E-12	649.783E-3	12.7046E-3
-4.46473E-3	-168.613E-12	663.882E-3	-15.9855E-3	-169.924E-12	649.776E-3	9.69149E-3
-4.46973E-3	-169.370E-12	653.184E-3	-2.02950E-3	-169.912E-12	656.842E-3	3.01537E-3
-4.47474E-3	-170.782E-12	655.690E-3	4.74220E-3	-169.813E-12	687.236E-3	-18.5436E-3
-4.47974E-3	-170.607E-12	649.873E-3	191.659E-6	-170.088E-12	665.908E-3	-49.0645E-3
-4.48474E-3	-170.626E-12	630.139E-3	2.29440E-3	-170.391E-12	615.460E-3	-43.8438E-3
-4.48974E-3	-172.456E-12	619.206E-3	7.14270E-3	-171.400E-12	619.560E-3	-17.4730E-3
-4.49475E-3	-174.819E-12	602.957E-3	2.51292E-3	-173.573E-12	628.709E-3	-5.28571E-3
-4.49975E-3	-176.008E-12	609.961E-3	-4.64147E-3	-174.966E-12	631.894E-3	-17.4864E-3
-4.50475E-3	-177.395E-12	658.774E-3	-20.6867E-3	-175.200E-12	666.378E-3	-20.3364E-3
-4.50975E-3	-177.007E-12	689.124E-3	-12.7006E-3	-176.521E-12	676.708E-3	-18.8104E-3
-4.51476E-3	-178.539E-12	663.134E-3	12.0042E-3	-178.599E-12	658.708E-3	-14.1175E-3
-4.51976E-3	-180.379E-12	651.014E-3	17.6891E-3	-179.817E-12	655.245E-3	-13.6213E-3
-4.52476E-3	-181.342E-12	670.882E-3	4.82475E-3	-178.856E-12	653.414E-3	-26.7044E-3
-4.52976E-3	-179.391E-12	655.655E-3	-39.5579E-3	-179.318E-12	622.613E-3	-12.1553E-3
-4.53477E-3	-179.117E-12	665.353E-3	-68.3923E-3	-178.020E-12	610.053E-3	9.84584E-3
-4.53977E-3	-178.304E-12	694.137E-3	-49.9193E-3	-179.776E-12	652.583E-3	5.01274E-3
-4.54477E-3	-177.999E-12	683.642E-3	-36.1802E-3	-178.150E-12	673.229E-3	-11.8638E-3
-4.54977E-3	-178.431E-12	667.927E-3	-35.1569E-3	-176.234E-12	638.716E-3	-16.8046E-3
-4.55478E-3	-175.887E-12	649.417E-3	-33.3681E-3	-175.351E-12	614.870E-3	-5.18982E-3
-4.55978E-3	-175.725E-12	628.881E-3	-34.2134E-3	-176.306E-12	637.259E-3	22.8594E-3
-4.56478E-3	-175.653E-12	627.806E-3	-16.8078E-3	-175.446E-12	683.711E-3	30.5038E-3
-4.56978E-3	-175.880E-12	644.530E-3	3.23970E-3	-174.031E-12	713.246E-3	-7.78048E-3
-4.57479E-3	-173.608E-12	649.466E-3	10.5155E-3	-174.557E-12	697.632E-3	-35.1083E-3
-4.57979E-3	-173.552E-12	645.627E-3	9.67042E-3	-176.227E-12	655.006E-3	-27.4685E-3
-4.58479E-3	-174.422E-12	651.886E-3	-11.1845E-3	-178.085E-12	633.783E-3	-26.9438E-3
-4.58979E-3	-175.088E-12	646.040E-3	-33.0816E-3	-178.255E-12	647.824E-3	-24.9776E-3
-4.59480E-3	-174.235E-12	632.700E-3	-53.6922E-3	-178.504E-12	681.561E-3	-15.0019E-3
-4.59980E-3	-175.194E-12	626.344E-3	-62.5437E-3	-179.558E-12	706.839E-3	-33.2916E-3
-4.60480E-3	-178.319E-12	617.159E-3	-26.5081E-3	-181.553E-12	687.110E-3	-44.5914E-3
-4.60980E-3	-178.293E-12	620.270E-3	5.71156E-3	-183.127E-12	652.716E-3	-15.2628E-3
-4.61481E-3	-180.635E-12	653.007E-3	16.9338E-3	-181.656E-12	645.182E-3	-5.12277E-3
-4.61981E-3	-179.408E-12	668.393E-3	7.73433E-3	-182.207E-12	637.445E-3	-18.6285E-3
-4.62481E-3	-180.947E-12	656.464E-3	-28.0318E-3	-182.942E-12	635.196E-3	-3.74037E-3
-4.62981E-3	-181.722E-12	638.432E-3	-57.1354E-3	-183.963E-12	644.158E-3	2.30252E-3
-4.63482E-3	-183.414E-12	636.978E-3	-69.1487E-3	-183.160E-12	625.692E-3	-8.84148E-3
-4.63982E-3	-182.218E-12	666.287E-3	-54.0990E-3	-181.180E-12	603.253E-3	-1.44833E-3
-4.64482E-3	-180.547E-12	674.539E-3	-21.6659E-3	-180.380E-12	619.754E-3	-14.1522E-3
-4.64982E-3	-180.982E-12	655.486E-3	-21.2861E-3	-180.183E-12	625.522E-3	-43.5115E-3
-4.65483E-3	-180.485E-12	647.935E-3	-37.1144E-3	-179.918E-12	599.702E-3	-50.5592E-3
-4.65983E-3	-180.025E-12	651.627E-3	-36.2081E-3	-178.875E-12	588.726E-3	-53.5861E-3
-4.66483E-3	-177.562E-12	655.073E-3	-29.8211E-3	-177.725E-12	604.373E-3	-56.6649E-3
-4.66983E-3	-177.336E-12	654.089E-3	-17.7497E-3	-177.525E-12	634.290E-3	-44.9356E-3
-4.67484E-3	-177.226E-12	652.375E-3	-31.4279E-3	-179.733E-12	647.003E-3	-13.9323E-3
-4.67984E-3	-177.020E-12	646.529E-3	-41.9638E-3	-179.470E-12	643.037E-3	22.8045E-3
-4.68484E-3	-177.066E-12	622.094E-3	-19.7542E-3	-179.491E-12	631.623E-3	34.8344E-3
-4.68984E-3	-176.937E-12	613.082E-3	-14.3849E-3	-181.346E-12	622.140E-3	21.0037E-3
-4.69485E-3	-177.759E-12	629.146E-3	-31.3502E-3	-182.805E-12	634.491E-3	-16.7839E-3
-4.69985E-3	-177.431E-12	629.495E-3	-54.5371E-3	-182.275E-12	634.662E-3	-50.4727E-3
-4.70485E-3	-180.008E-12	603.608E-3	-70.6468E-3	-181.700E-12	629.614E-3	-43.4494E-3
-4.70985E-3	-180.614E-12	591.159E-3	-71.0089E-3	-184.960E-12	627.596E-3	-22.8332E-3
-4.71486E-3	-180.443E-12	608.420E-3	-66.6927E-3	-185.629E-12	632.827E-3	-5.26153E-3
-4.71986E-3	-180.638E-12	625.763E-3	-71.9976E-3	-185.250E-12	660.379E-3	-4.58399E-3
-4.72486E-3	-183.135E-12	630.043E-3	-59.9686E-3	-185.398E-12	661.587E-3	-27.1314E-3
-4.72986E-3	-185.217E-12	633.112E-3	-30.7985E-3	-186.611E-12	633.590E-3	-51.2835E-3
-4.73487E-3	-185.003E-12	657.479E-3	-21.5963E-3	-186.383E-12	627.952E-3	-40.8165E-3
-4.73987E-3	-185.034E-12	668.733E-3	-26.1777E-3	-186.113E-12	619.494E-3	-5.57835E-3
-4.74487E-3	-186.573E-12	639.599E-3	-46.4655E-3	-184.840E-12	598.767E-3	-467.171E-6
-4.74988E-3	-188.129E-12	625.437E-3	-57.8521E-3	-185.394E-12	614.505E-3	-10.9038E-3
-4.75488E-3	-186.022E-12	656.405E-3	-36.4742E-3	-185.934E-12	632.495E-3	-22.8118E-3
-4.75988E-3	-184.652E-12	687.947E-3	4.69244E-3	-187.073E-12	629.195E-3	-13.9782E-3
-4.76488E-3	-185.436E-12	674.304E-3	24.3597E-3	-186.369E-12	634.720E-3	-6.70285E-3
-4.76988E-3	-187.454E-12	640.894E-3	8.26168E-3	-184.315E-12	624.081E-3	-36.0560E-3
-4.77489E-3	-187.341E-12	622.659E-3	-15.1020E-3	-184.682E-12	592.977E-3	-37.5628E-3
-4.77989E-3	-185.622E-12	630.663E-3	-45.8736E-3	-186.220E-12	599.498E-3	-18.6754E-3
-4.78489E-3	-184.795E-12	657.101E-3	-42.8450E-3	-185.762E-12	640.475E-3	-8.90770E-3
-4.78989E-3	-185.949E-12	658.765E-3	-10.3736E-3	-186.419E-12	668.017E-3	911.673E-6
-4.79490E-3	-187.037E-12	648.885E-3	-438.634E-6	-186.601E-12	644.974E-3	-18.6536E-3
-4.79990E-3	-185.573E-12	642.311E-3	8.20987E-3	-188.024E-12	615.995E-3	-47.1335E-3
-4.80490E-3	-185.486E-12	629.933E-3	17.4977E-3	-187.944E-12	629.830E-3	-52.8893E-3
-4.80990E-3	-186.578E-12	619.728E-3	-7.10563E-3	-187.407E-12	648.330E-3	-26.9728E-3
-4.81491E-3	-189.349E-12	621.627E-3	-37.2444E-3	-188.019E-12	651.894E-3	-5.29914E-3
-4.81991E-3	-190.810E-12	650.240E-3	-21.0010E-3	-188.808E-12	630.274E-3	-16.9280E-3
-4.82491E-3	-191.142E-12	675.722E-3	2.75582E-3	-190.161E-12	612.482E-3	-34.8770E-3
-4.82991E-3	-190.063E-12	674.043E-3	-10.3185E-3	-190.892E-12	628.377E-3	-39.7988E-3
-4.83492E-3	-191.275E-12	677.042E-3	-31.4638E-3	-191.249E-12	643.449E-3	-34.8357E-3
-4.83992E-3	-193.117E-12	675.164E-3	-45.3277E-3	-190.260E-12	652.886E-3	-47.2913E-3
-4.84492E-3	-193.508E-12	668.126E-3	-36.6164E-3	-189.804E-12	634.727E-3	-72.3180E-3
-4.84992E-3	-191.627E-12	665.679E-3	-2.13455E-3	-190.310E-12	595.025E-3	-72.5563E-3
-4.85493E-3	-191.366E-12	639.503E-3	21.8360E-3	-190.369E-12	607.177E-3	-53.1576E-3
-4.85993E-3	-193.169E-12	603.348E-3	12.7324E-3	-191.182E-12	645.987E-3	-48.1272E-3
-4.86493E-3	-191.513E-12	596.606E-3	-2.01527E-3	-191.350E-12	650.760E-3	-36.5836E-3
-4.86993E-3	-189.720E-12	616.815E-3	-13.1986E-3	-190.600E-12	654.169E-3	2.14186E-3
-4.87494E-3	-187.522E-12	634.686E-3	-32.6454E-3	-189.288E-12	661.898E-3	16.4636E-3
-4.87994E-3	-188.112E-12	642.895E-3	-20.4921E-3	-190.662E-12	649.540E-3	4.24524E-3
-4.88494E-3	-187.683E-12	645.407E-3	3.01505E-3	-189.951E-12	637.929E-3	15.6218E-3
-4.88995E-3	-186.985E-12	650.733E-3	5.77062E-3	-189.553E-12	623.459E-3	11.8449E-3
-4.89495E-3	-186.409E-12	661.491E-3	26.6585E-3	-188.866E-12	602.667E-3	-25.2684E-3
-4.89995E-3	-185.334E-12	648.447E-3	22.2917E-3	-189.619E-12	601.586E-3	-23.7785E-3
-4.90495E-3	-186.561E-12	630.303E-3	-30.1584E-3	-189.540E-12	622.767E-3	2.19289E-3
-4.90995E-3	-188.707E-12	638.636E-3	-41.4858E-3	-190.899E-12	639.862E-3	10.8219E-3
-4.91496E-3	-189.463E-12	626.998E-3	-8.57585E-3	-191.430E-12	652.081E-3	13.8740E-3
-4.91996E-3	-189.206E-12	601.547E-3	-6.68175E-3	-191.795E-12	671.800E-3	-1.79021E-3
-4.92496E-3	-191.136E-12	615.479E-3	-28.8746E-3	-194.511E-12	675.488E-3	-15.6388E-3
-4.92996E-3	-192.186E-12	649.104E-3	-26.2366E-3	-195.864E-12	663.345E-3	859.541E-6
-4.93497E-3	-193.113E-12	647.951E-3	-25.0091E-3	-195.271E-12	675.729E-3	91.7705E-6
-4.93997E-3	-194.470E-12	644.908E-3	-16.8414E-3	-195.386E-12	689.732E-3	932.155E-6
-4.94497E-3	-195.697E-12	654.508E-3	-10.8276E-3	-196.916E-12	646.874E-3	32.3233E-3
-4.94997E-3	-195.451E-12	657.702E-3	-50.0878E-3	-197.536E-12	603.513E-3	28.0227E-3
-4.95498E-3	-196.185E-12	681.204E-3	-57.2030E-3	-197.323E-12	628.096E-3	-368.678E-6
-4.95998E-3	-197.016E-12	683.625E-3	-18.7292E-3	-196.077E-12	658.985E-3	-5.14166E-3
-4.96498E-3	-196.032E-12	636.222E-3	-1.12548E-3	-195.486E-12	663.780E-3	15.2679E-3
-4.96998E-3	-194.156E-12	594.445E-3	-476.632E-6	-194.783E-12	679.503E-3	25.4694E-3
-4.97499E-3	-193.992E-12	609.559E-3	-4.16371E-3	-194.444E-12	676.927E-3	5.18235E-3
-4.97999E-3	-194.065E-12	641.278E-3	-11.4707E-3	-193.850E-12	647.563E-3	-1.85619E-3
-4.98499E-3	-194.150E-12	631.588E-3	-21.5398E-3	-190.866E-12	643.208E-3	-9.87147E-3
-4.98999E-3	-192.890E-12	616.748E-3	-40.7488E-3	-190.428E-12	645.070E-3	-27.5409E-3
-4.99500E-3	-190.933E-12	629.463E-3	-48.9413E-3	-191.733E-12	629.718E-3	-15.1027E-3
-5.00000E-3	-191.324E-12	637.957E-3	-26.1091E-3	-192.248E-12	629.235E-3	-4.34919E-3
