Experiment	bias spectroscopy	
Date	19.01.2016 20:18:28	
User		
X (m)	50.8469E-9	
Y (m)	257.347E-9	
Z (m)	-132.675E-9	
Z offset (m)	0E+0	
Settling time (s)	200E-6	
Integration time (s)	5E-3	
Z-Ctrl hold	TRUE	
Final Z (m)	N/A	
Filter type	None	
Order		
Cutoff frq		
Comment01	MnPc/Pb(111)	
Comment02	dz =00pm	
Comment03	7 Sweeps	
Comment04	MagField =0.T	
Comment05	Divider 1:10	
Comment06	Setpoint:5mV,200 pA	
Comment07	Lockin: 50uVrms,5ms,5mV	
Comment08	Gain:9; 912Hz modulation	
Comment09	T=1.06K	
Bias>Bias (V)	5E-3	
Bias>Calibration (V/V)	81.475E-3	
Bias>Offset (V)	1.046E-3	
Bias Spectroscopy>Sweep Start (V)	5E-3	
Bias Spectroscopy>Sweep End (V)	-5E-3	
Bias Spectroscopy>Num Pixel	2000	
Bias Spectroscopy>Z Avg time (s)	500E-3	
Bias Spectroscopy>Z offset (m)	0E+0	
Bias Spectroscopy>1st Settling time (s)	500E-3	
Bias Spectroscopy>Settling time (s)	200E-6	
Bias Spectroscopy>Integration time (s)	5E-3	
Bias Spectroscopy>End Settling time (s)	500E-3	
Bias Spectroscopy>Z control time (s)	500E-3	
Bias Spectroscopy>Max Slew rate (V/s)	Inf	
Bias Spectroscopy>backward sweep	TRUE	
Bias Spectroscopy>Z-controller hold	TRUE	
Bias Spectroscopy>Number of sweeps	7	
Bias Spectroscopy>Channels	Current (A);X% LockIn (V);Y% LockIn (V)	
Bias Spectroscopy>Reset Bias	TRUE	
Bias Spectroscopy>Record final Z	FALSE	
Bias Spectroscopy>Lock-In run	FALSE	
Bias Spectroscopy>Sweep mode	Linear	
Bias Spectroscopy>MultiLine Settings : Segment Start (V), Segment End (V), Settling (s), Integration (s), Steps (xn)	100E-3,3.3E-3,100E-6,10E-3,2500;3.3E-3,-3.3E-3,100E-6,10E-3,10;-3.3E-3,-100E-3,100E-6,10E-3,2500	
Current>Current (A)	200.607E-12	
Current>Calibration (A/V)	999.99900E-12	
Current>Offset (A)	-455.429E-15	
Current>Gain	LN 10^9	
Z-Controller>Z (m)	-132.675E-9	
Z-Controller>Controller name	log Current	
Z-Controller>Controller status	ON	
Z-Controller>Setpoint	200E-12	
Z-Controller>Setpoint unit	A	
Z-Controller>P gain	2.96994E-12	
Z-Controller>I gain	67.0321E-9	
Z-Controller>Time const (s)	44.3062E-6	
Z-Controller>TipLift (m)	0E+0	
Z-Controller>Switch off delay (s)	50E-3	
Current (A)	200.332E-12	
Z (m)	-132.675E-9	

[DATA]
Bias calc (V)	Current (A)	X% LockIn (V)	Y% LockIn (V)	Current [bwd] (A)	X% LockIn [bwd] (V)	Y% LockIn [bwd] (V)
5.00000E-3	199.870E-12	660.548E-3	-15.8460E-3	193.340E-12	617.583E-3	-22.9728E-3
4.99500E-3	197.874E-12	696.688E-3	-920.882E-6	192.108E-12	603.658E-3	-34.6324E-3
4.98999E-3	195.127E-12	710.726E-3	25.9000E-3	193.327E-12	626.292E-3	-44.7443E-3
4.98499E-3	196.919E-12	709.087E-3	11.2147E-3	193.892E-12	628.598E-3	-7.08807E-3
4.97999E-3	197.459E-12	695.510E-3	-23.5368E-3	193.367E-12	618.746E-3	31.2120E-3
4.97499E-3	196.027E-12	665.798E-3	-50.4701E-3	193.574E-12	623.866E-3	-2.77818E-3
4.96998E-3	192.867E-12	634.289E-3	-45.8010E-3	192.522E-12	622.698E-3	-41.2542E-3
4.96498E-3	192.813E-12	610.041E-3	-47.4889E-3	193.274E-12	622.532E-3	-31.8460E-3
4.95998E-3	193.813E-12	621.132E-3	-52.7920E-3	192.696E-12	639.176E-3	-22.3967E-3
4.95498E-3	193.309E-12	639.582E-3	-44.7755E-3	193.740E-12	659.131E-3	-27.7881E-3
4.94997E-3	191.553E-12	638.234E-3	-30.2483E-3	191.895E-12	682.309E-3	-25.5554E-3
4.94497E-3	190.445E-12	643.259E-3	-7.77499E-3	191.466E-12	686.817E-3	-14.6875E-3
4.93997E-3	192.785E-12	634.425E-3	-18.9636E-3	191.457E-12	670.665E-3	-11.4387E-3
4.93497E-3	192.977E-12	611.957E-3	-54.0991E-3	192.050E-12	654.177E-3	-27.7016E-3
4.92996E-3	191.440E-12	597.878E-3	-32.7245E-3	191.094E-12	638.620E-3	-45.0096E-3
4.92496E-3	190.894E-12	605.782E-3	579.930E-6	191.438E-12	638.299E-3	-22.0096E-3
4.91996E-3	192.255E-12	635.229E-3	-1.96797E-3	190.726E-12	640.068E-3	7.38658E-3
4.91496E-3	194.543E-12	640.653E-3	2.88082E-3	189.858E-12	641.737E-3	11.2036E-3
4.90995E-3	193.921E-12	615.459E-3	7.37101E-3	189.484E-12	639.333E-3	-15.9629E-3
4.90495E-3	192.217E-12	616.875E-3	-1.18207E-3	189.126E-12	620.509E-3	-54.1915E-3
4.89995E-3	191.683E-12	617.009E-3	-27.4917E-3	190.388E-12	617.775E-3	-54.1614E-3
4.89495E-3	192.496E-12	604.408E-3	-39.7772E-3	190.918E-12	614.735E-3	-29.1891E-3
4.88995E-3	194.234E-12	610.136E-3	-27.2210E-3	192.079E-12	619.848E-3	-22.6541E-3
4.88494E-3	189.973E-12	616.288E-3	-22.0218E-3	191.515E-12	647.021E-3	-30.3519E-3
4.87994E-3	190.795E-12	629.536E-3	-28.9146E-3	191.201E-12	643.790E-3	-35.2443E-3
4.87494E-3	188.756E-12	643.777E-3	-22.2432E-3	191.236E-12	635.170E-3	-35.7804E-3
4.86993E-3	192.265E-12	657.293E-3	-19.3784E-3	192.088E-12	645.406E-3	-38.1399E-3
4.86493E-3	190.252E-12	678.352E-3	-32.5668E-3	192.967E-12	648.160E-3	-33.5375E-3
4.85993E-3	189.097E-12	694.061E-3	-34.2262E-3	192.006E-12	653.303E-3	-4.68768E-3
4.85493E-3	187.917E-12	692.764E-3	-21.1641E-3	190.966E-12	641.091E-3	-10.8667E-3
4.84992E-3	190.578E-12	683.598E-3	-649.544E-6	190.454E-12	603.084E-3	-38.0548E-3
4.84492E-3	192.172E-12	654.147E-3	-13.1741E-3	190.960E-12	600.519E-3	-24.0027E-3
4.83992E-3	190.543E-12	623.440E-3	-36.0281E-3	190.755E-12	637.053E-3	-17.5483E-3
4.83492E-3	190.740E-12	610.898E-3	-20.5974E-3	188.607E-12	640.529E-3	-26.5144E-3
4.82991E-3	190.299E-12	606.533E-3	-27.2808E-3	187.355E-12	634.288E-3	-12.0950E-3
4.82491E-3	191.380E-12	633.094E-3	-50.2152E-3	187.131E-12	644.104E-3	2.43450E-3
4.81991E-3	192.339E-12	661.459E-3	-14.7028E-3	188.478E-12	635.785E-3	-2.71529E-3
4.81491E-3	192.346E-12	657.672E-3	6.72158E-3	187.331E-12	626.963E-3	-6.11011E-3
4.80990E-3	188.840E-12	642.026E-3	-11.3585E-3	186.831E-12	617.456E-3	-3.52744E-3
4.80490E-3	187.413E-12	633.517E-3	-13.2128E-3	187.294E-12	624.920E-3	-6.59124E-3
4.79990E-3	190.374E-12	611.062E-3	-24.7889E-3	187.845E-12	655.957E-3	-23.7135E-3
4.79490E-3	190.375E-12	607.478E-3	-50.7989E-3	187.559E-12	669.152E-3	-30.3320E-3
4.78989E-3	188.270E-12	634.622E-3	-61.0944E-3	188.373E-12	666.616E-3	-20.0293E-3
4.78489E-3	185.153E-12	643.271E-3	-50.2040E-3	187.390E-12	656.632E-3	-10.0755E-3
4.77989E-3	187.604E-12	638.538E-3	-30.2017E-3	187.518E-12	653.987E-3	-1.45736E-3
4.77489E-3	187.757E-12	638.542E-3	11.4559E-3	187.402E-12	664.679E-3	-13.5822E-3
4.76988E-3	185.876E-12	643.969E-3	47.7281E-3	187.720E-12	659.923E-3	-21.1052E-3
4.76488E-3	184.986E-12	652.565E-3	37.5096E-3	186.063E-12	659.750E-3	-10.5210E-3
4.75988E-3	185.997E-12	663.919E-3	-1.25197E-3	185.203E-12	676.665E-3	-25.8016E-3
4.75488E-3	187.631E-12	646.749E-3	-13.3602E-3	183.939E-12	672.510E-3	-35.4820E-3
4.74988E-3	186.255E-12	630.136E-3	-10.5645E-3	183.838E-12	651.469E-3	-4.52975E-3
4.74487E-3	185.428E-12	660.623E-3	-35.0888E-3	184.211E-12	629.194E-3	6.45540E-3
4.73987E-3	184.866E-12	684.791E-3	-46.3734E-3	183.235E-12	608.277E-3	-4.48671E-3
4.73487E-3	185.284E-12	676.918E-3	-25.9097E-3	182.129E-12	618.999E-3	6.26298E-3
4.72986E-3	185.647E-12	664.005E-3	4.36340E-3	181.787E-12	652.562E-3	18.3147E-3
4.72486E-3	184.027E-12	667.034E-3	4.68903E-3	181.383E-12	647.642E-3	-4.73276E-3
4.71986E-3	182.237E-12	682.722E-3	-10.4438E-3	181.806E-12	630.323E-3	-22.1385E-3
4.71486E-3	180.557E-12	663.820E-3	-15.4885E-3	181.476E-12	636.057E-3	-30.2027E-3
4.70985E-3	181.107E-12	624.393E-3	-3.07824E-3	180.726E-12	618.909E-3	-69.0566E-3
4.70485E-3	181.217E-12	636.008E-3	21.3100E-3	182.506E-12	587.435E-3	-85.7680E-3
4.69985E-3	179.017E-12	656.530E-3	27.8441E-3	184.572E-12	606.694E-3	-67.6044E-3
4.69485E-3	177.268E-12	622.250E-3	11.6386E-3	183.565E-12	633.525E-3	-51.8659E-3
4.68984E-3	178.611E-12	589.836E-3	-7.99152E-3	181.295E-12	632.151E-3	-37.9640E-3
4.68484E-3	179.243E-12	607.446E-3	-8.87729E-3	182.615E-12	636.730E-3	-32.1945E-3
4.67984E-3	178.107E-12	616.083E-3	-14.2267E-3	184.055E-12	650.076E-3	-32.5779E-3
4.67484E-3	177.151E-12	619.635E-3	-30.9537E-3	182.482E-12	651.087E-3	-1.80003E-3
4.66983E-3	178.716E-12	638.503E-3	-40.4409E-3	180.598E-12	637.007E-3	20.1125E-3
4.66483E-3	178.368E-12	637.556E-3	-46.4803E-3	178.909E-12	626.420E-3	3.60733E-3
4.65983E-3	178.733E-12	629.601E-3	-43.9993E-3	181.619E-12	616.253E-3	4.85528E-3
4.65483E-3	177.694E-12	631.155E-3	-8.71102E-3	180.916E-12	623.312E-3	6.44733E-3
4.64982E-3	178.741E-12	635.676E-3	14.1878E-3	178.786E-12	641.221E-3	-13.9525E-3
4.64482E-3	179.510E-12	641.779E-3	-3.07665E-3	177.246E-12	662.532E-3	-20.3663E-3
4.63982E-3	180.641E-12	650.902E-3	-17.0859E-3	178.898E-12	678.239E-3	-9.95272E-3
4.63482E-3	178.361E-12	643.791E-3	-9.35853E-3	180.524E-12	648.221E-3	-5.31567E-3
4.62981E-3	178.452E-12	633.763E-3	-21.6235E-3	179.714E-12	610.404E-3	12.9652E-3
4.62481E-3	179.217E-12	634.997E-3	-27.2434E-3	179.138E-12	626.906E-3	16.5584E-3
4.61981E-3	178.533E-12	617.872E-3	6.45507E-3	178.444E-12	657.079E-3	-9.91667E-3
4.61481E-3	177.353E-12	601.368E-3	-1.04324E-3	180.057E-12	647.375E-3	-19.9988E-3
4.60980E-3	177.137E-12	608.566E-3	-22.3678E-3	179.206E-12	637.006E-3	-7.92946E-3
4.60480E-3	177.413E-12	616.661E-3	-6.13993E-3	179.165E-12	642.424E-3	-3.96058E-3
4.59980E-3	178.188E-12	630.132E-3	10.1607E-3	178.123E-12	632.039E-3	-13.1802E-3
4.59480E-3	178.196E-12	642.646E-3	13.4649E-3	177.672E-12	646.798E-3	-7.92056E-3
4.58979E-3	177.472E-12	632.877E-3	11.9963E-3	178.352E-12	669.264E-3	-13.1310E-3
4.58479E-3	176.957E-12	620.409E-3	-1.86949E-3	178.818E-12	649.382E-3	-19.5852E-3
4.57979E-3	178.830E-12	630.765E-3	-17.1914E-3	178.411E-12	649.828E-3	-20.9395E-3
4.57479E-3	177.343E-12	663.610E-3	-26.1803E-3	177.317E-12	665.849E-3	-45.4609E-3
4.56978E-3	176.338E-12	688.400E-3	-33.8304E-3	177.328E-12	652.297E-3	-41.0420E-3
4.56478E-3	177.387E-12	685.933E-3	-20.4716E-3	175.852E-12	649.867E-3	-17.1287E-3
4.55978E-3	178.624E-12	654.696E-3	960.345E-6	175.905E-12	659.496E-3	-28.5735E-3
4.55478E-3	177.642E-12	616.037E-3	-5.68070E-3	175.252E-12	663.408E-3	-49.3028E-3
4.54977E-3	176.683E-12	626.629E-3	-24.7250E-3	174.345E-12	679.666E-3	-64.1539E-3
4.54477E-3	176.004E-12	652.977E-3	-20.4028E-3	174.251E-12	691.537E-3	-64.5264E-3
4.53977E-3	175.523E-12	626.204E-3	-21.4410E-3	175.319E-12	690.281E-3	-41.1223E-3
4.53477E-3	176.168E-12	605.341E-3	-37.2738E-3	175.800E-12	691.566E-3	-22.4031E-3
4.52976E-3	174.870E-12	619.109E-3	-24.9130E-3	174.940E-12	690.508E-3	-16.1743E-3
4.52476E-3	174.423E-12	605.289E-3	-13.5446E-3	174.974E-12	684.072E-3	-6.27540E-3
4.51976E-3	174.821E-12	591.241E-3	-32.9291E-3	175.777E-12	672.171E-3	-6.29273E-3
4.51476E-3	175.406E-12	618.556E-3	-34.1483E-3	175.765E-12	650.518E-3	-24.2871E-3
4.50975E-3	175.719E-12	662.777E-3	-7.51941E-3	175.114E-12	625.350E-3	-19.3812E-3
4.50475E-3	175.044E-12	674.053E-3	-12.1639E-3	174.424E-12	623.476E-3	9.70086E-3
4.49975E-3	173.814E-12	662.514E-3	-41.8981E-3	174.821E-12	646.401E-3	2.77791E-3
4.49475E-3	174.972E-12	671.094E-3	-42.8771E-3	175.249E-12	645.048E-3	-29.3249E-3
4.48974E-3	174.521E-12	671.428E-3	-27.0284E-3	173.402E-12	641.893E-3	-35.7531E-3
4.48474E-3	175.594E-12	643.251E-3	-15.1452E-3	171.546E-12	663.379E-3	-38.7470E-3
4.47974E-3	174.350E-12	627.419E-3	-12.5944E-3	172.616E-12	664.013E-3	-53.7765E-3
4.47474E-3	174.087E-12	643.065E-3	-24.6894E-3	174.133E-12	651.623E-3	-36.2474E-3
4.46973E-3	174.229E-12	651.396E-3	-21.4141E-3	172.014E-12	673.769E-3	-28.5385E-3
4.46473E-3	175.661E-12	635.122E-3	-21.2599E-3	169.723E-12	681.282E-3	-65.9806E-3
4.45973E-3	174.553E-12	635.417E-3	-43.1012E-3	171.139E-12	630.423E-3	-68.1239E-3
4.45473E-3	172.856E-12	667.431E-3	-59.9022E-3	173.359E-12	605.926E-3	-33.3886E-3
4.44972E-3	170.574E-12	672.490E-3	-54.4297E-3	172.040E-12	617.200E-3	-17.0701E-3
4.44472E-3	171.597E-12	654.122E-3	-38.5621E-3	171.064E-12	632.522E-3	-11.0905E-3
4.43972E-3	172.169E-12	632.438E-3	-21.6328E-3	170.899E-12	661.293E-3	-7.75785E-3
4.43472E-3	170.430E-12	614.591E-3	11.2051E-3	172.207E-12	659.915E-3	-4.32608E-3
4.42971E-3	169.822E-12	622.862E-3	23.9628E-3	173.363E-12	648.329E-3	-1.88572E-3
4.42471E-3	170.088E-12	635.283E-3	4.55394E-3	173.049E-12	661.241E-3	-12.0507E-3
4.41971E-3	171.590E-12	636.622E-3	-11.1313E-3	170.103E-12	664.911E-3	-24.8352E-3
4.41471E-3	173.173E-12	624.862E-3	-7.79125E-3	169.499E-12	661.616E-3	-17.5188E-3
4.40970E-3	171.570E-12	610.404E-3	5.83650E-3	170.159E-12	678.714E-3	-14.0993E-3
4.40470E-3	171.746E-12	615.033E-3	8.74660E-3	170.434E-12	683.879E-3	-43.3210E-3
4.39970E-3	170.679E-12	622.918E-3	-11.9431E-3	169.722E-12	659.687E-3	-43.8289E-3
4.39470E-3	171.030E-12	607.667E-3	-23.4071E-3	170.973E-12	644.642E-3	-14.0957E-3
4.38969E-3	171.016E-12	609.055E-3	-9.76224E-3	171.714E-12	645.158E-3	-15.7485E-3
4.38469E-3	171.112E-12	634.663E-3	-20.6613E-3	170.532E-12	640.819E-3	-32.6644E-3
4.37969E-3	168.685E-12	673.765E-3	-31.2095E-3	171.339E-12	641.799E-3	-41.8007E-3
4.37469E-3	168.980E-12	694.894E-3	-15.9300E-3	171.874E-12	666.827E-3	-37.7495E-3
4.36968E-3	169.552E-12	668.342E-3	-33.9667E-3	171.586E-12	691.164E-3	-33.1970E-3
4.36468E-3	169.300E-12	646.740E-3	-59.8208E-3	171.313E-12	678.226E-3	-32.0303E-3
4.35968E-3	168.517E-12	647.508E-3	-15.9301E-3	169.845E-12	651.682E-3	-6.95238E-3
4.35468E-3	166.570E-12	645.111E-3	25.2685E-3	172.026E-12	636.097E-3	4.35082E-3
4.34967E-3	167.976E-12	655.288E-3	-5.41209E-3	173.052E-12	629.872E-3	-2.19908E-3
4.34467E-3	167.958E-12	674.581E-3	-30.6201E-3	170.994E-12	648.295E-3	-24.3967E-3
4.33967E-3	167.805E-12	668.408E-3	-34.4882E-3	168.445E-12	670.232E-3	-44.3333E-3
4.33467E-3	167.687E-12	664.346E-3	-46.1719E-3	169.379E-12	677.740E-3	-21.0668E-3
4.32966E-3	168.117E-12	655.091E-3	-40.2813E-3	169.416E-12	679.575E-3	-8.03816E-3
4.32466E-3	167.364E-12	638.424E-3	-27.0659E-3	167.051E-12	662.008E-3	-11.0767E-3
4.31966E-3	168.140E-12	648.675E-3	-25.3931E-3	166.951E-12	648.640E-3	-1.37718E-3
4.31466E-3	168.254E-12	653.057E-3	-12.9911E-3	166.791E-12	652.065E-3	-3.77196E-3
4.30965E-3	167.155E-12	642.526E-3	-6.23843E-3	167.475E-12	644.810E-3	-17.9141E-3
4.30465E-3	167.198E-12	651.958E-3	-31.2549E-3	165.229E-12	639.422E-3	-25.4271E-3
4.29965E-3	167.145E-12	671.441E-3	-50.8859E-3	165.920E-12	640.431E-3	-32.4980E-3
4.29465E-3	167.262E-12	659.316E-3	-42.9493E-3	165.514E-12	634.599E-3	-36.2363E-3
4.28964E-3	165.996E-12	643.663E-3	-35.8439E-3	166.535E-12	627.257E-3	-30.7260E-3
4.28464E-3	166.590E-12	654.710E-3	-30.8011E-3	165.095E-12	629.702E-3	-36.2455E-3
4.27964E-3	165.229E-12	658.896E-3	-27.9325E-3	163.646E-12	656.523E-3	-52.4689E-3
4.27464E-3	164.093E-12	661.733E-3	-38.8780E-3	164.168E-12	690.334E-3	-63.0198E-3
4.26963E-3	164.747E-12	684.202E-3	-38.7002E-3	164.591E-12	684.063E-3	-76.1424E-3
4.26463E-3	163.311E-12	684.237E-3	-27.6934E-3	167.572E-12	651.146E-3	-76.7446E-3
4.25963E-3	161.831E-12	639.253E-3	-38.7283E-3	165.493E-12	643.164E-3	-51.5279E-3
4.25463E-3	161.984E-12	615.846E-3	-49.6981E-3	163.683E-12	664.940E-3	-17.0953E-3
4.24962E-3	164.724E-12	641.592E-3	-41.4081E-3	162.626E-12	665.854E-3	11.2558E-3
4.24462E-3	164.912E-12	666.661E-3	-50.7374E-3	164.439E-12	636.289E-3	25.0330E-3
4.23962E-3	163.936E-12	683.668E-3	-55.0371E-3	164.418E-12	631.809E-3	12.0551E-3
4.23462E-3	163.329E-12	679.524E-3	-29.0916E-3	160.834E-12	638.850E-3	-23.6183E-3
4.22961E-3	162.802E-12	657.399E-3	-9.29462E-3	160.428E-12	635.729E-3	-39.3812E-3
4.22461E-3	162.517E-12	660.900E-3	1.59916E-3	160.076E-12	665.712E-3	-38.1374E-3
4.21961E-3	162.477E-12	660.785E-3	11.5468E-3	161.853E-12	695.913E-3	-42.7730E-3
4.21461E-3	163.146E-12	647.783E-3	-859.113E-6	161.183E-12	690.046E-3	-33.6171E-3
4.20960E-3	160.659E-12	648.598E-3	1.06040E-3	158.214E-12	679.787E-3	-34.1921E-3
4.20460E-3	161.254E-12	634.024E-3	24.0402E-3	157.604E-12	656.411E-3	-43.3265E-3
4.19960E-3	160.815E-12	613.636E-3	15.5433E-3	158.661E-12	642.834E-3	-27.5934E-3
4.19460E-3	159.830E-12	636.582E-3	9.00594E-3	160.483E-12	661.740E-3	-18.7602E-3
4.18959E-3	158.579E-12	642.902E-3	8.95154E-3	158.194E-12	669.838E-3	-13.6211E-3
4.18459E-3	158.602E-12	611.170E-3	-9.01180E-3	157.757E-12	673.588E-3	28.7422E-3
4.17959E-3	158.978E-12	608.245E-3	-22.1579E-3	158.524E-12	684.167E-3	52.4000E-3
4.17459E-3	157.757E-12	610.675E-3	-16.6723E-3	161.288E-12	670.836E-3	15.1797E-3
4.16958E-3	157.686E-12	611.145E-3	-22.7711E-3	159.630E-12	645.050E-3	-18.7635E-3
4.16458E-3	157.311E-12	628.094E-3	-31.7366E-3	158.756E-12	633.777E-3	-14.7623E-3
4.15958E-3	158.918E-12	620.612E-3	-16.9638E-3	158.511E-12	636.635E-3	-11.0470E-3
4.15458E-3	157.371E-12	583.042E-3	-14.1263E-3	159.590E-12	631.320E-3	-20.7116E-3
4.14957E-3	157.799E-12	571.336E-3	-29.0126E-3	159.389E-12	610.601E-3	-40.4769E-3
4.14457E-3	157.641E-12	601.724E-3	-34.9042E-3	158.820E-12	611.472E-3	-60.5532E-3
4.13957E-3	158.992E-12	641.894E-3	-5.19635E-3	158.024E-12	630.676E-3	-38.9133E-3
4.13457E-3	159.074E-12	661.655E-3	30.0805E-3	158.507E-12	656.875E-3	6.13654E-3
4.12956E-3	157.691E-12	648.658E-3	27.8606E-3	159.367E-12	685.217E-3	7.57081E-3
4.12456E-3	157.439E-12	628.870E-3	6.20728E-3	157.831E-12	677.304E-3	6.44311E-3
4.11956E-3	157.332E-12	634.390E-3	-2.29408E-3	156.498E-12	665.990E-3	28.1814E-3
4.11456E-3	158.559E-12	648.328E-3	-10.6446E-3	158.310E-12	668.431E-3	9.58845E-3
4.10955E-3	157.521E-12	663.921E-3	-10.2443E-3	159.664E-12	637.759E-3	-11.9581E-3
4.10455E-3	156.197E-12	673.298E-3	-1.16960E-3	159.569E-12	623.089E-3	-330.131E-6
4.09955E-3	156.012E-12	659.249E-3	-15.8319E-3	157.474E-12	644.980E-3	-15.0180E-3
4.09455E-3	156.471E-12	642.321E-3	-28.0946E-3	157.604E-12	659.201E-3	-28.3878E-3
4.08954E-3	156.554E-12	636.336E-3	-33.8147E-3	157.456E-12	665.677E-3	-6.64427E-3
4.08454E-3	153.589E-12	659.439E-3	-13.2159E-3	158.651E-12	659.519E-3	-11.5001E-3
4.07954E-3	153.911E-12	665.910E-3	23.6552E-3	157.595E-12	660.059E-3	-29.3476E-3
4.07454E-3	154.142E-12	648.594E-3	12.8959E-3	156.837E-12	659.795E-3	-19.3011E-3
4.06953E-3	156.559E-12	650.908E-3	-6.39009E-3	157.757E-12	655.065E-3	-14.7429E-3
4.06453E-3	155.511E-12	642.201E-3	1.16051E-3	159.049E-12	650.808E-3	-30.0625E-3
4.05953E-3	153.875E-12	633.669E-3	1.93621E-3	158.226E-12	627.475E-3	-13.6553E-3
4.05453E-3	154.374E-12	629.506E-3	14.1709E-3	156.890E-12	619.921E-3	20.2781E-3
4.04952E-3	155.743E-12	607.772E-3	18.4706E-3	156.602E-12	653.648E-3	5.93382E-3
4.04452E-3	155.032E-12	618.733E-3	-12.8509E-3	156.376E-12	672.021E-3	-30.6539E-3
4.03952E-3	153.872E-12	664.460E-3	-26.5987E-3	155.862E-12	654.783E-3	-51.0976E-3
4.03452E-3	154.666E-12	673.217E-3	-14.0077E-3	155.606E-12	630.670E-3	-60.9377E-3
4.02951E-3	153.840E-12	669.678E-3	-23.3310E-3	155.430E-12	621.143E-3	-43.7458E-3
4.02451E-3	153.577E-12	672.974E-3	-41.0815E-3	155.460E-12	648.249E-3	-14.4456E-3
4.01951E-3	154.453E-12	662.196E-3	-32.7938E-3	155.288E-12	664.523E-3	-10.7323E-3
4.01451E-3	153.699E-12	657.501E-3	-19.6081E-3	154.326E-12	652.404E-3	-5.42621E-3
4.00950E-3	153.064E-12	657.292E-3	-9.73351E-3	154.563E-12	664.149E-3	14.4542E-3
4.00450E-3	153.482E-12	662.104E-3	-12.5462E-3	154.655E-12	678.247E-3	13.4838E-3
3.99950E-3	153.082E-12	672.414E-3	-35.4930E-3	153.113E-12	677.003E-3	2.90171E-3
3.99450E-3	152.007E-12	683.699E-3	-42.4284E-3	151.890E-12	668.324E-3	-1.76034E-3
3.98949E-3	151.968E-12	681.582E-3	-22.7467E-3	152.935E-12	628.506E-3	-14.2712E-3
3.98449E-3	152.272E-12	664.837E-3	-1.47611E-3	153.370E-12	596.686E-3	-17.5713E-3
3.97949E-3	152.267E-12	657.344E-3	11.5211E-3	152.493E-12	610.489E-3	-10.7202E-3
3.97449E-3	151.736E-12	653.357E-3	-469.570E-6	150.793E-12	639.881E-3	-12.8348E-3
3.96948E-3	151.016E-12	634.382E-3	-44.0303E-3	150.279E-12	640.644E-3	-28.4498E-3
3.96448E-3	151.155E-12	621.038E-3	-65.7606E-3	149.786E-12	635.796E-3	-47.8907E-3
3.95948E-3	151.163E-12	608.570E-3	-49.1220E-3	149.847E-12	644.225E-3	-43.5305E-3
3.95448E-3	151.431E-12	601.231E-3	-43.3354E-3	148.518E-12	638.726E-3	-28.8425E-3
3.94947E-3	149.708E-12	618.095E-3	-51.5120E-3	148.113E-12	635.575E-3	-29.7471E-3
3.94447E-3	149.791E-12	609.587E-3	-32.1175E-3	148.683E-12	634.545E-3	-35.8297E-3
3.93947E-3	149.629E-12	599.078E-3	-16.7456E-3	149.051E-12	618.742E-3	-31.0164E-3
3.93447E-3	148.880E-12	623.295E-3	-19.6166E-3	148.904E-12	614.068E-3	-11.8513E-3
3.92946E-3	147.747E-12	630.188E-3	-17.9431E-3	147.735E-12	632.635E-3	17.2072E-3
3.92446E-3	147.686E-12	615.497E-3	-25.1310E-3	148.364E-12	649.781E-3	31.7398E-3
3.91946E-3	148.747E-12	627.399E-3	-18.6009E-3	147.383E-12	657.918E-3	14.9389E-3
3.91446E-3	148.737E-12	661.408E-3	-5.14614E-3	148.530E-12	656.171E-3	-13.6463E-3
3.90945E-3	147.872E-12	674.729E-3	-15.9214E-3	146.954E-12	628.665E-3	-16.5901E-3
3.90445E-3	147.167E-12	666.706E-3	-41.3522E-3	147.614E-12	610.718E-3	850.001E-6
3.89945E-3	148.058E-12	644.743E-3	-51.5701E-3	147.063E-12	614.991E-3	14.0194E-3
3.89445E-3	148.176E-12	623.367E-3	-50.2333E-3	146.442E-12	619.036E-3	-3.41751E-3
3.88944E-3	148.207E-12	636.710E-3	-50.4831E-3	145.343E-12	615.901E-3	-47.6929E-3
3.88444E-3	146.923E-12	658.326E-3	-34.5530E-3	144.863E-12	601.936E-3	-72.4916E-3
3.87944E-3	146.330E-12	631.286E-3	-36.0805E-3	145.932E-12	605.396E-3	-53.4983E-3
3.87444E-3	145.559E-12	600.864E-3	-63.8640E-3	145.312E-12	620.359E-3	-7.94356E-3
3.86943E-3	144.914E-12	608.468E-3	-63.0606E-3	144.489E-12	631.803E-3	1.20598E-3
3.86443E-3	144.247E-12	614.137E-3	-36.2083E-3	143.856E-12	646.287E-3	-23.5909E-3
3.85943E-3	143.087E-12	626.624E-3	-8.62388E-3	143.285E-12	649.326E-3	-37.1006E-3
3.85443E-3	142.575E-12	654.981E-3	13.0227E-3	143.524E-12	648.569E-3	-41.0655E-3
3.84942E-3	142.352E-12	645.038E-3	14.0837E-3	142.959E-12	635.270E-3	-36.3735E-3
3.84442E-3	143.010E-12	623.058E-3	1.70096E-3	142.945E-12	624.843E-3	-8.45463E-3
3.83942E-3	142.658E-12	634.894E-3	-1.54387E-3	142.809E-12	659.448E-3	14.7813E-3
3.83442E-3	142.642E-12	627.850E-3	-5.50647E-3	143.968E-12	697.496E-3	-5.43488E-3
3.82941E-3	143.655E-12	618.531E-3	-18.8314E-3	143.847E-12	690.577E-3	-23.0468E-3
3.82441E-3	143.296E-12	642.246E-3	-15.0041E-3	144.336E-12	682.999E-3	-23.7710E-3
3.81941E-3	142.636E-12	641.986E-3	1.96656E-3	144.935E-12	678.956E-3	-33.2258E-3
3.81441E-3	142.923E-12	614.252E-3	403.102E-6	144.682E-12	652.435E-3	-23.4319E-3
3.80940E-3	143.570E-12	605.283E-3	-14.5512E-3	145.900E-12	634.848E-3	-16.5788E-3
3.80440E-3	143.646E-12	612.109E-3	-1.61064E-3	146.032E-12	642.318E-3	-35.1494E-3
3.79940E-3	143.266E-12	641.411E-3	-3.38034E-3	146.115E-12	662.411E-3	-49.0610E-3
3.79440E-3	142.884E-12	671.521E-3	-32.1168E-3	145.108E-12	656.449E-3	-51.0962E-3
3.78939E-3	143.016E-12	679.937E-3	-24.5391E-3	145.656E-12	647.518E-3	-63.1289E-3
3.78439E-3	142.908E-12	675.714E-3	-14.1756E-3	145.288E-12	652.405E-3	-76.4734E-3
3.77939E-3	142.049E-12	669.469E-3	-24.0644E-3	143.574E-12	652.795E-3	-52.9681E-3
3.77439E-3	140.739E-12	670.350E-3	-33.3790E-3	142.600E-12	661.985E-3	-31.9326E-3
3.76938E-3	141.040E-12	658.749E-3	-35.2750E-3	143.161E-12	656.113E-3	-26.8278E-3
3.76438E-3	140.325E-12	634.130E-3	-25.5345E-3	144.924E-12	640.308E-3	-1.16822E-3
3.75938E-3	140.043E-12	622.725E-3	-7.85495E-3	143.001E-12	648.013E-3	6.69428E-3
3.75438E-3	139.277E-12	637.051E-3	-3.23066E-3	142.591E-12	648.142E-3	-11.7472E-3
3.74937E-3	139.977E-12	662.954E-3	-18.3574E-3	143.532E-12	637.261E-3	-17.4054E-3
3.74437E-3	140.357E-12	673.968E-3	-28.0612E-3	144.135E-12	638.137E-3	-11.5487E-3
3.73937E-3	141.245E-12	651.348E-3	-21.1105E-3	143.268E-12	634.762E-3	-15.9137E-3
3.73437E-3	140.891E-12	627.347E-3	-16.1149E-3	142.403E-12	646.670E-3	-20.1871E-3
3.72936E-3	140.580E-12	633.621E-3	-23.7952E-3	143.592E-12	669.170E-3	-31.3925E-3
3.72436E-3	140.639E-12	636.733E-3	-30.4558E-3	144.418E-12	676.047E-3	-44.5196E-3
3.71936E-3	141.713E-12	622.095E-3	-27.8880E-3	144.114E-12	677.413E-3	-24.9613E-3
3.71436E-3	143.533E-12	617.805E-3	-15.4931E-3	142.009E-12	668.363E-3	-11.4957E-3
3.70935E-3	142.427E-12	621.622E-3	854.911E-6	141.402E-12	656.937E-3	-23.4402E-3
3.70435E-3	140.724E-12	643.964E-3	7.60563E-3	142.164E-12	659.924E-3	-17.4296E-3
3.69935E-3	140.951E-12	672.248E-3	2.18567E-3	141.864E-12	657.598E-3	2.30279E-3
3.69435E-3	142.160E-12	668.335E-3	-6.85669E-3	140.785E-12	655.433E-3	8.41642E-3
3.68934E-3	141.320E-12	651.139E-3	-24.8481E-3	139.037E-12	672.851E-3	1.54504E-3
3.68434E-3	139.018E-12	638.488E-3	-30.3984E-3	139.740E-12	680.883E-3	-13.8744E-3
3.67934E-3	138.988E-12	640.748E-3	-15.3233E-3	139.453E-12	658.714E-3	-28.2851E-3
3.67434E-3	137.582E-12	654.612E-3	-4.15676E-3	137.911E-12	639.340E-3	-23.6028E-3
3.66933E-3	137.846E-12	660.332E-3	10.5354E-3	136.187E-12	638.727E-3	-17.1757E-3
3.66433E-3	138.203E-12	659.187E-3	18.2910E-3	136.527E-12	633.418E-3	-33.1124E-3
3.65933E-3	137.704E-12	663.240E-3	7.00872E-3	137.676E-12	642.551E-3	-24.3904E-3
3.65433E-3	137.001E-12	662.880E-3	-7.27795E-3	136.012E-12	686.034E-3	-791.102E-6
3.64932E-3	136.595E-12	644.408E-3	-2.55867E-3	135.013E-12	709.220E-3	-12.3982E-3
3.64432E-3	136.285E-12	637.769E-3	5.87342E-3	135.282E-12	684.329E-3	-18.6643E-3
3.63932E-3	135.968E-12	657.236E-3	-1.57099E-3	136.190E-12	645.116E-3	-15.3792E-3
3.63432E-3	136.190E-12	655.812E-3	-9.29633E-3	134.570E-12	608.442E-3	-28.9943E-3
3.62931E-3	137.067E-12	636.690E-3	-10.8024E-3	133.797E-12	589.692E-3	-26.7415E-3
3.62431E-3	136.849E-12	654.297E-3	-5.85656E-3	133.890E-12	603.187E-3	-18.2885E-3
3.61931E-3	136.700E-12	670.562E-3	-13.1169E-3	133.906E-12	635.831E-3	-23.8367E-3
3.61431E-3	136.956E-12	654.164E-3	-30.2282E-3	133.355E-12	653.957E-3	-14.7522E-3
3.60930E-3	136.621E-12	652.661E-3	-21.9782E-3	133.537E-12	645.877E-3	2.27141E-3
3.60430E-3	136.461E-12	657.643E-3	669.834E-6	132.831E-12	637.918E-3	7.23211E-3
3.59930E-3	136.944E-12	652.914E-3	-3.53225E-3	133.026E-12	636.140E-3	-409.912E-6
3.59430E-3	136.530E-12	661.355E-3	-15.7116E-3	133.173E-12	633.140E-3	-5.78410E-3
3.58929E-3	135.875E-12	662.179E-3	-15.3345E-3	132.256E-12	637.131E-3	-16.6600E-3
3.58429E-3	134.857E-12	656.510E-3	-5.92233E-3	131.981E-12	663.031E-3	-39.3574E-3
3.57929E-3	134.804E-12	657.657E-3	-31.7211E-6	132.055E-12	685.776E-3	-45.2874E-3
3.57429E-3	133.809E-12	654.036E-3	-23.8934E-3	132.886E-12	666.818E-3	-38.5191E-3
3.56928E-3	133.189E-12	658.976E-3	-55.5124E-3	132.485E-12	627.966E-3	-17.4403E-3
3.56428E-3	132.038E-12	659.034E-3	-66.7579E-3	132.423E-12	611.064E-3	13.5504E-3
3.55928E-3	132.359E-12	647.708E-3	-49.9285E-3	132.400E-12	623.685E-3	18.3200E-3
3.55428E-3	132.928E-12	642.579E-3	-27.9083E-3	132.775E-12	649.125E-3	-6.70318E-3
3.54927E-3	132.839E-12	646.315E-3	-15.1785E-3	132.931E-12	674.251E-3	-38.1026E-3
3.54427E-3	132.767E-12	649.720E-3	-7.69202E-3	132.017E-12	665.593E-3	-51.6317E-3
3.53927E-3	131.411E-12	638.832E-3	-9.75456E-3	131.998E-12	649.225E-3	-39.3732E-3
3.53427E-3	131.905E-12	632.994E-3	1.02844E-3	131.209E-12	669.359E-3	-20.1749E-3
3.52926E-3	131.851E-12	659.067E-3	18.6224E-3	131.323E-12	669.231E-3	-11.3855E-3
3.52426E-3	131.560E-12	680.156E-3	5.55118E-3	130.260E-12	644.402E-3	-967.547E-6
3.51926E-3	131.325E-12	664.614E-3	-31.4026E-3	130.662E-12	638.566E-3	-4.36549E-3
3.51426E-3	131.737E-12	630.799E-3	-66.1248E-3	129.716E-12	633.477E-3	-18.6021E-3
3.50925E-3	131.889E-12	614.321E-3	-77.8073E-3	130.235E-12	625.784E-3	-16.8628E-3
3.50425E-3	131.204E-12	627.457E-3	-58.4123E-3	131.243E-12	629.141E-3	3.76716E-3
3.49925E-3	131.196E-12	640.871E-3	-32.6273E-3	130.652E-12	643.947E-3	26.3414E-3
3.49425E-3	130.333E-12	639.153E-3	-26.5850E-3	130.891E-12	650.434E-3	21.2408E-3
3.48924E-3	130.247E-12	642.082E-3	-36.4886E-3	130.895E-12	637.715E-3	1.34238E-3
3.48424E-3	129.720E-12	658.694E-3	-28.9809E-3	131.331E-12	644.910E-3	-14.3129E-3
3.47924E-3	129.865E-12	654.924E-3	-15.1204E-3	131.559E-12	664.077E-3	-38.2938E-3
3.47424E-3	130.139E-12	635.537E-3	-17.0267E-3	131.532E-12	656.680E-3	-59.0260E-3
3.46923E-3	128.709E-12	638.029E-3	-22.8787E-3	132.029E-12	647.502E-3	-65.8448E-3
3.46423E-3	128.485E-12	642.363E-3	-30.9097E-3	132.568E-12	642.247E-3	-59.5514E-3
3.45923E-3	127.757E-12	659.264E-3	-49.3383E-3	133.323E-12	634.110E-3	-23.5520E-3
3.45423E-3	127.073E-12	687.975E-3	-50.2487E-3	131.487E-12	641.495E-3	595.851E-6
3.44922E-3	126.722E-12	679.446E-3	-29.4627E-3	130.313E-12	648.210E-3	-11.3547E-3
3.44422E-3	126.751E-12	660.258E-3	-22.1920E-3	129.894E-12	643.755E-3	-23.5849E-3
3.43922E-3	126.236E-12	662.534E-3	-25.3090E-3	129.883E-12	644.626E-3	-26.2607E-3
3.43422E-3	125.960E-12	656.435E-3	-27.5201E-3	128.467E-12	639.603E-3	-25.1266E-3
3.42921E-3	126.748E-12	638.628E-3	-30.6838E-3	127.758E-12	628.725E-3	-25.4661E-3
3.42421E-3	126.222E-12	631.949E-3	-30.6431E-3	127.896E-12	637.560E-3	-30.3211E-3
3.41921E-3	126.887E-12	634.709E-3	-25.9788E-3	127.176E-12	659.126E-3	-34.0096E-3
3.41421E-3	126.949E-12	632.904E-3	-28.4539E-3	126.631E-12	655.557E-3	-30.4592E-3
3.40920E-3	127.361E-12	642.034E-3	-21.3403E-3	126.829E-12	630.195E-3	-22.8198E-3
3.40420E-3	126.270E-12	668.220E-3	4.93568E-3	126.219E-12	627.382E-3	-26.2132E-3
3.39920E-3	127.995E-12	672.750E-3	8.18923E-3	125.668E-12	650.285E-3	-37.2441E-3
3.39420E-3	127.910E-12	672.151E-3	-6.12415E-3	126.396E-12	667.985E-3	-48.1743E-3
3.38919E-3	128.028E-12	681.507E-3	-13.0881E-3	127.150E-12	669.762E-3	-38.5173E-3
3.38419E-3	126.682E-12	673.518E-3	-32.0377E-3	126.366E-12	655.909E-3	-18.5029E-3
3.37919E-3	127.528E-12	661.800E-3	-43.6773E-3	125.711E-12	635.995E-3	-27.5434E-3
3.37419E-3	128.399E-12	654.733E-3	-32.8777E-3	125.420E-12	638.627E-3	-34.1994E-3
3.36918E-3	126.943E-12	668.717E-3	-32.3180E-3	125.995E-12	659.145E-3	-35.1547E-3
3.36418E-3	125.441E-12	697.627E-3	-20.3737E-3	125.858E-12	663.992E-3	-35.2925E-3
3.35918E-3	123.734E-12	689.843E-3	-4.35403E-3	124.079E-12	654.487E-3	-16.0379E-3
3.35418E-3	123.774E-12	659.256E-3	-6.43925E-3	122.839E-12	643.351E-3	766.854E-6
3.34917E-3	125.314E-12	647.554E-3	-1.31762E-3	122.962E-12	635.918E-3	2.30771E-3
3.34417E-3	123.561E-12	654.754E-3	-5.77564E-3	123.139E-12	654.064E-3	-12.9491E-3
3.33917E-3	121.769E-12	651.751E-3	-13.6165E-3	122.406E-12	662.928E-3	-26.1599E-3
3.33417E-3	121.627E-12	624.255E-3	-17.3895E-3	121.587E-12	645.837E-3	-19.6973E-3
3.32916E-3	123.344E-12	607.557E-3	-25.6464E-3	121.323E-12	636.400E-3	-15.8105E-3
3.32416E-3	122.263E-12	621.584E-3	-13.7376E-3	122.661E-12	625.095E-3	-22.9793E-3
3.31916E-3	121.374E-12	654.227E-3	3.40853E-3	123.096E-12	624.631E-3	-23.6265E-3
3.31416E-3	120.672E-12	678.243E-3	6.17011E-3	120.657E-12	639.342E-3	-13.8286E-3
3.30915E-3	122.510E-12	667.527E-3	-5.19404E-3	120.793E-12	637.663E-3	5.15128E-3
3.30415E-3	123.579E-12	642.127E-3	-26.8591E-3	121.749E-12	627.437E-3	9.68523E-3
3.29915E-3	122.070E-12	630.384E-3	-20.2760E-3	122.296E-12	621.561E-3	-6.25857E-3
3.29415E-3	122.199E-12	628.290E-3	-12.7516E-3	121.623E-12	621.220E-3	-7.70367E-3
3.28914E-3	122.860E-12	646.173E-3	-25.7950E-3	121.009E-12	629.879E-3	6.86663E-3
3.28414E-3	124.161E-12	668.165E-3	-13.3856E-3	120.619E-12	634.438E-3	8.13252E-3
3.27914E-3	122.200E-12	663.205E-3	4.83338E-3	121.488E-12	635.211E-3	-6.53182E-3
3.27414E-3	121.322E-12	651.263E-3	-1.28283E-3	121.674E-12	641.311E-3	-20.6374E-3
3.26913E-3	120.845E-12	648.199E-3	-11.8007E-3	119.429E-12	663.726E-3	-23.2124E-3
3.26413E-3	120.636E-12	656.094E-3	-20.3101E-3	118.297E-12	677.078E-3	-21.7253E-3
3.25913E-3	120.381E-12	673.725E-3	-21.3704E-3	119.829E-12	659.492E-3	-22.3965E-3
3.25413E-3	119.060E-12	683.966E-3	-10.4039E-3	120.285E-12	657.099E-3	-15.9517E-3
3.24912E-3	118.251E-12	672.595E-3	-9.18934E-3	119.412E-12	672.889E-3	-9.17577E-3
3.24412E-3	118.034E-12	644.707E-3	-16.6979E-3	117.842E-12	675.085E-3	-13.6310E-3
3.23912E-3	118.316E-12	622.498E-3	-27.0635E-3	118.985E-12	670.208E-3	-27.2318E-3
3.23412E-3	117.867E-12	610.664E-3	-36.4975E-3	120.009E-12	667.395E-3	-40.7023E-3
3.22911E-3	116.774E-12	610.783E-3	-51.6260E-3	119.530E-12	663.460E-3	-42.0501E-3
3.22411E-3	116.571E-12	623.054E-3	-59.9145E-3	118.408E-12	659.214E-3	-32.4883E-3
3.21911E-3	118.108E-12	639.086E-3	-37.3276E-3	118.879E-12	657.960E-3	-27.4724E-3
3.21411E-3	119.340E-12	660.320E-3	-27.2308E-3	120.134E-12	660.212E-3	-31.0493E-3
3.20910E-3	118.274E-12	684.766E-3	-44.7858E-3	119.585E-12	668.748E-3	-39.1439E-3
3.20410E-3	117.500E-12	689.414E-3	-36.5105E-3	119.561E-12	681.848E-3	-44.0633E-3
3.19910E-3	117.392E-12	664.687E-3	-3.96736E-3	119.269E-12	689.924E-3	-28.4280E-3
3.19410E-3	118.918E-12	645.151E-3	5.13838E-3	118.780E-12	683.828E-3	-14.1813E-3
3.18909E-3	119.786E-12	652.732E-3	-1.20234E-3	119.071E-12	673.331E-3	-31.6145E-3
3.18409E-3	117.641E-12	667.712E-3	-12.3078E-3	118.951E-12	672.541E-3	-41.9686E-3
3.17909E-3	117.003E-12	680.144E-3	-18.4246E-3	118.053E-12	677.605E-3	-23.7767E-3
3.17409E-3	119.367E-12	681.034E-3	-19.9972E-3	116.486E-12	678.821E-3	-5.08977E-3
3.16908E-3	120.807E-12	679.126E-3	-27.5676E-3	117.032E-12	678.593E-3	-5.15992E-3
3.16408E-3	117.866E-12	684.851E-3	-22.2442E-3	117.259E-12	683.768E-3	-9.89488E-3
3.15908E-3	116.585E-12	679.963E-3	-12.4607E-3	116.784E-12	686.324E-3	-5.15459E-3
3.15408E-3	117.353E-12	678.695E-3	-22.8218E-3	116.213E-12	677.648E-3	-5.95206E-3
3.14907E-3	118.445E-12	673.909E-3	-41.2574E-3	115.992E-12	674.165E-3	-21.6402E-3
3.14407E-3	117.028E-12	664.373E-3	-39.6686E-3	116.331E-12	686.346E-3	-25.8573E-3
3.13907E-3	115.570E-12	659.118E-3	-31.4033E-3	116.175E-12	687.076E-3	-22.0473E-3
3.13407E-3	115.177E-12	655.880E-3	-18.3325E-3	116.337E-12	666.124E-3	-17.9975E-3
3.12906E-3	115.412E-12	666.035E-3	-999.216E-6	116.623E-12	653.681E-3	4.73758E-3
3.12406E-3	115.140E-12	674.022E-3	-1.29582E-3	117.099E-12	662.203E-3	1.98902E-3
3.11906E-3	114.372E-12	666.061E-3	-10.7907E-3	116.873E-12	664.244E-3	-24.0140E-3
3.11406E-3	113.623E-12	652.070E-3	-14.1525E-3	116.542E-12	662.586E-3	-25.9302E-3
3.10905E-3	114.813E-12	650.430E-3	-25.0830E-3	114.777E-12	667.089E-3	-14.1630E-3
3.10405E-3	113.739E-12	665.343E-3	-38.3405E-3	114.069E-12	669.317E-3	1.86163E-3
3.09905E-3	112.976E-12	672.843E-3	-26.7974E-3	114.595E-12	666.857E-3	5.48153E-3
3.09405E-3	113.432E-12	676.816E-3	-16.8063E-3	113.222E-12	659.188E-3	-10.0778E-3
3.08904E-3	113.700E-12	693.701E-3	-25.2648E-3	113.279E-12	656.090E-3	-21.2763E-3
3.08404E-3	113.078E-12	690.735E-3	-25.7571E-3	111.982E-12	653.089E-3	-28.3702E-3
3.07904E-3	112.541E-12	680.529E-3	-12.0306E-3	112.451E-12	649.002E-3	-25.3274E-3
3.07404E-3	112.561E-12	679.102E-3	3.79673E-3	111.233E-12	644.551E-3	-13.5145E-3
3.06903E-3	111.825E-12	671.221E-3	1.75048E-3	111.684E-12	647.040E-3	-839.416E-6
3.06403E-3	111.298E-12	660.720E-3	-18.7530E-3	111.292E-12	658.874E-3	16.7879E-3
3.05903E-3	111.639E-12	648.083E-3	-22.1641E-3	110.950E-12	661.522E-3	24.3985E-3
3.05403E-3	111.742E-12	655.801E-3	-959.943E-6	111.065E-12	649.821E-3	19.6764E-3
3.04902E-3	111.285E-12	675.346E-3	6.31348E-3	111.222E-12	647.442E-3	23.7993E-3
3.04402E-3	110.979E-12	669.934E-3	-7.17138E-3	111.240E-12	661.212E-3	22.9077E-3
3.03902E-3	109.548E-12	644.828E-3	-11.5440E-3	110.131E-12	661.816E-3	13.5079E-3
3.03402E-3	110.077E-12	634.288E-3	-16.1149E-3	110.606E-12	649.940E-3	6.58470E-3
3.02901E-3	110.022E-12	638.646E-3	-30.7035E-3	109.986E-12	648.906E-3	-813.590E-6
3.02401E-3	109.809E-12	643.727E-3	-28.3415E-3	109.203E-12	657.784E-3	1.48743E-3
3.01901E-3	108.845E-12	646.811E-3	-16.8280E-3	108.905E-12	664.373E-3	972.874E-6
3.01401E-3	109.041E-12	649.791E-3	-17.7575E-3	108.828E-12	660.003E-3	-12.4216E-3
3.00900E-3	108.501E-12	658.536E-3	-22.8012E-3	108.692E-12	653.722E-3	-17.5696E-3
3.00400E-3	109.166E-12	676.495E-3	-10.1069E-3	106.727E-12	666.393E-3	-16.0771E-3
2.99900E-3	108.046E-12	690.102E-3	7.94268E-3	106.709E-12	665.907E-3	-18.5096E-3
2.99400E-3	108.764E-12	684.121E-3	14.5374E-3	106.892E-12	639.152E-3	-28.2226E-3
2.98899E-3	108.770E-12	684.902E-3	7.70677E-3	107.185E-12	643.879E-3	-37.9282E-3
2.98399E-3	109.142E-12	703.741E-3	-5.38585E-3	106.084E-12	668.000E-3	-28.4760E-3
2.97899E-3	108.696E-12	705.260E-3	-10.4305E-3	105.946E-12	668.885E-3	-13.4466E-3
2.97399E-3	108.703E-12	669.287E-3	-13.0954E-3	106.274E-12	670.027E-3	-9.76848E-3
2.96898E-3	109.519E-12	640.838E-3	-9.73322E-3	107.182E-12	672.660E-3	-32.5874E-3
2.96398E-3	109.796E-12	639.144E-3	-5.84754E-3	107.311E-12	665.592E-3	-53.6354E-3
2.95898E-3	108.428E-12	639.180E-3	-10.2619E-3	107.549E-12	660.665E-3	-33.9455E-3
2.95398E-3	108.080E-12	641.148E-3	-13.1330E-3	107.556E-12	661.798E-3	-13.3431E-3
2.94897E-3	107.679E-12	655.841E-3	-17.5225E-3	106.467E-12	662.550E-3	-12.5224E-3
2.94397E-3	108.523E-12	683.817E-3	-25.2457E-3	106.994E-12	654.626E-3	-23.1029E-3
2.93897E-3	107.483E-12	701.479E-3	-27.8591E-3	106.588E-12	659.756E-3	-29.1806E-3
2.93397E-3	106.705E-12	700.640E-3	-30.5225E-3	106.695E-12	679.323E-3	-18.1389E-3
2.92896E-3	105.372E-12	689.743E-3	-36.8887E-3	106.302E-12	670.362E-3	-3.81221E-3
2.92396E-3	105.291E-12	678.042E-3	-44.8133E-3	105.056E-12	642.878E-3	3.14226E-3
2.91896E-3	105.193E-12	672.277E-3	-44.8973E-3	105.215E-12	640.045E-3	-12.2456E-3
2.91396E-3	105.156E-12	677.511E-3	-20.6763E-3	105.254E-12	652.373E-3	-28.5103E-3
2.90895E-3	103.987E-12	676.676E-3	3.94838E-3	103.960E-12	644.987E-3	-17.9113E-3
2.90395E-3	103.552E-12	670.928E-3	9.59494E-3	103.235E-12	630.371E-3	-2.47474E-3
2.89895E-3	103.694E-12	675.774E-3	7.06354E-3	103.653E-12	641.005E-3	7.67059E-3
2.89395E-3	103.909E-12	665.094E-3	-3.36362E-3	103.826E-12	662.718E-3	6.51350E-3
2.88894E-3	103.564E-12	660.503E-3	-10.5891E-3	103.085E-12	685.870E-3	-11.4025E-3
2.88394E-3	104.324E-12	680.507E-3	-10.8134E-3	103.376E-12	712.778E-3	-21.9030E-3
2.87894E-3	104.155E-12	691.683E-3	-11.4187E-3	103.628E-12	723.214E-3	-24.0989E-3
2.87394E-3	104.092E-12	686.215E-3	-2.10704E-3	104.042E-12	694.895E-3	-20.9254E-3
2.86893E-3	103.312E-12	681.467E-3	-125.820E-6	104.578E-12	653.131E-3	-10.3708E-3
2.86393E-3	103.522E-12	678.956E-3	-14.5592E-3	104.474E-12	653.700E-3	-6.51572E-3
2.85893E-3	103.028E-12	664.161E-3	-39.0247E-3	103.532E-12	675.692E-3	-2.51937E-3
2.85393E-3	102.296E-12	661.452E-3	-61.2727E-3	103.243E-12	681.323E-3	512.068E-6
2.84892E-3	101.293E-12	677.746E-3	-42.0618E-3	103.809E-12	682.573E-3	-18.2423E-3
2.84392E-3	101.430E-12	669.524E-3	-17.8994E-3	103.368E-12	681.491E-3	-30.5278E-3
2.83892E-3	100.500E-12	657.999E-3	-30.0227E-3	102.311E-12	682.224E-3	-18.8327E-3
2.83392E-3	99.8774E-12	665.729E-3	-40.5018E-3	101.675E-12	684.254E-3	-23.4590E-3
2.82891E-3	98.7846E-12	667.623E-3	-28.2991E-3	102.119E-12	671.458E-3	-29.3940E-3
2.82391E-3	98.1422E-12	664.221E-3	-25.5002E-3	101.890E-12	651.680E-3	-24.6104E-3
2.81891E-3	97.8730E-12	662.828E-3	-45.4767E-3	101.051E-12	646.252E-3	-28.9817E-3
2.81391E-3	97.9958E-12	656.464E-3	-51.5906E-3	99.4146E-12	662.613E-3	-33.5957E-3
2.80890E-3	97.4084E-12	645.858E-3	-38.6883E-3	99.2629E-12	674.284E-3	-48.9121E-3
2.80390E-3	97.4742E-12	647.047E-3	-26.8706E-3	99.2816E-12	684.679E-3	-48.4160E-3
2.79890E-3	97.1608E-12	663.957E-3	-20.6444E-3	99.8080E-12	704.662E-3	-17.8415E-3
2.79390E-3	98.0768E-12	670.470E-3	-18.3426E-3	99.2422E-12	702.091E-3	-7.71539E-3
2.78889E-3	99.2961E-12	663.965E-3	-10.7493E-3	99.0238E-12	704.922E-3	-15.7081E-3
2.78389E-3	98.6799E-12	671.067E-3	-2.13641E-3	99.0314E-12	724.536E-3	-19.3388E-3
2.77889E-3	98.2027E-12	674.024E-3	4.10213E-3	99.2168E-12	711.397E-3	-19.1206E-3
2.77389E-3	98.7171E-12	658.778E-3	-513.872E-6	99.6725E-12	676.677E-3	-17.4830E-3
2.76888E-3	99.6182E-12	648.709E-3	-23.5132E-3	99.0620E-12	658.948E-3	-21.4554E-3
2.76388E-3	99.2458E-12	656.802E-3	-33.4022E-3	98.0867E-12	652.546E-3	-23.8333E-3
2.75888E-3	98.1862E-12	672.292E-3	-32.8104E-3	98.1799E-12	653.319E-3	-5.97056E-3
2.75388E-3	97.7771E-12	686.692E-3	-33.0267E-3	98.1871E-12	676.567E-3	14.7959E-3
2.74887E-3	98.0531E-12	686.073E-3	-20.5196E-3	98.1946E-12	693.260E-3	8.05345E-3
2.74387E-3	98.3103E-12	671.248E-3	-4.93453E-3	97.1855E-12	698.341E-3	-8.26060E-3
2.73887E-3	96.9004E-12	677.296E-3	750.767E-6	96.2072E-12	703.528E-3	-15.9636E-3
2.73387E-3	95.5708E-12	694.267E-3	-2.35365E-3	97.4890E-12	697.928E-3	-30.5673E-3
2.72886E-3	95.1780E-12	687.572E-3	-2.90778E-3	97.8340E-12	687.519E-3	-32.9834E-3
2.72386E-3	95.1279E-12	674.623E-3	6.65364E-3	96.8223E-12	690.080E-3	-18.6318E-3
2.71886E-3	94.6373E-12	684.306E-3	9.23530E-3	96.2750E-12	697.264E-3	-18.7626E-3
2.71386E-3	94.1525E-12	702.205E-3	-7.36595E-3	96.3575E-12	685.619E-3	-15.4875E-3
2.70885E-3	93.5097E-12	696.297E-3	-11.1988E-3	96.6582E-12	678.912E-3	-645.046E-6
2.70385E-3	93.4018E-12	663.972E-3	-5.39502E-3	96.5144E-12	687.611E-3	5.50023E-3
2.69885E-3	94.0163E-12	642.529E-3	-18.3068E-3	95.8842E-12	689.432E-3	823.592E-6
2.69385E-3	93.7756E-12	653.691E-3	-26.3453E-3	95.1455E-12	702.562E-3	-1.37949E-3
2.68884E-3	94.2778E-12	668.640E-3	-25.3610E-3	95.4158E-12	718.485E-3	-156.939E-6
2.68384E-3	94.2646E-12	672.981E-3	-22.8492E-3	95.4968E-12	705.063E-3	-6.38300E-3
2.67884E-3	94.6205E-12	680.796E-3	-17.2628E-3	95.4113E-12	685.803E-3	-10.6431E-3
2.67384E-3	94.5897E-12	690.294E-3	-10.6276E-3	94.3545E-12	680.463E-3	-9.91154E-3
2.66883E-3	94.6624E-12	696.144E-3	-11.4843E-3	93.7438E-12	685.844E-3	-11.0448E-3
2.66383E-3	94.5721E-12	695.143E-3	-17.9220E-3	94.0330E-12	684.933E-3	-6.77015E-3
2.65883E-3	94.5782E-12	680.103E-3	-20.1141E-3	94.0162E-12	674.849E-3	-10.3317E-3
2.65383E-3	94.4426E-12	670.939E-3	-20.9366E-3	93.2457E-12	689.917E-3	-25.7274E-3
2.64882E-3	94.5958E-12	677.730E-3	-24.3037E-3	92.4933E-12	706.516E-3	-42.3523E-3
2.64382E-3	94.1140E-12	686.165E-3	-32.6250E-3	92.1780E-12	691.343E-3	-54.9037E-3
2.63882E-3	93.3641E-12	694.635E-3	-39.7956E-3	93.1613E-12	685.946E-3	-32.2690E-3
2.63382E-3	92.8384E-12	695.458E-3	-44.1931E-3	93.0716E-12	693.740E-3	-6.28047E-3
2.62881E-3	93.2560E-12	698.900E-3	-37.2431E-3	91.9339E-12	690.610E-3	-18.0633E-3
2.62381E-3	92.1611E-12	711.932E-3	-24.6721E-3	91.6483E-12	680.370E-3	-25.0300E-3
2.61881E-3	91.7972E-12	720.395E-3	-14.8940E-3	91.9660E-12	672.917E-3	-10.5813E-3
2.61381E-3	91.3174E-12	703.751E-3	-9.99738E-3	91.7616E-12	676.115E-3	-3.90946E-3
2.60880E-3	90.8392E-12	666.025E-3	-2.27565E-3	90.3994E-12	687.047E-3	-17.1302E-3
2.60380E-3	90.7694E-12	652.322E-3	8.84199E-3	89.8005E-12	690.011E-3	-21.6976E-3
2.59880E-3	89.8508E-12	671.096E-3	649.240E-6	90.0699E-12	686.915E-3	-8.87817E-3
2.59380E-3	89.6302E-12	690.372E-3	-12.7990E-3	90.1659E-12	694.890E-3	-16.2415E-3
2.58879E-3	89.2609E-12	687.969E-3	-6.02140E-3	89.3315E-12	702.474E-3	-23.5404E-3
2.58379E-3	90.2798E-12	684.483E-3	1.48760E-3	88.3340E-12	704.438E-3	-18.2764E-3
2.57879E-3	90.1594E-12	694.599E-3	-5.65283E-3	88.8457E-12	690.451E-3	-23.6164E-3
2.57379E-3	90.8572E-12	708.976E-3	-10.2274E-3	88.7458E-12	662.843E-3	-22.3209E-3
2.56878E-3	90.5540E-12	712.123E-3	1.31176E-3	88.5953E-12	659.313E-3	-12.2376E-3
2.56378E-3	90.4704E-12	708.658E-3	12.5972E-3	87.2799E-12	663.860E-3	2.95320E-3
2.55878E-3	90.9553E-12	708.125E-3	-1.64172E-3	87.0582E-12	655.687E-3	7.18762E-3
2.55378E-3	90.4696E-12	702.327E-3	-17.4677E-3	87.2108E-12	655.018E-3	-13.8401E-3
2.54877E-3	90.1702E-12	699.745E-3	-11.7293E-3	87.9361E-12	667.230E-3	-23.4989E-3
2.54377E-3	89.5277E-12	700.431E-3	-15.3196E-3	86.9258E-12	685.498E-3	-16.0996E-3
2.53877E-3	89.5900E-12	699.475E-3	-26.4567E-3	86.3426E-12	690.963E-3	-16.4549E-3
2.53377E-3	88.5427E-12	694.193E-3	-18.1464E-3	86.8444E-12	690.236E-3	-31.6849E-3
2.52876E-3	88.6919E-12	696.365E-3	-8.20904E-3	87.1957E-12	699.219E-3	-42.8026E-3
2.52376E-3	88.0777E-12	707.656E-3	-11.7467E-3	87.5271E-12	706.677E-3	-41.3471E-3
2.51876E-3	87.2219E-12	706.995E-3	-14.3791E-3	86.4699E-12	711.229E-3	-36.8485E-3
2.51376E-3	86.2943E-12	702.216E-3	-16.7132E-3	86.1455E-12	701.272E-3	-23.9088E-3
2.50875E-3	86.2652E-12	713.068E-3	-23.2025E-3	86.4938E-12	689.451E-3	-12.7745E-3
2.50375E-3	85.7014E-12	720.476E-3	-38.0611E-3	86.1982E-12	700.889E-3	-16.3142E-3
2.49875E-3	84.9030E-12	717.974E-3	-52.4453E-3	85.1459E-12	709.185E-3	-17.1715E-3
2.49375E-3	84.2008E-12	719.050E-3	-40.2908E-3	84.7103E-12	701.679E-3	-7.18978E-3
2.48874E-3	84.7358E-12	704.583E-3	-16.9928E-3	84.9317E-12	688.358E-3	-17.6957E-3
2.48374E-3	84.8376E-12	692.865E-3	-25.3827E-3	84.2416E-12	682.850E-3	-31.3119E-3
2.47874E-3	84.7739E-12	696.746E-3	-29.5721E-3	84.8207E-12	697.760E-3	-23.6708E-3
2.47374E-3	84.1166E-12	687.049E-3	-6.85654E-3	83.7607E-12	714.353E-3	-19.3615E-3
2.46873E-3	84.7874E-12	681.436E-3	-6.29606E-3	83.6301E-12	710.775E-3	-8.91263E-3
2.46373E-3	85.8697E-12	687.676E-3	-5.09922E-3	83.7609E-12	703.234E-3	1.06387E-3
2.45873E-3	85.9864E-12	690.168E-3	9.24335E-3	84.1048E-12	694.711E-3	-8.13384E-3
2.45373E-3	84.4562E-12	705.729E-3	71.3329E-6	83.5088E-12	688.540E-3	-16.5629E-3
2.44872E-3	84.2825E-12	721.994E-3	-23.4779E-3	83.2322E-12	704.780E-3	-20.2937E-3
2.44372E-3	84.5514E-12	720.461E-3	-25.1856E-3	83.3579E-12	716.802E-3	-21.0245E-3
2.43872E-3	84.7329E-12	720.481E-3	-8.46449E-3	83.7914E-12	706.899E-3	-10.1399E-3
2.43372E-3	83.6335E-12	735.877E-3	-4.45852E-3	84.1306E-12	694.638E-3	-3.68918E-3
2.42871E-3	82.4765E-12	750.147E-3	-9.21529E-3	82.8894E-12	701.426E-3	-10.0709E-3
2.42371E-3	82.5644E-12	743.023E-3	-16.8784E-3	83.1055E-12	716.286E-3	-12.3692E-3
2.41871E-3	82.2803E-12	729.658E-3	-22.3790E-3	82.6223E-12	716.079E-3	-15.2752E-3
2.41371E-3	81.8621E-12	716.916E-3	-4.32292E-3	82.9652E-12	715.144E-3	-27.2477E-3
2.40870E-3	80.4991E-12	694.455E-3	9.80269E-3	82.0291E-12	727.189E-3	-29.7560E-3
2.40370E-3	80.7254E-12	689.650E-3	-10.0651E-3	80.8200E-12	730.521E-3	-15.0693E-3
2.39870E-3	80.3194E-12	701.210E-3	-26.8835E-3	80.7119E-12	714.967E-3	-1.89061E-3
2.39370E-3	80.4525E-12	701.159E-3	-11.2956E-3	80.9414E-12	710.182E-3	-558.995E-6
2.38869E-3	79.8531E-12	702.837E-3	4.80646E-3	81.2086E-12	731.696E-3	6.84563E-3
2.38369E-3	79.8269E-12	687.839E-3	4.42132E-3	80.3268E-12	761.663E-3	21.6522E-3
2.37869E-3	79.7565E-12	667.499E-3	13.9101E-3	80.1355E-12	762.249E-3	19.2429E-3
2.37369E-3	79.9804E-12	674.808E-3	23.5516E-3	80.0429E-12	747.779E-3	10.3490E-3
2.36868E-3	80.8731E-12	696.740E-3	8.26587E-3	80.3993E-12	758.555E-3	-1.05067E-3
2.36368E-3	80.4550E-12	709.507E-3	-14.3557E-3	80.5626E-12	756.913E-3	-12.1301E-3
2.35868E-3	79.7902E-12	702.770E-3	-13.4649E-3	80.1826E-12	732.080E-3	-11.4629E-3
2.35368E-3	80.3604E-12	702.704E-3	-587.647E-6	79.9841E-12	725.948E-3	-8.82769E-3
2.34867E-3	80.6742E-12	718.760E-3	-4.49498E-3	79.7862E-12	731.000E-3	-3.29632E-3
2.34367E-3	80.7313E-12	733.997E-3	-23.3053E-3	80.1579E-12	729.260E-3	-620.536E-6
2.33867E-3	79.5770E-12	754.136E-3	-31.1876E-3	79.1626E-12	735.416E-3	-7.90390E-3
2.33367E-3	79.7440E-12	762.691E-3	-21.2097E-3	79.3480E-12	738.776E-3	-14.5371E-3
2.32866E-3	79.6365E-12	742.547E-3	-16.8404E-3	78.9082E-12	729.062E-3	-18.7748E-3
2.32366E-3	79.4082E-12	736.810E-3	-14.7444E-3	78.4389E-12	718.382E-3	-25.3592E-3
2.31866E-3	78.5225E-12	742.472E-3	-4.13904E-3	77.9155E-12	697.266E-3	-29.9767E-3
2.31366E-3	78.0960E-12	743.544E-3	-13.6952E-3	78.2882E-12	684.377E-3	-26.2050E-3
2.30865E-3	78.3408E-12	759.961E-3	-28.1354E-3	77.6496E-12	704.749E-3	-15.8675E-3
2.30365E-3	77.3909E-12	763.559E-3	-18.6907E-3	77.0092E-12	734.256E-3	-13.1644E-3
2.29865E-3	76.5409E-12	751.516E-3	-11.3209E-3	76.4366E-12	748.895E-3	-26.6335E-3
2.29365E-3	76.4418E-12	749.118E-3	-1.57122E-3	76.2817E-12	760.878E-3	-28.4236E-3
2.28864E-3	76.3186E-12	739.613E-3	-966.640E-6	76.7232E-12	767.428E-3	-15.1144E-3
2.28364E-3	76.7118E-12	726.716E-3	-14.9374E-3	76.1186E-12	746.583E-3	-11.7836E-3
2.27864E-3	75.5299E-12	730.217E-3	-13.5443E-3	75.5277E-12	734.803E-3	-9.32110E-3
2.27364E-3	75.4699E-12	718.455E-3	-11.8753E-3	75.3166E-12	745.342E-3	1.57273E-3
2.26863E-3	75.5230E-12	714.151E-3	-16.5222E-3	75.9241E-12	738.364E-3	7.56794E-3
2.26363E-3	76.1487E-12	723.792E-3	-13.5811E-3	76.1557E-12	719.460E-3	3.40290E-3
2.25863E-3	75.5051E-12	711.390E-3	-13.2402E-3	74.5168E-12	709.907E-3	-626.779E-6
2.25363E-3	74.7432E-12	721.282E-3	-17.7095E-3	73.9227E-12	705.417E-3	-13.3106E-3
2.24862E-3	74.8231E-12	751.268E-3	-20.7773E-3	73.9740E-12	705.165E-3	-25.1179E-3
2.24362E-3	75.1274E-12	766.559E-3	-23.2073E-3	74.3475E-12	720.838E-3	-18.4627E-3
2.23862E-3	74.8313E-12	768.297E-3	-18.9120E-3	73.1113E-12	735.306E-3	-9.69531E-3
2.23362E-3	73.1431E-12	758.350E-3	-13.4576E-3	72.3597E-12	734.509E-3	-10.5890E-3
2.22861E-3	73.6000E-12	748.245E-3	-7.52049E-3	71.8859E-12	737.828E-3	-15.9205E-3
2.22361E-3	74.5886E-12	734.968E-3	-3.10955E-3	72.6008E-12	729.848E-3	-18.2555E-3
2.21861E-3	74.0116E-12	733.474E-3	-19.2058E-3	72.5304E-12	724.142E-3	-9.41320E-3
2.21361E-3	72.1066E-12	756.477E-3	-23.9547E-3	71.1706E-12	741.175E-3	-3.89572E-3
2.20860E-3	71.6930E-12	765.417E-3	-11.0161E-3	70.9123E-12	744.702E-3	-12.7783E-3
2.20360E-3	71.9245E-12	755.646E-3	-24.0489E-3	71.2881E-12	733.340E-3	-14.6002E-3
2.19860E-3	72.2126E-12	742.352E-3	-44.0003E-3	71.9395E-12	736.880E-3	-13.8649E-3
2.19360E-3	71.1946E-12	723.274E-3	-49.4763E-3	70.8137E-12	742.922E-3	-22.4382E-3
2.18859E-3	70.1451E-12	717.705E-3	-44.4864E-3	70.5866E-12	738.861E-3	-29.3851E-3
2.18359E-3	70.6572E-12	725.408E-3	-27.9659E-3	70.2746E-12	748.728E-3	-28.6897E-3
2.17859E-3	70.6583E-12	727.338E-3	-21.9273E-3	70.2896E-12	754.130E-3	-30.8830E-3
2.17359E-3	70.8595E-12	738.132E-3	-28.0086E-3	70.0368E-12	735.762E-3	-31.7480E-3
2.16858E-3	69.6139E-12	751.346E-3	-25.4504E-3	69.4382E-12	721.261E-3	-18.2431E-3
2.16358E-3	69.3397E-12	738.891E-3	-24.0584E-3	69.2846E-12	716.788E-3	-1.36442E-3
2.15858E-3	70.0216E-12	723.576E-3	-36.4367E-3	68.6419E-12	719.961E-3	9.49989E-3
2.15358E-3	70.4969E-12	740.937E-3	-42.9173E-3	68.5368E-12	736.517E-3	4.18463E-3
2.14857E-3	70.1105E-12	763.791E-3	-46.0055E-3	67.9339E-12	737.520E-3	-7.73145E-3
2.14357E-3	68.6271E-12	760.376E-3	-57.8627E-3	67.9941E-12	719.874E-3	-9.05648E-3
2.13857E-3	68.6029E-12	753.896E-3	-48.8706E-3	67.4202E-12	725.911E-3	-10.2040E-3
2.13357E-3	68.0549E-12	755.957E-3	-19.8868E-3	67.3083E-12	756.309E-3	-17.4919E-3
2.12856E-3	68.6992E-12	749.080E-3	-14.1998E-3	67.1523E-12	778.329E-3	-11.6673E-3
2.12356E-3	67.6405E-12	742.724E-3	-25.3962E-3	66.8255E-12	776.508E-3	4.78195E-3
2.11856E-3	67.6507E-12	758.251E-3	-19.2865E-3	66.5978E-12	763.330E-3	2.64086E-3
2.11356E-3	67.6098E-12	774.379E-3	-16.6468E-3	67.1923E-12	753.711E-3	-11.6958E-3
2.10855E-3	67.6764E-12	775.109E-3	-27.4463E-3	67.0349E-12	758.906E-3	-16.7077E-3
2.10355E-3	67.3207E-12	768.651E-3	-30.2934E-3	66.9025E-12	773.384E-3	-14.1694E-3
2.09855E-3	66.7363E-12	756.317E-3	-31.1429E-3	67.3003E-12	772.029E-3	-11.3322E-3
2.09355E-3	66.4513E-12	753.439E-3	-26.3008E-3	67.6331E-12	778.021E-3	-13.1377E-3
2.08854E-3	66.5088E-12	760.698E-3	-13.2202E-3	67.2928E-12	796.828E-3	-25.9416E-3
2.08354E-3	66.4272E-12	766.628E-3	-13.6620E-3	67.1027E-12	795.343E-3	-31.6565E-3
2.07854E-3	66.0419E-12	774.442E-3	-20.5003E-3	66.3137E-12	786.930E-3	-18.4093E-3
2.07354E-3	65.9884E-12	762.502E-3	-17.7198E-3	65.9264E-12	784.173E-3	-3.90937E-3
2.06853E-3	65.3755E-12	739.130E-3	-13.7431E-3	66.0439E-12	772.435E-3	-4.64764E-3
2.06353E-3	65.4032E-12	755.601E-3	-23.9651E-3	65.8215E-12	775.171E-3	-22.4149E-3
2.05853E-3	65.3089E-12	784.536E-3	-24.2966E-3	64.7219E-12	797.359E-3	-32.2411E-3
2.05353E-3	65.2414E-12	782.923E-3	-9.00379E-3	64.2121E-12	800.035E-3	-17.4921E-3
2.04852E-3	64.7825E-12	781.794E-3	-11.1319E-3	64.3855E-12	792.207E-3	-4.27425E-3
2.04352E-3	64.8269E-12	785.996E-3	-16.2102E-3	64.1622E-12	791.876E-3	-19.2742E-3
2.03852E-3	64.9648E-12	781.101E-3	-24.2382E-3	62.9104E-12	790.824E-3	-38.8668E-3
2.03352E-3	64.7982E-12	778.353E-3	-33.1836E-3	62.6356E-12	796.351E-3	-40.5270E-3
2.02851E-3	64.5091E-12	781.487E-3	-17.0592E-3	62.9015E-12	799.572E-3	-37.6676E-3
2.02351E-3	63.2359E-12	787.045E-3	-10.5666E-3	63.0748E-12	786.730E-3	-40.2934E-3
2.01851E-3	63.2336E-12	801.160E-3	-31.9032E-3	62.4189E-12	774.024E-3	-31.6783E-3
2.01351E-3	63.1832E-12	827.843E-3	-39.1652E-3	61.6348E-12	780.411E-3	-19.0257E-3
2.00850E-3	63.0648E-12	840.818E-3	-24.7521E-3	62.1142E-12	797.678E-3	-24.5560E-3
2.00350E-3	62.0241E-12	831.908E-3	-13.8428E-3	62.3837E-12	811.087E-3	-33.7093E-3
1.99850E-3	61.8459E-12	821.811E-3	-13.5060E-3	61.7828E-12	812.076E-3	-35.1866E-3
1.99350E-3	61.8974E-12	813.347E-3	-22.1764E-3	60.8368E-12	795.228E-3	-33.3731E-3
1.98849E-3	61.8998E-12	805.854E-3	-26.9524E-3	60.6267E-12	783.020E-3	-24.8914E-3
1.98349E-3	61.1412E-12	801.539E-3	-16.7494E-3	60.7645E-12	791.987E-3	-18.3560E-3
1.97849E-3	60.1444E-12	787.368E-3	-2.97369E-3	60.3108E-12	804.803E-3	-18.6871E-3
1.97349E-3	60.1482E-12	779.436E-3	-4.94643E-3	59.5315E-12	816.809E-3	-7.46924E-3
1.96848E-3	60.5225E-12	796.955E-3	447.187E-6	59.1518E-12	829.016E-3	-5.00630E-3
1.96348E-3	60.0653E-12	805.940E-3	19.1939E-3	59.2130E-12	825.496E-3	-18.3122E-3
1.95848E-3	59.1791E-12	797.684E-3	3.69290E-3	59.1475E-12	807.911E-3	-18.6970E-3
1.95348E-3	58.8812E-12	799.831E-3	-17.6559E-3	58.0225E-12	797.724E-3	-16.0037E-3
1.94847E-3	59.1442E-12	803.915E-3	-7.08846E-3	57.7746E-12	811.387E-3	-22.1127E-3
1.94347E-3	59.0712E-12	806.818E-3	-3.95056E-3	57.8804E-12	822.700E-3	-23.2204E-3
1.93847E-3	59.1056E-12	814.887E-3	-13.8962E-3	58.2410E-12	817.268E-3	-16.9421E-3
1.93347E-3	58.4589E-12	819.740E-3	-11.8920E-3	57.8417E-12	820.138E-3	-18.7846E-3
1.92846E-3	57.8860E-12	833.237E-3	-11.7258E-3	57.5073E-12	818.743E-3	-18.9290E-3
1.92346E-3	58.2315E-12	845.686E-3	-10.0342E-3	57.3420E-12	815.163E-3	-15.8703E-3
1.91846E-3	58.3213E-12	837.741E-3	899.675E-6	56.7610E-12	816.025E-3	-16.3762E-3
1.91346E-3	57.2396E-12	828.622E-3	-5.92080E-3	56.8772E-12	798.211E-3	-12.4038E-3
1.90845E-3	56.3084E-12	827.599E-3	-18.7214E-3	56.3560E-12	795.728E-3	-10.9219E-3
1.90345E-3	56.5651E-12	823.862E-3	-19.9506E-3	55.8248E-12	822.529E-3	-17.2574E-3
1.89845E-3	56.4856E-12	815.830E-3	-22.4087E-3	55.2195E-12	829.424E-3	-10.5539E-3
1.89345E-3	55.6544E-12	814.925E-3	-27.3222E-3	55.2460E-12	824.532E-3	10.3063E-3
1.88844E-3	54.9967E-12	816.871E-3	-24.8831E-3	54.9143E-12	830.915E-3	9.76828E-3
1.88344E-3	54.2814E-12	800.618E-3	-18.3297E-3	54.9102E-12	832.083E-3	-249.607E-6
1.87844E-3	54.2616E-12	793.515E-3	-13.0112E-3	54.2835E-12	838.548E-3	3.92751E-3
1.87344E-3	53.7228E-12	817.945E-3	-4.94699E-3	53.8067E-12	853.359E-3	-1.01431E-3
1.86843E-3	53.6277E-12	837.392E-3	-11.8367E-3	54.0191E-12	857.886E-3	-16.6079E-3
1.86343E-3	53.3202E-12	844.933E-3	-27.7377E-3	53.7651E-12	854.428E-3	-24.0755E-3
1.85843E-3	53.1127E-12	848.258E-3	-23.4808E-3	53.4922E-12	852.729E-3	-17.6196E-3
1.85343E-3	52.7289E-12	828.651E-3	-21.2740E-3	53.2561E-12	858.266E-3	-15.9915E-3
1.84842E-3	52.4786E-12	818.998E-3	-25.7398E-3	53.3148E-12	873.395E-3	-22.9616E-3
1.84342E-3	52.5997E-12	844.500E-3	-16.7088E-3	53.0171E-12	890.692E-3	-19.6633E-3
1.83842E-3	52.2541E-12	859.227E-3	-13.0515E-3	52.6445E-12	893.300E-3	-11.0694E-3
1.83342E-3	52.1022E-12	865.391E-3	-24.4091E-3	52.4426E-12	884.199E-3	-3.22700E-3
1.82841E-3	51.9599E-12	875.584E-3	-25.4870E-3	52.2965E-12	882.766E-3	-687.134E-6
1.82341E-3	51.5792E-12	859.800E-3	-17.1533E-3	51.8097E-12	889.136E-3	-6.57163E-3
1.81841E-3	51.4912E-12	843.345E-3	-19.3670E-3	51.3121E-12	895.489E-3	-8.52936E-3
1.81341E-3	51.2583E-12	863.269E-3	-16.7957E-3	50.8108E-12	899.285E-3	-1.11901E-3
1.80840E-3	50.7848E-12	885.837E-3	-10.8245E-3	50.4250E-12	893.073E-3	1.30007E-3
1.80340E-3	49.9864E-12	883.674E-3	-17.1151E-3	50.2594E-12	884.944E-3	-9.84244E-3
1.79840E-3	49.8272E-12	873.676E-3	-13.5320E-3	49.6478E-12	884.316E-3	-30.4530E-3
1.79340E-3	49.5535E-12	870.790E-3	1.53905E-3	48.9704E-12	879.977E-3	-49.6851E-3
1.78839E-3	48.9783E-12	875.392E-3	1.92718E-3	48.8901E-12	879.815E-3	-41.1836E-3
1.78339E-3	48.3158E-12	871.029E-3	-1.99208E-3	48.8306E-12	896.640E-3	-16.5971E-3
1.77839E-3	48.1880E-12	852.411E-3	-4.26571E-3	48.3605E-12	911.389E-3	-15.5558E-3
1.77339E-3	48.2173E-12	845.696E-3	-12.7871E-3	48.3274E-12	911.137E-3	-34.1645E-3
1.76838E-3	47.3165E-12	867.193E-3	-15.1951E-3	48.0877E-12	923.292E-3	-29.8939E-3
1.76338E-3	47.2738E-12	880.269E-3	-17.7638E-3	47.7847E-12	933.387E-3	-4.98037E-3
1.75838E-3	47.3399E-12	875.537E-3	-32.6547E-3	47.6525E-12	914.149E-3	-1.96343E-3
1.75338E-3	46.7631E-12	885.873E-3	-28.9282E-3	47.2872E-12	897.411E-3	-18.4798E-3
1.74837E-3	46.4572E-12	892.305E-3	-8.70033E-3	46.8805E-12	907.844E-3	-27.2249E-3
1.74337E-3	46.6715E-12	886.334E-3	-6.33602E-3	46.3768E-12	922.390E-3	-18.8892E-3
1.73837E-3	46.4171E-12	903.137E-3	-3.11211E-3	46.1701E-12	932.530E-3	-11.8395E-3
1.73337E-3	45.9191E-12	930.028E-3	5.75436E-3	45.8018E-12	944.484E-3	-15.1261E-3
1.72836E-3	45.8834E-12	932.067E-3	-359.846E-6	45.5827E-12	944.806E-3	-15.0090E-3
1.72336E-3	45.9465E-12	922.747E-3	-7.27160E-3	45.4453E-12	939.884E-3	-13.8585E-3
1.71836E-3	45.5849E-12	918.739E-3	-7.04542E-3	45.0373E-12	934.493E-3	-15.7324E-3
1.71336E-3	44.9792E-12	923.392E-3	-11.2482E-3	44.5101E-12	933.565E-3	-13.1513E-3
1.70835E-3	44.6931E-12	941.904E-3	-10.9475E-3	44.3799E-12	947.624E-3	-9.50553E-3
1.70335E-3	44.6512E-12	961.380E-3	-4.03842E-3	44.1799E-12	964.166E-3	-10.2742E-3
1.69835E-3	44.1889E-12	962.150E-3	-2.87815E-3	43.8316E-12	963.668E-3	-8.23499E-3
1.69335E-3	43.4080E-12	956.622E-3	-1.19178E-3	43.5972E-12	967.753E-3	65.0366E-6
1.68834E-3	42.9811E-12	955.236E-3	3.29403E-3	43.4412E-12	989.559E-3	-5.61758E-3
1.68334E-3	42.9857E-12	956.478E-3	-353.088E-6	42.9435E-12	997.937E-3	-14.3034E-3
1.67834E-3	42.6736E-12	970.800E-3	7.57604E-3	42.8839E-12	1.00137E+0	-6.92164E-3
1.67334E-3	41.9032E-12	973.572E-3	28.6072E-3	42.9558E-12	1.02643E+0	-4.56781E-3
1.66833E-3	41.5633E-12	959.641E-3	14.0935E-3	42.4500E-12	1.04457E+0	-8.82494E-3
1.66333E-3	41.0864E-12	968.016E-3	-17.3035E-3	42.0052E-12	1.03608E+0	-8.41879E-3
1.65833E-3	41.1321E-12	987.393E-3	-6.87263E-3	41.7200E-12	1.03448E+0	-10.8945E-3
1.65333E-3	40.7682E-12	994.822E-3	4.49532E-3	41.4468E-12	1.02648E+0	-11.5983E-3
1.64832E-3	40.3108E-12	996.756E-3	-14.0824E-3	41.0947E-12	1.00798E+0	-6.34276E-3
1.64332E-3	39.9383E-12	991.714E-3	-12.0497E-3	40.4577E-12	1.00900E+0	-7.17522E-3
1.63832E-3	40.1441E-12	984.341E-3	-1.88277E-3	40.2128E-12	1.01083E+0	-13.4748E-3
1.63332E-3	39.9264E-12	991.293E-3	-17.2278E-3	39.7731E-12	1.02035E+0	-6.76173E-3
1.62831E-3	39.2666E-12	1.01091E+0	-24.0297E-3	39.4373E-12	1.04618E+0	-852.295E-6
1.62331E-3	38.7893E-12	1.01464E+0	-15.0420E-3	38.5463E-12	1.04859E+0	-11.2400E-3
1.61831E-3	39.0552E-12	1.01328E+0	-14.5113E-3	38.2193E-12	1.03013E+0	-13.5512E-3
1.61331E-3	39.1060E-12	1.03201E+0	-10.9835E-3	38.3683E-12	1.02884E+0	-11.0126E-3
1.60830E-3	38.2853E-12	1.05518E+0	-8.89448E-3	37.7611E-12	1.04533E+0	-15.9094E-3
1.60330E-3	37.6112E-12	1.06920E+0	-14.5391E-3	36.9882E-12	1.05525E+0	-19.0896E-3
1.59830E-3	37.4641E-12	1.06893E+0	-11.1471E-3	36.6067E-12	1.05778E+0	-17.9435E-3
1.59330E-3	37.3669E-12	1.06603E+0	-8.68931E-3	36.9544E-12	1.06298E+0	-17.1512E-3
1.58829E-3	36.6553E-12	1.07476E+0	-26.4642E-3	36.5215E-12	1.06840E+0	-15.7360E-3
1.58329E-3	36.2595E-12	1.08402E+0	-39.7307E-3	35.8597E-12	1.07373E+0	-15.6251E-3
1.57829E-3	35.8837E-12	1.07899E+0	-36.7019E-3	35.5877E-12	1.07159E+0	-27.9372E-3
1.57329E-3	35.7912E-12	1.07059E+0	-30.9068E-3	35.2820E-12	1.06956E+0	-27.3540E-3
1.56828E-3	35.4299E-12	1.07513E+0	-11.5563E-3	35.0991E-12	1.08022E+0	-7.93666E-3
1.56328E-3	34.5168E-12	1.08234E+0	-222.299E-6	34.4394E-12	1.07982E+0	-9.48785E-3
1.55828E-3	34.0792E-12	1.09414E+0	-17.2641E-3	34.0894E-12	1.07334E+0	-20.8658E-3
1.55328E-3	33.8396E-12	1.09772E+0	-31.8785E-3	34.0306E-12	1.08621E+0	-18.1064E-3
1.54827E-3	33.7085E-12	1.07476E+0	-26.4082E-3	33.4192E-12	1.10366E+0	-9.17647E-3
1.54327E-3	33.3608E-12	1.06917E+0	-19.4361E-3	32.7752E-12	1.10916E+0	-3.16062E-3
1.53827E-3	32.7691E-12	1.09213E+0	-12.5755E-3	32.3937E-12	1.11081E+0	-7.27604E-3
1.53327E-3	32.5106E-12	1.10169E+0	-5.93389E-3	32.2588E-12	1.11400E+0	-11.0611E-3
1.52826E-3	32.2693E-12	1.10627E+0	-15.5872E-3	31.7586E-12	1.11086E+0	-1.79188E-3
1.52326E-3	32.2257E-12	1.12471E+0	-18.9193E-3	31.3218E-12	1.11586E+0	-1.90377E-3
1.51826E-3	31.7096E-12	1.13188E+0	-11.3050E-3	31.0933E-12	1.13821E+0	-19.2469E-3
1.51326E-3	31.3322E-12	1.12877E+0	-25.2633E-3	30.7922E-12	1.15208E+0	-34.1509E-3
1.50825E-3	31.2965E-12	1.14454E+0	-42.1314E-3	30.2058E-12	1.15306E+0	-36.9802E-3
1.50325E-3	31.3628E-12	1.16704E+0	-31.5849E-3	30.1458E-12	1.15819E+0	-28.2236E-3
1.49825E-3	30.5320E-12	1.18201E+0	-11.4481E-3	29.8583E-12	1.15128E+0	-14.5158E-3
1.49325E-3	29.4995E-12	1.19104E+0	-2.37588E-3	29.2603E-12	1.13575E+0	-7.78782E-3
1.48824E-3	29.5854E-12	1.17834E+0	-3.54257E-3	28.9794E-12	1.14316E+0	-14.1312E-3
1.48324E-3	29.4861E-12	1.15585E+0	-14.2255E-3	28.5437E-12	1.14888E+0	-13.7796E-3
1.47824E-3	28.4601E-12	1.16159E+0	-31.5038E-3	28.0159E-12	1.14197E+0	-9.08142E-3
1.47324E-3	27.6014E-12	1.18080E+0	-35.3013E-3	27.6301E-12	1.14618E+0	-19.5268E-3
1.46823E-3	27.4336E-12	1.17297E+0	-26.5294E-3	27.2881E-12	1.14573E+0	-25.4831E-3
1.46323E-3	27.6127E-12	1.15154E+0	-23.0833E-3	26.9176E-12	1.13741E+0	-16.8165E-3
1.45823E-3	26.9099E-12	1.15108E+0	-20.4059E-3	26.4443E-12	1.13587E+0	-5.13463E-3
1.45323E-3	26.0530E-12	1.15983E+0	-24.2106E-3	25.9442E-12	1.13122E+0	-5.14098E-3
1.44822E-3	25.5269E-12	1.15044E+0	-36.0219E-3	25.3841E-12	1.12901E+0	-6.62774E-3
1.44322E-3	25.6079E-12	1.13745E+0	-32.7746E-3	25.2130E-12	1.14557E+0	-5.35673E-3
1.43822E-3	25.1593E-12	1.13012E+0	-21.3105E-3	25.0150E-12	1.16012E+0	-17.0195E-3
1.43322E-3	24.7254E-12	1.13907E+0	-24.3187E-3	24.6865E-12	1.15536E+0	-23.7513E-3
1.42821E-3	24.4274E-12	1.16547E+0	-27.9527E-3	24.1458E-12	1.14481E+0	-22.0085E-3
1.42321E-3	24.2986E-12	1.16905E+0	-27.4745E-3	23.9323E-12	1.13441E+0	-17.8291E-3
1.41821E-3	24.0634E-12	1.15734E+0	-29.1881E-3	23.4450E-12	1.12674E+0	-10.6829E-3
1.41321E-3	23.3799E-12	1.16079E+0	-20.1512E-3	22.9921E-12	1.12553E+0	-13.8002E-3
1.40820E-3	23.0910E-12	1.16593E+0	-8.63540E-3	22.7545E-12	1.12485E+0	-14.8411E-3
1.40320E-3	22.7639E-12	1.16844E+0	-13.9322E-3	22.4137E-12	1.12832E+0	-4.32803E-3
1.39820E-3	22.5605E-12	1.17193E+0	-17.2493E-3	21.9226E-12	1.12959E+0	-5.10143E-3
1.39320E-3	22.0694E-12	1.15986E+0	-9.15037E-3	21.3716E-12	1.11396E+0	-9.94667E-3
1.38819E-3	21.5809E-12	1.15068E+0	-13.3346E-3	21.2978E-12	1.09840E+0	1.38116E-3
1.38319E-3	21.0864E-12	1.15288E+0	-15.7530E-3	20.9417E-12	1.10327E+0	-2.61175E-3
1.37819E-3	20.5863E-12	1.14000E+0	-7.87419E-3	20.6390E-12	1.10744E+0	-21.3554E-3
1.37319E-3	20.3523E-12	1.12978E+0	-19.2187E-3	20.1828E-12	1.09133E+0	-15.0410E-3
1.36818E-3	19.9390E-12	1.13739E+0	-32.3316E-3	19.8873E-12	1.08471E+0	-5.63061E-3
1.36318E-3	19.5248E-12	1.12985E+0	-22.1853E-3	19.5894E-12	1.09789E+0	-11.4666E-3
1.35818E-3	18.8679E-12	1.10643E+0	-14.4809E-3	19.1549E-12	1.10578E+0	-10.5066E-3
1.35318E-3	18.6589E-12	1.10418E+0	-14.1916E-3	18.6504E-12	1.10076E+0	-2.36981E-3
1.34817E-3	18.2858E-12	1.10990E+0	-15.4045E-3	18.5891E-12	1.08439E+0	552.569E-6
1.34317E-3	17.8745E-12	1.10291E+0	-24.6250E-3	18.5691E-12	1.07278E+0	-4.25503E-3
1.33817E-3	17.5956E-12	1.08563E+0	-31.4525E-3	17.9689E-12	1.07980E+0	-14.8497E-3
1.33317E-3	17.3145E-12	1.06528E+0	-33.2921E-3	17.5898E-12	1.07556E+0	-19.3385E-3
1.32816E-3	16.9983E-12	1.06054E+0	-38.4091E-3	17.5057E-12	1.04638E+0	-12.3798E-3
1.32316E-3	16.5323E-12	1.05942E+0	-31.2729E-3	17.3451E-12	1.01944E+0	-12.6395E-3
1.31816E-3	16.2300E-12	1.03337E+0	-11.9134E-3	16.8095E-12	1.00310E+0	-24.0748E-3
1.31316E-3	15.9972E-12	1.01017E+0	-4.59978E-3	16.3392E-12	992.486E-3	-22.6185E-3
1.30815E-3	15.6134E-12	1.02386E+0	-4.31173E-3	16.1627E-12	996.172E-3	-17.4703E-3
1.30315E-3	15.2471E-12	1.02743E+0	-6.95361E-3	16.0278E-12	997.389E-3	-22.7742E-3
1.29815E-3	14.9627E-12	998.172E-3	-28.6310E-3	15.5814E-12	979.513E-3	-20.0569E-3
1.29315E-3	14.9968E-12	983.705E-3	-45.3215E-3	15.1036E-12	958.329E-3	-15.8262E-3
1.28814E-3	14.6169E-12	977.459E-3	-33.8298E-3	14.9134E-12	939.453E-3	-20.9537E-3
1.28314E-3	14.1441E-12	959.868E-3	-25.6708E-3	14.5237E-12	927.335E-3	-18.6348E-3
1.27814E-3	13.7214E-12	961.774E-3	-20.2619E-3	14.0816E-12	919.133E-3	-12.4961E-3
1.27314E-3	13.5491E-12	965.686E-3	2.53622E-3	13.9270E-12	902.738E-3	-22.2937E-3
1.26813E-3	13.4520E-12	941.053E-3	3.16255E-3	13.5619E-12	885.325E-3	-36.9120E-3
1.26313E-3	13.0657E-12	919.759E-3	-19.8749E-3	13.2230E-12	873.240E-3	-38.6221E-3
1.25813E-3	12.6424E-12	912.149E-3	-16.0857E-3	12.8799E-12	859.837E-3	-35.8791E-3
1.25313E-3	12.3084E-12	895.354E-3	-2.71418E-3	12.6926E-12	835.870E-3	-30.7738E-3
1.24812E-3	12.1776E-12	882.223E-3	-10.3686E-3	12.3048E-12	810.145E-3	-21.4176E-3
1.24312E-3	11.6575E-12	877.946E-3	-19.0029E-3	11.9021E-12	794.594E-3	-18.7420E-3
1.23812E-3	11.3059E-12	859.321E-3	-21.6511E-3	11.6581E-12	773.529E-3	-19.8269E-3
1.23312E-3	11.3325E-12	834.902E-3	-18.2636E-3	11.4452E-12	751.617E-3	-18.6783E-3
1.22811E-3	11.0614E-12	828.461E-3	654.942E-6	11.1886E-12	747.506E-3	-21.4958E-3
1.22311E-3	10.6391E-12	816.777E-3	6.67650E-3	10.8667E-12	737.002E-3	-28.6294E-3
1.21811E-3	10.3625E-12	782.549E-3	-5.82758E-3	10.5920E-12	712.206E-3	-35.2399E-3
1.21311E-3	10.2920E-12	747.414E-3	-3.48150E-3	10.4786E-12	691.839E-3	-33.5548E-3
1.20810E-3	10.0877E-12	726.608E-3	390.276E-6	10.1315E-12	673.436E-3	-15.3591E-3
1.20310E-3	9.71458E-12	727.569E-3	-13.9662E-3	9.69250E-12	651.418E-3	-1.89444E-3
1.19810E-3	9.43830E-12	733.564E-3	-22.7451E-3	9.40416E-12	630.669E-3	-4.71811E-3
1.19310E-3	9.33918E-12	710.462E-3	-18.6990E-3	9.34383E-12	612.814E-3	-5.22566E-3
1.18809E-3	9.14585E-12	675.024E-3	-25.1137E-3	8.98221E-12	590.583E-3	-4.81912E-3
1.18309E-3	8.80857E-12	657.115E-3	-30.2355E-3	8.74192E-12	581.539E-3	-8.86782E-3
1.17809E-3	8.53985E-12	643.198E-3	-23.3392E-3	8.40111E-12	583.390E-3	-16.6473E-3
1.17309E-3	8.45525E-12	627.299E-3	-25.2826E-3	8.36542E-12	559.719E-3	-25.5980E-3
1.16808E-3	8.28708E-12	616.719E-3	-23.1881E-3	8.22801E-12	527.476E-3	-28.3192E-3
1.16308E-3	7.93455E-12	601.505E-3	-12.4337E-3	7.79853E-12	510.822E-3	-31.2118E-3
1.15808E-3	7.77369E-12	582.879E-3	-10.5165E-3	7.59330E-12	491.778E-3	-27.6606E-3
1.15308E-3	7.62913E-12	567.524E-3	-8.43095E-3	7.63812E-12	471.907E-3	-11.6128E-3
1.14807E-3	7.39150E-12	540.606E-3	-8.40062E-3	7.43217E-12	455.818E-3	-2.47086E-3
1.14307E-3	7.09242E-12	515.209E-3	-19.8738E-3	7.19554E-12	436.852E-3	754.892E-6
1.13807E-3	6.94407E-12	507.072E-3	-21.7120E-3	6.99518E-12	427.017E-3	403.556E-6
1.13307E-3	6.84318E-12	489.298E-3	-4.24121E-3	6.91633E-12	422.313E-3	-14.0588E-3
1.12806E-3	6.73815E-12	468.950E-3	3.99413E-3	6.76252E-12	412.255E-3	-17.0166E-3
1.12306E-3	6.49067E-12	467.693E-3	-3.82027E-3	6.48272E-12	398.799E-3	3.48839E-3
1.11806E-3	6.29272E-12	457.409E-3	-15.9438E-3	6.28164E-12	380.224E-3	6.04633E-3
1.11306E-3	6.16362E-12	429.811E-3	-24.7543E-3	6.29275E-12	365.126E-3	-8.00684E-3
1.10805E-3	6.08874E-12	410.346E-3	-22.7984E-3	6.12381E-12	359.518E-3	-6.97103E-3
1.10305E-3	6.00543E-12	400.279E-3	-14.2157E-3	5.95468E-12	349.670E-3	-6.24224E-3
1.09805E-3	5.95313E-12	394.495E-3	-4.26231E-3	5.76345E-12	334.258E-3	-20.5884E-3
1.09305E-3	5.79395E-12	398.829E-3	891.976E-6	5.75624E-12	326.305E-3	-29.8726E-3
1.08804E-3	5.58267E-12	391.814E-3	-2.22196E-3	5.62654E-12	312.818E-3	-24.4135E-3
1.08304E-3	5.58436E-12	360.405E-3	-4.25309E-3	5.52854E-12	288.707E-3	-10.1632E-3
1.07804E-3	5.48850E-12	344.440E-3	-7.21973E-3	5.45832E-12	281.704E-3	-4.46083E-3
1.07304E-3	5.37893E-12	341.674E-3	-14.9230E-3	5.38176E-12	288.419E-3	-13.4305E-3
1.06803E-3	5.22646E-12	325.627E-3	-27.1299E-3	5.23531E-12	277.579E-3	-16.6716E-3
1.06303E-3	5.16140E-12	313.429E-3	-33.0393E-3	5.12440E-12	256.389E-3	-17.5496E-3
1.05803E-3	5.31637E-12	306.670E-3	-18.7172E-3	5.08526E-12	250.776E-3	-27.5599E-3
1.05303E-3	5.20025E-12	295.025E-3	-4.57873E-3	5.08921E-12	248.390E-3	-30.6405E-3
1.04802E-3	4.93092E-12	284.398E-3	-12.7044E-3	5.08379E-12	240.362E-3	-19.1093E-3
1.04302E-3	4.92641E-12	269.869E-3	-22.3267E-3	4.93296E-12	233.519E-3	-8.45060E-3
1.03802E-3	5.00762E-12	236.876E-3	-21.5084E-3	4.81518E-12	211.958E-3	276.864E-6
1.03302E-3	4.82534E-12	219.061E-3	-18.2106E-3	4.77942E-12	180.993E-3	7.51177E-3
1.02801E-3	4.48655E-12	230.827E-3	-9.24486E-3	4.62052E-12	174.771E-3	-140.922E-6
1.02301E-3	4.29806E-12	224.967E-3	-9.68713E-3	4.43729E-12	187.225E-3	-10.8306E-3
1.01801E-3	4.42124E-12	199.335E-3	-12.4597E-3	4.40403E-12	192.470E-3	-4.89558E-3
1.01301E-3	4.61780E-12	183.111E-3	-6.21247E-3	4.50361E-12	179.753E-3	1.18924E-3
1.00800E-3	4.33369E-12	174.002E-3	-1.66074E-3	4.48387E-12	153.270E-3	-2.85061E-3
1.00300E-3	4.11698E-12	167.427E-3	-8.93594E-3	4.27161E-12	135.560E-3	-12.1184E-3
997.999E-6	4.11460E-12	162.600E-3	-16.4590E-3	4.22937E-12	138.984E-3	-18.7917E-3
992.997E-6	4.19819E-12	154.382E-3	-11.3244E-3	4.21150E-12	148.776E-3	-13.8295E-3
987.994E-6	4.08300E-12	156.414E-3	-19.9340E-3	4.14480E-12	140.461E-3	-3.46410E-3
982.991E-6	4.03890E-12	164.190E-3	-30.6580E-3	4.10687E-12	133.399E-3	-4.70125E-3
977.989E-6	3.95767E-12	164.805E-3	-23.4266E-3	4.09436E-12	139.107E-3	-20.6351E-3
972.986E-6	3.92543E-12	167.607E-3	-18.4585E-3	4.05032E-12	130.469E-3	-27.0820E-3
967.984E-6	4.00088E-12	170.225E-3	-13.6801E-3	3.88622E-12	116.851E-3	-18.2917E-3
962.981E-6	3.93167E-12	155.506E-3	-7.84497E-3	3.81002E-12	112.351E-3	-20.5139E-3
957.979E-6	3.79007E-12	129.555E-3	-10.7434E-3	3.88339E-12	106.600E-3	-38.0845E-3
952.976E-6	3.60536E-12	122.470E-3	-13.8428E-3	3.88400E-12	101.771E-3	-41.2778E-3
947.974E-6	3.66274E-12	126.416E-3	-10.7126E-3	3.70084E-12	111.957E-3	-30.7359E-3
942.971E-6	3.81356E-12	121.667E-3	-12.0904E-3	3.68602E-12	114.536E-3	-20.6196E-3
937.969E-6	3.57006E-12	124.527E-3	-13.7410E-3	3.65346E-12	100.003E-3	-11.5113E-3
932.966E-6	3.37776E-12	116.352E-3	-816.999E-6	3.60810E-12	96.6746E-3	-11.0470E-3
927.964E-6	3.37302E-12	90.6287E-3	2.74566E-3	3.41983E-12	98.3015E-3	-11.1510E-3
922.961E-6	3.60943E-12	83.1235E-3	-17.3745E-3	3.39416E-12	97.5157E-3	-11.0540E-3
917.959E-6	3.48220E-12	84.5376E-3	-30.6503E-3	3.49704E-12	104.204E-3	-21.4260E-3
912.956E-6	3.23043E-12	81.5047E-3	-21.9529E-3	3.43222E-12	105.201E-3	-20.6621E-3
907.954E-6	3.20842E-12	90.8598E-3	-11.2319E-3	3.32547E-12	89.2300E-3	-5.54427E-3
902.951E-6	3.54929E-12	98.7965E-3	-9.05111E-3	3.29837E-12	78.7316E-3	-11.0800E-3
897.949E-6	3.58084E-12	86.8628E-3	-10.5999E-3	3.15127E-12	85.7044E-3	-28.9423E-3
892.946E-6	3.23068E-12	85.3689E-3	-12.5036E-3	3.21143E-12	97.7050E-3	-27.1245E-3
887.944E-6	3.12163E-12	98.8850E-3	-9.97165E-3	3.20078E-12	102.494E-3	-14.4852E-3
882.941E-6	3.27207E-12	93.3382E-3	-13.5708E-3	3.17533E-12	100.414E-3	-16.2406E-3
877.939E-6	3.34259E-12	86.5971E-3	-22.1960E-3	3.01187E-12	98.5997E-3	-25.3247E-3
872.936E-6	3.14565E-12	88.7874E-3	-10.6661E-3	2.97959E-12	82.4358E-3	-24.3515E-3
867.934E-6	2.98877E-12	77.5006E-3	2.63652E-3	3.00541E-12	62.4400E-3	-21.4327E-3
862.931E-6	3.02017E-12	75.7987E-3	-4.31051E-3	3.06766E-12	61.0590E-3	-15.4876E-3
857.929E-6	3.17875E-12	94.5142E-3	-8.64545E-3	2.89305E-12	71.7634E-3	-7.99569E-3
852.926E-6	3.06446E-12	98.2168E-3	-3.43117E-3	2.75438E-12	79.0359E-3	-14.5167E-3
847.924E-6	2.97830E-12	90.9917E-3	-6.51923E-3	2.84120E-12	71.7321E-3	-27.8452E-3
842.921E-6	2.82938E-12	95.3820E-3	-14.9155E-3	2.86358E-12	65.7529E-3	-28.4616E-3
837.919E-6	2.86354E-12	97.6879E-3	-17.9595E-3	2.82573E-12	66.6106E-3	-22.9178E-3
832.916E-6	2.90345E-12	93.7994E-3	-23.4411E-3	2.69798E-12	68.5950E-3	-30.8334E-3
827.914E-6	2.83485E-12	90.5271E-3	-28.7113E-3	2.63282E-12	75.5824E-3	-39.3137E-3
822.911E-6	2.70481E-12	79.7817E-3	-23.1464E-3	2.72146E-12	80.3350E-3	-36.6033E-3
817.909E-6	2.65996E-12	75.6170E-3	-13.3205E-3	2.65191E-12	81.2953E-3	-28.2624E-3
812.906E-6	2.76713E-12	96.0955E-3	-8.08755E-3	2.66557E-12	89.2563E-3	-21.3337E-3
807.904E-6	2.66706E-12	104.827E-3	-13.8206E-3	2.52267E-12	91.8643E-3	-23.8038E-3
802.901E-6	2.57784E-12	85.9812E-3	-29.3413E-3	2.55456E-12	78.3893E-3	-25.7113E-3
797.899E-6	2.51533E-12	73.0527E-3	-30.6342E-3	2.65039E-12	71.5744E-3	-22.1812E-3
792.896E-6	2.57736E-12	78.3279E-3	-16.3265E-3	2.58023E-12	78.4073E-3	-17.4471E-3
787.894E-6	2.57021E-12	90.1318E-3	-6.53226E-3	2.50686E-12	88.4689E-3	-21.6233E-3
782.891E-6	2.47895E-12	92.2643E-3	-589.077E-6	2.49294E-12	94.7828E-3	-33.8672E-3
777.889E-6	2.40944E-12	87.0410E-3	5.93256E-3	2.39881E-12	87.9241E-3	-33.6679E-3
772.886E-6	2.42559E-12	83.1544E-3	-2.16214E-3	2.56735E-12	75.2150E-3	-23.9697E-3
767.884E-6	2.37628E-12	79.4206E-3	-21.1892E-3	2.52520E-12	79.2038E-3	-20.5561E-3
762.881E-6	2.31927E-12	85.5401E-3	-22.7789E-3	2.32739E-12	95.6532E-3	-11.5025E-3
757.879E-6	2.28568E-12	95.8980E-3	-23.7298E-3	2.32862E-12	102.541E-3	4.64531E-3
752.876E-6	2.33686E-12	89.3147E-3	-34.1010E-3	2.45383E-12	99.9648E-3	-3.76710E-3
747.874E-6	2.29358E-12	80.9301E-3	-24.9178E-3	2.42664E-12	96.2442E-3	-30.0371E-3
742.871E-6	2.25380E-12	89.9684E-3	-14.0382E-3	2.27471E-12	92.2882E-3	-38.9301E-3
737.869E-6	2.21150E-12	104.027E-3	-19.6156E-3	2.11065E-12	90.1810E-3	-32.0063E-3
732.866E-6	2.18575E-12	103.324E-3	-22.7988E-3	2.21943E-12	98.2681E-3	-28.6590E-3
727.864E-6	2.17949E-12	90.2113E-3	-19.1768E-3	2.31047E-12	106.972E-3	-29.6281E-3
722.861E-6	2.13625E-12	82.7555E-3	-16.1703E-3	2.20921E-12	107.548E-3	-28.2943E-3
717.859E-6	2.03123E-12	76.8058E-3	-12.6733E-3	2.05324E-12	108.933E-3	-19.1837E-3
712.856E-6	2.02928E-12	70.2847E-3	-9.67582E-3	2.02381E-12	110.249E-3	-9.88899E-3
707.854E-6	2.00423E-12	74.6148E-3	-14.2477E-3	2.18635E-12	104.403E-3	-8.71526E-3
702.851E-6	1.91379E-12	81.9656E-3	-19.9683E-3	2.10002E-12	95.4283E-3	-13.5707E-3
697.849E-6	1.85028E-12	82.2863E-3	-24.2692E-3	1.93441E-12	90.3337E-3	-15.2705E-3
692.846E-6	1.98497E-12	94.9285E-3	-19.6266E-3	1.87230E-12	92.2603E-3	-11.0028E-3
687.844E-6	1.92046E-12	115.345E-3	-1.45211E-3	1.96570E-12	101.788E-3	-15.9218E-3
682.841E-6	1.80932E-12	115.706E-3	-2.68485E-3	1.96986E-12	102.154E-3	-20.2996E-3
677.839E-6	1.79620E-12	103.156E-3	-18.4959E-3	1.92437E-12	94.9030E-3	-16.0094E-3
672.836E-6	1.86705E-12	92.1714E-3	-2.10333E-3	1.75180E-12	95.5883E-3	-22.2867E-3
667.834E-6	1.81188E-12	84.4510E-3	25.9149E-3	1.79642E-12	95.8594E-3	-30.8736E-3
662.831E-6	1.68577E-12	83.6791E-3	27.8630E-3	1.85767E-12	91.7890E-3	-23.2944E-3
657.829E-6	1.69903E-12	87.7375E-3	20.1804E-3	1.79847E-12	84.8319E-3	-17.3570E-3
652.826E-6	1.74049E-12	84.7557E-3	6.06475E-3	1.69033E-12	72.3697E-3	-27.7314E-3
647.824E-6	1.69738E-12	85.6015E-3	-15.6979E-3	1.57739E-12	71.1480E-3	-32.9433E-3
642.821E-6	1.64040E-12	93.0819E-3	-19.3822E-3	1.65477E-12	88.8848E-3	-14.9581E-3
637.819E-6	1.57366E-12	80.2525E-3	-7.88348E-3	1.62433E-12	104.665E-3	-1.70524E-3
632.816E-6	1.63367E-12	68.3686E-3	-2.74091E-3	1.55278E-12	102.704E-3	-9.85658E-3
627.814E-6	1.59269E-12	78.8289E-3	-3.35963E-3	1.49393E-12	87.2971E-3	-8.67080E-3
622.811E-6	1.45819E-12	91.9182E-3	-13.9842E-3	1.50923E-12	71.7995E-3	8.44771E-3
617.809E-6	1.43288E-12	96.7123E-3	-19.6748E-3	1.47369E-12	67.0622E-3	13.3120E-3
612.806E-6	1.43227E-12	94.2323E-3	-8.81334E-3	1.47062E-12	73.6946E-3	-2.99976E-3
607.804E-6	1.34568E-12	90.0535E-3	-6.30764E-3	1.38336E-12	83.7208E-3	-21.9965E-3
602.801E-6	1.36167E-12	83.0641E-3	-21.3298E-3	1.28453E-12	86.8139E-3	-29.5100E-3
597.799E-6	1.36112E-12	81.5879E-3	-26.9864E-3	1.28492E-12	79.3082E-3	-29.3409E-3
592.796E-6	1.28603E-12	91.5194E-3	-20.3429E-3	1.34084E-12	77.2380E-3	-28.7591E-3
587.794E-6	1.23296E-12	97.6156E-3	-16.7264E-3	1.28785E-12	88.3516E-3	-26.8716E-3
582.791E-6	1.23575E-12	95.0372E-3	-4.80589E-3	1.15354E-12	97.4323E-3	-24.2404E-3
577.789E-6	1.25381E-12	88.4812E-3	-534.860E-6	1.10084E-12	93.0535E-3	-17.9369E-3
572.786E-6	1.18460E-12	82.3371E-3	-15.3319E-3	1.16641E-12	80.7993E-3	-656.180E-6
567.784E-6	1.09120E-12	93.4860E-3	-27.9141E-3	1.15476E-12	73.7211E-3	8.11222E-3
562.781E-6	1.07895E-12	108.482E-3	-20.8268E-3	1.04600E-12	75.9702E-3	-2.13406E-3
557.779E-6	1.13956E-12	99.0295E-3	-5.75973E-3	978.766E-15	77.2032E-3	-17.9653E-3
552.776E-6	1.04324E-12	85.8117E-3	-4.06096E-3	1.03247E-12	69.6522E-3	-22.6841E-3
547.774E-6	941.195E-15	88.1660E-3	-9.05125E-3	1.08084E-12	64.0120E-3	-19.0940E-3
542.771E-6	952.748E-15	89.6118E-3	-16.7331E-3	977.746E-15	66.8084E-3	-22.1590E-3
537.769E-6	983.501E-15	88.6145E-3	-17.1510E-3	901.103E-15	77.3654E-3	-25.0025E-3
532.766E-6	974.154E-15	82.9122E-3	-369.307E-6	972.419E-15	82.2560E-3	-24.8296E-3
527.764E-6	845.213E-15	64.1369E-3	11.8640E-3	882.008E-15	69.8213E-3	-27.4342E-3
522.761E-6	859.434E-15	56.2441E-3	7.48874E-3	896.160E-15	60.2115E-3	-30.1173E-3
517.759E-6	850.828E-15	61.4434E-3	-264.143E-6	848.029E-15	73.7925E-3	-31.8204E-3
512.756E-6	816.709E-15	69.5002E-3	-6.10778E-3	751.995E-15	86.4940E-3	-27.0987E-3
507.754E-6	743.188E-15	84.4291E-3	-16.0593E-3	791.275E-15	77.9265E-3	-15.3314E-3
502.751E-6	660.826E-15	85.0594E-3	-22.4421E-3	776.801E-15	67.0895E-3	-17.4134E-3
497.749E-6	723.308E-15	72.7837E-3	-19.4155E-3	756.285E-15	55.0188E-3	-21.5591E-3
492.746E-6	669.885E-15	70.0160E-3	-16.1535E-3	684.420E-15	48.0041E-3	-13.8248E-3
487.744E-6	624.667E-15	67.6373E-3	-382.307E-6	594.602E-15	54.6705E-3	-12.5522E-3
482.741E-6	646.046E-15	57.0030E-3	6.37217E-3	585.220E-15	60.8336E-3	-18.8321E-3
477.739E-6	616.723E-15	61.0110E-3	-11.7339E-3	669.580E-15	58.3290E-3	-22.6764E-3
472.736E-6	513.923E-15	77.7364E-3	-12.3189E-3	615.659E-15	52.9832E-3	-18.2713E-3
467.734E-6	553.613E-15	69.4802E-3	-4.27366E-3	536.558E-15	55.4766E-3	-11.1932E-3
462.731E-6	545.251E-15	52.7363E-3	-11.6958E-3	511.786E-15	62.3833E-3	-4.47260E-3
457.729E-6	541.371E-15	56.9980E-3	-22.3418E-3	564.399E-15	66.3642E-3	-3.21927E-3
452.726E-6	468.887E-15	62.8144E-3	-26.3955E-3	518.308E-15	66.6866E-3	-9.48682E-3
447.724E-6	494.243E-15	59.8244E-3	-30.0681E-3	449.984E-15	56.8971E-3	-15.5409E-3
442.721E-6	467.065E-15	59.0061E-3	-28.2983E-3	427.793E-15	42.0470E-3	-23.7884E-3
437.719E-6	446.208E-15	56.3160E-3	-15.4118E-3	443.654E-15	38.3365E-3	-25.3690E-3
432.716E-6	344.079E-15	51.1392E-3	-12.0770E-3	443.017E-15	39.4808E-3	-18.7648E-3
427.714E-6	368.886E-15	58.9306E-3	-13.7072E-3	382.802E-15	32.8602E-3	-18.3911E-3
422.711E-6	386.429E-15	67.6960E-3	-8.98732E-3	315.253E-15	22.7897E-3	-22.7720E-3
417.709E-6	386.621E-15	62.8304E-3	-8.59305E-3	377.596E-15	30.7777E-3	-22.1175E-3
412.706E-6	292.417E-15	55.1375E-3	-5.13166E-3	381.877E-15	51.2888E-3	-16.1118E-3
407.704E-6	281.553E-15	42.7376E-3	3.39121E-3	258.926E-15	54.1300E-3	-16.6556E-3
402.701E-6	324.749E-15	38.5997E-3	-8.60642E-3	303.648E-15	51.4771E-3	-15.7682E-3
397.699E-6	288.206E-15	52.2075E-3	-27.1609E-3	260.740E-15	49.7132E-3	-10.2909E-3
392.696E-6	199.060E-15	53.4855E-3	-23.9642E-3	276.993E-15	40.9836E-3	-14.6226E-3
387.694E-6	261.656E-15	39.9653E-3	-24.8215E-3	253.965E-15	39.5740E-3	-19.5918E-3
382.691E-6	277.298E-15	31.7183E-3	-31.6898E-3	246.214E-15	43.9814E-3	-20.9988E-3
377.689E-6	251.358E-15	30.7692E-3	-23.2319E-3	204.902E-15	43.5045E-3	-25.8060E-3
372.686E-6	183.365E-15	34.1292E-3	-17.0582E-3	215.722E-15	34.5684E-3	-31.6771E-3
367.684E-6	164.287E-15	29.8665E-3	-26.7288E-3	205.111E-15	22.9770E-3	-23.4260E-3
362.681E-6	198.911E-15	20.9050E-3	-27.5959E-3	185.510E-15	22.5058E-3	-12.4397E-3
357.679E-6	133.813E-15	25.7749E-3	-12.7312E-3	168.411E-15	34.6572E-3	-15.4351E-3
352.676E-6	111.431E-15	38.2681E-3	-13.8398E-3	111.422E-15	41.3232E-3	-17.3016E-3
347.674E-6	187.419E-15	36.7795E-3	-21.6416E-3	127.117E-15	30.4730E-3	-15.1739E-3
342.671E-6	131.311E-15	22.6705E-3	-12.3237E-3	149.072E-15	20.1329E-3	-22.7143E-3
337.669E-6	80.3725E-15	13.5302E-3	-6.63749E-3	130.360E-15	26.9797E-3	-24.9903E-3
332.666E-6	80.8433E-15	20.2235E-3	-8.70002E-3	49.6195E-15	33.8249E-3	-12.4800E-3
327.664E-6	153.824E-15	28.9767E-3	-11.5779E-3	69.1507E-15	25.9273E-3	-7.11271E-3
322.661E-6	128.669E-15	26.4004E-3	-20.1087E-3	132.156E-15	21.3165E-3	-12.8760E-3
317.659E-6	30.5503E-15	20.2189E-3	-19.3911E-3	83.6422E-15	29.1781E-3	-19.8401E-3
312.656E-6	37.4909E-15	14.2970E-3	-13.8442E-3	42.2255E-15	34.9087E-3	-20.7253E-3
307.654E-6	79.6836E-15	16.7966E-3	-21.2442E-3	-10.5437E-15	30.9328E-3	-18.5133E-3
302.651E-6	63.3960E-15	27.7040E-3	-18.5037E-3	34.4043E-15	21.3420E-3	-19.6566E-3
297.649E-6	-20.7977E-15	30.6212E-3	-4.23213E-3	86.8335E-15	11.8644E-3	-20.1980E-3
292.646E-6	6.34555E-15	28.9001E-3	-9.35161E-3	-29.1595E-15	10.3446E-3	-21.5360E-3
287.644E-6	63.9976E-15	31.2848E-3	-20.2479E-3	-40.8433E-15	19.3193E-3	-22.5301E-3
282.641E-6	35.6773E-15	28.0819E-3	-18.8451E-3	17.8638E-15	16.0325E-3	-21.7543E-3
277.639E-6	-44.7322E-15	25.2611E-3	-16.5387E-3	8.04581E-15	3.26310E-3	-19.2696E-3
272.636E-6	-54.6722E-15	28.6459E-3	-17.6665E-3	-18.6963E-15	7.37517E-3	-13.9889E-3
267.634E-6	-34.4521E-15	22.9833E-3	-17.6845E-3	-60.9239E-15	14.1982E-3	-9.01874E-3
262.631E-6	-12.3922E-15	15.7804E-3	-26.3469E-3	-56.6514E-15	11.4894E-3	-7.31819E-3
257.629E-6	-43.5550E-15	21.0354E-3	-33.5888E-3	-17.0396E-15	3.77299E-3	-18.2525E-3
252.626E-6	-68.8062E-15	26.3290E-3	-22.4442E-3	-36.5970E-15	129.709E-6	-29.5127E-3
247.624E-6	3.06709E-15	19.3268E-3	-13.6218E-3	-45.6564E-15	5.29514E-3	-26.3758E-3
242.621E-6	-27.6597E-15	9.08310E-3	-17.4845E-3	-85.2857E-15	8.12392E-3	-15.0092E-3
237.619E-6	-79.8797E-15	9.64360E-3	-22.6190E-3	-65.3969E-15	9.66550E-3	-10.2971E-3
232.616E-6	-45.8657E-15	12.7594E-3	-30.6237E-3	-56.6689E-15	17.7762E-3	-20.6875E-3
227.614E-6	-78.7723E-15	3.09633E-3	-29.4524E-3	-48.8913E-15	20.3039E-3	-29.0554E-3
222.611E-6	-109.490E-15	-13.9647E-3	-15.6154E-3	-24.5818E-15	13.4867E-3	-27.1847E-3
217.609E-6	-94.1794E-15	-21.9260E-3	-9.07507E-3	-126.423E-15	13.5277E-3	-20.4998E-3
212.606E-6	-52.7452E-15	-6.95851E-3	-7.36173E-3	-68.3702E-15	15.5385E-3	-17.7040E-3
207.604E-6	-88.7036E-15	13.9382E-3	-5.77540E-3	-66.6874E-15	4.33557E-3	-27.8556E-3
202.601E-6	-125.325E-15	15.7134E-3	-12.1405E-3	-55.9190E-15	-2.40742E-3	-37.7556E-3
197.599E-6	-89.9069E-15	12.3863E-3	-19.1506E-3	-163.201E-15	14.1321E-3	-29.3426E-3
192.596E-6	-65.2487E-15	10.1754E-3	-15.4236E-3	-143.574E-15	24.9784E-3	-10.0007E-3
187.594E-6	-91.3543E-15	2.23017E-3	-14.1138E-3	-29.7524E-15	9.28357E-3	-165.597E-6
182.591E-6	-148.867E-15	-2.77284E-3	-18.6819E-3	-84.1347E-15	-3.28499E-3	-711.356E-6
177.589E-6	-120.128E-15	-4.58900E-3	-9.80514E-3	-130.120E-15	-1.51925E-3	-695.801E-6
172.586E-6	-80.7778E-15	-12.3990E-3	-6.00033E-3	-145.431E-15	5.68787E-3	-2.84167E-3
167.584E-6	-86.3058E-15	-14.4064E-3	-23.1340E-3	-54.8553E-15	13.1172E-3	-2.99872E-3
162.581E-6	-188.461E-15	-9.43742E-3	-34.5725E-3	-68.3702E-15	5.02005E-3	-1.87186E-3
157.579E-6	-150.157E-15	-14.9359E-3	-35.8891E-3	-153.183E-15	-6.27093E-3	-8.43845E-3
152.576E-6	-104.956E-15	-13.4166E-3	-44.4784E-3	-137.009E-15	16.6452E-6	-11.2502E-3
147.574E-6	-110.022E-15	-472.281E-6	-37.6050E-3	-89.7325E-15	4.22560E-3	-1.48497E-3
142.571E-6	-190.554E-15	-1.56480E-3	-12.3082E-3	-165.922E-15	2.72116E-3	8.02676E-3
137.569E-6	-161.780E-15	-7.47539E-3	-13.4338E-3	-142.659E-15	3.75416E-3	5.98826E-3
132.566E-6	-134.541E-15	-3.77060E-3	-22.8091E-3	-144.176E-15	-2.59253E-3	-10.3143E-3
127.564E-6	-140.531E-15	-6.10886E-3	-9.37569E-3	-146.452E-15	-2.44003E-3	-22.0687E-3
122.561E-6	-161.553E-15	-7.32123E-3	-1.19291E-3	-150.785E-15	-761.579E-6	-15.5965E-3
117.559E-6	-150.332E-15	1.16424E-3	-4.67449E-3	-164.169E-15	-5.09087E-3	-11.7868E-3
112.556E-6	-76.4791E-15	-3.32937E-3	-10.9972E-3	-93.2377E-15	-7.04796E-3	-10.0032E-3
107.554E-6	-162.643E-15	-11.8151E-3	-27.7774E-3	-178.696E-15	-10.0835E-3	-3.89471E-3
102.551E-6	-151.892E-15	-5.83605E-3	-34.6434E-3	-233.427E-15	-9.29869E-3	-2.95430E-3
97.5488E-6	-139.624E-15	-1.60972E-3	-21.4770E-3	-133.251E-15	5.79573E-3	-8.47431E-3
92.5463E-6	-130.914E-15	-6.44305E-3	-12.0617E-3	-103.919E-15	22.9516E-3	-5.72794E-3
87.5438E-6	-173.917E-15	-4.28128E-3	-12.4184E-3	-142.528E-15	23.2415E-3	8.54953E-3
82.5413E-6	-145.353E-15	8.11761E-3	-9.52201E-3	-223.112E-15	8.63782E-3	9.31221E-3
77.5388E-6	-107.991E-15	15.5033E-3	-11.2472E-3	-205.098E-15	-12.8085E-3	-8.86890E-3
72.5363E-6	-164.317E-15	16.2728E-3	-22.2990E-3	-115.367E-15	-22.2244E-3	-22.2962E-3
67.5338E-6	-183.177E-15	15.1776E-3	-26.9491E-3	-97.2224E-15	-12.3223E-3	-16.8499E-3
62.5313E-6	-206.423E-15	10.3967E-3	-26.0631E-3	-232.197E-15	-10.2382E-3	-259.504E-6
57.5288E-6	-97.7020E-15	7.52128E-3	-21.2122E-3	-238.929E-15	-20.0427E-3	3.79273E-3
52.5263E-6	-165.774E-15	3.50376E-3	-8.81636E-3	-151.518E-15	-20.7167E-3	-8.47672E-3
47.5238E-6	-218.682E-15	-4.99918E-3	-9.03289E-3	-120.424E-15	-17.2976E-3	-16.6080E-3
42.5213E-6	-180.745E-15	-2.64543E-3	-24.6042E-3	-172.932E-15	-15.5536E-3	-9.63091E-3
37.5188E-6	-107.546E-15	5.91447E-3	-33.5995E-3	-261.860E-15	-11.8907E-3	-2.56990E-3
32.5163E-6	-167.779E-15	6.95484E-3	-40.6080E-3	-146.556E-15	-8.60623E-3	-4.60781E-3
27.5138E-6	-190.990E-15	10.4014E-3	-45.3784E-3	-137.819E-15	-5.09205E-3	26.6031E-6
22.5113E-6	-181.756E-15	15.4102E-3	-33.3119E-3	-221.499E-15	3.43254E-3	7.50555E-3
17.5088E-6	-127.496E-15	7.63131E-3	-15.6072E-3	-189.752E-15	4.27269E-3	5.75406E-3
12.5063E-6	-150.279E-15	-1.31392E-3	-18.1968E-3	-181.015E-15	-3.09005E-3	2.13819E-3
7.50375E-6	-209.736E-15	-5.24823E-3	-28.9552E-3	-207.304E-15	405.160E-6	-2.75864E-3
2.50125E-6	-203.223E-15	-7.89125E-3	-28.2719E-3	-185.139E-15	7.70406E-3	-15.9838E-3
-2.50125E-6	-183.421E-15	7.51501E-3	-28.4842E-3	-161.815E-15	9.69419E-3	-20.3217E-3
-7.50375E-6	-177.937E-15	23.8885E-3	-29.5060E-3	-178.730E-15	9.10997E-3	-13.6238E-3
-12.5063E-6	-217.837E-15	10.9607E-3	-20.9770E-3	-202.970E-15	2.23973E-3	-13.1079E-3
-17.5088E-6	-199.857E-15	-6.63878E-3	-8.58456E-3	-180.239E-15	-1.43139E-3	-17.9175E-3
-22.5113E-6	-137.915E-15	-9.30565E-3	-4.60985E-3	-136.738E-15	5.97179E-3	-25.3182E-3
-27.5138E-6	-178.574E-15	-9.15908E-3	-7.27994E-3	-210.617E-15	10.7706E-3	-28.9663E-3
-32.5163E-6	-197.773E-15	1.46313E-3	-9.74890E-3	-240.324E-15	12.8347E-3	-17.6853E-3
-37.5188E-6	-155.860E-15	13.2572E-3	-12.0578E-3	-212.518E-15	11.1691E-3	205.148E-6
-42.5213E-6	-184.782E-15	3.32461E-3	-9.45013E-3	-160.089E-15	6.09912E-3	-2.47048E-3
-47.5238E-6	-248.851E-15	-6.13684E-3	-4.05123E-3	-172.749E-15	5.30621E-3	-17.4397E-3
-52.5263E-6	-218.508E-15	-3.86793E-3	222.944E-6	-304.280E-15	5.03917E-3	-17.1429E-3
-57.5288E-6	-190.815E-15	-5.35586E-3	-826.102E-6	-225.475E-15	7.90491E-3	-13.6256E-3
-62.5313E-6	-176.533E-15	-1.80593E-3	-16.1346E-3	-163.908E-15	11.4885E-3	-16.5339E-3
-67.5338E-6	-230.802E-15	7.34978E-3	-29.1488E-3	-184.145E-15	14.3295E-3	-19.1548E-3
-72.5363E-6	-197.599E-15	7.61248E-3	-22.8951E-3	-265.679E-15	3.56937E-3	-20.5669E-3
-77.5388E-6	-165.242E-15	8.02564E-3	-18.2830E-3	-233.950E-15	-15.8998E-3	-18.4861E-3
-82.5413E-6	-182.349E-15	17.8183E-3	-17.4731E-3	-180.692E-15	-8.16280E-3	-14.7353E-3
-87.5438E-6	-249.723E-15	20.7886E-3	-3.28594E-3	-166.506E-15	1.99646E-3	-18.4769E-3
-92.5463E-6	-251.702E-15	12.7652E-3	3.80575E-3	-246.035E-15	-13.2537E-3	-24.8065E-3
-97.5488E-6	-196.928E-15	7.17270E-3	-4.63565E-3	-267.755E-15	-19.0141E-3	-16.5314E-3
-102.551E-6	-217.680E-15	5.01801E-3	-10.8275E-3	-201.854E-15	-4.07043E-3	-3.53366E-3
-107.554E-6	-265.087E-15	-2.77371E-3	-14.3512E-3	-221.534E-15	6.74276E-3	-5.00272E-3
-112.556E-6	-209.335E-15	-5.91758E-3	-13.6845E-3	-211.245E-15	3.27822E-3	-13.4029E-3
-117.559E-6	-196.910E-15	4.24848E-3	-5.55122E-3	-208.577E-15	-5.59075E-3	-17.1380E-3
-122.561E-6	-206.955E-15	3.89371E-3	-2.64506E-3	-256.411E-15	-10.5828E-3	-16.9141E-3
-127.564E-6	-254.222E-15	-3.53030E-3	-14.2563E-3	-196.239E-15	-9.52802E-3	-14.0925E-3
-132.566E-6	-242.582E-15	-2.61012E-3	-26.2314E-3	-240.812E-15	-6.21440E-3	-11.6596E-3
-137.569E-6	-247.212E-15	657.914E-6	-34.0365E-3	-231.430E-15	-3.95107E-3	-5.44469E-3
-142.571E-6	-242.198E-15	16.0247E-3	-30.8827E-3	-247.936E-15	1.06362E-3	-1.86324E-3
-147.574E-6	-268.766E-15	25.0044E-3	-5.38871E-3	-261.503E-15	882.115E-6	-9.61434E-3
-152.576E-6	-248.206E-15	11.7459E-3	2.51876E-3	-247.997E-15	-7.94649E-3	-25.2750E-3
-157.579E-6	-241.004E-15	4.85518E-3	-18.2946E-3	-204.548E-15	-9.59850E-3	-28.7045E-3
-162.581E-6	-308.692E-15	7.93140E-3	-24.3211E-3	-236.339E-15	2.14501E-3	-18.6619E-3
-167.584E-6	-265.941E-15	484.767E-6	-21.8971E-3	-291.890E-15	8.50039E-3	-19.7667E-3
-172.586E-6	-220.095E-15	-8.88707E-3	-29.5551E-3	-300.095E-15	-2.12755E-3	-23.5162E-3
-177.589E-6	-253.010E-15	-5.29259E-3	-19.7567E-3	-213.041E-15	-1.57578E-3	-21.5039E-3
-182.591E-6	-283.380E-15	1.52095E-3	-6.62036E-3	-203.755E-15	18.5905E-3	-22.7704E-3
-187.594E-6	-288.053E-15	10.5450E-3	-13.3631E-3	-333.376E-15	23.9813E-3	-19.4254E-3
-192.596E-6	-240.106E-15	20.3463E-3	-14.3834E-3	-327.900E-15	11.3265E-3	-9.83836E-3
-197.599E-6	-284.705E-15	19.2006E-3	-9.82680E-3	-230.820E-15	3.80851E-3	-8.85834E-3
-202.601E-6	-266.743E-15	15.8863E-3	-13.1963E-3	-233.322E-15	2.38542E-3	-17.0621E-3
-207.604E-6	-248.389E-15	19.9433E-3	-11.6083E-3	-280.188E-15	3.72763E-3	-21.6269E-3
-212.606E-6	-215.988E-15	18.6447E-3	-10.1743E-3	-360.171E-15	1.99851E-3	-16.4669E-3
-217.609E-6	-272.969E-15	13.5586E-3	-23.9034E-3	-235.624E-15	2.66001E-3	-11.2998E-3
-222.611E-6	-305.152E-15	13.0026E-3	-31.2211E-3	-213.058E-15	5.29405E-3	-12.6369E-3
-227.614E-6	-271.347E-15	-4.06873E-3	-16.0818E-3	-334.213E-15	1.15743E-3	-14.0434E-3
-232.616E-6	-246.689E-15	-16.0987E-3	-8.62509E-3	-337.213E-15	7.38897E-3	-21.4822E-3
-237.619E-6	-319.155E-15	6.21310E-3	-16.5651E-3	-293.459E-15	18.7203E-3	-32.3013E-3
-242.621E-6	-301.612E-15	24.1263E-3	-16.0615E-3	-329.862E-15	12.1231E-3	-26.6529E-3
-247.624E-6	-296.511E-15	20.1136E-3	-14.6959E-3	-266.290E-15	-1.76803E-3	-10.4656E-3
-252.626E-6	-297.453E-15	17.2608E-3	-17.3443E-3	-313.941E-15	3.54810E-3	-11.4650E-3
-257.629E-6	-323.785E-15	12.1894E-3	-8.25541E-3	-342.880E-15	23.4257E-3	-23.6529E-3
-262.631E-6	-373.886E-15	5.63882E-3	-8.02408E-3	-334.292E-15	29.7201E-3	-18.6343E-3
-267.634E-6	-354.416E-15	14.0589E-3	-25.0918E-3	-361.853E-15	20.1430E-3	-4.50525E-3
-272.636E-6	-327.761E-15	18.6581E-3	-26.5868E-3	-321.343E-15	14.6303E-3	-12.6190E-3
-277.639E-6	-375.464E-15	19.9454E-3	-23.3113E-3	-363.615E-15	19.7058E-3	-29.5062E-3
-282.641E-6	-354.747E-15	31.1277E-3	-29.8754E-3	-441.626E-15	27.7145E-3	-27.4228E-3
-287.644E-6	-382.082E-15	34.0573E-3	-23.0511E-3	-369.090E-15	27.9655E-3	-16.8881E-3
-292.646E-6	-316.583E-15	29.9033E-3	-14.8165E-3	-347.039E-15	20.2438E-3	-4.88477E-3
-297.649E-6	-443.449E-15	33.4980E-3	-20.9637E-3	-337.971E-15	22.0979E-3	1.31832E-3
-302.651E-6	-411.327E-15	25.1510E-3	-22.3239E-3	-441.426E-15	36.6523E-3	-5.71061E-3
-307.654E-6	-404.726E-15	6.20884E-3	-20.1833E-3	-429.646E-15	43.1822E-3	-10.3495E-3
-312.656E-6	-438.583E-15	17.2497E-3	-17.9630E-3	-356.648E-15	31.0477E-3	-10.9938E-3
-317.659E-6	-454.269E-15	31.6111E-3	-7.59617E-3	-384.628E-15	15.6698E-3	-15.5801E-3
-322.661E-6	-461.689E-15	17.9169E-3	-5.00765E-3	-484.534E-15	15.6514E-3	-15.6167E-3
-327.664E-6	-416.166E-15	13.2417E-3	-24.6660E-3	-492.425E-15	22.8829E-3	-11.6470E-3
-332.666E-6	-470.766E-15	16.8463E-3	-34.0961E-3	-484.447E-15	29.8698E-3	-20.1096E-3
-337.669E-6	-485.929E-15	16.9881E-3	-24.8860E-3	-458.699E-15	36.8408E-3	-27.4178E-3
-342.671E-6	-509.297E-15	29.8093E-3	-20.6868E-3	-510.648E-15	40.2487E-3	-24.5781E-3
-347.674E-6	-472.955E-15	46.7232E-3	-4.26052E-3	-549.885E-15	43.3879E-3	-29.7531E-3
-352.676E-6	-497.099E-15	48.0997E-3	8.09787E-3	-484.020E-15	39.2938E-3	-33.6701E-3
-357.679E-6	-551.856E-15	40.1199E-3	-11.9233E-3	-487.359E-15	30.2657E-3	-19.4875E-3
-362.681E-6	-555.884E-15	40.4476E-3	-18.9460E-3	-536.301E-15	33.6831E-3	-4.17081E-3
-367.684E-6	-511.398E-15	41.7286E-3	-9.19684E-3	-542.875E-15	44.8963E-3	-8.36620E-3
-372.686E-6	-556.643E-15	46.8745E-3	-26.0073E-3	-584.257E-15	49.6420E-3	-12.7956E-3
-377.689E-6	-594.563E-15	59.6022E-3	-41.0874E-3	-560.322E-15	49.1351E-3	-6.02727E-3
-382.691E-6	-649.957E-15	55.0039E-3	-26.3896E-3	-576.087E-15	51.7004E-3	-6.83053E-3
-387.694E-6	-584.684E-15	39.5433E-3	-19.2082E-3	-605.654E-15	48.6676E-3	-12.8758E-3
-392.696E-6	-616.100E-15	34.1211E-3	-23.8917E-3	-636.250E-15	41.1043E-3	-14.4797E-3
-397.699E-6	-651.936E-15	30.3864E-3	-20.5008E-3	-656.060E-15	48.1618E-3	-14.9914E-3
-402.701E-6	-638.683E-15	34.8888E-3	-17.8534E-3	-698.497E-15	57.0526E-3	-17.5629E-3
-407.704E-6	-667.692E-15	58.3220E-3	-15.5887E-3	-657.098E-15	53.1424E-3	-18.7007E-3
-412.706E-6	-734.211E-15	69.1714E-3	-13.2137E-3	-669.087E-15	52.5091E-3	-18.7545E-3
-417.709E-6	-713.616E-15	60.5728E-3	-13.9194E-3	-744.849E-15	64.1209E-3	-19.8772E-3
-422.711E-6	-688.732E-15	59.2282E-3	-10.1781E-3	-746.697E-15	71.6910E-3	-23.0880E-3
-427.714E-6	-744.038E-15	59.2120E-3	-10.9106E-3	-726.730E-15	71.1496E-3	-33.6638E-3
-432.716E-6	-778.009E-15	54.2772E-3	-23.7819E-3	-747.909E-15	68.0324E-3	-36.6635E-3
-437.719E-6	-834.431E-15	55.1151E-3	-16.4127E-3	-836.855E-15	69.1805E-3	-18.7878E-3
-442.721E-6	-787.940E-15	60.9414E-3	1.62381E-3	-865.193E-15	71.6648E-3	-4.61841E-3
-447.724E-6	-854.695E-15	63.5829E-3	-13.3429E-3	-827.935E-15	62.7203E-3	-6.75598E-3
-452.726E-6	-898.631E-15	71.4594E-3	-28.0399E-3	-818.972E-15	61.4620E-3	-1.95842E-3
-457.729E-6	-907.691E-15	73.8383E-3	-13.9958E-3	-883.024E-15	76.0480E-3	1.49853E-3
-462.731E-6	-913.620E-15	63.4808E-3	-8.48074E-3	-935.933E-15	85.8209E-3	-5.29478E-3
-467.734E-6	-916.079E-15	75.5670E-3	-20.4104E-3	-915.355E-15	80.3735E-3	-5.29749E-3
-472.736E-6	-1.00421E-12	90.4828E-3	-26.9618E-3	-917.875E-15	77.7596E-3	-3.29185E-3
-477.739E-6	-985.450E-15	75.8294E-3	-30.7857E-3	-1.02137E-12	89.6756E-3	-7.03728E-3
-482.741E-6	-971.987E-15	76.3279E-3	-35.3859E-3	-1.01375E-12	94.6306E-3	-8.94230E-3
-487.744E-6	-1.07508E-12	86.8747E-3	-19.5341E-3	-1.11945E-12	86.3972E-3	-8.37226E-3
-492.746E-6	-1.06228E-12	78.4558E-3	-5.50965E-3	-1.11029E-12	85.2691E-3	-10.7077E-3
-497.749E-6	-1.13038E-12	79.7089E-3	-9.53646E-3	-1.13676E-12	94.9432E-3	-10.8222E-3
-502.751E-6	-1.15066E-12	84.4180E-3	-7.67171E-3	-1.14856E-12	104.767E-3	-16.5255E-3
-507.754E-6	-1.17309E-12	76.4609E-3	-19.6152E-3	-1.19098E-12	100.481E-3	-30.6551E-3
-512.756E-6	-1.20362E-12	79.4072E-3	-32.3545E-3	-1.20999E-12	88.2798E-3	-31.6438E-3
-517.759E-6	-1.23610E-12	93.6508E-3	-13.5995E-3	-1.26561E-12	94.6170E-3	-26.4775E-3
-522.761E-6	-1.23657E-12	92.2767E-3	-2.40094E-3	-1.27085E-12	107.309E-3	-32.9728E-3
-527.764E-6	-1.33955E-12	86.2920E-3	-15.0618E-3	-1.26266E-12	102.950E-3	-33.7979E-3
-532.766E-6	-1.36246E-12	91.8613E-3	-13.6022E-3	-1.37282E-12	103.626E-3	-27.0686E-3
-537.769E-6	-1.35871E-12	96.9896E-3	-8.07500E-3	-1.39836E-12	115.442E-3	-27.7073E-3
-542.771E-6	-1.41560E-12	103.656E-3	-13.7256E-3	-1.37450E-12	110.987E-3	-26.2809E-3
-547.774E-6	-1.45318E-12	107.343E-3	-3.60008E-3	-1.45485E-12	103.712E-3	-17.1369E-3
-552.776E-6	-1.52877E-12	96.9349E-3	7.71895E-3	-1.49045E-12	112.330E-3	-18.2839E-3
-557.779E-6	-1.48483E-12	94.9565E-3	-7.15098E-3	-1.51263E-12	119.974E-3	-26.7498E-3
-562.781E-6	-1.50014E-12	105.740E-3	-19.4694E-3	-1.52589E-12	116.156E-3	-24.7166E-3
-567.784E-6	-1.58787E-12	96.7626E-3	-13.3899E-3	-1.58788E-12	107.969E-3	-15.6862E-3
-572.786E-6	-1.64070E-12	90.1767E-3	-15.7518E-3	-1.67922E-12	109.171E-3	-11.3369E-3
-577.789E-6	-1.70714E-12	108.079E-3	-15.6166E-3	-1.71415E-12	126.010E-3	-22.4979E-3
-582.791E-6	-1.73097E-12	115.536E-3	-10.9792E-3	-1.76037E-12	138.269E-3	-38.4219E-3
-587.794E-6	-1.80750E-12	110.025E-3	-16.4561E-3	-1.79727E-12	130.039E-3	-43.7770E-3
-592.796E-6	-1.83575E-12	111.892E-3	-16.5813E-3	-1.87856E-12	124.100E-3	-41.4929E-3
-597.799E-6	-1.86681E-12	110.428E-3	-12.5550E-3	-1.93953E-12	133.264E-3	-32.3903E-3
-602.801E-6	-1.94191E-12	110.015E-3	-15.6945E-3	-1.93058E-12	144.286E-3	-21.7318E-3
-607.804E-6	-1.99385E-12	121.977E-3	-13.1621E-3	-1.95947E-12	141.194E-3	-24.1339E-3
-612.806E-6	-1.97174E-12	115.751E-3	-2.33909E-3	-1.98530E-12	127.773E-3	-31.5478E-3
-617.809E-6	-1.99965E-12	102.806E-3	-12.9136E-3	-2.03695E-12	130.675E-3	-19.0450E-3
-622.811E-6	-2.11483E-12	117.980E-3	-30.5047E-3	-2.07625E-12	136.007E-3	-8.28729E-3
-627.814E-6	-2.21934E-12	124.387E-3	-24.8977E-3	-2.16399E-12	120.926E-3	-10.9717E-3
-632.816E-6	-2.16242E-12	116.025E-3	-22.8372E-3	-2.12388E-12	103.035E-3	-5.00852E-3
-637.819E-6	-2.17332E-12	127.255E-3	-25.5329E-3	-2.18901E-12	101.641E-3	784.685E-6
-642.821E-6	-2.24576E-12	134.010E-3	-19.4877E-3	-2.18250E-12	117.236E-3	-8.41261E-3
-647.824E-6	-2.40234E-12	128.835E-3	-21.7061E-3	-2.31735E-12	134.423E-3	-21.5020E-3
-652.826E-6	-2.31872E-12	139.615E-3	-18.9522E-3	-2.33244E-12	143.675E-3	-20.6421E-3
-657.829E-6	-2.35479E-12	142.111E-3	-4.14123E-3	-2.27140E-12	141.505E-3	-18.9278E-3
-662.831E-6	-2.50284E-12	122.734E-3	-12.4407E-3	-2.36525E-12	133.830E-3	-23.6943E-3
-667.834E-6	-2.56443E-12	127.435E-3	-31.7187E-3	-2.53446E-12	132.948E-3	-20.4105E-3
-672.836E-6	-2.50819E-12	141.698E-3	-25.5721E-3	-2.52562E-12	141.014E-3	-12.0094E-3
-677.839E-6	-2.51162E-12	141.554E-3	-14.3567E-3	-2.41999E-12	139.583E-3	-11.6863E-3
-682.841E-6	-2.66781E-12	152.866E-3	-16.5031E-3	-2.56019E-12	117.279E-3	-20.6751E-3
-687.844E-6	-2.73348E-12	157.166E-3	-9.79706E-3	-2.74085E-12	107.733E-3	-24.5086E-3
-692.846E-6	-2.81246E-12	144.737E-3	-4.71234E-3	-2.74515E-12	125.370E-3	-19.6400E-3
-697.849E-6	-2.69712E-12	153.564E-3	-19.8740E-3	-2.57107E-12	141.643E-3	-19.0353E-3
-702.851E-6	-2.90133E-12	166.087E-3	-26.1025E-3	-2.59379E-12	146.003E-3	-12.6970E-3
-707.854E-6	-2.94889E-12	143.233E-3	-20.2342E-3	-2.82065E-12	143.286E-3	2.72307E-3
-712.856E-6	-2.93035E-12	128.784E-3	-19.2104E-3	-3.04261E-12	140.169E-3	12.3470E-3
-717.859E-6	-2.79795E-12	141.252E-3	-17.9295E-3	-2.87246E-12	142.434E-3	5.91976E-3
-722.861E-6	-2.83960E-12	137.211E-3	-25.8869E-3	-2.83780E-12	139.301E-3	-21.1154E-3
-727.864E-6	-3.05615E-12	122.213E-3	-37.3186E-3	-3.07105E-12	132.314E-3	-31.4413E-3
-732.866E-6	-3.11249E-12	113.807E-3	-27.6462E-3	-3.14180E-12	133.961E-3	-11.3057E-3
-737.869E-6	-3.02409E-12	109.830E-3	-19.4741E-3	-3.15102E-12	139.621E-3	1.75676E-3
-742.871E-6	-3.06145E-12	123.581E-3	-28.0087E-3	-3.04945E-12	149.260E-3	-3.02358E-3
-747.874E-6	-3.21203E-12	139.601E-3	-24.3843E-3	-3.14706E-12	149.637E-3	-12.0715E-3
-752.876E-6	-3.28732E-12	126.005E-3	-13.1752E-3	-3.24868E-12	131.128E-3	-22.0527E-3
-757.879E-6	-3.23293E-12	109.414E-3	-20.3676E-3	-3.27128E-12	117.997E-3	-31.4586E-3
-762.881E-6	-3.15762E-12	121.501E-3	-26.0693E-3	-3.26982E-12	125.070E-3	-31.0554E-3
-767.884E-6	-3.14282E-12	132.664E-3	-18.8184E-3	-3.38747E-12	139.409E-3	-20.7652E-3
-772.886E-6	-3.29935E-12	128.222E-3	-19.5706E-3	-3.53293E-12	137.582E-3	-16.4067E-3
-777.889E-6	-3.33830E-12	128.964E-3	-17.6306E-3	-3.54149E-12	134.174E-3	-24.1875E-3
-782.891E-6	-3.30688E-12	125.416E-3	-6.54539E-3	-3.46868E-12	143.930E-3	-23.9252E-3
-787.894E-6	-3.26592E-12	118.602E-3	-12.0397E-3	-3.40650E-12	147.260E-3	-13.4233E-3
-792.896E-6	-3.50223E-12	121.198E-3	-23.3307E-3	-3.62717E-12	142.940E-3	1.65429E-3
-797.899E-6	-3.60269E-12	120.528E-3	-27.5930E-3	-3.63026E-12	135.612E-3	-299.360E-6
-802.901E-6	-3.45393E-12	127.361E-3	-32.7054E-3	-3.74828E-12	123.459E-3	-24.4073E-3
-807.904E-6	-3.49248E-12	140.397E-3	-22.5903E-3	-3.64323E-12	121.256E-3	-30.0784E-3
-812.906E-6	-3.54494E-12	122.350E-3	-5.35234E-3	-3.69643E-12	130.774E-3	-21.6990E-3
-817.909E-6	-3.70144E-12	94.4210E-3	-3.88779E-3	-3.78524E-12	130.882E-3	-19.8367E-3
-822.911E-6	-3.74311E-12	104.833E-3	-1.21606E-3	-3.77188E-12	119.684E-3	-17.1125E-3
-827.914E-6	-3.64595E-12	117.569E-3	5.54099E-3	-3.83937E-12	104.676E-3	-12.6587E-3
-832.916E-6	-3.76573E-12	101.204E-3	-9.99804E-3	-3.88880E-12	98.9177E-3	-6.73125E-3
-837.919E-6	-3.91192E-12	92.6756E-3	-24.3404E-3	-4.01969E-12	113.563E-3	103.525E-6
-842.921E-6	-3.88499E-12	102.756E-3	-20.3907E-3	-4.13275E-12	129.488E-3	-5.83209E-3
-847.924E-6	-3.80150E-12	116.380E-3	-19.0620E-3	-4.11813E-12	120.415E-3	-15.3463E-3
-852.926E-6	-3.84059E-12	122.154E-3	-19.6372E-3	-4.03997E-12	102.074E-3	-15.1079E-3
-857.929E-6	-4.18007E-12	108.045E-3	-11.4553E-3	-4.09311E-12	99.4159E-3	-20.3073E-3
-862.931E-6	-4.12724E-12	96.5649E-3	-5.70911E-3	-4.25431E-12	98.7779E-3	-20.8260E-3
-867.934E-6	-4.00078E-12	108.255E-3	-5.50862E-3	-4.22649E-12	97.6764E-3	-14.5510E-3
-872.936E-6	-4.07007E-12	114.769E-3	1.83261E-3	-4.35655E-12	107.696E-3	-20.0853E-3
-877.939E-6	-4.44824E-12	97.1266E-3	-9.16597E-3	-4.40524E-12	118.414E-3	-27.0082E-3
-882.941E-6	-4.52410E-12	95.3210E-3	-33.5626E-3	-4.29846E-12	119.749E-3	-27.3954E-3
-887.944E-6	-4.26050E-12	112.604E-3	-30.9069E-3	-4.40010E-12	126.720E-3	-21.4912E-3
-892.946E-6	-4.25024E-12	109.394E-3	-20.9857E-3	-4.44667E-12	133.388E-3	-8.64299E-3
-897.949E-6	-4.45188E-12	109.003E-3	-27.6315E-3	-4.40657E-12	122.602E-3	-908.037E-6
-902.951E-6	-4.57753E-12	122.532E-3	-23.5982E-3	-4.39314E-12	105.782E-3	-3.80072E-3
-907.954E-6	-4.50047E-12	118.965E-3	-19.0368E-3	-4.43520E-12	95.0889E-3	-15.4658E-3
-912.956E-6	-4.44720E-12	117.267E-3	-28.0155E-3	-4.54927E-12	99.0303E-3	-24.4722E-3
-917.959E-6	-4.53992E-12	123.653E-3	-13.4201E-3	-4.54226E-12	116.789E-3	-26.4616E-3
-922.961E-6	-4.61615E-12	110.147E-3	3.07281E-3	-4.56986E-12	131.663E-3	-27.2284E-3
-927.964E-6	-4.73736E-12	106.348E-3	-12.7529E-3	-4.54951E-12	129.908E-3	-22.5540E-3
-932.966E-6	-4.73594E-12	120.119E-3	-18.7978E-3	-4.77390E-12	128.717E-3	-6.17093E-3
-937.969E-6	-4.70731E-12	123.721E-3	-7.57064E-3	-4.87774E-12	130.734E-3	4.90853E-3
-942.971E-6	-4.88198E-12	129.286E-3	-14.2767E-3	-4.67123E-12	127.326E-3	-1.96088E-3
-947.974E-6	-5.02985E-12	141.327E-3	-21.6735E-3	-4.54037E-12	125.395E-3	-13.0593E-3
-952.976E-6	-5.11328E-12	136.691E-3	-15.7155E-3	-4.71521E-12	118.609E-3	-21.3598E-3
-957.979E-6	-4.88003E-12	125.481E-3	-12.4613E-3	-5.09102E-12	108.805E-3	-26.5861E-3
-962.981E-6	-4.97942E-12	124.220E-3	-10.0600E-3	-5.06944E-12	116.076E-3	-21.7332E-3
-967.984E-6	-4.99597E-12	115.240E-3	-10.1505E-3	-4.95570E-12	137.281E-3	-14.4950E-3
-972.986E-6	-5.42473E-12	113.590E-3	-18.5865E-3	-4.88703E-12	142.307E-3	-17.8621E-3
-977.989E-6	-5.27440E-12	134.750E-3	-18.3516E-3	-5.24531E-12	124.076E-3	-20.1520E-3
-982.991E-6	-5.26192E-12	137.031E-3	-7.95641E-3	-5.31608E-12	114.846E-3	-12.0394E-3
-987.994E-6	-5.17706E-12	121.504E-3	-17.2029E-3	-5.12694E-12	126.433E-3	214.966E-6
-992.997E-6	-5.25951E-12	121.942E-3	-28.6847E-3	-5.15228E-12	145.755E-3	640.468E-6
-997.999E-6	-5.40712E-12	127.465E-3	-12.9403E-3	-5.30956E-12	168.477E-3	-12.5060E-3
-1.00300E-3	-5.29535E-12	140.949E-3	-3.59359E-3	-5.53059E-12	163.603E-3	-24.9965E-3
-1.00800E-3	-5.38935E-12	163.319E-3	-7.72076E-3	-5.34811E-12	150.690E-3	-21.4322E-3
-1.01301E-3	-5.47908E-12	162.485E-3	-3.94825E-3	-5.29315E-12	173.986E-3	-3.99946E-3
-1.01801E-3	-5.58447E-12	148.601E-3	-12.8858E-3	-5.63412E-12	196.306E-3	2.08331E-3
-1.02301E-3	-5.56853E-12	157.669E-3	-22.6776E-3	-5.72046E-12	195.438E-3	-4.59988E-3
-1.02801E-3	-5.63071E-12	163.970E-3	-11.7354E-3	-5.76419E-12	195.692E-3	-10.0881E-3
-1.03302E-3	-5.80920E-12	149.549E-3	-14.3229E-3	-5.65751E-12	203.526E-3	-10.6726E-3
-1.03802E-3	-5.74142E-12	156.184E-3	-19.9731E-3	-5.60955E-12	209.647E-3	-7.02158E-3
-1.04302E-3	-5.82404E-12	171.045E-3	-7.18346E-3	-5.73355E-12	213.784E-3	-1.15801E-3
-1.04802E-3	-5.77505E-12	178.804E-3	-16.6754E-3	-6.22629E-12	219.442E-3	-1.98600E-3
-1.05303E-3	-5.91938E-12	202.518E-3	-40.2185E-3	-6.45422E-12	227.992E-3	-4.76821E-3
-1.05803E-3	-5.96620E-12	210.784E-3	-31.2904E-3	-5.97836E-12	236.489E-3	-6.16153E-3
-1.06303E-3	-6.09121E-12	198.274E-3	-21.3248E-3	-6.10740E-12	246.035E-3	-18.6842E-3
-1.06803E-3	-6.06803E-12	204.715E-3	-31.8002E-3	-6.69720E-12	250.761E-3	-25.6380E-3
-1.07304E-3	-6.07060E-12	213.871E-3	-28.4646E-3	-7.02049E-12	251.852E-3	-22.3611E-3
-1.07804E-3	-6.29103E-12	212.386E-3	-19.5927E-3	-6.56781E-12	261.635E-3	-21.8399E-3
-1.08304E-3	-6.27014E-12	230.038E-3	-21.4036E-3	-6.21642E-12	269.047E-3	-11.3496E-3
-1.08804E-3	-6.29828E-12	243.794E-3	-17.9142E-3	-6.76087E-12	272.883E-3	9.75226E-3
-1.09305E-3	-6.42397E-12	232.972E-3	-14.2822E-3	-7.41778E-12	286.856E-3	16.7783E-3
-1.09805E-3	-6.58200E-12	242.046E-3	-21.2574E-3	-7.13737E-12	309.269E-3	3.11442E-3
-1.10305E-3	-6.74823E-12	273.788E-3	-10.2125E-3	-6.70928E-12	324.696E-3	-8.49437E-3
-1.10805E-3	-6.85742E-12	279.791E-3	2.99970E-3	-6.84940E-12	332.230E-3	-15.0587E-3
-1.11306E-3	-6.76717E-12	275.903E-3	-14.6574E-3	-7.69986E-12	338.522E-3	-19.4648E-3
-1.11806E-3	-7.01097E-12	289.354E-3	-24.9969E-3	-7.71628E-12	351.584E-3	-25.8504E-3
-1.12306E-3	-7.23409E-12	296.455E-3	-25.0002E-3	-7.27372E-12	381.872E-3	-30.5638E-3
-1.12806E-3	-7.30847E-12	304.961E-3	-37.0168E-3	-7.22943E-12	401.922E-3	-19.0919E-3
-1.13307E-3	-7.32651E-12	331.538E-3	-29.3478E-3	-7.78197E-12	407.340E-3	-3.66639E-3
-1.13807E-3	-7.43943E-12	350.240E-3	-6.49609E-3	-8.00420E-12	419.613E-3	-7.29264E-3
-1.14307E-3	-7.77885E-12	357.868E-3	-9.61523E-3	-7.76190E-12	427.111E-3	-17.0137E-3
-1.14807E-3	-8.06152E-12	368.972E-3	-18.8212E-3	-7.74173E-12	436.817E-3	-9.48888E-3
-1.15308E-3	-8.08863E-12	382.785E-3	-10.0436E-3	-8.17504E-12	451.160E-3	-1.82621E-3
-1.15808E-3	-7.90636E-12	412.359E-3	-8.84013E-3	-8.45765E-12	462.149E-3	-5.80468E-3
-1.16308E-3	-8.39653E-12	440.145E-3	-9.12431E-3	-8.50121E-12	484.685E-3	-14.2823E-3
-1.16808E-3	-8.67505E-12	446.444E-3	679.304E-6	-8.44881E-12	510.036E-3	-18.8605E-3
-1.17309E-3	-8.74848E-12	454.070E-3	-7.96884E-3	-8.77526E-12	534.142E-3	-13.7235E-3
-1.17809E-3	-8.70148E-12	474.713E-3	-10.9610E-3	-9.07124E-12	559.512E-3	-6.53507E-3
-1.18309E-3	-8.92286E-12	485.354E-3	4.87901E-3	-9.24898E-12	573.544E-3	-7.48062E-3
-1.18809E-3	-9.35839E-12	484.899E-3	-498.701E-6	-9.31690E-12	582.790E-3	-11.3017E-3
-1.19310E-3	-9.19970E-12	506.669E-3	-8.30585E-3	-9.53281E-12	599.657E-3	-8.70709E-3
-1.19810E-3	-9.24390E-12	528.923E-3	-3.35060E-3	-9.79538E-12	618.892E-3	2.62661E-3
-1.20310E-3	-9.54053E-12	534.394E-3	-10.4324E-3	-9.85741E-12	636.613E-3	-1.74703E-3
-1.20810E-3	-10.0723E-12	549.981E-3	-18.7461E-3	-10.2802E-12	655.060E-3	-19.8202E-3
-1.21311E-3	-10.0332E-12	565.062E-3	-17.3180E-3	-10.4044E-12	676.117E-3	-21.9423E-3
-1.21811E-3	-10.0397E-12	570.686E-3	-23.9290E-3	-10.4098E-12	692.446E-3	-19.2031E-3
-1.22311E-3	-10.6245E-12	586.620E-3	-28.1965E-3	-10.4171E-12	698.333E-3	-19.8253E-3
-1.22811E-3	-11.1789E-12	615.657E-3	-15.0717E-3	-11.0155E-12	712.380E-3	-14.6695E-3
-1.23312E-3	-11.3093E-12	651.222E-3	-18.1744E-3	-11.2734E-12	725.948E-3	-10.4775E-3
-1.23812E-3	-11.3033E-12	677.092E-3	-25.5599E-3	-11.1372E-12	737.281E-3	-7.44857E-3
-1.24312E-3	-11.6694E-12	684.443E-3	-1.55535E-3	-11.4260E-12	763.814E-3	-6.99308E-3
-1.24812E-3	-11.8916E-12	692.393E-3	3.63159E-3	-11.7532E-12	779.441E-3	-20.9742E-3
-1.25313E-3	-12.3538E-12	719.690E-3	-18.5033E-3	-12.1929E-12	792.054E-3	-26.4575E-3
-1.25813E-3	-12.6996E-12	747.832E-3	-16.1501E-3	-12.1759E-12	821.616E-3	-16.5154E-3
-1.26313E-3	-12.7322E-12	761.384E-3	-6.48458E-3	-12.4859E-12	842.500E-3	-17.4019E-3
-1.26813E-3	-13.1300E-12	783.251E-3	-9.84026E-3	-13.0650E-12	846.583E-3	-22.9240E-3
-1.27314E-3	-13.4424E-12	801.322E-3	-14.7040E-3	-13.0033E-12	856.121E-3	-16.3638E-3
-1.27814E-3	-13.8969E-12	798.321E-3	-26.5167E-3	-13.0975E-12	879.255E-3	-13.0028E-3
-1.28314E-3	-13.8349E-12	812.951E-3	-34.7230E-3	-13.3588E-12	887.602E-3	-12.1664E-3
-1.28814E-3	-13.8886E-12	853.223E-3	-20.1005E-3	-14.1524E-12	890.807E-3	-7.71252E-3
-1.29315E-3	-14.2754E-12	880.007E-3	-2.66897E-3	-14.2140E-12	918.370E-3	-15.1900E-3
-1.29815E-3	-14.9784E-12	899.622E-3	-3.07360E-3	-14.2841E-12	946.642E-3	-16.3939E-3
-1.30315E-3	-15.0588E-12	921.485E-3	-6.42689E-3	-14.5262E-12	958.122E-3	-977.932E-6
-1.30815E-3	-15.0390E-12	922.855E-3	-8.83698E-3	-15.3748E-12	964.753E-3	4.64178E-3
-1.31316E-3	-15.4510E-12	923.526E-3	-21.0415E-3	-15.4565E-12	972.129E-3	-3.61601E-3
-1.31816E-3	-15.9029E-12	942.213E-3	-23.2711E-3	-15.6095E-12	985.011E-3	-9.93896E-3
-1.32316E-3	-16.3285E-12	948.804E-3	-16.6556E-3	-15.8850E-12	1.00666E+0	-10.3004E-3
-1.32816E-3	-16.4164E-12	958.525E-3	-20.7240E-3	-16.1651E-12	1.02212E+0	-16.1232E-3
-1.33317E-3	-16.8625E-12	987.808E-3	-17.0753E-3	-16.5256E-12	1.02727E+0	-20.6433E-3
-1.33817E-3	-17.2354E-12	1.00253E+0	-18.4152E-3	-16.8381E-12	1.04327E+0	-16.7978E-3
-1.34317E-3	-17.8372E-12	1.01385E+0	-33.7283E-3	-17.0362E-12	1.06519E+0	-18.7176E-3
-1.34817E-3	-17.8278E-12	1.02810E+0	-24.7503E-3	-17.2290E-12	1.07619E+0	-14.9770E-3
-1.35318E-3	-17.9229E-12	1.03070E+0	-9.46783E-3	-17.8802E-12	1.08166E+0	-3.32625E-3
-1.35818E-3	-18.5898E-12	1.04662E+0	-18.4387E-3	-18.3889E-12	1.09089E+0	-6.07954E-3
-1.36318E-3	-19.1954E-12	1.07521E+0	-19.4892E-3	-18.6788E-12	1.10637E+0	-14.5273E-3
-1.36818E-3	-19.3679E-12	1.08855E+0	-9.43183E-3	-18.8325E-12	1.11891E+0	-18.5701E-3
-1.37319E-3	-19.8720E-12	1.09565E+0	-20.4534E-3	-19.2045E-12	1.12358E+0	-21.2982E-3
-1.37819E-3	-20.2412E-12	1.11417E+0	-26.0019E-3	-19.9444E-12	1.12766E+0	-23.1995E-3
-1.38319E-3	-20.5362E-12	1.12116E+0	-11.4023E-3	-20.2758E-12	1.14319E+0	-22.7842E-3
-1.38819E-3	-20.4520E-12	1.11897E+0	-16.4717E-3	-20.4498E-12	1.15949E+0	-15.7630E-3
-1.39320E-3	-21.0617E-12	1.13008E+0	-31.2022E-3	-20.7275E-12	1.15905E+0	-6.98873E-3
-1.39820E-3	-21.4256E-12	1.13300E+0	-19.8699E-3	-21.3609E-12	1.16636E+0	-9.88833E-3
-1.40320E-3	-21.6291E-12	1.12535E+0	-20.8806E-3	-21.9065E-12	1.17871E+0	-27.3038E-3
-1.40820E-3	-21.9129E-12	1.13276E+0	-29.7001E-3	-22.1472E-12	1.17289E+0	-28.5638E-3
-1.41321E-3	-22.2314E-12	1.15111E+0	-17.8752E-3	-22.5264E-12	1.16840E+0	-12.0881E-3
-1.41821E-3	-22.9134E-12	1.16068E+0	-29.1008E-3	-23.0882E-12	1.16748E+0	-3.97440E-3
-1.42321E-3	-23.0928E-12	1.16237E+0	-43.5136E-3	-23.7969E-12	1.17154E+0	-1.04153E-3
-1.42821E-3	-23.2241E-12	1.15704E+0	-21.6168E-3	-24.1783E-12	1.18381E+0	-5.67403E-3
-1.43322E-3	-23.8242E-12	1.14662E+0	-11.8848E-3	-24.2924E-12	1.19110E+0	-12.4763E-3
-1.43822E-3	-24.5599E-12	1.15500E+0	-30.4980E-3	-24.6288E-12	1.18893E+0	-9.50424E-3
-1.44322E-3	-25.0017E-12	1.17569E+0	-36.6354E-3	-25.0150E-12	1.17831E+0	-8.54536E-3
-1.44822E-3	-25.0782E-12	1.17681E+0	-25.6271E-3	-25.4319E-12	1.18310E+0	-17.8240E-3
-1.45323E-3	-25.4453E-12	1.18122E+0	-12.0007E-3	-25.6085E-12	1.20077E+0	-18.0241E-3
-1.45823E-3	-26.1037E-12	1.18485E+0	925.729E-6	-26.0409E-12	1.20639E+0	-6.00194E-3
-1.46323E-3	-26.5625E-12	1.17778E+0	578.813E-6	-26.6461E-12	1.19795E+0	-4.91960E-3
-1.46823E-3	-26.6333E-12	1.19886E+0	-17.6519E-3	-27.1011E-12	1.18084E+0	-13.3263E-3
-1.47324E-3	-27.1123E-12	1.21016E+0	-13.5136E-3	-27.6551E-12	1.18187E+0	-18.4280E-3
-1.47824E-3	-27.5205E-12	1.18315E+0	1.46014E-3	-27.8646E-12	1.20384E+0	-17.5814E-3
-1.48324E-3	-28.0758E-12	1.18052E+0	-11.8661E-3	-28.2916E-12	1.22131E+0	-11.9625E-3
-1.48824E-3	-27.9740E-12	1.20386E+0	-19.1632E-3	-28.8788E-12	1.23000E+0	-6.20259E-3
-1.49325E-3	-28.1715E-12	1.20256E+0	-16.8798E-3	-29.3559E-12	1.21882E+0	-1.64641E-3
-1.49825E-3	-28.4625E-12	1.18967E+0	-24.5419E-3	-29.6969E-12	1.19815E+0	999.616E-6
-1.50325E-3	-29.0586E-12	1.18508E+0	-20.3138E-3	-29.7105E-12	1.20076E+0	-2.85231E-3
-1.50825E-3	-29.6555E-12	1.16910E+0	-8.18817E-3	-30.2216E-12	1.20568E+0	-14.4025E-3
-1.51326E-3	-29.8576E-12	1.16204E+0	-7.40829E-3	-30.7263E-12	1.19511E+0	-26.2690E-3
-1.51826E-3	-30.1949E-12	1.17109E+0	-756.984E-6	-31.2953E-12	1.18719E+0	-30.0049E-3
-1.52326E-3	-30.9475E-12	1.14828E+0	12.4255E-3	-31.6459E-12	1.18268E+0	-29.5400E-3
-1.52826E-3	-31.4601E-12	1.12481E+0	15.3673E-3	-31.5509E-12	1.17425E+0	-34.2285E-3
-1.53327E-3	-32.4015E-12	1.14545E+0	23.6192E-3	-31.7947E-12	1.16412E+0	-39.4015E-3
-1.53827E-3	-32.6182E-12	1.17620E+0	18.5090E-3	-32.1193E-12	1.15614E+0	-34.5492E-3
-1.54327E-3	-32.7102E-12	1.19840E+0	-15.1900E-3	-32.4152E-12	1.15095E+0	-25.7916E-3
-1.54827E-3	-33.2118E-12	1.20737E+0	-28.7487E-3	-32.4909E-12	1.14608E+0	-23.6819E-3
-1.55328E-3	-34.3611E-12	1.18798E+0	-13.8673E-3	-32.9238E-12	1.14240E+0	-19.4287E-3
-1.55828E-3	-34.8281E-12	1.17550E+0	-13.6565E-3	-33.5967E-12	1.13820E+0	-6.97914E-3
-1.56328E-3	-34.4685E-12	1.18762E+0	-21.8070E-3	-33.8861E-12	1.14182E+0	1.29086E-3
-1.56828E-3	-34.7766E-12	1.17422E+0	-13.6420E-3	-33.8964E-12	1.15111E+0	51.4879E-6
-1.57329E-3	-35.5520E-12	1.14625E+0	-14.7977E-3	-34.7149E-12	1.14813E+0	-8.93080E-3
-1.57829E-3	-36.1723E-12	1.14690E+0	-22.6068E-3	-35.7958E-12	1.13580E+0	-13.0544E-3
-1.58329E-3	-35.8584E-12	1.15355E+0	-20.4160E-3	-35.9207E-12	1.13078E+0	-6.59840E-3
-1.58829E-3	-36.1500E-12	1.15392E+0	-23.8395E-3	-36.3547E-12	1.13309E+0	-2.76933E-3
-1.59330E-3	-36.9786E-12	1.15971E+0	-24.8558E-3	-36.4193E-12	1.12897E+0	-4.22584E-3
-1.59830E-3	-37.5810E-12	1.15199E+0	-24.2680E-3	-37.0390E-12	1.12074E+0	1.08337E-3
-1.60330E-3	-37.3408E-12	1.13286E+0	-29.9489E-3	-37.3910E-12	1.10844E+0	-1.40107E-3
-1.60830E-3	-37.4380E-12	1.13032E+0	-27.9640E-3	-37.8830E-12	1.09372E+0	-13.0259E-3
-1.61331E-3	-37.9309E-12	1.12713E+0	-17.1356E-3	-38.2197E-12	1.09131E+0	-7.88588E-3
-1.61831E-3	-38.7077E-12	1.11632E+0	-11.2357E-3	-38.5457E-12	1.09734E+0	-6.00037E-3
-1.62331E-3	-39.1490E-12	1.12437E+0	-15.7648E-3	-38.8866E-12	1.09641E+0	-16.0351E-3
-1.62831E-3	-39.4957E-12	1.13346E+0	-10.2884E-3	-39.0830E-12	1.09136E+0	-16.6042E-3
-1.63332E-3	-39.7167E-12	1.11738E+0	-1.08235E-3	-39.6811E-12	1.08173E+0	-12.2911E-3
-1.63832E-3	-40.2997E-12	1.10800E+0	627.258E-6	-39.6350E-12	1.06591E+0	-17.0092E-3
-1.64332E-3	-40.8154E-12	1.11298E+0	3.32708E-3	-40.0893E-12	1.06386E+0	-20.0065E-3
-1.64832E-3	-41.6628E-12	1.10449E+0	-9.99731E-3	-39.9680E-12	1.06854E+0	-22.8408E-3
-1.65333E-3	-41.7670E-12	1.09576E+0	-22.0061E-3	-40.6412E-12	1.05683E+0	-24.4383E-3
-1.65833E-3	-41.8215E-12	1.09732E+0	-6.36869E-3	-40.8596E-12	1.03633E+0	-14.7375E-3
-1.66333E-3	-42.2492E-12	1.10111E+0	-3.55630E-3	-40.9417E-12	1.02504E+0	-11.8300E-3
-1.66833E-3	-43.0223E-12	1.09732E+0	-19.3461E-3	-41.4430E-12	1.02028E+0	-18.0622E-3
-1.67334E-3	-43.1433E-12	1.08214E+0	-21.1362E-3	-42.1142E-12	1.01917E+0	-17.5221E-3
-1.67834E-3	-43.2824E-12	1.06783E+0	-24.6434E-3	-42.4463E-12	1.01949E+0	-18.4524E-3
-1.68334E-3	-43.2715E-12	1.06592E+0	-38.3109E-3	-42.4444E-12	1.00035E+0	-28.3559E-3
-1.68834E-3	-43.8083E-12	1.06696E+0	-37.1352E-3	-43.0827E-12	985.006E-3	-35.9625E-3
-1.69335E-3	-44.3543E-12	1.05880E+0	-19.4377E-3	-43.5025E-12	994.799E-3	-37.1185E-3
-1.69835E-3	-44.2059E-12	1.04701E+0	-18.7728E-3	-43.5401E-12	997.857E-3	-38.3364E-3
-1.70335E-3	-44.2996E-12	1.03684E+0	-19.3225E-3	-43.8367E-12	989.517E-3	-28.7401E-3
-1.70835E-3	-44.7955E-12	1.02350E+0	-6.62816E-3	-44.0840E-12	983.528E-3	-10.5420E-3
-1.71336E-3	-44.8482E-12	1.01167E+0	-3.41870E-3	-44.8226E-12	975.513E-3	-21.9859E-3
-1.71836E-3	-45.1019E-12	1.00698E+0	-2.32621E-3	-44.9431E-12	961.941E-3	-39.1303E-3
-1.72336E-3	-45.6210E-12	987.270E-3	-10.6375E-3	-45.4050E-12	958.613E-3	-17.0839E-3
-1.72836E-3	-46.4505E-12	965.283E-3	-25.3990E-3	-45.8751E-12	966.205E-3	-1.29027E-3
-1.73337E-3	-46.5991E-12	962.994E-3	-17.8165E-3	-46.0963E-12	961.374E-3	-17.3314E-3
-1.73837E-3	-47.1053E-12	958.797E-3	-1.73330E-3	-46.3182E-12	951.882E-3	-21.3738E-3
-1.74337E-3	-48.0573E-12	961.526E-3	-3.69222E-3	-46.7560E-12	951.002E-3	-24.9014E-3
-1.74837E-3	-47.8608E-12	980.814E-3	-11.2162E-3	-46.7297E-12	954.340E-3	-38.6917E-3
-1.75338E-3	-47.8738E-12	984.884E-3	-19.0341E-3	-47.0932E-12	956.427E-3	-21.5902E-3
-1.75838E-3	-48.4996E-12	965.061E-3	-24.9140E-3	-47.6589E-12	944.610E-3	2.60999E-3
-1.76338E-3	-48.9908E-12	957.934E-3	-13.6312E-3	-48.4180E-12	932.051E-3	5.58055E-3
-1.76838E-3	-49.0140E-12	963.789E-3	-3.13434E-3	-48.1516E-12	939.647E-3	6.98339E-3
-1.77339E-3	-49.4052E-12	957.425E-3	-9.87080E-3	-48.5646E-12	946.619E-3	5.05186E-3
-1.77839E-3	-49.6298E-12	948.528E-3	-21.9238E-3	-48.8778E-12	939.061E-3	1.84583E-3
-1.78339E-3	-50.3474E-12	934.910E-3	-25.7535E-3	-49.2207E-12	923.574E-3	2.02100E-3
-1.78839E-3	-50.5270E-12	928.657E-3	-27.7494E-3	-49.8552E-12	919.214E-3	-15.4582E-3
-1.79340E-3	-50.1561E-12	943.803E-3	-29.8404E-3	-50.2008E-12	930.009E-3	-32.0171E-3
-1.79840E-3	-50.2497E-12	941.644E-3	-15.0435E-3	-50.2636E-12	929.096E-3	-24.7716E-3
-1.80340E-3	-50.8519E-12	924.980E-3	-3.53721E-3	-50.5552E-12	919.092E-3	-17.7365E-3
-1.80840E-3	-50.5796E-12	931.922E-3	-9.56019E-3	-51.1824E-12	904.603E-3	-14.7233E-3
-1.81341E-3	-50.1258E-12	942.244E-3	-9.47653E-3	-51.4566E-12	890.571E-3	-6.59349E-3
-1.81841E-3	-50.7622E-12	932.013E-3	-12.8770E-3	-51.7306E-12	897.783E-3	-3.50918E-3
-1.82341E-3	-51.2087E-12	919.797E-3	-29.6168E-3	-52.0703E-12	909.161E-3	-9.18556E-3
-1.82841E-3	-51.5477E-12	905.471E-3	-34.8696E-3	-52.5735E-12	904.586E-3	-9.98850E-3
-1.83342E-3	-51.5796E-12	884.918E-3	-29.1730E-3	-53.5240E-12	899.521E-3	-14.1961E-3
-1.83842E-3	-52.1577E-12	881.194E-3	-26.4622E-3	-53.5281E-12	897.939E-3	-23.2537E-3
-1.84342E-3	-52.3894E-12	883.427E-3	-17.8256E-3	-53.5087E-12	886.886E-3	-17.0248E-3
-1.84842E-3	-52.7085E-12	882.795E-3	-15.1086E-3	-53.6597E-12	869.329E-3	-14.2658E-3
-1.85343E-3	-53.1481E-12	887.200E-3	-36.2532E-3	-54.1776E-12	859.564E-3	-22.9222E-3
-1.85843E-3	-53.3264E-12	876.882E-3	-45.8434E-3	-54.0214E-12	858.710E-3	-20.3098E-3
-1.86343E-3	-54.3293E-12	857.213E-3	-18.2384E-3	-54.1673E-12	865.697E-3	-13.8510E-3
-1.86843E-3	-55.1139E-12	856.323E-3	4.86871E-3	-54.6184E-12	868.306E-3	-15.9371E-3
-1.87344E-3	-55.7243E-12	872.242E-3	3.73220E-3	-54.9619E-12	861.438E-3	-11.4517E-3
-1.87844E-3	-55.8299E-12	878.986E-3	5.49506E-3	-54.9356E-12	861.377E-3	-8.21189E-3
-1.88344E-3	-56.3429E-12	867.594E-3	3.39434E-3	-55.2279E-12	858.649E-3	-20.8145E-3
-1.88844E-3	-56.9110E-12	860.816E-3	736.746E-6	-56.1701E-12	847.379E-3	-20.4786E-3
-1.89345E-3	-56.9734E-12	866.427E-3	9.97312E-3	-56.0244E-12	837.095E-3	-13.5925E-3
-1.89845E-3	-57.0440E-12	879.418E-3	6.37795E-3	-55.8664E-12	826.601E-3	-27.5694E-3
-1.90345E-3	-57.1750E-12	889.596E-3	-7.54286E-3	-56.1157E-12	820.909E-3	-31.5394E-3
-1.90845E-3	-57.2758E-12	888.310E-3	-7.47708E-3	-57.0722E-12	822.118E-3	-16.3501E-3
-1.91346E-3	-56.6598E-12	877.941E-3	-10.0373E-3	-57.4866E-12	815.446E-3	-11.5707E-3
-1.91846E-3	-56.9008E-12	861.008E-3	-19.6710E-3	-57.0100E-12	809.447E-3	-11.6931E-3
-1.92346E-3	-57.5322E-12	853.760E-3	-16.4232E-3	-57.1768E-12	819.745E-3	-3.82457E-3
-1.92846E-3	-57.7039E-12	859.081E-3	-16.6484E-3	-57.6889E-12	825.437E-3	-6.27460E-3
-1.93347E-3	-57.6020E-12	855.840E-3	-14.2391E-3	-58.6033E-12	811.380E-3	-17.7370E-3
-1.93847E-3	-58.6146E-12	830.346E-3	-2.60118E-3	-58.0802E-12	803.901E-3	-17.4191E-3
-1.94347E-3	-59.1731E-12	810.318E-3	-360.892E-6	-57.8875E-12	816.935E-3	-13.4677E-3
-1.94847E-3	-59.2741E-12	827.168E-3	1.53964E-3	-57.7715E-12	819.541E-3	-17.5482E-3
-1.95348E-3	-59.8289E-12	845.441E-3	-6.33148E-3	-58.7589E-12	803.663E-3	-23.5579E-3
-1.95848E-3	-60.3226E-12	848.418E-3	-25.9958E-3	-59.2270E-12	803.988E-3	-21.8099E-3
-1.96348E-3	-61.2452E-12	846.450E-3	-19.7714E-3	-58.9242E-12	827.528E-3	-16.6691E-3
-1.96848E-3	-61.2007E-12	827.225E-3	-4.41575E-3	-59.0855E-12	830.563E-3	-17.1461E-3
-1.97349E-3	-61.9705E-12	823.133E-3	-11.7135E-3	-59.5666E-12	805.898E-3	-17.0280E-3
-1.97849E-3	-61.9772E-12	845.434E-3	-15.2664E-3	-60.8421E-12	794.370E-3	-17.0280E-3
-1.98349E-3	-62.4949E-12	838.494E-3	-10.6964E-3	-60.4116E-12	815.017E-3	-8.32116E-3
-1.98849E-3	-62.8612E-12	812.849E-3	-20.5754E-3	-60.1279E-12	836.958E-3	3.62108E-3
-1.99350E-3	-63.3679E-12	816.569E-3	-30.9516E-3	-60.7091E-12	824.184E-3	-2.98639E-3
-1.99850E-3	-63.0684E-12	831.166E-3	-19.9739E-3	-62.0707E-12	802.113E-3	-12.6490E-3
-2.00350E-3	-62.3495E-12	825.895E-3	-2.30086E-3	-62.2780E-12	800.353E-3	-13.5019E-3
-2.00850E-3	-62.7081E-12	812.722E-3	-3.01910E-3	-62.6514E-12	794.923E-3	-7.75473E-3
-2.01351E-3	-62.5454E-12	795.970E-3	-24.2646E-3	-63.3386E-12	798.626E-3	-1.53610E-3
-2.01851E-3	-62.4908E-12	781.644E-3	-39.1190E-3	-64.1968E-12	816.834E-3	2.06072E-3
-2.02351E-3	-62.5470E-12	796.843E-3	-35.0235E-3	-64.5189E-12	820.460E-3	3.30858E-3
-2.02851E-3	-63.1648E-12	820.094E-3	-27.3542E-3	-63.9820E-12	831.082E-3	403.512E-6
-2.03352E-3	-63.0850E-12	806.939E-3	-26.4861E-3	-64.2231E-12	848.606E-3	-13.3524E-3
-2.03852E-3	-63.2747E-12	776.460E-3	-20.8204E-3	-65.1922E-12	844.326E-3	-24.3440E-3
-2.04352E-3	-63.3914E-12	767.073E-3	-2.03539E-3	-66.4442E-12	826.103E-3	-14.2276E-3
-2.04852E-3	-63.6341E-12	772.234E-3	4.46334E-3	-66.0392E-12	825.291E-3	-12.8095E-3
-2.05353E-3	-64.5344E-12	781.176E-3	-16.5479E-3	-65.1964E-12	821.173E-3	-29.4371E-3
-2.05853E-3	-64.7850E-12	781.681E-3	-34.0122E-3	-66.4110E-12	799.826E-3	-29.0896E-3
-2.06353E-3	-64.5845E-12	763.218E-3	-24.7507E-3	-67.3122E-12	794.168E-3	-16.6001E-3
-2.06853E-3	-64.9568E-12	753.170E-3	-11.6025E-3	-67.5832E-12	800.611E-3	-13.2609E-3
-2.07354E-3	-65.8855E-12	767.554E-3	-7.97971E-3	-66.7675E-12	802.459E-3	-3.95338E-3
-2.07854E-3	-65.8744E-12	774.568E-3	-17.0084E-3	-67.1918E-12	807.117E-3	-3.97562E-3
-2.08354E-3	-66.1708E-12	768.031E-3	-30.3992E-3	-68.0533E-12	798.334E-3	-31.6802E-3
-2.08854E-3	-66.6534E-12	770.457E-3	-19.2397E-3	-68.5083E-12	775.821E-3	-45.6411E-3
-2.09355E-3	-67.0668E-12	775.575E-3	-5.50623E-3	-68.5994E-12	771.569E-3	-35.6111E-3
-2.09855E-3	-67.2858E-12	785.835E-3	-21.5097E-3	-68.8802E-12	781.084E-3	-35.7732E-3
-2.10355E-3	-67.4906E-12	801.638E-3	-30.0636E-3	-69.1207E-12	793.706E-3	-29.4032E-3
-2.10855E-3	-67.4740E-12	811.249E-3	-19.3459E-3	-69.0687E-12	806.593E-3	-6.43179E-3
-2.11356E-3	-67.5747E-12	793.892E-3	-18.0848E-3	-69.2133E-12	793.601E-3	-1.60363E-3
-2.11856E-3	-67.8876E-12	765.905E-3	-18.1766E-3	-69.7250E-12	762.608E-3	-5.42229E-3
-2.12356E-3	-67.8688E-12	764.661E-3	-4.46732E-3	-69.9875E-12	750.502E-3	-17.9257E-3
-2.12856E-3	-67.7055E-12	771.322E-3	-1.81639E-3	-70.0303E-12	746.380E-3	-44.1046E-3
-2.13357E-3	-67.9843E-12	765.860E-3	-22.5477E-3	-69.8450E-12	735.063E-3	-43.0112E-3
-2.13857E-3	-68.3458E-12	759.773E-3	-31.0277E-3	-70.3670E-12	741.995E-3	-21.0999E-3
-2.14357E-3	-68.3276E-12	764.619E-3	-18.8599E-3	-69.7717E-12	763.090E-3	-7.37178E-3
-2.14857E-3	-68.7008E-12	776.659E-3	-5.45798E-3	-69.8230E-12	755.107E-3	-1.39023E-3
-2.15358E-3	-68.5659E-12	779.154E-3	-11.5656E-3	-69.8252E-12	734.924E-3	-7.00090E-3
-2.15858E-3	-69.2527E-12	759.339E-3	-38.8723E-3	-70.1826E-12	736.489E-3	-11.1416E-3
-2.16358E-3	-70.2516E-12	747.914E-3	-49.0625E-3	-70.0282E-12	742.090E-3	-10.5790E-3
-2.16858E-3	-70.9028E-12	760.003E-3	-34.7571E-3	-70.4301E-12	742.104E-3	-12.7868E-3
-2.17359E-3	-71.2193E-12	758.934E-3	-27.8807E-3	-70.7663E-12	742.954E-3	-25.9901E-3
-2.17859E-3	-71.0276E-12	748.311E-3	-25.9405E-3	-71.0417E-12	747.799E-3	-36.8481E-3
-2.18359E-3	-71.3179E-12	752.133E-3	-20.5039E-3	-71.0662E-12	751.132E-3	-23.2261E-3
-2.18859E-3	-72.1338E-12	760.691E-3	-18.3888E-3	-71.4866E-12	743.930E-3	-14.7249E-3
-2.19360E-3	-72.8252E-12	763.430E-3	-24.8902E-3	-72.4659E-12	738.864E-3	-18.1835E-3
-2.19860E-3	-73.1293E-12	754.414E-3	-38.8146E-3	-72.6286E-12	746.272E-3	-11.4586E-3
-2.20360E-3	-73.3323E-12	740.329E-3	-39.7527E-3	-72.5743E-12	742.874E-3	-7.08398E-3
-2.20860E-3	-73.7537E-12	740.334E-3	-28.3001E-3	-72.7086E-12	737.502E-3	-15.3560E-3
-2.21361E-3	-74.2266E-12	741.101E-3	-23.4337E-3	-72.9541E-12	749.529E-3	-21.7876E-3
-2.21861E-3	-73.7414E-12	739.965E-3	-30.8649E-3	-73.0955E-12	749.793E-3	-17.2431E-3
-2.22361E-3	-74.1332E-12	745.829E-3	-38.2097E-3	-73.5804E-12	728.788E-3	-13.6198E-3
-2.22861E-3	-74.0378E-12	752.595E-3	-40.2998E-3	-73.9658E-12	723.566E-3	-10.1306E-3
-2.23362E-3	-73.8661E-12	754.549E-3	-40.5636E-3	-73.6914E-12	744.088E-3	1.72345E-3
-2.23862E-3	-73.7312E-12	738.194E-3	-27.9991E-3	-74.5267E-12	741.847E-3	-4.78597E-3
-2.24362E-3	-74.2055E-12	718.049E-3	-6.94818E-3	-74.3542E-12	724.253E-3	-26.6408E-3
-2.24862E-3	-74.2734E-12	733.108E-3	5.36387E-3	-73.9680E-12	724.841E-3	-25.1954E-3
-2.25363E-3	-73.7658E-12	771.399E-3	1.60390E-3	-74.0748E-12	722.632E-3	-20.2462E-3
-2.25863E-3	-74.3441E-12	783.195E-3	-17.9177E-3	-74.7065E-12	716.946E-3	-18.0684E-3
-2.26363E-3	-74.8977E-12	767.504E-3	-25.1771E-3	-74.7890E-12	720.675E-3	-22.8289E-3
-2.26863E-3	-75.4445E-12	748.681E-3	-14.7212E-3	-75.1345E-12	720.606E-3	-42.0017E-3
-2.27364E-3	-75.3011E-12	733.313E-3	-7.21066E-3	-74.8860E-12	712.907E-3	-40.8703E-3
-2.27864E-3	-76.0773E-12	733.341E-3	2.87805E-3	-74.8840E-12	712.664E-3	-30.0007E-3
-2.28364E-3	-76.5925E-12	744.789E-3	4.11457E-3	-74.9569E-12	707.995E-3	-30.9972E-3
-2.28864E-3	-77.0485E-12	742.328E-3	-10.0432E-3	-75.3527E-12	702.663E-3	-24.3580E-3
-2.29365E-3	-77.3426E-12	736.428E-3	-3.87789E-3	-75.4032E-12	708.283E-3	-10.8328E-3
-2.29865E-3	-77.2389E-12	735.613E-3	13.3270E-3	-75.8293E-12	718.453E-3	-3.59485E-3
-2.30365E-3	-77.6959E-12	739.245E-3	8.12948E-3	-75.7160E-12	736.987E-3	12.9555E-3
-2.30865E-3	-78.0608E-12	751.379E-3	-7.98137E-3	-76.5385E-12	750.214E-3	20.3047E-3
-2.31366E-3	-78.4421E-12	755.885E-3	-13.8945E-3	-77.4900E-12	739.186E-3	1.56253E-3
-2.31866E-3	-78.5527E-12	743.946E-3	-7.09345E-3	-77.9661E-12	709.802E-3	-17.1592E-3
-2.32366E-3	-78.8063E-12	724.194E-3	-3.76489E-3	-77.6523E-12	704.673E-3	-33.4780E-3
-2.32866E-3	-79.5633E-12	719.486E-3	-5.91567E-3	-77.1887E-12	736.790E-3	-44.8657E-3
-2.33367E-3	-78.6438E-12	728.586E-3	-9.97459E-3	-77.2839E-12	756.833E-3	-40.6705E-3
-2.33867E-3	-77.8763E-12	729.338E-3	-27.6853E-3	-78.0207E-12	749.283E-3	-32.4274E-3
-2.34367E-3	-78.4007E-12	716.124E-3	-32.2170E-3	-79.2335E-12	726.127E-3	-25.3388E-3
-2.34867E-3	-80.0764E-12	704.141E-3	-12.8998E-3	-79.2706E-12	703.971E-3	-7.25287E-3
-2.35368E-3	-79.6012E-12	708.835E-3	-5.60429E-3	-79.1555E-12	699.417E-3	12.4034E-3
-2.35868E-3	-79.0791E-12	715.023E-3	-13.3410E-3	-79.6664E-12	705.013E-3	13.0144E-3
-2.36368E-3	-80.0972E-12	702.625E-3	-21.4176E-3	-80.5623E-12	706.534E-3	-4.78141E-3
-2.36868E-3	-81.3003E-12	701.260E-3	-11.1163E-3	-80.7670E-12	708.600E-3	-23.6175E-3
-2.37369E-3	-81.2074E-12	715.697E-3	-3.15966E-3	-80.6697E-12	723.069E-3	-28.5556E-3
-2.37869E-3	-81.0564E-12	721.408E-3	-18.6365E-3	-80.3889E-12	727.357E-3	-29.2882E-3
-2.38369E-3	-81.7188E-12	734.023E-3	-25.4320E-3	-81.6477E-12	720.061E-3	-20.7082E-3
-2.38869E-3	-83.0878E-12	733.527E-3	-19.8039E-3	-82.8471E-12	720.957E-3	-11.8049E-3
-2.39370E-3	-83.6949E-12	713.165E-3	-16.9827E-3	-82.6716E-12	712.438E-3	-19.3101E-3
-2.39870E-3	-83.1953E-12	706.963E-3	-11.4640E-3	-82.8825E-12	709.550E-3	-13.5833E-3
-2.40370E-3	-82.7563E-12	710.015E-3	-2.82959E-3	-82.5690E-12	732.368E-3	2.90440E-3
-2.40870E-3	-83.6065E-12	710.865E-3	7.32511E-3	-82.8577E-12	733.162E-3	6.82042E-3
-2.41371E-3	-84.8845E-12	717.453E-3	4.36305E-3	-83.3583E-12	705.702E-3	6.49286E-3
-2.41871E-3	-83.7410E-12	725.673E-3	-20.0871E-3	-84.1480E-12	691.040E-3	-8.46455E-3
-2.42371E-3	-82.7489E-12	718.637E-3	-29.5393E-3	-83.8560E-12	687.574E-3	-20.9097E-3
-2.42871E-3	-83.3904E-12	714.949E-3	-8.93591E-3	-83.7944E-12	699.110E-3	-12.5889E-3
-2.43372E-3	-84.7729E-12	726.555E-3	7.06356E-3	-84.7014E-12	717.267E-3	-25.6226E-3
-2.43872E-3	-84.1725E-12	714.788E-3	-6.41868E-3	-84.8832E-12	719.485E-3	-53.7193E-3
-2.44372E-3	-83.1212E-12	693.542E-3	-27.2984E-3	-85.6956E-12	721.600E-3	-47.1389E-3
-2.44872E-3	-83.3637E-12	695.347E-3	-27.6733E-3	-86.0667E-12	726.711E-3	-16.3796E-3
-2.45373E-3	-84.0873E-12	689.343E-3	-15.4804E-3	-86.3804E-12	729.263E-3	-7.88292E-3
-2.45873E-3	-84.7356E-12	690.014E-3	-13.0310E-3	-86.0124E-12	725.021E-3	-13.9631E-3
-2.46373E-3	-84.6935E-12	720.618E-3	-15.1080E-3	-86.3237E-12	722.319E-3	-18.0475E-3
-2.46873E-3	-84.4743E-12	739.855E-3	-9.72854E-3	-86.2226E-12	728.928E-3	-31.3413E-3
-2.47374E-3	-84.9255E-12	730.766E-3	-10.4600E-3	-86.1962E-12	724.456E-3	-39.4992E-3
-2.47874E-3	-86.0282E-12	726.078E-3	-18.1985E-3	-86.4689E-12	714.254E-3	-23.1525E-3
-2.48374E-3	-86.6874E-12	732.845E-3	-25.8582E-3	-86.2521E-12	700.273E-3	520.351E-6
-2.48874E-3	-86.5596E-12	726.671E-3	-29.9031E-3	-86.8314E-12	687.575E-3	9.71644E-3
-2.49375E-3	-86.2170E-12	704.159E-3	-31.4111E-3	-86.1833E-12	707.643E-3	720.259E-6
-2.49875E-3	-87.0811E-12	679.610E-3	-33.7258E-3	-86.8752E-12	716.211E-3	-19.6716E-3
-2.50375E-3	-87.4417E-12	671.372E-3	-30.3622E-3	-86.1763E-12	680.359E-3	-21.9867E-3
-2.50875E-3	-87.1937E-12	683.441E-3	-16.7878E-3	-86.7819E-12	669.482E-3	-15.8836E-3
-2.51376E-3	-87.0006E-12	704.304E-3	-9.38094E-3	-86.3802E-12	690.228E-3	-21.3432E-3
-2.51876E-3	-87.1753E-12	716.080E-3	-20.2245E-3	-86.5109E-12	698.771E-3	-21.1111E-3
-2.52376E-3	-87.8166E-12	702.529E-3	-20.5858E-3	-86.6899E-12	700.642E-3	-25.5262E-3
-2.52876E-3	-87.8228E-12	676.897E-3	-6.00608E-3	-87.6813E-12	699.623E-3	-35.9762E-3
-2.53377E-3	-87.3414E-12	666.603E-3	-9.49438E-3	-88.1207E-12	698.939E-3	-22.7591E-3
-2.53877E-3	-87.3098E-12	678.151E-3	-18.2091E-3	-87.5552E-12	693.677E-3	3.72496E-3
-2.54377E-3	-88.7911E-12	690.464E-3	-21.5386E-3	-88.7098E-12	689.084E-3	14.5067E-3
-2.54877E-3	-88.2361E-12	696.519E-3	-30.2383E-3	-88.5414E-12	687.704E-3	16.4374E-3
-2.55378E-3	-88.5093E-12	706.324E-3	-37.6451E-3	-89.0010E-12	694.322E-3	12.8739E-3
-2.55878E-3	-88.6482E-12	706.739E-3	-31.3671E-3	-88.1108E-12	707.476E-3	-1.80886E-3
-2.56378E-3	-88.0953E-12	690.413E-3	-23.3745E-3	-88.1444E-12	698.318E-3	-11.4915E-3
-2.56878E-3	-88.5709E-12	676.921E-3	-35.9420E-3	-88.8186E-12	677.921E-3	-3.97848E-3
-2.57379E-3	-89.9737E-12	672.687E-3	-39.4720E-3	-89.6306E-12	679.448E-3	-7.33649E-3
-2.57879E-3	-90.7822E-12	664.912E-3	-32.6468E-3	-88.8347E-12	687.229E-3	-16.9345E-3
-2.58379E-3	-89.7249E-12	671.309E-3	-26.7316E-3	-88.0809E-12	697.431E-3	-13.5371E-3
-2.58879E-3	-90.4539E-12	694.622E-3	-14.1643E-3	-89.6124E-12	702.484E-3	-19.9783E-3
-2.59380E-3	-91.7574E-12	707.647E-3	-10.5175E-3	-89.9871E-12	678.753E-3	-22.8468E-3
-2.59880E-3	-93.1999E-12	709.869E-3	-15.8016E-3	-90.1197E-12	671.067E-3	-4.09405E-3
-2.60380E-3	-92.8654E-12	708.839E-3	-26.7804E-3	-89.8920E-12	688.675E-3	11.5737E-3
-2.60880E-3	-92.2300E-12	705.031E-3	-23.6942E-3	-91.0334E-12	694.354E-3	8.25522E-3
-2.61381E-3	-92.5306E-12	707.819E-3	-17.4855E-3	-91.7979E-12	692.960E-3	-2.10088E-3
-2.61881E-3	-93.5020E-12	711.298E-3	-25.5121E-3	-91.7376E-12	697.980E-3	-19.4876E-3
-2.62381E-3	-93.3492E-12	691.788E-3	-23.5399E-3	-91.9163E-12	686.572E-3	-37.3638E-3
-2.62881E-3	-92.0916E-12	674.899E-3	-5.62731E-3	-92.8278E-12	667.991E-3	-31.4065E-3
-2.63382E-3	-92.2177E-12	673.689E-3	13.0935E-3	-93.4704E-12	674.587E-3	-28.7105E-3
-2.63882E-3	-93.0424E-12	664.962E-3	6.97784E-3	-93.5766E-12	689.626E-3	-28.7385E-3
-2.64382E-3	-92.9794E-12	674.872E-3	-17.1405E-3	-95.1146E-12	694.525E-3	-11.3387E-3
-2.64882E-3	-91.8184E-12	686.439E-3	-24.2806E-3	-95.3332E-12	716.350E-3	-14.2841E-3
-2.65383E-3	-92.4304E-12	668.498E-3	-11.1443E-3	-94.9163E-12	730.159E-3	-30.0522E-3
-2.65883E-3	-93.2170E-12	672.544E-3	1.35196E-3	-95.0020E-12	699.953E-3	-23.2566E-3
-2.66383E-3	-92.7550E-12	710.161E-3	6.24854E-3	-95.3879E-12	687.647E-3	-11.6270E-3
-2.66883E-3	-92.3470E-12	720.906E-3	-5.04523E-3	-95.5751E-12	690.534E-3	-13.2238E-3
-2.67384E-3	-92.9792E-12	694.004E-3	-21.3741E-3	-95.8444E-12	681.344E-3	-6.68353E-3
-2.67884E-3	-94.1009E-12	670.365E-3	-13.8095E-3	-96.0850E-12	696.320E-3	5.22229E-3
-2.68384E-3	-94.9147E-12	658.299E-3	49.6565E-6	-95.9254E-12	709.846E-3	656.818E-6
-2.68884E-3	-94.6573E-12	653.798E-3	7.72798E-3	-96.2633E-12	702.164E-3	-1.10314E-3
-2.69385E-3	-94.5193E-12	657.491E-3	9.89254E-3	-96.2815E-12	685.079E-3	12.2318E-3
-2.69885E-3	-96.2192E-12	661.544E-3	-2.56672E-3	-96.9329E-12	666.048E-3	11.3718E-3
-2.70385E-3	-96.6986E-12	659.608E-3	-14.1315E-3	-96.7510E-12	659.689E-3	-8.15294E-3
-2.70885E-3	-96.3149E-12	664.909E-3	-10.5003E-3	-96.6099E-12	682.153E-3	-19.5594E-3
-2.71386E-3	-96.5902E-12	679.524E-3	3.37318E-3	-96.2690E-12	700.652E-3	-25.8387E-3
-2.71886E-3	-97.0765E-12	682.149E-3	3.80492E-3	-96.0912E-12	678.503E-3	-18.3154E-3
-2.72386E-3	-98.0652E-12	671.434E-3	-22.5956E-3	-96.2578E-12	663.002E-3	-11.4647E-3
-2.72886E-3	-97.7450E-12	664.125E-3	-36.2428E-3	-96.5739E-12	658.749E-3	-35.2827E-3
-2.73387E-3	-97.0831E-12	679.352E-3	-33.0999E-3	-96.2665E-12	646.885E-3	-38.8665E-3
-2.73887E-3	-97.5048E-12	701.054E-3	-27.9307E-3	-96.1097E-12	664.743E-3	-8.29077E-3
-2.74387E-3	-97.9840E-12	697.837E-3	-17.3377E-3	-96.7960E-12	686.519E-3	7.16470E-3
-2.74887E-3	-97.2235E-12	682.558E-3	-36.9504E-3	-97.1162E-12	676.554E-3	7.94098E-3
-2.75388E-3	-96.9582E-12	673.981E-3	-48.7891E-3	-97.3776E-12	681.158E-3	5.74771E-3
-2.75888E-3	-97.5487E-12	658.730E-3	-8.27029E-3	-96.8517E-12	699.767E-3	-7.65618E-3
-2.76388E-3	-97.9817E-12	647.347E-3	17.8963E-3	-97.9356E-12	686.939E-3	-13.2225E-3
-2.76888E-3	-97.2786E-12	663.935E-3	-5.00537E-3	-98.0917E-12	668.091E-3	-7.58487E-3
-2.77389E-3	-96.8351E-12	681.600E-3	-40.0206E-3	-98.4841E-12	680.630E-3	-15.5504E-3
-2.77889E-3	-97.7908E-12	669.559E-3	-50.6773E-3	-98.5851E-12	692.023E-3	-24.5067E-3
-2.78389E-3	-99.0893E-12	647.890E-3	-29.1188E-3	-99.1453E-12	678.240E-3	-4.69046E-3
-2.78889E-3	-98.9739E-12	650.811E-3	6.62679E-3	-99.2561E-12	667.325E-3	2.91470E-3
-2.79390E-3	-99.1889E-12	664.364E-3	13.8725E-3	-99.3086E-12	658.276E-3	-22.9528E-3
-2.79890E-3	-100.065E-12	673.678E-3	-22.2978E-3	-99.1777E-12	659.399E-3	-18.1817E-3
-2.80390E-3	-100.570E-12	692.436E-3	-27.2774E-3	-99.2439E-12	694.363E-3	-8.32754E-3
-2.80890E-3	-101.742E-12	702.015E-3	-12.3186E-3	-99.6971E-12	716.124E-3	-27.4223E-3
-2.81391E-3	-101.543E-12	695.493E-3	-32.8423E-3	-98.7656E-12	692.408E-3	-25.5371E-3
-2.81891E-3	-101.437E-12	695.052E-3	-38.6484E-3	-99.2432E-12	664.363E-3	-16.5274E-3
-2.82391E-3	-102.452E-12	683.188E-3	-29.2575E-3	-99.5773E-12	660.986E-3	-19.1706E-3
-2.82891E-3	-103.195E-12	664.023E-3	-32.2663E-3	-99.8104E-12	662.566E-3	-8.09091E-3
-2.83392E-3	-102.630E-12	667.477E-3	-17.9038E-3	-99.9233E-12	669.899E-3	-3.65641E-3
-2.83892E-3	-102.381E-12	663.869E-3	863.185E-6	-100.361E-12	685.872E-3	-19.5378E-3
-2.84392E-3	-101.915E-12	667.099E-3	-13.3980E-3	-101.428E-12	682.765E-3	-27.8440E-3
-2.84892E-3	-101.440E-12	690.735E-3	-19.0835E-3	-101.734E-12	660.656E-3	-19.4128E-3
-2.85393E-3	-101.590E-12	685.201E-3	-7.26282E-3	-101.733E-12	647.066E-3	-10.2754E-3
-2.85893E-3	-101.480E-12	664.440E-3	-20.2708E-3	-102.170E-12	663.818E-3	536.961E-6
-2.86393E-3	-101.300E-12	667.334E-3	-14.7669E-3	-102.686E-12	682.630E-3	-9.67059E-3
-2.86893E-3	-101.299E-12	682.357E-3	-881.722E-6	-103.698E-12	668.597E-3	-42.3031E-3
-2.87394E-3	-101.702E-12	696.065E-3	-27.5494E-3	-103.724E-12	661.183E-3	-27.7120E-3
-2.87894E-3	-102.715E-12	693.105E-3	-42.5734E-3	-103.689E-12	684.547E-3	13.6283E-3
-2.88394E-3	-103.158E-12	671.179E-3	-20.2552E-3	-104.603E-12	698.622E-3	7.10946E-3
-2.88894E-3	-102.754E-12	656.646E-3	-5.39029E-3	-105.833E-12	688.253E-3	-17.4536E-3
-2.89395E-3	-103.130E-12	656.733E-3	-10.3029E-3	-105.357E-12	680.062E-3	-26.5365E-3
-2.89895E-3	-104.648E-12	662.743E-3	-12.4058E-3	-104.963E-12	677.203E-3	-31.7101E-3
-2.90395E-3	-105.691E-12	657.097E-3	-18.4680E-3	-105.199E-12	682.430E-3	-20.3547E-3
-2.90895E-3	-105.884E-12	659.248E-3	-29.5924E-3	-106.277E-12	692.368E-3	-494.463E-6
-2.91396E-3	-106.078E-12	671.781E-3	-17.7223E-3	-106.246E-12	680.914E-3	-1.62434E-3
-2.91896E-3	-106.997E-12	669.740E-3	-1.34216E-3	-106.745E-12	665.144E-3	-18.4629E-3
-2.92396E-3	-107.569E-12	681.267E-3	-3.72232E-3	-107.389E-12	672.449E-3	-21.8800E-3
-2.92896E-3	-107.174E-12	700.232E-3	-10.1447E-3	-106.832E-12	679.739E-3	-9.67022E-3
-2.93397E-3	-106.325E-12	693.103E-3	-27.7135E-3	-106.689E-12	662.125E-3	-3.25777E-3
-2.93897E-3	-106.726E-12	696.639E-3	-39.8353E-3	-107.038E-12	648.170E-3	-6.74268E-3
-2.94397E-3	-106.060E-12	702.072E-3	-25.8545E-3	-106.876E-12	662.036E-3	-16.3956E-3
-2.94897E-3	-106.038E-12	684.083E-3	-27.5977E-3	-107.438E-12	673.451E-3	-33.7999E-3
-2.95398E-3	-106.192E-12	677.877E-3	-47.2908E-3	-108.159E-12	665.660E-3	-48.5232E-3
-2.95898E-3	-106.180E-12	659.412E-3	-38.6889E-3	-108.238E-12	664.737E-3	-51.7962E-3
-2.96398E-3	-106.556E-12	626.990E-3	-34.5178E-3	-108.496E-12	672.158E-3	-38.0733E-3
-2.96898E-3	-106.280E-12	636.743E-3	-45.3217E-3	-108.790E-12	682.086E-3	-8.60312E-3
-2.97399E-3	-105.641E-12	657.344E-3	-32.1120E-3	-108.654E-12	685.527E-3	-972.064E-6
-2.97899E-3	-106.311E-12	650.824E-3	-28.8722E-3	-109.730E-12	673.690E-3	-13.3056E-3
-2.98399E-3	-107.204E-12	644.016E-3	-38.8567E-3	-109.505E-12	679.941E-3	-7.83535E-3
-2.98899E-3	-107.827E-12	637.823E-3	-34.2849E-3	-108.896E-12	684.975E-3	-14.8464E-3
-2.99400E-3	-108.042E-12	623.018E-3	-13.7243E-3	-108.235E-12	657.617E-3	-27.2933E-3
-2.99900E-3	-108.450E-12	630.248E-3	9.82178E-3	-109.420E-12	652.436E-3	-5.69582E-3
-3.00400E-3	-108.759E-12	662.786E-3	7.40824E-3	-111.263E-12	687.671E-3	3.58003E-3
-3.00900E-3	-109.669E-12	678.583E-3	-9.78064E-3	-110.955E-12	697.157E-3	-8.45474E-3
-3.01401E-3	-110.101E-12	665.320E-3	-17.4129E-3	-109.873E-12	666.691E-3	-16.6462E-3
-3.01901E-3	-110.223E-12	645.641E-3	-15.7111E-3	-109.876E-12	652.050E-3	-23.1339E-3
-3.02401E-3	-110.326E-12	645.473E-3	-16.3819E-3	-112.479E-12	659.165E-3	-25.2832E-3
-3.02901E-3	-111.579E-12	667.035E-3	-30.3017E-3	-112.142E-12	657.901E-3	-24.2716E-3
-3.03402E-3	-112.468E-12	682.425E-3	-44.9946E-3	-111.658E-12	655.429E-3	-18.2376E-3
-3.03902E-3	-112.199E-12	685.551E-3	-41.3155E-3	-111.740E-12	674.629E-3	-15.6710E-3
-3.04402E-3	-112.379E-12	698.059E-3	-32.5494E-3	-112.676E-12	681.200E-3	-8.01750E-3
-3.04902E-3	-112.727E-12	698.350E-3	-28.8408E-3	-112.940E-12	671.349E-3	2.83748E-3
-3.05403E-3	-113.455E-12	675.011E-3	-28.6787E-3	-112.767E-12	665.096E-3	-20.8461E-3
-3.05903E-3	-113.086E-12	677.959E-3	-41.5466E-3	-112.391E-12	658.438E-3	-45.4601E-3
-3.06403E-3	-112.808E-12	697.480E-3	-43.4542E-3	-112.704E-12	671.210E-3	-29.6872E-3
-3.06903E-3	-112.655E-12	705.652E-3	-40.2797E-3	-113.842E-12	666.457E-3	-15.5181E-3
-3.07404E-3	-113.212E-12	707.390E-3	-49.7303E-3	-114.208E-12	649.614E-3	-8.80498E-3
-3.07904E-3	-113.897E-12	693.053E-3	-48.8882E-3	-113.616E-12	674.029E-3	10.6873E-3
-3.08404E-3	-112.883E-12	683.237E-3	-38.2377E-3	-113.253E-12	697.129E-3	5.49761E-3
-3.08904E-3	-112.319E-12	688.944E-3	-32.1528E-3	-114.535E-12	688.630E-3	-13.0609E-3
-3.09405E-3	-112.333E-12	686.695E-3	-30.3183E-3	-114.967E-12	680.546E-3	-13.0887E-3
-3.09905E-3	-112.606E-12	670.732E-3	-24.5037E-3	-115.206E-12	676.033E-3	-4.86151E-3
-3.10405E-3	-112.535E-12	653.690E-3	-23.9326E-3	-116.107E-12	664.077E-3	2.57769E-3
-3.10905E-3	-112.602E-12	656.796E-3	-28.8503E-3	-115.984E-12	656.552E-3	-5.26891E-3
-3.11406E-3	-113.594E-12	657.743E-3	-11.9889E-3	-116.317E-12	646.585E-3	-29.5058E-3
-3.11906E-3	-114.404E-12	637.003E-3	3.43802E-3	-116.373E-12	628.985E-3	-40.0202E-3
-3.12406E-3	-115.194E-12	653.611E-3	-858.782E-6	-115.637E-12	633.447E-3	-33.8167E-3
-3.12906E-3	-115.566E-12	680.487E-3	-999.861E-6	-115.872E-12	656.893E-3	-32.3650E-3
-3.13407E-3	-116.239E-12	662.290E-3	-20.2871E-3	-116.601E-12	665.263E-3	-27.9859E-3
-3.13907E-3	-117.413E-12	652.281E-3	-36.1175E-3	-114.973E-12	665.209E-3	-11.6038E-3
-3.14407E-3	-118.010E-12	655.879E-3	-15.3583E-3	-114.501E-12	666.043E-3	-7.27121E-3
-3.14907E-3	-118.222E-12	662.128E-3	-29.3880E-3	-115.882E-12	647.599E-3	-13.5670E-3
-3.15408E-3	-117.519E-12	695.010E-3	-59.9314E-3	-116.767E-12	632.338E-3	-8.60464E-3
-3.15908E-3	-116.642E-12	695.801E-3	-34.7821E-3	-115.706E-12	651.055E-3	-8.37832E-3
-3.16408E-3	-116.511E-12	650.559E-3	-3.09692E-3	-115.451E-12	666.475E-3	1.44734E-3
-3.16908E-3	-117.424E-12	627.665E-3	-5.41910E-3	-116.211E-12	657.262E-3	27.2871E-3
-3.17409E-3	-116.903E-12	629.037E-3	-24.6185E-3	-117.454E-12	654.278E-3	15.1631E-3
-3.17909E-3	-115.941E-12	625.331E-3	-39.7306E-3	-116.460E-12	664.356E-3	-27.9784E-3
-3.18409E-3	-115.641E-12	632.874E-3	-32.2908E-3	-116.335E-12	671.336E-3	-48.0864E-3
-3.18909E-3	-115.939E-12	649.911E-3	-18.5109E-3	-116.859E-12	659.891E-3	-46.5516E-3
-3.19410E-3	-116.518E-12	648.739E-3	-16.7430E-3	-117.478E-12	642.269E-3	-19.8037E-3
-3.19910E-3	-116.714E-12	643.229E-3	-20.6881E-3	-118.241E-12	641.439E-3	8.74968E-3
-3.20410E-3	-116.000E-12	650.921E-3	-3.85765E-3	-118.220E-12	650.092E-3	-2.47082E-3
-3.20910E-3	-116.800E-12	656.894E-3	15.5996E-3	-118.793E-12	648.758E-3	-29.3898E-3
-3.21411E-3	-118.046E-12	656.088E-3	-3.83428E-3	-119.444E-12	640.343E-3	-47.4950E-3
-3.21911E-3	-118.870E-12	664.520E-3	-11.8976E-3	-119.192E-12	643.515E-3	-49.8599E-3
-3.22411E-3	-119.251E-12	677.701E-3	-3.21811E-3	-118.995E-12	658.704E-3	-52.5316E-3
-3.22911E-3	-119.402E-12	689.952E-3	-19.5416E-3	-119.330E-12	665.231E-3	-45.0486E-3
-3.23412E-3	-120.167E-12	699.099E-3	-27.3646E-3	-119.758E-12	660.153E-3	-23.0419E-3
-3.23912E-3	-121.485E-12	689.951E-3	-22.3630E-3	-120.152E-12	644.249E-3	-19.5696E-3
-3.24412E-3	-121.497E-12	685.428E-3	-18.5474E-3	-121.236E-12	636.091E-3	-28.1907E-3
-3.24912E-3	-121.196E-12	697.911E-3	-11.6837E-3	-121.425E-12	658.528E-3	-31.2639E-3
-3.25413E-3	-120.749E-12	690.692E-3	-15.7796E-3	-120.833E-12	665.694E-3	-20.8026E-3
-3.25913E-3	-121.516E-12	675.052E-3	-37.8981E-3	-121.261E-12	652.356E-3	6.69509E-3
-3.26413E-3	-121.144E-12	668.105E-3	-38.4432E-3	-120.875E-12	671.054E-3	23.9714E-3
-3.26913E-3	-120.354E-12	656.477E-3	-29.5630E-3	-121.517E-12	688.837E-3	12.1650E-3
-3.27414E-3	-120.024E-12	652.466E-3	-42.1285E-3	-122.520E-12	669.081E-3	-7.07431E-3
-3.27914E-3	-120.918E-12	654.367E-3	-34.2911E-3	-123.539E-12	651.336E-3	-18.7649E-3
-3.28414E-3	-120.613E-12	658.482E-3	-27.2162E-3	-124.189E-12	658.011E-3	-34.3898E-3
-3.28914E-3	-119.177E-12	669.252E-3	-41.3301E-3	-122.723E-12	666.889E-3	-32.7684E-3
-3.29415E-3	-119.246E-12	666.261E-3	-38.0364E-3	-124.430E-12	663.773E-3	6.60212E-3
-3.29915E-3	-120.282E-12	647.726E-3	-12.2374E-3	-124.687E-12	661.973E-3	31.5429E-3
-3.30415E-3	-121.209E-12	638.917E-3	-8.82511E-3	-124.423E-12	665.606E-3	9.10535E-3
-3.30915E-3	-120.954E-12	641.966E-3	-22.7808E-3	-123.124E-12	665.808E-3	-16.5839E-3
-3.31416E-3	-122.349E-12	643.844E-3	-15.5703E-3	-124.370E-12	679.366E-3	-10.7911E-3
-3.31916E-3	-124.117E-12	653.114E-3	-14.1624E-3	-124.282E-12	694.287E-3	2.69730E-3
-3.32416E-3	-125.499E-12	689.861E-3	-22.6750E-3	-124.961E-12	681.486E-3	4.21824E-3
-3.32916E-3	-124.274E-12	701.157E-3	-32.4717E-3	-124.656E-12	666.255E-3	-17.4937E-3
-3.33417E-3	-123.778E-12	683.338E-3	-49.0101E-3	-123.712E-12	648.686E-3	-44.5201E-3
-3.33917E-3	-124.219E-12	678.582E-3	-43.0180E-3	-124.539E-12	632.024E-3	-35.7073E-3
-3.34417E-3	-125.226E-12	651.651E-3	-17.6657E-3	-125.077E-12	647.967E-3	-30.2223E-3
-3.34917E-3	-124.781E-12	633.056E-3	-27.0792E-3	-124.796E-12	655.683E-3	-42.6822E-3
-3.35418E-3	-125.017E-12	658.329E-3	-41.5603E-3	-123.905E-12	656.084E-3	-32.5945E-3
-3.35918E-3	-125.623E-12	669.357E-3	-18.6267E-3	-124.702E-12	678.648E-3	-28.8784E-3
-3.36418E-3	-126.413E-12	660.597E-3	-2.62003E-3	-126.230E-12	687.059E-3	-32.3414E-3
-3.36918E-3	-126.402E-12	674.314E-3	4.84720E-3	-125.122E-12	672.289E-3	-22.9996E-3
-3.37419E-3	-126.379E-12	685.444E-3	20.8117E-3	-124.202E-12	651.191E-3	-26.9076E-3
-3.37919E-3	-126.904E-12	670.564E-3	18.8923E-3	-124.606E-12	634.585E-3	-37.6635E-3
-3.38419E-3	-126.715E-12	654.664E-3	-7.25772E-3	-126.837E-12	649.908E-3	-30.1964E-3
-3.38919E-3	-126.200E-12	652.160E-3	-20.3388E-3	-125.614E-12	680.713E-3	-3.98963E-3
-3.39420E-3	-127.411E-12	652.433E-3	-11.9397E-3	-126.413E-12	685.579E-3	1.24774E-3
-3.39920E-3	-128.686E-12	645.598E-3	-9.67508E-3	-125.369E-12	673.743E-3	-11.6430E-3
-3.40420E-3	-128.171E-12	653.914E-3	10.6366E-3	-127.561E-12	657.549E-3	-21.3686E-3
-3.40920E-3	-127.568E-12	658.906E-3	21.0758E-3	-127.404E-12	647.251E-3	-37.9838E-3
-3.41421E-3	-129.715E-12	648.160E-3	-26.8321E-3	-127.217E-12	647.499E-3	-23.5136E-3
-3.41921E-3	-130.064E-12	654.141E-3	-58.3334E-3	-126.763E-12	652.897E-3	1.92152E-3
-3.42421E-3	-129.132E-12	662.652E-3	-49.0000E-3	-127.640E-12	656.564E-3	-96.3304E-6
-3.42921E-3	-128.129E-12	677.170E-3	-45.8041E-3	-128.225E-12	649.252E-3	-2.83181E-3
-3.43422E-3	-130.100E-12	703.169E-3	-26.2155E-3	-127.559E-12	635.069E-3	-1.33381E-3
-3.43922E-3	-130.306E-12	694.339E-3	-21.8640E-3	-128.114E-12	625.010E-3	10.9249E-3
-3.44422E-3	-130.253E-12	672.924E-3	-45.8406E-3	-128.425E-12	631.100E-3	22.4561E-3
-3.44922E-3	-129.921E-12	671.443E-3	-26.2411E-3	-128.402E-12	641.976E-3	8.29036E-3
-3.45423E-3	-130.586E-12	657.673E-3	-7.92657E-3	-128.245E-12	644.920E-3	-21.0982E-3
-3.45923E-3	-132.983E-12	640.702E-3	-10.1193E-3	-130.045E-12	657.318E-3	-44.2083E-3
-3.46423E-3	-132.410E-12	642.296E-3	238.682E-6	-130.484E-12	663.324E-3	-41.9947E-3
-3.46923E-3	-131.021E-12	642.506E-3	-4.60430E-3	-129.879E-12	638.043E-3	-26.8815E-3
-3.47424E-3	-130.721E-12	639.879E-3	-24.5230E-3	-130.154E-12	613.441E-3	-21.0444E-3
-3.47924E-3	-133.387E-12	648.682E-3	-23.0801E-3	-131.828E-12	620.783E-3	-19.5641E-3
-3.48424E-3	-133.463E-12	652.220E-3	-6.59348E-3	-132.567E-12	650.730E-3	-17.1297E-3
-3.48924E-3	-131.595E-12	664.607E-3	-9.04894E-3	-131.794E-12	676.085E-3	-10.7612E-3
-3.49425E-3	-132.166E-12	679.957E-3	-9.15166E-3	-133.283E-12	682.487E-3	-9.28272E-3
-3.49925E-3	-134.436E-12	661.033E-3	6.60156E-3	-133.664E-12	657.106E-3	-20.9565E-3
-3.50425E-3	-134.357E-12	649.932E-3	5.59092E-3	-134.070E-12	631.332E-3	-20.5890E-3
-3.50925E-3	-133.630E-12	677.584E-3	-5.65535E-3	-133.858E-12	654.050E-3	-6.96348E-3
-3.51426E-3	-132.017E-12	683.704E-3	-13.0806E-3	-134.721E-12	684.287E-3	-1.02676E-3
-3.51926E-3	-132.095E-12	645.862E-3	-31.1062E-3	-134.947E-12	686.413E-3	-8.48088E-3
-3.52426E-3	-133.973E-12	632.958E-3	-22.4973E-3	-134.367E-12	682.418E-3	-7.06416E-3
-3.52926E-3	-133.760E-12	651.767E-3	8.81436E-3	-134.412E-12	672.375E-3	7.98649E-3
-3.53427E-3	-133.380E-12	660.249E-3	550.249E-6	-133.740E-12	660.882E-3	8.79834E-3
-3.53927E-3	-133.314E-12	661.355E-3	-24.3783E-3	-134.271E-12	660.579E-3	8.22239E-3
-3.54427E-3	-134.176E-12	658.606E-3	-29.0116E-3	-134.148E-12	669.443E-3	16.6490E-3
-3.54927E-3	-135.898E-12	666.081E-3	-19.8870E-3	-134.166E-12	666.190E-3	23.6678E-3
-3.55428E-3	-134.965E-12	690.101E-3	9.43073E-3	-135.213E-12	655.708E-3	28.8317E-3
-3.55928E-3	-133.543E-12	689.410E-3	35.2947E-3	-135.174E-12	673.708E-3	19.0429E-3
-3.56428E-3	-134.440E-12	655.990E-3	3.87124E-3	-133.702E-12	690.537E-3	-2.42199E-3
-3.56928E-3	-137.637E-12	644.784E-3	-40.0152E-3	-133.486E-12	680.571E-3	-3.82074E-3
-3.57429E-3	-136.249E-12	656.331E-3	-32.4495E-3	-133.663E-12	669.421E-3	1.81312E-3
-3.57929E-3	-135.105E-12	654.823E-3	-8.13785E-3	-134.993E-12	662.136E-3	-9.93057E-3
-3.58429E-3	-134.354E-12	655.097E-3	7.22901E-3	-133.837E-12	661.822E-3	-28.1098E-3
-3.58929E-3	-135.609E-12	656.568E-3	-2.67127E-3	-134.443E-12	678.374E-3	-60.4143E-3
-3.59430E-3	-136.212E-12	639.941E-3	-28.3414E-3	-134.904E-12	691.657E-3	-67.2794E-3
-3.59930E-3	-134.373E-12	627.709E-3	-20.2962E-3	-136.463E-12	679.215E-3	-26.4270E-3
-3.60430E-3	-133.906E-12	645.450E-3	11.1335E-3	-135.169E-12	661.990E-3	-9.84916E-3
-3.60930E-3	-134.855E-12	656.835E-3	19.3689E-3	-135.624E-12	648.598E-3	-32.5137E-3
-3.61431E-3	-136.325E-12	654.842E-3	-2.18473E-3	-136.178E-12	637.792E-3	-35.1820E-3
-3.61931E-3	-135.317E-12	670.624E-3	-7.68599E-3	-136.267E-12	646.163E-3	-9.48798E-3
-3.62431E-3	-134.816E-12	669.099E-3	5.51850E-3	-135.589E-12	643.065E-3	-9.07977E-3
-3.62931E-3	-135.546E-12	640.904E-3	-8.38355E-3	-135.669E-12	623.813E-3	-14.1820E-3
-3.63432E-3	-138.391E-12	622.394E-3	-29.9797E-3	-136.283E-12	634.140E-3	-5.64503E-3
-3.63932E-3	-138.178E-12	617.155E-3	-37.4169E-3	-136.130E-12	647.676E-3	-20.7299E-3
-3.64432E-3	-136.912E-12	625.694E-3	-41.7003E-3	-136.274E-12	630.934E-3	-15.5643E-3
-3.64932E-3	-137.960E-12	637.564E-3	-22.5061E-3	-136.509E-12	626.477E-3	12.1073E-3
-3.65433E-3	-138.117E-12	630.210E-3	-6.62031E-3	-137.649E-12	643.591E-3	-1.34853E-3
-3.65933E-3	-139.558E-12	626.121E-3	-13.0101E-3	-137.258E-12	646.689E-3	-25.1410E-3
-3.66433E-3	-137.709E-12	641.159E-3	-10.3935E-3	-137.060E-12	647.049E-3	-21.4331E-3
-3.66933E-3	-138.693E-12	645.377E-3	-11.3553E-3	-136.768E-12	655.132E-3	-17.8940E-3
-3.67434E-3	-138.279E-12	635.469E-3	-21.3074E-3	-138.023E-12	652.846E-3	-14.6526E-3
-3.67934E-3	-140.015E-12	636.487E-3	-14.3231E-3	-140.397E-12	644.193E-3	4.01310E-3
-3.68434E-3	-139.136E-12	653.575E-3	1.24642E-3	-138.715E-12	639.606E-3	-3.95465E-3
-3.68934E-3	-137.150E-12	668.460E-3	1.48061E-3	-138.659E-12	639.478E-3	-38.8911E-3
-3.69435E-3	-138.381E-12	687.494E-3	2.03037E-3	-139.378E-12	636.939E-3	-47.7755E-3
-3.69935E-3	-137.836E-12	675.244E-3	5.97578E-3	-140.948E-12	636.095E-3	-40.1242E-3
-3.70435E-3	-138.261E-12	631.543E-3	-16.8041E-3	-141.834E-12	634.656E-3	-31.3443E-3
-3.70935E-3	-138.181E-12	644.785E-3	-27.0584E-3	-140.845E-12	642.731E-3	-28.6566E-3
-3.71436E-3	-139.918E-12	666.944E-3	-3.22420E-3	-141.484E-12	655.297E-3	-30.9999E-3
-3.71936E-3	-139.901E-12	650.637E-3	-12.8774E-3	-141.631E-12	638.780E-3	-14.6243E-3
-3.72436E-3	-141.491E-12	646.096E-3	-36.2448E-3	-142.909E-12	632.912E-3	7.22003E-3
-3.72936E-3	-142.660E-12	645.528E-3	-22.7293E-3	-142.048E-12	651.341E-3	3.79858E-3
-3.73437E-3	-143.075E-12	625.505E-3	-11.3746E-3	-142.252E-12	637.748E-3	-18.1169E-3
-3.73937E-3	-142.486E-12	628.153E-3	-16.9104E-3	-143.737E-12	613.812E-3	-17.2179E-3
-3.74437E-3	-143.704E-12	646.389E-3	-16.2693E-3	-143.761E-12	630.352E-3	-20.3507E-3
-3.74937E-3	-145.953E-12	643.586E-3	-15.1806E-3	-143.747E-12	654.082E-3	-33.3089E-3
-3.75438E-3	-145.569E-12	666.178E-3	-8.92589E-3	-142.891E-12	659.010E-3	-10.0788E-3
-3.75938E-3	-145.205E-12	688.893E-3	9.43562E-3	-142.718E-12	655.818E-3	12.9453E-3
-3.76438E-3	-146.400E-12	662.717E-3	6.23997E-3	-143.708E-12	656.379E-3	7.20245E-3
-3.76938E-3	-148.085E-12	636.085E-3	-29.8430E-3	-145.467E-12	664.199E-3	3.54824E-3
-3.77439E-3	-145.920E-12	624.817E-3	-59.7343E-3	-143.802E-12	665.948E-3	-11.3199E-3
-3.77939E-3	-145.027E-12	620.552E-3	-61.1147E-3	-142.705E-12	678.667E-3	-33.7535E-3
-3.78439E-3	-144.539E-12	640.166E-3	-29.3180E-3	-143.458E-12	680.363E-3	-16.3304E-3
-3.78939E-3	-145.109E-12	660.092E-3	14.3392E-3	-144.711E-12	666.385E-3	2.65496E-3
-3.79440E-3	-144.890E-12	645.652E-3	7.36755E-3	-144.819E-12	672.310E-3	-7.55098E-3
-3.79940E-3	-144.889E-12	634.318E-3	-43.2600E-3	-143.327E-12	668.491E-3	-14.2794E-3
-3.80440E-3	-145.656E-12	649.327E-3	-51.9489E-3	-143.804E-12	661.803E-3	-17.1869E-3
-3.80940E-3	-145.226E-12	661.186E-3	-10.2415E-3	-146.158E-12	656.875E-3	-28.6388E-3
-3.81441E-3	-145.500E-12	677.241E-3	24.3922E-3	-148.320E-12	636.823E-3	-30.5209E-3
-3.81941E-3	-144.989E-12	683.386E-3	17.0415E-3	-147.639E-12	627.063E-3	-36.0328E-3
-3.82441E-3	-145.430E-12	665.365E-3	-28.1761E-3	-146.365E-12	630.618E-3	-61.1135E-3
-3.82941E-3	-146.811E-12	647.687E-3	-43.1758E-3	-147.429E-12	643.625E-3	-44.6041E-3
-3.83442E-3	-148.379E-12	631.023E-3	-15.5197E-3	-148.474E-12	668.113E-3	-20.0673E-3
-3.83942E-3	-148.109E-12	634.823E-3	-6.72224E-3	-149.208E-12	664.635E-3	-39.1180E-3
-3.84442E-3	-147.546E-12	659.824E-3	-24.3173E-3	-147.066E-12	639.885E-3	-36.6234E-3
-3.84942E-3	-148.294E-12	674.041E-3	-16.9326E-3	-146.846E-12	642.805E-3	-21.0240E-3
-3.85443E-3	-149.627E-12	661.560E-3	2.66890E-3	-147.828E-12	655.919E-3	-15.9992E-3
-3.85943E-3	-149.392E-12	639.281E-3	-7.26789E-3	-148.365E-12	655.942E-3	-12.0037E-3
-3.86443E-3	-147.853E-12	637.772E-3	1.27188E-3	-146.912E-12	647.187E-3	-9.39877E-3
-3.86943E-3	-148.294E-12	644.273E-3	11.1624E-3	-146.590E-12	640.747E-3	-2.97657E-3
-3.87444E-3	-149.248E-12	640.515E-3	-39.7941E-3	-146.784E-12	647.042E-3	5.41650E-3
-3.87944E-3	-149.547E-12	636.442E-3	-51.9118E-3	-148.306E-12	656.986E-3	20.3575E-3
-3.88444E-3	-147.423E-12	625.584E-3	8.00711E-3	-147.622E-12	653.245E-3	30.1783E-3
-3.88944E-3	-147.603E-12	614.901E-3	31.6684E-3	-146.443E-12	643.340E-3	36.4591E-3
-3.89445E-3	-146.871E-12	623.967E-3	15.0477E-3	-147.083E-12	653.800E-3	29.2711E-3
-3.89945E-3	-147.820E-12	620.904E-3	13.8017E-3	-147.922E-12	674.184E-3	-225.760E-6
-3.90445E-3	-146.465E-12	607.347E-3	174.935E-6	-149.365E-12	670.219E-3	-29.9472E-3
-3.90945E-3	-147.004E-12	618.478E-3	-17.6907E-3	-150.661E-12	657.360E-3	-42.2013E-3
-3.91446E-3	-146.329E-12	648.094E-3	-15.1725E-3	-149.941E-12	667.793E-3	-48.0445E-3
-3.91946E-3	-147.554E-12	670.038E-3	-15.6910E-3	-149.158E-12	682.330E-3	-39.5373E-3
-3.92446E-3	-147.212E-12	667.149E-3	-22.2826E-3	-150.959E-12	680.938E-3	-4.18372E-3
-3.92946E-3	-147.826E-12	644.292E-3	-27.2996E-3	-152.969E-12	660.838E-3	6.14942E-3
-3.93447E-3	-147.249E-12	621.442E-3	-28.6319E-3	-151.049E-12	646.906E-3	-12.0994E-3
-3.93947E-3	-147.783E-12	623.490E-3	-31.7414E-3	-149.846E-12	663.519E-3	-20.3500E-3
-3.94447E-3	-148.988E-12	640.767E-3	-36.4097E-3	-150.675E-12	666.332E-3	-30.1199E-3
-3.94947E-3	-149.205E-12	647.911E-3	-40.8335E-3	-152.928E-12	635.397E-3	-24.9171E-3
-3.95448E-3	-149.148E-12	650.074E-3	-28.6823E-3	-152.338E-12	622.102E-3	9.29045E-3
-3.95948E-3	-149.660E-12	647.198E-3	-13.6990E-3	-150.852E-12	633.660E-3	14.0824E-3
-3.96448E-3	-151.239E-12	642.765E-3	-15.3524E-3	-151.193E-12	652.581E-3	-18.3802E-3
-3.96948E-3	-151.372E-12	658.006E-3	-17.7458E-3	-153.605E-12	676.845E-3	-43.0233E-3
-3.97449E-3	-151.230E-12	668.045E-3	-9.89859E-3	-154.175E-12	678.029E-3	-50.9752E-3
-3.97949E-3	-151.296E-12	643.322E-3	-5.49596E-3	-152.999E-12	656.573E-3	-41.0726E-3
-3.98449E-3	-152.618E-12	623.492E-3	-9.05398E-3	-152.273E-12	640.462E-3	-25.9924E-3
-3.98949E-3	-152.282E-12	637.483E-3	-13.3707E-3	-153.091E-12	642.264E-3	-22.4193E-3
-3.99450E-3	-151.200E-12	652.147E-3	-25.8694E-3	-154.240E-12	647.713E-3	-33.8309E-3
-3.99950E-3	-151.387E-12	658.585E-3	-40.0108E-3	-154.135E-12	634.299E-3	-38.2925E-3
-4.00450E-3	-152.649E-12	659.534E-3	-33.6973E-3	-153.009E-12	634.696E-3	-30.5458E-3
-4.00950E-3	-153.327E-12	653.294E-3	-32.4802E-3	-152.709E-12	652.342E-3	-22.7652E-3
-4.01451E-3	-152.525E-12	662.574E-3	-37.2054E-3	-155.458E-12	642.814E-3	-13.6138E-3
-4.01951E-3	-152.235E-12	672.657E-3	1.63012E-3	-157.914E-12	626.860E-3	-24.1068E-3
-4.02451E-3	-152.847E-12	662.460E-3	7.84045E-3	-156.010E-12	618.756E-3	-42.6091E-3
-4.02951E-3	-154.464E-12	638.866E-3	-41.6473E-3	-155.658E-12	624.218E-3	-27.5896E-3
-4.03452E-3	-155.749E-12	621.739E-3	-48.9791E-3	-157.498E-12	657.315E-3	11.3651E-3
-4.03952E-3	-155.480E-12	621.847E-3	-32.0207E-3	-159.504E-12	684.522E-3	15.4185E-3
-4.04452E-3	-154.657E-12	628.258E-3	-38.7397E-3	-158.157E-12	667.492E-3	-8.21680E-3
-4.04952E-3	-155.235E-12	645.584E-3	-18.2410E-3	-157.804E-12	633.033E-3	-19.0690E-3
-4.05453E-3	-156.655E-12	626.448E-3	15.2858E-3	-157.065E-12	625.201E-3	-26.0242E-3
-4.05953E-3	-158.117E-12	585.280E-3	9.01791E-3	-158.442E-12	632.495E-3	-2.70891E-3
-4.06453E-3	-157.411E-12	599.965E-3	11.9087E-3	-158.522E-12	648.927E-3	31.3849E-3
-4.06953E-3	-157.777E-12	616.931E-3	28.3673E-3	-157.942E-12	665.053E-3	30.6837E-3
-4.07454E-3	-158.998E-12	626.564E-3	9.22093E-3	-157.900E-12	673.237E-3	18.2351E-3
-4.07954E-3	-160.733E-12	651.057E-3	-5.33632E-3	-158.986E-12	670.099E-3	-4.54621E-3
-4.08454E-3	-160.736E-12	654.503E-3	-8.95116E-3	-161.667E-12	661.671E-3	-30.6072E-3
-4.08954E-3	-159.703E-12	653.244E-3	-33.2494E-3	-160.355E-12	667.558E-3	-18.6378E-3
-4.09455E-3	-160.313E-12	641.317E-3	-47.2204E-3	-158.224E-12	667.188E-3	6.39531E-3
-4.09955E-3	-161.035E-12	627.324E-3	-47.4459E-3	-158.456E-12	656.108E-3	-2.91800E-3
-4.10455E-3	-160.167E-12	632.260E-3	-58.4030E-3	-160.818E-12	655.053E-3	-15.7816E-3
-4.10955E-3	-159.235E-12	633.251E-3	-58.3359E-3	-161.483E-12	651.323E-3	-14.9076E-3
-4.11456E-3	-160.058E-12	620.029E-3	-27.5376E-3	-160.741E-12	641.645E-3	-15.5697E-3
-4.11956E-3	-161.615E-12	618.130E-3	-4.38529E-3	-159.551E-12	636.185E-3	-21.8639E-3
-4.12456E-3	-161.246E-12	652.388E-3	7.99568E-3	-160.340E-12	635.948E-3	-19.7799E-3
-4.12956E-3	-160.660E-12	671.369E-3	20.3495E-3	-161.520E-12	643.656E-3	-4.65916E-3
-4.13457E-3	-160.080E-12	648.936E-3	4.04456E-3	-161.775E-12	644.819E-3	11.4232E-3
-4.13957E-3	-160.668E-12	648.633E-3	-16.2046E-3	-160.661E-12	640.089E-3	25.7585E-3
-4.14457E-3	-161.880E-12	665.714E-3	-5.41385E-3	-161.271E-12	637.244E-3	8.47050E-3
-4.14957E-3	-162.831E-12	641.209E-3	2.68110E-3	-162.119E-12	626.010E-3	-25.8364E-3
-4.15458E-3	-162.740E-12	625.318E-3	-8.73037E-3	-161.915E-12	629.684E-3	-22.8719E-3
-4.15958E-3	-163.591E-12	649.925E-3	-8.73389E-3	-161.512E-12	646.242E-3	-6.86939E-3
-4.16458E-3	-164.867E-12	660.859E-3	-9.77679E-3	-160.184E-12	642.377E-3	-6.63334E-3
-4.16958E-3	-166.047E-12	662.463E-3	-28.4777E-3	-160.452E-12	641.357E-3	-5.97542E-3
-4.17459E-3	-165.743E-12	672.719E-3	-31.3993E-3	-160.997E-12	657.387E-3	471.575E-6
-4.17959E-3	-165.149E-12	671.233E-3	-34.4153E-3	-160.181E-12	648.202E-3	12.6057E-3
-4.18459E-3	-165.446E-12	666.367E-3	-59.1628E-3	-158.377E-12	615.407E-3	23.0769E-3
-4.18959E-3	-165.229E-12	660.448E-3	-53.2079E-3	-159.416E-12	605.006E-3	27.1563E-3
-4.19460E-3	-165.451E-12	646.718E-3	-14.4501E-3	-162.846E-12	619.349E-3	43.7924E-3
-4.19960E-3	-165.674E-12	651.834E-3	3.01057E-3	-159.897E-12	645.765E-3	48.0004E-3
-4.20460E-3	-164.972E-12	679.557E-3	5.38181E-3	-158.548E-12	673.171E-3	22.2263E-3
-4.20960E-3	-164.045E-12	682.048E-3	-5.46130E-3	-159.908E-12	677.089E-3	-4.52741E-3
-4.21461E-3	-164.525E-12	658.971E-3	-20.7459E-3	-162.839E-12	667.839E-3	-38.0221E-3
-4.21961E-3	-165.774E-12	631.463E-3	2.21430E-3	-163.997E-12	668.328E-3	-47.0179E-3
-4.22461E-3	-163.909E-12	617.612E-3	17.8711E-3	-162.166E-12	665.431E-3	-36.0288E-3
-4.22961E-3	-161.760E-12	644.724E-3	-2.61576E-3	-161.757E-12	646.766E-3	-38.0796E-3
-4.23462E-3	-160.566E-12	658.073E-3	1.39423E-3	-163.127E-12	633.936E-3	-36.4905E-3
-4.23962E-3	-162.867E-12	632.243E-3	16.1885E-3	-164.696E-12	635.380E-3	-35.4373E-3
-4.24462E-3	-163.162E-12	628.536E-3	25.5999E-3	-164.709E-12	638.217E-3	-32.2049E-3
-4.24962E-3	-163.988E-12	650.118E-3	40.3959E-3	-164.862E-12	633.955E-3	-43.4708E-3
-4.25463E-3	-162.297E-12	661.805E-3	32.2137E-3	-164.111E-12	622.521E-3	-48.3363E-3
-4.25963E-3	-163.519E-12	660.660E-3	4.43533E-3	-164.940E-12	622.298E-3	-12.7156E-3
-4.26463E-3	-164.152E-12	652.072E-3	-7.69669E-3	-165.383E-12	622.552E-3	11.2951E-3
-4.26963E-3	-165.660E-12	627.830E-3	7.45936E-3	-165.475E-12	605.383E-3	12.4170E-3
-4.27464E-3	-163.930E-12	620.271E-3	4.54828E-3	-164.948E-12	608.557E-3	17.4500E-3
-4.27964E-3	-163.630E-12	635.776E-3	-31.1912E-3	-165.511E-12	621.393E-3	-5.15880E-3
-4.28464E-3	-164.478E-12	642.276E-3	-51.0339E-3	-167.682E-12	602.270E-3	-42.2078E-3
-4.28964E-3	-166.076E-12	629.790E-3	-36.7295E-3	-166.656E-12	594.226E-3	-44.4512E-3
-4.29465E-3	-165.215E-12	620.243E-3	695.321E-6	-164.335E-12	612.743E-3	-14.0093E-3
-4.29965E-3	-163.062E-12	640.951E-3	33.2655E-3	-164.373E-12	624.018E-3	26.6491E-3
-4.30465E-3	-163.788E-12	647.835E-3	16.7844E-3	-168.911E-12	620.976E-3	26.2973E-3
-4.30965E-3	-164.392E-12	626.242E-3	-19.4235E-3	-169.015E-12	604.899E-3	-11.7190E-3
-4.31466E-3	-164.701E-12	608.352E-3	-19.8407E-3	-166.589E-12	608.480E-3	-25.9469E-3
-4.31966E-3	-163.732E-12	614.348E-3	-6.84858E-3	-166.369E-12	639.276E-3	-17.7821E-3
-4.32466E-3	-162.554E-12	640.391E-3	1.02514E-3	-169.790E-12	661.301E-3	-3.41282E-3
-4.32966E-3	-163.722E-12	648.889E-3	15.5024E-3	-173.017E-12	669.210E-3	16.6921E-3
-4.33467E-3	-165.243E-12	635.577E-3	-8.14805E-3	-170.780E-12	675.088E-3	3.86613E-3
-4.33967E-3	-164.285E-12	628.835E-3	-52.9845E-3	-169.930E-12	682.630E-3	-34.2666E-3
-4.34467E-3	-163.879E-12	645.023E-3	-34.9454E-3	-170.465E-12	673.736E-3	-54.7230E-3
-4.34967E-3	-165.217E-12	662.493E-3	-2.01810E-3	-173.529E-12	651.386E-3	-53.6603E-3
-4.35468E-3	-167.481E-12	657.712E-3	5.44780E-3	-172.894E-12	655.417E-3	-36.3440E-3
-4.35968E-3	-168.378E-12	646.706E-3	13.6146E-3	-170.706E-12	682.515E-3	-39.7298E-3
-4.36468E-3	-167.698E-12	645.988E-3	-2.50935E-3	-171.121E-12	690.681E-3	-30.7084E-3
-4.36968E-3	-168.244E-12	648.498E-3	-18.6473E-3	-172.756E-12	676.647E-3	2.27552E-3
-4.37469E-3	-171.124E-12	656.723E-3	-5.95102E-3	-174.691E-12	660.982E-3	-6.81619E-3
-4.37969E-3	-173.960E-12	662.969E-3	-770.935E-6	-173.734E-12	648.999E-3	-45.0427E-3
-4.38469E-3	-171.949E-12	657.219E-3	-27.7323E-3	-170.343E-12	659.672E-3	-63.9049E-3
-4.38969E-3	-170.367E-12	644.556E-3	-63.0951E-3	-170.104E-12	668.692E-3	-47.9292E-3
-4.39470E-3	-171.043E-12	629.993E-3	-68.8632E-3	-173.400E-12	651.006E-3	-21.8543E-3
-4.39970E-3	-174.274E-12	637.391E-3	-45.8493E-3	-175.754E-12	640.123E-3	-23.0008E-3
-4.40470E-3	-173.403E-12	658.881E-3	-20.3729E-3	-171.458E-12	650.225E-3	-18.9503E-3
-4.40970E-3	-171.058E-12	663.052E-3	-25.4503E-3	-170.333E-12	660.942E-3	-4.02368E-3
-4.41471E-3	-171.391E-12	643.876E-3	-43.4772E-3	-173.900E-12	618.692E-3	2.59300E-3
-4.41971E-3	-174.679E-12	627.109E-3	-26.4682E-3	-175.563E-12	569.845E-3	9.34434E-3
-4.42471E-3	-174.770E-12	629.112E-3	1.10483E-3	-172.984E-12	596.401E-3	-19.0383E-3
-4.42971E-3	-172.775E-12	639.414E-3	-623.126E-6	-171.290E-12	621.455E-3	-28.7595E-3
-4.43472E-3	-173.267E-12	649.330E-3	-10.0017E-3	-171.881E-12	622.491E-3	8.09896E-3
-4.43972E-3	-175.306E-12	645.334E-3	-19.2059E-3	-174.843E-12	636.011E-3	4.91270E-3
-4.44472E-3	-178.721E-12	640.612E-3	-35.4475E-3	-175.088E-12	648.273E-3	-8.40286E-3
-4.44972E-3	-176.569E-12	661.705E-3	-25.7495E-3	-173.386E-12	648.425E-3	5.65308E-3
-4.45473E-3	-174.333E-12	684.351E-3	-10.2122E-3	-172.945E-12	631.525E-3	-5.90694E-3
-4.45973E-3	-175.583E-12	686.748E-3	-42.9515E-3	-175.705E-12	634.513E-3	-27.8921E-3
-4.46473E-3	-179.672E-12	690.401E-3	-60.1453E-3	-177.106E-12	656.712E-3	-44.8073E-3
-4.46973E-3	-179.574E-12	668.742E-3	-30.9849E-3	-175.063E-12	654.324E-3	-46.9237E-3
-4.47474E-3	-176.776E-12	633.684E-3	-35.5569E-3	-174.892E-12	649.348E-3	-23.1106E-3
-4.47974E-3	-175.935E-12	638.462E-3	-45.3245E-3	-177.706E-12	647.977E-3	-16.6752E-3
-4.48474E-3	-178.782E-12	658.568E-3	-20.4595E-3	-177.927E-12	636.423E-3	-3.79362E-3
-4.48974E-3	-179.992E-12	667.937E-3	-9.87873E-3	-176.031E-12	636.940E-3	15.9020E-3
-4.49475E-3	-178.860E-12	682.714E-3	-5.44727E-3	-175.119E-12	641.522E-3	16.7406E-3
-4.49975E-3	-177.459E-12	693.844E-3	6.80761E-3	-176.707E-12	647.631E-3	8.26304E-3
-4.50475E-3	-177.910E-12	694.842E-3	439.785E-6	-178.366E-12	654.021E-3	-20.7340E-3
-4.50975E-3	-180.293E-12	711.209E-3	8.21961E-3	-178.887E-12	645.746E-3	-26.4892E-3
-4.51476E-3	-180.254E-12	706.166E-3	22.4156E-3	-177.140E-12	647.342E-3	4.20362E-3
-4.51976E-3	-177.435E-12	657.988E-3	-9.58195E-3	-177.028E-12	638.192E-3	26.8478E-3
-4.52476E-3	-177.474E-12	624.377E-3	-28.3385E-3	-179.059E-12	620.702E-3	34.7043E-3
-4.52976E-3	-178.808E-12	617.044E-3	-7.16786E-3	-178.877E-12	630.782E-3	23.5195E-3
-4.53477E-3	-179.437E-12	627.351E-3	-10.9092E-3	-178.449E-12	632.414E-3	-4.40376E-3
-4.53977E-3	-176.750E-12	656.271E-3	-43.1646E-3	-178.884E-12	629.948E-3	-32.6527E-3
-4.54477E-3	-175.996E-12	666.520E-3	-49.7656E-3	-179.938E-12	644.204E-3	-61.5407E-3
-4.54977E-3	-176.713E-12	652.021E-3	-35.7062E-3	-180.344E-12	649.552E-3	-71.6006E-3
-4.55478E-3	-177.453E-12	635.891E-3	-17.7110E-3	-180.963E-12	648.994E-3	-52.3209E-3
-4.55978E-3	-176.543E-12	620.007E-3	-16.4664E-3	-179.913E-12	643.474E-3	-37.5927E-3
-4.56478E-3	-175.486E-12	612.108E-3	-47.8662E-3	-179.016E-12	615.934E-3	-34.7151E-3
-4.56978E-3	-176.147E-12	614.893E-3	-64.8620E-3	-180.198E-12	611.676E-3	-28.3402E-3
-4.57479E-3	-176.534E-12	623.147E-3	-33.1561E-3	-182.689E-12	639.131E-3	-22.3282E-3
-4.57979E-3	-176.920E-12	646.654E-3	30.2483E-6	-180.484E-12	658.907E-3	-28.4315E-3
-4.58479E-3	-178.531E-12	659.813E-3	2.06417E-3	-179.884E-12	671.005E-3	-37.0063E-3
-4.58979E-3	-178.653E-12	670.669E-3	6.74493E-3	-181.001E-12	674.222E-3	-17.2142E-3
-4.59480E-3	-177.089E-12	670.786E-3	2.23281E-3	-182.749E-12	664.997E-3	-6.98003E-3
-4.59980E-3	-177.995E-12	653.095E-3	-13.3363E-3	-180.771E-12	645.465E-3	-32.7918E-3
-4.60480E-3	-180.218E-12	662.424E-3	-13.1386E-3	-180.104E-12	614.718E-3	-34.5398E-3
-4.60980E-3	-179.742E-12	672.575E-3	-15.5767E-3	-181.464E-12	609.414E-3	-20.4653E-3
-4.61481E-3	-178.177E-12	669.640E-3	-39.7754E-3	-182.979E-12	629.278E-3	-34.4986E-3
-4.61981E-3	-179.491E-12	658.958E-3	-57.6665E-3	-182.371E-12	643.158E-3	-42.6106E-3
-4.62481E-3	-180.701E-12	634.645E-3	-53.2685E-3	-179.587E-12	656.324E-3	-27.1248E-3
-4.62981E-3	-181.027E-12	619.828E-3	-46.2900E-3	-179.808E-12	644.385E-3	-31.1860E-3
-4.63482E-3	-178.638E-12	639.469E-3	-37.8752E-3	-182.797E-12	621.027E-3	-32.9258E-3
-4.63982E-3	-177.560E-12	661.231E-3	-38.6178E-3	-183.077E-12	630.169E-3	-22.6906E-3
-4.64482E-3	-177.964E-12	674.788E-3	-40.4448E-3	-180.521E-12	646.500E-3	-9.84446E-3
-4.64982E-3	-177.909E-12	682.043E-3	-26.2202E-3	-180.956E-12	638.125E-3	17.6118E-3
-4.65483E-3	-176.610E-12	642.137E-3	-3.09376E-3	-182.218E-12	617.226E-3	7.99483E-3
-4.65983E-3	-175.805E-12	600.109E-3	12.1899E-3	-183.336E-12	604.551E-3	-27.3269E-3
-4.66483E-3	-177.034E-12	612.220E-3	4.62703E-3	-182.202E-12	631.691E-3	-46.4023E-3
-4.66983E-3	-179.453E-12	618.494E-3	5.90736E-3	-180.293E-12	675.977E-3	-57.9927E-3
-4.67484E-3	-178.430E-12	611.206E-3	7.94476E-3	-181.600E-12	689.564E-3	-43.6145E-3
-4.67984E-3	-178.430E-12	629.347E-3	20.4696E-3	-182.914E-12	688.599E-3	-20.4363E-3
-4.68484E-3	-180.820E-12	635.837E-3	39.7256E-3	-184.166E-12	677.237E-3	-28.9067E-3
-4.68984E-3	-181.367E-12	638.175E-3	17.4470E-3	-183.032E-12	673.260E-3	-38.6929E-3
-4.69485E-3	-182.789E-12	661.771E-3	7.90707E-3	-182.661E-12	683.632E-3	-20.3513E-3
-4.69985E-3	-182.907E-12	651.741E-3	23.4707E-3	-183.127E-12	678.279E-3	-3.40100E-3
-4.70485E-3	-183.026E-12	630.728E-3	6.68182E-3	-183.692E-12	676.204E-3	4.68394E-3
-4.70985E-3	-183.788E-12	653.394E-3	-39.6539E-3	-181.654E-12	668.900E-3	153.417E-6
-4.71486E-3	-184.992E-12	670.222E-3	-67.3077E-3	-181.891E-12	652.420E-3	-11.4602E-3
-4.71986E-3	-185.124E-12	656.111E-3	-71.2142E-3	-182.325E-12	659.936E-3	-9.98394E-3
-4.72486E-3	-185.763E-12	641.320E-3	-58.0967E-3	-182.299E-12	671.133E-3	-8.68628E-3
-4.72986E-3	-186.687E-12	650.451E-3	-20.9489E-3	-183.177E-12	646.784E-3	-5.92528E-3
-4.73487E-3	-184.571E-12	657.341E-3	-4.09257E-3	-183.054E-12	608.643E-3	-13.4984E-3
-4.73987E-3	-185.605E-12	656.695E-3	-20.4167E-3	-183.260E-12	593.929E-3	-25.0510E-3
-4.74487E-3	-184.772E-12	662.121E-3	-28.6429E-3	-183.905E-12	602.861E-3	-30.0388E-3
-4.74988E-3	-184.848E-12	658.922E-3	-28.5630E-3	-184.897E-12	626.299E-3	-27.5770E-3
-4.75488E-3	-183.724E-12	655.596E-3	-20.2318E-3	-184.451E-12	639.844E-3	-18.1968E-3
-4.75988E-3	-185.129E-12	640.528E-3	-7.49394E-3	-185.435E-12	640.479E-3	-25.3620E-3
-4.76488E-3	-186.574E-12	634.722E-3	-16.5353E-3	-186.790E-12	653.537E-3	-49.3540E-3
-4.76988E-3	-186.917E-12	658.641E-3	-23.1514E-3	-187.379E-12	676.726E-3	-49.5129E-3
-4.77489E-3	-189.051E-12	654.664E-3	-22.3169E-3	-187.732E-12	688.962E-3	-10.3323E-3
-4.77989E-3	-188.836E-12	643.781E-3	-37.8571E-3	-186.043E-12	689.916E-3	21.2422E-3
-4.78489E-3	-189.157E-12	664.390E-3	-30.9844E-3	-187.801E-12	675.561E-3	12.1864E-3
-4.78989E-3	-190.191E-12	668.118E-3	-1.34581E-3	-188.070E-12	658.424E-3	11.7671E-3
-4.79490E-3	-190.957E-12	646.582E-3	-6.68638E-3	-188.038E-12	661.310E-3	32.1353E-3
-4.79990E-3	-191.082E-12	633.518E-3	-18.1954E-3	-185.925E-12	649.460E-3	24.6523E-3
-4.80490E-3	-190.967E-12	634.538E-3	-13.3916E-3	-185.773E-12	629.732E-3	17.0442E-3
-4.80990E-3	-192.728E-12	631.398E-3	-44.9842E-3	-187.990E-12	632.639E-3	25.4618E-3
-4.81491E-3	-191.682E-12	637.109E-3	-70.2624E-3	-189.254E-12	641.009E-3	17.3928E-3
-4.81991E-3	-192.040E-12	640.183E-3	-38.5151E-3	-189.232E-12	651.710E-3	2.60243E-3
-4.82491E-3	-190.343E-12	621.478E-3	-8.58938E-3	-188.146E-12	656.840E-3	-4.85834E-3
-4.82991E-3	-189.850E-12	641.422E-3	3.58343E-3	-189.048E-12	651.079E-3	-12.4903E-3
-4.83492E-3	-190.398E-12	661.338E-3	8.01833E-3	-191.255E-12	651.245E-3	-18.3594E-3
-4.83992E-3	-191.937E-12	631.390E-3	-11.3948E-3	-191.282E-12	667.489E-3	-13.7500E-3
-4.84492E-3	-190.000E-12	616.675E-3	-25.9501E-3	-191.230E-12	682.781E-3	7.08570E-3
-4.84992E-3	-189.355E-12	636.461E-3	-8.71011E-3	-190.504E-12	688.994E-3	40.3952E-3
-4.85493E-3	-189.332E-12	658.692E-3	2.44590E-3	-193.639E-12	692.283E-3	41.0072E-3
-4.85993E-3	-192.111E-12	657.925E-3	-3.39282E-3	-193.383E-12	702.595E-3	19.6614E-3
-4.86493E-3	-191.829E-12	670.397E-3	3.60489E-3	-192.643E-12	709.496E-3	16.6062E-3
-4.86993E-3	-189.525E-12	698.460E-3	11.8447E-3	-192.581E-12	685.587E-3	8.70697E-3
-4.87494E-3	-189.096E-12	693.643E-3	-6.66599E-3	-192.932E-12	665.977E-3	-1.96758E-3
-4.87994E-3	-190.615E-12	679.806E-3	-11.6935E-3	-192.621E-12	661.083E-3	-7.61722E-3
-4.88494E-3	-191.649E-12	640.099E-3	-2.70041E-3	-191.692E-12	644.883E-3	-9.85004E-3
-4.88995E-3	-189.679E-12	589.875E-3	-30.9987E-3	-192.374E-12	639.666E-3	-20.1478E-3
-4.89495E-3	-188.257E-12	617.360E-3	-60.6366E-3	-194.001E-12	656.413E-3	-42.7341E-3
-4.89995E-3	-190.197E-12	670.357E-3	-62.8178E-3	-194.673E-12	647.343E-3	-39.8834E-3
-4.90495E-3	-191.243E-12	668.563E-3	-50.8993E-3	-193.005E-12	620.005E-3	-20.4683E-3
-4.90995E-3	-191.409E-12	650.850E-3	-27.2633E-3	-193.362E-12	623.201E-3	-12.4794E-3
-4.91496E-3	-189.965E-12	652.423E-3	-17.9390E-3	-194.809E-12	626.939E-3	-9.44677E-3
-4.91996E-3	-190.372E-12	642.528E-3	-34.2214E-3	-196.792E-12	616.866E-3	-21.7613E-3
-4.92496E-3	-191.734E-12	614.702E-3	-39.8761E-3	-196.965E-12	626.445E-3	-41.4926E-3
-4.92996E-3	-191.707E-12	605.242E-3	-26.6999E-3	-196.989E-12	658.704E-3	-30.8062E-3
-4.93497E-3	-190.389E-12	612.184E-3	-8.57724E-3	-197.630E-12	678.095E-3	-11.7835E-3
-4.93997E-3	-189.561E-12	624.018E-3	-4.80471E-3	-199.132E-12	651.739E-3	-18.7354E-3
-4.94497E-3	-191.941E-12	637.527E-3	-9.32071E-3	-199.590E-12	619.743E-3	-19.0611E-3
-4.94997E-3	-192.260E-12	623.199E-3	-20.2324E-3	-197.803E-12	632.415E-3	-662.676E-6
-4.95498E-3	-191.750E-12	608.345E-3	-39.3565E-3	-198.422E-12	653.093E-3	3.17112E-3
-4.95998E-3	-190.510E-12	635.092E-3	-36.0850E-3	-199.089E-12	650.794E-3	-13.3104E-3
-4.96498E-3	-191.396E-12	676.051E-3	-28.2036E-3	-198.475E-12	648.016E-3	-18.0156E-3
-4.96998E-3	-190.946E-12	699.624E-3	-17.1835E-3	-196.951E-12	647.783E-3	-6.80736E-3
-4.97499E-3	-191.134E-12	691.715E-3	-3.29102E-3	-197.271E-12	637.308E-3	-1.14597E-3
-4.97999E-3	-192.049E-12	668.574E-3	-15.5121E-3	-198.251E-12	643.000E-3	-14.2732E-3
-4.98499E-3	-192.903E-12	649.954E-3	-38.0697E-3	-198.183E-12	649.371E-3	-24.3204E-3
-4.98999E-3	-192.889E-12	639.721E-3	-50.9866E-3	-197.220E-12	647.513E-3	6.88237E-3
-4.99500E-3	-193.537E-12	635.520E-3	-37.3523E-3	-196.769E-12	669.071E-3	18.2520E-3
-5.00000E-3	-194.083E-12	637.006E-3	-16.3312E-3	-195.755E-12	662.115E-3	-5.94785E-3
