Experiment	bias spectroscopy	
Date	19.01.2016 19:28:59	
User		
X (m)	49.823E-9	
Y (m)	256.318E-9	
Z (m)	-132.577E-9	
Z offset (m)	0E+0	
Settling time (s)	200E-6	
Integration time (s)	5E-3	
Z-Ctrl hold	TRUE	
Final Z (m)	N/A	
Filter type	None	
Order		
Cutoff frq		
Comment01	MnPc/Pb(111)	
Comment02	dz =00pm	
Comment03	7 Sweeps	
Comment04	MagField =0.T	
Comment05	Divider 1:10	
Comment06	Setpoint:5mV,200 pA	
Comment07	Lockin: 50uVrms,5ms,5mV	
Comment08	Gain:9; 912Hz modulation	
Comment09	T=1.06K	
Bias>Bias (V)	5E-3	
Bias>Calibration (V/V)	81.475E-3	
Bias>Offset (V)	1.046E-3	
Bias Spectroscopy>Sweep Start (V)	5E-3	
Bias Spectroscopy>Sweep End (V)	-5E-3	
Bias Spectroscopy>Num Pixel	2000	
Bias Spectroscopy>Z Avg time (s)	500E-3	
Bias Spectroscopy>Z offset (m)	0E+0	
Bias Spectroscopy>1st Settling time (s)	500E-3	
Bias Spectroscopy>Settling time (s)	200E-6	
Bias Spectroscopy>Integration time (s)	5E-3	
Bias Spectroscopy>End Settling time (s)	500E-3	
Bias Spectroscopy>Z control time (s)	500E-3	
Bias Spectroscopy>Max Slew rate (V/s)	Inf	
Bias Spectroscopy>backward sweep	TRUE	
Bias Spectroscopy>Z-controller hold	TRUE	
Bias Spectroscopy>Number of sweeps	7	
Bias Spectroscopy>Channels	Current (A);X% LockIn (V);Y% LockIn (V)	
Bias Spectroscopy>Reset Bias	TRUE	
Bias Spectroscopy>Record final Z	FALSE	
Bias Spectroscopy>Lock-In run	FALSE	
Bias Spectroscopy>Sweep mode	Linear	
Bias Spectroscopy>MultiLine Settings : Segment Start (V), Segment End (V), Settling (s), Integration (s), Steps (xn)	100E-3,3.3E-3,100E-6,10E-3,2500;3.3E-3,-3.3E-3,100E-6,10E-3,10;-3.3E-3,-100E-3,100E-6,10E-3,2500	
Current>Current (A)	200.096E-12	
Current>Calibration (A/V)	999.99900E-12	
Current>Offset (A)	-455.429E-15	
Current>Gain	LN 10^9	
Z-Controller>Z (m)	-132.58E-9	
Z-Controller>Controller name	log Current	
Z-Controller>Controller status	ON	
Z-Controller>Setpoint	200E-12	
Z-Controller>Setpoint unit	A	
Z-Controller>P gain	2.96994E-12	
Z-Controller>I gain	67.0321E-9	
Z-Controller>Time const (s)	44.3062E-6	
Z-Controller>TipLift (m)	0E+0	
Z-Controller>Switch off delay (s)	50E-3	
Current (A)	200.257E-12	
Z (m)	-132.58E-9	

[DATA]
Bias calc (V)	Current (A)	X% LockIn (V)	Y% LockIn (V)	Current [bwd] (A)	X% LockIn [bwd] (V)	Y% LockIn [bwd] (V)
5.00000E-3	197.065E-12	556.654E-3	8.65036E-3	204.660E-12	645.215E-3	-5.89136E-3
4.99500E-3	196.522E-12	532.633E-3	-14.4958E-3	203.746E-12	627.512E-3	-8.31765E-3
4.98999E-3	196.783E-12	549.173E-3	-11.9041E-3	202.973E-12	633.261E-3	-18.9529E-3
4.98499E-3	196.985E-12	578.438E-3	-11.9649E-3	201.658E-12	619.921E-3	-2.45712E-3
4.97999E-3	198.545E-12	595.766E-3	-30.1226E-3	200.789E-12	627.429E-3	12.2405E-3
4.97499E-3	198.826E-12	614.254E-3	-33.3730E-3	199.227E-12	641.585E-3	-22.0244E-3
4.96998E-3	199.540E-12	619.452E-3	-12.6636E-3	198.102E-12	619.766E-3	-43.1280E-3
4.96498E-3	200.518E-12	614.392E-3	-3.25773E-3	197.259E-12	599.666E-3	-33.1393E-3
4.95998E-3	202.169E-12	607.757E-3	-879.089E-6	196.895E-12	616.211E-3	-52.7860E-3
4.95498E-3	202.857E-12	609.803E-3	4.31300E-3	195.961E-12	633.838E-3	-44.2618E-3
4.94997E-3	202.828E-12	625.626E-3	1.43903E-3	195.239E-12	618.527E-3	-6.22693E-3
4.94497E-3	202.995E-12	628.555E-3	20.7087E-3	194.971E-12	608.530E-3	-23.7613E-3
4.93997E-3	203.410E-12	619.199E-3	33.8984E-3	194.946E-12	600.551E-3	-53.7674E-3
4.93497E-3	204.307E-12	618.031E-3	18.3178E-3	194.520E-12	591.021E-3	-42.2820E-3
4.92996E-3	203.924E-12	637.616E-3	20.2273E-3	194.290E-12	610.610E-3	-8.54203E-3
4.92496E-3	203.365E-12	659.312E-3	25.7287E-3	195.601E-12	632.000E-3	-8.07103E-3
4.91996E-3	202.271E-12	658.611E-3	12.4500E-3	195.895E-12	619.922E-3	-23.6879E-3
4.91496E-3	201.542E-12	637.118E-3	-1.99284E-3	195.665E-12	595.885E-3	-14.5554E-3
4.90995E-3	200.064E-12	621.993E-3	-8.73195E-3	195.893E-12	589.009E-3	-21.7894E-3
4.90495E-3	198.141E-12	619.934E-3	-7.16481E-3	196.714E-12	608.950E-3	-22.8000E-3
4.89995E-3	196.480E-12	639.555E-3	-10.4053E-3	197.008E-12	660.075E-3	-7.08522E-3
4.89495E-3	195.878E-12	644.336E-3	-12.4435E-3	197.328E-12	682.810E-3	-25.4880E-3
4.88995E-3	194.830E-12	603.024E-3	627.354E-6	196.772E-12	660.747E-3	-51.0392E-3
4.88494E-3	193.810E-12	586.073E-3	6.90139E-3	196.861E-12	661.108E-3	-56.0968E-3
4.87994E-3	193.111E-12	602.569E-3	-598.449E-6	196.654E-12	657.602E-3	-48.9874E-3
4.87494E-3	192.293E-12	606.702E-3	2.53783E-3	196.863E-12	632.340E-3	-41.4581E-3
4.86993E-3	192.221E-12	608.896E-3	374.128E-6	197.006E-12	642.982E-3	-36.4427E-3
4.86493E-3	192.191E-12	607.535E-3	-26.3301E-3	196.282E-12	641.439E-3	-30.8876E-3
4.85993E-3	193.277E-12	598.178E-3	-38.5812E-3	195.431E-12	608.197E-3	-27.3746E-3
4.85493E-3	194.109E-12	591.176E-3	-26.8449E-3	194.243E-12	602.596E-3	-15.8772E-3
4.84992E-3	194.464E-12	595.186E-3	-25.7618E-3	193.490E-12	607.436E-3	-12.9844E-3
4.84492E-3	195.553E-12	607.849E-3	-31.6024E-3	192.225E-12	595.859E-3	-23.6269E-3
4.83992E-3	196.926E-12	605.476E-3	-10.3617E-3	190.625E-12	578.656E-3	-30.0051E-3
4.83492E-3	198.306E-12	618.579E-3	18.3363E-3	189.874E-12	587.568E-3	-45.6989E-3
4.82991E-3	197.313E-12	636.908E-3	11.6796E-3	190.389E-12	598.092E-3	-44.2401E-3
4.82491E-3	196.625E-12	644.248E-3	390.207E-6	190.751E-12	580.693E-3	-25.4353E-3
4.81991E-3	196.925E-12	653.815E-3	6.65805E-3	190.691E-12	582.052E-3	-24.2918E-3
4.81491E-3	196.147E-12	629.302E-3	15.1307E-3	191.633E-12	588.886E-3	-27.8573E-3
4.80990E-3	194.761E-12	597.861E-3	1.53931E-3	191.562E-12	593.117E-3	-28.6692E-3
4.80490E-3	192.275E-12	607.090E-3	-19.4959E-3	193.165E-12	613.511E-3	-42.1755E-3
4.79990E-3	190.651E-12	618.247E-3	-19.2274E-3	194.108E-12	634.862E-3	-53.7227E-3
4.79490E-3	189.108E-12	599.833E-3	-24.7494E-3	195.674E-12	642.422E-3	-40.4470E-3
4.78989E-3	186.717E-12	590.158E-3	-31.0000E-3	195.956E-12	632.878E-3	-38.4957E-3
4.78489E-3	184.359E-12	600.874E-3	-9.21732E-3	197.066E-12	624.881E-3	-49.7491E-3
4.77989E-3	182.707E-12	595.444E-3	24.9536E-3	198.490E-12	632.399E-3	-14.1313E-3
4.77489E-3	182.981E-12	579.679E-3	37.1802E-3	198.715E-12	657.461E-3	11.7184E-3
4.76988E-3	182.981E-12	591.375E-3	20.6096E-3	198.930E-12	667.316E-3	-15.0671E-3
4.76488E-3	183.414E-12	626.253E-3	-10.3624E-3	197.776E-12	655.095E-3	-19.4621E-3
4.75988E-3	184.460E-12	642.400E-3	-30.4250E-3	197.001E-12	638.544E-3	-21.7028E-3
4.75488E-3	186.623E-12	619.090E-3	-26.5942E-3	195.815E-12	612.925E-3	-33.9589E-3
4.74988E-3	188.767E-12	602.428E-3	-17.6054E-3	194.213E-12	620.369E-3	-16.1448E-3
4.74487E-3	190.620E-12	604.834E-3	-37.7338E-3	191.650E-12	646.254E-3	22.5217E-3
4.73987E-3	191.564E-12	595.925E-3	-58.1314E-3	189.222E-12	630.486E-3	34.2300E-3
4.73487E-3	193.093E-12	597.363E-3	-50.1793E-3	187.440E-12	604.428E-3	10.4567E-3
4.72986E-3	194.565E-12	604.793E-3	-30.8287E-3	185.736E-12	595.361E-3	-3.86747E-3
4.72486E-3	195.544E-12	608.274E-3	-6.46949E-3	185.264E-12	588.646E-3	-11.2676E-3
4.71986E-3	195.329E-12	616.541E-3	260.141E-6	184.752E-12	593.808E-3	848.266E-6
4.71486E-3	195.491E-12	628.620E-3	-10.0253E-3	184.706E-12	612.356E-3	5.69898E-3
4.70985E-3	193.918E-12	628.794E-3	-5.62051E-3	185.060E-12	601.408E-3	-19.1326E-3
4.70485E-3	192.488E-12	623.603E-3	8.95072E-3	187.124E-12	579.889E-3	-7.81585E-3
4.69985E-3	191.280E-12	643.439E-3	16.0815E-3	187.889E-12	602.990E-3	16.3883E-3
4.69485E-3	189.017E-12	661.763E-3	1.72047E-3	188.490E-12	635.661E-3	4.48991E-3
4.68984E-3	187.483E-12	662.772E-3	-33.7900E-3	190.347E-12	619.402E-3	-6.99935E-3
4.68484E-3	186.511E-12	653.931E-3	-38.1117E-3	191.856E-12	604.806E-3	-5.31866E-3
4.67984E-3	186.061E-12	643.825E-3	-11.9520E-3	193.081E-12	627.811E-3	-1.31522E-3
4.67484E-3	185.551E-12	641.089E-3	-8.86292E-3	192.949E-12	645.181E-3	13.8353E-3
4.66983E-3	186.419E-12	620.449E-3	-19.3091E-3	193.778E-12	654.742E-3	19.3576E-3
4.66483E-3	186.272E-12	587.955E-3	-14.5354E-3	193.500E-12	665.525E-3	-13.2246E-3
4.65983E-3	187.774E-12	592.995E-3	-8.24309E-3	192.902E-12	649.752E-3	-37.5668E-3
4.65483E-3	189.151E-12	614.784E-3	-9.26805E-3	191.508E-12	615.364E-3	-49.0610E-3
4.64982E-3	189.826E-12	619.189E-3	-12.8286E-3	190.244E-12	600.011E-3	-57.1992E-3
4.64482E-3	190.653E-12	625.278E-3	-6.83139E-3	187.684E-12	588.541E-3	-22.9539E-3
4.63982E-3	191.732E-12	647.229E-3	21.5802E-3	185.663E-12	594.833E-3	-1.48962E-3
4.63482E-3	192.025E-12	662.907E-3	40.3246E-3	183.221E-12	616.658E-3	-8.72535E-3
4.62981E-3	192.144E-12	657.080E-3	45.2337E-3	181.786E-12	619.339E-3	-20.5717E-3
4.62481E-3	192.636E-12	655.345E-3	46.5360E-3	180.057E-12	622.866E-3	-26.5325E-3
4.61981E-3	192.317E-12	635.941E-3	50.8648E-3	179.552E-12	625.835E-3	-12.0743E-3
4.61481E-3	191.813E-12	599.669E-3	52.8875E-3	180.356E-12	599.722E-3	-3.55838E-3
4.60980E-3	189.658E-12	609.966E-3	35.7372E-3	180.912E-12	579.507E-3	-2.17410E-3
4.60480E-3	188.898E-12	657.859E-3	13.2963E-3	180.967E-12	605.818E-3	-6.72417E-3
4.59980E-3	187.083E-12	668.860E-3	-11.8784E-3	181.721E-12	640.887E-3	-33.6215E-3
4.59480E-3	185.675E-12	647.263E-3	-23.9582E-3	183.138E-12	657.163E-3	-33.5575E-3
4.58979E-3	183.994E-12	639.036E-3	-13.3969E-3	183.752E-12	662.376E-3	7.49350E-3
4.58479E-3	183.012E-12	632.938E-3	-9.14089E-3	185.171E-12	638.332E-3	25.3450E-3
4.57979E-3	182.291E-12	624.290E-3	-29.3196E-3	186.280E-12	609.326E-3	11.2683E-3
4.57479E-3	181.982E-12	630.944E-3	-26.6498E-3	186.622E-12	618.760E-3	5.39172E-3
4.56978E-3	181.518E-12	640.322E-3	496.704E-6	186.773E-12	639.637E-3	13.2119E-3
4.56478E-3	181.135E-12	648.758E-3	-9.55871E-3	188.271E-12	636.095E-3	6.30396E-3
4.55978E-3	181.091E-12	651.412E-3	-20.3857E-3	187.488E-12	613.696E-3	-10.1678E-3
4.55478E-3	181.481E-12	625.707E-3	-34.6502E-6	186.463E-12	607.381E-3	-28.6943E-3
4.54977E-3	181.422E-12	599.433E-3	7.38912E-3	185.428E-12	610.444E-3	-51.1401E-3
4.54477E-3	181.295E-12	596.634E-3	-4.23066E-3	184.761E-12	609.746E-3	-40.1347E-3
4.53977E-3	180.661E-12	623.870E-3	-8.41262E-3	183.261E-12	609.770E-3	8.25126E-3
4.53477E-3	180.406E-12	654.447E-3	-3.24182E-3	181.178E-12	594.366E-3	33.6646E-3
4.52976E-3	180.430E-12	650.181E-3	-1.61987E-3	179.111E-12	580.940E-3	18.1695E-3
4.52476E-3	179.539E-12	641.712E-3	661.449E-6	178.075E-12	579.664E-3	-11.3662E-3
4.51976E-3	178.356E-12	659.567E-3	-3.57808E-3	176.994E-12	567.778E-3	-13.4087E-3
4.51476E-3	177.422E-12	662.542E-3	-18.0744E-3	176.760E-12	572.871E-3	16.2782E-3
4.50975E-3	177.608E-12	621.431E-3	-15.4388E-3	175.868E-12	594.922E-3	14.3109E-3
4.50475E-3	177.623E-12	601.076E-3	-12.1441E-3	175.883E-12	603.488E-3	-11.7275E-3
4.49975E-3	176.481E-12	619.594E-3	-26.2762E-3	176.858E-12	612.799E-3	-21.0674E-3
4.49475E-3	176.233E-12	622.130E-3	-31.1926E-3	176.956E-12	626.134E-3	-32.7692E-3
4.48974E-3	176.183E-12	613.317E-3	-24.8872E-3	177.936E-12	634.401E-3	-36.8088E-3
4.48474E-3	176.272E-12	611.007E-3	-7.89389E-3	179.086E-12	627.980E-3	-28.2812E-3
4.47974E-3	176.100E-12	612.198E-3	6.42997E-3	180.865E-12	618.766E-3	-33.6431E-3
4.47474E-3	176.310E-12	630.106E-3	-20.1817E-3	181.616E-12	617.261E-3	-41.5112E-3
4.46973E-3	176.015E-12	647.728E-3	-46.7680E-3	182.868E-12	639.580E-3	-25.4081E-3
4.46473E-3	176.246E-12	642.563E-3	-30.0265E-3	182.794E-12	671.229E-3	-9.98122E-3
4.45973E-3	176.221E-12	615.021E-3	-12.8939E-3	182.608E-12	656.830E-3	-13.2371E-3
4.45473E-3	176.669E-12	609.930E-3	-2.69090E-3	182.894E-12	623.043E-3	-19.0618E-3
4.44972E-3	176.028E-12	624.788E-3	6.66144E-3	182.790E-12	607.227E-3	-30.6776E-3
4.44472E-3	176.256E-12	616.454E-3	6.10390E-3	181.197E-12	600.521E-3	-32.3276E-3
4.43972E-3	176.877E-12	617.561E-3	583.026E-6	180.185E-12	589.525E-3	-19.2333E-3
4.43472E-3	176.870E-12	634.857E-3	-741.891E-6	179.010E-12	578.798E-3	-32.4610E-3
4.42971E-3	177.143E-12	619.639E-3	-1.40823E-3	177.163E-12	578.482E-3	-48.8206E-3
4.42471E-3	177.471E-12	584.056E-3	-14.2188E-3	175.925E-12	578.517E-3	-36.3489E-3
4.41971E-3	178.770E-12	595.703E-3	-15.7518E-3	174.426E-12	587.892E-3	-24.7790E-3
4.41471E-3	178.928E-12	615.006E-3	512.826E-6	172.889E-12	598.903E-3	-22.1142E-3
4.40970E-3	180.001E-12	607.023E-3	-9.73203E-3	172.725E-12	592.465E-3	-19.8208E-3
4.40470E-3	179.232E-12	614.317E-3	-32.5166E-3	171.410E-12	587.089E-3	-18.4849E-3
4.39970E-3	180.105E-12	623.965E-3	-15.3128E-3	171.153E-12	594.455E-3	-18.6663E-3
4.39470E-3	180.447E-12	629.739E-3	2.43967E-3	171.557E-12	622.470E-3	-875.488E-6
4.38969E-3	180.672E-12	645.474E-3	-5.97395E-3	171.681E-12	655.091E-3	13.4489E-3
4.38469E-3	179.694E-12	656.064E-3	-9.40176E-3	172.081E-12	644.880E-3	-3.12672E-3
4.37969E-3	179.468E-12	652.984E-3	-12.2496E-3	173.151E-12	603.894E-3	-15.1336E-3
4.37469E-3	178.865E-12	651.893E-3	-12.1382E-3	173.792E-12	589.500E-3	-6.69583E-3
4.36968E-3	177.984E-12	644.936E-3	-5.23253E-3	174.546E-12	588.926E-3	-10.8609E-3
4.36468E-3	176.904E-12	629.431E-3	-7.39221E-3	174.767E-12	582.050E-3	-20.4471E-3
4.35968E-3	176.202E-12	624.396E-3	-13.7476E-3	175.941E-12	601.103E-3	-21.1482E-3
4.35468E-3	175.427E-12	636.290E-3	-17.7082E-3	176.244E-12	626.919E-3	-34.4966E-3
4.34967E-3	174.773E-12	650.511E-3	-22.1458E-3	177.474E-12	646.458E-3	-53.9673E-3
4.34467E-3	174.200E-12	640.593E-3	-17.6855E-3	177.769E-12	669.269E-3	-54.8733E-3
4.33967E-3	173.930E-12	624.072E-3	-14.3261E-3	177.715E-12	659.075E-3	-41.1705E-3
4.33467E-3	174.154E-12	621.366E-3	-32.0857E-3	176.804E-12	632.958E-3	-28.6420E-3
4.32966E-3	174.554E-12	616.891E-3	-53.5016E-3	176.818E-12	618.901E-3	-12.8953E-3
4.32466E-3	174.703E-12	631.052E-3	-50.4083E-3	175.265E-12	603.608E-3	-12.1817E-3
4.31966E-3	175.145E-12	656.392E-3	-23.3697E-3	174.357E-12	595.723E-3	-23.4312E-3
4.31466E-3	175.046E-12	660.366E-3	8.86666E-3	172.809E-12	598.076E-3	-22.7235E-3
4.30965E-3	176.145E-12	641.682E-3	9.77379E-3	171.406E-12	615.403E-3	-23.7530E-3
4.30465E-3	175.854E-12	610.800E-3	-11.6956E-3	170.742E-12	608.621E-3	-28.9538E-3
4.29965E-3	176.722E-12	608.411E-3	-2.53234E-3	169.689E-12	587.329E-3	-31.9751E-3
4.29465E-3	176.298E-12	626.159E-3	3.17054E-3	168.416E-12	595.811E-3	-15.4999E-3
4.28964E-3	175.830E-12	624.393E-3	-25.7874E-3	168.179E-12	584.938E-3	8.79668E-3
4.28464E-3	174.292E-12	622.221E-3	-42.2439E-3	168.723E-12	578.268E-3	-7.86062E-3
4.27964E-3	173.821E-12	637.720E-3	-22.7741E-3	168.726E-12	595.579E-3	-47.9637E-3
4.27464E-3	171.863E-12	639.217E-3	-1.67560E-3	168.867E-12	609.358E-3	-50.5766E-3
4.26963E-3	170.310E-12	623.511E-3	-2.92281E-3	170.254E-12	629.530E-3	-30.4433E-3
4.26463E-3	168.311E-12	601.421E-3	-198.094E-6	170.742E-12	648.449E-3	-35.3757E-3
4.25963E-3	166.801E-12	593.962E-3	345.834E-6	172.586E-12	648.011E-3	-28.0264E-3
4.25463E-3	165.274E-12	609.826E-3	-8.68113E-3	173.526E-12	631.990E-3	4.46325E-3
4.24962E-3	165.075E-12	611.146E-3	-4.08567E-3	175.398E-12	625.257E-3	4.47913E-3
4.24462E-3	164.405E-12	595.950E-3	-354.754E-6	174.756E-12	629.252E-3	-19.6614E-3
4.23962E-3	165.065E-12	592.554E-3	-11.1911E-3	175.442E-12	638.795E-3	-25.0367E-3
4.23462E-3	164.955E-12	610.022E-3	-20.4720E-3	175.649E-12	653.759E-3	-20.1942E-3
4.22961E-3	166.134E-12	620.509E-3	-23.3581E-3	175.155E-12	639.485E-3	-27.6248E-3
4.22461E-3	166.641E-12	629.276E-3	-24.1075E-3	173.517E-12	614.894E-3	-33.9914E-3
4.21961E-3	167.873E-12	635.054E-3	-27.0138E-3	172.313E-12	625.516E-3	-39.9760E-3
4.21461E-3	167.914E-12	619.180E-3	-18.9894E-3	170.246E-12	637.592E-3	-51.1332E-3
4.20960E-3	168.321E-12	616.645E-3	-14.5232E-3	169.269E-12	628.315E-3	-44.7416E-3
4.20460E-3	168.072E-12	632.447E-3	-17.9872E-3	167.283E-12	620.286E-3	-34.5474E-3
4.19960E-3	168.715E-12	637.754E-3	-9.38449E-3	165.599E-12	614.654E-3	-38.9647E-3
4.19460E-3	168.058E-12	627.790E-3	-11.4802E-3	164.363E-12	620.374E-3	-41.6235E-3
4.18959E-3	167.251E-12	616.260E-3	-21.7194E-3	163.761E-12	639.357E-3	-40.3116E-3
4.18459E-3	166.479E-12	599.619E-3	-17.1191E-3	163.126E-12	628.598E-3	-36.4342E-3
4.17959E-3	165.785E-12	606.310E-3	-97.9352E-6	163.396E-12	605.431E-3	-20.7976E-3
4.17459E-3	164.476E-12	619.232E-3	3.38473E-3	162.367E-12	620.288E-3	-20.3384E-3
4.16958E-3	163.399E-12	605.989E-3	-20.5634E-3	163.582E-12	639.025E-3	-15.4210E-3
4.16458E-3	162.264E-12	607.799E-3	-38.1084E-3	164.530E-12	643.073E-3	13.8172E-3
4.15958E-3	162.366E-12	606.312E-3	-38.6987E-3	166.596E-12	648.067E-3	16.7036E-3
4.15458E-3	162.088E-12	582.471E-3	-45.4181E-3	166.749E-12	629.358E-3	-3.34361E-3
4.14957E-3	162.276E-12	579.703E-3	-32.3514E-3	168.266E-12	609.787E-3	-18.8517E-3
4.14457E-3	163.049E-12	593.228E-3	3.70091E-3	169.503E-12	615.814E-3	-13.5820E-3
4.13957E-3	164.476E-12	593.936E-3	15.6232E-3	169.620E-12	630.861E-3	10.6821E-3
4.13457E-3	165.442E-12	607.708E-3	-535.531E-6	168.853E-12	634.569E-3	12.1121E-3
4.12956E-3	165.808E-12	627.604E-3	-17.1314E-3	167.439E-12	630.813E-3	-8.93770E-3
4.12456E-3	166.473E-12	641.154E-3	-13.8537E-3	165.818E-12	639.564E-3	-14.0619E-3
4.11956E-3	167.354E-12	649.076E-3	7.37468E-3	164.159E-12	629.054E-3	-12.0150E-3
4.11456E-3	168.106E-12	642.202E-3	22.3245E-3	162.843E-12	604.294E-3	-9.45619E-3
4.10955E-3	168.386E-12	633.750E-3	12.2328E-3	160.693E-12	600.733E-3	-4.27380E-3
4.10455E-3	168.317E-12	628.326E-3	-1.18079E-3	158.633E-12	596.277E-3	-607.389E-6
4.09955E-3	167.818E-12	626.321E-3	-1.96560E-3	157.353E-12	593.222E-3	21.6188E-3
4.09455E-3	167.197E-12	624.867E-3	1.45709E-3	156.467E-12	609.863E-3	33.1495E-3
4.08954E-3	165.848E-12	617.355E-3	-5.79347E-3	156.052E-12	625.546E-3	5.65779E-3
4.08454E-3	164.674E-12	593.399E-3	-16.5622E-3	155.835E-12	623.617E-3	-12.7484E-3
4.07954E-3	163.444E-12	588.598E-3	-6.76542E-3	156.463E-12	623.842E-3	-8.07933E-3
4.07454E-3	162.766E-12	618.609E-3	-16.1926E-3	157.067E-12	627.005E-3	-17.9621E-3
4.06953E-3	161.829E-12	624.566E-3	-31.2739E-3	158.571E-12	642.802E-3	-17.3497E-3
4.06453E-3	161.745E-12	617.319E-3	-12.1958E-3	159.407E-12	655.319E-3	4.71002E-3
4.05953E-3	161.726E-12	631.726E-3	3.60679E-3	160.874E-12	634.294E-3	-4.65872E-3
4.05453E-3	161.468E-12	641.508E-3	-1.85287E-3	161.953E-12	614.383E-3	-22.6122E-3
4.04952E-3	161.311E-12	620.887E-3	-4.78634E-3	162.781E-12	605.092E-3	-12.6260E-3
4.04452E-3	162.016E-12	599.544E-3	-11.7816E-3	163.975E-12	605.803E-3	-22.1504E-3
4.03952E-3	162.167E-12	624.645E-3	-30.8074E-3	163.526E-12	619.273E-3	-51.6257E-3
4.03452E-3	162.211E-12	655.347E-3	-54.9467E-3	164.095E-12	627.255E-3	-54.3710E-3
4.02951E-3	162.338E-12	657.186E-3	-76.9541E-3	163.361E-12	626.361E-3	-42.7248E-3
4.02451E-3	162.430E-12	645.786E-3	-56.0824E-3	163.164E-12	628.766E-3	-24.4419E-3
4.01951E-3	161.933E-12	628.449E-3	-16.8108E-3	162.243E-12	634.177E-3	-1.85679E-3
4.01451E-3	162.421E-12	621.837E-3	-13.8549E-3	161.566E-12	626.586E-3	4.00239E-3
4.00950E-3	161.067E-12	638.154E-3	-38.8197E-3	160.010E-12	612.274E-3	-2.89313E-3
4.00450E-3	160.558E-12	650.335E-3	-50.3101E-3	158.594E-12	604.234E-3	-3.77017E-3
3.99950E-3	159.555E-12	624.281E-3	-29.8854E-3	158.179E-12	602.297E-3	-4.20336E-3
3.99450E-3	159.395E-12	602.294E-3	-26.9427E-3	157.865E-12	607.272E-3	-12.1650E-3
3.98949E-3	158.443E-12	621.162E-3	-43.9040E-3	157.057E-12	614.288E-3	1.68437E-3
3.98449E-3	158.092E-12	641.567E-3	-40.7286E-3	156.771E-12	616.410E-3	16.8730E-3
3.97949E-3	157.086E-12	649.666E-3	-35.9228E-3	157.544E-12	614.615E-3	6.28500E-3
3.97449E-3	157.200E-12	657.873E-3	-28.8250E-3	157.685E-12	616.384E-3	-11.6350E-3
3.96948E-3	157.381E-12	645.451E-3	-11.1865E-3	158.191E-12	623.407E-3	-33.3635E-3
3.96448E-3	157.790E-12	617.090E-3	-5.80647E-3	158.607E-12	625.968E-3	-36.2619E-3
3.95948E-3	156.308E-12	611.950E-3	-8.56353E-3	158.512E-12	633.805E-3	-19.3580E-3
3.95448E-3	156.623E-12	624.037E-3	-16.7448E-3	159.181E-12	648.937E-3	-8.14360E-3
3.94947E-3	156.195E-12	623.595E-3	-44.6523E-3	159.761E-12	642.305E-3	-2.39694E-3
3.94447E-3	156.491E-12	625.317E-3	-56.4495E-3	160.158E-12	625.536E-3	223.371E-6
3.93947E-3	154.975E-12	645.865E-3	-34.4862E-3	159.394E-12	626.826E-3	2.96788E-3
3.93447E-3	154.875E-12	653.471E-3	-18.3329E-3	160.328E-12	643.475E-3	-751.857E-6
3.92946E-3	153.784E-12	636.211E-3	-18.3719E-3	160.380E-12	648.148E-3	3.31012E-3
3.92446E-3	153.348E-12	624.300E-3	-27.4852E-3	160.297E-12	631.718E-3	14.2523E-3
3.91946E-3	152.707E-12	630.745E-3	-35.5681E-3	159.715E-12	631.278E-3	5.78959E-3
3.91446E-3	152.241E-12	641.192E-3	-22.6248E-3	159.398E-12	644.410E-3	-8.23451E-3
3.90945E-3	151.581E-12	626.587E-3	7.51662E-3	158.182E-12	644.457E-3	-9.28948E-3
3.90445E-3	151.834E-12	607.692E-3	16.8546E-3	157.520E-12	628.697E-3	-4.87093E-3
3.89945E-3	152.014E-12	612.448E-3	5.97277E-3	156.965E-12	614.271E-3	-9.29361E-3
3.89445E-3	152.820E-12	615.005E-3	-136.623E-6	155.174E-12	614.506E-3	-14.6665E-3
3.88944E-3	153.489E-12	611.721E-3	1.17790E-3	154.959E-12	612.798E-3	-16.3781E-3
3.88444E-3	154.413E-12	626.713E-3	9.21495E-3	154.508E-12	613.325E-3	-21.8073E-3
3.87944E-3	155.149E-12	636.044E-3	-2.96261E-3	153.581E-12	614.510E-3	-18.4367E-3
3.87444E-3	156.341E-12	635.090E-3	-29.6278E-3	152.717E-12	598.703E-3	-8.62957E-3
3.86943E-3	156.867E-12	653.336E-3	-27.9619E-3	152.489E-12	582.215E-3	6.32095E-3
3.86443E-3	156.522E-12	668.407E-3	-4.16010E-3	151.888E-12	590.799E-3	17.6386E-3
3.85943E-3	157.053E-12	664.794E-3	-4.51845E-3	151.269E-12	613.905E-3	7.43351E-3
3.85443E-3	157.368E-12	659.814E-3	-19.6850E-3	151.159E-12	623.826E-3	-6.11914E-3
3.84942E-3	157.054E-12	655.919E-3	-18.8261E-3	150.859E-12	630.032E-3	-13.8802E-3
3.84442E-3	155.831E-12	644.490E-3	-19.2818E-3	150.641E-12	641.793E-3	-12.5863E-3
3.83942E-3	154.523E-12	639.908E-3	-9.85034E-3	151.123E-12	645.871E-3	-12.3392E-3
3.83442E-3	153.521E-12	647.796E-3	9.63151E-3	151.601E-12	644.142E-3	-13.5814E-3
3.82941E-3	152.433E-12	655.981E-3	6.70967E-3	152.405E-12	646.177E-3	-8.81599E-3
3.82441E-3	151.219E-12	640.883E-3	-9.27497E-3	152.796E-12	641.081E-3	-22.9888E-3
3.81941E-3	150.683E-12	611.232E-3	-6.88508E-3	153.335E-12	625.720E-3	-40.0518E-3
3.81441E-3	150.444E-12	606.368E-3	-8.22026E-3	153.772E-12	623.998E-3	-48.2487E-3
3.80940E-3	150.800E-12	615.095E-3	-25.6547E-3	154.324E-12	647.030E-3	-50.4471E-3
3.80440E-3	151.168E-12	608.944E-3	-37.7863E-3	153.822E-12	651.707E-3	-35.4121E-3
3.79940E-3	152.389E-12	609.424E-3	-38.4309E-3	153.016E-12	628.136E-3	-39.8662E-3
3.79440E-3	153.311E-12	635.282E-3	-28.7778E-3	152.267E-12	612.343E-3	-50.6628E-3
3.78939E-3	154.503E-12	648.628E-3	-17.3821E-3	151.011E-12	607.836E-3	-33.0090E-3
3.78439E-3	154.993E-12	639.211E-3	-30.4631E-3	149.807E-12	621.519E-3	-2.67229E-3
3.77939E-3	155.585E-12	635.046E-3	-50.6837E-3	148.491E-12	628.385E-3	10.8770E-3
3.77439E-3	154.979E-12	659.558E-3	-35.9165E-3	147.107E-12	615.101E-3	-5.60440E-3
3.76938E-3	155.337E-12	666.416E-3	-18.3168E-3	146.358E-12	615.303E-3	-18.1921E-3
3.76438E-3	154.455E-12	629.630E-3	-11.0863E-3	145.993E-12	621.569E-3	-7.65245E-3
3.75938E-3	153.852E-12	617.292E-3	-6.46868E-3	146.246E-12	617.166E-3	9.19318E-3
3.75438E-3	151.657E-12	630.196E-3	-10.5949E-3	145.688E-12	621.048E-3	8.32383E-3
3.74937E-3	150.327E-12	648.244E-3	-12.1218E-3	146.754E-12	634.055E-3	-8.47549E-3
3.74437E-3	148.036E-12	667.084E-3	-11.5991E-3	146.934E-12	641.067E-3	-22.4765E-3
3.73937E-3	147.162E-12	665.231E-3	-14.0673E-3	148.119E-12	659.976E-3	-34.0157E-3
3.73437E-3	145.865E-12	642.633E-3	-23.7096E-3	149.147E-12	662.867E-3	-37.7207E-3
3.72936E-3	144.689E-12	628.619E-3	-41.8584E-3	150.538E-12	640.885E-3	-29.1906E-3
3.72436E-3	143.802E-12	638.493E-3	-43.8579E-3	150.877E-12	647.771E-3	-23.4562E-3
3.71936E-3	143.957E-12	641.278E-3	-24.6359E-3	151.745E-12	667.261E-3	-28.5451E-3
3.71436E-3	143.850E-12	623.269E-3	-22.5435E-3	152.387E-12	677.637E-3	-26.0364E-3
3.70935E-3	144.338E-12	623.069E-3	-40.6953E-3	152.195E-12	684.615E-3	-8.74388E-3
3.70435E-3	145.151E-12	638.491E-3	-33.9360E-3	151.784E-12	677.515E-3	1.36123E-3
3.69935E-3	146.044E-12	647.132E-3	-6.79306E-3	150.714E-12	657.219E-3	91.9708E-6
3.69435E-3	147.149E-12	628.066E-3	-3.10611E-3	150.462E-12	620.001E-3	-22.9961E-3
3.68934E-3	147.410E-12	607.482E-3	-17.5475E-3	148.836E-12	588.125E-3	-51.9633E-3
3.68434E-3	147.273E-12	627.098E-3	-39.2532E-3	147.289E-12	597.206E-3	-46.6077E-3
3.67934E-3	147.583E-12	635.343E-3	-45.8331E-3	145.647E-12	622.007E-3	-27.4169E-3
3.67434E-3	147.496E-12	628.382E-3	-28.7214E-3	144.703E-12	627.245E-3	-14.0490E-3
3.66933E-3	146.667E-12	634.723E-3	-4.55634E-3	143.453E-12	633.770E-3	-2.45446E-3
3.66433E-3	145.118E-12	642.285E-3	10.4069E-3	142.659E-12	654.275E-3	6.32757E-3
3.65933E-3	144.138E-12	642.871E-3	1.13117E-3	142.371E-12	657.827E-3	17.1977E-3
3.65433E-3	142.933E-12	647.764E-3	-3.89300E-3	142.627E-12	654.382E-3	18.5317E-3
3.64932E-3	141.953E-12	642.253E-3	5.96161E-3	142.836E-12	654.692E-3	244.786E-6
3.64432E-3	140.128E-12	618.373E-3	3.96781E-3	143.712E-12	636.228E-3	-24.7964E-3
3.63932E-3	139.556E-12	600.124E-3	-10.4063E-3	144.461E-12	626.322E-3	-47.6771E-3
3.63432E-3	139.126E-12	591.518E-3	-21.9013E-3	145.411E-12	632.636E-3	-44.6484E-3
3.62931E-3	139.490E-12	585.794E-3	-23.1522E-3	145.734E-12	621.158E-3	-30.0783E-3
3.62431E-3	139.805E-12	582.539E-3	-19.7048E-3	146.604E-12	607.233E-3	-36.7777E-3
3.61931E-3	140.568E-12	590.500E-3	-22.9520E-3	146.498E-12	624.002E-3	-42.7586E-3
3.61431E-3	140.671E-12	598.164E-3	-27.7870E-3	146.908E-12	644.666E-3	-33.0557E-3
3.60930E-3	141.871E-12	603.341E-3	-24.0944E-3	146.515E-12	642.211E-3	-25.1313E-3
3.60430E-3	142.471E-12	612.666E-3	-3.70124E-3	146.337E-12	639.391E-3	-26.7452E-3
3.59930E-3	143.000E-12	624.807E-3	3.61198E-3	145.397E-12	645.893E-3	-21.8907E-3
3.59430E-3	143.189E-12	639.886E-3	-8.21535E-3	144.464E-12	644.653E-3	-13.9041E-3
3.58929E-3	143.772E-12	650.443E-3	-3.99541E-3	143.051E-12	634.236E-3	-9.47416E-3
3.58429E-3	143.935E-12	658.511E-3	-9.49077E-3	142.385E-12	634.537E-3	-29.8359E-3
3.57929E-3	143.622E-12	659.869E-3	-24.4178E-3	140.877E-12	643.347E-3	-50.4884E-3
3.57429E-3	143.328E-12	646.165E-3	-19.1536E-3	139.483E-12	651.739E-3	-36.7492E-3
3.56928E-3	143.108E-12	628.194E-3	-16.6603E-3	138.430E-12	652.690E-3	-37.1223E-3
3.56428E-3	142.414E-12	630.915E-3	-32.3156E-3	138.572E-12	635.236E-3	-49.4085E-3
3.55928E-3	142.057E-12	648.333E-3	-58.1925E-3	138.140E-12	628.822E-3	-44.0698E-3
3.55428E-3	141.582E-12	641.231E-3	-76.8151E-3	137.799E-12	634.658E-3	-31.6994E-3
3.54927E-3	141.448E-12	627.912E-3	-80.0416E-3	137.719E-12	628.322E-3	-21.4084E-3
3.54427E-3	141.690E-12	639.043E-3	-63.1223E-3	138.389E-12	629.536E-3	-22.7476E-3
3.53927E-3	141.956E-12	645.478E-3	-31.9860E-3	139.284E-12	633.984E-3	-47.2704E-3
3.53427E-3	142.308E-12	646.911E-3	-21.3675E-3	139.163E-12	635.931E-3	-66.6521E-3
3.52926E-3	142.447E-12	661.454E-3	-18.7416E-3	139.087E-12	639.671E-3	-48.0678E-3
3.52426E-3	143.089E-12	663.852E-3	-13.5034E-3	139.356E-12	639.094E-3	-22.9705E-3
3.51926E-3	143.030E-12	641.209E-3	-30.3509E-3	139.458E-12	642.711E-3	-10.5129E-3
3.51426E-3	143.098E-12	632.100E-3	-41.2373E-3	139.332E-12	637.475E-3	-5.58900E-3
3.50925E-3	142.684E-12	640.500E-3	-21.7440E-3	138.306E-12	629.824E-3	-4.51512E-3
3.50425E-3	141.993E-12	637.690E-3	4.00143E-3	137.558E-12	637.683E-3	4.83806E-3
3.49925E-3	140.816E-12	639.880E-3	8.91364E-3	137.245E-12	634.895E-3	3.40216E-3
3.49425E-3	139.838E-12	645.679E-3	5.68799E-3	137.284E-12	626.914E-3	-19.6826E-3
3.48924E-3	139.557E-12	643.231E-3	5.45428E-3	137.203E-12	628.365E-3	-25.9469E-3
3.48424E-3	138.372E-12	645.888E-3	4.02616E-3	136.295E-12	631.064E-3	-17.9665E-3
3.47924E-3	137.547E-12	655.027E-3	3.81450E-3	137.189E-12	636.837E-3	-23.0591E-3
3.47424E-3	136.754E-12	656.271E-3	-10.6823E-3	137.136E-12	639.312E-3	-22.7576E-3
3.46923E-3	136.620E-12	653.786E-3	-29.0632E-3	137.496E-12	633.785E-3	-3.85000E-3
3.46423E-3	136.378E-12	648.110E-3	-25.1390E-3	136.377E-12	635.009E-3	13.6284E-3
3.45923E-3	136.257E-12	625.853E-3	-17.8204E-3	136.507E-12	648.366E-3	9.71179E-3
3.45423E-3	135.703E-12	624.246E-3	-22.3314E-3	136.341E-12	649.711E-3	3.72476E-3
3.44922E-3	136.314E-12	636.087E-3	-13.7096E-3	136.189E-12	632.904E-3	1.17160E-3
3.44422E-3	136.677E-12	616.339E-3	-10.6547E-3	135.960E-12	621.641E-3	-5.00862E-3
3.43922E-3	137.109E-12	614.910E-3	-31.6915E-3	135.798E-12	633.531E-3	-634.051E-6
3.43422E-3	136.772E-12	646.385E-3	-31.5879E-3	135.799E-12	648.313E-3	1.73962E-3
3.42921E-3	136.606E-12	652.999E-3	-8.94454E-3	135.565E-12	641.045E-3	-6.34447E-3
3.42421E-3	136.904E-12	633.156E-3	7.93209E-3	135.358E-12	634.233E-3	-15.2184E-3
3.41921E-3	136.593E-12	623.734E-3	20.9663E-3	135.028E-12	641.971E-3	-23.5731E-3
3.41421E-3	135.267E-12	629.367E-3	22.5589E-3	134.467E-12	634.998E-3	-26.8860E-3
3.40920E-3	134.249E-12	635.460E-3	9.46505E-3	134.165E-12	615.004E-3	-28.9024E-3
3.40420E-3	133.402E-12	636.475E-3	375.017E-6	134.228E-12	613.785E-3	-25.1595E-3
3.39920E-3	132.143E-12	628.444E-3	-16.4236E-3	134.220E-12	620.046E-3	-14.1417E-3
3.39420E-3	130.918E-12	618.608E-3	-26.8512E-3	133.862E-12	605.291E-3	-14.5587E-3
3.38919E-3	129.973E-12	616.690E-3	-18.7640E-3	134.713E-12	602.386E-3	-23.1287E-3
3.38419E-3	129.405E-12	606.683E-3	-13.9818E-3	135.567E-12	636.166E-3	-28.7930E-3
3.37919E-3	129.376E-12	601.463E-3	-30.0245E-3	136.213E-12	660.501E-3	-26.3896E-3
3.37419E-3	129.245E-12	619.709E-3	-49.3680E-3	135.932E-12	656.573E-3	-22.7117E-3
3.36918E-3	129.463E-12	639.446E-3	-37.8042E-3	136.011E-12	647.782E-3	-26.2786E-3
3.36418E-3	130.520E-12	630.915E-3	-14.6614E-3	136.020E-12	651.745E-3	-35.1570E-3
3.35918E-3	130.947E-12	605.058E-3	-12.6444E-3	135.454E-12	664.508E-3	-48.5171E-3
3.35418E-3	131.452E-12	605.251E-3	-26.2602E-3	134.871E-12	660.739E-3	-53.8643E-3
3.34917E-3	131.932E-12	626.992E-3	-35.9872E-3	134.090E-12	639.011E-3	-49.8567E-3
3.34417E-3	132.045E-12	627.981E-3	-32.1002E-3	133.246E-12	633.932E-3	-37.1465E-3
3.33917E-3	132.099E-12	607.669E-3	-26.0536E-3	131.885E-12	630.583E-3	-3.70059E-3
3.33417E-3	132.098E-12	603.699E-3	-42.3969E-3	131.390E-12	619.150E-3	19.6873E-3
3.32916E-3	131.639E-12	622.777E-3	-58.2922E-3	130.998E-12	623.780E-3	8.06640E-3
3.32416E-3	131.231E-12	638.195E-3	-48.2247E-3	130.150E-12	622.292E-3	-17.7455E-3
3.31916E-3	130.971E-12	643.777E-3	-28.0648E-3	129.072E-12	615.437E-3	-25.2699E-3
3.31416E-3	130.057E-12	656.135E-3	-17.9257E-3	129.831E-12	615.202E-3	-9.11544E-3
3.30915E-3	129.029E-12	670.799E-3	-25.5275E-3	129.802E-12	618.963E-3	-15.6565E-3
3.30415E-3	128.485E-12	654.776E-3	-42.6921E-3	129.720E-12	630.731E-3	-37.8305E-3
3.29915E-3	128.989E-12	614.066E-3	-31.4158E-3	129.786E-12	644.288E-3	-37.1870E-3
3.29415E-3	128.944E-12	598.689E-3	4.68747E-3	130.841E-12	647.413E-3	-11.4861E-3
3.28914E-3	129.285E-12	609.012E-3	4.16038E-3	131.311E-12	644.933E-3	3.12784E-3
3.28414E-3	129.280E-12	624.985E-3	-18.8477E-3	131.798E-12	655.590E-3	-11.1696E-3
3.27914E-3	130.234E-12	628.700E-3	-18.4137E-3	131.483E-12	663.596E-3	-14.5295E-3
3.27414E-3	131.360E-12	604.083E-3	-15.4393E-3	131.475E-12	668.801E-3	-20.6381E-3
3.26913E-3	132.187E-12	592.047E-3	-33.4955E-3	130.694E-12	654.905E-3	-24.5451E-3
3.26413E-3	132.310E-12	611.017E-3	-42.5468E-3	129.708E-12	610.135E-3	-13.1118E-3
3.25913E-3	132.352E-12	632.118E-3	-31.0159E-3	128.332E-12	588.987E-3	-11.9621E-3
3.25413E-3	132.553E-12	641.235E-3	-25.2766E-3	127.453E-12	593.426E-3	-23.7815E-3
3.24912E-3	132.452E-12	647.388E-3	-18.6018E-3	126.526E-12	601.041E-3	-37.0091E-3
3.24412E-3	132.210E-12	667.690E-3	-17.3352E-3	125.529E-12	599.241E-3	-37.2908E-3
3.23912E-3	131.236E-12	685.915E-3	-29.4744E-3	124.258E-12	587.925E-3	-38.9012E-3
3.23412E-3	129.765E-12	679.915E-3	-27.3626E-3	123.793E-12	601.136E-3	-43.0103E-3
3.22911E-3	129.249E-12	658.242E-3	-18.2221E-3	123.398E-12	618.617E-3	-42.5742E-3
3.22411E-3	128.110E-12	634.456E-3	-26.6633E-3	123.219E-12	621.503E-3	-40.9570E-3
3.21911E-3	127.158E-12	613.694E-3	-23.1855E-3	123.242E-12	627.238E-3	-24.5594E-3
3.21411E-3	125.912E-12	619.196E-3	-3.56474E-3	123.542E-12	629.427E-3	-4.38354E-3
3.20910E-3	125.947E-12	656.144E-3	-14.5730E-3	124.426E-12	621.578E-3	988.848E-6
3.20410E-3	125.621E-12	680.157E-3	-31.0802E-3	125.372E-12	610.725E-3	-11.8671E-3
3.19910E-3	125.789E-12	663.637E-3	-21.4886E-3	126.132E-12	623.740E-3	-32.6943E-3
3.19410E-3	125.012E-12	633.452E-3	-16.8658E-3	126.408E-12	648.580E-3	-28.7979E-3
3.18909E-3	125.590E-12	633.024E-3	-15.8123E-3	127.386E-12	647.450E-3	-13.3498E-3
3.18409E-3	125.937E-12	640.003E-3	-3.67261E-3	127.417E-12	639.801E-3	-16.0105E-3
3.17909E-3	126.788E-12	634.818E-3	-9.12828E-3	126.932E-12	639.116E-3	-27.0343E-3
3.17409E-3	126.136E-12	650.372E-3	-18.7023E-3	126.057E-12	644.421E-3	-19.2752E-3
3.16908E-3	126.107E-12	667.667E-3	-5.62017E-3	124.904E-12	649.996E-3	4.36509E-3
3.16408E-3	125.947E-12	661.211E-3	1.23336E-3	124.349E-12	633.262E-3	8.55325E-3
3.15908E-3	125.983E-12	645.596E-3	-13.5146E-3	123.452E-12	623.938E-3	-13.8365E-3
3.15408E-3	125.036E-12	644.163E-3	-17.5161E-3	122.975E-12	647.262E-3	-28.7591E-3
3.14907E-3	123.918E-12	660.155E-3	-7.64833E-3	122.376E-12	668.409E-3	-15.2693E-3
3.14407E-3	122.673E-12	663.976E-3	-7.12574E-3	122.018E-12	668.851E-3	-2.30850E-3
3.13907E-3	121.405E-12	656.047E-3	-8.08091E-3	121.555E-12	650.481E-3	-6.65758E-3
3.13407E-3	120.053E-12	655.279E-3	-2.62861E-3	121.964E-12	640.096E-3	-11.7713E-3
3.12906E-3	119.049E-12	644.519E-3	-3.07071E-3	122.240E-12	652.927E-3	-15.2199E-3
3.12406E-3	118.042E-12	620.582E-3	723.346E-6	122.365E-12	659.526E-3	-15.4713E-3
3.11906E-3	117.483E-12	604.573E-3	10.6354E-3	123.080E-12	663.993E-3	-3.69462E-3
3.11406E-3	117.868E-12	598.606E-3	11.2616E-3	123.900E-12	669.178E-3	3.17661E-3
3.10905E-3	117.930E-12	610.350E-3	3.82139E-3	124.642E-12	654.423E-3	-14.4863E-3
3.10405E-3	118.027E-12	627.446E-3	-16.2662E-3	124.771E-12	636.179E-3	-23.0536E-3
3.09905E-3	118.506E-12	636.514E-3	-32.5559E-3	124.714E-12	632.347E-3	-6.69710E-3
3.09405E-3	119.360E-12	628.641E-3	-31.6595E-3	124.349E-12	649.981E-3	1.34155E-3
3.08904E-3	120.204E-12	624.728E-3	-21.2618E-3	123.666E-12	663.722E-3	-11.7389E-3
3.08404E-3	120.291E-12	651.903E-3	-14.6863E-3	122.644E-12	653.686E-3	-25.9090E-3
3.07904E-3	120.615E-12	659.561E-3	-7.29106E-3	121.530E-12	658.880E-3	-31.4330E-3
3.07404E-3	120.429E-12	634.582E-3	6.63412E-3	120.630E-12	657.730E-3	-26.6324E-3
3.06903E-3	120.268E-12	625.673E-3	13.8736E-3	119.601E-12	625.276E-3	-8.77810E-3
3.06403E-3	119.535E-12	636.806E-3	14.0667E-3	119.181E-12	607.014E-3	4.85617E-3
3.05903E-3	119.619E-12	639.341E-3	3.87367E-3	118.730E-12	606.923E-3	12.2955E-3
3.05403E-3	118.771E-12	635.503E-3	-13.7766E-3	118.141E-12	615.312E-3	10.1715E-3
3.04902E-3	118.150E-12	643.303E-3	-28.5319E-3	117.829E-12	628.100E-3	-18.6681E-3
3.04402E-3	117.454E-12	650.493E-3	-31.1284E-3	118.183E-12	637.260E-3	-42.4225E-3
3.03902E-3	116.854E-12	631.867E-3	-28.5852E-3	118.678E-12	647.526E-3	-39.6097E-3
3.03402E-3	116.510E-12	625.374E-3	-36.7607E-3	119.358E-12	659.222E-3	-32.8236E-3
3.02901E-3	116.594E-12	643.539E-3	-36.0016E-3	119.006E-12	667.950E-3	-21.1399E-3
3.02401E-3	116.381E-12	633.984E-3	-12.4642E-3	119.769E-12	666.088E-3	-12.6290E-3
3.01901E-3	116.775E-12	609.190E-3	9.65480E-3	120.084E-12	658.104E-3	-15.5609E-3
3.01401E-3	117.296E-12	597.979E-3	14.5858E-3	120.289E-12	650.348E-3	-25.5666E-3
3.00900E-3	117.839E-12	618.348E-3	566.354E-6	119.796E-12	645.480E-3	-35.3718E-3
3.00400E-3	118.426E-12	657.931E-3	-11.8228E-3	118.955E-12	646.566E-3	-41.5333E-3
2.99900E-3	119.103E-12	665.609E-3	-14.6934E-3	118.254E-12	650.625E-3	-46.2918E-3
2.99400E-3	119.530E-12	652.198E-3	-24.4981E-3	117.133E-12	641.816E-3	-38.6168E-3
2.98899E-3	119.222E-12	646.676E-3	-24.6947E-3	115.794E-12	626.062E-3	-19.5373E-3
2.98399E-3	119.117E-12	662.270E-3	-14.2081E-3	114.923E-12	624.470E-3	-5.20930E-3
2.97899E-3	119.293E-12	685.296E-3	-23.0369E-3	114.317E-12	628.047E-3	-1.28303E-3
2.97399E-3	118.691E-12	693.468E-3	-39.2251E-3	113.575E-12	628.381E-3	-7.52972E-3
2.96898E-3	118.307E-12	679.880E-3	-44.1230E-3	113.290E-12	631.635E-3	-17.8372E-3
2.96398E-3	117.980E-12	651.631E-3	-42.9189E-3	112.926E-12	632.270E-3	-10.6579E-3
2.95898E-3	117.373E-12	653.371E-3	-28.1274E-3	113.176E-12	630.448E-3	4.07925E-3
2.95398E-3	116.689E-12	671.082E-3	-14.5679E-3	113.478E-12	635.409E-3	-799.255E-6
2.94897E-3	116.554E-12	667.903E-3	-18.1433E-3	114.189E-12	625.429E-3	-19.7222E-3
2.94397E-3	116.509E-12	654.093E-3	-16.4690E-3	114.296E-12	615.457E-3	-23.5334E-3
2.93897E-3	115.977E-12	638.807E-3	-20.8561E-3	114.923E-12	626.993E-3	-10.7353E-3
2.93397E-3	116.003E-12	629.926E-3	-34.3836E-3	115.060E-12	630.117E-3	-1.64108E-3
2.92896E-3	116.055E-12	627.632E-3	-28.7266E-3	114.960E-12	619.602E-3	-5.16229E-3
2.92396E-3	115.998E-12	629.837E-3	-15.2852E-3	115.426E-12	620.320E-3	-13.5161E-3
2.91896E-3	116.253E-12	639.528E-3	-11.6918E-3	114.690E-12	643.634E-3	-9.40924E-3
2.91396E-3	116.172E-12	652.366E-3	-19.4801E-3	114.251E-12	651.834E-3	-5.72518E-3
2.90895E-3	115.801E-12	672.966E-3	-26.6428E-3	113.247E-12	633.743E-3	-6.30973E-3
2.90395E-3	115.133E-12	685.927E-3	-14.6650E-3	112.600E-12	623.987E-3	-15.1081E-3
2.89895E-3	114.427E-12	675.552E-3	-8.63877E-3	111.747E-12	628.707E-3	-21.5208E-3
2.89395E-3	113.856E-12	655.778E-3	-10.0574E-3	111.451E-12	637.618E-3	-10.4694E-3
2.88894E-3	112.379E-12	644.949E-3	-6.71688E-3	110.662E-12	643.324E-3	-14.4432E-3
2.88394E-3	111.355E-12	649.900E-3	-17.6975E-3	110.237E-12	645.829E-3	-18.2297E-3
2.87894E-3	110.509E-12	657.778E-3	-23.3856E-3	110.602E-12	641.199E-3	-1.88967E-3
2.87394E-3	109.961E-12	654.049E-3	-5.66025E-3	111.062E-12	632.977E-3	-3.77700E-3
2.86893E-3	108.640E-12	641.315E-3	6.50137E-3	111.371E-12	641.553E-3	-23.4558E-3
2.86393E-3	108.488E-12	633.578E-3	-11.8718E-3	111.929E-12	661.923E-3	-22.2060E-3
2.85893E-3	108.150E-12	631.600E-3	-37.2563E-3	112.707E-12	676.930E-3	-509.591E-6
2.85393E-3	107.881E-12	632.678E-3	-37.8707E-3	113.115E-12	680.378E-3	4.04052E-3
2.84892E-3	108.582E-12	630.420E-3	-31.2189E-3	113.259E-12	666.398E-3	-19.2440E-3
2.84392E-3	109.138E-12	608.628E-3	-31.8052E-3	113.233E-12	646.189E-3	-28.6290E-3
2.83892E-3	109.667E-12	600.406E-3	-20.1420E-3	112.700E-12	639.312E-3	-9.80227E-3
2.83392E-3	110.144E-12	632.176E-3	5.16071E-3	112.180E-12	643.584E-3	1.67482E-3
2.82891E-3	110.350E-12	662.622E-3	7.43642E-3	111.407E-12	651.912E-3	3.26911E-3
2.82391E-3	110.167E-12	671.097E-3	-17.8797E-3	110.896E-12	653.053E-3	343.942E-6
2.81891E-3	110.148E-12	658.537E-3	-32.7400E-3	109.942E-12	649.158E-3	1.87787E-3
2.81391E-3	110.103E-12	633.591E-3	-35.3284E-3	109.117E-12	649.039E-3	16.6312E-3
2.80890E-3	109.472E-12	628.319E-3	-43.5395E-3	108.439E-12	640.545E-3	9.58258E-3
2.80390E-3	108.545E-12	641.375E-3	-37.8120E-3	107.944E-12	631.767E-3	-18.4645E-3
2.79890E-3	107.854E-12	641.702E-3	-17.6160E-3	107.499E-12	630.834E-3	-34.5464E-3
2.79390E-3	106.821E-12	636.517E-3	3.71584E-3	107.322E-12	629.329E-3	-29.7432E-3
2.78889E-3	106.102E-12	646.958E-3	11.4065E-3	107.807E-12	635.504E-3	-23.9634E-3
2.78389E-3	105.266E-12	650.533E-3	6.37878E-3	108.134E-12	652.551E-3	-37.0567E-3
2.77889E-3	104.256E-12	631.590E-3	16.1661E-3	108.410E-12	656.360E-3	-49.4051E-3
2.77389E-3	103.919E-12	628.397E-3	12.9199E-3	108.381E-12	656.908E-3	-43.5037E-3
2.76888E-3	104.087E-12	637.524E-3	-21.3741E-3	109.265E-12	679.445E-3	-27.6651E-3
2.76388E-3	104.235E-12	626.500E-3	-36.7062E-3	109.528E-12	692.772E-3	-22.8772E-3
2.75888E-3	104.301E-12	616.393E-3	-28.0395E-3	109.539E-12	678.008E-3	-20.4682E-3
2.75388E-3	105.274E-12	619.381E-3	-24.9265E-3	108.932E-12	661.658E-3	-18.0146E-3
2.74887E-3	106.120E-12	624.340E-3	-32.7677E-3	108.786E-12	652.971E-3	-17.3525E-3
2.74387E-3	107.128E-12	632.944E-3	-51.8426E-3	107.678E-12	640.391E-3	-13.1439E-3
2.73887E-3	107.352E-12	645.413E-3	-46.1697E-3	106.643E-12	646.347E-3	-27.3234E-3
2.73387E-3	107.830E-12	658.970E-3	-25.9820E-3	105.243E-12	667.595E-3	-43.5264E-3
2.72886E-3	107.757E-12	652.147E-3	-20.8028E-3	104.564E-12	664.124E-3	-30.1892E-3
2.72386E-3	108.031E-12	634.985E-3	-15.4141E-3	103.835E-12	657.074E-3	-11.6858E-3
2.71886E-3	107.911E-12	638.787E-3	-8.44238E-3	103.280E-12	665.265E-3	-23.4137E-3
2.71386E-3	107.604E-12	647.732E-3	-5.81430E-3	102.768E-12	675.486E-3	-31.8413E-3
2.70885E-3	107.297E-12	662.434E-3	-11.4187E-3	103.123E-12	679.048E-3	-12.6096E-3
2.70385E-3	106.830E-12	684.002E-3	-12.8886E-3	103.334E-12	660.697E-3	-9.43958E-3
2.69885E-3	106.177E-12	690.186E-3	-1.02376E-3	103.676E-12	644.073E-3	-24.5074E-3
2.69385E-3	105.542E-12	683.508E-3	232.605E-6	103.817E-12	645.525E-3	-32.1537E-3
2.68884E-3	105.097E-12	666.123E-3	-7.80230E-3	103.836E-12	653.326E-3	-26.2131E-3
2.68384E-3	104.611E-12	646.016E-3	-15.2785E-3	103.914E-12	661.385E-3	-6.76302E-3
2.67884E-3	104.562E-12	644.202E-3	-28.1447E-3	104.144E-12	661.708E-3	8.85950E-3
2.67384E-3	103.909E-12	664.640E-3	-23.2063E-3	104.288E-12	658.207E-3	6.19080E-3
2.66883E-3	103.906E-12	684.952E-3	-3.74141E-3	103.857E-12	653.362E-3	-10.3890E-3
2.66383E-3	104.087E-12	689.756E-3	5.42194E-3	102.988E-12	651.660E-3	-19.1170E-3
2.65883E-3	104.406E-12	687.796E-3	3.16632E-3	102.632E-12	649.296E-3	-12.4042E-3
2.65383E-3	104.206E-12	683.695E-3	-3.58289E-3	101.775E-12	637.345E-3	-14.9878E-3
2.64882E-3	103.998E-12	683.843E-3	-5.84937E-3	100.556E-12	638.210E-3	-23.9180E-3
2.64382E-3	103.970E-12	684.218E-3	-26.4427E-3	99.4967E-12	651.666E-3	-23.5520E-3
2.63882E-3	103.417E-12	676.228E-3	-55.9068E-3	98.8082E-12	645.117E-3	-26.3532E-3
2.63382E-3	103.072E-12	664.381E-3	-52.0687E-3	98.5169E-12	635.489E-3	-21.3319E-3
2.62881E-3	102.226E-12	660.502E-3	-36.0915E-3	98.0715E-12	637.075E-3	-15.8864E-3
2.62381E-3	102.188E-12	668.548E-3	-24.3521E-3	98.0377E-12	641.315E-3	-22.3343E-3
2.61881E-3	100.900E-12	676.120E-3	-20.0561E-3	98.1246E-12	658.883E-3	-22.2134E-3
2.61381E-3	100.370E-12	666.678E-3	-24.5128E-3	98.8321E-12	674.274E-3	-28.9024E-3
2.60880E-3	99.7552E-12	652.119E-3	-18.9776E-3	99.2658E-12	669.704E-3	-28.1959E-3
2.60380E-3	99.2457E-12	658.624E-3	-9.65580E-3	100.226E-12	646.959E-3	-16.3164E-3
2.59880E-3	98.7710E-12	670.415E-3	-7.07708E-3	100.331E-12	634.580E-3	-22.7171E-3
2.59380E-3	98.1182E-12	668.751E-3	-10.2180E-3	100.821E-12	647.339E-3	-42.5731E-3
2.58879E-3	98.3804E-12	656.037E-3	-24.7380E-3	101.008E-12	670.208E-3	-45.3630E-3
2.58379E-3	98.0835E-12	646.903E-3	-35.2985E-3	101.246E-12	692.071E-3	-26.5200E-3
2.57879E-3	97.5021E-12	642.561E-3	-23.9969E-3	101.083E-12	682.114E-3	617.361E-6
2.57379E-3	97.6757E-12	645.766E-3	-22.7401E-3	100.363E-12	660.304E-3	16.5416E-3
2.56878E-3	97.7819E-12	659.436E-3	-33.7590E-3	99.5548E-12	660.193E-3	-3.17234E-3
2.56378E-3	97.4650E-12	673.734E-3	-24.3560E-3	98.5672E-12	662.037E-3	-28.8673E-3
2.55878E-3	96.8984E-12	680.808E-3	-5.28678E-3	97.8420E-12	662.282E-3	-27.5244E-3
2.55378E-3	96.1578E-12	668.866E-3	13.1824E-3	97.1434E-12	660.064E-3	-9.23012E-3
2.54877E-3	95.7565E-12	659.933E-3	14.3080E-3	96.5416E-12	653.212E-3	-953.822E-6
2.54377E-3	95.2297E-12	669.645E-3	-13.2669E-3	95.7136E-12	646.357E-3	-13.4452E-3
2.53877E-3	94.3725E-12	672.553E-3	-35.2763E-3	95.4154E-12	649.970E-3	-24.7632E-3
2.53377E-3	94.1271E-12	653.546E-3	-37.0451E-3	95.7721E-12	661.293E-3	-23.7394E-3
2.52876E-3	94.1495E-12	638.771E-3	-34.7879E-3	95.8184E-12	667.759E-3	-18.9511E-3
2.52376E-3	94.0374E-12	639.852E-3	-30.4517E-3	95.9633E-12	672.070E-3	-22.9441E-3
2.51876E-3	93.6884E-12	638.788E-3	-35.5609E-3	96.4749E-12	671.451E-3	-26.6646E-3
2.51376E-3	93.6950E-12	631.952E-3	-40.0061E-3	96.7857E-12	668.129E-3	-19.1459E-3
2.50875E-3	93.6303E-12	634.540E-3	-28.4393E-3	97.2404E-12	676.213E-3	-12.0446E-3
2.50375E-3	94.0532E-12	642.517E-3	-21.9755E-3	97.2202E-12	683.360E-3	-7.01992E-3
2.49875E-3	94.2087E-12	640.872E-3	-22.4639E-3	97.2392E-12	670.741E-3	3.67260E-3
2.49375E-3	94.7754E-12	648.869E-3	-25.5216E-3	97.3688E-12	654.386E-3	11.3772E-3
2.48874E-3	95.1408E-12	667.392E-3	-23.7630E-3	97.1002E-12	661.299E-3	-4.26971E-3
2.48374E-3	95.5244E-12	678.166E-3	-6.95272E-3	96.2547E-12	686.307E-3	-20.3008E-3
2.47874E-3	95.8834E-12	682.483E-3	17.3243E-3	95.9180E-12	701.914E-3	-10.4749E-3
2.47374E-3	95.8443E-12	694.664E-3	20.7048E-3	95.0430E-12	690.344E-3	-10.8436E-3
2.46873E-3	95.6701E-12	706.330E-3	686.027E-6	94.2992E-12	661.234E-3	-21.5425E-3
2.46373E-3	94.7285E-12	696.585E-3	-18.4095E-3	93.5943E-12	653.364E-3	-14.3573E-3
2.45873E-3	94.4037E-12	673.606E-3	-11.0011E-3	92.9572E-12	670.141E-3	-13.2709E-3
2.45373E-3	94.1239E-12	666.655E-3	24.9390E-3	92.2866E-12	684.201E-3	-21.4714E-3
2.44872E-3	93.3448E-12	681.399E-3	40.3985E-3	92.1077E-12	684.288E-3	-15.7018E-3
2.44372E-3	92.3508E-12	681.645E-3	14.4237E-3	91.6710E-12	678.185E-3	-3.54558E-3
2.43872E-3	91.9381E-12	657.242E-3	-16.7845E-3	91.7790E-12	663.942E-3	-2.24904E-3
2.43372E-3	92.0736E-12	646.905E-3	-24.1443E-3	92.1315E-12	647.761E-3	-24.0932E-3
2.42871E-3	92.1015E-12	654.900E-3	-12.0585E-3	92.4295E-12	650.997E-3	-46.4624E-3
2.42371E-3	92.1925E-12	657.545E-3	-8.66485E-3	92.6661E-12	659.546E-3	-30.1423E-3
2.41871E-3	91.8033E-12	665.337E-3	-11.9065E-3	92.9744E-12	672.614E-3	8.23429E-3
2.41371E-3	92.3192E-12	671.608E-3	-8.46569E-3	92.8620E-12	685.599E-3	12.6185E-3
2.40870E-3	92.9065E-12	668.894E-3	-10.2858E-3	92.6743E-12	685.907E-3	-8.66061E-3
2.40370E-3	93.3501E-12	676.095E-3	-15.3359E-3	92.4234E-12	679.009E-3	-6.63749E-3
2.39870E-3	93.4928E-12	701.956E-3	-9.64131E-3	91.9768E-12	665.562E-3	1.54272E-3
2.39370E-3	93.9324E-12	718.547E-3	-3.62060E-3	91.2900E-12	655.959E-3	-8.55873E-3
2.38869E-3	94.2980E-12	708.527E-3	-12.2321E-3	90.6141E-12	657.201E-3	-17.3388E-3
2.38369E-3	94.4885E-12	698.811E-3	-21.2164E-3	89.7824E-12	664.870E-3	-16.6960E-3
2.37869E-3	94.0713E-12	695.485E-3	-16.2124E-3	89.4002E-12	656.202E-3	-11.7534E-3
2.37369E-3	93.5607E-12	696.390E-3	-14.3346E-3	88.6729E-12	650.924E-3	-7.67409E-3
2.36868E-3	92.9170E-12	704.095E-3	-22.4583E-3	88.2474E-12	668.279E-3	-2.54933E-3
2.36368E-3	91.7151E-12	703.269E-3	-17.7330E-3	87.5900E-12	672.947E-3	4.63797E-3
2.35868E-3	90.4915E-12	687.502E-3	-9.18763E-3	87.7985E-12	671.462E-3	3.62657E-3
2.35368E-3	89.4405E-12	677.593E-3	-4.03405E-3	87.7473E-12	686.579E-3	-5.24701E-3
2.34867E-3	88.5930E-12	688.393E-3	1.75308E-3	87.5559E-12	695.575E-3	-26.4061E-3
2.34367E-3	87.5978E-12	697.663E-3	-4.71845E-3	87.7094E-12	687.090E-3	-36.6985E-3
2.33867E-3	87.0174E-12	685.328E-3	-14.5435E-3	87.5634E-12	680.069E-3	-27.5091E-3
2.33367E-3	86.6417E-12	672.393E-3	-15.1281E-3	88.0097E-12	683.334E-3	-33.8557E-3
2.32866E-3	86.1786E-12	669.385E-3	-17.0883E-3	87.6654E-12	690.942E-3	-35.3040E-3
2.32366E-3	85.8522E-12	671.011E-3	-12.1086E-3	87.7967E-12	700.728E-3	-17.9603E-3
2.31866E-3	86.0113E-12	677.072E-3	-2.39804E-3	87.3190E-12	699.480E-3	-8.49955E-3
2.31366E-3	86.1887E-12	667.869E-3	-5.40603E-3	87.2098E-12	683.157E-3	-8.84033E-3
2.30865E-3	86.2838E-12	647.734E-3	-12.7558E-3	86.8962E-12	680.799E-3	-14.2833E-3
2.30365E-3	86.3334E-12	637.312E-3	-4.28784E-3	86.6417E-12	687.554E-3	-25.9346E-3
2.29865E-3	86.3611E-12	642.069E-3	16.7210E-3	86.2881E-12	675.240E-3	-40.5102E-3
2.29365E-3	86.0897E-12	669.246E-3	21.9276E-3	85.8785E-12	668.117E-3	-39.2947E-3
2.28864E-3	85.6449E-12	691.006E-3	388.358E-6	85.9942E-12	682.632E-3	-28.2019E-3
2.28364E-3	85.0398E-12	675.602E-3	-18.3738E-3	85.5696E-12	695.176E-3	-21.3605E-3
2.27864E-3	84.5112E-12	663.029E-3	-7.94178E-3	85.8092E-12	702.761E-3	-9.01920E-3
2.27364E-3	83.9015E-12	669.591E-3	16.3372E-3	85.6880E-12	700.694E-3	-10.5772E-3
2.26863E-3	83.2602E-12	664.442E-3	15.8513E-3	85.8369E-12	691.555E-3	-20.7921E-3
2.26363E-3	82.7547E-12	645.702E-3	-17.5063E-3	85.9898E-12	700.318E-3	-20.2121E-3
2.25863E-3	82.4519E-12	640.193E-3	-40.3885E-3	86.0950E-12	711.046E-3	-33.5611E-3
2.25363E-3	81.7551E-12	657.290E-3	-37.2792E-3	85.9854E-12	706.854E-3	-48.3492E-3
2.24862E-3	81.4505E-12	663.816E-3	-24.8945E-3	85.5255E-12	706.880E-3	-39.4718E-3
2.24362E-3	81.5348E-12	668.995E-3	-16.9898E-3	85.3101E-12	710.164E-3	-29.4959E-3
2.23862E-3	81.6544E-12	682.031E-3	-24.5519E-3	84.7824E-12	686.932E-3	-39.1688E-3
2.23362E-3	81.4688E-12	675.752E-3	-27.5068E-3	84.4387E-12	658.089E-3	-42.2571E-3
2.22861E-3	81.6788E-12	666.893E-3	-18.3631E-3	83.4472E-12	673.106E-3	-34.0314E-3
2.22361E-3	82.1492E-12	670.818E-3	-14.5685E-3	83.2593E-12	696.719E-3	-30.1702E-3
2.21861E-3	82.4864E-12	671.432E-3	-6.51361E-3	82.2184E-12	693.405E-3	-20.3236E-3
2.21361E-3	82.3269E-12	665.891E-3	7.97790E-3	81.5450E-12	690.810E-3	-8.47132E-3
2.20860E-3	82.0425E-12	669.503E-3	-3.03316E-3	80.8487E-12	695.120E-3	-4.44444E-3
2.20360E-3	81.6433E-12	680.917E-3	-17.1098E-3	80.2740E-12	699.165E-3	-3.86211E-3
2.19860E-3	81.6090E-12	689.485E-3	-9.50731E-3	80.3622E-12	710.843E-3	-666.565E-6
2.19360E-3	81.1985E-12	691.954E-3	-11.8274E-3	80.2150E-12	713.106E-3	-953.204E-6
2.18859E-3	80.7052E-12	687.298E-3	-15.8948E-3	80.0161E-12	704.766E-3	-14.4338E-3
2.18359E-3	80.4785E-12	682.171E-3	-8.30764E-3	79.7813E-12	707.624E-3	-35.4987E-3
2.17859E-3	80.3700E-12	680.690E-3	-5.52585E-3	80.5083E-12	707.490E-3	-36.5169E-3
2.17359E-3	80.2302E-12	687.838E-3	-10.7387E-3	81.0328E-12	706.939E-3	-17.9793E-3
2.16858E-3	80.0737E-12	697.757E-3	-21.4239E-3	81.6736E-12	721.579E-3	-10.2753E-3
2.16358E-3	79.9402E-12	713.324E-3	-38.2566E-3	81.6851E-12	718.308E-3	-22.2474E-3
2.15858E-3	79.9582E-12	731.674E-3	-33.4425E-3	81.6269E-12	702.694E-3	-29.7370E-3
2.15358E-3	80.1463E-12	724.803E-3	-1.72477E-3	81.9158E-12	709.995E-3	-23.8063E-3
2.14857E-3	80.5127E-12	709.908E-3	8.77668E-3	81.6264E-12	714.519E-3	-29.9743E-3
2.14357E-3	80.5672E-12	723.032E-3	-10.1790E-3	80.9936E-12	699.880E-3	-30.5425E-3
2.13857E-3	80.6881E-12	740.275E-3	-21.1460E-3	79.7408E-12	689.623E-3	-9.61714E-3
2.13357E-3	80.9042E-12	732.364E-3	-12.4206E-3	79.3224E-12	684.693E-3	-3.74070E-3
2.12856E-3	81.1319E-12	726.218E-3	1.41608E-3	78.5130E-12	682.755E-3	-13.2491E-3
2.12356E-3	81.4377E-12	727.747E-3	-4.21777E-3	77.7717E-12	688.389E-3	-12.4135E-3
2.11856E-3	81.1302E-12	722.782E-3	-24.6163E-3	76.5135E-12	684.374E-3	-8.85304E-3
2.11356E-3	80.7992E-12	721.546E-3	-26.8786E-3	76.0060E-12	688.349E-3	-14.4891E-3
2.10855E-3	80.3263E-12	727.028E-3	-27.8766E-3	75.6192E-12	706.157E-3	-25.1614E-3
2.10355E-3	79.8324E-12	734.031E-3	-34.4957E-3	75.5151E-12	704.437E-3	-26.5358E-3
2.09855E-3	78.9613E-12	740.340E-3	-25.7877E-3	75.3056E-12	688.072E-3	-3.91804E-3
2.09355E-3	78.4408E-12	740.214E-3	-10.0012E-3	75.3661E-12	691.885E-3	21.2091E-3
2.08854E-3	77.7528E-12	732.488E-3	-4.49614E-3	75.6626E-12	717.093E-3	13.3671E-3
2.08354E-3	77.5018E-12	733.428E-3	-5.80535E-3	76.4937E-12	723.982E-3	-17.1725E-3
2.07854E-3	77.1262E-12	737.281E-3	-7.18650E-3	76.9840E-12	712.262E-3	-30.3612E-3
2.07354E-3	76.9894E-12	724.263E-3	-25.2025E-3	76.9159E-12	712.401E-3	-30.4134E-3
2.06853E-3	76.5808E-12	710.242E-3	-32.4839E-3	77.0427E-12	712.598E-3	-33.7078E-3
2.06353E-3	76.3169E-12	710.697E-3	-12.6875E-3	76.8301E-12	704.147E-3	-29.7064E-3
2.05853E-3	75.9785E-12	727.739E-3	-12.1351E-3	76.9903E-12	703.602E-3	-33.0745E-3
2.05353E-3	75.6480E-12	742.785E-3	-14.5774E-3	76.1586E-12	704.104E-3	-38.4613E-3
2.04852E-3	75.3276E-12	734.630E-3	4.72982E-3	75.4530E-12	701.261E-3	-21.5582E-3
2.04352E-3	75.3052E-12	723.793E-3	11.2061E-3	74.6533E-12	705.696E-3	-9.17004E-3
2.03852E-3	74.4982E-12	736.754E-3	1.40625E-3	74.4089E-12	708.979E-3	-17.9123E-3
2.03352E-3	73.8818E-12	754.073E-3	-2.37567E-3	73.6007E-12	691.104E-3	-32.3672E-3
2.02851E-3	73.3028E-12	750.880E-3	-13.3406E-3	72.9447E-12	675.028E-3	-38.8154E-3
2.02351E-3	72.9280E-12	726.093E-3	-24.9248E-3	72.1691E-12	680.070E-3	-40.4842E-3
2.01851E-3	71.8567E-12	699.537E-3	-5.20746E-3	71.9758E-12	690.306E-3	-35.5363E-3
2.01351E-3	70.9355E-12	699.041E-3	17.6604E-3	71.5274E-12	712.329E-3	-17.8924E-3
2.00850E-3	70.5661E-12	712.868E-3	8.69604E-3	71.5377E-12	727.922E-3	-22.6276E-3
2.00350E-3	70.3976E-12	703.472E-3	-15.6260E-3	71.5878E-12	724.704E-3	-37.7697E-3
1.99850E-3	69.7100E-12	682.573E-3	-26.4026E-3	71.7840E-12	740.663E-3	-26.2370E-3
1.99350E-3	69.7403E-12	688.233E-3	-25.2347E-3	71.9683E-12	767.207E-3	-20.7309E-3
1.98849E-3	69.8786E-12	698.403E-3	-23.9244E-3	72.4988E-12	763.031E-3	-24.0486E-3
1.98349E-3	69.5530E-12	700.347E-3	-22.0983E-3	72.4587E-12	746.509E-3	-18.0013E-3
1.97849E-3	69.4596E-12	706.202E-3	-21.8254E-3	72.6370E-12	742.241E-3	-14.0128E-3
1.97349E-3	69.6735E-12	708.847E-3	-13.6381E-3	72.4727E-12	743.990E-3	-9.46911E-3
1.96848E-3	69.8412E-12	701.883E-3	-8.89915E-3	72.3545E-12	756.656E-3	-6.15894E-3
1.96348E-3	69.3960E-12	697.483E-3	-19.7191E-3	71.8503E-12	761.577E-3	-10.8326E-3
1.95848E-3	69.3247E-12	695.433E-3	-16.3765E-3	71.4912E-12	739.012E-3	-23.6601E-3
1.95348E-3	69.0478E-12	690.508E-3	-3.56295E-3	70.7466E-12	724.443E-3	-33.8927E-3
1.94847E-3	68.9942E-12	690.697E-3	-6.24048E-3	70.3617E-12	735.511E-3	-45.8582E-3
1.94347E-3	68.2576E-12	697.438E-3	-13.8406E-3	69.5881E-12	737.893E-3	-50.4544E-3
1.93847E-3	67.4466E-12	708.698E-3	-14.2148E-3	68.9516E-12	725.678E-3	-28.3470E-3
1.93347E-3	67.3170E-12	713.064E-3	-12.5804E-3	68.4675E-12	718.072E-3	-23.2497E-3
1.92846E-3	67.1415E-12	719.371E-3	-10.9650E-3	68.1919E-12	724.291E-3	-39.1821E-3
1.92346E-3	66.5660E-12	723.877E-3	-6.62714E-3	67.6462E-12	735.176E-3	-25.6906E-3
1.91846E-3	66.1296E-12	720.949E-3	-10.7065E-3	67.2284E-12	744.988E-3	-9.17240E-3
1.91346E-3	66.1478E-12	718.481E-3	-18.7280E-3	66.8854E-12	749.551E-3	-18.3613E-3
1.90845E-3	66.5063E-12	715.441E-3	-16.7037E-3	66.7320E-12	738.769E-3	-18.6647E-3
1.90345E-3	66.5235E-12	719.531E-3	-15.1409E-3	66.7951E-12	733.235E-3	-3.93170E-3
1.89845E-3	66.6244E-12	719.904E-3	-15.7239E-3	66.7060E-12	738.018E-3	-6.07882E-3
1.89345E-3	66.7717E-12	713.346E-3	-13.2145E-3	66.6253E-12	745.839E-3	-18.8318E-3
1.88844E-3	67.2672E-12	719.227E-3	-9.05498E-3	66.3097E-12	756.640E-3	-21.5076E-3
1.88344E-3	67.6131E-12	735.366E-3	2.00230E-3	66.3140E-12	761.336E-3	-22.6276E-3
1.87844E-3	67.8823E-12	745.763E-3	13.3880E-3	66.2782E-12	762.214E-3	-12.9370E-3
1.87344E-3	67.8724E-12	752.833E-3	1.18948E-3	66.3128E-12	776.109E-3	-2.32761E-3
1.86843E-3	67.8811E-12	768.258E-3	-17.1977E-3	66.0055E-12	789.060E-3	-12.0933E-3
1.86343E-3	67.5976E-12	776.567E-3	-17.4427E-3	65.6839E-12	781.674E-3	-28.7621E-3
1.85843E-3	67.5261E-12	778.418E-3	-21.8933E-3	65.4302E-12	778.588E-3	-40.7515E-3
1.85343E-3	67.0242E-12	787.036E-3	-30.8112E-3	65.2440E-12	783.570E-3	-37.9599E-3
1.84842E-3	66.5130E-12	785.830E-3	-22.5446E-3	65.0484E-12	781.114E-3	-14.6235E-3
1.84342E-3	65.6879E-12	788.177E-3	-12.4305E-3	64.9105E-12	787.576E-3	7.71633E-3
1.83842E-3	65.2452E-12	793.223E-3	-14.7956E-3	64.8772E-12	798.787E-3	6.76541E-3
1.83342E-3	64.7431E-12	772.567E-3	-6.29681E-3	64.6458E-12	802.402E-3	-4.43650E-3
1.82841E-3	64.4081E-12	750.422E-3	8.84164E-3	64.4988E-12	807.350E-3	-5.12655E-3
1.82341E-3	63.9154E-12	750.806E-3	-618.635E-6	63.9160E-12	807.029E-3	-8.52782E-3
1.81841E-3	63.8085E-12	762.643E-3	-11.6376E-3	63.4072E-12	794.196E-3	-15.4122E-3
1.81341E-3	63.6736E-12	777.463E-3	-9.24590E-3	63.1460E-12	780.662E-3	-10.9800E-3
1.80840E-3	63.6212E-12	794.330E-3	-19.1428E-3	62.8417E-12	784.896E-3	-10.3611E-3
1.80340E-3	63.5463E-12	801.937E-3	-33.4942E-3	62.2530E-12	796.157E-3	-11.0424E-3
1.79840E-3	63.7339E-12	793.817E-3	-35.5722E-3	61.5326E-12	799.837E-3	-2.47737E-3
1.79340E-3	63.8286E-12	788.915E-3	-26.6478E-3	61.1830E-12	805.251E-3	-9.18512E-3
1.78839E-3	63.7771E-12	801.460E-3	-15.4613E-3	60.9338E-12	797.616E-3	-26.6782E-3
1.78339E-3	63.4515E-12	812.335E-3	-13.7206E-3	60.7309E-12	774.484E-3	-23.5635E-3
1.77839E-3	63.3034E-12	811.690E-3	-20.4285E-3	60.1014E-12	765.996E-3	-15.7632E-3
1.77339E-3	62.9243E-12	819.466E-3	-26.4360E-3	59.8421E-12	781.024E-3	-14.6771E-3
1.76838E-3	62.3171E-12	821.853E-3	-33.8040E-3	59.8491E-12	806.954E-3	-7.37546E-3
1.76338E-3	61.4616E-12	818.349E-3	-32.8635E-3	59.9021E-12	819.772E-3	-9.04168E-3
1.75838E-3	60.6685E-12	821.599E-3	-17.0068E-3	59.8701E-12	808.026E-3	-20.0599E-3
1.75338E-3	59.8501E-12	814.502E-3	-4.03830E-3	59.9264E-12	801.401E-3	-14.5858E-3
1.74837E-3	59.1205E-12	809.228E-3	-4.85551E-3	60.1010E-12	813.338E-3	-8.18276E-3
1.74337E-3	57.9883E-12	816.936E-3	-18.2904E-3	60.1723E-12	824.280E-3	-15.9856E-3
1.73837E-3	57.5827E-12	817.668E-3	-24.2450E-3	60.3237E-12	834.996E-3	-10.8842E-3
1.73337E-3	57.1331E-12	817.768E-3	-17.1628E-3	60.2157E-12	846.726E-3	-4.55952E-3
1.72836E-3	56.4996E-12	822.320E-3	-8.62719E-3	60.1530E-12	836.194E-3	-10.7380E-3
1.72336E-3	56.1734E-12	810.734E-3	-3.20732E-3	59.6057E-12	820.834E-3	-6.39988E-3
1.71836E-3	56.0614E-12	788.613E-3	-8.37101E-3	59.2943E-12	835.488E-3	-1.57258E-3
1.71336E-3	55.8904E-12	786.572E-3	-12.6479E-3	58.7240E-12	840.538E-3	-6.25242E-3
1.70835E-3	55.8426E-12	809.120E-3	-11.7400E-3	58.0886E-12	821.946E-3	-5.35675E-3
1.70335E-3	55.6822E-12	828.054E-3	-16.9112E-3	57.0396E-12	825.180E-3	-11.2652E-3
1.69835E-3	55.7606E-12	831.563E-3	-13.3436E-3	56.6916E-12	837.184E-3	-31.0359E-3
1.69335E-3	55.6223E-12	833.689E-3	-4.44033E-3	56.0851E-12	828.932E-3	-39.6823E-3
1.68834E-3	55.4240E-12	842.986E-3	-12.7877E-3	55.5568E-12	828.182E-3	-23.4576E-3
1.68334E-3	55.4058E-12	844.556E-3	-20.4806E-3	55.0498E-12	837.659E-3	-7.85698E-3
1.67834E-3	55.4203E-12	838.752E-3	-5.99548E-3	54.9389E-12	838.541E-3	-13.9382E-3
1.67334E-3	54.9850E-12	838.329E-3	949.733E-6	54.8486E-12	852.577E-3	-28.1597E-3
1.66833E-3	54.6392E-12	849.153E-3	-21.9336E-3	54.7015E-12	873.693E-3	-37.4622E-3
1.66333E-3	54.3142E-12	864.087E-3	-32.7831E-3	54.3822E-12	880.509E-3	-31.8354E-3
1.65833E-3	54.0356E-12	864.758E-3	-20.8730E-3	54.4819E-12	888.135E-3	-19.3169E-3
1.65333E-3	53.7159E-12	854.233E-3	-20.6757E-3	54.8467E-12	894.563E-3	-25.7776E-3
1.64832E-3	53.3423E-12	846.871E-3	-19.1137E-3	54.7615E-12	890.092E-3	-38.9416E-3
1.64332E-3	53.2261E-12	845.891E-3	-6.18792E-3	54.4886E-12	895.522E-3	-44.9842E-3
1.63832E-3	53.0392E-12	845.740E-3	-4.13188E-3	54.2773E-12	904.692E-3	-43.2963E-3
1.63332E-3	52.6642E-12	853.696E-3	-8.39757E-3	54.2496E-12	885.819E-3	-32.2390E-3
1.62831E-3	52.4662E-12	856.204E-3	-4.45755E-3	54.0254E-12	865.328E-3	-21.8866E-3
1.62331E-3	52.2330E-12	847.465E-3	3.00815E-3	53.2297E-12	880.809E-3	-26.3865E-3
1.61831E-3	51.9090E-12	856.463E-3	2.02410E-3	52.4213E-12	895.520E-3	-34.0526E-3
1.61331E-3	51.6551E-12	864.609E-3	-11.4825E-3	52.0101E-12	885.186E-3	-18.1802E-3
1.60830E-3	51.4077E-12	861.631E-3	-26.3354E-3	51.3731E-12	875.900E-3	-9.37937E-3
1.60330E-3	51.1995E-12	871.992E-3	-25.7309E-3	50.6907E-12	866.236E-3	-23.8054E-3
1.59830E-3	51.0344E-12	883.969E-3	-13.3861E-3	50.0273E-12	867.977E-3	-23.7915E-3
1.59330E-3	50.6873E-12	883.867E-3	-14.0304E-3	49.5223E-12	892.005E-3	-14.4462E-3
1.58829E-3	50.4592E-12	884.171E-3	-20.3534E-3	49.1143E-12	909.259E-3	-16.3146E-3
1.58329E-3	50.5118E-12	883.889E-3	-11.1405E-3	48.9302E-12	911.567E-3	-18.6140E-3
1.57829E-3	50.2402E-12	888.916E-3	-7.70512E-3	48.8118E-12	908.561E-3	-15.2582E-3
1.57329E-3	49.8281E-12	910.215E-3	-20.1182E-3	48.7600E-12	910.094E-3	-11.9671E-3
1.56828E-3	49.6803E-12	918.670E-3	-16.5153E-3	48.6187E-12	920.644E-3	-3.64015E-3
1.56328E-3	49.5486E-12	909.566E-3	-6.71942E-3	48.8292E-12	930.381E-3	6.08904E-3
1.55828E-3	49.3410E-12	910.136E-3	-6.56518E-3	49.0222E-12	940.154E-3	5.50580E-3
1.55328E-3	49.1523E-12	917.692E-3	-7.87932E-3	49.1438E-12	950.238E-3	-760.376E-6
1.54827E-3	49.1100E-12	915.913E-3	-26.4535E-3	48.9715E-12	952.168E-3	-11.5678E-3
1.54327E-3	48.9077E-12	920.716E-3	-44.8997E-3	49.0031E-12	951.293E-3	-20.9470E-3
1.53827E-3	48.8107E-12	930.386E-3	-37.4605E-3	48.9059E-12	944.943E-3	-8.15369E-3
1.53327E-3	48.4998E-12	926.447E-3	-22.8873E-3	48.5335E-12	934.326E-3	15.6346E-3
1.52826E-3	48.1850E-12	930.813E-3	-13.2818E-3	47.8613E-12	926.214E-3	17.3999E-3
1.52326E-3	47.6368E-12	941.908E-3	-7.26143E-3	47.2908E-12	926.129E-3	-3.20557E-3
1.51826E-3	47.2266E-12	936.445E-3	-12.5957E-3	46.8944E-12	933.429E-3	-14.7101E-3
1.51326E-3	46.6477E-12	934.826E-3	-19.8390E-3	46.3152E-12	932.837E-3	-9.58746E-3
1.50825E-3	46.0988E-12	938.439E-3	-16.7176E-3	45.4543E-12	932.769E-3	4.48424E-3
1.50325E-3	45.5199E-12	924.752E-3	-17.4058E-3	44.9307E-12	940.847E-3	8.78466E-3
1.49825E-3	44.8359E-12	917.065E-3	-25.6147E-3	44.4450E-12	936.007E-3	-14.4444E-3
1.49325E-3	44.4627E-12	926.498E-3	-18.5258E-3	43.8268E-12	918.743E-3	-24.6536E-3
1.48824E-3	44.0071E-12	922.299E-3	-4.02513E-3	43.3598E-12	910.303E-3	-9.97663E-3
1.48324E-3	43.5534E-12	915.416E-3	-5.26826E-3	43.1190E-12	914.112E-3	-4.74832E-3
1.47824E-3	43.1368E-12	927.456E-3	-3.20537E-3	42.8677E-12	920.292E-3	-5.53748E-3
1.47324E-3	42.9860E-12	933.550E-3	5.28834E-3	42.8299E-12	931.649E-3	-7.00486E-3
1.46823E-3	42.6512E-12	930.656E-3	-6.26205E-3	42.5832E-12	951.092E-3	-15.4939E-3
1.46323E-3	42.5300E-12	928.606E-3	-21.3746E-3	42.6515E-12	952.201E-3	-11.9267E-3
1.45823E-3	42.2291E-12	917.142E-3	-24.0285E-3	42.5377E-12	937.547E-3	-1.02592E-3
1.45323E-3	42.0903E-12	915.460E-3	-26.4861E-3	42.3114E-12	934.932E-3	-7.44888E-3
1.44822E-3	41.8124E-12	938.283E-3	-21.0903E-3	42.1786E-12	934.136E-3	-22.1254E-3
1.44322E-3	41.5000E-12	950.416E-3	-9.50168E-3	42.0114E-12	939.495E-3	-20.1780E-3
1.43822E-3	41.0126E-12	942.248E-3	2.06871E-3	41.6658E-12	951.446E-3	-15.8252E-3
1.43322E-3	40.8785E-12	938.558E-3	12.1411E-3	41.3080E-12	945.354E-3	-13.8331E-3
1.42821E-3	40.5412E-12	932.569E-3	7.95745E-3	40.9315E-12	922.375E-3	3.92603E-3
1.42321E-3	39.9169E-12	923.707E-3	-4.14895E-3	40.5358E-12	906.509E-3	7.34952E-3
1.41821E-3	39.2603E-12	924.628E-3	-5.49466E-3	40.1249E-12	898.076E-3	-9.87791E-3
1.41321E-3	38.9194E-12	919.232E-3	1.60665E-3	39.6274E-12	881.809E-3	-10.7071E-3
1.40820E-3	38.3713E-12	905.192E-3	-142.927E-6	39.3710E-12	872.864E-3	-6.12460E-3
1.40320E-3	37.9907E-12	900.986E-3	-1.35427E-3	39.1221E-12	880.844E-3	-20.2210E-3
1.39820E-3	37.5869E-12	891.445E-3	1.05800E-3	38.7588E-12	886.238E-3	-34.2763E-3
1.39320E-3	37.1761E-12	874.245E-3	-6.43113E-3	38.1943E-12	880.167E-3	-32.6269E-3
1.38819E-3	37.0272E-12	873.035E-3	-3.33560E-3	38.0157E-12	872.812E-3	-21.5658E-3
1.38319E-3	37.0184E-12	879.478E-3	6.78884E-3	37.7305E-12	867.457E-3	-2.70588E-3
1.37819E-3	36.8218E-12	875.702E-3	-3.14804E-3	37.5554E-12	862.894E-3	7.13833E-3
1.37319E-3	36.7334E-12	871.100E-3	-11.8768E-3	36.9550E-12	852.221E-3	-2.87018E-3
1.36818E-3	36.6641E-12	875.878E-3	-5.41360E-3	36.6718E-12	837.595E-3	-9.09323E-3
1.36318E-3	36.5287E-12	882.439E-3	-7.72574E-3	36.4480E-12	834.608E-3	-3.24793E-3
1.35818E-3	36.5885E-12	876.068E-3	-14.8900E-3	36.2128E-12	835.251E-3	-128.096E-6
1.35318E-3	36.3336E-12	847.561E-3	-15.7719E-3	35.7148E-12	825.156E-3	7.64268E-3
1.34817E-3	36.0822E-12	829.495E-3	-22.3169E-3	35.5595E-12	818.735E-3	11.3544E-3
1.34317E-3	35.9905E-12	842.962E-3	-25.9746E-3	35.5985E-12	821.828E-3	-15.7130E-3
1.33817E-3	35.7914E-12	851.742E-3	-13.6595E-3	35.2448E-12	821.736E-3	-42.2749E-3
1.33317E-3	35.5329E-12	851.693E-3	850.010E-6	35.0553E-12	813.956E-3	-40.0515E-3
1.32816E-3	35.1629E-12	850.032E-3	4.52104E-3	34.9023E-12	807.344E-3	-30.2536E-3
1.32316E-3	34.6644E-12	838.050E-3	666.835E-6	34.7442E-12	805.057E-3	-19.3100E-3
1.31816E-3	34.4689E-12	826.433E-3	-6.64702E-3	34.3926E-12	788.330E-3	-5.51940E-3
1.31316E-3	34.2123E-12	825.071E-3	-16.3461E-3	34.2177E-12	764.250E-3	-12.2498E-3
1.30815E-3	33.5824E-12	820.413E-3	-17.8597E-3	34.1456E-12	749.585E-3	-21.8477E-3
1.30315E-3	33.4128E-12	788.539E-3	-16.8404E-3	33.8530E-12	737.846E-3	-4.96189E-3
1.29815E-3	33.4264E-12	756.057E-3	-27.8564E-3	33.4767E-12	724.485E-3	-2.07066E-3
1.29315E-3	33.0710E-12	746.441E-3	-26.4722E-3	33.1866E-12	705.963E-3	-14.5382E-3
1.28814E-3	32.9032E-12	739.443E-3	-13.9453E-3	33.0070E-12	689.872E-3	-7.98758E-3
1.28314E-3	32.8962E-12	734.704E-3	-21.6217E-3	32.5752E-12	681.333E-3	-9.86369E-3
1.27814E-3	32.7406E-12	735.679E-3	-30.0079E-3	32.0945E-12	658.404E-3	-15.6452E-3
1.27314E-3	32.6025E-12	730.670E-3	-25.3969E-3	31.6760E-12	629.812E-3	-6.58228E-3
1.26813E-3	32.5408E-12	722.844E-3	-26.2167E-3	31.5032E-12	631.842E-3	-11.7661E-3
1.26313E-3	32.4427E-12	709.627E-3	-24.9743E-3	31.1711E-12	640.062E-3	-23.9768E-3
1.25813E-3	32.2607E-12	685.086E-3	-11.2633E-3	30.8130E-12	632.673E-3	-10.7448E-3
1.25313E-3	32.0931E-12	663.706E-3	-3.54084E-3	30.7094E-12	622.070E-3	6.08661E-3
1.24812E-3	31.8682E-12	658.283E-3	-4.09788E-3	30.7028E-12	604.646E-3	-2.06299E-3
1.24312E-3	31.6482E-12	652.962E-3	-7.78860E-3	30.6557E-12	594.964E-3	-13.2504E-3
1.23812E-3	31.3281E-12	638.717E-3	-20.0368E-3	30.5082E-12	601.008E-3	-17.7399E-3
1.23312E-3	30.9795E-12	622.024E-3	-25.9270E-3	30.4839E-12	592.536E-3	-23.8449E-3
1.22811E-3	30.7034E-12	608.563E-3	-11.8255E-3	30.5822E-12	566.169E-3	-22.5705E-3
1.22311E-3	30.5036E-12	606.044E-3	-6.05634E-3	30.5837E-12	551.194E-3	-13.8490E-3
1.21811E-3	30.0843E-12	600.006E-3	-18.3498E-3	30.3312E-12	540.676E-3	-17.6519E-3
1.21311E-3	29.6744E-12	586.100E-3	-25.3666E-3	30.2475E-12	530.023E-3	-24.3404E-3
1.20810E-3	29.4446E-12	585.038E-3	-27.7806E-3	30.1164E-12	526.380E-3	-16.2451E-3
1.20310E-3	29.2904E-12	580.317E-3	-22.2749E-3	29.9238E-12	511.242E-3	-12.6628E-3
1.19810E-3	28.9835E-12	554.669E-3	-10.3814E-3	29.6046E-12	474.464E-3	-7.52495E-3
1.19310E-3	28.6533E-12	521.816E-3	-13.9871E-3	29.1413E-12	454.350E-3	-968.392E-6
1.18809E-3	28.4148E-12	496.386E-3	-22.7475E-3	28.7635E-12	460.799E-3	-14.7950E-3
1.18309E-3	28.3010E-12	487.145E-3	-20.9561E-3	28.3514E-12	448.108E-3	-19.9842E-3
1.17809E-3	28.0282E-12	477.364E-3	-19.9204E-3	27.8304E-12	423.872E-3	-11.6727E-3
1.17309E-3	27.7062E-12	467.780E-3	-24.7062E-3	27.5453E-12	413.127E-3	-21.8291E-3
1.16808E-3	27.4995E-12	463.720E-3	-23.4833E-3	27.2689E-12	399.577E-3	-32.5167E-3
1.16308E-3	27.3159E-12	448.091E-3	-10.9098E-3	26.9795E-12	378.717E-3	-26.4450E-3
1.15808E-3	27.1405E-12	439.308E-3	-2.65440E-3	26.7981E-12	366.570E-3	-17.4906E-3
1.15308E-3	26.8674E-12	439.135E-3	-12.0665E-3	26.9095E-12	355.973E-3	-9.64374E-3
1.14807E-3	26.7335E-12	423.489E-3	-19.6913E-3	26.9601E-12	347.413E-3	-5.03086E-3
1.14307E-3	26.5428E-12	401.607E-3	-16.4119E-3	26.9433E-12	350.170E-3	-14.4744E-3
1.13807E-3	26.3971E-12	383.544E-3	-19.4312E-3	26.8957E-12	343.505E-3	-26.9281E-3
1.13307E-3	26.3311E-12	366.750E-3	-26.7162E-3	27.2084E-12	323.700E-3	-21.1328E-3
1.12806E-3	26.2657E-12	358.053E-3	-29.5464E-3	27.3671E-12	317.562E-3	-9.68513E-3
1.12306E-3	26.0771E-12	359.262E-3	-19.6929E-3	27.1952E-12	315.977E-3	-10.7121E-3
1.11806E-3	25.9848E-12	356.539E-3	-7.35630E-3	27.2534E-12	305.765E-3	-24.0174E-3
1.11306E-3	25.9629E-12	342.826E-3	-18.0057E-3	27.4053E-12	303.777E-3	-33.1748E-3
1.10805E-3	25.9764E-12	331.106E-3	-30.9232E-3	27.3488E-12	303.983E-3	-32.1786E-3
1.10305E-3	25.9648E-12	319.328E-3	-16.7101E-3	26.9955E-12	296.604E-3	-29.7073E-3
1.09805E-3	25.8333E-12	302.324E-3	4.36165E-3	26.7178E-12	286.516E-3	-27.3078E-3
1.09305E-3	25.7861E-12	292.232E-3	7.02964E-3	26.6419E-12	267.890E-3	-25.2510E-3
1.08804E-3	25.9141E-12	285.976E-3	-1.93372E-3	26.2466E-12	253.900E-3	-18.3527E-3
1.08304E-3	25.8703E-12	270.944E-3	-14.0570E-3	25.8690E-12	250.472E-3	-13.5227E-3
1.07804E-3	25.8176E-12	261.161E-3	-24.1627E-3	25.5133E-12	232.198E-3	-21.4563E-3
1.07304E-3	25.7105E-12	264.434E-3	-27.6819E-3	25.3224E-12	203.443E-3	-15.9818E-3
1.06803E-3	25.8492E-12	267.732E-3	-25.1228E-3	25.1583E-12	195.114E-3	-6.07944E-3
1.06303E-3	25.8108E-12	267.757E-3	-20.7301E-3	24.9650E-12	209.168E-3	-20.4668E-3
1.05803E-3	25.7153E-12	252.708E-3	-24.0701E-3	24.8539E-12	221.207E-3	-23.7040E-3
1.05303E-3	25.5707E-12	230.713E-3	-29.5171E-3	24.9194E-12	224.381E-3	-2.91736E-3
1.04802E-3	25.6601E-12	228.846E-3	-21.6529E-3	24.8533E-12	219.578E-3	5.02709E-3
1.04302E-3	25.8006E-12	234.271E-3	-12.6473E-3	24.8861E-12	205.783E-3	8.29674E-3
1.03802E-3	25.5775E-12	229.637E-3	-14.7779E-3	25.0188E-12	194.383E-3	12.5614E-3
1.03302E-3	25.5816E-12	223.036E-3	-9.70247E-3	24.8751E-12	191.749E-3	-6.64212E-3
1.02801E-3	25.5059E-12	217.040E-3	-125.314E-6	24.7987E-12	183.222E-3	-19.3189E-3
1.02301E-3	25.3872E-12	208.405E-3	-1.55807E-3	24.8233E-12	174.959E-3	-17.5453E-3
1.01801E-3	25.3337E-12	202.469E-3	-3.38873E-3	24.9283E-12	187.762E-3	-21.7492E-3
1.01301E-3	25.2402E-12	200.287E-3	-6.87304E-3	24.9235E-12	205.526E-3	-21.2081E-3
1.00800E-3	25.2270E-12	200.366E-3	-20.9299E-3	24.8382E-12	207.357E-3	-20.9033E-3
1.00300E-3	25.1234E-12	208.666E-3	-32.8054E-3	24.8270E-12	194.351E-3	-24.9713E-3
997.999E-6	24.8576E-12	212.758E-3	-31.4605E-3	24.8337E-12	187.448E-3	-24.5650E-3
992.997E-6	24.8260E-12	204.509E-3	-23.6427E-3	24.7659E-12	196.978E-3	-14.3694E-3
987.994E-6	24.7782E-12	200.309E-3	-23.7929E-3	24.5602E-12	209.745E-3	-12.9248E-3
982.991E-6	24.4872E-12	205.764E-3	-33.8869E-3	24.3930E-12	212.698E-3	-24.4436E-3
977.989E-6	24.4086E-12	211.283E-3	-28.4954E-3	24.4848E-12	204.322E-3	-24.1790E-3
972.986E-6	24.3715E-12	196.898E-3	-10.2342E-3	24.3131E-12	201.204E-3	-19.1245E-3
967.984E-6	24.3284E-12	175.874E-3	-6.34850E-3	23.9670E-12	201.844E-3	-18.6484E-3
962.981E-6	24.0040E-12	172.894E-3	-16.7591E-3	23.8415E-12	193.235E-3	-12.1179E-3
957.979E-6	23.9282E-12	180.159E-3	-27.0727E-3	23.8869E-12	196.641E-3	-2.11072E-3
952.976E-6	24.0817E-12	193.049E-3	-25.1707E-3	23.7007E-12	211.607E-3	3.09399E-3
947.974E-6	23.9424E-12	198.973E-3	-13.0488E-3	23.6873E-12	213.310E-3	4.42597E-3
942.971E-6	23.8558E-12	201.965E-3	-584.542E-6	23.5676E-12	213.522E-3	-2.20868E-3
937.969E-6	23.8181E-12	212.333E-3	13.0915E-3	23.5469E-12	223.160E-3	-15.0910E-3
932.966E-6	23.8824E-12	223.891E-3	12.5661E-3	23.5787E-12	234.567E-3	-26.1283E-3
927.964E-6	23.7667E-12	236.972E-3	-8.79468E-3	23.4348E-12	240.449E-3	-27.0506E-3
922.961E-6	23.6107E-12	231.738E-3	-14.2223E-3	23.4395E-12	241.883E-3	-26.3087E-3
917.959E-6	23.3767E-12	209.747E-3	-6.07580E-3	23.4793E-12	252.309E-3	-19.6108E-3
912.956E-6	23.4810E-12	206.938E-3	-8.43298E-3	23.4258E-12	265.253E-3	-5.09322E-3
907.954E-6	23.2795E-12	221.557E-3	-13.2269E-3	23.2607E-12	262.799E-3	-15.5397E-3
902.951E-6	22.8904E-12	226.402E-3	-13.3263E-3	23.2320E-12	252.318E-3	-36.0510E-3
897.949E-6	22.7296E-12	222.874E-3	-22.5230E-3	23.3051E-12	254.890E-3	-35.9015E-3
892.946E-6	22.5954E-12	221.269E-3	-31.4092E-3	23.1157E-12	264.176E-3	-21.3723E-3
887.944E-6	22.1769E-12	214.312E-3	-23.8150E-3	22.9915E-12	264.740E-3	-12.4390E-3
882.941E-6	21.8971E-12	216.949E-3	-16.1362E-3	23.0337E-12	266.207E-3	-15.0191E-3
877.939E-6	21.8537E-12	248.419E-3	-15.8077E-3	22.8684E-12	274.734E-3	-21.4279E-3
872.936E-6	21.6464E-12	272.981E-3	-16.2646E-3	22.5286E-12	276.882E-3	-22.8883E-3
867.934E-6	21.4826E-12	269.955E-3	-14.2180E-3	22.3392E-12	273.577E-3	-21.5780E-3
862.931E-6	21.4288E-12	269.194E-3	-9.82928E-3	22.2117E-12	283.390E-3	-21.1195E-3
857.929E-6	21.5522E-12	275.882E-3	-2.90444E-3	22.1136E-12	303.706E-3	-13.8449E-3
852.926E-6	21.5420E-12	276.434E-3	-6.21806E-3	21.8598E-12	321.849E-3	-7.67661E-3
847.924E-6	21.4620E-12	276.624E-3	-19.2987E-3	21.5641E-12	328.035E-3	-9.98971E-3
842.921E-6	21.6331E-12	276.786E-3	-28.6475E-3	21.6019E-12	334.232E-3	-9.96999E-3
837.919E-6	21.7567E-12	284.837E-3	-30.4737E-3	21.6965E-12	352.310E-3	-11.9180E-3
832.916E-6	21.8086E-12	311.931E-3	-25.2006E-3	21.4097E-12	366.481E-3	-27.0478E-3
827.914E-6	21.6203E-12	327.201E-3	-21.9582E-3	21.3022E-12	370.989E-3	-26.6394E-3
822.911E-6	21.5597E-12	328.203E-3	-29.7508E-3	21.4970E-12	375.898E-3	-9.80335E-3
817.909E-6	21.6221E-12	335.565E-3	-32.8372E-3	21.3648E-12	384.958E-3	-10.0520E-3
812.906E-6	21.5013E-12	343.063E-3	-23.3702E-3	21.2864E-12	397.753E-3	-16.7924E-3
807.904E-6	21.1954E-12	354.657E-3	-22.6210E-3	21.3258E-12	418.192E-3	-8.87814E-3
802.901E-6	21.0433E-12	376.414E-3	-24.1461E-3	21.3996E-12	441.278E-3	6.83589E-3
797.899E-6	20.9028E-12	392.042E-3	-19.9483E-3	21.2695E-12	444.054E-3	2.87409E-3
792.896E-6	20.7536E-12	395.631E-3	-16.9235E-3	21.1368E-12	430.720E-3	-16.3445E-3
787.894E-6	20.4332E-12	395.247E-3	-12.1376E-3	21.1079E-12	433.430E-3	-24.6768E-3
782.891E-6	20.2649E-12	400.335E-3	-14.8344E-3	20.9090E-12	441.609E-3	-30.6890E-3
777.889E-6	20.1590E-12	415.134E-3	-29.8846E-3	20.6549E-12	443.378E-3	-32.2948E-3
772.886E-6	19.9429E-12	432.134E-3	-36.2157E-3	20.3640E-12	453.158E-3	-25.4373E-3
767.884E-6	19.8263E-12	433.232E-3	-23.1931E-3	20.1285E-12	456.193E-3	-22.2431E-3
762.881E-6	19.7948E-12	420.538E-3	-8.67497E-3	19.7889E-12	454.875E-3	-16.7588E-3
757.879E-6	19.8421E-12	433.415E-3	-1.58154E-3	19.3316E-12	461.843E-3	-10.8331E-3
752.876E-6	19.7268E-12	467.078E-3	-1.15661E-3	19.0852E-12	464.366E-3	-17.6030E-3
747.874E-6	19.6743E-12	493.648E-3	-10.2766E-3	19.0753E-12	472.776E-3	-23.2212E-3
742.871E-6	19.6450E-12	506.508E-3	-21.9864E-3	18.8223E-12	496.025E-3	-13.4673E-3
737.869E-6	19.6998E-12	501.240E-3	-23.6232E-3	18.4664E-12	515.219E-3	-5.96518E-3
732.866E-6	19.5002E-12	499.514E-3	-12.7456E-3	18.2445E-12	522.525E-3	-6.92590E-3
727.864E-6	19.3436E-12	524.138E-3	-7.13589E-3	18.2799E-12	530.235E-3	-8.86012E-3
722.861E-6	19.3249E-12	544.104E-3	-10.3603E-3	18.2071E-12	538.407E-3	-25.6591E-3
717.859E-6	19.0933E-12	535.502E-3	-15.1044E-3	17.9374E-12	538.711E-3	-48.7651E-3
712.856E-6	18.7181E-12	536.417E-3	-18.3971E-3	17.8940E-12	551.093E-3	-46.3442E-3
707.854E-6	18.4995E-12	554.644E-3	-8.74685E-3	18.0320E-12	576.694E-3	-36.7445E-3
702.851E-6	18.4445E-12	561.737E-3	-7.49804E-3	17.9579E-12	583.148E-3	-33.4955E-3
697.849E-6	18.0670E-12	564.081E-3	-18.6111E-3	17.8000E-12	579.456E-3	-20.7295E-3
692.846E-6	17.6459E-12	568.841E-3	-19.1320E-3	17.7345E-12	584.731E-3	-15.6384E-3
687.844E-6	17.3868E-12	565.314E-3	-16.2120E-3	17.6384E-12	593.238E-3	-24.8419E-3
682.841E-6	17.2889E-12	562.464E-3	-17.5047E-3	17.4717E-12	605.178E-3	-25.1170E-3
677.839E-6	16.9968E-12	567.494E-3	-20.1132E-3	17.1750E-12	613.861E-3	-15.4879E-3
672.836E-6	16.6480E-12	572.571E-3	-20.7078E-3	16.9792E-12	613.103E-3	-15.5859E-3
667.834E-6	16.3622E-12	578.115E-3	-13.7761E-3	16.7816E-12	618.716E-3	-10.5543E-3
662.831E-6	16.2991E-12	583.792E-3	-137.303E-6	16.3745E-12	628.253E-3	5.91647E-3
657.829E-6	16.0763E-12	594.065E-3	6.69979E-3	16.0151E-12	624.855E-3	-1.36042E-3
652.826E-6	15.7311E-12	609.550E-3	-977.600E-6	15.8959E-12	620.362E-3	-30.8108E-3
647.824E-6	15.5510E-12	621.219E-3	-17.4348E-3	15.6239E-12	623.332E-3	-42.2986E-3
642.821E-6	15.3659E-12	620.702E-3	-25.8727E-3	15.2315E-12	623.550E-3	-23.0516E-3
637.819E-6	15.2104E-12	608.180E-3	-29.2287E-3	14.9736E-12	621.801E-3	-4.73015E-3
632.816E-6	14.9350E-12	609.857E-3	-33.0936E-3	14.8485E-12	624.720E-3	-3.41875E-3
627.814E-6	14.8074E-12	628.753E-3	-23.5410E-3	14.6450E-12	637.698E-3	-9.75709E-3
622.811E-6	14.5234E-12	635.629E-3	-13.8464E-3	14.3082E-12	664.467E-3	-10.8959E-3
617.809E-6	14.2279E-12	643.164E-3	-11.5041E-3	14.0414E-12	685.627E-3	-8.86086E-3
612.806E-6	14.0027E-12	660.488E-3	-2.53399E-3	14.0786E-12	685.780E-3	-12.5897E-3
607.804E-6	13.9280E-12	668.393E-3	1.95417E-3	13.9611E-12	683.437E-3	-14.4249E-3
602.801E-6	13.6516E-12	666.471E-3	-1.65829E-3	13.5978E-12	694.493E-3	-12.5014E-3
597.799E-6	13.2474E-12	671.901E-3	-4.25739E-3	13.4204E-12	694.633E-3	-10.7918E-3
592.796E-6	12.9874E-12	682.126E-3	-11.9728E-3	13.3926E-12	679.546E-3	-7.97786E-3
587.794E-6	12.9386E-12	680.071E-3	-13.7992E-3	13.2933E-12	684.193E-3	-4.73383E-3
582.791E-6	12.6728E-12	671.062E-3	-1.08258E-3	12.9006E-12	696.144E-3	-11.6276E-3
577.789E-6	12.1961E-12	661.092E-3	3.99404E-3	12.6518E-12	687.999E-3	-22.0103E-3
572.786E-6	11.9315E-12	662.114E-3	-10.9615E-3	12.5767E-12	681.807E-3	-22.6513E-3
567.784E-6	11.8736E-12	675.342E-3	-21.5079E-3	12.3285E-12	682.886E-3	-23.5080E-3
562.781E-6	11.5579E-12	671.231E-3	-15.2422E-3	11.9267E-12	678.021E-3	-22.7701E-3
557.779E-6	11.1541E-12	650.864E-3	-12.2863E-3	11.6858E-12	665.628E-3	-11.1503E-3
552.776E-6	10.9223E-12	646.137E-3	-11.4745E-3	11.5013E-12	656.282E-3	-4.79047E-3
547.774E-6	10.8144E-12	651.220E-3	-10.3553E-3	11.2462E-12	660.069E-3	-10.3043E-3
542.771E-6	10.6589E-12	650.509E-3	-14.5723E-3	10.8388E-12	660.848E-3	-7.34165E-3
537.769E-6	10.3277E-12	660.665E-3	-16.2303E-3	10.6675E-12	649.941E-3	-2.37575E-3
532.766E-6	10.1462E-12	670.115E-3	-11.6815E-3	10.5098E-12	642.421E-3	-10.9181E-3
527.764E-6	10.1114E-12	666.001E-3	-9.06369E-3	10.1430E-12	644.178E-3	-19.8398E-3
522.761E-6	9.92312E-12	661.024E-3	-22.6528E-3	9.88454E-12	651.617E-3	-21.6183E-3
517.759E-6	9.67784E-12	653.329E-3	-40.3988E-3	9.75228E-12	664.556E-3	-20.8605E-3
512.756E-6	9.68968E-12	650.570E-3	-42.4539E-3	9.64032E-12	664.915E-3	-14.9322E-3
507.754E-6	9.57967E-12	659.742E-3	-33.5100E-3	9.31442E-12	653.180E-3	-12.0858E-3
502.751E-6	9.35989E-12	664.878E-3	-20.1587E-3	9.08083E-12	650.183E-3	-13.5594E-3
497.749E-6	9.11148E-12	673.591E-3	-17.1733E-3	9.07432E-12	653.186E-3	-6.12780E-3
492.746E-6	9.10086E-12	685.778E-3	-23.6894E-3	8.98110E-12	654.836E-3	-2.18980E-3
487.744E-6	8.89195E-12	674.255E-3	-24.8982E-3	8.61864E-12	649.206E-3	-17.0238E-3
482.741E-6	8.59002E-12	655.859E-3	-19.0973E-3	8.43291E-12	638.559E-3	-25.4708E-3
477.739E-6	8.34540E-12	651.071E-3	-9.21511E-3	8.34382E-12	634.933E-3	-20.0768E-3
472.736E-6	8.29163E-12	637.691E-3	-15.7293E-3	8.16234E-12	624.284E-3	-22.2241E-3
467.734E-6	8.00535E-12	620.142E-3	-27.5567E-3	7.76426E-12	595.559E-3	-26.0499E-3
462.731E-6	7.56748E-12	618.143E-3	-23.8088E-3	7.46918E-12	584.079E-3	-27.4984E-3
457.729E-6	7.29039E-12	611.917E-3	-13.7128E-3	7.43423E-12	592.536E-3	-28.2167E-3
452.726E-6	7.29078E-12	607.556E-3	-6.95498E-3	7.22593E-12	584.542E-3	-28.0408E-3
447.724E-6	7.10346E-12	612.359E-3	-9.71960E-3	6.87565E-12	568.001E-3	-30.3128E-3
442.721E-6	6.66175E-12	612.962E-3	-9.22792E-3	6.59570E-12	558.239E-3	-29.6645E-3
437.719E-6	6.48691E-12	606.933E-3	-6.41036E-3	6.51979E-12	549.066E-3	-20.4304E-3
432.716E-6	6.49141E-12	591.582E-3	-15.3856E-3	6.29485E-12	541.808E-3	-16.9624E-3
427.714E-6	6.31204E-12	580.861E-3	-21.9819E-3	5.99604E-12	535.120E-3	-19.7723E-3
422.711E-6	5.97750E-12	581.795E-3	-18.6129E-3	5.78546E-12	516.702E-3	-14.3209E-3
417.709E-6	5.83249E-12	579.397E-3	-18.4056E-3	5.78590E-12	496.448E-3	-14.0073E-3
412.706E-6	5.81723E-12	565.016E-3	-18.5935E-3	5.57388E-12	492.539E-3	-22.2598E-3
407.704E-6	5.69972E-12	548.636E-3	-7.91352E-3	5.29767E-12	495.928E-3	-22.2222E-3
402.701E-6	5.40801E-12	540.326E-3	-5.69866E-3	5.27218E-12	499.271E-3	-17.0205E-3
397.699E-6	5.28100E-12	541.658E-3	-22.7163E-3	5.18805E-12	503.365E-3	-20.2089E-3
392.696E-6	5.18527E-12	545.056E-3	-25.9860E-3	5.00909E-12	499.245E-3	-23.4301E-3
387.694E-6	4.90320E-12	544.884E-3	-5.72054E-3	4.74817E-12	484.461E-3	-8.64734E-3
382.691E-6	4.73409E-12	536.015E-3	221.357E-6	4.73688E-12	462.383E-3	587.193E-6
377.689E-6	4.65131E-12	515.486E-3	-10.7247E-3	4.66734E-12	433.967E-3	-17.3519E-3
372.686E-6	4.46087E-12	488.539E-3	-12.1053E-3	4.38471E-12	424.107E-3	-32.0415E-3
367.684E-6	4.20836E-12	471.111E-3	-9.09839E-3	4.15710E-12	426.825E-3	-26.3283E-3
362.681E-6	3.97738E-12	465.922E-3	-10.4405E-3	4.16049E-12	410.917E-3	-12.2203E-3
357.679E-6	3.96206E-12	453.751E-3	-10.4564E-3	4.04747E-12	391.073E-3	1.53903E-3
352.676E-6	3.75832E-12	436.441E-3	-7.84316E-3	3.76381E-12	385.204E-3	6.23001E-3
347.674E-6	3.46305E-12	421.544E-3	-2.63065E-3	3.50860E-12	382.814E-3	588.963E-6
342.671E-6	3.30555E-12	412.874E-3	-4.04422E-3	3.51410E-12	371.617E-3	-8.01741E-3
337.669E-6	3.34583E-12	411.047E-3	-9.92950E-3	3.43168E-12	354.459E-3	-13.1841E-3
332.666E-6	3.22346E-12	393.164E-3	-13.3931E-3	3.11739E-12	336.239E-3	-4.39669E-3
327.664E-6	2.89606E-12	368.360E-3	-22.4071E-3	2.90575E-12	319.944E-3	1.45662E-3
322.661E-6	2.76795E-12	361.977E-3	-32.6420E-3	2.94301E-12	309.808E-3	-18.5204E-3
317.659E-6	2.82877E-12	353.832E-3	-28.3470E-3	2.84009E-12	304.640E-3	-35.7035E-3
312.656E-6	2.77717E-12	338.927E-3	-18.0095E-3	2.66327E-12	291.115E-3	-27.0143E-3
307.654E-6	2.45622E-12	334.771E-3	-12.2313E-3	2.51233E-12	275.985E-3	-17.1943E-3
302.651E-6	2.41008E-12	331.987E-3	-667.027E-6	2.54936E-12	275.229E-3	-10.8790E-3
297.649E-6	2.40187E-12	327.674E-3	4.30990E-3	2.42385E-12	272.365E-3	-509.130E-6
292.646E-6	2.34601E-12	316.411E-3	-6.67946E-3	2.29685E-12	262.304E-3	-7.13872E-3
287.644E-6	2.16680E-12	289.350E-3	-20.5599E-3	2.22679E-12	247.753E-3	-19.1064E-3
282.641E-6	2.06031E-12	270.548E-3	-23.1333E-3	2.16950E-12	228.817E-3	-8.28349E-3
277.639E-6	2.04387E-12	267.908E-3	-13.6997E-3	2.04122E-12	231.385E-3	3.76762E-3
272.636E-6	1.97442E-12	267.199E-3	-6.55264E-3	1.93238E-12	242.693E-3	-2.13721E-3
267.634E-6	1.78632E-12	264.191E-3	-16.3425E-3	1.90421E-12	225.186E-3	-13.3325E-3
262.631E-6	1.78459E-12	256.375E-3	-35.4282E-3	1.87887E-12	208.697E-3	-17.5547E-3
257.629E-6	1.72885E-12	240.608E-3	-30.8390E-3	1.66525E-12	211.877E-3	-12.3949E-3
252.626E-6	1.57301E-12	223.930E-3	-14.4413E-3	1.58785E-12	203.712E-3	1.44539E-3
247.624E-6	1.49519E-12	215.633E-3	-13.1797E-3	1.59216E-12	186.801E-3	11.4978E-3
242.621E-6	1.51021E-12	211.329E-3	-14.3111E-3	1.60428E-12	170.461E-3	4.71517E-3
237.619E-6	1.46351E-12	202.805E-3	-15.7589E-3	1.42209E-12	154.742E-3	-1.75679E-3
232.616E-6	1.29492E-12	192.496E-3	-21.8157E-3	1.32757E-12	149.482E-3	-1.73437E-3
227.614E-6	1.22894E-12	192.721E-3	-21.7007E-3	1.32621E-12	154.267E-3	-5.06712E-3
222.611E-6	1.29189E-12	201.503E-3	-19.2221E-3	1.28165E-12	155.226E-3	-11.0278E-3
217.609E-6	1.20883E-12	200.280E-3	-21.8357E-3	1.08009E-12	152.730E-3	-14.3650E-3
212.606E-6	1.01147E-12	183.402E-3	-22.3770E-3	1.01905E-12	147.587E-3	-18.0569E-3
207.604E-6	998.812E-15	162.756E-3	-19.4231E-3	1.06966E-12	132.667E-3	-24.6692E-3
202.601E-6	1.03609E-12	150.922E-3	-18.7662E-3	1.10094E-12	125.855E-3	-22.7988E-3
197.599E-6	1.04424E-12	147.990E-3	-22.9391E-3	892.332E-15	128.422E-3	-20.4916E-3
192.596E-6	822.577E-15	147.663E-3	-22.6286E-3	824.278E-15	124.038E-3	-22.0317E-3
187.594E-6	798.564E-15	141.847E-3	-19.1599E-3	854.490E-15	117.214E-3	-14.3475E-3
182.591E-6	901.531E-15	134.178E-3	-16.4451E-3	867.464E-15	122.027E-3	-10.3404E-3
177.589E-6	871.301E-15	141.258E-3	-12.8869E-3	712.801E-15	126.876E-3	-20.4884E-3
172.586E-6	714.554E-15	148.656E-3	-16.9779E-3	668.193E-15	115.733E-3	-22.0590E-3
167.584E-6	662.299E-15	144.590E-3	-21.5399E-3	671.829E-15	103.030E-3	-15.7965E-3
162.581E-6	697.795E-15	133.653E-3	-20.5412E-3	670.173E-15	102.607E-3	-23.0050E-3
157.579E-6	657.477E-15	117.091E-3	-20.2681E-3	546.568E-15	100.940E-3	-25.2459E-3
152.576E-6	570.755E-15	108.508E-3	-22.6405E-3	570.023E-15	84.2306E-3	-12.9107E-3
147.574E-6	537.334E-15	100.713E-3	-19.6042E-3	561.356E-15	68.2945E-3	-8.41875E-3
142.571E-6	547.832E-15	91.0896E-3	-10.1179E-3	490.171E-15	61.4811E-3	-12.0214E-3
137.569E-6	455.242E-15	92.0872E-3	-12.6793E-3	402.603E-15	63.6911E-3	-14.9889E-3
132.566E-6	424.419E-15	99.0702E-3	-25.7829E-3	467.335E-15	78.6735E-3	-15.9795E-3
127.564E-6	467.963E-15	109.595E-3	-34.7151E-3	444.334E-15	85.6419E-3	-14.1966E-3
122.561E-6	398.078E-15	111.708E-3	-29.9039E-3	320.136E-15	79.2807E-3	-12.1185E-3
117.559E-6	292.539E-15	99.1656E-3	-15.3911E-3	258.796E-15	69.3492E-3	-9.45618E-3
112.556E-6	258.124E-15	97.9357E-3	-17.5581E-3	365.703E-15	58.1432E-3	-4.92152E-3
107.554E-6	323.737E-15	105.923E-3	-21.3980E-3	346.285E-15	64.6969E-3	-3.54177E-3
102.551E-6	265.823E-15	90.7413E-3	-7.85157E-3	216.751E-15	74.1290E-3	-11.0762E-3
97.5488E-6	144.756E-15	64.8330E-3	1.81083E-3	146.099E-15	62.4327E-3	-18.6374E-3
92.5463E-6	160.547E-15	63.6259E-3	-1.05544E-3	259.668E-15	60.9558E-3	-13.6100E-3
87.5438E-6	282.102E-15	68.4385E-3	-11.4632E-3	271.761E-15	71.2940E-3	-4.79790E-3
82.5413E-6	224.032E-15	59.1459E-3	-24.5879E-3	143.090E-15	61.5455E-3	-5.75243E-3
77.5388E-6	77.7480E-15	60.0633E-3	-32.7485E-3	48.2941E-15	52.4744E-3	-13.1985E-3
72.5363E-6	32.3378E-15	69.9216E-3	-27.8625E-3	181.464E-15	52.9002E-3	-23.2845E-3
67.5338E-6	201.335E-15	67.7899E-3	-19.8745E-3	195.807E-15	48.9129E-3	-30.0213E-3
62.5313E-6	174.340E-15	60.7489E-3	-11.7626E-3	73.2662E-15	51.9168E-3	-23.9585E-3
57.5288E-6	20.6016E-15	62.5064E-3	-4.45790E-3	35.3896E-15	57.7163E-3	-17.9995E-3
52.5263E-6	-10.1950E-15	64.2984E-3	-10.6493E-3	66.6221E-15	53.2885E-3	-17.9378E-3
47.5238E-6	53.3426E-15	65.1260E-3	-17.7688E-3	46.1579E-15	50.2722E-3	-15.8687E-3
42.5213E-6	40.8130E-15	60.2732E-3	-17.4649E-3	-4.10890E-15	54.5669E-3	-18.9206E-3
37.5188E-6	-44.4095E-15	43.0648E-3	-19.6048E-3	-58.6307E-15	54.2461E-3	-27.1723E-3
32.5163E-6	-83.1581E-15	35.0757E-3	-20.6983E-3	7.86271E-15	62.0841E-3	-17.2064E-3
27.5138E-6	-51.2804E-15	38.9550E-3	-14.3549E-3	-61.8133E-15	73.3453E-3	-4.90559E-3
22.5113E-6	-49.5539E-15	40.0335E-3	-7.03415E-3	-171.398E-15	63.1967E-3	-13.4293E-3
17.5088E-6	-122.796E-15	51.4075E-3	-9.83802E-3	-143.313E-15	49.3502E-3	-18.1030E-3
12.5063E-6	-118.367E-15	67.0461E-3	-11.3609E-3	-24.8347E-15	50.9477E-3	-14.9084E-3
7.50375E-6	-135.178E-15	64.7132E-3	-7.93221E-3	-172.575E-15	58.1773E-3	-12.7062E-3
2.50125E-6	-185.314E-15	59.8548E-3	-13.9615E-3	-230.785E-15	62.7367E-3	-6.37798E-3
-2.50125E-6	-209.082E-15	66.1490E-3	-22.7697E-3	-190.458E-15	74.2619E-3	105.651E-6
-7.50375E-6	-190.754E-15	61.9910E-3	-28.0148E-3	-130.556E-15	84.4004E-3	-4.59991E-3
-12.5063E-6	-177.675E-15	56.8671E-3	-32.8021E-3	-253.856E-15	81.2359E-3	-12.1786E-3
-17.5088E-6	-284.705E-15	64.5479E-3	-25.3161E-3	-326.226E-15	72.7931E-3	-16.5001E-3
-22.5113E-6	-320.881E-15	58.3557E-3	-8.44090E-3	-246.279E-15	63.5234E-3	-21.9167E-3
-27.5138E-6	-193.021E-15	56.7382E-3	-4.68860E-3	-219.676E-15	58.0426E-3	-13.9628E-3
-32.5163E-6	-247.011E-15	67.1839E-3	-6.65971E-3	-340.761E-15	64.5947E-3	-207.032E-6
-37.5188E-6	-440.929E-15	63.0743E-3	-9.02522E-3	-422.418E-15	69.4456E-3	-5.00650E-3
-42.5213E-6	-442.088E-15	58.8413E-3	-19.1127E-3	-330.786E-15	68.1704E-3	-14.9202E-3
-47.5238E-6	-316.574E-15	68.5298E-3	-15.6074E-3	-329.269E-15	82.1470E-3	-16.6225E-3
-52.5263E-6	-341.904E-15	73.4993E-3	-5.05958E-3	-444.399E-15	90.6749E-3	-20.4183E-3
-57.5288E-6	-504.658E-15	70.2910E-3	-11.0335E-3	-530.903E-15	80.4278E-3	-21.6512E-3
-62.5313E-6	-532.656E-15	73.1434E-3	-10.6801E-3	-466.947E-15	76.1737E-3	-13.0447E-3
-67.5338E-6	-414.971E-15	76.0527E-3	-8.33488E-3	-455.071E-15	72.5449E-3	-999.338E-6
-72.5363E-6	-474.481E-15	73.6705E-3	-22.5415E-3	-577.569E-15	71.7341E-3	5.49078E-3
-77.5388E-6	-619.300E-15	67.0599E-3	-25.6672E-3	-596.185E-15	89.2159E-3	8.37605E-3
-82.5413E-6	-663.716E-15	69.8587E-3	-14.8243E-3	-591.537E-15	106.329E-3	10.9440E-3
-87.5438E-6	-604.268E-15	87.9842E-3	-15.4907E-3	-613.379E-15	106.445E-3	12.1429E-3
-92.5463E-6	-636.878E-15	101.324E-3	-16.4198E-3	-715.596E-15	107.300E-3	2.90179E-3
-97.5488E-6	-705.743E-15	103.420E-3	-12.9302E-3	-688.915E-15	118.915E-3	-18.4130E-3
-102.551E-6	-788.742E-15	102.655E-3	-18.4111E-3	-682.933E-15	119.823E-3	-21.6266E-3
-107.554E-6	-727.515E-15	113.953E-3	-16.5510E-3	-802.667E-15	108.626E-3	-8.48826E-3
-112.556E-6	-872.892E-15	125.777E-3	-947.458E-6	-891.141E-15	109.851E-3	-11.6296E-3
-117.559E-6	-924.379E-15	122.668E-3	-502.128E-6	-828.633E-15	123.552E-3	-21.5072E-3
-122.561E-6	-906.889E-15	123.844E-3	-10.9492E-3	-834.963E-15	142.914E-3	-18.7759E-3
-127.564E-6	-998.180E-15	132.660E-3	-8.20619E-3	-1.00185E-12	160.386E-3	-17.4168E-3
-132.566E-6	-1.08471E-12	134.531E-3	-8.37468E-3	-1.09657E-12	167.621E-3	-21.9361E-3
-137.569E-6	-1.12579E-12	137.655E-3	-17.5980E-3	-1.01839E-12	184.604E-3	-20.3006E-3
-142.571E-6	-1.07216E-12	150.441E-3	-17.6007E-3	-1.05401E-12	203.918E-3	-17.7222E-3
-147.574E-6	-1.16075E-12	163.084E-3	-22.0951E-3	-1.23118E-12	202.856E-3	-13.3616E-3
-152.576E-6	-1.32965E-12	168.195E-3	-36.7673E-3	-1.33991E-12	195.223E-3	328.430E-6
-157.579E-6	-1.34764E-12	169.532E-3	-37.0785E-3	-1.25452E-12	194.961E-3	260.350E-6
-162.581E-6	-1.28689E-12	175.665E-3	-30.9541E-3	-1.25197E-12	209.815E-3	-19.2454E-3
-167.584E-6	-1.35536E-12	188.756E-3	-24.5221E-3	-1.48723E-12	224.920E-3	-25.7740E-3
-172.586E-6	-1.53756E-12	196.135E-3	-11.1699E-3	-1.62947E-12	238.695E-3	-14.5760E-3
-177.589E-6	-1.65535E-12	184.968E-3	-5.48204E-3	-1.54301E-12	248.348E-3	-9.41814E-3
-182.591E-6	-1.54543E-12	180.903E-3	-9.85767E-3	-1.55350E-12	237.793E-3	-10.4998E-3
-187.594E-6	-1.62030E-12	192.822E-3	-8.52260E-3	-1.71242E-12	243.286E-3	-10.3788E-3
-192.596E-6	-1.82869E-12	193.461E-3	-8.77280E-3	-1.85275E-12	262.686E-3	-20.8882E-3
-197.599E-6	-1.95267E-12	197.541E-3	-24.5160E-3	-1.84048E-12	270.367E-3	-32.0889E-3
-202.601E-6	-1.92719E-12	216.985E-3	-31.8029E-3	-1.90290E-12	292.826E-3	-28.0043E-3
-207.604E-6	-1.97320E-12	223.724E-3	-18.4419E-3	-2.07757E-12	316.912E-3	-27.5725E-3
-212.606E-6	-2.21145E-12	229.965E-3	-7.92856E-3	-2.11541E-12	311.005E-3	-29.7467E-3
-217.609E-6	-2.31037E-12	251.891E-3	-12.7532E-3	-2.19974E-12	304.341E-3	-19.7019E-3
-222.611E-6	-2.38057E-12	273.547E-3	-18.3028E-3	-2.35369E-12	323.309E-3	-18.5695E-3
-227.614E-6	-2.44566E-12	290.908E-3	-22.4204E-3	-2.52383E-12	353.551E-3	-21.2803E-3
-232.616E-6	-2.66284E-12	309.674E-3	-28.6854E-3	-2.54202E-12	375.296E-3	-8.59275E-3
-237.619E-6	-2.72397E-12	329.917E-3	-25.0079E-3	-2.67959E-12	382.274E-3	-4.45919E-3
-242.621E-6	-2.79168E-12	343.672E-3	-18.4884E-3	-2.88121E-12	386.697E-3	-18.4007E-3
-247.624E-6	-2.98457E-12	355.873E-3	-20.1954E-3	-3.03048E-12	408.613E-3	-28.6732E-3
-252.626E-6	-3.10216E-12	370.521E-3	-19.2554E-3	-3.07468E-12	434.582E-3	-24.0133E-3
-257.629E-6	-3.15148E-12	385.997E-3	-22.9828E-3	-3.12151E-12	441.116E-3	-7.90623E-3
-262.631E-6	-3.20045E-12	398.109E-3	-29.4963E-3	-3.45315E-12	452.974E-3	-2.42738E-3
-267.634E-6	-3.46856E-12	400.824E-3	-18.0858E-3	-3.63673E-12	483.650E-3	-20.7085E-3
-272.636E-6	-3.62211E-12	407.682E-3	-13.3854E-3	-3.64847E-12	510.697E-3	-27.8609E-3
-277.639E-6	-3.64802E-12	433.256E-3	-18.4747E-3	-3.82322E-12	522.288E-3	-11.5658E-3
-282.641E-6	-3.79503E-12	458.265E-3	-9.19338E-3	-4.02810E-12	531.127E-3	-11.3541E-3
-287.644E-6	-4.07507E-12	467.071E-3	-2.89260E-3	-4.25966E-12	546.689E-3	-23.8762E-3
-292.646E-6	-4.24650E-12	481.304E-3	-14.0474E-3	-4.33890E-12	563.205E-3	-26.1821E-3
-297.649E-6	-4.31784E-12	495.171E-3	-19.9411E-3	-4.47915E-12	581.442E-3	-22.9875E-3
-302.651E-6	-4.47981E-12	506.428E-3	-12.3210E-3	-4.74463E-12	609.762E-3	-18.8804E-3
-307.654E-6	-4.83454E-12	533.384E-3	-3.33784E-3	-4.93396E-12	651.336E-3	-13.2975E-3
-312.656E-6	-5.12752E-12	558.128E-3	6.11881E-3	-5.08020E-12	684.454E-3	-14.1372E-3
-317.659E-6	-5.24304E-12	576.363E-3	6.96539E-3	-5.30457E-12	700.135E-3	-14.4715E-3
-322.661E-6	-5.40816E-12	602.487E-3	-6.54567E-3	-5.51932E-12	719.650E-3	-8.89069E-3
-327.664E-6	-5.76918E-12	622.932E-3	-15.9703E-3	-5.77190E-12	742.260E-3	-16.1163E-3
-332.666E-6	-6.10363E-12	639.819E-3	-14.3010E-3	-6.02347E-12	761.093E-3	-27.4685E-3
-337.669E-6	-6.28455E-12	671.033E-3	-17.4304E-3	-6.29522E-12	774.837E-3	-16.8698E-3
-342.671E-6	-6.41426E-12	694.847E-3	-19.1001E-3	-6.56769E-12	801.541E-3	5.32772E-3
-347.674E-6	-6.81084E-12	706.927E-3	-14.4535E-3	-6.81645E-12	842.819E-3	12.5900E-3
-352.676E-6	-7.16025E-12	735.741E-3	-10.6611E-3	-7.08814E-12	875.655E-3	8.32383E-3
-357.679E-6	-7.25787E-12	766.121E-3	1.70609E-3	-7.42114E-12	910.491E-3	3.40064E-3
-362.681E-6	-7.51288E-12	782.013E-3	7.01486E-3	-7.72120E-12	938.173E-3	-11.1680E-3
-367.684E-6	-7.86822E-12	807.695E-3	-6.41354E-3	-8.04085E-12	947.354E-3	-32.4678E-3
-372.686E-6	-8.19326E-12	839.220E-3	-16.3444E-3	-8.40621E-12	966.744E-3	-36.0006E-3
-377.689E-6	-8.44676E-12	860.741E-3	-17.6921E-3	-8.77295E-12	999.857E-3	-29.7678E-3
-382.691E-6	-8.71067E-12	886.801E-3	-14.3395E-3	-9.02608E-12	1.02258E+0	-23.6219E-3
-387.694E-6	-9.00907E-12	922.538E-3	-12.4713E-3	-9.26736E-12	1.03704E+0	-18.8770E-3
-392.696E-6	-9.36899E-12	939.840E-3	-18.2136E-3	-9.60301E-12	1.05298E+0	-25.2394E-3
-397.699E-6	-9.54074E-12	943.805E-3	-24.0690E-3	-9.92623E-12	1.06635E+0	-24.8774E-3
-402.701E-6	-9.99144E-12	974.209E-3	-22.4837E-3	-10.2106E-12	1.07531E+0	-13.7667E-3
-407.704E-6	-10.3562E-12	1.00460E+0	-15.5958E-3	-10.3378E-12	1.08942E+0	-12.7775E-3
-412.706E-6	-10.5929E-12	1.02105E+0	-12.0456E-3	-10.6676E-12	1.10796E+0	-11.7153E-3
-417.709E-6	-11.0114E-12	1.04800E+0	-12.7134E-3	-11.0417E-12	1.12733E+0	-14.2072E-3
-422.711E-6	-11.5363E-12	1.07089E+0	-11.4752E-3	-11.3550E-12	1.15459E+0	-34.5315E-3
-427.714E-6	-12.0114E-12	1.08545E+0	-16.8241E-3	-11.6408E-12	1.16900E+0	-35.0351E-3
-432.716E-6	-12.3062E-12	1.10655E+0	-21.0983E-3	-11.9654E-12	1.17740E+0	-4.72679E-3
-437.719E-6	-12.6842E-12	1.13098E+0	-7.84424E-3	-12.3967E-12	1.20490E+0	7.61060E-3
-442.721E-6	-13.2586E-12	1.15721E+0	-8.81603E-3	-12.8313E-12	1.22893E+0	-5.49682E-3
-447.724E-6	-13.8384E-12	1.19330E+0	-26.8528E-3	-13.2967E-12	1.25753E+0	-9.39698E-3
-452.726E-6	-14.1698E-12	1.21816E+0	-28.3805E-3	-13.8912E-12	1.30426E+0	-8.60368E-3
-457.729E-6	-14.4958E-12	1.23322E+0	-25.1326E-3	-14.3716E-12	1.33374E+0	-25.8583E-3
-462.731E-6	-15.0415E-12	1.26533E+0	-23.7234E-3	-14.8346E-12	1.34071E+0	-39.3171E-3
-467.734E-6	-15.5789E-12	1.29556E+0	-16.9384E-3	-15.4570E-12	1.35845E+0	-29.7732E-3
-472.736E-6	-15.8957E-12	1.31137E+0	-22.2262E-3	-16.1189E-12	1.38341E+0	-22.8715E-3
-477.739E-6	-16.0590E-12	1.33215E+0	-33.1867E-3	-16.5033E-12	1.40346E+0	-20.7516E-3
-482.741E-6	-16.4710E-12	1.34730E+0	-29.3238E-3	-16.8200E-12	1.40596E+0	-13.6622E-3
-487.744E-6	-16.8658E-12	1.34454E+0	-29.9572E-3	-17.2920E-12	1.38858E+0	-15.1308E-3
-492.746E-6	-17.1685E-12	1.34418E+0	-39.3794E-3	-17.7804E-12	1.38961E+0	-21.0816E-3
-497.749E-6	-17.4152E-12	1.35124E+0	-30.5312E-3	-18.0373E-12	1.42056E+0	-27.2351E-3
-502.751E-6	-17.7550E-12	1.34775E+0	-21.4826E-3	-18.3336E-12	1.43642E+0	-34.8643E-3
-507.754E-6	-18.1262E-12	1.34053E+0	-19.6209E-3	-18.6251E-12	1.42223E+0	-28.4254E-3
-512.756E-6	-18.4674E-12	1.33697E+0	-10.9891E-3	-19.1680E-12	1.41373E+0	-7.13378E-3
-517.759E-6	-18.8928E-12	1.33846E+0	-16.6523E-3	-19.3817E-12	1.41935E+0	2.97071E-3
-522.761E-6	-19.3720E-12	1.35010E+0	-31.3356E-3	-19.7104E-12	1.42570E+0	-10.0122E-3
-527.764E-6	-19.8860E-12	1.36226E+0	-24.7351E-3	-20.1680E-12	1.43704E+0	-23.0690E-3
-532.766E-6	-20.4567E-12	1.36860E+0	-13.6912E-3	-20.6429E-12	1.45054E+0	-23.6350E-3
-537.769E-6	-21.1590E-12	1.37979E+0	-16.7413E-3	-21.1779E-12	1.45181E+0	-22.0326E-3
-542.771E-6	-21.8853E-12	1.39860E+0	-15.1185E-3	-21.6053E-12	1.46153E+0	-16.2517E-3
-547.774E-6	-22.3474E-12	1.41425E+0	-15.8738E-3	-22.2313E-12	1.47356E+0	-13.9646E-3
-552.776E-6	-22.7949E-12	1.43631E+0	-24.8102E-3	-22.7231E-12	1.47142E+0	-23.2353E-3
-557.779E-6	-23.3642E-12	1.46654E+0	-25.4546E-3	-23.1432E-12	1.48107E+0	-30.3110E-3
-562.781E-6	-24.1103E-12	1.48700E+0	-21.4695E-3	-23.9423E-12	1.49433E+0	-36.4681E-3
-567.784E-6	-24.6584E-12	1.49413E+0	-25.0343E-3	-24.9028E-12	1.49184E+0	-39.9607E-3
-572.786E-6	-25.2023E-12	1.49046E+0	-18.8997E-3	-25.5526E-12	1.49005E+0	-23.8286E-3
-577.789E-6	-25.5721E-12	1.48426E+0	-14.2323E-3	-25.9572E-12	1.49035E+0	-4.10945E-3
-582.791E-6	-25.9843E-12	1.48191E+0	-24.3626E-3	-26.4875E-12	1.47806E+0	-2.68794E-3
-587.794E-6	-26.2149E-12	1.47710E+0	-16.0576E-3	-27.0289E-12	1.46692E+0	-5.83836E-3
-592.796E-6	-26.5176E-12	1.45659E+0	841.762E-6	-27.4624E-12	1.45919E+0	-630.371E-6
-597.799E-6	-26.7031E-12	1.43083E+0	-7.48156E-3	-27.6202E-12	1.43936E+0	16.2265E-6
-602.801E-6	-27.1933E-12	1.41470E+0	-19.4334E-3	-28.0424E-12	1.42646E+0	-6.95990E-3
-607.804E-6	-27.5285E-12	1.39883E+0	-7.87699E-3	-28.4521E-12	1.42165E+0	-10.0128E-3
-612.806E-6	-27.8653E-12	1.38951E+0	724.984E-6	-28.8670E-12	1.39829E+0	-9.90149E-3
-617.809E-6	-28.4977E-12	1.39404E+0	-5.31330E-3	-29.0544E-12	1.38482E+0	-1.32513E-3
-622.811E-6	-29.2304E-12	1.39704E+0	-9.57203E-3	-29.6345E-12	1.39379E+0	2.61331E-3
-627.814E-6	-29.9732E-12	1.38982E+0	-16.1621E-3	-30.2265E-12	1.38705E+0	-10.4074E-3
-632.816E-6	-30.6987E-12	1.39272E+0	-20.5029E-3	-30.5843E-12	1.38062E+0	-16.5806E-3
-637.819E-6	-31.4885E-12	1.40109E+0	-6.30695E-3	-30.9482E-12	1.39576E+0	-3.98968E-3
-642.821E-6	-32.3887E-12	1.39878E+0	8.41868E-3	-31.7180E-12	1.39225E+0	8.84576E-3
-647.824E-6	-33.1589E-12	1.39700E+0	-2.95161E-3	-32.4474E-12	1.36295E+0	-77.8286E-6
-652.826E-6	-33.8972E-12	1.40174E+0	-22.1292E-3	-32.9035E-12	1.34951E+0	-20.3556E-3
-657.829E-6	-34.4524E-12	1.41417E+0	-29.3308E-3	-33.2592E-12	1.34594E+0	-21.8137E-3
-662.831E-6	-35.0582E-12	1.42964E+0	-23.9775E-3	-33.9590E-12	1.32893E+0	-4.31372E-3
-667.834E-6	-35.5508E-12	1.43459E+0	-9.37761E-3	-34.5779E-12	1.31507E+0	1.66405E-3
-672.836E-6	-35.8824E-12	1.41973E+0	-6.82688E-3	-34.8687E-12	1.29771E+0	-15.1847E-3
-677.839E-6	-36.2365E-12	1.40270E+0	-19.3304E-3	-35.2342E-12	1.25578E+0	-30.4881E-3
-682.841E-6	-36.3383E-12	1.38758E+0	-20.9332E-3	-35.7208E-12	1.22487E+0	-24.2737E-3
-687.844E-6	-36.3472E-12	1.35534E+0	-8.34561E-3	-36.1598E-12	1.22190E+0	-5.89173E-3
-692.846E-6	-36.4681E-12	1.32328E+0	-2.34846E-3	-36.2610E-12	1.20926E+0	865.636E-6
-697.849E-6	-36.6875E-12	1.30264E+0	-1.48699E-3	-36.7241E-12	1.19067E+0	-4.03328E-3
-702.851E-6	-36.6297E-12	1.26857E+0	-5.46434E-3	-37.0526E-12	1.17892E+0	-6.29229E-3
-707.854E-6	-36.8144E-12	1.23262E+0	-19.3228E-3	-37.3940E-12	1.16123E+0	-7.87665E-3
-712.856E-6	-37.2649E-12	1.21523E+0	-29.7168E-3	-37.5796E-12	1.14842E+0	-5.89028E-3
-717.859E-6	-37.6801E-12	1.19297E+0	-26.8881E-3	-38.0514E-12	1.13668E+0	-13.3229E-3
-722.861E-6	-37.9312E-12	1.17090E+0	-9.58738E-3	-38.3906E-12	1.10918E+0	-19.8065E-3
-727.864E-6	-38.3423E-12	1.16231E+0	12.5198E-3	-38.5445E-12	1.08436E+0	1.98782E-3
-732.866E-6	-38.9279E-12	1.14455E+0	12.4493E-3	-38.8709E-12	1.07050E+0	9.87728E-3
-737.869E-6	-39.4280E-12	1.12424E+0	-9.00148E-3	-39.3772E-12	1.05623E+0	978.952E-6
-742.871E-6	-39.9322E-12	1.12132E+0	-20.4366E-3	-39.7320E-12	1.04652E+0	10.7841E-3
-747.874E-6	-40.3435E-12	1.11636E+0	-20.0990E-3	-40.1382E-12	1.03271E+0	5.79089E-3
-752.876E-6	-40.7782E-12	1.09938E+0	-29.0104E-3	-40.3630E-12	1.00862E+0	-21.8733E-3
-757.879E-6	-40.9869E-12	1.07914E+0	-39.9454E-3	-40.7886E-12	993.991E-3	-31.1013E-3
-762.881E-6	-41.4255E-12	1.05967E+0	-34.2461E-3	-41.4190E-12	992.140E-3	-29.8269E-3
-767.884E-6	-41.6759E-12	1.04833E+0	-20.0455E-3	-41.9686E-12	977.979E-3	-32.2827E-3
-772.886E-6	-41.9530E-12	1.04107E+0	-9.80227E-3	-42.2538E-12	949.994E-3	-18.9253E-3
-777.889E-6	-42.1187E-12	1.01609E+0	-7.53645E-3	-42.7110E-12	929.268E-3	742.074E-6
-782.891E-6	-42.1624E-12	979.757E-3	-17.5801E-3	-43.4001E-12	903.862E-3	4.95578E-3
-787.894E-6	-42.4785E-12	957.264E-3	-27.2059E-3	-43.8398E-12	879.510E-3	3.01120E-3
-792.896E-6	-42.4579E-12	937.113E-3	-13.6725E-3	-44.0409E-12	876.017E-3	-8.06185E-3
-797.899E-6	-42.4020E-12	907.332E-3	2.15488E-3	-44.5761E-12	863.965E-3	-23.0404E-3
-802.901E-6	-42.5602E-12	878.816E-3	-13.1853E-3	-45.0430E-12	829.683E-3	-34.0652E-3
-807.904E-6	-42.9494E-12	859.952E-3	-35.7113E-3	-45.2111E-12	800.069E-3	-42.7145E-3
-812.906E-6	-42.9357E-12	846.182E-3	-36.7615E-3	-45.2368E-12	777.815E-3	-38.9619E-3
-817.909E-6	-43.1098E-12	826.160E-3	-32.8876E-3	-45.4311E-12	749.735E-3	-19.1790E-3
-822.911E-6	-43.2705E-12	796.928E-3	-27.4553E-3	-45.4811E-12	721.105E-3	-157.802E-6
-827.914E-6	-43.5509E-12	773.518E-3	-22.1011E-3	-45.4127E-12	706.032E-3	-12.7225E-3
-832.916E-6	-43.7605E-12	763.469E-3	-17.6310E-3	-45.1701E-12	696.133E-3	-27.4415E-3
-837.919E-6	-44.0593E-12	750.039E-3	-8.35383E-3	-45.1924E-12	679.672E-3	-23.7208E-3
-842.921E-6	-44.5103E-12	727.300E-3	-10.7574E-3	-45.0668E-12	656.128E-3	-22.0019E-3
-847.924E-6	-44.8299E-12	708.847E-3	-27.6328E-3	-45.0030E-12	623.352E-3	-23.6446E-3
-852.926E-6	-45.2168E-12	681.204E-3	-35.1995E-3	-45.1419E-12	595.617E-3	-26.4056E-3
-857.929E-6	-45.6798E-12	643.038E-3	-31.1676E-3	-45.6457E-12	583.653E-3	-21.1183E-3
-862.931E-6	-46.3438E-12	630.434E-3	-23.4641E-3	-45.9151E-12	583.380E-3	-5.18570E-3
-867.934E-6	-46.9111E-12	640.435E-3	-8.02992E-3	-46.2801E-12	575.866E-3	-1.87728E-3
-872.936E-6	-47.3285E-12	635.573E-3	-3.02284E-3	-46.5432E-12	550.627E-3	-24.5960E-3
-877.939E-6	-47.8757E-12	613.125E-3	-16.2732E-3	-47.4914E-12	525.844E-3	-42.8358E-3
-882.941E-6	-48.2797E-12	595.304E-3	-20.2187E-3	-48.0929E-12	516.079E-3	-28.3566E-3
-887.944E-6	-48.7288E-12	586.467E-3	-16.0311E-3	-48.3811E-12	510.514E-3	-5.18744E-3
-892.946E-6	-48.8021E-12	574.094E-3	-8.90129E-3	-49.0384E-12	503.454E-3	-6.81425E-3
-897.949E-6	-49.1743E-12	560.984E-3	1.18026E-3	-49.7767E-12	510.659E-3	-16.2530E-3
-902.951E-6	-49.3964E-12	550.053E-3	-5.87382E-3	-49.9548E-12	512.801E-3	-23.3910E-3
-907.954E-6	-49.5052E-12	536.874E-3	-17.3648E-3	-50.0617E-12	475.914E-3	-22.4946E-3
-912.956E-6	-49.2751E-12	514.042E-3	-19.7627E-3	-50.1084E-12	442.497E-3	-10.4191E-3
-917.959E-6	-49.2634E-12	488.902E-3	-30.2316E-3	-50.0738E-12	438.523E-3	-8.10920E-3
-922.961E-6	-49.2735E-12	478.652E-3	-39.7534E-3	-49.8455E-12	420.944E-3	-5.34900E-3
-927.964E-6	-49.1723E-12	462.031E-3	-35.3883E-3	-49.3364E-12	395.556E-3	538.365E-6
-932.966E-6	-48.8355E-12	435.774E-3	-33.0021E-3	-49.1820E-12	379.618E-3	-11.0275E-3
-937.969E-6	-49.1147E-12	422.193E-3	-34.8338E-3	-48.8908E-12	368.953E-3	-27.6788E-3
-942.971E-6	-49.3148E-12	413.446E-3	-24.8054E-3	-48.8030E-12	365.853E-3	-22.4668E-3
-947.974E-6	-49.4394E-12	407.403E-3	-15.6701E-3	-48.5672E-12	366.837E-3	-9.67480E-3
-952.976E-6	-49.8099E-12	403.427E-3	-28.0997E-3	-48.4252E-12	362.398E-3	-12.7807E-3
-957.979E-6	-50.4303E-12	393.632E-3	-28.9027E-3	-48.8462E-12	353.729E-3	-14.5600E-3
-962.981E-6	-50.9165E-12	379.375E-3	-12.3720E-3	-49.1525E-12	352.862E-3	-13.3876E-3
-967.984E-6	-51.3415E-12	363.226E-3	-15.2224E-3	-49.4606E-12	342.279E-3	-25.5224E-3
-972.986E-6	-51.8401E-12	361.805E-3	-20.6072E-3	-50.1064E-12	324.184E-3	-28.7959E-3
-977.989E-6	-52.0860E-12	370.376E-3	-10.3571E-3	-50.7133E-12	321.734E-3	-19.3986E-3
-982.991E-6	-52.3471E-12	369.676E-3	-7.78314E-3	-51.1049E-12	327.099E-3	-26.0376E-3
-987.994E-6	-52.6046E-12	365.049E-3	-19.9325E-3	-51.5343E-12	330.956E-3	-32.2395E-3
-992.997E-6	-52.4721E-12	359.106E-3	-29.9750E-3	-52.0915E-12	332.214E-3	-15.1605E-3
-997.999E-6	-52.4383E-12	344.493E-3	-33.1466E-3	-52.1313E-12	316.325E-3	-4.28524E-3
-1.00300E-3	-52.2742E-12	327.250E-3	-22.0819E-3	-52.0684E-12	288.796E-3	-7.86543E-3
-1.00800E-3	-51.7942E-12	313.051E-3	-7.61149E-3	-51.8280E-12	285.034E-3	-15.0404E-3
-1.01301E-3	-51.5368E-12	301.900E-3	-15.2163E-3	-51.9773E-12	303.768E-3	-24.7386E-3
-1.01801E-3	-50.9811E-12	305.835E-3	-23.1807E-3	-51.6624E-12	304.731E-3	-24.8666E-3
-1.02301E-3	-50.5313E-12	310.253E-3	-19.2193E-3	-51.1534E-12	296.333E-3	-17.2588E-3
-1.02801E-3	-50.1286E-12	284.630E-3	-17.7231E-3	-50.7417E-12	293.894E-3	-14.9259E-3
-1.03302E-3	-50.1050E-12	267.746E-3	-20.1226E-3	-50.7736E-12	281.590E-3	-9.23237E-3
-1.03802E-3	-50.0260E-12	281.467E-3	-25.6105E-3	-50.5213E-12	269.507E-3	-3.29578E-3
-1.04302E-3	-50.2095E-12	282.789E-3	-24.8364E-3	-50.4105E-12	266.495E-3	-12.4921E-3
-1.04802E-3	-50.4266E-12	278.844E-3	-20.4430E-3	-50.3511E-12	260.412E-3	-24.9968E-3
-1.05303E-3	-50.8522E-12	285.921E-3	-19.2780E-3	-50.5864E-12	258.799E-3	-32.8525E-3
-1.05803E-3	-51.3825E-12	288.102E-3	-13.0367E-3	-50.8252E-12	274.898E-3	-43.4001E-3
-1.06303E-3	-52.0359E-12	295.914E-3	-18.0765E-3	-51.4104E-12	296.696E-3	-45.1747E-3
-1.06803E-3	-52.3074E-12	304.216E-3	-28.7242E-3	-51.8305E-12	302.194E-3	-23.9771E-3
-1.07304E-3	-52.8312E-12	299.485E-3	-22.3775E-3	-52.2273E-12	295.816E-3	-15.4067E-3
-1.07804E-3	-53.2370E-12	299.336E-3	-19.0343E-3	-52.8375E-12	301.546E-3	-26.2153E-3
-1.08304E-3	-53.6784E-12	304.020E-3	-15.5851E-3	-53.5549E-12	315.308E-3	-19.2356E-3
-1.08804E-3	-53.6141E-12	297.689E-3	-7.85938E-3	-53.7640E-12	329.012E-3	-3.53073E-3
-1.09305E-3	-53.7041E-12	287.761E-3	-12.7976E-3	-54.2649E-12	337.455E-3	-1.30157E-3
-1.09805E-3	-53.6185E-12	289.357E-3	-11.5113E-3	-54.3895E-12	334.928E-3	-3.03189E-3
-1.10305E-3	-53.5049E-12	307.793E-3	-1.44213E-3	-54.3627E-12	329.138E-3	-4.47104E-3
-1.10805E-3	-52.9763E-12	323.405E-3	-5.74576E-3	-54.5244E-12	320.236E-3	-4.52518E-3
-1.11306E-3	-52.6959E-12	324.006E-3	-16.3927E-3	-54.2218E-12	324.654E-3	-1.48882E-3
-1.11806E-3	-52.3615E-12	322.866E-3	-20.2369E-3	-54.2109E-12	349.948E-3	-1.20284E-3
-1.12306E-3	-51.8098E-12	326.562E-3	-13.9105E-3	-53.7168E-12	362.731E-3	-5.06281E-3
-1.12806E-3	-51.5907E-12	329.058E-3	-1.40227E-3	-53.7124E-12	361.028E-3	-8.59202E-3
-1.13307E-3	-51.5417E-12	332.109E-3	1.42242E-3	-53.5368E-12	358.126E-3	-11.9931E-3
-1.13807E-3	-51.6717E-12	336.751E-3	-12.0087E-3	-53.4041E-12	350.659E-3	-23.2279E-3
-1.14307E-3	-51.9251E-12	335.826E-3	-31.2081E-3	-53.2153E-12	360.720E-3	-32.0673E-3
-1.14807E-3	-52.1783E-12	346.697E-3	-34.8298E-3	-53.5219E-12	395.215E-3	-30.2774E-3
-1.15308E-3	-52.9552E-12	367.164E-3	-29.3350E-3	-53.4809E-12	419.594E-3	-36.7534E-3
-1.15808E-3	-53.4680E-12	377.825E-3	-27.6725E-3	-53.5777E-12	419.038E-3	-43.8510E-3
-1.16308E-3	-53.8221E-12	378.049E-3	-23.4083E-3	-53.9375E-12	419.988E-3	-27.9229E-3
-1.16808E-3	-54.4851E-12	374.550E-3	-27.4824E-3	-54.4347E-12	435.128E-3	-11.8320E-3
-1.17309E-3	-55.4026E-12	383.381E-3	-28.8371E-3	-54.5598E-12	443.003E-3	-9.64412E-3
-1.17809E-3	-55.6000E-12	402.464E-3	-15.3037E-3	-54.9358E-12	444.270E-3	-4.15586E-3
-1.18309E-3	-55.8334E-12	414.533E-3	-16.6862E-3	-55.0138E-12	457.333E-3	-5.24413E-3
-1.18809E-3	-56.2391E-12	429.058E-3	-29.6065E-3	-55.4732E-12	470.460E-3	-11.8403E-3
-1.19310E-3	-56.6143E-12	452.682E-3	-27.7311E-3	-55.8170E-12	488.282E-3	-10.0177E-3
-1.19810E-3	-56.5562E-12	463.182E-3	-26.4524E-3	-55.9106E-12	514.039E-3	-4.46926E-3
-1.20310E-3	-56.1655E-12	470.230E-3	-35.1789E-3	-56.0546E-12	515.308E-3	3.48505E-3
-1.20810E-3	-56.3899E-12	485.242E-3	-32.6723E-3	-56.6807E-12	512.910E-3	5.20247E-3
-1.21311E-3	-56.5021E-12	485.510E-3	-25.4527E-3	-56.9634E-12	527.118E-3	-4.01746E-3
-1.21811E-3	-56.2569E-12	482.172E-3	-19.8601E-3	-57.0246E-12	542.359E-3	-19.2214E-3
-1.22311E-3	-56.2175E-12	491.844E-3	-8.63627E-3	-57.2192E-12	553.395E-3	-27.0578E-3
-1.22811E-3	-56.4241E-12	503.811E-3	-3.12835E-3	-57.7990E-12	571.295E-3	-21.9438E-3
-1.23312E-3	-56.6043E-12	518.355E-3	-10.1798E-3	-57.6813E-12	595.910E-3	-20.3669E-3
-1.23812E-3	-56.6892E-12	537.875E-3	-7.93975E-3	-57.6717E-12	611.309E-3	-11.7050E-3
-1.24312E-3	-56.9264E-12	551.316E-3	6.30745E-3	-57.9637E-12	616.237E-3	-528.983E-6
-1.24812E-3	-57.4487E-12	566.747E-3	1.53141E-3	-57.8888E-12	615.467E-3	-6.66330E-3
-1.25313E-3	-57.6474E-12	591.570E-3	-14.0549E-3	-57.4413E-12	623.513E-3	-21.8556E-3
-1.25813E-3	-58.0215E-12	603.542E-3	-15.2584E-3	-57.4435E-12	649.138E-3	-38.9743E-3
-1.26313E-3	-58.6282E-12	605.518E-3	-20.4530E-3	-57.4625E-12	665.298E-3	-35.3692E-3
-1.26813E-3	-59.0461E-12	609.660E-3	-29.0797E-3	-57.3442E-12	660.003E-3	-20.4720E-3
-1.27314E-3	-59.3976E-12	620.384E-3	-14.2431E-3	-57.3065E-12	658.770E-3	-24.9401E-3
-1.27814E-3	-59.9659E-12	649.278E-3	-3.42332E-3	-57.1879E-12	674.847E-3	-27.7158E-3
-1.28314E-3	-60.3406E-12	676.268E-3	-10.0815E-3	-57.5683E-12	698.003E-3	-17.7750E-3
-1.28814E-3	-60.4601E-12	688.822E-3	-10.4128E-3	-57.8927E-12	717.497E-3	-15.4963E-3
-1.29315E-3	-60.8645E-12	703.148E-3	-10.5654E-3	-58.3086E-12	735.147E-3	-18.2775E-3
-1.29815E-3	-60.8123E-12	729.435E-3	-9.78815E-3	-58.5435E-12	756.968E-3	-12.1495E-3
-1.30315E-3	-61.0062E-12	751.629E-3	-3.19261E-3	-59.5577E-12	781.831E-3	-5.60423E-3
-1.30815E-3	-61.2154E-12	753.699E-3	-4.92410E-3	-60.1208E-12	800.500E-3	-2.92920E-3
-1.31316E-3	-61.3545E-12	747.129E-3	-15.2329E-3	-60.5936E-12	818.968E-3	352.199E-6
-1.31816E-3	-61.1017E-12	751.662E-3	-9.84380E-3	-61.5634E-12	840.949E-3	1.95759E-3
-1.32316E-3	-61.1797E-12	767.165E-3	4.15766E-3	-62.4461E-12	852.379E-3	-2.52968E-3
-1.32816E-3	-61.0755E-12	779.641E-3	-2.27675E-3	-62.4374E-12	858.784E-3	-18.5171E-3
-1.33317E-3	-60.8535E-12	792.542E-3	-20.6712E-3	-62.8346E-12	865.599E-3	-31.8015E-3
-1.33817E-3	-60.5018E-12	802.952E-3	-18.6657E-3	-63.6097E-12	862.102E-3	-28.4955E-3
-1.34317E-3	-60.7860E-12	808.774E-3	-8.26790E-3	-63.3301E-12	848.558E-3	-13.5871E-3
-1.34817E-3	-60.6965E-12	813.221E-3	-18.5764E-3	-62.8873E-12	841.447E-3	-7.30123E-3
-1.35318E-3	-60.6054E-12	816.291E-3	-29.1025E-3	-62.5970E-12	849.506E-3	-18.1941E-3
-1.35818E-3	-60.5699E-12	817.993E-3	-18.6167E-3	-62.4957E-12	856.564E-3	-20.4370E-3
-1.36318E-3	-61.0240E-12	819.810E-3	-3.25831E-3	-62.2326E-12	860.185E-3	-15.5987E-3
-1.36818E-3	-61.3996E-12	825.051E-3	1.13547E-3	-61.9958E-12	873.894E-3	-13.4361E-3
-1.37319E-3	-61.6169E-12	840.469E-3	1.22151E-3	-61.8332E-12	898.394E-3	6.83353E-3
-1.37819E-3	-61.9452E-12	865.977E-3	1.83055E-3	-62.3798E-12	913.289E-3	22.3472E-3
-1.38319E-3	-62.8201E-12	879.096E-3	3.67371E-3	-62.7828E-12	915.471E-3	1.58145E-3
-1.38819E-3	-63.5371E-12	881.431E-3	2.85996E-3	-63.2118E-12	929.904E-3	-22.4240E-3
-1.39320E-3	-64.2674E-12	894.502E-3	2.37676E-3	-63.8011E-12	960.420E-3	-20.6332E-3
-1.39820E-3	-64.9815E-12	911.604E-3	3.35789E-3	-64.8782E-12	986.893E-3	-11.5585E-3
-1.40320E-3	-65.9015E-12	924.977E-3	-996.346E-6	-66.1305E-12	990.961E-3	-13.4858E-3
-1.40820E-3	-66.6419E-12	936.252E-3	5.24452E-3	-66.8593E-12	981.640E-3	-19.5730E-3
-1.41321E-3	-67.1889E-12	939.146E-3	12.9621E-3	-67.7732E-12	985.043E-3	-19.8949E-3
-1.41821E-3	-67.3631E-12	937.053E-3	502.677E-6	-68.8140E-12	1.00612E+0	-9.34140E-3
-1.42321E-3	-67.6044E-12	949.314E-3	-13.6348E-3	-69.7131E-12	1.02148E+0	-610.430E-6
-1.42821E-3	-67.5764E-12	965.939E-3	-18.9599E-3	-69.9064E-12	1.01682E+0	-5.24615E-3
-1.43322E-3	-67.3087E-12	967.275E-3	-23.7408E-3	-70.3492E-12	995.443E-3	-7.59882E-3
-1.43822E-3	-67.2119E-12	960.018E-3	-30.7108E-3	-70.4592E-12	983.866E-3	2.83999E-3
-1.44322E-3	-67.0672E-12	954.835E-3	-34.2864E-3	-69.9641E-12	989.114E-3	528.320E-6
-1.44822E-3	-66.6743E-12	954.709E-3	-31.7076E-3	-69.4990E-12	982.634E-3	-22.3400E-3
-1.45323E-3	-66.3075E-12	945.136E-3	-17.8553E-3	-69.1700E-12	967.514E-3	-26.5982E-3
-1.45823E-3	-66.6786E-12	940.378E-3	3.20562E-3	-68.7763E-12	964.482E-3	-23.9004E-3
-1.46323E-3	-67.3487E-12	947.817E-3	3.44375E-3	-68.3043E-12	970.300E-3	-31.0517E-3
-1.46823E-3	-67.5738E-12	949.172E-3	-8.16815E-3	-67.9673E-12	975.212E-3	-18.3845E-3
-1.47324E-3	-68.0687E-12	953.917E-3	-14.1425E-3	-68.0019E-12	974.892E-3	-5.98936E-3
-1.47824E-3	-69.3149E-12	964.423E-3	-24.6015E-3	-68.4150E-12	970.597E-3	-11.5925E-3
-1.48324E-3	-70.4744E-12	968.633E-3	-27.3913E-3	-68.7589E-12	980.765E-3	-15.8674E-3
-1.48824E-3	-71.5753E-12	973.411E-3	-17.3735E-3	-69.0751E-12	1.00613E+0	-13.4774E-3
-1.49325E-3	-72.6117E-12	989.549E-3	-15.5928E-3	-70.1934E-12	1.01928E+0	-7.67996E-3
-1.49825E-3	-74.0105E-12	1.00249E+0	-26.9512E-3	-71.1121E-12	1.01595E+0	-10.7649E-3
-1.50325E-3	-75.2774E-12	1.00757E+0	-29.8619E-3	-72.0122E-12	1.00798E+0	-20.9064E-3
-1.50825E-3	-76.0529E-12	1.01893E+0	-29.8473E-3	-72.8445E-12	1.00379E+0	-29.0418E-3
-1.51326E-3	-76.4815E-12	1.03167E+0	-40.6737E-3	-74.1408E-12	1.01041E+0	-25.3069E-3
-1.51826E-3	-76.9711E-12	1.04375E+0	-39.4860E-3	-74.8691E-12	1.02166E+0	-10.0460E-3
-1.52326E-3	-77.1441E-12	1.05230E+0	-28.3263E-3	-75.5591E-12	1.02018E+0	-3.64172E-3
-1.52826E-3	-76.5574E-12	1.05677E+0	-31.4298E-3	-75.8913E-12	1.01133E+0	-205.985E-6
-1.53327E-3	-76.1392E-12	1.06446E+0	-23.6172E-3	-76.2902E-12	1.00674E+0	-3.39260E-3
-1.53827E-3	-75.7049E-12	1.05770E+0	6.43804E-3	-76.2635E-12	1.00042E+0	-15.4129E-3
-1.54327E-3	-75.0022E-12	1.02699E+0	17.0801E-3	-76.0025E-12	988.463E-3	-21.0432E-3
-1.54827E-3	-73.9397E-12	1.00626E+0	-4.54662E-3	-75.3991E-12	970.592E-3	-23.9767E-3
-1.55328E-3	-73.2238E-12	1.00321E+0	-29.6394E-3	-75.3109E-12	950.994E-3	-21.7114E-3
-1.55828E-3	-72.9970E-12	989.184E-3	-41.8174E-3	-75.1357E-12	945.037E-3	-16.2709E-3
-1.56328E-3	-73.2163E-12	967.830E-3	-50.1165E-3	-74.2691E-12	953.925E-3	-17.1032E-3
-1.56828E-3	-72.9909E-12	959.426E-3	-48.7489E-3	-74.0382E-12	955.216E-3	-21.7343E-3
-1.57329E-3	-73.7130E-12	960.501E-3	-41.1636E-3	-74.3374E-12	944.911E-3	-14.0397E-3
-1.57829E-3	-74.8131E-12	961.789E-3	-35.4802E-3	-74.5266E-12	939.982E-3	335.719E-6
-1.58329E-3	-75.6681E-12	966.593E-3	-33.5699E-3	-74.2922E-12	948.721E-3	-949.428E-6
-1.58829E-3	-76.6190E-12	969.888E-3	-43.2171E-3	-74.7543E-12	962.380E-3	-2.54536E-3
-1.59330E-3	-77.9662E-12	968.177E-3	-41.7877E-3	-75.8906E-12	965.465E-3	-3.63551E-3
-1.59830E-3	-79.1161E-12	968.478E-3	-21.5828E-3	-76.6316E-12	957.515E-3	-22.6929E-3
-1.60330E-3	-79.7441E-12	970.297E-3	-6.87044E-3	-77.1723E-12	959.061E-3	-39.6748E-3
-1.60830E-3	-80.6149E-12	973.729E-3	-4.58384E-3	-78.0824E-12	964.083E-3	-34.8757E-3
-1.61331E-3	-80.9721E-12	991.590E-3	-892.892E-6	-79.0278E-12	958.401E-3	-22.2724E-3
-1.61831E-3	-81.3205E-12	1.00905E+0	252.049E-6	-79.5779E-12	951.149E-3	-19.8606E-3
-1.62331E-3	-80.9397E-12	1.00678E+0	-4.42909E-3	-79.7902E-12	960.281E-3	-18.0450E-3
-1.62831E-3	-80.7343E-12	995.851E-3	-11.7623E-3	-80.6086E-12	972.006E-3	-7.92187E-3
-1.63332E-3	-80.4900E-12	979.635E-3	-20.9696E-3	-80.9389E-12	966.023E-3	-9.00211E-3
-1.63832E-3	-79.9315E-12	960.555E-3	-6.67648E-3	-81.2122E-12	959.556E-3	-25.9761E-3
-1.64332E-3	-79.3356E-12	945.375E-3	16.4018E-3	-81.2540E-12	954.763E-3	-35.9277E-3
-1.64832E-3	-78.5814E-12	933.384E-3	5.61002E-3	-81.9757E-12	949.948E-3	-31.4519E-3
-1.65333E-3	-78.3731E-12	919.212E-3	-20.3722E-3	-81.9871E-12	937.990E-3	-23.9914E-3
-1.65833E-3	-78.2217E-12	906.304E-3	-28.1496E-3	-82.0206E-12	920.526E-3	-21.3011E-3
-1.66333E-3	-78.2146E-12	892.748E-3	-23.0959E-3	-82.1674E-12	921.714E-3	-27.0778E-3
-1.66833E-3	-78.5971E-12	879.037E-3	-7.43715E-3	-82.8994E-12	926.476E-3	-26.7160E-3
-1.67334E-3	-79.5703E-12	875.468E-3	1.36712E-3	-82.9807E-12	910.230E-3	-11.1721E-3
-1.67834E-3	-80.2363E-12	877.984E-3	-18.6382E-3	-82.9870E-12	895.125E-3	-3.05603E-3
-1.68334E-3	-81.0577E-12	879.800E-3	-35.6522E-3	-83.1583E-12	895.255E-3	849.828E-6
-1.68834E-3	-81.9419E-12	880.400E-3	-30.9590E-3	-83.6616E-12	897.355E-3	3.16192E-3
-1.69335E-3	-83.3067E-12	878.859E-3	-20.4830E-3	-83.5350E-12	903.354E-3	-13.2086E-3
-1.69835E-3	-84.1266E-12	876.289E-3	-17.6356E-3	-83.6325E-12	909.563E-3	-16.5490E-3
-1.70335E-3	-84.9446E-12	876.131E-3	-22.5092E-3	-84.0634E-12	902.704E-3	-11.6237E-3
-1.70835E-3	-85.9865E-12	883.932E-3	-33.0422E-3	-84.9087E-12	887.445E-3	-29.8287E-3
-1.71336E-3	-86.8728E-12	900.871E-3	-38.5351E-3	-85.1941E-12	881.874E-3	-38.6186E-3
-1.71836E-3	-87.5816E-12	916.859E-3	-23.0010E-3	-85.5511E-12	877.468E-3	-29.0737E-3
-1.72336E-3	-87.7662E-12	915.213E-3	2.01613E-3	-86.1297E-12	865.879E-3	-16.4057E-3
-1.72836E-3	-88.1415E-12	905.417E-3	12.5133E-3	-87.4028E-12	863.871E-3	-5.59494E-3
-1.73337E-3	-88.7950E-12	902.039E-3	-6.01614E-3	-88.1340E-12	889.032E-3	-20.5882E-3
-1.73837E-3	-88.3909E-12	907.411E-3	-22.0953E-3	-88.8861E-12	920.830E-3	-43.8845E-3
-1.74337E-3	-87.7544E-12	916.206E-3	-10.9914E-3	-89.9006E-12	911.905E-3	-38.2431E-3
-1.74837E-3	-87.4179E-12	906.842E-3	-7.08406E-3	-90.5422E-12	882.945E-3	-18.3951E-3
-1.75338E-3	-87.5375E-12	889.937E-3	-25.6357E-3	-90.8775E-12	863.128E-3	-15.0806E-3
-1.75838E-3	-87.2456E-12	891.551E-3	-33.7938E-3	-91.0326E-12	852.248E-3	-22.2766E-3
-1.76338E-3	-87.2792E-12	897.983E-3	-27.1190E-3	-91.3796E-12	863.367E-3	-22.8832E-3
-1.76838E-3	-87.2597E-12	883.897E-3	-23.9224E-3	-91.0865E-12	873.890E-3	-23.1097E-3
-1.77339E-3	-87.5774E-12	857.765E-3	-28.7082E-3	-91.0483E-12	858.346E-3	-21.3181E-3
-1.77839E-3	-87.5269E-12	846.239E-3	-33.4253E-3	-90.5064E-12	837.068E-3	-10.2159E-3
-1.78339E-3	-88.0826E-12	846.044E-3	-30.9280E-3	-90.2641E-12	835.073E-3	-7.67950E-3
-1.78839E-3	-88.3202E-12	836.757E-3	-23.1844E-3	-89.8006E-12	848.830E-3	-22.0499E-3
-1.79340E-3	-88.7225E-12	831.774E-3	-13.3622E-3	-89.4019E-12	846.693E-3	-31.3306E-3
-1.79840E-3	-89.2993E-12	834.103E-3	-12.2352E-3	-88.8795E-12	828.869E-3	-20.0812E-3
-1.80340E-3	-90.1716E-12	820.470E-3	-14.9516E-3	-88.9357E-12	821.200E-3	-5.05756E-3
-1.80840E-3	-91.1366E-12	815.621E-3	-10.9429E-3	-89.1028E-12	816.243E-3	3.59153E-3
-1.81341E-3	-92.1546E-12	830.562E-3	-12.3916E-3	-88.9728E-12	815.572E-3	183.368E-6
-1.81841E-3	-93.1469E-12	829.448E-3	-15.6581E-3	-89.5871E-12	820.282E-3	-7.56669E-3
-1.82341E-3	-94.2446E-12	827.702E-3	-19.2613E-3	-90.7321E-12	826.818E-3	-5.01508E-3
-1.82841E-3	-95.1095E-12	840.216E-3	-28.0962E-3	-91.3928E-12	845.813E-3	-4.96065E-3
-1.83342E-3	-95.3322E-12	846.231E-3	-30.4427E-3	-92.7803E-12	857.393E-3	-9.62208E-3
-1.83842E-3	-95.7749E-12	841.953E-3	-28.9552E-3	-93.7893E-12	850.291E-3	-6.30387E-3
-1.84342E-3	-96.1853E-12	844.446E-3	-18.1473E-3	-95.3214E-12	840.716E-3	4.64226E-3
-1.84842E-3	-96.6799E-12	852.055E-3	-4.03264E-3	-96.0794E-12	835.465E-3	13.6683E-3
-1.85343E-3	-95.6988E-12	854.002E-3	784.197E-6	-96.2726E-12	826.854E-3	19.1146E-3
-1.85843E-3	-95.3657E-12	854.730E-3	1.49693E-3	-96.5937E-12	813.462E-3	12.9177E-3
-1.86343E-3	-94.7088E-12	848.325E-3	-6.33550E-3	-97.0309E-12	806.528E-3	-3.39911E-3
-1.86843E-3	-94.2571E-12	830.062E-3	-4.39219E-3	-96.4959E-12	796.223E-3	-18.4495E-3
-1.87344E-3	-92.9424E-12	818.932E-3	1.14478E-3	-95.4638E-12	786.181E-3	-27.8499E-3
-1.87844E-3	-91.7406E-12	811.874E-3	-16.1517E-3	-94.7448E-12	789.342E-3	-25.3578E-3
-1.88344E-3	-91.3730E-12	789.058E-3	-29.1245E-3	-94.1173E-12	786.516E-3	-15.7428E-3
-1.88844E-3	-91.2792E-12	778.820E-3	-27.6136E-3	-93.0337E-12	773.456E-3	-14.7706E-3
-1.89345E-3	-90.8409E-12	779.158E-3	-28.3096E-3	-91.7609E-12	772.007E-3	-18.5906E-3
-1.89845E-3	-90.9281E-12	774.940E-3	-30.1470E-3	-91.4506E-12	772.902E-3	-15.5490E-3
-1.90345E-3	-91.8020E-12	774.038E-3	-32.4343E-3	-91.4361E-12	770.290E-3	-16.7830E-3
-1.90845E-3	-93.2656E-12	767.427E-3	-32.3515E-3	-91.4412E-12	785.958E-3	-21.6242E-3
-1.91346E-3	-94.3970E-12	766.663E-3	-32.7154E-3	-91.9673E-12	804.997E-3	-15.3062E-3
-1.91846E-3	-95.8044E-12	776.706E-3	-21.1644E-3	-93.5662E-12	808.667E-3	-8.66422E-3
-1.92346E-3	-97.4896E-12	783.480E-3	-8.72832E-3	-94.8408E-12	796.949E-3	-6.27141E-3
-1.92846E-3	-98.6752E-12	792.545E-3	-22.0198E-3	-96.1421E-12	784.528E-3	-8.08772E-3
-1.93347E-3	-100.004E-12	807.124E-3	-41.6000E-3	-97.6852E-12	789.823E-3	-26.1215E-3
-1.93847E-3	-101.023E-12	819.448E-3	-46.7964E-3	-99.1401E-12	809.992E-3	-43.9207E-3
-1.94347E-3	-102.118E-12	821.759E-3	-30.3888E-3	-100.528E-12	827.836E-3	-40.6203E-3
-1.94847E-3	-101.953E-12	810.896E-3	-5.74383E-3	-101.411E-12	823.066E-3	-37.2685E-3
-1.95348E-3	-101.441E-12	806.905E-3	1.99091E-3	-102.321E-12	811.151E-3	-37.2205E-3
-1.95848E-3	-100.728E-12	808.791E-3	-4.75158E-3	-102.958E-12	810.034E-3	-16.3251E-3
-1.96348E-3	-100.012E-12	803.969E-3	-7.25671E-3	-103.059E-12	806.967E-3	3.72252E-3
-1.96848E-3	-98.7060E-12	806.125E-3	-3.68267E-3	-102.213E-12	791.892E-3	4.96470E-3
-1.97349E-3	-97.2087E-12	802.913E-3	-3.13821E-3	-101.451E-12	777.486E-3	-410.086E-6
-1.97849E-3	-96.4248E-12	779.239E-3	2.08573E-3	-100.904E-12	771.546E-3	-13.0945E-3
-1.98349E-3	-95.7307E-12	761.885E-3	2.08046E-3	-100.014E-12	766.635E-3	-29.9246E-3
-1.98849E-3	-95.6455E-12	765.850E-3	-4.39601E-3	-98.7883E-12	767.599E-3	-36.2358E-3
-1.99350E-3	-95.2136E-12	767.151E-3	2.51816E-3	-98.7701E-12	768.216E-3	-30.2723E-3
-1.99850E-3	-95.8326E-12	763.893E-3	-9.27870E-3	-98.5391E-12	762.810E-3	-19.8670E-3
-2.00350E-3	-96.8710E-12	762.869E-3	-38.8640E-3	-98.4973E-12	760.947E-3	-17.8851E-3
-2.00850E-3	-98.0469E-12	756.474E-3	-34.8577E-3	-99.1789E-12	762.228E-3	-21.5244E-3
-2.01351E-3	-99.1411E-12	759.768E-3	-23.1657E-3	-100.320E-12	763.987E-3	-10.1043E-3
-2.01851E-3	-101.139E-12	757.070E-3	-34.1582E-3	-100.850E-12	770.384E-3	-5.67271E-3
-2.02351E-3	-103.050E-12	744.071E-3	-47.8156E-3	-102.444E-12	789.291E-3	-16.2341E-3
-2.02851E-3	-104.706E-12	757.225E-3	-45.5468E-3	-103.738E-12	804.470E-3	-10.7557E-3
-2.03352E-3	-106.368E-12	781.975E-3	-35.2217E-3	-104.582E-12	809.255E-3	-1.89701E-3
-2.03852E-3	-107.657E-12	795.963E-3	-38.3745E-3	-105.736E-12	819.425E-3	-2.05432E-3
-2.04352E-3	-108.264E-12	811.607E-3	-39.8083E-3	-106.837E-12	821.349E-3	-4.02058E-3
-2.04852E-3	-108.592E-12	818.790E-3	-24.1740E-3	-107.358E-12	807.097E-3	-12.8130E-3
-2.05353E-3	-108.489E-12	804.186E-3	-7.66366E-3	-107.497E-12	799.723E-3	-19.7024E-3
-2.05853E-3	-107.997E-12	786.233E-3	-1.28040E-3	-107.629E-12	800.533E-3	-10.2196E-3
-2.06353E-3	-107.389E-12	777.553E-3	2.04917E-3	-107.741E-12	794.301E-3	1.91833E-3
-2.06853E-3	-106.231E-12	772.943E-3	5.13713E-3	-107.304E-12	783.951E-3	-6.90887E-3
-2.07354E-3	-105.475E-12	772.999E-3	-3.96906E-3	-106.616E-12	772.449E-3	-25.1158E-3
-2.07854E-3	-104.646E-12	782.141E-3	-18.1204E-3	-105.816E-12	754.579E-3	-26.4646E-3
-2.08354E-3	-104.202E-12	787.239E-3	-21.1247E-3	-105.127E-12	751.056E-3	-16.0637E-3
-2.08854E-3	-103.695E-12	772.460E-3	-13.4282E-3	-104.925E-12	762.868E-3	-3.89261E-3
-2.09355E-3	-103.887E-12	744.465E-3	1.48174E-3	-105.200E-12	769.364E-3	10.9129E-3
-2.09855E-3	-104.283E-12	726.901E-3	-864.824E-6	-104.871E-12	779.663E-3	16.8531E-3
-2.10355E-3	-105.269E-12	718.219E-3	-22.6089E-3	-105.119E-12	775.600E-3	2.15110E-3
-2.10855E-3	-105.801E-12	719.568E-3	-21.6889E-3	-105.448E-12	747.786E-3	-17.2911E-3
-2.11356E-3	-107.248E-12	743.448E-3	-4.40947E-3	-106.150E-12	731.745E-3	-15.0946E-3
-2.11856E-3	-108.292E-12	752.626E-3	-8.81564E-3	-106.587E-12	738.871E-3	-7.25051E-3
-2.12356E-3	-109.527E-12	742.398E-3	-15.2139E-3	-106.745E-12	746.750E-3	-12.8093E-3
-2.12856E-3	-110.470E-12	762.953E-3	-11.8276E-3	-107.280E-12	747.102E-3	-12.3748E-3
-2.13357E-3	-111.553E-12	788.615E-3	-17.2438E-3	-108.133E-12	759.851E-3	-18.0192E-3
-2.13857E-3	-112.351E-12	782.503E-3	-26.0041E-3	-108.667E-12	763.159E-3	-37.0840E-3
-2.14357E-3	-111.982E-12	783.721E-3	-32.5165E-3	-108.254E-12	749.049E-3	-33.7040E-3
-2.14857E-3	-112.003E-12	792.217E-3	-33.6176E-3	-108.915E-12	750.757E-3	-13.6445E-3
-2.15358E-3	-112.154E-12	790.509E-3	-34.9314E-3	-109.418E-12	747.331E-3	-11.9454E-3
-2.15858E-3	-111.963E-12	778.746E-3	-31.4423E-3	-109.685E-12	732.327E-3	-24.5679E-3
-2.16358E-3	-110.720E-12	754.101E-3	-19.6614E-3	-110.054E-12	738.953E-3	-29.6801E-3
-2.16858E-3	-110.109E-12	735.813E-3	-20.8460E-3	-110.266E-12	752.450E-3	-40.9554E-3
-2.17359E-3	-109.538E-12	729.672E-3	-18.9156E-3	-110.470E-12	758.281E-3	-54.2128E-3
-2.17859E-3	-109.048E-12	728.256E-3	-10.5228E-3	-110.504E-12	758.131E-3	-46.2791E-3
-2.18359E-3	-108.159E-12	731.744E-3	-14.2661E-3	-110.347E-12	752.174E-3	-20.4762E-3
-2.18859E-3	-107.868E-12	742.780E-3	-19.2187E-3	-110.661E-12	747.686E-3	-1.84981E-3
-2.19360E-3	-107.695E-12	743.723E-3	-10.4754E-3	-110.636E-12	759.160E-3	-8.00573E-3
-2.19860E-3	-107.966E-12	742.082E-3	6.58156E-3	-109.806E-12	758.276E-3	-19.5961E-3
-2.20360E-3	-107.588E-12	755.074E-3	202.096E-6	-109.881E-12	715.958E-3	-20.4414E-3
-2.20860E-3	-107.510E-12	752.570E-3	-26.4752E-3	-109.929E-12	694.001E-3	-11.8042E-3
-2.21361E-3	-108.086E-12	723.192E-3	-50.8384E-3	-109.742E-12	702.093E-3	-22.2257E-3
-2.21861E-3	-109.207E-12	701.202E-3	-59.0840E-3	-109.545E-12	701.424E-3	-45.3318E-3
-2.22361E-3	-109.573E-12	706.447E-3	-45.3508E-3	-109.500E-12	713.575E-3	-29.3158E-3
-2.22861E-3	-110.588E-12	729.096E-3	-21.0348E-3	-109.616E-12	733.527E-3	-4.78457E-3
-2.23362E-3	-111.475E-12	745.142E-3	95.9558E-6	-109.642E-12	742.796E-3	-9.21627E-3
-2.23862E-3	-112.605E-12	736.096E-3	6.74704E-3	-110.344E-12	746.064E-3	-9.10003E-3
-2.24362E-3	-113.591E-12	726.317E-3	-9.60552E-3	-110.975E-12	735.547E-3	-4.09253E-3
-2.24862E-3	-114.059E-12	732.637E-3	-34.8580E-3	-111.849E-12	724.193E-3	1.52120E-3
-2.25363E-3	-114.998E-12	734.858E-3	-37.4149E-3	-112.734E-12	733.221E-3	-4.79728E-3
-2.25863E-3	-115.288E-12	737.666E-3	-15.8473E-3	-114.145E-12	745.232E-3	-32.0730E-3
-2.26363E-3	-115.611E-12	758.781E-3	2.08005E-3	-115.210E-12	752.469E-3	-42.0479E-3
-2.26863E-3	-115.322E-12	766.740E-3	-2.78400E-3	-116.411E-12	761.040E-3	-25.6706E-3
-2.27364E-3	-115.759E-12	750.998E-3	-18.4555E-3	-117.402E-12	761.099E-3	-10.5261E-3
-2.27864E-3	-115.370E-12	740.679E-3	-26.7238E-3	-118.331E-12	746.596E-3	-26.7921E-3
-2.28364E-3	-115.029E-12	731.660E-3	-19.0897E-3	-119.199E-12	737.701E-3	-50.7764E-3
-2.28864E-3	-114.551E-12	723.194E-3	-13.6676E-3	-118.830E-12	749.785E-3	-41.8808E-3
-2.29365E-3	-114.254E-12	719.077E-3	-16.5817E-3	-118.482E-12	753.558E-3	-26.5767E-3
-2.29865E-3	-114.039E-12	723.662E-3	-16.6427E-3	-117.808E-12	731.224E-3	-35.1712E-3
-2.30365E-3	-113.958E-12	730.954E-3	-29.9248E-3	-117.521E-12	706.059E-3	-51.7101E-3
-2.30865E-3	-113.974E-12	732.802E-3	-36.8341E-3	-116.666E-12	697.348E-3	-39.3152E-3
-2.31366E-3	-113.973E-12	744.793E-3	-20.3072E-3	-115.691E-12	694.486E-3	-9.31937E-3
-2.31866E-3	-114.928E-12	741.660E-3	-20.6142E-3	-115.111E-12	688.568E-3	-11.2731E-3
-2.32366E-3	-115.825E-12	715.778E-3	-35.3907E-3	-115.291E-12	694.284E-3	-31.3653E-3
-2.32866E-3	-116.437E-12	722.936E-3	-34.3560E-3	-115.127E-12	711.169E-3	-32.9106E-3
-2.33367E-3	-117.358E-12	753.407E-3	-31.9254E-3	-114.939E-12	715.056E-3	-24.0340E-3
-2.33867E-3	-118.578E-12	751.072E-3	-32.3326E-3	-115.686E-12	708.069E-3	-16.8546E-3
-2.34367E-3	-119.576E-12	732.539E-3	-28.9989E-3	-116.617E-12	718.451E-3	-1.95550E-3
-2.34867E-3	-120.965E-12	741.729E-3	-32.6955E-3	-118.148E-12	745.107E-3	196.708E-6
-2.35368E-3	-122.160E-12	755.321E-3	-35.1016E-3	-119.846E-12	760.824E-3	-17.9847E-3
-2.35868E-3	-122.845E-12	755.798E-3	-13.8630E-3	-121.080E-12	768.638E-3	-24.8762E-3
-2.36368E-3	-123.975E-12	745.340E-3	12.6926E-3	-122.646E-12	776.194E-3	-27.3859E-3
-2.36868E-3	-125.058E-12	736.580E-3	11.0072E-3	-124.652E-12	770.183E-3	-41.9922E-3
-2.37369E-3	-125.105E-12	753.780E-3	-1.75311E-3	-125.604E-12	761.952E-3	-44.2813E-3
-2.37869E-3	-124.130E-12	753.965E-3	-12.1896E-3	-125.677E-12	769.936E-3	-28.7879E-3
-2.38369E-3	-123.878E-12	737.205E-3	-23.4790E-3	-125.947E-12	766.195E-3	-22.6816E-3
-2.38869E-3	-123.124E-12	745.981E-3	-28.8165E-3	-126.421E-12	742.675E-3	-22.9349E-3
-2.39370E-3	-122.247E-12	753.082E-3	-34.6242E-3	-125.533E-12	744.208E-3	-21.1572E-3
-2.39870E-3	-120.483E-12	737.062E-3	-45.5015E-3	-124.418E-12	759.122E-3	-25.7068E-3
-2.40370E-3	-120.355E-12	725.085E-3	-42.8136E-3	-122.884E-12	743.771E-3	-35.4504E-3
-2.40870E-3	-119.532E-12	716.857E-3	-22.2306E-3	-121.796E-12	718.341E-3	-37.0247E-3
-2.41371E-3	-119.261E-12	704.776E-3	-16.9127E-3	-120.301E-12	709.188E-3	-31.7495E-3
-2.41871E-3	-118.974E-12	706.156E-3	-25.6393E-3	-119.337E-12	709.671E-3	-17.4153E-3
-2.42371E-3	-118.728E-12	720.668E-3	-28.0159E-3	-118.545E-12	712.121E-3	2.30389E-3
-2.42871E-3	-119.392E-12	728.631E-3	-21.2631E-3	-117.921E-12	717.650E-3	-2.88490E-3
-2.43372E-3	-119.968E-12	719.430E-3	-17.6097E-3	-118.075E-12	716.060E-3	-15.9435E-3
-2.43872E-3	-121.672E-12	700.578E-3	-33.0294E-3	-118.780E-12	723.916E-3	-825.623E-6
-2.44372E-3	-122.705E-12	694.959E-3	-49.6796E-3	-120.158E-12	736.296E-3	13.9399E-3
-2.44872E-3	-125.098E-12	710.923E-3	-49.9163E-3	-121.225E-12	718.444E-3	-1.49433E-3
-2.45373E-3	-125.908E-12	723.872E-3	-33.7142E-3	-122.620E-12	708.630E-3	-16.5535E-3
-2.45873E-3	-127.388E-12	731.187E-3	-17.8348E-3	-124.724E-12	718.704E-3	-14.2486E-3
-2.46373E-3	-127.862E-12	748.104E-3	-23.6325E-3	-125.653E-12	720.443E-3	-16.2104E-3
-2.46873E-3	-128.463E-12	762.287E-3	-35.8648E-3	-127.095E-12	726.627E-3	-17.2416E-3
-2.47374E-3	-127.952E-12	766.190E-3	-36.5196E-3	-128.393E-12	740.405E-3	-17.8026E-3
-2.47874E-3	-127.508E-12	759.964E-3	-22.3443E-3	-129.072E-12	735.803E-3	-13.0257E-3
-2.48374E-3	-126.360E-12	745.296E-3	-13.0545E-3	-128.970E-12	729.206E-3	-2.77965E-3
-2.48874E-3	-125.316E-12	724.599E-3	-21.7560E-3	-128.215E-12	736.982E-3	-10.7313E-3
-2.49375E-3	-124.016E-12	714.292E-3	-16.5647E-3	-127.601E-12	728.374E-3	-14.7558E-3
-2.49875E-3	-122.703E-12	720.040E-3	2.79337E-3	-126.586E-12	713.160E-3	-3.52010E-3
-2.50375E-3	-122.055E-12	718.574E-3	12.9636E-3	-125.984E-12	719.220E-3	8.41324E-3
-2.50875E-3	-121.163E-12	717.545E-3	14.1159E-3	-124.860E-12	730.521E-3	344.866E-6
-2.51376E-3	-120.505E-12	726.372E-3	9.76928E-3	-124.409E-12	722.903E-3	-16.3521E-3
-2.51876E-3	-120.739E-12	723.320E-3	-930.743E-6	-123.815E-12	708.668E-3	-4.47601E-3
-2.52376E-3	-121.390E-12	697.401E-3	-14.0590E-3	-123.815E-12	716.258E-3	16.6625E-3
-2.52876E-3	-122.072E-12	662.261E-3	-12.3557E-3	-123.904E-12	728.045E-3	18.5385E-3
-2.53377E-3	-123.980E-12	647.493E-3	-9.82139E-3	-124.343E-12	728.699E-3	-461.164E-6
-2.53877E-3	-125.744E-12	663.022E-3	-27.1330E-3	-125.385E-12	726.766E-3	-18.2716E-3
-2.54377E-3	-127.670E-12	683.034E-3	-34.1275E-3	-126.655E-12	720.737E-3	-30.8530E-3
-2.54877E-3	-129.487E-12	686.361E-3	-13.0690E-3	-127.731E-12	725.435E-3	-43.2518E-3
-2.55378E-3	-131.240E-12	683.629E-3	-5.91559E-3	-129.237E-12	738.733E-3	-29.6292E-3
-2.55878E-3	-132.324E-12	701.414E-3	-4.53502E-3	-130.935E-12	747.068E-3	-6.98213E-3
-2.56378E-3	-133.900E-12	732.112E-3	10.3599E-3	-131.914E-12	752.904E-3	-6.78199E-3
-2.56878E-3	-134.387E-12	738.184E-3	-8.13579E-3	-133.038E-12	758.077E-3	-29.0356E-3
-2.57379E-3	-133.980E-12	734.193E-3	-43.4544E-3	-134.236E-12	752.303E-3	-41.2761E-3
-2.57879E-3	-133.739E-12	740.649E-3	-45.3885E-3	-134.181E-12	740.851E-3	-18.8701E-3
-2.58379E-3	-133.055E-12	749.545E-3	-33.9160E-3	-133.743E-12	734.716E-3	-3.56842E-3
-2.58879E-3	-132.381E-12	758.254E-3	-43.5170E-3	-134.214E-12	727.573E-3	-12.6627E-3
-2.59380E-3	-130.618E-12	745.499E-3	-41.3066E-3	-134.462E-12	724.429E-3	-19.6741E-3
-2.59880E-3	-129.596E-12	706.418E-3	-20.2560E-3	-133.299E-12	731.692E-3	-35.3642E-3
-2.60380E-3	-128.966E-12	675.298E-3	-12.8898E-3	-132.612E-12	722.203E-3	-44.7574E-3
-2.60880E-3	-128.217E-12	669.686E-3	-13.0737E-3	-132.086E-12	700.996E-3	-22.6497E-3
-2.61381E-3	-127.649E-12	675.573E-3	-6.59123E-3	-131.663E-12	711.313E-3	4.45956E-3
-2.61881E-3	-127.931E-12	702.645E-3	-6.09530E-3	-130.887E-12	723.917E-3	4.56164E-3
-2.62381E-3	-128.485E-12	712.527E-3	-14.2888E-3	-130.598E-12	712.647E-3	-3.46754E-3
-2.62881E-3	-129.605E-12	673.779E-3	-1.22240E-3	-130.010E-12	704.877E-3	-12.0555E-3
-2.63382E-3	-131.141E-12	666.385E-3	7.86660E-3	-129.889E-12	708.280E-3	-46.5897E-3
-2.63882E-3	-132.674E-12	706.692E-3	-11.8718E-3	-129.528E-12	714.389E-3	-63.9066E-3
-2.64382E-3	-134.338E-12	730.666E-3	-29.2234E-3	-130.096E-12	719.606E-3	-37.3417E-3
-2.64882E-3	-136.124E-12	727.799E-3	-26.6409E-3	-130.651E-12	704.612E-3	-5.29664E-3
-2.65383E-3	-137.746E-12	717.576E-3	-6.59395E-3	-131.363E-12	690.992E-3	7.89518E-3
-2.65883E-3	-138.536E-12	707.340E-3	11.9291E-3	-132.087E-12	706.279E-3	10.5620E-3
-2.66383E-3	-139.511E-12	716.441E-3	11.1930E-3	-132.580E-12	701.638E-3	4.59260E-3
-2.66883E-3	-140.305E-12	728.969E-3	-2.24606E-3	-133.239E-12	678.570E-3	-5.70971E-3
-2.67384E-3	-140.358E-12	724.295E-3	-13.8695E-3	-133.909E-12	687.406E-3	-5.69818E-3
-2.67884E-3	-139.860E-12	736.413E-3	-15.0097E-3	-134.813E-12	711.009E-3	-13.5057E-3
-2.68384E-3	-138.971E-12	736.427E-3	-11.4054E-3	-135.033E-12	720.113E-3	-25.8426E-3
-2.68884E-3	-137.855E-12	702.155E-3	-23.0369E-3	-135.620E-12	720.899E-3	-24.6786E-3
-2.69385E-3	-136.872E-12	696.371E-3	-46.3234E-3	-136.364E-12	717.514E-3	-29.8068E-3
-2.69885E-3	-136.163E-12	719.325E-3	-34.6494E-3	-137.127E-12	711.699E-3	-44.4075E-3
-2.70385E-3	-134.529E-12	732.493E-3	-4.85198E-3	-137.290E-12	711.787E-3	-55.7001E-3
-2.70885E-3	-133.295E-12	732.656E-3	9.02363E-3	-137.414E-12	712.492E-3	-55.3614E-3
-2.71386E-3	-132.992E-12	733.752E-3	11.5332E-3	-137.379E-12	710.649E-3	-40.8511E-3
-2.71886E-3	-132.606E-12	721.412E-3	-10.0165E-3	-137.006E-12	714.591E-3	-25.3967E-3
-2.72386E-3	-132.060E-12	698.389E-3	-31.6241E-3	-136.510E-12	719.817E-3	-17.2017E-3
-2.72886E-3	-132.541E-12	691.772E-3	-21.1158E-3	-136.082E-12	716.313E-3	-25.9600E-3
-2.73387E-3	-133.132E-12	700.357E-3	5.46902E-3	-135.172E-12	721.863E-3	-26.3762E-3
-2.73887E-3	-133.503E-12	705.578E-3	3.80327E-3	-134.421E-12	725.826E-3	-8.45504E-3
-2.74387E-3	-134.134E-12	695.815E-3	-19.9752E-3	-134.498E-12	710.528E-3	-3.19035E-3
-2.74887E-3	-135.325E-12	690.654E-3	-35.7633E-3	-133.949E-12	702.892E-3	-43.5964E-6
-2.75388E-3	-136.592E-12	689.196E-3	-38.3532E-3	-133.998E-12	700.285E-3	6.18735E-3
-2.75888E-3	-137.759E-12	686.147E-3	-24.9967E-3	-133.957E-12	683.898E-3	-17.6656E-3
-2.76388E-3	-138.848E-12	699.583E-3	-3.00988E-3	-135.013E-12	665.176E-3	-47.4495E-3
-2.76888E-3	-139.906E-12	721.841E-3	10.5237E-3	-136.026E-12	668.899E-3	-27.7803E-3
-2.77389E-3	-140.981E-12	724.267E-3	-1.49701E-3	-136.792E-12	679.851E-3	8.29339E-3
-2.77889E-3	-141.361E-12	704.851E-3	-9.85808E-3	-137.726E-12	689.895E-3	7.22967E-3
-2.78389E-3	-141.241E-12	690.532E-3	1.72126E-3	-139.738E-12	699.736E-3	-15.2533E-3
-2.78889E-3	-141.139E-12	701.909E-3	-3.01920E-3	-141.829E-12	700.952E-3	-21.6701E-3
-2.79390E-3	-140.927E-12	717.180E-3	-21.1394E-3	-142.718E-12	722.663E-3	617.056E-6
-2.79890E-3	-140.386E-12	709.699E-3	-22.2389E-3	-143.540E-12	737.851E-3	14.4802E-3
-2.80390E-3	-139.654E-12	695.632E-3	-11.1109E-3	-145.222E-12	736.808E-3	8.24120E-3
-2.80890E-3	-139.328E-12	695.999E-3	4.74203E-3	-146.179E-12	755.647E-3	-750.993E-6
-2.81391E-3	-138.297E-12	704.055E-3	17.9984E-3	-146.361E-12	752.954E-3	-26.7996E-3
-2.81891E-3	-137.349E-12	704.315E-3	4.62159E-3	-145.941E-12	709.488E-3	-46.1955E-3
-2.82391E-3	-137.079E-12	677.301E-3	-18.6457E-3	-145.376E-12	691.013E-3	-45.3855E-3
-2.82891E-3	-136.967E-12	648.734E-3	-25.1569E-3	-144.007E-12	705.633E-3	-41.5417E-3
-2.83392E-3	-136.438E-12	671.723E-3	-12.9022E-3	-143.419E-12	685.421E-3	-40.2350E-3
-2.83892E-3	-136.617E-12	690.877E-3	3.40857E-3	-142.116E-12	654.396E-3	-32.7263E-3
-2.84392E-3	-137.401E-12	681.174E-3	2.27705E-3	-141.343E-12	678.593E-3	-17.8156E-3
-2.84892E-3	-138.773E-12	679.016E-3	972.019E-6	-140.083E-12	713.542E-3	-16.5636E-3
-2.85393E-3	-140.025E-12	668.811E-3	16.8117E-3	-140.458E-12	709.062E-3	-10.8577E-3
-2.85893E-3	-141.131E-12	668.190E-3	17.0356E-3	-140.587E-12	696.858E-3	7.53878E-3
-2.86393E-3	-142.749E-12	684.365E-3	-6.13718E-3	-141.559E-12	694.678E-3	18.5609E-3
-2.86893E-3	-144.743E-12	699.643E-3	-702.236E-6	-141.061E-12	688.024E-3	7.32588E-3
-2.87394E-3	-146.403E-12	715.769E-3	16.2156E-3	-142.470E-12	685.478E-3	-21.1182E-3
-2.87894E-3	-148.183E-12	729.479E-3	-3.45104E-3	-144.554E-12	683.448E-3	-33.9034E-3
-2.88394E-3	-149.581E-12	753.624E-3	-29.6416E-3	-146.366E-12	678.799E-3	-33.5013E-3
-2.88894E-3	-151.014E-12	765.346E-3	-30.5026E-3	-146.887E-12	708.413E-3	-30.8552E-3
-2.89395E-3	-151.499E-12	746.000E-3	-29.3124E-3	-147.963E-12	728.813E-3	-23.2431E-3
-2.89895E-3	-151.957E-12	743.104E-3	-39.3766E-3	-149.722E-12	704.753E-3	-25.5023E-3
-2.90395E-3	-151.809E-12	759.170E-3	-36.0825E-3	-150.236E-12	697.321E-3	-18.3292E-3
-2.90895E-3	-150.970E-12	765.849E-3	-33.6835E-3	-150.221E-12	705.442E-3	-16.7725E-3
-2.91396E-3	-149.388E-12	758.324E-3	-41.6475E-3	-150.137E-12	695.766E-3	-42.5201E-3
-2.91896E-3	-147.822E-12	751.274E-3	-33.3148E-3	-150.224E-12	690.253E-3	-37.9399E-3
-2.92396E-3	-146.994E-12	746.860E-3	-28.2433E-3	-149.471E-12	693.946E-3	-16.3491E-3
-2.92896E-3	-145.392E-12	735.925E-3	-40.8154E-3	-147.932E-12	684.246E-3	-4.42086E-3
-2.93397E-3	-144.272E-12	735.364E-3	-33.1315E-3	-146.388E-12	671.012E-3	10.3681E-3
-2.93897E-3	-143.879E-12	726.733E-3	-6.52371E-3	-144.846E-12	673.272E-3	5.08228E-3
-2.94397E-3	-143.759E-12	711.623E-3	5.09873E-3	-143.830E-12	661.714E-3	-23.4225E-3
-2.94897E-3	-144.188E-12	712.567E-3	1.02428E-3	-143.163E-12	643.704E-3	-44.6396E-3
-2.95398E-3	-145.307E-12	697.652E-3	4.45894E-3	-142.693E-12	674.963E-3	-39.6175E-3
-2.95898E-3	-146.301E-12	678.122E-3	6.79147E-3	-142.815E-12	718.770E-3	-35.0141E-3
-2.96398E-3	-147.648E-12	677.262E-3	-3.60074E-3	-144.021E-12	718.997E-3	-40.4265E-3
-2.96898E-3	-148.888E-12	670.267E-3	-18.2111E-3	-145.716E-12	705.855E-3	-32.6644E-3
-2.97399E-3	-151.474E-12	659.875E-3	-30.0404E-3	-146.272E-12	704.876E-3	-10.7837E-3
-2.97899E-3	-154.077E-12	665.917E-3	-23.1076E-3	-147.486E-12	715.566E-3	-4.91521E-3
-2.98399E-3	-155.618E-12	676.419E-3	-10.9916E-3	-149.206E-12	718.959E-3	-26.0925E-3
-2.98899E-3	-156.222E-12	695.016E-3	-13.6712E-3	-150.817E-12	706.310E-3	-33.2974E-3
-2.99400E-3	-157.466E-12	722.325E-3	-22.1301E-3	-151.624E-12	698.611E-3	-4.96059E-3
-2.99900E-3	-157.356E-12	732.072E-3	-36.3650E-3	-152.542E-12	709.405E-3	12.8550E-3
-3.00400E-3	-156.599E-12	741.349E-3	-51.0923E-3	-152.550E-12	718.750E-3	8.96782E-3
-3.00900E-3	-154.967E-12	761.314E-3	-43.4445E-3	-153.238E-12	721.218E-3	10.0152E-3
-3.01401E-3	-152.937E-12	750.005E-3	-21.2008E-3	-153.321E-12	720.267E-3	10.6659E-3
-3.01901E-3	-151.058E-12	728.190E-3	-14.4064E-3	-152.870E-12	696.550E-3	-4.92841E-3
-3.02401E-3	-149.106E-12	712.381E-3	-16.9715E-3	-151.343E-12	669.137E-3	-42.0544E-3
-3.02901E-3	-146.749E-12	680.025E-3	-2.81089E-3	-150.262E-12	660.869E-3	-60.8549E-3
-3.03402E-3	-144.749E-12	664.281E-3	6.53186E-3	-150.199E-12	671.436E-3	-41.2738E-3
-3.03902E-3	-143.569E-12	671.622E-3	-4.52148E-3	-149.214E-12	676.090E-3	-17.6105E-3
-3.04402E-3	-142.680E-12	666.248E-3	-7.71487E-3	-147.946E-12	684.386E-3	-4.52434E-3
-3.04902E-3	-142.730E-12	652.156E-3	272.104E-6	-147.243E-12	697.391E-3	-5.60302E-3
-3.05403E-3	-143.407E-12	645.700E-3	2.68154E-3	-147.850E-12	687.769E-3	-5.99302E-3
-3.05903E-3	-144.450E-12	646.268E-3	-5.67098E-3	-148.648E-12	673.161E-3	7.26836E-3
-3.06403E-3	-146.460E-12	659.334E-3	-14.2398E-3	-148.724E-12	659.550E-3	1.85575E-3
-3.06903E-3	-148.149E-12	680.159E-3	-16.4008E-3	-148.698E-12	673.615E-3	-10.2934E-3
-3.07404E-3	-151.146E-12	680.927E-3	-12.2536E-3	-150.228E-12	720.358E-3	-10.7415E-3
-3.07904E-3	-152.967E-12	668.158E-3	-16.4998E-3	-151.833E-12	747.099E-3	-21.3013E-3
-3.08404E-3	-155.578E-12	683.267E-3	-32.8375E-3	-152.233E-12	745.872E-3	-34.1041E-3
-3.08904E-3	-156.826E-12	708.567E-3	-29.7191E-3	-152.977E-12	726.370E-3	-36.8826E-3
-3.09405E-3	-158.713E-12	710.072E-3	-12.6216E-3	-154.527E-12	700.129E-3	-28.7915E-3
-3.09905E-3	-159.258E-12	706.514E-3	-20.5485E-3	-155.546E-12	694.654E-3	-8.33189E-3
-3.10405E-3	-158.840E-12	702.503E-3	-28.5182E-3	-155.823E-12	704.344E-3	-6.12197E-3
-3.10905E-3	-158.079E-12	698.510E-3	-9.28351E-3	-155.794E-12	703.363E-3	-27.7754E-3
-3.11406E-3	-157.362E-12	704.927E-3	4.53243E-3	-156.443E-12	700.866E-3	-20.4911E-3
-3.11906E-3	-156.571E-12	713.308E-3	7.17538E-3	-156.887E-12	690.282E-3	1.00556E-3
-3.12406E-3	-154.589E-12	708.307E-3	-6.04552E-3	-157.294E-12	670.961E-3	-10.1375E-3
-3.12906E-3	-153.097E-12	692.025E-3	-26.1171E-3	-157.082E-12	681.656E-3	-21.8957E-3
-3.13407E-3	-151.861E-12	689.946E-3	-17.9276E-3	-157.058E-12	713.737E-3	-11.3956E-3
-3.13907E-3	-151.812E-12	699.645E-3	3.97239E-3	-157.104E-12	730.469E-3	4.24247E-3
-3.14407E-3	-151.080E-12	702.999E-3	-5.49130E-3	-157.164E-12	726.307E-3	8.90386E-3
-3.14907E-3	-150.978E-12	703.188E-3	-36.4464E-3	-157.675E-12	719.935E-3	-2.77459E-3
-3.15408E-3	-152.143E-12	700.171E-3	-51.8135E-3	-157.143E-12	711.596E-3	-30.1361E-3
-3.15908E-3	-153.566E-12	682.733E-3	-55.7609E-3	-157.174E-12	688.984E-3	-61.3085E-3
-3.16408E-3	-155.128E-12	665.869E-3	-56.9203E-3	-157.326E-12	675.401E-3	-54.2625E-3
-3.16908E-3	-157.297E-12	655.000E-3	-37.9401E-3	-158.504E-12	697.440E-3	-23.1191E-3
-3.17409E-3	-159.615E-12	659.308E-3	-11.6410E-3	-158.732E-12	715.631E-3	-30.6367E-3
-3.17909E-3	-161.271E-12	700.258E-3	-2.91798E-3	-158.580E-12	694.296E-3	-56.3148E-3
-3.18409E-3	-162.941E-12	723.200E-3	-2.01802E-3	-159.061E-12	682.400E-3	-62.5619E-3
-3.18909E-3	-164.469E-12	703.075E-3	-17.3508E-3	-159.883E-12	687.152E-3	-67.6089E-3
-3.19410E-3	-165.640E-12	685.336E-3	-37.5815E-3	-159.979E-12	689.741E-3	-47.7398E-3
-3.19910E-3	-165.642E-12	674.386E-3	-31.0792E-3	-159.453E-12	696.020E-3	-17.9172E-3
-3.20410E-3	-165.714E-12	676.484E-3	-17.7002E-3	-159.639E-12	689.209E-3	-25.7057E-3
-3.20910E-3	-165.338E-12	705.739E-3	-13.0131E-3	-159.902E-12	676.831E-3	-41.2215E-3
-3.21411E-3	-164.793E-12	720.158E-3	-18.8105E-3	-160.179E-12	681.566E-3	-41.0240E-3
-3.21911E-3	-163.823E-12	712.928E-3	-38.3983E-3	-160.367E-12	701.575E-3	-34.3312E-3
-3.22411E-3	-162.801E-12	717.681E-3	-47.0276E-3	-160.791E-12	707.017E-3	-21.3642E-3
-3.22911E-3	-162.534E-12	717.585E-3	-37.1864E-3	-160.767E-12	690.839E-3	208.959E-6
-3.23412E-3	-161.453E-12	698.443E-3	-26.0670E-3	-161.734E-12	683.061E-3	2.88560E-3
-3.23912E-3	-160.930E-12	677.767E-3	-22.7853E-3	-161.888E-12	679.986E-3	-21.0758E-3
-3.24412E-3	-159.953E-12	679.208E-3	-22.0179E-3	-161.568E-12	685.203E-3	-36.4327E-3
-3.24912E-3	-160.646E-12	697.115E-3	-19.7998E-3	-162.254E-12	700.006E-3	-40.4135E-3
-3.25413E-3	-159.887E-12	718.835E-3	-21.1437E-3	-162.158E-12	693.833E-3	-42.2333E-3
-3.25913E-3	-160.540E-12	736.066E-3	-27.0228E-3	-162.094E-12	685.625E-3	-31.5370E-3
-3.26413E-3	-160.004E-12	727.575E-3	-33.3833E-3	-160.992E-12	692.513E-3	-12.5679E-3
-3.26913E-3	-160.755E-12	696.560E-3	-40.8456E-3	-160.930E-12	688.906E-3	266.244E-6
-3.27414E-3	-161.432E-12	684.796E-3	-39.8224E-3	-160.644E-12	681.042E-3	-5.07347E-3
-3.27914E-3	-161.079E-12	688.682E-3	-33.5184E-3	-160.828E-12	673.906E-3	-17.2116E-3
-3.28414E-3	-161.214E-12	664.401E-3	-43.5499E-3	-159.720E-12	667.062E-3	-21.0868E-3
-3.28914E-3	-161.957E-12	660.214E-3	-50.8149E-3	-159.012E-12	670.157E-3	-12.7974E-3
-3.29415E-3	-163.275E-12	691.662E-3	-38.8003E-3	-159.269E-12	685.249E-3	-4.65449E-3
-3.29915E-3	-164.058E-12	713.011E-3	-25.2210E-3	-160.643E-12	696.378E-3	-2.75540E-3
-3.30415E-3	-164.402E-12	729.164E-3	-21.2169E-3	-160.824E-12	685.638E-3	-6.39191E-3
-3.30915E-3	-165.326E-12	731.374E-3	-13.1671E-3	-161.084E-12	679.114E-3	-8.69886E-3
-3.31416E-3	-166.454E-12	717.076E-3	-10.6488E-3	-162.195E-12	698.382E-3	-7.36139E-3
-3.31916E-3	-166.479E-12	700.165E-3	-36.3623E-3	-163.396E-12	718.609E-3	-8.42028E-3
-3.32416E-3	-166.124E-12	699.243E-3	-43.3017E-3	-165.076E-12	733.471E-3	-19.6125E-3
-3.32916E-3	-166.425E-12	713.827E-3	-20.9631E-3	-165.475E-12	737.194E-3	-47.4555E-3
-3.33417E-3	-165.804E-12	721.174E-3	-6.63168E-3	-165.195E-12	714.559E-3	-60.1149E-3
-3.33917E-3	-165.315E-12	720.160E-3	-6.78502E-3	-165.858E-12	695.910E-3	-49.8251E-3
-3.34417E-3	-164.814E-12	720.599E-3	-14.3113E-3	-166.369E-12	694.269E-3	-22.9996E-3
-3.34917E-3	-164.523E-12	730.567E-3	-16.1488E-3	-165.872E-12	691.743E-3	12.8061E-3
-3.35418E-3	-163.421E-12	727.120E-3	-6.61563E-3	-165.481E-12	697.645E-3	8.01120E-3
-3.35918E-3	-162.909E-12	694.962E-3	-15.7442E-3	-164.201E-12	710.124E-3	-19.1176E-3
-3.36418E-3	-162.957E-12	677.143E-3	-48.8878E-3	-164.354E-12	703.028E-3	-23.8971E-3
-3.36918E-3	-162.510E-12	681.462E-3	-60.0632E-3	-164.348E-12	681.570E-3	-24.3209E-3
-3.37419E-3	-162.433E-12	669.883E-3	-53.0798E-3	-163.845E-12	665.715E-3	-32.7819E-3
-3.37919E-3	-162.660E-12	647.560E-3	-42.9982E-3	-164.123E-12	655.191E-3	-44.1896E-3
-3.38419E-3	-163.645E-12	642.056E-3	-27.9052E-3	-164.999E-12	659.250E-3	-44.9484E-3
-3.38919E-3	-164.889E-12	649.593E-3	-35.5528E-3	-165.862E-12	665.023E-3	-25.2886E-3
-3.39420E-3	-165.570E-12	662.312E-3	-52.2946E-3	-167.260E-12	666.471E-3	-1.19482E-3
-3.39920E-3	-167.158E-12	679.140E-3	-40.3850E-3	-168.346E-12	689.772E-3	-2.50590E-3
-3.40420E-3	-169.569E-12	692.490E-3	-14.9912E-3	-169.640E-12	717.713E-3	-24.5572E-3
-3.40920E-3	-171.730E-12	695.688E-3	-6.65781E-3	-170.332E-12	735.872E-3	-17.0552E-3
-3.41421E-3	-172.915E-12	692.877E-3	-19.4733E-3	-172.210E-12	737.222E-3	7.91799E-3
-3.41921E-3	-173.681E-12	694.928E-3	-33.0754E-3	-173.633E-12	714.641E-3	-3.15703E-3
-3.42421E-3	-175.130E-12	707.949E-3	-46.2913E-3	-175.140E-12	694.110E-3	-11.2585E-3
-3.42921E-3	-176.157E-12	722.165E-3	-56.6105E-3	-174.858E-12	693.173E-3	-2.15459E-3
-3.43422E-3	-175.201E-12	717.018E-3	-41.2548E-3	-175.470E-12	712.530E-3	-8.96720E-3
-3.43922E-3	-174.339E-12	706.171E-3	-27.5524E-3	-175.208E-12	721.880E-3	-9.55517E-3
-3.44422E-3	-173.019E-12	701.964E-3	-29.2704E-3	-174.841E-12	709.945E-3	-1.78452E-3
-3.44922E-3	-171.807E-12	701.881E-3	-27.2659E-3	-173.688E-12	694.069E-3	-9.76366E-3
-3.45423E-3	-170.013E-12	703.636E-3	-19.2914E-3	-172.964E-12	683.226E-3	-1.22511E-3
-3.45923E-3	-169.061E-12	697.396E-3	11.3904E-3	-171.533E-12	693.187E-3	20.4926E-3
-3.46423E-3	-167.376E-12	673.452E-3	35.2046E-3	-171.085E-12	714.225E-3	-1.17824E-3
-3.46923E-3	-166.980E-12	664.311E-3	17.9592E-3	-169.566E-12	712.342E-3	-36.6701E-3
-3.47424E-3	-167.044E-12	687.149E-3	2.28333E-3	-168.893E-12	703.914E-3	-45.2655E-3
-3.47924E-3	-168.175E-12	692.747E-3	6.89612E-3	-168.656E-12	699.523E-3	-29.2701E-3
-3.48424E-3	-169.251E-12	699.705E-3	3.29443E-3	-169.855E-12	678.005E-3	-436.087E-6
-3.48924E-3	-171.216E-12	723.340E-3	-11.7778E-3	-170.883E-12	657.569E-3	18.0591E-3
-3.49425E-3	-173.588E-12	714.597E-3	-9.00792E-3	-172.169E-12	654.083E-3	16.2446E-3
-3.49925E-3	-176.308E-12	686.228E-3	3.27218E-3	-173.209E-12	662.711E-3	1.59932E-3
-3.50425E-3	-178.887E-12	697.723E-3	24.2455E-3	-174.733E-12	685.071E-3	-6.52872E-3
-3.50925E-3	-180.579E-12	732.222E-3	46.2541E-3	-176.127E-12	693.712E-3	-17.8150E-3
-3.51426E-3	-182.173E-12	729.282E-3	18.7852E-3	-177.079E-12	679.502E-3	-18.1388E-3
-3.51926E-3	-183.147E-12	710.752E-3	-18.9412E-3	-177.142E-12	684.300E-3	-2.84090E-3
-3.52426E-3	-183.192E-12	710.247E-3	-3.15088E-3	-176.861E-12	706.710E-3	-11.8360E-3
-3.52926E-3	-181.744E-12	717.362E-3	19.1260E-3	-177.331E-12	708.420E-3	-22.0331E-3
-3.53427E-3	-179.922E-12	742.583E-3	-4.22784E-3	-176.635E-12	691.450E-3	-14.5549E-3
-3.53927E-3	-178.688E-12	773.488E-3	-30.6261E-3	-175.294E-12	671.864E-3	-16.5335E-3
-3.54427E-3	-176.515E-12	753.315E-3	-29.3009E-3	-173.877E-12	662.516E-3	-38.1916E-3
-3.54927E-3	-173.553E-12	702.656E-3	-24.8970E-3	-173.343E-12	653.334E-3	-44.9293E-3
-3.55428E-3	-171.790E-12	679.767E-3	-27.2475E-3	-173.343E-12	650.325E-3	-29.8666E-3
-3.55928E-3	-170.583E-12	676.999E-3	-20.7662E-3	-172.053E-12	675.178E-3	-26.7920E-3
-3.56428E-3	-169.738E-12	684.484E-3	-6.62332E-3	-171.010E-12	692.432E-3	-18.2493E-3
-3.56928E-3	-169.109E-12	688.385E-3	-3.55744E-3	-171.302E-12	690.355E-3	431.083E-6
-3.57429E-3	-169.637E-12	675.459E-3	-18.4817E-3	-172.055E-12	689.456E-3	-6.76175E-3
-3.57929E-3	-170.919E-12	674.560E-3	-29.9071E-3	-172.973E-12	688.667E-3	-34.5381E-3
-3.58429E-3	-172.455E-12	683.264E-3	-9.60379E-3	-172.273E-12	675.542E-3	-51.8053E-3
-3.58929E-3	-173.999E-12	663.336E-3	10.6778E-3	-173.637E-12	674.652E-3	-49.1616E-3
-3.59430E-3	-175.734E-12	641.691E-3	3.47478E-3	-175.827E-12	687.244E-3	-39.2076E-3
-3.59930E-3	-177.617E-12	645.261E-3	-6.98277E-3	-176.920E-12	681.927E-3	-33.9106E-3
-3.60430E-3	-179.653E-12	652.818E-3	-8.34520E-3	-177.293E-12	691.997E-3	-29.4063E-3
-3.60930E-3	-181.047E-12	661.929E-3	-23.4207E-3	-178.186E-12	725.361E-3	-20.4521E-3
-3.61431E-3	-181.672E-12	680.269E-3	-34.1373E-3	-178.786E-12	728.012E-3	-1.66040E-3
-3.61931E-3	-181.975E-12	718.163E-3	6.46697E-3	-178.974E-12	705.235E-3	1.83593E-3
-3.62431E-3	-182.082E-12	738.330E-3	35.0961E-3	-178.819E-12	708.573E-3	-21.8503E-3
-3.62931E-3	-180.635E-12	717.259E-3	11.3062E-3	-178.602E-12	727.072E-3	-32.9255E-3
-3.63432E-3	-180.245E-12	688.366E-3	-8.01055E-3	-177.748E-12	730.280E-3	-28.0523E-3
-3.63932E-3	-178.362E-12	688.028E-3	-7.24551E-3	-178.084E-12	709.392E-3	-14.3963E-3
-3.64432E-3	-176.642E-12	717.993E-3	-3.08871E-3	-178.221E-12	692.824E-3	-16.2880E-3
-3.64932E-3	-174.713E-12	718.938E-3	-4.77437E-3	-177.505E-12	702.639E-3	-30.2352E-3
-3.65433E-3	-173.592E-12	680.730E-3	-20.4771E-3	-176.530E-12	702.998E-3	-25.8935E-3
-3.65933E-3	-173.229E-12	641.710E-3	-44.5540E-3	-177.192E-12	685.226E-3	-21.3645E-3
-3.66433E-3	-172.750E-12	630.285E-3	-33.5326E-3	-177.312E-12	667.512E-3	-20.9080E-3
-3.66933E-3	-173.207E-12	630.657E-3	-2.66940E-3	-178.332E-12	649.862E-3	-20.7452E-3
-3.67434E-3	-174.645E-12	615.847E-3	-10.0752E-3	-178.189E-12	657.852E-3	-11.5520E-3
-3.67934E-3	-176.474E-12	624.113E-3	-19.7470E-3	-178.601E-12	685.175E-3	4.14069E-3
-3.68434E-3	-177.262E-12	645.958E-3	-8.78969E-3	-180.230E-12	697.410E-3	-14.6802E-3
-3.68934E-3	-179.211E-12	660.499E-3	-22.4393E-3	-181.926E-12	707.986E-3	-46.6198E-3
-3.69435E-3	-181.672E-12	682.844E-3	-35.7234E-3	-182.782E-12	727.077E-3	-42.0098E-3
-3.69935E-3	-183.587E-12	707.681E-3	-16.7025E-3	-183.864E-12	726.995E-3	-14.8599E-3
-3.70435E-3	-183.945E-12	727.508E-3	-13.8976E-3	-185.035E-12	715.647E-3	13.7221E-3
-3.70935E-3	-185.507E-12	723.070E-3	-28.7459E-3	-186.435E-12	713.251E-3	16.5183E-3
-3.71436E-3	-186.963E-12	712.540E-3	-28.1113E-3	-186.705E-12	687.977E-3	-11.0707E-3
-3.71936E-3	-187.539E-12	721.000E-3	-30.2684E-3	-186.237E-12	657.749E-3	-21.1598E-3
-3.72436E-3	-187.538E-12	708.727E-3	-26.3240E-3	-186.715E-12	654.962E-3	-15.8390E-3
-3.72936E-3	-187.614E-12	680.604E-3	-11.8461E-3	-187.373E-12	683.627E-3	-30.7118E-3
-3.73437E-3	-187.914E-12	699.604E-3	-20.1036E-3	-186.728E-12	722.886E-3	-50.9563E-3
-3.73937E-3	-187.559E-12	737.629E-3	-34.1050E-3	-186.015E-12	725.336E-3	-51.2871E-3
-3.74437E-3	-186.739E-12	718.928E-3	-25.1989E-3	-186.405E-12	703.621E-3	-45.3506E-3
-3.74937E-3	-187.097E-12	686.462E-3	2.59181E-3	-187.520E-12	702.440E-3	-65.9281E-3
-3.75438E-3	-186.426E-12	698.116E-3	-1.05265E-3	-186.823E-12	714.981E-3	-83.2608E-3
-3.75938E-3	-186.952E-12	700.325E-3	-21.0421E-3	-186.596E-12	712.586E-3	-37.2571E-3
-3.76438E-3	-186.967E-12	672.681E-3	-12.9788E-3	-186.930E-12	705.824E-3	32.2443E-3
-3.76938E-3	-186.853E-12	662.686E-3	-3.49655E-3	-187.309E-12	715.658E-3	35.2018E-3
-3.77439E-3	-186.439E-12	667.861E-3	5.34497E-3	-186.738E-12	722.641E-3	-3.24791E-3
-3.77939E-3	-186.816E-12	687.012E-3	-3.54728E-3	-186.788E-12	715.994E-3	-17.0264E-3
-3.78439E-3	-186.558E-12	726.990E-3	-12.7168E-3	-187.155E-12	698.713E-3	-4.48063E-3
-3.78939E-3	-186.892E-12	724.540E-3	5.86936E-3	-188.054E-12	687.169E-3	3.27437E-3
-3.79440E-3	-186.928E-12	686.716E-3	9.78346E-3	-187.372E-12	701.379E-3	-15.1753E-3
-3.79940E-3	-186.572E-12	676.787E-3	14.1753E-3	-187.149E-12	725.610E-3	-30.3625E-3
-3.80440E-3	-187.365E-12	692.101E-3	8.16892E-3	-187.600E-12	726.224E-3	-31.5318E-3
-3.80940E-3	-188.695E-12	700.396E-3	-19.9899E-3	-187.639E-12	696.805E-3	-38.7886E-3
-3.81441E-3	-189.313E-12	678.288E-3	-18.3434E-3	-187.431E-12	678.743E-3	-51.1121E-3
-3.81941E-3	-189.443E-12	667.244E-3	-5.02039E-3	-186.794E-12	691.325E-3	-48.3903E-3
-3.82441E-3	-191.618E-12	697.397E-3	-18.1852E-3	-187.248E-12	681.729E-3	-37.9890E-3
-3.82941E-3	-192.133E-12	713.816E-3	-26.1386E-3	-187.662E-12	668.716E-3	-32.6971E-3
-3.83442E-3	-192.652E-12	700.193E-3	1.71365E-3	-187.955E-12	702.811E-3	-14.8010E-3
-3.83942E-3	-192.166E-12	690.895E-3	8.46579E-3	-188.368E-12	733.740E-3	660.958E-6
-3.84442E-3	-192.926E-12	710.957E-3	-26.0814E-3	-188.850E-12	698.938E-3	-13.9796E-3
-3.84942E-3	-192.671E-12	729.290E-3	-29.9990E-3	-190.406E-12	650.767E-3	-29.7794E-3
-3.85443E-3	-191.733E-12	708.900E-3	-605.382E-6	-190.514E-12	672.053E-3	-18.6992E-3
-3.85943E-3	-190.620E-12	675.513E-3	10.4108E-3	-191.112E-12	703.832E-3	-13.9918E-3
-3.86443E-3	-189.580E-12	663.028E-3	-4.39889E-3	-190.823E-12	691.343E-3	-22.2145E-3
-3.86943E-3	-188.293E-12	680.735E-3	-16.0871E-3	-190.940E-12	688.921E-3	-13.8164E-3
-3.87444E-3	-186.901E-12	698.893E-3	-11.2133E-3	-190.205E-12	702.401E-3	-7.22632E-3
-3.87944E-3	-183.742E-12	686.070E-3	-15.8683E-3	-189.933E-12	694.842E-3	-5.92194E-3
-3.88444E-3	-182.316E-12	660.852E-3	-38.6912E-3	-189.022E-12	674.000E-3	-4.88362E-3
-3.88944E-3	-182.130E-12	647.944E-3	-60.8857E-3	-188.174E-12	658.716E-3	-20.2607E-3
-3.89445E-3	-181.828E-12	643.479E-3	-67.0269E-3	-187.796E-12	663.014E-3	-24.7812E-3
-3.89945E-3	-181.626E-12	622.291E-3	-45.5155E-3	-187.724E-12	669.566E-3	-12.8930E-3
-3.90445E-3	-182.753E-12	599.770E-3	-19.0111E-3	-188.127E-12	662.593E-3	-4.74979E-3
-3.90945E-3	-184.863E-12	615.986E-3	-10.2823E-3	-187.968E-12	671.452E-3	4.64534E-3
-3.91446E-3	-186.869E-12	640.370E-3	-10.7663E-3	-188.024E-12	684.402E-3	-5.37823E-3
-3.91946E-3	-188.543E-12	642.376E-3	-11.9654E-3	-189.028E-12	670.463E-3	-36.4725E-3
-3.92446E-3	-190.809E-12	642.558E-3	-4.47712E-3	-189.639E-12	651.117E-3	-44.3805E-3
-3.92946E-3	-193.275E-12	642.196E-3	-12.7742E-3	-190.315E-12	634.452E-3	-34.8066E-3
-3.93447E-3	-195.592E-12	652.912E-3	-43.2987E-3	-191.410E-12	625.788E-3	-40.6838E-3
-3.93947E-3	-197.923E-12	675.922E-3	-36.7951E-3	-193.295E-12	640.630E-3	-42.0405E-3
-3.94447E-3	-199.622E-12	687.439E-3	-4.14951E-3	-194.689E-12	675.942E-3	-35.9548E-3
-3.94947E-3	-200.503E-12	693.391E-3	7.34455E-3	-195.461E-12	709.503E-3	-34.3425E-3
-3.95448E-3	-200.329E-12	687.009E-3	16.3040E-3	-196.507E-12	719.462E-3	-19.4938E-3
-3.95948E-3	-199.520E-12	690.043E-3	12.9983E-3	-196.884E-12	712.356E-3	-9.28095E-3
-3.96448E-3	-197.760E-12	710.115E-3	-10.5698E-3	-197.104E-12	701.198E-3	-15.3300E-3
-3.96948E-3	-195.118E-12	712.668E-3	-14.6916E-3	-196.662E-12	693.633E-3	-16.7564E-3
-3.97449E-3	-193.100E-12	697.603E-3	-22.1210E-3	-196.577E-12	680.095E-3	-13.0294E-3
-3.97949E-3	-190.702E-12	684.356E-3	-22.4892E-3	-195.424E-12	665.687E-3	-4.24112E-3
-3.98449E-3	-189.333E-12	691.644E-3	-10.6944E-3	-195.561E-12	667.964E-3	-13.3581E-3
-3.98949E-3	-188.015E-12	686.041E-3	-15.2555E-3	-194.905E-12	677.482E-3	-34.4335E-3
-3.99450E-3	-187.259E-12	659.790E-3	-9.49217E-3	-194.936E-12	667.162E-3	-34.9549E-3
-3.99950E-3	-187.928E-12	636.513E-3	-1.48445E-3	-194.413E-12	635.858E-3	-35.0870E-3
-4.00450E-3	-189.414E-12	629.859E-3	7.26174E-3	-194.680E-12	637.684E-3	-31.5535E-3
-4.00950E-3	-191.349E-12	653.116E-3	24.6572E-3	-195.249E-12	680.527E-3	-28.8064E-3
-4.01451E-3	-193.177E-12	667.711E-3	21.5795E-3	-196.584E-12	697.285E-3	-38.1815E-3
-4.01951E-3	-197.347E-12	657.211E-3	-2.46990E-3	-197.513E-12	691.132E-3	-39.7827E-3
-4.02451E-3	-200.060E-12	639.099E-3	-21.9619E-3	-198.547E-12	701.126E-3	-36.7795E-3
-4.02951E-3	-203.753E-12	629.945E-3	-23.9940E-3	-199.142E-12	696.864E-3	-31.5930E-3
-4.03452E-3	-206.337E-12	650.357E-3	-11.6338E-3	-201.312E-12	693.019E-3	-36.3287E-3
-4.03952E-3	-209.339E-12	685.471E-3	-15.6219E-3	-202.063E-12	701.825E-3	-38.5536E-3
-4.04452E-3	-210.282E-12	713.491E-3	-33.8003E-3	-202.162E-12	696.229E-3	-15.3901E-3
-4.04952E-3	-210.715E-12	728.545E-3	-42.3200E-3	-201.978E-12	697.593E-3	-10.9702E-3
-4.05453E-3	-209.526E-12	724.042E-3	-36.2130E-3	-202.573E-12	705.467E-3	-33.8873E-3
-4.05953E-3	-209.314E-12	716.116E-3	-19.8702E-3	-201.312E-12	715.422E-3	-35.1050E-3
-4.06453E-3	-206.601E-12	715.264E-3	-343.951E-6	-200.188E-12	716.606E-3	-14.3402E-3
-4.06953E-3	-203.415E-12	709.803E-3	-1.11387E-3	-199.127E-12	700.916E-3	1.32020E-3
-4.07454E-3	-200.725E-12	711.899E-3	-40.4800E-3	-199.472E-12	693.302E-3	17.7613E-3
-4.07954E-3	-198.097E-12	715.150E-3	-63.9281E-3	-198.547E-12	692.553E-3	16.7649E-3
-4.08454E-3	-194.916E-12	701.411E-3	-43.8457E-3	-197.734E-12	686.047E-3	-4.49766E-3
-4.08954E-3	-193.597E-12	678.953E-3	-25.3693E-3	-196.865E-12	686.204E-3	-15.9469E-3
-4.09455E-3	-192.339E-12	659.156E-3	-16.1897E-3	-197.294E-12	700.262E-3	-26.5726E-3
-4.09955E-3	-192.272E-12	639.330E-3	-13.5677E-3	-197.941E-12	706.491E-3	-36.6400E-3
-4.10455E-3	-192.776E-12	641.686E-3	-5.18160E-3	-198.228E-12	700.870E-3	-38.0935E-3
-4.10955E-3	-194.007E-12	674.079E-3	18.3798E-3	-199.198E-12	697.558E-3	-39.8815E-3
-4.11456E-3	-195.265E-12	687.373E-3	25.0347E-3	-200.311E-12	692.121E-3	-50.1312E-3
-4.11956E-3	-197.619E-12	682.670E-3	6.42064E-3	-202.327E-12	678.618E-3	-59.0686E-3
-4.12456E-3	-199.201E-12	677.854E-3	-2.90700E-3	-203.584E-12	668.471E-3	-47.1655E-3
-4.12956E-3	-201.740E-12	668.643E-3	2.19466E-3	-204.409E-12	683.720E-3	-19.5591E-3
-4.13457E-3	-203.483E-12	668.213E-3	-13.2836E-3	-205.028E-12	702.548E-3	-7.89032E-3
-4.13957E-3	-205.664E-12	685.171E-3	-31.4373E-3	-204.587E-12	679.851E-3	-10.8122E-3
-4.14457E-3	-206.025E-12	711.896E-3	-14.4667E-3	-204.141E-12	658.088E-3	-7.69570E-3
-4.14957E-3	-206.898E-12	716.206E-3	76.8186E-6	-203.513E-12	671.058E-3	-25.2609E-3
-4.15458E-3	-206.259E-12	698.566E-3	-27.7301E-3	-202.795E-12	675.996E-3	-54.0757E-3
-4.15958E-3	-206.076E-12	680.731E-3	-50.4976E-3	-202.031E-12	686.603E-3	-31.5540E-3
-4.16458E-3	-203.788E-12	669.440E-3	-23.9997E-3	-201.896E-12	706.056E-3	8.38197E-3
-4.16958E-3	-204.215E-12	665.998E-3	17.7586E-3	-201.215E-12	706.101E-3	5.74260E-3
-4.17459E-3	-202.345E-12	651.575E-3	39.0835E-3	-200.357E-12	705.624E-3	-17.4889E-3
-4.17959E-3	-201.029E-12	649.533E-3	19.5314E-3	-200.022E-12	700.077E-3	-16.4404E-3
-4.18459E-3	-199.396E-12	655.266E-3	-17.8357E-3	-200.370E-12	679.335E-3	9.84205E-3
-4.18959E-3	-199.804E-12	636.666E-3	-29.6251E-3	-201.863E-12	662.285E-3	22.7413E-3
-4.19460E-3	-199.472E-12	622.473E-3	-39.6912E-3	-202.166E-12	669.194E-3	23.5010E-3
-4.19960E-3	-199.486E-12	640.598E-3	-48.9901E-3	-203.337E-12	695.799E-3	27.1140E-3
-4.20460E-3	-199.329E-12	661.072E-3	-34.1188E-3	-204.996E-12	717.413E-3	991.011E-6
-4.20960E-3	-200.490E-12	653.811E-3	-8.20611E-3	-207.066E-12	715.335E-3	-37.4329E-3
-4.21461E-3	-202.021E-12	648.470E-3	3.92708E-3	-208.389E-12	696.885E-3	-46.4660E-3
-4.21961E-3	-202.781E-12	656.849E-3	13.9611E-3	-209.161E-12	685.188E-3	-49.3666E-3
-4.22461E-3	-202.635E-12	658.103E-3	22.6640E-3	-209.104E-12	691.607E-3	-39.1837E-3
-4.22961E-3	-203.538E-12	662.135E-3	-7.09547E-3	-209.666E-12	701.773E-3	6.56628E-3
-4.23462E-3	-205.091E-12	683.019E-3	-34.5696E-3	-209.911E-12	697.220E-3	37.8631E-3
-4.23962E-3	-206.265E-12	690.845E-3	-22.9202E-3	-209.315E-12	679.922E-3	17.8925E-3
-4.24462E-3	-207.112E-12	676.778E-3	-14.2539E-3	-208.655E-12	663.658E-3	-4.65254E-3
-4.24962E-3	-208.319E-12	663.435E-3	-22.5605E-3	-208.295E-12	667.175E-3	14.1357E-3
-4.25463E-3	-209.770E-12	671.786E-3	-22.2339E-3	-208.606E-12	688.118E-3	30.3749E-3
-4.25963E-3	-210.908E-12	694.377E-3	-1.63364E-3	-208.143E-12	688.713E-3	11.1565E-3
-4.26463E-3	-211.862E-12	716.894E-3	9.53579E-3	-207.934E-12	676.494E-3	-5.17271E-3
-4.26963E-3	-212.804E-12	724.992E-3	15.5083E-3	-207.420E-12	675.930E-3	-6.54829E-3
-4.27464E-3	-212.856E-12	725.893E-3	17.2572E-3	-207.449E-12	680.463E-3	-10.8424E-3
-4.27964E-3	-213.442E-12	721.571E-3	-22.0196E-3	-208.655E-12	683.715E-3	-29.7733E-3
-4.28464E-3	-213.715E-12	701.652E-3	-32.5794E-3	-208.865E-12	678.716E-3	-31.8991E-3
-4.28964E-3	-214.085E-12	697.868E-3	-7.54170E-3	-209.984E-12	688.217E-3	-3.62872E-3
-4.29465E-3	-213.042E-12	703.556E-3	-21.4729E-3	-211.587E-12	714.967E-3	-2.79934E-3
-4.29965E-3	-212.282E-12	685.689E-3	-54.0566E-3	-211.694E-12	706.654E-3	-13.2035E-3
-4.30465E-3	-212.044E-12	663.149E-3	-74.2357E-3	-212.995E-12	674.126E-3	-9.18192E-3
-4.30965E-3	-211.283E-12	662.870E-3	-60.4145E-3	-213.123E-12	673.443E-3	-6.58895E-3
-4.31466E-3	-210.264E-12	678.467E-3	-34.0791E-3	-213.914E-12	691.958E-3	-13.1478E-3
-4.31966E-3	-208.387E-12	681.314E-3	-27.6828E-3	-212.495E-12	699.621E-3	-16.5374E-3
-4.32466E-3	-208.967E-12	682.183E-3	-19.1300E-3	-213.547E-12	686.204E-3	-15.1296E-3
-4.32966E-3	-209.253E-12	684.233E-3	-8.97289E-3	-212.526E-12	680.310E-3	-26.9495E-3
-4.33467E-3	-210.058E-12	656.187E-3	-25.9094E-3	-211.652E-12	702.479E-3	-40.9580E-3
-4.33967E-3	-208.697E-12	645.137E-3	-61.8039E-3	-211.084E-12	704.279E-3	-36.9534E-3
-4.34467E-3	-210.989E-12	667.345E-3	-49.5191E-3	-211.073E-12	675.718E-3	-18.9388E-3
-4.34967E-3	-212.714E-12	690.374E-3	-24.9964E-3	-211.445E-12	659.369E-3	-15.6871E-3
-4.35468E-3	-215.224E-12	705.792E-3	-45.9330E-3	-211.033E-12	676.348E-3	-16.1927E-3
-4.35968E-3	-216.258E-12	702.613E-3	-39.3663E-3	-210.034E-12	688.891E-3	8.02917E-3
-4.36468E-3	-218.590E-12	699.729E-3	-961.079E-6	-210.168E-12	668.733E-3	31.1580E-3
-4.36968E-3	-220.838E-12	722.591E-3	10.2959E-3	-211.081E-12	664.797E-3	16.4336E-3
-4.37469E-3	-222.422E-12	737.186E-3	-25.4005E-3	-211.155E-12	682.173E-3	1.18175E-3
-4.37969E-3	-223.033E-12	718.223E-3	-72.4588E-3	-212.973E-12	681.936E-3	7.75833E-3
-4.38469E-3	-223.737E-12	690.529E-3	-70.3407E-3	-212.518E-12	669.773E-3	1.20342E-3
-4.38969E-3	-222.210E-12	685.376E-3	-31.0327E-3	-212.991E-12	671.105E-3	-28.6422E-3
-4.39470E-3	-219.828E-12	703.886E-3	-1.51612E-3	-212.947E-12	677.718E-3	-55.2699E-3
-4.39970E-3	-217.044E-12	693.429E-3	3.88815E-3	-212.750E-12	674.182E-3	-60.5065E-3
-4.40470E-3	-214.769E-12	665.483E-3	-6.00793E-3	-212.543E-12	675.706E-3	-50.2239E-3
-4.40970E-3	-212.082E-12	683.045E-3	-358.713E-6	-212.225E-12	693.399E-3	-40.7052E-3
-4.41471E-3	-208.699E-12	703.796E-3	1.42237E-3	-211.216E-12	715.879E-3	-35.4834E-3
-4.41971E-3	-206.132E-12	700.365E-3	-17.5817E-3	-211.319E-12	705.219E-3	-12.0028E-3
-4.42471E-3	-205.730E-12	706.629E-3	-39.8539E-3	-211.115E-12	696.472E-3	22.9668E-3
-4.42971E-3	-205.760E-12	699.043E-3	-54.6545E-3	-211.345E-12	715.450E-3	20.7145E-3
-4.43472E-3	-205.794E-12	685.479E-3	-46.8600E-3	-211.917E-12	698.366E-3	-4.13574E-3
-4.43972E-3	-206.401E-12	679.383E-3	-27.5250E-3	-213.113E-12	672.082E-3	-11.0480E-3
-4.44472E-3	-208.480E-12	652.484E-3	-29.5907E-3	-213.283E-12	672.796E-3	-35.4842E-3
-4.44972E-3	-210.904E-12	629.145E-3	-57.7196E-3	-213.649E-12	662.856E-3	-61.9850E-3
-4.45473E-3	-213.677E-12	641.571E-3	-74.9632E-3	-215.303E-12	646.005E-3	-47.7206E-3
-4.45973E-3	-215.523E-12	672.591E-3	-64.8002E-3	-217.846E-12	641.817E-3	-22.9049E-3
-4.46473E-3	-217.565E-12	684.485E-3	-41.1188E-3	-218.423E-12	652.753E-3	-12.7357E-3
-4.46973E-3	-219.670E-12	685.576E-3	-11.5295E-3	-218.755E-12	663.834E-3	-3.74655E-3
-4.47474E-3	-221.405E-12	698.129E-3	5.72250E-3	-220.600E-12	675.184E-3	4.66378E-3
-4.47974E-3	-221.853E-12	700.437E-3	6.36430E-3	-220.918E-12	699.742E-3	-10.6019E-3
-4.48474E-3	-221.509E-12	682.421E-3	-8.49277E-3	-220.437E-12	700.218E-3	-27.2954E-3
-4.48974E-3	-220.588E-12	670.118E-3	-30.4735E-3	-219.967E-12	676.860E-3	-32.4674E-3
-4.49475E-3	-219.086E-12	677.870E-3	-17.7985E-3	-219.513E-12	666.057E-3	-41.6077E-3
-4.49975E-3	-217.866E-12	687.032E-3	6.41115E-3	-218.935E-12	666.939E-3	-41.7786E-3
-4.50475E-3	-215.078E-12	691.353E-3	2.92509E-3	-217.958E-12	666.457E-3	-4.22253E-3
-4.50975E-3	-212.223E-12	683.174E-3	-25.4505E-3	-216.809E-12	669.592E-3	25.0863E-3
-4.51476E-3	-210.296E-12	635.890E-3	-47.1458E-3	-217.167E-12	677.975E-3	1.51845E-3
-4.51976E-3	-211.063E-12	603.852E-3	-27.4559E-3	-217.371E-12	693.016E-3	-7.29089E-3
-4.52476E-3	-210.656E-12	631.162E-3	-3.81668E-3	-217.704E-12	714.702E-3	1.45280E-3
-4.52976E-3	-210.359E-12	678.290E-3	-5.53022E-3	-218.484E-12	713.458E-3	-9.43929E-3
-4.53477E-3	-211.170E-12	686.578E-3	-18.5480E-3	-219.079E-12	705.170E-3	-23.0281E-3
-4.53977E-3	-213.566E-12	669.289E-3	-37.5174E-3	-221.754E-12	719.594E-3	-32.8545E-3
-4.54477E-3	-216.678E-12	680.088E-3	-39.3251E-3	-224.014E-12	733.403E-3	-38.0887E-3
-4.54977E-3	-219.105E-12	674.620E-3	-15.2966E-3	-226.115E-12	728.514E-3	-13.5039E-3
-4.55478E-3	-220.984E-12	647.468E-3	-9.09532E-3	-228.353E-12	709.464E-3	19.8307E-3
-4.55978E-3	-224.086E-12	649.664E-3	-14.2121E-3	-230.220E-12	708.173E-3	-2.35570E-3
-4.56478E-3	-228.139E-12	660.644E-3	10.7781E-3	-231.779E-12	714.962E-3	-39.1890E-3
-4.56978E-3	-229.773E-12	670.657E-3	48.5731E-3	-232.227E-12	692.096E-3	-44.7136E-3
-4.57479E-3	-229.119E-12	673.857E-3	60.6544E-3	-231.897E-12	678.563E-3	-40.0800E-3
-4.57979E-3	-229.409E-12	665.038E-3	17.9951E-3	-230.468E-12	685.226E-3	-30.6457E-3
-4.58479E-3	-229.688E-12	668.889E-3	-32.3879E-3	-228.830E-12	687.829E-3	-39.0002E-3
-4.58979E-3	-228.358E-12	681.013E-3	-26.7619E-3	-226.528E-12	691.591E-3	-69.6340E-3
-4.59480E-3	-227.465E-12	692.580E-3	-8.19429E-3	-225.291E-12	672.050E-3	-76.5417E-3
-4.59980E-3	-225.812E-12	705.392E-3	-12.3839E-3	-222.956E-12	649.957E-3	-31.2162E-3
-4.60480E-3	-224.138E-12	694.007E-3	-26.6283E-3	-220.730E-12	659.706E-3	5.00241E-3
-4.60980E-3	-224.408E-12	669.071E-3	-45.4563E-3	-219.058E-12	673.971E-3	-1.64442E-3
-4.61481E-3	-223.484E-12	676.250E-3	-40.7888E-3	-218.455E-12	695.209E-3	-7.64710E-3
-4.61981E-3	-223.745E-12	701.478E-3	-17.7393E-3	-218.516E-12	710.550E-3	-3.64513E-3
-4.62481E-3	-223.537E-12	699.419E-3	-9.72842E-3	-218.264E-12	689.486E-3	8.56179E-3
-4.62981E-3	-226.060E-12	667.459E-3	-11.0072E-3	-219.535E-12	674.481E-3	18.5090E-3
-4.63482E-3	-226.721E-12	659.968E-3	-8.76091E-3	-221.408E-12	675.512E-3	19.5726E-3
-4.63982E-3	-227.633E-12	673.657E-3	-4.77727E-3	-223.232E-12	651.176E-3	18.5568E-3
-4.64482E-3	-227.623E-12	672.064E-3	-22.8501E-3	-224.264E-12	643.641E-3	3.34792E-3
-4.64982E-3	-228.616E-12	667.396E-3	-51.6278E-3	-226.514E-12	678.119E-3	-11.3102E-3
-4.65483E-3	-229.617E-12	673.028E-3	-48.8212E-3	-228.023E-12	702.036E-3	8.46821E-3
-4.65983E-3	-229.875E-12	675.225E-3	3.81340E-3	-228.055E-12	707.503E-3	19.3475E-3
-4.66483E-3	-228.658E-12	651.112E-3	23.5685E-3	-227.668E-12	705.843E-3	-10.7344E-3
-4.66983E-3	-228.664E-12	633.134E-3	-35.3041E-3	-227.925E-12	683.173E-3	-41.7499E-3
-4.67484E-3	-228.975E-12	647.567E-3	-57.5719E-3	-227.248E-12	650.897E-3	-43.4931E-3
-4.67984E-3	-228.189E-12	666.164E-3	-26.0778E-3	-226.073E-12	639.129E-3	-34.3364E-3
-4.68484E-3	-226.929E-12	666.813E-3	409.493E-6	-224.883E-12	653.052E-3	-25.5407E-3
-4.68984E-3	-227.171E-12	655.193E-3	24.2795E-3	-224.025E-12	661.142E-3	-14.5917E-3
-4.69485E-3	-226.296E-12	649.664E-3	21.3207E-3	-223.427E-12	672.204E-3	-22.0877E-3
-4.69985E-3	-225.918E-12	661.345E-3	-836.618E-6	-222.485E-12	673.407E-3	-31.1435E-3
-4.70485E-3	-225.411E-12	671.505E-3	-10.2371E-3	-221.895E-12	638.283E-3	-17.5053E-3
-4.70985E-3	-225.224E-12	683.673E-3	-12.1980E-3	-221.658E-12	617.814E-3	2.67728E-3
-4.71486E-3	-224.554E-12	717.082E-3	182.565E-6	-221.318E-12	621.441E-3	-10.8776E-3
-4.71986E-3	-225.581E-12	717.311E-3	-5.45653E-3	-221.338E-12	643.116E-3	-28.3090E-3
-4.72486E-3	-225.645E-12	687.022E-3	-44.6496E-3	-223.259E-12	674.907E-3	-13.5190E-3
-4.72986E-3	-226.057E-12	688.539E-3	-51.2799E-3	-224.532E-12	672.163E-3	-2.68957E-3
-4.73487E-3	-226.381E-12	706.832E-3	-21.2971E-3	-225.051E-12	665.110E-3	2.10114E-3
-4.73987E-3	-226.095E-12	710.257E-3	-31.8506E-3	-226.408E-12	668.364E-3	7.90644E-3
-4.74487E-3	-225.916E-12	714.713E-3	-48.9691E-3	-228.385E-12	658.566E-3	1.81521E-3
-4.74988E-3	-226.477E-12	720.721E-3	-25.9119E-3	-230.002E-12	660.559E-3	-15.9210E-3
-4.75488E-3	-225.709E-12	680.933E-3	3.83496E-3	-230.668E-12	672.899E-3	-39.5888E-3
-4.75988E-3	-226.154E-12	647.860E-3	10.5854E-3	-230.305E-12	690.159E-3	-48.2571E-3
-4.76488E-3	-226.609E-12	654.256E-3	-6.72489E-3	-232.194E-12	700.820E-3	-36.9918E-3
-4.76988E-3	-227.389E-12	665.555E-3	-11.3275E-3	-233.203E-12	694.764E-3	-18.3829E-3
-4.77489E-3	-228.319E-12	691.151E-3	-15.2811E-3	-233.740E-12	703.632E-3	-17.7884E-3
-4.77989E-3	-229.734E-12	698.411E-3	-35.6643E-3	-234.231E-12	718.609E-3	-35.3447E-3
-4.78489E-3	-230.992E-12	661.957E-3	-45.6314E-3	-235.397E-12	709.960E-3	-25.6924E-3
-4.78989E-3	-232.821E-12	639.107E-3	-42.5643E-3	-236.134E-12	692.106E-3	-15.2999E-3
-4.79490E-3	-234.511E-12	663.463E-3	-27.9742E-3	-236.521E-12	675.343E-3	-34.4112E-3
-4.79990E-3	-235.708E-12	684.098E-3	-18.7145E-3	-237.468E-12	672.470E-3	-37.3472E-3
-4.80490E-3	-236.403E-12	677.945E-3	-37.5555E-3	-236.853E-12	696.999E-3	-25.3228E-3
-4.80990E-3	-238.564E-12	680.277E-3	-38.8976E-3	-237.103E-12	707.202E-3	-15.5826E-3
-4.81491E-3	-239.336E-12	710.248E-3	-32.5873E-3	-237.001E-12	681.897E-3	966.973E-6
-4.81991E-3	-239.788E-12	738.238E-3	-39.5298E-3	-237.804E-12	670.432E-3	8.31655E-3
-4.82491E-3	-238.522E-12	748.834E-3	-33.6040E-3	-237.662E-12	682.329E-3	-5.72929E-3
-4.82991E-3	-237.478E-12	744.007E-3	-30.6864E-3	-237.144E-12	678.350E-3	-26.5299E-3
-4.83492E-3	-236.748E-12	727.226E-3	-18.5191E-3	-237.111E-12	662.780E-3	-28.0914E-3
-4.83992E-3	-234.844E-12	716.376E-3	2.61255E-3	-237.332E-12	657.732E-3	-24.0526E-3
-4.84492E-3	-234.712E-12	702.632E-3	-1.96937E-3	-236.873E-12	634.505E-3	-34.4261E-3
-4.84992E-3	-233.301E-12	689.626E-3	-6.90909E-3	-236.103E-12	610.155E-3	-33.6040E-3
-4.85493E-3	-232.393E-12	688.056E-3	-9.75138E-3	-235.892E-12	632.016E-3	-10.3196E-3
-4.85993E-3	-232.642E-12	704.445E-3	-17.7909E-3	-234.919E-12	644.184E-3	10.9143E-3
-4.86493E-3	-234.200E-12	721.047E-3	-28.7967E-3	-236.210E-12	638.325E-3	-4.43418E-3
-4.86993E-3	-234.229E-12	703.843E-3	-42.0468E-3	-236.498E-12	669.717E-3	-17.0874E-3
-4.87494E-3	-235.926E-12	675.286E-3	-31.5866E-3	-236.987E-12	722.367E-3	-24.2538E-3
-4.87994E-3	-238.147E-12	662.381E-3	-19.0583E-3	-238.397E-12	755.159E-3	-46.6836E-3
-4.88494E-3	-241.659E-12	676.563E-3	-9.36218E-3	-239.597E-12	735.759E-3	-50.7891E-3
-4.88995E-3	-244.104E-12	715.569E-3	-11.0469E-3	-240.570E-12	697.980E-3	-33.9834E-3
-4.89495E-3	-246.154E-12	756.431E-3	-22.4220E-3	-241.943E-12	704.722E-3	-2.36289E-3
-4.89995E-3	-245.861E-12	764.200E-3	-19.0256E-3	-242.801E-12	714.192E-3	7.12508E-3
-4.90495E-3	-247.585E-12	723.017E-3	-20.7268E-3	-242.829E-12	697.549E-3	-21.8650E-3
-4.90995E-3	-247.999E-12	678.601E-3	-31.4385E-3	-243.864E-12	693.829E-3	-29.6088E-3
-4.91496E-3	-245.611E-12	692.836E-3	-43.3033E-3	-242.462E-12	684.550E-3	-6.49110E-3
-4.91996E-3	-242.456E-12	730.079E-3	-32.0875E-3	-241.756E-12	647.563E-3	3.10369E-3
-4.92496E-3	-240.453E-12	727.064E-3	-14.7472E-3	-240.427E-12	636.871E-3	14.1668E-3
-4.92996E-3	-238.039E-12	714.365E-3	-32.3214E-3	-237.772E-12	660.648E-3	39.2481E-3
-4.93497E-3	-235.237E-12	712.372E-3	-38.4587E-3	-234.831E-12	659.917E-3	47.4931E-3
-4.93997E-3	-233.019E-12	698.975E-3	-7.38440E-3	-232.505E-12	645.892E-3	51.1705E-3
-4.94497E-3	-230.782E-12	684.759E-3	33.0780E-3	-231.617E-12	634.187E-3	52.7180E-3
-4.94997E-3	-230.975E-12	680.077E-3	30.2743E-3	-230.301E-12	616.542E-3	43.3210E-3
-4.95498E-3	-230.863E-12	669.030E-3	-7.54982E-3	-229.165E-12	635.878E-3	26.7833E-3
-4.95998E-3	-232.340E-12	655.502E-3	-26.6851E-3	-229.370E-12	670.330E-3	-5.71666E-3
-4.96498E-3	-232.643E-12	644.963E-3	-25.1422E-3	-230.952E-12	675.252E-3	-12.1422E-3
-4.96998E-3	-234.386E-12	650.828E-3	-16.1621E-3	-231.748E-12	673.297E-3	4.92413E-3
-4.97499E-3	-237.089E-12	685.390E-3	-12.8583E-3	-233.559E-12	671.651E-3	-10.5985E-3
-4.97999E-3	-240.294E-12	702.115E-3	9.44278E-3	-236.447E-12	663.175E-3	-1.26469E-3
-4.98499E-3	-241.921E-12	682.228E-3	36.1414E-3	-239.105E-12	647.885E-3	48.1877E-3
-4.98999E-3	-243.400E-12	658.200E-3	20.1292E-3	-240.511E-12	668.255E-3	70.5964E-3
-4.99500E-3	-244.279E-12	636.969E-3	8.95988E-3	-243.756E-12	694.256E-3	48.8249E-3
-5.00000E-3	-246.141E-12	637.457E-3	13.6133E-3	-245.343E-12	669.874E-3	18.5947E-3
