Experiment	bias spectroscopy	
Date	19.01.2016 22:30:26	
User		
X (m)	50.0091E-9	
Y (m)	257.834E-9	
Z (m)	-132.61E-9	
Z offset (m)	0E+0	
Settling time (s)	200E-6	
Integration time (s)	5E-3	
Z-Ctrl hold	TRUE	
Final Z (m)	N/A	
Filter type	None	
Order		
Cutoff frq		
Comment01	MnPc/Pb(111)	
Comment02	dz =00pm	
Comment03	7 Sweeps	
Comment04	MagField =0.T	
Comment05	Divider 1:10	
Comment06	Setpoint:5mV,200 pA	
Comment07	Lockin: 50uVrms,5ms,5mV	
Comment08	Gain:9; 912Hz modulation	
Comment09	T=1.06K	
Bias>Bias (V)	5E-3	
Bias>Calibration (V/V)	81.475E-3	
Bias>Offset (V)	1.046E-3	
Bias Spectroscopy>Sweep Start (V)	5E-3	
Bias Spectroscopy>Sweep End (V)	-5E-3	
Bias Spectroscopy>Num Pixel	2000	
Bias Spectroscopy>Z Avg time (s)	500E-3	
Bias Spectroscopy>Z offset (m)	0E+0	
Bias Spectroscopy>1st Settling time (s)	500E-3	
Bias Spectroscopy>Settling time (s)	200E-6	
Bias Spectroscopy>Integration time (s)	5E-3	
Bias Spectroscopy>End Settling time (s)	500E-3	
Bias Spectroscopy>Z control time (s)	500E-3	
Bias Spectroscopy>Max Slew rate (V/s)	Inf	
Bias Spectroscopy>backward sweep	TRUE	
Bias Spectroscopy>Z-controller hold	TRUE	
Bias Spectroscopy>Number of sweeps	7	
Bias Spectroscopy>Channels	Current (A);X% LockIn (V);Y% LockIn (V)	
Bias Spectroscopy>Reset Bias	TRUE	
Bias Spectroscopy>Record final Z	FALSE	
Bias Spectroscopy>Lock-In run	FALSE	
Bias Spectroscopy>Sweep mode	Linear	
Bias Spectroscopy>MultiLine Settings : Segment Start (V), Segment End (V), Settling (s), Integration (s), Steps (xn)	100E-3,3.3E-3,100E-6,10E-3,2500;3.3E-3,-3.3E-3,100E-6,10E-3,10;-3.3E-3,-100E-3,100E-6,10E-3,2500	
Current>Current (A)	200.173E-12	
Current>Calibration (A/V)	999.99900E-12	
Current>Offset (A)	-455.429E-15	
Current>Gain	LN 10^9	
Z-Controller>Z (m)	-132.61E-9	
Z-Controller>Controller name	log Current	
Z-Controller>Controller status	ON	
Z-Controller>Setpoint	200E-12	
Z-Controller>Setpoint unit	A	
Z-Controller>P gain	2.96994E-12	
Z-Controller>I gain	67.0321E-9	
Z-Controller>Time const (s)	44.3062E-6	
Z-Controller>TipLift (m)	0E+0	
Z-Controller>Switch off delay (s)	50E-3	
Current (A)	199.931E-12	
Z (m)	-132.61E-9	

[DATA]
Bias calc (V)	Current (A)	X% LockIn (V)	Y% LockIn (V)	Current [bwd] (A)	X% LockIn [bwd] (V)	Y% LockIn [bwd] (V)
5.00000E-3	199.002E-12	682.679E-3	28.1820E-3	199.401E-12	650.005E-3	-50.6355E-3
4.99500E-3	198.215E-12	649.656E-3	13.2063E-3	198.716E-12	647.929E-3	-33.5928E-3
4.98999E-3	198.151E-12	628.777E-3	-29.6700E-3	197.443E-12	649.726E-3	-40.3663E-3
4.98499E-3	196.102E-12	641.004E-3	-41.4307E-3	197.724E-12	624.564E-3	-39.1689E-3
4.97999E-3	194.575E-12	632.999E-3	-13.9200E-3	196.108E-12	620.990E-3	-25.2080E-3
4.97499E-3	193.581E-12	622.130E-3	-8.04165E-3	196.026E-12	661.194E-3	-22.9016E-3
4.96998E-3	193.952E-12	650.970E-3	-33.3503E-3	195.958E-12	661.410E-3	-38.1805E-3
4.96498E-3	193.816E-12	671.362E-3	-56.2662E-3	196.201E-12	632.014E-3	-44.6178E-3
4.95998E-3	194.160E-12	667.023E-3	-48.8783E-3	196.081E-12	649.188E-3	-18.6040E-3
4.95498E-3	195.251E-12	660.353E-3	-24.3173E-3	197.476E-12	692.774E-3	12.6487E-3
4.94997E-3	194.777E-12	642.135E-3	-2.80323E-3	198.331E-12	696.204E-3	18.9980E-3
4.94497E-3	197.172E-12	636.266E-3	-11.0714E-3	198.595E-12	697.448E-3	2.21309E-3
4.93997E-3	197.726E-12	673.394E-3	-34.2462E-3	199.318E-12	699.220E-3	-17.3995E-3
4.93497E-3	197.511E-12	701.722E-3	10.4515E-3	200.173E-12	657.112E-3	-37.7763E-3
4.92996E-3	198.146E-12	679.347E-3	67.6184E-3	199.180E-12	623.175E-3	-59.7165E-3
4.92496E-3	199.937E-12	660.013E-3	36.1652E-3	199.019E-12	620.952E-3	-60.3965E-3
4.91996E-3	199.844E-12	659.440E-3	-13.8226E-3	198.158E-12	649.634E-3	-35.2124E-3
4.91496E-3	199.433E-12	637.828E-3	-33.4324E-3	196.724E-12	683.338E-3	-14.0979E-3
4.90995E-3	198.450E-12	639.517E-3	-33.0926E-3	196.568E-12	663.157E-3	-7.74785E-3
4.90495E-3	198.201E-12	676.401E-3	5.64932E-3	196.171E-12	640.663E-3	-11.8428E-3
4.89995E-3	196.927E-12	679.630E-3	24.4748E-3	193.541E-12	665.287E-3	-15.6782E-3
4.89495E-3	196.808E-12	654.842E-3	5.78428E-3	193.103E-12	676.552E-3	-17.6582E-3
4.88995E-3	195.260E-12	626.665E-3	9.94028E-3	192.395E-12	668.753E-3	-22.7690E-3
4.88494E-3	192.976E-12	602.589E-3	7.51002E-3	191.025E-12	668.647E-3	-18.3763E-3
4.87994E-3	193.663E-12	641.845E-3	-509.242E-6	190.950E-12	663.222E-3	-24.2177E-3
4.87494E-3	193.863E-12	701.991E-3	14.8365E-3	191.243E-12	659.613E-3	-40.5977E-3
4.86993E-3	192.708E-12	714.675E-3	14.2051E-3	190.661E-12	658.883E-3	-35.9420E-3
4.86493E-3	192.663E-12	700.733E-3	-9.14978E-3	191.031E-12	634.847E-3	-9.93701E-3
4.85993E-3	193.155E-12	665.707E-3	-23.6929E-3	192.213E-12	607.346E-3	20.0740E-3
4.85493E-3	193.796E-12	644.488E-3	-3.92720E-3	191.593E-12	631.652E-3	25.3644E-3
4.84992E-3	194.257E-12	656.379E-3	15.1268E-3	191.790E-12	666.729E-3	-9.79562E-3
4.84492E-3	193.700E-12	647.399E-3	-19.8251E-3	191.835E-12	667.623E-3	-37.8104E-3
4.83992E-3	193.442E-12	630.796E-3	-52.3566E-3	191.810E-12	674.918E-3	-30.3119E-3
4.83492E-3	194.603E-12	660.312E-3	-36.2423E-3	191.058E-12	693.425E-3	-30.9771E-3
4.82991E-3	193.628E-12	712.020E-3	-538.129E-6	190.861E-12	685.357E-3	-49.8379E-3
4.82491E-3	191.561E-12	716.126E-3	6.42257E-3	190.247E-12	657.603E-3	-64.1735E-3
4.81991E-3	192.771E-12	670.739E-3	-43.4325E-3	190.024E-12	656.876E-3	-68.2799E-3
4.81491E-3	191.622E-12	650.279E-3	-73.4055E-3	190.283E-12	666.274E-3	-65.5289E-3
4.80990E-3	190.362E-12	648.428E-3	-48.2342E-3	189.684E-12	650.224E-3	-59.6731E-3
4.80490E-3	190.421E-12	650.870E-3	-32.6170E-3	189.571E-12	643.333E-3	-42.7780E-3
4.79990E-3	189.301E-12	677.361E-3	-42.3289E-3	189.836E-12	635.078E-3	-9.67897E-3
4.79490E-3	187.687E-12	688.288E-3	-32.8933E-3	189.495E-12	613.778E-3	-1.23631E-3
4.78989E-3	188.960E-12	662.093E-3	-11.4196E-3	189.940E-12	625.350E-3	-26.8634E-3
4.78489E-3	188.379E-12	603.345E-3	-11.4012E-3	189.704E-12	646.944E-3	-27.7904E-3
4.77989E-3	187.562E-12	584.826E-3	-10.4346E-3	191.414E-12	669.302E-3	-862.811E-6
4.77489E-3	188.067E-12	626.605E-3	-13.7388E-3	191.556E-12	699.979E-3	841.727E-6
4.76988E-3	188.110E-12	664.629E-3	-37.6691E-3	191.876E-12	707.031E-3	-10.9466E-3
4.76488E-3	186.793E-12	691.335E-3	-36.2654E-3	192.974E-12	697.827E-3	-3.66481E-3
4.75988E-3	187.877E-12	675.007E-3	-2.46252E-3	193.489E-12	694.123E-3	2.50690E-3
4.75488E-3	187.857E-12	645.504E-3	199.856E-6	191.912E-12	684.768E-3	1.15622E-3
4.74988E-3	187.403E-12	656.724E-3	-27.6433E-3	191.728E-12	663.297E-3	-7.20455E-3
4.74487E-3	186.598E-12	664.112E-3	-44.2843E-3	192.303E-12	661.379E-3	-8.32598E-3
4.73987E-3	186.253E-12	668.486E-3	-33.2606E-3	189.225E-12	673.910E-3	-7.04677E-3
4.73487E-3	185.553E-12	704.015E-3	-20.4125E-3	188.172E-12	659.555E-3	-12.3485E-3
4.72986E-3	185.119E-12	707.354E-3	-30.6637E-3	188.184E-12	657.294E-3	-12.9219E-3
4.72486E-3	184.710E-12	670.445E-3	-45.0979E-3	186.586E-12	675.375E-3	-17.1726E-3
4.71986E-3	185.112E-12	667.382E-3	-43.0249E-3	185.380E-12	657.683E-3	-32.7909E-3
4.71486E-3	183.992E-12	673.281E-3	-32.3897E-3	185.875E-12	630.668E-3	-56.2450E-3
4.70985E-3	184.647E-12	663.431E-3	-35.2039E-3	185.372E-12	636.171E-3	-61.4355E-3
4.70485E-3	183.904E-12	657.936E-3	-25.8594E-3	185.129E-12	659.542E-3	-42.4683E-3
4.69985E-3	184.651E-12	649.502E-3	-6.27680E-3	185.122E-12	670.118E-3	-11.0834E-3
4.69485E-3	185.479E-12	653.959E-3	-12.0781E-3	184.141E-12	665.187E-3	7.47383E-3
4.68984E-3	185.612E-12	673.106E-3	-41.4354E-3	185.142E-12	648.982E-3	6.44863E-3
4.68484E-3	185.133E-12	685.465E-3	-58.8458E-3	185.054E-12	639.595E-3	3.22286E-3
4.67984E-3	185.829E-12	688.553E-3	-56.5898E-3	184.787E-12	652.835E-3	-18.3107E-3
4.67484E-3	185.599E-12	684.767E-3	-36.9624E-3	184.264E-12	655.230E-3	-28.8590E-3
4.66983E-3	185.415E-12	671.987E-3	-11.1478E-3	184.199E-12	648.826E-3	-8.80679E-3
4.66483E-3	185.142E-12	647.894E-3	565.708E-6	182.742E-12	658.134E-3	6.87748E-3
4.65983E-3	184.485E-12	647.583E-3	2.51712E-3	181.618E-12	669.746E-3	3.99623E-3
4.65483E-3	182.625E-12	668.312E-3	-9.28684E-3	181.096E-12	671.857E-3	4.81955E-3
4.64982E-3	182.210E-12	678.420E-3	-18.0750E-3	180.740E-12	682.598E-3	4.48193E-3
4.64482E-3	181.642E-12	682.158E-3	-15.9227E-3	179.128E-12	687.388E-3	-14.4184E-3
4.63982E-3	180.859E-12	662.963E-3	-12.7359E-3	178.920E-12	649.844E-3	-14.1807E-3
4.63482E-3	179.968E-12	610.539E-3	-25.7879E-3	178.140E-12	625.249E-3	-2.74846E-3
4.62981E-3	179.602E-12	609.996E-3	-27.9801E-3	177.972E-12	632.553E-3	-12.8873E-3
4.62481E-3	179.495E-12	671.386E-3	2.38935E-3	178.331E-12	625.703E-3	-21.4999E-3
4.61981E-3	179.327E-12	693.238E-3	3.69222E-3	178.687E-12	651.609E-3	-19.3469E-3
4.61481E-3	179.722E-12	663.327E-3	-18.3175E-3	178.745E-12	691.980E-3	-15.9777E-3
4.60980E-3	180.262E-12	630.791E-3	-10.0441E-3	179.511E-12	660.114E-3	1.53314E-3
4.60480E-3	180.773E-12	624.110E-3	-2.59624E-3	180.399E-12	633.205E-3	22.0835E-3
4.59980E-3	181.584E-12	631.006E-3	-6.40211E-3	181.161E-12	654.989E-3	9.24907E-3
4.59480E-3	181.768E-12	650.459E-3	-10.1600E-3	182.113E-12	656.843E-3	-17.4890E-3
4.58979E-3	182.163E-12	675.921E-3	-19.6251E-3	183.151E-12	655.105E-3	-23.4411E-3
4.58479E-3	182.426E-12	690.464E-3	-11.4911E-3	182.550E-12	668.906E-3	-29.2379E-3
4.57979E-3	182.916E-12	714.253E-3	3.36832E-3	183.206E-12	652.175E-3	-26.6981E-3
4.57479E-3	181.153E-12	720.868E-3	11.0998E-3	183.638E-12	625.736E-3	2.90990E-3
4.56978E-3	180.465E-12	665.126E-3	-3.54443E-3	183.105E-12	647.964E-3	-1.12814E-3
4.56478E-3	180.659E-12	620.135E-3	-38.3745E-3	182.241E-12	676.138E-3	-26.5593E-3
4.55978E-3	179.387E-12	627.381E-3	-45.8188E-3	182.379E-12	664.443E-3	-20.7358E-3
4.55478E-3	177.993E-12	634.762E-3	-39.3465E-3	181.224E-12	669.942E-3	-17.4871E-3
4.54977E-3	177.509E-12	644.035E-3	-39.9427E-3	179.783E-12	695.255E-3	-29.8225E-3
4.54477E-3	177.403E-12	658.031E-3	-26.0519E-3	179.344E-12	687.489E-3	-29.5572E-3
4.53977E-3	176.493E-12	663.436E-3	-15.7827E-3	179.926E-12	676.794E-3	-22.4890E-3
4.53477E-3	176.795E-12	668.054E-3	-25.5480E-3	179.896E-12	678.122E-3	-31.4790E-3
4.52976E-3	176.179E-12	663.191E-3	-19.6927E-3	179.267E-12	686.694E-3	-35.2543E-3
4.52476E-3	175.610E-12	665.302E-3	-3.33465E-3	179.215E-12	690.857E-3	-31.7859E-3
4.51976E-3	176.714E-12	675.635E-3	-23.2258E-3	179.796E-12	675.784E-3	-43.2654E-3
4.51476E-3	177.455E-12	667.701E-3	-58.1020E-3	180.489E-12	647.876E-3	-56.1709E-3
4.50975E-3	177.039E-12	654.682E-3	-56.7395E-3	180.818E-12	621.832E-3	-57.1585E-3
4.50475E-3	178.133E-12	629.835E-3	-38.5955E-3	179.767E-12	628.911E-3	-36.0604E-3
4.49975E-3	178.320E-12	601.300E-3	-21.6314E-3	180.007E-12	655.453E-3	-4.77143E-3
4.49475E-3	178.487E-12	606.460E-3	-8.09290E-3	179.918E-12	663.529E-3	11.0968E-3
4.48974E-3	178.203E-12	632.301E-3	-18.0978E-3	179.304E-12	653.007E-3	2.97554E-3
4.48474E-3	178.060E-12	655.452E-3	-20.4214E-3	178.299E-12	632.050E-3	-14.5170E-3
4.47974E-3	177.036E-12	669.886E-3	-4.58283E-3	176.689E-12	615.627E-3	-18.9929E-3
4.47474E-3	176.575E-12	670.801E-3	-15.3205E-3	175.397E-12	630.468E-3	-24.1873E-3
4.46973E-3	176.744E-12	658.790E-3	-27.5423E-3	174.356E-12	662.890E-3	-30.6089E-3
4.46473E-3	175.659E-12	642.741E-3	-7.32298E-3	173.568E-12	677.708E-3	-4.96017E-3
4.45973E-3	174.541E-12	640.226E-3	-722.604E-6	172.022E-12	656.670E-3	3.43559E-3
4.45473E-3	173.669E-12	657.825E-3	7.03586E-3	170.703E-12	615.417E-3	-33.4207E-3
4.44972E-3	173.241E-12	668.217E-3	22.4046E-3	170.830E-12	595.050E-3	-51.6325E-3
4.44472E-3	173.572E-12	667.128E-3	-3.38857E-3	170.324E-12	612.306E-3	-38.8793E-3
4.43972E-3	172.737E-12	675.120E-3	-28.2063E-3	170.387E-12	631.576E-3	-18.3241E-3
4.43472E-3	171.950E-12	660.966E-3	-24.8212E-3	170.634E-12	623.396E-3	-9.25595E-3
4.42971E-3	173.084E-12	643.887E-3	-27.8978E-3	170.292E-12	608.067E-3	-5.43408E-3
4.42471E-3	173.491E-12	654.434E-3	-33.5946E-3	170.984E-12	608.544E-3	-1.07605E-3
4.41971E-3	172.089E-12	660.414E-3	-37.3277E-3	171.078E-12	616.026E-3	-10.0873E-3
4.41471E-3	173.336E-12	643.538E-3	-42.1568E-3	171.165E-12	634.399E-3	-18.9762E-3
4.40970E-3	173.663E-12	634.614E-3	-35.7569E-3	171.259E-12	666.695E-3	-30.7522E-3
4.40470E-3	172.107E-12	649.875E-3	-24.0820E-3	171.490E-12	663.719E-3	-30.7243E-3
4.39970E-3	172.718E-12	646.214E-3	-19.2231E-3	171.228E-12	659.889E-3	-3.31095E-3
4.39470E-3	172.780E-12	649.043E-3	-27.9727E-3	170.863E-12	695.746E-3	1.01396E-3
4.38969E-3	171.525E-12	673.999E-3	-28.4566E-3	171.303E-12	691.631E-3	-3.68516E-3
4.38469E-3	172.260E-12	664.006E-3	-22.8007E-3	170.295E-12	647.839E-3	7.99937E-3
4.37969E-3	171.559E-12	651.352E-3	-30.9905E-3	170.334E-12	643.791E-3	6.52052E-3
4.37469E-3	170.593E-12	661.646E-3	-9.09596E-3	170.661E-12	668.240E-3	2.38790E-3
4.36968E-3	170.686E-12	646.020E-3	25.9370E-3	170.770E-12	670.370E-3	1.93928E-3
4.36468E-3	170.695E-12	647.656E-3	23.3847E-3	170.190E-12	648.951E-3	14.0461E-3
4.35968E-3	170.331E-12	674.592E-3	333.086E-6	169.935E-12	633.501E-3	23.2963E-3
4.35468E-3	170.061E-12	681.085E-3	-22.5412E-3	170.480E-12	637.073E-3	7.05889E-3
4.34967E-3	169.987E-12	684.691E-3	-32.3591E-3	170.416E-12	640.245E-3	-5.73812E-3
4.34467E-3	169.309E-12	672.140E-3	-15.9299E-3	170.858E-12	653.467E-3	-14.1298E-3
4.33967E-3	170.080E-12	654.472E-3	-10.8807E-3	171.186E-12	678.190E-3	-30.9129E-3
4.33467E-3	170.174E-12	663.553E-3	-38.0496E-3	171.014E-12	676.804E-3	-34.3627E-3
4.32966E-3	169.731E-12	684.003E-3	-29.5707E-3	171.271E-12	653.635E-3	-18.1138E-3
4.32466E-3	170.504E-12	685.306E-3	6.76879E-3	171.422E-12	629.939E-3	-15.8717E-3
4.31966E-3	170.567E-12	682.179E-3	-8.56731E-3	170.338E-12	635.082E-3	-18.3041E-3
4.31466E-3	169.044E-12	694.701E-3	-34.1329E-3	169.755E-12	660.199E-3	-6.21872E-3
4.30965E-3	169.317E-12	693.732E-3	-32.1441E-3	170.595E-12	654.479E-3	-9.69765E-3
4.30465E-3	169.316E-12	679.083E-3	-41.6614E-3	169.332E-12	656.968E-3	-26.9317E-3
4.29965E-3	168.538E-12	687.753E-3	-49.0374E-3	167.661E-12	668.733E-3	-41.8506E-3
4.29465E-3	167.819E-12	693.669E-3	-28.4750E-3	167.402E-12	649.379E-3	-41.5472E-3
4.28964E-3	167.707E-12	661.986E-3	-15.0022E-3	167.689E-12	644.978E-3	-27.7067E-3
4.28464E-3	167.650E-12	632.348E-3	-19.8458E-3	167.000E-12	655.289E-3	-14.2238E-3
4.27964E-3	166.786E-12	632.872E-3	-9.76199E-3	166.916E-12	640.795E-3	-9.08490E-3
4.27464E-3	167.048E-12	659.722E-3	-16.0083E-3	167.005E-12	629.815E-3	-18.5773E-3
4.26963E-3	167.177E-12	688.333E-3	-54.6420E-3	165.542E-12	644.290E-3	-27.8066E-3
4.26463E-3	165.552E-12	691.833E-3	-65.8807E-3	165.528E-12	652.752E-3	-19.7572E-3
4.25963E-3	165.996E-12	689.529E-3	-49.7060E-3	166.367E-12	649.737E-3	-6.06741E-3
4.25463E-3	167.447E-12	698.250E-3	-45.8721E-3	164.993E-12	654.100E-3	7.03552E-3
4.24962E-3	167.130E-12	693.918E-3	-41.8323E-3	164.194E-12	651.534E-3	17.8398E-3
4.24462E-3	166.098E-12	682.617E-3	-30.6314E-3	163.410E-12	640.181E-3	8.13892E-3
4.23962E-3	167.101E-12	670.907E-3	-24.7414E-3	163.411E-12	644.921E-3	-8.87765E-3
4.23462E-3	167.501E-12	652.527E-3	-16.1965E-3	162.486E-12	645.309E-3	-22.9385E-3
4.22961E-3	167.061E-12	649.473E-3	-22.7019E-3	161.551E-12	641.534E-3	-34.0990E-3
4.22461E-3	166.640E-12	652.035E-3	-37.5131E-3	160.998E-12	660.105E-3	-39.2564E-3
4.21961E-3	166.172E-12	662.346E-3	-37.1848E-3	160.650E-12	659.663E-3	-21.5686E-3
4.21461E-3	165.260E-12	669.808E-3	-29.9876E-3	160.371E-12	640.269E-3	614.678E-6
4.20960E-3	164.926E-12	665.661E-3	-21.1594E-3	160.061E-12	637.115E-3	-13.0967E-3
4.20460E-3	164.361E-12	666.616E-3	-19.6173E-3	160.491E-12	640.162E-3	-29.3535E-3
4.19960E-3	163.708E-12	672.601E-3	-23.5210E-3	160.273E-12	655.966E-3	-23.4513E-3
4.19460E-3	162.430E-12	674.079E-3	-22.4018E-3	161.415E-12	672.221E-3	-34.6442E-3
4.18959E-3	162.308E-12	675.364E-3	-7.40162E-3	162.452E-12	666.260E-3	-55.1920E-3
4.18459E-3	162.436E-12	672.320E-3	3.49288E-3	163.470E-12	666.997E-3	-41.8658E-3
4.17959E-3	163.000E-12	648.051E-3	-8.70796E-3	163.172E-12	674.888E-3	-18.6183E-3
4.17459E-3	162.898E-12	640.054E-3	-11.5991E-3	163.991E-12	664.088E-3	-4.12286E-3
4.16958E-3	162.095E-12	657.522E-3	8.88197E-3	164.101E-12	666.367E-3	4.17296E-3
4.16458E-3	162.103E-12	666.549E-3	20.0467E-3	165.138E-12	690.677E-3	5.35994E-3
4.15958E-3	162.603E-12	662.975E-3	14.1597E-3	164.859E-12	695.705E-3	6.87285E-3
4.15458E-3	162.610E-12	664.878E-3	-9.68311E-3	164.435E-12	675.108E-3	-13.7904E-3
4.14957E-3	162.434E-12	656.175E-3	-47.9353E-3	164.684E-12	663.392E-3	-41.7886E-3
4.14457E-3	161.536E-12	645.900E-3	-56.5703E-3	164.202E-12	652.320E-3	-39.8961E-3
4.13957E-3	162.025E-12	653.695E-3	-40.8086E-3	164.025E-12	632.929E-3	-30.7269E-3
4.13457E-3	161.375E-12	653.940E-3	-33.9842E-3	163.380E-12	648.172E-3	-25.4208E-3
4.12956E-3	160.553E-12	643.963E-3	-33.7196E-3	162.935E-12	687.116E-3	-27.2764E-3
4.12456E-3	160.052E-12	651.461E-3	-42.1831E-3	162.215E-12	698.479E-3	-22.3034E-3
4.11956E-3	159.282E-12	665.393E-3	-63.3004E-3	162.409E-12	692.366E-3	-5.83196E-3
4.11456E-3	158.596E-12	651.624E-3	-62.1223E-3	161.426E-12	690.793E-3	-15.0253E-3
4.10955E-3	157.927E-12	638.587E-3	-29.5623E-3	161.105E-12	678.652E-3	-30.5545E-3
4.10455E-3	157.107E-12	635.610E-3	-1.06438E-3	161.580E-12	674.031E-3	-18.6135E-3
4.09955E-3	156.770E-12	630.413E-3	-2.62190E-3	161.143E-12	681.982E-3	9.98291E-3
4.09455E-3	156.398E-12	642.921E-3	-13.9330E-3	160.281E-12	685.164E-3	24.7821E-3
4.08954E-3	157.363E-12	637.493E-3	-4.11886E-3	161.135E-12	685.881E-3	19.3541E-3
4.08454E-3	157.598E-12	609.698E-3	3.54272E-3	161.618E-12	683.295E-3	-2.75515E-3
4.07954E-3	157.751E-12	614.631E-3	5.57204E-3	161.698E-12	668.449E-3	-23.5281E-3
4.07454E-3	157.335E-12	632.114E-3	2.18668E-3	161.408E-12	644.660E-3	-11.9134E-3
4.06953E-3	158.491E-12	645.321E-3	-5.60051E-3	159.777E-12	646.617E-3	18.8012E-3
4.06453E-3	158.387E-12	646.152E-3	-2.90777E-3	159.494E-12	662.435E-3	49.5604E-3
4.05953E-3	158.425E-12	622.958E-3	2.51738E-3	159.930E-12	663.723E-3	60.0780E-3
4.05453E-3	157.983E-12	633.789E-3	-2.00578E-3	158.174E-12	668.589E-3	29.2091E-3
4.04952E-3	157.927E-12	668.515E-3	-6.26777E-3	156.479E-12	669.640E-3	-13.2502E-3
4.04452E-3	157.659E-12	650.723E-3	9.86116E-3	155.959E-12	653.737E-3	-28.0234E-3
4.03952E-3	157.373E-12	629.628E-3	22.0289E-3	155.244E-12	641.355E-3	-6.93955E-3
4.03452E-3	156.035E-12	662.913E-3	4.34540E-3	154.129E-12	622.556E-3	4.34954E-3
4.02951E-3	155.104E-12	687.248E-3	-16.1361E-3	153.223E-12	600.294E-3	-15.2070E-3
4.02451E-3	155.042E-12	672.611E-3	-14.5063E-3	151.847E-12	607.917E-3	-19.3109E-3
4.01951E-3	153.509E-12	657.347E-3	-7.83735E-3	151.704E-12	634.648E-3	-14.5118E-3
4.01451E-3	153.861E-12	655.728E-3	3.87902E-3	151.289E-12	644.896E-3	-7.66730E-3
4.00950E-3	154.647E-12	655.417E-3	10.5718E-3	151.176E-12	619.416E-3	18.1279E-3
4.00450E-3	153.353E-12	655.737E-3	-6.81918E-3	150.381E-12	605.713E-3	11.3002E-3
3.99950E-3	154.221E-12	656.277E-3	-20.4416E-3	150.089E-12	628.990E-3	-26.3973E-3
3.99450E-3	154.682E-12	657.071E-3	-21.1431E-3	151.329E-12	646.643E-3	-29.9660E-3
3.98949E-3	155.637E-12	659.816E-3	-21.1115E-3	151.895E-12	646.729E-3	-13.2407E-3
3.98449E-3	155.821E-12	658.489E-3	-3.31997E-3	152.119E-12	635.472E-3	1.20129E-3
3.97949E-3	156.101E-12	661.067E-3	16.0360E-3	151.655E-12	617.512E-3	-2.85269E-3
3.97449E-3	156.100E-12	655.797E-3	13.9478E-3	152.540E-12	625.261E-3	-35.8837E-3
3.96948E-3	156.913E-12	643.064E-3	-1.20244E-6	152.743E-12	657.284E-3	-45.6958E-3
3.96448E-3	156.644E-12	644.360E-3	-22.6720E-3	153.850E-12	675.297E-3	-11.5972E-3
3.95948E-3	155.926E-12	648.450E-3	-38.3911E-3	154.034E-12	672.907E-3	5.27344E-3
3.95448E-3	155.085E-12	666.342E-3	-30.7271E-3	153.651E-12	661.972E-3	-24.1513E-3
3.94947E-3	153.765E-12	708.937E-3	-17.9778E-3	154.282E-12	659.852E-3	-29.3367E-3
3.94447E-3	153.124E-12	716.361E-3	-13.3550E-3	154.492E-12	682.542E-3	-311.279E-6
3.93947E-3	152.901E-12	672.592E-3	-11.5560E-3	154.557E-12	705.917E-3	12.8065E-3
3.93447E-3	150.980E-12	643.356E-3	-2.41144E-3	153.675E-12	715.029E-3	11.1671E-3
3.92946E-3	150.020E-12	648.586E-3	11.9343E-3	153.927E-12	723.809E-3	-17.7044E-3
3.92446E-3	149.722E-12	663.621E-3	1.24319E-3	153.826E-12	699.141E-3	-43.0430E-3
3.91946E-3	149.839E-12	656.718E-3	-30.8230E-3	153.495E-12	648.692E-3	-27.1516E-3
3.91446E-3	149.883E-12	639.223E-3	-47.9832E-3	152.843E-12	636.680E-3	4.83365E-3
3.90945E-3	149.833E-12	642.696E-3	-23.3377E-3	153.496E-12	646.677E-3	27.7133E-3
3.90445E-3	150.237E-12	649.051E-3	6.17800E-3	153.095E-12	640.705E-3	9.14129E-3
3.89945E-3	150.452E-12	631.892E-3	-10.2459E-3	152.286E-12	647.976E-3	-31.4044E-3
3.89445E-3	151.098E-12	626.018E-3	-37.0822E-3	152.637E-12	679.564E-3	-40.9237E-3
3.88944E-3	151.123E-12	645.351E-3	-37.4280E-3	152.415E-12	696.646E-3	1.93630E-3
3.88444E-3	152.081E-12	664.483E-3	-22.8270E-3	151.197E-12	697.424E-3	56.0669E-3
3.87944E-3	152.314E-12	690.246E-3	-3.56040E-3	151.738E-12	678.583E-3	48.2252E-3
3.87444E-3	151.975E-12	689.906E-3	6.51242E-3	152.866E-12	638.187E-3	585.178E-6
3.86943E-3	150.738E-12	649.328E-3	-2.98611E-3	150.612E-12	645.594E-3	-18.7556E-3
3.86443E-3	150.714E-12	630.595E-3	-7.16471E-3	150.283E-12	687.229E-3	-14.8867E-3
3.85943E-3	149.793E-12	648.869E-3	-9.90827E-3	150.806E-12	679.624E-3	-12.8719E-3
3.85443E-3	150.053E-12	647.094E-3	-9.99979E-3	150.083E-12	658.337E-3	-10.8660E-3
3.84942E-3	148.960E-12	629.366E-3	-12.5579E-3	148.838E-12	659.178E-3	-12.1271E-3
3.84442E-3	148.298E-12	614.914E-3	-19.5067E-3	148.588E-12	650.713E-3	-19.7049E-3
3.83942E-3	148.117E-12	592.993E-3	-11.1138E-3	148.511E-12	646.514E-3	-25.5589E-3
3.83442E-3	147.691E-12	601.106E-3	-14.2245E-3	147.066E-12	665.730E-3	-23.4198E-3
3.82941E-3	146.863E-12	645.528E-3	-22.3852E-3	147.252E-12	666.624E-3	-13.1124E-3
3.82441E-3	146.550E-12	674.565E-3	-26.1583E-3	146.118E-12	638.565E-3	6.06446E-3
3.81941E-3	146.646E-12	685.059E-3	-33.2299E-3	145.915E-12	622.600E-3	20.8074E-3
3.81441E-3	146.626E-12	672.509E-3	-22.4436E-3	144.280E-12	631.037E-3	8.66277E-3
3.80940E-3	147.761E-12	641.152E-3	5.92649E-3	144.281E-12	645.496E-3	-20.6309E-3
3.80440E-3	147.443E-12	654.812E-3	3.62469E-3	143.657E-12	651.211E-3	-58.7088E-3
3.79940E-3	146.406E-12	679.600E-3	-15.5086E-3	142.969E-12	646.063E-3	-92.6993E-3
3.79440E-3	147.138E-12	660.543E-3	-19.8905E-3	142.427E-12	635.176E-3	-67.5832E-3
3.78939E-3	147.410E-12	652.328E-3	-17.6442E-3	142.555E-12	643.456E-3	-10.0731E-3
3.78439E-3	146.513E-12	676.600E-3	-10.8027E-3	142.420E-12	644.805E-3	5.05319E-3
3.77939E-3	146.723E-12	661.681E-3	-18.9972E-3	142.464E-12	614.476E-3	-11.3964E-3
3.77439E-3	146.455E-12	641.637E-3	-35.9280E-3	142.532E-12	617.062E-3	-23.8971E-3
3.76938E-3	145.403E-12	659.973E-3	-43.9478E-3	142.557E-12	644.242E-3	-21.4931E-3
3.76438E-3	144.363E-12	658.864E-3	-30.0525E-3	142.621E-12	648.663E-3	-1.75496E-3
3.75938E-3	144.784E-12	647.808E-3	-7.15827E-3	142.948E-12	646.299E-3	3.40208E-3
3.75438E-3	143.947E-12	671.159E-3	-2.30898E-3	143.015E-12	629.850E-3	-19.8823E-3
3.74937E-3	144.025E-12	713.310E-3	-609.454E-6	143.559E-12	616.099E-3	-29.1162E-3
3.74437E-3	144.586E-12	699.587E-3	4.40556E-3	143.721E-12	641.856E-3	-13.9038E-3
3.73937E-3	143.894E-12	650.214E-3	-5.64436E-3	143.862E-12	685.089E-3	-1.88571E-3
3.73437E-3	143.534E-12	637.218E-3	-8.31751E-3	144.390E-12	702.414E-3	4.90962E-3
3.72936E-3	143.550E-12	655.244E-3	-15.0467E-3	144.511E-12	686.145E-3	17.5080E-3
3.72436E-3	142.790E-12	676.825E-3	-32.4653E-3	144.972E-12	667.262E-3	17.7277E-3
3.71936E-3	142.635E-12	678.173E-3	-11.4052E-3	145.114E-12	670.480E-3	-18.7271E-3
3.71436E-3	142.739E-12	665.127E-3	8.74501E-3	145.189E-12	683.912E-3	-44.7381E-3
3.70935E-3	142.170E-12	672.962E-3	-10.4711E-3	145.210E-12	672.449E-3	-28.9409E-3
3.70435E-3	141.807E-12	693.191E-3	-22.1340E-3	144.613E-12	648.550E-3	-21.5446E-3
3.69935E-3	141.229E-12	697.771E-3	-12.7424E-3	144.423E-12	648.442E-3	-26.0630E-3
3.69435E-3	139.889E-12	691.573E-3	-14.0044E-3	144.378E-12	659.959E-3	-27.0140E-3
3.68934E-3	139.935E-12	684.388E-3	-17.6274E-3	143.307E-12	674.891E-3	-27.9928E-3
3.68434E-3	140.076E-12	677.791E-3	848.475E-6	142.533E-12	678.778E-3	-4.18068E-3
3.67934E-3	138.309E-12	668.535E-3	9.05603E-3	142.676E-12	674.735E-3	15.0115E-3
3.67434E-3	137.987E-12	661.596E-3	-5.32764E-3	142.382E-12	666.410E-3	-8.80596E-3
3.66933E-3	138.295E-12	653.104E-3	-16.0976E-3	141.826E-12	642.469E-3	-37.3939E-3
3.66433E-3	138.665E-12	632.642E-3	-22.2408E-3	140.798E-12	643.496E-3	-16.1721E-3
3.65933E-3	138.809E-12	622.139E-3	-29.5379E-3	141.130E-12	655.698E-3	14.6029E-3
3.65433E-3	139.578E-12	634.805E-3	-33.8222E-3	141.145E-12	653.099E-3	6.12651E-3
3.64932E-3	139.714E-12	654.336E-3	-28.8357E-3	140.584E-12	662.987E-3	-15.4682E-3
3.64432E-3	140.075E-12	665.756E-3	-29.6974E-3	140.060E-12	670.790E-3	-31.1205E-3
3.63932E-3	140.881E-12	657.259E-3	-32.1162E-3	139.925E-12	661.641E-3	-31.6374E-3
3.63432E-3	140.117E-12	651.507E-3	-22.4260E-3	139.543E-12	661.190E-3	-27.7853E-3
3.62931E-3	140.087E-12	670.758E-3	-14.5417E-3	139.104E-12	665.569E-3	-32.2628E-3
3.62431E-3	140.020E-12	685.916E-3	-1.73198E-3	139.623E-12	649.327E-3	-45.5133E-3
3.61931E-3	140.222E-12	683.110E-3	-3.84872E-3	138.845E-12	638.713E-3	-49.7826E-3
3.61431E-3	139.322E-12	675.273E-3	-30.1066E-3	137.975E-12	661.769E-3	-34.0377E-3
3.60930E-3	138.174E-12	657.048E-3	-36.0281E-3	137.684E-12	682.974E-3	-19.9143E-3
3.60430E-3	136.923E-12	632.776E-3	-31.7745E-3	137.650E-12	679.852E-3	-13.7530E-3
3.59930E-3	136.413E-12	636.216E-3	-35.7511E-3	135.233E-12	673.078E-3	-10.9119E-3
3.59430E-3	136.075E-12	660.092E-3	-30.0830E-3	134.758E-12	657.743E-3	-11.2804E-3
3.58929E-3	135.295E-12	663.926E-3	-25.3172E-3	134.901E-12	645.161E-3	-6.46648E-3
3.58429E-3	134.669E-12	646.263E-3	-29.2627E-3	133.748E-12	641.065E-3	330.488E-6
3.57929E-3	134.470E-12	650.605E-3	-28.2940E-3	133.454E-12	622.489E-3	-7.84255E-3
3.57429E-3	135.414E-12	672.812E-3	-32.7627E-3	134.048E-12	621.431E-3	-14.5039E-3
3.56928E-3	135.929E-12	665.221E-3	-47.2799E-3	133.385E-12	650.881E-3	-854.606E-6
3.56428E-3	136.020E-12	653.926E-3	-54.7730E-3	133.529E-12	670.866E-3	-584.620E-6
3.55928E-3	135.903E-12	665.003E-3	-31.3058E-3	134.398E-12	672.029E-3	-17.3889E-3
3.55428E-3	137.427E-12	674.606E-3	-4.19343E-3	133.942E-12	672.633E-3	-24.0262E-3
3.54927E-3	138.258E-12	669.787E-3	-8.16789E-3	134.392E-12	672.270E-3	-35.2462E-3
3.54427E-3	137.424E-12	664.823E-3	-6.54821E-3	135.626E-12	666.628E-3	-37.9623E-3
3.53927E-3	138.198E-12	670.562E-3	-19.8023E-6	135.456E-12	663.759E-3	-22.8067E-3
3.53427E-3	137.679E-12	678.861E-3	-4.30656E-3	135.053E-12	658.722E-3	-32.2550E-3
3.52926E-3	137.204E-12	679.119E-3	-17.9798E-3	136.380E-12	646.126E-3	-32.5115E-3
3.52426E-3	136.683E-12	686.770E-3	-19.2568E-3	135.931E-12	647.760E-3	-8.42375E-3
3.51926E-3	135.896E-12	700.147E-3	777.946E-6	135.597E-12	659.481E-3	-16.0001E-3
3.51426E-3	134.314E-12	699.457E-3	1.50739E-3	136.332E-12	660.778E-3	-35.4681E-3
3.50925E-3	134.201E-12	696.260E-3	377.285E-6	135.419E-12	674.531E-3	-25.0948E-3
3.50425E-3	132.722E-12	709.506E-3	682.234E-6	134.789E-12	692.372E-3	-745.108E-6
3.49925E-3	131.462E-12	723.368E-3	-12.9077E-3	135.121E-12	679.904E-3	1.82610E-3
3.49425E-3	131.307E-12	701.165E-3	-6.65555E-3	134.510E-12	664.609E-3	-14.6313E-3
3.48924E-3	130.934E-12	670.588E-3	59.7192E-6	133.545E-12	662.917E-3	-22.3196E-3
3.48424E-3	130.826E-12	669.430E-3	-9.78677E-3	133.811E-12	660.450E-3	-13.1049E-3
3.47924E-3	130.277E-12	669.601E-3	-8.06604E-3	133.637E-12	666.405E-3	1.17185E-3
3.47424E-3	130.236E-12	653.715E-3	-18.2989E-3	133.188E-12	664.768E-3	4.07672E-3
3.46923E-3	131.130E-12	649.877E-3	-34.8921E-3	132.288E-12	648.933E-3	-632.908E-6
3.46423E-3	131.767E-12	659.013E-3	-28.6164E-3	132.029E-12	646.582E-3	-9.74005E-3
3.45923E-3	131.586E-12	667.336E-3	-14.1806E-3	132.354E-12	655.602E-3	-29.7151E-3
3.45423E-3	132.115E-12	674.173E-3	-12.9588E-3	132.112E-12	654.971E-3	-32.1881E-3
3.44922E-3	131.825E-12	668.722E-3	-21.7052E-3	131.769E-12	653.223E-3	-24.4618E-3
3.44422E-3	131.275E-12	667.397E-3	-12.9585E-3	131.368E-12	653.994E-3	-33.8446E-3
3.43922E-3	131.539E-12	674.082E-3	16.4634E-3	131.025E-12	653.298E-3	-29.4513E-3
3.43422E-3	131.386E-12	665.050E-3	27.3077E-3	130.815E-12	663.129E-3	-16.7046E-3
3.42921E-3	130.721E-12	647.985E-3	9.68671E-3	130.194E-12	666.008E-3	-18.0235E-3
3.42421E-3	129.939E-12	645.777E-3	-5.78165E-3	129.465E-12	656.169E-3	-17.4467E-3
3.41921E-3	130.236E-12	662.204E-3	-12.2866E-3	128.955E-12	667.059E-3	-13.6340E-3
3.41421E-3	129.133E-12	671.033E-3	-9.86128E-3	129.182E-12	694.262E-3	-5.63645E-3
3.40920E-3	128.688E-12	666.316E-3	5.80468E-3	128.092E-12	703.861E-3	261.012E-6
3.40420E-3	128.807E-12	672.825E-3	20.9205E-3	127.275E-12	690.852E-3	-11.0652E-3
3.39920E-3	128.762E-12	685.161E-3	16.3451E-3	127.062E-12	683.185E-3	-13.6446E-3
3.39420E-3	127.856E-12	670.406E-3	-5.06892E-3	125.945E-12	683.182E-3	-21.8589E-3
3.38919E-3	127.829E-12	632.246E-3	-24.6021E-3	125.448E-12	668.442E-3	-44.1879E-3
3.38419E-3	128.010E-12	621.199E-3	-14.2672E-3	125.921E-12	657.707E-3	-39.8292E-3
3.37919E-3	127.901E-12	648.444E-3	7.59073E-3	125.026E-12	657.106E-3	-30.8771E-3
3.37419E-3	127.889E-12	665.341E-3	755.590E-6	124.784E-12	650.074E-3	-37.2293E-3
3.36918E-3	127.547E-12	663.913E-3	-25.1550E-3	124.937E-12	644.623E-3	-46.7044E-3
3.36418E-3	127.674E-12	665.546E-3	-30.4439E-3	125.264E-12	660.619E-3	-46.6767E-3
3.35918E-3	127.962E-12	654.523E-3	-14.3831E-3	125.008E-12	679.530E-3	-21.8290E-3
3.35418E-3	126.899E-12	637.892E-3	-17.4311E-3	124.784E-12	671.478E-3	-6.11901E-3
3.34917E-3	126.937E-12	659.567E-3	-17.4532E-3	124.863E-12	657.933E-3	-18.2871E-3
3.34417E-3	126.487E-12	680.300E-3	-11.8133E-3	125.177E-12	666.423E-3	-35.2243E-3
3.33917E-3	126.225E-12	656.666E-3	-19.9861E-3	125.334E-12	681.507E-3	-35.2162E-3
3.33417E-3	126.040E-12	654.558E-3	-11.6476E-3	125.033E-12	676.705E-3	-13.9459E-3
3.32916E-3	125.320E-12	681.799E-3	8.87016E-3	126.226E-12	665.781E-3	-917.829E-6
3.32416E-3	125.028E-12	701.081E-3	2.31294E-3	126.194E-12	663.697E-3	2.43467E-3
3.31916E-3	125.023E-12	702.101E-3	-14.8085E-3	125.137E-12	650.673E-3	6.86550E-3
3.31416E-3	125.743E-12	689.540E-3	-13.6103E-3	125.820E-12	642.896E-3	-7.37882E-3
3.30915E-3	125.373E-12	686.709E-3	-12.6162E-3	126.275E-12	667.705E-3	-27.0016E-3
3.30415E-3	124.807E-12	699.390E-3	-8.86507E-3	125.779E-12	687.520E-3	-30.5628E-3
3.29915E-3	125.503E-12	696.235E-3	-9.88309E-3	126.423E-12	684.961E-3	-16.6756E-3
3.29415E-3	124.831E-12	679.744E-3	-27.5786E-3	126.860E-12	690.474E-3	-4.30115E-3
3.28914E-3	124.544E-12	687.577E-3	-42.4556E-3	126.364E-12	708.101E-3	-17.1120E-3
3.28414E-3	125.005E-12	699.145E-3	-31.9484E-3	126.159E-12	700.671E-3	-22.4502E-3
3.27914E-3	124.085E-12	690.295E-3	-12.1162E-3	127.106E-12	671.867E-3	-4.11201E-3
3.27414E-3	122.254E-12	681.199E-3	-5.57756E-3	125.500E-12	667.171E-3	-6.46735E-3
3.26913E-3	123.085E-12	676.814E-3	-3.78465E-3	125.151E-12	668.983E-3	-34.7211E-3
3.26413E-3	122.997E-12	668.556E-3	-11.7268E-3	124.894E-12	662.531E-3	-41.4571E-3
3.25913E-3	120.845E-12	669.576E-3	-20.2751E-3	124.540E-12	676.473E-3	-20.0273E-3
3.25413E-3	120.205E-12	675.457E-3	-841.658E-6	123.400E-12	692.457E-3	-2.55154E-3
3.24912E-3	120.987E-12	669.702E-3	23.5782E-3	123.053E-12	681.765E-3	-250.855E-6
3.24412E-3	120.051E-12	670.287E-3	19.9499E-3	122.355E-12	667.424E-3	-3.15771E-3
3.23912E-3	119.745E-12	670.247E-3	5.73135E-3	121.379E-12	675.113E-3	181.719E-6
3.23412E-3	120.554E-12	656.951E-3	-7.37487E-3	121.015E-12	682.006E-3	1.12501E-3
3.22911E-3	120.424E-12	655.028E-3	-24.1918E-3	121.251E-12	669.784E-3	3.83573E-3
3.22411E-3	119.545E-12	667.027E-3	-25.0474E-3	121.002E-12	659.946E-3	9.10910E-3
3.21911E-3	120.283E-12	681.114E-3	1.59316E-3	120.373E-12	663.054E-3	-11.2495E-3
3.21411E-3	120.523E-12	682.591E-3	24.1340E-3	120.415E-12	669.842E-3	-31.5044E-3
3.20910E-3	119.326E-12	675.508E-3	25.9103E-3	119.968E-12	676.478E-3	-21.2923E-3
3.20410E-3	120.128E-12	662.600E-3	15.7088E-3	119.709E-12	682.977E-3	2.35978E-3
3.19910E-3	121.214E-12	653.205E-3	-8.57371E-3	119.436E-12	686.568E-3	16.1428E-3
3.19410E-3	120.262E-12	672.628E-3	-34.7920E-3	119.139E-12	685.517E-3	4.35671E-3
3.18909E-3	119.081E-12	696.508E-3	-42.2258E-3	118.955E-12	670.915E-3	-13.7104E-3
3.18409E-3	119.972E-12	693.538E-3	-39.2611E-3	118.221E-12	655.383E-3	-15.0959E-3
3.17909E-3	119.593E-12	665.842E-3	-26.2769E-3	117.255E-12	648.827E-3	-20.9542E-3
3.17409E-3	118.246E-12	641.694E-3	7.52330E-3	116.734E-12	624.263E-3	-23.0706E-3
3.16908E-3	118.020E-12	636.832E-3	15.9414E-3	117.205E-12	616.192E-3	-10.3023E-3
3.16408E-3	117.857E-12	638.864E-3	-13.5928E-3	116.081E-12	641.819E-3	-18.2461E-3
3.15908E-3	117.331E-12	639.602E-3	-17.3512E-3	115.270E-12	653.351E-3	-35.5963E-3
3.15408E-3	117.307E-12	642.778E-3	-7.85459E-3	114.916E-12	660.718E-3	-26.6594E-3
3.14907E-3	116.938E-12	647.231E-3	-14.6973E-3	114.982E-12	672.533E-3	-20.5368E-3
3.14407E-3	116.108E-12	656.903E-3	-8.55643E-3	115.120E-12	660.226E-3	-38.3460E-3
3.13907E-3	116.098E-12	670.158E-3	-10.1201E-3	115.172E-12	653.122E-3	-42.5050E-3
3.13407E-3	116.329E-12	671.468E-3	-32.0139E-3	114.816E-12	672.636E-3	-33.0013E-3
3.12906E-3	116.373E-12	671.546E-3	-36.2525E-3	115.810E-12	683.062E-3	-29.6053E-3
3.12406E-3	116.372E-12	670.183E-3	-27.8722E-3	116.771E-12	681.383E-3	-17.6488E-3
3.11906E-3	116.362E-12	663.101E-3	-27.0831E-3	116.833E-12	680.378E-3	-9.15268E-3
3.11406E-3	116.169E-12	666.359E-3	-17.2698E-3	117.072E-12	671.532E-3	-27.7997E-3
3.10905E-3	116.701E-12	667.183E-3	14.5702E-3	117.396E-12	672.861E-3	-34.2351E-3
3.10405E-3	116.428E-12	663.026E-3	15.7470E-3	117.558E-12	694.103E-3	-20.7900E-3
3.09905E-3	115.470E-12	684.279E-3	-10.5631E-3	117.931E-12	695.680E-3	-20.2948E-3
3.09405E-3	115.168E-12	702.974E-3	-10.1229E-3	117.728E-12	679.917E-3	-21.3289E-3
3.08904E-3	115.340E-12	687.644E-3	1.19252E-3	116.439E-12	693.019E-3	-18.5924E-3
3.08404E-3	115.175E-12	674.168E-3	-4.43011E-3	116.128E-12	698.969E-3	-21.2910E-3
3.07904E-3	113.819E-12	670.263E-3	-22.4113E-3	116.251E-12	678.163E-3	-22.8906E-3
3.07404E-3	114.134E-12	672.571E-3	-19.4439E-3	115.830E-12	682.674E-3	-20.9616E-3
3.06903E-3	113.759E-12	687.570E-3	-8.75464E-3	114.469E-12	683.652E-3	-14.9925E-3
3.06403E-3	113.104E-12	695.672E-3	-9.81090E-3	114.169E-12	666.946E-3	4.06308E-3
3.05903E-3	112.962E-12	689.198E-3	-1.26981E-3	114.200E-12	677.626E-3	17.1904E-3
3.05403E-3	113.009E-12	677.268E-3	-2.04769E-3	113.799E-12	697.340E-3	1.23656E-3
3.04902E-3	112.541E-12	675.755E-3	-18.4872E-3	112.818E-12	693.110E-3	-9.58843E-3
3.04402E-3	112.514E-12	686.686E-3	-13.2743E-3	112.623E-12	682.246E-3	-13.0824E-3
3.03902E-3	112.579E-12	689.463E-3	13.7167E-3	113.569E-12	676.835E-3	-32.0098E-3
3.03402E-3	112.352E-12	692.279E-3	36.1999E-3	112.846E-12	668.826E-3	-24.3568E-3
3.02901E-3	112.299E-12	700.339E-3	33.8858E-3	112.580E-12	664.620E-3	5.95361E-3
3.02401E-3	112.500E-12	698.387E-3	26.2507E-3	113.136E-12	666.977E-3	-2.41360E-3
3.01901E-3	111.810E-12	690.453E-3	21.5608E-3	111.996E-12	666.577E-3	-32.4557E-3
3.01401E-3	111.590E-12	675.069E-3	4.75087E-3	111.294E-12	663.515E-3	-32.0267E-3
3.00900E-3	111.619E-12	661.583E-3	-19.5300E-3	111.568E-12	667.849E-3	-27.1248E-3
3.00400E-3	111.088E-12	667.050E-3	-38.3318E-3	110.793E-12	680.934E-3	-30.9537E-3
2.99900E-3	110.545E-12	687.618E-3	-29.3609E-3	109.342E-12	678.820E-3	-8.41629E-3
2.99400E-3	109.979E-12	695.226E-3	-18.4637E-3	109.770E-12	663.761E-3	8.56449E-3
2.98899E-3	109.605E-12	686.213E-3	-22.9163E-3	109.086E-12	655.472E-3	-17.2788E-3
2.98399E-3	109.393E-12	673.858E-3	-8.16039E-3	107.681E-12	660.213E-3	-38.1708E-3
2.97899E-3	108.584E-12	648.006E-3	3.26940E-3	107.021E-12	670.738E-3	-25.2200E-3
2.97399E-3	108.461E-12	639.495E-3	-9.27086E-3	106.805E-12	661.617E-3	-20.7279E-3
2.96898E-3	108.312E-12	668.558E-3	-920.105E-6	106.211E-12	641.544E-3	-31.8973E-3
2.96398E-3	108.359E-12	697.974E-3	15.3259E-3	105.768E-12	652.559E-3	-31.9559E-3
2.95898E-3	108.209E-12	706.015E-3	-455.331E-6	105.524E-12	687.647E-3	-34.5690E-3
2.95398E-3	107.952E-12	697.671E-3	-21.4888E-3	105.441E-12	704.629E-3	-39.1284E-3
2.94897E-3	108.257E-12	678.511E-3	-14.8872E-3	105.770E-12	701.313E-3	-24.0871E-3
2.94397E-3	108.006E-12	659.690E-3	-3.49023E-3	106.285E-12	692.834E-3	-9.20860E-3
2.93897E-3	108.048E-12	653.714E-3	-7.18374E-3	106.433E-12	678.031E-3	-12.0154E-3
2.93397E-3	108.244E-12	664.471E-3	-8.89408E-3	106.326E-12	670.995E-3	-12.9184E-3
2.92896E-3	107.682E-12	680.527E-3	-5.68109E-3	106.917E-12	686.579E-3	-11.1385E-3
2.92396E-3	107.555E-12	678.935E-3	-2.31245E-3	107.019E-12	706.240E-3	-6.15177E-3
2.91896E-3	106.977E-12	671.450E-3	-6.47111E-3	107.482E-12	710.273E-3	-3.98838E-3
2.91396E-3	107.226E-12	673.846E-3	-24.6398E-3	107.442E-12	708.747E-3	-30.3466E-3
2.90895E-3	106.324E-12	677.774E-3	-32.7983E-3	107.027E-12	699.434E-3	-45.9920E-3
2.90395E-3	106.256E-12	673.946E-3	-17.6026E-3	107.208E-12	678.437E-3	-19.8504E-3
2.89895E-3	105.017E-12	659.765E-3	6.22578E-3	107.331E-12	673.204E-3	-1.62568E-3
2.89395E-3	105.012E-12	648.043E-3	17.4971E-3	107.368E-12	699.805E-3	-2.79890E-3
2.88894E-3	104.661E-12	651.340E-3	-7.62947E-3	106.722E-12	726.494E-3	-4.99295E-3
2.88394E-3	104.105E-12	660.565E-3	-42.2782E-3	107.052E-12	706.315E-3	-21.9138E-3
2.87894E-3	104.208E-12	663.651E-3	-38.9351E-3	106.656E-12	671.797E-3	-37.6654E-3
2.87394E-3	103.985E-12	670.874E-3	-16.8046E-3	106.735E-12	670.169E-3	-38.0443E-3
2.86893E-3	103.563E-12	689.258E-3	-11.1458E-3	106.297E-12	678.803E-3	-25.2004E-3
2.86393E-3	103.002E-12	697.356E-3	-18.0497E-3	106.051E-12	679.867E-3	-10.3295E-3
2.85893E-3	103.330E-12	691.868E-3	-22.8533E-3	106.021E-12	678.649E-3	-15.0370E-3
2.85393E-3	102.855E-12	681.005E-3	-29.2027E-3	104.919E-12	687.762E-3	-17.6174E-3
2.84892E-3	102.246E-12	670.740E-3	-28.8974E-3	105.043E-12	686.829E-3	-18.1548E-3
2.84392E-3	102.550E-12	680.352E-3	-14.0289E-3	105.189E-12	665.261E-3	-18.9674E-3
2.83892E-3	102.505E-12	698.086E-3	-20.5357E-3	104.300E-12	670.362E-3	-13.3095E-3
2.83392E-3	102.467E-12	698.736E-3	-39.2033E-3	103.451E-12	690.622E-3	-20.9094E-3
2.82891E-3	102.404E-12	681.872E-3	-33.3676E-3	104.011E-12	694.438E-3	-23.5430E-3
2.82391E-3	102.279E-12	681.655E-3	-11.3954E-3	103.064E-12	690.755E-3	-14.9452E-3
2.81891E-3	101.474E-12	702.372E-3	6.06834E-3	102.704E-12	681.085E-3	-18.0213E-3
2.81391E-3	101.559E-12	704.518E-3	10.3305E-3	102.201E-12	682.255E-3	-31.4542E-3
2.80890E-3	101.271E-12	689.549E-3	-263.044E-6	102.276E-12	695.633E-3	-39.0849E-3
2.80390E-3	100.884E-12	674.285E-3	-7.58892E-3	101.186E-12	692.938E-3	-30.5206E-3
2.79890E-3	100.999E-12	660.018E-3	-1.82731E-3	101.135E-12	669.394E-3	-16.0298E-3
2.79390E-3	101.188E-12	661.178E-3	-1.85699E-3	101.184E-12	648.845E-3	-8.65108E-3
2.78889E-3	100.617E-12	680.409E-3	-15.5085E-3	100.204E-12	651.263E-3	-12.1250E-3
2.78389E-3	100.166E-12	688.752E-3	-15.3115E-3	99.9342E-12	687.090E-3	-15.9757E-3
2.77889E-3	100.946E-12	673.393E-3	-4.14711E-3	100.142E-12	728.045E-3	-10.2690E-3
2.77389E-3	100.689E-12	660.633E-3	-5.13563E-3	99.7938E-12	721.028E-3	-17.0167E-3
2.76888E-3	99.6763E-12	670.172E-3	-3.86040E-3	99.3213E-12	681.113E-3	-29.8544E-3
2.76388E-3	100.211E-12	687.604E-3	-10.8741E-3	99.1403E-12	678.757E-3	-21.4337E-3
2.75888E-3	100.196E-12	703.032E-3	-37.5495E-3	98.5792E-12	705.686E-3	-9.93040E-3
2.75388E-3	99.8176E-12	708.301E-3	-48.8309E-3	98.2790E-12	697.536E-3	-16.2261E-3
2.74887E-3	100.019E-12	690.697E-3	-32.2936E-3	98.3069E-12	683.552E-3	-9.12938E-3
2.74387E-3	99.7035E-12	686.147E-3	-25.7271E-3	97.9809E-12	686.916E-3	4.89389E-3
2.73887E-3	99.3998E-12	716.549E-3	-31.7143E-3	97.6514E-12	668.832E-3	-4.94835E-3
2.73387E-3	99.2458E-12	730.504E-3	-45.5010E-3	96.9779E-12	667.423E-3	-19.6400E-3
2.72886E-3	99.6335E-12	708.236E-3	-51.5271E-3	97.3068E-12	700.398E-3	-26.7077E-3
2.72386E-3	99.2994E-12	693.304E-3	-25.2086E-3	97.3393E-12	703.559E-3	-32.0255E-3
2.71886E-3	98.7087E-12	706.782E-3	1.72474E-3	97.1237E-12	680.539E-3	-21.7502E-3
2.71386E-3	99.1622E-12	729.297E-3	6.37323E-3	97.2895E-12	679.960E-3	-7.70366E-3
2.70885E-3	99.2767E-12	726.107E-3	-448.016E-6	97.6957E-12	692.120E-3	-13.1137E-3
2.70385E-3	98.1181E-12	704.605E-3	99.4962E-6	97.9102E-12	703.465E-3	-10.5095E-3
2.69885E-3	98.3214E-12	705.840E-3	1.94057E-3	97.9116E-12	715.457E-3	-875.357E-6
2.69385E-3	98.5421E-12	719.405E-3	-8.40274E-3	98.0289E-12	713.746E-3	-6.08927E-3
2.68884E-3	97.5339E-12	725.972E-3	-21.8236E-3	97.7138E-12	715.030E-3	-17.1500E-3
2.68384E-3	97.1011E-12	722.900E-3	-36.2700E-3	97.7976E-12	722.174E-3	-25.1458E-3
2.67884E-3	96.9167E-12	709.109E-3	-34.1169E-3	98.0178E-12	714.392E-3	-20.4298E-3
2.67384E-3	95.9480E-12	687.187E-3	-17.8641E-3	97.8621E-12	702.612E-3	-479.928E-6
2.66883E-3	95.0865E-12	675.762E-3	-9.41915E-3	97.1362E-12	689.106E-3	4.36153E-3
2.66383E-3	94.4237E-12	691.298E-3	-5.05142E-3	97.3418E-12	683.424E-3	-22.5312E-3
2.65883E-3	93.8686E-12	693.467E-3	-5.81933E-3	97.4058E-12	701.005E-3	-37.6645E-3
2.65383E-3	93.3397E-12	669.777E-3	-12.0705E-3	96.1985E-12	718.368E-3	-20.8676E-3
2.64882E-3	92.8499E-12	666.294E-3	2.19447E-3	95.2620E-12	712.738E-3	-12.5223E-3
2.64382E-3	92.2536E-12	689.030E-3	26.9799E-3	94.7076E-12	691.050E-3	-9.44902E-3
2.63882E-3	92.1411E-12	697.380E-3	21.1188E-3	94.4616E-12	678.861E-3	-13.2835E-3
2.63382E-3	91.7953E-12	685.515E-3	-1.40050E-3	93.7339E-12	681.333E-3	-32.0532E-3
2.62881E-3	91.5587E-12	674.992E-3	-11.3436E-3	93.7461E-12	681.425E-3	-25.6582E-3
2.62381E-3	91.3109E-12	671.574E-3	-15.0724E-3	92.6057E-12	679.691E-3	-3.26778E-3
2.61881E-3	91.9121E-12	681.792E-3	-14.3083E-3	92.4574E-12	689.350E-3	-13.0712E-3
2.61381E-3	90.9011E-12	684.921E-3	-16.3467E-3	92.0538E-12	701.973E-3	-30.6423E-3
2.60880E-3	90.9429E-12	682.935E-3	-29.5973E-3	91.8228E-12	715.755E-3	-28.7876E-3
2.60380E-3	91.3946E-12	697.117E-3	-38.1017E-3	91.0652E-12	725.543E-3	-32.2253E-3
2.59880E-3	90.8830E-12	707.073E-3	-35.0456E-3	90.9779E-12	705.140E-3	-25.4728E-3
2.59380E-3	90.9256E-12	710.065E-3	-20.6426E-3	91.2961E-12	685.869E-3	-7.63269E-3
2.58879E-3	91.3204E-12	715.032E-3	-4.20594E-3	90.6949E-12	681.692E-3	-15.6149E-3
2.58379E-3	91.1337E-12	716.245E-3	-7.91446E-3	89.9973E-12	676.628E-3	-26.4379E-3
2.57879E-3	90.6003E-12	715.707E-3	-29.1006E-3	90.2570E-12	694.361E-3	-13.4826E-3
2.57379E-3	90.5908E-12	716.034E-3	-20.1583E-3	90.1753E-12	719.991E-3	-22.8334E-3
2.56878E-3	90.5776E-12	717.671E-3	-2.73517E-3	89.3659E-12	709.220E-3	-44.8122E-3
2.56378E-3	89.9010E-12	721.443E-3	-11.2833E-3	88.8071E-12	680.098E-3	-36.7963E-3
2.55878E-3	89.7087E-12	715.468E-3	-18.6494E-3	88.6780E-12	666.355E-3	-27.6253E-3
2.55378E-3	89.4948E-12	694.905E-3	-17.0263E-3	88.5482E-12	682.778E-3	-28.2209E-3
2.54877E-3	89.2064E-12	684.224E-3	-17.1996E-3	88.1526E-12	708.312E-3	-18.1261E-3
2.54377E-3	88.5710E-12	697.232E-3	-26.3041E-3	87.6831E-12	697.895E-3	-106.611E-6
2.53877E-3	88.4050E-12	722.512E-3	-27.3177E-3	87.4233E-12	680.304E-3	11.6460E-3
2.53377E-3	87.8876E-12	724.860E-3	-20.1879E-3	87.8508E-12	696.429E-3	-428.807E-6
2.52876E-3	88.0334E-12	700.643E-3	-25.2855E-3	87.6961E-12	724.654E-3	-28.7251E-3
2.52376E-3	88.2009E-12	688.833E-3	-22.7312E-3	87.2663E-12	718.533E-3	-41.1380E-3
2.51876E-3	88.2940E-12	703.449E-3	-5.16003E-3	87.3638E-12	693.136E-3	-28.5326E-3
2.51376E-3	87.8519E-12	728.967E-3	-9.74053E-3	87.5332E-12	702.770E-3	-15.5322E-3
2.50875E-3	88.2247E-12	743.563E-3	-29.3611E-3	87.3706E-12	728.334E-3	-12.9046E-3
2.50375E-3	88.5904E-12	737.129E-3	-35.2727E-3	87.4396E-12	739.177E-3	-5.75380E-3
2.49875E-3	88.4361E-12	719.440E-3	-32.9768E-3	87.3677E-12	746.522E-3	-3.43806E-3
2.49375E-3	88.1415E-12	712.547E-3	-29.9544E-3	87.5900E-12	745.832E-3	-15.0311E-3
2.48874E-3	88.2081E-12	720.800E-3	-33.6243E-3	87.3836E-12	741.752E-3	-24.2628E-3
2.48374E-3	88.4131E-12	740.369E-3	-36.2179E-3	87.6718E-12	742.997E-3	-15.3432E-3
2.47874E-3	87.5403E-12	758.272E-3	-32.7659E-3	87.4863E-12	745.411E-3	-9.18713E-3
2.47374E-3	86.9939E-12	750.025E-3	-31.6845E-3	87.6727E-12	749.822E-3	-10.0157E-3
2.46873E-3	86.9888E-12	737.529E-3	-24.0055E-3	87.3093E-12	748.650E-3	-1.63482E-3
2.46373E-3	86.7754E-12	746.278E-3	-15.1047E-3	87.2746E-12	753.878E-3	-10.5977E-3
2.45873E-3	85.4294E-12	754.038E-3	-25.0120E-3	87.2370E-12	756.519E-3	-28.6758E-3
2.45373E-3	84.6809E-12	741.231E-3	-35.0192E-3	86.5986E-12	742.618E-3	-26.9457E-3
2.44872E-3	84.9710E-12	723.573E-3	-30.6550E-3	86.2038E-12	731.691E-3	-14.3657E-3
2.44372E-3	84.3762E-12	720.038E-3	-20.2179E-3	86.0485E-12	721.215E-3	-13.1240E-3
2.43872E-3	83.7133E-12	727.827E-3	-11.6755E-3	85.8507E-12	722.046E-3	-22.1860E-3
2.43372E-3	83.3065E-12	726.036E-3	-18.5283E-3	85.3842E-12	740.970E-3	-23.9354E-3
2.42871E-3	83.3039E-12	705.071E-3	-30.6580E-3	85.1140E-12	740.667E-3	-22.5682E-3
2.42371E-3	82.6979E-12	694.175E-3	-30.0704E-3	85.0816E-12	731.177E-3	-13.3802E-3
2.41871E-3	82.7163E-12	701.339E-3	-19.0131E-3	84.6012E-12	742.114E-3	-6.98236E-3
2.41371E-3	82.6470E-12	711.972E-3	-2.89155E-3	83.7093E-12	740.744E-3	-17.2927E-3
2.40870E-3	82.6255E-12	720.422E-3	-4.37501E-3	83.0778E-12	723.095E-3	-18.1992E-3
2.40370E-3	81.9660E-12	712.859E-3	-22.6003E-3	82.9263E-12	720.943E-3	-12.5779E-3
2.39870E-3	82.1378E-12	698.901E-3	-20.2620E-3	82.2135E-12	728.027E-3	-9.59154E-3
2.39370E-3	82.0289E-12	708.657E-3	-5.86367E-3	81.7799E-12	724.682E-3	-3.57833E-3
2.38869E-3	81.8055E-12	727.465E-3	3.43064E-3	81.2521E-12	713.357E-3	-12.2016E-3
2.38369E-3	81.7958E-12	731.245E-3	4.37756E-3	80.9461E-12	703.301E-3	-30.4466E-3
2.37869E-3	81.9491E-12	721.542E-3	-12.9086E-3	80.6621E-12	710.096E-3	-42.7702E-3
2.37369E-3	81.2616E-12	708.807E-3	-23.4171E-3	80.3123E-12	737.630E-3	-46.8976E-3
2.36868E-3	80.7680E-12	715.849E-3	-18.0060E-3	80.1475E-12	742.027E-3	-47.1526E-3
2.36368E-3	80.8504E-12	742.934E-3	-21.2792E-3	79.3481E-12	719.746E-3	-48.9432E-3
2.35868E-3	80.7518E-12	757.338E-3	-26.8436E-3	79.5006E-12	714.497E-3	-41.9430E-3
2.35368E-3	80.3839E-12	748.956E-3	-28.3349E-3	79.8406E-12	721.727E-3	-23.2127E-3
2.34867E-3	80.2569E-12	733.688E-3	-22.2040E-3	79.0504E-12	725.761E-3	-9.40734E-3
2.34367E-3	79.7663E-12	728.801E-3	-1.00119E-3	78.5703E-12	730.710E-3	-13.6309E-3
2.33867E-3	79.5411E-12	737.932E-3	5.81251E-3	79.0213E-12	727.367E-3	-24.5807E-3
2.33367E-3	79.6306E-12	750.368E-3	-13.7622E-3	79.2182E-12	724.902E-3	-23.2451E-3
2.32866E-3	79.2681E-12	760.589E-3	-38.5142E-3	78.2726E-12	734.727E-3	-15.5019E-3
2.32366E-3	78.9897E-12	751.188E-3	-43.4829E-3	78.1552E-12	743.902E-3	-21.3744E-3
2.31866E-3	78.4762E-12	718.639E-3	-18.7268E-3	78.3628E-12	735.183E-3	-31.7185E-3
2.31366E-3	78.2492E-12	710.020E-3	3.29230E-3	78.1379E-12	722.950E-3	-25.1977E-3
2.30865E-3	77.9109E-12	734.027E-3	-5.79817E-3	77.5022E-12	730.118E-3	-17.0726E-3
2.30365E-3	77.6257E-12	733.860E-3	-22.7625E-3	77.3441E-12	725.643E-3	-25.0233E-3
2.29865E-3	77.3275E-12	720.470E-3	-23.7001E-3	77.3819E-12	715.041E-3	-25.3417E-3
2.29365E-3	77.2454E-12	732.983E-3	-14.2005E-3	76.9741E-12	732.452E-3	-22.1730E-3
2.28864E-3	76.9759E-12	747.421E-3	-9.50994E-3	76.8388E-12	739.822E-3	-35.3584E-3
2.28364E-3	76.7325E-12	742.427E-3	-29.2010E-3	77.0105E-12	736.109E-3	-44.6365E-3
2.27864E-3	76.5721E-12	744.728E-3	-47.0848E-3	76.8435E-12	754.923E-3	-25.9303E-3
2.27364E-3	76.7053E-12	751.524E-3	-21.0269E-3	76.0768E-12	760.079E-3	1.93917E-3
2.26863E-3	76.3248E-12	737.118E-3	10.5790E-3	76.0314E-12	743.456E-3	11.8866E-3
2.26363E-3	75.8229E-12	740.106E-3	1.66459E-3	76.9586E-12	746.613E-3	-2.37481E-3
2.25863E-3	75.6438E-12	759.149E-3	-19.7541E-3	76.6532E-12	756.396E-3	-17.2591E-3
2.25363E-3	75.3189E-12	744.948E-3	-34.9348E-3	75.7116E-12	759.165E-3	-17.4799E-3
2.24862E-3	74.8990E-12	720.371E-3	-52.2482E-3	75.7604E-12	776.642E-3	-24.7990E-3
2.24362E-3	74.5308E-12	722.705E-3	-44.2532E-3	76.4469E-12	792.834E-3	-29.7130E-3
2.23862E-3	74.1411E-12	741.328E-3	-20.7790E-3	75.9281E-12	782.268E-3	-19.2598E-3
2.23362E-3	73.6383E-12	760.016E-3	-18.0571E-3	75.5042E-12	759.693E-3	-9.16513E-3
2.22861E-3	73.1558E-12	760.184E-3	-17.0606E-3	75.3248E-12	747.230E-3	-7.24098E-3
2.22361E-3	72.8136E-12	745.155E-3	-12.4475E-3	75.0869E-12	758.682E-3	-13.5627E-3
2.21861E-3	72.3298E-12	739.394E-3	-16.0954E-3	74.2897E-12	764.482E-3	-22.5788E-3
2.21361E-3	72.3994E-12	749.409E-3	-22.8687E-3	73.8506E-12	748.954E-3	-26.7197E-3
2.20860E-3	71.7434E-12	766.920E-3	-30.9998E-3	73.5455E-12	744.893E-3	-22.1212E-3
2.20360E-3	71.3774E-12	765.307E-3	-38.1034E-3	72.7041E-12	754.301E-3	-13.4968E-3
2.19860E-3	71.6504E-12	747.543E-3	-43.4539E-3	72.0622E-12	753.785E-3	-14.7776E-3
2.19360E-3	71.7956E-12	731.125E-3	-44.2617E-3	72.2302E-12	734.554E-3	-22.8920E-3
2.18859E-3	71.1112E-12	727.127E-3	-38.1116E-3	71.5873E-12	737.140E-3	-19.3356E-3
2.18359E-3	71.2733E-12	745.125E-3	-24.3127E-3	70.4560E-12	761.016E-3	-6.72096E-3
2.17859E-3	71.5525E-12	755.901E-3	-10.8381E-3	70.5068E-12	757.847E-3	-7.17222E-3
2.17359E-3	71.3181E-12	745.906E-3	-14.4123E-3	70.5861E-12	750.458E-3	-25.2834E-3
2.16858E-3	71.0514E-12	748.339E-3	-15.7569E-3	70.0242E-12	743.841E-3	-35.9030E-3
2.16358E-3	71.1259E-12	759.310E-3	-1.55059E-3	69.4207E-12	729.539E-3	-22.8315E-3
2.15858E-3	70.9006E-12	759.082E-3	-7.84427E-3	69.3063E-12	736.621E-3	-15.9132E-3
2.15358E-3	70.8018E-12	765.324E-3	-20.7587E-3	69.0321E-12	751.550E-3	-25.4577E-3
2.14857E-3	70.6935E-12	780.614E-3	-13.7260E-3	69.1237E-12	755.882E-3	-23.9042E-3
2.14357E-3	70.0717E-12	790.181E-3	-6.22578E-3	68.9424E-12	769.763E-3	-21.1785E-3
2.13857E-3	69.6799E-12	799.016E-3	3.26174E-3	68.3748E-12	790.259E-3	-29.3602E-3
2.13357E-3	69.6994E-12	794.711E-3	10.2498E-3	68.4175E-12	790.198E-3	-30.6314E-3
2.12856E-3	69.4345E-12	772.520E-3	2.18374E-3	68.4951E-12	775.604E-3	-24.8668E-3
2.12356E-3	68.6964E-12	752.825E-3	-6.19149E-3	68.4815E-12	769.751E-3	-14.5022E-3
2.11856E-3	68.8553E-12	751.329E-3	-1.40949E-3	68.2740E-12	770.390E-3	-10.3141E-3
2.11356E-3	68.9029E-12	772.454E-3	6.62433E-3	67.8196E-12	766.818E-3	-25.6977E-3
2.10855E-3	68.6899E-12	790.427E-3	3.45239E-3	67.6097E-12	766.092E-3	-41.5632E-3
2.10355E-3	68.3937E-12	783.986E-3	-7.99973E-3	67.6462E-12	767.626E-3	-34.7114E-3
2.09855E-3	68.3857E-12	765.406E-3	-21.6492E-3	67.2995E-12	772.584E-3	-12.2925E-3
2.09355E-3	68.0674E-12	757.804E-3	-19.7789E-3	66.6383E-12	782.625E-3	-5.40536E-3
2.08854E-3	68.0617E-12	777.390E-3	2.18252E-3	66.6257E-12	788.254E-3	-13.3832E-3
2.08354E-3	67.8643E-12	796.123E-3	5.46835E-3	66.6637E-12	791.426E-3	-11.3143E-3
2.07854E-3	67.2676E-12	803.609E-3	-12.5776E-3	66.4748E-12	794.755E-3	-10.4749E-3
2.07354E-3	66.8923E-12	804.063E-3	-5.71999E-3	66.1231E-12	797.167E-3	-22.9652E-3
2.06853E-3	66.5131E-12	769.847E-3	9.34263E-3	65.9591E-12	795.880E-3	-17.7087E-3
2.06353E-3	66.3263E-12	749.110E-3	-6.27494E-3	66.0997E-12	805.193E-3	2.24999E-3
2.05853E-3	65.9099E-12	786.166E-3	-26.0853E-3	66.0081E-12	824.739E-3	-1.11739E-3
2.05353E-3	65.2606E-12	805.858E-3	-23.4209E-3	65.7202E-12	823.952E-3	-8.31301E-3
2.04852E-3	64.7646E-12	785.498E-3	-18.1965E-3	65.5095E-12	811.404E-3	-11.1950E-3
2.04352E-3	64.3174E-12	770.841E-3	-17.3646E-3	65.5843E-12	794.841E-3	-26.4799E-3
2.03852E-3	63.9926E-12	760.305E-3	-6.10291E-3	65.1867E-12	785.008E-3	-34.9059E-3
2.03352E-3	63.5951E-12	764.593E-3	2.24535E-3	65.1139E-12	803.817E-3	-30.2271E-3
2.02851E-3	63.2170E-12	780.546E-3	-1.87792E-3	64.7245E-12	816.724E-3	-31.5463E-3
2.02351E-3	62.6718E-12	778.057E-3	-780.195E-6	64.4058E-12	807.533E-3	-23.8929E-3
2.01851E-3	62.3841E-12	766.798E-3	628.427E-6	63.8573E-12	811.333E-3	-3.95038E-3
2.01351E-3	62.1399E-12	775.658E-3	-10.5542E-3	63.8186E-12	830.793E-3	-5.23691E-3
2.00850E-3	61.7169E-12	802.877E-3	-20.5601E-3	63.4572E-12	828.054E-3	-12.1736E-3
2.00350E-3	61.2982E-12	801.289E-3	-20.3288E-3	62.6830E-12	809.543E-3	-3.42016E-3
1.99850E-3	61.3830E-12	778.668E-3	-25.1477E-3	62.3597E-12	799.587E-3	-2.58929E-3
1.99350E-3	61.1829E-12	783.251E-3	-25.2932E-3	62.1520E-12	784.914E-3	-20.9204E-3
1.98849E-3	60.6177E-12	789.883E-3	-16.3262E-3	61.6605E-12	785.649E-3	-32.6458E-3
1.98349E-3	60.5403E-12	784.962E-3	-16.0881E-3	60.9561E-12	813.176E-3	-33.7536E-3
1.97849E-3	60.7614E-12	779.621E-3	-29.3945E-3	61.1743E-12	827.430E-3	-37.1151E-3
1.97349E-3	60.2593E-12	771.421E-3	-41.5315E-3	60.6314E-12	821.701E-3	-35.9114E-3
1.96848E-3	60.1988E-12	783.458E-3	-26.5229E-3	60.3561E-12	815.733E-3	-29.8482E-3
1.96348E-3	60.3854E-12	812.800E-3	1.37064E-3	59.7790E-12	810.155E-3	-29.9340E-3
1.95848E-3	59.2371E-12	827.570E-3	1.40798E-3	59.4362E-12	807.067E-3	-20.5990E-3
1.95348E-3	59.2040E-12	823.273E-3	-28.4877E-3	59.3151E-12	813.991E-3	-263.994E-6
1.94847E-3	59.1660E-12	814.431E-3	-45.9153E-3	58.9798E-12	819.503E-3	-361.224E-6
1.94347E-3	58.8986E-12	806.725E-3	-34.8139E-3	58.3791E-12	817.192E-3	-8.06459E-3
1.93847E-3	58.5948E-12	805.343E-3	-19.2519E-3	58.4183E-12	828.398E-3	-8.81209E-3
1.93347E-3	58.4178E-12	811.347E-3	-21.6946E-3	58.5963E-12	836.306E-3	-23.6833E-3
1.92846E-3	58.0825E-12	807.974E-3	-26.7719E-3	57.6118E-12	832.984E-3	-29.3567E-3
1.92346E-3	57.8695E-12	791.664E-3	-24.0969E-3	57.9240E-12	852.439E-3	-9.01202E-3
1.91846E-3	57.5992E-12	789.262E-3	-15.0130E-3	57.9508E-12	874.402E-3	-7.79228E-3
1.91346E-3	57.2615E-12	803.200E-3	-2.90493E-3	57.1157E-12	867.163E-3	-25.5999E-3
1.90845E-3	56.9351E-12	823.733E-3	-8.85992E-3	56.9400E-12	851.805E-3	-36.5401E-3
1.90345E-3	56.7935E-12	845.235E-3	-22.8099E-3	57.2225E-12	858.123E-3	-31.9685E-3
1.89845E-3	56.5174E-12	846.981E-3	-27.0239E-3	56.5499E-12	866.403E-3	-9.52374E-3
1.89345E-3	56.2509E-12	824.132E-3	-26.4267E-3	56.3583E-12	874.950E-3	1.69239E-3
1.88844E-3	56.2620E-12	813.700E-3	-19.6319E-3	56.2298E-12	889.425E-3	-15.0584E-3
1.88344E-3	56.2590E-12	829.179E-3	-6.22136E-3	56.1276E-12	889.833E-3	-35.7283E-3
1.87844E-3	55.8753E-12	834.570E-3	-5.23205E-3	55.9773E-12	890.357E-3	-34.1766E-3
1.87344E-3	55.7265E-12	837.472E-3	-19.3758E-3	55.7474E-12	894.319E-3	-16.4015E-3
1.86843E-3	55.5369E-12	844.198E-3	-23.2687E-3	55.4587E-12	888.714E-3	13.0441E-6
1.86343E-3	55.2929E-12	845.960E-3	-21.6634E-3	55.0224E-12	893.655E-3	13.7669E-3
1.85843E-3	54.8490E-12	863.769E-3	-31.5183E-3	55.0253E-12	904.273E-3	7.80731E-3
1.85343E-3	54.7367E-12	874.096E-3	-36.2088E-3	54.6499E-12	888.707E-3	-8.80588E-3
1.84842E-3	54.0516E-12	861.062E-3	-24.5592E-3	54.2948E-12	872.366E-3	-3.59586E-3
1.84342E-3	53.7261E-12	863.993E-3	-12.6653E-3	53.7816E-12	879.227E-3	-2.43765E-3
1.83842E-3	53.2147E-12	884.131E-3	-12.4063E-3	53.5628E-12	883.518E-3	-21.6192E-3
1.83342E-3	53.1139E-12	894.211E-3	-15.7464E-3	53.3652E-12	875.834E-3	-30.2939E-3
1.82841E-3	52.6021E-12	895.440E-3	-21.4253E-3	53.3542E-12	879.024E-3	-26.1969E-3
1.82341E-3	51.8771E-12	887.230E-3	-31.0034E-3	52.9206E-12	894.112E-3	-22.8192E-3
1.81841E-3	51.2669E-12	864.702E-3	-24.2213E-3	52.1997E-12	906.658E-3	-13.1418E-3
1.81341E-3	51.0985E-12	846.658E-3	-12.3057E-3	51.8550E-12	916.363E-3	-5.01555E-3
1.80840E-3	50.7696E-12	865.013E-3	-21.3374E-3	51.8804E-12	908.330E-3	-11.1472E-3
1.80340E-3	50.2597E-12	889.019E-3	-31.0176E-3	51.5725E-12	892.927E-3	-15.7110E-3
1.79840E-3	50.1992E-12	873.818E-3	-30.4758E-3	50.8700E-12	909.880E-3	-14.3207E-3
1.79340E-3	49.8403E-12	871.219E-3	-17.9945E-3	50.6616E-12	931.808E-3	-14.8781E-3
1.78839E-3	49.8338E-12	889.350E-3	2.98547E-3	50.7305E-12	928.104E-3	-4.64253E-3
1.78339E-3	49.6684E-12	895.232E-3	4.29221E-3	50.1409E-12	919.970E-3	180.646E-6
1.77839E-3	49.4959E-12	901.063E-3	-11.1065E-3	49.6380E-12	923.557E-3	-17.0834E-3
1.77339E-3	49.2019E-12	896.892E-3	-14.5635E-3	49.2644E-12	929.957E-3	-22.9378E-3
1.76838E-3	49.1263E-12	893.045E-3	-7.52695E-3	48.5358E-12	934.370E-3	-10.4259E-3
1.76338E-3	49.0972E-12	905.908E-3	-6.80186E-3	48.1954E-12	938.371E-3	-8.70973E-3
1.75838E-3	48.7752E-12	926.237E-3	-4.51716E-3	48.4712E-12	934.747E-3	-20.8159E-3
1.75338E-3	48.4484E-12	952.548E-3	-11.8873E-3	47.8918E-12	940.948E-3	-24.5948E-3
1.74837E-3	47.9073E-12	963.732E-3	-34.6628E-3	47.1443E-12	950.739E-3	-19.8154E-3
1.74337E-3	47.8782E-12	951.200E-3	-31.7259E-3	46.8107E-12	938.804E-3	-19.0278E-3
1.73837E-3	47.2330E-12	942.480E-3	-7.28860E-3	46.8044E-12	925.297E-3	-25.9128E-3
1.73337E-3	46.7212E-12	956.782E-3	5.79864E-3	46.3292E-12	930.731E-3	-35.9185E-3
1.72836E-3	46.5336E-12	974.948E-3	1.41129E-3	45.7954E-12	940.328E-3	-28.4743E-3
1.72336E-3	46.1286E-12	977.421E-3	-14.5638E-3	45.7614E-12	954.734E-3	-15.0424E-3
1.71836E-3	45.6073E-12	968.657E-3	-24.0217E-3	45.3852E-12	978.957E-3	-18.8607E-3
1.71336E-3	45.2917E-12	960.028E-3	-15.8355E-3	45.2185E-12	981.966E-3	-17.8533E-3
1.70835E-3	44.7995E-12	959.709E-3	-2.42231E-3	45.0478E-12	974.945E-3	-9.28632E-3
1.70335E-3	44.4162E-12	960.803E-3	-9.12592E-3	45.2165E-12	986.522E-3	-11.2013E-3
1.69835E-3	44.1708E-12	957.712E-3	-28.0822E-3	44.5352E-12	996.440E-3	-8.24153E-3
1.69335E-3	43.8891E-12	945.904E-3	-31.4537E-3	44.3084E-12	986.562E-3	-672.825E-6
1.68834E-3	43.6646E-12	948.446E-3	-16.7968E-3	43.9271E-12	980.494E-3	-6.23165E-3
1.68334E-3	43.3786E-12	979.422E-3	-7.47819E-3	43.8404E-12	992.789E-3	-15.5941E-3
1.67834E-3	43.2495E-12	997.697E-3	-18.2197E-3	43.3556E-12	1.00973E+0	-14.1575E-3
1.67334E-3	43.2555E-12	986.420E-3	-28.6899E-3	43.0065E-12	1.02702E+0	-10.3347E-3
1.66833E-3	42.9010E-12	978.213E-3	-25.0346E-3	42.7678E-12	1.02825E+0	-12.9933E-3
1.66333E-3	42.5728E-12	990.042E-3	-12.0278E-3	42.5169E-12	1.02152E+0	-13.8946E-3
1.65833E-3	42.1972E-12	1.01346E+0	-4.84336E-3	41.9177E-12	1.03523E+0	-7.16396E-3
1.65333E-3	42.0240E-12	1.04212E+0	-10.7973E-3	41.6071E-12	1.04256E+0	-6.85433E-3
1.64832E-3	41.5669E-12	1.04691E+0	-19.5384E-3	41.4646E-12	1.03256E+0	-16.3044E-3
1.64332E-3	41.1281E-12	1.03107E+0	-21.5492E-3	41.3682E-12	1.03838E+0	-27.7190E-3
1.63832E-3	40.7898E-12	1.03706E+0	-8.75702E-3	41.0099E-12	1.05901E+0	-44.2286E-3
1.63332E-3	40.5189E-12	1.05601E+0	8.98047E-3	40.3720E-12	1.07031E+0	-43.2639E-3
1.62831E-3	40.0051E-12	1.06229E+0	4.45139E-3	40.2347E-12	1.07464E+0	-19.4855E-3
1.62331E-3	39.5671E-12	1.05477E+0	-19.4043E-3	40.3094E-12	1.07454E+0	-9.65376E-3
1.61831E-3	39.0462E-12	1.03644E+0	-26.5441E-3	39.6458E-12	1.05660E+0	-16.4991E-3
1.61331E-3	38.9629E-12	1.02761E+0	-11.9939E-3	39.0875E-12	1.05357E+0	-23.0705E-3
1.60830E-3	38.1528E-12	1.04974E+0	-6.25220E-3	38.9585E-12	1.08050E+0	-27.2212E-3
1.60330E-3	37.6743E-12	1.06681E+0	-6.23482E-3	38.4472E-12	1.08854E+0	-19.2143E-3
1.59830E-3	37.3300E-12	1.05937E+0	-12.7694E-3	38.1307E-12	1.08146E+0	-6.65546E-3
1.59330E-3	36.9562E-12	1.05979E+0	-24.7751E-3	37.6196E-12	1.09071E+0	-13.2740E-3
1.58829E-3	36.3595E-12	1.05283E+0	-11.1061E-3	37.0088E-12	1.10227E+0	-23.9573E-3
1.58329E-3	36.2344E-12	1.04011E+0	2.61339E-3	36.7843E-12	1.10592E+0	-22.0079E-3
1.57829E-3	35.9874E-12	1.05502E+0	-12.9608E-3	36.3259E-12	1.11852E+0	-15.8709E-3
1.57329E-3	35.6430E-12	1.07373E+0	-24.6098E-3	35.6147E-12	1.13240E+0	-8.04456E-3
1.56828E-3	35.5082E-12	1.07291E+0	-14.7827E-3	35.0701E-12	1.12418E+0	-11.2921E-3
1.56328E-3	35.0533E-12	1.07807E+0	-9.24153E-3	34.7696E-12	1.10975E+0	-26.1277E-3
1.55828E-3	34.7588E-12	1.10523E+0	-11.6093E-3	34.3403E-12	1.10643E+0	-32.6175E-3
1.55328E-3	34.6793E-12	1.12366E+0	-10.3639E-3	34.1113E-12	1.11277E+0	-24.4053E-3
1.54827E-3	34.4107E-12	1.12245E+0	-18.4615E-3	33.6999E-12	1.12457E+0	-17.8726E-3
1.54327E-3	33.9002E-12	1.12616E+0	-19.3804E-3	33.1221E-12	1.12717E+0	-20.8618E-3
1.53827E-3	33.7406E-12	1.12703E+0	2.32443E-3	32.8464E-12	1.12092E+0	-22.6077E-3
1.53327E-3	33.5333E-12	1.13312E+0	10.8012E-3	32.8104E-12	1.12152E+0	-24.2098E-3
1.52826E-3	32.9388E-12	1.15471E+0	-4.04430E-3	32.4616E-12	1.12823E+0	-21.4399E-3
1.52326E-3	32.3116E-12	1.15524E+0	-19.9229E-3	31.9233E-12	1.13256E+0	-8.92311E-3
1.51826E-3	31.9505E-12	1.13759E+0	-21.4123E-3	31.5213E-12	1.14044E+0	-3.25291E-3
1.51326E-3	31.7527E-12	1.13994E+0	-6.81051E-3	31.1333E-12	1.14571E+0	-10.2188E-3
1.50825E-3	31.1148E-12	1.15536E+0	7.53851E-3	31.0089E-12	1.14173E+0	-19.7985E-3
1.50325E-3	30.5915E-12	1.16321E+0	859.096E-6	30.6362E-12	1.14681E+0	-20.3886E-3
1.49825E-3	30.4249E-12	1.16142E+0	-21.7605E-3	29.8912E-12	1.15455E+0	-15.3215E-3
1.49325E-3	29.9938E-12	1.14716E+0	-31.3208E-3	29.5936E-12	1.15119E+0	-20.5464E-3
1.48824E-3	29.2134E-12	1.13772E+0	-24.7370E-3	29.4462E-12	1.14422E+0	-32.2429E-3
1.48324E-3	28.9528E-12	1.15095E+0	-14.8648E-3	28.9811E-12	1.14492E+0	-38.7190E-3
1.47824E-3	28.6740E-12	1.16435E+0	-7.99050E-3	28.4416E-12	1.15715E+0	-36.3338E-3
1.47324E-3	28.2155E-12	1.16116E+0	-9.31487E-3	27.9591E-12	1.17648E+0	-33.5144E-3
1.46823E-3	27.8698E-12	1.16523E+0	-16.2003E-3	27.7347E-12	1.18886E+0	-46.5163E-3
1.46323E-3	27.4188E-12	1.16981E+0	-17.5340E-3	27.6112E-12	1.17227E+0	-51.3546E-3
1.45823E-3	27.1136E-12	1.15054E+0	-8.78959E-3	27.2509E-12	1.15960E+0	-22.5713E-3
1.45323E-3	26.8546E-12	1.14247E+0	-2.30218E-3	26.6212E-12	1.18459E+0	-4.62948E-3
1.44822E-3	26.6806E-12	1.15620E+0	-1.87781E-3	26.2583E-12	1.19959E+0	-8.25589E-3
1.44322E-3	26.1356E-12	1.15821E+0	-9.88064E-3	26.2296E-12	1.19239E+0	-5.22592E-3
1.43822E-3	25.8682E-12	1.16008E+0	-23.3256E-3	25.8617E-12	1.18412E+0	-14.6992E-3
1.43322E-3	25.6228E-12	1.17165E+0	-21.5364E-3	25.6874E-12	1.15593E+0	-36.9319E-3
1.42821E-3	25.2687E-12	1.17897E+0	-11.8443E-3	25.3083E-12	1.12755E+0	-42.7633E-3
1.42321E-3	24.7656E-12	1.18738E+0	-14.8905E-3	24.7469E-12	1.13933E+0	-38.8043E-3
1.41821E-3	24.3765E-12	1.19033E+0	-17.5113E-3	24.1711E-12	1.14700E+0	-27.9864E-3
1.41321E-3	23.8629E-12	1.17747E+0	-6.58690E-3	23.9525E-12	1.13077E+0	-13.5095E-3
1.40820E-3	23.4399E-12	1.16150E+0	3.06007E-3	23.5241E-12	1.13974E+0	-23.3445E-3
1.40320E-3	23.0273E-12	1.15139E+0	1.75153E-3	22.9128E-12	1.14827E+0	-42.5131E-3
1.39820E-3	22.4925E-12	1.14205E+0	-14.0643E-3	22.5579E-12	1.12703E+0	-37.7465E-3
1.39320E-3	22.0177E-12	1.13123E+0	-38.4875E-3	22.3178E-12	1.10464E+0	-31.8945E-3
1.38819E-3	21.6312E-12	1.12371E+0	-39.6862E-3	21.8050E-12	1.09180E+0	-33.7870E-3
1.38319E-3	21.3744E-12	1.11811E+0	-19.3449E-3	21.2785E-12	1.08531E+0	-23.1237E-3
1.37819E-3	20.9438E-12	1.11496E+0	-7.46562E-3	21.0048E-12	1.08735E+0	-15.2148E-3
1.37319E-3	20.4540E-12	1.11558E+0	-17.8311E-3	20.7564E-12	1.08307E+0	-19.2505E-3
1.36818E-3	20.0230E-12	1.10870E+0	-29.0950E-3	20.3223E-12	1.06693E+0	-16.7354E-3
1.36318E-3	19.8979E-12	1.09421E+0	-16.0839E-3	19.8562E-12	1.05628E+0	-5.92009E-3
1.35818E-3	19.6805E-12	1.08912E+0	-2.84652E-3	19.5245E-12	1.05334E+0	-10.3041E-3
1.35318E-3	19.1336E-12	1.09048E+0	2.47399E-3	19.0866E-12	1.05046E+0	-23.3039E-3
1.34817E-3	18.8080E-12	1.08570E+0	5.47532E-3	18.8799E-12	1.04136E+0	-24.6748E-3
1.34317E-3	18.5625E-12	1.07818E+0	-1.75953E-3	18.5079E-12	1.03063E+0	-24.6019E-3
1.33817E-3	18.4861E-12	1.06964E+0	-7.55403E-3	18.0675E-12	1.02257E+0	-23.5361E-3
1.33317E-3	18.1827E-12	1.06620E+0	-2.12214E-3	17.7518E-12	1.01045E+0	-21.2017E-3
1.32816E-3	17.7017E-12	1.07417E+0	224.488E-6	17.4090E-12	1.00308E+0	-23.6557E-3
1.32316E-3	17.3342E-12	1.06454E+0	-13.5524E-3	16.9726E-12	986.256E-3	-28.9583E-3
1.31816E-3	17.0676E-12	1.03109E+0	-24.2916E-3	16.5304E-12	959.623E-3	-22.3035E-3
1.31316E-3	16.6474E-12	1.00848E+0	-14.9303E-3	16.2265E-12	948.193E-3	-17.0353E-3
1.30815E-3	16.2677E-12	1.00547E+0	4.14631E-3	15.9917E-12	931.584E-3	-18.8738E-3
1.30315E-3	15.8349E-12	998.611E-3	2.66997E-3	15.6412E-12	914.251E-3	-7.91846E-3
1.29815E-3	15.5295E-12	980.710E-3	-21.0150E-3	15.2756E-12	907.838E-3	-7.52456E-3
1.29315E-3	15.1159E-12	971.610E-3	-28.1767E-3	14.9263E-12	887.622E-3	-15.9966E-3
1.28814E-3	14.8163E-12	956.627E-3	-19.0018E-3	14.7109E-12	862.576E-3	-14.7443E-3
1.28314E-3	14.4061E-12	937.024E-3	-15.3810E-3	14.4853E-12	858.459E-3	-16.1447E-3
1.27814E-3	14.1683E-12	930.547E-3	-3.24229E-3	14.1729E-12	861.110E-3	-19.7975E-3
1.27314E-3	13.8983E-12	912.646E-3	9.75711E-3	13.8475E-12	854.485E-3	-13.3479E-3
1.26813E-3	13.6310E-12	887.299E-3	-1.29640E-3	13.6057E-12	842.752E-3	2.87144E-3
1.26313E-3	13.3539E-12	885.739E-3	-8.39783E-3	13.4413E-12	814.618E-3	1.81119E-3
1.25813E-3	13.0389E-12	891.817E-3	-2.44141E-3	13.1664E-12	779.260E-3	-15.9599E-3
1.25313E-3	12.7509E-12	882.741E-3	-8.60520E-3	12.8317E-12	770.763E-3	-21.6983E-3
1.24812E-3	12.6533E-12	864.746E-3	-10.7046E-3	12.4356E-12	773.557E-3	-20.3530E-3
1.24312E-3	12.3752E-12	837.248E-3	-2.51387E-3	12.1191E-12	758.535E-3	-18.7105E-3
1.23812E-3	12.0510E-12	807.981E-3	-4.11878E-3	12.0300E-12	742.473E-3	-22.6576E-3
1.23312E-3	11.8999E-12	789.924E-3	-13.9556E-3	11.8636E-12	738.462E-3	-45.1595E-3
1.22811E-3	11.6472E-12	780.710E-3	-10.9146E-3	11.4625E-12	726.038E-3	-54.2309E-3
1.22311E-3	11.3994E-12	768.324E-3	22.0507E-6	11.2412E-12	701.806E-3	-29.5288E-3
1.21811E-3	11.0758E-12	751.970E-3	-2.31505E-3	11.0377E-12	679.618E-3	-16.5058E-3
1.21311E-3	10.8238E-12	736.044E-3	-1.80349E-3	10.8703E-12	669.232E-3	-21.8737E-3
1.20810E-3	10.5548E-12	722.172E-3	5.70575E-3	10.5817E-12	672.116E-3	-13.8454E-3
1.20310E-3	10.3658E-12	705.290E-3	-5.18057E-3	10.2777E-12	660.289E-3	-11.6071E-3
1.19810E-3	10.0975E-12	679.929E-3	-14.4888E-3	10.0687E-12	629.524E-3	-13.6163E-3
1.19310E-3	9.88435E-12	655.407E-3	-5.47974E-3	9.98631E-12	614.111E-3	1.53856E-3
1.18809E-3	9.66308E-12	644.328E-3	-6.82598E-3	9.81234E-12	610.138E-3	3.42226E-3
1.18309E-3	9.52217E-12	639.237E-3	-18.0027E-3	9.51094E-12	593.763E-3	-7.13226E-3
1.17809E-3	9.22326E-12	626.457E-3	-23.8000E-3	9.29984E-12	576.257E-3	-10.6333E-3
1.17309E-3	8.99945E-12	619.721E-3	-32.5561E-3	9.20390E-12	560.955E-3	-22.4326E-3
1.16808E-3	8.78463E-12	615.115E-3	-32.0935E-3	8.95416E-12	533.492E-3	-28.9086E-3
1.16308E-3	8.66922E-12	587.457E-3	-8.98976E-3	8.71570E-12	511.909E-3	-16.9076E-3
1.15808E-3	8.47898E-12	547.312E-3	2.82067E-3	8.49113E-12	506.453E-3	-17.6468E-3
1.15308E-3	8.26568E-12	522.588E-3	-5.01127E-3	8.27498E-12	494.332E-3	-30.5966E-3
1.14807E-3	8.11794E-12	522.987E-3	-10.7541E-3	8.08281E-12	473.260E-3	-24.3452E-3
1.14307E-3	8.01702E-12	520.812E-3	-18.6185E-3	7.98050E-12	455.810E-3	-12.9063E-3
1.13807E-3	7.81980E-12	495.968E-3	-25.2683E-3	7.72791E-12	437.269E-3	-14.2925E-3
1.13307E-3	7.70975E-12	476.347E-3	-21.7249E-3	7.52391E-12	417.438E-3	-19.5604E-3
1.12806E-3	7.58014E-12	476.852E-3	-26.1827E-3	7.39273E-12	414.646E-3	-19.4077E-3
1.12306E-3	7.36941E-12	478.632E-3	-35.2694E-3	7.29022E-12	412.123E-3	-13.6732E-3
1.11806E-3	7.20727E-12	460.523E-3	-31.6173E-3	7.12345E-12	393.942E-3	-5.72782E-3
1.11306E-3	7.12688E-12	428.613E-3	-36.7761E-3	6.98478E-12	378.542E-3	-9.10684E-3
1.10805E-3	6.98376E-12	418.995E-3	-43.1134E-3	6.86606E-12	365.630E-3	-24.5867E-3
1.10305E-3	6.80701E-12	420.485E-3	-31.5188E-3	6.82205E-12	342.261E-3	-29.2991E-3
1.09805E-3	6.72701E-12	400.186E-3	-25.4156E-3	6.68346E-12	328.049E-3	-23.1684E-3
1.09305E-3	6.60584E-12	387.650E-3	-31.7083E-3	6.44096E-12	326.481E-3	-20.1948E-3
1.08804E-3	6.47564E-12	384.410E-3	-34.9713E-3	6.37095E-12	317.265E-3	-12.0755E-3
1.08304E-3	6.33905E-12	359.901E-3	-38.1964E-3	6.35583E-12	319.938E-3	4.23973E-3
1.07804E-3	6.20501E-12	344.213E-3	-35.0245E-3	6.28207E-12	325.494E-3	-3.77522E-3
1.07304E-3	6.15391E-12	348.499E-3	-17.1101E-3	6.13879E-12	306.117E-3	-20.5743E-3
1.06803E-3	5.97711E-12	337.642E-3	-5.75119E-3	5.91723E-12	279.698E-3	-11.6968E-3
1.06303E-3	5.85994E-12	317.251E-3	-11.4728E-3	5.78579E-12	261.008E-3	-7.04828E-3
1.05803E-3	5.76793E-12	307.612E-3	-16.5531E-3	5.77105E-12	252.921E-3	-16.4945E-3
1.05303E-3	5.63895E-12	306.072E-3	-12.3675E-3	5.68268E-12	250.558E-3	-17.9345E-3
1.04802E-3	5.58434E-12	301.417E-3	-5.36612E-3	5.49009E-12	237.856E-3	-23.5966E-3
1.04302E-3	5.68428E-12	285.033E-3	-5.39915E-3	5.52112E-12	220.849E-3	-30.5436E-3
1.03802E-3	5.43278E-12	265.482E-3	-14.1949E-3	5.35063E-12	206.602E-3	-14.3985E-3
1.03302E-3	5.30085E-12	251.944E-3	-12.9766E-3	5.28352E-12	196.694E-3	-3.81928E-3
1.02801E-3	5.13332E-12	239.395E-3	-5.79279E-3	5.12204E-12	187.745E-3	-14.4609E-3
1.02301E-3	4.99387E-12	228.371E-3	-5.98948E-3	4.95699E-12	189.006E-3	-11.8967E-3
1.01801E-3	4.93398E-12	226.536E-3	-13.3653E-3	4.80529E-12	197.311E-3	-288.513E-6
1.01301E-3	4.87564E-12	220.627E-3	-22.7624E-3	4.83930E-12	177.439E-3	-3.63313E-3
1.00800E-3	4.82018E-12	200.918E-3	-17.9933E-3	4.89641E-12	162.137E-3	-15.6095E-3
1.00300E-3	4.72862E-12	182.694E-3	-10.3851E-3	4.71733E-12	180.424E-3	-28.0509E-3
997.999E-6	4.69566E-12	177.886E-3	-11.9226E-3	4.57041E-12	186.879E-3	-34.8957E-3
992.997E-6	4.67190E-12	175.530E-3	-11.8164E-3	4.68355E-12	173.533E-3	-24.3244E-3
987.994E-6	4.54811E-12	170.980E-3	-7.04073E-3	4.64238E-12	166.940E-3	-4.02168E-3
982.991E-6	4.46549E-12	172.967E-3	2.83342E-3	4.50190E-12	166.729E-3	5.05596E-3
977.989E-6	4.39904E-12	173.560E-3	3.84519E-3	4.38740E-12	162.456E-3	2.53692E-3
972.986E-6	4.36832E-12	170.492E-3	-18.3623E-3	4.29579E-12	160.883E-3	-689.985E-6
967.984E-6	4.31230E-12	169.331E-3	-25.9545E-3	4.28856E-12	150.121E-3	-2.98055E-3
962.981E-6	4.17207E-12	158.299E-3	-7.69492E-3	4.26387E-12	124.443E-3	-2.71933E-3
957.979E-6	4.11309E-12	139.269E-3	-4.72591E-3	4.11246E-12	119.372E-3	-4.03138E-3
952.976E-6	4.10622E-12	132.828E-3	-14.5818E-3	4.04732E-12	129.902E-3	-10.0632E-3
947.974E-6	4.05162E-12	144.353E-3	-17.0230E-3	4.02352E-12	129.283E-3	-2.02959E-3
942.971E-6	4.02892E-12	157.430E-3	-22.1917E-3	4.04549E-12	123.445E-3	12.1981E-3
937.969E-6	3.98961E-12	146.141E-3	-32.8757E-3	3.98825E-12	108.628E-3	5.89457E-3
932.966E-6	3.94534E-12	126.888E-3	-34.0037E-3	3.91968E-12	85.9819E-3	-5.06437E-3
927.964E-6	3.97074E-12	123.515E-3	-21.9453E-3	3.85119E-12	91.8283E-3	-7.01819E-3
922.961E-6	3.88829E-12	122.872E-3	-7.72461E-3	3.89279E-12	115.613E-3	-8.50184E-3
917.959E-6	3.83411E-12	128.074E-3	-6.05553E-3	3.88394E-12	113.816E-3	-13.7933E-3
912.956E-6	3.79549E-12	133.445E-3	-18.6212E-3	3.76030E-12	103.702E-3	-15.2243E-3
907.954E-6	3.79631E-12	124.792E-3	-29.1399E-3	3.64563E-12	113.247E-3	-13.5549E-3
902.951E-6	3.76622E-12	122.104E-3	-24.7112E-3	3.72266E-12	114.310E-3	-18.3659E-3
897.949E-6	3.70116E-12	117.150E-3	-19.7964E-3	3.71847E-12	101.901E-3	-15.4328E-3
892.946E-6	3.66016E-12	102.968E-3	-23.0172E-3	3.67734E-12	100.678E-3	-13.5239E-3
887.944E-6	3.59353E-12	101.643E-3	-21.9294E-3	3.53392E-12	103.122E-3	-20.5984E-3
882.941E-6	3.56126E-12	108.235E-3	-13.0286E-3	3.48109E-12	106.110E-3	-12.9325E-3
877.939E-6	3.50644E-12	107.590E-3	-15.5271E-3	3.51099E-12	103.998E-3	-4.57441E-3
872.936E-6	3.54521E-12	102.563E-3	-27.3016E-3	3.51360E-12	84.8488E-3	-14.6205E-3
867.934E-6	3.38028E-12	102.291E-3	-28.4361E-3	3.39837E-12	77.0364E-3	-19.1571E-3
862.931E-6	3.39850E-12	93.1405E-3	-20.6671E-3	3.33573E-12	91.6110E-3	-20.5049E-3
857.929E-6	3.42308E-12	72.5623E-3	-9.21753E-3	3.36710E-12	96.6327E-3	-37.8372E-3
852.926E-6	3.35174E-12	66.3263E-3	-8.87096E-3	3.38836E-12	90.3164E-3	-37.8677E-3
847.924E-6	3.29299E-12	71.8023E-3	-21.0851E-3	3.36696E-12	87.3453E-3	-15.4679E-3
842.921E-6	3.23421E-12	78.2835E-3	-22.0142E-3	3.27494E-12	75.4662E-3	-7.07129E-3
837.919E-6	3.29441E-12	83.0601E-3	-10.4414E-3	3.26351E-12	58.5009E-3	-540.902E-6
832.916E-6	3.25907E-12	80.3868E-3	-12.4174E-3	3.27391E-12	63.0256E-3	644.741E-6
827.914E-6	3.22135E-12	77.8658E-3	-18.2162E-3	3.28129E-12	72.0668E-3	-21.4627E-3
822.911E-6	3.20277E-12	85.2724E-3	-7.87272E-3	3.23481E-12	61.7432E-3	-31.5757E-3
817.909E-6	3.18084E-12	96.1266E-3	-5.01428E-3	3.12395E-12	51.9821E-3	-20.1148E-3
812.906E-6	3.16060E-12	86.8170E-3	-18.9903E-3	3.11222E-12	54.5165E-3	-18.6863E-3
807.904E-6	3.17050E-12	61.0241E-3	-20.4892E-3	3.13305E-12	57.3780E-3	-19.7593E-3
802.901E-6	3.11544E-12	61.4516E-3	-3.44822E-3	3.13891E-12	59.8325E-3	-15.7680E-3
797.899E-6	3.07295E-12	82.8151E-3	6.07177E-3	3.00063E-12	64.3726E-3	-22.1457E-3
792.896E-6	3.04355E-12	93.0872E-3	-465.323E-6	2.99193E-12	59.7984E-3	-24.9517E-3
787.894E-6	3.01562E-12	88.2835E-3	-15.2959E-3	2.98295E-12	51.3170E-3	-22.9067E-3
782.891E-6	2.98117E-12	71.7957E-3	-31.1831E-3	3.06317E-12	64.2391E-3	-28.4349E-3
777.889E-6	2.88382E-12	64.2816E-3	-31.4985E-3	2.93895E-12	84.3500E-3	-24.7358E-3
772.886E-6	2.91792E-12	72.0344E-3	-19.8349E-3	2.87123E-12	85.6249E-3	-13.7401E-3
767.884E-6	2.89961E-12	85.3521E-3	-21.0082E-3	2.82544E-12	77.7898E-3	-10.6361E-3
762.881E-6	2.88093E-12	96.9060E-3	-22.1824E-3	2.91976E-12	65.5870E-3	-6.26079E-3
757.879E-6	2.82239E-12	90.5381E-3	-16.0076E-3	2.88820E-12	58.4535E-3	1.18246E-3
752.876E-6	2.78982E-12	80.9850E-3	-24.3940E-3	2.80598E-12	74.9244E-3	-8.80738E-3
747.874E-6	2.76368E-12	76.4626E-3	-33.6331E-3	2.79121E-12	84.3110E-3	-21.0087E-3
742.871E-6	2.76603E-12	61.4858E-3	-25.5449E-3	2.76561E-12	69.9067E-3	-11.9260E-3
737.869E-6	2.74541E-12	51.7120E-3	-14.2400E-3	2.86821E-12	68.8234E-3	-17.5439E-3
732.866E-6	2.70122E-12	59.2606E-3	-7.97261E-3	2.75375E-12	71.5309E-3	-41.7973E-3
727.864E-6	2.70788E-12	64.1738E-3	-4.58797E-3	2.65940E-12	64.1067E-3	-42.2424E-3
722.861E-6	2.64578E-12	52.3802E-3	-6.36909E-3	2.66811E-12	70.6065E-3	-18.7292E-3
717.859E-6	2.68522E-12	41.0394E-3	-16.6980E-3	2.67637E-12	76.4884E-3	-2.15139E-3
712.856E-6	2.61848E-12	40.5647E-3	-27.9826E-3	2.63228E-12	76.2503E-3	5.24538E-3
707.854E-6	2.58602E-12	33.1413E-3	-20.2231E-3	2.54595E-12	79.3761E-3	3.82915E-3
702.851E-6	2.57150E-12	33.2195E-3	-4.48610E-3	2.47186E-12	62.5152E-3	-8.66913E-3
697.849E-6	2.58155E-12	56.2381E-3	-1.59855E-3	2.49711E-12	44.1995E-3	-5.61104E-3
692.846E-6	2.60292E-12	68.3301E-3	-9.90508E-3	2.54679E-12	61.7485E-3	3.21780E-3
687.844E-6	2.52480E-12	63.5856E-3	-19.6713E-3	2.48771E-12	80.8242E-3	-9.41406E-3
682.841E-6	2.45222E-12	62.0052E-3	-23.0158E-3	2.38554E-12	70.7514E-3	-21.1237E-3
677.839E-6	2.44361E-12	53.3697E-3	-11.4837E-3	2.34635E-12	64.0029E-3	-22.8755E-3
672.836E-6	2.40541E-12	46.1752E-3	-1.76281E-3	2.45625E-12	64.6218E-3	-28.4446E-3
667.834E-6	2.38066E-12	56.5295E-3	-9.72108E-3	2.43748E-12	59.7648E-3	-30.3999E-3
662.831E-6	2.33210E-12	62.6667E-3	-15.2138E-3	2.35369E-12	64.3269E-3	-20.5946E-3
657.829E-6	2.36514E-12	65.2874E-3	-12.8190E-3	2.27791E-12	67.3483E-3	-17.1128E-3
652.826E-6	2.35759E-12	76.6431E-3	-8.15129E-3	2.32004E-12	61.7010E-3	-17.2539E-3
647.824E-6	2.33640E-12	78.4745E-3	-14.3201E-3	2.36763E-12	66.4136E-3	-10.2536E-3
642.821E-6	2.26957E-12	73.6068E-3	-31.8608E-3	2.34314E-12	73.5386E-3	-13.4078E-3
637.819E-6	2.24166E-12	69.9345E-3	-32.2605E-3	2.19623E-12	74.2684E-3	-22.7517E-3
632.816E-6	2.25853E-12	56.3900E-3	-17.5267E-3	2.16655E-12	81.4869E-3	-16.4180E-3
627.814E-6	2.18867E-12	50.5189E-3	-15.5602E-3	2.22197E-12	88.3896E-3	-416.461E-6
622.811E-6	2.17993E-12	59.1112E-3	-25.0079E-3	2.20627E-12	73.2411E-3	8.30531E-3
617.809E-6	2.13797E-12	60.9455E-3	-26.0578E-3	2.13174E-12	56.7409E-3	8.64761E-3
612.806E-6	2.14197E-12	49.8679E-3	-15.5508E-3	2.03448E-12	64.7323E-3	-4.87554E-3
607.804E-6	2.12726E-12	46.1837E-3	-12.2746E-3	2.06504E-12	72.2160E-3	-16.3760E-3
602.801E-6	2.10614E-12	56.1583E-3	-19.5816E-3	2.13632E-12	74.8272E-3	-7.52932E-3
597.799E-6	2.03517E-12	56.0211E-3	-17.4828E-3	2.03805E-12	79.6710E-3	-12.8171E-3
592.796E-6	2.03662E-12	53.0712E-3	-6.08446E-3	1.96985E-12	60.6893E-3	-27.9421E-3
587.794E-6	2.06902E-12	58.8957E-3	-4.59971E-3	1.97381E-12	52.5043E-3	-20.8708E-3
582.791E-6	2.03930E-12	74.6121E-3	-14.0744E-3	1.97291E-12	80.7754E-3	-17.2102E-3
577.789E-6	1.95720E-12	96.1254E-3	-21.3343E-3	2.00319E-12	93.3148E-3	-22.0262E-3
572.786E-6	1.94366E-12	95.7393E-3	-17.4293E-3	1.95572E-12	83.3301E-3	-12.3811E-3
567.784E-6	1.94739E-12	76.9564E-3	-7.53845E-3	1.88646E-12	74.6288E-3	-5.40519E-3
562.781E-6	1.86903E-12	70.0721E-3	-9.63790E-3	1.85106E-12	66.8342E-3	-15.7172E-3
557.779E-6	1.88689E-12	70.4640E-3	-16.0232E-3	1.88914E-12	62.3283E-3	-17.8138E-3
552.776E-6	1.79696E-12	69.3580E-3	-18.9173E-3	1.85775E-12	76.9278E-3	-15.6426E-3
547.774E-6	1.80865E-12	72.9943E-3	-29.3738E-3	1.77481E-12	99.0655E-3	-22.4962E-3
542.771E-6	1.79133E-12	75.8625E-3	-40.1463E-3	1.69782E-12	90.8147E-3	-16.8215E-3
537.769E-6	1.74995E-12	67.5345E-3	-37.9380E-3	1.74643E-12	69.1979E-3	-10.9297E-3
532.766E-6	1.67097E-12	58.8134E-3	-36.2288E-3	1.75196E-12	68.5293E-3	-28.7095E-3
527.764E-6	1.65746E-12	68.1303E-3	-32.4970E-3	1.69575E-12	68.1593E-3	-37.8438E-3
522.761E-6	1.64386E-12	77.2451E-3	-21.4747E-3	1.55700E-12	70.6963E-3	-27.7194E-3
517.759E-6	1.60944E-12	73.7317E-3	-22.3761E-3	1.52902E-12	85.9644E-3	-25.0634E-3
512.756E-6	1.59666E-12	67.5509E-3	-22.2715E-3	1.63151E-12	83.8897E-3	-16.7633E-3
507.754E-6	1.55554E-12	57.9754E-3	-17.9734E-3	1.60180E-12	74.8299E-3	-7.18546E-3
502.751E-6	1.51509E-12	46.9352E-3	-21.7774E-3	1.54468E-12	77.4119E-3	-24.3035E-3
497.749E-6	1.53968E-12	48.2682E-3	-21.7067E-3	1.42668E-12	74.5211E-3	-40.3529E-3
492.746E-6	1.46255E-12	60.8146E-3	-17.0413E-3	1.51274E-12	72.0760E-3	-28.3490E-3
487.744E-6	1.49404E-12	68.6693E-3	-11.7534E-3	1.52687E-12	80.6886E-3	-15.9236E-3
482.741E-6	1.45045E-12	78.8204E-3	-5.85199E-3	1.44786E-12	88.5091E-3	-14.5787E-3
477.739E-6	1.38432E-12	93.0664E-3	-2.27911E-3	1.33731E-12	96.0752E-3	-6.84902E-3
472.736E-6	1.42154E-12	85.4173E-3	-7.61085E-3	1.34856E-12	103.219E-3	-5.41483E-3
467.734E-6	1.38336E-12	70.9009E-3	-20.1738E-3	1.36546E-12	98.1861E-3	-18.9214E-3
462.731E-6	1.31265E-12	72.9959E-3	-17.4355E-3	1.34524E-12	84.9002E-3	-23.1792E-3
457.729E-6	1.27565E-12	76.5769E-3	-9.57985E-3	1.29811E-12	81.0495E-3	-24.2149E-3
452.726E-6	1.28192E-12	78.7609E-3	-16.8972E-3	1.17457E-12	84.5476E-3	-31.9410E-3
447.724E-6	1.25477E-12	77.3139E-3	-21.9396E-3	1.19054E-12	84.2620E-3	-23.6974E-3
442.721E-6	1.19911E-12	68.4328E-3	-14.9406E-3	1.23991E-12	89.2652E-3	-9.05463E-3
437.719E-6	1.17307E-12	67.6577E-3	-8.80035E-3	1.23225E-12	84.4818E-3	-19.8346E-3
432.716E-6	1.13656E-12	75.8006E-3	-10.7776E-3	1.08740E-12	69.5736E-3	-36.0954E-3
427.714E-6	1.12351E-12	72.6583E-3	-16.0418E-3	1.03956E-12	78.4371E-3	-37.8511E-3
422.711E-6	1.10180E-12	59.3049E-3	-20.9522E-3	1.12548E-12	86.5948E-3	-31.6424E-3
417.709E-6	1.04327E-12	58.1020E-3	-18.6234E-3	1.14663E-12	67.6803E-3	-27.7005E-3
412.706E-6	996.929E-15	67.0116E-3	-7.92336E-3	1.04111E-12	53.6219E-3	-35.2027E-3
407.704E-6	1.04832E-12	70.4921E-3	-7.76606E-3	986.396E-15	57.5755E-3	-38.5565E-3
402.701E-6	1.00745E-12	72.2831E-3	-17.0967E-3	999.161E-15	64.4896E-3	-27.9145E-3
397.699E-6	983.527E-15	77.0511E-3	-19.9477E-3	1.03545E-12	78.4534E-3	-14.0783E-3
392.696E-6	955.120E-15	92.5327E-3	-23.7988E-3	1.02202E-12	86.5426E-3	-3.81071E-3
387.694E-6	954.169E-15	110.122E-3	-33.0450E-3	887.275E-15	80.5957E-3	-5.99863E-6
382.691E-6	902.664E-15	96.3995E-3	-35.4725E-3	810.458E-15	84.7824E-3	-6.61227E-3
377.689E-6	908.899E-15	75.0541E-3	-34.0244E-3	831.768E-15	89.6706E-3	-15.8067E-3
372.686E-6	853.688E-15	83.4468E-3	-31.5625E-3	917.391E-15	79.3890E-3	-17.1738E-3
367.684E-6	863.619E-15	86.3121E-3	-25.9678E-3	815.384E-15	72.4350E-3	-15.1130E-3
362.681E-6	779.600E-15	74.8494E-3	-17.7707E-3	745.002E-15	79.6586E-3	-19.9215E-3
357.679E-6	816.073E-15	74.9570E-3	-11.6123E-3	745.813E-15	83.7178E-3	-19.7181E-3
352.676E-6	758.168E-15	73.7074E-3	-14.1140E-3	741.889E-15	82.5767E-3	-6.65036E-3
347.674E-6	709.636E-15	69.0876E-3	-10.5550E-3	718.042E-15	78.2953E-3	-5.85496E-3
342.671E-6	646.046E-15	72.9861E-3	4.50933E-3	644.058E-15	64.9587E-3	-16.2416E-3
337.669E-6	616.767E-15	78.9722E-3	9.11397E-3	656.675E-15	59.5195E-3	-15.6957E-3
332.666E-6	636.638E-15	81.7311E-3	-8.77890E-3	639.646E-15	64.6664E-3	-15.0062E-3
327.664E-6	644.520E-15	76.2599E-3	-23.5079E-3	598.709E-15	53.2696E-3	-14.4535E-3
322.661E-6	587.348E-15	62.7122E-3	-17.7542E-3	619.705E-15	40.0184E-3	-13.3012E-3
317.659E-6	544.336E-15	54.3069E-3	-9.26511E-3	543.542E-15	51.1791E-3	-15.2568E-3
312.656E-6	537.814E-15	57.8634E-3	-11.3113E-3	511.490E-15	64.5628E-3	-9.32803E-3
307.654E-6	534.047E-15	66.6639E-3	-12.9655E-3	573.039E-15	68.4368E-3	-6.25248E-3
302.651E-6	466.019E-15	62.1482E-3	-5.87290E-3	575.254E-15	79.2023E-3	-15.9554E-3
297.649E-6	461.275E-15	48.5276E-3	-589.155E-6	453.585E-15	77.3579E-3	-16.5204E-3
292.646E-6	474.721E-15	44.4636E-3	2.13353E-3	432.885E-15	57.8877E-3	-3.82759E-3
287.644E-6	489.692E-15	43.1927E-3	1.79563E-3	474.032E-15	58.2901E-3	-6.07543E-3
282.641E-6	409.108E-15	43.8754E-3	-4.41136E-3	502.439E-15	64.5791E-3	-26.6580E-3
277.639E-6	389.001E-15	52.4099E-3	-13.4528E-3	458.843E-15	52.0152E-3	-41.7064E-3
272.636E-6	405.733E-15	55.0844E-3	-21.5314E-3	329.527E-15	42.1754E-3	-42.9810E-3
267.634E-6	360.541E-15	51.3681E-3	-26.2581E-3	267.227E-15	44.3562E-3	-38.2217E-3
262.631E-6	364.997E-15	56.2927E-3	-22.8848E-3	410.259E-15	44.8270E-3	-36.0831E-3
257.629E-6	347.227E-15	65.2768E-3	-16.8139E-3	365.232E-15	49.3287E-3	-34.0834E-3
252.626E-6	306.795E-15	65.1748E-3	-25.8966E-3	286.218E-15	56.1024E-3	-25.8318E-3
247.624E-6	295.792E-15	55.5345E-3	-30.3093E-3	251.227E-15	57.4593E-3	-23.1251E-3
242.621E-6	304.363E-15	46.7819E-3	-18.3021E-3	260.705E-15	56.7672E-3	-21.3870E-3
237.619E-6	303.421E-15	41.2471E-3	-18.3829E-3	322.586E-15	45.9871E-3	-19.0894E-3
232.616E-6	212.958E-15	42.9305E-3	-22.8066E-3	261.891E-15	33.5113E-3	-26.2257E-3
227.614E-6	224.006E-15	47.1579E-3	-11.8522E-3	166.842E-15	39.9047E-3	-28.9586E-3
222.611E-6	220.710E-15	48.6459E-3	-3.72521E-3	223.326E-15	52.4643E-3	-26.5851E-3
217.609E-6	239.665E-15	59.9290E-3	-6.49175E-3	243.284E-15	48.4014E-3	-27.5356E-3
212.606E-6	181.516E-15	64.9897E-3	-7.33191E-3	223.631E-15	45.6261E-3	-27.3020E-3
207.604E-6	140.946E-15	45.3997E-3	-9.59781E-3	170.469E-15	44.5950E-3	-34.5320E-3
202.601E-6	179.598E-15	30.1096E-3	-16.1323E-3	119.897E-15	31.0395E-3	-32.8907E-3
197.599E-6	180.985E-15	31.4432E-3	-18.9300E-3	153.554E-15	26.9047E-3	-10.2155E-3
192.596E-6	167.356E-15	28.6363E-3	-18.2282E-3	170.199E-15	25.6376E-3	-821.027E-6
187.594E-6	139.829E-15	31.3880E-3	-11.1514E-3	183.993E-15	12.4000E-3	-11.6560E-3
182.591E-6	54.9208E-15	39.9610E-3	-4.72825E-3	93.9048E-15	13.3691E-3	-18.2649E-3
177.589E-6	106.862E-15	39.2401E-3	-6.81393E-3	84.2874E-15	25.6321E-3	-20.7333E-3
172.586E-6	77.5474E-15	31.6737E-3	-1.56158E-3	115.843E-15	20.4433E-3	-25.1538E-3
167.584E-6	47.3525E-15	19.5021E-3	4.70265E-3	108.196E-15	9.98966E-3	-19.8180E-3
162.581E-6	48.0238E-15	14.5878E-3	-6.18131E-3	99.1451E-15	20.3088E-3	-20.1781E-3
157.579E-6	100.976E-15	22.2389E-3	-22.1440E-3	869.825E-18	33.6845E-3	-25.5544E-3
152.576E-6	61.8701E-15	27.4415E-3	-21.6459E-3	15.7275E-15	27.5659E-3	-7.26811E-3
147.574E-6	57.1355E-15	27.3129E-3	-7.80686E-3	95.3522E-15	22.7179E-3	3.65864E-3
142.571E-6	20.8981E-15	27.8700E-3	-2.20129E-3	113.916E-15	16.2312E-3	-12.0016E-3
137.569E-6	28.7890E-15	26.6227E-3	-5.93349E-3	6.08397E-15	450.413E-6	-20.7204E-3
132.566E-6	-3.76884E-15	21.5742E-3	-12.5097E-3	-66.2776E-15	351.920E-6	-23.1954E-3
127.564E-6	37.2468E-15	17.1430E-3	-23.6982E-3	28.7367E-15	9.68800E-3	-23.9511E-3
122.561E-6	-21.1377E-15	19.0846E-3	-25.6495E-3	28.6495E-15	3.10073E-3	-6.47188E-3
117.559E-6	-18.4870E-15	20.1283E-3	-8.83860E-3	-17.3099E-15	-4.52972E-3	7.75721E-3
112.556E-6	-24.8696E-15	15.4743E-3	4.36031E-3	-76.9762E-15	3.37153E-3	-9.18066E-3
107.554E-6	-36.3703E-15	11.5467E-3	-7.33348E-3	-20.9372E-15	7.40206E-3	-29.1215E-3
102.551E-6	-2.21681E-15	12.9615E-3	-15.2880E-3	14.1842E-15	8.62170E-3	-24.6496E-3
97.5488E-6	-38.2363E-15	14.3013E-3	-8.08522E-3	-786.841E-18	14.4476E-3	-21.1918E-3
92.5463E-6	-59.2324E-15	20.9269E-3	-6.03301E-3	-125.682E-15	19.8877E-3	-18.7067E-3
87.5438E-6	-62.7724E-15	33.9301E-3	-1.92829E-3	-101.992E-15	25.0395E-3	-6.94448E-3
82.5413E-6	-85.5298E-15	31.9490E-3	-784.624E-6	-69.2683E-15	29.7930E-3	-8.16262E-3
77.5388E-6	-49.0221E-15	24.9810E-3	-13.3433E-3	-72.4072E-15	29.5887E-3	-23.0227E-3
72.5363E-6	-75.6857E-15	22.5682E-3	-21.2537E-3	-54.0531E-15	25.8595E-3	-28.3786E-3
67.5338E-6	-108.008E-15	24.8118E-3	-18.7530E-3	-117.599E-15	31.6446E-3	-27.9548E-3
62.5313E-6	-91.9036E-15	34.5512E-3	-17.5612E-3	-122.038E-15	28.8852E-3	-33.9452E-3
57.5288E-6	-126.127E-15	31.7213E-3	-9.42421E-3	-77.3860E-15	14.3569E-3	-32.0188E-3
52.5263E-6	-165.460E-15	9.48718E-3	-5.38107E-3	-28.4968E-15	12.4859E-3	-27.9762E-3
47.5238E-6	-100.579E-15	-4.73358E-3	-16.3606E-3	-141.918E-15	15.8738E-3	-27.1753E-3
42.5213E-6	-133.608E-15	-1.66069E-3	-20.8678E-3	-171.694E-15	18.6465E-3	-20.6789E-3
37.5188E-6	-111.906E-15	6.70657E-3	-15.9481E-3	-132.797E-15	24.0172E-3	-28.7845E-3
32.5163E-6	-158.903E-15	12.3346E-3	-18.9884E-3	-63.8536E-15	14.9331E-3	-41.5719E-3
27.5138E-6	-176.655E-15	9.94040E-3	-19.5724E-3	-126.572E-15	6.04592E-3	-34.1937E-3
22.5113E-6	-176.446E-15	5.19700E-3	-9.12155E-3	-200.302E-15	12.0519E-3	-17.7618E-3
17.5088E-6	-152.747E-15	1.76525E-3	-15.0463E-3	-229.294E-15	10.5142E-3	-1.96620E-3
12.5063E-6	-163.411E-15	6.45025E-3	-33.3950E-3	-126.354E-15	8.69935E-3	8.20554E-3
7.50375E-6	-196.003E-15	10.4096E-3	-31.6633E-3	-114.949E-15	10.9999E-3	-649.797E-6
2.50125E-6	-179.402E-15	10.0685E-3	-20.2182E-3	-206.981E-15	10.6151E-3	-17.7609E-3
-2.50125E-6	-216.537E-15	9.42830E-3	-17.9766E-3	-285.202E-15	22.7608E-3	-20.7333E-3
-7.50375E-6	-169.427E-15	2.93896E-3	-16.4398E-3	-218.395E-15	42.5507E-3	-22.1871E-3
-12.5063E-6	-182.602E-15	1.69576E-3	-18.2582E-3	-142.798E-15	35.5950E-3	-34.0180E-3
-17.5088E-6	-200.006E-15	11.5352E-3	-19.0121E-3	-198.079E-15	9.26919E-3	-36.1690E-3
-22.5113E-6	-227.716E-15	15.0387E-3	-13.3566E-3	-302.693E-15	11.3556E-3	-29.2173E-3
-27.5138E-6	-167.177E-15	-2.04588E-3	-13.6246E-3	-234.438E-15	14.5382E-3	-23.9725E-3
-32.5163E-6	-240.847E-15	-3.57336E-3	-14.2179E-3	-200.590E-15	-6.85274E-3	-12.5912E-3
-37.5188E-6	-248.764E-15	11.0590E-3	-10.1802E-3	-229.006E-15	-5.97831E-3	-12.1420E-3
-42.5213E-6	-240.219E-15	10.0023E-3	-12.7144E-3	-241.623E-15	15.5294E-3	-32.0636E-3
-47.5238E-6	-249.121E-15	5.47143E-3	-17.2617E-3	-263.439E-15	18.2155E-3	-42.6411E-3
-52.5263E-6	-234.421E-15	4.91520E-3	-11.7634E-3	-259.445E-15	11.4441E-3	-30.2974E-3
-57.5288E-6	-228.090E-15	1.82631E-3	-1.16154E-3	-236.313E-15	14.1396E-3	-17.8844E-3
-62.5313E-6	-259.785E-15	3.56922E-3	4.20606E-3	-245.913E-15	13.8374E-3	-17.4496E-3
-67.5338E-6	-286.205E-15	11.5347E-3	2.28105E-3	-338.128E-15	14.8669E-3	-11.9596E-3
-72.5363E-6	-279.613E-15	16.9707E-3	-11.0541E-3	-355.331E-15	25.2085E-3	4.67674E-3
-77.5388E-6	-264.668E-15	20.6052E-3	-25.3437E-3	-316.443E-15	33.0665E-3	16.5298E-3
-82.5413E-6	-305.282E-15	27.3592E-3	-25.7193E-3	-242.303E-15	32.5915E-3	4.34933E-3
-87.5438E-6	-364.129E-15	30.4890E-3	-23.3302E-3	-295.744E-15	23.8835E-3	-18.0225E-3
-92.5463E-6	-359.133E-15	28.6022E-3	-21.5195E-3	-388.247E-15	17.5339E-3	-21.6836E-3
-97.5488E-6	-270.187E-15	34.0969E-3	-11.0630E-3	-381.358E-15	27.7575E-3	-14.5823E-3
-102.551E-6	-343.892E-15	37.3899E-3	-2.15362E-3	-293.581E-15	37.6996E-3	-16.5736E-3
-107.554E-6	-383.826E-15	34.7313E-3	-2.53802E-3	-311.151E-15	29.2956E-3	-19.8663E-3
-112.556E-6	-367.844E-15	34.9536E-3	-2.84681E-3	-427.998E-15	23.9248E-3	-15.9858E-3
-117.559E-6	-423.726E-15	31.4414E-3	-4.63835E-3	-460.469E-15	36.9782E-3	-16.1412E-3
-122.561E-6	-412.425E-15	25.0935E-3	-15.3622E-3	-399.329E-15	51.1858E-3	-20.4107E-3
-127.564E-6	-417.221E-15	26.1943E-3	-24.7935E-3	-383.852E-15	52.3979E-3	-7.90076E-3
-132.566E-6	-466.738E-15	33.5114E-3	-22.3943E-3	-400.794E-15	42.0054E-3	7.64362E-3
-137.569E-6	-416.794E-15	41.0190E-3	-19.7554E-3	-503.751E-15	31.9609E-3	-2.10310E-3
-142.571E-6	-463.869E-15	41.9053E-3	-16.9710E-3	-500.325E-15	32.1838E-3	-17.0196E-3
-147.574E-6	-460.504E-15	30.7954E-3	-6.35813E-3	-384.541E-15	41.1899E-3	-21.9075E-3
-152.576E-6	-473.678E-15	15.0313E-3	-11.0121E-3	-466.912E-15	47.6291E-3	-24.3090E-3
-157.579E-6	-464.916E-15	15.8324E-3	-21.6560E-3	-502.513E-15	48.1782E-3	-20.4663E-3
-162.581E-6	-531.113E-15	30.2838E-3	-13.9056E-3	-599.777E-15	50.5833E-3	-13.1558E-3
-167.584E-6	-496.802E-15	41.0307E-3	-2.00965E-3	-521.190E-15	50.7292E-3	-12.2240E-3
-172.586E-6	-601.094E-15	54.0301E-3	-6.47144E-3	-491.588E-15	51.7633E-3	-12.4300E-3
-177.589E-6	-527.049E-15	49.9744E-3	-20.1726E-3	-568.492E-15	62.9970E-3	-9.54109E-3
-182.591E-6	-620.189E-15	31.1307E-3	-22.9442E-3	-668.407E-15	60.2558E-3	-5.17054E-3
-187.594E-6	-586.750E-15	35.7928E-3	-23.5187E-3	-642.519E-15	44.3078E-3	-2.09713E-3
-192.596E-6	-596.743E-15	50.6940E-3	-22.8549E-3	-611.845E-15	53.7851E-3	-8.71387E-3
-197.599E-6	-659.661E-15	49.4293E-3	-9.83836E-3	-579.714E-15	79.8515E-3	-15.1455E-3
-202.601E-6	-698.480E-15	45.0332E-3	-1.49624E-3	-660.638E-15	84.4445E-3	-9.95129E-3
-207.604E-6	-664.875E-15	47.3803E-3	-12.3891E-3	-762.227E-15	74.1073E-3	-8.06382E-3
-212.606E-6	-700.904E-15	48.0675E-3	-30.6139E-3	-734.386E-15	71.3442E-3	-18.9417E-3
-217.609E-6	-727.707E-15	55.4483E-3	-35.0444E-3	-686.456E-15	72.9955E-3	-28.9043E-3
-222.611E-6	-786.588E-15	69.5153E-3	-15.0005E-3	-703.206E-15	79.9840E-3	-23.0509E-3
-227.614E-6	-814.664E-15	72.9966E-3	2.40335E-3	-836.445E-15	80.2869E-3	-11.7108E-3
-232.616E-6	-812.755E-15	70.4368E-3	-9.48572E-3	-921.581E-15	68.8014E-3	-10.3274E-3
-237.619E-6	-821.152E-15	68.2736E-3	-21.8669E-3	-777.511E-15	71.9053E-3	-15.3064E-3
-242.621E-6	-863.606E-15	65.4422E-3	-16.9846E-3	-770.597E-15	82.8383E-3	-24.5112E-3
-247.624E-6	-902.965E-15	65.9380E-3	-23.7407E-3	-917.796E-15	78.4103E-3	-30.0368E-3
-252.626E-6	-900.053E-15	73.1337E-3	-39.9865E-3	-957.844E-15	76.5510E-3	-17.1545E-3
-257.629E-6	-950.633E-15	90.6738E-3	-36.6492E-3	-926.708E-15	84.5487E-3	-9.08232E-3
-262.631E-6	-976.905E-15	100.421E-3	-17.4655E-3	-922.601E-15	92.3876E-3	-12.5914E-3
-267.634E-6	-1.04574E-12	97.7294E-3	-4.52746E-3	-1.00748E-12	104.847E-3	-6.98384E-3
-272.636E-6	-1.04621E-12	99.5538E-3	-1.01949E-3	-1.08079E-12	113.454E-3	-4.45509E-3
-277.639E-6	-1.04715E-12	98.6336E-3	-5.69529E-3	-1.08320E-12	109.512E-3	-8.19370E-3
-282.641E-6	-1.09625E-12	92.2565E-3	-15.1530E-3	-1.07735E-12	109.255E-3	-8.50940E-3
-287.644E-6	-1.16192E-12	87.6407E-3	-17.8961E-3	-1.09179E-12	113.432E-3	-16.8753E-3
-292.646E-6	-1.16448E-12	87.2287E-3	-11.3555E-3	-1.17043E-12	110.439E-3	-39.0234E-3
-297.649E-6	-1.16932E-12	87.1625E-3	-6.29388E-3	-1.27799E-12	107.471E-3	-45.4111E-3
-302.651E-6	-1.21328E-12	84.6115E-3	-11.6189E-3	-1.26425E-12	111.514E-3	-25.2627E-3
-307.654E-6	-1.23140E-12	88.0047E-3	-23.8523E-3	-1.22234E-12	114.105E-3	-4.74987E-3
-312.656E-6	-1.28858E-12	100.986E-3	-26.8905E-3	-1.26304E-12	119.109E-3	4.09452E-3
-317.659E-6	-1.35519E-12	105.586E-3	-13.0125E-3	-1.38417E-12	134.515E-3	-9.63076E-3
-322.661E-6	-1.35774E-12	105.564E-3	-6.74682E-3	-1.43163E-12	135.490E-3	-30.6203E-3
-327.664E-6	-1.38336E-12	116.019E-3	-18.7648E-3	-1.39405E-12	119.803E-3	-35.4342E-3
-332.666E-6	-1.50833E-12	124.204E-3	-19.1304E-3	-1.36819E-12	111.368E-3	-36.8662E-3
-337.669E-6	-1.50566E-12	125.996E-3	-15.6356E-3	-1.46231E-12	104.949E-3	-33.5832E-3
-342.671E-6	-1.57919E-12	131.314E-3	-24.3735E-3	-1.56990E-12	104.137E-3	-28.0656E-3
-347.674E-6	-1.57260E-12	132.002E-3	-22.4635E-3	-1.59670E-12	115.320E-3	-28.4793E-3
-352.676E-6	-1.63683E-12	126.376E-3	-18.3005E-3	-1.56233E-12	119.916E-3	-28.4464E-3
-357.679E-6	-1.72432E-12	127.073E-3	-27.4290E-3	-1.60052E-12	120.810E-3	-24.6977E-3
-362.681E-6	-1.73882E-12	127.279E-3	-27.0214E-3	-1.72697E-12	127.209E-3	-18.2361E-3
-367.684E-6	-1.74370E-12	129.972E-3	-11.9024E-3	-1.85504E-12	130.567E-3	-14.5675E-3
-372.686E-6	-1.83158E-12	138.775E-3	-7.70099E-3	-1.83771E-12	129.316E-3	-10.6393E-3
-377.689E-6	-1.88344E-12	144.639E-3	-10.3267E-3	-1.84292E-12	130.606E-3	-3.81403E-3
-382.691E-6	-1.92923E-12	142.654E-3	-4.80954E-3	-1.92511E-12	133.821E-3	-207.014E-6
-387.694E-6	-1.94694E-12	134.674E-3	-2.18706E-3	-2.03781E-12	133.690E-3	4.26290E-3
-392.696E-6	-1.96918E-12	132.296E-3	-2.32702E-3	-2.02324E-12	131.515E-3	6.69168E-3
-397.699E-6	-2.06015E-12	133.653E-3	-2.86258E-3	-1.97182E-12	131.445E-3	-3.39558E-3
-402.701E-6	-2.08635E-12	137.922E-3	-3.15716E-3	-2.02420E-12	134.871E-3	-15.5342E-3
-407.704E-6	-2.12700E-12	154.479E-3	-1.14289E-3	-2.15984E-12	135.898E-3	-17.2052E-3
-412.706E-6	-2.14717E-12	158.531E-3	-8.72853E-3	-2.20699E-12	125.197E-3	-12.0487E-3
-417.709E-6	-2.22413E-12	141.756E-3	-27.3356E-3	-2.19083E-12	112.059E-3	-3.98980E-3
-422.711E-6	-2.26183E-12	133.472E-3	-33.0998E-3	-2.16405E-12	120.961E-3	-1.52200E-3
-427.714E-6	-2.29179E-12	132.645E-3	-18.0755E-3	-2.27796E-12	144.148E-3	-10.8911E-3
-432.716E-6	-2.35998E-12	122.446E-3	-14.1116E-3	-2.39479E-12	147.751E-3	-16.9993E-3
-437.719E-6	-2.40123E-12	114.740E-3	-27.5074E-3	-2.42206E-12	134.014E-3	-15.4734E-3
-442.721E-6	-2.41642E-12	119.843E-3	-30.6655E-3	-2.44499E-12	136.629E-3	-19.4911E-3
-447.724E-6	-2.54966E-12	131.456E-3	-21.6250E-3	-2.47898E-12	144.775E-3	-21.7313E-3
-452.726E-6	-2.58615E-12	147.891E-3	-16.5855E-3	-2.60000E-12	145.681E-3	-20.2282E-3
-457.729E-6	-2.60474E-12	158.408E-3	-15.3158E-3	-2.71114E-12	159.271E-3	-22.5106E-3
-462.731E-6	-2.71209E-12	154.760E-3	-11.2867E-3	-2.71165E-12	164.348E-3	-21.8579E-3
-467.734E-6	-2.75678E-12	152.325E-3	-8.44289E-3	-2.69734E-12	151.082E-3	-14.0363E-3
-472.736E-6	-2.83298E-12	149.399E-3	-10.0742E-3	-2.74663E-12	145.569E-3	-10.8397E-3
-477.739E-6	-2.85982E-12	142.319E-3	-18.7300E-3	-2.90486E-12	146.313E-3	-13.0083E-3
-482.741E-6	-2.86548E-12	150.907E-3	-30.0421E-3	-2.92300E-12	150.136E-3	-4.47070E-3
-487.744E-6	-2.89105E-12	158.068E-3	-25.4529E-3	-2.86309E-12	157.972E-3	-6.61827E-3
-492.746E-6	-2.98186E-12	153.723E-3	-14.4518E-3	-2.88835E-12	150.206E-3	-27.7394E-3
-497.749E-6	-3.01475E-12	157.413E-3	-16.7809E-3	-3.02423E-12	140.222E-3	-31.5425E-3
-502.751E-6	-3.04174E-12	158.831E-3	-16.6597E-3	-3.05181E-12	149.675E-3	-16.5430E-3
-507.754E-6	-3.08324E-12	152.429E-3	-9.26533E-3	-3.11246E-12	149.582E-3	-8.79977E-3
-512.756E-6	-3.12358E-12	144.847E-3	-11.2823E-3	-3.05593E-12	135.140E-3	-5.22594E-3
-517.759E-6	-3.18954E-12	134.168E-3	-15.2445E-3	-3.13771E-12	140.035E-3	-2.21572E-3
-522.761E-6	-3.16559E-12	119.339E-3	-17.8610E-3	-3.30050E-12	144.150E-3	-12.8696E-3
-527.764E-6	-3.19944E-12	115.830E-3	-19.0764E-3	-3.29333E-12	137.550E-3	-23.7934E-3
-532.766E-6	-3.29986E-12	131.059E-3	-12.6041E-3	-3.31238E-12	150.149E-3	-15.0444E-3
-537.769E-6	-3.38656E-12	136.785E-3	-6.53258E-3	-3.36264E-12	154.038E-3	-8.56853E-3
-542.771E-6	-3.44545E-12	130.793E-3	-12.0962E-3	-3.53409E-12	144.617E-3	-18.6845E-3
-547.774E-6	-3.46462E-12	133.450E-3	-23.9258E-3	-3.51779E-12	144.009E-3	-28.0398E-3
-552.776E-6	-3.51768E-12	136.848E-3	-25.7679E-3	-3.58746E-12	142.773E-3	-31.6755E-3
-557.779E-6	-3.51950E-12	138.318E-3	-21.7016E-3	-3.52369E-12	144.586E-3	-23.0193E-3
-562.781E-6	-3.67632E-12	144.053E-3	-19.1679E-3	-3.60111E-12	141.908E-3	-16.7070E-3
-567.784E-6	-3.70969E-12	141.541E-3	-18.8418E-3	-3.69418E-12	126.621E-3	-29.5595E-3
-572.786E-6	-3.80329E-12	140.714E-3	-23.0910E-3	-3.77682E-12	114.747E-3	-31.3610E-3
-577.789E-6	-3.84120E-12	151.449E-3	-22.2043E-3	-3.77787E-12	118.538E-3	-21.2952E-3
-582.791E-6	-3.89557E-12	150.176E-3	-11.1949E-3	-3.78072E-12	126.985E-3	-21.8415E-3
-587.794E-6	-3.91284E-12	135.106E-3	-6.39170E-3	-3.89644E-12	127.489E-3	-19.2095E-3
-592.796E-6	-3.97813E-12	124.155E-3	-11.4441E-3	-3.95493E-12	130.663E-3	-14.2402E-3
-597.799E-6	-3.97079E-12	129.666E-3	-9.77531E-3	-4.04268E-12	147.516E-3	-16.2481E-3
-602.801E-6	-3.95021E-12	149.291E-3	-10.1742E-3	-4.01169E-12	147.000E-3	-13.3426E-3
-607.804E-6	-4.08409E-12	160.565E-3	-19.6979E-3	-3.97257E-12	127.392E-3	-1.47606E-3
-612.806E-6	-4.13239E-12	157.441E-3	-25.0424E-3	-4.12600E-12	133.502E-3	2.82070E-3
-617.809E-6	-4.12276E-12	148.063E-3	-25.5877E-3	-4.21611E-12	140.679E-3	-12.2263E-3
-622.811E-6	-4.13844E-12	139.657E-3	-16.2339E-3	-4.23052E-12	125.832E-3	-25.5559E-3
-627.814E-6	-4.16945E-12	138.242E-3	-3.32098E-3	-4.19498E-12	119.594E-3	-23.5381E-3
-632.816E-6	-4.28107E-12	133.600E-3	-6.89650E-3	-4.30617E-12	113.239E-3	-10.8770E-3
-637.819E-6	-4.25410E-12	121.126E-3	-19.2285E-3	-4.39731E-12	104.453E-3	-7.63210E-3
-642.821E-6	-4.32652E-12	122.261E-3	-21.2669E-3	-4.42015E-12	108.410E-3	-31.0480E-3
-647.824E-6	-4.38280E-12	139.034E-3	-11.6382E-3	-4.34472E-12	109.257E-3	-47.7641E-3
-652.826E-6	-4.51150E-12	142.944E-3	-662.171E-6	-4.44260E-12	104.209E-3	-27.6882E-3
-657.829E-6	-4.53221E-12	132.699E-3	1.61403E-3	-4.53970E-12	102.314E-3	-6.28772E-3
-662.831E-6	-4.59795E-12	121.362E-3	-3.82807E-3	-4.57442E-12	97.5676E-3	-20.5849E-3
-667.834E-6	-4.65899E-12	116.166E-3	-11.4228E-3	-4.55408E-12	92.2075E-3	-33.5216E-3
-672.836E-6	-4.71679E-12	119.248E-3	-15.8672E-3	-4.58304E-12	103.286E-3	-27.0665E-3
-677.839E-6	-4.79147E-12	121.398E-3	-18.4255E-3	-4.64935E-12	120.353E-3	-25.1477E-3
-682.841E-6	-4.78821E-12	121.995E-3	-21.7675E-3	-4.79890E-12	119.614E-3	-13.4518E-3
-687.844E-6	-4.82452E-12	128.138E-3	-21.0891E-3	-4.81767E-12	106.717E-3	-1.73156E-3
-692.846E-6	-4.83123E-12	124.188E-3	-18.0476E-3	-4.76896E-12	95.5278E-3	-16.9690E-3
-697.849E-6	-4.90344E-12	113.357E-3	-20.9384E-3	-4.79885E-12	96.1134E-3	-24.3856E-3
-702.851E-6	-4.89466E-12	115.315E-3	-19.8816E-3	-4.89776E-12	107.487E-3	-9.95290E-3
-707.854E-6	-4.88159E-12	113.721E-3	-10.2269E-3	-4.99663E-12	115.847E-3	-7.25954E-3
-712.856E-6	-4.86246E-12	108.032E-3	-8.13892E-3	-4.94764E-12	117.202E-3	-14.5608E-3
-717.859E-6	-4.90855E-12	110.692E-3	-7.56941E-3	-4.95483E-12	124.110E-3	-17.1814E-3
-722.861E-6	-4.94263E-12	112.997E-3	-7.61153E-3	-4.98929E-12	129.356E-3	-16.8218E-3
-727.864E-6	-4.98916E-12	118.179E-3	-12.5411E-3	-5.11470E-12	118.919E-3	-13.6684E-3
-732.866E-6	-5.01371E-12	132.902E-3	-14.1822E-3	-5.17343E-12	109.788E-3	-10.6083E-3
-737.869E-6	-5.03845E-12	135.403E-3	-15.5466E-3	-5.14807E-12	110.136E-3	-12.1560E-3
-742.871E-6	-5.14420E-12	120.584E-3	-17.8218E-3	-5.08294E-12	105.128E-3	-5.86870E-3
-747.874E-6	-5.21422E-12	113.207E-3	-12.2344E-3	-5.18304E-12	104.404E-3	2.48104E-3
-752.876E-6	-5.22514E-12	115.001E-3	-1.03744E-3	-5.27158E-12	125.040E-3	-13.0479E-3
-757.879E-6	-5.29061E-12	115.659E-3	-638.821E-6	-5.23976E-12	135.823E-3	-28.9427E-3
-762.881E-6	-5.38320E-12	114.407E-3	-6.30462E-3	-5.24219E-12	123.325E-3	-16.0987E-3
-767.884E-6	-5.50134E-12	113.382E-3	-11.7285E-3	-5.27517E-12	115.740E-3	-13.2334E-3
-772.886E-6	-5.49694E-12	110.642E-3	-20.0934E-3	-5.45992E-12	116.227E-3	-27.6890E-3
-777.889E-6	-5.54976E-12	104.912E-3	-19.7771E-3	-5.46150E-12	121.560E-3	-18.8195E-3
-782.891E-6	-5.61168E-12	103.411E-3	-13.4603E-3	-5.46296E-12	131.997E-3	-3.33410E-3
-787.894E-6	-5.67989E-12	110.516E-3	-18.9211E-3	-5.51337E-12	124.265E-3	-4.67155E-3
-792.896E-6	-5.68185E-12	124.883E-3	-32.6457E-3	-5.65648E-12	109.926E-3	-5.02420E-3
-797.899E-6	-5.69957E-12	133.402E-3	-28.6599E-3	-5.74773E-12	115.595E-3	-5.80721E-3
-802.901E-6	-5.70495E-12	128.762E-3	-3.25212E-3	-5.73874E-12	115.103E-3	-8.71103E-3
-807.904E-6	-5.71658E-12	129.250E-3	3.60220E-3	-5.71700E-12	110.043E-3	574.942E-6
-812.906E-6	-5.79324E-12	134.301E-3	-10.7012E-3	-5.78033E-12	123.027E-3	3.50990E-3
-817.909E-6	-5.77677E-12	128.167E-3	-15.9673E-3	-5.88324E-12	127.816E-3	-16.2415E-3
-822.911E-6	-5.75055E-12	120.091E-3	-24.8573E-3	-5.93845E-12	119.415E-3	-18.6119E-3
-827.914E-6	-5.81766E-12	110.468E-3	-36.4489E-3	-5.87184E-12	125.650E-3	-8.45946E-3
-832.916E-6	-5.87723E-12	105.064E-3	-38.7529E-3	-5.87918E-12	135.907E-3	-20.8971E-3
-837.919E-6	-5.94636E-12	117.017E-3	-44.6661E-3	-5.94669E-12	135.117E-3	-23.9096E-3
-842.921E-6	-5.92565E-12	126.120E-3	-42.2341E-3	-6.08421E-12	142.147E-3	-5.35062E-3
-847.924E-6	-6.00461E-12	118.233E-3	-26.3101E-3	-6.09734E-12	145.034E-3	5.67214E-3
-852.926E-6	-6.06840E-12	108.285E-3	-19.5343E-3	-6.05961E-12	138.593E-3	-981.890E-6
-857.929E-6	-6.06160E-12	116.141E-3	-19.4037E-3	-6.06973E-12	151.313E-3	-9.30207E-3
-862.931E-6	-6.20946E-12	129.267E-3	-10.4428E-3	-6.20640E-12	155.943E-3	-8.21992E-3
-867.934E-6	-6.22598E-12	131.235E-3	-5.45569E-3	-6.29880E-12	141.731E-3	-5.45139E-3
-872.936E-6	-6.31219E-12	126.502E-3	-10.0698E-3	-6.32780E-12	141.727E-3	-4.39532E-3
-877.939E-6	-6.37759E-12	123.676E-3	-6.19931E-3	-6.33049E-12	143.526E-3	-12.3955E-3
-882.941E-6	-6.46342E-12	136.583E-3	-1.09870E-3	-6.45538E-12	134.751E-3	-18.6858E-3
-887.944E-6	-6.54015E-12	155.137E-3	-11.7721E-3	-6.64479E-12	132.004E-3	-4.95401E-3
-892.946E-6	-6.51401E-12	157.487E-3	-21.5490E-3	-6.63094E-12	138.422E-3	4.35884E-3
-897.949E-6	-6.59789E-12	150.937E-3	-18.6716E-3	-6.54314E-12	146.228E-3	-2.39977E-3
-902.951E-6	-6.72361E-12	156.236E-3	-15.6607E-3	-6.65436E-12	154.871E-3	-4.97886E-3
-907.954E-6	-6.66917E-12	163.119E-3	-11.6479E-3	-6.76459E-12	157.046E-3	-6.27098E-3
-912.956E-6	-6.67411E-12	149.653E-3	-11.5134E-3	-6.82724E-12	150.002E-3	-4.09260E-3
-917.959E-6	-6.71170E-12	133.719E-3	-21.5437E-3	-6.74235E-12	157.131E-3	-1.65863E-3
-922.961E-6	-6.72828E-12	139.816E-3	-22.3014E-3	-6.74754E-12	178.588E-3	-18.4518E-3
-927.964E-6	-6.81268E-12	153.950E-3	-19.0315E-3	-6.86633E-12	179.579E-3	-30.7067E-3
-932.966E-6	-6.82637E-12	157.872E-3	-17.0550E-3	-6.87635E-12	170.157E-3	-17.9262E-3
-937.969E-6	-6.82911E-12	157.949E-3	-7.97008E-3	-6.94567E-12	180.376E-3	-10.4243E-3
-942.971E-6	-6.90020E-12	154.641E-3	-10.6036E-3	-6.95885E-12	193.550E-3	-23.4023E-3
-947.974E-6	-6.99752E-12	154.995E-3	-22.2859E-3	-6.91478E-12	192.525E-3	-29.2351E-3
-952.976E-6	-7.01438E-12	163.164E-3	-24.5286E-3	-7.10411E-12	188.389E-3	-19.2628E-3
-957.979E-6	-7.06394E-12	162.085E-3	-18.4091E-3	-7.27279E-12	191.795E-3	-13.3553E-3
-962.981E-6	-7.11885E-12	163.134E-3	-19.0806E-3	-7.25975E-12	186.948E-3	-18.4578E-3
-967.984E-6	-7.21006E-12	168.839E-3	-27.0757E-3	-7.25091E-12	175.670E-3	-27.3462E-3
-972.986E-6	-7.38745E-12	165.365E-3	-24.5796E-3	-7.52130E-12	180.847E-3	-24.9679E-3
-977.989E-6	-7.46164E-12	174.012E-3	-16.4306E-3	-7.56163E-12	194.183E-3	-9.18279E-3
-982.991E-6	-7.53481E-12	185.832E-3	-9.45344E-3	-7.59772E-12	212.063E-3	-2.04827E-3
-987.994E-6	-7.62533E-12	179.254E-3	-6.55511E-3	-7.67003E-12	228.106E-3	-16.2231E-3
-992.997E-6	-7.76604E-12	180.432E-3	-14.6893E-3	-7.69799E-12	221.981E-3	-24.2583E-3
-997.999E-6	-7.82008E-12	192.562E-3	-23.4846E-3	-7.77328E-12	214.941E-3	-20.3810E-3
-1.00300E-3	-7.82678E-12	202.509E-3	-15.8611E-3	-7.92543E-12	220.969E-3	-33.0705E-3
-1.00800E-3	-7.99274E-12	207.495E-3	1.47731E-3	-7.94020E-12	219.860E-3	-39.6758E-3
-1.01301E-3	-8.06064E-12	202.524E-3	7.74162E-3	-7.90086E-12	219.389E-3	-17.1857E-3
-1.01801E-3	-8.08642E-12	200.661E-3	2.85712E-3	-7.97302E-12	222.988E-3	-7.71880E-3
-1.02301E-3	-8.12733E-12	212.286E-3	-7.91064E-3	-8.11792E-12	223.426E-3	-19.0179E-3
-1.02801E-3	-8.18400E-12	230.311E-3	-16.2141E-3	-8.20874E-12	230.652E-3	-25.3140E-3
-1.03302E-3	-8.22929E-12	236.880E-3	-16.7601E-3	-8.23499E-12	247.580E-3	-34.4962E-3
-1.03802E-3	-8.28660E-12	232.677E-3	-13.5445E-3	-8.24654E-12	256.936E-3	-35.2217E-3
-1.04302E-3	-8.35199E-12	234.280E-3	-7.81674E-3	-8.40294E-12	255.160E-3	-18.1566E-3
-1.04802E-3	-8.38787E-12	244.118E-3	-1.04071E-3	-8.54220E-12	257.309E-3	-13.5718E-3
-1.05303E-3	-8.41209E-12	255.952E-3	-4.73697E-3	-8.60645E-12	269.041E-3	-23.3652E-3
-1.05803E-3	-8.51286E-12	260.454E-3	-11.5734E-3	-8.61089E-12	285.263E-3	-29.2346E-3
-1.06303E-3	-8.60382E-12	262.843E-3	-9.79866E-3	-8.73680E-12	292.547E-3	-34.0009E-3
-1.06803E-3	-8.75399E-12	260.931E-3	-11.2961E-3	-8.92655E-12	294.721E-3	-32.3723E-3
-1.07304E-3	-8.84433E-12	253.884E-3	-15.8185E-3	-9.09808E-12	305.065E-3	-19.0552E-3
-1.07804E-3	-8.96929E-12	256.325E-3	-18.1416E-3	-9.07850E-12	327.650E-3	-11.4332E-3
-1.08304E-3	-9.20116E-12	268.544E-3	-20.3189E-3	-9.12243E-12	344.147E-3	-10.7827E-3
-1.08804E-3	-9.32033E-12	287.147E-3	-25.3276E-3	-9.32115E-12	344.762E-3	-1.51209E-3
-1.09305E-3	-9.41485E-12	305.172E-3	-17.9346E-3	-9.48112E-12	349.088E-3	-3.55958E-3
-1.09805E-3	-9.58851E-12	305.582E-3	-6.90203E-3	-9.60194E-12	357.482E-3	-24.2424E-3
-1.10305E-3	-9.65958E-12	310.194E-3	-15.2751E-3	-9.61316E-12	367.033E-3	-28.5516E-3
-1.10805E-3	-9.79593E-12	332.088E-3	-14.8305E-3	-9.65562E-12	376.096E-3	-15.6403E-3
-1.11306E-3	-9.97419E-12	343.862E-3	-4.70369E-3	-9.90354E-12	374.432E-3	-8.29247E-3
-1.11806E-3	-10.0092E-12	350.132E-3	-12.9769E-3	-10.1366E-12	378.242E-3	-6.29761E-3
-1.12306E-3	-10.0754E-12	360.397E-3	-25.9150E-3	-10.1008E-12	403.151E-3	-7.60214E-3
-1.12806E-3	-10.2275E-12	361.176E-3	-17.7611E-3	-10.2205E-12	423.429E-3	-16.3530E-3
-1.13307E-3	-10.3849E-12	361.112E-3	-2.62496E-3	-10.3686E-12	425.447E-3	-25.8419E-3
-1.13807E-3	-10.4024E-12	375.705E-3	2.14506E-3	-10.6064E-12	436.670E-3	-26.5255E-3
-1.14307E-3	-10.4596E-12	393.586E-3	5.28952E-3	-10.6827E-12	452.183E-3	-29.7276E-3
-1.14807E-3	-10.6810E-12	402.460E-3	2.93803E-3	-10.6753E-12	459.877E-3	-24.7667E-3
-1.15308E-3	-10.8464E-12	412.352E-3	-10.3032E-3	-10.8175E-12	480.153E-3	-3.20789E-3
-1.15808E-3	-10.8622E-12	433.242E-3	-24.5531E-3	-11.0429E-12	502.991E-3	2.78634E-3
-1.16308E-3	-11.0799E-12	455.136E-3	-38.6770E-3	-11.2758E-12	502.489E-3	-2.53904E-3
-1.16808E-3	-11.2738E-12	470.486E-3	-43.3771E-3	-11.3992E-12	506.360E-3	-4.01206E-3
-1.17309E-3	-11.5275E-12	478.459E-3	-39.9635E-3	-11.4803E-12	533.756E-3	-14.6090E-3
-1.17809E-3	-11.8011E-12	484.638E-3	-39.7887E-3	-11.6770E-12	552.087E-3	-21.6267E-3
-1.18309E-3	-11.9428E-12	498.678E-3	-31.0582E-3	-11.9316E-12	564.039E-3	-12.3737E-3
-1.18809E-3	-12.1746E-12	519.267E-3	-21.1579E-3	-12.0885E-12	583.614E-3	-13.2102E-3
-1.19310E-3	-12.4281E-12	537.432E-3	-16.5847E-3	-12.1138E-12	595.558E-3	-25.2466E-3
-1.19810E-3	-12.7372E-12	557.367E-3	-7.90875E-3	-12.3469E-12	615.769E-3	-23.0225E-3
-1.20310E-3	-12.9448E-12	582.153E-3	-41.4779E-6	-12.7351E-12	646.006E-3	-18.9045E-3
-1.20810E-3	-13.0688E-12	603.908E-3	-4.54064E-3	-12.9158E-12	646.421E-3	-19.9975E-3
-1.21311E-3	-13.3475E-12	622.777E-3	-20.9556E-3	-12.9950E-12	645.501E-3	-19.7975E-3
-1.21811E-3	-13.5120E-12	633.938E-3	-24.6626E-3	-13.2912E-12	683.863E-3	-25.2195E-3
-1.22311E-3	-13.6163E-12	643.243E-3	-15.1287E-3	-13.6053E-12	715.462E-3	-25.2588E-3
-1.22811E-3	-13.8743E-12	659.577E-3	-10.9301E-3	-13.8792E-12	722.973E-3	-11.1043E-3
-1.23312E-3	-14.0659E-12	668.301E-3	-15.7114E-3	-14.0832E-12	737.228E-3	-13.1636E-3
-1.23812E-3	-14.3373E-12	672.143E-3	-23.1747E-3	-14.3451E-12	747.943E-3	-29.8069E-3
-1.24312E-3	-14.4476E-12	677.687E-3	-23.0027E-3	-14.5819E-12	758.724E-3	-32.8925E-3
-1.24812E-3	-14.6943E-12	686.198E-3	-6.54333E-3	-14.7854E-12	784.631E-3	-41.5611E-3
-1.25313E-3	-14.9542E-12	703.224E-3	11.9729E-3	-14.9463E-12	803.937E-3	-50.2016E-3
-1.25813E-3	-15.0848E-12	722.890E-3	1.92004E-3	-15.2820E-12	814.432E-3	-31.3258E-3
-1.26313E-3	-15.3804E-12	744.390E-3	-20.2062E-3	-15.5569E-12	835.791E-3	-14.7460E-3
-1.26813E-3	-15.9153E-12	763.575E-3	-27.8570E-3	-15.7870E-12	862.515E-3	-16.8326E-3
-1.27314E-3	-15.9920E-12	781.874E-3	-20.8519E-3	-16.0599E-12	874.832E-3	-9.09940E-3
-1.27814E-3	-16.1079E-12	804.007E-3	-3.55314E-3	-16.3769E-12	887.938E-3	3.66264E-3
-1.28314E-3	-16.5670E-12	818.647E-3	8.32631E-3	-16.7078E-12	906.469E-3	-1.06366E-3
-1.28814E-3	-16.8709E-12	828.967E-3	284.075E-6	-16.8407E-12	910.774E-3	-13.2655E-3
-1.29315E-3	-17.2231E-12	847.474E-3	-19.1754E-3	-17.2444E-12	918.539E-3	-21.0177E-3
-1.29815E-3	-17.4844E-12	867.129E-3	-23.4198E-3	-17.6546E-12	932.312E-3	-33.7768E-3
-1.30315E-3	-17.7589E-12	885.828E-3	-20.0017E-3	-18.0409E-12	936.550E-3	-45.5273E-3
-1.30815E-3	-18.1259E-12	902.998E-3	-15.6514E-3	-18.2654E-12	965.849E-3	-43.3042E-3
-1.31316E-3	-18.4011E-12	916.171E-3	-3.55477E-3	-18.5157E-12	1.00663E+0	-39.6373E-3
-1.31816E-3	-18.5804E-12	934.010E-3	-13.7846E-3	-19.0013E-12	1.01459E+0	-40.2065E-3
-1.32316E-3	-18.8381E-12	956.425E-3	-33.4791E-3	-19.4420E-12	1.01878E+0	-22.4327E-3
-1.32816E-3	-19.2868E-12	964.668E-3	-27.2655E-3	-19.6238E-12	1.03064E+0	-9.83599E-3
-1.33317E-3	-19.5961E-12	960.400E-3	-18.4691E-3	-19.9088E-12	1.03031E+0	-12.4617E-3
-1.33817E-3	-19.7906E-12	967.025E-3	-18.5310E-3	-20.2522E-12	1.03586E+0	-6.42220E-3
-1.34317E-3	-20.0657E-12	980.034E-3	-11.4395E-3	-20.5898E-12	1.05307E+0	-14.9200E-3
-1.34817E-3	-20.4405E-12	989.908E-3	-326.669E-6	-20.8236E-12	1.06263E+0	-34.7632E-3
-1.35318E-3	-20.6423E-12	1.01416E+0	1.49175E-3	-21.0610E-12	1.07777E+0	-31.5620E-3
-1.35818E-3	-21.0651E-12	1.03734E+0	-3.21571E-3	-21.2080E-12	1.09190E+0	-26.3886E-3
-1.36318E-3	-21.4850E-12	1.04588E+0	-11.8979E-3	-21.7443E-12	1.08463E+0	-35.9037E-3
-1.36818E-3	-22.0898E-12	1.05707E+0	-21.0786E-3	-22.1187E-12	1.08412E+0	-33.0307E-3
-1.37319E-3	-22.5449E-12	1.06883E+0	-18.0248E-3	-22.3422E-12	1.11091E+0	-21.5640E-3
-1.37819E-3	-22.7823E-12	1.07814E+0	-8.40047E-3	-22.7109E-12	1.13109E+0	-19.3562E-3
-1.38319E-3	-23.1674E-12	1.08203E+0	-7.73560E-3	-22.9462E-12	1.14594E+0	-20.3296E-3
-1.38819E-3	-23.7975E-12	1.08330E+0	-19.8420E-3	-23.3016E-12	1.16622E+0	-23.1026E-3
-1.39320E-3	-23.9956E-12	1.08626E+0	-28.3105E-3	-23.9945E-12	1.16479E+0	-28.8782E-3
-1.39820E-3	-24.4060E-12	1.09109E+0	-15.9336E-3	-24.4135E-12	1.16593E+0	-26.8815E-3
-1.40320E-3	-24.8325E-12	1.10380E+0	-10.4972E-3	-24.5715E-12	1.18802E+0	-23.4154E-3
-1.40820E-3	-25.3606E-12	1.12788E+0	-26.9356E-3	-25.0391E-12	1.19148E+0	-19.6790E-3
-1.41321E-3	-25.6378E-12	1.15082E+0	-28.9859E-3	-25.7127E-12	1.17828E+0	2.55864E-3
-1.41821E-3	-26.0790E-12	1.16037E+0	-13.3400E-3	-26.1892E-12	1.18492E+0	23.2158E-3
-1.42321E-3	-26.6622E-12	1.16467E+0	-8.87762E-3	-26.3516E-12	1.19346E+0	5.62095E-3
-1.42821E-3	-27.0662E-12	1.17997E+0	-21.2197E-3	-26.7399E-12	1.19590E+0	-17.2151E-3
-1.43322E-3	-27.2973E-12	1.20120E+0	-30.0738E-3	-27.4539E-12	1.22039E+0	-15.2102E-3
-1.43822E-3	-27.7860E-12	1.20545E+0	-23.8043E-3	-27.8621E-12	1.23110E+0	-16.8239E-3
-1.44322E-3	-28.3184E-12	1.20020E+0	-12.1664E-3	-28.1335E-12	1.20771E+0	-21.5279E-3
-1.44822E-3	-28.4208E-12	1.19468E+0	-7.45870E-3	-28.4459E-12	1.20163E+0	-6.39147E-3
-1.45323E-3	-28.8256E-12	1.19131E+0	-9.56500E-3	-28.6063E-12	1.20824E+0	4.94249E-3
-1.45823E-3	-29.3149E-12	1.20626E+0	-13.1180E-3	-29.1929E-12	1.20690E+0	-2.97260E-3
-1.46323E-3	-29.5034E-12	1.22829E+0	-16.3701E-3	-29.6000E-12	1.21271E+0	-4.57866E-3
-1.46823E-3	-29.9636E-12	1.22423E+0	-13.1878E-3	-29.9920E-12	1.21554E+0	-3.19212E-3
-1.47324E-3	-30.4079E-12	1.20315E+0	-10.3243E-3	-30.3128E-12	1.20469E+0	261.719E-6
-1.47824E-3	-30.4690E-12	1.19583E+0	-7.27409E-3	-30.8272E-12	1.20476E+0	7.56987E-3
-1.48324E-3	-31.0077E-12	1.20519E+0	-569.493E-6	-31.2712E-12	1.22551E+0	-729.256E-6
-1.48824E-3	-31.5242E-12	1.21877E+0	-3.33870E-3	-31.5910E-12	1.22930E+0	-9.43041E-3
-1.49325E-3	-31.6382E-12	1.22339E+0	-18.1622E-3	-31.9700E-12	1.21417E+0	-5.14763E-3
-1.49825E-3	-32.0496E-12	1.20580E+0	-39.3481E-3	-32.5122E-12	1.21975E+0	-16.0709E-3
-1.50325E-3	-32.7458E-12	1.18329E+0	-47.1914E-3	-32.7902E-12	1.22106E+0	-29.6881E-3
-1.50825E-3	-33.0368E-12	1.18998E+0	-31.9014E-3	-33.3332E-12	1.20407E+0	-21.7846E-3
-1.51326E-3	-33.4404E-12	1.20903E+0	-15.9425E-3	-33.7837E-12	1.20672E+0	-19.3423E-3
-1.51826E-3	-34.2763E-12	1.21326E+0	-16.9501E-3	-34.2079E-12	1.20089E+0	-17.5054E-3
-1.52326E-3	-34.6640E-12	1.21692E+0	-26.4856E-3	-34.2793E-12	1.17791E+0	-10.0430E-3
-1.52826E-3	-34.7000E-12	1.21823E+0	-24.1945E-3	-34.8084E-12	1.18314E+0	-27.2273E-3
-1.53327E-3	-35.2483E-12	1.20987E+0	-19.7936E-3	-35.3864E-12	1.19180E+0	-50.0356E-3
-1.53827E-3	-35.6226E-12	1.21096E+0	-19.4259E-3	-35.6305E-12	1.18335E+0	-36.9067E-3
-1.54327E-3	-35.7547E-12	1.22234E+0	-13.1076E-3	-35.8579E-12	1.18565E+0	-14.5495E-3
-1.54827E-3	-36.0927E-12	1.22242E+0	-12.7804E-3	-36.3393E-12	1.17658E+0	-16.9852E-3
-1.55328E-3	-36.3944E-12	1.20316E+0	-20.5550E-3	-36.5513E-12	1.15022E+0	-17.6041E-3
-1.55828E-3	-36.5657E-12	1.17735E+0	-23.5449E-3	-36.7297E-12	1.15155E+0	-14.2320E-3
-1.56328E-3	-37.1224E-12	1.16213E+0	-16.9933E-3	-37.0747E-12	1.16096E+0	-26.9420E-3
-1.56828E-3	-37.5103E-12	1.16508E+0	-14.2576E-3	-37.5644E-12	1.15264E+0	-28.6523E-3
-1.57329E-3	-37.4226E-12	1.17093E+0	-21.4217E-3	-37.7752E-12	1.15498E+0	-18.1511E-3
-1.57829E-3	-37.9983E-12	1.15820E+0	-26.2851E-3	-38.3859E-12	1.16128E+0	-27.3768E-3
-1.58329E-3	-38.7295E-12	1.13794E+0	-24.9706E-3	-38.4583E-12	1.15520E+0	-37.2635E-3
-1.58829E-3	-38.9445E-12	1.14062E+0	-11.0614E-3	-39.0244E-12	1.15707E+0	-28.9371E-3
-1.59330E-3	-39.4911E-12	1.16040E+0	1.26513E-3	-39.6346E-12	1.15826E+0	-19.5213E-3
-1.59830E-3	-40.0445E-12	1.16783E+0	-9.53759E-3	-40.1332E-12	1.13718E+0	-11.9738E-3
-1.60330E-3	-40.6841E-12	1.15848E+0	-21.9881E-3	-40.4343E-12	1.12021E+0	1.45249E-3
-1.60830E-3	-41.5191E-12	1.14414E+0	-20.2848E-3	-41.0135E-12	1.12358E+0	6.47196E-3
-1.61331E-3	-41.9715E-12	1.14113E+0	-13.2677E-3	-41.2629E-12	1.11779E+0	2.27093E-3
-1.61831E-3	-42.5159E-12	1.14263E+0	-14.3773E-3	-41.5708E-12	1.10898E+0	2.80657E-3
-1.62331E-3	-43.0507E-12	1.12504E+0	-23.6274E-3	-42.1356E-12	1.11110E+0	-5.36863E-3
-1.62831E-3	-43.3479E-12	1.11427E+0	-22.9293E-3	-42.5924E-12	1.10402E+0	-22.3814E-3
-1.63332E-3	-43.6884E-12	1.13281E+0	-13.7809E-3	-42.6022E-12	1.09143E+0	-12.1156E-3
-1.63832E-3	-43.9889E-12	1.14966E+0	-6.49183E-3	-43.2921E-12	1.08698E+0	10.9182E-3
-1.64332E-3	-44.2987E-12	1.14801E+0	-8.86142E-3	-43.7021E-12	1.07424E+0	11.2719E-3
-1.64832E-3	-44.0855E-12	1.13958E+0	-17.4929E-3	-44.1507E-12	1.05562E+0	2.76121E-3
-1.65333E-3	-44.5398E-12	1.12561E+0	-19.4207E-3	-44.3786E-12	1.06062E+0	-4.46548E-3
-1.65833E-3	-44.7592E-12	1.10593E+0	-20.3032E-3	-44.6807E-12	1.06100E+0	-13.1081E-3
-1.66333E-3	-44.9147E-12	1.09276E+0	-23.5630E-3	-45.0022E-12	1.05195E+0	-14.8822E-3
-1.66833E-3	-44.9381E-12	1.07888E+0	-20.1749E-3	-45.7522E-12	1.07425E+0	-12.1080E-3
-1.67334E-3	-45.3978E-12	1.06390E+0	-16.7297E-3	-46.1868E-12	1.08981E+0	-21.9591E-3
-1.67834E-3	-45.4751E-12	1.05573E+0	-23.8440E-3	-46.1499E-12	1.07117E+0	-19.3678E-3
-1.68334E-3	-45.8499E-12	1.04438E+0	-22.8679E-3	-46.6176E-12	1.05059E+0	-2.16860E-3
-1.68834E-3	-46.5570E-12	1.03525E+0	-15.2296E-3	-47.3005E-12	1.03747E+0	-5.25430E-3
-1.69335E-3	-46.9318E-12	1.03285E+0	-19.4662E-3	-47.7547E-12	1.03417E+0	-2.23293E-3
-1.69835E-3	-47.6663E-12	1.03134E+0	-26.4457E-3	-47.6738E-12	1.04482E+0	7.30186E-3
-1.70335E-3	-48.2319E-12	1.02421E+0	-33.8743E-3	-47.8217E-12	1.04203E+0	-843.008E-6
-1.70835E-3	-48.7242E-12	1.01860E+0	-32.8366E-3	-48.3020E-12	1.01282E+0	-6.52305E-3
-1.71336E-3	-48.9659E-12	1.02785E+0	-12.1825E-3	-48.9757E-12	997.105E-3	-7.21829E-3
-1.71836E-3	-49.5108E-12	1.03368E+0	-12.5813E-3	-49.2007E-12	995.791E-3	-5.04828E-3
-1.72336E-3	-49.7008E-12	1.02840E+0	-33.4177E-3	-49.1507E-12	976.758E-3	598.406E-6
-1.72836E-3	-49.8721E-12	1.02880E+0	-27.3359E-3	-49.6589E-12	972.437E-3	-8.60054E-3
-1.73337E-3	-50.1709E-12	1.01555E+0	-8.17198E-3	-50.0592E-12	979.557E-3	-33.4465E-3
-1.73837E-3	-50.1423E-12	997.083E-3	-4.21224E-3	-50.1946E-12	974.735E-3	-35.7865E-3
-1.74337E-3	-50.3744E-12	1.00036E+0	-3.20542E-3	-50.6076E-12	977.076E-3	-10.1773E-3
-1.74837E-3	-50.6945E-12	999.808E-3	2.91725E-3	-50.8053E-12	982.631E-3	-5.51689E-3
-1.75338E-3	-50.7800E-12	989.688E-3	-760.254E-6	-51.1232E-12	973.690E-3	-17.2771E-3
-1.75838E-3	-50.7938E-12	992.543E-3	-24.5722E-3	-51.3934E-12	960.523E-3	-9.70653E-3
-1.76338E-3	-50.9982E-12	993.150E-3	-47.0282E-3	-51.6967E-12	952.718E-3	-7.11985E-3
-1.76838E-3	-51.1451E-12	976.518E-3	-43.6071E-3	-51.7424E-12	944.166E-3	-21.3051E-3
-1.77339E-3	-51.5941E-12	960.639E-3	-31.7483E-3	-52.1214E-12	947.980E-3	-19.4441E-3
-1.77839E-3	-52.1244E-12	938.696E-3	-26.2663E-3	-52.2580E-12	943.569E-3	-14.1351E-3
-1.78339E-3	-52.3752E-12	925.197E-3	-27.6658E-3	-52.7174E-12	907.770E-3	-12.6983E-3
-1.78839E-3	-52.7374E-12	942.106E-3	-36.9130E-3	-52.7358E-12	894.175E-3	3.86830E-3
-1.79340E-3	-53.4030E-12	950.379E-3	-37.2271E-3	-52.7490E-12	913.770E-3	6.83205E-3
-1.79840E-3	-53.8698E-12	935.516E-3	-27.1421E-3	-52.9262E-12	905.702E-3	-8.39030E-3
-1.80340E-3	-54.2580E-12	924.771E-3	-14.6434E-3	-53.4509E-12	889.390E-3	-3.73048E-3
-1.80840E-3	-54.6202E-12	929.736E-3	-8.30296E-3	-53.8058E-12	900.742E-3	6.40846E-3
-1.81341E-3	-54.8825E-12	940.233E-3	-10.2795E-3	-53.9131E-12	914.136E-3	-7.21916E-3
-1.81841E-3	-55.6861E-12	939.791E-3	-10.1438E-3	-54.6210E-12	921.025E-3	-18.0969E-3
-1.82341E-3	-55.8797E-12	924.466E-3	-20.4090E-3	-55.2744E-12	925.904E-3	-20.6971E-3
-1.82841E-3	-56.0081E-12	907.907E-3	-31.1355E-3	-55.7882E-12	916.097E-3	-29.5628E-3
-1.83342E-3	-56.6502E-12	898.659E-3	-21.1265E-3	-55.7813E-12	897.616E-3	-17.9035E-3
-1.83842E-3	-56.6768E-12	893.250E-3	-11.5343E-3	-56.6093E-12	902.189E-3	-4.92727E-3
-1.84342E-3	-56.8990E-12	901.446E-3	-5.67229E-3	-56.9058E-12	913.428E-3	-18.5231E-3
-1.84842E-3	-57.3883E-12	915.945E-3	238.691E-6	-57.1945E-12	898.409E-3	-14.0078E-3
-1.85343E-3	-57.4462E-12	920.244E-3	-6.30183E-3	-57.8577E-12	888.769E-3	14.4699E-3
-1.85843E-3	-57.6578E-12	903.524E-3	-18.9762E-3	-57.9674E-12	884.385E-3	11.8794E-3
-1.86343E-3	-58.1239E-12	883.014E-3	-21.3392E-3	-58.1288E-12	866.458E-3	-17.3240E-3
-1.86843E-3	-58.2699E-12	890.216E-3	-4.59206E-3	-58.7171E-12	872.760E-3	-26.2252E-3
-1.87344E-3	-58.1808E-12	895.699E-3	3.89456E-3	-59.0949E-12	895.691E-3	-22.2240E-3
-1.87844E-3	-58.8067E-12	879.968E-3	-6.34480E-3	-58.8167E-12	891.176E-3	-19.0037E-3
-1.88344E-3	-59.1839E-12	876.227E-3	-3.66969E-3	-59.1247E-12	874.689E-3	-12.4546E-3
-1.88844E-3	-59.0785E-12	882.699E-3	260.324E-6	-59.2369E-12	864.225E-3	-32.0088E-3
-1.89345E-3	-59.5705E-12	879.044E-3	-12.4943E-3	-59.5215E-12	856.010E-3	-56.4329E-3
-1.89845E-3	-60.0019E-12	875.625E-3	-21.5936E-3	-59.9540E-12	865.610E-3	-44.0287E-3
-1.90345E-3	-59.5988E-12	878.458E-3	-22.3252E-3	-60.4534E-12	867.527E-3	-29.1767E-3
-1.90845E-3	-59.9232E-12	888.176E-3	-14.3812E-3	-60.7288E-12	848.409E-3	-25.7723E-3
-1.91346E-3	-60.5338E-12	894.645E-3	-296.308E-6	-61.3477E-12	847.953E-3	-19.0217E-3
-1.91846E-3	-60.7611E-12	890.852E-3	850.743E-6	-61.9957E-12	859.308E-3	-22.2131E-3
-1.92346E-3	-60.9367E-12	882.571E-3	-11.8515E-3	-62.5535E-12	856.528E-3	-23.0705E-3
-1.92846E-3	-61.5600E-12	870.084E-3	-26.3621E-3	-62.7039E-12	845.884E-3	-9.84403E-3
-1.93347E-3	-61.8633E-12	869.481E-3	-26.4688E-3	-62.6878E-12	847.222E-3	-9.84014E-3
-1.93847E-3	-62.1472E-12	870.844E-3	-26.0011E-3	-63.4889E-12	853.827E-3	-17.5461E-3
-1.94347E-3	-62.6733E-12	856.078E-3	-31.1452E-3	-63.9024E-12	853.191E-3	-8.22120E-3
-1.94847E-3	-63.5145E-12	850.801E-3	-25.9384E-3	-63.7184E-12	854.729E-3	-783.229E-6
-1.95348E-3	-63.9458E-12	855.937E-3	-22.4917E-3	-63.8072E-12	841.828E-3	-11.9975E-3
-1.95848E-3	-63.9640E-12	863.456E-3	-16.5733E-3	-64.2701E-12	816.756E-3	-14.6887E-3
-1.96348E-3	-64.6738E-12	873.360E-3	-5.67385E-3	-64.3667E-12	811.249E-3	-13.7546E-3
-1.96848E-3	-64.8492E-12	874.328E-3	-8.39667E-3	-64.1494E-12	813.727E-3	-21.6880E-3
-1.97349E-3	-64.6324E-12	868.228E-3	-23.4696E-3	-64.0942E-12	809.463E-3	-9.34023E-3
-1.97849E-3	-64.5861E-12	847.526E-3	-29.9020E-3	-63.9225E-12	809.391E-3	-311.515E-6
-1.98349E-3	-65.2713E-12	821.286E-3	-25.6181E-3	-64.1371E-12	800.612E-3	-19.3331E-3
-1.98849E-3	-64.8903E-12	819.093E-3	-11.9659E-3	-64.4051E-12	782.521E-3	-20.6128E-3
-1.99350E-3	-64.9685E-12	833.414E-3	3.91506E-3	-64.1794E-12	784.871E-3	-2.46804E-3
-1.99850E-3	-64.9627E-12	836.526E-3	-5.27329E-3	-64.5567E-12	798.976E-3	-3.86410E-3
-2.00350E-3	-65.1611E-12	818.698E-3	-20.4155E-3	-65.2158E-12	800.350E-3	-12.8926E-3
-2.00850E-3	-65.4838E-12	803.614E-3	-19.3833E-3	-65.3227E-12	805.576E-3	-10.5977E-3
-2.01351E-3	-65.8519E-12	811.300E-3	-14.5417E-3	-65.7932E-12	805.749E-3	-13.5345E-3
-2.01851E-3	-66.0852E-12	817.475E-3	-12.1381E-3	-66.6295E-12	795.137E-3	-17.6800E-3
-2.02351E-3	-67.0832E-12	814.575E-3	-17.3381E-3	-66.9036E-12	807.020E-3	-18.5322E-3
-2.02851E-3	-67.8045E-12	811.271E-3	-23.5236E-3	-66.8979E-12	821.983E-3	-26.5904E-3
-2.03352E-3	-68.2470E-12	814.671E-3	-19.7349E-3	-67.8542E-12	814.437E-3	-26.6790E-3
-2.03852E-3	-68.7397E-12	834.461E-3	-12.0739E-3	-68.4426E-12	813.321E-3	-18.8041E-3
-2.04352E-3	-69.7379E-12	835.077E-3	-5.90622E-3	-68.3997E-12	820.770E-3	-27.5912E-3
-2.04852E-3	-70.1157E-12	804.875E-3	-5.59512E-3	-68.6368E-12	812.828E-3	-32.0882E-3
-2.05353E-3	-70.6701E-12	790.866E-3	-16.9979E-3	-69.2161E-12	810.090E-3	-14.6361E-3
-2.05853E-3	-70.9905E-12	797.667E-3	-19.1036E-3	-69.1881E-12	812.452E-3	-8.33313E-3
-2.06353E-3	-71.2031E-12	808.895E-3	-8.54083E-3	-69.1799E-12	801.628E-3	-10.0820E-3
-2.06853E-3	-71.5758E-12	821.038E-3	-3.46655E-3	-69.5218E-12	793.402E-3	-1.47747E-3
-2.07354E-3	-71.1538E-12	822.629E-3	-928.868E-6	-69.7484E-12	790.923E-3	-541.766E-6
-2.07854E-3	-70.5825E-12	816.963E-3	-9.15192E-3	-69.6290E-12	786.218E-3	-8.26601E-3
-2.08354E-3	-70.6368E-12	816.376E-3	-23.4074E-3	-69.7523E-12	779.833E-3	-10.5375E-3
-2.08854E-3	-70.1850E-12	811.579E-3	-27.0117E-3	-70.3335E-12	783.434E-3	-23.5217E-3
-2.09355E-3	-69.9113E-12	797.217E-3	-26.8159E-3	-70.5475E-12	790.179E-3	-36.1153E-3
-2.09855E-3	-69.9358E-12	793.534E-3	-20.4899E-3	-70.5019E-12	780.337E-3	-25.7879E-3
-2.10355E-3	-70.1457E-12	793.725E-3	-20.3169E-3	-71.4169E-12	778.261E-3	-10.4179E-3
-2.10855E-3	-70.1648E-12	784.561E-3	-25.1715E-3	-71.6199E-12	782.071E-3	-13.2784E-3
-2.11356E-3	-70.8490E-12	781.099E-3	-20.5229E-3	-71.9519E-12	775.789E-3	-33.6280E-3
-2.11856E-3	-71.1654E-12	787.556E-3	-19.2196E-3	-72.7548E-12	782.297E-3	-40.2471E-3
-2.12356E-3	-71.4200E-12	784.174E-3	-16.2759E-3	-73.0946E-12	791.405E-3	-19.6577E-3
-2.12856E-3	-72.2818E-12	772.403E-3	-11.1634E-3	-73.1335E-12	791.515E-3	-3.76467E-3
-2.13357E-3	-73.1924E-12	772.390E-3	-15.0474E-3	-73.5616E-12	788.858E-3	-6.31308E-3
-2.13857E-3	-73.3125E-12	783.757E-3	-23.2979E-3	-74.3430E-12	769.672E-3	-23.5408E-3
-2.14357E-3	-73.1838E-12	792.381E-3	-36.3823E-3	-74.1422E-12	759.773E-3	-41.8375E-3
-2.14857E-3	-73.4183E-12	780.777E-3	-37.4918E-3	-74.3132E-12	779.732E-3	-33.9126E-3
-2.15358E-3	-73.9839E-12	756.671E-3	-14.2729E-3	-74.2051E-12	779.551E-3	-20.3694E-3
-2.15858E-3	-74.3667E-12	762.647E-3	-6.32452E-3	-74.7297E-12	748.185E-3	-15.3957E-3
-2.16358E-3	-74.2189E-12	791.108E-3	-11.7799E-3	-75.2644E-12	734.099E-3	-17.4351E-3
-2.16858E-3	-74.2437E-12	788.834E-3	-11.2387E-3	-75.1701E-12	752.382E-3	-40.8318E-3
-2.17359E-3	-74.2458E-12	759.486E-3	-11.3906E-3	-74.8377E-12	774.991E-3	-39.1453E-3
-2.17859E-3	-74.3898E-12	750.277E-3	-15.1620E-3	-75.3401E-12	773.886E-3	-11.3739E-3
-2.18359E-3	-74.1273E-12	769.785E-3	-22.6720E-3	-74.9040E-12	755.143E-3	-16.0056E-3
-2.18859E-3	-74.3402E-12	785.042E-3	-18.5186E-3	-74.7498E-12	737.944E-3	-25.0368E-3
-2.19360E-3	-74.3760E-12	782.540E-3	-10.8677E-3	-75.0921E-12	744.344E-3	-16.4201E-3
-2.19860E-3	-75.0183E-12	767.722E-3	-18.4595E-3	-75.0603E-12	759.625E-3	-21.0095E-3
-2.20360E-3	-75.5202E-12	762.678E-3	-31.8128E-3	-74.9299E-12	749.996E-3	-23.5963E-3
-2.20860E-3	-75.5762E-12	768.977E-3	-23.1971E-3	-75.5617E-12	740.789E-3	-3.03221E-3
-2.21361E-3	-75.8809E-12	756.006E-3	3.18441E-3	-75.7834E-12	746.001E-3	-405.596E-6
-2.21861E-3	-77.2958E-12	737.898E-3	304.496E-6	-75.6965E-12	741.717E-3	-23.3510E-3
-2.22361E-3	-77.8767E-12	739.276E-3	-22.0902E-3	-76.2621E-12	736.040E-3	-18.3774E-3
-2.22861E-3	-77.8904E-12	750.268E-3	-26.7951E-3	-76.9007E-12	749.768E-3	-825.231E-6
-2.23362E-3	-79.0608E-12	750.794E-3	-25.0985E-3	-76.8692E-12	757.355E-3	-11.5017E-3
-2.23862E-3	-79.5316E-12	752.971E-3	-28.0731E-3	-77.3233E-12	750.967E-3	-9.66958E-3
-2.24362E-3	-79.2416E-12	768.023E-3	-29.0305E-3	-77.4116E-12	760.496E-3	4.45462E-3
-2.24862E-3	-79.9031E-12	775.210E-3	-21.9792E-3	-78.1458E-12	765.146E-3	-10.8308E-3
-2.25363E-3	-80.2955E-12	773.480E-3	-14.6251E-3	-78.6304E-12	750.673E-3	-29.6754E-3
-2.25863E-3	-80.0436E-12	767.328E-3	-14.4525E-3	-79.2484E-12	747.518E-3	-25.8682E-3
-2.26363E-3	-80.4720E-12	761.344E-3	-24.0644E-3	-79.4396E-12	748.621E-3	-31.5726E-3
-2.26863E-3	-80.5339E-12	767.491E-3	-34.7743E-3	-79.9609E-12	740.788E-3	-39.0931E-3
-2.27364E-3	-80.7292E-12	779.486E-3	-38.0458E-3	-80.5239E-12	737.877E-3	-35.0845E-3
-2.27864E-3	-81.5988E-12	784.921E-3	-43.3764E-3	-80.6459E-12	728.360E-3	-31.6957E-3
-2.28364E-3	-81.4059E-12	784.508E-3	-41.6820E-3	-80.8026E-12	703.989E-3	-23.7777E-3
-2.28864E-3	-81.6980E-12	772.558E-3	-27.5454E-3	-81.0232E-12	695.919E-3	-23.9361E-3
-2.29365E-3	-82.3812E-12	750.497E-3	-19.1942E-3	-81.2050E-12	715.988E-3	-38.2335E-3
-2.29865E-3	-82.3512E-12	741.761E-3	-23.4709E-3	-80.8703E-12	732.250E-3	-37.3549E-3
-2.30365E-3	-82.1974E-12	753.969E-3	-20.8749E-3	-81.3622E-12	733.269E-3	-10.5543E-3
-2.30865E-3	-82.7435E-12	762.824E-3	-543.528E-6	-81.5539E-12	740.459E-3	-8.44945E-3
-2.31366E-3	-83.3451E-12	759.727E-3	4.14687E-3	-81.6241E-12	760.138E-3	-25.9204E-3
-2.31866E-3	-83.1947E-12	761.906E-3	-12.0815E-3	-81.5840E-12	758.026E-3	-18.7187E-3
-2.32366E-3	-82.9536E-12	771.215E-3	-21.1617E-3	-82.2569E-12	742.788E-3	-11.0507E-3
-2.32866E-3	-83.7103E-12	774.539E-3	-18.9841E-3	-82.6823E-12	748.279E-3	-15.3092E-3
-2.33367E-3	-83.3699E-12	768.758E-3	-20.0041E-3	-82.6727E-12	748.436E-3	-14.8305E-3
-2.33867E-3	-82.8029E-12	752.905E-3	-25.4252E-3	-82.7540E-12	747.544E-3	-12.5299E-3
-2.34367E-3	-83.5524E-12	728.613E-3	-23.6181E-3	-83.3522E-12	744.975E-3	-9.77078E-3
-2.34867E-3	-83.6359E-12	714.799E-3	-33.1628E-3	-83.6778E-12	722.750E-3	-5.10165E-3
-2.35368E-3	-83.4365E-12	710.651E-3	-48.0520E-3	-84.1934E-12	720.956E-3	-8.01872E-3
-2.35868E-3	-84.0599E-12	709.977E-3	-42.6717E-3	-84.6472E-12	734.744E-3	-12.5435E-3
-2.36368E-3	-84.4547E-12	717.489E-3	-37.6138E-3	-85.3298E-12	736.954E-3	-19.3087E-3
-2.36868E-3	-84.4305E-12	717.262E-3	-25.1440E-3	-85.4097E-12	736.193E-3	-40.3709E-3
-2.37369E-3	-85.0987E-12	721.754E-3	-2.13088E-3	-85.8426E-12	735.485E-3	-45.8166E-3
-2.37869E-3	-86.2232E-12	729.776E-3	-3.76504E-3	-86.0199E-12	738.291E-3	-32.0307E-3
-2.38369E-3	-85.8959E-12	714.161E-3	-18.3138E-3	-85.8740E-12	739.303E-3	-22.0628E-3
-2.38869E-3	-85.5506E-12	701.903E-3	-18.1389E-3	-85.8854E-12	738.446E-3	-12.5124E-3
-2.39370E-3	-86.5309E-12	704.048E-3	-12.5470E-3	-86.0030E-12	747.820E-3	-2.23337E-3
-2.39870E-3	-86.3580E-12	705.908E-3	-10.7420E-3	-85.7190E-12	749.996E-3	4.14507E-3
-2.40370E-3	-86.9864E-12	700.734E-3	-8.39498E-3	-85.7795E-12	731.254E-3	2.42323E-3
-2.40870E-3	-86.7228E-12	701.645E-3	-5.65475E-3	-85.9006E-12	727.397E-3	-1.54589E-3
-2.41371E-3	-86.4401E-12	717.241E-3	-1.19495E-3	-85.6823E-12	745.442E-3	-8.81403E-3
-2.41871E-3	-86.3132E-12	733.751E-3	-1.59431E-3	-85.9183E-12	751.070E-3	-12.7894E-3
-2.42371E-3	-86.5921E-12	738.096E-3	-8.95279E-3	-86.4819E-12	729.918E-3	-985.325E-6
-2.42871E-3	-85.9214E-12	720.323E-3	-11.8941E-3	-86.1391E-12	715.683E-3	7.52586E-3
-2.43372E-3	-86.4120E-12	715.521E-3	-16.1292E-3	-86.2006E-12	726.279E-3	-1.45229E-3
-2.43872E-3	-87.1523E-12	730.262E-3	-26.7909E-3	-87.3462E-12	724.465E-3	-17.1408E-3
-2.44372E-3	-86.8619E-12	728.240E-3	-23.5516E-3	-88.0623E-12	721.574E-3	-26.2517E-3
-2.44872E-3	-87.1338E-12	714.446E-3	-6.60141E-3	-87.8469E-12	737.503E-3	-24.2810E-3
-2.45373E-3	-88.2249E-12	714.595E-3	-4.15181E-3	-88.5668E-12	733.989E-3	-18.5245E-3
-2.45873E-3	-88.5809E-12	724.327E-3	-11.4960E-3	-89.9404E-12	716.972E-3	-10.1998E-3
-2.46373E-3	-89.5532E-12	734.361E-3	-20.6545E-3	-90.0571E-12	722.628E-3	-1.89241E-3
-2.46873E-3	-90.5113E-12	730.813E-3	-19.4390E-3	-89.8631E-12	738.563E-3	-9.18141E-3
-2.47374E-3	-90.8304E-12	711.380E-3	2.01538E-3	-90.8039E-12	745.131E-3	-17.0912E-3
-2.47874E-3	-91.4705E-12	709.504E-3	11.1206E-3	-91.1788E-12	748.252E-3	-7.49077E-3
-2.48374E-3	-92.3530E-12	730.847E-3	-9.54549E-3	-91.3957E-12	746.233E-3	-3.16497E-3
-2.48874E-3	-92.5853E-12	749.179E-3	-30.4980E-3	-91.1283E-12	726.687E-3	-12.8558E-3
-2.49375E-3	-92.4090E-12	742.180E-3	-31.0776E-3	-91.2868E-12	708.354E-3	-24.0628E-3
-2.49875E-3	-92.1987E-12	728.767E-3	-20.6694E-3	-91.4433E-12	708.703E-3	-32.1907E-3
-2.50375E-3	-92.2077E-12	736.527E-3	-3.83255E-3	-91.6993E-12	710.040E-3	-34.7218E-3
-2.50875E-3	-92.1178E-12	738.009E-3	5.43924E-3	-91.4838E-12	712.097E-3	-40.3232E-3
-2.51376E-3	-91.9603E-12	725.831E-3	-5.49999E-3	-91.1846E-12	717.987E-3	-41.5077E-3
-2.51876E-3	-91.5892E-12	732.540E-3	-23.9449E-3	-91.2156E-12	705.077E-3	-24.3478E-3
-2.52376E-3	-91.6811E-12	738.615E-3	-20.7136E-3	-91.6675E-12	693.831E-3	-20.2604E-3
-2.52876E-3	-91.8074E-12	717.679E-3	4.98280E-3	-91.6597E-12	710.805E-3	-24.5805E-3
-2.53377E-3	-92.0995E-12	695.972E-3	5.75398E-3	-91.5303E-12	721.160E-3	-9.94470E-3
-2.53877E-3	-91.9258E-12	690.673E-3	-15.6437E-3	-92.0100E-12	723.951E-3	-6.90778E-3
-2.54377E-3	-92.4649E-12	701.075E-3	-24.8802E-3	-92.2615E-12	720.201E-3	-30.6179E-3
-2.54877E-3	-93.3367E-12	707.099E-3	-21.6460E-3	-92.7054E-12	700.564E-3	-31.4998E-3
-2.55378E-3	-93.8852E-12	690.110E-3	-18.7690E-3	-93.8828E-12	702.619E-3	-6.26788E-3
-2.55878E-3	-94.4861E-12	679.246E-3	-19.1210E-3	-93.6092E-12	718.835E-3	-2.59232E-3
-2.56378E-3	-95.1426E-12	690.571E-3	-20.6520E-3	-93.9092E-12	720.733E-3	-13.2169E-3
-2.56878E-3	-95.6989E-12	700.423E-3	-25.8845E-3	-94.7780E-12	725.164E-3	-26.7089E-3
-2.57379E-3	-96.2224E-12	701.256E-3	-22.1556E-3	-94.8063E-12	741.138E-3	-31.4244E-3
-2.57879E-3	-96.8413E-12	719.282E-3	-7.88486E-3	-94.7189E-12	741.310E-3	-10.5474E-3
-2.58379E-3	-95.9217E-12	745.769E-3	7.76407E-3	-95.5800E-12	723.289E-3	9.37537E-3
-2.58879E-3	-95.9950E-12	735.135E-3	11.6183E-3	-95.3742E-12	710.362E-3	3.82874E-3
-2.59380E-3	-96.6885E-12	700.819E-3	-126.996E-6	-95.9303E-12	703.705E-3	-16.9531E-3
-2.59880E-3	-95.8279E-12	698.372E-3	-17.5937E-3	-96.2161E-12	712.501E-3	-23.5907E-3
-2.60380E-3	-95.0793E-12	732.227E-3	-25.4689E-3	-95.9291E-12	722.898E-3	-23.6053E-3
-2.60880E-3	-95.7665E-12	746.173E-3	-22.1580E-3	-95.3533E-12	717.281E-3	-25.0240E-3
-2.61381E-3	-95.1206E-12	727.741E-3	-19.1572E-3	-96.4764E-12	707.628E-3	-6.94407E-3
-2.61881E-3	-95.0918E-12	706.311E-3	-13.5255E-3	-96.1774E-12	695.264E-3	6.65909E-3
-2.62381E-3	-96.1871E-12	692.473E-3	-3.04152E-3	-95.9728E-12	680.917E-3	-11.3401E-3
-2.62881E-3	-95.9808E-12	695.575E-3	320.173E-6	-96.4306E-12	680.796E-3	-37.3330E-3
-2.63382E-3	-96.3235E-12	697.636E-3	-13.0384E-3	-97.2546E-12	696.959E-3	-45.1890E-3
-2.63882E-3	-97.4374E-12	689.073E-3	-25.1853E-3	-97.5455E-12	705.098E-3	-44.8754E-3
-2.64382E-3	-98.0121E-12	687.401E-3	-20.5819E-3	-97.8528E-12	703.365E-3	-42.3620E-3
-2.64882E-3	-98.2148E-12	694.092E-3	-13.1691E-3	-98.1864E-12	709.026E-3	-30.8716E-3
-2.65383E-3	-99.2016E-12	701.152E-3	-20.0944E-3	-98.1053E-12	715.227E-3	-16.2192E-3
-2.65883E-3	-100.316E-12	703.876E-3	-40.8366E-3	-98.9555E-12	714.914E-3	-16.9836E-3
-2.66383E-3	-100.371E-12	701.983E-3	-58.8869E-3	-99.3755E-12	720.885E-3	-32.4439E-3
-2.66883E-3	-100.195E-12	695.315E-3	-48.0481E-3	-99.7065E-12	725.591E-3	-44.0738E-3
-2.67384E-3	-100.763E-12	691.299E-3	-20.1982E-3	-99.5323E-12	722.097E-3	-43.8789E-3
-2.67884E-3	-100.816E-12	692.063E-3	-9.93537E-3	-100.324E-12	726.086E-3	-37.4368E-3
-2.68384E-3	-100.758E-12	695.082E-3	-10.8966E-3	-101.038E-12	712.884E-3	-33.1748E-3
-2.68884E-3	-100.989E-12	706.632E-3	-14.1084E-3	-101.365E-12	688.186E-3	-28.5746E-3
-2.69385E-3	-99.8156E-12	716.017E-3	-20.7734E-3	-101.080E-12	701.953E-3	-33.2626E-3
-2.69885E-3	-100.106E-12	706.352E-3	-10.7562E-3	-101.849E-12	733.253E-3	-22.8489E-3
-2.70385E-3	-100.835E-12	688.082E-3	11.0815E-3	-102.721E-12	746.358E-3	5.71959E-3
-2.70885E-3	-101.127E-12	673.849E-3	18.4605E-3	-102.385E-12	738.705E-3	11.7547E-3
-2.71386E-3	-100.516E-12	671.570E-3	11.9960E-3	-102.411E-12	718.668E-3	-7.85175E-3
-2.71886E-3	-100.917E-12	677.242E-3	4.32039E-3	-102.236E-12	699.691E-3	-39.5002E-3
-2.72386E-3	-101.553E-12	690.988E-3	13.8484E-3	-103.079E-12	694.262E-3	-38.3293E-3
-2.72886E-3	-101.940E-12	713.558E-3	26.7875E-3	-103.109E-12	697.271E-3	-15.8434E-3
-2.73387E-3	-101.852E-12	724.522E-3	2.10483E-3	-103.183E-12	685.566E-3	-23.1760E-3
-2.73887E-3	-102.939E-12	711.854E-3	-32.5852E-3	-103.287E-12	674.339E-3	-31.5692E-3
-2.74387E-3	-103.284E-12	693.421E-3	-37.1688E-3	-103.085E-12	680.471E-3	-41.8868E-3
-2.74887E-3	-103.249E-12	702.919E-3	-18.7175E-3	-103.122E-12	687.614E-3	-60.4392E-3
-2.75388E-3	-103.431E-12	729.212E-3	-4.50667E-3	-103.009E-12	695.931E-3	-53.6656E-3
-2.75888E-3	-103.772E-12	737.481E-3	-12.6140E-3	-103.094E-12	690.909E-3	-36.3092E-3
-2.76388E-3	-103.108E-12	733.379E-3	-19.6847E-3	-103.636E-12	673.189E-3	-27.0237E-3
-2.76888E-3	-103.568E-12	716.737E-3	-16.0320E-3	-104.299E-12	679.751E-3	-25.5038E-3
-2.77389E-3	-103.068E-12	685.210E-3	-17.2712E-3	-104.186E-12	699.101E-3	-31.7971E-3
-2.77889E-3	-102.757E-12	670.990E-3	-14.6682E-3	-103.614E-12	688.387E-3	-36.7276E-3
-2.78389E-3	-103.235E-12	679.910E-3	-21.0042E-3	-103.928E-12	666.219E-3	-28.1971E-3
-2.78889E-3	-103.470E-12	691.598E-3	-32.9700E-3	-104.918E-12	665.134E-3	-12.2389E-3
-2.79390E-3	-103.464E-12	682.651E-3	-31.4516E-3	-104.354E-12	680.724E-3	-6.89963E-3
-2.79890E-3	-104.002E-12	674.650E-3	-27.6976E-3	-104.885E-12	698.945E-3	-6.37374E-3
-2.80390E-3	-104.659E-12	699.661E-3	-23.5791E-3	-105.259E-12	706.027E-3	-7.96100E-3
-2.80890E-3	-104.723E-12	720.956E-3	-19.1801E-3	-104.926E-12	691.481E-3	-10.6264E-3
-2.81391E-3	-104.672E-12	710.815E-3	-25.1894E-3	-105.552E-12	665.600E-3	-1.18069E-3
-2.81891E-3	-105.060E-12	692.316E-3	-36.4143E-3	-105.619E-12	665.453E-3	9.44081E-3
-2.82391E-3	-105.097E-12	695.139E-3	-36.1322E-3	-104.743E-12	694.791E-3	-5.98023E-3
-2.82891E-3	-105.249E-12	696.935E-3	-26.9195E-3	-104.930E-12	709.769E-3	-14.6975E-3
-2.83392E-3	-105.282E-12	676.475E-3	-6.03943E-3	-105.573E-12	694.043E-3	11.1388E-3
-2.83892E-3	-106.080E-12	662.259E-3	9.82084E-3	-105.559E-12	675.996E-3	18.5437E-3
-2.84392E-3	-105.792E-12	665.798E-3	3.06462E-3	-105.009E-12	668.596E-3	-3.74960E-3
-2.84892E-3	-105.636E-12	673.213E-3	-13.8775E-3	-106.200E-12	675.780E-3	-20.4164E-3
-2.85393E-3	-105.746E-12	684.773E-3	-22.2054E-3	-106.255E-12	690.612E-3	-13.0044E-3
-2.85893E-3	-106.025E-12	698.305E-3	-13.4389E-3	-106.369E-12	683.208E-3	5.11707E-3
-2.86393E-3	-106.703E-12	702.376E-3	-9.37992E-3	-107.508E-12	670.531E-3	-325.831E-6
-2.86893E-3	-106.828E-12	693.500E-3	-6.93261E-3	-107.450E-12	678.451E-3	-8.75511E-3
-2.87394E-3	-107.158E-12	671.959E-3	-12.5916E-3	-107.760E-12	690.687E-3	6.69342E-3
-2.87894E-3	-108.825E-12	658.993E-3	-31.9857E-3	-108.605E-12	705.721E-3	16.6481E-3
-2.88394E-3	-109.935E-12	662.038E-3	-35.7385E-3	-109.309E-12	716.488E-3	14.7940E-3
-2.88894E-3	-110.035E-12	678.261E-3	-28.8832E-3	-109.502E-12	704.435E-3	15.1068E-3
-2.89395E-3	-111.015E-12	710.078E-3	-24.2809E-3	-110.358E-12	695.095E-3	5.45929E-3
-2.89895E-3	-111.917E-12	731.123E-3	-19.8777E-3	-110.478E-12	694.827E-3	-3.14085E-3
-2.90395E-3	-112.159E-12	728.695E-3	-20.3322E-3	-110.326E-12	683.527E-3	-12.9011E-3
-2.90895E-3	-112.683E-12	723.882E-3	-29.1116E-3	-110.808E-12	683.519E-3	-32.2252E-3
-2.91396E-3	-112.970E-12	719.719E-3	-45.2954E-3	-111.290E-12	690.907E-3	-38.1338E-3
-2.91896E-3	-112.855E-12	710.078E-3	-51.6741E-3	-110.930E-12	685.199E-3	-45.6005E-3
-2.92396E-3	-112.612E-12	694.686E-3	-36.7278E-3	-110.860E-12	684.076E-3	-41.6956E-3
-2.92896E-3	-113.241E-12	681.859E-3	-23.8370E-3	-111.077E-12	688.600E-3	-15.0515E-3
-2.93397E-3	-112.821E-12	688.583E-3	-12.5082E-3	-110.952E-12	677.442E-3	3.28107E-3
-2.93897E-3	-111.811E-12	712.612E-3	4.55836E-3	-110.424E-12	664.349E-3	6.29285E-3
-2.94397E-3	-111.745E-12	717.691E-3	688.067E-6	-110.224E-12	668.163E-3	2.49619E-3
-2.94897E-3	-111.391E-12	703.181E-3	-20.1699E-3	-111.453E-12	676.046E-3	10.3475E-3
-2.95398E-3	-111.178E-12	703.253E-3	-33.2684E-3	-111.779E-12	681.275E-3	23.6168E-3
-2.95898E-3	-111.523E-12	703.168E-3	-28.0342E-3	-111.481E-12	688.371E-3	22.6404E-3
-2.96398E-3	-112.321E-12	692.871E-3	-9.47580E-3	-112.796E-12	700.758E-3	13.3925E-3
-2.96898E-3	-112.433E-12	686.467E-3	-497.349E-6	-112.870E-12	712.685E-3	-6.46267E-3
-2.97399E-3	-113.313E-12	683.284E-3	-2.19075E-3	-113.565E-12	711.219E-3	-34.2173E-3
-2.97899E-3	-114.334E-12	678.072E-3	-4.29608E-3	-114.429E-12	698.489E-3	-43.4029E-3
-2.98399E-3	-115.336E-12	680.767E-3	-10.8721E-3	-114.449E-12	681.553E-3	-29.2454E-3
-2.98899E-3	-115.608E-12	679.083E-3	-3.31362E-3	-114.265E-12	672.985E-3	-26.1126E-3
-2.99400E-3	-115.488E-12	670.486E-3	4.42562E-3	-115.165E-12	677.314E-3	-35.0826E-3
-2.99900E-3	-116.696E-12	678.088E-3	-21.1099E-3	-115.799E-12	677.494E-3	-26.1832E-3
-3.00400E-3	-116.948E-12	690.982E-3	-28.7590E-3	-115.334E-12	683.901E-3	-9.13333E-3
-3.00900E-3	-116.444E-12	693.679E-3	-8.89894E-3	-115.351E-12	693.810E-3	-4.53077E-3
-3.01401E-3	-115.808E-12	677.369E-3	-9.93376E-3	-115.382E-12	695.896E-3	-7.95211E-3
-3.01901E-3	-116.088E-12	669.236E-3	-16.7324E-3	-114.846E-12	693.051E-3	-10.6996E-3
-3.02401E-3	-115.260E-12	677.372E-3	-20.7885E-3	-115.034E-12	680.200E-3	-25.8744E-3
-3.02901E-3	-114.832E-12	667.200E-3	-30.1517E-3	-115.155E-12	677.747E-3	-44.0711E-3
-3.03402E-3	-114.055E-12	659.534E-3	-26.0202E-3	-115.391E-12	685.869E-3	-36.3619E-3
-3.03902E-3	-113.706E-12	673.968E-3	-4.34635E-3	-115.694E-12	683.995E-3	-22.3520E-3
-3.04402E-3	-113.614E-12	683.012E-3	5.94216E-3	-115.760E-12	668.821E-3	-28.9813E-3
-3.04902E-3	-113.405E-12	674.179E-3	-6.88739E-3	-116.429E-12	655.742E-3	-45.3404E-3
-3.05403E-3	-113.813E-12	666.092E-3	-26.0605E-3	-116.525E-12	673.308E-3	-49.2343E-3
-3.05903E-3	-114.670E-12	665.742E-3	-30.2711E-3	-117.421E-12	711.783E-3	-34.5791E-3
-3.06403E-3	-115.456E-12	676.984E-3	-18.5769E-3	-118.035E-12	715.754E-3	-12.9486E-3
-3.06903E-3	-116.115E-12	690.284E-3	-18.5750E-3	-117.697E-12	700.216E-3	-13.3288E-3
-3.07404E-3	-117.142E-12	682.899E-3	-25.5147E-3	-117.669E-12	698.933E-3	-30.0762E-3
-3.07904E-3	-118.007E-12	669.571E-3	-23.5915E-3	-118.812E-12	686.501E-3	-19.6404E-3
-3.08404E-3	-118.416E-12	666.449E-3	-16.2983E-3	-119.851E-12	679.238E-3	-3.96795E-3
-3.08904E-3	-119.373E-12	668.583E-3	3.59297E-3	-120.328E-12	679.307E-3	-10.2935E-3
-3.09405E-3	-120.735E-12	680.309E-3	16.0302E-3	-119.855E-12	667.383E-3	-20.3328E-3
-3.09905E-3	-120.659E-12	691.877E-3	-1.25297E-3	-120.196E-12	658.699E-3	-24.8474E-3
-3.10405E-3	-120.623E-12	698.487E-3	-17.3581E-3	-120.458E-12	668.388E-3	-23.2864E-3
-3.10905E-3	-121.438E-12	707.602E-3	-17.9971E-3	-120.065E-12	682.919E-3	-19.8566E-3
-3.11406E-3	-121.243E-12	708.375E-3	-28.6333E-3	-120.740E-12	675.088E-3	-22.5854E-3
-3.11906E-3	-120.986E-12	693.647E-3	-30.9534E-3	-119.705E-12	664.410E-3	-28.3383E-3
-3.12406E-3	-120.797E-12	681.058E-3	-11.6350E-3	-119.811E-12	671.115E-3	-39.6159E-3
-3.12906E-3	-120.174E-12	672.685E-3	-5.64063E-3	-120.480E-12	689.875E-3	-46.3545E-3
-3.13407E-3	-120.484E-12	673.602E-3	-9.85784E-3	-120.581E-12	712.707E-3	-33.6095E-3
-3.13907E-3	-120.188E-12	686.069E-3	-7.04302E-3	-120.021E-12	718.549E-3	-19.3740E-3
-3.14407E-3	-120.097E-12	683.886E-3	-12.7580E-3	-120.998E-12	700.422E-3	-23.5256E-3
-3.14907E-3	-120.281E-12	662.086E-3	-42.2533E-3	-121.223E-12	686.033E-3	-37.0856E-3
-3.15408E-3	-120.502E-12	640.527E-3	-57.7960E-3	-120.236E-12	684.139E-3	-46.9092E-3
-3.15908E-3	-120.903E-12	644.146E-3	-38.9186E-3	-121.085E-12	675.228E-3	-50.9963E-3
-3.16408E-3	-121.812E-12	669.227E-3	-14.0383E-3	-121.975E-12	677.302E-3	-45.4889E-3
-3.16908E-3	-121.462E-12	683.386E-3	-15.2491E-3	-121.870E-12	688.687E-3	-37.7322E-3
-3.17409E-3	-121.812E-12	680.949E-3	-33.8413E-3	-121.995E-12	678.338E-3	-29.5831E-3
-3.17909E-3	-122.935E-12	682.353E-3	-27.3755E-3	-122.799E-12	664.544E-3	-20.5167E-3
-3.18409E-3	-122.913E-12	695.047E-3	-8.79739E-3	-123.119E-12	671.035E-3	-16.7633E-3
-3.18909E-3	-122.803E-12	701.228E-3	-8.92884E-3	-123.003E-12	692.200E-3	-19.7830E-3
-3.19410E-3	-123.476E-12	692.395E-3	-26.5490E-3	-123.478E-12	700.428E-3	-17.4539E-3
-3.19910E-3	-122.688E-12	684.007E-3	-48.2237E-3	-123.490E-12	684.734E-3	-10.9031E-3
-3.20410E-3	-123.378E-12	669.902E-3	-50.9039E-3	-123.330E-12	669.778E-3	-15.1314E-3
-3.20910E-3	-124.029E-12	646.789E-3	-16.1409E-3	-123.950E-12	656.167E-3	-16.7079E-3
-3.21411E-3	-123.279E-12	639.531E-3	16.8869E-3	-124.122E-12	650.345E-3	-11.9951E-3
-3.21911E-3	-122.791E-12	662.281E-3	-8.05622E-3	-123.875E-12	663.140E-3	-18.4224E-3
-3.22411E-3	-123.906E-12	685.149E-3	-43.2156E-3	-124.609E-12	686.434E-3	-16.7698E-3
-3.22911E-3	-123.203E-12	682.970E-3	-42.5159E-3	-125.158E-12	703.907E-3	-12.3401E-3
-3.23412E-3	-123.654E-12	668.013E-3	-34.2648E-3	-125.475E-12	699.895E-3	-25.9137E-3
-3.23912E-3	-125.161E-12	658.192E-3	-27.6318E-3	-124.848E-12	680.385E-3	-39.5609E-3
-3.24412E-3	-125.018E-12	664.360E-3	-25.2065E-3	-124.602E-12	671.423E-3	-46.1423E-3
-3.24912E-3	-123.819E-12	674.157E-3	-29.4063E-3	-125.981E-12	684.058E-3	-37.2317E-3
-3.25413E-3	-125.880E-12	678.320E-3	-29.3389E-3	-126.099E-12	688.955E-3	-7.39335E-3
-3.25913E-3	-125.517E-12	681.880E-3	-14.6511E-3	-125.913E-12	677.793E-3	17.8625E-3
-3.26413E-3	-124.314E-12	669.378E-3	2.69040E-3	-126.615E-12	675.323E-3	4.18318E-3
-3.26913E-3	-125.441E-12	644.907E-3	6.69952E-3	-126.927E-12	669.191E-3	-22.9556E-3
-3.27414E-3	-126.584E-12	637.399E-3	176.235E-6	-126.924E-12	646.843E-3	-32.7386E-3
-3.27914E-3	-125.132E-12	655.099E-3	1.55107E-3	-128.602E-12	639.439E-3	-37.3791E-3
-3.28414E-3	-125.796E-12	680.814E-3	5.68336E-3	-128.433E-12	659.440E-3	-24.0663E-3
-3.28914E-3	-126.749E-12	692.430E-3	-124.529E-6	-128.402E-12	679.496E-3	804.897E-6
-3.29415E-3	-126.613E-12	688.938E-3	-1.95414E-3	-129.089E-12	675.568E-3	-7.59928E-3
-3.29915E-3	-127.682E-12	675.745E-3	-10.5269E-3	-129.869E-12	668.447E-3	-34.8075E-3
-3.30415E-3	-128.066E-12	669.240E-3	-32.0592E-3	-129.358E-12	671.895E-3	-28.3564E-3
-3.30915E-3	-127.849E-12	676.730E-3	-36.5447E-3	-129.455E-12	680.735E-3	-2.12831E-3
-3.31416E-3	-129.128E-12	680.812E-3	-26.3958E-3	-129.936E-12	685.594E-3	335.624E-6
-3.31916E-3	-131.006E-12	677.713E-3	-26.5398E-3	-130.240E-12	667.695E-3	-3.68658E-3
-3.32416E-3	-131.216E-12	688.661E-3	-21.1307E-3	-130.383E-12	661.748E-3	-676.758E-6
-3.32916E-3	-132.273E-12	716.646E-3	-5.01297E-3	-129.817E-12	686.096E-3	9.56935E-3
-3.33417E-3	-132.816E-12	719.759E-3	-5.59327E-3	-128.730E-12	685.102E-3	10.2508E-3
-3.33917E-3	-133.488E-12	694.548E-3	-17.6335E-3	-129.762E-12	658.694E-3	-7.33809E-3
-3.34417E-3	-133.568E-12	692.614E-3	-14.3064E-3	-130.426E-12	645.756E-3	-4.60581E-3
-3.34917E-3	-134.153E-12	702.527E-3	-4.07554E-3	-129.046E-12	653.701E-3	908.133E-6
-3.35418E-3	-133.652E-12	692.730E-3	-2.09854E-3	-128.845E-12	669.972E-3	-14.0568E-3
-3.35918E-3	-133.241E-12	686.962E-3	-8.75643E-3	-130.021E-12	676.675E-3	-27.6142E-3
-3.36418E-3	-133.588E-12	696.170E-3	-13.1472E-3	-129.914E-12	670.396E-3	-29.9373E-3
-3.36918E-3	-133.608E-12	700.342E-3	-15.8748E-3	-129.558E-12	657.261E-3	-23.2166E-3
-3.37419E-3	-132.324E-12	668.479E-3	-21.9581E-3	-129.324E-12	661.011E-3	-6.94904E-3
-3.37919E-3	-131.255E-12	635.343E-3	-35.0675E-3	-129.281E-12	675.427E-3	5.48568E-3
-3.38419E-3	-131.679E-12	658.619E-3	-44.0838E-3	-129.867E-12	674.495E-3	4.17993E-3
-3.38919E-3	-132.535E-12	688.713E-3	-30.2033E-3	-131.888E-12	663.248E-3	9.01446E-3
-3.39420E-3	-130.904E-12	679.783E-3	-18.9860E-3	-130.693E-12	651.212E-3	4.14471E-3
-3.39920E-3	-131.452E-12	656.100E-3	-25.4882E-3	-130.672E-12	664.851E-3	-7.48989E-3
-3.40420E-3	-132.822E-12	649.722E-3	-19.0500E-3	-132.052E-12	679.946E-3	-7.32606E-3
-3.40920E-3	-132.300E-12	671.888E-3	-4.57700E-3	-133.957E-12	668.657E-3	-15.1310E-3
-3.41421E-3	-133.804E-12	702.172E-3	1.08645E-3	-133.572E-12	666.847E-3	-35.6854E-3
-3.41921E-3	-135.438E-12	706.314E-3	-1.06285E-3	-133.873E-12	667.000E-3	-52.7745E-3
-3.42421E-3	-134.291E-12	687.653E-3	-9.83744E-3	-134.694E-12	649.189E-3	-57.5971E-3
-3.42921E-3	-134.481E-12	684.017E-3	-24.0765E-3	-135.101E-12	649.588E-3	-49.2151E-3
-3.43422E-3	-136.091E-12	677.712E-3	-28.1024E-3	-134.897E-12	658.688E-3	-35.1471E-3
-3.43922E-3	-135.836E-12	656.874E-3	-10.1431E-3	-134.568E-12	650.726E-3	-31.5036E-3
-3.44422E-3	-134.655E-12	655.551E-3	1.74456E-3	-134.336E-12	662.774E-3	-35.8128E-3
-3.44922E-3	-134.824E-12	674.449E-3	-9.05873E-3	-134.760E-12	673.564E-3	-33.6406E-3
-3.45423E-3	-134.685E-12	668.777E-3	-18.2090E-3	-135.201E-12	673.931E-3	-24.6875E-3
-3.45923E-3	-133.506E-12	642.841E-3	-7.16540E-3	-134.683E-12	685.765E-3	-26.0997E-3
-3.46423E-3	-132.946E-12	651.354E-3	2.76932E-3	-134.439E-12	692.936E-3	-35.3495E-3
-3.46923E-3	-133.348E-12	669.953E-3	-3.60942E-3	-135.415E-12	686.945E-3	-31.6827E-3
-3.47424E-3	-132.298E-12	669.028E-3	-22.0815E-3	-135.649E-12	670.576E-3	-24.7298E-3
-3.47924E-3	-131.094E-12	655.855E-3	-27.6967E-3	-136.356E-12	665.070E-3	-17.1195E-3
-3.48424E-3	-132.437E-12	647.242E-3	-11.4621E-3	-135.439E-12	672.375E-3	-8.92781E-3
-3.48924E-3	-132.348E-12	649.240E-3	1.73650E-3	-135.963E-12	662.882E-3	-11.2886E-3
-3.49425E-3	-132.935E-12	651.191E-3	3.06782E-3	-137.725E-12	642.954E-3	-18.4148E-3
-3.49925E-3	-135.170E-12	651.777E-3	-9.27250E-3	-139.696E-12	654.351E-3	-25.4262E-3
-3.50425E-3	-136.419E-12	659.673E-3	-25.9378E-3	-138.791E-12	671.748E-3	-27.1438E-3
-3.50925E-3	-135.988E-12	691.552E-3	-27.1806E-3	-139.032E-12	675.540E-3	-32.6230E-3
-3.51426E-3	-137.964E-12	704.719E-3	-25.9698E-3	-139.881E-12	694.411E-3	-40.7782E-3
-3.51926E-3	-140.474E-12	680.219E-3	-27.5471E-3	-140.612E-12	699.320E-3	-36.8971E-3
-3.52426E-3	-140.095E-12	653.479E-3	-11.9788E-3	-141.612E-12	683.685E-3	-20.1658E-3
-3.52926E-3	-140.552E-12	653.386E-3	5.03889E-3	-140.144E-12	685.699E-3	-656.921E-6
-3.53427E-3	-141.266E-12	691.852E-3	11.3661E-3	-140.137E-12	695.294E-3	4.33875E-3
-3.53927E-3	-140.509E-12	717.187E-3	10.8366E-3	-140.715E-12	699.410E-3	-10.4831E-3
-3.54427E-3	-140.438E-12	703.729E-3	3.81276E-3	-140.986E-12	697.747E-3	-17.8272E-3
-3.54927E-3	-140.981E-12	681.037E-3	3.25127E-3	-139.780E-12	681.730E-3	-1.88365E-3
-3.55428E-3	-140.077E-12	686.863E-3	1.31843E-3	-139.753E-12	666.752E-3	15.7387E-3
-3.55928E-3	-139.992E-12	720.325E-3	-13.1653E-3	-139.837E-12	666.170E-3	14.2225E-3
-3.56428E-3	-140.007E-12	719.620E-3	-28.2981E-3	-138.412E-12	667.685E-3	-13.5685E-3
-3.56928E-3	-139.689E-12	685.237E-3	-41.6607E-3	-138.756E-12	664.542E-3	-30.7509E-3
-3.57429E-3	-139.750E-12	663.172E-3	-42.5608E-3	-139.953E-12	665.631E-3	-18.2820E-3
-3.57929E-3	-140.220E-12	648.927E-3	-24.7902E-3	-139.294E-12	656.596E-3	-13.5436E-3
-3.58429E-3	-141.085E-12	647.877E-3	-14.1500E-3	-138.522E-12	633.885E-3	-23.2184E-3
-3.58929E-3	-141.252E-12	652.283E-3	-11.8583E-3	-139.847E-12	636.281E-3	-34.0902E-3
-3.59430E-3	-142.010E-12	640.745E-3	-18.5789E-3	-140.364E-12	660.603E-3	-45.9792E-3
-3.59930E-3	-143.060E-12	638.723E-3	-52.3997E-3	-139.806E-12	671.942E-3	-58.0656E-3
-3.60430E-3	-143.788E-12	644.647E-3	-74.4981E-3	-140.912E-12	678.797E-3	-52.0183E-3
-3.60930E-3	-143.960E-12	636.366E-3	-49.6222E-3	-140.771E-12	677.333E-3	-37.2109E-3
-3.61431E-3	-144.438E-12	646.285E-3	-16.3551E-3	-141.949E-12	672.923E-3	-24.0379E-3
-3.61931E-3	-144.283E-12	679.097E-3	-14.3062E-3	-142.284E-12	691.562E-3	-6.00560E-3
-3.62431E-3	-144.719E-12	686.307E-3	-21.3791E-3	-142.406E-12	696.333E-3	10.4469E-3
-3.62931E-3	-144.339E-12	672.270E-3	-12.3077E-3	-142.448E-12	668.296E-3	12.1327E-3
-3.63432E-3	-143.455E-12	666.198E-3	-13.9740E-3	-143.388E-12	656.720E-3	-2.41252E-3
-3.63932E-3	-143.284E-12	662.059E-3	-21.9856E-3	-142.218E-12	658.266E-3	-1.82341E-3
-3.64432E-3	-143.716E-12	649.189E-3	-2.44885E-3	-142.545E-12	648.581E-3	10.3898E-3
-3.64932E-3	-142.505E-12	648.436E-3	790.171E-6	-143.988E-12	668.070E-3	13.1609E-3
-3.65433E-3	-142.453E-12	674.482E-3	-26.8616E-3	-142.711E-12	690.451E-3	-6.75016E-3
-3.65933E-3	-142.534E-12	685.051E-3	-29.3651E-3	-143.132E-12	670.625E-3	-32.4479E-3
-3.66433E-3	-142.233E-12	679.783E-3	-6.72366E-3	-144.009E-12	647.186E-3	-20.5482E-3
-3.66933E-3	-142.143E-12	677.428E-3	5.70023E-3	-143.819E-12	654.736E-3	-12.3383E-3
-3.67434E-3	-143.321E-12	676.557E-3	14.7809E-3	-144.161E-12	672.375E-3	-33.8494E-3
-3.67934E-3	-143.681E-12	677.166E-3	12.3215E-3	-145.202E-12	671.281E-3	-38.6330E-3
-3.68434E-3	-144.110E-12	686.161E-3	-9.99579E-3	-145.359E-12	654.483E-3	-25.5965E-3
-3.68934E-3	-144.537E-12	694.618E-3	-28.4545E-3	-145.511E-12	630.826E-3	-7.46230E-3
-3.69435E-3	-144.466E-12	676.504E-3	-32.8321E-3	-146.692E-12	631.108E-3	6.16321E-3
-3.69935E-3	-144.863E-12	669.670E-3	-37.3632E-3	-146.812E-12	661.708E-3	5.00507E-3
-3.70435E-3	-145.846E-12	667.598E-3	-53.1909E-3	-147.460E-12	676.938E-3	-12.9730E-3
-3.70935E-3	-145.482E-12	648.846E-3	-50.5240E-3	-147.524E-12	673.236E-3	-21.0861E-3
-3.71436E-3	-145.698E-12	635.259E-3	-29.3461E-3	-148.350E-12	664.523E-3	6.78762E-3
-3.71936E-3	-146.657E-12	623.418E-3	-19.2859E-3	-149.252E-12	636.909E-3	17.3002E-3
-3.72436E-3	-146.628E-12	627.948E-3	-28.6499E-3	-149.323E-12	626.070E-3	-100.368E-6
-3.72936E-3	-147.114E-12	643.661E-3	-37.9729E-3	-148.320E-12	660.745E-3	-9.35526E-3
-3.73437E-3	-147.359E-12	651.929E-3	-32.9042E-3	-148.495E-12	674.654E-3	-17.1798E-3
-3.73937E-3	-147.693E-12	653.821E-3	-29.9849E-3	-148.375E-12	651.040E-3	-13.6015E-3
-3.74437E-3	-147.990E-12	653.895E-3	-37.5920E-3	-148.244E-12	652.437E-3	934.963E-6
-3.74937E-3	-149.535E-12	657.422E-3	-38.6130E-3	-147.783E-12	674.646E-3	-10.5709E-3
-3.75438E-3	-150.548E-12	664.926E-3	-27.9858E-3	-147.894E-12	679.189E-3	-26.5676E-3
-3.75938E-3	-150.466E-12	669.856E-3	-18.5922E-3	-148.292E-12	685.669E-3	-21.1677E-3
-3.76438E-3	-150.932E-12	673.016E-3	-11.9647E-3	-148.503E-12	692.882E-3	-19.0641E-3
-3.76938E-3	-151.434E-12	679.815E-3	-1.71297E-3	-148.821E-12	674.493E-3	-798.035E-6
-3.77439E-3	-152.341E-12	688.262E-3	5.02599E-3	-147.991E-12	665.069E-3	15.5658E-3
-3.77939E-3	-152.310E-12	691.363E-3	2.54075E-3	-148.012E-12	671.976E-3	-6.96497E-3
-3.78439E-3	-151.670E-12	688.599E-3	-675.083E-6	-148.298E-12	657.275E-3	-10.2478E-3
-3.78939E-3	-151.088E-12	694.151E-3	59.1863E-6	-148.345E-12	638.066E-3	4.97910E-3
-3.79440E-3	-151.867E-12	684.013E-3	6.37039E-3	-148.758E-12	649.359E-3	-13.6830E-3
-3.79940E-3	-151.188E-12	670.301E-3	7.79803E-3	-149.558E-12	659.999E-3	-24.9725E-3
-3.80440E-3	-150.389E-12	660.027E-3	-830.052E-6	-149.414E-12	657.474E-3	-618.043E-6
-3.80940E-3	-150.810E-12	650.935E-3	-3.58690E-3	-148.963E-12	660.034E-3	8.77505E-3
-3.81441E-3	-150.702E-12	662.919E-3	5.40685E-3	-150.590E-12	659.405E-3	-11.9688E-3
-3.81941E-3	-150.927E-12	664.667E-3	1.27234E-3	-150.547E-12	662.066E-3	-30.7028E-3
-3.82441E-3	-151.640E-12	657.170E-3	-5.59482E-3	-150.599E-12	670.198E-3	-39.2274E-3
-3.82941E-3	-151.631E-12	655.704E-3	-8.91354E-3	-150.907E-12	675.564E-3	-47.3933E-3
-3.83442E-3	-150.989E-12	646.055E-3	-25.9291E-3	-151.251E-12	686.317E-3	-35.2912E-3
-3.83942E-3	-153.531E-12	628.063E-3	-23.0532E-3	-151.548E-12	697.409E-3	-2.96351E-3
-3.84442E-3	-154.215E-12	633.955E-3	-6.04252E-3	-152.245E-12	679.812E-3	-12.3808E-3
-3.84942E-3	-153.629E-12	669.016E-3	-22.1690E-3	-152.732E-12	657.782E-3	-40.4842E-3
-3.85443E-3	-154.082E-12	682.105E-3	-35.0860E-3	-153.089E-12	669.293E-3	-40.4879E-3
-3.85943E-3	-155.408E-12	665.400E-3	-16.2557E-3	-153.534E-12	669.562E-3	-48.6044E-3
-3.86443E-3	-154.789E-12	672.049E-3	-13.5383E-3	-154.015E-12	654.006E-3	-52.2196E-3
-3.86943E-3	-154.531E-12	678.661E-3	-23.1711E-3	-153.373E-12	678.532E-3	-33.8298E-3
-3.87444E-3	-155.241E-12	655.371E-3	-23.3289E-3	-153.679E-12	688.566E-3	-33.6584E-3
-3.87944E-3	-153.462E-12	647.405E-3	-16.4884E-3	-154.156E-12	656.017E-3	-31.3384E-3
-3.88444E-3	-152.366E-12	656.613E-3	-7.89895E-3	-154.002E-12	659.832E-3	-3.55422E-3
-3.88944E-3	-152.382E-12	653.306E-3	-4.82547E-3	-154.941E-12	686.364E-3	-7.14689E-3
-3.89445E-3	-150.780E-12	631.445E-3	-8.73840E-3	-154.545E-12	669.408E-3	-7.71330E-3
-3.89945E-3	-150.096E-12	634.683E-3	-9.05021E-3	-154.278E-12	650.922E-3	23.8891E-3
-3.90445E-3	-151.558E-12	673.909E-3	9.71964E-3	-155.860E-12	658.684E-3	2.11473E-3
-3.90945E-3	-151.618E-12	675.201E-3	20.6237E-3	-155.895E-12	653.105E-3	-38.0861E-3
-3.91446E-3	-151.217E-12	634.545E-3	4.97438E-3	-155.490E-12	650.908E-3	-35.8574E-3
-3.91946E-3	-152.485E-12	623.417E-3	-15.6224E-3	-155.571E-12	674.307E-3	-28.2628E-3
-3.92446E-3	-153.500E-12	639.601E-3	-19.8439E-3	-156.516E-12	695.140E-3	-27.1273E-3
-3.92946E-3	-154.829E-12	656.194E-3	-19.5853E-3	-157.214E-12	702.810E-3	-22.3207E-3
-3.93447E-3	-156.582E-12	676.069E-3	-23.3147E-3	-156.580E-12	690.849E-3	-24.4418E-3
-3.93947E-3	-158.070E-12	684.862E-3	-28.3005E-3	-157.930E-12	667.129E-3	-24.5401E-3
-3.94447E-3	-159.440E-12	663.655E-3	-32.6083E-3	-157.894E-12	667.100E-3	-13.9306E-3
-3.94947E-3	-160.788E-12	641.576E-3	-25.4448E-3	-158.080E-12	681.456E-3	-23.0843E-3
-3.95448E-3	-161.641E-12	660.973E-3	-3.18144E-3	-158.070E-12	687.651E-3	-37.7989E-3
-3.95948E-3	-162.260E-12	694.451E-3	10.5306E-3	-158.393E-12	681.520E-3	-17.5624E-3
-3.96448E-3	-162.597E-12	706.667E-3	-6.79648E-3	-157.581E-12	662.145E-3	1.79709E-3
-3.96948E-3	-162.064E-12	713.781E-3	-24.2383E-3	-157.599E-12	642.485E-3	-11.6717E-3
-3.97449E-3	-161.545E-12	713.090E-3	-21.1784E-3	-158.073E-12	634.242E-3	-14.6740E-3
-3.97949E-3	-160.413E-12	678.851E-3	-4.57642E-3	-157.676E-12	659.368E-3	-6.34729E-3
-3.98449E-3	-159.836E-12	658.438E-3	6.68012E-3	-157.107E-12	683.904E-3	-13.3407E-3
-3.98949E-3	-158.473E-12	676.441E-3	-1.46457E-3	-157.672E-12	654.877E-3	-19.6840E-3
-3.99450E-3	-158.829E-12	685.947E-3	-20.7192E-3	-157.564E-12	630.240E-3	-27.7550E-3
-3.99950E-3	-159.267E-12	682.960E-3	-40.5383E-3	-157.062E-12	649.684E-3	-50.6040E-3
-4.00450E-3	-158.775E-12	682.450E-3	-46.0063E-3	-157.334E-12	670.310E-3	-55.7382E-3
-4.00950E-3	-158.525E-12	676.708E-3	-26.0260E-3	-157.887E-12	676.407E-3	-24.6913E-3
-4.01451E-3	-159.612E-12	655.015E-3	-21.7185E-3	-157.724E-12	679.408E-3	9.06308E-3
-4.01951E-3	-160.421E-12	624.750E-3	-48.7522E-3	-158.495E-12	672.618E-3	30.7098E-3
-4.02451E-3	-160.542E-12	618.234E-3	-62.7008E-3	-159.269E-12	680.448E-3	27.1273E-3
-4.02951E-3	-161.550E-12	639.130E-3	-66.6442E-3	-160.194E-12	713.555E-3	2.45357E-3
-4.03452E-3	-162.495E-12	662.112E-3	-74.7622E-3	-161.135E-12	710.574E-3	-1.98559E-3
-4.03952E-3	-162.984E-12	678.777E-3	-61.3056E-3	-161.454E-12	667.375E-3	8.73111E-3
-4.04452E-3	-163.536E-12	685.452E-3	-33.9208E-3	-161.719E-12	642.326E-3	-774.946E-6
-4.04952E-3	-163.403E-12	680.064E-3	-17.9817E-3	-162.284E-12	644.482E-3	-26.0325E-3
-4.05453E-3	-163.072E-12	681.637E-3	-24.5017E-3	-163.060E-12	654.981E-3	-41.8476E-3
-4.05953E-3	-162.754E-12	691.088E-3	-37.1416E-3	-163.636E-12	650.483E-3	-41.2151E-3
-4.06453E-3	-162.349E-12	678.596E-3	-29.7558E-3	-163.632E-12	628.082E-3	-25.8900E-3
-4.06953E-3	-161.879E-12	679.203E-3	-22.9146E-3	-164.175E-12	641.417E-3	-7.77829E-3
-4.07454E-3	-160.727E-12	700.629E-3	-27.9496E-3	-162.993E-12	678.723E-3	-16.0000E-3
-4.07954E-3	-160.148E-12	681.187E-3	-16.6855E-3	-163.764E-12	654.406E-3	-36.3394E-3
-4.08454E-3	-159.543E-12	644.974E-3	13.8792E-3	-162.629E-12	608.012E-3	-30.0602E-3
-4.08954E-3	-160.129E-12	626.084E-3	36.3990E-3	-163.192E-12	617.247E-3	-14.0556E-3
-4.09455E-3	-159.468E-12	622.105E-3	27.7991E-3	-163.255E-12	629.692E-3	-19.1646E-3
-4.09955E-3	-159.199E-12	631.257E-3	-2.38637E-3	-163.359E-12	626.984E-3	-20.9743E-3
-4.10455E-3	-159.769E-12	634.882E-3	-15.2171E-3	-164.381E-12	645.719E-3	-27.8917E-3
-4.10955E-3	-159.868E-12	617.200E-3	-16.8781E-3	-164.470E-12	665.740E-3	-49.2820E-3
-4.11456E-3	-160.098E-12	604.202E-3	-30.3738E-3	-164.928E-12	677.301E-3	-25.1364E-3
-4.11956E-3	-161.585E-12	605.046E-3	-24.5496E-3	-165.790E-12	688.147E-3	17.2673E-3
-4.12456E-3	-163.604E-12	611.819E-3	-378.297E-6	-168.061E-12	677.451E-3	29.7560E-3
-4.12956E-3	-163.427E-12	636.909E-3	-13.8216E-3	-166.813E-12	647.394E-3	45.4076E-3
-4.13457E-3	-164.036E-12	661.677E-3	-36.2626E-3	-168.002E-12	649.063E-3	36.6144E-3
-4.13957E-3	-165.494E-12	670.129E-3	-17.7149E-3	-168.862E-12	667.900E-3	9.47968E-3
-4.14457E-3	-165.925E-12	656.688E-3	14.4938E-3	-169.345E-12	646.064E-3	13.7352E-3
-4.14957E-3	-165.834E-12	640.418E-3	10.9620E-3	-169.081E-12	617.858E-3	24.1815E-3
-4.15458E-3	-167.231E-12	645.433E-3	-22.1138E-3	-168.780E-12	625.789E-3	7.87797E-3
-4.15958E-3	-166.912E-12	645.330E-3	-25.7775E-3	-167.803E-12	645.852E-3	-31.7123E-3
-4.16458E-3	-166.334E-12	646.120E-3	-14.1687E-3	-167.311E-12	671.188E-3	-57.4379E-3
-4.16958E-3	-168.339E-12	662.864E-3	-28.4383E-3	-168.495E-12	694.102E-3	-45.3145E-3
-4.17459E-3	-168.433E-12	676.736E-3	-39.8856E-3	-166.834E-12	677.097E-3	-27.9158E-3
-4.17959E-3	-168.534E-12	685.200E-3	-29.4656E-3	-165.402E-12	647.653E-3	-29.3156E-3
-4.18459E-3	-168.969E-12	679.347E-3	-15.9555E-3	-165.544E-12	642.919E-3	-38.8129E-3
-4.18959E-3	-170.424E-12	665.396E-3	-3.54933E-3	-166.210E-12	632.121E-3	-53.4869E-3
-4.19460E-3	-169.265E-12	670.869E-3	1.35983E-3	-164.737E-12	611.024E-3	-55.8236E-3
-4.19960E-3	-170.361E-12	677.011E-3	2.60998E-3	-164.714E-12	607.532E-3	-45.9753E-3
-4.20460E-3	-170.257E-12	666.392E-3	-4.55605E-3	-164.565E-12	620.527E-3	-44.0191E-3
-4.20960E-3	-170.766E-12	661.146E-3	-30.6870E-3	-164.609E-12	641.835E-3	-25.4617E-3
-4.21461E-3	-170.941E-12	662.340E-3	-52.1959E-3	-164.994E-12	652.435E-3	-6.61156E-3
-4.21961E-3	-170.958E-12	665.606E-3	-61.6613E-3	-165.989E-12	644.226E-3	-13.2622E-3
-4.22461E-3	-171.165E-12	678.855E-3	-59.5645E-3	-165.713E-12	636.422E-3	-15.2141E-3
-4.22961E-3	-171.332E-12	687.009E-3	-37.7162E-3	-166.559E-12	640.361E-3	-8.68604E-3
-4.23462E-3	-171.243E-12	658.946E-3	-16.1420E-3	-167.741E-12	641.917E-3	-14.6942E-3
-4.23962E-3	-170.343E-12	615.922E-3	-10.1371E-3	-167.872E-12	626.961E-3	-27.4503E-3
-4.24462E-3	-170.822E-12	622.160E-3	-6.89422E-3	-168.052E-12	635.869E-3	-31.2744E-3
-4.24962E-3	-171.442E-12	656.987E-3	-6.04562E-3	-168.469E-12	661.968E-3	-28.4487E-3
-4.25463E-3	-171.487E-12	670.050E-3	-17.3947E-3	-169.611E-12	657.197E-3	-9.58636E-3
-4.25963E-3	-170.085E-12	672.340E-3	-19.2188E-3	-169.429E-12	659.966E-3	-717.224E-6
-4.26463E-3	-171.187E-12	665.063E-3	-6.01860E-3	-169.829E-12	671.716E-3	-20.6210E-3
-4.26963E-3	-171.116E-12	654.069E-3	-3.42919E-3	-169.453E-12	657.120E-3	-27.1664E-3
-4.27464E-3	-171.250E-12	649.247E-3	-9.18553E-3	-170.205E-12	656.998E-3	-22.7216E-3
-4.27964E-3	-171.682E-12	650.279E-3	-13.2979E-3	-170.919E-12	643.693E-3	-41.2327E-3
-4.28464E-3	-171.384E-12	659.461E-3	-6.63649E-3	-171.553E-12	619.490E-3	-38.0422E-3
-4.28964E-3	-171.246E-12	662.545E-3	-2.03229E-3	-171.447E-12	637.231E-3	-6.01364E-3
-4.29465E-3	-171.496E-12	648.635E-3	-17.8165E-3	-171.274E-12	638.231E-3	5.31865E-3
-4.29965E-3	-170.962E-12	625.010E-3	-27.4798E-3	-173.171E-12	624.280E-3	4.89368E-3
-4.30465E-3	-170.372E-12	622.251E-3	-17.2527E-3	-173.386E-12	641.181E-3	-4.99432E-3
-4.30965E-3	-170.299E-12	634.793E-3	-5.95842E-3	-174.940E-12	636.083E-3	-14.7743E-3
-4.31466E-3	-169.484E-12	640.650E-3	-6.53431E-3	-175.365E-12	607.697E-3	7.92679E-3
-4.31966E-3	-169.751E-12	657.124E-3	4.56982E-3	-175.020E-12	612.342E-3	41.0058E-3
-4.32466E-3	-169.823E-12	672.216E-3	32.2961E-3	-174.944E-12	652.961E-3	25.0759E-3
-4.32966E-3	-168.243E-12	668.046E-3	12.4618E-3	-176.470E-12	676.063E-3	-13.5040E-3
-4.33467E-3	-169.138E-12	655.399E-3	-34.0353E-3	-177.225E-12	670.812E-3	3.10525E-3
-4.33967E-3	-169.919E-12	640.636E-3	-38.7815E-3	-177.761E-12	680.054E-3	13.8847E-3
-4.34467E-3	-169.291E-12	638.805E-3	-24.6495E-3	-178.213E-12	670.998E-3	-22.4857E-3
-4.34967E-3	-170.352E-12	641.111E-3	-17.5845E-3	-178.396E-12	633.307E-3	-24.7619E-3
-4.35468E-3	-173.192E-12	623.475E-3	-17.7857E-3	-178.725E-12	622.936E-3	-16.3438E-3
-4.35968E-3	-173.358E-12	603.250E-3	-33.5117E-3	-178.807E-12	636.938E-3	-21.4285E-3
-4.36468E-3	-175.066E-12	600.126E-3	-48.3417E-3	-178.601E-12	657.033E-3	-19.9268E-3
-4.36968E-3	-176.930E-12	623.895E-3	-18.2635E-3	-178.033E-12	673.638E-3	-41.3322E-3
-4.37469E-3	-177.648E-12	652.074E-3	23.3552E-3	-178.060E-12	660.187E-3	-53.2872E-3
-4.37969E-3	-179.148E-12	672.522E-3	6.04898E-3	-178.737E-12	645.035E-3	-21.1263E-3
-4.38469E-3	-180.902E-12	691.564E-3	-24.3651E-3	-177.968E-12	660.710E-3	3.31478E-3
-4.38969E-3	-180.130E-12	685.544E-3	-20.5702E-3	-178.073E-12	663.481E-3	-5.02489E-3
-4.39470E-3	-179.902E-12	685.117E-3	-11.3242E-3	-177.420E-12	646.341E-3	-13.6152E-3
-4.39970E-3	-180.969E-12	697.893E-3	-7.43427E-3	-177.613E-12	655.207E-3	-24.6842E-3
-4.40470E-3	-180.595E-12	683.674E-3	-21.1974E-3	-176.731E-12	666.176E-3	-41.4770E-3
-4.40970E-3	-179.522E-12	652.619E-3	-54.0766E-3	-176.926E-12	644.329E-3	-30.8353E-3
-4.41471E-3	-178.066E-12	630.948E-3	-61.9607E-3	-174.956E-12	627.422E-3	-5.50962E-3
-4.41971E-3	-178.124E-12	613.052E-3	-28.4649E-3	-175.143E-12	641.726E-3	-8.13018E-3
-4.42471E-3	-176.954E-12	612.656E-3	-21.3716E-3	-175.219E-12	648.048E-3	-31.2365E-3
-4.42971E-3	-176.266E-12	651.214E-3	-57.4281E-3	-175.283E-12	640.465E-3	-49.6586E-3
-4.43472E-3	-175.880E-12	671.097E-3	-58.2532E-3	-173.622E-12	655.759E-3	-60.4708E-3
-4.43972E-3	-176.631E-12	652.133E-3	-32.7927E-3	-174.566E-12	678.333E-3	-45.8075E-3
-4.44472E-3	-177.228E-12	650.376E-3	-33.7647E-3	-175.930E-12	669.066E-3	-10.2413E-3
-4.44972E-3	-178.863E-12	656.141E-3	-44.1547E-3	-176.782E-12	640.590E-3	2.43547E-3
-4.45473E-3	-179.879E-12	648.705E-3	-71.0638E-3	-176.313E-12	631.617E-3	4.38704E-3
-4.45973E-3	-180.681E-12	657.972E-3	-100.980E-3	-177.327E-12	649.180E-3	21.4058E-3
-4.46473E-3	-181.750E-12	675.877E-3	-78.0460E-3	-179.232E-12	681.908E-3	23.7162E-3
-4.46973E-3	-182.914E-12	670.627E-3	-40.2968E-3	-180.773E-12	681.122E-3	-7.22146E-3
-4.47474E-3	-183.006E-12	666.027E-3	-42.2058E-3	-180.028E-12	652.736E-3	-34.3079E-3
-4.47974E-3	-182.958E-12	682.278E-3	-48.4111E-3	-181.698E-12	670.359E-3	-31.3969E-3
-4.48474E-3	-183.043E-12	682.280E-3	-27.7031E-3	-181.215E-12	687.994E-3	-33.7970E-3
-4.48974E-3	-183.089E-12	669.321E-3	-5.08107E-3	-181.166E-12	680.171E-3	-41.7332E-3
-4.49475E-3	-181.317E-12	675.726E-3	-5.48390E-3	-182.478E-12	674.982E-3	-30.7144E-3
-4.49975E-3	-180.751E-12	685.947E-3	-4.11170E-3	-182.439E-12	657.510E-3	-23.3817E-3
-4.50475E-3	-180.839E-12	677.947E-3	10.1859E-3	-180.986E-12	643.942E-3	-16.8435E-3
-4.50975E-3	-179.072E-12	662.819E-3	-4.29824E-3	-181.850E-12	645.065E-3	-20.5637E-3
-4.51476E-3	-177.459E-12	658.436E-3	-22.7989E-3	-182.326E-12	642.543E-3	-40.1642E-3
-4.51976E-3	-177.781E-12	665.993E-3	-11.7259E-3	-181.651E-12	646.101E-3	-49.2156E-3
-4.52476E-3	-176.970E-12	667.523E-3	-6.35955E-3	-180.652E-12	652.932E-3	-64.6934E-3
-4.52976E-3	-176.625E-12	640.502E-3	-18.6709E-3	-181.037E-12	635.840E-3	-74.2968E-3
-4.53477E-3	-177.418E-12	601.853E-3	-28.1324E-3	-181.329E-12	632.767E-3	-40.8162E-3
-4.53977E-3	-179.810E-12	589.159E-3	-23.7555E-3	-182.217E-12	666.012E-3	-5.09722E-3
-4.54477E-3	-179.735E-12	600.015E-3	-25.7939E-3	-182.694E-12	683.069E-3	-12.0714E-3
-4.54977E-3	-180.063E-12	622.714E-3	-41.9799E-3	-183.887E-12	679.030E-3	-27.4724E-3
-4.55478E-3	-181.765E-12	649.081E-3	-38.8485E-3	-185.477E-12	681.625E-3	-9.76890E-3
-4.55978E-3	-183.988E-12	671.205E-3	-19.8167E-3	-185.589E-12	681.997E-3	2.02861E-3
-4.56478E-3	-184.813E-12	663.243E-3	-7.26353E-3	-188.189E-12	685.520E-3	-19.0038E-3
-4.56978E-3	-185.788E-12	633.502E-3	-130.563E-6	-187.633E-12	697.618E-3	-35.9932E-3
-4.57479E-3	-187.371E-12	634.364E-3	-2.32824E-3	-187.379E-12	694.375E-3	-40.4640E-3
-4.57979E-3	-186.696E-12	651.947E-3	-1.92200E-3	-187.586E-12	660.295E-3	-38.1583E-3
-4.58479E-3	-187.867E-12	667.776E-3	-233.703E-6	-188.602E-12	641.176E-3	-24.6664E-3
-4.58979E-3	-188.262E-12	687.263E-3	-10.3969E-3	-186.804E-12	654.021E-3	-8.13999E-3
-4.59480E-3	-187.481E-12	691.040E-3	-14.9448E-3	-185.543E-12	645.468E-3	697.972E-6
-4.59980E-3	-187.380E-12	687.822E-3	-27.3996E-3	-185.979E-12	612.694E-3	6.98691E-3
-4.60480E-3	-187.910E-12	680.033E-3	-42.5945E-3	-184.857E-12	608.742E-3	10.3284E-3
-4.60980E-3	-187.231E-12	661.604E-3	-17.2238E-3	-182.944E-12	620.532E-3	488.709E-6
-4.61481E-3	-186.495E-12	656.840E-3	9.94824E-3	-182.449E-12	636.210E-3	-1.78350E-3
-4.61981E-3	-187.091E-12	661.293E-3	-5.81014E-3	-183.268E-12	673.278E-3	4.73433E-3
-4.62481E-3	-187.292E-12	654.368E-3	-31.1701E-3	-182.509E-12	672.010E-3	-11.0765E-3
-4.62981E-3	-187.323E-12	660.920E-3	-24.5555E-3	-181.871E-12	640.075E-3	-10.8009E-3
-4.63482E-3	-188.968E-12	673.194E-3	-1.44942E-3	-183.237E-12	646.839E-3	-723.799E-6
-4.63982E-3	-188.740E-12	672.998E-3	3.18796E-3	-183.860E-12	672.816E-3	-109.436E-6
-4.64482E-3	-188.790E-12	680.332E-3	-11.4520E-3	-184.852E-12	670.963E-3	7.58262E-3
-4.64982E-3	-188.297E-12	682.628E-3	-8.43345E-3	-186.371E-12	664.721E-3	-20.2234E-3
-4.65483E-3	-190.490E-12	673.915E-3	9.69896E-3	-187.828E-12	665.612E-3	-51.3130E-3
-4.65983E-3	-188.810E-12	664.839E-3	-9.88172E-3	-187.618E-12	653.493E-3	-34.1373E-3
-4.66483E-3	-189.018E-12	655.304E-3	-30.0882E-3	-188.812E-12	649.625E-3	-8.94742E-3
-4.66983E-3	-189.346E-12	646.226E-3	-7.32664E-3	-190.426E-12	662.773E-3	-297.816E-6
-4.67484E-3	-189.629E-12	647.202E-3	4.11884E-3	-191.338E-12	686.933E-3	-2.71096E-3
-4.67984E-3	-189.143E-12	657.803E-3	-527.545E-6	-190.562E-12	696.110E-3	-24.5583E-3
-4.68484E-3	-189.659E-12	662.246E-3	1.49543E-3	-190.366E-12	674.622E-3	-43.9052E-3
-4.68984E-3	-188.607E-12	661.217E-3	-16.5910E-3	-190.185E-12	676.200E-3	-36.8493E-3
-4.69485E-3	-189.208E-12	677.090E-3	-58.0724E-3	-191.040E-12	697.432E-3	-41.2706E-3
-4.69985E-3	-188.937E-12	693.116E-3	-68.9600E-3	-190.766E-12	682.675E-3	-63.3272E-3
-4.70485E-3	-189.570E-12	686.081E-3	-54.5909E-3	-190.707E-12	645.716E-3	-72.4378E-3
-4.70985E-3	-188.100E-12	670.960E-3	-61.6140E-3	-190.587E-12	648.231E-3	-73.9814E-3
-4.71486E-3	-188.705E-12	647.132E-3	-54.2887E-3	-191.820E-12	665.475E-3	-60.1480E-3
-4.71986E-3	-189.421E-12	616.857E-3	-20.0920E-3	-191.805E-12	645.443E-3	-24.0173E-3
-4.72486E-3	-189.581E-12	610.452E-3	5.67125E-3	-191.864E-12	645.389E-3	-12.6181E-3
-4.72986E-3	-188.854E-12	631.995E-3	10.9160E-3	-192.458E-12	672.310E-3	-23.1508E-3
-4.73487E-3	-188.829E-12	634.440E-3	291.940E-6	-193.474E-12	660.905E-3	-18.4018E-3
-4.73987E-3	-188.806E-12	623.482E-3	-6.42751E-3	-194.653E-12	644.064E-3	-26.7167E-3
-4.74487E-3	-189.291E-12	642.649E-3	3.60734E-3	-195.652E-12	663.713E-3	-62.2313E-3
-4.74988E-3	-188.798E-12	679.730E-3	778.992E-6	-194.717E-12	673.040E-3	-87.6442E-3
-4.75488E-3	-188.310E-12	701.796E-3	-20.6839E-3	-194.811E-12	666.978E-3	-73.1233E-3
-4.75988E-3	-189.556E-12	694.966E-3	-26.0272E-3	-195.394E-12	677.918E-3	-49.9017E-3
-4.76488E-3	-189.911E-12	670.310E-3	-20.6428E-3	-194.297E-12	686.584E-3	-40.5567E-3
-4.76988E-3	-190.400E-12	645.320E-3	-30.5735E-3	-193.328E-12	687.539E-3	-30.0460E-3
-4.77489E-3	-192.026E-12	635.301E-3	-35.9520E-3	-193.549E-12	667.602E-3	-29.1130E-3
-4.77989E-3	-192.790E-12	638.637E-3	-27.0906E-3	-193.565E-12	628.791E-3	-28.0559E-3
-4.78489E-3	-193.188E-12	645.885E-3	-31.1502E-3	-192.867E-12	640.008E-3	-23.4081E-3
-4.78989E-3	-194.749E-12	657.293E-3	-22.2058E-3	-193.347E-12	666.212E-3	-37.8300E-3
-4.79490E-3	-196.092E-12	662.122E-3	-8.02586E-3	-192.752E-12	644.929E-3	-45.2535E-3
-4.79990E-3	-196.360E-12	655.346E-3	-28.4811E-3	-191.628E-12	630.688E-3	-43.4133E-3
-4.80490E-3	-197.927E-12	641.557E-3	-36.3033E-3	-192.115E-12	657.753E-3	-47.2693E-3
-4.80990E-3	-200.335E-12	632.011E-3	-11.6262E-3	-192.553E-12	687.717E-3	-41.0532E-3
-4.81491E-3	-200.678E-12	645.021E-3	-3.73116E-3	-193.056E-12	688.811E-3	-18.8157E-3
-4.81991E-3	-199.930E-12	651.339E-3	-17.8580E-3	-192.182E-12	666.487E-3	-16.5312E-3
-4.82491E-3	-200.353E-12	635.727E-3	-30.7404E-3	-193.829E-12	636.180E-3	-33.1522E-3
-4.82991E-3	-200.672E-12	639.836E-3	-35.1832E-3	-193.959E-12	623.055E-3	-9.90764E-3
-4.83492E-3	-199.331E-12	652.018E-3	-12.5561E-3	-193.233E-12	640.226E-3	10.7146E-3
-4.83992E-3	-198.775E-12	659.900E-3	-8.98493E-3	-194.306E-12	663.607E-3	-10.5656E-3
-4.84492E-3	-197.443E-12	679.465E-3	-37.7703E-3	-193.482E-12	662.302E-3	-28.8223E-3
-4.84992E-3	-196.986E-12	700.870E-3	-31.2071E-3	-192.252E-12	644.136E-3	-29.3649E-3
-4.85493E-3	-196.119E-12	694.542E-3	1.09507E-3	-193.700E-12	639.101E-3	-26.8170E-3
-4.85993E-3	-196.723E-12	664.600E-3	12.2280E-3	-193.186E-12	647.988E-3	-15.0482E-3
-4.86493E-3	-195.262E-12	648.202E-3	-6.77501E-3	-192.178E-12	650.641E-3	-3.01833E-3
-4.86993E-3	-194.992E-12	633.802E-3	-28.4184E-3	-194.778E-12	634.960E-3	-5.69079E-3
-4.87494E-3	-196.753E-12	614.042E-3	-24.9779E-3	-195.861E-12	634.304E-3	5.63211E-3
-4.87994E-3	-197.760E-12	629.274E-3	-14.8890E-3	-195.806E-12	657.854E-3	32.1696E-3
-4.88494E-3	-197.839E-12	654.554E-3	-2.34174E-3	-196.586E-12	668.803E-3	16.1022E-3
-4.88995E-3	-197.629E-12	651.128E-3	23.4547E-3	-198.883E-12	656.261E-3	-32.5002E-3
-4.89495E-3	-199.726E-12	650.604E-3	26.9279E-3	-199.361E-12	640.166E-3	-40.4421E-3
-4.89995E-3	-200.101E-12	645.870E-3	23.6451E-3	-200.806E-12	652.363E-3	-33.9323E-3
-4.90495E-3	-200.235E-12	619.162E-3	36.2505E-3	-203.061E-12	687.177E-3	-46.3720E-3
-4.90995E-3	-200.026E-12	613.082E-3	22.5799E-3	-203.142E-12	693.262E-3	-45.5980E-3
-4.91496E-3	-199.676E-12	651.045E-3	11.9630E-3	-204.269E-12	686.605E-3	-34.2079E-3
-4.91996E-3	-198.564E-12	681.934E-3	21.4128E-3	-206.419E-12	689.692E-3	-40.5422E-3
-4.92496E-3	-197.392E-12	684.493E-3	-4.15776E-3	-205.002E-12	651.058E-3	-39.8673E-3
-4.92996E-3	-197.258E-12	682.978E-3	-22.9217E-3	-203.873E-12	623.861E-3	-11.0695E-3
-4.93497E-3	-196.154E-12	664.530E-3	-111.041E-6	-204.583E-12	649.574E-3	6.69162E-3
-4.93997E-3	-195.878E-12	639.984E-3	-1.71211E-3	-203.883E-12	664.164E-3	9.20824E-3
-4.94497E-3	-194.812E-12	657.047E-3	-22.6661E-3	-201.764E-12	678.107E-3	-917.942E-6
-4.94997E-3	-195.464E-12	676.654E-3	-20.7448E-3	-203.690E-12	715.454E-3	-17.0224E-3
-4.95498E-3	-193.589E-12	665.006E-3	-25.8569E-3	-203.692E-12	713.145E-3	2.00816E-3
-4.95998E-3	-194.785E-12	652.154E-3	-30.7689E-3	-202.467E-12	678.606E-3	30.1710E-3
-4.96498E-3	-196.638E-12	635.035E-3	284.554E-6	-203.155E-12	665.377E-3	27.7703E-3
-4.96998E-3	-196.953E-12	618.782E-3	3.22883E-3	-204.705E-12	645.102E-3	19.1800E-3
-4.97499E-3	-199.117E-12	632.984E-3	-45.0874E-3	-204.373E-12	629.934E-3	1.99397E-3
-4.97999E-3	-201.937E-12	667.318E-3	-57.2462E-3	-204.916E-12	654.311E-3	-20.5890E-3
-4.98499E-3	-202.084E-12	681.832E-3	-32.4673E-3	-205.599E-12	679.748E-3	-10.4916E-3
-4.98999E-3	-202.666E-12	685.210E-3	-26.9135E-3	-206.361E-12	690.993E-3	19.4002E-3
-4.99500E-3	-205.954E-12	671.370E-3	-41.1547E-3	-206.216E-12	697.819E-3	11.8448E-3
-5.00000E-3	-206.714E-12	658.800E-3	-61.8308E-3	-206.624E-12	681.205E-3	-40.7995E-3
