Experiment	bias spectroscopy	
Date	19.01.2016 21:57:26	
User		
X (m)	49.8363E-9	
Y (m)	257.471E-9	
Z (m)	-132.591E-9	
Z offset (m)	0E+0	
Settling time (s)	200E-6	
Integration time (s)	5E-3	
Z-Ctrl hold	TRUE	
Final Z (m)	N/A	
Filter type	None	
Order		
Cutoff frq		
Comment01	MnPc/Pb(111)	
Comment02	dz =00pm	
Comment03	7 Sweeps	
Comment04	MagField =0.T	
Comment05	Divider 1:10	
Comment06	Setpoint:5mV,200 pA	
Comment07	Lockin: 50uVrms,5ms,5mV	
Comment08	Gain:9; 912Hz modulation	
Comment09	T=1.06K	
Bias>Bias (V)	5E-3	
Bias>Calibration (V/V)	81.475E-3	
Bias>Offset (V)	1.046E-3	
Bias Spectroscopy>Sweep Start (V)	5E-3	
Bias Spectroscopy>Sweep End (V)	-5E-3	
Bias Spectroscopy>Num Pixel	2000	
Bias Spectroscopy>Z Avg time (s)	500E-3	
Bias Spectroscopy>Z offset (m)	0E+0	
Bias Spectroscopy>1st Settling time (s)	500E-3	
Bias Spectroscopy>Settling time (s)	200E-6	
Bias Spectroscopy>Integration time (s)	5E-3	
Bias Spectroscopy>End Settling time (s)	500E-3	
Bias Spectroscopy>Z control time (s)	500E-3	
Bias Spectroscopy>Max Slew rate (V/s)	Inf	
Bias Spectroscopy>backward sweep	TRUE	
Bias Spectroscopy>Z-controller hold	TRUE	
Bias Spectroscopy>Number of sweeps	7	
Bias Spectroscopy>Channels	Current (A);X% LockIn (V);Y% LockIn (V)	
Bias Spectroscopy>Reset Bias	TRUE	
Bias Spectroscopy>Record final Z	FALSE	
Bias Spectroscopy>Lock-In run	FALSE	
Bias Spectroscopy>Sweep mode	Linear	
Bias Spectroscopy>MultiLine Settings : Segment Start (V), Segment End (V), Settling (s), Integration (s), Steps (xn)	100E-3,3.3E-3,100E-6,10E-3,2500;3.3E-3,-3.3E-3,100E-6,10E-3,10;-3.3E-3,-100E-3,100E-6,10E-3,2500	
Current>Current (A)	200.124E-12	
Current>Calibration (A/V)	999.99900E-12	
Current>Offset (A)	-455.429E-15	
Current>Gain	LN 10^9	
Z-Controller>Z (m)	-132.591E-9	
Z-Controller>Controller name	log Current	
Z-Controller>Controller status	ON	
Z-Controller>Setpoint	200E-12	
Z-Controller>Setpoint unit	A	
Z-Controller>P gain	2.96994E-12	
Z-Controller>I gain	67.0321E-9	
Z-Controller>Time const (s)	44.3062E-6	
Z-Controller>TipLift (m)	0E+0	
Z-Controller>Switch off delay (s)	50E-3	
Current (A)	200.14E-12	
Z (m)	-132.591E-9	

[DATA]
Bias calc (V)	Current (A)	X% LockIn (V)	Y% LockIn (V)	Current [bwd] (A)	X% LockIn [bwd] (V)	Y% LockIn [bwd] (V)
5.00000E-3	196.482E-12	639.332E-3	-21.4257E-3	200.710E-12	632.040E-3	-1.16640E-3
4.99500E-3	196.043E-12	650.310E-3	-52.7141E-3	200.441E-12	585.538E-3	-23.0657E-3
4.98999E-3	196.903E-12	633.413E-3	-55.2188E-3	201.172E-12	553.299E-3	-35.0215E-3
4.98499E-3	196.392E-12	624.638E-3	-25.1926E-3	202.222E-12	579.432E-3	-40.1270E-3
4.97999E-3	196.550E-12	638.666E-3	-342.023E-6	201.357E-12	645.371E-3	-52.4595E-3
4.97499E-3	197.325E-12	635.832E-3	-7.78672E-3	200.763E-12	668.463E-3	-56.1627E-3
4.96998E-3	198.577E-12	627.323E-3	-12.2605E-3	200.063E-12	648.509E-3	-31.1821E-3
4.96498E-3	199.044E-12	624.623E-3	-11.2137E-3	199.844E-12	634.615E-3	-3.51859E-3
4.95998E-3	198.523E-12	625.799E-3	-14.2826E-3	198.605E-12	632.637E-3	-14.6898E-3
4.95498E-3	198.845E-12	637.609E-3	-14.8794E-3	197.669E-12	627.461E-3	-38.0986E-3
4.94997E-3	199.116E-12	648.289E-3	-14.3755E-3	196.620E-12	622.973E-3	-26.0065E-3
4.94497E-3	198.795E-12	646.532E-3	-13.1212E-3	196.091E-12	636.261E-3	-6.51494E-3
4.93997E-3	197.757E-12	632.206E-3	-29.5000E-3	194.973E-12	646.696E-3	-5.94898E-3
4.93497E-3	197.439E-12	639.712E-3	-45.8374E-3	194.839E-12	637.889E-3	-9.72484E-3
4.92996E-3	196.439E-12	663.202E-3	-46.7862E-3	194.579E-12	629.263E-3	-17.0187E-3
4.92496E-3	195.526E-12	686.832E-3	-36.1415E-3	194.341E-12	653.191E-3	-33.2788E-3
4.91996E-3	195.015E-12	702.264E-3	-9.62768E-3	194.795E-12	692.596E-3	-36.3842E-3
4.91496E-3	195.131E-12	674.345E-3	-9.35698E-3	195.163E-12	692.704E-3	-15.1632E-3
4.90995E-3	194.257E-12	636.424E-3	-38.1794E-3	195.381E-12	663.086E-3	7.88248E-3
4.90495E-3	193.325E-12	633.385E-3	-29.6802E-3	195.832E-12	624.023E-3	2.95091E-3
4.89995E-3	193.936E-12	631.852E-3	-6.55912E-3	196.613E-12	600.927E-3	-28.3676E-3
4.89495E-3	194.143E-12	618.424E-3	-9.32925E-3	197.101E-12	603.033E-3	-35.3244E-3
4.88995E-3	193.842E-12	629.010E-3	-22.4056E-3	196.280E-12	604.066E-3	-16.8922E-3
4.88494E-3	193.726E-12	632.191E-3	-17.9920E-3	196.784E-12	610.177E-3	-11.8019E-3
4.87994E-3	194.810E-12	602.075E-3	-14.5567E-3	196.554E-12	622.871E-3	-12.5718E-3
4.87494E-3	194.381E-12	595.194E-3	-29.6549E-3	196.490E-12	625.442E-3	1.75605E-3
4.86993E-3	193.643E-12	627.304E-3	-21.3584E-3	194.980E-12	621.889E-3	7.12629E-3
4.86493E-3	194.178E-12	663.990E-3	12.9603E-3	194.958E-12	628.303E-3	-27.0029E-3
4.85993E-3	194.455E-12	667.323E-3	32.9040E-3	193.863E-12	642.635E-3	-65.0997E-3
4.85493E-3	194.185E-12	647.118E-3	23.6809E-3	192.998E-12	653.304E-3	-62.2462E-3
4.84992E-3	192.960E-12	654.896E-3	1.56700E-3	192.283E-12	638.816E-3	-40.9546E-3
4.84492E-3	192.608E-12	656.217E-3	-8.18746E-3	192.477E-12	614.722E-3	-47.1120E-3
4.83992E-3	192.673E-12	633.677E-3	3.58228E-3	191.684E-12	636.067E-3	-44.7092E-3
4.83492E-3	192.346E-12	631.468E-3	8.82426E-3	190.650E-12	661.225E-3	-25.4321E-3
4.82991E-3	191.470E-12	641.387E-3	-1.14194E-3	191.212E-12	654.335E-3	-28.1391E-3
4.82491E-3	191.926E-12	632.744E-3	-16.1117E-3	191.725E-12	633.529E-3	-14.5233E-3
4.81991E-3	192.744E-12	599.433E-3	-18.2190E-3	192.085E-12	595.025E-3	21.0126E-3
4.81491E-3	192.380E-12	575.199E-3	-19.3621E-3	191.498E-12	569.816E-3	17.2811E-3
4.80990E-3	192.530E-12	563.381E-3	-33.6840E-3	192.282E-12	581.770E-3	-11.7265E-3
4.80490E-3	193.153E-12	575.635E-3	-28.1714E-3	192.010E-12	608.592E-3	-21.9607E-3
4.79990E-3	193.008E-12	623.628E-3	-1.99785E-3	192.003E-12	640.823E-3	-23.8100E-3
4.79490E-3	192.127E-12	667.454E-3	14.5078E-3	191.118E-12	657.734E-3	-16.0135E-3
4.78989E-3	192.134E-12	676.734E-3	18.2488E-3	190.695E-12	649.835E-3	-20.5500E-3
4.78489E-3	191.848E-12	668.523E-3	21.4545E-3	190.872E-12	630.186E-3	-46.6620E-3
4.77989E-3	190.370E-12	662.311E-3	2.62609E-3	189.849E-12	602.632E-3	-53.9108E-3
4.77489E-3	189.553E-12	622.419E-3	-23.1724E-3	188.798E-12	597.416E-3	-38.9542E-3
4.76988E-3	189.218E-12	583.976E-3	-10.2087E-3	188.309E-12	611.532E-3	-13.6159E-3
4.76488E-3	188.527E-12	592.072E-3	28.7188E-3	187.610E-12	616.499E-3	6.07694E-3
4.75988E-3	187.413E-12	604.129E-3	39.3978E-3	187.013E-12	618.214E-3	-3.23927E-3
4.75488E-3	187.073E-12	626.878E-3	23.9185E-3	186.999E-12	611.668E-3	-30.2392E-3
4.74988E-3	187.459E-12	646.780E-3	11.0530E-3	187.447E-12	603.962E-3	-51.6892E-3
4.74487E-3	187.312E-12	629.430E-3	-21.6765E-3	187.395E-12	633.748E-3	-42.7630E-3
4.73987E-3	187.146E-12	627.086E-3	-48.3313E-3	187.458E-12	651.883E-3	-6.23799E-3
4.73487E-3	187.372E-12	632.687E-3	-15.9155E-3	187.345E-12	627.308E-3	2.44754E-3
4.72986E-3	188.493E-12	646.317E-3	40.6549E-3	188.299E-12	617.165E-3	-9.80336E-3
4.72486E-3	188.210E-12	668.552E-3	41.2952E-3	187.677E-12	644.643E-3	-9.48832E-3
4.71986E-3	188.752E-12	666.304E-3	-1.70034E-3	188.185E-12	684.439E-3	-20.9461E-3
4.71486E-3	188.521E-12	672.401E-3	-18.0893E-3	188.331E-12	689.197E-3	-20.6754E-3
4.70985E-3	188.946E-12	695.225E-3	-3.74002E-3	188.335E-12	672.589E-3	-15.4533E-3
4.70485E-3	188.544E-12	704.140E-3	1.06463E-3	187.221E-12	668.470E-3	-54.0335E-3
4.69985E-3	187.944E-12	686.341E-3	-15.4289E-3	187.645E-12	661.300E-3	-83.0268E-3
4.69485E-3	187.058E-12	647.366E-3	-32.8898E-3	187.041E-12	648.584E-3	-66.3836E-3
4.68984E-3	186.040E-12	612.735E-3	-28.2246E-3	186.267E-12	641.196E-3	-44.2740E-3
4.68484E-3	185.448E-12	624.339E-3	397.269E-6	186.294E-12	619.239E-3	-25.1653E-3
4.67984E-3	184.286E-12	644.416E-3	15.2754E-3	185.772E-12	609.658E-3	4.52456E-3
4.67484E-3	183.713E-12	644.604E-3	22.3267E-3	185.697E-12	627.745E-3	23.9258E-3
4.66983E-3	183.040E-12	649.293E-3	25.7111E-3	185.798E-12	640.263E-3	7.85465E-3
4.66483E-3	183.027E-12	644.849E-3	7.36714E-3	186.280E-12	658.635E-3	-11.8172E-3
4.65983E-3	183.872E-12	624.938E-3	-11.5867E-3	187.087E-12	661.335E-3	-10.1450E-3
4.65483E-3	183.636E-12	629.204E-3	-4.37978E-3	187.306E-12	642.576E-3	-12.7643E-3
4.64982E-3	184.427E-12	654.123E-3	9.22629E-3	187.382E-12	629.171E-3	-18.6766E-3
4.64482E-3	184.106E-12	662.085E-3	-294.049E-6	187.459E-12	610.335E-3	-9.06976E-3
4.63982E-3	185.637E-12	661.867E-3	-17.3517E-3	187.161E-12	588.418E-3	2.07629E-3
4.63482E-3	185.321E-12	666.414E-3	-17.7273E-3	187.497E-12	600.244E-3	1.31472E-3
4.62981E-3	185.171E-12	667.974E-3	-9.19734E-3	186.896E-12	629.509E-3	-13.4011E-3
4.62481E-3	185.836E-12	657.244E-3	-23.9600E-3	185.981E-12	633.577E-3	-32.8821E-3
4.61981E-3	186.274E-12	640.921E-3	-42.1915E-3	185.454E-12	628.900E-3	-42.2983E-3
4.61481E-3	186.435E-12	630.438E-3	-29.0161E-3	184.410E-12	626.183E-3	-32.6156E-3
4.60980E-3	185.112E-12	637.424E-3	1.70714E-3	184.681E-12	620.094E-3	-4.54276E-3
4.60480E-3	184.579E-12	637.547E-3	17.3713E-3	183.442E-12	630.341E-3	16.1605E-3
4.59980E-3	183.252E-12	612.574E-3	-6.73246E-3	182.052E-12	648.274E-3	11.6370E-3
4.59480E-3	182.938E-12	617.471E-3	-41.7438E-3	181.448E-12	644.281E-3	15.4237E-3
4.58979E-3	181.713E-12	636.022E-3	-41.4645E-3	182.108E-12	628.935E-3	23.7267E-3
4.58479E-3	180.888E-12	619.825E-3	-39.1341E-3	181.809E-12	610.718E-3	2.09555E-3
4.57979E-3	179.319E-12	623.227E-3	-41.1302E-3	180.370E-12	620.946E-3	-7.39289E-3
4.57479E-3	179.556E-12	639.899E-3	-26.6349E-3	180.656E-12	661.500E-3	14.5360E-3
4.56978E-3	179.763E-12	613.143E-3	-17.7293E-3	181.022E-12	665.232E-3	20.9622E-3
4.56478E-3	180.214E-12	596.285E-3	-2.64070E-3	181.670E-12	646.193E-3	9.98525E-3
4.55978E-3	179.584E-12	614.520E-3	15.9541E-3	180.246E-12	656.069E-3	-19.6163E-3
4.55478E-3	179.854E-12	618.863E-3	1.90997E-3	179.981E-12	674.802E-3	-43.2824E-3
4.54977E-3	181.226E-12	615.331E-3	-30.6697E-3	180.529E-12	666.646E-3	-22.2133E-3
4.54477E-3	180.785E-12	622.859E-3	-34.6601E-3	181.120E-12	638.654E-3	2.58977E-3
4.53977E-3	180.486E-12	628.903E-3	-20.8592E-3	179.872E-12	616.119E-3	23.1632E-3
4.53477E-3	181.301E-12	634.939E-3	-13.0240E-3	179.107E-12	607.038E-3	34.7610E-3
4.52976E-3	182.028E-12	645.758E-3	-16.4673E-3	177.818E-12	611.051E-3	9.54299E-3
4.52476E-3	181.636E-12	638.184E-3	-21.6911E-3	177.215E-12	618.873E-3	-26.0801E-3
4.51976E-3	180.448E-12	636.715E-3	-16.3385E-3	177.123E-12	625.039E-3	-37.5612E-3
4.51476E-3	180.645E-12	653.488E-3	-23.0459E-3	176.234E-12	645.305E-3	-26.9075E-3
4.50975E-3	179.761E-12	674.917E-3	-32.1987E-3	175.384E-12	666.411E-3	-15.9768E-3
4.50475E-3	179.305E-12	697.690E-3	-38.6523E-3	174.161E-12	663.026E-3	-19.7446E-3
4.49975E-3	177.750E-12	708.102E-3	-30.5644E-3	174.834E-12	659.517E-3	-13.0202E-3
4.49475E-3	177.491E-12	705.958E-3	-10.5301E-3	175.338E-12	666.501E-3	15.3942E-3
4.48974E-3	176.741E-12	685.293E-3	-12.9736E-3	175.489E-12	659.503E-3	39.4460E-3
4.48474E-3	177.428E-12	654.970E-3	-13.4327E-3	175.674E-12	633.690E-3	27.1689E-3
4.47974E-3	177.027E-12	644.980E-3	13.5022E-3	176.165E-12	637.342E-3	-8.21796E-3
4.47474E-3	175.966E-12	660.125E-3	25.4874E-3	177.800E-12	646.592E-3	-11.4383E-3
4.46973E-3	176.234E-12	650.983E-3	-5.17371E-3	178.447E-12	618.598E-3	-3.71498E-3
4.46473E-3	176.706E-12	632.489E-3	-38.0572E-3	178.050E-12	604.211E-3	-5.42407E-3
4.45973E-3	177.296E-12	644.612E-3	-40.6089E-3	178.877E-12	612.781E-3	-9.55076E-3
4.45473E-3	176.468E-12	662.824E-3	-31.3600E-3	179.002E-12	629.542E-3	-23.5698E-3
4.44972E-3	176.526E-12	676.745E-3	-33.3608E-3	179.557E-12	663.169E-3	-34.7077E-3
4.44472E-3	177.106E-12	681.553E-3	-33.8376E-3	178.844E-12	688.460E-3	-50.7272E-3
4.43972E-3	178.053E-12	659.705E-3	-33.1223E-3	178.723E-12	670.658E-3	-53.0570E-3
4.43472E-3	178.036E-12	639.877E-3	-33.4611E-3	177.480E-12	637.485E-3	-28.3491E-3
4.42971E-3	176.299E-12	654.479E-3	-32.7976E-3	177.098E-12	634.144E-3	-30.2312E-3
4.42471E-3	176.662E-12	670.098E-3	-27.7480E-3	176.072E-12	646.403E-3	-39.4266E-3
4.41971E-3	176.148E-12	659.782E-3	-20.5493E-3	176.017E-12	645.807E-3	-20.6642E-3
4.41471E-3	176.262E-12	634.398E-3	-11.4223E-3	175.450E-12	659.024E-3	-24.9329E-3
4.40970E-3	174.208E-12	616.605E-3	8.72892E-3	175.015E-12	668.088E-3	-56.4024E-3
4.40470E-3	174.261E-12	624.436E-3	21.2164E-3	174.778E-12	638.268E-3	-58.1769E-3
4.39970E-3	174.635E-12	636.009E-3	16.5899E-3	174.760E-12	619.306E-3	-40.8845E-3
4.39470E-3	173.762E-12	625.149E-3	-9.13525E-3	175.619E-12	623.129E-3	-28.6981E-3
4.38969E-3	173.155E-12	609.762E-3	-17.1928E-3	175.396E-12	634.113E-3	-24.4854E-3
4.38469E-3	172.438E-12	602.617E-3	9.42014E-3	175.870E-12	639.742E-3	-43.5953E-3
4.37969E-3	172.281E-12	619.861E-3	15.7374E-3	175.346E-12	625.251E-3	-48.6385E-3
4.37469E-3	172.147E-12	650.623E-3	-2.83073E-3	176.126E-12	624.901E-3	-31.9195E-3
4.36968E-3	172.200E-12	655.593E-3	-8.14155E-3	175.996E-12	637.894E-3	-32.9270E-3
4.36468E-3	171.137E-12	643.039E-3	-9.37255E-3	175.817E-12	630.914E-3	-34.3275E-3
4.35968E-3	170.223E-12	637.218E-3	-17.3060E-3	175.070E-12	625.210E-3	-22.4846E-3
4.35468E-3	170.572E-12	652.858E-3	-26.3619E-3	174.270E-12	632.981E-3	-20.2510E-3
4.34967E-3	171.110E-12	679.176E-3	-31.9314E-3	173.799E-12	635.152E-3	-34.9177E-3
4.34467E-3	170.296E-12	699.643E-3	-34.1974E-3	172.925E-12	633.901E-3	-45.8455E-3
4.33967E-3	169.564E-12	688.060E-3	-23.9691E-3	171.525E-12	631.150E-3	-38.0024E-3
4.33467E-3	169.728E-12	651.899E-3	-6.60579E-3	170.700E-12	620.299E-3	-27.7241E-3
4.32966E-3	170.360E-12	631.697E-3	7.64891E-3	170.268E-12	619.053E-3	-27.2909E-3
4.32466E-3	169.555E-12	616.918E-3	20.2422E-3	168.942E-12	639.235E-3	-35.5371E-3
4.31966E-3	169.183E-12	610.644E-3	14.4364E-3	168.252E-12	658.799E-3	-38.6494E-3
4.31466E-3	169.361E-12	622.311E-3	2.87946E-3	168.816E-12	672.110E-3	-25.1103E-3
4.30965E-3	169.634E-12	624.631E-3	-1.21241E-3	168.884E-12	667.815E-3	-16.4072E-3
4.30465E-3	169.340E-12	637.528E-3	-17.9371E-3	169.323E-12	648.987E-3	-9.15800E-3
4.29965E-3	169.239E-12	651.341E-3	-38.1574E-3	168.929E-12	646.283E-3	22.6731E-3
4.29465E-3	169.407E-12	624.114E-3	-38.6791E-3	169.958E-12	642.730E-3	34.2582E-3
4.28964E-3	169.092E-12	604.717E-3	-47.5550E-3	170.090E-12	634.874E-3	17.3983E-3
4.28464E-3	168.457E-12	631.852E-3	-41.5836E-3	170.581E-12	629.889E-3	20.4361E-3
4.27964E-3	169.053E-12	654.550E-3	-373.753E-6	169.758E-12	636.723E-3	6.33788E-3
4.27464E-3	168.873E-12	643.382E-3	6.64304E-3	169.971E-12	661.904E-3	-31.0665E-3
4.26963E-3	168.118E-12	633.439E-3	-31.5116E-3	169.447E-12	643.805E-3	-29.0662E-3
4.26463E-3	167.569E-12	638.669E-3	-53.2258E-3	169.555E-12	610.411E-3	-11.6525E-3
4.25963E-3	168.169E-12	648.193E-3	-34.3546E-3	169.621E-12	611.899E-3	-33.1286E-3
4.25463E-3	167.376E-12	645.497E-3	-14.3487E-3	168.304E-12	613.819E-3	-59.3040E-3
4.24962E-3	165.816E-12	633.915E-3	-12.4020E-3	167.846E-12	607.028E-3	-53.6670E-3
4.24462E-3	164.955E-12	629.324E-3	-28.1380E-3	166.882E-12	590.390E-3	-37.2525E-3
4.23962E-3	166.007E-12	632.155E-3	-41.2962E-3	167.792E-12	590.783E-3	-29.8224E-3
4.23462E-3	166.543E-12	642.799E-3	-33.3123E-3	166.523E-12	615.259E-3	-18.5529E-3
4.22961E-3	165.568E-12	647.485E-3	-20.2709E-3	166.021E-12	637.801E-3	-10.1161E-3
4.22461E-3	166.309E-12	638.984E-3	-9.18861E-3	166.441E-12	660.505E-3	-12.0831E-3
4.21961E-3	167.602E-12	622.705E-3	-14.5063E-3	166.841E-12	660.385E-3	-1.08999E-3
4.21461E-3	168.581E-12	612.224E-3	-42.7291E-3	166.654E-12	643.261E-3	42.0626E-6
4.20960E-3	168.206E-12	623.192E-3	-63.8433E-3	166.326E-12	643.221E-3	-22.7454E-3
4.20460E-3	167.460E-12	640.113E-3	-54.5923E-3	166.582E-12	652.820E-3	-23.1609E-3
4.19960E-3	167.624E-12	635.393E-3	-26.3537E-3	166.003E-12	667.172E-3	-15.3307E-3
4.19460E-3	167.853E-12	633.296E-3	3.36787E-3	166.126E-12	673.876E-3	-32.5056E-3
4.18959E-3	168.186E-12	657.437E-3	27.7239E-3	165.146E-12	660.170E-3	-37.4372E-3
4.18459E-3	166.543E-12	677.005E-3	35.7856E-3	164.692E-12	642.062E-3	-34.7754E-3
4.17959E-3	166.731E-12	672.253E-3	9.29888E-3	164.254E-12	644.434E-3	-45.7899E-3
4.17459E-3	165.886E-12	651.921E-3	489.728E-6	164.168E-12	655.623E-3	-28.7702E-3
4.16958E-3	166.430E-12	640.392E-3	17.3089E-3	163.188E-12	652.206E-3	7.65777E-3
4.16458E-3	164.266E-12	658.353E-3	568.010E-6	162.954E-12	622.174E-3	29.1561E-3
4.15958E-3	163.381E-12	684.097E-3	-22.1538E-3	162.234E-12	592.443E-3	25.1838E-3
4.15458E-3	162.398E-12	665.676E-3	-14.7764E-3	162.043E-12	603.554E-3	5.78582E-3
4.14957E-3	161.978E-12	626.315E-3	-10.8088E-3	162.482E-12	625.923E-3	5.65700E-3
4.14457E-3	161.452E-12	614.549E-3	-23.2494E-3	161.743E-12	636.654E-3	10.8740E-3
4.13957E-3	160.475E-12	615.583E-3	-24.0958E-3	161.526E-12	623.549E-3	1.45584E-3
4.13457E-3	160.768E-12	611.277E-3	-32.8875E-3	162.020E-12	584.155E-3	-16.0076E-3
4.12956E-3	161.118E-12	611.779E-3	-46.0554E-3	162.497E-12	588.298E-3	-24.3887E-3
4.12456E-3	161.765E-12	638.262E-3	-31.9983E-3	162.891E-12	638.085E-3	-9.05271E-3
4.11956E-3	161.574E-12	670.790E-3	-28.0253E-3	163.109E-12	662.567E-3	1.64968E-3
4.11456E-3	162.131E-12	667.769E-3	-44.6553E-3	163.065E-12	663.821E-3	5.57456E-3
4.10955E-3	162.440E-12	645.448E-3	-33.8707E-3	163.153E-12	662.164E-3	-2.34468E-3
4.10455E-3	162.321E-12	648.713E-3	-10.2743E-3	162.118E-12	661.285E-3	-27.8756E-3
4.09955E-3	162.271E-12	654.827E-3	-8.69196E-3	162.068E-12	666.831E-3	-39.9615E-3
4.09455E-3	161.685E-12	652.624E-3	-6.73756E-3	161.247E-12	656.391E-3	-46.0341E-3
4.08954E-3	161.611E-12	648.755E-3	-1.15865E-3	160.626E-12	627.134E-3	-35.2494E-3
4.08454E-3	160.961E-12	626.875E-3	-10.0419E-3	159.760E-12	615.554E-3	-22.8096E-3
4.07954E-3	160.525E-12	607.754E-3	-17.8887E-3	160.205E-12	636.090E-3	-47.3314E-3
4.07454E-3	159.519E-12	612.711E-3	-25.2764E-3	159.645E-12	669.003E-3	-58.2924E-3
4.06953E-3	158.622E-12	629.634E-3	-23.3706E-3	159.291E-12	676.359E-3	-36.1104E-3
4.06453E-3	158.274E-12	642.713E-3	-10.8804E-3	159.139E-12	652.482E-3	-16.5291E-3
4.05953E-3	158.131E-12	639.578E-3	-4.70575E-3	159.644E-12	650.438E-3	-7.61382E-3
4.05453E-3	157.367E-12	635.719E-3	3.63324E-3	159.703E-12	665.227E-3	-8.46380E-3
4.04952E-3	156.429E-12	640.713E-3	1.23255E-3	159.587E-12	676.323E-3	-19.5205E-3
4.04452E-3	156.516E-12	635.607E-3	-9.73564E-3	159.152E-12	686.249E-3	-22.4527E-3
4.03952E-3	157.666E-12	613.105E-3	-13.2664E-3	160.059E-12	669.985E-3	-8.65549E-3
4.03452E-3	158.050E-12	605.751E-3	-15.2209E-3	159.624E-12	636.466E-3	-15.6202E-3
4.02951E-3	157.969E-12	639.100E-3	-12.8884E-3	160.227E-12	634.623E-3	-39.1022E-3
4.02451E-3	158.283E-12	656.292E-3	-8.08167E-3	160.450E-12	663.840E-3	-33.8615E-3
4.01951E-3	158.968E-12	646.565E-3	-12.6780E-3	160.191E-12	672.085E-3	-13.9580E-3
4.01451E-3	159.046E-12	644.578E-3	-18.0775E-3	159.387E-12	664.447E-3	5.11466E-3
4.00950E-3	159.433E-12	646.053E-3	-18.8407E-3	159.197E-12	649.222E-3	7.01537E-3
4.00450E-3	158.686E-12	657.592E-3	-22.9511E-3	158.775E-12	630.132E-3	-22.0156E-3
3.99950E-3	158.735E-12	659.346E-3	-14.1405E-3	157.527E-12	643.178E-3	-39.5033E-3
3.99450E-3	158.676E-12	639.930E-3	2.16602E-3	156.275E-12	669.329E-3	-32.6535E-3
3.98949E-3	158.627E-12	628.637E-3	4.41696E-3	156.101E-12	676.340E-3	-17.8905E-3
3.98449E-3	157.787E-12	627.828E-3	-13.7448E-3	156.204E-12	676.880E-3	7.65650E-3
3.97949E-3	156.866E-12	619.856E-3	-34.2414E-3	155.865E-12	674.552E-3	16.2815E-3
3.97449E-3	156.158E-12	622.247E-3	-31.1015E-3	154.884E-12	661.892E-3	-2.32252E-3
3.96948E-3	155.395E-12	621.832E-3	-19.5560E-3	154.754E-12	653.702E-3	-652.579E-6
3.96448E-3	155.083E-12	601.921E-3	3.44039E-3	155.670E-12	654.705E-3	13.7061E-3
3.95948E-3	154.147E-12	612.897E-3	33.6599E-3	155.332E-12	654.288E-3	-4.02737E-3
3.95448E-3	153.393E-12	635.427E-3	30.6059E-3	155.095E-12	663.106E-3	-33.3908E-3
3.94947E-3	153.049E-12	628.431E-3	-6.27330E-3	154.922E-12	672.263E-3	-29.9664E-3
3.94447E-3	153.462E-12	622.758E-3	-19.8337E-3	155.745E-12	672.277E-3	-12.6900E-3
3.93947E-3	153.433E-12	637.228E-3	-9.01194E-3	155.124E-12	651.438E-3	2.06005E-3
3.93447E-3	153.528E-12	647.680E-3	-12.6211E-3	154.396E-12	623.456E-3	20.8357E-3
3.92946E-3	153.272E-12	648.467E-3	-11.5690E-3	153.778E-12	616.149E-3	6.20667E-3
3.92446E-3	152.982E-12	651.423E-3	-5.44748E-3	153.729E-12	620.364E-3	-20.8563E-3
3.91946E-3	153.194E-12	647.102E-3	-15.6207E-3	152.574E-12	627.843E-3	-7.22049E-3
3.91446E-3	152.901E-12	641.920E-3	-39.2862E-3	151.720E-12	618.065E-3	13.0306E-3
3.90945E-3	152.600E-12	629.596E-3	-53.5920E-3	150.321E-12	605.900E-3	8.48193E-3
3.90445E-3	152.710E-12	613.336E-3	-47.0872E-3	149.462E-12	609.457E-3	-13.3363E-3
3.89945E-3	152.902E-12	630.601E-3	-39.0285E-3	149.026E-12	613.310E-3	-33.0166E-3
3.89445E-3	152.899E-12	646.938E-3	-28.8394E-3	148.309E-12	619.269E-3	-35.8306E-3
3.88944E-3	152.901E-12	637.827E-3	-14.6418E-3	147.894E-12	609.440E-3	-32.2871E-3
3.88444E-3	152.467E-12	626.421E-3	3.17254E-3	147.645E-12	590.251E-3	-16.7094E-3
3.87944E-3	152.620E-12	624.443E-3	21.4954E-3	147.992E-12	604.833E-3	-7.97232E-3
3.87444E-3	152.402E-12	642.213E-3	17.6055E-3	148.513E-12	646.714E-3	-31.4456E-3
3.86943E-3	152.405E-12	654.682E-3	-4.83331E-3	149.132E-12	683.140E-3	-47.9192E-3
3.86443E-3	151.997E-12	656.608E-3	-27.4491E-3	149.183E-12	684.200E-3	-26.2706E-3
3.85943E-3	151.837E-12	653.583E-3	-31.7803E-3	149.682E-12	652.366E-3	7.75477E-3
3.85443E-3	151.581E-12	641.838E-3	-22.4377E-3	151.108E-12	634.968E-3	2.26539E-3
3.84942E-3	150.806E-12	642.676E-3	-24.1913E-3	150.745E-12	645.255E-3	-25.7877E-3
3.84442E-3	150.462E-12	656.993E-3	-20.9005E-3	150.519E-12	655.985E-3	-28.6881E-3
3.83942E-3	150.811E-12	673.266E-3	-11.3916E-3	150.445E-12	645.624E-3	-26.0369E-3
3.83442E-3	150.464E-12	676.637E-3	-14.5883E-3	150.994E-12	625.740E-3	-26.8649E-3
3.82941E-3	150.092E-12	658.337E-3	-15.6356E-3	150.594E-12	634.516E-3	-17.3832E-3
3.82441E-3	149.237E-12	649.206E-3	-6.68828E-3	149.887E-12	656.387E-3	5.16352E-3
3.81941E-3	149.791E-12	664.472E-3	5.13239E-3	149.099E-12	659.661E-3	13.7166E-3
3.81441E-3	149.555E-12	668.025E-3	-5.28802E-3	148.730E-12	655.394E-3	1.02743E-3
3.80940E-3	148.722E-12	646.535E-3	-34.7461E-3	148.087E-12	645.444E-3	858.197E-6
3.80440E-3	148.553E-12	636.557E-3	-45.4298E-3	147.713E-12	638.055E-3	-3.66221E-3
3.79940E-3	148.546E-12	654.501E-3	-33.1806E-3	147.310E-12	649.927E-3	-23.3251E-3
3.79440E-3	149.264E-12	674.540E-3	-8.77772E-3	147.506E-12	667.372E-3	-15.8868E-3
3.78939E-3	148.313E-12	684.371E-3	9.49691E-3	147.737E-12	667.670E-3	9.59525E-3
3.78439E-3	148.743E-12	684.121E-3	-2.31430E-3	148.626E-12	653.665E-3	15.1070E-3
3.77939E-3	148.422E-12	670.253E-3	-10.9859E-3	148.864E-12	636.091E-3	-1.11907E-3
3.77439E-3	148.453E-12	649.493E-3	1.37736E-3	148.544E-12	632.518E-3	-24.9183E-3
3.76938E-3	148.760E-12	642.988E-3	-10.5985E-3	148.422E-12	643.964E-3	-25.0460E-3
3.76438E-3	148.717E-12	643.705E-3	-40.1290E-3	149.631E-12	655.401E-3	6.71653E-3
3.75938E-3	148.488E-12	634.579E-3	-34.4696E-3	148.632E-12	647.044E-3	22.1916E-3
3.75438E-3	147.702E-12	626.680E-3	-6.22524E-3	148.210E-12	629.790E-3	2.46711E-3
3.74937E-3	147.242E-12	625.795E-3	6.94421E-3	147.764E-12	646.741E-3	-25.8800E-3
3.74437E-3	147.080E-12	631.359E-3	5.69517E-3	148.081E-12	680.758E-3	-26.9110E-3
3.73937E-3	146.107E-12	637.457E-3	-6.37557E-3	147.274E-12	688.809E-3	-900.984E-6
3.73437E-3	145.525E-12	628.436E-3	-30.0697E-3	146.923E-12	667.562E-3	-2.82892E-3
3.72936E-3	144.580E-12	621.532E-3	-34.7498E-3	146.104E-12	649.636E-3	-31.0329E-3
3.72436E-3	144.565E-12	644.144E-3	-18.7574E-3	145.265E-12	647.685E-3	-36.5355E-3
3.71936E-3	143.905E-12	674.805E-3	-18.0061E-3	144.540E-12	656.386E-3	-31.3621E-3
3.71436E-3	143.317E-12	690.917E-3	-14.7873E-3	144.451E-12	671.524E-3	-28.1809E-3
3.70935E-3	143.089E-12	684.214E-3	-6.87792E-3	144.025E-12	658.323E-3	-18.3339E-3
3.70435E-3	142.969E-12	662.540E-3	-12.2361E-3	143.624E-12	655.680E-3	-14.6761E-3
3.69935E-3	142.740E-12	656.871E-3	-27.5836E-3	143.528E-12	691.826E-3	-14.9213E-3
3.69435E-3	142.920E-12	669.376E-3	-41.9883E-3	143.528E-12	699.294E-3	-10.8378E-3
3.68934E-3	143.582E-12	680.058E-3	-52.8630E-3	143.566E-12	662.127E-3	2.68621E-3
3.68434E-3	143.514E-12	672.926E-3	-46.7321E-3	143.812E-12	622.352E-3	-692.052E-6
3.67934E-3	143.102E-12	660.068E-3	-24.1357E-3	143.316E-12	618.337E-3	-40.0019E-3
3.67434E-3	143.508E-12	661.383E-3	2.70660E-3	143.009E-12	642.905E-3	-56.5322E-3
3.66933E-3	144.253E-12	661.973E-3	22.7789E-3	143.418E-12	670.457E-3	-24.5389E-3
3.66433E-3	143.746E-12	654.051E-3	930.001E-6	143.076E-12	678.274E-3	-831.944E-6
3.65933E-3	142.990E-12	659.783E-3	-39.0290E-3	142.576E-12	648.566E-3	4.05152E-3
3.65433E-3	142.262E-12	682.267E-3	-51.2513E-3	142.125E-12	613.519E-3	10.9684E-3
3.64932E-3	141.905E-12	679.112E-3	-31.3435E-3	141.791E-12	609.573E-3	7.90725E-3
3.64432E-3	141.225E-12	657.613E-3	-13.1859E-3	141.131E-12	629.914E-3	-978.899E-6
3.63932E-3	140.251E-12	654.705E-3	-21.2595E-3	140.747E-12	639.933E-3	5.79825E-3
3.63432E-3	139.473E-12	655.652E-3	-33.1546E-3	140.511E-12	637.506E-3	6.96646E-3
3.62931E-3	139.480E-12	642.076E-3	-22.8874E-3	140.334E-12	653.249E-3	-18.3614E-3
3.62431E-3	139.270E-12	628.985E-3	-12.0801E-3	140.408E-12	677.058E-3	-34.3062E-3
3.61931E-3	139.074E-12	630.673E-3	-23.6123E-3	140.979E-12	682.453E-3	-15.8889E-3
3.61431E-3	138.809E-12	647.053E-3	-33.5704E-3	140.679E-12	667.044E-3	19.7521E-3
3.60930E-3	138.949E-12	652.445E-3	-26.0857E-3	140.859E-12	636.496E-3	37.9809E-3
3.60430E-3	139.274E-12	640.526E-3	-17.2401E-3	140.762E-12	618.804E-3	16.4411E-3
3.59930E-3	139.603E-12	637.457E-3	-27.6199E-3	141.221E-12	641.971E-3	-10.9395E-3
3.59430E-3	139.951E-12	636.435E-3	-28.8001E-3	140.962E-12	663.187E-3	-8.74316E-3
3.58929E-3	139.631E-12	638.905E-3	-16.6188E-3	140.440E-12	643.247E-3	2.45970E-3
3.58429E-3	140.433E-12	646.807E-3	-30.6795E-3	140.055E-12	619.604E-3	8.23515E-3
3.57929E-3	140.615E-12	643.982E-3	-36.5398E-3	139.469E-12	620.846E-3	13.4371E-3
3.57429E-3	140.469E-12	663.628E-3	-15.5067E-3	138.780E-12	638.020E-3	2.03000E-3
3.56928E-3	139.491E-12	702.241E-3	-22.9978E-3	138.010E-12	652.574E-3	321.655E-6
3.56428E-3	139.625E-12	703.614E-3	-46.1260E-3	136.879E-12	652.409E-3	5.50709E-3
3.55928E-3	139.433E-12	681.204E-3	-33.9668E-3	136.740E-12	642.046E-3	-24.8544E-3
3.55428E-3	138.857E-12	672.370E-3	-19.2230E-3	136.772E-12	630.667E-3	-48.2352E-3
3.54927E-3	137.571E-12	673.203E-3	-32.0701E-3	136.092E-12	637.951E-3	-37.5362E-3
3.54427E-3	137.143E-12	658.081E-3	-52.6718E-3	135.308E-12	661.189E-3	-27.4294E-3
3.53927E-3	136.479E-12	622.978E-3	-54.4755E-3	135.441E-12	657.378E-3	-22.5576E-3
3.53427E-3	136.132E-12	596.871E-3	-39.4723E-3	135.775E-12	633.391E-3	-9.49602E-3
3.52926E-3	135.803E-12	582.750E-3	-39.9589E-3	136.441E-12	640.461E-3	-3.67203E-3
3.52426E-3	135.075E-12	582.043E-3	-51.6538E-3	136.071E-12	661.014E-3	-10.7871E-3
3.51926E-3	134.946E-12	607.793E-3	-48.9630E-3	135.944E-12	657.495E-3	-1.04868E-3
3.51426E-3	134.527E-12	635.524E-3	-33.5137E-3	136.737E-12	657.897E-3	20.6474E-3
3.50925E-3	134.919E-12	643.332E-3	-13.7421E-3	137.289E-12	658.235E-3	13.2018E-3
3.50425E-3	135.066E-12	640.364E-3	2.40253E-3	136.689E-12	648.269E-3	-15.1847E-3
3.49925E-3	135.106E-12	640.583E-3	6.30238E-3	135.491E-12	654.019E-3	-36.4988E-3
3.49425E-3	134.700E-12	643.411E-3	-3.09464E-3	135.394E-12	663.484E-3	-44.3548E-3
3.48924E-3	134.772E-12	630.797E-3	-18.0718E-3	134.799E-12	657.146E-3	-42.1889E-3
3.48424E-3	135.209E-12	624.447E-3	-23.5837E-3	134.535E-12	640.678E-3	-39.3161E-3
3.47924E-3	134.510E-12	655.878E-3	-16.9772E-3	132.856E-12	623.342E-3	-50.8999E-3
3.47424E-3	133.806E-12	682.977E-3	-14.0810E-3	132.060E-12	614.324E-3	-61.3138E-3
3.46923E-3	133.790E-12	662.921E-3	-22.8691E-3	130.665E-12	625.589E-3	-41.8253E-3
3.46423E-3	133.724E-12	638.310E-3	-28.1383E-3	130.920E-12	648.245E-3	-12.8231E-3
3.45923E-3	133.300E-12	640.908E-3	-34.8307E-3	131.007E-12	665.144E-3	5.09054E-3
3.45423E-3	132.243E-12	656.286E-3	-44.1275E-3	130.781E-12	674.639E-3	11.5065E-3
3.44922E-3	132.395E-12	676.229E-3	-31.2988E-3	130.295E-12	678.640E-3	-5.08719E-3
3.44422E-3	132.212E-12	676.977E-3	-5.18870E-3	130.920E-12	683.859E-3	-15.0923E-3
3.43922E-3	132.174E-12	666.284E-3	10.9630E-3	131.992E-12	679.395E-3	2.04152E-3
3.43422E-3	132.119E-12	668.709E-3	6.38183E-3	132.957E-12	673.411E-3	9.61315E-3
3.42921E-3	131.915E-12	669.475E-3	-6.63821E-3	133.317E-12	675.835E-3	-15.5838E-3
3.42421E-3	131.692E-12	656.081E-3	-3.38889E-3	132.649E-12	679.058E-3	-47.0211E-3
3.41921E-3	131.783E-12	650.959E-3	12.1868E-3	134.272E-12	684.284E-3	-43.2757E-3
3.41421E-3	131.470E-12	648.369E-3	7.22374E-3	133.974E-12	673.448E-3	-18.4393E-3
3.40920E-3	131.657E-12	631.636E-3	-13.0406E-3	134.138E-12	646.398E-3	-759.531E-6
3.40420E-3	131.144E-12	636.992E-3	-24.0663E-3	132.971E-12	622.256E-3	-813.173E-6
3.39920E-3	131.148E-12	651.246E-3	-22.2381E-3	132.897E-12	623.996E-3	-17.5417E-3
3.39420E-3	131.388E-12	644.588E-3	-19.2093E-3	132.279E-12	656.151E-3	-25.8547E-3
3.38919E-3	131.612E-12	640.380E-3	-35.2088E-3	131.952E-12	656.299E-3	-22.8677E-3
3.38419E-3	130.954E-12	650.816E-3	-49.8376E-3	131.007E-12	620.768E-3	-12.1704E-3
3.37919E-3	130.556E-12	664.822E-3	-38.1043E-3	130.205E-12	617.288E-3	-8.20651E-3
3.37419E-3	130.143E-12	665.834E-3	-16.9097E-3	129.679E-12	644.966E-3	-27.5564E-3
3.36918E-3	130.153E-12	650.560E-3	-12.0215E-3	129.232E-12	663.563E-3	-27.7632E-3
3.36418E-3	129.692E-12	637.937E-3	-26.2955E-3	129.833E-12	671.943E-3	6.88894E-3
3.35918E-3	129.414E-12	639.016E-3	-40.2771E-3	129.505E-12	664.313E-3	20.2366E-3
3.35418E-3	129.717E-12	641.757E-3	-28.2348E-3	129.152E-12	647.783E-3	2.08129E-3
3.34917E-3	129.269E-12	640.085E-3	7.62684E-3	129.482E-12	652.424E-3	-23.6094E-3
3.34417E-3	129.831E-12	644.135E-3	17.4161E-3	130.234E-12	675.698E-3	-37.2003E-3
3.33917E-3	129.688E-12	665.809E-3	-21.6492E-3	129.777E-12	681.896E-3	-26.4943E-3
3.33417E-3	129.263E-12	679.780E-3	-58.0352E-3	129.338E-12	657.754E-3	-14.4175E-3
3.32916E-3	128.801E-12	678.561E-3	-51.9946E-3	128.931E-12	646.425E-3	-8.15444E-3
3.32416E-3	128.598E-12	673.061E-3	-26.2098E-3	129.105E-12	658.476E-3	-4.21279E-3
3.31916E-3	127.851E-12	649.985E-3	-6.58794E-3	128.579E-12	669.044E-3	-3.60243E-3
3.31416E-3	127.991E-12	622.593E-3	5.80461E-3	128.100E-12	663.888E-3	12.0024E-3
3.30915E-3	127.609E-12	611.031E-3	-154.575E-6	126.727E-12	655.778E-3	22.7779E-3
3.30415E-3	126.536E-12	622.700E-3	-17.9008E-3	126.281E-12	648.097E-3	6.38428E-3
3.29915E-3	125.988E-12	629.368E-3	-15.1443E-3	125.611E-12	638.119E-3	-1.70938E-3
3.29415E-3	125.862E-12	625.367E-3	-13.2526E-3	124.824E-12	643.897E-3	16.0358E-3
3.28914E-3	125.964E-12	634.318E-3	-23.2765E-3	124.250E-12	659.010E-3	29.5171E-3
3.28414E-3	125.124E-12	646.742E-3	-11.7738E-3	123.431E-12	668.137E-3	20.8083E-3
3.27914E-3	125.607E-12	653.341E-3	4.95748E-3	123.261E-12	667.462E-3	-7.80745E-3
3.27414E-3	125.840E-12	656.834E-3	-4.93912E-3	123.378E-12	664.340E-3	-37.7591E-3
3.26913E-3	126.006E-12	661.426E-3	-18.8702E-3	123.718E-12	671.834E-3	-45.6492E-3
3.26413E-3	125.833E-12	665.174E-3	-10.6953E-3	123.390E-12	666.578E-3	-34.6853E-3
3.25913E-3	125.766E-12	666.176E-3	-9.75589E-3	124.043E-12	637.283E-3	-23.7959E-3
3.25413E-3	125.640E-12	660.867E-3	-24.1367E-3	123.738E-12	621.672E-3	-11.8273E-3
3.24912E-3	126.116E-12	636.413E-3	-18.8317E-3	124.155E-12	626.824E-3	-252.982E-6
3.24412E-3	126.083E-12	617.503E-3	-11.8782E-3	123.950E-12	630.098E-3	-2.98758E-3
3.23912E-3	125.147E-12	644.994E-3	-28.3455E-3	123.571E-12	616.412E-3	-11.5277E-3
3.23412E-3	125.255E-12	666.494E-3	-31.6608E-3	123.589E-12	599.101E-3	-18.2153E-3
3.22911E-3	124.512E-12	637.604E-3	-18.5212E-3	123.140E-12	614.765E-3	-23.5567E-3
3.22411E-3	123.827E-12	615.305E-3	4.91344E-3	122.820E-12	651.966E-3	-11.9056E-3
3.21911E-3	123.207E-12	622.303E-3	27.2679E-3	122.319E-12	674.026E-3	-2.70872E-3
3.21411E-3	122.581E-12	641.513E-3	11.1546E-3	122.021E-12	666.203E-3	-15.0864E-3
3.20910E-3	121.617E-12	661.973E-3	-16.7833E-3	121.525E-12	644.254E-3	-27.0994E-3
3.20410E-3	121.437E-12	657.227E-3	-24.3956E-3	121.165E-12	643.140E-3	-27.4375E-3
3.19910E-3	121.806E-12	642.725E-3	-17.8330E-3	121.343E-12	660.285E-3	-22.1491E-3
3.19410E-3	121.202E-12	650.817E-3	-14.3996E-3	120.968E-12	667.737E-3	-22.2718E-3
3.18909E-3	120.654E-12	673.165E-3	-14.0904E-3	120.600E-12	660.908E-3	-19.0883E-3
3.18409E-3	120.954E-12	668.816E-3	-10.5965E-3	121.040E-12	651.808E-3	-7.74430E-3
3.17909E-3	121.340E-12	660.078E-3	-15.4670E-3	121.257E-12	650.057E-3	-7.13848E-3
3.17409E-3	121.500E-12	673.217E-3	-23.6789E-3	121.630E-12	667.474E-3	-16.2472E-3
3.16908E-3	121.820E-12	663.431E-3	-35.0791E-3	121.584E-12	685.730E-3	-31.2061E-3
3.16408E-3	121.746E-12	642.462E-3	-40.8037E-3	122.068E-12	674.956E-3	-32.2436E-3
3.15908E-3	121.989E-12	652.712E-3	-28.2293E-3	122.275E-12	659.080E-3	-17.9445E-3
3.15408E-3	122.204E-12	677.497E-3	-20.4333E-3	121.787E-12	652.221E-3	-19.6903E-3
3.14907E-3	122.142E-12	686.190E-3	-26.8894E-3	121.526E-12	643.096E-3	-18.1018E-3
3.14407E-3	121.985E-12	684.035E-3	-26.4031E-3	121.092E-12	648.175E-3	-21.2819E-3
3.13907E-3	121.383E-12	679.720E-3	-20.0135E-3	120.529E-12	657.421E-3	-43.0324E-3
3.13407E-3	120.325E-12	676.121E-3	-25.2069E-3	119.919E-12	646.658E-3	-46.5725E-3
3.12906E-3	119.684E-12	681.949E-3	-35.1802E-3	119.597E-12	644.449E-3	-28.4902E-3
3.12406E-3	118.941E-12	688.547E-3	-25.7595E-3	119.073E-12	663.665E-3	-17.2957E-3
3.11906E-3	118.610E-12	690.475E-3	-12.9435E-3	118.785E-12	675.818E-3	-61.1573E-6
3.11406E-3	117.493E-12	690.358E-3	-19.5557E-3	118.210E-12	673.673E-3	33.4411E-3
3.10905E-3	116.722E-12	690.543E-3	-22.9823E-3	117.946E-12	669.712E-3	38.5933E-3
3.10405E-3	117.062E-12	683.955E-3	-21.2105E-3	117.744E-12	662.133E-3	3.49425E-3
3.09905E-3	116.436E-12	665.946E-3	-22.5368E-3	117.611E-12	660.497E-3	-39.9070E-3
3.09405E-3	116.568E-12	645.445E-3	-10.0548E-3	117.592E-12	680.151E-3	-59.3588E-3
3.08904E-3	116.539E-12	634.739E-3	-2.99321E-3	117.950E-12	690.843E-3	-52.4845E-3
3.08404E-3	116.347E-12	631.152E-3	-22.4156E-3	118.077E-12	697.296E-3	-53.4518E-3
3.07904E-3	116.365E-12	628.149E-3	-44.2669E-3	117.573E-12	692.923E-3	-61.4163E-3
3.07404E-3	116.102E-12	634.327E-3	-42.7991E-3	117.551E-12	656.752E-3	-59.1391E-3
3.06903E-3	116.287E-12	649.868E-3	-34.3077E-3	117.831E-12	631.458E-3	-41.1381E-3
3.06403E-3	116.123E-12	667.240E-3	-43.8570E-3	117.761E-12	638.016E-3	-9.37147E-3
3.05903E-3	116.271E-12	671.093E-3	-58.1091E-3	116.710E-12	650.381E-3	7.10481E-3
3.05403E-3	116.018E-12	660.326E-3	-59.3254E-3	116.313E-12	650.149E-3	-6.89707E-3
3.04902E-3	116.076E-12	638.980E-3	-43.0015E-3	115.467E-12	652.613E-3	-25.4616E-3
3.04402E-3	116.235E-12	621.888E-3	-25.2841E-3	114.605E-12	657.930E-3	-18.9078E-3
3.03902E-3	115.261E-12	628.642E-3	-26.0932E-3	113.831E-12	665.670E-3	5.35095E-3
3.03402E-3	115.338E-12	653.088E-3	-34.7696E-3	113.448E-12	676.852E-3	10.8568E-3
3.02901E-3	114.018E-12	678.393E-3	-32.0790E-3	113.040E-12	673.384E-3	-7.02682E-3
3.02401E-3	114.275E-12	680.903E-3	-17.1166E-3	112.968E-12	683.070E-3	-12.9616E-3
3.01901E-3	113.508E-12	661.310E-3	-14.5094E-3	113.166E-12	706.114E-3	-12.7219E-3
3.01401E-3	113.488E-12	653.519E-3	-30.1614E-3	113.487E-12	692.673E-3	-20.7276E-3
3.00900E-3	112.902E-12	670.662E-3	-42.0428E-3	113.810E-12	667.921E-3	-22.9719E-3
3.00400E-3	112.707E-12	673.332E-3	-34.3897E-3	113.589E-12	672.070E-3	-22.6488E-3
2.99900E-3	113.031E-12	650.903E-3	-3.29076E-3	113.700E-12	674.918E-3	-34.0923E-3
2.99400E-3	113.183E-12	645.782E-3	12.2800E-3	113.854E-12	670.307E-3	-32.6913E-3
2.98899E-3	112.971E-12	662.499E-3	-12.4685E-3	114.084E-12	668.416E-3	-462.289E-6
2.98399E-3	112.463E-12	675.179E-3	-24.4834E-3	113.981E-12	664.203E-3	13.9227E-3
2.97899E-3	113.038E-12	677.859E-3	-6.90079E-3	113.666E-12	665.853E-3	-11.7553E-3
2.97399E-3	112.805E-12	667.539E-3	-5.10213E-3	113.209E-12	672.764E-3	-26.0604E-3
2.96898E-3	112.472E-12	658.588E-3	-20.4510E-3	112.770E-12	670.565E-3	-11.9474E-3
2.96398E-3	112.237E-12	673.310E-3	-31.4916E-3	112.642E-12	666.353E-3	-6.72648E-3
2.95898E-3	112.582E-12	697.708E-3	-35.0294E-3	111.729E-12	672.082E-3	-17.1610E-3
2.95398E-3	112.248E-12	694.786E-3	-27.2133E-3	111.285E-12	665.991E-3	-23.9602E-3
2.94897E-3	111.964E-12	678.064E-3	-8.02257E-3	111.319E-12	648.790E-3	-24.3535E-3
2.94397E-3	111.591E-12	681.720E-3	6.71620E-3	111.022E-12	644.663E-3	-19.9075E-3
2.93897E-3	111.155E-12	680.093E-3	5.66300E-3	110.134E-12	665.511E-3	-16.3575E-3
2.93397E-3	110.954E-12	668.107E-3	-5.33694E-3	109.650E-12	694.293E-3	-17.1359E-3
2.92896E-3	110.348E-12	661.720E-3	-12.1189E-3	110.123E-12	707.786E-3	-20.8030E-3
2.92396E-3	110.233E-12	657.669E-3	-11.1733E-3	110.744E-12	706.903E-3	-29.4931E-3
2.91896E-3	109.603E-12	653.776E-3	-11.2195E-3	110.403E-12	692.734E-3	-27.1159E-3
2.91396E-3	109.753E-12	652.380E-3	-11.4512E-3	109.879E-12	678.384E-3	-10.9911E-3
2.90895E-3	110.109E-12	667.132E-3	-12.6386E-3	110.265E-12	670.666E-3	-6.69535E-3
2.90395E-3	109.510E-12	687.854E-3	-25.5846E-3	110.964E-12	665.491E-3	-19.4123E-3
2.89895E-3	108.711E-12	694.713E-3	-37.7427E-3	111.024E-12	678.659E-3	-31.0596E-3
2.89395E-3	108.245E-12	687.628E-3	-36.3873E-3	109.892E-12	690.114E-3	-41.6035E-3
2.88894E-3	108.569E-12	670.968E-3	-22.8959E-3	109.674E-12	677.198E-3	-44.0573E-3
2.88394E-3	108.102E-12	664.038E-3	-15.7143E-3	109.205E-12	663.254E-3	-26.2021E-3
2.87894E-3	107.787E-12	688.522E-3	-18.9851E-3	108.373E-12	652.146E-3	-19.1134E-3
2.87394E-3	107.003E-12	707.560E-3	-20.7621E-3	107.415E-12	646.929E-3	-38.6917E-3
2.86893E-3	107.642E-12	690.563E-3	-17.5597E-3	106.466E-12	663.224E-3	-40.4049E-3
2.86393E-3	107.752E-12	677.027E-3	-7.38304E-3	105.861E-12	675.296E-3	-20.2161E-3
2.85893E-3	106.724E-12	680.699E-3	-8.09554E-3	105.397E-12	662.920E-3	-7.34691E-3
2.85393E-3	106.703E-12	675.870E-3	-24.0039E-3	105.309E-12	638.067E-3	2.01311E-3
2.84892E-3	106.712E-12	671.907E-3	-37.2960E-3	104.666E-12	630.277E-3	18.0485E-3
2.84392E-3	107.221E-12	680.512E-3	-38.3133E-3	104.808E-12	653.133E-3	22.9802E-3
2.83892E-3	106.776E-12	675.535E-3	-32.4031E-3	104.782E-12	678.569E-3	2.42412E-3
2.83392E-3	106.774E-12	666.154E-3	-30.1468E-3	105.013E-12	692.255E-3	-19.9982E-3
2.82891E-3	107.028E-12	672.498E-3	-31.6579E-3	105.010E-12	688.901E-3	-21.5340E-3
2.82391E-3	107.091E-12	684.748E-3	-32.9779E-3	105.165E-12	678.115E-3	-18.5006E-3
2.81891E-3	107.285E-12	701.634E-3	-30.2887E-3	105.688E-12	688.018E-3	-26.0359E-3
2.81391E-3	106.256E-12	703.863E-3	-16.9752E-3	106.430E-12	700.358E-3	-22.4303E-3
2.80890E-3	105.627E-12	699.273E-3	-9.21861E-3	106.726E-12	687.323E-3	-16.2662E-3
2.80390E-3	105.156E-12	707.526E-3	-15.7099E-3	106.449E-12	667.756E-3	-25.9585E-3
2.79890E-3	104.991E-12	691.696E-3	-9.72734E-3	106.205E-12	675.433E-3	-33.7486E-3
2.79390E-3	104.153E-12	667.298E-3	-3.10463E-3	106.009E-12	701.434E-3	-23.4309E-3
2.78889E-3	103.433E-12	666.446E-3	-4.31584E-3	105.184E-12	701.533E-3	382.220E-6
2.78389E-3	102.761E-12	663.087E-3	333.531E-6	104.480E-12	686.960E-3	5.40306E-3
2.77889E-3	102.899E-12	639.241E-3	-9.90678E-3	104.178E-12	686.473E-3	-15.6626E-3
2.77389E-3	102.316E-12	621.744E-3	-32.1160E-3	103.563E-12	685.884E-3	-23.5978E-3
2.76888E-3	102.037E-12	639.436E-3	-48.6006E-3	103.067E-12	687.289E-3	-14.3536E-3
2.76388E-3	101.505E-12	664.910E-3	-39.3075E-3	103.022E-12	683.496E-3	-16.8198E-3
2.75888E-3	102.164E-12	667.417E-3	-12.9786E-3	103.066E-12	661.054E-3	-14.9149E-3
2.75388E-3	102.338E-12	664.546E-3	2.80461E-3	102.608E-12	658.679E-3	-2.65478E-3
2.74887E-3	101.899E-12	677.374E-3	780.072E-6	102.565E-12	679.913E-3	-4.21406E-3
2.74387E-3	101.398E-12	684.312E-3	-25.4878E-3	102.602E-12	688.580E-3	-11.0117E-3
2.73887E-3	102.250E-12	684.551E-3	-38.2894E-3	102.924E-12	690.453E-3	-7.76823E-3
2.73387E-3	102.422E-12	688.687E-3	-23.7800E-3	102.702E-12	690.477E-3	-2.08664E-3
2.72886E-3	102.401E-12	688.236E-3	-7.90189E-3	102.630E-12	678.061E-3	-3.30832E-3
2.72386E-3	101.786E-12	696.204E-3	2.68577E-3	102.450E-12	674.297E-3	-3.87765E-3
2.71886E-3	101.736E-12	704.455E-3	5.87590E-3	102.734E-12	685.929E-3	-3.09233E-3
2.71386E-3	101.459E-12	694.976E-3	5.53253E-3	102.339E-12	703.187E-3	-4.02941E-3
2.70885E-3	100.853E-12	686.319E-3	-1.55675E-3	101.219E-12	711.152E-3	-9.92884E-3
2.70385E-3	99.9779E-12	680.556E-3	-12.2336E-3	100.764E-12	696.623E-3	-20.7765E-3
2.69885E-3	99.1789E-12	676.592E-3	-10.4321E-3	100.430E-12	686.133E-3	-15.2544E-3
2.69385E-3	99.0611E-12	690.806E-3	-13.4378E-3	99.9163E-12	692.958E-3	-4.80638E-3
2.68884E-3	98.7084E-12	698.157E-3	-21.8961E-3	99.0490E-12	696.686E-3	-14.0625E-3
2.68384E-3	98.0089E-12	686.879E-3	-29.7343E-3	98.5900E-12	677.328E-3	-29.2230E-3
2.67884E-3	97.2591E-12	675.586E-3	-44.5481E-3	98.1350E-12	661.584E-3	-33.2802E-3
2.67384E-3	97.4507E-12	661.348E-3	-42.6646E-3	97.7937E-12	662.579E-3	-41.2895E-3
2.66883E-3	97.3113E-12	652.756E-3	-28.5305E-3	98.0152E-12	661.115E-3	-45.4868E-3
2.66383E-3	96.5761E-12	659.853E-3	-25.5855E-3	97.5622E-12	659.497E-3	-18.2897E-3
2.65883E-3	96.1369E-12	659.400E-3	-32.1590E-3	97.6323E-12	661.632E-3	5.91673E-3
2.65383E-3	96.2943E-12	641.728E-3	-30.3595E-3	97.6045E-12	671.909E-3	2.96367E-3
2.64882E-3	96.5280E-12	632.642E-3	-19.4049E-3	98.0625E-12	682.322E-3	-8.81941E-3
2.64382E-3	96.3926E-12	644.515E-3	-12.8162E-3	97.2259E-12	690.107E-3	-27.8754E-3
2.63882E-3	96.0567E-12	656.638E-3	-3.02558E-3	96.9668E-12	692.778E-3	-37.9031E-3
2.63382E-3	96.4255E-12	663.806E-3	9.34807E-3	96.6252E-12	682.302E-3	-28.7250E-3
2.62881E-3	97.1868E-12	679.560E-3	820.592E-6	96.4943E-12	660.521E-3	-24.5123E-3
2.62381E-3	96.7088E-12	691.908E-3	-13.8580E-3	95.7480E-12	635.925E-3	-35.0438E-3
2.61881E-3	96.4909E-12	693.310E-3	-11.3960E-3	94.9925E-12	640.344E-3	-35.3333E-3
2.61381E-3	95.9812E-12	684.564E-3	-7.06925E-3	94.4083E-12	660.697E-3	-18.0021E-3
2.60880E-3	96.2102E-12	671.073E-3	-10.6918E-3	94.1532E-12	665.201E-3	-14.0560E-3
2.60380E-3	95.5822E-12	669.095E-3	-21.1223E-3	93.7486E-12	666.216E-3	-27.0503E-3
2.59880E-3	95.1593E-12	685.378E-3	-27.6863E-3	93.2949E-12	668.262E-3	-29.7146E-3
2.59380E-3	95.1774E-12	698.804E-3	-22.2968E-3	93.4411E-12	673.634E-3	-26.3540E-3
2.58879E-3	94.8494E-12	691.580E-3	-19.3985E-3	93.4655E-12	683.984E-3	-29.3568E-3
2.58379E-3	94.2847E-12	683.957E-3	-27.5364E-3	93.5689E-12	691.519E-3	-31.5957E-3
2.57879E-3	93.8673E-12	683.534E-3	-41.7492E-3	93.8685E-12	690.651E-3	-32.1293E-3
2.57379E-3	94.4365E-12	686.142E-3	-45.4145E-3	94.2392E-12	689.304E-3	-23.3992E-3
2.56878E-3	93.5956E-12	690.668E-3	-26.6476E-3	93.7947E-12	684.584E-3	-3.45926E-3
2.56378E-3	93.5547E-12	696.165E-3	-4.51211E-3	94.0528E-12	681.267E-3	-5.17299E-3
2.55878E-3	93.5037E-12	704.935E-3	-2.28808E-3	94.7997E-12	697.893E-3	-20.4779E-3
2.55378E-3	93.6686E-12	707.329E-3	1.27033E-3	94.9335E-12	689.897E-3	-13.2607E-3
2.54877E-3	93.2266E-12	700.186E-3	16.7917E-3	94.4192E-12	649.226E-3	-79.6858E-6
2.54377E-3	92.7317E-12	690.060E-3	11.5484E-3	94.0398E-12	637.409E-3	6.92450E-3
2.53877E-3	92.9408E-12	685.583E-3	-14.4003E-3	93.6614E-12	663.245E-3	9.92705E-3
2.53377E-3	92.6683E-12	683.577E-3	-27.4876E-3	93.2053E-12	694.644E-3	4.85669E-3
2.52876E-3	92.7688E-12	675.817E-3	-27.8724E-3	92.1906E-12	708.406E-3	-10.3286E-3
2.52376E-3	92.5621E-12	671.313E-3	-24.4969E-3	91.2840E-12	707.876E-3	-14.1055E-3
2.51876E-3	92.4660E-12	683.824E-3	-9.99717E-3	90.9488E-12	695.978E-3	-7.62811E-3
2.51376E-3	91.8277E-12	705.942E-3	-2.43612E-3	91.0108E-12	685.921E-3	-9.78439E-3
2.50875E-3	91.6891E-12	724.919E-3	-11.1170E-3	90.0922E-12	684.455E-3	-11.2282E-3
2.50375E-3	91.2876E-12	724.919E-3	-20.1651E-3	89.8108E-12	679.899E-3	-26.3831E-3
2.49875E-3	90.5867E-12	717.095E-3	-20.6366E-3	89.5233E-12	685.125E-3	-50.9967E-3
2.49375E-3	90.3843E-12	712.894E-3	-13.2129E-3	90.1087E-12	706.837E-3	-40.8133E-3
2.48874E-3	90.0860E-12	714.334E-3	-10.6981E-3	90.3509E-12	717.426E-3	-7.95860E-3
2.48374E-3	89.7674E-12	721.473E-3	-21.7215E-3	90.2336E-12	711.789E-3	6.28998E-3
2.47874E-3	89.2647E-12	716.102E-3	-31.1629E-3	90.2911E-12	704.940E-3	-7.42262E-3
2.47374E-3	89.2811E-12	700.611E-3	-26.8841E-3	90.4394E-12	697.838E-3	-26.5639E-3
2.46873E-3	88.5955E-12	680.909E-3	-18.1850E-3	90.6196E-12	703.405E-3	-26.9667E-3
2.46373E-3	88.1963E-12	674.423E-3	-20.6116E-3	90.2225E-12	711.519E-3	-23.0913E-3
2.45873E-3	87.7522E-12	680.771E-3	-31.8736E-3	89.5899E-12	702.751E-3	-27.3463E-3
2.45373E-3	87.3420E-12	680.569E-3	-24.5728E-3	89.1612E-12	694.319E-3	-32.9841E-3
2.44872E-3	86.9858E-12	676.717E-3	1.96919E-3	88.9953E-12	689.739E-3	-28.3670E-3
2.44372E-3	86.9476E-12	679.615E-3	7.87183E-3	88.3076E-12	686.000E-3	-14.4376E-3
2.43872E-3	86.6201E-12	685.037E-3	-5.24623E-3	87.4306E-12	689.608E-3	-12.8314E-3
2.43372E-3	86.6051E-12	681.933E-3	-15.3037E-3	86.3937E-12	689.482E-3	-23.0800E-3
2.42871E-3	86.7022E-12	673.728E-3	-22.0208E-3	85.7546E-12	670.549E-3	-32.9167E-3
2.42371E-3	86.6397E-12	665.317E-3	-14.5906E-3	85.4247E-12	653.250E-3	-40.9451E-3
2.41871E-3	86.4792E-12	663.790E-3	1.26919E-3	85.1582E-12	662.783E-3	-35.4860E-3
2.41371E-3	86.5959E-12	675.349E-3	8.27890E-3	84.8585E-12	686.496E-3	-21.8684E-3
2.40870E-3	86.2447E-12	683.297E-3	3.56250E-3	84.9094E-12	707.562E-3	-8.65423E-3
2.40370E-3	86.3552E-12	691.244E-3	-4.19295E-3	85.0733E-12	714.205E-3	-4.65111E-3
2.39870E-3	86.2304E-12	705.953E-3	-12.1489E-3	85.7167E-12	700.172E-3	-19.7880E-3
2.39370E-3	86.4139E-12	705.946E-3	-15.7295E-3	85.8830E-12	692.971E-3	-38.2330E-3
2.38869E-3	85.8726E-12	695.357E-3	-17.7001E-3	85.8644E-12	701.330E-3	-32.8411E-3
2.38369E-3	85.2449E-12	702.710E-3	-29.2822E-3	85.6332E-12	714.644E-3	-8.95480E-3
2.37869E-3	84.9037E-12	720.687E-3	-35.9787E-3	86.1973E-12	724.139E-3	-11.0326E-3
2.37369E-3	84.7909E-12	721.831E-3	-28.4910E-3	86.1168E-12	715.415E-3	-26.7212E-3
2.36868E-3	84.1550E-12	723.847E-3	-25.0263E-3	85.2007E-12	704.904E-3	-16.9471E-3
2.36368E-3	83.2424E-12	735.190E-3	-28.6510E-3	84.9659E-12	707.879E-3	-8.52443E-3
2.35868E-3	82.5669E-12	718.412E-3	-23.3516E-3	84.7626E-12	706.277E-3	-16.7377E-3
2.35368E-3	82.4192E-12	691.699E-3	-23.7608E-3	84.5024E-12	690.014E-3	-18.3227E-3
2.34867E-3	82.2741E-12	685.305E-3	-32.8718E-3	83.7420E-12	687.514E-3	-20.8335E-3
2.34367E-3	82.2751E-12	678.281E-3	-26.6654E-3	82.9845E-12	701.958E-3	-33.8125E-3
2.33867E-3	81.9608E-12	682.211E-3	-16.4144E-3	82.7668E-12	714.285E-3	-35.1106E-3
2.33367E-3	81.7533E-12	693.611E-3	-3.76944E-3	82.4501E-12	711.522E-3	-23.3555E-3
2.32866E-3	81.6895E-12	688.847E-3	5.24876E-3	82.1747E-12	700.327E-3	-7.53719E-3
2.32366E-3	82.0920E-12	690.863E-3	-10.3320E-3	81.6638E-12	711.659E-3	4.26084E-3
2.31866E-3	82.2592E-12	703.295E-3	-26.5931E-3	81.6928E-12	732.437E-3	-2.13854E-3
2.31366E-3	82.4068E-12	714.108E-3	-31.4864E-3	81.4421E-12	728.545E-3	-7.57157E-3
2.30865E-3	82.0873E-12	717.326E-3	-38.5457E-3	81.5439E-12	705.176E-3	-7.60708E-3
2.30365E-3	82.3336E-12	712.992E-3	-26.5350E-3	81.5202E-12	698.346E-3	-13.2440E-3
2.29865E-3	82.0518E-12	719.844E-3	5.50691E-3	81.6730E-12	720.330E-3	-15.6177E-3
2.29365E-3	81.6057E-12	728.549E-3	14.9552E-3	81.4378E-12	737.181E-3	-19.1487E-3
2.28864E-3	81.2813E-12	720.679E-3	1.41050E-3	80.8628E-12	723.168E-3	-12.6127E-3
2.28364E-3	81.1185E-12	709.185E-3	-4.58994E-3	80.8767E-12	701.909E-3	-271.956E-6
2.27864E-3	80.8755E-12	706.810E-3	-8.96372E-3	80.2200E-12	698.723E-3	-5.60776E-3
2.27364E-3	80.2581E-12	714.588E-3	-14.9718E-3	79.7565E-12	707.374E-3	-16.9980E-3
2.26863E-3	79.7808E-12	724.206E-3	-6.87896E-3	79.4852E-12	715.093E-3	-23.9126E-3
2.26363E-3	79.6733E-12	714.662E-3	9.70057E-3	79.0581E-12	705.602E-3	-9.29697E-3
2.25863E-3	79.4846E-12	703.224E-3	15.6482E-3	78.2040E-12	683.398E-3	14.4448E-3
2.25363E-3	78.9730E-12	701.929E-3	6.10328E-3	77.8506E-12	690.730E-3	11.3937E-3
2.24862E-3	78.2825E-12	693.466E-3	-3.79430E-3	77.6779E-12	713.997E-3	-11.9599E-3
2.24362E-3	78.0106E-12	691.482E-3	-6.05371E-3	77.4235E-12	720.365E-3	-29.8410E-3
2.23862E-3	77.9717E-12	704.683E-3	-13.5332E-3	77.0726E-12	730.411E-3	-31.3033E-3
2.23362E-3	77.8528E-12	710.547E-3	-29.8174E-3	77.3531E-12	741.745E-3	-29.8966E-3
2.22861E-3	78.0637E-12	706.369E-3	-32.5448E-3	77.4111E-12	731.446E-3	-31.7115E-3
2.22361E-3	77.6324E-12	706.579E-3	-17.5113E-3	77.5559E-12	722.627E-3	-31.4079E-3
2.21861E-3	77.6777E-12	703.977E-3	-7.18719E-3	77.1468E-12	728.364E-3	-22.5802E-3
2.21361E-3	77.4814E-12	711.768E-3	-13.2699E-3	77.4210E-12	734.487E-3	-4.68508E-3
2.20860E-3	77.4238E-12	721.534E-3	-16.1316E-3	77.2870E-12	736.995E-3	3.44670E-3
2.20360E-3	76.9672E-12	717.328E-3	-1.71646E-3	77.1392E-12	740.021E-3	-6.67364E-3
2.19860E-3	76.5848E-12	719.203E-3	11.0185E-3	76.9283E-12	744.196E-3	-23.1981E-3
2.19360E-3	76.6982E-12	733.704E-3	8.17268E-3	76.6902E-12	740.779E-3	-32.9136E-3
2.18859E-3	76.5787E-12	743.483E-3	-1.25171E-3	76.2707E-12	739.093E-3	-31.6151E-3
2.18359E-3	75.9929E-12	742.211E-3	-11.9169E-3	75.9303E-12	734.333E-3	-20.3420E-3
2.17859E-3	75.4010E-12	747.912E-3	-28.4252E-3	75.3082E-12	730.675E-3	-9.02455E-3
2.17359E-3	75.2916E-12	747.177E-3	-37.8241E-3	74.8500E-12	737.148E-3	-6.40530E-3
2.16858E-3	75.1538E-12	733.387E-3	-30.7842E-3	74.3967E-12	737.756E-3	-6.57783E-3
2.16358E-3	74.9305E-12	727.295E-3	-21.9164E-3	74.3430E-12	740.781E-3	4.58721E-3
2.15858E-3	74.4846E-12	727.425E-3	-11.2963E-3	74.2689E-12	747.238E-3	17.3202E-3
2.15358E-3	73.9275E-12	721.729E-3	-11.7257E-3	74.2452E-12	743.248E-3	8.69108E-3
2.14857E-3	73.6871E-12	720.953E-3	-22.1571E-3	73.9683E-12	738.824E-3	-4.67055E-3
2.14357E-3	73.5983E-12	724.148E-3	-20.7765E-3	74.3459E-12	739.350E-3	-14.5802E-3
2.13857E-3	73.0289E-12	726.104E-3	-22.5222E-3	74.4774E-12	736.464E-3	-19.8435E-3
2.13357E-3	72.5859E-12	732.803E-3	-32.2335E-3	74.2611E-12	738.294E-3	-10.9438E-3
2.12856E-3	72.4002E-12	731.644E-3	-31.9134E-3	73.9391E-12	756.547E-3	-8.70476E-3
2.12356E-3	72.4536E-12	728.941E-3	-24.3125E-3	74.3299E-12	765.279E-3	-16.6318E-3
2.11856E-3	72.4065E-12	733.855E-3	-23.5246E-3	74.1493E-12	761.585E-3	-11.3446E-3
2.11356E-3	71.8976E-12	741.310E-3	-26.7008E-3	73.6096E-12	764.170E-3	2.55828E-3
2.10855E-3	71.6672E-12	750.277E-3	-22.4616E-3	72.8496E-12	764.259E-3	-5.04915E-3
2.10355E-3	71.6480E-12	756.090E-3	-13.4621E-3	72.5999E-12	759.542E-3	-22.1208E-3
2.09855E-3	71.6114E-12	749.550E-3	-5.07560E-3	72.1597E-12	753.719E-3	-23.3242E-3
2.09355E-3	71.4686E-12	735.375E-3	-4.37388E-3	71.5818E-12	757.599E-3	-23.8468E-3
2.08854E-3	71.1473E-12	734.951E-3	-14.6264E-3	70.8702E-12	768.344E-3	-15.0651E-3
2.08354E-3	70.9348E-12	750.010E-3	-15.6349E-3	70.3280E-12	774.428E-3	-5.64145E-3
2.07854E-3	71.1070E-12	759.610E-3	-6.00467E-3	70.1397E-12	767.664E-3	-18.3975E-3
2.07354E-3	70.8392E-12	766.400E-3	-2.96321E-3	69.5827E-12	750.261E-3	-23.9532E-3
2.06853E-3	70.6876E-12	768.071E-3	-12.0001E-3	69.4371E-12	736.056E-3	-16.4339E-3
2.06353E-3	69.9528E-12	752.358E-3	-28.6002E-3	69.1288E-12	736.372E-3	-9.74464E-3
2.05853E-3	69.7733E-12	744.914E-3	-36.9989E-3	69.2075E-12	751.755E-3	1.51737E-3
2.05353E-3	69.4232E-12	750.018E-3	-30.4246E-3	68.8488E-12	766.434E-3	2.55306E-3
2.04852E-3	68.7971E-12	749.465E-3	-21.3276E-3	69.4663E-12	772.447E-3	-14.3259E-3
2.04352E-3	68.2826E-12	755.963E-3	-12.7940E-3	69.4154E-12	773.849E-3	-24.6372E-3
2.03852E-3	68.1372E-12	763.207E-3	-13.6544E-3	69.0803E-12	776.350E-3	-18.8779E-3
2.03352E-3	68.0639E-12	753.488E-3	-27.6245E-3	68.7144E-12	775.895E-3	-4.27076E-3
2.02851E-3	67.7474E-12	743.401E-3	-33.9036E-3	68.4158E-12	773.470E-3	10.8975E-3
2.02351E-3	67.4739E-12	742.744E-3	-35.5178E-3	68.2955E-12	775.390E-3	12.6332E-3
2.01851E-3	67.0024E-12	733.146E-3	-35.2456E-3	67.1181E-12	775.772E-3	-1.21368E-3
2.01351E-3	67.0703E-12	719.437E-3	-29.2487E-3	66.7499E-12	773.208E-3	-7.95767E-3
2.00850E-3	67.1615E-12	728.264E-3	-26.5512E-3	66.3021E-12	769.234E-3	705.008E-6
2.00350E-3	66.8451E-12	746.328E-3	-27.6559E-3	65.9514E-12	766.704E-3	3.88157E-3
1.99850E-3	66.6300E-12	757.647E-3	-30.2554E-3	65.1279E-12	772.530E-3	-3.28724E-3
1.99350E-3	66.5409E-12	777.814E-3	-34.2188E-3	64.6625E-12	780.691E-3	-16.6819E-3
1.98849E-3	66.6788E-12	804.976E-3	-31.3470E-3	64.2697E-12	786.527E-3	-33.6539E-3
1.98349E-3	66.2416E-12	815.942E-3	-26.5543E-3	63.8752E-12	787.861E-3	-34.8775E-3
1.97849E-3	66.0044E-12	799.311E-3	-18.4906E-3	63.8672E-12	784.592E-3	-15.5719E-3
1.97349E-3	65.9548E-12	783.192E-3	-8.45921E-3	63.8473E-12	786.326E-3	-9.87774E-3
1.96848E-3	65.8141E-12	780.455E-3	-17.6618E-3	64.1740E-12	786.074E-3	-26.4805E-3
1.96348E-3	65.5536E-12	771.876E-3	-34.6272E-3	64.0360E-12	778.335E-3	-37.2672E-3
1.95848E-3	65.0345E-12	774.585E-3	-31.0749E-3	64.2426E-12	773.616E-3	-31.2559E-3
1.95348E-3	64.4645E-12	790.676E-3	-19.5559E-3	64.3031E-12	777.860E-3	-19.6278E-3
1.94847E-3	64.0011E-12	796.038E-3	-21.7264E-3	63.9807E-12	794.066E-3	-14.1890E-3
1.94347E-3	63.5941E-12	793.472E-3	-31.6075E-3	63.6715E-12	807.852E-3	-23.0453E-3
1.93847E-3	63.2886E-12	786.745E-3	-30.3079E-3	63.3397E-12	808.553E-3	-38.8952E-3
1.93347E-3	62.5589E-12	788.980E-3	-25.8543E-3	63.1455E-12	805.018E-3	-34.4405E-3
1.92846E-3	62.3042E-12	811.034E-3	-29.6008E-3	62.6368E-12	802.048E-3	-18.8067E-3
1.92346E-3	61.8494E-12	822.205E-3	-17.0560E-3	62.2939E-12	801.214E-3	-12.8925E-3
1.91846E-3	61.8638E-12	804.521E-3	-4.08112E-3	61.8250E-12	795.089E-3	-13.8462E-3
1.91346E-3	61.5880E-12	793.631E-3	-7.30691E-3	61.6825E-12	783.503E-3	-20.8729E-3
1.90845E-3	61.3931E-12	795.451E-3	-7.81562E-3	61.1544E-12	782.484E-3	-25.4080E-3
1.90345E-3	61.3080E-12	792.564E-3	-17.2291E-3	60.9624E-12	785.913E-3	-17.5638E-3
1.89845E-3	61.0797E-12	805.521E-3	-40.5044E-3	60.7421E-12	784.040E-3	-13.0191E-3
1.89345E-3	61.1769E-12	811.643E-3	-40.3144E-3	60.6678E-12	784.800E-3	-18.0227E-3
1.88844E-3	60.6020E-12	805.982E-3	-9.47521E-3	60.2654E-12	797.622E-3	-15.0316E-3
1.88344E-3	60.5866E-12	814.851E-3	8.64574E-3	60.5265E-12	821.883E-3	-13.2477E-3
1.87844E-3	60.2990E-12	817.908E-3	-1.83574E-3	60.5414E-12	842.722E-3	-20.5641E-3
1.87344E-3	59.9615E-12	814.731E-3	-25.6936E-3	60.6314E-12	844.140E-3	-22.5042E-3
1.86843E-3	59.5612E-12	816.472E-3	-36.8217E-3	60.3486E-12	838.540E-3	-22.8424E-3
1.86343E-3	59.3381E-12	814.372E-3	-22.5878E-3	60.2418E-12	844.171E-3	-24.6081E-3
1.85843E-3	58.9730E-12	801.258E-3	-10.0136E-3	59.8930E-12	838.913E-3	-25.3480E-3
1.85343E-3	58.2627E-12	796.336E-3	-13.2482E-3	59.3180E-12	827.779E-3	-25.9356E-3
1.84842E-3	57.8571E-12	810.584E-3	-22.6878E-3	58.8184E-12	843.601E-3	-10.5593E-3
1.84342E-3	57.4368E-12	822.798E-3	-26.1043E-3	58.3407E-12	861.905E-3	-2.76889E-3
1.83842E-3	57.2888E-12	819.696E-3	-29.9170E-3	57.8776E-12	854.636E-3	-17.3138E-3
1.83342E-3	56.7911E-12	808.172E-3	-29.2601E-3	57.4353E-12	838.264E-3	-23.2188E-3
1.82841E-3	56.6579E-12	808.083E-3	-17.6007E-3	57.3023E-12	833.735E-3	-24.3726E-3
1.82341E-3	56.3587E-12	811.090E-3	-13.2580E-3	56.4622E-12	837.742E-3	-23.1998E-3
1.81841E-3	55.8912E-12	802.883E-3	-6.27160E-3	55.9672E-12	845.418E-3	-24.6903E-3
1.81341E-3	55.9036E-12	804.127E-3	-300.877E-6	55.7592E-12	858.911E-3	-36.2910E-3
1.80840E-3	55.5568E-12	815.873E-3	-8.28448E-3	55.5445E-12	869.278E-3	-35.7460E-3
1.80340E-3	55.5649E-12	830.450E-3	-11.5097E-3	55.2178E-12	879.309E-3	-31.0258E-3
1.79840E-3	55.3464E-12	854.488E-3	-9.07068E-3	54.9328E-12	884.145E-3	-36.8800E-3
1.79340E-3	55.4470E-12	862.185E-3	-8.31865E-3	55.1198E-12	882.979E-3	-36.5503E-3
1.78839E-3	55.1360E-12	849.386E-3	-4.28993E-3	55.0941E-12	889.907E-3	-18.5528E-3
1.78339E-3	55.0682E-12	853.065E-3	-3.31872E-3	55.0787E-12	891.391E-3	892.517E-6
1.77839E-3	54.5310E-12	879.197E-3	-2.37459E-3	54.7624E-12	888.912E-3	-1.60839E-3
1.77339E-3	54.5473E-12	905.595E-3	10.3490E-3	54.9198E-12	887.193E-3	-17.7732E-3
1.76838E-3	54.3898E-12	898.406E-3	20.0350E-3	54.4290E-12	878.372E-3	-21.4826E-3
1.76338E-3	53.7327E-12	875.997E-3	15.0685E-3	54.0036E-12	877.435E-3	-13.4248E-3
1.75838E-3	53.3992E-12	889.709E-3	6.41990E-3	53.6115E-12	886.217E-3	-10.3218E-3
1.75338E-3	52.9285E-12	901.520E-3	819.729E-6	53.1797E-12	895.482E-3	-24.3346E-3
1.74837E-3	52.4084E-12	881.697E-3	-5.61875E-3	52.6931E-12	899.324E-3	-39.6193E-3
1.74337E-3	51.9060E-12	872.697E-3	-16.1582E-3	51.9509E-12	908.746E-3	-32.2926E-3
1.73837E-3	51.8262E-12	880.139E-3	-14.0219E-3	51.7265E-12	927.104E-3	-17.0647E-3
1.73337E-3	51.2814E-12	889.196E-3	-4.15647E-3	51.3855E-12	922.428E-3	-17.2098E-3
1.72836E-3	50.8601E-12	898.914E-3	-11.3952E-3	50.9273E-12	906.920E-3	-26.5207E-3
1.72336E-3	50.6241E-12	907.101E-3	-15.4461E-3	50.6088E-12	913.106E-3	-26.8196E-3
1.71836E-3	50.3293E-12	899.899E-3	-13.1524E-3	50.3044E-12	930.024E-3	-23.4550E-3
1.71336E-3	50.3599E-12	889.329E-3	-20.0144E-3	50.0884E-12	940.886E-3	-24.3539E-3
1.70835E-3	49.8488E-12	900.905E-3	-24.7539E-3	49.9832E-12	938.479E-3	-28.4070E-3
1.70335E-3	49.8678E-12	920.397E-3	-23.9378E-3	49.8759E-12	924.850E-3	-28.3173E-3
1.69835E-3	49.5323E-12	936.550E-3	-19.5606E-3	49.8209E-12	917.870E-3	-18.4996E-3
1.69335E-3	49.5679E-12	947.463E-3	-14.6674E-3	49.5758E-12	926.969E-3	-14.0262E-3
1.68834E-3	49.3045E-12	943.683E-3	-14.3621E-3	49.2633E-12	942.424E-3	-13.0797E-3
1.68334E-3	48.8954E-12	931.627E-3	-17.6354E-3	49.0985E-12	951.818E-3	-2.18581E-3
1.67834E-3	48.7870E-12	936.948E-3	-21.8415E-3	48.6142E-12	951.348E-3	7.87055E-3
1.67334E-3	48.4900E-12	957.602E-3	-18.8184E-3	47.8261E-12	950.693E-3	7.80634E-3
1.66833E-3	48.0244E-12	967.479E-3	-12.1341E-3	47.3664E-12	955.599E-3	2.43083E-3
1.66333E-3	47.7053E-12	959.102E-3	-15.6097E-3	47.0730E-12	960.738E-3	-14.3018E-3
1.65833E-3	47.4695E-12	950.995E-3	-17.9875E-3	46.6793E-12	961.363E-3	-33.0705E-3
1.65333E-3	46.7209E-12	959.017E-3	-12.6939E-3	46.1352E-12	957.841E-3	-28.2607E-3
1.64832E-3	46.4425E-12	974.526E-3	-10.3890E-3	45.8383E-12	958.464E-3	-16.0139E-3
1.64332E-3	46.2793E-12	980.630E-3	-17.9356E-3	45.4212E-12	961.679E-3	-24.0941E-3
1.63832E-3	45.8313E-12	971.559E-3	-34.3384E-3	45.4005E-12	969.196E-3	-34.4972E-3
1.63332E-3	45.3667E-12	961.339E-3	-39.2516E-3	45.0311E-12	987.085E-3	-26.3767E-3
1.62831E-3	44.9434E-12	960.057E-3	-21.1361E-3	44.9617E-12	1.00432E+0	-11.1224E-3
1.62331E-3	44.6602E-12	972.314E-3	-7.62236E-3	44.6722E-12	1.00435E+0	-6.61952E-3
1.61831E-3	44.1739E-12	985.598E-3	-10.9804E-3	44.4820E-12	993.799E-3	-12.6153E-3
1.61331E-3	43.8576E-12	979.324E-3	-17.7338E-3	44.0989E-12	992.492E-3	-15.6454E-3
1.60830E-3	43.3316E-12	963.731E-3	-26.2639E-3	43.9484E-12	1.00598E+0	-12.5408E-3
1.60330E-3	43.1572E-12	970.392E-3	-23.2294E-3	43.4892E-12	1.02868E+0	-19.8180E-3
1.59830E-3	42.7686E-12	990.643E-3	-9.77288E-3	43.2021E-12	1.05100E+0	-29.6866E-3
1.59330E-3	42.4558E-12	999.112E-3	-13.7961E-3	42.7189E-12	1.05904E+0	-25.0048E-3
1.58829E-3	42.1666E-12	1.00270E+0	-29.8464E-3	42.2222E-12	1.04240E+0	-28.9982E-3
1.58329E-3	41.9492E-12	1.00734E+0	-32.9924E-3	41.6426E-12	1.02102E+0	-47.0571E-3
1.57829E-3	41.6799E-12	1.01604E+0	-30.8004E-3	41.2698E-12	1.01925E+0	-48.5510E-3
1.57329E-3	41.4776E-12	1.02542E+0	-25.1726E-3	40.7786E-12	1.03026E+0	-31.8928E-3
1.56828E-3	41.1216E-12	1.03534E+0	-6.15509E-3	40.2360E-12	1.04114E+0	-15.7095E-3
1.56328E-3	40.8076E-12	1.04138E+0	-5.34301E-3	39.8659E-12	1.04217E+0	-5.31245E-3
1.55828E-3	40.5485E-12	1.04228E+0	-28.3216E-3	39.6562E-12	1.03268E+0	-1.52345E-3
1.55328E-3	40.2318E-12	1.04643E+0	-36.2258E-3	39.4441E-12	1.03850E+0	-6.45207E-3
1.54827E-3	39.7804E-12	1.04577E+0	-34.2361E-3	39.1556E-12	1.06337E+0	-14.1338E-3
1.54327E-3	39.4112E-12	1.04459E+0	-27.3892E-3	38.9809E-12	1.08193E+0	-16.5311E-3
1.53827E-3	38.8670E-12	1.05270E+0	-13.4848E-3	39.0166E-12	1.08918E+0	-21.4357E-3
1.53327E-3	38.6504E-12	1.06145E+0	-2.17711E-3	38.8551E-12	1.09355E+0	-28.3891E-3
1.52826E-3	38.2970E-12	1.06999E+0	15.0670E-3	38.6648E-12	1.10120E+0	-22.9718E-3
1.52326E-3	37.5626E-12	1.07429E+0	21.6667E-3	38.3365E-12	1.11437E+0	-14.4642E-3
1.51826E-3	37.0808E-12	1.06845E+0	5.05893E-3	38.0623E-12	1.12666E+0	-16.6114E-3
1.51326E-3	36.5983E-12	1.05729E+0	-11.9945E-3	37.8544E-12	1.12566E+0	-12.0488E-3
1.50825E-3	36.1721E-12	1.05765E+0	-18.2654E-3	37.5634E-12	1.11073E+0	6.68836E-3
1.50325E-3	35.9387E-12	1.06623E+0	-10.9841E-3	37.0923E-12	1.09629E+0	8.71286E-3
1.49825E-3	35.4025E-12	1.05861E+0	1.10985E-3	36.5401E-12	1.08706E+0	-8.46216E-3
1.49325E-3	34.9208E-12	1.05249E+0	-2.27770E-3	35.9120E-12	1.08659E+0	-14.2175E-3
1.48824E-3	34.7739E-12	1.06246E+0	-11.7737E-3	35.2767E-12	1.09473E+0	-17.7582E-3
1.48324E-3	34.5736E-12	1.07352E+0	-7.73935E-3	34.8711E-12	1.09253E+0	-26.5560E-3
1.47824E-3	34.2163E-12	1.07897E+0	1.02546E-3	34.5517E-12	1.08066E+0	-22.5346E-3
1.47324E-3	33.9034E-12	1.07713E+0	4.65520E-3	33.9287E-12	1.07506E+0	-14.1544E-3
1.46823E-3	33.7511E-12	1.07327E+0	-2.70641E-3	33.4124E-12	1.07806E+0	-18.8676E-3
1.46323E-3	33.6463E-12	1.07824E+0	-20.6747E-3	33.2428E-12	1.08204E+0	-18.3029E-3
1.45823E-3	33.3049E-12	1.08001E+0	-25.8004E-3	32.9731E-12	1.08242E+0	-7.10086E-3
1.45323E-3	32.7628E-12	1.07840E+0	-11.0343E-3	32.5771E-12	1.08485E+0	-8.71025E-3
1.44822E-3	32.5636E-12	1.08299E+0	544.251E-6	32.3392E-12	1.08621E+0	-10.9883E-3
1.44322E-3	32.1450E-12	1.08544E+0	-156.163E-6	32.0950E-12	1.08143E+0	-8.27055E-3
1.43822E-3	31.8497E-12	1.09451E+0	-8.91506E-3	32.0288E-12	1.07726E+0	-4.78719E-3
1.43322E-3	31.3589E-12	1.11395E+0	-13.9839E-3	31.6186E-12	1.07430E+0	-1.17123E-3
1.42821E-3	30.9345E-12	1.11447E+0	-13.2334E-3	31.1629E-12	1.07966E+0	-12.0278E-3
1.42321E-3	30.5572E-12	1.09712E+0	-23.4067E-3	31.0705E-12	1.08826E+0	-23.7798E-3
1.41821E-3	30.0694E-12	1.08918E+0	-35.1036E-3	30.5796E-12	1.08171E+0	-22.3676E-3
1.41321E-3	29.6281E-12	1.08025E+0	-26.5187E-3	29.7985E-12	1.06537E+0	-19.5836E-3
1.40820E-3	29.2855E-12	1.06921E+0	-10.1308E-3	29.3930E-12	1.05220E+0	-18.7360E-3
1.40320E-3	29.0318E-12	1.06101E+0	-3.70659E-3	29.1477E-12	1.03774E+0	-21.2255E-3
1.39820E-3	28.5977E-12	1.05382E+0	4.72681E-3	28.3430E-12	1.01756E+0	-29.9928E-3
1.39320E-3	28.2748E-12	1.05378E+0	7.42858E-3	27.8816E-12	1.00489E+0	-33.9478E-3
1.38819E-3	28.1647E-12	1.05811E+0	-6.80399E-3	27.6933E-12	1.00694E+0	-28.1682E-3
1.38319E-3	27.8580E-12	1.06455E+0	-15.1920E-3	27.2854E-12	1.00964E+0	-21.5656E-3
1.37819E-3	27.5382E-12	1.05743E+0	-9.74253E-3	26.9014E-12	995.634E-3	-8.83752E-3
1.37319E-3	27.3311E-12	1.03708E+0	-11.6707E-3	26.4423E-12	984.262E-3	573.181E-6
1.36818E-3	27.1840E-12	1.03849E+0	-15.1092E-3	26.3572E-12	992.802E-3	-11.4347E-3
1.36318E-3	26.9802E-12	1.05195E+0	-3.68841E-3	26.0909E-12	995.607E-3	-19.6340E-3
1.35818E-3	26.4421E-12	1.04490E+0	6.29225E-3	25.8678E-12	982.969E-3	-18.4048E-3
1.35318E-3	26.0905E-12	1.03046E+0	5.70253E-3	25.6268E-12	973.319E-3	-24.4467E-3
1.34817E-3	25.9382E-12	1.02042E+0	-1.28798E-3	25.4049E-12	963.698E-3	-27.0384E-3
1.34317E-3	25.4842E-12	1.01229E+0	-17.2824E-3	25.1913E-12	952.792E-3	-28.6925E-3
1.33817E-3	25.0340E-12	1.00526E+0	-27.9463E-3	24.9001E-12	944.554E-3	-26.6138E-3
1.33317E-3	24.6409E-12	995.038E-3	-24.9404E-3	24.6254E-12	932.519E-3	-21.8638E-3
1.32816E-3	24.3121E-12	984.606E-3	-22.5228E-3	24.1849E-12	919.342E-3	-22.5953E-3
1.32316E-3	23.7975E-12	975.982E-3	-20.1603E-3	23.9161E-12	911.104E-3	-15.3838E-3
1.31816E-3	23.4153E-12	960.488E-3	-16.1892E-3	23.6639E-12	905.799E-3	-10.9819E-3
1.31316E-3	23.0928E-12	942.835E-3	-8.00030E-3	23.2103E-12	898.838E-3	-21.8096E-3
1.30815E-3	22.7649E-12	933.759E-3	-2.17042E-3	22.8515E-12	888.159E-3	-30.0445E-3
1.30315E-3	22.5312E-12	923.075E-3	-2.65130E-3	22.4702E-12	874.671E-3	-22.2299E-3
1.29815E-3	22.4536E-12	904.644E-3	-4.12563E-3	22.2351E-12	865.042E-3	-9.27280E-3
1.29315E-3	22.0638E-12	888.449E-3	-16.8464E-3	21.9659E-12	854.835E-3	-4.92300E-3
1.28814E-3	21.7513E-12	871.651E-3	-25.5756E-3	21.7404E-12	835.224E-3	-6.07185E-3
1.28314E-3	21.5957E-12	847.114E-3	-16.3843E-3	21.3854E-12	813.192E-3	-12.7417E-3
1.27814E-3	21.3057E-12	829.938E-3	-4.70885E-3	21.2387E-12	795.986E-3	-19.1683E-3
1.27314E-3	21.1941E-12	830.077E-3	-1.14118E-3	20.9920E-12	779.573E-3	-18.0301E-3
1.26813E-3	20.8201E-12	826.947E-3	-8.53337E-3	20.8678E-12	763.814E-3	-16.4112E-3
1.26313E-3	20.4098E-12	805.405E-3	-14.5942E-3	20.5274E-12	750.471E-3	-17.4249E-3
1.25813E-3	20.4052E-12	786.266E-3	-10.2069E-3	20.3532E-12	739.828E-3	-16.3786E-3
1.25313E-3	20.1936E-12	781.904E-3	-11.7223E-3	20.0743E-12	727.721E-3	-10.2109E-3
1.24812E-3	19.7637E-12	771.343E-3	-25.0933E-3	19.6773E-12	714.919E-3	-4.30516E-3
1.24312E-3	19.4843E-12	755.423E-3	-30.9657E-3	19.6761E-12	694.806E-3	-2.60048E-3
1.23812E-3	19.2220E-12	743.492E-3	-24.6166E-3	19.2269E-12	662.685E-3	-9.35712E-3
1.23312E-3	19.0811E-12	726.826E-3	-19.7617E-3	18.8436E-12	643.350E-3	-23.1052E-3
1.22811E-3	18.8450E-12	706.400E-3	-6.79865E-3	18.6643E-12	636.967E-3	-30.3868E-3
1.22311E-3	18.4596E-12	683.257E-3	11.1885E-3	18.5341E-12	627.186E-3	-30.3159E-3
1.21811E-3	18.1860E-12	663.843E-3	5.62684E-3	18.1766E-12	615.089E-3	-29.8509E-3
1.21311E-3	18.1755E-12	657.658E-3	-11.6877E-3	17.8843E-12	603.926E-3	-29.9929E-3
1.20810E-3	17.7950E-12	649.578E-3	-7.10676E-3	17.9808E-12	584.416E-3	-25.6966E-3
1.20310E-3	17.5278E-12	637.225E-3	-9.53653E-3	17.5863E-12	561.901E-3	-18.6849E-3
1.19810E-3	17.3734E-12	624.924E-3	-25.9766E-3	17.5533E-12	554.023E-3	-11.0876E-3
1.19310E-3	17.1211E-12	600.311E-3	-18.2076E-3	17.4703E-12	544.051E-3	-10.3570E-3
1.18809E-3	16.9172E-12	573.073E-3	-6.87817E-3	17.2937E-12	533.061E-3	-14.2222E-3
1.18309E-3	16.7634E-12	557.053E-3	-11.3194E-3	17.1012E-12	525.569E-3	-17.7063E-3
1.17809E-3	16.6277E-12	550.099E-3	-17.3673E-3	17.0095E-12	505.740E-3	-29.5490E-3
1.17309E-3	16.3527E-12	544.766E-3	-19.7588E-3	16.9281E-12	491.937E-3	-33.8473E-3
1.16808E-3	16.3884E-12	544.242E-3	-19.2411E-3	16.6086E-12	484.303E-3	-30.0193E-3
1.16308E-3	16.0960E-12	538.285E-3	-17.1303E-3	16.5209E-12	463.160E-3	-37.6765E-3
1.15808E-3	15.9056E-12	509.321E-3	-18.9230E-3	16.2626E-12	442.537E-3	-38.2053E-3
1.15308E-3	15.7593E-12	480.004E-3	-16.0424E-3	15.9276E-12	427.107E-3	-26.8725E-3
1.14807E-3	15.7546E-12	457.742E-3	-611.380E-6	15.6780E-12	412.022E-3	-25.6990E-3
1.14307E-3	15.5420E-12	447.824E-3	7.48377E-3	15.6747E-12	393.939E-3	-27.3402E-3
1.13807E-3	15.4775E-12	446.104E-3	-10.9226E-3	15.2745E-12	373.564E-3	-24.6536E-3
1.13307E-3	15.3015E-12	433.009E-3	-29.3472E-3	15.1725E-12	365.775E-3	-19.5267E-3
1.12806E-3	15.1740E-12	410.895E-3	-22.8832E-3	15.0596E-12	366.188E-3	-16.1154E-3
1.12306E-3	15.1020E-12	395.783E-3	-15.2446E-3	14.9282E-12	357.993E-3	-21.4126E-3
1.11806E-3	14.9234E-12	403.071E-3	-16.7820E-3	14.7905E-12	348.586E-3	-21.4093E-3
1.11306E-3	14.9973E-12	404.246E-3	-19.9137E-3	14.8597E-12	335.498E-3	-12.2544E-3
1.10805E-3	14.7408E-12	382.397E-3	-19.7330E-3	14.7324E-12	312.872E-3	-11.1876E-3
1.10305E-3	14.5585E-12	362.926E-3	-17.4008E-3	14.4524E-12	302.211E-3	-18.3542E-3
1.09805E-3	14.4417E-12	350.197E-3	-22.1828E-3	14.4403E-12	290.550E-3	-25.3528E-3
1.09305E-3	14.3612E-12	335.133E-3	-31.3656E-3	14.4518E-12	271.224E-3	-29.6940E-3
1.08804E-3	14.0404E-12	322.193E-3	-35.5563E-3	14.2816E-12	269.400E-3	-29.4316E-3
1.08304E-3	13.8969E-12	312.208E-3	-28.2448E-3	14.2804E-12	274.675E-3	-33.0581E-3
1.07804E-3	14.0272E-12	306.773E-3	-20.1810E-3	14.2000E-12	272.400E-3	-43.3908E-3
1.07304E-3	13.8649E-12	305.897E-3	-26.5845E-3	13.8790E-12	269.211E-3	-43.3206E-3
1.06803E-3	13.7384E-12	299.124E-3	-25.6035E-3	13.7936E-12	261.814E-3	-28.9683E-3
1.06303E-3	13.7059E-12	279.328E-3	-12.3930E-3	13.8385E-12	250.701E-3	-15.4811E-3
1.05803E-3	13.6866E-12	259.409E-3	-11.2688E-3	13.6239E-12	235.228E-3	-13.1291E-3
1.05303E-3	13.6765E-12	256.140E-3	-20.5567E-3	13.3708E-12	213.398E-3	-16.8314E-3
1.04802E-3	13.5781E-12	251.627E-3	-28.0848E-3	13.3770E-12	199.884E-3	-19.7116E-3
1.04302E-3	13.6200E-12	240.417E-3	-23.9213E-3	13.3559E-12	190.184E-3	-25.2751E-3
1.03802E-3	13.5781E-12	236.315E-3	-16.5915E-3	13.2233E-12	176.244E-3	-27.1073E-3
1.03302E-3	13.4960E-12	230.997E-3	-20.7021E-3	13.0579E-12	172.491E-3	-18.5079E-3
1.02801E-3	13.3712E-12	217.993E-3	-26.6465E-3	12.9387E-12	173.485E-3	-12.9768E-3
1.02301E-3	13.1987E-12	199.617E-3	-24.2067E-3	12.9053E-12	166.515E-3	-14.3218E-3
1.01801E-3	13.1015E-12	185.988E-3	-18.4074E-3	12.8968E-12	156.596E-3	-10.9383E-3
1.01301E-3	12.9793E-12	175.092E-3	-21.1497E-3	12.7850E-12	146.372E-3	-10.9024E-3
1.00800E-3	12.9727E-12	157.500E-3	-27.4858E-3	12.7725E-12	139.055E-3	-8.87864E-3
1.00300E-3	12.9999E-12	151.029E-3	-25.7667E-3	12.8704E-12	136.424E-3	-7.92319E-3
997.999E-6	12.7673E-12	154.507E-3	-20.4554E-3	12.8503E-12	129.980E-3	-21.1549E-3
992.997E-6	12.6256E-12	139.661E-3	-13.0848E-3	12.7255E-12	118.222E-3	-39.8010E-3
987.994E-6	12.7044E-12	111.466E-3	1.03802E-3	12.6750E-12	113.106E-3	-48.4791E-3
982.991E-6	12.6913E-12	98.8916E-3	7.57649E-3	12.6168E-12	116.070E-3	-37.1437E-3
977.989E-6	12.5019E-12	107.503E-3	-2.10651E-3	12.4810E-12	115.949E-3	-24.4718E-3
972.986E-6	12.4794E-12	113.953E-3	-10.0477E-3	12.5066E-12	116.260E-3	-21.1129E-3
967.984E-6	12.3408E-12	111.430E-3	-9.82369E-3	12.4380E-12	116.222E-3	-21.2883E-3
962.981E-6	12.4909E-12	119.959E-3	-14.9894E-3	12.3136E-12	109.655E-3	-25.3168E-3
957.979E-6	12.3850E-12	129.398E-3	-16.6464E-3	12.1548E-12	108.110E-3	-25.7846E-3
952.976E-6	12.2997E-12	122.255E-3	-11.0777E-3	12.2022E-12	103.527E-3	-22.0784E-3
947.974E-6	12.3423E-12	113.156E-3	-13.5502E-3	12.2046E-12	92.7291E-3	-17.0420E-3
942.971E-6	12.4417E-12	109.144E-3	-18.7084E-3	12.1650E-12	91.5185E-3	-4.85556E-3
937.969E-6	12.3205E-12	113.690E-3	-21.8912E-3	12.0546E-12	96.1069E-3	2.27489E-3
932.966E-6	12.3322E-12	120.747E-3	-27.7795E-3	12.1727E-12	97.4209E-3	3.98482E-3
927.964E-6	12.3724E-12	114.067E-3	-31.3850E-3	12.2416E-12	94.0968E-3	3.55619E-3
922.961E-6	12.1457E-12	103.919E-3	-33.0300E-3	11.9967E-12	89.5320E-3	-723.571E-9
917.959E-6	12.3151E-12	101.567E-3	-29.0742E-3	12.0973E-12	84.1622E-3	-1.78469E-3
912.956E-6	12.0888E-12	92.2051E-3	-17.9761E-3	12.1838E-12	80.9052E-3	-9.81754E-3
907.954E-6	12.1585E-12	78.2257E-3	-13.7435E-3	12.1087E-12	78.3746E-3	-17.6219E-3
902.951E-6	12.2486E-12	85.1142E-3	-14.9206E-3	12.0940E-12	75.7712E-3	-23.8547E-3
897.949E-6	11.8820E-12	95.7464E-3	-13.5092E-3	12.1285E-12	85.5524E-3	-29.3204E-3
892.946E-6	11.8859E-12	94.5594E-3	-14.2383E-3	12.1293E-12	90.0295E-3	-26.5637E-3
887.944E-6	12.0342E-12	97.7339E-3	-19.7068E-3	11.9534E-12	71.0731E-3	-28.8721E-3
882.941E-6	11.9721E-12	97.7511E-3	-21.4861E-3	12.0001E-12	58.0446E-3	-33.2230E-3
877.939E-6	11.7632E-12	97.3690E-3	-16.9282E-3	11.7469E-12	60.9816E-3	-25.7525E-3
872.936E-6	11.8197E-12	101.179E-3	-12.0297E-3	11.7052E-12	56.4126E-3	-15.7515E-3
867.934E-6	11.9431E-12	100.171E-3	-8.39561E-3	11.8533E-12	49.4666E-3	-17.6691E-3
862.931E-6	11.8739E-12	89.1525E-3	-9.91114E-3	11.6582E-12	56.8880E-3	-19.5669E-3
857.929E-6	11.7620E-12	73.0157E-3	-25.2750E-3	11.6449E-12	71.8774E-3	-18.1975E-3
852.926E-6	11.7240E-12	65.4509E-3	-27.1696E-3	11.7175E-12	87.7230E-3	-25.4336E-3
847.924E-6	11.8257E-12	63.7473E-3	-10.8736E-3	11.7216E-12	93.5545E-3	-20.1419E-3
842.921E-6	11.7967E-12	54.8964E-3	-14.7423E-3	11.5188E-12	85.9376E-3	-8.49493E-3
837.919E-6	11.7509E-12	50.3433E-3	-31.5226E-3	11.7341E-12	73.8937E-3	-11.2249E-3
832.916E-6	11.6947E-12	64.6104E-3	-27.1536E-3	11.8128E-12	66.7350E-3	-12.2052E-3
827.914E-6	11.6928E-12	75.5529E-3	-16.3777E-3	11.6888E-12	72.4314E-3	-11.6153E-3
822.911E-6	11.6947E-12	77.3868E-3	-20.4370E-3	11.5706E-12	82.2418E-3	-13.2450E-3
817.909E-6	11.6685E-12	80.0453E-3	-25.5792E-3	11.5638E-12	81.3987E-3	-13.5769E-3
812.906E-6	11.6287E-12	80.9388E-3	-21.9627E-3	11.5407E-12	75.7828E-3	-17.6421E-3
807.904E-6	11.4529E-12	77.0921E-3	-14.4369E-3	11.5961E-12	70.9219E-3	-24.8423E-3
802.901E-6	11.5458E-12	73.5754E-3	-14.5503E-3	11.5302E-12	68.6295E-3	-24.5286E-3
797.899E-6	11.5633E-12	77.1601E-3	-17.7031E-3	11.3714E-12	76.3136E-3	-11.2595E-3
792.896E-6	11.4487E-12	89.8309E-3	-21.1414E-3	11.3719E-12	79.5398E-3	-6.60005E-3
787.894E-6	11.1319E-12	98.2902E-3	-19.3584E-3	11.3093E-12	77.8103E-3	-12.0701E-3
782.891E-6	11.3016E-12	88.6074E-3	-11.4601E-3	11.1759E-12	82.3841E-3	-11.1101E-3
777.889E-6	11.2467E-12	80.2338E-3	-17.3617E-3	11.1826E-12	85.2803E-3	-14.5588E-3
772.886E-6	11.1874E-12	86.2969E-3	-21.6110E-3	11.1926E-12	86.2659E-3	-18.4895E-3
767.884E-6	11.1457E-12	91.7447E-3	-21.2787E-3	11.2738E-12	90.1049E-3	-15.2876E-3
762.881E-6	11.0693E-12	92.5816E-3	-25.3445E-3	11.1010E-12	96.5742E-3	-24.2456E-3
757.879E-6	11.1241E-12	91.9367E-3	-17.6213E-3	11.3337E-12	99.4020E-3	-37.6190E-3
752.876E-6	11.1118E-12	83.8535E-3	-7.13529E-3	11.1360E-12	98.0758E-3	-28.0690E-3
747.874E-6	11.1151E-12	80.6024E-3	-11.4533E-3	11.1776E-12	96.8071E-3	-7.13021E-3
742.871E-6	11.0199E-12	87.4062E-3	-17.4555E-3	11.2667E-12	95.8906E-3	-3.35322E-3
737.869E-6	10.9040E-12	85.4578E-3	-17.0605E-3	11.2690E-12	100.482E-3	-9.59462E-3
732.866E-6	11.1042E-12	78.5662E-3	-25.9415E-3	11.2038E-12	104.606E-3	-15.0483E-3
727.864E-6	10.9742E-12	79.0271E-3	-26.2006E-3	11.1191E-12	104.169E-3	-19.9219E-3
722.861E-6	10.9391E-12	85.6161E-3	-6.76302E-3	11.0782E-12	114.629E-3	-13.2833E-3
717.859E-6	10.8526E-12	94.1776E-3	-5.80450E-3	10.8680E-12	124.255E-3	-8.88701E-3
712.856E-6	11.0044E-12	93.4745E-3	-15.1694E-3	10.8517E-12	109.954E-3	-20.5952E-3
707.854E-6	11.0009E-12	86.7894E-3	-7.63057E-3	10.7681E-12	95.1953E-3	-30.5979E-3
702.851E-6	10.8810E-12	91.3344E-3	-5.88553E-3	10.7213E-12	98.9149E-3	-28.9464E-3
697.849E-6	10.7393E-12	100.081E-3	-11.1109E-3	10.6538E-12	107.921E-3	-26.0344E-3
692.846E-6	10.7239E-12	102.890E-3	-11.7656E-3	10.5604E-12	120.151E-3	-16.9519E-3
687.844E-6	10.8417E-12	105.462E-3	-21.3090E-3	10.6063E-12	135.951E-3	-8.99543E-3
682.841E-6	10.5915E-12	115.128E-3	-24.3058E-3	10.5294E-12	137.007E-3	-15.6428E-3
677.839E-6	10.5382E-12	117.034E-3	-10.8572E-3	10.5603E-12	132.605E-3	-20.5730E-3
672.836E-6	10.5553E-12	108.255E-3	-9.11745E-3	10.4920E-12	144.569E-3	-24.2029E-3
667.834E-6	10.5475E-12	112.467E-3	-17.0641E-3	10.4124E-12	152.403E-3	-28.3536E-3
662.831E-6	10.3883E-12	117.600E-3	-22.1210E-3	10.4085E-12	146.521E-3	-15.5855E-3
657.829E-6	10.5276E-12	103.549E-3	-32.7949E-3	10.4162E-12	147.045E-3	-6.65741E-3
652.826E-6	10.5302E-12	102.074E-3	-32.7609E-3	10.2707E-12	161.010E-3	-13.4048E-3
647.824E-6	10.3146E-12	124.872E-3	-18.8978E-3	10.2414E-12	163.798E-3	-13.2380E-3
642.821E-6	10.3781E-12	138.084E-3	-14.7625E-3	10.2202E-12	151.315E-3	-20.6605E-3
637.819E-6	10.4448E-12	138.341E-3	-19.2332E-3	10.2616E-12	152.786E-3	-37.2943E-3
632.816E-6	10.2571E-12	136.312E-3	-19.5938E-3	10.0720E-12	164.220E-3	-37.7858E-3
627.814E-6	10.1288E-12	143.630E-3	-16.4224E-3	10.0234E-12	170.869E-3	-23.1087E-3
622.811E-6	10.1305E-12	153.064E-3	-15.2597E-3	10.0474E-12	169.529E-3	-13.9113E-3
617.809E-6	10.0302E-12	153.959E-3	-21.0114E-3	9.93975E-12	169.230E-3	-19.1489E-3
612.806E-6	10.1088E-12	160.250E-3	-29.0133E-3	9.85508E-12	179.965E-3	-21.0835E-3
607.804E-6	10.1335E-12	171.930E-3	-25.0687E-3	9.77261E-12	196.654E-3	-16.4121E-3
602.801E-6	10.0159E-12	182.676E-3	-5.06277E-3	9.72162E-12	208.162E-3	-12.4065E-3
597.799E-6	9.88560E-12	193.590E-3	10.9121E-3	9.66957E-12	211.130E-3	-11.0419E-3
592.796E-6	9.93542E-12	198.261E-3	2.92548E-3	9.69706E-12	218.014E-3	-18.3760E-3
587.794E-6	9.77883E-12	191.446E-3	-13.1113E-3	9.63081E-12	217.987E-3	-27.9149E-3
582.791E-6	9.56375E-12	183.815E-3	-23.1663E-3	9.73409E-12	216.324E-3	-21.0820E-3
577.789E-6	9.38890E-12	184.144E-3	-30.4208E-3	9.68952E-12	241.143E-3	-7.65682E-3
572.786E-6	9.37686E-12	190.464E-3	-22.6963E-3	9.55208E-12	257.239E-3	-5.68307E-3
567.784E-6	9.34806E-12	196.935E-3	-967.582E-6	9.47409E-12	241.338E-3	-4.33779E-3
562.781E-6	9.13260E-12	207.707E-3	5.45378E-3	9.50499E-12	239.447E-3	-2.98512E-3
557.779E-6	8.98642E-12	225.798E-3	-9.67279E-3	9.27500E-12	251.924E-3	-9.17408E-3
552.776E-6	9.07508E-12	234.358E-3	-21.2287E-3	9.14980E-12	251.015E-3	-3.85386E-3
547.774E-6	9.05196E-12	235.793E-3	-26.2104E-3	9.20455E-12	250.699E-3	4.17344E-3
542.771E-6	8.91791E-12	246.715E-3	-34.3551E-3	9.04352E-12	252.497E-3	-9.98019E-3
537.769E-6	8.83927E-12	248.199E-3	-32.2429E-3	8.77733E-12	248.994E-3	-15.8015E-3
532.766E-6	8.77205E-12	234.149E-3	-22.1110E-3	8.90622E-12	251.099E-3	-4.48746E-3
527.764E-6	8.70359E-12	232.369E-3	-16.2681E-3	8.67666E-12	263.812E-3	-9.03658E-3
522.761E-6	8.59341E-12	244.894E-3	-17.0600E-3	8.47118E-12	270.161E-3	-20.2501E-3
517.759E-6	8.55431E-12	254.206E-3	-29.5893E-3	8.32895E-12	263.899E-3	-16.7265E-3
512.756E-6	8.43646E-12	259.613E-3	-37.9728E-3	8.37775E-12	266.387E-3	-11.0547E-3
507.754E-6	8.32009E-12	269.977E-3	-29.9865E-3	8.23242E-12	276.787E-3	-6.07064E-3
502.751E-6	8.35094E-12	280.181E-3	-21.4891E-3	8.20118E-12	285.333E-3	-2.25351E-3
497.749E-6	8.20413E-12	280.453E-3	-16.1663E-3	8.03974E-12	295.683E-3	-2.03957E-3
492.746E-6	8.23291E-12	282.205E-3	-12.2714E-3	7.96528E-12	294.529E-3	-2.65608E-3
487.744E-6	8.15218E-12	289.648E-3	-11.7528E-3	8.03507E-12	289.939E-3	-7.00064E-3
482.741E-6	7.98603E-12	287.494E-3	-11.2623E-3	7.91395E-12	296.619E-3	-18.2946E-3
477.739E-6	7.85874E-12	285.831E-3	-11.7480E-3	7.82241E-12	299.186E-3	-28.7521E-3
472.736E-6	7.81452E-12	298.728E-3	-10.8521E-3	7.71255E-12	303.073E-3	-28.2181E-3
467.734E-6	7.53208E-12	308.967E-3	-15.0690E-3	7.65632E-12	312.184E-3	-32.0487E-3
462.731E-6	7.38237E-12	309.402E-3	-19.3930E-3	7.46924E-12	307.892E-3	-38.0646E-3
457.729E-6	7.33628E-12	303.939E-3	-7.69887E-3	7.29801E-12	303.979E-3	-21.2884E-3
452.726E-6	7.13908E-12	300.709E-3	-6.69157E-3	7.27974E-12	312.888E-3	-1.94799E-3
447.724E-6	7.06545E-12	305.958E-3	-18.6769E-3	7.14913E-12	322.367E-3	-5.69663E-3
442.721E-6	6.95501E-12	306.086E-3	-22.7582E-3	7.00026E-12	328.115E-3	-12.3397E-3
437.719E-6	6.92804E-12	302.512E-3	-26.5666E-3	6.83853E-12	333.129E-3	-14.2706E-3
432.716E-6	6.85983E-12	306.889E-3	-20.9868E-3	6.68662E-12	333.312E-3	-20.0680E-3
427.714E-6	6.79334E-12	306.326E-3	-12.7736E-3	6.63470E-12	332.497E-3	-20.2166E-3
422.711E-6	6.56035E-12	309.210E-3	-22.7263E-3	6.56003E-12	343.274E-3	-12.1340E-3
417.709E-6	6.60411E-12	325.854E-3	-32.1335E-3	6.30425E-12	348.076E-3	-9.96524E-3
412.706E-6	6.55339E-12	327.800E-3	-23.3237E-3	6.28160E-12	330.641E-3	-12.3145E-3
407.704E-6	6.39592E-12	311.921E-3	-11.1169E-3	6.23858E-12	319.494E-3	-17.7322E-3
402.701E-6	6.20348E-12	309.694E-3	-2.54665E-3	6.04147E-12	329.098E-3	-29.3183E-3
397.699E-6	6.20090E-12	330.762E-3	-2.52698E-3	5.95571E-12	335.179E-3	-35.4069E-3
392.696E-6	6.03122E-12	349.615E-3	-11.0460E-3	5.87828E-12	328.600E-3	-27.2990E-3
387.694E-6	5.91713E-12	350.963E-3	-11.4724E-3	5.77117E-12	319.927E-3	-21.4731E-3
382.691E-6	5.82079E-12	344.619E-3	-10.7655E-3	5.62066E-12	313.162E-3	-19.9686E-3
377.689E-6	5.71120E-12	340.202E-3	-16.5440E-3	5.48079E-12	314.078E-3	-13.4968E-3
372.686E-6	5.42760E-12	342.141E-3	-24.1991E-3	5.43206E-12	317.814E-3	-16.1066E-3
367.684E-6	5.30123E-12	340.955E-3	-27.7307E-3	5.33832E-12	314.934E-3	-26.1475E-3
362.681E-6	5.29068E-12	329.240E-3	-25.5141E-3	5.21834E-12	318.728E-3	-24.1389E-3
357.679E-6	5.13764E-12	322.679E-3	-23.0175E-3	5.12427E-12	325.057E-3	-16.9675E-3
352.676E-6	4.97959E-12	328.138E-3	-20.8729E-3	5.06134E-12	319.829E-3	-18.3738E-3
347.674E-6	4.90904E-12	325.677E-3	-21.9881E-3	4.85908E-12	313.278E-3	-9.96538E-3
342.671E-6	4.89400E-12	319.274E-3	-22.7340E-3	4.75692E-12	308.479E-3	1.22778E-3
337.669E-6	4.77091E-12	325.997E-3	-12.9894E-3	4.67972E-12	302.420E-3	-2.78537E-3
332.666E-6	4.64046E-12	330.044E-3	-5.45503E-3	4.61096E-12	300.784E-3	-3.71915E-3
327.664E-6	4.51344E-12	323.499E-3	-20.4041E-3	4.50853E-12	307.485E-3	-4.69291E-3
322.661E-6	4.38296E-12	313.435E-3	-28.7412E-3	4.33423E-12	313.020E-3	-15.8625E-3
317.659E-6	4.41994E-12	308.315E-3	-17.9205E-3	4.25231E-12	309.555E-3	-23.0536E-3
312.656E-6	4.19142E-12	317.486E-3	-9.50623E-3	4.21383E-12	304.767E-3	-26.8270E-3
307.654E-6	4.11520E-12	327.056E-3	-6.64628E-3	4.08615E-12	301.202E-3	-32.5624E-3
302.651E-6	4.03401E-12	320.309E-3	-11.7301E-3	3.89135E-12	292.750E-3	-25.9530E-3
297.649E-6	3.95358E-12	308.824E-3	-13.6995E-3	3.85121E-12	292.113E-3	-5.64913E-3
292.646E-6	3.79245E-12	303.164E-3	-5.61386E-3	3.85769E-12	300.600E-3	3.55406E-3
287.644E-6	3.70344E-12	299.800E-3	-9.72852E-3	3.56322E-12	300.078E-3	-371.242E-6
282.641E-6	3.53194E-12	304.521E-3	-17.6783E-3	3.47379E-12	293.083E-3	1.20491E-3
277.639E-6	3.51724E-12	312.655E-3	-14.9586E-3	3.44981E-12	285.924E-3	-8.00197E-3
272.636E-6	3.40608E-12	311.210E-3	-19.0428E-3	3.38715E-12	289.585E-3	-21.7832E-3
267.634E-6	3.25860E-12	304.389E-3	-27.5702E-3	3.23916E-12	299.537E-3	-14.0162E-3
262.631E-6	3.17853E-12	299.687E-3	-21.3319E-3	3.10166E-12	292.151E-3	-16.7036E-3
257.629E-6	3.03179E-12	297.381E-3	-4.10277E-3	3.09801E-12	274.299E-3	-32.8369E-3
252.626E-6	2.99197E-12	289.880E-3	3.26093E-3	3.06527E-12	262.396E-3	-24.9013E-3
247.624E-6	2.91791E-12	275.732E-3	-677.682E-6	2.86519E-12	254.375E-3	-11.9953E-3
242.621E-6	2.81844E-12	264.961E-3	-10.9906E-3	2.81495E-12	251.914E-3	-8.05600E-3
237.619E-6	2.73308E-12	261.064E-3	-21.9014E-3	2.76826E-12	250.520E-3	-2.50480E-3
232.616E-6	2.58396E-12	267.967E-3	-17.9141E-3	2.67662E-12	244.641E-3	-6.14222E-3
227.614E-6	2.52002E-12	280.277E-3	-3.04182E-3	2.52360E-12	241.744E-3	-15.4419E-3
222.611E-6	2.44278E-12	275.259E-3	1.52813E-3	2.40256E-12	244.213E-3	-21.0875E-3
217.609E-6	2.34573E-12	258.301E-3	-8.01433E-3	2.37372E-12	252.581E-3	-24.4107E-3
212.606E-6	2.22437E-12	248.037E-3	-15.5482E-3	2.26520E-12	245.824E-3	-18.0965E-3
207.604E-6	2.20712E-12	245.423E-3	-22.2707E-3	2.11610E-12	214.970E-3	-9.67861E-3
202.601E-6	2.10158E-12	244.833E-3	-27.5210E-3	2.09216E-12	194.427E-3	-8.47288E-3
197.599E-6	2.00330E-12	239.287E-3	-28.5346E-3	2.05545E-12	194.862E-3	-4.41982E-3
192.596E-6	1.90052E-12	225.736E-3	-37.7430E-3	1.95565E-12	199.824E-3	-1.68535E-3
187.594E-6	1.84919E-12	218.361E-3	-46.4321E-3	1.80526E-12	203.566E-3	-4.31353E-3
182.591E-6	1.83803E-12	221.012E-3	-44.3501E-3	1.81591E-12	202.546E-3	-15.3043E-3
177.589E-6	1.75261E-12	219.284E-3	-35.6200E-3	1.76032E-12	200.422E-3	-29.5412E-3
172.586E-6	1.64778E-12	210.036E-3	-27.5344E-3	1.66121E-12	208.861E-3	-30.5777E-3
167.584E-6	1.63904E-12	209.439E-3	-20.6604E-3	1.60904E-12	211.231E-3	-19.6139E-3
162.581E-6	1.59163E-12	213.926E-3	-10.3588E-3	1.56311E-12	193.185E-3	-3.95730E-3
157.579E-6	1.46175E-12	208.010E-3	-7.45443E-3	1.52133E-12	176.509E-3	200.038E-6
152.576E-6	1.36474E-12	204.163E-3	-4.71548E-3	1.37796E-12	164.069E-3	-15.4306E-3
147.574E-6	1.28672E-12	204.110E-3	1.59206E-3	1.25861E-12	154.709E-3	-28.9144E-3
142.571E-6	1.29366E-12	195.407E-3	-4.84079E-3	1.31327E-12	162.327E-3	-19.3611E-3
137.569E-6	1.24001E-12	183.721E-3	-15.6865E-3	1.21383E-12	166.617E-3	-6.72767E-3
132.566E-6	1.18434E-12	177.829E-3	-21.0143E-3	1.17001E-12	157.479E-3	-4.95474E-3
127.564E-6	1.10450E-12	172.206E-3	-17.7258E-3	1.05053E-12	161.713E-3	-7.74385E-3
122.561E-6	999.117E-15	169.689E-3	-10.2533E-3	1.02740E-12	183.390E-3	-21.6993E-3
117.559E-6	969.881E-15	164.832E-3	-10.5828E-3	1.02337E-12	179.905E-3	-25.1348E-3
112.556E-6	925.613E-15	150.966E-3	-11.8589E-3	903.545E-15	151.497E-3	-9.72492E-3
107.554E-6	857.577E-15	151.833E-3	-10.5841E-3	846.372E-15	136.786E-3	-6.10483E-3
102.551E-6	850.619E-15	167.013E-3	-17.8681E-3	797.501E-15	140.729E-3	-14.6882E-3
97.5488E-6	745.917E-15	168.701E-3	-29.2377E-3	762.336E-15	148.498E-3	-18.7146E-3
92.5463E-6	733.056E-15	153.124E-3	-20.3246E-3	668.124E-15	141.120E-3	-19.5573E-3
87.5438E-6	673.625E-15	140.485E-3	-3.34567E-3	611.030E-15	119.129E-3	-15.3705E-3
82.5413E-6	626.524E-15	135.157E-3	-6.90487E-3	655.018E-15	115.227E-3	-4.56189E-3
77.5388E-6	559.272E-15	137.172E-3	-18.9074E-3	564.939E-15	130.136E-3	-1.14640E-3
72.5363E-6	544.754E-15	142.958E-3	-10.0448E-3	448.650E-15	137.562E-3	-1.87607E-3
67.5338E-6	521.317E-15	139.793E-3	857.056E-6	436.687E-15	144.727E-3	-3.17147E-3
62.5313E-6	397.328E-15	140.041E-3	-17.1301E-3	433.949E-15	149.135E-3	-10.7611E-3
57.5288E-6	362.939E-15	151.222E-3	-23.1841E-3	372.635E-15	138.356E-3	-19.5744E-3
52.5263E-6	344.088E-15	158.887E-3	-5.46352E-3	310.562E-15	121.484E-3	-21.6546E-3
47.5238E-6	343.547E-15	146.553E-3	382.272E-6	285.206E-15	110.312E-3	-9.08786E-3
42.5213E-6	261.385E-15	128.120E-3	-8.80311E-3	308.906E-15	107.423E-3	-3.47491E-3
37.5188E-6	213.778E-15	120.831E-3	-23.0266E-3	165.517E-15	100.302E-3	-13.8953E-3
32.5163E-6	133.360E-15	119.400E-3	-22.9923E-3	115.703E-15	97.1615E-3	-19.7829E-3
27.5138E-6	149.944E-15	121.948E-3	-12.0425E-3	65.6368E-15	112.558E-3	-24.2685E-3
22.5113E-6	59.3589E-15	119.763E-3	-16.1517E-3	78.6112E-15	132.478E-3	-26.8902E-3
17.5088E-6	-3.69909E-15	110.614E-3	-27.0613E-3	-3.91707E-15	140.981E-3	-22.2595E-3
12.5063E-6	-53.8177E-15	110.090E-3	-29.5691E-3	-77.4906E-15	134.107E-3	-20.9555E-3
7.50375E-6	-134.079E-15	121.915E-3	-24.1032E-3	-71.4568E-15	126.840E-3	-16.3224E-3
2.50125E-6	-109.020E-15	129.082E-3	-12.3776E-3	-73.7151E-15	132.047E-3	-12.6868E-3
-2.50125E-6	-166.794E-15	133.336E-3	-6.09313E-3	-209.606E-15	138.635E-3	-17.4204E-3
-7.50375E-6	-237.839E-15	139.436E-3	-9.66221E-3	-213.032E-15	136.780E-3	-5.55913E-3
-12.5063E-6	-259.035E-15	134.238E-3	-23.8787E-3	-285.106E-15	133.738E-3	11.7780E-3
-17.5088E-6	-314.446E-15	127.287E-3	-32.3295E-3	-295.098E-15	132.194E-3	-2.12763E-3
-22.5113E-6	-307.558E-15	137.350E-3	-19.7707E-3	-366.658E-15	137.976E-3	-22.3400E-3
-27.5138E-6	-421.624E-15	141.331E-3	-15.5839E-3	-417.221E-15	157.195E-3	-19.1097E-3
-32.5163E-6	-463.207E-15	128.834E-3	-21.7455E-3	-459.222E-15	166.643E-3	-14.5936E-3
-37.5188E-6	-506.594E-15	132.387E-3	-19.8831E-3	-507.684E-15	154.813E-3	-12.4555E-3
-42.5213E-6	-537.111E-15	148.437E-3	-13.3944E-3	-569.416E-15	149.546E-3	-7.78411E-3
-47.5238E-6	-607.938E-15	152.457E-3	-11.8325E-3	-665.468E-15	166.972E-3	-14.7183E-3
-52.5263E-6	-695.097E-15	154.032E-3	-20.3487E-3	-638.683E-15	187.440E-3	-27.3058E-3
-57.5288E-6	-710.974E-15	159.254E-3	-28.3572E-3	-722.083E-15	194.697E-3	-29.8079E-3
-62.5313E-6	-711.777E-15	161.153E-3	-32.5879E-3	-781.549E-15	192.946E-3	-28.5735E-3
-67.5338E-6	-796.877E-15	165.957E-3	-29.8041E-3	-868.062E-15	187.134E-3	-29.7195E-3
-72.5363E-6	-886.581E-15	176.221E-3	-16.8775E-3	-881.733E-15	176.848E-3	-24.9692E-3
-77.5388E-6	-978.771E-15	178.192E-3	-18.5525E-3	-979.948E-15	180.413E-3	-19.5139E-3
-82.5413E-6	-1.03146E-12	175.465E-3	-28.6628E-3	-1.06410E-12	192.520E-3	-10.7263E-3
-87.5438E-6	-1.08812E-12	185.958E-3	-21.2907E-3	-1.10961E-12	192.722E-3	3.74872E-3
-92.5463E-6	-1.15121E-12	196.824E-3	-17.0214E-3	-1.14606E-12	205.454E-3	5.10567E-3
-97.5488E-6	-1.27623E-12	192.321E-3	-23.1303E-3	-1.24229E-12	228.638E-3	-14.7057E-3
-102.551E-6	-1.31051E-12	191.365E-3	-25.7971E-3	-1.34167E-12	238.468E-3	-23.8393E-3
-107.554E-6	-1.37336E-12	198.220E-3	-23.1445E-3	-1.36629E-12	241.109E-3	-19.4203E-3
-112.556E-6	-1.44553E-12	193.123E-3	-18.8156E-3	-1.37580E-12	234.619E-3	-26.6925E-3
-117.559E-6	-1.58684E-12	195.410E-3	-22.8291E-3	-1.53172E-12	227.269E-3	-31.3778E-3
-122.561E-6	-1.67508E-12	223.177E-3	-24.8024E-3	-1.63593E-12	242.234E-3	-34.2552E-3
-127.564E-6	-1.70399E-12	239.878E-3	-24.4667E-3	-1.67679E-12	258.976E-3	-43.8469E-3
-132.566E-6	-1.76568E-12	233.945E-3	-31.7439E-3	-1.77104E-12	267.793E-3	-34.0836E-3
-137.569E-6	-1.88912E-12	237.089E-3	-35.0319E-3	-1.87586E-12	290.602E-3	-14.0196E-3
-142.571E-6	-1.95540E-12	250.150E-3	-28.3526E-3	-1.94467E-12	301.507E-3	-23.9427E-3
-147.574E-6	-2.05663E-12	259.548E-3	-14.4937E-3	-2.07772E-12	289.021E-3	-39.9742E-3
-152.576E-6	-2.10081E-12	272.203E-3	-4.71097E-3	-2.11684E-12	294.236E-3	-33.6340E-3
-157.579E-6	-2.21512E-12	284.619E-3	-2.56695E-3	-2.19870E-12	317.735E-3	-25.6168E-3
-162.581E-6	-2.29358E-12	281.287E-3	-2.87735E-3	-2.34639E-12	328.368E-3	-19.7407E-3
-167.584E-6	-2.43285E-12	271.016E-3	-4.95118E-3	-2.41502E-12	335.334E-3	-15.2454E-3
-172.586E-6	-2.61457E-12	276.816E-3	-11.3354E-3	-2.51253E-12	349.998E-3	-22.8474E-3
-177.589E-6	-2.60778E-12	296.904E-3	-20.3129E-3	-2.73992E-12	356.700E-3	-25.6923E-3
-182.591E-6	-2.74731E-12	310.993E-3	-21.5000E-3	-2.84663E-12	357.928E-3	-14.4425E-3
-187.594E-6	-2.93271E-12	311.260E-3	-14.4563E-3	-2.86633E-12	362.366E-3	-5.15700E-3
-192.596E-6	-3.07461E-12	317.520E-3	-11.9803E-3	-2.96907E-12	368.225E-3	-8.56994E-3
-197.599E-6	-3.15448E-12	338.132E-3	-27.6288E-3	-3.17747E-12	382.434E-3	-28.9407E-3
-202.601E-6	-3.29925E-12	353.928E-3	-47.5313E-3	-3.20874E-12	409.998E-3	-43.2908E-3
-207.604E-6	-3.35127E-12	362.687E-3	-42.8790E-3	-3.42788E-12	432.531E-3	-25.7827E-3
-212.606E-6	-3.50964E-12	374.929E-3	-25.5472E-3	-3.51832E-12	430.557E-3	591.744E-6
-217.609E-6	-3.73517E-12	375.411E-3	-18.4271E-3	-3.68566E-12	426.022E-3	-2.99208E-3
-222.611E-6	-3.79238E-12	375.742E-3	-15.7381E-3	-3.87566E-12	435.712E-3	-19.8422E-3
-227.614E-6	-3.93376E-12	394.843E-3	-21.1397E-3	-3.95341E-12	446.914E-3	-24.4014E-3
-232.616E-6	-4.08313E-12	412.895E-3	-26.9360E-3	-4.05393E-12	456.650E-3	-31.6143E-3
-237.619E-6	-4.22092E-12	419.400E-3	-23.0626E-3	-4.24519E-12	457.681E-3	-35.3294E-3
-242.621E-6	-4.39440E-12	415.897E-3	-21.5721E-3	-4.31930E-12	455.915E-3	-31.5619E-3
-247.624E-6	-4.52204E-12	420.743E-3	-17.3224E-3	-4.43020E-12	471.280E-3	-40.1667E-3
-252.626E-6	-4.70126E-12	449.489E-3	-3.11304E-3	-4.71982E-12	490.996E-3	-44.1407E-3
-257.629E-6	-4.83959E-12	475.767E-3	-2.28374E-3	-4.80191E-12	494.493E-3	-20.2874E-3
-262.631E-6	-4.99527E-12	484.364E-3	-18.5221E-3	-4.97438E-12	491.193E-3	-1.29796E-3
-267.634E-6	-5.16369E-12	488.971E-3	-21.1053E-3	-5.10238E-12	490.463E-3	-15.7684E-3
-272.636E-6	-5.32501E-12	494.017E-3	-13.8292E-3	-5.36102E-12	499.644E-3	-26.0173E-3
-277.639E-6	-5.53743E-12	496.319E-3	-20.7262E-3	-5.44129E-12	526.197E-3	-11.4242E-3
-282.641E-6	-5.70990E-12	504.115E-3	-29.9160E-3	-5.59732E-12	549.074E-3	1.07269E-3
-287.644E-6	-5.77970E-12	517.346E-3	-31.0275E-3	-5.88884E-12	550.455E-3	4.30118E-3
-292.646E-6	-6.08992E-12	523.841E-3	-29.7728E-3	-6.05731E-12	554.362E-3	-827.192E-6
-297.649E-6	-6.23414E-12	532.497E-3	-23.1482E-3	-6.26215E-12	565.547E-3	-18.9766E-3
-302.651E-6	-6.32052E-12	546.824E-3	-14.2155E-3	-6.37252E-12	563.520E-3	-23.3244E-3
-307.654E-6	-6.46860E-12	549.537E-3	-12.0456E-3	-6.55929E-12	558.799E-3	-719.081E-6
-312.656E-6	-6.69949E-12	536.604E-3	-12.2746E-3	-6.73618E-12	561.418E-3	3.87163E-3
-317.659E-6	-6.80002E-12	529.301E-3	-4.48281E-3	-6.96236E-12	564.180E-3	-17.7377E-3
-322.661E-6	-7.03344E-12	539.334E-3	-3.09968E-3	-7.02136E-12	574.721E-3	-21.9314E-3
-327.664E-6	-7.30010E-12	548.813E-3	-18.4626E-3	-7.27528E-12	590.126E-3	-21.9890E-3
-332.666E-6	-7.53808E-12	553.889E-3	-30.9643E-3	-7.49404E-12	589.930E-3	-29.7790E-3
-337.669E-6	-7.66699E-12	558.939E-3	-19.7233E-3	-7.68382E-12	586.736E-3	-23.8204E-3
-342.671E-6	-7.78549E-12	569.723E-3	-5.91452E-3	-7.82124E-12	593.829E-3	-13.9417E-3
-347.674E-6	-8.10639E-12	581.466E-3	-16.8991E-3	-8.04501E-12	598.111E-3	-16.5260E-3
-352.676E-6	-8.29957E-12	581.551E-3	-27.8529E-3	-8.33844E-12	598.958E-3	-18.1255E-3
-357.679E-6	-8.36167E-12	584.109E-3	-26.5540E-3	-8.41536E-12	605.168E-3	-10.9540E-3
-362.681E-6	-8.49631E-12	585.860E-3	-27.5576E-3	-8.58298E-12	603.685E-3	-14.1558E-3
-367.684E-6	-8.91699E-12	579.253E-3	-20.9207E-3	-8.84727E-12	602.313E-3	-25.7318E-3
-372.686E-6	-9.23756E-12	587.632E-3	-2.08016E-3	-9.13567E-12	612.541E-3	-23.0432E-3
-377.689E-6	-9.32920E-12	607.858E-3	6.99625E-3	-9.31194E-12	617.519E-3	-16.1155E-3
-382.691E-6	-9.44460E-12	604.465E-3	-3.51460E-3	-9.53430E-12	609.005E-3	-10.9227E-3
-387.694E-6	-9.65692E-12	584.777E-3	-14.0744E-3	-9.88948E-12	604.630E-3	-3.05863E-3
-392.696E-6	-9.97575E-12	584.716E-3	-8.18432E-3	-10.0599E-12	606.530E-3	-6.00517E-3
-397.699E-6	-9.94295E-12	596.562E-3	-564.775E-6	-10.0709E-12	607.193E-3	-13.0882E-3
-402.701E-6	-10.0380E-12	605.269E-3	-4.59188E-3	-10.5200E-12	612.468E-3	-15.5358E-3
-407.704E-6	-10.3424E-12	610.874E-3	-6.27740E-3	-10.6021E-12	620.347E-3	-23.4465E-3
-412.706E-6	-10.5535E-12	600.782E-3	-1.63311E-3	-10.8010E-12	624.295E-3	-23.6107E-3
-417.709E-6	-10.6177E-12	585.352E-3	-3.62049E-3	-10.9193E-12	621.571E-3	-8.49919E-3
-422.711E-6	-10.9941E-12	581.618E-3	-9.38731E-3	-11.1315E-12	616.030E-3	-5.19724E-3
-427.714E-6	-11.2198E-12	588.815E-3	-13.8273E-3	-11.4046E-12	606.737E-3	-9.55937E-3
-432.716E-6	-11.4716E-12	604.177E-3	-22.2030E-3	-11.5484E-12	600.462E-3	-1.92756E-3
-437.719E-6	-11.8212E-12	609.377E-3	-28.3773E-3	-11.5698E-12	594.308E-3	-1.14068E-3
-442.721E-6	-11.9662E-12	606.739E-3	-26.0790E-3	-11.9239E-12	578.012E-3	-2.97769E-3
-447.724E-6	-12.0047E-12	600.557E-3	-28.5597E-3	-12.1751E-12	564.246E-3	7.84333E-3
-452.726E-6	-12.2771E-12	581.610E-3	-28.0773E-3	-12.1230E-12	563.297E-3	1.82930E-3
-457.729E-6	-12.3624E-12	571.397E-3	-26.4782E-3	-12.5546E-12	563.082E-3	-15.2546E-3
-462.731E-6	-12.4924E-12	584.533E-3	-32.9508E-3	-12.6664E-12	569.947E-3	-15.5328E-3
-467.734E-6	-12.8965E-12	586.656E-3	-24.9823E-3	-12.6351E-12	577.344E-3	-20.1961E-3
-472.736E-6	-13.0373E-12	561.516E-3	-5.88883E-3	-13.0879E-12	555.558E-3	-34.5817E-3
-477.739E-6	-13.0689E-12	558.086E-3	17.6656E-6	-13.3750E-12	535.270E-3	-35.1566E-3
-482.741E-6	-13.1983E-12	577.074E-3	-1.98945E-3	-13.2919E-12	547.419E-3	-30.2800E-3
-487.744E-6	-13.5592E-12	563.388E-3	-5.93415E-3	-13.4877E-12	551.622E-3	-30.3304E-3
-492.746E-6	-13.6437E-12	539.699E-3	-21.4048E-3	-13.7453E-12	531.935E-3	-25.5872E-3
-497.749E-6	-13.7164E-12	542.868E-3	-30.8748E-3	-13.8211E-12	528.329E-3	-19.2316E-3
-502.751E-6	-13.9942E-12	551.060E-3	-21.9339E-3	-13.8433E-12	529.973E-3	-21.7053E-3
-507.754E-6	-14.2077E-12	547.240E-3	-26.5263E-3	-14.2008E-12	506.305E-3	-23.0630E-3
-512.756E-6	-14.5160E-12	532.388E-3	-46.7750E-3	-14.1911E-12	485.245E-3	-16.8882E-3
-517.759E-6	-14.6615E-12	521.498E-3	-48.5779E-3	-14.3708E-12	482.581E-3	-16.9812E-3
-522.761E-6	-14.8288E-12	520.861E-3	-32.7106E-3	-14.5305E-12	477.626E-3	-12.6633E-3
-527.764E-6	-15.0549E-12	510.851E-3	-20.2757E-3	-14.6862E-12	468.038E-3	5.65764E-3
-532.766E-6	-15.4381E-12	491.772E-3	-20.5669E-3	-14.8533E-12	456.825E-3	6.60980E-3
-537.769E-6	-15.2651E-12	485.049E-3	-36.4583E-3	-15.0764E-12	443.014E-3	-9.50757E-3
-542.771E-6	-15.2844E-12	482.510E-3	-42.8054E-3	-15.2586E-12	445.333E-3	-10.3020E-3
-547.774E-6	-15.5595E-12	478.644E-3	-25.9313E-3	-15.3861E-12	450.332E-3	-8.97304E-3
-552.776E-6	-15.6553E-12	481.006E-3	-16.5679E-3	-15.4276E-12	428.172E-3	-15.3763E-3
-557.779E-6	-15.6440E-12	476.496E-3	-23.7060E-3	-15.6221E-12	405.128E-3	-13.9817E-3
-562.781E-6	-15.8036E-12	465.365E-3	-25.5975E-3	-16.0475E-12	397.725E-3	-10.2448E-3
-567.784E-6	-16.1112E-12	453.647E-3	-20.3449E-3	-16.3202E-12	390.451E-3	-7.19897E-3
-572.786E-6	-16.0362E-12	433.529E-3	-27.4389E-3	-16.6422E-12	393.199E-3	-10.3950E-3
-577.789E-6	-16.3778E-12	413.213E-3	-42.9960E-3	-16.6141E-12	407.716E-3	-21.5659E-3
-582.791E-6	-16.7352E-12	402.334E-3	-46.2991E-3	-16.6934E-12	400.417E-3	-21.9296E-3
-587.794E-6	-16.3419E-12	398.968E-3	-42.4644E-3	-16.9386E-12	375.820E-3	-17.5887E-3
-592.796E-6	-16.5955E-12	394.156E-3	-37.6165E-3	-17.2831E-12	366.478E-3	-26.3528E-3
-597.799E-6	-16.9185E-12	380.767E-3	-25.7762E-3	-17.1203E-12	359.270E-3	-29.1544E-3
-602.801E-6	-16.8843E-12	370.728E-3	-14.2951E-3	-16.9952E-12	340.769E-3	-16.6939E-3
-607.804E-6	-17.0183E-12	362.316E-3	-6.09011E-3	-17.3802E-12	327.857E-3	-11.7424E-3
-612.806E-6	-17.3801E-12	345.186E-3	-2.63188E-3	-17.4786E-12	315.437E-3	-15.2069E-3
-617.809E-6	-17.4086E-12	334.608E-3	-5.47857E-3	-17.3328E-12	298.174E-3	-14.3029E-3
-622.811E-6	-17.6877E-12	336.534E-3	-7.22074E-3	-17.5583E-12	300.216E-3	-22.5424E-3
-627.814E-6	-17.8120E-12	334.033E-3	-4.91891E-3	-17.5646E-12	311.658E-3	-44.2686E-3
-632.816E-6	-17.6529E-12	324.669E-3	-10.0673E-3	-17.7169E-12	301.729E-3	-42.5981E-3
-637.819E-6	-17.7260E-12	312.368E-3	-19.5729E-3	-17.8186E-12	280.639E-3	-22.2357E-3
-642.821E-6	-18.1038E-12	299.667E-3	-11.3086E-3	-18.3885E-12	267.599E-3	-23.6438E-3
-647.824E-6	-18.2852E-12	290.533E-3	-3.11994E-3	-17.9807E-12	263.923E-3	-32.5961E-3
-652.826E-6	-18.1887E-12	289.203E-3	-12.2978E-3	-17.9306E-12	265.871E-3	-29.4947E-3
-657.829E-6	-18.4708E-12	292.118E-3	-18.2534E-3	-18.4865E-12	253.734E-3	-21.6214E-3
-662.831E-6	-18.6664E-12	278.287E-3	-18.4859E-3	-18.4684E-12	236.547E-3	-13.5778E-3
-667.834E-6	-18.5633E-12	259.231E-3	-19.1058E-3	-18.0299E-12	249.686E-3	-7.82599E-3
-672.836E-6	-18.5294E-12	255.776E-3	-6.66695E-3	-18.3193E-12	261.008E-3	-6.42078E-3
-677.839E-6	-18.9359E-12	256.585E-3	3.27389E-3	-18.6700E-12	244.695E-3	-13.0841E-3
-682.841E-6	-18.7357E-12	252.048E-3	-7.13865E-3	-18.5520E-12	222.965E-3	-22.9365E-3
-687.844E-6	-18.9430E-12	241.232E-3	-16.4530E-3	-18.6073E-12	202.684E-3	-26.1831E-3
-692.846E-6	-19.0840E-12	223.680E-3	-14.2431E-3	-18.5338E-12	182.877E-3	-22.9927E-3
-697.849E-6	-19.1683E-12	207.310E-3	-14.6075E-3	-18.7489E-12	174.451E-3	-26.6509E-3
-702.851E-6	-19.0938E-12	209.887E-3	-21.5347E-3	-18.8992E-12	181.499E-3	-28.8869E-3
-707.854E-6	-19.0190E-12	219.517E-3	-22.7469E-3	-19.2483E-12	179.459E-3	-18.4364E-3
-712.856E-6	-19.1829E-12	225.450E-3	-21.0732E-3	-18.7410E-12	175.043E-3	-16.5417E-3
-717.859E-6	-19.2558E-12	229.416E-3	-17.2366E-3	-18.9722E-12	179.537E-3	-24.8006E-3
-722.861E-6	-19.1051E-12	222.176E-3	-5.29726E-3	-19.2663E-12	172.607E-3	-26.1049E-3
-727.864E-6	-19.2431E-12	211.844E-3	6.10726E-3	-19.3688E-12	161.741E-3	-23.9620E-3
-732.866E-6	-19.0851E-12	206.180E-3	7.48413E-3	-19.1993E-12	163.996E-3	-26.2307E-3
-737.869E-6	-19.1620E-12	189.425E-3	-2.95745E-3	-19.4159E-12	167.489E-3	-22.2580E-3
-742.871E-6	-19.1189E-12	174.849E-3	-16.2959E-3	-19.4159E-12	166.746E-3	-9.84275E-3
-747.874E-6	-19.1524E-12	176.386E-3	-20.4806E-3	-19.2938E-12	158.967E-3	-15.4422E-3
-752.876E-6	-19.4116E-12	170.073E-3	-19.7044E-3	-19.5142E-12	139.623E-3	-36.6253E-3
-757.879E-6	-19.2884E-12	168.461E-3	-24.3102E-3	-19.3173E-12	134.536E-3	-37.9610E-3
-762.881E-6	-19.3591E-12	172.334E-3	-21.3092E-3	-19.2113E-12	146.737E-3	-21.5237E-3
-767.884E-6	-19.4754E-12	158.602E-3	-9.96572E-3	-19.4534E-12	138.245E-3	-6.43817E-3
-772.886E-6	-19.7885E-12	137.721E-3	-15.5709E-3	-19.5184E-12	121.724E-3	1.84066E-3
-777.889E-6	-19.9989E-12	130.125E-3	-24.4178E-3	-19.3462E-12	120.806E-3	-8.96668E-3
-782.891E-6	-20.0212E-12	132.993E-3	-13.5752E-3	-19.4985E-12	112.094E-3	-24.7506E-3
-787.894E-6	-20.2592E-12	132.717E-3	-1.81961E-3	-19.6210E-12	100.104E-3	-19.6818E-3
-792.896E-6	-20.1773E-12	133.357E-3	-980.285E-6	-19.5744E-12	99.3875E-3	-16.0002E-3
-797.899E-6	-20.4709E-12	135.204E-3	-1.24557E-3	-19.8687E-12	102.874E-3	-22.2357E-3
-802.901E-6	-20.3870E-12	130.288E-3	-3.48614E-3	-19.7885E-12	111.700E-3	-11.4890E-3
-807.904E-6	-20.2455E-12	124.169E-3	-8.25277E-3	-19.7674E-12	122.250E-3	-9.30362E-6
-812.906E-6	-20.0848E-12	121.736E-3	3.07079E-3	-20.0818E-12	121.680E-3	-10.4650E-3
-817.909E-6	-20.2708E-12	111.987E-3	17.3042E-3	-20.4001E-12	106.897E-3	-22.8181E-3
-822.911E-6	-20.2625E-12	99.9017E-3	14.5266E-3	-19.8053E-12	104.523E-3	-19.9902E-3
-827.914E-6	-20.1379E-12	98.7404E-3	12.8523E-3	-20.0918E-12	127.552E-3	-14.3694E-3
-832.916E-6	-20.2752E-12	96.9563E-3	7.56194E-3	-20.5067E-12	134.870E-3	-16.1511E-3
-837.919E-6	-20.1040E-12	89.5319E-3	-6.56428E-3	-20.0666E-12	118.025E-3	-9.23630E-3
-842.921E-6	-20.5309E-12	82.9362E-3	-12.1681E-3	-20.2879E-12	103.711E-3	-193.264E-6
-847.924E-6	-20.4010E-12	78.7692E-3	-5.72202E-3	-20.2552E-12	84.2403E-3	-7.87556E-3
-852.926E-6	-20.4265E-12	80.1612E-3	-4.93419E-3	-20.1540E-12	81.5926E-3	-13.4234E-3
-857.929E-6	-20.6910E-12	96.9610E-3	-13.7247E-3	-20.5651E-12	104.818E-3	-15.4389E-3
-862.931E-6	-20.8270E-12	118.483E-3	-10.9030E-3	-20.5914E-12	97.7580E-3	-20.6663E-3
-867.934E-6	-20.5297E-12	116.555E-3	-3.67638E-3	-20.5228E-12	76.1335E-3	-19.0581E-3
-872.936E-6	-20.6004E-12	107.658E-3	-10.1144E-3	-20.6875E-12	86.6290E-3	-12.7316E-3
-877.939E-6	-21.0032E-12	118.678E-3	-13.1602E-3	-21.1616E-12	102.293E-3	-272.643E-6
-882.941E-6	-20.8970E-12	128.382E-3	-14.8054E-3	-20.5990E-12	104.267E-3	13.0167E-3
-887.944E-6	-20.8698E-12	115.126E-3	-19.3719E-3	-20.7872E-12	105.824E-3	9.07937E-3
-892.946E-6	-20.9534E-12	85.8857E-3	-8.07786E-3	-21.1904E-12	101.183E-3	-5.14708E-3
-897.949E-6	-20.9910E-12	75.2180E-3	11.1675E-3	-21.2373E-12	94.9441E-3	-4.79199E-3
-902.951E-6	-20.8596E-12	100.952E-3	7.71253E-3	-21.3156E-12	97.8993E-3	-8.79041E-3
-907.954E-6	-20.9332E-12	122.229E-3	-8.84284E-3	-21.0826E-12	93.9693E-3	-23.8539E-3
-912.956E-6	-20.9206E-12	121.264E-3	-15.1482E-3	-21.3271E-12	86.6739E-3	-21.3182E-3
-917.959E-6	-20.8110E-12	114.195E-3	-18.2429E-3	-21.1671E-12	102.303E-3	-4.07353E-3
-922.961E-6	-21.0236E-12	97.8575E-3	-18.1767E-3	-21.1793E-12	119.030E-3	-8.95503E-3
-927.964E-6	-20.7695E-12	87.8438E-3	-18.3013E-3	-21.0007E-12	113.921E-3	-26.6698E-3
-932.966E-6	-20.9656E-12	98.1680E-3	-26.1118E-3	-21.0584E-12	109.511E-3	-20.3287E-3
-937.969E-6	-21.3054E-12	111.284E-3	-32.8233E-3	-21.0801E-12	105.032E-3	-18.7014E-3
-942.971E-6	-21.1697E-12	116.365E-3	-28.2299E-3	-20.9995E-12	99.1098E-3	-29.3916E-3
-947.974E-6	-21.0486E-12	119.347E-3	-15.9869E-3	-21.2040E-12	113.332E-3	-29.6753E-3
-952.976E-6	-21.4578E-12	123.417E-3	-6.78687E-3	-21.1629E-12	135.255E-3	-29.8789E-3
-957.979E-6	-21.7184E-12	116.692E-3	-12.3858E-3	-21.1370E-12	138.158E-3	-24.9581E-3
-962.981E-6	-21.4916E-12	108.141E-3	-24.9385E-3	-21.2872E-12	137.466E-3	-16.7206E-3
-967.984E-6	-21.7425E-12	109.651E-3	-24.2918E-3	-21.6095E-12	144.412E-3	-25.9069E-3
-972.986E-6	-21.9831E-12	112.930E-3	-16.9251E-3	-21.5432E-12	135.480E-3	-30.4857E-3
-977.989E-6	-21.8694E-12	126.588E-3	-16.8785E-3	-21.3801E-12	127.457E-3	-17.5923E-3
-982.991E-6	-21.6247E-12	142.569E-3	-22.2341E-3	-21.5524E-12	140.685E-3	-6.25151E-3
-987.994E-6	-21.9297E-12	141.015E-3	-26.1744E-3	-21.5490E-12	144.775E-3	-6.74787E-3
-992.997E-6	-21.5935E-12	133.289E-3	-24.3780E-3	-21.6036E-12	139.999E-3	-14.4152E-3
-997.999E-6	-21.7341E-12	139.097E-3	-13.4676E-3	-21.5424E-12	143.121E-3	-24.2828E-3
-1.00300E-3	-21.6714E-12	143.407E-3	-6.74546E-3	-22.0012E-12	142.223E-3	-36.9625E-3
-1.00800E-3	-21.6557E-12	139.499E-3	-13.2627E-3	-21.8427E-12	143.325E-3	-30.4041E-3
-1.01301E-3	-21.6325E-12	144.918E-3	-17.9096E-3	-21.8224E-12	156.374E-3	-10.4010E-3
-1.01801E-3	-21.7015E-12	148.885E-3	-11.4446E-3	-22.1053E-12	171.249E-3	-10.6631E-3
-1.02301E-3	-21.6679E-12	148.030E-3	-5.61186E-3	-22.1319E-12	181.388E-3	-22.1714E-3
-1.02801E-3	-21.6859E-12	158.410E-3	-6.15192E-3	-22.0443E-12	195.755E-3	-32.5591E-3
-1.03302E-3	-21.8657E-12	164.841E-3	-2.90223E-3	-21.9458E-12	208.715E-3	-37.7252E-3
-1.03802E-3	-22.0035E-12	154.558E-3	-7.60227E-3	-22.1592E-12	202.302E-3	-20.0541E-3
-1.04302E-3	-21.9748E-12	147.914E-3	-23.9048E-3	-21.9133E-12	196.269E-3	915.048E-6
-1.04802E-3	-22.0101E-12	155.140E-3	-24.4128E-3	-22.0884E-12	201.766E-3	-1.42862E-3
-1.05303E-3	-22.5277E-12	170.314E-3	-11.4234E-3	-22.0082E-12	199.712E-3	-8.12013E-3
-1.05803E-3	-22.2789E-12	190.615E-3	-7.80682E-3	-22.1884E-12	211.850E-3	-7.83070E-3
-1.06303E-3	-22.1006E-12	200.845E-3	-10.7810E-3	-22.1853E-12	234.542E-3	-13.3277E-3
-1.06803E-3	-22.3738E-12	192.935E-3	-13.7931E-3	-22.2095E-12	230.140E-3	-22.0025E-3
-1.07304E-3	-22.4044E-12	196.298E-3	-13.3429E-3	-22.1939E-12	232.737E-3	-25.9736E-3
-1.07804E-3	-22.2821E-12	222.634E-3	-7.78593E-3	-22.4305E-12	259.549E-3	-31.7317E-3
-1.08304E-3	-22.4416E-12	242.264E-3	-5.24535E-3	-22.6480E-12	275.272E-3	-28.0891E-3
-1.08804E-3	-22.5994E-12	246.002E-3	-8.49412E-3	-22.6655E-12	282.142E-3	-21.0762E-3
-1.09305E-3	-22.6373E-12	247.171E-3	-5.39159E-3	-22.8793E-12	288.677E-3	-33.4864E-3
-1.09805E-3	-22.7265E-12	248.521E-3	380.999E-6	-23.5297E-12	286.055E-3	-43.1455E-3
-1.10305E-3	-22.8656E-12	251.833E-3	-5.56955E-3	-23.2669E-12	289.070E-3	-36.3041E-3
-1.10805E-3	-23.0252E-12	267.020E-3	-21.4168E-3	-23.0504E-12	309.546E-3	-21.5373E-3
-1.11306E-3	-23.1184E-12	274.129E-3	-31.3160E-3	-23.3954E-12	319.227E-3	-1.67951E-3
-1.11806E-3	-23.2401E-12	267.409E-3	-21.9099E-3	-23.4445E-12	322.242E-3	8.75918E-3
-1.12306E-3	-23.6473E-12	281.115E-3	-9.19802E-3	-23.3342E-12	346.082E-3	3.12276E-3
-1.12806E-3	-23.7220E-12	307.939E-3	-12.4154E-3	-23.7404E-12	366.214E-3	-7.33251E-3
-1.13307E-3	-23.6367E-12	321.643E-3	-25.4599E-3	-23.6876E-12	365.160E-3	-8.20908E-3
-1.13807E-3	-23.7576E-12	328.772E-3	-29.1341E-3	-23.7335E-12	370.610E-3	-8.63129E-3
-1.14307E-3	-23.9545E-12	332.874E-3	-24.0834E-3	-24.3345E-12	376.627E-3	-29.0856E-3
-1.14807E-3	-23.9399E-12	331.546E-3	-17.5086E-3	-23.9903E-12	386.496E-3	-38.7433E-3
-1.15308E-3	-24.0593E-12	344.120E-3	-7.01610E-3	-24.2066E-12	416.066E-3	-26.4328E-3
-1.15808E-3	-24.1149E-12	372.519E-3	-5.83891E-3	-24.3735E-12	436.808E-3	-27.7394E-3
-1.16308E-3	-24.0167E-12	389.507E-3	-19.8746E-3	-24.6322E-12	448.754E-3	-31.3916E-3
-1.16808E-3	-24.2723E-12	398.882E-3	-31.1998E-3	-24.4231E-12	460.294E-3	-25.6401E-3
-1.17309E-3	-24.5122E-12	420.113E-3	-35.3555E-3	-24.7858E-12	467.118E-3	-24.6662E-3
-1.17809E-3	-24.7112E-12	431.484E-3	-40.4821E-3	-24.7326E-12	485.398E-3	-16.9230E-3
-1.18309E-3	-24.7385E-12	432.654E-3	-40.0195E-3	-24.8296E-12	521.992E-3	-2.19070E-3
-1.18809E-3	-25.1241E-12	441.277E-3	-34.0634E-3	-25.4377E-12	549.660E-3	411.264E-6
-1.19310E-3	-25.3095E-12	447.467E-3	-33.9433E-3	-25.4979E-12	548.797E-3	2.43215E-3
-1.19810E-3	-25.5366E-12	458.435E-3	-29.7884E-3	-25.4408E-12	550.368E-3	7.06945E-3
-1.20310E-3	-25.6042E-12	481.846E-3	-18.5493E-3	-25.6870E-12	573.219E-3	-6.14764E-3
-1.20810E-3	-26.0066E-12	505.284E-3	-17.4737E-3	-26.4204E-12	586.626E-3	-28.4738E-3
-1.21311E-3	-26.1877E-12	522.716E-3	-21.0721E-3	-25.9879E-12	585.176E-3	-32.0414E-3
-1.21811E-3	-26.3857E-12	531.628E-3	-13.2474E-3	-26.2689E-12	593.974E-3	-20.0453E-3
-1.22311E-3	-26.7228E-12	543.554E-3	-3.25508E-3	-26.5669E-12	621.312E-3	-10.1818E-3
-1.22811E-3	-26.8756E-12	568.192E-3	1.01595E-3	-26.9061E-12	662.509E-3	-4.64638E-3
-1.23312E-3	-27.1452E-12	589.902E-3	-2.18925E-3	-27.2653E-12	689.826E-3	-8.72455E-3
-1.23812E-3	-27.3844E-12	604.760E-3	-14.5775E-3	-27.0884E-12	687.048E-3	-16.0276E-3
-1.24312E-3	-27.6241E-12	615.226E-3	-16.3035E-3	-27.4597E-12	685.941E-3	-16.9394E-3
-1.24812E-3	-27.7277E-12	629.656E-3	-4.97444E-3	-27.6356E-12	708.055E-3	-16.2926E-3
-1.25313E-3	-28.0090E-12	648.753E-3	-4.24459E-3	-27.7548E-12	728.437E-3	-16.9660E-3
-1.25813E-3	-28.4889E-12	656.586E-3	-5.38600E-3	-27.6934E-12	733.798E-3	-6.78945E-3
-1.26313E-3	-28.3762E-12	663.867E-3	-1.44235E-3	-28.1679E-12	733.910E-3	-504.342E-6
-1.26813E-3	-28.4462E-12	678.852E-3	-1.35994E-3	-28.3075E-12	737.333E-3	-6.56434E-3
-1.27314E-3	-28.6899E-12	698.364E-3	3.48198E-3	-28.3780E-12	752.929E-3	-6.56607E-3
-1.27814E-3	-28.7343E-12	724.415E-3	8.90620E-3	-28.8189E-12	777.951E-3	-11.3684E-3
-1.28314E-3	-29.0454E-12	737.947E-3	-3.60040E-3	-29.2476E-12	805.955E-3	-20.0970E-3
-1.28814E-3	-29.6562E-12	744.518E-3	-14.3733E-3	-29.5080E-12	833.988E-3	-18.7861E-3
-1.29315E-3	-29.5526E-12	761.347E-3	-11.2815E-3	-29.7739E-12	852.250E-3	-19.2356E-3
-1.29815E-3	-30.0437E-12	772.810E-3	-11.9154E-3	-30.2184E-12	857.426E-3	-27.1331E-3
-1.30315E-3	-30.3607E-12	794.752E-3	-9.88805E-3	-30.1970E-12	868.602E-3	-20.7375E-3
-1.30815E-3	-30.5499E-12	831.421E-3	-1.51497E-3	-30.5441E-12	889.231E-3	-6.54065E-3
-1.31316E-3	-31.0305E-12	835.020E-3	-1.50617E-3	-31.2091E-12	908.899E-3	-7.68028E-3
-1.31816E-3	-31.5718E-12	824.419E-3	-1.12866E-3	-31.2646E-12	921.368E-3	-4.99693E-3
-1.32316E-3	-31.3300E-12	849.080E-3	-1.40234E-3	-31.8438E-12	924.990E-3	111.764E-6
-1.32816E-3	-31.6493E-12	875.906E-3	-16.9869E-3	-32.0854E-12	935.622E-3	-14.4359E-3
-1.33317E-3	-32.2367E-12	880.378E-3	-22.8533E-3	-32.4312E-12	955.435E-3	-24.0392E-3
-1.33817E-3	-32.1164E-12	891.826E-3	-20.0823E-3	-32.6101E-12	974.731E-3	-13.8470E-3
-1.34317E-3	-32.6140E-12	904.600E-3	-22.7083E-3	-32.7290E-12	978.726E-3	-10.7906E-3
-1.34817E-3	-32.5180E-12	913.704E-3	-20.5426E-3	-32.9839E-12	971.200E-3	-16.0063E-3
-1.35318E-3	-32.8230E-12	936.061E-3	-10.8934E-3	-33.2153E-12	975.284E-3	-15.2764E-3
-1.35818E-3	-33.4440E-12	952.659E-3	40.5359E-6	-33.7051E-12	987.348E-3	-11.7213E-3
-1.36318E-3	-33.9674E-12	954.707E-3	-9.35665E-3	-33.6850E-12	990.153E-3	-9.98327E-3
-1.36818E-3	-34.2754E-12	960.415E-3	-15.0309E-3	-34.2141E-12	995.332E-3	-11.1819E-3
-1.37319E-3	-34.6812E-12	977.399E-3	8.33024E-3	-34.4971E-12	1.02402E+0	-19.3088E-3
-1.37819E-3	-35.3476E-12	1.00234E+0	14.9283E-3	-34.4597E-12	1.04894E+0	-25.0171E-3
-1.38319E-3	-35.5259E-12	1.02519E+0	-7.19003E-3	-35.1159E-12	1.04910E+0	-12.8621E-3
-1.38819E-3	-36.2091E-12	1.02766E+0	-21.8536E-3	-35.5068E-12	1.04945E+0	-2.88188E-3
-1.39320E-3	-36.4235E-12	1.02314E+0	-28.5559E-3	-35.7906E-12	1.05364E+0	-16.6984E-3
-1.39820E-3	-36.9593E-12	1.04201E+0	-38.3687E-3	-35.8110E-12	1.06509E+0	-34.8101E-3
-1.40320E-3	-37.3922E-12	1.06468E+0	-42.9723E-3	-36.5014E-12	1.09628E+0	-45.5346E-3
-1.40820E-3	-37.2270E-12	1.07419E+0	-42.1513E-3	-37.0988E-12	1.11079E+0	-43.1538E-3
-1.41321E-3	-37.8571E-12	1.07600E+0	-43.8887E-3	-37.4280E-12	1.09991E+0	-19.7755E-3
-1.41821E-3	-38.0064E-12	1.07258E+0	-34.6871E-3	-37.8860E-12	1.10409E+0	-7.11817E-3
-1.42321E-3	-38.2083E-12	1.06578E+0	-8.75396E-3	-38.3852E-12	1.11298E+0	-12.3282E-3
-1.42821E-3	-38.5377E-12	1.06689E+0	6.21523E-3	-38.7260E-12	1.11169E+0	-12.1590E-3
-1.43322E-3	-39.2447E-12	1.08701E+0	5.78922E-3	-38.7875E-12	1.12443E+0	-15.1654E-3
-1.43822E-3	-39.4932E-12	1.09401E+0	1.62076E-3	-39.5361E-12	1.13533E+0	-27.8938E-3
-1.44322E-3	-39.4025E-12	1.08912E+0	-8.71091E-3	-39.7105E-12	1.12808E+0	-27.9533E-3
-1.44822E-3	-40.0733E-12	1.10448E+0	-17.7223E-3	-39.9770E-12	1.11923E+0	-16.1375E-3
-1.45323E-3	-40.1193E-12	1.12375E+0	-18.3460E-3	-40.4056E-12	1.12033E+0	-17.1109E-3
-1.45823E-3	-40.5231E-12	1.13387E+0	-21.2841E-3	-40.7802E-12	1.11847E+0	-23.5491E-3
-1.46323E-3	-41.0878E-12	1.13570E+0	-17.0579E-3	-41.0026E-12	1.11164E+0	-20.4495E-3
-1.46823E-3	-41.4472E-12	1.12255E+0	-4.92552E-3	-41.3380E-12	1.10428E+0	-14.3784E-3
-1.47324E-3	-41.4981E-12	1.10379E+0	4.71377E-3	-41.4520E-12	1.09374E+0	-15.3880E-3
-1.47824E-3	-42.2410E-12	1.09478E+0	11.4020E-3	-41.9301E-12	1.10684E+0	-22.0215E-3
-1.48324E-3	-42.6939E-12	1.09932E+0	7.78393E-3	-42.5264E-12	1.12750E+0	-28.0688E-3
-1.48824E-3	-42.7887E-12	1.10882E+0	-14.4059E-3	-42.5231E-12	1.11982E+0	-25.8847E-3
-1.49325E-3	-43.5754E-12	1.12527E+0	-33.7795E-3	-42.6098E-12	1.10064E+0	-18.7824E-3
-1.49825E-3	-43.9160E-12	1.14065E+0	-23.2681E-3	-43.2808E-12	1.10105E+0	-24.8790E-3
-1.50325E-3	-44.3068E-12	1.13953E+0	-10.7088E-3	-43.7582E-12	1.11181E+0	-36.9520E-3
-1.50825E-3	-44.5211E-12	1.14039E+0	-24.2666E-3	-43.9676E-12	1.11984E+0	-35.9281E-3
-1.51326E-3	-45.1360E-12	1.13529E+0	-26.8345E-3	-44.6780E-12	1.12524E+0	-24.6562E-3
-1.51826E-3	-45.2579E-12	1.10985E+0	-4.90122E-3	-45.7570E-12	1.11866E+0	-13.6518E-3
-1.52326E-3	-46.1191E-12	1.10541E+0	11.1498E-3	-45.8377E-12	1.11753E+0	-11.7470E-3
-1.52826E-3	-46.2558E-12	1.12980E+0	11.6711E-3	-46.1404E-12	1.13191E+0	-20.9680E-3
-1.53327E-3	-46.5945E-12	1.13882E+0	-10.7918E-3	-46.5199E-12	1.13293E+0	-23.9819E-3
-1.53827E-3	-47.2896E-12	1.13132E+0	-42.7264E-3	-47.1616E-12	1.11274E+0	-5.96362E-3
-1.54327E-3	-47.5795E-12	1.12797E+0	-55.0979E-3	-47.5233E-12	1.10015E+0	6.14307E-3
-1.54827E-3	-47.7477E-12	1.11787E+0	-38.1566E-3	-47.2787E-12	1.10033E+0	-13.1280E-3
-1.55328E-3	-48.2600E-12	1.11782E+0	-14.5950E-3	-47.7731E-12	1.09943E+0	-27.3658E-3
-1.55828E-3	-48.4559E-12	1.13558E+0	-9.53226E-3	-48.2058E-12	1.09687E+0	-13.8383E-3
-1.56328E-3	-49.1338E-12	1.13388E+0	-15.8734E-3	-48.5454E-12	1.08812E+0	-10.5024E-3
-1.56828E-3	-49.3611E-12	1.11904E+0	-24.3249E-3	-48.8259E-12	1.07351E+0	-20.7497E-3
-1.57329E-3	-49.9059E-12	1.10595E+0	-30.8455E-3	-49.1052E-12	1.06863E+0	-16.8938E-3
-1.57829E-3	-50.0658E-12	1.09520E+0	-19.3587E-3	-49.5362E-12	1.06718E+0	-19.2063E-3
-1.58329E-3	-50.3780E-12	1.09811E+0	2.15091E-3	-49.7875E-12	1.05113E+0	-33.8374E-3
-1.58829E-3	-50.6735E-12	1.10046E+0	6.56731E-3	-50.1395E-12	1.03268E+0	-37.5628E-3
-1.59330E-3	-51.1777E-12	1.08738E+0	-1.47050E-3	-50.4677E-12	1.02898E+0	-32.5657E-3
-1.59830E-3	-51.4449E-12	1.08266E+0	-559.012E-6	-50.9369E-12	1.03615E+0	-23.0980E-3
-1.60330E-3	-51.5402E-12	1.09046E+0	5.67550E-3	-51.1809E-12	1.05323E+0	-13.1412E-3
-1.60830E-3	-51.8951E-12	1.09080E+0	7.98864E-3	-51.6948E-12	1.06559E+0	-15.2553E-3
-1.61331E-3	-52.2709E-12	1.07804E+0	-6.32816E-3	-52.3525E-12	1.06018E+0	-21.2206E-3
-1.61831E-3	-52.4463E-12	1.05559E+0	-35.3461E-3	-52.7486E-12	1.06204E+0	-12.2283E-3
-1.62331E-3	-52.8103E-12	1.04273E+0	-32.8077E-3	-53.0266E-12	1.07016E+0	-10.8827E-3
-1.62831E-3	-52.9991E-12	1.04723E+0	-15.1683E-3	-53.6049E-12	1.06981E+0	-19.2944E-3
-1.63332E-3	-53.7775E-12	1.05340E+0	-26.6985E-3	-53.9939E-12	1.07292E+0	-14.0269E-3
-1.63832E-3	-53.8804E-12	1.05261E+0	-35.9735E-3	-54.4369E-12	1.07606E+0	-19.2531E-3
-1.64332E-3	-54.3191E-12	1.04179E+0	-28.2439E-3	-54.8251E-12	1.05831E+0	-30.5208E-3
-1.64832E-3	-54.5480E-12	1.03567E+0	-16.4562E-3	-54.9376E-12	1.04045E+0	-19.1596E-3
-1.65333E-3	-54.8424E-12	1.04174E+0	-1.63809E-3	-55.1804E-12	1.04031E+0	-5.63568E-3
-1.65833E-3	-55.2500E-12	1.03239E+0	5.15767E-3	-55.4592E-12	1.03235E+0	-1.62192E-3
-1.66333E-3	-55.7320E-12	1.02296E+0	2.39127E-3	-55.9633E-12	1.01985E+0	3.65954E-3
-1.66833E-3	-56.3300E-12	1.02852E+0	260.227E-6	-55.9977E-12	1.01541E+0	5.36188E-3
-1.67334E-3	-57.0489E-12	1.02747E+0	-8.24111E-3	-56.3757E-12	998.137E-3	-7.88271E-3
-1.67834E-3	-57.0969E-12	1.01756E+0	-18.8921E-3	-56.5250E-12	973.568E-3	-22.9404E-3
-1.68334E-3	-57.5752E-12	1.00988E+0	-12.7275E-3	-56.5762E-12	965.752E-3	-18.8515E-3
-1.68834E-3	-57.5662E-12	1.01813E+0	-12.6856E-3	-56.6643E-12	957.343E-3	-9.75344E-3
-1.69335E-3	-57.6664E-12	1.02585E+0	-33.5713E-3	-56.9200E-12	939.982E-3	-8.54583E-3
-1.69835E-3	-57.8128E-12	1.02259E+0	-31.7670E-3	-57.5733E-12	937.926E-3	-18.1246E-3
-1.70335E-3	-58.2035E-12	1.01117E+0	-3.64655E-3	-57.5478E-12	946.260E-3	-29.0812E-3
-1.70835E-3	-58.5342E-12	989.030E-3	577.201E-6	-58.2715E-12	953.185E-3	-9.53486E-3
-1.71336E-3	-58.8333E-12	982.661E-3	-13.2919E-3	-58.5467E-12	963.585E-3	15.6986E-3
-1.71836E-3	-59.2331E-12	979.892E-3	-21.5500E-3	-59.1552E-12	960.005E-3	3.25660E-3
-1.72336E-3	-59.6996E-12	963.043E-3	-22.1247E-3	-59.4515E-12	947.117E-3	-14.9396E-3
-1.72836E-3	-60.1132E-12	951.485E-3	-10.9315E-3	-59.9057E-12	952.202E-3	-10.6488E-3
-1.73337E-3	-60.2429E-12	947.584E-3	-3.52481E-3	-60.3938E-12	953.342E-3	-876.081E-6
-1.73837E-3	-60.3749E-12	944.782E-3	-5.61441E-3	-60.9070E-12	936.869E-3	7.98639E-3
-1.74337E-3	-61.4037E-12	939.434E-3	-11.1313E-3	-61.0160E-12	929.981E-3	3.49005E-3
-1.74837E-3	-61.6124E-12	928.368E-3	-20.2385E-3	-61.1491E-12	920.632E-3	-22.7648E-3
-1.75338E-3	-61.7931E-12	913.786E-3	-33.8498E-3	-61.8482E-12	887.836E-3	-35.0768E-3
-1.75838E-3	-62.2565E-12	913.714E-3	-32.6690E-3	-62.0471E-12	870.770E-3	-17.1901E-3
-1.76338E-3	-62.9610E-12	914.398E-3	-16.1489E-3	-62.1792E-12	878.566E-3	-9.21408E-3
-1.76838E-3	-62.5629E-12	900.335E-3	-16.9542E-3	-62.2477E-12	870.725E-3	-15.3460E-3
-1.77339E-3	-63.0454E-12	900.784E-3	-13.9306E-3	-62.5307E-12	871.352E-3	-9.60249E-3
-1.77839E-3	-63.3508E-12	912.298E-3	-871.286E-6	-62.4817E-12	894.738E-3	-8.93172E-3
-1.78339E-3	-63.1374E-12	915.102E-3	-22.7391E-3	-62.4516E-12	905.451E-3	-21.8511E-3
-1.78839E-3	-63.6401E-12	919.026E-3	-49.1952E-3	-62.4987E-12	902.729E-3	-23.0698E-3
-1.79340E-3	-64.0426E-12	924.855E-3	-33.8386E-3	-62.9293E-12	893.545E-3	-11.4675E-3
-1.79840E-3	-64.4809E-12	922.595E-3	-14.5482E-3	-63.2028E-12	874.082E-3	-7.21684E-3
-1.80340E-3	-64.2721E-12	923.807E-3	-12.7510E-3	-63.4032E-12	862.827E-3	-2.24165E-3
-1.80840E-3	-64.7045E-12	928.352E-3	-9.33472E-3	-63.8154E-12	872.956E-3	1.65208E-3
-1.81341E-3	-65.1560E-12	911.561E-3	-4.38059E-3	-64.5617E-12	881.332E-3	-15.0718E-3
-1.81841E-3	-65.4720E-12	896.182E-3	-4.29320E-3	-64.7969E-12	878.955E-3	-29.3129E-3
-1.82341E-3	-65.8291E-12	899.231E-3	-7.37973E-3	-65.0712E-12	885.971E-3	-29.3632E-3
-1.82841E-3	-66.5758E-12	881.495E-3	-12.5320E-3	-65.5604E-12	890.764E-3	-33.2857E-3
-1.83342E-3	-66.8419E-12	859.962E-3	-23.2836E-3	-66.2825E-12	885.227E-3	-27.7002E-3
-1.83842E-3	-67.0082E-12	859.339E-3	-28.0253E-3	-66.6625E-12	890.365E-3	-19.7028E-3
-1.84342E-3	-67.2766E-12	855.565E-3	-24.2293E-3	-67.0205E-12	890.868E-3	-27.5940E-3
-1.84842E-3	-67.8046E-12	858.468E-3	-24.0827E-3	-67.7821E-12	875.226E-3	-24.6907E-3
-1.85343E-3	-67.5704E-12	872.172E-3	-20.1860E-3	-68.1408E-12	858.631E-3	-4.75775E-3
-1.85843E-3	-67.7326E-12	874.191E-3	-15.7361E-3	-68.1948E-12	856.582E-3	-549.308E-6
-1.86343E-3	-67.9746E-12	853.765E-3	-19.8963E-3	-68.5742E-12	856.522E-3	-16.2414E-3
-1.86843E-3	-68.1973E-12	831.146E-3	-18.6153E-3	-69.2516E-12	853.294E-3	-25.6494E-3
-1.87344E-3	-67.8469E-12	827.298E-3	-5.58121E-3	-69.1845E-12	850.757E-3	-25.5726E-3
-1.87844E-3	-68.2708E-12	839.751E-3	2.52990E-3	-68.9719E-12	842.332E-3	-23.1416E-3
-1.88344E-3	-68.8961E-12	858.999E-3	1.21290E-3	-69.3702E-12	842.039E-3	-15.3990E-3
-1.88844E-3	-68.7975E-12	863.291E-3	-674.996E-6	-69.5257E-12	851.698E-3	-18.1971E-3
-1.89345E-3	-69.3453E-12	851.990E-3	-11.3939E-3	-69.7658E-12	849.442E-3	-29.0953E-3
-1.89845E-3	-69.7546E-12	847.732E-3	-23.0078E-3	-69.7609E-12	840.540E-3	-19.5927E-3
-1.90345E-3	-70.2591E-12	846.940E-3	-21.6326E-3	-70.6479E-12	835.577E-3	-15.3380E-3
-1.90845E-3	-70.4205E-12	837.425E-3	-22.9329E-3	-70.7723E-12	822.705E-3	-32.7385E-3
-1.91346E-3	-70.7166E-12	834.497E-3	-23.1485E-3	-70.8954E-12	814.306E-3	-31.1819E-3
-1.91846E-3	-71.1392E-12	825.572E-3	-12.2836E-3	-71.2241E-12	821.250E-3	-17.6105E-3
-1.92346E-3	-71.5671E-12	810.845E-3	-3.68712E-3	-71.7267E-12	828.735E-3	-15.1326E-3
-1.92846E-3	-71.7749E-12	818.740E-3	-2.33379E-3	-71.9148E-12	833.660E-3	-14.1947E-3
-1.93347E-3	-72.0947E-12	827.608E-3	-7.69992E-3	-72.2463E-12	832.963E-3	-18.5751E-3
-1.93847E-3	-72.7212E-12	825.431E-3	-16.9630E-3	-72.7342E-12	822.805E-3	-23.6054E-3
-1.94347E-3	-73.2529E-12	828.151E-3	-23.0776E-3	-72.9440E-12	818.753E-3	-24.8663E-3
-1.94847E-3	-73.3726E-12	830.054E-3	-19.1889E-3	-73.2576E-12	819.543E-3	-14.7620E-3
-1.95348E-3	-73.2443E-12	819.878E-3	-11.1014E-3	-73.6299E-12	818.689E-3	3.12111E-3
-1.95848E-3	-73.7771E-12	810.497E-3	-15.7075E-3	-73.8093E-12	810.662E-3	8.72656E-3
-1.96348E-3	-73.8225E-12	805.871E-3	-18.5299E-3	-73.6382E-12	800.376E-3	3.51489E-3
-1.96848E-3	-73.6793E-12	798.146E-3	-13.7145E-3	-73.9199E-12	788.517E-3	-10.5068E-3
-1.97349E-3	-73.9591E-12	803.202E-3	-18.2934E-3	-74.3692E-12	761.971E-3	-20.1015E-3
-1.97849E-3	-74.2776E-12	813.880E-3	-15.9039E-3	-74.1019E-12	752.392E-3	-12.8705E-3
-1.98349E-3	-74.4292E-12	814.016E-3	-2.25488E-3	-74.3580E-12	768.048E-3	-3.27067E-3
-1.98849E-3	-74.8131E-12	816.516E-3	-6.36646E-3	-74.5272E-12	771.279E-3	-7.53475E-3
-1.99350E-3	-75.3116E-12	813.675E-3	-15.2128E-3	-74.6060E-12	769.191E-3	-13.5554E-3
-1.99850E-3	-75.6527E-12	794.229E-3	-16.6472E-3	-74.5282E-12	781.406E-3	-16.0134E-3
-2.00350E-3	-76.2816E-12	788.204E-3	-35.8711E-3	-74.9860E-12	789.400E-3	-20.8132E-3
-2.00850E-3	-76.7636E-12	796.937E-3	-36.2554E-3	-75.1029E-12	786.379E-3	-18.0136E-3
-2.01351E-3	-76.9469E-12	793.005E-3	-4.36375E-3	-75.1050E-12	774.029E-3	-23.9688E-3
-2.01851E-3	-77.2169E-12	793.515E-3	4.51817E-3	-75.7195E-12	754.693E-3	-32.7892E-3
-2.02351E-3	-77.5420E-12	800.536E-3	-4.44353E-3	-75.7028E-12	740.122E-3	-16.0730E-3
-2.02851E-3	-77.7814E-12	789.304E-3	4.23234E-3	-76.0625E-12	736.501E-3	1.22373E-3
-2.03352E-3	-77.7935E-12	776.739E-3	5.70346E-3	-76.4429E-12	748.429E-3	2.81819E-3
-2.03852E-3	-77.5884E-12	779.885E-3	-12.5168E-3	-76.7474E-12	769.131E-3	3.39873E-3
-2.04352E-3	-77.9288E-12	781.071E-3	-20.3394E-3	-77.3667E-12	776.782E-3	-6.05663E-3
-2.04852E-3	-77.7418E-12	777.248E-3	-17.6125E-3	-77.7187E-12	774.082E-3	-35.0450E-3
-2.05353E-3	-77.9748E-12	778.406E-3	-18.3255E-3	-78.2993E-12	790.353E-3	-49.0965E-3
-2.05853E-3	-77.9701E-12	775.946E-3	-26.4285E-3	-78.3586E-12	811.801E-3	-26.3153E-3
-2.06353E-3	-78.0401E-12	774.035E-3	-32.2975E-3	-78.9805E-12	812.270E-3	-1.70060E-3
-2.06853E-3	-77.9214E-12	776.062E-3	-26.4251E-3	-79.0018E-12	791.298E-3	8.44284E-3
-2.07354E-3	-78.1376E-12	769.723E-3	-7.88831E-3	-79.1574E-12	770.069E-3	7.69826E-3
-2.07854E-3	-78.3150E-12	756.401E-3	4.93148E-3	-79.3514E-12	766.071E-3	-36.6819E-6
-2.08354E-3	-78.5169E-12	765.357E-3	-8.35003E-3	-79.7761E-12	772.345E-3	489.589E-6
-2.08854E-3	-79.0621E-12	789.836E-3	-19.9526E-3	-80.0002E-12	772.402E-3	2.03605E-3
-2.09355E-3	-79.4326E-12	781.626E-3	-17.3729E-3	-79.7139E-12	739.331E-3	-17.7676E-3
-2.09855E-3	-79.8601E-12	762.761E-3	-19.8997E-3	-79.9657E-12	708.655E-3	-32.7883E-3
-2.10355E-3	-80.2111E-12	776.829E-3	-26.8432E-3	-79.9990E-12	736.828E-3	-18.2549E-3
-2.10855E-3	-80.8565E-12	784.839E-3	-27.3378E-3	-79.5377E-12	770.471E-3	-16.6731E-3
-2.11356E-3	-81.1789E-12	770.813E-3	-9.27965E-3	-79.4971E-12	755.337E-3	-24.6388E-3
-2.11856E-3	-81.5738E-12	763.807E-3	17.0923E-3	-79.8639E-12	740.102E-3	-15.7294E-3
-2.12356E-3	-81.9391E-12	763.487E-3	19.4905E-3	-80.5594E-12	753.468E-3	-20.6444E-3
-2.12856E-3	-82.0553E-12	768.303E-3	-7.41307E-3	-80.4300E-12	759.636E-3	-28.3409E-3
-2.13357E-3	-82.1099E-12	775.142E-3	-20.3842E-3	-80.9540E-12	753.531E-3	-14.4489E-3
-2.13857E-3	-82.4587E-12	773.261E-3	-5.71287E-3	-81.8675E-12	750.467E-3	-19.3424E-3
-2.14357E-3	-82.3935E-12	764.522E-3	-1.23985E-3	-82.0939E-12	741.477E-3	-45.1801E-3
-2.14857E-3	-82.2235E-12	760.975E-3	-19.1293E-3	-82.4552E-12	740.464E-3	-51.5695E-3
-2.15358E-3	-82.8509E-12	758.768E-3	-34.9785E-3	-83.1337E-12	761.007E-3	-31.5230E-3
-2.15858E-3	-83.4552E-12	753.181E-3	-36.9800E-3	-84.2590E-12	762.803E-3	-10.2201E-3
-2.16358E-3	-83.6951E-12	741.723E-3	-32.7861E-3	-84.7570E-12	748.040E-3	-424.927E-6
-2.16858E-3	-84.0172E-12	725.492E-3	-30.2027E-3	-85.0265E-12	750.187E-3	-7.94221E-3
-2.17359E-3	-84.1649E-12	716.253E-3	-30.3291E-3	-85.5489E-12	740.693E-3	-33.9081E-3
-2.17859E-3	-84.6343E-12	723.141E-3	-15.1935E-3	-85.8973E-12	724.537E-3	-49.0827E-3
-2.18359E-3	-84.8472E-12	738.670E-3	2.91024E-3	-85.6948E-12	728.926E-3	-44.0605E-3
-2.18859E-3	-84.9711E-12	740.664E-3	-4.92077E-3	-85.6043E-12	726.165E-3	-39.9694E-3
-2.19360E-3	-85.3339E-12	738.535E-3	-16.7142E-3	-85.5849E-12	727.893E-3	-27.1309E-3
-2.19860E-3	-85.5186E-12	749.574E-3	702.323E-6	-85.6721E-12	749.384E-3	-9.42229E-3
-2.20360E-3	-85.2530E-12	758.036E-3	17.0961E-3	-85.2990E-12	757.791E-3	-5.13442E-3
-2.20860E-3	-85.6749E-12	751.723E-3	-6.25066E-3	-85.3757E-12	742.803E-3	5.27605E-3
-2.21361E-3	-86.3870E-12	739.997E-3	-34.3872E-3	-85.7025E-12	723.448E-3	9.19992E-3
-2.21861E-3	-86.0431E-12	729.311E-3	-44.0239E-3	-85.7148E-12	715.341E-3	-9.80336E-3
-2.22361E-3	-86.2546E-12	731.961E-3	-30.9948E-3	-85.7584E-12	717.290E-3	-13.8678E-3
-2.22861E-3	-86.0586E-12	741.455E-3	-6.67663E-3	-86.0842E-12	730.200E-3	-7.41571E-3
-2.23362E-3	-86.6809E-12	736.284E-3	-13.0682E-3	-86.6159E-12	738.728E-3	-19.2096E-3
-2.23862E-3	-86.7016E-12	733.021E-3	-30.7683E-3	-86.9540E-12	726.386E-3	-13.8375E-3
-2.24362E-3	-87.1448E-12	737.462E-3	-21.1350E-3	-87.7857E-12	718.285E-3	-3.60715E-3
-2.24862E-3	-87.8418E-12	736.232E-3	-13.2825E-3	-88.9715E-12	724.638E-3	-21.1669E-3
-2.25363E-3	-88.2701E-12	740.965E-3	-22.4744E-3	-89.0684E-12	737.154E-3	-21.7008E-3
-2.25863E-3	-88.7227E-12	751.221E-3	-18.4640E-3	-89.5630E-12	744.351E-3	-7.72860E-3
-2.26363E-3	-89.1302E-12	751.425E-3	-16.3612E-3	-90.0910E-12	735.079E-3	-4.11110E-3
-2.26863E-3	-89.7892E-12	743.449E-3	-24.6277E-3	-90.5165E-12	732.488E-3	-3.94803E-3
-2.27364E-3	-89.9835E-12	734.944E-3	-23.4044E-3	-90.9406E-12	733.699E-3	-4.61168E-3
-2.27864E-3	-89.9934E-12	718.692E-3	-10.8926E-3	-91.1616E-12	728.347E-3	-2.65124E-3
-2.28364E-3	-90.6067E-12	703.332E-3	-2.27002E-3	-91.3477E-12	720.261E-3	-9.83788E-3
-2.28864E-3	-90.4741E-12	717.065E-3	-11.3294E-3	-91.5091E-12	705.481E-3	-13.1572E-3
-2.29365E-3	-90.5245E-12	738.905E-3	-6.84097E-3	-91.5076E-12	694.034E-3	-3.85361E-3
-2.29865E-3	-90.5755E-12	738.015E-3	-10.7823E-3	-91.1151E-12	695.375E-3	-9.58775E-3
-2.30365E-3	-90.3339E-12	729.219E-3	-34.9939E-3	-91.0296E-12	718.690E-3	-11.1643E-3
-2.30865E-3	-90.1280E-12	726.117E-3	-26.6511E-3	-90.9266E-12	737.218E-3	-5.32352E-3
-2.31366E-3	-90.4071E-12	730.790E-3	-19.9177E-3	-91.0811E-12	717.953E-3	-7.41820E-3
-2.31866E-3	-90.2028E-12	728.549E-3	-40.7120E-3	-91.2329E-12	700.637E-3	3.72139E-3
-2.32366E-3	-90.3305E-12	717.000E-3	-45.3379E-3	-91.3979E-12	717.990E-3	1.77692E-3
-2.32866E-3	-91.0875E-12	728.720E-3	-38.3721E-3	-91.0649E-12	738.006E-3	-28.9995E-3
-2.33367E-3	-90.9450E-12	746.973E-3	-36.4300E-3	-91.6524E-12	746.046E-3	-36.2718E-3
-2.33867E-3	-91.7850E-12	737.832E-3	-26.5865E-3	-91.9674E-12	750.978E-3	-11.4739E-3
-2.34367E-3	-92.4132E-12	723.604E-3	-29.3376E-3	-91.8603E-12	736.104E-3	-11.1503E-3
-2.34867E-3	-93.0479E-12	717.092E-3	-39.7544E-3	-92.0283E-12	715.348E-3	-23.6255E-3
-2.35368E-3	-93.8293E-12	709.828E-3	-24.4762E-3	-93.2940E-12	717.829E-3	-18.8538E-3
-2.35868E-3	-94.7197E-12	705.558E-3	-16.7506E-3	-93.4155E-12	722.843E-3	-10.6983E-3
-2.36368E-3	-95.1897E-12	709.530E-3	-23.8969E-3	-93.7097E-12	712.176E-3	8.45301E-3
-2.36868E-3	-95.0362E-12	713.395E-3	-21.4421E-3	-93.5634E-12	711.851E-3	17.8847E-3
-2.37369E-3	-95.5103E-12	708.415E-3	-21.6566E-3	-94.1498E-12	726.258E-3	-1.93576E-3
-2.37869E-3	-95.4584E-12	705.965E-3	-25.1976E-3	-94.1993E-12	731.625E-3	-20.7374E-3
-2.38369E-3	-95.5206E-12	706.196E-3	-22.5112E-3	-94.2210E-12	725.222E-3	-25.6000E-3
-2.38869E-3	-95.1649E-12	697.638E-3	-17.3712E-3	-94.4630E-12	704.880E-3	-26.9550E-3
-2.39370E-3	-95.3534E-12	696.646E-3	-20.8333E-3	-94.9593E-12	685.074E-3	-12.1656E-3
-2.39870E-3	-94.9987E-12	709.658E-3	-17.8555E-3	-94.7233E-12	685.848E-3	3.96516E-3
-2.40370E-3	-94.9070E-12	700.466E-3	-16.0749E-3	-94.5582E-12	696.517E-3	-9.08162E-3
-2.40870E-3	-94.8673E-12	690.741E-3	-29.3074E-3	-94.7063E-12	704.691E-3	-17.5609E-3
-2.41371E-3	-95.1237E-12	701.656E-3	-18.8430E-3	-95.0487E-12	699.496E-3	-185.695E-6
-2.41871E-3	-95.1897E-12	699.914E-3	-1.69995E-3	-94.7824E-12	686.674E-3	8.31356E-3
-2.42371E-3	-95.5235E-12	701.490E-3	-16.3857E-3	-94.8059E-12	682.672E-3	-10.5430E-3
-2.42871E-3	-95.9709E-12	704.938E-3	-21.5326E-3	-95.0006E-12	676.624E-3	-25.7378E-3
-2.43372E-3	-96.7749E-12	693.722E-3	-13.8352E-3	-95.3122E-12	680.529E-3	-25.9527E-3
-2.43872E-3	-96.9014E-12	700.737E-3	-23.4637E-3	-95.2695E-12	693.497E-3	-26.5738E-3
-2.44372E-3	-97.2240E-12	726.737E-3	-18.3763E-3	-95.6643E-12	699.306E-3	-10.2629E-3
-2.44872E-3	-97.8077E-12	736.704E-3	-4.15220E-3	-96.6972E-12	722.159E-3	-4.03344E-3
-2.45373E-3	-98.3329E-12	730.127E-3	-18.4323E-3	-96.8694E-12	735.255E-3	-29.4764E-3
-2.45873E-3	-98.7214E-12	727.430E-3	-26.9888E-3	-97.4995E-12	719.546E-3	-35.6441E-3
-2.46373E-3	-98.7501E-12	712.046E-3	-9.74396E-3	-98.3393E-12	718.371E-3	-24.2560E-3
-2.46873E-3	-99.5196E-12	694.555E-3	-13.8728E-3	-98.8336E-12	723.808E-3	-33.4849E-3
-2.47374E-3	-99.3881E-12	704.849E-3	-29.3617E-3	-98.9957E-12	718.703E-3	-38.9830E-3
-2.47874E-3	-99.5612E-12	711.618E-3	-16.6195E-3	-99.9385E-12	723.617E-3	-26.5788E-3
-2.48374E-3	-99.0617E-12	712.633E-3	-4.28015E-3	-100.024E-12	723.339E-3	-22.3299E-3
-2.48874E-3	-99.0012E-12	719.993E-3	-8.96381E-3	-101.012E-12	703.841E-3	-13.4119E-3
-2.49375E-3	-98.7205E-12	711.148E-3	-12.4613E-3	-101.156E-12	699.807E-3	-10.0008E-3
-2.49875E-3	-98.9763E-12	693.791E-3	-27.3646E-3	-101.147E-12	696.804E-3	-34.5837E-3
-2.50375E-3	-99.1525E-12	698.793E-3	-40.0519E-3	-101.612E-12	679.741E-3	-35.9145E-3
-2.50875E-3	-99.6361E-12	710.436E-3	-26.7960E-3	-102.320E-12	691.967E-3	-7.39586E-3
-2.51376E-3	-99.9355E-12	700.694E-3	-21.7915E-3	-102.050E-12	724.122E-3	-624.181E-6
-2.51876E-3	-100.472E-12	694.501E-3	-36.3541E-3	-101.629E-12	732.588E-3	1.99081E-3
-2.52376E-3	-101.218E-12	704.236E-3	-36.0648E-3	-102.295E-12	720.022E-3	17.6639E-3
-2.52876E-3	-101.526E-12	704.905E-3	-23.7420E-3	-102.307E-12	702.357E-3	13.6623E-3
-2.53377E-3	-102.060E-12	698.684E-3	-13.0065E-3	-101.744E-12	687.926E-3	-5.08643E-3
-2.53877E-3	-102.807E-12	705.901E-3	11.3839E-3	-101.747E-12	681.141E-3	-11.4636E-3
-2.54377E-3	-102.861E-12	722.134E-3	16.1574E-3	-102.032E-12	686.179E-3	-18.7791E-3
-2.54877E-3	-103.228E-12	722.758E-3	-11.8206E-3	-101.846E-12	702.886E-3	-33.0072E-3
-2.55378E-3	-103.752E-12	712.089E-3	-25.0134E-3	-101.972E-12	719.625E-3	-28.5637E-3
-2.55878E-3	-104.023E-12	703.139E-3	-23.0191E-3	-103.018E-12	728.597E-3	-10.7290E-3
-2.56378E-3	-104.770E-12	707.966E-3	-21.5867E-3	-102.567E-12	712.158E-3	-1.23968E-3
-2.56878E-3	-104.191E-12	725.370E-3	-6.52248E-3	-103.465E-12	704.256E-3	328.988E-6
-2.57379E-3	-104.308E-12	726.618E-3	1.42135E-3	-104.358E-12	739.407E-3	-5.86140E-3
-2.57879E-3	-104.146E-12	719.369E-3	-13.6769E-3	-104.672E-12	759.633E-3	-9.95449E-3
-2.58379E-3	-104.268E-12	713.946E-3	-25.1818E-3	-105.098E-12	741.787E-3	-7.16081E-3
-2.58879E-3	-104.112E-12	712.144E-3	-22.4824E-3	-105.327E-12	732.826E-3	-10.8803E-3
-2.59380E-3	-104.326E-12	712.988E-3	-12.0607E-3	-105.925E-12	728.493E-3	-22.2299E-3
-2.59880E-3	-105.011E-12	703.664E-3	1.54183E-3	-106.086E-12	716.214E-3	-20.6646E-3
-2.60380E-3	-105.388E-12	687.263E-3	8.61871E-3	-106.499E-12	713.989E-3	-4.44023E-3
-2.60880E-3	-105.841E-12	680.803E-3	5.23562E-3	-105.511E-12	706.706E-3	-7.27705E-3
-2.61381E-3	-105.860E-12	702.037E-3	2.67352E-3	-105.984E-12	688.475E-3	-5.28498E-3
-2.61881E-3	-106.481E-12	716.584E-3	-2.84187E-3	-106.269E-12	681.816E-3	19.7746E-3
-2.62381E-3	-106.220E-12	709.882E-3	-20.9784E-3	-106.310E-12	687.893E-3	14.3851E-3
-2.62881E-3	-106.555E-12	716.302E-3	-34.2317E-3	-105.822E-12	692.090E-3	-13.0305E-3
-2.63382E-3	-106.475E-12	718.471E-3	-34.1149E-3	-105.880E-12	687.375E-3	-22.6039E-3
-2.63882E-3	-106.111E-12	703.863E-3	-30.9211E-3	-105.807E-12	688.475E-3	-22.7701E-3
-2.64382E-3	-106.524E-12	695.476E-3	-19.6509E-3	-105.660E-12	698.308E-3	-14.4611E-3
-2.64882E-3	-106.681E-12	687.954E-3	-8.20093E-3	-105.503E-12	700.703E-3	-8.29648E-3
-2.65383E-3	-106.466E-12	675.378E-3	-12.9767E-3	-105.865E-12	696.987E-3	-13.9286E-3
-2.65883E-3	-106.762E-12	683.151E-3	-15.8227E-3	-106.371E-12	687.753E-3	-5.14557E-3
-2.66383E-3	-107.101E-12	709.415E-3	-9.01159E-3	-107.134E-12	678.754E-3	12.0642E-3
-2.66883E-3	-106.976E-12	719.011E-3	-11.7007E-3	-108.161E-12	687.240E-3	137.547E-6
-2.67384E-3	-107.688E-12	720.067E-3	-15.2461E-3	-108.772E-12	698.972E-3	-28.1981E-3
-2.67884E-3	-107.815E-12	722.996E-3	-191.021E-6	-109.167E-12	699.157E-3	-35.8639E-3
-2.68384E-3	-108.333E-12	713.959E-3	16.5161E-3	-109.907E-12	703.969E-3	-29.7870E-3
-2.68884E-3	-109.145E-12	714.414E-3	6.98634E-3	-110.562E-12	707.527E-3	-24.1294E-3
-2.69385E-3	-110.213E-12	725.925E-3	-22.3230E-3	-110.669E-12	695.639E-3	-27.7155E-3
-2.69885E-3	-110.185E-12	715.156E-3	-34.3868E-3	-111.298E-12	698.541E-3	-39.2977E-3
-2.70385E-3	-110.762E-12	698.174E-3	-23.5902E-3	-111.512E-12	715.726E-3	-36.9531E-3
-2.70885E-3	-111.332E-12	709.493E-3	-23.0305E-3	-112.000E-12	712.716E-3	-22.2402E-3
-2.71386E-3	-111.469E-12	716.086E-3	-25.4490E-3	-111.196E-12	710.541E-3	-20.4635E-3
-2.71886E-3	-111.230E-12	698.259E-3	-30.6468E-3	-111.576E-12	711.574E-3	-27.8244E-3
-2.72386E-3	-111.089E-12	692.316E-3	-30.8727E-3	-111.277E-12	700.083E-3	-19.9575E-3
-2.72886E-3	-111.404E-12	685.470E-3	-11.1898E-3	-110.935E-12	696.069E-3	-11.7304E-3
-2.73387E-3	-110.354E-12	667.573E-3	-6.34734E-3	-110.241E-12	695.741E-3	-24.6901E-3
-2.73887E-3	-110.629E-12	666.547E-3	-21.6199E-3	-110.842E-12	685.560E-3	-38.7490E-3
-2.74387E-3	-110.331E-12	671.742E-3	-31.5189E-3	-110.235E-12	678.225E-3	-39.0789E-3
-2.74887E-3	-110.390E-12	674.294E-3	-32.1998E-3	-110.240E-12	682.010E-3	-35.9742E-3
-2.75388E-3	-110.318E-12	683.853E-3	-17.2297E-3	-110.839E-12	689.692E-3	-19.5685E-3
-2.75888E-3	-111.278E-12	680.657E-3	348.066E-6	-111.456E-12	692.253E-3	15.7221E-3
-2.76388E-3	-111.284E-12	662.972E-3	-9.51997E-3	-112.188E-12	682.963E-3	10.9470E-3
-2.76888E-3	-111.595E-12	671.109E-3	-20.3534E-3	-112.506E-12	682.942E-3	-30.0334E-3
-2.77389E-3	-112.394E-12	701.684E-3	-9.74467E-3	-113.862E-12	701.445E-3	-36.9784E-3
-2.77889E-3	-112.869E-12	719.152E-3	-11.4591E-3	-114.227E-12	716.698E-3	-12.0441E-3
-2.78389E-3	-113.369E-12	719.013E-3	-35.0577E-3	-114.747E-12	712.128E-3	270.360E-6
-2.78889E-3	-113.679E-12	704.069E-3	-45.0362E-3	-114.736E-12	686.753E-3	-15.2383E-3
-2.79390E-3	-114.679E-12	699.676E-3	-27.9741E-3	-115.066E-12	667.410E-3	-34.1151E-3
-2.79890E-3	-115.188E-12	701.640E-3	-14.9832E-3	-115.601E-12	671.680E-3	-37.8206E-3
-2.80390E-3	-115.172E-12	695.013E-3	-6.25935E-3	-116.054E-12	681.312E-3	-35.1785E-3
-2.80890E-3	-114.943E-12	681.971E-3	-1.39355E-3	-115.683E-12	697.967E-3	-31.3110E-3
-2.81391E-3	-115.199E-12	676.199E-3	-17.5613E-3	-115.067E-12	709.350E-3	-9.59183E-3
-2.81891E-3	-115.107E-12	701.217E-3	-21.5439E-3	-115.402E-12	693.866E-3	15.8447E-3
-2.82391E-3	-114.818E-12	703.859E-3	-2.76081E-3	-114.535E-12	691.299E-3	7.93559E-3
-2.82891E-3	-114.659E-12	685.023E-3	26.7291E-3	-114.739E-12	700.994E-3	-14.5415E-3
-2.83392E-3	-114.368E-12	689.289E-3	46.5134E-3	-114.970E-12	686.679E-3	-9.06682E-3
-2.83892E-3	-114.943E-12	685.601E-3	15.0943E-3	-114.575E-12	677.222E-3	2.45897E-3
-2.84392E-3	-114.649E-12	689.584E-3	-38.6844E-3	-115.047E-12	670.773E-3	-5.51806E-3
-2.84892E-3	-114.887E-12	711.524E-3	-60.6468E-3	-114.686E-12	662.599E-3	-21.6622E-3
-2.85393E-3	-115.394E-12	692.768E-3	-42.8087E-3	-115.982E-12	688.095E-3	-25.7964E-3
-2.85893E-3	-116.561E-12	653.115E-3	-20.8324E-3	-115.843E-12	715.886E-3	-17.1619E-3
-2.86393E-3	-116.834E-12	652.335E-3	-22.0470E-3	-116.485E-12	715.394E-3	-20.2938E-3
-2.86893E-3	-117.838E-12	673.823E-3	-29.0858E-3	-117.377E-12	708.262E-3	-29.0896E-3
-2.87394E-3	-119.001E-12	695.085E-3	-29.2686E-3	-118.203E-12	700.409E-3	-29.0321E-3
-2.87894E-3	-119.486E-12	718.179E-3	-22.7935E-3	-118.561E-12	698.784E-3	-18.5883E-3
-2.88394E-3	-119.535E-12	723.370E-3	-15.6284E-3	-119.621E-12	708.999E-3	-16.3691E-3
-2.88894E-3	-120.508E-12	708.972E-3	-11.0204E-3	-120.664E-12	716.731E-3	-33.3429E-3
-2.89395E-3	-120.670E-12	712.138E-3	-3.54385E-3	-120.231E-12	698.798E-3	-39.0941E-3
-2.89895E-3	-120.216E-12	712.132E-3	-1.81023E-3	-120.526E-12	666.687E-3	-35.3520E-3
-2.90395E-3	-119.429E-12	684.616E-3	-26.6811E-3	-120.981E-12	673.488E-3	-35.6513E-3
-2.90895E-3	-120.108E-12	677.085E-3	-52.0577E-3	-120.694E-12	696.771E-3	-33.6643E-3
-2.91396E-3	-118.888E-12	673.948E-3	-38.1409E-3	-120.806E-12	689.701E-3	-26.9444E-3
-2.91896E-3	-118.627E-12	663.037E-3	-8.67030E-3	-120.848E-12	682.260E-3	-9.71912E-3
-2.92396E-3	-118.082E-12	680.383E-3	10.6415E-3	-121.160E-12	677.205E-3	13.4438E-3
-2.92896E-3	-117.744E-12	699.901E-3	18.3561E-3	-121.118E-12	678.903E-3	12.1872E-3
-2.93397E-3	-118.025E-12	695.939E-3	1.00270E-3	-121.300E-12	690.697E-3	-17.0607E-3
-2.93897E-3	-118.677E-12	675.779E-3	-31.0249E-3	-120.804E-12	687.725E-3	-33.6993E-3
-2.94397E-3	-118.795E-12	650.522E-3	-37.6326E-3	-121.096E-12	694.524E-3	-25.7749E-3
-2.94897E-3	-119.225E-12	642.558E-3	-33.2524E-3	-121.084E-12	701.812E-3	-23.5747E-3
-2.95398E-3	-120.254E-12	663.669E-3	-37.7075E-3	-121.894E-12	683.649E-3	-24.3933E-3
-2.95898E-3	-121.263E-12	692.707E-3	-31.5253E-3	-121.331E-12	669.220E-3	-1.56130E-3
-2.96398E-3	-122.518E-12	702.825E-3	-27.2120E-3	-121.344E-12	674.935E-3	4.45706E-3
-2.96898E-3	-122.440E-12	688.159E-3	-25.1876E-3	-121.329E-12	678.277E-3	-16.7208E-3
-2.97399E-3	-123.363E-12	676.802E-3	-2.54896E-3	-121.706E-12	671.119E-3	-25.9844E-3
-2.97899E-3	-124.052E-12	675.256E-3	9.05559E-3	-122.071E-12	668.774E-3	-24.8201E-3
-2.98399E-3	-124.052E-12	673.003E-3	-25.8991E-3	-122.786E-12	678.065E-3	-14.5626E-3
-2.98899E-3	-123.738E-12	689.843E-3	-48.9986E-3	-122.615E-12	685.600E-3	8.45501E-3
-2.99400E-3	-123.760E-12	709.157E-3	-24.9002E-3	-122.947E-12	679.463E-3	25.0981E-3
-2.99900E-3	-123.307E-12	702.157E-3	-26.6415E-3	-124.323E-12	685.764E-3	4.17533E-3
-3.00400E-3	-123.191E-12	682.361E-3	-48.6359E-3	-124.068E-12	711.230E-3	-17.8509E-3
-3.00900E-3	-122.922E-12	663.781E-3	-42.3911E-3	-123.632E-12	719.872E-3	9.24595E-3
-3.01401E-3	-122.541E-12	667.398E-3	-34.7355E-3	-124.132E-12	708.654E-3	32.0875E-3
-3.01901E-3	-122.786E-12	696.110E-3	-17.7782E-3	-125.358E-12	681.887E-3	26.1854E-3
-3.02401E-3	-122.956E-12	697.483E-3	12.3276E-3	-125.041E-12	660.137E-3	23.1544E-3
-3.02901E-3	-122.935E-12	669.700E-3	18.6219E-3	-125.175E-12	663.143E-3	9.34881E-3
-3.03402E-3	-123.414E-12	675.662E-3	8.85012E-3	-125.698E-12	666.232E-3	-13.2842E-3
-3.03902E-3	-124.338E-12	691.082E-3	-6.10920E-3	-125.664E-12	678.895E-3	-11.6368E-3
-3.04402E-3	-125.015E-12	675.760E-3	-16.1303E-3	-124.638E-12	674.198E-3	-4.12485E-3
-3.04902E-3	-125.240E-12	674.964E-3	-29.1506E-3	-125.435E-12	643.921E-3	-16.2398E-3
-3.05403E-3	-126.108E-12	692.509E-3	-60.4251E-3	-125.145E-12	643.823E-3	-21.4429E-3
-3.05903E-3	-126.524E-12	692.169E-3	-58.0678E-3	-124.141E-12	659.645E-3	-30.4154E-3
-3.06403E-3	-126.585E-12	682.979E-3	-25.4005E-3	-125.178E-12	658.236E-3	-44.5158E-3
-3.06903E-3	-127.369E-12	664.871E-3	-11.2424E-3	-125.288E-12	647.374E-3	-29.3582E-3
-3.07404E-3	-128.105E-12	644.827E-3	-16.0225E-3	-124.926E-12	656.747E-3	-21.8595E-3
-3.07904E-3	-127.497E-12	650.774E-3	-16.9381E-3	-124.545E-12	671.084E-3	-36.2218E-3
-3.08404E-3	-127.340E-12	669.198E-3	-579.730E-6	-126.097E-12	682.870E-3	-28.2770E-3
-3.08904E-3	-128.365E-12	689.198E-3	2.18925E-3	-126.307E-12	702.102E-3	-3.09039E-3
-3.09405E-3	-127.913E-12	696.495E-3	-14.6731E-3	-127.286E-12	694.595E-3	-3.44742E-3
-3.09905E-3	-127.783E-12	673.849E-3	-27.3575E-3	-127.710E-12	678.285E-3	-33.2592E-3
-3.10405E-3	-127.982E-12	656.822E-3	-47.1635E-3	-128.207E-12	698.181E-3	-52.8783E-3
-3.10905E-3	-128.092E-12	677.569E-3	-61.0808E-3	-129.146E-12	718.153E-3	-41.0004E-3
-3.11406E-3	-128.068E-12	695.063E-3	-37.0286E-3	-130.106E-12	703.725E-3	-18.9080E-3
-3.11906E-3	-128.377E-12	684.021E-3	-12.2499E-3	-130.117E-12	686.350E-3	-27.9185E-3
-3.12406E-3	-129.112E-12	673.753E-3	-13.8562E-3	-130.256E-12	680.949E-3	-49.2278E-3
-3.12906E-3	-129.019E-12	669.036E-3	-20.2934E-3	-131.357E-12	677.838E-3	-36.1874E-3
-3.13407E-3	-129.422E-12	664.627E-3	-36.0513E-3	-130.949E-12	673.329E-3	-562.308E-6
-3.13907E-3	-129.332E-12	661.457E-3	-55.2171E-3	-130.377E-12	659.439E-3	4.19400E-3
-3.14407E-3	-129.192E-12	670.499E-3	-46.7415E-3	-130.354E-12	656.212E-3	-20.1540E-3
-3.14907E-3	-129.781E-12	699.376E-3	-20.3429E-3	-129.149E-12	661.161E-3	-26.9363E-3
-3.15408E-3	-129.481E-12	714.976E-3	-24.0901E-3	-128.952E-12	661.965E-3	-34.8563E-3
-3.15908E-3	-129.220E-12	705.482E-3	-37.6603E-3	-129.348E-12	675.548E-3	-51.9614E-3
-3.16408E-3	-129.280E-12	697.458E-3	-21.0763E-3	-129.317E-12	679.493E-3	-49.8673E-3
-3.16908E-3	-129.575E-12	692.534E-3	-18.0752E-3	-128.556E-12	658.926E-3	-31.2158E-3
-3.17409E-3	-129.137E-12	692.204E-3	-37.2531E-3	-129.274E-12	641.285E-3	-6.47153E-3
-3.17909E-3	-129.808E-12	690.479E-3	-24.7144E-3	-129.845E-12	663.636E-3	11.5736E-3
-3.18409E-3	-130.090E-12	664.011E-3	-106.428E-6	-131.231E-12	686.045E-3	13.1337E-3
-3.18909E-3	-130.295E-12	643.163E-3	4.57613E-3	-131.264E-12	672.933E-3	9.54256E-3
-3.19410E-3	-130.631E-12	640.465E-3	9.71170E-3	-131.793E-12	664.525E-3	6.40931E-3
-3.19910E-3	-131.861E-12	631.665E-3	888.228E-6	-133.518E-12	670.322E-3	-4.74765E-3
-3.20410E-3	-132.393E-12	636.990E-3	-19.3518E-3	-134.330E-12	688.163E-3	-13.0719E-3
-3.20910E-3	-133.042E-12	652.101E-3	-23.9355E-3	-134.711E-12	706.430E-3	-7.54370E-3
-3.21411E-3	-133.573E-12	655.855E-3	-21.0767E-3	-134.943E-12	711.850E-3	1.43720E-3
-3.21911E-3	-134.320E-12	660.912E-3	-21.0846E-3	-135.653E-12	698.370E-3	-3.30946E-3
-3.22411E-3	-134.165E-12	672.019E-3	-18.1026E-3	-135.824E-12	679.850E-3	-21.1164E-3
-3.22911E-3	-134.383E-12	664.497E-3	-16.0368E-3	-135.114E-12	679.941E-3	-40.1640E-3
-3.23412E-3	-134.186E-12	657.788E-3	-25.9393E-3	-135.137E-12	677.045E-3	-49.3257E-3
-3.23912E-3	-134.227E-12	684.625E-3	-24.9752E-3	-135.240E-12	661.574E-3	-19.0692E-3
-3.24412E-3	-134.340E-12	696.436E-3	-17.3933E-3	-134.776E-12	675.518E-3	13.2332E-3
-3.24912E-3	-133.595E-12	686.523E-3	-21.4397E-3	-134.543E-12	698.827E-3	5.14308E-3
-3.25413E-3	-133.553E-12	690.984E-3	-22.7968E-3	-135.269E-12	672.697E-3	-9.42087E-3
-3.25913E-3	-133.822E-12	695.670E-3	-22.8466E-3	-133.304E-12	641.741E-3	-28.3575E-3
-3.26413E-3	-133.828E-12	697.370E-3	-29.5149E-3	-133.599E-12	641.769E-3	-48.8013E-3
-3.26913E-3	-133.320E-12	696.423E-3	-32.3047E-3	-133.473E-12	650.078E-3	-40.7979E-3
-3.27414E-3	-134.608E-12	676.370E-3	-24.9477E-3	-133.789E-12	663.836E-3	-11.0177E-3
-3.27914E-3	-134.925E-12	663.351E-3	-23.4189E-3	-134.198E-12	663.121E-3	1.61338E-3
-3.28414E-3	-135.467E-12	663.016E-3	-21.5434E-3	-134.534E-12	647.910E-3	-9.44536E-3
-3.28914E-3	-136.805E-12	654.887E-3	-13.3729E-3	-135.621E-12	659.603E-3	-12.1649E-3
-3.29415E-3	-138.383E-12	667.885E-3	-22.3754E-3	-136.227E-12	686.580E-3	-12.8883E-3
-3.29915E-3	-138.132E-12	699.017E-3	-40.4611E-3	-136.817E-12	697.094E-3	-16.0537E-3
-3.30415E-3	-139.358E-12	701.032E-3	-17.0104E-3	-136.780E-12	703.568E-3	-12.6763E-3
-3.30915E-3	-140.127E-12	672.683E-3	15.4996E-3	-137.793E-12	702.349E-3	-6.87283E-3
-3.31416E-3	-140.778E-12	667.389E-3	3.69505E-3	-138.172E-12	693.208E-3	-10.2020E-3
-3.31916E-3	-140.933E-12	687.999E-3	-12.1715E-3	-137.926E-12	682.126E-3	-27.9489E-3
-3.32416E-3	-141.312E-12	682.166E-3	-13.1055E-3	-138.296E-12	652.957E-3	-44.0927E-3
-3.32916E-3	-140.527E-12	668.606E-3	-14.3386E-3	-139.078E-12	638.460E-3	-42.2179E-3
-3.33417E-3	-140.729E-12	668.837E-3	-27.9133E-3	-138.988E-12	656.065E-3	-22.2496E-3
-3.33917E-3	-139.601E-12	657.891E-3	-51.9144E-3	-139.050E-12	655.809E-3	-9.59889E-3
-3.34417E-3	-138.812E-12	668.762E-3	-52.4806E-3	-138.741E-12	641.050E-3	-26.0247E-3
-3.34917E-3	-137.985E-12	710.100E-3	-37.9550E-3	-139.073E-12	639.757E-3	-37.6487E-3
-3.35418E-3	-137.115E-12	716.867E-3	-33.1833E-3	-139.031E-12	639.682E-3	-27.6332E-3
-3.35918E-3	-136.616E-12	688.952E-3	-28.6982E-3	-138.532E-12	630.297E-3	-22.8893E-3
-3.36418E-3	-136.813E-12	662.347E-3	-20.5956E-3	-138.769E-12	616.271E-3	-21.0242E-3
-3.36918E-3	-137.191E-12	635.548E-3	-16.4598E-3	-138.669E-12	617.278E-3	-9.63076E-3
-3.37419E-3	-137.709E-12	632.808E-3	-26.4631E-3	-138.595E-12	623.429E-3	9.81837E-3
-3.37919E-3	-139.035E-12	669.007E-3	-32.0366E-3	-138.819E-12	630.385E-3	18.5897E-3
-3.38419E-3	-139.766E-12	696.838E-3	-25.6302E-3	-139.666E-12	653.844E-3	255.824E-6
-3.38919E-3	-140.107E-12	689.430E-3	-39.1758E-3	-139.816E-12	668.155E-3	-18.1164E-3
-3.39420E-3	-141.270E-12	675.579E-3	-51.8824E-3	-140.310E-12	656.396E-3	-19.1588E-3
-3.39920E-3	-142.593E-12	671.794E-3	-34.9035E-3	-140.889E-12	639.591E-3	-24.5441E-3
-3.40420E-3	-142.832E-12	681.798E-3	-24.6513E-3	-141.407E-12	637.010E-3	-50.2734E-3
-3.40920E-3	-143.173E-12	689.294E-3	-17.2327E-3	-141.093E-12	647.706E-3	-64.4752E-3
-3.41421E-3	-143.796E-12	659.644E-3	12.5421E-3	-141.863E-12	657.555E-3	-28.6319E-3
-3.41921E-3	-144.688E-12	640.301E-3	20.5185E-3	-142.183E-12	660.424E-3	8.22051E-3
-3.42421E-3	-143.978E-12	667.976E-3	1.99358E-3	-142.631E-12	650.381E-3	11.1382E-3
-3.42921E-3	-144.199E-12	697.374E-3	-10.8866E-3	-143.127E-12	645.163E-3	-410.008E-6
-3.43422E-3	-143.266E-12	695.182E-3	-17.8524E-3	-143.810E-12	654.562E-3	-4.43729E-3
-3.43922E-3	-143.639E-12	678.474E-3	-14.4344E-3	-143.453E-12	637.826E-3	12.0678E-3
-3.44422E-3	-143.141E-12	673.560E-3	-9.83276E-3	-143.488E-12	621.849E-3	15.1606E-3
-3.44922E-3	-143.353E-12	680.061E-3	-10.8573E-3	-143.889E-12	652.030E-3	-12.8851E-3
-3.45423E-3	-141.916E-12	694.280E-3	541.399E-6	-143.387E-12	679.704E-3	-29.2579E-3
-3.45923E-3	-142.229E-12	684.975E-3	2.60351E-3	-143.494E-12	681.378E-3	-24.2601E-3
-3.46423E-3	-143.282E-12	654.987E-3	-6.74588E-3	-143.612E-12	694.685E-3	-18.5578E-3
-3.46923E-3	-143.371E-12	649.526E-3	-4.00965E-3	-144.079E-12	687.207E-3	-16.3574E-3
-3.47424E-3	-144.277E-12	674.320E-3	6.75984E-3	-144.991E-12	661.784E-3	-29.0054E-3
-3.47924E-3	-144.333E-12	693.457E-3	-3.61277E-3	-144.231E-12	675.410E-3	-47.4059E-3
-3.48424E-3	-145.069E-12	678.761E-3	-44.8747E-3	-144.434E-12	681.250E-3	-61.9059E-3
-3.48924E-3	-145.855E-12	647.316E-3	-58.7607E-3	-144.648E-12	657.014E-3	-59.7886E-3
-3.49425E-3	-147.229E-12	625.124E-3	-27.0029E-3	-144.762E-12	644.840E-3	-23.9801E-3
-3.49925E-3	-146.605E-12	637.138E-3	1.51096E-3	-144.065E-12	655.864E-3	3.11945E-3
-3.50425E-3	-146.677E-12	671.039E-3	2.32737E-3	-144.604E-12	664.430E-3	7.25550E-3
-3.50925E-3	-147.336E-12	678.504E-3	-16.7315E-3	-144.582E-12	671.450E-3	10.5074E-3
-3.51426E-3	-147.239E-12	674.880E-3	-38.6932E-3	-145.064E-12	685.898E-3	13.1313E-3
-3.51926E-3	-147.039E-12	680.414E-3	-38.9733E-3	-145.521E-12	682.328E-3	9.30043E-3
-3.52426E-3	-147.218E-12	655.128E-3	-23.1176E-3	-146.811E-12	658.726E-3	-16.8718E-3
-3.52926E-3	-147.387E-12	617.903E-3	-31.0607E-3	-146.955E-12	639.235E-3	-35.4788E-3
-3.53427E-3	-147.940E-12	618.410E-3	-42.9728E-3	-148.305E-12	655.783E-3	-31.2076E-3
-3.53927E-3	-148.192E-12	639.882E-3	-25.3256E-3	-148.447E-12	691.871E-3	-22.4917E-3
-3.54427E-3	-147.527E-12	659.779E-3	-18.1208E-3	-148.756E-12	688.834E-3	-17.3480E-3
-3.54927E-3	-147.823E-12	684.116E-3	-18.9302E-3	-148.781E-12	663.557E-3	-21.7091E-3
-3.55428E-3	-148.841E-12	689.358E-3	1.43075E-3	-149.187E-12	669.450E-3	-6.66146E-3
-3.55928E-3	-149.195E-12	663.258E-3	6.39569E-3	-149.782E-12	674.176E-3	3.69475E-3
-3.56428E-3	-148.461E-12	668.684E-3	-6.66438E-3	-150.419E-12	650.666E-3	-17.5000E-3
-3.56928E-3	-148.918E-12	692.517E-3	-11.2188E-3	-150.054E-12	639.136E-3	-22.6519E-3
-3.57429E-3	-148.892E-12	673.853E-3	-5.74376E-3	-149.222E-12	661.554E-3	-12.2831E-3
-3.57929E-3	-149.207E-12	658.870E-3	-7.75501E-3	-149.658E-12	680.153E-3	-7.90184E-3
-3.58429E-3	-149.946E-12	669.392E-3	-19.7678E-3	-150.306E-12	675.336E-3	-2.00228E-3
-3.58929E-3	-149.933E-12	672.290E-3	-22.3191E-3	-148.672E-12	662.222E-3	10.1455E-3
-3.59430E-3	-149.698E-12	658.192E-3	-19.2300E-3	-148.287E-12	629.515E-3	19.1952E-3
-3.59930E-3	-150.462E-12	650.170E-3	-3.89238E-3	-149.094E-12	609.850E-3	8.40556E-3
-3.60430E-3	-151.432E-12	660.027E-3	6.36521E-3	-149.647E-12	627.740E-3	-10.1455E-3
-3.60930E-3	-149.796E-12	671.689E-3	-12.6675E-3	-149.226E-12	639.927E-3	-27.7399E-3
-3.61431E-3	-149.635E-12	669.020E-3	-25.9034E-3	-149.570E-12	649.081E-3	-21.4364E-3
-3.61931E-3	-150.214E-12	643.976E-3	-23.6270E-3	-150.474E-12	668.410E-3	-6.99800E-3
-3.62431E-3	-151.410E-12	638.435E-3	-25.7676E-3	-151.367E-12	673.193E-3	-27.4752E-3
-3.62931E-3	-151.247E-12	676.103E-3	-24.9621E-3	-152.381E-12	680.344E-3	-37.6843E-3
-3.63432E-3	-150.754E-12	696.191E-3	-24.2463E-3	-152.476E-12	700.320E-3	-36.4733E-3
-3.63932E-3	-151.946E-12	681.976E-3	-20.7492E-3	-153.236E-12	693.291E-3	-35.6581E-3
-3.64432E-3	-152.498E-12	670.111E-3	-4.77347E-3	-153.886E-12	672.034E-3	-19.1429E-3
-3.64932E-3	-152.389E-12	645.056E-3	8.74503E-3	-154.118E-12	674.525E-3	-21.6975E-3
-3.65433E-3	-152.335E-12	622.126E-3	-1.40458E-3	-154.943E-12	672.596E-3	-43.4823E-3
-3.65933E-3	-152.708E-12	644.978E-3	-21.7092E-3	-154.561E-12	669.242E-3	-40.3978E-3
-3.66433E-3	-152.453E-12	685.272E-3	-18.5138E-3	-154.124E-12	678.898E-3	-16.2220E-3
-3.66933E-3	-152.836E-12	686.685E-3	-10.9503E-3	-153.683E-12	660.032E-3	-8.38239E-3
-3.67434E-3	-152.801E-12	660.456E-3	-21.0603E-3	-153.606E-12	628.888E-3	-4.17526E-3
-3.67934E-3	-152.533E-12	655.461E-3	-29.3964E-3	-153.198E-12	645.495E-3	-2.04381E-3
-3.68434E-3	-152.709E-12	639.704E-3	-37.6760E-3	-151.956E-12	671.229E-3	-21.3433E-3
-3.68934E-3	-153.046E-12	615.749E-3	-40.4838E-3	-152.104E-12	653.405E-3	-24.4005E-3
-3.69435E-3	-153.450E-12	637.578E-3	-16.4706E-3	-152.166E-12	639.442E-3	-17.9568E-3
-3.69935E-3	-153.135E-12	677.279E-3	-8.94567E-3	-152.674E-12	645.163E-3	-30.1819E-3
-3.70435E-3	-153.367E-12	705.026E-3	-29.6790E-3	-151.490E-12	657.726E-3	-29.0847E-3
-3.70935E-3	-154.785E-12	695.177E-3	-26.5154E-3	-152.609E-12	673.126E-3	-20.9340E-3
-3.71436E-3	-155.147E-12	665.155E-3	-941.833E-6	-153.525E-12	657.344E-3	-19.4089E-3
-3.71936E-3	-155.088E-12	669.362E-3	9.03542E-3	-154.755E-12	623.900E-3	-19.9311E-3
-3.72436E-3	-155.509E-12	676.937E-3	8.13199E-3	-154.713E-12	617.809E-3	-28.8819E-3
-3.72936E-3	-157.115E-12	677.040E-3	4.99534E-3	-156.556E-12	639.991E-3	-35.4058E-3
-3.73437E-3	-157.982E-12	687.316E-3	-19.7868E-3	-157.552E-12	675.987E-3	-22.4998E-3
-3.73937E-3	-158.842E-12	690.433E-3	-36.2140E-3	-158.094E-12	702.773E-3	-1.97110E-3
-3.74437E-3	-159.072E-12	677.237E-3	-30.0133E-3	-159.125E-12	704.292E-3	4.66791E-3
-3.74937E-3	-159.687E-12	671.436E-3	-7.23764E-3	-159.385E-12	690.993E-3	-16.0997E-3
-3.75438E-3	-160.257E-12	677.846E-3	21.9545E-3	-159.174E-12	671.309E-3	-42.7525E-3
-3.75938E-3	-159.945E-12	678.983E-3	8.06964E-3	-159.506E-12	659.992E-3	-20.8457E-3
-3.76438E-3	-159.473E-12	681.219E-3	-38.8017E-3	-159.341E-12	650.114E-3	10.6583E-3
-3.76938E-3	-158.899E-12	681.810E-3	-45.1919E-3	-158.886E-12	636.479E-3	1.64697E-3
-3.77439E-3	-158.302E-12	653.842E-3	-28.0057E-3	-157.327E-12	635.437E-3	-23.9827E-3
-3.77939E-3	-158.239E-12	623.156E-3	-44.5069E-3	-157.264E-12	634.931E-3	-50.8761E-3
-3.78439E-3	-157.503E-12	628.259E-3	-58.0443E-3	-156.736E-12	636.321E-3	-64.9022E-3
-3.78939E-3	-156.784E-12	639.429E-3	-44.3678E-3	-157.488E-12	654.070E-3	-62.5941E-3
-3.79440E-3	-156.231E-12	662.632E-3	-48.2075E-3	-156.267E-12	663.688E-3	-28.6304E-3
-3.79940E-3	-156.439E-12	683.361E-3	-48.8505E-3	-157.057E-12	670.297E-3	17.8564E-3
-3.80440E-3	-157.620E-12	668.641E-3	-4.67930E-3	-157.499E-12	691.932E-3	23.0620E-3
-3.80940E-3	-157.788E-12	649.863E-3	16.0557E-3	-158.029E-12	691.985E-3	12.6048E-3
-3.81441E-3	-157.192E-12	646.132E-3	-11.3307E-3	-159.163E-12	667.873E-3	16.0271E-3
-3.81941E-3	-158.912E-12	644.218E-3	-24.0093E-3	-159.905E-12	660.011E-3	11.9689E-3
-3.82441E-3	-159.924E-12	641.509E-3	-27.9819E-3	-160.651E-12	659.615E-3	-15.7084E-3
-3.82941E-3	-160.992E-12	649.910E-3	-35.9011E-3	-161.093E-12	648.807E-3	-37.8337E-3
-3.83442E-3	-161.196E-12	657.681E-3	-28.9858E-3	-161.892E-12	655.909E-3	-19.8927E-3
-3.83942E-3	-162.426E-12	664.589E-3	-26.6879E-3	-162.371E-12	683.803E-3	-9.17351E-3
-3.84442E-3	-162.683E-12	677.602E-3	-18.5464E-3	-162.246E-12	704.264E-3	-35.8560E-3
-3.84942E-3	-163.171E-12	671.488E-3	8.34495E-3	-162.981E-12	703.020E-3	-47.7864E-3
-3.85443E-3	-163.352E-12	645.119E-3	4.45518E-6	-163.280E-12	685.534E-3	-39.5280E-3
-3.85943E-3	-162.913E-12	632.502E-3	-39.5095E-3	-162.200E-12	674.590E-3	-22.3849E-3
-3.86443E-3	-161.947E-12	665.262E-3	-31.6211E-3	-162.181E-12	672.797E-3	15.0415E-3
-3.86943E-3	-161.641E-12	701.684E-3	9.57674E-3	-161.644E-12	653.870E-3	22.6128E-3
-3.87444E-3	-161.003E-12	692.774E-3	7.41167E-3	-161.250E-12	632.563E-3	-14.7335E-3
-3.87944E-3	-161.248E-12	670.721E-3	-19.4421E-3	-160.945E-12	637.260E-3	-38.5895E-3
-3.88444E-3	-160.631E-12	650.119E-3	-28.7595E-3	-161.742E-12	644.850E-3	-39.4299E-3
-3.88944E-3	-160.986E-12	635.958E-3	-29.7055E-3	-162.293E-12	635.962E-3	-32.4350E-3
-3.89445E-3	-161.219E-12	632.325E-3	-22.0196E-3	-162.318E-12	633.960E-3	-23.1465E-3
-3.89945E-3	-162.197E-12	627.682E-3	-11.7034E-3	-162.186E-12	649.198E-3	-31.8746E-3
-3.90445E-3	-161.991E-12	633.077E-3	-24.6229E-3	-162.617E-12	650.584E-3	-49.8496E-3
-3.90945E-3	-162.904E-12	643.844E-3	-43.3478E-3	-163.733E-12	666.351E-3	-46.7434E-3
-3.91446E-3	-164.401E-12	643.410E-3	-30.9268E-3	-164.546E-12	690.902E-3	-34.0904E-3
-3.91946E-3	-165.434E-12	650.646E-3	-25.8461E-3	-163.704E-12	666.919E-3	-40.5683E-3
-3.92446E-3	-166.757E-12	667.413E-3	-30.0530E-3	-163.833E-12	646.677E-3	-52.8399E-3
-3.92946E-3	-166.107E-12	673.229E-3	-25.4756E-3	-164.834E-12	668.588E-3	-55.7422E-3
-3.93447E-3	-167.145E-12	691.897E-3	-33.8037E-3	-165.727E-12	688.587E-3	-56.3989E-3
-3.93947E-3	-167.434E-12	684.505E-3	-21.9083E-3	-164.747E-12	683.554E-3	-41.3856E-3
-3.94447E-3	-167.790E-12	630.338E-3	8.03868E-3	-165.080E-12	674.234E-3	-13.9496E-3
-3.94947E-3	-166.443E-12	613.140E-3	-2.83379E-3	-165.513E-12	668.104E-3	-8.62864E-3
-3.95448E-3	-166.683E-12	644.322E-3	-29.7898E-3	-166.377E-12	666.448E-3	-16.8772E-3
-3.95948E-3	-165.929E-12	677.061E-3	-34.5234E-3	-165.754E-12	677.229E-3	-14.4372E-3
-3.96448E-3	-165.910E-12	696.399E-3	-42.7111E-3	-165.871E-12	677.298E-3	-17.1450E-3
-3.96948E-3	-165.097E-12	690.746E-3	-30.8064E-3	-167.038E-12	658.228E-3	-28.5780E-3
-3.97449E-3	-164.308E-12	668.453E-3	6.90938E-3	-166.900E-12	644.855E-3	-24.5314E-3
-3.97949E-3	-163.758E-12	654.830E-3	11.1082E-3	-167.719E-12	648.779E-3	-6.72935E-3
-3.98449E-3	-163.627E-12	656.657E-3	-15.5224E-3	-168.415E-12	651.203E-3	13.3309E-3
-3.98949E-3	-164.105E-12	672.930E-3	-10.2843E-3	-169.112E-12	648.643E-3	27.5632E-3
-3.99450E-3	-164.493E-12	695.175E-3	14.2027E-3	-168.951E-12	661.696E-3	16.9080E-3
-3.99950E-3	-164.937E-12	706.557E-3	13.1012E-3	-168.651E-12	668.898E-3	-2.28508E-3
-4.00450E-3	-166.384E-12	697.414E-3	16.0478E-3	-168.948E-12	647.172E-3	14.5815E-3
-4.00950E-3	-167.122E-12	672.262E-3	8.51483E-3	-168.673E-12	634.802E-3	35.5379E-3
-4.01451E-3	-168.492E-12	654.559E-3	-18.2980E-3	-168.530E-12	646.394E-3	20.7092E-3
-4.01951E-3	-169.277E-12	664.429E-3	-23.7950E-3	-169.089E-12	642.002E-3	-11.5368E-3
-4.02451E-3	-170.005E-12	669.796E-3	-16.9236E-3	-169.370E-12	641.996E-3	-43.9468E-3
-4.02951E-3	-170.666E-12	652.629E-3	-19.5638E-3	-168.480E-12	672.665E-3	-46.8210E-3
-4.03452E-3	-171.140E-12	656.750E-3	-18.0053E-3	-168.493E-12	686.388E-3	-16.4181E-3
-4.03952E-3	-170.756E-12	658.636E-3	-13.3867E-3	-168.663E-12	673.621E-3	4.00374E-3
-4.04452E-3	-169.972E-12	633.186E-3	-18.3396E-3	-168.636E-12	660.691E-3	1.14543E-3
-4.04952E-3	-170.314E-12	621.549E-3	-11.1935E-3	-169.168E-12	640.686E-3	-15.2291E-3
-4.05453E-3	-170.580E-12	632.258E-3	824.864E-6	-170.335E-12	636.584E-3	-30.9062E-3
-4.05953E-3	-170.051E-12	642.788E-3	-18.8719E-3	-171.284E-12	665.177E-3	-30.6076E-3
-4.06453E-3	-170.331E-12	651.515E-3	-53.3758E-3	-171.465E-12	679.166E-3	-20.6695E-3
-4.06953E-3	-169.678E-12	653.102E-3	-61.5226E-3	-172.121E-12	672.396E-3	-13.6457E-3
-4.07454E-3	-170.326E-12	651.857E-3	-61.9516E-3	-172.848E-12	676.180E-3	-31.1399E-3
-4.07954E-3	-170.372E-12	665.074E-3	-45.1506E-3	-173.254E-12	667.586E-3	-60.5122E-3
-4.08454E-3	-170.776E-12	666.928E-3	-14.8509E-3	-173.258E-12	647.932E-3	-67.9088E-3
-4.08954E-3	-170.348E-12	647.367E-3	-28.0786E-3	-172.497E-12	647.750E-3	-40.9285E-3
-4.09455E-3	-172.723E-12	631.363E-3	-36.5080E-3	-172.880E-12	656.587E-3	-8.87984E-3
-4.09955E-3	-173.243E-12	624.032E-3	-1.97845E-3	-172.758E-12	661.432E-3	-11.6897E-3
-4.10455E-3	-173.417E-12	621.162E-3	-1.71763E-3	-171.680E-12	658.504E-3	-32.9599E-3
-4.10955E-3	-173.295E-12	633.583E-3	-25.8018E-3	-171.031E-12	655.055E-3	-44.3922E-3
-4.11456E-3	-173.649E-12	650.214E-3	-15.9698E-3	-170.436E-12	667.203E-3	-33.3836E-3
-4.11956E-3	-174.531E-12	657.673E-3	5.64101E-3	-169.968E-12	687.252E-3	-26.3205E-3
-4.12456E-3	-174.496E-12	670.587E-3	4.47707E-3	-169.472E-12	691.433E-3	-36.0709E-3
-4.12956E-3	-174.838E-12	673.234E-3	-6.17597E-3	-169.690E-12	677.440E-3	-26.3128E-3
-4.13457E-3	-174.758E-12	663.098E-3	-5.58982E-3	-170.288E-12	662.250E-3	-13.7217E-3
-4.13957E-3	-175.014E-12	679.326E-3	-3.68573E-3	-171.004E-12	660.535E-3	-10.5996E-3
-4.14457E-3	-174.747E-12	701.012E-3	4.09305E-3	-171.864E-12	659.169E-3	6.33180E-3
-4.14957E-3	-175.998E-12	679.391E-3	13.6107E-3	-172.922E-12	643.827E-3	21.4977E-3
-4.15458E-3	-175.880E-12	640.855E-3	6.29392E-3	-174.560E-12	639.254E-3	21.6100E-3
-4.15958E-3	-175.499E-12	639.045E-3	5.47634E-3	-175.348E-12	650.441E-3	9.16628E-3
-4.16458E-3	-176.500E-12	663.886E-3	16.6160E-3	-176.759E-12	670.935E-3	-264.788E-6
-4.16958E-3	-177.129E-12	677.378E-3	17.4832E-3	-177.095E-12	666.134E-3	-4.84224E-3
-4.17459E-3	-176.948E-12	678.628E-3	14.0366E-3	-177.782E-12	642.201E-3	-18.3673E-3
-4.17959E-3	-176.250E-12	683.056E-3	14.5147E-3	-177.215E-12	658.239E-3	-18.2821E-3
-4.18459E-3	-177.503E-12	685.368E-3	4.54374E-3	-177.402E-12	680.443E-3	-11.8765E-3
-4.18959E-3	-178.123E-12	679.077E-3	-25.0854E-3	-176.309E-12	669.829E-3	-21.2068E-3
-4.19460E-3	-177.162E-12	667.179E-3	-42.2190E-3	-175.188E-12	643.224E-3	-39.3828E-3
-4.19960E-3	-176.757E-12	653.704E-3	-35.4409E-3	-174.883E-12	621.877E-3	-41.5726E-3
-4.20460E-3	-177.317E-12	654.447E-3	-39.5544E-3	-174.127E-12	621.686E-3	-12.0922E-3
-4.20960E-3	-176.687E-12	651.041E-3	-61.3517E-3	-173.598E-12	655.061E-3	9.96954E-3
-4.21461E-3	-175.772E-12	633.754E-3	-70.3066E-3	-172.693E-12	679.697E-3	-251.029E-6
-4.21961E-3	-175.261E-12	627.823E-3	-41.4286E-3	-173.249E-12	661.995E-3	-24.8063E-3
-4.22461E-3	-175.316E-12	635.223E-3	199.733E-6	-173.214E-12	641.719E-3	-25.6065E-3
-4.22961E-3	-175.765E-12	639.637E-3	18.3813E-3	-174.416E-12	643.541E-3	-2.59797E-3
-4.23462E-3	-175.851E-12	629.371E-3	12.4163E-3	-174.712E-12	654.607E-3	-1.05813E-3
-4.23962E-3	-176.108E-12	623.241E-3	-1.42673E-3	-176.936E-12	667.103E-3	-16.6934E-3
-4.24462E-3	-177.018E-12	624.787E-3	-5.94304E-3	-177.861E-12	681.445E-3	-12.9212E-3
-4.24962E-3	-178.422E-12	627.475E-3	11.6523E-3	-179.248E-12	684.027E-3	5.56239E-3
-4.25463E-3	-179.405E-12	637.793E-3	25.3165E-3	-180.535E-12	667.244E-3	13.6662E-3
-4.25963E-3	-179.984E-12	655.337E-3	-4.90820E-3	-181.809E-12	633.203E-3	994.970E-6
-4.26463E-3	-181.336E-12	665.524E-3	-43.9099E-3	-182.249E-12	619.119E-3	-29.7157E-3
-4.26963E-3	-182.197E-12	654.411E-3	-53.6636E-3	-181.950E-12	645.668E-3	-60.6393E-3
-4.27464E-3	-183.160E-12	665.018E-3	-50.6798E-3	-182.305E-12	672.854E-3	-63.0602E-3
-4.27964E-3	-183.666E-12	712.560E-3	-32.7442E-3	-181.648E-12	660.496E-3	-55.5201E-3
-4.28464E-3	-183.163E-12	725.335E-3	-3.31389E-3	-180.308E-12	641.283E-3	-47.3206E-3
-4.28964E-3	-181.490E-12	681.639E-3	-10.8005E-3	-178.770E-12	653.631E-3	-27.2149E-3
-4.29465E-3	-181.570E-12	645.114E-3	-35.1679E-3	-178.701E-12	656.137E-3	-12.0346E-3
-4.29965E-3	-181.401E-12	626.465E-3	-11.0540E-3	-177.915E-12	634.895E-3	-17.8424E-3
-4.30465E-3	-178.847E-12	615.756E-3	7.70854E-3	-177.431E-12	633.103E-3	-38.5118E-3
-4.30965E-3	-178.397E-12	632.188E-3	-19.0742E-3	-177.385E-12	641.771E-3	-34.7176E-3
-4.31466E-3	-179.209E-12	631.907E-3	-20.8204E-3	-178.195E-12	635.031E-3	-6.65704E-3
-4.31966E-3	-179.918E-12	626.535E-3	9.88396E-3	-178.079E-12	633.291E-3	-3.69332E-3
-4.32466E-3	-179.644E-12	642.225E-3	9.41749E-3	-178.977E-12	643.573E-3	-39.5295E-3
-4.32966E-3	-180.856E-12	648.684E-3	-9.43944E-3	-179.367E-12	653.913E-3	-60.9187E-3
-4.33467E-3	-181.589E-12	649.411E-3	-19.4529E-3	-181.549E-12	671.986E-3	-35.5168E-3
-4.33967E-3	-183.489E-12	647.978E-3	-36.3356E-3	-182.581E-12	680.828E-3	-18.8670E-3
-4.34467E-3	-185.859E-12	643.095E-3	-46.2708E-3	-183.977E-12	678.461E-3	-10.0624E-3
-4.34967E-3	-185.980E-12	647.766E-3	-26.5668E-3	-184.981E-12	677.079E-3	1.81470E-3
-4.35468E-3	-187.367E-12	668.716E-3	-5.37099E-3	-185.785E-12	659.821E-3	-31.7607E-3
-4.35968E-3	-188.682E-12	683.164E-3	2.85983E-3	-186.286E-12	634.118E-3	-70.1690E-3
-4.36468E-3	-189.992E-12	674.885E-3	3.96619E-3	-186.350E-12	642.050E-3	-65.3965E-3
-4.36968E-3	-189.350E-12	653.114E-3	-7.27141E-3	-186.267E-12	688.368E-3	-42.8219E-3
-4.37469E-3	-188.803E-12	638.423E-3	-4.11192E-3	-185.958E-12	697.568E-3	-42.2723E-3
-4.37969E-3	-187.665E-12	643.359E-3	10.1582E-3	-185.244E-12	654.821E-3	-44.4750E-3
-4.38469E-3	-186.531E-12	642.935E-3	-13.3403E-3	-185.798E-12	635.892E-3	-24.1631E-3
-4.38969E-3	-186.392E-12	631.452E-3	-51.8605E-3	-185.751E-12	662.705E-3	-4.88927E-3
-4.39470E-3	-183.801E-12	640.660E-3	-37.1646E-3	-185.408E-12	667.326E-3	7.17373E-3
-4.39970E-3	-181.806E-12	661.520E-3	3.99858E-3	-185.027E-12	628.688E-3	3.63732E-3
-4.40470E-3	-181.784E-12	665.785E-3	16.5422E-3	-185.897E-12	621.786E-3	-15.4748E-3
-4.40970E-3	-181.276E-12	661.278E-3	12.7804E-3	-186.559E-12	664.933E-3	-16.9127E-3
-4.41471E-3	-181.393E-12	646.631E-3	3.03520E-3	-186.462E-12	684.228E-3	21.5423E-3
-4.41971E-3	-182.465E-12	633.037E-3	-16.1498E-3	-187.320E-12	660.436E-3	49.3145E-3
-4.42471E-3	-183.546E-12	637.036E-3	-30.3181E-3	-187.582E-12	652.726E-3	23.3264E-3
-4.42971E-3	-185.196E-12	637.844E-3	-20.8425E-3	-187.784E-12	666.155E-3	-18.2578E-3
-4.43472E-3	-186.626E-12	636.742E-3	-5.49459E-3	-188.041E-12	665.256E-3	-29.9135E-3
-4.43972E-3	-186.682E-12	637.220E-3	-11.4084E-3	-188.124E-12	666.195E-3	-24.0980E-3
-4.44472E-3	-188.587E-12	645.321E-3	-39.9542E-3	-187.951E-12	673.322E-3	-43.7947E-3
-4.44972E-3	-190.585E-12	657.149E-3	-57.2770E-3	-188.335E-12	674.315E-3	-76.3185E-3
-4.45473E-3	-191.624E-12	645.480E-3	-16.1941E-3	-187.984E-12	670.017E-3	-90.4364E-3
-4.45973E-3	-191.806E-12	664.506E-3	25.0141E-3	-188.577E-12	659.251E-3	-66.0225E-3
-4.46473E-3	-192.285E-12	703.027E-3	5.02230E-3	-187.951E-12	645.606E-3	-26.3604E-3
-4.46973E-3	-191.049E-12	692.363E-3	-26.6252E-3	-187.877E-12	620.651E-3	-14.4257E-3
-4.47474E-3	-190.910E-12	669.450E-3	-29.4604E-3	-187.456E-12	614.468E-3	-688.014E-6
-4.47974E-3	-190.563E-12	660.352E-3	-20.4479E-3	-188.577E-12	653.841E-3	19.5412E-3
-4.48474E-3	-189.243E-12	649.645E-3	-6.22640E-3	-188.867E-12	684.549E-3	16.0781E-3
-4.48974E-3	-188.553E-12	646.956E-3	1.17140E-3	-189.806E-12	681.808E-3	-2.48793E-3
-4.49475E-3	-188.237E-12	653.323E-3	-17.3986E-3	-189.995E-12	664.446E-3	-2.65214E-3
-4.49975E-3	-188.428E-12	647.427E-3	-27.5512E-3	-190.525E-12	642.668E-3	9.52445E-3
-4.50475E-3	-188.293E-12	640.324E-3	-8.03169E-3	-190.408E-12	635.575E-3	1.95420E-3
-4.50975E-3	-187.814E-12	654.084E-3	17.0829E-3	-191.124E-12	650.670E-3	-16.1383E-3
-4.51476E-3	-188.536E-12	666.852E-3	11.5848E-3	-190.695E-12	652.797E-3	-20.3169E-3
-4.51976E-3	-189.375E-12	656.726E-3	-18.8563E-3	-190.491E-12	623.635E-3	-16.5682E-3
-4.52476E-3	-190.778E-12	631.078E-3	-25.1908E-3	-190.291E-12	602.639E-3	-22.1068E-3
-4.52976E-3	-191.764E-12	621.026E-3	-16.5928E-3	-189.815E-12	598.728E-3	-37.2548E-3
-4.53477E-3	-192.330E-12	635.530E-3	-20.7038E-3	-189.205E-12	607.454E-3	-48.4819E-3
-4.53977E-3	-193.260E-12	643.248E-3	-40.0422E-3	-187.489E-12	624.264E-3	-28.2318E-3
-4.54477E-3	-193.872E-12	641.260E-3	-48.3853E-3	-187.537E-12	623.580E-3	3.84623E-3
-4.54977E-3	-194.196E-12	645.111E-3	-24.2192E-3	-187.103E-12	629.977E-3	-1.37214E-3
-4.55478E-3	-194.119E-12	656.126E-3	-35.0750E-3	-186.860E-12	656.117E-3	-26.6282E-3
-4.55978E-3	-194.094E-12	673.310E-3	-76.8618E-3	-187.258E-12	675.028E-3	-32.8625E-3
-4.56478E-3	-194.029E-12	683.305E-3	-50.6452E-3	-187.381E-12	666.083E-3	-6.48934E-3
-4.56978E-3	-193.769E-12	681.668E-3	326.311E-6	-188.867E-12	661.122E-3	15.8731E-3
-4.57479E-3	-193.561E-12	670.643E-3	-3.21218E-3	-190.254E-12	679.763E-3	-10.6232E-3
-4.57979E-3	-192.989E-12	672.887E-3	-11.0182E-3	-191.856E-12	674.722E-3	-44.3286E-3
-4.58479E-3	-192.615E-12	706.302E-3	-1.40563E-3	-194.338E-12	657.681E-3	-34.3386E-3
-4.58979E-3	-194.175E-12	712.164E-3	-13.4175E-3	-196.192E-12	661.612E-3	-7.10267E-3
-4.59480E-3	-194.853E-12	672.931E-3	-10.7746E-3	-196.836E-12	655.963E-3	4.86517E-3
-4.59980E-3	-194.617E-12	629.484E-3	4.89732E-3	-196.912E-12	637.323E-3	4.62330E-3
-4.60480E-3	-195.054E-12	637.248E-3	-20.6626E-3	-198.984E-12	633.561E-3	-1.47770E-3
-4.60980E-3	-195.441E-12	685.310E-3	-51.7111E-3	-198.360E-12	651.462E-3	-12.3436E-3
-4.61481E-3	-195.093E-12	681.700E-3	-64.7230E-3	-197.081E-12	674.694E-3	-23.5708E-3
-4.61981E-3	-195.247E-12	637.670E-3	-59.0377E-3	-196.366E-12	679.906E-3	-25.2916E-3
-4.62481E-3	-196.461E-12	615.140E-3	-24.6981E-3	-195.965E-12	677.905E-3	-31.6002E-3
-4.62981E-3	-195.453E-12	605.747E-3	-3.35495E-3	-195.253E-12	662.584E-3	-49.0737E-3
-4.63482E-3	-194.789E-12	604.739E-3	823.800E-6	-193.547E-12	648.670E-3	-44.1329E-3
-4.63982E-3	-194.745E-12	618.936E-3	14.9261E-3	-193.544E-12	661.628E-3	-19.8752E-3
-4.64482E-3	-195.313E-12	629.470E-3	21.0705E-3	-193.523E-12	673.640E-3	-37.4883E-3
-4.64982E-3	-194.407E-12	645.898E-3	11.7224E-3	-194.315E-12	661.810E-3	-78.3836E-3
-4.65483E-3	-193.539E-12	663.869E-3	-6.99969E-3	-193.829E-12	644.468E-3	-68.6684E-3
-4.65983E-3	-193.857E-12	665.591E-3	-21.3433E-3	-194.711E-12	660.709E-3	-35.0524E-3
-4.66483E-3	-195.153E-12	672.468E-3	-12.2851E-3	-196.136E-12	694.220E-3	-30.4025E-3
-4.66983E-3	-195.651E-12	673.827E-3	-5.60045E-3	-198.402E-12	694.287E-3	-24.5972E-3
-4.67484E-3	-195.720E-12	655.923E-3	-4.05703E-3	-199.718E-12	674.493E-3	3.33520E-3
-4.67984E-3	-196.825E-12	655.346E-3	6.27975E-3	-201.617E-12	681.955E-3	19.8337E-3
-4.68484E-3	-199.053E-12	690.996E-3	13.7726E-3	-203.148E-12	696.403E-3	4.83725E-3
-4.68984E-3	-200.897E-12	705.933E-3	15.7643E-3	-203.566E-12	682.417E-3	-1.07335E-3
-4.69485E-3	-202.214E-12	675.439E-3	10.0508E-3	-203.897E-12	662.456E-3	3.00199E-3
-4.69985E-3	-202.765E-12	659.709E-3	10.8392E-3	-204.356E-12	647.551E-3	-20.5877E-3
-4.70485E-3	-202.416E-12	665.658E-3	13.7901E-3	-202.609E-12	635.977E-3	-12.8871E-3
-4.70985E-3	-201.572E-12	670.800E-3	-8.03303E-3	-201.362E-12	630.191E-3	24.4848E-3
-4.71486E-3	-201.765E-12	692.864E-3	-50.5411E-3	-200.780E-12	626.692E-3	22.6640E-3
-4.71986E-3	-200.598E-12	711.248E-3	-68.4920E-3	-200.296E-12	630.982E-3	-12.1525E-3
-4.72486E-3	-199.809E-12	677.995E-3	-52.3286E-3	-197.618E-12	647.220E-3	-35.8782E-3
-4.72986E-3	-198.364E-12	618.392E-3	-37.9870E-3	-196.862E-12	647.887E-3	-20.8951E-3
-4.73487E-3	-198.127E-12	613.688E-3	-35.4848E-3	-196.872E-12	634.939E-3	-9.34991E-3
-4.73987E-3	-197.412E-12	642.395E-3	-42.2618E-3	-197.202E-12	640.272E-3	-8.59356E-3
-4.74487E-3	-197.558E-12	638.347E-3	-61.7350E-3	-196.606E-12	644.900E-3	8.25031E-3
-4.74988E-3	-196.802E-12	607.597E-3	-48.5066E-3	-197.489E-12	650.914E-3	9.25781E-3
-4.75488E-3	-197.746E-12	584.879E-3	-10.0699E-3	-198.579E-12	677.341E-3	-14.1531E-3
-4.75988E-3	-198.136E-12	608.678E-3	-4.81033E-3	-199.394E-12	690.668E-3	-34.7026E-3
-4.76488E-3	-199.059E-12	646.992E-3	-23.6968E-3	-201.134E-12	663.812E-3	-42.6770E-3
-4.76988E-3	-200.615E-12	649.411E-3	-30.4822E-3	-202.398E-12	638.193E-3	-40.3467E-3
-4.77489E-3	-202.934E-12	624.857E-3	-20.8592E-3	-203.473E-12	642.200E-3	-32.2762E-3
-4.77989E-3	-203.942E-12	611.970E-3	-18.2947E-3	-203.445E-12	654.563E-3	-16.4417E-3
-4.78489E-3	-205.723E-12	631.748E-3	-18.5910E-3	-203.915E-12	661.614E-3	8.85036E-6
-4.78989E-3	-206.912E-12	655.287E-3	-9.17957E-3	-204.035E-12	652.622E-3	2.68671E-3
-4.79490E-3	-207.097E-12	674.379E-3	12.7918E-6	-204.308E-12	637.850E-3	11.6212E-3
-4.79990E-3	-205.837E-12	701.942E-3	-16.7894E-3	-203.014E-12	642.465E-3	38.2134E-3
-4.80490E-3	-205.678E-12	688.986E-3	-30.5795E-3	-202.101E-12	643.202E-3	32.9479E-3
-4.80990E-3	-205.013E-12	658.655E-3	-26.0505E-3	-202.435E-12	625.456E-3	6.24452E-3
-4.81491E-3	-203.453E-12	655.430E-3	-36.0872E-3	-201.463E-12	613.605E-3	3.29680E-3
-4.81991E-3	-202.462E-12	650.965E-3	-42.1843E-3	-201.174E-12	622.265E-3	-10.1935E-3
-4.82491E-3	-201.216E-12	644.522E-3	-27.5233E-3	-200.636E-12	629.018E-3	-26.5863E-3
-4.82991E-3	-199.047E-12	655.979E-3	-13.2123E-3	-201.624E-12	634.469E-3	-25.9463E-3
-4.83492E-3	-199.319E-12	673.409E-3	-6.86271E-3	-201.325E-12	653.865E-3	-28.0034E-3
-4.83992E-3	-198.950E-12	675.003E-3	-3.00166E-3	-202.606E-12	659.686E-3	-17.1330E-3
-4.84492E-3	-199.702E-12	663.370E-3	-3.91509E-3	-203.176E-12	661.245E-3	13.2780E-3
-4.84992E-3	-200.454E-12	630.980E-3	-2.39178E-3	-203.697E-12	660.332E-3	9.81509E-3
-4.85493E-3	-202.632E-12	611.433E-3	5.01952E-3	-205.204E-12	657.767E-3	-14.2835E-3
-4.85993E-3	-202.907E-12	637.222E-3	7.67535E-3	-205.797E-12	677.764E-3	-2.70309E-3
-4.86493E-3	-205.240E-12	643.570E-3	-3.17037E-3	-206.391E-12	677.207E-3	5.82631E-3
-4.86993E-3	-206.499E-12	626.530E-3	-32.2019E-3	-206.592E-12	643.427E-3	-14.1300E-3
-4.87494E-3	-208.201E-12	639.907E-3	-43.5132E-3	-207.435E-12	629.093E-3	-37.4213E-3
-4.87994E-3	-209.081E-12	673.211E-3	-37.8074E-3	-206.639E-12	641.063E-3	-41.2426E-3
-4.88494E-3	-209.806E-12	697.364E-3	-53.3133E-3	-207.497E-12	661.195E-3	-23.7132E-3
-4.88995E-3	-210.318E-12	693.564E-3	-50.2338E-3	-205.641E-12	673.115E-3	-1.29748E-3
-4.89495E-3	-209.646E-12	674.111E-3	-6.66346E-3	-205.584E-12	655.154E-3	12.7858E-3
-4.89995E-3	-209.188E-12	667.728E-3	16.4308E-3	-206.491E-12	636.568E-3	21.2109E-3
-4.90495E-3	-208.155E-12	662.644E-3	9.44586E-3	-205.223E-12	648.865E-3	14.1554E-3
-4.90995E-3	-208.142E-12	658.179E-3	11.7095E-3	-205.345E-12	643.936E-3	-16.3251E-3
-4.91496E-3	-206.131E-12	657.045E-3	-14.0067E-3	-205.416E-12	629.403E-3	-38.8512E-3
-4.91996E-3	-207.002E-12	641.041E-3	-58.4379E-3	-206.477E-12	646.751E-3	-40.9336E-3
-4.92496E-3	-206.055E-12	646.028E-3	-52.7720E-3	-206.556E-12	673.997E-3	-47.2026E-3
-4.92996E-3	-205.923E-12	665.946E-3	-19.6065E-3	-208.029E-12	685.394E-3	-51.8233E-3
-4.93497E-3	-207.049E-12	664.208E-3	-3.29795E-3	-209.200E-12	682.221E-3	-26.9155E-3
-4.93997E-3	-208.859E-12	654.559E-3	-10.2209E-3	-210.394E-12	674.845E-3	7.72386E-3
-4.94497E-3	-208.616E-12	655.181E-3	-18.3058E-3	-211.146E-12	662.972E-3	5.02678E-3
-4.94997E-3	-210.025E-12	654.061E-3	-10.5803E-3	-211.159E-12	645.716E-3	-15.3705E-3
-4.95498E-3	-213.115E-12	648.172E-3	-436.960E-6	-211.082E-12	621.804E-3	-10.9220E-3
-4.95998E-3	-213.978E-12	661.610E-3	11.2101E-3	-209.919E-12	626.252E-3	-13.8045E-3
-4.96498E-3	-214.055E-12	680.649E-3	21.9700E-3	-210.530E-12	663.646E-3	-15.4544E-3
-4.96998E-3	-214.381E-12	685.887E-3	24.8121E-3	-209.546E-12	664.832E-3	-739.528E-6
-4.97499E-3	-215.177E-12	665.461E-3	14.5562E-3	-209.343E-12	629.833E-3	-2.44475E-3
-4.97999E-3	-214.189E-12	643.847E-3	2.40602E-3	-208.224E-12	605.663E-3	-14.8999E-3
-4.98499E-3	-213.339E-12	664.709E-3	10.5133E-3	-209.339E-12	609.645E-3	-12.3180E-3
-4.98999E-3	-212.635E-12	674.232E-3	21.0219E-3	-209.570E-12	634.229E-3	5.85298E-3
-4.99500E-3	-211.922E-12	637.794E-3	5.10840E-3	-209.889E-12	633.114E-3	10.8032E-3
-5.00000E-3	-211.501E-12	611.129E-3	-15.2891E-3	-210.222E-12	613.599E-3	-6.62896E-3
