Experiment	bias spectroscopy	
Date	19.01.2016 20:15:43	
User		
X (m)	50.7051E-9	
Y (m)	257.236E-9	
Z (m)	-132.639E-9	
Z offset (m)	0E+0	
Settling time (s)	200E-6	
Integration time (s)	5E-3	
Z-Ctrl hold	TRUE	
Final Z (m)	N/A	
Filter type	None	
Order		
Cutoff frq		
Comment01	MnPc/Pb(111)	
Comment02	dz =00pm	
Comment03	7 Sweeps	
Comment04	MagField =0.T	
Comment05	Divider 1:10	
Comment06	Setpoint:5mV,200 pA	
Comment07	Lockin: 50uVrms,5ms,5mV	
Comment08	Gain:9; 912Hz modulation	
Comment09	T=1.06K	
Bias>Bias (V)	5E-3	
Bias>Calibration (V/V)	81.475E-3	
Bias>Offset (V)	1.046E-3	
Bias Spectroscopy>Sweep Start (V)	5E-3	
Bias Spectroscopy>Sweep End (V)	-5E-3	
Bias Spectroscopy>Num Pixel	2000	
Bias Spectroscopy>Z Avg time (s)	500E-3	
Bias Spectroscopy>Z offset (m)	0E+0	
Bias Spectroscopy>1st Settling time (s)	500E-3	
Bias Spectroscopy>Settling time (s)	200E-6	
Bias Spectroscopy>Integration time (s)	5E-3	
Bias Spectroscopy>End Settling time (s)	500E-3	
Bias Spectroscopy>Z control time (s)	500E-3	
Bias Spectroscopy>Max Slew rate (V/s)	Inf	
Bias Spectroscopy>backward sweep	TRUE	
Bias Spectroscopy>Z-controller hold	TRUE	
Bias Spectroscopy>Number of sweeps	7	
Bias Spectroscopy>Channels	Current (A);X% LockIn (V);Y% LockIn (V)	
Bias Spectroscopy>Reset Bias	TRUE	
Bias Spectroscopy>Record final Z	FALSE	
Bias Spectroscopy>Lock-In run	FALSE	
Bias Spectroscopy>Sweep mode	Linear	
Bias Spectroscopy>MultiLine Settings : Segment Start (V), Segment End (V), Settling (s), Integration (s), Steps (xn)	100E-3,3.3E-3,100E-6,10E-3,2500;3.3E-3,-3.3E-3,100E-6,10E-3,10;-3.3E-3,-100E-3,100E-6,10E-3,2500	
Current>Current (A)	200.46E-12	
Current>Calibration (A/V)	999.99900E-12	
Current>Offset (A)	-455.429E-15	
Current>Gain	LN 10^9	
Z-Controller>Z (m)	-132.642E-9	
Z-Controller>Controller name	log Current	
Z-Controller>Controller status	ON	
Z-Controller>Setpoint	200E-12	
Z-Controller>Setpoint unit	A	
Z-Controller>P gain	2.96994E-12	
Z-Controller>I gain	67.0321E-9	
Z-Controller>Time const (s)	44.3062E-6	
Z-Controller>TipLift (m)	0E+0	
Z-Controller>Switch off delay (s)	50E-3	
Current (A)	200.028E-12	
Z (m)	-132.642E-9	

[DATA]
Bias calc (V)	Current (A)	X% LockIn (V)	Y% LockIn (V)	Current [bwd] (A)	X% LockIn [bwd] (V)	Y% LockIn [bwd] (V)
5.00000E-3	193.436E-12	614.489E-3	-39.8127E-3	194.232E-12	685.379E-3	-20.8975E-3
4.99500E-3	192.553E-12	597.397E-3	-61.3499E-3	195.433E-12	660.325E-3	-28.7955E-3
4.98999E-3	193.403E-12	601.655E-3	-58.0911E-3	192.869E-12	627.910E-3	-27.7335E-3
4.98499E-3	193.459E-12	617.279E-3	-54.9026E-3	193.324E-12	627.988E-3	-22.8599E-3
4.97999E-3	191.573E-12	630.475E-3	-51.5445E-3	192.836E-12	628.838E-3	-18.3987E-3
4.97499E-3	192.169E-12	637.350E-3	-35.7581E-3	195.916E-12	627.524E-3	-15.8921E-3
4.96998E-3	191.614E-12	629.447E-3	-18.1227E-3	193.972E-12	651.007E-3	-6.48721E-3
4.96498E-3	194.065E-12	614.292E-3	-4.72333E-3	192.656E-12	657.817E-3	3.52281E-3
4.95998E-3	193.389E-12	603.048E-3	-19.8014E-3	190.900E-12	638.433E-3	7.71259E-3
4.95498E-3	192.952E-12	597.849E-3	-29.1962E-3	191.833E-12	616.665E-3	-25.4607E-3
4.94997E-3	193.195E-12	631.825E-3	-21.1579E-3	191.707E-12	593.239E-3	-63.8836E-3
4.94497E-3	193.579E-12	668.584E-3	-32.5344E-3	190.065E-12	596.786E-3	-42.7700E-3
4.93997E-3	195.500E-12	645.682E-3	-32.2992E-3	188.509E-12	624.101E-3	-28.8964E-3
4.93497E-3	194.300E-12	611.837E-3	-32.4414E-3	188.839E-12	633.323E-3	-31.5897E-3
4.92996E-3	194.032E-12	604.511E-3	-36.0261E-3	189.894E-12	627.975E-3	-915.807E-6
4.92496E-3	192.023E-12	620.459E-3	-26.5135E-3	190.343E-12	629.692E-3	5.94696E-3
4.91996E-3	192.936E-12	638.196E-3	-39.4349E-3	188.977E-12	648.957E-3	-21.3502E-3
4.91496E-3	192.226E-12	635.036E-3	-59.5188E-3	190.305E-12	647.321E-3	-34.1750E-3
4.90995E-3	190.356E-12	642.547E-3	-43.3726E-3	191.156E-12	623.748E-3	-44.4574E-3
4.90495E-3	189.169E-12	657.988E-3	-19.5608E-3	191.702E-12	615.651E-3	-37.8107E-3
4.89995E-3	189.630E-12	657.386E-3	-15.0210E-3	191.468E-12	604.523E-3	-786.455E-6
4.89495E-3	190.723E-12	636.068E-3	-1.77591E-3	191.374E-12	590.198E-3	27.0990E-3
4.88995E-3	188.581E-12	607.942E-3	7.33931E-3	192.696E-12	600.539E-3	28.2595E-3
4.88494E-3	187.942E-12	615.803E-3	-1.69110E-3	192.756E-12	618.551E-3	32.0696E-3
4.87994E-3	187.141E-12	641.366E-3	-2.65047E-3	192.399E-12	644.281E-3	29.5065E-3
4.87494E-3	188.106E-12	650.772E-3	-1.07151E-3	191.445E-12	678.210E-3	-8.38528E-3
4.86993E-3	187.861E-12	653.539E-3	-10.4947E-3	191.829E-12	659.510E-3	-26.0865E-3
4.86493E-3	186.196E-12	653.286E-3	-12.3970E-3	191.108E-12	618.155E-3	-2.52972E-3
4.85993E-3	184.589E-12	620.626E-3	1.11359E-3	189.930E-12	612.268E-3	9.96551E-3
4.85493E-3	186.737E-12	574.034E-3	-5.23094E-3	189.327E-12	619.112E-3	4.97393E-3
4.84992E-3	189.702E-12	585.296E-3	-31.6291E-3	189.115E-12	628.692E-3	-1.12252E-3
4.84492E-3	187.984E-12	635.410E-3	-42.6343E-3	188.952E-12	641.507E-3	-21.1133E-3
4.83992E-3	184.698E-12	664.923E-3	-37.2782E-3	187.191E-12	639.621E-3	-39.3924E-3
4.83492E-3	186.096E-12	656.991E-3	-12.3392E-3	184.227E-12	629.496E-3	-16.6533E-3
4.82991E-3	188.045E-12	615.151E-3	25.0516E-3	184.022E-12	614.427E-3	8.70385E-3
4.82491E-3	186.442E-12	585.838E-3	33.2042E-3	184.165E-12	599.322E-3	-18.9927E-3
4.81991E-3	183.384E-12	617.603E-3	8.11743E-3	185.746E-12	612.153E-3	-27.6134E-3
4.81491E-3	184.341E-12	652.986E-3	-303.223E-6	183.180E-12	642.291E-3	5.01181E-3
4.80990E-3	185.956E-12	633.229E-3	-7.55857E-3	183.111E-12	652.182E-3	-1.11339E-3
4.80490E-3	184.496E-12	630.759E-3	-21.8890E-3	184.578E-12	641.730E-3	-22.6714E-3
4.79990E-3	182.604E-12	650.439E-3	-5.83209E-3	186.458E-12	635.272E-3	-33.4818E-3
4.79490E-3	182.973E-12	633.180E-3	-4.91994E-3	185.743E-12	615.655E-3	-47.4501E-3
4.78989E-3	183.831E-12	622.201E-3	-16.3272E-3	184.919E-12	616.177E-3	-29.2823E-3
4.78489E-3	183.124E-12	617.784E-3	933.306E-6	187.464E-12	640.301E-3	-22.4649E-3
4.77989E-3	182.675E-12	600.463E-3	-3.43916E-3	187.753E-12	639.589E-3	-58.5521E-3
4.77489E-3	183.449E-12	601.845E-3	-46.0030E-3	188.401E-12	640.862E-3	-63.0888E-3
4.76988E-3	186.341E-12	603.179E-3	-58.2109E-3	187.116E-12	648.327E-3	-42.7098E-3
4.76488E-3	185.301E-12	604.686E-3	-33.0836E-3	186.993E-12	626.391E-3	-28.6253E-3
4.75988E-3	185.631E-12	619.090E-3	-21.7046E-3	185.971E-12	605.084E-3	-17.8740E-3
4.75488E-3	184.895E-12	632.124E-3	-27.5677E-3	183.667E-12	620.826E-3	-31.6818E-3
4.74988E-3	186.115E-12	633.345E-3	-27.4338E-3	182.914E-12	628.215E-3	-32.0160E-3
4.74487E-3	185.662E-12	625.378E-3	-12.3476E-3	182.301E-12	624.252E-3	-15.3222E-3
4.73987E-3	186.177E-12	625.753E-3	-17.3012E-3	180.703E-12	633.198E-3	-36.6031E-3
4.73487E-3	185.484E-12	629.686E-3	-30.9472E-3	180.641E-12	619.570E-3	-44.9471E-3
4.72986E-3	184.275E-12	635.285E-3	-30.3291E-3	180.179E-12	591.788E-3	-33.2402E-3
4.72486E-3	183.399E-12	655.951E-3	-30.1845E-3	179.441E-12	578.959E-3	-36.2994E-3
4.71986E-3	183.166E-12	666.565E-3	-28.8465E-3	179.071E-12	593.552E-3	-21.7355E-3
4.71486E-3	182.014E-12	648.536E-3	-25.3959E-3	180.909E-12	625.087E-3	-3.81244E-3
4.70985E-3	181.476E-12	628.569E-3	-13.6385E-3	182.391E-12	654.111E-3	-10.0712E-3
4.70485E-3	181.415E-12	600.754E-3	9.65348E-3	180.819E-12	682.984E-3	-17.6303E-3
4.69985E-3	182.010E-12	585.463E-3	6.74170E-3	180.674E-12	679.128E-3	-13.6059E-3
4.69485E-3	181.947E-12	606.237E-3	-32.9624E-3	183.904E-12	643.288E-3	-9.17725E-3
4.68984E-3	182.330E-12	632.897E-3	-55.1114E-3	185.814E-12	616.047E-3	-17.0155E-3
4.68484E-3	181.328E-12	651.388E-3	-51.8383E-3	184.557E-12	614.275E-3	-20.4710E-3
4.67984E-3	180.269E-12	647.046E-3	-44.7566E-3	183.005E-12	634.767E-3	-32.7201E-3
4.67484E-3	180.565E-12	623.010E-3	-32.9527E-3	183.298E-12	653.692E-3	-56.1484E-3
4.66983E-3	180.477E-12	623.325E-3	-16.1554E-3	185.486E-12	649.334E-3	-47.4255E-3
4.66483E-3	179.753E-12	662.128E-3	-22.1006E-3	184.741E-12	631.397E-3	-27.1894E-3
4.65983E-3	178.762E-12	689.561E-3	-55.0219E-3	180.816E-12	613.370E-3	-17.8065E-3
4.65483E-3	180.198E-12	657.775E-3	-53.3489E-3	179.993E-12	606.719E-3	-12.4731E-3
4.64982E-3	179.425E-12	604.316E-3	-28.5462E-3	180.395E-12	608.085E-3	-8.45909E-3
4.64482E-3	178.654E-12	608.350E-3	-28.2164E-3	180.309E-12	618.874E-3	-12.8385E-3
4.63982E-3	176.940E-12	648.184E-3	-28.7491E-3	179.614E-12	631.168E-3	-19.1462E-3
4.63482E-3	178.295E-12	648.889E-3	-17.4625E-3	177.767E-12	605.517E-3	-15.7924E-3
4.62981E-3	181.077E-12	636.228E-3	2.52090E-3	176.864E-12	579.131E-3	-3.24449E-3
4.62481E-3	179.660E-12	648.392E-3	4.45006E-3	177.065E-12	584.270E-3	1.95132E-3
4.61981E-3	178.486E-12	649.042E-3	-11.2254E-3	176.006E-12	603.334E-3	-2.52769E-3
4.61481E-3	179.287E-12	624.595E-3	-10.3272E-3	175.309E-12	638.672E-3	3.16034E-3
4.60980E-3	179.779E-12	613.497E-3	3.48443E-3	175.750E-12	650.686E-3	7.20004E-3
4.60480E-3	179.139E-12	625.905E-3	23.8173E-3	176.276E-12	618.590E-3	13.0346E-3
4.59980E-3	178.530E-12	634.880E-3	22.0030E-3	177.122E-12	587.546E-3	2.91629E-3
4.59480E-3	178.884E-12	643.963E-3	-12.2161E-3	176.305E-12	574.317E-3	-7.25838E-3
4.58979E-3	178.909E-12	654.606E-3	-28.7740E-3	176.200E-12	595.547E-3	9.03900E-3
4.58479E-3	177.677E-12	636.109E-3	-13.0921E-3	178.108E-12	637.519E-3	10.8316E-3
4.57979E-3	177.447E-12	603.556E-3	-12.3998E-3	178.098E-12	637.862E-3	4.26811E-3
4.57479E-3	177.058E-12	594.103E-3	-20.6983E-3	178.507E-12	614.103E-3	1.86076E-3
4.56978E-3	177.249E-12	607.170E-3	-13.3700E-3	178.718E-12	623.570E-3	-12.2140E-3
4.56478E-3	175.576E-12	640.427E-3	-22.0017E-3	177.504E-12	642.484E-3	-13.2209E-3
4.55978E-3	174.504E-12	668.194E-3	-30.5093E-3	178.250E-12	630.714E-3	3.12432E-3
4.55478E-3	174.916E-12	639.845E-3	-26.1354E-3	177.759E-12	612.523E-3	-4.97853E-3
4.54977E-3	175.664E-12	608.320E-3	-22.4506E-3	177.264E-12	607.491E-3	-19.0551E-3
4.54477E-3	175.938E-12	632.462E-3	-9.76463E-3	176.346E-12	602.404E-3	-4.11830E-3
4.53977E-3	173.944E-12	663.880E-3	12.6362E-3	176.138E-12	602.335E-3	3.29754E-3
4.53477E-3	173.390E-12	657.032E-3	26.7105E-3	175.021E-12	605.506E-3	-9.95291E-3
4.52976E-3	174.288E-12	619.028E-3	12.5776E-3	174.593E-12	614.966E-3	-23.6036E-3
4.52476E-3	175.925E-12	599.936E-3	-11.0120E-3	173.827E-12	632.099E-3	-37.2181E-3
4.51976E-3	174.344E-12	613.009E-3	-8.24804E-3	173.341E-12	645.329E-3	-41.7227E-3
4.51476E-3	173.207E-12	628.951E-3	-2.11321E-3	172.063E-12	652.663E-3	-29.9831E-3
4.50975E-3	174.413E-12	636.350E-3	-21.5671E-3	171.809E-12	629.267E-3	-17.5755E-3
4.50475E-3	175.381E-12	614.699E-3	-27.5780E-3	171.904E-12	611.739E-3	-24.7727E-3
4.49975E-3	173.934E-12	602.676E-3	-18.7189E-3	171.903E-12	647.140E-3	-35.0523E-3
4.49475E-3	173.105E-12	622.336E-3	-26.7690E-3	171.707E-12	670.936E-3	-15.0439E-3
4.48974E-3	174.293E-12	636.165E-3	-42.3435E-3	172.285E-12	645.908E-3	12.8502E-3
4.48474E-3	172.797E-12	643.530E-3	-43.9489E-3	171.907E-12	619.476E-3	30.3627E-3
4.47974E-3	172.499E-12	628.981E-3	-25.2003E-3	171.194E-12	625.479E-3	46.3332E-3
4.47474E-3	171.836E-12	612.578E-3	-6.80643E-3	173.210E-12	641.208E-3	24.2207E-3
4.46973E-3	169.821E-12	624.560E-3	8.90533E-3	174.757E-12	634.526E-3	-16.0640E-3
4.46473E-3	170.216E-12	612.150E-3	28.5837E-3	173.655E-12	606.683E-3	-26.0663E-3
4.45973E-3	170.742E-12	593.411E-3	23.8793E-3	173.522E-12	586.754E-3	-11.2725E-3
4.45473E-3	171.041E-12	589.072E-3	-27.4456E-3	173.674E-12	582.036E-3	121.572E-6
4.44972E-3	169.493E-12	583.542E-3	-80.1491E-3	173.927E-12	606.461E-3	-4.24680E-3
4.44472E-3	169.783E-12	593.369E-3	-73.9668E-3	172.938E-12	641.182E-3	-16.1872E-3
4.43972E-3	170.103E-12	601.943E-3	-30.9935E-3	171.889E-12	631.724E-3	-36.4233E-3
4.43472E-3	171.312E-12	608.867E-3	-7.08078E-3	171.640E-12	616.407E-3	-40.1933E-3
4.42971E-3	171.043E-12	611.126E-3	4.73973E-3	170.572E-12	628.144E-3	-32.8950E-3
4.42471E-3	172.888E-12	608.914E-3	17.9288E-3	168.931E-12	630.308E-3	-30.1346E-3
4.41971E-3	172.682E-12	623.145E-3	29.8672E-3	167.654E-12	632.064E-3	-27.9875E-3
4.41471E-3	172.828E-12	645.593E-3	64.1902E-3	166.891E-12	646.451E-3	-46.9661E-3
4.40970E-3	172.692E-12	649.522E-3	69.6216E-3	165.986E-12	644.233E-3	-63.8177E-3
4.40470E-3	171.797E-12	646.683E-3	19.8515E-3	165.082E-12	628.323E-3	-35.2350E-3
4.39970E-3	171.343E-12	639.796E-3	-1.75590E-3	164.537E-12	621.500E-3	-10.1574E-3
4.39470E-3	170.691E-12	620.769E-3	18.5502E-3	165.023E-12	611.546E-3	-4.44722E-3
4.38969E-3	170.803E-12	622.289E-3	19.1371E-3	165.321E-12	610.584E-3	25.2859E-3
4.38469E-3	170.502E-12	625.554E-3	-3.57821E-3	165.919E-12	633.984E-3	29.7824E-3
4.37969E-3	169.975E-12	617.686E-3	-15.1134E-3	166.700E-12	643.975E-3	-376.508E-6
4.37469E-3	169.919E-12	617.804E-3	-16.3965E-3	167.903E-12	631.668E-3	-8.22825E-3
4.36968E-3	167.617E-12	622.369E-3	-24.3762E-3	167.714E-12	629.645E-3	-23.6041E-3
4.36468E-3	166.948E-12	631.270E-3	-23.7320E-3	168.873E-12	653.074E-3	-52.0931E-3
4.35968E-3	166.937E-12	613.867E-3	-24.4930E-3	169.029E-12	665.366E-3	-23.4845E-3
4.35468E-3	168.748E-12	590.287E-3	-46.3084E-3	169.494E-12	649.709E-3	6.96062E-3
4.34967E-3	167.851E-12	592.496E-3	-39.9194E-3	169.709E-12	642.749E-3	-13.5341E-3
4.34467E-3	167.902E-12	605.214E-3	-19.0542E-3	169.314E-12	647.708E-3	-19.2457E-3
4.33967E-3	168.445E-12	629.520E-3	-30.3901E-3	168.962E-12	658.915E-3	-23.2779E-3
4.33467E-3	170.500E-12	639.949E-3	-37.1162E-3	167.279E-12	661.964E-3	-49.2611E-3
4.32966E-3	169.682E-12	638.039E-3	-23.9040E-3	166.188E-12	635.976E-3	-47.3912E-3
4.32466E-3	168.251E-12	660.030E-3	-29.8401E-3	165.415E-12	616.321E-3	-23.4538E-3
4.31966E-3	168.240E-12	671.487E-3	-52.4387E-3	164.833E-12	610.034E-3	-9.27587E-3
4.31466E-3	168.386E-12	669.801E-3	-39.1246E-3	163.904E-12	592.903E-3	-6.29701E-3
4.30965E-3	167.230E-12	681.076E-3	822.284E-6	163.703E-12	599.686E-3	-24.8888E-3
4.30465E-3	167.000E-12	662.952E-3	6.70758E-3	162.993E-12	623.403E-3	-47.9418E-3
4.29965E-3	167.114E-12	610.008E-3	3.00402E-3	163.612E-12	604.732E-3	-46.8517E-3
4.29465E-3	165.932E-12	572.647E-3	13.9620E-3	164.440E-12	587.212E-3	-13.5948E-3
4.28964E-3	165.271E-12	581.073E-3	3.22870E-3	163.992E-12	612.494E-3	9.00796E-3
4.28464E-3	165.276E-12	602.542E-3	-2.43200E-3	164.481E-12	630.713E-3	3.69277E-3
4.27964E-3	162.992E-12	630.339E-3	-4.26075E-3	165.485E-12	632.106E-3	9.28169E-3
4.27464E-3	162.700E-12	648.191E-3	-24.7105E-3	167.173E-12	638.142E-3	-2.79419E-3
4.26963E-3	163.985E-12	606.966E-3	-23.4550E-3	166.972E-12	644.826E-3	-50.6162E-3
4.26463E-3	164.622E-12	584.026E-3	-11.8166E-3	166.393E-12	642.316E-3	-64.7066E-3
4.25963E-3	162.005E-12	628.371E-3	-22.0109E-3	166.797E-12	637.147E-3	-42.5063E-3
4.25463E-3	161.269E-12	651.090E-3	-36.3704E-3	169.416E-12	645.873E-3	-29.1985E-3
4.24962E-3	163.166E-12	625.008E-3	-45.9375E-3	167.784E-12	657.529E-3	-16.3098E-3
4.24462E-3	165.311E-12	587.085E-3	-34.7633E-3	164.874E-12	643.400E-3	-7.43406E-3
4.23962E-3	162.729E-12	574.114E-3	-5.50092E-3	164.458E-12	606.767E-3	-12.7076E-3
4.23462E-3	160.223E-12	605.946E-3	-1.64791E-3	165.023E-12	599.000E-3	-19.6565E-3
4.22961E-3	161.392E-12	637.001E-3	-14.8202E-3	164.795E-12	627.210E-3	-18.1257E-3
4.22461E-3	164.191E-12	630.442E-3	-29.2795E-3	162.294E-12	638.265E-3	-20.6188E-3
4.21961E-3	163.230E-12	617.329E-3	-26.9721E-3	160.828E-12	628.228E-3	-33.3288E-3
4.21461E-3	160.407E-12	618.735E-3	309.396E-6	160.390E-12	613.189E-3	-42.8275E-3
4.20960E-3	161.084E-12	617.343E-3	19.2117E-3	160.928E-12	602.413E-3	-52.9840E-3
4.20460E-3	162.153E-12	629.618E-3	10.1166E-3	160.825E-12	597.685E-3	-45.8982E-3
4.19960E-3	162.687E-12	648.588E-3	-25.0101E-3	158.324E-12	615.052E-3	-22.9143E-3
4.19460E-3	160.761E-12	635.835E-3	-56.5147E-3	157.273E-12	620.414E-3	-1.31716E-3
4.18959E-3	159.288E-12	615.613E-3	-44.3787E-3	159.228E-12	596.082E-3	16.1128E-3
4.18459E-3	159.399E-12	625.950E-3	-8.60882E-3	160.099E-12	619.372E-3	-2.64715E-3
4.17959E-3	160.790E-12	637.881E-3	9.46383E-3	158.217E-12	658.166E-3	-41.0477E-3
4.17459E-3	160.830E-12	624.645E-3	-2.01279E-3	156.345E-12	649.723E-3	-42.8938E-3
4.16958E-3	158.369E-12	618.823E-3	-19.5905E-3	157.527E-12	617.561E-3	-30.8408E-3
4.16458E-3	157.901E-12	629.171E-3	-1.85346E-3	159.137E-12	590.408E-3	-30.6054E-3
4.15958E-3	159.267E-12	631.769E-3	9.24559E-3	159.779E-12	594.050E-3	-21.5579E-3
4.15458E-3	159.039E-12	650.202E-3	-19.7671E-3	157.966E-12	620.660E-3	-714.444E-6
4.14957E-3	157.071E-12	670.272E-3	-37.8017E-3	158.018E-12	626.960E-3	11.4525E-3
4.14457E-3	156.326E-12	650.061E-3	-30.4756E-3	158.811E-12	605.567E-3	-7.14140E-3
4.13957E-3	156.270E-12	632.940E-3	-25.5999E-3	159.989E-12	590.127E-3	-38.7765E-3
4.13457E-3	157.302E-12	629.173E-3	-13.5162E-3	159.099E-12	604.460E-3	-46.7748E-3
4.12956E-3	157.396E-12	608.809E-3	1.62557E-3	157.968E-12	631.392E-3	-26.3089E-3
4.12456E-3	156.281E-12	587.691E-3	-8.79723E-3	157.995E-12	637.771E-3	-11.2394E-3
4.11956E-3	156.035E-12	586.913E-3	-26.9750E-3	158.391E-12	616.653E-3	1.38941E-3
4.11456E-3	156.273E-12	586.454E-3	-34.7159E-3	157.931E-12	602.066E-3	20.8743E-3
4.10955E-3	157.687E-12	590.895E-3	-16.9769E-3	155.869E-12	614.621E-3	18.8489E-3
4.10455E-3	157.307E-12	598.257E-3	-2.36409E-3	155.390E-12	619.960E-3	-5.14859E-3
4.09955E-3	156.900E-12	581.935E-3	-12.9980E-3	154.047E-12	607.514E-3	-9.96311E-3
4.09455E-3	158.038E-12	581.663E-3	-11.2266E-3	154.604E-12	617.119E-3	7.66289E-3
4.08954E-3	158.285E-12	598.907E-3	9.21402E-3	153.526E-12	643.491E-3	9.64858E-3
4.08454E-3	156.853E-12	599.812E-3	6.50641E-3	153.332E-12	654.571E-3	-6.81017E-3
4.07954E-3	156.237E-12	609.417E-3	-12.0951E-3	152.635E-12	666.268E-3	-27.2611E-3
4.07454E-3	156.420E-12	637.690E-3	-6.24752E-3	152.435E-12	658.486E-3	-40.2678E-3
4.06953E-3	155.605E-12	627.563E-3	-1.90221E-3	152.889E-12	605.021E-3	-20.1917E-3
4.06453E-3	155.146E-12	606.933E-3	-26.1806E-3	154.728E-12	583.397E-3	23.6806E-3
4.05953E-3	154.505E-12	630.472E-3	-40.8250E-3	154.862E-12	602.458E-3	36.1508E-3
4.05453E-3	154.233E-12	638.554E-3	-32.1655E-3	153.609E-12	598.791E-3	3.34722E-3
4.04952E-3	154.003E-12	613.853E-3	-27.2099E-3	155.283E-12	590.277E-3	-22.1917E-3
4.04452E-3	152.994E-12	602.860E-3	-20.8542E-3	155.960E-12	619.802E-3	-27.9664E-3
4.03952E-3	152.792E-12	603.166E-3	-2.14266E-3	157.984E-12	643.636E-3	-42.8757E-3
4.03452E-3	151.516E-12	589.066E-3	4.95636E-3	156.254E-12	620.729E-3	-23.1686E-3
4.02951E-3	150.948E-12	580.481E-3	-7.41383E-3	156.335E-12	613.104E-3	15.1345E-3
4.02451E-3	150.807E-12	591.031E-3	-10.1379E-3	156.878E-12	622.665E-3	-6.54898E-3
4.01951E-3	152.546E-12	593.754E-3	-10.0061E-3	156.523E-12	628.332E-3	-26.2433E-3
4.01451E-3	151.691E-12	595.171E-3	-16.2782E-3	155.252E-12	644.628E-3	-16.0730E-3
4.00950E-3	151.669E-12	610.606E-3	-17.6573E-3	154.050E-12	634.086E-3	-19.9476E-3
4.00450E-3	150.793E-12	634.177E-3	-14.1984E-3	153.823E-12	611.667E-3	-12.1670E-3
3.99950E-3	152.088E-12	644.145E-3	-4.88102E-3	152.877E-12	624.165E-3	8.59267E-3
3.99450E-3	152.244E-12	625.890E-3	6.34064E-3	152.773E-12	620.627E-3	8.28015E-3
3.98949E-3	152.010E-12	612.026E-3	-1.45129E-3	151.612E-12	592.713E-3	-985.212E-6
3.98449E-3	152.477E-12	615.275E-3	-25.2748E-3	151.426E-12	598.978E-3	9.77719E-3
3.97949E-3	152.120E-12	618.518E-3	-25.3177E-3	150.538E-12	626.819E-3	32.5700E-3
3.97449E-3	151.614E-12	625.828E-3	-27.2155E-3	150.256E-12	650.482E-3	35.0914E-3
3.96948E-3	150.632E-12	636.019E-3	-42.2192E-3	150.682E-12	656.272E-3	11.6852E-3
3.96448E-3	150.751E-12	623.390E-3	-35.3957E-3	151.142E-12	641.616E-3	-6.80778E-3
3.95948E-3	150.000E-12	601.604E-3	-23.5935E-3	151.701E-12	642.775E-3	-18.6232E-3
3.95448E-3	150.037E-12	618.192E-3	-18.9647E-3	152.000E-12	647.636E-3	-34.7487E-3
3.94947E-3	149.724E-12	634.658E-3	-5.45259E-3	153.064E-12	629.535E-3	-44.5918E-3
3.94447E-3	148.443E-12	625.002E-3	2.26118E-3	153.904E-12	605.680E-3	-34.9955E-3
3.93947E-3	147.241E-12	619.913E-3	-9.55251E-3	154.846E-12	611.954E-3	-21.0042E-3
3.93447E-3	146.663E-12	631.845E-3	-11.2293E-3	154.320E-12	651.865E-3	-33.6220E-3
3.92946E-3	148.205E-12	632.156E-3	-7.84888E-3	153.427E-12	675.300E-3	-52.1589E-3
3.92446E-3	147.046E-12	612.856E-3	-19.4851E-3	154.629E-12	671.050E-3	-50.2494E-3
3.91946E-3	146.306E-12	619.389E-3	-32.5925E-3	154.251E-12	658.878E-3	-53.1836E-3
3.91446E-3	147.190E-12	638.227E-3	-39.1641E-3	153.189E-12	642.754E-3	-41.1230E-3
3.90945E-3	149.295E-12	632.458E-3	-44.6758E-3	151.544E-12	633.303E-3	-13.1072E-3
3.90445E-3	149.178E-12	620.857E-3	-43.4245E-3	151.948E-12	635.713E-3	-16.7710E-3
3.89945E-3	148.471E-12	625.335E-3	-31.6914E-3	150.650E-12	630.363E-3	-15.8115E-3
3.89445E-3	149.713E-12	634.876E-3	-4.84662E-3	150.309E-12	609.248E-3	-1.28070E-3
3.88944E-3	149.960E-12	656.665E-3	10.5829E-3	150.550E-12	605.249E-3	-6.98443E-3
3.88444E-3	150.150E-12	675.181E-3	1.04279E-3	148.690E-12	627.451E-3	-14.6550E-3
3.87944E-3	149.815E-12	661.799E-3	-614.982E-6	147.477E-12	645.237E-3	-15.2391E-3
3.87444E-3	149.015E-12	629.864E-3	-4.19818E-3	147.143E-12	646.561E-3	-22.6470E-3
3.86943E-3	148.506E-12	609.334E-3	-8.36209E-3	147.333E-12	644.450E-3	-25.6552E-3
3.86443E-3	148.366E-12	609.980E-3	-4.19254E-3	147.126E-12	650.956E-3	-22.3591E-3
3.85943E-3	148.104E-12	616.522E-3	-7.37604E-3	146.222E-12	648.003E-3	-35.0454E-3
3.85443E-3	146.898E-12	615.904E-3	-12.5821E-3	146.647E-12	607.443E-3	-37.7978E-3
3.84942E-3	146.091E-12	623.754E-3	-7.75234E-3	148.050E-12	584.534E-3	-10.8550E-3
3.84442E-3	145.995E-12	655.758E-3	-12.4634E-3	148.757E-12	612.853E-3	-5.74155E-3
3.83942E-3	145.340E-12	671.906E-3	-21.2454E-3	147.086E-12	632.880E-3	-17.3460E-3
3.83442E-3	144.941E-12	653.894E-3	-15.3810E-3	145.970E-12	629.736E-3	-10.3417E-3
3.82941E-3	144.167E-12	623.973E-3	-11.0983E-3	147.228E-12	624.668E-3	-149.405E-6
3.82441E-3	142.697E-12	598.639E-3	-7.94127E-3	148.146E-12	632.737E-3	9.05691E-3
3.81941E-3	142.839E-12	591.418E-3	19.7282E-3	146.364E-12	650.887E-3	9.41134E-3
3.81441E-3	144.327E-12	597.642E-3	36.7959E-3	143.698E-12	651.884E-3	545.959E-6
3.80940E-3	144.203E-12	602.322E-3	15.7086E-3	144.794E-12	638.502E-3	-11.1797E-3
3.80440E-3	143.983E-12	608.596E-3	-485.082E-6	146.327E-12	638.821E-3	-10.6996E-3
3.79940E-3	142.880E-12	627.068E-3	-149.597E-6	145.781E-12	646.594E-3	8.43648E-3
3.79440E-3	144.269E-12	655.746E-3	-10.1972E-3	142.854E-12	654.194E-3	6.73752E-3
3.78939E-3	144.935E-12	667.543E-3	-29.2375E-3	141.611E-12	650.675E-3	-11.5913E-3
3.78439E-3	144.669E-12	645.858E-3	-18.1617E-3	142.664E-12	639.828E-3	-22.5631E-3
3.77939E-3	143.945E-12	630.724E-3	15.0721E-3	142.113E-12	642.208E-3	-32.9075E-3
3.77439E-3	143.137E-12	634.253E-3	22.4846E-3	140.064E-12	635.870E-3	-25.5318E-3
3.76938E-3	142.942E-12	638.507E-3	10.5902E-3	139.991E-12	615.970E-3	-13.0104E-3
3.76438E-3	142.409E-12	636.465E-3	8.31917E-3	140.637E-12	612.187E-3	-15.6762E-3
3.75938E-3	142.742E-12	626.057E-3	-3.36877E-3	141.054E-12	627.292E-3	-12.8940E-3
3.75438E-3	142.501E-12	629.159E-3	-19.3719E-3	139.235E-12	644.827E-3	-12.1687E-3
3.74937E-3	142.666E-12	626.254E-3	-13.2173E-3	139.380E-12	641.541E-3	-18.3442E-3
3.74437E-3	141.669E-12	605.340E-3	-7.56709E-3	139.850E-12	621.798E-3	-23.4616E-3
3.73937E-3	141.507E-12	600.396E-3	-11.2606E-3	139.728E-12	634.314E-3	-26.4869E-3
3.73437E-3	140.544E-12	608.373E-3	2.84685E-3	139.392E-12	664.820E-3	-23.0134E-3
3.72936E-3	141.044E-12	623.072E-3	6.65097E-3	138.992E-12	675.769E-3	-18.9147E-3
3.72436E-3	141.214E-12	636.003E-3	-13.0871E-3	140.519E-12	665.943E-3	-25.0727E-3
3.71936E-3	140.439E-12	631.100E-3	-26.2909E-3	140.743E-12	646.740E-3	-27.0894E-3
3.71436E-3	139.139E-12	621.465E-3	-38.8501E-3	140.550E-12	638.952E-3	-4.73896E-3
3.70935E-3	139.293E-12	620.885E-3	-39.0186E-3	140.890E-12	637.856E-3	-1.22974E-3
3.70435E-3	140.271E-12	624.326E-3	-19.9678E-3	141.473E-12	639.194E-3	-14.1903E-3
3.69935E-3	140.231E-12	622.447E-3	-930.455E-6	142.379E-12	645.847E-3	-3.40988E-3
3.69435E-3	139.801E-12	617.433E-3	6.71660E-3	141.631E-12	645.683E-3	5.21120E-3
3.68934E-3	139.901E-12	610.827E-3	1.12331E-3	141.750E-12	625.894E-3	-247.402E-6
3.68434E-3	139.246E-12	600.441E-3	-18.3763E-3	140.641E-12	603.417E-3	-9.85947E-3
3.67934E-3	140.221E-12	595.336E-3	-40.6450E-3	139.801E-12	609.195E-3	-4.39883E-3
3.67434E-3	139.105E-12	608.399E-3	-17.8170E-3	140.293E-12	632.160E-3	11.2803E-3
3.66933E-3	139.657E-12	627.781E-3	34.6912E-3	140.693E-12	638.544E-3	-2.24517E-3
3.66433E-3	139.384E-12	631.150E-3	29.5262E-3	138.545E-12	640.689E-3	-23.4644E-3
3.65933E-3	139.956E-12	628.449E-3	-10.5959E-3	137.685E-12	649.408E-3	-29.4907E-3
3.65433E-3	139.910E-12	607.934E-3	-15.4759E-3	138.873E-12	635.685E-3	-44.3143E-3
3.64932E-3	138.828E-12	603.487E-3	-8.97940E-3	138.848E-12	623.552E-3	-39.0681E-3
3.64432E-3	138.915E-12	644.143E-3	-15.5588E-3	138.203E-12	635.770E-3	-11.9923E-3
3.63932E-3	138.089E-12	660.660E-3	-15.2469E-3	137.351E-12	649.582E-3	-13.3517E-3
3.63432E-3	138.861E-12	630.399E-3	-8.91305E-3	138.226E-12	653.072E-3	-25.1468E-3
3.62931E-3	137.057E-12	596.880E-3	-4.60810E-3	138.476E-12	629.678E-3	-20.2856E-3
3.62431E-3	136.060E-12	584.531E-3	-5.88248E-3	139.319E-12	611.617E-3	-20.1952E-3
3.61931E-3	135.533E-12	595.709E-3	-8.50693E-3	138.064E-12	634.363E-3	-26.9686E-3
3.61431E-3	135.811E-12	612.857E-3	-16.2657E-3	138.886E-12	660.349E-3	-16.2001E-3
3.60930E-3	135.384E-12	605.756E-3	-28.3455E-3	140.654E-12	664.192E-3	1.70700E-3
3.60430E-3	134.676E-12	598.634E-3	-32.6429E-3	141.203E-12	652.110E-3	-7.41653E-3
3.59930E-3	134.475E-12	610.532E-3	-28.9798E-3	139.333E-12	642.817E-3	-38.0998E-3
3.59430E-3	134.080E-12	616.515E-3	-28.0028E-3	137.823E-12	646.388E-3	-48.3960E-3
3.58929E-3	134.942E-12	607.983E-3	-26.7075E-3	138.631E-12	648.070E-3	-29.6626E-3
3.58429E-3	134.650E-12	613.875E-3	-18.4139E-3	138.392E-12	651.491E-3	-15.9280E-3
3.57929E-3	134.545E-12	636.852E-3	-3.01031E-3	138.284E-12	667.200E-3	-6.21252E-3
3.57429E-3	135.749E-12	633.189E-3	13.4547E-3	135.725E-12	675.712E-3	-1.94796E-3
3.56928E-3	136.147E-12	618.369E-3	14.8885E-3	134.368E-12	665.097E-3	-22.2757E-3
3.56428E-3	135.784E-12	628.764E-3	6.46744E-3	134.470E-12	650.821E-3	-50.8235E-3
3.55928E-3	135.598E-12	639.101E-3	-8.32912E-3	134.840E-12	646.958E-3	-52.2459E-3
3.55428E-3	135.500E-12	637.609E-3	-27.6450E-3	134.012E-12	646.860E-3	-24.1583E-3
3.54927E-3	136.009E-12	639.880E-3	-46.0427E-3	131.205E-12	640.292E-3	-17.8268E-3
3.54427E-3	134.987E-12	639.209E-3	-54.1548E-3	131.547E-12	622.257E-3	-23.9111E-3
3.53927E-3	133.746E-12	653.989E-3	-61.9588E-3	131.495E-12	606.746E-3	-9.90935E-3
3.53427E-3	132.411E-12	657.524E-3	-59.0445E-3	131.746E-12	614.692E-3	-9.80635E-3
3.52926E-3	131.919E-12	638.119E-3	-36.8027E-3	129.869E-12	629.920E-3	-26.6482E-3
3.52426E-3	131.858E-12	630.219E-3	-18.2230E-3	130.626E-12	634.218E-3	-33.8835E-3
3.51926E-3	131.097E-12	622.301E-3	-8.07451E-3	131.714E-12	630.802E-3	-38.6046E-3
3.51426E-3	130.101E-12	613.323E-3	-2.92115E-3	132.159E-12	625.866E-3	-36.4119E-3
3.50925E-3	129.528E-12	604.547E-3	-730.625E-6	131.083E-12	626.643E-3	-17.0049E-3
3.50425E-3	128.672E-12	592.122E-3	-4.17261E-3	130.714E-12	628.847E-3	-13.2972E-3
3.49925E-3	128.644E-12	594.976E-3	-12.2237E-3	132.454E-12	625.165E-3	-33.6470E-3
3.49425E-3	127.891E-12	613.077E-3	-13.9333E-3	132.646E-12	631.154E-3	-36.1049E-3
3.48924E-3	128.139E-12	623.452E-3	1.01048E-3	130.788E-12	643.034E-3	-27.1421E-3
3.48424E-3	128.235E-12	635.861E-3	9.11991E-3	130.466E-12	640.830E-3	-31.2828E-3
3.47924E-3	128.916E-12	645.534E-3	-3.45946E-3	129.969E-12	630.270E-3	-25.3317E-3
3.47424E-3	129.167E-12	630.906E-3	-1.90253E-3	131.113E-12	612.059E-3	-625.479E-6
3.46923E-3	129.728E-12	613.309E-3	342.110E-6	129.394E-12	597.599E-3	1.70062E-3
3.46423E-3	129.564E-12	620.429E-3	-21.7862E-3	127.685E-12	604.407E-3	-14.9448E-3
3.45923E-3	129.412E-12	647.325E-3	-25.3768E-3	126.789E-12	619.122E-3	-16.1221E-3
3.45423E-3	128.785E-12	662.272E-3	-1.07710E-3	127.318E-12	619.540E-3	-10.9876E-3
3.44922E-3	129.073E-12	644.202E-3	1.09352E-3	126.671E-12	615.980E-3	-737.976E-6
3.44422E-3	129.261E-12	635.959E-3	-23.7069E-3	126.069E-12	611.816E-3	5.93431E-3
3.43922E-3	129.110E-12	643.154E-3	-35.4184E-3	126.191E-12	617.687E-3	-9.76067E-3
3.43422E-3	126.651E-12	619.495E-3	-42.0985E-3	126.192E-12	641.001E-3	-30.6064E-3
3.42921E-3	126.166E-12	606.486E-3	-46.8028E-3	127.050E-12	654.031E-3	-36.5376E-3
3.42421E-3	125.820E-12	612.826E-3	-28.6256E-3	127.203E-12	648.455E-3	-42.6490E-3
3.41921E-3	125.807E-12	603.962E-3	-21.2949E-3	127.250E-12	641.014E-3	-48.6223E-3
3.41421E-3	125.268E-12	595.675E-3	-29.7058E-3	126.724E-12	652.047E-3	-31.2067E-3
3.40920E-3	124.570E-12	589.183E-3	-28.5205E-3	127.417E-12	660.893E-3	7.94631E-3
3.40420E-3	125.091E-12	598.266E-3	-22.2738E-3	127.882E-12	654.609E-3	21.0313E-3
3.39920E-3	125.111E-12	626.617E-3	-20.6141E-3	127.941E-12	647.221E-3	-8.46205E-3
3.39420E-3	125.099E-12	640.343E-3	-34.1224E-3	128.322E-12	634.955E-3	-31.4301E-3
3.38919E-3	124.559E-12	637.412E-3	-36.2183E-3	128.660E-12	642.358E-3	-11.2688E-3
3.38419E-3	125.222E-12	629.665E-3	-21.1406E-3	127.239E-12	669.796E-3	14.0896E-3
3.37919E-3	125.824E-12	614.861E-3	-14.9911E-3	125.993E-12	677.821E-3	3.34223E-3
3.37419E-3	126.157E-12	619.257E-3	-16.6664E-3	125.456E-12	662.208E-3	-16.9104E-3
3.36918E-3	126.845E-12	649.378E-3	-17.1463E-3	126.108E-12	638.128E-3	-35.1086E-3
3.36418E-3	126.843E-12	662.876E-3	-11.7166E-3	126.482E-12	611.847E-3	-48.7977E-3
3.35918E-3	126.523E-12	646.553E-3	-10.9371E-3	125.191E-12	597.982E-3	-42.4169E-3
3.35418E-3	125.907E-12	628.101E-3	-14.5674E-3	124.031E-12	609.897E-3	-11.1756E-3
3.34917E-3	126.699E-12	623.378E-3	-20.2578E-3	124.745E-12	623.778E-3	4.52130E-3
3.34417E-3	125.665E-12	628.299E-3	-34.7299E-3	125.782E-12	630.093E-3	101.100E-6
3.33917E-3	124.504E-12	639.340E-3	-35.8311E-3	125.261E-12	635.133E-3	1.38548E-3
3.33417E-3	123.978E-12	642.024E-3	-21.3279E-3	124.311E-12	640.198E-3	2.64127E-3
3.32916E-3	124.701E-12	636.631E-3	-13.8312E-3	124.491E-12	652.213E-3	27.9520E-3
3.32416E-3	124.572E-12	639.873E-3	-16.9563E-3	124.568E-12	656.210E-3	50.3134E-3
3.31916E-3	123.975E-12	652.735E-3	-24.4406E-3	125.276E-12	649.824E-3	18.2645E-3
3.31416E-3	123.008E-12	653.774E-3	-21.8992E-3	124.512E-12	649.934E-3	-37.6870E-3
3.30915E-3	123.345E-12	641.267E-3	-12.1912E-3	124.585E-12	649.882E-3	-54.6332E-3
3.30415E-3	123.730E-12	633.382E-3	-6.17052E-3	123.884E-12	642.436E-3	-30.4631E-3
3.29915E-3	124.084E-12	632.196E-3	2.84583E-3	124.426E-12	635.863E-3	-8.18343E-3
3.29415E-3	123.698E-12	632.990E-3	8.53417E-3	123.992E-12	622.129E-3	-16.6558E-3
3.28914E-3	122.832E-12	639.283E-3	-4.15176E-3	124.925E-12	611.991E-3	-48.0706E-3
3.28414E-3	122.461E-12	647.701E-3	-31.3882E-3	124.222E-12	633.800E-3	-65.9702E-3
3.27914E-3	123.717E-12	643.575E-3	-40.6837E-3	123.174E-12	662.268E-3	-47.5426E-3
3.27414E-3	123.947E-12	625.584E-3	-24.8382E-3	123.174E-12	656.686E-3	-14.7759E-3
3.26913E-3	123.619E-12	628.002E-3	-20.7643E-3	122.565E-12	645.257E-3	-9.95465E-3
3.26413E-3	122.802E-12	661.334E-3	-29.6697E-3	122.507E-12	648.648E-3	-23.1835E-3
3.25913E-3	123.521E-12	672.726E-3	-34.6600E-3	121.777E-12	654.780E-3	-38.1011E-3
3.25413E-3	124.245E-12	652.033E-3	-30.6434E-3	122.166E-12	654.607E-3	-45.4688E-3
3.24912E-3	122.052E-12	636.196E-3	-18.1447E-3	120.847E-12	639.842E-3	-28.3734E-3
3.24412E-3	121.336E-12	631.560E-3	-13.0185E-3	120.856E-12	641.855E-3	-14.1688E-3
3.23912E-3	120.742E-12	634.787E-3	-401.654E-6	120.501E-12	636.863E-3	-11.4680E-3
3.23412E-3	120.031E-12	641.270E-3	19.0469E-3	120.249E-12	605.939E-3	-4.30107E-3
3.22911E-3	118.565E-12	640.963E-3	10.8052E-3	119.680E-12	592.893E-3	-7.74700E-3
3.22411E-3	118.875E-12	630.971E-3	-15.1983E-3	119.397E-12	589.275E-3	-24.8324E-3
3.21911E-3	119.096E-12	622.748E-3	-19.5779E-3	119.471E-12	598.984E-3	-30.0528E-3
3.21411E-3	118.605E-12	632.674E-3	-2.80053E-3	119.089E-12	624.568E-3	-35.3987E-3
3.20910E-3	117.800E-12	659.053E-3	1.81604E-3	118.523E-12	636.234E-3	-57.2821E-3
3.20410E-3	116.845E-12	657.666E-3	-16.1327E-3	118.416E-12	636.280E-3	-58.9519E-3
3.19910E-3	116.566E-12	626.017E-3	-26.8537E-3	118.333E-12	634.110E-3	-45.7903E-3
3.19410E-3	115.608E-12	619.500E-3	-12.1875E-3	117.973E-12	632.360E-3	-26.8235E-3
3.18909E-3	115.453E-12	632.976E-3	-2.43180E-3	117.164E-12	633.105E-3	2.13117E-3
3.18409E-3	115.449E-12	629.044E-3	-730.242E-6	117.879E-12	643.006E-3	10.6840E-3
3.17909E-3	115.367E-12	613.068E-3	-2.79757E-3	117.833E-12	659.262E-3	-11.8195E-3
3.17409E-3	115.195E-12	596.138E-3	-19.8427E-3	118.256E-12	663.910E-3	-28.9259E-3
3.16908E-3	115.231E-12	584.224E-3	-20.8806E-3	117.772E-12	662.745E-3	-15.9269E-3
3.16408E-3	114.976E-12	588.127E-3	6.22599E-3	117.629E-12	669.565E-3	-8.27312E-3
3.15908E-3	114.659E-12	608.471E-3	27.5176E-3	116.874E-12	671.752E-3	-15.4898E-3
3.15408E-3	114.902E-12	628.327E-3	31.6975E-3	116.895E-12	665.024E-3	-15.7843E-3
3.14907E-3	115.323E-12	643.118E-3	16.0864E-3	116.214E-12	655.854E-3	-10.1810E-3
3.14407E-3	115.008E-12	655.981E-3	-10.6315E-3	115.051E-12	634.469E-3	-7.27711E-3
3.13907E-3	115.388E-12	650.756E-3	-21.5514E-3	115.630E-12	615.429E-3	-24.1096E-3
3.13407E-3	115.649E-12	644.917E-3	-17.7824E-3	114.908E-12	613.173E-3	-45.8516E-3
3.12906E-3	115.410E-12	641.452E-3	-5.84506E-3	114.405E-12	615.181E-3	-28.4178E-3
3.12406E-3	114.824E-12	634.239E-3	3.86686E-3	113.445E-12	621.450E-3	-5.90378E-3
3.11906E-3	115.535E-12	634.340E-3	3.20455E-3	113.173E-12	629.269E-3	-16.9308E-3
3.11406E-3	116.400E-12	632.076E-3	-5.63787E-3	113.039E-12	626.401E-3	-22.1306E-3
3.10905E-3	115.192E-12	619.761E-3	-16.8531E-3	112.676E-12	629.047E-3	-19.9249E-3
3.10405E-3	114.295E-12	612.572E-3	-20.6729E-3	112.974E-12	635.833E-3	-26.7897E-3
3.09905E-3	113.390E-12	619.682E-3	-28.4826E-3	112.656E-12	630.088E-3	-24.0540E-3
3.09405E-3	113.859E-12	626.640E-3	-36.9553E-3	113.132E-12	622.333E-3	-6.05778E-3
3.08904E-3	113.685E-12	624.992E-3	-23.7428E-3	112.798E-12	618.848E-3	8.71200E-3
3.08404E-3	112.768E-12	616.878E-3	-10.1858E-3	114.025E-12	625.733E-3	8.68746E-3
3.07904E-3	112.034E-12	615.410E-3	-29.7299E-3	114.635E-12	637.362E-3	5.04798E-3
3.07404E-3	111.818E-12	625.199E-3	-54.9681E-3	113.831E-12	642.148E-3	-4.00072E-3
3.06903E-3	111.687E-12	625.998E-3	-61.3299E-3	113.079E-12	648.503E-3	-17.3810E-3
3.06403E-3	112.353E-12	613.776E-3	-55.4331E-3	113.212E-12	657.413E-3	-19.9090E-3
3.05903E-3	112.589E-12	614.068E-3	-28.5688E-3	114.028E-12	647.136E-3	-15.2713E-3
3.05403E-3	112.814E-12	618.579E-3	-9.76610E-3	112.265E-12	631.806E-3	-5.65461E-3
3.04902E-3	112.687E-12	634.836E-3	-35.3671E-3	111.065E-12	643.439E-3	12.1178E-3
3.04402E-3	113.047E-12	660.141E-3	-52.3997E-3	110.442E-12	654.002E-3	18.2882E-3
3.03902E-3	113.605E-12	669.511E-3	-23.9131E-3	111.298E-12	636.818E-3	-7.54834E-3
3.03402E-3	113.806E-12	673.813E-3	-7.45626E-3	110.849E-12	616.159E-3	-40.8288E-3
3.02901E-3	112.668E-12	671.192E-3	-7.81399E-3	110.439E-12	620.613E-3	-37.0581E-3
3.02401E-3	112.287E-12	661.695E-3	7.59131E-3	109.552E-12	641.952E-3	-8.53407E-3
3.01901E-3	111.377E-12	663.343E-3	20.7988E-3	109.554E-12	649.914E-3	5.68802E-3
3.01401E-3	111.429E-12	672.056E-3	20.9994E-3	110.192E-12	652.232E-3	-2.44237E-3
3.00900E-3	111.142E-12	661.285E-3	11.2580E-3	109.998E-12	665.288E-3	-30.4764E-3
3.00400E-3	110.751E-12	657.577E-3	144.522E-6	109.354E-12	669.249E-3	-47.2930E-3
2.99900E-3	109.955E-12	672.009E-3	3.60720E-3	109.327E-12	660.109E-3	-37.8560E-3
2.99400E-3	108.642E-12	665.459E-3	12.4250E-3	110.765E-12	651.646E-3	-29.4435E-3
2.98899E-3	108.305E-12	652.681E-3	3.36519E-3	111.065E-12	645.339E-3	-13.8013E-3
2.98399E-3	109.129E-12	655.094E-3	-21.4482E-3	110.562E-12	653.998E-3	12.6618E-3
2.97899E-3	108.219E-12	657.520E-3	-21.5762E-3	109.856E-12	675.382E-3	28.4642E-3
2.97399E-3	106.778E-12	641.892E-3	9.35388E-3	110.251E-12	679.590E-3	20.4876E-3
2.96898E-3	106.962E-12	619.070E-3	16.0818E-3	109.846E-12	667.769E-3	5.86523E-3
2.96398E-3	108.969E-12	606.405E-3	-12.6476E-3	108.492E-12	658.916E-3	-1.20194E-3
2.95898E-3	109.062E-12	609.118E-3	-38.2380E-3	108.151E-12	634.978E-3	-4.50119E-3
2.95398E-3	108.321E-12	628.078E-3	-41.7188E-3	107.658E-12	621.086E-3	5.31556E-3
2.94897E-3	107.787E-12	649.906E-3	-21.6023E-3	107.162E-12	650.573E-3	8.09517E-3
2.94397E-3	108.772E-12	651.745E-3	2.11026E-3	106.459E-12	668.989E-3	-4.75523E-3
2.93897E-3	110.277E-12	642.767E-3	4.77291E-3	105.852E-12	649.535E-3	-7.20935E-3
2.93397E-3	109.159E-12	652.543E-3	-5.92325E-3	106.250E-12	633.110E-3	-15.3212E-3
2.92896E-3	107.439E-12	663.498E-3	-25.0930E-3	105.822E-12	636.847E-3	-19.8444E-3
2.92396E-3	107.022E-12	654.836E-3	-40.7529E-3	106.419E-12	639.445E-3	5.17348E-3
2.91896E-3	108.309E-12	645.294E-3	-33.2668E-3	105.517E-12	639.458E-3	8.60084E-3
2.91396E-3	107.560E-12	649.891E-3	-25.9551E-3	105.918E-12	645.263E-3	-18.1041E-3
2.90895E-3	105.355E-12	666.776E-3	-24.6813E-3	106.020E-12	653.583E-3	-36.3822E-3
2.90395E-3	104.843E-12	665.841E-3	-7.73341E-3	106.283E-12	664.739E-3	-37.2831E-3
2.89895E-3	104.242E-12	654.907E-3	-4.10650E-3	106.265E-12	673.854E-3	-23.5361E-3
2.89395E-3	104.908E-12	666.518E-3	-26.8593E-3	105.718E-12	668.481E-3	-19.9448E-3
2.88894E-3	103.335E-12	679.203E-3	-53.9623E-3	105.791E-12	656.133E-3	-34.6413E-3
2.88394E-3	102.345E-12	685.604E-3	-66.6784E-3	106.051E-12	653.390E-3	-41.1300E-3
2.87894E-3	102.005E-12	668.940E-3	-53.9980E-3	106.208E-12	649.892E-3	-31.4370E-3
2.87394E-3	103.315E-12	638.300E-3	-41.8148E-3	104.346E-12	651.235E-3	-24.9640E-3
2.86893E-3	103.133E-12	634.993E-3	-43.9920E-3	104.460E-12	664.463E-3	-22.4383E-3
2.86393E-3	101.396E-12	641.008E-3	-41.4064E-3	103.809E-12	658.279E-3	1.05664E-3
2.85893E-3	101.876E-12	636.248E-3	-26.5030E-3	103.981E-12	647.959E-3	27.6685E-3
2.85393E-3	103.752E-12	637.132E-3	-13.6890E-3	103.419E-12	651.574E-3	29.2392E-3
2.84892E-3	104.162E-12	648.906E-3	-8.50456E-3	103.175E-12	647.843E-3	16.1436E-3
2.84392E-3	102.355E-12	657.060E-3	-4.40835E-3	104.488E-12	644.670E-3	601.240E-6
2.83892E-3	101.855E-12	657.782E-3	155.099E-6	103.430E-12	642.626E-3	-7.51888E-3
2.83392E-3	103.586E-12	648.122E-3	-10.6598E-3	103.332E-12	638.968E-3	-21.4418E-3
2.82891E-3	104.041E-12	648.126E-3	-25.6935E-3	101.961E-12	646.611E-3	-33.4868E-3
2.82391E-3	101.993E-12	647.029E-3	-25.9197E-3	102.653E-12	652.211E-3	-18.8234E-3
2.81891E-3	100.743E-12	624.972E-3	-35.9461E-3	102.702E-12	643.923E-3	-1.02238E-3
2.81391E-3	101.672E-12	622.574E-3	-38.1792E-3	102.092E-12	642.771E-3	5.87570E-3
2.80890E-3	101.613E-12	639.242E-3	2.17606E-3	101.482E-12	654.875E-3	2.51524E-3
2.80390E-3	100.911E-12	641.837E-3	34.9591E-3	101.737E-12	662.248E-3	-2.60276E-3
2.79890E-3	99.6174E-12	640.920E-3	27.4045E-3	102.843E-12	659.234E-3	-2.42237E-3
2.79390E-3	98.8909E-12	643.156E-3	-401.603E-6	101.004E-12	661.037E-3	-7.06154E-3
2.78889E-3	99.3186E-12	646.547E-3	-30.1946E-3	100.010E-12	671.486E-3	-16.2224E-3
2.78389E-3	99.8172E-12	662.160E-3	-39.0152E-3	99.8516E-12	671.566E-3	-28.5074E-3
2.77889E-3	99.8510E-12	669.192E-3	-9.00812E-3	100.658E-12	664.333E-3	-37.5516E-3
2.77389E-3	98.5228E-12	661.184E-3	18.0131E-3	100.571E-12	646.837E-3	-29.9306E-3
2.76888E-3	99.4634E-12	648.299E-3	1.18180E-3	99.5515E-12	636.755E-3	-13.5904E-3
2.76388E-3	100.368E-12	636.673E-3	-13.1412E-3	99.8342E-12	654.919E-3	-11.4238E-3
2.75888E-3	101.048E-12	638.914E-3	-10.7173E-3	99.9053E-12	673.789E-3	-16.5061E-3
2.75388E-3	99.9228E-12	644.527E-3	-8.06086E-3	100.029E-12	680.676E-3	-17.2560E-3
2.74887E-3	99.3764E-12	651.271E-3	-4.24971E-3	99.3117E-12	684.377E-3	-30.9685E-3
2.74387E-3	100.312E-12	658.952E-3	-6.26249E-3	99.5357E-12	679.204E-3	-34.3201E-3
2.73887E-3	100.194E-12	657.274E-3	-20.1385E-3	99.7306E-12	676.183E-3	-15.0541E-3
2.73387E-3	99.5313E-12	672.414E-3	-24.5277E-3	99.8440E-12	690.231E-3	-18.0187E-3
2.72886E-3	99.1596E-12	696.520E-3	-16.1605E-3	99.1558E-12	692.880E-3	-25.0339E-3
2.72386E-3	98.8990E-12	690.611E-3	-17.7382E-3	98.7312E-12	673.593E-3	-21.4861E-3
2.71886E-3	99.3718E-12	675.648E-3	-17.1937E-3	98.5225E-12	658.375E-3	-23.0400E-3
2.71386E-3	98.6707E-12	654.052E-3	-16.5873E-3	98.5747E-12	650.940E-3	-17.5190E-3
2.70885E-3	97.8644E-12	643.255E-3	-26.7200E-3	97.5835E-12	646.749E-3	-6.49969E-3
2.70385E-3	96.4919E-12	656.063E-3	-27.5170E-3	96.8481E-12	655.156E-3	-3.54659E-3
2.69885E-3	96.6066E-12	660.555E-3	-16.7110E-3	97.1396E-12	665.481E-3	-16.8999E-3
2.69385E-3	97.2595E-12	661.484E-3	-8.80731E-3	96.3965E-12	680.094E-3	-27.7611E-3
2.68884E-3	97.2725E-12	672.854E-3	-4.18560E-3	96.4039E-12	696.681E-3	-27.6990E-3
2.68384E-3	96.0523E-12	676.085E-3	-12.7840E-3	96.1178E-12	689.080E-3	-30.7991E-3
2.67884E-3	95.4142E-12	663.653E-3	-27.0325E-3	96.0243E-12	678.541E-3	-22.6004E-3
2.67384E-3	95.5959E-12	659.528E-3	-19.6347E-3	96.1315E-12	677.621E-3	-8.23057E-3
2.66883E-3	95.4952E-12	658.405E-3	-9.67249E-3	96.2177E-12	676.628E-3	-14.5699E-3
2.66383E-3	95.2927E-12	664.623E-3	-25.8186E-3	97.3830E-12	669.920E-3	-23.1839E-3
2.65883E-3	94.2719E-12	676.452E-3	-48.0691E-3	97.5124E-12	668.181E-3	-11.3287E-3
2.65383E-3	94.0390E-12	660.299E-3	-49.8532E-3	96.0275E-12	681.686E-3	-5.92888E-3
2.64882E-3	93.7673E-12	646.901E-3	-51.3003E-3	96.8141E-12	689.825E-3	-8.38905E-3
2.64382E-3	93.5767E-12	664.895E-3	-46.3640E-3	97.6768E-12	701.430E-3	4.83798E-3
2.63882E-3	94.2573E-12	679.506E-3	-20.1078E-3	97.4835E-12	705.606E-3	19.2110E-3
2.63382E-3	93.5313E-12	665.659E-3	-15.3170E-3	95.9632E-12	690.222E-3	14.7962E-3
2.62881E-3	93.0047E-12	650.089E-3	-26.9943E-3	95.1267E-12	679.301E-3	-10.6994E-3
2.62381E-3	93.2220E-12	641.752E-3	-20.1826E-3	95.3164E-12	669.353E-3	-35.5450E-3
2.61881E-3	93.6844E-12	643.188E-3	-10.1548E-3	94.3870E-12	658.755E-3	-33.9613E-3
2.61381E-3	93.7548E-12	663.339E-3	-12.0422E-3	94.1981E-12	652.919E-3	-18.8803E-3
2.60880E-3	92.9586E-12	668.879E-3	-8.46818E-3	93.9097E-12	649.371E-3	-18.0727E-3
2.60380E-3	92.5087E-12	661.888E-3	10.4065E-3	92.9625E-12	652.398E-3	-18.2237E-3
2.59880E-3	92.6727E-12	673.189E-3	17.3803E-3	92.3408E-12	665.194E-3	-13.6977E-3
2.59380E-3	92.6293E-12	683.665E-3	10.5923E-3	91.5447E-12	667.819E-3	-16.5632E-3
2.58879E-3	91.7321E-12	665.987E-3	2.42429E-3	92.2645E-12	659.688E-3	-17.5107E-3
2.58379E-3	90.8213E-12	661.944E-3	-7.86211E-3	91.3927E-12	670.963E-3	-19.6680E-3
2.57879E-3	90.3635E-12	680.085E-3	-1.02945E-3	90.9115E-12	688.772E-3	-25.9588E-3
2.57379E-3	90.0583E-12	673.409E-3	7.21725E-3	91.0318E-12	674.884E-3	-37.2620E-3
2.56878E-3	89.7069E-12	666.336E-3	-15.8693E-3	91.2119E-12	655.558E-3	-41.3787E-3
2.56378E-3	88.7523E-12	673.704E-3	-38.7707E-3	90.9428E-12	671.099E-3	-25.0222E-3
2.55878E-3	87.8261E-12	663.340E-3	-32.4469E-3	90.1270E-12	688.673E-3	-20.4318E-3
2.55378E-3	87.9225E-12	653.483E-3	-25.7752E-3	90.7122E-12	679.447E-3	-35.9589E-3
2.54877E-3	88.5829E-12	651.809E-3	-14.1210E-3	90.1278E-12	667.271E-3	-40.3220E-3
2.54377E-3	87.9529E-12	639.087E-3	-14.7871E-3	90.1125E-12	660.809E-3	-24.4427E-3
2.53877E-3	88.0957E-12	642.656E-3	-44.3091E-3	89.5055E-12	657.207E-3	-6.17126E-3
2.53377E-3	88.5011E-12	662.058E-3	-48.0731E-3	89.3339E-12	668.176E-3	-2.31926E-3
2.52876E-3	89.0492E-12	665.890E-3	-31.7725E-3	88.9530E-12	694.306E-3	-8.55908E-3
2.52376E-3	88.7393E-12	675.911E-3	-28.9123E-3	88.8012E-12	711.593E-3	-12.5082E-3
2.51876E-3	88.3208E-12	688.630E-3	-33.1659E-3	89.3254E-12	701.569E-3	-18.6479E-3
2.51376E-3	89.1756E-12	676.994E-3	-42.8951E-3	87.4979E-12	679.259E-3	-35.2682E-3
2.50875E-3	90.1168E-12	678.336E-3	-52.1700E-3	86.7336E-12	665.948E-3	-35.0662E-3
2.50375E-3	89.4061E-12	699.110E-3	-44.2666E-3	86.1500E-12	668.394E-3	-11.7538E-3
2.49875E-3	88.3445E-12	704.556E-3	-29.6232E-3	87.1347E-12	661.312E-3	1.73651E-3
2.49375E-3	88.1502E-12	699.240E-3	-23.1066E-3	86.9267E-12	650.499E-3	8.90261E-3
2.48874E-3	89.0621E-12	700.780E-3	-22.9257E-3	85.7056E-12	663.165E-3	13.7405E-3
2.48374E-3	87.8622E-12	696.518E-3	-20.6857E-3	85.8335E-12	663.080E-3	5.67925E-3
2.47874E-3	86.6445E-12	697.045E-3	-19.6899E-3	85.8554E-12	657.760E-3	-9.60192E-3
2.47374E-3	85.6024E-12	716.767E-3	-14.5715E-3	86.4952E-12	679.004E-3	-12.6432E-3
2.46873E-3	86.0895E-12	710.824E-3	-6.67386E-3	85.4753E-12	699.400E-3	-2.71198E-3
2.46373E-3	85.5641E-12	683.918E-3	-23.5762E-3	85.5496E-12	704.842E-3	8.27371E-3
2.45873E-3	83.9837E-12	687.907E-3	-39.1163E-3	85.1646E-12	707.153E-3	28.6527E-3
2.45373E-3	83.6122E-12	683.948E-3	-23.7610E-3	86.5085E-12	710.301E-3	36.8794E-3
2.44872E-3	83.6125E-12	651.312E-3	-18.3317E-3	86.3741E-12	702.308E-3	6.82499E-3
2.44372E-3	85.2342E-12	655.471E-3	-28.6984E-3	85.2340E-12	700.646E-3	-29.0073E-3
2.43872E-3	85.2165E-12	680.223E-3	-10.9933E-3	84.8721E-12	707.758E-3	-34.3720E-3
2.43372E-3	85.2205E-12	676.970E-3	1.01192E-3	85.4989E-12	698.321E-3	-14.8266E-3
2.42871E-3	85.0118E-12	673.692E-3	-12.3254E-3	86.3400E-12	701.402E-3	2.11310E-3
2.42371E-3	85.7047E-12	681.378E-3	-4.73356E-3	84.8256E-12	704.726E-3	-12.6880E-3
2.41871E-3	86.4207E-12	672.502E-3	6.58003E-3	83.7190E-12	676.817E-3	-34.3958E-3
2.41371E-3	85.6764E-12	665.499E-3	-11.2702E-3	83.9216E-12	667.311E-3	-17.2376E-3
2.40870E-3	85.1651E-12	693.029E-3	-10.2507E-3	84.8267E-12	688.349E-3	7.68863E-3
2.40370E-3	84.5116E-12	720.838E-3	15.5667E-3	84.7657E-12	690.797E-3	9.02441E-3
2.39870E-3	85.3653E-12	716.165E-3	12.7442E-3	83.1315E-12	686.556E-3	6.37968E-3
2.39370E-3	84.0282E-12	709.228E-3	6.81570E-3	82.7773E-12	693.009E-3	5.35267E-3
2.38869E-3	82.9691E-12	706.413E-3	8.37082E-3	83.1988E-12	679.863E-3	981.123E-6
2.38369E-3	82.7931E-12	699.006E-3	-7.30477E-3	84.1464E-12	670.912E-3	1.51320E-3
2.37869E-3	82.6854E-12	691.306E-3	-13.8720E-3	82.3120E-12	681.757E-3	6.17173E-3
2.37369E-3	82.0193E-12	676.972E-3	-9.30423E-3	82.3605E-12	679.073E-3	-741.203E-6
2.36868E-3	80.6884E-12	662.685E-3	-12.6569E-3	81.8590E-12	670.483E-3	-10.6703E-3
2.36368E-3	80.1702E-12	658.857E-3	-18.6991E-3	82.4206E-12	687.451E-3	-18.3069E-3
2.35868E-3	79.8586E-12	661.680E-3	-23.8205E-3	82.0466E-12	693.769E-3	-31.3398E-3
2.35368E-3	80.0162E-12	661.652E-3	-30.5623E-3	81.2967E-12	673.925E-3	-39.7753E-3
2.34867E-3	79.8908E-12	675.760E-3	-38.2652E-3	81.0031E-12	681.008E-3	-37.1554E-3
2.34367E-3	79.7865E-12	688.479E-3	-32.4194E-3	81.2580E-12	707.837E-3	-31.2613E-3
2.33867E-3	79.5828E-12	686.998E-3	-19.9496E-3	81.7160E-12	713.105E-3	-22.5427E-3
2.33367E-3	79.9186E-12	701.346E-3	-20.8085E-3	81.1031E-12	707.063E-3	-9.83827E-3
2.32866E-3	80.3048E-12	703.598E-3	-16.6095E-3	80.4345E-12	711.370E-3	-1.71556E-3
2.32366E-3	79.7502E-12	676.315E-3	-6.05043E-3	79.9891E-12	709.615E-3	-6.59425E-3
2.31866E-3	79.0174E-12	676.583E-3	-15.7866E-3	80.5031E-12	701.596E-3	-20.6134E-3
2.31366E-3	79.1238E-12	709.003E-3	-27.1469E-3	80.7331E-12	702.360E-3	-16.3571E-3
2.30865E-3	79.1102E-12	710.991E-3	-29.4530E-3	80.3906E-12	687.188E-3	4.14669E-3
2.30365E-3	79.3859E-12	693.946E-3	-28.1177E-3	80.0002E-12	656.508E-3	18.1081E-3
2.29865E-3	78.8336E-12	694.584E-3	-13.4046E-3	79.4123E-12	663.801E-3	-1.46239E-3
2.29365E-3	78.1174E-12	692.970E-3	-17.6013E-3	78.7503E-12	705.598E-3	-30.6951E-3
2.28864E-3	78.0516E-12	684.609E-3	-33.5914E-3	78.6346E-12	726.359E-3	-23.2826E-3
2.28364E-3	78.2486E-12	684.693E-3	-20.7278E-3	78.5741E-12	722.729E-3	-17.1291E-3
2.27864E-3	77.1464E-12	690.359E-3	-15.0504E-3	77.9269E-12	713.095E-3	-23.4872E-3
2.27364E-3	76.7634E-12	704.278E-3	-21.7260E-3	76.9943E-12	704.759E-3	-24.7908E-3
2.26863E-3	75.9942E-12	707.888E-3	-11.6113E-3	76.5498E-12	710.352E-3	-37.1174E-3
2.26363E-3	76.3595E-12	692.793E-3	-11.6842E-3	76.6780E-12	710.322E-3	-43.7767E-3
2.25863E-3	75.9632E-12	695.151E-3	-29.7044E-3	76.0298E-12	707.069E-3	-34.4702E-3
2.25363E-3	75.9594E-12	696.300E-3	-32.5961E-3	74.6707E-12	716.750E-3	-33.9027E-3
2.24862E-3	76.1741E-12	674.975E-3	-20.7590E-3	74.7956E-12	714.814E-3	-41.8233E-3
2.24362E-3	76.6867E-12	673.330E-3	-7.78943E-3	75.6794E-12	705.480E-3	-33.1571E-3
2.23862E-3	76.0094E-12	709.829E-3	3.03440E-3	76.1441E-12	707.602E-3	-14.5394E-3
2.23362E-3	75.6418E-12	733.029E-3	-998.212E-6	75.5020E-12	712.098E-3	-17.9860E-3
2.22861E-3	75.2341E-12	712.825E-3	-17.7880E-3	75.4439E-12	709.968E-3	-33.7513E-3
2.22361E-3	75.0860E-12	694.483E-3	-17.3226E-3	76.3313E-12	712.356E-3	-38.8156E-3
2.21861E-3	74.9319E-12	695.807E-3	-8.79314E-3	76.4241E-12	710.833E-3	-35.9960E-3
2.21361E-3	74.8128E-12	692.718E-3	-15.0745E-3	75.9245E-12	710.854E-3	-23.4554E-3
2.20860E-3	74.4827E-12	682.262E-3	-14.1655E-3	75.6316E-12	734.691E-3	-9.40521E-3
2.20360E-3	74.5565E-12	675.725E-3	-4.71066E-3	75.0423E-12	741.457E-3	-13.1555E-3
2.19860E-3	73.9280E-12	688.183E-3	-1.24773E-3	75.0961E-12	714.953E-3	-23.7793E-3
2.19360E-3	73.9617E-12	713.575E-3	-8.37062E-3	75.2385E-12	704.689E-3	-21.5135E-3
2.18859E-3	73.7528E-12	716.169E-3	-15.5595E-3	74.1330E-12	720.051E-3	-19.1733E-3
2.18359E-3	74.2536E-12	702.598E-3	-19.6178E-3	73.2987E-12	716.351E-3	-27.5902E-3
2.17859E-3	73.4312E-12	701.931E-3	-24.5404E-3	73.4389E-12	693.286E-3	-25.0447E-3
2.17359E-3	72.6890E-12	706.521E-3	-15.4537E-3	74.1565E-12	688.187E-3	-6.79508E-3
2.16858E-3	72.7003E-12	710.135E-3	-8.89280E-3	71.9926E-12	690.567E-3	7.29345E-3
2.16358E-3	72.5456E-12	715.819E-3	-4.44687E-3	71.1832E-12	683.067E-3	14.1960E-3
2.15858E-3	71.8315E-12	709.214E-3	5.33200E-3	70.9755E-12	686.907E-3	2.39613E-3
2.15358E-3	71.1299E-12	703.868E-3	2.18858E-3	71.9924E-12	691.853E-3	-25.7821E-3
2.14857E-3	71.2564E-12	716.004E-3	-6.60817E-3	71.3934E-12	693.352E-3	-37.0308E-3
2.14357E-3	70.9638E-12	723.958E-3	-21.7927E-3	70.0488E-12	717.229E-3	-30.2820E-3
2.13857E-3	70.3559E-12	722.801E-3	-33.4311E-3	69.6082E-12	729.981E-3	-18.5130E-3
2.13357E-3	69.7934E-12	727.436E-3	-20.6443E-3	70.8433E-12	719.483E-3	-10.7496E-3
2.12856E-3	69.7785E-12	722.827E-3	-4.78127E-3	71.1355E-12	722.934E-3	-21.8903E-3
2.12356E-3	69.4660E-12	707.324E-3	-3.21286E-3	70.6030E-12	736.114E-3	-35.6232E-3
2.11856E-3	68.8283E-12	711.759E-3	-7.83309E-3	69.7476E-12	739.427E-3	-24.2683E-3
2.11356E-3	68.9517E-12	717.294E-3	-10.1554E-3	69.6995E-12	745.056E-3	-1.53198E-3
2.10855E-3	69.5531E-12	708.044E-3	-9.37382E-3	70.2919E-12	752.757E-3	-2.31036E-3
2.10355E-3	69.3108E-12	711.741E-3	-1.41101E-3	69.8092E-12	748.053E-3	-16.4692E-3
2.09855E-3	69.4869E-12	717.887E-3	9.17797E-3	69.6717E-12	732.274E-3	-8.78390E-3
2.09355E-3	69.2645E-12	709.132E-3	-3.65318E-3	68.5640E-12	716.507E-3	4.90576E-3
2.08854E-3	69.2487E-12	717.978E-3	-27.4420E-3	68.9261E-12	720.781E-3	-6.17065E-3
2.08354E-3	69.2481E-12	743.983E-3	-23.2510E-3	68.6778E-12	739.100E-3	-24.0487E-3
2.07854E-3	69.4472E-12	752.381E-3	-12.9419E-3	67.8822E-12	745.056E-3	-29.2352E-3
2.07354E-3	69.1303E-12	756.486E-3	-25.4801E-3	66.9273E-12	731.395E-3	-32.4052E-3
2.06853E-3	68.6767E-12	761.088E-3	-32.6861E-3	66.7489E-12	722.660E-3	-32.6791E-3
2.06353E-3	67.5506E-12	753.663E-3	-33.4938E-3	66.9603E-12	731.966E-3	-26.6384E-3
2.05853E-3	67.7702E-12	752.072E-3	-46.0182E-3	66.4077E-12	742.149E-3	-19.9750E-3
2.05353E-3	66.9658E-12	762.649E-3	-47.1767E-3	65.7660E-12	758.022E-3	-22.3044E-3
2.04852E-3	66.1426E-12	758.183E-3	-36.3851E-3	65.3697E-12	763.435E-3	-40.0350E-3
2.04352E-3	65.3193E-12	743.908E-3	-31.2083E-3	65.9201E-12	748.968E-3	-43.3885E-3
2.03852E-3	65.4546E-12	730.814E-3	-16.5983E-3	65.7337E-12	748.109E-3	-19.9649E-3
2.03352E-3	65.1310E-12	712.929E-3	1.27759E-3	65.4712E-12	755.512E-3	-8.24796E-3
2.02851E-3	64.5388E-12	711.260E-3	-472.072E-6	65.7653E-12	755.633E-3	-17.1876E-3
2.02351E-3	64.6066E-12	720.102E-3	-11.2173E-3	65.4754E-12	757.833E-3	-21.7779E-3
2.01851E-3	64.7793E-12	719.468E-3	-18.4004E-3	65.4642E-12	747.612E-3	-14.0804E-3
2.01351E-3	64.5216E-12	726.528E-3	-22.5888E-3	65.2634E-12	743.238E-3	-13.2840E-3
2.00850E-3	63.9368E-12	742.479E-3	-20.7126E-3	65.3065E-12	769.390E-3	-25.8929E-3
2.00350E-3	63.9514E-12	746.321E-3	-15.1976E-3	64.0844E-12	785.196E-3	-32.1756E-3
1.99850E-3	64.2575E-12	754.251E-3	-11.2798E-3	64.1622E-12	773.659E-3	-17.9686E-3
1.99350E-3	64.0066E-12	766.446E-3	-2.31279E-3	64.2023E-12	768.238E-3	6.66187E-3
1.98849E-3	63.6857E-12	760.091E-3	-3.29021E-3	64.1047E-12	777.240E-3	12.2846E-3
1.98349E-3	63.5796E-12	746.979E-3	-22.7627E-3	62.9269E-12	774.879E-3	-1.17925E-3
1.97849E-3	63.8201E-12	754.589E-3	-27.3398E-3	62.7286E-12	762.942E-3	-19.4176E-3
1.97349E-3	63.2737E-12	775.998E-3	-9.71177E-3	62.8853E-12	764.270E-3	-36.5518E-3
1.96848E-3	62.6867E-12	776.501E-3	-1.95846E-3	62.4433E-12	764.197E-3	-31.0030E-3
1.96348E-3	62.6359E-12	771.471E-3	-7.29066E-3	61.8914E-12	752.892E-3	-8.75132E-3
1.95848E-3	61.8366E-12	774.617E-3	-372.149E-6	61.3459E-12	753.872E-3	-8.24013E-3
1.95348E-3	61.0425E-12	777.743E-3	-891.802E-6	61.3689E-12	764.021E-3	-21.7710E-3
1.94847E-3	60.8049E-12	787.134E-3	-15.7154E-3	61.2008E-12	773.729E-3	-20.4031E-3
1.94347E-3	60.8027E-12	788.909E-3	-17.7972E-3	60.8607E-12	774.953E-3	-6.52648E-3
1.93847E-3	60.3175E-12	772.289E-3	-18.7383E-3	60.5794E-12	757.699E-3	-5.02680E-3
1.93347E-3	59.3591E-12	762.071E-3	-20.7591E-3	59.9550E-12	741.164E-3	-14.0486E-3
1.92846E-3	59.1015E-12	763.819E-3	-6.12972E-3	59.7712E-12	749.686E-3	-13.0160E-3
1.92346E-3	59.4021E-12	762.057E-3	-1.62437E-3	59.6200E-12	771.043E-3	-9.30026E-3
1.91846E-3	59.7785E-12	767.260E-3	-15.2402E-3	59.2007E-12	778.815E-3	-4.70830E-3
1.91346E-3	59.5596E-12	776.356E-3	-17.3933E-3	58.5255E-12	779.788E-3	-1.16786E-3
1.90845E-3	59.1283E-12	772.460E-3	-27.5837E-3	58.5956E-12	779.013E-3	-15.0886E-3
1.90345E-3	58.9434E-12	770.859E-3	-46.9671E-3	58.6054E-12	778.643E-3	-31.3238E-3
1.89845E-3	58.9388E-12	782.722E-3	-36.1414E-3	58.1989E-12	792.387E-3	-32.8637E-3
1.89345E-3	59.0621E-12	787.918E-3	-15.6233E-3	57.5629E-12	803.584E-3	-30.8250E-3
1.88844E-3	58.5725E-12	783.934E-3	-14.3239E-3	57.6984E-12	793.824E-3	-14.8337E-3
1.88344E-3	58.3111E-12	786.202E-3	-18.7294E-3	57.6730E-12	789.429E-3	3.00150E-3
1.87844E-3	58.0392E-12	795.472E-3	-31.4009E-3	57.2617E-12	798.831E-3	-6.56330E-3
1.87344E-3	57.7961E-12	801.616E-3	-47.9376E-3	56.8644E-12	799.958E-3	-12.0772E-3
1.86843E-3	57.6447E-12	797.116E-3	-34.0926E-3	56.8142E-12	802.760E-3	3.00297E-3
1.86343E-3	56.8426E-12	781.755E-3	-15.9007E-3	56.8180E-12	812.075E-3	-669.695E-6
1.85843E-3	56.3358E-12	781.250E-3	-33.1300E-3	56.7673E-12	818.970E-3	-22.8613E-3
1.85343E-3	56.0970E-12	805.273E-3	-43.9391E-3	56.2614E-12	828.343E-3	-32.9064E-3
1.84842E-3	56.1654E-12	809.500E-3	-36.4913E-3	55.8250E-12	831.710E-3	-32.8117E-3
1.84342E-3	55.2304E-12	799.360E-3	-45.0582E-3	55.6053E-12	820.273E-3	-21.2532E-3
1.83842E-3	54.8445E-12	808.988E-3	-41.9970E-3	55.6373E-12	812.287E-3	3.87300E-3
1.83342E-3	55.3329E-12	820.325E-3	-22.8199E-3	54.8967E-12	816.145E-3	13.3132E-3
1.82841E-3	55.4588E-12	818.358E-3	-13.7316E-3	54.6747E-12	816.831E-3	7.68303E-3
1.82341E-3	54.9034E-12	806.196E-3	395.909E-6	53.8752E-12	813.985E-3	15.0650E-3
1.81841E-3	54.2308E-12	799.234E-3	6.70708E-3	53.9759E-12	831.686E-3	6.41941E-3
1.81341E-3	54.3303E-12	816.063E-3	3.42290E-3	53.5594E-12	851.914E-3	-9.26855E-3
1.80840E-3	54.4125E-12	837.948E-3	9.40850E-3	53.0970E-12	844.552E-3	-2.96781E-3
1.80340E-3	53.7873E-12	838.344E-3	14.2049E-3	52.7590E-12	834.720E-3	-13.1444E-3
1.79840E-3	53.4533E-12	826.276E-3	9.32878E-3	52.9176E-12	836.033E-3	-32.5361E-3
1.79340E-3	53.5360E-12	822.756E-3	-2.40557E-3	53.2189E-12	839.818E-3	-26.2281E-3
1.78839E-3	53.4759E-12	825.464E-3	-11.8339E-3	52.8091E-12	847.656E-3	-17.5059E-3
1.78339E-3	52.7178E-12	822.718E-3	-20.8128E-3	52.4003E-12	851.266E-3	-29.1871E-3
1.77839E-3	52.1179E-12	828.566E-3	-18.0497E-3	52.1924E-12	844.273E-3	-28.3763E-3
1.77339E-3	51.8763E-12	847.775E-3	-642.020E-6	52.4237E-12	845.589E-3	-11.9531E-3
1.76838E-3	51.7499E-12	854.024E-3	-3.84116E-3	51.9124E-12	856.011E-3	-10.9994E-3
1.76338E-3	51.3523E-12	847.055E-3	-19.8259E-3	51.8179E-12	859.954E-3	-5.09305E-3
1.75838E-3	50.8289E-12	845.116E-3	-6.76750E-3	51.4493E-12	856.252E-3	7.95761E-3
1.75338E-3	50.5647E-12	844.216E-3	8.33123E-3	51.1910E-12	862.883E-3	-4.12405E-3
1.74837E-3	50.6740E-12	846.739E-3	-9.22302E-3	50.9280E-12	879.325E-3	-15.2731E-3
1.74337E-3	50.4328E-12	849.465E-3	-29.1863E-3	50.4127E-12	884.189E-3	-14.8809E-3
1.73837E-3	50.0830E-12	852.062E-3	-30.5455E-3	49.6913E-12	879.143E-3	-35.1895E-3
1.73337E-3	50.0425E-12	865.873E-3	-20.0122E-3	49.5996E-12	867.506E-3	-55.6749E-3
1.72836E-3	49.5036E-12	886.629E-3	-8.74305E-3	49.4208E-12	864.606E-3	-51.8756E-3
1.72336E-3	48.9375E-12	902.295E-3	-20.2750E-3	48.7420E-12	877.647E-3	-41.5552E-3
1.71836E-3	48.6257E-12	904.585E-3	-37.5155E-3	48.0628E-12	887.288E-3	-26.1249E-3
1.71336E-3	48.4843E-12	896.164E-3	-30.4994E-3	47.9169E-12	897.318E-3	-17.7030E-3
1.70835E-3	47.8845E-12	882.643E-3	-11.5917E-3	47.8542E-12	902.727E-3	-37.3529E-3
1.70335E-3	47.9353E-12	885.703E-3	-1.73387E-3	47.8211E-12	882.950E-3	-53.6672E-3
1.69835E-3	47.6471E-12	896.379E-3	-3.67843E-3	47.3525E-12	874.371E-3	-45.1703E-3
1.69335E-3	47.1271E-12	890.889E-3	-10.1453E-3	46.8966E-12	895.536E-3	-33.4407E-3
1.68834E-3	47.0394E-12	890.772E-3	-21.7062E-3	46.6100E-12	913.268E-3	-19.0481E-3
1.68334E-3	47.2807E-12	903.069E-3	-26.8141E-3	46.7763E-12	933.665E-3	-1.42377E-3
1.67834E-3	47.3383E-12	904.493E-3	-21.8210E-3	46.5179E-12	951.622E-3	-4.07933E-3
1.67334E-3	46.5050E-12	906.879E-3	-14.0300E-3	46.1184E-12	943.116E-3	-10.5881E-3
1.66833E-3	45.9480E-12	920.726E-3	-5.15097E-3	45.6672E-12	932.165E-3	-1.74429E-3
1.66333E-3	46.5270E-12	918.823E-3	-2.70995E-3	45.6650E-12	929.589E-3	-1.04770E-3
1.65833E-3	46.9441E-12	912.771E-3	-10.0946E-3	45.4724E-12	920.051E-3	-2.37973E-3
1.65333E-3	46.2869E-12	927.503E-3	-13.5171E-3	44.8969E-12	927.568E-3	4.52042E-3
1.64832E-3	45.0426E-12	945.425E-3	-15.1990E-3	44.1167E-12	951.194E-3	-9.75943E-3
1.64332E-3	44.7777E-12	951.087E-3	-22.7012E-3	44.0986E-12	956.626E-3	-34.2905E-3
1.63832E-3	44.9289E-12	956.711E-3	-19.7039E-3	44.1332E-12	961.429E-3	-32.9834E-3
1.63332E-3	44.4642E-12	950.962E-3	-12.8337E-3	43.5765E-12	982.641E-3	-18.1968E-3
1.62831E-3	43.3809E-12	940.132E-3	-24.5231E-3	42.7907E-12	980.818E-3	-8.28613E-3
1.62331E-3	42.7610E-12	951.761E-3	-33.4696E-3	42.5121E-12	969.810E-3	-11.1688E-3
1.61831E-3	43.2729E-12	965.254E-3	-19.5441E-3	42.8477E-12	983.001E-3	-22.5967E-3
1.61331E-3	42.4639E-12	966.759E-3	-12.4766E-3	42.9499E-12	986.913E-3	-26.7505E-3
1.60830E-3	41.4262E-12	970.683E-3	-14.3821E-3	42.0590E-12	989.208E-3	-24.1101E-3
1.60330E-3	40.7423E-12	976.071E-3	-11.8959E-3	41.5757E-12	1.01167E+0	-21.8351E-3
1.59830E-3	40.9952E-12	964.799E-3	-17.5068E-3	41.4627E-12	1.02508E+0	-19.5483E-3
1.59330E-3	41.0815E-12	960.041E-3	-22.8372E-3	41.9768E-12	1.02067E+0	-7.98374E-3
1.58829E-3	40.2062E-12	969.912E-3	-10.0702E-3	41.5310E-12	1.01597E+0	-6.17813E-3
1.58329E-3	39.7020E-12	965.333E-3	-434.744E-6	40.6041E-12	1.01988E+0	-19.8989E-3
1.57829E-3	39.8188E-12	960.757E-3	-10.3055E-3	40.1172E-12	1.03016E+0	-25.4719E-3
1.57329E-3	39.9215E-12	968.594E-3	-20.3878E-3	40.3649E-12	1.03973E+0	-25.1569E-3
1.56828E-3	39.4488E-12	981.756E-3	-28.2454E-3	39.8986E-12	1.03579E+0	-14.5033E-3
1.56328E-3	38.9582E-12	1.00454E+0	-32.9356E-3	39.3188E-12	1.02646E+0	6.04031E-3
1.55828E-3	39.0049E-12	1.02707E+0	-25.5093E-3	38.5279E-12	1.02688E+0	17.7674E-3
1.55328E-3	39.1303E-12	1.03092E+0	-5.82087E-3	38.6154E-12	1.02529E+0	2.09778E-3
1.54827E-3	38.7064E-12	1.03399E+0	-3.32311E-3	38.2697E-12	1.02131E+0	-19.4656E-3
1.54327E-3	37.8022E-12	1.04910E+0	-15.9462E-3	37.7576E-12	1.02902E+0	-15.4760E-3
1.53827E-3	37.3269E-12	1.05047E+0	-5.41757E-3	37.3270E-12	1.04103E+0	-7.06498E-3
1.53327E-3	36.8717E-12	1.03932E+0	11.0502E-3	36.8081E-12	1.04321E+0	282.497E-6
1.52826E-3	37.1606E-12	1.04268E+0	13.3389E-3	36.4020E-12	1.04687E+0	1.48976E-3
1.52326E-3	36.3553E-12	1.05277E+0	5.48458E-3	36.5023E-12	1.05563E+0	-19.6403E-3
1.51826E-3	35.2032E-12	1.05641E+0	-12.9428E-3	36.4422E-12	1.06304E+0	-28.1290E-3
1.51326E-3	34.8741E-12	1.05117E+0	-26.8042E-3	35.4638E-12	1.07317E+0	-9.02383E-3
1.50825E-3	34.9586E-12	1.03140E+0	-21.0243E-3	35.1778E-12	1.07096E+0	-1.74540E-3
1.50325E-3	34.9275E-12	1.01536E+0	-12.9172E-3	35.1914E-12	1.05563E+0	-5.54618E-3
1.49825E-3	33.8736E-12	1.02224E+0	-12.1791E-3	35.0953E-12	1.05839E+0	1.70934E-3
1.49325E-3	33.6762E-12	1.03789E+0	-3.71796E-3	34.6035E-12	1.07145E+0	-4.06299E-3
1.48824E-3	33.9641E-12	1.04292E+0	5.82847E-3	33.6058E-12	1.07033E+0	-21.7228E-3
1.48324E-3	34.1971E-12	1.04854E+0	-6.32758E-3	33.3394E-12	1.06666E+0	-21.7646E-3
1.47824E-3	33.2900E-12	1.05891E+0	-19.1589E-3	33.3202E-12	1.06790E+0	-18.6577E-3
1.47324E-3	32.8531E-12	1.05937E+0	-15.1472E-3	33.3040E-12	1.06813E+0	-18.3226E-3
1.46823E-3	32.8129E-12	1.05799E+0	-11.4834E-3	32.1258E-12	1.07267E+0	1.10317E-3
1.46323E-3	33.1742E-12	1.06643E+0	-2.55917E-3	31.6052E-12	1.07136E+0	18.2204E-3
1.45823E-3	32.6617E-12	1.07667E+0	1.63009E-3	31.6757E-12	1.05184E+0	12.1391E-3
1.45323E-3	31.6792E-12	1.09307E+0	-10.6278E-3	31.6764E-12	1.04969E+0	-3.78255E-3
1.44822E-3	31.2527E-12	1.10189E+0	-18.4621E-3	30.8642E-12	1.07057E+0	-18.2762E-3
1.44322E-3	31.0214E-12	1.09162E+0	-16.6468E-3	30.2577E-12	1.07158E+0	-20.8039E-3
1.43822E-3	30.6148E-12	1.08853E+0	-9.83153E-3	30.6003E-12	1.06528E+0	-11.3535E-3
1.43322E-3	30.2695E-12	1.08595E+0	-30.6315E-6	30.2700E-12	1.07658E+0	-5.92500E-3
1.42821E-3	29.8785E-12	1.07417E+0	-1.31245E-3	29.8262E-12	1.07436E+0	-13.1880E-3
1.42321E-3	29.3594E-12	1.06626E+0	-10.5467E-3	29.3442E-12	1.06288E+0	-16.2607E-3
1.41821E-3	28.8234E-12	1.06206E+0	-18.3486E-3	29.2930E-12	1.07688E+0	-7.06514E-3
1.41321E-3	28.4440E-12	1.04997E+0	-18.6059E-3	29.4674E-12	1.08518E+0	-11.0200E-3
1.40820E-3	27.8721E-12	1.03269E+0	-14.0619E-3	28.6635E-12	1.04708E+0	-12.0899E-3
1.40320E-3	27.5771E-12	1.02671E+0	-24.2598E-3	27.8394E-12	1.01116E+0	-3.72110E-3
1.39820E-3	27.5996E-12	1.03142E+0	-29.8852E-3	27.0405E-12	1.00891E+0	-12.4822E-3
1.39320E-3	27.4986E-12	1.02922E+0	-14.3732E-3	27.1720E-12	1.00191E+0	-8.58089E-3
1.38819E-3	26.7811E-12	1.02561E+0	-621.443E-6	27.4375E-12	999.155E-3	-524.449E-6
1.38319E-3	26.1205E-12	1.02373E+0	-2.60554E-3	26.5721E-12	999.865E-3	-26.1187E-3
1.37819E-3	26.2552E-12	1.01426E+0	-13.7271E-3	25.5306E-12	988.550E-3	-42.0741E-3
1.37319E-3	26.5126E-12	1.00952E+0	-19.7393E-3	25.3116E-12	983.503E-3	-26.1112E-3
1.36818E-3	25.9417E-12	1.00797E+0	-18.3491E-3	25.2972E-12	985.896E-3	-17.0614E-3
1.36318E-3	24.9007E-12	1.00346E+0	-26.1296E-3	25.0934E-12	982.900E-3	-16.3746E-3
1.35818E-3	24.8398E-12	1.00116E+0	-27.3728E-3	24.3121E-12	970.629E-3	-12.9252E-3
1.35318E-3	25.3228E-12	998.495E-3	-20.0332E-3	23.8501E-12	956.143E-3	-15.4191E-3
1.34817E-3	24.5865E-12	989.772E-3	-20.9533E-3	24.2306E-12	941.055E-3	-27.0391E-3
1.34317E-3	23.7005E-12	980.033E-3	-17.3886E-3	24.4331E-12	944.009E-3	-30.6757E-3
1.33817E-3	23.5111E-12	962.252E-3	-9.24200E-3	23.5487E-12	954.868E-3	-27.3156E-3
1.33317E-3	24.0849E-12	951.429E-3	237.322E-6	22.7461E-12	933.763E-3	-33.7682E-3
1.32816E-3	23.5990E-12	961.941E-3	8.87224E-3	22.7475E-12	904.181E-3	-24.6351E-3
1.32316E-3	22.4685E-12	959.683E-3	5.01337E-3	22.7964E-12	888.400E-3	-4.29499E-3
1.31816E-3	22.1943E-12	934.669E-3	-10.6864E-3	22.2785E-12	868.030E-3	-15.0434E-3
1.31316E-3	22.4841E-12	911.913E-3	-17.9604E-3	21.5388E-12	853.178E-3	-21.5399E-3
1.30815E-3	21.6690E-12	900.474E-3	-11.8349E-3	21.3128E-12	859.189E-3	-7.38781E-3
1.30315E-3	21.0069E-12	887.001E-3	-7.63613E-3	21.4053E-12	863.795E-3	-1.49898E-3
1.29815E-3	21.0980E-12	872.387E-3	-10.1691E-3	21.2489E-12	843.595E-3	6.63802E-3
1.29315E-3	21.1618E-12	872.864E-3	-12.9641E-3	20.8047E-12	817.795E-3	5.83118E-3
1.28814E-3	20.8843E-12	875.526E-3	-16.1805E-3	20.4432E-12	805.069E-3	-10.9648E-3
1.28314E-3	20.0843E-12	855.748E-3	-21.5440E-3	20.3875E-12	795.782E-3	-20.6592E-3
1.27814E-3	19.9181E-12	828.979E-3	-21.2059E-3	19.9022E-12	786.868E-3	-19.4503E-3
1.27314E-3	20.1214E-12	821.371E-3	-17.3351E-3	19.5992E-12	773.337E-3	-23.3381E-3
1.26813E-3	19.8531E-12	822.845E-3	-17.2296E-3	19.8035E-12	758.791E-3	-31.4357E-3
1.26313E-3	19.5480E-12	817.289E-3	-15.0699E-3	19.7019E-12	755.490E-3	-24.5594E-3
1.25813E-3	19.0175E-12	800.444E-3	-11.7448E-3	18.9834E-12	749.105E-3	-15.8366E-3
1.25313E-3	18.9036E-12	778.460E-3	-8.63555E-3	18.8398E-12	727.451E-3	-15.6957E-3
1.24812E-3	18.5188E-12	764.673E-3	-6.33828E-3	18.9347E-12	711.946E-3	-19.3704E-3
1.24312E-3	18.5468E-12	754.772E-3	-8.84319E-3	18.7554E-12	706.673E-3	-19.5420E-3
1.23812E-3	18.2151E-12	741.277E-3	-6.09589E-3	18.4548E-12	689.882E-3	-5.16221E-3
1.23312E-3	18.0719E-12	727.271E-3	1.38528E-3	17.9936E-12	674.710E-3	10.5153E-3
1.22811E-3	17.7639E-12	713.154E-3	-1.84730E-3	17.9590E-12	666.200E-3	8.93292E-3
1.22311E-3	17.6682E-12	702.299E-3	-12.2858E-3	17.5645E-12	640.707E-3	-9.71613E-3
1.21811E-3	17.4883E-12	685.253E-3	-18.7418E-3	17.1994E-12	611.566E-3	-27.2441E-3
1.21311E-3	17.0646E-12	662.027E-3	-18.1141E-3	17.0190E-12	596.370E-3	-29.4725E-3
1.20810E-3	16.9245E-12	649.857E-3	-17.3019E-3	17.0633E-12	590.051E-3	-12.6053E-3
1.20310E-3	16.5986E-12	641.618E-3	-16.6203E-3	16.6390E-12	586.171E-3	-1.12616E-3
1.19810E-3	16.3578E-12	635.589E-3	-14.8445E-3	16.3690E-12	568.267E-3	-23.6120E-3
1.19310E-3	16.0781E-12	627.928E-3	-15.4459E-3	16.2358E-12	533.975E-3	-37.5389E-3
1.18809E-3	15.7366E-12	603.106E-3	-13.7325E-3	16.0938E-12	516.846E-3	-18.7489E-3
1.18309E-3	15.5751E-12	569.546E-3	-7.59964E-3	16.0142E-12	520.839E-3	-9.38247E-3
1.17809E-3	15.3791E-12	547.584E-3	10.6632E-6	15.8358E-12	511.313E-3	-7.49786E-3
1.17309E-3	15.5910E-12	539.965E-3	-3.45285E-3	15.9335E-12	495.104E-3	-6.26198E-3
1.16808E-3	15.3180E-12	530.933E-3	-19.1058E-3	15.8629E-12	480.952E-3	-26.4536E-3
1.16308E-3	15.0998E-12	517.161E-3	-28.0601E-3	15.1911E-12	460.437E-3	-37.0035E-3
1.15808E-3	14.6610E-12	505.026E-3	-24.5265E-3	14.9397E-12	450.906E-3	-19.4722E-3
1.15308E-3	14.8300E-12	488.340E-3	-20.2445E-3	15.1330E-12	443.839E-3	-17.4899E-3
1.14807E-3	14.7386E-12	471.260E-3	-15.6446E-3	15.2191E-12	421.620E-3	-29.0524E-3
1.14307E-3	14.6579E-12	461.036E-3	-15.0885E-3	14.5710E-12	402.808E-3	-16.1079E-3
1.13807E-3	14.6714E-12	456.916E-3	-13.2619E-3	14.2212E-12	397.822E-3	1.39610E-3
1.13307E-3	14.0939E-12	450.545E-3	-6.88950E-3	14.4925E-12	392.087E-3	-5.96600E-3
1.12806E-3	13.9497E-12	433.176E-3	-15.5457E-3	15.0241E-12	377.081E-3	-7.91591E-3
1.12306E-3	13.9800E-12	414.701E-3	-25.2563E-3	14.4070E-12	360.880E-3	3.55988E-3
1.11806E-3	14.0309E-12	401.350E-3	-15.9096E-3	14.0296E-12	342.882E-3	-8.09608E-3
1.11306E-3	13.9934E-12	395.995E-3	-10.5800E-3	13.7693E-12	330.453E-3	-25.2413E-3
1.10805E-3	13.2423E-12	386.487E-3	-17.8799E-3	13.6459E-12	335.431E-3	-21.6321E-3
1.10305E-3	12.8343E-12	360.380E-3	-15.5085E-3	13.1678E-12	329.165E-3	-19.8918E-3
1.09805E-3	13.2150E-12	336.381E-3	-10.4958E-3	12.7368E-12	299.476E-3	-22.9901E-3
1.09305E-3	13.2577E-12	332.543E-3	-9.29204E-3	12.8160E-12	283.267E-3	-22.1833E-3
1.08804E-3	12.9026E-12	333.516E-3	-2.79964E-3	13.1847E-12	279.671E-3	-25.9570E-3
1.08304E-3	12.3941E-12	320.447E-3	502.572E-6	12.8151E-12	267.027E-3	-21.9009E-3
1.07804E-3	12.5775E-12	304.831E-3	-1.31883E-3	12.4689E-12	263.468E-3	-7.81871E-3
1.07304E-3	12.5934E-12	293.043E-3	951.137E-6	12.5194E-12	262.617E-3	-12.7439E-3
1.06803E-3	12.2035E-12	279.714E-3	-7.35620E-3	12.3573E-12	240.575E-3	-30.1448E-3
1.06303E-3	12.3066E-12	268.187E-3	-20.9181E-3	12.1714E-12	229.333E-3	-33.4249E-3
1.05803E-3	12.5427E-12	258.983E-3	-14.8444E-3	12.1598E-12	237.212E-3	-21.1407E-3
1.05303E-3	12.4830E-12	245.665E-3	-16.2171E-3	11.9676E-12	237.313E-3	-10.3545E-3
1.04802E-3	12.1958E-12	237.873E-3	-20.6668E-3	11.8188E-12	231.071E-3	-5.82353E-3
1.04302E-3	12.5623E-12	232.600E-3	-8.03575E-3	11.9603E-12	209.756E-3	-7.30716E-3
1.03802E-3	12.4166E-12	232.146E-3	-4.81363E-3	12.1472E-12	183.708E-3	-18.2628E-3
1.03302E-3	12.2493E-12	243.858E-3	-9.47600E-3	11.9752E-12	182.788E-3	-20.5287E-3
1.02801E-3	12.2996E-12	242.392E-3	-8.96551E-3	11.4246E-12	197.709E-3	-7.87142E-3
1.02301E-3	11.9423E-12	234.348E-3	-15.6657E-3	11.4416E-12	193.757E-3	-6.31716E-3
1.01801E-3	11.7374E-12	235.776E-3	-20.5898E-3	11.5819E-12	175.555E-3	-19.2260E-3
1.01301E-3	11.5442E-12	228.124E-3	-18.9899E-3	11.6508E-12	174.974E-3	-23.6560E-3
1.00800E-3	11.7058E-12	203.875E-3	-19.2278E-3	11.1213E-12	181.517E-3	-18.6149E-3
1.00300E-3	11.2554E-12	187.319E-3	-17.7158E-3	10.9724E-12	184.644E-3	-10.9256E-3
997.999E-6	11.1741E-12	179.737E-3	-16.1451E-3	11.5000E-12	188.242E-3	-7.34030E-3
992.997E-6	11.1146E-12	168.452E-3	-13.5075E-3	11.7257E-12	180.440E-3	-19.1404E-3
987.994E-6	10.8479E-12	169.712E-3	-7.19796E-3	11.0501E-12	171.282E-3	-37.6096E-3
982.991E-6	10.8793E-12	178.085E-3	-2.62653E-3	10.8281E-12	176.326E-3	-38.7042E-3
977.989E-6	10.7678E-12	176.569E-3	-10.7785E-3	11.1623E-12	170.865E-3	-22.2761E-3
972.986E-6	11.0502E-12	177.034E-3	-22.4035E-3	11.2987E-12	152.200E-3	-6.88147E-3
967.984E-6	10.8785E-12	184.093E-3	-30.3140E-3	10.9957E-12	154.950E-3	-13.9111E-3
962.981E-6	10.8964E-12	179.596E-3	-30.3612E-3	10.5443E-12	167.265E-3	-36.6273E-3
957.979E-6	10.6099E-12	168.001E-3	-26.4565E-3	10.7123E-12	169.693E-3	-32.5607E-3
952.976E-6	10.8537E-12	168.795E-3	-28.6330E-3	10.8138E-12	167.309E-3	-14.1882E-3
947.974E-6	10.8254E-12	176.079E-3	-18.5471E-3	11.3349E-12	166.699E-3	-22.2222E-3
942.971E-6	10.8762E-12	175.612E-3	-535.209E-6	11.1204E-12	177.191E-3	-37.0701E-3
937.969E-6	10.5463E-12	175.608E-3	1.42444E-3	10.4940E-12	184.314E-3	-32.1585E-3
932.966E-6	10.6721E-12	177.409E-3	-8.56778E-3	10.4447E-12	176.686E-3	-24.7145E-3
927.964E-6	10.5995E-12	175.266E-3	-19.6161E-3	10.6530E-12	171.403E-3	-20.2237E-3
922.961E-6	10.5213E-12	175.045E-3	-28.4798E-3	10.8680E-12	168.819E-3	-7.16981E-3
917.959E-6	10.3504E-12	168.840E-3	-29.5568E-3	10.4913E-12	159.539E-3	-3.43439E-3
912.956E-6	10.7203E-12	172.793E-3	-29.4612E-3	10.3802E-12	153.281E-3	-16.9279E-3
907.954E-6	10.8463E-12	192.655E-3	-27.3083E-3	10.3558E-12	166.958E-3	-28.7675E-3
902.951E-6	10.4342E-12	196.643E-3	-23.2080E-3	10.9268E-12	195.378E-3	-22.1652E-3
897.949E-6	10.3998E-12	193.304E-3	-22.8903E-3	10.4161E-12	206.089E-3	-10.2849E-3
892.946E-6	10.3509E-12	195.135E-3	-20.3664E-3	10.1053E-12	205.028E-3	-17.1992E-3
887.944E-6	10.3701E-12	187.209E-3	-17.8598E-3	10.3977E-12	211.501E-3	-38.3162E-3
882.941E-6	10.2241E-12	178.533E-3	-21.6647E-3	10.4787E-12	209.227E-3	-43.4585E-3
877.939E-6	9.91801E-12	182.843E-3	-30.5865E-3	10.9165E-12	203.480E-3	-30.4089E-3
872.936E-6	9.70036E-12	192.780E-3	-20.9330E-3	9.96543E-12	198.935E-3	-27.4166E-3
867.934E-6	9.84018E-12	191.228E-3	2.24855E-3	9.93943E-12	190.475E-3	-36.0400E-3
862.931E-6	9.95915E-12	194.784E-3	7.79960E-3	10.3421E-12	194.948E-3	-38.1344E-3
857.929E-6	9.60901E-12	211.533E-3	546.666E-6	10.2842E-12	202.126E-3	-36.2980E-3
852.926E-6	9.50040E-12	207.849E-3	-8.16949E-3	9.81901E-12	205.962E-3	-37.3570E-3
847.924E-6	9.41616E-12	194.656E-3	-17.0579E-3	9.74375E-12	228.003E-3	-30.8544E-3
842.921E-6	9.64642E-12	197.766E-3	-18.6383E-3	10.1820E-12	240.849E-3	-20.8635E-3
837.919E-6	9.35971E-12	212.014E-3	-7.49826E-3	9.80042E-12	229.777E-3	-13.3687E-3
832.916E-6	9.35406E-12	223.239E-3	935.643E-6	9.43502E-12	231.301E-3	-4.22488E-3
827.914E-6	9.19382E-12	217.499E-3	-396.327E-6	9.25028E-12	240.683E-3	-3.54326E-3
822.911E-6	9.07169E-12	205.746E-3	-4.30440E-3	9.96360E-12	236.577E-3	-6.82731E-3
817.909E-6	9.06959E-12	214.190E-3	-13.5718E-3	9.76299E-12	238.982E-3	-1.04275E-3
812.906E-6	9.01456E-12	236.838E-3	-25.7430E-3	9.20754E-12	250.737E-3	-6.52969E-3
807.904E-6	9.08230E-12	243.152E-3	-31.4774E-3	8.82046E-12	255.143E-3	-16.9919E-3
802.901E-6	8.76823E-12	234.796E-3	-30.3318E-3	9.11120E-12	256.161E-3	-13.8512E-3
797.899E-6	8.86779E-12	233.777E-3	-20.4721E-3	9.13593E-12	263.457E-3	-14.6488E-3
792.896E-6	8.54966E-12	235.722E-3	-10.0397E-3	8.80309E-12	273.754E-3	-19.0179E-3
787.894E-6	8.83446E-12	234.377E-3	-9.97920E-3	8.71336E-12	280.093E-3	-11.6090E-3
782.891E-6	8.79305E-12	248.458E-3	-15.9280E-3	8.59440E-12	284.181E-3	-7.82367E-3
777.889E-6	8.54638E-12	268.596E-3	-23.6891E-3	8.77111E-12	275.342E-3	-13.2169E-3
772.886E-6	8.18233E-12	271.572E-3	-29.1793E-3	8.63120E-12	264.192E-3	-7.31413E-3
767.884E-6	8.28646E-12	262.284E-3	-24.2751E-3	8.43963E-12	277.969E-3	-4.66531E-3
762.881E-6	8.67489E-12	262.241E-3	-10.9352E-3	8.11762E-12	299.529E-3	-12.7801E-3
757.879E-6	8.40536E-12	275.945E-3	-5.44320E-3	7.98691E-12	299.327E-3	-4.39770E-3
752.876E-6	7.92035E-12	285.159E-3	-13.8421E-3	7.94031E-12	283.584E-3	5.47069E-3
747.874E-6	7.61605E-12	290.407E-3	-27.3337E-3	8.08476E-12	272.367E-3	-9.58971E-3
742.871E-6	7.99537E-12	287.816E-3	-33.8431E-3	7.72293E-12	271.845E-3	-21.7603E-3
737.869E-6	7.92456E-12	283.185E-3	-31.8235E-3	7.16968E-12	280.951E-3	-15.6875E-3
732.866E-6	7.61239E-12	287.252E-3	-25.4506E-3	7.40979E-12	290.934E-3	-21.4373E-3
727.864E-6	7.28368E-12	293.371E-3	-24.6286E-3	7.73748E-12	294.401E-3	-34.0882E-3
722.861E-6	7.30451E-12	298.319E-3	-22.2180E-3	7.48712E-12	301.162E-3	-23.3660E-3
717.859E-6	7.50188E-12	292.170E-3	-8.62725E-3	6.97142E-12	311.147E-3	-19.6210E-3
712.856E-6	7.24655E-12	282.902E-3	-8.85481E-3	7.04396E-12	310.149E-3	-32.6421E-3
707.854E-6	6.98064E-12	291.735E-3	-24.1976E-3	7.46158E-12	304.246E-3	-27.7079E-3
702.851E-6	6.84190E-12	303.323E-3	-26.7408E-3	7.43423E-12	307.773E-3	-16.5275E-3
697.849E-6	7.19398E-12	299.389E-3	-15.7257E-3	6.87311E-12	318.362E-3	-17.5580E-3
692.846E-6	6.75238E-12	305.522E-3	-15.1610E-3	6.57631E-12	334.118E-3	-19.6651E-3
687.844E-6	6.41233E-12	322.646E-3	-17.6995E-3	6.77917E-12	345.825E-3	-19.4116E-3
682.841E-6	6.33563E-12	315.329E-3	-17.9594E-3	7.00791E-12	333.718E-3	-21.7779E-3
677.839E-6	6.40736E-12	301.995E-3	-24.1285E-3	6.60404E-12	319.137E-3	-16.6099E-3
672.836E-6	6.31885E-12	304.985E-3	-24.2592E-3	6.31339E-12	327.393E-3	-9.81517E-3
667.834E-6	6.15851E-12	306.780E-3	-17.6177E-3	6.41605E-12	327.012E-3	-7.11790E-3
662.831E-6	6.00414E-12	307.839E-3	-13.9912E-3	6.65736E-12	306.455E-3	2.09074E-3
657.829E-6	5.88000E-12	307.668E-3	-15.8674E-3	6.20430E-12	301.297E-3	2.83010E-3
652.826E-6	5.88271E-12	301.565E-3	-21.6622E-3	5.88392E-12	323.633E-3	-8.06425E-3
647.824E-6	5.74371E-12	302.367E-3	-29.9539E-3	5.69766E-12	343.121E-3	-12.6180E-3
642.821E-6	5.63328E-12	309.810E-3	-25.3823E-3	5.76829E-12	334.906E-3	-9.68406E-3
637.819E-6	5.62484E-12	304.797E-3	-16.0438E-3	5.88192E-12	305.145E-3	-11.2513E-3
632.816E-6	5.46298E-12	305.962E-3	-16.0974E-3	5.63218E-12	288.552E-3	-20.2160E-3
627.814E-6	5.52133E-12	325.261E-3	-10.6334E-3	5.37489E-12	302.791E-3	-10.8977E-3
622.811E-6	5.30860E-12	326.707E-3	-8.41391E-3	5.15046E-12	325.230E-3	5.23240E-3
617.809E-6	5.20335E-12	309.626E-3	-21.4788E-3	5.21830E-12	336.306E-3	1.17734E-3
612.806E-6	5.21175E-12	306.680E-3	-17.4903E-3	5.20244E-12	330.254E-3	-12.7207E-3
607.804E-6	5.15990E-12	312.427E-3	-12.4127E-3	5.20697E-12	321.285E-3	-25.4947E-3
602.801E-6	4.90710E-12	311.183E-3	-21.4079E-3	4.94814E-12	328.198E-3	-27.3002E-3
597.799E-6	4.73640E-12	316.454E-3	-8.71028E-3	4.75146E-12	346.775E-3	-24.0764E-3
592.796E-6	4.77581E-12	318.002E-3	5.62613E-3	4.88684E-12	348.035E-3	-23.9560E-3
587.794E-6	4.72605E-12	308.038E-3	-8.28439E-3	4.95598E-12	325.957E-3	-25.5103E-3
582.791E-6	4.39912E-12	312.813E-3	-22.5769E-3	4.68670E-12	312.232E-3	-29.8438E-3
577.789E-6	4.29320E-12	321.719E-3	-17.3852E-3	4.41325E-12	322.689E-3	-41.2334E-3
572.786E-6	4.26222E-12	308.994E-3	-12.4385E-3	4.33014E-12	325.574E-3	-45.2214E-3
567.784E-6	4.10977E-12	305.739E-3	-15.0500E-3	4.30254E-12	309.622E-3	-23.0666E-3
562.781E-6	3.92133E-12	320.302E-3	-17.0058E-3	4.22927E-12	302.979E-3	-7.30202E-3
557.779E-6	3.84663E-12	316.710E-3	-16.6435E-3	3.93712E-12	301.989E-3	-11.5882E-3
552.776E-6	3.82516E-12	303.534E-3	-23.7748E-3	3.86760E-12	300.592E-3	-9.58269E-3
547.774E-6	3.75329E-12	296.702E-3	-25.5647E-3	3.82263E-12	301.399E-3	-10.3090E-3
542.771E-6	3.53433E-12	293.253E-3	-20.1929E-3	3.75669E-12	293.724E-3	-16.6139E-3
537.769E-6	3.45209E-12	289.753E-3	-19.2023E-3	3.61986E-12	280.549E-3	-12.0660E-3
532.766E-6	3.48566E-12	287.345E-3	-9.55543E-3	3.48905E-12	279.210E-3	-13.3397E-3
527.764E-6	3.28687E-12	282.455E-3	-1.67064E-3	3.45118E-12	279.386E-3	-29.0288E-3
522.761E-6	3.13060E-12	279.959E-3	-11.9941E-3	3.38242E-12	269.455E-3	-28.3927E-3
517.759E-6	3.12058E-12	281.892E-3	-21.0794E-3	3.23858E-12	271.222E-3	-15.8036E-3
512.756E-6	3.04308E-12	274.073E-3	-13.3533E-3	3.02082E-12	267.883E-3	-13.6670E-3
507.754E-6	2.93409E-12	268.306E-3	-1.16819E-3	2.90549E-12	242.504E-3	-16.4652E-3
502.751E-6	2.75870E-12	268.599E-3	9.55197E-3	2.94475E-12	237.598E-3	-23.0064E-3
497.749E-6	2.72231E-12	257.025E-3	2.16306E-3	2.81951E-12	256.176E-3	-24.6023E-3
492.746E-6	2.72266E-12	239.809E-3	-25.0265E-3	2.68081E-12	260.631E-3	-11.3120E-3
487.744E-6	2.65531E-12	240.651E-3	-24.5882E-3	2.60880E-12	252.690E-3	-5.00205E-3
482.741E-6	2.57580E-12	246.380E-3	1.06379E-3	2.59809E-12	247.641E-3	-13.0989E-3
477.739E-6	2.38635E-12	245.308E-3	11.6368E-3	2.49150E-12	236.654E-3	-7.88307E-3
472.736E-6	2.31677E-12	245.603E-3	10.2507E-3	2.45423E-12	224.908E-3	-107.422E-6
467.734E-6	2.29420E-12	238.598E-3	-265.084E-6	2.40373E-12	215.762E-3	-9.11243E-3
462.731E-6	2.20266E-12	228.936E-3	-21.4916E-3	2.23267E-12	213.251E-3	-13.6606E-3
457.729E-6	2.05967E-12	220.987E-3	-26.0877E-3	2.18594E-12	217.948E-3	-18.0817E-3
452.726E-6	1.98893E-12	216.526E-3	-18.4186E-3	2.17728E-12	208.205E-3	-31.8509E-3
447.724E-6	2.00784E-12	218.595E-3	-20.3405E-3	2.06049E-12	193.522E-3	-25.2389E-3
442.721E-6	1.87616E-12	217.881E-3	-26.7326E-3	1.87577E-12	190.718E-3	-5.86741E-3
437.719E-6	1.87514E-12	211.496E-3	-35.7450E-3	1.89270E-12	192.269E-3	-5.30695E-3
432.716E-6	1.75896E-12	208.858E-3	-35.4488E-3	1.85854E-12	191.941E-3	-10.8166E-3
427.714E-6	1.70681E-12	208.927E-3	-22.5191E-3	1.68622E-12	192.924E-3	-13.1325E-3
422.711E-6	1.64565E-12	196.317E-3	-10.5224E-3	1.61719E-12	186.251E-3	-11.0680E-3
417.709E-6	1.55826E-12	179.696E-3	-8.99905E-3	1.62297E-12	172.317E-3	-2.16165E-3
412.706E-6	1.53647E-12	178.503E-3	-18.7078E-3	1.58403E-12	172.082E-3	-3.97063E-3
407.704E-6	1.45348E-12	186.581E-3	-18.1480E-3	1.42141E-12	174.642E-3	-21.9121E-3
402.701E-6	1.38834E-12	186.756E-3	-16.1928E-3	1.32442E-12	161.369E-3	-32.8428E-3
397.699E-6	1.31550E-12	178.099E-3	-33.3622E-3	1.35414E-12	150.458E-3	-32.7393E-3
392.696E-6	1.22614E-12	167.444E-3	-38.8932E-3	1.30733E-12	154.449E-3	-29.1320E-3
387.694E-6	1.20725E-12	151.246E-3	-29.4335E-3	1.17982E-12	158.825E-3	-16.4659E-3
382.691E-6	1.18543E-12	139.249E-3	-21.7164E-3	1.14274E-12	153.777E-3	-3.66758E-3
377.689E-6	1.12336E-12	137.333E-3	-12.8593E-3	1.14464E-12	143.190E-3	-13.1575E-3
372.686E-6	1.10077E-12	133.354E-3	-10.9937E-3	1.06221E-12	132.211E-3	-30.2821E-3
367.684E-6	1.05078E-12	134.315E-3	-12.6495E-3	962.208E-15	127.634E-3	-24.6167E-3
362.681E-6	975.427E-15	139.817E-3	-1.25433E-3	991.810E-15	132.510E-3	-11.5372E-3
357.679E-6	918.376E-15	136.630E-3	3.63477E-3	946.976E-15	126.502E-3	-17.6235E-3
352.676E-6	867.813E-15	136.527E-3	-3.62484E-3	912.395E-15	111.551E-3	-30.2822E-3
347.674E-6	855.458E-15	145.875E-3	838.187E-6	865.816E-15	115.047E-3	-27.9227E-3
342.671E-6	806.490E-15	147.733E-3	1.95357E-3	813.623E-15	109.680E-3	-19.4619E-3
337.669E-6	747.827E-15	141.306E-3	-5.51721E-3	793.429E-15	86.2675E-3	-16.1817E-3
332.666E-6	724.041E-15	136.544E-3	-2.18517E-3	657.599E-15	81.7226E-3	-14.8168E-3
327.664E-6	701.144E-15	126.532E-3	3.78465E-3	694.534E-15	91.5140E-3	-15.2450E-3
322.661E-6	633.604E-15	112.379E-3	-6.63318E-3	713.734E-15	93.6627E-3	-13.4383E-3
317.659E-6	571.592E-15	102.981E-3	-21.1048E-3	679.781E-15	90.8394E-3	-7.35108E-3
312.656E-6	562.350E-15	96.5046E-3	-19.0179E-3	590.400E-15	80.9172E-3	-12.3986E-3
307.654E-6	530.106E-15	94.7340E-3	-16.4083E-3	540.778E-15	65.7151E-3	-24.2735E-3
302.651E-6	523.662E-15	92.5542E-3	-15.8430E-3	549.279E-15	66.9749E-3	-23.7723E-3
297.649E-6	482.681E-15	80.3165E-3	-4.06049E-3	552.968E-15	73.4286E-3	-22.2195E-3
292.646E-6	456.070E-15	64.5536E-3	1.96924E-3	455.093E-15	63.6816E-3	-19.6864E-3
287.644E-6	410.302E-15	62.6812E-3	-5.70483E-3	400.842E-15	60.1133E-3	-11.4111E-3
282.641E-6	394.564E-15	68.3040E-3	-10.6497E-3	420.696E-15	64.3104E-3	-12.1175E-3
277.639E-6	386.037E-15	73.6340E-3	-10.2154E-3	342.423E-15	50.0997E-3	-17.4827E-3
272.636E-6	416.310E-15	81.4888E-3	-10.5796E-3	354.595E-15	37.1335E-3	-17.6018E-3
267.634E-6	348.840E-15	78.6006E-3	-9.95259E-3	347.131E-15	38.4125E-3	-17.8807E-3
262.631E-6	222.114E-15	72.6275E-3	-15.4305E-3	331.297E-15	41.0987E-3	-23.8890E-3
257.629E-6	287.779E-15	72.4808E-3	-23.6839E-3	251.716E-15	54.3543E-3	-21.4551E-3
252.626E-6	271.064E-15	56.5152E-3	-18.0787E-3	219.785E-15	56.6385E-3	-12.8012E-3
247.624E-6	236.588E-15	39.5619E-3	-12.9637E-3	292.269E-15	33.8214E-3	-10.8716E-3
242.621E-6	224.878E-15	47.4110E-3	-17.8489E-3	282.216E-15	26.5029E-3	-7.93311E-3
237.619E-6	245.760E-15	53.4525E-3	-15.9959E-3	176.328E-15	35.7364E-3	-3.83064E-3
232.616E-6	239.613E-15	44.1520E-3	-16.5240E-3	165.063E-15	31.1993E-3	-12.9639E-3
227.614E-6	164.383E-15	45.6251E-3	-20.1087E-3	219.018E-15	23.3067E-3	-23.4653E-3
222.611E-6	159.919E-15	57.6881E-3	-13.4852E-3	167.661E-15	28.7349E-3	-22.7930E-3
217.609E-6	129.898E-15	51.7674E-3	-10.9642E-3	112.843E-15	36.9965E-3	-19.8576E-3
212.606E-6	182.650E-15	41.7681E-3	-17.8378E-3	70.0488E-15	40.9897E-3	-14.1106E-3
207.604E-6	147.581E-15	37.6843E-3	-23.1418E-3	171.986E-15	42.8668E-3	-11.7987E-3
202.601E-6	78.5240E-15	30.0440E-3	-27.3552E-3	92.6493E-15	40.3628E-3	-15.9660E-3
197.599E-6	90.3386E-15	34.1291E-3	-26.6607E-3	50.8663E-15	39.4869E-3	-15.8393E-3
192.596E-6	54.1535E-15	37.9749E-3	-20.1250E-3	10.8622E-15	38.0841E-3	-12.7796E-3
187.594E-6	62.9513E-15	24.8256E-3	-17.0577E-3	102.145E-15	24.6838E-3	-18.3078E-3
182.591E-6	64.5469E-15	17.0387E-3	-20.1914E-3	47.8582E-15	14.3165E-3	-32.7989E-3
177.589E-6	80.4597E-15	19.7559E-3	-17.8108E-3	33.7242E-15	18.9078E-3	-38.1247E-3
172.586E-6	18.5787E-15	19.2421E-3	-6.52331E-3	-6.45439E-15	17.4406E-3	-36.5119E-3
167.584E-6	54.8511E-15	22.3212E-3	-2.02008E-3	35.2413E-15	13.0550E-3	-38.6768E-3
162.581E-6	34.2212E-15	37.0896E-3	-3.25529E-3	5.64801E-15	22.4723E-3	-35.8223E-3
157.579E-6	20.4360E-15	31.6587E-3	-1.84017E-3	-51.1932E-15	22.8869E-3	-25.6358E-3
152.576E-6	-874.032E-18	11.2938E-3	-5.45907E-3	5.97934E-15	9.31193E-3	-14.4287E-3
147.574E-6	-36.7017E-15	15.9489E-3	-14.8906E-3	-20.6756E-15	14.3382E-3	-13.7940E-3
142.571E-6	-3.59446E-15	17.8664E-3	-22.3611E-3	-26.9099E-15	32.1196E-3	-18.2021E-3
137.569E-6	14.3760E-15	9.84360E-3	-22.3024E-3	-45.9093E-15	27.7073E-3	-17.3384E-3
132.566E-6	-67.8645E-15	20.3725E-3	-13.0805E-3	-42.5523E-15	21.6153E-3	-17.9033E-3
127.564E-6	-122.709E-15	30.4194E-3	-3.35802E-3	-26.7268E-15	30.0780E-3	-22.5234E-3
122.561E-6	-8.83476E-15	27.1776E-3	-926.470E-6	-117.887E-15	26.7813E-3	-30.3433E-3
117.559E-6	1.45402E-15	18.3085E-3	-8.96138E-3	-111.112E-15	25.4430E-3	-30.2636E-3
112.556E-6	-102.367E-15	-3.19442E-3	-13.8249E-3	-24.5731E-15	32.1085E-3	-23.6570E-3
107.554E-6	-77.6214E-15	-10.1323E-3	-11.9661E-3	-28.1219E-15	27.6081E-3	-21.8851E-3
102.551E-6	-55.2912E-15	19.3675E-3	-10.8957E-3	-74.8574E-15	26.7316E-3	-22.1632E-3
97.5488E-6	-37.5300E-15	32.1353E-3	-12.7783E-3	-120.337E-15	32.2367E-3	-29.0033E-3
92.5463E-6	-89.2268E-15	19.7845E-3	-26.4768E-3	-54.1577E-15	26.2460E-3	-37.5188E-3
87.5438E-6	-171.214E-15	31.0791E-3	-34.1466E-3	-94.0834E-15	15.7592E-3	-31.7816E-3
82.5413E-6	-70.5936E-15	31.6941E-3	-25.2088E-3	-139.459E-15	9.67125E-3	-27.1990E-3
77.5388E-6	-91.5548E-15	13.2061E-3	-17.6213E-3	-209.745E-15	3.57899E-3	-26.7776E-3
72.5363E-6	-116.300E-15	19.0835E-3	-13.5432E-3	-64.5947E-15	7.60395E-3	-13.8111E-3
67.5338E-6	-150.428E-15	24.3896E-3	-7.43619E-3	-91.5723E-15	21.6946E-3	-4.09105E-3
62.5313E-6	-124.854E-15	13.1954E-3	-11.0603E-3	-139.459E-15	7.21533E-3	-5.94118E-3
57.5288E-6	-124.793E-15	7.68002E-3	-17.3629E-3	-125.211E-15	-12.8337E-3	-1.15377E-3
52.5263E-6	-145.492E-15	10.8747E-3	-14.2961E-3	-165.434E-15	3.31854E-3	2.26510E-3
47.5238E-6	-98.9401E-15	7.50298E-3	-19.7844E-3	-133.530E-15	19.8774E-3	-7.21998E-3
42.5213E-6	-144.847E-15	4.21563E-3	-29.4391E-3	-159.749E-15	17.3365E-3	-6.02756E-3
37.5188E-6	-155.938E-15	10.5930E-3	-24.8766E-3	-188.557E-15	5.91869E-3	530.116E-6
32.5163E-6	-179.777E-15	5.25146E-3	-17.1046E-3	-140.322E-15	-7.17922E-3	-3.16796E-3
27.5138E-6	-160.743E-15	2.38804E-3	-16.9024E-3	-163.454E-15	-10.2759E-3	-3.02169E-3
22.5113E-6	-134.497E-15	16.0713E-3	-13.5854E-3	-187.642E-15	6.36130E-3	-5.94177E-3
17.5088E-6	-154.718E-15	22.2970E-3	-15.6316E-3	-173.351E-15	14.8366E-3	-21.0490E-3
12.5063E-6	-236.016E-15	25.7305E-3	-31.8976E-3	-176.987E-15	-460.109E-6	-31.1849E-3
7.50375E-6	-154.011E-15	20.6900E-3	-39.7700E-3	-149.329E-15	-468.986E-6	-31.2473E-3
2.50125E-6	-119.901E-15	-1.30638E-3	-31.5509E-3	-206.885E-15	2.90187E-3	-26.5471E-3
-2.50125E-6	-222.597E-15	-5.92471E-3	-21.1029E-3	-152.982E-15	-8.82531E-3	-12.2284E-3
-7.50375E-6	-263.378E-15	5.95013E-3	-16.5599E-3	-131.960E-15	974.496E-6	-3.88762E-3
-12.5063E-6	-184.625E-15	3.13989E-3	-22.8614E-3	-199.151E-15	19.1048E-3	-15.6728E-3
-17.5088E-6	-178.260E-15	382.682E-6	-40.5207E-3	-193.126E-15	9.87469E-3	-23.5381E-3
-22.5113E-6	-213.015E-15	8.26155E-3	-43.2559E-3	-193.222E-15	-327.235E-6	-17.8411E-3
-27.5138E-6	-237.813E-15	5.48160E-3	-27.1791E-3	-189.019E-15	1.06573E-3	-19.5081E-3
-32.5163E-6	-196.884E-15	-1.30779E-3	-27.1401E-3	-230.584E-15	-2.45653E-3	-22.9670E-3
-37.5188E-6	-181.277E-15	4.87078E-3	-40.0525E-3	-271.199E-15	2.34232E-3	-23.0292E-3
-42.5213E-6	-238.292E-15	9.11315E-3	-39.9119E-3	-184.773E-15	17.6615E-3	-33.0732E-3
-47.5238E-6	-254.118E-15	5.17188E-3	-33.3371E-3	-215.709E-15	15.0817E-3	-38.3767E-3
-52.5263E-6	-233.836E-15	2.97623E-3	-32.0017E-3	-282.787E-15	9.53993E-3	-31.1240E-3
-57.5288E-6	-220.993E-15	6.02609E-3	-24.7172E-3	-249.784E-15	18.5872E-3	-23.9675E-3
-62.5313E-6	-237.647E-15	12.8584E-3	-14.3693E-3	-215.543E-15	21.5576E-3	-11.9234E-3
-67.5338E-6	-277.625E-15	18.6462E-3	-7.02344E-3	-226.164E-15	22.8926E-3	-6.12236E-3
-72.5363E-6	-254.405E-15	18.5512E-3	-1.25112E-3	-243.349E-15	24.9330E-3	-27.7525E-3
-77.5388E-6	-286.815E-15	8.62473E-3	-5.08954E-3	-284.670E-15	16.0843E-3	-37.9528E-3
-82.5413E-6	-264.633E-15	10.2226E-3	-7.47850E-3	-284.644E-15	12.7633E-3	-15.5764E-3
-87.5438E-6	-237.507E-15	22.3651E-3	-3.78568E-3	-224.734E-15	30.2038E-3	-3.57315E-3
-92.5463E-6	-278.436E-15	29.3892E-3	-13.9107E-3	-325.537E-15	40.1900E-3	-13.3182E-3
-97.5488E-6	-265.915E-15	33.7593E-3	-19.1999E-3	-298.429E-15	34.6997E-3	-16.4310E-3
-102.551E-6	-314.446E-15	27.1512E-3	-8.75335E-3	-295.499E-15	39.7766E-3	-13.0360E-3
-107.554E-6	-262.209E-15	18.5968E-3	-9.71451E-3	-328.860E-15	37.2589E-3	-22.6829E-3
-112.556E-6	-261.067E-15	9.45005E-3	-21.2023E-3	-306.965E-15	25.6329E-3	-25.0207E-3
-117.559E-6	-331.946E-15	-6.34181E-3	-24.9082E-3	-311.369E-15	27.7139E-3	-17.8270E-3
-122.561E-6	-368.593E-15	-10.8858E-3	-19.0724E-3	-245.852E-15	20.2952E-3	-18.3234E-3
-127.564E-6	-315.772E-15	6.43682E-3	-19.2998E-3	-386.904E-15	3.81553E-3	-10.3470E-3
-132.566E-6	-299.502E-15	15.8014E-3	-19.8274E-3	-366.309E-15	6.95687E-3	-5.15449E-3
-137.569E-6	-415.730E-15	13.1778E-3	-7.66078E-3	-335.268E-15	16.0381E-3	-16.0825E-3
-142.571E-6	-400.759E-15	27.8333E-3	-5.99605E-3	-366.623E-15	26.7645E-3	-18.4942E-3
-147.574E-6	-364.835E-15	31.7487E-3	-16.3848E-3	-393.653E-15	36.7866E-3	-13.2349E-3
-152.576E-6	-382.919E-15	16.7242E-3	-17.7824E-3	-366.989E-15	31.5314E-3	-14.1512E-3
-157.579E-6	-418.049E-15	21.9386E-3	-19.3581E-3	-387.401E-15	30.5994E-3	-13.3388E-3
-162.581E-6	-443.771E-15	31.1500E-3	-17.9511E-3	-383.660E-15	41.5809E-3	-11.1345E-3
-167.584E-6	-418.773E-15	27.0094E-3	-12.0206E-3	-494.744E-15	48.8912E-3	-13.8375E-3
-172.586E-6	-429.629E-15	36.7554E-3	-9.62057E-3	-485.327E-15	44.9966E-3	-17.7441E-3
-177.589E-6	-412.050E-15	44.8964E-3	-6.60637E-3	-397.916E-15	48.3924E-3	-23.7508E-3
-182.591E-6	-466.197E-15	40.9581E-3	-8.44902E-3	-432.218E-15	59.4210E-3	-25.9943E-3
-187.594E-6	-467.732E-15	48.4255E-3	-15.9837E-3	-524.625E-15	54.3234E-3	-14.9844E-3
-192.596E-6	-503.560E-15	53.5190E-3	-23.9115E-3	-532.255E-15	49.9705E-3	-10.7687E-3
-197.599E-6	-493.532E-15	38.3127E-3	-24.9235E-3	-466.101E-15	49.4584E-3	-21.0551E-3
-202.601E-6	-486.321E-15	23.1466E-3	-20.7479E-3	-522.289E-15	41.9630E-3	-20.2723E-3
-207.604E-6	-510.988E-15	23.0199E-3	-11.1322E-3	-608.592E-15	47.8777E-3	-8.92407E-3
-212.606E-6	-596.752E-15	29.4916E-3	-7.98790E-3	-627.661E-15	58.7160E-3	-20.7863E-3
-217.609E-6	-578.197E-15	46.9806E-3	-20.0381E-3	-571.439E-15	63.5049E-3	-37.4559E-3
-222.611E-6	-563.017E-15	64.2984E-3	-24.8111E-3	-582.059E-15	77.9661E-3	-31.6788E-3
-227.614E-6	-588.852E-15	63.0072E-3	-21.3760E-3	-597.493E-15	84.4030E-3	-37.2058E-3
-232.616E-6	-649.303E-15	65.3245E-3	-23.2584E-3	-641.482E-15	67.9513E-3	-42.9963E-3
-237.619E-6	-701.715E-15	70.2383E-3	-30.1399E-3	-698.523E-15	64.2973E-3	-17.4403E-3
-242.621E-6	-684.974E-15	65.4081E-3	-29.7068E-3	-682.166E-15	81.7723E-3	199.838E-6
-247.624E-6	-688.906E-15	66.4176E-3	-26.9978E-3	-717.357E-15	82.9724E-3	-7.92648E-3
-252.626E-6	-759.846E-15	76.3681E-3	-27.8743E-3	-732.956E-15	72.5096E-3	-6.09384E-3
-257.629E-6	-793.433E-15	79.9865E-3	-20.5621E-3	-750.473E-15	83.4240E-3	-11.3786E-3
-262.631E-6	-798.263E-15	75.1350E-3	-26.2685E-3	-828.040E-15	97.9819E-3	-33.1381E-3
-267.634E-6	-862.307E-15	79.1726E-3	-45.0639E-3	-838.625E-15	101.574E-3	-34.3313E-3
-272.636E-6	-899.198E-15	87.0955E-3	-36.3454E-3	-859.830E-15	112.443E-3	-21.3633E-3
-277.639E-6	-924.022E-15	92.6173E-3	-15.6586E-3	-910.838E-15	114.731E-3	-13.4249E-3
-282.641E-6	-943.780E-15	100.096E-3	-11.8270E-3	-906.488E-15	113.145E-3	-14.0008E-3
-287.644E-6	-1.00934E-12	94.7001E-3	-8.14764E-3	-969.092E-15	128.935E-3	-17.7297E-3
-292.646E-6	-1.04510E-12	83.4817E-3	-609.018E-6	-944.957E-15	141.603E-3	-20.8474E-3
-297.649E-6	-1.11416E-12	91.2886E-3	-433.942E-6	-1.01589E-12	139.262E-3	-14.4795E-3
-302.651E-6	-1.08427E-12	105.562E-3	-15.5990E-6	-1.14960E-12	137.881E-3	-11.3480E-3
-307.654E-6	-1.17911E-12	110.902E-3	-1.78133E-3	-1.14588E-12	138.814E-3	-20.8726E-3
-312.656E-6	-1.23553E-12	120.570E-3	-14.1542E-3	-1.13901E-12	141.586E-3	-11.4808E-3
-317.659E-6	-1.29260E-12	136.917E-3	-19.1567E-3	-1.25580E-12	155.106E-3	1.08190E-3
-322.661E-6	-1.34864E-12	140.925E-3	-15.8208E-3	-1.34501E-12	151.175E-3	-1.16150E-3
-327.664E-6	-1.38508E-12	137.665E-3	-20.0663E-3	-1.37784E-12	139.234E-3	-2.73301E-3
-332.666E-6	-1.40744E-12	150.247E-3	-19.7935E-3	-1.31866E-12	161.620E-3	-8.73201E-3
-337.669E-6	-1.45029E-12	161.867E-3	-12.4159E-3	-1.43878E-12	188.132E-3	-14.1931E-3
-342.671E-6	-1.47740E-12	155.594E-3	-2.74271E-3	-1.54706E-12	191.354E-3	-9.76523E-3
-347.674E-6	-1.59669E-12	155.300E-3	7.90472E-3	-1.65364E-12	191.946E-3	-11.4074E-3
-352.676E-6	-1.66771E-12	166.572E-3	-941.363E-6	-1.63109E-12	190.773E-3	-25.5595E-3
-357.679E-6	-1.68676E-12	183.376E-3	-17.7970E-3	-1.67608E-12	192.906E-3	-26.2949E-3
-362.681E-6	-1.75074E-12	198.001E-3	-12.9739E-3	-1.79800E-12	207.831E-3	-16.7461E-3
-367.684E-6	-1.88445E-12	190.920E-3	-2.09979E-3	-1.85464E-12	225.216E-3	-18.1699E-3
-372.686E-6	-1.94356E-12	184.561E-3	-3.60002E-3	-1.88609E-12	231.013E-3	-16.6275E-3
-377.689E-6	-1.94777E-12	196.032E-3	-12.7448E-3	-2.00476E-12	235.126E-3	-10.4641E-3
-382.691E-6	-2.01993E-12	203.489E-3	-27.3580E-3	-2.08305E-12	245.065E-3	-18.6038E-3
-387.694E-6	-2.14052E-12	209.710E-3	-35.3796E-3	-2.14399E-12	245.136E-3	-29.3690E-3
-392.696E-6	-2.16510E-12	221.972E-3	-17.4323E-3	-2.26468E-12	252.518E-3	-22.7147E-3
-397.699E-6	-2.19854E-12	224.947E-3	-1.39385E-3	-2.29152E-12	267.814E-3	-19.4522E-3
-402.701E-6	-2.35124E-12	221.685E-3	-6.78520E-3	-2.35102E-12	267.442E-3	-28.4873E-3
-407.704E-6	-2.49858E-12	235.557E-3	-7.76563E-3	-2.43159E-12	273.937E-3	-27.7932E-3
-412.706E-6	-2.54721E-12	253.195E-3	-9.03929E-3	-2.57961E-12	293.800E-3	-27.3301E-3
-417.709E-6	-2.59946E-12	254.702E-3	-20.6300E-3	-2.66170E-12	302.539E-3	-37.5257E-3
-422.711E-6	-2.71201E-12	256.698E-3	-25.2012E-3	-2.71302E-12	316.853E-3	-36.7514E-3
-427.714E-6	-2.77261E-12	268.217E-3	-26.5093E-3	-2.76027E-12	336.182E-3	-27.6514E-3
-432.716E-6	-2.81798E-12	285.259E-3	-33.2571E-3	-2.98472E-12	327.232E-3	-28.5215E-3
-437.719E-6	-2.87838E-12	298.925E-3	-25.1020E-3	-3.09661E-12	322.594E-3	-21.2850E-3
-442.721E-6	-3.07994E-12	294.365E-3	-5.08489E-3	-3.11289E-12	349.093E-3	-12.9009E-3
-447.724E-6	-3.27818E-12	300.369E-3	2.33724E-3	-3.25652E-12	356.867E-3	-15.9546E-3
-452.726E-6	-3.26798E-12	326.376E-3	-3.92868E-3	-3.40313E-12	346.626E-3	18.9292E-6
-457.729E-6	-3.25223E-12	331.609E-3	-13.9568E-3	-3.63571E-12	360.259E-3	11.7904E-3
-462.731E-6	-3.53534E-12	328.437E-3	-21.4719E-3	-3.62057E-12	379.116E-3	3.00690E-3
-467.734E-6	-3.69610E-12	344.877E-3	-18.4835E-3	-3.62121E-12	390.989E-3	12.3437E-3
-472.736E-6	-3.76594E-12	362.639E-3	-5.56421E-3	-3.81609E-12	405.281E-3	18.3328E-3
-477.739E-6	-3.79167E-12	368.154E-3	771.197E-6	-3.99573E-12	403.522E-3	-5.23975E-3
-482.741E-6	-4.04158E-12	371.265E-3	783.011E-6	-4.17256E-12	389.803E-3	-14.3066E-3
-487.744E-6	-4.16500E-12	380.232E-3	8.77169E-3	-4.13564E-12	394.368E-3	-12.4065E-3
-492.746E-6	-4.28550E-12	389.210E-3	8.97335E-3	-4.22499E-12	413.879E-3	-29.0984E-3
-497.749E-6	-4.28601E-12	390.993E-3	-1.08979E-3	-4.40656E-12	424.337E-3	-30.3663E-3
-502.751E-6	-4.59367E-12	392.125E-3	-172.564E-6	-4.57304E-12	434.416E-3	-22.9726E-3
-507.754E-6	-4.72784E-12	398.063E-3	-544.904E-6	-4.64479E-12	443.824E-3	-36.6968E-3
-512.756E-6	-4.76312E-12	410.494E-3	-7.41849E-3	-4.82881E-12	435.635E-3	-36.0725E-3
-517.759E-6	-4.80886E-12	418.343E-3	-12.1275E-3	-4.95836E-12	437.469E-3	-20.8396E-3
-522.761E-6	-5.04877E-12	415.974E-3	-19.6892E-3	-5.12464E-12	458.710E-3	-24.0540E-3
-527.764E-6	-5.40005E-12	422.720E-3	-25.8881E-3	-5.13200E-12	462.872E-3	-22.0919E-3
-532.766E-6	-5.38400E-12	434.537E-3	-26.5496E-3	-5.42607E-12	461.440E-3	-9.95588E-3
-537.769E-6	-5.43149E-12	442.433E-3	-21.1235E-3	-5.66951E-12	476.355E-3	-18.2421E-3
-542.771E-6	-5.62900E-12	453.326E-3	-22.5418E-3	-5.79963E-12	496.422E-3	-26.9591E-3
-547.774E-6	-5.87467E-12	465.896E-3	-29.0838E-3	-5.84944E-12	513.191E-3	-16.0334E-3
-552.776E-6	-6.07086E-12	474.902E-3	-27.3467E-3	-6.06921E-12	511.286E-3	-8.81627E-3
-557.779E-6	-6.16600E-12	480.007E-3	-23.6869E-3	-6.44384E-12	502.374E-3	-14.7787E-3
-562.781E-6	-6.53191E-12	483.524E-3	-14.4342E-3	-6.49650E-12	515.298E-3	-18.5933E-3
-567.784E-6	-6.57969E-12	486.180E-3	-9.89938E-3	-6.57288E-12	533.085E-3	-19.7427E-3
-572.786E-6	-6.72776E-12	495.790E-3	-17.1442E-3	-6.83510E-12	535.048E-3	-23.0233E-3
-577.789E-6	-7.05711E-12	502.369E-3	-13.7933E-3	-7.20485E-12	535.521E-3	-19.4205E-3
-582.791E-6	-7.30765E-12	500.377E-3	-5.32901E-3	-7.20585E-12	538.148E-3	-16.5308E-3
-587.794E-6	-7.33524E-12	510.826E-3	-12.8051E-3	-7.33759E-12	536.072E-3	-14.9449E-3
-592.796E-6	-7.34686E-12	524.099E-3	-28.1303E-3	-7.55060E-12	540.730E-3	-5.79504E-3
-597.799E-6	-7.76207E-12	520.540E-3	-33.7826E-3	-7.76525E-12	549.590E-3	-13.8460E-3
-602.801E-6	-8.31028E-12	519.751E-3	-26.1743E-3	-8.10486E-12	548.225E-3	-25.3777E-3
-607.804E-6	-8.33922E-12	534.531E-3	-11.2839E-3	-8.11484E-12	546.306E-3	-12.2642E-3
-612.806E-6	-8.20771E-12	543.646E-3	-4.99422E-3	-8.48329E-12	551.826E-3	-13.3703E-3
-617.809E-6	-8.64071E-12	550.478E-3	-8.81709E-3	-8.68718E-12	549.968E-3	-32.6622E-3
-622.811E-6	-9.12382E-12	562.677E-3	-15.3074E-3	-8.75022E-12	548.920E-3	-25.7998E-3
-627.814E-6	-9.22721E-12	559.330E-3	-21.9897E-3	-9.05739E-12	554.687E-3	-8.32860E-3
-632.816E-6	-9.12042E-12	556.055E-3	-27.3251E-3	-9.29172E-12	545.786E-3	-11.2000E-3
-637.819E-6	-9.53878E-12	568.002E-3	-30.4184E-3	-9.68444E-12	535.073E-3	-15.1256E-3
-642.821E-6	-9.90221E-12	577.242E-3	-17.8728E-3	-9.36109E-12	551.288E-3	-10.7382E-3
-647.824E-6	-10.1935E-12	587.394E-3	-10.9764E-3	-9.69327E-12	559.285E-3	-20.1889E-3
-652.826E-6	-10.2802E-12	589.052E-3	-19.1543E-3	-9.90979E-12	544.072E-3	-25.7225E-3
-657.829E-6	-10.2428E-12	579.518E-3	-9.40461E-3	-10.1955E-12	547.203E-3	-9.89180E-3
-662.831E-6	-10.5899E-12	573.952E-3	4.46401E-3	-10.0357E-12	554.995E-3	-14.3676E-3
-667.834E-6	-10.7976E-12	574.369E-3	4.39778E-3	-10.2677E-12	554.706E-3	-24.5850E-3
-672.836E-6	-11.3907E-12	580.557E-3	2.29578E-3	-10.6385E-12	558.029E-3	-6.69930E-3
-677.839E-6	-11.1656E-12	590.173E-3	-7.21664E-3	-10.5936E-12	548.461E-3	-1.24522E-3
-682.841E-6	-11.1243E-12	592.451E-3	-20.3608E-3	-10.8699E-12	536.073E-3	-10.6699E-3
-687.844E-6	-11.3911E-12	570.005E-3	-22.8372E-3	-10.9102E-12	538.353E-3	-7.06452E-3
-692.846E-6	-12.0121E-12	547.051E-3	-23.5125E-3	-10.9550E-12	538.169E-3	-14.6036E-3
-697.849E-6	-12.0651E-12	554.119E-3	-26.4593E-3	-11.1789E-12	535.496E-3	-19.8767E-3
-702.851E-6	-11.4128E-12	565.753E-3	-32.7364E-3	-11.2989E-12	540.846E-3	-5.31260E-3
-707.854E-6	-11.5075E-12	551.256E-3	-40.8441E-3	-11.7792E-12	535.406E-3	-9.13675E-3
-712.856E-6	-11.9767E-12	525.560E-3	-35.7124E-3	-11.8572E-12	506.331E-3	-18.0879E-3
-717.859E-6	-12.5579E-12	512.906E-3	-25.3193E-3	-12.1472E-12	494.800E-3	-18.3270E-3
-722.861E-6	-12.5143E-12	521.015E-3	-17.7809E-3	-12.1552E-12	509.877E-3	-24.3476E-3
-727.864E-6	-12.2066E-12	532.511E-3	-10.5017E-3	-12.3166E-12	509.908E-3	-20.3546E-3
-732.866E-6	-12.3034E-12	526.055E-3	-5.67252E-3	-12.6945E-12	498.909E-3	-4.19342E-3
-737.869E-6	-12.9092E-12	505.634E-3	1.36214E-3	-12.9516E-12	489.176E-3	-15.6523E-3
-742.871E-6	-13.3487E-12	497.740E-3	4.58837E-3	-13.2764E-12	477.788E-3	-40.4302E-3
-747.874E-6	-13.0523E-12	507.894E-3	-3.59583E-3	-13.3794E-12	481.156E-3	-35.8882E-3
-752.876E-6	-12.7087E-12	503.312E-3	-7.16061E-3	-13.4474E-12	503.557E-3	-28.9973E-3
-757.879E-6	-13.0556E-12	485.009E-3	-5.82351E-3	-13.7125E-12	495.400E-3	-29.6439E-3
-762.881E-6	-13.6798E-12	468.286E-3	-6.06491E-3	-13.8495E-12	455.225E-3	-20.8775E-3
-767.884E-6	-14.1017E-12	462.853E-3	-6.09265E-3	-14.3898E-12	447.054E-3	-24.2669E-3
-772.886E-6	-14.2435E-12	473.722E-3	-12.9383E-3	-13.7101E-12	460.792E-3	-39.3906E-3
-777.889E-6	-13.9472E-12	481.659E-3	-15.1391E-3	-13.9287E-12	456.905E-3	-22.6840E-3
-782.891E-6	-14.0922E-12	475.643E-3	-13.6677E-3	-14.2522E-12	446.684E-3	11.0563E-3
-787.894E-6	-14.4116E-12	467.092E-3	-19.5017E-3	-14.6146E-12	438.568E-3	14.0621E-3
-792.896E-6	-14.6467E-12	461.333E-3	-15.4339E-3	-14.6956E-12	432.665E-3	-5.29662E-3
-797.899E-6	-14.2962E-12	460.384E-3	5.69469E-3	-14.5025E-12	427.721E-3	-17.3002E-3
-802.901E-6	-14.2306E-12	458.285E-3	17.5531E-3	-14.5826E-12	398.989E-3	-15.4085E-3
-807.904E-6	-14.6652E-12	440.407E-3	8.04139E-3	-14.9620E-12	360.588E-3	-10.5470E-3
-812.906E-6	-15.1854E-12	418.822E-3	-5.12728E-3	-15.0219E-12	362.559E-3	-13.4081E-3
-817.909E-6	-14.8290E-12	410.686E-3	-12.6577E-3	-14.5936E-12	390.361E-3	-32.6839E-3
-822.911E-6	-14.8362E-12	408.542E-3	-17.2928E-3	-14.7970E-12	392.338E-3	-33.3948E-3
-827.914E-6	-15.4875E-12	400.797E-3	-23.5116E-3	-15.4564E-12	368.433E-3	-9.61149E-3
-832.916E-6	-15.6955E-12	394.983E-3	-27.5503E-3	-15.6909E-12	348.602E-3	-12.6676E-3
-837.919E-6	-15.6156E-12	390.568E-3	-31.2412E-3	-15.1032E-12	341.158E-3	-21.7182E-3
-842.921E-6	-15.2903E-12	371.304E-3	-36.6573E-3	-14.7714E-12	341.155E-3	-12.2024E-3
-847.924E-6	-15.7867E-12	356.042E-3	-32.5548E-3	-15.4591E-12	342.695E-3	-17.1099E-3
-852.926E-6	-15.8748E-12	356.912E-3	-21.7291E-3	-16.2807E-12	347.483E-3	-22.8400E-3
-857.929E-6	-16.2664E-12	357.328E-3	-19.6550E-3	-15.9547E-12	364.147E-3	-11.4533E-3
-862.931E-6	-16.5951E-12	354.550E-3	-29.0096E-3	-15.2937E-12	366.517E-3	-10.2391E-3
-867.934E-6	-16.8056E-12	355.793E-3	-29.2461E-3	-16.1599E-12	332.493E-3	-15.9520E-3
-872.936E-6	-17.3481E-12	351.878E-3	-14.9734E-3	-17.0434E-12	310.796E-3	-5.16407E-3
-877.939E-6	-16.6995E-12	337.176E-3	-7.60034E-3	-17.2668E-12	318.260E-3	2.71346E-3
-882.941E-6	-16.9599E-12	328.143E-3	-5.65850E-3	-16.2902E-12	313.121E-3	-12.5723E-3
-887.944E-6	-17.2558E-12	316.935E-3	-8.49397E-3	-16.5286E-12	300.471E-3	-27.5969E-3
-892.946E-6	-17.3493E-12	302.278E-3	-18.2361E-3	-16.8567E-12	304.982E-3	-28.1129E-3
-897.949E-6	-17.0819E-12	301.961E-3	-21.7849E-3	-17.4967E-12	307.107E-3	-23.6405E-3
-902.951E-6	-16.4928E-12	306.534E-3	-19.6652E-3	-17.5086E-12	289.918E-3	-11.5926E-3
-907.954E-6	-16.7448E-12	306.951E-3	-20.6224E-3	-16.8520E-12	281.580E-3	851.606E-6
-912.956E-6	-17.5104E-12	299.283E-3	-26.7404E-3	-17.7874E-12	281.827E-3	-2.53453E-3
-917.959E-6	-17.9185E-12	282.395E-3	-27.0626E-3	-17.6603E-12	271.422E-3	-10.4360E-3
-922.961E-6	-17.3216E-12	270.048E-3	-28.4670E-3	-17.6967E-12	262.600E-3	-16.8786E-3
-927.964E-6	-17.0576E-12	271.702E-3	-33.0110E-3	-17.3452E-12	258.466E-3	-24.8212E-3
-932.966E-6	-17.2003E-12	270.395E-3	-22.7519E-3	-18.0655E-12	255.182E-3	-20.6467E-3
-937.969E-6	-18.1084E-12	254.162E-3	-8.27876E-3	-17.8630E-12	254.266E-3	-14.2035E-3
-942.971E-6	-18.1585E-12	248.401E-3	-9.80939E-3	-18.5555E-12	251.475E-3	-21.0031E-3
-947.974E-6	-17.5067E-12	261.273E-3	-17.6927E-3	-18.5363E-12	247.488E-3	-25.8560E-3
-952.976E-6	-17.5765E-12	266.355E-3	-16.4041E-3	-18.1627E-12	251.082E-3	-30.4680E-3
-957.979E-6	-18.6907E-12	251.150E-3	-16.5581E-3	-18.7385E-12	253.249E-3	-28.9579E-3
-962.981E-6	-19.0689E-12	235.364E-3	-11.6662E-3	-18.8739E-12	253.691E-3	-13.8107E-3
-967.984E-6	-18.8209E-12	231.884E-3	-6.52373E-3	-18.8944E-12	256.483E-3	-12.8402E-3
-972.986E-6	-18.6937E-12	239.408E-3	-17.2823E-3	-18.2817E-12	240.247E-3	-24.0288E-3
-977.989E-6	-18.4579E-12	253.263E-3	-13.3863E-3	-19.0647E-12	220.938E-3	-24.6119E-3
-982.991E-6	-19.1945E-12	253.053E-3	1.30957E-3	-19.3291E-12	228.779E-3	-8.17893E-3
-987.994E-6	-18.8931E-12	238.907E-3	-10.9074E-3	-19.3649E-12	246.816E-3	1.63885E-3
-992.997E-6	-18.8827E-12	230.084E-3	-24.2681E-3	-19.1511E-12	252.926E-3	-7.75602E-3
-997.999E-6	-19.0675E-12	225.452E-3	-17.8497E-3	-19.8712E-12	256.740E-3	-15.7937E-3
-1.00300E-3	-19.1022E-12	219.976E-3	-15.7523E-3	-19.9535E-12	258.792E-3	-14.6551E-3
-1.00800E-3	-19.1004E-12	225.632E-3	-16.8800E-3	-19.4903E-12	248.614E-3	-5.58852E-3
-1.01301E-3	-18.9582E-12	229.166E-3	-8.84484E-3	-19.8968E-12	236.644E-3	-6.62664E-3
-1.01801E-3	-19.5118E-12	216.869E-3	-10.1720E-3	-19.5496E-12	235.618E-3	-18.9237E-3
-1.02301E-3	-19.6472E-12	219.674E-3	-22.7083E-3	-19.4315E-12	234.690E-3	-10.1627E-3
-1.02801E-3	-19.8867E-12	236.389E-3	-18.4028E-3	-19.3480E-12	239.111E-3	3.44999E-3
-1.03302E-3	-19.6247E-12	244.183E-3	-13.4466E-3	-20.1413E-12	251.818E-3	-2.48270E-3
-1.03802E-3	-19.8605E-12	246.885E-3	-16.7390E-3	-20.0734E-12	250.634E-3	-1.38892E-3
-1.04302E-3	-20.2798E-12	244.768E-3	-6.27085E-3	-19.4064E-12	247.285E-3	6.14238E-3
-1.04802E-3	-20.5499E-12	245.794E-3	8.79126E-3	-19.0682E-12	256.768E-3	-3.44288E-3
-1.05303E-3	-20.2090E-12	254.991E-3	5.05303E-3	-20.1237E-12	266.213E-3	-16.0456E-3
-1.05803E-3	-20.1961E-12	258.792E-3	-13.8944E-3	-20.4917E-12	266.133E-3	-15.3563E-3
-1.06303E-3	-20.7290E-12	259.541E-3	-20.1021E-3	-19.5552E-12	257.404E-3	-16.5499E-3
-1.06803E-3	-20.9776E-12	257.622E-3	-18.3364E-3	-19.4739E-12	251.253E-3	-28.5440E-3
-1.07304E-3	-20.2039E-12	253.669E-3	-16.3498E-3	-20.3817E-12	258.457E-3	-31.7585E-3
-1.07804E-3	-20.2022E-12	255.857E-3	-14.3533E-3	-21.2968E-12	278.098E-3	-21.8335E-3
-1.08304E-3	-21.0174E-12	264.786E-3	-18.2705E-3	-20.5005E-12	293.247E-3	-15.6475E-3
-1.08804E-3	-20.9798E-12	279.811E-3	-17.5172E-3	-19.7350E-12	300.086E-3	-8.75998E-3
-1.09305E-3	-21.0114E-12	299.493E-3	-9.11996E-3	-21.0596E-12	313.138E-3	-2.71926E-3
-1.09805E-3	-20.7672E-12	311.978E-3	-783.046E-6	-21.9715E-12	321.704E-3	-1.36107E-3
-1.10305E-3	-21.8633E-12	304.584E-3	1.81572E-3	-21.3750E-12	320.534E-3	-1.22688E-3
-1.10805E-3	-22.4197E-12	296.890E-3	-1.98151E-3	-20.6158E-12	329.045E-3	-12.5747E-3
-1.11306E-3	-21.6670E-12	306.574E-3	-8.85802E-3	-21.7522E-12	331.885E-3	-19.9723E-3
-1.11806E-3	-21.0225E-12	313.131E-3	-17.3986E-3	-22.6209E-12	330.815E-3	-10.4752E-3
-1.12306E-3	-21.2333E-12	310.876E-3	-22.9906E-3	-22.6060E-12	348.418E-3	-14.4517E-3
-1.12806E-3	-21.9809E-12	312.897E-3	-24.9457E-3	-21.6580E-12	357.784E-3	-32.4600E-3
-1.13307E-3	-21.9061E-12	323.139E-3	-29.3503E-3	-22.0510E-12	363.660E-3	-24.1187E-3
-1.13807E-3	-21.3506E-12	342.085E-3	-27.1081E-3	-22.8833E-12	384.856E-3	-2.73659E-3
-1.14307E-3	-21.4199E-12	354.145E-3	-17.3854E-3	-22.9864E-12	395.221E-3	-3.47148E-3
-1.14807E-3	-22.6763E-12	351.288E-3	-9.60684E-3	-22.2789E-12	404.064E-3	-5.76290E-3
-1.15308E-3	-23.5450E-12	349.199E-3	-8.72591E-3	-21.5636E-12	427.333E-3	1.66386E-3
-1.15808E-3	-23.2962E-12	369.690E-3	-21.2591E-3	-22.3481E-12	444.148E-3	1.51154E-3
-1.16308E-3	-21.8576E-12	399.167E-3	-28.4140E-3	-23.3919E-12	451.820E-3	-4.58450E-3
-1.16808E-3	-21.7520E-12	411.844E-3	-19.1359E-3	-23.2144E-12	469.937E-3	-8.31687E-3
-1.17309E-3	-22.8446E-12	425.452E-3	-20.9415E-3	-22.4289E-12	496.291E-3	-13.2988E-3
-1.17809E-3	-24.2765E-12	448.244E-3	-23.8642E-3	-22.4237E-12	509.403E-3	-9.85599E-3
-1.18309E-3	-23.4326E-12	456.276E-3	-21.8540E-3	-23.3096E-12	518.871E-3	7.17792E-3
-1.18809E-3	-22.8461E-12	458.616E-3	-20.5610E-3	-23.7858E-12	537.864E-3	-2.23973E-3
-1.19310E-3	-23.7942E-12	474.983E-3	-9.80581E-3	-23.7915E-12	554.441E-3	-22.7133E-3
-1.19810E-3	-25.5243E-12	487.003E-3	-6.40381E-3	-23.5108E-12	565.607E-3	-8.26349E-3
-1.20310E-3	-25.1168E-12	501.176E-3	-8.36568E-3	-23.8459E-12	574.228E-3	13.8102E-3
-1.20810E-3	-24.0394E-12	533.555E-3	-11.6549E-3	-24.0534E-12	576.639E-3	10.0472E-3
-1.21311E-3	-23.8082E-12	552.355E-3	-14.6026E-3	-24.2984E-12	576.928E-3	-2.38681E-3
-1.21811E-3	-24.9885E-12	539.427E-3	-19.3908E-3	-24.6475E-12	585.955E-3	-3.54203E-3
-1.22311E-3	-26.7348E-12	530.315E-3	-25.4667E-3	-23.8816E-12	604.781E-3	-1.10308E-3
-1.22811E-3	-26.5183E-12	536.520E-3	-11.6727E-3	-23.7771E-12	631.173E-3	-1.96999E-3
-1.23312E-3	-24.9873E-12	557.784E-3	-921.465E-6	-24.5120E-12	648.893E-3	-5.75058E-3
-1.23812E-3	-24.9558E-12	586.037E-3	-11.7056E-3	-25.7385E-12	654.012E-3	-9.32732E-3
-1.24312E-3	-27.0699E-12	593.675E-3	-14.5393E-3	-25.6600E-12	677.030E-3	-12.8400E-3
-1.24812E-3	-28.9577E-12	603.852E-3	-11.2347E-3	-24.9906E-12	699.861E-3	-22.5301E-3
-1.25313E-3	-26.7274E-12	623.665E-3	-13.7629E-3	-24.6535E-12	703.118E-3	-27.5838E-3
-1.25813E-3	-26.0285E-12	630.208E-3	-12.1795E-3	-25.4776E-12	714.941E-3	-21.0271E-3
-1.26313E-3	-27.1863E-12	644.266E-3	-11.6196E-3	-26.0957E-12	737.146E-3	-14.0514E-3
-1.26813E-3	-30.0280E-12	689.635E-3	-14.0255E-3	-26.6913E-12	758.522E-3	-7.48124E-3
-1.27314E-3	-29.0979E-12	734.050E-3	-10.4991E-3	-26.5286E-12	775.515E-3	-4.89487E-3
-1.27814E-3	-27.0799E-12	755.445E-3	-12.0003E-3	-27.2852E-12	792.666E-3	-9.85384E-3
-1.28314E-3	-28.0025E-12	758.306E-3	-7.48465E-3	-27.7584E-12	818.068E-3	-3.03090E-3
-1.28814E-3	-30.5628E-12	764.913E-3	12.9604E-3	-27.9480E-12	829.422E-3	6.08354E-3
-1.29315E-3	-30.5414E-12	798.137E-3	14.6307E-3	-27.4162E-12	827.996E-3	-6.15798E-3
-1.29815E-3	-28.6427E-12	820.215E-3	2.74681E-3	-27.9207E-12	839.694E-3	-14.7455E-3
-1.30315E-3	-28.3720E-12	820.452E-3	-5.43322E-3	-28.9539E-12	856.390E-3	-5.74843E-3
-1.30815E-3	-29.3364E-12	832.732E-3	-15.2559E-3	-28.7504E-12	875.891E-3	2.61108E-3
-1.31316E-3	-30.5810E-12	837.721E-3	-20.1130E-3	-28.7609E-12	894.075E-3	7.43501E-3
-1.31816E-3	-29.7110E-12	830.357E-3	-23.9699E-3	-29.1888E-12	900.807E-3	6.61065E-3
-1.32316E-3	-28.9498E-12	841.340E-3	-16.5391E-3	-30.3286E-12	911.751E-3	-13.8767E-3
-1.32816E-3	-29.4236E-12	862.866E-3	2.70793E-3	-30.3966E-12	930.793E-3	-40.3969E-3
-1.33317E-3	-31.3287E-12	882.642E-3	6.97880E-3	-30.1020E-12	946.052E-3	-47.1819E-3
-1.33817E-3	-31.0915E-12	895.310E-3	-3.48855E-3	-29.7187E-12	957.402E-3	-38.3918E-3
-1.34317E-3	-30.0946E-12	899.696E-3	-12.5724E-3	-30.7428E-12	967.557E-3	-23.7148E-3
-1.34817E-3	-29.7663E-12	904.475E-3	-18.0967E-3	-31.3724E-12	981.441E-3	-9.23058E-3
-1.35318E-3	-31.3946E-12	909.038E-3	-22.3538E-3	-31.2876E-12	1.00157E+0	-3.89631E-3
-1.35818E-3	-33.4343E-12	916.865E-3	-17.8329E-3	-31.6315E-12	1.00977E+0	-354.266E-6
-1.36318E-3	-32.5676E-12	932.086E-3	-15.3651E-3	-31.4165E-12	1.00589E+0	4.49210E-3
-1.36818E-3	-32.8203E-12	950.407E-3	-19.3420E-3	-32.2091E-12	1.01152E+0	-3.93755E-3
-1.37319E-3	-33.4108E-12	971.885E-3	-9.22881E-3	-32.0970E-12	1.02000E+0	-18.3756E-3
-1.37819E-3	-34.6437E-12	989.080E-3	8.07374E-3	-32.1757E-12	1.02669E+0	-17.3518E-3
-1.38319E-3	-34.7990E-12	1.00329E+0	6.15940E-3	-33.0288E-12	1.03525E+0	-11.6354E-3
-1.38819E-3	-34.3440E-12	1.01910E+0	-2.42574E-3	-33.3816E-12	1.04064E+0	-12.5438E-3
-1.39320E-3	-34.3584E-12	1.01988E+0	-44.3200E-6	-33.1363E-12	1.04827E+0	-21.3687E-3
-1.39820E-3	-35.3028E-12	1.00273E+0	3.27288E-3	-33.3503E-12	1.05683E+0	-41.1481E-3
-1.40320E-3	-37.5502E-12	1.00752E+0	-7.70005E-3	-34.4154E-12	1.05295E+0	-54.0451E-3
-1.40820E-3	-36.8871E-12	1.03820E+0	-30.5058E-3	-35.1546E-12	1.04842E+0	-47.5002E-3
-1.41321E-3	-36.1171E-12	1.05910E+0	-43.4811E-3	-35.6760E-12	1.06463E+0	-36.3179E-3
-1.41821E-3	-35.8730E-12	1.06638E+0	-38.9787E-3	-35.1948E-12	1.08749E+0	-21.2576E-3
-1.42321E-3	-38.7448E-12	1.07261E+0	-20.5860E-3	-36.0697E-12	1.10367E+0	3.81042E-3
-1.42821E-3	-39.2356E-12	1.07666E+0	-7.09742E-3	-36.5080E-12	1.11286E+0	16.1394E-3
-1.43322E-3	-37.3226E-12	1.07589E+0	-4.49551E-3	-36.5665E-12	1.11224E+0	-4.60018E-3
-1.43822E-3	-36.8950E-12	1.08099E+0	764.335E-6	-37.0854E-12	1.10183E+0	-23.2765E-3
-1.44322E-3	-38.2522E-12	1.08111E+0	-432.653E-6	-37.1555E-12	1.10532E+0	-14.9188E-3
-1.44822E-3	-39.9798E-12	1.07519E+0	-13.1780E-3	-37.6546E-12	1.12237E+0	-17.0204E-3
-1.45323E-3	-38.4077E-12	1.08331E+0	-19.5163E-3	-37.8936E-12	1.11936E+0	-25.8030E-3
-1.45823E-3	-37.8798E-12	1.09220E+0	-13.8816E-3	-38.8635E-12	1.11079E+0	-16.8019E-3
-1.46323E-3	-38.9333E-12	1.09023E+0	-6.17274E-3	-38.8456E-12	1.10965E+0	-14.9631E-3
-1.46823E-3	-40.8318E-12	1.09088E+0	4.02468E-3	-38.9739E-12	1.11256E+0	-21.5000E-3
-1.47324E-3	-40.3706E-12	1.10438E+0	7.47237E-3	-39.6767E-12	1.12708E+0	-13.8287E-3
-1.47824E-3	-40.4673E-12	1.12492E+0	-3.69207E-3	-40.1078E-12	1.13812E+0	1.50771E-3
-1.48324E-3	-41.7599E-12	1.14303E+0	-15.4066E-3	-39.7556E-12	1.13146E+0	7.18595E-3
-1.48824E-3	-43.2843E-12	1.15562E+0	-28.6363E-3	-40.1779E-12	1.11477E+0	-3.51709E-3
-1.49325E-3	-42.9980E-12	1.16056E+0	-42.9158E-3	-41.1869E-12	1.10436E+0	-21.4296E-3
-1.49825E-3	-42.3458E-12	1.15485E+0	-48.8092E-3	-41.5910E-12	1.10931E+0	-28.7021E-3
-1.50325E-3	-43.1545E-12	1.13929E+0	-46.3772E-3	-41.5422E-12	1.10950E+0	-26.0572E-3
-1.50825E-3	-44.0501E-12	1.12685E+0	-31.6069E-3	-41.3475E-12	1.09966E+0	-22.1507E-3
-1.51326E-3	-44.8579E-12	1.13839E+0	-28.1020E-3	-42.1332E-12	1.09242E+0	-16.2827E-3
-1.51826E-3	-44.1571E-12	1.15762E+0	-36.1445E-3	-43.1784E-12	1.08815E+0	-4.73144E-3
-1.52326E-3	-44.3879E-12	1.15858E+0	-27.4248E-3	-43.2824E-12	1.09049E+0	-343.601E-6
-1.52826E-3	-44.7191E-12	1.14505E+0	-11.8600E-3	-43.3113E-12	1.10118E+0	-12.5661E-3
-1.53327E-3	-44.4964E-12	1.13852E+0	-4.76133E-3	-43.6272E-12	1.09532E+0	-15.8322E-3
-1.53827E-3	-44.0888E-12	1.14328E+0	-11.9572E-3	-44.5537E-12	1.07172E+0	-7.78699E-3
-1.54327E-3	-44.4481E-12	1.13138E+0	-29.8444E-3	-44.7032E-12	1.06519E+0	-7.35578E-3
-1.54827E-3	-46.2370E-12	1.09619E+0	-31.2439E-3	-44.6754E-12	1.07222E+0	-7.52304E-3
-1.55328E-3	-46.3725E-12	1.07275E+0	-12.8679E-3	-44.4382E-12	1.08021E+0	-5.89713E-3
-1.55828E-3	-45.9154E-12	1.07124E+0	-4.21146E-3	-45.1788E-12	1.08552E+0	-19.9822E-3
-1.56328E-3	-45.5084E-12	1.07572E+0	-9.42720E-3	-45.7919E-12	1.07257E+0	-42.8491E-3
-1.56828E-3	-46.4121E-12	1.08337E+0	-18.0293E-3	-46.3324E-12	1.05861E+0	-38.8184E-3
-1.57329E-3	-48.7177E-12	1.09279E+0	-25.6992E-3	-46.4692E-12	1.06358E+0	-18.2613E-3
-1.57829E-3	-49.0639E-12	1.10485E+0	-30.1027E-3	-47.0293E-12	1.06151E+0	-21.1473E-3
-1.58329E-3	-48.1118E-12	1.10850E+0	-29.4454E-3	-47.8707E-12	1.04576E+0	-25.5905E-3
-1.58829E-3	-47.9859E-12	1.09782E+0	-26.0356E-3	-48.2198E-12	1.04259E+0	-11.5950E-3
-1.59330E-3	-48.9636E-12	1.07857E+0	-22.3948E-3	-48.1299E-12	1.04689E+0	-17.5655E-3
-1.59830E-3	-50.6219E-12	1.06979E+0	-21.2226E-3	-48.7968E-12	1.03731E+0	-34.8017E-3
-1.60330E-3	-50.2402E-12	1.08034E+0	-21.2043E-3	-49.4549E-12	1.03543E+0	-27.7671E-3
-1.60830E-3	-49.8310E-12	1.08511E+0	-24.0744E-3	-49.4813E-12	1.04806E+0	-13.4985E-3
-1.61331E-3	-50.5073E-12	1.07106E+0	-26.4821E-3	-49.6448E-12	1.04170E+0	-9.66867E-3
-1.61831E-3	-51.8297E-12	1.05866E+0	-22.2389E-3	-50.8822E-12	1.02216E+0	-15.3990E-3
-1.62331E-3	-51.9937E-12	1.05857E+0	-27.7002E-3	-50.9050E-12	1.00518E+0	-34.7115E-3
-1.62831E-3	-51.7823E-12	1.05769E+0	-29.5314E-3	-50.8967E-12	1.00698E+0	-43.2182E-3
-1.63332E-3	-51.4581E-12	1.05121E+0	-9.07102E-3	-51.3053E-12	1.02541E+0	-24.6881E-3
-1.63832E-3	-51.8394E-12	1.04518E+0	4.80899E-3	-52.8728E-12	1.03265E+0	-6.73093E-3
-1.64332E-3	-52.5781E-12	1.03849E+0	3.23181E-3	-53.1686E-12	1.03110E+0	5.72297E-3
-1.64832E-3	-52.5030E-12	1.02257E+0	-4.60025E-3	-52.2190E-12	1.03183E+0	15.1048E-3
-1.65333E-3	-52.5990E-12	1.01520E+0	-18.5162E-3	-52.2228E-12	1.02452E+0	5.22037E-3
-1.65833E-3	-52.4305E-12	1.01623E+0	-18.6277E-3	-54.2007E-12	1.00713E+0	-18.8385E-3
-1.66333E-3	-52.6727E-12	1.00888E+0	-13.5556E-3	-55.0300E-12	1.00377E+0	-25.4009E-3
-1.66833E-3	-53.7480E-12	1.00176E+0	-22.3480E-3	-53.1699E-12	1.01134E+0	-15.6594E-3
-1.67334E-3	-54.9969E-12	998.629E-3	-23.9793E-3	-52.6034E-12	995.050E-3	-21.4944E-3
-1.67834E-3	-54.6082E-12	1.00212E+0	-18.6244E-3	-53.7858E-12	962.709E-3	-32.1104E-3
-1.68334E-3	-54.2831E-12	999.986E-3	-16.3650E-3	-56.5822E-12	966.311E-3	-26.0529E-3
-1.68834E-3	-54.8771E-12	992.950E-3	-10.5759E-3	-55.8024E-12	994.805E-3	-21.5548E-3
-1.69335E-3	-55.8508E-12	994.253E-3	-10.8119E-3	-54.2940E-12	989.845E-3	-16.8579E-3
-1.69835E-3	-56.4361E-12	990.121E-3	-18.1474E-3	-54.6426E-12	961.511E-3	-3.95984E-3
-1.70335E-3	-56.7335E-12	983.626E-3	-18.1014E-3	-57.2922E-12	948.024E-3	615.278E-6
-1.70835E-3	-56.6486E-12	979.583E-3	-20.4038E-3	-57.9736E-12	958.001E-3	7.62782E-3
-1.71336E-3	-56.8564E-12	965.515E-3	-34.0381E-3	-56.0277E-12	970.697E-3	8.00197E-3
-1.71836E-3	-57.6058E-12	957.740E-3	-31.1697E-3	-55.8583E-12	958.445E-3	-16.1771E-3
-1.72336E-3	-57.7784E-12	969.164E-3	-17.5808E-3	-57.4003E-12	934.345E-3	-31.9066E-3
-1.72836E-3	-57.9887E-12	980.687E-3	-24.8903E-3	-59.7580E-12	924.926E-3	-27.5979E-3
-1.73337E-3	-57.8884E-12	971.688E-3	-30.4292E-3	-59.0841E-12	916.228E-3	-22.9616E-3
-1.73837E-3	-57.3623E-12	952.175E-3	-18.9572E-3	-57.1836E-12	905.339E-3	-19.0229E-3
-1.74337E-3	-57.9140E-12	935.881E-3	-15.4446E-3	-57.9591E-12	906.562E-3	-17.6876E-3
-1.74837E-3	-57.4844E-12	930.568E-3	-12.8530E-3	-58.8732E-12	910.964E-3	-25.8310E-3
-1.75338E-3	-57.5625E-12	941.419E-3	4.02454E-3	-59.5173E-12	910.421E-3	-19.5545E-3
-1.75838E-3	-57.7970E-12	938.990E-3	12.1763E-3	-58.3169E-12	906.987E-3	-5.96042E-3
-1.76338E-3	-58.0455E-12	917.391E-3	-2.34217E-3	-58.1995E-12	900.713E-3	-10.2668E-3
-1.76838E-3	-58.4726E-12	899.241E-3	-17.5197E-3	-58.8695E-12	890.249E-3	-10.8229E-3
-1.77339E-3	-58.4607E-12	885.143E-3	-5.76646E-3	-60.8290E-12	879.772E-3	-2.22275E-3
-1.77839E-3	-59.3728E-12	879.171E-3	16.2393E-3	-60.7426E-12	876.193E-3	-1.43390E-3
-1.78339E-3	-59.7367E-12	880.162E-3	20.0694E-3	-59.3840E-12	890.709E-3	-8.44806E-3
-1.78839E-3	-61.0018E-12	871.752E-3	13.8751E-3	-59.1920E-12	909.578E-3	-10.2402E-3
-1.79340E-3	-60.6394E-12	868.972E-3	9.76472E-3	-60.3427E-12	903.768E-3	-11.2569E-3
-1.79840E-3	-61.3744E-12	887.709E-3	7.03877E-3	-62.2714E-12	871.795E-3	-21.0747E-3
-1.80340E-3	-61.7282E-12	900.587E-3	954.058E-6	-61.4307E-12	847.821E-3	-15.1424E-3
-1.80840E-3	-63.1744E-12	891.062E-3	-12.2816E-3	-60.2795E-12	851.303E-3	-6.99849E-3
-1.81341E-3	-63.5445E-12	875.474E-3	-19.8996E-3	-60.6438E-12	862.804E-3	-12.9246E-3
-1.81841E-3	-63.1032E-12	875.506E-3	-19.5038E-3	-62.4614E-12	867.715E-3	-8.78215E-3
-1.82341E-3	-64.0030E-12	875.223E-3	-23.0352E-3	-62.6162E-12	870.536E-3	-5.44135E-3
-1.82841E-3	-63.8200E-12	862.184E-3	-25.3397E-3	-61.8498E-12	869.747E-3	-11.9648E-3
-1.83342E-3	-63.9554E-12	860.808E-3	-28.2184E-3	-61.5083E-12	874.295E-3	-15.3052E-3
-1.83842E-3	-63.5789E-12	865.027E-3	-30.6257E-3	-62.9609E-12	877.407E-3	-13.5151E-3
-1.84342E-3	-63.7343E-12	862.906E-3	-18.6520E-3	-63.8666E-12	851.849E-3	-10.6496E-3
-1.84842E-3	-63.6588E-12	853.490E-3	-7.82036E-3	-63.1906E-12	825.611E-3	-9.17910E-3
-1.85343E-3	-64.6826E-12	834.167E-3	-23.7961E-3	-62.7809E-12	834.827E-3	-18.4604E-3
-1.85843E-3	-65.1060E-12	831.402E-3	-27.6369E-3	-62.7189E-12	851.687E-3	-21.0524E-3
-1.86343E-3	-65.4778E-12	844.401E-3	7.23371E-3	-63.2538E-12	845.701E-3	2.53277E-3
-1.86843E-3	-64.9504E-12	856.319E-3	24.8671E-3	-64.0927E-12	830.692E-3	12.9593E-3
-1.87344E-3	-65.1643E-12	863.427E-3	1.99272E-3	-65.0802E-12	813.386E-3	-8.29246E-3
-1.87844E-3	-66.6550E-12	857.190E-3	-16.3468E-3	-65.3005E-12	809.889E-3	-26.5885E-3
-1.88344E-3	-67.4638E-12	848.435E-3	-22.3766E-3	-64.8371E-12	837.032E-3	-27.0853E-3
-1.88844E-3	-66.8951E-12	844.582E-3	-30.3920E-3	-65.6765E-12	847.830E-3	-17.6829E-3
-1.89345E-3	-67.2949E-12	841.395E-3	-28.6140E-3	-66.9961E-12	820.780E-3	-4.18647E-3
-1.89845E-3	-68.9576E-12	832.251E-3	-9.93284E-3	-67.3460E-12	808.109E-3	5.76878E-3
-1.90345E-3	-70.1723E-12	828.005E-3	-483.303E-6	-66.5709E-12	815.945E-3	7.14750E-3
-1.90845E-3	-70.1381E-12	835.909E-3	-3.63587E-3	-66.6028E-12	815.529E-3	-3.18219E-3
-1.91346E-3	-69.9461E-12	842.514E-3	-1.76842E-3	-67.2715E-12	808.599E-3	-18.5238E-3
-1.91846E-3	-70.6653E-12	853.972E-3	-10.1757E-3	-67.9655E-12	797.839E-3	-26.6206E-3
-1.92346E-3	-72.3201E-12	860.964E-3	-24.7877E-3	-68.4407E-12	799.537E-3	-25.1295E-3
-1.92846E-3	-72.1107E-12	836.401E-3	-30.5350E-3	-67.5135E-12	817.896E-3	-15.7464E-3
-1.93347E-3	-72.0689E-12	817.359E-3	-25.0080E-3	-67.7570E-12	820.610E-3	-12.1063E-3
-1.93847E-3	-71.2530E-12	828.807E-3	-19.4873E-3	-69.3414E-12	803.082E-3	-13.4715E-3
-1.94347E-3	-72.6585E-12	838.935E-3	-25.1612E-3	-69.7425E-12	799.998E-3	934.292E-6
-1.94847E-3	-72.5400E-12	843.595E-3	-39.0661E-3	-69.4440E-12	808.186E-3	22.4720E-3
-1.95348E-3	-71.4174E-12	846.040E-3	-41.3249E-3	-69.0217E-12	798.195E-3	8.35702E-3
-1.95848E-3	-70.0844E-12	840.310E-3	-36.3934E-3	-69.0945E-12	780.810E-3	-29.6703E-3
-1.96348E-3	-69.4858E-12	840.115E-3	-34.8799E-3	-70.5120E-12	769.249E-3	-52.0864E-3
-1.96848E-3	-70.5051E-12	840.493E-3	-25.0027E-3	-70.6932E-12	759.495E-3	-43.7675E-3
-1.97349E-3	-71.4983E-12	815.038E-3	-15.8822E-3	-70.0943E-12	760.476E-3	-9.66963E-3
-1.97849E-3	-70.8627E-12	783.427E-3	-21.8372E-3	-70.2582E-12	780.210E-3	-9.06294E-3
-1.98349E-3	-69.6910E-12	777.368E-3	-25.8288E-3	-71.1708E-12	775.131E-3	-34.1083E-3
-1.98849E-3	-70.6927E-12	781.007E-3	-13.6167E-3	-72.3581E-12	756.049E-3	-24.1115E-3
-1.99350E-3	-72.2159E-12	782.974E-3	-10.3866E-3	-72.2001E-12	768.737E-3	-11.4709E-3
-1.99850E-3	-72.0963E-12	785.612E-3	-22.5926E-3	-71.5663E-12	780.530E-3	-19.7864E-3
-2.00350E-3	-72.0967E-12	779.967E-3	-22.2056E-3	-71.6054E-12	778.645E-3	-20.3708E-3
-2.00850E-3	-73.6964E-12	772.057E-3	-15.6333E-3	-73.0036E-12	783.795E-3	-29.2952E-3
-2.01351E-3	-74.4697E-12	775.049E-3	-28.6571E-3	-73.4035E-12	785.427E-3	-42.9764E-3
-2.01851E-3	-74.4829E-12	792.795E-3	-44.7533E-3	-72.7080E-12	767.655E-3	-31.6245E-3
-2.02351E-3	-74.1648E-12	803.313E-3	-45.0599E-3	-72.1746E-12	753.559E-3	-13.9280E-3
-2.02851E-3	-74.0198E-12	804.002E-3	-39.5769E-3	-73.9132E-12	753.150E-3	-22.1509E-3
-2.03352E-3	-74.0888E-12	801.181E-3	-23.8111E-3	-75.1395E-12	749.382E-3	-39.4163E-3
-2.03852E-3	-74.1945E-12	782.010E-3	-3.56007E-3	-74.8613E-12	749.027E-3	-27.6148E-3
-2.04352E-3	-74.1654E-12	780.706E-3	-4.12024E-3	-74.0259E-12	760.803E-3	-17.9970E-3
-2.04852E-3	-73.1759E-12	792.943E-3	-10.3062E-3	-75.3818E-12	757.944E-3	-31.5396E-3
-2.05353E-3	-73.0419E-12	781.666E-3	-13.0989E-3	-76.6700E-12	749.683E-3	-27.6739E-3
-2.05853E-3	-74.2982E-12	766.401E-3	-20.4016E-3	-75.4842E-12	766.671E-3	-24.6392E-3
-2.06353E-3	-74.7361E-12	761.415E-3	-22.2247E-3	-74.5778E-12	774.520E-3	-28.5721E-3
-2.06853E-3	-74.0655E-12	759.884E-3	-23.2963E-3	-75.9965E-12	760.547E-3	-8.52516E-3
-2.07354E-3	-73.1722E-12	760.247E-3	-23.5674E-3	-77.7089E-12	751.724E-3	9.35140E-3
-2.07854E-3	-74.2387E-12	758.707E-3	-22.2169E-3	-76.7626E-12	755.642E-3	13.0910E-3
-2.08354E-3	-75.9549E-12	750.474E-3	-23.7592E-3	-75.5278E-12	754.669E-3	7.81855E-3
-2.08854E-3	-75.4709E-12	752.137E-3	-14.7205E-3	-75.9670E-12	744.550E-3	-15.5511E-3
-2.09355E-3	-74.7042E-12	754.669E-3	-9.11043E-3	-77.6109E-12	728.664E-3	-28.7029E-3
-2.09855E-3	-76.1620E-12	742.405E-3	-31.3286E-3	-78.3335E-12	718.463E-3	-11.7331E-3
-2.10355E-3	-78.8196E-12	745.998E-3	-60.7502E-3	-77.5581E-12	730.773E-3	-1.37337E-3
-2.10855E-3	-78.2860E-12	762.762E-3	-58.7744E-3	-77.7054E-12	739.114E-3	-8.94760E-3
-2.11356E-3	-78.2629E-12	769.081E-3	-32.6639E-3	-78.8574E-12	739.559E-3	-19.2332E-3
-2.11856E-3	-78.4314E-12	781.733E-3	-11.5025E-3	-80.3372E-12	753.096E-3	-19.9705E-3
-2.12356E-3	-78.9004E-12	794.539E-3	9.50297E-3	-80.5160E-12	769.364E-3	-10.9645E-3
-2.12856E-3	-79.7592E-12	770.969E-3	10.6075E-3	-80.3806E-12	781.021E-3	-11.0945E-3
-2.13357E-3	-78.9028E-12	731.849E-3	-25.8608E-3	-79.7964E-12	768.299E-3	-19.4832E-3
-2.13857E-3	-79.0115E-12	727.635E-3	-53.3901E-3	-80.7043E-12	740.735E-3	-25.0596E-3
-2.14357E-3	-78.7611E-12	737.728E-3	-44.9488E-3	-81.7325E-12	734.893E-3	-18.3882E-3
-2.14857E-3	-79.7468E-12	743.801E-3	-33.6450E-3	-82.0415E-12	731.369E-3	-11.6099E-3
-2.15358E-3	-79.3241E-12	763.098E-3	-32.0674E-3	-80.4930E-12	723.544E-3	-6.74589E-3
-2.15858E-3	-78.9508E-12	765.482E-3	-22.0666E-3	-79.9937E-12	736.324E-3	-5.16251E-3
-2.16358E-3	-79.2814E-12	749.123E-3	-8.91740E-3	-82.3219E-12	758.441E-3	-18.4662E-3
-2.16858E-3	-79.5667E-12	742.505E-3	-1.49471E-3	-84.0017E-12	757.399E-3	-19.5573E-3
-2.17359E-3	-81.1808E-12	742.771E-3	-622.838E-6	-81.8801E-12	743.028E-3	-5.50110E-3
-2.17859E-3	-80.0678E-12	745.468E-3	-20.1080E-3	-80.7395E-12	733.029E-3	-10.5168E-3
-2.18359E-3	-80.9729E-12	742.004E-3	-28.9709E-3	-81.5957E-12	717.785E-3	-26.0139E-3
-2.18859E-3	-80.6834E-12	724.030E-3	-9.87487E-3	-84.3588E-12	713.844E-3	-24.1176E-3
-2.19360E-3	-82.1195E-12	715.459E-3	-12.4153E-3	-83.8290E-12	729.142E-3	-12.1841E-3
-2.19860E-3	-81.7240E-12	733.423E-3	-37.4385E-3	-82.0013E-12	734.471E-3	-7.09972E-3
-2.20360E-3	-83.0235E-12	743.384E-3	-40.7329E-3	-81.2398E-12	725.258E-3	-6.49445E-3
-2.20860E-3	-83.8108E-12	733.535E-3	-39.9730E-3	-83.8377E-12	724.259E-3	-3.01929E-3
-2.21361E-3	-84.5191E-12	749.270E-3	-53.8447E-3	-84.9416E-12	729.772E-3	-7.53536E-3
-2.21861E-3	-84.7698E-12	774.986E-3	-41.8112E-3	-83.1220E-12	722.674E-3	-16.6228E-3
-2.22361E-3	-84.2409E-12	762.488E-3	-12.1311E-3	-81.7563E-12	717.044E-3	-16.1106E-3
-2.22861E-3	-84.6001E-12	755.654E-3	-4.23372E-3	-83.4877E-12	724.837E-3	-3.44022E-3
-2.23362E-3	-86.1726E-12	761.501E-3	-3.54994E-3	-85.8228E-12	719.166E-3	12.8756E-3
-2.23862E-3	-87.2285E-12	741.552E-3	-8.28871E-3	-84.9743E-12	714.912E-3	1.18965E-3
-2.24362E-3	-86.1457E-12	737.934E-3	-26.4007E-3	-83.2998E-12	715.170E-3	-23.8195E-3
-2.24862E-3	-85.9922E-12	748.937E-3	-17.4068E-3	-83.6260E-12	708.926E-3	-11.8963E-3
-2.25363E-3	-87.8032E-12	742.069E-3	-72.8235E-6	-86.0238E-12	720.387E-3	8.60040E-3
-2.25863E-3	-88.4313E-12	742.469E-3	-24.3169E-3	-86.0430E-12	727.505E-3	2.80297E-3
-2.26363E-3	-87.1059E-12	747.258E-3	-40.3544E-3	-84.5401E-12	723.672E-3	5.17146E-3
-2.26863E-3	-85.0502E-12	727.447E-3	-18.5769E-3	-84.2862E-12	728.336E-3	10.9221E-3
-2.27364E-3	-86.4278E-12	713.294E-3	-15.6294E-3	-86.0357E-12	725.822E-3	-14.9870E-3
-2.27864E-3	-87.6133E-12	725.858E-3	-27.4817E-3	-87.0870E-12	704.291E-3	-31.4842E-3
-2.28364E-3	-87.4791E-12	720.559E-3	-16.9882E-3	-85.5441E-12	695.958E-3	-24.2817E-3
-2.28864E-3	-85.7932E-12	719.168E-3	-4.51272E-3	-85.2677E-12	717.920E-3	-31.1227E-3
-2.29365E-3	-86.1890E-12	732.199E-3	4.85958E-3	-86.3145E-12	734.854E-3	-40.7253E-3
-2.29865E-3	-86.9072E-12	708.805E-3	6.80508E-3	-87.1230E-12	717.223E-3	-24.7403E-3
-2.30365E-3	-87.1238E-12	687.404E-3	-19.3439E-3	-86.7922E-12	695.344E-3	-1.32708E-3
-2.30865E-3	-86.4800E-12	689.105E-3	-41.9598E-3	-87.0548E-12	698.036E-3	-1.40170E-3
-2.31366E-3	-86.7568E-12	671.336E-3	-35.2995E-3	-87.3147E-12	711.349E-3	-7.22252E-3
-2.31866E-3	-87.8510E-12	672.287E-3	-33.7528E-3	-88.4243E-12	725.484E-3	-12.9896E-3
-2.32366E-3	-88.6831E-12	711.205E-3	-30.1043E-3	-87.8754E-12	717.606E-3	-25.8884E-3
-2.32866E-3	-88.4272E-12	717.659E-3	-12.7103E-3	-88.0752E-12	691.049E-3	-25.1242E-3
-2.33367E-3	-89.2875E-12	695.131E-3	-21.3742E-3	-89.7039E-12	686.468E-3	-15.4271E-3
-2.33867E-3	-90.5569E-12	698.630E-3	-24.5361E-3	-89.9474E-12	709.512E-3	-12.9568E-3
-2.34367E-3	-91.1098E-12	717.504E-3	3.16738E-3	-89.5122E-12	707.693E-3	-20.2655E-3
-2.34867E-3	-90.1895E-12	727.837E-3	1.25554E-3	-89.5178E-12	680.966E-3	-26.6158E-3
-2.35368E-3	-90.6070E-12	730.352E-3	-23.0214E-3	-91.5300E-12	676.424E-3	-26.0512E-3
-2.35868E-3	-92.0449E-12	723.995E-3	-8.51164E-3	-91.6764E-12	691.170E-3	-27.9696E-3
-2.36368E-3	-91.8118E-12	715.578E-3	8.85558E-3	-90.8786E-12	704.934E-3	-27.6096E-3
-2.36868E-3	-90.3634E-12	720.405E-3	-8.63047E-3	-90.8044E-12	709.092E-3	-12.3704E-3
-2.37369E-3	-90.7062E-12	726.007E-3	-15.6101E-3	-91.5704E-12	704.432E-3	3.07277E-3
-2.37869E-3	-91.5182E-12	708.524E-3	-8.68268E-3	-90.7516E-12	687.603E-3	-139.501E-6
-2.38369E-3	-90.9436E-12	694.888E-3	-9.06274E-3	-90.8750E-12	678.233E-3	-20.2198E-3
-2.38869E-3	-90.1729E-12	704.362E-3	-1.11889E-3	-90.1674E-12	686.041E-3	-31.1499E-3
-2.39370E-3	-89.1817E-12	710.178E-3	7.72053E-3	-90.1289E-12	696.568E-3	-25.4117E-3
-2.39870E-3	-89.4203E-12	717.588E-3	-2.36137E-3	-90.7452E-12	693.884E-3	-24.0142E-3
-2.40370E-3	-89.9583E-12	725.515E-3	-7.31475E-3	-91.5246E-12	673.964E-3	-22.9317E-3
-2.40870E-3	-90.0261E-12	690.473E-3	-9.17846E-3	-90.7433E-12	673.266E-3	-9.05749E-3
-2.41371E-3	-90.9317E-12	647.194E-3	-15.9688E-3	-91.5508E-12	688.310E-3	-10.2180E-3
-2.41871E-3	-91.7175E-12	653.808E-3	-3.11798E-3	-91.8174E-12	682.828E-3	-21.9990E-3
-2.42371E-3	-92.8584E-12	674.998E-3	13.5669E-3	-91.9155E-12	684.279E-3	-3.58766E-3
-2.42871E-3	-93.1929E-12	685.982E-3	15.1666E-3	-91.9021E-12	703.825E-3	2.70837E-3
-2.43372E-3	-93.6825E-12	685.339E-3	21.8510E-3	-92.2605E-12	704.622E-3	-25.6203E-3
-2.43872E-3	-94.2640E-12	681.453E-3	14.9956E-3	-93.0565E-12	686.608E-3	-32.3906E-3
-2.44372E-3	-95.8366E-12	690.206E-3	-26.4079E-3	-92.6001E-12	681.251E-3	-22.0153E-3
-2.44872E-3	-95.9562E-12	691.980E-3	-45.2061E-3	-93.5011E-12	691.537E-3	-24.0188E-3
-2.45373E-3	-95.1514E-12	690.493E-3	-29.3692E-3	-93.5929E-12	699.406E-3	-23.3892E-3
-2.45873E-3	-95.3758E-12	703.489E-3	-29.5892E-3	-93.3128E-12	705.541E-3	-20.0507E-3
-2.46373E-3	-96.6173E-12	713.497E-3	-28.2395E-3	-93.4967E-12	704.573E-3	-18.8693E-3
-2.46873E-3	-96.1955E-12	716.671E-3	-5.88849E-3	-93.7009E-12	702.265E-3	-9.05253E-3
-2.47374E-3	-94.4583E-12	726.430E-3	2.47276E-3	-94.2135E-12	716.661E-3	-6.70692E-3
-2.47874E-3	-93.1331E-12	733.401E-3	6.32240E-3	-94.6809E-12	712.486E-3	-26.8904E-3
-2.48374E-3	-94.5341E-12	713.808E-3	12.6185E-3	-95.3364E-12	689.773E-3	-32.5193E-3
-2.48874E-3	-94.7698E-12	678.930E-3	-7.05517E-3	-95.4838E-12	700.913E-3	-27.1687E-3
-2.49375E-3	-94.0788E-12	681.566E-3	-21.2251E-3	-95.8427E-12	709.636E-3	-33.1900E-3
-2.49875E-3	-94.2898E-12	694.575E-3	-8.06568E-3	-95.7373E-12	684.703E-3	-27.6990E-3
-2.50375E-3	-95.4567E-12	681.886E-3	-937.204E-6	-96.8526E-12	675.983E-3	-15.0988E-3
-2.50875E-3	-96.4324E-12	685.421E-3	-13.6181E-3	-97.3891E-12	689.106E-3	-17.5743E-3
-2.51376E-3	-97.2089E-12	692.185E-3	-25.6781E-3	-97.2789E-12	710.003E-3	-20.0562E-3
-2.51876E-3	-97.9447E-12	675.708E-3	-20.4270E-3	-96.7105E-12	721.400E-3	-12.7135E-3
-2.52376E-3	-98.4116E-12	673.161E-3	-7.45118E-3	-98.2117E-12	705.747E-3	-4.06699E-3
-2.52876E-3	-99.2139E-12	693.338E-3	561.558E-6	-99.4604E-12	682.390E-3	14.8104E-3
-2.53377E-3	-99.4080E-12	691.456E-3	-11.9070E-3	-98.5719E-12	676.265E-3	32.1041E-3
-2.53877E-3	-100.534E-12	678.366E-3	-35.4963E-3	-97.9919E-12	680.746E-3	25.0561E-3
-2.54377E-3	-101.101E-12	675.747E-3	-30.5683E-3	-97.8000E-12	673.878E-3	2.61204E-3
-2.54877E-3	-100.356E-12	668.715E-3	-11.3004E-3	-98.6185E-12	679.415E-3	-9.70367E-3
-2.55378E-3	-100.489E-12	670.972E-3	-3.21818E-3	-98.7560E-12	694.146E-3	-11.3759E-3
-2.55878E-3	-101.777E-12	680.969E-3	7.70911E-3	-98.5672E-12	679.408E-3	-12.3731E-3
-2.56378E-3	-101.959E-12	688.780E-3	-4.91596E-3	-98.4997E-12	668.768E-3	-15.9459E-3
-2.56878E-3	-100.088E-12	701.411E-3	-33.3179E-3	-99.7436E-12	670.670E-3	-28.0223E-3
-2.57379E-3	-99.3239E-12	698.588E-3	-20.9642E-3	-99.8831E-12	653.721E-3	-38.1858E-3
-2.57879E-3	-100.415E-12	676.770E-3	-3.11938E-3	-100.486E-12	660.790E-3	-35.9911E-3
-2.58379E-3	-101.897E-12	668.039E-3	-12.0474E-3	-99.2895E-12	688.748E-3	-40.9981E-3
-2.58879E-3	-100.182E-12	673.996E-3	-12.3918E-3	-99.9730E-12	678.487E-3	-42.1586E-3
-2.59380E-3	-99.1959E-12	664.322E-3	-1.23710E-3	-101.168E-12	663.994E-3	-15.5226E-3
-2.59880E-3	-99.6818E-12	656.078E-3	-10.6051E-3	-100.550E-12	667.871E-3	1.07933E-3
-2.60380E-3	-100.936E-12	674.895E-3	-25.7518E-3	-99.4923E-12	655.061E-3	6.82078E-3
-2.60880E-3	-100.856E-12	685.568E-3	-14.8059E-3	-100.354E-12	652.308E-3	8.62633E-3
-2.61381E-3	-100.198E-12	694.691E-3	-21.7848E-3	-101.836E-12	673.630E-3	-10.9340E-3
-2.61881E-3	-101.127E-12	699.550E-3	-37.5113E-3	-100.953E-12	677.102E-3	-21.4213E-3
-2.62381E-3	-102.855E-12	660.886E-3	-29.7017E-3	-99.7462E-12	670.195E-3	-15.4195E-3
-2.62881E-3	-102.613E-12	644.037E-3	-29.0354E-3	-100.615E-12	665.276E-3	-17.7043E-3
-2.63382E-3	-102.437E-12	669.684E-3	-15.4586E-3	-101.828E-12	651.596E-3	-14.0979E-3
-2.63882E-3	-102.105E-12	676.217E-3	3.05709E-3	-102.500E-12	650.394E-3	-2.23836E-3
-2.64382E-3	-102.944E-12	677.508E-3	-5.78190E-3	-101.777E-12	667.617E-3	-11.3137E-3
-2.64882E-3	-103.718E-12	705.037E-3	-15.0231E-3	-101.847E-12	665.507E-3	-29.4035E-3
-2.65383E-3	-104.117E-12	720.635E-3	-16.8567E-3	-102.123E-12	646.850E-3	-8.82945E-3
-2.65883E-3	-104.112E-12	709.751E-3	-24.8041E-3	-103.567E-12	647.187E-3	22.7694E-3
-2.66383E-3	-104.286E-12	705.538E-3	-31.1519E-3	-103.604E-12	659.206E-3	9.61101E-3
-2.66883E-3	-105.157E-12	702.458E-3	-26.5844E-3	-103.018E-12	672.890E-3	-16.5756E-3
-2.67384E-3	-104.504E-12	700.408E-3	-21.3018E-3	-103.537E-12	684.404E-3	-33.5712E-3
-2.67884E-3	-105.110E-12	704.034E-3	-17.1877E-3	-104.565E-12	676.878E-3	-37.4467E-3
-2.68384E-3	-106.174E-12	686.349E-3	-11.2917E-3	-106.028E-12	670.364E-3	-19.0529E-3
-2.68884E-3	-106.703E-12	669.167E-3	-16.9072E-3	-105.299E-12	675.272E-3	2.93032E-3
-2.69385E-3	-107.303E-12	684.552E-3	-26.2846E-3	-105.421E-12	665.570E-3	13.2991E-3
-2.69885E-3	-106.265E-12	693.081E-3	-26.0201E-3	-105.941E-12	665.208E-3	8.95048E-3
-2.70385E-3	-106.261E-12	683.167E-3	-20.4164E-3	-106.605E-12	701.525E-3	-1.18428E-3
-2.70885E-3	-107.257E-12	676.915E-3	-17.4626E-3	-106.356E-12	723.780E-3	-18.6802E-3
-2.71386E-3	-107.718E-12	682.803E-3	-16.6215E-3	-105.934E-12	699.556E-3	-29.0454E-3
-2.71886E-3	-105.986E-12	692.087E-3	-10.5006E-3	-106.298E-12	689.403E-3	-25.9614E-3
-2.72386E-3	-104.667E-12	686.598E-3	5.58195E-3	-107.192E-12	686.272E-3	-38.1455E-3
-2.72886E-3	-104.760E-12	673.828E-3	11.2592E-3	-107.802E-12	660.745E-3	-34.5886E-3
-2.73387E-3	-106.344E-12	664.212E-3	-9.09065E-3	-107.189E-12	662.931E-3	8.04168E-3
-2.73887E-3	-107.780E-12	654.750E-3	-29.0150E-3	-107.962E-12	688.183E-3	17.2373E-3
-2.74387E-3	-105.826E-12	655.143E-3	-35.1818E-3	-108.807E-12	699.774E-3	-13.3055E-3
-2.74887E-3	-105.133E-12	669.497E-3	-34.8945E-3	-108.253E-12	708.031E-3	-33.5975E-3
-2.75388E-3	-106.908E-12	686.028E-3	-37.1966E-3	-107.959E-12	717.508E-3	-43.4765E-3
-2.75888E-3	-109.390E-12	697.808E-3	-31.4521E-3	-107.909E-12	697.225E-3	-32.1585E-3
-2.76388E-3	-108.928E-12	687.886E-3	-8.75483E-3	-109.712E-12	671.478E-3	-15.6478E-3
-2.76888E-3	-108.040E-12	663.130E-3	4.06076E-3	-110.443E-12	668.177E-3	-25.3494E-3
-2.77389E-3	-108.690E-12	653.756E-3	13.3111E-3	-110.832E-12	671.811E-3	-39.6059E-3
-2.77889E-3	-109.718E-12	650.178E-3	20.1802E-3	-111.205E-12	694.813E-3	-26.9942E-3
-2.78389E-3	-110.078E-12	650.301E-3	8.14154E-3	-111.987E-12	720.482E-3	-18.4429E-3
-2.78889E-3	-109.314E-12	666.108E-3	-3.73120E-3	-112.231E-12	698.441E-3	-24.9625E-3
-2.79390E-3	-109.778E-12	669.920E-3	-13.8619E-3	-111.405E-12	660.281E-3	-3.84510E-3
-2.79890E-3	-110.104E-12	669.850E-3	-28.6389E-3	-111.776E-12	664.934E-3	6.80910E-3
-2.80390E-3	-110.199E-12	681.662E-3	-29.6330E-3	-110.399E-12	667.741E-3	-22.3433E-3
-2.80890E-3	-109.952E-12	671.002E-3	-19.1415E-3	-111.235E-12	653.456E-3	-34.4248E-3
-2.81391E-3	-109.099E-12	658.367E-3	-20.5486E-3	-111.545E-12	652.409E-3	-36.7419E-3
-2.81891E-3	-108.757E-12	675.586E-3	-16.5791E-3	-110.795E-12	659.059E-3	-54.4126E-3
-2.82391E-3	-109.781E-12	680.206E-3	-12.9763E-3	-112.777E-12	681.390E-3	-52.1912E-3
-2.82891E-3	-110.833E-12	665.114E-3	-21.2087E-3	-112.735E-12	697.103E-3	-32.1013E-3
-2.83392E-3	-110.330E-12	659.252E-3	-18.9617E-3	-112.252E-12	670.723E-3	-17.8113E-3
-2.83892E-3	-110.035E-12	649.530E-3	-10.4280E-3	-111.592E-12	642.145E-3	-13.4150E-3
-2.84392E-3	-112.194E-12	632.280E-3	1.96285E-3	-112.991E-12	635.576E-3	-18.9729E-3
-2.84892E-3	-113.863E-12	636.737E-3	9.34105E-3	-112.874E-12	630.104E-3	-8.23459E-3
-2.85393E-3	-112.880E-12	648.825E-3	515.102E-6	-114.927E-12	646.302E-3	10.0081E-3
-2.85893E-3	-112.387E-12	647.531E-3	-16.8044E-3	-114.048E-12	687.650E-3	2.57563E-3
-2.86393E-3	-114.076E-12	662.044E-3	-26.4217E-3	-113.250E-12	692.532E-3	-8.48587E-3
-2.86893E-3	-117.044E-12	673.214E-3	-13.9009E-3	-114.275E-12	649.632E-3	-8.66983E-3
-2.87394E-3	-115.216E-12	645.167E-3	-8.72281E-3	-114.366E-12	630.919E-3	-20.8623E-3
-2.87894E-3	-115.018E-12	622.100E-3	-16.8013E-3	-114.713E-12	651.313E-3	-48.4825E-3
-2.88394E-3	-115.421E-12	648.960E-3	-5.88462E-3	-113.448E-12	667.403E-3	-54.6172E-3
-2.88894E-3	-117.729E-12	683.714E-3	1.57241E-3	-113.613E-12	665.623E-3	-42.4506E-3
-2.89395E-3	-115.644E-12	698.530E-3	271.798E-6	-113.596E-12	666.379E-3	-42.9893E-3
-2.89895E-3	-113.556E-12	685.708E-3	18.8163E-3	-114.543E-12	662.633E-3	-39.2280E-3
-2.90395E-3	-113.850E-12	651.899E-3	22.5977E-3	-114.228E-12	656.481E-3	-43.4277E-3
-2.90895E-3	-116.429E-12	655.627E-3	-4.13579E-3	-114.142E-12	671.287E-3	-66.4828E-3
-2.91396E-3	-116.191E-12	669.521E-3	-26.7802E-3	-113.699E-12	678.297E-3	-56.7169E-3
-2.91896E-3	-114.293E-12	647.639E-3	-33.7425E-3	-115.395E-12	673.658E-3	-34.7345E-3
-2.92396E-3	-114.465E-12	641.514E-3	-18.4064E-3	-116.134E-12	674.136E-3	-36.7257E-3
-2.92896E-3	-115.835E-12	651.927E-3	4.14814E-3	-115.048E-12	664.376E-3	-29.2892E-3
-2.93397E-3	-117.462E-12	644.347E-3	-5.25272E-3	-116.288E-12	662.180E-3	-9.48187E-3
-2.93897E-3	-117.038E-12	652.502E-3	-27.1903E-3	-116.697E-12	676.456E-3	-3.55719E-3
-2.94397E-3	-117.688E-12	670.831E-3	-21.7940E-3	-116.111E-12	674.607E-3	-8.07701E-3
-2.94897E-3	-117.932E-12	671.736E-3	-8.58855E-3	-116.343E-12	678.611E-3	-24.2677E-3
-2.95398E-3	-120.149E-12	680.810E-3	-5.95248E-3	-116.686E-12	693.931E-3	-40.8937E-3
-2.95898E-3	-119.867E-12	689.113E-3	-1.80418E-3	-116.961E-12	675.428E-3	-28.5912E-3
-2.96398E-3	-118.556E-12	665.915E-3	12.9122E-3	-116.858E-12	660.911E-3	3.85320E-3
-2.96898E-3	-119.566E-12	628.599E-3	22.1215E-3	-116.919E-12	667.946E-3	12.4518E-3
-2.97399E-3	-122.751E-12	637.494E-3	24.3384E-3	-117.455E-12	656.824E-3	-7.73329E-3
-2.97899E-3	-122.537E-12	670.924E-3	28.2627E-3	-118.390E-12	657.425E-3	-18.3941E-3
-2.98399E-3	-118.843E-12	667.113E-3	-2.72430E-3	-118.390E-12	678.519E-3	-20.2073E-3
-2.98899E-3	-118.385E-12	675.096E-3	-37.9296E-3	-118.283E-12	670.064E-3	-23.2009E-3
-2.99400E-3	-119.044E-12	693.361E-3	-31.6039E-3	-119.321E-12	643.032E-3	-14.4584E-3
-2.99900E-3	-121.030E-12	681.937E-3	-18.0640E-3	-119.853E-12	636.174E-3	-12.5434E-3
-3.00400E-3	-118.327E-12	665.106E-3	-9.66598E-3	-119.857E-12	649.010E-3	-26.1448E-3
-3.00900E-3	-116.968E-12	646.719E-3	-13.2999E-3	-121.061E-12	673.560E-3	-12.9899E-3
-3.01401E-3	-118.783E-12	639.489E-3	-37.3270E-3	-121.340E-12	692.868E-3	14.9901E-3
-3.01901E-3	-120.430E-12	656.559E-3	-54.3922E-3	-121.697E-12	683.214E-3	18.5430E-3
-3.02401E-3	-119.733E-12	664.445E-3	-60.9852E-3	-121.635E-12	664.703E-3	23.3722E-3
-3.02901E-3	-117.911E-12	657.413E-3	-58.3469E-3	-122.718E-12	668.746E-3	13.0230E-3
-3.03402E-3	-119.450E-12	665.498E-3	-33.2886E-3	-123.022E-12	658.611E-3	-34.4637E-3
-3.03902E-3	-119.585E-12	669.942E-3	-13.8886E-3	-121.516E-12	646.511E-3	-46.8263E-3
-3.04402E-3	-121.372E-12	658.439E-3	-27.7106E-3	-121.317E-12	673.179E-3	-17.8959E-3
-3.04902E-3	-120.654E-12	665.256E-3	-38.5431E-3	-121.746E-12	689.774E-3	-2.61822E-3
-3.05403E-3	-120.348E-12	681.582E-3	-28.3450E-3	-123.661E-12	686.145E-3	-1.53527E-3
-3.05903E-3	-120.626E-12	677.343E-3	-42.9597E-3	-122.779E-12	680.713E-3	-17.8769E-3
-3.06403E-3	-120.721E-12	681.724E-3	-53.5826E-3	-122.319E-12	675.257E-3	-38.5554E-3
-3.06903E-3	-121.132E-12	688.656E-3	-28.8278E-3	-121.870E-12	677.857E-3	-23.9538E-3
-3.07404E-3	-120.075E-12	665.140E-3	-25.1170E-3	-123.070E-12	670.680E-3	-361.791E-6
-3.07904E-3	-120.990E-12	659.420E-3	-35.1572E-3	-123.240E-12	643.967E-3	1.68073E-3
-3.08404E-3	-120.751E-12	669.568E-3	-12.0454E-3	-123.008E-12	626.388E-3	3.07072E-3
-3.08904E-3	-122.565E-12	653.909E-3	-4.29016E-3	-122.879E-12	636.828E-3	7.28550E-3
-3.09405E-3	-121.414E-12	624.344E-3	-32.8506E-3	-122.350E-12	650.320E-3	13.7926E-3
-3.09905E-3	-121.787E-12	610.681E-3	-36.9564E-3	-123.584E-12	651.333E-3	3.45516E-3
-3.10405E-3	-122.680E-12	630.982E-3	-14.9320E-3	-124.594E-12	653.204E-3	-16.8778E-3
-3.10905E-3	-123.635E-12	652.344E-3	-521.170E-6	-124.285E-12	642.393E-3	-24.3820E-3
-3.11406E-3	-123.426E-12	646.848E-3	7.74158E-3	-122.757E-12	629.622E-3	-28.0663E-3
-3.11906E-3	-122.852E-12	642.414E-3	-1.60947E-3	-123.499E-12	644.585E-3	-25.2808E-3
-3.12406E-3	-124.533E-12	669.747E-3	-33.0859E-3	-125.332E-12	638.206E-3	-35.4326E-3
-3.12906E-3	-124.913E-12	706.185E-3	-39.0650E-3	-124.684E-12	604.064E-3	-58.8254E-3
-3.13407E-3	-125.351E-12	698.525E-3	-30.2086E-3	-124.262E-12	622.502E-3	-64.5395E-3
-3.13907E-3	-124.306E-12	665.940E-3	-26.5804E-3	-124.335E-12	672.111E-3	-50.6847E-3
-3.14407E-3	-125.339E-12	656.047E-3	1.18507E-3	-125.323E-12	679.928E-3	-23.3532E-3
-3.14907E-3	-124.617E-12	677.211E-3	6.06903E-3	-124.517E-12	668.337E-3	247.453E-6
-3.15408E-3	-124.887E-12	705.405E-3	-27.5432E-3	-125.121E-12	663.335E-3	2.43718E-3
-3.15908E-3	-124.784E-12	705.909E-3	-21.5377E-3	-124.354E-12	647.753E-3	-7.17968E-3
-3.16408E-3	-125.252E-12	668.025E-3	12.0061E-3	-125.385E-12	631.247E-3	-16.3665E-3
-3.16908E-3	-126.516E-12	632.167E-3	10.3324E-3	-126.978E-12	637.203E-3	-19.9573E-3
-3.17409E-3	-126.887E-12	634.433E-3	-10.2208E-3	-126.100E-12	633.130E-3	-3.51466E-3
-3.17909E-3	-125.809E-12	652.988E-3	-5.11836E-3	-125.489E-12	623.694E-3	27.7598E-3
-3.18409E-3	-125.799E-12	674.484E-3	-1.51293E-3	-125.908E-12	643.906E-3	26.4456E-3
-3.18909E-3	-127.212E-12	688.530E-3	-29.7033E-3	-126.347E-12	667.242E-3	8.11928E-3
-3.19410E-3	-127.494E-12	673.681E-3	-21.5682E-3	-126.328E-12	677.640E-3	15.0927E-3
-3.19910E-3	-127.648E-12	656.219E-3	7.75517E-3	-128.126E-12	680.993E-3	4.95523E-3
-3.20410E-3	-126.899E-12	671.464E-3	13.2117E-3	-127.998E-12	678.364E-3	-33.2884E-3
-3.20910E-3	-128.969E-12	675.404E-3	17.2276E-3	-127.509E-12	666.642E-3	-44.3325E-3
-3.21411E-3	-131.247E-12	655.206E-3	-9.61300E-3	-125.850E-12	642.621E-3	-24.1297E-3
-3.21911E-3	-130.030E-12	655.088E-3	-42.5820E-3	-125.477E-12	615.057E-3	-7.47512E-3
-3.22411E-3	-128.759E-12	657.206E-3	-29.6046E-3	-126.144E-12	604.442E-3	-13.1336E-3
-3.22911E-3	-128.187E-12	650.134E-3	-19.0893E-3	-127.003E-12	608.615E-3	-30.5911E-3
-3.23412E-3	-128.479E-12	665.025E-3	-17.0495E-3	-127.298E-12	622.745E-3	-27.4042E-3
-3.23912E-3	-127.470E-12	683.149E-3	5.36539E-3	-126.042E-12	637.091E-3	-14.0088E-3
-3.24412E-3	-126.855E-12	667.107E-3	5.07301E-3	-127.472E-12	647.697E-3	-8.69436E-3
-3.24912E-3	-127.215E-12	638.612E-3	-20.3387E-3	-129.078E-12	665.354E-3	317.696E-6
-3.25413E-3	-129.146E-12	623.660E-3	-19.4898E-3	-128.998E-12	657.516E-3	2.18921E-3
-3.25913E-3	-129.595E-12	613.242E-3	9.31422E-3	-127.501E-12	635.352E-3	-20.3479E-3
-3.26413E-3	-128.489E-12	616.063E-3	-343.278E-6	-128.682E-12	643.282E-3	-41.6349E-3
-3.26913E-3	-130.182E-12	632.642E-3	-25.6881E-3	-129.579E-12	655.012E-3	-36.8690E-3
-3.27414E-3	-130.376E-12	638.490E-3	-31.8977E-3	-130.258E-12	644.999E-3	-27.5803E-3
-3.27914E-3	-131.137E-12	646.096E-3	-53.2128E-3	-130.922E-12	625.803E-3	-26.0912E-3
-3.28414E-3	-130.580E-12	664.011E-3	-51.8979E-3	-130.833E-12	614.866E-3	-31.1497E-3
-3.28914E-3	-132.070E-12	676.457E-3	-23.2245E-3	-130.679E-12	621.896E-3	-33.1153E-3
-3.29415E-3	-134.764E-12	674.743E-3	-19.8927E-3	-130.033E-12	658.456E-3	-10.3612E-3
-3.29915E-3	-135.394E-12	657.239E-3	-28.1481E-3	-131.632E-12	680.242E-3	11.3849E-3
-3.30415E-3	-134.325E-12	658.148E-3	-28.0767E-3	-132.567E-12	663.580E-3	6.95691E-3
-3.30915E-3	-133.530E-12	683.429E-3	-33.2088E-3	-133.549E-12	654.794E-3	-14.8468E-3
-3.31416E-3	-135.258E-12	687.807E-3	-31.9391E-3	-132.673E-12	654.542E-3	-23.5095E-3
-3.31916E-3	-134.538E-12	657.610E-3	-31.1137E-3	-133.171E-12	657.035E-3	-6.27596E-3
-3.32416E-3	-132.124E-12	633.801E-3	-34.5988E-3	-133.238E-12	659.364E-3	-1.23750E-3
-3.32916E-3	-132.525E-12	635.218E-3	-15.4257E-3	-133.733E-12	649.612E-3	-16.9581E-3
-3.33417E-3	-133.614E-12	631.435E-3	-7.21774E-3	-133.449E-12	639.425E-3	-33.8149E-3
-3.33917E-3	-133.696E-12	632.697E-3	-34.9070E-3	-133.481E-12	633.836E-3	-37.8241E-3
-3.34417E-3	-132.589E-12	654.267E-3	-66.9136E-3	-133.831E-12	629.402E-3	-32.2581E-3
-3.34917E-3	-133.295E-12	662.973E-3	-64.0311E-3	-133.896E-12	637.871E-3	-26.1628E-3
-3.35418E-3	-133.877E-12	647.960E-3	-34.0654E-3	-134.901E-12	659.124E-3	-13.4716E-3
-3.35918E-3	-134.321E-12	634.028E-3	-10.6762E-3	-134.845E-12	672.400E-3	-7.43148E-3
-3.36418E-3	-133.929E-12	637.955E-3	2.12367E-3	-134.770E-12	668.477E-3	-16.9062E-3
-3.36918E-3	-133.874E-12	642.923E-3	-8.64137E-3	-134.188E-12	654.837E-3	-42.3215E-3
-3.37419E-3	-135.848E-12	635.478E-3	-26.3100E-3	-135.646E-12	627.416E-3	-60.1140E-3
-3.37919E-3	-135.863E-12	618.386E-3	-12.0676E-3	-135.168E-12	601.079E-3	-37.5007E-3
-3.38419E-3	-136.386E-12	607.019E-3	-7.06998E-3	-134.782E-12	615.755E-3	-3.38353E-3
-3.38919E-3	-136.418E-12	617.042E-3	-23.7506E-3	-134.806E-12	632.707E-3	-9.99863E-3
-3.39420E-3	-137.095E-12	632.082E-3	-28.1981E-3	-136.424E-12	630.850E-3	-29.3173E-3
-3.39920E-3	-137.907E-12	648.066E-3	-30.2048E-3	-138.881E-12	640.255E-3	-24.5486E-3
-3.40420E-3	-138.114E-12	670.025E-3	-21.6309E-3	-136.704E-12	650.945E-3	-11.7918E-3
-3.40920E-3	-136.845E-12	692.321E-3	-8.07236E-3	-136.400E-12	657.819E-3	3.82427E-3
-3.41421E-3	-137.694E-12	684.837E-3	-13.6264E-3	-136.092E-12	679.273E-3	19.1992E-3
-3.41921E-3	-137.551E-12	656.536E-3	-36.5324E-3	-138.069E-12	693.152E-3	15.4689E-3
-3.42421E-3	-137.180E-12	630.827E-3	-44.3920E-3	-137.707E-12	682.329E-3	4.76137E-3
-3.42921E-3	-135.881E-12	608.602E-3	-41.1526E-3	-136.129E-12	678.202E-3	10.0093E-6
-3.43422E-3	-137.216E-12	614.785E-3	-34.0979E-3	-136.402E-12	686.552E-3	-8.73884E-3
-3.43922E-3	-137.579E-12	617.021E-3	-3.67820E-3	-136.867E-12	679.145E-3	-3.58476E-3
-3.44422E-3	-136.846E-12	609.305E-3	9.27666E-3	-138.778E-12	637.836E-3	3.85299E-3
-3.44922E-3	-136.256E-12	625.047E-3	-281.301E-6	-137.173E-12	595.692E-3	14.9046E-3
-3.45423E-3	-137.004E-12	632.055E-3	1.19173E-3	-137.239E-12	598.809E-3	25.6019E-3
-3.45923E-3	-138.158E-12	633.861E-3	397.077E-6	-138.224E-12	634.663E-3	2.03721E-3
-3.46423E-3	-138.372E-12	653.643E-3	2.40569E-3	-140.712E-12	648.275E-3	-25.9704E-3
-3.46923E-3	-139.807E-12	658.703E-3	-6.16390E-3	-139.921E-12	651.156E-3	-35.6617E-3
-3.47424E-3	-141.858E-12	645.768E-3	-31.8429E-3	-139.247E-12	675.258E-3	-27.6134E-3
-3.47924E-3	-141.204E-12	654.422E-3	-38.6175E-3	-138.329E-12	688.714E-3	-12.0785E-3
-3.48424E-3	-141.057E-12	682.005E-3	-28.6398E-3	-139.373E-12	679.734E-3	9.32635E-3
-3.48924E-3	-143.324E-12	697.828E-3	-27.4800E-3	-139.548E-12	676.504E-3	31.1249E-3
-3.49425E-3	-144.123E-12	692.661E-3	-28.7936E-3	-139.735E-12	686.861E-3	15.2461E-3
-3.49925E-3	-141.868E-12	675.592E-3	-17.3388E-3	-138.853E-12	682.703E-3	-11.8534E-3
-3.50425E-3	-141.798E-12	660.281E-3	-17.1656E-3	-139.262E-12	657.133E-3	-18.9340E-3
-3.50925E-3	-142.670E-12	647.286E-3	-35.5012E-3	-140.261E-12	645.692E-3	-32.9878E-3
-3.51426E-3	-143.904E-12	644.631E-3	-38.8026E-3	-139.673E-12	639.976E-3	-39.8853E-3
-3.51926E-3	-142.036E-12	636.380E-3	-15.6068E-3	-139.391E-12	637.258E-3	-6.69230E-3
-3.52426E-3	-141.265E-12	623.537E-3	-11.7176E-3	-139.816E-12	646.656E-3	27.2375E-3
-3.52926E-3	-142.350E-12	623.811E-3	-32.8131E-3	-140.499E-12	648.960E-3	25.6124E-3
-3.53427E-3	-142.981E-12	615.607E-3	-41.7773E-3	-140.837E-12	649.144E-3	7.20153E-3
-3.53927E-3	-142.129E-12	644.583E-3	-45.3480E-3	-140.679E-12	637.159E-3	-13.3335E-3
-3.54427E-3	-141.628E-12	706.170E-3	-40.7346E-3	-141.808E-12	624.837E-3	-13.7327E-3
-3.54927E-3	-141.861E-12	691.180E-3	-24.3492E-3	-142.581E-12	631.546E-3	-4.79449E-3
-3.55428E-3	-142.912E-12	641.941E-3	-2.91039E-3	-142.860E-12	647.148E-3	-9.96296E-3
-3.55928E-3	-144.376E-12	644.985E-3	27.1040E-3	-142.598E-12	665.416E-3	-15.8502E-3
-3.56428E-3	-144.170E-12	650.968E-3	35.8529E-3	-143.488E-12	660.666E-3	-13.3338E-3
-3.56928E-3	-144.185E-12	649.250E-3	-978.707E-6	-145.068E-12	646.942E-3	7.31120E-3
-3.57429E-3	-144.300E-12	658.611E-3	-35.4658E-3	-145.527E-12	654.307E-3	21.3672E-3
-3.57929E-3	-144.511E-12	654.118E-3	-28.6747E-3	-143.916E-12	654.634E-3	7.40812E-3
-3.58429E-3	-145.580E-12	639.986E-3	-10.8832E-3	-143.679E-12	641.193E-3	-5.37483E-3
-3.58929E-3	-144.875E-12	652.094E-3	-1.54191E-3	-145.019E-12	634.448E-3	-12.4815E-3
-3.59430E-3	-146.415E-12	675.275E-3	-6.37524E-3	-145.174E-12	647.014E-3	-22.5260E-3
-3.59930E-3	-145.745E-12	655.328E-3	-27.2444E-3	-144.762E-12	665.027E-3	-33.0754E-3
-3.60430E-3	-145.481E-12	642.437E-3	-39.5893E-3	-144.777E-12	657.055E-3	-49.6242E-3
-3.60930E-3	-145.174E-12	664.902E-3	-21.3498E-3	-145.223E-12	622.678E-3	-34.3497E-3
-3.61431E-3	-145.971E-12	658.621E-3	4.36924E-3	-145.031E-12	616.479E-3	-122.246E-6
-3.61931E-3	-146.092E-12	628.981E-3	-4.39104E-3	-145.037E-12	634.031E-3	-16.4750E-3
-3.62431E-3	-145.562E-12	631.474E-3	-27.7118E-3	-145.735E-12	626.029E-3	-52.0404E-3
-3.62931E-3	-147.370E-12	642.078E-3	-35.6847E-3	-145.764E-12	626.251E-3	-51.9316E-3
-3.63432E-3	-147.833E-12	636.849E-3	-36.9473E-3	-145.218E-12	640.111E-3	-34.9998E-3
-3.63932E-3	-147.768E-12	645.439E-3	-31.4270E-3	-145.920E-12	643.380E-3	-27.3718E-3
-3.64432E-3	-148.146E-12	642.015E-3	-33.2932E-3	-148.162E-12	641.012E-3	-33.8292E-3
-3.64932E-3	-150.182E-12	621.479E-3	-61.8877E-3	-147.576E-12	634.001E-3	-30.0304E-3
-3.65433E-3	-149.242E-12	628.990E-3	-87.0368E-3	-148.172E-12	624.140E-3	-224.993E-6
-3.65933E-3	-148.035E-12	634.034E-3	-66.5960E-3	-148.868E-12	619.371E-3	8.41296E-3
-3.66433E-3	-148.806E-12	617.965E-3	-21.6731E-3	-149.808E-12	632.228E-3	-19.3740E-3
-3.66933E-3	-149.086E-12	615.800E-3	19.2190E-3	-150.324E-12	644.177E-3	-27.5901E-3
-3.67434E-3	-150.000E-12	600.900E-3	38.6084E-3	-147.947E-12	640.873E-3	4.83329E-3
-3.67934E-3	-148.792E-12	597.063E-3	7.56524E-3	-148.894E-12	644.633E-3	19.9325E-3
-3.68434E-3	-150.718E-12	639.309E-3	-26.1122E-3	-149.351E-12	654.819E-3	-11.1436E-3
-3.68934E-3	-152.887E-12	669.977E-3	-15.5216E-3	-151.135E-12	655.244E-3	-22.6164E-3
-3.69435E-3	-152.031E-12	661.999E-3	-3.51521E-3	-147.475E-12	644.469E-3	-2.37868E-3
-3.69935E-3	-150.811E-12	647.281E-3	2.24330E-3	-147.894E-12	634.356E-3	-6.51418E-3
-3.70435E-3	-152.369E-12	634.380E-3	15.4553E-3	-149.546E-12	617.094E-3	2.85754E-3
-3.70935E-3	-152.608E-12	612.996E-3	10.3982E-3	-149.510E-12	610.666E-3	20.5371E-3
-3.71436E-3	-152.251E-12	609.561E-3	-4.91202E-3	-149.331E-12	640.407E-3	-3.46275E-3
-3.71936E-3	-153.078E-12	624.682E-3	4.52111E-3	-148.584E-12	665.430E-3	-7.86026E-3
-3.72436E-3	-153.607E-12	633.042E-3	10.5499E-3	-150.706E-12	670.160E-3	12.8795E-3
-3.72936E-3	-153.533E-12	652.930E-3	-9.94144E-3	-151.398E-12	655.068E-3	9.48172E-3
-3.73437E-3	-153.010E-12	674.025E-3	-13.0389E-3	-151.975E-12	631.803E-3	5.78092E-3
-3.73937E-3	-152.514E-12	654.837E-3	-19.0764E-3	-151.788E-12	646.822E-3	21.1487E-3
-3.74437E-3	-152.753E-12	629.403E-3	-50.0866E-3	-153.368E-12	649.785E-3	10.0919E-3
-3.74937E-3	-152.752E-12	633.725E-3	-51.8838E-3	-154.228E-12	613.950E-3	-30.1357E-3
-3.75438E-3	-150.539E-12	653.910E-3	-31.9420E-3	-154.334E-12	612.639E-3	-36.1870E-3
-3.75938E-3	-153.467E-12	666.052E-3	-29.4779E-3	-153.793E-12	632.274E-3	-9.27730E-3
-3.76438E-3	-152.121E-12	645.920E-3	-22.9677E-3	-153.823E-12	634.745E-3	2.29324E-3
-3.76938E-3	-151.259E-12	629.097E-3	-11.1326E-3	-154.785E-12	630.283E-3	-14.1665E-3
-3.77439E-3	-151.767E-12	647.340E-3	-18.8578E-3	-154.430E-12	620.736E-3	-33.2672E-3
-3.77939E-3	-152.499E-12	660.287E-3	-14.1116E-3	-155.300E-12	616.031E-3	-40.6274E-3
-3.78439E-3	-152.633E-12	636.253E-3	1.46610E-3	-153.601E-12	629.058E-3	-33.0186E-3
-3.78939E-3	-151.374E-12	606.497E-3	-9.60550E-3	-153.485E-12	631.703E-3	-17.9768E-3
-3.79440E-3	-153.040E-12	609.877E-3	-10.5482E-3	-153.683E-12	610.336E-3	-23.3224E-3
-3.79940E-3	-153.199E-12	630.720E-3	-2.40678E-3	-153.342E-12	601.700E-3	-34.6129E-3
-3.80440E-3	-153.381E-12	644.148E-3	-15.4738E-3	-152.615E-12	608.302E-3	-36.6771E-3
-3.80940E-3	-153.049E-12	648.081E-3	-25.5530E-3	-152.868E-12	609.450E-3	-39.8535E-3
-3.81441E-3	-155.039E-12	643.784E-3	-8.44842E-3	-153.488E-12	608.846E-3	-27.6799E-3
-3.81941E-3	-155.623E-12	647.105E-3	26.2264E-3	-153.872E-12	617.742E-3	-16.8121E-3
-3.82441E-3	-155.153E-12	661.434E-3	53.6853E-3	-153.761E-12	625.840E-3	-26.4812E-3
-3.82941E-3	-154.373E-12	652.744E-3	56.0552E-3	-154.375E-12	634.254E-3	-40.2688E-3
-3.83442E-3	-154.025E-12	610.984E-3	23.3093E-3	-154.630E-12	637.415E-3	-50.7389E-3
-3.83942E-3	-154.156E-12	598.342E-3	-3.41417E-3	-155.185E-12	645.536E-3	-39.7688E-3
-3.84442E-3	-154.414E-12	641.610E-3	2.54374E-3	-154.399E-12	661.072E-3	-9.96749E-3
-3.84942E-3	-154.607E-12	664.580E-3	-6.17941E-3	-154.181E-12	635.256E-3	13.6103E-3
-3.85443E-3	-153.942E-12	639.362E-3	-30.6276E-3	-154.568E-12	619.156E-3	25.9023E-3
-3.85943E-3	-154.652E-12	616.076E-3	-18.1179E-3	-156.077E-12	643.689E-3	20.2802E-3
-3.86443E-3	-154.932E-12	613.169E-3	5.25261E-3	-156.212E-12	646.913E-3	1.11015E-3
-3.86943E-3	-155.079E-12	639.653E-3	-7.33290E-3	-155.397E-12	632.239E-3	-7.89335E-3
-3.87444E-3	-154.296E-12	665.243E-3	-30.7592E-3	-155.800E-12	616.594E-3	-3.15743E-3
-3.87944E-3	-155.126E-12	629.880E-3	-28.4174E-3	-156.698E-12	624.354E-3	-9.38565E-3
-3.88444E-3	-156.973E-12	577.437E-3	-14.0334E-3	-157.204E-12	645.142E-3	-30.0961E-3
-3.88944E-3	-157.115E-12	589.450E-3	-3.36937E-3	-157.048E-12	643.686E-3	-31.1529E-3
-3.89445E-3	-157.697E-12	628.525E-3	4.22267E-3	-157.368E-12	650.342E-3	-14.5843E-3
-3.89945E-3	-158.292E-12	645.556E-3	-4.81465E-3	-159.828E-12	672.657E-3	-26.0595E-3
-3.90445E-3	-160.642E-12	644.286E-3	-9.09187E-3	-160.254E-12	679.457E-3	-26.0241E-3
-3.90945E-3	-160.113E-12	622.705E-3	-10.8991E-3	-159.388E-12	680.991E-3	-5.89952E-3
-3.91446E-3	-160.733E-12	631.726E-3	-41.7510E-3	-158.749E-12	676.700E-3	-18.4845E-3
-3.91946E-3	-159.779E-12	662.633E-3	-69.6780E-3	-160.524E-12	652.325E-3	-12.1485E-3
-3.92446E-3	-160.429E-12	654.015E-3	-68.6821E-3	-160.898E-12	646.423E-3	1.39804E-3
-3.92946E-3	-160.853E-12	643.267E-3	-44.8628E-3	-159.412E-12	655.244E-3	-36.4270E-3
-3.93447E-3	-161.401E-12	648.250E-3	-22.6312E-3	-158.135E-12	653.179E-3	-65.9762E-3
-3.93947E-3	-161.228E-12	633.254E-3	-23.5418E-3	-160.428E-12	632.868E-3	-41.1245E-3
-3.94447E-3	-159.245E-12	633.629E-3	-21.3475E-3	-160.155E-12	632.493E-3	-5.29150E-3
-3.94947E-3	-160.465E-12	675.717E-3	-8.16304E-3	-160.960E-12	670.573E-3	-5.33330E-3
-3.95448E-3	-161.004E-12	707.553E-3	-9.05778E-3	-160.982E-12	674.367E-3	-29.6048E-3
-3.95948E-3	-162.221E-12	680.995E-3	-4.83121E-3	-160.383E-12	650.517E-3	-34.1162E-3
-3.96448E-3	-160.427E-12	620.598E-3	23.5115E-3	-161.722E-12	638.952E-3	-15.9018E-3
-3.96948E-3	-160.375E-12	614.349E-3	32.9001E-3	-162.096E-12	627.861E-3	-72.6751E-6
-3.97449E-3	-163.473E-12	653.744E-3	6.71250E-3	-163.430E-12	632.802E-3	11.0676E-3
-3.97949E-3	-165.174E-12	675.902E-3	-15.1578E-3	-164.073E-12	654.983E-3	3.79798E-3
-3.98449E-3	-164.731E-12	672.159E-3	-18.8495E-3	-164.812E-12	670.985E-3	-15.6495E-3
-3.98949E-3	-163.488E-12	653.932E-3	-12.1252E-3	-163.724E-12	672.214E-3	-24.1252E-3
-3.99450E-3	-167.228E-12	637.593E-3	-13.5271E-3	-163.907E-12	645.538E-3	-25.6990E-3
-3.99950E-3	-166.798E-12	623.198E-3	-24.5330E-3	-166.188E-12	625.529E-3	-20.9886E-3
-4.00450E-3	-166.245E-12	622.661E-3	-41.8949E-3	-167.349E-12	638.219E-3	-11.3464E-3
-4.00950E-3	-164.592E-12	639.475E-3	-58.2708E-3	-166.669E-12	660.831E-3	-8.34103E-3
-4.01451E-3	-165.366E-12	662.979E-3	-49.7132E-3	-166.175E-12	680.140E-3	839.625E-6
-4.01951E-3	-165.879E-12	681.743E-3	-23.8991E-3	-168.460E-12	675.214E-3	13.6436E-3
-4.02451E-3	-166.088E-12	677.322E-3	-12.1805E-3	-169.842E-12	660.089E-3	-4.40200E-3
-4.02951E-3	-166.391E-12	643.363E-3	-16.0461E-3	-165.820E-12	653.221E-3	-11.8912E-3
-4.03452E-3	-166.116E-12	623.917E-3	-18.4098E-3	-164.231E-12	647.204E-3	1.97273E-3
-4.03952E-3	-165.962E-12	636.148E-3	-19.8241E-3	-165.802E-12	664.083E-3	-4.74508E-3
-4.04452E-3	-166.177E-12	625.912E-3	-13.1195E-3	-168.780E-12	691.611E-3	-26.5228E-3
-4.04952E-3	-165.761E-12	608.299E-3	-17.4909E-3	-167.900E-12	680.655E-3	-36.2969E-3
-4.05453E-3	-166.407E-12	617.281E-3	-13.4967E-3	-166.680E-12	652.902E-3	-29.8940E-3
-4.05953E-3	-167.244E-12	630.063E-3	6.02306E-3	-166.830E-12	644.061E-3	-40.0335E-3
-4.06453E-3	-167.818E-12	628.023E-3	8.90572E-3	-167.512E-12	639.284E-3	-50.1343E-3
-4.06953E-3	-169.077E-12	626.304E-3	2.42396E-3	-170.731E-12	636.842E-3	-27.1032E-3
-4.07454E-3	-170.350E-12	630.671E-3	-7.28993E-3	-170.005E-12	647.874E-3	3.12480E-3
-4.07954E-3	-168.192E-12	644.059E-3	843.000E-6	-172.338E-12	661.536E-3	13.1749E-3
-4.08454E-3	-168.290E-12	666.246E-3	3.67422E-3	-172.755E-12	679.533E-3	-9.85122E-3
-4.08954E-3	-168.393E-12	670.013E-3	-144.017E-6	-174.798E-12	700.301E-3	-48.6224E-3
-4.09455E-3	-169.476E-12	667.607E-3	16.6937E-3	-174.322E-12	692.274E-3	-60.5179E-3
-4.09955E-3	-169.946E-12	671.045E-3	11.0868E-3	-174.377E-12	684.129E-3	-50.9216E-3
-4.10455E-3	-169.656E-12	676.670E-3	-14.9976E-3	-171.978E-12	682.189E-3	-46.3444E-3
-4.10955E-3	-169.158E-12	678.301E-3	-20.9248E-3	-170.778E-12	662.701E-3	-40.6490E-3
-4.11456E-3	-169.542E-12	662.008E-3	-20.4613E-3	-172.537E-12	666.014E-3	-37.0844E-3
-4.11956E-3	-170.032E-12	654.971E-3	-6.02386E-3	-172.294E-12	680.085E-3	-48.3726E-3
-4.12456E-3	-169.682E-12	659.485E-3	8.59257E-3	-170.769E-12	672.802E-3	-28.5361E-3
-4.12956E-3	-171.130E-12	647.130E-3	-23.0304E-3	-167.942E-12	656.219E-3	4.90514E-3
-4.13457E-3	-169.113E-12	639.060E-3	-56.9101E-3	-170.301E-12	648.453E-3	-8.74368E-3
-4.13957E-3	-170.425E-12	656.440E-3	-43.0771E-3	-169.356E-12	652.613E-3	-24.3137E-3
-4.14457E-3	-169.584E-12	661.104E-3	-6.11296E-3	-169.604E-12	631.803E-3	-18.7063E-3
-4.14957E-3	-172.452E-12	631.847E-3	25.7220E-3	-169.558E-12	614.753E-3	-15.4956E-3
-4.15458E-3	-174.052E-12	617.940E-3	25.7097E-3	-169.063E-12	630.715E-3	-28.7032E-3
-4.15958E-3	-173.257E-12	628.989E-3	-8.09380E-3	-170.049E-12	648.613E-3	-39.1825E-3
-4.16458E-3	-173.944E-12	627.513E-3	-41.6697E-3	-170.550E-12	656.390E-3	-21.5892E-3
-4.16958E-3	-173.484E-12	631.821E-3	-45.8925E-3	-173.397E-12	642.324E-3	8.86157E-3
-4.17459E-3	-173.667E-12	648.518E-3	-7.24003E-3	-172.575E-12	639.809E-3	18.0433E-3
-4.17959E-3	-171.794E-12	653.156E-3	32.2595E-3	-173.145E-12	669.729E-3	-7.38437E-3
-4.18459E-3	-174.143E-12	647.713E-3	18.0482E-3	-172.197E-12	687.361E-3	-29.5562E-3
-4.18959E-3	-173.918E-12	653.417E-3	-33.4935E-3	-175.458E-12	674.069E-3	-22.9504E-3
-4.19460E-3	-172.891E-12	651.491E-3	-37.3524E-3	-176.061E-12	660.320E-3	-8.64395E-3
-4.19960E-3	-171.135E-12	644.178E-3	-4.49723E-3	-175.392E-12	663.671E-3	10.3636E-3
-4.20460E-3	-171.967E-12	649.536E-3	-10.4720E-3	-175.193E-12	650.676E-3	1.73077E-3
-4.20960E-3	-174.588E-12	637.509E-3	-16.4881E-3	-172.883E-12	627.730E-3	-37.3464E-3
-4.21461E-3	-175.662E-12	643.711E-3	-18.3395E-3	-171.986E-12	624.637E-3	-46.9820E-3
-4.21961E-3	-174.403E-12	670.208E-3	-36.9223E-3	-171.071E-12	624.429E-3	-28.0634E-3
-4.22461E-3	-172.088E-12	669.186E-3	-40.3115E-3	-172.302E-12	627.335E-3	-1.21810E-3
-4.22961E-3	-175.412E-12	673.660E-3	-22.7166E-3	-172.035E-12	615.561E-3	8.56498E-3
-4.23462E-3	-177.496E-12	696.891E-3	-21.3841E-3	-170.332E-12	606.597E-3	-6.12069E-3
-4.23962E-3	-175.486E-12	693.913E-3	-25.1695E-3	-169.683E-12	642.129E-3	-24.2399E-3
-4.24462E-3	-171.627E-12	660.193E-3	-5.27664E-3	-171.245E-12	663.614E-3	-40.7201E-3
-4.24962E-3	-173.032E-12	638.700E-3	3.49487E-3	-171.164E-12	637.810E-3	-47.0954E-3
-4.25463E-3	-177.659E-12	655.642E-3	-7.01520E-3	-169.601E-12	618.090E-3	-46.2487E-3
-4.25963E-3	-178.082E-12	679.886E-3	-31.3432E-3	-171.039E-12	640.734E-3	-48.3792E-3
-4.26463E-3	-175.152E-12	686.019E-3	-43.9557E-3	-173.404E-12	664.932E-3	-32.7085E-3
-4.26963E-3	-174.877E-12	673.270E-3	-28.9445E-3	-174.318E-12	663.746E-3	-83.8448E-6
-4.27464E-3	-178.131E-12	656.347E-3	-16.4911E-3	-173.352E-12	642.142E-3	-4.04311E-3
-4.27964E-3	-179.159E-12	666.933E-3	-14.1062E-3	-174.249E-12	622.322E-3	-30.1792E-3
-4.28464E-3	-176.224E-12	668.253E-3	-37.1584E-3	-175.163E-12	627.358E-3	-25.5629E-3
-4.28964E-3	-174.387E-12	642.841E-3	-41.5250E-3	-176.617E-12	628.667E-3	-18.0129E-3
-4.29465E-3	-174.436E-12	617.636E-3	-4.92592E-3	-174.755E-12	603.683E-3	-20.9303E-3
-4.29965E-3	-177.301E-12	593.659E-3	-5.51822E-3	-174.190E-12	583.179E-3	-16.2206E-3
-4.30465E-3	-181.698E-12	607.818E-3	-5.63236E-3	-174.988E-12	605.622E-3	-16.2305E-3
-4.30965E-3	-180.480E-12	634.114E-3	-432.967E-6	-175.575E-12	633.577E-3	-27.2468E-3
-4.31466E-3	-175.864E-12	642.043E-3	-24.4470E-3	-175.502E-12	611.238E-3	-30.9693E-3
-4.31966E-3	-177.807E-12	672.100E-3	-22.5113E-3	-175.487E-12	573.233E-3	-22.9080E-3
-4.32466E-3	-179.045E-12	692.234E-3	-14.3430E-3	-175.875E-12	560.012E-3	-19.1389E-3
-4.32966E-3	-179.884E-12	684.920E-3	-16.8081E-3	-177.560E-12	558.047E-3	-7.90700E-3
-4.33467E-3	-179.349E-12	670.097E-3	16.8994E-3	-179.240E-12	573.246E-3	1.69248E-3
-4.33967E-3	-179.465E-12	631.342E-3	53.7797E-3	-178.324E-12	607.073E-3	-10.6087E-3
-4.34467E-3	-179.799E-12	602.960E-3	26.0272E-3	-176.487E-12	623.476E-3	-13.5052E-3
-4.34967E-3	-181.003E-12	609.450E-3	86.8703E-6	-177.517E-12	615.574E-3	16.0901E-3
-4.35468E-3	-181.898E-12	621.117E-3	8.82501E-3	-181.242E-12	628.776E-3	30.5996E-3
-4.35968E-3	-180.622E-12	636.308E-3	-1.84289E-3	-180.114E-12	670.563E-3	11.6246E-3
-4.36468E-3	-180.386E-12	654.901E-3	6.78280E-3	-177.345E-12	673.600E-3	-3.16877E-3
-4.36968E-3	-179.929E-12	652.506E-3	32.7504E-3	-176.702E-12	647.968E-3	5.93903E-3
-4.37469E-3	-179.700E-12	644.476E-3	25.6684E-3	-178.577E-12	645.772E-3	31.2438E-3
-4.37969E-3	-180.109E-12	654.906E-3	12.8507E-3	-179.721E-12	635.565E-3	38.9056E-3
-4.38469E-3	-178.775E-12	659.357E-3	13.0245E-3	-180.769E-12	621.788E-3	29.3015E-3
-4.38969E-3	-178.065E-12	634.210E-3	-8.48528E-3	-178.412E-12	626.287E-3	16.8006E-3
-4.39470E-3	-179.660E-12	613.588E-3	-42.5397E-3	-177.865E-12	622.965E-3	-8.46238E-3
-4.39970E-3	-180.738E-12	613.165E-3	-41.5133E-3	-179.900E-12	609.158E-3	-6.91376E-3
-4.40470E-3	-181.264E-12	599.943E-3	-38.0770E-3	-182.341E-12	638.748E-3	12.0071E-3
-4.40970E-3	-179.854E-12	612.327E-3	-54.5392E-3	-181.518E-12	661.590E-3	-13.4831E-3
-4.41471E-3	-182.026E-12	638.473E-3	-66.5765E-3	-179.963E-12	633.497E-3	-46.9100E-3
-4.41971E-3	-183.968E-12	634.554E-3	-72.3193E-3	-183.622E-12	647.497E-3	-57.8137E-3
-4.42471E-3	-184.035E-12	652.584E-3	-52.3082E-3	-185.017E-12	693.650E-3	-64.2195E-3
-4.42971E-3	-183.003E-12	680.064E-3	-7.22233E-3	-185.819E-12	691.612E-3	-59.8423E-3
-4.43472E-3	-182.989E-12	671.477E-3	15.3548E-6	-183.414E-12	652.931E-3	-22.6949E-3
-4.43972E-3	-183.298E-12	664.021E-3	-33.9472E-3	-182.781E-12	648.509E-3	46.9434E-3
-4.44472E-3	-184.244E-12	662.392E-3	-58.7616E-3	-184.010E-12	670.282E-3	75.5003E-3
-4.44972E-3	-183.528E-12	637.959E-3	-63.0958E-3	-183.690E-12	663.732E-3	45.7735E-3
-4.45473E-3	-182.480E-12	639.938E-3	-41.4233E-3	-182.464E-12	648.615E-3	35.6064E-3
-4.45973E-3	-182.215E-12	652.718E-3	-15.9026E-3	-181.258E-12	648.385E-3	17.3153E-3
-4.46473E-3	-183.578E-12	623.284E-3	-27.3515E-3	-180.359E-12	641.048E-3	-27.9495E-3
-4.46973E-3	-183.231E-12	579.191E-3	-42.4453E-3	-179.259E-12	626.906E-3	-41.8320E-3
-4.47474E-3	-183.252E-12	554.524E-3	-27.4657E-3	-180.233E-12	624.827E-3	-33.6226E-3
-4.47974E-3	-182.577E-12	573.733E-3	12.7576E-3	-180.520E-12	631.477E-3	-21.3565E-3
-4.48474E-3	-182.616E-12	579.477E-3	31.7652E-3	-181.444E-12	657.995E-3	-17.9079E-3
-4.48974E-3	-184.276E-12	567.303E-3	10.2650E-3	-181.930E-12	674.670E-3	-32.8584E-3
-4.49475E-3	-185.555E-12	580.773E-3	9.77708E-3	-183.508E-12	658.848E-3	-33.9491E-3
-4.49975E-3	-184.579E-12	574.672E-3	8.60797E-3	-184.164E-12	639.997E-3	-10.7832E-3
-4.50475E-3	-183.989E-12	560.282E-3	-32.0225E-3	-184.337E-12	625.040E-3	-5.14444E-3
-4.50975E-3	-185.465E-12	585.460E-3	-40.5480E-3	-185.767E-12	616.154E-3	-21.1287E-3
-4.51476E-3	-188.675E-12	601.257E-3	-17.5221E-3	-185.820E-12	602.882E-3	-3.61354E-3
-4.51976E-3	-189.306E-12	598.673E-3	-30.2709E-3	-186.670E-12	612.826E-3	35.3568E-3
-4.52476E-3	-189.714E-12	627.419E-3	-16.9825E-3	-185.957E-12	641.273E-3	30.1416E-3
-4.52976E-3	-186.543E-12	641.197E-3	32.2905E-3	-185.867E-12	621.385E-3	848.545E-6
-4.53477E-3	-187.405E-12	616.342E-3	23.6543E-3	-185.310E-12	573.941E-3	833.453E-6
-4.53977E-3	-188.029E-12	616.628E-3	-8.85347E-3	-184.880E-12	551.449E-3	17.9338E-3
-4.54477E-3	-187.591E-12	626.528E-3	-11.1760E-3	-183.727E-12	556.542E-3	32.2226E-3
-4.54977E-3	-185.863E-12	622.194E-3	-13.1458E-3	-182.427E-12	590.075E-3	41.9384E-3
-4.55478E-3	-185.072E-12	639.219E-3	-26.7030E-3	-182.848E-12	625.663E-3	37.7585E-3
-4.55978E-3	-186.642E-12	675.194E-3	-31.1326E-3	-182.602E-12	618.977E-3	5.32876E-3
-4.56478E-3	-186.489E-12	702.400E-3	-39.0618E-6	-181.260E-12	604.935E-3	-37.9966E-3
-4.56978E-3	-185.707E-12	698.804E-3	10.7977E-3	-179.977E-12	615.570E-3	-36.9480E-3
-4.57479E-3	-185.064E-12	674.733E-3	804.364E-6	-181.190E-12	628.976E-3	-11.2433E-3
-4.57979E-3	-185.777E-12	645.589E-3	6.20190E-3	-184.101E-12	637.182E-3	-17.5030E-3
-4.58479E-3	-186.289E-12	621.974E-3	-3.35522E-3	-184.132E-12	634.872E-3	-30.3932E-3
-4.58979E-3	-186.895E-12	627.679E-3	-2.01482E-3	-184.189E-12	616.941E-3	-20.7883E-3
-4.59480E-3	-188.741E-12	644.349E-3	-8.05025E-3	-184.607E-12	611.056E-3	-10.9493E-3
-4.59980E-3	-188.755E-12	645.501E-3	-6.52267E-3	-186.593E-12	638.158E-3	-310.774E-6
-4.60480E-3	-187.889E-12	652.085E-3	22.5982E-3	-187.423E-12	675.297E-3	27.3218E-3
-4.60980E-3	-188.445E-12	655.779E-3	24.1020E-3	-187.280E-12	681.819E-3	51.7832E-3
-4.61481E-3	-189.303E-12	652.132E-3	17.7301E-3	-187.614E-12	639.220E-3	26.8249E-3
-4.61981E-3	-190.446E-12	647.102E-3	20.0072E-3	-189.669E-12	613.610E-3	-28.4227E-3
-4.62481E-3	-189.084E-12	632.529E-3	-9.00639E-3	-192.012E-12	653.189E-3	-60.0651E-3
-4.62981E-3	-189.026E-12	643.907E-3	-62.7803E-3	-189.346E-12	667.285E-3	-60.5112E-3
-4.63482E-3	-190.783E-12	670.693E-3	-73.2552E-3	-189.824E-12	632.621E-3	-38.8009E-3
-4.63982E-3	-190.240E-12	693.437E-3	-67.9359E-3	-189.819E-12	634.154E-3	-19.2100E-3
-4.64482E-3	-189.255E-12	710.106E-3	-73.4454E-3	-192.580E-12	661.194E-3	-21.6240E-3
-4.64982E-3	-189.331E-12	678.258E-3	-64.8049E-3	-191.458E-12	651.527E-3	-16.0668E-3
-4.65483E-3	-190.564E-12	631.197E-3	-57.4816E-3	-189.354E-12	622.879E-3	-2.82187E-3
-4.65983E-3	-189.985E-12	628.157E-3	-30.0222E-3	-189.799E-12	612.035E-3	-24.6240E-3
-4.66483E-3	-188.676E-12	642.799E-3	-11.2282E-3	-191.543E-12	610.277E-3	-43.8316E-3
-4.66983E-3	-188.773E-12	666.075E-3	-30.8398E-3	-192.273E-12	623.142E-3	-55.8029E-3
-4.67484E-3	-190.199E-12	671.284E-3	-38.7531E-3	-191.950E-12	658.716E-3	-67.2711E-3
-4.67984E-3	-190.968E-12	645.646E-3	-26.6324E-3	-192.852E-12	644.486E-3	-33.1763E-3
-4.68484E-3	-191.178E-12	642.778E-3	-14.4582E-3	-193.371E-12	599.586E-3	11.9906E-3
-4.68984E-3	-192.314E-12	660.066E-3	-4.52094E-3	-194.238E-12	629.937E-3	13.7398E-3
-4.69485E-3	-193.257E-12	662.805E-3	-14.8591E-3	-193.949E-12	650.942E-3	-22.2244E-3
-4.69985E-3	-192.726E-12	644.195E-3	-20.1069E-3	-195.037E-12	627.980E-3	-48.4168E-3
-4.70485E-3	-193.071E-12	619.685E-3	-8.60821E-3	-194.723E-12	637.580E-3	-48.2039E-3
-4.70985E-3	-191.612E-12	617.246E-3	-19.9703E-3	-194.591E-12	638.697E-3	-59.4703E-3
-4.71486E-3	-191.681E-12	631.845E-3	-45.6875E-3	-195.734E-12	640.829E-3	-70.1615E-3
-4.71986E-3	-193.628E-12	640.644E-3	-37.8482E-3	-193.467E-12	650.108E-3	-48.8003E-3
-4.72486E-3	-194.912E-12	653.297E-3	-6.89165E-3	-194.005E-12	627.188E-3	-10.9873E-3
-4.72986E-3	-193.631E-12	646.959E-3	12.0170E-3	-193.133E-12	625.158E-3	13.5923E-3
-4.73487E-3	-192.182E-12	645.873E-3	19.7146E-3	-192.949E-12	647.961E-3	3.19401E-3
-4.73987E-3	-191.706E-12	665.996E-3	9.21962E-3	-192.530E-12	636.761E-3	-10.7664E-3
-4.74487E-3	-192.151E-12	648.907E-3	-17.0221E-3	-195.413E-12	603.844E-3	-3.43491E-3
-4.74988E-3	-191.954E-12	629.693E-3	-45.1293E-3	-195.845E-12	603.499E-3	5.60952E-3
-4.75488E-3	-192.855E-12	634.314E-3	-43.5102E-3	-196.041E-12	624.269E-3	6.20129E-3
-4.75988E-3	-193.447E-12	645.052E-3	-22.6290E-3	-195.489E-12	642.009E-3	6.93667E-3
-4.76488E-3	-194.169E-12	667.675E-3	-12.0175E-3	-195.246E-12	650.000E-3	-4.43134E-3
-4.76988E-3	-194.194E-12	661.621E-3	6.50258E-3	-196.848E-12	630.426E-3	-57.3419E-3
-4.77489E-3	-194.587E-12	619.707E-3	5.71841E-3	-196.759E-12	613.293E-3	-88.6911E-3
-4.77989E-3	-195.170E-12	595.769E-3	-13.4109E-3	-196.643E-12	615.083E-3	-55.2128E-3
-4.78489E-3	-196.436E-12	627.161E-3	-2.49965E-3	-195.940E-12	620.787E-3	-26.5702E-3
-4.78989E-3	-195.223E-12	665.360E-3	21.0765E-3	-196.671E-12	632.865E-3	-26.5380E-3
-4.79490E-3	-193.415E-12	658.411E-3	-17.5890E-3	-196.478E-12	654.148E-3	-23.3815E-3
-4.79990E-3	-194.852E-12	641.294E-3	-77.9284E-3	-198.611E-12	667.328E-3	-12.9156E-3
-4.80490E-3	-197.500E-12	644.346E-3	-60.5700E-3	-196.388E-12	657.177E-3	5.95976E-3
-4.80990E-3	-195.475E-12	664.603E-3	-24.7410E-3	-197.255E-12	636.694E-3	18.0808E-3
-4.81491E-3	-192.651E-12	686.720E-3	-44.3165E-3	-198.912E-12	600.981E-3	9.05993E-3
-4.81991E-3	-193.657E-12	685.673E-3	-78.5169E-3	-199.903E-12	590.374E-3	-11.1476E-3
-4.82491E-3	-196.088E-12	672.632E-3	-65.7208E-3	-198.672E-12	627.251E-3	-37.3595E-3
-4.82991E-3	-195.937E-12	673.068E-3	-47.4330E-3	-196.145E-12	644.641E-3	-34.9472E-3
-4.83492E-3	-195.051E-12	675.557E-3	-35.7095E-3	-197.037E-12	628.839E-3	1.79885E-3
-4.83992E-3	-195.112E-12	672.949E-3	-18.4084E-3	-198.023E-12	627.076E-3	8.02776E-3
-4.84492E-3	-195.247E-12	674.540E-3	-37.0431E-3	-197.945E-12	650.358E-3	-25.5342E-3
-4.84992E-3	-196.316E-12	664.452E-3	-55.1035E-3	-197.656E-12	672.165E-3	-31.1835E-3
-4.85493E-3	-197.707E-12	625.587E-3	-44.1809E-3	-199.897E-12	679.008E-3	16.7582E-6
-4.85993E-3	-197.894E-12	602.628E-3	-14.6853E-3	-201.018E-12	655.286E-3	15.4373E-3
-4.86493E-3	-197.385E-12	638.753E-3	8.84659E-3	-199.898E-12	606.462E-3	-3.34143E-3
-4.86993E-3	-197.566E-12	680.430E-3	7.22008E-3	-200.051E-12	592.240E-3	-18.7627E-3
-4.87494E-3	-200.484E-12	685.960E-3	-12.2730E-3	-198.514E-12	625.458E-3	7.78228E-3
-4.87994E-3	-199.811E-12	661.954E-3	-27.7544E-3	-198.584E-12	656.996E-3	34.0885E-3
-4.88494E-3	-197.660E-12	617.863E-3	-35.4775E-3	-197.819E-12	666.919E-3	22.9423E-3
-4.88995E-3	-197.605E-12	613.697E-3	-40.9627E-3	-198.513E-12	658.084E-3	8.84366E-3
-4.89495E-3	-198.061E-12	653.802E-3	-9.61536E-3	-198.321E-12	633.716E-3	-15.2937E-3
-4.89995E-3	-200.207E-12	632.976E-3	1.93040E-3	-197.280E-12	618.061E-3	-32.7747E-3
-4.90495E-3	-199.768E-12	598.889E-3	-24.7781E-3	-199.966E-12	614.694E-3	-847.517E-6
-4.90995E-3	-198.965E-12	635.526E-3	-18.9940E-3	-199.224E-12	599.115E-3	26.6433E-3
-4.91496E-3	-199.720E-12	651.853E-3	-18.6908E-3	-199.175E-12	585.081E-3	19.2580E-3
-4.91996E-3	-201.153E-12	641.466E-3	-37.4608E-3	-198.500E-12	597.098E-3	7.89492E-3
-4.92496E-3	-201.670E-12	643.704E-3	-30.7251E-3	-201.207E-12	634.455E-3	-1.56404E-3
-4.92996E-3	-202.353E-12	640.153E-3	-18.3292E-3	-201.657E-12	653.924E-3	411.212E-6
-4.93497E-3	-202.164E-12	619.568E-3	-22.6661E-3	-201.758E-12	638.488E-3	6.28913E-3
-4.93997E-3	-203.098E-12	608.878E-3	-37.2327E-3	-202.920E-12	627.675E-3	-739.423E-6
-4.94497E-3	-204.927E-12	632.408E-3	-41.2291E-3	-203.697E-12	632.150E-3	-1.59904E-3
-4.94997E-3	-206.079E-12	646.968E-3	-34.8167E-3	-205.579E-12	645.665E-3	-7.73339E-3
-4.95498E-3	-206.004E-12	647.880E-3	-19.3860E-3	-205.276E-12	659.829E-3	-26.7578E-3
-4.95998E-3	-204.911E-12	635.061E-3	6.70595E-3	-205.876E-12	657.501E-3	-14.9520E-3
-4.96498E-3	-206.474E-12	595.268E-3	18.0311E-3	-206.481E-12	657.198E-3	4.33879E-3
-4.96998E-3	-206.955E-12	576.090E-3	21.8668E-3	-204.064E-12	662.986E-3	-1.78880E-3
-4.97499E-3	-205.851E-12	601.255E-3	-1.66788E-3	-204.887E-12	654.705E-3	-12.2261E-3
-4.97999E-3	-204.560E-12	635.997E-3	-80.4203E-3	-204.157E-12	651.343E-3	-25.1190E-3
-4.98499E-3	-205.729E-12	647.174E-3	-101.369E-3	-205.479E-12	657.689E-3	-26.4055E-3
-4.98999E-3	-205.176E-12	627.191E-3	-31.3587E-3	-203.837E-12	648.130E-3	-28.9578E-3
-4.99500E-3	-204.912E-12	630.392E-3	-7.35318E-3	-204.847E-12	642.629E-3	-32.3699E-3
-5.00000E-3	-203.762E-12	663.541E-3	-28.5358E-3	-203.743E-12	663.206E-3	-30.7656E-3
