Experiment	bias spectroscopy	
Date	19.01.2016 21:24:27	
User		
X (m)	49.6634E-9	
Y (m)	257.107E-9	
Z (m)	-132.565E-9	
Z offset (m)	0E+0	
Settling time (s)	200E-6	
Integration time (s)	5E-3	
Z-Ctrl hold	TRUE	
Final Z (m)	N/A	
Filter type	None	
Order		
Cutoff frq		
Comment01	MnPc/Pb(111)	
Comment02	dz =00pm	
Comment03	7 Sweeps	
Comment04	MagField =0.T	
Comment05	Divider 1:10	
Comment06	Setpoint:5mV,200 pA	
Comment07	Lockin: 50uVrms,5ms,5mV	
Comment08	Gain:9; 912Hz modulation	
Comment09	T=1.06K	
Bias>Bias (V)	5E-3	
Bias>Calibration (V/V)	81.475E-3	
Bias>Offset (V)	1.046E-3	
Bias Spectroscopy>Sweep Start (V)	5E-3	
Bias Spectroscopy>Sweep End (V)	-5E-3	
Bias Spectroscopy>Num Pixel	2000	
Bias Spectroscopy>Z Avg time (s)	500E-3	
Bias Spectroscopy>Z offset (m)	0E+0	
Bias Spectroscopy>1st Settling time (s)	500E-3	
Bias Spectroscopy>Settling time (s)	200E-6	
Bias Spectroscopy>Integration time (s)	5E-3	
Bias Spectroscopy>End Settling time (s)	500E-3	
Bias Spectroscopy>Z control time (s)	500E-3	
Bias Spectroscopy>Max Slew rate (V/s)	Inf	
Bias Spectroscopy>backward sweep	TRUE	
Bias Spectroscopy>Z-controller hold	TRUE	
Bias Spectroscopy>Number of sweeps	7	
Bias Spectroscopy>Channels	Current (A);X% LockIn (V);Y% LockIn (V)	
Bias Spectroscopy>Reset Bias	TRUE	
Bias Spectroscopy>Record final Z	FALSE	
Bias Spectroscopy>Lock-In run	FALSE	
Bias Spectroscopy>Sweep mode	Linear	
Bias Spectroscopy>MultiLine Settings : Segment Start (V), Segment End (V), Settling (s), Integration (s), Steps (xn)	100E-3,3.3E-3,100E-6,10E-3,2500;3.3E-3,-3.3E-3,100E-6,10E-3,10;-3.3E-3,-100E-3,100E-6,10E-3,2500	
Current>Current (A)	200.076E-12	
Current>Calibration (A/V)	999.99900E-12	
Current>Offset (A)	-455.429E-15	
Current>Gain	LN 10^9	
Z-Controller>Z (m)	-132.568E-9	
Z-Controller>Controller name	log Current	
Z-Controller>Controller status	ON	
Z-Controller>Setpoint	200E-12	
Z-Controller>Setpoint unit	A	
Z-Controller>P gain	2.96994E-12	
Z-Controller>I gain	67.0321E-9	
Z-Controller>Time const (s)	44.3062E-6	
Z-Controller>TipLift (m)	0E+0	
Z-Controller>Switch off delay (s)	50E-3	
Current (A)	199.786E-12	
Z (m)	-132.568E-9	

[DATA]
Bias calc (V)	Current (A)	X% LockIn (V)	Y% LockIn (V)	Current [bwd] (A)	X% LockIn [bwd] (V)	Y% LockIn [bwd] (V)
5.00000E-3	200.119E-12	595.188E-3	-8.02192E-3	201.025E-12	669.951E-3	-24.5108E-3
4.99500E-3	201.113E-12	599.569E-3	-10.6418E-3	201.961E-12	619.261E-3	-1.26725E-3
4.98999E-3	201.176E-12	595.893E-3	-22.5300E-3	202.314E-12	577.769E-3	17.2165E-3
4.98499E-3	200.437E-12	599.277E-3	-31.7803E-3	201.845E-12	597.704E-3	-1.39310E-3
4.97999E-3	199.856E-12	614.106E-3	-45.7148E-3	202.582E-12	634.148E-3	-27.4700E-3
4.97499E-3	201.326E-12	625.995E-3	-40.0367E-3	202.184E-12	634.534E-3	-25.7225E-3
4.96998E-3	200.320E-12	627.270E-3	-3.49051E-3	201.594E-12	623.175E-3	-14.5565E-3
4.96498E-3	200.895E-12	618.729E-3	20.7154E-3	201.569E-12	606.532E-3	-21.1098E-3
4.95998E-3	200.615E-12	627.984E-3	15.1633E-3	200.533E-12	582.521E-3	-31.7753E-3
4.95498E-3	199.274E-12	639.465E-3	-5.40096E-3	199.365E-12	584.659E-3	-22.8606E-3
4.94997E-3	199.122E-12	638.058E-3	-22.4048E-3	198.533E-12	601.828E-3	-23.9121E-3
4.94497E-3	199.043E-12	623.403E-3	-18.3989E-3	197.707E-12	597.017E-3	-15.9883E-3
4.93997E-3	197.744E-12	603.591E-3	-16.2356E-3	196.114E-12	586.187E-3	-504.307E-6
4.93497E-3	197.099E-12	619.690E-3	-18.5195E-3	194.842E-12	577.569E-3	-11.2186E-3
4.92996E-3	196.635E-12	652.330E-3	-21.6215E-3	194.642E-12	577.451E-3	-14.3249E-3
4.92496E-3	195.962E-12	646.857E-3	-45.1051E-3	194.342E-12	606.959E-3	2.18061E-3
4.91996E-3	195.355E-12	645.355E-3	-49.1443E-3	194.625E-12	623.427E-3	-15.8658E-3
4.91496E-3	194.939E-12	645.587E-3	-16.0094E-3	194.376E-12	603.144E-3	-51.6735E-3
4.90995E-3	194.616E-12	616.371E-3	9.66703E-3	194.611E-12	595.183E-3	-47.4786E-3
4.90495E-3	194.626E-12	612.617E-3	-5.28757E-3	195.102E-12	631.051E-3	-38.9268E-3
4.89995E-3	195.747E-12	621.811E-3	-33.8524E-3	196.019E-12	662.359E-3	-28.3508E-3
4.89495E-3	195.366E-12	611.361E-3	-33.6133E-3	196.451E-12	647.161E-3	943.386E-6
4.88995E-3	195.947E-12	613.618E-3	-21.8425E-3	197.510E-12	617.963E-3	3.01089E-3
4.88494E-3	196.149E-12	628.480E-3	-21.8629E-3	198.856E-12	589.882E-3	-8.88350E-3
4.87994E-3	197.763E-12	633.684E-3	-21.0118E-3	198.600E-12	581.105E-3	-11.2804E-3
4.87494E-3	197.331E-12	629.810E-3	-23.7750E-3	198.851E-12	594.875E-3	-29.4872E-3
4.86993E-3	197.695E-12	640.581E-3	-40.5877E-3	199.688E-12	596.619E-3	-46.3527E-3
4.86493E-3	197.691E-12	654.446E-3	-47.9812E-3	199.251E-12	596.259E-3	-31.3024E-3
4.85993E-3	197.507E-12	641.836E-3	-39.8045E-3	198.158E-12	600.350E-3	-21.9232E-3
4.85493E-3	197.150E-12	620.905E-3	-38.4095E-3	197.238E-12	600.787E-3	-40.3297E-3
4.84992E-3	196.548E-12	628.188E-3	-20.8898E-3	196.161E-12	626.796E-3	-31.5755E-3
4.84492E-3	196.131E-12	647.929E-3	20.4883E-3	194.367E-12	651.202E-3	-11.6585E-3
4.83992E-3	194.803E-12	637.110E-3	32.0139E-3	192.856E-12	630.225E-3	-30.5700E-3
4.83492E-3	193.953E-12	603.993E-3	18.2911E-3	191.478E-12	615.642E-3	-40.2056E-3
4.82991E-3	192.856E-12	597.281E-3	19.4903E-3	190.066E-12	623.508E-3	-21.3891E-3
4.82491E-3	191.713E-12	626.106E-3	7.72396E-3	189.501E-12	640.448E-3	-14.4004E-3
4.81991E-3	191.380E-12	626.884E-3	-33.3641E-3	189.340E-12	649.802E-3	-19.0963E-3
4.81491E-3	190.750E-12	586.852E-3	-67.7480E-3	189.317E-12	626.609E-3	-335.197E-6
4.80990E-3	190.972E-12	554.052E-3	-66.1396E-3	188.797E-12	609.863E-3	-2.32300E-3
4.80490E-3	190.718E-12	550.496E-3	-46.4694E-3	189.513E-12	601.956E-3	-43.0046E-3
4.79990E-3	190.857E-12	599.688E-3	-40.9492E-3	189.468E-12	606.196E-3	-42.3033E-3
4.79490E-3	189.787E-12	651.190E-3	-61.7817E-3	190.134E-12	626.325E-3	-15.5362E-3
4.78989E-3	190.220E-12	663.690E-3	-72.4622E-3	190.752E-12	634.098E-3	-7.66237E-3
4.78489E-3	190.317E-12	649.331E-3	-38.4813E-3	191.442E-12	641.035E-3	-16.1022E-3
4.77989E-3	191.081E-12	624.263E-3	-90.2099E-6	192.533E-12	644.984E-3	-25.0177E-3
4.77489E-3	191.162E-12	614.917E-3	6.81075E-3	193.468E-12	645.090E-3	-33.1267E-3
4.76988E-3	192.912E-12	622.634E-3	2.77685E-3	193.501E-12	642.769E-3	-39.5990E-3
4.76488E-3	193.064E-12	626.642E-3	-9.41590E-3	193.950E-12	642.084E-3	-24.8535E-3
4.75988E-3	192.988E-12	620.384E-3	-17.5321E-3	193.144E-12	653.769E-3	-7.62880E-3
4.75488E-3	193.526E-12	632.837E-3	-10.3317E-3	192.176E-12	646.588E-3	-143.607E-6
4.74988E-3	193.318E-12	639.117E-3	-12.1486E-3	192.352E-12	609.294E-3	-4.95637E-3
4.74487E-3	192.487E-12	631.011E-3	-25.5072E-3	191.686E-12	586.076E-3	-21.7973E-3
4.73987E-3	192.490E-12	609.571E-3	-25.0133E-3	189.440E-12	597.092E-3	-29.5955E-3
4.73487E-3	191.778E-12	598.700E-3	-20.9626E-3	189.514E-12	612.864E-3	-31.8288E-3
4.72986E-3	190.520E-12	629.248E-3	-28.2209E-3	188.627E-12	612.821E-3	-34.4784E-3
4.72486E-3	190.459E-12	650.328E-3	-13.9098E-3	188.056E-12	610.206E-3	-27.8060E-3
4.71986E-3	189.769E-12	649.859E-3	-12.2402E-3	187.658E-12	614.103E-3	-30.3742E-3
4.71486E-3	188.422E-12	636.872E-3	-44.7749E-3	187.510E-12	602.529E-3	-32.7946E-3
4.70985E-3	187.491E-12	625.744E-3	-62.0834E-3	187.013E-12	586.828E-3	-6.48035E-3
4.70485E-3	187.188E-12	648.930E-3	-39.4365E-3	187.085E-12	584.473E-3	11.1220E-3
4.69985E-3	186.831E-12	663.355E-3	4.66905E-3	186.786E-12	584.108E-3	-2.38549E-3
4.69485E-3	185.582E-12	642.302E-3	6.30510E-3	187.331E-12	614.730E-3	-1.64622E-3
4.68984E-3	186.204E-12	640.576E-3	-21.4099E-3	188.096E-12	657.420E-3	13.8458E-3
4.68484E-3	185.931E-12	639.798E-3	-23.9396E-3	187.810E-12	663.352E-3	9.67136E-3
4.67984E-3	185.799E-12	611.316E-3	-14.8557E-3	188.708E-12	652.198E-3	-273.970E-6
4.67484E-3	186.201E-12	591.564E-3	1.62895E-3	189.185E-12	644.072E-3	-6.38886E-3
4.66983E-3	187.236E-12	589.552E-3	29.6059E-3	189.087E-12	652.230E-3	-23.3023E-3
4.66483E-3	186.677E-12	582.021E-3	13.8491E-3	188.921E-12	666.211E-3	-54.5010E-3
4.65983E-3	187.669E-12	587.017E-3	-20.3218E-3	188.982E-12	662.113E-3	-62.9488E-3
4.65483E-3	188.705E-12	595.777E-3	-25.8371E-3	188.319E-12	645.178E-3	-43.9542E-3
4.64982E-3	188.272E-12	592.440E-3	-38.6535E-3	188.467E-12	635.651E-3	-42.4335E-3
4.64482E-3	188.423E-12	622.910E-3	-36.3944E-3	186.873E-12	635.177E-3	-38.8352E-3
4.63982E-3	188.392E-12	652.833E-3	-17.4695E-3	186.793E-12	637.039E-3	-5.06950E-3
4.63482E-3	187.199E-12	644.172E-3	-22.7854E-3	185.755E-12	629.345E-3	35.7438E-3
4.62981E-3	187.009E-12	626.009E-3	-32.0259E-3	184.537E-12	603.804E-3	23.8318E-3
4.62481E-3	186.870E-12	632.556E-3	-29.4258E-3	182.809E-12	579.323E-3	-45.1723E-3
4.61981E-3	185.009E-12	651.839E-3	-20.3208E-3	183.487E-12	568.948E-3	-50.0071E-3
4.61481E-3	184.367E-12	649.529E-3	-9.56067E-3	182.429E-12	574.064E-3	10.1937E-3
4.60980E-3	184.096E-12	625.946E-3	-9.61828E-3	181.033E-12	572.886E-3	13.7776E-3
4.60480E-3	182.706E-12	591.979E-3	-1.35265E-3	181.088E-12	575.640E-3	-25.3637E-3
4.59980E-3	181.768E-12	579.896E-3	-4.86212E-3	181.693E-12	603.796E-3	-29.6464E-3
4.59480E-3	181.194E-12	598.559E-3	-13.1259E-3	180.970E-12	625.327E-3	-24.9819E-3
4.58979E-3	180.977E-12	619.520E-3	1.78928E-3	181.573E-12	629.809E-3	-40.4918E-3
4.58479E-3	180.811E-12	629.494E-3	2.43908E-3	182.681E-12	622.959E-3	-39.8387E-3
4.57979E-3	180.993E-12	625.635E-3	-6.55679E-3	183.112E-12	595.762E-3	-25.7140E-3
4.57479E-3	180.299E-12	615.453E-3	-7.92597E-3	182.599E-12	587.242E-3	-16.3934E-3
4.56978E-3	180.985E-12	613.134E-3	-8.79515E-3	183.408E-12	618.510E-3	-6.97599E-3
4.56478E-3	181.390E-12	619.829E-3	-22.9995E-3	183.360E-12	642.304E-3	-9.10835E-3
4.55978E-3	182.431E-12	628.774E-3	-34.6236E-3	183.356E-12	640.648E-3	-33.3212E-3
4.55478E-3	182.343E-12	636.804E-3	-16.6986E-3	183.404E-12	636.756E-3	-58.1024E-3
4.54977E-3	182.804E-12	626.871E-3	18.0716E-3	184.080E-12	622.793E-3	-59.0710E-3
4.54477E-3	183.074E-12	602.810E-3	13.8382E-3	182.402E-12	624.867E-3	-36.9804E-3
4.53977E-3	183.417E-12	605.733E-3	-27.8714E-3	182.589E-12	656.348E-3	-31.1413E-3
4.53477E-3	183.293E-12	637.345E-3	-30.5473E-3	182.407E-12	649.422E-3	-38.4976E-3
4.52976E-3	182.712E-12	663.804E-3	-66.0658E-6	182.030E-12	611.702E-3	-15.7711E-3
4.52476E-3	182.258E-12	668.509E-3	13.7621E-3	179.904E-12	604.444E-3	12.1629E-3
4.51976E-3	181.928E-12	643.089E-3	7.85654E-3	179.422E-12	616.201E-3	17.2698E-3
4.51476E-3	181.272E-12	615.407E-3	-3.13484E-3	179.388E-12	616.346E-3	2.44618E-3
4.50975E-3	180.509E-12	628.654E-3	-10.4512E-3	178.666E-12	604.105E-3	-1.31717E-3
4.50475E-3	179.894E-12	634.649E-3	-1.08775E-3	178.635E-12	575.927E-3	17.2825E-3
4.49975E-3	179.254E-12	612.639E-3	7.67210E-3	178.846E-12	564.148E-3	30.8237E-3
4.49475E-3	179.050E-12	611.243E-3	-371.337E-6	178.715E-12	584.047E-3	19.9019E-3
4.48974E-3	178.659E-12	611.699E-3	-7.09480E-3	179.065E-12	589.568E-3	1.72561E-3
4.48474E-3	178.209E-12	590.920E-3	8.42162E-3	179.596E-12	581.005E-3	4.20581E-3
4.47974E-3	177.281E-12	575.126E-3	23.4375E-3	180.261E-12	598.595E-3	4.76563E-3
4.47474E-3	177.367E-12	593.265E-3	20.6233E-3	179.693E-12	632.277E-3	-18.4656E-3
4.46973E-3	178.035E-12	636.404E-3	2.95001E-3	181.426E-12	636.501E-3	-41.5600E-3
4.46473E-3	177.536E-12	653.194E-3	-36.7426E-3	181.739E-12	630.437E-3	-36.0939E-3
4.45973E-3	177.962E-12	655.042E-3	-56.6574E-3	181.005E-12	636.523E-3	-13.2065E-3
4.45473E-3	178.550E-12	663.930E-3	-46.2477E-3	181.974E-12	635.794E-3	3.65352E-3
4.44972E-3	178.722E-12	673.285E-3	-37.2225E-3	181.812E-12	632.346E-3	-7.86898E-3
4.44472E-3	179.495E-12	685.789E-3	-15.4795E-3	180.066E-12	618.819E-3	-49.0222E-3
4.43972E-3	179.707E-12	676.848E-3	4.48174E-3	180.065E-12	619.120E-3	-57.0883E-3
4.43472E-3	177.228E-12	661.407E-3	-17.2018E-3	179.130E-12	663.643E-3	-28.3256E-3
4.42971E-3	178.401E-12	648.558E-3	-22.9819E-3	177.513E-12	672.167E-3	-7.49802E-3
4.42471E-3	179.026E-12	628.882E-3	9.59163E-3	176.996E-12	619.495E-3	8.11194E-3
4.41971E-3	178.021E-12	619.209E-3	30.1249E-3	175.536E-12	599.175E-3	2.65294E-3
4.41471E-3	177.744E-12	610.544E-3	19.1586E-3	173.674E-12	604.930E-3	-20.3960E-3
4.40970E-3	177.496E-12	608.864E-3	2.88581E-3	173.520E-12	574.461E-3	-21.2897E-3
4.40470E-3	176.446E-12	614.798E-3	5.83353E-3	173.251E-12	547.864E-3	-2.69863E-3
4.39970E-3	175.289E-12	614.627E-3	13.6716E-3	172.323E-12	567.656E-3	2.91478E-3
4.39470E-3	174.957E-12	620.782E-3	23.6262E-3	171.975E-12	599.073E-3	-13.3554E-3
4.38969E-3	173.259E-12	624.073E-3	8.97611E-3	172.618E-12	630.067E-3	-7.20124E-3
4.38469E-3	173.328E-12	622.722E-3	-33.1322E-3	172.585E-12	653.262E-3	8.93167E-3
4.37969E-3	172.675E-12	613.605E-3	-41.1149E-3	173.605E-12	646.643E-3	1.54341E-3
4.37469E-3	171.908E-12	589.691E-3	-16.6534E-3	174.040E-12	626.988E-3	3.51100E-3
4.36968E-3	172.357E-12	597.127E-3	-14.8543E-3	174.428E-12	620.598E-3	-1.31960E-3
4.36468E-3	173.031E-12	630.306E-3	-23.2347E-3	174.721E-12	624.643E-3	-21.4903E-3
4.35968E-3	173.270E-12	619.818E-3	-26.4060E-3	175.483E-12	634.785E-3	-23.2380E-3
4.35468E-3	172.889E-12	600.367E-3	-25.7984E-3	176.491E-12	641.351E-3	-21.7138E-3
4.34967E-3	173.359E-12	628.723E-3	-18.0162E-3	175.366E-12	624.604E-3	-33.3003E-3
4.34467E-3	172.522E-12	636.747E-3	-20.8939E-3	174.643E-12	609.385E-3	-50.4990E-3
4.33967E-3	172.681E-12	631.575E-3	-33.0406E-3	174.813E-12	617.565E-3	-54.8396E-3
4.33467E-3	173.359E-12	659.004E-3	-17.6785E-3	174.019E-12	636.140E-3	-34.0216E-3
4.32966E-3	173.079E-12	665.114E-3	8.95922E-3	173.025E-12	642.260E-3	-4.40036E-3
4.32466E-3	172.652E-12	634.969E-3	-5.95513E-3	172.934E-12	627.665E-3	-6.14462E-3
4.31966E-3	173.715E-12	624.203E-3	-12.7141E-3	171.754E-12	617.068E-3	-48.9398E-3
4.31466E-3	173.484E-12	632.039E-3	2.46852E-3	170.583E-12	628.704E-3	-63.1831E-3
4.30965E-3	172.611E-12	646.439E-3	-12.2652E-3	170.043E-12	658.291E-3	-35.5941E-3
4.30465E-3	172.535E-12	659.038E-3	-24.3453E-3	169.547E-12	656.527E-3	-23.7875E-3
4.29965E-3	172.278E-12	627.648E-3	7.90839E-6	169.119E-12	635.309E-3	-16.0066E-3
4.29465E-3	171.418E-12	593.509E-3	1.63815E-3	168.786E-12	644.488E-3	2.98553E-3
4.28964E-3	171.118E-12	606.576E-3	-28.7863E-3	168.991E-12	642.471E-3	11.2380E-3
4.28464E-3	170.834E-12	643.284E-3	-25.6498E-3	169.892E-12	625.637E-3	17.0394E-3
4.27964E-3	170.583E-12	651.865E-3	-7.60775E-3	169.320E-12	620.630E-3	23.3887E-3
4.27464E-3	169.996E-12	630.245E-3	-6.74164E-3	169.908E-12	621.182E-3	6.14830E-3
4.26963E-3	168.437E-12	614.269E-3	-11.3717E-3	171.171E-12	611.138E-3	-31.1106E-3
4.26463E-3	169.260E-12	604.154E-3	-31.1673E-3	171.386E-12	603.495E-3	-55.7267E-3
4.25963E-3	169.288E-12	609.947E-3	-52.1614E-3	171.562E-12	611.851E-3	-51.7008E-3
4.25463E-3	168.630E-12	625.253E-3	-56.6355E-3	171.890E-12	613.904E-3	-33.3195E-3
4.24962E-3	168.708E-12	616.557E-3	-45.3276E-3	171.625E-12	624.903E-3	-32.5326E-3
4.24462E-3	169.023E-12	612.257E-3	-20.5036E-3	171.453E-12	640.054E-3	-35.3081E-3
4.23962E-3	168.886E-12	642.007E-3	-5.13602E-3	170.819E-12	638.092E-3	-23.7037E-3
4.23462E-3	169.401E-12	662.118E-3	-2.75606E-3	171.039E-12	659.668E-3	-20.8072E-3
4.22961E-3	169.634E-12	651.241E-3	-25.0760E-3	170.197E-12	683.718E-3	-22.0393E-3
4.22461E-3	170.082E-12	633.708E-3	-60.5611E-3	169.260E-12	654.838E-3	-16.3161E-3
4.21961E-3	169.301E-12	634.003E-3	-73.5500E-3	168.525E-12	608.961E-3	7.52252E-3
4.21461E-3	169.795E-12	653.811E-3	-57.7195E-3	168.117E-12	593.876E-3	25.0065E-3
4.20960E-3	169.063E-12	652.248E-3	-36.5532E-3	166.514E-12	612.373E-3	13.2952E-3
4.20460E-3	168.691E-12	627.338E-3	-44.6946E-3	166.000E-12	626.959E-3	7.43964E-3
4.19960E-3	168.599E-12	632.218E-3	-52.6789E-3	165.913E-12	625.173E-3	5.52921E-3
4.19460E-3	168.417E-12	640.324E-3	-41.5670E-3	165.090E-12	627.216E-3	6.99867E-3
4.18959E-3	167.141E-12	640.861E-3	-40.0927E-3	164.899E-12	618.395E-3	18.4870E-3
4.18459E-3	167.030E-12	674.576E-3	-55.2813E-3	164.691E-12	603.148E-3	6.94509E-3
4.17959E-3	166.288E-12	693.559E-3	-57.7186E-3	164.984E-12	612.194E-3	-24.5452E-3
4.17459E-3	165.427E-12	680.814E-3	-40.6731E-3	165.618E-12	635.749E-3	-26.8398E-3
4.16958E-3	165.083E-12	662.831E-3	-17.5468E-3	165.776E-12	647.125E-3	-13.4172E-3
4.16458E-3	165.643E-12	660.135E-3	-2.83972E-3	166.193E-12	629.979E-3	-16.6705E-3
4.15958E-3	164.401E-12	670.671E-3	-3.21390E-3	167.071E-12	621.435E-3	-23.5545E-3
4.15458E-3	165.029E-12	655.125E-3	-14.2080E-3	167.473E-12	644.743E-3	-35.3696E-3
4.14957E-3	164.844E-12	639.647E-3	-27.9031E-3	167.299E-12	655.355E-3	-45.2593E-3
4.14457E-3	164.741E-12	639.906E-3	-21.6365E-3	167.982E-12	642.041E-3	-36.1746E-3
4.13957E-3	164.462E-12	630.695E-3	-5.01053E-3	167.900E-12	630.918E-3	-20.1772E-3
4.13457E-3	165.127E-12	632.498E-3	12.7738E-3	167.638E-12	637.328E-3	-6.38779E-3
4.12956E-3	164.808E-12	635.909E-3	19.6110E-3	167.751E-12	654.537E-3	26.0656E-3
4.12456E-3	164.404E-12	639.867E-3	3.21467E-3	167.826E-12	668.307E-3	53.1240E-3
4.11956E-3	164.967E-12	655.592E-3	-2.35550E-3	165.542E-12	648.678E-3	16.2385E-3
4.11456E-3	165.022E-12	643.104E-3	15.2493E-3	164.793E-12	602.827E-3	-43.8132E-3
4.10955E-3	163.851E-12	630.524E-3	16.7094E-3	164.034E-12	591.510E-3	-45.9023E-3
4.10455E-3	163.989E-12	655.067E-3	3.17555E-3	162.850E-12	595.148E-3	-19.3275E-3
4.09955E-3	164.080E-12	662.143E-3	-1.71907E-3	161.605E-12	582.325E-3	-11.9510E-3
4.09455E-3	162.699E-12	642.589E-3	-11.3945E-3	161.355E-12	595.505E-3	-5.12915E-3
4.08954E-3	162.305E-12	637.257E-3	-11.7065E-3	160.817E-12	622.635E-3	-3.17260E-3
4.08454E-3	162.175E-12	632.752E-3	9.22714E-3	159.973E-12	622.451E-3	-18.1993E-3
4.07954E-3	161.718E-12	624.618E-3	14.5332E-3	160.926E-12	611.575E-3	-17.2802E-3
4.07454E-3	160.984E-12	622.419E-3	-11.2995E-3	160.428E-12	607.948E-3	3.00431E-3
4.06953E-3	161.099E-12	613.011E-3	-26.0198E-3	161.320E-12	603.676E-3	16.3827E-3
4.06453E-3	161.210E-12	597.351E-3	-42.0056E-3	161.863E-12	608.203E-3	26.8039E-3
4.05953E-3	160.998E-12	594.133E-3	-58.8553E-3	162.434E-12	614.928E-3	17.9121E-3
4.05453E-3	160.672E-12	603.578E-3	-35.7269E-3	162.967E-12	616.085E-3	-5.87422E-3
4.04952E-3	161.519E-12	611.779E-3	-12.4066E-3	163.961E-12	638.246E-3	-6.43489E-3
4.04452E-3	161.020E-12	621.892E-3	-15.3080E-3	163.682E-12	635.748E-3	6.92838E-3
4.03952E-3	160.829E-12	614.794E-3	-29.5343E-3	163.530E-12	606.911E-3	19.4681E-3
4.03452E-3	161.148E-12	605.328E-3	-29.3283E-3	163.194E-12	607.437E-3	10.1438E-3
4.02951E-3	160.615E-12	639.418E-3	-12.8746E-3	162.108E-12	622.947E-3	-43.2472E-3
4.02451E-3	160.126E-12	661.479E-3	1.27000E-3	161.379E-12	622.152E-3	-57.2814E-3
4.01951E-3	161.057E-12	627.940E-3	675.293E-6	160.355E-12	601.581E-3	-6.54390E-3
4.01451E-3	161.010E-12	608.219E-3	-15.3572E-3	159.134E-12	593.913E-3	4.37114E-3
4.00950E-3	160.198E-12	630.167E-3	-20.9072E-3	157.969E-12	604.135E-3	-24.3483E-3
4.00450E-3	160.270E-12	654.673E-3	-15.2230E-3	156.775E-12	623.602E-3	-34.3767E-3
3.99950E-3	159.592E-12	665.367E-3	4.55636E-3	156.097E-12	623.812E-3	-33.5151E-3
3.99450E-3	158.532E-12	655.286E-3	32.6543E-3	155.392E-12	594.153E-3	-21.1943E-3
3.98949E-3	157.845E-12	620.005E-3	27.4504E-3	154.403E-12	577.940E-3	6.83136E-3
3.98449E-3	156.999E-12	610.820E-3	-4.08424E-3	153.695E-12	599.168E-3	-5.56146E-3
3.97949E-3	157.019E-12	637.899E-3	-11.1997E-3	153.671E-12	630.984E-3	-52.9029E-3
3.97449E-3	156.740E-12	647.093E-3	-5.33893E-3	154.537E-12	656.670E-3	-52.6612E-3
3.96948E-3	156.221E-12	650.797E-3	-13.6722E-3	155.454E-12	683.991E-3	-27.8013E-3
3.96448E-3	157.023E-12	644.671E-3	-5.63353E-3	156.071E-12	687.139E-3	-17.7514E-3
3.95948E-3	157.204E-12	614.649E-3	20.7592E-3	156.249E-12	654.848E-3	-3.56615E-3
3.95448E-3	156.972E-12	612.494E-3	14.0146E-3	157.227E-12	627.462E-3	-2.40451E-3
3.94947E-3	156.581E-12	625.888E-3	-751.038E-6	158.729E-12	612.992E-3	-16.6653E-3
3.94447E-3	157.326E-12	612.492E-3	3.95050E-3	158.287E-12	621.672E-3	-20.8469E-3
3.93947E-3	156.631E-12	613.773E-3	-9.69034E-3	158.529E-12	635.478E-3	-23.9892E-3
3.93447E-3	156.285E-12	629.105E-3	-16.4721E-3	158.957E-12	617.518E-3	-31.4636E-3
3.92946E-3	156.591E-12	618.486E-3	-3.44416E-3	159.558E-12	606.726E-3	-23.8335E-3
3.92446E-3	156.969E-12	622.320E-3	-20.0216E-3	158.738E-12	636.194E-3	-25.5494E-3
3.91946E-3	156.346E-12	646.960E-3	-45.1964E-3	158.663E-12	659.311E-3	-41.4343E-3
3.91446E-3	156.770E-12	639.360E-3	-39.8019E-3	158.638E-12	642.196E-3	-36.3538E-3
3.90945E-3	155.898E-12	613.811E-3	-42.3181E-3	157.432E-12	631.626E-3	-24.1146E-3
3.90445E-3	155.457E-12	609.300E-3	-53.8370E-3	156.646E-12	634.608E-3	-17.3292E-3
3.89945E-3	155.377E-12	618.913E-3	-32.7466E-3	156.617E-12	638.208E-3	9.45618E-3
3.89445E-3	154.708E-12	624.110E-3	-2.48549E-3	155.531E-12	643.381E-3	39.3675E-3
3.88944E-3	154.702E-12	616.449E-3	5.32527E-3	154.242E-12	626.203E-3	36.2644E-3
3.88444E-3	154.258E-12	597.986E-3	-3.55930E-3	154.398E-12	611.275E-3	11.2082E-3
3.87944E-3	154.095E-12	603.976E-3	-27.7217E-3	154.248E-12	626.798E-3	-24.6850E-3
3.87444E-3	154.085E-12	631.312E-3	-39.3006E-3	153.700E-12	634.813E-3	-47.8697E-3
3.86943E-3	153.498E-12	647.028E-3	-28.1907E-3	152.764E-12	627.848E-3	-36.3557E-3
3.86443E-3	152.990E-12	640.848E-3	-14.3793E-3	152.891E-12	637.705E-3	-18.9544E-3
3.85943E-3	153.566E-12	620.178E-3	-1.28794E-3	153.084E-12	643.004E-3	-27.2099E-3
3.85443E-3	152.462E-12	601.684E-3	-15.4060E-3	153.079E-12	640.978E-3	-34.6276E-3
3.84942E-3	151.716E-12	601.380E-3	-42.3974E-3	153.464E-12	663.147E-3	-21.8427E-3
3.84442E-3	151.767E-12	620.022E-3	-40.6346E-3	154.223E-12	682.898E-3	-30.1868E-3
3.83942E-3	152.597E-12	620.751E-3	-22.6797E-3	154.077E-12	664.428E-3	-46.6847E-3
3.83442E-3	152.515E-12	617.401E-3	-5.51434E-3	154.884E-12	623.138E-3	-34.2449E-3
3.82941E-3	151.346E-12	637.540E-3	1.33925E-3	155.132E-12	620.425E-3	-11.9452E-3
3.82441E-3	152.129E-12	641.345E-3	-3.34235E-3	154.524E-12	642.267E-3	-5.34443E-3
3.81941E-3	151.610E-12	619.805E-3	-8.21485E-3	154.654E-12	635.880E-3	-4.33193E-3
3.81441E-3	151.071E-12	615.804E-3	-20.9714E-3	154.190E-12	626.657E-3	14.4189E-3
3.80940E-3	151.905E-12	610.800E-3	-26.8295E-3	153.846E-12	612.802E-3	22.6396E-3
3.80440E-3	152.078E-12	601.441E-3	-32.6503E-3	152.667E-12	591.925E-3	-6.24202E-3
3.79940E-3	151.780E-12	620.577E-3	-46.7010E-3	151.114E-12	587.772E-3	-36.7467E-3
3.79440E-3	152.242E-12	645.350E-3	-27.5942E-3	150.188E-12	597.516E-3	-34.7111E-3
3.78939E-3	152.080E-12	650.352E-3	-5.93501E-3	148.790E-12	609.937E-3	-24.2536E-3
3.78439E-3	151.972E-12	644.387E-3	-7.22051E-3	148.098E-12	614.164E-3	-38.7020E-3
3.77939E-3	150.949E-12	644.740E-3	-2.73084E-3	146.800E-12	603.735E-3	-50.5178E-3
3.77439E-3	150.480E-12	634.364E-3	-6.15523E-3	146.046E-12	579.289E-3	-34.1684E-3
3.76938E-3	149.250E-12	619.942E-3	-22.1808E-3	145.492E-12	574.760E-3	-27.2859E-3
3.76438E-3	147.772E-12	627.461E-3	-28.2737E-3	145.571E-12	597.972E-3	-31.7229E-3
3.75938E-3	147.450E-12	638.534E-3	-16.8367E-3	144.930E-12	601.607E-3	-29.8866E-3
3.75438E-3	146.371E-12	642.600E-3	-4.71817E-3	145.169E-12	592.846E-3	-38.7693E-3
3.74937E-3	145.118E-12	641.213E-3	-8.59042E-3	145.154E-12	595.741E-3	-46.2561E-3
3.74437E-3	145.345E-12	629.529E-3	-11.8105E-3	145.855E-12	609.894E-3	-45.5522E-3
3.73937E-3	145.460E-12	626.096E-3	-7.47552E-3	146.664E-12	639.332E-3	-31.1715E-3
3.73437E-3	145.104E-12	631.998E-3	-4.55664E-3	146.802E-12	664.778E-3	-11.7761E-3
3.72936E-3	146.054E-12	614.906E-3	3.24022E-3	147.578E-12	652.083E-3	-18.3548E-3
3.72436E-3	145.894E-12	598.533E-3	2.61523E-3	148.659E-12	617.990E-3	-34.0139E-3
3.71936E-3	146.574E-12	604.355E-3	-25.1331E-3	148.706E-12	612.634E-3	-33.1505E-3
3.71436E-3	147.045E-12	605.524E-3	-56.7088E-3	147.923E-12	640.057E-3	-11.2438E-3
3.70935E-3	147.504E-12	597.083E-3	-57.2280E-3	148.772E-12	674.497E-3	959.996E-6
3.70435E-3	147.696E-12	604.062E-3	-18.2354E-3	147.762E-12	677.256E-3	-21.5976E-3
3.69935E-3	148.505E-12	631.002E-3	6.78293E-3	147.262E-12	642.818E-3	-48.0502E-3
3.69435E-3	149.033E-12	655.725E-3	-18.1644E-3	146.636E-12	624.498E-3	-40.2129E-3
3.68934E-3	147.985E-12	656.346E-3	-30.8112E-3	145.109E-12	619.785E-3	-22.1066E-3
3.68434E-3	147.714E-12	639.738E-3	-14.0465E-3	144.459E-12	603.533E-3	-20.0673E-3
3.67934E-3	147.394E-12	648.162E-3	-11.6099E-3	143.704E-12	604.325E-3	-5.18664E-3
3.67434E-3	146.032E-12	663.304E-3	-13.8477E-3	143.237E-12	612.251E-3	3.26706E-3
3.66933E-3	144.547E-12	649.501E-3	-14.1656E-3	142.548E-12	624.239E-3	-6.21906E-3
3.66433E-3	144.552E-12	645.819E-3	-19.7653E-3	142.986E-12	653.485E-3	-2.00727E-3
3.65933E-3	143.343E-12	658.203E-3	-12.4517E-3	142.336E-12	661.281E-3	-15.5109E-3
3.65433E-3	142.767E-12	657.220E-3	2.79187E-3	142.669E-12	651.008E-3	-45.1532E-3
3.64932E-3	142.572E-12	652.519E-3	-4.56917E-3	143.557E-12	665.942E-3	-42.1228E-3
3.64432E-3	142.390E-12	634.911E-3	-12.6500E-3	144.004E-12	682.465E-3	-23.0709E-3
3.63932E-3	142.160E-12	608.043E-3	-9.09685E-3	145.293E-12	661.486E-3	-16.0635E-3
3.63432E-3	142.722E-12	593.167E-3	-24.8155E-3	145.172E-12	633.825E-3	-7.11572E-3
3.62931E-3	142.968E-12	595.455E-3	-43.8835E-3	146.098E-12	624.444E-3	5.76096E-3
3.62431E-3	143.634E-12	604.226E-3	-52.6251E-3	146.087E-12	630.170E-3	-11.4316E-3
3.61931E-3	143.684E-12	606.184E-3	-45.9089E-3	146.666E-12	649.919E-3	-42.4211E-3
3.61431E-3	143.798E-12	620.991E-3	-16.8684E-3	146.756E-12	654.383E-3	-39.0792E-3
3.60930E-3	144.658E-12	654.035E-3	364.510E-6	146.489E-12	644.686E-3	-6.40737E-3
3.60430E-3	144.913E-12	680.814E-3	-20.8408E-3	144.407E-12	637.309E-3	14.4553E-3
3.59930E-3	144.180E-12	695.487E-3	-28.2333E-3	143.596E-12	623.578E-3	-3.82105E-3
3.59430E-3	144.385E-12	687.722E-3	-15.0452E-3	143.149E-12	620.812E-3	-15.8608E-3
3.58929E-3	144.348E-12	653.617E-3	-31.4073E-3	142.126E-12	638.023E-3	-18.7765E-3
3.58429E-3	143.306E-12	649.174E-3	-46.6639E-3	140.252E-12	641.300E-3	-36.8056E-3
3.57929E-3	142.629E-12	671.129E-3	-45.9503E-3	140.585E-12	621.973E-3	-30.3853E-3
3.57429E-3	141.669E-12	675.741E-3	-41.5662E-3	139.955E-12	616.200E-3	-17.0240E-3
3.56928E-3	140.575E-12	667.550E-3	-31.7664E-3	138.842E-12	631.052E-3	-22.0797E-3
3.56428E-3	140.622E-12	658.017E-3	-23.0819E-3	139.428E-12	645.068E-3	-12.2956E-3
3.55928E-3	139.251E-12	644.771E-3	-27.4907E-3	139.508E-12	643.453E-3	21.2058E-3
3.55428E-3	138.469E-12	638.179E-3	-34.8332E-3	139.084E-12	640.313E-3	42.1502E-3
3.54927E-3	137.827E-12	652.029E-3	-11.2547E-3	139.209E-12	642.306E-3	25.8282E-3
3.54427E-3	137.754E-12	664.251E-3	1.00313E-3	139.763E-12	634.844E-3	-5.51214E-3
3.53927E-3	137.545E-12	669.054E-3	-27.8170E-3	139.334E-12	622.983E-3	-18.6868E-3
3.53427E-3	136.898E-12	662.038E-3	-31.8342E-3	139.583E-12	621.498E-3	-20.8502E-3
3.52926E-3	136.806E-12	644.798E-3	-16.9857E-3	139.924E-12	631.788E-3	-23.7594E-3
3.52426E-3	137.052E-12	640.955E-3	-26.0997E-3	139.922E-12	638.877E-3	-21.7257E-3
3.51926E-3	137.813E-12	654.308E-3	-24.3309E-3	139.886E-12	632.054E-3	-28.7579E-3
3.51426E-3	137.723E-12	667.500E-3	-22.7881E-3	140.327E-12	618.907E-3	-33.9477E-3
3.50925E-3	137.324E-12	689.474E-3	-42.7425E-3	139.949E-12	616.307E-3	-16.7252E-3
3.50425E-3	137.286E-12	699.078E-3	-37.0948E-3	138.705E-12	617.504E-3	-4.45048E-3
3.49925E-3	138.261E-12	669.584E-3	-18.7749E-3	138.910E-12	602.479E-3	-11.6951E-3
3.49425E-3	137.410E-12	649.784E-3	-24.3605E-3	138.578E-12	603.301E-3	-19.0587E-3
3.48924E-3	137.389E-12	655.307E-3	-19.9667E-3	137.784E-12	624.639E-3	-16.3481E-3
3.48424E-3	137.937E-12	658.248E-3	52.0452E-6	137.256E-12	630.927E-3	2.89427E-3
3.47924E-3	137.092E-12	655.234E-3	-8.72031E-3	137.613E-12	629.881E-3	16.8563E-3
3.47424E-3	137.512E-12	648.529E-3	-25.0706E-3	136.323E-12	637.103E-3	-133.589E-6
3.46923E-3	137.498E-12	631.431E-3	-15.1665E-3	136.114E-12	647.389E-3	-22.5660E-3
3.46423E-3	136.937E-12	623.286E-3	-12.2261E-3	136.210E-12	650.060E-3	-29.7109E-3
3.45923E-3	136.144E-12	634.243E-3	-13.9437E-3	135.710E-12	649.702E-3	-32.7638E-3
3.45423E-3	137.167E-12	644.944E-3	-12.5501E-3	135.015E-12	645.851E-3	-40.6894E-3
3.44922E-3	136.356E-12	653.230E-3	-21.8586E-3	134.680E-12	635.067E-3	-40.2791E-3
3.44422E-3	135.945E-12	658.354E-3	-17.2405E-3	135.046E-12	621.974E-3	-24.7293E-3
3.43922E-3	135.990E-12	644.349E-3	-5.77645E-3	134.275E-12	629.035E-3	-22.8086E-3
3.43422E-3	135.004E-12	621.457E-3	-15.7347E-3	134.968E-12	657.399E-3	-31.7682E-3
3.42921E-3	135.155E-12	613.787E-3	-26.5627E-3	135.261E-12	666.906E-3	-23.0578E-3
3.42421E-3	133.925E-12	621.099E-3	-17.6115E-3	135.014E-12	638.569E-3	-7.04068E-3
3.41921E-3	133.334E-12	641.460E-3	-10.5820E-3	134.873E-12	606.024E-3	2.04323E-3
3.41421E-3	132.000E-12	646.884E-3	-8.16047E-3	135.013E-12	609.271E-3	-4.62102E-3
3.40920E-3	132.211E-12	609.006E-3	-7.84409E-3	135.202E-12	632.621E-3	-8.17139E-3
3.40420E-3	132.268E-12	579.111E-3	-13.4094E-3	134.481E-12	646.029E-3	16.4791E-3
3.39920E-3	132.554E-12	599.765E-3	-2.06557E-3	135.263E-12	644.038E-3	36.1556E-3
3.39420E-3	132.731E-12	629.515E-3	15.5994E-3	134.919E-12	638.003E-3	23.7880E-3
3.38919E-3	132.883E-12	638.244E-3	-2.75012E-3	134.343E-12	645.113E-3	-17.8977E-3
3.38419E-3	133.132E-12	647.860E-3	-33.4808E-3	134.258E-12	654.382E-3	-42.6218E-3
3.37919E-3	133.561E-12	659.240E-3	-34.6433E-3	133.540E-12	642.131E-3	-4.69955E-3
3.37419E-3	134.087E-12	651.048E-3	-28.5281E-3	132.717E-12	627.581E-3	41.2917E-3
3.36918E-3	133.407E-12	637.623E-3	-22.0160E-3	132.345E-12	630.984E-3	44.2319E-3
3.36418E-3	133.800E-12	631.586E-3	-11.8186E-3	131.094E-12	631.997E-3	23.7948E-3
3.35918E-3	133.783E-12	634.246E-3	-15.6232E-3	130.126E-12	641.184E-3	1.64359E-3
3.35418E-3	133.713E-12	642.619E-3	-31.0087E-3	129.550E-12	671.141E-3	-16.7282E-3
3.34917E-3	132.814E-12	648.387E-3	-37.2314E-3	129.208E-12	673.427E-3	-22.1626E-3
3.34417E-3	132.180E-12	649.317E-3	-36.8548E-3	129.308E-12	646.899E-3	-18.2527E-3
3.33917E-3	131.344E-12	649.776E-3	-37.8666E-3	129.484E-12	643.696E-3	-25.8400E-3
3.33417E-3	130.519E-12	643.794E-3	-34.2310E-3	129.608E-12	658.454E-3	-25.5702E-3
3.32916E-3	129.220E-12	610.277E-3	-29.1747E-3	129.205E-12	663.475E-3	-5.92164E-3
3.32416E-3	128.442E-12	584.311E-3	-29.5389E-3	130.271E-12	649.762E-3	10.5553E-3
3.31916E-3	127.650E-12	594.711E-3	-20.9761E-3	131.468E-12	629.680E-3	17.4686E-3
3.31416E-3	127.888E-12	626.117E-3	-7.64669E-3	131.427E-12	634.857E-3	16.6634E-3
3.30915E-3	127.446E-12	654.724E-3	-17.6641E-3	131.482E-12	653.197E-3	11.7957E-3
3.30415E-3	127.303E-12	664.020E-3	-26.9638E-3	132.234E-12	654.129E-3	3.89092E-3
3.29915E-3	127.849E-12	656.171E-3	-18.7838E-3	132.328E-12	646.392E-3	-3.53353E-3
3.29415E-3	127.900E-12	634.481E-3	-19.6551E-3	131.972E-12	639.541E-3	-16.6778E-3
3.28914E-3	128.581E-12	614.752E-3	-12.5261E-3	131.443E-12	636.236E-3	-44.0207E-3
3.28414E-3	129.246E-12	597.078E-3	11.8246E-3	130.840E-12	641.658E-3	-51.5448E-3
3.27914E-3	129.367E-12	605.346E-3	8.81584E-3	130.270E-12	651.401E-3	-31.2107E-3
3.27414E-3	129.499E-12	640.945E-3	2.25593E-3	129.532E-12	639.513E-3	-19.5133E-3
3.26913E-3	130.383E-12	654.332E-3	25.1279E-3	128.409E-12	614.213E-3	-25.0533E-3
3.26413E-3	130.248E-12	657.947E-3	22.0811E-3	127.523E-12	605.505E-3	-32.6008E-3
3.25913E-3	129.319E-12	664.149E-3	-124.163E-6	126.562E-12	615.755E-3	-34.4163E-3
3.25413E-3	129.799E-12	655.044E-3	-23.8270E-3	126.055E-12	634.051E-3	-20.6961E-3
3.24912E-3	128.517E-12	644.188E-3	-55.4789E-3	125.527E-12	636.325E-3	-9.64653E-3
3.24412E-3	127.340E-12	636.057E-3	-56.6273E-3	125.065E-12	631.799E-3	-33.2434E-3
3.23912E-3	127.106E-12	627.307E-3	-30.1739E-3	125.207E-12	629.601E-3	-45.3346E-3
3.23412E-3	126.104E-12	628.492E-3	-21.3484E-3	125.646E-12	633.132E-3	-24.2987E-3
3.22911E-3	124.896E-12	634.185E-3	-20.1922E-3	125.892E-12	655.908E-3	-21.7257E-3
3.22411E-3	125.240E-12	641.280E-3	-7.32799E-3	126.170E-12	667.887E-3	-19.1842E-3
3.21911E-3	125.441E-12	639.283E-3	3.44792E-3	126.842E-12	656.207E-3	-8.59462E-3
3.21411E-3	124.395E-12	627.783E-3	13.6604E-3	127.408E-12	638.950E-3	-24.1126E-3
3.20910E-3	123.684E-12	620.040E-3	14.3739E-3	127.741E-12	635.121E-3	-38.8321E-3
3.20410E-3	124.652E-12	622.516E-3	-15.3285E-3	127.654E-12	653.853E-3	-31.5831E-3
3.19910E-3	124.843E-12	637.159E-3	-52.2388E-3	127.055E-12	664.466E-3	-17.8368E-3
3.19410E-3	124.440E-12	645.021E-3	-55.3242E-3	126.938E-12	645.037E-3	-15.5411E-3
3.18909E-3	124.705E-12	646.321E-3	-41.4165E-3	126.132E-12	623.717E-3	-18.1176E-3
3.18409E-3	125.287E-12	659.466E-3	-20.6768E-3	125.261E-12	626.273E-3	-24.3137E-3
3.17909E-3	124.930E-12	661.536E-3	1.89138E-3	124.241E-12	629.950E-3	-30.7747E-3
3.17409E-3	125.468E-12	640.545E-3	7.87135E-3	124.354E-12	621.946E-3	-17.8000E-3
3.16908E-3	125.418E-12	637.563E-3	19.1582E-3	122.934E-12	609.700E-3	3.03297E-3
3.16408E-3	124.468E-12	649.666E-3	31.5156E-3	121.975E-12	596.275E-3	6.89409E-3
3.15908E-3	124.846E-12	657.156E-3	9.44478E-3	121.314E-12	598.276E-3	-7.84665E-3
3.15408E-3	123.956E-12	671.112E-3	-22.3195E-3	120.810E-12	622.293E-3	-20.3537E-3
3.14907E-3	122.966E-12	662.131E-3	-27.3340E-3	120.879E-12	643.251E-3	-18.9877E-3
3.14407E-3	122.533E-12	631.076E-3	-20.2896E-3	120.655E-12	648.610E-3	-15.4862E-3
3.13907E-3	122.224E-12	631.396E-3	-14.7295E-3	120.429E-12	655.366E-3	-17.3277E-3
3.13407E-3	121.482E-12	644.135E-3	-15.1022E-3	120.478E-12	650.585E-3	-17.6000E-3
3.12906E-3	121.167E-12	648.515E-3	-25.5488E-3	121.693E-12	647.507E-3	-18.7274E-3
3.12406E-3	121.294E-12	656.635E-3	-27.1310E-3	121.448E-12	652.249E-3	-27.9705E-3
3.11906E-3	120.438E-12	646.612E-3	-10.3143E-3	121.697E-12	648.048E-3	-27.6083E-3
3.11406E-3	120.652E-12	625.404E-3	5.00105E-3	122.080E-12	659.083E-3	-10.6079E-3
3.10905E-3	121.152E-12	618.640E-3	11.0982E-3	121.819E-12	678.752E-3	-18.5159E-3
3.10405E-3	120.720E-12	626.487E-3	10.0939E-3	122.250E-12	690.093E-3	-46.4554E-3
3.09905E-3	120.219E-12	624.827E-3	-8.13821E-3	122.433E-12	700.702E-3	-42.3067E-3
3.09405E-3	121.267E-12	618.356E-3	-33.8369E-3	121.762E-12	693.500E-3	-28.2900E-3
3.08904E-3	121.136E-12	623.969E-3	-25.6139E-3	120.999E-12	660.161E-3	-31.4943E-3
3.08404E-3	120.547E-12	632.126E-3	481.742E-6	121.681E-12	636.299E-3	-34.2049E-3
3.07904E-3	120.845E-12	660.754E-3	-2.98959E-3	120.708E-12	636.025E-3	-28.6455E-3
3.07404E-3	120.505E-12	682.088E-3	-21.0632E-3	119.961E-12	646.731E-3	-13.7244E-3
3.06903E-3	119.318E-12	661.261E-3	-23.4145E-3	119.462E-12	657.733E-3	-10.4941E-3
3.06403E-3	119.289E-12	646.932E-3	-12.5450E-3	119.414E-12	657.482E-3	-14.4560E-3
3.05903E-3	118.804E-12	648.491E-3	-6.56456E-3	118.978E-12	648.379E-3	-6.55124E-3
3.05403E-3	118.529E-12	634.806E-3	-22.9375E-3	118.546E-12	637.664E-3	-11.6664E-3
3.04902E-3	117.249E-12	636.954E-3	-49.8322E-3	118.569E-12	638.082E-3	-25.8752E-3
3.04402E-3	118.220E-12	647.762E-3	-53.8085E-3	117.991E-12	644.119E-3	-29.0857E-3
3.03902E-3	118.213E-12	625.091E-3	-32.5365E-3	118.552E-12	636.757E-3	-30.5795E-3
3.03402E-3	118.019E-12	617.133E-3	-13.1426E-3	118.182E-12	635.135E-3	-37.0265E-3
3.02901E-3	118.036E-12	638.486E-3	-3.27720E-3	117.922E-12	658.862E-3	-50.4314E-3
3.02401E-3	118.061E-12	645.661E-3	11.6737E-3	118.310E-12	688.159E-3	-50.4558E-3
3.01901E-3	117.678E-12	652.646E-3	20.6137E-3	117.445E-12	686.837E-3	-30.1269E-3
3.01401E-3	117.541E-12	658.730E-3	16.6413E-3	116.940E-12	649.651E-3	-22.6913E-3
3.00900E-3	118.119E-12	637.889E-3	21.4664E-3	117.294E-12	628.999E-3	-29.1832E-3
3.00400E-3	117.531E-12	614.074E-3	20.2351E-3	116.902E-12	660.814E-3	-32.5998E-3
2.99900E-3	117.222E-12	625.772E-3	874.764E-6	116.215E-12	687.346E-3	-27.7917E-3
2.99400E-3	117.308E-12	646.696E-3	-14.4757E-3	117.150E-12	679.702E-3	-14.0231E-3
2.98899E-3	116.852E-12	645.015E-3	-22.9632E-3	116.871E-12	668.513E-3	-6.51860E-3
2.98399E-3	116.240E-12	654.932E-3	-6.87329E-3	116.675E-12	657.197E-3	-18.8280E-3
2.97899E-3	115.400E-12	671.380E-3	31.4501E-3	117.178E-12	648.384E-3	-38.8557E-3
2.97399E-3	115.567E-12	662.814E-3	29.0246E-3	116.667E-12	655.235E-3	-36.8407E-3
2.96898E-3	115.021E-12	655.514E-3	-7.55192E-3	115.631E-12	667.583E-3	-19.7257E-3
2.96398E-3	114.569E-12	651.294E-3	-23.2280E-3	115.342E-12	658.501E-3	-12.2349E-3
2.95898E-3	114.270E-12	651.796E-3	-32.5409E-3	114.908E-12	644.812E-3	-18.1137E-3
2.95398E-3	113.911E-12	664.383E-3	-41.1844E-3	114.138E-12	644.143E-3	-24.4421E-3
2.94897E-3	114.253E-12	652.191E-3	-27.3584E-3	113.574E-12	642.848E-3	-34.5547E-3
2.94397E-3	114.305E-12	626.513E-3	-28.8626E-3	113.256E-12	650.116E-3	-44.2208E-3
2.93897E-3	113.684E-12	630.174E-3	-44.3938E-3	112.572E-12	657.081E-3	-36.1748E-3
2.93397E-3	113.329E-12	655.558E-3	-19.4643E-3	112.435E-12	656.212E-3	-13.8846E-3
2.92896E-3	113.871E-12	664.617E-3	2.85560E-3	111.825E-12	667.773E-3	4.11597E-3
2.92396E-3	113.577E-12	661.074E-3	-7.42237E-3	111.581E-12	677.161E-3	-3.56524E-3
2.91896E-3	112.361E-12	671.053E-3	-19.8851E-3	111.470E-12	669.478E-3	-21.1974E-3
2.91396E-3	112.347E-12	680.897E-3	-16.9035E-3	111.860E-12	657.129E-3	-20.6667E-3
2.90895E-3	112.498E-12	676.665E-3	1.12189E-3	111.860E-12	647.609E-3	-15.3201E-3
2.90395E-3	111.627E-12	652.956E-3	10.2562E-3	112.450E-12	644.210E-3	-27.4692E-3
2.89895E-3	111.473E-12	632.808E-3	-10.6162E-3	113.034E-12	639.238E-3	-29.0895E-3
2.89395E-3	111.276E-12	635.601E-3	-42.9334E-3	112.848E-12	644.926E-3	-4.65016E-3
2.88894E-3	110.629E-12	648.196E-3	-41.7802E-3	113.381E-12	660.654E-3	15.6377E-3
2.88394E-3	110.168E-12	652.751E-3	-20.2949E-3	113.526E-12	655.639E-3	11.9402E-3
2.87894E-3	110.857E-12	633.518E-3	-7.85611E-3	114.368E-12	650.144E-3	-14.5689E-3
2.87394E-3	110.830E-12	624.316E-3	-2.16779E-3	113.982E-12	654.822E-3	-23.3613E-3
2.86893E-3	110.471E-12	635.485E-3	-3.32533E-3	112.788E-12	655.745E-3	-7.46566E-3
2.86393E-3	110.344E-12	648.996E-3	-4.24299E-3	112.597E-12	659.306E-3	6.15259E-3
2.85893E-3	111.097E-12	665.230E-3	1.67507E-3	111.923E-12	646.735E-3	5.39606E-3
2.85393E-3	110.665E-12	653.388E-3	-4.52585E-3	110.900E-12	623.490E-3	-10.8302E-3
2.84892E-3	111.249E-12	645.278E-3	-15.8538E-3	109.813E-12	625.366E-3	-10.3334E-3
2.84392E-3	111.051E-12	671.575E-3	-25.4262E-3	109.141E-12	636.483E-3	-2.29399E-3
2.83892E-3	110.475E-12	674.452E-3	-41.1643E-3	108.021E-12	649.662E-3	-20.1428E-3
2.83392E-3	110.242E-12	658.147E-3	-32.7943E-3	107.397E-12	660.285E-3	-46.5162E-3
2.82891E-3	110.354E-12	666.966E-3	-7.04110E-3	107.317E-12	649.831E-3	-53.5193E-3
2.82391E-3	109.598E-12	675.338E-3	-2.99511E-3	106.803E-12	638.563E-3	-33.1102E-3
2.81891E-3	109.100E-12	668.117E-3	-20.0618E-3	106.735E-12	649.362E-3	-11.8919E-3
2.81391E-3	109.113E-12	662.331E-3	-34.6711E-3	106.657E-12	660.336E-3	-10.8223E-3
2.80890E-3	107.832E-12	640.973E-3	-35.5398E-3	107.161E-12	644.424E-3	-17.5748E-3
2.80390E-3	107.024E-12	607.299E-3	-32.6628E-3	107.463E-12	641.430E-3	-16.9772E-3
2.79890E-3	107.212E-12	609.451E-3	-16.6487E-3	108.019E-12	649.222E-3	-22.4889E-3
2.79390E-3	106.835E-12	634.744E-3	-4.15908E-3	108.318E-12	644.450E-3	-24.2489E-3
2.78889E-3	106.665E-12	634.118E-3	-20.6082E-3	109.277E-12	652.389E-3	-18.6509E-3
2.78389E-3	106.644E-12	622.333E-3	-21.8176E-3	109.104E-12	671.397E-3	-24.6395E-3
2.77889E-3	107.414E-12	623.506E-3	-9.93424E-3	109.031E-12	677.582E-3	-30.9267E-3
2.77389E-3	107.419E-12	645.025E-3	-21.6356E-3	109.420E-12	667.926E-3	-30.7632E-3
2.76888E-3	108.298E-12	675.002E-3	-30.7671E-3	108.926E-12	666.723E-3	-32.0713E-3
2.76388E-3	107.887E-12	687.741E-3	-25.9032E-3	108.382E-12	670.731E-3	-34.0950E-3
2.75888E-3	107.933E-12	681.559E-3	-29.6519E-3	107.391E-12	660.395E-3	-25.6497E-3
2.75388E-3	107.876E-12	669.888E-3	-34.8399E-3	106.739E-12	643.293E-3	-16.7934E-3
2.74887E-3	107.972E-12	662.389E-3	-20.3512E-3	105.714E-12	637.189E-3	-20.7361E-3
2.74387E-3	106.879E-12	665.527E-3	-13.5182E-3	104.922E-12	639.160E-3	-27.6757E-3
2.73887E-3	106.791E-12	683.591E-3	-22.3129E-3	103.808E-12	644.965E-3	-31.4269E-3
2.73387E-3	105.420E-12	688.127E-3	-17.7961E-3	103.055E-12	654.330E-3	-40.2430E-3
2.72886E-3	104.328E-12	674.846E-3	-16.7154E-3	103.179E-12	655.270E-3	-52.9815E-3
2.72386E-3	103.572E-12	680.381E-3	-14.0710E-3	102.815E-12	654.760E-3	-54.4095E-3
2.71886E-3	102.569E-12	691.427E-3	-5.16011E-3	102.722E-12	661.694E-3	-34.8902E-3
2.71386E-3	101.233E-12	673.706E-3	-10.4720E-3	102.810E-12	678.567E-3	-8.72361E-3
2.70885E-3	100.803E-12	637.332E-3	-9.74054E-3	103.034E-12	691.163E-3	-5.14508E-3
2.70385E-3	100.001E-12	613.388E-3	3.38211E-3	103.481E-12	673.616E-3	-12.4936E-3
2.69885E-3	100.372E-12	623.228E-3	6.53029E-3	104.106E-12	651.637E-3	-6.90258E-3
2.69385E-3	100.245E-12	640.885E-3	-3.04705E-3	103.805E-12	661.535E-3	-5.83486E-3
2.68884E-3	100.531E-12	640.906E-3	-17.1630E-3	103.881E-12	690.071E-3	-3.77018E-3
2.68384E-3	100.840E-12	637.164E-3	-25.7061E-3	104.020E-12	695.818E-3	10.5178E-3
2.67884E-3	102.137E-12	650.156E-3	-35.7785E-3	103.916E-12	678.379E-3	6.88946E-3
2.67384E-3	102.681E-12	674.227E-3	-32.5382E-3	103.007E-12	675.480E-3	-17.2095E-3
2.66883E-3	103.252E-12	684.706E-3	-3.31029E-3	102.809E-12	691.548E-3	-28.1302E-3
2.66383E-3	103.332E-12	685.861E-3	10.1603E-3	102.598E-12	698.245E-3	-28.2751E-3
2.65883E-3	103.332E-12	686.614E-3	-4.70539E-3	102.275E-12	687.148E-3	-22.9863E-3
2.65383E-3	103.242E-12	687.191E-3	-17.1844E-3	101.639E-12	668.576E-3	-20.9592E-3
2.64882E-3	102.880E-12	690.544E-3	-4.48277E-3	101.232E-12	655.438E-3	-36.0169E-3
2.64382E-3	102.348E-12	692.353E-3	7.04171E-3	100.460E-12	665.373E-3	-40.5615E-3
2.63882E-3	102.102E-12	680.619E-3	554.984E-6	99.5230E-12	688.382E-3	-13.2699E-3
2.63382E-3	101.075E-12	679.925E-3	-4.78495E-3	99.5431E-12	696.513E-3	11.6952E-3
2.62881E-3	100.677E-12	696.797E-3	-8.10603E-3	99.2777E-12	682.048E-3	5.52306E-3
2.62381E-3	99.2038E-12	702.969E-3	-13.4240E-3	98.9553E-12	661.806E-3	-7.97150E-3
2.61881E-3	98.6133E-12	690.547E-3	-28.7768E-3	98.2350E-12	663.566E-3	-13.7024E-3
2.61381E-3	97.8186E-12	674.507E-3	-29.1033E-3	98.6177E-12	676.733E-3	-13.7863E-3
2.60880E-3	97.7449E-12	659.878E-3	-10.6189E-3	98.5132E-12	673.021E-3	-7.43595E-3
2.60380E-3	96.8387E-12	652.370E-3	-8.38236E-3	98.1908E-12	666.383E-3	-2.91862E-3
2.59880E-3	97.5601E-12	667.139E-3	-14.4485E-3	98.7177E-12	655.432E-3	-13.7464E-3
2.59380E-3	97.1507E-12	670.657E-3	-9.31609E-3	98.8402E-12	658.094E-3	-15.7891E-3
2.58879E-3	97.0993E-12	661.478E-3	-5.86500E-3	98.6157E-12	699.455E-3	-7.65305E-3
2.58379E-3	98.1372E-12	665.795E-3	-10.6388E-3	98.1593E-12	705.382E-3	-13.3539E-3
2.57879E-3	98.2919E-12	654.197E-3	-11.2176E-3	98.1560E-12	664.580E-3	-5.78565E-3
2.57379E-3	97.8496E-12	632.792E-3	-5.63664E-3	98.4906E-12	649.836E-3	5.67557E-3
2.56878E-3	98.1411E-12	648.127E-3	4.72983E-3	98.0762E-12	664.754E-3	-9.91458E-3
2.56378E-3	98.8194E-12	669.729E-3	1.25771E-3	97.4201E-12	672.420E-3	-20.0664E-3
2.55878E-3	98.2112E-12	671.845E-3	-17.7703E-3	97.5834E-12	674.613E-3	-2.26465E-3
2.55378E-3	97.9901E-12	681.137E-3	-23.0548E-3	97.7411E-12	673.168E-3	13.8519E-3
2.54877E-3	98.1213E-12	678.657E-3	-7.95853E-3	96.9308E-12	658.592E-3	18.0726E-3
2.54377E-3	97.4829E-12	673.835E-3	2.38279E-3	96.4011E-12	659.249E-3	15.1741E-3
2.53877E-3	97.1093E-12	693.002E-3	-2.37816E-3	95.9828E-12	682.470E-3	6.94794E-3
2.53377E-3	97.0129E-12	692.891E-3	-23.1630E-3	95.3014E-12	695.686E-3	15.5743E-3
2.52876E-3	96.1602E-12	677.853E-3	-40.7298E-3	94.7363E-12	693.956E-3	25.7467E-3
2.52376E-3	95.6209E-12	675.970E-3	-36.6516E-3	94.3400E-12	697.482E-3	891.471E-6
2.51876E-3	95.2266E-12	662.809E-3	-21.5463E-3	93.6818E-12	689.759E-3	-31.9423E-3
2.51376E-3	94.8339E-12	645.736E-3	-6.64829E-3	93.5651E-12	673.865E-3	-28.0602E-3
2.50875E-3	94.5863E-12	647.712E-3	584.002E-6	93.2691E-12	688.947E-3	-11.2486E-3
2.50375E-3	94.6514E-12	662.847E-3	-2.13946E-3	93.4042E-12	706.754E-3	-9.77011E-3
2.49875E-3	93.3087E-12	679.068E-3	-10.0833E-3	93.3635E-12	699.210E-3	-11.8867E-3
2.49375E-3	93.1971E-12	685.749E-3	-7.47842E-3	93.3960E-12	678.964E-3	-14.5868E-3
2.48874E-3	93.1774E-12	671.616E-3	-7.15655E-3	92.9123E-12	660.457E-3	-21.5248E-3
2.48374E-3	92.9601E-12	644.772E-3	-14.0370E-3	93.5007E-12	676.034E-3	-22.3114E-3
2.47874E-3	92.2470E-12	636.598E-3	-14.9943E-3	93.6408E-12	698.559E-3	-15.2539E-3
2.47374E-3	92.2020E-12	652.274E-3	-402.841E-6	94.0166E-12	689.242E-3	-11.1556E-3
2.46873E-3	91.8193E-12	676.748E-3	13.5712E-3	94.3190E-12	675.087E-3	-20.9458E-3
2.46373E-3	91.1429E-12	690.697E-3	5.26298E-3	94.9320E-12	681.428E-3	-29.5401E-3
2.45873E-3	90.9731E-12	683.620E-3	1.76179E-3	95.1842E-12	709.792E-3	-17.3305E-3
2.45373E-3	91.2072E-12	681.868E-3	4.58350E-3	94.8820E-12	739.032E-3	-2.61856E-3
2.44872E-3	91.2019E-12	705.266E-3	-8.81927E-3	94.1725E-12	744.278E-3	15.4195E-3
2.44372E-3	91.3776E-12	717.517E-3	-15.7414E-3	93.7868E-12	726.241E-3	31.3946E-3
2.43872E-3	91.3621E-12	707.516E-3	-12.2813E-3	93.1167E-12	701.984E-3	21.0302E-3
2.43372E-3	92.1419E-12	712.069E-3	-22.0148E-3	92.7194E-12	688.045E-3	5.22178E-3
2.42871E-3	91.9383E-12	719.730E-3	-20.2142E-3	91.7254E-12	683.571E-3	-391.079E-6
2.42371E-3	92.0325E-12	708.514E-3	422.546E-6	90.6965E-12	671.806E-3	7.01941E-3
2.41871E-3	92.2473E-12	701.547E-3	6.11842E-3	90.0630E-12	660.308E-3	8.61970E-3
2.41371E-3	92.0651E-12	711.336E-3	1.40448E-3	89.3791E-12	660.948E-3	-20.1248E-3
2.40870E-3	91.7619E-12	703.112E-3	9.92895E-3	88.8446E-12	662.476E-3	-46.5556E-3
2.40370E-3	91.5356E-12	681.359E-3	9.05980E-3	88.6365E-12	670.292E-3	-41.3611E-3
2.39870E-3	90.5921E-12	688.954E-3	-14.1564E-3	88.0528E-12	681.702E-3	-21.7767E-3
2.39370E-3	89.8190E-12	697.766E-3	-28.7906E-3	87.7685E-12	678.236E-3	-5.89092E-3
2.38869E-3	88.9984E-12	683.240E-3	-26.7984E-3	87.6166E-12	679.646E-3	1.26277E-3
2.38369E-3	88.5813E-12	677.577E-3	-12.8004E-3	87.8193E-12	690.583E-3	-10.0314E-3
2.37869E-3	87.7666E-12	668.760E-3	2.41282E-3	88.5165E-12	699.353E-3	-29.7071E-3
2.37369E-3	87.0258E-12	662.120E-3	-2.75485E-3	88.8323E-12	703.880E-3	-37.3664E-3
2.36868E-3	86.3074E-12	692.014E-3	-14.4893E-3	88.7026E-12	686.538E-3	-39.7008E-3
2.36368E-3	86.3918E-12	709.751E-3	-17.0690E-3	88.8069E-12	674.452E-3	-43.3574E-3
2.35868E-3	86.2220E-12	695.804E-3	-22.6174E-3	89.3903E-12	686.377E-3	-30.2737E-3
2.35368E-3	85.9055E-12	679.993E-3	-36.1072E-3	89.2389E-12	698.479E-3	-12.8347E-3
2.34867E-3	85.8287E-12	650.916E-3	-39.4671E-3	88.9180E-12	700.726E-3	-8.90915E-3
2.34367E-3	86.9952E-12	630.761E-3	-32.9518E-3	88.7692E-12	689.226E-3	-5.39320E-3
2.33867E-3	86.9923E-12	654.173E-3	-35.1184E-3	87.6750E-12	671.459E-3	-6.90758E-3
2.33367E-3	87.6353E-12	680.484E-3	-34.9367E-3	87.1256E-12	655.809E-3	-18.8059E-3
2.32866E-3	87.9755E-12	687.396E-3	-33.7437E-3	86.5381E-12	658.624E-3	-19.7619E-3
2.32366E-3	88.0793E-12	698.965E-3	-31.8457E-3	85.6845E-12	670.652E-3	-9.36671E-3
2.31866E-3	88.3000E-12	703.420E-3	-24.5069E-3	84.3293E-12	660.512E-3	-20.1203E-3
2.31366E-3	88.6298E-12	699.783E-3	-23.5880E-3	83.9408E-12	651.728E-3	-33.9184E-3
2.30865E-3	87.4726E-12	712.839E-3	-26.3321E-3	83.9367E-12	684.360E-3	-36.1689E-3
2.30365E-3	86.4341E-12	721.053E-3	-27.9965E-3	83.3090E-12	713.125E-3	-32.7074E-3
2.29865E-3	86.6553E-12	699.031E-3	-37.3572E-3	82.9147E-12	702.521E-3	-11.7073E-3
2.29365E-3	85.3709E-12	688.085E-3	-42.9969E-3	82.7677E-12	689.702E-3	-1.85740E-3
2.28864E-3	84.0236E-12	704.968E-3	-31.0751E-3	83.3979E-12	686.206E-3	-9.08777E-3
2.28364E-3	83.4185E-12	702.875E-3	-27.7660E-3	83.3420E-12	696.948E-3	-15.6601E-3
2.27864E-3	82.8949E-12	688.909E-3	-33.7945E-3	83.5729E-12	712.962E-3	-23.3718E-3
2.27364E-3	82.1308E-12	687.395E-3	-19.0863E-3	84.0436E-12	715.874E-3	-30.5108E-3
2.26863E-3	82.4164E-12	680.429E-3	-16.2992E-3	84.7043E-12	708.414E-3	-32.2084E-3
2.26363E-3	82.0355E-12	685.125E-3	-38.6780E-3	84.7550E-12	698.538E-3	-21.6722E-3
2.25863E-3	81.5208E-12	699.361E-3	-35.0696E-3	84.9284E-12	696.675E-3	-19.8970E-3
2.25363E-3	82.4628E-12	693.213E-3	-21.3388E-3	84.9878E-12	699.268E-3	-21.8521E-3
2.24862E-3	83.4651E-12	682.405E-3	-16.4577E-3	84.6127E-12	705.287E-3	-2.84924E-3
2.24362E-3	82.5956E-12	692.239E-3	5.18985E-3	84.8636E-12	701.619E-3	-1.63287E-3
2.23862E-3	82.8746E-12	708.134E-3	11.0055E-3	84.3383E-12	688.176E-3	-25.7711E-3
2.23362E-3	83.6599E-12	714.648E-3	-9.19651E-3	83.2360E-12	694.547E-3	-27.5657E-3
2.22861E-3	83.5213E-12	718.380E-3	-8.80580E-3	82.8038E-12	707.507E-3	-5.27130E-3
2.22361E-3	83.4227E-12	718.109E-3	6.21165E-3	82.6427E-12	697.567E-3	5.10972E-3
2.21861E-3	83.2967E-12	717.786E-3	1.67794E-3	81.4233E-12	686.366E-3	-2.06659E-3
2.21361E-3	82.1995E-12	709.618E-3	-17.3996E-3	80.6672E-12	682.667E-3	-22.9527E-3
2.20860E-3	81.5828E-12	704.425E-3	-28.8458E-3	80.3176E-12	680.062E-3	-43.3493E-3
2.20360E-3	82.3407E-12	716.156E-3	-31.1388E-3	80.1562E-12	693.609E-3	-40.2378E-3
2.19860E-3	81.0450E-12	718.312E-3	-38.6895E-3	80.2369E-12	714.885E-3	-24.7427E-3
2.19360E-3	79.9818E-12	703.071E-3	-46.8143E-3	80.3673E-12	724.200E-3	-3.31646E-3
2.18859E-3	80.4161E-12	700.301E-3	-35.9979E-3	79.3949E-12	721.057E-3	8.32104E-3
2.18359E-3	79.9980E-12	718.759E-3	-23.6895E-3	79.7815E-12	711.352E-3	-4.08721E-3
2.17859E-3	79.0035E-12	718.220E-3	-21.8940E-3	79.8799E-12	707.356E-3	-14.5046E-3
2.17359E-3	79.0372E-12	704.740E-3	-21.0772E-3	79.7042E-12	713.996E-3	-8.10536E-3
2.16858E-3	78.9097E-12	710.616E-3	-13.8967E-3	80.1318E-12	711.364E-3	6.95886E-3
2.16358E-3	78.3503E-12	717.801E-3	-11.2054E-3	80.0017E-12	704.556E-3	13.1531E-3
2.15858E-3	79.3376E-12	717.927E-3	-21.4880E-3	79.8708E-12	710.084E-3	-3.38828E-3
2.15358E-3	79.3311E-12	726.922E-3	-18.5248E-3	80.0046E-12	714.660E-3	-25.8294E-3
2.14857E-3	78.3976E-12	726.415E-3	-12.1936E-3	79.6458E-12	718.490E-3	-30.7298E-3
2.14357E-3	78.4829E-12	704.006E-3	-20.9093E-3	79.0102E-12	722.104E-3	-21.1800E-3
2.13857E-3	79.2455E-12	699.207E-3	-24.6314E-3	78.8230E-12	715.014E-3	-12.8354E-3
2.13357E-3	78.5396E-12	716.553E-3	-13.6676E-3	78.5131E-12	708.332E-3	-8.33997E-3
2.12856E-3	78.0523E-12	725.001E-3	-5.07837E-3	77.8030E-12	705.590E-3	-9.68468E-3
2.12356E-3	77.4542E-12	717.253E-3	-5.75617E-3	78.0521E-12	704.654E-3	-22.7061E-3
2.11856E-3	76.9687E-12	701.686E-3	113.560E-6	76.9505E-12	705.488E-3	-35.3633E-3
2.11356E-3	76.6551E-12	691.167E-3	-285.680E-6	76.7885E-12	698.138E-3	-31.2599E-3
2.10855E-3	76.3768E-12	705.246E-3	-1.05956E-3	76.0812E-12	693.024E-3	-22.1935E-3
2.10355E-3	76.1097E-12	717.420E-3	3.24139E-3	75.8868E-12	700.858E-3	-20.3220E-3
2.09855E-3	75.6697E-12	703.420E-3	-12.0192E-3	75.0970E-12	709.984E-3	-9.96945E-3
2.09355E-3	75.4965E-12	700.618E-3	-20.2028E-3	74.6891E-12	715.753E-3	6.62511E-3
2.08854E-3	75.4877E-12	711.390E-3	-269.723E-6	74.7098E-12	712.926E-3	5.86340E-3
2.08354E-3	75.1675E-12	712.384E-3	6.49634E-3	74.1685E-12	709.591E-3	-10.8627E-3
2.07854E-3	74.8197E-12	717.261E-3	-21.3763E-3	73.9078E-12	710.717E-3	-29.5534E-3
2.07354E-3	75.2743E-12	722.681E-3	-47.2239E-3	74.2974E-12	720.123E-3	-44.7380E-3
2.06853E-3	75.3452E-12	717.773E-3	-47.3726E-3	73.5909E-12	732.443E-3	-44.6600E-3
2.06353E-3	74.7514E-12	715.713E-3	-24.4404E-3	73.6965E-12	733.663E-3	-23.4938E-3
2.05853E-3	74.5779E-12	717.724E-3	1.88648E-3	74.3870E-12	736.477E-3	-5.92786E-3
2.05353E-3	74.3961E-12	719.168E-3	-1.49703E-3	73.7219E-12	731.774E-3	-9.07624E-3
2.04852E-3	73.9158E-12	730.610E-3	-13.6277E-3	73.7518E-12	729.087E-3	-11.7579E-3
2.04352E-3	73.6772E-12	733.126E-3	-14.6499E-3	74.1359E-12	739.879E-3	-6.89982E-3
2.03852E-3	73.1689E-12	705.583E-3	-16.6941E-3	73.7854E-12	750.325E-3	-15.0641E-3
2.03352E-3	72.2616E-12	695.360E-3	-15.8302E-3	73.4552E-12	756.970E-3	-22.8465E-3
2.02851E-3	72.1305E-12	716.669E-3	-16.8773E-3	74.0005E-12	748.296E-3	-21.2245E-3
2.02351E-3	71.9676E-12	722.620E-3	-15.2671E-3	73.1710E-12	742.018E-3	-19.8946E-3
2.01851E-3	71.5215E-12	706.746E-3	-7.52384E-3	72.9151E-12	746.548E-3	-18.5557E-3
2.01351E-3	71.1686E-12	694.644E-3	-7.46417E-3	72.8244E-12	738.474E-3	-11.4284E-3
2.00850E-3	71.0014E-12	699.146E-3	-21.8904E-3	72.5363E-12	733.727E-3	1.73493E-3
2.00350E-3	70.9923E-12	714.745E-3	-43.5724E-3	71.2158E-12	743.528E-3	-3.12341E-3
1.99850E-3	71.1581E-12	727.618E-3	-47.1957E-3	70.8544E-12	744.075E-3	-23.9874E-3
1.99350E-3	71.6341E-12	723.450E-3	-30.9470E-3	70.9279E-12	739.662E-3	-19.1407E-3
1.98849E-3	71.4086E-12	715.403E-3	-23.8303E-3	69.8298E-12	741.369E-3	2.81164E-3
1.98349E-3	71.0381E-12	728.096E-3	-17.1914E-3	69.5260E-12	740.632E-3	-319.022E-6
1.97849E-3	71.3938E-12	739.431E-3	-14.5920E-3	69.7072E-12	739.225E-3	-15.6177E-3
1.97349E-3	71.5304E-12	744.839E-3	-26.5987E-3	68.9281E-12	742.561E-3	-19.6304E-3
1.96848E-3	70.9550E-12	753.518E-3	-25.4055E-3	68.6240E-12	747.167E-3	-17.3141E-3
1.96348E-3	70.1451E-12	741.261E-3	-11.5854E-3	68.3101E-12	740.168E-3	-13.3254E-3
1.95848E-3	69.4817E-12	731.003E-3	-10.4402E-3	68.3970E-12	726.232E-3	-10.3065E-3
1.95348E-3	68.9769E-12	742.570E-3	-18.5071E-3	68.0648E-12	716.443E-3	-24.0241E-3
1.94847E-3	68.4582E-12	742.539E-3	-30.0838E-3	68.1754E-12	725.745E-3	-43.2600E-3
1.94347E-3	68.0129E-12	739.088E-3	-39.0841E-3	68.1555E-12	752.171E-3	-35.4744E-3
1.93847E-3	67.3337E-12	743.665E-3	-28.3492E-3	68.5934E-12	757.307E-3	-10.4266E-3
1.93347E-3	66.8791E-12	741.268E-3	-13.1654E-3	68.1517E-12	748.720E-3	-2.57983E-3
1.92846E-3	66.5306E-12	736.512E-3	-6.61322E-3	68.0615E-12	753.613E-3	-4.76349E-3
1.92346E-3	66.6631E-12	741.515E-3	-1.57884E-3	67.6106E-12	757.729E-3	5.58599E-3
1.91846E-3	66.6521E-12	753.459E-3	-6.90645E-3	67.6718E-12	762.742E-3	4.76431E-3
1.91346E-3	66.4697E-12	760.849E-3	-20.7510E-3	67.1086E-12	767.881E-3	-13.7319E-3
1.90845E-3	66.3702E-12	766.342E-3	-18.4046E-3	66.9465E-12	765.328E-3	-20.0059E-3
1.90345E-3	66.3744E-12	773.321E-3	2.39074E-3	66.4053E-12	770.702E-3	-16.0097E-3
1.89845E-3	66.0956E-12	767.921E-3	6.18305E-3	65.9914E-12	775.488E-3	-11.8750E-3
1.89345E-3	66.1554E-12	757.194E-3	-8.01317E-3	65.5148E-12	775.199E-3	-11.5116E-3
1.88844E-3	66.4157E-12	767.996E-3	-13.6390E-3	65.2419E-12	777.080E-3	-9.90321E-3
1.88344E-3	65.5565E-12	779.097E-3	-11.2666E-3	64.6868E-12	779.284E-3	-3.96864E-3
1.87844E-3	65.2111E-12	775.979E-3	-4.37741E-3	64.2965E-12	781.993E-3	-1.37284E-3
1.87344E-3	65.1593E-12	777.409E-3	8.65601E-3	64.1546E-12	780.908E-3	-596.095E-6
1.86843E-3	64.5250E-12	780.127E-3	3.74111E-3	63.7650E-12	780.605E-3	929.557E-6
1.86343E-3	63.2620E-12	782.507E-3	-16.6481E-3	63.4339E-12	792.509E-3	877.293E-6
1.85843E-3	63.1881E-12	783.437E-3	-12.8406E-3	63.8349E-12	800.960E-3	-3.70115E-3
1.85343E-3	63.0218E-12	782.714E-3	-7.89770E-3	63.4820E-12	799.765E-3	-5.47075E-3
1.84842E-3	62.3160E-12	788.335E-3	-18.8233E-3	63.3850E-12	796.532E-3	-7.17733E-3
1.84342E-3	61.8245E-12	788.061E-3	-21.3817E-3	63.8817E-12	800.549E-3	-17.4980E-3
1.83842E-3	62.1879E-12	770.173E-3	-24.1813E-3	63.6676E-12	806.165E-3	-16.4717E-3
1.83342E-3	61.9454E-12	764.582E-3	-29.0920E-3	63.4129E-12	803.834E-3	-4.92709E-3
1.82841E-3	62.2583E-12	786.908E-3	-19.0682E-3	63.6578E-12	804.979E-3	-4.46892E-3
1.82341E-3	62.6790E-12	799.803E-3	-15.1445E-3	63.1027E-12	804.286E-3	-18.0438E-3
1.81841E-3	62.2877E-12	802.840E-3	-23.7942E-3	62.4967E-12	798.277E-3	-32.9530E-3
1.81341E-3	62.2970E-12	811.203E-3	-26.3343E-3	62.0060E-12	793.731E-3	-18.6757E-3
1.80840E-3	62.6884E-12	809.299E-3	-27.7217E-3	61.5612E-12	794.896E-3	470.950E-9
1.80340E-3	62.5978E-12	804.719E-3	-28.7776E-3	61.3380E-12	804.683E-3	-9.41738E-3
1.79840E-3	61.9959E-12	814.649E-3	-20.4898E-3	60.8956E-12	810.500E-3	-21.4995E-3
1.79340E-3	61.7481E-12	835.562E-3	-12.0771E-3	60.0352E-12	808.150E-3	-17.9973E-3
1.78839E-3	61.3517E-12	848.033E-3	-19.7324E-3	59.8160E-12	808.702E-3	-14.3852E-3
1.78339E-3	61.2456E-12	848.630E-3	-29.6562E-3	59.3993E-12	804.912E-3	-19.1413E-3
1.77839E-3	59.9331E-12	842.750E-3	-17.3808E-3	59.1092E-12	796.093E-3	-19.1637E-3
1.77339E-3	59.0691E-12	838.217E-3	1.23757E-3	58.4424E-12	798.270E-3	-22.7056E-3
1.76838E-3	58.6808E-12	842.473E-3	3.06602E-3	58.3782E-12	816.220E-3	-30.8723E-3
1.76338E-3	58.5620E-12	838.998E-3	-7.49656E-3	58.6023E-12	834.943E-3	-21.3071E-3
1.75838E-3	57.6775E-12	828.834E-3	-31.7669E-3	59.0708E-12	833.661E-3	-6.06067E-3
1.75338E-3	57.0100E-12	835.057E-3	-47.6561E-3	58.4749E-12	819.834E-3	-3.29230E-3
1.74837E-3	57.1451E-12	839.123E-3	-38.6479E-3	57.8186E-12	814.532E-3	-14.9837E-3
1.74337E-3	57.0415E-12	831.956E-3	-34.7861E-3	58.0511E-12	827.681E-3	-31.5088E-3
1.73837E-3	57.4798E-12	836.504E-3	-31.4638E-3	58.4114E-12	843.116E-3	-36.4518E-3
1.73337E-3	57.4364E-12	845.588E-3	-15.7944E-3	57.9405E-12	846.823E-3	-31.3595E-3
1.72836E-3	57.5523E-12	849.694E-3	-10.0583E-3	57.2240E-12	843.723E-3	-19.5850E-3
1.72336E-3	57.6063E-12	852.302E-3	-9.77269E-3	57.0678E-12	843.112E-3	-13.6921E-3
1.71836E-3	57.7254E-12	857.210E-3	-3.42109E-3	56.6848E-12	853.429E-3	-15.1088E-3
1.71336E-3	57.4677E-12	865.789E-3	-13.8196E-3	56.4893E-12	864.768E-3	-8.23907E-3
1.70835E-3	57.4953E-12	872.601E-3	-33.4519E-3	56.1229E-12	870.600E-3	-1.74790E-3
1.70335E-3	57.2115E-12	874.770E-3	-31.7022E-3	55.6047E-12	864.439E-3	-5.74915E-3
1.69835E-3	56.3942E-12	880.926E-3	-20.8170E-3	55.3218E-12	853.725E-3	-5.25241E-3
1.69335E-3	55.8869E-12	886.581E-3	-22.1926E-3	55.2481E-12	859.585E-3	-5.91671E-3
1.68834E-3	55.2256E-12	885.151E-3	-19.9492E-3	54.7786E-12	876.752E-3	-16.0636E-3
1.68334E-3	54.5427E-12	878.045E-3	-15.9269E-3	54.0737E-12	888.872E-3	-20.9809E-3
1.67834E-3	53.4740E-12	869.477E-3	-27.3850E-3	53.9978E-12	895.854E-3	-19.9472E-3
1.67334E-3	53.2165E-12	867.093E-3	-29.8502E-3	53.4573E-12	891.325E-3	-27.8094E-3
1.66833E-3	52.5614E-12	870.652E-3	-14.7832E-3	53.7147E-12	883.387E-3	-39.3124E-3
1.66333E-3	52.2538E-12	877.458E-3	-13.7800E-3	53.2274E-12	886.889E-3	-28.5874E-3
1.65833E-3	51.6980E-12	869.457E-3	-20.1815E-3	52.6039E-12	892.846E-3	-1.11810E-3
1.65333E-3	51.5009E-12	849.900E-3	-23.1033E-3	52.7501E-12	897.126E-3	14.5911E-3
1.64832E-3	51.5221E-12	843.332E-3	-31.2335E-3	52.5980E-12	902.377E-3	5.49044E-3
1.64332E-3	51.4945E-12	847.070E-3	-19.7951E-3	52.4129E-12	917.010E-3	-10.8492E-3
1.63832E-3	51.4573E-12	852.143E-3	-9.06879E-3	51.7671E-12	926.130E-3	-6.92728E-3
1.63332E-3	51.2034E-12	863.449E-3	-23.9583E-3	51.5308E-12	919.388E-3	4.98812E-3
1.62831E-3	51.3151E-12	875.743E-3	-19.7326E-3	51.3400E-12	923.646E-3	-7.35247E-3
1.62331E-3	51.4862E-12	886.531E-3	3.62006E-3	51.3861E-12	934.979E-3	-35.5066E-3
1.61831E-3	51.0631E-12	906.155E-3	8.38360E-3	50.7363E-12	939.240E-3	-41.5530E-3
1.61331E-3	50.4983E-12	920.580E-3	5.66406E-3	50.8198E-12	943.819E-3	-24.2680E-3
1.60830E-3	50.5267E-12	923.517E-3	-3.09911E-3	50.7325E-12	949.323E-3	-11.3492E-3
1.60330E-3	50.0992E-12	925.761E-3	-6.54628E-3	50.0596E-12	952.239E-3	-3.58718E-3
1.59830E-3	49.6628E-12	922.947E-3	13.4570E-3	49.5438E-12	951.687E-3	1.21231E-3
1.59330E-3	49.1920E-12	911.216E-3	17.5116E-3	49.2882E-12	944.214E-3	-10.8842E-3
1.58829E-3	48.9527E-12	908.261E-3	1.11015E-3	48.7336E-12	937.255E-3	-19.8235E-3
1.58329E-3	48.4400E-12	922.138E-3	-11.6252E-3	48.4288E-12	940.808E-3	-1.81674E-3
1.57829E-3	47.7648E-12	926.808E-3	-13.6648E-3	48.0655E-12	935.449E-3	7.76437E-3
1.57329E-3	47.6266E-12	919.074E-3	-19.2603E-3	47.3028E-12	924.368E-3	-5.97948E-3
1.56828E-3	47.5571E-12	917.835E-3	-31.4118E-3	47.1773E-12	931.373E-3	-19.9397E-3
1.56328E-3	47.3775E-12	925.072E-3	-28.6010E-3	46.9883E-12	953.487E-3	-34.5828E-3
1.55828E-3	46.8019E-12	944.979E-3	-28.7251E-3	46.5146E-12	961.529E-3	-29.9450E-3
1.55328E-3	46.4232E-12	967.355E-3	-34.4599E-3	45.6270E-12	942.032E-3	-17.2742E-3
1.54827E-3	46.0216E-12	962.349E-3	-26.7193E-3	45.5156E-12	928.564E-3	-24.8526E-3
1.54327E-3	45.8253E-12	951.946E-3	-11.4363E-3	45.6122E-12	942.261E-3	-27.7602E-3
1.53827E-3	45.3988E-12	968.858E-3	6.84821E-3	44.7454E-12	965.627E-3	-16.4859E-3
1.53327E-3	45.0237E-12	978.118E-3	16.8706E-3	45.0107E-12	982.028E-3	-11.6996E-3
1.52826E-3	44.7526E-12	970.645E-3	163.103E-6	44.6114E-12	983.544E-3	-18.5085E-3
1.52326E-3	44.4434E-12	972.908E-3	-18.4464E-3	44.3463E-12	969.092E-3	-23.7788E-3
1.51826E-3	43.8168E-12	967.402E-3	-13.3975E-3	43.8766E-12	955.029E-3	-31.8452E-3
1.51326E-3	43.4166E-12	958.570E-3	-9.23856E-3	43.7589E-12	964.099E-3	-36.0457E-3
1.50825E-3	42.8526E-12	970.347E-3	-16.2756E-3	43.5241E-12	982.188E-3	-23.3864E-3
1.50325E-3	42.6494E-12	970.807E-3	-15.6080E-3	43.1875E-12	974.768E-3	-13.7198E-3
1.49825E-3	42.8407E-12	949.752E-3	-8.19918E-3	42.7353E-12	952.138E-3	-13.4012E-3
1.49325E-3	42.6933E-12	955.847E-3	-7.61715E-3	42.8406E-12	955.835E-3	-18.5533E-3
1.48824E-3	42.1850E-12	976.065E-3	-8.35375E-3	42.5933E-12	983.492E-3	-33.8731E-3
1.48324E-3	42.0480E-12	980.389E-3	-7.25166E-3	41.9277E-12	998.466E-3	-36.6019E-3
1.47824E-3	42.3316E-12	985.590E-3	-6.64329E-3	41.8220E-12	995.839E-3	-19.2044E-3
1.47324E-3	42.1382E-12	989.993E-3	-3.93926E-3	41.2669E-12	979.947E-3	-14.2723E-3
1.46823E-3	41.6615E-12	983.746E-3	-1.23738E-3	40.5246E-12	956.129E-3	-22.2177E-3
1.46323E-3	41.2770E-12	984.053E-3	3.25290E-3	40.1252E-12	952.955E-3	-19.8655E-3
1.45823E-3	40.7414E-12	993.256E-3	3.01869E-3	40.1456E-12	966.834E-3	-10.3989E-3
1.45323E-3	40.6858E-12	985.988E-3	-10.2074E-3	39.7731E-12	977.200E-3	-6.00870E-3
1.44822E-3	39.9755E-12	979.950E-3	-28.0030E-3	39.4916E-12	976.658E-3	-8.47128E-3
1.44322E-3	39.1690E-12	992.859E-3	-33.8635E-3	39.5574E-12	969.491E-3	-12.9783E-3
1.43822E-3	38.2897E-12	988.695E-3	-25.8456E-3	38.9792E-12	966.943E-3	-19.5868E-3
1.43322E-3	38.1818E-12	969.099E-3	-22.5218E-3	38.9854E-12	968.265E-3	-25.0375E-3
1.42821E-3	37.6047E-12	962.675E-3	-21.7272E-3	39.2126E-12	975.509E-3	-20.8603E-3
1.42321E-3	36.7152E-12	958.042E-3	-26.5418E-3	38.5370E-12	986.620E-3	-14.1008E-3
1.41821E-3	36.3007E-12	950.076E-3	-26.2359E-3	37.9518E-12	983.007E-3	-18.6711E-3
1.41321E-3	36.2797E-12	935.654E-3	-12.2426E-3	38.6217E-12	968.520E-3	-24.4650E-3
1.40820E-3	36.3666E-12	923.638E-3	-14.6057E-3	38.0355E-12	959.119E-3	-12.9789E-3
1.40320E-3	35.7829E-12	927.503E-3	-27.7385E-3	37.3422E-12	947.482E-3	321.350E-6
1.39820E-3	35.7468E-12	938.110E-3	-24.9588E-3	37.6702E-12	944.185E-3	-1.34560E-3
1.39320E-3	36.0244E-12	947.523E-3	-10.5878E-3	36.8200E-12	943.614E-3	-11.0961E-3
1.38819E-3	36.4895E-12	957.723E-3	-10.8262E-3	36.1618E-12	935.019E-3	-26.0218E-3
1.38319E-3	36.2230E-12	964.181E-3	-17.3397E-3	35.9195E-12	926.515E-3	-42.2069E-3
1.37819E-3	35.9295E-12	961.204E-3	-17.3987E-3	35.3101E-12	919.307E-3	-39.3659E-3
1.37319E-3	35.9580E-12	961.960E-3	-17.3434E-3	34.8324E-12	906.717E-3	-17.3755E-3
1.36818E-3	35.7277E-12	964.680E-3	-18.6099E-3	34.4806E-12	891.263E-3	-2.84664E-3
1.36318E-3	35.6065E-12	960.309E-3	-25.7971E-3	34.0451E-12	891.057E-3	-2.61033E-3
1.35818E-3	35.0279E-12	957.210E-3	-19.0347E-3	33.7125E-12	889.639E-3	-7.69839E-3
1.35318E-3	33.9583E-12	948.779E-3	-3.44026E-3	33.4380E-12	875.728E-3	-14.6226E-3
1.34817E-3	33.2813E-12	932.517E-3	-1.36708E-3	32.7509E-12	865.932E-3	-16.2471E-3
1.34317E-3	33.1312E-12	914.895E-3	-3.61492E-3	32.4823E-12	859.261E-3	-18.2156E-3
1.33817E-3	32.2313E-12	899.579E-3	-3.24214E-3	32.5058E-12	845.657E-3	-27.7702E-3
1.33317E-3	31.5964E-12	885.632E-3	-12.8102E-3	32.5925E-12	833.531E-3	-34.8372E-3
1.32816E-3	31.3338E-12	862.864E-3	-32.8771E-3	32.0084E-12	838.217E-3	-30.0937E-3
1.32316E-3	31.2457E-12	838.101E-3	-35.2611E-3	31.5356E-12	837.642E-3	-14.7661E-3
1.31816E-3	30.6281E-12	818.500E-3	-21.2012E-3	31.7350E-12	815.889E-3	-1.10983E-3
1.31316E-3	30.3386E-12	803.018E-3	-18.5574E-3	31.8624E-12	798.005E-3	12.5544E-3
1.30815E-3	30.5455E-12	805.245E-3	-20.6122E-3	31.4558E-12	796.589E-3	21.3958E-3
1.30315E-3	30.6501E-12	825.482E-3	-13.6913E-3	31.0823E-12	800.772E-3	16.7151E-3
1.29815E-3	30.4828E-12	832.383E-3	-15.5836E-3	30.7279E-12	792.831E-3	772.784E-6
1.29315E-3	30.2301E-12	816.285E-3	-24.0698E-3	30.9577E-12	770.386E-3	-20.0773E-3
1.28814E-3	30.2303E-12	800.698E-3	-20.6564E-3	30.7899E-12	746.091E-3	-29.3265E-3
1.28314E-3	30.4055E-12	799.398E-3	-10.1993E-3	30.1537E-12	726.974E-3	-25.2492E-3
1.27814E-3	30.3410E-12	792.374E-3	-4.28609E-3	29.6378E-12	716.455E-3	-13.3612E-3
1.27314E-3	30.0714E-12	771.356E-3	-4.51564E-3	29.7288E-12	715.241E-3	-2.53442E-3
1.26813E-3	29.5093E-12	758.664E-3	-13.3093E-3	29.6980E-12	703.504E-3	87.8120E-6
1.26313E-3	29.2171E-12	755.107E-3	-27.6352E-3	29.1319E-12	678.290E-3	-5.66830E-3
1.25813E-3	29.0210E-12	750.692E-3	-31.5228E-3	28.1160E-12	660.964E-3	-16.4834E-3
1.25313E-3	28.3615E-12	739.526E-3	-27.2856E-3	27.8671E-12	652.472E-3	-22.7194E-3
1.24812E-3	27.8645E-12	710.217E-3	-28.8178E-3	28.2327E-12	638.869E-3	-22.7633E-3
1.24312E-3	27.6983E-12	670.264E-3	-27.0112E-3	28.2014E-12	612.615E-3	-18.8163E-3
1.23812E-3	27.1738E-12	643.836E-3	-10.9268E-3	27.2061E-12	587.635E-3	-13.6555E-3
1.23312E-3	26.5557E-12	636.493E-3	-3.40705E-3	26.6674E-12	580.690E-3	-16.3747E-3
1.22811E-3	26.6618E-12	634.053E-3	-17.9856E-3	26.9993E-12	584.084E-3	-22.5640E-3
1.22311E-3	26.4975E-12	615.546E-3	-30.1462E-3	27.4362E-12	570.798E-3	-10.8686E-3
1.21811E-3	26.5525E-12	593.592E-3	-34.1005E-3	27.3748E-12	536.948E-3	16.7325E-3
1.21311E-3	26.5804E-12	591.375E-3	-31.5763E-3	26.8058E-12	512.959E-3	21.0440E-3
1.20810E-3	26.3964E-12	590.194E-3	-16.8719E-3	26.5093E-12	505.888E-3	1.13213E-3
1.20310E-3	26.0870E-12	572.528E-3	-18.7812E-3	26.9227E-12	499.811E-3	306.824E-6
1.19810E-3	26.2037E-12	550.051E-3	-31.9426E-3	27.1566E-12	497.560E-3	830.819E-6
1.19310E-3	26.4498E-12	537.535E-3	-27.4154E-3	26.1918E-12	490.583E-3	-11.8568E-3
1.18809E-3	26.1968E-12	531.488E-3	-20.5222E-3	25.8721E-12	478.073E-3	-11.6915E-3
1.18309E-3	25.7623E-12	513.902E-3	-10.7040E-3	26.4030E-12	471.304E-3	-5.07376E-3
1.17809E-3	25.4482E-12	488.252E-3	-1.24840E-3	26.3236E-12	453.478E-3	-6.19279E-3
1.17309E-3	25.6001E-12	481.386E-3	-8.74831E-3	25.6489E-12	428.478E-3	-6.30680E-3
1.16808E-3	25.3919E-12	488.087E-3	-23.6627E-3	25.2483E-12	411.529E-3	-5.30467E-3
1.16308E-3	25.3524E-12	474.669E-3	-32.8106E-3	24.9302E-12	398.696E-3	-15.6225E-3
1.15808E-3	24.8168E-12	446.796E-3	-37.6403E-3	24.8139E-12	380.405E-3	-14.9749E-3
1.15308E-3	24.7790E-12	431.556E-3	-42.8274E-3	25.1611E-12	363.412E-3	-266.610E-6
1.14807E-3	25.0198E-12	425.738E-3	-41.4962E-3	24.9003E-12	353.838E-3	7.54661E-3
1.14307E-3	24.8543E-12	409.011E-3	-33.4150E-3	24.3789E-12	340.109E-3	8.31688E-3
1.13807E-3	24.6034E-12	384.519E-3	-23.2168E-3	24.4115E-12	335.723E-3	-3.18170E-3
1.13307E-3	24.1596E-12	376.658E-3	-8.79489E-3	24.4545E-12	342.542E-3	-16.2592E-3
1.12806E-3	24.5736E-12	375.537E-3	-5.87980E-3	24.1078E-12	331.119E-3	-17.7228E-3
1.12306E-3	24.6528E-12	360.414E-3	-20.8485E-3	24.3623E-12	307.217E-3	-18.0849E-3
1.11806E-3	24.3135E-12	337.022E-3	-25.7832E-3	24.2363E-12	295.072E-3	-19.8743E-3
1.11306E-3	23.9043E-12	316.606E-3	-16.0389E-3	23.7994E-12	277.391E-3	-18.4895E-3
1.10805E-3	23.8910E-12	319.902E-3	-4.88417E-3	23.8975E-12	258.655E-3	-16.8343E-3
1.10305E-3	23.9290E-12	327.908E-3	-642.944E-6	24.0588E-12	262.470E-3	-20.5043E-3
1.09805E-3	23.5898E-12	309.053E-3	-7.99320E-3	23.9156E-12	265.546E-3	-16.8829E-3
1.09305E-3	23.3276E-12	289.465E-3	-10.8169E-3	24.0980E-12	251.842E-3	-1.06868E-3
1.08804E-3	23.1355E-12	280.719E-3	3.62058E-3	23.7996E-12	233.662E-3	-3.35743E-3
1.08304E-3	23.0670E-12	275.399E-3	4.23207E-3	23.2659E-12	227.197E-3	-22.2830E-3
1.07804E-3	23.0530E-12	276.242E-3	-19.4901E-3	23.3144E-12	229.719E-3	-28.4817E-3
1.07304E-3	22.7614E-12	270.648E-3	-37.4920E-3	23.7402E-12	223.964E-3	-29.0723E-3
1.06803E-3	22.6106E-12	254.257E-3	-31.7594E-3	23.3896E-12	199.689E-3	-28.7279E-3
1.06303E-3	22.7794E-12	245.619E-3	-7.31863E-3	23.0483E-12	183.544E-3	-8.53358E-3
1.05803E-3	22.6809E-12	246.692E-3	3.69248E-3	22.8518E-12	198.986E-3	7.75211E-3
1.05303E-3	22.3835E-12	236.528E-3	611.407E-6	22.8247E-12	204.952E-3	-7.70769E-3
1.04802E-3	22.3452E-12	214.855E-3	5.98488E-3	23.0712E-12	180.787E-3	-22.5211E-3
1.04302E-3	22.9383E-12	195.544E-3	8.74093E-3	23.5876E-12	155.113E-3	-21.4616E-3
1.03802E-3	23.0170E-12	177.685E-3	1.59964E-3	22.5768E-12	137.169E-3	-20.3687E-3
1.03302E-3	22.6658E-12	164.335E-3	-874.014E-6	21.9509E-12	126.676E-3	-15.1833E-3
1.02801E-3	22.4762E-12	164.186E-3	-958.112E-6	22.8057E-12	136.090E-3	-3.87544E-3
1.02301E-3	22.2662E-12	170.575E-3	-11.4794E-3	22.7470E-12	144.530E-3	2.18291E-3
1.01801E-3	22.0470E-12	176.151E-3	-25.5741E-3	21.9635E-12	129.182E-3	3.32943E-3
1.01301E-3	21.7714E-12	173.405E-3	-36.8293E-3	21.9901E-12	120.178E-3	-2.24458E-3
1.00800E-3	21.8503E-12	154.412E-3	-39.9970E-3	22.5755E-12	120.733E-3	-15.0822E-3
1.00300E-3	21.4515E-12	134.325E-3	-27.9853E-3	22.3693E-12	114.011E-3	-20.8800E-3
997.999E-6	21.4704E-12	132.687E-3	-16.5243E-3	22.1575E-12	109.732E-3	-19.9195E-3
992.997E-6	21.3937E-12	129.801E-3	-14.7626E-3	21.7310E-12	112.053E-3	-23.9644E-3
987.994E-6	21.1549E-12	121.222E-3	-22.6628E-3	22.0367E-12	105.041E-3	-25.9649E-3
982.991E-6	21.2259E-12	126.548E-3	-33.4804E-3	22.2489E-12	93.9052E-3	-23.8233E-3
977.989E-6	22.1145E-12	128.482E-3	-35.3509E-3	22.5768E-12	98.1551E-3	-28.6442E-3
972.986E-6	21.6810E-12	121.497E-3	-23.9813E-3	21.9222E-12	99.7440E-3	-39.0268E-3
967.984E-6	21.2349E-12	112.589E-3	-7.13337E-3	21.5937E-12	96.2739E-3	-34.7211E-3
962.981E-6	21.9951E-12	104.062E-3	636.902E-6	22.3944E-12	94.2270E-3	-16.7669E-3
957.979E-6	21.7207E-12	106.959E-3	-1.72484E-3	23.0171E-12	81.8124E-3	-5.50476E-3
952.976E-6	22.0208E-12	113.234E-3	-4.97524E-3	22.1189E-12	73.8950E-3	-9.90355E-3
947.974E-6	21.9299E-12	116.812E-3	-1.18636E-3	21.5706E-12	80.4847E-3	-28.4489E-3
942.971E-6	21.5872E-12	117.930E-3	2.98009E-3	21.6772E-12	82.5619E-3	-31.2625E-3
937.969E-6	21.6079E-12	111.433E-3	-10.6444E-3	21.9180E-12	77.8879E-3	-9.21886E-3
932.966E-6	21.9824E-12	105.761E-3	-29.9963E-3	21.5500E-12	73.4261E-3	-2.13848E-3
927.964E-6	21.6814E-12	104.913E-3	-29.9067E-3	21.0116E-12	69.8976E-3	-11.7925E-3
922.961E-6	21.0680E-12	101.438E-3	-19.6034E-3	20.6692E-12	81.5715E-3	-16.7716E-3
917.959E-6	20.9865E-12	93.1565E-3	-21.4146E-3	20.8814E-12	93.6149E-3	-20.6229E-3
912.956E-6	20.9402E-12	92.2968E-3	-33.9858E-3	21.0833E-12	82.6988E-3	-18.7879E-3
907.954E-6	20.9922E-12	97.1694E-3	-22.2728E-3	20.8957E-12	72.9667E-3	-6.77363E-3
902.951E-6	20.5994E-12	85.6219E-3	421.212E-6	20.7345E-12	76.7855E-3	-3.89898E-3
897.949E-6	20.2646E-12	75.8464E-3	-2.47371E-3	20.6953E-12	77.3612E-3	-9.27064E-3
892.946E-6	20.2037E-12	92.6771E-3	-4.48579E-3	21.0122E-12	77.7440E-3	-13.8190E-3
887.944E-6	20.6834E-12	98.2934E-3	4.55103E-3	21.5157E-12	79.3319E-3	-16.5921E-3
882.941E-6	21.0160E-12	85.3947E-3	3.38946E-3	20.9970E-12	81.5900E-3	-15.8368E-3
877.939E-6	20.5915E-12	94.7535E-3	-5.65587E-3	21.1749E-12	95.1527E-3	-22.4591E-3
872.936E-6	20.5170E-12	108.070E-3	-14.0523E-3	21.6561E-12	102.420E-3	-37.6361E-3
867.934E-6	20.8963E-12	97.8631E-3	-19.1247E-3	21.5218E-12	96.5311E-3	-40.1424E-3
862.931E-6	20.8977E-12	99.4275E-3	-32.8600E-3	21.5829E-12	93.4175E-3	-14.2254E-3
857.929E-6	20.7825E-12	119.360E-3	-47.8058E-3	21.1567E-12	88.5316E-3	2.52970E-3
852.926E-6	20.8252E-12	118.843E-3	-35.7936E-3	21.0181E-12	80.2142E-3	-5.70070E-3
847.924E-6	20.4467E-12	101.137E-3	-18.5148E-3	21.2072E-12	89.2850E-3	-13.6188E-3
842.921E-6	20.8499E-12	96.6440E-3	-19.2704E-3	21.2482E-12	112.504E-3	-29.7732E-3
837.919E-6	20.7691E-12	96.1444E-3	-22.1454E-3	20.7024E-12	112.258E-3	-45.2337E-3
832.916E-6	20.6144E-12	91.6351E-3	-17.6894E-3	20.4098E-12	101.373E-3	-36.3109E-3
827.914E-6	20.2242E-12	98.3943E-3	-12.4282E-3	20.6173E-12	104.559E-3	-20.1021E-3
822.911E-6	20.2471E-12	103.246E-3	-14.5048E-3	20.5166E-12	101.641E-3	-14.0071E-3
817.909E-6	20.3888E-12	97.8013E-3	-17.0627E-3	20.5039E-12	103.810E-3	-7.97526E-3
812.906E-6	20.1541E-12	93.5575E-3	-11.2364E-3	20.4046E-12	128.583E-3	-5.26031E-3
807.904E-6	20.0560E-12	83.0651E-3	-10.6596E-3	20.2874E-12	140.854E-3	-10.2985E-3
802.901E-6	19.8635E-12	74.0004E-3	-16.6366E-3	20.6273E-12	127.437E-3	-10.2352E-3
797.899E-6	20.2664E-12	88.7603E-3	-14.0404E-3	21.0073E-12	120.700E-3	-7.03056E-3
792.896E-6	20.1778E-12	111.546E-3	-10.8710E-3	20.6930E-12	132.023E-3	-7.32553E-3
787.894E-6	20.0453E-12	116.473E-3	-4.44467E-3	20.3349E-12	147.340E-3	-10.3425E-3
782.891E-6	20.1249E-12	111.843E-3	3.28199E-3	20.3101E-12	151.176E-3	-18.6183E-3
777.889E-6	20.3206E-12	110.186E-3	-9.38246E-3	21.0661E-12	140.121E-3	-32.2715E-3
772.886E-6	20.5174E-12	114.728E-3	-24.6256E-3	20.6168E-12	132.079E-3	-34.1264E-3
767.884E-6	20.4144E-12	126.233E-3	-15.8933E-3	20.4845E-12	138.817E-3	-20.1699E-3
762.881E-6	20.1352E-12	135.742E-3	-5.35688E-3	20.4452E-12	148.526E-3	-7.23006E-3
757.879E-6	19.9866E-12	134.163E-3	-18.5225E-3	20.6266E-12	148.853E-3	4.87694E-3
752.876E-6	20.2637E-12	133.930E-3	-30.9417E-3	20.3775E-12	144.073E-3	4.90990E-3
747.874E-6	20.1785E-12	145.472E-3	-25.0772E-3	20.0945E-12	137.719E-3	-14.2890E-3
742.871E-6	19.6621E-12	157.581E-3	-12.8027E-3	19.9084E-12	143.002E-3	-32.6366E-3
737.869E-6	19.7624E-12	164.586E-3	-4.98667E-3	19.6261E-12	159.678E-3	-39.3810E-3
732.866E-6	19.5782E-12	158.419E-3	-13.7336E-3	19.8098E-12	161.701E-3	-33.2700E-3
727.864E-6	19.3626E-12	151.163E-3	-23.9655E-3	19.9154E-12	160.899E-3	-20.3285E-3
722.861E-6	19.1831E-12	156.698E-3	-16.9549E-3	19.5502E-12	180.902E-3	-11.8280E-3
717.859E-6	19.5162E-12	168.001E-3	-11.8303E-3	19.2980E-12	202.504E-3	-13.1333E-3
712.856E-6	19.2151E-12	179.371E-3	-20.9190E-3	19.4209E-12	211.259E-3	-15.0217E-3
707.854E-6	18.8737E-12	182.959E-3	-25.5792E-3	19.9823E-12	214.835E-3	-1.03481E-3
702.851E-6	18.8891E-12	177.604E-3	-12.1866E-3	19.5326E-12	211.137E-3	6.24755E-3
697.849E-6	19.4225E-12	178.276E-3	-3.50449E-3	19.5005E-12	208.929E-3	-11.0206E-3
692.846E-6	19.2748E-12	188.312E-3	-3.16592E-3	19.5001E-12	221.627E-3	-22.0235E-3
687.844E-6	18.9088E-12	197.812E-3	3.18436E-3	19.6003E-12	248.299E-3	-18.8706E-3
682.841E-6	19.1282E-12	202.156E-3	-2.90618E-3	19.3766E-12	260.572E-3	-13.7855E-3
677.839E-6	19.2242E-12	213.076E-3	-15.9640E-3	19.4302E-12	248.213E-3	-22.7398E-3
672.836E-6	19.2902E-12	226.890E-3	-18.8044E-3	19.2177E-12	244.308E-3	-45.4873E-3
667.834E-6	18.9434E-12	237.479E-3	-22.7684E-3	19.2011E-12	257.181E-3	-54.1490E-3
662.831E-6	18.7136E-12	247.438E-3	-34.2178E-3	19.1460E-12	279.911E-3	-46.0541E-3
657.829E-6	19.0530E-12	243.546E-3	-35.1290E-3	18.8875E-12	300.783E-3	-28.0396E-3
652.826E-6	18.7639E-12	237.713E-3	-26.8599E-3	18.6421E-12	294.684E-3	-8.32430E-3
647.824E-6	18.4747E-12	247.359E-3	-23.2485E-3	18.5793E-12	275.339E-3	-9.19206E-3
642.821E-6	18.1255E-12	265.007E-3	-14.4041E-3	18.5593E-12	285.612E-3	-29.9690E-3
637.819E-6	18.2826E-12	278.521E-3	-10.6934E-3	18.4103E-12	315.264E-3	-37.5934E-3
632.816E-6	18.0715E-12	282.732E-3	-19.6462E-3	18.4427E-12	322.529E-3	-14.9229E-3
627.814E-6	18.1548E-12	285.247E-3	-20.3881E-3	18.3506E-12	315.508E-3	1.40411E-3
622.811E-6	17.7724E-12	291.970E-3	-15.1138E-3	18.2715E-12	323.367E-3	-7.91398E-3
617.809E-6	17.5100E-12	308.960E-3	-14.3069E-3	18.1199E-12	349.066E-3	-17.3913E-3
612.806E-6	17.6721E-12	332.271E-3	-16.2273E-3	18.1909E-12	369.246E-3	-29.2249E-3
607.804E-6	17.6849E-12	336.162E-3	-25.6122E-3	18.3110E-12	374.517E-3	-41.3890E-3
602.801E-6	17.6475E-12	324.246E-3	-24.7789E-3	18.0571E-12	373.478E-3	-35.0490E-3
597.799E-6	17.1791E-12	319.240E-3	-8.88865E-3	17.8422E-12	372.268E-3	-30.5094E-3
592.796E-6	17.1718E-12	327.358E-3	-4.77604E-3	17.4377E-12	371.621E-3	-33.9696E-3
587.794E-6	17.4923E-12	336.581E-3	-16.8571E-3	17.6096E-12	380.731E-3	-22.0311E-3
582.791E-6	17.4021E-12	342.560E-3	-25.0739E-3	17.0152E-12	400.285E-3	-4.24614E-3
577.789E-6	17.2112E-12	358.306E-3	-27.0523E-3	16.6030E-12	405.867E-3	-2.79603E-3
572.786E-6	16.7137E-12	377.995E-3	-35.8459E-3	16.6944E-12	405.105E-3	-12.5686E-3
567.784E-6	16.7973E-12	393.233E-3	-31.0820E-3	16.7028E-12	415.791E-3	-28.3760E-3
562.781E-6	16.7737E-12	410.196E-3	-10.7338E-3	16.5734E-12	422.843E-3	-48.1622E-3
557.779E-6	16.6176E-12	423.931E-3	-4.19613E-3	16.2161E-12	434.322E-3	-48.8281E-3
552.776E-6	16.2890E-12	428.944E-3	-8.11483E-3	16.0152E-12	451.068E-3	-29.5158E-3
547.774E-6	16.1135E-12	427.812E-3	-15.1688E-3	16.1216E-12	451.414E-3	-15.8662E-3
542.771E-6	16.3959E-12	442.419E-3	-22.6416E-3	16.2558E-12	449.423E-3	-23.0960E-3
537.769E-6	16.2186E-12	458.378E-3	-26.0365E-3	15.9044E-12	469.298E-3	-33.1384E-3
532.766E-6	15.7060E-12	453.071E-3	-26.3859E-3	15.6534E-12	499.334E-3	-26.1281E-3
527.764E-6	15.4565E-12	450.629E-3	-21.3426E-3	15.5745E-12	516.250E-3	-16.1739E-3
522.761E-6	15.7156E-12	459.646E-3	-17.5500E-3	15.7767E-12	518.938E-3	-8.66050E-3
517.759E-6	15.5509E-12	472.921E-3	-13.0608E-3	15.7694E-12	514.222E-3	-8.58725E-3
512.756E-6	15.0436E-12	487.240E-3	-11.3547E-3	15.2115E-12	519.538E-3	-17.0985E-3
507.754E-6	14.5814E-12	503.424E-3	-13.8035E-3	14.7866E-12	530.568E-3	-16.9253E-3
502.751E-6	14.8994E-12	508.514E-3	-4.24657E-3	14.8494E-12	533.174E-3	-9.17936E-3
497.749E-6	14.8446E-12	505.219E-3	8.82242E-3	14.6736E-12	525.889E-3	-4.11030E-3
492.746E-6	14.4480E-12	526.864E-3	572.274E-6	14.1266E-12	521.216E-3	-7.03839E-3
487.744E-6	14.1814E-12	551.696E-3	-22.2091E-3	13.7428E-12	540.878E-3	-17.4188E-3
482.741E-6	13.7006E-12	555.333E-3	-33.5288E-3	13.4667E-12	558.885E-3	-26.6672E-3
477.739E-6	13.6956E-12	548.964E-3	-36.3869E-3	13.5910E-12	561.042E-3	-31.0579E-3
472.736E-6	13.8588E-12	539.425E-3	-32.0033E-3	13.5617E-12	562.874E-3	-30.4355E-3
467.734E-6	13.6227E-12	543.424E-3	-15.7359E-3	13.0752E-12	556.333E-3	-23.6930E-3
462.731E-6	12.9788E-12	561.187E-3	-2.89815E-3	12.9057E-12	562.004E-3	-11.6790E-3
457.729E-6	13.1304E-12	564.757E-3	-6.55475E-3	12.9650E-12	584.137E-3	-3.02506E-3
452.726E-6	13.4097E-12	554.110E-3	-19.2567E-3	12.9653E-12	593.394E-3	-2.21974E-3
447.724E-6	13.1824E-12	560.132E-3	-23.0536E-3	12.8525E-12	598.013E-3	-10.8937E-3
442.721E-6	12.8428E-12	583.287E-3	-25.2923E-3	12.8214E-12	604.222E-3	-25.9743E-3
437.719E-6	12.5830E-12	597.299E-3	-37.2360E-3	12.6660E-12	605.804E-3	-29.6363E-3
432.716E-6	12.7209E-12	595.734E-3	-44.2848E-3	12.4378E-12	613.325E-3	-19.4109E-3
427.714E-6	12.5212E-12	594.908E-3	-29.8697E-3	12.1990E-12	622.710E-3	-8.22379E-3
422.711E-6	12.2425E-12	600.998E-3	-13.7287E-3	11.8402E-12	612.598E-3	-4.83225E-3
417.709E-6	11.7784E-12	617.772E-3	-15.7817E-3	11.7204E-12	585.051E-3	-13.1798E-3
412.706E-6	11.6118E-12	635.615E-3	-17.0437E-3	11.4796E-12	571.125E-3	-27.4861E-3
407.704E-6	11.5271E-12	619.694E-3	-17.1590E-3	11.3284E-12	580.467E-3	-38.5433E-3
402.701E-6	11.1527E-12	591.954E-3	-21.6706E-3	10.9432E-12	589.647E-3	-42.0321E-3
397.699E-6	10.6662E-12	590.040E-3	-18.3802E-3	10.8149E-12	590.191E-3	-37.1061E-3
392.696E-6	10.4366E-12	594.514E-3	-10.6216E-3	10.4812E-12	578.994E-3	-25.7146E-3
387.694E-6	10.2185E-12	602.037E-3	-11.3780E-3	10.3713E-12	565.617E-3	-20.5918E-3
382.691E-6	10.1321E-12	610.576E-3	-18.0080E-3	10.1340E-12	574.854E-3	-22.7954E-3
377.689E-6	10.0241E-12	607.088E-3	-21.5355E-3	9.84684E-12	591.614E-3	-19.4928E-3
372.686E-6	9.60799E-12	604.043E-3	-24.4649E-3	9.81345E-12	592.322E-3	-13.6239E-3
367.684E-6	9.52257E-12	596.770E-3	-21.7600E-3	9.74130E-12	588.755E-3	-14.9514E-3
362.681E-6	9.57325E-12	581.395E-3	-16.4459E-3	9.45130E-12	584.495E-3	-18.7485E-3
357.679E-6	9.30325E-12	582.373E-3	-18.8834E-3	9.34654E-12	575.953E-3	-7.39828E-3
352.676E-6	9.07419E-12	596.133E-3	-30.2168E-3	9.06415E-12	577.074E-3	1.08643E-3
347.674E-6	8.94625E-12	594.925E-3	-37.9799E-3	8.94639E-12	581.783E-3	-11.4851E-3
342.671E-6	8.91701E-12	585.514E-3	-25.3773E-3	8.76658E-12	574.618E-3	-16.4935E-3
337.669E-6	8.77651E-12	589.703E-3	-4.89477E-3	8.63216E-12	563.600E-3	-7.70353E-3
332.666E-6	8.65252E-12	602.234E-3	-1.63901E-3	8.24963E-12	562.940E-3	-13.3994E-3
327.664E-6	8.29064E-12	611.027E-3	-15.6029E-3	7.87981E-12	572.160E-3	-14.6441E-3
322.661E-6	8.01415E-12	605.638E-3	-27.4476E-3	7.73796E-12	571.263E-3	-3.36492E-3
317.659E-6	7.78770E-12	591.170E-3	-26.4512E-3	7.54382E-12	552.380E-3	-9.82859E-3
312.656E-6	7.67348E-12	575.355E-3	-24.8592E-3	7.38401E-12	533.978E-3	-16.8345E-3
307.654E-6	7.35974E-12	558.670E-3	-29.4051E-3	7.01161E-12	527.362E-3	-13.3164E-3
302.651E-6	7.08526E-12	559.328E-3	-28.9150E-3	6.91631E-12	532.966E-3	-7.22847E-3
297.649E-6	6.88774E-12	571.621E-3	-26.7910E-3	6.84963E-12	524.940E-3	-1.70566E-3
292.646E-6	6.69266E-12	571.985E-3	-10.7783E-3	6.65573E-12	497.338E-3	-2.48775E-3
287.644E-6	6.39777E-12	554.914E-3	11.3243E-3	6.44507E-12	492.509E-3	-5.47100E-3
282.641E-6	6.18198E-12	531.675E-3	3.09767E-3	6.29377E-12	506.405E-3	-11.1163E-3
277.639E-6	6.08250E-12	516.499E-3	-21.4765E-3	6.19638E-12	512.122E-3	-23.4760E-3
272.636E-6	5.93551E-12	502.179E-3	-20.9221E-3	6.00587E-12	504.803E-3	-27.5254E-3
267.634E-6	5.74916E-12	489.874E-3	-4.59989E-3	5.95643E-12	498.713E-3	-17.4464E-3
262.631E-6	5.58481E-12	487.641E-3	1.07930E-3	5.68637E-12	498.748E-3	-12.7674E-3
257.629E-6	5.47031E-12	489.054E-3	-1.57942E-3	5.57210E-12	488.510E-3	-29.3145E-3
252.626E-6	5.43561E-12	488.476E-3	-6.89748E-3	5.52442E-12	475.356E-3	-40.4068E-3
247.624E-6	5.27618E-12	483.715E-3	-8.43135E-3	5.34887E-12	464.775E-3	-21.1563E-3
242.621E-6	5.13530E-12	468.447E-3	-10.7804E-3	5.10383E-12	450.180E-3	-9.20456E-3
237.619E-6	5.02827E-12	460.964E-3	-17.5909E-3	4.93459E-12	433.105E-3	-10.9792E-3
232.616E-6	4.92273E-12	476.122E-3	-24.0944E-3	4.81411E-12	421.887E-3	-13.5479E-3
227.614E-6	4.70444E-12	486.194E-3	-23.0373E-3	4.64512E-12	416.978E-3	-21.5947E-3
222.611E-6	4.52601E-12	477.894E-3	-20.4178E-3	4.40906E-12	406.580E-3	-14.9017E-3
217.609E-6	4.45053E-12	457.516E-3	-31.0402E-3	4.18928E-12	399.538E-3	141.026E-6
212.606E-6	4.15496E-12	439.368E-3	-34.0684E-3	4.10133E-12	397.586E-3	-3.16858E-3
207.604E-6	4.09292E-12	435.818E-3	-20.4991E-3	4.03508E-12	386.187E-3	-16.9219E-3
202.601E-6	4.00410E-12	430.531E-3	-14.6087E-3	3.93078E-12	379.010E-3	-23.7325E-3
197.599E-6	3.81273E-12	419.511E-3	-15.3994E-3	3.67960E-12	376.321E-3	-22.4941E-3
192.596E-6	3.61524E-12	411.549E-3	-17.8404E-3	3.54686E-12	355.546E-3	-22.1194E-3
187.594E-6	3.49980E-12	400.520E-3	-17.9043E-3	3.54860E-12	334.560E-3	-22.3952E-3
182.591E-6	3.44037E-12	384.491E-3	-12.7155E-3	3.42093E-12	342.588E-3	-34.5369E-3
177.589E-6	3.35266E-12	375.602E-3	-12.5719E-3	3.28535E-12	353.425E-3	-47.6866E-3
172.586E-6	3.14864E-12	369.539E-3	-5.87717E-3	3.07989E-12	349.145E-3	-27.4596E-3
167.584E-6	2.92472E-12	354.572E-3	7.57030E-3	2.99668E-12	340.887E-3	-7.81449E-3
162.581E-6	2.86825E-12	346.058E-3	11.6202E-3	2.95081E-12	325.478E-3	-23.6200E-3
157.579E-6	2.89565E-12	343.315E-3	2.26799E-3	2.82513E-12	313.444E-3	-40.7161E-3
152.576E-6	2.75361E-12	338.969E-3	-10.2379E-3	2.72564E-12	317.109E-3	-39.2238E-3
147.574E-6	2.44678E-12	338.406E-3	-13.8886E-3	2.50041E-12	322.677E-3	-24.0375E-3
142.571E-6	2.41981E-12	333.748E-3	-17.8666E-3	2.42220E-12	314.798E-3	1.38462E-3
137.569E-6	2.45941E-12	321.010E-3	-16.6425E-3	2.39180E-12	304.674E-3	11.0516E-3
132.566E-6	2.30370E-12	300.676E-3	-8.71776E-3	2.29461E-12	293.252E-3	-5.67492E-3
127.564E-6	2.10444E-12	290.558E-3	-9.30928E-3	2.11505E-12	277.990E-3	-20.8385E-3
122.561E-6	1.96668E-12	296.152E-3	-14.1752E-3	1.96386E-12	279.490E-3	-21.3511E-3
117.559E-6	1.97799E-12	297.039E-3	-25.8760E-3	1.94993E-12	280.626E-3	-19.3720E-3
112.556E-6	1.93396E-12	292.751E-3	-36.5990E-3	1.86255E-12	264.628E-3	-19.0426E-3
107.554E-6	1.76889E-12	291.707E-3	-26.9541E-3	1.74616E-12	250.129E-3	-21.7826E-3
102.551E-6	1.62213E-12	297.269E-3	-9.33340E-3	1.55461E-12	236.717E-3	-22.5346E-3
97.5488E-6	1.57061E-12	294.998E-3	-11.2087E-3	1.58383E-12	224.721E-3	-11.7908E-3
92.5463E-6	1.52841E-12	282.847E-3	-26.3268E-3	1.52595E-12	225.679E-3	-10.4971E-3
87.5438E-6	1.48477E-12	280.468E-3	-33.5121E-3	1.42243E-12	232.622E-3	-18.3775E-3
82.5413E-6	1.27541E-12	276.971E-3	-25.2993E-3	1.27269E-12	232.660E-3	-16.8411E-3
77.5388E-6	1.14322E-12	256.405E-3	-13.2770E-3	1.14488E-12	226.247E-3	-11.4207E-3
72.5363E-6	1.12813E-12	233.868E-3	-13.5026E-3	1.10963E-12	224.970E-3	-8.45820E-3
67.5338E-6	1.10180E-12	223.175E-3	-18.0159E-3	1.09050E-12	225.571E-3	-7.27948E-3
62.5313E-6	977.886E-15	224.236E-3	-17.1459E-3	924.602E-15	219.226E-3	-10.5828E-3
57.5288E-6	767.672E-15	245.735E-3	-9.74050E-3	813.326E-15	220.062E-3	-26.6221E-3
52.5263E-6	677.209E-15	265.308E-3	-6.41909E-3	728.357E-15	230.528E-3	-38.4470E-3
47.5238E-6	786.096E-15	256.100E-3	-7.25465E-3	707.064E-15	239.202E-3	-34.4130E-3
42.5213E-6	694.962E-15	241.503E-3	-6.75130E-3	665.011E-15	249.177E-3	-28.1741E-3
37.5188E-6	535.721E-15	234.412E-3	-6.34623E-3	524.857E-15	253.090E-3	-21.4841E-3
32.5163E-6	397.276E-15	224.821E-3	-6.79660E-3	409.744E-15	242.117E-3	-19.5431E-3
27.5138E-6	390.126E-15	213.878E-3	-13.4855E-3	343.042E-15	236.320E-3	-30.4315E-3
22.5113E-6	405.228E-15	212.224E-3	-21.1968E-3	331.942E-15	251.086E-3	-36.1420E-3
17.5088E-6	210.613E-15	220.690E-3	-15.5096E-3	236.230E-15	270.467E-3	-28.0704E-3
12.5063E-6	99.0056E-15	226.247E-3	-3.55789E-3	112.826E-15	275.709E-3	-22.5909E-3
7.50375E-6	41.9290E-15	230.420E-3	-3.12297E-3	3.31123E-15	258.156E-3	-24.8910E-3
2.50125E-6	17.4191E-15	237.643E-3	-7.91735E-3	-34.8881E-15	237.761E-3	-23.1574E-3
-2.50125E-6	-50.6962E-15	238.415E-3	-20.5565E-3	-65.1353E-15	237.373E-3	-17.2876E-3
-7.50375E-6	-229.738E-15	237.261E-3	-37.3808E-3	-246.026E-15	251.246E-3	-18.3999E-3
-12.5063E-6	-362.185E-15	242.083E-3	-30.8139E-3	-334.597E-15	265.152E-3	-23.0884E-3
-17.5088E-6	-359.046E-15	256.132E-3	-8.78501E-3	-392.284E-15	268.193E-3	-21.4388E-3
-22.5113E-6	-397.350E-15	273.598E-3	-3.31615E-3	-450.939E-15	266.557E-3	-13.5511E-3
-27.5138E-6	-524.338E-15	279.289E-3	-13.4681E-3	-576.619E-15	277.442E-3	-9.71058E-3
-32.5163E-6	-700.991E-15	273.999E-3	-29.7476E-3	-732.904E-15	301.135E-3	-14.8987E-3
-37.5188E-6	-775.733E-15	269.834E-3	-36.5097E-3	-767.205E-15	311.650E-3	-16.7906E-3
-42.5213E-6	-761.058E-15	275.657E-3	-13.2483E-3	-819.634E-15	304.327E-3	-13.0051E-3
-47.5238E-6	-853.291E-15	283.068E-3	5.41990E-3	-907.464E-15	305.478E-3	-14.1924E-3
-52.5263E-6	-1.02627E-12	289.213E-3	-11.3986E-3	-1.09656E-12	323.946E-3	-15.8526E-3
-57.5288E-6	-1.23119E-12	291.601E-3	-30.7641E-3	-1.24050E-12	337.213E-3	-10.6894E-3
-62.5313E-6	-1.28272E-12	294.041E-3	-24.3205E-3	-1.27505E-12	344.030E-3	-7.07163E-3
-67.5338E-6	-1.31563E-12	301.318E-3	-12.6240E-3	-1.30666E-12	357.596E-3	-7.29109E-3
-72.5363E-6	-1.42624E-12	302.073E-3	-11.9202E-3	-1.52701E-12	366.139E-3	-8.29289E-3
-77.5388E-6	-1.64584E-12	308.711E-3	-11.0705E-3	-1.68727E-12	375.297E-3	-17.3432E-3
-82.5413E-6	-1.79053E-12	328.171E-3	-17.4178E-3	-1.80155E-12	390.367E-3	-23.2969E-3
-87.5438E-6	-1.80956E-12	349.750E-3	-32.7725E-3	-1.85953E-12	400.325E-3	-13.8050E-3
-92.5463E-6	-1.94985E-12	374.762E-3	-34.7633E-3	-1.99075E-12	414.462E-3	-7.22755E-3
-97.5488E-6	-2.15738E-12	393.725E-3	-30.6137E-3	-2.17368E-12	428.166E-3	-14.0686E-3
-102.551E-6	-2.37254E-12	389.829E-3	-38.2712E-3	-2.32279E-12	435.520E-3	-16.1131E-3
-107.554E-6	-2.49460E-12	389.403E-3	-39.5018E-3	-2.41202E-12	453.197E-3	-4.91535E-3
-112.556E-6	-2.48476E-12	407.729E-3	-30.7508E-3	-2.52053E-12	478.661E-3	-474.671E-6
-117.559E-6	-2.73880E-12	420.315E-3	-24.3867E-3	-2.68497E-12	496.495E-3	-12.7669E-3
-122.561E-6	-2.92029E-12	434.101E-3	-14.9684E-3	-2.86293E-12	500.775E-3	-31.2270E-3
-127.564E-6	-3.09976E-12	454.795E-3	-6.70777E-3	-3.02500E-12	512.074E-3	-40.1068E-3
-132.566E-6	-3.18691E-12	465.791E-3	-6.99683E-3	-3.17064E-12	534.795E-3	-28.0592E-3
-137.569E-6	-3.25141E-12	473.148E-3	-10.3155E-3	-3.29305E-12	549.030E-3	-11.5467E-3
-142.571E-6	-3.52071E-12	481.643E-3	-9.85441E-3	-3.49627E-12	560.155E-3	-3.15116E-3
-147.574E-6	-3.79391E-12	495.076E-3	-6.84707E-3	-3.72308E-12	572.163E-3	1.29248E-3
-152.576E-6	-3.84211E-12	521.376E-3	-9.09073E-3	-3.86355E-12	590.172E-3	-6.26232E-3
-157.579E-6	-3.90317E-12	547.560E-3	-11.6730E-3	-4.00033E-12	629.257E-3	-22.1943E-3
-162.581E-6	-4.10549E-12	564.898E-3	-10.6940E-3	-4.22874E-12	662.689E-3	-19.0066E-3
-167.584E-6	-4.46494E-12	573.987E-3	-17.1109E-3	-4.52672E-12	672.388E-3	-2.16848E-3
-172.586E-6	-4.70415E-12	586.938E-3	-25.8789E-3	-4.88628E-12	677.211E-3	-2.58766E-3
-177.589E-6	-4.79499E-12	616.683E-3	-28.0087E-3	-5.10395E-12	695.380E-3	-19.8269E-3
-182.591E-6	-5.06880E-12	644.632E-3	-26.5042E-3	-5.18285E-12	720.863E-3	-27.3600E-3
-187.594E-6	-5.41930E-12	658.432E-3	-16.2563E-3	-5.50687E-12	740.881E-3	-20.2050E-3
-192.596E-6	-5.67499E-12	669.721E-3	-5.21506E-3	-5.87205E-12	764.057E-3	-16.9672E-3
-197.599E-6	-5.84684E-12	688.173E-3	-6.31349E-3	-5.91993E-12	786.935E-3	-16.6451E-3
-202.601E-6	-5.97949E-12	712.778E-3	-11.0625E-3	-6.16914E-12	803.843E-3	-14.0006E-3
-207.604E-6	-6.35279E-12	729.607E-3	-18.2849E-3	-6.47620E-12	819.607E-3	-14.0567E-3
-212.606E-6	-6.79746E-12	740.515E-3	-31.0949E-3	-6.74964E-12	838.093E-3	-10.2550E-3
-217.609E-6	-6.92943E-12	759.207E-3	-40.1587E-3	-7.04845E-12	868.540E-3	-5.82506E-3
-222.611E-6	-7.12099E-12	782.303E-3	-34.0820E-3	-7.31048E-12	902.266E-3	-5.00024E-3
-227.614E-6	-7.43377E-12	805.486E-3	-16.6714E-3	-7.53121E-12	918.215E-3	-2.74958E-3
-232.616E-6	-7.79662E-12	830.230E-3	-9.61467E-3	-7.82106E-12	926.724E-3	-6.07324E-3
-237.619E-6	-8.15987E-12	852.709E-3	-28.1403E-3	-8.15102E-12	948.898E-3	-5.18429E-3
-242.621E-6	-8.36304E-12	870.926E-3	-55.0255E-3	-8.44074E-12	974.671E-3	9.59694E-3
-247.624E-6	-8.48802E-12	883.666E-3	-47.6774E-3	-8.72109E-12	992.040E-3	8.51424E-3
-252.626E-6	-8.87686E-12	893.283E-3	-7.17866E-3	-8.99037E-12	1.00077E+0	-19.1751E-3
-257.629E-6	-9.26046E-12	911.685E-3	5.50057E-3	-9.34451E-12	1.00058E+0	-32.6524E-3
-262.631E-6	-9.63492E-12	936.087E-3	-14.2038E-3	-9.74367E-12	1.01379E+0	-24.5294E-3
-267.634E-6	-9.77154E-12	956.421E-3	-16.5447E-3	-10.0857E-12	1.05267E+0	-19.4761E-3
-272.636E-6	-10.0893E-12	967.162E-3	-802.298E-6	-10.2240E-12	1.07901E+0	-16.3209E-3
-277.639E-6	-10.5423E-12	981.925E-3	7.28874E-3	-10.5507E-12	1.08389E+0	-12.0500E-3
-282.641E-6	-10.9771E-12	1.01582E+0	6.67354E-3	-11.0089E-12	1.09017E+0	-18.5470E-3
-287.644E-6	-11.3151E-12	1.04284E+0	1.89868E-3	-11.3691E-12	1.09685E+0	-23.8162E-3
-292.646E-6	-11.5147E-12	1.05146E+0	-2.42798E-3	-11.6286E-12	1.11777E+0	-15.0089E-3
-297.649E-6	-11.8072E-12	1.06071E+0	-167.141E-6	-11.8676E-12	1.14683E+0	-8.38515E-3
-302.651E-6	-12.4117E-12	1.07412E+0	7.47810E-3	-12.4186E-12	1.15284E+0	-1.47157E-3
-307.654E-6	-12.9055E-12	1.09008E+0	10.8007E-3	-12.9584E-12	1.15650E+0	5.43123E-3
-312.656E-6	-13.0113E-12	1.11321E+0	190.813E-6	-13.1288E-12	1.17951E+0	-10.3723E-3
-317.659E-6	-13.4794E-12	1.13846E+0	-8.38717E-3	-13.2442E-12	1.19539E+0	-26.0416E-3
-322.661E-6	-14.0578E-12	1.15046E+0	-4.92304E-3	-13.9653E-12	1.19454E+0	-14.7975E-3
-327.664E-6	-14.5157E-12	1.15919E+0	-6.73381E-3	-14.5533E-12	1.19261E+0	-2.22423E-3
-332.666E-6	-14.7398E-12	1.18331E+0	-13.4363E-3	-14.8243E-12	1.20218E+0	-7.57955E-3
-337.669E-6	-15.1546E-12	1.19824E+0	-11.0158E-3	-15.0602E-12	1.22368E+0	-28.6737E-3
-342.671E-6	-15.4871E-12	1.19417E+0	-11.9024E-3	-15.5007E-12	1.24739E+0	-44.5411E-3
-347.674E-6	-15.7573E-12	1.19335E+0	-22.5457E-3	-16.0566E-12	1.25315E+0	-30.3851E-3
-352.676E-6	-16.2996E-12	1.21112E+0	-18.0817E-3	-16.4629E-12	1.24826E+0	-16.0206E-3
-357.679E-6	-16.3755E-12	1.24056E+0	-4.99407E-3	-16.6852E-12	1.25967E+0	-20.8760E-3
-362.681E-6	-16.7733E-12	1.25434E+0	-9.36418E-3	-17.0071E-12	1.27919E+0	-22.5642E-3
-367.684E-6	-17.2717E-12	1.24537E+0	-24.9081E-3	-17.6861E-12	1.29127E+0	-15.1266E-3
-372.686E-6	-17.8473E-12	1.23802E+0	-29.0898E-3	-18.0127E-12	1.28824E+0	-10.9104E-3
-377.689E-6	-18.1847E-12	1.24644E+0	-17.4986E-3	-18.3695E-12	1.26836E+0	-18.7256E-3
-382.691E-6	-18.4562E-12	1.25180E+0	-3.49703E-3	-18.8278E-12	1.25790E+0	-23.6731E-3
-387.694E-6	-18.8971E-12	1.24611E+0	6.24849E-3	-19.1497E-12	1.27304E+0	-20.9030E-3
-392.696E-6	-19.5289E-12	1.24171E+0	2.93184E-3	-19.4044E-12	1.29181E+0	-19.1284E-3
-397.699E-6	-20.1582E-12	1.24419E+0	-13.0515E-3	-19.9639E-12	1.29534E+0	-17.4400E-3
-402.701E-6	-20.5982E-12	1.25626E+0	-15.2651E-3	-20.6022E-12	1.29620E+0	-19.0105E-3
-407.704E-6	-20.4999E-12	1.27847E+0	-2.09859E-3	-20.9492E-12	1.30583E+0	-18.6602E-3
-412.706E-6	-21.1912E-12	1.28806E+0	-4.14560E-3	-21.3069E-12	1.31306E+0	-9.06667E-3
-417.709E-6	-21.9560E-12	1.27621E+0	-16.1384E-3	-22.2517E-12	1.30588E+0	-5.22954E-3
-422.711E-6	-22.3101E-12	1.26898E+0	-19.4634E-3	-23.0491E-12	1.29183E+0	-11.2544E-3
-427.714E-6	-22.3000E-12	1.27615E+0	-17.7390E-3	-22.9196E-12	1.28389E+0	-14.5774E-3
-432.716E-6	-22.8046E-12	1.27722E+0	-11.1035E-3	-23.4941E-12	1.27975E+0	-15.1020E-3
-437.719E-6	-23.4358E-12	1.26579E+0	-7.84120E-3	-24.3028E-12	1.27204E+0	-23.8803E-3
-442.721E-6	-23.6944E-12	1.26188E+0	-17.3292E-3	-24.7194E-12	1.26300E+0	-40.0226E-3
-447.724E-6	-23.8664E-12	1.26506E+0	-22.4863E-3	-24.6129E-12	1.25834E+0	-43.4405E-3
-452.726E-6	-24.0123E-12	1.25790E+0	-7.47069E-3	-25.1769E-12	1.25081E+0	-38.1844E-3
-457.729E-6	-24.4844E-12	1.24346E+0	4.04447E-3	-25.2652E-12	1.23984E+0	-34.1710E-3
-462.731E-6	-24.9039E-12	1.23136E+0	-7.17298E-3	-25.8579E-12	1.22896E+0	-30.9000E-3
-467.734E-6	-25.6092E-12	1.22381E+0	-27.9828E-3	-26.0110E-12	1.21142E+0	-35.0237E-3
-472.736E-6	-25.8011E-12	1.21590E+0	-38.3957E-3	-26.3559E-12	1.19185E+0	-37.4023E-3
-477.739E-6	-26.2715E-12	1.20355E+0	-32.5003E-3	-26.6972E-12	1.17693E+0	-39.2945E-3
-482.741E-6	-26.8599E-12	1.18380E+0	-26.1777E-3	-27.2006E-12	1.16349E+0	-40.5478E-3
-487.744E-6	-27.5033E-12	1.17016E+0	-21.3869E-3	-27.5899E-12	1.16000E+0	-26.9508E-3
-492.746E-6	-27.8153E-12	1.17411E+0	-11.5115E-3	-28.0816E-12	1.15903E+0	-9.64921E-3
-497.749E-6	-27.9614E-12	1.18035E+0	-11.2512E-3	-28.5102E-12	1.14808E+0	-5.61904E-3
-502.751E-6	-28.3536E-12	1.16022E+0	-18.1044E-3	-28.7937E-12	1.12841E+0	-4.57225E-3
-507.754E-6	-28.9723E-12	1.12492E+0	-14.7042E-3	-29.2733E-12	1.10723E+0	-6.47703E-3
-512.756E-6	-29.6270E-12	1.11764E+0	-13.2711E-3	-29.9373E-12	1.09192E+0	-18.1839E-3
-517.759E-6	-29.3382E-12	1.12906E+0	-26.7176E-3	-30.2753E-12	1.07806E+0	-29.1702E-3
-522.761E-6	-30.0437E-12	1.12155E+0	-34.0634E-3	-30.4407E-12	1.06761E+0	-32.2566E-3
-527.764E-6	-30.9988E-12	1.09106E+0	-17.2339E-3	-30.6672E-12	1.04866E+0	-31.0278E-3
-532.766E-6	-31.1798E-12	1.06726E+0	-770.787E-6	-31.6352E-12	1.02283E+0	-18.0594E-3
-537.769E-6	-31.1093E-12	1.06236E+0	-8.43191E-3	-31.8304E-12	1.01559E+0	-4.32396E-3
-542.771E-6	-30.9928E-12	1.05729E+0	-20.2603E-3	-31.9805E-12	1.01033E+0	-21.5729E-3
-547.774E-6	-31.5446E-12	1.03950E+0	-34.8362E-3	-31.7611E-12	981.011E-3	-37.7626E-3
-552.776E-6	-31.9026E-12	1.02008E+0	-46.7806E-3	-31.8135E-12	945.473E-3	-24.9913E-3
-557.779E-6	-31.8954E-12	1.00341E+0	-33.9765E-3	-32.2914E-12	920.333E-3	-7.49674E-3
-562.781E-6	-31.7622E-12	983.877E-3	-16.6855E-3	-32.6439E-12	907.434E-3	-6.69784E-3
-567.784E-6	-32.7090E-12	952.930E-3	-12.5377E-3	-32.7197E-12	901.327E-3	-25.6648E-3
-572.786E-6	-33.1065E-12	918.301E-3	-25.6071E-3	-32.9722E-12	883.230E-3	-29.3722E-3
-577.789E-6	-33.4301E-12	897.998E-3	-37.3603E-3	-33.9524E-12	861.075E-3	-15.4062E-3
-582.791E-6	-33.8741E-12	882.414E-3	-27.3091E-3	-33.7599E-12	840.789E-3	-3.13368E-3
-587.794E-6	-34.1677E-12	871.243E-3	-14.1260E-3	-34.2575E-12	813.994E-3	3.59016E-3
-592.796E-6	-34.4618E-12	862.224E-3	-16.8078E-3	-34.7178E-12	793.779E-3	-5.48085E-3
-597.799E-6	-34.6949E-12	849.011E-3	-30.6693E-3	-34.7406E-12	780.945E-3	-7.80468E-3
-602.801E-6	-35.2489E-12	835.079E-3	-33.5362E-3	-35.7860E-12	763.976E-3	2.31780E-3
-607.804E-6	-34.9516E-12	823.751E-3	-22.1927E-3	-36.0795E-12	748.809E-3	-7.51406E-3
-612.806E-6	-35.9360E-12	816.318E-3	-8.51796E-3	-35.9348E-12	730.010E-3	-21.7908E-3
-617.809E-6	-36.0337E-12	794.815E-3	1.97707E-3	-36.8744E-12	702.694E-3	-15.6353E-3
-622.811E-6	-36.1214E-12	763.340E-3	6.32234E-3	-37.3457E-12	675.522E-3	-3.90888E-3
-627.814E-6	-36.1430E-12	735.654E-3	-5.30906E-3	-37.1377E-12	653.393E-3	5.17681E-3
-632.816E-6	-37.3503E-12	705.410E-3	-14.5058E-3	-37.0206E-12	632.665E-3	7.72424E-3
-637.819E-6	-37.4048E-12	686.339E-3	-7.34965E-3	-37.2980E-12	612.498E-3	3.10488E-3
-642.821E-6	-37.0952E-12	688.755E-3	-18.5293E-3	-37.1025E-12	602.161E-3	-6.54563E-3
-647.824E-6	-37.4474E-12	693.583E-3	-41.5759E-3	-37.6449E-12	594.538E-3	-18.7268E-3
-652.826E-6	-37.3622E-12	674.651E-3	-48.3606E-3	-37.9120E-12	575.056E-3	-19.6839E-3
-657.829E-6	-37.5247E-12	637.990E-3	-37.5933E-3	-37.6284E-12	555.767E-3	-12.5016E-3
-662.831E-6	-37.6586E-12	602.166E-3	-21.1075E-3	-37.3827E-12	536.475E-3	-12.2909E-3
-667.834E-6	-38.1157E-12	577.232E-3	-11.8081E-3	-38.5565E-12	516.143E-3	-16.0861E-3
-672.836E-6	-38.2629E-12	559.868E-3	-5.86169E-3	-38.9256E-12	508.769E-3	-13.2165E-3
-677.839E-6	-38.6707E-12	542.447E-3	-9.34656E-3	-38.3323E-12	497.551E-3	-12.7138E-3
-682.841E-6	-39.3378E-12	538.379E-3	-13.8952E-3	-37.7456E-12	475.900E-3	-15.6796E-3
-687.844E-6	-38.6985E-12	546.701E-3	-11.2548E-3	-38.8039E-12	453.311E-3	-3.79903E-3
-692.846E-6	-39.0559E-12	542.218E-3	-12.2758E-3	-39.7246E-12	448.844E-3	4.49826E-3
-697.849E-6	-39.5696E-12	514.742E-3	-5.44961E-3	-39.2344E-12	452.703E-3	-11.3381E-3
-702.851E-6	-39.3810E-12	487.921E-3	-6.63194E-3	-39.1721E-12	431.885E-3	-16.4215E-3
-707.854E-6	-39.3775E-12	477.983E-3	-23.9562E-3	-39.4036E-12	407.306E-3	-7.29116E-3
-712.856E-6	-39.9941E-12	462.086E-3	-20.8024E-3	-39.9022E-12	386.317E-3	-10.6445E-3
-717.859E-6	-40.2462E-12	440.007E-3	-6.83712E-3	-40.0989E-12	362.928E-3	-16.6314E-3
-722.861E-6	-40.3454E-12	434.759E-3	-16.3211E-3	-39.7440E-12	354.774E-3	-25.9932E-3
-727.864E-6	-40.9573E-12	425.802E-3	-30.4102E-3	-39.5017E-12	355.444E-3	-43.2899E-3
-732.866E-6	-41.8118E-12	402.470E-3	-23.7910E-3	-39.9599E-12	351.971E-3	-48.1567E-3
-737.869E-6	-41.7467E-12	390.775E-3	-14.9306E-3	-40.1987E-12	341.121E-3	-29.0607E-3
-742.871E-6	-41.9621E-12	396.380E-3	-14.3860E-3	-40.1542E-12	321.300E-3	-12.8423E-3
-747.874E-6	-41.5249E-12	391.388E-3	-13.4697E-3	-40.1734E-12	304.555E-3	-9.39536E-3
-752.876E-6	-41.7508E-12	370.504E-3	-8.89487E-3	-40.7184E-12	294.856E-3	-9.24391E-3
-757.879E-6	-42.3590E-12	348.101E-3	-16.7768E-3	-41.4181E-12	277.937E-3	-13.0551E-3
-762.881E-6	-41.7889E-12	340.679E-3	-35.6130E-3	-41.7572E-12	260.925E-3	-15.5208E-3
-767.884E-6	-41.0375E-12	346.470E-3	-33.7533E-3	-41.2271E-12	256.864E-3	-14.9574E-3
-772.886E-6	-40.8295E-12	322.890E-3	-20.8072E-3	-41.5520E-12	254.016E-3	-15.0634E-3
-777.889E-6	-40.8150E-12	290.783E-3	-19.2828E-3	-41.3505E-12	243.814E-3	-10.8507E-3
-782.891E-6	-41.2080E-12	278.046E-3	-28.3286E-3	-41.5532E-12	236.936E-3	-1.01766E-3
-787.894E-6	-41.1430E-12	257.758E-3	-33.7635E-3	-41.6003E-12	230.730E-3	3.03227E-3
-792.896E-6	-40.9775E-12	240.091E-3	-13.6274E-3	-41.0442E-12	220.910E-3	-1.21020E-3
-797.899E-6	-41.2334E-12	237.593E-3	4.93618E-3	-41.0916E-12	211.730E-3	-2.56833E-3
-802.901E-6	-41.2546E-12	233.154E-3	-5.05703E-3	-41.4594E-12	204.033E-3	4.78149E-3
-807.904E-6	-41.2831E-12	222.146E-3	-20.2408E-3	-41.0623E-12	199.699E-3	-1.96461E-3
-812.906E-6	-41.9421E-12	213.883E-3	-27.0797E-3	-41.1523E-12	198.526E-3	-26.5409E-3
-817.909E-6	-42.2067E-12	213.555E-3	-26.8882E-3	-40.5810E-12	203.049E-3	-35.9401E-3
-822.911E-6	-42.0043E-12	212.393E-3	-29.0337E-3	-41.6324E-12	198.145E-3	-23.4825E-3
-827.914E-6	-42.8689E-12	202.008E-3	-37.0166E-3	-41.5188E-12	179.984E-3	-17.2266E-3
-832.916E-6	-43.3845E-12	192.774E-3	-37.8563E-3	-41.2197E-12	165.576E-3	-29.4204E-3
-837.919E-6	-43.1940E-12	196.526E-3	-29.2763E-3	-41.1366E-12	159.666E-3	-38.4035E-3
-842.921E-6	-43.1449E-12	201.040E-3	-26.3403E-3	-42.7750E-12	157.139E-3	-25.6160E-3
-847.924E-6	-43.8552E-12	186.667E-3	-25.4695E-3	-42.4354E-12	156.180E-3	-14.9499E-3
-852.926E-6	-43.0181E-12	163.225E-3	-27.6566E-3	-42.4161E-12	158.332E-3	-23.6898E-3
-857.929E-6	-43.2686E-12	168.069E-3	-32.3542E-3	-42.5474E-12	161.409E-3	-25.7674E-3
-862.931E-6	-43.6060E-12	179.744E-3	-22.2830E-3	-42.2629E-12	166.518E-3	-22.6432E-3
-867.934E-6	-42.7371E-12	157.259E-3	-10.7289E-3	-43.3833E-12	161.539E-3	-23.1964E-3
-872.936E-6	-41.7424E-12	143.359E-3	-10.3899E-3	-43.3327E-12	143.909E-3	-14.9154E-3
-877.939E-6	-41.9238E-12	144.204E-3	-19.8599E-3	-42.5185E-12	135.361E-3	-14.4318E-3
-882.941E-6	-42.2484E-12	133.106E-3	-28.4926E-3	-42.4161E-12	134.558E-3	-30.4357E-3
-887.944E-6	-41.8087E-12	127.086E-3	-17.5422E-3	-42.9187E-12	129.189E-3	-37.9617E-3
-892.946E-6	-41.5967E-12	134.483E-3	-9.94202E-3	-43.1350E-12	121.663E-3	-40.2451E-3
-897.949E-6	-41.8080E-12	155.588E-3	-13.8049E-3	-42.9063E-12	120.164E-3	-44.0947E-3
-902.951E-6	-42.6476E-12	164.867E-3	-7.77445E-3	-42.5328E-12	126.453E-3	-31.3935E-3
-907.954E-6	-42.6910E-12	146.583E-3	-9.18455E-3	-42.2967E-12	126.934E-3	-10.4257E-3
-912.956E-6	-42.2944E-12	123.907E-3	-10.7297E-3	-42.4863E-12	116.654E-3	3.37196E-3
-917.959E-6	-42.9944E-12	109.558E-3	-6.37109E-3	-42.3719E-12	114.657E-3	4.32530E-3
-922.961E-6	-43.2279E-12	115.159E-3	-12.7098E-3	-41.9905E-12	132.733E-3	-1.69312E-3
-927.964E-6	-43.1024E-12	124.814E-3	-18.8842E-3	-42.1402E-12	152.080E-3	-6.42461E-3
-932.966E-6	-42.9984E-12	120.054E-3	-24.5422E-3	-42.8205E-12	141.323E-3	-14.0954E-3
-937.969E-6	-43.5992E-12	122.130E-3	-26.2310E-3	-43.5079E-12	111.484E-3	-18.3952E-3
-942.971E-6	-43.6982E-12	130.446E-3	-17.5693E-3	-42.9848E-12	96.8212E-3	-12.3248E-3
-947.974E-6	-44.2651E-12	136.074E-3	-11.0486E-3	-42.9754E-12	97.3467E-3	-2.86947E-3
-952.976E-6	-44.2148E-12	135.549E-3	-14.0893E-3	-43.1782E-12	99.9331E-3	-467.059E-6
-957.979E-6	-43.4958E-12	121.350E-3	-21.5566E-3	-44.0519E-12	102.963E-3	-17.6983E-3
-962.981E-6	-43.4688E-12	99.3495E-3	-27.7292E-3	-43.6835E-12	101.992E-3	-37.9311E-3
-967.984E-6	-43.6609E-12	87.4924E-3	-31.4329E-3	-43.5614E-12	105.802E-3	-35.0321E-3
-972.986E-6	-43.4669E-12	97.7230E-3	-25.0236E-3	-43.3130E-12	119.286E-3	-24.3495E-3
-977.989E-6	-43.1896E-12	118.334E-3	-16.3601E-3	-43.3333E-12	130.511E-3	-25.5104E-3
-982.991E-6	-43.3360E-12	137.517E-3	-17.9639E-3	-43.6517E-12	134.565E-3	-35.4726E-3
-987.994E-6	-43.3027E-12	144.953E-3	-25.1206E-3	-43.6188E-12	131.200E-3	-31.8796E-3
-992.997E-6	-43.4300E-12	132.956E-3	-36.4676E-3	-43.2135E-12	133.660E-3	-16.3015E-3
-997.999E-6	-43.4953E-12	119.616E-3	-41.8411E-3	-43.3882E-12	137.347E-3	-13.6869E-3
-1.00300E-3	-42.8217E-12	122.472E-3	-28.8997E-3	-43.3864E-12	139.621E-3	-11.4782E-3
-1.00800E-3	-43.1938E-12	129.380E-3	-13.7969E-3	-43.5206E-12	155.078E-3	-14.7310E-3
-1.01301E-3	-44.3056E-12	134.041E-3	-12.0033E-3	-43.3039E-12	166.795E-3	-28.9298E-3
-1.01801E-3	-44.0298E-12	143.006E-3	-17.7355E-3	-43.3437E-12	167.284E-3	-23.5667E-3
-1.02301E-3	-42.9710E-12	152.724E-3	-20.1250E-3	-43.3191E-12	164.985E-3	-11.3974E-3
-1.02801E-3	-43.7625E-12	163.184E-3	-20.7533E-3	-44.0113E-12	163.940E-3	-5.91235E-3
-1.03302E-3	-43.9014E-12	167.043E-3	-28.0874E-3	-44.0677E-12	166.470E-3	-7.91663E-3
-1.03802E-3	-43.7665E-12	159.899E-3	-37.5521E-3	-44.0163E-12	163.499E-3	-22.9870E-3
-1.04302E-3	-44.0006E-12	157.597E-3	-33.4716E-3	-44.1293E-12	163.999E-3	-21.9577E-3
-1.04802E-3	-44.3462E-12	168.384E-3	-20.8438E-3	-44.1314E-12	170.626E-3	-14.8845E-3
-1.05303E-3	-43.9080E-12	182.631E-3	-27.7326E-3	-44.3226E-12	174.846E-3	-11.6098E-3
-1.05803E-3	-44.0586E-12	182.941E-3	-39.5085E-3	-44.3809E-12	186.894E-3	1.17559E-3
-1.06303E-3	-44.7385E-12	174.669E-3	-38.8220E-3	-44.0628E-12	204.220E-3	4.05011E-3
-1.06803E-3	-44.1710E-12	169.411E-3	-36.8487E-3	-44.1582E-12	220.419E-3	-10.1727E-3
-1.07304E-3	-43.9067E-12	174.501E-3	-34.9334E-3	-44.3507E-12	231.873E-3	-38.7260E-3
-1.07804E-3	-44.4733E-12	195.070E-3	-27.6905E-3	-44.4010E-12	224.295E-3	-50.0616E-3
-1.08304E-3	-44.3013E-12	216.611E-3	-13.3718E-3	-44.4181E-12	220.090E-3	-34.4594E-3
-1.08804E-3	-44.3232E-12	225.961E-3	-1.37295E-3	-44.5059E-12	237.041E-3	-32.3604E-3
-1.09305E-3	-44.3050E-12	227.063E-3	-2.69595E-3	-44.4922E-12	249.669E-3	-38.2702E-3
-1.09805E-3	-44.7070E-12	233.050E-3	-9.93143E-3	-44.7300E-12	250.322E-3	-28.2477E-3
-1.10305E-3	-44.1839E-12	237.817E-3	-12.7101E-3	-44.7629E-12	246.197E-3	-22.2103E-3
-1.10805E-3	-44.3686E-12	244.396E-3	-22.7262E-3	-45.1002E-12	244.367E-3	-26.9665E-3
-1.11306E-3	-44.5444E-12	260.788E-3	-28.3016E-3	-45.3327E-12	261.063E-3	-20.5111E-3
-1.11806E-3	-43.9013E-12	268.815E-3	-16.2448E-3	-45.0860E-12	291.988E-3	-11.3338E-3
-1.12306E-3	-44.3202E-12	272.127E-3	-6.27084E-3	-45.3434E-12	310.750E-3	-14.9420E-3
-1.12806E-3	-44.5673E-12	277.940E-3	-2.90408E-3	-45.6273E-12	317.145E-3	-24.0248E-3
-1.13307E-3	-44.8997E-12	288.805E-3	-10.5535E-3	-45.3618E-12	326.032E-3	-19.2598E-3
-1.13807E-3	-44.4214E-12	305.641E-3	-24.4958E-3	-45.3082E-12	336.828E-3	-9.97193E-3
-1.14307E-3	-45.1989E-12	312.938E-3	-27.6130E-3	-45.6078E-12	345.645E-3	-11.2817E-3
-1.14807E-3	-45.5610E-12	321.858E-3	-28.7259E-3	-45.5177E-12	354.770E-3	-16.1646E-3
-1.15308E-3	-45.8017E-12	330.987E-3	-24.8229E-3	-45.2318E-12	370.513E-3	-18.2188E-3
-1.15808E-3	-45.7482E-12	330.533E-3	-23.8762E-3	-45.2283E-12	393.262E-3	-6.00483E-3
-1.16308E-3	-47.2242E-12	335.353E-3	-32.3202E-3	-45.5180E-12	408.460E-3	13.5482E-3
-1.16808E-3	-46.7495E-12	346.356E-3	-33.2081E-3	-45.5787E-12	413.117E-3	10.5528E-3
-1.17309E-3	-47.3441E-12	367.646E-3	-33.1518E-3	-46.0500E-12	418.032E-3	-30.4363E-3
-1.17809E-3	-47.3646E-12	391.355E-3	-29.1008E-3	-45.9948E-12	423.742E-3	-65.8107E-3
-1.18309E-3	-47.3693E-12	397.281E-3	-16.3125E-3	-46.1402E-12	440.232E-3	-49.4546E-3
-1.18809E-3	-47.4444E-12	407.926E-3	-14.6915E-3	-46.3082E-12	467.360E-3	-17.8071E-3
-1.19310E-3	-47.4783E-12	432.905E-3	-22.1825E-3	-46.8913E-12	480.350E-3	-5.64498E-3
-1.19810E-3	-47.5278E-12	447.760E-3	-24.6678E-3	-47.4406E-12	492.070E-3	-1.04708E-3
-1.20310E-3	-46.4219E-12	452.604E-3	-23.3032E-3	-47.7393E-12	520.478E-3	403.452E-6
-1.20810E-3	-46.7587E-12	459.040E-3	-20.4266E-3	-47.5997E-12	540.445E-3	-15.0386E-3
-1.21311E-3	-46.9792E-12	463.537E-3	-25.8342E-3	-47.9289E-12	535.005E-3	-43.0825E-3
-1.21811E-3	-46.3921E-12	463.286E-3	-42.0454E-3	-48.3003E-12	540.204E-3	-59.6371E-3
-1.22311E-3	-46.3395E-12	469.137E-3	-47.2600E-3	-48.2069E-12	567.311E-3	-63.1812E-3
-1.22811E-3	-46.7677E-12	489.308E-3	-29.5667E-3	-48.4285E-12	582.034E-3	-49.5494E-3
-1.23312E-3	-47.2706E-12	527.330E-3	-8.97521E-3	-48.6123E-12	595.514E-3	-25.3931E-3
-1.23812E-3	-46.8997E-12	561.927E-3	-10.0978E-3	-48.1710E-12	611.988E-3	-13.7323E-3
-1.24312E-3	-47.7428E-12	572.747E-3	-17.9102E-3	-48.6777E-12	615.126E-3	-22.0661E-3
-1.24812E-3	-48.1866E-12	573.872E-3	-17.5190E-3	-48.8834E-12	632.113E-3	-35.3556E-3
-1.25313E-3	-48.9067E-12	578.902E-3	-17.4706E-3	-48.3272E-12	661.217E-3	-37.0732E-3
-1.25813E-3	-49.5385E-12	598.881E-3	-7.76771E-3	-48.7903E-12	668.295E-3	-37.7059E-3
-1.26313E-3	-49.0387E-12	629.225E-3	-3.60102E-3	-49.5030E-12	666.395E-3	-34.7435E-3
-1.26813E-3	-49.9704E-12	640.328E-3	-24.6328E-3	-48.9120E-12	683.660E-3	-18.7314E-3
-1.27314E-3	-50.3176E-12	632.103E-3	-45.0161E-3	-49.3827E-12	716.802E-3	-4.92821E-3
-1.27814E-3	-50.4783E-12	639.681E-3	-41.6578E-3	-49.9458E-12	755.997E-3	-8.42184E-3
-1.28314E-3	-50.1810E-12	667.385E-3	-31.6630E-3	-50.2870E-12	781.241E-3	-19.0204E-3
-1.28814E-3	-50.7833E-12	699.395E-3	-33.3948E-3	-50.7646E-12	771.268E-3	-20.2090E-3
-1.29315E-3	-50.9392E-12	709.547E-3	-35.8831E-3	-51.2797E-12	767.861E-3	-8.58179E-3
-1.29815E-3	-50.9529E-12	701.014E-3	-32.8477E-3	-51.0660E-12	785.320E-3	380.798E-6
-1.30315E-3	-51.0154E-12	714.723E-3	-29.3944E-3	-51.8027E-12	792.178E-3	-6.10358E-3
-1.30815E-3	-50.6733E-12	735.499E-3	-25.3035E-3	-52.0125E-12	796.472E-3	-18.6619E-3
-1.31316E-3	-51.0121E-12	736.271E-3	-17.1323E-3	-52.3203E-12	799.541E-3	-21.2368E-3
-1.31816E-3	-50.9075E-12	737.055E-3	-15.5750E-3	-52.1086E-12	801.690E-3	-8.56887E-3
-1.32316E-3	-51.1772E-12	763.211E-3	-28.2476E-3	-51.6894E-12	814.770E-3	-8.95063E-3
-1.32816E-3	-51.3666E-12	803.537E-3	-36.2697E-3	-52.7679E-12	826.226E-3	-27.4463E-3
-1.33317E-3	-52.1309E-12	823.144E-3	-25.0289E-3	-53.2206E-12	838.628E-3	-27.6253E-3
-1.33817E-3	-53.3509E-12	833.411E-3	-13.2201E-3	-52.5531E-12	860.625E-3	-12.1168E-3
-1.34317E-3	-53.4820E-12	859.473E-3	-12.2090E-3	-52.2272E-12	875.944E-3	-11.6814E-3
-1.34817E-3	-53.3902E-12	876.426E-3	-16.1425E-3	-53.2562E-12	884.838E-3	-24.1613E-3
-1.35318E-3	-53.6964E-12	865.846E-3	-21.6508E-3	-53.6313E-12	901.184E-3	-19.5074E-3
-1.35818E-3	-54.5120E-12	847.703E-3	-20.4144E-3	-53.8548E-12	923.802E-3	588.117E-6
-1.36318E-3	-54.8366E-12	856.371E-3	-17.7741E-3	-54.5881E-12	937.814E-3	3.86951E-3
-1.36818E-3	-55.6746E-12	894.636E-3	-25.2002E-3	-54.4065E-12	934.292E-3	-5.35856E-3
-1.37319E-3	-55.1003E-12	922.110E-3	-27.8344E-3	-54.8774E-12	932.985E-3	-8.58760E-3
-1.37819E-3	-55.0272E-12	917.962E-3	-10.5601E-3	-56.5026E-12	942.214E-3	-8.83423E-3
-1.38319E-3	-56.1308E-12	909.187E-3	-698.460E-6	-56.4202E-12	942.442E-3	-9.45597E-3
-1.38819E-3	-56.3649E-12	917.903E-3	-13.3513E-3	-56.0425E-12	953.656E-3	-7.82206E-3
-1.39320E-3	-56.2104E-12	922.282E-3	-21.6649E-3	-56.9272E-12	977.800E-3	-9.97852E-3
-1.39820E-3	-55.5699E-12	919.223E-3	-10.7438E-3	-57.7533E-12	986.502E-3	-19.2626E-3
-1.40320E-3	-56.8842E-12	917.229E-3	-8.54755E-3	-57.3597E-12	994.461E-3	-24.3430E-3
-1.40820E-3	-57.9195E-12	922.984E-3	-25.1692E-3	-57.1095E-12	999.801E-3	-18.2885E-3
-1.41321E-3	-58.1174E-12	942.502E-3	-24.1553E-3	-58.1000E-12	987.420E-3	-7.11053E-3
-1.41821E-3	-57.3978E-12	956.232E-3	-19.9394E-3	-57.8204E-12	980.094E-3	217.242E-6
-1.42321E-3	-58.1458E-12	968.198E-3	-26.5235E-3	-57.9274E-12	999.040E-3	-309.370E-6
-1.42821E-3	-59.2370E-12	980.647E-3	-22.4030E-3	-58.5631E-12	1.01826E+0	-9.03526E-3
-1.43322E-3	-59.4564E-12	977.262E-3	-13.6254E-3	-58.7901E-12	1.02238E+0	-18.4563E-3
-1.43822E-3	-59.1663E-12	980.838E-3	-16.0578E-3	-58.7265E-12	1.02643E+0	-16.3010E-3
-1.44322E-3	-59.2383E-12	992.361E-3	-33.0441E-3	-59.5064E-12	1.02752E+0	-7.05375E-3
-1.44822E-3	-59.8720E-12	991.492E-3	-38.2214E-3	-59.6658E-12	1.02684E+0	5.41500E-3
-1.45323E-3	-60.6854E-12	994.002E-3	-19.3514E-3	-60.0355E-12	1.02737E+0	6.48395E-3
-1.45823E-3	-61.3699E-12	993.694E-3	-1.89841E-3	-60.8667E-12	1.03143E+0	-16.5800E-3
-1.46323E-3	-60.6799E-12	993.801E-3	-6.93872E-3	-61.4230E-12	1.04980E+0	-40.4159E-3
-1.46823E-3	-60.7785E-12	1.01012E+0	-14.9071E-3	-61.3513E-12	1.05850E+0	-39.5603E-3
-1.47324E-3	-61.7542E-12	1.01488E+0	-7.00937E-3	-61.8606E-12	1.04749E+0	-16.0066E-3
-1.47824E-3	-62.9618E-12	1.00719E+0	-4.08597E-3	-62.3680E-12	1.03584E+0	2.31339E-3
-1.48324E-3	-62.4975E-12	1.01564E+0	-3.41408E-3	-63.1121E-12	1.01682E+0	-649.466E-6
-1.48824E-3	-62.0644E-12	1.03041E+0	5.15401E-3	-63.6613E-12	1.00975E+0	-16.4214E-3
-1.49325E-3	-63.1554E-12	1.03786E+0	4.14997E-6	-63.4324E-12	1.01995E+0	-29.6218E-3
-1.49825E-3	-64.3985E-12	1.04872E+0	-14.8074E-3	-63.1421E-12	1.01659E+0	-28.3639E-3
-1.50325E-3	-64.9816E-12	1.05083E+0	-17.6659E-3	-64.3236E-12	1.01828E+0	-18.2582E-3
-1.50825E-3	-64.0959E-12	1.02492E+0	-1.52797E-3	-65.2205E-12	1.03154E+0	-23.5178E-3
-1.51326E-3	-64.3655E-12	1.01172E+0	12.5758E-3	-64.5124E-12	1.02607E+0	-27.5962E-3
-1.51826E-3	-65.8500E-12	1.02989E+0	9.05876E-3	-65.0966E-12	1.01689E+0	-10.9456E-3
-1.52326E-3	-66.9562E-12	1.05149E+0	-9.68576E-3	-65.4117E-12	1.02604E+0	-10.6778E-3
-1.52826E-3	-66.3244E-12	1.06349E+0	-32.7489E-3	-65.9795E-12	1.02932E+0	-29.9750E-3
-1.53327E-3	-65.9592E-12	1.06346E+0	-28.7909E-3	-66.6186E-12	1.02055E+0	-31.3571E-3
-1.53827E-3	-66.4782E-12	1.05993E+0	-4.66853E-3	-66.1841E-12	1.00870E+0	-19.7455E-3
-1.54327E-3	-66.9819E-12	1.05317E+0	12.8347E-3	-66.0084E-12	1.00201E+0	-14.2407E-3
-1.54827E-3	-67.3588E-12	1.03876E+0	21.0264E-3	-66.8772E-12	1.00782E+0	-17.9182E-3
-1.55328E-3	-66.4567E-12	1.01774E+0	19.2276E-3	-67.9003E-12	1.00639E+0	-18.5829E-3
-1.55828E-3	-66.5426E-12	1.00417E+0	14.2515E-3	-67.9791E-12	1.00252E+0	-11.8389E-3
-1.56328E-3	-67.9977E-12	1.00848E+0	8.43935E-3	-67.9883E-12	1.01568E+0	-18.1439E-3
-1.56828E-3	-68.4006E-12	1.01997E+0	-5.85337E-3	-68.5865E-12	1.02697E+0	-28.2394E-3
-1.57329E-3	-68.3905E-12	1.01880E+0	-23.5277E-3	-68.7496E-12	1.01874E+0	-26.6744E-3
-1.57829E-3	-68.7648E-12	1.00410E+0	-35.5209E-3	-69.7123E-12	997.441E-3	-24.0480E-3
-1.58329E-3	-69.5497E-12	996.081E-3	-31.6138E-3	-69.0998E-12	977.772E-3	-17.7658E-3
-1.58829E-3	-69.6854E-12	1.00149E+0	-19.2578E-3	-69.5070E-12	976.640E-3	-5.55690E-3
-1.59330E-3	-70.5098E-12	1.01019E+0	-6.17143E-3	-70.0410E-12	982.494E-3	7.04017E-3
-1.59830E-3	-70.2819E-12	1.01158E+0	8.69144E-3	-70.8344E-12	983.345E-3	10.6487E-3
-1.60330E-3	-70.5243E-12	1.01071E+0	3.95951E-3	-71.2291E-12	978.633E-3	809.771E-6
-1.60830E-3	-71.6170E-12	1.00896E+0	-10.1126E-3	-71.6921E-12	974.188E-3	-12.2690E-3
-1.61331E-3	-72.1057E-12	999.068E-3	-6.55027E-3	-71.5746E-12	983.642E-3	-18.7651E-3
-1.61831E-3	-72.0054E-12	997.005E-3	-5.78871E-3	-71.7084E-12	982.223E-3	-20.0333E-3
-1.62331E-3	-72.1613E-12	1.00271E+0	-8.58021E-3	-72.8950E-12	967.811E-3	-14.0165E-3
-1.62831E-3	-72.4079E-12	992.552E-3	-5.83767E-3	-72.1556E-12	963.818E-3	-8.87583E-3
-1.63332E-3	-72.9628E-12	965.287E-3	-19.0256E-3	-72.7592E-12	953.547E-3	-4.04610E-3
-1.63832E-3	-73.4403E-12	948.667E-3	-19.7990E-3	-72.8474E-12	949.118E-3	-1.28510E-3
-1.64332E-3	-73.4301E-12	953.008E-3	-11.2328E-3	-74.2111E-12	965.629E-3	-20.5110E-3
-1.64832E-3	-72.8443E-12	957.502E-3	-31.3127E-3	-73.6955E-12	973.146E-3	-24.7443E-3
-1.65333E-3	-73.2781E-12	948.369E-3	-36.6419E-3	-74.1424E-12	961.939E-3	-7.05247E-3
-1.65833E-3	-74.5350E-12	927.504E-3	-20.8874E-3	-74.6670E-12	940.337E-3	-5.42757E-3
-1.66333E-3	-74.7656E-12	906.073E-3	-21.6051E-3	-74.8280E-12	932.877E-3	-26.8519E-3
-1.66833E-3	-74.7349E-12	893.892E-3	-27.8218E-3	-74.8794E-12	954.182E-3	-57.0521E-3
-1.67334E-3	-75.7327E-12	907.837E-3	-26.4925E-3	-75.5453E-12	948.949E-3	-55.3495E-3
-1.67834E-3	-76.3292E-12	927.641E-3	-16.7237E-3	-75.9158E-12	910.542E-3	-29.1656E-3
-1.68334E-3	-76.2648E-12	930.073E-3	-7.00176E-3	-75.5369E-12	891.703E-3	-9.84952E-3
-1.68834E-3	-76.7564E-12	937.913E-3	-245.876E-6	-75.9940E-12	882.395E-3	5.38620E-3
-1.69335E-3	-76.7349E-12	943.071E-3	-471.889E-6	-76.0609E-12	881.106E-3	-5.21062E-3
-1.69835E-3	-76.9357E-12	936.103E-3	-3.56042E-3	-77.1410E-12	901.997E-3	-25.8234E-3
-1.70335E-3	-77.8649E-12	928.081E-3	-1.57595E-3	-77.1285E-12	917.690E-3	-17.6726E-3
-1.70835E-3	-77.9793E-12	914.353E-3	-14.8676E-3	-77.2295E-12	914.367E-3	-15.4610E-3
-1.71336E-3	-77.0255E-12	908.610E-3	-40.5451E-3	-78.1390E-12	898.423E-3	-24.8735E-3
-1.71836E-3	-78.0408E-12	907.619E-3	-43.3463E-3	-78.8568E-12	888.319E-3	-26.5716E-3
-1.72336E-3	-78.3928E-12	898.522E-3	-28.3538E-3	-78.4439E-12	890.928E-3	-24.1123E-3
-1.72836E-3	-77.4534E-12	901.383E-3	-24.7479E-3	-78.9392E-12	893.985E-3	-17.5112E-3
-1.73337E-3	-78.3927E-12	890.624E-3	-32.7575E-3	-79.3426E-12	893.460E-3	-13.3412E-3
-1.73837E-3	-78.8518E-12	869.712E-3	-37.8874E-3	-79.0488E-12	889.396E-3	-8.54953E-3
-1.74337E-3	-78.7022E-12	877.415E-3	-18.1802E-3	-79.9224E-12	889.466E-3	-3.90614E-3
-1.74837E-3	-78.8425E-12	878.520E-3	8.11495E-3	-80.4366E-12	884.854E-3	-7.84916E-3
-1.75338E-3	-79.5835E-12	870.802E-3	-45.2270E-6	-79.3249E-12	869.346E-3	-10.9111E-3
-1.75838E-3	-80.8525E-12	870.435E-3	-21.8878E-3	-80.2073E-12	858.612E-3	-7.19849E-3
-1.76338E-3	-81.4000E-12	860.027E-3	-16.3167E-3	-80.5374E-12	849.902E-3	-5.67764E-3
-1.76838E-3	-81.7023E-12	855.737E-3	3.10898E-3	-80.9268E-12	846.804E-3	-18.9566E-3
-1.77339E-3	-82.1756E-12	864.823E-3	6.61099E-3	-80.9674E-12	848.751E-3	-34.6754E-3
-1.77839E-3	-83.6655E-12	873.109E-3	-8.68161E-3	-81.3763E-12	845.850E-3	-30.2321E-3
-1.78339E-3	-83.7790E-12	873.879E-3	-26.1177E-3	-80.6884E-12	841.579E-3	-16.1933E-3
-1.78839E-3	-83.5938E-12	870.332E-3	-19.1091E-3	-82.0215E-12	824.526E-3	-9.37796E-3
-1.79340E-3	-83.2973E-12	864.123E-3	2.71943E-3	-82.9978E-12	809.847E-3	-6.25350E-3
-1.79840E-3	-83.7497E-12	846.235E-3	-894.531E-6	-82.3134E-12	820.442E-3	-6.21009E-3
-1.80340E-3	-83.8015E-12	835.593E-3	-20.5702E-3	-82.3838E-12	833.224E-3	-12.5097E-3
-1.80840E-3	-83.0379E-12	842.864E-3	-21.1350E-3	-83.5220E-12	836.623E-3	-7.72261E-3
-1.81341E-3	-82.7150E-12	836.389E-3	-15.6450E-3	-84.1590E-12	831.489E-3	-137.678E-6
-1.81841E-3	-82.1246E-12	825.537E-3	-26.3632E-3	-83.8513E-12	819.071E-3	-5.14116E-3
-1.82341E-3	-83.3251E-12	828.018E-3	-34.1288E-3	-84.0467E-12	820.456E-3	-7.51178E-3
-1.82841E-3	-83.2209E-12	825.207E-3	-30.1629E-3	-84.3738E-12	836.221E-3	-25.3779E-3
-1.83342E-3	-82.9353E-12	819.988E-3	-24.9399E-3	-84.5486E-12	838.521E-3	-38.2918E-3
-1.83842E-3	-83.2612E-12	814.678E-3	-17.8356E-3	-86.0027E-12	828.242E-3	-19.5667E-3
-1.84342E-3	-84.4575E-12	801.467E-3	-20.2399E-3	-85.5368E-12	816.741E-3	-9.22488E-3
-1.84842E-3	-84.6806E-12	807.497E-3	-32.0608E-3	-84.9989E-12	806.638E-3	-8.39946E-3
-1.85343E-3	-85.1714E-12	835.902E-3	-28.5289E-3	-85.5123E-12	811.569E-3	-10.3427E-3
-1.85843E-3	-85.7276E-12	839.856E-3	-26.0399E-3	-86.2799E-12	809.088E-3	-16.4140E-3
-1.86343E-3	-86.1213E-12	819.653E-3	-28.6427E-3	-85.8196E-12	799.875E-3	-13.1298E-3
-1.86843E-3	-87.2072E-12	812.355E-3	-13.5214E-3	-85.9963E-12	812.770E-3	-5.45984E-3
-1.87344E-3	-88.3996E-12	806.303E-3	-4.11435E-3	-86.1784E-12	813.295E-3	-3.85688E-3
-1.87844E-3	-88.9564E-12	798.518E-3	-14.2227E-3	-86.4963E-12	796.310E-3	-11.6940E-3
-1.88344E-3	-88.1594E-12	803.715E-3	-24.1372E-3	-87.0620E-12	791.290E-3	-24.9314E-3
-1.88844E-3	-88.7742E-12	800.880E-3	-20.2248E-3	-87.4519E-12	793.490E-3	-34.2267E-3
-1.89345E-3	-89.7202E-12	791.642E-3	-3.25114E-3	-87.3792E-12	793.656E-3	-42.4357E-3
-1.89845E-3	-89.4479E-12	793.821E-3	-803.005E-6	-88.4561E-12	795.587E-3	-54.8302E-3
-1.90345E-3	-89.8634E-12	808.426E-3	-4.62247E-3	-88.6300E-12	801.394E-3	-63.2390E-3
-1.90845E-3	-88.9767E-12	812.990E-3	-7.48882E-3	-88.9302E-12	792.087E-3	-58.0595E-3
-1.91346E-3	-88.9489E-12	802.266E-3	-26.4100E-3	-89.7537E-12	782.592E-3	-34.4377E-3
-1.91846E-3	-90.0224E-12	800.752E-3	-26.1838E-3	-89.6863E-12	790.491E-3	-6.74663E-3
-1.92346E-3	-89.6294E-12	801.039E-3	-10.1037E-3	-89.8644E-12	804.049E-3	3.31649E-3
-1.92846E-3	-88.9933E-12	801.879E-3	-29.2409E-3	-90.2508E-12	810.519E-3	-3.38721E-3
-1.93347E-3	-89.3781E-12	810.509E-3	-53.2778E-3	-90.4337E-12	801.373E-3	-7.24656E-3
-1.93847E-3	-89.7258E-12	809.699E-3	-33.7973E-3	-90.6218E-12	796.395E-3	-1.98621E-3
-1.94347E-3	-89.5626E-12	790.210E-3	-7.59957E-3	-90.3690E-12	797.227E-3	-5.40698E-3
-1.94847E-3	-89.9574E-12	772.040E-3	-1.64914E-3	-90.1101E-12	789.944E-3	-15.4963E-3
-1.95348E-3	-90.2588E-12	778.238E-3	-14.9131E-3	-90.6191E-12	781.559E-3	-20.0086E-3
-1.95848E-3	-90.5972E-12	788.261E-3	-28.8166E-3	-90.9503E-12	780.777E-3	-21.4342E-3
-1.96348E-3	-91.9553E-12	772.889E-3	-14.5554E-3	-90.7500E-12	786.448E-3	-13.4680E-3
-1.96848E-3	-91.9419E-12	764.238E-3	2.59873E-3	-91.3140E-12	779.310E-3	6.52295E-3
-1.97349E-3	-92.1548E-12	771.561E-3	7.56052E-3	-90.9007E-12	764.916E-3	25.5219E-3
-1.97849E-3	-92.0810E-12	768.978E-3	4.84262E-3	-91.3558E-12	775.482E-3	29.8278E-3
-1.98349E-3	-93.0412E-12	770.157E-3	-8.47041E-3	-91.3300E-12	787.058E-3	6.05501E-3
-1.98849E-3	-93.8667E-12	774.516E-3	-16.9755E-3	-92.4066E-12	783.702E-3	-29.3584E-3
-1.99350E-3	-93.3533E-12	769.944E-3	-14.4699E-3	-92.9483E-12	784.755E-3	-45.2852E-3
-1.99850E-3	-93.6640E-12	760.109E-3	-13.9492E-3	-93.2793E-12	776.140E-3	-39.3761E-3
-2.00350E-3	-94.4939E-12	764.186E-3	-13.6175E-3	-93.7335E-12	766.069E-3	-30.8348E-3
-2.00850E-3	-94.6900E-12	772.608E-3	-15.1615E-3	-95.0192E-12	770.656E-3	-25.0108E-3
-2.01351E-3	-94.6431E-12	772.957E-3	-29.4614E-3	-95.2312E-12	772.082E-3	-13.2069E-3
-2.01851E-3	-94.9216E-12	786.020E-3	-30.9444E-3	-94.9542E-12	777.306E-3	-8.46321E-3
-2.02351E-3	-96.0707E-12	791.038E-3	-15.0130E-3	-95.6152E-12	791.486E-3	-19.8954E-3
-2.02851E-3	-95.6471E-12	790.019E-3	-2.70330E-3	-96.0158E-12	793.233E-3	-28.3380E-3
-2.03352E-3	-95.2760E-12	808.586E-3	-1.26480E-3	-96.0010E-12	781.820E-3	-27.5601E-3
-2.03852E-3	-96.2965E-12	802.362E-3	-10.5850E-3	-96.6410E-12	770.889E-3	-27.6731E-3
-2.04352E-3	-96.1717E-12	760.266E-3	-12.9452E-3	-97.1390E-12	767.157E-3	-27.7613E-3
-2.04852E-3	-96.0224E-12	740.159E-3	-330.148E-6	-96.5729E-12	766.105E-3	-23.0479E-3
-2.05353E-3	-96.0875E-12	755.788E-3	20.3671E-3	-96.9477E-12	761.436E-3	-12.4697E-3
-2.05853E-3	-95.6600E-12	773.140E-3	27.6425E-3	-96.9317E-12	759.064E-3	-9.70073E-3
-2.06353E-3	-95.3794E-12	779.785E-3	-554.120E-6	-96.4106E-12	760.782E-3	-12.5459E-3
-2.06853E-3	-96.1790E-12	779.799E-3	-26.2985E-3	-96.7019E-12	756.405E-3	-26.8183E-3
-2.07354E-3	-96.2056E-12	771.833E-3	-23.9338E-3	-97.4629E-12	759.232E-3	-47.8798E-3
-2.07854E-3	-96.1726E-12	760.049E-3	-5.92924E-3	-97.5858E-12	768.902E-3	-29.4827E-3
-2.08354E-3	-96.1378E-12	757.929E-3	18.4792E-3	-97.1430E-12	769.680E-3	812.762E-6
-2.08854E-3	-97.4618E-12	758.910E-3	17.3064E-3	-98.4675E-12	771.198E-3	3.34246E-3
-2.09355E-3	-97.9746E-12	750.601E-3	-8.59907E-3	-98.4442E-12	774.364E-3	-12.4642E-3
-2.09855E-3	-98.0832E-12	746.318E-3	-14.6803E-3	-98.4247E-12	776.834E-3	-36.5084E-3
-2.10355E-3	-99.3727E-12	758.224E-3	-7.51794E-3	-99.0367E-12	761.415E-3	-44.4254E-3
-2.10855E-3	-99.8195E-12	783.650E-3	-7.01872E-3	-99.1776E-12	731.350E-3	-26.5851E-3
-2.11356E-3	-99.4910E-12	801.938E-3	-1.77516E-3	-98.9959E-12	722.288E-3	-5.96788E-3
-2.11856E-3	-99.7940E-12	797.244E-3	244.272E-6	-100.174E-12	722.188E-3	-3.64911E-3
-2.12356E-3	-100.862E-12	770.538E-3	7.68481E-3	-100.907E-12	706.719E-3	-8.44929E-3
-2.12856E-3	-100.660E-12	755.146E-3	15.2742E-3	-100.016E-12	717.212E-3	-21.1569E-3
-2.13357E-3	-100.724E-12	769.821E-3	-8.92143E-3	-99.8734E-12	752.172E-3	-31.8615E-3
-2.13857E-3	-100.390E-12	776.825E-3	-38.5833E-3	-100.703E-12	758.384E-3	-26.4072E-3
-2.14357E-3	-100.361E-12	758.267E-3	-34.0078E-3	-100.434E-12	750.519E-3	-21.9398E-3
-2.14857E-3	-100.022E-12	743.363E-3	-19.1361E-3	-100.466E-12	739.073E-3	-31.2608E-3
-2.15358E-3	-100.747E-12	748.623E-3	-16.1331E-3	-100.618E-12	720.038E-3	-45.0491E-3
-2.15858E-3	-100.580E-12	754.329E-3	-18.7561E-3	-100.557E-12	720.157E-3	-31.0509E-3
-2.16358E-3	-100.129E-12	749.121E-3	-32.5879E-3	-100.603E-12	734.241E-3	-1.44390E-3
-2.16858E-3	-100.367E-12	726.145E-3	-35.1652E-3	-101.342E-12	724.376E-3	775.538E-6
-2.17359E-3	-100.849E-12	710.427E-3	-28.1052E-3	-101.372E-12	712.524E-3	-15.4092E-3
-2.17859E-3	-100.868E-12	729.034E-3	-20.9510E-3	-101.610E-12	730.951E-3	-25.1046E-3
-2.18359E-3	-101.299E-12	740.155E-3	-11.8567E-3	-102.303E-12	741.330E-3	-27.2792E-3
-2.18859E-3	-102.441E-12	726.879E-3	-15.5740E-3	-103.056E-12	725.894E-3	-18.5125E-3
-2.19360E-3	-102.828E-12	715.522E-3	-25.7347E-3	-102.619E-12	717.430E-3	-5.76613E-3
-2.19860E-3	-103.473E-12	713.499E-3	-32.7971E-3	-103.112E-12	718.760E-3	-26.8815E-6
-2.20360E-3	-103.975E-12	724.132E-3	-29.2884E-3	-103.276E-12	716.619E-3	10.0765E-3
-2.20860E-3	-104.487E-12	745.418E-3	-17.5988E-3	-103.191E-12	722.154E-3	10.5531E-3
-2.21361E-3	-105.395E-12	759.449E-3	-2.96259E-3	-104.049E-12	719.370E-3	-4.88913E-3
-2.21861E-3	-105.312E-12	768.777E-3	-6.08105E-3	-104.296E-12	723.895E-3	-11.6592E-3
-2.22361E-3	-105.757E-12	772.456E-3	-16.7953E-3	-103.513E-12	750.075E-3	-6.76657E-3
-2.22861E-3	-105.642E-12	766.458E-3	-12.0964E-3	-104.238E-12	747.620E-3	-7.92797E-3
-2.23362E-3	-105.376E-12	760.108E-3	-2.35740E-3	-104.737E-12	727.233E-3	-24.9581E-3
-2.23862E-3	-105.678E-12	748.444E-3	6.78487E-3	-105.023E-12	737.240E-3	-45.4556E-3
-2.24362E-3	-106.140E-12	729.362E-3	-3.34949E-3	-105.420E-12	761.490E-3	-51.0384E-3
-2.24862E-3	-105.883E-12	714.796E-3	-23.2765E-3	-106.303E-12	764.728E-3	-37.5819E-3
-2.25363E-3	-105.036E-12	708.397E-3	-18.7629E-3	-106.530E-12	748.005E-3	-21.1075E-3
-2.25863E-3	-104.930E-12	699.827E-3	1.71810E-3	-107.452E-12	749.018E-3	-9.89682E-3
-2.26363E-3	-104.787E-12	700.215E-3	1.75600E-3	-107.296E-12	760.283E-3	6.68059E-3
-2.26863E-3	-104.767E-12	718.575E-3	-5.56570E-3	-107.898E-12	765.493E-3	12.4225E-3
-2.27364E-3	-105.480E-12	722.801E-3	-7.10719E-3	-108.481E-12	768.578E-3	-3.80276E-3
-2.27864E-3	-105.866E-12	712.284E-3	-18.4623E-3	-108.936E-12	762.515E-3	-13.5574E-3
-2.28364E-3	-106.215E-12	720.861E-3	-33.1711E-3	-108.644E-12	760.171E-3	-12.8149E-3
-2.28864E-3	-106.964E-12	728.369E-3	-26.2693E-3	-109.435E-12	753.635E-3	-16.8315E-3
-2.29365E-3	-107.183E-12	729.387E-3	-3.01999E-3	-109.419E-12	740.588E-3	-7.34859E-3
-2.29865E-3	-108.204E-12	729.508E-3	6.31596E-3	-108.860E-12	729.767E-3	7.94768E-3
-2.30365E-3	-108.856E-12	724.328E-3	-23.6725E-6	-109.178E-12	717.258E-3	-15.1608E-3
-2.30865E-3	-108.861E-12	729.141E-3	-6.31746E-3	-109.251E-12	709.756E-3	-24.0069E-3
-2.31366E-3	-109.033E-12	730.221E-3	-19.5478E-3	-109.045E-12	714.186E-3	2.82347E-3
-2.31866E-3	-110.505E-12	742.908E-3	-37.2325E-3	-109.482E-12	734.022E-3	3.68883E-3
-2.32366E-3	-110.104E-12	752.206E-3	-31.9056E-3	-109.209E-12	741.599E-3	-16.4385E-3
-2.32866E-3	-110.334E-12	731.506E-3	-29.0285E-3	-108.815E-12	735.857E-3	-29.5109E-3
-2.33367E-3	-110.536E-12	726.763E-3	-41.7553E-3	-110.218E-12	737.552E-3	-37.4103E-3
-2.33867E-3	-110.390E-12	727.350E-3	-33.1185E-3	-111.183E-12	730.118E-3	-45.9986E-3
-2.34367E-3	-110.051E-12	712.612E-3	-14.3015E-3	-110.524E-12	726.014E-3	-34.2576E-3
-2.34867E-3	-110.818E-12	698.797E-3	-21.4496E-3	-111.320E-12	727.396E-3	-11.9958E-3
-2.35368E-3	-110.478E-12	693.486E-3	-27.3942E-3	-111.569E-12	719.813E-3	-2.76584E-3
-2.35868E-3	-110.131E-12	694.470E-3	-11.0468E-3	-111.446E-12	713.455E-3	924.160E-6
-2.36368E-3	-110.271E-12	688.105E-3	248.962E-6	-112.259E-12	721.292E-3	-8.61536E-3
-2.36868E-3	-110.637E-12	674.595E-3	-1.99063E-3	-112.901E-12	728.692E-3	-27.5835E-3
-2.37369E-3	-111.182E-12	680.622E-3	-4.29665E-3	-112.884E-12	716.275E-3	-32.2762E-3
-2.37869E-3	-111.694E-12	706.867E-3	-3.56799E-3	-112.415E-12	708.083E-3	-29.9485E-3
-2.38369E-3	-111.688E-12	712.710E-3	-16.8713E-3	-113.063E-12	711.326E-3	-29.0043E-3
-2.38869E-3	-111.935E-12	718.264E-3	-16.5677E-3	-112.734E-12	727.581E-3	-23.8282E-3
-2.39370E-3	-113.068E-12	732.093E-3	990.557E-6	-112.425E-12	745.348E-3	-18.5937E-3
-2.39870E-3	-113.721E-12	719.930E-3	-7.67410E-3	-112.004E-12	733.990E-3	-11.8324E-3
-2.40370E-3	-112.930E-12	704.619E-3	-20.0832E-3	-112.988E-12	714.454E-3	-11.8913E-3
-2.40870E-3	-112.903E-12	719.648E-3	-12.4621E-3	-112.930E-12	711.908E-3	-32.7680E-3
-2.41371E-3	-113.547E-12	743.290E-3	3.38300E-3	-112.878E-12	711.684E-3	-43.7009E-3
-2.41871E-3	-114.119E-12	744.333E-3	13.6047E-3	-113.687E-12	707.278E-3	-31.3261E-3
-2.42371E-3	-113.346E-12	737.651E-3	6.49581E-3	-114.233E-12	702.815E-3	-15.0572E-3
-2.42871E-3	-112.754E-12	730.376E-3	-18.5238E-3	-114.250E-12	699.210E-3	-8.13090E-3
-2.43372E-3	-113.383E-12	717.321E-3	-35.2588E-3	-115.236E-12	705.796E-3	-11.5172E-3
-2.43872E-3	-114.670E-12	703.365E-3	-24.5165E-3	-115.499E-12	718.650E-3	-17.8164E-3
-2.44372E-3	-114.912E-12	698.391E-3	-9.61895E-3	-116.028E-12	715.904E-3	-14.4346E-3
-2.44872E-3	-115.252E-12	705.345E-3	-3.82574E-3	-115.888E-12	700.918E-3	-4.35097E-3
-2.45373E-3	-115.426E-12	703.460E-3	-11.4328E-3	-116.726E-12	704.198E-3	2.24799E-3
-2.45873E-3	-116.305E-12	704.376E-3	-27.1187E-3	-116.366E-12	709.420E-3	5.56528E-3
-2.46373E-3	-117.546E-12	734.531E-3	-22.3396E-3	-116.768E-12	704.788E-3	-3.17501E-3
-2.46873E-3	-116.615E-12	768.152E-3	-11.9132E-3	-116.696E-12	714.277E-3	-14.6065E-3
-2.47374E-3	-117.135E-12	763.495E-3	-20.9751E-3	-117.106E-12	721.298E-3	-19.8225E-3
-2.47874E-3	-118.216E-12	730.266E-3	-26.5904E-3	-117.335E-12	701.818E-3	-10.9718E-3
-2.48374E-3	-118.031E-12	713.024E-3	-20.1829E-3	-117.388E-12	692.459E-3	9.57092E-3
-2.48874E-3	-118.204E-12	714.159E-3	-11.8863E-3	-117.141E-12	712.076E-3	12.6145E-3
-2.49375E-3	-118.104E-12	721.102E-3	-2.71319E-3	-117.191E-12	711.601E-3	8.69846E-3
-2.49875E-3	-118.389E-12	734.468E-3	-6.48301E-3	-118.415E-12	691.264E-3	-4.54119E-3
-2.50375E-3	-117.607E-12	738.497E-3	-22.9806E-3	-119.432E-12	688.626E-3	-19.6047E-3
-2.50875E-3	-118.613E-12	731.853E-3	-36.9618E-3	-119.180E-12	707.161E-3	-3.00896E-3
-2.51376E-3	-117.853E-12	729.506E-3	-35.6069E-3	-119.784E-12	727.324E-3	3.65029E-3
-2.51876E-3	-118.093E-12	727.901E-3	-17.9223E-3	-120.520E-12	728.628E-3	-9.06323E-3
-2.52376E-3	-118.251E-12	723.955E-3	-15.0157E-3	-121.464E-12	715.724E-3	-6.25748E-3
-2.52876E-3	-118.624E-12	726.076E-3	-25.7770E-3	-121.490E-12	706.795E-3	4.94183E-3
-2.53377E-3	-119.150E-12	719.898E-3	-27.8667E-3	-121.130E-12	710.043E-3	2.85986E-3
-2.53877E-3	-119.301E-12	704.521E-3	-17.3952E-3	-121.473E-12	713.964E-3	-12.6049E-3
-2.54377E-3	-119.934E-12	700.611E-3	-15.9167E-3	-122.641E-12	710.310E-3	-14.3611E-3
-2.54877E-3	-120.937E-12	705.159E-3	-34.3264E-3	-122.994E-12	715.841E-3	-6.90776E-3
-2.55378E-3	-121.402E-12	716.826E-3	-36.8823E-3	-120.536E-12	723.967E-3	-14.3371E-3
-2.55878E-3	-121.798E-12	725.810E-3	-31.0435E-3	-121.314E-12	724.289E-3	-23.8941E-3
-2.56378E-3	-121.897E-12	714.431E-3	-38.6806E-3	-122.301E-12	722.380E-3	-25.9757E-3
-2.56878E-3	-122.178E-12	700.877E-3	-44.4855E-3	-121.915E-12	708.821E-3	-28.1127E-3
-2.57379E-3	-122.083E-12	715.052E-3	-34.2711E-3	-120.251E-12	702.526E-3	-19.3469E-3
-2.57879E-3	-122.518E-12	735.774E-3	-11.2669E-3	-119.806E-12	711.275E-3	-22.4556E-3
-2.58379E-3	-121.688E-12	730.694E-3	-1.52426E-3	-121.274E-12	702.315E-3	-37.0761E-3
-2.58879E-3	-121.359E-12	722.714E-3	2.39517E-3	-122.142E-12	699.120E-3	-24.8255E-3
-2.59380E-3	-121.897E-12	719.722E-3	21.5445E-3	-121.884E-12	732.440E-3	-17.8190E-3
-2.59880E-3	-121.517E-12	710.187E-3	14.3980E-3	-121.808E-12	760.088E-3	-36.2647E-3
-2.60380E-3	-121.377E-12	710.422E-3	-17.2421E-3	-122.614E-12	746.718E-3	-35.4916E-3
-2.60880E-3	-121.834E-12	713.316E-3	-14.9861E-3	-123.391E-12	719.618E-3	-21.8536E-3
-2.61381E-3	-122.403E-12	696.606E-3	-12.1411E-3	-124.463E-12	697.881E-3	-22.5752E-3
-2.61881E-3	-122.800E-12	677.099E-3	-26.7766E-3	-124.488E-12	677.974E-3	-23.8467E-3
-2.62381E-3	-123.664E-12	674.956E-3	-30.1708E-3	-124.664E-12	671.735E-3	-23.5566E-3
-2.62881E-3	-123.609E-12	680.207E-3	-28.2222E-3	-125.158E-12	679.262E-3	-28.6660E-3
-2.63382E-3	-125.922E-12	694.647E-3	-22.3011E-3	-125.619E-12	687.725E-3	-30.4400E-3
-2.63882E-3	-125.990E-12	705.179E-3	-8.89958E-3	-126.204E-12	689.249E-3	-20.0789E-3
-2.64382E-3	-125.474E-12	696.913E-3	12.6866E-3	-124.587E-12	681.412E-3	-8.91241E-3
-2.64882E-3	-126.772E-12	699.572E-3	10.2877E-3	-125.126E-12	668.719E-3	2.40377E-3
-2.65383E-3	-127.019E-12	713.631E-3	-8.80075E-3	-125.536E-12	674.075E-3	14.2511E-3
-2.65883E-3	-126.293E-12	712.746E-3	-18.6958E-3	-124.926E-12	694.207E-3	9.47078E-3
-2.66383E-3	-126.615E-12	692.016E-3	-13.9847E-3	-124.369E-12	702.927E-3	6.48425E-3
-2.66883E-3	-126.449E-12	675.965E-3	-3.96489E-3	-125.464E-12	713.228E-3	2.64198E-3
-2.67384E-3	-125.537E-12	680.119E-3	-17.3743E-3	-125.492E-12	704.834E-3	-13.6382E-3
-2.67884E-3	-125.318E-12	684.826E-3	-34.5620E-3	-126.469E-12	672.185E-3	-7.05633E-3
-2.68384E-3	-125.378E-12	690.269E-3	-37.3214E-3	-126.200E-12	661.188E-3	4.54034E-3
-2.68884E-3	-125.828E-12	690.435E-3	-38.4681E-3	-125.945E-12	666.033E-3	10.0966E-6
-2.69385E-3	-125.225E-12	688.035E-3	-38.6890E-3	-126.440E-12	678.960E-3	-1.03489E-3
-2.69885E-3	-125.217E-12	693.455E-3	-26.3417E-3	-128.405E-12	713.208E-3	-4.79973E-3
-2.70385E-3	-126.396E-12	695.637E-3	-2.81389E-3	-128.931E-12	739.413E-3	-14.7589E-3
-2.70885E-3	-127.039E-12	692.690E-3	5.76758E-3	-128.424E-12	734.552E-3	-10.4651E-3
-2.71386E-3	-127.861E-12	676.573E-3	-4.85990E-3	-128.726E-12	732.653E-3	2.95645E-3
-2.71886E-3	-128.103E-12	653.901E-3	-2.25435E-3	-129.844E-12	736.913E-3	-11.1921E-3
-2.72386E-3	-129.074E-12	672.379E-3	-850.019E-6	-130.141E-12	718.441E-3	-29.8299E-3
-2.72886E-3	-129.517E-12	710.337E-3	-8.17172E-3	-130.628E-12	703.330E-3	-23.9000E-3
-2.73387E-3	-131.013E-12	707.817E-3	-9.33987E-3	-129.776E-12	705.070E-3	-13.6953E-3
-2.73887E-3	-130.273E-12	701.806E-3	-10.3679E-3	-129.894E-12	703.080E-3	-4.89151E-3
-2.74387E-3	-130.268E-12	708.176E-3	14.3030E-3	-130.205E-12	706.960E-3	2.85464E-3
-2.74887E-3	-131.364E-12	700.216E-3	24.1808E-3	-130.680E-12	713.303E-3	-14.3689E-3
-2.75388E-3	-131.851E-12	708.009E-3	-6.71102E-3	-130.636E-12	698.554E-3	-37.9547E-3
-2.75888E-3	-131.155E-12	742.499E-3	-24.6669E-3	-129.646E-12	691.689E-3	-28.3388E-3
-2.76388E-3	-130.486E-12	747.618E-3	-22.2038E-3	-128.996E-12	701.069E-3	-14.0903E-3
-2.76888E-3	-129.864E-12	720.248E-3	-902.570E-6	-131.020E-12	684.127E-3	-13.5419E-3
-2.77389E-3	-130.858E-12	709.438E-3	16.8761E-3	-130.855E-12	676.418E-3	-8.31972E-3
-2.77889E-3	-130.757E-12	714.980E-3	19.4054E-3	-129.992E-12	707.518E-3	1.09429E-3
-2.78389E-3	-129.871E-12	714.470E-3	10.1653E-3	-130.330E-12	718.212E-3	7.10031E-3
-2.78889E-3	-130.863E-12	693.658E-3	-2.77672E-3	-131.280E-12	700.273E-3	5.82060E-3
-2.79390E-3	-130.524E-12	674.362E-3	7.40231E-3	-132.137E-12	695.521E-3	-3.43283E-3
-2.79890E-3	-130.843E-12	671.493E-3	21.3459E-3	-131.711E-12	701.412E-3	-4.64386E-3
-2.80390E-3	-131.826E-12	662.973E-3	18.8029E-3	-131.735E-12	709.126E-3	12.8220E-3
-2.80890E-3	-132.384E-12	656.659E-3	4.07995E-3	-132.374E-12	707.221E-3	9.26430E-3
-2.81391E-3	-132.355E-12	667.107E-3	-2.29288E-3	-133.435E-12	681.099E-3	-32.0371E-3
-2.81891E-3	-133.446E-12	684.153E-3	-7.65162E-3	-133.937E-12	676.556E-3	-62.8707E-3
-2.82391E-3	-134.572E-12	697.152E-3	-19.1933E-3	-134.152E-12	695.134E-3	-53.3044E-3
-2.82891E-3	-134.933E-12	700.220E-3	-22.5461E-3	-133.434E-12	702.808E-3	-18.6669E-3
-2.83392E-3	-134.741E-12	704.092E-3	-21.5779E-3	-133.737E-12	708.173E-3	15.1854E-3
-2.83892E-3	-134.597E-12	696.719E-3	-7.78216E-3	-135.018E-12	708.694E-3	25.0404E-3
-2.84392E-3	-135.143E-12	672.818E-3	11.7172E-3	-135.067E-12	697.271E-3	12.2166E-3
-2.84892E-3	-134.959E-12	670.574E-3	10.9150E-3	-133.811E-12	675.176E-3	2.84120E-3
-2.85393E-3	-134.210E-12	681.357E-3	-12.4304E-3	-134.979E-12	664.477E-3	6.91227E-3
-2.85893E-3	-133.864E-12	687.370E-3	-30.2688E-3	-135.857E-12	674.259E-3	14.3066E-3
-2.86393E-3	-133.989E-12	695.640E-3	-22.9574E-3	-135.593E-12	690.312E-3	19.1409E-3
-2.86893E-3	-133.924E-12	687.910E-3	-2.91384E-3	-136.318E-12	698.923E-3	14.5393E-3
-2.87394E-3	-133.795E-12	663.259E-3	356.471E-6	-137.717E-12	701.491E-3	-6.28220E-3
-2.87894E-3	-134.237E-12	664.360E-3	-18.9006E-3	-137.018E-12	704.944E-3	-19.0580E-3
-2.88394E-3	-135.699E-12	698.479E-3	-11.8022E-3	-137.461E-12	706.879E-3	-20.4796E-3
-2.88894E-3	-135.580E-12	704.028E-3	15.8104E-3	-138.519E-12	693.054E-3	-21.1168E-3
-2.89395E-3	-135.853E-12	679.230E-3	4.09582E-3	-137.715E-12	678.273E-3	-17.2389E-3
-2.89895E-3	-137.138E-12	671.755E-3	-10.0009E-3	-137.174E-12	684.920E-3	-28.6042E-3
-2.90395E-3	-137.394E-12	668.553E-3	7.79015E-3	-138.822E-12	681.011E-3	-51.5678E-3
-2.90895E-3	-137.755E-12	669.589E-3	14.7566E-3	-138.401E-12	677.386E-3	-44.2501E-3
-2.91396E-3	-138.182E-12	687.713E-3	1.04497E-3	-137.146E-12	693.455E-3	-20.4548E-3
-2.91896E-3	-140.129E-12	694.682E-3	-814.837E-6	-137.002E-12	695.467E-3	-17.7516E-3
-2.92396E-3	-139.562E-12	690.631E-3	14.5704E-3	-138.706E-12	687.513E-3	-13.5361E-3
-2.92896E-3	-140.220E-12	707.556E-3	16.0413E-3	-138.076E-12	684.075E-3	-10.4444E-3
-2.93397E-3	-139.969E-12	727.870E-3	1.89793E-3	-137.433E-12	682.718E-3	-6.66516E-3
-2.93897E-3	-139.826E-12	731.358E-3	-11.3998E-3	-138.282E-12	687.954E-3	13.9768E-3
-2.94397E-3	-139.456E-12	734.630E-3	-25.7058E-3	-139.338E-12	694.673E-3	23.6150E-3
-2.94897E-3	-140.101E-12	723.936E-3	-33.9201E-3	-140.046E-12	704.504E-3	4.87149E-3
-2.95398E-3	-139.278E-12	693.995E-3	-37.9400E-3	-140.170E-12	712.466E-3	-22.1093E-3
-2.95898E-3	-139.986E-12	691.531E-3	-35.5837E-3	-140.412E-12	708.421E-3	-35.7014E-3
-2.96398E-3	-140.554E-12	700.818E-3	-17.5423E-3	-141.193E-12	698.089E-3	-40.5391E-3
-2.96898E-3	-140.132E-12	682.876E-3	-1.98192E-3	-141.175E-12	679.778E-3	-38.7496E-3
-2.97399E-3	-140.795E-12	673.724E-3	-18.7094E-3	-142.197E-12	660.642E-3	-32.4624E-3
-2.97899E-3	-141.389E-12	669.908E-3	-48.9611E-3	-141.685E-12	668.060E-3	-35.7641E-3
-2.98399E-3	-141.342E-12	670.191E-3	-39.8546E-3	-141.352E-12	671.090E-3	-32.3650E-3
-2.98899E-3	-140.754E-12	687.316E-3	-16.7136E-3	-141.368E-12	647.551E-3	284.127E-6
-2.99400E-3	-140.673E-12	697.370E-3	-12.0881E-3	-140.862E-12	636.004E-3	14.7304E-3
-2.99900E-3	-140.995E-12	686.531E-3	-9.97262E-3	-140.222E-12	643.987E-3	2.70618E-3
-3.00400E-3	-142.009E-12	659.959E-3	-15.5517E-3	-140.579E-12	656.531E-3	18.4025E-3
-3.00900E-3	-142.124E-12	662.622E-3	-10.0930E-3	-141.064E-12	667.536E-3	34.7648E-3
-3.01401E-3	-141.834E-12	696.191E-3	17.9413E-3	-140.098E-12	681.598E-3	26.7069E-3
-3.01901E-3	-141.634E-12	717.372E-3	15.8552E-3	-140.493E-12	685.422E-3	8.14965E-3
-3.02401E-3	-141.092E-12	720.536E-3	-25.3207E-3	-140.479E-12	682.928E-3	-22.5046E-3
-3.02901E-3	-142.048E-12	714.451E-3	-46.4283E-3	-140.833E-12	698.745E-3	-37.6084E-3
-3.03402E-3	-141.953E-12	707.237E-3	-35.8201E-3	-142.181E-12	709.926E-3	-16.6036E-3
-3.03902E-3	-142.334E-12	692.599E-3	-10.6846E-3	-142.103E-12	712.170E-3	1.88274E-3
-3.04402E-3	-141.584E-12	678.276E-3	6.24283E-3	-141.948E-12	702.602E-3	-7.18989E-3
-3.04902E-3	-143.434E-12	688.614E-3	1.18680E-3	-142.504E-12	666.678E-3	-12.7739E-3
-3.05403E-3	-143.597E-12	694.084E-3	11.2956E-3	-144.040E-12	648.944E-3	-5.55966E-3
-3.05903E-3	-145.234E-12	682.408E-3	24.3073E-3	-144.056E-12	663.287E-3	-8.21726E-3
-3.06403E-3	-145.068E-12	687.373E-3	2.73802E-3	-144.871E-12	673.000E-3	-18.3566E-3
-3.06903E-3	-146.360E-12	689.566E-3	-21.7115E-3	-144.612E-12	678.442E-3	-16.6588E-3
-3.07404E-3	-147.439E-12	678.169E-3	-21.8920E-3	-144.215E-12	682.734E-3	-23.4673E-3
-3.07904E-3	-146.871E-12	684.206E-3	-11.1770E-3	-143.610E-12	674.875E-3	-40.7031E-3
-3.08404E-3	-146.569E-12	695.566E-3	-3.82582E-3	-144.491E-12	677.103E-3	-34.7962E-3
-3.08904E-3	-146.163E-12	703.282E-3	-3.76667E-3	-144.380E-12	686.927E-3	-15.4473E-3
-3.09405E-3	-147.476E-12	715.583E-3	3.60601E-3	-144.313E-12	699.511E-3	-1.98396E-3
-3.09905E-3	-146.667E-12	710.177E-3	7.43808E-3	-145.173E-12	706.303E-3	-17.8019E-3
-3.10405E-3	-145.875E-12	685.252E-3	-18.9317E-3	-146.464E-12	684.326E-3	-29.8648E-3
-3.10905E-3	-145.006E-12	674.779E-3	-47.0007E-3	-146.734E-12	671.506E-3	-14.9650E-3
-3.11406E-3	-146.003E-12	699.023E-3	-44.3194E-3	-146.759E-12	680.056E-3	-24.0596E-3
-3.11906E-3	-145.306E-12	721.577E-3	-33.7475E-3	-147.894E-12	670.998E-3	-42.9767E-3
-3.12406E-3	-145.464E-12	701.323E-3	-50.4796E-3	-147.734E-12	651.012E-3	-27.8640E-3
-3.12906E-3	-146.180E-12	671.332E-3	-59.1480E-3	-147.679E-12	668.182E-3	-6.32472E-3
-3.13407E-3	-145.775E-12	661.699E-3	-29.9955E-3	-147.705E-12	714.135E-3	-3.53607E-3
-3.13907E-3	-147.687E-12	664.353E-3	-7.15363E-3	-148.511E-12	719.595E-3	-11.6896E-3
-3.14407E-3	-148.608E-12	691.966E-3	-9.91465E-3	-148.681E-12	704.001E-3	-23.1988E-3
-3.14907E-3	-149.142E-12	711.306E-3	-27.3592E-3	-148.543E-12	707.947E-3	-16.5020E-3
-3.15408E-3	-149.883E-12	696.488E-3	-44.8520E-3	-148.694E-12	691.816E-3	-6.93151E-3
-3.15908E-3	-151.355E-12	691.794E-3	-50.7376E-3	-149.163E-12	678.562E-3	-15.2483E-3
-3.16408E-3	-152.281E-12	705.053E-3	-38.5516E-3	-147.701E-12	691.692E-3	-26.1859E-3
-3.16908E-3	-152.949E-12	711.698E-3	-24.9540E-3	-147.334E-12	692.704E-3	-37.0223E-3
-3.17409E-3	-153.569E-12	696.128E-3	-37.8834E-3	-147.397E-12	685.133E-3	-31.0325E-3
-3.17909E-3	-153.324E-12	681.832E-3	-42.5729E-3	-147.496E-12	684.239E-3	-17.2174E-3
-3.18409E-3	-151.767E-12	679.956E-3	-20.6758E-3	-147.105E-12	681.980E-3	-16.8463E-3
-3.18909E-3	-150.665E-12	668.220E-3	-15.0337E-3	-147.609E-12	674.732E-3	-14.4458E-3
-3.19410E-3	-150.882E-12	670.435E-3	-26.8578E-3	-148.502E-12	665.348E-3	-13.5676E-3
-3.19910E-3	-149.356E-12	700.287E-3	-20.6267E-3	-148.978E-12	661.937E-3	-4.43922E-3
-3.20410E-3	-148.518E-12	715.630E-3	-3.93594E-3	-149.730E-12	672.940E-3	18.2185E-3
-3.20910E-3	-148.562E-12	695.706E-3	-12.3410E-3	-151.206E-12	672.219E-3	15.5626E-3
-3.21411E-3	-148.990E-12	678.231E-3	-26.8580E-3	-151.283E-12	656.133E-3	-7.02079E-3
-3.21911E-3	-148.619E-12	684.739E-3	-29.0903E-3	-151.537E-12	664.606E-3	-8.88347E-3
-3.22411E-3	-149.963E-12	693.115E-3	-45.1556E-3	-151.927E-12	687.908E-3	724.654E-6
-3.22911E-3	-150.643E-12	690.757E-3	-48.3877E-3	-152.408E-12	681.618E-3	-12.9709E-3
-3.23412E-3	-151.366E-12	686.235E-3	-26.8264E-3	-151.980E-12	655.315E-3	-23.2485E-3
-3.23912E-3	-151.322E-12	679.669E-3	-21.4497E-3	-153.276E-12	655.214E-3	6.39547E-3
-3.24412E-3	-152.801E-12	669.101E-3	-34.7196E-3	-153.618E-12	663.370E-3	20.5303E-3
-3.24912E-3	-153.746E-12	668.317E-3	-36.9178E-3	-151.888E-12	663.915E-3	19.6096E-3
-3.25413E-3	-154.458E-12	659.446E-3	-30.1037E-3	-151.577E-12	677.134E-3	35.1616E-3
-3.25913E-3	-155.423E-12	663.807E-3	-34.3590E-3	-152.950E-12	688.534E-3	30.2583E-3
-3.26413E-3	-155.825E-12	697.869E-3	-37.3668E-3	-152.735E-12	696.624E-3	11.5771E-3
-3.26913E-3	-155.749E-12	714.441E-3	-11.7130E-3	-151.602E-12	696.497E-3	-14.9663E-3
-3.27414E-3	-154.907E-12	717.605E-3	2.55972E-3	-151.941E-12	667.343E-3	-58.7078E-3
-3.27914E-3	-154.755E-12	714.697E-3	-26.5995E-3	-152.553E-12	641.623E-3	-72.9402E-3
-3.28414E-3	-153.738E-12	708.944E-3	-38.6102E-3	-153.121E-12	642.940E-3	-39.8051E-3
-3.28914E-3	-153.505E-12	715.464E-3	-36.7996E-3	-154.161E-12	657.869E-3	-16.5608E-3
-3.29415E-3	-152.611E-12	702.532E-3	-42.9409E-3	-155.046E-12	685.680E-3	-14.5458E-3
-3.29915E-3	-153.050E-12	672.799E-3	-34.3723E-3	-155.350E-12	697.602E-3	-15.9749E-3
-3.30415E-3	-152.921E-12	662.840E-3	-16.2283E-3	-155.980E-12	667.916E-3	-24.0995E-3
-3.30915E-3	-153.598E-12	658.289E-3	-5.60557E-3	-156.973E-12	628.991E-3	-35.3764E-3
-3.31416E-3	-154.086E-12	652.213E-3	602.731E-6	-158.069E-12	619.632E-3	-45.6187E-3
-3.31916E-3	-154.537E-12	650.015E-3	13.7413E-3	-157.057E-12	642.818E-3	-41.4054E-3
-3.32416E-3	-155.465E-12	655.293E-3	11.3400E-3	-157.607E-12	679.092E-3	-30.9079E-3
-3.32916E-3	-155.604E-12	664.131E-3	-14.0539E-3	-158.832E-12	703.476E-3	-33.3550E-3
-3.33417E-3	-157.753E-12	667.865E-3	-27.5505E-3	-158.635E-12	699.863E-3	-42.5990E-3
-3.33917E-3	-157.548E-12	674.580E-3	-5.31628E-3	-158.372E-12	681.446E-3	-49.9967E-3
-3.34417E-3	-158.393E-12	672.848E-3	8.22095E-3	-157.910E-12	688.537E-3	-42.6134E-3
-3.34917E-3	-159.230E-12	666.096E-3	-12.7718E-3	-158.022E-12	694.273E-3	-34.3966E-3
-3.35418E-3	-160.523E-12	675.810E-3	-26.8640E-3	-158.023E-12	655.812E-3	-27.5952E-3
-3.35918E-3	-160.225E-12	692.076E-3	-25.8887E-3	-157.748E-12	630.036E-3	-14.5991E-3
-3.36418E-3	-160.342E-12	696.142E-3	-32.0152E-3	-157.348E-12	650.829E-3	-7.28633E-3
-3.36918E-3	-160.714E-12	684.183E-3	-43.2225E-3	-157.650E-12	675.565E-3	-5.84975E-3
-3.37419E-3	-160.683E-12	680.842E-3	-60.7002E-3	-158.591E-12	679.472E-3	-7.17295E-3
-3.37919E-3	-160.379E-12	685.554E-3	-58.6585E-3	-158.337E-12	677.890E-3	-6.94642E-3
-3.38419E-3	-159.889E-12	679.658E-3	-30.2231E-3	-157.575E-12	678.471E-3	-15.8749E-3
-3.38919E-3	-160.759E-12	678.958E-3	-12.2360E-3	-158.908E-12	664.857E-3	-35.2749E-3
-3.39420E-3	-160.838E-12	676.791E-3	-5.97518E-3	-159.576E-12	674.875E-3	-35.0936E-3
-3.39920E-3	-160.683E-12	665.369E-3	-13.2082E-3	-158.579E-12	696.977E-3	-24.9679E-3
-3.40420E-3	-161.112E-12	661.343E-3	-52.0120E-3	-159.224E-12	674.880E-3	-10.5845E-3
-3.40920E-3	-161.239E-12	666.898E-3	-69.5114E-3	-161.283E-12	667.792E-3	2.21065E-3
-3.41421E-3	-160.400E-12	667.670E-3	-45.6845E-3	-160.951E-12	690.552E-3	-18.4752E-3
-3.41921E-3	-161.483E-12	679.510E-3	-41.7099E-3	-160.542E-12	685.441E-3	-24.7782E-3
-3.42421E-3	-162.315E-12	682.589E-3	-47.8033E-3	-161.281E-12	691.548E-3	-3.97213E-3
-3.42921E-3	-160.735E-12	652.724E-3	-43.8945E-3	-162.237E-12	706.992E-3	-5.15762E-3
-3.43422E-3	-160.694E-12	650.266E-3	-52.3621E-3	-162.190E-12	669.018E-3	-11.5312E-3
-3.43922E-3	-160.898E-12	669.432E-3	-45.9310E-3	-161.682E-12	628.802E-3	-1.63822E-3
-3.44422E-3	-160.676E-12	680.686E-3	-11.8180E-3	-161.847E-12	640.059E-3	8.26408E-3
-3.44922E-3	-160.171E-12	684.795E-3	1.69693E-3	-162.790E-12	661.030E-3	10.5778E-3
-3.45423E-3	-162.258E-12	660.225E-3	-7.36475E-3	-163.357E-12	669.086E-3	18.4353E-3
-3.45923E-3	-161.143E-12	658.330E-3	-17.6535E-3	-163.037E-12	681.679E-3	18.7812E-3
-3.46423E-3	-161.663E-12	676.469E-3	-23.5197E-3	-163.093E-12	691.055E-3	-14.3027E-3
-3.46923E-3	-163.772E-12	668.755E-3	-13.5664E-3	-163.345E-12	689.079E-3	-39.1291E-3
-3.47424E-3	-162.959E-12	657.797E-3	7.19150E-3	-163.620E-12	680.498E-3	-30.3307E-3
-3.47924E-3	-161.864E-12	649.056E-3	18.3287E-3	-164.089E-12	672.368E-3	-21.7414E-3
-3.48424E-3	-163.995E-12	650.084E-3	-1.49895E-3	-163.405E-12	680.983E-3	-21.1534E-3
-3.48924E-3	-165.424E-12	647.838E-3	-27.1447E-3	-163.213E-12	693.497E-3	-22.3897E-3
-3.49425E-3	-165.435E-12	650.468E-3	-23.6139E-3	-163.787E-12	687.839E-3	-32.0064E-3
-3.49925E-3	-165.549E-12	668.148E-3	-11.6439E-3	-164.932E-12	663.175E-3	-54.2390E-3
-3.50425E-3	-167.688E-12	663.401E-3	-10.7520E-3	-164.117E-12	645.524E-3	-63.5670E-3
-3.50925E-3	-166.826E-12	659.928E-3	-26.2839E-3	-163.556E-12	667.241E-3	-33.7112E-3
-3.51426E-3	-166.315E-12	674.139E-3	-41.2507E-3	-164.202E-12	695.220E-3	9.96741E-3
-3.51926E-3	-166.836E-12	683.028E-3	-41.3900E-3	-165.588E-12	691.599E-3	29.4254E-3
-3.52426E-3	-166.428E-12	684.130E-3	-35.0615E-3	-165.717E-12	688.612E-3	20.9367E-3
-3.52926E-3	-165.618E-12	666.534E-3	-17.7111E-3	-165.716E-12	690.336E-3	3.65041E-3
-3.53427E-3	-165.803E-12	634.872E-3	-9.47179E-3	-166.213E-12	691.785E-3	-21.6402E-3
-3.53927E-3	-164.580E-12	630.199E-3	-21.4284E-3	-167.454E-12	699.049E-3	-42.7053E-3
-3.54427E-3	-164.697E-12	657.087E-3	-32.7159E-3	-167.845E-12	682.231E-3	-43.2589E-3
-3.54927E-3	-164.307E-12	668.869E-3	-47.8015E-3	-166.669E-12	663.912E-3	-24.7837E-3
-3.55428E-3	-164.771E-12	655.123E-3	-46.0472E-3	-167.622E-12	673.711E-3	-3.85604E-3
-3.55928E-3	-165.225E-12	655.894E-3	-19.9552E-3	-168.678E-12	691.903E-3	-689.689E-6
-3.56428E-3	-165.868E-12	671.135E-3	-25.5297E-3	-168.885E-12	688.943E-3	-9.23822E-3
-3.56928E-3	-165.820E-12	672.551E-3	-42.5459E-3	-169.913E-12	680.018E-3	-33.4195E-3
-3.57429E-3	-167.096E-12	675.930E-3	-24.2504E-3	-168.724E-12	674.742E-3	-46.2961E-3
-3.57929E-3	-168.447E-12	673.168E-3	2.84581E-3	-167.785E-12	669.092E-3	-28.4652E-3
-3.58429E-3	-168.691E-12	658.349E-3	17.1093E-3	-168.943E-12	680.166E-3	-27.4332E-3
-3.58929E-3	-170.028E-12	659.242E-3	13.2657E-3	-169.369E-12	689.869E-3	-33.2975E-3
-3.59430E-3	-170.496E-12	668.685E-3	-12.4295E-3	-167.939E-12	680.509E-3	-29.8758E-3
-3.59930E-3	-171.959E-12	675.347E-3	-55.5795E-3	-167.514E-12	682.256E-3	-29.7379E-3
-3.60430E-3	-170.236E-12	676.534E-3	-69.0249E-3	-168.431E-12	702.013E-3	-15.0024E-3
-3.60930E-3	-170.060E-12	673.458E-3	-37.8210E-3	-167.528E-12	692.631E-3	-765.878E-6
-3.61431E-3	-169.692E-12	680.079E-3	-22.0271E-3	-167.092E-12	660.034E-3	5.66010E-3
-3.61931E-3	-169.484E-12	700.207E-3	-19.7936E-3	-167.928E-12	659.617E-3	18.7203E-3
-3.62431E-3	-168.866E-12	704.528E-3	-11.3881E-3	-167.961E-12	673.956E-3	6.97959E-3
-3.62931E-3	-168.117E-12	675.438E-3	-20.9530E-3	-168.185E-12	664.142E-3	-32.7358E-3
-3.63432E-3	-167.984E-12	655.375E-3	-34.8672E-3	-168.875E-12	659.006E-3	-45.9505E-3
-3.63932E-3	-168.123E-12	669.555E-3	-21.6608E-3	-167.856E-12	663.494E-3	-41.9430E-3
-3.64432E-3	-168.942E-12	684.889E-3	2.09631E-3	-168.701E-12	672.213E-3	-50.1910E-3
-3.64932E-3	-168.588E-12	685.952E-3	4.27072E-3	-170.025E-12	694.640E-3	-60.4059E-3
-3.65433E-3	-169.372E-12	695.082E-3	4.41957E-3	-170.954E-12	686.844E-3	-56.5311E-3
-3.65933E-3	-170.444E-12	714.939E-3	1.82119E-3	-170.936E-12	676.026E-3	-32.3967E-3
-3.66433E-3	-171.716E-12	723.281E-3	-5.16690E-3	-172.595E-12	692.426E-3	-28.0583E-3
-3.66933E-3	-172.167E-12	702.977E-3	3.59501E-3	-172.807E-12	685.689E-3	-45.3137E-3
-3.67434E-3	-172.334E-12	677.040E-3	-1.83834E-3	-172.829E-12	653.246E-3	-54.9087E-3
-3.67934E-3	-173.822E-12	670.478E-3	-18.8814E-3	-173.083E-12	633.529E-3	-45.4958E-3
-3.68434E-3	-174.825E-12	686.331E-3	-41.2531E-3	-172.576E-12	657.884E-3	-21.6544E-3
-3.68934E-3	-174.994E-12	689.528E-3	-51.0330E-3	-173.471E-12	679.399E-3	-14.1819E-3
-3.69435E-3	-175.499E-12	659.516E-3	-38.1968E-3	-173.506E-12	671.885E-3	-23.1432E-3
-3.69935E-3	-175.941E-12	659.955E-3	-31.6171E-3	-173.417E-12	659.919E-3	-31.2015E-3
-3.70435E-3	-174.839E-12	675.595E-3	-15.6870E-3	-174.708E-12	648.921E-3	-38.7805E-3
-3.70935E-3	-174.146E-12	675.473E-3	-11.0848E-3	-175.836E-12	659.489E-3	-29.2883E-3
-3.71436E-3	-174.082E-12	695.330E-3	-28.3293E-3	-174.339E-12	680.931E-3	-26.9636E-3
-3.71936E-3	-174.160E-12	700.392E-3	-18.4269E-3	-174.868E-12	683.046E-3	-57.5458E-3
-3.72436E-3	-173.278E-12	673.466E-3	1.31536E-3	-175.891E-12	668.379E-3	-52.4320E-3
-3.72936E-3	-174.071E-12	655.766E-3	5.25988E-3	-175.278E-12	674.099E-3	-17.0180E-3
-3.73437E-3	-175.524E-12	670.710E-3	4.50243E-3	-174.659E-12	683.345E-3	-9.12816E-3
-3.73937E-3	-174.319E-12	685.658E-3	-1.90854E-3	-175.582E-12	669.011E-3	-12.2083E-3
-3.74437E-3	-174.695E-12	675.224E-3	-11.3807E-3	-176.366E-12	667.445E-3	-5.74127E-3
-3.74937E-3	-177.163E-12	669.565E-3	-17.3811E-3	-176.152E-12	662.367E-3	-847.848E-6
-3.75438E-3	-177.642E-12	675.647E-3	-21.4698E-3	-176.274E-12	648.289E-3	-17.0700E-3
-3.75938E-3	-175.477E-12	672.439E-3	-25.1270E-3	-177.048E-12	659.843E-3	-21.7266E-3
-3.76438E-3	-177.753E-12	662.491E-3	-11.4235E-3	-176.516E-12	678.576E-3	-3.37717E-3
-3.76938E-3	-177.979E-12	654.231E-3	11.0565E-3	-176.818E-12	688.567E-3	-7.71303E-3
-3.77439E-3	-177.994E-12	652.039E-3	-7.89075E-3	-176.675E-12	695.326E-3	-14.5896E-3
-3.77939E-3	-178.405E-12	680.241E-3	-46.6204E-3	-176.959E-12	705.286E-3	14.4902E-3
-3.78439E-3	-178.840E-12	698.442E-3	-35.9812E-3	-176.870E-12	723.408E-3	40.7066E-3
-3.78939E-3	-178.941E-12	677.192E-3	-7.23152E-3	-176.658E-12	721.564E-3	35.8834E-3
-3.79440E-3	-178.037E-12	644.263E-3	-3.44952E-3	-175.980E-12	697.156E-3	21.6400E-3
-3.79940E-3	-178.600E-12	623.945E-3	-21.3002E-3	-176.393E-12	684.807E-3	7.52134E-3
-3.80440E-3	-177.397E-12	639.307E-3	-26.7340E-3	-176.919E-12	668.392E-3	-6.45367E-3
-3.80940E-3	-177.556E-12	664.685E-3	-5.42887E-3	-177.165E-12	656.962E-3	-16.5356E-3
-3.81441E-3	-177.457E-12	674.867E-3	724.627E-6	-178.093E-12	671.926E-3	-25.4107E-3
-3.81941E-3	-177.730E-12	664.082E-3	-8.17433E-3	-177.697E-12	671.091E-3	-18.8788E-3
-3.82441E-3	-177.539E-12	649.041E-3	-11.9626E-3	-178.042E-12	660.722E-3	-8.25355E-3
-3.82941E-3	-177.862E-12	647.539E-3	-14.1270E-3	-178.617E-12	662.665E-3	-17.9987E-3
-3.83442E-3	-179.203E-12	655.297E-3	-13.2492E-3	-179.143E-12	658.308E-3	-29.4832E-3
-3.83942E-3	-178.525E-12	661.466E-3	-30.2516E-3	-179.002E-12	654.524E-3	-27.3519E-3
-3.84442E-3	-178.879E-12	672.291E-3	-42.6230E-3	-179.215E-12	648.832E-3	-25.6264E-3
-3.84942E-3	-179.519E-12	693.032E-3	-25.6480E-3	-178.957E-12	653.825E-3	-37.9730E-3
-3.85443E-3	-180.653E-12	696.029E-3	-43.3138E-3	-179.787E-12	682.619E-3	-38.3556E-3
-3.85943E-3	-179.037E-12	699.412E-3	-85.2529E-3	-180.894E-12	696.034E-3	-24.1428E-3
-3.86443E-3	-179.553E-12	688.154E-3	-89.1748E-3	-180.519E-12	693.947E-3	-24.2102E-3
-3.86943E-3	-179.308E-12	656.306E-3	-60.1207E-3	-180.789E-12	688.524E-3	-26.1018E-3
-3.87444E-3	-179.957E-12	649.271E-3	-24.2588E-3	-180.878E-12	679.314E-3	-23.9055E-3
-3.87944E-3	-180.013E-12	641.623E-3	3.42542E-3	-180.813E-12	675.041E-3	-27.1483E-3
-3.88444E-3	-179.909E-12	648.832E-3	4.11067E-3	-181.013E-12	668.610E-3	-42.7017E-3
-3.88944E-3	-178.855E-12	680.167E-3	-17.9730E-3	-180.826E-12	692.507E-3	-59.9173E-3
-3.89445E-3	-179.477E-12	689.062E-3	-20.3254E-3	-180.394E-12	728.149E-3	-46.2163E-3
-3.89945E-3	-180.420E-12	682.136E-3	-1.73064E-3	-181.031E-12	707.939E-3	-23.5965E-3
-3.90445E-3	-180.969E-12	687.162E-3	-1.36074E-3	-182.052E-12	679.170E-3	-19.0916E-3
-3.90945E-3	-180.356E-12	705.486E-3	-3.02611E-3	-181.912E-12	677.713E-3	-34.5230E-3
-3.91446E-3	-181.017E-12	696.401E-3	2.99312E-3	-183.077E-12	672.634E-3	-63.7227E-3
-3.91946E-3	-181.979E-12	668.546E-3	-9.99134E-3	-184.026E-12	673.773E-3	-61.1456E-3
-3.92446E-3	-182.445E-12	665.965E-3	-17.9071E-3	-184.218E-12	676.004E-3	-37.9964E-3
-3.92946E-3	-182.682E-12	678.380E-3	111.503E-6	-184.952E-12	670.457E-3	-1.17985E-3
-3.93447E-3	-183.433E-12	681.557E-3	15.9396E-3	-184.381E-12	663.084E-3	48.9991E-3
-3.93947E-3	-184.227E-12	666.160E-3	10.4421E-3	-184.536E-12	662.663E-3	51.3743E-3
-3.94447E-3	-184.992E-12	658.709E-3	-2.66916E-3	-184.414E-12	680.275E-3	23.1339E-3
-3.94947E-3	-185.280E-12	682.162E-3	-15.4157E-3	-185.959E-12	715.255E-3	-10.4447E-3
-3.95448E-3	-186.129E-12	688.887E-3	-19.2387E-3	-185.459E-12	734.159E-3	-39.9895E-3
-3.95948E-3	-186.242E-12	664.351E-3	-9.83942E-3	-184.836E-12	712.402E-3	-26.4704E-3
-3.96448E-3	-186.431E-12	654.741E-3	-10.8056E-3	-185.173E-12	683.043E-3	-16.1594E-3
-3.96948E-3	-186.258E-12	677.854E-3	-16.7649E-3	-185.353E-12	662.837E-3	-28.6808E-3
-3.97449E-3	-187.283E-12	707.104E-3	-3.53435E-3	-186.715E-12	657.250E-3	-29.3717E-3
-3.97949E-3	-186.743E-12	692.636E-3	1.68030E-3	-185.641E-12	663.955E-3	-41.9019E-3
-3.98449E-3	-187.293E-12	644.221E-3	-18.1064E-3	-185.921E-12	672.010E-3	-55.9230E-3
-3.98949E-3	-186.895E-12	628.555E-3	-27.3206E-3	-186.351E-12	680.351E-3	-46.0258E-3
-3.99450E-3	-187.232E-12	649.758E-3	-12.8124E-3	-187.072E-12	687.994E-3	-20.1130E-3
-3.99950E-3	-186.907E-12	674.762E-3	-2.11481E-3	-186.246E-12	693.307E-3	2.30416E-3
-4.00450E-3	-187.046E-12	674.304E-3	3.46493E-3	-187.864E-12	668.688E-3	-3.18680E-3
-4.00950E-3	-186.762E-12	646.407E-3	25.3739E-3	-187.795E-12	649.259E-3	-15.6580E-3
-4.01451E-3	-186.308E-12	637.801E-3	13.4302E-3	-188.145E-12	665.706E-3	7.30806E-3
-4.01951E-3	-186.354E-12	655.670E-3	-41.5681E-3	-189.158E-12	675.291E-3	33.5206E-3
-4.02451E-3	-187.276E-12	662.426E-3	-70.8782E-3	-187.875E-12	674.483E-3	25.2661E-3
-4.02951E-3	-186.992E-12	659.264E-3	-52.6653E-3	-187.060E-12	678.728E-3	3.23674E-3
-4.03452E-3	-186.715E-12	653.948E-3	-18.0677E-3	-188.527E-12	670.407E-3	-18.3865E-3
-4.03952E-3	-187.555E-12	644.118E-3	6.10940E-3	-188.482E-12	658.900E-3	-23.2158E-3
-4.04452E-3	-187.594E-12	647.638E-3	14.1231E-3	-187.932E-12	682.974E-3	-37.5337E-3
-4.04952E-3	-187.421E-12	670.837E-3	-12.3350E-3	-188.044E-12	703.470E-3	-56.6838E-3
-4.05453E-3	-187.549E-12	688.795E-3	-27.7936E-3	-188.644E-12	681.581E-3	-49.6117E-3
-4.05953E-3	-187.253E-12	687.572E-3	-22.9370E-3	-188.772E-12	644.552E-3	-43.7371E-3
-4.06453E-3	-187.276E-12	686.270E-3	-37.4378E-3	-189.447E-12	622.509E-3	-29.2482E-3
-4.06953E-3	-187.780E-12	700.546E-3	-46.8312E-3	-188.814E-12	647.315E-3	-4.36322E-3
-4.07454E-3	-189.297E-12	712.534E-3	-49.5116E-3	-189.589E-12	684.641E-3	8.18270E-3
-4.07954E-3	-190.060E-12	690.379E-3	-48.4275E-3	-189.893E-12	684.977E-3	-7.82675E-3
-4.08454E-3	-190.171E-12	661.629E-3	-38.5523E-3	-190.876E-12	679.546E-3	-30.7452E-3
-4.08954E-3	-189.700E-12	661.591E-3	-26.1867E-3	-191.333E-12	679.760E-3	-34.7951E-3
-4.09455E-3	-192.389E-12	680.834E-3	-14.5877E-3	-191.327E-12	657.135E-3	-29.7660E-3
-4.09955E-3	-192.799E-12	691.766E-3	-14.6895E-3	-192.013E-12	625.631E-3	-24.8638E-3
-4.10455E-3	-191.952E-12	681.081E-3	-40.2373E-3	-191.857E-12	627.114E-3	-22.8643E-3
-4.10955E-3	-193.091E-12	677.536E-3	-68.0785E-3	-192.099E-12	635.966E-3	-25.4845E-3
-4.11456E-3	-192.310E-12	685.961E-3	-40.3338E-3	-191.346E-12	653.534E-3	-25.0499E-3
-4.11956E-3	-192.469E-12	673.786E-3	14.6209E-3	-191.397E-12	693.724E-3	-22.8645E-3
-4.12456E-3	-192.676E-12	657.980E-3	35.3017E-3	-191.879E-12	676.227E-3	-44.4293E-3
-4.12956E-3	-192.442E-12	653.006E-3	28.1321E-3	-191.830E-12	636.741E-3	-60.4783E-3
-4.13457E-3	-190.704E-12	652.408E-3	10.6302E-3	-192.103E-12	652.815E-3	-31.3266E-3
-4.13957E-3	-191.171E-12	661.348E-3	-17.9949E-3	-193.137E-12	674.600E-3	-10.8076E-3
-4.14457E-3	-191.596E-12	674.739E-3	-45.2043E-3	-193.838E-12	684.529E-3	-18.5127E-3
-4.14957E-3	-191.049E-12	687.910E-3	-49.8050E-3	-193.117E-12	700.223E-3	-18.7788E-3
-4.15458E-3	-190.888E-12	681.662E-3	-52.2828E-3	-194.487E-12	689.100E-3	-38.8612E-3
-4.15958E-3	-190.770E-12	676.655E-3	-31.0043E-3	-195.226E-12	671.580E-3	-63.4878E-3
-4.16458E-3	-191.309E-12	672.684E-3	30.0251E-3	-194.596E-12	687.601E-3	-44.9729E-3
-4.16958E-3	-192.034E-12	653.438E-3	41.6688E-3	-195.444E-12	698.325E-3	-8.87087E-3
-4.17459E-3	-192.050E-12	651.201E-3	-1.91503E-3	-195.594E-12	669.650E-3	2.85985E-3
-4.17959E-3	-193.552E-12	668.983E-3	-28.1118E-3	-194.969E-12	645.487E-3	-2.62887E-3
-4.18459E-3	-195.052E-12	679.244E-3	-35.0266E-3	-196.332E-12	663.257E-3	-16.1492E-3
-4.18959E-3	-195.980E-12	678.889E-3	-25.1131E-3	-197.138E-12	671.592E-3	-35.6509E-3
-4.19460E-3	-197.093E-12	694.587E-3	-14.8843E-3	-196.182E-12	645.731E-3	-31.5144E-3
-4.19960E-3	-197.669E-12	702.737E-3	-34.2810E-3	-196.549E-12	625.245E-3	-13.9431E-3
-4.20460E-3	-198.797E-12	671.178E-3	-37.3347E-3	-196.717E-12	625.387E-3	-24.4803E-3
-4.20960E-3	-199.763E-12	648.248E-3	-38.1908E-3	-196.305E-12	653.283E-3	-30.6102E-3
-4.21461E-3	-198.707E-12	678.645E-3	-58.4975E-3	-194.866E-12	692.354E-3	-33.3967E-3
-4.21961E-3	-199.267E-12	707.991E-3	-57.9602E-3	-195.679E-12	694.980E-3	-59.4287E-3
-4.22461E-3	-199.181E-12	710.188E-3	-57.7696E-3	-197.136E-12	673.824E-3	-52.0432E-3
-4.22961E-3	-198.903E-12	700.831E-3	-48.9151E-3	-197.290E-12	660.205E-3	-11.4395E-3
-4.23462E-3	-198.433E-12	665.176E-3	-22.0186E-3	-196.092E-12	642.072E-3	-23.6985E-3
-4.23962E-3	-197.829E-12	633.742E-3	-21.9906E-3	-196.524E-12	640.617E-3	-60.1896E-3
-4.24462E-3	-195.995E-12	635.263E-3	-36.1119E-3	-198.318E-12	668.867E-3	-44.3115E-3
-4.24962E-3	-196.279E-12	638.140E-3	-38.4926E-3	-197.287E-12	687.684E-3	-19.7872E-3
-4.25463E-3	-196.581E-12	629.637E-3	-32.8601E-3	-198.404E-12	674.199E-3	-20.6351E-3
-4.25963E-3	-196.061E-12	627.268E-3	-22.1753E-3	-198.251E-12	646.142E-3	-26.9600E-3
-4.26463E-3	-195.680E-12	617.676E-3	-22.4495E-3	-198.308E-12	645.906E-3	-16.6101E-3
-4.26963E-3	-197.785E-12	632.243E-3	-2.54632E-3	-199.126E-12	639.644E-3	-3.55820E-3
-4.27464E-3	-198.217E-12	679.483E-3	34.5054E-3	-200.471E-12	629.877E-3	-8.51951E-3
-4.27964E-3	-197.544E-12	707.008E-3	15.7863E-3	-198.716E-12	659.717E-3	-21.2603E-3
-4.28464E-3	-199.438E-12	706.765E-3	-32.0652E-3	-199.475E-12	665.095E-3	-20.3284E-3
-4.28964E-3	-199.635E-12	687.928E-3	-57.8533E-3	-201.925E-12	643.388E-3	-12.1848E-3
-4.29465E-3	-201.049E-12	664.959E-3	-45.9821E-3	-200.577E-12	666.921E-3	-35.2968E-3
-4.29965E-3	-200.838E-12	658.453E-3	-16.9435E-3	-200.093E-12	696.292E-3	-39.1491E-3
-4.30465E-3	-201.928E-12	668.983E-3	-36.2259E-3	-201.581E-12	669.292E-3	1.59764E-3
-4.30965E-3	-200.828E-12	667.992E-3	-57.1527E-3	-201.358E-12	633.580E-3	23.2261E-3
-4.31466E-3	-200.786E-12	645.063E-3	-36.2637E-3	-201.377E-12	641.499E-3	19.0539E-3
-4.31966E-3	-201.037E-12	619.436E-3	-29.1658E-3	-202.510E-12	655.143E-3	9.52488E-3
-4.32466E-3	-200.932E-12	607.648E-3	-28.1893E-3	-202.710E-12	653.868E-3	-3.44669E-3
-4.32966E-3	-201.716E-12	611.089E-3	-6.12801E-3	-202.621E-12	657.363E-3	-9.08459E-3
-4.33467E-3	-200.791E-12	632.163E-3	2.51869E-3	-203.339E-12	656.763E-3	-12.3566E-3
-4.33967E-3	-200.398E-12	647.795E-3	-6.00125E-3	-203.412E-12	633.877E-3	-16.5067E-3
-4.34467E-3	-200.723E-12	648.437E-3	-9.65291E-3	-202.134E-12	612.529E-3	-16.4958E-3
-4.34967E-3	-202.208E-12	666.240E-3	-9.70717E-3	-203.895E-12	630.951E-3	-34.5226E-3
-4.35468E-3	-201.346E-12	679.629E-3	-8.50977E-3	-202.851E-12	655.701E-3	-39.0878E-3
-4.35968E-3	-201.632E-12	670.777E-3	-4.01521E-3	-201.221E-12	672.527E-3	-3.38931E-3
-4.36468E-3	-203.364E-12	653.434E-3	-8.91616E-3	-202.660E-12	680.078E-3	15.3271E-3
-4.36968E-3	-203.447E-12	637.444E-3	-6.92129E-3	-203.500E-12	660.531E-3	597.170E-6
-4.37469E-3	-204.647E-12	645.673E-3	-11.8602E-3	-202.565E-12	652.604E-3	-23.7428E-3
-4.37969E-3	-204.359E-12	667.304E-3	-33.4386E-3	-203.182E-12	654.265E-3	-51.5775E-3
-4.38469E-3	-204.796E-12	681.366E-3	-32.7492E-3	-203.576E-12	644.827E-3	-75.2043E-3
-4.38969E-3	-204.441E-12	683.647E-3	-6.95604E-3	-203.913E-12	636.312E-3	-68.5385E-3
-4.39470E-3	-205.318E-12	671.090E-3	9.87245E-3	-204.453E-12	621.963E-3	-25.8972E-3
-4.39970E-3	-204.987E-12	660.161E-3	-6.21790E-3	-204.703E-12	616.367E-3	-13.3263E-3
-4.40470E-3	-204.523E-12	662.888E-3	-12.8206E-3	-204.388E-12	633.420E-3	-38.6601E-3
-4.40970E-3	-204.722E-12	656.613E-3	9.67974E-3	-206.428E-12	650.628E-3	-43.0356E-3
-4.41471E-3	-204.871E-12	655.004E-3	18.6793E-3	-206.144E-12	662.771E-3	-31.7699E-3
-4.41971E-3	-206.323E-12	668.214E-3	13.7144E-3	-205.896E-12	646.647E-3	-24.3813E-3
-4.42471E-3	-205.039E-12	665.976E-3	5.79222E-3	-206.396E-12	612.124E-3	-19.5833E-3
-4.42971E-3	-203.996E-12	667.328E-3	-13.7175E-3	-205.361E-12	639.003E-3	-29.0844E-3
-4.43472E-3	-205.342E-12	683.755E-3	-48.3775E-3	-204.469E-12	694.100E-3	-41.8290E-3
-4.43972E-3	-205.648E-12	684.146E-3	-71.1255E-3	-205.766E-12	699.462E-3	-44.4646E-3
-4.44472E-3	-204.884E-12	685.901E-3	-72.2898E-3	-204.826E-12	695.179E-3	-54.7266E-3
-4.44972E-3	-206.425E-12	674.721E-3	-79.1596E-3	-204.562E-12	682.526E-3	-47.0103E-3
-4.45473E-3	-207.489E-12	646.856E-3	-71.0756E-3	-207.230E-12	654.815E-3	-13.0632E-3
-4.45973E-3	-206.666E-12	637.889E-3	-36.6771E-3	-205.933E-12	644.874E-3	-9.14574E-3
-4.46473E-3	-207.864E-12	632.265E-3	-17.9405E-3	-205.095E-12	650.851E-3	-20.1694E-3
-4.46973E-3	-207.317E-12	629.202E-3	-14.2511E-3	-205.815E-12	662.202E-3	-14.2266E-3
-4.47474E-3	-206.579E-12	633.313E-3	-25.2660E-3	-206.010E-12	657.974E-3	-6.79375E-3
-4.47974E-3	-207.232E-12	639.712E-3	-29.4496E-3	-205.407E-12	640.277E-3	6.92895E-3
-4.48474E-3	-207.173E-12	665.473E-3	8.86471E-3	-207.410E-12	645.200E-3	14.9787E-3
-4.48974E-3	-206.642E-12	666.312E-3	9.69170E-3	-206.695E-12	675.440E-3	11.0446E-3
-4.49475E-3	-206.342E-12	621.980E-3	-36.0683E-3	-208.719E-12	680.754E-3	2.33909E-3
-4.49975E-3	-206.471E-12	595.970E-3	-45.0426E-3	-209.952E-12	643.387E-3	-14.7153E-3
-4.50475E-3	-207.562E-12	617.814E-3	-21.9168E-3	-209.539E-12	641.593E-3	-13.9595E-3
-4.50975E-3	-208.730E-12	670.973E-3	-13.7842E-3	-211.242E-12	682.820E-3	-27.6739E-3
-4.51476E-3	-208.393E-12	701.348E-3	-14.9628E-3	-210.546E-12	695.024E-3	-49.6747E-3
-4.51976E-3	-208.545E-12	684.807E-3	-16.3638E-3	-209.569E-12	702.151E-3	-56.2910E-3
-4.52476E-3	-210.513E-12	646.162E-3	-16.2485E-3	-210.261E-12	704.425E-3	-62.9844E-3
-4.52976E-3	-210.592E-12	623.555E-3	-11.2730E-3	-210.568E-12	681.843E-3	-36.0876E-3
-4.53477E-3	-212.111E-12	629.315E-3	-18.8843E-3	-209.977E-12	642.026E-3	12.5334E-3
-4.53977E-3	-214.034E-12	646.746E-3	-26.9013E-3	-209.910E-12	610.303E-3	41.8583E-3
-4.54477E-3	-213.559E-12	654.594E-3	-15.8726E-3	-211.280E-12	615.578E-3	30.9869E-3
-4.54977E-3	-212.982E-12	645.396E-3	-12.9054E-3	-210.540E-12	618.218E-3	5.87339E-3
-4.55478E-3	-215.265E-12	653.089E-3	-18.4546E-3	-212.259E-12	643.537E-3	-12.7971E-3
-4.55978E-3	-213.823E-12	673.522E-3	-6.59085E-3	-211.124E-12	686.821E-3	-37.9686E-3
-4.56478E-3	-211.897E-12	680.091E-3	15.4553E-3	-210.247E-12	693.578E-3	-35.6458E-3
-4.56978E-3	-212.247E-12	669.549E-3	21.2606E-3	-211.154E-12	694.736E-3	-14.4108E-3
-4.57479E-3	-213.055E-12	673.379E-3	3.84544E-3	-213.262E-12	693.062E-3	-14.6279E-3
-4.57979E-3	-211.423E-12	696.318E-3	-10.1036E-3	-212.740E-12	668.136E-3	-13.6248E-3
-4.58479E-3	-211.872E-12	689.282E-3	-11.5291E-3	-213.546E-12	646.818E-3	-20.3386E-3
-4.58979E-3	-212.105E-12	682.065E-3	-10.2574E-3	-214.545E-12	638.574E-3	-21.8544E-3
-4.59480E-3	-211.376E-12	670.760E-3	-10.5220E-3	-213.983E-12	630.287E-3	7.22872E-3
-4.59980E-3	-211.672E-12	637.961E-3	-11.2678E-3	-213.965E-12	638.885E-3	7.01760E-3
-4.60480E-3	-213.040E-12	632.209E-3	-20.8936E-3	-215.425E-12	664.136E-3	-19.0047E-3
-4.60980E-3	-213.190E-12	635.920E-3	-51.4261E-3	-214.032E-12	680.091E-3	-17.5810E-3
-4.61481E-3	-213.626E-12	632.558E-3	-66.1279E-3	-213.326E-12	688.589E-3	12.4822E-3
-4.61981E-3	-215.274E-12	639.267E-3	-25.6626E-3	-215.477E-12	678.448E-3	28.1799E-3
-4.62481E-3	-215.620E-12	673.393E-3	17.2769E-3	-216.550E-12	644.042E-3	25.9591E-3
-4.62981E-3	-216.726E-12	708.965E-3	15.9447E-3	-214.400E-12	652.191E-3	10.8695E-3
-4.63482E-3	-218.101E-12	704.641E-3	2.95531E-3	-214.353E-12	697.249E-3	-14.2955E-3
-4.63982E-3	-217.185E-12	686.724E-3	9.99629E-3	-215.591E-12	699.651E-3	-12.4504E-3
-4.64482E-3	-216.016E-12	667.019E-3	-1.46002E-3	-215.644E-12	681.571E-3	-10.5227E-3
-4.64982E-3	-216.826E-12	676.058E-3	-47.5487E-3	-215.291E-12	673.487E-3	-20.2832E-3
-4.65483E-3	-217.028E-12	712.008E-3	-67.7688E-3	-215.981E-12	648.977E-3	-11.0537E-3
-4.65983E-3	-216.451E-12	697.548E-3	-60.8123E-3	-215.525E-12	647.693E-3	-3.77475E-3
-4.66483E-3	-215.572E-12	657.372E-3	-51.7997E-3	-214.971E-12	655.666E-3	-33.2943E-3
-4.66983E-3	-215.589E-12	653.799E-3	-40.8213E-3	-215.685E-12	657.205E-3	-48.0595E-3
-4.67484E-3	-216.886E-12	679.217E-3	-41.0873E-3	-215.070E-12	695.035E-3	-25.9900E-3
-4.67984E-3	-216.947E-12	681.052E-3	-51.3394E-3	-214.795E-12	717.267E-3	-28.7137E-3
-4.68484E-3	-217.127E-12	665.978E-3	-55.1232E-3	-216.911E-12	682.281E-3	-32.3830E-3
-4.68984E-3	-216.047E-12	676.224E-3	-44.4706E-3	-215.936E-12	645.925E-3	-6.56374E-3
-4.69485E-3	-216.459E-12	686.854E-3	-38.1111E-3	-215.891E-12	658.350E-3	8.31373E-3
-4.69985E-3	-217.824E-12	694.454E-3	-34.0609E-3	-217.553E-12	674.179E-3	14.8477E-3
-4.70485E-3	-217.218E-12	681.639E-3	-16.2326E-3	-217.632E-12	658.955E-3	12.9261E-3
-4.70985E-3	-216.363E-12	639.185E-3	-34.0692E-3	-216.902E-12	672.882E-3	-9.45197E-3
-4.71486E-3	-217.609E-12	612.921E-3	-73.9461E-3	-218.268E-12	708.395E-3	-21.7292E-3
-4.71986E-3	-219.570E-12	604.839E-3	-86.0662E-3	-219.545E-12	705.818E-3	-33.7153E-3
-4.72486E-3	-219.097E-12	626.911E-3	-72.3943E-3	-220.304E-12	691.470E-3	-36.0179E-3
-4.72986E-3	-218.551E-12	680.455E-3	-58.9671E-3	-221.287E-12	680.952E-3	-24.4307E-3
-4.73487E-3	-219.820E-12	701.856E-3	-67.6253E-3	-221.451E-12	661.287E-3	-13.2542E-3
-4.73987E-3	-219.193E-12	678.194E-3	-50.0251E-3	-221.363E-12	637.764E-3	-4.09705E-3
-4.74487E-3	-219.208E-12	669.492E-3	3.81912E-3	-222.853E-12	639.350E-3	-23.7011E-3
-4.74988E-3	-218.025E-12	665.606E-3	39.1022E-3	-224.800E-12	657.447E-3	-33.1671E-3
-4.75488E-3	-219.757E-12	651.821E-3	53.0139E-3	-223.713E-12	666.706E-3	-26.4696E-3
-4.75988E-3	-218.636E-12	653.704E-3	42.5086E-3	-223.203E-12	652.882E-3	-42.8314E-3
-4.76488E-3	-218.533E-12	641.112E-3	7.89002E-3	-222.543E-12	647.608E-3	-33.5980E-3
-4.76988E-3	-220.356E-12	621.630E-3	-17.6107E-3	-223.018E-12	656.874E-3	10.0488E-3
-4.77489E-3	-221.037E-12	627.882E-3	-39.9323E-3	-222.766E-12	633.971E-3	45.9262E-3
-4.77989E-3	-220.508E-12	648.401E-3	-76.3042E-3	-222.258E-12	624.074E-3	57.5303E-3
-4.78489E-3	-221.949E-12	661.707E-3	-76.7175E-3	-220.942E-12	659.220E-3	31.2475E-3
-4.78989E-3	-223.873E-12	660.409E-3	-32.7771E-3	-221.502E-12	679.009E-3	-2.37844E-3
-4.79490E-3	-221.826E-12	657.352E-3	-4.26278E-3	-221.267E-12	661.491E-3	-14.9402E-3
-4.79990E-3	-223.377E-12	667.771E-3	14.5856E-3	-221.746E-12	653.271E-3	-12.5152E-3
-4.80490E-3	-224.478E-12	693.791E-3	39.0901E-3	-222.560E-12	644.889E-3	-27.5967E-3
-4.80990E-3	-223.273E-12	704.925E-3	55.4138E-3	-221.773E-12	635.308E-3	-44.9879E-3
-4.81491E-3	-223.626E-12	697.997E-3	50.7720E-3	-222.417E-12	652.977E-3	-38.5323E-3
-4.81991E-3	-225.003E-12	700.997E-3	37.0163E-3	-223.395E-12	674.893E-3	-34.1470E-3
-4.82491E-3	-224.424E-12	702.144E-3	33.8725E-3	-223.529E-12	674.692E-3	-39.2280E-3
-4.82991E-3	-223.325E-12	692.626E-3	32.8212E-3	-224.021E-12	666.251E-3	-44.1491E-3
-4.83492E-3	-225.400E-12	678.483E-3	9.30178E-3	-224.620E-12	676.617E-3	-36.0863E-3
-4.83992E-3	-225.019E-12	663.187E-3	-31.5257E-3	-225.185E-12	692.358E-3	-20.0267E-3
-4.84492E-3	-224.104E-12	679.486E-3	-60.2617E-3	-224.570E-12	683.569E-3	-13.1252E-3
-4.84992E-3	-225.038E-12	721.195E-3	-64.2286E-3	-226.614E-12	675.031E-3	-3.71767E-3
-4.85493E-3	-224.737E-12	723.643E-3	-56.9946E-3	-225.145E-12	683.025E-3	17.6675E-3
-4.85993E-3	-225.081E-12	684.755E-3	-45.2553E-3	-225.457E-12	687.317E-3	34.2797E-3
-4.86493E-3	-224.444E-12	683.164E-3	-15.3277E-3	-226.103E-12	678.915E-3	33.6507E-3
-4.86993E-3	-224.781E-12	710.767E-3	8.25145E-3	-225.788E-12	655.655E-3	4.42851E-3
-4.87494E-3	-224.802E-12	706.538E-3	-5.03466E-3	-224.450E-12	634.580E-3	-30.4294E-3
-4.87994E-3	-226.059E-12	682.144E-3	-46.5619E-3	-224.492E-12	644.400E-3	-44.6760E-3
-4.88494E-3	-226.334E-12	663.262E-3	-86.8994E-3	-225.449E-12	642.570E-3	-53.4002E-3
-4.88995E-3	-226.020E-12	673.314E-3	-98.5701E-3	-225.289E-12	609.634E-3	-53.5974E-3
-4.89495E-3	-226.873E-12	706.382E-3	-68.7182E-3	-225.886E-12	615.241E-3	-27.1765E-3
-4.89995E-3	-227.024E-12	708.565E-3	-41.3862E-3	-227.716E-12	664.448E-3	-15.1743E-3
-4.90495E-3	-228.120E-12	706.622E-3	-48.5393E-3	-228.217E-12	686.679E-3	-25.4402E-3
-4.90995E-3	-227.047E-12	709.418E-3	-38.2136E-3	-226.692E-12	671.232E-3	-8.42916E-3
-4.91496E-3	-227.387E-12	689.663E-3	-17.7618E-3	-227.572E-12	650.719E-3	-25.4390E-3
-4.91996E-3	-226.882E-12	674.274E-3	-33.9240E-3	-228.277E-12	656.466E-3	-68.1629E-3
-4.92496E-3	-228.247E-12	647.615E-3	-32.1536E-3	-228.031E-12	696.116E-3	-59.0855E-3
-4.92996E-3	-228.558E-12	613.568E-3	-27.0084E-3	-229.452E-12	712.963E-3	-35.2131E-3
-4.93497E-3	-225.833E-12	615.740E-3	-33.3167E-3	-228.513E-12	672.157E-3	-28.8387E-3
-4.93997E-3	-228.228E-12	654.348E-3	-12.7342E-3	-228.837E-12	642.266E-3	-17.0881E-3
-4.94497E-3	-230.398E-12	688.661E-3	-15.9761E-3	-229.371E-12	647.012E-3	-3.77674E-3
-4.94997E-3	-229.716E-12	693.931E-3	-18.4235E-3	-230.730E-12	647.484E-3	-18.7261E-3
-4.95498E-3	-228.646E-12	686.911E-3	-1.30172E-3	-229.649E-12	649.833E-3	-42.8107E-3
-4.95998E-3	-230.785E-12	706.616E-3	68.7263E-6	-229.392E-12	656.744E-3	-51.9426E-3
-4.96498E-3	-230.809E-12	713.812E-3	-7.89327E-3	-230.041E-12	643.010E-3	-71.3624E-3
-4.96998E-3	-231.122E-12	685.361E-3	-25.4570E-3	-230.094E-12	621.198E-3	-93.4634E-3
-4.97499E-3	-233.530E-12	681.608E-3	-11.6389E-3	-230.338E-12	629.683E-3	-87.0646E-3
-4.97999E-3	-232.086E-12	675.418E-3	26.5042E-3	-230.114E-12	638.828E-3	-85.8300E-3
-4.98499E-3	-231.068E-12	679.879E-3	24.3601E-3	-230.051E-12	618.063E-3	-82.1950E-3
-4.98999E-3	-232.767E-12	706.686E-3	8.79787E-3	-230.734E-12	614.409E-3	-46.2503E-3
-4.99500E-3	-231.996E-12	684.271E-3	10.9527E-3	-232.260E-12	653.881E-3	-31.5212E-3
-5.00000E-3	-229.859E-12	664.026E-3	-3.71001E-3	-231.082E-12	676.335E-3	-29.7655E-3
