Experiment	bias spectroscopy	
Date	19.01.2016 21:29:57	
User		
X (m)	49.9471E-9	
Y (m)	257.329E-9	
Z (m)	-132.564E-9	
Z offset (m)	0E+0	
Settling time (s)	200E-6	
Integration time (s)	5E-3	
Z-Ctrl hold	TRUE	
Final Z (m)	N/A	
Filter type	None	
Order		
Cutoff frq		
Comment01	MnPc/Pb(111)	
Comment02	dz =00pm	
Comment03	7 Sweeps	
Comment04	MagField =0.T	
Comment05	Divider 1:10	
Comment06	Setpoint:5mV,200 pA	
Comment07	Lockin: 50uVrms,5ms,5mV	
Comment08	Gain:9; 912Hz modulation	
Comment09	T=1.06K	
Bias>Bias (V)	5E-3	
Bias>Calibration (V/V)	81.475E-3	
Bias>Offset (V)	1.046E-3	
Bias Spectroscopy>Sweep Start (V)	5E-3	
Bias Spectroscopy>Sweep End (V)	-5E-3	
Bias Spectroscopy>Num Pixel	2000	
Bias Spectroscopy>Z Avg time (s)	500E-3	
Bias Spectroscopy>Z offset (m)	0E+0	
Bias Spectroscopy>1st Settling time (s)	500E-3	
Bias Spectroscopy>Settling time (s)	200E-6	
Bias Spectroscopy>Integration time (s)	5E-3	
Bias Spectroscopy>End Settling time (s)	500E-3	
Bias Spectroscopy>Z control time (s)	500E-3	
Bias Spectroscopy>Max Slew rate (V/s)	Inf	
Bias Spectroscopy>backward sweep	TRUE	
Bias Spectroscopy>Z-controller hold	TRUE	
Bias Spectroscopy>Number of sweeps	7	
Bias Spectroscopy>Channels	Current (A);X% LockIn (V);Y% LockIn (V)	
Bias Spectroscopy>Reset Bias	TRUE	
Bias Spectroscopy>Record final Z	FALSE	
Bias Spectroscopy>Lock-In run	FALSE	
Bias Spectroscopy>Sweep mode	Linear	
Bias Spectroscopy>MultiLine Settings : Segment Start (V), Segment End (V), Settling (s), Integration (s), Steps (xn)	100E-3,3.3E-3,100E-6,10E-3,2500;3.3E-3,-3.3E-3,100E-6,10E-3,10;-3.3E-3,-100E-3,100E-6,10E-3,2500	
Current>Current (A)	200.098E-12	
Current>Calibration (A/V)	999.99900E-12	
Current>Offset (A)	-455.429E-15	
Current>Gain	LN 10^9	
Z-Controller>Z (m)	-132.564E-9	
Z-Controller>Controller name	log Current	
Z-Controller>Controller status	ON	
Z-Controller>Setpoint	200E-12	
Z-Controller>Setpoint unit	A	
Z-Controller>P gain	2.96994E-12	
Z-Controller>I gain	67.0321E-9	
Z-Controller>Time const (s)	44.3062E-6	
Z-Controller>TipLift (m)	0E+0	
Z-Controller>Switch off delay (s)	50E-3	
Current (A)	199.933E-12	
Z (m)	-132.564E-9	

[DATA]
Bias calc (V)	Current (A)	X% LockIn (V)	Y% LockIn (V)	Current [bwd] (A)	X% LockIn [bwd] (V)	Y% LockIn [bwd] (V)
5.00000E-3	201.998E-12	592.560E-3	-51.9978E-3	201.997E-12	584.513E-3	6.44321E-3
4.99500E-3	201.662E-12	609.524E-3	-75.5844E-3	201.144E-12	577.664E-3	-11.8343E-3
4.98999E-3	201.160E-12	603.688E-3	-85.1072E-3	200.248E-12	572.389E-3	-7.91575E-3
4.98499E-3	201.543E-12	579.850E-3	-56.4796E-3	199.968E-12	590.658E-3	7.19291E-3
4.97999E-3	200.546E-12	568.910E-3	-13.2240E-3	199.726E-12	588.663E-3	5.48734E-3
4.97499E-3	200.620E-12	575.096E-3	213.745E-6	198.843E-12	566.933E-3	-5.06361E-3
4.96998E-3	200.174E-12	591.915E-3	-4.01385E-3	199.087E-12	563.867E-3	-7.87101E-3
4.96498E-3	198.809E-12	580.550E-3	-18.9751E-3	198.885E-12	555.933E-3	967.834E-6
4.95998E-3	197.919E-12	565.943E-3	-40.3590E-3	198.771E-12	564.754E-3	-5.39727E-3
4.95498E-3	198.198E-12	586.185E-3	-12.7758E-3	200.141E-12	560.095E-3	-22.0041E-3
4.94997E-3	197.382E-12	594.205E-3	50.7326E-3	197.833E-12	535.644E-3	-21.1951E-3
4.94497E-3	196.313E-12	567.753E-3	38.6663E-3	198.652E-12	552.288E-3	-9.22018E-3
4.93997E-3	196.137E-12	545.678E-3	-9.16669E-3	199.149E-12	577.740E-3	17.8304E-3
4.93497E-3	197.559E-12	534.250E-3	-2.38653E-3	199.638E-12	569.137E-3	38.1937E-3
4.92996E-3	197.807E-12	526.910E-3	12.3612E-3	198.706E-12	560.632E-3	6.10371E-3
4.92496E-3	198.851E-12	542.136E-3	3.67301E-3	199.581E-12	560.057E-3	-31.3041E-3
4.91996E-3	199.889E-12	558.763E-3	7.38811E-3	200.491E-12	557.983E-3	-34.6354E-3
4.91496E-3	201.859E-12	555.496E-3	9.32710E-3	200.444E-12	584.327E-3	-38.1565E-3
4.90995E-3	201.208E-12	542.977E-3	-7.57287E-3	200.587E-12	615.298E-3	-32.0688E-3
4.90495E-3	201.806E-12	535.516E-3	13.0403E-3	199.684E-12	619.994E-3	-17.6894E-3
4.89995E-3	201.955E-12	545.105E-3	73.8530E-3	199.918E-12	612.657E-3	-35.8112E-3
4.89495E-3	201.551E-12	580.400E-3	78.4074E-3	199.097E-12	625.276E-3	-81.1832E-3
4.88995E-3	201.078E-12	609.677E-3	25.6228E-3	197.385E-12	636.557E-3	-105.959E-3
4.88494E-3	199.629E-12	605.260E-3	6.85793E-3	197.126E-12	588.778E-3	-95.9544E-3
4.87994E-3	197.260E-12	592.265E-3	-2.16137E-3	196.170E-12	554.489E-3	-81.5481E-3
4.87494E-3	195.911E-12	596.305E-3	-27.9333E-3	194.607E-12	590.011E-3	-78.1695E-3
4.86993E-3	195.574E-12	613.598E-3	-30.4153E-3	194.253E-12	612.523E-3	-57.7209E-3
4.86493E-3	193.158E-12	631.787E-3	-15.1451E-3	194.332E-12	596.867E-3	-22.9706E-3
4.85993E-3	192.995E-12	628.969E-3	-24.6105E-3	192.415E-12	569.722E-3	-18.9416E-3
4.85493E-3	192.675E-12	594.451E-3	-49.0036E-3	192.202E-12	550.157E-3	-26.9208E-3
4.84992E-3	192.455E-12	582.185E-3	-19.2290E-3	193.176E-12	568.407E-3	-19.6604E-3
4.84492E-3	192.852E-12	589.336E-3	22.8439E-3	193.050E-12	600.574E-3	-7.23157E-3
4.83992E-3	193.601E-12	572.419E-3	184.440E-6	193.322E-12	602.949E-3	-1.82776E-3
4.83492E-3	194.084E-12	559.510E-3	-39.2453E-3	194.862E-12	591.561E-3	-9.56101E-3
4.82991E-3	195.400E-12	560.242E-3	-43.2264E-3	194.765E-12	611.623E-3	-33.4345E-3
4.82491E-3	196.938E-12	570.770E-3	-17.5031E-3	196.060E-12	631.529E-3	-31.8486E-3
4.81991E-3	199.259E-12	596.662E-3	10.7754E-3	197.554E-12	612.571E-3	-18.5932E-3
4.81491E-3	199.396E-12	595.259E-3	13.0574E-3	197.374E-12	589.711E-3	-27.8263E-3
4.80990E-3	199.338E-12	569.236E-3	25.4556E-3	197.796E-12	578.201E-3	-14.4245E-3
4.80490E-3	198.736E-12	548.143E-3	39.3171E-3	197.786E-12	563.732E-3	12.9940E-3
4.79990E-3	198.811E-12	551.664E-3	19.2045E-3	197.432E-12	570.156E-3	-8.39123E-3
4.79490E-3	197.356E-12	593.835E-3	-5.83390E-3	197.263E-12	600.556E-3	-52.7863E-3
4.78989E-3	195.404E-12	646.309E-3	-21.3016E-3	195.660E-12	601.160E-3	-40.8025E-3
4.78489E-3	193.365E-12	681.486E-3	-32.9855E-3	194.854E-12	584.861E-3	-10.3106E-3
4.77989E-3	192.192E-12	654.225E-3	-46.8093E-3	192.985E-12	583.105E-3	-21.9086E-3
4.77489E-3	190.112E-12	616.584E-3	-39.1618E-3	192.468E-12	567.346E-3	-23.1852E-3
4.76988E-3	188.198E-12	618.126E-3	-11.0281E-3	191.284E-12	570.458E-3	-10.1161E-3
4.76488E-3	188.082E-12	602.485E-3	4.84979E-3	189.049E-12	612.908E-3	-27.4540E-3
4.75988E-3	187.412E-12	562.472E-3	-23.3043E-3	188.614E-12	609.351E-3	-23.2280E-3
4.75488E-3	187.471E-12	531.725E-3	-56.3921E-3	188.516E-12	576.818E-3	-2.42872E-3
4.74988E-3	187.731E-12	546.383E-3	-32.8976E-3	188.368E-12	576.702E-3	-24.2759E-3
4.74487E-3	189.080E-12	588.992E-3	-4.48722E-3	187.828E-12	571.107E-3	-49.4608E-3
4.73987E-3	189.444E-12	609.284E-3	-16.5944E-3	188.349E-12	560.047E-3	-45.3530E-3
4.73487E-3	189.467E-12	587.765E-3	-35.4545E-3	190.002E-12	574.417E-3	-26.1077E-3
4.72986E-3	191.058E-12	554.338E-3	-47.0562E-3	191.284E-12	594.130E-3	-11.3970E-3
4.72486E-3	191.764E-12	551.182E-3	-34.8010E-3	190.887E-12	606.307E-3	-22.3808E-3
4.71986E-3	191.073E-12	558.209E-3	3.66024E-3	190.918E-12	620.702E-3	-31.8124E-3
4.71486E-3	190.632E-12	560.252E-3	5.05811E-3	192.757E-12	615.003E-3	-19.1859E-3
4.70985E-3	191.106E-12	601.854E-3	-31.0634E-3	193.088E-12	590.410E-3	-17.7208E-3
4.70485E-3	191.127E-12	630.288E-3	-35.8287E-3	191.550E-12	576.175E-3	-40.0218E-3
4.69985E-3	189.354E-12	596.150E-3	-24.5978E-3	191.562E-12	558.435E-3	-41.1401E-3
4.69485E-3	187.861E-12	568.000E-3	-52.4881E-3	191.469E-12	537.170E-3	-24.4216E-3
4.68984E-3	187.555E-12	573.834E-3	-79.2651E-3	190.741E-12	512.923E-3	-27.7301E-3
4.68484E-3	187.090E-12	585.132E-3	-60.7050E-3	190.506E-12	498.150E-3	-29.2323E-3
4.67984E-3	186.171E-12	580.444E-3	-19.4407E-3	189.722E-12	532.372E-3	-20.3078E-3
4.67484E-3	185.829E-12	577.728E-3	17.3678E-3	188.298E-12	566.677E-3	-17.0054E-3
4.66983E-3	186.418E-12	584.825E-3	25.2087E-3	187.668E-12	570.725E-3	-29.5598E-3
4.66483E-3	185.585E-12	586.404E-3	9.40021E-3	187.615E-12	595.685E-3	-27.9405E-3
4.65983E-3	187.106E-12	561.696E-3	9.94287E-3	186.678E-12	614.248E-3	-8.44197E-3
4.65483E-3	187.375E-12	508.755E-3	27.8460E-3	186.628E-12	589.414E-3	-9.26578E-3
4.64982E-3	187.842E-12	499.184E-3	20.9820E-3	186.545E-12	587.955E-3	-19.9009E-3
4.64482E-3	187.893E-12	547.327E-3	-17.2226E-3	186.495E-12	621.808E-3	-45.0928E-3
4.63982E-3	189.586E-12	562.706E-3	-48.2274E-3	187.157E-12	613.820E-3	-52.5013E-3
4.63482E-3	189.643E-12	543.611E-3	-38.2920E-3	187.995E-12	576.852E-3	-26.5894E-3
4.62981E-3	188.842E-12	559.419E-3	-13.4836E-3	188.197E-12	557.389E-3	-23.0740E-3
4.62481E-3	189.404E-12	575.307E-3	4.63500E-3	187.411E-12	574.318E-3	-43.1879E-3
4.61981E-3	188.374E-12	577.450E-3	20.2509E-3	188.432E-12	608.148E-3	-54.0219E-3
4.61481E-3	189.817E-12	597.433E-3	23.9377E-3	187.587E-12	602.727E-3	-37.2726E-3
4.60980E-3	188.805E-12	607.225E-3	8.40568E-3	188.229E-12	582.369E-3	-11.3550E-3
4.60480E-3	188.584E-12	601.140E-3	-11.3711E-3	188.377E-12	578.991E-3	-7.58244E-3
4.59980E-3	188.248E-12	601.528E-3	-22.0306E-3	186.674E-12	583.580E-3	-32.1129E-3
4.59480E-3	189.101E-12	605.206E-3	-32.5658E-3	186.410E-12	601.577E-3	-31.4444E-3
4.58979E-3	186.912E-12	617.907E-3	-53.8978E-3	187.192E-12	603.438E-3	-3.69460E-3
4.58479E-3	186.348E-12	641.419E-3	-91.9430E-3	186.069E-12	594.620E-3	455.671E-6
4.57979E-3	188.064E-12	627.320E-3	-90.1055E-3	185.798E-12	583.574E-3	-5.74032E-3
4.57479E-3	186.745E-12	599.962E-3	-14.6243E-3	184.958E-12	549.809E-3	-5.68210E-3
4.56978E-3	187.209E-12	607.068E-3	64.3624E-3	184.555E-12	545.008E-3	3.18617E-3
4.56478E-3	187.076E-12	616.414E-3	85.1230E-3	184.009E-12	569.559E-3	-9.06066E-3
4.55978E-3	185.786E-12	613.878E-3	53.1496E-3	183.673E-12	575.286E-3	-38.3870E-3
4.55478E-3	185.290E-12	601.826E-3	18.1948E-3	183.004E-12	556.900E-3	-42.7719E-3
4.54977E-3	185.134E-12	605.584E-3	12.5099E-3	181.998E-12	540.399E-3	-40.1330E-3
4.54477E-3	184.464E-12	608.591E-3	8.33001E-3	182.700E-12	551.116E-3	-34.3223E-3
4.53977E-3	183.039E-12	592.260E-3	12.3965E-3	181.496E-12	564.023E-3	-12.0635E-3
4.53477E-3	182.692E-12	592.606E-3	10.2672E-3	181.455E-12	558.412E-3	-11.7472E-3
4.52976E-3	182.143E-12	591.042E-3	-11.5921E-3	181.302E-12	566.959E-3	-24.8001E-3
4.52476E-3	182.314E-12	568.371E-3	-16.8798E-3	181.797E-12	570.080E-3	-20.1602E-3
4.51976E-3	181.063E-12	533.406E-3	-693.830E-6	181.368E-12	564.606E-3	-31.8685E-3
4.51476E-3	180.208E-12	524.248E-3	20.5028E-3	181.747E-12	602.175E-3	-44.2966E-3
4.50975E-3	179.883E-12	556.435E-3	361.911E-6	181.936E-12	642.466E-3	-29.6958E-3
4.50475E-3	180.894E-12	585.765E-3	-35.5303E-3	181.769E-12	630.319E-3	-35.8144E-3
4.49975E-3	180.494E-12	597.763E-3	-24.5719E-3	183.281E-12	600.687E-3	-48.4402E-3
4.49475E-3	180.725E-12	592.469E-3	-2.55674E-3	182.308E-12	607.562E-3	-11.4499E-3
4.48974E-3	181.459E-12	578.292E-3	-3.74718E-3	182.613E-12	643.927E-3	23.4635E-3
4.48474E-3	182.022E-12	566.466E-3	-20.5263E-3	183.514E-12	665.858E-3	3.03113E-3
4.47974E-3	181.677E-12	560.223E-3	-27.6761E-3	183.915E-12	658.206E-3	-28.0297E-3
4.47474E-3	181.488E-12	577.400E-3	-24.6100E-3	183.728E-12	648.702E-3	-54.1702E-3
4.46973E-3	181.926E-12	599.096E-3	-26.9572E-3	182.683E-12	639.361E-3	-58.5267E-3
4.46473E-3	181.644E-12	590.499E-3	-39.1857E-3	181.626E-12	621.973E-3	-33.1711E-3
4.45973E-3	181.109E-12	597.087E-3	-55.0449E-3	181.390E-12	600.939E-3	-29.5174E-3
4.45473E-3	180.512E-12	626.340E-3	-61.2305E-3	181.354E-12	578.299E-3	-13.8639E-3
4.44972E-3	180.390E-12	617.797E-3	-59.4152E-3	179.403E-12	576.885E-3	22.9416E-3
4.44472E-3	178.377E-12	607.530E-3	-43.2607E-3	180.148E-12	583.861E-3	-1.28010E-3
4.43972E-3	177.646E-12	616.215E-3	-15.4451E-3	179.325E-12	587.355E-3	-49.3082E-3
4.43472E-3	177.273E-12	592.719E-3	2.54977E-3	179.597E-12	612.426E-3	-35.7107E-3
4.42971E-3	176.368E-12	555.133E-3	2.34883E-3	178.689E-12	630.235E-3	-10.9195E-3
4.42471E-3	174.975E-12	548.334E-3	2.02872E-3	178.478E-12	602.373E-3	-19.3184E-3
4.41971E-3	175.235E-12	548.405E-3	6.49256E-3	177.697E-12	574.111E-3	-27.0003E-3
4.41471E-3	176.615E-12	551.223E-3	-2.74898E-3	178.402E-12	576.392E-3	-15.0532E-3
4.40970E-3	176.345E-12	569.168E-3	-21.7730E-3	178.365E-12	593.926E-3	6.65222E-3
4.40470E-3	176.447E-12	578.508E-3	-40.8448E-3	178.318E-12	611.386E-3	27.3255E-3
4.39970E-3	177.120E-12	583.292E-3	-55.5667E-3	179.232E-12	604.474E-3	17.9319E-3
4.39470E-3	177.758E-12	588.414E-3	-63.3805E-3	178.475E-12	603.458E-3	-28.3847E-3
4.38969E-3	177.956E-12	576.615E-3	-74.5581E-3	178.335E-12	621.208E-3	-51.8820E-3
4.38469E-3	177.497E-12	564.484E-3	-69.0042E-3	179.229E-12	612.457E-3	-28.6630E-3
4.37969E-3	177.574E-12	570.100E-3	-40.3406E-3	178.704E-12	582.133E-3	-1.73019E-3
4.37469E-3	177.775E-12	566.535E-3	-25.5567E-3	178.584E-12	571.565E-3	11.9348E-3
4.36968E-3	177.663E-12	554.249E-3	-26.0865E-3	178.479E-12	591.403E-3	18.3458E-3
4.36468E-3	176.605E-12	563.643E-3	-30.5084E-3	178.248E-12	617.525E-3	4.21133E-3
4.35968E-3	175.675E-12	603.592E-3	-30.3758E-3	177.351E-12	606.612E-3	-17.3905E-3
4.35468E-3	175.721E-12	622.704E-3	-21.9310E-3	176.981E-12	559.572E-3	-19.2804E-3
4.34967E-3	174.974E-12	602.435E-3	-13.8614E-3	176.402E-12	535.215E-3	-5.21487E-3
4.34467E-3	174.252E-12	572.283E-3	-9.78999E-3	175.888E-12	561.312E-3	8.01709E-3
4.33967E-3	174.099E-12	552.184E-3	-20.9685E-3	175.817E-12	590.355E-3	12.4699E-3
4.33467E-3	173.530E-12	574.758E-3	-29.2683E-3	174.193E-12	585.082E-3	29.6436E-3
4.32966E-3	173.018E-12	590.418E-3	-21.0389E-3	173.941E-12	573.057E-3	46.8224E-3
4.32466E-3	173.657E-12	544.796E-3	-12.6968E-3	173.239E-12	579.344E-3	43.3584E-3
4.31966E-3	173.605E-12	512.878E-3	-19.5241E-3	174.027E-12	585.396E-3	7.59168E-3
4.31466E-3	172.348E-12	539.307E-3	-30.4361E-3	173.813E-12	580.637E-3	-35.0905E-3
4.30965E-3	173.696E-12	566.634E-3	-35.3929E-3	173.746E-12	583.492E-3	-28.7537E-3
4.30465E-3	174.262E-12	592.917E-3	-43.7645E-3	173.597E-12	589.176E-3	-9.91398E-3
4.29965E-3	174.524E-12	598.844E-3	-52.9494E-3	173.284E-12	592.708E-3	-2.20655E-3
4.29465E-3	174.288E-12	565.065E-3	-31.9268E-3	174.111E-12	583.978E-3	-6.89964E-3
4.28964E-3	174.129E-12	568.946E-3	8.34030E-3	173.851E-12	570.582E-3	-20.6137E-3
4.28464E-3	173.705E-12	589.860E-3	14.7019E-3	173.127E-12	582.374E-3	-14.2087E-3
4.27964E-3	173.422E-12	565.116E-3	-20.4890E-3	173.231E-12	598.460E-3	2.72986E-3
4.27464E-3	173.377E-12	550.533E-3	-31.1920E-3	173.137E-12	600.658E-3	19.9137E-3
4.26963E-3	173.013E-12	568.194E-3	25.1627E-3	173.178E-12	597.999E-3	31.9111E-3
4.26463E-3	171.839E-12	581.227E-3	56.0517E-3	172.380E-12	584.944E-3	16.7352E-3
4.25963E-3	170.941E-12	601.068E-3	13.4693E-3	172.201E-12	581.662E-3	-11.8722E-3
4.25463E-3	171.546E-12	633.115E-3	-38.8159E-3	172.205E-12	592.211E-3	-20.1654E-3
4.24962E-3	171.546E-12	623.792E-3	-78.9962E-3	172.548E-12	601.041E-3	-3.99492E-3
4.24462E-3	170.622E-12	564.471E-3	-85.4827E-3	171.631E-12	590.363E-3	6.62762E-3
4.23962E-3	171.719E-12	539.624E-3	-59.1200E-3	170.897E-12	560.905E-3	-25.5453E-3
4.23462E-3	171.905E-12	556.343E-3	-49.4239E-3	169.840E-12	564.590E-3	-51.7685E-3
4.22961E-3	171.447E-12	583.132E-3	-47.9593E-3	170.900E-12	590.114E-3	-33.4116E-3
4.22461E-3	171.263E-12	593.877E-3	-30.0925E-3	170.141E-12	582.448E-3	-14.9160E-3
4.21961E-3	171.533E-12	566.720E-3	-14.3304E-3	169.244E-12	549.749E-3	-19.7401E-3
4.21461E-3	171.922E-12	556.612E-3	-2.56566E-3	169.618E-12	540.944E-3	-41.0787E-3
4.20960E-3	172.140E-12	587.714E-3	11.2484E-3	169.826E-12	574.477E-3	-51.4629E-3
4.20460E-3	171.962E-12	622.684E-3	-5.15267E-3	170.513E-12	592.751E-3	-30.9981E-3
4.19960E-3	173.135E-12	616.423E-3	-24.2008E-3	168.850E-12	577.159E-3	-3.59232E-3
4.19460E-3	172.987E-12	574.160E-3	4.27398E-3	169.118E-12	567.984E-3	-9.29333E-3
4.18959E-3	172.814E-12	562.835E-3	45.1204E-3	170.326E-12	570.452E-3	-25.1776E-3
4.18459E-3	171.651E-12	610.757E-3	51.1424E-3	170.449E-12	568.228E-3	-21.0346E-3
4.17959E-3	170.924E-12	643.997E-3	15.4282E-3	170.063E-12	571.507E-3	-6.80336E-3
4.17459E-3	170.278E-12	619.985E-3	-20.9577E-3	169.258E-12	579.779E-3	23.2666E-3
4.16958E-3	168.741E-12	582.690E-3	-23.1813E-3	169.410E-12	588.584E-3	41.0557E-3
4.16458E-3	168.235E-12	576.344E-3	-2.96490E-3	169.138E-12	610.310E-3	9.72605E-3
4.15958E-3	168.336E-12	590.504E-3	-1.01628E-3	168.484E-12	617.836E-3	-23.8646E-3
4.15458E-3	166.932E-12	594.714E-3	-23.9540E-3	167.269E-12	624.846E-3	-18.4481E-3
4.14957E-3	166.372E-12	599.022E-3	-46.3409E-3	167.401E-12	637.172E-3	-19.4149E-3
4.14457E-3	166.516E-12	583.915E-3	-50.6182E-3	167.019E-12	614.437E-3	-44.3037E-3
4.13957E-3	166.766E-12	555.303E-3	-47.0535E-3	167.466E-12	599.799E-3	-49.9781E-3
4.13457E-3	165.406E-12	560.850E-3	-45.3082E-3	166.234E-12	614.106E-3	-25.8637E-3
4.12956E-3	164.585E-12	587.918E-3	-26.4848E-3	165.900E-12	600.929E-3	-11.0925E-3
4.12456E-3	165.476E-12	579.318E-3	-23.4999E-3	165.380E-12	573.377E-3	-21.1122E-3
4.11956E-3	165.679E-12	552.335E-3	-35.2344E-3	165.953E-12	567.165E-3	-27.6856E-3
4.11456E-3	165.234E-12	549.155E-3	-9.27684E-3	166.554E-12	569.788E-3	-30.6656E-3
4.10955E-3	164.575E-12	561.245E-3	4.62681E-3	166.158E-12	571.495E-3	-25.3285E-3
4.10455E-3	165.246E-12	585.904E-3	-10.0464E-3	165.697E-12	591.025E-3	15.0571E-3
4.09955E-3	165.284E-12	618.504E-3	-1.98291E-3	166.568E-12	607.876E-3	42.9632E-3
4.09455E-3	164.543E-12	629.480E-3	-9.82174E-3	167.138E-12	597.009E-3	12.0946E-3
4.08954E-3	164.281E-12	605.818E-3	-28.2187E-3	165.892E-12	588.093E-3	-21.1353E-3
4.08454E-3	164.691E-12	585.866E-3	-11.3925E-3	166.200E-12	596.030E-3	-18.0058E-3
4.07954E-3	163.600E-12	590.157E-3	-6.53556E-3	165.765E-12	598.284E-3	-10.5755E-3
4.07454E-3	163.703E-12	592.282E-3	-16.4811E-3	166.247E-12	601.702E-3	-15.3191E-3
4.06953E-3	163.871E-12	580.377E-3	-4.10462E-3	166.608E-12	601.336E-3	-19.5569E-3
4.06453E-3	163.926E-12	570.147E-3	32.1818E-3	166.561E-12	584.463E-3	-16.9229E-3
4.05953E-3	162.901E-12	568.238E-3	48.7558E-3	165.890E-12	589.563E-3	-17.4054E-3
4.05453E-3	164.346E-12	578.624E-3	18.4470E-3	164.915E-12	609.905E-3	-2.88577E-3
4.04952E-3	164.255E-12	583.084E-3	-22.3065E-3	164.877E-12	612.667E-3	26.1461E-3
4.04452E-3	163.336E-12	584.964E-3	-32.5710E-3	164.416E-12	597.707E-3	23.2441E-3
4.03952E-3	163.303E-12	612.901E-3	-10.1662E-3	163.893E-12	574.796E-3	-17.0706E-3
4.03452E-3	163.433E-12	639.650E-3	5.30217E-3	162.583E-12	567.385E-3	-46.3928E-3
4.02951E-3	162.520E-12	637.038E-3	-13.9998E-3	162.239E-12	567.195E-3	-33.8526E-3
4.02451E-3	162.936E-12	616.000E-3	-46.4830E-3	161.239E-12	581.134E-3	-29.1220E-3
4.01951E-3	162.113E-12	587.336E-3	-56.0497E-3	161.959E-12	621.887E-3	-54.2445E-3
4.01451E-3	162.550E-12	563.359E-3	-40.4021E-3	160.738E-12	632.850E-3	-51.4928E-3
4.00950E-3	162.816E-12	566.830E-3	-7.44573E-3	161.855E-12	598.375E-3	-19.4362E-3
4.00450E-3	163.273E-12	588.841E-3	5.57480E-3	162.165E-12	569.867E-3	4.81955E-3
3.99950E-3	161.996E-12	598.825E-3	-18.6983E-3	162.794E-12	570.008E-3	18.7640E-3
3.99450E-3	163.652E-12	571.506E-3	-22.8914E-3	162.318E-12	563.876E-3	20.6960E-3
3.98949E-3	161.893E-12	538.502E-3	6.24783E-3	162.007E-12	539.862E-3	-2.56423E-3
3.98449E-3	162.299E-12	546.425E-3	17.9980E-3	161.996E-12	544.820E-3	-20.4761E-3
3.97949E-3	163.450E-12	565.056E-3	12.6476E-3	161.941E-12	572.800E-3	-19.9272E-3
3.97449E-3	163.660E-12	587.860E-3	-15.0432E-3	162.010E-12	561.478E-3	-24.0102E-3
3.96948E-3	162.274E-12	613.254E-3	-51.9291E-3	161.871E-12	551.421E-3	-21.4972E-3
3.96448E-3	162.649E-12	623.621E-3	-60.9631E-3	162.131E-12	580.038E-3	-5.41257E-3
3.95948E-3	163.643E-12	632.569E-3	-41.1145E-3	161.070E-12	606.107E-3	-3.03471E-6
3.95448E-3	162.356E-12	624.400E-3	-17.1974E-3	160.955E-12	613.626E-3	-6.51869E-3
3.94947E-3	161.159E-12	616.799E-3	-33.8493E-3	160.858E-12	591.995E-3	-966.866E-6
3.94447E-3	161.254E-12	621.984E-3	-64.8791E-3	160.511E-12	572.700E-3	14.2587E-3
3.93947E-3	161.092E-12	598.212E-3	-61.9661E-3	159.649E-12	579.440E-3	17.2090E-3
3.93447E-3	160.333E-12	576.512E-3	-32.3082E-3	159.528E-12	591.605E-3	-9.82158E-3
3.92946E-3	159.234E-12	587.381E-3	12.6973E-3	160.492E-12	598.032E-3	-37.4765E-3
3.92446E-3	157.832E-12	605.556E-3	50.2927E-3	158.589E-12	592.810E-3	-31.2198E-3
3.91946E-3	157.835E-12	613.216E-3	33.1468E-3	157.931E-12	583.443E-3	-24.6674E-3
3.91446E-3	157.422E-12	594.930E-3	-11.7253E-3	159.023E-12	567.074E-3	-27.8195E-3
3.90945E-3	156.823E-12	573.472E-3	-27.1944E-3	158.426E-12	541.275E-3	-22.3489E-3
3.90445E-3	156.880E-12	584.577E-3	-13.6967E-3	158.877E-12	527.254E-3	-27.9487E-3
3.89945E-3	156.229E-12	607.715E-3	6.22349E-3	158.970E-12	540.590E-3	-44.9899E-3
3.89445E-3	156.207E-12	616.771E-3	5.31699E-3	158.435E-12	562.039E-3	-42.6767E-3
3.88944E-3	157.533E-12	610.022E-3	-6.28649E-3	158.190E-12	583.472E-3	-14.1207E-3
3.88444E-3	157.171E-12	599.509E-3	-9.61880E-3	158.807E-12	609.179E-3	971.357E-6
3.87944E-3	156.900E-12	587.083E-3	5.29513E-3	158.129E-12	606.846E-3	6.54004E-3
3.87444E-3	157.838E-12	583.797E-3	18.7209E-3	157.495E-12	576.501E-3	32.8659E-3
3.86943E-3	159.222E-12	609.344E-3	-2.53671E-3	157.162E-12	564.574E-3	37.4434E-3
3.86443E-3	158.634E-12	620.599E-3	-24.4256E-3	157.720E-12	580.608E-3	9.64158E-3
3.85943E-3	158.328E-12	604.529E-3	-10.9668E-3	157.879E-12	605.149E-3	144.130E-6
3.85443E-3	158.035E-12	598.619E-3	19.0103E-3	158.128E-12	607.689E-3	7.81586E-3
3.84942E-3	157.555E-12	594.962E-3	35.7339E-3	157.284E-12	597.535E-3	5.68891E-3
3.84442E-3	157.190E-12	585.238E-3	2.80218E-3	156.859E-12	606.608E-3	-847.919E-6
3.83942E-3	156.190E-12	590.929E-3	-21.3385E-3	156.449E-12	613.925E-3	-9.42059E-3
3.83442E-3	155.275E-12	617.564E-3	14.9768E-3	156.193E-12	615.182E-3	-16.7787E-3
3.82941E-3	155.168E-12	637.041E-3	20.2715E-3	154.661E-12	621.476E-3	2.85445E-3
3.82441E-3	154.104E-12	632.694E-3	-13.7079E-3	154.700E-12	629.698E-3	22.6669E-3
3.81941E-3	153.231E-12	610.266E-3	-29.8413E-3	155.105E-12	629.423E-3	11.0469E-3
3.81441E-3	152.967E-12	587.558E-3	-43.6113E-3	154.030E-12	606.865E-3	-12.7932E-3
3.80940E-3	152.853E-12	580.432E-3	-55.7844E-3	154.064E-12	584.325E-3	-34.8230E-3
3.80440E-3	152.707E-12	583.446E-3	-32.9303E-3	154.986E-12	583.068E-3	-42.4975E-3
3.79940E-3	152.814E-12	582.474E-3	-12.0117E-3	154.517E-12	589.931E-3	-51.8302E-3
3.79440E-3	153.858E-12	581.734E-3	-22.3968E-3	154.606E-12	593.426E-3	-46.1200E-3
3.78939E-3	153.306E-12	609.247E-3	-21.2582E-3	154.707E-12	600.813E-3	-29.5777E-3
3.78439E-3	153.081E-12	626.459E-3	-7.46204E-3	154.124E-12	608.083E-3	-31.2015E-3
3.77939E-3	153.809E-12	618.263E-3	5.78743E-3	153.713E-12	604.346E-3	-42.8257E-3
3.77439E-3	154.980E-12	616.827E-3	-2.03499E-3	154.886E-12	603.790E-3	-63.0945E-3
3.76938E-3	153.755E-12	611.910E-3	-31.6146E-3	153.325E-12	604.717E-3	-35.6252E-3
3.76438E-3	154.712E-12	602.026E-3	-50.0923E-3	153.157E-12	593.310E-3	16.5727E-3
3.75938E-3	155.591E-12	592.114E-3	-35.1759E-3	153.551E-12	580.399E-3	14.4804E-3
3.75438E-3	154.433E-12	594.785E-3	-1.05478E-3	152.762E-12	584.877E-3	1.98639E-3
3.74937E-3	154.709E-12	596.262E-3	-2.51353E-3	152.822E-12	623.734E-3	-9.53891E-3
3.74437E-3	153.363E-12	600.982E-3	-23.0832E-3	151.849E-12	637.745E-3	-37.4881E-3
3.73937E-3	152.930E-12	614.453E-3	-17.2313E-3	151.704E-12	594.509E-3	-34.2627E-3
3.73437E-3	152.588E-12	609.929E-3	-17.8613E-3	151.224E-12	566.644E-3	-7.81588E-3
3.72936E-3	151.980E-12	607.422E-3	-21.2969E-3	151.566E-12	564.401E-3	-4.30504E-3
3.72436E-3	150.530E-12	637.518E-3	-2.57220E-3	151.338E-12	555.980E-3	-12.2094E-3
3.71936E-3	150.114E-12	644.423E-3	-11.9687E-3	150.974E-12	564.225E-3	-16.9483E-3
3.71436E-3	149.176E-12	599.910E-3	-38.0254E-3	150.965E-12	594.468E-3	-21.0766E-3
3.70935E-3	149.208E-12	553.458E-3	-43.1651E-3	150.548E-12	603.480E-3	-13.3420E-3
3.70435E-3	149.731E-12	528.917E-3	-47.4101E-3	150.619E-12	606.063E-3	-23.0713E-6
3.69935E-3	149.059E-12	549.881E-3	-41.6251E-3	149.769E-12	615.076E-3	-6.12457E-3
3.69435E-3	148.252E-12	584.963E-3	-12.2069E-3	149.707E-12	600.526E-3	-15.2653E-3
3.68934E-3	148.872E-12	575.629E-3	4.78923E-3	149.478E-12	596.096E-3	-12.9927E-3
3.68434E-3	148.892E-12	566.284E-3	-5.88162E-3	149.987E-12	597.185E-3	-23.0659E-3
3.67934E-3	148.491E-12	582.336E-3	-21.5679E-3	149.006E-12	578.677E-3	-38.1409E-3
3.67434E-3	148.999E-12	572.667E-3	-11.0130E-3	148.451E-12	581.964E-3	-48.8494E-3
3.66933E-3	149.269E-12	558.537E-3	5.79239E-3	148.584E-12	604.445E-3	-49.6979E-3
3.66433E-3	149.591E-12	574.198E-3	-3.32446E-3	149.778E-12	606.596E-3	-42.5814E-3
3.65933E-3	149.380E-12	579.661E-3	-15.1383E-3	148.534E-12	588.201E-3	-48.4094E-3
3.65433E-3	149.918E-12	562.669E-3	-22.8831E-3	149.917E-12	573.858E-3	-46.0353E-3
3.64932E-3	149.220E-12	554.439E-3	-19.3867E-3	149.241E-12	586.337E-3	-18.0619E-3
3.64432E-3	148.673E-12	558.385E-3	-23.1543E-3	149.459E-12	600.054E-3	-10.5904E-3
3.63932E-3	149.540E-12	591.703E-3	-38.9530E-3	150.358E-12	591.002E-3	-26.4215E-3
3.63432E-3	149.724E-12	641.420E-3	-27.6899E-3	150.413E-12	581.692E-3	-23.3846E-3
3.62931E-3	149.039E-12	638.637E-3	-11.3649E-3	148.683E-12	589.356E-3	-13.3011E-3
3.62431E-3	148.032E-12	619.745E-3	-3.43060E-3	149.016E-12	613.812E-3	-26.2943E-3
3.61931E-3	147.563E-12	618.917E-3	3.63048E-3	149.934E-12	645.746E-3	-50.9880E-3
3.61431E-3	147.724E-12	607.023E-3	-16.8894E-3	148.205E-12	644.878E-3	-53.9601E-3
3.60930E-3	146.885E-12	596.109E-3	-39.3928E-3	147.762E-12	605.786E-3	-32.1477E-3
3.60430E-3	145.991E-12	582.781E-3	-22.1872E-3	147.181E-12	587.991E-3	-25.3339E-3
3.59930E-3	145.495E-12	573.235E-3	7.95592E-3	147.079E-12	582.904E-3	-37.6468E-3
3.59430E-3	146.221E-12	598.584E-3	9.77409E-3	145.375E-12	552.382E-3	-37.9186E-3
3.58929E-3	146.103E-12	617.108E-3	-21.4304E-3	146.193E-12	545.592E-3	-21.1825E-3
3.58429E-3	145.633E-12	604.929E-3	-42.3367E-3	144.528E-12	588.940E-3	-9.29410E-3
3.57929E-3	145.124E-12	595.671E-3	-35.6500E-3	144.055E-12	595.370E-3	-8.16125E-3
3.57429E-3	145.985E-12	571.240E-3	-32.8168E-3	144.497E-12	555.936E-3	-13.8527E-3
3.56928E-3	145.275E-12	560.484E-3	-60.4134E-3	145.855E-12	562.274E-3	-17.1865E-3
3.56428E-3	145.898E-12	586.437E-3	-79.8462E-3	145.176E-12	604.469E-3	-6.73102E-3
3.55928E-3	146.510E-12	592.271E-3	-57.8821E-3	145.326E-12	616.161E-3	-13.9632E-3
3.55428E-3	146.181E-12	587.200E-3	-37.6378E-3	146.420E-12	592.686E-3	-27.6963E-3
3.54927E-3	146.517E-12	590.124E-3	-17.9032E-3	146.615E-12	560.803E-3	-17.8123E-3
3.54427E-3	146.545E-12	585.240E-3	8.70018E-3	146.894E-12	551.136E-3	-13.4997E-3
3.53927E-3	145.934E-12	580.705E-3	-1.59124E-3	146.683E-12	576.327E-3	-24.3185E-3
3.53427E-3	145.825E-12	582.245E-3	-13.9333E-3	145.847E-12	609.731E-3	-24.2096E-3
3.52926E-3	145.469E-12	584.124E-3	16.6580E-3	145.450E-12	634.049E-3	-8.00071E-3
3.52426E-3	145.792E-12	584.732E-3	22.9536E-3	144.874E-12	632.855E-3	-14.2527E-3
3.51926E-3	144.705E-12	606.665E-3	-15.8108E-3	142.770E-12	608.332E-3	-34.7726E-3
3.51426E-3	144.452E-12	632.847E-3	-39.1135E-3	142.093E-12	601.188E-3	-28.4911E-3
3.50925E-3	143.573E-12	634.935E-3	-31.5325E-3	141.740E-12	603.223E-3	-15.6559E-3
3.50425E-3	143.321E-12	626.517E-3	-19.9105E-3	141.306E-12	579.527E-3	-22.8090E-3
3.49925E-3	142.066E-12	609.093E-3	-8.72050E-3	140.775E-12	545.077E-3	-38.9930E-3
3.49425E-3	141.486E-12	593.633E-3	-18.7285E-3	140.822E-12	543.841E-3	-31.4178E-3
3.48924E-3	140.652E-12	582.991E-3	-50.4921E-3	139.787E-12	565.796E-3	-12.3544E-3
3.48424E-3	141.200E-12	590.401E-3	-55.1486E-3	139.673E-12	580.715E-3	-9.10942E-3
3.47924E-3	140.707E-12	612.540E-3	-46.4552E-3	140.607E-12	589.148E-3	-2.34691E-3
3.47424E-3	140.619E-12	602.060E-3	-46.4194E-3	140.067E-12	606.102E-3	13.2852E-3
3.46923E-3	141.162E-12	585.268E-3	-34.7894E-3	140.342E-12	635.442E-3	13.9489E-3
3.46423E-3	140.931E-12	592.102E-3	-12.1853E-3	140.984E-12	656.632E-3	7.00900E-3
3.45923E-3	140.611E-12	581.081E-3	-14.2132E-3	141.493E-12	634.086E-3	18.6428E-3
3.45423E-3	140.660E-12	536.258E-3	-35.8930E-3	141.310E-12	590.852E-3	28.1313E-3
3.44922E-3	140.350E-12	521.518E-3	-28.1961E-3	141.999E-12	588.588E-3	15.0280E-3
3.44422E-3	140.123E-12	555.461E-3	-13.2982E-3	142.081E-12	611.121E-3	-9.41423E-3
3.43922E-3	139.391E-12	577.233E-3	-31.8674E-3	141.508E-12	617.300E-3	-25.2963E-3
3.43422E-3	139.445E-12	567.657E-3	-53.3628E-3	141.734E-12	601.354E-3	-19.1108E-3
3.42921E-3	138.911E-12	550.959E-3	-35.8783E-3	140.167E-12	569.305E-3	970.276E-6
3.42421E-3	138.510E-12	566.888E-3	5.25666E-3	140.053E-12	547.364E-3	16.5442E-3
3.41921E-3	138.460E-12	614.208E-3	32.3480E-3	138.384E-12	559.610E-3	18.2619E-3
3.41421E-3	138.747E-12	633.385E-3	19.3997E-3	138.480E-12	570.666E-3	14.1188E-3
3.40920E-3	138.221E-12	613.446E-3	-15.5401E-3	137.470E-12	580.557E-3	15.7261E-3
3.40420E-3	137.799E-12	605.404E-3	-17.3256E-3	137.670E-12	597.971E-3	9.51141E-3
3.39920E-3	137.539E-12	612.790E-3	12.8216E-3	137.349E-12	597.429E-3	-2.36179E-3
3.39420E-3	137.193E-12	616.585E-3	13.9943E-3	136.553E-12	586.902E-3	-8.74025E-3
3.38919E-3	138.031E-12	619.458E-3	-23.0337E-3	137.512E-12	590.073E-3	-24.4135E-3
3.38419E-3	136.661E-12	601.755E-3	-38.6678E-3	138.392E-12	607.868E-3	-24.0279E-3
3.37919E-3	136.449E-12	573.896E-3	-30.8531E-3	137.256E-12	614.323E-3	-126.404E-6
3.37419E-3	137.465E-12	561.877E-3	-19.9922E-3	136.832E-12	626.493E-3	9.64706E-3
3.36918E-3	137.518E-12	571.021E-3	-5.84063E-3	138.350E-12	633.947E-3	4.47309E-3
3.36418E-3	136.796E-12	594.274E-3	-17.9681E-3	137.915E-12	607.764E-3	-6.74730E-3
3.35918E-3	136.734E-12	594.943E-3	-30.9818E-3	137.838E-12	584.251E-3	-15.5786E-3
3.35418E-3	136.301E-12	578.715E-3	-19.0831E-3	137.533E-12	587.963E-3	-35.5831E-3
3.34917E-3	135.552E-12	592.197E-3	-3.24754E-3	136.780E-12	586.362E-3	-50.6491E-3
3.34417E-3	136.196E-12	626.715E-3	4.87800E-3	136.828E-12	574.302E-3	-38.3666E-3
3.33917E-3	136.411E-12	642.109E-3	-7.71052E-3	137.101E-12	588.000E-3	-27.5056E-3
3.33417E-3	135.392E-12	628.625E-3	-15.3581E-3	135.734E-12	614.317E-3	-23.7242E-3
3.32916E-3	134.728E-12	614.534E-3	-20.5676E-3	135.231E-12	622.595E-3	-24.9452E-3
3.32416E-3	135.635E-12	620.744E-3	-39.1184E-3	135.317E-12	606.524E-3	-30.4298E-3
3.31916E-3	135.969E-12	631.150E-3	-40.9606E-3	135.823E-12	582.142E-3	-24.5455E-3
3.31416E-3	135.618E-12	628.277E-3	-34.5299E-3	135.686E-12	586.798E-3	-25.7582E-3
3.30915E-3	134.809E-12	609.999E-3	-26.9523E-3	134.715E-12	607.616E-3	-34.9757E-3
3.30415E-3	135.566E-12	592.231E-3	-30.8662E-3	134.488E-12	613.228E-3	-20.3423E-3
3.29915E-3	135.838E-12	597.079E-3	-48.9426E-3	136.113E-12	620.280E-3	-12.7570E-3
3.29415E-3	135.103E-12	611.793E-3	-59.0539E-3	136.725E-12	635.994E-3	-32.3100E-3
3.28914E-3	134.172E-12	619.128E-3	-49.9450E-3	136.223E-12	645.277E-3	-35.3517E-3
3.28414E-3	133.617E-12	630.889E-3	-14.2849E-3	134.119E-12	627.557E-3	-3.96458E-3
3.27914E-3	133.958E-12	638.481E-3	5.76351E-3	134.678E-12	612.570E-3	8.11758E-3
3.27414E-3	133.582E-12	621.094E-3	-965.236E-6	135.046E-12	619.372E-3	-18.6481E-3
3.26913E-3	132.810E-12	594.791E-3	-4.07586E-3	134.628E-12	607.260E-3	-15.4023E-3
3.26413E-3	131.668E-12	587.867E-3	-590.080E-6	132.688E-12	598.775E-3	4.96503E-3
3.25913E-3	131.576E-12	599.797E-3	1.10664E-3	131.705E-12	614.176E-3	-6.83216E-3
3.25413E-3	132.300E-12	610.220E-3	-839.931E-6	132.175E-12	642.126E-3	-22.0805E-3
3.24912E-3	132.237E-12	612.586E-3	-9.52228E-3	132.319E-12	659.702E-3	-26.6666E-3
3.24412E-3	132.343E-12	608.927E-3	-19.9921E-3	130.919E-12	633.064E-3	-37.3521E-3
3.23912E-3	132.094E-12	603.644E-3	-19.0729E-3	130.284E-12	593.721E-3	-41.1424E-3
3.23412E-3	132.697E-12	620.382E-3	-7.17309E-3	131.812E-12	584.518E-3	-43.6444E-3
3.22911E-3	132.747E-12	628.539E-3	491.428E-6	131.483E-12	600.797E-3	-53.3485E-3
3.22411E-3	132.956E-12	597.430E-3	6.10793E-3	132.021E-12	616.190E-3	-42.3017E-3
3.21911E-3	131.954E-12	597.891E-3	25.8832E-3	131.168E-12	623.184E-3	-37.1844E-3
3.21411E-3	132.169E-12	630.838E-3	32.1780E-3	131.726E-12	633.259E-3	-51.4384E-3
3.20910E-3	131.931E-12	635.633E-3	-9.91873E-3	132.581E-12	638.607E-3	-45.5336E-3
3.20410E-3	131.078E-12	628.772E-3	-43.6080E-3	132.037E-12	625.633E-3	-14.7785E-3
3.19910E-3	130.347E-12	629.396E-3	-26.4835E-3	131.703E-12	603.265E-3	9.33445E-3
3.19410E-3	130.317E-12	625.381E-3	-2.04776E-3	130.863E-12	586.360E-3	-4.64823E-3
3.18909E-3	129.912E-12	622.391E-3	-1.27718E-3	131.001E-12	583.747E-3	-31.8777E-3
3.18409E-3	128.844E-12	617.230E-3	-28.8147E-3	130.505E-12	578.113E-3	-21.6022E-3
3.17909E-3	127.675E-12	593.593E-3	-52.6917E-3	130.634E-12	573.917E-3	11.3168E-3
3.17409E-3	127.478E-12	572.178E-3	-38.9428E-3	128.894E-12	582.014E-3	23.4757E-3
3.16908E-3	127.206E-12	567.994E-3	-15.6554E-3	128.915E-12	572.782E-3	25.9125E-3
3.16408E-3	127.099E-12	575.168E-3	-10.5051E-3	128.288E-12	554.949E-3	30.2020E-3
3.15908E-3	126.952E-12	595.184E-3	-4.61228E-3	126.919E-12	564.588E-3	18.0712E-3
3.15408E-3	127.423E-12	597.864E-3	4.34383E-3	127.138E-12	594.111E-3	11.6929E-3
3.14907E-3	127.473E-12	588.452E-3	-61.6621E-6	127.837E-12	617.426E-3	9.09968E-3
3.14407E-3	127.689E-12	601.832E-3	-8.29735E-3	127.604E-12	628.661E-3	-11.4416E-3
3.13907E-3	128.416E-12	624.648E-3	6.71736E-3	127.381E-12	642.670E-3	-27.8882E-3
3.13407E-3	128.482E-12	636.769E-3	29.5937E-3	128.610E-12	649.063E-3	-33.9392E-3
3.12906E-3	127.955E-12	626.614E-3	9.62326E-3	128.426E-12	616.571E-3	-31.6752E-3
3.12406E-3	128.097E-12	600.381E-3	-20.6839E-3	128.145E-12	582.505E-3	-25.7927E-3
3.11906E-3	128.617E-12	590.825E-3	-23.2901E-3	128.028E-12	587.058E-3	-20.9179E-3
3.11406E-3	127.691E-12	612.489E-3	-18.6012E-3	128.040E-12	606.273E-3	-27.4655E-3
3.10905E-3	126.472E-12	631.405E-3	-28.9060E-3	127.617E-12	632.340E-3	-41.7475E-3
3.10405E-3	125.014E-12	618.105E-3	-55.6881E-3	127.413E-12	652.086E-3	-21.7399E-3
3.09905E-3	124.814E-12	603.815E-3	-56.6203E-3	126.668E-12	630.486E-3	3.98686E-3
3.09405E-3	124.178E-12	611.319E-3	-20.4889E-3	126.441E-12	590.576E-3	-8.28690E-3
3.08904E-3	123.129E-12	600.574E-3	74.0793E-6	125.721E-12	566.781E-3	-24.3735E-3
3.08404E-3	122.593E-12	575.161E-3	-13.2707E-3	125.216E-12	569.165E-3	-23.0313E-3
3.07904E-3	122.378E-12	577.104E-3	-31.3218E-3	124.275E-12	595.602E-3	-18.2853E-3
3.07404E-3	123.209E-12	581.626E-3	-27.0197E-3	124.871E-12	607.621E-3	-21.8252E-3
3.06903E-3	123.042E-12	570.309E-3	-4.10336E-3	124.171E-12	594.906E-3	-23.6197E-3
3.06403E-3	122.932E-12	571.010E-3	3.12768E-3	123.843E-12	591.453E-3	-5.77529E-3
3.05903E-3	123.245E-12	601.065E-3	-26.1556E-3	124.048E-12	607.571E-3	8.87774E-3
3.05403E-3	124.290E-12	616.256E-3	-64.4377E-3	124.141E-12	624.854E-3	3.68404E-3
3.04902E-3	124.015E-12	591.654E-3	-61.9535E-3	124.487E-12	621.011E-3	-5.71562E-3
3.04402E-3	124.565E-12	576.684E-3	-29.4545E-3	124.207E-12	610.819E-3	-18.8048E-3
3.03902E-3	124.806E-12	591.510E-3	-14.8993E-3	125.562E-12	613.089E-3	-20.3762E-3
3.03402E-3	124.442E-12	615.322E-3	-21.3985E-3	125.559E-12	625.309E-3	-5.80893E-3
3.02901E-3	123.663E-12	628.551E-3	-24.3481E-3	125.701E-12	630.029E-3	-2.13375E-3
3.02401E-3	123.928E-12	619.001E-3	-15.7477E-3	125.465E-12	606.544E-3	5.86823E-3
3.01901E-3	122.740E-12	598.736E-3	-7.22253E-3	125.858E-12	590.257E-3	4.83438E-3
3.01401E-3	122.307E-12	594.649E-3	-9.21791E-3	125.474E-12	600.046E-3	-16.1248E-3
3.00900E-3	122.329E-12	599.111E-3	-16.7525E-3	124.265E-12	604.356E-3	-16.6609E-3
3.00400E-3	122.082E-12	602.053E-3	-20.7042E-3	123.725E-12	619.390E-3	-8.19157E-3
2.99900E-3	120.644E-12	588.714E-3	-25.1810E-3	123.436E-12	643.125E-3	-2.73469E-3
2.99400E-3	120.449E-12	567.923E-3	-30.9775E-3	122.294E-12	629.054E-3	7.25082E-3
2.98899E-3	120.605E-12	578.857E-3	-23.3767E-3	121.045E-12	606.504E-3	2.28251E-3
2.98399E-3	120.464E-12	603.158E-3	-390.529E-6	121.419E-12	616.735E-3	-10.8997E-3
2.97899E-3	120.457E-12	614.850E-3	12.3112E-3	121.298E-12	622.281E-3	-4.00898E-3
2.97399E-3	120.623E-12	622.219E-3	-75.3079E-6	120.837E-12	600.439E-3	13.2632E-3
2.96898E-3	121.397E-12	611.386E-3	-3.89947E-3	121.148E-12	584.274E-3	7.33392E-3
2.96398E-3	121.640E-12	579.382E-3	10.8763E-3	121.070E-12	584.652E-3	-19.3450E-3
2.95898E-3	121.065E-12	581.833E-3	6.67374E-3	121.353E-12	600.837E-3	-33.4420E-3
2.95398E-3	121.089E-12	621.621E-3	-19.7232E-3	121.226E-12	624.988E-3	-35.2324E-3
2.94897E-3	120.857E-12	639.640E-3	-45.3335E-3	120.677E-12	623.543E-3	-36.8080E-3
2.94397E-3	120.679E-12	641.967E-3	-58.1208E-3	121.471E-12	594.377E-3	-26.9178E-3
2.93897E-3	120.486E-12	634.572E-3	-43.2115E-3	121.537E-12	573.399E-3	-23.1075E-3
2.93397E-3	120.615E-12	621.787E-3	-25.0327E-3	121.567E-12	597.322E-3	-26.1199E-3
2.92896E-3	119.661E-12	625.518E-3	-23.6339E-3	122.239E-12	625.551E-3	-13.8466E-3
2.92396E-3	119.383E-12	628.684E-3	-18.9079E-3	121.491E-12	623.897E-3	-7.40551E-3
2.91896E-3	119.937E-12	628.659E-3	-6.67957E-3	119.852E-12	610.363E-3	-20.0903E-3
2.91396E-3	119.079E-12	630.609E-3	162.049E-6	119.682E-12	607.569E-3	-27.3577E-3
2.90895E-3	118.719E-12	634.986E-3	-12.5215E-3	119.752E-12	611.563E-3	-18.6045E-3
2.90395E-3	118.881E-12	628.078E-3	-24.4856E-3	119.197E-12	604.779E-3	1.90325E-3
2.89895E-3	119.130E-12	616.304E-3	-8.11018E-3	118.272E-12	609.631E-3	17.2958E-3
2.89395E-3	118.708E-12	623.523E-3	2.65042E-3	117.633E-12	623.625E-3	1.68824E-3
2.88894E-3	118.747E-12	637.226E-3	10.7185E-3	117.605E-12	617.151E-3	-43.5766E-3
2.88394E-3	117.664E-12	655.674E-3	26.8762E-3	117.573E-12	603.146E-3	-71.4105E-3
2.87894E-3	117.659E-12	663.345E-3	7.13551E-3	117.171E-12	612.301E-3	-56.7431E-3
2.87394E-3	117.484E-12	643.597E-3	-22.2413E-3	116.683E-12	626.875E-3	-30.6808E-3
2.86893E-3	116.809E-12	626.372E-3	-23.1261E-3	117.635E-12	620.577E-3	-24.6616E-3
2.86393E-3	116.121E-12	617.227E-3	-13.2233E-3	116.973E-12	620.453E-3	-23.9510E-3
2.85893E-3	116.120E-12	619.743E-3	-14.9417E-3	117.119E-12	631.092E-3	-20.6795E-3
2.85393E-3	115.467E-12	624.916E-3	-31.8543E-3	117.682E-12	627.249E-3	-18.6152E-3
2.84892E-3	114.768E-12	616.202E-3	-49.9408E-3	116.843E-12	604.621E-3	-6.97761E-3
2.84392E-3	114.364E-12	606.450E-3	-42.8816E-3	116.410E-12	591.663E-3	3.81989E-3
2.83892E-3	113.968E-12	595.133E-3	-9.93498E-3	116.693E-12	599.708E-3	5.50692E-3
2.83392E-3	113.342E-12	586.657E-3	4.96894E-3	116.596E-12	595.062E-3	-4.45857E-3
2.82891E-3	113.831E-12	594.353E-3	-6.92724E-3	115.869E-12	592.861E-3	-25.9409E-3
2.82391E-3	114.307E-12	615.268E-3	-18.1024E-3	115.497E-12	607.036E-3	-33.7084E-3
2.81891E-3	114.473E-12	632.407E-3	-8.77148E-3	114.882E-12	604.104E-3	-17.0954E-3
2.81391E-3	114.320E-12	621.244E-3	16.4885E-3	114.482E-12	601.617E-3	-8.27231E-3
2.80890E-3	114.830E-12	601.691E-3	14.5816E-3	113.919E-12	610.384E-3	-14.4922E-3
2.80390E-3	115.764E-12	614.997E-3	-10.9263E-3	113.732E-12	604.422E-3	-10.7178E-3
2.79890E-3	115.541E-12	641.965E-3	-9.93517E-3	113.668E-12	604.587E-3	-3.99840E-3
2.79390E-3	115.280E-12	651.585E-3	-2.98683E-3	113.829E-12	613.548E-3	-19.0116E-3
2.78889E-3	115.338E-12	634.478E-3	-11.3721E-3	113.829E-12	612.430E-3	-33.7004E-3
2.78389E-3	114.718E-12	619.890E-3	-9.72614E-3	114.324E-12	616.559E-3	-32.9543E-3
2.77889E-3	114.084E-12	627.094E-3	-17.1808E-3	114.272E-12	624.562E-3	-32.0220E-3
2.77389E-3	113.190E-12	634.590E-3	-30.8569E-3	113.729E-12	624.538E-3	-22.1224E-3
2.76888E-3	112.601E-12	627.348E-3	-24.2175E-3	113.928E-12	613.696E-3	-2.18132E-3
2.76388E-3	111.363E-12	610.264E-3	-9.33703E-3	113.383E-12	597.959E-3	496.512E-6
2.75888E-3	111.475E-12	591.272E-3	2.82129E-3	113.399E-12	604.482E-3	-15.7858E-3
2.75388E-3	110.813E-12	578.204E-3	-4.76274E-3	111.534E-12	630.353E-3	-31.2936E-3
2.74887E-3	110.384E-12	579.746E-3	-23.5341E-3	111.654E-12	647.837E-3	-44.6346E-3
2.74387E-3	110.011E-12	585.969E-3	-35.0328E-3	111.311E-12	630.644E-3	-37.5746E-3
2.73887E-3	110.580E-12	586.521E-3	-30.9984E-3	110.337E-12	612.780E-3	-11.4974E-3
2.73387E-3	111.048E-12	579.328E-3	-1.70611E-3	108.938E-12	630.438E-3	3.54735E-3
2.72886E-3	111.533E-12	583.219E-3	11.2109E-3	109.756E-12	637.562E-3	7.23734E-3
2.72386E-3	111.151E-12	601.370E-3	6.83344E-3	110.735E-12	636.833E-3	10.8383E-3
2.71886E-3	112.366E-12	612.161E-3	7.05080E-3	110.027E-12	634.397E-3	12.2977E-3
2.71386E-3	111.930E-12	616.205E-3	-3.50507E-3	110.796E-12	626.334E-3	1.34065E-3
2.70885E-3	113.226E-12	632.785E-3	-74.2973E-6	111.086E-12	629.104E-3	-26.1021E-3
2.70385E-3	112.311E-12	645.206E-3	9.84124E-3	111.322E-12	633.336E-3	-57.2148E-3
2.69885E-3	112.508E-12	636.141E-3	-815.308E-6	111.130E-12	644.056E-3	-57.9434E-3
2.69385E-3	112.402E-12	630.862E-3	-19.6137E-3	111.176E-12	648.002E-3	-23.8066E-3
2.68884E-3	111.548E-12	633.997E-3	-30.4004E-3	111.372E-12	632.405E-3	-2.28615E-3
2.68384E-3	110.857E-12	625.869E-3	-20.3250E-3	111.437E-12	628.771E-3	-19.8697E-3
2.67884E-3	109.448E-12	607.143E-3	-13.8457E-3	110.811E-12	627.383E-3	-40.2752E-3
2.67384E-3	109.274E-12	610.747E-3	-35.5891E-3	110.167E-12	607.782E-3	-23.3172E-3
2.66883E-3	107.724E-12	633.026E-3	-38.4759E-3	110.259E-12	596.118E-3	-1.43296E-3
2.66383E-3	107.463E-12	637.410E-3	-21.2866E-3	109.202E-12	593.506E-3	-7.74192E-3
2.65883E-3	106.584E-12	612.485E-3	-20.9195E-3	107.931E-12	600.712E-3	-21.3327E-3
2.65383E-3	105.709E-12	593.059E-3	-14.0317E-3	107.572E-12	607.943E-3	-20.6622E-3
2.64882E-3	106.393E-12	615.032E-3	-11.7867E-3	106.596E-12	594.360E-3	-14.5543E-3
2.64382E-3	106.237E-12	630.271E-3	-30.3266E-3	106.089E-12	585.246E-3	-12.2595E-3
2.63882E-3	106.003E-12	609.624E-3	-39.4876E-3	105.851E-12	590.756E-3	-3.43390E-3
2.63382E-3	105.515E-12	596.615E-3	-28.4972E-3	106.504E-12	590.683E-3	4.01893E-3
2.62881E-3	107.078E-12	609.006E-3	-10.5266E-3	105.733E-12	590.687E-3	-7.56828E-3
2.62381E-3	107.501E-12	615.836E-3	-9.01609E-3	106.108E-12	626.418E-3	-21.5418E-3
2.61881E-3	108.062E-12	608.634E-3	-26.7933E-3	106.488E-12	660.404E-3	-11.4595E-3
2.61381E-3	107.541E-12	609.562E-3	-26.3644E-3	107.228E-12	643.721E-3	-1.80380E-3
2.60880E-3	108.386E-12	618.641E-3	-3.70841E-3	107.534E-12	623.132E-3	-10.3914E-3
2.60380E-3	107.717E-12	621.029E-3	-8.07604E-3	107.744E-12	625.073E-3	-19.4317E-3
2.59880E-3	107.729E-12	623.320E-3	-49.3990E-3	107.525E-12	634.634E-3	-11.2762E-3
2.59380E-3	107.433E-12	635.649E-3	-72.3353E-3	107.534E-12	645.753E-3	9.44077E-3
2.58879E-3	106.521E-12	644.761E-3	-53.7481E-3	107.673E-12	639.416E-3	14.2282E-3
2.58379E-3	106.577E-12	637.201E-3	-19.2423E-3	106.547E-12	627.639E-3	-5.41183E-3
2.57879E-3	105.692E-12	630.952E-3	9.09931E-3	106.024E-12	625.764E-3	-34.6853E-3
2.57379E-3	105.210E-12	629.900E-3	5.19514E-3	105.040E-12	626.377E-3	-50.5973E-3
2.56878E-3	103.992E-12	627.382E-3	-19.8021E-3	104.237E-12	637.154E-3	-38.6560E-3
2.56378E-3	103.855E-12	619.527E-3	-31.8563E-3	104.004E-12	642.086E-3	-23.4476E-3
2.55878E-3	102.650E-12	604.248E-3	-31.2787E-3	103.180E-12	634.662E-3	-28.7586E-3
2.55378E-3	102.872E-12	599.197E-3	-25.0268E-3	102.376E-12	621.547E-3	-35.6890E-3
2.54877E-3	103.356E-12	604.649E-3	-13.5459E-3	102.240E-12	614.099E-3	-31.0056E-3
2.54377E-3	102.119E-12	610.240E-3	-4.90903E-3	102.752E-12	622.994E-3	-23.0654E-3
2.53877E-3	102.209E-12	614.713E-3	3.00270E-3	101.747E-12	624.831E-3	-21.9566E-3
2.53377E-3	102.420E-12	619.909E-3	16.0535E-3	102.268E-12	622.674E-3	-28.9319E-3
2.52876E-3	103.022E-12	629.692E-3	28.9432E-3	102.233E-12	620.446E-3	-42.3006E-3
2.52376E-3	101.935E-12	647.907E-3	28.0723E-3	102.541E-12	605.709E-3	-37.4637E-3
2.51876E-3	101.936E-12	645.524E-3	20.4886E-3	102.707E-12	611.631E-3	-5.58519E-3
2.51376E-3	102.122E-12	628.287E-3	19.6282E-3	102.557E-12	629.419E-3	14.7143E-3
2.50875E-3	102.250E-12	631.093E-3	-5.09774E-3	102.451E-12	628.597E-3	13.0441E-3
2.50375E-3	101.308E-12	628.825E-3	-28.8353E-3	102.332E-12	626.907E-3	4.73013E-3
2.49875E-3	101.505E-12	618.109E-3	-24.8403E-3	103.114E-12	631.311E-3	-2.99997E-3
2.49375E-3	101.293E-12	619.214E-3	-25.0894E-3	101.594E-12	638.196E-3	-10.4003E-3
2.48874E-3	100.997E-12	634.116E-3	-24.7048E-3	101.498E-12	641.838E-3	-25.3710E-3
2.48374E-3	100.465E-12	638.969E-3	-26.6668E-3	100.625E-12	638.426E-3	-35.2732E-3
2.47874E-3	101.050E-12	623.819E-3	-21.7961E-3	100.166E-12	630.004E-3	-33.8455E-3
2.47374E-3	100.955E-12	614.391E-3	-4.74104E-3	99.1002E-12	619.973E-3	-27.9287E-3
2.46873E-3	99.9012E-12	612.590E-3	-5.41288E-3	99.1603E-12	615.597E-3	-14.3207E-3
2.46373E-3	99.7613E-12	594.491E-3	-7.64045E-3	98.3477E-12	619.862E-3	-7.93152E-3
2.45873E-3	99.3883E-12	575.115E-3	4.20379E-3	98.9201E-12	624.432E-3	-15.0145E-3
2.45373E-3	99.3724E-12	585.380E-3	12.3642E-3	98.6164E-12	624.068E-3	-15.6206E-3
2.44872E-3	98.7759E-12	607.812E-3	1.30943E-3	98.4980E-12	638.449E-3	-1.74370E-3
2.44372E-3	98.7039E-12	616.651E-3	-16.1317E-3	98.1654E-12	666.891E-3	5.45267E-3
2.43872E-3	99.0528E-12	614.412E-3	-21.0117E-3	98.6980E-12	677.807E-3	-11.3883E-3
2.43372E-3	98.3224E-12	621.195E-3	-22.7607E-3	99.8667E-12	658.380E-3	-32.3943E-3
2.42871E-3	98.3403E-12	632.996E-3	-28.1773E-3	99.5396E-12	645.828E-3	-36.8909E-3
2.42371E-3	97.4019E-12	626.734E-3	-33.7248E-3	99.1252E-12	656.613E-3	-16.5840E-3
2.41871E-3	97.6135E-12	612.535E-3	-41.5597E-3	99.0977E-12	646.143E-3	12.9736E-3
2.41371E-3	96.9958E-12	618.835E-3	-46.1070E-3	98.9369E-12	629.040E-3	23.3775E-3
2.40870E-3	96.8391E-12	624.857E-3	-43.1262E-3	97.6669E-12	636.624E-3	8.90622E-3
2.40370E-3	97.7333E-12	616.898E-3	-28.8286E-3	97.1026E-12	642.582E-3	-17.0973E-3
2.39870E-3	96.9246E-12	618.191E-3	-22.0744E-3	96.5665E-12	633.861E-3	-31.0748E-3
2.39370E-3	96.8181E-12	609.938E-3	-39.0064E-3	96.6326E-12	629.873E-3	-33.8359E-3
2.38869E-3	97.3385E-12	595.281E-3	-56.8354E-3	96.0421E-12	646.128E-3	-31.5742E-3
2.38369E-3	97.4564E-12	602.536E-3	-51.8030E-3	95.5417E-12	646.576E-3	-15.4051E-3
2.37869E-3	97.4088E-12	599.151E-3	-40.4048E-3	95.4264E-12	627.013E-3	-14.6249E-3
2.37369E-3	97.4531E-12	591.137E-3	-34.5054E-3	96.6322E-12	630.687E-3	-39.7112E-3
2.36868E-3	97.6229E-12	619.079E-3	-41.1024E-3	95.4430E-12	649.297E-3	-39.9148E-3
2.36368E-3	97.6744E-12	648.695E-3	-46.5279E-3	95.9436E-12	654.705E-3	-21.6590E-3
2.35868E-3	97.3491E-12	653.593E-3	-17.9650E-3	96.5505E-12	642.577E-3	-14.2609E-3
2.35368E-3	96.6418E-12	645.786E-3	-13.2049E-3	96.4747E-12	631.620E-3	-2.26347E-3
2.34867E-3	95.8663E-12	637.816E-3	-19.7273E-3	96.7064E-12	644.899E-3	-1.16377E-3
2.34367E-3	95.3314E-12	637.982E-3	4.79675E-3	96.4098E-12	659.234E-3	-11.6748E-3
2.33867E-3	94.7925E-12	639.585E-3	-4.70295E-3	96.2611E-12	659.534E-3	-3.58834E-3
2.33367E-3	94.8686E-12	640.866E-3	-34.2051E-3	95.3184E-12	656.399E-3	11.3759E-3
2.32866E-3	94.5435E-12	642.177E-3	-32.8015E-3	94.3568E-12	642.487E-3	9.13942E-3
2.32366E-3	93.2301E-12	659.377E-3	-22.8246E-3	94.3399E-12	631.781E-3	-10.4311E-3
2.31866E-3	93.3889E-12	676.262E-3	-26.9064E-3	93.4153E-12	616.743E-3	-24.0568E-3
2.31366E-3	93.8034E-12	668.313E-3	-38.2872E-3	92.4883E-12	591.947E-3	-16.3824E-3
2.30865E-3	93.3036E-12	651.594E-3	-36.9543E-3	91.4261E-12	589.279E-3	-10.1062E-3
2.30365E-3	92.5727E-12	630.599E-3	-25.6500E-3	91.5889E-12	609.953E-3	-24.0828E-3
2.29865E-3	93.2564E-12	609.498E-3	-8.57858E-3	91.1493E-12	619.553E-3	-38.5006E-3
2.29365E-3	93.9342E-12	611.152E-3	10.5047E-3	90.6762E-12	615.906E-3	-33.4733E-3
2.28864E-3	93.9272E-12	623.661E-3	9.74023E-3	90.3049E-12	614.133E-3	-7.81193E-3
2.28364E-3	93.5288E-12	623.959E-3	-13.3576E-3	91.0539E-12	620.624E-3	4.81948E-3
2.27864E-3	94.1687E-12	631.280E-3	-34.2030E-3	91.2291E-12	643.639E-3	-15.2561E-3
2.27364E-3	94.7586E-12	649.735E-3	-28.3014E-3	91.3338E-12	662.568E-3	-28.4925E-3
2.26863E-3	93.9091E-12	663.693E-3	-15.8854E-3	91.8018E-12	677.222E-3	-26.9679E-3
2.26363E-3	92.8507E-12	664.364E-3	-13.5093E-3	91.7116E-12	684.681E-3	-32.7331E-3
2.25863E-3	92.3765E-12	641.603E-3	-22.1881E-3	91.8535E-12	668.138E-3	-24.8921E-3
2.25363E-3	91.5225E-12	618.108E-3	-42.7663E-3	92.2296E-12	635.567E-3	-7.79223E-3
2.24862E-3	91.1751E-12	631.298E-3	-41.5556E-3	91.8066E-12	606.708E-3	-3.30873E-3
2.24362E-3	90.7753E-12	661.060E-3	-19.3810E-3	91.0001E-12	608.348E-3	1.59530E-3
2.23862E-3	89.3771E-12	653.551E-3	-7.08718E-3	91.0326E-12	619.298E-3	2.40041E-3
2.23362E-3	88.7323E-12	623.723E-3	4.55890E-3	91.0236E-12	616.700E-3	5.10770E-3
2.22861E-3	89.1705E-12	617.966E-3	14.4731E-3	89.4323E-12	628.007E-3	11.4589E-3
2.22361E-3	88.7450E-12	627.376E-3	3.94215E-3	88.5292E-12	647.849E-3	-5.43667E-3
2.21861E-3	88.0815E-12	633.479E-3	-22.7906E-3	88.3184E-12	654.665E-3	-25.2448E-3
2.21361E-3	87.6378E-12	635.330E-3	-48.5623E-3	88.2600E-12	651.042E-3	-27.1169E-3
2.20860E-3	88.1305E-12	640.539E-3	-42.1687E-3	87.9213E-12	639.114E-3	-23.4048E-3
2.20360E-3	88.5184E-12	641.894E-3	-11.0395E-3	87.7995E-12	633.913E-3	-18.3581E-3
2.19860E-3	88.8218E-12	630.659E-3	-5.67895E-3	87.8255E-12	640.352E-3	-15.2482E-3
2.19360E-3	88.4929E-12	634.727E-3	-28.9201E-3	88.3030E-12	646.257E-3	-10.5027E-3
2.18859E-3	88.6283E-12	643.135E-3	-48.3145E-3	88.1086E-12	649.477E-3	-8.60284E-3
2.18359E-3	89.9438E-12	639.789E-3	-48.6427E-3	88.1180E-12	652.993E-3	-19.6485E-3
2.17859E-3	89.5743E-12	646.061E-3	-34.9463E-3	88.4984E-12	653.314E-3	-20.5205E-3
2.17359E-3	88.7239E-12	651.429E-3	-21.5767E-3	88.9698E-12	643.103E-3	-12.3485E-3
2.16858E-3	88.2810E-12	657.316E-3	-22.5079E-3	88.0600E-12	632.761E-3	-17.1536E-3
2.16358E-3	88.6415E-12	666.987E-3	-26.1525E-3	88.4165E-12	635.543E-3	-23.6330E-3
2.15858E-3	87.1959E-12	675.741E-3	-26.4007E-3	88.4185E-12	642.618E-3	-21.0903E-3
2.15358E-3	86.7354E-12	665.710E-3	-21.5905E-3	87.4083E-12	641.078E-3	-22.7658E-3
2.14857E-3	86.5960E-12	643.771E-3	-10.3057E-3	86.9677E-12	644.650E-3	-30.0114E-3
2.14357E-3	85.6664E-12	653.360E-3	2.14458E-3	87.9577E-12	652.306E-3	-15.3265E-3
2.13857E-3	85.2609E-12	667.381E-3	-748.693E-6	86.8933E-12	649.153E-3	9.94902E-3
2.13357E-3	84.7684E-12	659.751E-3	-24.6123E-3	86.0216E-12	641.856E-3	15.9870E-3
2.12856E-3	84.2957E-12	649.335E-3	-37.6286E-3	85.8777E-12	642.699E-3	-2.61028E-3
2.12356E-3	83.6177E-12	652.359E-3	-27.8943E-3	85.7294E-12	645.896E-3	-29.1789E-3
2.11856E-3	84.0729E-12	673.687E-3	-10.3306E-3	84.8384E-12	640.132E-3	-28.9832E-3
2.11356E-3	84.0411E-12	677.144E-3	-6.52030E-3	84.9786E-12	634.767E-3	-2.71701E-3
2.10855E-3	84.3446E-12	647.357E-3	-12.4726E-3	85.1352E-12	633.245E-3	17.5216E-3
2.10355E-3	84.1915E-12	621.258E-3	-16.6911E-3	85.2542E-12	637.780E-3	11.1858E-3
2.09855E-3	84.2130E-12	625.182E-3	-15.9439E-3	85.3412E-12	652.437E-3	-12.6940E-3
2.09355E-3	84.1035E-12	642.381E-3	-16.2970E-3	85.7764E-12	657.874E-3	-23.9162E-3
2.08854E-3	84.4688E-12	637.216E-3	-36.6112E-3	85.8879E-12	664.388E-3	-19.5749E-3
2.08354E-3	83.8203E-12	634.248E-3	-57.8206E-3	85.4574E-12	680.139E-3	-9.25433E-3
2.07854E-3	83.7210E-12	646.175E-3	-53.5236E-3	85.4190E-12	678.905E-3	-12.2010E-3
2.07354E-3	83.4604E-12	635.530E-3	-18.7704E-3	84.9278E-12	664.523E-3	-30.7800E-3
2.06853E-3	83.3801E-12	621.791E-3	11.7319E-3	84.5540E-12	649.686E-3	-29.1820E-3
2.06353E-3	82.9931E-12	628.612E-3	4.67139E-3	83.6454E-12	643.542E-3	-15.1338E-3
2.05853E-3	83.0857E-12	646.044E-3	-9.98861E-3	83.3638E-12	646.046E-3	-5.36724E-3
2.05353E-3	82.9842E-12	661.665E-3	-17.2649E-3	82.4690E-12	652.800E-3	699.750E-6
2.04852E-3	81.4390E-12	665.265E-3	-33.6893E-3	82.6683E-12	655.195E-3	-8.01456E-3
2.04352E-3	81.0392E-12	659.479E-3	-44.8402E-3	81.4493E-12	649.995E-3	-26.5768E-3
2.03852E-3	81.4271E-12	647.881E-3	-36.0263E-3	81.0815E-12	643.257E-3	-25.5670E-3
2.03352E-3	80.9409E-12	642.984E-3	-19.3131E-3	81.4316E-12	625.167E-3	-9.76324E-3
2.02851E-3	80.8182E-12	645.409E-3	-20.9273E-3	81.2443E-12	622.736E-3	-1.24427E-3
2.02351E-3	80.9371E-12	638.756E-3	-32.8388E-3	81.1360E-12	646.914E-3	8.76406E-3
2.01851E-3	81.1464E-12	635.452E-3	-21.8107E-3	80.6542E-12	663.272E-3	6.39852E-3
2.01351E-3	80.6138E-12	646.255E-3	-4.69287E-3	81.6693E-12	662.183E-3	-3.91906E-3
2.00850E-3	80.8093E-12	650.427E-3	-6.53548E-3	81.0371E-12	660.851E-3	2.85284E-3
2.00350E-3	80.4812E-12	641.837E-3	141.079E-6	81.1880E-12	656.105E-3	12.7639E-3
1.99850E-3	80.5545E-12	644.293E-3	98.1362E-6	81.0220E-12	642.180E-3	706.717E-6
1.99350E-3	80.0813E-12	655.345E-3	-18.8675E-3	81.1724E-12	644.495E-3	-18.4604E-3
1.98849E-3	79.7968E-12	663.996E-3	-23.1799E-3	80.9393E-12	651.860E-3	-19.6324E-3
1.98349E-3	79.5306E-12	677.699E-3	-27.6565E-3	80.5845E-12	651.563E-3	-8.29113E-3
1.97849E-3	79.4180E-12	674.557E-3	-28.3494E-3	79.8794E-12	656.015E-3	-2.67127E-3
1.97349E-3	79.6369E-12	657.720E-3	-32.2305E-3	78.6189E-12	649.149E-3	-9.41017E-3
1.96848E-3	78.7118E-12	658.677E-3	-42.2533E-3	78.2517E-12	639.267E-3	-19.0267E-3
1.96348E-3	78.7753E-12	666.844E-3	-29.3008E-3	77.4601E-12	649.645E-3	-18.6013E-3
1.95848E-3	78.8787E-12	672.050E-3	-17.2358E-3	77.3483E-12	662.848E-3	1.61809E-3
1.95348E-3	78.4789E-12	672.642E-3	-27.8637E-3	77.0184E-12	668.927E-3	12.3578E-3
1.94847E-3	77.5795E-12	661.352E-3	-24.1461E-3	76.5564E-12	671.625E-3	-2.37134E-3
1.94347E-3	77.1047E-12	654.068E-3	-1.81158E-3	76.6790E-12	668.320E-3	-8.48264E-3
1.93847E-3	76.6432E-12	655.932E-3	13.7559E-3	76.7262E-12	665.927E-3	-2.68742E-3
1.93347E-3	77.4109E-12	663.636E-3	14.4148E-3	76.7284E-12	662.585E-3	-3.60111E-3
1.92846E-3	76.8095E-12	666.173E-3	7.77935E-3	76.9700E-12	667.811E-3	2.68554E-3
1.92346E-3	76.1096E-12	653.695E-3	16.0106E-3	76.4437E-12	681.315E-3	13.2384E-3
1.91846E-3	76.5244E-12	655.415E-3	20.3185E-3	76.3551E-12	687.084E-3	12.5673E-3
1.91346E-3	76.4512E-12	661.146E-3	11.1332E-3	76.9934E-12	682.598E-3	10.3304E-3
1.90845E-3	76.1111E-12	653.557E-3	-3.95804E-3	76.7160E-12	664.642E-3	-2.05084E-3
1.90345E-3	75.4343E-12	657.228E-3	-31.7933E-3	76.4467E-12	653.583E-3	-20.5503E-3
1.89845E-3	74.9790E-12	664.049E-3	-29.7617E-3	75.9394E-12	656.045E-3	-21.6660E-3
1.89345E-3	75.0804E-12	660.282E-3	-2.04249E-3	75.2033E-12	656.484E-3	-11.5454E-3
1.88844E-3	74.9038E-12	661.032E-3	-11.0510E-3	74.6790E-12	664.465E-3	-5.32533E-3
1.88344E-3	74.5338E-12	667.397E-3	-36.5207E-3	74.8735E-12	674.601E-3	-8.51980E-3
1.87844E-3	74.3820E-12	673.029E-3	-36.2316E-3	74.3062E-12	664.045E-3	-15.1614E-3
1.87344E-3	74.9037E-12	668.762E-3	-23.0256E-3	73.5117E-12	646.719E-3	-10.0619E-3
1.86843E-3	74.3986E-12	668.027E-3	-20.3486E-3	73.4688E-12	645.310E-3	-10.7747E-3
1.86343E-3	74.2833E-12	677.074E-3	-28.3646E-3	73.6471E-12	656.717E-3	-19.9961E-3
1.85843E-3	74.2584E-12	682.513E-3	-36.0137E-3	73.4556E-12	668.499E-3	-11.9168E-3
1.85343E-3	73.8423E-12	683.068E-3	-39.6880E-3	72.8926E-12	676.398E-3	-5.62568E-3
1.84842E-3	73.7948E-12	683.335E-3	-34.8753E-3	73.1097E-12	687.017E-3	-15.2474E-3
1.84342E-3	73.9941E-12	688.084E-3	-14.0444E-3	73.0473E-12	690.705E-3	-25.8558E-3
1.83842E-3	73.3378E-12	700.718E-3	-1.06648E-3	73.0995E-12	689.307E-3	-32.5711E-3
1.83342E-3	72.7180E-12	713.193E-3	-13.1784E-3	73.1333E-12	702.013E-3	-21.5744E-3
1.82841E-3	72.6223E-12	710.150E-3	-22.0321E-3	73.9029E-12	709.491E-3	-5.06997E-3
1.82341E-3	72.8358E-12	697.615E-3	-14.8071E-3	73.5406E-12	691.867E-3	-12.2293E-3
1.81841E-3	71.5491E-12	683.768E-3	2.22264E-3	73.6783E-12	671.874E-3	-31.9543E-3
1.81341E-3	71.2981E-12	680.296E-3	16.7580E-3	73.2039E-12	674.658E-3	-33.0215E-3
1.80840E-3	70.4670E-12	690.539E-3	8.85380E-3	72.5752E-12	695.107E-3	1.48292E-3
1.80340E-3	70.1253E-12	701.540E-3	-4.62448E-3	71.6417E-12	701.755E-3	20.7184E-3
1.79840E-3	70.0762E-12	692.235E-3	-8.31723E-3	71.3664E-12	697.664E-3	-3.63046E-3
1.79340E-3	70.4340E-12	673.979E-3	2.04621E-3	70.9596E-12	697.519E-3	-20.0364E-3
1.78839E-3	69.6947E-12	676.322E-3	15.9412E-3	70.1330E-12	696.353E-3	-16.5126E-3
1.78339E-3	69.4127E-12	683.420E-3	11.0373E-3	69.5459E-12	709.293E-3	-16.9253E-3
1.77839E-3	70.2615E-12	683.433E-3	-3.75800E-3	69.5860E-12	729.283E-3	-13.1362E-3
1.77339E-3	69.7545E-12	694.756E-3	-15.0097E-3	70.0251E-12	735.437E-3	-7.44447E-3
1.76838E-3	69.6186E-12	703.700E-3	-12.3459E-3	68.9198E-12	729.598E-3	-8.97125E-3
1.76338E-3	69.7551E-12	707.322E-3	881.784E-6	69.5491E-12	727.984E-3	-2.39866E-3
1.75838E-3	69.9004E-12	721.447E-3	8.98819E-3	69.6992E-12	732.780E-3	1.57409E-3
1.75338E-3	69.4990E-12	727.541E-3	7.63406E-3	69.9216E-12	726.845E-3	-3.82086E-3
1.74837E-3	69.8149E-12	718.906E-3	6.79431E-3	69.8269E-12	704.602E-3	-3.71100E-3
1.74337E-3	69.5911E-12	711.830E-3	6.27345E-3	69.5211E-12	687.897E-3	-6.61059E-3
1.73837E-3	69.4316E-12	717.186E-3	2.32803E-3	69.5995E-12	701.678E-3	-10.9389E-3
1.73337E-3	69.3022E-12	726.741E-3	758.580E-6	69.2490E-12	732.985E-3	-19.0923E-3
1.72836E-3	68.6150E-12	718.335E-3	3.51310E-3	68.0382E-12	734.848E-3	-43.3651E-3
1.72336E-3	67.9556E-12	703.625E-3	5.31620E-3	67.9329E-12	712.617E-3	-63.5410E-3
1.71836E-3	66.8441E-12	704.232E-3	-945.548E-6	68.3793E-12	707.528E-3	-53.7155E-3
1.71336E-3	67.0645E-12	706.209E-3	-15.8438E-3	66.6732E-12	711.242E-3	-34.6361E-3
1.70835E-3	66.6710E-12	709.664E-3	-20.9720E-3	65.9928E-12	713.319E-3	-26.6478E-3
1.70335E-3	65.9348E-12	722.479E-3	-16.6788E-3	65.9308E-12	708.618E-3	-24.0137E-3
1.69835E-3	65.2681E-12	722.201E-3	-9.32059E-3	65.6964E-12	695.933E-3	-26.2537E-3
1.69335E-3	65.6142E-12	712.337E-3	4.04874E-3	64.6861E-12	700.842E-3	-17.3325E-3
1.68834E-3	65.6004E-12	711.334E-3	-709.796E-6	65.0578E-12	722.307E-3	-9.72190E-3
1.68334E-3	65.4633E-12	711.464E-3	-21.1986E-3	65.0917E-12	734.331E-3	-10.7216E-3
1.67834E-3	64.8480E-12	719.142E-3	-35.8912E-3	65.2780E-12	734.738E-3	-6.61987E-3
1.67334E-3	64.9935E-12	724.710E-3	-43.6275E-3	65.0088E-12	727.968E-3	-6.93583E-3
1.66833E-3	65.8765E-12	719.416E-3	-34.1217E-3	65.0470E-12	724.239E-3	-10.6515E-3
1.66333E-3	64.9221E-12	718.656E-3	-6.68932E-3	65.5563E-12	743.706E-3	-21.2206E-3
1.65833E-3	64.5204E-12	732.151E-3	3.88858E-3	65.0971E-12	756.607E-3	-14.5050E-3
1.65333E-3	64.8785E-12	753.825E-3	-8.75789E-3	64.9352E-12	747.780E-3	11.4751E-3
1.64832E-3	64.8268E-12	757.168E-3	-18.9341E-3	64.6588E-12	749.059E-3	8.88499E-3
1.64332E-3	64.0246E-12	746.498E-3	-24.0183E-3	64.0274E-12	751.178E-3	-3.91263E-3
1.63832E-3	63.7140E-12	740.567E-3	-21.6972E-3	63.2617E-12	745.552E-3	-12.2136E-3
1.63332E-3	63.5537E-12	739.939E-3	-17.4376E-3	63.4071E-12	739.649E-3	-22.3382E-3
1.62831E-3	62.9577E-12	746.134E-3	-20.9692E-3	62.9747E-12	738.905E-3	-12.1731E-3
1.62331E-3	62.3747E-12	757.694E-3	-26.0950E-3	62.0039E-12	742.881E-3	3.74962E-3
1.61831E-3	61.8776E-12	761.366E-3	-30.7876E-3	60.6341E-12	736.158E-3	-1.53459E-3
1.61331E-3	61.3911E-12	752.351E-3	-34.4205E-3	60.7799E-12	737.281E-3	-9.29483E-3
1.60830E-3	60.9020E-12	742.256E-3	-23.0968E-3	60.7421E-12	756.218E-3	-4.24410E-3
1.60330E-3	60.4779E-12	732.831E-3	-6.62732E-3	59.8575E-12	764.406E-3	-5.27291E-3
1.59830E-3	60.6582E-12	724.085E-3	-5.50487E-3	60.0728E-12	766.776E-3	-16.3137E-3
1.59330E-3	60.6038E-12	720.414E-3	-7.91708E-3	60.0750E-12	774.818E-3	-24.1477E-3
1.58829E-3	60.1930E-12	729.634E-3	-9.14736E-3	60.2573E-12	780.835E-3	-24.2776E-3
1.58329E-3	60.7196E-12	742.421E-3	-18.7026E-3	59.9433E-12	777.890E-3	-23.1221E-3
1.57829E-3	60.6156E-12	737.696E-3	-22.3206E-3	60.5042E-12	768.413E-3	-16.0526E-3
1.57329E-3	60.7435E-12	730.823E-3	-14.1987E-3	60.4195E-12	766.897E-3	-5.49288E-3
1.56828E-3	60.3258E-12	737.308E-3	-2.69936E-3	60.2278E-12	770.727E-3	-12.9999E-3
1.56328E-3	60.5753E-12	744.575E-3	2.88959E-3	60.2579E-12	779.786E-3	-29.1957E-3
1.55828E-3	60.6282E-12	760.619E-3	-4.84844E-3	60.1176E-12	787.603E-3	-29.6252E-3
1.55328E-3	59.9508E-12	787.299E-3	-12.2330E-3	59.7371E-12	780.312E-3	-26.8909E-3
1.54827E-3	59.6358E-12	790.009E-3	-20.5124E-3	59.2917E-12	768.535E-3	-38.6424E-3
1.54327E-3	60.0260E-12	774.102E-3	-28.6366E-3	58.7488E-12	756.962E-3	-40.2319E-3
1.53827E-3	59.5546E-12	766.914E-3	-24.8457E-3	58.6774E-12	756.317E-3	-21.1323E-3
1.53327E-3	58.4857E-12	769.071E-3	-22.3356E-3	57.6969E-12	776.102E-3	-10.1935E-3
1.52826E-3	58.5190E-12	777.103E-3	-30.1312E-3	57.5821E-12	783.367E-3	-8.08851E-3
1.52326E-3	58.2944E-12	777.036E-3	-24.7608E-3	57.4923E-12	774.698E-3	-16.9963E-3
1.51826E-3	57.5417E-12	769.348E-3	-11.2123E-3	57.6354E-12	778.209E-3	-32.6144E-3
1.51326E-3	57.0305E-12	768.934E-3	-11.7109E-3	56.8999E-12	784.504E-3	-33.8959E-3
1.50825E-3	56.3532E-12	770.353E-3	-5.48695E-3	56.0709E-12	783.609E-3	-39.2736E-3
1.50325E-3	55.8594E-12	758.185E-3	-3.99810E-3	56.4597E-12	784.035E-3	-50.6699E-3
1.49825E-3	55.9683E-12	747.960E-3	-23.8504E-3	56.8706E-12	783.080E-3	-49.1761E-3
1.49325E-3	56.1383E-12	754.305E-3	-36.4654E-3	56.2824E-12	777.404E-3	-38.0699E-3
1.48824E-3	55.6007E-12	751.893E-3	-36.2330E-3	55.8652E-12	775.551E-3	-31.7128E-3
1.48324E-3	55.1606E-12	741.509E-3	-37.4297E-3	56.2332E-12	779.790E-3	-24.1090E-3
1.47824E-3	55.1208E-12	739.151E-3	-41.9661E-3	56.4301E-12	783.788E-3	-11.5996E-3
1.47324E-3	55.2802E-12	745.798E-3	-51.0871E-3	55.6932E-12	787.502E-3	-15.9250E-3
1.46823E-3	54.8474E-12	759.662E-3	-53.5316E-3	55.0521E-12	777.166E-3	-21.8814E-3
1.46323E-3	54.1819E-12	765.575E-3	-35.8350E-3	54.6439E-12	760.847E-3	-22.1024E-3
1.45823E-3	53.9919E-12	769.900E-3	-20.4280E-3	54.1656E-12	757.228E-3	-25.8124E-3
1.45323E-3	54.5174E-12	780.433E-3	-17.3146E-3	54.5086E-12	758.887E-3	-20.6799E-3
1.44822E-3	54.1760E-12	774.744E-3	-11.7033E-3	53.5761E-12	763.939E-3	-1.96445E-3
1.44322E-3	53.0278E-12	765.330E-3	-4.85979E-3	52.9439E-12	766.804E-3	4.66682E-3
1.43822E-3	52.9969E-12	773.576E-3	3.37196E-3	52.8329E-12	764.029E-3	-9.75097E-3
1.43322E-3	53.3983E-12	776.592E-3	-213.422E-6	52.9139E-12	764.376E-3	-17.5817E-3
1.42821E-3	53.1181E-12	763.828E-3	-20.5576E-3	52.8345E-12	773.282E-3	-18.1696E-3
1.42321E-3	52.3313E-12	743.582E-3	-17.1003E-3	52.4991E-12	786.374E-3	-18.7399E-3
1.41821E-3	52.4148E-12	728.038E-3	-2.07217E-3	52.0591E-12	777.977E-3	-16.3670E-3
1.41321E-3	51.8760E-12	721.741E-3	-9.39570E-3	52.1337E-12	755.228E-3	-13.4184E-3
1.40820E-3	51.5270E-12	721.534E-3	-13.4250E-3	52.4804E-12	747.066E-3	-17.0356E-3
1.40320E-3	51.6282E-12	723.582E-3	-8.49852E-3	52.3904E-12	738.900E-3	-19.1312E-3
1.39820E-3	51.1972E-12	710.693E-3	-9.87574E-3	51.8401E-12	726.931E-3	-16.7726E-3
1.39320E-3	50.7134E-12	701.311E-3	-13.0341E-3	51.5097E-12	713.102E-3	-20.3831E-3
1.38819E-3	50.5128E-12	715.114E-3	-12.7781E-3	51.8567E-12	690.605E-3	-19.1321E-3
1.38319E-3	50.5602E-12	726.991E-3	-8.03264E-3	51.7475E-12	676.860E-3	-14.6806E-3
1.37819E-3	49.7546E-12	722.051E-3	3.48834E-3	51.1420E-12	678.040E-3	-14.6296E-3
1.37319E-3	49.1656E-12	698.973E-3	1.62306E-3	49.9197E-12	670.127E-3	-13.7742E-3
1.36818E-3	49.2687E-12	683.139E-3	-9.53217E-3	49.8013E-12	649.903E-3	-6.39793E-3
1.36318E-3	49.2704E-12	685.256E-3	-20.5435E-3	49.2040E-12	644.501E-3	8.79517E-3
1.35818E-3	48.9378E-12	683.050E-3	-33.1813E-3	49.0910E-12	646.777E-3	8.07317E-3
1.35318E-3	48.6763E-12	681.179E-3	-28.0130E-3	48.2753E-12	643.426E-3	933.201E-6
1.34817E-3	48.8452E-12	673.332E-3	-19.9632E-3	47.8441E-12	647.989E-3	5.42008E-3
1.34317E-3	48.5539E-12	669.726E-3	-28.2759E-3	48.0588E-12	645.258E-3	1.96347E-3
1.33817E-3	48.3162E-12	676.702E-3	-34.5780E-3	48.9120E-12	630.376E-3	-11.7098E-3
1.33317E-3	48.2913E-12	665.017E-3	-18.1422E-3	48.6980E-12	626.296E-3	-26.1058E-3
1.32816E-3	48.6667E-12	653.557E-3	6.81743E-3	48.1915E-12	628.298E-3	-26.8135E-3
1.32316E-3	48.2627E-12	655.632E-3	13.1540E-3	48.3218E-12	623.977E-3	-5.18033E-3
1.31816E-3	47.6459E-12	645.621E-3	-11.6936E-3	48.7154E-12	621.177E-3	8.75838E-3
1.31316E-3	47.8677E-12	626.223E-3	-30.6424E-3	48.8683E-12	610.934E-3	-11.3989E-3
1.30815E-3	48.0749E-12	619.497E-3	-13.0361E-3	48.1066E-12	581.442E-3	-29.1532E-3
1.30315E-3	47.3978E-12	620.531E-3	-15.8689E-3	48.4652E-12	550.862E-3	-34.2228E-3
1.29815E-3	46.6857E-12	608.223E-3	-41.1999E-3	47.9742E-12	534.263E-3	-33.2355E-3
1.29315E-3	46.8183E-12	598.279E-3	-34.3352E-3	47.5471E-12	539.489E-3	-22.7230E-3
1.28814E-3	46.8697E-12	606.524E-3	-13.3287E-3	46.9819E-12	548.045E-3	-24.4398E-3
1.28314E-3	46.6399E-12	598.969E-3	-14.8269E-3	46.5962E-12	543.722E-3	-40.9287E-3
1.27814E-3	45.6661E-12	577.418E-3	-23.0564E-3	46.4260E-12	523.304E-3	-52.9623E-3
1.27314E-3	45.3941E-12	563.550E-3	-18.0386E-3	45.6030E-12	492.348E-3	-38.8440E-3
1.26813E-3	44.9976E-12	558.080E-3	-17.3301E-3	45.1481E-12	478.729E-3	-15.8590E-3
1.26313E-3	45.2811E-12	553.130E-3	-25.2721E-3	45.6746E-12	482.792E-3	-14.5980E-3
1.25813E-3	44.7828E-12	526.695E-3	-15.6299E-3	45.2280E-12	480.580E-3	-19.0525E-3
1.25313E-3	44.7336E-12	505.183E-3	-11.9675E-3	44.5294E-12	464.996E-3	-24.0774E-3
1.24812E-3	45.0747E-12	516.403E-3	-26.5183E-3	45.5561E-12	450.415E-3	-33.8649E-3
1.24312E-3	44.5543E-12	521.304E-3	-24.3427E-3	45.6098E-12	444.583E-3	-23.6998E-3
1.23812E-3	44.6850E-12	497.235E-3	-14.0306E-3	45.2977E-12	440.788E-3	-3.06042E-3
1.23312E-3	44.9517E-12	476.160E-3	-7.41895E-3	45.6866E-12	433.972E-3	-6.10930E-3
1.22811E-3	45.3613E-12	477.370E-3	-10.6903E-3	46.4840E-12	436.606E-3	-23.8828E-3
1.22311E-3	44.3729E-12	486.755E-3	-31.9975E-3	45.7904E-12	440.297E-3	-30.0849E-3
1.21811E-3	44.3955E-12	493.242E-3	-42.0647E-3	45.2940E-12	425.945E-3	-28.0134E-3
1.21311E-3	44.3991E-12	481.392E-3	-21.6339E-3	45.1393E-12	408.015E-3	-18.1793E-3
1.20810E-3	44.5037E-12	440.678E-3	-4.30522E-3	45.3241E-12	393.617E-3	-16.1584E-3
1.20310E-3	43.6659E-12	407.003E-3	-11.5626E-3	44.7074E-12	374.799E-3	-26.4069E-3
1.19810E-3	43.2672E-12	400.458E-3	-18.9621E-3	44.0820E-12	353.074E-3	-24.9631E-3
1.19310E-3	42.8588E-12	395.495E-3	-12.0699E-3	43.9242E-12	349.561E-3	-26.0371E-3
1.18809E-3	42.8757E-12	385.284E-3	-8.40691E-3	43.5385E-12	350.580E-3	-24.9341E-3
1.18309E-3	42.5317E-12	373.188E-3	-13.6527E-3	43.1411E-12	333.903E-3	-15.2026E-3
1.17809E-3	42.0823E-12	362.630E-3	-22.1423E-3	42.3245E-12	330.074E-3	-20.2910E-3
1.17309E-3	41.9675E-12	360.681E-3	-26.8572E-3	42.6756E-12	340.080E-3	-31.3148E-3
1.16808E-3	42.3103E-12	357.955E-3	-18.2460E-3	42.6271E-12	333.845E-3	-35.9417E-3
1.16308E-3	42.3399E-12	344.217E-3	-7.41201E-3	42.3232E-12	323.927E-3	-37.3709E-3
1.15808E-3	41.9311E-12	328.107E-3	-8.52604E-3	42.8639E-12	316.023E-3	-29.7634E-3
1.15308E-3	41.8360E-12	320.026E-3	-16.0634E-3	42.8198E-12	290.552E-3	-17.6712E-3
1.14807E-3	42.2187E-12	317.414E-3	-10.7109E-3	43.1769E-12	269.968E-3	-16.8556E-3
1.14307E-3	43.0525E-12	315.195E-3	-9.48210E-3	43.0102E-12	262.128E-3	-23.5836E-3
1.13807E-3	42.6031E-12	314.291E-3	-17.1696E-3	43.0480E-12	252.894E-3	-18.6351E-3
1.13307E-3	42.4848E-12	308.738E-3	-14.5309E-3	43.2927E-12	246.330E-3	9.40422E-3
1.12806E-3	42.8259E-12	290.424E-3	-14.9851E-3	43.1260E-12	245.972E-3	24.2093E-3
1.12306E-3	43.4740E-12	277.226E-3	-8.00973E-3	42.9760E-12	255.775E-3	-1.48697E-3
1.11806E-3	42.4432E-12	281.883E-3	-8.39680E-6	42.7863E-12	253.294E-3	-28.5382E-3
1.11306E-3	42.6064E-12	283.287E-3	-19.7095E-3	42.6105E-12	232.982E-3	-28.0850E-3
1.10805E-3	43.0021E-12	278.916E-3	-32.7778E-3	42.1109E-12	220.566E-3	-16.7299E-3
1.10305E-3	42.3970E-12	279.641E-3	-16.8630E-3	41.5013E-12	212.321E-3	-16.0357E-3
1.09805E-3	42.5678E-12	266.465E-3	-14.3565E-3	41.8805E-12	201.002E-3	-25.5680E-3
1.09305E-3	41.5626E-12	248.485E-3	-23.6108E-3	41.6995E-12	190.240E-3	-34.0432E-3
1.08804E-3	41.4251E-12	244.025E-3	-5.43961E-3	41.5954E-12	178.805E-3	-33.8233E-3
1.08304E-3	40.8564E-12	239.151E-3	11.3180E-3	41.4379E-12	172.020E-3	-22.2744E-3
1.07804E-3	40.8312E-12	226.047E-3	-7.10536E-3	41.6527E-12	169.608E-3	-13.4964E-3
1.07304E-3	40.8536E-12	211.431E-3	-32.8838E-3	41.7429E-12	164.079E-3	-17.7233E-3
1.06803E-3	41.0919E-12	201.914E-3	-38.7949E-3	41.7364E-12	155.324E-3	-18.9212E-3
1.06303E-3	40.2825E-12	195.395E-3	-30.9462E-3	41.8357E-12	155.533E-3	-16.0434E-3
1.05803E-3	40.6183E-12	186.294E-3	-18.0849E-3	42.0384E-12	174.622E-3	-12.8146E-3
1.05303E-3	40.9772E-12	164.083E-3	-14.5876E-3	41.9618E-12	183.955E-3	-3.44970E-3
1.04802E-3	40.6983E-12	145.889E-3	-21.6462E-3	41.7411E-12	164.333E-3	3.33195E-3
1.04302E-3	40.7191E-12	152.404E-3	-20.4365E-3	42.2543E-12	148.913E-3	-8.97232E-3
1.03802E-3	40.6497E-12	161.751E-3	-18.8521E-3	41.0930E-12	147.649E-3	-22.9343E-3
1.03302E-3	40.8904E-12	154.054E-3	-22.5754E-3	40.8231E-12	144.589E-3	-16.8411E-3
1.02801E-3	40.7024E-12	139.401E-3	-24.7518E-3	41.1419E-12	135.025E-3	-15.6655E-3
1.02301E-3	40.7466E-12	139.205E-3	-21.5615E-3	40.7572E-12	119.750E-3	-33.3724E-3
1.01801E-3	40.4811E-12	144.456E-3	-12.0604E-3	39.9691E-12	111.674E-3	-49.0317E-3
1.01301E-3	39.9874E-12	139.830E-3	-7.73024E-3	39.9717E-12	112.931E-3	-40.5331E-3
1.00800E-3	39.8944E-12	137.071E-3	-10.1455E-3	40.4796E-12	118.689E-3	-17.6828E-3
1.00300E-3	39.9746E-12	135.887E-3	-19.9472E-3	40.2790E-12	123.432E-3	-119.812E-6
997.999E-6	40.3620E-12	141.176E-3	-23.9032E-3	40.0386E-12	118.526E-3	6.05660E-3
992.997E-6	39.8674E-12	154.499E-3	-11.5814E-3	39.6484E-12	107.847E-3	-1.77693E-3
987.994E-6	39.3077E-12	155.359E-3	-4.45491E-3	39.8616E-12	106.978E-3	4.04898E-3
982.991E-6	39.1989E-12	141.505E-3	-7.32990E-3	40.4131E-12	110.696E-3	16.0326E-3
977.989E-6	39.7008E-12	117.828E-3	-22.2029E-3	40.0400E-12	107.371E-3	7.35298E-3
972.986E-6	39.6935E-12	100.343E-3	-33.3502E-3	39.5684E-12	110.755E-3	-3.18506E-3
967.984E-6	39.4851E-12	113.450E-3	-18.6561E-3	39.7805E-12	123.666E-3	-12.6716E-3
962.981E-6	39.5275E-12	134.932E-3	-367.702E-6	39.8162E-12	128.823E-3	-16.6545E-3
957.979E-6	39.5622E-12	133.170E-3	5.61932E-3	39.8508E-12	117.134E-3	-16.7996E-3
952.976E-6	39.7324E-12	118.024E-3	4.17459E-3	39.7467E-12	102.520E-3	-14.2653E-3
947.974E-6	39.2998E-12	115.583E-3	-3.14425E-3	39.5574E-12	100.853E-3	-4.67194E-3
942.971E-6	39.1432E-12	119.514E-3	-8.02577E-3	38.9861E-12	103.853E-3	-3.67549E-3
937.969E-6	38.6201E-12	118.271E-3	2.91921E-3	39.4802E-12	102.791E-3	-16.3714E-3
932.966E-6	39.0382E-12	118.095E-3	17.7012E-3	39.4188E-12	108.204E-3	-29.3938E-3
927.964E-6	38.8651E-12	116.624E-3	1.15859E-3	38.3388E-12	112.224E-3	-26.4209E-3
922.961E-6	38.9401E-12	112.756E-3	-13.4137E-3	38.2093E-12	113.839E-3	-22.4596E-3
917.959E-6	38.9526E-12	118.570E-3	-1.41105E-3	38.9680E-12	123.329E-3	-34.8863E-3
912.956E-6	38.6024E-12	136.912E-3	-5.86041E-3	39.1595E-12	115.615E-3	-36.9900E-3
907.954E-6	38.9567E-12	147.299E-3	-18.4153E-3	39.0782E-12	104.590E-3	-16.4433E-3
902.951E-6	38.7343E-12	132.440E-3	-17.7050E-3	38.8073E-12	115.924E-3	558.114E-6
897.949E-6	39.0606E-12	107.926E-3	-17.9221E-3	39.1619E-12	126.021E-3	-224.731E-6
892.946E-6	38.7412E-12	100.973E-3	-9.21349E-3	39.8127E-12	130.978E-3	-10.6188E-3
887.944E-6	39.0176E-12	114.806E-3	1.71178E-3	40.1699E-12	134.731E-3	-15.1256E-3
882.941E-6	39.6705E-12	139.031E-3	-11.3725E-3	39.5113E-12	136.423E-3	-10.2994E-3
877.939E-6	39.7188E-12	151.597E-3	-24.2745E-3	39.7628E-12	138.701E-3	-10.8129E-3
872.936E-6	39.7530E-12	147.147E-3	-5.23572E-3	39.6222E-12	137.418E-3	-23.2954E-3
867.934E-6	39.4791E-12	149.065E-3	10.1602E-3	39.4532E-12	144.510E-3	-31.4309E-3
862.931E-6	39.8529E-12	165.210E-3	-7.04776E-3	39.3337E-12	162.727E-3	-31.4225E-3
857.929E-6	39.4173E-12	167.294E-3	-16.9927E-3	39.7142E-12	181.961E-3	-32.3741E-3
852.926E-6	39.4803E-12	157.219E-3	-6.15426E-3	38.5187E-12	189.886E-3	-30.6059E-3
847.924E-6	38.9127E-12	153.103E-3	-12.0338E-3	38.3673E-12	181.044E-3	-35.1593E-3
842.921E-6	38.7751E-12	144.949E-3	-24.9054E-3	38.3865E-12	170.720E-3	-38.6468E-3
837.919E-6	38.4235E-12	138.396E-3	-25.5827E-3	38.2415E-12	164.340E-3	-21.3212E-3
832.916E-6	38.8443E-12	152.792E-3	-23.1264E-3	37.7041E-12	166.169E-3	-6.75012E-3
827.914E-6	38.2313E-12	173.989E-3	-18.0668E-3	37.9178E-12	167.959E-3	-12.3987E-3
822.911E-6	37.8524E-12	172.603E-3	-30.3721E-3	38.2138E-12	174.697E-3	-17.2198E-3
817.909E-6	38.0233E-12	166.650E-3	-48.1958E-3	37.5173E-12	194.858E-3	-7.12312E-3
812.906E-6	38.5788E-12	179.399E-3	-40.4076E-3	38.3025E-12	204.789E-3	11.1060E-3
807.904E-6	38.1739E-12	194.449E-3	-19.6866E-3	38.7152E-12	220.532E-3	9.07441E-3
802.901E-6	37.6975E-12	207.679E-3	1.79343E-3	38.8064E-12	259.666E-3	-14.6923E-3
797.899E-6	37.7983E-12	211.170E-3	15.3077E-3	38.7913E-12	275.690E-3	-29.4824E-3
792.896E-6	37.7781E-12	200.835E-3	468.654E-6	39.3009E-12	260.520E-3	-27.7439E-3
787.894E-6	38.0028E-12	195.159E-3	-30.6228E-3	39.1348E-12	254.011E-3	-17.6966E-3
782.891E-6	38.2176E-12	203.541E-3	-40.7941E-3	38.7434E-12	261.598E-3	-14.4558E-3
777.889E-6	37.9083E-12	220.136E-3	-28.5878E-3	38.9447E-12	276.126E-3	-22.3451E-3
772.886E-6	37.5454E-12	226.749E-3	-20.3907E-3	38.0958E-12	288.339E-3	-22.4229E-3
767.884E-6	37.4907E-12	230.125E-3	-21.0435E-3	38.0933E-12	299.409E-3	-18.5175E-3
762.881E-6	36.9719E-12	244.848E-3	-22.6767E-3	37.7451E-12	313.451E-3	-19.3449E-3
757.879E-6	36.6297E-12	256.002E-3	-31.6032E-3	37.2494E-12	314.342E-3	-20.8267E-3
752.876E-6	36.5237E-12	254.095E-3	-29.5341E-3	36.9188E-12	293.093E-3	-29.0537E-3
747.874E-6	36.5596E-12	264.793E-3	-15.6198E-3	36.7474E-12	292.066E-3	-36.9733E-3
742.871E-6	36.4294E-12	289.028E-3	-25.6708E-3	36.3083E-12	328.782E-3	-32.8158E-3
737.869E-6	35.9807E-12	303.082E-3	-40.9578E-3	36.1013E-12	352.423E-3	-29.3223E-3
732.866E-6	36.0924E-12	307.790E-3	-33.8353E-3	36.4907E-12	354.154E-3	-31.4792E-3
727.864E-6	36.5568E-12	311.140E-3	-27.2354E-3	36.1344E-12	370.018E-3	-34.6688E-3
722.861E-6	36.2449E-12	322.031E-3	-33.0087E-3	36.4996E-12	394.913E-3	-34.4979E-3
717.859E-6	36.2610E-12	337.797E-3	-27.6124E-3	36.2160E-12	412.988E-3	-26.2456E-3
712.856E-6	36.8710E-12	350.882E-3	-16.5306E-3	36.4228E-12	434.758E-3	-16.0139E-3
707.854E-6	37.1086E-12	366.180E-3	-11.1719E-3	36.3586E-12	456.492E-3	-17.9458E-3
702.851E-6	37.0477E-12	388.861E-3	-10.6904E-3	36.5208E-12	465.291E-3	-25.1224E-3
697.849E-6	36.8809E-12	412.682E-3	-14.0791E-3	36.6100E-12	463.102E-3	-20.9562E-3
692.846E-6	37.0449E-12	436.838E-3	-3.35742E-3	36.4516E-12	469.339E-3	-14.0961E-3
687.844E-6	36.5460E-12	460.574E-3	9.08037E-3	36.3087E-12	488.474E-3	-14.0385E-3
682.841E-6	36.0694E-12	463.631E-3	-798.427E-6	35.8421E-12	517.200E-3	-13.3311E-3
677.839E-6	35.0630E-12	452.418E-3	-8.01392E-3	35.7981E-12	538.272E-3	-12.9221E-3
672.836E-6	34.9807E-12	454.248E-3	-6.38557E-3	35.0971E-12	534.324E-3	-14.4637E-3
667.834E-6	35.0959E-12	468.665E-3	-16.0322E-3	34.7075E-12	538.237E-3	-10.1681E-3
662.831E-6	34.2471E-12	487.011E-3	-23.0559E-3	34.2516E-12	561.285E-3	-10.5259E-3
657.829E-6	33.6109E-12	503.140E-3	-13.5037E-3	34.4192E-12	577.390E-3	-11.9639E-3
652.826E-6	33.1007E-12	508.316E-3	-4.85004E-3	33.9670E-12	590.668E-3	-5.04992E-3
647.824E-6	33.4891E-12	508.327E-3	-10.0006E-3	33.9198E-12	611.419E-3	-4.61046E-3
642.821E-6	33.1123E-12	522.469E-3	-13.0489E-3	33.9307E-12	628.055E-3	-10.2228E-3
637.819E-6	32.9734E-12	551.088E-3	-5.51904E-3	34.0496E-12	653.835E-3	-13.2934E-3
632.816E-6	33.3394E-12	584.346E-3	-1.27221E-3	33.6905E-12	691.112E-3	-16.7475E-3
627.814E-6	33.5558E-12	616.736E-3	-3.91735E-3	33.3964E-12	707.048E-3	-13.5434E-3
622.811E-6	32.8086E-12	640.271E-3	-635.341E-6	33.5539E-12	708.414E-3	-12.1556E-3
617.809E-6	32.7296E-12	652.087E-3	-2.84392E-3	33.1827E-12	717.414E-3	-25.3851E-3
612.806E-6	33.2285E-12	667.757E-3	-12.6262E-3	33.0192E-12	727.874E-3	-33.0967E-3
607.804E-6	32.9578E-12	684.386E-3	-11.9568E-3	32.6291E-12	747.971E-3	-19.0473E-3
602.801E-6	32.5380E-12	693.768E-3	-16.1390E-3	32.5125E-12	780.277E-3	4.27726E-3
597.799E-6	32.3698E-12	717.770E-3	-24.4677E-3	31.9215E-12	802.556E-3	7.68893E-3
592.796E-6	32.2268E-12	742.517E-3	-11.8302E-3	31.9654E-12	808.846E-3	-5.18801E-3
587.794E-6	32.0094E-12	764.943E-3	-6.49789E-3	31.8918E-12	812.916E-3	-13.6154E-3
582.791E-6	31.2588E-12	798.770E-3	-17.5810E-3	31.5671E-12	822.157E-3	-13.6131E-3
577.789E-6	30.8369E-12	812.841E-3	-22.5279E-3	30.7857E-12	832.916E-3	-4.70312E-3
572.786E-6	30.7553E-12	807.533E-3	-35.4160E-3	30.8867E-12	855.696E-3	2.57119E-3
567.784E-6	30.5003E-12	825.121E-3	-48.6704E-3	30.9115E-12	894.281E-3	-2.60556E-3
562.781E-6	29.9449E-12	853.986E-3	-40.2349E-3	30.4988E-12	923.067E-3	-16.5134E-3
557.779E-6	29.4529E-12	859.587E-3	-28.7144E-3	29.7808E-12	932.136E-3	-23.0559E-3
552.776E-6	29.6744E-12	862.516E-3	-35.4273E-3	30.0043E-12	943.304E-3	-19.2848E-3
547.774E-6	29.6686E-12	881.235E-3	-42.0297E-3	29.9997E-12	960.553E-3	-21.7479E-3
542.771E-6	29.1898E-12	901.896E-3	-31.7525E-3	29.6367E-12	977.656E-3	-29.9916E-3
537.769E-6	28.9706E-12	922.576E-3	-20.0973E-3	29.0990E-12	992.344E-3	-32.5624E-3
532.766E-6	28.4197E-12	940.234E-3	-18.4153E-3	28.7780E-12	1.00233E+0	-29.6236E-3
527.764E-6	28.5881E-12	951.528E-3	-23.6495E-3	28.3230E-12	1.00963E+0	-25.0519E-3
522.761E-6	28.5428E-12	966.738E-3	-26.9072E-3	27.6677E-12	1.01292E+0	-32.4039E-3
517.759E-6	28.5456E-12	984.509E-3	-16.8704E-3	27.7052E-12	1.01334E+0	-36.9105E-3
512.756E-6	27.6433E-12	1.00745E+0	-16.9323E-3	27.3779E-12	1.02205E+0	-29.4886E-3
507.754E-6	27.5475E-12	1.03051E+0	-34.3922E-3	26.7872E-12	1.04194E+0	-27.1129E-3
502.751E-6	27.0332E-12	1.02985E+0	-29.6945E-3	26.1553E-12	1.05943E+0	-15.9775E-3
497.749E-6	26.3422E-12	1.02480E+0	-12.0404E-3	26.4134E-12	1.07514E+0	-1.15351E-3
492.746E-6	25.2761E-12	1.04107E+0	-6.69894E-3	26.1730E-12	1.09680E+0	-10.5367E-3
487.744E-6	24.7107E-12	1.05125E+0	613.979E-6	25.5325E-12	1.11439E+0	-24.9883E-3
482.741E-6	24.3609E-12	1.03831E+0	10.4995E-3	24.9727E-12	1.11294E+0	-17.0903E-3
477.739E-6	23.9305E-12	1.02934E+0	11.0094E-3	25.2229E-12	1.11791E+0	-11.0487E-3
472.736E-6	23.8963E-12	1.03084E+0	-2.06356E-3	25.1557E-12	1.13018E+0	-18.6673E-3
467.734E-6	23.3710E-12	1.02534E+0	-15.3387E-3	24.3224E-12	1.12574E+0	-21.9025E-3
462.731E-6	23.0623E-12	1.03274E+0	-14.0634E-3	23.3939E-12	1.12433E+0	-24.7010E-3
457.729E-6	22.8047E-12	1.06766E+0	-6.17594E-3	23.1762E-12	1.12212E+0	-35.2669E-3
452.726E-6	22.9203E-12	1.09694E+0	-11.6909E-3	23.0620E-12	1.10984E+0	-44.3389E-3
447.724E-6	22.3682E-12	1.10293E+0	-25.2395E-3	22.5381E-12	1.10235E+0	-46.8970E-3
442.721E-6	21.7446E-12	1.10502E+0	-28.0961E-3	21.5456E-12	1.10997E+0	-42.7147E-3
437.719E-6	21.7475E-12	1.11567E+0	-29.6125E-3	21.2086E-12	1.12725E+0	-23.6786E-3
432.716E-6	21.6033E-12	1.12800E+0	-34.5471E-3	21.1273E-12	1.12896E+0	-6.10794E-3
427.714E-6	20.9734E-12	1.13675E+0	-32.1737E-3	20.4980E-12	1.12121E+0	-14.4781E-3
422.711E-6	20.0697E-12	1.13269E+0	-26.0223E-3	19.9352E-12	1.12469E+0	-25.6517E-3
417.709E-6	20.0043E-12	1.11680E+0	-19.2760E-3	19.4029E-12	1.12969E+0	-14.6781E-3
412.706E-6	19.9051E-12	1.12208E+0	-13.1946E-3	19.4574E-12	1.12610E+0	-6.52812E-3
407.704E-6	19.4241E-12	1.14217E+0	-9.35521E-3	19.3219E-12	1.11084E+0	-10.4822E-3
402.701E-6	18.7340E-12	1.14768E+0	-11.8223E-3	18.7759E-12	1.10726E+0	-10.1717E-3
397.699E-6	18.5876E-12	1.14267E+0	-23.1558E-3	18.3013E-12	1.12543E+0	-9.08770E-3
392.696E-6	18.3634E-12	1.13087E+0	-24.3970E-3	17.8354E-12	1.12712E+0	-13.6816E-3
387.694E-6	17.9548E-12	1.12154E+0	-17.6442E-3	17.7389E-12	1.11833E+0	-23.1990E-3
382.691E-6	17.5444E-12	1.12806E+0	-17.1054E-3	17.3848E-12	1.12522E+0	-26.1153E-3
377.689E-6	17.2968E-12	1.13811E+0	-21.0611E-3	17.4315E-12	1.12592E+0	-18.0410E-3
372.686E-6	16.8999E-12	1.13648E+0	-27.8995E-3	16.9033E-12	1.11686E+0	-17.5327E-3
367.684E-6	16.4561E-12	1.12972E+0	-26.8854E-3	16.7077E-12	1.11897E+0	-20.2733E-3
362.681E-6	16.2993E-12	1.11797E+0	-15.7691E-3	16.3507E-12	1.11982E+0	-12.9616E-3
357.679E-6	16.1098E-12	1.10872E+0	-5.69208E-3	15.9659E-12	1.10520E+0	-7.12735E-3
352.676E-6	15.6394E-12	1.11784E+0	-5.11414E-3	15.5514E-12	1.09100E+0	-14.2479E-3
347.674E-6	15.0796E-12	1.12885E+0	-10.3696E-3	15.0768E-12	1.08891E+0	-26.9646E-3
342.671E-6	14.8217E-12	1.12006E+0	-13.9128E-3	14.5917E-12	1.07901E+0	-24.8581E-3
337.669E-6	14.3888E-12	1.10552E+0	-19.9691E-3	14.3973E-12	1.05869E+0	-9.12992E-3
332.666E-6	13.8237E-12	1.10536E+0	-21.9310E-3	14.0258E-12	1.04133E+0	1.09797E-3
327.664E-6	13.2472E-12	1.09559E+0	-13.1519E-3	13.1560E-12	1.01704E+0	-1.50213E-3
322.661E-6	13.1339E-12	1.06448E+0	-1.34120E-3	12.8564E-12	990.844E-3	-14.5482E-3
317.659E-6	12.8149E-12	1.04526E+0	5.56832E-3	12.8860E-12	979.980E-3	-27.1600E-3
312.656E-6	12.2196E-12	1.03300E+0	3.04438E-3	12.4420E-12	978.458E-3	-31.5849E-3
307.654E-6	11.7529E-12	1.01006E+0	-2.88033E-3	11.7241E-12	968.042E-3	-23.9822E-3
302.651E-6	11.6733E-12	989.159E-3	-9.19022E-3	11.5632E-12	944.861E-3	-11.1286E-3
297.649E-6	11.5392E-12	974.581E-3	-10.3416E-3	11.4871E-12	925.078E-3	-14.7918E-3
292.646E-6	11.2165E-12	971.952E-3	-23.4556E-3	11.1285E-12	917.825E-3	-26.7253E-3
287.644E-6	10.9062E-12	978.716E-3	-43.2084E-3	10.7201E-12	918.883E-3	-26.8688E-3
282.641E-6	10.7122E-12	977.726E-3	-38.4730E-3	10.4141E-12	923.060E-3	-15.9328E-3
277.639E-6	10.7463E-12	969.869E-3	-32.0084E-3	10.3611E-12	917.330E-3	-11.5709E-3
272.636E-6	10.3672E-12	969.665E-3	-27.2789E-3	10.1512E-12	893.426E-3	-23.2197E-3
267.634E-6	9.90808E-12	966.632E-3	-15.5364E-3	9.75759E-12	861.734E-3	-30.9121E-3
262.631E-6	9.66590E-12	950.778E-3	-22.9606E-3	9.50807E-12	842.464E-3	-25.0694E-3
257.629E-6	9.48353E-12	932.592E-3	-40.5460E-3	9.30984E-12	847.605E-3	-17.4367E-3
252.626E-6	9.08009E-12	910.785E-3	-37.4259E-3	8.88321E-12	844.397E-3	-10.1881E-3
247.624E-6	8.63259E-12	888.840E-3	-25.3692E-3	8.61923E-12	810.869E-3	-4.96556E-3
242.621E-6	8.47475E-12	868.353E-3	-19.1280E-3	8.59985E-12	774.675E-3	-15.5585E-3
237.619E-6	8.22688E-12	842.200E-3	-4.29539E-3	8.34177E-12	756.165E-3	-24.3884E-3
232.616E-6	7.80914E-12	823.566E-3	5.61164E-3	7.82353E-12	753.120E-3	-17.4729E-3
227.614E-6	7.32373E-12	818.188E-3	-1.76358E-3	7.44583E-12	736.064E-3	-18.8341E-3
222.611E-6	6.99963E-12	801.113E-3	-8.56152E-3	7.30556E-12	701.399E-3	-23.0416E-3
217.609E-6	6.76407E-12	764.717E-3	-12.1787E-3	6.96440E-12	679.217E-3	-16.6170E-3
212.606E-6	6.54748E-12	733.290E-3	-15.4661E-3	6.60387E-12	665.519E-3	-17.7615E-3
207.604E-6	6.36010E-12	710.804E-3	-14.2109E-3	6.44004E-12	648.912E-3	-23.4770E-3
202.601E-6	6.21707E-12	696.240E-3	-11.5036E-3	6.32625E-12	634.382E-3	-14.5467E-3
197.599E-6	5.97207E-12	693.529E-3	-16.1591E-3	6.05935E-12	634.096E-3	-9.06632E-3
192.596E-6	5.83879E-12	684.518E-3	-18.3501E-3	5.71123E-12	639.990E-3	-14.0515E-3
187.594E-6	5.61030E-12	670.088E-3	-11.0356E-3	5.66267E-12	631.911E-3	-19.8160E-3
182.591E-6	5.56047E-12	658.971E-3	-15.9555E-3	5.58327E-12	609.461E-3	-31.4743E-3
177.589E-6	5.30778E-12	642.575E-3	-25.1554E-3	5.31993E-12	575.080E-3	-40.4825E-3
172.586E-6	5.08748E-12	629.608E-3	-15.9281E-3	4.93158E-12	545.701E-3	-39.1659E-3
167.584E-6	4.95401E-12	622.349E-3	-9.17222E-3	4.87345E-12	535.139E-3	-36.9562E-3
162.581E-6	4.81798E-12	606.113E-3	-18.6941E-3	4.75782E-12	529.291E-3	-27.1254E-3
157.579E-6	4.56652E-12	587.912E-3	-24.0840E-3	4.52845E-12	515.686E-3	-8.32168E-3
152.576E-6	4.28572E-12	581.816E-3	-19.9116E-3	4.20719E-12	496.910E-3	-10.2383E-3
147.574E-6	4.12573E-12	581.306E-3	-17.8500E-3	4.06837E-12	486.112E-3	-25.1020E-3
142.571E-6	3.99010E-12	562.559E-3	-20.2154E-3	3.93442E-12	486.169E-3	-19.8904E-3
137.569E-6	3.83352E-12	528.696E-3	-27.7804E-3	3.76079E-12	479.348E-3	-13.3758E-3
132.566E-6	3.56003E-12	508.103E-3	-22.4030E-3	3.54563E-12	460.002E-3	-21.0397E-3
127.564E-6	3.36925E-12	500.991E-3	-1.17666E-3	3.41844E-12	449.153E-3	-20.1243E-3
122.561E-6	3.29757E-12	492.721E-3	9.19266E-3	3.21207E-12	444.951E-3	-15.9689E-3
117.559E-6	3.12927E-12	480.434E-3	3.11302E-3	3.00409E-12	435.223E-3	-15.1331E-3
112.556E-6	2.92923E-12	464.765E-3	-10.7142E-3	2.86651E-12	420.211E-3	-8.46326E-3
107.554E-6	2.79495E-12	450.484E-3	-17.3684E-3	2.73776E-12	412.131E-3	-5.51726E-3
102.551E-6	2.64509E-12	441.781E-3	-7.27383E-3	2.58805E-12	403.392E-3	-13.5455E-3
97.5488E-6	2.49941E-12	434.279E-3	4.13252E-3	2.39413E-12	378.991E-3	-21.3859E-3
92.5463E-6	2.40705E-12	421.114E-3	-1.69795E-3	2.28388E-12	369.496E-3	-18.9798E-3
87.5438E-6	2.31544E-12	409.199E-3	-16.1011E-3	2.25192E-12	375.222E-3	-13.2199E-3
82.5413E-6	2.12160E-12	405.391E-3	-20.6352E-3	2.08484E-12	370.476E-3	-8.52292E-3
77.5388E-6	1.95389E-12	399.825E-3	-14.7102E-3	1.81653E-12	363.708E-3	-2.49059E-3
72.5363E-6	1.85155E-12	392.166E-3	-5.59634E-3	1.77340E-12	361.470E-3	-9.67851E-3
67.5338E-6	1.71903E-12	386.791E-3	-3.04119E-3	1.73615E-12	364.915E-3	-21.1774E-3
62.5313E-6	1.51666E-12	376.791E-3	-20.4398E-3	1.56545E-12	375.043E-3	-13.7330E-3
57.5288E-6	1.34624E-12	364.286E-3	-36.6094E-3	1.31681E-12	369.452E-3	-6.92535E-3
52.5263E-6	1.27472E-12	359.809E-3	-18.1895E-3	1.24035E-12	347.945E-3	-2.01780E-3
47.5238E-6	1.21307E-12	357.079E-3	-1.07574E-3	1.29264E-12	341.064E-3	5.65704E-3
42.5213E-6	1.10174E-12	355.172E-3	-13.0269E-3	1.08580E-12	346.673E-3	-6.33086E-3
37.5188E-6	961.031E-15	351.424E-3	-25.1620E-3	875.164E-15	346.156E-3	-19.9791E-3
32.5163E-6	839.597E-15	334.821E-3	-22.4622E-3	742.926E-15	351.682E-3	-19.3805E-3
27.5138E-6	695.206E-15	328.707E-3	-14.6689E-3	728.540E-15	368.956E-3	-18.3093E-3
22.5113E-6	549.515E-15	340.668E-3	-14.5401E-3	604.385E-15	369.909E-3	-13.8866E-3
17.5088E-6	412.290E-15	344.418E-3	-27.6071E-3	372.400E-15	355.714E-3	-10.2101E-3
12.5063E-6	292.897E-15	336.390E-3	-41.1238E-3	249.135E-15	357.037E-3	-14.4988E-3
7.50375E-6	220.361E-15	341.523E-3	-33.7656E-3	224.398E-15	365.514E-3	-12.9103E-3
2.50125E-6	85.0722E-15	362.649E-3	-17.2953E-3	8.44690E-15	367.085E-3	-2.22118E-3
-2.50125E-6	-39.6226E-15	373.007E-3	-11.9371E-3	-141.804E-15	369.522E-3	-2.96994E-3
-7.50375E-6	-144.063E-15	377.385E-3	-15.2735E-3	-175.705E-15	369.991E-3	-19.1951E-3
-12.5063E-6	-348.827E-15	379.877E-3	-20.0983E-3	-284.679E-15	379.577E-3	-30.0140E-3
-17.5088E-6	-461.184E-15	372.582E-3	-28.4618E-3	-489.923E-15	401.132E-3	-36.1180E-3
-22.5113E-6	-589.968E-15	371.498E-3	-31.2813E-3	-601.809E-15	411.411E-3	-37.9214E-3
-27.5138E-6	-712.239E-15	384.512E-3	-17.5326E-3	-719.136E-15	406.712E-3	-20.4353E-3
-32.5163E-6	-850.326E-15	400.771E-3	-8.85075E-3	-832.670E-15	414.381E-3	-15.3050E-3
-37.5188E-6	-1.04135E-12	409.148E-3	-10.2443E-3	-1.03410E-12	442.724E-3	-35.2499E-3
-42.5213E-6	-1.15310E-12	404.004E-3	-9.21578E-3	-1.19836E-12	460.549E-3	-36.6640E-3
-47.5238E-6	-1.27988E-12	400.750E-3	-11.2797E-3	-1.19252E-12	466.383E-3	-24.1071E-3
-52.5263E-6	-1.48904E-12	416.099E-3	-9.84998E-3	-1.40290E-12	477.171E-3	-22.5287E-3
-57.5288E-6	-1.61367E-12	434.137E-3	-10.2904E-3	-1.70076E-12	493.293E-3	-20.2173E-3
-62.5313E-6	-1.78376E-12	445.721E-3	-24.6696E-3	-1.81473E-12	512.196E-3	-19.0395E-3
-67.5338E-6	-1.89466E-12	457.803E-3	-27.5795E-3	-1.92866E-12	533.491E-3	-29.1754E-3
-72.5363E-6	-2.10286E-12	466.041E-3	-12.2102E-3	-2.08296E-12	555.678E-3	-27.5322E-3
-77.5388E-6	-2.36505E-12	470.001E-3	-13.8986E-3	-2.41547E-12	576.591E-3	-18.8306E-3
-82.5413E-6	-2.46164E-12	490.875E-3	-29.8255E-3	-2.54834E-12	597.731E-3	-23.4338E-3
-87.5438E-6	-2.66142E-12	526.708E-3	-28.4716E-3	-2.58841E-12	609.079E-3	-27.5391E-3
-92.5463E-6	-2.85747E-12	550.468E-3	-19.4730E-3	-2.80621E-12	615.453E-3	-22.0136E-3
-97.5488E-6	-3.02948E-12	571.341E-3	-15.3910E-3	-3.17569E-12	628.271E-3	-11.4008E-3
-102.551E-6	-3.23471E-12	586.748E-3	-12.6727E-3	-3.31232E-12	644.836E-3	-5.78352E-3
-107.554E-6	-3.40025E-12	592.022E-3	-14.1249E-3	-3.43008E-12	666.749E-3	-3.70444E-3
-112.556E-6	-3.59960E-12	609.039E-3	-25.5766E-3	-3.60522E-12	690.731E-3	-13.5601E-3
-117.559E-6	-3.82534E-12	617.779E-3	-34.0534E-3	-3.98144E-12	712.590E-3	-27.7180E-3
-122.561E-6	-4.05424E-12	621.453E-3	-30.8857E-3	-4.17979E-12	743.704E-3	-24.1709E-3
-127.564E-6	-4.28311E-12	652.656E-3	-23.0344E-3	-4.33852E-12	776.891E-3	-16.6983E-3
-132.566E-6	-4.57300E-12	682.558E-3	-11.4875E-3	-4.61341E-12	802.186E-3	-18.6942E-3
-137.569E-6	-4.89505E-12	694.856E-3	-8.28386E-3	-4.97374E-12	833.814E-3	-14.4794E-3
-142.571E-6	-5.16048E-12	724.866E-3	-14.5294E-3	-5.18184E-12	878.749E-3	-5.99537E-3
-147.574E-6	-5.47398E-12	762.487E-3	-14.4713E-3	-5.41001E-12	916.384E-3	-10.0050E-3
-152.576E-6	-5.82926E-12	787.091E-3	-10.5142E-3	-5.70839E-12	940.240E-3	-11.5797E-3
-157.579E-6	-6.08197E-12	823.385E-3	-12.0242E-3	-6.05518E-12	973.824E-3	-6.19542E-3
-162.581E-6	-6.45726E-12	860.239E-3	-4.22767E-3	-6.33288E-12	1.01341E+0	-8.97427E-3
-167.584E-6	-6.79983E-12	885.853E-3	4.41484E-3	-6.63880E-12	1.04943E+0	-11.9947E-3
-172.586E-6	-7.25727E-12	922.148E-3	-4.40613E-3	-7.23286E-12	1.08119E+0	-8.16409E-3
-177.589E-6	-7.51460E-12	962.079E-3	-6.74708E-3	-7.58556E-12	1.10567E+0	-8.36205E-3
-182.591E-6	-7.78966E-12	987.820E-3	237.278E-6	-7.78740E-12	1.13018E+0	-17.4755E-3
-187.594E-6	-8.06448E-12	1.00544E+0	-8.58968E-3	-8.08346E-12	1.16413E+0	-39.0905E-3
-192.596E-6	-8.43874E-12	1.03786E+0	-17.5465E-3	-8.55406E-12	1.19324E+0	-57.9084E-3
-197.599E-6	-8.73173E-12	1.07324E+0	-12.3830E-3	-8.89587E-12	1.20400E+0	-46.3175E-3
-202.601E-6	-9.05928E-12	1.09863E+0	-11.3270E-3	-9.07822E-12	1.23463E+0	-17.5860E-3
-207.604E-6	-9.33975E-12	1.12963E+0	-17.4972E-3	-9.41291E-12	1.28798E+0	-8.71639E-3
-212.606E-6	-9.76679E-12	1.15957E+0	-27.1600E-3	-9.93156E-12	1.32433E+0	-19.3155E-3
-217.609E-6	-10.2531E-12	1.19039E+0	-36.4220E-3	-10.4050E-12	1.36057E+0	-25.8862E-3
-222.611E-6	-10.7514E-12	1.23101E+0	-31.4103E-3	-10.7962E-12	1.40980E+0	-26.8495E-3
-227.614E-6	-11.2612E-12	1.27063E+0	-22.9954E-3	-11.1521E-12	1.44302E+0	-26.8703E-3
-232.616E-6	-11.8422E-12	1.30809E+0	-30.5548E-3	-11.7450E-12	1.47778E+0	-17.6853E-3
-237.619E-6	-12.3265E-12	1.34904E+0	-35.0485E-3	-12.3528E-12	1.52098E+0	-15.0849E-3
-242.621E-6	-12.9854E-12	1.38672E+0	-23.5791E-3	-12.7387E-12	1.55024E+0	-26.5156E-3
-247.624E-6	-13.3777E-12	1.42358E+0	-24.5912E-3	-13.2607E-12	1.59271E+0	-19.7851E-3
-252.626E-6	-13.8621E-12	1.47292E+0	-42.1288E-3	-13.8524E-12	1.65486E+0	-10.7211E-3
-257.629E-6	-14.4237E-12	1.52275E+0	-39.2805E-3	-14.4022E-12	1.69562E+0	-11.6811E-3
-262.631E-6	-15.0798E-12	1.55934E+0	-23.0813E-3	-14.9248E-12	1.71204E+0	-1.37306E-3
-267.634E-6	-15.6280E-12	1.59588E+0	-21.7151E-3	-15.6252E-12	1.74235E+0	-2.62025E-3
-272.636E-6	-16.0982E-12	1.62966E+0	-21.7491E-3	-16.2351E-12	1.78613E+0	-14.8809E-3
-277.639E-6	-16.5255E-12	1.65239E+0	-19.8194E-3	-16.5988E-12	1.81449E+0	-18.4434E-3
-282.641E-6	-17.0413E-12	1.69193E+0	-22.0045E-3	-17.1990E-12	1.82753E+0	-33.2331E-3
-287.644E-6	-17.4590E-12	1.73210E+0	-21.4040E-3	-17.8576E-12	1.84213E+0	-47.9174E-3
-292.646E-6	-17.8873E-12	1.74054E+0	-24.0026E-3	-18.3927E-12	1.87132E+0	-41.8068E-3
-297.649E-6	-18.3620E-12	1.75287E+0	-28.1010E-3	-18.6354E-12	1.90591E+0	-23.7172E-3
-302.651E-6	-19.0621E-12	1.78879E+0	-21.6105E-3	-19.1599E-12	1.92226E+0	-1.37096E-3
-307.654E-6	-19.6780E-12	1.82982E+0	-13.0152E-3	-20.0886E-12	1.94095E+0	13.4643E-3
-312.656E-6	-20.5017E-12	1.86575E+0	-11.5452E-3	-20.8552E-12	1.98323E+0	1.03129E-3
-317.659E-6	-21.3744E-12	1.89472E+0	-4.93423E-3	-21.0818E-12	2.03423E+0	-20.7831E-3
-322.661E-6	-21.8573E-12	1.92498E+0	-9.24591E-3	-21.6479E-12	2.08696E+0	-15.5480E-3
-327.664E-6	-22.7030E-12	1.95875E+0	-36.8801E-3	-22.6908E-12	2.13247E+0	-7.58650E-3
-332.666E-6	-23.8168E-12	1.99698E+0	-48.4729E-3	-23.6243E-12	2.14841E+0	-16.4201E-3
-337.669E-6	-24.6009E-12	2.04522E+0	-39.4320E-3	-24.0836E-12	2.15371E+0	-24.5136E-3
-342.671E-6	-25.0275E-12	2.09728E+0	-30.2001E-3	-24.8605E-12	2.18274E+0	-34.1641E-3
-347.674E-6	-25.8176E-12	2.12855E+0	-18.1740E-3	-25.5525E-12	2.21704E+0	-31.5521E-3
-352.676E-6	-26.5555E-12	2.13311E+0	-6.99534E-3	-26.4920E-12	2.22798E+0	-12.0345E-3
-357.679E-6	-27.4203E-12	2.13874E+0	-1.13236E-3	-27.0783E-12	2.23094E+0	-3.82883E-3
-362.681E-6	-27.5845E-12	2.15940E+0	725.926E-6	-27.7339E-12	2.24353E+0	-12.5450E-3
-367.684E-6	-28.5338E-12	2.17850E+0	-15.6800E-3	-28.4472E-12	2.25714E+0	-21.6923E-3
-372.686E-6	-29.2314E-12	2.18854E+0	-34.3978E-3	-29.3374E-12	2.27133E+0	-29.3455E-3
-377.689E-6	-29.9655E-12	2.20611E+0	-19.4520E-3	-30.2187E-12	2.27189E+0	-33.5885E-3
-382.691E-6	-30.0016E-12	2.22425E+0	7.24728E-3	-30.9386E-12	2.26224E+0	-26.1249E-3
-387.694E-6	-30.6684E-12	2.22532E+0	2.29022E-3	-31.5795E-12	2.28524E+0	-23.2718E-3
-392.696E-6	-31.7672E-12	2.20774E+0	-20.2444E-3	-31.9623E-12	2.31706E+0	-29.5215E-3
-397.699E-6	-31.9596E-12	2.20055E+0	-27.5593E-3	-32.8534E-12	2.30449E+0	-28.5113E-3
-402.701E-6	-32.9717E-12	2.21695E+0	-22.6681E-3	-33.9324E-12	2.27772E+0	-19.7988E-3
-407.704E-6	-33.7966E-12	2.23732E+0	-12.3153E-3	-34.2661E-12	2.27603E+0	-20.3485E-3
-412.706E-6	-34.6556E-12	2.24635E+0	-2.33539E-3	-34.6214E-12	2.29374E+0	-21.9934E-3
-417.709E-6	-35.7116E-12	2.24436E+0	-3.56847E-3	-35.5094E-12	2.32412E+0	-10.6606E-3
-422.711E-6	-36.2898E-12	2.25748E+0	-2.53673E-3	-36.7768E-12	2.33043E+0	-5.98173E-3
-427.714E-6	-37.4355E-12	2.27600E+0	9.16127E-3	-38.0577E-12	2.30386E+0	-18.4740E-3
-432.716E-6	-38.2797E-12	2.28360E+0	9.54506E-3	-38.3692E-12	2.29583E+0	-26.2337E-3
-437.719E-6	-39.0094E-12	2.30090E+0	-6.31908E-3	-38.8620E-12	2.29653E+0	-22.7690E-3
-442.721E-6	-39.4985E-12	2.31221E+0	-22.8785E-3	-39.9863E-12	2.27133E+0	-26.5753E-3
-447.724E-6	-40.2768E-12	2.29983E+0	-29.2276E-3	-40.7763E-12	2.24688E+0	-24.0070E-3
-452.726E-6	-41.3571E-12	2.28738E+0	-20.5249E-3	-41.0601E-12	2.23493E+0	-5.83640E-3
-457.729E-6	-42.2265E-12	2.28346E+0	-5.24659E-3	-41.1895E-12	2.21335E+0	-6.70172E-3
-462.731E-6	-42.8204E-12	2.28265E+0	-6.62521E-3	-42.1027E-12	2.18947E+0	-27.1102E-3
-467.734E-6	-43.7912E-12	2.28852E+0	-25.5994E-3	-43.1178E-12	2.17741E+0	-33.9150E-3
-472.736E-6	-44.3450E-12	2.29101E+0	-45.1787E-3	-43.8162E-12	2.17211E+0	-29.8206E-3
-477.739E-6	-45.4100E-12	2.28214E+0	-54.8026E-3	-44.0463E-12	2.15971E+0	-15.1817E-3
-482.741E-6	-46.1336E-12	2.26855E+0	-38.1948E-3	-44.8837E-12	2.14479E+0	9.25544E-3
-487.744E-6	-46.5098E-12	2.25780E+0	-19.1687E-3	-45.9158E-12	2.11813E+0	9.27700E-3
-492.746E-6	-46.6934E-12	2.24116E+0	-27.6257E-3	-46.5459E-12	2.09748E+0	-7.13178E-3
-497.749E-6	-47.9893E-12	2.21681E+0	-32.2513E-3	-46.8586E-12	2.10213E+0	-15.6021E-3
-502.751E-6	-49.0110E-12	2.19197E+0	-8.75803E-3	-47.7829E-12	2.08144E+0	-19.8509E-3
-507.754E-6	-49.5480E-12	2.16900E+0	7.08675E-3	-48.7615E-12	2.04138E+0	-9.94777E-3
-512.756E-6	-49.2956E-12	2.16655E+0	-7.28385E-3	-49.4925E-12	2.02141E+0	-4.80164E-3
-517.759E-6	-50.1622E-12	2.16047E+0	-16.3767E-3	-49.8998E-12	2.00298E+0	-26.9136E-3
-522.761E-6	-50.9979E-12	2.11883E+0	-13.8572E-3	-50.5304E-12	1.97952E+0	-40.5102E-3
-527.764E-6	-51.7210E-12	2.08118E+0	-26.3896E-3	-51.7220E-12	1.96592E+0	-14.1115E-3
-532.766E-6	-51.8459E-12	2.06899E+0	-32.2307E-3	-51.9036E-12	1.93698E+0	13.5937E-3
-537.769E-6	-52.0073E-12	2.04738E+0	-19.1076E-3	-52.6476E-12	1.88901E+0	5.78779E-3
-542.771E-6	-52.8156E-12	2.00614E+0	-20.2914E-3	-53.1840E-12	1.86884E+0	-14.7591E-3
-547.774E-6	-53.6514E-12	1.96631E+0	-19.4335E-3	-53.9181E-12	1.85394E+0	-36.3655E-3
-552.776E-6	-53.8997E-12	1.92944E+0	1.36570E-3	-53.6242E-12	1.79937E+0	-39.6328E-3
-557.779E-6	-53.7269E-12	1.89402E+0	-12.0788E-3	-54.2767E-12	1.73436E+0	-19.0419E-3
-562.781E-6	-55.5174E-12	1.87511E+0	-37.1004E-3	-55.3176E-12	1.69352E+0	-10.0317E-3
-567.784E-6	-56.3096E-12	1.85610E+0	-23.0313E-3	-56.2229E-12	1.68586E+0	-16.3871E-3
-572.786E-6	-57.9427E-12	1.81651E+0	-11.9716E-3	-57.3024E-12	1.68459E+0	-13.8902E-3
-577.789E-6	-58.0299E-12	1.78413E+0	-14.1606E-3	-57.8252E-12	1.65261E+0	3.37857E-3
-582.791E-6	-58.6548E-12	1.76062E+0	-9.15649E-3	-58.3177E-12	1.59314E+0	20.3844E-3
-587.794E-6	-59.3642E-12	1.72086E+0	-10.1599E-3	-58.8594E-12	1.54640E+0	24.9326E-3
-592.796E-6	-60.1724E-12	1.68593E+0	-14.9623E-3	-59.2352E-12	1.53276E+0	3.16692E-3
-597.799E-6	-61.0887E-12	1.65665E+0	-18.4001E-3	-59.9098E-12	1.51565E+0	-34.4054E-3
-602.801E-6	-60.5518E-12	1.61651E+0	-25.8105E-3	-60.6825E-12	1.47927E+0	-40.7759E-3
-607.804E-6	-61.3001E-12	1.58963E+0	-18.3638E-3	-60.5848E-12	1.42929E+0	-21.2724E-3
-612.806E-6	-61.5786E-12	1.57317E+0	-11.4352E-3	-61.1511E-12	1.36880E+0	-9.09945E-3
-617.809E-6	-61.8939E-12	1.54186E+0	-20.1884E-3	-62.2272E-12	1.33913E+0	360.656E-6
-622.811E-6	-61.6273E-12	1.50128E+0	-21.4915E-3	-62.1709E-12	1.34123E+0	-2.05164E-3
-627.814E-6	-61.6881E-12	1.45313E+0	-9.59914E-3	-61.7231E-12	1.30430E+0	-13.2180E-3
-632.816E-6	-62.0074E-12	1.39638E+0	-364.397E-6	-62.2458E-12	1.24780E+0	-2.09243E-3
-637.819E-6	-62.1657E-12	1.35514E+0	-11.6433E-3	-63.7184E-12	1.22189E+0	10.9316E-3
-642.821E-6	-63.4745E-12	1.32480E+0	-21.9678E-3	-63.4917E-12	1.20028E+0	-8.46011E-3
-647.824E-6	-63.4158E-12	1.28614E+0	-21.8526E-3	-63.6104E-12	1.17319E+0	-28.9845E-3
-652.826E-6	-64.2679E-12	1.25925E+0	-17.8099E-3	-64.4189E-12	1.14853E+0	-25.1773E-3
-657.829E-6	-65.8403E-12	1.24777E+0	1.86209E-3	-64.8663E-12	1.11693E+0	-24.0658E-3
-662.831E-6	-66.4216E-12	1.23465E+0	18.6581E-3	-65.4870E-12	1.06610E+0	-19.7350E-3
-667.834E-6	-67.4492E-12	1.21729E+0	7.38679E-3	-66.3360E-12	1.01555E+0	-16.2257E-3
-672.836E-6	-67.9155E-12	1.18472E+0	3.44495E-3	-66.9960E-12	980.298E-3	-22.0042E-3
-677.839E-6	-68.2807E-12	1.14294E+0	19.2127E-3	-67.4081E-12	957.223E-3	-8.93479E-3
-682.841E-6	-68.7055E-12	1.10035E+0	14.8893E-3	-67.9677E-12	952.870E-3	3.26214E-3
-687.844E-6	-69.6855E-12	1.06546E+0	-1.72396E-3	-68.5858E-12	940.063E-3	-14.2522E-3
-692.846E-6	-68.7952E-12	1.04040E+0	-15.1554E-3	-68.7544E-12	907.100E-3	-35.0584E-3
-697.849E-6	-68.6152E-12	1.01862E+0	-28.7999E-3	-69.4820E-12	874.522E-3	-26.4667E-3
-702.851E-6	-69.7576E-12	996.070E-3	-39.5693E-3	-69.4738E-12	836.431E-3	-18.9098E-3
-707.854E-6	-69.3264E-12	953.120E-3	-42.9986E-3	-70.2925E-12	794.020E-3	-23.2371E-3
-712.856E-6	-68.3488E-12	909.176E-3	-34.7335E-3	-69.5682E-12	771.134E-3	-9.91200E-3
-717.859E-6	-68.4764E-12	883.672E-3	-7.70726E-3	-70.0419E-12	749.294E-3	-9.98778E-3
-722.861E-6	-69.3460E-12	848.858E-3	12.8943E-3	-70.7137E-12	717.552E-3	-18.9403E-3
-727.864E-6	-69.5173E-12	805.179E-3	-9.03401E-3	-70.7215E-12	710.199E-3	1.76443E-3
-732.866E-6	-69.0322E-12	786.407E-3	-33.6172E-3	-69.4972E-12	709.117E-3	9.55037E-3
-737.869E-6	-68.7774E-12	773.145E-3	-23.6143E-3	-69.2204E-12	669.972E-3	-11.6337E-3
-742.871E-6	-69.8655E-12	740.280E-3	-9.45082E-3	-70.8285E-12	623.552E-3	-27.0879E-3
-747.874E-6	-70.4660E-12	714.515E-3	-9.16785E-3	-71.2529E-12	607.647E-3	-29.1548E-3
-752.876E-6	-71.3787E-12	696.761E-3	-14.5309E-3	-70.4583E-12	591.821E-3	-18.7315E-3
-757.879E-6	-71.6729E-12	671.839E-3	-31.6563E-3	-70.0996E-12	568.618E-3	-2.04522E-3
-762.881E-6	-72.1772E-12	649.492E-3	-37.6981E-3	-71.4889E-12	561.000E-3	-5.34171E-3
-767.884E-6	-72.9789E-12	639.746E-3	-19.1728E-3	-72.3439E-12	550.422E-3	-38.5775E-3
-772.886E-6	-73.8005E-12	630.524E-3	-20.3921E-3	-72.4175E-12	528.607E-3	-42.0600E-3
-777.889E-6	-73.8214E-12	594.880E-3	-27.1993E-3	-72.5460E-12	509.108E-3	-3.87250E-3
-782.891E-6	-73.0814E-12	544.101E-3	-9.51263E-3	-72.6769E-12	491.210E-3	1.45681E-3
-787.894E-6	-73.7839E-12	503.450E-3	-14.9577E-3	-74.1703E-12	470.164E-3	-18.3967E-3
-792.896E-6	-73.7026E-12	482.162E-3	-47.4044E-3	-73.7994E-12	458.452E-3	-24.9324E-3
-797.899E-6	-73.5722E-12	479.069E-3	-52.9943E-3	-74.3551E-12	454.467E-3	-27.0717E-3
-802.901E-6	-72.6233E-12	479.106E-3	-27.9026E-3	-73.3764E-12	424.196E-3	-23.0480E-3
-807.904E-6	-72.1281E-12	480.923E-3	-9.05757E-3	-73.9389E-12	387.988E-3	-18.9046E-3
-812.906E-6	-72.5532E-12	472.003E-3	-12.9536E-3	-73.9546E-12	364.916E-3	-32.9394E-3
-817.909E-6	-72.8639E-12	439.591E-3	-21.4827E-3	-74.2481E-12	344.038E-3	-56.3749E-3
-822.911E-6	-72.7548E-12	415.486E-3	-33.0326E-3	-73.4971E-12	346.741E-3	-48.1319E-3
-827.914E-6	-72.2311E-12	414.782E-3	-41.2994E-3	-74.1223E-12	369.798E-3	-15.4394E-3
-832.916E-6	-73.0021E-12	402.667E-3	-41.1463E-3	-74.5568E-12	364.095E-3	5.18395E-3
-837.919E-6	-73.3349E-12	388.245E-3	-32.1377E-3	-74.1753E-12	329.601E-3	13.4707E-3
-842.921E-6	-74.2837E-12	385.822E-3	-1.27605E-3	-74.1128E-12	304.510E-3	-2.71939E-3
-847.924E-6	-74.2400E-12	365.075E-3	10.3974E-3	-73.9533E-12	295.803E-3	-26.6624E-3
-852.926E-6	-74.0756E-12	343.023E-3	-12.5122E-3	-74.3144E-12	299.444E-3	-23.4561E-3
-857.929E-6	-75.4631E-12	343.072E-3	-19.9321E-3	-75.0739E-12	292.270E-3	-22.2936E-3
-862.931E-6	-75.6819E-12	333.414E-3	-5.75427E-3	-75.0966E-12	272.455E-3	-38.7054E-3
-867.934E-6	-75.6259E-12	312.015E-3	-1.66145E-3	-75.1185E-12	258.210E-3	-48.8679E-3
-872.936E-6	-74.8257E-12	312.513E-3	-6.47164E-3	-75.2135E-12	253.477E-3	-43.2019E-3
-877.939E-6	-74.8668E-12	316.743E-3	-4.12163E-3	-75.8486E-12	252.645E-3	-22.4187E-3
-882.941E-6	-75.5031E-12	297.615E-3	-4.27052E-3	-76.1883E-12	248.104E-3	8.17997E-3
-887.944E-6	-75.6153E-12	264.382E-3	-13.8111E-3	-75.8778E-12	242.366E-3	16.6208E-3
-892.946E-6	-74.8016E-12	238.382E-3	-22.2952E-3	-75.6459E-12	225.734E-3	-22.0361E-3
-897.949E-6	-74.6975E-12	230.893E-3	-32.9116E-3	-76.1343E-12	209.797E-3	-37.8965E-3
-902.951E-6	-76.0921E-12	232.444E-3	-44.6277E-3	-75.8656E-12	227.835E-3	-7.84156E-3
-907.954E-6	-75.3880E-12	224.836E-3	-23.9039E-3	-75.5145E-12	235.025E-3	-355.233E-6
-912.956E-6	-75.0680E-12	214.941E-3	1.55050E-3	-75.3449E-12	208.002E-3	-6.08606E-6
-917.959E-6	-74.3792E-12	219.885E-3	-8.98088E-3	-74.3948E-12	199.195E-3	-2.95028E-3
-922.961E-6	-76.1939E-12	223.036E-3	-19.4967E-3	-75.0171E-12	201.409E-3	-30.9099E-3
-927.964E-6	-76.1697E-12	211.012E-3	-9.98685E-3	-74.8800E-12	191.597E-3	-38.0969E-3
-932.966E-6	-75.8799E-12	198.883E-3	-4.08543E-3	-74.8881E-12	188.595E-3	-25.1742E-3
-937.969E-6	-75.5045E-12	205.579E-3	-11.7332E-3	-74.3273E-12	188.430E-3	-29.0367E-3
-942.971E-6	-76.5715E-12	218.466E-3	-33.6204E-3	-74.5549E-12	171.584E-3	-33.9362E-3
-947.974E-6	-76.5735E-12	204.745E-3	-57.3394E-3	-75.1320E-12	158.322E-3	-32.5484E-3
-952.976E-6	-75.5384E-12	185.076E-3	-45.1402E-3	-75.9132E-12	153.683E-3	-38.4421E-3
-957.979E-6	-75.4561E-12	183.504E-3	-24.0831E-3	-76.5844E-12	151.436E-3	-29.8975E-3
-962.981E-6	-75.3812E-12	180.710E-3	-28.9170E-3	-76.3380E-12	158.953E-3	-13.0464E-3
-967.984E-6	-75.5016E-12	163.361E-3	-5.77249E-3	-76.3661E-12	158.704E-3	-14.8908E-3
-972.986E-6	-75.0198E-12	144.658E-3	13.0992E-3	-76.1002E-12	152.000E-3	-29.3114E-3
-977.989E-6	-75.1138E-12	158.496E-3	-15.4393E-3	-76.5741E-12	166.018E-3	-45.0878E-3
-982.991E-6	-75.3936E-12	187.254E-3	-14.7684E-3	-77.5401E-12	178.984E-3	-48.5567E-3
-987.994E-6	-75.4486E-12	184.248E-3	5.25421E-3	-76.4640E-12	165.540E-3	-34.2572E-3
-992.997E-6	-75.7153E-12	174.687E-3	-9.09563E-3	-76.2650E-12	153.538E-3	-23.2579E-3
-997.999E-6	-75.3668E-12	184.232E-3	-12.8875E-3	-76.6147E-12	160.233E-3	-28.4997E-3
-1.00300E-3	-75.6655E-12	186.921E-3	4.94063E-3	-77.5460E-12	172.331E-3	-28.3426E-3
-1.00800E-3	-75.5585E-12	162.486E-3	-2.64613E-3	-77.2684E-12	179.873E-3	-12.6648E-3
-1.01301E-3	-76.3539E-12	137.617E-3	-12.0289E-3	-76.6040E-12	178.419E-3	397.347E-6
-1.01801E-3	-76.5126E-12	141.456E-3	-10.5919E-3	-76.4716E-12	171.150E-3	-205.924E-6
-1.02301E-3	-76.2735E-12	148.105E-3	-30.2322E-3	-77.6310E-12	173.655E-3	-5.80821E-3
-1.02801E-3	-76.8122E-12	147.203E-3	-50.6461E-3	-77.7984E-12	171.811E-3	-16.4432E-3
-1.03302E-3	-77.0270E-12	146.781E-3	-50.7341E-3	-76.9971E-12	158.527E-3	-30.0684E-3
-1.03802E-3	-76.7015E-12	152.258E-3	-46.1348E-3	-77.5541E-12	156.602E-3	-24.5398E-3
-1.04302E-3	-76.1010E-12	165.382E-3	-32.0395E-3	-77.8822E-12	166.369E-3	-18.5547E-3
-1.04802E-3	-77.0069E-12	164.397E-3	-9.67013E-3	-77.3300E-12	164.744E-3	-21.3568E-3
-1.05303E-3	-77.2174E-12	164.607E-3	-16.5730E-3	-77.6825E-12	163.872E-3	-21.8936E-3
-1.05803E-3	-76.8443E-12	187.797E-3	-38.3216E-3	-77.6844E-12	195.914E-3	-28.8192E-3
-1.06303E-3	-75.7718E-12	200.420E-3	-47.4674E-3	-77.5438E-12	207.304E-3	-34.9924E-3
-1.06803E-3	-77.0834E-12	198.652E-3	-51.2695E-3	-77.6479E-12	173.215E-3	-24.2510E-3
-1.07304E-3	-77.7321E-12	202.667E-3	-40.0568E-3	-77.0899E-12	158.962E-3	-2.87286E-3
-1.07804E-3	-77.4001E-12	195.483E-3	-23.5933E-3	-76.6188E-12	172.555E-3	10.4185E-3
-1.08304E-3	-77.5600E-12	188.433E-3	-31.8907E-3	-77.3876E-12	206.237E-3	5.11910E-3
-1.08804E-3	-78.3157E-12	194.463E-3	-36.6698E-3	-77.4396E-12	244.416E-3	-11.0396E-3
-1.09305E-3	-78.9425E-12	185.244E-3	-4.92950E-3	-77.5878E-12	230.875E-3	-20.6777E-3
-1.09805E-3	-79.1060E-12	178.535E-3	8.41887E-3	-77.2815E-12	184.996E-3	-21.7227E-3
-1.10305E-3	-79.2282E-12	208.163E-3	-5.56742E-3	-77.7018E-12	188.180E-3	-20.2068E-3
-1.10805E-3	-78.8398E-12	225.419E-3	5.71858E-3	-78.8588E-12	229.732E-3	-12.1921E-3
-1.11306E-3	-78.7630E-12	207.297E-3	6.21576E-3	-79.1353E-12	252.085E-3	-5.67953E-3
-1.11806E-3	-79.9694E-12	200.426E-3	-14.8587E-3	-78.3449E-12	253.900E-3	-15.1015E-3
-1.12306E-3	-79.6554E-12	209.859E-3	-16.4973E-3	-77.6703E-12	256.126E-3	-29.1829E-3
-1.12806E-3	-79.1422E-12	225.128E-3	-14.1084E-3	-79.4589E-12	268.084E-3	-28.6715E-3
-1.13307E-3	-78.7401E-12	245.132E-3	-2.22786E-3	-79.5329E-12	285.194E-3	-3.60077E-3
-1.13807E-3	-79.0363E-12	246.301E-3	27.8720E-3	-79.4960E-12	284.726E-3	19.2798E-3
-1.14307E-3	-77.8624E-12	236.411E-3	24.0445E-3	-78.8698E-12	271.159E-3	15.9003E-3
-1.14807E-3	-77.5045E-12	250.332E-3	686.357E-6	-79.5330E-12	278.473E-3	435.791E-6
-1.15308E-3	-77.2196E-12	282.870E-3	-6.69430E-3	-79.1806E-12	301.587E-3	-12.0385E-3
-1.15808E-3	-76.9903E-12	293.318E-3	-22.7071E-3	-79.2427E-12	327.570E-3	-7.58630E-3
-1.16308E-3	-77.1192E-12	280.213E-3	-44.8458E-3	-78.2814E-12	348.672E-3	9.03115E-3
-1.16808E-3	-77.7211E-12	291.643E-3	-48.9503E-3	-77.6945E-12	344.776E-3	12.4430E-3
-1.17309E-3	-78.4322E-12	315.355E-3	-24.5634E-3	-78.8987E-12	339.744E-3	-12.1977E-3
-1.17809E-3	-78.1956E-12	320.720E-3	-9.02877E-3	-78.2122E-12	353.024E-3	-27.7166E-3
-1.18309E-3	-79.3073E-12	322.854E-3	-7.24530E-3	-78.6082E-12	358.473E-3	-23.6326E-3
-1.18809E-3	-80.1044E-12	328.739E-3	1.45788E-3	-78.8529E-12	347.870E-3	-23.2670E-3
-1.19310E-3	-80.6955E-12	336.799E-3	2.16620E-3	-79.0930E-12	349.477E-3	-18.2613E-3
-1.19810E-3	-80.6510E-12	354.633E-3	6.99418E-3	-79.2218E-12	363.896E-3	-19.3736E-3
-1.20310E-3	-81.0546E-12	376.210E-3	14.7109E-3	-79.9018E-12	377.232E-3	-24.6792E-3
-1.20810E-3	-81.5943E-12	385.195E-3	-1.39790E-3	-80.8642E-12	410.081E-3	-21.2754E-3
-1.21311E-3	-82.6540E-12	388.361E-3	-21.9751E-3	-81.1635E-12	442.088E-3	-30.3415E-3
-1.21811E-3	-81.5002E-12	403.857E-3	-19.8177E-3	-80.9757E-12	444.533E-3	-41.1501E-3
-1.22311E-3	-80.8904E-12	424.521E-3	-26.8347E-3	-80.8127E-12	450.274E-3	-22.2753E-3
-1.22811E-3	-81.5939E-12	444.779E-3	-40.8832E-3	-81.1635E-12	471.338E-3	-17.9455E-3
-1.23312E-3	-81.5423E-12	458.770E-3	-28.9383E-3	-81.0652E-12	468.564E-3	-53.3400E-3
-1.23812E-3	-81.2516E-12	458.029E-3	-20.1184E-3	-81.0074E-12	466.718E-3	-60.5202E-3
-1.24312E-3	-79.7016E-12	450.569E-3	-9.05734E-3	-81.1477E-12	503.463E-3	-32.6783E-3
-1.24812E-3	-80.3677E-12	448.956E-3	14.7039E-3	-81.3298E-12	535.025E-3	-13.2635E-3
-1.25313E-3	-80.3165E-12	465.458E-3	2.53997E-3	-81.2117E-12	531.446E-3	-5.43436E-3
-1.25813E-3	-80.2016E-12	492.586E-3	-30.4887E-3	-81.1240E-12	538.215E-3	-17.6829E-3
-1.26313E-3	-80.6165E-12	510.695E-3	-40.1241E-3	-82.1275E-12	565.539E-3	-24.8960E-3
-1.26813E-3	-80.4897E-12	507.503E-3	-29.4955E-3	-82.7837E-12	568.233E-3	-15.6616E-3
-1.27314E-3	-80.3629E-12	489.569E-3	-10.8235E-3	-82.1808E-12	548.172E-3	-22.7542E-3
-1.27814E-3	-81.1013E-12	486.045E-3	2.80280E-3	-81.6349E-12	542.416E-3	-38.2947E-3
-1.28314E-3	-82.6273E-12	513.108E-3	-20.1836E-3	-82.4025E-12	556.118E-3	-30.1639E-3
-1.28814E-3	-82.3467E-12	560.772E-3	-44.4611E-3	-83.3883E-12	587.472E-3	2.71519E-3
-1.29315E-3	-82.7745E-12	592.060E-3	-35.6753E-3	-83.5558E-12	620.958E-3	21.9720E-3
-1.29815E-3	-83.3507E-12	597.079E-3	-34.3159E-3	-83.8925E-12	626.130E-3	9.18592E-3
-1.30315E-3	-84.1387E-12	610.115E-3	-31.3350E-3	-84.0553E-12	616.195E-3	-15.1829E-3
-1.30815E-3	-83.9821E-12	627.608E-3	-18.6209E-3	-84.5233E-12	609.766E-3	-38.9436E-3
-1.31316E-3	-83.5337E-12	628.726E-3	-16.2408E-3	-85.2768E-12	615.076E-3	-43.7146E-3
-1.31816E-3	-83.8757E-12	627.422E-3	-17.3117E-3	-84.7601E-12	626.632E-3	-29.2960E-3
-1.32316E-3	-84.4957E-12	627.666E-3	-9.89882E-3	-84.3763E-12	640.562E-3	-15.1435E-3
-1.32816E-3	-84.0306E-12	640.925E-3	-2.11531E-3	-85.0031E-12	651.588E-3	11.6885E-3
-1.33317E-3	-83.4838E-12	662.838E-3	-8.46183E-3	-85.3818E-12	659.883E-3	27.5659E-3
-1.33817E-3	-83.8313E-12	670.325E-3	-10.5140E-3	-85.3060E-12	680.470E-3	4.12572E-3
-1.34317E-3	-85.2189E-12	676.739E-3	7.56513E-3	-84.9064E-12	710.659E-3	-22.4502E-3
-1.34817E-3	-85.3682E-12	681.574E-3	28.9433E-3	-85.3660E-12	725.198E-3	-20.0402E-3
-1.35318E-3	-85.7018E-12	688.134E-3	20.7721E-3	-85.3993E-12	713.592E-3	-11.3606E-3
-1.35818E-3	-86.7807E-12	701.909E-3	-5.17764E-3	-84.8656E-12	716.803E-3	-17.7042E-3
-1.36318E-3	-87.2978E-12	724.917E-3	-13.5201E-3	-85.1768E-12	738.391E-3	-16.7157E-3
-1.36818E-3	-87.4232E-12	745.196E-3	-1.10512E-3	-85.0582E-12	755.410E-3	-8.24018E-3
-1.37319E-3	-87.1249E-12	745.042E-3	5.87486E-3	-84.4592E-12	758.109E-3	-14.6567E-3
-1.37819E-3	-88.3081E-12	735.879E-3	-5.08568E-3	-84.5395E-12	747.704E-3	-26.5261E-3
-1.38319E-3	-88.4280E-12	737.968E-3	-15.0193E-3	-85.9172E-12	764.228E-3	-33.9468E-3
-1.38819E-3	-88.2573E-12	749.195E-3	-29.9450E-3	-86.5135E-12	796.301E-3	-27.7651E-3
-1.39320E-3	-88.3712E-12	765.525E-3	-30.2190E-3	-86.6589E-12	802.079E-3	-16.8664E-3
-1.39820E-3	-88.2621E-12	788.390E-3	6.64163E-3	-87.1150E-12	791.561E-3	-17.5628E-3
-1.40320E-3	-88.6310E-12	786.353E-3	29.6184E-3	-87.7123E-12	795.142E-3	-23.4015E-3
-1.40820E-3	-88.8467E-12	769.261E-3	18.4529E-3	-87.9339E-12	822.139E-3	-17.5838E-3
-1.41321E-3	-89.5889E-12	776.650E-3	-632.230E-6	-87.9810E-12	838.658E-3	-7.08637E-3
-1.41821E-3	-89.8794E-12	791.788E-3	-21.7943E-3	-88.5439E-12	835.252E-3	-12.6538E-3
-1.42321E-3	-89.2047E-12	802.735E-3	-33.1725E-3	-89.0586E-12	833.357E-3	-23.8847E-3
-1.42821E-3	-88.9047E-12	810.945E-3	-16.9690E-3	-89.3998E-12	832.402E-3	-38.2843E-3
-1.43322E-3	-90.3077E-12	799.498E-3	5.19314E-3	-89.2521E-12	835.048E-3	-44.1120E-3
-1.43822E-3	-90.1673E-12	782.315E-3	3.63023E-3	-89.8635E-12	843.819E-3	-24.4402E-3
-1.44322E-3	-90.6896E-12	787.833E-3	-12.2737E-3	-89.7872E-12	841.502E-3	-13.0191E-3
-1.44822E-3	-90.6537E-12	804.954E-3	-11.3911E-3	-90.0041E-12	823.301E-3	-23.7156E-3
-1.45323E-3	-91.7174E-12	811.658E-3	-12.9191E-3	-89.7925E-12	806.656E-3	-36.6134E-3
-1.45823E-3	-92.0549E-12	825.308E-3	-21.8226E-3	-90.0432E-12	807.102E-3	-46.6142E-3
-1.46323E-3	-92.6697E-12	844.363E-3	-13.4089E-3	-90.4974E-12	823.349E-3	-41.9424E-3
-1.46823E-3	-92.5060E-12	849.596E-3	-16.5304E-3	-90.4939E-12	832.938E-3	-21.2710E-3
-1.47324E-3	-92.3311E-12	858.236E-3	-17.6476E-3	-90.5146E-12	827.158E-3	-2.80215E-3
-1.47824E-3	-92.7642E-12	849.069E-3	3.44527E-3	-92.2172E-12	816.607E-3	2.66823E-3
-1.48324E-3	-92.5124E-12	832.986E-3	-2.09186E-3	-91.6255E-12	812.889E-3	-4.73682E-3
-1.48824E-3	-93.2268E-12	847.603E-3	-36.5557E-3	-91.3779E-12	832.172E-3	-18.2453E-3
-1.49325E-3	-92.5028E-12	847.052E-3	-38.7429E-3	-92.2054E-12	846.735E-3	-22.7064E-3
-1.49825E-3	-93.6351E-12	837.521E-3	-12.4184E-3	-93.7870E-12	854.634E-3	-7.24626E-3
-1.50325E-3	-93.8131E-12	851.635E-3	-1.42172E-3	-94.1937E-12	873.479E-3	5.98566E-3
-1.50825E-3	-93.9530E-12	841.461E-3	13.7307E-3	-93.0983E-12	875.337E-3	-5.08035E-3
-1.51326E-3	-95.3883E-12	800.015E-3	23.0066E-3	-93.0016E-12	878.733E-3	-23.8534E-3
-1.51826E-3	-94.9847E-12	806.324E-3	8.39876E-3	-94.1636E-12	892.792E-3	-29.5188E-3
-1.52326E-3	-94.5703E-12	849.296E-3	-1.85014E-3	-94.7098E-12	870.235E-3	-25.3156E-3
-1.52826E-3	-94.9937E-12	863.723E-3	-16.5796E-3	-94.0585E-12	829.317E-3	-32.4899E-3
-1.53327E-3	-95.8814E-12	878.301E-3	-25.0298E-3	-94.6721E-12	825.071E-3	-39.5738E-3
-1.53827E-3	-95.3504E-12	899.023E-3	-18.4577E-3	-95.7074E-12	843.910E-3	-28.5752E-3
-1.54327E-3	-95.9529E-12	884.993E-3	-12.3699E-3	-96.2413E-12	853.997E-3	-1.99745E-3
-1.54827E-3	-96.4709E-12	856.673E-3	-2.25185E-3	-95.8462E-12	850.576E-3	17.8869E-3
-1.55328E-3	-96.5013E-12	844.686E-3	-5.17146E-3	-96.0844E-12	854.437E-3	16.8167E-3
-1.55828E-3	-96.0705E-12	837.780E-3	-30.3429E-3	-96.6557E-12	861.867E-3	218.427E-6
-1.56328E-3	-96.0103E-12	838.490E-3	-48.1295E-3	-97.1734E-12	852.983E-3	-29.0509E-3
-1.56828E-3	-96.0870E-12	850.646E-3	-34.5424E-3	-97.3060E-12	855.200E-3	-45.4894E-3
-1.57329E-3	-96.0822E-12	856.156E-3	-11.8267E-3	-97.6368E-12	858.727E-3	-41.9217E-3
-1.57829E-3	-96.1366E-12	854.423E-3	-18.8346E-3	-98.3760E-12	828.563E-3	-36.3652E-3
-1.58329E-3	-95.9900E-12	855.838E-3	-32.1786E-3	-98.5049E-12	819.223E-3	-36.7126E-3
-1.58829E-3	-95.8578E-12	867.587E-3	-36.7006E-3	-99.2867E-12	850.849E-3	-39.4514E-3
-1.59330E-3	-96.6112E-12	866.098E-3	-50.4074E-3	-98.1609E-12	857.663E-3	-24.4622E-3
-1.59830E-3	-97.1128E-12	845.618E-3	-46.7218E-3	-98.3707E-12	834.279E-3	3.30621E-3
-1.60330E-3	-97.8573E-12	840.770E-3	-14.9688E-3	-98.9458E-12	813.258E-3	-2.97232E-3
-1.60830E-3	-98.7746E-12	848.190E-3	1.00860E-3	-99.8197E-12	809.075E-3	-31.8495E-3
-1.61331E-3	-99.8084E-12	855.825E-3	-13.2951E-3	-99.3017E-12	829.709E-3	-40.6493E-3
-1.61831E-3	-100.069E-12	849.791E-3	-12.5424E-3	-99.1855E-12	850.940E-3	-37.5933E-3
-1.62331E-3	-100.311E-12	824.249E-3	2.28137E-3	-99.3187E-12	850.723E-3	-30.6246E-3
-1.62831E-3	-101.141E-12	814.894E-3	904.393E-6	-101.026E-12	843.151E-3	-23.2424E-3
-1.63332E-3	-102.360E-12	834.800E-3	-10.8760E-3	-101.582E-12	828.782E-3	-17.8778E-3
-1.63832E-3	-102.950E-12	850.912E-3	-27.4831E-3	-101.895E-12	827.365E-3	-8.31474E-3
-1.64332E-3	-101.980E-12	846.820E-3	-39.6272E-3	-101.666E-12	843.028E-3	544.495E-6
-1.64832E-3	-101.927E-12	840.400E-3	-29.5084E-3	-102.447E-12	827.283E-3	-933.236E-6
-1.65333E-3	-102.348E-12	845.559E-3	-8.93952E-3	-102.642E-12	804.514E-3	-15.1024E-3
-1.65833E-3	-102.822E-12	857.785E-3	-919.364E-6	-104.316E-12	800.878E-3	-33.5518E-3
-1.66333E-3	-101.846E-12	847.558E-3	10.6792E-3	-103.894E-12	806.881E-3	-40.5811E-3
-1.66833E-3	-101.223E-12	809.683E-3	10.5468E-3	-102.989E-12	823.637E-3	-32.8216E-3
-1.67334E-3	-101.788E-12	787.769E-3	-4.54450E-3	-104.083E-12	829.678E-3	-24.0326E-3
-1.67834E-3	-102.305E-12	786.461E-3	14.4167E-3	-105.297E-12	821.026E-3	-37.4267E-3
-1.68334E-3	-101.777E-12	784.953E-3	19.2830E-3	-104.508E-12	814.724E-3	-64.3884E-3
-1.68834E-3	-102.074E-12	794.258E-3	-28.0861E-3	-103.065E-12	807.166E-3	-51.7224E-3
-1.69335E-3	-102.511E-12	817.377E-3	-37.6276E-3	-104.355E-12	788.264E-3	-24.0862E-3
-1.69835E-3	-103.455E-12	811.282E-3	-11.6835E-3	-104.917E-12	778.573E-3	-28.9286E-3
-1.70335E-3	-104.675E-12	780.317E-3	-12.2523E-3	-105.087E-12	777.747E-3	-34.7863E-3
-1.70835E-3	-104.885E-12	765.819E-3	-22.9960E-3	-104.860E-12	772.378E-3	-37.9568E-3
-1.71336E-3	-104.713E-12	763.450E-3	-20.0311E-3	-104.988E-12	779.819E-3	-47.7733E-3
-1.71836E-3	-105.258E-12	776.443E-3	-24.0958E-3	-105.267E-12	800.109E-3	-27.7105E-3
-1.72336E-3	-107.103E-12	799.894E-3	-23.7671E-3	-106.310E-12	809.986E-3	4.98667E-3
-1.72836E-3	-107.527E-12	809.041E-3	3.91582E-3	-107.214E-12	805.382E-3	13.3940E-3
-1.73337E-3	-107.155E-12	816.970E-3	6.21544E-3	-107.259E-12	789.608E-3	-1.09339E-3
-1.73837E-3	-107.400E-12	843.121E-3	-7.46260E-3	-108.316E-12	785.759E-3	-23.3063E-3
-1.74337E-3	-108.168E-12	843.870E-3	-6.96156E-3	-108.270E-12	800.996E-3	-20.6705E-3
-1.74837E-3	-108.596E-12	810.064E-3	-26.7347E-3	-109.444E-12	819.241E-3	9.99153E-3
-1.75338E-3	-107.840E-12	801.166E-3	-39.4175E-3	-109.398E-12	829.675E-3	21.5810E-3
-1.75838E-3	-107.392E-12	799.082E-3	-13.6650E-3	-108.963E-12	810.513E-3	7.47567E-3
-1.76338E-3	-107.131E-12	793.768E-3	-17.4456E-3	-108.047E-12	782.912E-3	-17.3339E-3
-1.76838E-3	-107.692E-12	802.663E-3	-36.2140E-3	-108.914E-12	782.852E-3	-26.4778E-3
-1.77339E-3	-107.325E-12	788.571E-3	-10.6095E-3	-110.145E-12	793.772E-3	4.53710E-3
-1.77839E-3	-107.386E-12	772.922E-3	-1.84514E-3	-108.671E-12	772.978E-3	5.51971E-3
-1.78339E-3	-107.030E-12	782.776E-3	-19.5827E-3	-108.435E-12	739.504E-3	-25.3130E-3
-1.78839E-3	-108.357E-12	771.449E-3	-24.4921E-3	-109.274E-12	739.377E-3	-18.6966E-3
-1.79340E-3	-108.417E-12	758.691E-3	-23.9493E-3	-109.724E-12	767.897E-3	-10.0592E-3
-1.79840E-3	-108.619E-12	772.481E-3	-14.2046E-3	-108.735E-12	779.015E-3	-17.3725E-3
-1.80340E-3	-109.253E-12	764.278E-3	2.59256E-3	-108.496E-12	759.381E-3	-9.67665E-3
-1.80840E-3	-109.769E-12	751.766E-3	2.81254E-3	-109.138E-12	752.704E-3	7.51311E-3
-1.81341E-3	-110.093E-12	775.454E-3	-17.6800E-3	-110.278E-12	772.953E-3	9.68918E-3
-1.81841E-3	-111.129E-12	799.395E-3	-21.7587E-3	-111.678E-12	798.715E-3	7.72167E-3
-1.82341E-3	-111.808E-12	785.693E-3	-12.3098E-3	-111.883E-12	804.475E-3	19.5709E-3
-1.82841E-3	-111.583E-12	766.213E-3	-15.5396E-3	-112.219E-12	791.280E-3	13.0062E-3
-1.83342E-3	-111.384E-12	772.394E-3	-9.56884E-3	-112.948E-12	774.947E-3	497.846E-6
-1.83842E-3	-112.085E-12	764.880E-3	-1.37049E-3	-113.451E-12	763.292E-3	15.4583E-3
-1.84342E-3	-111.574E-12	758.082E-3	6.19971E-3	-113.981E-12	780.609E-3	15.1437E-3
-1.84842E-3	-111.257E-12	757.910E-3	26.4868E-3	-113.929E-12	789.499E-3	-5.25477E-3
-1.85343E-3	-111.455E-12	731.755E-3	29.6033E-3	-113.908E-12	758.894E-3	-3.41071E-3
-1.85843E-3	-111.602E-12	727.939E-3	24.2909E-3	-114.413E-12	739.416E-3	11.6831E-3
-1.86343E-3	-111.724E-12	740.555E-3	24.7728E-3	-114.660E-12	730.497E-3	13.3808E-3
-1.86843E-3	-111.677E-12	704.018E-3	-6.79832E-3	-114.007E-12	712.146E-3	-7.08196E-3
-1.87344E-3	-112.509E-12	684.858E-3	-53.5601E-3	-113.649E-12	713.561E-3	-33.9738E-3
-1.87844E-3	-113.199E-12	724.189E-3	-38.8505E-3	-113.907E-12	750.118E-3	-37.3724E-3
-1.88344E-3	-113.119E-12	736.163E-3	5.66257E-3	-113.564E-12	776.311E-3	-33.4322E-3
-1.88844E-3	-112.728E-12	732.938E-3	3.42085E-3	-113.633E-12	771.388E-3	-48.1471E-3
-1.89345E-3	-113.266E-12	759.279E-3	-14.6997E-3	-114.403E-12	765.421E-3	-47.7071E-3
-1.89845E-3	-114.439E-12	760.340E-3	-6.04538E-3	-114.705E-12	764.009E-3	-27.3666E-3
-1.90345E-3	-114.888E-12	735.991E-3	7.82118E-3	-115.283E-12	762.388E-3	-3.08717E-3
-1.90845E-3	-114.067E-12	739.716E-3	2.56036E-3	-115.368E-12	740.712E-3	3.82913E-3
-1.91346E-3	-114.587E-12	735.786E-3	-3.33796E-3	-116.702E-12	719.002E-3	-17.1134E-3
-1.91846E-3	-115.390E-12	722.653E-3	-6.66190E-3	-116.669E-12	741.446E-3	-27.0247E-3
-1.92346E-3	-115.589E-12	742.880E-3	-10.1467E-3	-117.380E-12	752.599E-3	-23.4880E-3
-1.92846E-3	-114.954E-12	753.851E-3	-10.3442E-3	-117.946E-12	727.174E-3	-20.9276E-3
-1.93347E-3	-115.586E-12	739.936E-3	-11.6602E-3	-118.143E-12	716.603E-3	-16.8614E-3
-1.93847E-3	-116.312E-12	744.810E-3	-5.83826E-3	-118.869E-12	722.434E-3	-16.1867E-3
-1.94347E-3	-117.068E-12	752.676E-3	9.98384E-3	-117.562E-12	738.069E-3	-21.1353E-3
-1.94847E-3	-117.270E-12	734.046E-3	10.9792E-3	-118.358E-12	749.296E-3	-21.7263E-3
-1.95348E-3	-117.738E-12	728.129E-3	-14.7144E-3	-118.508E-12	749.676E-3	-21.6002E-3
-1.95848E-3	-117.883E-12	735.579E-3	-36.5258E-3	-119.067E-12	742.462E-3	-17.8579E-3
-1.96348E-3	-118.677E-12	728.356E-3	-35.2755E-3	-117.422E-12	718.431E-3	-17.4991E-3
-1.96848E-3	-118.583E-12	728.233E-3	-23.7579E-3	-118.110E-12	725.765E-3	-47.4640E-3
-1.97349E-3	-118.710E-12	738.470E-3	-21.9464E-3	-120.209E-12	754.040E-3	-73.9908E-3
-1.97849E-3	-118.617E-12	734.314E-3	-18.8323E-3	-119.998E-12	764.704E-3	-63.8423E-3
-1.98349E-3	-119.156E-12	719.525E-3	-24.2657E-3	-121.460E-12	761.716E-3	-22.3832E-3
-1.98849E-3	-119.516E-12	719.539E-3	-51.6008E-3	-120.715E-12	731.941E-3	5.03800E-3
-1.99350E-3	-119.220E-12	727.437E-3	-63.9706E-3	-121.444E-12	723.521E-3	-22.5929E-3
-1.99850E-3	-118.707E-12	737.246E-3	-59.2369E-3	-121.711E-12	755.004E-3	-34.8395E-3
-2.00350E-3	-118.764E-12	744.799E-3	-49.7942E-3	-121.731E-12	765.667E-3	-8.46246E-3
-2.00850E-3	-119.453E-12	747.649E-3	-27.4773E-3	-121.313E-12	740.416E-3	2.01225E-3
-2.01351E-3	-119.322E-12	753.434E-3	-6.99479E-3	-121.763E-12	721.677E-3	3.27075E-3
-2.01851E-3	-119.199E-12	738.116E-3	-4.04087E-3	-121.501E-12	717.481E-3	6.64479E-3
-2.02351E-3	-118.959E-12	718.689E-3	-2.99269E-3	-121.835E-12	715.602E-3	1.31853E-3
-2.02851E-3	-120.164E-12	719.844E-3	11.9518E-3	-122.420E-12	721.383E-3	-10.4709E-3
-2.03352E-3	-120.942E-12	714.804E-3	23.8462E-3	-121.534E-12	715.252E-3	-24.4439E-3
-2.03852E-3	-121.293E-12	714.091E-3	3.96226E-3	-121.298E-12	684.448E-3	-39.2741E-3
-2.04352E-3	-121.403E-12	723.517E-3	-31.5934E-3	-122.732E-12	666.740E-3	-39.7778E-3
-2.04852E-3	-123.175E-12	717.055E-3	-35.7147E-3	-123.150E-12	692.733E-3	-29.3884E-3
-2.05353E-3	-124.528E-12	716.890E-3	-17.4536E-3	-122.842E-12	720.314E-3	-27.6819E-3
-2.05853E-3	-124.669E-12	748.130E-3	-12.8577E-3	-122.783E-12	725.186E-3	-34.9130E-3
-2.06353E-3	-126.041E-12	763.103E-3	-9.10640E-3	-124.201E-12	720.852E-3	-43.2229E-3
-2.06853E-3	-125.734E-12	734.509E-3	-16.3402E-3	-124.510E-12	722.689E-3	-56.2510E-3
-2.07354E-3	-126.545E-12	716.634E-3	-39.8259E-3	-123.771E-12	738.454E-3	-59.3861E-3
-2.07854E-3	-126.710E-12	713.578E-3	-27.7513E-3	-124.450E-12	751.478E-3	-31.9148E-3
-2.08354E-3	-126.188E-12	697.614E-3	4.47096E-3	-125.466E-12	739.530E-3	-3.71487E-3
-2.08854E-3	-125.698E-12	684.996E-3	13.3618E-3	-125.158E-12	707.352E-3	-1.37271E-3
-2.09355E-3	-125.501E-12	695.716E-3	15.2896E-3	-125.638E-12	681.067E-3	-17.0635E-3
-2.09855E-3	-124.878E-12	719.590E-3	13.4050E-3	-125.318E-12	686.340E-3	-33.3838E-3
-2.10355E-3	-123.599E-12	740.831E-3	-2.79586E-3	-124.271E-12	703.471E-3	-41.3891E-3
-2.10855E-3	-123.964E-12	758.907E-3	-9.91827E-3	-124.382E-12	698.674E-3	-29.1594E-3
-2.11356E-3	-124.059E-12	752.158E-3	-574.672E-6	-124.862E-12	695.091E-3	-7.17448E-3
-2.11856E-3	-124.005E-12	723.795E-3	17.5705E-3	-125.436E-12	704.912E-3	-14.9822E-3
-2.12356E-3	-124.846E-12	723.285E-3	39.4808E-3	-125.303E-12	711.643E-3	-26.6844E-3
-2.12856E-3	-125.724E-12	733.808E-3	28.9449E-3	-125.077E-12	716.650E-3	-38.0040E-3
-2.13357E-3	-125.821E-12	726.261E-3	-27.6251E-3	-126.411E-12	735.722E-3	-45.4344E-3
-2.13857E-3	-126.217E-12	730.433E-3	-64.5528E-3	-127.506E-12	755.862E-3	-16.4273E-3
-2.14357E-3	-127.218E-12	730.643E-3	-46.9577E-3	-127.509E-12	741.155E-3	2.77244E-3
-2.14857E-3	-128.119E-12	719.486E-3	-33.4417E-3	-128.015E-12	712.255E-3	-13.8780E-3
-2.15358E-3	-128.713E-12	734.629E-3	-41.0803E-3	-128.288E-12	703.701E-3	-33.5270E-3
-2.15858E-3	-130.244E-12	740.339E-3	-26.1134E-3	-129.343E-12	696.277E-3	-25.3318E-3
-2.16358E-3	-130.129E-12	722.920E-3	-782.784E-6	-128.633E-12	692.750E-3	-14.4258E-3
-2.16858E-3	-129.725E-12	719.784E-3	-1.43677E-3	-129.444E-12	721.236E-3	-25.0784E-3
-2.17359E-3	-129.346E-12	723.255E-3	-14.1473E-3	-129.622E-12	737.033E-3	-23.5104E-3
-2.17859E-3	-129.640E-12	730.094E-3	-22.6150E-3	-131.267E-12	715.117E-3	-18.3193E-3
-2.18359E-3	-129.852E-12	734.083E-3	-20.9168E-3	-130.849E-12	714.787E-3	-19.2145E-3
-2.18859E-3	-130.116E-12	717.093E-3	-1.39776E-3	-130.105E-12	723.955E-3	-21.0866E-3
-2.19360E-3	-128.495E-12	710.894E-3	8.25732E-3	-130.098E-12	700.455E-3	-31.4718E-3
-2.19860E-3	-128.435E-12	726.756E-3	-12.1955E-3	-129.744E-12	691.133E-3	-20.2572E-3
-2.20360E-3	-129.036E-12	732.534E-3	-13.6177E-3	-130.046E-12	726.384E-3	13.7025E-3
-2.20860E-3	-128.799E-12	725.549E-3	5.20927E-3	-128.376E-12	741.643E-3	27.3011E-3
-2.21361E-3	-128.122E-12	702.975E-3	-10.8102E-3	-130.414E-12	707.669E-3	22.2298E-3
-2.21861E-3	-128.949E-12	710.046E-3	-25.7138E-3	-129.545E-12	683.014E-3	20.5035E-3
-2.22361E-3	-130.803E-12	742.970E-3	-30.3663E-3	-130.299E-12	683.506E-3	10.2400E-3
-2.22861E-3	-130.277E-12	734.817E-3	-47.3768E-3	-129.748E-12	708.694E-3	-3.29787E-3
-2.23362E-3	-130.880E-12	732.045E-3	-34.6405E-3	-130.787E-12	744.897E-3	3.68147E-3
-2.23862E-3	-131.119E-12	728.848E-3	1.37617E-3	-131.440E-12	745.032E-3	11.6052E-3
-2.24362E-3	-132.819E-12	714.146E-3	10.1556E-3	-132.126E-12	722.651E-3	-1.15616E-3
-2.24862E-3	-134.442E-12	744.736E-3	-12.6459E-3	-132.453E-12	721.477E-3	-25.8561E-3
-2.25363E-3	-134.462E-12	758.100E-3	-41.3564E-3	-131.938E-12	721.852E-3	-34.7705E-3
-2.25863E-3	-134.138E-12	725.469E-3	-65.3284E-3	-134.208E-12	716.038E-3	-6.71809E-3
-2.26363E-3	-134.230E-12	718.650E-3	-54.9573E-3	-133.538E-12	732.105E-3	20.6010E-3
-2.26863E-3	-135.694E-12	718.278E-3	-20.6041E-3	-134.712E-12	744.737E-3	17.2629E-3
-2.27364E-3	-133.937E-12	706.497E-3	-16.3437E-3	-134.308E-12	751.595E-3	-836.470E-6
-2.27864E-3	-133.629E-12	716.926E-3	-40.4745E-3	-135.673E-12	758.514E-3	-26.4601E-3
-2.28364E-3	-133.017E-12	717.688E-3	-57.1379E-3	-135.466E-12	751.662E-3	-14.6944E-3
-2.28864E-3	-133.245E-12	711.851E-3	-47.2394E-3	-135.495E-12	716.214E-3	36.4165E-3
-2.29365E-3	-132.354E-12	724.815E-3	-9.65084E-3	-136.113E-12	679.960E-3	38.6953E-3
-2.29865E-3	-132.194E-12	723.784E-3	21.2892E-3	-135.030E-12	697.796E-3	-10.3591E-3
-2.30365E-3	-132.944E-12	710.013E-3	17.2246E-3	-134.684E-12	736.708E-3	-32.6868E-3
-2.30865E-3	-132.865E-12	709.320E-3	1.70194E-3	-134.068E-12	737.962E-3	-9.96914E-3
-2.31366E-3	-133.708E-12	709.414E-3	-16.9553E-3	-134.609E-12	715.637E-3	9.99493E-3
-2.31866E-3	-134.708E-12	714.808E-3	-42.2040E-3	-134.292E-12	716.370E-3	7.72790E-3
-2.32366E-3	-134.797E-12	731.705E-3	-54.7200E-3	-134.471E-12	735.112E-3	-1.05195E-3
-2.32866E-3	-136.153E-12	738.817E-3	-29.6231E-3	-135.258E-12	743.661E-3	-2.27761E-3
-2.33367E-3	-136.620E-12	740.275E-3	1.66966E-3	-134.632E-12	713.780E-3	9.45256E-3
-2.33867E-3	-136.684E-12	733.889E-3	-8.34178E-3	-136.286E-12	665.286E-3	4.44333E-3
-2.34367E-3	-137.381E-12	727.063E-3	-23.5344E-3	-135.853E-12	654.895E-3	-26.9970E-3
-2.34867E-3	-138.063E-12	736.946E-3	-25.8633E-3	-137.109E-12	667.440E-3	-46.3002E-3
-2.35368E-3	-138.374E-12	748.331E-3	-45.9470E-3	-137.408E-12	680.731E-3	-37.9540E-3
-2.35868E-3	-137.971E-12	738.642E-3	-54.7458E-3	-137.324E-12	696.156E-3	-24.9451E-3
-2.36368E-3	-137.851E-12	720.027E-3	-31.0380E-3	-137.703E-12	710.016E-3	-25.3557E-3
-2.36868E-3	-138.354E-12	706.465E-3	-10.6285E-3	-138.992E-12	715.281E-3	-27.5211E-3
-2.37369E-3	-138.270E-12	694.157E-3	-5.48057E-3	-138.933E-12	713.551E-3	-13.2637E-3
-2.37869E-3	-138.569E-12	673.542E-3	-8.45965E-3	-138.888E-12	726.611E-3	-3.97391E-3
-2.38369E-3	-138.750E-12	653.552E-3	-8.74166E-3	-140.057E-12	742.736E-3	-7.35832E-3
-2.38869E-3	-139.380E-12	673.451E-3	-12.2559E-3	-140.320E-12	739.759E-3	-4.37282E-3
-2.39370E-3	-138.421E-12	697.036E-3	-37.7793E-3	-139.439E-12	733.995E-3	1.48104E-3
-2.39870E-3	-139.171E-12	709.392E-3	-43.1083E-3	-140.083E-12	722.230E-3	2.07917E-3
-2.40370E-3	-139.550E-12	726.114E-3	-26.5639E-3	-140.218E-12	697.659E-3	-21.8011E-3
-2.40870E-3	-139.571E-12	712.804E-3	-23.6072E-3	-139.774E-12	675.767E-3	-45.4751E-3
-2.41371E-3	-140.367E-12	707.476E-3	-22.9457E-3	-140.932E-12	664.060E-3	-28.9164E-3
-2.41871E-3	-140.333E-12	728.706E-3	-15.6595E-3	-140.648E-12	666.188E-3	-6.78429E-3
-2.42371E-3	-140.373E-12	724.444E-3	4.08232E-3	-141.260E-12	678.585E-3	3.35115E-3
-2.42871E-3	-140.306E-12	706.501E-3	13.8490E-3	-141.416E-12	710.943E-3	6.86341E-3
-2.43372E-3	-140.295E-12	703.397E-3	22.7247E-3	-142.767E-12	744.759E-3	-14.2374E-3
-2.43872E-3	-139.934E-12	695.477E-3	25.2216E-3	-141.685E-12	749.295E-3	-43.4945E-3
-2.44372E-3	-140.222E-12	666.900E-3	-15.9938E-3	-142.384E-12	731.430E-3	-38.9583E-3
-2.44872E-3	-139.892E-12	656.627E-3	-46.2047E-3	-142.491E-12	694.389E-3	-26.0140E-3
-2.45373E-3	-139.887E-12	667.846E-3	-29.9016E-3	-142.280E-12	657.097E-3	-13.0091E-3
-2.45873E-3	-140.212E-12	671.887E-3	-11.3552E-3	-142.694E-12	662.979E-3	19.2836E-3
-2.46373E-3	-139.883E-12	680.917E-3	-5.19642E-3	-143.305E-12	691.648E-3	11.6884E-3
-2.46873E-3	-140.860E-12	695.132E-3	-5.98596E-3	-143.126E-12	681.296E-3	-26.7672E-3
-2.47374E-3	-141.366E-12	698.117E-3	-16.5659E-3	-142.530E-12	650.037E-3	-31.3823E-3
-2.47874E-3	-142.404E-12	696.628E-3	-13.8625E-3	-143.009E-12	660.261E-3	-24.5024E-3
-2.48374E-3	-142.461E-12	699.218E-3	1.92351E-3	-143.507E-12	700.691E-3	-10.4632E-3
-2.48874E-3	-144.201E-12	695.875E-3	7.35213E-3	-144.088E-12	720.176E-3	13.8548E-3
-2.49375E-3	-145.088E-12	698.613E-3	-5.95612E-3	-144.158E-12	708.738E-3	13.1715E-3
-2.49875E-3	-144.831E-12	710.275E-3	-19.0582E-3	-144.865E-12	675.215E-3	-5.23033E-3
-2.50375E-3	-144.896E-12	709.678E-3	-25.0815E-3	-145.789E-12	661.922E-3	-16.7455E-3
-2.50875E-3	-145.348E-12	710.344E-3	-35.9542E-3	-145.358E-12	690.986E-3	-24.3387E-3
-2.51376E-3	-146.055E-12	732.668E-3	-36.3600E-3	-145.022E-12	717.703E-3	-23.7963E-3
-2.51876E-3	-144.196E-12	736.230E-3	-33.9400E-3	-145.314E-12	709.845E-3	-12.9480E-3
-2.52376E-3	-143.721E-12	715.831E-3	-28.8505E-3	-145.310E-12	692.077E-3	-17.8327E-3
-2.52876E-3	-142.701E-12	712.776E-3	-6.79300E-3	-144.790E-12	706.368E-3	-36.5456E-3
-2.53377E-3	-143.652E-12	706.241E-3	-2.38292E-3	-145.425E-12	726.060E-3	-39.4432E-3
-2.53877E-3	-142.595E-12	704.350E-3	-32.3320E-3	-145.593E-12	704.519E-3	-20.4863E-3
-2.54377E-3	-142.888E-12	722.993E-3	-57.0261E-3	-145.651E-12	671.195E-3	-870.675E-6
-2.54877E-3	-142.517E-12	701.746E-3	-51.6651E-3	-145.903E-12	665.214E-3	644.618E-6
-2.55378E-3	-144.423E-12	652.431E-3	-33.6458E-3	-145.951E-12	670.658E-3	-3.57445E-3
-2.55878E-3	-144.382E-12	650.475E-3	-11.9180E-3	-146.399E-12	683.356E-3	-14.1427E-3
-2.56378E-3	-144.347E-12	673.840E-3	1.08135E-3	-145.946E-12	708.477E-3	-28.4655E-3
-2.56878E-3	-145.471E-12	682.621E-3	-534.668E-6	-146.606E-12	698.214E-3	-17.1760E-3
-2.57379E-3	-147.816E-12	703.667E-3	-27.5403E-3	-147.407E-12	672.015E-3	-4.91080E-3
-2.57879E-3	-148.556E-12	751.996E-3	-65.5724E-3	-149.219E-12	674.329E-3	-7.83859E-3
-2.58379E-3	-148.221E-12	769.660E-3	-62.8460E-3	-148.514E-12	681.691E-3	-3.82664E-3
-2.58879E-3	-148.763E-12	739.179E-3	-27.8530E-3	-149.411E-12	677.591E-3	-14.5671E-3
-2.59380E-3	-148.845E-12	720.693E-3	-2.25786E-3	-150.929E-12	673.793E-3	-30.8015E-3
-2.59880E-3	-149.995E-12	714.358E-3	-10.7398E-3	-151.732E-12	696.911E-3	-30.5364E-3
-2.60380E-3	-149.873E-12	710.021E-3	-39.1217E-3	-151.558E-12	729.639E-3	-23.5298E-3
-2.60880E-3	-148.815E-12	714.636E-3	-40.5917E-3	-152.303E-12	727.785E-3	-17.0579E-3
-2.61381E-3	-148.276E-12	722.540E-3	-22.5281E-3	-151.839E-12	709.307E-3	-17.8332E-3
-2.61881E-3	-149.232E-12	724.470E-3	-1.52155E-3	-151.703E-12	695.453E-3	-22.6705E-3
-2.62381E-3	-148.901E-12	715.769E-3	9.86838E-3	-151.210E-12	676.628E-3	-55.2313E-3
-2.62881E-3	-147.146E-12	726.130E-3	1.86373E-3	-150.892E-12	676.260E-3	-77.5108E-3
-2.63382E-3	-146.935E-12	725.887E-3	-12.5334E-3	-149.775E-12	692.578E-3	-57.3752E-3
-2.63882E-3	-147.696E-12	689.783E-3	-24.8467E-3	-149.722E-12	703.003E-3	-25.2916E-3
-2.64382E-3	-148.410E-12	669.375E-3	-30.2432E-3	-150.126E-12	710.640E-3	5.68609E-3
-2.64882E-3	-149.049E-12	683.863E-3	-23.3975E-3	-150.864E-12	700.590E-3	22.4206E-3
-2.65383E-3	-150.804E-12	702.333E-3	8.99534E-3	-150.676E-12	684.142E-3	22.6533E-3
-2.65883E-3	-151.488E-12	699.204E-3	42.7850E-3	-151.134E-12	681.292E-3	31.4725E-3
-2.66383E-3	-153.489E-12	694.559E-3	37.2810E-3	-152.316E-12	697.986E-3	51.9255E-3
-2.66883E-3	-154.469E-12	695.103E-3	14.3461E-3	-152.823E-12	716.607E-3	38.6919E-3
-2.67384E-3	-155.021E-12	699.762E-3	10.7759E-3	-152.782E-12	706.473E-3	7.11391E-3
-2.67884E-3	-154.870E-12	710.305E-3	-1.99174E-3	-154.002E-12	690.035E-3	-19.8980E-3
-2.68384E-3	-156.971E-12	713.761E-3	-23.2892E-3	-154.779E-12	717.909E-3	-56.4822E-3
-2.68884E-3	-156.636E-12	725.812E-3	-23.4567E-3	-154.771E-12	741.976E-3	-69.7379E-3
-2.69385E-3	-154.705E-12	735.912E-3	-11.4958E-3	-155.373E-12	721.683E-3	-55.0525E-3
-2.69885E-3	-154.532E-12	714.230E-3	10.9435E-3	-157.543E-12	716.640E-3	-38.8945E-3
-2.70385E-3	-153.009E-12	691.755E-3	14.8563E-3	-157.215E-12	713.846E-3	-17.9219E-3
-2.70885E-3	-153.626E-12	699.849E-3	-14.4313E-3	-155.961E-12	697.224E-3	-6.91728E-3
-2.71386E-3	-152.209E-12	714.959E-3	-6.78853E-3	-156.842E-12	706.052E-3	-14.7093E-3
-2.71886E-3	-151.815E-12	703.304E-3	24.4596E-3	-155.994E-12	709.365E-3	-12.2928E-3
-2.72386E-3	-149.861E-12	666.002E-3	17.8155E-3	-155.335E-12	683.105E-3	-8.12786E-3
-2.72886E-3	-151.909E-12	646.419E-3	10.5250E-3	-154.164E-12	674.424E-3	-12.2831E-3
-2.73387E-3	-152.755E-12	670.701E-3	22.8325E-3	-153.686E-12	698.184E-3	-7.50514E-3
-2.73887E-3	-152.190E-12	713.283E-3	34.0445E-3	-153.663E-12	713.441E-3	-26.0970E-3
-2.74387E-3	-153.211E-12	715.752E-3	31.5460E-3	-153.642E-12	682.365E-3	-62.9828E-3
-2.74887E-3	-154.665E-12	681.951E-3	2.92163E-3	-153.889E-12	648.358E-3	-48.1139E-3
-2.75388E-3	-155.379E-12	689.658E-3	-12.2844E-3	-154.173E-12	670.336E-3	691.153E-6
-2.75888E-3	-156.789E-12	710.900E-3	-3.13201E-3	-155.420E-12	712.260E-3	11.7054E-3
-2.76388E-3	-157.284E-12	687.996E-3	2.56002E-3	-156.061E-12	727.086E-3	-5.96806E-3
-2.76888E-3	-156.774E-12	664.651E-3	108.877E-6	-156.636E-12	734.808E-3	2.72942E-3
-2.77389E-3	-158.716E-12	668.216E-3	-6.70905E-3	-157.712E-12	726.070E-3	17.9399E-3
-2.77889E-3	-158.129E-12	683.312E-3	2.83146E-3	-157.812E-12	683.983E-3	11.8664E-3
-2.78389E-3	-159.319E-12	697.762E-3	5.40484E-3	-158.847E-12	676.241E-3	26.1039E-3
-2.78889E-3	-158.390E-12	709.062E-3	-6.92135E-3	-158.763E-12	711.385E-3	33.8471E-3
-2.79390E-3	-158.106E-12	701.929E-3	-8.68496E-3	-160.423E-12	724.756E-3	-2.72738E-3
-2.79890E-3	-157.755E-12	692.127E-3	-25.7045E-3	-159.872E-12	707.561E-3	-25.6435E-3
-2.80390E-3	-158.834E-12	689.866E-3	-42.8030E-3	-159.960E-12	688.960E-3	-22.5022E-3
-2.80890E-3	-157.876E-12	698.363E-3	-27.6909E-3	-158.688E-12	671.020E-3	-37.7797E-3
-2.81391E-3	-156.653E-12	725.594E-3	-22.9251E-3	-158.932E-12	671.551E-3	-42.3728E-3
-2.81891E-3	-158.146E-12	722.749E-3	-40.7157E-3	-158.281E-12	690.360E-3	-10.1022E-3
-2.82391E-3	-158.142E-12	707.362E-3	-46.7096E-3	-158.055E-12	703.411E-3	6.18144E-3
-2.82891E-3	-158.301E-12	712.302E-3	-37.6233E-3	-158.471E-12	722.487E-3	-12.4093E-3
-2.83392E-3	-157.435E-12	702.387E-3	-28.8454E-3	-159.349E-12	738.676E-3	-25.4840E-3
-2.83892E-3	-158.753E-12	681.482E-3	-13.8079E-3	-157.449E-12	741.085E-3	-30.9361E-3
-2.84392E-3	-158.143E-12	676.432E-3	-3.84319E-3	-157.316E-12	752.366E-3	-28.6118E-3
-2.84892E-3	-159.955E-12	696.515E-3	-5.47163E-3	-159.251E-12	751.245E-3	-8.06698E-3
-2.85393E-3	-159.942E-12	698.182E-3	10.6747E-3	-159.441E-12	707.642E-3	6.63866E-3
-2.85893E-3	-160.938E-12	664.114E-3	10.7430E-3	-158.848E-12	671.509E-3	8.96595E-3
-2.86393E-3	-160.251E-12	668.593E-3	-10.1380E-3	-160.332E-12	674.909E-3	-10.6848E-3
-2.86893E-3	-160.631E-12	708.971E-3	3.07008E-3	-160.611E-12	692.979E-3	-42.8066E-3
-2.87394E-3	-160.964E-12	710.413E-3	28.5873E-3	-160.938E-12	702.274E-3	-43.5967E-3
-2.87894E-3	-161.128E-12	705.792E-3	44.3431E-3	-161.585E-12	704.749E-3	-40.5487E-3
-2.88394E-3	-161.311E-12	731.465E-3	39.2133E-3	-162.633E-12	695.597E-3	-52.3097E-3
-2.88894E-3	-161.212E-12	731.128E-3	8.28467E-3	-163.206E-12	684.950E-3	-63.7301E-3
-2.89395E-3	-161.536E-12	684.547E-3	-2.18972E-3	-163.523E-12	703.210E-3	-43.8150E-3
-2.89895E-3	-162.331E-12	642.038E-3	6.88225E-3	-164.563E-12	724.741E-3	10.4069E-3
-2.90395E-3	-163.384E-12	630.054E-3	11.4930E-3	-164.275E-12	708.761E-3	24.9636E-3
-2.90895E-3	-163.504E-12	650.998E-3	8.90402E-3	-163.720E-12	679.395E-3	6.63721E-3
-2.91396E-3	-163.665E-12	680.967E-3	-14.1276E-3	-164.851E-12	663.588E-3	-25.9870E-3
-2.91896E-3	-164.169E-12	667.133E-3	-30.4341E-3	-164.934E-12	676.369E-3	-72.0566E-3
-2.92396E-3	-164.190E-12	650.276E-3	-17.8112E-3	-164.801E-12	706.924E-3	-90.1236E-3
-2.92896E-3	-165.358E-12	679.315E-3	-11.5451E-3	-163.756E-12	700.936E-3	-74.7413E-3
-2.93397E-3	-164.967E-12	697.699E-3	-31.6298E-3	-165.051E-12	684.303E-3	-41.1522E-3
-2.93897E-3	-166.398E-12	684.041E-3	-48.8704E-3	-165.391E-12	689.011E-3	-30.4883E-3
-2.94397E-3	-164.563E-12	688.177E-3	-41.9607E-3	-165.414E-12	685.078E-3	-49.6777E-3
-2.94897E-3	-165.444E-12	702.929E-3	-30.3458E-3	-165.024E-12	678.127E-3	-55.0779E-3
-2.95398E-3	-165.830E-12	692.337E-3	-25.1360E-3	-164.712E-12	683.915E-3	-35.4385E-3
-2.95898E-3	-164.318E-12	685.611E-3	-17.0006E-3	-165.360E-12	690.509E-3	-9.32198E-3
-2.96398E-3	-163.407E-12	693.396E-3	-17.4649E-3	-166.204E-12	713.801E-3	-7.42239E-3
-2.96898E-3	-164.620E-12	687.268E-3	-22.5858E-3	-165.602E-12	743.253E-3	-17.0756E-3
-2.97399E-3	-165.666E-12	698.781E-3	-29.6121E-3	-166.105E-12	729.850E-3	-8.65514E-3
-2.97899E-3	-165.190E-12	725.943E-3	-37.7346E-3	-165.844E-12	691.462E-3	-15.9619E-3
-2.98399E-3	-166.240E-12	736.081E-3	-13.3700E-3	-167.036E-12	693.371E-3	-24.9862E-3
-2.98899E-3	-167.183E-12	725.528E-3	14.2912E-3	-168.275E-12	722.389E-3	-8.47558E-3
-2.99400E-3	-167.935E-12	706.013E-3	8.16188E-3	-168.078E-12	713.880E-3	10.5912E-3
-2.99900E-3	-169.084E-12	709.248E-3	-16.8550E-3	-167.676E-12	697.228E-3	20.3293E-3
-3.00400E-3	-170.329E-12	706.694E-3	-50.4483E-3	-168.249E-12	704.911E-3	-3.01727E-3
-3.00900E-3	-170.908E-12	679.541E-3	-63.9292E-3	-169.427E-12	717.489E-3	-33.4212E-3
-3.01401E-3	-170.961E-12	668.996E-3	-54.6895E-3	-168.132E-12	731.368E-3	-14.4195E-3
-3.01901E-3	-170.726E-12	671.777E-3	-48.4690E-3	-169.183E-12	750.189E-3	16.6857E-3
-3.02401E-3	-170.303E-12	674.031E-3	-50.0356E-3	-168.491E-12	737.769E-3	12.6541E-3
-3.02901E-3	-169.714E-12	696.118E-3	-53.9666E-3	-169.139E-12	676.637E-3	2.93771E-3
-3.03402E-3	-167.987E-12	713.523E-3	-28.6759E-3	-170.506E-12	660.963E-3	-5.33085E-3
-3.03902E-3	-167.761E-12	706.841E-3	9.04360E-3	-169.055E-12	689.818E-3	-18.5995E-3
-3.04402E-3	-167.007E-12	714.120E-3	16.1201E-3	-168.965E-12	677.057E-3	-22.6003E-3
-3.04902E-3	-166.401E-12	723.038E-3	3.43734E-3	-168.933E-12	677.279E-3	-36.0099E-3
-3.05403E-3	-165.498E-12	718.615E-3	-3.89995E-3	-169.771E-12	695.625E-3	-44.2546E-3
-3.05903E-3	-165.336E-12	710.941E-3	-9.83314E-3	-168.832E-12	666.823E-3	-27.0247E-3
-3.06403E-3	-165.939E-12	690.205E-3	-12.6687E-3	-169.055E-12	663.353E-3	-15.2669E-3
-3.06903E-3	-167.364E-12	676.093E-3	-20.8012E-3	-169.131E-12	714.575E-3	-13.1310E-3
-3.07404E-3	-168.257E-12	675.156E-3	-36.0724E-3	-169.420E-12	717.505E-3	-14.2404E-3
-3.07904E-3	-168.928E-12	690.207E-3	-46.4137E-3	-169.692E-12	673.881E-3	-18.2050E-3
-3.08404E-3	-169.544E-12	727.027E-3	-44.9216E-3	-170.078E-12	682.207E-3	-8.38531E-3
-3.08904E-3	-172.144E-12	754.573E-3	-12.6020E-3	-170.336E-12	714.118E-3	7.94116E-3
-3.09405E-3	-172.372E-12	758.227E-3	-4.32478E-3	-170.850E-12	722.252E-3	7.90663E-3
-3.09905E-3	-172.597E-12	738.322E-3	-42.9692E-3	-173.508E-12	732.605E-3	-2.00698E-3
-3.10405E-3	-173.212E-12	718.631E-3	-47.8843E-3	-172.390E-12	738.844E-3	-10.5100E-3
-3.10905E-3	-174.908E-12	730.959E-3	-27.8230E-3	-172.626E-12	718.176E-3	-16.8021E-3
-3.11406E-3	-174.701E-12	753.238E-3	-45.9086E-3	-172.755E-12	683.610E-3	-21.3645E-3
-3.11906E-3	-173.568E-12	749.390E-3	-75.9811E-3	-174.500E-12	663.710E-3	-22.4236E-3
-3.12406E-3	-173.598E-12	734.972E-3	-84.9277E-3	-175.134E-12	662.168E-3	-13.8826E-3
-3.12906E-3	-172.551E-12	733.730E-3	-76.7916E-3	-174.529E-12	657.359E-3	-26.1165E-3
-3.13407E-3	-172.648E-12	724.190E-3	-61.9875E-3	-173.559E-12	635.832E-3	-65.0595E-3
-3.13907E-3	-170.853E-12	688.485E-3	-51.1071E-3	-173.627E-12	638.480E-3	-50.4711E-3
-3.14407E-3	-169.625E-12	677.128E-3	-23.3908E-3	-173.703E-12	687.413E-3	-112.758E-6
-3.14907E-3	-170.367E-12	695.962E-3	-8.21052E-3	-172.531E-12	723.861E-3	-3.03511E-3
-3.15408E-3	-169.676E-12	679.195E-3	-41.3664E-3	-171.937E-12	703.157E-3	-15.4030E-3
-3.15908E-3	-171.053E-12	633.204E-3	-58.8497E-3	-172.092E-12	680.127E-3	-13.5935E-3
-3.16408E-3	-171.181E-12	627.975E-3	-31.1764E-3	-171.918E-12	703.719E-3	-56.2067E-3
-3.16908E-3	-172.087E-12	670.386E-3	-7.31755E-3	-173.599E-12	742.733E-3	-85.4843E-3
-3.17409E-3	-172.861E-12	710.628E-3	-17.6336E-3	-173.699E-12	751.246E-3	-57.2434E-3
-3.17909E-3	-175.549E-12	701.262E-3	-43.9819E-3	-174.930E-12	710.904E-3	-35.3656E-3
-3.18409E-3	-175.658E-12	658.352E-3	-46.7952E-3	-174.018E-12	644.952E-3	-27.9994E-3
-3.18909E-3	-177.882E-12	659.678E-3	-26.4514E-3	-175.018E-12	627.419E-3	-32.9149E-3
-3.19410E-3	-179.496E-12	708.979E-3	-21.8430E-3	-177.758E-12	667.080E-3	-62.7276E-3
-3.19910E-3	-179.196E-12	735.058E-3	-32.8330E-3	-178.259E-12	690.998E-3	-57.1638E-3
-3.20410E-3	-180.293E-12	742.460E-3	-22.5374E-3	-177.609E-12	691.779E-3	-14.6550E-3
-3.20910E-3	-179.926E-12	734.884E-3	-12.0079E-3	-179.202E-12	684.915E-3	-8.60711E-3
-3.21411E-3	-180.986E-12	708.047E-3	-16.4251E-3	-180.761E-12	667.091E-3	-34.3325E-3
-3.21911E-3	-178.724E-12	706.943E-3	-7.71919E-3	-180.509E-12	668.056E-3	-59.3212E-3
-3.22411E-3	-179.552E-12	718.850E-3	6.81924E-3	-180.309E-12	694.582E-3	-52.5116E-3
-3.22911E-3	-179.419E-12	711.675E-3	2.70419E-3	-180.680E-12	702.668E-3	-32.6753E-3
-3.23412E-3	-178.129E-12	699.861E-3	-19.9099E-3	-180.222E-12	691.645E-3	-50.2264E-3
-3.23912E-3	-178.690E-12	693.770E-3	-20.2629E-3	-178.812E-12	707.671E-3	-65.3247E-3
-3.24412E-3	-180.003E-12	680.105E-3	3.08529E-3	-177.509E-12	737.614E-3	-44.2408E-3
-3.24912E-3	-178.954E-12	691.143E-3	774.702E-6	-177.484E-12	750.398E-3	-21.6505E-3
-3.25413E-3	-177.351E-12	710.619E-3	-8.69830E-3	-177.148E-12	727.185E-3	-9.17580E-3
-3.25913E-3	-178.254E-12	699.150E-3	7.87850E-3	-176.835E-12	687.457E-3	1.46218E-3
-3.26413E-3	-178.158E-12	692.195E-3	22.2582E-3	-176.706E-12	679.902E-3	6.27356E-3
-3.26913E-3	-177.705E-12	706.766E-3	12.9742E-3	-177.341E-12	683.257E-3	-6.99307E-3
-3.27414E-3	-178.711E-12	710.472E-3	-10.4477E-3	-176.929E-12	688.411E-3	-20.9272E-3
-3.27914E-3	-179.600E-12	692.007E-3	-11.7216E-3	-177.926E-12	712.908E-3	-4.51661E-3
-3.28414E-3	-179.740E-12	687.621E-3	1.02895E-3	-178.783E-12	720.733E-3	10.9016E-3
-3.28914E-3	-180.350E-12	700.779E-3	2.43176E-3	-180.222E-12	699.602E-3	-256.557E-6
-3.29415E-3	-182.430E-12	704.473E-3	1.14633E-3	-179.480E-12	706.977E-3	-5.81322E-3
-3.29915E-3	-181.347E-12	701.088E-3	-28.1091E-3	-180.251E-12	737.730E-3	11.1797E-3
-3.30415E-3	-181.338E-12	684.902E-3	-49.7703E-3	-181.100E-12	732.125E-3	13.6827E-3
-3.30915E-3	-181.354E-12	654.449E-3	-21.3074E-3	-182.302E-12	705.654E-3	-29.1616E-3
-3.31416E-3	-183.173E-12	636.097E-3	6.71833E-3	-181.661E-12	685.557E-3	-73.9681E-3
-3.31916E-3	-183.606E-12	648.240E-3	17.5745E-3	-183.613E-12	674.756E-3	-79.7737E-3
-3.32416E-3	-183.935E-12	675.836E-3	10.6961E-3	-182.954E-12	682.034E-3	-58.5857E-3
-3.32916E-3	-182.825E-12	690.635E-3	-6.03884E-3	-183.020E-12	686.549E-3	-47.1140E-3
-3.33417E-3	-183.782E-12	705.501E-3	3.30088E-3	-182.366E-12	667.728E-3	-60.6201E-3
-3.33917E-3	-184.832E-12	718.262E-3	26.1186E-3	-182.017E-12	652.905E-3	-59.6046E-3
-3.34417E-3	-184.608E-12	697.027E-3	27.0299E-3	-181.905E-12	666.155E-3	-67.0408E-3
-3.34917E-3	-183.111E-12	665.749E-3	22.4083E-3	-181.941E-12	674.656E-3	-99.3841E-3
-3.35418E-3	-184.178E-12	640.499E-3	27.9215E-3	-182.822E-12	660.608E-3	-75.9469E-3
-3.35918E-3	-184.561E-12	620.546E-3	-11.0282E-3	-183.158E-12	662.269E-3	-20.6182E-3
-3.36418E-3	-183.487E-12	633.569E-3	-50.7090E-3	-183.904E-12	673.314E-3	-16.9300E-3
-3.36918E-3	-182.627E-12	661.130E-3	-26.6139E-3	-184.456E-12	684.102E-3	-38.3143E-3
-3.37419E-3	-183.145E-12	673.064E-3	-14.2352E-3	-184.176E-12	715.538E-3	-30.1348E-3
-3.37919E-3	-183.975E-12	688.562E-3	-20.0664E-3	-185.379E-12	725.760E-3	-20.3661E-3
-3.38419E-3	-184.268E-12	704.205E-3	6.42324E-3	-185.777E-12	692.589E-3	-23.2915E-3
-3.38919E-3	-183.890E-12	679.031E-3	31.5593E-3	-185.220E-12	679.422E-3	-12.4075E-3
-3.39420E-3	-184.943E-12	652.629E-3	35.2436E-3	-184.961E-12	695.858E-3	-9.76270E-3
-3.39920E-3	-185.746E-12	664.260E-3	41.7737E-3	-186.421E-12	699.501E-3	-7.92964E-3
-3.40420E-3	-186.432E-12	665.065E-3	29.1315E-3	-186.868E-12	704.929E-3	-18.3327E-3
-3.40920E-3	-187.784E-12	637.953E-3	-12.7602E-3	-187.139E-12	693.685E-3	-68.0137E-3
-3.41421E-3	-188.104E-12	639.117E-3	-23.8176E-3	-187.929E-12	649.704E-3	-74.0622E-3
-3.41921E-3	-189.465E-12	699.892E-3	-12.4489E-3	-187.200E-12	657.466E-3	-31.7439E-3
-3.42421E-3	-189.773E-12	743.899E-3	-15.4325E-3	-187.290E-12	708.675E-3	-23.2826E-3
-3.42921E-3	-190.808E-12	733.922E-3	-18.6327E-3	-188.010E-12	725.100E-3	-24.1521E-3
-3.43422E-3	-191.124E-12	709.036E-3	-15.7309E-3	-188.469E-12	711.183E-3	-2.76982E-3
-3.43922E-3	-190.995E-12	676.854E-3	-10.2139E-3	-186.982E-12	704.636E-3	26.8677E-3
-3.44422E-3	-190.674E-12	659.243E-3	-17.2723E-3	-187.431E-12	690.556E-3	39.0599E-3
-3.44922E-3	-189.022E-12	672.142E-3	-33.0072E-3	-188.676E-12	665.731E-3	7.39694E-3
-3.45423E-3	-188.593E-12	690.349E-3	-24.8879E-3	-189.325E-12	660.475E-3	-39.1708E-3
-3.45923E-3	-187.819E-12	694.276E-3	-8.91798E-3	-189.696E-12	655.563E-3	-31.4472E-3
-3.46423E-3	-187.695E-12	688.875E-3	-17.9432E-3	-188.285E-12	649.786E-3	25.5848E-3
-3.46923E-3	-186.961E-12	699.068E-3	-8.77085E-3	-189.632E-12	675.409E-3	5.27953E-3
-3.47424E-3	-186.776E-12	708.948E-3	15.2258E-3	-189.500E-12	724.989E-3	-68.3694E-3
-3.47924E-3	-186.578E-12	688.393E-3	3.01394E-3	-189.473E-12	756.551E-3	-80.1670E-3
-3.48424E-3	-186.419E-12	664.940E-3	-15.9274E-3	-190.492E-12	727.208E-3	-59.0963E-3
-3.48924E-3	-186.716E-12	645.341E-3	-16.5781E-3	-190.528E-12	647.258E-3	-41.1219E-3
-3.49425E-3	-186.340E-12	638.990E-3	-22.9005E-3	-189.945E-12	630.746E-3	-34.3203E-3
-3.49925E-3	-188.364E-12	668.701E-3	-11.7514E-3	-190.026E-12	701.705E-3	-48.1219E-3
-3.50425E-3	-189.352E-12	695.540E-3	14.2933E-3	-191.795E-12	725.790E-3	-53.9576E-3
-3.50925E-3	-189.734E-12	698.083E-3	9.98097E-3	-191.124E-12	691.519E-3	-41.2338E-3
-3.51426E-3	-190.852E-12	697.520E-3	-14.4319E-3	-190.837E-12	683.988E-3	-36.9625E-3
-3.51926E-3	-193.453E-12	689.355E-3	-51.3373E-3	-192.051E-12	692.115E-3	-42.0936E-3
-3.52426E-3	-193.693E-12	688.024E-3	-94.2032E-3	-193.523E-12	697.076E-3	-19.2216E-3
-3.52926E-3	-194.122E-12	715.060E-3	-114.027E-3	-195.345E-12	718.060E-3	25.5151E-3
-3.53427E-3	-195.204E-12	745.339E-3	-81.2999E-3	-194.955E-12	732.927E-3	31.4707E-3
-3.53927E-3	-195.214E-12	749.113E-3	-25.0336E-3	-194.954E-12	703.183E-3	7.20292E-3
-3.54427E-3	-193.534E-12	729.751E-3	-31.1909E-3	-195.222E-12	658.776E-3	-3.12038E-3
-3.54927E-3	-192.977E-12	685.038E-3	-58.3803E-3	-195.369E-12	661.608E-3	-10.9858E-3
-3.55428E-3	-194.099E-12	664.149E-3	-50.6030E-3	-194.632E-12	687.522E-3	-7.08330E-3
-3.55928E-3	-191.505E-12	692.473E-3	-61.1431E-3	-194.149E-12	684.755E-3	11.6840E-3
-3.56428E-3	-190.450E-12	698.375E-3	-67.8338E-3	-195.069E-12	661.820E-3	-13.2038E-3
-3.56928E-3	-190.859E-12	695.929E-3	-47.0963E-3	-193.994E-12	650.990E-3	-64.1167E-3
-3.57429E-3	-192.248E-12	689.551E-3	-49.2225E-3	-193.765E-12	682.190E-3	-66.7741E-3
-3.57929E-3	-191.796E-12	668.458E-3	-46.1616E-3	-194.402E-12	728.795E-3	-36.5201E-3
-3.58429E-3	-191.208E-12	678.620E-3	-20.5666E-3	-193.127E-12	723.276E-3	-27.7462E-3
-3.58929E-3	-192.959E-12	701.487E-3	-11.5990E-3	-192.110E-12	689.479E-3	-20.3615E-3
-3.59430E-3	-193.008E-12	680.489E-3	-5.54980E-3	-193.070E-12	663.093E-3	-8.11072E-3
-3.59930E-3	-194.537E-12	648.450E-3	-2.02973E-3	-194.216E-12	644.744E-3	-26.3723E-3
-3.60430E-3	-194.534E-12	667.294E-3	-6.13822E-3	-192.723E-12	653.299E-3	-39.4062E-3
-3.60930E-3	-196.530E-12	692.333E-3	4.14478E-3	-192.692E-12	666.026E-3	-42.1283E-3
-3.61431E-3	-196.969E-12	682.042E-3	-21.7049E-3	-194.922E-12	670.564E-3	-44.9639E-3
-3.61931E-3	-197.271E-12	668.612E-3	-53.3159E-3	-197.068E-12	674.972E-3	-28.5736E-3
-3.62431E-3	-198.114E-12	684.112E-3	-10.7840E-3	-196.783E-12	670.413E-3	-10.9753E-3
-3.62931E-3	-198.591E-12	697.116E-3	31.3984E-3	-197.295E-12	670.804E-3	-2.81126E-3
-3.63432E-3	-199.889E-12	693.269E-3	23.2014E-3	-197.921E-12	691.280E-3	4.02170E-3
-3.63932E-3	-199.337E-12	697.483E-3	-5.75059E-3	-197.606E-12	685.984E-3	-8.94108E-3
-3.64432E-3	-199.412E-12	708.009E-3	-22.4927E-3	-197.408E-12	647.946E-3	-64.5890E-3
-3.64932E-3	-198.578E-12	699.771E-3	-12.3506E-3	-197.260E-12	638.778E-3	-72.1265E-3
-3.65433E-3	-198.138E-12	675.623E-3	-4.80331E-3	-198.477E-12	665.237E-3	-16.3157E-3
-3.65933E-3	-197.871E-12	657.176E-3	-3.56861E-3	-197.683E-12	678.376E-3	-4.45578E-3
-3.66433E-3	-199.228E-12	648.204E-3	11.6418E-3	-197.779E-12	686.477E-3	-22.9755E-3
-3.66933E-3	-196.327E-12	653.309E-3	23.0257E-3	-197.732E-12	691.837E-3	-48.8552E-3
-3.67434E-3	-198.199E-12	655.635E-3	18.8260E-3	-196.940E-12	657.649E-3	-85.3417E-3
-3.67934E-3	-197.966E-12	657.984E-3	10.8275E-3	-195.820E-12	630.393E-3	-79.4043E-3
-3.68434E-3	-197.003E-12	665.417E-3	2.49555E-3	-195.643E-12	658.134E-3	-40.4655E-3
-3.68934E-3	-198.339E-12	666.014E-3	-9.62467E-3	-196.427E-12	685.673E-3	-24.5321E-3
-3.69435E-3	-198.653E-12	695.481E-3	-13.7175E-3	-196.496E-12	653.628E-3	-22.5761E-3
-3.69935E-3	-198.179E-12	727.409E-3	-1.80245E-3	-197.710E-12	626.870E-3	-3.44522E-3
-3.70435E-3	-197.845E-12	708.422E-3	2.85513E-3	-198.584E-12	637.195E-3	24.3671E-3
-3.70935E-3	-198.802E-12	675.983E-3	1.69684E-3	-199.715E-12	641.777E-3	42.2750E-3
-3.71436E-3	-198.169E-12	664.940E-3	-11.4843E-3	-200.344E-12	649.326E-3	47.5061E-3
-3.71936E-3	-200.500E-12	659.297E-3	-32.4132E-3	-201.858E-12	648.212E-3	5.91981E-3
-3.72436E-3	-200.379E-12	651.854E-3	-29.2658E-3	-202.845E-12	649.538E-3	-40.8173E-3
-3.72936E-3	-201.063E-12	663.970E-3	-45.6591E-3	-203.413E-12	696.768E-3	-38.8993E-3
-3.73437E-3	-202.639E-12	677.876E-3	-71.3067E-3	-203.174E-12	729.993E-3	-31.5224E-3
-3.73937E-3	-202.157E-12	662.850E-3	-55.9382E-3	-202.266E-12	683.233E-3	-10.5307E-3
-3.74437E-3	-202.508E-12	648.918E-3	-39.1535E-3	-202.797E-12	642.843E-3	15.2533E-3
-3.74937E-3	-203.540E-12	658.042E-3	-9.68344E-3	-202.989E-12	663.001E-3	-19.9664E-3
-3.75438E-3	-204.290E-12	675.618E-3	33.3161E-3	-202.471E-12	669.472E-3	-70.9031E-3
-3.75938E-3	-202.455E-12	699.258E-3	18.9377E-3	-202.110E-12	665.586E-3	-39.6050E-3
-3.76438E-3	-203.749E-12	723.328E-3	-29.5705E-3	-201.665E-12	671.211E-3	7.59320E-3
-3.76938E-3	-203.244E-12	719.940E-3	-50.8823E-3	-200.603E-12	661.548E-3	-12.1721E-3
-3.77439E-3	-200.977E-12	694.593E-3	-30.7274E-3	-200.451E-12	662.838E-3	-48.3219E-3
-3.77939E-3	-201.875E-12	697.309E-3	9.82369E-3	-199.955E-12	697.607E-3	-70.1312E-3
-3.78439E-3	-203.028E-12	716.850E-3	16.5845E-3	-200.052E-12	709.625E-3	-68.4010E-3
-3.78939E-3	-202.291E-12	715.955E-3	9.31261E-3	-199.954E-12	666.844E-3	-56.2126E-3
-3.79440E-3	-202.283E-12	699.176E-3	2.42599E-3	-201.730E-12	640.639E-3	-65.2188E-3
-3.79940E-3	-203.467E-12	684.876E-3	999.764E-6	-202.231E-12	651.184E-3	-70.1947E-3
-3.80440E-3	-203.452E-12	700.619E-3	5.54119E-3	-202.274E-12	658.967E-3	-48.8892E-3
-3.80940E-3	-202.648E-12	731.117E-3	-8.10333E-3	-203.521E-12	686.700E-3	-19.1870E-3
-3.81441E-3	-203.608E-12	734.638E-3	-17.9780E-3	-204.819E-12	715.111E-3	15.5214E-3
-3.81941E-3	-203.458E-12	703.581E-3	-28.7680E-3	-205.052E-12	697.470E-3	49.8591E-3
-3.82441E-3	-205.080E-12	680.598E-3	-22.6754E-3	-205.302E-12	697.133E-3	47.3193E-3
-3.82941E-3	-206.406E-12	697.585E-3	12.5207E-3	-206.855E-12	734.915E-3	1.48481E-3
-3.83442E-3	-205.861E-12	731.266E-3	32.0707E-3	-207.105E-12	762.655E-3	-17.8040E-3
-3.83942E-3	-204.773E-12	735.946E-3	9.76009E-3	-207.927E-12	754.781E-3	490.714E-6
-3.84442E-3	-206.673E-12	702.224E-3	-27.5677E-3	-207.188E-12	706.268E-3	-3.78099E-3
-3.84942E-3	-207.593E-12	675.760E-3	-26.2885E-3	-207.767E-12	651.218E-3	-19.5561E-3
-3.85443E-3	-207.031E-12	681.933E-3	-2.05319E-3	-206.838E-12	623.092E-3	-8.46463E-3
-3.85943E-3	-206.122E-12	681.477E-3	-6.75326E-3	-206.653E-12	644.742E-3	-29.2114E-3
-3.86443E-3	-205.629E-12	666.484E-3	-38.5607E-3	-206.349E-12	672.652E-3	-62.5445E-3
-3.86943E-3	-206.922E-12	663.726E-3	-51.9432E-3	-206.979E-12	666.917E-3	-38.4698E-3
-3.87444E-3	-205.878E-12	673.113E-3	-37.5237E-3	-206.705E-12	694.857E-3	-27.4728E-3
-3.87944E-3	-205.956E-12	673.700E-3	-27.3820E-3	-206.930E-12	718.823E-3	-40.6474E-3
-3.88444E-3	-206.213E-12	654.483E-3	-42.8807E-3	-206.606E-12	706.546E-3	-26.9196E-3
-3.88944E-3	-204.645E-12	663.600E-3	-49.6318E-3	-208.958E-12	708.255E-3	-25.1343E-3
-3.89445E-3	-205.311E-12	679.204E-3	-24.4092E-3	-209.996E-12	674.384E-3	-35.8224E-3
-3.89945E-3	-205.766E-12	658.016E-3	-4.53020E-3	-209.208E-12	629.609E-3	-42.8876E-3
-3.90445E-3	-206.176E-12	641.345E-3	-2.75559E-3	-209.453E-12	637.970E-3	-36.5792E-3
-3.90945E-3	-205.539E-12	644.993E-3	-23.0418E-3	-210.990E-12	670.259E-3	-3.22348E-3
-3.91446E-3	-207.297E-12	654.262E-3	-35.1452E-3	-210.121E-12	692.485E-3	4.69050E-3
-3.91946E-3	-208.712E-12	671.342E-3	-23.0115E-3	-209.545E-12	710.738E-3	-11.6708E-3
-3.92446E-3	-209.584E-12	686.640E-3	-31.6588E-3	-210.554E-12	721.963E-3	-23.2033E-3
-3.92946E-3	-209.509E-12	699.234E-3	-51.8849E-3	-211.629E-12	720.599E-3	578.527E-6
-3.93447E-3	-210.387E-12	708.585E-3	-50.3574E-3	-210.580E-12	729.213E-3	33.9260E-3
-3.93947E-3	-212.308E-12	696.840E-3	-30.3757E-3	-210.908E-12	711.716E-3	10.2306E-3
-3.94447E-3	-211.715E-12	678.200E-3	-13.0647E-3	-210.678E-12	678.496E-3	-14.1151E-3
-3.94947E-3	-213.271E-12	677.716E-3	-21.8409E-3	-211.249E-12	690.369E-3	-25.7845E-3
-3.95448E-3	-213.573E-12	680.051E-3	-35.3827E-3	-211.328E-12	695.605E-3	-64.4308E-3
-3.95948E-3	-212.405E-12	683.252E-3	-37.4159E-3	-210.602E-12	677.753E-3	-77.9114E-3
-3.96448E-3	-211.969E-12	706.664E-3	-22.3233E-3	-211.075E-12	710.194E-3	-52.2541E-3
-3.96948E-3	-211.904E-12	705.742E-3	453.979E-6	-211.932E-12	733.750E-3	-15.2805E-3
-3.97449E-3	-212.268E-12	671.977E-3	14.2032E-3	-210.748E-12	711.576E-3	-5.78006E-3
-3.97949E-3	-211.381E-12	658.712E-3	18.2650E-3	-212.311E-12	709.857E-3	-33.6966E-3
-3.98449E-3	-210.017E-12	686.873E-3	14.8764E-3	-212.202E-12	708.664E-3	-57.6284E-3
-3.98949E-3	-210.944E-12	712.331E-3	-2.53174E-3	-212.144E-12	705.846E-3	-53.3010E-3
-3.99450E-3	-211.771E-12	689.269E-3	-22.2506E-3	-211.865E-12	718.093E-3	-27.2598E-3
-3.99950E-3	-211.213E-12	661.840E-3	-24.6787E-3	-213.136E-12	725.767E-3	-16.8373E-3
-4.00450E-3	-211.828E-12	656.688E-3	-13.4227E-3	-212.374E-12	714.992E-3	-16.8659E-3
-4.00950E-3	-211.334E-12	670.619E-3	-3.95410E-3	-211.663E-12	698.866E-3	-2.83813E-3
-4.01451E-3	-211.966E-12	691.796E-3	-7.72216E-3	-213.131E-12	707.841E-3	3.34099E-3
-4.01951E-3	-213.239E-12	685.859E-3	-9.71817E-3	-213.253E-12	722.295E-3	26.8661E-3
-4.02451E-3	-212.928E-12	661.836E-3	-2.28164E-3	-214.031E-12	698.863E-3	43.4434E-3
-4.02951E-3	-212.752E-12	664.058E-3	16.8913E-3	-212.535E-12	659.936E-3	-556.902E-6
-4.03452E-3	-212.888E-12	699.658E-3	51.8550E-3	-213.454E-12	655.833E-3	-25.7938E-3
-4.03952E-3	-214.988E-12	740.667E-3	55.8822E-3	-214.835E-12	678.135E-3	-11.6082E-3
-4.04452E-3	-215.850E-12	759.841E-3	7.81272E-3	-215.185E-12	683.984E-3	-10.4076E-3
-4.04952E-3	-216.658E-12	753.396E-3	-26.7712E-3	-215.539E-12	659.428E-3	621.984E-6
-4.05453E-3	-216.203E-12	729.116E-3	-21.7752E-3	-215.881E-12	666.506E-3	14.4930E-3
-4.05953E-3	-215.850E-12	701.188E-3	-7.34850E-3	-216.619E-12	712.539E-3	1.32574E-3
-4.06453E-3	-215.885E-12	684.599E-3	-4.58054E-3	-218.035E-12	702.658E-3	-23.3947E-3
-4.06953E-3	-216.517E-12	679.234E-3	-9.94083E-3	-217.256E-12	660.788E-3	-56.6648E-3
-4.07454E-3	-214.866E-12	671.647E-3	-9.12212E-3	-217.179E-12	665.226E-3	-81.7797E-3
-4.07954E-3	-216.692E-12	654.260E-3	-29.7974E-3	-216.988E-12	697.666E-3	-83.1024E-3
-4.08454E-3	-217.187E-12	635.505E-3	-46.0269E-3	-217.534E-12	713.294E-3	-61.0118E-3
-4.08954E-3	-216.832E-12	629.142E-3	-16.1683E-3	-216.332E-12	695.839E-3	-26.0512E-3
-4.09455E-3	-215.151E-12	650.921E-3	12.7450E-3	-217.712E-12	659.217E-3	-17.6828E-3
-4.09955E-3	-216.294E-12	655.611E-3	-2.99110E-3	-216.633E-12	635.973E-3	557.539E-6
-4.10455E-3	-216.999E-12	629.967E-3	-43.9603E-3	-215.802E-12	667.988E-3	2.04148E-3
-4.10955E-3	-216.047E-12	633.027E-3	-64.7333E-3	-215.563E-12	698.593E-3	-41.7678E-3
-4.11456E-3	-215.240E-12	662.438E-3	-50.0307E-3	-215.873E-12	672.860E-3	-42.2293E-3
-4.11956E-3	-216.144E-12	663.462E-3	-26.8636E-3	-215.720E-12	669.890E-3	-33.0487E-3
-4.12456E-3	-215.517E-12	648.286E-3	-20.0888E-3	-216.707E-12	690.910E-3	-47.8745E-3
-4.12956E-3	-215.976E-12	656.710E-3	-6.89398E-3	-217.530E-12	702.675E-3	-44.7331E-3
-4.13457E-3	-216.468E-12	678.672E-3	3.38868E-3	-218.101E-12	757.074E-3	-20.9045E-3
-4.13957E-3	-216.649E-12	701.353E-3	-11.7013E-3	-218.230E-12	782.844E-3	9.00635E-3
-4.14457E-3	-218.184E-12	698.636E-3	-17.4890E-3	-221.363E-12	721.259E-3	20.1528E-3
-4.14957E-3	-217.699E-12	675.686E-3	-623.466E-6	-221.883E-12	673.895E-3	10.9508E-3
-4.15458E-3	-219.912E-12	673.671E-3	-13.8287E-3	-222.247E-12	667.789E-3	-7.62536E-3
-4.15958E-3	-219.992E-12	689.340E-3	-37.7530E-3	-223.681E-12	675.069E-3	12.9787E-3
-4.16458E-3	-220.310E-12	686.080E-3	-12.4706E-3	-223.822E-12	714.954E-3	63.9716E-3
-4.16958E-3	-219.003E-12	668.893E-3	-2.13638E-3	-223.278E-12	757.119E-3	63.3313E-3
-4.17459E-3	-220.330E-12	678.115E-3	-26.7906E-3	-223.101E-12	745.036E-3	33.5957E-3
-4.17959E-3	-220.083E-12	698.317E-3	-15.5937E-3	-223.661E-12	701.995E-3	-3.73819E-3
-4.18459E-3	-218.566E-12	681.003E-3	-2.41388E-3	-223.092E-12	666.585E-3	-59.5311E-3
-4.18959E-3	-219.853E-12	674.080E-3	-4.25642E-3	-222.554E-12	649.471E-3	-54.9664E-3
-4.19460E-3	-220.407E-12	700.543E-3	-12.7362E-3	-220.404E-12	653.047E-3	5.66472E-3
-4.19960E-3	-220.854E-12	693.869E-3	-52.4787E-3	-221.433E-12	676.233E-3	31.5538E-3
-4.20460E-3	-220.458E-12	681.535E-3	-46.1330E-3	-221.511E-12	690.758E-3	9.53785E-3
-4.20960E-3	-220.677E-12	689.009E-3	10.0761E-3	-219.772E-12	693.841E-3	-6.29417E-3
-4.21461E-3	-219.845E-12	673.441E-3	18.2647E-3	-220.127E-12	692.672E-3	-6.67832E-3
-4.21961E-3	-221.003E-12	656.241E-3	10.4168E-3	-220.409E-12	673.698E-3	-33.4537E-3
-4.22461E-3	-222.953E-12	663.428E-3	10.1005E-3	-221.697E-12	684.648E-3	-62.4606E-3
-4.22961E-3	-222.858E-12	657.818E-3	-18.9498E-3	-222.488E-12	728.886E-3	-75.9755E-3
-4.23462E-3	-222.186E-12	666.816E-3	-11.9150E-3	-223.879E-12	745.990E-3	-69.5626E-3
-4.23962E-3	-223.442E-12	711.237E-3	28.7079E-3	-223.124E-12	713.018E-3	-16.4786E-3
-4.24462E-3	-224.931E-12	710.816E-3	21.7769E-3	-224.079E-12	680.122E-3	28.8476E-3
-4.24962E-3	-226.131E-12	672.228E-3	-3.46454E-3	-225.047E-12	677.726E-3	19.5069E-3
-4.25463E-3	-225.488E-12	654.878E-3	-4.41854E-3	-226.720E-12	694.300E-3	-2.97080E-3
-4.25963E-3	-226.302E-12	668.659E-3	3.07978E-3	-227.044E-12	701.549E-3	-14.6252E-3
-4.26463E-3	-227.468E-12	718.832E-3	-7.49473E-3	-225.987E-12	663.497E-3	-20.8247E-3
-4.26963E-3	-228.617E-12	752.860E-3	-18.2850E-3	-226.886E-12	643.067E-3	-16.8599E-3
-4.27464E-3	-227.732E-12	741.500E-3	564.924E-6	-226.410E-12	658.748E-3	-29.6274E-3
-4.27964E-3	-225.783E-12	725.112E-3	-7.35481E-3	-225.401E-12	660.440E-3	-66.1655E-3
-4.28464E-3	-227.107E-12	713.122E-3	-31.0471E-3	-223.926E-12	656.730E-3	-77.5601E-3
-4.28964E-3	-227.278E-12	697.301E-3	-14.9850E-3	-223.768E-12	660.119E-3	-60.2451E-3
-4.29465E-3	-228.024E-12	669.447E-3	-21.5058E-3	-222.986E-12	648.477E-3	-69.6639E-3
-4.29965E-3	-225.121E-12	646.254E-3	-50.2139E-3	-222.351E-12	606.075E-3	-90.0269E-3
-4.30465E-3	-225.907E-12	637.672E-3	-21.1092E-3	-221.969E-12	602.647E-3	-71.5189E-3
-4.30965E-3	-226.357E-12	612.302E-3	14.1402E-3	-223.111E-12	664.143E-3	-18.9059E-3
-4.31466E-3	-226.261E-12	603.514E-3	8.20985E-3	-224.051E-12	712.893E-3	39.3734E-3
-4.31966E-3	-225.709E-12	638.866E-3	7.78322E-3	-224.832E-12	735.325E-3	56.6924E-3
-4.32466E-3	-225.779E-12	650.124E-3	-1.88211E-3	-226.882E-12	742.758E-3	27.3446E-3
-4.32966E-3	-227.508E-12	659.152E-3	-46.3050E-3	-228.698E-12	711.816E-3	-5.42126E-3
-4.33467E-3	-226.763E-12	684.774E-3	-76.2143E-3	-228.592E-12	696.290E-3	-22.4538E-3
-4.33967E-3	-228.323E-12	665.901E-3	-61.6190E-3	-228.700E-12	717.621E-3	-45.6493E-3
-4.34467E-3	-227.768E-12	671.119E-3	-50.9821E-3	-230.871E-12	712.188E-3	-55.9730E-3
-4.34967E-3	-229.302E-12	727.517E-3	-30.8290E-3	-230.187E-12	704.273E-3	-35.1786E-3
-4.35468E-3	-230.119E-12	735.679E-3	-4.44275E-3	-230.252E-12	684.977E-3	-32.7793E-3
-4.35968E-3	-231.574E-12	719.633E-3	-30.9527E-3	-230.814E-12	661.427E-3	-12.6077E-3
-4.36468E-3	-230.995E-12	733.172E-3	-25.1851E-3	-230.685E-12	697.345E-3	15.6221E-3
-4.36968E-3	-231.805E-12	703.139E-3	7.31015E-3	-230.203E-12	738.405E-3	-3.79156E-3
-4.37469E-3	-233.570E-12	643.310E-3	-13.7470E-3	-229.688E-12	730.345E-3	-21.2137E-3
-4.37969E-3	-232.041E-12	630.168E-3	-20.8357E-3	-227.871E-12	709.742E-3	-17.1698E-3
-4.38469E-3	-230.716E-12	652.464E-3	-4.73161E-3	-227.378E-12	682.667E-3	650.749E-6
-4.38969E-3	-231.799E-12	684.961E-3	-17.2558E-3	-227.546E-12	655.894E-3	9.31850E-3
-4.39470E-3	-232.774E-12	715.683E-3	-37.9166E-3	-227.587E-12	656.007E-3	-91.0911E-6
-4.39970E-3	-230.941E-12	729.289E-3	-23.1928E-3	-227.314E-12	646.224E-3	-7.81642E-3
-4.40470E-3	-230.026E-12	703.336E-3	7.51572E-3	-228.126E-12	622.862E-3	-12.5129E-3
-4.40970E-3	-229.409E-12	668.993E-3	13.5267E-3	-229.293E-12	634.522E-3	-2.49805E-3
-4.41471E-3	-229.935E-12	651.063E-3	22.7618E-3	-229.440E-12	677.500E-3	-15.8788E-3
-4.41971E-3	-230.632E-12	650.892E-3	30.9163E-3	-229.564E-12	691.224E-3	-50.0785E-3
-4.42471E-3	-227.489E-12	694.563E-3	9.84415E-3	-231.724E-12	669.932E-3	-41.2628E-3
-4.42971E-3	-227.937E-12	712.464E-3	13.6849E-3	-231.270E-12	648.555E-3	-21.3541E-3
-4.43472E-3	-229.848E-12	676.894E-3	29.3799E-3	-232.244E-12	605.654E-3	-41.9597E-3
-4.43972E-3	-230.020E-12	674.581E-3	18.2421E-3	-234.544E-12	587.345E-3	-49.5350E-3
-4.44472E-3	-229.383E-12	685.528E-3	11.1156E-3	-233.704E-12	620.011E-3	-26.9588E-3
-4.44972E-3	-230.788E-12	660.263E-3	-384.460E-6	-233.736E-12	628.057E-3	-27.6582E-3
-4.45473E-3	-232.638E-12	657.169E-3	-22.1544E-3	-234.675E-12	639.988E-3	-49.0955E-3
-4.45973E-3	-233.315E-12	658.522E-3	-17.9161E-3	-234.257E-12	683.793E-3	-58.1058E-3
-4.46473E-3	-233.768E-12	620.898E-3	-17.5307E-3	-233.541E-12	691.671E-3	-59.7649E-3
-4.46973E-3	-233.951E-12	644.840E-3	-36.3543E-3	-234.075E-12	683.218E-3	-56.4280E-3
-4.47474E-3	-236.301E-12	711.935E-3	-31.3597E-3	-234.381E-12	718.754E-3	-24.8014E-3
-4.47974E-3	-236.429E-12	732.628E-3	-26.4785E-3	-233.922E-12	719.877E-3	6.25097E-3
-4.48474E-3	-235.937E-12	719.139E-3	-44.2809E-3	-233.772E-12	666.805E-3	7.22917E-3
-4.48974E-3	-236.017E-12	713.239E-3	-22.3419E-3	-234.967E-12	653.422E-3	-11.3635E-3
-4.49475E-3	-235.534E-12	731.755E-3	12.1684E-3	-234.824E-12	679.033E-3	-3.54589E-3
-4.49975E-3	-236.475E-12	720.569E-3	-11.1647E-3	-234.676E-12	695.101E-3	19.5823E-3
-4.50475E-3	-236.363E-12	660.405E-3	-39.9500E-3	-235.646E-12	683.819E-3	-9.85196E-3
-4.50975E-3	-235.681E-12	616.242E-3	-33.4734E-3	-235.882E-12	667.014E-3	-72.9903E-3
-4.51476E-3	-236.396E-12	636.822E-3	-13.9001E-3	-235.890E-12	666.424E-3	-74.0033E-3
-4.51976E-3	-238.366E-12	692.237E-3	-18.9325E-3	-235.278E-12	678.964E-3	-28.3886E-3
-4.52476E-3	-237.141E-12	694.238E-3	-62.1277E-3	-235.251E-12	692.997E-3	-24.9625E-3
-4.52976E-3	-236.265E-12	652.987E-3	-95.6891E-3	-236.136E-12	683.528E-3	-45.8369E-3
-4.53477E-3	-238.199E-12	654.775E-3	-72.2672E-3	-235.382E-12	661.665E-3	-48.5066E-3
-4.53977E-3	-238.018E-12	674.234E-3	-25.1431E-3	-236.855E-12	669.433E-3	-33.4001E-3
-4.54477E-3	-236.670E-12	685.595E-3	-18.1702E-3	-237.191E-12	707.143E-3	-27.7743E-3
-4.54977E-3	-236.669E-12	696.128E-3	-40.7312E-3	-238.002E-12	718.155E-3	-5.69102E-3
-4.55478E-3	-237.875E-12	701.971E-3	-47.5184E-3	-237.179E-12	667.976E-3	9.80099E-3
-4.55978E-3	-238.894E-12	699.352E-3	-36.6846E-3	-237.745E-12	645.243E-3	-24.6566E-3
-4.56478E-3	-238.793E-12	687.890E-3	-16.4841E-3	-238.578E-12	690.666E-3	-11.5979E-3
-4.56978E-3	-240.344E-12	676.159E-3	-12.1304E-3	-240.316E-12	709.605E-3	19.7516E-3
-4.57479E-3	-239.919E-12	664.534E-3	-38.8432E-3	-241.429E-12	689.800E-3	-491.753E-6
-4.57979E-3	-241.540E-12	679.264E-3	-26.2915E-3	-242.208E-12	685.916E-3	11.8351E-3
-4.58479E-3	-242.660E-12	680.583E-3	25.4608E-3	-244.120E-12	708.381E-3	30.3739E-3
-4.58979E-3	-241.385E-12	664.163E-3	40.3405E-3	-244.142E-12	726.435E-3	10.9426E-3
-4.59480E-3	-241.042E-12	681.236E-3	52.3024E-3	-242.549E-12	738.912E-3	-15.0985E-3
-4.59980E-3	-241.061E-12	684.280E-3	81.2094E-3	-242.706E-12	751.461E-3	-22.4995E-3
-4.60480E-3	-241.661E-12	676.105E-3	67.4622E-3	-242.647E-12	741.445E-3	-7.20667E-3
-4.60980E-3	-240.517E-12	667.670E-3	14.2536E-3	-241.973E-12	715.470E-3	-13.1616E-3
-4.61481E-3	-239.925E-12	657.512E-3	-2.90301E-3	-241.004E-12	673.376E-3	-41.4014E-3
-4.61981E-3	-239.399E-12	661.659E-3	-1.01237E-3	-239.936E-12	624.144E-3	-48.1880E-3
-4.62481E-3	-239.205E-12	651.776E-3	-12.9517E-3	-241.239E-12	617.275E-3	-35.0568E-3
-4.62981E-3	-238.928E-12	640.124E-3	-12.7857E-3	-239.371E-12	679.732E-3	-32.4782E-3
-4.63482E-3	-236.997E-12	658.419E-3	-23.8722E-3	-239.131E-12	731.857E-3	-36.8865E-3
-4.63982E-3	-237.596E-12	663.446E-3	-39.8993E-3	-239.605E-12	704.436E-3	-53.5751E-3
-4.64482E-3	-238.175E-12	630.804E-3	-14.5977E-3	-238.847E-12	681.873E-3	-81.1479E-3
-4.64982E-3	-239.848E-12	631.026E-3	8.04910E-3	-240.430E-12	707.423E-3	-81.9949E-3
-4.65483E-3	-239.164E-12	672.491E-3	-25.0475E-3	-240.570E-12	696.245E-3	-40.4930E-3
-4.65983E-3	-240.127E-12	675.603E-3	-57.2878E-3	-241.677E-12	667.655E-3	-10.6943E-3
-4.66483E-3	-240.915E-12	641.967E-3	-43.6543E-3	-241.232E-12	696.173E-3	-18.0619E-3
-4.66983E-3	-244.095E-12	658.869E-3	-16.7287E-3	-242.574E-12	701.478E-3	-6.00161E-3
-4.67484E-3	-243.668E-12	714.650E-3	3.64813E-3	-245.042E-12	673.316E-3	10.9248E-3
-4.67984E-3	-243.273E-12	715.803E-3	-271.720E-6	-245.202E-12	677.347E-3	566.537E-6
-4.68484E-3	-245.187E-12	680.487E-3	-15.0112E-3	-245.184E-12	666.146E-3	-2.10095E-3
-4.68984E-3	-245.669E-12	661.778E-3	23.6743E-3	-246.022E-12	648.658E-3	5.81288E-3
-4.69485E-3	-245.456E-12	654.331E-3	51.2805E-3	-247.299E-12	666.196E-3	-3.76380E-3
-4.69985E-3	-245.231E-12	647.621E-3	15.4988E-3	-244.853E-12	694.195E-3	-17.8244E-3
-4.70485E-3	-246.802E-12	645.207E-3	-8.31680E-3	-243.931E-12	687.118E-3	-10.4432E-3
-4.70985E-3	-245.514E-12	644.979E-3	-17.0249E-3	-244.244E-12	632.998E-3	-36.4704E-3
-4.71486E-3	-245.767E-12	651.157E-3	-70.0348E-3	-243.990E-12	595.620E-3	-67.2719E-3
-4.71986E-3	-244.931E-12	690.541E-3	-118.967E-3	-243.458E-12	612.360E-3	-1.92897E-3
-4.72486E-3	-243.661E-12	715.365E-3	-82.2698E-3	-244.029E-12	630.024E-3	46.8538E-3
-4.72986E-3	-242.283E-12	665.272E-3	-12.0876E-3	-243.374E-12	622.187E-3	-7.05980E-3
-4.73487E-3	-242.358E-12	613.127E-3	-19.3476E-3	-242.624E-12	630.277E-3	-38.9315E-3
-4.73987E-3	-241.939E-12	618.645E-3	-55.8446E-3	-241.961E-12	654.559E-3	-16.6122E-3
-4.74487E-3	-241.929E-12	653.070E-3	-6.78800E-3	-244.594E-12	660.968E-3	8.58825E-3
-4.74988E-3	-242.168E-12	696.350E-3	33.5219E-3	-245.491E-12	652.402E-3	44.7196E-3
-4.75488E-3	-242.594E-12	708.932E-3	-12.4887E-3	-247.238E-12	656.779E-3	38.0190E-3
-4.75988E-3	-244.593E-12	696.479E-3	-46.0390E-3	-247.774E-12	665.649E-3	1.16489E-3
-4.76488E-3	-245.722E-12	697.236E-3	-34.0975E-3	-249.647E-12	657.585E-3	-2.65251E-3
-4.76988E-3	-245.252E-12	714.610E-3	-27.0504E-3	-251.944E-12	670.121E-3	-5.78145E-3
-4.77489E-3	-246.181E-12	738.892E-3	-47.8036E-3	-250.977E-12	681.824E-3	-10.7694E-3
-4.77989E-3	-248.518E-12	714.748E-3	-47.1434E-3	-250.642E-12	660.933E-3	-3.90743E-3
-4.78489E-3	-249.596E-12	673.841E-3	5.14465E-3	-250.930E-12	652.320E-3	8.15798E-3
-4.78989E-3	-249.646E-12	670.676E-3	17.6872E-3	-251.575E-12	641.723E-3	27.7264E-3
-4.79490E-3	-251.119E-12	636.430E-3	-5.73416E-3	-251.143E-12	616.592E-3	29.1119E-3
-4.79990E-3	-252.650E-12	571.186E-3	251.421E-6	-251.195E-12	601.490E-3	2.39874E-3
-4.80490E-3	-251.940E-12	598.317E-3	-16.3242E-3	-250.342E-12	585.972E-3	-9.88624E-3
-4.80990E-3	-251.509E-12	685.801E-3	-56.1377E-3	-249.238E-12	568.558E-3	-7.61081E-3
-4.81491E-3	-250.518E-12	690.396E-3	-46.7172E-3	-249.346E-12	605.417E-3	-13.2688E-3
-4.81991E-3	-250.995E-12	663.751E-3	-31.8975E-3	-248.590E-12	688.926E-3	-25.5561E-3
-4.82491E-3	-250.486E-12	704.215E-3	-51.8691E-3	-248.132E-12	725.179E-3	-19.7075E-3
-4.82991E-3	-249.555E-12	728.366E-3	-37.0834E-3	-247.484E-12	710.075E-3	22.2833E-3
-4.83492E-3	-249.130E-12	681.326E-3	-30.3860E-3	-248.612E-12	685.286E-3	31.6453E-3
-4.83992E-3	-249.323E-12	668.224E-3	-53.2794E-3	-249.217E-12	666.315E-3	-6.15777E-3
-4.84492E-3	-248.510E-12	696.261E-3	-22.3961E-3	-249.855E-12	674.004E-3	-24.0249E-3
-4.84992E-3	-249.458E-12	683.350E-3	18.0982E-3	-249.145E-12	691.760E-3	-21.1329E-3
-4.85493E-3	-249.550E-12	670.762E-3	21.0679E-3	-251.857E-12	703.278E-3	1.50946E-3
-4.85993E-3	-249.570E-12	675.753E-3	16.4866E-3	-252.897E-12	717.002E-3	3.94124E-3
-4.86493E-3	-251.036E-12	662.897E-3	-8.78121E-3	-252.582E-12	719.174E-3	-26.7192E-3
-4.86993E-3	-252.421E-12	665.482E-3	-35.8910E-3	-253.897E-12	706.364E-3	13.5354E-3
-4.87494E-3	-253.240E-12	682.065E-3	-10.3781E-3	-255.281E-12	666.570E-3	65.0009E-3
-4.87994E-3	-253.773E-12	660.819E-3	32.6293E-3	-254.806E-12	606.550E-3	27.9477E-3
-4.88494E-3	-254.955E-12	643.574E-3	32.7424E-3	-254.292E-12	572.420E-3	9.15090E-3
-4.88995E-3	-255.824E-12	672.449E-3	23.2732E-3	-254.916E-12	604.124E-3	57.5789E-3
-4.89495E-3	-255.844E-12	678.641E-3	18.5375E-3	-254.321E-12	657.194E-3	47.4782E-3
-4.89995E-3	-255.153E-12	647.875E-3	-33.2804E-3	-253.336E-12	665.992E-3	-19.1807E-3
-4.90495E-3	-256.423E-12	640.498E-3	-66.6161E-3	-252.985E-12	670.488E-3	-22.4411E-3
-4.90995E-3	-255.432E-12	646.751E-3	-43.2710E-3	-254.466E-12	685.292E-3	11.8649E-3
-4.91496E-3	-254.107E-12	660.359E-3	-39.7474E-3	-254.519E-12	675.829E-3	32.7647E-3
-4.91996E-3	-254.019E-12	682.099E-3	-18.6726E-3	-252.017E-12	660.469E-3	42.3345E-3
-4.92496E-3	-253.971E-12	672.375E-3	31.7123E-3	-252.925E-12	685.480E-3	10.1381E-3
-4.92996E-3	-254.772E-12	683.173E-3	22.9395E-3	-253.504E-12	723.444E-3	-35.7560E-3
-4.93497E-3	-253.936E-12	725.528E-3	-15.4393E-3	-252.384E-12	750.467E-3	-31.2083E-3
-4.93997E-3	-254.326E-12	742.534E-3	-5.70776E-3	-251.679E-12	762.285E-3	9.37357E-3
-4.94497E-3	-254.456E-12	743.352E-3	19.0544E-3	-252.284E-12	725.978E-3	37.7439E-3
-4.94997E-3	-254.736E-12	717.084E-3	15.6026E-3	-253.197E-12	686.017E-3	26.3176E-3
-4.95498E-3	-254.889E-12	684.688E-3	14.0501E-3	-254.074E-12	662.111E-3	-18.0241E-3
-4.95998E-3	-257.358E-12	685.763E-3	20.8978E-3	-253.997E-12	624.568E-3	-42.5042E-3
-4.96498E-3	-257.790E-12	695.249E-3	25.3369E-3	-255.580E-12	638.949E-3	-24.9444E-3
-4.96998E-3	-256.621E-12	661.358E-3	31.1260E-3	-255.755E-12	685.885E-3	-31.9783E-3
-4.97499E-3	-257.472E-12	630.818E-3	16.9943E-3	-257.686E-12	680.181E-3	-47.2312E-3
-4.97999E-3	-258.941E-12	652.789E-3	-2.46233E-3	-257.753E-12	678.125E-3	-6.69777E-3
-4.98499E-3	-258.703E-12	652.458E-3	-2.43450E-3	-256.663E-12	705.736E-3	26.1179E-3
-4.98999E-3	-257.594E-12	641.723E-3	-15.6616E-3	-257.344E-12	694.043E-3	-11.0942E-3
-4.99500E-3	-260.247E-12	655.732E-3	-21.2052E-3	-258.454E-12	642.952E-3	-42.8779E-3
-5.00000E-3	-259.098E-12	647.010E-3	1.81608E-3	-258.137E-12	624.145E-3	-10.4596E-3
