Experiment	bias spectroscopy	
Date	19.01.2016 19:12:30	
User		
X (m)	50.5012E-9	
Y (m)	256.62E-9	
Z (m)	-132.576E-9	
Z offset (m)	0E+0	
Settling time (s)	200E-6	
Integration time (s)	5E-3	
Z-Ctrl hold	TRUE	
Final Z (m)	N/A	
Filter type	None	
Order		
Cutoff frq		
Comment01	MnPc/Pb(111)	
Comment02	dz =00pm	
Comment03	7 Sweeps	
Comment04	MagField =0.T	
Comment05	Divider 1:10	
Comment06	Setpoint:5mV,200 pA	
Comment07	Lockin: 50uVrms,5ms,5mV	
Comment08	Gain:9; 912Hz modulation	
Comment09	T=1.06K	
Bias>Bias (V)	5E-3	
Bias>Calibration (V/V)	81.475E-3	
Bias>Offset (V)	1.046E-3	
Bias Spectroscopy>Sweep Start (V)	5E-3	
Bias Spectroscopy>Sweep End (V)	-5E-3	
Bias Spectroscopy>Num Pixel	2000	
Bias Spectroscopy>Z Avg time (s)	500E-3	
Bias Spectroscopy>Z offset (m)	0E+0	
Bias Spectroscopy>1st Settling time (s)	500E-3	
Bias Spectroscopy>Settling time (s)	200E-6	
Bias Spectroscopy>Integration time (s)	5E-3	
Bias Spectroscopy>End Settling time (s)	500E-3	
Bias Spectroscopy>Z control time (s)	500E-3	
Bias Spectroscopy>Max Slew rate (V/s)	Inf	
Bias Spectroscopy>backward sweep	TRUE	
Bias Spectroscopy>Z-controller hold	TRUE	
Bias Spectroscopy>Number of sweeps	7	
Bias Spectroscopy>Channels	Current (A);X% LockIn (V);Y% LockIn (V)	
Bias Spectroscopy>Reset Bias	TRUE	
Bias Spectroscopy>Record final Z	FALSE	
Bias Spectroscopy>Lock-In run	FALSE	
Bias Spectroscopy>Sweep mode	Linear	
Bias Spectroscopy>MultiLine Settings : Segment Start (V), Segment End (V), Settling (s), Integration (s), Steps (xn)	100E-3,3.3E-3,100E-6,10E-3,2500;3.3E-3,-3.3E-3,100E-6,10E-3,10;-3.3E-3,-100E-3,100E-6,10E-3,2500	
Current>Current (A)	200.138E-12	
Current>Calibration (A/V)	999.99900E-12	
Current>Offset (A)	-455.429E-15	
Current>Gain	LN 10^9	
Z-Controller>Z (m)	-132.576E-9	
Z-Controller>Controller name	log Current	
Z-Controller>Controller status	ON	
Z-Controller>Setpoint	200E-12	
Z-Controller>Setpoint unit	A	
Z-Controller>P gain	2.96994E-12	
Z-Controller>I gain	67.0321E-9	
Z-Controller>Time const (s)	44.3062E-6	
Z-Controller>TipLift (m)	0E+0	
Z-Controller>Switch off delay (s)	50E-3	
Current (A)	199.816E-12	
Z (m)	-132.576E-9	

[DATA]
Bias calc (V)	Current (A)	X% LockIn (V)	Y% LockIn (V)	Current [bwd] (A)	X% LockIn [bwd] (V)	Y% LockIn [bwd] (V)
5.00000E-3	201.666E-12	630.370E-3	7.91220E-3	199.419E-12	614.457E-3	-22.2414E-3
4.99500E-3	200.720E-12	618.839E-3	-18.2566E-3	201.328E-12	599.699E-3	-20.5067E-3
4.98999E-3	199.920E-12	634.239E-3	-40.6126E-3	200.689E-12	585.074E-3	-37.6378E-3
4.98499E-3	200.747E-12	627.429E-3	-41.6506E-3	201.351E-12	588.914E-3	-43.9279E-3
4.97999E-3	200.283E-12	584.605E-3	-16.0365E-3	203.021E-12	600.511E-3	-9.34367E-3
4.97499E-3	199.435E-12	567.864E-3	13.3573E-3	203.319E-12	603.003E-3	2.96135E-3
4.96998E-3	199.743E-12	578.390E-3	-2.55107E-3	202.496E-12	594.119E-3	-18.1457E-3
4.96498E-3	200.609E-12	586.460E-3	-52.6353E-3	202.449E-12	593.624E-3	-15.0824E-3
4.95998E-3	199.559E-12	595.030E-3	-74.0371E-3	201.872E-12	609.777E-3	487.566E-6
4.95498E-3	200.307E-12	604.795E-3	-53.2570E-3	201.460E-12	632.086E-3	-581.908E-6
4.94997E-3	200.819E-12	607.566E-3	-28.8955E-3	200.183E-12	637.077E-3	-4.16579E-3
4.94497E-3	199.555E-12	582.226E-3	-35.4362E-3	198.641E-12	599.576E-3	-14.2264E-3
4.93997E-3	199.035E-12	547.107E-3	-59.2661E-3	198.092E-12	541.714E-3	-23.9477E-3
4.93497E-3	199.421E-12	548.998E-3	-54.4018E-3	197.412E-12	532.522E-3	4.21098E-3
4.92996E-3	198.451E-12	584.283E-3	-34.0432E-3	195.894E-12	580.990E-3	37.9868E-3
4.92496E-3	197.542E-12	615.545E-3	-35.0264E-3	196.109E-12	611.177E-3	26.6121E-3
4.91996E-3	197.472E-12	628.006E-3	-33.6938E-3	196.816E-12	606.572E-3	14.7191E-3
4.91496E-3	197.144E-12	616.995E-3	-8.42131E-3	196.089E-12	612.819E-3	36.5657E-3
4.90995E-3	196.144E-12	592.017E-3	-1.61545E-3	196.819E-12	636.538E-3	39.3323E-3
4.90495E-3	195.873E-12	590.717E-3	-20.5904E-3	197.793E-12	641.871E-3	7.35052E-3
4.89995E-3	194.686E-12	597.850E-3	-17.2648E-3	198.732E-12	629.802E-3	-3.78897E-3
4.89495E-3	194.591E-12	606.026E-3	4.89827E-3	198.599E-12	615.536E-3	5.17483E-3
4.88995E-3	193.221E-12	602.736E-3	23.9879E-3	199.213E-12	597.389E-3	-12.6084E-3
4.88494E-3	193.665E-12	578.166E-3	18.5815E-3	198.755E-12	595.064E-3	-31.8818E-3
4.87994E-3	192.959E-12	572.812E-3	-3.34157E-3	198.419E-12	603.316E-3	-22.2125E-3
4.87494E-3	193.274E-12	580.682E-3	-3.96140E-3	197.635E-12	604.762E-3	-8.74984E-3
4.86993E-3	193.379E-12	580.437E-3	3.88520E-3	197.218E-12	581.599E-3	-5.71239E-3
4.86493E-3	193.754E-12	570.739E-3	8.30244E-3	195.784E-12	577.570E-3	1.85044E-3
4.85993E-3	193.318E-12	551.121E-3	-4.86270E-3	194.398E-12	616.068E-3	-9.97677E-3
4.85493E-3	193.582E-12	550.032E-3	-35.3681E-3	192.275E-12	620.933E-3	-51.0703E-3
4.84992E-3	193.951E-12	591.619E-3	-34.3156E-3	192.234E-12	589.688E-3	-73.7011E-3
4.84492E-3	193.816E-12	616.846E-3	-12.2114E-3	190.926E-12	568.418E-3	-57.9923E-3
4.83992E-3	193.858E-12	607.523E-3	-19.7413E-3	189.618E-12	566.027E-3	-39.7105E-3
4.83492E-3	194.392E-12	591.978E-3	-26.3860E-3	189.554E-12	568.259E-3	-33.9397E-3
4.82991E-3	194.211E-12	572.272E-3	1.36508E-3	189.344E-12	581.391E-3	-16.7290E-3
4.82491E-3	194.024E-12	578.688E-3	18.1767E-3	190.084E-12	602.218E-3	-21.0967E-3
4.81991E-3	194.740E-12	611.943E-3	20.3358E-3	191.177E-12	610.188E-3	-31.1202E-3
4.81491E-3	194.464E-12	640.641E-3	8.14165E-3	191.636E-12	606.187E-3	-23.1809E-3
4.80990E-3	193.780E-12	643.565E-3	-15.5204E-3	192.556E-12	588.262E-3	-23.8084E-3
4.80490E-3	193.257E-12	618.401E-3	-22.1348E-3	193.186E-12	567.749E-3	-19.2271E-3
4.79990E-3	192.775E-12	584.813E-3	-9.56788E-3	193.586E-12	559.778E-3	-17.4678E-3
4.79490E-3	192.644E-12	568.632E-3	80.4614E-6	193.969E-12	566.746E-3	-22.2330E-3
4.78989E-3	192.002E-12	580.127E-3	-17.9458E-3	194.459E-12	585.431E-3	-7.28904E-3
4.78489E-3	192.109E-12	603.734E-3	-28.5343E-3	193.208E-12	607.996E-3	-13.4012E-3
4.77989E-3	191.919E-12	612.999E-3	-17.3274E-3	193.403E-12	596.223E-3	-45.5827E-3
4.77489E-3	191.832E-12	597.204E-3	-15.3337E-3	192.981E-12	567.853E-3	-46.2796E-3
4.76988E-3	192.339E-12	571.793E-3	-20.3239E-3	191.496E-12	577.446E-3	-37.0723E-3
4.76488E-3	191.417E-12	572.157E-3	-20.8199E-3	191.399E-12	584.247E-3	-51.7584E-3
4.75988E-3	191.757E-12	598.939E-3	-30.3753E-3	190.487E-12	589.485E-3	-36.0393E-3
4.75488E-3	191.862E-12	603.360E-3	-46.3983E-3	188.974E-12	620.375E-3	4.52781E-3
4.74988E-3	192.410E-12	589.816E-3	-53.7561E-3	188.783E-12	616.738E-3	-12.6465E-3
4.74487E-3	192.241E-12	579.873E-3	-30.4224E-3	189.283E-12	584.804E-3	-18.3494E-3
4.73987E-3	193.411E-12	588.304E-3	14.9480E-3	188.135E-12	581.894E-3	16.3426E-3
4.73487E-3	192.935E-12	609.329E-3	42.5692E-3	188.616E-12	609.969E-3	-5.55771E-3
4.72986E-3	192.395E-12	624.741E-3	41.6561E-3	189.487E-12	631.688E-3	-37.7282E-3
4.72486E-3	191.790E-12	628.532E-3	9.63378E-3	190.031E-12	634.193E-3	-22.9296E-3
4.71986E-3	191.742E-12	617.169E-3	-11.5701E-3	190.423E-12	635.909E-3	1.77638E-3
4.71486E-3	190.674E-12	603.395E-3	-21.5864E-3	190.940E-12	639.510E-3	10.1979E-3
4.70985E-3	189.720E-12	602.532E-3	-49.1096E-3	191.155E-12	635.293E-3	10.3071E-3
4.70485E-3	189.746E-12	607.003E-3	-33.1843E-3	191.970E-12	634.450E-3	1.54028E-3
4.69985E-3	188.218E-12	601.710E-3	8.63472E-3	191.627E-12	635.406E-3	-18.6827E-3
4.69485E-3	187.632E-12	599.027E-3	-30.7794E-6	190.713E-12	613.460E-3	-27.8392E-3
4.68984E-3	187.247E-12	593.740E-3	-34.0587E-3	190.398E-12	597.540E-3	-22.4067E-3
4.68484E-3	186.320E-12	585.119E-3	-56.6982E-3	190.077E-12	602.766E-3	-4.67314E-3
4.67984E-3	184.459E-12	582.907E-3	-52.8165E-3	189.807E-12	579.687E-3	12.0392E-3
4.67484E-3	184.599E-12	581.565E-3	-37.3993E-3	188.962E-12	544.248E-3	368.285E-6
4.66983E-3	184.086E-12	589.713E-3	-32.3777E-3	188.299E-12	551.167E-3	-19.2700E-3
4.66483E-3	183.802E-12	595.145E-3	-22.4901E-3	186.617E-12	556.608E-3	-39.6489E-3
4.65983E-3	183.748E-12	585.522E-3	-9.06640E-3	185.822E-12	556.638E-3	-73.7054E-3
4.65483E-3	184.290E-12	576.797E-3	-10.0224E-3	185.853E-12	594.676E-3	-70.6598E-3
4.64982E-3	184.521E-12	568.336E-3	-19.2996E-3	184.779E-12	607.836E-3	-21.5551E-3
4.64482E-3	184.105E-12	571.429E-3	-31.3572E-3	184.332E-12	575.235E-3	3.88428E-3
4.63982E-3	184.255E-12	584.306E-3	-46.0605E-3	184.181E-12	567.495E-3	-25.1013E-3
4.63482E-3	184.397E-12	593.053E-3	-40.0895E-3	184.114E-12	576.020E-3	-50.9742E-3
4.62981E-3	184.935E-12	593.338E-3	-20.4357E-3	183.541E-12	564.317E-3	-26.2759E-3
4.62481E-3	184.404E-12	579.296E-3	-23.5354E-3	184.012E-12	561.664E-3	11.1543E-3
4.61981E-3	184.154E-12	591.418E-3	-34.2605E-3	183.495E-12	581.295E-3	15.6636E-3
4.61481E-3	183.672E-12	633.821E-3	-35.6874E-3	184.010E-12	599.340E-3	1.71088E-3
4.60980E-3	182.943E-12	643.146E-3	-29.8962E-3	184.300E-12	600.226E-3	-12.5028E-3
4.60480E-3	181.812E-12	619.880E-3	-10.0041E-3	184.111E-12	598.199E-3	-12.1028E-3
4.59980E-3	181.917E-12	620.987E-3	2.33468E-3	183.050E-12	605.735E-3	18.2929E-3
4.59480E-3	181.936E-12	626.434E-3	-11.6716E-3	183.423E-12	604.852E-3	23.3055E-3
4.58979E-3	180.352E-12	598.004E-3	-17.2887E-3	183.895E-12	606.631E-3	-11.2682E-3
4.58479E-3	180.454E-12	572.795E-3	-5.56844E-3	183.126E-12	614.465E-3	-33.6132E-3
4.57979E-3	180.203E-12	582.928E-3	-12.5158E-3	182.407E-12	605.270E-3	-33.5021E-3
4.57479E-3	179.390E-12	613.063E-3	-30.4378E-3	183.312E-12	611.059E-3	-7.69183E-3
4.56978E-3	180.354E-12	638.801E-3	-38.6404E-3	182.814E-12	617.206E-3	16.9609E-3
4.56478E-3	180.460E-12	643.035E-3	-36.3556E-3	182.039E-12	585.615E-3	9.95925E-3
4.55978E-3	179.631E-12	612.545E-3	-26.1340E-3	182.813E-12	579.941E-3	-13.1897E-3
4.55478E-3	180.851E-12	577.698E-3	-18.8706E-3	181.957E-12	604.895E-3	-19.6033E-3
4.54977E-3	181.124E-12	570.126E-3	-15.6285E-3	181.923E-12	606.124E-3	-10.5612E-3
4.54477E-3	180.702E-12	591.823E-3	-6.01273E-3	182.166E-12	588.912E-3	-27.3018E-3
4.53977E-3	182.057E-12	596.251E-3	11.5514E-3	181.852E-12	593.006E-3	-44.5205E-3
4.53477E-3	182.112E-12	597.965E-3	14.4860E-3	181.516E-12	613.235E-3	-30.9262E-3
4.52976E-3	181.366E-12	614.585E-3	-10.9045E-3	180.436E-12	605.758E-3	-5.99869E-3
4.52476E-3	182.647E-12	612.534E-3	-20.1333E-3	181.048E-12	596.911E-3	9.96869E-3
4.51976E-3	182.830E-12	605.659E-3	-8.07356E-3	180.634E-12	593.618E-3	23.2479E-3
4.51476E-3	183.121E-12	588.069E-3	-20.0434E-3	179.373E-12	585.990E-3	20.9564E-3
4.50975E-3	183.034E-12	587.752E-3	-43.9200E-3	179.513E-12	601.013E-3	-5.25010E-3
4.50475E-3	183.606E-12	591.163E-3	-47.0020E-3	179.891E-12	613.770E-3	-23.5539E-3
4.49975E-3	183.160E-12	585.040E-3	-36.1104E-3	179.588E-12	602.989E-3	-20.5946E-3
4.49475E-3	182.050E-12	610.252E-3	-23.8323E-3	179.921E-12	592.403E-3	-15.5196E-3
4.48974E-3	182.422E-12	627.839E-3	-10.5452E-3	180.588E-12	600.958E-3	-35.4868E-3
4.48474E-3	181.941E-12	614.972E-3	-13.9399E-3	180.485E-12	608.380E-3	-53.6174E-3
4.47974E-3	180.842E-12	607.246E-3	-30.7617E-3	181.799E-12	607.742E-3	-28.0441E-3
4.47474E-3	180.075E-12	603.378E-3	-28.2271E-3	182.413E-12	611.798E-3	5.43615E-3
4.46973E-3	179.072E-12	588.824E-3	-28.9604E-3	182.305E-12	598.559E-3	1.42317E-3
4.46473E-3	179.870E-12	584.668E-3	-52.4432E-3	181.796E-12	587.465E-3	-20.4746E-3
4.45973E-3	178.669E-12	591.453E-3	-44.8926E-3	182.699E-12	593.007E-3	-34.2229E-3
4.45473E-3	179.377E-12	581.417E-3	-11.4192E-3	181.981E-12	589.546E-3	-37.7123E-3
4.44972E-3	178.210E-12	575.901E-3	6.01208E-3	181.463E-12	582.988E-3	-38.2923E-3
4.44472E-3	178.466E-12	592.489E-3	11.1951E-3	180.317E-12	597.302E-3	-28.7150E-3
4.43972E-3	177.343E-12	585.355E-3	1.32096E-3	179.126E-12	610.056E-3	-3.99573E-3
4.43472E-3	178.491E-12	586.158E-3	-18.1524E-3	177.269E-12	610.361E-3	-5.29952E-3
4.42971E-3	178.393E-12	605.618E-3	-26.8328E-3	176.436E-12	608.402E-3	-32.6701E-3
4.42471E-3	177.827E-12	589.125E-3	-20.8391E-3	175.166E-12	590.794E-3	-45.3315E-3
4.41971E-3	178.618E-12	587.433E-3	-23.6495E-3	174.366E-12	579.573E-3	-38.2127E-3
4.41471E-3	179.120E-12	635.139E-3	-26.2971E-3	173.507E-12	584.154E-3	-15.1578E-3
4.40970E-3	179.080E-12	656.735E-3	-28.1196E-3	173.665E-12	576.616E-3	4.31665E-3
4.40470E-3	178.217E-12	638.755E-3	-31.0581E-3	173.015E-12	588.518E-3	60.5293E-6
4.39970E-3	178.066E-12	629.658E-3	-14.7268E-3	173.476E-12	614.354E-3	-13.2053E-3
4.39470E-3	178.792E-12	620.329E-3	9.08580E-3	174.645E-12	612.991E-3	-24.5829E-3
4.38969E-3	177.731E-12	599.965E-3	17.7756E-3	174.582E-12	600.061E-3	-26.7383E-3
4.38469E-3	176.833E-12	591.355E-3	1.46241E-3	175.497E-12	601.750E-3	-4.47916E-3
4.37969E-3	175.960E-12	602.091E-3	-25.9302E-3	176.579E-12	614.782E-3	13.7563E-3
4.37469E-3	175.721E-12	617.191E-3	-42.1564E-3	177.743E-12	619.412E-3	-2.02475E-3
4.36968E-3	174.247E-12	639.402E-3	-52.3695E-3	177.661E-12	619.815E-3	-18.2819E-3
4.36468E-3	173.005E-12	664.612E-3	-49.8962E-3	178.100E-12	614.932E-3	-30.1234E-3
4.35968E-3	172.680E-12	666.092E-3	-27.0300E-3	178.089E-12	613.792E-3	-51.0505E-3
4.35468E-3	171.919E-12	643.475E-3	-22.6765E-3	177.721E-12	630.270E-3	-46.0585E-3
4.34967E-3	170.750E-12	605.846E-3	-23.6061E-3	176.779E-12	630.176E-3	-15.5163E-3
4.34467E-3	171.265E-12	564.210E-3	-9.90847E-3	175.999E-12	601.907E-3	891.628E-6
4.33967E-3	172.014E-12	566.728E-3	-9.45701E-3	174.644E-12	578.017E-3	2.28124E-3
4.33467E-3	170.288E-12	601.106E-3	-12.4574E-3	172.819E-12	561.644E-3	4.62282E-3
4.32966E-3	171.132E-12	603.218E-3	-19.5700E-3	171.557E-12	562.253E-3	854.771E-6
4.32466E-3	172.405E-12	602.093E-3	-43.0363E-3	170.681E-12	587.958E-3	-20.6674E-3
4.31966E-3	172.289E-12	616.707E-3	-36.4616E-3	169.636E-12	616.138E-3	-41.9744E-3
4.31466E-3	172.627E-12	617.275E-3	5.55337E-3	168.999E-12	617.322E-3	-39.0873E-3
4.30965E-3	172.109E-12	618.026E-3	15.2808E-3	168.663E-12	609.919E-3	-19.7646E-3
4.30465E-3	173.200E-12	629.935E-3	-864.179E-6	169.066E-12	622.726E-3	-11.2489E-3
4.29965E-3	173.329E-12	628.398E-3	-19.7824E-3	169.606E-12	608.558E-3	-15.5689E-3
4.29465E-3	173.418E-12	612.823E-3	-21.2858E-3	169.796E-12	577.957E-3	-7.17470E-3
4.28964E-3	172.008E-12	604.793E-3	1.96023E-3	170.004E-12	582.631E-3	-3.80060E-3
4.28464E-3	172.837E-12	612.642E-3	395.970E-6	171.345E-12	615.018E-3	-21.5163E-3
4.27964E-3	171.853E-12	626.662E-3	-35.9283E-3	172.210E-12	638.122E-3	-40.3148E-3
4.27464E-3	170.423E-12	623.532E-3	-41.7040E-3	173.034E-12	629.826E-3	-47.4646E-3
4.26963E-3	170.269E-12	606.742E-3	-4.09045E-3	172.785E-12	610.999E-3	-42.7274E-3
4.26463E-3	169.183E-12	607.774E-3	4.53060E-3	173.505E-12	595.606E-3	-25.8039E-3
4.25963E-3	168.909E-12	623.213E-3	-14.0865E-3	173.073E-12	591.992E-3	-6.87595E-3
4.25463E-3	168.333E-12	610.605E-3	-17.1124E-3	172.243E-12	599.099E-3	7.18702E-3
4.24962E-3	168.434E-12	582.854E-3	2.73917E-3	171.995E-12	599.303E-3	20.4088E-3
4.24462E-3	167.545E-12	581.077E-3	17.8121E-3	170.869E-12	580.150E-3	7.46434E-3
4.23962E-3	168.242E-12	576.654E-3	13.3020E-3	169.541E-12	555.288E-3	-6.73806E-3
4.23462E-3	169.005E-12	550.879E-3	11.0088E-3	169.439E-12	556.560E-3	18.5978E-3
4.22961E-3	169.225E-12	563.010E-3	27.7126E-3	168.868E-12	582.336E-3	34.0994E-3
4.22461E-3	169.305E-12	617.549E-3	26.0104E-3	168.016E-12	603.572E-3	18.1721E-3
4.21961E-3	169.897E-12	640.831E-3	266.506E-6	167.531E-12	608.333E-3	1.89873E-3
4.21461E-3	170.218E-12	625.012E-3	-312.352E-6	167.113E-12	614.965E-3	-9.22262E-3
4.20960E-3	170.493E-12	616.066E-3	3.34243E-3	166.348E-12	618.458E-3	-15.9638E-3
4.20460E-3	170.834E-12	615.752E-3	-2.26221E-3	166.005E-12	610.907E-3	-10.2852E-3
4.19960E-3	169.522E-12	602.969E-3	-1.39115E-3	165.852E-12	618.306E-3	-1.94207E-3
4.19460E-3	169.528E-12	574.454E-3	-7.40329E-3	165.296E-12	621.437E-3	-5.99282E-3
4.18959E-3	170.003E-12	556.033E-3	-21.0712E-3	165.707E-12	598.772E-3	-7.94978E-3
4.18459E-3	169.504E-12	592.787E-3	-34.9092E-3	166.145E-12	587.383E-3	-25.0487E-3
4.17959E-3	168.155E-12	617.015E-3	-49.8763E-3	165.874E-12	600.188E-3	-57.4474E-3
4.17459E-3	166.580E-12	586.960E-3	-39.1082E-3	166.377E-12	616.624E-3	-58.5740E-3
4.16958E-3	166.933E-12	589.785E-3	-11.6014E-3	166.606E-12	615.492E-3	-35.5724E-3
4.16458E-3	166.596E-12	607.562E-3	-8.85495E-3	166.652E-12	602.267E-3	-16.2391E-3
4.15958E-3	166.061E-12	591.518E-3	-20.7283E-3	166.760E-12	604.176E-3	-12.7194E-3
4.15458E-3	164.268E-12	580.597E-3	-23.4180E-3	166.463E-12	614.345E-3	-29.4193E-3
4.14957E-3	163.713E-12	590.463E-3	-22.4636E-3	166.664E-12	610.241E-3	-47.1861E-3
4.14457E-3	164.084E-12	599.138E-3	-15.4399E-3	166.676E-12	614.053E-3	-31.6821E-3
4.13957E-3	163.332E-12	610.401E-3	13.2482E-3	166.296E-12	632.628E-3	-7.65806E-3
4.13457E-3	163.477E-12	624.318E-3	50.3600E-3	166.023E-12	625.365E-3	-3.62818E-3
4.12956E-3	163.406E-12	625.889E-3	46.1761E-3	166.265E-12	602.517E-3	5.75023E-3
4.12456E-3	164.011E-12	627.086E-3	-2.69307E-3	165.988E-12	585.892E-3	8.68584E-3
4.11956E-3	164.067E-12	635.733E-3	-20.5502E-3	165.157E-12	593.607E-3	-2.20875E-3
4.11456E-3	164.007E-12	626.378E-3	-6.37304E-3	164.826E-12	623.989E-3	-5.57043E-3
4.10955E-3	163.726E-12	612.703E-3	-8.95837E-3	164.644E-12	630.222E-3	-5.97259E-3
4.10455E-3	163.895E-12	625.955E-3	-5.56409E-3	163.011E-12	599.567E-3	-21.0592E-3
4.09955E-3	163.917E-12	624.314E-3	-5.91599E-3	163.195E-12	568.238E-3	-36.5165E-3
4.09455E-3	163.946E-12	587.787E-3	-16.6797E-3	163.032E-12	577.084E-3	-23.1377E-3
4.08954E-3	163.695E-12	584.112E-3	-4.20656E-3	162.057E-12	603.352E-3	12.2892E-3
4.08454E-3	163.377E-12	610.525E-3	-9.12160E-3	161.543E-12	595.383E-3	15.8315E-3
4.07954E-3	163.967E-12	622.263E-3	-33.0728E-3	162.245E-12	570.425E-3	-13.9666E-3
4.07454E-3	163.061E-12	635.252E-3	-20.1724E-3	161.782E-12	557.413E-3	-21.5064E-3
4.06953E-3	162.794E-12	633.872E-3	1.61759E-3	161.455E-12	561.326E-3	-7.87828E-3
4.06453E-3	162.821E-12	609.192E-3	4.06375E-3	161.887E-12	586.549E-3	7.91811E-3
4.05953E-3	161.667E-12	606.827E-3	14.6006E-3	162.995E-12	595.207E-3	1.95533E-3
4.05453E-3	161.117E-12	632.393E-3	32.0750E-3	163.363E-12	580.917E-3	-26.8656E-3
4.04952E-3	161.624E-12	633.265E-3	19.3597E-3	163.959E-12	586.499E-3	-23.1188E-3
4.04452E-3	161.222E-12	616.175E-3	-6.27051E-3	163.880E-12	612.171E-3	-1.62154E-3
4.03952E-3	159.910E-12	613.742E-3	-6.36443E-3	164.982E-12	626.752E-3	-11.7500E-3
4.03452E-3	160.562E-12	621.820E-3	-7.93167E-3	163.423E-12	611.586E-3	-39.2830E-3
4.02951E-3	160.809E-12	621.114E-3	-38.1901E-3	163.598E-12	589.250E-3	-53.3042E-3
4.02451E-3	159.734E-12	611.403E-3	-44.7826E-3	162.663E-12	586.632E-3	-36.0223E-3
4.01951E-3	159.598E-12	601.916E-3	-11.8435E-3	161.805E-12	600.039E-3	-18.2975E-3
4.01451E-3	160.415E-12	593.695E-3	1.48524E-3	160.778E-12	608.863E-3	-17.1588E-3
4.00950E-3	159.668E-12	613.186E-3	-2.93676E-3	160.116E-12	571.985E-3	-11.9537E-3
4.00450E-3	159.680E-12	625.305E-3	-23.2038E-3	159.107E-12	526.679E-3	-23.5407E-3
3.99950E-3	160.256E-12	608.002E-3	-53.2188E-3	157.669E-12	535.704E-3	-42.7655E-3
3.99450E-3	160.156E-12	585.716E-3	-40.0352E-3	157.099E-12	571.240E-3	-45.7729E-3
3.98949E-3	159.838E-12	566.880E-3	-8.19710E-3	156.575E-12	602.976E-3	-43.4722E-3
3.98449E-3	160.726E-12	586.668E-3	-11.4639E-3	156.252E-12	614.228E-3	-33.9166E-3
3.97949E-3	160.432E-12	613.199E-3	-24.9941E-3	156.423E-12	586.203E-3	-28.4441E-3
3.97449E-3	159.656E-12	611.171E-3	-19.5401E-3	157.168E-12	571.661E-3	-36.3745E-3
3.96948E-3	160.354E-12	617.209E-3	-7.94407E-3	157.116E-12	602.109E-3	-40.5399E-3
3.96448E-3	160.326E-12	637.112E-3	-10.3252E-3	158.248E-12	614.326E-3	-28.5478E-3
3.95948E-3	159.047E-12	629.991E-3	-24.8846E-3	159.529E-12	608.261E-3	-11.6430E-3
3.95448E-3	158.832E-12	611.914E-3	-30.1975E-3	159.275E-12	624.528E-3	-6.56438E-3
3.94947E-3	158.308E-12	621.618E-3	-20.2343E-3	160.195E-12	634.791E-3	-5.50595E-3
3.94447E-3	157.932E-12	627.939E-3	-7.76165E-3	160.465E-12	636.148E-3	-2.40375E-3
3.93947E-3	157.266E-12	632.979E-3	-14.1778E-3	160.791E-12	653.274E-3	-17.3000E-3
3.93447E-3	157.566E-12	655.368E-3	-14.0126E-3	160.111E-12	657.840E-3	-38.7800E-3
3.92946E-3	157.055E-12	647.320E-3	4.73547E-3	159.216E-12	631.667E-3	-34.4770E-3
3.92446E-3	156.346E-12	620.223E-3	-7.52698E-3	158.393E-12	602.415E-3	-16.5292E-3
3.91946E-3	156.531E-12	635.055E-3	-49.4814E-3	157.212E-12	588.073E-3	1.32713E-3
3.91446E-3	156.669E-12	644.015E-3	-41.4554E-3	156.538E-12	583.723E-3	13.5734E-3
3.90945E-3	156.938E-12	634.291E-3	7.58692E-3	155.377E-12	592.200E-3	13.6363E-3
3.90445E-3	156.853E-12	640.957E-3	23.7682E-3	154.583E-12	594.125E-3	8.88005E-3
3.89945E-3	156.256E-12	639.683E-3	12.5751E-3	153.679E-12	585.980E-3	-435.791E-6
3.89445E-3	157.880E-12	610.319E-3	-4.87760E-3	153.074E-12	600.305E-3	-1.72379E-3
3.88944E-3	157.597E-12	578.007E-3	-11.8947E-3	152.138E-12	608.767E-3	-578.953E-6
3.88444E-3	157.249E-12	586.613E-3	-4.67724E-3	152.559E-12	601.397E-3	-2.08544E-3
3.87944E-3	157.244E-12	615.703E-3	-4.45215E-3	152.235E-12	598.716E-3	1.48665E-3
3.87444E-3	156.844E-12	633.480E-3	-13.2973E-3	152.674E-12	596.347E-3	-7.45406E-3
3.86943E-3	157.251E-12	644.878E-3	7.73887E-3	152.581E-12	574.617E-3	-16.3103E-3
3.86443E-3	156.497E-12	633.679E-3	27.4656E-3	153.396E-12	566.275E-3	-12.2907E-3
3.85943E-3	155.422E-12	611.476E-3	-15.3629E-3	154.064E-12	599.662E-3	-15.9037E-3
3.85443E-3	154.639E-12	621.138E-3	-42.8685E-3	154.324E-12	608.818E-3	-26.8033E-3
3.84942E-3	154.424E-12	637.559E-3	-15.9868E-3	154.156E-12	590.236E-3	-9.98334E-3
3.84442E-3	153.220E-12	627.119E-3	-16.3677E-3	154.235E-12	581.497E-3	-1.52006E-3
3.83942E-3	152.063E-12	614.754E-3	-37.4395E-3	154.637E-12	576.728E-3	-29.6659E-3
3.83442E-3	152.473E-12	624.881E-3	-21.5908E-3	154.096E-12	576.409E-3	-32.3535E-3
3.82941E-3	151.909E-12	633.713E-3	6.36819E-3	153.322E-12	584.019E-3	-14.7914E-3
3.82441E-3	150.868E-12	628.367E-3	21.2296E-3	153.305E-12	598.859E-3	-16.0108E-3
3.81941E-3	150.592E-12	615.563E-3	15.1729E-3	152.264E-12	610.860E-3	-20.7712E-3
3.81441E-3	150.940E-12	592.942E-3	1.59082E-3	152.450E-12	602.652E-3	-6.01915E-3
3.80940E-3	150.049E-12	582.827E-3	-5.73988E-3	151.756E-12	593.560E-3	7.29871E-3
3.80440E-3	149.982E-12	587.990E-3	-22.8949E-3	151.341E-12	598.656E-3	9.90460E-3
3.79940E-3	150.176E-12	592.136E-3	-38.4901E-3	150.817E-12	596.208E-3	502.163E-6
3.79440E-3	149.947E-12	596.992E-3	-43.1335E-3	150.510E-12	586.414E-3	-11.1815E-3
3.78939E-3	149.630E-12	614.623E-3	-31.8184E-3	149.974E-12	583.932E-3	6.64549E-3
3.78439E-3	151.197E-12	633.791E-3	-12.9351E-3	149.661E-12	597.362E-3	12.7763E-3
3.77939E-3	150.659E-12	632.037E-3	-6.51547E-3	149.676E-12	600.340E-3	-14.2046E-3
3.77439E-3	149.770E-12	607.252E-3	-104.264E-6	148.874E-12	593.056E-3	-29.3047E-3
3.76938E-3	150.049E-12	574.807E-3	-10.0887E-3	149.190E-12	608.093E-3	-32.9341E-3
3.76438E-3	149.697E-12	548.691E-3	-28.0374E-3	149.748E-12	617.042E-3	-35.8514E-3
3.75938E-3	149.261E-12	546.966E-3	-5.82488E-3	149.775E-12	605.406E-3	-19.2017E-3
3.75438E-3	149.005E-12	572.389E-3	7.09890E-3	149.384E-12	589.160E-3	3.21145E-3
3.74937E-3	147.961E-12	598.237E-3	-20.6327E-3	149.833E-12	576.581E-3	-7.04081E-3
3.74437E-3	147.223E-12	611.328E-3	-37.6363E-3	150.072E-12	576.164E-3	-24.8240E-3
3.73937E-3	147.119E-12	608.987E-3	-38.1920E-3	149.341E-12	595.283E-3	-25.1499E-3
3.73437E-3	146.778E-12	605.252E-3	-44.2540E-3	149.841E-12	622.705E-3	-16.6925E-3
3.72936E-3	146.960E-12	605.853E-3	-40.4330E-3	149.861E-12	623.734E-3	-2.75807E-3
3.72436E-3	146.801E-12	607.273E-3	-19.8878E-3	149.641E-12	613.975E-3	827.104E-6
3.71936E-3	146.843E-12	624.638E-3	-7.04385E-3	149.221E-12	621.169E-3	-14.1752E-3
3.71436E-3	147.163E-12	647.368E-3	-3.79151E-3	149.286E-12	615.936E-3	-22.7202E-3
3.70935E-3	147.181E-12	636.335E-3	-3.63661E-3	148.976E-12	590.974E-3	-13.1734E-3
3.70435E-3	147.278E-12	600.229E-3	-10.9974E-3	147.977E-12	568.353E-3	-20.7173E-3
3.69935E-3	148.295E-12	583.133E-3	-5.07264E-3	148.119E-12	564.926E-3	-31.9367E-3
3.69435E-3	147.978E-12	582.218E-3	10.8428E-3	147.778E-12	581.520E-3	-26.5336E-3
3.68934E-3	148.752E-12	595.083E-3	-6.89832E-3	147.199E-12	598.595E-3	-20.8075E-3
3.68434E-3	148.831E-12	602.038E-3	-25.2269E-3	146.878E-12	610.186E-3	-16.4256E-3
3.67934E-3	149.121E-12	585.759E-3	-13.4964E-3	145.883E-12	616.040E-3	-14.9917E-3
3.67434E-3	148.838E-12	585.064E-3	-17.0776E-3	145.735E-12	616.568E-3	-28.3156E-3
3.66933E-3	148.793E-12	614.208E-3	-23.8630E-3	145.535E-12	588.427E-3	-37.7800E-3
3.66433E-3	148.468E-12	635.262E-3	-8.98395E-3	145.542E-12	551.915E-3	-22.1576E-3
3.65933E-3	148.258E-12	635.765E-3	9.93787E-3	144.878E-12	573.004E-3	-23.6067E-3
3.65433E-3	147.428E-12	642.442E-3	17.7571E-3	145.316E-12	590.882E-3	-48.8183E-3
3.64932E-3	147.179E-12	642.935E-3	-1.23756E-3	145.752E-12	584.022E-3	-49.9084E-3
3.64432E-3	146.807E-12	638.523E-3	-36.4559E-3	145.227E-12	609.112E-3	-29.2677E-3
3.63932E-3	146.865E-12	637.947E-3	-42.5583E-3	145.901E-12	638.897E-3	-24.4431E-3
3.63432E-3	145.490E-12	618.219E-3	-25.8561E-3	145.914E-12	639.523E-3	-17.9052E-3
3.62931E-3	144.985E-12	600.325E-3	-29.5233E-3	146.657E-12	628.505E-3	-6.57974E-3
3.62431E-3	145.604E-12	602.720E-3	-45.3930E-3	146.272E-12	637.323E-3	-20.3287E-3
3.61931E-3	145.553E-12	614.414E-3	-55.7552E-3	146.397E-12	640.972E-3	-35.0397E-3
3.61431E-3	144.405E-12	627.884E-3	-59.7288E-3	146.214E-12	623.736E-3	-31.8454E-3
3.60930E-3	144.405E-12	616.068E-3	-44.4290E-3	146.290E-12	603.400E-3	-27.8367E-3
3.60430E-3	144.164E-12	594.093E-3	-26.1721E-3	145.263E-12	594.399E-3	-20.6213E-3
3.59930E-3	143.964E-12	585.657E-3	-18.7192E-3	144.180E-12	601.956E-3	-13.0276E-3
3.59430E-3	144.409E-12	588.650E-3	-19.5821E-3	143.714E-12	603.085E-3	-26.6666E-3
3.58929E-3	144.322E-12	607.085E-3	-30.0497E-3	142.566E-12	597.591E-3	-43.1411E-3
3.58429E-3	143.664E-12	623.027E-3	-37.6878E-3	141.610E-12	603.532E-3	-25.8307E-3
3.57929E-3	143.387E-12	628.440E-3	-54.0575E-3	140.891E-12	609.034E-3	-3.27945E-3
3.57429E-3	143.807E-12	633.278E-3	-77.4987E-3	140.025E-12	601.961E-3	-6.51495E-3
3.56928E-3	143.392E-12	627.173E-3	-84.6754E-3	139.710E-12	599.314E-3	-20.6021E-3
3.56428E-3	142.499E-12	624.290E-3	-66.5942E-3	139.697E-12	611.670E-3	-33.5411E-3
3.55928E-3	141.834E-12	632.733E-3	-30.2680E-3	139.485E-12	614.318E-3	-25.9098E-3
3.55428E-3	141.959E-12	622.962E-3	-7.03973E-3	139.468E-12	615.800E-3	4.45306E-3
3.54927E-3	141.447E-12	626.569E-3	-22.8549E-3	140.762E-12	632.515E-3	25.6800E-3
3.54427E-3	140.217E-12	642.696E-3	-50.6047E-3	140.765E-12	633.246E-3	16.2759E-3
3.53927E-3	140.042E-12	618.891E-3	-50.9800E-3	141.665E-12	620.468E-3	-3.32335E-3
3.53427E-3	139.762E-12	590.642E-3	-34.1135E-3	142.372E-12	609.756E-3	-12.7604E-3
3.52926E-3	139.036E-12	587.722E-3	-16.8910E-3	142.504E-12	601.272E-3	-20.3287E-3
3.52426E-3	138.712E-12	575.314E-3	-10.4338E-3	142.741E-12	613.256E-3	-22.9741E-3
3.51926E-3	138.670E-12	571.234E-3	-19.7119E-3	142.270E-12	627.406E-3	-15.1524E-3
3.51426E-3	137.929E-12	597.773E-3	-21.3876E-3	142.755E-12	615.784E-3	-5.35442E-3
3.50925E-3	138.129E-12	598.163E-3	-15.0669E-3	141.711E-12	607.369E-3	-673.794E-6
3.50425E-3	138.884E-12	583.092E-3	-17.9802E-3	140.847E-12	619.967E-3	1.12861E-3
3.49925E-3	137.721E-12	607.495E-3	-19.0488E-3	140.474E-12	619.482E-3	2.72572E-3
3.49425E-3	137.906E-12	633.484E-3	-10.0195E-3	139.474E-12	595.780E-3	-6.11969E-3
3.48924E-3	138.379E-12	628.406E-3	-9.67657E-3	138.403E-12	589.257E-3	-9.17837E-3
3.48424E-3	138.647E-12	640.621E-3	-12.5064E-3	137.804E-12	608.734E-3	-2.78884E-3
3.47924E-3	138.523E-12	660.446E-3	-9.81892E-3	137.665E-12	615.564E-3	-12.2926E-3
3.47424E-3	139.010E-12	654.658E-3	-30.5997E-3	137.139E-12	616.596E-3	-27.6600E-3
3.46923E-3	139.155E-12	641.431E-3	-61.5216E-3	137.120E-12	635.817E-3	-30.1226E-3
3.46423E-3	138.340E-12	612.444E-3	-54.9927E-3	136.529E-12	626.662E-3	-17.0588E-3
3.45923E-3	139.327E-12	592.664E-3	-27.8115E-3	136.711E-12	599.708E-3	1.29305E-3
3.45423E-3	139.440E-12	615.777E-3	3.44709E-3	137.271E-12	618.094E-3	7.77078E-3
3.44922E-3	138.903E-12	642.316E-3	28.3733E-3	137.803E-12	639.879E-3	-5.21592E-3
3.44422E-3	138.225E-12	630.478E-3	6.79546E-3	138.002E-12	629.013E-3	-12.5569E-3
3.43922E-3	138.824E-12	616.659E-3	-33.3093E-3	138.092E-12	620.040E-3	6.71034E-3
3.43422E-3	137.877E-12	627.035E-3	-32.4653E-3	138.055E-12	605.762E-3	10.7390E-3
3.42921E-3	137.340E-12	635.982E-3	-20.0913E-3	138.123E-12	594.961E-3	-11.0358E-3
3.42421E-3	136.643E-12	634.655E-3	-24.6393E-3	137.848E-12	618.227E-3	-32.5124E-3
3.41921E-3	136.155E-12	614.650E-3	-22.0046E-3	137.692E-12	630.299E-3	-29.0131E-3
3.41421E-3	135.195E-12	584.145E-3	-34.0078E-3	137.377E-12	607.194E-3	-13.0904E-3
3.40920E-3	135.346E-12	571.640E-3	-46.4639E-3	136.834E-12	588.451E-3	-11.8672E-3
3.40420E-3	134.367E-12	581.137E-3	-19.0269E-3	136.539E-12	592.934E-3	-10.5206E-3
3.39920E-3	134.455E-12	590.283E-3	17.5420E-3	136.754E-12	605.465E-3	-7.39122E-3
3.39420E-3	134.339E-12	590.151E-3	5.53973E-3	135.993E-12	611.867E-3	3.80258E-3
3.38919E-3	134.193E-12	587.517E-3	-27.5311E-3	135.114E-12	611.058E-3	21.5209E-3
3.38419E-3	133.858E-12	594.682E-3	-35.8075E-3	134.509E-12	609.042E-3	14.9966E-3
3.37919E-3	133.995E-12	620.614E-3	-38.9040E-3	134.275E-12	615.676E-3	-7.71489E-3
3.37419E-3	134.488E-12	654.631E-3	-21.1881E-3	133.731E-12	631.537E-3	-11.3660E-3
3.36918E-3	135.178E-12	663.721E-3	-3.00721E-3	133.661E-12	642.884E-3	-8.86926E-3
3.36418E-3	135.058E-12	642.120E-3	-30.2027E-3	133.644E-12	633.000E-3	-22.8722E-3
3.35918E-3	135.097E-12	614.497E-3	-48.1154E-3	133.242E-12	607.536E-3	-50.2903E-3
3.35418E-3	135.254E-12	608.607E-3	-23.8047E-3	133.116E-12	591.663E-3	-54.3329E-3
3.34917E-3	135.573E-12	613.676E-3	-7.70177E-3	133.015E-12	588.588E-3	-18.1548E-3
3.34417E-3	135.073E-12	611.739E-3	-843.314E-6	132.850E-12	603.195E-3	4.81033E-3
3.33917E-3	134.452E-12	621.772E-3	5.01973E-3	133.301E-12	627.219E-3	823.346E-6
3.33417E-3	133.563E-12	630.862E-3	-15.5892E-3	133.067E-12	626.906E-3	6.00869E-3
3.32916E-3	133.435E-12	632.760E-3	-46.0470E-3	132.699E-12	615.278E-3	12.3861E-3
3.32416E-3	132.668E-12	618.341E-3	-40.3293E-3	133.049E-12	616.200E-3	2.24336E-3
3.31916E-3	131.720E-12	606.454E-3	-15.4539E-3	133.099E-12	616.435E-3	-10.2114E-3
3.31416E-3	130.778E-12	620.803E-3	-6.41028E-3	132.717E-12	609.595E-3	-24.5525E-3
3.30915E-3	130.187E-12	622.000E-3	2.63323E-3	132.220E-12	608.425E-3	-37.6458E-3
3.30415E-3	129.903E-12	605.691E-3	-7.29943E-3	132.545E-12	611.931E-3	-30.1569E-3
3.29915E-3	129.828E-12	606.948E-3	-33.8510E-3	131.771E-12	610.110E-3	-24.1948E-3
3.29415E-3	129.310E-12	605.429E-3	-32.8930E-3	131.786E-12	610.831E-3	-27.6447E-3
3.28914E-3	129.066E-12	595.000E-3	-21.5920E-3	131.241E-12	618.271E-3	-17.1205E-3
3.28414E-3	128.969E-12	607.769E-3	-27.0264E-3	131.166E-12	619.584E-3	-9.05718E-3
3.27914E-3	130.173E-12	617.446E-3	-20.3621E-3	130.709E-12	613.560E-3	-4.57772E-3
3.27414E-3	130.972E-12	605.891E-3	-9.99897E-3	129.937E-12	609.148E-3	2.08230E-3
3.26913E-3	130.766E-12	597.550E-3	-9.09927E-3	129.397E-12	607.280E-3	-12.8277E-3
3.26413E-3	131.606E-12	595.272E-3	9.92149E-3	129.161E-12	601.518E-3	-43.2156E-3
3.25913E-3	132.607E-12	587.083E-3	21.4632E-3	128.236E-12	596.157E-3	-43.6330E-3
3.25413E-3	132.679E-12	592.842E-3	13.0164E-3	127.883E-12	603.150E-3	-25.6801E-3
3.24912E-3	131.823E-12	610.415E-3	6.26022E-3	127.654E-12	618.102E-3	-23.9983E-3
3.24412E-3	131.753E-12	601.526E-3	4.84056E-3	127.063E-12	630.990E-3	-18.9723E-3
3.23912E-3	131.534E-12	597.025E-3	-2.13866E-3	126.653E-12	641.484E-3	-17.6541E-3
3.23412E-3	130.568E-12	613.042E-3	-6.23035E-3	127.140E-12	630.781E-3	-22.1183E-3
3.22911E-3	129.501E-12	607.184E-3	89.4958E-6	127.244E-12	612.994E-3	-9.64301E-3
3.22411E-3	129.102E-12	609.689E-3	-14.9483E-3	127.932E-12	615.408E-3	-1.95512E-3
3.21911E-3	128.349E-12	644.722E-3	-24.6192E-3	127.945E-12	606.990E-3	-14.2236E-3
3.21411E-3	127.051E-12	646.487E-3	1.61710E-3	128.425E-12	600.747E-3	-16.4009E-3
3.20910E-3	126.643E-12	619.314E-3	8.35888E-3	128.598E-12	610.528E-3	-7.96169E-3
3.20410E-3	125.965E-12	616.024E-3	-6.36441E-3	129.271E-12	602.641E-3	-19.6481E-3
3.19910E-3	125.175E-12	615.830E-3	-4.23885E-3	129.272E-12	602.504E-3	-28.7000E-3
3.19410E-3	125.586E-12	602.856E-3	-9.22862E-3	129.028E-12	628.633E-3	-19.5036E-3
3.18909E-3	125.494E-12	598.942E-3	-24.1790E-3	128.703E-12	633.323E-3	-19.4998E-3
3.18409E-3	125.453E-12	598.055E-3	-19.4729E-3	128.437E-12	614.760E-3	-17.2113E-3
3.17909E-3	125.480E-12	592.485E-3	-19.7433E-3	128.078E-12	605.548E-3	1.51120E-3
3.17409E-3	125.715E-12	597.026E-3	-35.6424E-3	126.865E-12	607.805E-3	18.0454E-3
3.16908E-3	125.609E-12	598.317E-3	-39.2132E-3	126.256E-12	612.064E-3	14.2092E-3
3.16408E-3	126.629E-12	598.976E-3	-49.8601E-3	125.266E-12	612.544E-3	-8.25370E-3
3.15908E-3	126.228E-12	613.378E-3	-45.2727E-3	124.347E-12	612.864E-3	-4.81877E-3
3.15408E-3	126.032E-12	615.453E-3	-20.7778E-3	122.761E-12	607.724E-3	21.2628E-3
3.14907E-3	126.099E-12	607.947E-3	-35.3912E-3	123.152E-12	604.104E-3	9.08334E-3
3.14407E-3	126.385E-12	626.033E-3	-51.1005E-3	122.384E-12	595.965E-3	-33.9084E-3
3.13907E-3	125.508E-12	632.527E-3	-28.4388E-3	121.896E-12	575.287E-3	-59.5319E-3
3.13407E-3	125.099E-12	605.748E-3	-20.4303E-3	122.266E-12	572.197E-3	-56.0231E-3
3.12906E-3	124.274E-12	594.622E-3	-26.3227E-3	123.306E-12	596.116E-3	-47.5296E-3
3.12406E-3	123.743E-12	606.068E-3	-13.9678E-3	123.378E-12	623.844E-3	-31.8587E-3
3.11906E-3	123.701E-12	618.612E-3	-7.42235E-3	124.483E-12	656.711E-3	4.13651E-3
3.11406E-3	123.152E-12	624.651E-3	-9.41011E-3	125.314E-12	676.828E-3	22.7128E-3
3.10905E-3	122.645E-12	629.640E-3	-9.10788E-3	125.699E-12	653.875E-3	-6.81574E-3
3.10405E-3	122.171E-12	643.071E-3	-19.5294E-3	126.149E-12	636.735E-3	-32.7200E-3
3.09905E-3	122.657E-12	645.644E-3	-35.0264E-3	126.293E-12	648.612E-3	-23.6040E-3
3.09405E-3	122.481E-12	617.437E-3	-30.5713E-3	126.124E-12	645.699E-3	-8.20758E-3
3.08904E-3	122.073E-12	596.447E-3	-26.5089E-3	126.533E-12	639.369E-3	8.24226E-3
3.08404E-3	122.291E-12	602.493E-3	-39.4230E-3	125.490E-12	645.864E-3	13.3936E-3
3.07904E-3	122.377E-12	618.979E-3	-34.9328E-3	124.388E-12	634.573E-3	-11.6941E-3
3.07404E-3	122.535E-12	621.968E-3	-20.3852E-3	123.453E-12	618.819E-3	-46.8308E-3
3.06903E-3	122.580E-12	617.391E-3	-28.1944E-3	122.998E-12	606.860E-3	-51.5824E-3
3.06403E-3	122.461E-12	637.455E-3	-37.1058E-3	121.406E-12	586.984E-3	-34.0152E-3
3.05903E-3	122.330E-12	659.363E-3	-23.9749E-3	121.263E-12	577.754E-3	-6.73450E-3
3.05403E-3	122.615E-12	661.720E-3	-5.14620E-3	120.268E-12	601.317E-3	12.3463E-3
3.04902E-3	122.797E-12	656.683E-3	-6.28986E-3	120.466E-12	624.808E-3	-1.61074E-3
3.04402E-3	122.712E-12	634.903E-3	-20.9892E-3	119.625E-12	609.018E-3	-7.11937E-3
3.03902E-3	122.057E-12	614.375E-3	-13.0703E-3	119.331E-12	604.784E-3	603.237E-6
3.03402E-3	122.181E-12	631.068E-3	1.75425E-3	119.681E-12	627.015E-3	-4.20669E-3
3.02901E-3	122.362E-12	657.666E-3	-969.535E-6	120.421E-12	632.828E-3	-10.8773E-3
3.02401E-3	121.471E-12	655.296E-3	-11.4495E-3	120.130E-12	625.685E-3	-22.1564E-3
3.01901E-3	120.907E-12	642.502E-3	-34.6174E-3	120.778E-12	621.235E-3	-36.8433E-3
3.01401E-3	120.251E-12	638.411E-3	-49.8725E-3	121.083E-12	614.014E-3	-33.8765E-3
3.00900E-3	120.094E-12	630.279E-3	-38.8030E-3	120.670E-12	611.967E-3	-18.7284E-3
3.00400E-3	119.477E-12	622.198E-3	-30.2536E-3	120.912E-12	620.049E-3	-21.6695E-3
2.99900E-3	118.543E-12	618.030E-3	-20.7616E-3	120.836E-12	623.577E-3	-28.8717E-3
2.99400E-3	118.146E-12	614.998E-3	-5.49799E-3	120.928E-12	624.492E-3	-20.0780E-3
2.98899E-3	117.457E-12	628.878E-3	-11.6684E-3	119.341E-12	619.044E-3	-17.6435E-3
2.98399E-3	116.230E-12	646.576E-3	-2.29079E-3	119.205E-12	605.793E-3	-15.0706E-3
2.97899E-3	116.142E-12	633.070E-3	25.8624E-3	118.604E-12	608.124E-3	1.55856E-3
2.97399E-3	115.276E-12	611.310E-3	18.3252E-3	117.619E-12	624.977E-3	3.77220E-3
2.96898E-3	115.102E-12	599.938E-3	2.76957E-3	116.911E-12	621.871E-3	-12.8789E-3
2.96398E-3	114.955E-12	588.334E-3	-6.18910E-3	116.180E-12	598.077E-3	-14.0394E-3
2.95898E-3	115.159E-12	594.193E-3	-21.4035E-3	115.099E-12	589.198E-3	3.39932E-3
2.95398E-3	115.401E-12	607.028E-3	-26.4907E-3	114.956E-12	603.732E-3	9.30194E-3
2.94897E-3	115.229E-12	619.344E-3	-15.8841E-3	114.804E-12	627.790E-3	-870.798E-6
2.94397E-3	115.951E-12	625.573E-3	-8.96402E-3	114.181E-12	640.866E-3	-14.2103E-3
2.93897E-3	116.087E-12	627.977E-3	-16.6454E-3	114.052E-12	626.515E-3	-28.9859E-3
2.93397E-3	116.425E-12	639.165E-3	-7.93161E-3	114.087E-12	601.442E-3	-34.2598E-3
2.92896E-3	116.839E-12	630.777E-3	10.3026E-3	113.816E-12	589.668E-3	-25.4824E-3
2.92396E-3	116.821E-12	625.084E-3	6.63189E-3	113.810E-12	593.748E-3	-17.6017E-3
2.91896E-3	116.853E-12	630.637E-3	-11.4114E-3	114.166E-12	614.103E-3	-3.67849E-3
2.91396E-3	116.509E-12	617.338E-3	-31.4755E-3	113.823E-12	631.688E-3	17.7560E-3
2.90895E-3	116.144E-12	619.049E-3	-34.2075E-3	113.927E-12	643.477E-3	17.2991E-3
2.90395E-3	115.500E-12	632.428E-3	-10.1988E-3	114.066E-12	653.447E-3	5.92185E-3
2.89895E-3	115.004E-12	625.972E-3	3.67331E-3	114.185E-12	654.454E-3	-2.50704E-3
2.89395E-3	114.534E-12	632.861E-3	3.54801E-3	114.509E-12	663.526E-3	-26.1666E-3
2.88894E-3	114.177E-12	655.690E-3	8.48006E-3	114.253E-12	651.305E-3	-47.9768E-3
2.88394E-3	113.180E-12	658.667E-3	-3.79568E-3	114.215E-12	621.869E-3	-40.7882E-3
2.87894E-3	112.094E-12	642.334E-3	-22.4364E-3	115.444E-12	622.272E-3	-29.3553E-3
2.87394E-3	112.593E-12	626.757E-3	-20.8978E-3	114.875E-12	629.239E-3	-39.1562E-3
2.86893E-3	112.510E-12	614.692E-3	-11.8845E-3	114.141E-12	625.802E-3	-39.5364E-3
2.86393E-3	112.158E-12	609.040E-3	-14.6661E-3	114.131E-12	616.280E-3	-23.5134E-3
2.85893E-3	112.692E-12	619.669E-3	-23.3941E-3	114.422E-12	601.674E-3	-15.7461E-3
2.85393E-3	112.749E-12	636.577E-3	-23.9717E-3	113.138E-12	606.265E-3	-8.36231E-3
2.84892E-3	113.299E-12	642.049E-3	-22.7967E-3	112.654E-12	611.726E-3	-9.49098E-3
2.84392E-3	113.748E-12	635.048E-3	-27.1893E-3	112.230E-12	600.411E-3	-27.2253E-3
2.83892E-3	114.353E-12	621.737E-3	-34.4365E-3	111.622E-12	617.599E-3	-40.3333E-3
2.83392E-3	114.060E-12	614.657E-3	-45.3692E-3	111.124E-12	650.357E-3	-43.8699E-3
2.82891E-3	114.486E-12	618.210E-3	-34.9189E-3	111.140E-12	647.334E-3	-33.9604E-3
2.82391E-3	114.888E-12	621.702E-3	-16.9432E-3	110.718E-12	635.498E-3	-17.5198E-3
2.81891E-3	114.419E-12	630.975E-3	-21.2111E-3	110.359E-12	624.488E-3	-19.9604E-3
2.81391E-3	113.720E-12	644.241E-3	-29.3629E-3	110.608E-12	609.322E-3	-28.8785E-3
2.80890E-3	112.877E-12	637.433E-3	-41.2371E-3	110.469E-12	620.881E-3	-18.4797E-3
2.80390E-3	112.187E-12	634.265E-3	-49.8928E-3	111.098E-12	639.762E-3	-6.86952E-3
2.79890E-3	111.496E-12	656.510E-3	-31.9736E-3	110.923E-12	633.037E-3	-5.67339E-3
2.79390E-3	110.127E-12	665.748E-3	-10.5647E-3	111.471E-12	629.243E-3	-9.66522E-3
2.78889E-3	109.281E-12	652.972E-3	-5.88794E-3	111.890E-12	645.159E-3	-23.8058E-3
2.78389E-3	108.942E-12	646.314E-3	-1.55878E-3	112.497E-12	645.785E-3	-36.4351E-3
2.77889E-3	108.778E-12	643.123E-3	624.565E-6	111.939E-12	647.724E-3	-32.3611E-3
2.77389E-3	107.458E-12	635.670E-3	1.36412E-3	112.794E-12	667.712E-3	-31.4707E-3
2.76888E-3	107.839E-12	628.822E-3	3.76931E-3	112.545E-12	665.917E-3	-41.2412E-3
2.76388E-3	108.287E-12	627.698E-3	-7.13892E-3	111.948E-12	651.703E-3	-35.7366E-3
2.75888E-3	107.966E-12	624.589E-3	-18.3978E-3	111.660E-12	637.191E-3	-14.8658E-3
2.75388E-3	107.803E-12	617.539E-3	-10.5086E-3	110.794E-12	618.955E-3	-3.84276E-3
2.74887E-3	108.749E-12	617.847E-3	648.847E-6	109.817E-12	606.940E-3	-13.9742E-3
2.74387E-3	108.662E-12	623.529E-3	-616.725E-6	108.941E-12	606.636E-3	-22.0126E-3
2.73887E-3	108.341E-12	628.621E-3	-601.554E-6	108.497E-12	619.835E-3	-23.9781E-3
2.73387E-3	108.808E-12	624.281E-3	-2.13910E-3	106.725E-12	635.135E-3	-27.5108E-3
2.72886E-3	108.518E-12	620.740E-3	-32.5158E-3	106.367E-12	639.512E-3	-18.3607E-3
2.72386E-3	107.748E-12	628.811E-3	-54.1800E-3	106.378E-12	626.698E-3	-9.58581E-3
2.71886E-3	107.028E-12	638.139E-3	-32.8257E-3	105.377E-12	623.786E-3	-14.4000E-3
2.71386E-3	106.399E-12	638.593E-3	-11.7055E-3	105.039E-12	636.564E-3	-12.1759E-3
2.70885E-3	106.371E-12	640.717E-3	-15.2639E-3	105.484E-12	642.409E-3	-10.0156E-3
2.70385E-3	106.127E-12	634.341E-3	-5.32083E-3	105.479E-12	637.070E-3	-25.0625E-3
2.69885E-3	105.298E-12	621.064E-3	15.4126E-3	105.340E-12	627.277E-3	-36.0099E-3
2.69385E-3	105.054E-12	632.204E-3	8.67828E-3	106.413E-12	622.463E-3	-30.2698E-3
2.68884E-3	105.421E-12	634.822E-3	-12.5183E-3	106.575E-12	618.609E-3	-19.5453E-3
2.68384E-3	104.799E-12	615.877E-3	-20.6836E-3	106.321E-12	623.012E-3	-7.57464E-3
2.67884E-3	104.799E-12	613.430E-3	-14.0270E-3	107.166E-12	638.201E-3	-8.47973E-3
2.67384E-3	104.492E-12	626.506E-3	-13.4827E-3	107.211E-12	641.261E-3	-11.3194E-3
2.66883E-3	104.202E-12	637.448E-3	-29.3564E-3	106.232E-12	633.004E-3	-7.05172E-3
2.66383E-3	104.086E-12	642.050E-3	-43.6205E-3	106.004E-12	622.549E-3	-17.2650E-3
2.65883E-3	104.507E-12	636.852E-3	-42.3450E-3	105.949E-12	612.297E-3	-19.6045E-3
2.65383E-3	104.107E-12	624.182E-3	-34.7738E-3	104.555E-12	614.127E-3	-5.84179E-3
2.64882E-3	104.133E-12	624.006E-3	-29.0267E-3	103.700E-12	624.995E-3	-11.6517E-3
2.64382E-3	104.316E-12	642.959E-3	-16.6740E-3	102.979E-12	630.738E-3	-27.0505E-3
2.63882E-3	104.717E-12	640.350E-3	-13.9535E-3	102.383E-12	622.718E-3	-32.6038E-3
2.63382E-3	104.144E-12	612.984E-3	-26.5559E-3	101.945E-12	618.587E-3	-41.1337E-3
2.62881E-3	103.631E-12	607.295E-3	-32.9850E-3	101.237E-12	635.950E-3	-37.1730E-3
2.62381E-3	104.196E-12	619.234E-3	-19.8541E-3	100.938E-12	656.079E-3	-22.6211E-3
2.61881E-3	103.540E-12	619.177E-3	-2.45051E-3	101.051E-12	658.551E-3	-30.4831E-3
2.61381E-3	103.005E-12	612.684E-3	-9.57194E-3	101.306E-12	639.361E-3	-40.5385E-3
2.60880E-3	103.516E-12	624.173E-3	-28.5763E-3	100.993E-12	629.271E-3	-24.0321E-3
2.60380E-3	102.932E-12	649.308E-3	-26.9984E-3	101.288E-12	645.051E-3	-17.3038E-3
2.59880E-3	102.127E-12	652.930E-3	-10.1931E-3	101.975E-12	655.827E-3	-25.1909E-3
2.59380E-3	103.235E-12	627.646E-3	-3.70754E-3	102.409E-12	655.877E-3	-18.2736E-3
2.58879E-3	102.515E-12	624.724E-3	-13.9411E-3	102.255E-12	656.665E-3	-17.5199E-3
2.58379E-3	101.288E-12	647.476E-3	-23.8498E-3	102.859E-12	652.993E-3	-23.3596E-3
2.57879E-3	101.721E-12	650.123E-3	-16.4139E-3	102.898E-12	639.259E-3	-18.9442E-3
2.57379E-3	101.628E-12	634.926E-3	-4.25738E-3	102.195E-12	625.353E-3	-16.4493E-3
2.56878E-3	100.526E-12	624.832E-3	-66.6675E-6	102.171E-12	625.323E-3	-10.4840E-3
2.56378E-3	100.358E-12	636.345E-3	-3.96272E-3	101.741E-12	626.852E-3	2.04229E-3
2.55878E-3	100.008E-12	651.767E-3	-16.9344E-3	100.928E-12	614.035E-3	17.8568E-3
2.55378E-3	99.1869E-12	662.482E-3	-23.8509E-3	100.004E-12	607.832E-3	22.1633E-3
2.54877E-3	99.3086E-12	668.833E-3	-19.5568E-3	99.8698E-12	633.341E-3	7.67535E-3
2.54377E-3	98.9982E-12	649.454E-3	-20.6397E-3	99.0114E-12	655.632E-3	-6.14989E-3
2.53877E-3	98.5357E-12	618.981E-3	-27.8738E-3	98.5272E-12	650.105E-3	-13.8207E-3
2.53377E-3	98.3145E-12	611.077E-3	-22.0707E-3	98.3477E-12	647.534E-3	-10.9598E-3
2.52876E-3	98.6844E-12	620.211E-3	-8.97726E-3	98.2898E-12	649.028E-3	-9.49814E-3
2.52376E-3	98.6635E-12	632.141E-3	-7.62386E-3	97.9261E-12	639.573E-3	-11.0592E-3
2.51876E-3	98.4306E-12	644.970E-3	-16.5304E-3	98.1146E-12	634.076E-3	982.718E-6
2.51376E-3	98.5741E-12	639.717E-3	-17.3329E-3	98.1248E-12	633.543E-3	6.50137E-3
2.50875E-3	99.0517E-12	622.816E-3	-10.1682E-3	98.6124E-12	635.859E-3	-11.4983E-3
2.50375E-3	98.9128E-12	628.507E-3	-11.5443E-3	98.0839E-12	644.234E-3	-24.7723E-3
2.49875E-3	98.5143E-12	653.141E-3	-20.2025E-3	98.2270E-12	647.267E-3	-9.85875E-3
2.49375E-3	98.6641E-12	667.973E-3	-32.8565E-3	98.8380E-12	643.620E-3	-5.30774E-3
2.48874E-3	98.1557E-12	662.714E-3	-31.7056E-3	98.7214E-12	644.712E-3	-28.3467E-3
2.48374E-3	97.6790E-12	639.950E-3	-16.4583E-3	98.3367E-12	658.530E-3	-43.6044E-3
2.47874E-3	97.0362E-12	616.761E-3	-8.15525E-3	97.9461E-12	676.070E-3	-46.2073E-3
2.47374E-3	96.7511E-12	613.597E-3	-3.46299E-3	98.5481E-12	675.976E-3	-43.5319E-3
2.46873E-3	95.6924E-12	625.206E-3	-2.14663E-3	97.4979E-12	664.712E-3	-33.2120E-3
2.46373E-3	95.4992E-12	634.349E-3	-12.8506E-3	97.1619E-12	661.493E-3	-39.8538E-3
2.45873E-3	95.4025E-12	642.305E-3	-37.9955E-3	96.8303E-12	656.385E-3	-58.1215E-3
2.45373E-3	94.6974E-12	645.648E-3	-53.2194E-3	96.5796E-12	653.723E-3	-42.3521E-3
2.44872E-3	94.3343E-12	639.280E-3	-32.2857E-3	95.8621E-12	653.994E-3	-12.8292E-3
2.44372E-3	94.6730E-12	637.430E-3	-4.15036E-3	95.6586E-12	640.392E-3	-5.18678E-3
2.43872E-3	94.2077E-12	639.432E-3	-5.60050E-3	94.9192E-12	622.325E-3	-6.70754E-3
2.43372E-3	94.6793E-12	637.037E-3	-19.5758E-3	94.5810E-12	633.934E-3	-12.7048E-3
2.42871E-3	94.9002E-12	648.126E-3	-25.0222E-3	94.6525E-12	668.241E-3	-29.6233E-3
2.42371E-3	95.0395E-12	671.621E-3	-22.7808E-3	93.6834E-12	673.191E-3	-28.6405E-3
2.41871E-3	95.1395E-12	670.521E-3	-20.8019E-3	93.3577E-12	650.574E-3	-8.93904E-3
2.41371E-3	95.5612E-12	661.663E-3	-21.8667E-3	93.2020E-12	629.011E-3	-6.97763E-3
2.40870E-3	95.6981E-12	672.499E-3	-19.8021E-3	92.6099E-12	630.133E-3	-20.1436E-3
2.40370E-3	95.2942E-12	674.693E-3	-21.7202E-3	92.4324E-12	636.141E-3	-30.6194E-3
2.39870E-3	94.3257E-12	670.525E-3	-18.0137E-3	92.4672E-12	627.805E-3	-31.8907E-3
2.39370E-3	94.4943E-12	670.524E-3	-4.01522E-3	91.9900E-12	635.948E-3	-18.0012E-3
2.38869E-3	93.7502E-12	662.200E-3	3.99738E-3	91.9745E-12	650.482E-3	-1.85944E-3
2.38369E-3	92.7125E-12	650.169E-3	-3.16717E-3	92.0231E-12	646.486E-3	-3.06541E-3
2.37869E-3	92.0591E-12	647.101E-3	-15.3389E-3	92.1960E-12	643.679E-3	-3.41459E-3
2.37369E-3	91.5105E-12	648.957E-3	-12.4482E-3	92.1090E-12	648.624E-3	7.48827E-3
2.36868E-3	90.4507E-12	644.182E-3	-18.0808E-3	91.9021E-12	650.041E-3	15.2995E-3
2.36368E-3	89.8490E-12	645.148E-3	-29.3388E-3	92.0138E-12	647.846E-3	-16.8718E-6
2.35868E-3	89.8005E-12	649.044E-3	-22.8044E-3	91.9049E-12	640.849E-3	-23.7311E-3
2.35368E-3	89.4406E-12	639.694E-3	-19.6881E-3	91.7520E-12	638.278E-3	-33.2561E-3
2.34867E-3	89.1175E-12	637.884E-3	-16.6996E-3	91.1844E-12	650.115E-3	-26.2764E-3
2.34367E-3	89.7126E-12	650.204E-3	-10.1316E-3	91.1373E-12	658.255E-3	-18.7862E-3
2.33867E-3	89.8637E-12	650.816E-3	-13.1320E-3	90.5617E-12	642.984E-3	-25.7842E-3
2.33367E-3	89.7603E-12	643.110E-3	-10.8307E-3	90.3927E-12	626.531E-3	-24.5458E-3
2.32866E-3	90.4036E-12	650.821E-3	1.99083E-3	89.7151E-12	635.670E-3	-21.1435E-3
2.32366E-3	91.1314E-12	656.621E-3	-281.477E-6	88.8441E-12	640.692E-3	-22.8975E-3
2.31866E-3	90.7637E-12	652.162E-3	-21.0399E-3	88.5348E-12	625.262E-3	-16.9901E-3
2.31366E-3	90.9710E-12	662.976E-3	-30.8451E-3	88.4716E-12	612.609E-3	-14.9982E-3
2.30865E-3	91.4317E-12	670.977E-3	-34.9702E-3	87.5550E-12	606.201E-3	-20.5093E-3
2.30365E-3	91.1023E-12	664.690E-3	-43.4057E-3	87.2467E-12	604.766E-3	-17.8785E-3
2.29865E-3	91.1810E-12	674.025E-3	-36.6794E-3	87.2350E-12	621.802E-3	-17.7922E-3
2.29365E-3	90.5648E-12	695.576E-3	-25.1044E-3	87.0918E-12	651.828E-3	-39.1637E-3
2.28864E-3	90.2537E-12	708.880E-3	-17.3869E-3	87.2676E-12	664.408E-3	-46.5343E-3
2.28364E-3	89.8163E-12	706.565E-3	-2.16885E-3	87.8815E-12	660.630E-3	-20.4095E-3
2.27864E-3	89.0895E-12	684.694E-3	2.22226E-3	87.7665E-12	652.389E-3	-10.7343E-3
2.27364E-3	88.2087E-12	669.597E-3	-6.10404E-3	88.0812E-12	653.330E-3	-15.4454E-3
2.26863E-3	87.5581E-12	662.159E-3	-10.9541E-3	88.6621E-12	671.232E-3	-1.67150E-3
2.26363E-3	87.2116E-12	647.551E-3	-1.50045E-3	88.9758E-12	675.337E-3	-3.91853E-3
2.25863E-3	86.8723E-12	636.623E-3	1.29579E-3	89.2932E-12	658.952E-3	-26.7047E-3
2.25363E-3	87.1786E-12	628.809E-3	-10.8740E-3	89.3816E-12	658.480E-3	-41.3049E-3
2.24862E-3	86.4777E-12	631.010E-3	-13.8412E-3	88.9190E-12	681.259E-3	-47.4173E-3
2.24362E-3	86.7010E-12	643.891E-3	-8.62197E-3	88.9979E-12	683.819E-3	-45.2550E-3
2.23862E-3	86.4433E-12	657.063E-3	3.04838E-3	88.4778E-12	659.519E-3	-29.4844E-3
2.23362E-3	86.3427E-12	661.846E-3	4.64486E-3	87.4459E-12	642.865E-3	-7.81522E-3
2.22861E-3	85.9653E-12	655.374E-3	-16.8027E-3	86.9643E-12	633.896E-3	-7.19121E-3
2.22361E-3	86.1534E-12	659.927E-3	-31.2682E-3	86.7270E-12	633.581E-3	-21.0870E-3
2.21861E-3	86.0201E-12	675.571E-3	-21.5415E-3	85.6357E-12	649.127E-3	-17.9431E-3
2.21361E-3	85.2996E-12	670.896E-3	-17.2075E-3	84.6089E-12	655.243E-3	-13.1697E-3
2.20860E-3	85.5213E-12	659.607E-3	-25.3168E-3	84.7449E-12	649.594E-3	-16.8044E-3
2.20360E-3	85.5943E-12	669.717E-3	-31.7324E-3	84.3244E-12	644.088E-3	-20.2342E-3
2.19860E-3	85.0883E-12	681.054E-3	-35.4670E-3	83.6040E-12	642.310E-3	-28.7090E-3
2.19360E-3	84.6569E-12	685.438E-3	-26.4660E-3	83.6872E-12	652.740E-3	-22.1793E-3
2.18859E-3	84.3883E-12	696.898E-3	-3.50275E-3	83.8075E-12	656.693E-3	-5.75768E-3
2.18359E-3	84.1984E-12	695.181E-3	9.02182E-3	83.6351E-12	654.189E-3	-5.67472E-3
2.17859E-3	83.7501E-12	679.594E-3	-3.07122E-3	84.0781E-12	662.727E-3	-7.47157E-3
2.17359E-3	83.3229E-12	667.917E-3	-15.4779E-3	84.6817E-12	678.608E-3	5.87169E-3
2.16858E-3	83.1259E-12	654.851E-3	-13.8577E-3	84.4654E-12	693.948E-3	19.8376E-3
2.16358E-3	82.6251E-12	650.131E-3	-22.6514E-3	84.5306E-12	700.532E-3	3.04033E-3
2.15858E-3	81.6660E-12	645.686E-3	-27.5027E-3	84.9930E-12	681.039E-3	-18.2132E-3
2.15358E-3	81.1476E-12	628.277E-3	-9.99166E-3	84.5056E-12	659.776E-3	-22.5534E-3
2.14857E-3	80.8486E-12	625.218E-3	-5.54367E-3	84.4546E-12	658.513E-3	-30.2219E-3
2.14357E-3	80.7025E-12	639.425E-3	-16.3075E-3	84.0299E-12	659.994E-3	-32.2919E-3
2.13857E-3	80.2428E-12	638.951E-3	-20.6395E-3	83.4520E-12	668.246E-3	-19.1875E-3
2.13357E-3	79.8078E-12	631.278E-3	-18.8476E-3	82.4765E-12	667.609E-3	-11.4803E-3
2.12856E-3	79.9132E-12	649.588E-3	1.80054E-3	82.0793E-12	661.006E-3	-13.7019E-3
2.12356E-3	79.7879E-12	671.805E-3	31.2612E-3	81.2915E-12	668.254E-3	-13.0317E-3
2.11856E-3	79.5701E-12	679.074E-3	31.6682E-3	80.4174E-12	669.914E-3	-13.9341E-3
2.11356E-3	79.6489E-12	684.771E-3	7.30642E-3	79.3890E-12	658.662E-3	-14.6237E-3
2.10855E-3	79.8356E-12	681.206E-3	-11.0418E-3	79.0953E-12	654.893E-3	-7.89362E-3
2.10355E-3	79.2530E-12	673.389E-3	-18.7316E-3	78.5062E-12	658.260E-3	3.03668E-3
2.09855E-3	79.7012E-12	666.339E-3	-24.1971E-3	77.8754E-12	655.114E-3	5.01887E-3
2.09355E-3	79.8833E-12	659.420E-3	-22.7078E-3	78.0095E-12	655.630E-3	-621.983E-6
2.08854E-3	79.7359E-12	667.911E-3	-20.8794E-3	77.9071E-12	658.535E-3	3.24766E-3
2.08354E-3	79.2814E-12	689.577E-3	-17.6231E-3	77.6545E-12	657.897E-3	694.859E-6
2.07854E-3	79.6349E-12	700.461E-3	-7.72470E-3	77.9220E-12	660.926E-3	-15.4529E-3
2.07354E-3	79.4690E-12	693.372E-3	-3.46809E-3	77.8959E-12	663.349E-3	-22.3177E-3
2.06853E-3	79.4925E-12	684.064E-3	-4.19001E-3	78.1100E-12	669.426E-3	-18.9637E-3
2.06353E-3	79.0069E-12	681.818E-3	-7.59760E-3	78.1349E-12	673.867E-3	-15.4540E-3
2.05853E-3	78.4112E-12	673.359E-3	-3.21658E-3	78.4170E-12	671.880E-3	-10.8726E-3
2.05353E-3	78.3824E-12	664.499E-3	215.777E-6	78.1690E-12	677.745E-3	-5.89755E-3
2.04852E-3	78.5451E-12	672.910E-3	-8.88087E-3	78.5991E-12	687.300E-3	-12.3963E-3
2.04352E-3	77.4495E-12	683.515E-3	-5.03082E-3	78.0616E-12	691.629E-3	-18.2300E-3
2.03852E-3	77.1908E-12	682.771E-3	404.428E-6	78.0729E-12	691.195E-3	-9.42807E-3
2.03352E-3	77.7395E-12	684.263E-3	695.364E-6	77.8314E-12	681.656E-3	-8.91476E-3
2.02851E-3	77.3200E-12	689.490E-3	2.20415E-3	77.1124E-12	657.338E-3	-20.6860E-3
2.02351E-3	76.5978E-12	690.740E-3	-3.54967E-3	77.0110E-12	651.320E-3	-18.1172E-3
2.01851E-3	76.8228E-12	685.246E-3	-5.99570E-3	76.4752E-12	675.222E-3	-7.63545E-3
2.01351E-3	76.4909E-12	691.021E-3	-11.7377E-3	76.0563E-12	683.579E-3	-11.7274E-3
2.00850E-3	76.4227E-12	711.323E-3	-19.6353E-3	75.6346E-12	687.163E-3	-19.7160E-3
2.00350E-3	76.7356E-12	708.783E-3	-11.7766E-3	75.1167E-12	702.777E-3	-20.5536E-3
1.99850E-3	76.6094E-12	696.827E-3	758.091E-6	74.7358E-12	698.914E-3	-20.4367E-3
1.99350E-3	76.3573E-12	704.443E-3	-6.02931E-3	74.7598E-12	685.590E-3	-10.5346E-3
1.98849E-3	76.8762E-12	709.394E-3	-17.9610E-3	74.3718E-12	684.403E-3	273.106E-6
1.98349E-3	76.1937E-12	704.691E-3	-9.97612E-3	74.1116E-12	688.026E-3	-16.5900E-3
1.97849E-3	76.1570E-12	711.291E-3	-5.00868E-3	73.9587E-12	685.835E-3	-30.6186E-3
1.97349E-3	76.1570E-12	708.318E-3	-13.0324E-3	74.0521E-12	684.438E-3	-22.5679E-3
1.96848E-3	75.8298E-12	686.690E-3	-24.9916E-3	73.9227E-12	688.260E-3	-25.7272E-3
1.96348E-3	74.9217E-12	690.562E-3	-37.3426E-3	73.4388E-12	689.410E-3	-30.5815E-3
1.95848E-3	74.7364E-12	707.500E-3	-30.6766E-3	73.5568E-12	698.775E-3	-17.4005E-3
1.95348E-3	74.2933E-12	714.972E-3	-18.4939E-3	73.8383E-12	713.835E-3	-13.1235E-3
1.94847E-3	73.5267E-12	717.505E-3	-15.6074E-3	73.6183E-12	712.372E-3	-20.8028E-3
1.94347E-3	72.7851E-12	705.738E-3	-15.0311E-3	73.3959E-12	703.227E-3	-21.1594E-3
1.93847E-3	72.6837E-12	686.592E-3	-16.6307E-3	73.3341E-12	696.881E-3	-25.8419E-3
1.93347E-3	72.5644E-12	680.956E-3	-14.2729E-3	73.4053E-12	692.330E-3	-29.0313E-3
1.92846E-3	71.7879E-12	682.625E-3	-5.84821E-3	73.1086E-12	695.862E-3	-22.3705E-3
1.92346E-3	71.1914E-12	680.010E-3	5.89825E-3	72.8566E-12	710.144E-3	-22.9035E-3
1.91846E-3	71.1704E-12	685.722E-3	1.39134E-3	72.5956E-12	723.942E-3	-22.5125E-3
1.91346E-3	71.2759E-12	697.860E-3	-20.6209E-3	72.0430E-12	724.026E-3	-21.7946E-3
1.90845E-3	70.9833E-12	698.309E-3	-26.3007E-3	71.9040E-12	719.924E-3	-26.6799E-3
1.90345E-3	70.8290E-12	686.670E-3	-18.6783E-3	71.7569E-12	712.168E-3	-25.6527E-3
1.89845E-3	70.9547E-12	679.986E-3	-12.1547E-3	71.2673E-12	706.486E-3	-23.3399E-3
1.89345E-3	71.0341E-12	691.083E-3	-12.0961E-3	71.0817E-12	723.750E-3	-24.1042E-3
1.88844E-3	71.1607E-12	709.907E-3	-23.5489E-3	70.2269E-12	729.791E-3	-25.3573E-3
1.88344E-3	70.7448E-12	725.105E-3	-32.1397E-3	69.8796E-12	707.220E-3	-19.8849E-3
1.87844E-3	70.9540E-12	721.145E-3	-24.0986E-3	69.7933E-12	706.750E-3	-13.8883E-3
1.87344E-3	70.4545E-12	701.576E-3	-15.4982E-3	69.1861E-12	727.872E-3	-7.04258E-3
1.86843E-3	70.3294E-12	700.622E-3	-22.0751E-3	68.7543E-12	734.975E-3	-1.26333E-3
1.86343E-3	70.0042E-12	714.553E-3	-27.6081E-3	68.7060E-12	736.031E-3	-10.6933E-3
1.85843E-3	69.7566E-12	721.316E-3	-32.5715E-3	68.6930E-12	751.946E-3	-14.1749E-3
1.85343E-3	69.1124E-12	721.115E-3	-32.8793E-3	68.2069E-12	766.060E-3	-2.65247E-3
1.84842E-3	68.6591E-12	721.416E-3	-17.5502E-3	68.3969E-12	762.128E-3	-5.48459E-3
1.84342E-3	67.9786E-12	716.501E-3	-9.30877E-3	68.4711E-12	751.159E-3	-18.3592E-3
1.83842E-3	67.5745E-12	711.965E-3	-15.9698E-3	68.3528E-12	737.975E-3	-17.2418E-3
1.83342E-3	67.3792E-12	720.684E-3	-21.3228E-3	68.2693E-12	739.032E-3	-15.3120E-3
1.82841E-3	66.6061E-12	722.698E-3	-28.5290E-3	68.1904E-12	750.763E-3	-20.7525E-3
1.82341E-3	66.8794E-12	717.121E-3	-36.6953E-3	68.1418E-12	740.871E-3	-20.4512E-3
1.81841E-3	66.4696E-12	717.172E-3	-22.5284E-3	67.8032E-12	711.435E-3	-16.2489E-3
1.81341E-3	66.4016E-12	711.398E-3	-9.01448E-3	67.2355E-12	696.900E-3	-17.8696E-3
1.80840E-3	65.8750E-12	698.219E-3	-20.5561E-3	66.9796E-12	708.274E-3	-18.0261E-3
1.80340E-3	65.9490E-12	689.037E-3	-28.8158E-3	66.5082E-12	716.246E-3	-13.5881E-3
1.79840E-3	65.9500E-12	691.096E-3	-20.9844E-3	66.4033E-12	717.951E-3	-8.17501E-3
1.79340E-3	65.8711E-12	707.428E-3	-8.92445E-3	65.7981E-12	725.471E-3	1.94851E-3
1.78839E-3	65.5844E-12	726.575E-3	2.56437E-3	65.3719E-12	732.468E-3	2.57508E-3
1.78339E-3	65.4474E-12	730.960E-3	7.72666E-3	65.2668E-12	736.169E-3	-14.6766E-3
1.77839E-3	65.8354E-12	729.744E-3	1.35672E-3	64.5571E-12	734.347E-3	-28.7980E-3
1.77339E-3	65.4217E-12	729.276E-3	1.73825E-3	64.1388E-12	735.583E-3	-23.9396E-3
1.76838E-3	64.6553E-12	723.356E-3	3.89464E-3	64.0037E-12	749.570E-3	-16.5937E-3
1.76338E-3	64.7589E-12	730.202E-3	-13.7079E-3	63.8975E-12	756.446E-3	-11.4874E-3
1.75838E-3	64.9040E-12	754.065E-3	-28.9899E-3	63.6767E-12	751.573E-3	-151.271E-6
1.75338E-3	64.2380E-12	762.196E-3	-32.5439E-3	64.1306E-12	753.835E-3	1.94320E-3
1.74837E-3	63.3873E-12	756.479E-3	-37.0983E-3	63.8612E-12	762.033E-3	-9.05117E-3
1.74337E-3	63.4528E-12	764.035E-3	-31.5694E-3	63.9489E-12	766.681E-3	-15.6951E-3
1.73837E-3	63.0596E-12	765.030E-3	-17.0995E-3	64.1636E-12	770.070E-3	-19.7800E-3
1.73337E-3	62.5744E-12	752.807E-3	-13.5555E-3	63.6746E-12	778.018E-3	-29.5877E-3
1.72836E-3	62.3654E-12	750.019E-3	-16.9018E-3	63.7242E-12	781.623E-3	-39.1293E-3
1.72336E-3	62.0549E-12	749.086E-3	-14.5458E-3	63.7991E-12	780.926E-3	-36.6583E-3
1.71836E-3	61.7661E-12	744.049E-3	-13.4639E-3	63.3625E-12	781.201E-3	-24.8935E-3
1.71336E-3	61.7357E-12	747.342E-3	-18.3384E-3	62.8205E-12	775.029E-3	-11.8196E-3
1.70835E-3	61.5155E-12	752.512E-3	-12.5601E-3	62.6711E-12	771.031E-3	2.00897E-3
1.70335E-3	61.1987E-12	745.320E-3	-7.00366E-3	62.0491E-12	770.660E-3	2.48803E-3
1.69835E-3	60.9436E-12	744.483E-3	-17.4351E-3	61.3591E-12	765.291E-3	-4.50943E-3
1.69335E-3	61.0878E-12	758.836E-3	-22.1904E-3	60.8605E-12	763.027E-3	-7.55365E-3
1.68834E-3	60.8453E-12	750.744E-3	-20.6476E-3	60.4501E-12	761.164E-3	-14.8050E-3
1.68334E-3	61.2105E-12	737.341E-3	-26.8661E-3	59.8112E-12	757.894E-3	-14.6920E-3
1.67834E-3	60.9079E-12	756.104E-3	-28.4073E-3	59.4126E-12	769.565E-3	-12.4598E-3
1.67334E-3	60.6771E-12	770.906E-3	-20.6768E-3	59.2885E-12	790.032E-3	-17.4518E-3
1.66833E-3	60.3411E-12	771.946E-3	-15.1021E-3	59.0752E-12	809.942E-3	-7.22395E-3
1.66333E-3	60.4421E-12	783.660E-3	-3.73560E-3	58.4657E-12	824.613E-3	863.404E-6
1.65833E-3	60.3844E-12	801.210E-3	13.2870E-3	58.8792E-12	814.079E-3	-8.47163E-3
1.65333E-3	59.6086E-12	813.106E-3	4.10957E-3	58.6239E-12	790.109E-3	-12.1058E-3
1.64832E-3	59.1710E-12	815.828E-3	-19.5559E-3	58.6027E-12	786.327E-3	-13.7094E-3
1.64332E-3	59.3951E-12	808.944E-3	-18.0620E-3	58.5217E-12	791.131E-3	-14.1486E-3
1.63832E-3	58.8420E-12	812.166E-3	1.07970E-3	58.2574E-12	791.217E-3	-8.36048E-3
1.63332E-3	57.9422E-12	826.931E-3	2.32542E-3	58.2699E-12	791.320E-3	-12.8677E-3
1.62831E-3	57.9139E-12	833.634E-3	-8.64533E-3	58.0665E-12	787.287E-3	-25.6882E-3
1.62331E-3	57.4694E-12	823.751E-3	-12.0344E-3	58.0803E-12	794.946E-3	-36.0777E-3
1.61831E-3	56.8192E-12	800.178E-3	-3.44092E-3	57.2654E-12	808.642E-3	-37.0139E-3
1.61331E-3	56.7413E-12	782.621E-3	7.76969E-3	57.0157E-12	808.003E-3	-32.8816E-3
1.60830E-3	56.2547E-12	786.264E-3	-2.54741E-3	56.7683E-12	803.343E-3	-34.7443E-3
1.60330E-3	56.0283E-12	804.255E-3	-18.5836E-3	56.0546E-12	801.178E-3	-27.8212E-3
1.59830E-3	55.5750E-12	820.046E-3	-22.7007E-3	55.6288E-12	806.611E-3	-14.5801E-3
1.59330E-3	55.3133E-12	820.005E-3	-23.4108E-3	55.3510E-12	813.654E-3	-4.70015E-3
1.58829E-3	55.0013E-12	805.971E-3	-27.6404E-3	54.7706E-12	811.637E-3	2.66627E-3
1.58329E-3	55.0036E-12	802.465E-3	-30.2991E-3	54.4781E-12	805.184E-3	-10.0905E-3
1.57829E-3	54.6285E-12	809.766E-3	-24.4486E-3	53.7716E-12	801.267E-3	-29.3352E-3
1.57329E-3	54.7550E-12	811.644E-3	-25.2384E-3	53.8509E-12	801.865E-3	-35.2249E-3
1.56828E-3	54.5192E-12	815.516E-3	-28.5276E-3	53.7430E-12	811.230E-3	-28.8663E-3
1.56328E-3	53.9089E-12	822.814E-3	-18.8353E-3	53.3642E-12	827.798E-3	-12.3331E-3
1.55828E-3	53.7800E-12	827.240E-3	-10.9570E-3	53.1961E-12	829.702E-3	-2.58058E-3
1.55328E-3	53.4679E-12	825.204E-3	-17.3265E-3	53.3267E-12	822.591E-3	-12.0845E-3
1.54827E-3	53.5300E-12	819.609E-3	-24.4111E-3	53.3652E-12	828.296E-3	-28.9337E-3
1.54327E-3	53.0679E-12	815.825E-3	-25.3738E-3	52.9055E-12	836.664E-3	-23.2037E-3
1.53827E-3	52.2783E-12	816.948E-3	-28.1806E-3	52.7941E-12	832.803E-3	-9.76786E-3
1.53327E-3	52.1213E-12	820.775E-3	-23.7641E-3	52.9181E-12	820.491E-3	-7.07100E-3
1.52826E-3	52.0012E-12	824.802E-3	-14.2732E-3	52.6145E-12	814.204E-3	-7.21199E-3
1.52326E-3	51.1328E-12	828.233E-3	-11.3145E-3	51.6816E-12	822.320E-3	-16.7403E-3
1.51826E-3	50.4316E-12	823.214E-3	-10.1316E-3	51.5748E-12	834.291E-3	-28.0472E-3
1.51326E-3	50.3039E-12	817.472E-3	-14.6991E-3	51.4352E-12	838.356E-3	-25.6892E-3
1.50825E-3	50.1103E-12	823.648E-3	-27.0660E-3	50.6342E-12	840.230E-3	-13.9638E-3
1.50325E-3	49.7095E-12	834.757E-3	-34.1408E-3	50.2023E-12	833.741E-3	-17.6428E-3
1.49825E-3	49.3823E-12	834.625E-3	-26.3953E-3	49.9981E-12	817.960E-3	-25.8400E-3
1.49325E-3	49.3913E-12	829.226E-3	-19.1292E-3	49.8025E-12	820.283E-3	-22.4665E-3
1.48824E-3	49.2332E-12	825.376E-3	-28.0938E-3	49.3468E-12	830.800E-3	-27.2900E-3
1.48324E-3	49.1150E-12	826.894E-3	-28.8138E-3	48.9081E-12	820.572E-3	-30.9553E-3
1.47824E-3	48.9584E-12	834.915E-3	-18.2237E-3	48.8188E-12	806.718E-3	-28.5132E-3
1.47324E-3	48.7588E-12	832.170E-3	-17.6539E-3	48.4531E-12	810.841E-3	-30.2810E-3
1.46823E-3	48.7674E-12	821.196E-3	-29.1633E-3	48.1589E-12	817.781E-3	-27.0655E-3
1.46323E-3	48.6750E-12	834.981E-3	-30.1325E-3	47.9325E-12	822.439E-3	-16.8132E-3
1.45823E-3	48.6037E-12	858.795E-3	-18.3852E-3	47.8368E-12	828.939E-3	-9.61373E-3
1.45323E-3	48.3044E-12	853.080E-3	-16.1204E-3	47.9867E-12	818.692E-3	-14.6296E-3
1.44822E-3	48.2304E-12	848.227E-3	-20.0894E-3	47.5558E-12	807.386E-3	-17.0772E-3
1.44322E-3	47.6338E-12	857.543E-3	-18.8205E-3	46.9574E-12	816.547E-3	-11.6143E-3
1.43822E-3	47.4466E-12	853.740E-3	-16.4780E-3	47.1140E-12	822.508E-3	-11.3796E-3
1.43322E-3	47.2961E-12	850.040E-3	-16.8542E-3	47.0086E-12	824.143E-3	-4.13324E-3
1.42821E-3	46.9782E-12	851.629E-3	-11.5000E-3	46.7595E-12	827.616E-3	-602.591E-6
1.42321E-3	46.2627E-12	845.147E-3	-16.3701E-3	46.2063E-12	819.827E-3	-13.7356E-3
1.41821E-3	46.2306E-12	837.648E-3	-38.4745E-3	46.1341E-12	822.071E-3	-16.7160E-3
1.41321E-3	46.2305E-12	828.619E-3	-43.4543E-3	45.9730E-12	831.659E-3	-16.3091E-3
1.40820E-3	45.4884E-12	832.641E-3	-35.6282E-3	45.5533E-12	813.917E-3	-19.8625E-3
1.40320E-3	44.9582E-12	845.618E-3	-40.1711E-3	45.0629E-12	793.523E-3	-14.3176E-3
1.39820E-3	45.0278E-12	842.008E-3	-40.2302E-3	45.2752E-12	798.282E-3	-12.7589E-3
1.39320E-3	44.7565E-12	831.675E-3	-25.7075E-3	45.1500E-12	795.158E-3	-22.3461E-3
1.38819E-3	44.0962E-12	813.665E-3	-12.7112E-3	44.1830E-12	776.162E-3	-16.5490E-3
1.38319E-3	44.2310E-12	787.044E-3	-13.7910E-3	44.1218E-12	768.877E-3	2.02485E-3
1.37819E-3	44.0634E-12	781.970E-3	-26.7358E-3	44.2556E-12	767.989E-3	-4.84367E-3
1.37319E-3	43.7591E-12	800.487E-3	-44.0010E-3	43.8468E-12	769.831E-3	-20.9788E-3
1.36818E-3	43.5331E-12	808.159E-3	-43.5141E-3	43.0557E-12	779.331E-3	-18.6961E-3
1.36318E-3	43.4392E-12	798.496E-3	-32.5294E-3	43.1302E-12	774.201E-3	-9.77264E-3
1.35818E-3	42.9295E-12	784.206E-3	-29.4705E-3	43.0900E-12	759.679E-3	-3.71295E-3
1.35318E-3	42.8530E-12	774.557E-3	-19.5062E-3	42.6406E-12	755.659E-3	-5.66575E-3
1.34817E-3	42.7044E-12	772.795E-3	-10.9020E-3	42.1818E-12	740.756E-3	-11.2783E-3
1.34317E-3	42.1963E-12	765.279E-3	-20.0186E-3	42.4268E-12	718.694E-3	-10.2347E-3
1.33817E-3	41.9084E-12	754.222E-3	-24.7754E-3	42.2797E-12	714.834E-3	-16.8188E-3
1.33317E-3	41.7519E-12	751.905E-3	-20.5200E-3	41.9713E-12	717.608E-3	-27.3337E-3
1.32816E-3	41.4785E-12	747.175E-3	-27.9764E-3	41.5672E-12	712.554E-3	-28.5239E-3
1.32316E-3	41.1383E-12	739.513E-3	-28.7300E-3	41.3657E-12	706.644E-3	-33.3014E-3
1.31816E-3	40.9016E-12	742.484E-3	-17.9980E-3	41.5663E-12	708.565E-3	-43.5510E-3
1.31316E-3	40.4253E-12	739.767E-3	-11.8244E-3	41.5021E-12	703.658E-3	-36.5951E-3
1.30815E-3	40.0041E-12	722.868E-3	-9.39786E-3	40.7607E-12	686.661E-3	-11.6796E-3
1.30315E-3	39.8105E-12	701.300E-3	-10.4076E-3	40.7038E-12	675.530E-3	-15.6170E-3
1.29815E-3	39.6131E-12	682.194E-3	-9.69370E-3	40.7487E-12	668.341E-3	-28.2885E-3
1.29315E-3	39.4657E-12	672.307E-3	-10.4740E-3	40.3161E-12	656.291E-3	-9.79810E-3
1.28814E-3	39.0704E-12	660.387E-3	-15.6218E-3	39.7570E-12	640.856E-3	-4.64706E-3
1.28314E-3	38.8166E-12	645.323E-3	-23.7771E-3	39.6727E-12	617.847E-3	-17.8613E-3
1.27814E-3	38.9658E-12	637.442E-3	-27.9838E-3	39.5452E-12	603.316E-3	-18.4872E-3
1.27314E-3	38.5339E-12	631.609E-3	-15.5586E-3	38.7991E-12	602.256E-3	-17.5090E-3
1.26813E-3	38.2037E-12	623.116E-3	-2.58423E-3	38.3760E-12	593.994E-3	-27.8027E-3
1.26313E-3	38.3149E-12	616.685E-3	-8.35884E-3	38.1709E-12	583.275E-3	-29.0732E-3
1.25813E-3	38.3654E-12	608.777E-3	-16.1307E-3	37.9965E-12	574.452E-3	-15.3198E-3
1.25313E-3	37.7952E-12	597.345E-3	-15.7791E-3	37.2404E-12	550.857E-3	-8.37983E-3
1.24812E-3	37.7979E-12	590.274E-3	-18.1293E-3	37.0782E-12	524.132E-3	-7.40744E-3
1.24312E-3	38.1023E-12	581.258E-3	-18.5877E-3	37.1543E-12	517.785E-3	-7.34374E-3
1.23812E-3	38.0786E-12	560.377E-3	-12.2416E-3	36.9351E-12	513.078E-3	-11.6188E-3
1.23312E-3	37.6126E-12	539.652E-3	-20.0748E-3	36.5563E-12	495.103E-3	-14.3666E-3
1.22811E-3	37.5867E-12	540.598E-3	-29.9383E-3	36.5940E-12	488.034E-3	-14.7704E-3
1.22311E-3	37.3950E-12	551.252E-3	-26.1227E-3	36.8311E-12	492.638E-3	-23.2737E-3
1.21811E-3	37.1997E-12	547.157E-3	-29.4154E-3	36.4645E-12	492.918E-3	-29.0447E-3
1.21311E-3	37.0674E-12	530.028E-3	-33.4026E-3	36.4113E-12	486.883E-3	-18.9135E-3
1.20810E-3	36.7854E-12	514.467E-3	-29.4497E-3	36.0443E-12	472.733E-3	-12.3012E-3
1.20310E-3	36.5536E-12	505.357E-3	-24.9756E-3	36.1355E-12	453.864E-3	-13.2020E-3
1.19810E-3	36.3134E-12	494.734E-3	-19.7348E-3	36.2211E-12	441.290E-3	-8.25819E-3
1.19310E-3	36.0491E-12	481.267E-3	-17.2464E-3	35.6663E-12	435.629E-3	-10.2476E-3
1.18809E-3	35.8708E-12	466.398E-3	-23.0289E-3	35.5043E-12	422.810E-3	-8.10735E-3
1.18309E-3	35.9313E-12	449.629E-3	-22.3810E-3	35.4115E-12	415.246E-3	8.95951E-3
1.17809E-3	35.7274E-12	435.441E-3	-3.83414E-3	35.0666E-12	418.753E-3	4.74290E-3
1.17309E-3	35.1559E-12	426.092E-3	199.811E-6	34.6198E-12	408.265E-3	-1.49124E-3
1.16808E-3	35.6278E-12	422.449E-3	-11.7701E-3	34.8926E-12	388.829E-3	1.70183E-3
1.16308E-3	35.5961E-12	418.804E-3	-11.2609E-3	34.7667E-12	378.510E-3	-15.7718E-3
1.15808E-3	35.0627E-12	413.832E-3	-8.81819E-3	34.1866E-12	365.128E-3	-27.6548E-3
1.15308E-3	35.0041E-12	413.315E-3	-6.01141E-3	34.3078E-12	350.468E-3	-16.6712E-3
1.14807E-3	35.3167E-12	406.281E-3	-3.26456E-3	34.3248E-12	351.285E-3	-7.73302E-3
1.14307E-3	34.9218E-12	387.358E-3	-9.65063E-3	34.1369E-12	349.489E-3	-9.05957E-3
1.13807E-3	34.4231E-12	376.999E-3	-8.37939E-3	33.9213E-12	340.165E-3	-14.8335E-3
1.13307E-3	34.5442E-12	379.451E-3	612.645E-6	34.1669E-12	333.988E-3	-26.3008E-3
1.12806E-3	34.3854E-12	361.114E-3	-5.12223E-3	34.1958E-12	320.476E-3	-25.5426E-3
1.12306E-3	34.0108E-12	336.116E-3	-23.2467E-3	34.1970E-12	311.629E-3	-20.1182E-3
1.11806E-3	34.0298E-12	336.742E-3	-31.1476E-3	34.1976E-12	311.211E-3	-33.3371E-3
1.11306E-3	33.7441E-12	335.090E-3	-29.5202E-3	33.9312E-12	293.699E-3	-34.9244E-3
1.10805E-3	33.2117E-12	320.231E-3	-37.4810E-3	34.0893E-12	275.335E-3	-21.4790E-3
1.10305E-3	33.1951E-12	317.208E-3	-32.6333E-3	34.0121E-12	281.832E-3	-20.7497E-3
1.09805E-3	32.9169E-12	319.122E-3	-15.5182E-3	33.8312E-12	289.312E-3	-25.5984E-3
1.09305E-3	32.6707E-12	309.382E-3	-11.2083E-3	33.8382E-12	277.500E-3	-28.9838E-3
1.08804E-3	32.8635E-12	297.429E-3	-7.33081E-3	33.7906E-12	259.544E-3	-24.9445E-3
1.08304E-3	32.6150E-12	291.865E-3	2.02947E-3	33.5712E-12	251.670E-3	-4.50719E-3
1.07804E-3	32.4117E-12	290.175E-3	5.83765E-3	33.5333E-12	250.194E-3	10.9531E-3
1.07304E-3	32.7591E-12	279.570E-3	-4.86391E-3	33.0837E-12	253.566E-3	-3.36483E-3
1.06803E-3	32.4905E-12	258.558E-3	-15.6013E-3	32.8947E-12	254.404E-3	-29.3696E-3
1.06303E-3	32.2382E-12	253.693E-3	-19.0505E-3	33.0872E-12	250.408E-3	-26.7733E-3
1.05803E-3	32.3701E-12	269.372E-3	-17.9215E-3	32.6431E-12	251.496E-3	-5.79763E-3
1.05303E-3	32.5658E-12	274.087E-3	-8.28785E-3	32.3911E-12	247.276E-3	1.53357E-3
1.04802E-3	32.2002E-12	266.585E-3	-5.32928E-3	32.8062E-12	236.424E-3	-3.81560E-3
1.04302E-3	32.4300E-12	266.846E-3	-17.8252E-3	32.6167E-12	240.527E-3	-11.8626E-3
1.03802E-3	32.1966E-12	260.786E-3	-30.1072E-3	32.1604E-12	250.073E-3	-12.9578E-3
1.03302E-3	32.1624E-12	235.037E-3	-33.5572E-3	32.2606E-12	242.180E-3	-10.1341E-3
1.02801E-3	32.0031E-12	224.491E-3	-30.4713E-3	32.4569E-12	232.423E-3	-12.0515E-3
1.02301E-3	31.7507E-12	239.334E-3	-29.9703E-3	32.0309E-12	224.912E-3	-19.5615E-3
1.01801E-3	31.5514E-12	251.303E-3	-31.9922E-3	31.7518E-12	217.134E-3	-25.8521E-3
1.01301E-3	31.6558E-12	252.482E-3	-29.2490E-3	32.0955E-12	228.867E-3	-24.3481E-3
1.00800E-3	31.4885E-12	238.990E-3	-18.2492E-3	31.7858E-12	255.024E-3	-22.2372E-3
1.00300E-3	31.2278E-12	217.712E-3	-8.60449E-3	31.5499E-12	266.156E-3	-16.7315E-3
997.999E-6	31.4474E-12	216.409E-3	-10.5020E-3	31.3247E-12	258.494E-3	-9.65365E-3
992.997E-6	31.2471E-12	234.189E-3	-12.7127E-3	31.6552E-12	255.018E-3	-19.2373E-3
987.994E-6	30.9472E-12	242.989E-3	-24.1570E-3	31.3071E-12	261.642E-3	-23.7522E-3
982.991E-6	30.9746E-12	237.852E-3	-38.0020E-3	30.8425E-12	266.913E-3	-6.56237E-3
977.989E-6	31.0863E-12	233.351E-3	-26.2990E-3	31.1233E-12	270.348E-3	-3.49817E-3
972.986E-6	31.0286E-12	233.180E-3	-5.27850E-3	31.0149E-12	268.771E-3	-5.13270E-3
967.984E-6	30.9051E-12	238.304E-3	-9.68748E-3	30.6170E-12	261.762E-3	13.5818E-3
962.981E-6	30.9205E-12	245.994E-3	-26.5059E-3	30.4335E-12	263.059E-3	17.3763E-3
957.979E-6	31.1128E-12	245.857E-3	-31.7156E-3	30.3947E-12	268.761E-3	1.35924E-3
952.976E-6	31.1127E-12	243.455E-3	-30.6221E-3	30.2380E-12	273.738E-3	-13.1294E-3
947.974E-6	30.5049E-12	256.513E-3	-23.1196E-3	30.2723E-12	285.522E-3	-24.9030E-3
942.971E-6	30.6882E-12	264.602E-3	-8.51004E-3	30.2255E-12	292.688E-3	-32.6481E-3
937.969E-6	30.9294E-12	254.805E-3	-614.066E-6	29.9614E-12	302.580E-3	-33.3989E-3
932.966E-6	30.8930E-12	261.525E-3	-8.35015E-3	30.1847E-12	316.778E-3	-35.8250E-3
927.964E-6	30.3409E-12	281.781E-3	-24.2629E-3	30.0140E-12	307.570E-3	-37.8682E-3
922.961E-6	30.5667E-12	289.048E-3	-29.9302E-3	29.8127E-12	292.798E-3	-15.4365E-3
917.959E-6	30.5913E-12	290.155E-3	-20.1607E-3	29.7732E-12	307.193E-3	9.14208E-3
912.956E-6	30.3051E-12	296.343E-3	-4.85156E-3	29.7876E-12	334.407E-3	1.40039E-3
907.954E-6	29.9319E-12	309.399E-3	-178.214E-6	29.8073E-12	345.326E-3	-12.9409E-3
902.951E-6	29.9763E-12	323.910E-3	-10.1310E-3	29.5542E-12	349.264E-3	-13.1429E-3
897.949E-6	29.7238E-12	327.445E-3	-17.1985E-3	29.5958E-12	360.564E-3	-9.04248E-3
892.946E-6	29.6080E-12	332.049E-3	-11.7321E-3	29.4453E-12	373.563E-3	-3.78661E-3
887.944E-6	29.4412E-12	342.156E-3	596.226E-6	29.5017E-12	385.933E-3	-9.44693E-3
882.941E-6	29.2923E-12	350.778E-3	5.00051E-3	29.3033E-12	398.777E-3	-27.6932E-3
877.939E-6	29.0540E-12	364.717E-3	1.30643E-3	29.2977E-12	404.721E-3	-27.3905E-3
872.936E-6	29.1203E-12	377.096E-3	-5.63696E-3	29.4185E-12	408.974E-3	-16.1262E-3
867.934E-6	28.8092E-12	380.977E-3	-14.5672E-3	28.9691E-12	420.804E-3	-20.9170E-3
862.931E-6	28.5199E-12	387.328E-3	-11.6503E-3	28.8347E-12	439.059E-3	-22.1447E-3
857.929E-6	28.3350E-12	402.269E-3	-4.43686E-3	28.9977E-12	456.561E-3	-9.53053E-3
852.926E-6	28.2894E-12	415.871E-3	-6.52692E-3	28.8771E-12	463.372E-3	-7.89068E-3
847.924E-6	28.1676E-12	421.444E-3	-19.1590E-3	28.4644E-12	465.657E-3	-15.8620E-3
842.921E-6	28.2177E-12	427.439E-3	-29.7436E-3	28.1138E-12	480.423E-3	-13.9848E-3
837.919E-6	28.1488E-12	432.763E-3	-22.0734E-3	28.2777E-12	499.564E-3	-15.1900E-3
832.916E-6	27.9956E-12	441.854E-3	-14.1808E-3	28.0019E-12	505.166E-3	-26.3685E-3
827.914E-6	27.7127E-12	462.375E-3	-14.9363E-3	27.7601E-12	510.697E-3	-34.5782E-3
822.911E-6	27.6614E-12	487.048E-3	-12.3134E-3	27.5115E-12	533.755E-3	-42.7417E-3
817.909E-6	27.5983E-12	506.969E-3	-20.2765E-3	27.3176E-12	548.305E-3	-43.7436E-3
812.906E-6	27.2000E-12	514.466E-3	-31.7144E-3	27.4171E-12	555.391E-3	-26.2176E-3
807.904E-6	26.7964E-12	518.911E-3	-22.9969E-3	27.1355E-12	577.796E-3	-6.14472E-3
802.901E-6	27.0009E-12	522.669E-3	-17.5777E-3	26.8814E-12	591.956E-3	-137.512E-6
797.899E-6	26.9018E-12	527.469E-3	-20.3402E-3	26.8151E-12	595.316E-3	-6.84005E-3
792.896E-6	26.1316E-12	544.226E-3	-21.3564E-3	26.6211E-12	603.781E-3	-18.5994E-3
787.894E-6	26.1738E-12	562.993E-3	-24.0801E-3	26.3504E-12	608.146E-3	-26.7097E-3
782.891E-6	26.1430E-12	579.754E-3	-18.0540E-3	26.3257E-12	619.137E-3	-18.5489E-3
777.889E-6	25.5930E-12	596.378E-3	-14.1041E-3	26.2158E-12	647.868E-3	-9.28094E-3
772.886E-6	25.2253E-12	602.770E-3	-15.2155E-3	25.8354E-12	664.822E-3	-23.3066E-3
767.884E-6	25.0159E-12	604.185E-3	-14.6708E-3	25.4827E-12	655.568E-3	-40.7168E-3
762.881E-6	24.7683E-12	603.642E-3	-10.3229E-3	25.4443E-12	652.416E-3	-37.0941E-3
757.879E-6	24.6440E-12	598.219E-3	-3.52443E-3	25.1226E-12	666.954E-3	-18.9876E-3
752.876E-6	24.4138E-12	608.375E-3	-1.40802E-3	24.6731E-12	677.606E-3	-689.540E-6
747.874E-6	23.9772E-12	634.625E-3	2.96439E-3	24.2536E-12	690.013E-3	5.57904E-3
742.871E-6	23.7953E-12	652.539E-3	3.41735E-3	24.3830E-12	711.278E-3	-9.81383E-3
737.869E-6	23.7090E-12	663.180E-3	-4.14304E-3	23.8785E-12	728.326E-3	-23.1288E-3
732.866E-6	23.5092E-12	686.429E-3	-11.0025E-3	23.3223E-12	741.836E-3	-13.9800E-3
727.864E-6	23.2273E-12	706.640E-3	-17.1800E-3	23.2957E-12	748.865E-3	-10.0600E-3
722.861E-6	23.2723E-12	706.190E-3	-23.7035E-3	23.3281E-12	746.293E-3	-13.7583E-3
717.859E-6	22.8601E-12	711.640E-3	-21.7269E-3	22.8673E-12	756.753E-3	-18.4368E-3
712.856E-6	22.5028E-12	717.814E-3	-4.70446E-3	22.4784E-12	775.724E-3	-28.6918E-3
707.854E-6	22.5064E-12	716.343E-3	-227.470E-6	22.3179E-12	783.545E-3	-36.5240E-3
702.851E-6	22.4028E-12	730.228E-3	-13.2750E-3	22.2699E-12	792.057E-3	-34.1060E-3
697.849E-6	21.5519E-12	749.395E-3	-13.8406E-3	21.9730E-12	803.823E-3	-27.2215E-3
692.846E-6	21.4321E-12	761.082E-3	-15.4458E-3	21.5284E-12	800.869E-3	-21.0652E-3
687.844E-6	21.3806E-12	769.932E-3	-27.5114E-3	21.3775E-12	798.756E-3	-13.4432E-3
682.841E-6	20.9852E-12	774.100E-3	-21.6968E-3	21.3648E-12	820.362E-3	-16.0120E-3
677.839E-6	20.4814E-12	778.118E-3	-9.06632E-3	20.9567E-12	838.771E-3	-26.9552E-3
672.836E-6	20.3199E-12	781.560E-3	-11.7047E-3	20.4440E-12	836.173E-3	-24.8421E-3
667.834E-6	20.2261E-12	791.800E-3	-11.8016E-3	20.2756E-12	842.239E-3	-15.4494E-3
662.831E-6	19.9233E-12	811.967E-3	-9.59691E-3	20.1117E-12	856.895E-3	-11.9741E-3
657.829E-6	19.6121E-12	822.506E-3	-11.7126E-3	19.5066E-12	859.194E-3	-8.64793E-3
652.826E-6	19.3043E-12	821.881E-3	-11.9936E-3	19.1346E-12	863.975E-3	-8.82717E-3
647.824E-6	19.2957E-12	826.828E-3	-16.0209E-3	19.1503E-12	871.434E-3	-20.6403E-3
642.821E-6	19.1277E-12	837.325E-3	-19.6255E-3	18.8178E-12	869.571E-3	-28.8009E-3
637.819E-6	18.8157E-12	857.575E-3	-26.8615E-3	18.4202E-12	873.637E-3	-24.6505E-3
632.816E-6	18.5821E-12	881.133E-3	-39.0223E-3	18.0646E-12	880.872E-3	-23.4152E-3
627.814E-6	18.5631E-12	890.630E-3	-38.9689E-3	17.9295E-12	874.230E-3	-15.5969E-3
622.811E-6	18.3456E-12	894.004E-3	-30.6948E-3	17.6176E-12	879.435E-3	-3.99225E-3
617.809E-6	17.7925E-12	897.921E-3	-24.7727E-3	17.2744E-12	906.102E-3	-5.01370E-3
612.806E-6	17.6777E-12	904.122E-3	-21.1902E-3	16.9350E-12	923.463E-3	-15.6872E-3
607.804E-6	17.6141E-12	910.206E-3	-16.0467E-3	16.9163E-12	921.368E-3	-28.2153E-3
602.801E-6	17.0136E-12	915.064E-3	-10.8840E-3	16.7534E-12	909.471E-3	-27.0687E-3
597.799E-6	16.6168E-12	920.314E-3	-14.3878E-3	16.2808E-12	901.692E-3	-14.2636E-3
592.796E-6	16.6259E-12	916.528E-3	-17.9066E-3	16.0205E-12	916.480E-3	-8.89343E-3
587.794E-6	16.1355E-12	919.185E-3	-20.1048E-3	15.9512E-12	940.769E-3	-18.3321E-3
582.791E-6	15.5243E-12	931.721E-3	-19.2253E-3	15.7193E-12	935.023E-3	-21.7397E-3
577.789E-6	15.3384E-12	930.154E-3	-15.0010E-3	15.3138E-12	917.492E-3	-10.6953E-3
572.786E-6	15.2479E-12	921.325E-3	-18.3968E-3	14.8979E-12	912.461E-3	-10.8820E-3
567.784E-6	14.8607E-12	914.526E-3	-20.5791E-3	14.6800E-12	905.717E-3	-22.9765E-3
562.781E-6	14.2757E-12	911.540E-3	-23.0679E-3	14.4996E-12	906.242E-3	-25.3311E-3
557.779E-6	13.9098E-12	909.548E-3	-25.9400E-3	13.9693E-12	912.402E-3	-15.0990E-3
552.776E-6	13.7849E-12	905.028E-3	-29.3604E-3	13.6264E-12	904.611E-3	-8.12030E-3
547.774E-6	13.5604E-12	907.828E-3	-34.2093E-3	13.7299E-12	895.331E-3	-6.80506E-3
542.771E-6	13.0620E-12	907.660E-3	-25.7575E-3	13.2126E-12	898.635E-3	-7.47016E-3
537.769E-6	12.7584E-12	902.466E-3	1.09814E-3	12.6374E-12	895.080E-3	-7.42203E-3
532.766E-6	12.5905E-12	904.551E-3	19.7689E-3	12.7117E-12	891.483E-3	-1.19697E-3
527.764E-6	12.3570E-12	908.067E-3	6.35332E-3	12.4881E-12	885.411E-3	4.33251E-3
522.761E-6	12.0233E-12	907.866E-3	-12.4032E-3	11.9150E-12	847.786E-3	873.230E-6
517.759E-6	11.4188E-12	904.032E-3	-14.3094E-3	11.7217E-12	827.834E-3	-9.38501E-3
512.756E-6	11.3473E-12	892.296E-3	-9.02776E-3	11.4650E-12	850.622E-3	-21.3681E-3
507.754E-6	11.1237E-12	873.795E-3	-10.3351E-3	11.1936E-12	858.744E-3	-30.5718E-3
502.751E-6	10.6382E-12	855.468E-3	-24.5005E-3	10.8468E-12	844.990E-3	-29.6381E-3
497.749E-6	10.2865E-12	850.611E-3	-27.7652E-3	10.5366E-12	833.896E-3	-22.0246E-3
492.746E-6	10.1727E-12	860.138E-3	-19.7489E-3	10.3840E-12	818.460E-3	-20.7037E-3
487.744E-6	9.78344E-12	855.577E-3	-24.4004E-3	10.1624E-12	807.183E-3	-22.6997E-3
482.741E-6	9.38111E-12	832.187E-3	-20.5591E-3	9.69609E-12	808.131E-3	-24.8155E-3
477.739E-6	9.25159E-12	798.712E-3	-8.62427E-3	9.43914E-12	792.164E-3	-32.4565E-3
472.736E-6	9.11324E-12	766.913E-3	-6.69984E-3	9.38938E-12	762.083E-3	-29.7541E-3
467.734E-6	8.66350E-12	757.974E-3	1.34609E-3	9.07955E-12	744.788E-3	-21.1029E-3
462.731E-6	8.27119E-12	761.012E-3	6.98116E-3	8.58604E-12	736.285E-3	-26.9270E-3
457.729E-6	8.27156E-12	754.744E-3	-6.46879E-3	8.33200E-12	727.747E-3	-32.1068E-3
452.726E-6	8.15464E-12	739.635E-3	-21.0329E-3	8.33245E-12	719.400E-3	-24.1666E-3
447.724E-6	7.69790E-12	731.800E-3	-18.6763E-3	7.96590E-12	703.629E-3	-15.0603E-3
442.721E-6	7.38439E-12	731.691E-3	-16.7039E-3	7.60078E-12	673.788E-3	-6.95851E-3
437.719E-6	7.39437E-12	729.386E-3	-20.6042E-3	7.45381E-12	659.424E-3	-6.40754E-3
432.716E-6	7.27681E-12	716.172E-3	-17.6880E-3	7.28797E-12	663.205E-3	-16.4053E-3
427.714E-6	6.79693E-12	694.706E-3	-8.68675E-3	6.94427E-12	650.045E-3	-18.2535E-3
422.711E-6	6.53044E-12	676.007E-3	-6.55904E-3	6.53900E-12	632.743E-3	-8.91207E-3
417.709E-6	6.53846E-12	664.851E-3	-12.6977E-3	6.40971E-12	619.308E-3	-11.7611E-3
412.706E-6	6.47115E-12	663.912E-3	-13.4865E-3	6.36686E-12	597.254E-3	-24.3683E-3
407.704E-6	6.04703E-12	662.941E-3	-12.3347E-3	6.09227E-12	587.907E-3	-13.7374E-3
402.701E-6	5.73484E-12	650.207E-3	-15.5346E-3	5.73933E-12	582.361E-3	-174.229E-6
397.699E-6	5.80271E-12	623.741E-3	-15.5094E-3	5.66408E-12	562.191E-3	-10.6541E-3
392.696E-6	5.66695E-12	601.264E-3	-14.9719E-3	5.54942E-12	542.210E-3	-17.9547E-3
387.694E-6	5.29520E-12	601.645E-3	-21.0796E-3	5.19216E-12	532.031E-3	-13.1150E-3
382.691E-6	5.13652E-12	598.215E-3	-29.1329E-3	4.98147E-12	520.753E-3	-16.9831E-3
377.689E-6	5.09627E-12	576.078E-3	-35.3496E-3	4.96358E-12	501.629E-3	-26.7857E-3
372.686E-6	4.82792E-12	560.586E-3	-32.1467E-3	4.86953E-12	491.919E-3	-23.4481E-3
367.684E-6	4.56316E-12	559.950E-3	-22.4793E-3	4.45052E-12	478.359E-3	-12.2833E-3
362.681E-6	4.50301E-12	552.102E-3	-12.3650E-3	4.22757E-12	457.031E-3	-8.64323E-3
357.679E-6	4.39716E-12	521.642E-3	-10.5825E-3	4.34870E-12	447.576E-3	-11.0005E-3
352.676E-6	4.07704E-12	487.288E-3	-19.0460E-3	4.14504E-12	434.236E-3	-15.7838E-3
347.674E-6	3.84701E-12	470.387E-3	-24.9534E-3	3.83359E-12	421.464E-3	-9.83301E-3
342.671E-6	3.91634E-12	458.109E-3	-32.1477E-3	3.64945E-12	417.643E-3	-2.59136E-3
337.669E-6	3.79672E-12	442.864E-3	-26.8312E-3	3.69539E-12	394.495E-3	-11.8621E-3
332.666E-6	3.43823E-12	438.173E-3	-16.6039E-3	3.54364E-12	364.310E-3	-18.1588E-3
327.664E-6	3.23075E-12	438.454E-3	-23.1662E-3	3.21716E-12	365.031E-3	-14.4227E-3
322.661E-6	3.31854E-12	431.735E-3	-25.4549E-3	3.05403E-12	364.399E-3	-11.6606E-3
317.659E-6	3.29884E-12	430.648E-3	-15.6487E-3	3.08814E-12	342.532E-3	-5.51838E-3
312.656E-6	2.85764E-12	426.664E-3	-13.5425E-3	2.95507E-12	327.011E-3	-1.63676E-3
307.654E-6	2.68536E-12	409.399E-3	-16.0853E-3	2.66474E-12	320.600E-3	-11.2862E-3
302.651E-6	2.85175E-12	391.970E-3	-14.4211E-3	2.63181E-12	317.289E-3	-13.8034E-3
297.649E-6	2.79080E-12	366.087E-3	-14.8024E-3	2.66548E-12	313.449E-3	-1.81246E-3
292.646E-6	2.40197E-12	338.977E-3	-19.2139E-3	2.48034E-12	311.247E-3	-578.134E-6
287.644E-6	2.26025E-12	336.360E-3	-19.1536E-3	2.20044E-12	300.223E-3	-16.6323E-3
282.641E-6	2.35569E-12	335.573E-3	-16.6846E-3	2.28590E-12	279.411E-3	-24.5675E-3
277.639E-6	2.27828E-12	311.245E-3	-19.7679E-3	2.26329E-12	268.150E-3	-19.7990E-3
272.636E-6	1.97454E-12	294.036E-3	-16.1108E-3	2.05397E-12	257.463E-3	-12.2656E-3
267.634E-6	1.89614E-12	289.198E-3	-9.99792E-3	1.89533E-12	236.948E-3	-3.95045E-3
262.631E-6	1.99675E-12	272.987E-3	-12.4824E-3	1.91168E-12	222.480E-3	-16.1677E-3
257.629E-6	1.80510E-12	253.450E-3	-23.8305E-3	1.90771E-12	220.849E-3	-31.1535E-3
252.626E-6	1.63965E-12	241.594E-3	-26.1977E-3	1.67724E-12	215.679E-3	-21.1864E-3
247.624E-6	1.60392E-12	234.981E-3	-13.3155E-3	1.54468E-12	201.033E-3	-16.0088E-3
242.621E-6	1.67731E-12	226.286E-3	-11.3717E-3	1.63199E-12	182.566E-3	-24.1629E-3
237.619E-6	1.46337E-12	218.039E-3	-21.9585E-3	1.64772E-12	176.542E-3	-25.1497E-3
232.616E-6	1.27635E-12	216.849E-3	-26.6144E-3	1.34814E-12	188.186E-3	-20.7780E-3
227.614E-6	1.39981E-12	218.964E-3	-24.8688E-3	1.28004E-12	188.194E-3	-18.5678E-3
222.611E-6	1.37726E-12	219.203E-3	-17.5433E-3	1.36908E-12	185.490E-3	-16.0456E-3
217.609E-6	1.12441E-12	213.445E-3	-11.1339E-3	1.32537E-12	183.123E-3	-11.6765E-3
212.606E-6	1.00880E-12	203.177E-3	-21.2123E-3	1.05850E-12	161.496E-3	-8.14501E-3
207.604E-6	1.16327E-12	187.677E-3	-30.6202E-3	993.912E-15	145.424E-3	-4.22441E-3
202.601E-6	1.16479E-12	162.205E-3	-23.5986E-3	1.13977E-12	150.310E-3	-13.3351E-3
197.599E-6	888.452E-15	144.433E-3	-19.3423E-3	1.06912E-12	155.025E-3	-27.2999E-3
192.596E-6	769.311E-15	142.945E-3	-30.0189E-3	839.589E-15	136.691E-3	-22.6349E-3
187.594E-6	983.771E-15	145.989E-3	-37.3123E-3	797.971E-15	110.872E-3	-23.6557E-3
182.591E-6	981.522E-15	151.691E-3	-32.0870E-3	890.065E-15	110.053E-3	-40.4721E-3
177.589E-6	703.315E-15	148.930E-3	-26.2247E-3	854.028E-15	128.102E-3	-41.2947E-3
172.586E-6	650.066E-15	133.331E-3	-16.9278E-3	621.266E-15	133.442E-3	-29.7412E-3
167.584E-6	806.604E-15	122.689E-3	-14.3209E-3	666.606E-15	112.572E-3	-30.6346E-3
162.581E-6	785.546E-15	120.997E-3	-18.0510E-3	800.518E-15	90.2797E-3	-31.1074E-3
157.579E-6	570.284E-15	119.852E-3	-11.5811E-3	648.104E-15	93.4582E-3	-26.9758E-3
152.576E-6	542.356E-15	115.792E-3	-11.6422E-3	503.442E-15	100.844E-3	-27.2904E-3
147.574E-6	640.571E-15	110.384E-3	-19.4579E-3	556.909E-15	92.1040E-3	-24.1494E-3
142.571E-6	564.791E-15	107.475E-3	-16.7261E-3	611.291E-15	83.8142E-3	-23.0091E-3
137.569E-6	422.239E-15	103.846E-3	-7.25505E-3	479.228E-15	74.5568E-3	-25.2715E-3
132.566E-6	424.480E-15	102.448E-3	-10.1558E-3	353.243E-15	69.5059E-3	-17.7612E-3
127.564E-6	488.270E-15	106.006E-3	-16.9774E-3	473.308E-15	75.2167E-3	-9.55427E-3
122.561E-6	367.412E-15	96.7210E-3	-9.40027E-3	458.014E-15	77.7433E-3	-18.9155E-3
117.559E-6	283.803E-15	79.1777E-3	-3.76129E-3	308.592E-15	76.8128E-3	-33.1240E-3
112.556E-6	356.060E-15	69.8493E-3	-11.0239E-3	223.544E-15	79.0999E-3	-21.4917E-3
107.554E-6	398.226E-15	73.3813E-3	-17.1801E-3	351.560E-15	75.9111E-3	-4.32515E-3
102.551E-6	197.420E-15	81.8239E-3	-20.4115E-3	365.049E-15	62.6129E-3	-14.6584E-3
97.5488E-6	169.292E-15	74.8050E-3	-25.0138E-3	192.259E-15	62.2099E-3	-24.6763E-3
92.5463E-6	322.769E-15	61.1133E-3	-26.2763E-3	99.2759E-15	73.6282E-3	-16.9905E-3
87.5438E-6	342.963E-15	59.2711E-3	-22.9916E-3	292.531E-15	69.7538E-3	-17.6931E-3
82.5413E-6	74.6352E-15	63.1499E-3	-18.7445E-3	284.840E-15	58.2329E-3	-29.8084E-3
77.5388E-6	34.8141E-15	64.9986E-3	-10.9559E-3	48.6691E-15	58.8076E-3	-31.4925E-3
72.5363E-6	210.011E-15	63.2983E-3	-5.47957E-3	29.0245E-15	59.1439E-3	-16.5059E-3
67.5338E-6	282.285E-15	53.1426E-3	-1.17923E-3	169.449E-15	46.1729E-3	3.80570E-3
62.5313E-6	15.3439E-15	41.6939E-3	3.16091E-3	160.023E-15	44.6008E-3	11.2067E-3
57.5288E-6	-93.0807E-15	43.8913E-3	-8.05645E-3	-18.0424E-15	56.4961E-3	-499.189E-6
52.5263E-6	126.219E-15	45.9150E-3	-22.6879E-3	-45.7872E-15	65.3645E-3	-7.52893E-3
47.5238E-6	122.321E-15	43.7859E-3	-24.4962E-3	133.726E-15	68.4008E-3	-7.60001E-3
42.5213E-6	-56.4335E-15	48.5660E-3	-14.0294E-3	74.9229E-15	59.3917E-3	-14.6045E-3
37.5188E-6	-120.311E-15	47.4807E-3	-6.76669E-3	-137.270E-15	45.3931E-3	-12.9638E-3
32.5163E-6	52.0870E-15	45.0554E-3	-18.6912E-3	-58.2296E-15	39.9517E-3	-15.3241E-3
27.5138E-6	23.8714E-15	50.6197E-3	-24.4752E-3	46.0882E-15	50.5694E-3	-23.0261E-3
22.5113E-6	-136.215E-15	54.5214E-3	-18.6663E-3	-62.6765E-15	63.6626E-3	-14.9628E-3
17.5088E-6	-145.301E-15	49.1630E-3	-24.2724E-3	-201.392E-15	68.7040E-3	-1.88301E-3
12.5063E-6	-31.0080E-15	40.9408E-3	-26.6555E-3	-120.660E-15	65.1885E-3	-2.55130E-3
7.50375E-6	-109.604E-15	36.5794E-3	-21.4949E-3	-44.5926E-15	55.7808E-3	-11.6218E-3
2.50125E-6	-212.143E-15	35.6057E-3	-13.5372E-3	-159.565E-15	49.0917E-3	-11.2822E-3
-2.50125E-6	-149.791E-15	36.3150E-3	138.497E-6	-283.162E-15	51.4574E-3	-14.9289E-3
-7.50375E-6	-142.336E-15	33.0147E-3	7.91207E-3	-122.160E-15	60.6221E-3	-26.0050E-3
-12.5063E-6	-246.183E-15	34.6775E-3	5.49558E-3	-136.607E-15	67.2931E-3	-29.1389E-3
-17.5088E-6	-393.740E-15	41.2487E-3	-7.89584E-3	-333.768E-15	62.1342E-3	-31.7514E-3
-22.5113E-6	-234.142E-15	46.7761E-3	-21.4553E-3	-359.142E-15	52.5962E-3	-38.6902E-3
-27.5138E-6	-183.387E-15	55.8855E-3	-22.0592E-3	-206.266E-15	55.0509E-3	-37.8212E-3
-32.5163E-6	-400.454E-15	64.8038E-3	-16.0176E-3	-203.598E-15	66.5098E-3	-33.6158E-3
-37.5188E-6	-460.294E-15	77.3140E-3	-14.2073E-3	-402.250E-15	75.4033E-3	-36.8957E-3
-42.5213E-6	-248.886E-15	81.0995E-3	-14.8833E-3	-444.565E-15	69.3103E-3	-39.5940E-3
-47.5238E-6	-247.125E-15	72.7711E-3	-19.1223E-3	-326.157E-15	64.9723E-3	-33.2878E-3
-52.5263E-6	-521.539E-15	66.4920E-3	-26.5136E-3	-307.715E-15	70.7299E-3	-22.4035E-3
-57.5288E-6	-576.627E-15	58.9007E-3	-21.0613E-3	-485.842E-15	72.3418E-3	-12.8403E-3
-62.5313E-6	-336.899E-15	57.2693E-3	-6.84474E-3	-566.025E-15	81.7833E-3	-11.3315E-3
-67.5338E-6	-352.096E-15	70.2893E-3	-7.90500E-3	-441.513E-15	94.7124E-3	-12.6701E-3
-72.5363E-6	-590.657E-15	78.4606E-3	-10.8123E-3	-467.052E-15	93.4975E-3	-9.14821E-3
-77.5388E-6	-681.503E-15	75.1626E-3	-10.5421E-3	-634.707E-15	91.0558E-3	-13.1180E-3
-82.5413E-6	-483.871E-15	74.5665E-3	-21.6818E-3	-653.183E-15	87.7229E-3	-19.7810E-3
-87.5438E-6	-495.093E-15	81.6243E-3	-14.5131E-3	-475.789E-15	85.2058E-3	-21.8508E-3
-92.5463E-6	-707.923E-15	91.7118E-3	4.09998E-3	-660.298E-15	98.9637E-3	-23.1336E-3
-97.5488E-6	-750.926E-15	98.5023E-3	-937.299E-6	-812.092E-15	112.510E-3	-22.7885E-3
-102.551E-6	-666.096E-15	105.571E-3	-19.9288E-3	-726.434E-15	121.031E-3	-23.6550E-3
-107.554E-6	-690.083E-15	108.729E-3	-30.8346E-3	-662.286E-15	131.807E-3	-25.7940E-3
-112.556E-6	-850.065E-15	99.8932E-3	-31.7451E-3	-810.776E-15	130.936E-3	-25.2202E-3
-117.559E-6	-851.251E-15	90.9258E-3	-24.5786E-3	-944.887E-15	127.412E-3	-17.8329E-3
-122.561E-6	-828.781E-15	99.6460E-3	-15.2822E-3	-855.985E-15	140.960E-3	-11.3495E-3
-127.564E-6	-895.475E-15	116.933E-3	-13.2854E-3	-841.110E-15	153.829E-3	-15.4318E-3
-132.566E-6	-1.03676E-12	127.099E-3	-13.1247E-3	-1.03208E-12	155.705E-3	-20.0853E-3
-137.569E-6	-993.314E-15	127.185E-3	-11.0845E-3	-1.10370E-12	156.415E-3	-16.6131E-3
-142.571E-6	-963.259E-15	127.242E-3	-3.47843E-3	-984.412E-15	157.361E-3	-10.9099E-3
-147.574E-6	-1.15099E-12	133.997E-3	3.98804E-3	-994.247E-15	166.296E-3	-5.62327E-3
-152.576E-6	-1.27109E-12	144.176E-3	3.36388E-3	-1.22942E-12	180.924E-3	4.03824E-3
-157.579E-6	-1.13036E-12	156.114E-3	-3.56569E-3	-1.29155E-12	188.597E-3	4.80464E-3
-162.581E-6	-1.18548E-12	170.502E-3	-11.2009E-3	-1.19002E-12	195.849E-3	-4.97067E-3
-167.584E-6	-1.41565E-12	183.003E-3	-14.6561E-3	-1.28982E-12	200.955E-3	-3.15576E-3
-172.586E-6	-1.55206E-12	181.372E-3	-11.6646E-3	-1.50264E-12	204.478E-3	-6.97279E-3
-177.589E-6	-1.38589E-12	182.753E-3	-1.79223E-3	-1.59448E-12	223.283E-3	-27.0664E-3
-182.591E-6	-1.42474E-12	200.852E-3	6.86542E-3	-1.48240E-12	238.165E-3	-32.4802E-3
-187.594E-6	-1.69763E-12	211.552E-3	4.70459E-3	-1.59461E-12	231.822E-3	-22.4637E-3
-192.596E-6	-1.84574E-12	204.824E-3	-802.743E-6	-1.78151E-12	228.513E-3	-18.6542E-3
-197.599E-6	-1.67344E-12	203.083E-3	-820.722E-6	-1.81907E-12	243.511E-3	-16.2833E-3
-202.601E-6	-1.78415E-12	218.559E-3	-5.16817E-3	-1.80162E-12	268.203E-3	-12.1807E-3
-207.604E-6	-2.04887E-12	240.989E-3	-17.0265E-3	-1.93932E-12	298.888E-3	-1.11068E-3
-212.606E-6	-2.19807E-12	257.449E-3	-26.8534E-3	-2.16605E-12	324.910E-3	21.5418E-3
-217.609E-6	-2.11651E-12	266.006E-3	-24.6824E-3	-2.13343E-12	330.091E-3	26.1321E-3
-222.611E-6	-2.15223E-12	278.789E-3	-14.6212E-3	-2.18467E-12	324.369E-3	10.3792E-3
-227.614E-6	-2.44411E-12	293.826E-3	-3.43057E-3	-2.43194E-12	320.288E-3	714.285E-6
-232.616E-6	-2.58138E-12	301.227E-3	1.47137E-3	-2.52535E-12	328.911E-3	-1.71003E-3
-237.619E-6	-2.56883E-12	317.767E-3	-9.79990E-3	-2.55490E-12	355.313E-3	-11.0432E-3
-242.621E-6	-2.64548E-12	344.207E-3	-21.9232E-3	-2.61903E-12	386.485E-3	-23.1322E-3
-247.624E-6	-2.98533E-12	353.819E-3	-19.1787E-3	-2.83842E-12	417.256E-3	-32.9674E-3
-252.626E-6	-3.07228E-12	359.078E-3	-17.8559E-3	-3.04144E-12	436.400E-3	-38.9367E-3
-257.629E-6	-3.01628E-12	371.563E-3	-20.8179E-3	-3.05699E-12	435.246E-3	-36.3802E-3
-262.631E-6	-3.22551E-12	387.503E-3	-12.7098E-3	-3.18643E-12	442.617E-3	-29.4232E-3
-267.634E-6	-3.51918E-12	404.711E-3	2.28551E-3	-3.50082E-12	481.401E-3	-23.6974E-3
-272.636E-6	-3.57952E-12	420.397E-3	2.26513E-3	-3.60374E-12	518.494E-3	-19.2434E-3
-277.639E-6	-3.58156E-12	431.067E-3	-18.7898E-3	-3.60644E-12	535.397E-3	-21.6643E-3
-282.641E-6	-3.86821E-12	438.361E-3	-25.1128E-3	-3.79344E-12	548.772E-3	-26.3120E-3
-287.644E-6	-4.14046E-12	459.315E-3	-14.1977E-3	-4.17562E-12	563.833E-3	-15.8870E-3
-292.646E-6	-4.15879E-12	483.546E-3	-13.2289E-3	-4.32422E-12	582.962E-3	-6.03857E-3
-297.649E-6	-4.19994E-12	500.394E-3	-12.4867E-3	-4.34514E-12	606.954E-3	-15.3698E-3
-302.651E-6	-4.58121E-12	518.154E-3	-7.01481E-3	-4.57602E-12	627.065E-3	-24.0027E-3
-307.654E-6	-4.91057E-12	532.045E-3	-5.03624E-3	-4.91739E-12	645.704E-3	-15.3554E-3
-312.656E-6	-4.94518E-12	552.856E-3	-4.60288E-3	-5.04990E-12	667.745E-3	-15.1713E-3
-317.659E-6	-4.97202E-12	596.236E-3	806.501E-6	-5.18178E-12	688.418E-3	-23.4548E-3
-322.661E-6	-5.46255E-12	640.097E-3	13.1549E-3	-5.45923E-12	714.943E-3	-10.5702E-3
-327.664E-6	-5.77983E-12	665.377E-3	13.9438E-3	-5.84704E-12	760.176E-3	-213.570E-6
-332.666E-6	-5.81953E-12	672.905E-3	-1.23311E-3	-5.93299E-12	802.480E-3	-5.44013E-3
-337.669E-6	-5.88289E-12	668.557E-3	-10.0768E-3	-6.06575E-12	808.361E-3	-5.43174E-3
-342.671E-6	-6.37464E-12	683.038E-3	-19.3516E-3	-6.57378E-12	810.737E-3	-6.17455E-3
-347.674E-6	-6.72412E-12	721.283E-3	-32.3568E-3	-6.84713E-12	847.004E-3	-15.1680E-3
-352.676E-6	-6.77064E-12	753.848E-3	-41.4214E-3	-6.92598E-12	891.855E-3	-17.9751E-3
-357.679E-6	-6.94811E-12	778.636E-3	-44.8445E-3	-7.21382E-12	926.972E-3	-6.28242E-3
-362.681E-6	-7.44359E-12	796.554E-3	-21.5217E-3	-7.65604E-12	959.691E-3	-768.965E-6
-367.684E-6	-7.83446E-12	811.677E-3	6.11312E-3	-7.97162E-12	993.134E-3	-18.7430E-3
-372.686E-6	-7.94203E-12	840.837E-3	4.13779E-3	-8.16016E-12	1.02597E+0	-31.9648E-3
-377.689E-6	-8.23976E-12	881.169E-3	-10.1470E-3	-8.47231E-12	1.05572E+0	-22.0881E-3
-382.691E-6	-8.71943E-12	911.736E-3	-18.5450E-3	-8.94265E-12	1.06953E+0	-13.0823E-3
-387.694E-6	-9.08165E-12	930.833E-3	-21.4396E-3	-9.28683E-12	1.08425E+0	-15.7607E-3
-392.696E-6	-9.23323E-12	959.639E-3	-15.8935E-3	-9.38931E-12	1.11573E+0	-20.0603E-3
-397.699E-6	-9.62015E-12	995.822E-3	-8.35510E-3	-9.84238E-12	1.14041E+0	-10.3661E-3
-402.701E-6	-10.1607E-12	1.02986E+0	-8.71572E-3	-10.4775E-12	1.17509E+0	5.45389E-3
-407.704E-6	-10.4950E-12	1.06100E+0	-9.48944E-3	-10.5712E-12	1.21444E+0	-2.33295E-3
-412.706E-6	-10.7635E-12	1.08276E+0	-3.17664E-3	-10.7682E-12	1.22953E+0	-27.8533E-3
-417.709E-6	-11.2670E-12	1.10939E+0	-11.6154E-3	-11.4553E-12	1.24676E+0	-33.7828E-3
-422.711E-6	-11.9720E-12	1.14914E+0	-29.1950E-3	-11.9622E-12	1.27591E+0	-21.8667E-3
-427.714E-6	-12.3388E-12	1.19221E+0	-24.1926E-3	-11.9813E-12	1.30037E+0	-19.8551E-3
-432.716E-6	-12.4552E-12	1.22474E+0	-21.9608E-3	-12.4440E-12	1.32082E+0	-17.7608E-3
-437.719E-6	-13.0699E-12	1.25287E+0	-32.0885E-3	-13.0714E-12	1.34738E+0	-9.89764E-3
-442.721E-6	-13.9187E-12	1.28616E+0	-29.1479E-3	-13.4448E-12	1.38119E+0	-8.01398E-3
-447.724E-6	-14.1217E-12	1.31776E+0	-17.3674E-3	-13.6269E-12	1.40957E+0	-4.15153E-3
-452.726E-6	-14.3364E-12	1.35590E+0	-18.0863E-3	-14.0584E-12	1.43642E+0	1.41021E-3
-457.729E-6	-14.9936E-12	1.38976E+0	-28.1134E-3	-14.6309E-12	1.46913E+0	-3.48012E-3
-462.731E-6	-15.7723E-12	1.40468E+0	-29.8007E-3	-15.2336E-12	1.49099E+0	-10.3738E-3
-467.734E-6	-16.1283E-12	1.42481E+0	-26.9951E-3	-15.5536E-12	1.50616E+0	-18.2920E-3
-472.736E-6	-16.3695E-12	1.46477E+0	-18.1438E-3	-15.9835E-12	1.52143E+0	-27.7441E-3
-477.739E-6	-17.0516E-12	1.50303E+0	-1.47002E-3	-16.7890E-12	1.54146E+0	-23.0957E-3
-482.741E-6	-17.9615E-12	1.52286E+0	3.93331E-3	-17.2036E-12	1.57635E+0	-11.2080E-3
-487.744E-6	-18.0155E-12	1.54949E+0	-7.60225E-3	-17.4276E-12	1.59597E+0	-6.63618E-3
-492.746E-6	-18.4074E-12	1.58990E+0	-14.8689E-3	-18.1231E-12	1.60021E+0	-4.71955E-3
-497.749E-6	-19.2762E-12	1.60048E+0	-14.5444E-3	-18.9042E-12	1.61577E+0	-2.30931E-3
-502.751E-6	-19.8355E-12	1.59608E+0	-11.7709E-3	-19.2553E-12	1.63723E+0	-7.09344E-3
-507.754E-6	-19.9638E-12	1.60922E+0	-2.41731E-3	-19.4893E-12	1.65587E+0	-18.0485E-3
-512.756E-6	-20.6832E-12	1.63298E+0	-8.30895E-3	-20.2864E-12	1.68397E+0	-26.0008E-3
-517.759E-6	-21.3613E-12	1.65514E+0	-25.0357E-3	-21.0839E-12	1.71488E+0	-28.4813E-3
-522.761E-6	-21.6146E-12	1.66497E+0	-22.3020E-3	-21.3277E-12	1.72237E+0	-20.7389E-3
-527.764E-6	-22.3362E-12	1.67660E+0	-12.1116E-3	-21.7026E-12	1.72239E+0	-4.08380E-3
-532.766E-6	-22.7981E-12	1.69664E+0	-7.13266E-3	-22.6438E-12	1.73123E+0	9.29189E-3
-537.769E-6	-23.3546E-12	1.71065E+0	-11.7482E-3	-23.3145E-12	1.74259E+0	12.1784E-3
-542.771E-6	-23.9191E-12	1.72254E+0	-18.3590E-3	-23.6258E-12	1.75078E+0	4.42386E-3
-547.774E-6	-24.3271E-12	1.73761E+0	-12.8091E-3	-23.9900E-12	1.76054E+0	-6.88857E-3
-552.776E-6	-24.5830E-12	1.73585E+0	-14.1569E-3	-24.6888E-12	1.77193E+0	-15.8994E-3
-557.779E-6	-25.2920E-12	1.72786E+0	-30.3792E-3	-25.1835E-12	1.77395E+0	-22.8879E-3
-562.781E-6	-26.1680E-12	1.74337E+0	-41.4113E-3	-25.7798E-12	1.77081E+0	-31.4181E-3
-567.784E-6	-26.5157E-12	1.77250E+0	-36.7629E-3	-26.6560E-12	1.77480E+0	-33.3580E-3
-572.786E-6	-27.2342E-12	1.79319E+0	-31.7068E-3	-27.6689E-12	1.78856E+0	-20.5851E-3
-577.789E-6	-28.2529E-12	1.79931E+0	-31.8986E-3	-28.1651E-12	1.79978E+0	-16.5012E-3
-582.791E-6	-28.3188E-12	1.79331E+0	-32.2975E-3	-28.5276E-12	1.80644E+0	-32.6259E-3
-587.794E-6	-28.5170E-12	1.77605E+0	-34.8089E-3	-29.2794E-12	1.80647E+0	-46.0301E-3
-592.796E-6	-29.2176E-12	1.75987E+0	-28.0231E-3	-30.1931E-12	1.79271E+0	-37.3985E-3
-597.799E-6	-29.8949E-12	1.75243E+0	-15.0363E-3	-30.6547E-12	1.77898E+0	-20.8724E-3
-602.801E-6	-30.1030E-12	1.74775E+0	-11.5063E-3	-30.7721E-12	1.78547E+0	-9.16765E-3
-607.804E-6	-30.5878E-12	1.74571E+0	-11.7088E-3	-31.5522E-12	1.79676E+0	-2.03164E-3
-612.806E-6	-31.2478E-12	1.74317E+0	-12.9412E-3	-32.4425E-12	1.78502E+0	-6.18260E-3
-617.809E-6	-32.1381E-12	1.73817E+0	-6.25244E-3	-32.9269E-12	1.77098E+0	-17.5614E-3
-622.811E-6	-32.6287E-12	1.73455E+0	7.62840E-3	-33.1825E-12	1.76941E+0	-29.1229E-3
-627.814E-6	-33.1719E-12	1.73521E+0	7.17582E-3	-33.7735E-12	1.75834E+0	-29.6463E-3
-632.816E-6	-34.1617E-12	1.73334E+0	-9.88065E-3	-34.6786E-12	1.73722E+0	-31.5571E-3
-637.819E-6	-34.7072E-12	1.73053E+0	-29.2601E-3	-35.0832E-12	1.72820E+0	-44.5249E-3
-642.821E-6	-35.4743E-12	1.72561E+0	-28.9181E-3	-35.1120E-12	1.71647E+0	-44.2937E-3
-647.824E-6	-35.9930E-12	1.71902E+0	-13.4961E-3	-35.7062E-12	1.69099E+0	-19.5111E-3
-652.826E-6	-36.9882E-12	1.72083E+0	-7.98110E-3	-36.8266E-12	1.67203E+0	-3.81468E-3
-657.829E-6	-37.5717E-12	1.72623E+0	-7.86148E-3	-36.8355E-12	1.66476E+0	-19.2040E-3
-662.831E-6	-37.9849E-12	1.72176E+0	-3.05947E-3	-37.1217E-12	1.65624E+0	-32.4699E-3
-667.834E-6	-38.7987E-12	1.71491E+0	-4.08817E-3	-38.0444E-12	1.63198E+0	-24.5616E-3
-672.836E-6	-39.6563E-12	1.71608E+0	-9.18064E-3	-38.8635E-12	1.60326E+0	-18.5633E-3
-677.839E-6	-40.1087E-12	1.71318E+0	-6.67627E-3	-39.2770E-12	1.58949E+0	-35.3488E-3
-682.841E-6	-40.2397E-12	1.69974E+0	-6.25995E-3	-39.4970E-12	1.59155E+0	-49.4482E-3
-687.844E-6	-40.7577E-12	1.68284E+0	-10.5799E-3	-40.1323E-12	1.59224E+0	-41.3642E-3
-692.846E-6	-41.4664E-12	1.66134E+0	-5.67973E-3	-40.9574E-12	1.56875E+0	-25.4865E-3
-697.849E-6	-41.8576E-12	1.63129E+0	-3.62122E-3	-41.3924E-12	1.53101E+0	-10.6587E-3
-702.851E-6	-41.9243E-12	1.61609E+0	-3.88926E-3	-41.5243E-12	1.50468E+0	-4.01136E-3
-707.854E-6	-42.8567E-12	1.60289E+0	6.07450E-3	-42.3037E-12	1.48849E+0	-9.86355E-3
-712.856E-6	-43.5674E-12	1.57722E+0	936.872E-6	-42.9672E-12	1.47449E+0	-24.2672E-3
-717.859E-6	-43.2330E-12	1.55984E+0	-14.7289E-3	-42.9799E-12	1.45809E+0	-41.5172E-3
-722.861E-6	-43.9607E-12	1.53142E+0	-16.8348E-3	-43.5678E-12	1.43982E+0	-39.0429E-3
-727.864E-6	-44.9102E-12	1.49846E+0	-21.3976E-3	-44.5153E-12	1.42113E+0	-16.5198E-3
-732.866E-6	-45.4657E-12	1.49298E+0	-21.3767E-3	-44.6520E-12	1.39710E+0	-11.6139E-3
-737.869E-6	-45.3610E-12	1.47822E+0	-2.86870E-3	-44.8713E-12	1.37272E+0	-22.3383E-3
-742.871E-6	-46.1972E-12	1.44195E+0	5.96378E-3	-45.6825E-12	1.35700E+0	-29.1897E-3
-747.874E-6	-46.8290E-12	1.43617E+0	-13.5213E-3	-46.1905E-12	1.33457E+0	-26.2367E-3
-752.876E-6	-47.3111E-12	1.44006E+0	-35.3749E-3	-46.2750E-12	1.30419E+0	-17.9044E-3
-757.879E-6	-48.3016E-12	1.41020E+0	-44.8684E-3	-46.7426E-12	1.27758E+0	-17.5072E-3
-762.881E-6	-48.6945E-12	1.38007E+0	-40.8568E-3	-47.5717E-12	1.25541E+0	-27.9161E-3
-767.884E-6	-49.1734E-12	1.36829E+0	-18.7927E-3	-48.4856E-12	1.24259E+0	-36.5785E-3
-772.886E-6	-49.4136E-12	1.34713E+0	-3.36496E-3	-48.8106E-12	1.23117E+0	-28.2184E-3
-777.889E-6	-50.0002E-12	1.31757E+0	-3.07138E-3	-48.8587E-12	1.20806E+0	-15.3208E-3
-782.891E-6	-49.9360E-12	1.30009E+0	-2.77958E-3	-49.5583E-12	1.17597E+0	-12.3784E-3
-787.894E-6	-50.4583E-12	1.28627E+0	-11.2708E-3	-50.2464E-12	1.15003E+0	-17.1864E-3
-792.896E-6	-51.3116E-12	1.25570E+0	-20.1020E-3	-50.4019E-12	1.13317E+0	-18.7570E-3
-797.899E-6	-51.4579E-12	1.21441E+0	-7.14758E-3	-50.7844E-12	1.10961E+0	-10.5812E-3
-802.901E-6	-51.0717E-12	1.18630E+0	7.68081E-3	-51.5488E-12	1.07719E+0	-5.96571E-3
-807.904E-6	-51.9698E-12	1.16537E+0	2.14589E-3	-52.0520E-12	1.04572E+0	-9.29416E-3
-812.906E-6	-52.4351E-12	1.13435E+0	-391.976E-6	-51.9195E-12	1.01993E+0	-11.9888E-3
-817.909E-6	-51.9012E-12	1.10362E+0	11.8774E-3	-52.1975E-12	995.574E-3	-4.80375E-3
-822.911E-6	-52.5160E-12	1.07290E+0	11.2311E-3	-52.9261E-12	976.388E-3	3.48316E-3
-827.914E-6	-53.5831E-12	1.04350E+0	-5.92404E-3	-53.2850E-12	950.411E-3	-10.7775E-3
-832.916E-6	-53.2008E-12	1.03268E+0	-19.6350E-3	-53.2190E-12	913.479E-3	-21.6403E-3
-837.919E-6	-53.5567E-12	1.02065E+0	-15.3417E-3	-53.4375E-12	896.259E-3	-12.9421E-3
-842.921E-6	-54.5994E-12	996.957E-3	-94.5699E-6	-53.7203E-12	877.977E-3	-19.7664E-3
-847.924E-6	-54.1318E-12	973.338E-3	-193.055E-6	-54.0838E-12	844.656E-3	-28.7413E-3
-852.926E-6	-54.9217E-12	937.085E-3	-21.2889E-3	-54.2403E-12	820.279E-3	-21.3579E-3
-857.929E-6	-55.1120E-12	905.985E-3	-30.3261E-3	-54.5865E-12	799.885E-3	-21.6932E-3
-862.931E-6	-55.6685E-12	896.146E-3	-23.0591E-3	-55.0146E-12	777.716E-3	-28.0953E-3
-867.934E-6	-55.6611E-12	887.786E-3	-15.3081E-3	-55.5043E-12	764.779E-3	-27.1548E-3
-872.936E-6	-55.9734E-12	868.165E-3	-2.37811E-3	-55.7019E-12	758.066E-3	-31.1450E-3
-877.939E-6	-56.5890E-12	843.305E-3	-3.38789E-3	-55.8161E-12	749.534E-3	-37.4828E-3
-882.941E-6	-56.5510E-12	822.496E-3	-22.0036E-3	-56.5450E-12	739.465E-3	-41.8645E-3
-887.944E-6	-56.6635E-12	809.329E-3	-31.4229E-3	-57.0135E-12	722.027E-3	-47.0038E-3
-892.946E-6	-56.7714E-12	791.715E-3	-23.4807E-3	-56.8148E-12	704.132E-3	-36.3142E-3
-897.949E-6	-57.6448E-12	754.853E-3	-18.4298E-3	-57.3003E-12	686.746E-3	-21.7229E-3
-902.951E-6	-57.1071E-12	721.514E-3	-20.3601E-3	-58.0647E-12	660.940E-3	-29.4483E-3
-907.954E-6	-57.4344E-12	707.884E-3	-9.42139E-3	-58.2614E-12	639.409E-3	-42.9286E-3
-912.956E-6	-57.6270E-12	685.712E-3	-3.78369E-3	-57.8870E-12	623.175E-3	-38.6705E-3
-917.959E-6	-57.5901E-12	655.347E-3	-20.0036E-3	-57.9759E-12	600.117E-3	-17.7440E-3
-922.961E-6	-57.2785E-12	637.345E-3	-27.4978E-3	-58.4369E-12	562.285E-3	-9.32378E-3
-927.964E-6	-57.6354E-12	621.881E-3	-16.0600E-3	-58.3510E-12	525.466E-3	-17.7878E-3
-932.966E-6	-57.7108E-12	597.473E-3	-13.5549E-3	-57.9619E-12	510.966E-3	-15.4132E-3
-937.969E-6	-57.7919E-12	570.910E-3	-14.0267E-3	-58.7668E-12	510.760E-3	-19.0058E-3
-942.971E-6	-58.2883E-12	542.928E-3	-7.70452E-3	-58.6633E-12	500.314E-3	-18.2608E-3
-947.974E-6	-58.1065E-12	520.827E-3	-12.5150E-3	-58.5738E-12	483.716E-3	1.45356E-3
-952.976E-6	-58.2645E-12	514.936E-3	-19.0562E-3	-58.7643E-12	475.078E-3	5.05505E-3
-957.979E-6	-58.8199E-12	505.630E-3	-24.4082E-3	-59.1266E-12	463.415E-3	766.724E-6
-962.981E-6	-58.9580E-12	501.551E-3	-31.4121E-3	-58.9340E-12	445.332E-3	-3.80314E-3
-967.984E-6	-59.1897E-12	508.526E-3	-19.6393E-3	-59.5089E-12	439.687E-3	-17.2484E-3
-972.986E-6	-59.7738E-12	491.563E-3	-7.03723E-3	-59.8785E-12	448.534E-3	-28.6058E-3
-977.989E-6	-60.2713E-12	461.295E-3	-19.5374E-3	-59.9682E-12	445.109E-3	-28.0454E-3
-982.991E-6	-59.8215E-12	456.693E-3	-28.0452E-3	-60.0444E-12	425.733E-3	-19.6506E-3
-987.994E-6	-60.7136E-12	444.069E-3	-28.0801E-3	-60.4764E-12	407.236E-3	-8.69269E-3
-992.997E-6	-61.1860E-12	409.177E-3	-30.6996E-3	-60.5263E-12	401.448E-3	2.29177E-3
-997.999E-6	-60.8333E-12	403.174E-3	-25.8693E-3	-60.6922E-12	399.369E-3	-7.06006E-3
-1.00300E-3	-60.9495E-12	411.833E-3	-24.2741E-3	-61.3554E-12	392.884E-3	-21.1062E-3
-1.00800E-3	-61.1823E-12	401.644E-3	-27.8624E-3	-61.2114E-12	385.886E-3	-15.4504E-3
-1.01301E-3	-60.9197E-12	392.255E-3	-18.9746E-3	-61.1029E-12	377.505E-3	-18.0506E-3
-1.01801E-3	-61.2471E-12	390.029E-3	-2.58884E-3	-62.1225E-12	368.087E-3	-25.3613E-3
-1.02301E-3	-61.2006E-12	378.671E-3	-3.22497E-3	-62.1653E-12	352.201E-3	-6.03727E-3
-1.02801E-3	-61.0051E-12	364.578E-3	-13.0104E-3	-61.3379E-12	339.477E-3	6.03994E-3
-1.03302E-3	-61.3093E-12	359.409E-3	-3.66923E-3	-61.5180E-12	329.971E-3	-432.364E-6
-1.03802E-3	-61.8918E-12	347.382E-3	4.81469E-3	-62.2678E-12	319.372E-3	7.51975E-3
-1.04302E-3	-61.3175E-12	336.795E-3	-10.4912E-3	-61.8849E-12	318.413E-3	6.11741E-3
-1.04802E-3	-61.7858E-12	344.565E-3	-23.8313E-3	-61.8068E-12	324.666E-3	-15.4854E-3
-1.05303E-3	-62.0572E-12	338.309E-3	-28.1104E-3	-61.9443E-12	325.748E-3	-22.7777E-3
-1.05803E-3	-62.4138E-12	320.413E-3	-23.7547E-3	-61.9442E-12	320.998E-3	-16.3584E-3
-1.06303E-3	-62.3991E-12	326.180E-3	-5.66779E-3	-62.0724E-12	328.766E-3	-14.3219E-3
-1.06803E-3	-63.1131E-12	338.848E-3	-1.44817E-3	-61.9649E-12	346.101E-3	-19.2468E-3
-1.07304E-3	-63.8770E-12	346.527E-3	-9.24819E-3	-62.2560E-12	347.927E-3	-19.0076E-3
-1.07804E-3	-63.5845E-12	345.870E-3	6.54446E-3	-62.4293E-12	336.780E-3	-10.8047E-3
-1.08304E-3	-63.6744E-12	334.829E-3	20.1356E-3	-62.2457E-12	332.939E-3	-4.26101E-3
-1.08804E-3	-64.6786E-12	339.194E-3	-278.835E-6	-62.0839E-12	335.009E-3	-7.81261E-3
-1.09305E-3	-64.7726E-12	346.113E-3	-25.0495E-3	-63.1901E-12	330.798E-3	-19.7418E-3
-1.09805E-3	-64.0735E-12	326.542E-3	-27.4657E-3	-63.3734E-12	319.264E-3	-14.0022E-3
-1.10305E-3	-64.2855E-12	314.383E-3	-15.4753E-3	-62.4481E-12	314.440E-3	-1.82066E-3
-1.10805E-3	-64.7688E-12	334.413E-3	-13.6925E-3	-62.7399E-12	324.859E-3	-6.41023E-3
-1.11306E-3	-64.0696E-12	346.188E-3	-31.7879E-3	-63.6349E-12	319.275E-3	-11.5695E-3
-1.11806E-3	-63.6926E-12	344.473E-3	-44.0511E-3	-63.4580E-12	310.493E-3	-13.9828E-3
-1.12306E-3	-63.8733E-12	347.694E-3	-39.8353E-3	-63.5713E-12	342.080E-3	-19.0490E-3
-1.12806E-3	-63.7042E-12	344.793E-3	-33.7314E-3	-63.7514E-12	373.665E-3	-15.7381E-3
-1.13307E-3	-63.3742E-12	343.138E-3	-38.5324E-3	-63.7941E-12	381.135E-3	-4.76367E-3
-1.13807E-3	-63.4100E-12	350.253E-3	-38.8254E-3	-63.9976E-12	392.331E-3	-5.21480E-3
-1.14307E-3	-63.3030E-12	349.910E-3	-28.6298E-3	-64.1998E-12	400.878E-3	-10.9058E-3
-1.14807E-3	-63.1291E-12	346.832E-3	-25.6119E-3	-64.0373E-12	402.465E-3	-13.1340E-3
-1.15308E-3	-63.4362E-12	357.576E-3	-23.2542E-3	-64.2586E-12	402.631E-3	-18.2339E-3
-1.15808E-3	-63.4318E-12	364.677E-3	-16.8937E-3	-64.3856E-12	397.766E-3	-22.2645E-3
-1.16308E-3	-63.1040E-12	355.686E-3	-13.7263E-3	-64.2514E-12	392.144E-3	-20.5145E-3
-1.16808E-3	-63.6518E-12	359.208E-3	-11.8628E-3	-64.2714E-12	398.890E-3	-19.2594E-3
-1.17309E-3	-64.3122E-12	375.733E-3	-5.64693E-3	-64.8548E-12	421.599E-3	-12.8613E-3
-1.17809E-3	-64.0079E-12	383.411E-3	-8.28110E-3	-64.5443E-12	447.623E-3	-1.90514E-3
-1.18309E-3	-64.0843E-12	403.488E-3	-14.9768E-3	-64.8393E-12	458.702E-3	-2.47065E-3
-1.18809E-3	-65.2084E-12	426.286E-3	-7.83620E-3	-65.0240E-12	453.658E-3	-6.60058E-3
-1.19310E-3	-65.2462E-12	434.707E-3	-3.88000E-3	-65.1500E-12	459.936E-3	-5.26855E-3
-1.19810E-3	-64.7538E-12	448.763E-3	-15.0015E-3	-65.3986E-12	492.046E-3	-8.45377E-3
-1.20310E-3	-65.3988E-12	457.375E-3	-27.7951E-3	-65.4479E-12	515.468E-3	-11.1902E-3
-1.20810E-3	-65.6023E-12	455.332E-3	-30.1359E-3	-66.0946E-12	515.828E-3	-8.80219E-3
-1.21311E-3	-65.7097E-12	474.240E-3	-20.9234E-3	-66.2270E-12	507.719E-3	-26.4942E-3
-1.21811E-3	-65.4642E-12	500.827E-3	-5.60457E-3	-66.4973E-12	504.125E-3	-41.5198E-3
-1.22311E-3	-65.6841E-12	492.187E-3	242.197E-6	-66.3693E-12	513.525E-3	-22.1001E-3
-1.22811E-3	-65.3381E-12	481.567E-3	-10.0447E-3	-66.5377E-12	526.316E-3	-12.2808E-3
-1.23312E-3	-65.7309E-12	497.469E-3	-16.9514E-3	-67.3644E-12	548.066E-3	-22.5736E-3
-1.23812E-3	-65.4803E-12	511.119E-3	-20.4895E-3	-67.2019E-12	570.407E-3	-17.8218E-3
-1.24312E-3	-65.3011E-12	519.712E-3	-29.4965E-3	-67.0979E-12	592.477E-3	-13.5180E-3
-1.24812E-3	-65.9024E-12	531.652E-3	-27.0704E-3	-67.4333E-12	610.816E-3	-20.8227E-3
-1.25313E-3	-66.3665E-12	532.662E-3	-16.7116E-3	-67.6425E-12	607.134E-3	-9.19292E-3
-1.25813E-3	-66.7670E-12	528.211E-3	-11.4064E-3	-67.3879E-12	601.745E-3	9.39630E-3
-1.26313E-3	-67.2545E-12	541.035E-3	-7.77487E-3	-67.5269E-12	609.200E-3	-5.24826E-3
-1.26813E-3	-67.9540E-12	569.914E-3	-2.99111E-3	-68.1919E-12	616.131E-3	-26.8493E-3
-1.27314E-3	-68.2623E-12	598.090E-3	-6.97094E-3	-67.7394E-12	618.607E-3	-22.3419E-3
-1.27814E-3	-68.5304E-12	611.035E-3	-20.5067E-3	-67.5704E-12	626.020E-3	-23.4345E-3
-1.28314E-3	-69.5973E-12	608.704E-3	-29.6430E-3	-68.2162E-12	641.878E-3	-23.6092E-3
-1.28814E-3	-70.5747E-12	617.455E-3	-24.0759E-3	-67.9582E-12	662.685E-3	-1.49122E-3
-1.29315E-3	-70.1182E-12	642.706E-3	-19.0468E-3	-68.4134E-12	677.285E-3	845.136E-6
-1.29815E-3	-70.7745E-12	664.533E-3	-28.7617E-3	-69.1009E-12	682.216E-3	-15.7690E-3
-1.30315E-3	-71.6744E-12	671.508E-3	-44.1801E-3	-68.9385E-12	692.851E-3	-18.0728E-3
-1.30815E-3	-71.9792E-12	676.266E-3	-38.5256E-3	-69.5025E-12	712.240E-3	-24.9304E-3
-1.31316E-3	-72.0601E-12	680.365E-3	-9.73437E-3	-70.4499E-12	727.772E-3	-32.2414E-3
-1.31816E-3	-71.9061E-12	671.353E-3	-7.51541E-3	-70.1896E-12	747.683E-3	-18.9884E-3
-1.32316E-3	-72.1593E-12	679.931E-3	-22.0422E-3	-70.2579E-12	771.053E-3	-13.0337E-3
-1.32816E-3	-72.1410E-12	722.074E-3	-16.6032E-3	-71.3891E-12	773.977E-3	-34.8360E-3
-1.33317E-3	-71.6552E-12	759.752E-3	-7.54469E-3	-71.3054E-12	767.905E-3	-48.7896E-3
-1.33817E-3	-72.0609E-12	767.801E-3	-22.6300E-3	-71.1606E-12	780.559E-3	-25.9056E-3
-1.34317E-3	-72.2532E-12	762.909E-3	-39.7706E-3	-72.0201E-12	790.427E-3	-3.97040E-3
-1.34817E-3	-71.8186E-12	759.429E-3	-29.7786E-3	-72.6246E-12	794.101E-3	-4.08396E-3
-1.35318E-3	-71.4126E-12	750.937E-3	-6.86668E-3	-72.1091E-12	810.005E-3	-9.20544E-3
-1.35818E-3	-72.3846E-12	746.801E-3	5.62403E-3	-72.2571E-12	815.640E-3	-14.6764E-3
-1.36318E-3	-72.4591E-12	766.444E-3	-6.88204E-3	-73.2529E-12	806.474E-3	-10.1123E-3
-1.36818E-3	-72.8671E-12	796.050E-3	-27.5164E-3	-73.4088E-12	810.895E-3	-1.00453E-3
-1.37319E-3	-73.1724E-12	808.967E-3	-34.9454E-3	-73.0546E-12	828.793E-3	1.56210E-3
-1.37819E-3	-73.0786E-12	813.686E-3	-32.8803E-3	-73.8246E-12	859.112E-3	3.70315E-3
-1.38319E-3	-73.8528E-12	830.873E-3	-33.6526E-3	-74.1175E-12	884.409E-3	1.34555E-3
-1.38819E-3	-74.4703E-12	840.150E-3	-37.8737E-3	-74.2562E-12	877.763E-3	-9.43397E-3
-1.39320E-3	-74.7353E-12	832.569E-3	-34.6775E-3	-74.6030E-12	865.600E-3	-24.2609E-3
-1.39820E-3	-75.1106E-12	836.768E-3	-34.8784E-3	-74.7283E-12	864.689E-3	-36.2486E-3
-1.40320E-3	-75.5440E-12	837.518E-3	-42.7805E-3	-75.7709E-12	863.849E-3	-27.3038E-3
-1.40820E-3	-75.4183E-12	828.234E-3	-43.7405E-3	-76.6113E-12	865.326E-3	-13.5950E-3
-1.41321E-3	-75.4390E-12	843.510E-3	-37.5647E-3	-76.7020E-12	872.129E-3	-10.0793E-3
-1.41821E-3	-75.4692E-12	874.873E-3	-24.0775E-3	-76.5576E-12	882.100E-3	-8.85705E-3
-1.42321E-3	-75.6218E-12	884.747E-3	-11.5557E-3	-77.4458E-12	895.159E-3	-15.0688E-3
-1.42821E-3	-75.4216E-12	883.461E-3	-21.3479E-3	-77.6253E-12	905.659E-3	-11.2520E-3
-1.43322E-3	-75.1798E-12	898.146E-3	-39.6665E-3	-77.6220E-12	912.638E-3	6.89081E-3
-1.43822E-3	-75.6203E-12	895.391E-3	-39.5234E-3	-77.9140E-12	915.955E-3	8.21325E-3
-1.44322E-3	-75.5152E-12	875.098E-3	-28.9417E-3	-78.0346E-12	914.208E-3	-11.3170E-3
-1.44822E-3	-75.2774E-12	877.580E-3	-20.7428E-3	-77.8361E-12	909.354E-3	-31.1493E-3
-1.45323E-3	-75.2835E-12	881.219E-3	-8.89378E-3	-77.9330E-12	909.188E-3	-39.5753E-3
-1.45823E-3	-75.9697E-12	863.620E-3	-4.56786E-3	-77.9532E-12	917.394E-3	-36.2087E-3
-1.46323E-3	-76.1931E-12	868.156E-3	-9.35620E-3	-78.1695E-12	918.396E-3	-30.4073E-3
-1.46823E-3	-76.6083E-12	894.607E-3	-15.5453E-3	-78.3062E-12	906.718E-3	-23.9895E-3
-1.47324E-3	-77.1616E-12	892.134E-3	-26.6069E-3	-78.0847E-12	899.701E-3	-20.6235E-3
-1.47824E-3	-77.6300E-12	879.574E-3	-25.1633E-3	-78.2386E-12	899.117E-3	-23.5378E-3
-1.48324E-3	-78.4803E-12	869.028E-3	-16.4506E-3	-78.6922E-12	901.814E-3	-20.4405E-3
-1.48824E-3	-78.9128E-12	874.184E-3	-17.8988E-3	-79.1234E-12	904.681E-3	-10.5497E-3
-1.49325E-3	-79.5090E-12	902.804E-3	-25.8346E-3	-79.5052E-12	905.050E-3	-14.0492E-3
-1.49825E-3	-80.7377E-12	908.265E-3	-29.4499E-3	-80.0276E-12	909.711E-3	-15.8637E-3
-1.50325E-3	-81.0625E-12	900.253E-3	-13.3831E-3	-80.3238E-12	914.446E-3	-5.84201E-3
-1.50825E-3	-81.6962E-12	917.177E-3	8.92249E-3	-80.6132E-12	923.142E-3	-6.19616E-3
-1.51326E-3	-82.0717E-12	934.805E-3	9.31425E-3	-80.9242E-12	921.186E-3	-12.9308E-3
-1.51826E-3	-82.9717E-12	934.612E-3	-2.93736E-3	-81.3855E-12	909.383E-3	-16.2762E-3
-1.52326E-3	-82.7694E-12	945.902E-3	-7.40906E-3	-81.3921E-12	904.775E-3	-5.00009E-3
-1.52826E-3	-82.9823E-12	956.166E-3	-5.21330E-3	-81.0829E-12	904.664E-3	1.98372E-3
-1.53327E-3	-83.7072E-12	944.557E-3	-6.62981E-3	-81.1034E-12	899.599E-3	-17.8939E-3
-1.53827E-3	-83.3022E-12	944.435E-3	-9.41061E-3	-81.5247E-12	893.826E-3	-29.2556E-3
-1.54327E-3	-83.6618E-12	956.300E-3	-9.49513E-3	-82.0136E-12	906.949E-3	-16.9854E-3
-1.54827E-3	-83.4112E-12	948.906E-3	-13.6708E-3	-81.8448E-12	917.712E-3	-7.92543E-3
-1.55328E-3	-83.0097E-12	921.575E-3	-22.9240E-3	-82.0367E-12	907.563E-3	-4.76052E-3
-1.55828E-3	-83.7203E-12	891.098E-3	-24.6328E-3	-82.7410E-12	890.836E-3	-8.93099E-3
-1.56328E-3	-83.6813E-12	887.927E-3	-27.4128E-3	-83.2070E-12	886.480E-3	-24.0256E-3
-1.56828E-3	-83.2409E-12	903.121E-3	-36.8515E-3	-83.0593E-12	905.775E-3	-33.7322E-3
-1.57329E-3	-84.1974E-12	915.097E-3	-31.1071E-3	-83.7457E-12	911.702E-3	-42.5111E-3
-1.57829E-3	-84.8939E-12	913.059E-3	-16.2719E-3	-84.1886E-12	886.104E-3	-45.0878E-3
-1.58329E-3	-84.5185E-12	899.152E-3	-12.5759E-3	-84.7440E-12	874.120E-3	-35.5914E-3
-1.58829E-3	-85.4106E-12	886.158E-3	-17.6984E-3	-85.2679E-12	886.517E-3	-31.7842E-3
-1.59330E-3	-86.6694E-12	876.692E-3	-11.5006E-3	-85.6715E-12	897.776E-3	-30.5500E-3
-1.59830E-3	-86.8136E-12	878.004E-3	-3.27582E-3	-86.6406E-12	894.332E-3	-21.8009E-3
-1.60330E-3	-87.1581E-12	897.358E-3	-4.94523E-3	-87.1777E-12	893.560E-3	-23.2507E-3
-1.60830E-3	-88.2791E-12	921.105E-3	-13.8046E-3	-86.7503E-12	901.180E-3	-34.9224E-3
-1.61331E-3	-89.1036E-12	932.798E-3	-28.2855E-3	-87.3552E-12	899.236E-3	-40.0118E-3
-1.61831E-3	-89.0255E-12	941.084E-3	-25.8182E-3	-88.4999E-12	893.646E-3	-28.9330E-3
-1.62331E-3	-89.8482E-12	933.639E-3	-11.1891E-3	-87.8807E-12	878.390E-3	-20.0136E-3
-1.62831E-3	-90.3297E-12	917.221E-3	-8.84853E-3	-88.2888E-12	850.523E-3	-25.1059E-3
-1.63332E-3	-90.1725E-12	911.131E-3	-6.87270E-3	-88.9515E-12	848.846E-3	-18.4843E-3
-1.63832E-3	-89.9599E-12	899.113E-3	3.65321E-3	-89.0762E-12	865.757E-3	-15.4510E-3
-1.64332E-3	-90.5249E-12	874.239E-3	-5.85897E-3	-89.2224E-12	855.810E-3	-23.0661E-3
-1.64832E-3	-89.5331E-12	866.344E-3	-13.1340E-3	-89.9113E-12	842.245E-3	-21.0074E-3
-1.65333E-3	-89.4704E-12	870.511E-3	-4.80945E-3	-90.3217E-12	852.738E-3	-16.5364E-3
-1.65833E-3	-89.2999E-12	859.501E-3	-20.8999E-3	-90.9713E-12	852.094E-3	-13.0613E-3
-1.66333E-3	-88.9778E-12	851.796E-3	-36.5929E-3	-91.2737E-12	837.082E-3	-14.3362E-3
-1.66833E-3	-89.0161E-12	850.358E-3	-31.1843E-3	-91.1162E-12	846.947E-3	-24.9057E-3
-1.67334E-3	-89.9920E-12	840.153E-3	-27.1878E-3	-91.6961E-12	862.190E-3	-32.3387E-3
-1.67834E-3	-89.8199E-12	834.537E-3	-14.2748E-3	-91.8352E-12	854.250E-3	-33.5872E-3
-1.68334E-3	-89.7379E-12	842.105E-3	5.12685E-3	-91.4109E-12	845.213E-3	-44.4169E-3
-1.68834E-3	-91.0144E-12	847.945E-3	3.75138E-3	-91.5106E-12	832.449E-3	-55.1729E-3
-1.69335E-3	-91.9662E-12	853.758E-3	-4.98361E-3	-92.4089E-12	824.031E-3	-46.2910E-3
-1.69835E-3	-91.9342E-12	854.208E-3	-11.4834E-3	-92.3567E-12	827.743E-3	-31.3462E-3
-1.70335E-3	-93.0979E-12	851.610E-3	-22.9339E-3	-91.7030E-12	825.239E-3	-22.1583E-3
-1.70835E-3	-94.0069E-12	853.308E-3	-29.7438E-3	-92.6049E-12	822.343E-3	-10.9537E-3
-1.71336E-3	-94.6107E-12	850.638E-3	-23.5270E-3	-92.7666E-12	811.275E-3	11.1847E-3
-1.71836E-3	-95.1181E-12	851.061E-3	-9.15437E-3	-92.4640E-12	796.129E-3	16.6102E-3
-1.72336E-3	-95.8765E-12	846.624E-3	-7.92584E-3	-93.1374E-12	793.399E-3	2.57604E-3
-1.72836E-3	-95.5996E-12	857.193E-3	-18.0272E-3	-93.6910E-12	799.882E-3	-9.56944E-3
-1.73337E-3	-96.3919E-12	883.230E-3	-26.2535E-3	-93.7431E-12	809.458E-3	-19.7397E-3
-1.73837E-3	-96.3228E-12	889.354E-3	-28.2838E-3	-94.4946E-12	817.359E-3	-15.7985E-3
-1.74337E-3	-95.1245E-12	873.196E-3	-12.5236E-3	-95.1485E-12	822.018E-3	-11.8606E-3
-1.74837E-3	-95.0459E-12	835.610E-3	11.8243E-3	-95.1475E-12	815.895E-3	-17.3002E-3
-1.75338E-3	-94.9723E-12	798.050E-3	6.56512E-3	-96.2857E-12	803.677E-3	-12.2776E-3
-1.75838E-3	-94.0902E-12	793.096E-3	-19.2070E-3	-96.7393E-12	811.035E-3	-4.08917E-3
-1.76338E-3	-93.7286E-12	805.277E-3	-21.4166E-3	-96.5198E-12	825.517E-3	-12.9992E-3
-1.76838E-3	-94.0349E-12	801.691E-3	-7.24022E-3	-96.9395E-12	814.945E-3	-22.0913E-3
-1.77339E-3	-93.8278E-12	788.773E-3	4.63434E-3	-97.9147E-12	784.184E-3	-14.7576E-3
-1.77839E-3	-93.3552E-12	783.250E-3	17.3727E-3	-96.5310E-12	779.461E-3	225.464E-6
-1.78339E-3	-93.8726E-12	769.946E-3	16.0314E-3	-96.4297E-12	803.301E-3	8.39018E-3
-1.78839E-3	-94.8802E-12	756.230E-3	-4.14791E-3	-97.3607E-12	802.418E-3	3.12359E-3
-1.79340E-3	-94.8943E-12	765.339E-3	-6.57212E-3	-96.9761E-12	766.387E-3	-15.6702E-3
-1.79840E-3	-95.1851E-12	777.196E-3	-837.210E-6	-96.4046E-12	742.998E-3	-19.8005E-3
-1.80340E-3	-96.5382E-12	774.324E-3	-15.3174E-3	-97.0278E-12	764.495E-3	237.409E-6
-1.80840E-3	-97.7952E-12	778.431E-3	-11.8804E-3	-97.3792E-12	795.999E-3	-527.980E-6
-1.81341E-3	-97.7084E-12	792.084E-3	-1.01839E-3	-96.7280E-12	802.985E-3	-23.2676E-3
-1.81841E-3	-98.4230E-12	796.078E-3	-17.2493E-3	-97.9911E-12	796.867E-3	-36.0567E-3
-1.82341E-3	-99.8379E-12	791.722E-3	-25.5481E-3	-98.2039E-12	794.906E-3	-32.1003E-3
-1.82841E-3	-100.153E-12	797.119E-3	-23.7108E-3	-98.7031E-12	801.894E-3	-30.7283E-3
-1.83342E-3	-100.269E-12	809.129E-3	-37.0701E-3	-99.6240E-12	808.774E-3	-27.4547E-3
-1.83842E-3	-100.850E-12	803.212E-3	-45.2169E-3	-100.085E-12	808.097E-3	-10.8351E-3
-1.84342E-3	-101.297E-12	785.828E-3	-32.3317E-3	-100.133E-12	803.207E-3	-6.98378E-3
-1.84842E-3	-101.099E-12	779.373E-3	-24.4151E-3	-101.351E-12	799.333E-3	-6.49516E-3
-1.85343E-3	-100.639E-12	788.401E-3	-30.5221E-3	-101.481E-12	797.943E-3	5.26321E-3
-1.85843E-3	-100.645E-12	800.794E-3	-30.6108E-3	-101.584E-12	789.889E-3	9.99342E-3
-1.86343E-3	-100.279E-12	797.009E-3	-36.7823E-3	-101.728E-12	775.075E-3	4.83227E-3
-1.86843E-3	-100.218E-12	792.036E-3	-41.0786E-3	-102.074E-12	770.082E-3	-4.81036E-3
-1.87344E-3	-100.038E-12	790.952E-3	-29.9778E-3	-101.437E-12	777.867E-3	-8.01896E-3
-1.87844E-3	-100.212E-12	782.910E-3	-34.4097E-3	-101.138E-12	783.730E-3	-2.85216E-3
-1.88344E-3	-100.659E-12	778.563E-3	-43.7507E-3	-101.493E-12	772.782E-3	-8.57862E-3
-1.88844E-3	-101.366E-12	768.981E-3	-27.2467E-3	-101.773E-12	748.544E-3	-22.7591E-3
-1.89345E-3	-101.438E-12	749.857E-3	1.63939E-3	-101.062E-12	733.575E-3	-13.3099E-3
-1.89845E-3	-101.670E-12	740.979E-3	4.31308E-3	-101.613E-12	744.920E-3	10.2074E-3
-1.90345E-3	-103.103E-12	743.879E-3	-25.7033E-3	-101.901E-12	764.701E-3	14.0116E-3
-1.90845E-3	-103.492E-12	756.217E-3	-37.1183E-3	-102.123E-12	764.923E-3	11.9300E-3
-1.91346E-3	-104.221E-12	764.199E-3	-28.3393E-3	-102.557E-12	748.778E-3	6.20816E-3
-1.91846E-3	-105.410E-12	756.641E-3	-31.5571E-3	-102.838E-12	728.963E-3	-26.6753E-3
-1.92346E-3	-106.463E-12	752.177E-3	-34.4772E-3	-103.646E-12	727.692E-3	-49.1445E-3
-1.92846E-3	-107.035E-12	761.617E-3	-34.6642E-3	-103.845E-12	754.181E-3	-30.1463E-3
-1.93347E-3	-107.349E-12	773.959E-3	-35.6685E-3	-104.297E-12	768.119E-3	-17.7043E-3
-1.93847E-3	-108.330E-12	773.387E-3	-32.1345E-3	-104.724E-12	738.287E-3	-25.9233E-3
-1.94347E-3	-108.459E-12	767.697E-3	-26.1163E-3	-105.734E-12	720.153E-3	-14.8627E-3
-1.94847E-3	-108.347E-12	769.538E-3	-21.9359E-3	-106.088E-12	730.805E-3	-5.56107E-3
-1.95348E-3	-108.417E-12	762.460E-3	-8.22340E-3	-106.028E-12	733.694E-3	-22.6442E-3
-1.95848E-3	-108.809E-12	751.142E-3	150.129E-6	-106.207E-12	738.574E-3	-26.9569E-3
-1.96348E-3	-108.409E-12	751.341E-3	-21.4495E-3	-106.855E-12	740.682E-3	-19.3642E-3
-1.96848E-3	-107.297E-12	762.086E-3	-41.0995E-3	-106.643E-12	734.284E-3	-13.4985E-3
-1.97349E-3	-107.360E-12	773.661E-3	-44.3599E-3	-106.391E-12	749.280E-3	-11.0669E-3
-1.97849E-3	-107.220E-12	780.463E-3	-59.9013E-3	-107.058E-12	772.868E-3	-20.6416E-3
-1.98349E-3	-106.560E-12	787.287E-3	-66.3580E-3	-107.559E-12	767.737E-3	-34.4478E-3
-1.98849E-3	-106.583E-12	775.810E-3	-43.6273E-3	-107.658E-12	762.992E-3	-40.1635E-3
-1.99350E-3	-106.832E-12	764.018E-3	-32.2862E-3	-107.927E-12	767.773E-3	-32.1949E-3
-1.99850E-3	-106.557E-12	764.557E-3	-31.1003E-3	-108.635E-12	760.293E-3	-17.9261E-3
-2.00350E-3	-106.467E-12	759.609E-3	-24.6703E-3	-108.838E-12	752.018E-3	-12.8358E-3
-2.00850E-3	-107.149E-12	750.430E-3	-22.3562E-3	-108.899E-12	751.462E-3	-29.9285E-3
-2.01351E-3	-106.938E-12	738.402E-3	-13.7702E-3	-109.106E-12	742.806E-3	-36.8967E-3
-2.01851E-3	-107.883E-12	727.983E-3	-18.1514E-3	-109.630E-12	731.814E-3	-22.1133E-3
-2.02351E-3	-109.020E-12	721.406E-3	-35.6512E-3	-109.745E-12	745.265E-3	-14.7191E-3
-2.02851E-3	-108.603E-12	728.710E-3	-21.4079E-3	-109.676E-12	754.898E-3	-1.25375E-3
-2.03352E-3	-109.170E-12	738.251E-3	8.91916E-3	-109.503E-12	746.460E-3	15.9598E-3
-2.03852E-3	-110.982E-12	725.591E-3	308.010E-6	-110.046E-12	748.801E-3	19.9496E-3
-2.04352E-3	-110.467E-12	724.851E-3	-13.0110E-3	-110.183E-12	763.483E-3	21.1402E-3
-2.04852E-3	-110.256E-12	737.692E-3	-8.97902E-3	-110.328E-12	775.882E-3	21.2546E-3
-2.05353E-3	-111.528E-12	728.017E-3	-18.6688E-3	-110.351E-12	769.996E-3	-6.44952E-3
-2.05853E-3	-111.598E-12	720.057E-3	-22.4031E-3	-110.820E-12	756.094E-3	-51.0251E-3
-2.06353E-3	-110.664E-12	737.168E-3	-7.06545E-3	-110.963E-12	746.501E-3	-54.0056E-3
-2.06853E-3	-111.029E-12	755.971E-3	-8.06646E-3	-111.446E-12	742.429E-3	-30.2464E-3
-2.07354E-3	-111.059E-12	747.554E-3	-24.9736E-3	-112.010E-12	753.169E-3	-27.3002E-3
-2.07854E-3	-110.592E-12	722.179E-3	-21.9172E-3	-111.993E-12	753.630E-3	-31.3047E-3
-2.08354E-3	-110.210E-12	714.732E-3	-20.0861E-3	-113.060E-12	728.657E-3	-13.3734E-3
-2.08854E-3	-109.919E-12	736.705E-3	-29.8184E-3	-113.701E-12	712.919E-3	4.27007E-3
-2.09355E-3	-110.115E-12	750.808E-3	-36.0355E-3	-113.271E-12	720.280E-3	260.297E-6
-2.09855E-3	-110.927E-12	732.055E-3	-42.4032E-3	-113.589E-12	738.192E-3	-9.00316E-3
-2.10355E-3	-110.533E-12	715.542E-3	-40.2727E-3	-114.296E-12	752.055E-3	-11.4372E-3
-2.10855E-3	-110.751E-12	722.366E-3	-33.9145E-3	-113.796E-12	740.696E-3	-16.9649E-3
-2.11356E-3	-111.982E-12	724.154E-3	-26.2142E-3	-113.582E-12	726.222E-3	-17.2723E-3
-2.11856E-3	-112.676E-12	717.349E-3	-17.2811E-3	-114.128E-12	717.933E-3	282.235E-6
-2.12356E-3	-113.234E-12	725.000E-3	-8.89333E-3	-113.712E-12	699.099E-3	9.30054E-3
-2.12856E-3	-113.827E-12	736.305E-3	-2.71558E-3	-112.960E-12	696.820E-3	-2.03440E-3
-2.13357E-3	-115.767E-12	746.722E-3	-15.7128E-3	-113.524E-12	700.848E-3	-21.7955E-3
-2.13857E-3	-116.552E-12	757.956E-3	-32.0906E-3	-113.869E-12	697.785E-3	-31.2874E-3
-2.14357E-3	-116.211E-12	751.840E-3	-27.4710E-3	-112.224E-12	709.500E-3	-24.8022E-3
-2.14857E-3	-117.140E-12	745.395E-3	-2.97555E-3	-112.396E-12	725.475E-3	-30.7470E-3
-2.15358E-3	-118.950E-12	751.303E-3	10.0848E-3	-113.435E-12	719.296E-3	-43.0014E-3
-2.15858E-3	-118.850E-12	742.511E-3	-7.47830E-3	-114.028E-12	696.277E-3	-24.8885E-3
-2.16358E-3	-118.162E-12	733.087E-3	-18.0781E-3	-114.087E-12	690.699E-3	6.97772E-3
-2.16858E-3	-118.974E-12	743.880E-3	-14.6729E-3	-114.990E-12	706.945E-3	9.60696E-3
-2.17359E-3	-118.993E-12	753.180E-3	-20.7408E-3	-115.735E-12	724.688E-3	-20.4372E-3
-2.17859E-3	-117.808E-12	755.488E-3	-28.3559E-3	-116.836E-12	737.603E-3	-33.7326E-3
-2.18359E-3	-117.615E-12	764.442E-3	-26.4414E-3	-117.177E-12	748.737E-3	-18.0415E-3
-2.18859E-3	-117.443E-12	760.301E-3	-24.2964E-3	-117.900E-12	740.597E-3	-6.35238E-3
-2.19360E-3	-116.597E-12	728.977E-3	-28.2877E-3	-118.553E-12	728.008E-3	-2.50406E-3
-2.19860E-3	-116.452E-12	704.157E-3	-37.8389E-3	-119.473E-12	725.586E-3	-6.30516E-3
-2.20360E-3	-116.509E-12	696.896E-3	-40.1267E-3	-119.240E-12	723.834E-3	-16.0200E-3
-2.20860E-3	-116.383E-12	688.977E-3	-32.7684E-3	-119.272E-12	723.700E-3	-22.3187E-3
-2.21361E-3	-117.164E-12	692.040E-3	-16.0968E-3	-119.248E-12	710.394E-3	-20.1780E-3
-2.21861E-3	-117.415E-12	721.627E-3	4.82785E-3	-119.337E-12	701.388E-3	-16.8266E-3
-2.22361E-3	-117.450E-12	736.507E-3	3.32421E-3	-118.910E-12	707.076E-3	-17.6265E-3
-2.22861E-3	-118.294E-12	724.292E-3	-9.45276E-3	-119.023E-12	709.538E-3	-24.4141E-3
-2.23362E-3	-119.589E-12	708.733E-3	-19.9702E-3	-118.934E-12	713.598E-3	-20.0650E-3
-2.23862E-3	-119.483E-12	692.055E-3	-30.7408E-3	-118.866E-12	721.587E-3	-1.62422E-3
-2.24362E-3	-120.207E-12	694.260E-3	-33.3270E-3	-119.346E-12	730.425E-3	-13.3496E-3
-2.24862E-3	-121.173E-12	719.163E-3	-20.2626E-3	-119.517E-12	737.978E-3	-45.9199E-3
-2.25363E-3	-121.408E-12	744.695E-3	1.02378E-3	-120.307E-12	744.132E-3	-50.7502E-3
-2.25863E-3	-121.112E-12	752.569E-3	12.8765E-3	-120.588E-12	739.094E-3	-31.8785E-3
-2.26363E-3	-121.102E-12	752.138E-3	7.02367E-3	-121.254E-12	728.712E-3	-17.9469E-3
-2.26863E-3	-121.345E-12	754.137E-3	-19.8307E-3	-122.320E-12	734.182E-3	-11.5183E-3
-2.27364E-3	-120.975E-12	748.954E-3	-45.6960E-3	-123.235E-12	735.624E-3	-7.38370E-3
-2.27864E-3	-120.035E-12	741.007E-3	-38.2688E-3	-123.136E-12	717.472E-3	-7.20488E-3
-2.28364E-3	-119.893E-12	724.042E-3	-11.4518E-3	-123.406E-12	699.695E-3	-6.63433E-3
-2.28864E-3	-120.083E-12	695.953E-3	-11.2628E-3	-124.509E-12	706.607E-3	-13.5644E-3
-2.29365E-3	-119.823E-12	668.503E-3	-31.6907E-3	-124.688E-12	716.271E-3	-21.0401E-3
-2.29865E-3	-119.553E-12	645.795E-3	-37.5007E-3	-124.269E-12	716.833E-3	-11.6403E-3
-2.30365E-3	-119.546E-12	655.443E-3	-25.3645E-3	-124.382E-12	729.685E-3	-4.78230E-3
-2.30865E-3	-119.908E-12	690.860E-3	1.58478E-3	-124.501E-12	730.082E-3	-9.71047E-3
-2.31366E-3	-120.326E-12	711.897E-3	13.2757E-3	-123.626E-12	715.118E-3	-4.76728E-3
-2.31866E-3	-120.821E-12	720.362E-3	2.07196E-3	-123.318E-12	726.288E-3	12.6414E-3
-2.32366E-3	-122.005E-12	724.855E-3	-1.20323E-3	-123.436E-12	726.790E-3	12.9319E-3
-2.32866E-3	-122.943E-12	703.089E-3	1.19621E-3	-123.585E-12	706.955E-3	-16.3838E-3
-2.33367E-3	-123.858E-12	664.320E-3	407.532E-6	-123.184E-12	709.798E-3	-39.8565E-3
-2.33867E-3	-123.932E-12	658.198E-3	-10.7259E-3	-123.363E-12	700.491E-3	-44.1935E-3
-2.34367E-3	-125.950E-12	694.335E-3	-32.5687E-3	-123.666E-12	674.502E-3	-27.0540E-3
-2.34867E-3	-126.753E-12	714.553E-3	-34.0332E-3	-124.010E-12	680.523E-3	-3.81286E-3
-2.35368E-3	-126.271E-12	703.105E-3	-9.39766E-3	-124.650E-12	704.548E-3	-4.67930E-3
-2.35868E-3	-127.457E-12	696.707E-3	-1.47314E-3	-124.538E-12	711.651E-3	-15.1046E-3
-2.36368E-3	-128.036E-12	699.042E-3	-23.4220E-3	-125.806E-12	718.996E-3	-21.4088E-3
-2.36868E-3	-127.615E-12	706.491E-3	-21.6134E-3	-126.001E-12	724.644E-3	-29.4118E-3
-2.37369E-3	-127.510E-12	709.246E-3	9.08422E-3	-125.819E-12	706.023E-3	-22.1837E-3
-2.37869E-3	-127.550E-12	707.761E-3	7.60656E-3	-125.977E-12	685.697E-3	1.91417E-3
-2.38369E-3	-127.487E-12	723.034E-3	-26.3460E-3	-127.126E-12	694.509E-3	16.5316E-3
-2.38869E-3	-127.189E-12	740.112E-3	-47.4337E-3	-127.151E-12	724.497E-3	15.8371E-3
-2.39370E-3	-127.141E-12	732.905E-3	-41.0095E-3	-126.831E-12	734.427E-3	2.26254E-3
-2.39870E-3	-126.767E-12	732.521E-3	-27.1435E-3	-126.906E-12	717.602E-3	-2.93840E-3
-2.40370E-3	-126.989E-12	742.942E-3	-22.3069E-3	-127.824E-12	702.569E-3	10.2014E-3
-2.40870E-3	-126.795E-12	724.389E-3	-19.1621E-3	-127.287E-12	699.725E-3	15.5820E-3
-2.41371E-3	-126.659E-12	695.458E-3	-5.12239E-3	-127.346E-12	701.346E-3	10.2509E-3
-2.41871E-3	-127.628E-12	688.977E-3	8.72613E-3	-127.358E-12	707.401E-3	1.80973E-3
-2.42371E-3	-127.999E-12	694.038E-3	1.55328E-3	-128.190E-12	724.584E-3	-10.1402E-3
-2.42871E-3	-128.352E-12	703.060E-3	-8.24470E-3	-128.798E-12	732.359E-3	-21.5602E-3
-2.43372E-3	-128.966E-12	728.145E-3	-5.04218E-3	-128.496E-12	713.796E-3	-25.8463E-3
-2.43872E-3	-129.917E-12	734.092E-3	-3.66958E-3	-128.721E-12	709.049E-3	-15.3873E-3
-2.44372E-3	-131.117E-12	714.145E-3	-22.2456E-3	-129.768E-12	723.549E-3	-2.53422E-3
-2.44872E-3	-130.897E-12	713.785E-3	-26.9654E-3	-130.118E-12	717.163E-3	-8.60983E-3
-2.45373E-3	-131.449E-12	711.252E-3	982.536E-6	-129.817E-12	720.547E-3	-15.9565E-3
-2.45873E-3	-132.766E-12	702.655E-3	-4.26890E-3	-130.809E-12	725.559E-3	-6.13439E-3
-2.46373E-3	-132.947E-12	707.587E-3	-26.5877E-3	-131.204E-12	705.491E-3	-2.52289E-3
-2.46873E-3	-132.917E-12	718.931E-3	-20.7223E-3	-130.309E-12	691.317E-3	16.8044E-3
-2.47374E-3	-133.729E-12	734.381E-3	-11.2013E-3	-130.849E-12	684.961E-3	24.3731E-3
-2.47874E-3	-133.793E-12	732.761E-3	-7.06359E-3	-131.078E-12	683.522E-3	-9.14758E-3
-2.48374E-3	-133.378E-12	713.962E-3	-9.80225E-3	-130.907E-12	675.808E-3	-7.80646E-3
-2.48874E-3	-132.098E-12	695.000E-3	-14.3134E-3	-130.794E-12	653.377E-3	6.75541E-3
-2.49375E-3	-132.225E-12	689.294E-3	-13.0535E-3	-131.142E-12	648.242E-3	-3.29939E-3
-2.49875E-3	-132.213E-12	692.450E-3	-1.88627E-3	-130.893E-12	671.047E-3	-4.42638E-3
-2.50375E-3	-131.046E-12	687.058E-3	-5.26098E-3	-131.669E-12	702.761E-3	-2.00378E-3
-2.50875E-3	-130.846E-12	689.100E-3	-40.5567E-3	-131.617E-12	731.366E-3	-5.12213E-3
-2.51376E-3	-131.392E-12	699.028E-3	-42.6452E-3	-132.263E-12	733.149E-3	-14.2079E-3
-2.51876E-3	-131.212E-12	687.590E-3	-4.53107E-3	-133.358E-12	700.877E-3	-20.3308E-3
-2.52376E-3	-130.900E-12	674.253E-3	13.6178E-3	-133.505E-12	688.604E-3	-9.63309E-3
-2.52876E-3	-131.747E-12	666.477E-3	15.7725E-3	-133.468E-12	703.081E-3	-4.47207E-3
-2.53377E-3	-131.496E-12	660.173E-3	4.28141E-3	-134.607E-12	698.500E-3	-5.13429E-3
-2.53877E-3	-132.131E-12	673.813E-3	-16.9329E-3	-134.623E-12	685.532E-3	2.13374E-3
-2.54377E-3	-133.135E-12	689.235E-3	-18.3804E-3	-133.277E-12	675.889E-3	-14.0730E-3
-2.54877E-3	-134.019E-12	694.233E-3	-6.98604E-3	-134.052E-12	672.750E-3	-40.4168E-3
-2.55378E-3	-134.552E-12	694.646E-3	-9.90782E-3	-133.941E-12	689.044E-3	-28.7603E-3
-2.55878E-3	-135.512E-12	698.401E-3	-18.7701E-3	-133.285E-12	691.277E-3	11.4556E-3
-2.56378E-3	-136.283E-12	703.492E-3	-20.8020E-3	-133.788E-12	681.512E-3	23.8810E-3
-2.56878E-3	-137.182E-12	700.711E-3	-30.7099E-3	-133.941E-12	697.323E-3	186.716E-6
-2.57379E-3	-137.186E-12	709.296E-3	-40.3877E-3	-133.566E-12	700.707E-3	-10.1999E-3
-2.57879E-3	-138.185E-12	721.700E-3	-42.5226E-3	-134.421E-12	686.981E-3	-6.43497E-3
-2.58379E-3	-137.903E-12	703.011E-3	-49.8292E-3	-134.932E-12	691.613E-3	-15.0849E-3
-2.58879E-3	-137.294E-12	687.885E-3	-39.2434E-3	-134.840E-12	690.501E-3	-34.9561E-3
-2.59380E-3	-136.678E-12	709.048E-3	-5.39055E-3	-135.654E-12	669.624E-3	-35.3043E-3
-2.59880E-3	-136.690E-12	717.542E-3	3.08974E-3	-136.982E-12	665.164E-3	-3.93552E-3
-2.60380E-3	-135.559E-12	702.427E-3	-9.56063E-3	-137.689E-12	690.101E-3	7.94251E-3
-2.60880E-3	-134.779E-12	698.514E-3	-10.2876E-3	-137.543E-12	707.309E-3	-14.6316E-3
-2.61381E-3	-134.594E-12	704.080E-3	-8.25718E-3	-138.642E-12	705.272E-3	-14.7727E-3
-2.61881E-3	-134.281E-12	698.990E-3	-13.1805E-3	-138.943E-12	700.934E-3	-2.06197E-3
-2.62381E-3	-133.649E-12	678.663E-3	-15.6437E-3	-139.079E-12	703.033E-3	-17.5196E-3
-2.62881E-3	-134.101E-12	674.781E-3	-18.0247E-3	-139.841E-12	714.289E-3	-33.6911E-3
-2.63382E-3	-134.528E-12	700.677E-3	-19.0168E-3	-140.853E-12	714.471E-3	-39.9360E-3
-2.63882E-3	-134.850E-12	717.524E-3	-25.9453E-3	-140.130E-12	690.016E-3	-34.7101E-3
-2.64382E-3	-135.484E-12	709.375E-3	-48.5470E-3	-139.827E-12	677.992E-3	-18.1223E-3
-2.64882E-3	-137.175E-12	702.690E-3	-48.6106E-3	-140.194E-12	687.999E-3	-5.24589E-3
-2.65383E-3	-138.627E-12	714.099E-3	-15.1411E-3	-139.449E-12	686.632E-3	4.92326E-3
-2.65883E-3	-139.513E-12	719.956E-3	1.07868E-3	-139.701E-12	674.141E-3	11.6527E-3
-2.66383E-3	-139.943E-12	709.901E-3	-15.0506E-3	-139.514E-12	675.710E-3	12.5631E-3
-2.66883E-3	-141.236E-12	700.039E-3	-21.6661E-3	-139.515E-12	692.726E-3	-146.389E-6
-2.67384E-3	-142.382E-12	702.911E-3	-9.39508E-3	-139.450E-12	698.491E-3	-11.9587E-3
-2.67884E-3	-142.413E-12	726.339E-3	-5.83460E-3	-140.201E-12	705.160E-3	-15.2548E-3
-2.68384E-3	-142.437E-12	738.613E-3	-14.3079E-3	-140.688E-12	708.837E-3	-28.1275E-3
-2.68884E-3	-143.180E-12	712.090E-3	-19.6391E-3	-141.160E-12	698.634E-3	-46.2098E-3
-2.69385E-3	-143.316E-12	682.802E-3	-2.12751E-3	-142.237E-12	696.734E-3	-53.4798E-3
-2.69885E-3	-142.665E-12	680.235E-3	22.7657E-3	-142.742E-12	687.088E-3	-45.9578E-3
-2.70385E-3	-142.032E-12	692.370E-3	13.3184E-3	-143.177E-12	680.069E-3	-27.6658E-3
-2.70885E-3	-141.681E-12	707.964E-3	-1.19563E-3	-144.135E-12	694.280E-3	-22.6518E-3
-2.71386E-3	-141.748E-12	716.712E-3	15.4606E-3	-144.261E-12	700.246E-3	-23.2163E-3
-2.71886E-3	-140.753E-12	711.447E-3	19.9441E-3	-144.352E-12	702.099E-3	-16.3414E-3
-2.72386E-3	-140.295E-12	717.446E-3	-5.16355E-3	-143.784E-12	721.176E-3	-26.5204E-3
-2.72886E-3	-141.063E-12	732.283E-3	-14.4797E-3	-144.126E-12	723.889E-3	-34.6162E-3
-2.73387E-3	-140.839E-12	719.436E-3	-115.767E-6	-143.899E-12	711.314E-3	-13.8051E-3
-2.73887E-3	-141.096E-12	689.595E-3	-7.42807E-3	-143.414E-12	709.547E-3	-2.72273E-3
-2.74387E-3	-142.364E-12	687.249E-3	-29.4994E-3	-143.122E-12	692.168E-3	-31.5881E-3
-2.74887E-3	-143.234E-12	703.534E-3	-25.2705E-3	-143.419E-12	675.070E-3	-55.0409E-3
-2.75388E-3	-144.058E-12	707.222E-3	-16.9852E-3	-142.356E-12	679.752E-3	-38.5423E-3
-2.75888E-3	-146.101E-12	711.360E-3	-23.0639E-3	-143.234E-12	676.532E-3	-13.6259E-3
-2.76388E-3	-147.003E-12	707.417E-3	-27.9846E-3	-142.988E-12	678.399E-3	-188.964E-6
-2.76888E-3	-148.021E-12	698.013E-3	-27.0794E-3	-142.984E-12	692.215E-3	-1.10720E-3
-2.77389E-3	-149.014E-12	704.789E-3	-24.1925E-3	-143.565E-12	703.880E-3	-10.2239E-3
-2.77889E-3	-149.331E-12	713.647E-3	-24.1221E-3	-144.453E-12	713.589E-3	-16.8931E-3
-2.78389E-3	-150.485E-12	715.816E-3	-35.2088E-3	-143.204E-12	718.299E-3	-24.9260E-3
-2.78889E-3	-150.788E-12	720.557E-3	-36.4984E-3	-145.049E-12	719.472E-3	-28.9189E-3
-2.79390E-3	-150.046E-12	728.343E-3	-2.82921E-3	-146.048E-12	715.905E-3	-18.6793E-3
-2.79890E-3	-149.883E-12	732.320E-3	8.41425E-3	-145.780E-12	714.641E-3	1.30937E-3
-2.80390E-3	-149.719E-12	740.395E-3	-21.9801E-3	-146.430E-12	719.121E-3	13.3708E-3
-2.80890E-3	-148.575E-12	740.704E-3	-37.0479E-3	-147.576E-12	724.195E-3	2.09195E-3
-2.81391E-3	-147.162E-12	711.011E-3	-33.7883E-3	-146.590E-12	726.277E-3	-18.6049E-3
-2.81891E-3	-147.016E-12	684.203E-3	-35.1249E-3	-146.140E-12	721.272E-3	-21.2397E-3
-2.82391E-3	-145.784E-12	670.218E-3	-39.4178E-3	-147.700E-12	702.104E-3	-14.0086E-3
-2.82891E-3	-145.815E-12	651.667E-3	-36.0761E-3	-147.556E-12	671.250E-3	-4.17843E-3
-2.83392E-3	-145.703E-12	663.139E-3	-34.6641E-3	-147.284E-12	660.271E-3	-4.72696E-3
-2.83892E-3	-144.558E-12	690.769E-3	-32.6223E-3	-147.408E-12	661.210E-3	-24.3557E-3
-2.84392E-3	-145.577E-12	692.038E-3	-30.0103E-3	-147.324E-12	661.659E-3	-33.1332E-3
-2.84892E-3	-146.665E-12	692.150E-3	-22.3388E-3	-148.250E-12	682.214E-3	-41.8026E-3
-2.85393E-3	-146.086E-12	693.586E-3	-14.5115E-3	-148.902E-12	690.526E-3	-50.1563E-3
-2.85893E-3	-146.707E-12	669.720E-3	-27.3067E-3	-148.392E-12	676.273E-3	-26.2855E-3
-2.86393E-3	-148.345E-12	654.490E-3	-42.7120E-3	-148.074E-12	676.665E-3	-10.9543E-3
-2.86893E-3	-148.374E-12	666.152E-3	-42.3341E-3	-148.966E-12	678.106E-3	-38.6450E-3
-2.87394E-3	-148.115E-12	675.087E-3	-29.7250E-3	-148.850E-12	655.177E-3	-35.8209E-3
-2.87894E-3	-150.139E-12	685.496E-3	-27.6050E-3	-148.910E-12	633.538E-3	14.6931E-3
-2.88394E-3	-149.978E-12	693.688E-3	-42.0352E-3	-149.584E-12	646.610E-3	31.5178E-3
-2.88894E-3	-150.785E-12	694.573E-3	-39.4040E-3	-150.012E-12	662.275E-3	10.6545E-3
-2.89395E-3	-151.199E-12	703.975E-3	-26.6439E-3	-150.449E-12	662.004E-3	-4.98808E-3
-2.89895E-3	-151.610E-12	710.232E-3	-29.1940E-3	-150.238E-12	669.658E-3	-27.1257E-3
-2.90395E-3	-151.836E-12	713.403E-3	-41.9838E-3	-150.531E-12	687.084E-3	-49.6438E-3
-2.90895E-3	-151.658E-12	712.347E-3	-56.2662E-3	-151.259E-12	704.536E-3	-37.1492E-3
-2.91396E-3	-151.112E-12	694.028E-3	-56.7734E-3	-151.730E-12	697.145E-3	-15.0574E-3
-2.91896E-3	-151.373E-12	666.959E-3	-31.0562E-3	-151.262E-12	683.486E-3	2.42671E-3
-2.92396E-3	-151.592E-12	667.068E-3	-22.6175E-3	-151.778E-12	694.520E-3	27.4921E-3
-2.92896E-3	-151.491E-12	694.111E-3	-37.8845E-3	-153.147E-12	722.678E-3	32.2486E-3
-2.93397E-3	-150.573E-12	691.824E-3	-33.2703E-3	-152.546E-12	721.481E-3	12.8278E-3
-2.93897E-3	-150.436E-12	662.414E-3	-12.1877E-3	-152.674E-12	684.553E-3	8.66257E-3
-2.94397E-3	-150.449E-12	657.380E-3	14.7515E-3	-154.684E-12	675.522E-3	7.63759E-3
-2.94897E-3	-150.425E-12	673.416E-3	20.8940E-3	-154.424E-12	689.122E-3	-9.04717E-3
-2.95398E-3	-150.190E-12	695.032E-3	-2.78861E-3	-153.514E-12	682.380E-3	-28.0669E-3
-2.95898E-3	-151.022E-12	718.744E-3	-17.3221E-3	-154.749E-12	678.274E-3	-46.2066E-3
-2.96398E-3	-151.247E-12	721.913E-3	-18.4991E-3	-154.551E-12	690.276E-3	-40.4864E-3
-2.96898E-3	-152.011E-12	713.019E-3	-18.8634E-3	-153.100E-12	701.862E-3	-22.8574E-3
-2.97399E-3	-153.288E-12	703.256E-3	-1.46158E-3	-153.537E-12	703.980E-3	-18.3131E-3
-2.97899E-3	-153.807E-12	690.332E-3	18.1489E-3	-153.777E-12	698.554E-3	-23.9589E-3
-2.98399E-3	-155.768E-12	690.563E-3	8.99865E-3	-152.943E-12	705.151E-3	-29.1984E-3
-2.98899E-3	-156.166E-12	700.692E-3	-662.397E-6	-153.630E-12	710.634E-3	-16.0509E-3
-2.99400E-3	-156.753E-12	703.222E-3	5.99745E-3	-153.458E-12	700.673E-3	408.718E-6
-2.99900E-3	-158.800E-12	693.097E-3	-5.00321E-3	-153.055E-12	689.083E-3	-2.87584E-3
-3.00400E-3	-158.799E-12	709.337E-3	-41.4171E-3	-154.356E-12	688.268E-3	14.6302E-3
-3.00900E-3	-158.990E-12	746.483E-3	-50.8348E-3	-154.565E-12	678.881E-3	43.5526E-3
-3.01401E-3	-160.018E-12	739.571E-3	-42.8277E-3	-154.188E-12	650.479E-3	23.0465E-3
-3.01901E-3	-160.096E-12	717.191E-3	-58.6160E-3	-155.834E-12	645.080E-3	-14.3753E-3
-3.02401E-3	-158.726E-12	714.768E-3	-50.5926E-3	-156.553E-12	663.838E-3	-31.9117E-3
-3.02901E-3	-158.441E-12	698.573E-3	-27.5253E-3	-156.584E-12	667.498E-3	-40.9821E-3
-3.03402E-3	-157.342E-12	673.304E-3	-38.2179E-3	-157.729E-12	673.039E-3	-49.0118E-3
-3.03902E-3	-157.031E-12	669.670E-3	-42.7879E-3	-158.350E-12	688.075E-3	-46.0752E-3
-3.04402E-3	-156.125E-12	684.489E-3	-21.9164E-3	-158.399E-12	688.356E-3	-34.3966E-3
-3.04902E-3	-154.918E-12	699.384E-3	-13.6172E-3	-158.628E-12	679.737E-3	-32.7010E-3
-3.05403E-3	-154.709E-12	708.292E-3	-7.94056E-3	-158.880E-12	675.064E-3	-21.8005E-3
-3.05903E-3	-154.364E-12	698.617E-3	-4.49574E-3	-159.470E-12	688.005E-3	2.99365E-3
-3.06403E-3	-154.579E-12	664.307E-3	-15.7250E-3	-159.578E-12	695.794E-3	2.07561E-3
-3.06903E-3	-154.795E-12	632.139E-3	-8.89496E-3	-158.329E-12	684.205E-3	-22.1929E-3
-3.07404E-3	-155.740E-12	628.817E-3	9.89929E-3	-157.983E-12	690.173E-3	-30.4348E-3
-3.07904E-3	-156.525E-12	653.267E-3	4.42848E-3	-157.880E-12	692.048E-3	-20.7297E-3
-3.08404E-3	-157.136E-12	675.032E-3	-19.8666E-3	-157.546E-12	665.045E-3	-4.43427E-3
-3.08904E-3	-157.885E-12	681.716E-3	-33.6600E-3	-156.890E-12	655.251E-3	20.9577E-3
-3.09405E-3	-159.460E-12	693.403E-3	-34.6242E-3	-156.910E-12	671.658E-3	34.6151E-3
-3.09905E-3	-160.887E-12	707.390E-3	-22.0236E-3	-157.633E-12	681.850E-3	14.1838E-3
-3.10405E-3	-160.803E-12	707.376E-3	-24.9566E-3	-156.997E-12	667.617E-3	-6.65362E-3
-3.10905E-3	-162.647E-12	686.663E-3	-45.8802E-3	-157.671E-12	646.950E-3	-4.33873E-3
-3.11406E-3	-163.580E-12	677.150E-3	-37.9683E-3	-158.637E-12	646.387E-3	-5.09442E-3
-3.11906E-3	-163.170E-12	698.107E-3	-7.99272E-3	-159.825E-12	650.946E-3	-3.90421E-3
-3.12406E-3	-162.458E-12	706.151E-3	3.02904E-3	-160.254E-12	658.870E-3	9.42406E-3
-3.12906E-3	-163.037E-12	699.325E-3	-3.28646E-3	-161.417E-12	672.569E-3	796.788E-6
-3.13407E-3	-162.146E-12	687.912E-3	-1.00762E-3	-162.322E-12	672.498E-3	-30.2584E-3
-3.13907E-3	-160.996E-12	660.493E-3	5.69981E-3	-162.616E-12	668.543E-3	-29.0459E-3
-3.14407E-3	-161.120E-12	655.731E-3	12.8337E-3	-163.469E-12	671.584E-3	-18.0333E-3
-3.14907E-3	-160.817E-12	677.131E-3	9.39919E-3	-163.078E-12	673.091E-3	-33.8616E-3
-3.15408E-3	-159.762E-12	694.788E-3	-10.4057E-3	-163.783E-12	686.711E-3	-30.6735E-3
-3.15908E-3	-160.164E-12	706.092E-3	-20.5881E-3	-163.503E-12	695.092E-3	-17.8735E-3
-3.16408E-3	-159.147E-12	696.108E-3	-4.04195E-3	-163.559E-12	678.495E-3	-33.8756E-3
-3.16908E-3	-160.410E-12	668.842E-3	6.88999E-3	-163.113E-12	689.235E-3	-41.8502E-3
-3.17409E-3	-160.767E-12	665.113E-3	-8.51916E-3	-162.918E-12	720.567E-3	-25.8860E-3
-3.17909E-3	-161.527E-12	683.720E-3	-13.3628E-3	-162.529E-12	704.486E-3	-18.4425E-3
-3.18409E-3	-162.030E-12	674.322E-3	-443.176E-6	-161.936E-12	662.091E-3	-27.2228E-3
-3.18909E-3	-164.165E-12	665.444E-3	2.00983E-3	-161.818E-12	653.790E-3	-31.3811E-3
-3.19410E-3	-164.195E-12	685.854E-3	-4.14951E-3	-162.115E-12	665.201E-3	-23.3221E-3
-3.19910E-3	-164.730E-12	684.655E-3	-8.46799E-3	-161.895E-12	662.102E-3	-2.93377E-3
-3.20410E-3	-166.051E-12	662.038E-3	-30.6045E-3	-162.172E-12	640.880E-3	16.5216E-3
-3.20910E-3	-166.897E-12	664.771E-3	-45.4254E-3	-162.255E-12	640.841E-3	12.3389E-3
-3.21411E-3	-166.579E-12	685.440E-3	-13.2224E-3	-163.661E-12	667.344E-3	-16.4740E-3
-3.21911E-3	-166.888E-12	700.608E-3	4.49376E-3	-163.887E-12	692.430E-3	-55.7029E-3
-3.22411E-3	-167.776E-12	705.777E-3	-18.2530E-3	-163.802E-12	702.187E-3	-56.7137E-3
-3.22911E-3	-167.021E-12	700.701E-3	-33.3505E-3	-164.817E-12	709.559E-3	-13.4689E-3
-3.23412E-3	-167.427E-12	698.952E-3	-36.2456E-3	-166.031E-12	723.325E-3	1.77541E-3
-3.23912E-3	-167.504E-12	718.672E-3	-28.4917E-3	-166.437E-12	708.143E-3	-11.2440E-3
-3.24412E-3	-166.451E-12	731.188E-3	1.46625E-3	-167.216E-12	682.812E-3	10.7244E-3
-3.24912E-3	-166.040E-12	714.116E-3	20.7754E-3	-168.187E-12	690.719E-3	40.5965E-3
-3.25413E-3	-166.530E-12	708.638E-3	11.9439E-3	-168.027E-12	715.935E-3	27.7100E-3
-3.25913E-3	-166.044E-12	706.095E-3	-4.02120E-3	-168.346E-12	724.858E-3	2.96165E-3
-3.26413E-3	-165.467E-12	694.821E-3	-11.5461E-3	-169.023E-12	716.183E-3	-13.0284E-3
-3.26913E-3	-165.787E-12	700.755E-3	-10.8669E-3	-169.737E-12	693.709E-3	-21.4759E-3
-3.27414E-3	-166.087E-12	711.288E-3	-3.43840E-3	-169.454E-12	669.192E-3	-8.78026E-3
-3.27914E-3	-165.847E-12	693.333E-3	3.86640E-3	-168.699E-12	674.836E-3	-1.56110E-3
-3.28414E-3	-165.975E-12	672.806E-3	-6.97573E-3	-170.447E-12	686.146E-3	-20.8967E-3
-3.28914E-3	-167.237E-12	683.027E-3	-6.37155E-3	-170.291E-12	672.438E-3	-53.6998E-3
-3.29415E-3	-167.432E-12	687.943E-3	1.61268E-3	-169.521E-12	676.591E-3	-66.3386E-3
-3.29915E-3	-168.128E-12	697.080E-3	-17.1207E-3	-169.855E-12	692.437E-3	-41.3722E-3
-3.30415E-3	-168.865E-12	695.111E-3	-32.5721E-3	-170.546E-12	701.188E-3	-8.79501E-3
-3.30915E-3	-169.955E-12	665.364E-3	-29.4204E-3	-170.416E-12	707.252E-3	2.43310E-3
-3.31416E-3	-170.064E-12	666.335E-3	-33.4600E-3	-169.762E-12	694.853E-3	-17.3226E-3
-3.31916E-3	-170.957E-12	683.522E-3	-17.0528E-3	-170.862E-12	675.294E-3	-38.0890E-3
-3.32416E-3	-171.500E-12	668.851E-3	20.0554E-3	-170.886E-12	657.612E-3	-25.8781E-3
-3.32916E-3	-172.872E-12	651.663E-3	20.9247E-3	-170.991E-12	649.624E-3	-5.46492E-3
-3.33417E-3	-173.556E-12	682.367E-3	2.70123E-3	-170.627E-12	664.294E-3	-4.51675E-3
-3.33917E-3	-172.868E-12	712.752E-3	9.31615E-3	-170.627E-12	676.523E-3	-30.4114E-3
-3.34417E-3	-173.851E-12	694.827E-3	27.9318E-3	-171.247E-12	668.995E-3	-58.5445E-3
-3.34917E-3	-174.011E-12	670.070E-3	34.4400E-3	-172.042E-12	651.125E-3	-56.0207E-3
-3.35418E-3	-173.130E-12	665.462E-3	34.6766E-3	-172.241E-12	642.493E-3	-33.9452E-3
-3.35918E-3	-172.585E-12	661.240E-3	17.4999E-3	-171.527E-12	666.612E-3	-26.9853E-3
-3.36418E-3	-173.688E-12	656.284E-3	-9.77547E-3	-173.201E-12	686.966E-3	-37.7588E-3
-3.36918E-3	-172.239E-12	652.025E-3	-13.0178E-3	-173.638E-12	681.854E-3	-27.5133E-3
-3.37419E-3	-172.166E-12	652.377E-3	-17.7142E-3	-172.921E-12	696.541E-3	-3.37734E-3
-3.37919E-3	-171.952E-12	683.439E-3	-31.2397E-3	-172.290E-12	709.811E-3	2.41101E-3
-3.38419E-3	-170.986E-12	710.007E-3	-34.1702E-3	-173.717E-12	700.490E-3	-14.0092E-3
-3.38919E-3	-171.424E-12	692.973E-3	-47.9478E-3	-172.923E-12	691.993E-3	-32.8911E-3
-3.39420E-3	-171.732E-12	664.240E-3	-57.4318E-3	-172.740E-12	686.771E-3	-31.3686E-3
-3.39920E-3	-172.013E-12	668.554E-3	-35.7374E-3	-173.070E-12	682.051E-3	-14.5897E-3
-3.40420E-3	-171.570E-12	694.786E-3	-28.3062E-3	-172.379E-12	667.367E-3	4.46992E-3
-3.40920E-3	-173.312E-12	702.003E-3	-36.8330E-3	-172.251E-12	652.906E-3	1.40541E-3
-3.41421E-3	-173.673E-12	702.563E-3	-27.1064E-3	-172.127E-12	664.613E-3	-10.6903E-3
-3.41921E-3	-174.303E-12	718.542E-3	-8.69232E-3	-170.715E-12	687.101E-3	-3.45786E-3
-3.42421E-3	-175.801E-12	718.281E-3	-411.534E-6	-171.603E-12	686.090E-3	-1.45401E-3
-3.42921E-3	-175.883E-12	706.344E-3	10.4592E-3	-172.497E-12	659.873E-3	-15.3380E-3
-3.43422E-3	-176.340E-12	697.295E-3	24.1471E-3	-171.420E-12	659.095E-3	-9.28047E-3
-3.43922E-3	-176.890E-12	673.656E-3	24.0322E-3	-171.100E-12	683.990E-3	14.8091E-3
-3.44422E-3	-178.062E-12	661.369E-3	39.9316E-3	-172.593E-12	675.471E-3	20.0591E-3
-3.44922E-3	-176.379E-12	659.040E-3	47.7383E-3	-172.589E-12	658.010E-3	12.2316E-3
-3.45423E-3	-176.221E-12	666.398E-3	28.0356E-3	-173.031E-12	669.649E-3	3.03515E-3
-3.45923E-3	-176.314E-12	692.870E-3	12.0873E-3	-174.789E-12	687.164E-3	-6.66189E-3
-3.46423E-3	-175.456E-12	698.048E-3	-1.45011E-3	-175.323E-12	709.852E-3	-4.11254E-3
-3.46923E-3	-174.949E-12	692.938E-3	-25.8072E-3	-176.292E-12	702.849E-3	-2.67375E-3
-3.47424E-3	-174.612E-12	694.797E-3	-40.4126E-3	-177.171E-12	656.417E-3	994.446E-6
-3.47924E-3	-174.579E-12	691.887E-3	-15.9695E-3	-178.339E-12	640.146E-3	11.6458E-3
-3.48424E-3	-173.926E-12	683.623E-3	10.8103E-3	-179.022E-12	652.042E-3	3.04198E-3
-3.48924E-3	-174.206E-12	668.098E-3	24.9606E-3	-179.236E-12	657.194E-3	-1.38376E-3
-3.49425E-3	-174.224E-12	662.734E-3	30.2377E-3	-179.603E-12	668.667E-3	-1.06151E-3
-3.49925E-3	-174.536E-12	658.760E-3	11.4396E-3	-179.064E-12	691.260E-3	-10.3326E-3
-3.50425E-3	-175.431E-12	672.419E-3	7.07765E-3	-179.986E-12	706.061E-3	-6.30650E-3
-3.50925E-3	-175.708E-12	704.400E-3	16.4618E-3	-177.898E-12	708.812E-3	-7.40148E-3
-3.51426E-3	-176.966E-12	695.841E-3	-2.92319E-3	-177.770E-12	701.485E-3	-31.8536E-3
-3.51926E-3	-178.651E-12	658.311E-3	-27.5656E-3	-178.112E-12	675.217E-3	-52.4990E-3
-3.52426E-3	-179.149E-12	639.999E-3	-15.7276E-3	-178.226E-12	656.335E-3	-55.8144E-3
-3.52926E-3	-180.693E-12	640.492E-3	608.154E-6	-176.607E-12	659.181E-3	-46.5689E-3
-3.53427E-3	-181.589E-12	649.766E-3	-19.2214E-3	-177.714E-12	656.856E-3	-27.2346E-3
-3.53927E-3	-182.375E-12	676.531E-3	-20.5538E-3	-178.670E-12	649.851E-3	-14.9061E-3
-3.54427E-3	-181.575E-12	697.476E-3	7.69186E-3	-179.001E-12	656.983E-3	-6.11904E-3
-3.54927E-3	-182.534E-12	709.910E-3	-1.97403E-3	-178.657E-12	678.699E-3	12.8013E-3
-3.55428E-3	-182.816E-12	723.800E-3	-21.9766E-3	-179.737E-12	708.307E-3	17.6078E-3
-3.55928E-3	-181.669E-12	719.334E-3	-10.1951E-3	-181.110E-12	720.811E-3	-945.827E-6
-3.56428E-3	-181.973E-12	703.698E-3	16.9589E-3	-181.701E-12	708.128E-3	-21.9836E-3
-3.56928E-3	-181.721E-12	684.179E-3	34.7190E-3	-181.669E-12	710.395E-3	-29.8846E-3
-3.57429E-3	-180.762E-12	665.622E-3	13.6545E-3	-182.897E-12	732.014E-3	-20.5288E-3
-3.57929E-3	-180.883E-12	672.265E-3	-21.1040E-3	-184.554E-12	712.252E-3	-6.77342E-3
-3.58429E-3	-181.802E-12	689.757E-3	-23.8123E-3	-184.529E-12	660.383E-3	8.91945E-3
-3.58929E-3	-180.173E-12	667.463E-3	-30.4452E-3	-183.724E-12	643.569E-3	12.3408E-3
-3.59430E-3	-180.622E-12	635.118E-3	-47.6174E-3	-185.445E-12	640.203E-3	3.26964E-3
-3.59930E-3	-182.748E-12	630.327E-3	-29.9683E-3	-184.915E-12	634.618E-3	-4.09242E-3
-3.60430E-3	-180.986E-12	650.822E-3	-15.5555E-3	-184.403E-12	662.271E-3	-21.5479E-3
-3.60930E-3	-182.078E-12	687.756E-3	-28.2166E-3	-183.834E-12	691.539E-3	-35.4185E-3
-3.61431E-3	-184.068E-12	696.160E-3	-25.1518E-3	-184.191E-12	687.744E-3	-19.2767E-3
-3.61931E-3	-184.071E-12	665.525E-3	-6.94231E-3	-183.658E-12	685.714E-3	5.94034E-3
-3.62431E-3	-183.766E-12	665.728E-3	-14.0233E-3	-183.113E-12	680.057E-3	13.2119E-3
-3.62931E-3	-186.341E-12	693.111E-3	-19.2075E-3	-183.164E-12	662.985E-3	12.1102E-3
-3.63432E-3	-187.171E-12	697.578E-3	1.23694E-3	-183.529E-12	680.171E-3	-2.41615E-3
-3.63932E-3	-186.388E-12	707.026E-3	15.4318E-3	-182.745E-12	704.909E-3	-24.4482E-3
-3.64432E-3	-186.292E-12	691.249E-3	2.51737E-3	-182.546E-12	682.806E-3	-23.0339E-3
-3.64932E-3	-186.521E-12	649.132E-3	-26.3461E-3	-183.009E-12	657.813E-3	-21.5718E-3
-3.65433E-3	-186.894E-12	643.496E-3	-34.2855E-3	-183.246E-12	678.285E-3	-45.7842E-3
-3.65933E-3	-185.341E-12	659.576E-3	-32.2621E-3	-183.455E-12	684.557E-3	-50.4153E-3
-3.66433E-3	-184.793E-12	679.909E-3	-51.5007E-3	-183.721E-12	667.746E-3	-20.0079E-3
-3.66933E-3	-184.653E-12	690.836E-3	-50.9037E-3	-183.902E-12	678.611E-3	-16.3246E-3
-3.67434E-3	-185.325E-12	700.390E-3	-16.9093E-3	-184.922E-12	697.280E-3	-33.7373E-3
-3.67934E-3	-185.073E-12	701.942E-3	-924.595E-6	-184.676E-12	711.246E-3	-23.5611E-3
-3.68434E-3	-184.745E-12	671.552E-3	-19.6369E-3	-185.694E-12	714.309E-3	-8.53698E-3
-3.68934E-3	-184.459E-12	640.655E-3	-37.9876E-3	-185.663E-12	698.386E-3	2.72614E-3
-3.69435E-3	-185.715E-12	634.772E-3	-16.6925E-3	-186.386E-12	670.216E-3	9.62264E-3
-3.69935E-3	-185.598E-12	653.159E-3	10.1167E-3	-186.205E-12	652.239E-3	12.6555E-3
-3.70435E-3	-185.133E-12	686.129E-3	13.6448E-3	-187.111E-12	659.340E-3	7.51892E-3
-3.70935E-3	-185.618E-12	694.982E-3	18.8191E-3	-187.096E-12	664.197E-3	-3.85931E-3
-3.71436E-3	-187.125E-12	664.124E-3	7.70356E-3	-187.844E-12	668.357E-3	6.55307E-3
-3.71936E-3	-186.767E-12	650.069E-3	-27.5836E-3	-188.223E-12	683.955E-3	19.1538E-3
-3.72436E-3	-186.721E-12	670.608E-3	-42.9642E-3	-188.429E-12	684.356E-3	17.8240E-3
-3.72936E-3	-188.055E-12	683.907E-3	-35.8495E-3	-188.350E-12	682.676E-3	8.38138E-3
-3.73437E-3	-188.831E-12	673.517E-3	-19.4025E-3	-188.152E-12	702.016E-3	-880.372E-6
-3.73937E-3	-188.274E-12	662.824E-3	14.6023E-3	-189.012E-12	711.673E-3	-5.66333E-3
-3.74437E-3	-189.423E-12	655.541E-3	26.7559E-3	-188.059E-12	696.486E-3	-25.2799E-3
-3.74937E-3	-190.363E-12	648.179E-3	14.2738E-3	-188.564E-12	684.387E-3	-43.2789E-3
-3.75438E-3	-189.307E-12	651.010E-3	3.01935E-3	-189.628E-12	677.839E-3	-18.0561E-3
-3.75938E-3	-189.381E-12	658.369E-3	-21.8303E-3	-189.274E-12	683.050E-3	9.42233E-3
-3.76438E-3	-191.000E-12	676.479E-3	-41.3183E-3	-187.920E-12	690.727E-3	-35.7208E-3
-3.76938E-3	-190.484E-12	684.783E-3	-27.9925E-3	-189.776E-12	651.685E-3	-87.3661E-3
-3.77439E-3	-189.921E-12	677.147E-3	1.15644E-3	-189.489E-12	617.310E-3	-72.6410E-3
-3.77939E-3	-190.223E-12	692.605E-3	-360.500E-6	-188.890E-12	645.581E-3	-40.1624E-3
-3.78439E-3	-190.578E-12	713.346E-3	-8.79214E-3	-189.486E-12	659.565E-3	-23.2758E-3
-3.78939E-3	-190.441E-12	694.700E-3	4.04609E-3	-190.164E-12	651.235E-3	-7.88089E-3
-3.79440E-3	-190.389E-12	665.741E-3	-5.10607E-3	-191.220E-12	655.013E-3	2.53544E-3
-3.79940E-3	-190.509E-12	673.184E-3	-12.7141E-3	-191.055E-12	631.869E-3	4.39059E-3
-3.80440E-3	-191.136E-12	673.166E-3	-12.0980E-3	-191.862E-12	613.634E-3	8.23744E-3
-3.80940E-3	-191.857E-12	653.282E-3	-37.8471E-3	-193.186E-12	629.587E-3	5.97134E-3
-3.81441E-3	-191.759E-12	673.907E-3	-45.0763E-3	-193.817E-12	632.377E-3	-8.92436E-3
-3.81941E-3	-192.077E-12	687.612E-3	-23.4722E-3	-193.258E-12	639.241E-3	-26.9497E-3
-3.82441E-3	-193.000E-12	657.448E-3	-9.33452E-3	-192.901E-12	672.068E-3	-45.6291E-3
-3.82941E-3	-193.137E-12	672.540E-3	-3.41608E-3	-193.873E-12	683.773E-3	-55.6626E-3
-3.83442E-3	-193.565E-12	720.018E-3	-4.12392E-3	-193.722E-12	692.631E-3	-35.6175E-3
-3.83942E-3	-194.714E-12	730.357E-3	-5.83272E-3	-192.873E-12	716.453E-3	-17.2629E-3
-3.84442E-3	-194.180E-12	708.870E-3	10.9105E-3	-192.526E-12	710.486E-3	-23.4373E-3
-3.84942E-3	-195.726E-12	668.158E-3	19.6427E-3	-194.374E-12	694.507E-3	-29.8046E-3
-3.85443E-3	-197.434E-12	649.731E-3	-13.0817E-3	-193.577E-12	699.716E-3	-38.0809E-3
-3.85943E-3	-195.428E-12	675.765E-3	-39.9345E-3	-192.545E-12	703.766E-3	-49.2462E-3
-3.86443E-3	-196.523E-12	703.277E-3	-51.1752E-3	-194.062E-12	703.727E-3	-42.2409E-3
-3.86943E-3	-197.844E-12	708.832E-3	-48.8458E-3	-195.036E-12	697.600E-3	-23.7620E-3
-3.87444E-3	-196.711E-12	697.038E-3	-32.9890E-3	-194.409E-12	691.890E-3	-26.1719E-3
-3.87944E-3	-195.768E-12	677.341E-3	-29.9879E-3	-194.319E-12	694.672E-3	-18.9043E-3
-3.88444E-3	-196.357E-12	662.920E-3	-29.8118E-3	-195.190E-12	708.485E-3	10.1902E-3
-3.88944E-3	-194.912E-12	667.276E-3	-13.2821E-3	-196.997E-12	713.318E-3	-7.71504E-3
-3.89445E-3	-193.329E-12	683.232E-3	21.9413E-3	-196.921E-12	687.807E-3	-34.1759E-3
-3.89945E-3	-194.421E-12	680.448E-3	17.8371E-3	-198.197E-12	685.871E-3	-21.6379E-3
-3.90445E-3	-194.710E-12	673.898E-3	-35.1211E-3	-199.268E-12	710.378E-3	-14.9969E-3
-3.90945E-3	-193.368E-12	685.184E-3	-50.0471E-3	-199.219E-12	718.758E-3	-4.23155E-3
-3.91446E-3	-193.522E-12	682.520E-3	-28.7333E-3	-199.727E-12	709.715E-3	22.2120E-3
-3.91946E-3	-194.435E-12	676.229E-3	-22.9985E-3	-199.325E-12	691.870E-3	4.58734E-3
-3.92446E-3	-195.434E-12	676.001E-3	-4.10370E-3	-200.209E-12	671.369E-3	-26.0432E-3
-3.92946E-3	-195.745E-12	666.173E-3	7.22622E-3	-200.170E-12	665.615E-3	-11.2023E-3
-3.93447E-3	-196.312E-12	664.737E-3	-30.4287E-3	-199.080E-12	660.273E-3	-7.04652E-3
-3.93947E-3	-197.168E-12	670.867E-3	-46.4109E-3	-198.745E-12	636.813E-3	-19.8852E-3
-3.94447E-3	-199.299E-12	669.836E-3	-19.3188E-3	-199.313E-12	640.058E-3	-18.4433E-3
-3.94947E-3	-199.902E-12	671.823E-3	-10.0356E-3	-197.518E-12	668.120E-3	-22.5492E-3
-3.95448E-3	-199.823E-12	677.145E-3	-10.1321E-3	-197.070E-12	681.209E-3	-28.4429E-3
-3.95948E-3	-202.188E-12	675.094E-3	-1.34123E-3	-197.963E-12	689.634E-3	-14.4287E-3
-3.96448E-3	-201.639E-12	675.622E-3	-32.1734E-3	-197.380E-12	691.961E-3	2.48897E-3
-3.96948E-3	-201.115E-12	681.756E-3	-81.0596E-3	-197.441E-12	667.828E-3	12.2135E-3
-3.97449E-3	-200.566E-12	674.705E-3	-73.1823E-3	-197.803E-12	654.697E-3	5.44231E-3
-3.97949E-3	-200.751E-12	647.376E-3	-26.2974E-3	-198.045E-12	673.971E-3	-21.5440E-3
-3.98449E-3	-199.480E-12	641.912E-3	-12.3367E-3	-199.186E-12	669.958E-3	-24.2730E-3
-3.98949E-3	-198.478E-12	656.593E-3	-24.4719E-3	-200.704E-12	653.845E-3	3.83435E-3
-3.99450E-3	-197.802E-12	661.818E-3	-23.9488E-3	-199.986E-12	661.816E-3	13.4156E-3
-3.99950E-3	-198.126E-12	665.496E-3	-11.5877E-3	-200.883E-12	657.760E-3	16.2418E-3
-4.00450E-3	-196.792E-12	672.754E-3	-3.07109E-3	-201.024E-12	667.470E-3	30.2268E-3
-4.00950E-3	-196.661E-12	649.020E-3	-13.8005E-3	-201.788E-12	696.697E-3	20.7112E-3
-4.01451E-3	-197.755E-12	613.567E-3	-29.8019E-3	-201.737E-12	671.660E-3	5.11335E-3
-4.01951E-3	-198.747E-12	629.897E-3	-27.4502E-3	-200.408E-12	636.652E-3	19.3370E-3
-4.02451E-3	-198.140E-12	660.253E-3	-9.20497E-3	-201.017E-12	651.050E-3	11.6657E-3
-4.02951E-3	-199.741E-12	689.381E-3	-9.32862E-3	-200.597E-12	670.902E-3	-26.0746E-3
-4.03452E-3	-200.373E-12	724.345E-3	-27.8807E-3	-199.792E-12	674.503E-3	-28.0990E-3
-4.03952E-3	-201.955E-12	741.498E-3	-36.3083E-3	-199.382E-12	681.178E-3	-13.4777E-3
-4.04452E-3	-202.934E-12	728.031E-3	-35.4603E-3	-199.664E-12	687.386E-3	-19.5481E-3
-4.04952E-3	-203.347E-12	686.505E-3	-22.1432E-3	-199.274E-12	671.977E-3	-33.3624E-3
-4.05453E-3	-204.045E-12	644.848E-3	3.45881E-3	-198.789E-12	668.991E-3	-42.3475E-3
-4.05953E-3	-205.664E-12	650.265E-3	1.91183E-3	-199.695E-12	680.998E-3	-55.1844E-3
-4.06453E-3	-205.485E-12	695.161E-3	-24.4655E-3	-199.735E-12	666.260E-3	-56.4101E-3
-4.06953E-3	-205.802E-12	696.087E-3	-26.6655E-3	-199.458E-12	654.241E-3	-37.3210E-3
-4.07454E-3	-206.064E-12	667.716E-3	-20.1736E-3	-200.760E-12	647.625E-3	-29.8702E-3
-4.07954E-3	-205.949E-12	667.179E-3	-19.8470E-3	-202.213E-12	644.933E-3	-20.7091E-3
-4.08454E-3	-204.824E-12	668.801E-3	-16.2912E-3	-201.773E-12	673.166E-3	-6.79258E-3
-4.08954E-3	-204.908E-12	659.787E-3	-27.4826E-3	-202.841E-12	688.947E-3	-29.2181E-3
-4.09455E-3	-205.611E-12	648.455E-3	-42.1841E-3	-204.333E-12	660.031E-3	-54.7006E-3
-4.09955E-3	-203.970E-12	648.064E-3	-28.7266E-3	-204.620E-12	650.395E-3	-36.5591E-3
-4.10455E-3	-203.775E-12	669.022E-3	6.92858E-3	-206.103E-12	673.818E-3	-11.4325E-3
-4.10955E-3	-204.318E-12	683.396E-3	31.8944E-3	-207.037E-12	674.499E-3	-5.18628E-3
-4.11456E-3	-204.152E-12	691.192E-3	35.0761E-3	-205.250E-12	655.842E-3	-5.15728E-3
-4.11956E-3	-204.018E-12	701.580E-3	19.8252E-3	-207.716E-12	636.770E-3	-32.3590E-3
-4.12456E-3	-205.773E-12	688.128E-3	-10.4373E-3	-208.385E-12	641.513E-3	-52.2339E-3
-4.12956E-3	-206.237E-12	672.039E-3	-33.0235E-3	-206.604E-12	677.532E-3	-6.14135E-3
-4.13457E-3	-206.168E-12	691.806E-3	-39.7192E-3	-208.079E-12	697.363E-3	29.0477E-3
-4.13957E-3	-208.502E-12	714.971E-3	-34.7570E-3	-210.257E-12	668.197E-3	10.3010E-3
-4.14457E-3	-209.088E-12	703.611E-3	-21.0320E-3	-208.212E-12	645.395E-3	-14.5426E-3
-4.14957E-3	-209.611E-12	688.534E-3	-18.7174E-3	-207.974E-12	679.108E-3	-27.5229E-3
-4.15458E-3	-211.768E-12	687.844E-3	-28.6730E-3	-209.581E-12	685.054E-3	-28.7027E-3
-4.15958E-3	-211.340E-12	685.267E-3	-424.900E-6	-210.471E-12	652.808E-3	-4.87068E-3
-4.16458E-3	-211.692E-12	685.742E-3	23.8851E-3	-209.480E-12	640.604E-3	16.7769E-3
-4.16958E-3	-212.322E-12	695.828E-3	10.0655E-3	-209.666E-12	634.790E-3	-13.4778E-3
-4.17459E-3	-212.376E-12	700.569E-3	11.0061E-3	-211.088E-12	652.014E-3	-44.0778E-3
-4.17959E-3	-212.319E-12	684.476E-3	8.13942E-3	-210.162E-12	696.413E-3	-30.7854E-3
-4.18459E-3	-211.859E-12	673.827E-3	4.58746E-3	-211.180E-12	709.064E-3	-698.068E-6
-4.18959E-3	-210.611E-12	676.770E-3	1.36584E-3	-211.158E-12	683.883E-3	18.7928E-3
-4.19460E-3	-211.583E-12	675.860E-3	-21.6681E-3	-211.200E-12	668.221E-3	3.26741E-3
-4.19960E-3	-211.787E-12	672.973E-3	-27.2802E-3	-211.804E-12	663.114E-3	-38.6124E-3
-4.20460E-3	-210.526E-12	669.883E-3	-24.4309E-3	-212.540E-12	648.877E-3	-47.5761E-3
-4.20960E-3	-210.628E-12	665.488E-3	-32.9959E-3	-212.331E-12	641.965E-3	-27.9080E-3
-4.21461E-3	-211.648E-12	653.668E-3	-30.1568E-3	-213.124E-12	661.866E-3	-20.3028E-3
-4.21961E-3	-210.554E-12	632.354E-3	-10.2802E-3	-213.242E-12	663.980E-3	-2.85017E-3
-4.22461E-3	-209.731E-12	647.104E-3	-8.53807E-3	-213.257E-12	640.488E-3	16.1911E-3
-4.22961E-3	-210.792E-12	681.399E-3	-22.3969E-3	-214.358E-12	646.759E-3	-372.995E-6
-4.23462E-3	-211.156E-12	680.849E-3	-16.9584E-3	-214.459E-12	663.450E-3	-24.9065E-3
-4.23962E-3	-209.329E-12	683.529E-3	-14.7933E-3	-214.595E-12	671.706E-3	-4.69782E-3
-4.24462E-3	-209.452E-12	703.157E-3	-13.6821E-3	-214.004E-12	687.091E-3	19.8875E-3
-4.24962E-3	-211.161E-12	705.262E-3	-6.30366E-3	-214.709E-12	696.607E-3	17.8529E-3
-4.25463E-3	-211.454E-12	686.511E-3	-22.6226E-3	-214.246E-12	704.592E-3	12.6659E-3
-4.25963E-3	-210.234E-12	663.452E-3	-50.2856E-3	-213.394E-12	693.602E-3	1.60132E-3
-4.26463E-3	-211.349E-12	659.756E-3	-49.0501E-3	-213.224E-12	652.905E-3	-13.3213E-3
-4.26963E-3	-212.136E-12	675.001E-3	-3.63144E-3	-213.437E-12	638.683E-3	-24.1882E-3
-4.27464E-3	-211.373E-12	665.803E-3	24.9219E-3	-212.193E-12	630.237E-3	-43.1924E-3
-4.27964E-3	-210.968E-12	641.512E-3	8.29589E-3	-211.024E-12	617.625E-3	-46.1722E-3
-4.28464E-3	-211.743E-12	647.552E-3	7.65148E-3	-212.726E-12	643.084E-3	-6.37561E-3
-4.28964E-3	-212.319E-12	659.582E-3	3.15941E-3	-212.858E-12	667.516E-3	12.7494E-3
-4.29465E-3	-211.642E-12	671.724E-3	-12.1640E-3	-211.675E-12	662.317E-3	-8.65642E-3
-4.29965E-3	-211.198E-12	690.458E-3	14.8714E-3	-212.939E-12	664.091E-3	-25.8438E-3
-4.30465E-3	-211.844E-12	659.845E-3	15.6139E-3	-213.878E-12	684.325E-3	-19.9135E-3
-4.30965E-3	-213.068E-12	625.043E-3	-20.0082E-3	-213.995E-12	694.718E-3	-15.0456E-3
-4.31466E-3	-212.106E-12	622.417E-3	-20.6260E-3	-214.602E-12	675.786E-3	8.43401E-3
-4.31966E-3	-211.472E-12	608.128E-3	-32.5798E-3	-215.011E-12	650.549E-3	45.5919E-3
-4.32466E-3	-212.767E-12	617.595E-3	-53.0007E-3	-215.881E-12	653.363E-3	31.5924E-3
-4.32966E-3	-212.571E-12	632.200E-3	-33.6902E-3	-215.466E-12	672.894E-3	17.9385E-3
-4.33467E-3	-210.678E-12	631.008E-3	-10.0226E-3	-216.121E-12	673.297E-3	31.2951E-3
-4.33967E-3	-211.008E-12	645.925E-3	-8.45176E-3	-217.015E-12	660.376E-3	16.2834E-3
-4.34467E-3	-211.457E-12	662.197E-3	-14.8673E-3	-216.267E-12	672.281E-3	-7.13117E-3
-4.34967E-3	-211.586E-12	658.703E-3	-9.77657E-3	-215.866E-12	679.341E-3	-16.0197E-3
-4.35468E-3	-212.497E-12	628.708E-3	8.15778E-3	-216.185E-12	657.706E-3	-26.4656E-3
-4.35968E-3	-214.879E-12	624.630E-3	13.8616E-3	-215.442E-12	645.580E-3	-38.9236E-3
-4.36468E-3	-214.716E-12	637.865E-3	1.30993E-3	-212.848E-12	654.822E-3	-55.2045E-3
-4.36968E-3	-216.517E-12	645.794E-3	-8.08835E-3	-214.525E-12	657.371E-3	-55.3479E-3
-4.37469E-3	-217.225E-12	666.486E-3	295.044E-6	-215.010E-12	630.694E-3	-33.7546E-3
-4.37969E-3	-219.358E-12	686.444E-3	7.04010E-3	-213.233E-12	614.918E-3	-8.85657E-3
-4.38469E-3	-220.349E-12	693.997E-3	-15.1332E-3	-213.846E-12	643.715E-3	12.0535E-3
-4.38969E-3	-220.232E-12	699.690E-3	-30.8872E-3	-214.803E-12	675.500E-3	8.37692E-3
-4.39470E-3	-220.948E-12	697.774E-3	-18.5737E-3	-215.393E-12	674.406E-3	-7.86310E-3
-4.39970E-3	-222.007E-12	663.379E-3	-11.2376E-3	-214.645E-12	662.225E-3	-19.1866E-3
-4.40470E-3	-222.145E-12	660.342E-3	-19.9665E-3	-216.843E-12	651.781E-3	-45.1973E-3
-4.40970E-3	-222.235E-12	701.240E-3	-27.1749E-3	-218.078E-12	648.187E-3	-71.9584E-3
-4.41471E-3	-221.731E-12	720.938E-3	-26.0898E-3	-219.017E-12	657.912E-3	-63.1796E-3
-4.41971E-3	-221.247E-12	705.520E-3	-23.4052E-3	-219.412E-12	648.933E-3	-22.7169E-3
-4.42471E-3	-221.369E-12	689.237E-3	-23.1184E-3	-221.377E-12	629.407E-3	17.3218E-3
-4.42971E-3	-220.456E-12	687.449E-3	-40.9772E-3	-222.654E-12	638.020E-3	16.7228E-3
-4.43472E-3	-219.299E-12	696.585E-3	-44.3682E-3	-222.420E-12	667.332E-3	-16.9779E-3
-4.43972E-3	-221.054E-12	703.209E-3	-5.83596E-3	-222.658E-12	694.339E-3	-29.7152E-3
-4.44472E-3	-220.591E-12	699.556E-3	7.95282E-3	-224.284E-12	708.853E-3	-25.7015E-3
-4.44972E-3	-219.417E-12	695.409E-3	797.197E-6	-223.369E-12	672.132E-3	-15.1887E-3
-4.45473E-3	-220.821E-12	679.746E-3	34.5691E-3	-221.736E-12	616.549E-3	2.51059E-3
-4.45973E-3	-222.910E-12	660.916E-3	32.6578E-3	-222.653E-12	625.099E-3	-11.5972E-3
-4.46473E-3	-222.709E-12	668.817E-3	-13.8902E-3	-222.253E-12	648.860E-3	-47.4083E-3
-4.46973E-3	-223.540E-12	677.607E-3	-26.0646E-3	-221.726E-12	647.660E-3	-46.7304E-3
-4.47474E-3	-224.667E-12	653.797E-3	-22.1454E-3	-221.136E-12	662.684E-3	-25.1537E-3
-4.47974E-3	-226.442E-12	663.262E-3	-15.6792E-3	-221.178E-12	672.691E-3	-15.5159E-3
-4.48474E-3	-226.875E-12	708.167E-3	3.15749E-3	-221.326E-12	675.451E-3	3.59567E-3
-4.48974E-3	-226.637E-12	706.270E-3	26.3993E-3	-221.416E-12	706.190E-3	22.4875E-3
-4.49475E-3	-227.048E-12	684.756E-3	12.3559E-3	-222.016E-12	727.497E-3	8.48222E-3
-4.49975E-3	-226.015E-12	673.171E-3	-20.5973E-3	-221.567E-12	716.912E-3	-5.29185E-3
-4.50475E-3	-225.054E-12	644.318E-3	-26.4879E-3	-222.656E-12	690.062E-3	11.3588E-3
-4.50975E-3	-223.921E-12	642.725E-3	-20.5477E-3	-222.937E-12	652.693E-3	8.82430E-3
-4.51476E-3	-223.719E-12	654.053E-3	14.8476E-3	-223.094E-12	626.498E-3	-9.06672E-3
-4.51976E-3	-222.621E-12	620.670E-3	44.2077E-3	-224.206E-12	633.657E-3	-15.4476E-3
-4.52476E-3	-221.705E-12	619.854E-3	10.6619E-3	-224.287E-12	641.655E-3	-41.7908E-3
-4.52976E-3	-221.674E-12	678.155E-3	-32.3104E-3	-224.764E-12	629.763E-3	-60.7541E-3
-4.53477E-3	-222.235E-12	688.506E-3	-8.61106E-3	-225.160E-12	642.880E-3	-28.1529E-3
-4.53977E-3	-222.024E-12	645.807E-3	34.9683E-3	-225.831E-12	695.512E-3	1.89062E-3
-4.54477E-3	-222.688E-12	653.505E-3	8.40918E-3	-226.168E-12	730.636E-3	2.58546E-3
-4.54977E-3	-222.191E-12	682.152E-3	-27.2185E-3	-226.512E-12	728.876E-3	-13.7377E-3
-4.55478E-3	-223.234E-12	668.952E-3	-3.86457E-3	-226.791E-12	708.348E-3	-33.0250E-3
-4.55978E-3	-224.587E-12	668.206E-3	17.6068E-3	-226.989E-12	685.672E-3	-10.4269E-3
-4.56478E-3	-224.296E-12	688.272E-3	13.9373E-3	-227.404E-12	685.970E-3	24.9519E-3
-4.56978E-3	-224.214E-12	674.376E-3	7.01518E-3	-226.599E-12	679.703E-3	6.16192E-3
-4.57479E-3	-225.449E-12	672.104E-3	-37.6155E-3	-226.362E-12	650.192E-3	-11.6060E-3
-4.57979E-3	-226.745E-12	692.088E-3	-68.2482E-3	-225.871E-12	657.426E-3	-6.12372E-3
-4.58479E-3	-226.748E-12	659.496E-3	-30.9046E-3	-225.033E-12	678.760E-3	-33.1425E-3
-4.58979E-3	-225.150E-12	619.349E-3	-11.7321E-3	-224.003E-12	648.400E-3	-42.4136E-3
-4.59480E-3	-226.754E-12	638.925E-3	-27.1961E-3	-224.700E-12	619.996E-3	-5.56837E-3
-4.59980E-3	-227.157E-12	660.557E-3	-3.49398E-3	-226.076E-12	640.464E-3	3.95121E-3
-4.60480E-3	-226.083E-12	654.266E-3	707.511E-6	-226.216E-12	650.991E-3	-16.3938E-3
-4.60980E-3	-224.982E-12	662.594E-3	-24.8053E-3	-225.812E-12	650.490E-3	-12.2383E-3
-4.61481E-3	-227.201E-12	655.742E-3	-7.60897E-3	-227.643E-12	681.838E-3	-7.89552E-3
-4.61981E-3	-226.262E-12	649.864E-3	11.1137E-3	-228.017E-12	698.237E-3	-4.86310E-3
-4.62481E-3	-224.588E-12	695.649E-3	-2.23880E-3	-228.594E-12	692.652E-3	1.25996E-3
-4.62981E-3	-226.168E-12	712.048E-3	-39.8087E-3	-229.045E-12	686.295E-3	-34.7054E-3
-4.63482E-3	-227.545E-12	664.004E-3	-61.6911E-3	-229.402E-12	661.390E-3	-76.4242E-3
-4.63982E-3	-226.743E-12	638.870E-3	-39.9041E-3	-231.027E-12	674.116E-3	-61.1221E-3
-4.64482E-3	-226.623E-12	645.877E-3	-16.4176E-3	-231.011E-12	711.841E-3	-32.6645E-3
-4.64982E-3	-228.481E-12	635.833E-3	-6.69630E-3	-232.159E-12	677.199E-3	-14.0490E-3
-4.65483E-3	-229.306E-12	629.563E-3	810.834E-6	-232.719E-12	633.003E-3	22.3285E-3
-4.65983E-3	-229.304E-12	637.587E-3	14.5879E-3	-232.398E-12	657.991E-3	9.79993E-3
-4.66483E-3	-231.035E-12	644.700E-3	44.1548E-3	-233.058E-12	687.396E-3	-40.8954E-3
-4.66983E-3	-232.480E-12	669.051E-3	45.6078E-3	-232.943E-12	679.313E-3	-16.0528E-3
-4.67484E-3	-231.721E-12	700.889E-3	14.8327E-3	-232.119E-12	675.630E-3	37.0512E-3
-4.67984E-3	-232.276E-12	685.307E-3	-12.3843E-3	-231.493E-12	665.060E-3	7.29399E-3
-4.68484E-3	-232.437E-12	637.549E-3	-42.0127E-3	-231.047E-12	624.661E-3	-50.5734E-3
-4.68984E-3	-232.247E-12	631.945E-3	-43.2549E-3	-229.382E-12	626.903E-3	-65.2564E-3
-4.69485E-3	-234.030E-12	664.948E-3	-19.7166E-3	-228.831E-12	669.984E-3	-72.2527E-3
-4.69985E-3	-234.006E-12	697.157E-3	-25.2245E-3	-229.158E-12	675.090E-3	-87.9267E-3
-4.70485E-3	-234.432E-12	717.711E-3	-25.3113E-3	-229.042E-12	680.919E-3	-63.0389E-3
-4.70985E-3	-235.892E-12	718.210E-3	-762.372E-6	-228.391E-12	706.802E-3	-45.7907E-3
-4.71486E-3	-236.450E-12	722.383E-3	-1.81440E-3	-228.655E-12	697.693E-3	-55.0958E-3
-4.71986E-3	-235.234E-12	710.138E-3	-7.56865E-3	-229.781E-12	700.802E-3	-7.58265E-3
-4.72486E-3	-236.010E-12	663.639E-3	7.98018E-3	-229.008E-12	721.955E-3	16.7987E-3
-4.72986E-3	-236.544E-12	643.997E-3	17.0971E-3	-231.585E-12	701.402E-3	-10.1166E-3
-4.73487E-3	-235.531E-12	659.955E-3	17.7760E-3	-232.664E-12	699.543E-3	4.83100E-3
-4.73987E-3	-235.407E-12	672.840E-3	12.8943E-3	-233.835E-12	722.893E-3	23.5793E-3
-4.74487E-3	-235.721E-12	679.951E-3	7.30264E-3	-233.350E-12	702.481E-3	16.4026E-3
-4.74988E-3	-235.264E-12	668.022E-3	3.08387E-3	-235.798E-12	681.811E-3	15.0923E-3
-4.75488E-3	-235.730E-12	640.413E-3	-5.17683E-3	-237.226E-12	667.732E-3	-18.7358E-3
-4.75988E-3	-235.914E-12	657.894E-3	-9.01924E-3	-237.588E-12	631.111E-3	-66.6971E-3
-4.76488E-3	-236.495E-12	713.023E-3	11.7148E-3	-237.165E-12	612.246E-3	-52.0492E-3
-4.76988E-3	-237.008E-12	717.017E-3	50.1040E-3	-237.865E-12	600.643E-3	-23.6743E-3
-4.77489E-3	-237.157E-12	709.069E-3	51.4775E-3	-237.962E-12	601.994E-3	-25.1376E-3
-4.77989E-3	-237.281E-12	739.465E-3	22.1762E-3	-237.124E-12	637.243E-3	-13.2084E-3
-4.78489E-3	-237.991E-12	712.510E-3	12.6116E-3	-234.612E-12	657.972E-3	1.01257E-3
-4.78989E-3	-239.979E-12	649.311E-3	4.13056E-3	-236.652E-12	654.200E-3	-8.00152E-3
-4.79490E-3	-239.384E-12	633.441E-3	8.12402E-3	-235.821E-12	651.123E-3	8.40665E-3
-4.79990E-3	-240.479E-12	637.926E-3	3.87838E-3	-232.964E-12	651.049E-3	24.0027E-3
-4.80490E-3	-240.207E-12	641.565E-3	-9.89776E-3	-234.491E-12	643.576E-3	-3.35522E-3
-4.80990E-3	-240.682E-12	644.394E-3	24.1053E-3	-235.395E-12	638.854E-3	-15.3265E-3
-4.81491E-3	-240.353E-12	673.151E-3	51.7235E-3	-234.155E-12	654.853E-3	-25.3553E-3
-4.81991E-3	-240.297E-12	714.730E-3	14.4555E-3	-233.969E-12	670.957E-3	-72.9369E-3
-4.82491E-3	-239.527E-12	730.906E-3	-22.9099E-3	-236.655E-12	661.211E-3	-60.6515E-3
-4.82991E-3	-238.598E-12	709.894E-3	-3.54466E-3	-236.501E-12	677.533E-3	23.1686E-3
-4.83492E-3	-238.478E-12	683.471E-3	11.2162E-3	-237.467E-12	733.618E-3	54.5070E-3
-4.83992E-3	-235.952E-12	687.999E-3	-2.89025E-3	-238.841E-12	741.599E-3	44.0817E-3
-4.84492E-3	-235.140E-12	677.399E-3	10.1392E-3	-238.769E-12	701.522E-3	24.8088E-3
-4.84992E-3	-235.379E-12	647.205E-3	24.8226E-3	-239.512E-12	686.972E-3	-9.36151E-3
-4.85493E-3	-233.265E-12	656.411E-3	-787.580E-6	-240.256E-12	700.078E-3	-27.7011E-3
-4.85993E-3	-233.767E-12	671.485E-3	-32.8024E-3	-241.086E-12	725.587E-3	-37.3416E-3
-4.86493E-3	-234.495E-12	656.685E-3	-35.3522E-3	-241.620E-12	751.917E-3	-35.4903E-3
-4.86993E-3	-234.912E-12	665.014E-3	-7.70353E-3	-242.740E-12	747.873E-3	1.04550E-3
-4.87494E-3	-234.101E-12	662.091E-3	17.0846E-3	-242.092E-12	693.076E-3	35.1615E-3
-4.87994E-3	-236.217E-12	615.040E-3	-6.00865E-3	-242.851E-12	658.682E-3	26.1155E-3
-4.88494E-3	-238.420E-12	613.072E-3	-51.0453E-3	-243.302E-12	661.892E-3	4.36739E-3
-4.88995E-3	-238.058E-12	651.590E-3	-41.6993E-3	-242.539E-12	665.489E-3	-8.05393E-3
-4.89495E-3	-238.836E-12	660.128E-3	-12.3017E-3	-242.240E-12	674.950E-3	-20.2358E-3
-4.89995E-3	-240.576E-12	645.091E-3	-11.5417E-3	-241.424E-12	663.718E-3	-14.8968E-3
-4.90495E-3	-241.374E-12	621.693E-3	-15.7360E-3	-242.216E-12	670.432E-3	5.71467E-3
-4.90995E-3	-240.725E-12	620.243E-3	-36.7716E-3	-240.902E-12	686.028E-3	-13.8277E-3
-4.91496E-3	-243.657E-12	645.473E-3	-74.0002E-3	-241.679E-12	661.628E-3	-40.6989E-3
-4.91996E-3	-242.566E-12	668.486E-3	-71.5103E-3	-241.874E-12	653.010E-3	-23.5875E-3
-4.92496E-3	-242.054E-12	674.260E-3	-28.9846E-3	-241.517E-12	668.827E-3	-5.43647E-3
-4.92996E-3	-240.648E-12	668.339E-3	-13.7636E-3	-241.288E-12	651.096E-3	-1.79055E-3
-4.93497E-3	-241.276E-12	701.725E-3	-19.3311E-3	-241.771E-12	631.241E-3	6.32721E-3
-4.93997E-3	-240.903E-12	725.829E-3	7.39517E-3	-241.559E-12	638.488E-3	-8.37835E-3
-4.94497E-3	-240.548E-12	699.515E-3	31.7557E-3	-242.003E-12	629.248E-3	-27.7209E-3
-4.94997E-3	-239.406E-12	676.044E-3	32.2300E-3	-242.699E-12	623.496E-3	-13.0381E-3
-4.95498E-3	-238.929E-12	654.571E-3	24.1828E-3	-242.793E-12	637.092E-3	-7.13945E-3
-4.95998E-3	-239.832E-12	637.232E-3	-20.6555E-3	-243.939E-12	628.453E-3	-20.3957E-3
-4.96498E-3	-240.955E-12	643.450E-3	-66.0596E-3	-244.904E-12	642.591E-3	-24.1411E-3
-4.96998E-3	-239.432E-12	664.276E-3	-54.8670E-3	-245.622E-12	689.713E-3	-8.35609E-3
-4.97499E-3	-241.713E-12	662.267E-3	-30.3970E-3	-246.162E-12	670.176E-3	2.47782E-3
-4.97999E-3	-244.003E-12	656.787E-3	-19.8424E-3	-246.366E-12	616.921E-3	-5.43195E-3
-4.98499E-3	-243.500E-12	689.143E-3	-3.52438E-3	-246.507E-12	627.825E-3	2.29893E-3
-4.98999E-3	-244.492E-12	720.844E-3	-7.73641E-3	-247.493E-12	639.975E-3	15.8607E-3
-4.99500E-3	-247.065E-12	713.410E-3	-39.6302E-3	-246.755E-12	637.121E-3	-2.05396E-3
-5.00000E-3	-247.013E-12	682.364E-3	-59.6660E-3	-246.551E-12	656.852E-3	-41.6804E-3
