Experiment	bias spectroscopy	
Date	19.01.2016 19:31:44	
User		
X (m)	49.9648E-9	
Y (m)	256.429E-9	
Z (m)	-132.569E-9	
Z offset (m)	0E+0	
Settling time (s)	200E-6	
Integration time (s)	5E-3	
Z-Ctrl hold	TRUE	
Final Z (m)	N/A	
Filter type	None	
Order		
Cutoff frq		
Comment01	MnPc/Pb(111)	
Comment02	dz =00pm	
Comment03	7 Sweeps	
Comment04	MagField =0.T	
Comment05	Divider 1:10	
Comment06	Setpoint:5mV,200 pA	
Comment07	Lockin: 50uVrms,5ms,5mV	
Comment08	Gain:9; 912Hz modulation	
Comment09	T=1.06K	
Bias>Bias (V)	5E-3	
Bias>Calibration (V/V)	81.475E-3	
Bias>Offset (V)	1.046E-3	
Bias Spectroscopy>Sweep Start (V)	5E-3	
Bias Spectroscopy>Sweep End (V)	-5E-3	
Bias Spectroscopy>Num Pixel	2000	
Bias Spectroscopy>Z Avg time (s)	500E-3	
Bias Spectroscopy>Z offset (m)	0E+0	
Bias Spectroscopy>1st Settling time (s)	500E-3	
Bias Spectroscopy>Settling time (s)	200E-6	
Bias Spectroscopy>Integration time (s)	5E-3	
Bias Spectroscopy>End Settling time (s)	500E-3	
Bias Spectroscopy>Z control time (s)	500E-3	
Bias Spectroscopy>Max Slew rate (V/s)	Inf	
Bias Spectroscopy>backward sweep	TRUE	
Bias Spectroscopy>Z-controller hold	TRUE	
Bias Spectroscopy>Number of sweeps	7	
Bias Spectroscopy>Channels	Current (A);X% LockIn (V);Y% LockIn (V)	
Bias Spectroscopy>Reset Bias	TRUE	
Bias Spectroscopy>Record final Z	FALSE	
Bias Spectroscopy>Lock-In run	FALSE	
Bias Spectroscopy>Sweep mode	Linear	
Bias Spectroscopy>MultiLine Settings : Segment Start (V), Segment End (V), Settling (s), Integration (s), Steps (xn)	100E-3,3.3E-3,100E-6,10E-3,2500;3.3E-3,-3.3E-3,100E-6,10E-3,10;-3.3E-3,-100E-3,100E-6,10E-3,2500	
Current>Current (A)	200.171E-12	
Current>Calibration (A/V)	999.99900E-12	
Current>Offset (A)	-455.429E-15	
Current>Gain	LN 10^9	
Z-Controller>Z (m)	-132.569E-9	
Z-Controller>Controller name	log Current	
Z-Controller>Controller status	ON	
Z-Controller>Setpoint	200E-12	
Z-Controller>Setpoint unit	A	
Z-Controller>P gain	2.96994E-12	
Z-Controller>I gain	67.0321E-9	
Z-Controller>Time const (s)	44.3062E-6	
Z-Controller>TipLift (m)	0E+0	
Z-Controller>Switch off delay (s)	50E-3	
Current (A)	199.931E-12	
Z (m)	-132.569E-9	

[DATA]
Bias calc (V)	Current (A)	X% LockIn (V)	Y% LockIn (V)	Current [bwd] (A)	X% LockIn [bwd] (V)	Y% LockIn [bwd] (V)
5.00000E-3	198.276E-12	583.651E-3	-10.5845E-3	200.271E-12	572.285E-3	-30.3229E-3
4.99500E-3	197.656E-12	618.742E-3	20.0671E-3	200.322E-12	583.339E-3	-39.3324E-3
4.98999E-3	197.991E-12	617.807E-3	28.9127E-3	199.506E-12	585.049E-3	-35.0176E-3
4.98499E-3	198.582E-12	609.975E-3	3.33307E-3	200.011E-12	591.733E-3	-23.9856E-3
4.97999E-3	198.922E-12	599.063E-3	-13.9734E-3	200.292E-12	603.267E-3	-15.9904E-3
4.97499E-3	199.585E-12	595.304E-3	-15.9511E-3	200.200E-12	590.574E-3	-19.0201E-3
4.96998E-3	200.583E-12	615.658E-3	-5.90268E-3	199.551E-12	563.284E-3	-27.7769E-3
4.96498E-3	201.178E-12	628.361E-3	-2.06484E-3	199.856E-12	564.756E-3	-28.7281E-3
4.95998E-3	201.666E-12	610.500E-3	-17.1035E-3	199.312E-12	571.894E-3	-21.9274E-3
4.95498E-3	202.147E-12	603.568E-3	-32.5176E-3	199.047E-12	572.747E-3	-29.5593E-3
4.94997E-3	202.351E-12	629.144E-3	-29.3037E-3	198.969E-12	572.599E-3	-41.6408E-3
4.94497E-3	202.119E-12	621.992E-3	-7.57561E-3	198.755E-12	555.271E-3	-34.8071E-3
4.93997E-3	202.011E-12	580.466E-3	2.21969E-3	198.433E-12	551.633E-3	-34.3415E-3
4.93497E-3	201.049E-12	572.810E-3	-2.72157E-3	198.133E-12	573.449E-3	-51.5466E-3
4.92996E-3	199.825E-12	573.502E-3	7.37865E-3	197.532E-12	588.596E-3	-48.4032E-3
4.92496E-3	199.134E-12	559.331E-3	12.9887E-3	197.592E-12	588.522E-3	-20.3284E-3
4.91996E-3	198.598E-12	550.703E-3	10.4130E-3	197.018E-12	570.553E-3	4.58799E-3
4.91496E-3	197.144E-12	549.642E-3	-9.91813E-3	196.318E-12	564.338E-3	6.35471E-3
4.90995E-3	196.784E-12	583.602E-3	-29.2436E-3	195.891E-12	569.637E-3	2.41310E-3
4.90495E-3	196.831E-12	624.972E-3	-6.78291E-3	195.814E-12	569.055E-3	16.6107E-3
4.89995E-3	196.504E-12	618.675E-3	-2.23614E-3	195.131E-12	580.725E-3	15.8141E-3
4.89495E-3	196.184E-12	593.319E-3	-29.8959E-3	195.455E-12	579.149E-3	-1.29522E-3
4.88995E-3	197.084E-12	577.603E-3	-33.2796E-3	195.112E-12	562.024E-3	5.68174E-3
4.88494E-3	197.733E-12	574.237E-3	-22.2150E-3	195.348E-12	557.897E-3	16.7454E-3
4.87994E-3	197.908E-12	583.822E-3	-35.5023E-3	195.203E-12	560.367E-3	372.445E-6
4.87494E-3	198.592E-12	586.531E-3	-53.9288E-3	195.069E-12	571.711E-3	-16.2379E-3
4.86993E-3	198.840E-12	570.959E-3	-39.6255E-3	194.780E-12	590.437E-3	-11.4639E-3
4.86493E-3	198.348E-12	574.103E-3	-11.3777E-3	195.029E-12	585.372E-3	-4.22588E-3
4.85993E-3	198.088E-12	587.850E-3	-855.356E-6	194.104E-12	565.347E-3	-9.14982E-3
4.85493E-3	197.584E-12	584.665E-3	6.01953E-3	194.393E-12	565.823E-3	-9.43439E-3
4.84992E-3	196.776E-12	568.601E-3	7.80369E-3	194.729E-12	568.595E-3	9.12892E-3
4.84492E-3	195.955E-12	567.269E-3	-7.80405E-3	194.517E-12	566.383E-3	39.8929E-3
4.83992E-3	194.667E-12	589.468E-3	-10.6991E-3	193.797E-12	592.953E-3	47.7984E-3
4.83492E-3	193.598E-12	578.178E-3	-925.668E-6	194.276E-12	617.774E-3	6.33940E-3
4.82991E-3	192.790E-12	544.222E-3	-10.9655E-3	194.019E-12	620.255E-3	-37.4364E-3
4.82491E-3	191.779E-12	533.992E-3	-22.2896E-3	193.285E-12	606.029E-3	-48.6303E-3
4.81991E-3	190.880E-12	546.484E-3	-18.7280E-3	193.016E-12	571.000E-3	-37.4359E-3
4.81491E-3	190.675E-12	571.708E-3	-2.86592E-3	193.482E-12	550.865E-3	-21.4442E-3
4.80990E-3	190.383E-12	602.952E-3	2.35160E-3	193.174E-12	567.974E-3	-17.7494E-3
4.80490E-3	190.643E-12	615.492E-3	-27.3770E-3	192.492E-12	588.784E-3	-18.4905E-3
4.79990E-3	190.914E-12	597.375E-3	-38.0717E-3	192.541E-12	576.687E-3	-8.22592E-3
4.79490E-3	191.392E-12	568.089E-3	-15.1571E-3	192.491E-12	547.940E-3	-9.19541E-3
4.78989E-3	191.453E-12	551.718E-3	6.00611E-3	192.310E-12	556.127E-3	-36.5210E-3
4.78489E-3	191.259E-12	562.794E-3	11.4619E-3	191.783E-12	594.985E-3	-46.8471E-3
4.77989E-3	191.594E-12	572.980E-3	2.09432E-3	191.855E-12	611.286E-3	-37.8660E-3
4.77489E-3	191.899E-12	587.298E-3	-12.1742E-3	192.170E-12	606.517E-3	-31.2349E-3
4.76988E-3	191.432E-12	612.058E-3	-19.8449E-3	191.831E-12	599.954E-3	-15.8568E-3
4.76488E-3	191.176E-12	615.160E-3	-8.43157E-3	192.171E-12	594.420E-3	1.17592E-3
4.75988E-3	190.439E-12	606.621E-3	6.56750E-3	192.543E-12	593.947E-3	-6.53836E-3
4.75488E-3	189.550E-12	603.442E-3	6.80708E-3	192.395E-12	593.360E-3	-19.1223E-3
4.74988E-3	189.436E-12	593.259E-3	-11.8384E-3	191.634E-12	591.494E-3	-20.4482E-3
4.74487E-3	188.073E-12	587.766E-3	-40.8187E-3	191.981E-12	579.130E-3	-21.6932E-3
4.73987E-3	188.441E-12	595.310E-3	-40.9576E-3	190.878E-12	571.856E-3	-12.2773E-3
4.73487E-3	188.183E-12	603.397E-3	-14.0442E-3	190.593E-12	584.729E-3	-14.4667E-3
4.72986E-3	187.644E-12	586.075E-3	-14.0387E-3	189.818E-12	593.215E-3	-29.9875E-3
4.72486E-3	187.484E-12	562.091E-3	-40.7297E-3	190.093E-12	594.826E-3	-32.0936E-3
4.71986E-3	188.198E-12	583.072E-3	-56.6565E-3	189.929E-12	584.243E-3	-23.3841E-3
4.71486E-3	188.400E-12	599.059E-3	-45.1186E-3	189.305E-12	578.696E-3	-9.63362E-3
4.70985E-3	188.506E-12	596.144E-3	-28.5366E-3	189.159E-12	598.858E-3	4.17869E-3
4.70485E-3	189.254E-12	600.902E-3	-26.0529E-3	188.465E-12	617.407E-3	-3.99887E-3
4.69985E-3	188.955E-12	582.187E-3	-37.1152E-3	188.542E-12	613.455E-3	-20.7106E-3
4.69485E-3	189.179E-12	561.099E-3	-38.8099E-3	187.564E-12	606.528E-3	-24.6780E-3
4.68984E-3	189.325E-12	568.098E-3	-25.4486E-3	187.175E-12	600.464E-3	-37.2714E-3
4.68484E-3	189.141E-12	566.348E-3	-35.2234E-3	186.827E-12	590.798E-3	-41.2710E-3
4.67984E-3	188.023E-12	558.884E-3	-41.5999E-3	186.987E-12	595.205E-3	-3.73161E-3
4.67484E-3	187.726E-12	553.352E-3	-32.7221E-3	186.298E-12	600.561E-3	13.4195E-3
4.66983E-3	187.428E-12	551.732E-3	-24.4104E-3	187.106E-12	601.029E-3	-28.5170E-3
4.66483E-3	186.593E-12	589.994E-3	-18.1510E-3	186.592E-12	608.487E-3	-45.5031E-3
4.65983E-3	186.178E-12	626.823E-3	-18.0235E-3	186.734E-12	613.903E-3	-10.0176E-3
4.65483E-3	185.875E-12	637.477E-3	-32.8640E-3	186.452E-12	608.606E-3	12.3947E-3
4.64982E-3	185.494E-12	632.601E-3	-52.3619E-3	186.071E-12	583.560E-3	11.4310E-3
4.64482E-3	185.749E-12	596.974E-3	-40.9481E-3	185.710E-12	579.603E-3	13.1135E-3
4.63982E-3	186.310E-12	570.474E-3	-19.7248E-3	185.809E-12	606.710E-3	1.02307E-3
4.63482E-3	186.050E-12	578.870E-3	-10.2506E-3	185.425E-12	616.328E-3	-11.0063E-3
4.62981E-3	186.119E-12	600.379E-3	-20.2146E-3	185.134E-12	612.891E-3	9.85266E-3
4.62481E-3	187.294E-12	617.816E-3	-24.9300E-3	185.048E-12	616.852E-3	12.0207E-3
4.61981E-3	186.969E-12	610.841E-3	-14.8080E-3	184.814E-12	620.825E-3	-23.0382E-3
4.61481E-3	187.060E-12	593.318E-3	-6.21531E-3	184.607E-12	623.097E-3	-27.0518E-3
4.60980E-3	187.638E-12	595.280E-3	-8.00385E-3	184.541E-12	613.396E-3	7.24866E-3
4.60480E-3	187.616E-12	619.040E-3	-20.5056E-3	184.534E-12	583.620E-3	11.3352E-3
4.59980E-3	185.885E-12	631.427E-3	-31.4703E-3	184.199E-12	565.091E-3	-15.4792E-3
4.59480E-3	186.003E-12	597.279E-3	-42.1594E-3	183.741E-12	560.456E-3	-28.3762E-3
4.58979E-3	185.372E-12	569.362E-3	-34.1134E-3	183.692E-12	563.235E-3	-37.4774E-3
4.58479E-3	184.394E-12	567.127E-3	-11.4331E-3	183.792E-12	576.479E-3	-38.7342E-3
4.57979E-3	184.346E-12	568.595E-3	-8.82170E-3	183.902E-12	593.074E-3	-16.9140E-3
4.57479E-3	183.493E-12	585.411E-3	-26.3886E-3	183.233E-12	601.462E-3	7.80546E-3
4.56978E-3	182.710E-12	585.486E-3	-31.9658E-3	182.824E-12	600.163E-3	16.7315E-3
4.56478E-3	182.652E-12	568.112E-3	-39.6784E-3	183.033E-12	599.510E-3	7.44911E-3
4.55978E-3	183.367E-12	548.083E-3	-58.1163E-3	182.858E-12	611.968E-3	-7.49526E-3
4.55478E-3	183.344E-12	541.252E-3	-51.6099E-3	182.345E-12	620.219E-3	-22.4091E-3
4.54977E-3	183.609E-12	570.395E-3	-29.1091E-3	182.696E-12	596.447E-3	-25.4212E-3
4.54477E-3	184.543E-12	588.524E-3	-10.0810E-3	182.563E-12	569.233E-3	-5.81793E-3
4.53977E-3	184.749E-12	581.177E-3	-409.876E-6	182.325E-12	561.700E-3	9.26622E-3
4.53477E-3	184.741E-12	576.722E-3	-8.96939E-3	181.944E-12	561.981E-3	17.0510E-3
4.52976E-3	185.197E-12	580.627E-3	-12.7077E-3	181.872E-12	572.093E-3	4.78015E-3
4.52476E-3	184.996E-12	609.888E-3	1.46252E-3	181.333E-12	588.114E-3	-12.1590E-3
4.51976E-3	184.351E-12	624.183E-3	2.18347E-3	180.863E-12	604.870E-3	-7.36363E-3
4.51476E-3	183.639E-12	611.529E-3	-24.2554E-3	180.361E-12	600.423E-3	-28.5981E-3
4.50975E-3	182.170E-12	607.140E-3	-39.7890E-3	180.597E-12	578.731E-3	-30.0540E-3
4.50475E-3	180.920E-12	607.638E-3	-27.4660E-3	179.762E-12	593.657E-3	8.40578E-3
4.49975E-3	179.425E-12	601.377E-3	-33.8996E-3	180.202E-12	624.276E-3	-8.21930E-3
4.49475E-3	178.588E-12	587.571E-3	-52.4289E-3	179.738E-12	618.357E-3	-50.6359E-3
4.48974E-3	177.607E-12	573.562E-3	-51.1088E-3	179.894E-12	613.028E-3	-66.0171E-3
4.48474E-3	176.917E-12	563.421E-3	-28.9823E-3	179.636E-12	620.735E-3	-74.7939E-3
4.47974E-3	176.736E-12	554.680E-3	-20.8878E-3	179.421E-12	584.213E-3	-65.6202E-3
4.47474E-3	176.606E-12	541.702E-3	-33.0251E-3	179.523E-12	538.141E-3	-46.2577E-3
4.46973E-3	177.500E-12	535.935E-3	-36.0344E-3	178.887E-12	544.123E-3	-22.1888E-3
4.46473E-3	178.114E-12	550.950E-3	-30.5311E-3	178.755E-12	573.351E-3	-17.3451E-3
4.45973E-3	178.639E-12	582.064E-3	-2.14100E-3	178.122E-12	598.324E-3	-40.1487E-3
4.45473E-3	179.823E-12	588.523E-3	24.9176E-3	178.947E-12	605.713E-3	-27.2530E-3
4.44972E-3	180.561E-12	582.631E-3	4.16811E-3	178.480E-12	579.628E-3	6.61707E-3
4.44472E-3	181.373E-12	601.034E-3	-37.9398E-3	178.249E-12	555.348E-3	5.95857E-3
4.43972E-3	182.054E-12	603.704E-3	-50.2125E-3	178.266E-12	563.445E-3	-21.4387E-3
4.43472E-3	181.870E-12	584.223E-3	-42.5837E-3	178.709E-12	581.239E-3	-39.0785E-3
4.42971E-3	181.918E-12	574.471E-3	-36.2977E-3	177.925E-12	600.199E-3	-29.8988E-3
4.42471E-3	181.126E-12	587.387E-3	-18.2232E-3	177.396E-12	614.877E-3	-22.3597E-3
4.41971E-3	180.114E-12	610.083E-3	-8.39910E-3	177.629E-12	614.380E-3	-24.2971E-3
4.41471E-3	178.459E-12	618.414E-3	-30.9018E-3	176.747E-12	614.510E-3	-9.49711E-3
4.40970E-3	176.921E-12	617.491E-3	-59.0971E-3	176.294E-12	628.395E-3	12.8569E-3
4.40470E-3	175.827E-12	602.986E-3	-62.9693E-3	176.474E-12	627.762E-3	13.9382E-3
4.39970E-3	174.728E-12	571.676E-3	-29.0357E-3	176.518E-12	595.568E-3	-4.27120E-3
4.39470E-3	174.192E-12	562.096E-3	435.643E-6	175.308E-12	578.026E-3	-7.31427E-3
4.38969E-3	173.245E-12	570.070E-3	-3.17714E-3	175.610E-12	582.206E-3	8.88980E-3
4.38469E-3	173.457E-12	563.377E-3	-7.60872E-3	174.716E-12	578.721E-3	10.8561E-3
4.37969E-3	174.376E-12	559.053E-3	-9.29284E-3	174.544E-12	582.052E-3	-6.96392E-3
4.37469E-3	174.662E-12	573.275E-3	-12.2173E-3	174.557E-12	597.752E-3	-19.7273E-3
4.36968E-3	175.389E-12	588.085E-3	-9.79215E-3	174.580E-12	605.600E-3	-19.2635E-3
4.36468E-3	175.841E-12	601.240E-3	-7.00208E-3	174.091E-12	594.458E-3	-23.8295E-3
4.35968E-3	176.007E-12	613.837E-3	-23.0711E-3	175.031E-12	579.255E-3	-29.0569E-3
4.35468E-3	176.558E-12	619.911E-3	-35.1046E-3	174.900E-12	584.115E-3	-18.3548E-3
4.34967E-3	176.991E-12	614.280E-3	-22.5958E-3	175.168E-12	607.349E-3	-15.0086E-3
4.34467E-3	176.635E-12	589.732E-3	-23.6539E-3	175.058E-12	617.384E-3	-33.4802E-3
4.33967E-3	176.031E-12	572.720E-3	-29.6660E-3	175.518E-12	615.050E-3	-38.2310E-3
4.33467E-3	176.557E-12	585.664E-3	-20.3529E-3	175.173E-12	614.750E-3	-11.4207E-3
4.32966E-3	175.369E-12	612.831E-3	-11.2699E-3	175.449E-12	602.522E-3	951.556E-6
4.32466E-3	174.555E-12	608.706E-3	-5.81826E-3	175.140E-12	603.967E-3	-16.8613E-3
4.31966E-3	173.326E-12	583.924E-3	-15.4267E-3	174.625E-12	625.370E-3	-27.0407E-3
4.31466E-3	173.235E-12	595.323E-3	-35.3916E-3	174.435E-12	624.271E-3	-26.8179E-3
4.30965E-3	172.630E-12	600.174E-3	-36.9209E-3	174.242E-12	597.451E-3	-29.1921E-3
4.30465E-3	172.255E-12	575.252E-3	-28.0981E-3	173.808E-12	596.143E-3	-15.6470E-3
4.29965E-3	171.660E-12	578.938E-3	-27.7248E-3	173.486E-12	617.889E-3	-1.39681E-3
4.29465E-3	172.404E-12	598.027E-3	-37.2096E-3	173.010E-12	605.582E-3	-797.407E-6
4.28964E-3	172.345E-12	591.526E-3	-41.4488E-3	173.043E-12	580.411E-3	10.8723E-3
4.28464E-3	172.234E-12	570.424E-3	-31.5724E-3	172.125E-12	582.519E-3	26.1362E-3
4.27964E-3	171.956E-12	560.793E-3	-22.5365E-3	171.720E-12	594.591E-3	11.9772E-3
4.27464E-3	172.495E-12	588.419E-3	-11.3623E-3	171.880E-12	586.265E-3	-15.5225E-3
4.26963E-3	172.340E-12	600.957E-3	-2.74789E-3	171.881E-12	581.265E-3	-25.1592E-3
4.26463E-3	172.222E-12	565.448E-3	-12.4216E-3	171.794E-12	599.404E-3	-25.1653E-3
4.25963E-3	171.340E-12	553.986E-3	-30.0806E-3	172.092E-12	593.291E-3	-5.60552E-3
4.25463E-3	170.747E-12	578.897E-3	-13.3796E-3	172.050E-12	585.024E-3	5.44710E-3
4.24962E-3	169.774E-12	590.671E-3	14.5843E-3	172.291E-12	598.292E-3	-22.0207E-3
4.24462E-3	169.097E-12	585.127E-3	-4.37234E-3	172.011E-12	593.739E-3	-37.1858E-3
4.23962E-3	167.732E-12	585.080E-3	-21.6211E-3	171.918E-12	583.043E-3	-25.8508E-3
4.23462E-3	167.622E-12	579.849E-3	-5.47305E-3	171.773E-12	590.103E-3	-28.7906E-3
4.22961E-3	166.452E-12	570.528E-3	10.6054E-3	171.700E-12	593.724E-3	-39.3451E-3
4.22461E-3	166.651E-12	569.738E-3	8.23749E-3	170.976E-12	583.229E-3	-25.5508E-3
4.21961E-3	166.621E-12	582.854E-3	-8.76575E-3	170.915E-12	574.304E-3	-27.0957E-3
4.21461E-3	167.784E-12	596.616E-3	-24.6063E-3	170.471E-12	581.362E-3	-44.1709E-3
4.20960E-3	167.841E-12	599.213E-3	-23.2108E-3	169.655E-12	609.562E-3	-40.0042E-3
4.20460E-3	168.759E-12	594.641E-3	-1.18702E-3	168.741E-12	627.344E-3	-34.9630E-3
4.19960E-3	169.472E-12	586.473E-3	17.5607E-3	168.176E-12	595.861E-3	-22.8910E-3
4.19460E-3	170.242E-12	586.248E-3	-1.09723E-3	167.110E-12	569.273E-3	-11.4980E-3
4.18959E-3	170.252E-12	605.039E-3	-35.7136E-3	166.970E-12	574.589E-3	-15.4091E-3
4.18459E-3	169.808E-12	627.296E-3	-46.7097E-3	166.730E-12	566.962E-3	-11.7424E-3
4.17959E-3	169.877E-12	620.746E-3	-36.7475E-3	166.771E-12	568.204E-3	-146.145E-6
4.17459E-3	169.525E-12	597.136E-3	-24.1244E-3	166.469E-12	583.790E-3	-9.72362E-3
4.16958E-3	168.765E-12	590.284E-3	-13.3770E-3	166.734E-12	594.924E-3	-33.9840E-3
4.16458E-3	167.757E-12	603.772E-3	-12.6666E-3	166.403E-12	616.066E-3	-35.5783E-3
4.15958E-3	166.753E-12	604.564E-3	-19.8830E-3	166.253E-12	628.431E-3	-18.4750E-3
4.15458E-3	165.840E-12	579.866E-3	-13.9380E-3	166.115E-12	601.855E-3	-6.08137E-3
4.14957E-3	165.106E-12	557.072E-3	-15.7232E-3	166.254E-12	575.813E-3	-9.80828E-3
4.14457E-3	164.507E-12	561.561E-3	-39.2402E-3	165.773E-12	581.420E-3	-15.2231E-3
4.13957E-3	164.458E-12	585.171E-3	-57.2664E-3	165.578E-12	595.932E-3	-11.0120E-3
4.13457E-3	165.193E-12	593.427E-3	-37.8902E-3	166.165E-12	601.271E-3	-1.73479E-3
4.12956E-3	165.502E-12	593.085E-3	-3.78290E-3	165.702E-12	595.456E-3	6.63140E-3
4.12456E-3	166.117E-12	600.882E-3	2.63273E-3	164.923E-12	588.398E-3	-8.78363E-3
4.11956E-3	167.321E-12	600.954E-3	-7.65097E-3	164.789E-12	584.464E-3	-31.1019E-3
4.11456E-3	168.165E-12	587.058E-3	-8.69498E-3	164.632E-12	583.317E-3	-28.6101E-3
4.10955E-3	168.439E-12	584.006E-3	10.4786E-3	163.659E-12	598.579E-3	-31.7534E-3
4.10455E-3	169.180E-12	573.697E-3	23.7412E-3	163.928E-12	613.546E-3	-32.7121E-3
4.09955E-3	169.171E-12	562.920E-3	14.6179E-3	163.505E-12	605.204E-3	-22.8967E-3
4.09455E-3	168.863E-12	592.781E-3	-4.57136E-3	163.459E-12	587.091E-3	-24.9188E-3
4.08954E-3	168.416E-12	625.883E-3	-18.5320E-3	163.222E-12	573.669E-3	-21.4390E-3
4.08454E-3	167.701E-12	639.801E-3	-30.5827E-3	163.133E-12	578.085E-3	-17.9024E-3
4.07954E-3	166.757E-12	640.352E-3	-39.2939E-3	162.674E-12	599.621E-3	-15.7116E-3
4.07454E-3	165.430E-12	625.855E-3	-29.1473E-3	162.634E-12	602.595E-3	-9.35358E-3
4.06953E-3	164.230E-12	606.292E-3	-4.71983E-3	162.330E-12	587.835E-3	-15.8214E-3
4.06453E-3	163.007E-12	598.846E-3	13.7273E-3	162.114E-12	591.364E-3	-22.4380E-3
4.05953E-3	162.083E-12	601.812E-3	11.7554E-3	161.428E-12	601.363E-3	-3.48425E-3
4.05453E-3	161.687E-12	587.285E-3	-7.74945E-3	162.078E-12	603.630E-3	18.2807E-3
4.04952E-3	160.725E-12	559.357E-3	-29.1377E-3	161.845E-12	605.961E-3	4.20325E-3
4.04452E-3	160.680E-12	543.143E-3	-31.4016E-3	162.433E-12	591.191E-3	-15.9986E-3
4.03952E-3	161.358E-12	549.354E-3	-29.8867E-3	162.863E-12	569.664E-3	-16.5068E-3
4.03452E-3	161.790E-12	569.750E-3	-41.9972E-3	163.102E-12	570.561E-3	-28.3448E-3
4.02951E-3	161.944E-12	582.441E-3	-48.3430E-3	163.336E-12	587.690E-3	-37.3186E-3
4.02451E-3	163.178E-12	586.330E-3	-45.5645E-3	163.553E-12	607.246E-3	-35.9632E-3
4.01951E-3	164.068E-12	586.145E-3	-50.8809E-3	163.558E-12	611.801E-3	-24.5844E-3
4.01451E-3	164.111E-12	587.902E-3	-42.1855E-3	163.610E-12	594.630E-3	2.31288E-3
4.00950E-3	163.759E-12	600.386E-3	-16.2199E-3	163.254E-12	591.794E-3	3.76373E-3
4.00450E-3	163.884E-12	615.872E-3	-12.1250E-3	162.950E-12	599.713E-3	-11.1459E-3
3.99950E-3	163.607E-12	628.190E-3	-26.4202E-3	162.874E-12	601.365E-3	1.22465E-3
3.99450E-3	162.897E-12	627.109E-3	-26.6893E-3	162.513E-12	612.399E-3	21.4286E-3
3.98949E-3	162.682E-12	604.026E-3	-17.1517E-3	161.806E-12	613.563E-3	15.2407E-3
3.98449E-3	161.517E-12	595.324E-3	-1.06655E-3	161.001E-12	602.847E-3	-3.95756E-3
3.97949E-3	160.225E-12	603.228E-3	12.8935E-3	160.603E-12	601.197E-3	-6.95830E-3
3.97449E-3	159.484E-12	605.543E-3	-3.98521E-3	160.382E-12	607.900E-3	-6.48117E-3
3.96948E-3	159.135E-12	614.471E-3	-21.3146E-3	159.473E-12	598.821E-3	-8.40962E-3
3.96448E-3	158.489E-12	626.508E-3	-22.2268E-3	158.602E-12	578.190E-3	2.90358E-3
3.95948E-3	158.276E-12	626.404E-3	-32.9965E-3	158.429E-12	575.994E-3	-1.39037E-3
3.95448E-3	158.528E-12	612.638E-3	-34.7535E-3	158.770E-12	581.234E-3	-25.5047E-3
3.94947E-3	158.459E-12	601.413E-3	-26.9421E-3	158.138E-12	583.903E-3	-31.9606E-3
3.94447E-3	158.718E-12	602.771E-3	-20.2602E-3	158.618E-12	604.229E-3	-21.1301E-3
3.93947E-3	158.931E-12	614.791E-3	-15.9611E-3	158.264E-12	622.795E-3	-16.9716E-3
3.93447E-3	158.540E-12	620.720E-3	-39.2993E-3	158.592E-12	633.005E-3	-19.5731E-3
3.92946E-3	158.592E-12	601.123E-3	-53.6010E-3	159.128E-12	644.290E-3	-13.5023E-3
3.92446E-3	158.435E-12	590.480E-3	-25.7986E-3	159.720E-12	634.813E-3	7.34269E-3
3.91946E-3	157.961E-12	603.073E-3	1.64901E-3	160.134E-12	617.333E-3	8.97491E-3
3.91446E-3	157.469E-12	599.023E-3	188.546E-6	160.028E-12	599.190E-3	-17.5314E-3
3.90945E-3	157.007E-12	589.459E-3	-18.3278E-3	160.013E-12	586.576E-3	-41.5809E-3
3.90445E-3	156.329E-12	604.889E-3	-26.0587E-3	159.374E-12	599.689E-3	-45.0738E-3
3.89945E-3	155.773E-12	619.571E-3	-35.3800E-3	158.878E-12	625.794E-3	-29.3910E-3
3.89445E-3	155.081E-12	608.690E-3	-50.3565E-3	158.371E-12	624.944E-3	-17.5554E-3
3.88944E-3	154.704E-12	594.843E-3	-43.7925E-3	157.819E-12	594.275E-3	-19.4861E-3
3.88444E-3	154.795E-12	597.417E-3	-37.2840E-3	156.889E-12	588.699E-3	-36.3166E-3
3.87944E-3	154.925E-12	588.810E-3	-44.5496E-3	156.129E-12	603.395E-3	-37.2503E-3
3.87444E-3	154.833E-12	574.045E-3	-32.0541E-3	154.736E-12	604.299E-3	-6.55668E-3
3.86943E-3	155.245E-12	570.339E-3	-11.2378E-3	154.235E-12	601.369E-3	516.113E-6
3.86443E-3	156.183E-12	577.734E-3	-16.3384E-3	154.115E-12	596.931E-3	-34.4314E-3
3.85943E-3	156.498E-12	607.986E-3	-25.1119E-3	153.519E-12	586.064E-3	-39.8209E-3
3.85443E-3	157.300E-12	615.040E-3	-14.8149E-3	152.650E-12	588.912E-3	-25.4747E-3
3.84942E-3	157.195E-12	608.595E-3	989.362E-6	152.949E-12	583.466E-3	-35.5498E-3
3.84442E-3	157.387E-12	620.394E-3	16.7924E-3	152.110E-12	560.486E-3	-28.7056E-3
3.83942E-3	156.878E-12	609.304E-3	42.4495E-3	152.602E-12	573.077E-3	-9.41905E-3
3.83442E-3	156.171E-12	593.561E-3	32.7546E-3	152.650E-12	586.982E-3	-17.3096E-3
3.82941E-3	155.532E-12	602.670E-3	-13.1803E-3	152.611E-12	579.669E-3	-30.5334E-3
3.82441E-3	154.645E-12	611.405E-3	-24.3243E-3	152.857E-12	588.440E-3	-22.6925E-3
3.81941E-3	153.631E-12	606.710E-3	-16.6931E-3	153.642E-12	603.994E-3	-20.0124E-3
3.81441E-3	153.655E-12	599.475E-3	-28.5089E-3	153.664E-12	605.912E-3	-18.4228E-3
3.80940E-3	153.226E-12	598.315E-3	-46.5330E-3	153.790E-12	605.127E-3	1.35688E-3
3.80440E-3	152.112E-12	598.557E-3	-52.8430E-3	153.772E-12	612.486E-3	-1.90971E-3
3.79940E-3	151.734E-12	591.684E-3	-44.8281E-3	153.871E-12	601.637E-3	-23.1288E-3
3.79440E-3	151.856E-12	593.466E-3	-28.9171E-3	153.596E-12	582.043E-3	-26.6678E-3
3.78939E-3	152.193E-12	599.534E-3	-10.4133E-3	153.406E-12	585.930E-3	-19.1790E-3
3.78439E-3	152.207E-12	588.244E-3	-6.54212E-3	152.122E-12	591.165E-3	-21.6535E-3
3.77939E-3	152.550E-12	571.686E-3	-20.7179E-3	152.053E-12	583.920E-3	-38.2868E-3
3.77439E-3	153.171E-12	572.398E-3	-26.3819E-3	151.728E-12	583.365E-3	-44.1302E-3
3.76938E-3	153.590E-12	589.533E-3	-11.4260E-3	151.215E-12	585.807E-3	-30.1597E-3
3.76438E-3	154.052E-12	597.821E-3	4.46991E-3	150.748E-12	589.758E-3	-12.4338E-3
3.75938E-3	154.393E-12	603.596E-3	393.057E-6	150.964E-12	603.329E-3	-18.0896E-3
3.75438E-3	153.768E-12	616.014E-3	-15.6554E-3	149.878E-12	593.479E-3	-31.5177E-3
3.74937E-3	153.419E-12	622.786E-3	-20.6241E-3	149.667E-12	573.203E-3	-335.423E-6
3.74437E-3	153.449E-12	621.681E-3	-3.95188E-3	150.113E-12	597.638E-3	31.8082E-3
3.73937E-3	152.748E-12	625.890E-3	10.3906E-3	149.367E-12	625.705E-3	16.4546E-3
3.73437E-3	151.698E-12	637.528E-3	2.65559E-3	149.314E-12	620.452E-3	-4.07184E-3
3.72936E-3	150.638E-12	641.599E-3	-6.91806E-3	150.001E-12	612.575E-3	-12.8694E-3
3.72436E-3	149.820E-12	619.565E-3	-16.9590E-3	149.756E-12	612.980E-3	-17.1339E-3
3.71936E-3	149.183E-12	583.732E-3	-19.7282E-3	149.898E-12	621.557E-3	-15.5016E-3
3.71436E-3	148.350E-12	571.910E-3	-24.9444E-3	150.020E-12	633.109E-3	-11.3455E-3
3.70935E-3	148.312E-12	582.249E-3	-38.1170E-3	150.064E-12	622.469E-3	-21.1624E-3
3.70435E-3	147.728E-12	585.377E-3	-26.6374E-3	150.201E-12	604.787E-3	-39.6900E-3
3.69935E-3	147.935E-12	576.719E-3	-4.60537E-3	150.240E-12	609.749E-3	-42.3341E-3
3.69435E-3	148.361E-12	569.518E-3	-2.55753E-3	150.252E-12	610.324E-3	-32.2634E-3
3.68934E-3	148.591E-12	563.860E-3	-12.1657E-3	150.167E-12	599.634E-3	-23.4217E-3
3.68434E-3	148.447E-12	556.325E-3	-15.5118E-3	149.531E-12	607.438E-3	-40.1605E-3
3.67934E-3	148.901E-12	560.955E-3	-13.7738E-3	150.035E-12	606.653E-3	-68.6314E-3
3.67434E-3	149.463E-12	582.706E-3	2.64574E-3	149.323E-12	592.884E-3	-64.6585E-3
3.66933E-3	149.079E-12	592.798E-3	11.4069E-3	148.742E-12	594.028E-3	-38.5548E-3
3.66433E-3	148.815E-12	591.514E-3	-2.95370E-3	148.334E-12	591.938E-3	-19.7862E-3
3.65933E-3	148.042E-12	608.054E-3	-18.0140E-3	147.924E-12	588.397E-3	-12.6101E-3
3.65433E-3	147.842E-12	620.744E-3	-21.6282E-3	147.369E-12	590.554E-3	-15.2478E-3
3.64932E-3	147.015E-12	616.451E-3	-6.91291E-3	146.807E-12	590.079E-3	-17.9107E-3
3.64432E-3	145.860E-12	615.521E-3	-1.58961E-3	146.629E-12	593.172E-3	-1.57950E-3
3.63932E-3	145.291E-12	619.476E-3	-3.99706E-3	146.002E-12	605.031E-3	22.3645E-3
3.63432E-3	144.941E-12	614.942E-3	-1.73081E-3	145.966E-12	625.695E-3	12.7473E-3
3.62931E-3	143.751E-12	603.662E-3	-18.5203E-3	145.294E-12	616.371E-3	-4.04129E-3
3.62431E-3	143.354E-12	593.269E-3	-43.9827E-3	144.997E-12	599.470E-3	7.46947E-3
3.61931E-3	143.445E-12	580.097E-3	-36.3082E-3	144.481E-12	599.395E-3	8.37862E-3
3.61431E-3	143.485E-12	568.778E-3	-9.13785E-3	144.478E-12	583.098E-3	2.44989E-3
3.60930E-3	143.730E-12	556.759E-3	-5.36766E-3	144.673E-12	593.435E-3	16.4276E-3
3.60430E-3	144.149E-12	576.017E-3	-3.78572E-3	144.628E-12	627.475E-3	6.41173E-3
3.59930E-3	144.477E-12	623.943E-3	522.835E-6	144.849E-12	624.314E-3	-30.6200E-3
3.59430E-3	144.915E-12	629.843E-3	-20.5448E-3	144.205E-12	607.287E-3	-35.5821E-3
3.58929E-3	145.039E-12	607.637E-3	-27.4046E-3	144.239E-12	606.557E-3	-11.3887E-3
3.58429E-3	145.737E-12	610.386E-3	-13.8279E-3	143.976E-12	602.736E-3	-1.22959E-3
3.57929E-3	145.540E-12	607.736E-3	-27.0025E-3	143.972E-12	586.632E-3	-189.157E-6
3.57429E-3	145.566E-12	585.106E-3	-41.3021E-3	143.520E-12	579.430E-3	-7.23394E-3
3.56928E-3	145.427E-12	584.493E-3	-20.2963E-3	143.219E-12	602.526E-3	-19.3554E-3
3.56428E-3	145.755E-12	603.758E-3	5.18906E-3	143.326E-12	621.689E-3	-7.45516E-3
3.55928E-3	145.415E-12	619.133E-3	5.12043E-3	142.559E-12	613.508E-3	12.1176E-3
3.55428E-3	145.013E-12	623.650E-3	4.01542E-3	142.167E-12	584.966E-3	4.58619E-3
3.54927E-3	144.490E-12	624.626E-3	6.81621E-3	141.496E-12	556.246E-3	1.19303E-3
3.54427E-3	144.381E-12	623.897E-3	-11.1363E-3	141.350E-12	558.168E-3	4.41962E-3
3.53927E-3	143.357E-12	623.132E-3	-30.0952E-3	140.588E-12	577.190E-3	-10.6960E-3
3.53427E-3	143.034E-12	614.974E-3	-32.0926E-3	140.656E-12	584.964E-3	-2.20000E-3
3.52926E-3	143.103E-12	595.308E-3	-26.7445E-3	140.399E-12	592.907E-3	21.0647E-3
3.52426E-3	142.791E-12	582.730E-3	-4.29790E-3	140.298E-12	597.948E-3	6.01222E-3
3.51926E-3	143.144E-12	581.822E-3	18.2445E-3	139.750E-12	580.508E-3	-12.3826E-3
3.51426E-3	143.111E-12	598.263E-3	7.53094E-3	140.294E-12	572.867E-3	-9.17948E-3
3.50925E-3	142.793E-12	604.056E-3	-22.4867E-3	140.495E-12	580.410E-3	-12.6972E-3
3.50425E-3	142.916E-12	587.708E-3	-37.2233E-3	140.383E-12	579.279E-3	-10.3482E-3
3.49925E-3	142.918E-12	594.845E-3	-21.0355E-3	140.165E-12	585.685E-3	-4.12490E-3
3.49425E-3	142.547E-12	613.033E-3	5.99571E-3	140.713E-12	603.585E-3	-16.5588E-3
3.48924E-3	142.107E-12	624.100E-3	13.4255E-3	140.717E-12	610.606E-3	-21.0498E-3
3.48424E-3	141.831E-12	619.810E-3	7.60389E-3	141.185E-12	604.601E-3	-10.6575E-3
3.47924E-3	141.322E-12	589.953E-3	-4.56420E-3	141.102E-12	594.191E-3	-20.8170E-3
3.47424E-3	140.875E-12	576.467E-3	-32.5807E-3	140.648E-12	591.465E-3	-19.5160E-3
3.46923E-3	140.034E-12	570.542E-3	-54.4210E-3	140.961E-12	607.451E-3	826.765E-6
3.46423E-3	139.346E-12	560.813E-3	-48.3659E-3	140.572E-12	619.019E-3	-416.704E-6
3.45923E-3	138.565E-12	586.535E-3	-31.9401E-3	140.297E-12	618.975E-3	-5.47832E-3
3.45423E-3	138.101E-12	618.522E-3	-20.8261E-3	140.112E-12	613.738E-3	-10.1958E-3
3.44922E-3	137.640E-12	621.535E-3	-13.6986E-3	140.363E-12	594.684E-3	-31.3526E-3
3.44422E-3	137.181E-12	610.260E-3	-18.0797E-3	139.238E-12	573.726E-3	-48.1337E-3
3.43922E-3	137.465E-12	585.992E-3	-24.1784E-3	139.028E-12	580.398E-3	-34.3970E-3
3.43422E-3	137.221E-12	576.707E-3	-13.5717E-3	138.974E-12	617.210E-3	-11.2548E-3
3.42921E-3	137.286E-12	594.144E-3	3.77298E-3	138.799E-12	635.269E-3	138.315E-6
3.42421E-3	137.059E-12	594.704E-3	-1.52181E-3	138.219E-12	621.764E-3	-11.1477E-3
3.41921E-3	137.466E-12	580.726E-3	-19.6011E-3	138.471E-12	606.116E-3	-37.3712E-3
3.41421E-3	136.749E-12	579.027E-3	-21.7051E-3	138.471E-12	602.786E-3	-34.8973E-3
3.40920E-3	136.610E-12	588.470E-3	-22.2489E-3	138.084E-12	614.020E-3	-24.9725E-3
3.40420E-3	136.712E-12	605.008E-3	-32.0846E-3	138.076E-12	611.548E-3	-32.3790E-3
3.39920E-3	136.709E-12	627.229E-3	-38.0109E-3	138.211E-12	596.460E-3	-23.3847E-3
3.39420E-3	136.308E-12	625.019E-3	-33.8840E-3	138.010E-12	607.413E-3	4.07724E-3
3.38919E-3	135.597E-12	604.061E-3	-26.7607E-3	137.829E-12	629.826E-3	11.9435E-3
3.38419E-3	135.720E-12	601.320E-3	-19.1442E-3	137.794E-12	622.544E-3	-11.5042E-3
3.37919E-3	135.318E-12	592.329E-3	-7.66602E-3	137.547E-12	602.482E-3	-33.6650E-3
3.37419E-3	134.863E-12	571.311E-3	-11.3897E-3	137.017E-12	600.309E-3	-37.2121E-3
3.36918E-3	134.225E-12	575.571E-3	-25.1969E-3	136.600E-12	598.708E-3	-19.0624E-3
3.36418E-3	134.204E-12	576.485E-3	-25.3966E-3	136.212E-12	588.515E-3	7.55598E-3
3.35918E-3	134.088E-12	568.042E-3	-15.6683E-3	135.496E-12	581.933E-3	7.74528E-3
3.35418E-3	133.770E-12	583.939E-3	-2.82501E-3	134.801E-12	582.191E-3	-10.2334E-3
3.34917E-3	133.998E-12	599.395E-3	6.10345E-3	134.481E-12	588.666E-3	-14.0308E-3
3.34417E-3	133.865E-12	607.506E-3	6.06462E-3	134.215E-12	599.048E-3	-20.5032E-3
3.33917E-3	134.026E-12	620.178E-3	-7.26009E-3	133.518E-12	599.537E-3	-27.5358E-3
3.33417E-3	133.901E-12	618.137E-3	-24.3642E-3	132.983E-12	580.455E-3	-9.51113E-3
3.32916E-3	134.213E-12	591.178E-3	-27.5000E-3	133.102E-12	575.508E-3	7.41831E-3
3.32416E-3	133.774E-12	575.275E-3	-13.0875E-3	132.639E-12	584.355E-3	-4.66944E-3
3.31916E-3	133.729E-12	581.117E-3	-4.94112E-3	132.598E-12	590.019E-3	-19.0102E-3
3.31416E-3	133.287E-12	594.225E-3	-18.0779E-3	133.221E-12	608.829E-3	-16.7403E-3
3.30915E-3	133.211E-12	615.304E-3	-37.0261E-3	132.993E-12	617.604E-3	-18.8791E-3
3.30415E-3	132.776E-12	623.617E-3	-35.9836E-3	132.995E-12	610.045E-3	-31.4084E-3
3.29915E-3	132.362E-12	609.853E-3	-11.8507E-3	133.106E-12	608.916E-3	-43.0259E-3
3.29415E-3	132.151E-12	593.944E-3	-4.27886E-3	133.178E-12	610.403E-3	-43.1676E-3
3.28914E-3	132.067E-12	608.701E-3	-17.3243E-3	132.741E-12	606.624E-3	-26.2117E-3
3.28414E-3	132.130E-12	621.454E-3	-21.5210E-3	132.460E-12	612.060E-3	-5.06186E-3
3.27914E-3	131.996E-12	613.420E-3	-19.7267E-3	132.103E-12	616.821E-3	-7.81863E-3
3.27414E-3	132.324E-12	618.030E-3	-15.8707E-3	131.749E-12	595.795E-3	-27.5314E-3
3.26913E-3	133.046E-12	614.361E-3	-14.5523E-3	130.962E-12	582.936E-3	-30.8828E-3
3.26413E-3	133.526E-12	608.569E-3	-19.1692E-3	130.756E-12	584.174E-3	-13.2146E-3
3.25913E-3	133.797E-12	619.099E-3	-13.9502E-3	130.590E-12	588.614E-3	12.8882E-3
3.25413E-3	134.452E-12	628.539E-3	-12.5907E-3	129.920E-12	610.844E-3	23.2851E-3
3.24912E-3	134.582E-12	634.489E-3	-30.1069E-3	129.334E-12	622.455E-3	12.7278E-3
3.24412E-3	134.104E-12	630.361E-3	-47.5305E-3	128.986E-12	604.717E-3	3.10185E-3
3.23912E-3	134.352E-12	611.838E-3	-42.9415E-3	128.955E-12	584.473E-3	2.25793E-3
3.23412E-3	133.629E-12	600.293E-3	-30.7929E-3	128.898E-12	590.672E-3	-6.13624E-3
3.22911E-3	133.302E-12	603.599E-3	-23.5379E-3	128.885E-12	603.894E-3	-13.2732E-3
3.22411E-3	132.583E-12	609.866E-3	-9.13893E-3	128.808E-12	602.519E-3	-14.2216E-3
3.21911E-3	131.489E-12	608.635E-3	-14.7763E-3	129.008E-12	610.954E-3	-24.4821E-3
3.21411E-3	130.453E-12	604.880E-3	-39.8160E-3	129.067E-12	623.536E-3	-26.7637E-3
3.20910E-3	129.772E-12	607.870E-3	-33.1675E-3	129.005E-12	614.367E-3	-19.6109E-3
3.20410E-3	129.245E-12	612.570E-3	4.39308E-3	129.274E-12	606.135E-3	-20.1010E-3
3.19910E-3	128.504E-12	617.460E-3	16.8370E-3	129.383E-12	607.701E-3	-22.4732E-3
3.19410E-3	127.662E-12	601.799E-3	2.25269E-3	129.450E-12	596.077E-3	-13.6816E-3
3.18909E-3	126.920E-12	586.898E-3	3.06519E-3	128.985E-12	586.798E-3	-627.947E-6
3.18409E-3	127.357E-12	607.726E-3	13.7980E-3	129.247E-12	580.434E-3	-1.23234E-3
3.17909E-3	127.269E-12	618.647E-3	19.9248E-3	129.132E-12	559.750E-3	-5.83524E-3
3.17409E-3	127.422E-12	598.276E-3	23.8458E-3	128.866E-12	560.400E-3	-4.05438E-3
3.16908E-3	128.269E-12	590.238E-3	16.3620E-3	128.494E-12	585.193E-3	-14.7377E-3
3.16408E-3	128.606E-12	603.137E-3	3.36266E-3	127.972E-12	596.969E-3	-36.4270E-3
3.15908E-3	128.789E-12	608.364E-3	-10.0225E-3	127.590E-12	600.266E-3	-49.3566E-3
3.15408E-3	128.779E-12	606.658E-3	-8.53955E-3	127.419E-12	594.850E-3	-50.4137E-3
3.14907E-3	128.849E-12	617.828E-3	5.92815E-3	127.247E-12	584.592E-3	-25.6053E-3
3.14407E-3	128.898E-12	622.137E-3	-14.4720E-3	126.699E-12	597.469E-3	2.00170E-3
3.13907E-3	128.163E-12	615.317E-3	-36.7406E-3	126.659E-12	613.965E-3	-651.602E-6
3.13407E-3	127.716E-12	615.175E-3	-31.2740E-3	126.646E-12	604.756E-3	-4.74106E-3
3.12906E-3	127.310E-12	618.886E-3	-31.0464E-3	126.487E-12	598.090E-3	509.339E-6
3.12406E-3	126.843E-12	624.159E-3	-31.4290E-3	125.944E-12	606.351E-3	-11.8591E-3
3.11906E-3	125.735E-12	617.845E-3	-28.5836E-3	125.668E-12	614.895E-3	-21.2030E-3
3.11406E-3	125.187E-12	600.380E-3	-29.8676E-3	125.564E-12	628.395E-3	-11.7614E-3
3.10905E-3	124.865E-12	592.134E-3	-26.4354E-3	125.455E-12	627.947E-3	-18.0027E-3
3.10405E-3	124.006E-12	597.208E-3	-24.1756E-3	125.402E-12	614.057E-3	-30.1703E-3
3.09905E-3	122.889E-12	602.530E-3	-21.0954E-3	125.242E-12	604.831E-3	-24.4792E-3
3.09405E-3	122.691E-12	612.252E-3	-9.71136E-3	125.084E-12	593.313E-3	-18.2300E-3
3.08904E-3	122.086E-12	629.834E-3	5.41792E-3	124.834E-12	579.120E-3	-3.14648E-3
3.08404E-3	121.964E-12	620.444E-3	9.85262E-3	125.131E-12	582.619E-3	8.16633E-3
3.07904E-3	122.041E-12	588.894E-3	-8.19157E-3	124.800E-12	593.969E-3	-12.0639E-3
3.07404E-3	122.176E-12	583.899E-3	-25.7142E-3	124.968E-12	587.014E-3	-19.1576E-3
3.06903E-3	122.029E-12	600.734E-3	-30.5068E-3	124.833E-12	584.277E-3	2.91950E-3
3.06403E-3	122.191E-12	605.196E-3	-36.5890E-3	124.581E-12	597.472E-3	15.3660E-3
3.05903E-3	122.310E-12	593.742E-3	-35.9378E-3	124.453E-12	619.342E-3	7.49001E-3
3.05403E-3	122.482E-12	571.198E-3	-25.1609E-3	124.405E-12	632.007E-3	-867.990E-6
3.04902E-3	122.192E-12	570.513E-3	-23.0937E-3	123.869E-12	630.328E-3	-4.30511E-3
3.04402E-3	121.698E-12	597.776E-3	-18.6983E-3	123.880E-12	619.379E-3	-4.23602E-3
3.03902E-3	122.016E-12	600.434E-3	7.59866E-3	123.548E-12	598.684E-3	4.87076E-3
3.03402E-3	121.919E-12	579.061E-3	15.9450E-3	122.527E-12	593.783E-3	-8.83798E-3
3.02901E-3	121.933E-12	577.530E-3	-5.05137E-3	122.218E-12	597.548E-3	-31.2211E-3
3.02401E-3	121.245E-12	596.811E-3	-5.27336E-3	121.649E-12	591.653E-3	-27.6748E-3
3.01901E-3	121.599E-12	603.820E-3	21.3638E-3	120.908E-12	589.170E-3	-26.6152E-3
3.01401E-3	121.249E-12	602.641E-3	38.3884E-3	120.289E-12	597.899E-3	-40.6970E-3
3.00900E-3	120.938E-12	608.198E-3	20.9872E-3	119.458E-12	613.428E-3	-51.2614E-3
3.00400E-3	120.484E-12	621.504E-3	-8.31637E-3	119.361E-12	621.828E-3	-46.6843E-3
2.99900E-3	121.045E-12	635.491E-3	-13.1072E-3	119.324E-12	606.646E-3	-36.2833E-3
2.99400E-3	120.337E-12	642.834E-3	-2.91124E-3	119.077E-12	585.375E-3	-24.4466E-3
2.98899E-3	120.122E-12	635.013E-3	-9.08321E-3	119.003E-12	588.682E-3	-8.57732E-3
2.98399E-3	120.292E-12	621.204E-3	-25.9682E-3	119.069E-12	603.268E-3	4.91983E-3
2.97899E-3	120.316E-12	611.573E-3	-36.6814E-3	119.155E-12	597.600E-3	11.0813E-3
2.97399E-3	119.675E-12	616.457E-3	-41.3924E-3	119.156E-12	590.330E-3	2.62881E-3
2.96898E-3	119.914E-12	628.583E-3	-36.2460E-3	119.489E-12	595.126E-3	-25.0787E-3
2.96398E-3	119.788E-12	610.998E-3	-26.7649E-3	119.326E-12	594.781E-3	-35.9416E-3
2.95898E-3	119.339E-12	591.034E-3	-25.4283E-3	119.018E-12	595.227E-3	-16.5206E-3
2.95398E-3	119.605E-12	605.858E-3	-22.2772E-3	119.358E-12	608.426E-3	217.007E-6
2.94897E-3	119.442E-12	628.921E-3	-6.70169E-3	118.937E-12	627.362E-3	13.2750E-3
2.94397E-3	119.369E-12	636.329E-3	8.96434E-3	118.584E-12	625.700E-3	15.8534E-3
2.93897E-3	119.274E-12	638.103E-3	5.40582E-3	117.778E-12	617.196E-3	-14.3209E-3
2.93397E-3	118.885E-12	634.716E-3	-9.46022E-3	117.088E-12	610.749E-3	-42.1547E-3
2.92896E-3	119.245E-12	621.104E-3	-16.0691E-3	116.458E-12	596.003E-3	-36.2791E-3
2.92396E-3	118.972E-12	598.691E-3	-15.1056E-3	115.876E-12	588.986E-3	-25.2931E-3
2.91896E-3	119.123E-12	585.540E-3	-6.46988E-3	115.345E-12	585.654E-3	-10.6164E-3
2.91396E-3	118.879E-12	596.024E-3	3.71920E-3	115.007E-12	583.404E-3	3.16633E-3
2.90895E-3	119.162E-12	606.251E-3	3.45073E-3	115.059E-12	582.942E-3	1.29055E-3
2.90395E-3	118.551E-12	600.102E-3	7.58237E-3	114.865E-12	583.258E-3	3.11733E-3
2.89895E-3	118.519E-12	592.978E-3	23.8713E-3	115.093E-12	588.260E-3	9.09223E-3
2.89395E-3	117.877E-12	604.645E-3	13.8569E-3	115.369E-12	596.501E-3	2.72291E-3
2.88894E-3	117.416E-12	621.383E-3	-14.4169E-3	115.626E-12	605.995E-3	-20.8678E-3
2.88394E-3	116.606E-12	611.544E-3	-17.5062E-3	116.092E-12	610.809E-3	-34.5136E-3
2.87894E-3	115.861E-12	601.618E-3	814.549E-6	116.397E-12	626.282E-3	-18.9684E-3
2.87394E-3	115.387E-12	606.600E-3	18.1882E-3	116.373E-12	644.373E-3	-5.95181E-3
2.86893E-3	115.033E-12	599.579E-3	10.8162E-3	116.862E-12	630.054E-3	-4.11707E-3
2.86393E-3	114.519E-12	600.127E-3	-3.63996E-3	116.860E-12	611.556E-3	-437.352E-6
2.85893E-3	114.231E-12	603.093E-3	-4.93028E-3	117.316E-12	615.531E-3	-10.6371E-3
2.85393E-3	114.223E-12	587.561E-3	-8.12105E-3	117.263E-12	621.351E-3	-18.3127E-3
2.84892E-3	114.045E-12	576.190E-3	-15.3224E-3	116.676E-12	621.816E-3	-6.25983E-3
2.84392E-3	114.108E-12	582.402E-3	-8.06124E-3	116.369E-12	614.708E-3	-643.668E-6
2.83892E-3	113.926E-12	598.697E-3	11.4623E-3	115.786E-12	608.149E-3	-7.93265E-3
2.83392E-3	113.841E-12	614.749E-3	776.096E-6	115.327E-12	596.316E-3	-15.9003E-3
2.82891E-3	114.060E-12	617.880E-3	-21.2306E-3	114.437E-12	590.821E-3	-16.8187E-3
2.82391E-3	114.011E-12	601.801E-3	-18.2890E-3	113.896E-12	613.654E-3	-7.22546E-3
2.81891E-3	113.998E-12	591.212E-3	-19.0751E-3	113.471E-12	631.135E-3	-5.48222E-3
2.81391E-3	114.168E-12	606.928E-3	-18.8611E-3	113.384E-12	616.256E-3	-16.5696E-3
2.80890E-3	114.096E-12	623.019E-3	-14.7906E-3	112.689E-12	590.928E-3	-22.9528E-3
2.80390E-3	114.130E-12	614.856E-3	-32.3178E-3	113.010E-12	587.130E-3	-29.0330E-3
2.79890E-3	113.757E-12	605.142E-3	-42.6784E-3	112.798E-12	604.817E-3	-25.2388E-3
2.79390E-3	113.343E-12	613.027E-3	-20.7304E-3	112.377E-12	616.201E-3	198.024E-6
2.78889E-3	112.565E-12	636.498E-3	-3.08684E-3	112.150E-12	618.022E-3	2.91469E-3
2.78389E-3	111.984E-12	658.086E-3	-6.66466E-3	112.224E-12	615.107E-3	-22.3841E-3
2.77889E-3	111.361E-12	647.245E-3	-15.3809E-3	111.006E-12	609.098E-3	-28.4057E-3
2.77389E-3	110.466E-12	618.059E-3	-26.5761E-3	111.338E-12	607.065E-3	-19.8785E-3
2.76888E-3	110.494E-12	609.303E-3	-27.6844E-3	111.385E-12	592.768E-3	-20.0097E-3
2.76388E-3	110.116E-12	622.030E-3	-31.7130E-3	110.990E-12	583.620E-3	-23.1006E-3
2.75888E-3	109.723E-12	627.567E-3	-49.3755E-3	110.534E-12	601.093E-3	-26.0737E-3
2.75388E-3	109.395E-12	629.638E-3	-56.9978E-3	111.029E-12	609.230E-3	-25.0672E-3
2.74887E-3	109.665E-12	625.455E-3	-46.2885E-3	110.751E-12	601.739E-3	-15.7545E-3
2.74387E-3	109.539E-12	609.370E-3	-24.1904E-3	110.641E-12	610.371E-3	-2.98421E-3
2.73887E-3	109.507E-12	611.730E-3	-10.7338E-3	110.568E-12	623.130E-3	7.37401E-3
2.73387E-3	109.659E-12	628.096E-3	-17.5651E-3	110.480E-12	624.656E-3	-3.99009E-3
2.72886E-3	109.954E-12	627.275E-3	-30.6210E-3	110.136E-12	622.956E-3	-27.1918E-3
2.72386E-3	110.420E-12	624.060E-3	-28.9858E-3	110.100E-12	614.915E-3	-28.4001E-3
2.71886E-3	110.306E-12	634.300E-3	-9.71300E-3	109.909E-12	601.095E-3	-7.68131E-3
2.71386E-3	110.713E-12	646.212E-3	6.72178E-3	109.292E-12	600.778E-3	6.48898E-3
2.70885E-3	110.801E-12	652.421E-3	6.87396E-3	108.955E-12	624.599E-3	-6.82988E-3
2.70385E-3	110.471E-12	651.341E-3	5.02643E-3	108.457E-12	638.935E-3	-10.7486E-3
2.69885E-3	110.255E-12	649.036E-3	4.04156E-3	107.526E-12	628.587E-3	8.36979E-3
2.69385E-3	110.177E-12	639.619E-3	-306.178E-6	107.268E-12	615.808E-3	8.83564E-3
2.68884E-3	109.749E-12	632.359E-3	260.429E-6	106.924E-12	605.583E-3	-13.8504E-3
2.68384E-3	109.060E-12	637.513E-3	-3.89346E-3	106.416E-12	588.669E-3	-42.5056E-3
2.67884E-3	108.874E-12	639.338E-3	-13.9518E-3	106.114E-12	585.919E-3	-44.3711E-3
2.67384E-3	108.386E-12	633.256E-3	-15.3051E-3	106.266E-12	600.630E-3	-13.2390E-3
2.66883E-3	107.956E-12	623.039E-3	-12.2405E-3	105.783E-12	604.472E-3	7.38455E-3
2.66383E-3	107.474E-12	610.403E-3	-21.8176E-3	105.825E-12	603.852E-3	-4.29381E-3
2.65883E-3	107.307E-12	617.621E-3	-27.7097E-3	105.961E-12	610.719E-3	-20.8579E-3
2.65383E-3	106.752E-12	648.598E-3	-23.8195E-3	106.089E-12	617.726E-3	-14.7886E-3
2.64882E-3	106.598E-12	644.973E-3	-22.2354E-3	106.329E-12	628.880E-3	-15.2320E-3
2.64382E-3	106.381E-12	613.213E-3	-18.2805E-3	106.645E-12	637.842E-3	-32.8930E-3
2.63882E-3	105.837E-12	599.499E-3	-9.47005E-3	107.092E-12	617.402E-3	-32.4675E-3
2.63382E-3	105.895E-12	602.075E-3	-22.8281E-3	107.627E-12	603.418E-3	-19.1249E-3
2.62881E-3	106.124E-12	612.917E-3	-45.7396E-3	107.467E-12	637.524E-3	-13.3138E-3
2.62381E-3	105.620E-12	622.896E-3	-38.6070E-3	107.514E-12	669.593E-3	-3.63179E-3
2.61881E-3	105.412E-12	624.115E-3	-27.9387E-3	106.758E-12	673.084E-3	-1.90651E-3
2.61381E-3	105.289E-12	616.798E-3	-22.0205E-3	106.436E-12	673.468E-3	-19.4186E-3
2.60880E-3	104.587E-12	612.434E-3	-10.7525E-3	106.033E-12	661.449E-3	-25.2747E-3
2.60380E-3	104.576E-12	615.663E-3	-3.86091E-3	105.272E-12	640.092E-3	-19.4303E-3
2.59880E-3	104.127E-12	626.734E-3	-4.56687E-3	104.452E-12	632.537E-3	-26.8309E-3
2.59380E-3	103.800E-12	641.223E-3	-12.2585E-3	103.836E-12	623.482E-3	-44.2402E-3
2.58879E-3	103.278E-12	648.864E-3	-19.6499E-3	103.165E-12	613.886E-3	-44.3693E-3
2.58379E-3	103.145E-12	643.775E-3	-25.6888E-3	103.082E-12	626.682E-3	-26.0999E-3
2.57879E-3	103.160E-12	634.431E-3	-18.7573E-3	102.706E-12	641.425E-3	-6.60732E-3
2.57379E-3	102.453E-12	631.755E-3	-2.48061E-3	102.412E-12	639.962E-3	-38.1818E-6
2.56878E-3	102.301E-12	628.998E-3	-16.1387E-3	101.968E-12	633.393E-3	-14.5782E-3
2.56378E-3	102.022E-12	613.769E-3	-39.7198E-3	102.152E-12	619.375E-3	-20.8628E-3
2.55878E-3	101.534E-12	596.386E-3	-28.4108E-3	101.892E-12	613.118E-3	2.17418E-3
2.55378E-3	101.284E-12	599.124E-3	-7.05177E-3	102.279E-12	628.981E-3	10.9250E-3
2.54877E-3	101.288E-12	612.972E-3	-16.8742E-3	102.062E-12	627.182E-3	-6.79814E-3
2.54377E-3	101.203E-12	621.241E-3	-36.1460E-3	102.745E-12	617.760E-3	-10.3673E-3
2.53877E-3	101.088E-12	612.749E-3	-27.7723E-3	102.419E-12	622.151E-3	-8.07227E-3
2.53377E-3	101.172E-12	601.419E-3	-18.7246E-3	102.279E-12	616.005E-3	-18.6950E-3
2.52876E-3	100.737E-12	612.340E-3	-22.3889E-3	102.144E-12	610.778E-3	-31.8327E-3
2.52376E-3	100.909E-12	628.304E-3	-16.3162E-3	101.693E-12	616.027E-3	-37.8158E-3
2.51876E-3	100.839E-12	636.374E-3	-5.32445E-3	101.233E-12	608.236E-3	-27.5056E-3
2.51376E-3	100.571E-12	631.940E-3	-5.60399E-3	100.927E-12	591.245E-3	-18.7674E-3
2.50875E-3	100.259E-12	614.090E-3	-14.6578E-3	100.250E-12	594.312E-3	-21.3756E-3
2.50375E-3	99.9084E-12	599.370E-3	-20.8258E-3	99.8004E-12	606.043E-3	-16.0549E-3
2.49875E-3	99.5947E-12	599.897E-3	-14.2845E-3	99.4216E-12	612.639E-3	-7.24032E-3
2.49375E-3	99.8962E-12	609.784E-3	-14.9869E-3	98.8067E-12	618.981E-3	-11.0540E-3
2.48874E-3	99.2134E-12	628.534E-3	-30.6802E-3	98.7087E-12	612.011E-3	-23.2771E-3
2.48374E-3	98.7536E-12	640.368E-3	-29.3574E-3	98.2029E-12	592.958E-3	-11.4420E-3
2.47874E-3	98.8516E-12	634.321E-3	-20.8025E-3	98.1170E-12	597.201E-3	9.69504E-3
2.47374E-3	98.5431E-12	631.136E-3	-25.9268E-3	97.7880E-12	631.939E-3	272.252E-6
2.46873E-3	98.2026E-12	626.695E-3	-20.8133E-3	97.7711E-12	661.899E-3	-15.5133E-3
2.46373E-3	98.1281E-12	619.992E-3	-12.5000E-3	97.2969E-12	658.998E-3	-10.7867E-3
2.45873E-3	97.8698E-12	614.547E-3	-20.8689E-3	97.3229E-12	633.484E-3	-7.99738E-3
2.45373E-3	97.8659E-12	612.683E-3	-21.9472E-3	97.6813E-12	624.756E-3	-13.4616E-3
2.44872E-3	97.8134E-12	623.416E-3	-16.8370E-3	97.4535E-12	639.364E-3	-19.7859E-3
2.44372E-3	97.7612E-12	625.526E-3	-22.3476E-3	97.4577E-12	639.985E-3	-16.8222E-3
2.43872E-3	97.6416E-12	620.978E-3	-19.1794E-3	97.8980E-12	620.338E-3	8.50250E-3
2.43372E-3	97.7456E-12	625.182E-3	-5.79010E-3	97.9873E-12	614.029E-3	22.4033E-3
2.42871E-3	97.7288E-12	629.138E-3	-6.34707E-3	97.8488E-12	632.455E-3	3.29630E-3
2.42371E-3	97.8207E-12	635.495E-3	-29.2406E-3	98.0581E-12	648.234E-3	-16.8397E-3
2.41871E-3	97.5161E-12	638.453E-3	-44.8906E-3	97.6393E-12	645.735E-3	-21.6003E-3
2.41371E-3	97.3648E-12	638.267E-3	-29.5800E-3	97.4371E-12	635.320E-3	-20.7137E-3
2.40870E-3	97.3661E-12	641.580E-3	-11.0770E-3	97.3425E-12	629.860E-3	-15.0442E-3
2.40370E-3	96.9986E-12	636.990E-3	-12.4880E-3	97.0961E-12	644.862E-3	-8.37378E-3
2.39870E-3	96.6325E-12	631.328E-3	-18.2389E-3	96.7662E-12	668.182E-3	-13.0410E-3
2.39370E-3	96.4109E-12	633.694E-3	-11.0707E-3	96.5052E-12	670.679E-3	-20.1673E-3
2.38869E-3	96.5225E-12	635.538E-3	-15.0974E-3	95.9727E-12	651.733E-3	-6.54148E-3
2.38369E-3	96.0262E-12	643.981E-3	-27.6142E-3	95.5150E-12	636.303E-3	-8.58352E-3
2.37869E-3	95.8700E-12	645.867E-3	-9.08012E-3	95.2944E-12	626.256E-3	-39.6729E-3
2.37369E-3	95.6970E-12	631.060E-3	14.0445E-3	94.7759E-12	613.073E-3	-59.2771E-3
2.36868E-3	95.6284E-12	623.604E-3	424.665E-6	94.5232E-12	614.546E-3	-62.9114E-3
2.36368E-3	94.9503E-12	632.637E-3	-13.4100E-3	94.1031E-12	625.593E-3	-54.0724E-3
2.35868E-3	94.9916E-12	650.326E-3	-7.46765E-3	93.9422E-12	632.296E-3	-39.0064E-3
2.35368E-3	94.2392E-12	662.321E-3	-9.08144E-3	93.7655E-12	630.835E-3	-27.9958E-3
2.34867E-3	93.9410E-12	663.264E-3	-13.5929E-3	93.2823E-12	619.822E-3	-22.4890E-3
2.34367E-3	93.3565E-12	655.918E-3	-15.8357E-3	93.1631E-12	618.328E-3	-23.9635E-3
2.33867E-3	93.0905E-12	661.175E-3	-22.5772E-3	92.9971E-12	630.698E-3	-24.7290E-3
2.33367E-3	92.8889E-12	670.949E-3	-30.3743E-3	92.9712E-12	644.689E-3	-12.2186E-3
2.32866E-3	92.4880E-12	652.603E-3	-34.0906E-3	93.1697E-12	646.578E-3	6.12932E-3
2.32366E-3	92.1566E-12	626.473E-3	-35.9917E-3	93.2803E-12	638.958E-3	12.3112E-3
2.31866E-3	91.9729E-12	622.767E-3	-28.3919E-3	93.4419E-12	630.582E-3	4.30474E-3
2.31366E-3	91.8664E-12	625.300E-3	-4.49699E-3	93.4452E-12	631.202E-3	-602.635E-6
2.30865E-3	92.0782E-12	612.296E-3	2.74834E-3	93.4359E-12	647.114E-3	613.752E-6
2.30365E-3	91.9153E-12	607.913E-3	-12.6016E-3	93.4780E-12	653.025E-3	-13.1332E-3
2.29865E-3	91.8019E-12	618.987E-3	-18.1238E-3	92.9937E-12	643.395E-3	-38.7363E-3
2.29365E-3	92.0769E-12	620.448E-3	-27.9775E-3	92.6238E-12	642.112E-3	-39.1695E-3
2.28864E-3	92.1896E-12	620.555E-3	-38.9412E-3	92.1649E-12	647.395E-3	-29.7135E-3
2.28364E-3	91.9285E-12	637.187E-3	-34.9444E-3	91.5966E-12	649.367E-3	-33.8463E-3
2.27864E-3	92.0622E-12	657.407E-3	-23.0176E-3	91.2074E-12	649.202E-3	-34.9511E-3
2.27364E-3	91.7161E-12	667.376E-3	-17.7191E-3	91.0689E-12	645.804E-3	-28.8787E-3
2.26863E-3	91.5222E-12	662.274E-3	-24.0621E-3	90.3063E-12	638.396E-3	-13.2116E-3
2.26363E-3	91.1787E-12	647.740E-3	-25.4216E-3	89.9072E-12	637.792E-3	8.15547E-3
2.25863E-3	90.8574E-12	645.722E-3	-21.6956E-3	89.8240E-12	643.842E-3	3.40471E-3
2.25363E-3	89.9754E-12	656.556E-3	-15.1511E-3	89.4126E-12	637.213E-3	-23.1727E-3
2.24862E-3	89.4086E-12	653.161E-3	-10.2606E-3	89.0828E-12	621.988E-3	-32.9749E-3
2.24362E-3	88.8220E-12	636.201E-3	-12.1519E-3	88.6654E-12	623.557E-3	-31.9323E-3
2.23862E-3	88.1935E-12	635.493E-3	-10.4992E-3	88.5137E-12	635.119E-3	-32.4630E-3
2.23362E-3	87.8687E-12	633.050E-3	-4.41035E-3	88.3820E-12	638.709E-3	-32.2721E-3
2.22861E-3	87.6243E-12	626.950E-3	-7.24907E-3	88.1940E-12	637.881E-3	-30.4020E-3
2.22361E-3	87.3943E-12	631.572E-3	-10.3047E-3	88.5583E-12	639.482E-3	-21.2607E-3
2.21861E-3	87.3227E-12	626.932E-3	-3.25628E-3	88.5502E-12	648.405E-3	-25.7081E-3
2.21361E-3	87.2396E-12	619.886E-3	-5.99935E-3	88.4059E-12	649.817E-3	-43.3144E-3
2.20860E-3	87.2820E-12	616.724E-3	-17.1965E-3	88.3714E-12	635.060E-3	-40.2686E-3
2.20360E-3	87.1434E-12	612.717E-3	-20.9057E-3	88.1108E-12	629.071E-3	-27.4192E-3
2.19860E-3	87.2081E-12	621.698E-3	-25.0772E-3	88.0131E-12	636.809E-3	-30.9554E-3
2.19360E-3	87.1936E-12	636.174E-3	-29.2191E-3	87.6815E-12	643.969E-3	-32.9377E-3
2.18859E-3	87.4237E-12	640.263E-3	-15.4669E-3	87.2884E-12	655.681E-3	-26.0489E-3
2.18359E-3	87.0359E-12	656.771E-3	-4.65860E-3	86.9662E-12	664.074E-3	-24.0936E-3
2.17859E-3	87.1011E-12	680.877E-3	-10.7923E-3	86.6305E-12	653.386E-3	-19.4017E-3
2.17359E-3	86.8144E-12	687.908E-3	-8.34661E-3	86.3874E-12	643.094E-3	-10.7517E-3
2.16858E-3	86.5559E-12	683.736E-3	-5.44694E-3	85.9020E-12	646.320E-3	-14.0864E-3
2.16358E-3	85.9784E-12	673.283E-3	-9.42197E-3	85.3755E-12	635.360E-3	-31.5452E-3
2.15858E-3	85.4279E-12	656.729E-3	-9.46366E-3	84.8669E-12	619.951E-3	-33.6019E-3
2.15358E-3	84.9469E-12	644.356E-3	-10.2070E-3	84.6860E-12	631.047E-3	-8.71815E-3
2.14857E-3	84.3192E-12	651.055E-3	-8.90130E-3	84.3549E-12	645.555E-3	-218.654E-6
2.14357E-3	83.7901E-12	656.306E-3	3.87053E-3	84.1537E-12	643.105E-3	-14.7570E-3
2.13857E-3	83.5300E-12	646.497E-3	8.40103E-3	84.2277E-12	645.319E-3	-19.5126E-3
2.13357E-3	83.5969E-12	635.376E-3	-15.2253E-3	84.2047E-12	663.436E-3	-24.1578E-3
2.12856E-3	83.3602E-12	622.108E-3	-30.3832E-3	84.1216E-12	670.257E-3	-24.6422E-3
2.12356E-3	83.2200E-12	618.684E-3	-16.7666E-3	84.0455E-12	665.589E-3	-10.2857E-3
2.11856E-3	83.3719E-12	639.779E-3	-11.6759E-3	84.1779E-12	660.939E-3	-3.34508E-3
2.11356E-3	83.5675E-12	662.542E-3	-17.8203E-3	83.7453E-12	645.234E-3	-1.44732E-3
2.10855E-3	83.3856E-12	659.007E-3	-15.3543E-3	83.9763E-12	640.887E-3	2.13644E-3
2.10355E-3	83.5829E-12	643.428E-3	-7.97318E-3	83.9791E-12	653.407E-3	7.11014E-3
2.09855E-3	83.7442E-12	646.091E-3	2.98749E-3	83.3653E-12	640.459E-3	6.30139E-3
2.09355E-3	83.5730E-12	655.366E-3	10.4993E-3	82.9129E-12	614.910E-3	-5.52906E-3
2.08854E-3	83.5110E-12	663.062E-3	-631.819E-6	82.7528E-12	616.891E-3	-16.9538E-3
2.08354E-3	83.3529E-12	678.238E-3	-12.2170E-3	82.5961E-12	632.401E-3	-26.1061E-3
2.07854E-3	83.0444E-12	681.964E-3	-4.82584E-3	81.9365E-12	642.682E-3	-22.7640E-3
2.07354E-3	82.4972E-12	672.527E-3	-4.09417E-3	81.6399E-12	644.426E-3	-8.00692E-3
2.06853E-3	82.0023E-12	673.032E-3	-14.3654E-3	81.5276E-12	643.813E-3	7.24214E-3
2.06353E-3	81.5116E-12	674.435E-3	-14.0442E-3	81.2805E-12	654.883E-3	10.4088E-3
2.05853E-3	81.1776E-12	659.323E-3	-14.1522E-3	80.9586E-12	665.936E-3	-226.450E-6
2.05353E-3	80.9802E-12	651.718E-3	-17.4177E-3	80.6977E-12	668.049E-3	-5.16657E-3
2.04852E-3	80.4517E-12	654.435E-3	-14.1351E-3	81.0223E-12	664.168E-3	-10.2978E-3
2.04352E-3	80.3946E-12	660.450E-3	-24.3170E-3	80.7377E-12	656.246E-3	-30.1994E-3
2.03852E-3	80.3589E-12	669.272E-3	-29.3148E-3	80.9011E-12	646.297E-3	-46.2147E-3
2.03352E-3	80.3380E-12	664.681E-3	-8.63640E-3	80.6920E-12	650.069E-3	-35.6241E-3
2.02851E-3	79.8589E-12	666.991E-3	556.231E-6	80.7167E-12	671.665E-3	-13.2172E-3
2.02351E-3	80.2170E-12	693.641E-3	-4.57465E-3	80.5883E-12	680.668E-3	-2.29316E-3
2.01851E-3	79.5660E-12	710.795E-3	-12.0088E-3	80.6204E-12	673.006E-3	-1.42389E-3
2.01351E-3	79.0846E-12	699.149E-3	-22.4954E-3	80.1215E-12	668.167E-3	-4.85717E-3
2.00850E-3	78.7940E-12	681.965E-3	-28.8703E-3	80.1021E-12	670.964E-3	-8.44778E-3
2.00350E-3	79.1364E-12	665.288E-3	-24.5315E-3	79.8215E-12	668.174E-3	-5.19274E-3
1.99850E-3	78.7524E-12	653.586E-3	-12.4637E-3	79.3778E-12	655.677E-3	2.26244E-3
1.99350E-3	78.6004E-12	660.383E-3	-287.363E-6	79.0720E-12	644.348E-3	-6.70815E-3
1.98849E-3	78.6621E-12	662.693E-3	7.34528E-3	78.8139E-12	640.159E-3	-10.7928E-3
1.98349E-3	78.5306E-12	650.199E-3	-8.96899E-3	78.2899E-12	657.084E-3	5.43324E-3
1.97849E-3	78.3921E-12	657.922E-3	-34.4503E-3	77.6161E-12	687.365E-3	2.82649E-3
1.97349E-3	78.3047E-12	679.765E-3	-39.2278E-3	77.3023E-12	695.977E-3	-18.3957E-3
1.96848E-3	77.7641E-12	692.357E-3	-35.0285E-3	77.0936E-12	680.946E-3	-33.5182E-3
1.96348E-3	77.1560E-12	704.116E-3	-23.3838E-3	76.5792E-12	672.755E-3	-31.5935E-3
1.95848E-3	77.1475E-12	693.013E-3	-9.77137E-3	76.2438E-12	675.240E-3	-10.8539E-3
1.95348E-3	76.6899E-12	666.696E-3	-21.0038E-3	76.1466E-12	667.038E-3	6.82477E-3
1.94847E-3	76.4991E-12	663.056E-3	-31.2944E-3	76.0365E-12	661.081E-3	5.54919E-3
1.94347E-3	76.4399E-12	661.667E-3	-14.0528E-3	75.6720E-12	661.410E-3	336.583E-6
1.93847E-3	75.8967E-12	655.086E-3	-2.03913E-3	75.2971E-12	659.830E-3	-4.26956E-3
1.93347E-3	75.4465E-12	659.378E-3	-10.0979E-3	75.0774E-12	663.473E-3	-13.4708E-3
1.92846E-3	75.2390E-12	669.350E-3	-8.35065E-3	74.9722E-12	663.904E-3	-19.6715E-3
1.92346E-3	74.7553E-12	672.960E-3	-2.99340E-3	74.3901E-12	658.869E-3	-8.79135E-3
1.91846E-3	74.4293E-12	662.112E-3	-12.9309E-3	74.2471E-12	664.585E-3	16.0871E-3
1.91346E-3	74.1135E-12	657.304E-3	-10.8696E-3	74.2275E-12	677.880E-3	15.9777E-3
1.90845E-3	74.0129E-12	662.629E-3	4.33805E-3	74.0571E-12	679.683E-3	-6.76920E-3
1.90345E-3	73.7152E-12	668.090E-3	4.64611E-3	73.8003E-12	675.134E-3	-19.9412E-3
1.89845E-3	73.6211E-12	676.584E-3	4.29406E-3	73.5837E-12	670.186E-3	-18.3869E-3
1.89345E-3	73.5055E-12	678.196E-3	2.13266E-3	72.9253E-12	671.545E-3	-11.6756E-3
1.88844E-3	73.1800E-12	678.192E-3	-18.6235E-3	72.9481E-12	682.874E-3	-14.5232E-3
1.88344E-3	73.2146E-12	681.434E-3	-22.7200E-3	72.4698E-12	681.668E-3	-26.3585E-3
1.87844E-3	73.0605E-12	672.621E-3	-8.07947E-3	72.2475E-12	670.727E-3	-23.3769E-3
1.87344E-3	73.0288E-12	671.758E-3	-8.91344E-3	71.9559E-12	673.493E-3	-15.4018E-3
1.86843E-3	72.9638E-12	677.248E-3	-9.90258E-3	71.8198E-12	670.587E-3	-15.4822E-3
1.86343E-3	72.9716E-12	673.184E-3	-11.3778E-3	71.4871E-12	662.399E-3	-8.85680E-3
1.85843E-3	72.7102E-12	684.999E-3	-23.2703E-3	71.2580E-12	664.190E-3	-9.74322E-3
1.85343E-3	72.4168E-12	699.979E-3	-18.4023E-3	71.5186E-12	672.763E-3	-22.4991E-3
1.84842E-3	71.8838E-12	692.684E-3	100.141E-6	71.2270E-12	693.330E-3	-20.5329E-3
1.84342E-3	71.9698E-12	692.818E-3	223.266E-6	70.9617E-12	715.890E-3	-12.1710E-3
1.83842E-3	71.6078E-12	717.337E-3	-3.82797E-3	71.3657E-12	721.345E-3	-29.2330E-3
1.83342E-3	71.0202E-12	729.930E-3	-779.253E-6	71.5161E-12	716.751E-3	-44.8915E-3
1.82841E-3	70.8797E-12	721.997E-3	-8.78571E-3	71.3509E-12	720.002E-3	-31.4114E-3
1.82341E-3	70.7115E-12	723.749E-3	-22.3455E-3	71.2746E-12	724.091E-3	-25.2881E-3
1.81841E-3	69.8893E-12	727.911E-3	-27.8277E-3	71.3893E-12	720.168E-3	-24.1380E-3
1.81341E-3	69.6886E-12	715.979E-3	-26.9845E-3	71.5398E-12	719.952E-3	-16.4111E-3
1.80840E-3	69.7908E-12	706.653E-3	-26.9001E-3	71.3618E-12	733.768E-3	-30.3914E-3
1.80340E-3	69.4130E-12	704.340E-3	-22.0966E-3	71.0179E-12	739.190E-3	-38.6901E-3
1.79840E-3	69.0397E-12	705.474E-3	-17.3385E-3	70.9192E-12	725.847E-3	-17.5785E-3
1.79340E-3	69.1580E-12	722.502E-3	-11.2100E-3	70.5719E-12	722.360E-3	-2.72648E-3
1.78839E-3	68.7515E-12	725.066E-3	4.28992E-3	70.0633E-12	722.404E-3	-10.6845E-3
1.78339E-3	68.3822E-12	701.563E-3	8.07079E-3	69.8049E-12	717.497E-3	-25.1630E-3
1.77839E-3	68.7157E-12	696.676E-3	-1.86959E-3	69.3990E-12	728.682E-3	-22.2559E-3
1.77339E-3	68.5343E-12	693.608E-3	-2.66184E-3	68.6647E-12	731.797E-3	-9.12639E-3
1.76838E-3	68.4189E-12	683.142E-3	-5.32595E-3	68.5819E-12	717.537E-3	-5.10803E-3
1.76338E-3	68.4146E-12	702.138E-3	-4.48471E-3	68.1850E-12	724.999E-3	-10.5810E-3
1.75838E-3	67.9550E-12	729.129E-3	3.22891E-3	67.8286E-12	736.530E-3	-24.8685E-3
1.75338E-3	67.3511E-12	736.235E-3	-16.8978E-3	67.5293E-12	726.753E-3	-26.7286E-3
1.74837E-3	67.5079E-12	732.511E-3	-37.8364E-3	67.4033E-12	723.931E-3	-11.4308E-3
1.74337E-3	66.8073E-12	719.488E-3	-26.6627E-3	67.0039E-12	738.035E-3	-3.27275E-3
1.73837E-3	65.8770E-12	716.774E-3	-20.4314E-3	66.8999E-12	739.225E-3	-305.455E-6
1.73337E-3	65.7848E-12	731.795E-3	-20.7090E-3	66.7916E-12	724.959E-3	-5.90136E-3
1.72836E-3	65.6377E-12	743.374E-3	-13.0221E-3	66.7390E-12	718.063E-3	-22.1214E-3
1.72336E-3	64.7437E-12	740.874E-3	-13.9784E-3	66.6045E-12	713.624E-3	-25.2895E-3
1.71836E-3	64.3210E-12	726.647E-3	-24.6366E-3	66.4714E-12	717.264E-3	-14.4126E-3
1.71336E-3	64.5332E-12	714.717E-3	-27.3646E-3	66.4642E-12	727.644E-3	-6.80266E-3
1.70835E-3	63.9614E-12	708.934E-3	-9.98882E-3	66.1601E-12	733.782E-3	-2.92414E-3
1.70335E-3	63.8206E-12	710.484E-3	2.74984E-3	65.8798E-12	739.480E-3	-1.24129E-3
1.69835E-3	63.8853E-12	715.758E-3	-5.20580E-3	65.6445E-12	736.724E-3	-7.60122E-3
1.69335E-3	64.0019E-12	713.889E-3	-24.0330E-3	65.2591E-12	726.991E-3	-13.2352E-3
1.68834E-3	63.7855E-12	710.821E-3	-45.4571E-3	64.5015E-12	731.103E-3	-15.1907E-3
1.68334E-3	63.8370E-12	717.359E-3	-44.0040E-3	64.0385E-12	754.621E-3	-24.7311E-3
1.67834E-3	64.0104E-12	722.037E-3	-31.5751E-3	63.5863E-12	761.005E-3	-32.4827E-3
1.67334E-3	63.9618E-12	725.842E-3	-38.7874E-3	63.1376E-12	745.776E-3	-26.0907E-3
1.66833E-3	63.8169E-12	741.543E-3	-49.7767E-3	62.2965E-12	739.358E-3	-18.3339E-3
1.66333E-3	63.6149E-12	750.753E-3	-51.4001E-3	61.8193E-12	728.872E-3	-20.5498E-3
1.65833E-3	63.6017E-12	753.226E-3	-49.6822E-3	61.5708E-12	720.809E-3	-24.4964E-3
1.65333E-3	63.5801E-12	760.865E-3	-27.8817E-3	61.2668E-12	739.803E-3	-33.8430E-3
1.64832E-3	63.1338E-12	759.961E-3	-5.80314E-3	60.8649E-12	751.533E-3	-36.7056E-3
1.64332E-3	62.6064E-12	749.217E-3	-16.5588E-3	60.6553E-12	739.234E-3	-18.8131E-3
1.63832E-3	62.4202E-12	753.868E-3	-18.6009E-3	60.6589E-12	735.837E-3	-15.9829E-3
1.63332E-3	62.1736E-12	766.841E-3	923.610E-6	60.5812E-12	747.588E-3	-29.9530E-3
1.62831E-3	61.5482E-12	769.085E-3	2.00624E-3	60.4563E-12	755.360E-3	-28.0773E-3
1.62331E-3	61.0867E-12	775.150E-3	-9.05838E-3	60.3949E-12	763.335E-3	-25.8499E-3
1.61831E-3	60.7384E-12	777.000E-3	-3.08878E-3	60.3817E-12	778.075E-3	-32.4975E-3
1.61331E-3	60.5982E-12	768.662E-3	-882.473E-6	60.2223E-12	775.407E-3	-23.8316E-3
1.60830E-3	59.9544E-12	769.239E-3	-19.7539E-3	60.1607E-12	776.051E-3	-11.6279E-3
1.60330E-3	59.7069E-12	766.448E-3	-23.9018E-3	60.1969E-12	784.951E-3	-18.9686E-3
1.59830E-3	59.5709E-12	764.270E-3	-18.2021E-3	59.9364E-12	772.505E-3	-18.2323E-3
1.59330E-3	59.6865E-12	773.262E-3	-29.5365E-3	59.7643E-12	771.171E-3	-3.69989E-3
1.58829E-3	59.3017E-12	779.983E-3	-33.0890E-3	59.6069E-12	782.978E-3	-7.53870E-3
1.58329E-3	59.3286E-12	773.811E-3	-23.2622E-3	59.7546E-12	775.832E-3	-17.7800E-3
1.57829E-3	59.1181E-12	766.320E-3	-26.0087E-3	59.2007E-12	772.808E-3	-22.0780E-3
1.57329E-3	58.8559E-12	769.717E-3	-25.4190E-3	58.8531E-12	781.509E-3	-31.7848E-3
1.56828E-3	58.6224E-12	759.723E-3	-14.6038E-3	58.6341E-12	770.550E-3	-26.6894E-3
1.56328E-3	58.2657E-12	746.155E-3	-16.0913E-3	58.3423E-12	766.062E-3	-11.7751E-3
1.55828E-3	57.8002E-12	757.044E-3	-11.8939E-3	57.7656E-12	778.572E-3	-16.3379E-3
1.55328E-3	57.5496E-12	759.530E-3	-1.26703E-3	57.2880E-12	770.331E-3	-17.5250E-3
1.54827E-3	57.2417E-12	757.350E-3	-6.86347E-3	57.0736E-12	762.548E-3	-8.55688E-3
1.54327E-3	57.0837E-12	771.656E-3	-11.1805E-3	56.8843E-12	769.493E-3	-17.3123E-3
1.53827E-3	56.9780E-12	771.557E-3	-9.39583E-3	56.3345E-12	776.385E-3	-31.2842E-3
1.53327E-3	56.8040E-12	765.835E-3	-13.1566E-3	56.0712E-12	793.593E-3	-33.7849E-3
1.52826E-3	56.3659E-12	781.524E-3	-15.0922E-3	55.6844E-12	798.753E-3	-34.7535E-3
1.52326E-3	56.0487E-12	785.405E-3	-17.2261E-3	55.7591E-12	781.427E-3	-37.4855E-3
1.51826E-3	55.5997E-12	773.890E-3	-29.4588E-3	55.5715E-12	773.234E-3	-27.6279E-3
1.51326E-3	55.6842E-12	781.974E-3	-31.2904E-3	55.3089E-12	775.045E-3	-16.3348E-3
1.50825E-3	54.8951E-12	778.788E-3	-12.0187E-3	55.2265E-12	771.876E-3	-23.9079E-3
1.50325E-3	54.7280E-12	755.381E-3	-8.24657E-3	55.2830E-12	776.795E-3	-32.5956E-3
1.49825E-3	54.6868E-12	755.829E-3	-13.9324E-3	55.1708E-12	792.078E-3	-27.5618E-3
1.49325E-3	54.0788E-12	771.152E-3	-4.49337E-3	54.8267E-12	798.427E-3	-10.8529E-3
1.48824E-3	53.5598E-12	780.111E-3	-13.1396E-3	54.9435E-12	790.528E-3	8.33783E-3
1.48324E-3	53.6216E-12	784.296E-3	-40.4463E-3	54.6712E-12	788.747E-3	11.6807E-3
1.47824E-3	53.2087E-12	787.413E-3	-42.9547E-3	54.3366E-12	800.853E-3	-3.39659E-3
1.47324E-3	52.6272E-12	794.610E-3	-34.8853E-3	53.7194E-12	802.259E-3	-12.7705E-3
1.46823E-3	52.3408E-12	797.936E-3	-36.9107E-3	53.6612E-12	790.258E-3	-11.8617E-3
1.46323E-3	52.0971E-12	784.506E-3	-24.3764E-3	53.0830E-12	785.744E-3	-14.9807E-3
1.45823E-3	51.6926E-12	765.191E-3	-6.70853E-3	52.7687E-12	787.290E-3	-17.8267E-3
1.45323E-3	51.4614E-12	756.307E-3	-10.4926E-3	52.1705E-12	780.442E-3	-22.1351E-3
1.44822E-3	51.3920E-12	757.194E-3	-11.8336E-3	51.7892E-12	763.092E-3	-35.7154E-3
1.44322E-3	51.1823E-12	761.819E-3	-1.31914E-3	51.3705E-12	740.278E-3	-33.3281E-3
1.43822E-3	50.9530E-12	774.117E-3	2.04955E-3	51.1186E-12	737.601E-3	-18.1063E-3
1.43322E-3	50.8270E-12	783.168E-3	3.06051E-3	50.8161E-12	754.568E-3	-21.9981E-3
1.42821E-3	50.5146E-12	776.255E-3	-6.26463E-3	50.6573E-12	756.303E-3	-29.5846E-3
1.42321E-3	50.3319E-12	770.181E-3	-22.4973E-3	50.4785E-12	744.468E-3	-30.1116E-3
1.41821E-3	50.1538E-12	770.318E-3	-22.8534E-3	50.0534E-12	738.893E-3	-29.6174E-3
1.41321E-3	49.7869E-12	768.275E-3	-18.2532E-3	50.0788E-12	742.377E-3	-23.8110E-3
1.40820E-3	49.4635E-12	766.944E-3	-20.1344E-3	50.1981E-12	752.666E-3	-18.0430E-3
1.40320E-3	49.3607E-12	752.985E-3	-15.8932E-3	50.0407E-12	759.495E-3	-21.1651E-3
1.39820E-3	49.0913E-12	725.013E-3	-16.1519E-3	49.7431E-12	749.403E-3	-19.8678E-3
1.39320E-3	48.8297E-12	722.708E-3	-20.8765E-3	49.8335E-12	732.500E-3	-16.4294E-3
1.38819E-3	48.7427E-12	744.067E-3	-8.62105E-3	49.7758E-12	723.691E-3	-24.8412E-3
1.38319E-3	48.6769E-12	742.098E-3	2.80967E-3	49.4583E-12	726.093E-3	-29.5751E-3
1.37819E-3	48.4427E-12	722.871E-3	-1.21868E-3	49.0414E-12	731.346E-3	-22.5678E-3
1.37319E-3	48.2074E-12	721.657E-3	4.71923E-3	48.7403E-12	712.614E-3	-25.8419E-3
1.36818E-3	48.1533E-12	732.317E-3	19.9902E-3	48.4727E-12	682.361E-3	-40.2625E-3
1.36318E-3	48.0747E-12	727.641E-3	14.5433E-3	47.9034E-12	680.823E-3	-46.4213E-3
1.35818E-3	47.8228E-12	719.025E-3	-228.324E-6	47.2642E-12	691.400E-3	-39.2772E-3
1.35318E-3	47.6150E-12	714.699E-3	-8.72985E-3	46.9649E-12	678.429E-3	-24.7740E-3
1.34817E-3	47.5824E-12	703.011E-3	-19.7688E-3	46.6952E-12	665.972E-3	-18.8343E-3
1.34317E-3	47.3144E-12	697.019E-3	-12.3246E-3	46.1045E-12	673.702E-3	-25.6339E-3
1.33817E-3	47.0617E-12	690.962E-3	143.206E-6	45.7605E-12	663.054E-3	-28.7488E-3
1.33317E-3	46.7110E-12	685.302E-3	-23.2429E-3	45.5609E-12	643.386E-3	-22.9245E-3
1.32816E-3	46.5444E-12	695.615E-3	-42.6382E-3	45.4628E-12	638.778E-3	-32.0511E-3
1.32316E-3	46.2891E-12	682.789E-3	-19.8522E-3	45.1009E-12	623.125E-3	-40.2445E-3
1.31816E-3	45.8692E-12	644.568E-3	-303.406E-6	44.9956E-12	602.975E-3	-25.9711E-3
1.31316E-3	45.6891E-12	637.837E-3	-11.5479E-3	44.9681E-12	603.604E-3	-20.7350E-3
1.30815E-3	45.1535E-12	644.442E-3	-15.8749E-3	44.8054E-12	605.156E-3	-24.7022E-3
1.30315E-3	44.9467E-12	635.435E-3	-11.4936E-3	44.7619E-12	589.913E-3	-17.5400E-3
1.29815E-3	44.7142E-12	630.997E-3	-14.8109E-3	44.6437E-12	575.808E-3	-19.0684E-3
1.29315E-3	44.6531E-12	623.982E-3	-9.36294E-3	44.5093E-12	569.867E-3	-21.1185E-3
1.28814E-3	44.3148E-12	613.330E-3	-9.10072E-3	44.3391E-12	559.800E-3	-2.08840E-3
1.28314E-3	44.3519E-12	620.364E-3	-20.6030E-3	44.0091E-12	539.106E-3	500.017E-6
1.27814E-3	44.2559E-12	623.919E-3	-23.7777E-3	43.7868E-12	521.834E-3	-21.2098E-3
1.27314E-3	44.0255E-12	604.151E-3	-21.4897E-3	43.8844E-12	527.194E-3	-18.3300E-3
1.26813E-3	44.0968E-12	588.752E-3	-14.3061E-3	43.6794E-12	538.112E-3	-4.31802E-3
1.26313E-3	44.0928E-12	582.329E-3	-2.86062E-3	43.4365E-12	522.788E-3	-8.46544E-3
1.25813E-3	44.0180E-12	559.983E-3	-2.95765E-3	43.2226E-12	497.477E-3	-6.41370E-3
1.25313E-3	43.6605E-12	538.157E-3	-16.9963E-3	43.2960E-12	491.639E-3	-899.615E-6
1.24812E-3	43.6689E-12	526.093E-3	-17.1064E-3	42.9981E-12	489.495E-3	-3.85576E-3
1.24312E-3	43.4428E-12	514.518E-3	-6.81066E-3	42.7280E-12	481.475E-3	-5.25381E-3
1.23812E-3	43.1672E-12	521.866E-3	-4.29684E-3	42.7742E-12	480.016E-3	-7.42691E-3
1.23312E-3	42.8887E-12	520.484E-3	10.9282E-3	42.6680E-12	474.443E-3	-13.3215E-3
1.22811E-3	42.5828E-12	486.765E-3	20.8685E-3	42.4887E-12	457.035E-3	-12.9370E-3
1.22311E-3	42.5258E-12	470.952E-3	1.44958E-3	42.3269E-12	445.176E-3	-14.8360E-3
1.21811E-3	42.0674E-12	482.649E-3	-10.1077E-3	42.1755E-12	430.996E-3	-21.2284E-3
1.21311E-3	41.6336E-12	480.575E-3	-4.00235E-3	41.9852E-12	412.485E-3	-15.4184E-3
1.20810E-3	41.7097E-12	463.806E-3	-9.89071E-3	41.8031E-12	403.025E-3	-6.78927E-3
1.20310E-3	41.3476E-12	459.042E-3	-13.2838E-3	41.5588E-12	387.306E-3	-10.5417E-3
1.19810E-3	41.0916E-12	456.047E-3	-3.90931E-3	41.3204E-12	378.050E-3	-7.77115E-3
1.19310E-3	41.0974E-12	435.516E-3	-9.62114E-3	41.2518E-12	392.780E-3	-1.97840E-3
1.18809E-3	40.8650E-12	420.581E-3	-23.9620E-3	41.2062E-12	397.605E-3	-17.5108E-3
1.18309E-3	40.5680E-12	420.087E-3	-20.0756E-3	41.0838E-12	373.198E-3	-31.8261E-3
1.17809E-3	40.7016E-12	413.235E-3	-13.7127E-3	40.9914E-12	358.770E-3	-28.4690E-3
1.17309E-3	40.6505E-12	396.971E-3	-5.02504E-3	40.9399E-12	362.102E-3	-34.7493E-3
1.16808E-3	40.3886E-12	372.401E-3	601.344E-6	40.7373E-12	344.797E-3	-43.2607E-3
1.16308E-3	40.0541E-12	356.875E-3	-22.3660E-3	40.6119E-12	330.340E-3	-26.9385E-3
1.15808E-3	40.0429E-12	361.244E-3	-29.3360E-3	40.6592E-12	334.887E-3	-16.6381E-3
1.15308E-3	39.6638E-12	356.782E-3	-3.81189E-3	40.4161E-12	320.210E-3	-22.8617E-3
1.14807E-3	39.5710E-12	339.280E-3	6.34778E-3	40.2072E-12	299.578E-3	-13.0717E-3
1.14307E-3	39.3789E-12	333.660E-3	270.848E-6	40.0783E-12	304.702E-3	-4.66584E-3
1.13807E-3	39.5554E-12	323.641E-3	-970.093E-6	40.1802E-12	303.487E-3	-14.6904E-3
1.13307E-3	39.3726E-12	300.185E-3	-12.6811E-3	39.9818E-12	284.011E-3	-13.3425E-3
1.12806E-3	39.2137E-12	298.951E-3	-27.1000E-3	39.7563E-12	281.251E-3	-15.9594E-3
1.12306E-3	39.2692E-12	295.494E-3	-17.3016E-3	39.6958E-12	278.907E-3	-31.1045E-3
1.11806E-3	39.2529E-12	273.334E-3	-6.15335E-3	39.4837E-12	261.795E-3	-22.2686E-3
1.11306E-3	39.3041E-12	284.659E-3	-10.8246E-3	39.4732E-12	260.559E-3	-8.43811E-3
1.10805E-3	39.1168E-12	309.582E-3	-7.49649E-3	39.2299E-12	267.262E-3	-7.60870E-3
1.10305E-3	38.9913E-12	298.790E-3	-9.81064E-3	39.2151E-12	260.455E-3	-6.09150E-3
1.09805E-3	38.9712E-12	281.166E-3	-15.6219E-3	38.9747E-12	254.990E-3	-21.8671E-3
1.09305E-3	38.9089E-12	276.991E-3	2.08736E-3	39.0801E-12	255.116E-3	-42.6204E-3
1.08804E-3	38.8565E-12	266.050E-3	12.6714E-3	38.8807E-12	247.499E-3	-30.3991E-3
1.08304E-3	38.7870E-12	260.086E-3	388.907E-6	38.8758E-12	233.318E-3	-15.3797E-3
1.07804E-3	38.7471E-12	258.231E-3	-10.2584E-3	38.5269E-12	225.715E-3	-20.5561E-3
1.07304E-3	38.6785E-12	234.745E-3	-12.8098E-3	38.6729E-12	228.367E-3	-16.3114E-3
1.06803E-3	38.6474E-12	227.758E-3	-19.7345E-3	38.4522E-12	232.183E-3	-18.5577E-3
1.06303E-3	38.5094E-12	243.395E-3	-25.4236E-3	38.1019E-12	230.900E-3	-32.6529E-3
1.05803E-3	38.4713E-12	230.596E-3	-14.7894E-3	38.1092E-12	228.003E-3	-17.7400E-3
1.05303E-3	38.3128E-12	215.550E-3	-4.36766E-3	38.1156E-12	228.725E-3	5.15513E-3
1.04802E-3	38.3502E-12	221.999E-3	3.20708E-3	37.8512E-12	228.314E-3	-10.1321E-3
1.04302E-3	38.3193E-12	215.397E-3	7.08801E-3	37.8160E-12	227.583E-3	-28.6968E-3
1.03802E-3	38.2306E-12	209.916E-3	-6.18470E-3	37.7716E-12	231.098E-3	-22.1319E-3
1.03302E-3	38.2571E-12	229.973E-3	-10.2302E-3	37.2335E-12	232.123E-3	-21.1136E-3
1.02801E-3	38.0034E-12	238.818E-3	-6.06487E-3	36.9918E-12	221.600E-3	-16.8029E-3
1.02301E-3	37.8619E-12	233.230E-3	-15.9386E-3	37.2410E-12	217.222E-3	-3.01569E-3
1.01801E-3	38.0783E-12	243.566E-3	-18.4041E-3	36.9819E-12	219.880E-3	-16.4132E-3
1.01301E-3	37.7670E-12	241.952E-3	-6.72716E-3	36.6936E-12	212.939E-3	-40.1071E-3
1.00800E-3	37.6104E-12	217.904E-3	-10.3803E-3	36.8794E-12	216.653E-3	-42.2749E-3
1.00300E-3	37.5020E-12	212.987E-3	-24.0786E-3	36.9837E-12	237.453E-3	-35.7064E-3
997.999E-6	37.4176E-12	217.833E-3	-30.4791E-3	37.0599E-12	244.734E-3	-26.0163E-3
992.997E-6	37.2207E-12	220.116E-3	-40.1707E-3	37.4627E-12	238.277E-3	-17.1322E-3
987.994E-6	36.8950E-12	237.658E-3	-41.8559E-3	37.3340E-12	247.834E-3	-13.9760E-3
982.991E-6	37.0873E-12	240.446E-3	-32.1765E-3	37.5167E-12	268.650E-3	-15.0554E-3
977.989E-6	36.7849E-12	233.920E-3	-36.1168E-3	37.7087E-12	281.896E-3	-11.5765E-3
972.986E-6	36.8850E-12	244.073E-3	-44.7804E-3	37.7465E-12	270.438E-3	-16.0914E-3
967.984E-6	36.7852E-12	235.062E-3	-31.5892E-3	37.6200E-12	243.679E-3	-26.5785E-3
962.981E-6	36.7993E-12	227.394E-3	-17.7137E-3	37.6761E-12	242.553E-3	-17.2930E-3
957.979E-6	36.6457E-12	250.378E-3	-15.0659E-3	37.5729E-12	263.173E-3	-12.4909E-3
952.976E-6	36.9252E-12	261.203E-3	-7.18147E-3	37.3716E-12	271.959E-3	-22.3229E-3
947.974E-6	36.9064E-12	250.621E-3	-20.1962E-3	37.0662E-12	276.607E-3	-24.1169E-3
942.971E-6	36.9275E-12	253.236E-3	-34.4753E-3	36.6161E-12	292.880E-3	-17.4296E-3
937.969E-6	36.8460E-12	265.822E-3	-20.7720E-3	36.3400E-12	305.541E-3	-13.0498E-3
932.966E-6	36.7667E-12	272.675E-3	-21.1580E-3	36.0979E-12	320.032E-3	-10.9830E-3
927.964E-6	36.5720E-12	283.273E-3	-31.8389E-3	35.7287E-12	336.981E-3	-13.7887E-3
922.961E-6	36.5693E-12	296.627E-3	-24.3137E-3	35.5366E-12	337.002E-3	-28.3929E-3
917.959E-6	36.2863E-12	312.129E-3	-18.5907E-3	35.3689E-12	337.873E-3	-38.6377E-3
912.956E-6	35.8914E-12	328.703E-3	-16.5156E-3	35.2143E-12	359.101E-3	-34.6930E-3
907.954E-6	35.7015E-12	336.652E-3	-6.40956E-3	35.1653E-12	381.327E-3	-25.9077E-3
902.951E-6	35.5934E-12	327.553E-3	-18.0558E-3	35.1817E-12	388.724E-3	-768.223E-6
897.949E-6	34.9858E-12	326.400E-3	-38.5619E-3	35.0349E-12	393.111E-3	14.3271E-3
892.946E-6	34.7899E-12	347.229E-3	-36.4275E-3	35.2355E-12	402.125E-3	-6.65969E-3
887.944E-6	34.4826E-12	362.011E-3	-32.7445E-3	35.2170E-12	403.371E-3	-12.5478E-3
882.941E-6	34.4771E-12	365.422E-3	-26.0112E-3	35.2243E-12	407.975E-3	-4.12337E-3
877.939E-6	34.0856E-12	365.023E-3	-4.34010E-3	35.2039E-12	434.080E-3	-18.1290E-3
872.936E-6	33.9079E-12	360.258E-3	7.97569E-3	34.9379E-12	449.616E-3	-23.9987E-3
867.934E-6	33.7528E-12	373.170E-3	-2.99884E-3	35.0172E-12	448.157E-3	-11.7410E-3
862.931E-6	33.7851E-12	399.055E-3	-12.8777E-3	35.0192E-12	453.831E-3	-12.1502E-3
857.929E-6	33.7487E-12	397.316E-3	-10.8012E-3	34.6430E-12	469.043E-3	-10.8740E-3
852.926E-6	33.7538E-12	392.949E-3	-22.3997E-3	34.2990E-12	486.427E-3	3.67956E-6
847.924E-6	33.6506E-12	413.683E-3	-36.9068E-3	34.1786E-12	502.418E-3	-190.343E-6
842.921E-6	33.8403E-12	428.801E-3	-31.3576E-3	34.0086E-12	521.167E-3	-9.56256E-3
837.919E-6	33.8782E-12	443.373E-3	-33.4982E-3	33.4372E-12	538.129E-3	-20.0069E-3
832.916E-6	33.6386E-12	477.570E-3	-35.7654E-3	33.0608E-12	543.800E-3	-28.4312E-3
827.914E-6	33.6814E-12	500.222E-3	-21.3707E-3	33.0471E-12	542.052E-3	-27.1643E-3
822.911E-6	33.5579E-12	509.706E-3	-24.8138E-3	32.5476E-12	554.914E-3	-16.5170E-3
817.909E-6	33.3299E-12	533.852E-3	-39.1983E-3	32.4245E-12	578.095E-3	-17.5220E-3
812.906E-6	33.2807E-12	546.000E-3	-29.7035E-3	32.3087E-12	590.473E-3	-23.6814E-3
807.904E-6	33.0112E-12	546.714E-3	-21.5978E-3	32.1868E-12	612.799E-3	-18.1331E-3
802.901E-6	32.7124E-12	573.422E-3	-32.7067E-3	31.9462E-12	644.646E-3	-16.6601E-3
797.899E-6	32.4251E-12	599.853E-3	-26.8789E-3	31.8708E-12	657.164E-3	-18.8722E-3
792.896E-6	32.2038E-12	599.562E-3	-14.1430E-3	31.7758E-12	668.123E-3	-9.85962E-3
787.894E-6	31.8556E-12	608.867E-3	-19.4138E-3	31.6830E-12	691.449E-3	-10.8238E-3
782.891E-6	31.5654E-12	631.378E-3	-21.3660E-3	31.5132E-12	706.194E-3	-28.2055E-3
777.889E-6	31.4782E-12	644.513E-3	-21.1866E-3	31.3409E-12	717.558E-3	-36.6590E-3
772.886E-6	31.1811E-12	657.723E-3	-24.1315E-3	31.0806E-12	728.852E-3	-35.7484E-3
767.884E-6	30.9707E-12	660.189E-3	-12.6134E-3	30.9573E-12	729.469E-3	-33.5676E-3
762.881E-6	30.7476E-12	663.055E-3	-4.98272E-3	30.6881E-12	744.191E-3	-20.6934E-3
757.879E-6	30.4129E-12	692.705E-3	-11.2609E-3	30.2335E-12	779.237E-3	-8.65271E-3
752.876E-6	30.2859E-12	719.125E-3	-6.37898E-3	29.9979E-12	803.344E-3	-12.6821E-3
747.874E-6	30.1331E-12	724.490E-3	-6.32689E-3	29.7723E-12	815.277E-3	-18.8382E-3
742.871E-6	29.6970E-12	742.903E-3	-26.2225E-3	29.4781E-12	823.700E-3	-17.1914E-3
737.869E-6	29.5137E-12	769.195E-3	-34.7889E-3	29.1611E-12	814.079E-3	-13.8526E-3
732.866E-6	29.3616E-12	769.328E-3	-29.5375E-3	29.0631E-12	809.449E-3	-18.2231E-3
727.864E-6	28.8643E-12	769.724E-3	-31.0358E-3	28.7954E-12	843.244E-3	-24.4199E-3
722.861E-6	28.6807E-12	784.819E-3	-19.9136E-3	28.4888E-12	874.569E-3	-24.9665E-3
717.859E-6	28.3475E-12	794.982E-3	-3.86313E-3	28.2722E-12	874.377E-3	-19.8437E-3
712.856E-6	28.0584E-12	813.618E-3	-16.7452E-3	28.0201E-12	878.047E-3	-18.0355E-3
707.854E-6	27.8148E-12	845.877E-3	-27.7309E-3	27.7423E-12	894.336E-3	-28.7941E-3
702.851E-6	27.6492E-12	860.644E-3	-22.1439E-3	27.4048E-12	903.959E-3	-28.9483E-3
697.849E-6	27.3096E-12	866.871E-3	-24.8821E-3	27.0532E-12	918.233E-3	-14.9967E-3
692.846E-6	27.0954E-12	883.491E-3	-20.1842E-3	26.8849E-12	934.722E-3	-16.9063E-3
687.844E-6	26.8308E-12	885.825E-3	-8.91475E-3	26.5216E-12	937.661E-3	-23.5357E-3
682.841E-6	26.4224E-12	885.947E-3	-18.1282E-3	26.1996E-12	948.412E-3	-14.2330E-3
677.839E-6	26.0781E-12	913.036E-3	-27.2436E-3	25.9220E-12	971.105E-3	-3.45220E-3
672.836E-6	25.8395E-12	937.964E-3	-29.3747E-3	25.7368E-12	987.708E-3	2.35259E-3
667.834E-6	25.4014E-12	943.363E-3	-39.5937E-3	25.4626E-12	1.00573E+0	4.36418E-3
662.831E-6	25.0818E-12	950.584E-3	-29.7474E-3	25.0914E-12	1.01242E+0	-13.9336E-3
657.829E-6	24.6551E-12	957.238E-3	-9.56339E-3	25.0050E-12	1.00993E+0	-35.8698E-3
652.826E-6	24.2563E-12	967.699E-3	-8.24232E-3	24.7542E-12	1.02425E+0	-27.7214E-3
647.824E-6	23.7877E-12	989.591E-3	-11.1963E-3	24.4691E-12	1.04365E+0	-13.0482E-3
642.821E-6	23.5233E-12	989.993E-3	-14.2573E-3	24.1232E-12	1.05082E+0	-14.4300E-3
637.819E-6	23.2158E-12	977.742E-3	-22.9647E-3	23.7948E-12	1.03585E+0	-18.4489E-3
632.816E-6	22.6612E-12	983.515E-3	-18.7468E-3	23.4134E-12	1.01189E+0	-23.8248E-3
627.814E-6	22.4563E-12	985.660E-3	-2.60203E-3	22.9687E-12	1.01046E+0	-22.1667E-3
622.811E-6	22.0769E-12	982.567E-3	-5.08536E-3	22.3532E-12	1.03450E+0	-5.99743E-3
617.809E-6	21.8102E-12	993.566E-3	-14.2944E-3	21.9003E-12	1.04640E+0	-1.79402E-3
612.806E-6	21.4917E-12	999.802E-3	-15.7700E-3	21.5848E-12	1.03887E+0	-19.3971E-3
607.804E-6	21.3190E-12	1.00184E+0	-30.9647E-3	21.1048E-12	1.03917E+0	-31.4676E-3
602.801E-6	20.9217E-12	1.02327E+0	-36.9118E-3	20.6667E-12	1.04170E+0	-29.9195E-3
597.799E-6	20.6656E-12	1.03606E+0	-13.2279E-3	20.1332E-12	1.03985E+0	-29.6253E-3
592.796E-6	20.3273E-12	1.03443E+0	-6.88751E-3	19.8173E-12	1.04146E+0	-22.9046E-3
587.794E-6	19.9802E-12	1.05385E+0	-20.8103E-3	19.4205E-12	1.05035E+0	-19.0309E-3
582.791E-6	19.5503E-12	1.06950E+0	-21.1027E-3	19.0268E-12	1.05579E+0	-25.9960E-3
577.789E-6	19.1315E-12	1.06359E+0	-15.5844E-3	18.8234E-12	1.05132E+0	-16.6166E-3
572.786E-6	18.8433E-12	1.06067E+0	-16.1156E-3	18.4799E-12	1.05540E+0	-9.73281E-3
567.784E-6	18.4078E-12	1.05296E+0	-9.06054E-3	18.1607E-12	1.06419E+0	-27.6820E-3
562.781E-6	17.9792E-12	1.03702E+0	-2.91810E-3	17.9500E-12	1.06614E+0	-40.3516E-3
557.779E-6	17.5406E-12	1.03427E+0	-19.4290E-3	17.6913E-12	1.06799E+0	-38.3920E-3
552.776E-6	17.0894E-12	1.03921E+0	-21.5399E-3	17.4547E-12	1.06316E+0	-32.9258E-3
547.774E-6	16.9142E-12	1.02866E+0	-7.75568E-3	17.1774E-12	1.04979E+0	-17.7411E-3
542.771E-6	16.5160E-12	1.01874E+0	-14.9916E-3	16.8806E-12	1.04580E+0	-3.02200E-3
537.769E-6	16.2779E-12	1.01859E+0	-18.2228E-3	16.5296E-12	1.04878E+0	-6.95969E-3
532.766E-6	16.0346E-12	1.02035E+0	-14.5530E-3	16.1645E-12	1.04676E+0	-15.3779E-3
527.764E-6	15.6820E-12	1.04200E+0	-22.6077E-3	15.7602E-12	1.04686E+0	-20.9824E-3
522.761E-6	15.4446E-12	1.06643E+0	-21.0236E-3	15.4102E-12	1.03849E+0	-23.0962E-3
517.759E-6	15.1635E-12	1.05903E+0	-14.9712E-3	14.9619E-12	1.01432E+0	-13.4968E-3
512.756E-6	14.8522E-12	1.04789E+0	-22.4764E-3	14.5337E-12	996.169E-3	-7.60320E-3
507.754E-6	14.5851E-12	1.05044E+0	-27.5368E-3	14.0632E-12	985.536E-3	-9.17360E-3
502.751E-6	14.3100E-12	1.04329E+0	-25.0531E-3	13.7155E-12	972.547E-3	-14.1972E-3
497.749E-6	13.9554E-12	1.04110E+0	-17.7847E-3	13.3666E-12	964.080E-3	-21.9356E-3
492.746E-6	13.6007E-12	1.04599E+0	-192.827E-6	13.0309E-12	957.128E-3	-29.3606E-3
487.744E-6	13.2812E-12	1.03140E+0	8.97360E-3	12.6190E-12	948.066E-3	-37.8782E-3
482.741E-6	12.8939E-12	1.02096E+0	-7.14962E-3	12.2877E-12	950.823E-3	-38.1625E-3
477.739E-6	12.5032E-12	1.02673E+0	-20.7599E-3	12.1289E-12	963.769E-3	-21.9734E-3
472.736E-6	12.0011E-12	1.01696E+0	-23.4654E-3	11.7747E-12	954.277E-3	706.840E-6
467.734E-6	11.7145E-12	993.456E-3	-33.6448E-3	11.4873E-12	920.493E-3	12.7193E-3
462.731E-6	11.3397E-12	984.594E-3	-37.2650E-3	11.1788E-12	901.491E-3	10.0766E-3
457.729E-6	10.9994E-12	974.740E-3	-28.8844E-3	10.9603E-12	903.791E-3	-4.31641E-3
452.726E-6	10.6854E-12	951.621E-3	-23.6765E-3	10.7554E-12	905.573E-3	-12.3123E-3
447.724E-6	10.3952E-12	934.077E-3	-23.1678E-3	10.4136E-12	899.775E-3	-7.57514E-3
442.721E-6	10.1348E-12	919.392E-3	-21.4449E-3	10.1590E-12	878.670E-3	-6.20633E-3
437.719E-6	9.85242E-12	899.984E-3	-18.4130E-3	9.90612E-12	849.593E-3	-16.3949E-3
432.716E-6	9.60762E-12	886.488E-3	-11.0602E-3	9.58192E-12	828.061E-3	-34.5084E-3
427.714E-6	9.33858E-12	882.438E-3	-795.637E-6	9.25498E-12	812.559E-3	-39.2156E-3
422.711E-6	8.97755E-12	875.605E-3	-6.72724E-3	8.98977E-12	808.035E-3	-23.2255E-3
417.709E-6	8.75343E-12	866.792E-3	-20.5590E-3	8.64340E-12	802.314E-3	-14.2425E-3
412.706E-6	8.51979E-12	852.677E-3	-17.2896E-3	8.40981E-12	778.338E-3	-12.9254E-3
407.704E-6	8.29173E-12	831.768E-3	-14.2767E-3	8.18019E-12	759.691E-3	-3.04208E-3
402.701E-6	8.03253E-12	813.809E-3	-19.2254E-3	7.88223E-12	747.390E-3	-6.32089E-3
397.699E-6	7.68326E-12	799.107E-3	-12.8541E-3	7.66073E-12	720.899E-3	-17.3902E-3
392.696E-6	7.47046E-12	781.565E-3	-14.7036E-3	7.38604E-12	696.923E-3	-6.39109E-3
387.694E-6	7.28138E-12	772.601E-3	-29.6170E-3	7.11496E-12	688.766E-3	5.02810E-3
382.691E-6	7.02713E-12	765.836E-3	-25.7265E-3	6.89592E-12	681.840E-3	-4.39056E-3
377.689E-6	6.63101E-12	740.013E-3	-12.0260E-3	6.66673E-12	672.947E-3	-16.1921E-3
372.686E-6	6.42441E-12	724.846E-3	-12.1774E-3	6.41226E-12	663.323E-3	-16.3549E-3
367.684E-6	6.23563E-12	716.716E-3	-16.0570E-3	6.22087E-12	642.700E-3	-15.4639E-3
362.681E-6	6.00417E-12	685.362E-3	-19.8676E-3	6.00351E-12	619.184E-3	-10.8850E-3
357.679E-6	5.70709E-12	661.063E-3	-30.0160E-3	5.78308E-12	602.869E-3	-1.51719E-3
352.676E-6	5.53020E-12	647.445E-3	-23.8169E-3	5.50657E-12	584.895E-3	-8.12253E-3
347.674E-6	5.35974E-12	619.873E-3	-15.1317E-3	5.28488E-12	559.299E-3	-16.2136E-3
342.671E-6	5.15239E-12	606.492E-3	-21.6135E-3	5.14156E-12	534.376E-3	-8.04929E-3
337.669E-6	4.94995E-12	608.286E-3	-19.3657E-3	4.97087E-12	509.440E-3	-10.1393E-3
332.666E-6	4.81329E-12	590.219E-3	-11.8129E-3	4.74387E-12	489.482E-3	-17.5761E-3
327.664E-6	4.65570E-12	567.909E-3	-15.3563E-3	4.52849E-12	480.074E-3	-10.2162E-3
322.661E-6	4.40339E-12	550.708E-3	-21.0908E-3	4.39412E-12	471.450E-3	-7.02818E-3
317.659E-6	4.15880E-12	530.026E-3	-27.1818E-3	4.18071E-12	458.771E-3	-5.16044E-3
312.656E-6	4.16614E-12	525.125E-3	-40.0546E-3	4.05210E-12	449.388E-3	5.15595E-3
307.654E-6	3.96282E-12	520.950E-3	-33.8643E-3	3.81837E-12	434.020E-3	-990.374E-6
302.651E-6	3.72309E-12	489.299E-3	-15.5029E-3	3.68113E-12	407.033E-3	-10.6380E-3
297.649E-6	3.56233E-12	464.989E-3	-20.9130E-3	3.55803E-12	397.856E-3	-10.5840E-3
292.646E-6	3.47743E-12	466.136E-3	-22.8403E-3	3.43336E-12	396.255E-3	-25.3882E-3
287.644E-6	3.37968E-12	452.814E-3	-8.53356E-3	3.32349E-12	372.418E-3	-38.9725E-3
282.641E-6	3.14912E-12	421.356E-3	-10.1145E-3	3.08794E-12	346.589E-3	-30.3243E-3
277.639E-6	3.00267E-12	408.704E-3	-28.2947E-3	3.02164E-12	334.203E-3	-14.1125E-3
272.636E-6	2.99968E-12	410.069E-3	-39.4898E-3	2.91305E-12	315.568E-3	-14.2076E-3
267.634E-6	2.89873E-12	395.337E-3	-37.5026E-3	2.77625E-12	299.591E-3	-22.8914E-3
262.631E-6	2.62562E-12	374.300E-3	-30.8285E-3	2.64370E-12	301.251E-3	-25.9692E-3
257.629E-6	2.51903E-12	355.541E-3	-21.1371E-3	2.52703E-12	294.808E-3	-29.6076E-3
252.626E-6	2.52375E-12	338.462E-3	-19.0096E-3	2.44064E-12	282.881E-3	-31.8506E-3
247.624E-6	2.39020E-12	342.223E-3	-9.66270E-3	2.35473E-12	280.767E-3	-33.2936E-3
242.621E-6	2.28476E-12	339.438E-3	2.18772E-3	2.22138E-12	268.564E-3	-30.3688E-3
237.619E-6	2.16169E-12	309.002E-3	-8.16790E-3	2.15121E-12	251.134E-3	-16.3002E-3
232.616E-6	2.06823E-12	295.207E-3	-18.4984E-3	2.03261E-12	245.003E-3	-12.8909E-3
227.614E-6	1.95230E-12	295.880E-3	-14.4813E-3	1.90315E-12	236.108E-3	-24.6085E-3
222.611E-6	1.82971E-12	281.528E-3	-12.8574E-3	1.80490E-12	224.633E-3	-25.5971E-3
217.609E-6	1.78979E-12	267.240E-3	-12.5395E-3	1.73844E-12	218.918E-3	-21.8260E-3
212.606E-6	1.69958E-12	255.799E-3	-840.707E-6	1.60952E-12	209.683E-3	-18.0241E-3
207.604E-6	1.62294E-12	228.714E-3	-2.13248E-3	1.56293E-12	201.018E-3	-8.03328E-3
202.601E-6	1.46579E-12	213.094E-3	-21.6468E-3	1.49526E-12	199.497E-3	-10.4487E-3
197.599E-6	1.49669E-12	219.146E-3	-22.8779E-3	1.41804E-12	193.821E-3	-15.5566E-3
192.596E-6	1.42136E-12	215.804E-3	-22.2630E-3	1.33965E-12	178.082E-3	-11.7385E-3
187.594E-6	1.29117E-12	215.233E-3	-36.8899E-3	1.23348E-12	163.437E-3	-19.6278E-3
182.591E-6	1.19474E-12	217.585E-3	-28.5859E-3	1.19930E-12	158.942E-3	-22.9527E-3
177.589E-6	1.19635E-12	200.152E-3	-9.68472E-3	1.17195E-12	158.261E-3	-16.9312E-3
172.586E-6	1.18813E-12	184.274E-3	-15.8944E-3	1.09044E-12	156.013E-3	-15.8659E-3
167.584E-6	1.02142E-12	176.252E-3	-8.58947E-3	1.00247E-12	148.422E-3	-8.46014E-3
162.581E-6	973.273E-15	163.492E-3	6.28370E-3	1.01323E-12	136.222E-3	-4.61032E-3
157.579E-6	955.896E-15	161.052E-3	-8.43819E-3	934.394E-15	131.281E-3	-16.4109E-3
152.576E-6	972.218E-15	164.359E-3	-11.2072E-3	888.460E-15	128.077E-3	-21.7728E-3
147.574E-6	806.961E-15	154.410E-3	-277.693E-6	833.424E-15	123.674E-3	-10.6447E-3
142.571E-6	712.618E-15	145.459E-3	-3.22895E-3	774.464E-15	126.931E-3	-8.54831E-3
137.569E-6	778.929E-15	144.539E-3	-8.54496E-3	758.839E-15	132.358E-3	-17.9037E-3
132.566E-6	745.673E-15	131.990E-3	-17.0862E-3	737.494E-15	139.080E-3	-14.4403E-3
127.564E-6	587.252E-15	118.581E-3	-22.5806E-3	627.849E-15	146.199E-3	-1.49988E-3
122.561E-6	552.462E-15	127.633E-3	-19.8116E-3	588.412E-15	138.706E-3	-5.12220E-3
117.559E-6	603.156E-15	127.698E-3	-21.6340E-3	559.891E-15	126.210E-3	-16.1811E-3
112.556E-6	570.912E-15	111.443E-3	-31.5130E-3	593.556E-15	121.753E-3	-12.0783E-3
107.554E-6	453.297E-15	111.468E-3	-31.9586E-3	480.798E-15	109.376E-3	-8.26281E-3
102.551E-6	431.351E-15	105.471E-3	-12.5065E-3	433.400E-15	95.1454E-3	-10.8641E-3
97.5488E-6	425.823E-15	95.9393E-3	-4.56213E-3	400.118E-15	93.6410E-3	-11.2511E-3
92.5463E-6	410.538E-15	102.620E-3	-6.44479E-3	382.959E-15	95.5404E-3	-12.7658E-3
87.5438E-6	319.499E-15	98.4542E-3	-944.258E-6	361.919E-15	85.4313E-3	-15.0894E-3
82.5413E-6	319.499E-15	86.9193E-3	-14.7225E-3	294.772E-15	77.6675E-3	-16.5406E-3
77.5388E-6	318.959E-15	90.5118E-3	-26.6480E-3	264.681E-15	80.5741E-3	-21.0336E-3
72.5363E-6	266.922E-15	95.6659E-3	-15.1517E-3	272.912E-15	80.7838E-3	-27.7312E-3
67.5338E-6	197.438E-15	91.7599E-3	-16.0800E-3	243.720E-15	94.4210E-3	-26.5963E-3
62.5313E-6	237.015E-15	93.7251E-3	-20.4705E-3	172.230E-15	103.112E-3	-23.5614E-3
57.5288E-6	229.412E-15	96.0104E-3	-7.01538E-3	187.393E-15	76.5522E-3	-26.6247E-3
52.5263E-6	98.8138E-15	78.0753E-3	-1.43415E-3	147.075E-15	52.8894E-3	-20.3671E-3
47.5238E-6	46.6288E-15	67.8684E-3	-7.33537E-3	85.0460E-15	54.5297E-3	-8.91813E-3
42.5213E-6	95.1691E-15	82.4127E-3	-4.20366E-3	114.125E-15	62.6161E-3	-12.8226E-3
37.5188E-6	112.355E-15	92.4426E-3	-9.83530E-3	96.7125E-15	71.6170E-3	-23.1559E-3
32.5163E-6	7.20876E-15	93.7237E-3	-24.0533E-3	-29.7001E-15	81.8429E-3	-24.7722E-3
27.5138E-6	-86.2186E-15	90.2028E-3	-13.3759E-3	-15.8189E-15	81.8754E-3	-22.2816E-3
22.5113E-6	4.97662E-15	80.7343E-3	-809.143E-6	13.4605E-15	70.9586E-3	-14.4859E-3
17.5088E-6	-39.7098E-15	82.2070E-3	-9.73690E-3	-26.9186E-15	71.4374E-3	-5.70664E-3
12.5063E-6	-116.379E-15	85.2492E-3	-15.8230E-3	-139.372E-15	82.4343E-3	-4.66739E-3
7.50375E-6	-138.308E-15	74.4548E-3	-21.3276E-3	-195.908E-15	83.5132E-3	-11.4372E-3
2.50125E-6	-79.4263E-15	76.1745E-3	-32.3064E-3	-147.925E-15	69.9089E-3	-24.2126E-3
-2.50125E-6	-100.326E-15	83.6885E-3	-27.1582E-3	-169.497E-15	56.6921E-3	-28.8614E-3
-7.50375E-6	-255.879E-15	68.6106E-3	-12.6839E-3	-211.637E-15	67.5624E-3	-16.5470E-3
-12.5063E-6	-292.326E-15	56.9190E-3	-22.4701E-3	-272.236E-15	89.0387E-3	-7.60774E-3
-17.5088E-6	-239.321E-15	63.6764E-3	-40.6752E-3	-256.472E-15	97.4068E-3	-6.85972E-3
-22.5113E-6	-278.226E-15	68.6938E-3	-34.7317E-3	-301.716E-15	97.8294E-3	1.96404E-3
-27.5138E-6	-338.721E-15	77.7928E-3	-16.7940E-3	-334.161E-15	99.1351E-3	2.10783E-3
-32.5163E-6	-348.173E-15	89.3849E-3	-7.00752E-3	-359.377E-15	99.0427E-3	-13.2317E-3
-37.5188E-6	-347.074E-15	82.9741E-3	-11.5936E-3	-408.545E-15	95.3152E-3	-17.0046E-3
-42.5213E-6	-377.016E-15	84.0245E-3	-16.1392E-3	-440.170E-15	102.765E-3	-10.2954E-3
-47.5238E-6	-474.280E-15	107.412E-3	-8.64329E-3	-425.243E-15	113.185E-3	-7.18151E-3
-52.5263E-6	-493.715E-15	119.791E-3	-5.32206E-3	-474.952E-15	111.898E-3	-3.85731E-3
-57.5288E-6	-500.543E-15	116.757E-3	-25.5620E-3	-541.332E-15	121.775E-3	-7.08104E-3
-62.5313E-6	-581.336E-15	111.361E-3	-38.4639E-3	-573.384E-15	133.606E-3	-20.1490E-3
-67.5338E-6	-662.975E-15	105.700E-3	-26.2475E-3	-609.604E-15	124.091E-3	-22.9013E-3
-72.5363E-6	-600.902E-15	104.309E-3	-21.8672E-3	-630.888E-15	124.662E-3	-10.2263E-3
-77.5388E-6	-691.966E-15	115.571E-3	-17.8425E-3	-639.241E-15	137.777E-3	-8.78184E-3
-82.5413E-6	-735.345E-15	122.969E-3	-8.69452E-3	-796.868E-15	137.839E-3	-21.9854E-3
-87.5438E-6	-848.208E-15	119.587E-3	-17.0925E-3	-779.177E-15	140.541E-3	-23.9185E-3
-92.5463E-6	-817.027E-15	125.317E-3	-18.3104E-3	-777.607E-15	152.477E-3	-21.7078E-3
-97.5488E-6	-824.648E-15	125.329E-3	-11.7881E-3	-870.268E-15	156.884E-3	-26.4876E-3
-102.551E-6	-946.405E-15	118.878E-3	-22.6301E-3	-981.936E-15	159.883E-3	-22.6293E-3
-107.554E-6	-1.03538E-12	134.346E-3	-29.5198E-3	-975.318E-15	167.892E-3	-18.3200E-3
-112.556E-6	-996.218E-15	148.652E-3	-22.7922E-3	-980.584E-15	174.856E-3	-15.2031E-3
-117.559E-6	-1.04005E-12	146.312E-3	-26.4884E-3	-1.06923E-12	186.905E-3	-7.35386E-3
-122.561E-6	-1.20147E-12	153.288E-3	-36.8353E-3	-1.16464E-12	206.735E-3	-9.59048E-3
-127.564E-6	-1.24929E-12	163.374E-3	-29.7897E-3	-1.24211E-12	218.810E-3	-12.5882E-3
-132.566E-6	-1.22418E-12	171.123E-3	-24.7294E-3	-1.28314E-12	222.613E-3	-387.643E-6
-137.569E-6	-1.25306E-12	183.350E-3	-29.3299E-3	-1.32573E-12	233.348E-3	1.13840E-3
-142.571E-6	-1.46281E-12	194.229E-3	-19.2176E-3	-1.42665E-12	244.262E-3	-20.7422E-3
-147.574E-6	-1.51875E-12	201.063E-3	-14.7086E-3	-1.48879E-12	253.336E-3	-24.2978E-3
-152.576E-6	-1.49940E-12	204.176E-3	-27.4267E-3	-1.53921E-12	262.851E-3	-3.79749E-3
-157.579E-6	-1.60927E-12	209.037E-3	-23.6772E-3	-1.63774E-12	269.587E-3	-3.07511E-3
-162.581E-6	-1.73236E-12	210.414E-3	-3.22335E-3	-1.72459E-12	282.669E-3	-15.8608E-3
-167.584E-6	-1.78827E-12	219.153E-3	-288.609E-6	-1.83253E-12	300.313E-3	-19.1515E-3
-172.586E-6	-1.87054E-12	238.632E-3	-910.043E-6	-1.93173E-12	313.817E-3	-15.2133E-3
-177.589E-6	-1.94710E-12	242.552E-3	3.28264E-3	-2.06327E-12	326.413E-3	-7.59577E-3
-182.591E-6	-2.11480E-12	243.365E-3	-11.0477E-3	-2.09312E-12	337.285E-3	-6.28879E-3
-187.594E-6	-2.16284E-12	259.039E-3	-15.4385E-3	-2.19323E-12	348.946E-3	-14.6450E-3
-192.596E-6	-2.22704E-12	278.553E-3	-8.14173E-3	-2.35275E-12	362.672E-3	-25.2603E-3
-197.599E-6	-2.44027E-12	297.665E-3	-30.9936E-3	-2.49549E-12	368.740E-3	-28.2428E-3
-202.601E-6	-2.57732E-12	315.727E-3	-45.6838E-3	-2.58201E-12	374.058E-3	-20.3087E-3
-207.604E-6	-2.62567E-12	318.900E-3	-25.5563E-3	-2.64577E-12	391.870E-3	-12.7560E-3
-212.606E-6	-2.70983E-12	328.727E-3	-22.7876E-3	-2.78953E-12	420.380E-3	-19.4787E-3
-217.609E-6	-2.91760E-12	362.702E-3	-36.7955E-3	-3.02157E-12	447.059E-3	-24.4041E-3
-222.611E-6	-3.10810E-12	389.829E-3	-39.1390E-3	-3.07560E-12	462.603E-3	-9.28926E-3
-227.614E-6	-3.19864E-12	404.741E-3	-34.8758E-3	-3.15383E-12	472.732E-3	3.68180E-3
-232.616E-6	-3.27742E-12	424.804E-3	-20.5158E-3	-3.37975E-12	487.219E-3	-8.35788E-3
-237.619E-6	-3.50607E-12	439.298E-3	-4.31677E-3	-3.57346E-12	509.588E-3	-24.5907E-3
-242.621E-6	-3.72324E-12	442.433E-3	-9.04348E-3	-3.67059E-12	546.066E-3	-28.1916E-3
-247.624E-6	-3.78661E-12	463.905E-3	-19.6208E-3	-3.82453E-12	580.430E-3	-28.6163E-3
-252.626E-6	-3.93265E-12	494.203E-3	-19.8460E-3	-3.95350E-12	595.669E-3	-22.3194E-3
-257.629E-6	-4.21953E-12	502.812E-3	-24.4481E-3	-4.20530E-12	617.149E-3	-4.47570E-3
-262.631E-6	-4.45357E-12	520.709E-3	-32.4448E-3	-4.37828E-12	638.139E-3	-244.594E-6
-267.634E-6	-4.55684E-12	547.782E-3	-28.0033E-3	-4.58679E-12	639.432E-3	-16.1172E-3
-272.636E-6	-4.74842E-12	569.344E-3	-21.0257E-3	-4.85090E-12	659.453E-3	-24.1124E-3
-277.639E-6	-5.06277E-12	603.155E-3	-18.7538E-3	-5.08613E-12	708.512E-3	-21.8737E-3
-282.641E-6	-5.29766E-12	639.519E-3	-10.2183E-3	-5.26446E-12	748.683E-3	-17.8160E-3
-287.644E-6	-5.39881E-12	664.476E-3	-7.75244E-3	-5.50645E-12	780.633E-3	-15.9865E-3
-292.646E-6	-5.63396E-12	683.871E-3	-14.1058E-3	-5.85701E-12	810.948E-3	-17.0902E-3
-297.649E-6	-5.98977E-12	694.728E-3	-12.5585E-3	-6.07272E-12	829.031E-3	-16.0801E-3
-302.651E-6	-6.24944E-12	705.240E-3	-15.7999E-3	-6.27324E-12	857.358E-3	-16.1455E-3
-307.654E-6	-6.36469E-12	743.360E-3	-32.2821E-3	-6.64417E-12	905.298E-3	-20.9376E-3
-312.656E-6	-6.70419E-12	782.816E-3	-33.2724E-3	-6.97717E-12	939.704E-3	-22.3734E-3
-317.659E-6	-7.14742E-12	802.296E-3	-19.0597E-3	-7.16216E-12	958.041E-3	-19.8806E-3
-322.661E-6	-7.33464E-12	832.668E-3	-12.5957E-3	-7.36865E-12	982.016E-3	-16.7189E-3
-327.664E-6	-7.59669E-12	874.560E-3	-6.08312E-3	-7.76397E-12	1.00871E+0	-6.12013E-3
-332.666E-6	-8.04247E-12	904.378E-3	-2.79401E-3	-8.16056E-12	1.03695E+0	9.88408E-3
-337.669E-6	-8.40682E-12	925.768E-3	-8.72448E-3	-8.36322E-12	1.07410E+0	13.2201E-3
-342.671E-6	-8.74238E-12	957.998E-3	-7.08316E-3	-8.63209E-12	1.09803E+0	-5.45747E-3
-347.674E-6	-9.00268E-12	995.134E-3	-3.79633E-3	-9.01726E-12	1.11297E+0	-23.8370E-3
-352.676E-6	-9.46905E-12	1.02457E+0	-7.00738E-3	-9.49461E-12	1.15534E+0	-30.7336E-3
-357.679E-6	-9.93793E-12	1.05700E+0	-2.62533E-3	-9.67591E-12	1.20770E+0	-28.5507E-3
-362.681E-6	-10.1642E-12	1.09388E+0	-2.17656E-3	-10.0227E-12	1.24617E+0	-16.9428E-3
-367.684E-6	-10.4841E-12	1.13091E+0	-18.4852E-3	-10.5213E-12	1.28819E+0	-21.8425E-3
-372.686E-6	-11.0973E-12	1.17126E+0	-18.7123E-3	-11.0818E-12	1.33391E+0	-32.6600E-3
-377.689E-6	-11.5699E-12	1.21140E+0	-8.61430E-3	-11.4246E-12	1.36820E+0	-19.0401E-3
-382.691E-6	-11.8293E-12	1.24156E+0	-14.3900E-3	-11.8052E-12	1.40663E+0	-11.3382E-3
-387.694E-6	-12.0615E-12	1.26511E+0	-14.5807E-3	-12.4595E-12	1.44725E+0	-16.1299E-3
-392.696E-6	-12.6104E-12	1.29027E+0	-4.70524E-3	-12.9451E-12	1.47574E+0	-11.6511E-3
-397.699E-6	-13.1583E-12	1.32117E+0	-7.85219E-3	-13.2884E-12	1.50954E+0	-18.7712E-3
-402.701E-6	-13.3852E-12	1.36421E+0	-24.3287E-3	-13.8131E-12	1.54676E+0	-30.8550E-3
-407.704E-6	-13.7502E-12	1.40401E+0	-26.9538E-3	-14.4093E-12	1.57039E+0	-19.7316E-3
-412.706E-6	-14.4690E-12	1.42856E+0	-15.0590E-3	-14.9061E-12	1.59339E+0	-8.38718E-3
-417.709E-6	-15.0461E-12	1.45345E+0	-6.64791E-3	-15.2160E-12	1.62180E+0	-18.1725E-3
-422.711E-6	-15.4530E-12	1.48449E+0	-1.47853E-3	-15.8979E-12	1.64374E+0	-22.8153E-3
-427.714E-6	-16.0218E-12	1.52200E+0	-9.50248E-3	-16.4816E-12	1.67188E+0	-13.6024E-3
-432.716E-6	-16.8112E-12	1.56697E+0	-18.7678E-3	-16.8249E-12	1.71591E+0	-12.9484E-3
-437.719E-6	-17.4010E-12	1.60654E+0	-7.71491E-3	-17.2078E-12	1.74687E+0	-24.8872E-3
-442.721E-6	-17.8659E-12	1.64269E+0	-1.71443E-3	-17.8090E-12	1.76264E+0	-35.8092E-3
-447.724E-6	-18.4729E-12	1.68653E+0	-10.9481E-3	-18.5136E-12	1.78528E+0	-33.4914E-3
-452.726E-6	-19.2729E-12	1.72165E+0	-17.6159E-3	-18.8576E-12	1.80717E+0	-20.7909E-3
-457.729E-6	-19.7192E-12	1.74107E+0	-23.1575E-3	-19.3354E-12	1.83723E+0	-8.59745E-3
-462.731E-6	-20.1540E-12	1.77500E+0	-22.1914E-3	-20.0661E-12	1.87655E+0	-1.10681E-3
-467.734E-6	-20.8236E-12	1.82494E+0	-15.1937E-3	-20.9314E-12	1.90472E+0	1.02854E-3
-472.736E-6	-21.6357E-12	1.85855E+0	-18.1826E-3	-21.4511E-12	1.93214E+0	-12.4224E-3
-477.739E-6	-21.9673E-12	1.86585E+0	-22.4230E-3	-21.9115E-12	1.97138E+0	-30.5734E-3
-482.741E-6	-22.3763E-12	1.86424E+0	-7.39831E-3	-22.8207E-12	1.99988E+0	-28.7255E-3
-487.744E-6	-23.0470E-12	1.88253E+0	7.33663E-3	-23.7284E-12	2.00918E+0	-16.1559E-3
-492.746E-6	-23.8441E-12	1.91388E+0	265.712E-6	-24.2412E-12	2.02454E+0	-14.1554E-3
-497.749E-6	-24.3302E-12	1.93075E+0	-11.0006E-3	-24.9110E-12	2.04704E+0	-17.8628E-3
-502.751E-6	-24.8805E-12	1.94491E+0	-24.7576E-3	-25.5861E-12	2.06248E+0	-9.74052E-3
-507.754E-6	-25.7094E-12	1.96515E+0	-36.1690E-3	-26.2746E-12	2.07123E+0	-4.70424E-3
-512.756E-6	-26.7477E-12	1.97639E+0	-18.9570E-3	-26.7606E-12	2.07108E+0	-14.8277E-3
-517.759E-6	-27.3536E-12	1.98773E+0	11.0178E-3	-27.2939E-12	2.06733E+0	-25.0328E-3
-522.761E-6	-27.8732E-12	2.02158E+0	17.0620E-3	-28.1011E-12	2.06702E+0	-31.2821E-3
-527.764E-6	-28.9034E-12	2.05797E+0	-421.779E-6	-28.6997E-12	2.06991E+0	-35.8886E-3
-532.766E-6	-29.7178E-12	2.05870E+0	-21.8226E-3	-29.0448E-12	2.07505E+0	-33.5409E-3
-537.769E-6	-30.2924E-12	2.05882E+0	-29.1097E-3	-29.6026E-12	2.08559E+0	-26.7377E-3
-542.771E-6	-30.8941E-12	2.09796E+0	-17.9925E-3	-30.5642E-12	2.08866E+0	-27.0081E-3
-547.774E-6	-31.6400E-12	2.12575E+0	-12.5715E-3	-30.9789E-12	2.08524E+0	-24.7480E-3
-552.776E-6	-32.2151E-12	2.12168E+0	-19.1942E-3	-31.1640E-12	2.09923E+0	-17.9995E-3
-557.779E-6	-32.3306E-12	2.13213E+0	-17.2614E-3	-31.6546E-12	2.11244E+0	-22.6586E-3
-562.781E-6	-33.0592E-12	2.15124E+0	-13.1357E-3	-32.9903E-12	2.11567E+0	-19.9582E-3
-567.784E-6	-34.3105E-12	2.15330E+0	-24.2875E-3	-33.9311E-12	2.12983E+0	-11.8584E-3
-572.786E-6	-35.1884E-12	2.14528E+0	-28.0437E-3	-34.6679E-12	2.13703E+0	-24.8246E-3
-577.789E-6	-35.3903E-12	2.13566E+0	-12.9886E-3	-35.5097E-12	2.12310E+0	-29.2686E-3
-582.791E-6	-35.9603E-12	2.13158E+0	-8.23338E-3	-36.5221E-12	2.11327E+0	-16.0146E-3
-587.794E-6	-36.8099E-12	2.13073E+0	-9.08853E-3	-37.1879E-12	2.10800E+0	-20.0713E-3
-592.796E-6	-37.2161E-12	2.11733E+0	-2.23062E-3	-37.7237E-12	2.10128E+0	-27.2452E-3
-597.799E-6	-37.7866E-12	2.09815E+0	-11.2025E-3	-38.6990E-12	2.10775E+0	-25.2322E-3
-602.801E-6	-38.6764E-12	2.09780E+0	-35.2533E-3	-39.5261E-12	2.11454E+0	-36.1484E-3
-607.804E-6	-39.6448E-12	2.10234E+0	-34.0216E-3	-40.2120E-12	2.10244E+0	-41.1262E-3
-612.806E-6	-40.2389E-12	2.09336E+0	-7.25494E-3	-40.8498E-12	2.08737E+0	-23.2379E-3
-617.809E-6	-41.0437E-12	2.08486E+0	2.30340E-3	-41.5659E-12	2.08096E+0	-19.7295E-3
-622.811E-6	-41.8798E-12	2.07775E+0	-1.73139E-3	-42.6175E-12	2.06645E+0	-40.9280E-3
-627.814E-6	-42.8244E-12	2.06682E+0	2.57472E-3	-43.0031E-12	2.04709E+0	-47.2755E-3
-632.816E-6	-43.4562E-12	2.05919E+0	3.13830E-3	-43.6481E-12	2.03005E+0	-35.0056E-3
-637.819E-6	-43.7993E-12	2.05769E+0	-6.97517E-3	-44.4387E-12	2.00613E+0	-21.5081E-3
-642.821E-6	-44.7365E-12	2.05495E+0	-19.3587E-3	-45.2923E-12	1.98849E+0	-7.27243E-3
-647.824E-6	-45.7092E-12	2.05074E+0	-21.1394E-3	-45.6252E-12	1.97930E+0	-11.8251E-3
-652.826E-6	-46.1714E-12	2.04504E+0	-18.1379E-3	-46.1338E-12	1.95629E+0	-33.3190E-3
-657.829E-6	-46.8634E-12	2.02581E+0	-19.8754E-3	-46.9864E-12	1.92454E+0	-40.3619E-3
-662.831E-6	-47.7084E-12	2.01241E+0	-18.4556E-3	-47.6246E-12	1.89184E+0	-42.7510E-3
-667.834E-6	-48.5870E-12	2.00066E+0	-12.1356E-3	-47.8247E-12	1.85350E+0	-44.7335E-3
-672.836E-6	-48.9307E-12	1.96627E+0	-11.5896E-3	-48.2834E-12	1.82925E+0	-38.2534E-3
-677.839E-6	-49.6789E-12	1.93917E+0	-18.0060E-3	-49.0148E-12	1.81851E+0	-31.5550E-3
-682.841E-6	-50.4690E-12	1.93281E+0	-17.2807E-3	-49.5395E-12	1.80042E+0	-27.3853E-3
-687.844E-6	-51.1887E-12	1.92343E+0	-11.0478E-3	-49.9644E-12	1.79099E+0	-27.3746E-3
-692.846E-6	-51.6494E-12	1.91461E+0	-11.3475E-3	-50.4522E-12	1.78719E+0	-26.5082E-3
-697.849E-6	-52.0416E-12	1.89983E+0	-13.1586E-3	-51.3265E-12	1.76727E+0	-19.9705E-3
-702.851E-6	-53.1269E-12	1.86915E+0	-10.2166E-3	-52.1947E-12	1.74590E+0	-7.19514E-3
-707.854E-6	-53.5589E-12	1.85499E+0	-7.34882E-3	-52.6549E-12	1.72920E+0	-1.32419E-3
-712.856E-6	-53.8270E-12	1.85074E+0	-10.8240E-3	-53.5383E-12	1.70657E+0	-10.6115E-3
-717.859E-6	-54.2868E-12	1.81662E+0	-21.1237E-3	-54.5727E-12	1.67822E+0	-29.9083E-3
-722.861E-6	-55.0401E-12	1.77143E+0	-23.6395E-3	-55.3401E-12	1.66137E+0	-53.4402E-3
-727.864E-6	-54.9769E-12	1.73552E+0	-14.5930E-3	-55.9769E-12	1.65875E+0	-61.4375E-3
-732.866E-6	-55.4051E-12	1.69831E+0	-13.0915E-3	-56.9744E-12	1.64519E+0	-47.4032E-3
-737.869E-6	-55.6751E-12	1.66704E+0	-23.6634E-3	-57.9266E-12	1.62501E+0	-19.0421E-3
-742.871E-6	-56.3616E-12	1.64847E+0	-24.3619E-3	-58.4975E-12	1.59588E+0	3.58015E-3
-747.874E-6	-56.8589E-12	1.63713E+0	-14.0855E-3	-58.4562E-12	1.55403E+0	6.79742E-3
-752.876E-6	-57.1956E-12	1.61913E+0	-17.1930E-3	-58.9755E-12	1.51568E+0	3.34158E-3
-757.879E-6	-57.9410E-12	1.57924E+0	-23.3514E-3	-59.5962E-12	1.47207E+0	-13.8826E-3
-762.881E-6	-58.9156E-12	1.54489E+0	-23.4999E-3	-59.7625E-12	1.42801E+0	-32.9970E-3
-767.884E-6	-59.6924E-12	1.52629E+0	-25.4411E-3	-59.8639E-12	1.40011E+0	-30.9206E-3
-772.886E-6	-60.2615E-12	1.50489E+0	-17.1208E-3	-60.2845E-12	1.37458E+0	-27.9644E-3
-777.889E-6	-61.1447E-12	1.48144E+0	-9.76120E-3	-60.4762E-12	1.33319E+0	-22.2994E-3
-782.891E-6	-61.8245E-12	1.45666E+0	-20.5661E-3	-60.5995E-12	1.29296E+0	-6.28231E-3
-787.894E-6	-62.0177E-12	1.43114E+0	-27.7237E-3	-61.2610E-12	1.26429E+0	-14.8227E-3
-792.896E-6	-62.8224E-12	1.40975E+0	-22.4340E-3	-61.7867E-12	1.23808E+0	-43.3212E-3
-797.899E-6	-63.0549E-12	1.39892E+0	-23.6845E-3	-62.1079E-12	1.22031E+0	-60.0888E-3
-802.901E-6	-63.4394E-12	1.38041E+0	-31.2375E-3	-62.5051E-12	1.19829E+0	-53.3398E-3
-807.904E-6	-63.0181E-12	1.33873E+0	-28.7933E-3	-63.4022E-12	1.16904E+0	-28.6570E-3
-812.906E-6	-63.5050E-12	1.29147E+0	-26.8464E-3	-63.7479E-12	1.14711E+0	-10.2850E-3
-817.909E-6	-63.6311E-12	1.24656E+0	-23.4559E-3	-64.1021E-12	1.12471E+0	-20.5974E-3
-822.911E-6	-63.4482E-12	1.20705E+0	-5.14945E-3	-65.0499E-12	1.09634E+0	-38.1163E-3
-827.914E-6	-63.3019E-12	1.16983E+0	-2.10721E-3	-65.3367E-12	1.06086E+0	-34.9258E-3
-832.916E-6	-63.5561E-12	1.13126E+0	-26.5144E-3	-65.7772E-12	1.02413E+0	-28.9573E-3
-837.919E-6	-63.9081E-12	1.09849E+0	-36.4676E-3	-66.2457E-12	995.164E-3	-26.4570E-3
-842.921E-6	-64.2029E-12	1.06852E+0	-22.5712E-3	-66.1929E-12	979.652E-3	-16.6256E-3
-847.924E-6	-64.4624E-12	1.03569E+0	-9.92217E-3	-66.2438E-12	960.052E-3	-10.4228E-3
-852.926E-6	-65.0348E-12	1.00539E+0	-3.08010E-3	-66.7346E-12	913.895E-3	-4.96151E-3
-857.929E-6	-65.5666E-12	997.052E-3	-11.6462E-3	-66.7305E-12	878.578E-3	733.372E-6
-862.931E-6	-66.4538E-12	992.804E-3	-27.5143E-3	-66.6747E-12	874.442E-3	-9.75459E-3
-867.934E-6	-66.8026E-12	961.610E-3	-20.7447E-3	-66.7990E-12	858.918E-3	-25.2894E-3
-872.936E-6	-67.6185E-12	920.701E-3	-2.02849E-3	-67.2911E-12	816.285E-3	-21.9584E-3
-877.939E-6	-68.3858E-12	891.265E-3	-670.427E-6	-67.5601E-12	777.101E-3	-15.1860E-3
-882.941E-6	-68.7798E-12	880.980E-3	-3.90485E-3	-67.6334E-12	757.613E-3	-15.1317E-3
-887.944E-6	-68.9729E-12	871.756E-3	3.04359E-3	-67.9480E-12	744.673E-3	-14.5307E-3
-892.946E-6	-69.1964E-12	840.872E-3	1.61787E-3	-68.5906E-12	740.179E-3	-19.8248E-3
-897.949E-6	-69.7091E-12	803.651E-3	-21.1998E-3	-68.8711E-12	726.572E-3	-18.0755E-3
-902.951E-6	-69.4837E-12	775.823E-3	-44.2662E-3	-69.1477E-12	694.237E-3	-10.6577E-3
-907.954E-6	-69.4267E-12	757.410E-3	-37.9231E-3	-69.5429E-12	676.468E-3	-16.2140E-3
-912.956E-6	-69.6235E-12	744.655E-3	-15.8399E-3	-70.1055E-12	652.885E-3	-30.1943E-3
-917.959E-6	-69.5852E-12	726.466E-3	-14.5698E-3	-70.2758E-12	612.493E-3	-25.9478E-3
-922.961E-6	-69.5110E-12	697.486E-3	-30.6542E-3	-70.5702E-12	589.976E-3	-6.82510E-3
-927.964E-6	-69.9234E-12	665.993E-3	-35.8915E-3	-70.9325E-12	579.950E-3	-12.8792E-3
-932.966E-6	-69.9630E-12	645.814E-3	-29.0916E-3	-71.2523E-12	565.940E-3	-31.4572E-3
-937.969E-6	-70.1305E-12	640.805E-3	-25.5306E-3	-71.3557E-12	547.311E-3	-37.4296E-3
-942.971E-6	-70.7343E-12	621.970E-3	-19.9491E-3	-71.3337E-12	522.455E-3	-39.5811E-3
-947.974E-6	-71.1971E-12	589.923E-3	-10.0378E-3	-71.7370E-12	494.217E-3	-30.6953E-3
-952.976E-6	-71.5514E-12	566.536E-3	-2.74557E-3	-71.7312E-12	469.841E-3	-17.5499E-3
-957.979E-6	-71.9712E-12	550.003E-3	3.61587E-3	-71.7327E-12	463.339E-3	-21.8541E-3
-962.981E-6	-72.5295E-12	537.561E-3	7.93343E-3	-71.7127E-12	458.107E-3	-32.7037E-3
-967.984E-6	-72.8723E-12	527.184E-3	-903.887E-6	-72.1183E-12	447.340E-3	-28.7010E-3
-972.986E-6	-73.2854E-12	517.983E-3	-8.99027E-3	-72.3317E-12	446.345E-3	-20.3536E-3
-977.989E-6	-73.6885E-12	505.494E-3	-8.25169E-3	-72.4146E-12	442.343E-3	-19.1157E-3
-982.991E-6	-73.3054E-12	498.719E-3	-16.5685E-3	-72.6302E-12	424.876E-3	-17.8316E-3
-987.994E-6	-73.7099E-12	491.074E-3	-28.6401E-3	-72.7357E-12	400.262E-3	-13.6897E-3
-992.997E-6	-73.6031E-12	455.398E-3	-22.7264E-3	-72.9992E-12	394.486E-3	83.7927E-6
-997.999E-6	-73.4520E-12	426.881E-3	-7.71610E-3	-73.1300E-12	402.598E-3	16.0477E-3
-1.00300E-3	-72.8113E-12	430.569E-3	-12.5037E-3	-73.0470E-12	396.233E-3	8.67607E-3
-1.00800E-3	-73.0158E-12	428.760E-3	-29.9643E-3	-73.1605E-12	376.008E-3	-2.03054E-3
-1.01301E-3	-72.9196E-12	411.418E-3	-33.4314E-3	-73.3711E-12	362.321E-3	-5.27765E-3
-1.01801E-3	-72.9486E-12	392.701E-3	-23.6665E-3	-73.2827E-12	365.164E-3	-16.8674E-3
-1.02301E-3	-73.0829E-12	379.978E-3	-15.6485E-3	-73.3834E-12	369.025E-3	-15.4223E-3
-1.02801E-3	-73.0558E-12	367.922E-3	-8.82137E-3	-73.4489E-12	363.514E-3	935.172E-6
-1.03302E-3	-73.3545E-12	355.197E-3	-1.94288E-3	-73.5236E-12	349.557E-3	6.78038E-3
-1.03802E-3	-73.7462E-12	339.884E-3	-2.87416E-3	-73.5416E-12	338.628E-3	-4.45971E-3
-1.04302E-3	-74.1022E-12	322.942E-3	-4.89099E-3	-73.8920E-12	345.887E-3	-3.64794E-3
-1.04802E-3	-74.2519E-12	325.839E-3	-3.15077E-3	-73.7940E-12	346.088E-3	3.89150E-3
-1.05303E-3	-74.5634E-12	341.096E-3	-17.7206E-3	-74.1095E-12	320.497E-3	-8.50216E-3
-1.05803E-3	-74.8502E-12	346.254E-3	-35.5688E-3	-74.1198E-12	305.073E-3	-17.8011E-3
-1.06303E-3	-74.7358E-12	351.117E-3	-29.7419E-3	-74.2017E-12	318.211E-3	-24.9074E-3
-1.06803E-3	-75.1114E-12	356.694E-3	-20.4649E-3	-74.6537E-12	332.048E-3	-34.9194E-3
-1.07304E-3	-74.9318E-12	350.565E-3	-21.4151E-3	-74.9816E-12	330.408E-3	-28.3498E-3
-1.07804E-3	-74.9023E-12	338.983E-3	-15.2501E-3	-74.3885E-12	324.262E-3	-19.5298E-3
-1.08304E-3	-74.9837E-12	335.001E-3	-13.1776E-3	-74.8300E-12	321.412E-3	-21.0365E-3
-1.08804E-3	-75.0101E-12	331.971E-3	-18.5276E-3	-74.8146E-12	332.616E-3	-29.4117E-3
-1.09305E-3	-74.7956E-12	322.983E-3	-13.0342E-3	-74.6522E-12	349.130E-3	-29.3387E-3
-1.09805E-3	-74.9017E-12	316.558E-3	-7.67238E-3	-74.7740E-12	340.979E-3	-21.9302E-3
-1.10305E-3	-75.1364E-12	309.918E-3	-4.14311E-3	-75.0318E-12	327.957E-3	-24.1405E-3
-1.10805E-3	-75.0248E-12	303.273E-3	-162.301E-6	-74.4129E-12	331.109E-3	-27.0283E-3
-1.11306E-3	-75.2838E-12	302.008E-3	-4.62827E-3	-74.6635E-12	325.228E-3	-26.5698E-3
-1.11806E-3	-75.5588E-12	305.975E-3	-11.8019E-3	-74.9145E-12	307.468E-3	-9.96366E-3
-1.12306E-3	-75.7410E-12	322.182E-3	-20.7108E-3	-74.8444E-12	306.931E-3	2.67507E-3
-1.12806E-3	-75.6560E-12	332.930E-3	-25.2065E-3	-74.7405E-12	328.465E-3	-93.7326E-6
-1.13307E-3	-76.0609E-12	322.544E-3	-18.0509E-3	-75.0309E-12	336.788E-3	-3.24881E-3
-1.13807E-3	-76.4725E-12	314.650E-3	-11.9426E-3	-75.1490E-12	340.237E-3	-11.9336E-3
-1.14307E-3	-75.9962E-12	317.721E-3	-10.3472E-3	-75.6380E-12	354.872E-3	-21.0962E-3
-1.14807E-3	-76.1242E-12	324.438E-3	-8.96765E-3	-75.6609E-12	356.686E-3	-29.3920E-3
-1.15308E-3	-76.4201E-12	330.836E-3	-7.70033E-3	-76.1256E-12	352.735E-3	-30.4291E-3
-1.15808E-3	-76.2145E-12	330.241E-3	-7.13339E-3	-76.4620E-12	354.215E-3	-33.2392E-3
-1.16308E-3	-76.2522E-12	330.979E-3	-12.0624E-3	-76.7596E-12	364.750E-3	-36.0137E-3
-1.16808E-3	-76.3517E-12	349.272E-3	-28.6701E-3	-77.0172E-12	381.472E-3	-27.1467E-3
-1.17309E-3	-76.1969E-12	369.646E-3	-34.7212E-3	-77.5146E-12	396.138E-3	-27.9126E-3
-1.17809E-3	-76.1775E-12	372.966E-3	-15.5371E-3	-77.5327E-12	409.283E-3	-27.2281E-3
-1.18309E-3	-76.4360E-12	367.123E-3	2.76502E-3	-77.6465E-12	430.125E-3	-8.88344E-3
-1.18809E-3	-76.4675E-12	374.200E-3	5.56336E-3	-77.8960E-12	441.607E-3	-4.35938E-3
-1.19310E-3	-76.8445E-12	381.823E-3	-2.10685E-3	-77.8247E-12	435.235E-3	-18.2496E-3
-1.19810E-3	-77.2835E-12	382.918E-3	-9.87347E-3	-77.7404E-12	443.466E-3	-27.7219E-3
-1.20310E-3	-77.6732E-12	397.237E-3	-15.8540E-3	-77.9255E-12	454.157E-3	-33.8485E-3
-1.20810E-3	-78.0168E-12	407.810E-3	-24.1503E-3	-78.1230E-12	452.178E-3	-32.0167E-3
-1.21311E-3	-78.6966E-12	410.441E-3	-21.2429E-3	-78.0779E-12	461.042E-3	-17.0103E-3
-1.21811E-3	-78.8185E-12	418.128E-3	-12.5391E-3	-78.1488E-12	472.678E-3	-8.76758E-3
-1.22311E-3	-79.3394E-12	427.492E-3	-20.8564E-3	-78.6010E-12	465.106E-3	-4.43141E-3
-1.22811E-3	-79.4136E-12	438.375E-3	-22.0268E-3	-78.9849E-12	464.748E-3	6.90797E-3
-1.23312E-3	-79.7944E-12	454.858E-3	403.164E-6	-78.9281E-12	481.793E-3	2.09293E-3
-1.23812E-3	-79.6661E-12	475.389E-3	8.39488E-3	-79.1234E-12	494.536E-3	-12.3350E-3
-1.24312E-3	-79.8992E-12	489.506E-3	-8.21260E-3	-79.4093E-12	512.929E-3	-12.1477E-3
-1.24812E-3	-79.5379E-12	497.784E-3	-19.6374E-3	-79.5369E-12	533.646E-3	-14.4322E-3
-1.25313E-3	-79.0472E-12	501.195E-3	-24.4436E-3	-79.1871E-12	537.798E-3	-23.4872E-3
-1.25813E-3	-78.9783E-12	503.244E-3	-26.7807E-3	-79.5957E-12	547.689E-3	-20.9721E-3
-1.26313E-3	-79.1841E-12	501.327E-3	-30.4480E-3	-79.6390E-12	574.910E-3	-11.3787E-3
-1.26813E-3	-78.9448E-12	505.184E-3	-31.3754E-3	-79.6194E-12	586.429E-3	-9.83081E-3
-1.27314E-3	-79.1509E-12	528.815E-3	-24.4417E-3	-79.9213E-12	587.545E-3	-13.4993E-3
-1.27814E-3	-79.5743E-12	534.490E-3	-17.2792E-3	-80.2908E-12	596.115E-3	-16.8661E-3
-1.28314E-3	-79.8019E-12	536.316E-3	-4.03608E-3	-79.9779E-12	597.747E-3	-26.9585E-3
-1.28814E-3	-80.0489E-12	559.199E-3	2.84754E-3	-80.5547E-12	596.510E-3	-33.8560E-3
-1.29315E-3	-80.9200E-12	572.537E-3	-2.86781E-3	-80.7695E-12	618.802E-3	-22.5186E-3
-1.29815E-3	-81.0449E-12	590.211E-3	-9.01784E-3	-80.6136E-12	646.680E-3	-7.08456E-3
-1.30315E-3	-81.3918E-12	616.176E-3	-16.4510E-3	-81.2676E-12	660.395E-3	-1.32437E-3
-1.30815E-3	-81.7056E-12	629.952E-3	-22.2245E-3	-81.5528E-12	670.337E-3	-3.67801E-3
-1.31316E-3	-82.5140E-12	633.609E-3	-30.8455E-3	-81.8072E-12	667.469E-3	-18.0654E-3
-1.31816E-3	-82.4435E-12	623.249E-3	-38.5680E-3	-82.1038E-12	660.129E-3	-24.0426E-3
-1.32316E-3	-82.7533E-12	627.313E-3	-28.9809E-3	-82.7628E-12	676.650E-3	-15.5449E-3
-1.32816E-3	-82.8252E-12	646.153E-3	-24.7858E-3	-82.6553E-12	706.285E-3	-13.3139E-3
-1.33317E-3	-82.6661E-12	655.421E-3	-23.5735E-3	-83.1527E-12	717.317E-3	-11.5767E-3
-1.33817E-3	-82.7308E-12	666.599E-3	-12.0076E-3	-83.3064E-12	717.784E-3	-13.4687E-3
-1.34317E-3	-82.6539E-12	675.273E-3	-9.65712E-3	-83.1642E-12	729.478E-3	-27.4472E-3
-1.34817E-3	-82.2946E-12	684.525E-3	-18.6329E-3	-82.8873E-12	744.283E-3	-27.4515E-3
-1.35318E-3	-82.3979E-12	693.786E-3	-32.6273E-3	-82.9633E-12	756.812E-3	-11.7715E-3
-1.35818E-3	-82.4603E-12	691.376E-3	-46.5827E-3	-83.4299E-12	758.796E-3	-16.0054E-3
-1.36318E-3	-82.5996E-12	694.456E-3	-56.2558E-3	-83.2980E-12	745.263E-3	-26.9916E-3
-1.36818E-3	-83.0923E-12	707.815E-3	-49.1814E-3	-83.4770E-12	738.399E-3	-25.8367E-3
-1.37319E-3	-83.7063E-12	720.136E-3	-27.3627E-3	-83.4923E-12	753.612E-3	-29.2870E-3
-1.37819E-3	-84.2090E-12	733.964E-3	-14.8895E-3	-84.2414E-12	774.397E-3	-27.1517E-3
-1.38319E-3	-84.6900E-12	757.276E-3	-17.3060E-3	-84.2483E-12	794.280E-3	-18.2944E-3
-1.38819E-3	-85.1124E-12	776.082E-3	-28.5824E-3	-84.5552E-12	803.127E-3	-22.0104E-3
-1.39320E-3	-85.7424E-12	776.302E-3	-36.5078E-3	-84.6001E-12	793.519E-3	-28.2395E-3
-1.39820E-3	-85.9918E-12	775.430E-3	-29.7175E-3	-84.9722E-12	796.212E-3	-23.2242E-3
-1.40320E-3	-86.4742E-12	765.195E-3	-12.2589E-3	-85.2967E-12	812.703E-3	-20.6654E-3
-1.40820E-3	-86.6906E-12	752.780E-3	-5.67783E-3	-85.7580E-12	814.551E-3	-15.9781E-3
-1.41321E-3	-87.2578E-12	763.010E-3	-12.6737E-3	-86.2058E-12	799.559E-3	-3.99185E-3
-1.41821E-3	-87.1850E-12	785.005E-3	-10.3130E-3	-86.8516E-12	808.057E-3	-9.88356E-3
-1.42321E-3	-87.3603E-12	806.645E-3	-6.53489E-3	-87.2732E-12	830.636E-3	-21.8898E-3
-1.42821E-3	-87.3583E-12	826.481E-3	-9.12973E-3	-87.8762E-12	839.396E-3	-17.5146E-3
-1.43322E-3	-87.1775E-12	835.466E-3	-14.8360E-3	-87.9958E-12	855.033E-3	-9.51997E-3
-1.43822E-3	-87.2730E-12	823.271E-3	-26.0867E-3	-88.1639E-12	862.571E-3	-9.69318E-3
-1.44322E-3	-87.1888E-12	811.395E-3	-34.1015E-3	-88.1695E-12	860.394E-3	-6.91895E-3
-1.44822E-3	-87.4061E-12	812.478E-3	-21.4324E-3	-88.4903E-12	865.552E-3	-703.264E-6
-1.45323E-3	-87.5226E-12	814.927E-3	528.294E-6	-88.5915E-12	856.632E-3	-11.5816E-3
-1.45823E-3	-88.0185E-12	819.811E-3	-1.39245E-3	-88.7270E-12	829.375E-3	-18.0184E-3
-1.46323E-3	-88.5293E-12	819.997E-3	-14.4295E-3	-88.8891E-12	821.561E-3	-6.89094E-3
-1.46823E-3	-89.1461E-12	821.296E-3	-19.0714E-3	-89.5478E-12	846.356E-3	-7.82058E-3
-1.47324E-3	-89.8857E-12	833.183E-3	-17.7898E-3	-89.4847E-12	855.215E-3	-15.1342E-3
-1.47824E-3	-90.6357E-12	839.318E-3	1.06489E-3	-89.7931E-12	848.163E-3	-16.0869E-3
-1.48324E-3	-90.9596E-12	838.436E-3	16.9696E-3	-90.0801E-12	853.843E-3	-21.5633E-3
-1.48824E-3	-91.2415E-12	846.040E-3	12.1911E-3	-90.4936E-12	848.426E-3	-25.2384E-3
-1.49325E-3	-91.6348E-12	861.218E-3	11.1854E-3	-90.6327E-12	852.244E-3	-13.0359E-3
-1.49825E-3	-92.0922E-12	868.803E-3	9.92875E-3	-91.2196E-12	878.723E-3	-12.2489E-3
-1.50325E-3	-92.5269E-12	881.019E-3	-6.01415E-3	-91.7750E-12	882.273E-3	-30.9563E-3
-1.50825E-3	-92.4807E-12	888.923E-3	-20.8937E-3	-92.7207E-12	874.645E-3	-20.0257E-3
-1.51326E-3	-92.8367E-12	871.095E-3	-22.1633E-3	-92.8540E-12	880.280E-3	-8.79749E-3
-1.51826E-3	-92.7325E-12	858.870E-3	-16.3792E-3	-93.4603E-12	876.811E-3	-31.9772E-3
-1.52326E-3	-92.9394E-12	868.464E-3	-11.0443E-3	-93.5189E-12	867.834E-3	-44.8647E-3
-1.52826E-3	-93.2934E-12	869.920E-3	-6.39913E-3	-94.0628E-12	869.672E-3	-43.4388E-3
-1.53327E-3	-93.3991E-12	860.984E-3	-12.1043E-3	-94.4315E-12	869.098E-3	-37.6415E-3
-1.53827E-3	-93.5266E-12	852.346E-3	-30.3376E-3	-94.3662E-12	856.101E-3	-26.0454E-3
-1.54327E-3	-93.8910E-12	837.592E-3	-47.6021E-3	-94.5648E-12	847.843E-3	-20.1936E-3
-1.54827E-3	-94.4506E-12	840.953E-3	-54.9444E-3	-94.5956E-12	856.672E-3	-23.3883E-3
-1.55328E-3	-94.9521E-12	866.145E-3	-39.5267E-3	-95.4591E-12	865.495E-3	-22.2925E-3
-1.55828E-3	-95.7684E-12	870.293E-3	-12.8588E-3	-95.4115E-12	871.934E-3	-6.83146E-3
-1.56328E-3	-96.3871E-12	861.528E-3	-7.73055E-3	-95.8510E-12	873.657E-3	5.97514E-3
-1.56828E-3	-97.0115E-12	867.778E-3	-15.3797E-3	-96.0187E-12	862.834E-3	16.2728E-3
-1.57329E-3	-97.5992E-12	874.072E-3	-15.1425E-3	-96.1665E-12	864.947E-3	21.1421E-3
-1.57829E-3	-97.8100E-12	876.904E-3	-10.4490E-3	-96.2659E-12	863.097E-3	14.6825E-3
-1.58329E-3	-97.6117E-12	884.002E-3	1.58517E-3	-96.3251E-12	839.328E-3	6.47185E-3
-1.58829E-3	-97.7193E-12	885.628E-3	14.5505E-3	-96.7522E-12	823.981E-3	4.07732E-3
-1.59330E-3	-97.7049E-12	883.223E-3	7.07090E-3	-96.7626E-12	822.876E-3	12.1290E-3
-1.59830E-3	-97.2977E-12	877.789E-3	-9.89425E-3	-97.3642E-12	825.413E-3	7.41346E-3
-1.60330E-3	-97.2568E-12	862.855E-3	-12.5542E-3	-97.5712E-12	833.018E-3	-19.9404E-3
-1.60830E-3	-96.8363E-12	859.572E-3	-9.04122E-3	-97.8092E-12	846.999E-3	-34.0833E-3
-1.61331E-3	-96.1739E-12	861.581E-3	-16.5411E-3	-98.1852E-12	855.064E-3	-13.2881E-3
-1.61831E-3	-96.3598E-12	842.011E-3	-25.2515E-3	-98.3223E-12	852.488E-3	6.56667E-3
-1.62331E-3	-96.5678E-12	825.425E-3	-21.9279E-3	-98.1828E-12	848.063E-3	-8.95378E-3
-1.62831E-3	-96.7790E-12	826.454E-3	-22.8242E-3	-98.5680E-12	841.846E-3	-37.4807E-3
-1.63332E-3	-96.9355E-12	824.202E-3	-36.4731E-3	-98.9431E-12	827.329E-3	-50.8640E-3
-1.63832E-3	-97.8284E-12	824.485E-3	-49.1062E-3	-98.7102E-12	813.900E-3	-51.7250E-3
-1.64332E-3	-98.2749E-12	837.758E-3	-60.5330E-3	-99.5524E-12	806.774E-3	-36.7637E-3
-1.64832E-3	-98.7634E-12	844.578E-3	-58.2881E-3	-99.4793E-12	810.669E-3	-20.8925E-3
-1.65333E-3	-99.4765E-12	835.710E-3	-36.9102E-3	-99.9313E-12	820.809E-3	-13.5433E-3
-1.65833E-3	-100.118E-12	840.401E-3	-30.4367E-3	-99.9987E-12	815.970E-3	-6.48186E-3
-1.66333E-3	-101.004E-12	851.776E-3	-25.9441E-3	-100.430E-12	811.915E-3	-9.58346E-3
-1.66833E-3	-101.364E-12	839.467E-3	-19.4549E-3	-99.8770E-12	821.073E-3	-12.8275E-3
-1.67334E-3	-101.260E-12	821.402E-3	-30.1380E-3	-100.414E-12	829.966E-3	-6.40273E-3
-1.67834E-3	-101.359E-12	826.100E-3	-22.5602E-3	-100.313E-12	821.319E-3	-4.40357E-3
-1.68334E-3	-101.907E-12	831.983E-3	-2.86363E-3	-100.320E-12	797.844E-3	-3.91955E-3
-1.68834E-3	-101.890E-12	817.134E-3	-593.427E-6	-100.864E-12	784.310E-3	-3.42498E-3
-1.69335E-3	-101.682E-12	807.844E-3	306.231E-6	-101.022E-12	783.878E-3	-14.0971E-3
-1.69835E-3	-101.842E-12	815.520E-3	-6.01330E-3	-101.330E-12	789.803E-3	-24.2670E-3
-1.70335E-3	-101.416E-12	821.921E-3	-26.4897E-3	-101.729E-12	776.232E-3	-17.2958E-3
-1.70835E-3	-101.733E-12	808.096E-3	-31.1807E-3	-101.624E-12	758.795E-3	-2.06072E-3
-1.71336E-3	-102.077E-12	783.288E-3	-23.6615E-3	-101.581E-12	766.672E-3	-6.88436E-3
-1.71836E-3	-101.960E-12	778.257E-3	-29.4655E-3	-102.112E-12	775.298E-3	-19.2185E-3
-1.72336E-3	-102.155E-12	789.993E-3	-30.3132E-3	-102.108E-12	786.245E-3	-13.0236E-3
-1.72836E-3	-102.833E-12	780.994E-3	-19.9038E-3	-102.465E-12	789.362E-3	-18.8114E-3
-1.73337E-3	-103.054E-12	761.932E-3	-20.9534E-3	-102.858E-12	774.949E-3	-31.2421E-3
-1.73837E-3	-103.914E-12	763.709E-3	-38.2983E-3	-103.540E-12	777.323E-3	-22.2458E-3
-1.74337E-3	-104.931E-12	771.203E-3	-50.4008E-3	-104.164E-12	791.153E-3	-21.3270E-3
-1.74837E-3	-105.119E-12	781.506E-3	-41.7610E-3	-104.635E-12	785.565E-3	-22.5547E-3
-1.75338E-3	-105.342E-12	798.220E-3	-18.5068E-3	-105.251E-12	781.071E-3	-10.3629E-3
-1.75838E-3	-106.382E-12	802.215E-3	-9.12275E-3	-105.953E-12	792.487E-3	-10.1071E-3
-1.76338E-3	-107.110E-12	792.598E-3	-15.1859E-3	-106.487E-12	795.468E-3	-17.3928E-3
-1.76838E-3	-106.632E-12	780.042E-3	-12.0630E-3	-106.898E-12	796.607E-3	-11.7188E-3
-1.77339E-3	-107.299E-12	774.180E-3	-9.74796E-3	-107.317E-12	793.401E-3	-12.1747E-3
-1.77839E-3	-107.909E-12	779.560E-3	-11.7824E-3	-107.707E-12	777.510E-3	-20.2687E-3
-1.78339E-3	-107.962E-12	792.451E-3	-5.93164E-3	-108.297E-12	768.312E-3	-11.9582E-3
-1.78839E-3	-107.382E-12	802.995E-3	9.15628E-3	-108.491E-12	767.918E-3	-3.56747E-3
-1.79340E-3	-108.324E-12	792.065E-3	12.3086E-3	-108.765E-12	772.429E-3	-3.13182E-3
-1.79840E-3	-108.179E-12	774.627E-3	-6.10101E-3	-108.873E-12	786.687E-3	-2.51426E-3
-1.80340E-3	-108.555E-12	775.126E-3	-16.9634E-3	-109.324E-12	794.207E-3	-13.8770E-3
-1.80840E-3	-108.777E-12	778.605E-3	-21.5041E-3	-109.130E-12	776.924E-3	-30.3024E-3
-1.81341E-3	-109.487E-12	785.354E-3	-35.5577E-3	-109.536E-12	752.470E-3	-20.6068E-3
-1.81841E-3	-109.717E-12	783.520E-3	-23.1746E-3	-109.601E-12	765.077E-3	-6.12965E-3
-1.82341E-3	-109.812E-12	770.984E-3	8.46916E-3	-109.809E-12	789.907E-3	-18.7526E-3
-1.82841E-3	-110.703E-12	770.630E-3	15.1925E-3	-110.127E-12	773.252E-3	-23.3926E-3
-1.83342E-3	-111.118E-12	773.441E-3	9.74080E-3	-110.591E-12	763.648E-3	-4.77745E-3
-1.83842E-3	-111.389E-12	767.147E-3	-3.19966E-3	-110.867E-12	776.268E-3	-3.30879E-3
-1.84342E-3	-111.007E-12	765.429E-3	-14.7918E-3	-110.769E-12	768.543E-3	-16.5411E-3
-1.84842E-3	-111.216E-12	766.917E-3	-6.10556E-3	-111.188E-12	759.226E-3	-12.8892E-3
-1.85343E-3	-111.176E-12	761.398E-3	2.09959E-3	-111.560E-12	772.634E-3	-10.7284E-3
-1.85843E-3	-111.275E-12	774.701E-3	-1.98483E-3	-111.602E-12	781.937E-3	-8.77080E-3
-1.86343E-3	-110.782E-12	793.169E-3	-9.46175E-3	-111.888E-12	766.982E-3	-2.83466E-3
-1.86843E-3	-110.527E-12	783.462E-3	-13.9969E-3	-111.742E-12	748.462E-3	-4.23643E-3
-1.87344E-3	-110.879E-12	770.941E-3	-11.0426E-3	-111.718E-12	741.298E-3	-599.574E-6
-1.87844E-3	-111.158E-12	772.245E-3	-20.0565E-3	-111.683E-12	743.221E-3	5.66430E-3
-1.88344E-3	-111.332E-12	764.606E-3	-43.0438E-3	-111.627E-12	742.669E-3	-6.75812E-3
-1.88844E-3	-111.430E-12	747.713E-3	-39.4118E-3	-111.808E-12	743.913E-3	-34.8545E-3
-1.89345E-3	-111.898E-12	742.823E-3	-8.30774E-3	-111.915E-12	756.693E-3	-39.5602E-3
-1.89845E-3	-112.191E-12	754.184E-3	-4.71004E-3	-111.872E-12	752.187E-3	-26.4047E-3
-1.90345E-3	-112.444E-12	772.837E-3	-31.5417E-3	-112.595E-12	727.726E-3	-24.0208E-3
-1.90845E-3	-113.146E-12	779.405E-3	-30.5605E-3	-113.317E-12	724.022E-3	-16.7261E-3
-1.91346E-3	-113.946E-12	766.215E-3	-11.3283E-3	-112.803E-12	740.237E-3	-12.1448E-3
-1.91846E-3	-113.823E-12	770.118E-3	-8.31936E-3	-113.358E-12	748.731E-3	-29.8094E-3
-1.92346E-3	-113.939E-12	789.502E-3	-13.7067E-3	-114.008E-12	734.569E-3	-35.0183E-3
-1.92846E-3	-114.349E-12	776.902E-3	-29.8446E-3	-114.374E-12	713.900E-3	-14.3137E-3
-1.93347E-3	-114.264E-12	743.577E-3	-43.1340E-3	-114.449E-12	729.654E-3	6.34149E-3
-1.93847E-3	-113.964E-12	724.311E-3	-20.2298E-3	-114.596E-12	767.143E-3	15.6315E-3
-1.94347E-3	-113.692E-12	719.862E-3	-12.1901E-6	-114.855E-12	768.846E-3	-2.41829E-3
-1.94847E-3	-114.147E-12	723.251E-3	-9.30153E-3	-115.702E-12	738.673E-3	-30.2220E-3
-1.95348E-3	-113.978E-12	742.161E-3	-7.55368E-3	-115.292E-12	726.374E-3	-33.9826E-3
-1.95848E-3	-114.651E-12	760.240E-3	-770.141E-6	-115.407E-12	737.283E-3	-23.1888E-3
-1.96348E-3	-114.793E-12	754.606E-3	-5.17138E-3	-115.410E-12	749.535E-3	-13.1105E-3
-1.96848E-3	-115.714E-12	741.396E-3	-19.3389E-3	-115.582E-12	757.102E-3	-5.63434E-3
-1.97349E-3	-115.783E-12	732.701E-3	-43.1153E-3	-114.929E-12	758.812E-3	-10.2948E-3
-1.97849E-3	-116.450E-12	731.741E-3	-53.3848E-3	-115.122E-12	749.323E-3	-27.9627E-3
-1.98349E-3	-116.990E-12	741.139E-3	-29.0048E-3	-114.752E-12	733.042E-3	-26.1055E-3
-1.98849E-3	-117.792E-12	746.616E-3	1.15163E-3	-115.413E-12	738.952E-3	970.442E-6
-1.99350E-3	-118.500E-12	753.296E-3	1.71911E-3	-115.913E-12	760.687E-3	6.44155E-3
-1.99850E-3	-119.410E-12	770.960E-3	-14.4658E-3	-116.481E-12	750.839E-3	-8.15629E-3
-2.00350E-3	-119.419E-12	769.259E-3	-14.2448E-3	-117.055E-12	723.409E-3	-22.6794E-3
-2.00850E-3	-120.634E-12	745.233E-3	1.44116E-3	-118.587E-12	722.099E-3	-39.4250E-3
-2.01351E-3	-120.619E-12	742.498E-3	7.10809E-3	-118.766E-12	735.722E-3	-38.8591E-3
-2.01851E-3	-120.543E-12	766.836E-3	-3.78512E-3	-119.502E-12	745.675E-3	-15.3352E-3
-2.02351E-3	-120.523E-12	771.531E-3	-14.6467E-3	-120.260E-12	751.445E-3	-5.62115E-3
-2.02851E-3	-119.871E-12	754.501E-3	-9.61359E-3	-120.836E-12	742.752E-3	-2.18268E-3
-2.03352E-3	-119.730E-12	754.923E-3	-10.3717E-3	-120.539E-12	723.862E-3	9.96155E-3
-2.03852E-3	-119.162E-12	759.347E-3	-12.4314E-3	-120.788E-12	718.486E-3	647.103E-6
-2.04352E-3	-118.879E-12	745.323E-3	-374.782E-6	-121.204E-12	728.846E-3	-10.0087E-3
-2.04852E-3	-119.111E-12	731.347E-3	4.49574E-3	-120.739E-12	730.330E-3	1.29360E-3
-2.05353E-3	-118.989E-12	722.798E-3	-3.38304E-3	-121.358E-12	730.416E-3	9.48629E-3
-2.05853E-3	-119.148E-12	713.496E-3	-14.4787E-3	-121.258E-12	726.813E-3	1.83861E-3
-2.06353E-3	-119.650E-12	713.316E-3	-23.4559E-3	-121.159E-12	712.455E-3	-10.0613E-3
-2.06853E-3	-120.535E-12	711.481E-3	-29.6417E-3	-120.712E-12	722.132E-3	-24.3378E-3
-2.07354E-3	-120.953E-12	707.456E-3	-33.0800E-3	-120.820E-12	723.188E-3	-18.7326E-3
-2.07854E-3	-121.948E-12	711.800E-3	-28.6756E-3	-120.617E-12	701.582E-3	2.96714E-3
-2.08354E-3	-123.105E-12	719.103E-3	-29.7838E-3	-120.528E-12	695.872E-3	-4.60263E-3
-2.08854E-3	-123.872E-12	725.428E-3	-24.2175E-3	-121.335E-12	703.308E-3	-22.9979E-3
-2.09355E-3	-124.472E-12	734.936E-3	-25.0249E-6	-121.567E-12	717.603E-3	-23.5874E-3
-2.09855E-3	-125.374E-12	744.221E-3	6.75847E-3	-121.922E-12	734.451E-3	-25.8465E-3
-2.10355E-3	-125.648E-12	748.773E-3	-10.7386E-3	-122.826E-12	745.017E-3	-24.3803E-3
-2.10855E-3	-125.563E-12	751.552E-3	-16.9443E-3	-123.152E-12	756.086E-3	-10.7329E-3
-2.11356E-3	-125.108E-12	748.865E-3	1.16249E-3	-123.486E-12	758.622E-3	-5.24926E-3
-2.11856E-3	-125.058E-12	734.283E-3	6.06776E-3	-124.662E-12	739.129E-3	-6.87158E-3
-2.12356E-3	-124.570E-12	726.431E-3	-14.9334E-3	-124.878E-12	729.030E-3	-10.2635E-3
-2.12856E-3	-124.209E-12	738.418E-3	-42.1950E-3	-124.919E-12	732.685E-3	-18.8431E-3
-2.13357E-3	-123.536E-12	739.700E-3	-50.5344E-3	-125.850E-12	727.976E-3	-26.5268E-3
-2.13857E-3	-123.005E-12	727.562E-3	-36.8416E-3	-126.387E-12	723.895E-3	-20.0532E-3
-2.14357E-3	-122.685E-12	725.588E-3	-30.9643E-3	-126.068E-12	720.456E-3	-8.46007E-3
-2.14857E-3	-122.678E-12	728.522E-3	-24.7921E-3	-126.430E-12	723.496E-3	-6.70739E-3
-2.15358E-3	-123.055E-12	720.098E-3	-16.8927E-3	-126.933E-12	731.717E-3	-9.33203E-3
-2.15858E-3	-123.553E-12	695.911E-3	-16.2225E-3	-126.642E-12	733.494E-3	-10.9816E-3
-2.16358E-3	-124.173E-12	687.396E-3	-13.6482E-3	-127.133E-12	732.215E-3	-10.3240E-3
-2.16858E-3	-124.670E-12	709.681E-3	-16.6931E-3	-127.033E-12	724.450E-3	-8.05414E-3
-2.17359E-3	-125.582E-12	724.440E-3	-9.86619E-3	-126.406E-12	729.633E-3	-1.86000E-3
-2.17859E-3	-126.162E-12	711.891E-3	-3.64842E-3	-126.494E-12	731.204E-3	232.509E-6
-2.18359E-3	-127.431E-12	708.140E-3	-16.2826E-3	-126.767E-12	706.069E-3	-16.0342E-3
-2.18859E-3	-127.501E-12	716.988E-3	-18.1977E-3	-126.610E-12	700.074E-3	-29.6560E-3
-2.19360E-3	-127.955E-12	709.735E-3	-24.3654E-3	-125.912E-12	712.224E-3	-22.1800E-3
-2.19860E-3	-128.250E-12	700.742E-3	-41.8469E-3	-126.797E-12	708.511E-3	-16.7361E-3
-2.20360E-3	-128.644E-12	703.381E-3	-45.6629E-3	-126.433E-12	702.652E-3	-11.9594E-3
-2.20860E-3	-129.138E-12	710.460E-3	-44.4735E-3	-125.849E-12	696.153E-3	1.90219E-3
-2.21361E-3	-129.213E-12	727.409E-3	-32.9899E-3	-126.342E-12	691.069E-3	7.12132E-3
-2.21861E-3	-129.270E-12	743.708E-3	-20.1777E-3	-127.446E-12	691.711E-3	-163.312E-6
-2.22361E-3	-129.184E-12	730.278E-3	-31.9453E-3	-127.239E-12	700.675E-3	-12.9118E-3
-2.22861E-3	-128.915E-12	713.251E-3	-39.1652E-3	-127.837E-12	718.082E-3	-23.1487E-3
-2.23362E-3	-129.062E-12	708.755E-3	-26.8275E-3	-128.825E-12	724.677E-3	-29.4006E-3
-2.23862E-3	-129.369E-12	698.326E-3	-31.7862E-3	-129.701E-12	719.765E-3	-31.8742E-3
-2.24362E-3	-129.096E-12	698.502E-3	-43.0286E-3	-129.619E-12	702.819E-3	-29.4226E-3
-2.24862E-3	-129.162E-12	702.867E-3	-29.5048E-3	-130.137E-12	694.116E-3	-16.9024E-3
-2.25363E-3	-129.372E-12	699.506E-3	-21.0074E-3	-130.802E-12	719.897E-3	2.77960E-3
-2.25863E-3	-129.286E-12	700.976E-3	-24.5593E-3	-131.122E-12	748.816E-3	4.21507E-3
-2.26363E-3	-129.335E-12	696.654E-3	-18.7475E-3	-131.269E-12	742.628E-3	-8.50171E-3
-2.26863E-3	-129.697E-12	690.585E-3	-9.31178E-3	-131.477E-12	724.118E-3	-18.9859E-3
-2.27364E-3	-129.774E-12	704.561E-3	293.553E-6	-131.232E-12	702.528E-3	-11.9018E-3
-2.27864E-3	-130.358E-12	721.599E-3	-3.09090E-3	-131.742E-12	685.268E-3	4.37999E-3
-2.28364E-3	-131.189E-12	717.842E-3	-26.1367E-3	-130.940E-12	698.672E-3	-8.01810E-3
-2.28864E-3	-131.558E-12	714.685E-3	-47.4691E-3	-130.743E-12	716.130E-3	-32.9627E-3
-2.29365E-3	-132.052E-12	723.993E-3	-42.3205E-3	-130.240E-12	711.423E-3	-38.7789E-3
-2.29865E-3	-132.513E-12	714.241E-3	-15.8566E-3	-129.991E-12	717.508E-3	-32.2833E-3
-2.30365E-3	-132.675E-12	696.167E-3	2.38300E-3	-129.556E-12	732.210E-3	-28.5081E-3
-2.30865E-3	-133.144E-12	701.391E-3	-3.55444E-3	-129.784E-12	723.755E-3	-13.0400E-3
-2.31366E-3	-133.423E-12	717.198E-3	-15.8783E-3	-130.115E-12	710.089E-3	-4.81247E-3
-2.31866E-3	-134.017E-12	726.828E-3	-11.8405E-3	-130.952E-12	715.230E-3	-37.3617E-3
-2.32366E-3	-134.020E-12	735.347E-3	7.04280E-3	-131.303E-12	723.922E-3	-68.6983E-3
-2.32866E-3	-133.893E-12	734.528E-3	16.9985E-3	-132.607E-12	720.340E-3	-61.2721E-3
-2.33367E-3	-134.623E-12	718.970E-3	-7.69758E-3	-133.900E-12	704.794E-3	-38.7915E-3
-2.33867E-3	-134.853E-12	716.289E-3	-38.1622E-3	-134.660E-12	692.357E-3	-22.6202E-3
-2.34367E-3	-135.128E-12	728.729E-3	-35.7781E-3	-135.648E-12	707.503E-3	-11.1297E-3
-2.34867E-3	-134.960E-12	727.889E-3	-17.6852E-3	-137.010E-12	730.193E-3	-8.29613E-3
-2.35368E-3	-134.750E-12	719.684E-3	-4.71571E-3	-137.450E-12	733.794E-3	-12.1195E-3
-2.35868E-3	-135.055E-12	706.228E-3	-448.714E-6	-138.308E-12	725.344E-3	-20.1168E-3
-2.36368E-3	-135.086E-12	682.497E-3	-3.20896E-3	-139.200E-12	708.799E-3	-26.3111E-3
-2.36868E-3	-135.117E-12	688.301E-3	-10.3670E-3	-139.531E-12	701.876E-3	-25.3811E-3
-2.37369E-3	-135.450E-12	727.767E-3	-8.14702E-3	-139.447E-12	720.443E-3	-22.4131E-3
-2.37869E-3	-135.382E-12	745.978E-3	6.74556E-3	-139.231E-12	730.863E-3	-13.7118E-3
-2.38369E-3	-135.333E-12	743.690E-3	16.6225E-3	-138.808E-12	712.261E-3	-3.66324E-3
-2.38869E-3	-135.209E-12	743.212E-3	8.18199E-3	-138.904E-12	695.166E-3	-2.65203E-3
-2.39370E-3	-135.991E-12	720.299E-3	-14.2798E-3	-137.711E-12	692.489E-3	-2.72812E-3
-2.39870E-3	-136.162E-12	701.934E-3	-15.8198E-3	-137.350E-12	694.084E-3	1.17256E-3
-2.40370E-3	-136.602E-12	714.593E-3	-504.203E-6	-137.158E-12	707.019E-3	-1.86627E-3
-2.40870E-3	-137.450E-12	712.105E-3	-12.7403E-3	-136.445E-12	715.963E-3	-9.10948E-3
-2.41371E-3	-138.186E-12	694.156E-3	-37.0017E-3	-136.215E-12	698.543E-3	-11.5123E-3
-2.41871E-3	-139.520E-12	696.522E-3	-19.7377E-3	-137.044E-12	697.854E-3	-23.6524E-3
-2.42371E-3	-140.520E-12	696.308E-3	10.2373E-3	-136.404E-12	717.015E-3	-41.4700E-3
-2.42871E-3	-141.091E-12	693.058E-3	9.77492E-3	-137.094E-12	699.333E-3	-51.4305E-3
-2.43372E-3	-141.756E-12	709.545E-3	3.19261E-3	-138.116E-12	683.943E-3	-44.1482E-3
-2.43872E-3	-141.981E-12	713.537E-3	5.87658E-3	-138.770E-12	702.734E-3	-23.6654E-3
-2.44372E-3	-141.511E-12	702.431E-3	-604.161E-6	-138.916E-12	712.077E-3	-16.2580E-3
-2.44872E-3	-141.598E-12	707.109E-3	-9.10719E-3	-140.342E-12	710.052E-3	-18.9943E-3
-2.45373E-3	-141.510E-12	712.266E-3	-6.45054E-3	-140.986E-12	713.549E-3	-20.4911E-3
-2.45873E-3	-140.380E-12	699.933E-3	-13.6863E-3	-141.060E-12	707.916E-3	-30.5031E-3
-2.46373E-3	-139.894E-12	686.810E-3	-13.2938E-3	-142.153E-12	702.535E-3	-37.2214E-3
-2.46873E-3	-139.853E-12	681.190E-3	-9.09284E-3	-141.664E-12	708.494E-3	-45.9321E-3
-2.47374E-3	-138.873E-12	684.663E-3	-28.8105E-3	-141.936E-12	699.001E-3	-55.2595E-3
-2.47874E-3	-138.151E-12	693.422E-3	-30.8090E-3	-141.627E-12	672.939E-3	-32.5617E-3
-2.48374E-3	-138.111E-12	681.866E-3	-12.8484E-3	-141.232E-12	659.377E-3	706.254E-6
-2.48874E-3	-137.879E-12	664.568E-3	-5.39093E-3	-140.868E-12	672.980E-3	2.83957E-3
-2.49375E-3	-138.096E-12	669.426E-3	-7.16520E-3	-141.335E-12	700.457E-3	-22.1988E-3
-2.49875E-3	-138.362E-12	680.712E-3	-3.74945E-3	-140.451E-12	720.949E-3	-34.8171E-3
-2.50375E-3	-139.243E-12	693.924E-3	7.25035E-3	-140.311E-12	716.279E-3	-25.7320E-3
-2.50875E-3	-140.437E-12	700.567E-3	-8.17739E-3	-140.540E-12	704.397E-3	-20.7405E-3
-2.51376E-3	-141.858E-12	697.096E-3	-27.9523E-3	-140.303E-12	697.170E-3	-18.4282E-3
-2.51876E-3	-142.768E-12	698.284E-3	-24.5970E-3	-140.008E-12	683.863E-3	-15.0332E-3
-2.52376E-3	-144.107E-12	693.232E-3	-25.4752E-3	-140.122E-12	671.093E-3	-20.7811E-3
-2.52876E-3	-145.830E-12	690.410E-3	-24.6462E-3	-140.460E-12	668.445E-3	-27.1772E-3
-2.53377E-3	-146.237E-12	705.973E-3	-15.5682E-3	-140.929E-12	688.936E-3	-17.3477E-3
-2.53877E-3	-146.420E-12	719.323E-3	1.87674E-3	-141.404E-12	708.609E-3	-9.13897E-3
-2.54377E-3	-146.911E-12	713.273E-3	22.2667E-3	-143.128E-12	701.687E-3	-6.45693E-3
-2.54877E-3	-147.040E-12	701.074E-3	21.5017E-3	-142.915E-12	699.100E-3	301.357E-6
-2.55378E-3	-146.888E-12	697.122E-3	16.1353E-3	-143.615E-12	714.331E-3	-5.82030E-3
-2.55878E-3	-146.915E-12	710.042E-3	14.6853E-3	-144.698E-12	729.854E-3	-11.8159E-3
-2.56378E-3	-146.208E-12	723.792E-3	8.57886E-3	-145.451E-12	733.558E-3	-3.72854E-3
-2.56878E-3	-146.199E-12	717.167E-3	9.04116E-3	-145.961E-12	727.367E-3	-3.32733E-3
-2.57379E-3	-144.688E-12	708.202E-3	21.4646E-3	-147.050E-12	724.053E-3	-13.4870E-3
-2.57879E-3	-144.372E-12	703.355E-3	14.4932E-3	-147.115E-12	722.976E-3	-10.8911E-3
-2.58379E-3	-143.778E-12	702.811E-3	-19.8054E-3	-147.911E-12	724.018E-3	-219.641E-6
-2.58879E-3	-143.608E-12	709.915E-3	-21.4401E-3	-148.297E-12	719.015E-3	-3.48186E-3
-2.59380E-3	-143.474E-12	715.107E-3	-1.16924E-3	-148.614E-12	700.513E-3	-5.43889E-3
-2.59880E-3	-143.965E-12	720.479E-3	-2.65846E-3	-148.589E-12	677.302E-3	-5.36896E-3
-2.60380E-3	-144.451E-12	733.404E-3	-2.20649E-3	-148.765E-12	674.540E-3	-25.8355E-3
-2.60880E-3	-145.918E-12	744.731E-3	-3.56660E-3	-148.704E-12	691.634E-3	-38.5770E-3
-2.61381E-3	-147.277E-12	743.685E-3	-31.6088E-3	-148.789E-12	697.904E-3	-19.9974E-3
-2.61881E-3	-148.139E-12	719.429E-3	-62.7838E-3	-148.005E-12	699.356E-3	-15.5734E-3
-2.62381E-3	-149.125E-12	694.239E-3	-56.9389E-3	-148.156E-12	697.313E-3	-41.7519E-3
-2.62881E-3	-150.415E-12	699.980E-3	-32.6955E-3	-148.127E-12	686.750E-3	-53.5879E-3
-2.63382E-3	-151.096E-12	710.593E-3	-18.6655E-3	-147.919E-12	686.834E-3	-42.0792E-3
-2.63882E-3	-151.344E-12	702.043E-3	-2.55406E-3	-147.628E-12	702.706E-3	-25.1258E-3
-2.64382E-3	-151.643E-12	694.050E-3	7.60915E-3	-148.409E-12	702.400E-3	-10.5572E-3
-2.64882E-3	-152.813E-12	693.056E-3	6.03602E-3	-148.582E-12	689.574E-3	-10.5235E-3
-2.65383E-3	-152.172E-12	700.589E-3	132.063E-6	-148.878E-12	696.305E-3	-31.1862E-3
-2.65883E-3	-152.134E-12	729.010E-3	-1.09405E-3	-149.721E-12	696.052E-3	-51.0434E-3
-2.66383E-3	-151.728E-12	745.180E-3	8.67848E-3	-150.777E-12	699.209E-3	-51.3120E-3
-2.66883E-3	-151.246E-12	726.986E-3	17.9412E-3	-150.542E-12	715.208E-3	-36.1462E-3
-2.67384E-3	-150.713E-12	700.863E-3	10.9560E-3	-151.541E-12	716.892E-3	-16.6360E-3
-2.67884E-3	-150.603E-12	687.158E-3	-7.28697E-3	-152.538E-12	708.859E-3	-859.489E-6
-2.68384E-3	-149.866E-12	696.055E-3	-12.1274E-3	-152.809E-12	697.129E-3	9.83263E-3
-2.68884E-3	-149.395E-12	698.753E-3	-5.82710E-3	-152.720E-12	694.739E-3	9.87673E-3
-2.69385E-3	-148.770E-12	688.159E-3	-10.2306E-3	-153.296E-12	698.497E-3	-1.37531E-3
-2.69885E-3	-148.620E-12	682.454E-3	-12.9329E-3	-152.876E-12	710.724E-3	-9.97251E-3
-2.70385E-3	-148.914E-12	681.872E-3	-356.393E-6	-152.696E-12	708.719E-3	-10.2036E-3
-2.70885E-3	-149.576E-12	689.249E-3	13.8988E-3	-152.754E-12	682.136E-3	-13.6009E-3
-2.71386E-3	-149.515E-12	682.653E-3	1.07406E-3	-152.402E-12	669.703E-3	-18.1944E-3
-2.71886E-3	-149.957E-12	668.008E-3	-37.0162E-3	-151.375E-12	678.654E-3	-10.1323E-3
-2.72386E-3	-150.441E-12	667.639E-3	-52.3647E-3	-151.302E-12	695.258E-3	2.67151E-3
-2.72886E-3	-150.912E-12	669.511E-3	-51.0987E-3	-150.602E-12	688.667E-3	3.94135E-3
-2.73387E-3	-150.643E-12	665.705E-3	-54.4097E-3	-149.779E-12	671.237E-3	6.34184E-3
-2.73887E-3	-151.620E-12	673.897E-3	-40.5163E-3	-150.022E-12	676.491E-3	4.93779E-3
-2.74387E-3	-152.228E-12	677.548E-3	-17.6328E-3	-150.102E-12	695.189E-3	-21.5182E-3
-2.74887E-3	-152.462E-12	668.567E-3	-14.7303E-3	-149.546E-12	703.283E-3	-36.1643E-3
-2.75388E-3	-153.233E-12	673.503E-3	-24.4934E-3	-150.584E-12	704.400E-3	-35.7443E-3
-2.75888E-3	-154.347E-12	684.338E-3	-23.9331E-3	-151.804E-12	723.664E-3	-44.4050E-3
-2.76388E-3	-154.182E-12	687.692E-3	-14.6924E-3	-152.847E-12	728.254E-3	-36.5066E-3
-2.76888E-3	-154.421E-12	693.167E-3	1.46014E-3	-153.087E-12	714.446E-3	-18.1794E-3
-2.77389E-3	-154.525E-12	707.540E-3	16.3622E-3	-154.575E-12	719.501E-3	-21.3441E-3
-2.77889E-3	-154.840E-12	695.822E-3	3.26671E-3	-155.833E-12	708.366E-3	-37.4830E-3
-2.78389E-3	-154.450E-12	663.907E-3	-19.3448E-3	-156.469E-12	687.938E-3	-31.8228E-3
-2.78889E-3	-153.695E-12	663.841E-3	-27.7585E-3	-156.524E-12	695.402E-3	-22.2828E-3
-2.79390E-3	-153.772E-12	677.620E-3	-30.0171E-3	-157.594E-12	706.169E-3	-33.6565E-3
-2.79890E-3	-153.728E-12	685.129E-3	-20.8172E-3	-158.197E-12	705.230E-3	-34.8638E-3
-2.80390E-3	-152.946E-12	689.957E-3	-8.80683E-3	-157.487E-12	689.632E-3	-31.5977E-3
-2.80890E-3	-153.331E-12	672.380E-3	-11.0194E-3	-157.324E-12	671.528E-3	-29.1955E-3
-2.81391E-3	-153.815E-12	641.748E-3	-11.1930E-3	-157.848E-12	685.048E-3	-8.82918E-3
-2.81891E-3	-154.336E-12	636.543E-3	12.3351E-3	-157.022E-12	711.133E-3	4.64036E-3
-2.82391E-3	-154.740E-12	653.290E-3	26.4667E-3	-157.295E-12	705.222E-3	-10.0086E-3
-2.82891E-3	-155.876E-12	666.514E-3	-674.168E-6	-157.026E-12	675.898E-3	-37.3714E-3
-2.83392E-3	-156.646E-12	676.171E-3	-25.7025E-3	-156.531E-12	667.403E-3	-36.2845E-3
-2.83892E-3	-157.658E-12	683.908E-3	-22.7088E-3	-156.891E-12	669.307E-3	-28.1186E-3
-2.84392E-3	-158.038E-12	696.284E-3	-22.1172E-3	-156.809E-12	658.888E-3	-25.1044E-3
-2.84892E-3	-159.592E-12	706.591E-3	-33.7382E-3	-157.418E-12	683.764E-3	8.56937E-3
-2.85393E-3	-160.512E-12	701.429E-3	-42.2900E-3	-157.949E-12	713.024E-3	22.2380E-3
-2.85893E-3	-161.199E-12	695.844E-3	-39.1366E-3	-158.380E-12	694.213E-3	419.355E-6
-2.86393E-3	-162.066E-12	683.185E-3	-27.4852E-3	-158.970E-12	695.415E-3	-14.8458E-3
-2.86893E-3	-162.799E-12	662.341E-3	-16.8458E-3	-159.387E-12	730.741E-3	-10.3264E-3
-2.87394E-3	-162.730E-12	671.892E-3	-8.69440E-3	-160.733E-12	731.374E-3	1.67099E-3
-2.87894E-3	-163.030E-12	700.595E-3	846.549E-6	-160.988E-12	708.388E-3	-7.19450E-3
-2.88394E-3	-162.234E-12	699.032E-3	4.74710E-3	-160.940E-12	699.489E-3	-28.6094E-3
-2.88894E-3	-161.660E-12	682.072E-3	-14.9137E-3	-161.151E-12	692.433E-3	-27.8251E-3
-2.89395E-3	-160.503E-12	682.219E-3	-16.7025E-3	-162.552E-12	683.790E-3	-11.1882E-3
-2.89895E-3	-159.923E-12	691.964E-3	15.0605E-3	-161.894E-12	689.438E-3	-978.943E-6
-2.90395E-3	-158.630E-12	699.328E-3	21.7019E-3	-161.477E-12	694.655E-3	-10.5446E-3
-2.90895E-3	-157.985E-12	699.620E-3	4.57522E-3	-162.246E-12	673.443E-3	-12.2933E-3
-2.91396E-3	-157.339E-12	686.758E-3	585.475E-6	-162.857E-12	649.850E-3	14.8768E-3
-2.91896E-3	-157.612E-12	663.467E-3	237.619E-6	-161.865E-12	648.434E-3	21.1675E-3
-2.92396E-3	-157.773E-12	649.120E-3	-10.2554E-3	-162.382E-12	654.104E-3	2.74287E-3
-2.92896E-3	-158.323E-12	640.914E-3	-37.4172E-3	-162.995E-12	674.461E-3	917.289E-6
-2.93397E-3	-159.240E-12	644.461E-3	-59.7579E-3	-162.359E-12	713.182E-3	9.42091E-3
-2.93897E-3	-160.819E-12	665.102E-3	-52.0376E-3	-162.694E-12	738.274E-3	-1.94510E-3
-2.94397E-3	-161.902E-12	677.415E-3	-43.8364E-3	-162.839E-12	739.924E-3	-19.6960E-3
-2.94897E-3	-163.339E-12	677.847E-3	-48.5666E-3	-162.803E-12	718.640E-3	-24.2540E-3
-2.95398E-3	-165.392E-12	678.105E-3	-49.7968E-3	-162.809E-12	691.480E-3	-24.7803E-3
-2.95898E-3	-166.437E-12	672.465E-3	-34.8848E-3	-163.940E-12	680.976E-3	-9.21943E-3
-2.96398E-3	-167.841E-12	661.367E-3	-23.4024E-3	-163.015E-12	680.083E-3	-11.2804E-3
-2.96898E-3	-168.588E-12	678.144E-3	-26.7930E-3	-163.471E-12	698.063E-3	-36.0312E-3
-2.97399E-3	-169.074E-12	705.188E-3	-12.2166E-3	-164.288E-12	717.180E-3	-36.6164E-3
-2.97899E-3	-169.158E-12	707.640E-3	3.33721E-3	-164.771E-12	724.372E-3	-36.1884E-3
-2.98399E-3	-167.772E-12	712.263E-3	8.94925E-3	-164.180E-12	725.880E-3	-43.5538E-3
-2.98899E-3	-167.183E-12	725.304E-3	28.0067E-3	-164.705E-12	699.786E-3	-42.3704E-3
-2.99400E-3	-165.977E-12	721.621E-3	13.5626E-3	-165.522E-12	661.503E-3	-38.0545E-3
-2.99900E-3	-164.903E-12	721.758E-3	-23.1344E-3	-165.223E-12	647.506E-3	-29.1328E-3
-3.00400E-3	-163.197E-12	726.561E-3	-30.2724E-3	-164.997E-12	669.108E-3	-9.82914E-3
-3.00900E-3	-162.723E-12	705.425E-3	-35.4956E-3	-165.619E-12	691.497E-3	-2.70544E-3
-3.01401E-3	-162.601E-12	687.001E-3	-46.1194E-3	-166.067E-12	691.393E-3	-10.5538E-3
-3.01901E-3	-161.452E-12	677.953E-3	-23.9801E-3	-165.333E-12	696.909E-3	-14.5941E-3
-3.02401E-3	-161.707E-12	666.439E-3	-10.5823E-3	-165.758E-12	702.989E-3	-13.7913E-3
-3.02901E-3	-161.982E-12	672.965E-3	-46.8265E-3	-166.208E-12	688.450E-3	7.57015E-3
-3.03402E-3	-162.938E-12	684.022E-3	-57.3223E-3	-165.783E-12	676.990E-3	14.8799E-3
-3.03902E-3	-163.873E-12	685.352E-3	-30.3682E-3	-166.740E-12	687.216E-3	-6.56129E-3
-3.04402E-3	-165.583E-12	682.496E-3	-16.7982E-3	-166.889E-12	701.244E-3	-3.55349E-3
-3.04902E-3	-166.632E-12	689.299E-3	7.61707E-3	-166.306E-12	708.861E-3	17.9874E-3
-3.05403E-3	-168.574E-12	692.652E-3	35.5205E-3	-166.970E-12	703.141E-3	6.38334E-3
-3.05903E-3	-169.795E-12	697.210E-3	11.4121E-3	-167.440E-12	698.512E-3	-36.8105E-3
-3.06403E-3	-171.339E-12	728.224E-3	-18.9702E-3	-166.952E-12	715.927E-3	-38.6814E-3
-3.06903E-3	-172.317E-12	748.268E-3	-9.06346E-3	-166.826E-12	715.428E-3	-5.73516E-3
-3.07404E-3	-172.713E-12	738.044E-3	-18.2226E-3	-167.654E-12	711.697E-3	2.30920E-3
-3.07904E-3	-173.009E-12	709.889E-3	-45.7401E-3	-167.543E-12	727.547E-3	10.0462E-3
-3.08404E-3	-172.690E-12	698.017E-3	-40.5011E-3	-167.480E-12	722.637E-3	10.1709E-3
-3.08904E-3	-172.314E-12	711.278E-3	-22.5656E-3	-168.471E-12	708.558E-3	-14.2826E-3
-3.09405E-3	-171.092E-12	727.012E-3	-7.58791E-3	-168.298E-12	719.340E-3	-28.7789E-3
-3.09905E-3	-170.267E-12	729.581E-3	6.41220E-3	-169.213E-12	725.411E-3	-22.8500E-3
-3.10405E-3	-169.245E-12	704.910E-3	6.93880E-3	-170.044E-12	685.833E-3	-13.4686E-3
-3.10905E-3	-168.245E-12	679.277E-3	3.12912E-3	-170.283E-12	663.978E-3	-7.52421E-3
-3.11406E-3	-167.241E-12	673.346E-3	-5.92128E-3	-170.410E-12	688.308E-3	-4.92691E-3
-3.11906E-3	-167.151E-12	674.575E-3	-31.0897E-3	-170.472E-12	692.432E-3	-2.88571E-3
-3.12406E-3	-167.328E-12	678.047E-3	-36.6112E-3	-170.214E-12	683.719E-3	4.30078E-3
-3.12906E-3	-167.698E-12	676.024E-3	-17.4517E-3	-170.409E-12	691.599E-3	1.39549E-3
-3.13407E-3	-167.408E-12	671.853E-3	-20.1206E-3	-170.389E-12	703.940E-3	-3.79226E-3
-3.13907E-3	-168.442E-12	688.758E-3	-45.4097E-3	-169.933E-12	713.313E-3	9.91120E-3
-3.14407E-3	-169.666E-12	702.905E-3	-55.1740E-3	-170.575E-12	701.010E-3	12.1906E-3
-3.14907E-3	-170.369E-12	686.337E-3	-55.0784E-3	-170.507E-12	674.067E-3	-7.99839E-3
-3.15408E-3	-171.288E-12	676.105E-3	-47.0400E-3	-170.250E-12	664.569E-3	-26.8985E-3
-3.15908E-3	-172.663E-12	687.330E-3	-15.8129E-3	-170.233E-12	683.935E-3	-32.5112E-3
-3.16408E-3	-173.664E-12	691.649E-3	-7.86446E-3	-171.323E-12	708.716E-3	-13.1245E-3
-3.16908E-3	-173.712E-12	697.490E-3	-25.9469E-3	-170.873E-12	695.692E-3	17.7725E-3
-3.17409E-3	-174.525E-12	712.869E-3	-23.4702E-3	-171.436E-12	671.139E-3	23.4265E-3
-3.17909E-3	-175.547E-12	722.842E-3	-12.6156E-3	-172.701E-12	695.444E-3	6.10971E-3
-3.18409E-3	-175.549E-12	720.310E-3	-16.4632E-3	-173.863E-12	726.907E-3	-9.74793E-3
-3.18909E-3	-175.198E-12	707.646E-3	-12.6585E-3	-173.567E-12	716.530E-3	-20.8352E-3
-3.19410E-3	-175.802E-12	698.320E-3	1.79224E-3	-175.197E-12	704.014E-3	-26.1689E-3
-3.19910E-3	-176.132E-12	704.685E-3	1.26808E-3	-175.957E-12	693.334E-3	-18.4421E-3
-3.20410E-3	-175.162E-12	720.901E-3	-10.7306E-3	-176.838E-12	691.931E-3	-18.9090E-3
-3.20910E-3	-176.049E-12	712.861E-3	-12.1188E-3	-177.054E-12	703.619E-3	-40.3686E-3
-3.21411E-3	-175.547E-12	682.359E-3	-17.4562E-3	-177.848E-12	681.535E-3	-36.8082E-3
-3.21911E-3	-175.386E-12	681.754E-3	-27.7303E-3	-177.790E-12	660.825E-3	-26.6994E-3
-3.22411E-3	-174.465E-12	702.911E-3	-637.451E-6	-178.635E-12	670.537E-3	-50.7620E-3
-3.22911E-3	-174.692E-12	701.843E-3	3.34491E-3	-178.217E-12	678.973E-3	-46.8357E-3
-3.23412E-3	-174.034E-12	703.439E-3	-36.2539E-3	-177.727E-12	692.179E-3	-9.18620E-3
-3.23912E-3	-174.033E-12	710.174E-3	-25.9492E-3	-177.306E-12	686.134E-3	-1.92159E-3
-3.24412E-3	-174.488E-12	696.296E-3	-628.409E-6	-177.234E-12	661.585E-3	-14.6590E-3
-3.24912E-3	-174.819E-12	702.959E-3	-23.0261E-3	-176.153E-12	666.664E-3	6.33189E-3
-3.25413E-3	-175.282E-12	714.398E-3	-40.1061E-3	-175.752E-12	694.938E-3	20.3246E-3
-3.25913E-3	-176.297E-12	694.027E-3	-14.7315E-3	-175.201E-12	709.320E-3	-14.4664E-3
-3.26413E-3	-176.581E-12	685.179E-3	-1.85635E-3	-175.473E-12	710.055E-3	-26.0355E-3
-3.26913E-3	-177.759E-12	681.536E-3	-7.59692E-3	-175.808E-12	713.815E-3	-8.79192E-3
-3.27414E-3	-178.847E-12	668.411E-3	349.740E-6	-176.465E-12	717.325E-3	1.01355E-3
-3.27914E-3	-179.517E-12	682.460E-3	-8.17895E-3	-176.922E-12	704.334E-3	-2.73641E-3
-3.28414E-3	-179.885E-12	713.870E-3	-22.7916E-3	-178.039E-12	681.771E-3	-29.4702E-3
-3.28914E-3	-181.014E-12	735.954E-3	-15.5006E-3	-179.275E-12	667.882E-3	-56.5256E-3
-3.29415E-3	-182.034E-12	751.255E-3	-21.9562E-3	-180.219E-12	674.113E-3	-50.6230E-3
-3.29915E-3	-182.072E-12	760.436E-3	-43.8095E-3	-180.665E-12	694.262E-3	-23.3767E-3
-3.30415E-3	-181.725E-12	747.284E-3	-53.1271E-3	-181.130E-12	689.913E-3	-10.8571E-3
-3.30915E-3	-181.555E-12	730.677E-3	-58.1731E-3	-181.788E-12	676.620E-3	6.33470E-3
-3.31416E-3	-180.709E-12	727.653E-3	-43.6562E-3	-182.077E-12	686.423E-3	19.5362E-3
-3.31916E-3	-179.452E-12	716.301E-3	-23.0734E-3	-182.413E-12	685.335E-3	-3.51345E-3
-3.32416E-3	-178.797E-12	717.794E-3	-26.1965E-3	-181.590E-12	666.957E-3	-16.5845E-3
-3.32916E-3	-178.002E-12	728.103E-3	-21.6714E-3	-181.013E-12	658.704E-3	-14.2113E-3
-3.33417E-3	-176.204E-12	705.083E-3	-10.1192E-3	-181.150E-12	660.912E-3	-26.9469E-3
-3.33917E-3	-176.072E-12	682.443E-3	-12.1954E-3	-179.703E-12	671.951E-3	-33.2401E-3
-3.34417E-3	-176.829E-12	671.899E-3	-16.5738E-3	-179.417E-12	690.883E-3	-21.0288E-3
-3.34917E-3	-175.975E-12	655.493E-3	-17.8471E-3	-178.808E-12	702.300E-3	-11.5783E-3
-3.35418E-3	-176.501E-12	662.638E-3	-16.4829E-3	-178.472E-12	701.185E-3	-17.4433E-3
-3.35918E-3	-178.002E-12	680.919E-3	-11.4637E-3	-178.707E-12	703.023E-3	-14.7602E-3
-3.36418E-3	-178.955E-12	674.164E-3	-10.2597E-3	-178.619E-12	704.992E-3	-13.7319E-3
-3.36918E-3	-179.864E-12	668.528E-3	-27.9319E-3	-178.871E-12	688.824E-3	-20.0821E-3
-3.37419E-3	-181.578E-12	685.760E-3	-51.9995E-3	-180.230E-12	684.114E-3	-16.5691E-3
-3.37919E-3	-183.317E-12	708.630E-3	-54.0255E-3	-181.059E-12	694.220E-3	-33.1630E-3
-3.38419E-3	-185.033E-12	713.676E-3	-30.4420E-3	-182.098E-12	688.581E-3	-33.0990E-3
-3.38919E-3	-186.175E-12	709.661E-3	-2.02548E-3	-183.258E-12	689.505E-3	-6.36235E-3
-3.39420E-3	-187.516E-12	713.117E-3	10.2943E-3	-184.191E-12	695.255E-3	-12.6552E-3
-3.39920E-3	-188.118E-12	722.278E-3	3.13643E-3	-185.784E-12	681.188E-3	-31.9640E-3
-3.40420E-3	-187.976E-12	720.041E-3	-12.0685E-3	-185.985E-12	672.726E-3	-38.0258E-3
-3.40920E-3	-187.882E-12	695.204E-3	-33.3403E-3	-186.805E-12	676.704E-3	-48.0347E-3
-3.41421E-3	-187.364E-12	690.064E-3	-48.1130E-3	-187.989E-12	682.998E-3	-53.9092E-3
-3.41921E-3	-186.790E-12	697.028E-3	-25.4932E-3	-187.538E-12	694.786E-3	-34.2630E-3
-3.42421E-3	-185.202E-12	673.268E-3	12.9198E-3	-186.804E-12	700.309E-3	-30.8783E-3
-3.42921E-3	-184.386E-12	650.209E-3	15.6549E-3	-186.844E-12	702.230E-3	-38.3506E-3
-3.43422E-3	-183.398E-12	670.293E-3	-7.94384E-3	-186.465E-12	710.041E-3	-9.04644E-3
-3.43922E-3	-182.496E-12	707.466E-3	-4.86911E-3	-185.405E-12	699.954E-3	9.78650E-3
-3.44422E-3	-182.661E-12	729.860E-3	12.1850E-3	-184.668E-12	668.949E-3	-9.62424E-3
-3.44922E-3	-182.627E-12	747.968E-3	15.6142E-3	-184.533E-12	658.202E-3	-21.8054E-3
-3.45423E-3	-183.223E-12	741.829E-3	15.5631E-3	-183.865E-12	680.905E-3	-32.4970E-3
-3.45923E-3	-183.795E-12	709.601E-3	11.4908E-3	-183.742E-12	699.966E-3	-52.4952E-3
-3.46423E-3	-185.743E-12	682.366E-3	7.27907E-3	-184.131E-12	709.193E-3	-45.9569E-3
-3.46923E-3	-187.097E-12	660.377E-3	-9.99938E-3	-184.318E-12	712.594E-3	-29.4530E-3
-3.47424E-3	-188.387E-12	673.501E-3	-38.5640E-3	-184.910E-12	690.062E-3	-45.7582E-3
-3.47924E-3	-189.346E-12	710.936E-3	-43.5538E-3	-184.919E-12	664.596E-3	-54.2702E-3
-3.48424E-3	-191.620E-12	709.399E-3	-29.4319E-3	-185.712E-12	680.640E-3	-26.3823E-3
-3.48924E-3	-192.178E-12	684.076E-3	-20.4824E-3	-186.445E-12	711.209E-3	-5.43964E-3
-3.49425E-3	-193.135E-12	693.320E-3	-20.1716E-3	-187.410E-12	707.216E-3	-1.62720E-3
-3.49925E-3	-193.431E-12	713.040E-3	-12.9919E-3	-187.680E-12	686.720E-3	-10.1258E-3
-3.50425E-3	-194.007E-12	716.328E-3	-3.60481E-3	-188.660E-12	680.224E-3	-19.5136E-3
-3.50925E-3	-193.031E-12	727.570E-3	-6.15780E-3	-189.777E-12	677.835E-3	-18.2020E-3
-3.51426E-3	-192.527E-12	727.680E-3	-9.41613E-3	-189.699E-12	680.523E-3	-24.0846E-3
-3.51926E-3	-191.756E-12	709.015E-3	-23.2982E-3	-190.371E-12	698.439E-3	-20.3419E-3
-3.52426E-3	-190.590E-12	716.397E-3	-40.4630E-3	-190.457E-12	718.740E-3	-1.04179E-3
-3.52926E-3	-188.748E-12	723.361E-3	-35.7931E-3	-191.213E-12	734.938E-3	12.3736E-3
-3.53427E-3	-187.906E-12	697.592E-3	-4.01045E-3	-190.918E-12	711.597E-3	984.758E-6
-3.53927E-3	-186.736E-12	690.881E-3	17.5903E-3	-191.884E-12	663.990E-3	-16.1195E-3
-3.54427E-3	-185.550E-12	685.523E-3	15.5189E-3	-191.331E-12	668.414E-3	-29.2486E-3
-3.54927E-3	-184.962E-12	661.097E-3	559.065E-6	-191.648E-12	691.070E-3	-66.4253E-3
-3.55428E-3	-185.877E-12	661.919E-3	-11.0915E-3	-191.131E-12	677.859E-3	-81.0195E-3
-3.55928E-3	-186.276E-12	670.105E-3	-10.5394E-3	-190.452E-12	671.751E-3	-67.4269E-3
-3.56428E-3	-186.849E-12	649.077E-3	-27.9838E-3	-189.588E-12	683.628E-3	-59.1276E-3
-3.56928E-3	-187.918E-12	649.191E-3	-39.7062E-3	-189.386E-12	665.443E-3	-33.8300E-3
-3.57429E-3	-189.384E-12	674.130E-3	-21.5995E-3	-188.560E-12	648.367E-3	-4.31906E-3
-3.57929E-3	-190.732E-12	664.196E-3	4.99916E-3	-188.638E-12	672.636E-3	-8.44497E-3
-3.58429E-3	-191.928E-12	669.718E-3	1.21795E-3	-189.027E-12	688.819E-3	-12.5830E-3
-3.58929E-3	-192.207E-12	693.020E-3	-19.0536E-3	-189.241E-12	685.640E-3	-360.439E-6
-3.59430E-3	-194.005E-12	676.612E-3	-21.6080E-3	-189.855E-12	690.328E-3	-16.7789E-3
-3.59930E-3	-193.963E-12	665.142E-3	-9.94489E-3	-190.392E-12	710.604E-3	-29.3853E-3
-3.60430E-3	-194.622E-12	673.224E-3	3.65746E-3	-191.834E-12	730.925E-3	4.11048E-3
-3.60930E-3	-194.923E-12	673.657E-3	-1.65167E-3	-192.543E-12	722.205E-3	30.4077E-3
-3.61431E-3	-195.373E-12	679.486E-3	-12.3369E-3	-193.658E-12	726.029E-3	17.5506E-3
-3.61931E-3	-194.422E-12	694.673E-3	-20.0159E-3	-194.784E-12	743.790E-3	6.76917E-3
-3.62431E-3	-194.899E-12	693.110E-3	-30.5975E-3	-196.377E-12	726.790E-3	12.8832E-3
-3.62931E-3	-193.837E-12	688.478E-3	-31.7893E-3	-197.073E-12	700.669E-3	10.5588E-3
-3.63432E-3	-192.453E-12	701.524E-3	-32.0209E-3	-198.656E-12	679.927E-3	-7.98465E-3
-3.63932E-3	-192.352E-12	697.982E-3	-36.2936E-3	-199.152E-12	677.421E-3	-17.2908E-3
-3.64432E-3	-191.609E-12	675.454E-3	-32.6283E-3	-199.025E-12	708.603E-3	-3.95971E-3
-3.64932E-3	-191.385E-12	689.522E-3	-24.3026E-3	-198.723E-12	728.425E-3	14.8132E-3
-3.65433E-3	-191.662E-12	715.905E-3	-34.9860E-3	-199.294E-12	731.042E-3	4.94996E-3
-3.65933E-3	-191.879E-12	709.188E-3	-56.9099E-3	-198.601E-12	725.023E-3	-32.0877E-3
-3.66433E-3	-192.987E-12	706.941E-3	-58.9028E-3	-198.231E-12	708.240E-3	-35.8634E-3
-3.66933E-3	-193.730E-12	699.953E-3	-26.5248E-3	-196.828E-12	696.807E-3	-19.3166E-3
-3.67434E-3	-194.339E-12	660.844E-3	8.48962E-3	-196.448E-12	700.157E-3	-17.0883E-3
-3.67934E-3	-195.330E-12	641.141E-3	-3.62001E-3	-195.761E-12	703.497E-3	-6.11559E-3
-3.68434E-3	-196.808E-12	658.424E-3	-29.1686E-3	-194.730E-12	687.353E-3	-12.2676E-3
-3.68934E-3	-198.927E-12	671.152E-3	-34.0467E-3	-194.600E-12	688.172E-3	-28.3059E-3
-3.69435E-3	-199.382E-12	673.351E-3	-43.6845E-3	-194.547E-12	695.510E-3	-21.2002E-3
-3.69935E-3	-201.371E-12	675.157E-3	-36.8903E-3	-194.799E-12	688.632E-3	-17.2896E-3
-3.70435E-3	-202.481E-12	694.355E-3	-12.2815E-3	-195.782E-12	680.770E-3	-33.2831E-3
-3.70935E-3	-202.699E-12	716.206E-3	-1.27074E-3	-196.891E-12	689.039E-3	-45.4956E-3
-3.71436E-3	-203.263E-12	710.528E-3	8.22783E-3	-198.688E-12	725.242E-3	-11.1259E-3
-3.71936E-3	-203.253E-12	684.647E-3	-1.76451E-3	-199.555E-12	737.771E-3	17.1663E-3
-3.72436E-3	-203.193E-12	672.550E-3	-32.5031E-3	-200.812E-12	716.567E-3	11.3639E-3
-3.72936E-3	-201.709E-12	693.007E-3	-31.0287E-3	-201.754E-12	690.698E-3	13.3583E-3
-3.73437E-3	-201.047E-12	718.485E-3	-10.8490E-3	-202.107E-12	672.906E-3	-6.00056E-3
-3.73937E-3	-199.957E-12	714.235E-3	-21.9616E-3	-202.287E-12	659.851E-3	-34.7522E-3
-3.74437E-3	-198.420E-12	698.898E-3	-29.9538E-3	-202.367E-12	667.849E-3	-37.8302E-3
-3.74937E-3	-196.999E-12	709.918E-3	-7.90962E-3	-202.088E-12	695.950E-3	-16.2408E-3
-3.75438E-3	-196.614E-12	722.248E-3	-3.81039E-3	-200.731E-12	691.845E-3	1.63637E-3
-3.75938E-3	-195.902E-12	709.127E-3	1.70287E-3	-201.247E-12	678.191E-3	-4.84857E-3
-3.76438E-3	-195.557E-12	681.090E-3	16.9973E-3	-200.230E-12	675.692E-3	-32.7088E-3
-3.76938E-3	-196.030E-12	672.294E-3	3.19283E-3	-199.242E-12	655.541E-3	-62.7138E-3
-3.77439E-3	-196.829E-12	672.383E-3	8.86428E-3	-198.508E-12	648.876E-3	-70.1269E-3
-3.77939E-3	-198.003E-12	654.268E-3	29.0175E-3	-198.858E-12	677.563E-3	-84.2180E-3
-3.78439E-3	-199.052E-12	645.501E-3	4.52557E-3	-198.343E-12	681.352E-3	-85.4340E-3
-3.78939E-3	-200.678E-12	672.981E-3	-15.4196E-3	-198.887E-12	661.955E-3	-32.3329E-3
-3.79440E-3	-202.030E-12	708.309E-3	-2.31614E-3	-199.243E-12	669.660E-3	-1.58077E-3
-3.79940E-3	-203.869E-12	704.433E-3	2.04260E-3	-200.213E-12	671.009E-3	-30.9005E-3
-3.80440E-3	-204.789E-12	669.365E-3	-13.6859E-3	-201.180E-12	663.423E-3	-63.2019E-3
-3.80940E-3	-206.508E-12	659.790E-3	-13.5753E-3	-202.135E-12	675.435E-3	-80.5936E-3
-3.81441E-3	-207.694E-12	683.326E-3	4.49704E-3	-203.486E-12	667.620E-3	-77.5912E-3
-3.81941E-3	-208.598E-12	707.733E-3	4.33238E-3	-204.981E-12	655.881E-3	-51.2822E-3
-3.82441E-3	-208.946E-12	712.729E-3	1.11526E-3	-205.776E-12	669.239E-3	-15.3341E-3
-3.82941E-3	-209.440E-12	703.665E-3	-9.24744E-3	-206.015E-12	672.357E-3	1.36320E-3
-3.83442E-3	-208.588E-12	697.176E-3	-17.5040E-3	-205.971E-12	681.867E-3	-11.5398E-3
-3.83942E-3	-207.467E-12	685.103E-3	-6.11121E-3	-207.039E-12	715.802E-3	-39.6434E-3
-3.84442E-3	-206.264E-12	694.820E-3	-14.9906E-3	-206.142E-12	715.928E-3	-48.5782E-3
-3.84942E-3	-205.373E-12	715.636E-3	-20.0800E-3	-206.041E-12	662.228E-3	-16.7869E-3
-3.85443E-3	-203.505E-12	691.562E-3	-16.3258E-3	-205.875E-12	634.744E-3	13.5026E-3
-3.85943E-3	-202.092E-12	668.126E-3	-24.1622E-3	-205.383E-12	646.061E-3	14.9542E-3
-3.86443E-3	-201.178E-12	686.089E-3	-12.9262E-3	-204.399E-12	647.847E-3	19.6896E-3
-3.86943E-3	-201.057E-12	679.945E-3	-8.76372E-3	-204.507E-12	655.386E-3	8.89168E-3
-3.87444E-3	-200.247E-12	645.532E-3	-34.8808E-3	-204.471E-12	658.337E-3	-39.5516E-3
-3.87944E-3	-201.523E-12	645.530E-3	-43.6483E-3	-203.551E-12	659.041E-3	-43.6904E-3
-3.88444E-3	-202.348E-12	665.118E-3	-28.3552E-3	-203.699E-12	673.351E-3	2.06798E-3
-3.88944E-3	-203.562E-12	663.817E-3	-14.3655E-3	-203.606E-12	660.069E-3	-516.497E-6
-3.89445E-3	-204.863E-12	663.217E-3	-4.18192E-3	-203.628E-12	620.873E-3	-4.68948E-3
-3.89945E-3	-206.683E-12	685.422E-3	1.03469E-3	-204.485E-12	610.163E-3	18.1304E-3
-3.90445E-3	-207.765E-12	694.500E-3	-21.9231E-3	-205.782E-12	631.438E-3	-24.2328E-3
-3.90945E-3	-209.816E-12	694.974E-3	-56.4143E-3	-206.117E-12	657.930E-3	-64.5522E-3
-3.91446E-3	-210.905E-12	704.180E-3	-32.2897E-3	-206.874E-12	684.616E-3	-54.9717E-3
-3.91946E-3	-212.183E-12	706.325E-3	7.39135E-3	-208.069E-12	691.914E-3	-50.6811E-3
-3.92446E-3	-212.716E-12	713.772E-3	-6.78762E-3	-207.749E-12	679.413E-3	-36.4888E-3
-3.92946E-3	-212.664E-12	708.222E-3	-40.4702E-3	-207.766E-12	679.878E-3	-6.48053E-3
-3.93447E-3	-211.903E-12	677.581E-3	-70.8216E-3	-208.941E-12	679.837E-3	1.05263E-3
-3.93947E-3	-211.409E-12	663.591E-3	-76.9864E-3	-208.504E-12	670.294E-3	-21.8332E-3
-3.94447E-3	-210.006E-12	673.933E-3	-47.9229E-3	-208.926E-12	677.701E-3	-30.6423E-3
-3.94947E-3	-208.353E-12	685.963E-3	-25.7884E-3	-209.897E-12	691.559E-3	-22.7293E-3
-3.95448E-3	-207.103E-12	701.255E-3	-25.1644E-3	-209.497E-12	689.479E-3	-17.7377E-3
-3.95948E-3	-206.488E-12	703.823E-3	-21.9379E-3	-209.739E-12	676.020E-3	-11.8191E-3
-3.96448E-3	-204.634E-12	677.372E-3	-21.8267E-3	-210.408E-12	673.394E-3	-4.00081E-3
-3.96948E-3	-203.889E-12	656.794E-3	-24.7405E-3	-209.995E-12	681.500E-3	-6.00044E-3
-3.97449E-3	-203.889E-12	670.711E-3	-21.2462E-3	-209.746E-12	679.269E-3	-14.7529E-3
-3.97949E-3	-203.778E-12	693.290E-3	-15.3897E-3	-210.509E-12	682.798E-3	-21.8460E-3
-3.98449E-3	-204.965E-12	682.895E-3	-6.79474E-3	-210.556E-12	691.138E-3	-14.8139E-3
-3.98949E-3	-205.773E-12	656.497E-3	7.77462E-3	-210.262E-12	688.500E-3	18.7507E-3
-3.99450E-3	-207.766E-12	648.182E-3	23.1430E-3	-210.700E-12	679.165E-3	40.1986E-3
-3.99950E-3	-209.113E-12	652.766E-3	12.1752E-3	-211.193E-12	656.185E-3	27.3558E-3
-4.00450E-3	-211.333E-12	678.153E-3	-9.34064E-3	-211.854E-12	658.923E-3	27.4436E-3
-4.00950E-3	-214.355E-12	695.008E-3	-13.5457E-3	-211.695E-12	706.969E-3	32.3624E-3
-4.01451E-3	-215.695E-12	687.154E-3	-32.3288E-3	-211.272E-12	716.784E-3	-1.35466E-3
-4.01951E-3	-217.077E-12	693.183E-3	-53.2924E-3	-211.564E-12	667.122E-3	-34.9092E-3
-4.02451E-3	-218.501E-12	697.854E-3	-46.2147E-3	-211.901E-12	640.226E-3	-37.6978E-3
-4.02951E-3	-219.513E-12	686.752E-3	-28.6484E-3	-210.923E-12	672.231E-3	-18.7467E-3
-4.03452E-3	-219.830E-12	685.622E-3	-15.1541E-3	-211.764E-12	700.149E-3	-10.9150E-3
-4.03952E-3	-219.591E-12	708.194E-3	-8.38386E-3	-213.092E-12	702.189E-3	-53.2734E-3
-4.04452E-3	-218.070E-12	731.936E-3	-7.51814E-3	-213.704E-12	697.175E-3	-99.3297E-3
-4.04952E-3	-217.060E-12	727.807E-3	-14.5670E-3	-213.338E-12	674.299E-3	-79.0340E-3
-4.05453E-3	-215.791E-12	712.649E-3	1.11578E-3	-214.819E-12	683.392E-3	-27.0584E-3
-4.05953E-3	-213.883E-12	695.067E-3	33.8565E-3	-215.209E-12	720.882E-3	3.43008E-3
-4.06453E-3	-212.765E-12	674.966E-3	35.0499E-3	-215.163E-12	717.623E-3	17.0223E-3
-4.06953E-3	-211.871E-12	673.677E-3	8.50430E-3	-215.782E-12	698.252E-3	5.88682E-3
-4.07454E-3	-210.208E-12	665.940E-3	-14.3056E-3	-216.645E-12	692.302E-3	-30.4354E-3
-4.07954E-3	-210.031E-12	657.812E-3	-29.3152E-3	-215.975E-12	675.955E-3	-46.2550E-3
-4.08454E-3	-210.209E-12	679.016E-3	-21.2421E-3	-216.360E-12	660.924E-3	-24.1156E-3
-4.08954E-3	-211.207E-12	679.150E-3	-1.55481E-3	-217.035E-12	665.591E-3	-906.075E-6
-4.09455E-3	-212.070E-12	661.304E-3	-18.7405E-3	-215.864E-12	650.247E-3	-14.7397E-3
-4.09955E-3	-214.233E-12	667.431E-3	-48.5693E-3	-215.757E-12	615.972E-3	-19.7440E-3
-4.10455E-3	-215.976E-12	678.109E-3	-50.7726E-3	-216.911E-12	614.101E-3	-5.70515E-3
-4.10955E-3	-216.217E-12	686.429E-3	-36.2965E-3	-215.217E-12	646.861E-3	-26.6264E-3
-4.11456E-3	-218.824E-12	692.361E-3	-15.1492E-3	-215.172E-12	679.768E-3	-27.4642E-3
-4.11956E-3	-220.432E-12	657.461E-3	-11.5103E-3	-215.637E-12	687.984E-3	6.30132E-3
-4.12456E-3	-221.064E-12	629.177E-3	-41.3788E-3	-216.029E-12	657.083E-3	3.32160E-3
-4.12956E-3	-221.543E-12	682.237E-3	-57.2233E-3	-216.296E-12	625.867E-3	-28.8535E-3
-4.13457E-3	-222.293E-12	735.093E-3	-39.3029E-3	-217.407E-12	641.472E-3	-47.9693E-3
-4.13957E-3	-222.459E-12	715.847E-3	-29.9628E-3	-217.514E-12	679.142E-3	-25.3181E-3
-4.14457E-3	-221.784E-12	693.278E-3	-30.9182E-3	-218.208E-12	706.911E-3	17.3898E-3
-4.14957E-3	-221.405E-12	693.069E-3	-18.8579E-3	-219.545E-12	704.534E-3	1.26189E-3
-4.15458E-3	-219.773E-12	686.860E-3	-15.4269E-3	-219.374E-12	684.930E-3	-46.0909E-3
-4.15958E-3	-218.205E-12	682.191E-3	-3.25002E-3	-219.662E-12	671.113E-3	-47.5173E-3
-4.16458E-3	-217.256E-12	682.294E-3	33.2630E-3	-220.711E-12	657.752E-3	-34.8897E-3
-4.16958E-3	-215.547E-12	685.347E-3	37.5018E-3	-219.493E-12	641.672E-3	-33.5312E-3
-4.17459E-3	-214.810E-12	681.002E-3	10.8222E-3	-218.649E-12	637.061E-3	-16.8641E-3
-4.17959E-3	-213.751E-12	675.518E-3	-617.640E-6	-220.387E-12	651.045E-3	-2.05286E-3
-4.18459E-3	-213.763E-12	678.016E-3	-10.7662E-3	-218.873E-12	662.407E-3	-15.8399E-3
-4.18959E-3	-213.407E-12	677.848E-3	-17.3461E-3	-217.541E-12	666.646E-3	-38.8884E-3
-4.19460E-3	-213.612E-12	666.849E-3	-13.7620E-3	-218.168E-12	657.308E-3	-55.3430E-3
-4.19960E-3	-213.972E-12	653.903E-3	-10.4867E-3	-218.317E-12	653.249E-3	-67.0215E-3
-4.20460E-3	-215.077E-12	663.348E-3	11.9029E-3	-217.618E-12	661.145E-3	-58.1913E-3
-4.20960E-3	-216.356E-12	671.808E-3	16.1297E-3	-218.144E-12	671.265E-3	-41.4380E-3
-4.21461E-3	-217.742E-12	670.261E-3	-19.9959E-3	-218.793E-12	695.032E-3	-32.0954E-3
-4.21961E-3	-219.438E-12	686.313E-3	-29.3485E-3	-219.268E-12	690.341E-3	-25.3772E-3
-4.22461E-3	-221.137E-12	685.099E-3	-6.32146E-3	-219.952E-12	677.512E-3	-17.9277E-3
-4.22961E-3	-223.102E-12	670.768E-3	-20.5427E-3	-221.670E-12	684.890E-3	-25.9905E-3
-4.23462E-3	-224.375E-12	660.228E-3	-54.9687E-3	-223.002E-12	681.641E-3	-48.0263E-3
-4.23962E-3	-225.463E-12	657.828E-3	-44.0017E-3	-224.434E-12	690.541E-3	-45.2438E-3
-4.24462E-3	-227.550E-12	676.276E-3	-35.7490E-3	-225.725E-12	711.153E-3	-28.9814E-3
-4.24962E-3	-227.602E-12	701.330E-3	-55.0909E-3	-226.610E-12	690.633E-3	-13.1702E-3
-4.25463E-3	-227.373E-12	702.749E-3	-43.6278E-3	-226.934E-12	662.561E-3	-6.71023E-3
-4.25963E-3	-227.188E-12	689.826E-3	-13.0923E-3	-227.859E-12	691.528E-3	-8.84613E-3
-4.26463E-3	-228.028E-12	712.203E-3	-3.17050E-3	-226.994E-12	716.959E-3	5.44080E-3
-4.26963E-3	-226.398E-12	735.598E-3	-14.9259E-3	-227.041E-12	689.741E-3	20.1393E-3
-4.27464E-3	-224.875E-12	737.617E-3	-37.2423E-3	-226.956E-12	659.109E-3	20.3591E-3
-4.27964E-3	-224.046E-12	738.564E-3	-51.8236E-3	-225.215E-12	651.369E-3	-2.84702E-3
-4.28464E-3	-222.874E-12	728.331E-3	-28.2713E-3	-224.246E-12	655.005E-3	-38.1358E-3
-4.28964E-3	-221.147E-12	696.527E-3	11.5861E-3	-223.925E-12	669.531E-3	-54.0080E-3
-4.29465E-3	-220.750E-12	666.119E-3	8.43021E-3	-222.650E-12	683.751E-3	-41.5913E-3
-4.29965E-3	-220.874E-12	670.572E-3	-3.61396E-3	-222.110E-12	694.259E-3	-14.3017E-3
-4.30465E-3	-221.022E-12	677.466E-3	-5.49959E-3	-221.916E-12	695.652E-3	-11.4909E-3
-4.30965E-3	-221.121E-12	673.338E-3	-20.3702E-3	-221.780E-12	683.583E-3	-29.4181E-3
-4.31466E-3	-222.491E-12	685.641E-3	-5.27987E-3	-221.372E-12	684.623E-3	-45.5948E-3
-4.31966E-3	-223.963E-12	689.810E-3	11.6277E-3	-222.259E-12	686.836E-3	-46.1129E-3
-4.32466E-3	-225.953E-12	671.904E-3	-10.8617E-3	-223.001E-12	651.413E-3	-36.3246E-3
-4.32966E-3	-226.894E-12	651.541E-3	-20.3367E-3	-223.339E-12	633.818E-3	-19.7976E-3
-4.33467E-3	-229.276E-12	634.868E-3	-18.5716E-3	-224.918E-12	674.696E-3	-3.02624E-3
-4.33967E-3	-231.405E-12	637.445E-3	-30.0503E-3	-225.970E-12	701.492E-3	-9.59842E-3
-4.34467E-3	-232.767E-12	668.683E-3	-20.8239E-3	-226.883E-12	701.175E-3	-23.4009E-3
-4.34967E-3	-233.752E-12	705.846E-3	1.28055E-3	-228.082E-12	687.774E-3	-14.3181E-3
-4.35468E-3	-234.907E-12	718.669E-3	-7.48997E-3	-229.281E-12	672.128E-3	2.76179E-3
-4.35968E-3	-234.862E-12	708.177E-3	-24.4602E-3	-229.589E-12	674.187E-3	20.8776E-3
-4.36468E-3	-234.887E-12	707.826E-3	-8.90622E-3	-229.619E-12	682.142E-3	19.5319E-3
-4.36968E-3	-233.521E-12	719.887E-3	652.039E-6	-229.371E-12	684.798E-3	-12.3542E-3
-4.37469E-3	-232.263E-12	741.447E-3	-7.45264E-3	-229.100E-12	667.148E-3	-1.74316E-3
-4.37969E-3	-229.395E-12	749.195E-3	-750.914E-6	-228.938E-12	654.099E-3	28.5057E-3
-4.38469E-3	-227.685E-12	705.040E-3	-11.4564E-3	-226.956E-12	655.392E-3	29.3538E-3
-4.38969E-3	-225.842E-12	667.750E-3	-43.3680E-3	-226.829E-12	656.636E-3	14.0583E-3
-4.39470E-3	-224.497E-12	667.172E-3	-42.7985E-3	-226.595E-12	680.069E-3	1.03377E-3
-4.39970E-3	-222.916E-12	678.470E-3	-26.8515E-3	-226.261E-12	703.430E-3	-6.73942E-3
-4.40470E-3	-222.771E-12	697.148E-3	-24.3514E-3	-226.749E-12	685.340E-3	-34.2860E-3
-4.40970E-3	-222.748E-12	709.734E-3	-5.84463E-3	-227.471E-12	654.901E-3	-50.7359E-3
-4.41471E-3	-223.355E-12	708.276E-3	6.59175E-3	-227.485E-12	655.235E-3	-31.3625E-3
-4.41971E-3	-224.479E-12	699.832E-3	-13.1137E-3	-227.768E-12	662.479E-3	-2.19601E-3
-4.42471E-3	-226.529E-12	704.721E-3	-26.5437E-3	-228.116E-12	649.734E-3	9.52979E-3
-4.42971E-3	-228.074E-12	701.880E-3	-19.6103E-3	-229.094E-12	653.869E-3	12.7293E-3
-4.43472E-3	-230.214E-12	689.308E-3	-31.5657E-3	-230.256E-12	679.321E-3	21.7495E-3
-4.43972E-3	-232.352E-12	688.477E-3	-61.0913E-3	-231.044E-12	703.661E-3	15.8856E-3
-4.44472E-3	-234.657E-12	681.234E-3	-56.7524E-3	-231.605E-12	704.936E-3	-1.37576E-3
-4.44972E-3	-237.006E-12	666.238E-3	-27.8139E-3	-233.394E-12	687.002E-3	5.34750E-3
-4.45473E-3	-237.769E-12	660.799E-3	-7.29931E-3	-234.861E-12	693.444E-3	30.3866E-3
-4.45973E-3	-238.502E-12	655.643E-3	-11.2176E-3	-234.734E-12	707.764E-3	26.2593E-3
-4.46473E-3	-239.475E-12	661.150E-3	-35.7816E-3	-234.466E-12	712.394E-3	-4.11602E-3
-4.46973E-3	-238.670E-12	690.973E-3	-30.1291E-3	-235.233E-12	711.950E-3	-19.7490E-3
-4.47474E-3	-238.117E-12	701.814E-3	-1.49364E-3	-235.361E-12	687.246E-3	-22.0950E-3
-4.47974E-3	-236.411E-12	683.342E-3	2.68400E-3	-235.584E-12	670.490E-3	-29.5353E-3
-4.48474E-3	-235.390E-12	685.881E-3	4.21784E-3	-234.861E-12	678.271E-3	-36.2766E-3
-4.48974E-3	-232.812E-12	692.508E-3	8.34059E-3	-235.860E-12	677.654E-3	-32.7526E-3
-4.49475E-3	-231.665E-12	665.108E-3	2.88912E-3	-236.426E-12	667.240E-3	-19.8141E-3
-4.49975E-3	-230.332E-12	653.687E-3	6.70880E-3	-236.099E-12	661.126E-3	-25.5490E-3
-4.50475E-3	-229.989E-12	682.755E-3	10.8814E-3	-236.128E-12	655.556E-3	-41.8552E-3
-4.50975E-3	-229.371E-12	700.026E-3	-6.88905E-3	-235.935E-12	647.517E-3	-19.5438E-3
-4.51476E-3	-229.776E-12	666.138E-3	-12.9168E-3	-234.403E-12	661.651E-3	8.63748E-3
-4.51976E-3	-230.059E-12	622.677E-3	-8.87651E-3	-233.819E-12	676.659E-3	8.96513E-3
-4.52476E-3	-230.716E-12	636.455E-3	-27.0454E-3	-234.624E-12	666.970E-3	-9.78374E-3
-4.52976E-3	-231.783E-12	663.905E-3	-39.5148E-3	-234.051E-12	650.233E-3	-30.2498E-3
-4.53477E-3	-233.071E-12	634.612E-3	-35.3606E-3	-233.530E-12	631.027E-3	-16.0072E-3
-4.53977E-3	-233.869E-12	597.850E-3	-41.5552E-3	-234.818E-12	629.623E-3	-764.674E-6
-4.54477E-3	-235.656E-12	630.269E-3	-58.7992E-3	-235.853E-12	649.424E-3	-21.5323E-3
-4.54977E-3	-237.783E-12	670.864E-3	-59.3883E-3	-236.015E-12	649.979E-3	-16.2398E-3
-4.55478E-3	-237.490E-12	654.341E-3	-34.4742E-3	-237.019E-12	660.391E-3	8.75940E-3
-4.55978E-3	-238.182E-12	650.950E-3	-29.0221E-3	-238.085E-12	701.580E-3	-973.179E-6
-4.56478E-3	-239.517E-12	686.329E-3	-34.8873E-3	-238.341E-12	711.213E-3	-10.9098E-3
-4.56978E-3	-239.127E-12	700.107E-3	-25.9714E-3	-239.317E-12	692.675E-3	-10.4645E-3
-4.57479E-3	-238.609E-12	671.444E-3	-30.1356E-3	-240.493E-12	695.058E-3	-27.3257E-3
-4.57979E-3	-239.016E-12	656.517E-3	-34.5057E-3	-240.954E-12	712.387E-3	-25.5638E-3
-4.58479E-3	-238.165E-12	677.386E-3	-22.7847E-3	-241.393E-12	708.931E-3	-14.3700E-3
-4.58979E-3	-237.325E-12	675.949E-3	-7.39738E-3	-240.850E-12	710.376E-3	-12.1447E-3
-4.59480E-3	-237.196E-12	665.663E-3	-5.94932E-3	-240.884E-12	728.707E-3	-31.8825E-3
-4.59980E-3	-236.742E-12	688.928E-3	-7.01658E-3	-240.333E-12	731.147E-3	-57.9058E-3
-4.60480E-3	-237.088E-12	707.746E-3	-3.59052E-3	-239.373E-12	704.398E-3	-32.5054E-3
-4.60980E-3	-236.666E-12	706.280E-3	-11.2876E-3	-238.987E-12	665.278E-3	-14.3152E-3
-4.61481E-3	-236.363E-12	709.549E-3	-3.45404E-3	-237.893E-12	644.412E-3	-41.3728E-3
-4.61981E-3	-237.094E-12	713.139E-3	18.3855E-3	-237.317E-12	650.973E-3	-40.4354E-3
-4.62481E-3	-237.211E-12	704.415E-3	20.4996E-3	-237.073E-12	674.534E-3	-22.3478E-3
-4.62981E-3	-237.752E-12	685.130E-3	13.5639E-3	-236.866E-12	675.299E-3	-40.1341E-3
-4.63482E-3	-238.345E-12	676.058E-3	12.4963E-3	-236.218E-12	671.906E-3	-46.3989E-3
-4.63982E-3	-240.546E-12	704.935E-3	13.4404E-3	-237.003E-12	678.641E-3	-18.3423E-3
-4.64482E-3	-240.839E-12	725.577E-3	-28.4423E-3	-236.339E-12	661.397E-3	-8.11393E-3
-4.64982E-3	-242.013E-12	711.386E-3	-67.2012E-3	-236.415E-12	668.147E-3	-14.0740E-3
-4.65483E-3	-243.053E-12	698.006E-3	-36.6817E-3	-238.496E-12	728.890E-3	-3.20839E-3
-4.65983E-3	-244.294E-12	680.319E-3	-12.0723E-3	-238.880E-12	761.925E-3	12.7585E-3
-4.66483E-3	-245.008E-12	678.604E-3	-12.1409E-3	-240.893E-12	727.522E-3	10.5068E-3
-4.66983E-3	-247.265E-12	714.195E-3	-12.3227E-3	-243.169E-12	691.889E-3	-21.5100E-3
-4.67484E-3	-245.974E-12	734.498E-3	-22.1205E-3	-243.702E-12	693.145E-3	-47.3736E-3
-4.67984E-3	-246.968E-12	708.669E-3	-42.5574E-3	-245.120E-12	684.898E-3	-38.6705E-3
-4.68484E-3	-247.560E-12	687.535E-3	-36.4400E-3	-247.000E-12	658.036E-3	-34.3423E-3
-4.68984E-3	-247.092E-12	681.318E-3	-3.49880E-3	-248.097E-12	644.605E-3	-41.8021E-3
-4.69485E-3	-245.001E-12	674.441E-3	10.3372E-3	-247.315E-12	643.652E-3	-42.5963E-3
-4.69985E-3	-245.429E-12	680.697E-3	9.32218E-3	-247.384E-12	647.832E-3	-24.0946E-3
-4.70485E-3	-243.663E-12	690.141E-3	-17.2946E-3	-247.279E-12	647.913E-3	-21.2879E-3
-4.70985E-3	-242.408E-12	677.610E-3	-23.3272E-3	-246.468E-12	648.341E-3	-35.2456E-3
-4.71486E-3	-242.935E-12	667.376E-3	18.7962E-3	-244.576E-12	661.532E-3	-19.5260E-3
-4.71986E-3	-241.979E-12	669.235E-3	36.9793E-3	-243.954E-12	664.900E-3	-23.3559E-3
-4.72486E-3	-240.896E-12	646.095E-3	24.9606E-3	-242.378E-12	650.420E-3	-62.3741E-3
-4.72986E-3	-241.743E-12	645.299E-3	11.5611E-3	-240.686E-12	657.578E-3	-63.7639E-3
-4.73487E-3	-242.692E-12	674.103E-3	9.16119E-3	-240.147E-12	689.527E-3	-14.0362E-3
-4.73987E-3	-242.270E-12	674.820E-3	8.79903E-3	-240.003E-12	680.595E-3	21.0712E-3
-4.74487E-3	-242.264E-12	675.383E-3	-27.5674E-3	-238.727E-12	660.916E-3	-88.8844E-6
-4.74988E-3	-244.246E-12	678.911E-3	-63.3832E-3	-239.478E-12	683.472E-3	-36.1687E-3
-4.75488E-3	-245.986E-12	674.787E-3	-44.7689E-3	-240.429E-12	692.707E-3	-38.2769E-3
-4.75988E-3	-246.535E-12	695.858E-3	-15.2393E-3	-242.172E-12	690.172E-3	-18.9853E-3
-4.76488E-3	-248.430E-12	734.129E-3	-12.8071E-3	-242.831E-12	686.672E-3	-23.4135E-3
-4.76988E-3	-249.115E-12	744.569E-3	705.759E-6	-244.423E-12	666.804E-3	-31.2864E-3
-4.77489E-3	-249.288E-12	695.937E-3	34.0843E-3	-246.951E-12	655.418E-3	-4.25202E-3
-4.77989E-3	-250.100E-12	641.420E-3	16.6725E-3	-248.679E-12	673.036E-3	-3.59042E-3
-4.78489E-3	-249.734E-12	648.286E-3	-36.2042E-3	-249.581E-12	709.814E-3	-21.2105E-3
-4.78989E-3	-249.391E-12	677.146E-3	-62.1495E-3	-249.974E-12	725.605E-3	-7.57505E-3
-4.79490E-3	-248.921E-12	679.291E-3	-61.0900E-3	-251.615E-12	714.991E-3	2.62576E-3
-4.79990E-3	-247.863E-12	689.191E-3	-30.3466E-3	-251.791E-12	714.645E-3	322.963E-6
-4.80490E-3	-246.326E-12	703.869E-3	3.29121E-3	-250.984E-12	710.174E-3	-10.2019E-3
-4.80990E-3	-245.231E-12	696.904E-3	14.8207E-3	-250.201E-12	695.707E-3	-31.5356E-3
-4.81491E-3	-243.920E-12	698.662E-3	2.51045E-3	-250.259E-12	695.145E-3	-46.5751E-3
-4.81991E-3	-242.797E-12	709.945E-3	-14.4388E-3	-248.851E-12	681.275E-3	-20.7795E-3
-4.82491E-3	-241.856E-12	700.460E-3	-16.7107E-3	-247.767E-12	666.304E-3	18.2041E-3
-4.82991E-3	-241.953E-12	676.024E-3	-25.0813E-3	-246.803E-12	675.143E-3	5.61801E-3
-4.83492E-3	-241.992E-12	665.013E-3	-29.9228E-3	-246.280E-12	672.598E-3	-11.4416E-3
-4.83992E-3	-242.799E-12	671.153E-3	-30.2897E-3	-245.559E-12	666.609E-3	-10.7541E-3
-4.84492E-3	-244.843E-12	674.700E-3	-35.3968E-3	-246.189E-12	687.150E-3	-26.4905E-3
-4.84992E-3	-246.464E-12	691.425E-3	-34.2580E-3	-246.060E-12	687.651E-3	-36.3716E-3
-4.85493E-3	-248.015E-12	714.050E-3	-35.5952E-3	-246.372E-12	651.468E-3	-30.1093E-3
-4.85993E-3	-250.580E-12	709.011E-3	-27.4609E-3	-247.619E-12	635.630E-3	-22.8772E-3
-4.86493E-3	-253.572E-12	692.074E-3	-37.1656E-3	-248.639E-12	641.399E-3	-19.9867E-3
-4.86993E-3	-254.053E-12	680.718E-3	-77.2457E-3	-249.231E-12	650.342E-3	-13.8945E-3
-4.87494E-3	-255.645E-12	680.310E-3	-99.0910E-3	-250.942E-12	655.062E-3	-13.0567E-3
-4.87994E-3	-257.789E-12	689.785E-3	-73.0490E-3	-252.443E-12	647.492E-3	-16.5641E-3
-4.88494E-3	-257.064E-12	690.706E-3	-33.3048E-3	-253.702E-12	649.782E-3	-22.5716E-3
-4.88995E-3	-255.913E-12	658.633E-3	-43.8642E-3	-254.858E-12	673.781E-3	-47.5038E-3
-4.89495E-3	-256.507E-12	632.947E-3	-70.5865E-3	-255.837E-12	693.290E-3	-48.3391E-3
-4.89995E-3	-255.783E-12	657.127E-3	-40.1913E-3	-255.853E-12	715.550E-3	-22.3213E-3
-4.90495E-3	-253.452E-12	674.993E-3	14.1547E-3	-256.513E-12	743.111E-3	-27.2435E-3
-4.90995E-3	-252.113E-12	674.265E-3	16.4212E-3	-256.525E-12	736.513E-3	-50.4246E-3
-4.91496E-3	-251.351E-12	670.561E-3	-18.0771E-3	-256.625E-12	682.770E-3	-59.7045E-3
-4.91996E-3	-249.947E-12	678.400E-3	-32.3768E-3	-257.135E-12	634.391E-3	-32.3569E-3
-4.92496E-3	-249.134E-12	703.842E-3	-571.551E-6	-255.977E-12	640.505E-3	-887.538E-6
-4.92996E-3	-248.917E-12	682.389E-3	9.15517E-3	-254.334E-12	653.833E-3	-3.12681E-3
-4.93497E-3	-249.111E-12	652.140E-3	-9.79192E-3	-253.661E-12	660.663E-3	786.212E-6
-4.93997E-3	-249.855E-12	646.004E-3	-3.21239E-3	-253.749E-12	682.802E-3	11.9822E-3
-4.94497E-3	-251.558E-12	653.195E-3	-2.74016E-3	-253.726E-12	689.659E-3	22.7649E-3
-4.94997E-3	-252.640E-12	688.592E-3	-17.8942E-3	-252.496E-12	685.011E-3	32.8279E-3
-4.95498E-3	-254.885E-12	703.309E-3	-11.8342E-3	-251.889E-12	678.878E-3	6.43851E-3
-4.95998E-3	-256.319E-12	695.894E-3	15.7721E-3	-251.739E-12	664.066E-3	-31.1451E-3
-4.96498E-3	-257.763E-12	677.868E-3	29.6867E-3	-251.517E-12	667.880E-3	-37.6593E-3
-4.96998E-3	-259.305E-12	680.440E-3	10.4630E-3	-251.518E-12	679.182E-3	-28.7725E-3
-4.97499E-3	-259.981E-12	709.786E-3	-22.6525E-3	-252.234E-12	683.394E-3	-31.7807E-3
-4.97999E-3	-260.582E-12	715.506E-3	-37.9954E-3	-253.050E-12	685.675E-3	-21.9818E-3
-4.98499E-3	-260.442E-12	726.131E-3	-40.5587E-3	-254.443E-12	684.743E-3	15.5653E-3
-4.98999E-3	-260.644E-12	736.142E-3	-34.3924E-3	-254.742E-12	694.149E-3	34.6524E-3
-4.99500E-3	-260.350E-12	730.860E-3	-6.25290E-3	-256.844E-12	705.433E-3	13.9041E-3
-5.00000E-3	-259.478E-12	724.122E-3	3.46277E-3	-258.025E-12	713.186E-3	-4.53641E-3
