Experiment	bias spectroscopy	
Date	19.01.2016 18:25:45	
User		
X (m)	51.1483E-9	
Y (m)	256.669E-9	
Z (m)	-132.674E-9	
Z offset (m)	0E+0	
Settling time (s)	200E-6	
Integration time (s)	5E-3	
Z-Ctrl hold	TRUE	
Final Z (m)	N/A	
Filter type	None	
Order		
Cutoff frq		
Comment01	MnPc/Pb(111)	
Comment02	dz =00pm	
Comment03	7 Sweeps	
Comment04	MagField =0.T	
Comment05	Divider 1:10	
Comment06	Setpoint:5mV,200 pA	
Comment07	Lockin: 50uVrms,5ms,5mV	
Comment08	Gain:9; 912Hz modulation	
Comment09	T=1.06K	
Bias>Bias (V)	5E-3	
Bias>Calibration (V/V)	81.475E-3	
Bias>Offset (V)	1.046E-3	
Bias Spectroscopy>Sweep Start (V)	5E-3	
Bias Spectroscopy>Sweep End (V)	-5E-3	
Bias Spectroscopy>Num Pixel	2000	
Bias Spectroscopy>Z Avg time (s)	500E-3	
Bias Spectroscopy>Z offset (m)	0E+0	
Bias Spectroscopy>1st Settling time (s)	500E-3	
Bias Spectroscopy>Settling time (s)	200E-6	
Bias Spectroscopy>Integration time (s)	5E-3	
Bias Spectroscopy>End Settling time (s)	500E-3	
Bias Spectroscopy>Z control time (s)	500E-3	
Bias Spectroscopy>Max Slew rate (V/s)	Inf	
Bias Spectroscopy>backward sweep	TRUE	
Bias Spectroscopy>Z-controller hold	TRUE	
Bias Spectroscopy>Number of sweeps	7	
Bias Spectroscopy>Channels	Current (A);X% LockIn (V);Y% LockIn (V)	
Bias Spectroscopy>Reset Bias	TRUE	
Bias Spectroscopy>Record final Z	FALSE	
Bias Spectroscopy>Lock-In run	FALSE	
Bias Spectroscopy>Sweep mode	Linear	
Bias Spectroscopy>MultiLine Settings : Segment Start (V), Segment End (V), Settling (s), Integration (s), Steps (xn)	100E-3,3.3E-3,100E-6,10E-3,2500;3.3E-3,-3.3E-3,100E-6,10E-3,10;-3.3E-3,-100E-3,100E-6,10E-3,2500	
Current>Current (A)	200.225E-12	
Current>Calibration (A/V)	999.99900E-12	
Current>Offset (A)	-455.429E-15	
Current>Gain	LN 10^9	
Z-Controller>Z (m)	-132.671E-9	
Z-Controller>Controller name	log Current	
Z-Controller>Controller status	ON	
Z-Controller>Setpoint	200E-12	
Z-Controller>Setpoint unit	A	
Z-Controller>P gain	2.96994E-12	
Z-Controller>I gain	67.0321E-9	
Z-Controller>Time const (s)	44.3062E-6	
Z-Controller>TipLift (m)	0E+0	
Z-Controller>Switch off delay (s)	50E-3	
Current (A)	200.095E-12	
Z (m)	-132.673E-9	

[DATA]
Bias calc (V)	Current (A)	X% LockIn (V)	Y% LockIn (V)	Current [bwd] (A)	X% LockIn [bwd] (V)	Y% LockIn [bwd] (V)
5.00000E-3	200.264E-12	661.761E-3	29.8237E-3	202.318E-12	659.826E-3	-18.1568E-3
4.99500E-3	199.387E-12	645.006E-3	35.1791E-3	201.245E-12	668.426E-3	-28.8391E-3
4.98999E-3	197.555E-12	637.970E-3	6.59764E-3	200.978E-12	652.140E-3	-27.4308E-3
4.98499E-3	195.916E-12	622.696E-3	10.9659E-3	200.898E-12	648.016E-3	-44.5110E-3
4.97999E-3	196.356E-12	616.527E-3	19.7464E-3	200.133E-12	681.166E-3	-47.3007E-3
4.97499E-3	195.593E-12	625.214E-3	9.80441E-3	199.565E-12	703.631E-3	-7.32892E-3
4.96998E-3	196.188E-12	628.774E-3	-9.98340E-3	199.311E-12	684.464E-3	10.9334E-3
4.96498E-3	195.910E-12	617.200E-3	-30.5949E-3	199.349E-12	649.701E-3	-10.7404E-3
4.95998E-3	198.083E-12	610.380E-3	-41.7358E-3	199.445E-12	634.078E-3	-18.1919E-3
4.95498E-3	199.186E-12	617.405E-3	-31.8243E-3	198.657E-12	618.567E-3	-14.4444E-3
4.94997E-3	200.466E-12	620.897E-3	-6.47157E-3	198.908E-12	612.802E-3	-11.0890E-3
4.94497E-3	200.464E-12	626.848E-3	7.36195E-3	199.262E-12	640.098E-3	9.48681E-3
4.93997E-3	201.552E-12	653.723E-3	22.3084E-3	198.940E-12	641.918E-3	10.7078E-3
4.93497E-3	202.019E-12	673.580E-3	13.3491E-3	198.330E-12	623.237E-3	-15.2918E-3
4.92996E-3	201.731E-12	684.260E-3	-12.0635E-3	198.338E-12	622.481E-3	-2.69357E-3
4.92496E-3	202.643E-12	689.989E-3	8.73609E-3	197.929E-12	628.109E-3	25.9590E-3
4.91996E-3	201.622E-12	681.594E-3	29.0158E-3	197.605E-12	632.981E-3	24.1595E-3
4.91496E-3	200.417E-12	680.175E-3	-226.711E-6	198.017E-12	626.202E-3	11.6094E-3
4.90995E-3	198.255E-12	691.193E-3	-30.5895E-3	197.870E-12	631.151E-3	-15.6703E-3
4.90495E-3	197.921E-12	679.054E-3	-39.5354E-3	197.163E-12	674.731E-3	-51.8637E-3
4.89995E-3	196.716E-12	654.846E-3	-26.4319E-3	197.052E-12	718.825E-3	-63.2419E-3
4.89495E-3	195.119E-12	656.181E-3	-20.0028E-3	196.620E-12	698.711E-3	-24.7071E-3
4.88995E-3	195.312E-12	668.600E-3	-27.7759E-3	196.886E-12	644.128E-3	16.9947E-3
4.88494E-3	193.910E-12	669.293E-3	-11.9452E-3	196.872E-12	635.255E-3	-2.66330E-3
4.87994E-3	194.174E-12	649.931E-3	7.98574E-3	197.156E-12	689.242E-3	-26.3420E-3
4.87494E-3	193.027E-12	651.294E-3	14.4675E-3	197.385E-12	755.539E-3	-11.7861E-3
4.86993E-3	192.603E-12	660.247E-3	19.4115E-3	197.380E-12	766.824E-3	-11.3410E-3
4.86493E-3	193.674E-12	646.662E-3	13.6399E-3	197.099E-12	727.710E-3	-31.2292E-3
4.85993E-3	194.047E-12	658.039E-3	-8.19323E-3	196.662E-12	702.630E-3	-48.5993E-3
4.85493E-3	194.773E-12	668.942E-3	-25.5060E-3	198.163E-12	712.149E-3	-50.7668E-3
4.84992E-3	194.922E-12	648.143E-3	-29.9369E-3	196.945E-12	724.076E-3	-46.7521E-3
4.84492E-3	196.081E-12	629.529E-3	-21.4230E-3	196.225E-12	697.355E-3	-28.7037E-3
4.83992E-3	195.330E-12	637.484E-3	33.6564E-6	195.151E-12	634.932E-3	-5.32392E-3
4.83492E-3	195.471E-12	661.257E-3	5.63219E-3	194.832E-12	616.404E-3	-29.5500E-3
4.82991E-3	195.294E-12	658.162E-3	-21.2084E-3	195.125E-12	636.411E-3	-65.2578E-3
4.82491E-3	195.313E-12	646.855E-3	-51.3737E-3	194.522E-12	642.523E-3	-54.7237E-3
4.81991E-3	194.882E-12	649.211E-3	-63.0320E-3	194.196E-12	653.246E-3	-9.32927E-3
4.81491E-3	195.165E-12	661.873E-3	-57.0752E-3	193.127E-12	653.842E-3	-4.27124E-3
4.80990E-3	194.638E-12	673.475E-3	-33.7949E-3	193.247E-12	632.674E-3	-37.8840E-3
4.80490E-3	193.668E-12	661.826E-3	-11.2694E-3	192.201E-12	635.654E-3	-50.9555E-3
4.79990E-3	193.436E-12	672.444E-3	3.04797E-3	192.034E-12	647.627E-3	-48.1601E-3
4.79490E-3	193.236E-12	706.141E-3	9.14789E-3	191.485E-12	635.833E-3	-22.6784E-3
4.78989E-3	191.679E-12	718.651E-3	-1.73110E-3	191.647E-12	620.885E-3	11.6683E-3
4.78489E-3	191.799E-12	705.665E-3	-13.5741E-3	191.552E-12	606.023E-3	8.19999E-3
4.77989E-3	190.210E-12	670.221E-3	-14.5483E-3	192.541E-12	623.223E-3	-13.1195E-3
4.77489E-3	189.880E-12	654.762E-3	-26.4545E-3	192.568E-12	653.098E-3	-8.40450E-3
4.76988E-3	189.156E-12	686.552E-3	-45.9533E-3	192.152E-12	650.378E-3	13.5949E-3
4.76488E-3	188.441E-12	719.563E-3	-58.0037E-3	192.638E-12	639.987E-3	10.1624E-3
4.75988E-3	188.534E-12	714.339E-3	-45.4241E-3	192.081E-12	621.767E-3	-3.18190E-3
4.75488E-3	188.090E-12	691.621E-3	-14.4465E-3	191.822E-12	616.409E-3	-13.6559E-3
4.74988E-3	188.636E-12	662.619E-3	-5.99479E-3	191.393E-12	655.219E-3	-50.4196E-3
4.74487E-3	188.611E-12	635.927E-3	-29.6699E-3	190.849E-12	699.222E-3	-59.4874E-3
4.73987E-3	188.984E-12	635.670E-3	-54.3310E-3	190.084E-12	684.654E-3	-29.1738E-3
4.73487E-3	189.009E-12	651.517E-3	-39.4792E-3	189.593E-12	645.372E-3	-23.3757E-3
4.72986E-3	189.391E-12	665.195E-3	-12.1882E-3	189.481E-12	650.328E-3	-36.9141E-3
4.72486E-3	190.552E-12	665.317E-3	6.04108E-3	187.989E-12	688.941E-3	-52.9569E-3
4.71986E-3	190.973E-12	648.699E-3	95.1279E-6	187.647E-12	712.192E-3	-52.4606E-3
4.71486E-3	192.768E-12	634.112E-3	-31.7047E-3	187.365E-12	684.812E-3	-30.2834E-3
4.70985E-3	191.906E-12	648.680E-3	-56.1985E-3	187.066E-12	669.117E-3	-12.9735E-3
4.70485E-3	192.334E-12	667.608E-3	-68.1504E-3	186.685E-12	689.775E-3	-22.6572E-3
4.69985E-3	192.247E-12	674.694E-3	-61.6231E-3	186.675E-12	689.503E-3	-38.1247E-3
4.69485E-3	191.436E-12	675.404E-3	-42.9760E-3	186.617E-12	675.896E-3	-18.0167E-3
4.68984E-3	190.036E-12	658.376E-3	-34.2668E-3	187.549E-12	678.752E-3	6.08819E-3
4.68484E-3	189.583E-12	637.559E-3	-29.2195E-3	187.370E-12	682.544E-3	2.64968E-3
4.67984E-3	187.822E-12	629.655E-3	-29.1567E-3	187.849E-12	685.373E-3	-26.6466E-3
4.67484E-3	186.293E-12	634.441E-3	-21.0199E-3	187.971E-12	700.864E-3	-29.4088E-3
4.66983E-3	184.563E-12	644.084E-3	6.45493E-3	187.292E-12	700.692E-3	12.2198E-3
4.66483E-3	183.524E-12	670.699E-3	-4.61141E-3	187.065E-12	680.771E-3	37.7440E-3
4.65983E-3	183.133E-12	693.996E-3	-39.3894E-3	187.292E-12	667.632E-3	18.3257E-3
4.65483E-3	182.212E-12	685.814E-3	-48.7805E-3	186.417E-12	669.707E-3	-16.0374E-3
4.64982E-3	181.632E-12	656.095E-3	-36.1292E-3	185.883E-12	680.997E-3	-32.6890E-3
4.64482E-3	181.573E-12	637.212E-3	-24.1087E-3	184.895E-12	699.844E-3	-39.6349E-3
4.63982E-3	181.614E-12	661.356E-3	-36.9418E-3	185.247E-12	705.623E-3	-33.6459E-3
4.63482E-3	181.910E-12	687.255E-3	-43.7520E-3	185.773E-12	693.875E-3	-24.3839E-3
4.62981E-3	182.796E-12	686.223E-3	-33.4975E-3	183.946E-12	695.440E-3	-27.1303E-3
4.62481E-3	182.405E-12	688.338E-3	-34.5397E-3	184.333E-12	699.603E-3	-20.9624E-3
4.61981E-3	184.161E-12	675.016E-3	-58.3244E-3	183.968E-12	699.634E-3	-26.4000E-3
4.61481E-3	184.682E-12	647.917E-3	-50.9656E-3	185.081E-12	690.230E-3	-28.2023E-3
4.60980E-3	185.913E-12	640.728E-3	-26.6356E-3	184.497E-12	652.716E-3	-1.68550E-3
4.60480E-3	185.218E-12	654.866E-3	-29.9691E-3	184.999E-12	622.383E-3	-5.11165E-3
4.59980E-3	186.411E-12	678.432E-3	-15.1555E-3	185.813E-12	641.585E-3	-26.2886E-3
4.59480E-3	185.152E-12	684.336E-3	-14.6304E-3	186.047E-12	699.750E-3	-6.76929E-3
4.58979E-3	185.733E-12	684.620E-3	-60.5570E-3	185.157E-12	737.485E-3	19.9552E-3
4.58479E-3	184.067E-12	691.535E-3	-72.6317E-3	185.552E-12	726.062E-3	3.27354E-3
4.57979E-3	183.562E-12	674.550E-3	-39.2764E-3	185.971E-12	709.615E-3	-43.3438E-3
4.57479E-3	181.836E-12	657.070E-3	-38.8096E-3	184.766E-12	697.439E-3	-73.7549E-3
4.56978E-3	180.539E-12	667.877E-3	-45.0260E-3	183.910E-12	686.681E-3	-56.2692E-3
4.56478E-3	179.556E-12	679.206E-3	-30.9922E-3	183.512E-12	686.964E-3	-23.0212E-3
4.55978E-3	178.045E-12	666.041E-3	-31.4287E-3	182.816E-12	685.192E-3	-16.3100E-3
4.55478E-3	177.808E-12	631.219E-3	-40.3266E-3	182.447E-12	674.997E-3	-30.9937E-3
4.54977E-3	177.009E-12	619.141E-3	-29.9464E-3	181.841E-12	651.927E-3	-46.9984E-3
4.54477E-3	178.130E-12	628.330E-3	-21.0246E-3	181.750E-12	641.170E-3	-46.9600E-3
4.53977E-3	177.784E-12	611.092E-3	-23.7675E-3	181.017E-12	667.669E-3	-27.9473E-3
4.53477E-3	178.471E-12	600.260E-3	-17.6172E-3	181.646E-12	679.248E-3	-5.56003E-3
4.52976E-3	178.428E-12	616.421E-3	-27.5861E-3	181.383E-12	652.231E-3	-11.9661E-3
4.52476E-3	179.666E-12	633.159E-3	-49.8888E-3	181.706E-12	654.626E-3	-40.0061E-3
4.51976E-3	180.723E-12	632.519E-3	-59.7891E-3	181.080E-12	676.904E-3	-46.6173E-3
4.51476E-3	181.200E-12	628.156E-3	-57.2617E-3	180.786E-12	653.876E-3	-13.0143E-3
4.50975E-3	181.604E-12	641.909E-3	-44.1528E-3	181.184E-12	619.768E-3	29.8365E-3
4.50475E-3	181.609E-12	644.359E-3	-19.6051E-3	181.440E-12	645.061E-3	15.2060E-3
4.49975E-3	182.751E-12	618.233E-3	-3.27649E-3	180.770E-12	703.330E-3	-31.0764E-3
4.49475E-3	181.707E-12	616.420E-3	-3.06373E-3	180.003E-12	706.986E-3	-46.4255E-3
4.48974E-3	181.415E-12	657.260E-3	-13.8323E-3	179.410E-12	650.727E-3	-45.5305E-3
4.48474E-3	180.291E-12	680.733E-3	-21.7216E-3	179.544E-12	605.351E-3	-31.9192E-3
4.47974E-3	179.830E-12	670.061E-3	-6.06164E-3	178.363E-12	624.734E-3	-21.8116E-3
4.47474E-3	178.085E-12	659.640E-3	8.43544E-3	178.676E-12	678.212E-3	-15.3427E-3
4.46973E-3	176.613E-12	667.417E-3	3.38531E-3	177.422E-12	704.579E-3	2.41018E-3
4.46473E-3	175.806E-12	676.115E-3	6.88566E-3	177.690E-12	707.441E-3	-4.92787E-3
4.45973E-3	174.622E-12	666.272E-3	31.1234E-3	176.672E-12	703.823E-3	-39.2144E-3
4.45473E-3	173.873E-12	646.884E-3	34.8459E-3	177.148E-12	700.386E-3	-67.0397E-3
4.44972E-3	173.574E-12	640.958E-3	13.7800E-3	176.375E-12	717.384E-3	-50.1179E-3
4.44472E-3	173.707E-12	652.634E-3	8.17189E-3	176.907E-12	743.171E-3	-5.40359E-3
4.43972E-3	173.278E-12	680.982E-3	10.0633E-3	176.160E-12	726.832E-3	17.7320E-3
4.43472E-3	173.160E-12	704.617E-3	-6.71908E-3	176.817E-12	668.120E-3	26.8170E-3
4.42971E-3	175.224E-12	687.765E-3	-13.2789E-3	176.263E-12	624.126E-3	29.7904E-3
4.42471E-3	175.338E-12	651.719E-3	-4.25051E-3	176.155E-12	612.322E-3	-81.1946E-6
4.41971E-3	175.648E-12	632.849E-3	-620.779E-6	177.236E-12	608.895E-3	-22.7744E-3
4.41471E-3	176.664E-12	629.714E-3	-11.5640E-3	176.959E-12	620.110E-3	-20.1219E-3
4.40970E-3	178.397E-12	623.237E-3	-33.4358E-3	176.949E-12	643.354E-3	-16.9657E-3
4.40470E-3	177.853E-12	638.210E-3	-27.7176E-3	176.185E-12	650.623E-3	4.55878E-3
4.39970E-3	178.075E-12	662.930E-3	4.37000E-3	176.377E-12	656.021E-3	12.8711E-3
4.39470E-3	178.051E-12	666.298E-3	24.0413E-3	176.228E-12	662.797E-3	-13.0484E-3
4.38969E-3	178.256E-12	671.212E-3	6.39551E-3	174.702E-12	652.364E-3	-36.7783E-3
4.38469E-3	177.281E-12	671.310E-3	-19.4397E-3	174.413E-12	647.096E-3	-44.5079E-3
4.37969E-3	176.455E-12	669.301E-3	-19.1937E-3	173.510E-12	651.124E-3	-36.4461E-3
4.37469E-3	175.560E-12	675.907E-3	-5.15835E-3	172.458E-12	655.967E-3	-19.9128E-3
4.36968E-3	173.843E-12	680.496E-3	18.1930E-3	172.076E-12	680.937E-3	-10.3722E-3
4.36468E-3	172.124E-12	696.833E-3	23.7788E-3	171.494E-12	691.732E-3	-23.1684E-3
4.35968E-3	171.645E-12	696.123E-3	-34.6857E-3	172.134E-12	673.217E-3	-39.9139E-3
4.35468E-3	170.584E-12	658.717E-3	-78.6186E-3	171.849E-12	666.126E-3	-41.7249E-3
4.34967E-3	169.400E-12	626.895E-3	-44.2908E-3	171.765E-12	671.622E-3	-42.0450E-3
4.34467E-3	168.472E-12	629.067E-3	-25.2708E-3	172.561E-12	675.464E-3	-24.9452E-3
4.33967E-3	168.643E-12	650.157E-3	-35.0132E-3	172.191E-12	682.851E-3	4.27210E-3
4.33467E-3	168.540E-12	642.710E-3	-36.4470E-3	172.504E-12	678.027E-3	12.0495E-3
4.32966E-3	168.635E-12	609.277E-3	-41.4725E-3	171.797E-12	637.316E-3	3.16998E-3
4.32466E-3	168.831E-12	601.151E-3	-36.9463E-3	172.383E-12	602.036E-3	-36.3663E-3
4.31966E-3	170.156E-12	633.531E-3	-15.1233E-3	172.207E-12	589.526E-3	-66.4804E-3
4.31466E-3	170.524E-12	660.821E-3	30.9356E-6	172.015E-12	598.057E-3	-21.6901E-3
4.30965E-3	171.228E-12	667.118E-3	-14.1585E-3	171.730E-12	646.469E-3	9.88855E-3
4.30465E-3	171.593E-12	671.072E-3	-16.4052E-3	171.674E-12	667.944E-3	-12.7389E-3
4.29965E-3	172.590E-12	673.760E-3	-133.667E-6	171.216E-12	645.979E-3	-20.2525E-3
4.29465E-3	172.405E-12	672.929E-3	5.32311E-3	169.863E-12	640.901E-3	-5.79224E-3
4.28964E-3	173.273E-12	658.865E-3	11.3898E-3	170.010E-12	652.212E-3	253.732E-6
4.28464E-3	172.294E-12	649.536E-3	-1.64533E-3	168.965E-12	659.095E-3	-1.69694E-3
4.27964E-3	172.459E-12	653.344E-3	-5.61896E-3	169.028E-12	645.021E-3	10.2278E-3
4.27464E-3	171.534E-12	651.216E-3	28.2147E-3	168.551E-12	622.361E-3	-5.03311E-3
4.26963E-3	170.922E-12	651.506E-3	23.5048E-3	168.713E-12	649.712E-3	-26.5890E-3
4.26463E-3	170.210E-12	674.418E-3	-15.5730E-3	168.474E-12	700.965E-3	-777.456E-6
4.25963E-3	168.874E-12	702.573E-3	-19.1440E-3	169.249E-12	708.264E-3	26.7393E-3
4.25463E-3	167.520E-12	685.920E-3	7.09610E-3	170.125E-12	690.541E-3	19.2512E-3
4.24962E-3	166.776E-12	655.807E-3	23.4826E-3	169.923E-12	652.039E-3	-12.0757E-3
4.24462E-3	165.972E-12	667.042E-3	21.3082E-3	169.969E-12	634.024E-3	-45.9716E-3
4.23962E-3	164.670E-12	697.307E-3	22.2053E-3	169.488E-12	667.828E-3	-51.9120E-3
4.23462E-3	164.215E-12	717.330E-3	-2.78823E-3	169.656E-12	689.627E-3	-34.6383E-3
4.22961E-3	164.632E-12	706.491E-3	-37.5077E-3	169.124E-12	671.385E-3	-30.3119E-3
4.22461E-3	164.854E-12	650.365E-3	-43.4744E-3	168.757E-12	638.357E-3	-41.3177E-3
4.21961E-3	164.295E-12	616.556E-3	-37.0289E-3	169.197E-12	623.030E-3	-35.5716E-3
4.21461E-3	164.512E-12	643.276E-3	-11.0783E-3	168.013E-12	638.786E-3	-2.15281E-3
4.20960E-3	164.957E-12	674.832E-3	13.3916E-3	167.638E-12	649.524E-3	16.7850E-3
4.20460E-3	165.669E-12	688.795E-3	-9.63002E-3	167.282E-12	637.811E-3	3.47703E-3
4.19960E-3	165.518E-12	689.971E-3	-32.5043E-3	166.553E-12	650.170E-3	-13.1672E-3
4.19460E-3	166.456E-12	680.768E-3	-4.13528E-3	166.128E-12	662.440E-3	-16.6158E-3
4.18959E-3	167.251E-12	675.627E-3	4.56918E-3	166.928E-12	665.257E-3	-8.53957E-3
4.18459E-3	167.509E-12	673.807E-3	-29.3169E-3	166.752E-12	684.260E-3	18.6845E-3
4.17959E-3	167.381E-12	654.526E-3	-31.5543E-3	166.266E-12	676.333E-3	31.7002E-3
4.17459E-3	167.481E-12	629.864E-3	-18.9315E-3	166.593E-12	650.649E-3	15.6744E-3
4.16958E-3	167.426E-12	632.329E-3	-12.0864E-3	166.496E-12	657.837E-3	-12.9777E-3
4.16458E-3	166.214E-12	655.454E-3	12.7573E-3	165.660E-12	688.210E-3	-42.5985E-3
4.15958E-3	165.843E-12	677.089E-3	2.01306E-3	166.094E-12	682.892E-3	-38.5456E-3
4.15458E-3	165.124E-12	680.608E-3	-24.5292E-3	164.916E-12	636.511E-3	-22.7269E-3
4.14957E-3	164.135E-12	667.888E-3	-24.7763E-3	164.104E-12	624.832E-3	-31.0914E-3
4.14457E-3	162.777E-12	671.159E-3	-27.3072E-3	163.979E-12	636.914E-3	-48.1913E-3
4.13957E-3	162.222E-12	670.998E-3	-18.7779E-3	163.755E-12	640.548E-3	-68.0934E-3
4.13457E-3	162.580E-12	645.492E-3	-10.0513E-3	162.559E-12	662.043E-3	-63.3584E-3
4.12956E-3	161.503E-12	652.743E-3	-34.1161E-3	161.988E-12	669.029E-3	-26.1524E-3
4.12456E-3	160.540E-12	689.401E-3	-48.5552E-3	162.885E-12	660.390E-3	-26.1746E-3
4.11956E-3	160.319E-12	686.708E-3	-23.1309E-3	161.792E-12	655.876E-3	-57.1238E-3
4.11456E-3	159.935E-12	665.078E-3	-470.137E-6	162.424E-12	654.443E-3	-58.7395E-3
4.10955E-3	160.507E-12	658.214E-3	-2.05479E-3	161.718E-12	681.237E-3	-35.0809E-3
4.10455E-3	159.524E-12	655.159E-3	-15.4050E-3	162.758E-12	700.020E-3	-2.45715E-3
4.09955E-3	160.645E-12	655.522E-3	-34.5811E-3	161.663E-12	679.858E-3	12.4487E-3
4.09455E-3	161.648E-12	640.463E-3	-33.4714E-3	162.297E-12	663.471E-3	-16.5578E-3
4.08954E-3	162.311E-12	629.637E-3	-4.44525E-3	162.548E-12	658.905E-3	-38.3927E-3
4.08454E-3	163.000E-12	655.019E-3	10.8611E-3	162.413E-12	656.275E-3	-18.4519E-3
4.07954E-3	162.937E-12	666.260E-3	3.02861E-3	161.781E-12	660.271E-3	-9.63182E-3
4.07454E-3	163.347E-12	655.088E-3	-14.4233E-3	161.679E-12	655.206E-3	-16.5583E-3
4.06953E-3	163.188E-12	668.884E-3	-25.7527E-3	162.339E-12	645.649E-3	-15.4606E-3
4.06453E-3	163.892E-12	706.512E-3	-32.6117E-3	161.150E-12	653.023E-3	-28.9594E-3
4.05953E-3	162.507E-12	738.448E-3	-39.5490E-3	160.608E-12	662.137E-3	-36.7802E-3
4.05453E-3	161.301E-12	722.223E-3	-41.4756E-3	160.674E-12	662.357E-3	112.558E-6
4.04952E-3	160.121E-12	670.296E-3	-41.1793E-3	159.377E-12	656.383E-3	25.4595E-3
4.04452E-3	158.989E-12	662.543E-3	-36.2319E-3	158.886E-12	641.946E-3	3.07690E-3
4.03952E-3	158.090E-12	695.032E-3	-17.2560E-3	157.877E-12	645.793E-3	-15.6917E-3
4.03452E-3	155.797E-12	715.875E-3	11.4790E-3	158.016E-12	674.722E-3	-11.2327E-3
4.02951E-3	155.140E-12	704.268E-3	22.1366E-3	157.613E-12	676.208E-3	-632.401E-6
4.02451E-3	154.958E-12	664.944E-3	5.77325E-3	157.525E-12	652.746E-3	8.56893E-3
4.01951E-3	154.029E-12	635.050E-3	-23.6200E-3	157.467E-12	656.443E-3	-596.105E-6
4.01451E-3	154.086E-12	628.343E-3	-19.7183E-3	158.225E-12	673.489E-3	-26.2379E-3
4.00950E-3	153.788E-12	637.793E-3	6.45624E-3	158.118E-12	666.261E-3	-42.6111E-3
4.00450E-3	154.882E-12	645.026E-3	4.98523E-3	158.323E-12	648.142E-3	-18.3832E-3
3.99950E-3	154.617E-12	653.251E-3	-15.2605E-3	158.729E-12	648.346E-3	8.13390E-3
3.99450E-3	156.797E-12	665.276E-3	-37.1770E-3	158.833E-12	658.943E-3	-17.4697E-3
3.98949E-3	158.076E-12	662.343E-3	-53.9262E-3	158.460E-12	674.019E-3	-37.6524E-3
3.98449E-3	159.103E-12	659.262E-3	-63.5349E-3	158.470E-12	687.126E-3	-21.6882E-3
3.97949E-3	159.605E-12	657.741E-3	-59.3497E-3	158.731E-12	678.514E-3	-19.7673E-3
3.97449E-3	160.414E-12	642.695E-3	-48.0936E-3	157.721E-12	645.279E-3	-29.1576E-3
3.96948E-3	160.639E-12	646.882E-3	-18.3670E-3	157.711E-12	615.901E-3	-36.4789E-3
3.96448E-3	159.159E-12	654.625E-3	10.4597E-3	157.203E-12	621.955E-3	-46.3778E-3
3.95948E-3	158.664E-12	647.654E-3	-11.7402E-3	156.688E-12	658.381E-3	-19.5233E-3
3.95448E-3	157.327E-12	663.494E-3	-56.2252E-3	156.053E-12	691.564E-3	18.3182E-3
3.94947E-3	155.968E-12	668.987E-3	-71.3348E-3	153.735E-12	684.747E-3	17.7452E-3
3.94447E-3	154.829E-12	647.136E-3	-57.9309E-3	153.652E-12	670.551E-3	-11.2081E-3
3.93947E-3	153.404E-12	658.304E-3	-46.4359E-3	153.054E-12	674.749E-3	-37.3814E-3
3.93447E-3	152.461E-12	692.261E-3	-50.5198E-3	152.584E-12	664.917E-3	-37.6611E-3
3.92946E-3	150.674E-12	681.482E-3	-63.7978E-3	152.022E-12	640.682E-3	-21.5903E-3
3.92446E-3	150.760E-12	641.219E-3	-70.1241E-3	152.199E-12	629.992E-3	-13.5185E-3
3.91946E-3	149.142E-12	619.986E-3	-50.8089E-3	153.353E-12	643.742E-3	-15.1076E-3
3.91446E-3	149.640E-12	631.061E-3	-16.9199E-3	152.826E-12	672.976E-3	-22.3028E-3
3.90945E-3	149.850E-12	658.104E-3	-11.2085E-3	154.005E-12	700.647E-3	-36.5971E-3
3.90445E-3	150.354E-12	660.755E-3	-30.2008E-3	153.954E-12	691.635E-3	-38.0187E-3
3.89945E-3	151.443E-12	654.772E-3	-41.0579E-3	155.045E-12	657.891E-3	-28.6124E-3
3.89445E-3	153.015E-12	654.387E-3	-49.5709E-3	154.951E-12	648.114E-3	-34.7919E-3
3.88944E-3	154.372E-12	658.611E-3	-62.9036E-3	155.248E-12	658.377E-3	-47.7170E-3
3.88444E-3	154.388E-12	689.436E-3	-66.4643E-3	154.579E-12	667.603E-3	-40.6843E-3
3.87944E-3	156.683E-12	702.941E-3	-45.0113E-3	154.205E-12	659.357E-3	-29.5310E-3
3.87444E-3	155.502E-12	672.035E-3	-17.6309E-3	154.261E-12	635.485E-3	-20.7021E-3
3.86943E-3	155.834E-12	646.594E-3	-7.76621E-3	153.107E-12	638.331E-3	2.22185E-3
3.86443E-3	155.504E-12	670.658E-3	-7.53602E-3	152.323E-12	646.901E-3	11.5698E-3
3.85943E-3	155.026E-12	714.848E-3	-4.53862E-3	151.311E-12	645.180E-3	-6.07874E-3
3.85443E-3	153.206E-12	706.241E-3	-14.7651E-3	151.124E-12	662.174E-3	-28.3644E-3
3.84942E-3	152.552E-12	670.348E-3	-40.6936E-3	150.915E-12	662.329E-3	-28.2368E-3
3.84442E-3	151.270E-12	662.548E-3	-58.1949E-3	150.234E-12	631.544E-3	-15.4042E-3
3.83942E-3	149.802E-12	671.987E-3	-26.6603E-3	149.963E-12	616.475E-3	-6.39779E-3
3.83442E-3	149.753E-12	685.430E-3	13.9424E-3	149.516E-12	628.710E-3	6.13739E-3
3.82941E-3	148.614E-12	693.121E-3	12.2556E-3	150.534E-12	665.175E-3	11.0152E-3
3.82441E-3	148.386E-12	688.632E-3	-6.23252E-3	149.979E-12	693.392E-3	-5.47410E-3
3.81941E-3	147.506E-12	675.273E-3	-23.9919E-3	150.267E-12	682.895E-3	-33.9870E-3
3.81441E-3	146.973E-12	674.388E-3	-27.4759E-3	150.687E-12	681.068E-3	-52.2421E-3
3.80940E-3	146.750E-12	695.250E-3	-25.4067E-3	150.620E-12	683.754E-3	-36.2761E-3
3.80440E-3	147.028E-12	703.839E-3	-30.2527E-3	150.423E-12	681.903E-3	11.2247E-3
3.79940E-3	146.988E-12	687.521E-3	-35.8625E-3	150.568E-12	701.648E-3	32.4095E-3
3.79440E-3	147.258E-12	659.802E-3	-22.8282E-3	150.834E-12	707.512E-3	8.58600E-3
3.78939E-3	147.508E-12	647.002E-3	11.4211E-3	150.378E-12	691.399E-3	-11.9976E-3
3.78439E-3	148.071E-12	664.834E-3	39.2449E-3	150.530E-12	696.151E-3	-27.0958E-3
3.77939E-3	147.593E-12	673.013E-3	32.8183E-3	149.817E-12	707.419E-3	-55.7388E-3
3.77439E-3	148.310E-12	652.288E-3	1.52248E-3	149.342E-12	707.208E-3	-54.0496E-3
3.76938E-3	148.458E-12	636.977E-3	-20.2815E-3	148.606E-12	689.989E-3	-20.9090E-3
3.76438E-3	148.608E-12	632.679E-3	-6.15611E-3	148.537E-12	659.211E-3	-31.8905E-3
3.75938E-3	148.662E-12	648.374E-3	13.5049E-3	147.624E-12	643.870E-3	-55.5231E-3
3.75438E-3	148.505E-12	683.682E-3	-4.39161E-3	147.368E-12	656.373E-3	-33.9569E-3
3.74937E-3	148.268E-12	690.934E-3	-34.9446E-3	146.661E-12	669.931E-3	-5.84142E-3
3.74437E-3	147.455E-12	658.014E-3	-48.4474E-3	145.924E-12	653.330E-3	1.61787E-3
3.73937E-3	146.622E-12	635.511E-3	-25.1578E-3	146.120E-12	646.324E-3	-4.19879E-3
3.73437E-3	146.353E-12	638.536E-3	2.47293E-3	146.094E-12	683.086E-3	-17.8287E-3
3.72936E-3	146.486E-12	661.119E-3	-13.8424E-3	145.327E-12	724.541E-3	-22.3657E-3
3.72436E-3	145.403E-12	695.411E-3	-42.7981E-3	145.451E-12	715.127E-3	-19.4999E-3
3.71936E-3	144.471E-12	681.034E-3	-46.9215E-3	145.460E-12	657.321E-3	-38.9798E-3
3.71436E-3	144.356E-12	635.285E-3	-43.2987E-3	144.651E-12	612.798E-3	-60.5976E-3
3.70935E-3	143.613E-12	627.187E-3	-29.6956E-3	144.787E-12	619.541E-3	-49.0978E-3
3.70435E-3	142.282E-12	646.834E-3	-2.67830E-3	144.474E-12	647.354E-3	-16.7895E-3
3.69935E-3	141.660E-12	668.483E-3	5.81246E-3	144.575E-12	655.234E-3	5.28399E-3
3.69435E-3	141.606E-12	683.309E-3	-7.13763E-3	143.321E-12	663.151E-3	-898.969E-6
3.68934E-3	141.175E-12	678.326E-3	-14.0511E-3	143.901E-12	668.887E-3	-24.5850E-3
3.68434E-3	141.519E-12	663.792E-3	-2.47956E-3	143.703E-12	652.308E-3	-49.0387E-3
3.67934E-3	141.416E-12	659.280E-3	1.32492E-3	143.419E-12	651.151E-3	-52.4113E-3
3.67434E-3	141.685E-12	668.376E-3	-16.2086E-3	143.263E-12	663.411E-3	-30.6872E-3
3.66933E-3	140.875E-12	692.375E-3	-29.5601E-3	143.851E-12	659.807E-3	-2.88197E-3
3.66433E-3	141.688E-12	709.392E-3	-26.9732E-3	143.130E-12	654.998E-3	3.24335E-3
3.65933E-3	143.016E-12	698.432E-3	-17.6957E-3	142.778E-12	664.316E-3	-9.85067E-3
3.65433E-3	143.283E-12	683.005E-3	-8.77681E-3	142.762E-12	663.680E-3	-6.46511E-3
3.64932E-3	143.717E-12	679.349E-3	-9.27767E-3	142.751E-12	656.730E-3	8.90406E-3
3.64432E-3	144.101E-12	665.112E-3	-14.2762E-3	142.748E-12	653.607E-3	30.0101E-3
3.63932E-3	144.359E-12	640.773E-3	-14.8078E-3	142.117E-12	641.717E-3	40.1370E-3
3.63432E-3	143.400E-12	645.406E-3	-28.1840E-3	141.530E-12	636.820E-3	12.6430E-3
3.62931E-3	144.160E-12	669.002E-3	-41.7416E-3	140.752E-12	646.507E-3	-33.7541E-3
3.62431E-3	141.402E-12	669.908E-3	-30.8775E-3	140.728E-12	665.460E-3	-56.3397E-3
3.61931E-3	141.142E-12	659.424E-3	-21.2725E-3	140.097E-12	679.194E-3	-40.3306E-3
3.61431E-3	139.455E-12	642.602E-3	-28.5350E-3	139.387E-12	681.187E-3	-34.7735E-3
3.60930E-3	138.909E-12	624.412E-3	-27.5667E-3	138.530E-12	671.443E-3	-46.0438E-3
3.60430E-3	136.673E-12	629.879E-3	-16.4371E-3	138.108E-12	663.742E-3	-34.5603E-3
3.59930E-3	136.393E-12	634.910E-3	-18.9509E-3	138.169E-12	666.056E-3	-6.11668E-3
3.59430E-3	135.875E-12	627.719E-3	-24.2506E-3	138.393E-12	662.961E-3	16.0873E-3
3.58929E-3	135.610E-12	634.980E-3	-20.7170E-3	138.328E-12	662.042E-3	9.58046E-3
3.58429E-3	136.536E-12	643.817E-3	-20.3576E-3	138.731E-12	659.443E-3	-3.18548E-3
3.57929E-3	136.387E-12	639.401E-3	-21.5762E-3	138.749E-12	667.249E-3	-10.8627E-3
3.57429E-3	136.982E-12	635.422E-3	-18.7788E-3	139.350E-12	673.350E-3	-20.5931E-3
3.56928E-3	139.275E-12	630.779E-3	-24.4212E-3	139.171E-12	653.727E-3	-17.5843E-3
3.56428E-3	139.794E-12	625.692E-3	-18.7586E-3	139.807E-12	654.344E-3	-18.6178E-3
3.55928E-3	139.882E-12	641.858E-3	-1.33667E-3	139.842E-12	666.046E-3	-30.9736E-3
3.55428E-3	140.527E-12	685.725E-3	-2.55835E-3	139.993E-12	666.566E-3	-37.9267E-3
3.54927E-3	141.519E-12	703.705E-3	-9.18235E-3	139.710E-12	664.789E-3	-27.3424E-3
3.54427E-3	141.246E-12	686.574E-3	-16.4233E-3	138.738E-12	645.063E-3	5.66454E-3
3.53927E-3	140.519E-12	666.123E-3	-33.1221E-3	138.671E-12	623.281E-3	18.1979E-3
3.53427E-3	140.172E-12	658.364E-3	-39.7550E-3	137.742E-12	630.968E-3	-26.7632E-3
3.52926E-3	138.497E-12	681.104E-3	-32.1782E-3	136.819E-12	658.216E-3	-62.2393E-3
3.52426E-3	137.139E-12	705.662E-3	-25.0287E-3	136.468E-12	677.675E-3	-38.3635E-3
3.51926E-3	135.601E-12	707.707E-3	-27.5900E-3	135.936E-12	669.569E-3	-4.14295E-3
3.51426E-3	134.128E-12	685.401E-3	-38.3454E-3	135.039E-12	647.280E-3	1.17996E-3
3.50925E-3	132.715E-12	666.913E-3	-38.3420E-3	134.122E-12	646.204E-3	-10.2876E-3
3.50425E-3	131.600E-12	671.747E-3	-26.5993E-3	134.575E-12	673.095E-3	-10.1120E-3
3.49925E-3	131.152E-12	682.181E-3	-16.7712E-3	134.472E-12	692.331E-3	4.49169E-3
3.49425E-3	130.962E-12	703.574E-3	-30.0719E-3	134.436E-12	695.459E-3	15.2312E-3
3.48924E-3	130.509E-12	721.935E-3	-51.3666E-3	135.101E-12	695.869E-3	16.4715E-3
3.48424E-3	130.615E-12	690.123E-3	-34.3021E-3	134.992E-12	691.530E-3	-4.15567E-3
3.47924E-3	131.159E-12	645.737E-3	-8.26869E-3	135.530E-12	705.336E-3	-32.6740E-3
3.47424E-3	132.772E-12	658.463E-3	-20.1996E-3	135.312E-12	731.503E-3	-42.3199E-3
3.46923E-3	132.801E-12	678.382E-3	-38.2753E-3	136.037E-12	721.020E-3	-40.3519E-3
3.46423E-3	134.344E-12	677.375E-3	-40.9866E-3	135.810E-12	680.344E-3	-39.7051E-3
3.45923E-3	134.701E-12	680.371E-3	-17.5671E-3	137.106E-12	659.069E-3	-40.8725E-3
3.45423E-3	135.824E-12	657.449E-3	19.4444E-3	135.789E-12	677.169E-3	-27.9759E-3
3.44922E-3	135.195E-12	639.573E-3	16.8956E-3	135.392E-12	696.612E-3	2.04897E-3
3.44422E-3	135.538E-12	668.124E-3	-16.8252E-3	135.093E-12	696.305E-3	16.6899E-3
3.43922E-3	135.254E-12	679.550E-3	-22.8994E-3	133.965E-12	687.816E-3	-6.70592E-3
3.43422E-3	134.606E-12	664.081E-3	-1.88790E-3	133.101E-12	674.228E-3	-44.9281E-3
3.42921E-3	133.836E-12	667.631E-3	-48.8972E-6	131.962E-12	659.494E-3	-46.4729E-3
3.42421E-3	133.126E-12	681.513E-3	-9.18823E-3	131.555E-12	646.619E-3	-22.0603E-3
3.41921E-3	132.144E-12	692.412E-3	-13.6765E-3	130.511E-12	642.722E-3	-18.7242E-3
3.41421E-3	131.115E-12	686.533E-3	-4.71534E-3	130.414E-12	641.699E-3	-34.5009E-3
3.40920E-3	130.103E-12	660.829E-3	9.08181E-3	129.978E-12	637.175E-3	-56.7064E-3
3.40420E-3	129.589E-12	650.853E-3	-5.45782E-3	129.735E-12	642.812E-3	-54.9504E-3
3.39920E-3	128.715E-12	670.502E-3	-27.8369E-3	129.794E-12	666.053E-3	-22.2794E-3
3.39420E-3	128.232E-12	684.386E-3	-33.2779E-3	129.904E-12	687.640E-3	13.2941E-3
3.38919E-3	127.862E-12	683.742E-3	-33.4750E-3	130.039E-12	692.801E-3	16.1689E-3
3.38419E-3	128.122E-12	663.874E-3	-36.4498E-3	130.019E-12	682.967E-3	-24.9767E-3
3.37919E-3	128.317E-12	639.749E-3	-24.0905E-3	129.915E-12	667.367E-3	-41.1042E-3
3.37419E-3	128.581E-12	646.696E-3	-9.07302E-3	130.241E-12	668.163E-3	-6.38404E-3
3.36918E-3	129.226E-12	655.425E-3	-25.7827E-3	129.760E-12	684.657E-3	6.83920E-3
3.36418E-3	129.908E-12	650.892E-3	-37.3486E-3	129.945E-12	694.921E-3	-20.4972E-3
3.35918E-3	129.670E-12	650.944E-3	-26.3432E-3	129.372E-12	689.923E-3	-44.0213E-3
3.35418E-3	129.959E-12	649.193E-3	-28.6339E-3	129.326E-12	678.308E-3	-49.2440E-3
3.34917E-3	129.958E-12	658.046E-3	-29.0121E-3	128.219E-12	677.197E-3	-35.2873E-3
3.34417E-3	129.527E-12	683.804E-3	-18.2809E-3	127.881E-12	678.320E-3	-13.1861E-3
3.33917E-3	129.000E-12	700.675E-3	-13.4386E-3	127.318E-12	654.625E-3	-12.7928E-3
3.33417E-3	128.592E-12	698.971E-3	3.16929E-3	126.692E-12	632.010E-3	-25.4189E-3
3.32916E-3	128.182E-12	690.623E-3	24.3661E-3	126.614E-12	637.585E-3	-17.7001E-3
3.32416E-3	127.271E-12	684.579E-3	39.7585E-3	126.824E-12	650.069E-3	-14.8210E-3
3.31916E-3	127.394E-12	681.757E-3	37.1027E-3	126.116E-12	677.199E-3	-8.86258E-3
3.31416E-3	126.775E-12	670.724E-3	-8.92441E-3	126.282E-12	691.922E-3	15.1257E-3
3.30915E-3	126.362E-12	649.793E-3	-46.1488E-3	126.018E-12	679.355E-3	-6.07635E-3
3.30415E-3	125.529E-12	640.664E-3	-26.5668E-3	126.031E-12	682.396E-3	-51.4988E-3
3.29915E-3	125.117E-12	658.808E-3	-1.49580E-3	125.902E-12	698.073E-3	-65.5520E-3
3.29415E-3	125.031E-12	688.242E-3	-10.0811E-3	125.652E-12	700.309E-3	-35.7004E-3
3.28914E-3	124.004E-12	681.493E-3	-21.8873E-3	125.778E-12	677.076E-3	1.71596E-3
3.28414E-3	124.281E-12	650.212E-3	-23.5662E-3	124.987E-12	651.333E-3	-4.80203E-3
3.27914E-3	124.029E-12	651.416E-3	-21.9855E-3	126.047E-12	654.360E-3	-17.2150E-3
3.27414E-3	123.539E-12	674.752E-3	-4.93156E-3	124.807E-12	683.756E-3	-21.3851E-3
3.26913E-3	122.999E-12	684.739E-3	-12.7240E-3	124.911E-12	709.350E-3	-22.9881E-3
3.26413E-3	123.874E-12	675.676E-3	-35.0865E-3	124.494E-12	702.610E-3	-5.98879E-3
3.25913E-3	123.702E-12	659.966E-3	-14.5814E-3	124.659E-12	684.113E-3	6.76651E-3
3.25413E-3	123.604E-12	652.857E-3	9.15446E-3	124.184E-12	679.489E-3	-1.14184E-3
3.24912E-3	123.914E-12	680.456E-3	2.96738E-3	123.896E-12	678.884E-3	-14.9263E-3
3.24412E-3	124.859E-12	721.614E-3	-32.1201E-3	124.123E-12	674.530E-3	-5.13518E-3
3.23912E-3	124.859E-12	714.454E-3	-58.8497E-3	123.930E-12	669.707E-3	23.4834E-3
3.23412E-3	124.687E-12	684.863E-3	-50.8101E-3	124.162E-12	654.806E-3	29.6494E-3
3.22911E-3	125.140E-12	666.317E-3	-30.4640E-3	123.522E-12	644.538E-3	2.27881E-3
3.22411E-3	124.729E-12	663.327E-3	-16.1576E-3	124.099E-12	666.680E-3	-10.3842E-3
3.21911E-3	124.638E-12	684.060E-3	-30.5074E-3	123.568E-12	692.924E-3	5.25125E-3
3.21411E-3	123.199E-12	705.179E-3	-51.0618E-3	123.401E-12	684.221E-3	13.2046E-3
3.20910E-3	122.849E-12	709.368E-3	-39.3301E-3	123.018E-12	665.746E-3	13.1757E-3
3.20410E-3	122.076E-12	689.108E-3	-13.0997E-3	122.652E-12	673.196E-3	-11.7685E-3
3.19910E-3	121.623E-12	673.313E-3	-25.1726E-3	122.060E-12	690.102E-3	-50.5915E-3
3.19410E-3	120.712E-12	689.878E-3	-50.1240E-3	121.675E-12	703.181E-3	-52.2700E-3
3.18909E-3	119.458E-12	701.712E-3	-44.4345E-3	121.562E-12	696.471E-3	-19.6545E-3
3.18409E-3	119.237E-12	689.332E-3	-30.7064E-3	121.127E-12	671.155E-3	-3.93593E-3
3.17909E-3	118.238E-12	675.169E-3	-18.7572E-3	120.587E-12	656.769E-3	-31.1800E-3
3.17409E-3	117.233E-12	660.727E-3	-14.1135E-3	120.323E-12	660.606E-3	-41.4768E-3
3.16908E-3	117.525E-12	654.235E-3	-21.9319E-3	120.391E-12	687.044E-3	-4.62544E-3
3.16408E-3	117.715E-12	651.983E-3	-36.3976E-3	120.067E-12	692.296E-3	9.91664E-3
3.15908E-3	117.642E-12	642.907E-3	-36.1000E-3	119.931E-12	674.706E-3	562.003E-6
3.15408E-3	118.676E-12	646.181E-3	-18.0712E-3	119.936E-12	691.986E-3	2.18613E-3
3.14907E-3	118.795E-12	659.519E-3	-4.99682E-3	119.818E-12	724.047E-3	-11.7371E-3
3.14407E-3	119.685E-12	678.657E-3	1.08462E-3	120.322E-12	727.801E-3	-20.6625E-3
3.13907E-3	119.753E-12	696.559E-3	2.76232E-3	120.256E-12	701.116E-3	-8.76943E-3
3.13407E-3	120.852E-12	693.524E-3	-6.65015E-3	120.567E-12	669.886E-3	-4.89000E-3
3.12906E-3	121.591E-12	687.308E-3	-26.5593E-3	119.868E-12	662.626E-3	-15.1879E-3
3.12406E-3	121.045E-12	698.206E-3	-33.8446E-3	120.121E-12	695.611E-3	-28.9633E-3
3.11906E-3	120.965E-12	720.508E-3	-32.9826E-3	119.671E-12	731.632E-3	-28.4728E-3
3.11406E-3	120.077E-12	733.844E-3	-40.1107E-3	119.688E-12	725.997E-3	-9.54264E-3
3.10905E-3	120.294E-12	724.924E-3	-51.6560E-3	118.418E-12	698.139E-3	3.44865E-3
3.10405E-3	118.424E-12	707.923E-3	-52.0142E-3	117.924E-12	679.559E-3	-13.7066E-3
3.09905E-3	117.417E-12	698.580E-3	-34.4255E-3	117.864E-12	682.399E-3	-38.8172E-3
3.09405E-3	116.359E-12	699.585E-3	-19.9779E-3	117.278E-12	684.956E-3	-47.5573E-3
3.08904E-3	115.307E-12	701.316E-3	-19.9402E-3	116.265E-12	670.507E-3	-34.8230E-3
3.08404E-3	113.680E-12	695.091E-3	-31.2275E-3	115.819E-12	662.103E-3	-19.4291E-3
3.07904E-3	112.726E-12	685.398E-3	-46.0447E-3	115.464E-12	673.837E-3	-27.3868E-3
3.07404E-3	112.608E-12	683.319E-3	-33.5414E-3	115.142E-12	705.805E-3	-41.6277E-3
3.06903E-3	112.248E-12	688.552E-3	-7.75444E-3	114.822E-12	724.740E-3	-41.1040E-3
3.06403E-3	112.411E-12	682.922E-3	-18.4922E-3	114.545E-12	711.193E-3	-20.9054E-3
3.05903E-3	112.082E-12	675.361E-3	-53.3439E-3	115.015E-12	687.433E-3	-34.0572E-6
3.05403E-3	112.661E-12	684.721E-3	-48.1751E-3	115.337E-12	662.625E-3	-12.7637E-3
3.04902E-3	113.289E-12	676.273E-3	-3.97530E-3	115.720E-12	656.519E-3	-41.8062E-3
3.04402E-3	114.279E-12	661.162E-3	8.29448E-3	115.140E-12	692.226E-3	-43.0512E-3
3.03902E-3	115.094E-12	680.313E-3	-8.23154E-3	115.424E-12	738.472E-3	-19.3605E-3
3.03402E-3	115.710E-12	694.558E-3	-3.86432E-3	115.290E-12	745.409E-3	-4.81581E-3
3.02901E-3	116.299E-12	688.524E-3	450.378E-6	115.133E-12	716.731E-3	-14.9008E-3
3.02401E-3	117.052E-12	685.643E-3	-7.57003E-3	115.052E-12	699.158E-3	-24.6870E-3
3.01901E-3	116.315E-12	697.336E-3	4.38718E-3	114.263E-12	702.645E-3	-33.9958E-3
3.01401E-3	115.801E-12	716.691E-3	11.1316E-3	113.764E-12	701.810E-3	-41.7571E-3
3.00900E-3	114.863E-12	729.008E-3	-7.61003E-3	113.316E-12	698.101E-3	-19.7436E-3
3.00400E-3	114.416E-12	723.950E-3	-16.1825E-3	113.072E-12	698.103E-3	-3.80588E-3
2.99900E-3	113.203E-12	693.682E-3	-13.4419E-3	111.573E-12	703.868E-3	-17.1400E-3
2.99400E-3	112.005E-12	678.977E-3	-12.5547E-3	111.507E-12	722.305E-3	-15.9927E-3
2.98899E-3	110.880E-12	688.765E-3	-7.32754E-3	111.073E-12	724.439E-3	-6.88825E-3
2.98399E-3	110.410E-12	686.024E-3	-22.4536E-3	110.931E-12	697.750E-3	-8.44017E-3
2.97899E-3	110.240E-12	681.087E-3	-28.9113E-3	110.186E-12	682.616E-3	-12.8390E-3
2.97399E-3	109.267E-12	687.106E-3	5.91064E-3	110.094E-12	678.342E-3	-38.6042E-3
2.96898E-3	109.544E-12	697.531E-3	34.9941E-3	109.813E-12	667.977E-3	-56.8849E-3
2.96398E-3	109.294E-12	708.398E-3	17.3424E-3	110.195E-12	684.205E-3	-25.6870E-3
2.95898E-3	108.794E-12	710.677E-3	-27.7383E-3	110.614E-12	720.323E-3	806.213E-6
2.95398E-3	109.845E-12	699.697E-3	-44.1276E-3	110.435E-12	717.086E-3	-9.51644E-3
2.94897E-3	110.373E-12	682.334E-3	-36.4089E-3	110.489E-12	682.666E-3	-36.1780E-3
2.94397E-3	110.841E-12	666.317E-3	-25.5040E-3	110.060E-12	683.693E-3	-58.9989E-3
2.93897E-3	111.044E-12	668.166E-3	-10.6462E-3	110.472E-12	705.858E-3	-41.8590E-3
2.93397E-3	112.224E-12	670.072E-3	1.81825E-3	109.789E-12	704.780E-3	-3.35154E-3
2.92896E-3	112.316E-12	670.451E-3	11.0036E-3	109.876E-12	686.294E-3	-12.1425E-3
2.92396E-3	111.739E-12	694.716E-3	17.2531E-3	109.040E-12	665.262E-3	-35.6313E-3
2.91896E-3	111.941E-12	721.792E-3	15.0018E-3	109.295E-12	659.997E-3	-35.5027E-3
2.91396E-3	111.498E-12	738.604E-3	-620.056E-6	109.152E-12	680.651E-3	-45.1541E-3
2.90895E-3	110.671E-12	739.794E-3	-15.9273E-3	108.164E-12	706.239E-3	-41.7563E-3
2.90395E-3	109.628E-12	714.485E-3	-15.0201E-3	107.881E-12	700.523E-3	-18.4609E-3
2.89895E-3	108.365E-12	680.436E-3	6.20439E-3	107.465E-12	681.659E-3	-8.80862E-3
2.89395E-3	107.401E-12	676.148E-3	23.8944E-3	107.653E-12	691.265E-3	-22.4836E-3
2.88894E-3	106.184E-12	700.193E-3	18.8346E-3	107.226E-12	722.748E-3	-39.5513E-3
2.88394E-3	106.044E-12	707.561E-3	5.75142E-3	107.669E-12	742.981E-3	-38.6775E-3
2.87894E-3	104.893E-12	684.613E-3	-331.430E-6	107.235E-12	731.983E-3	-30.1848E-3
2.87394E-3	104.448E-12	665.690E-3	4.53175E-3	106.983E-12	702.898E-3	-15.6610E-3
2.86893E-3	104.228E-12	673.459E-3	-615.522E-6	106.816E-12	681.144E-3	-9.84039E-3
2.86393E-3	104.034E-12	702.441E-3	-25.4811E-3	107.172E-12	685.636E-3	-25.8001E-3
2.85893E-3	104.069E-12	725.070E-3	-39.2644E-3	106.458E-12	694.792E-3	-25.1687E-3
2.85393E-3	103.504E-12	714.540E-3	-39.6095E-3	106.481E-12	690.339E-3	-21.0554E-3
2.84892E-3	103.787E-12	686.232E-3	-41.0378E-3	106.545E-12	688.578E-3	-33.3096E-3
2.84392E-3	103.817E-12	663.942E-3	-29.1679E-3	106.506E-12	690.753E-3	-34.1523E-3
2.83892E-3	104.241E-12	672.634E-3	-16.6837E-3	106.129E-12	700.137E-3	-30.0832E-3
2.83392E-3	104.539E-12	708.002E-3	-30.9474E-3	105.722E-12	720.796E-3	-35.8254E-3
2.82891E-3	104.933E-12	722.815E-3	-52.8897E-3	105.776E-12	720.883E-3	-40.8238E-3
2.82391E-3	105.705E-12	719.058E-3	-36.5414E-3	105.360E-12	700.718E-3	-46.0773E-3
2.81891E-3	105.805E-12	716.698E-3	691.894E-6	104.981E-12	706.494E-3	-60.6220E-3
2.81391E-3	105.852E-12	714.002E-3	21.8988E-3	104.991E-12	710.779E-3	-72.2208E-3
2.80890E-3	105.454E-12	706.651E-3	25.4219E-3	104.743E-12	696.715E-3	-67.3961E-3
2.80390E-3	105.441E-12	709.102E-3	791.399E-6	104.138E-12	708.668E-3	-50.3231E-3
2.79890E-3	105.015E-12	728.924E-3	-27.1658E-3	104.338E-12	722.370E-3	-30.5457E-3
2.79390E-3	103.749E-12	731.760E-3	-32.9068E-3	103.286E-12	719.775E-3	-19.5594E-3
2.78889E-3	103.451E-12	720.353E-3	-19.2110E-3	103.011E-12	736.907E-3	-22.3739E-3
2.78389E-3	103.474E-12	728.743E-3	-3.06792E-3	103.053E-12	740.674E-3	-15.1700E-3
2.77889E-3	102.860E-12	740.393E-3	-5.23119E-3	102.414E-12	707.934E-3	881.400E-6
2.77389E-3	102.057E-12	721.788E-3	-5.91469E-3	102.222E-12	691.958E-3	786.272E-6
2.76888E-3	100.808E-12	701.384E-3	2.21450E-3	101.967E-12	707.911E-3	-11.3307E-3
2.76388E-3	100.864E-12	701.560E-3	3.85039E-3	101.239E-12	722.555E-3	-18.4468E-3
2.75888E-3	99.5848E-12	709.036E-3	-9.81326E-3	100.679E-12	724.454E-3	5.53653E-3
2.75388E-3	99.8776E-12	716.085E-3	-24.7470E-3	100.686E-12	720.590E-3	33.8237E-3
2.74887E-3	99.3481E-12	711.431E-3	-28.9368E-3	100.315E-12	707.026E-3	23.9506E-3
2.74387E-3	99.0859E-12	702.519E-3	-29.6107E-3	99.5000E-12	692.106E-3	3.19090E-3
2.73887E-3	99.0511E-12	694.890E-3	-24.6520E-3	99.7121E-12	696.096E-3	1.64652E-3
2.73387E-3	99.3985E-12	692.886E-3	-7.06574E-3	99.6037E-12	712.103E-3	16.8065E-3
2.72886E-3	100.120E-12	699.363E-3	-1.80900E-3	98.9232E-12	711.880E-3	14.0432E-3
2.72386E-3	99.2613E-12	699.292E-3	-20.7496E-3	99.5137E-12	698.575E-3	-8.89320E-3
2.71886E-3	100.094E-12	694.868E-3	-24.9853E-3	99.3228E-12	697.498E-3	-24.4322E-3
2.71386E-3	99.9621E-12	704.624E-3	-14.7496E-3	98.9889E-12	697.287E-3	-19.4950E-3
2.70885E-3	100.485E-12	723.970E-3	-13.5772E-3	99.0053E-12	701.663E-3	13.3268E-3
2.70385E-3	100.113E-12	735.692E-3	-24.1689E-3	98.9776E-12	709.249E-3	30.7543E-3
2.69885E-3	100.324E-12	725.428E-3	-46.4114E-3	98.2592E-12	695.595E-3	-277.841E-6
2.69385E-3	100.352E-12	713.629E-3	-49.5894E-3	98.4134E-12	680.253E-3	-22.6618E-3
2.68884E-3	99.4731E-12	718.509E-3	-22.8107E-3	98.5756E-12	696.145E-3	-6.49899E-3
2.68384E-3	99.4900E-12	721.976E-3	-12.2999E-3	97.6841E-12	732.000E-3	10.6046E-3
2.67884E-3	98.7543E-12	735.595E-3	-30.6503E-3	97.5370E-12	749.180E-3	2.78645E-3
2.67384E-3	99.0088E-12	742.873E-3	-48.0091E-3	96.7606E-12	749.746E-3	-23.3655E-3
2.66883E-3	97.4895E-12	720.334E-3	-41.5852E-3	96.2103E-12	733.642E-3	-34.9576E-3
2.66383E-3	96.2734E-12	701.790E-3	-29.9688E-3	95.8994E-12	712.737E-3	-19.7624E-3
2.65883E-3	96.3074E-12	698.921E-3	-24.8322E-3	95.4855E-12	715.750E-3	5.71239E-3
2.65383E-3	95.3253E-12	689.294E-3	-16.3483E-3	94.7722E-12	718.877E-3	15.6983E-3
2.64882E-3	94.5586E-12	664.993E-3	-25.4321E-3	94.4580E-12	712.537E-3	8.60413E-3
2.64382E-3	93.9850E-12	652.800E-3	-42.5323E-3	94.5538E-12	708.467E-3	-6.17226E-3
2.63882E-3	94.5757E-12	680.908E-3	-29.6601E-3	94.5905E-12	723.419E-3	-31.4304E-3
2.63382E-3	94.5086E-12	717.430E-3	-6.30103E-3	94.3869E-12	744.135E-3	-38.0125E-3
2.62881E-3	94.3842E-12	714.875E-3	-17.8821E-3	94.6508E-12	738.774E-3	-10.7746E-3
2.62381E-3	95.5251E-12	697.651E-3	-32.8187E-3	95.1379E-12	720.680E-3	6.77471E-3
2.61881E-3	95.5250E-12	690.334E-3	-28.7902E-3	94.9828E-12	710.451E-3	-12.7346E-3
2.61381E-3	95.8961E-12	684.077E-3	-29.4904E-3	94.7346E-12	711.671E-3	-35.1304E-3
2.60880E-3	95.4825E-12	695.500E-3	-22.1991E-3	94.7417E-12	707.304E-3	-28.0584E-3
2.60380E-3	95.7510E-12	718.957E-3	-14.2048E-3	94.4036E-12	702.468E-3	-1.33053E-3
2.59880E-3	96.0313E-12	726.322E-3	-19.8252E-3	94.5498E-12	703.603E-3	24.3708E-3
2.59380E-3	95.1062E-12	728.823E-3	-19.9887E-3	94.2283E-12	696.714E-3	25.0235E-3
2.58879E-3	95.1236E-12	735.641E-3	-11.3911E-3	94.0099E-12	707.560E-3	4.50113E-3
2.58379E-3	94.1015E-12	732.105E-3	-9.96911E-3	93.2868E-12	717.680E-3	-6.46981E-3
2.57879E-3	94.1916E-12	728.462E-3	-24.6809E-3	93.1642E-12	700.074E-3	-2.47045E-3
2.57379E-3	92.3805E-12	720.274E-3	-40.5641E-3	92.8713E-12	696.087E-3	3.79337E-3
2.56878E-3	92.8850E-12	703.155E-3	-34.7594E-3	92.0431E-12	699.424E-3	782.192E-6
2.56378E-3	91.8319E-12	701.661E-3	-23.5479E-3	91.4927E-12	695.642E-3	-14.6443E-3
2.55878E-3	90.9589E-12	704.275E-3	-20.2735E-3	91.4838E-12	708.844E-3	-24.0542E-3
2.55378E-3	90.1908E-12	704.869E-3	-29.5311E-3	91.2282E-12	719.986E-3	-21.1051E-3
2.54877E-3	90.0486E-12	718.296E-3	-45.9387E-3	91.1876E-12	712.297E-3	-17.3737E-3
2.54377E-3	90.2842E-12	722.585E-3	-44.9739E-3	90.8903E-12	713.085E-3	-6.55056E-3
2.53877E-3	89.7971E-12	713.167E-3	-31.4549E-3	91.1699E-12	731.492E-3	-14.2329E-3
2.53377E-3	90.2706E-12	706.350E-3	-18.4401E-3	91.3674E-12	752.954E-3	-37.9887E-3
2.52876E-3	90.3811E-12	711.158E-3	-16.1123E-3	91.3364E-12	763.273E-3	-43.9937E-3
2.52376E-3	91.1896E-12	727.852E-3	-33.9717E-3	91.5744E-12	757.394E-3	-29.8078E-3
2.51876E-3	91.1341E-12	730.141E-3	-37.9180E-3	91.3095E-12	747.853E-3	-10.4335E-3
2.51376E-3	91.3211E-12	719.267E-3	-19.6047E-3	91.2926E-12	743.405E-3	-19.5039E-3
2.50875E-3	91.4273E-12	728.174E-3	-11.8148E-3	90.9928E-12	741.984E-3	-46.4333E-3
2.50375E-3	91.0156E-12	774.736E-3	-16.6455E-3	90.3627E-12	745.222E-3	-47.7907E-3
2.49875E-3	91.1082E-12	803.638E-3	-19.5910E-3	89.8225E-12	741.537E-3	-24.5641E-3
2.49375E-3	90.3633E-12	774.466E-3	-9.66268E-3	89.4240E-12	719.829E-3	-5.03970E-3
2.48874E-3	89.8674E-12	745.342E-3	-6.61135E-3	89.0313E-12	705.729E-3	-350.830E-6
2.48374E-3	89.0131E-12	752.661E-3	-20.0952E-3	88.3492E-12	722.402E-3	-12.4566E-3
2.47874E-3	88.4365E-12	768.112E-3	-23.2908E-3	88.1596E-12	745.568E-3	-18.3922E-3
2.47374E-3	88.2070E-12	763.402E-3	-26.1544E-3	87.5825E-12	744.282E-3	-14.2544E-3
2.46873E-3	86.8350E-12	745.467E-3	-35.3993E-3	87.2645E-12	735.266E-3	-19.2976E-3
2.46373E-3	86.2007E-12	720.695E-3	-25.6305E-3	86.7067E-12	727.543E-3	-31.2012E-3
2.45873E-3	85.6771E-12	708.668E-3	-12.5011E-3	86.7137E-12	725.999E-3	-43.2526E-3
2.45373E-3	85.1618E-12	725.306E-3	-5.68706E-3	86.4617E-12	748.407E-3	-39.7499E-3
2.44872E-3	84.5171E-12	741.844E-3	-1.84798E-3	86.0182E-12	757.079E-3	-12.6615E-3
2.44372E-3	83.9791E-12	737.549E-3	-10.8036E-3	85.9766E-12	742.476E-3	8.65096E-3
2.43872E-3	84.0183E-12	723.058E-3	-18.2217E-3	85.9217E-12	748.584E-3	-7.42556E-3
2.43372E-3	83.6839E-12	715.397E-3	-13.3228E-3	85.8865E-12	764.060E-3	-36.1980E-3
2.42871E-3	84.0161E-12	731.450E-3	-5.29749E-3	85.5205E-12	772.149E-3	-34.2574E-3
2.42371E-3	84.0812E-12	755.431E-3	-7.72845E-3	85.8845E-12	772.953E-3	-18.1945E-3
2.41871E-3	84.5135E-12	747.218E-3	-15.6407E-3	85.3730E-12	754.670E-3	-13.7635E-3
2.41371E-3	84.7776E-12	725.697E-3	-9.27694E-3	85.2196E-12	736.555E-3	-15.9670E-3
2.40870E-3	84.5517E-12	733.361E-3	365.383E-6	84.5622E-12	741.237E-3	-24.3697E-3
2.40370E-3	85.0581E-12	749.717E-3	804.008E-6	84.1945E-12	760.360E-3	-25.4049E-3
2.39870E-3	84.2671E-12	745.533E-3	-7.92656E-3	83.6002E-12	756.348E-3	-10.6546E-3
2.39370E-3	84.3658E-12	729.098E-3	-20.2044E-3	83.3476E-12	727.941E-3	-7.23790E-3
2.38869E-3	84.2704E-12	722.276E-3	-13.4976E-3	83.0002E-12	718.342E-3	-18.9200E-3
2.38369E-3	84.6672E-12	734.246E-3	5.93870E-3	82.7803E-12	726.560E-3	-17.5552E-3
2.37869E-3	83.9567E-12	743.134E-3	12.4558E-3	82.4728E-12	744.301E-3	-7.39332E-3
2.37369E-3	83.3488E-12	746.941E-3	-3.96510E-3	82.4266E-12	767.359E-3	-7.69091E-3
2.36868E-3	82.7207E-12	751.115E-3	-33.3539E-3	82.1453E-12	758.701E-3	-8.64747E-3
2.36368E-3	82.3250E-12	743.038E-3	-39.7042E-3	81.9007E-12	736.102E-3	-7.11291E-3
2.35868E-3	81.7463E-12	735.686E-3	-29.6285E-3	81.7951E-12	748.975E-3	-19.8750E-3
2.35368E-3	80.6817E-12	739.063E-3	-31.7655E-3	81.3730E-12	770.026E-3	-28.5367E-3
2.34867E-3	80.7597E-12	747.745E-3	-36.3980E-3	81.0243E-12	765.752E-3	-27.3538E-3
2.34367E-3	80.4375E-12	750.535E-3	-36.3431E-3	80.5963E-12	754.232E-3	-34.5122E-3
2.33867E-3	79.9208E-12	750.734E-3	-38.6795E-3	80.4533E-12	738.838E-3	-31.3752E-3
2.33367E-3	79.3568E-12	748.533E-3	-25.0785E-3	79.7911E-12	736.830E-3	-22.9865E-3
2.32866E-3	79.3019E-12	749.644E-3	7.83953E-3	79.6524E-12	760.203E-3	-21.9928E-3
2.32366E-3	78.9437E-12	757.945E-3	10.8920E-3	79.4207E-12	761.526E-3	-5.63733E-3
2.31866E-3	78.9510E-12	758.695E-3	-14.2772E-3	79.1479E-12	739.495E-3	9.52371E-3
2.31366E-3	78.7425E-12	754.749E-3	-25.9408E-3	78.8841E-12	747.180E-3	614.807E-6
2.30865E-3	78.9307E-12	759.408E-3	-22.5683E-3	78.9596E-12	772.466E-3	-8.26893E-3
2.30365E-3	78.5913E-12	792.514E-3	-14.1166E-3	78.8134E-12	773.599E-3	-8.33655E-3
2.29865E-3	78.4714E-12	820.955E-3	-13.6421E-3	79.1580E-12	772.738E-3	-5.95279E-3
2.29365E-3	78.7684E-12	810.544E-3	-33.6761E-3	78.6847E-12	772.240E-3	3.64927E-3
2.28864E-3	78.4360E-12	780.077E-3	-38.9755E-3	78.5217E-12	751.469E-3	944.258E-6
2.28364E-3	78.6852E-12	760.538E-3	-15.6045E-3	79.1630E-12	749.896E-3	-22.3609E-3
2.27864E-3	78.3955E-12	773.741E-3	-4.03524E-3	78.5445E-12	775.885E-3	-30.0698E-3
2.27364E-3	78.7416E-12	795.052E-3	-13.7019E-3	78.4151E-12	784.046E-3	-10.9150E-3
2.26863E-3	77.9716E-12	784.946E-3	-24.3620E-3	78.0262E-12	766.224E-3	16.3535E-3
2.26363E-3	77.6642E-12	760.716E-3	-19.2423E-3	78.0491E-12	748.730E-3	33.9257E-3
2.25863E-3	77.5113E-12	745.154E-3	-10.1958E-3	77.3927E-12	742.146E-3	18.7586E-3
2.25363E-3	77.4569E-12	742.709E-3	-12.1548E-3	77.2452E-12	753.617E-3	-8.46431E-3
2.24862E-3	77.2921E-12	762.790E-3	-17.4317E-3	76.4299E-12	765.653E-3	-19.1564E-3
2.24362E-3	76.3370E-12	773.588E-3	-19.1986E-3	76.2662E-12	758.641E-3	-20.0494E-3
2.23862E-3	75.9940E-12	771.714E-3	-22.7051E-3	75.8875E-12	757.897E-3	-22.8628E-3
2.23362E-3	75.4364E-12	781.255E-3	-20.4354E-3	75.7240E-12	778.211E-3	-27.6963E-3
2.22861E-3	75.1353E-12	787.546E-3	-3.84611E-3	75.3266E-12	806.901E-3	-28.0158E-3
2.22361E-3	74.5490E-12	782.787E-3	3.46657E-3	75.1744E-12	817.465E-3	-21.4354E-3
2.21861E-3	74.5729E-12	778.239E-3	-17.3731E-3	74.9019E-12	812.359E-3	-10.0239E-3
2.21361E-3	74.3780E-12	770.337E-3	-35.1384E-3	74.4450E-12	805.878E-3	-14.7147E-3
2.20860E-3	74.1158E-12	755.296E-3	-21.5837E-3	74.4883E-12	785.608E-3	-24.4170E-3
2.20360E-3	74.2088E-12	753.602E-3	-1.71502E-3	74.5345E-12	770.735E-3	-16.7355E-3
2.19860E-3	74.3773E-12	773.088E-3	-6.37039E-3	74.2627E-12	783.315E-3	-8.44538E-3
2.19360E-3	74.3778E-12	782.641E-3	-14.9076E-3	74.4261E-12	800.581E-3	-3.63482E-3
2.18859E-3	74.1228E-12	772.452E-3	-11.4086E-3	74.8666E-12	792.937E-3	-4.99139E-3
2.18359E-3	74.1596E-12	770.413E-3	-10.6886E-3	74.4833E-12	777.375E-3	-19.3822E-3
2.17859E-3	74.3130E-12	778.895E-3	-775.791E-6	73.9566E-12	785.814E-3	-18.9239E-3
2.17359E-3	73.9238E-12	787.571E-3	682.739E-6	73.6113E-12	796.771E-3	993.190E-6
2.16858E-3	73.4587E-12	797.026E-3	-20.4051E-3	73.4093E-12	784.205E-3	8.75462E-3
2.16358E-3	73.0605E-12	794.741E-3	-35.5994E-3	72.9717E-12	770.713E-3	-11.8035E-3
2.15858E-3	72.4783E-12	781.066E-3	-42.3523E-3	72.1495E-12	771.764E-3	-46.3118E-3
2.15358E-3	71.9512E-12	774.143E-3	-40.4068E-3	71.5189E-12	781.908E-3	-57.8346E-3
2.14857E-3	71.5163E-12	791.208E-3	-22.8845E-3	71.1763E-12	795.991E-3	-44.6510E-3
2.14357E-3	70.9356E-12	824.028E-3	-10.6540E-3	70.8032E-12	810.418E-3	-21.8124E-3
2.13857E-3	70.3802E-12	834.382E-3	-14.9022E-3	70.0765E-12	809.799E-3	9.14808E-3
2.13357E-3	69.9862E-12	820.974E-3	-8.38821E-3	69.9005E-12	794.724E-3	12.4931E-3
2.12856E-3	69.7227E-12	806.458E-3	7.08493E-3	69.4470E-12	786.469E-3	-29.7934E-3
2.12356E-3	69.2957E-12	808.180E-3	-8.67433E-3	69.1024E-12	789.945E-3	-44.2822E-3
2.11856E-3	68.9503E-12	809.937E-3	-40.7463E-3	68.7916E-12	800.253E-3	-10.6940E-3
2.11356E-3	69.0046E-12	796.461E-3	-51.5144E-3	68.6240E-12	796.760E-3	2.25714E-3
2.10855E-3	69.4464E-12	788.695E-3	-42.1135E-3	68.4608E-12	781.269E-3	-13.1630E-3
2.10355E-3	68.7976E-12	802.022E-3	-26.3247E-3	68.3058E-12	790.792E-3	-27.9840E-3
2.09855E-3	68.8952E-12	820.198E-3	-16.4985E-3	68.7329E-12	828.453E-3	-31.0115E-3
2.09355E-3	69.0326E-12	816.072E-3	-17.2100E-3	68.2652E-12	852.075E-3	-21.5193E-3
2.08854E-3	68.9869E-12	800.132E-3	-32.9939E-3	68.2200E-12	827.288E-3	-14.5859E-3
2.08354E-3	68.6592E-12	794.201E-3	-44.2455E-3	67.7730E-12	793.561E-3	-14.7481E-3
2.07854E-3	68.7511E-12	805.228E-3	-31.5529E-3	67.5360E-12	802.424E-3	-18.3149E-3
2.07354E-3	68.1557E-12	823.750E-3	-20.9330E-3	67.0848E-12	828.291E-3	-25.7814E-3
2.06853E-3	67.8853E-12	830.539E-3	-21.1492E-3	66.6834E-12	827.234E-3	-23.2788E-3
2.06353E-3	67.2961E-12	833.085E-3	-24.3752E-3	66.3075E-12	806.698E-3	-828.308E-6
2.05853E-3	66.7500E-12	831.907E-3	-27.4026E-3	65.9280E-12	793.869E-3	18.4842E-3
2.05353E-3	66.3971E-12	828.471E-3	-25.7423E-3	65.7411E-12	804.893E-3	7.92201E-3
2.04852E-3	65.7977E-12	834.855E-3	-31.9892E-3	65.4331E-12	827.873E-3	-14.4813E-3
2.04352E-3	65.1623E-12	841.325E-3	-48.2770E-3	64.6089E-12	838.472E-3	-19.5582E-3
2.03852E-3	64.4729E-12	833.950E-3	-53.6709E-3	64.5021E-12	835.576E-3	-11.7801E-3
2.03352E-3	64.1212E-12	802.791E-3	-42.2399E-3	64.2517E-12	822.613E-3	-3.54555E-3
2.02851E-3	63.5295E-12	775.605E-3	-20.2711E-3	64.2168E-12	812.627E-3	1.85047E-3
2.02351E-3	63.1574E-12	790.299E-3	-286.883E-6	63.7453E-12	819.470E-3	1.99216E-3
2.01851E-3	62.7443E-12	816.187E-3	3.26916E-3	63.5699E-12	836.081E-3	8.59435E-3
2.01351E-3	62.5420E-12	811.724E-3	-6.62146E-3	63.4671E-12	844.606E-3	16.9765E-3
2.00850E-3	61.9689E-12	789.432E-3	-14.8088E-3	63.5195E-12	835.313E-3	6.45196E-3
2.00350E-3	61.9715E-12	785.210E-3	-15.2889E-3	63.3136E-12	829.711E-3	-24.3561E-3
1.99850E-3	62.1260E-12	806.590E-3	-14.1460E-3	62.9955E-12	834.784E-3	-49.1417E-3
1.99350E-3	61.9287E-12	816.692E-3	-8.11673E-3	62.9225E-12	831.009E-3	-39.4261E-3
1.98849E-3	61.6861E-12	814.818E-3	-13.1653E-3	62.7617E-12	834.535E-3	-15.4513E-3
1.98349E-3	61.6381E-12	820.363E-3	-27.8007E-3	62.6357E-12	845.819E-3	-8.76215E-3
1.97849E-3	61.8917E-12	832.028E-3	-26.7136E-3	62.0127E-12	837.997E-3	-18.3273E-3
1.97349E-3	61.6662E-12	848.750E-3	-15.3378E-3	62.0449E-12	833.202E-3	-21.6897E-3
1.96848E-3	61.2409E-12	849.560E-3	-10.0906E-3	61.5637E-12	842.543E-3	-12.4301E-3
1.96348E-3	61.4938E-12	836.968E-3	-21.6528E-3	61.2330E-12	844.127E-3	1.16398E-3
1.95848E-3	61.0641E-12	831.604E-3	-36.5179E-3	61.3215E-12	841.661E-3	7.13286E-3
1.95348E-3	60.9222E-12	839.191E-3	-27.5556E-3	60.9849E-12	838.369E-3	-5.61001E-3
1.94847E-3	60.5722E-12	852.802E-3	-10.7344E-3	60.8258E-12	841.824E-3	-17.6751E-3
1.94347E-3	60.4214E-12	859.760E-3	-11.0294E-3	60.3805E-12	863.110E-3	-10.7176E-3
1.93847E-3	59.8346E-12	862.393E-3	-16.4674E-3	60.2748E-12	884.712E-3	-7.12680E-3
1.93347E-3	59.5544E-12	864.214E-3	-18.9632E-3	59.8601E-12	894.108E-3	-7.61324E-3
1.92846E-3	59.1697E-12	858.904E-3	-22.7794E-3	59.5425E-12	888.726E-3	1.23028E-3
1.92346E-3	58.5599E-12	850.621E-3	-23.3757E-3	59.2027E-12	877.333E-3	-1.26032E-3
1.91846E-3	58.1289E-12	853.648E-3	-12.6995E-3	58.9983E-12	878.175E-3	-11.2532E-3
1.91346E-3	57.4361E-12	870.805E-3	-5.58595E-3	58.4541E-12	877.088E-3	-6.14335E-3
1.90845E-3	57.4022E-12	878.148E-3	-19.8379E-3	57.9406E-12	865.624E-3	2.77564E-3
1.90345E-3	56.9019E-12	870.139E-3	-22.3398E-3	57.6876E-12	857.423E-3	-8.63533E-3
1.89845E-3	56.4285E-12	862.305E-3	-4.50611E-3	57.1526E-12	862.566E-3	-36.1830E-3
1.89345E-3	56.3587E-12	862.262E-3	-685.843E-6	57.2245E-12	887.400E-3	-46.0510E-3
1.88844E-3	56.0992E-12	872.249E-3	-15.6221E-3	56.5117E-12	899.777E-3	-22.7934E-3
1.88344E-3	56.2157E-12	869.094E-3	-19.6092E-3	56.2394E-12	895.432E-3	2.77320E-3
1.87844E-3	55.8827E-12	856.411E-3	-11.2242E-3	56.2118E-12	895.251E-3	-4.42701E-3
1.87344E-3	55.6886E-12	859.928E-3	-7.81931E-3	56.3101E-12	891.632E-3	-26.5824E-3
1.86843E-3	55.4352E-12	872.992E-3	-4.59571E-3	55.9672E-12	888.189E-3	-30.4135E-3
1.86343E-3	55.8713E-12	877.095E-3	-17.7692E-3	55.7815E-12	891.867E-3	-20.3195E-3
1.85843E-3	55.5775E-12	877.092E-3	-44.6755E-3	55.6623E-12	896.329E-3	-6.25712E-3
1.85343E-3	55.2815E-12	876.340E-3	-42.5127E-3	55.7427E-12	894.623E-3	-3.29264E-3
1.84842E-3	55.2053E-12	879.889E-3	-12.6414E-3	55.2967E-12	897.369E-3	-19.7918E-3
1.84342E-3	54.9096E-12	896.518E-3	-3.48580E-3	54.7346E-12	916.516E-3	-31.1875E-3
1.83842E-3	54.5508E-12	904.755E-3	-15.5483E-3	54.3283E-12	918.709E-3	-22.5701E-3
1.83342E-3	53.8175E-12	896.732E-3	-26.5893E-3	54.0306E-12	893.784E-3	-6.94077E-3
1.82841E-3	53.6220E-12	895.566E-3	-34.2244E-3	53.6592E-12	882.117E-3	17.7442E-6
1.82341E-3	52.5802E-12	912.694E-3	-23.1587E-3	53.0497E-12	894.229E-3	-10.7730E-3
1.81841E-3	52.1815E-12	926.471E-3	929.330E-6	52.5882E-12	917.935E-3	-21.6457E-3
1.81341E-3	51.6664E-12	935.772E-3	972.900E-6	51.6406E-12	938.678E-3	-23.5847E-3
1.80840E-3	51.1635E-12	937.986E-3	-16.6416E-3	51.5425E-12	934.376E-3	-26.3230E-3
1.80340E-3	50.6606E-12	921.756E-3	-26.3928E-3	50.9380E-12	911.355E-3	-27.9783E-3
1.79840E-3	50.1987E-12	907.556E-3	-35.3371E-3	50.7856E-12	910.325E-3	-27.2713E-3
1.79340E-3	49.9689E-12	905.269E-3	-33.1463E-3	50.2933E-12	923.192E-3	-21.2458E-3
1.78839E-3	49.7460E-12	907.206E-3	-20.4468E-3	50.0628E-12	932.033E-3	-15.2978E-3
1.78339E-3	49.9382E-12	910.340E-3	-22.9795E-3	49.9767E-12	940.536E-3	-11.2168E-3
1.77839E-3	49.8136E-12	904.195E-3	-28.2845E-3	49.8552E-12	951.817E-3	-4.61857E-3
1.77339E-3	49.7472E-12	890.452E-3	-23.6046E-3	49.6531E-12	961.723E-3	-6.84919E-3
1.76838E-3	49.8724E-12	897.834E-3	-25.2895E-3	49.2128E-12	956.188E-3	-14.9058E-3
1.76338E-3	49.6637E-12	918.394E-3	-38.3514E-3	49.1888E-12	949.804E-3	-15.0588E-3
1.75838E-3	49.7897E-12	929.944E-3	-47.8932E-3	48.8278E-12	950.998E-3	-10.1231E-3
1.75338E-3	49.2491E-12	942.502E-3	-39.9650E-3	48.7891E-12	951.686E-3	-19.9091E-3
1.74837E-3	49.1079E-12	955.874E-3	-28.8722E-3	48.1439E-12	956.654E-3	-40.8127E-3
1.74337E-3	48.5966E-12	965.246E-3	-27.5198E-3	48.0931E-12	964.747E-3	-40.1587E-3
1.73837E-3	47.8867E-12	976.377E-3	-28.6788E-3	47.6983E-12	978.925E-3	-22.3118E-3
1.73337E-3	47.4141E-12	982.672E-3	-28.1077E-3	47.5276E-12	984.410E-3	-11.2832E-3
1.72836E-3	46.8885E-12	973.875E-3	-20.8887E-3	46.8357E-12	962.369E-3	-4.60385E-3
1.72336E-3	46.6062E-12	957.787E-3	-5.38776E-3	46.5685E-12	943.749E-3	4.45669E-3
1.71836E-3	45.5885E-12	959.481E-3	14.0750E-3	46.0212E-12	958.905E-3	9.43473E-3
1.71336E-3	45.3807E-12	968.019E-3	11.9038E-3	45.5966E-12	991.313E-3	3.93825E-3
1.70835E-3	44.8791E-12	960.218E-3	-11.5546E-3	45.2259E-12	1.01053E+0	-10.6008E-3
1.70335E-3	44.6238E-12	948.711E-3	-27.3160E-3	44.7604E-12	1.01096E+0	-23.9823E-3
1.69835E-3	43.8843E-12	944.638E-3	-37.6405E-3	44.6925E-12	1.00343E+0	-26.9211E-3
1.69335E-3	43.7981E-12	954.126E-3	-33.8945E-3	44.3977E-12	999.126E-3	-20.7392E-3
1.68834E-3	43.8905E-12	969.567E-3	-15.0133E-3	44.2618E-12	1.00518E+0	-12.3875E-3
1.68334E-3	43.7540E-12	982.161E-3	-13.1905E-3	44.0713E-12	1.01691E+0	-6.04849E-3
1.67834E-3	43.3209E-12	996.821E-3	-21.4630E-3	43.7984E-12	1.02524E+0	2.41704E-3
1.67334E-3	43.2753E-12	1.00510E+0	-15.6407E-3	43.4151E-12	1.04078E+0	10.5010E-3
1.66833E-3	43.4742E-12	1.00269E+0	-10.5016E-3	43.2176E-12	1.05161E+0	2.33503E-3
1.66333E-3	42.9986E-12	1.00612E+0	-17.1169E-3	43.0767E-12	1.05425E+0	-20.1504E-3
1.65833E-3	42.7592E-12	1.01448E+0	-19.6714E-3	42.6326E-12	1.06274E+0	-31.9747E-3
1.65333E-3	42.5723E-12	1.01377E+0	-13.4088E-3	42.3290E-12	1.05813E+0	-33.7633E-3
1.64832E-3	42.3259E-12	1.01568E+0	-13.7043E-3	41.9272E-12	1.04318E+0	-30.4033E-3
1.64332E-3	41.7617E-12	1.02976E+0	-20.9679E-3	41.8483E-12	1.04086E+0	-21.8358E-3
1.63832E-3	41.3783E-12	1.04486E+0	-15.8824E-3	41.2827E-12	1.05448E+0	-16.3689E-3
1.63332E-3	41.1114E-12	1.03825E+0	-5.03163E-3	40.9995E-12	1.06758E+0	-13.2061E-3
1.62831E-3	40.4866E-12	1.01717E+0	-8.79298E-3	40.6110E-12	1.06530E+0	-12.7234E-3
1.62331E-3	40.0160E-12	1.01448E+0	-15.3898E-3	40.3525E-12	1.05204E+0	-13.0281E-3
1.61831E-3	39.4027E-12	1.02386E+0	-17.0497E-3	39.9338E-12	1.04802E+0	-7.05199E-3
1.61331E-3	39.3222E-12	1.03140E+0	-16.3093E-3	39.3314E-12	1.06947E+0	-7.51710E-3
1.60830E-3	38.7649E-12	1.04126E+0	-13.1610E-3	38.9935E-12	1.08240E+0	-9.19398E-3
1.60330E-3	38.3287E-12	1.04499E+0	-12.4276E-3	38.8448E-12	1.06066E+0	3.32475E-3
1.59830E-3	37.9783E-12	1.04705E+0	-13.5011E-3	38.3638E-12	1.04253E+0	6.97169E-3
1.59330E-3	37.8581E-12	1.04979E+0	-4.51587E-3	37.7524E-12	1.05941E+0	-16.9531E-3
1.58829E-3	37.2491E-12	1.05095E+0	14.2587E-3	37.6996E-12	1.08890E+0	-45.8553E-3
1.58329E-3	36.8179E-12	1.06388E+0	13.5345E-3	37.2755E-12	1.10359E+0	-44.8734E-3
1.57829E-3	36.7158E-12	1.07893E+0	-7.25970E-3	37.0079E-12	1.11349E+0	-27.9713E-3
1.57329E-3	36.2566E-12	1.08146E+0	-23.6498E-3	36.5874E-12	1.12366E+0	-18.0079E-3
1.56828E-3	35.9363E-12	1.07853E+0	-33.9801E-3	36.2217E-12	1.12374E+0	-21.8825E-3
1.56328E-3	35.6338E-12	1.08214E+0	-35.1945E-3	35.7549E-12	1.12622E+0	-27.0783E-3
1.55828E-3	35.2305E-12	1.09037E+0	-31.6723E-3	35.4462E-12	1.13525E+0	-14.1334E-3
1.55328E-3	35.0073E-12	1.09188E+0	-34.7246E-3	35.0899E-12	1.13384E+0	-3.37423E-3
1.54827E-3	34.6620E-12	1.09101E+0	-35.1853E-3	34.8245E-12	1.13385E+0	-7.26236E-3
1.54327E-3	34.1602E-12	1.09468E+0	-27.3699E-3	34.4520E-12	1.14505E+0	-25.6723E-3
1.53827E-3	34.1007E-12	1.09656E+0	-20.3928E-3	33.9302E-12	1.15765E+0	-53.6117E-3
1.53327E-3	33.9684E-12	1.10744E+0	-15.6471E-3	33.8185E-12	1.16385E+0	-56.7718E-3
1.52826E-3	33.4898E-12	1.13007E+0	-12.6562E-3	33.5102E-12	1.15862E+0	-32.6402E-3
1.52326E-3	32.9413E-12	1.13361E+0	-16.3839E-3	33.0204E-12	1.14889E+0	-2.62960E-3
1.51826E-3	32.9667E-12	1.12577E+0	-17.4028E-3	32.3225E-12	1.14399E+0	22.3734E-3
1.51326E-3	32.2920E-12	1.13593E+0	-19.1712E-3	31.9714E-12	1.14700E+0	26.9166E-3
1.50825E-3	31.9401E-12	1.15486E+0	-29.8710E-3	31.6872E-12	1.15468E+0	5.07540E-3
1.50325E-3	31.2742E-12	1.15825E+0	-30.4709E-3	31.2215E-12	1.16018E+0	-17.6623E-3
1.49825E-3	31.1016E-12	1.15355E+0	-19.2468E-3	30.4999E-12	1.15694E+0	-14.2259E-3
1.49325E-3	30.6120E-12	1.15825E+0	-19.3102E-3	30.0073E-12	1.14815E+0	-7.76354E-3
1.48824E-3	30.0115E-12	1.16204E+0	-20.1186E-3	29.8430E-12	1.14470E+0	-21.5022E-3
1.48324E-3	29.5225E-12	1.16691E+0	-6.32181E-3	29.3983E-12	1.14730E+0	-30.4614E-3
1.47824E-3	28.9762E-12	1.17205E+0	5.24538E-3	28.7754E-12	1.15954E+0	-10.2798E-3
1.47324E-3	28.6860E-12	1.16639E+0	-1.74384E-3	28.4939E-12	1.17797E+0	-2.98120E-3
1.46823E-3	27.8902E-12	1.15520E+0	-10.5715E-3	28.2148E-12	1.18649E+0	-30.4934E-3
1.46323E-3	27.7145E-12	1.14656E+0	-3.93302E-3	27.9086E-12	1.18439E+0	-36.5310E-3
1.45823E-3	27.4455E-12	1.14587E+0	505.633E-6	27.2831E-12	1.17572E+0	-15.1956E-3
1.45323E-3	27.1969E-12	1.14251E+0	-4.24333E-3	27.0973E-12	1.17262E+0	-5.17709E-3
1.44822E-3	26.7183E-12	1.14241E+0	-17.7486E-3	26.8497E-12	1.18481E+0	-9.54993E-3
1.44322E-3	26.4203E-12	1.16272E+0	-30.4792E-3	26.4634E-12	1.19154E+0	-3.50990E-3
1.43822E-3	26.2814E-12	1.18277E+0	-29.7819E-3	26.0781E-12	1.17996E+0	3.97461E-3
1.43322E-3	25.9762E-12	1.18821E+0	-21.8521E-3	25.8139E-12	1.16364E+0	-8.98064E-3
1.42821E-3	25.5986E-12	1.19346E+0	-14.1641E-3	25.5217E-12	1.15673E+0	-13.0610E-3
1.42321E-3	25.0408E-12	1.19717E+0	-12.7441E-3	24.9335E-12	1.15690E+0	-1.60631E-3
1.41821E-3	24.6846E-12	1.19800E+0	-14.7523E-3	24.3936E-12	1.16285E+0	-3.49289E-3
1.41321E-3	24.1703E-12	1.19949E+0	-8.14675E-3	24.0741E-12	1.17428E+0	-19.6836E-3
1.40820E-3	23.6402E-12	1.19843E+0	3.85273E-3	23.6368E-12	1.17540E+0	-23.0481E-3
1.40320E-3	23.0723E-12	1.19821E+0	234.515E-6	23.0579E-12	1.16557E+0	-8.64109E-3
1.39820E-3	22.7170E-12	1.18884E+0	-13.6375E-3	22.6454E-12	1.16056E+0	2.48301E-3
1.39320E-3	22.1839E-12	1.16821E+0	-16.0402E-3	22.3450E-12	1.16169E+0	-45.8113E-6
1.38819E-3	21.6463E-12	1.15728E+0	-8.88367E-3	21.8256E-12	1.16277E+0	-6.37065E-3
1.38319E-3	21.3536E-12	1.15777E+0	733.565E-6	21.4176E-12	1.16488E+0	-9.32526E-3
1.37819E-3	21.0849E-12	1.15599E+0	-1.72148E-3	21.0703E-12	1.16038E+0	-8.66399E-3
1.37319E-3	20.6461E-12	1.14904E+0	-17.0097E-3	20.7999E-12	1.13995E+0	-6.13423E-3
1.36818E-3	20.1955E-12	1.14842E+0	-20.7535E-3	20.5757E-12	1.12318E+0	-9.16378E-3
1.36318E-3	19.9896E-12	1.14702E+0	-7.74938E-3	20.0109E-12	1.12916E+0	-10.6579E-3
1.35818E-3	19.7643E-12	1.13278E+0	2.91722E-3	19.7756E-12	1.14234E+0	-3.00260E-3
1.35318E-3	19.3741E-12	1.12277E+0	-9.28122E-3	19.5428E-12	1.15005E+0	1.98397E-3
1.34817E-3	19.0735E-12	1.13153E+0	-24.8608E-3	19.2603E-12	1.14575E+0	-4.78788E-3
1.34317E-3	19.0781E-12	1.14626E+0	-20.3461E-3	18.8018E-12	1.12591E+0	-20.8655E-3
1.33817E-3	18.8063E-12	1.15061E+0	-20.9374E-3	18.5456E-12	1.10989E+0	-32.2028E-3
1.33317E-3	18.2383E-12	1.14840E+0	-24.6229E-3	18.2586E-12	1.10991E+0	-31.3691E-3
1.32816E-3	17.8030E-12	1.14729E+0	-15.9365E-3	17.8580E-12	1.11245E+0	-24.5821E-3
1.32316E-3	17.5467E-12	1.15356E+0	-19.2535E-3	17.4277E-12	1.10575E+0	-17.5488E-3
1.31816E-3	17.0944E-12	1.15747E+0	-33.1776E-3	16.8786E-12	1.09572E+0	-12.1624E-3
1.31316E-3	16.5921E-12	1.13334E+0	-32.3268E-3	16.6316E-12	1.08313E+0	-11.9799E-3
1.30815E-3	16.1578E-12	1.09563E+0	-19.8878E-3	16.2099E-12	1.06994E+0	-21.1252E-3
1.30315E-3	15.8284E-12	1.07937E+0	-6.13137E-3	15.8384E-12	1.06584E+0	-25.4785E-3
1.29815E-3	15.3978E-12	1.08170E+0	7.48062E-3	15.4162E-12	1.06551E+0	-18.5120E-3
1.29315E-3	14.8815E-12	1.06888E+0	6.66255E-3	15.1263E-12	1.05278E+0	-17.6656E-3
1.28814E-3	14.5503E-12	1.04393E+0	-2.67790E-3	14.7586E-12	1.03098E+0	-26.5631E-3
1.28314E-3	14.2513E-12	1.04198E+0	838.807E-6	14.3837E-12	1.01854E+0	-25.7973E-3
1.27814E-3	13.8643E-12	1.05098E+0	2.31928E-3	14.0636E-12	1.01513E+0	-11.6460E-3
1.27314E-3	13.4685E-12	1.04241E+0	-14.1496E-3	13.7317E-12	1.00963E+0	-797.128E-6
1.26813E-3	13.2581E-12	1.01760E+0	-26.6436E-3	13.3353E-12	997.337E-3	-7.88395E-3
1.26313E-3	13.0034E-12	991.898E-3	-28.0135E-3	13.0014E-12	976.043E-3	-18.5597E-3
1.25813E-3	12.6052E-12	983.727E-3	-27.9543E-3	12.8151E-12	953.179E-3	-23.4322E-3
1.25313E-3	12.3264E-12	986.250E-3	-29.2573E-3	12.5239E-12	937.426E-3	-31.6679E-3
1.24812E-3	12.1390E-12	984.062E-3	-31.9410E-3	12.0430E-12	925.798E-3	-21.9804E-3
1.24312E-3	11.8535E-12	977.339E-3	-29.8757E-3	11.7288E-12	919.100E-3	-314.915E-6
1.23812E-3	11.5032E-12	955.087E-3	-12.8359E-3	11.6127E-12	912.983E-3	-251.168E-6
1.23312E-3	11.1952E-12	931.034E-3	4.59683E-3	11.4009E-12	909.864E-3	-20.1477E-3
1.22811E-3	10.9718E-12	933.158E-3	-471.383E-6	10.8987E-12	909.053E-3	-32.7215E-3
1.22311E-3	10.7186E-12	938.909E-3	-10.8415E-3	10.5661E-12	881.977E-3	-21.1885E-3
1.21811E-3	10.2188E-12	919.119E-3	-20.1293E-3	10.4053E-12	837.008E-3	-9.19798E-3
1.21311E-3	9.88338E-12	881.188E-3	-34.0086E-3	10.1164E-12	810.286E-3	-9.51492E-3
1.20810E-3	9.65637E-12	847.533E-3	-37.3185E-3	9.66661E-12	807.006E-3	-18.9872E-3
1.20310E-3	9.45318E-12	841.516E-3	-38.6645E-3	9.31984E-12	805.560E-3	-29.6308E-3
1.19810E-3	9.04506E-12	841.828E-3	-42.6779E-3	9.10406E-12	790.570E-3	-23.5646E-3
1.19310E-3	8.78855E-12	823.013E-3	-38.0525E-3	8.86831E-12	770.382E-3	-14.3047E-3
1.18809E-3	8.54584E-12	803.385E-3	-23.8791E-3	8.50292E-12	747.096E-3	-14.5012E-3
1.18309E-3	8.34494E-12	790.047E-3	-5.04995E-3	8.19963E-12	721.398E-3	-16.4475E-3
1.17809E-3	7.99417E-12	767.003E-3	1.29031E-3	7.97615E-12	705.823E-3	-16.4530E-3
1.17309E-3	7.76050E-12	737.560E-3	-4.83564E-3	7.77403E-12	689.782E-3	-20.6189E-3
1.16808E-3	7.55615E-12	728.425E-3	-15.2041E-3	7.50778E-12	660.241E-3	-27.7939E-3
1.16308E-3	7.32088E-12	734.395E-3	-15.4497E-3	7.28960E-12	633.649E-3	-31.8070E-3
1.15808E-3	7.06189E-12	725.580E-3	-2.22843E-3	7.00698E-12	622.638E-3	-30.3698E-3
1.15308E-3	6.85861E-12	703.693E-3	1.04422E-3	6.79172E-12	622.908E-3	-21.8529E-3
1.14807E-3	6.61965E-12	687.402E-3	-6.09742E-3	6.58632E-12	625.959E-3	-18.0690E-3
1.14307E-3	6.42228E-12	667.590E-3	-19.6129E-3	6.45174E-12	615.744E-3	-17.4036E-3
1.13807E-3	6.25982E-12	640.334E-3	-41.4985E-3	6.21312E-12	592.278E-3	-15.1611E-3
1.13307E-3	6.06992E-12	624.008E-3	-40.3744E-3	5.94944E-12	572.343E-3	-19.6437E-3
1.12806E-3	5.92494E-12	613.676E-3	-14.9539E-3	5.83148E-12	554.277E-3	-19.2484E-3
1.12306E-3	5.59819E-12	602.126E-3	-11.7419E-3	5.70794E-12	536.270E-3	-10.9541E-3
1.11806E-3	5.44950E-12	591.929E-3	-21.7502E-3	5.48414E-12	519.699E-3	-10.0221E-3
1.11306E-3	5.30676E-12	573.912E-3	-18.9767E-3	5.19720E-12	505.104E-3	-17.8676E-3
1.10805E-3	5.14284E-12	555.518E-3	-14.5103E-3	4.99646E-12	496.117E-3	-18.9645E-3
1.10305E-3	4.89092E-12	550.423E-3	-6.24543E-3	4.90764E-12	493.803E-3	-16.5432E-3
1.09805E-3	4.72258E-12	538.894E-3	-4.58933E-3	4.79070E-12	479.773E-3	-22.7565E-3
1.09305E-3	4.63568E-12	514.308E-3	-16.3832E-3	4.46706E-12	447.586E-3	-20.1658E-3
1.08804E-3	4.51914E-12	499.895E-3	-12.0232E-3	4.27078E-12	422.886E-3	-9.93898E-3
1.08304E-3	4.26825E-12	496.380E-3	1.84128E-3	4.24734E-12	406.248E-3	-8.50215E-3
1.07804E-3	4.04829E-12	481.194E-3	-3.29027E-3	4.11081E-12	389.669E-3	-9.50663E-3
1.07304E-3	3.94989E-12	451.747E-3	-17.0472E-3	3.85129E-12	384.388E-3	-15.8936E-3
1.06803E-3	3.80956E-12	428.333E-3	-18.7810E-3	3.65907E-12	378.862E-3	-29.6093E-3
1.06303E-3	3.66251E-12	412.341E-3	-16.7566E-3	3.58068E-12	357.374E-3	-30.7471E-3
1.05803E-3	3.47454E-12	399.034E-3	-16.4964E-3	3.56751E-12	334.903E-3	-20.6743E-3
1.05303E-3	3.33379E-12	391.296E-3	-13.0624E-3	3.36099E-12	323.056E-3	-18.8930E-3
1.04802E-3	3.25417E-12	381.173E-3	-7.08384E-3	3.26074E-12	313.340E-3	-20.3908E-3
1.04302E-3	3.25189E-12	367.108E-3	-7.50543E-3	3.32227E-12	304.434E-3	-19.8546E-3
1.03802E-3	3.07394E-12	355.389E-3	-17.1676E-3	3.12247E-12	290.814E-3	-24.7777E-3
1.03302E-3	2.86547E-12	344.166E-3	-18.3665E-3	2.92339E-12	264.248E-3	-26.9466E-3
1.02801E-3	2.67445E-12	328.128E-3	-12.6971E-3	2.71196E-12	248.714E-3	-20.6093E-3
1.02301E-3	2.49454E-12	313.010E-3	-2.07996E-3	2.49600E-12	251.559E-3	-17.7821E-3
1.01801E-3	2.45034E-12	289.292E-3	-1.99056E-3	2.34444E-12	234.503E-3	-9.82114E-3
1.01301E-3	2.30974E-12	257.206E-3	-18.7115E-3	2.32440E-12	202.107E-3	5.03294E-3
1.00800E-3	2.16243E-12	245.032E-3	-17.6197E-3	2.27788E-12	187.121E-3	-8.35097E-3
1.00300E-3	2.09134E-12	243.356E-3	-8.89662E-3	2.13813E-12	182.713E-3	-32.8280E-3
997.999E-6	2.10486E-12	236.553E-3	-18.1366E-3	1.99454E-12	192.171E-3	-25.8145E-3
992.997E-6	1.97357E-12	227.066E-3	-31.7166E-3	1.93098E-12	208.486E-3	-13.4658E-3
987.994E-6	1.88040E-12	201.520E-3	-38.9615E-3	1.92925E-12	198.430E-3	-15.4892E-3
982.991E-6	1.78567E-12	182.536E-3	-40.6132E-3	1.91210E-12	174.164E-3	-21.1541E-3
977.989E-6	1.77825E-12	189.305E-3	-35.8205E-3	1.71643E-12	165.461E-3	-25.3399E-3
972.986E-6	1.73332E-12	195.592E-3	-25.6588E-3	1.64920E-12	164.829E-3	-25.6980E-3
967.984E-6	1.56924E-12	191.888E-3	-14.9077E-3	1.70749E-12	157.158E-3	-19.7107E-3
962.981E-6	1.48886E-12	181.575E-3	-6.24912E-3	1.63483E-12	143.762E-3	-4.65117E-3
957.979E-6	1.53955E-12	161.622E-3	-2.49928E-3	1.50928E-12	132.191E-3	1.34173E-3
952.976E-6	1.46539E-12	143.333E-3	-13.2446E-3	1.44399E-12	125.073E-3	-3.26665E-3
947.974E-6	1.36043E-12	142.352E-3	-25.0075E-3	1.44805E-12	127.480E-3	-3.97770E-3
942.971E-6	1.36892E-12	149.896E-3	-20.6580E-3	1.42685E-12	135.559E-3	-4.32322E-3
937.969E-6	1.31655E-12	143.800E-3	-9.05573E-3	1.37553E-12	125.425E-3	-9.85024E-3
932.966E-6	1.31983E-12	136.361E-3	516.715E-6	1.28679E-12	107.132E-3	-15.8002E-3
927.964E-6	1.28462E-12	138.060E-3	6.34036E-3	1.27405E-12	99.0610E-3	-12.8236E-3
922.961E-6	1.20300E-12	128.047E-3	-5.67794E-3	1.23766E-12	92.7518E-3	-5.20834E-3
917.959E-6	1.21592E-12	122.998E-3	-22.4793E-3	1.20599E-12	86.0308E-3	-3.53261E-3
912.956E-6	1.11272E-12	126.485E-3	-13.3393E-3	1.17826E-12	75.9157E-3	-2.45862E-3
907.954E-6	1.11317E-12	113.231E-3	-14.0227E-3	1.13731E-12	66.0572E-3	6.95312E-3
902.951E-6	1.08999E-12	104.922E-3	-32.1785E-3	1.06422E-12	67.9965E-3	6.44498E-3
897.949E-6	1.02093E-12	107.960E-3	-26.1306E-3	1.02025E-12	69.8057E-3	-12.6361E-3
892.946E-6	919.859E-15	101.380E-3	-17.3240E-3	1.05326E-12	66.6434E-3	-20.6654E-3
887.944E-6	1.01420E-12	97.7736E-3	-27.9779E-3	916.641E-15	69.5042E-3	-9.49949E-3
882.941E-6	1.00210E-12	89.8642E-3	-29.4324E-3	904.940E-15	70.2833E-3	-9.24794E-3
877.939E-6	906.056E-15	69.5515E-3	-15.1542E-3	880.029E-15	61.1182E-3	-27.4421E-3
872.936E-6	844.724E-15	56.8328E-3	-13.4986E-3	921.062E-15	52.0857E-3	-33.7440E-3
867.934E-6	842.300E-15	57.4857E-3	-14.6410E-3	863.480E-15	54.4425E-3	-30.9219E-3
862.931E-6	906.291E-15	61.8005E-3	-10.9875E-3	779.582E-15	49.1234E-3	-35.5927E-3
857.929E-6	832.988E-15	60.0840E-3	-14.9887E-3	769.050E-15	43.7124E-3	-30.5407E-3
852.926E-6	761.507E-15	62.8510E-3	-7.81138E-3	830.756E-15	46.6392E-3	-21.8205E-3
847.924E-6	752.335E-15	64.5361E-3	-4.22187E-3	819.343E-15	43.8208E-3	-28.1153E-3
842.921E-6	778.772E-15	62.8791E-3	-21.6360E-3	693.052E-15	51.8462E-3	-33.4156E-3
837.919E-6	779.216E-15	67.0801E-3	-27.2244E-3	678.064E-15	60.3644E-3	-25.1288E-3
832.916E-6	660.581E-15	60.7453E-3	-24.2845E-3	777.333E-15	46.8290E-3	-18.3659E-3
827.914E-6	686.922E-15	48.7210E-3	-35.2615E-3	759.964E-15	23.6206E-3	-28.1599E-3
822.911E-6	717.013E-15	52.7761E-3	-31.8631E-3	724.119E-15	17.2970E-3	-39.8239E-3
817.909E-6	663.241E-15	57.5078E-3	-17.9011E-3	634.947E-15	26.4603E-3	-31.6206E-3
812.906E-6	645.506E-15	51.9802E-3	-20.9331E-3	646.630E-15	27.8666E-3	-18.5340E-3
807.904E-6	630.378E-15	47.7534E-3	-23.5925E-3	689.634E-15	23.8917E-3	-13.9107E-3
802.901E-6	588.682E-15	27.7107E-3	-19.1775E-3	655.202E-15	22.3978E-3	-17.4321E-3
797.899E-6	624.239E-15	5.99157E-3	-19.2026E-3	581.750E-15	21.2842E-3	-23.8490E-3
792.896E-6	622.574E-15	12.8852E-3	-21.2620E-3	581.323E-15	28.0236E-3	-18.8605E-3
787.894E-6	566.204E-15	24.4390E-3	-18.7075E-3	607.245E-15	46.2004E-3	-8.35041E-3
782.891E-6	556.368E-15	31.0994E-3	-16.7509E-3	561.539E-15	48.2552E-3	-5.84011E-3
777.889E-6	502.805E-15	42.4213E-3	-12.8261E-3	545.321E-15	30.8784E-3	-11.4901E-3
772.886E-6	540.691E-15	45.5286E-3	-2.74475E-3	510.287E-15	22.0543E-3	-18.1959E-3
767.884E-6	616.427E-15	34.1423E-3	-5.64730E-3	498.978E-15	24.3389E-3	-14.6723E-3
762.881E-6	518.387E-15	20.3577E-3	-19.6464E-3	541.659E-15	23.4095E-3	-4.48627E-3
757.879E-6	395.898E-15	17.0532E-3	-24.3206E-3	505.657E-15	17.8342E-3	-3.51429E-3
752.876E-6	461.877E-15	17.8376E-3	-11.9586E-3	497.251E-15	9.34770E-3	-9.52605E-3
747.874E-6	531.030E-15	15.9630E-3	-4.96660E-3	448.641E-15	8.56550E-3	-13.4974E-3
742.871E-6	478.470E-15	19.4319E-3	-17.7015E-3	487.067E-15	19.7525E-3	-15.9960E-3
737.869E-6	382.819E-15	22.6347E-3	-28.0769E-3	515.632E-15	20.8630E-3	-15.4743E-3
732.866E-6	450.664E-15	22.6044E-3	-23.5642E-3	480.327E-15	16.4381E-3	-5.69571E-3
727.864E-6	499.797E-15	24.0744E-3	-13.7680E-3	404.452E-15	22.7584E-3	-1.06562E-3
722.861E-6	462.357E-15	20.2226E-3	-13.9242E-3	384.110E-15	21.7794E-3	-12.0779E-3
717.859E-6	401.199E-15	14.7776E-3	-24.3964E-3	512.963E-15	13.8291E-3	-9.37701E-3
712.856E-6	363.846E-15	19.7652E-3	-22.3271E-3	535.302E-15	18.8274E-3	2.82517E-3
707.854E-6	448.580E-15	17.4883E-3	-10.1193E-3	374.265E-15	23.5460E-3	-307.939E-6
702.851E-6	450.551E-15	9.49780E-3	-8.82691E-3	352.197E-15	18.8570E-3	-2.99732E-3
697.849E-6	382.183E-15	11.3582E-3	-12.6632E-3	424.410E-15	20.4328E-3	-8.35484E-3
692.846E-6	413.032E-15	14.2956E-3	-19.4645E-3	500.530E-15	21.5364E-3	-19.3678E-3
687.844E-6	363.515E-15	24.8219E-3	-22.8599E-3	435.702E-15	20.1189E-3	-21.8905E-3
682.841E-6	387.580E-15	29.4571E-3	-12.7775E-3	368.083E-15	24.3252E-3	-21.0767E-3
677.839E-6	369.697E-15	14.6237E-3	-1.88178E-3	420.042E-15	15.7662E-3	-27.3407E-3
672.836E-6	406.074E-15	5.46438E-3	-3.11335E-3	392.009E-15	9.00922E-3	-31.4682E-3
667.834E-6	345.605E-15	9.08145E-3	-7.72716E-3	387.868E-15	18.2827E-3	-31.3745E-3
662.831E-6	344.934E-15	13.4695E-3	-14.1524E-3	340.949E-15	17.5098E-3	-36.7691E-3
657.829E-6	320.354E-15	19.5619E-3	-26.5583E-3	389.690E-15	10.6401E-3	-26.0052E-3
652.826E-6	371.249E-15	24.0697E-3	-32.9345E-3	307.336E-15	20.4876E-3	-13.2617E-3
647.824E-6	315.244E-15	19.2369E-3	-26.7044E-3	344.193E-15	24.2790E-3	-26.3630E-3
642.821E-6	225.026E-15	22.7827E-3	-17.7871E-3	345.867E-15	18.6616E-3	-29.8060E-3
637.819E-6	353.976E-15	29.4894E-3	-16.1268E-3	295.408E-15	26.6316E-3	-11.5680E-3
632.816E-6	371.990E-15	17.7994E-3	-17.8274E-3	273.993E-15	24.6758E-3	1.17171E-3
627.814E-6	312.489E-15	4.33622E-3	-13.6412E-3	316.509E-15	5.30370E-3	2.78536E-3
622.811E-6	218.940E-15	5.17824E-3	291.949E-6	386.002E-15	-1.62966E-3	-5.40834E-3
617.809E-6	255.849E-15	13.3909E-3	10.1858E-3	348.814E-15	1.85781E-3	-20.4906E-3
612.806E-6	370.385E-15	12.9514E-3	-68.3681E-6	249.823E-15	8.81615E-3	-23.7897E-3
607.804E-6	252.003E-15	6.08250E-3	-11.0983E-3	278.615E-15	21.6009E-3	-9.71239E-3
602.801E-6	240.119E-15	6.99459E-3	-10.5128E-3	346.529E-15	17.8328E-3	696.891E-6
597.799E-6	218.373E-15	8.76907E-3	-10.9797E-3	338.787E-15	3.50068E-3	-5.46989E-3
592.796E-6	308.731E-15	6.03142E-3	-10.8329E-3	248.176E-15	9.84757E-3	-13.4339E-3
587.794E-6	279.923E-15	3.88238E-3	-10.6002E-3	173.922E-15	25.8628E-3	-10.8934E-3
582.791E-6	211.938E-15	12.3787E-3	-13.0803E-3	309.342E-15	29.8491E-3	-6.77190E-3
577.789E-6	243.127E-15	23.8277E-3	-17.4501E-3	293.420E-15	22.4229E-3	-8.31148E-3
572.786E-6	266.085E-15	13.6985E-3	-18.6919E-3	227.249E-15	15.1582E-3	-20.9331E-3
567.784E-6	252.378E-15	-1.73723E-3	-19.5982E-3	195.598E-15	16.4594E-3	-31.1411E-3
562.781E-6	246.022E-15	5.24718E-3	-25.7370E-3	212.034E-15	21.2930E-3	-23.1982E-3
557.779E-6	206.707E-15	17.1149E-3	-21.0541E-3	285.756E-15	20.0377E-3	-15.0058E-3
552.776E-6	227.650E-15	10.4907E-3	-9.87770E-3	205.817E-15	5.61915E-3	-9.86670E-3
547.774E-6	217.318E-15	10.5560E-3	-12.3387E-3	173.503E-15	-5.28804E-3	-2.85210E-3
542.771E-6	202.434E-15	21.5322E-3	-20.7917E-3	172.178E-15	-455.034E-6	-4.83199E-3
537.769E-6	186.800E-15	23.3570E-3	-23.1978E-3	220.692E-15	7.98518E-3	-9.84955E-3
532.766E-6	167.845E-15	21.4034E-3	-18.3953E-3	190.140E-15	9.82087E-3	-7.59093E-3
527.764E-6	122.862E-15	15.1883E-3	-14.0082E-3	211.938E-15	5.35624E-3	-14.0846E-3
522.761E-6	174.898E-15	4.34978E-3	-10.8983E-3	150.188E-15	2.73014E-3	-28.1032E-3
517.759E-6	218.661E-15	838.710E-6	-8.85647E-3	148.261E-15	11.0790E-3	-30.0694E-3
512.756E-6	168.490E-15	6.37452E-3	-13.2032E-3	175.483E-15	27.3049E-3	-20.9615E-3
507.754E-6	122.801E-15	8.71272E-3	-11.0568E-3	196.296E-15	30.9971E-3	-17.7745E-3
502.751E-6	157.390E-15	3.60178E-3	-6.24915E-3	145.514E-15	18.3467E-3	-23.2566E-3
497.749E-6	229.490E-15	1.70743E-3	-8.68772E-3	87.5223E-15	8.85431E-3	-28.2655E-3
492.746E-6	164.802E-15	6.50736E-3	-6.50579E-3	127.404E-15	4.09307E-3	-28.1921E-3
487.744E-6	86.3103E-15	8.77353E-3	-3.34467E-3	210.674E-15	2.34275E-3	-12.4836E-3
482.741E-6	128.887E-15	16.5415E-3	-8.06068E-3	162.473E-15	10.3742E-3	2.86803E-3
477.739E-6	183.914E-15	15.2788E-3	-11.3753E-3	80.2155E-15	16.3610E-3	-990.976E-6
472.736E-6	171.306E-15	3.94560E-3	-11.3746E-3	90.3997E-15	9.69163E-3	-5.88280E-3
467.734E-6	64.9655E-15	15.5143E-3	-12.2511E-3	150.676E-15	-1.75462E-3	-7.44556E-3
462.731E-6	80.7823E-15	21.3811E-3	-11.6016E-3	153.510E-15	-6.15608E-3	-9.88253E-3
457.729E-6	140.946E-15	7.64074E-3	-12.0365E-3	93.7479E-15	514.901E-6	-3.81669E-3
452.726E-6	175.805E-15	12.8177E-3	-9.50883E-3	43.4985E-15	19.0681E-3	2.54020E-3
447.724E-6	68.7496E-15	22.8658E-3	-8.25594E-3	112.643E-15	24.9845E-3	-7.60020E-3
442.721E-6	80.5643E-15	14.7990E-3	-15.4679E-3	149.961E-15	5.97374E-3	-23.1316E-3
437.719E-6	105.484E-15	8.86432E-3	-19.5970E-3	84.2439E-15	-1.09047E-3	-22.8134E-3
432.716E-6	57.6761E-15	8.05104E-3	-20.6070E-3	88.9348E-15	7.07630E-3	-12.6968E-3
427.714E-6	102.659E-15	12.7826E-3	-17.1669E-3	54.5197E-15	15.3083E-3	-8.85937E-3
422.711E-6	66.2123E-15	24.4328E-3	-11.4467E-3	100.069E-15	23.9888E-3	-20.6788E-3
417.709E-6	49.8113E-15	21.8315E-3	-11.7609E-3	43.0277E-15	26.5101E-3	-30.4790E-3
412.706E-6	52.4620E-15	16.5344E-3	-9.22625E-3	15.6403E-15	18.3365E-3	-24.8436E-3
407.704E-6	64.9742E-15	20.5710E-3	-12.2196E-3	97.9244E-15	10.5400E-3	-24.0088E-3
402.701E-6	57.5715E-15	11.7719E-3	-29.3539E-3	52.4097E-15	8.77216E-3	-25.6817E-3
397.699E-6	32.2245E-15	-2.26279E-3	-48.1099E-3	103.121E-15	4.06225E-3	-10.6854E-3
392.696E-6	33.6544E-15	-1.23809E-3	-51.6949E-3	44.3007E-15	6.85836E-3	-1.66348E-3
387.694E-6	52.5928E-15	2.50303E-3	-32.3516E-3	10.2605E-15	18.6321E-3	-27.3448E-3
382.691E-6	104.978E-15	5.37803E-3	-24.2867E-3	12.7368E-15	24.0486E-3	-42.7889E-3
377.689E-6	46.9426E-15	9.95932E-3	-33.0313E-3	95.9190E-15	22.3315E-3	-23.1787E-3
372.686E-6	-9.89852E-15	11.3710E-3	-25.5101E-3	87.9932E-15	21.5653E-3	-9.14390E-3
367.684E-6	9.13573E-15	8.36201E-3	-13.8262E-3	63.5878E-15	19.3243E-3	-2.99548E-3
362.681E-6	107.516E-15	8.59803E-3	-9.95631E-3	-29.3600E-15	17.5766E-3	-4.08584E-3
357.679E-6	47.3350E-15	6.82061E-3	-4.74929E-3	-32.2199E-15	17.9772E-3	-15.2953E-3
352.676E-6	2.72704E-15	-494.655E-6	1.29808E-3	56.6472E-15	2.21409E-3	-9.11932E-3
347.674E-6	-13.4734E-15	6.65023E-3	-2.60106E-3	33.5062E-15	-12.1468E-3	4.63959E-3
342.671E-6	33.6457E-15	12.4760E-3	-13.1963E-3	-53.8264E-15	5.30872E-3	-6.75906E-3
337.669E-6	66.5175E-15	9.30796E-3	-16.3361E-3	-26.7965E-15	22.7294E-3	-27.4145E-3
332.666E-6	-84.9892E-15	8.39648E-3	-15.5223E-3	33.9073E-15	18.2390E-3	-31.3256E-3
327.664E-6	-13.2206E-15	4.55501E-3	-17.9415E-3	67.2586E-15	12.3670E-3	-36.4741E-3
322.661E-6	35.0931E-15	2.71104E-3	-23.3113E-3	-10.1950E-15	4.11121E-3	-40.3720E-3
317.659E-6	-17.5715E-15	9.51542E-3	-17.1390E-3	-82.6175E-15	-2.67544E-3	-25.1298E-3
312.656E-6	-26.7268E-15	12.1486E-3	-3.03712E-3	-15.2347E-15	1.81244E-3	-16.6489E-3
307.654E-6	-8.90452E-15	6.50671E-3	-6.48771E-3	-17.4058E-15	2.09481E-3	-24.2861E-3
302.651E-6	-41.2793E-15	12.2254E-3	-26.1477E-3	5.63057E-15	-4.42688E-3	-23.0021E-3
297.649E-6	-16.0108E-15	22.9572E-3	-37.8673E-3	-73.5843E-15	-5.52081E-3	-13.8967E-3
292.646E-6	-41.7850E-15	18.8866E-3	-32.6401E-3	-18.8968E-15	-10.3518E-3	-13.2673E-3
287.644E-6	-19.2892E-15	13.2328E-3	-22.0960E-3	-44.7234E-15	-21.5402E-3	-16.3034E-3
282.641E-6	-59.7904E-15	19.2695E-3	-20.0784E-3	-48.6994E-15	-24.6185E-3	-15.7273E-3
277.639E-6	-76.9587E-15	23.4927E-3	-14.1816E-3	-34.4870E-15	-19.1731E-3	-20.6481E-3
272.636E-6	-35.4112E-15	22.1560E-3	-11.3734E-3	-79.6181E-15	-16.3403E-3	-19.8536E-3
267.634E-6	16.9918E-15	30.5158E-3	-14.9646E-3	-76.5315E-15	-14.5012E-3	-9.51750E-3
262.631E-6	-80.6208E-15	30.2343E-3	-6.60503E-3	-54.3844E-15	-8.84885E-3	-20.7240E-3
257.629E-6	-111.365E-15	10.8795E-3	-5.13069E-3	25.4583E-15	1.66857E-3	-31.9219E-3
252.626E-6	-91.4240E-15	9.55566E-3	-15.0237E-3	-75.8252E-15	7.66973E-3	-23.4889E-3
247.624E-6	-2.65278E-15	9.16228E-3	-18.9993E-3	-117.068E-15	7.27771E-3	-18.1652E-3
242.621E-6	-40.4161E-15	-5.97961E-3	-20.8220E-3	-107.904E-15	7.13602E-3	-15.7956E-3
237.619E-6	-128.002E-15	-7.08470E-3	-21.9391E-3	-53.2945E-15	8.41662E-3	-17.9855E-3
232.616E-6	-60.9065E-15	-1.23098E-3	-19.2529E-3	-47.5049E-15	17.4971E-3	-20.6368E-3
227.614E-6	-6.07946E-15	-7.29644E-3	-28.2619E-3	-166.201E-15	19.1739E-3	-11.2745E-3
222.611E-6	-54.7245E-15	-12.3788E-3	-35.6880E-3	-103.221E-15	5.93953E-3	-707.807E-6
217.609E-6	-158.659E-15	-5.01423E-3	-27.9437E-3	-59.7991E-15	-850.202E-6	-5.27894E-3
212.606E-6	-116.492E-15	695.356E-6	-17.7800E-3	-31.5486E-15	-3.64939E-3	-18.8689E-3
207.604E-6	-46.1534E-15	5.32989E-3	-9.89661E-3	-142.650E-15	-2.75123E-3	-22.5906E-3
202.601E-6	-56.4073E-15	9.30899E-3	-6.16246E-3	-176.315E-15	9.54677E-3	-21.7499E-3
197.599E-6	-114.644E-15	7.34552E-3	-6.71344E-3	-85.4077E-15	10.1586E-3	-20.5616E-3
192.596E-6	-121.183E-15	16.7435E-3	-10.7288E-3	-42.3605E-15	-506.897E-6	-9.53988E-3
187.594E-6	-75.5723E-15	32.8161E-3	-13.8218E-3	-92.0344E-15	-1.40901E-3	-4.81244E-3
182.591E-6	-137.349E-15	28.9131E-3	-15.4566E-3	-127.365E-15	-2.59743E-3	-14.7115E-3
177.589E-6	-77.3336E-15	14.9710E-3	-15.7202E-3	-129.554E-15	-6.59992E-3	-18.5331E-3
172.586E-6	-151.544E-15	8.45526E-3	-13.6706E-3	-83.6203E-15	-1.10839E-3	-15.0530E-3
167.584E-6	-140.339E-15	6.13325E-3	-15.0863E-3	-113.405E-15	-5.69957E-3	-18.7164E-3
162.581E-6	-120.721E-15	10.0771E-3	-18.1867E-3	-154.334E-15	-21.2958E-3	-24.6610E-3
157.579E-6	-115.141E-15	15.7237E-3	-17.8327E-3	-143.557E-15	-13.1012E-3	-24.4643E-3
152.576E-6	-74.6830E-15	6.98528E-3	-18.4657E-3	-113.022E-15	7.42385E-3	-26.4199E-3
147.574E-6	-130.155E-15	-2.19148E-3	-23.1319E-3	-103.683E-15	18.4142E-3	-24.9214E-3
142.571E-6	-151.587E-15	1.66414E-3	-21.8558E-3	-110.563E-15	14.2522E-3	-17.6845E-3
137.569E-6	-126.179E-15	1.56651E-3	-13.7464E-3	-159.400E-15	-3.65394E-3	-28.2359E-3
132.566E-6	-45.5954E-15	1.13797E-3	-9.34818E-3	-134.332E-15	-15.1341E-3	-45.9949E-3
127.564E-6	-111.592E-15	12.5507E-3	-8.71363E-3	-111.845E-15	-8.30189E-3	-44.5457E-3
122.561E-6	-194.556E-15	15.2230E-3	-16.6755E-3	-82.6350E-15	-164.769E-6	-29.1657E-3
117.559E-6	-142.397E-15	2.63531E-3	-26.9572E-3	-125.604E-15	-3.41866E-3	-16.6823E-3
112.556E-6	-72.1108E-15	-142.656E-6	-17.8171E-3	-169.593E-15	2.72044E-3	-15.9180E-3
107.554E-6	-143.461E-15	5.33403E-3	-5.30422E-3	-177.632E-15	8.54000E-3	-25.0893E-3
102.551E-6	-202.883E-15	2.60518E-3	-10.5699E-3	-68.7190E-15	-3.17440E-3	-27.0829E-3
97.5488E-6	-146.940E-15	-3.45057E-3	-17.9401E-3	-105.375E-15	-6.32586E-3	-18.8879E-3
92.5463E-6	-140.304E-15	-12.0401E-3	-13.2738E-3	-158.981E-15	-2.27432E-3	-21.4288E-3
87.5438E-6	-119.003E-15	-11.7863E-3	-14.1085E-3	-152.328E-15	-10.8723E-3	-27.0588E-3
82.5413E-6	-152.137E-15	5.28312E-3	-23.2037E-3	-72.1631E-15	-9.31231E-3	-20.9339E-3
77.5388E-6	-156.671E-15	17.4907E-3	-25.5373E-3	-71.7620E-15	1.28939E-3	-22.1194E-3
72.5363E-6	-119.387E-15	17.2479E-3	-30.0620E-3	-177.815E-15	1.76912E-3	-21.1976E-3
67.5338E-6	-172.304E-15	10.7287E-3	-24.6679E-3	-172.723E-15	3.93235E-3	-12.5167E-3
62.5313E-6	-154.944E-15	1.41389E-3	-16.7684E-3	-137.061E-15	488.804E-6	-19.3732E-3
57.5288E-6	-139.685E-15	-5.90637E-3	-28.8020E-3	-80.5424E-15	-12.4498E-3	-28.0762E-3
52.5263E-6	-184.939E-15	-6.87371E-3	-36.4199E-3	-182.890E-15	-10.2109E-3	-19.4364E-3
47.5238E-6	-123.729E-15	-5.43104E-3	-25.6964E-3	-192.367E-15	-320.688E-6	-5.32567E-3
42.5213E-6	-131.367E-15	-8.78156E-3	-26.1037E-3	-157.621E-15	2.78181E-3	867.144E-6
37.5188E-6	-153.192E-15	-10.0431E-3	-43.8368E-3	-141.691E-15	6.60500E-3	-2.34938E-3
32.5163E-6	-141.891E-15	-4.75935E-3	-37.4923E-3	-165.791E-15	8.64930E-3	-16.1660E-3
27.5138E-6	-177.370E-15	-1.34236E-3	-9.53163E-3	-152.171E-15	3.36368E-3	-29.2535E-3
22.5113E-6	-152.171E-15	-3.11316E-3	-152.675E-6	-182.340E-15	-1.33438E-3	-26.6497E-3
17.5088E-6	-114.373E-15	874.678E-6	929.540E-6	-188.784E-15	-4.96841E-3	-20.5992E-3
12.5063E-6	-200.912E-15	8.31099E-3	5.77768E-3	-137.436E-15	-12.7591E-3	-21.2375E-3
7.50375E-6	-243.454E-15	4.30160E-3	-4.64930E-3	-123.110E-15	-14.5043E-3	-20.0197E-3
2.50125E-6	-166.044E-15	-8.42367E-3	-17.0274E-3	-165.564E-15	-6.26576E-3	-28.8401E-3
-2.50125E-6	-79.8361E-15	-14.0982E-3	-15.7921E-3	-197.189E-15	-2.00296E-3	-48.7743E-3
-7.50375E-6	-190.868E-15	-7.35001E-3	-10.6377E-3	-149.922E-15	-5.85729E-3	-43.0492E-3
-12.5063E-6	-261.965E-15	6.15402E-3	-5.70895E-3	-101.259E-15	-12.1736E-3	-17.9747E-3
-17.5088E-6	-158.798E-15	11.5261E-3	-8.28550E-3	-157.717E-15	-23.1024E-3	-12.2042E-3
-22.5113E-6	-106.395E-15	-1.31356E-3	-16.1126E-3	-210.608E-15	-24.6640E-3	-15.5934E-3
-27.5138E-6	-160.559E-15	-6.06389E-3	-15.0567E-3	-213.983E-15	-4.10869E-3	-12.2885E-3
-32.5163E-6	-195.367E-15	6.99077E-3	-9.82450E-3	-96.7515E-15	11.5555E-3	-8.56717E-3
-37.5188E-6	-221.734E-15	9.18203E-3	-14.0266E-3	-116.091E-15	8.93457E-3	-10.6221E-3
-42.5213E-6	-122.735E-15	1.95606E-3	-22.4226E-3	-232.851E-15	12.0855E-3	-19.8655E-3
-47.5238E-6	-123.363E-15	755.432E-6	-24.7736E-3	-199.352E-15	16.7747E-3	-25.1661E-3
-52.5263E-6	-206.179E-15	2.26743E-3	-24.3071E-3	-158.519E-15	13.7719E-3	-16.4343E-3
-57.5288E-6	-184.616E-15	989.825E-6	-22.7139E-3	-88.2502E-15	9.94521E-3	-6.57365E-3
-62.5313E-6	-136.372E-15	104.902E-6	-19.4252E-3	-192.054E-15	-3.99710E-3	-12.2700E-3
-67.5338E-6	-165.931E-15	4.16114E-3	-12.3839E-3	-190.545E-15	-14.7215E-3	-23.6678E-3
-72.5363E-6	-182.785E-15	6.33151E-3	-902.596E-6	-171.947E-15	-1.92495E-3	-23.6381E-3
-77.5388E-6	-221.542E-15	-3.16692E-3	-6.51531E-3	-164.640E-15	13.5287E-3	-14.3092E-3
-82.5413E-6	-201.244E-15	-14.7888E-3	-25.7678E-3	-160.812E-15	9.00377E-3	2.73913E-3
-87.5438E-6	-188.357E-15	-10.5792E-3	-36.3525E-3	-232.921E-15	695.731E-6	13.2155E-3
-92.5463E-6	-204.470E-15	7.51854E-3	-41.1588E-3	-139.816E-15	-1.70791E-3	-2.62850E-3
-97.5488E-6	-181.050E-15	23.1140E-3	-50.4387E-3	-175.086E-15	-9.15149E-3	-25.0983E-3
-102.551E-6	-205.961E-15	23.4348E-3	-47.3436E-3	-190.597E-15	-6.94636E-3	-21.5063E-3
-107.554E-6	-242.748E-15	8.16320E-3	-27.3393E-3	-180.396E-15	-482.239E-6	-1.57262E-3
-112.556E-6	-184.372E-15	-3.39141E-3	-19.9949E-3	-250.176E-15	-12.4531E-3	-1.39784E-3
-117.559E-6	-166.009E-15	1.71048E-3	-22.8832E-3	-259.951E-15	-15.7507E-3	-18.7625E-3
-122.561E-6	-201.462E-15	8.57377E-3	-20.7824E-3	-168.921E-15	-4.82297E-3	-39.7339E-3
-127.564E-6	-243.890E-15	11.1948E-3	-21.2326E-3	-190.650E-15	-1.54426E-3	-46.5052E-3
-132.566E-6	-204.644E-15	18.2259E-3	-23.6583E-3	-172.880E-15	8.01511E-3	-25.3754E-3
-137.569E-6	-118.681E-15	17.9846E-3	-14.4455E-3	-280.040E-15	15.9004E-3	-1.65176E-3
-142.571E-6	-230.087E-15	6.22765E-3	-4.13911E-3	-206.702E-15	2.81428E-3	-3.42527E-3
-147.574E-6	-263.726E-15	1.45912E-3	-9.65205E-3	-127.670E-15	-7.04111E-3	-17.3329E-3
-152.576E-6	-243.410E-15	8.17082E-3	-19.8863E-3	-210.512E-15	1.20242E-3	-15.8065E-3
-157.579E-6	-134.271E-15	6.81395E-3	-24.3408E-3	-253.097E-15	3.20459E-3	-3.71647E-3
-162.581E-6	-199.177E-15	3.20816E-3	-27.6053E-3	-241.911E-15	2.46184E-3	7.27664E-3
-167.584E-6	-275.541E-15	595.171E-6	-21.2662E-3	-149.669E-15	13.4524E-3	2.77867E-3
-172.586E-6	-266.185E-15	-17.8595E-3	-17.5800E-3	-160.368E-15	11.0040E-3	-16.0916E-3
-177.589E-6	-150.279E-15	-24.5492E-3	-29.0134E-3	-259.794E-15	4.13199E-3	-20.5119E-3
-182.591E-6	-208.167E-15	-15.7027E-3	-24.9171E-3	-261.372E-15	18.4782E-3	-5.78661E-3
-187.594E-6	-245.904E-15	-8.13770E-3	-8.16010E-3	-200.398E-15	28.0336E-3	2.13010E-3
-192.596E-6	-236.662E-15	7.84619E-3	-14.0818E-3	-216.424E-15	22.3832E-3	1.89539E-3
-197.599E-6	-259.061E-15	24.4578E-3	-21.0073E-3	-232.171E-15	19.1787E-3	-382.237E-6
-202.601E-6	-227.323E-15	18.9718E-3	-12.3265E-3	-250.525E-15	10.6036E-3	-17.5726E-3
-207.604E-6	-226.155E-15	3.38525E-3	-9.52442E-3	-252.278E-15	1.86108E-3	-29.2386E-3
-212.606E-6	-209.937E-15	12.7854E-3	-6.69573E-3	-225.998E-15	6.11146E-3	-19.2727E-3
-217.609E-6	-266.412E-15	20.8891E-3	-3.88158E-3	-240.917E-15	9.26220E-3	-13.9268E-3
-222.611E-6	-227.838E-15	5.77452E-3	-897.365E-6	-238.397E-15	7.29702E-3	-16.1186E-3
-227.614E-6	-238.937E-15	-6.30947E-3	4.19897E-3	-272.821E-15	10.9682E-3	-15.6154E-3
-232.616E-6	-200.625E-15	-14.6303E-3	415.763E-6	-268.330E-15	3.55631E-3	-22.8762E-3
-237.619E-6	-283.510E-15	-20.6794E-3	-10.8157E-3	-235.746E-15	-14.4084E-3	-19.1593E-3
-242.621E-6	-308.090E-15	-3.86604E-3	-26.9186E-3	-219.432E-15	-14.8288E-3	1.22342E-3
-247.624E-6	-242.015E-15	16.8859E-3	-34.6668E-3	-256.725E-15	-10.5665E-3	-3.56027E-3
-252.626E-6	-211.846E-15	15.7940E-3	-23.1286E-3	-299.345E-15	-7.85444E-3	-19.0388E-3
-257.629E-6	-241.056E-15	9.47797E-3	-7.62619E-3	-296.075E-15	9.40506E-3	-14.1217E-3
-262.631E-6	-325.564E-15	4.19428E-3	-2.26811E-3	-215.543E-15	17.6448E-3	-6.09384E-3
-267.634E-6	-247.953E-15	2.40043E-3	-9.99970E-3	-247.770E-15	4.65757E-3	-2.96408E-3
-272.636E-6	-227.934E-15	10.1719E-3	-21.3417E-3	-335.068E-15	-1.93759E-3	-3.98482E-3
-277.639E-6	-242.477E-15	12.4177E-3	-23.8076E-3	-296.703E-15	8.99257E-3	-7.89851E-3
-282.641E-6	-331.127E-15	10.6620E-3	-18.9547E-3	-240.786E-15	22.4529E-3	-2.93826E-3
-287.644E-6	-280.398E-15	17.6558E-3	-11.5038E-3	-258.660E-15	24.1359E-3	7.09158E-3
-292.646E-6	-239.591E-15	13.4144E-3	-9.33412E-3	-336.637E-15	19.7402E-3	-4.20344E-3
-297.649E-6	-252.182E-15	8.93094E-3	-13.5521E-3	-317.333E-15	17.5256E-3	-29.6079E-3
-302.651E-6	-351.111E-15	23.5075E-3	-17.1324E-3	-273.396E-15	20.8985E-3	-30.7992E-3
-307.654E-6	-311.351E-15	19.2085E-3	-4.79592E-3	-237.106E-15	19.2756E-3	-20.4543E-3
-312.656E-6	-342.095E-15	-3.64055E-3	6.21524E-3	-272.533E-15	8.89274E-3	-15.6877E-3
-317.659E-6	-330.534E-15	1.20667E-3	-7.97197E-3	-325.703E-15	11.3283E-3	-4.84709E-3
-322.661E-6	-309.843E-15	17.0444E-3	-19.8168E-3	-295.918E-15	25.3976E-3	-8.13310E-3
-327.664E-6	-338.582E-15	17.0998E-3	-21.5769E-3	-272.977E-15	27.0161E-3	-26.0755E-3
-332.666E-6	-342.357E-15	6.72927E-3	-24.4632E-3	-298.795E-15	24.8316E-3	-31.3563E-3
-337.669E-6	-306.608E-15	-1.41536E-3	-16.5884E-3	-336.402E-15	20.4039E-3	-23.8823E-3
-342.671E-6	-287.146E-15	575.771E-6	-8.30693E-3	-329.609E-15	5.85252E-3	-14.4951E-3
-347.674E-6	-328.973E-15	7.96515E-3	-14.0278E-3	-320.515E-15	5.19263E-3	-16.0827E-3
-352.676E-6	-347.344E-15	14.7897E-3	-20.0181E-3	-344.676E-15	15.2917E-3	-16.5594E-3
-357.679E-6	-393.513E-15	7.51734E-3	-20.0946E-3	-296.694E-15	15.2264E-3	-6.24072E-3
-362.681E-6	-371.593E-15	133.214E-6	-22.6836E-3	-362.359E-15	19.3738E-3	3.97580E-3
-367.684E-6	-318.998E-15	12.0403E-3	-30.8904E-3	-368.384E-15	30.2333E-3	6.93146E-3
-372.686E-6	-370.241E-15	17.8237E-3	-36.1449E-3	-368.035E-15	30.5549E-3	-4.68573E-3
-377.689E-6	-412.687E-15	3.55498E-3	-33.6790E-3	-313.060E-15	17.6308E-3	-14.0752E-3
-382.691E-6	-392.458E-15	-7.21226E-3	-28.2639E-3	-380.774E-15	9.58039E-3	-12.7615E-3
-387.694E-6	-322.486E-15	-5.08769E-3	-23.6587E-3	-432.759E-15	12.8801E-3	-7.65595E-3
-392.696E-6	-402.590E-15	8.44041E-3	-14.1265E-3	-408.999E-15	-2.15701E-3	3.02838E-3
-397.699E-6	-434.232E-15	26.3084E-3	-4.22703E-3	-305.012E-15	-18.9138E-3	-4.77120E-3
-402.701E-6	-412.565E-15	29.4427E-3	-2.11114E-3	-334.754E-15	-10.1952E-3	-25.0887E-3
-407.704E-6	-339.018E-15	14.1745E-3	-3.79323E-3	-427.222E-15	4.39407E-3	-18.0468E-3
-412.706E-6	-366.074E-15	6.50830E-3	-3.42742E-3	-424.205E-15	18.6421E-3	-7.14696E-3
-417.709E-6	-465.203E-15	14.0178E-3	-5.35436E-3	-343.456E-15	21.2449E-3	-10.5439E-3
-422.711E-6	-439.281E-15	19.7017E-3	-18.5980E-3	-374.130E-15	779.009E-6	-11.3513E-3
-427.714E-6	-361.871E-15	17.1168E-3	-29.5838E-3	-429.629E-15	-12.7552E-3	-21.9777E-3
-432.716E-6	-395.353E-15	606.401E-6	-25.2371E-3	-472.031E-15	2.61170E-3	-33.9465E-3
-437.719E-6	-456.972E-15	-8.73820E-3	-15.2946E-3	-444.730E-15	20.7009E-3	-26.8465E-3
-442.721E-6	-421.990E-15	-581.822E-6	-6.89459E-3	-379.885E-15	13.5696E-3	-15.0199E-3
-447.724E-6	-470.008E-15	4.10221E-3	-5.55688E-3	-440.597E-15	-10.9311E-3	-14.5228E-3
-452.726E-6	-435.340E-15	8.48288E-3	-18.7797E-3	-484.473E-15	-21.4313E-3	-18.5059E-3
-457.729E-6	-425.888E-15	10.3365E-3	-27.1529E-3	-410.934E-15	2.32962E-3	-17.1457E-3
-462.731E-6	-470.322E-15	-29.5755E-6	-18.2996E-3	-400.593E-15	24.6415E-3	-13.6356E-3
-467.734E-6	-491.187E-15	-2.52650E-3	-7.59628E-3	-467.610E-15	16.6992E-3	-8.20496E-3
-472.736E-6	-472.161E-15	10.9282E-3	-1.32924E-3	-475.379E-15	11.4438E-3	-9.98140E-3
-477.739E-6	-455.717E-15	16.0123E-3	1.30485E-3	-499.078E-15	15.4756E-3	-25.3193E-3
-482.741E-6	-461.812E-15	7.12959E-3	-1.22070E-3	-495.599E-15	14.3781E-3	-32.0558E-3
-487.744E-6	-483.845E-15	562.666E-6	-5.54394E-3	-437.354E-15	14.1182E-3	-18.0179E-3
-492.746E-6	-518.923E-15	-1.46205E-3	-1.74602E-3	-463.704E-15	14.6304E-3	-5.95452E-3
-497.749E-6	-498.023E-15	-1.55388E-3	-5.39374E-3	-481.256E-15	7.93166E-3	-10.2143E-3
-502.751E-6	-391.551E-15	2.49282E-3	-17.5035E-3	-536.030E-15	5.21084E-3	-23.3416E-3
-507.754E-6	-494.221E-15	4.49152E-3	-16.1405E-3	-504.684E-15	18.3350E-3	-25.7433E-3
-512.756E-6	-546.223E-15	4.52367E-3	-13.0992E-3	-427.606E-15	13.6071E-3	-16.2649E-3
-517.759E-6	-497.395E-15	8.51094E-3	-14.5421E-3	-463.887E-15	-3.51413E-3	-5.39346E-3
-522.761E-6	-432.916E-15	9.08379E-3	-9.17822E-3	-571.588E-15	-407.174E-6	-812.273E-6
-527.764E-6	-512.235E-15	-322.292E-6	-10.3627E-3	-598.844E-15	1.23431E-3	-10.2945E-3
-532.766E-6	-537.870E-15	-8.31058E-3	-18.8385E-3	-487.533E-15	2.47049E-3	-16.7437E-3
-537.769E-6	-561.927E-15	-1.14880E-3	-16.1575E-3	-524.530E-15	18.6611E-3	-18.3177E-3
-542.771E-6	-475.946E-15	13.0178E-3	-13.2630E-3	-595.025E-15	19.2446E-3	-22.8570E-3
-547.774E-6	-518.635E-15	20.7963E-3	-15.2163E-3	-599.167E-15	6.57908E-3	-21.1385E-3
-552.776E-6	-601.887E-15	21.7661E-3	-16.8497E-3	-545.447E-15	5.76363E-3	-16.9379E-3
-557.779E-6	-592.244E-15	9.26339E-3	-19.9882E-3	-481.378E-15	3.68566E-3	-10.9827E-3
-562.781E-6	-537.382E-15	-3.22828E-3	-13.2814E-3	-568.109E-15	2.49739E-3	-6.13752E-3
-567.784E-6	-562.694E-15	9.87923E-3	2.84779E-3	-616.884E-15	7.16356E-3	-5.86453E-3
-572.786E-6	-585.756E-15	19.0828E-3	5.98640E-3	-584.632E-15	3.03440E-3	-6.96974E-3
-577.789E-6	-603.526E-15	8.55182E-3	-13.7371E-3	-544.985E-15	1.82177E-3	-12.6761E-3
-582.791E-6	-631.576E-15	5.03741E-3	-33.4176E-3	-612.926E-15	10.2138E-3	-22.3031E-3
-587.794E-6	-558.169E-15	8.20933E-3	-33.2635E-3	-637.785E-15	9.03612E-3	-28.5271E-3
-592.796E-6	-563.793E-15	13.8795E-3	-27.6178E-3	-592.558E-15	2.37098E-3	-23.7978E-3
-597.799E-6	-582.574E-15	20.6404E-3	-30.8530E-3	-622.133E-15	9.07231E-3	-15.6878E-3
-602.801E-6	-617.966E-15	23.5436E-3	-34.8046E-3	-565.763E-15	19.8005E-3	-13.9845E-3
-607.804E-6	-620.093E-15	22.2207E-3	-32.0785E-3	-615.768E-15	15.7707E-3	-11.0623E-3
-612.806E-6	-582.870E-15	16.5965E-3	-28.1700E-3	-671.258E-15	16.4907E-3	-12.0892E-3
-617.809E-6	-582.016E-15	11.5600E-3	-31.7959E-3	-634.759E-15	18.8320E-3	-24.1302E-3
-622.811E-6	-619.927E-15	7.87782E-3	-33.5237E-3	-614.225E-15	9.04954E-3	-29.2770E-3
-627.814E-6	-655.424E-15	12.4245E-3	-24.2037E-3	-618.000E-15	5.85650E-3	-23.9804E-3
-632.816E-6	-633.756E-15	15.3781E-3	-18.6308E-3	-644.437E-15	5.60016E-3	-28.2606E-3
-637.819E-6	-602.140E-15	17.2237E-3	-29.5453E-3	-682.053E-15	5.14927E-3	-32.9601E-3
-642.821E-6	-686.874E-15	25.4918E-3	-31.1560E-3	-643.583E-15	17.0873E-3	-25.1728E-3
-647.824E-6	-697.625E-15	22.6040E-3	-11.5271E-3	-587.335E-15	17.0347E-3	-18.8872E-3
-652.826E-6	-671.031E-15	7.26179E-3	-6.24679E-3	-663.855E-15	-675.067E-6	-19.0637E-3
-657.829E-6	-666.183E-15	266.584E-6	-13.5322E-3	-724.167E-15	2.72151E-3	-22.5815E-3
-662.831E-6	-658.833E-15	214.861E-6	-12.3450E-3	-721.010E-15	20.3516E-3	-26.0748E-3
-667.834E-6	-715.971E-15	-6.72025E-3	-17.1982E-3	-609.142E-15	27.2638E-3	-27.4493E-3
-672.836E-6	-740.925E-15	-10.2211E-3	-27.0419E-3	-670.996E-15	28.5514E-3	-22.6120E-3
-677.839E-6	-634.994E-15	-190.160E-6	-30.1842E-3	-712.683E-15	30.0619E-3	-15.8356E-3
-682.841E-6	-680.806E-15	10.0414E-3	-30.5048E-3	-717.627E-15	25.1373E-3	-17.5271E-3
-687.844E-6	-746.296E-15	14.5899E-3	-24.7203E-3	-700.616E-15	21.1081E-3	-18.7022E-3
-692.846E-6	-695.785E-15	16.8209E-3	-10.7887E-3	-672.871E-15	19.5142E-3	-16.6977E-3
-697.849E-6	-722.205E-15	19.1990E-3	1.16635E-3	-739.539E-15	15.5480E-3	-17.8195E-3
-702.851E-6	-719.720E-15	28.6339E-3	-6.12593E-3	-743.000E-15	18.1437E-3	-20.6552E-3
-707.854E-6	-678.190E-15	32.8061E-3	-13.5383E-3	-737.699E-15	22.2138E-3	-27.2556E-3
-712.856E-6	-724.777E-15	15.2736E-3	-12.8154E-3	-725.666E-15	21.7170E-3	-29.3273E-3
-717.859E-6	-776.919E-15	-1.27584E-3	-13.8351E-3	-703.406E-15	21.8763E-3	-17.5637E-3
-722.861E-6	-712.954E-15	2.74295E-3	-287.100E-6	-775.306E-15	22.5087E-3	-7.17324E-3
-727.864E-6	-765.636E-15	-1.57904E-3	5.97927E-3	-778.322E-15	17.9998E-3	-16.8529E-3
-732.866E-6	-737.621E-15	-15.0835E-3	-15.7420E-3	-789.474E-15	12.8664E-3	-31.5685E-3
-737.869E-6	-768.348E-15	-5.16223E-3	-25.7456E-3	-764.964E-15	9.85933E-3	-29.7689E-3
-742.871E-6	-823.532E-15	7.32908E-3	-13.5748E-3	-735.197E-15	8.49030E-3	-17.5529E-3
-747.874E-6	-770.484E-15	10.3175E-3	-12.8093E-3	-789.858E-15	9.23434E-3	707.520E-6
-752.876E-6	-732.555E-15	21.7732E-3	-25.6329E-3	-853.962E-15	5.57465E-3	7.40622E-3
-757.879E-6	-759.149E-15	23.4063E-3	-35.2849E-3	-747.116E-15	-237.191E-6	-11.9563E-3
-762.881E-6	-865.533E-15	21.5752E-3	-34.0484E-3	-732.485E-15	1.86855E-3	-22.7689E-3
-767.884E-6	-824.378E-15	24.9178E-3	-23.4721E-3	-830.691E-15	11.2215E-3	-19.1065E-3
-772.886E-6	-770.946E-15	21.1063E-3	-3.29671E-3	-900.977E-15	16.4874E-3	-21.3683E-3
-777.889E-6	-826.592E-15	20.8754E-3	8.17821E-3	-868.925E-15	17.2123E-3	-18.3276E-3
-782.891E-6	-924.554E-15	31.8461E-3	-3.62272E-3	-817.673E-15	19.3076E-3	-14.8572E-3
-787.894E-6	-858.383E-15	34.6279E-3	-12.7086E-3	-790.992E-15	22.1419E-3	-22.7352E-3
-792.896E-6	-831.475E-15	26.3264E-3	-16.3207E-3	-952.072E-15	20.5099E-3	-27.8846E-3
-797.899E-6	-870.390E-15	27.9089E-3	-19.2892E-3	-932.951E-15	21.5095E-3	-26.9778E-3
-802.901E-6	-939.359E-15	29.2786E-3	-8.62930E-3	-884.942E-15	27.9346E-3	-32.9241E-3
-807.904E-6	-949.186E-15	20.8054E-3	-928.615E-6	-865.951E-15	25.2142E-3	-37.7610E-3
-812.906E-6	-845.819E-15	15.6170E-3	-14.2397E-3	-952.264E-15	20.9991E-3	-23.4971E-3
-817.909E-6	-943.248E-15	10.1529E-3	-20.5664E-3	-941.940E-15	27.3191E-3	-2.05350E-3
-822.911E-6	-926.864E-15	9.40493E-3	-10.7843E-3	-968.299E-15	33.1362E-3	7.44887E-3
-827.914E-6	-928.050E-15	26.1538E-3	-7.04061E-3	-949.674E-15	38.5446E-3	8.95281E-3
-832.916E-6	-976.338E-15	43.7686E-3	-3.30862E-3	-993.471E-15	47.9590E-3	-2.22379E-3
-837.919E-6	-966.014E-15	45.1701E-3	-6.87752E-3	-1.04238E-12	51.3956E-3	-23.2724E-3
-842.921E-6	-967.898E-15	38.9219E-3	-11.9581E-3	-975.675E-15	51.7553E-3	-22.8934E-3
-847.924E-6	-989.242E-15	34.0209E-3	-935.887E-6	-1.00391E-12	47.1558E-3	-1.96948E-3
-852.926E-6	-996.288E-15	29.2618E-3	-1.71017E-3	-1.01791E-12	34.3782E-3	607.683E-6
-857.929E-6	-1.04695E-12	30.7673E-3	-17.8775E-3	-1.03724E-12	30.7251E-3	-15.0751E-3
-862.931E-6	-1.00544E-12	38.9999E-3	-20.1705E-3	-1.06779E-12	41.9524E-3	-25.8106E-3
-867.934E-6	-1.02653E-12	39.8924E-3	-18.9552E-3	-1.12005E-12	54.5374E-3	-21.3429E-3
-872.936E-6	-1.11084E-12	30.4084E-3	-19.2577E-3	-1.05306E-12	59.6223E-3	-5.85398E-3
-877.939E-6	-1.18008E-12	29.2445E-3	-7.84918E-3	-1.07493E-12	54.5796E-3	2.95611E-3
-882.941E-6	-1.13842E-12	44.8803E-3	-5.71652E-3	-1.16727E-12	49.5135E-3	-2.58759E-3
-887.944E-6	-1.07583E-12	56.4288E-3	-19.7110E-3	-1.25488E-12	53.9228E-3	-18.5945E-3
-892.946E-6	-1.17374E-12	56.5458E-3	-24.0976E-3	-1.23001E-12	60.4758E-3	-26.4797E-3
-897.949E-6	-1.24931E-12	48.4719E-3	-15.4095E-3	-1.12594E-12	61.3049E-3	-17.9276E-3
-902.951E-6	-1.22384E-12	44.7423E-3	-13.0135E-3	-1.24435E-12	59.9595E-3	-923.305E-6
-907.954E-6	-1.19295E-12	56.3645E-3	-8.49174E-3	-1.33131E-12	66.6828E-3	7.10066E-3
-912.956E-6	-1.24612E-12	65.5056E-3	-1.40167E-3	-1.30661E-12	72.7358E-3	-127.450E-6
-917.959E-6	-1.33059E-12	64.3151E-3	-8.28870E-3	-1.25313E-12	71.3016E-3	-4.00598E-3
-922.961E-6	-1.30451E-12	62.5446E-3	-13.7881E-3	-1.28111E-12	77.5480E-3	-5.23598E-3
-927.964E-6	-1.22439E-12	66.5815E-3	-11.8099E-3	-1.37723E-12	91.4235E-3	-13.2153E-3
-932.966E-6	-1.29475E-12	73.8183E-3	-14.6132E-3	-1.42697E-12	99.9920E-3	-15.4008E-3
-937.969E-6	-1.38781E-12	81.3884E-3	-14.3719E-3	-1.33471E-12	106.145E-3	-10.0890E-3
-942.971E-6	-1.39539E-12	79.6756E-3	-11.2985E-3	-1.37839E-12	103.609E-3	-16.1125E-3
-947.974E-6	-1.40655E-12	76.4755E-3	-18.3087E-3	-1.44219E-12	92.6779E-3	-19.4285E-3
-952.976E-6	-1.43297E-12	89.8877E-3	-33.1701E-3	-1.53631E-12	98.2497E-3	-1.38250E-3
-957.979E-6	-1.45796E-12	98.9174E-3	-38.5658E-3	-1.55757E-12	111.619E-3	9.39018E-3
-962.981E-6	-1.53211E-12	103.627E-3	-29.1889E-3	-1.58915E-12	111.897E-3	3.08044E-3
-967.984E-6	-1.61659E-12	115.799E-3	-19.2332E-3	-1.61041E-12	120.018E-3	4.04881E-3
-972.986E-6	-1.65120E-12	110.508E-3	-22.3370E-3	-1.73470E-12	141.432E-3	648.333E-6
-977.989E-6	-1.66519E-12	103.627E-3	-29.8629E-3	-1.74910E-12	149.522E-3	-14.0137E-3
-982.991E-6	-1.78017E-12	117.784E-3	-28.2544E-3	-1.78831E-12	155.446E-3	-17.1490E-3
-987.994E-6	-1.79791E-12	129.563E-3	-20.6837E-3	-1.81964E-12	171.376E-3	-10.6214E-3
-992.997E-6	-1.86690E-12	131.951E-3	-15.2545E-3	-1.85396E-12	175.625E-3	-10.1862E-3
-997.999E-6	-1.86509E-12	140.258E-3	-16.8072E-3	-1.94669E-12	168.621E-3	-14.6081E-3
-1.00300E-3	-1.94708E-12	154.650E-3	-21.3432E-3	-2.00086E-12	165.655E-3	-15.0191E-3
-1.00800E-3	-2.03469E-12	159.816E-3	-27.0617E-3	-1.98310E-12	170.473E-3	-13.0317E-3
-1.01301E-3	-2.13510E-12	161.063E-3	-31.3182E-3	-1.96662E-12	183.925E-3	-14.4030E-3
-1.01801E-3	-2.09249E-12	169.064E-3	-37.1533E-3	-2.09795E-12	187.150E-3	-13.6924E-3
-1.02301E-3	-2.12519E-12	163.491E-3	-39.6555E-3	-2.21705E-12	182.413E-3	-5.57939E-3
-1.02801E-3	-2.21275E-12	159.347E-3	-31.9121E-3	-2.25764E-12	202.792E-3	2.55171E-3
-1.03302E-3	-2.24370E-12	180.831E-3	-14.9144E-3	-2.20560E-12	222.575E-3	1.06368E-3
-1.03802E-3	-2.38363E-12	204.042E-3	-2.92990E-3	-2.30449E-12	217.090E-3	-3.83174E-3
-1.04302E-3	-2.36904E-12	215.773E-3	-14.6834E-3	-2.49625E-12	228.324E-3	-5.81504E-3
-1.04802E-3	-2.43351E-12	208.585E-3	-20.2568E-3	-2.57427E-12	256.241E-3	-16.1112E-3
-1.05303E-3	-2.61607E-12	195.618E-3	-10.8560E-3	-2.51686E-12	269.658E-3	-27.9665E-3
-1.05803E-3	-2.69552E-12	210.518E-3	-11.0044E-3	-2.61245E-12	279.050E-3	-29.1648E-3
-1.06303E-3	-2.70048E-12	240.121E-3	-7.31516E-3	-2.80748E-12	292.596E-3	-31.0618E-3
-1.06803E-3	-2.82479E-12	250.246E-3	-11.3177E-3	-2.95334E-12	300.878E-3	-37.5704E-3
-1.07304E-3	-3.00490E-12	245.616E-3	-38.4648E-3	-2.95532E-12	312.639E-3	-34.2840E-3
-1.07804E-3	-3.08051E-12	248.366E-3	-48.6461E-3	-3.08122E-12	327.858E-3	-20.3603E-3
-1.08304E-3	-3.19209E-12	260.604E-3	-30.5010E-3	-3.21154E-12	329.520E-3	-10.2530E-3
-1.08804E-3	-3.24915E-12	285.554E-3	-20.6404E-3	-3.38239E-12	335.829E-3	-4.94135E-3
-1.09305E-3	-3.35804E-12	314.173E-3	-18.9202E-3	-3.42164E-12	356.038E-3	-2.35481E-3
-1.09805E-3	-3.48002E-12	319.577E-3	-17.2433E-3	-3.49037E-12	366.732E-3	-4.42334E-3
-1.10305E-3	-3.59833E-12	319.562E-3	-22.9245E-3	-3.68546E-12	371.722E-3	-8.59414E-3
-1.10805E-3	-3.70036E-12	338.679E-3	-21.2752E-3	-3.78627E-12	390.229E-3	-15.5457E-3
-1.11306E-3	-3.81146E-12	353.789E-3	-20.5712E-3	-3.90119E-12	402.969E-3	-22.7322E-3
-1.11806E-3	-3.93859E-12	365.187E-3	-30.6623E-3	-4.03335E-12	408.203E-3	-18.4734E-3
-1.12306E-3	-4.07065E-12	392.460E-3	-30.5651E-3	-4.16675E-12	430.968E-3	-13.3981E-3
-1.12806E-3	-4.26869E-12	403.520E-3	-14.0921E-3	-4.28492E-12	456.654E-3	-16.8215E-3
-1.13307E-3	-4.36053E-12	399.074E-3	-1.61712E-3	-4.44981E-12	472.805E-3	-17.3547E-3
-1.13807E-3	-4.44431E-12	404.946E-3	2.86891E-3	-4.67423E-12	490.095E-3	-13.8161E-3
-1.14307E-3	-4.68349E-12	409.833E-3	3.36132E-3	-4.78435E-12	503.156E-3	-14.9415E-3
-1.14807E-3	-4.89153E-12	423.784E-3	-2.80847E-3	-4.81745E-12	506.203E-3	-17.9048E-3
-1.15308E-3	-5.02061E-12	442.910E-3	-4.59122E-3	-5.00059E-12	527.936E-3	-19.3643E-3
-1.15808E-3	-5.13992E-12	455.302E-3	2.12737E-3	-5.29117E-12	564.245E-3	-19.6881E-3
-1.16308E-3	-5.32965E-12	477.351E-3	1.59116E-3	-5.48018E-12	578.336E-3	-11.5360E-3
-1.16808E-3	-5.56464E-12	505.586E-3	-6.42536E-3	-5.57315E-12	584.862E-3	-4.28704E-3
-1.17309E-3	-5.81159E-12	514.200E-3	-6.58668E-3	-5.74126E-12	614.368E-3	-14.3948E-3
-1.17809E-3	-5.90147E-12	514.611E-3	-7.26006E-3	-6.03661E-12	641.993E-3	-30.3492E-3
-1.18309E-3	-6.07109E-12	539.410E-3	-8.78812E-3	-6.30322E-12	650.103E-3	-39.0513E-3
-1.18809E-3	-6.42100E-12	568.468E-3	-183.071E-6	-6.49241E-12	664.876E-3	-39.3701E-3
-1.19310E-3	-6.63499E-12	582.008E-3	3.68358E-3	-6.61391E-12	682.187E-3	-36.1012E-3
-1.19810E-3	-6.79042E-12	598.588E-3	-4.26291E-3	-6.92135E-12	689.804E-3	-28.0761E-3
-1.20310E-3	-7.03438E-12	616.591E-3	-4.54568E-3	-7.20965E-12	705.654E-3	-15.6035E-3
-1.20810E-3	-7.25701E-12	635.620E-3	-3.75636E-3	-7.37144E-12	728.401E-3	-12.0752E-3
-1.21311E-3	-7.56395E-12	662.537E-3	-26.9503E-3	-7.58869E-12	746.773E-3	-10.6836E-3
-1.21811E-3	-7.83969E-12	683.755E-3	-43.9404E-3	-7.88070E-12	761.806E-3	-8.42256E-3
-1.22311E-3	-7.99787E-12	684.697E-3	-29.3097E-3	-8.21233E-12	773.555E-3	-6.90831E-3
-1.22811E-3	-8.26754E-12	690.071E-3	-17.6955E-3	-8.40946E-12	786.979E-3	1.86177E-3
-1.23312E-3	-8.60549E-12	727.531E-3	-12.8582E-3	-8.64717E-12	801.296E-3	2.19578E-3
-1.23812E-3	-8.81634E-12	762.519E-3	-3.16977E-3	-8.88766E-12	815.244E-3	-4.68918E-3
-1.24312E-3	-9.04207E-12	780.578E-3	-11.4477E-3	-9.06788E-12	836.865E-3	-6.35617E-3
-1.24812E-3	-9.23844E-12	795.219E-3	-33.3668E-3	-9.22291E-12	853.367E-3	-11.2508E-3
-1.25313E-3	-9.46266E-12	796.991E-3	-37.7896E-3	-9.52753E-12	852.921E-3	-17.9218E-3
-1.25813E-3	-9.68649E-12	800.852E-3	-28.8627E-3	-9.71665E-12	867.503E-3	-20.8088E-3
-1.26313E-3	-9.97453E-12	817.351E-3	-21.5454E-3	-9.91269E-12	899.818E-3	-17.1930E-3
-1.26813E-3	-10.2216E-12	829.480E-3	-16.9135E-3	-10.1909E-12	912.026E-3	-9.34448E-3
-1.27314E-3	-10.5037E-12	834.372E-3	-12.2409E-3	-10.6231E-12	920.906E-3	-9.53077E-3
-1.27814E-3	-10.8082E-12	850.167E-3	-2.03653E-3	-10.9703E-12	947.408E-3	-16.8330E-3
-1.28314E-3	-11.0998E-12	869.620E-3	2.14246E-3	-11.2234E-12	966.559E-3	-18.6489E-3
-1.28814E-3	-11.6413E-12	882.592E-3	-9.41195E-3	-11.5438E-12	975.383E-3	-12.0754E-3
-1.29315E-3	-11.8232E-12	902.691E-3	-21.1379E-3	-12.0503E-12	995.853E-3	-14.0816E-3
-1.29815E-3	-12.1778E-12	926.006E-3	-23.6473E-3	-12.4238E-12	1.01963E+0	-26.6557E-3
-1.30315E-3	-12.6654E-12	947.587E-3	-25.4029E-3	-12.7083E-12	1.03397E+0	-23.0975E-3
-1.30815E-3	-13.1215E-12	974.413E-3	-27.1148E-3	-13.0651E-12	1.05087E+0	-2.20174E-3
-1.31316E-3	-13.3981E-12	1.00604E+0	-21.8147E-3	-13.5314E-12	1.06253E+0	7.00885E-3
-1.31816E-3	-13.6738E-12	1.02682E+0	-21.2328E-3	-13.9221E-12	1.06524E+0	-8.81220E-3
-1.32316E-3	-14.0736E-12	1.03272E+0	-24.4468E-3	-14.0433E-12	1.06698E+0	-30.9024E-3
-1.32816E-3	-14.3640E-12	1.03504E+0	-14.0387E-3	-14.3577E-12	1.06673E+0	-36.0406E-3
-1.33317E-3	-14.6554E-12	1.04269E+0	-7.40184E-3	-14.6472E-12	1.06959E+0	-17.4095E-3
-1.33817E-3	-14.7174E-12	1.06144E+0	-16.0535E-3	-14.8812E-12	1.06914E+0	7.18060E-3
-1.34317E-3	-15.0705E-12	1.07931E+0	-24.0310E-3	-15.0609E-12	1.05335E+0	3.69553E-3
-1.34817E-3	-15.3830E-12	1.07503E+0	-29.3901E-3	-15.1504E-12	1.04323E+0	-15.3260E-3
-1.35318E-3	-15.3886E-12	1.05707E+0	-26.0850E-3	-15.4081E-12	1.06117E+0	-15.6978E-3
-1.35818E-3	-15.6526E-12	1.05559E+0	-6.61499E-3	-15.7421E-12	1.09581E+0	-8.84578E-3
-1.36318E-3	-16.1668E-12	1.06958E+0	5.76579E-3	-16.2545E-12	1.12376E+0	-8.43373E-3
-1.36818E-3	-16.6579E-12	1.08594E+0	-4.59418E-3	-16.5292E-12	1.14051E+0	-13.0914E-3
-1.37319E-3	-16.8089E-12	1.10093E+0	-10.1760E-3	-17.0303E-12	1.15293E+0	-23.9761E-3
-1.37819E-3	-17.3804E-12	1.09969E+0	-2.29483E-3	-17.4635E-12	1.16198E+0	-26.7915E-3
-1.38319E-3	-17.8570E-12	1.09578E+0	-5.87549E-3	-18.0668E-12	1.17304E+0	-17.1130E-3
-1.38819E-3	-18.3015E-12	1.11314E+0	-11.1947E-3	-18.5998E-12	1.18202E+0	-9.02159E-3
-1.39320E-3	-18.8067E-12	1.13586E+0	-5.97097E-3	-19.1392E-12	1.18438E+0	-9.49769E-3
-1.39820E-3	-19.2866E-12	1.15090E+0	-11.6185E-3	-19.6103E-12	1.18260E+0	-16.0987E-3
-1.40320E-3	-19.8102E-12	1.15358E+0	-27.6555E-3	-20.0425E-12	1.18087E+0	-20.9589E-3
-1.40820E-3	-20.2248E-12	1.15446E+0	-34.0971E-3	-20.6178E-12	1.19213E+0	-13.3046E-3
-1.41321E-3	-20.6472E-12	1.17227E+0	-22.3506E-3	-20.9765E-12	1.20784E+0	-1.48615E-3
-1.41821E-3	-21.1204E-12	1.19396E+0	-11.2508E-3	-21.2112E-12	1.20535E+0	-10.9921E-3
-1.42321E-3	-21.4871E-12	1.20682E+0	-14.0654E-3	-21.4922E-12	1.18498E+0	-32.1654E-3
-1.42821E-3	-21.7512E-12	1.20366E+0	-19.5076E-3	-21.8155E-12	1.16373E+0	-31.4142E-3
-1.43322E-3	-22.0247E-12	1.19355E+0	-24.7823E-3	-22.1831E-12	1.17113E+0	-12.7025E-3
-1.43822E-3	-22.2948E-12	1.19335E+0	-28.2836E-3	-22.3074E-12	1.19019E+0	4.07230E-3
-1.44322E-3	-22.5710E-12	1.19692E+0	-35.8980E-3	-22.4091E-12	1.19375E+0	7.61573E-3
-1.44822E-3	-22.7038E-12	1.19716E+0	-34.3282E-3	-22.7710E-12	1.19874E+0	-8.00761E-3
-1.45323E-3	-22.9851E-12	1.19185E+0	-13.8924E-3	-23.1609E-12	1.19445E+0	-33.2921E-3
-1.45823E-3	-23.3602E-12	1.18452E+0	1.65560E-3	-23.5547E-12	1.18235E+0	-40.2910E-3
-1.46323E-3	-23.6518E-12	1.17995E+0	5.56610E-3	-23.9059E-12	1.18796E+0	-19.4065E-3
-1.46823E-3	-24.0309E-12	1.17427E+0	-3.40465E-3	-24.5010E-12	1.19937E+0	2.17638E-3
-1.47324E-3	-24.4164E-12	1.17490E+0	-10.9710E-3	-25.1190E-12	1.19879E+0	-4.92848E-3
-1.47824E-3	-25.0172E-12	1.17997E+0	-12.1811E-3	-25.4961E-12	1.19237E+0	-27.2996E-3
-1.48324E-3	-25.5767E-12	1.17345E+0	-17.2763E-3	-26.2738E-12	1.18951E+0	-29.6594E-3
-1.48824E-3	-26.0138E-12	1.17203E+0	-16.7827E-3	-26.6960E-12	1.19673E+0	-12.7355E-3
-1.49325E-3	-26.6007E-12	1.18189E+0	-14.1246E-3	-27.3127E-12	1.21171E+0	-2.50113E-3
-1.49825E-3	-27.1970E-12	1.18138E+0	-20.1063E-3	-27.6955E-12	1.21404E+0	-11.1248E-3
-1.50325E-3	-27.5468E-12	1.17569E+0	-32.6110E-3	-28.1435E-12	1.20849E+0	-17.0076E-3
-1.50825E-3	-28.1373E-12	1.18089E+0	-31.8679E-3	-28.6429E-12	1.21204E+0	-12.5848E-3
-1.51326E-3	-28.7393E-12	1.19316E+0	-8.65886E-3	-28.9806E-12	1.20766E+0	-14.0391E-3
-1.51826E-3	-29.1747E-12	1.20613E+0	5.64512E-3	-29.3960E-12	1.18835E+0	-17.7243E-3
-1.52326E-3	-29.4457E-12	1.21803E+0	-5.00956E-3	-29.7335E-12	1.18880E+0	-11.4739E-3
-1.52826E-3	-29.8947E-12	1.21777E+0	-24.4624E-3	-30.1194E-12	1.19988E+0	-12.3216E-3
-1.53327E-3	-30.1198E-12	1.20551E+0	-33.4802E-3	-30.3219E-12	1.18493E+0	-14.0024E-3
-1.53827E-3	-30.3437E-12	1.20640E+0	-20.3714E-3	-30.7067E-12	1.16834E+0	-1.74417E-3
-1.54327E-3	-30.5931E-12	1.20959E+0	-8.52343E-3	-30.9054E-12	1.16189E+0	-2.03663E-3
-1.54827E-3	-30.9166E-12	1.19049E+0	-18.1303E-3	-31.4065E-12	1.15147E+0	-11.4773E-3
-1.55328E-3	-31.1287E-12	1.17577E+0	-31.4630E-3	-31.6887E-12	1.14442E+0	-12.2453E-3
-1.55828E-3	-31.4791E-12	1.17198E+0	-31.1561E-3	-32.0362E-12	1.13474E+0	-7.22188E-3
-1.56328E-3	-32.1399E-12	1.15476E+0	-21.7082E-3	-32.6666E-12	1.12275E+0	-6.63039E-3
-1.56828E-3	-32.5336E-12	1.14164E+0	-13.9402E-3	-32.9594E-12	1.12756E+0	-13.0450E-3
-1.57329E-3	-32.8246E-12	1.14988E+0	-9.53035E-3	-33.2266E-12	1.13891E+0	-21.3488E-3
-1.57829E-3	-33.3452E-12	1.14345E+0	-15.5152E-3	-33.5572E-12	1.13897E+0	-30.2131E-3
-1.58329E-3	-33.9780E-12	1.12232E+0	-35.0466E-3	-33.9573E-12	1.13424E+0	-35.1793E-3
-1.58829E-3	-34.2515E-12	1.12540E+0	-41.8553E-3	-34.2432E-12	1.13090E+0	-37.7992E-3
-1.59330E-3	-34.7546E-12	1.13922E+0	-30.1637E-3	-34.8427E-12	1.12559E+0	-27.7762E-3
-1.59830E-3	-35.3201E-12	1.13835E+0	-26.8628E-3	-35.0602E-12	1.11887E+0	-8.95695E-3
-1.60330E-3	-35.5282E-12	1.13956E+0	-35.8876E-3	-35.5155E-12	1.11315E+0	-6.33535E-3
-1.60830E-3	-35.8916E-12	1.13850E+0	-38.6611E-3	-35.9038E-12	1.10033E+0	-15.8018E-3
-1.61331E-3	-36.2882E-12	1.12277E+0	-24.0053E-3	-36.2554E-12	1.09786E+0	-25.5938E-3
-1.61831E-3	-36.9499E-12	1.11558E+0	-3.68268E-3	-36.5675E-12	1.11203E+0	-25.7347E-3
-1.62331E-3	-37.2996E-12	1.11543E+0	-8.29114E-3	-37.0550E-12	1.11789E+0	-15.8661E-3
-1.62831E-3	-37.7345E-12	1.11098E+0	-19.2419E-3	-37.6434E-12	1.10889E+0	-14.1624E-3
-1.63332E-3	-38.0282E-12	1.11159E+0	-12.5382E-3	-38.0952E-12	1.08796E+0	-14.8756E-3
-1.63832E-3	-38.2987E-12	1.11139E+0	-11.7251E-3	-38.4555E-12	1.07855E+0	-8.73130E-3
-1.64332E-3	-38.6148E-12	1.10320E+0	-19.7599E-3	-38.8429E-12	1.08772E+0	-5.50302E-3
-1.64832E-3	-38.9854E-12	1.09849E+0	-28.7810E-3	-39.1383E-12	1.08448E+0	-796.291E-6
-1.65333E-3	-39.0836E-12	1.09420E+0	-30.9863E-3	-39.3578E-12	1.06532E+0	3.45347E-3
-1.65833E-3	-39.5679E-12	1.07934E+0	-24.9747E-3	-39.7568E-12	1.05339E+0	-3.59427E-3
-1.66333E-3	-39.8516E-12	1.06231E+0	-11.3321E-3	-39.9454E-12	1.04139E+0	-10.8528E-3
-1.66833E-3	-40.3238E-12	1.06157E+0	1.40164E-3	-39.8701E-12	1.01965E+0	-6.02550E-3
-1.67334E-3	-40.3835E-12	1.07283E+0	-4.84266E-3	-40.1387E-12	1.00736E+0	40.2568E-6
-1.67834E-3	-40.8042E-12	1.08249E+0	-20.7451E-3	-40.2246E-12	1.01149E+0	-6.16376E-3
-1.68334E-3	-40.8703E-12	1.07494E+0	-27.7406E-3	-40.5034E-12	1.02073E+0	-25.3962E-3
-1.68834E-3	-41.2272E-12	1.04655E+0	-21.4515E-3	-40.5742E-12	1.02772E+0	-37.9186E-3
-1.69335E-3	-41.6264E-12	1.03196E+0	-7.45937E-3	-40.8879E-12	1.02494E+0	-27.4624E-3
-1.69835E-3	-41.7853E-12	1.02984E+0	-2.41149E-3	-41.2550E-12	1.00908E+0	-12.4364E-3
-1.70335E-3	-42.2167E-12	1.01534E+0	-16.9296E-3	-42.0878E-12	995.399E-3	-8.97157E-3
-1.70835E-3	-42.5196E-12	1.00185E+0	-28.9430E-3	-42.3700E-12	993.640E-3	337.368E-6
-1.71336E-3	-43.4187E-12	1.00438E+0	-25.1231E-3	-43.1729E-12	1.00187E+0	10.4115E-3
-1.71836E-3	-43.5758E-12	1.01480E+0	-25.1738E-3	-43.7687E-12	1.00731E+0	-3.56853E-3
-1.72336E-3	-44.1947E-12	1.01629E+0	-25.0032E-3	-44.6302E-12	1.01575E+0	-16.8413E-3
-1.72836E-3	-44.9693E-12	1.00510E+0	-24.0229E-3	-45.0653E-12	1.02888E+0	-14.7578E-3
-1.73337E-3	-45.4419E-12	989.475E-3	-31.8501E-3	-45.6029E-12	1.02922E+0	-15.2369E-3
-1.73837E-3	-45.6297E-12	984.741E-3	-32.3217E-3	-46.2915E-12	1.02862E+0	-16.5019E-3
-1.74337E-3	-46.2434E-12	992.601E-3	-25.8000E-3	-46.2231E-12	1.02029E+0	-14.9511E-3
-1.74837E-3	-46.4809E-12	1.00106E+0	-24.3225E-3	-46.5171E-12	994.459E-3	-19.3878E-3
-1.75338E-3	-46.3543E-12	1.01958E+0	-28.9997E-3	-46.3798E-12	971.812E-3	-23.3500E-3
-1.75838E-3	-46.9339E-12	1.03961E+0	-39.3529E-3	-46.3966E-12	958.719E-3	-23.4916E-3
-1.76338E-3	-46.9008E-12	1.03617E+0	-39.8990E-3	-46.2352E-12	947.038E-3	-27.5899E-3
-1.76838E-3	-47.0592E-12	1.00625E+0	-28.1828E-3	-46.3578E-12	927.386E-3	-24.9636E-3
-1.77339E-3	-46.9196E-12	980.135E-3	-22.4130E-3	-46.2200E-12	916.124E-3	-19.7106E-3
-1.77839E-3	-47.5081E-12	979.584E-3	-20.2916E-3	-46.3270E-12	927.931E-3	-18.6138E-3
-1.78339E-3	-47.2540E-12	982.699E-3	-18.5430E-3	-46.4942E-12	938.998E-3	-11.0639E-3
-1.78839E-3	-47.1847E-12	977.676E-3	-11.1069E-3	-46.9443E-12	939.311E-3	-1.65003E-3
-1.79340E-3	-47.7508E-12	963.447E-3	8.60587E-3	-47.3252E-12	939.719E-3	369.350E-6
-1.79840E-3	-47.9153E-12	948.414E-3	17.1957E-3	-48.0128E-12	936.936E-3	-2.41758E-3
-1.80340E-3	-48.6630E-12	944.312E-3	1.28136E-3	-48.6026E-12	936.009E-3	-6.69587E-3
-1.80840E-3	-49.0322E-12	933.058E-3	-17.9196E-3	-49.3654E-12	940.526E-3	-14.8258E-3
-1.81341E-3	-49.8486E-12	925.433E-3	-14.9568E-3	-50.1145E-12	949.860E-3	-20.2764E-3
-1.81841E-3	-50.1478E-12	934.218E-3	11.9117E-3	-51.2051E-12	966.013E-3	-20.9668E-3
-1.82341E-3	-51.4054E-12	939.471E-3	26.7258E-3	-51.7878E-12	970.454E-3	-26.5829E-3
-1.82841E-3	-51.5811E-12	942.649E-3	-3.96553E-3	-52.4090E-12	961.003E-3	-29.6952E-3
-1.83342E-3	-52.2118E-12	937.662E-3	-41.5645E-3	-52.8085E-12	958.675E-3	-26.8916E-3
-1.83842E-3	-52.5490E-12	925.588E-3	-33.6364E-3	-53.1156E-12	959.892E-3	-24.5147E-3
-1.84342E-3	-53.0397E-12	932.035E-3	-4.09877E-3	-53.4146E-12	952.705E-3	-17.6218E-3
-1.84842E-3	-53.2418E-12	946.182E-3	8.30075E-3	-53.3382E-12	934.339E-3	-9.72388E-3
-1.85343E-3	-53.4303E-12	953.186E-3	-2.55957E-3	-53.5290E-12	915.688E-3	-3.85495E-3
-1.85843E-3	-53.3396E-12	959.193E-3	-22.9360E-3	-52.9105E-12	899.544E-3	-6.18754E-3
-1.86343E-3	-53.5081E-12	961.750E-3	-31.8692E-3	-52.9041E-12	887.779E-3	-16.5130E-3
-1.86843E-3	-53.2217E-12	951.650E-3	-19.9271E-3	-52.7159E-12	886.795E-3	-20.0514E-3
-1.87344E-3	-53.2652E-12	930.533E-3	-5.33597E-3	-52.7661E-12	883.522E-3	-12.9700E-3
-1.87844E-3	-53.4309E-12	912.089E-3	-10.8938E-3	-52.8518E-12	878.609E-3	520.709E-6
-1.88344E-3	-53.1949E-12	891.354E-3	-22.6438E-3	-52.9827E-12	877.307E-3	7.02846E-3
-1.88844E-3	-53.1372E-12	885.459E-3	-31.2030E-3	-53.5496E-12	888.438E-3	-4.74331E-3
-1.89345E-3	-53.6128E-12	891.809E-3	-29.3791E-3	-53.8503E-12	911.287E-3	-20.3749E-3
-1.89845E-3	-54.1432E-12	888.361E-3	-5.15374E-3	-54.5417E-12	911.933E-3	-19.6091E-3
-1.90345E-3	-54.1597E-12	882.432E-3	7.06436E-3	-54.7602E-12	896.413E-3	-13.7988E-3
-1.90845E-3	-54.9551E-12	870.477E-3	-4.50183E-3	-55.6663E-12	896.111E-3	-27.5236E-3
-1.91346E-3	-55.6120E-12	861.642E-3	-10.4973E-3	-56.1844E-12	904.982E-3	-43.4914E-3
-1.91846E-3	-56.3524E-12	868.349E-3	-10.7945E-3	-56.9736E-12	897.899E-3	-41.1453E-3
-1.92346E-3	-56.8314E-12	881.299E-3	-15.0573E-3	-57.3167E-12	876.484E-3	-27.4857E-3
-1.92846E-3	-57.3057E-12	887.252E-3	-16.1559E-3	-58.1366E-12	874.090E-3	-19.1342E-3
-1.93347E-3	-58.1715E-12	889.324E-3	-12.1678E-3	-58.1513E-12	881.694E-3	-19.6091E-3
-1.93847E-3	-58.2134E-12	889.455E-3	-9.50885E-3	-58.5426E-12	888.787E-3	-19.6910E-3
-1.94347E-3	-58.7684E-12	893.428E-3	-3.72267E-3	-58.7825E-12	905.597E-3	-15.8814E-3
-1.94847E-3	-58.5645E-12	903.733E-3	-908.883E-6	-58.6580E-12	912.741E-3	-15.3910E-3
-1.95348E-3	-58.9392E-12	910.476E-3	-3.13169E-3	-58.9290E-12	902.594E-3	-14.7585E-3
-1.95848E-3	-59.0195E-12	911.576E-3	-2.76859E-3	-58.7543E-12	887.320E-3	-9.75787E-3
-1.96348E-3	-59.1990E-12	898.974E-3	-6.30615E-3	-59.2769E-12	871.099E-3	-13.9399E-3
-1.96848E-3	-59.2234E-12	876.718E-3	-14.9294E-3	-59.1187E-12	866.976E-3	-17.3240E-3
-1.97349E-3	-58.8829E-12	865.817E-3	-19.0724E-3	-59.1580E-12	874.387E-3	-10.9227E-3
-1.97849E-3	-59.1743E-12	865.160E-3	-15.9693E-3	-59.0659E-12	873.186E-3	-12.4452E-3
-1.98349E-3	-59.1629E-12	861.484E-3	-23.6024E-3	-59.3975E-12	868.595E-3	-15.5224E-3
-1.98849E-3	-59.8917E-12	858.739E-3	-28.0292E-3	-59.5203E-12	856.813E-3	-8.40391E-3
-1.99350E-3	-59.6760E-12	855.319E-3	-15.7418E-3	-59.7027E-12	840.416E-3	233.032E-6
-1.99850E-3	-60.1045E-12	842.592E-3	-11.2198E-3	-60.3461E-12	841.882E-3	9.09900E-3
-2.00350E-3	-60.5440E-12	837.689E-3	-10.8381E-3	-60.3348E-12	849.073E-3	9.01746E-3
-2.00850E-3	-61.2144E-12	848.216E-3	-11.9033E-3	-60.9269E-12	848.149E-3	-4.23475E-3
-2.01351E-3	-61.7729E-12	857.673E-3	-21.7869E-3	-61.2111E-12	853.021E-3	-14.8533E-3
-2.01851E-3	-62.2278E-12	862.957E-3	-29.3697E-3	-61.7344E-12	858.469E-3	-19.9389E-3
-2.02351E-3	-62.6224E-12	867.457E-3	-18.7137E-3	-62.1234E-12	851.754E-3	-17.2525E-3
-2.02851E-3	-62.9860E-12	869.726E-3	-7.00501E-3	-62.5521E-12	852.660E-3	8.00977E-3
-2.03352E-3	-63.6940E-12	865.728E-3	-23.6407E-3	-63.1074E-12	850.826E-3	26.3942E-3
-2.03852E-3	-63.6352E-12	854.265E-3	-46.4187E-3	-63.2299E-12	835.664E-3	7.10357E-3
-2.04352E-3	-63.9365E-12	848.573E-3	-40.9882E-3	-64.1321E-12	840.299E-3	-23.6072E-3
-2.04852E-3	-64.0485E-12	846.023E-3	-22.1525E-3	-63.9045E-12	851.111E-3	-33.0822E-3
-2.05353E-3	-64.0969E-12	836.018E-3	-18.0663E-3	-64.5008E-12	849.752E-3	-25.0741E-3
-2.05853E-3	-64.0819E-12	826.004E-3	-20.1816E-3	-64.9789E-12	841.421E-3	-33.2640E-3
-2.06353E-3	-64.0176E-12	815.993E-3	-23.1269E-3	-65.2864E-12	832.420E-3	-47.5411E-3
-2.06853E-3	-64.4169E-12	812.494E-3	-28.5317E-3	-65.5273E-12	823.996E-3	-39.0420E-3
-2.07354E-3	-64.3962E-12	822.686E-3	-23.1776E-3	-65.6633E-12	817.460E-3	-29.9261E-3
-2.07854E-3	-64.8671E-12	833.499E-3	-15.4609E-3	-65.9254E-12	821.961E-3	-24.9490E-3
-2.08354E-3	-64.8229E-12	839.218E-3	-18.5194E-3	-65.7494E-12	826.201E-3	-20.9699E-3
-2.08854E-3	-65.1708E-12	834.234E-3	-23.0145E-3	-66.0239E-12	821.915E-3	-22.8387E-3
-2.09355E-3	-65.4533E-12	813.258E-3	-26.4646E-3	-66.2451E-12	807.400E-3	-13.8797E-3
-2.09855E-3	-65.7686E-12	793.795E-3	-36.8140E-3	-65.9275E-12	801.587E-3	-5.30723E-3
-2.10355E-3	-65.8486E-12	790.630E-3	-33.9816E-3	-66.1438E-12	822.747E-3	-13.0500E-3
-2.10855E-3	-66.3550E-12	788.639E-3	-17.7076E-3	-66.2416E-12	831.257E-3	-28.2133E-3
-2.11356E-3	-66.7033E-12	792.715E-3	-5.63197E-3	-66.5959E-12	816.862E-3	-28.0325E-3
-2.11856E-3	-66.8373E-12	801.914E-3	-1.94053E-3	-67.0693E-12	811.828E-3	-18.7382E-3
-2.12356E-3	-67.1680E-12	809.182E-3	-7.42329E-3	-67.6059E-12	811.113E-3	-18.9568E-3
-2.12856E-3	-67.8261E-12	812.132E-3	-16.7793E-3	-68.4511E-12	815.190E-3	-18.9329E-3
-2.13357E-3	-68.4211E-12	801.456E-3	-17.4412E-3	-68.8429E-12	817.590E-3	-20.4840E-3
-2.13857E-3	-68.5622E-12	796.415E-3	912.676E-6	-69.8179E-12	814.675E-3	-26.3275E-3
-2.14357E-3	-68.7624E-12	804.355E-3	11.2526E-3	-69.8199E-12	821.739E-3	-33.2133E-3
-2.14857E-3	-69.3352E-12	811.804E-3	-8.29134E-3	-70.8062E-12	827.764E-3	-38.4359E-3
-2.15358E-3	-69.5925E-12	822.844E-3	-23.4193E-3	-71.7559E-12	828.662E-3	-33.3202E-3
-2.15858E-3	-69.6067E-12	838.411E-3	-15.4690E-3	-72.3222E-12	826.371E-3	-29.0126E-3
-2.16358E-3	-70.3750E-12	831.252E-3	-12.2967E-3	-72.9282E-12	822.436E-3	-28.1185E-3
-2.16858E-3	-70.6081E-12	807.607E-3	-9.88672E-3	-73.0315E-12	814.646E-3	-16.5173E-3
-2.17359E-3	-70.8085E-12	801.136E-3	-3.44479E-3	-73.2594E-12	800.537E-3	-2.30358E-3
-2.17859E-3	-70.7706E-12	801.797E-3	-13.2906E-3	-72.7488E-12	792.138E-3	8.75039E-3
-2.18359E-3	-71.4024E-12	799.715E-3	-21.4335E-3	-72.6227E-12	784.951E-3	15.2360E-3
-2.18859E-3	-71.7688E-12	803.260E-3	-19.6762E-3	-71.5661E-12	780.063E-3	3.91417E-3
-2.19360E-3	-71.6119E-12	811.664E-3	-18.7913E-3	-71.6825E-12	781.385E-3	-15.8113E-3
-2.19860E-3	-71.4380E-12	813.893E-3	-13.6910E-3	-71.3739E-12	787.382E-3	-25.0917E-3
-2.20360E-3	-71.7832E-12	801.226E-3	-9.00806E-3	-71.2564E-12	796.033E-3	-25.5059E-3
-2.20860E-3	-71.8249E-12	792.125E-3	-13.8891E-3	-71.2712E-12	803.449E-3	-25.1077E-3
-2.21361E-3	-71.8625E-12	792.342E-3	-14.2187E-3	-71.3234E-12	807.649E-3	-17.3108E-3
-2.21861E-3	-72.0157E-12	798.400E-3	-9.13988E-3	-71.9410E-12	792.823E-3	1.56430E-3
-2.22361E-3	-72.5291E-12	799.809E-3	-11.3752E-3	-72.0713E-12	779.468E-3	5.48233E-3
-2.22861E-3	-72.9636E-12	792.386E-3	-20.7818E-3	-72.9946E-12	792.892E-3	-12.6330E-3
-2.23362E-3	-73.2847E-12	802.885E-3	-26.5804E-3	-73.3986E-12	804.208E-3	-15.0873E-3
-2.23862E-3	-73.6471E-12	809.983E-3	-23.6282E-3	-74.7353E-12	800.240E-3	5.07378E-3
-2.24362E-3	-74.5302E-12	778.611E-3	-24.4551E-3	-74.9859E-12	784.827E-3	10.7231E-3
-2.24862E-3	-75.0851E-12	742.062E-3	-10.0767E-3	-76.0669E-12	771.113E-3	3.53743E-3
-2.25363E-3	-75.5976E-12	738.943E-3	3.89804E-3	-76.7146E-12	780.785E-3	5.18633E-3
-2.25863E-3	-76.1117E-12	756.670E-3	-14.6547E-3	-77.0560E-12	809.020E-3	10.7833E-3
-2.26363E-3	-76.6674E-12	775.191E-3	-27.2512E-3	-77.1023E-12	829.364E-3	9.07846E-3
-2.26863E-3	-76.9709E-12	782.350E-3	-26.5464E-3	-77.0794E-12	820.624E-3	2.07230E-3
-2.27364E-3	-76.9329E-12	774.668E-3	-32.5801E-3	-77.0889E-12	783.156E-3	-8.93379E-3
-2.27864E-3	-77.1329E-12	769.638E-3	-29.4538E-3	-76.5006E-12	754.495E-3	-25.6960E-3
-2.28364E-3	-77.5366E-12	782.546E-3	-22.6270E-3	-76.1481E-12	753.136E-3	-33.8080E-3
-2.28864E-3	-77.6476E-12	806.020E-3	-26.7909E-3	-75.6275E-12	754.349E-3	-26.2341E-3
-2.29365E-3	-77.4905E-12	808.970E-3	-21.7363E-3	-75.4179E-12	751.325E-3	-20.2107E-3
-2.29865E-3	-77.4395E-12	783.410E-3	-17.4617E-3	-75.0775E-12	750.459E-3	-24.8681E-3
-2.30365E-3	-77.3368E-12	763.381E-3	-20.3538E-3	-74.9540E-12	744.974E-3	-17.9120E-3
-2.30865E-3	-76.7296E-12	764.341E-3	-20.7936E-3	-75.5066E-12	733.651E-3	-4.27554E-3
-2.31366E-3	-76.8531E-12	770.064E-3	-36.1518E-3	-75.7208E-12	730.646E-3	-6.09077E-3
-2.31866E-3	-76.8792E-12	760.477E-3	-46.1915E-3	-75.9792E-12	736.232E-3	-4.85032E-3
-2.32366E-3	-77.0178E-12	732.276E-3	-31.2255E-3	-76.5173E-12	733.944E-3	-7.72397E-3
-2.32866E-3	-77.3234E-12	712.813E-3	-18.8536E-3	-77.2364E-12	745.096E-3	-15.8975E-3
-2.33367E-3	-78.3236E-12	730.838E-3	-18.0912E-3	-77.9010E-12	771.905E-3	-5.35277E-3
-2.33867E-3	-78.9914E-12	761.079E-3	-18.8263E-3	-78.7595E-12	768.599E-3	-3.22739E-3
-2.34367E-3	-79.1890E-12	762.521E-3	-23.5460E-3	-79.4203E-12	759.716E-3	-23.5169E-3
-2.34867E-3	-79.8539E-12	759.221E-3	-24.2576E-3	-80.0866E-12	773.656E-3	-40.1207E-3
-2.35368E-3	-80.6904E-12	769.097E-3	-23.7147E-3	-80.8133E-12	783.937E-3	-42.3699E-3
-2.35868E-3	-81.1034E-12	771.364E-3	-22.4994E-3	-81.3381E-12	787.834E-3	-32.2065E-3
-2.36368E-3	-81.5812E-12	767.056E-3	-11.1339E-3	-81.5118E-12	788.368E-3	-19.7906E-3
-2.36868E-3	-81.6588E-12	756.942E-3	-5.09658E-3	-81.5238E-12	769.902E-3	-13.3261E-3
-2.37369E-3	-81.9858E-12	758.507E-3	-8.40957E-3	-81.6390E-12	746.982E-3	-18.2368E-3
-2.37869E-3	-81.8783E-12	777.244E-3	-6.68293E-3	-81.2891E-12	753.921E-3	-25.3016E-3
-2.38369E-3	-82.1074E-12	774.348E-3	-4.85230E-3	-81.5306E-12	764.196E-3	-18.0670E-3
-2.38869E-3	-81.7129E-12	755.702E-3	-11.0622E-3	-81.2187E-12	754.251E-3	-10.2096E-3
-2.39370E-3	-81.7342E-12	749.020E-3	-20.6898E-3	-81.1854E-12	739.516E-3	-20.5897E-3
-2.39870E-3	-81.6556E-12	740.719E-3	-27.5375E-3	-81.0640E-12	730.598E-3	-22.5189E-3
-2.40370E-3	-81.4611E-12	735.056E-3	-19.0268E-3	-81.4132E-12	742.749E-3	-21.8823E-3
-2.40870E-3	-81.5431E-12	743.606E-3	-14.9591E-3	-81.6919E-12	752.357E-3	-40.9986E-3
-2.41371E-3	-81.5566E-12	744.460E-3	-15.4556E-3	-81.6538E-12	740.201E-3	-44.8472E-3
-2.41871E-3	-81.5665E-12	741.685E-3	-7.49424E-3	-82.0106E-12	726.344E-3	-27.4021E-3
-2.42371E-3	-82.0438E-12	745.335E-3	-14.8561E-3	-82.3555E-12	728.469E-3	-23.8582E-3
-2.42871E-3	-82.5757E-12	744.937E-3	-26.5330E-3	-83.0835E-12	741.713E-3	-25.4320E-3
-2.43372E-3	-83.1260E-12	740.820E-3	-23.0892E-3	-83.5211E-12	744.091E-3	-28.6417E-3
-2.43872E-3	-83.4878E-12	730.530E-3	-10.2387E-3	-84.0224E-12	741.112E-3	-43.8031E-3
-2.44372E-3	-84.3086E-12	728.701E-3	8.87948E-3	-84.5477E-12	755.256E-3	-42.7843E-3
-2.44872E-3	-84.5833E-12	737.550E-3	21.9174E-3	-85.2862E-12	771.286E-3	-31.5095E-3
-2.45373E-3	-85.2312E-12	744.002E-3	2.80113E-3	-85.8261E-12	766.718E-3	-29.2518E-3
-2.45873E-3	-85.5300E-12	750.370E-3	-22.9020E-3	-86.0230E-12	762.511E-3	-28.1052E-3
-2.46373E-3	-85.9748E-12	744.622E-3	-24.1469E-3	-86.3906E-12	774.502E-3	-36.3057E-3
-2.46873E-3	-85.8620E-12	732.707E-3	-30.2311E-3	-86.6784E-12	768.922E-3	-45.9713E-3
-2.47374E-3	-86.2986E-12	735.074E-3	-37.6733E-3	-87.0414E-12	744.325E-3	-47.9818E-3
-2.47874E-3	-86.1358E-12	750.950E-3	-24.3711E-3	-87.4717E-12	740.575E-3	-58.3280E-3
-2.48374E-3	-86.4114E-12	756.451E-3	-20.1970E-3	-87.5734E-12	757.256E-3	-59.8784E-3
-2.48874E-3	-86.1132E-12	742.409E-3	-28.8859E-3	-87.9205E-12	759.488E-3	-37.4158E-3
-2.49375E-3	-86.3029E-12	733.704E-3	-20.3710E-3	-87.8175E-12	732.949E-3	-16.4886E-3
-2.49875E-3	-86.6229E-12	731.984E-3	-5.12844E-3	-87.8200E-12	701.575E-3	-11.3766E-3
-2.50375E-3	-86.4925E-12	718.532E-3	6.21609E-3	-87.7661E-12	696.755E-3	-6.21480E-3
-2.50875E-3	-86.8913E-12	705.781E-3	6.56774E-3	-87.5160E-12	707.610E-3	748.623E-6
-2.51376E-3	-86.6993E-12	704.359E-3	-7.64244E-3	-87.5117E-12	691.352E-3	-651.402E-6
-2.51876E-3	-87.1802E-12	707.538E-3	-20.2939E-3	-87.3881E-12	676.095E-3	-4.87598E-3
-2.52376E-3	-87.0565E-12	719.137E-3	-25.5557E-3	-87.3791E-12	708.145E-3	-16.0560E-3
-2.52876E-3	-87.4067E-12	737.795E-3	-34.9580E-3	-87.6064E-12	735.571E-3	-26.5690E-3
-2.53377E-3	-87.7424E-12	747.943E-3	-32.4166E-3	-87.6277E-12	716.682E-3	-21.7193E-3
-2.53877E-3	-88.6380E-12	746.008E-3	-15.9447E-3	-87.9322E-12	697.171E-3	-15.4830E-3
-2.54377E-3	-88.4945E-12	744.089E-3	-29.7688E-3	-88.1986E-12	694.445E-3	-8.20378E-3
-2.54877E-3	-89.1574E-12	741.227E-3	-51.2658E-3	-88.3718E-12	708.045E-3	-7.18321E-3
-2.55378E-3	-89.8123E-12	733.374E-3	-43.9367E-3	-88.8981E-12	729.388E-3	-17.8619E-3
-2.55878E-3	-90.0585E-12	732.548E-3	-24.6859E-3	-89.7808E-12	738.259E-3	-20.0580E-3
-2.56378E-3	-89.9776E-12	731.555E-3	-15.5644E-3	-90.1502E-12	747.890E-3	-11.3169E-3
-2.56878E-3	-90.5355E-12	719.139E-3	-22.8210E-3	-91.1766E-12	755.905E-3	-2.45298E-3
-2.57379E-3	-90.9162E-12	721.505E-3	-25.7568E-3	-91.9372E-12	744.569E-3	-6.36987E-3
-2.57879E-3	-90.8830E-12	734.789E-3	-19.8406E-3	-92.5943E-12	722.933E-3	-22.9256E-3
-2.58379E-3	-90.9821E-12	724.410E-3	-21.5092E-3	-92.9839E-12	723.922E-3	-24.0598E-3
-2.58879E-3	-91.3112E-12	714.736E-3	-32.3305E-3	-93.2103E-12	720.720E-3	-16.1812E-3
-2.59380E-3	-91.6029E-12	730.428E-3	-48.4487E-3	-93.0668E-12	693.391E-3	-18.4304E-3
-2.59880E-3	-91.3573E-12	737.761E-3	-43.4948E-3	-93.2053E-12	698.427E-3	-8.73779E-3
-2.60380E-3	-91.6186E-12	723.482E-3	-14.9338E-3	-93.1098E-12	719.213E-3	9.70574E-3
-2.60880E-3	-92.1039E-12	713.159E-3	2.80054E-3	-92.5289E-12	714.963E-3	5.41016E-3
-2.61381E-3	-91.5749E-12	715.546E-3	11.4917E-3	-91.9970E-12	708.319E-3	-14.4056E-3
-2.61881E-3	-92.0296E-12	715.776E-3	20.8109E-3	-91.9710E-12	708.757E-3	-23.0363E-3
-2.62381E-3	-91.7759E-12	701.487E-3	11.9120E-3	-91.5955E-12	706.811E-3	-19.9834E-3
-2.62881E-3	-92.3202E-12	686.494E-3	-8.06639E-3	-91.4145E-12	702.241E-3	-20.6546E-3
-2.63382E-3	-92.3116E-12	687.381E-3	-13.9104E-3	-91.5917E-12	708.597E-3	-25.9319E-3
-2.63882E-3	-92.5299E-12	698.230E-3	-8.05460E-3	-91.7182E-12	709.923E-3	-15.5918E-3
-2.64382E-3	-92.5117E-12	706.143E-3	-3.61255E-3	-92.0670E-12	705.265E-3	1.14466E-3
-2.64882E-3	-93.0585E-12	704.410E-3	1.44611E-3	-92.3000E-12	696.459E-3	10.0818E-3
-2.65383E-3	-93.1679E-12	694.643E-3	306.623E-6	-93.1216E-12	668.998E-3	13.5505E-3
-2.65883E-3	-94.0315E-12	693.285E-3	-4.87086E-3	-93.7798E-12	672.313E-3	14.2431E-3
-2.66383E-3	-94.3092E-12	703.274E-3	1.33566E-3	-95.0349E-12	724.109E-3	11.6187E-3
-2.66883E-3	-94.6876E-12	703.936E-3	5.54375E-3	-95.4150E-12	757.382E-3	-2.36175E-3
-2.67384E-3	-95.3473E-12	699.925E-3	762.224E-6	-96.4709E-12	741.234E-3	-20.3928E-3
-2.67884E-3	-95.6631E-12	708.101E-3	-5.97526E-3	-97.3256E-12	732.108E-3	-44.7227E-3
-2.68384E-3	-96.3751E-12	715.777E-3	-8.06928E-3	-98.1838E-12	739.354E-3	-55.3089E-3
-2.68884E-3	-96.8621E-12	712.304E-3	-6.97236E-3	-98.3636E-12	732.355E-3	-31.3485E-3
-2.69385E-3	-96.7587E-12	717.481E-3	-12.0434E-3	-98.5883E-12	725.165E-3	-16.3876E-3
-2.69885E-3	-97.0422E-12	724.719E-3	-19.2729E-3	-98.2760E-12	704.614E-3	-22.7522E-3
-2.70385E-3	-97.1718E-12	717.097E-3	-16.0624E-3	-97.8545E-12	682.066E-3	-22.7262E-3
-2.70885E-3	-97.2281E-12	713.213E-3	-7.88491E-3	-97.2923E-12	691.819E-3	-27.4896E-3
-2.71386E-3	-96.7047E-12	723.236E-3	-7.78745E-3	-97.2369E-12	696.434E-3	-39.2425E-3
-2.71886E-3	-96.6959E-12	734.349E-3	-9.09339E-3	-96.8201E-12	691.394E-3	-26.5402E-3
-2.72386E-3	-96.4975E-12	730.626E-3	-1.45531E-3	-96.1677E-12	701.751E-3	-4.49707E-3
-2.72886E-3	-96.6303E-12	717.360E-3	13.2931E-3	-96.1490E-12	698.940E-3	-7.47366E-3
-2.73387E-3	-96.5527E-12	721.127E-3	22.1484E-3	-96.3771E-12	688.456E-3	-5.91820E-3
-2.73887E-3	-96.7021E-12	724.420E-3	12.5304E-3	-97.1428E-12	705.108E-3	10.3443E-3
-2.74387E-3	-96.9289E-12	706.992E-3	-15.3724E-3	-97.1986E-12	715.965E-3	3.31375E-3
-2.74887E-3	-97.4262E-12	689.900E-3	-30.5066E-3	-97.7942E-12	693.665E-3	-16.9967E-3
-2.75388E-3	-97.9971E-12	684.643E-3	-28.0258E-3	-98.6328E-12	695.163E-3	-15.3461E-3
-2.75888E-3	-98.7417E-12	693.997E-3	-37.4247E-3	-99.8343E-12	727.588E-3	-14.5822E-3
-2.76388E-3	-99.4344E-12	702.643E-3	-48.2928E-3	-100.170E-12	725.833E-3	-39.1310E-3
-2.76888E-3	-100.053E-12	698.991E-3	-30.0464E-3	-101.273E-12	704.594E-3	-35.0173E-3
-2.77389E-3	-100.950E-12	691.496E-3	1.27879E-3	-102.484E-12	711.887E-3	-10.2715E-3
-2.77889E-3	-101.485E-12	691.135E-3	3.76030E-3	-102.977E-12	732.013E-3	-1.45734E-3
-2.78389E-3	-102.437E-12	696.200E-3	-10.3735E-3	-103.046E-12	744.711E-3	14.5913E-3
-2.78889E-3	-103.009E-12	704.870E-3	-5.89828E-3	-103.498E-12	739.621E-3	15.6272E-3
-2.79390E-3	-103.118E-12	723.479E-3	7.59711E-3	-103.493E-12	719.452E-3	474.688E-6
-2.79890E-3	-103.374E-12	732.468E-3	10.6273E-3	-102.952E-12	712.710E-3	-6.75506E-3
-2.80390E-3	-103.215E-12	725.064E-3	11.7159E-3	-102.493E-12	724.438E-3	-20.6183E-3
-2.80890E-3	-103.336E-12	722.878E-3	7.87753E-3	-101.994E-12	717.646E-3	-40.0080E-3
-2.81391E-3	-103.074E-12	724.687E-3	-1.10454E-3	-101.852E-12	704.975E-3	-37.9876E-3
-2.81891E-3	-102.542E-12	710.617E-3	5.53570E-3	-101.559E-12	722.387E-3	-20.4761E-3
-2.82391E-3	-102.639E-12	690.902E-3	8.40839E-3	-101.098E-12	725.629E-3	-13.4510E-3
-2.82891E-3	-102.413E-12	689.592E-3	1.64497E-3	-101.599E-12	698.670E-3	-10.8128E-3
-2.83392E-3	-102.563E-12	703.813E-3	-3.28956E-3	-101.735E-12	682.363E-3	-9.40812E-3
-2.83892E-3	-102.775E-12	707.239E-3	-14.5296E-3	-102.216E-12	685.595E-3	-16.3411E-3
-2.84392E-3	-103.124E-12	698.453E-3	-25.2487E-3	-102.603E-12	682.299E-3	-25.5780E-3
-2.84892E-3	-103.310E-12	699.696E-3	-24.1565E-3	-103.243E-12	675.618E-3	-41.1944E-3
-2.85393E-3	-103.934E-12	697.716E-3	-27.5264E-3	-103.440E-12	685.004E-3	-44.3245E-3
-2.85893E-3	-104.052E-12	682.893E-3	-36.4476E-3	-104.213E-12	701.980E-3	-23.5334E-3
-2.86393E-3	-104.560E-12	676.449E-3	-22.7441E-3	-104.715E-12	718.259E-3	-11.0824E-3
-2.86893E-3	-105.002E-12	691.575E-3	-4.93901E-3	-105.247E-12	728.721E-3	-7.26187E-3
-2.87394E-3	-105.405E-12	698.153E-3	-14.7886E-3	-105.617E-12	712.551E-3	-3.17616E-3
-2.87894E-3	-105.820E-12	687.477E-3	-38.6878E-3	-106.042E-12	694.774E-3	-24.2065E-3
-2.88394E-3	-106.299E-12	698.356E-3	-41.9151E-3	-106.268E-12	707.042E-3	-33.8981E-3
-2.88894E-3	-106.603E-12	717.545E-3	-30.9467E-3	-107.019E-12	718.005E-3	-9.40189E-3
-2.89395E-3	-106.841E-12	725.050E-3	-33.2876E-3	-107.168E-12	727.087E-3	-8.91272E-3
-2.89895E-3	-107.715E-12	733.718E-3	-33.9570E-3	-107.747E-12	724.465E-3	-22.4437E-3
-2.90395E-3	-107.951E-12	748.307E-3	-24.0581E-3	-107.469E-12	702.840E-3	-20.6741E-3
-2.90895E-3	-107.194E-12	744.643E-3	-23.0376E-3	-107.798E-12	699.016E-3	-17.9310E-3
-2.91396E-3	-107.715E-12	709.688E-3	-26.0034E-3	-107.209E-12	697.844E-3	-9.94327E-3
-2.91896E-3	-107.944E-12	687.862E-3	-23.0317E-3	-106.783E-12	688.662E-3	-3.64385E-3
-2.92396E-3	-107.065E-12	701.788E-3	-20.4307E-3	-106.716E-12	683.617E-3	-5.68377E-3
-2.92896E-3	-106.895E-12	708.501E-3	-13.6145E-3	-107.289E-12	678.774E-3	-7.77479E-3
-2.93397E-3	-106.567E-12	689.074E-3	-1.62307E-3	-107.049E-12	683.317E-3	-13.0407E-3
-2.93897E-3	-106.936E-12	674.990E-3	-1.04434E-3	-106.907E-12	714.100E-3	-9.86938E-3
-2.94397E-3	-106.758E-12	676.077E-3	1.67562E-3	-107.231E-12	732.009E-3	2.02536E-3
-2.94897E-3	-106.940E-12	685.407E-3	24.8643E-3	-106.978E-12	704.088E-3	-5.32937E-3
-2.95398E-3	-106.909E-12	694.612E-3	29.7363E-3	-107.540E-12	675.724E-3	-9.32718E-3
-2.95898E-3	-108.005E-12	686.208E-3	-858.189E-6	-107.525E-12	663.819E-3	4.39875E-3
-2.96398E-3	-108.018E-12	678.253E-3	-17.7473E-3	-107.554E-12	663.154E-3	6.47494E-3
-2.96898E-3	-108.754E-12	690.356E-3	3.69188E-3	-108.539E-12	682.890E-3	4.48680E-3
-2.97399E-3	-109.116E-12	706.156E-3	8.49247E-3	-108.628E-12	706.435E-3	-8.31788E-3
-2.97899E-3	-110.296E-12	714.188E-3	-8.40330E-3	-109.098E-12	706.146E-3	-13.9423E-3
-2.98399E-3	-109.623E-12	713.024E-3	-1.92971E-3	-110.253E-12	679.570E-3	-2.43423E-3
-2.98899E-3	-111.407E-12	708.282E-3	7.91150E-3	-111.038E-12	664.497E-3	-9.79192E-3
-2.99400E-3	-111.073E-12	701.436E-3	-1.01849E-3	-111.170E-12	668.954E-3	-24.2834E-3
-2.99900E-3	-111.298E-12	700.387E-3	-7.91643E-3	-111.891E-12	670.563E-3	-25.1763E-3
-3.00400E-3	-111.070E-12	694.369E-3	-6.12294E-3	-112.626E-12	684.256E-3	-21.4872E-3
-3.00900E-3	-110.978E-12	678.516E-3	-13.2766E-3	-113.104E-12	688.654E-3	-22.2342E-3
-3.01401E-3	-111.125E-12	684.985E-3	-5.98765E-3	-112.998E-12	678.011E-3	-9.09747E-3
-3.01901E-3	-110.679E-12	686.276E-3	17.2866E-3	-113.223E-12	685.062E-3	13.5360E-3
-3.02401E-3	-110.781E-12	670.065E-3	14.7743E-3	-112.875E-12	687.211E-3	19.0716E-3
-3.02901E-3	-110.673E-12	673.892E-3	1.04768E-3	-112.664E-12	680.938E-3	2.08664E-3
-3.03402E-3	-111.306E-12	673.845E-3	-13.3054E-3	-112.322E-12	680.631E-3	-29.8656E-3
-3.03902E-3	-110.739E-12	655.865E-3	-35.4741E-3	-112.428E-12	679.771E-3	-61.6419E-3
-3.04402E-3	-111.063E-12	660.352E-3	-36.4533E-3	-111.968E-12	688.843E-3	-66.6955E-3
-3.04902E-3	-110.930E-12	673.030E-3	-21.8188E-3	-111.831E-12	701.055E-3	-37.9433E-3
-3.05403E-3	-111.899E-12	662.969E-3	-9.37937E-3	-111.342E-12	689.770E-3	-23.3686E-3
-3.05903E-3	-112.285E-12	662.848E-3	-2.04381E-3	-111.759E-12	673.118E-3	-37.7917E-3
-3.06403E-3	-112.951E-12	681.290E-3	-12.1674E-3	-112.254E-12	678.165E-3	-46.7227E-3
-3.06903E-3	-113.558E-12	688.903E-3	-26.2531E-3	-112.591E-12	691.474E-3	-32.8473E-3
-3.07404E-3	-113.977E-12	690.252E-3	-12.4453E-3	-113.466E-12	697.557E-3	-6.24673E-3
-3.07904E-3	-114.340E-12	688.249E-3	20.4199E-3	-114.145E-12	702.385E-3	-53.0656E-6
-3.08404E-3	-115.523E-12	693.152E-3	36.7656E-3	-115.424E-12	710.900E-3	2.95126E-3
-3.08904E-3	-115.954E-12	705.262E-3	30.5051E-3	-116.337E-12	714.656E-3	4.03480E-3
-3.09405E-3	-116.229E-12	695.675E-3	12.6091E-3	-116.752E-12	712.690E-3	-27.9404E-3
-3.09905E-3	-116.366E-12	672.190E-3	-9.58580E-3	-117.704E-12	705.949E-3	-50.9524E-3
-3.10405E-3	-116.720E-12	671.248E-3	-19.1455E-3	-118.720E-12	692.824E-3	-31.2521E-3
-3.10905E-3	-116.733E-12	704.288E-3	-2.15021E-3	-118.592E-12	692.105E-3	-11.3042E-3
-3.11406E-3	-116.390E-12	729.857E-3	17.0013E-3	-118.650E-12	694.494E-3	-21.5412E-3
-3.11906E-3	-116.985E-12	720.499E-3	16.8971E-3	-118.814E-12	683.430E-3	-22.6160E-3
-3.12406E-3	-116.592E-12	705.451E-3	4.52142E-3	-118.545E-12	685.783E-3	4.14260E-3
-3.12906E-3	-116.712E-12	691.468E-3	-9.36000E-3	-118.551E-12	707.352E-3	10.1016E-3
-3.13407E-3	-116.432E-12	688.075E-3	-19.1024E-3	-117.974E-12	722.245E-3	-25.2447E-3
-3.13907E-3	-117.319E-12	694.019E-3	-17.3257E-3	-117.315E-12	709.188E-3	-44.2200E-3
-3.14407E-3	-116.725E-12	690.060E-3	-7.15411E-3	-116.846E-12	693.293E-3	-22.7898E-3
-3.14907E-3	-117.187E-12	695.914E-3	-2.73025E-3	-116.632E-12	687.135E-3	-14.7927E-3
-3.15408E-3	-117.351E-12	691.226E-3	-7.11111E-3	-116.389E-12	670.493E-3	-19.9506E-3
-3.15908E-3	-117.736E-12	669.329E-3	-17.7531E-3	-116.650E-12	659.366E-3	-18.6883E-3
-3.16408E-3	-117.999E-12	668.906E-3	-27.7968E-3	-116.906E-12	658.329E-3	-16.2431E-3
-3.16908E-3	-118.681E-12	696.029E-3	-35.7151E-3	-117.240E-12	660.494E-3	-17.1259E-3
-3.17409E-3	-119.606E-12	713.961E-3	-28.2805E-3	-117.684E-12	673.979E-3	-34.6907E-3
-3.17909E-3	-119.479E-12	692.763E-3	-11.5084E-3	-118.881E-12	694.029E-3	-35.8294E-3
-3.18409E-3	-120.177E-12	662.482E-3	-27.4817E-3	-119.740E-12	692.997E-3	-6.21089E-3
-3.18909E-3	-120.036E-12	662.433E-3	-47.4672E-3	-120.895E-12	684.568E-3	-3.85370E-3
-3.19410E-3	-121.056E-12	664.526E-3	-35.2269E-3	-121.783E-12	697.244E-3	-40.7598E-3
-3.19910E-3	-121.260E-12	653.235E-3	-10.3062E-3	-123.122E-12	709.257E-3	-51.2054E-3
-3.20410E-3	-121.394E-12	657.191E-3	-1.34938E-3	-123.080E-12	703.504E-3	-14.2753E-3
-3.20910E-3	-121.647E-12	679.452E-3	-19.8927E-3	-123.356E-12	696.050E-3	12.8952E-3
-3.21411E-3	-121.663E-12	700.515E-3	-35.9429E-3	-123.789E-12	691.114E-3	11.3099E-3
-3.21911E-3	-122.201E-12	698.682E-3	-25.7240E-3	-123.151E-12	684.815E-3	5.58487E-3
-3.22411E-3	-121.968E-12	672.186E-3	-13.5767E-3	-122.426E-12	680.321E-3	-4.21179E-3
-3.22911E-3	-122.540E-12	661.442E-3	-19.3981E-3	-121.663E-12	673.336E-3	2.19952E-3
-3.23412E-3	-121.655E-12	681.525E-3	-27.4680E-3	-121.072E-12	668.887E-3	20.3141E-3
-3.23912E-3	-122.160E-12	687.370E-3	-25.7075E-3	-120.396E-12	668.928E-3	-4.10496E-3
-3.24412E-3	-121.256E-12	684.591E-3	-15.3126E-3	-119.927E-12	659.498E-3	-45.3713E-3
-3.24912E-3	-121.634E-12	687.052E-3	-8.44389E-3	-120.253E-12	650.245E-3	-48.0551E-3
-3.25413E-3	-122.003E-12	660.751E-3	-580.436E-6	-120.212E-12	659.829E-3	-34.8499E-3
-3.25913E-3	-121.302E-12	644.273E-3	-169.495E-6	-120.917E-12	670.930E-3	-33.8496E-3
-3.26413E-3	-122.382E-12	670.176E-3	-14.1801E-3	-121.294E-12	683.536E-3	-27.2855E-3
-3.26913E-3	-122.190E-12	675.642E-3	-22.2024E-3	-121.836E-12	690.542E-3	-11.0063E-3
-3.27414E-3	-122.832E-12	655.649E-3	-26.9981E-3	-122.095E-12	673.432E-3	1.32370E-3
-3.27914E-3	-122.913E-12	662.459E-3	-32.2766E-3	-122.919E-12	682.817E-3	-1.42985E-6
-3.28414E-3	-123.689E-12	676.124E-3	-26.0972E-3	-123.705E-12	722.664E-3	-23.0066E-3
-3.28914E-3	-123.642E-12	668.674E-3	-11.7587E-3	-124.050E-12	721.541E-3	-35.1546E-3
-3.29415E-3	-124.258E-12	647.419E-3	-5.49574E-3	-124.843E-12	701.786E-3	-19.0883E-3
-3.29915E-3	-125.241E-12	634.952E-3	-13.6514E-3	-125.655E-12	695.459E-3	-20.6206E-3
-3.30415E-3	-125.467E-12	651.643E-3	-44.2058E-3	-125.948E-12	675.591E-3	-26.2496E-3
-3.30915E-3	-126.020E-12	671.887E-3	-61.3278E-3	-126.648E-12	660.966E-3	-4.16833E-3
-3.31416E-3	-126.236E-12	674.118E-3	-39.2381E-3	-126.437E-12	670.025E-3	15.3107E-3
-3.31916E-3	-127.014E-12	678.447E-3	-25.0319E-3	-127.567E-12	681.433E-3	17.1947E-3
-3.32416E-3	-126.563E-12	692.275E-3	-34.4022E-3	-126.594E-12	691.886E-3	9.62006E-3
-3.32916E-3	-126.861E-12	704.073E-3	-34.4962E-3	-126.778E-12	694.674E-3	-15.7021E-3
-3.33417E-3	-126.542E-12	713.232E-3	-12.4717E-3	-126.796E-12	678.882E-3	-39.3393E-3
-3.33917E-3	-126.801E-12	713.964E-3	-10.7392E-3	-126.971E-12	684.933E-3	-23.7215E-3
-3.34417E-3	-126.288E-12	720.219E-3	-35.4961E-3	-126.621E-12	711.024E-3	-10.3858E-3
-3.34917E-3	-125.738E-12	718.018E-3	-39.5706E-3	-126.948E-12	715.005E-3	-41.2179E-3
-3.35418E-3	-125.243E-12	686.005E-3	-30.2110E-3	-127.005E-12	700.112E-3	-59.7130E-3
-3.35918E-3	-125.602E-12	660.153E-3	-30.0235E-3	-126.662E-12	703.799E-3	-39.6843E-3
-3.36418E-3	-125.522E-12	669.063E-3	-27.3896E-3	-127.026E-12	716.134E-3	-25.2117E-3
-3.36918E-3	-125.532E-12	685.857E-3	-29.0992E-3	-127.307E-12	702.468E-3	-18.1435E-3
-3.37419E-3	-126.041E-12	680.438E-3	-26.0014E-3	-127.578E-12	693.474E-3	-5.58265E-3
-3.37919E-3	-127.288E-12	666.870E-3	-21.5258E-3	-127.278E-12	696.385E-3	4.33274E-3
-3.38419E-3	-127.474E-12	660.300E-3	-28.4709E-3	-127.547E-12	691.612E-3	15.0366E-3
-3.38919E-3	-128.528E-12	667.472E-3	-21.3320E-3	-128.043E-12	696.229E-3	16.6883E-3
-3.39420E-3	-129.521E-12	674.779E-3	-17.5841E-3	-128.176E-12	685.987E-3	-3.04982E-3
-3.39920E-3	-129.746E-12	677.639E-3	-15.0561E-3	-129.354E-12	662.074E-3	-21.9452E-3
-3.40420E-3	-130.621E-12	683.424E-3	-3.53296E-3	-130.014E-12	670.213E-3	-20.1958E-3
-3.40920E-3	-131.414E-12	686.621E-3	-2.75288E-3	-131.016E-12	686.171E-3	-16.8632E-3
-3.41421E-3	-132.532E-12	679.985E-3	217.574E-6	-131.896E-12	681.448E-3	-15.7843E-3
-3.41921E-3	-132.131E-12	675.574E-3	11.7098E-3	-132.243E-12	696.789E-3	-9.73729E-3
-3.42421E-3	-132.136E-12	694.308E-3	20.7610E-3	-132.584E-12	713.863E-3	-22.4423E-3
-3.42921E-3	-132.390E-12	726.209E-3	25.1446E-3	-132.806E-12	692.467E-3	-27.4779E-3
-3.43422E-3	-131.821E-12	738.644E-3	13.2828E-3	-133.537E-12	685.761E-3	-6.93038E-3
-3.43922E-3	-131.677E-12	720.642E-3	-22.5956E-3	-133.456E-12	706.921E-3	-7.95853E-3
-3.44422E-3	-130.920E-12	698.898E-3	-52.8605E-3	-133.327E-12	706.967E-3	-19.0452E-3
-3.44922E-3	-131.373E-12	682.840E-3	-54.1612E-3	-133.086E-12	683.002E-3	-17.7671E-3
-3.45423E-3	-130.569E-12	671.088E-3	-35.6095E-3	-132.674E-12	661.510E-3	-20.9876E-3
-3.45923E-3	-131.350E-12	669.014E-3	247.977E-6	-132.726E-12	647.801E-3	-20.2301E-3
-3.46423E-3	-130.920E-12	673.599E-3	25.7310E-3	-131.749E-12	657.947E-3	-31.5589E-3
-3.46923E-3	-131.581E-12	685.144E-3	5.12238E-3	-131.475E-12	676.789E-3	-51.5407E-3
-3.47424E-3	-131.780E-12	676.951E-3	-13.7359E-3	-130.523E-12	658.926E-3	-35.2835E-3
-3.47924E-3	-132.057E-12	648.638E-3	4.33962E-3	-130.743E-12	638.575E-3	-5.23069E-3
-3.48424E-3	-133.124E-12	646.836E-3	18.7222E-3	-130.318E-12	642.598E-3	2.48380E-3
-3.48924E-3	-133.174E-12	657.336E-3	5.65277E-3	-130.345E-12	640.122E-3	-1.69712E-3
-3.49425E-3	-134.177E-12	664.862E-3	-19.5711E-3	-130.793E-12	638.895E-3	-17.6917E-3
-3.49925E-3	-134.557E-12	663.695E-3	-34.2385E-3	-131.562E-12	652.349E-3	-38.7875E-3
-3.50425E-3	-135.819E-12	648.320E-3	-36.3508E-3	-132.698E-12	678.531E-3	-40.7241E-3
-3.50925E-3	-135.421E-12	643.649E-3	-26.9351E-3	-133.930E-12	705.992E-3	-17.3427E-3
-3.51426E-3	-136.258E-12	652.320E-3	4.54831E-3	-134.513E-12	721.693E-3	-10.2152E-3
-3.51926E-3	-135.666E-12	673.149E-3	29.7110E-3	-136.060E-12	718.170E-3	-33.7196E-3
-3.52426E-3	-136.445E-12	675.204E-3	11.5491E-3	-136.705E-12	693.012E-3	-34.7539E-3
-3.52926E-3	-136.341E-12	644.404E-3	-21.9994E-3	-137.806E-12	675.083E-3	-31.7815E-3
-3.53427E-3	-136.219E-12	634.335E-3	-26.2411E-3	-137.472E-12	666.416E-3	-42.0140E-3
-3.53927E-3	-136.863E-12	646.708E-3	-6.16361E-3	-137.914E-12	653.749E-3	-23.9852E-3
-3.54427E-3	-136.563E-12	666.188E-3	14.5285E-3	-137.143E-12	651.398E-3	-6.43957E-3
-3.54927E-3	-137.310E-12	681.986E-3	36.7463E-3	-137.158E-12	657.746E-3	-7.06516E-3
-3.55428E-3	-136.851E-12	684.643E-3	48.9378E-3	-136.213E-12	665.382E-3	-872.445E-6
-3.55928E-3	-137.253E-12	688.471E-3	47.1268E-3	-136.292E-12	664.346E-3	-2.82823E-3
-3.56428E-3	-136.666E-12	679.491E-3	26.9191E-3	-135.308E-12	650.612E-3	-16.3998E-3
-3.56928E-3	-135.989E-12	674.521E-3	4.72839E-3	-135.036E-12	631.649E-3	-8.21850E-3
-3.57429E-3	-136.715E-12	690.759E-3	13.7116E-3	-134.664E-12	642.905E-3	3.24595E-3
-3.57929E-3	-136.772E-12	696.765E-3	3.35345E-3	-134.284E-12	688.915E-3	-13.0671E-3
-3.58429E-3	-137.200E-12	701.220E-3	-32.9813E-3	-134.647E-12	705.588E-3	-24.4639E-3
-3.58929E-3	-137.094E-12	707.970E-3	-31.5319E-3	-135.108E-12	696.062E-3	-15.7791E-3
-3.59430E-3	-137.802E-12	701.770E-3	-18.3410E-3	-135.219E-12	690.268E-3	-3.08789E-3
-3.59930E-3	-137.975E-12	672.626E-3	-29.8376E-3	-136.328E-12	667.849E-3	-2.91508E-3
-3.60430E-3	-138.616E-12	638.930E-3	-24.4002E-3	-137.352E-12	650.716E-3	-15.6727E-3
-3.60930E-3	-138.711E-12	641.674E-3	-14.5951E-3	-138.510E-12	662.624E-3	-27.8722E-3
-3.61431E-3	-139.481E-12	668.431E-3	-18.6593E-3	-139.084E-12	656.078E-3	-33.2716E-3
-3.61931E-3	-139.265E-12	691.106E-3	-557.225E-6	-140.037E-12	648.331E-3	-41.6327E-3
-3.62431E-3	-139.784E-12	701.576E-3	3.94974E-3	-140.776E-12	669.528E-3	-59.9664E-3
-3.62931E-3	-139.929E-12	698.227E-3	-37.2397E-3	-141.189E-12	692.671E-3	-54.6822E-3
-3.63432E-3	-140.584E-12	675.482E-3	-69.5568E-3	-141.265E-12	695.219E-3	-21.7714E-3
-3.63932E-3	-140.132E-12	672.863E-3	-65.4672E-3	-141.460E-12	672.207E-3	-9.30290E-3
-3.64432E-3	-140.188E-12	693.073E-3	-30.3238E-3	-141.688E-12	644.894E-3	-6.62354E-3
-3.64932E-3	-140.154E-12	672.475E-3	2.12154E-3	-141.107E-12	641.332E-3	-3.81336E-3
-3.65433E-3	-140.335E-12	654.830E-3	3.12340E-3	-141.216E-12	673.337E-3	-21.3422E-3
-3.65933E-3	-140.048E-12	683.930E-3	-4.07633E-3	-140.359E-12	705.532E-3	-20.4393E-3
-3.66433E-3	-140.262E-12	716.100E-3	-7.33887E-3	-140.712E-12	712.032E-3	20.8727E-3
-3.66933E-3	-140.424E-12	731.551E-3	-15.8531E-3	-140.163E-12	690.622E-3	47.1670E-3
-3.67434E-3	-140.396E-12	714.392E-3	-17.9154E-3	-140.780E-12	660.362E-3	35.1586E-3
-3.67934E-3	-140.289E-12	678.260E-3	-1.73190E-3	-140.740E-12	656.577E-3	26.3707E-3
-3.68434E-3	-140.313E-12	673.601E-3	18.9110E-6	-141.965E-12	680.716E-3	21.9477E-3
-3.68934E-3	-140.395E-12	691.188E-3	-10.8072E-3	-141.864E-12	691.929E-3	2.24943E-3
-3.69435E-3	-140.919E-12	683.282E-3	-16.7359E-3	-142.801E-12	675.220E-3	-18.5232E-3
-3.69935E-3	-140.802E-12	659.276E-3	-34.4444E-3	-143.569E-12	681.686E-3	-37.4584E-3
-3.70435E-3	-141.555E-12	656.347E-3	-53.2675E-3	-144.029E-12	701.353E-3	-47.5029E-3
-3.70935E-3	-142.181E-12	659.167E-3	-58.2963E-3	-144.690E-12	693.889E-3	-44.4921E-3
-3.71436E-3	-142.964E-12	656.102E-3	-44.4363E-3	-144.925E-12	675.071E-3	-51.5692E-3
-3.71936E-3	-143.230E-12	661.040E-3	-18.8825E-3	-145.907E-12	657.516E-3	-55.1116E-3
-3.72436E-3	-144.248E-12	672.426E-3	-26.5797E-3	-145.877E-12	654.441E-3	-37.5750E-3
-3.72936E-3	-144.970E-12	681.003E-3	-46.2089E-3	-145.785E-12	665.830E-3	-38.4669E-3
-3.73437E-3	-145.017E-12	677.665E-3	-30.6589E-3	-146.102E-12	668.628E-3	-58.9486E-3
-3.73937E-3	-145.596E-12	688.575E-3	-15.9007E-3	-146.286E-12	666.209E-3	-52.4767E-3
-3.74437E-3	-146.295E-12	702.461E-3	-10.9728E-3	-146.720E-12	675.604E-3	-24.9095E-3
-3.74937E-3	-145.801E-12	689.282E-3	-3.39912E-3	-146.478E-12	689.046E-3	-10.2116E-3
-3.75438E-3	-145.751E-12	686.623E-3	-18.8916E-3	-146.789E-12	691.882E-3	-5.48005E-3
-3.75938E-3	-145.611E-12	681.337E-3	-50.4854E-3	-146.802E-12	683.905E-3	11.0093E-3
-3.76438E-3	-145.362E-12	657.044E-3	-50.1642E-3	-146.851E-12	668.389E-3	15.6511E-3
-3.76938E-3	-144.976E-12	637.992E-3	-22.0708E-3	-147.519E-12	652.762E-3	-18.1568E-3
-3.77439E-3	-144.560E-12	636.244E-3	-16.1960E-3	-146.701E-12	660.670E-3	-34.1690E-3
-3.77939E-3	-145.042E-12	645.346E-3	-9.87152E-3	-147.371E-12	687.574E-3	-16.6722E-3
-3.78439E-3	-145.253E-12	642.528E-3	-8.52810E-3	-146.981E-12	682.601E-3	-17.5209E-3
-3.78939E-3	-144.438E-12	635.870E-3	-34.3465E-3	-147.300E-12	643.327E-3	-17.6360E-3
-3.79440E-3	-144.465E-12	648.731E-3	-29.8373E-3	-147.331E-12	625.310E-3	-13.9435E-3
-3.79940E-3	-145.244E-12	670.337E-3	-8.16298E-3	-146.517E-12	635.957E-3	-28.3040E-3
-3.80440E-3	-145.316E-12	677.540E-3	-25.8805E-3	-147.096E-12	652.905E-3	-38.4757E-3
-3.80940E-3	-146.356E-12	668.769E-3	-36.2643E-3	-147.617E-12	681.109E-3	-33.3503E-3
-3.81441E-3	-147.489E-12	665.957E-3	-11.6506E-3	-147.054E-12	695.126E-3	-18.2511E-3
-3.81941E-3	-148.627E-12	667.741E-3	-8.24556E-3	-146.985E-12	696.968E-3	-9.36031E-3
-3.82441E-3	-148.866E-12	651.547E-3	-16.7700E-3	-147.740E-12	700.899E-3	994.708E-6
-3.82941E-3	-150.306E-12	648.676E-3	-11.5882E-3	-148.505E-12	671.004E-3	5.41431E-3
-3.83442E-3	-150.651E-12	661.687E-3	-7.68208E-3	-148.511E-12	647.367E-3	-16.0952E-3
-3.83942E-3	-150.981E-12	654.650E-3	-9.28459E-3	-149.073E-12	652.637E-3	-35.4949E-3
-3.84442E-3	-151.204E-12	643.503E-3	-732.335E-6	-149.462E-12	648.750E-3	-29.8414E-3
-3.84942E-3	-150.689E-12	636.591E-3	2.27696E-3	-149.895E-12	665.416E-3	-10.6452E-3
-3.85443E-3	-151.317E-12	661.222E-3	-26.9587E-3	-149.979E-12	690.483E-3	-6.66404E-3
-3.85943E-3	-150.501E-12	690.590E-3	-40.5786E-3	-150.235E-12	680.124E-3	-5.34099E-3
-3.86443E-3	-150.057E-12	665.359E-3	-18.5711E-3	-150.648E-12	670.485E-3	-3.51243E-3
-3.86943E-3	-148.663E-12	656.658E-3	-8.36765E-3	-150.897E-12	662.661E-3	-12.0559E-3
-3.87444E-3	-148.909E-12	692.713E-3	-14.7883E-3	-150.758E-12	643.902E-3	-3.48087E-3
-3.87944E-3	-148.341E-12	694.040E-3	-26.0891E-3	-150.522E-12	650.427E-3	8.41139E-3
-3.88444E-3	-147.869E-12	661.956E-3	-44.1358E-3	-149.992E-12	669.779E-3	8.19117E-3
-3.88944E-3	-148.356E-12	649.738E-3	-41.1711E-3	-149.443E-12	670.118E-3	-6.14981E-3
-3.89445E-3	-148.482E-12	643.067E-3	-18.6042E-3	-148.820E-12	657.124E-3	-34.4584E-3
-3.89945E-3	-149.309E-12	631.016E-3	-23.2655E-3	-148.748E-12	656.942E-3	-53.8971E-3
-3.90445E-3	-149.650E-12	635.749E-3	-53.3515E-3	-148.793E-12	667.369E-3	-62.1371E-3
-3.90945E-3	-150.670E-12	644.782E-3	-60.1735E-3	-149.931E-12	655.115E-3	-64.8810E-3
-3.91446E-3	-150.853E-12	641.214E-3	-35.0022E-3	-150.023E-12	644.680E-3	-61.0379E-3
-3.91946E-3	-151.657E-12	646.771E-3	-11.0472E-3	-151.594E-12	641.966E-3	-48.0485E-3
-3.92446E-3	-152.008E-12	674.344E-3	-6.85541E-3	-152.396E-12	653.585E-3	-30.2242E-3
-3.92946E-3	-152.998E-12	676.887E-3	-10.0408E-3	-152.988E-12	674.028E-3	-40.4512E-3
-3.93447E-3	-153.938E-12	649.634E-3	-11.1687E-3	-153.946E-12	654.223E-3	-69.9072E-3
-3.93947E-3	-153.794E-12	648.852E-3	-8.77092E-3	-155.178E-12	637.348E-3	-57.4359E-3
-3.94447E-3	-154.511E-12	661.745E-3	1.83170E-3	-156.051E-12	656.671E-3	-15.0278E-3
-3.94947E-3	-154.710E-12	662.634E-3	-5.80560E-3	-156.044E-12	667.280E-3	2.78364E-3
-3.95448E-3	-154.910E-12	674.807E-3	-35.5365E-3	-156.380E-12	666.899E-3	5.06999E-3
-3.95948E-3	-154.792E-12	683.009E-3	-42.0382E-3	-155.892E-12	676.183E-3	9.94192E-3
-3.96448E-3	-154.853E-12	670.224E-3	-22.6150E-3	-156.466E-12	670.094E-3	-14.7219E-3
-3.96948E-3	-154.624E-12	664.127E-3	1.48387E-3	-156.083E-12	654.469E-3	-38.0684E-3
-3.97449E-3	-154.967E-12	637.112E-3	16.7628E-3	-155.530E-12	661.112E-3	-26.9198E-3
-3.97949E-3	-154.949E-12	602.781E-3	7.82920E-3	-155.484E-12	661.352E-3	-14.8530E-3
-3.98449E-3	-155.010E-12	615.321E-3	-753.732E-6	-154.739E-12	648.554E-3	-5.58926E-3
-3.98949E-3	-155.005E-12	635.532E-3	-3.41882E-3	-154.778E-12	664.288E-3	-17.9498E-3
-3.99450E-3	-155.099E-12	650.636E-3	-12.6609E-3	-155.033E-12	672.641E-3	-57.5887E-3
-3.99950E-3	-155.119E-12	680.012E-3	-11.9460E-3	-154.856E-12	653.283E-3	-54.3014E-3
-4.00450E-3	-154.916E-12	697.989E-3	6.57594E-3	-154.876E-12	659.024E-3	-12.4306E-3
-4.00950E-3	-155.291E-12	682.033E-3	15.7225E-3	-156.095E-12	662.913E-3	-10.6207E-3
-4.01451E-3	-156.492E-12	657.153E-3	1.07354E-3	-157.229E-12	646.970E-3	-25.4926E-3
-4.01951E-3	-156.760E-12	663.932E-3	-9.55065E-3	-157.737E-12	652.506E-3	-17.8151E-3
-4.02451E-3	-156.978E-12	687.698E-3	-31.7124E-3	-159.018E-12	679.833E-3	-18.7853E-3
-4.02951E-3	-157.333E-12	688.592E-3	-40.9412E-3	-160.470E-12	698.088E-3	-28.8049E-3
-4.03452E-3	-158.219E-12	673.230E-3	-10.9072E-3	-161.083E-12	688.517E-3	-25.0818E-3
-4.03952E-3	-158.655E-12	654.874E-3	12.9995E-3	-161.460E-12	675.669E-3	-17.7640E-3
-4.04452E-3	-159.139E-12	649.674E-3	10.2448E-3	-162.478E-12	681.981E-3	-23.6092E-3
-4.04952E-3	-160.348E-12	661.579E-3	-6.24774E-3	-162.336E-12	685.519E-3	-24.8291E-3
-4.05453E-3	-160.989E-12	670.138E-3	-14.6584E-3	-162.670E-12	671.674E-3	-12.0992E-3
-4.05953E-3	-161.328E-12	677.366E-3	-18.8970E-3	-161.602E-12	653.817E-3	-25.3048E-3
-4.06453E-3	-161.235E-12	686.074E-3	-13.7930E-3	-161.868E-12	653.981E-3	-49.6932E-3
-4.06953E-3	-162.270E-12	692.881E-3	-131.295E-6	-160.534E-12	678.284E-3	-47.9189E-3
-4.07454E-3	-162.165E-12	681.367E-3	7.74356E-3	-160.367E-12	691.045E-3	-24.8961E-3
-4.07954E-3	-162.185E-12	669.303E-3	1.14061E-3	-160.136E-12	664.243E-3	-403.476E-6
-4.08454E-3	-161.832E-12	680.025E-3	-32.1620E-3	-160.270E-12	629.939E-3	18.1486E-3
-4.08954E-3	-162.600E-12	676.853E-3	-40.9240E-3	-159.634E-12	622.829E-3	3.07558E-3
-4.09455E-3	-162.882E-12	667.138E-3	-554.931E-6	-160.041E-12	646.646E-3	-38.2431E-3
-4.09955E-3	-161.772E-12	681.979E-3	9.91241E-3	-160.156E-12	674.232E-3	-39.5402E-3
-4.10455E-3	-162.138E-12	707.443E-3	-25.5639E-3	-159.801E-12	665.528E-3	-21.2312E-3
-4.10955E-3	-161.863E-12	712.012E-3	-37.3269E-3	-160.653E-12	647.942E-3	-4.00276E-3
-4.11456E-3	-161.816E-12	685.758E-3	-21.0042E-3	-160.748E-12	670.614E-3	-10.6187E-3
-4.11956E-3	-160.973E-12	652.305E-3	-8.04028E-3	-161.644E-12	706.961E-3	-43.7203E-3
-4.12456E-3	-161.080E-12	649.717E-3	-15.2065E-3	-162.426E-12	714.419E-3	-35.7839E-3
-4.12956E-3	-160.850E-12	670.631E-3	-35.1194E-3	-163.477E-12	685.550E-3	-5.70650E-3
-4.13457E-3	-161.113E-12	683.312E-3	-41.5410E-3	-162.901E-12	629.674E-3	-1.32274E-3
-4.13957E-3	-161.437E-12	679.816E-3	-45.1356E-3	-163.490E-12	597.917E-3	-4.07077E-3
-4.14457E-3	-162.224E-12	674.994E-3	-44.0884E-3	-163.884E-12	609.442E-3	108.259E-6
-4.14957E-3	-163.244E-12	678.628E-3	-46.0511E-3	-164.039E-12	627.676E-3	2.44485E-3
-4.15458E-3	-163.081E-12	679.716E-3	-45.7526E-3	-163.533E-12	654.729E-3	2.41492E-3
-4.15958E-3	-164.624E-12	686.850E-3	-21.0874E-3	-163.973E-12	685.555E-3	4.98680E-3
-4.16458E-3	-164.947E-12	691.649E-3	-11.5465E-3	-164.327E-12	674.328E-3	-5.45974E-3
-4.16958E-3	-165.642E-12	681.007E-3	-6.02928E-3	-163.458E-12	653.214E-3	-39.2179E-3
-4.17459E-3	-165.113E-12	672.729E-3	16.0339E-3	-162.864E-12	681.563E-3	-62.1913E-3
-4.17959E-3	-165.799E-12	678.579E-3	19.6626E-3	-163.567E-12	707.264E-3	-55.0556E-3
-4.18459E-3	-165.452E-12	695.401E-3	3.99813E-3	-162.639E-12	698.693E-3	-45.4090E-3
-4.18959E-3	-164.541E-12	691.848E-3	-11.9243E-3	-162.386E-12	678.461E-3	-30.3451E-3
-4.19460E-3	-164.020E-12	672.435E-3	-41.7756E-3	-163.306E-12	646.764E-3	-13.6352E-3
-4.19960E-3	-163.771E-12	676.353E-3	-60.0642E-3	-163.330E-12	631.168E-3	-13.2090E-3
-4.20460E-3	-163.087E-12	684.415E-3	-48.6857E-3	-163.168E-12	636.164E-3	-16.8383E-3
-4.20960E-3	-162.336E-12	679.714E-3	-52.3128E-3	-163.334E-12	652.073E-3	-15.1573E-3
-4.21461E-3	-162.627E-12	665.971E-3	-69.8754E-3	-164.500E-12	649.220E-3	-8.30978E-3
-4.21961E-3	-162.668E-12	651.173E-3	-68.8199E-3	-164.441E-12	639.288E-3	48.4783E-6
-4.22461E-3	-163.202E-12	653.783E-3	-51.8031E-3	-165.004E-12	665.731E-3	-5.93034E-3
-4.22961E-3	-163.297E-12	654.629E-3	-38.9591E-3	-165.771E-12	688.940E-3	-32.9194E-3
-4.23462E-3	-164.479E-12	630.895E-3	-22.0784E-3	-166.091E-12	692.734E-3	-43.8357E-3
-4.23962E-3	-164.455E-12	618.210E-3	4.62095E-3	-166.870E-12	692.869E-3	-30.6915E-3
-4.24462E-3	-165.311E-12	617.140E-3	4.03108E-3	-167.258E-12	675.829E-3	-25.5405E-3
-4.24962E-3	-166.801E-12	625.908E-3	-29.7905E-3	-168.290E-12	654.538E-3	-20.8263E-3
-4.25463E-3	-166.900E-12	645.631E-3	-38.0897E-3	-168.220E-12	650.782E-3	-6.54813E-3
-4.25963E-3	-167.815E-12	652.240E-3	-19.1254E-3	-168.297E-12	670.414E-3	-11.1746E-3
-4.26463E-3	-167.918E-12	660.334E-3	-12.8981E-3	-168.216E-12	680.869E-3	-23.3042E-3
-4.26963E-3	-167.310E-12	655.536E-3	-20.7338E-3	-168.362E-12	657.495E-3	-17.1428E-3
-4.27464E-3	-167.527E-12	646.694E-3	-25.8178E-3	-169.192E-12	658.937E-3	-17.3994E-3
-4.27964E-3	-166.375E-12	652.954E-3	-21.7385E-3	-168.848E-12	677.030E-3	-38.5768E-3
-4.28464E-3	-166.068E-12	673.523E-3	-9.53667E-3	-169.136E-12	658.132E-3	-64.2289E-3
-4.28964E-3	-166.563E-12	686.661E-3	-15.5612E-3	-169.220E-12	631.104E-3	-58.9239E-3
-4.29465E-3	-165.858E-12	668.347E-3	-43.8061E-3	-169.061E-12	623.202E-3	-37.7737E-3
-4.29965E-3	-166.452E-12	664.273E-3	-48.2623E-3	-169.112E-12	629.461E-3	-36.4096E-3
-4.30465E-3	-166.225E-12	682.642E-3	-37.2192E-3	-169.259E-12	656.879E-3	-34.4188E-3
-4.30965E-3	-167.900E-12	703.371E-3	-41.3598E-3	-168.676E-12	659.763E-3	-25.7632E-3
-4.31466E-3	-166.780E-12	716.572E-3	-39.1149E-3	-169.249E-12	625.802E-3	-20.1986E-3
-4.31966E-3	-167.789E-12	718.674E-3	-25.5407E-3	-169.411E-12	617.959E-3	-44.8614E-3
-4.32466E-3	-167.927E-12	702.478E-3	-13.7440E-3	-168.645E-12	641.419E-3	-97.4206E-3
-4.32966E-3	-168.179E-12	665.117E-3	2.66891E-3	-169.383E-12	684.290E-3	-86.9391E-3
-4.33467E-3	-169.300E-12	643.468E-3	6.36129E-3	-169.737E-12	702.500E-3	-49.4461E-3
-4.33967E-3	-169.593E-12	651.299E-3	-24.5844E-3	-170.313E-12	677.545E-3	-55.7444E-3
-4.34467E-3	-170.306E-12	653.679E-3	-62.8517E-3	-171.280E-12	667.632E-3	-56.4373E-3
-4.34967E-3	-171.183E-12	627.076E-3	-56.0504E-3	-172.369E-12	676.737E-3	-52.3115E-3
-4.35468E-3	-171.438E-12	611.377E-3	-26.0788E-3	-173.159E-12	689.822E-3	-48.4879E-3
-4.35968E-3	-171.408E-12	634.597E-3	-24.1466E-3	-174.115E-12	691.524E-3	-23.8908E-3
-4.36468E-3	-171.692E-12	661.209E-3	-34.5397E-3	-174.636E-12	670.080E-3	-11.0073E-3
-4.36968E-3	-172.352E-12	648.594E-3	-38.8867E-3	-174.590E-12	665.967E-3	-8.49456E-3
-4.37469E-3	-172.807E-12	631.410E-3	-44.9359E-3	-175.639E-12	667.733E-3	-3.21718E-3
-4.37969E-3	-173.296E-12	668.175E-3	-41.5297E-3	-175.579E-12	686.503E-3	-15.7660E-3
-4.38469E-3	-173.915E-12	700.897E-3	-33.9314E-3	-174.893E-12	732.306E-3	-32.1943E-3
-4.38969E-3	-174.147E-12	686.728E-3	-39.3888E-3	-174.127E-12	748.506E-3	-25.7009E-3
-4.39470E-3	-174.863E-12	677.801E-3	-36.3241E-3	-174.843E-12	732.659E-3	12.3991E-3
-4.39970E-3	-175.254E-12	676.150E-3	-9.85837E-3	-173.472E-12	703.633E-3	27.3139E-3
-4.40470E-3	-175.858E-12	664.858E-3	23.2155E-3	-173.008E-12	688.185E-3	-8.25772E-3
-4.40970E-3	-175.384E-12	677.493E-3	27.3494E-3	-172.839E-12	687.732E-3	-45.7455E-3
-4.41471E-3	-176.107E-12	692.093E-3	-4.43399E-3	-173.365E-12	683.722E-3	-57.5061E-3
-4.41971E-3	-176.878E-12	679.053E-3	-32.1210E-3	-172.119E-12	673.266E-3	-22.8825E-3
-4.42471E-3	-177.322E-12	682.538E-3	-38.6196E-3	-172.550E-12	661.552E-3	21.0989E-3
-4.42971E-3	-175.913E-12	694.728E-3	-44.6377E-3	-172.357E-12	661.797E-3	-4.49132E-3
-4.43472E-3	-176.215E-12	692.582E-3	-43.8896E-3	-173.410E-12	682.141E-3	-50.4165E-3
-4.43972E-3	-176.699E-12	683.143E-3	-25.3998E-3	-174.173E-12	700.001E-3	-51.0333E-3
-4.44472E-3	-175.892E-12	682.166E-3	833.757E-6	-175.903E-12	695.122E-3	-40.7170E-3
-4.44972E-3	-176.216E-12	691.165E-3	12.1159E-3	-176.702E-12	672.105E-3	-33.2124E-3
-4.45473E-3	-176.239E-12	676.903E-3	4.46594E-3	-178.404E-12	647.838E-3	-50.6582E-3
-4.45973E-3	-177.486E-12	661.517E-3	-761.701E-6	-177.920E-12	661.231E-3	-75.6514E-3
-4.46473E-3	-176.653E-12	674.219E-3	-5.64091E-3	-178.789E-12	696.029E-3	-46.4515E-3
-4.46973E-3	-177.424E-12	686.588E-3	-4.60447E-3	-178.884E-12	703.115E-3	555.821E-6
-4.47474E-3	-177.524E-12	687.618E-3	-1.16518E-3	-179.076E-12	690.006E-3	16.3714E-3
-4.47974E-3	-178.144E-12	687.397E-3	-2.05506E-3	-178.459E-12	681.604E-3	2.71600E-3
-4.48474E-3	-179.066E-12	680.714E-3	4.92328E-3	-178.882E-12	661.550E-3	-22.0011E-3
-4.48974E-3	-179.636E-12	670.503E-3	26.2622E-3	-177.747E-12	633.693E-3	-23.1676E-3
-4.49475E-3	-180.292E-12	660.791E-3	32.4298E-3	-177.577E-12	621.197E-3	-10.6836E-3
-4.49975E-3	-180.227E-12	649.859E-3	7.09365E-3	-177.204E-12	624.480E-3	-11.8982E-3
-4.50475E-3	-180.947E-12	634.907E-3	136.265E-6	-176.789E-12	641.241E-3	-12.8700E-3
-4.50975E-3	-180.107E-12	639.362E-3	7.90144E-3	-176.278E-12	646.653E-3	-10.5588E-3
-4.51476E-3	-180.127E-12	649.162E-3	10.9053E-3	-176.136E-12	657.277E-3	-6.62638E-3
-4.51976E-3	-179.247E-12	646.560E-3	19.7398E-3	-176.809E-12	660.959E-3	-12.3826E-3
-4.52476E-3	-179.441E-12	660.420E-3	11.9677E-3	-177.340E-12	631.437E-3	-18.6879E-3
-4.52976E-3	-179.385E-12	661.925E-3	-2.85792E-3	-178.503E-12	633.521E-3	-26.5913E-3
-4.53477E-3	-178.759E-12	643.534E-3	-635.436E-6	-179.298E-12	670.110E-3	-36.6855E-3
-4.53977E-3	-178.491E-12	637.327E-3	3.10780E-3	-179.735E-12	688.685E-3	-34.7454E-3
-4.54477E-3	-178.702E-12	626.142E-3	-18.8722E-3	-181.474E-12	693.548E-3	-42.0154E-3
-4.54977E-3	-178.817E-12	620.903E-3	-48.8870E-3	-181.682E-12	699.610E-3	-35.5567E-3
-4.55478E-3	-179.456E-12	635.814E-3	-31.0025E-3	-182.412E-12	715.279E-3	-17.0586E-3
-4.55978E-3	-179.844E-12	633.459E-3	5.71211E-3	-183.257E-12	726.607E-3	-3.95877E-3
-4.56478E-3	-181.073E-12	624.805E-3	-6.15630E-3	-183.438E-12	722.522E-3	-5.69557E-3
-4.56978E-3	-181.062E-12	626.791E-3	-37.2496E-3	-183.365E-12	709.287E-3	-3.68914E-3
-4.57479E-3	-181.290E-12	619.921E-3	-36.4846E-3	-184.011E-12	700.344E-3	10.5812E-3
-4.57979E-3	-181.485E-12	615.072E-3	-14.1292E-3	-183.864E-12	702.011E-3	3.82546E-3
-4.58479E-3	-181.937E-12	646.683E-3	8.88395E-3	-184.142E-12	700.581E-3	2.34381E-3
-4.58979E-3	-182.167E-12	669.867E-3	21.8556E-3	-183.501E-12	677.954E-3	12.1918E-3
-4.59480E-3	-180.880E-12	651.306E-3	-8.62278E-3	-184.197E-12	649.946E-3	16.8259E-3
-4.59980E-3	-181.968E-12	637.613E-3	-60.4042E-3	-183.678E-12	642.809E-3	1.33729E-3
-4.60480E-3	-180.931E-12	650.045E-3	-64.6311E-3	-184.030E-12	640.254E-3	-19.3933E-3
-4.60980E-3	-181.859E-12	651.671E-3	-15.3650E-3	-183.234E-12	654.622E-3	-15.5646E-3
-4.61481E-3	-181.515E-12	639.121E-3	34.2631E-3	-183.119E-12	682.178E-3	-6.41667E-3
-4.61981E-3	-181.167E-12	658.294E-3	28.1362E-3	-183.558E-12	687.872E-3	6.74808E-3
-4.62481E-3	-181.274E-12	663.431E-3	40.0652E-6	-184.175E-12	674.295E-3	25.8718E-3
-4.62981E-3	-181.630E-12	637.328E-3	-4.69516E-3	-184.510E-12	659.649E-3	22.9802E-3
-4.63482E-3	-182.618E-12	629.921E-3	-3.12956E-3	-185.149E-12	658.407E-3	-17.1027E-3
-4.63982E-3	-182.584E-12	646.687E-3	9.00475E-3	-186.148E-12	661.312E-3	-48.1807E-3
-4.64482E-3	-183.189E-12	673.914E-3	8.88116E-3	-186.472E-12	650.659E-3	-35.8496E-3
-4.64982E-3	-182.946E-12	674.942E-3	-3.96903E-3	-186.894E-12	643.459E-3	-17.9476E-3
-4.65483E-3	-184.910E-12	636.669E-3	6.08200E-3	-186.918E-12	653.288E-3	-23.6663E-3
-4.65983E-3	-184.096E-12	612.493E-3	-10.6705E-3	-187.327E-12	672.736E-3	-53.8952E-3
-4.66483E-3	-185.566E-12	624.477E-3	-44.7393E-3	-186.968E-12	678.259E-3	-62.0120E-3
-4.66983E-3	-185.439E-12	649.360E-3	-36.7577E-3	-186.434E-12	677.769E-3	-35.3032E-3
-4.67484E-3	-186.998E-12	670.161E-3	-21.6338E-3	-187.006E-12	676.220E-3	-31.0763E-3
-4.67984E-3	-187.050E-12	672.951E-3	-28.4042E-3	-186.713E-12	666.264E-3	-33.0688E-3
-4.68484E-3	-187.509E-12	674.133E-3	-22.6326E-3	-186.144E-12	672.359E-3	-8.71362E-3
-4.68984E-3	-187.596E-12	676.274E-3	2.45555E-3	-186.043E-12	675.914E-3	3.05190E-3
-4.69485E-3	-188.503E-12	665.830E-3	15.0114E-3	-186.993E-12	671.828E-3	3.96898E-3
-4.69985E-3	-188.092E-12	645.139E-3	25.5016E-3	-186.793E-12	653.412E-3	-9.80686E-3
-4.70485E-3	-188.135E-12	611.311E-3	42.8195E-3	-186.773E-12	629.486E-3	-47.2044E-3
-4.70985E-3	-188.308E-12	605.208E-3	37.6338E-3	-186.840E-12	635.209E-3	-40.8152E-3
-4.71486E-3	-188.993E-12	655.850E-3	36.1217E-3	-187.239E-12	650.237E-3	-11.0191E-3
-4.71986E-3	-189.344E-12	723.875E-3	39.1749E-3	-187.032E-12	643.322E-3	-966.615E-6
-4.72486E-3	-188.278E-12	747.855E-3	20.7722E-3	-187.134E-12	638.120E-3	-4.59756E-3
-4.72986E-3	-188.215E-12	706.100E-3	-12.9423E-3	-185.905E-12	651.003E-3	-26.3787E-3
-4.73487E-3	-187.877E-12	659.915E-3	-36.7605E-3	-186.007E-12	658.930E-3	-34.0197E-3
-4.73987E-3	-188.307E-12	652.867E-3	-21.4987E-3	-186.654E-12	668.051E-3	-16.3771E-3
-4.74487E-3	-189.141E-12	653.099E-3	-11.2513E-3	-186.549E-12	663.749E-3	-22.2033E-3
-4.74988E-3	-189.208E-12	643.891E-3	-20.6502E-3	-185.973E-12	653.457E-3	-41.5744E-3
-4.75488E-3	-189.219E-12	641.015E-3	-31.0109E-3	-186.763E-12	682.750E-3	-26.9966E-3
-4.75988E-3	-189.580E-12	643.757E-3	-22.0787E-3	-187.888E-12	720.650E-3	4.14954E-3
-4.76488E-3	-191.256E-12	636.649E-3	-8.69744E-3	-187.282E-12	714.910E-3	20.2759E-3
-4.76988E-3	-190.722E-12	623.619E-3	-25.2018E-3	-188.396E-12	657.325E-3	14.6618E-3
-4.77489E-3	-191.206E-12	640.945E-3	-20.2539E-3	-188.421E-12	615.402E-3	-20.2137E-3
-4.77989E-3	-191.428E-12	677.485E-3	21.8921E-3	-189.655E-12	651.426E-3	-67.9879E-3
-4.78489E-3	-191.721E-12	663.065E-3	54.2270E-3	-189.365E-12	685.218E-3	-73.1314E-3
-4.78989E-3	-192.084E-12	644.044E-3	45.0080E-3	-190.576E-12	642.665E-3	-55.9695E-3
-4.79490E-3	-191.460E-12	670.682E-3	2.04222E-3	-190.544E-12	599.668E-3	-46.0383E-3
-4.79990E-3	-191.347E-12	663.024E-3	-24.6258E-3	-191.083E-12	615.997E-3	-35.5878E-3
-4.80490E-3	-191.221E-12	632.158E-3	-26.3392E-3	-190.013E-12	640.608E-3	-35.9682E-3
-4.80990E-3	-191.431E-12	654.943E-3	-12.8645E-3	-191.235E-12	658.970E-3	-25.2254E-3
-4.81491E-3	-191.046E-12	679.534E-3	6.49048E-3	-190.705E-12	659.700E-3	-14.3024E-3
-4.81991E-3	-191.275E-12	671.032E-3	-11.1756E-3	-190.355E-12	649.886E-3	-16.1234E-3
-4.82491E-3	-191.429E-12	668.661E-3	-36.4049E-3	-189.425E-12	646.911E-3	-6.90955E-3
-4.82991E-3	-191.417E-12	656.914E-3	-32.4856E-3	-189.668E-12	624.054E-3	-8.50790E-3
-4.83492E-3	-190.882E-12	624.430E-3	-21.3695E-3	-189.025E-12	606.393E-3	-30.7527E-3
-4.83992E-3	-191.092E-12	631.017E-3	-4.07895E-3	-189.065E-12	608.193E-3	-46.2288E-3
-4.84492E-3	-191.518E-12	665.865E-3	1.54845E-3	-189.858E-12	609.432E-3	-50.2671E-3
-4.84992E-3	-191.017E-12	680.445E-3	6.51144E-3	-190.415E-12	621.310E-3	-38.8734E-3
-4.85493E-3	-192.112E-12	676.851E-3	21.8600E-3	-192.874E-12	649.841E-3	-8.83249E-3
-4.85993E-3	-192.487E-12	676.418E-3	20.6157E-3	-193.542E-12	672.803E-3	-1.92521E-3
-4.86493E-3	-191.781E-12	688.231E-3	25.7745E-3	-194.879E-12	669.132E-3	-13.5717E-3
-4.86993E-3	-192.279E-12	709.103E-3	22.9967E-3	-196.074E-12	659.019E-3	-8.84148E-3
-4.87494E-3	-192.423E-12	713.482E-3	-1.21093E-3	-196.945E-12	670.237E-3	3.95149E-3
-4.87994E-3	-192.897E-12	672.210E-3	-10.3463E-3	-198.286E-12	700.206E-3	19.8881E-3
-4.88494E-3	-192.987E-12	639.109E-3	-14.6767E-3	-198.190E-12	723.649E-3	23.6204E-3
-4.88995E-3	-193.448E-12	649.128E-3	-10.6582E-3	-200.690E-12	695.211E-3	-10.7259E-3
-4.89495E-3	-193.987E-12	653.800E-3	21.3780E-3	-199.925E-12	647.820E-3	-36.6666E-3
-4.89995E-3	-193.385E-12	642.906E-3	30.9900E-3	-198.477E-12	625.155E-3	-10.5002E-3
-4.90495E-3	-194.242E-12	631.122E-3	2.81016E-3	-199.634E-12	638.253E-3	24.3336E-3
-4.90995E-3	-194.116E-12	636.754E-3	-5.23513E-3	-198.950E-12	669.666E-3	29.8483E-3
-4.91496E-3	-194.479E-12	661.902E-3	5.40476E-3	-198.380E-12	667.719E-3	11.5793E-3
-4.91996E-3	-195.852E-12	670.851E-3	-8.37220E-3	-197.977E-12	659.126E-3	-3.72992E-3
-4.92496E-3	-196.074E-12	658.017E-3	-23.2030E-3	-199.013E-12	668.586E-3	11.4116E-3
-4.92996E-3	-195.299E-12	637.229E-3	-3.03234E-3	-196.918E-12	660.353E-3	21.5750E-3
-4.93497E-3	-195.941E-12	632.302E-3	25.8630E-3	-197.394E-12	649.134E-3	10.6478E-3
-4.93997E-3	-197.113E-12	643.974E-3	39.5737E-3	-197.477E-12	659.647E-3	18.1769E-3
-4.94497E-3	-196.220E-12	651.010E-3	41.3702E-3	-198.403E-12	669.600E-3	17.6333E-3
-4.94997E-3	-196.316E-12	650.535E-3	23.5356E-3	-197.799E-12	688.334E-3	11.0347E-3
-4.95498E-3	-196.518E-12	650.319E-3	-1.61341E-3	-198.583E-12	688.749E-3	12.7535E-3
-4.95998E-3	-196.705E-12	652.351E-3	-14.4968E-3	-199.721E-12	676.220E-3	-1.26587E-3
-4.96498E-3	-196.898E-12	653.841E-3	-20.9521E-3	-201.712E-12	708.152E-3	-22.8394E-3
-4.96998E-3	-198.485E-12	641.876E-3	4.57233E-3	-201.052E-12	723.219E-3	-33.2839E-3
-4.97499E-3	-198.840E-12	628.966E-3	22.1011E-3	-201.468E-12	716.474E-3	-22.2255E-3
-4.97999E-3	-199.530E-12	647.992E-3	-1.37319E-3	-202.079E-12	699.308E-3	-3.99793E-3
-4.98499E-3	-199.713E-12	673.115E-3	-32.6419E-3	-202.528E-12	643.293E-3	-139.710E-6
-4.98999E-3	-200.804E-12	661.405E-3	-45.5022E-3	-202.511E-12	619.649E-3	857.796E-6
-4.99500E-3	-201.123E-12	637.091E-3	-26.5580E-3	-202.796E-12	660.148E-3	-959.202E-6
-5.00000E-3	-201.922E-12	652.934E-3	-17.9130E-3	-201.997E-12	681.924E-3	-15.6904E-3
