Experiment	bias spectroscopy	
Date	19.01.2016 20:29:28	
User		
X (m)	49.885E-9	
Y (m)	256.824E-9	
Z (m)	-132.527E-9	
Z offset (m)	0E+0	
Settling time (s)	200E-6	
Integration time (s)	5E-3	
Z-Ctrl hold	TRUE	
Final Z (m)	N/A	
Filter type	None	
Order		
Cutoff frq		
Comment01	MnPc/Pb(111)	
Comment02	dz =00pm	
Comment03	7 Sweeps	
Comment04	MagField =0.T	
Comment05	Divider 1:10	
Comment06	Setpoint:5mV,200 pA	
Comment07	Lockin: 50uVrms,5ms,5mV	
Comment08	Gain:9; 912Hz modulation	
Comment09	T=1.06K	
Bias>Bias (V)	5E-3	
Bias>Calibration (V/V)	81.475E-3	
Bias>Offset (V)	1.046E-3	
Bias Spectroscopy>Sweep Start (V)	5E-3	
Bias Spectroscopy>Sweep End (V)	-5E-3	
Bias Spectroscopy>Num Pixel	2000	
Bias Spectroscopy>Z Avg time (s)	500E-3	
Bias Spectroscopy>Z offset (m)	0E+0	
Bias Spectroscopy>1st Settling time (s)	500E-3	
Bias Spectroscopy>Settling time (s)	200E-6	
Bias Spectroscopy>Integration time (s)	5E-3	
Bias Spectroscopy>End Settling time (s)	500E-3	
Bias Spectroscopy>Z control time (s)	500E-3	
Bias Spectroscopy>Max Slew rate (V/s)	Inf	
Bias Spectroscopy>backward sweep	TRUE	
Bias Spectroscopy>Z-controller hold	TRUE	
Bias Spectroscopy>Number of sweeps	7	
Bias Spectroscopy>Channels	Current (A);X% LockIn (V);Y% LockIn (V)	
Bias Spectroscopy>Reset Bias	TRUE	
Bias Spectroscopy>Record final Z	FALSE	
Bias Spectroscopy>Lock-In run	FALSE	
Bias Spectroscopy>Sweep mode	Linear	
Bias Spectroscopy>MultiLine Settings : Segment Start (V), Segment End (V), Settling (s), Integration (s), Steps (xn)	100E-3,3.3E-3,100E-6,10E-3,2500;3.3E-3,-3.3E-3,100E-6,10E-3,10;-3.3E-3,-100E-3,100E-6,10E-3,2500	
Current>Current (A)	200.116E-12	
Current>Calibration (A/V)	999.99900E-12	
Current>Offset (A)	-455.429E-15	
Current>Gain	LN 10^9	
Z-Controller>Z (m)	-132.528E-9	
Z-Controller>Controller name	log Current	
Z-Controller>Controller status	ON	
Z-Controller>Setpoint	200E-12	
Z-Controller>Setpoint unit	A	
Z-Controller>P gain	2.96994E-12	
Z-Controller>I gain	67.0321E-9	
Z-Controller>Time const (s)	44.3062E-6	
Z-Controller>TipLift (m)	0E+0	
Z-Controller>Switch off delay (s)	50E-3	
Current (A)	199.929E-12	
Z (m)	-132.528E-9	

[DATA]
Bias calc (V)	Current (A)	X% LockIn (V)	Y% LockIn (V)	Current [bwd] (A)	X% LockIn [bwd] (V)	Y% LockIn [bwd] (V)
5.00000E-3	202.752E-12	567.694E-3	-52.6550E-3	197.496E-12	511.480E-3	-26.5021E-3
4.99500E-3	202.828E-12	554.452E-3	-50.8078E-3	197.754E-12	528.911E-3	-17.3996E-3
4.98999E-3	201.415E-12	549.807E-3	-31.3509E-3	198.253E-12	524.676E-3	-14.0143E-3
4.98499E-3	199.219E-12	559.407E-3	-29.6878E-3	198.113E-12	538.252E-3	-19.0842E-3
4.97999E-3	199.619E-12	547.847E-3	-44.7655E-3	200.183E-12	541.026E-3	-3.72176E-3
4.97499E-3	198.290E-12	539.528E-3	-40.1448E-3	200.125E-12	542.802E-3	18.5560E-3
4.96998E-3	197.603E-12	534.696E-3	135.010E-6	200.720E-12	554.342E-3	26.2796E-3
4.96498E-3	196.399E-12	529.182E-3	30.8788E-3	200.365E-12	585.268E-3	11.4173E-3
4.95998E-3	195.768E-12	536.534E-3	12.1192E-3	199.137E-12	597.424E-3	-18.1157E-3
4.95498E-3	195.620E-12	534.110E-3	-22.4980E-3	200.500E-12	548.086E-3	-14.9542E-3
4.94997E-3	195.783E-12	521.616E-3	-50.9029E-3	200.638E-12	518.130E-3	1.62554E-3
4.94497E-3	195.013E-12	509.927E-3	-62.8576E-3	199.582E-12	535.533E-3	-3.36263E-3
4.93997E-3	196.130E-12	520.421E-3	-52.3476E-3	197.446E-12	542.310E-3	-17.0356E-3
4.93497E-3	195.700E-12	542.422E-3	-10.6871E-3	197.263E-12	531.402E-3	-32.5638E-3
4.92996E-3	196.824E-12	557.822E-3	21.0092E-3	198.032E-12	530.075E-3	-59.6732E-3
4.92496E-3	196.288E-12	559.118E-3	7.01139E-3	197.664E-12	523.601E-3	-76.2855E-3
4.91996E-3	196.145E-12	533.179E-3	-21.3991E-3	196.579E-12	504.830E-3	-62.5961E-3
4.91496E-3	197.460E-12	495.879E-3	-36.7570E-3	195.736E-12	508.397E-3	-33.4534E-3
4.90995E-3	197.674E-12	481.887E-3	-6.41593E-3	195.511E-12	537.184E-3	-18.1019E-3
4.90495E-3	196.983E-12	501.360E-3	38.6132E-3	196.364E-12	552.719E-3	-25.5940E-3
4.89995E-3	197.038E-12	512.317E-3	42.0805E-3	196.884E-12	539.101E-3	-37.2068E-3
4.89495E-3	197.190E-12	515.875E-3	23.2737E-3	195.390E-12	517.265E-3	-50.7190E-3
4.88995E-3	198.439E-12	527.849E-3	4.70830E-3	194.655E-12	518.229E-3	-63.7223E-3
4.88494E-3	198.955E-12	544.536E-3	-2.35526E-3	194.612E-12	532.920E-3	-57.0117E-3
4.87994E-3	197.623E-12	550.852E-3	16.0786E-3	198.599E-12	532.349E-3	-32.1834E-3
4.87494E-3	197.124E-12	518.107E-3	28.8005E-3	197.746E-12	528.291E-3	-6.26910E-3
4.86993E-3	198.206E-12	496.897E-3	21.9024E-3	195.730E-12	542.892E-3	-15.6940E-3
4.86493E-3	198.510E-12	524.823E-3	17.9819E-3	196.238E-12	527.039E-3	-49.6426E-3
4.85993E-3	198.318E-12	551.858E-3	-2.82642E-3	198.329E-12	481.708E-3	-46.0239E-3
4.85493E-3	197.347E-12	564.008E-3	-45.6375E-3	199.338E-12	486.867E-3	-14.7083E-3
4.84992E-3	198.332E-12	565.575E-3	-48.7504E-3	198.030E-12	534.652E-3	-8.50332E-3
4.84492E-3	196.185E-12	546.482E-3	-12.6670E-3	196.936E-12	554.666E-3	-36.2785E-3
4.83992E-3	197.160E-12	525.264E-3	5.08811E-3	197.171E-12	556.721E-3	-36.2160E-3
4.83492E-3	196.304E-12	527.921E-3	14.3033E-3	198.608E-12	551.735E-3	9.78677E-3
4.82991E-3	196.742E-12	538.796E-3	5.70169E-3	198.898E-12	518.726E-3	26.1974E-3
4.82491E-3	195.576E-12	530.554E-3	-26.1700E-3	196.159E-12	489.352E-3	-2.46113E-3
4.81991E-3	197.058E-12	532.987E-3	-28.3412E-3	194.582E-12	480.891E-3	-31.9820E-3
4.81491E-3	195.724E-12	553.862E-3	1.50117E-3	194.673E-12	495.458E-3	-36.9417E-3
4.80990E-3	194.785E-12	570.917E-3	9.81634E-3	195.634E-12	528.207E-3	-5.25997E-3
4.80490E-3	194.172E-12	584.019E-3	-3.35592E-3	194.168E-12	540.381E-3	8.65487E-3
4.79990E-3	192.804E-12	571.040E-3	-13.5700E-3	191.700E-12	520.565E-3	-1.29957E-3
4.79490E-3	193.380E-12	515.125E-3	-35.7996E-3	190.465E-12	507.160E-3	17.0669E-3
4.78989E-3	193.927E-12	494.238E-3	-49.9664E-3	192.556E-12	516.453E-3	35.7721E-3
4.78489E-3	193.024E-12	521.995E-3	-35.5059E-3	192.096E-12	535.692E-3	39.1729E-3
4.77989E-3	194.123E-12	540.011E-3	-28.0179E-3	190.725E-12	552.653E-3	26.4468E-3
4.77489E-3	194.738E-12	540.815E-3	-16.6545E-3	190.273E-12	567.607E-3	-8.94250E-3
4.76988E-3	194.468E-12	546.537E-3	5.99896E-3	192.379E-12	569.653E-3	-33.6432E-3
4.76488E-3	194.129E-12	578.342E-3	6.96459E-3	193.048E-12	562.456E-3	-43.5605E-3
4.75988E-3	194.919E-12	587.425E-3	15.8551E-3	191.729E-12	564.397E-3	-48.9537E-3
4.75488E-3	194.368E-12	555.091E-3	22.4144E-3	191.251E-12	568.485E-3	-27.0890E-3
4.74988E-3	193.392E-12	525.109E-3	12.2942E-3	191.403E-12	577.955E-3	4.54354E-3
4.74487E-3	193.146E-12	523.181E-3	1.84366E-3	193.146E-12	572.573E-3	7.71877E-3
4.73987E-3	193.586E-12	526.726E-3	-7.13494E-3	193.891E-12	540.791E-3	-16.2002E-3
4.73487E-3	193.561E-12	514.672E-3	-3.29743E-3	192.540E-12	512.863E-3	-30.8484E-3
4.72986E-3	192.598E-12	518.277E-3	-26.7484E-3	190.931E-12	511.928E-3	-15.0987E-3
4.72486E-3	190.341E-12	553.613E-3	-67.1767E-3	190.929E-12	518.475E-3	8.79169E-3
4.71986E-3	190.304E-12	578.577E-3	-56.2418E-3	192.863E-12	505.958E-3	7.77432E-3
4.71486E-3	190.029E-12	568.143E-3	-34.8354E-3	190.340E-12	513.521E-3	-15.6250E-3
4.70985E-3	188.924E-12	552.899E-3	-46.0361E-3	186.907E-12	532.409E-3	-20.9878E-3
4.70485E-3	186.941E-12	540.929E-3	-41.1763E-3	186.042E-12	526.924E-3	-6.34636E-3
4.69985E-3	186.716E-12	531.399E-3	-47.5745E-3	186.486E-12	530.759E-3	-1.23066E-3
4.69485E-3	187.242E-12	525.679E-3	-65.3270E-3	186.938E-12	518.998E-3	-13.1421E-3
4.68984E-3	188.534E-12	516.123E-3	-47.5865E-3	184.221E-12	489.895E-3	-13.0716E-3
4.68484E-3	187.675E-12	516.208E-3	-49.5844E-3	184.386E-12	510.565E-3	-13.5881E-3
4.67984E-3	187.220E-12	515.895E-3	-60.1247E-3	184.705E-12	550.903E-3	-4.97894E-3
4.67484E-3	187.424E-12	497.683E-3	-33.7383E-3	184.717E-12	550.760E-3	31.0200E-3
4.66983E-3	189.930E-12	508.527E-3	-14.4282E-3	185.580E-12	524.962E-3	20.4085E-3
4.66483E-3	190.110E-12	543.161E-3	-28.3134E-3	186.836E-12	514.001E-3	-5.29269E-3
4.65983E-3	188.453E-12	554.242E-3	-44.2181E-3	187.345E-12	528.662E-3	815.516E-6
4.65483E-3	187.522E-12	548.704E-3	-41.2712E-3	187.595E-12	547.444E-3	7.17044E-3
4.64982E-3	189.525E-12	516.719E-3	-28.7180E-3	189.045E-12	566.524E-3	17.3132E-3
4.64482E-3	188.385E-12	487.590E-3	-21.5036E-3	189.375E-12	587.289E-3	-5.70251E-3
4.63982E-3	187.961E-12	509.886E-3	-24.2516E-3	190.021E-12	604.803E-3	-48.0147E-3
4.63482E-3	186.735E-12	549.708E-3	-17.1586E-3	189.889E-12	580.633E-3	-46.8512E-3
4.62981E-3	188.275E-12	558.866E-3	7.45440E-3	189.655E-12	545.291E-3	-18.8475E-3
4.62481E-3	187.480E-12	543.064E-3	1.13197E-3	189.084E-12	556.381E-3	-18.8168E-3
4.61981E-3	185.672E-12	533.343E-3	-28.5259E-3	187.662E-12	547.974E-3	-43.0458E-3
4.61481E-3	185.188E-12	552.783E-3	-35.1896E-3	187.584E-12	508.654E-3	-20.7946E-3
4.60980E-3	186.071E-12	567.273E-3	-45.7834E-3	187.044E-12	516.234E-3	3.49092E-3
4.60480E-3	185.744E-12	580.593E-3	-36.2719E-3	185.082E-12	541.125E-3	-15.4382E-3
4.59980E-3	185.967E-12	598.749E-3	-8.42138E-3	184.086E-12	540.570E-3	-929.993E-6
4.59480E-3	187.047E-12	581.789E-3	-13.1850E-3	184.332E-12	555.931E-3	20.3441E-3
4.58979E-3	186.711E-12	594.533E-3	-19.5379E-3	183.779E-12	558.408E-3	-10.6353E-3
4.58479E-3	187.663E-12	630.321E-3	-18.1685E-3	183.436E-12	528.262E-3	-28.9738E-3
4.57979E-3	187.472E-12	599.867E-3	-19.9652E-3	183.747E-12	523.732E-3	-16.6127E-3
4.57479E-3	188.143E-12	548.818E-3	994.437E-6	184.666E-12	545.035E-3	-15.1688E-3
4.56978E-3	188.201E-12	535.730E-3	22.5563E-3	186.016E-12	548.621E-3	-26.9636E-3
4.56478E-3	187.547E-12	547.781E-3	-1.68112E-3	185.546E-12	544.153E-3	-43.4062E-3
4.55978E-3	186.578E-12	548.321E-3	-34.6513E-3	185.050E-12	565.352E-3	-62.6597E-3
4.55478E-3	186.111E-12	518.581E-3	-26.0813E-3	186.255E-12	581.444E-3	-59.6523E-3
4.54977E-3	186.223E-12	495.760E-3	5.68534E-3	188.731E-12	580.120E-3	-26.4972E-3
4.54477E-3	187.405E-12	486.011E-3	15.8809E-3	188.403E-12	578.237E-3	-8.29628E-3
4.53977E-3	185.717E-12	501.814E-3	5.21374E-3	188.052E-12	563.519E-3	-16.8956E-3
4.53477E-3	184.780E-12	532.621E-3	-8.80995E-3	187.456E-12	554.854E-3	-44.0572E-3
4.52976E-3	185.253E-12	531.017E-3	-35.1060E-3	188.235E-12	547.617E-3	-72.3630E-3
4.52476E-3	185.192E-12	535.209E-3	-57.7780E-3	187.769E-12	507.799E-3	-55.7116E-3
4.51976E-3	184.629E-12	541.746E-3	-52.5587E-3	185.838E-12	477.071E-3	-10.2032E-3
4.51476E-3	183.434E-12	520.329E-3	-49.5487E-3	184.170E-12	502.807E-3	10.5603E-3
4.50975E-3	182.085E-12	528.198E-3	-48.8745E-3	182.812E-12	528.474E-3	18.3136E-3
4.50475E-3	185.105E-12	552.391E-3	-18.8057E-3	183.457E-12	543.941E-3	24.5142E-3
4.49975E-3	184.371E-12	526.226E-3	-12.7335E-3	182.410E-12	560.773E-3	-1.03550E-3
4.49475E-3	183.830E-12	516.957E-3	-36.0988E-3	179.824E-12	544.961E-3	-39.2221E-3
4.48974E-3	181.989E-12	543.863E-3	-20.5454E-3	178.678E-12	528.005E-3	-45.9605E-3
4.48474E-3	183.580E-12	551.112E-3	5.56657E-3	178.951E-12	528.100E-3	-25.7792E-3
4.47974E-3	183.140E-12	549.622E-3	-2.76937E-3	180.563E-12	526.267E-3	5.44029E-3
4.47474E-3	182.332E-12	537.783E-3	-7.61425E-3	179.034E-12	523.980E-3	21.5986E-3
4.46973E-3	180.445E-12	524.071E-3	-14.7061E-3	177.977E-12	526.164E-3	-12.6916E-3
4.46473E-3	180.350E-12	520.084E-3	-46.8849E-3	177.628E-12	526.831E-3	-51.8369E-3
4.45973E-3	180.710E-12	534.918E-3	-68.4510E-3	180.126E-12	516.378E-3	-52.3204E-3
4.45473E-3	180.427E-12	565.283E-3	-60.1415E-3	180.454E-12	513.563E-3	-38.0799E-3
4.44972E-3	180.406E-12	564.070E-3	-36.4537E-3	178.755E-12	516.448E-3	-21.6805E-3
4.44472E-3	178.689E-12	532.618E-3	-17.9938E-3	179.747E-12	514.771E-3	-17.9332E-3
4.43972E-3	178.789E-12	502.283E-3	-26.3229E-3	181.456E-12	527.654E-3	-22.0671E-3
4.43472E-3	179.281E-12	503.443E-3	-33.0520E-3	181.618E-12	559.182E-3	-13.7838E-3
4.42971E-3	179.501E-12	520.527E-3	-695.278E-6	179.714E-12	578.967E-3	13.5235E-3
4.42471E-3	178.632E-12	523.297E-3	16.4214E-3	179.931E-12	570.738E-3	44.8518E-3
4.41971E-3	180.102E-12	548.326E-3	-8.04998E-3	180.443E-12	552.527E-3	21.2908E-3
4.41471E-3	182.195E-12	563.519E-3	-40.6019E-3	181.608E-12	541.750E-3	-30.0963E-3
4.40970E-3	181.546E-12	520.485E-3	-60.3934E-3	180.374E-12	533.683E-3	-50.4927E-3
4.40470E-3	180.834E-12	504.406E-3	-49.6400E-3	178.922E-12	514.334E-3	-38.7445E-3
4.39970E-3	180.400E-12	528.158E-3	-12.2869E-3	178.677E-12	504.036E-3	-8.34148E-3
4.39470E-3	181.078E-12	520.479E-3	-2.14350E-3	179.275E-12	511.980E-3	-3.31450E-3
4.38969E-3	179.451E-12	506.368E-3	-28.5952E-3	178.657E-12	512.780E-3	-26.7075E-3
4.38469E-3	179.785E-12	513.140E-3	-37.6551E-3	176.722E-12	503.824E-3	-37.0433E-3
4.37969E-3	178.483E-12	503.514E-3	-36.6396E-3	175.250E-12	510.832E-3	-27.2561E-3
4.37469E-3	178.010E-12	496.720E-3	-41.2418E-3	176.469E-12	527.200E-3	-14.6021E-3
4.36968E-3	176.853E-12	517.456E-3	-32.8610E-3	175.020E-12	550.730E-3	135.611E-6
4.36468E-3	176.566E-12	534.585E-3	-14.4381E-3	174.343E-12	575.958E-3	-8.99562E-3
4.35968E-3	176.074E-12	540.146E-3	-16.7308E-3	173.612E-12	552.994E-3	-24.9081E-3
4.35468E-3	175.405E-12	531.725E-3	-38.3996E-3	173.751E-12	520.872E-3	-24.7332E-3
4.34967E-3	175.270E-12	507.250E-3	-39.2669E-3	173.681E-12	530.680E-3	-33.8638E-3
4.34467E-3	175.719E-12	492.171E-3	-9.63421E-3	172.877E-12	557.926E-3	-50.1230E-3
4.33967E-3	176.173E-12	523.313E-3	9.53022E-3	174.589E-12	561.851E-3	-54.8589E-3
4.33467E-3	176.409E-12	560.188E-3	-2.13318E-3	174.839E-12	543.005E-3	-34.6018E-3
4.32966E-3	177.260E-12	549.691E-3	-24.4772E-3	177.384E-12	541.978E-3	-14.6961E-3
4.32466E-3	178.979E-12	525.652E-3	-30.3536E-3	178.435E-12	542.270E-3	-7.44190E-3
4.31966E-3	178.273E-12	520.243E-3	-12.5537E-3	179.994E-12	525.838E-3	4.05235E-3
4.31466E-3	179.098E-12	515.857E-3	-15.8421E-3	180.225E-12	516.741E-3	5.18497E-3
4.30965E-3	179.244E-12	529.897E-3	-35.8542E-3	180.364E-12	528.897E-3	-1.70135E-3
4.30465E-3	178.868E-12	551.212E-3	-36.5970E-3	181.270E-12	536.937E-3	-19.7948E-3
4.29965E-3	177.701E-12	527.355E-3	-11.3901E-3	181.224E-12	523.035E-3	-41.2759E-3
4.29465E-3	176.875E-12	515.347E-3	4.54861E-3	180.048E-12	507.646E-3	-27.4853E-3
4.28964E-3	176.633E-12	535.075E-3	-17.3371E-3	178.988E-12	507.810E-3	-19.7833E-3
4.28464E-3	176.491E-12	545.073E-3	-32.7970E-3	178.240E-12	511.138E-3	-24.6947E-3
4.27964E-3	175.115E-12	544.102E-3	-21.4033E-3	177.185E-12	513.639E-3	-16.8268E-3
4.27464E-3	175.379E-12	544.421E-3	-992.641E-6	177.117E-12	531.221E-3	-13.0274E-3
4.26963E-3	174.357E-12	545.160E-3	31.6447E-3	174.490E-12	560.889E-3	-3.23678E-3
4.26463E-3	174.069E-12	550.068E-3	41.8991E-3	174.307E-12	566.517E-3	7.73184E-3
4.25963E-3	173.419E-12	560.768E-3	5.06667E-3	173.623E-12	535.119E-3	2.46723E-3
4.25463E-3	173.557E-12	563.672E-3	-20.5366E-3	174.510E-12	513.990E-3	-16.3036E-3
4.24962E-3	172.716E-12	565.956E-3	-34.6725E-3	172.407E-12	519.979E-3	-26.0903E-3
4.24462E-3	172.764E-12	561.561E-3	-32.7344E-3	172.462E-12	522.262E-3	-11.3107E-3
4.23962E-3	173.073E-12	543.363E-3	-5.38417E-3	173.314E-12	507.873E-3	-6.21598E-3
4.23462E-3	173.791E-12	523.901E-3	10.4890E-3	173.754E-12	497.311E-3	-7.26596E-3
4.22961E-3	173.281E-12	505.689E-3	11.6804E-3	173.932E-12	523.011E-3	18.8900E-3
4.22461E-3	172.256E-12	477.066E-3	-4.73577E-3	174.532E-12	561.615E-3	27.5093E-3
4.21961E-3	172.565E-12	475.596E-3	-28.9411E-3	176.794E-12	566.085E-3	-15.1421E-3
4.21461E-3	174.250E-12	514.445E-3	-30.9111E-3	176.250E-12	547.586E-3	-41.6653E-3
4.20960E-3	173.784E-12	540.941E-3	439.715E-6	175.439E-12	544.300E-3	-23.9110E-3
4.20460E-3	171.062E-12	541.949E-3	2.35503E-3	175.642E-12	547.485E-3	-17.4442E-3
4.19960E-3	170.337E-12	529.947E-3	-52.0370E-3	174.242E-12	538.471E-3	-22.2778E-3
4.19460E-3	171.732E-12	523.512E-3	-74.3160E-3	174.957E-12	547.706E-3	-14.0855E-3
4.18959E-3	172.228E-12	543.530E-3	-40.2842E-3	172.796E-12	563.439E-3	-10.4545E-3
4.18459E-3	171.076E-12	566.983E-3	-12.8552E-3	170.808E-12	550.501E-3	-11.6872E-3
4.17959E-3	170.698E-12	539.643E-3	6.37842E-3	169.112E-12	521.829E-3	430.638E-6
4.17459E-3	170.999E-12	483.484E-3	-1.23140E-3	170.109E-12	519.680E-3	-3.80160E-3
4.16958E-3	172.048E-12	477.657E-3	-35.5417E-3	168.963E-12	541.821E-3	-22.8606E-3
4.16458E-3	171.955E-12	518.504E-3	-42.6756E-3	168.009E-12	552.704E-3	995.039E-6
4.15958E-3	170.143E-12	549.837E-3	-23.4991E-3	166.714E-12	547.640E-3	19.3350E-3
4.15458E-3	170.366E-12	543.661E-3	-12.6852E-3	166.872E-12	512.259E-3	-21.9369E-3
4.14957E-3	171.564E-12	520.312E-3	2.89090E-3	167.194E-12	483.326E-3	-47.8448E-3
4.14457E-3	171.994E-12	525.846E-3	12.9529E-3	168.195E-12	511.372E-3	-29.9699E-3
4.13957E-3	170.842E-12	554.845E-3	-21.3745E-3	168.665E-12	558.561E-3	-21.0668E-3
4.13457E-3	169.493E-12	561.261E-3	-38.4608E-3	169.150E-12	563.868E-3	-3.69026E-3
4.12956E-3	169.344E-12	537.757E-3	-36.1495E-3	170.959E-12	539.688E-3	21.1800E-3
4.12456E-3	169.046E-12	529.965E-3	-48.8809E-3	171.048E-12	531.313E-3	5.48732E-3
4.11956E-3	169.432E-12	533.721E-3	-41.6077E-3	171.027E-12	535.926E-3	-6.55264E-3
4.11456E-3	166.956E-12	530.576E-3	-35.6904E-3	169.979E-12	545.662E-3	2.00602E-3
4.10955E-3	166.686E-12	544.817E-3	-46.2816E-3	170.918E-12	551.760E-3	-13.6601E-3
4.10455E-3	165.999E-12	549.093E-3	-36.1580E-3	171.043E-12	542.018E-3	-32.4913E-3
4.09955E-3	167.049E-12	510.710E-3	-24.6155E-3	169.977E-12	537.418E-3	-27.5379E-3
4.09455E-3	166.212E-12	487.841E-3	-38.9745E-3	166.500E-12	549.687E-3	-29.9534E-3
4.08954E-3	166.170E-12	515.006E-3	-34.3946E-3	166.486E-12	535.449E-3	-36.0671E-3
4.08454E-3	166.934E-12	540.464E-3	-29.2230E-3	167.246E-12	511.467E-3	-8.86941E-3
4.07954E-3	167.458E-12	553.191E-3	-54.0197E-3	165.424E-12	513.200E-3	21.4658E-3
4.07454E-3	168.571E-12	563.018E-3	-52.3809E-3	163.984E-12	530.511E-3	12.1702E-3
4.06953E-3	168.427E-12	569.302E-3	-10.2411E-3	164.092E-12	559.558E-3	-7.56477E-3
4.06453E-3	167.904E-12	558.224E-3	13.3693E-3	165.251E-12	564.221E-3	129.604E-6
4.05953E-3	168.220E-12	534.161E-3	-6.35080E-3	165.422E-12	527.069E-3	18.4871E-3
4.05453E-3	168.690E-12	520.952E-3	-22.0730E-3	165.830E-12	506.102E-3	21.6297E-3
4.04952E-3	168.367E-12	525.558E-3	-17.5342E-3	165.541E-12	524.877E-3	10.0181E-3
4.04452E-3	167.366E-12	548.970E-3	-21.7592E-3	167.765E-12	531.419E-3	-3.92443E-3
4.03952E-3	166.891E-12	558.037E-3	-17.8526E-3	168.804E-12	535.273E-3	-13.0324E-3
4.03452E-3	165.709E-12	537.784E-3	-6.41704E-3	167.939E-12	561.375E-3	-20.2666E-3
4.02951E-3	166.183E-12	514.002E-3	-22.8785E-3	167.303E-12	571.028E-3	-21.5221E-3
4.02451E-3	165.324E-12	506.930E-3	-33.2810E-3	168.234E-12	556.651E-3	-577.663E-6
4.01951E-3	163.731E-12	502.425E-3	-34.1612E-3	170.193E-12	552.194E-3	23.1221E-3
4.01451E-3	163.138E-12	512.632E-3	-56.1887E-3	168.491E-12	564.375E-3	28.1494E-3
4.00950E-3	164.569E-12	524.835E-3	-46.5623E-3	167.052E-12	569.538E-3	7.72963E-3
4.00450E-3	165.414E-12	505.041E-3	4.07712E-3	167.152E-12	562.541E-3	-29.4082E-3
3.99950E-3	165.124E-12	500.868E-3	8.91596E-3	168.306E-12	563.171E-3	-55.6379E-3
3.99450E-3	163.799E-12	512.704E-3	-14.0787E-3	167.270E-12	571.202E-3	-59.5689E-3
3.98949E-3	165.336E-12	513.042E-3	-10.3550E-3	166.429E-12	575.620E-3	-52.6161E-3
3.98449E-3	167.048E-12	524.273E-3	-4.75017E-3	165.806E-12	586.983E-3	-25.3809E-3
3.97949E-3	167.048E-12	554.610E-3	9.51242E-3	166.231E-12	571.828E-3	-12.0570E-3
3.97449E-3	166.308E-12	559.838E-3	26.1587E-3	165.756E-12	535.406E-3	-15.8022E-3
3.96948E-3	166.243E-12	545.290E-3	23.4075E-3	164.639E-12	532.712E-3	-11.1081E-3
3.96448E-3	167.821E-12	559.485E-3	19.1148E-3	164.293E-12	518.708E-3	-18.5269E-3
3.95948E-3	167.738E-12	575.003E-3	21.8975E-3	165.922E-12	483.310E-3	-4.01660E-3
3.95448E-3	165.426E-12	573.366E-3	10.8500E-3	165.119E-12	497.967E-3	14.7149E-3
3.94947E-3	163.761E-12	559.829E-3	-5.44896E-3	165.466E-12	533.221E-3	-25.6692E-3
3.94447E-3	164.045E-12	549.427E-3	-3.17029E-3	164.246E-12	529.983E-3	-60.1108E-3
3.93947E-3	164.983E-12	540.261E-3	-5.61614E-3	163.572E-12	515.198E-3	-39.7752E-3
3.93447E-3	163.265E-12	522.946E-3	-34.5987E-3	164.584E-12	505.967E-3	-28.2007E-3
3.92946E-3	161.233E-12	512.197E-3	-29.4599E-3	164.823E-12	515.920E-3	-20.8662E-3
3.92446E-3	160.415E-12	507.638E-3	3.11787E-3	162.823E-12	557.153E-3	-8.25263E-3
3.91946E-3	161.580E-12	517.337E-3	-2.41489E-3	161.754E-12	595.230E-3	-21.0036E-3
3.91446E-3	161.499E-12	530.452E-3	-10.9926E-3	163.109E-12	586.411E-3	-33.2171E-3
3.90945E-3	159.739E-12	524.293E-3	-14.9176E-3	163.740E-12	558.548E-3	-18.8275E-3
3.90445E-3	159.601E-12	523.818E-3	-33.1943E-3	161.441E-12	562.882E-3	-795.253E-6
3.89945E-3	162.205E-12	545.409E-3	-30.2077E-3	161.737E-12	577.580E-3	4.61781E-3
3.89445E-3	162.186E-12	555.724E-3	-6.40979E-3	163.375E-12	582.298E-3	2.29905E-3
3.88944E-3	160.771E-12	555.263E-3	10.6936E-3	164.282E-12	585.201E-3	-5.40808E-3
3.88444E-3	160.679E-12	554.490E-3	20.5953E-3	163.477E-12	577.858E-3	-12.6183E-3
3.87944E-3	163.003E-12	545.885E-3	7.55999E-3	161.581E-12	554.712E-3	-6.38205E-3
3.87444E-3	162.886E-12	540.255E-3	-973.214E-6	160.914E-12	546.329E-3	-1.83399E-3
3.86943E-3	160.688E-12	543.407E-3	-36.1766E-6	162.901E-12	555.710E-3	-23.3196E-3
3.86443E-3	160.212E-12	540.225E-3	-12.2585E-3	161.597E-12	549.863E-3	-53.5189E-3
3.85943E-3	161.367E-12	527.957E-3	-7.47778E-3	159.512E-12	525.510E-3	-55.3041E-3
3.85443E-3	161.240E-12	520.723E-3	-7.40317E-3	158.637E-12	507.313E-3	-43.8837E-3
3.84942E-3	160.294E-12	534.574E-3	-35.2420E-3	158.751E-12	505.970E-3	-35.0367E-3
3.84442E-3	158.659E-12	556.943E-3	-46.7479E-3	159.107E-12	508.519E-3	-9.58282E-3
3.83942E-3	160.401E-12	569.510E-3	-19.3999E-3	157.647E-12	517.473E-3	24.9073E-3
3.83442E-3	160.472E-12	578.098E-3	-5.41644E-3	155.020E-12	538.118E-3	24.7947E-3
3.82941E-3	159.563E-12	560.605E-3	-31.3832E-3	154.809E-12	548.199E-3	-5.89140E-3
3.82441E-3	158.110E-12	534.360E-3	-46.5311E-3	158.160E-12	550.929E-3	-16.7838E-3
3.81941E-3	158.673E-12	540.139E-3	-32.3725E-3	158.509E-12	564.567E-3	-16.2691E-3
3.81441E-3	159.405E-12	558.114E-3	-25.6632E-3	157.092E-12	579.607E-3	-37.2918E-3
3.80940E-3	158.945E-12	564.320E-3	-28.0535E-3	158.356E-12	577.420E-3	-59.7033E-3
3.80440E-3	158.201E-12	560.334E-3	-35.9419E-3	160.116E-12	551.612E-3	-51.1548E-3
3.79940E-3	158.748E-12	551.399E-3	-43.9468E-3	162.361E-12	541.151E-3	-43.8034E-3
3.79440E-3	159.497E-12	549.626E-3	-27.9746E-3	161.967E-12	558.513E-3	-63.0257E-3
3.78939E-3	159.686E-12	550.017E-3	-18.3659E-3	161.784E-12	572.776E-3	-66.6294E-3
3.78439E-3	158.548E-12	556.547E-3	-33.8310E-3	161.441E-12	565.975E-3	-39.7341E-3
3.77939E-3	157.429E-12	566.028E-3	-31.1041E-3	162.067E-12	539.392E-3	-12.2553E-3
3.77439E-3	157.413E-12	534.243E-3	-5.11771E-3	162.648E-12	526.681E-3	-10.7949E-3
3.76938E-3	157.929E-12	503.446E-3	5.39044E-3	160.515E-12	544.687E-3	-25.0298E-3
3.76438E-3	156.900E-12	529.941E-3	2.99651E-3	158.250E-12	565.400E-3	-23.4807E-3
3.75938E-3	155.894E-12	561.126E-3	860.822E-6	157.129E-12	553.162E-3	-4.53465E-3
3.75438E-3	156.536E-12	562.753E-3	1.28848E-3	157.094E-12	523.427E-3	4.34495E-3
3.74937E-3	156.742E-12	568.428E-3	11.4888E-3	155.833E-12	527.289E-3	-8.62572E-3
3.74437E-3	156.185E-12	564.428E-3	8.73667E-3	153.743E-12	541.067E-3	-22.9032E-3
3.73937E-3	155.367E-12	537.947E-3	-11.5806E-3	153.907E-12	527.273E-3	-18.8401E-3
3.73437E-3	155.856E-12	540.492E-3	-14.4401E-3	153.735E-12	525.040E-3	-4.77612E-3
3.72936E-3	156.714E-12	558.401E-3	-7.72708E-3	155.123E-12	537.229E-3	-2.61721E-3
3.72436E-3	157.405E-12	552.745E-3	-14.7410E-3	154.952E-12	549.989E-3	-11.7270E-3
3.71936E-3	156.147E-12	542.243E-3	-12.4374E-3	157.224E-12	556.136E-3	-29.8699E-3
3.71436E-3	156.584E-12	540.706E-3	454.982E-6	157.374E-12	561.471E-3	-40.5359E-3
3.70935E-3	157.398E-12	554.554E-3	-6.46715E-3	159.529E-12	596.137E-3	-31.3968E-3
3.70435E-3	156.449E-12	580.644E-3	-20.4397E-3	158.647E-12	634.148E-3	-21.9666E-3
3.69935E-3	155.248E-12	579.414E-3	-33.4159E-3	160.399E-12	641.296E-3	-8.28437E-3
3.69435E-3	155.061E-12	546.760E-3	-42.2070E-3	161.721E-12	599.594E-3	8.29099E-3
3.68934E-3	155.336E-12	548.323E-3	-32.1988E-3	161.331E-12	551.591E-3	250.602E-6
3.68434E-3	153.750E-12	573.280E-3	-17.9648E-3	160.390E-12	552.508E-3	-24.3002E-3
3.67934E-3	153.078E-12	571.152E-3	-4.22973E-3	157.653E-12	563.127E-3	-42.7752E-3
3.67434E-3	153.204E-12	544.896E-3	17.1871E-3	157.560E-12	554.324E-3	-40.7144E-3
3.66933E-3	153.429E-12	536.302E-3	33.9700E-3	155.660E-12	536.238E-3	-17.6914E-3
3.66433E-3	152.454E-12	532.332E-3	25.7847E-3	154.215E-12	543.553E-3	-11.6774E-3
3.65933E-3	151.854E-12	509.798E-3	-10.5850E-3	151.393E-12	573.919E-3	-13.1802E-3
3.65433E-3	151.775E-12	520.552E-3	-20.8681E-3	150.817E-12	571.093E-3	-10.1368E-3
3.64932E-3	150.665E-12	543.963E-3	-4.47738E-3	150.952E-12	551.695E-3	-24.2219E-3
3.64432E-3	151.006E-12	551.809E-3	-11.4128E-3	150.623E-12	549.735E-3	-27.4514E-3
3.63932E-3	150.429E-12	558.261E-3	-14.2296E-3	148.531E-12	547.180E-3	-10.1666E-3
3.63432E-3	150.415E-12	533.507E-3	-13.5993E-3	147.719E-12	545.796E-3	-2.44639E-3
3.62931E-3	150.110E-12	515.045E-3	-22.0049E-3	150.146E-12	561.053E-3	-16.0855E-3
3.62431E-3	149.441E-12	544.062E-3	-16.2478E-3	150.520E-12	574.731E-3	-18.9132E-3
3.61931E-3	150.080E-12	562.078E-3	-14.9687E-3	149.955E-12	562.615E-3	2.87331E-3
3.61431E-3	150.353E-12	546.077E-3	-26.5161E-3	149.556E-12	549.730E-3	12.7027E-3
3.60930E-3	149.869E-12	517.050E-3	-22.2333E-3	151.010E-12	546.170E-3	-877.965E-6
3.60430E-3	149.356E-12	496.401E-3	3.13031E-3	151.993E-12	530.667E-3	-23.0061E-3
3.59930E-3	150.583E-12	492.402E-3	14.2300E-3	151.529E-12	528.337E-3	-27.5246E-3
3.59430E-3	150.298E-12	500.409E-3	-1.37606E-3	150.002E-12	543.661E-3	-27.8945E-3
3.58929E-3	149.657E-12	522.317E-3	-11.5397E-3	150.078E-12	549.520E-3	-39.4934E-3
3.58429E-3	148.500E-12	542.940E-3	-10.0641E-3	151.548E-12	549.257E-3	-29.5584E-3
3.57929E-3	148.914E-12	551.531E-3	-14.5561E-3	151.246E-12	555.873E-3	-8.18310E-3
3.57429E-3	149.724E-12	559.083E-3	-23.7531E-3	148.567E-12	551.754E-3	10.2139E-3
3.56928E-3	148.861E-12	569.373E-3	-36.1244E-3	147.224E-12	542.507E-3	10.9196E-3
3.56428E-3	148.503E-12	574.229E-3	-55.5901E-3	148.212E-12	558.557E-3	-9.37153E-3
3.55928E-3	147.555E-12	565.688E-3	-62.6393E-3	148.385E-12	578.944E-3	-5.57384E-3
3.55428E-3	148.231E-12	544.505E-3	-34.7557E-3	147.497E-12	582.740E-3	23.7399E-3
3.54927E-3	148.213E-12	530.263E-3	-10.1642E-3	146.209E-12	572.614E-3	35.5644E-3
3.54427E-3	146.586E-12	531.058E-3	-13.1419E-3	146.685E-12	553.385E-3	12.2196E-3
3.53927E-3	146.203E-12	530.114E-3	-34.7682E-3	148.331E-12	551.777E-3	-6.52507E-3
3.53427E-3	147.554E-12	527.554E-3	-44.7570E-3	148.739E-12	567.620E-3	425.624E-6
3.52926E-3	147.143E-12	534.061E-3	-28.4125E-3	146.853E-12	555.091E-3	3.12463E-3
3.52426E-3	145.923E-12	538.530E-3	-26.3206E-3	145.774E-12	519.814E-3	1.19434E-3
3.51926E-3	145.712E-12	534.229E-3	-36.0130E-3	146.372E-12	521.838E-3	-5.20991E-3
3.51426E-3	147.562E-12	533.655E-3	-37.3863E-3	147.171E-12	542.219E-3	-19.5020E-3
3.50925E-3	148.100E-12	532.713E-3	-42.8462E-3	147.461E-12	550.276E-3	-12.6478E-3
3.50425E-3	146.722E-12	529.888E-3	-59.9281E-3	145.873E-12	579.153E-3	4.83613E-3
3.49925E-3	145.471E-12	543.660E-3	-41.8615E-3	145.270E-12	606.140E-3	20.8503E-3
3.49425E-3	146.101E-12	543.358E-3	-22.9653E-3	145.901E-12	578.400E-3	31.7870E-3
3.48924E-3	146.979E-12	528.030E-3	-40.1143E-3	146.479E-12	538.915E-3	36.0016E-3
3.48424E-3	147.101E-12	537.240E-3	-41.8492E-3	145.544E-12	550.433E-3	42.1713E-3
3.47924E-3	146.088E-12	546.024E-3	-39.0714E-3	145.848E-12	570.923E-3	34.9176E-3
3.47424E-3	146.352E-12	543.601E-3	-26.3972E-3	146.587E-12	582.750E-3	3.29585E-3
3.46923E-3	146.901E-12	548.253E-3	-3.61584E-3	147.012E-12	585.030E-3	-29.7695E-3
3.46423E-3	147.521E-12	544.457E-3	-9.88823E-3	147.911E-12	557.189E-3	-32.7221E-3
3.45923E-3	146.488E-12	544.783E-3	-30.8781E-3	147.949E-12	554.649E-3	-21.4839E-3
3.45423E-3	146.209E-12	560.710E-3	-34.4812E-3	146.431E-12	583.936E-3	-17.8997E-3
3.44922E-3	146.718E-12	561.395E-3	-32.4982E-3	147.313E-12	601.311E-3	-15.9013E-3
3.44422E-3	146.388E-12	547.682E-3	-36.4098E-3	149.152E-12	589.548E-3	-10.3968E-3
3.43922E-3	145.976E-12	540.250E-3	-32.1512E-3	146.922E-12	561.789E-3	-4.38970E-3
3.43422E-3	144.959E-12	543.634E-3	-5.15347E-3	146.180E-12	555.895E-3	-16.9083E-3
3.42921E-3	144.738E-12	553.928E-3	15.1676E-3	146.017E-12	567.052E-3	-36.9920E-3
3.42421E-3	144.025E-12	567.484E-3	-5.66113E-3	146.707E-12	567.406E-3	-40.2526E-3
3.41921E-3	143.979E-12	567.905E-3	-20.3269E-3	145.296E-12	555.906E-3	-37.1615E-3
3.41421E-3	144.212E-12	539.702E-3	-5.08339E-3	144.488E-12	553.569E-3	-33.8952E-3
3.40920E-3	142.982E-12	511.035E-3	2.56772E-3	142.946E-12	554.835E-3	-32.4389E-3
3.40420E-3	142.815E-12	519.988E-3	-11.0367E-3	143.780E-12	539.431E-3	-22.4387E-3
3.39920E-3	143.191E-12	536.380E-3	-31.3748E-3	144.082E-12	518.644E-3	-9.31817E-3
3.39420E-3	143.658E-12	533.517E-3	-35.5659E-3	143.758E-12	530.995E-3	-3.50510E-3
3.38919E-3	143.031E-12	539.583E-3	-11.9921E-3	143.725E-12	565.689E-3	-10.5464E-3
3.38419E-3	143.046E-12	539.556E-3	6.16324E-3	143.519E-12	575.481E-3	-12.9873E-3
3.37919E-3	142.779E-12	526.650E-3	-12.2230E-3	145.085E-12	571.973E-3	11.1958E-3
3.37419E-3	144.694E-12	538.781E-3	-34.7597E-3	145.225E-12	571.559E-3	20.9859E-3
3.36918E-3	144.450E-12	568.397E-3	-43.3880E-3	144.738E-12	561.187E-3	-8.28625E-3
3.36418E-3	143.206E-12	580.382E-3	-45.7810E-3	144.124E-12	555.147E-3	-39.2579E-3
3.35918E-3	143.375E-12	574.763E-3	-28.6532E-3	144.242E-12	572.550E-3	-40.0278E-3
3.35418E-3	144.144E-12	562.820E-3	-11.6969E-3	143.292E-12	580.831E-3	-32.2219E-3
3.34917E-3	143.941E-12	562.895E-3	-7.63191E-3	142.651E-12	573.644E-3	-36.4662E-3
3.34417E-3	142.581E-12	572.200E-3	-363.176E-6	141.406E-12	578.012E-3	-42.1245E-3
3.33917E-3	141.378E-12	557.761E-3	-10.7054E-3	139.999E-12	575.745E-3	-38.8797E-3
3.33417E-3	141.271E-12	546.412E-3	-34.4468E-3	137.902E-12	560.431E-3	-10.6119E-3
3.32916E-3	140.673E-12	555.054E-3	-29.7216E-3	136.978E-12	565.170E-3	19.5030E-3
3.32416E-3	138.907E-12	546.121E-3	-10.2373E-3	135.743E-12	572.850E-3	14.0430E-3
3.31916E-3	137.934E-12	541.630E-3	-26.4877E-3	134.143E-12	557.820E-3	-5.47883E-3
3.31416E-3	137.236E-12	560.788E-3	-47.1965E-3	133.708E-12	552.768E-3	-12.8529E-3
3.30915E-3	137.067E-12	564.069E-3	-34.0894E-3	133.634E-12	561.224E-3	-7.48418E-3
3.30415E-3	137.335E-12	548.754E-3	-18.5044E-3	134.203E-12	562.636E-3	-8.26047E-3
3.29915E-3	137.833E-12	548.966E-3	-6.37884E-3	135.543E-12	570.363E-3	-6.57413E-3
3.29415E-3	137.565E-12	564.827E-3	-1.93990E-3	135.899E-12	578.147E-3	5.92452E-3
3.28914E-3	138.029E-12	561.869E-3	-14.7848E-3	137.916E-12	571.203E-3	305.151E-6
3.28414E-3	138.621E-12	539.161E-3	-30.1036E-3	138.537E-12	589.711E-3	-3.39471E-3
3.27914E-3	138.994E-12	529.686E-3	-34.4991E-3	139.291E-12	628.090E-3	-658.369E-6
3.27414E-3	139.853E-12	543.124E-3	-35.6389E-3	140.116E-12	614.202E-3	-22.3994E-3
3.26913E-3	140.159E-12	547.954E-3	-30.7672E-3	142.063E-12	573.639E-3	-34.1865E-3
3.26413E-3	139.605E-12	548.696E-3	8.82462E-3	141.338E-12	566.984E-3	-27.2200E-3
3.25913E-3	139.389E-12	578.293E-3	36.7521E-3	140.941E-12	564.641E-3	-18.3956E-3
3.25413E-3	139.894E-12	586.531E-3	15.6700E-3	140.097E-12	555.740E-3	-1.72905E-3
3.24912E-3	138.994E-12	561.160E-3	-3.86748E-3	138.747E-12	557.155E-3	-2.56077E-3
3.24412E-3	138.775E-12	553.644E-3	-20.2777E-3	138.265E-12	548.276E-3	-13.5044E-3
3.23912E-3	137.681E-12	564.545E-3	-29.7677E-3	136.899E-12	535.818E-3	-8.36311E-3
3.23412E-3	136.906E-12	572.374E-3	-23.0867E-3	135.563E-12	528.569E-3	-3.13299E-3
3.22911E-3	136.481E-12	558.585E-3	-35.4528E-3	135.168E-12	513.970E-3	-1.58914E-3
3.22411E-3	136.345E-12	550.116E-3	-46.5338E-3	133.890E-12	519.512E-3	-14.2596E-3
3.21911E-3	134.853E-12	549.382E-3	-50.5384E-3	133.874E-12	551.353E-3	-36.0452E-3
3.21411E-3	134.757E-12	537.865E-3	-47.3345E-3	133.453E-12	572.747E-3	-40.7537E-3
3.20910E-3	135.991E-12	533.280E-3	-13.2449E-3	133.965E-12	577.869E-3	-25.5137E-3
3.20410E-3	134.433E-12	526.372E-3	13.8255E-3	134.771E-12	578.272E-3	463.911E-6
3.19910E-3	133.812E-12	517.612E-3	-6.38867E-3	135.546E-12	559.542E-3	4.23561E-3
3.19410E-3	134.180E-12	533.614E-3	-28.6677E-3	135.830E-12	548.983E-3	-15.9057E-3
3.18909E-3	136.403E-12	554.622E-3	-3.14915E-3	136.950E-12	554.248E-3	-30.2804E-3
3.18409E-3	135.329E-12	543.880E-3	20.8504E-3	136.757E-12	540.554E-3	-43.8704E-3
3.17909E-3	134.930E-12	530.839E-3	14.1146E-3	137.604E-12	530.854E-3	-56.3702E-3
3.17409E-3	133.732E-12	542.676E-3	5.10194E-3	138.074E-12	555.365E-3	-49.6865E-3
3.16908E-3	136.153E-12	545.962E-3	4.72730E-3	138.332E-12	602.484E-3	-38.4546E-3
3.16408E-3	136.348E-12	547.921E-3	5.37288E-3	137.495E-12	621.398E-3	-40.6335E-3
3.15908E-3	135.333E-12	561.068E-3	1.24006E-3	138.152E-12	591.270E-3	-51.9532E-3
3.15408E-3	134.651E-12	549.519E-3	3.99145E-3	137.412E-12	574.366E-3	-58.5268E-3
3.14907E-3	134.235E-12	531.986E-3	9.27621E-3	136.073E-12	584.680E-3	-45.3384E-3
3.14407E-3	136.120E-12	535.095E-3	9.00138E-3	134.963E-12	578.426E-3	-32.8236E-3
3.13907E-3	135.181E-12	551.426E-3	9.04112E-3	134.368E-12	559.377E-3	-43.9601E-3
3.13407E-3	133.599E-12	583.044E-3	-7.63109E-3	134.540E-12	552.245E-3	-39.7352E-3
3.12906E-3	132.983E-12	614.281E-3	-9.45691E-3	133.695E-12	555.902E-3	-14.4107E-3
3.12406E-3	134.532E-12	621.252E-3	9.73283E-3	132.834E-12	549.161E-3	8.37469E-3
3.11906E-3	134.856E-12	596.224E-3	-2.27774E-3	132.168E-12	524.938E-3	19.9070E-3
3.11406E-3	133.038E-12	575.053E-3	-37.2099E-3	133.669E-12	514.737E-3	5.28874E-3
3.10905E-3	131.912E-12	581.159E-3	-50.8813E-3	134.008E-12	536.578E-3	-20.2352E-3
3.10405E-3	132.767E-12	587.282E-3	-31.6984E-3	132.652E-12	561.255E-3	-30.9798E-3
3.09905E-3	133.910E-12	586.585E-3	-17.4341E-3	132.224E-12	555.391E-3	-14.5279E-3
3.09405E-3	132.295E-12	593.738E-3	-20.9560E-3	131.659E-12	540.822E-3	-4.15697E-3
3.08904E-3	130.358E-12	593.901E-3	-18.9253E-3	131.890E-12	556.187E-3	-14.6600E-3
3.08404E-3	130.006E-12	583.104E-3	-14.4709E-3	131.816E-12	575.206E-3	-8.30653E-3
3.07904E-3	131.277E-12	568.293E-3	-16.4182E-3	131.608E-12	578.239E-3	-1.43730E-3
3.07404E-3	131.094E-12	548.253E-3	-2.79788E-3	131.140E-12	574.511E-3	3.96353E-3
3.06903E-3	129.832E-12	544.205E-3	-5.97546E-3	130.692E-12	557.854E-3	20.9705E-3
3.06403E-3	129.273E-12	551.160E-3	-19.0181E-3	129.796E-12	537.318E-3	16.6536E-3
3.05903E-3	130.365E-12	539.196E-3	1.23931E-3	129.435E-12	537.730E-3	-9.27554E-3
3.05403E-3	130.807E-12	530.069E-3	10.5572E-3	129.976E-12	537.092E-3	-40.2230E-3
3.04902E-3	130.159E-12	556.505E-3	-13.5517E-3	129.092E-12	533.622E-3	-42.3749E-3
3.04402E-3	128.634E-12	583.004E-3	-44.8122E-3	128.594E-12	557.332E-3	-4.09243E-3
3.03902E-3	127.818E-12	584.988E-3	-54.4074E-3	129.052E-12	579.391E-3	-831.404E-6
3.03402E-3	128.901E-12	580.840E-3	-47.2418E-3	129.361E-12	574.874E-3	-22.6288E-3
3.02901E-3	129.626E-12	572.422E-3	-22.1990E-3	129.528E-12	566.563E-3	-8.77402E-3
3.02401E-3	128.675E-12	558.471E-3	13.9783E-3	129.673E-12	564.521E-3	-7.73823E-3
3.01901E-3	127.736E-12	564.489E-3	16.6249E-3	128.405E-12	556.773E-3	-28.2724E-3
3.01401E-3	127.334E-12	580.458E-3	-2.40260E-3	127.570E-12	543.615E-3	-25.3795E-3
3.00900E-3	128.044E-12	560.009E-3	-14.2582E-3	128.082E-12	542.709E-3	-24.9666E-3
3.00400E-3	127.601E-12	534.629E-3	-17.5415E-3	128.269E-12	550.026E-3	-31.4679E-3
2.99900E-3	126.060E-12	548.531E-3	-22.2913E-3	127.251E-12	556.446E-3	-26.9542E-3
2.99400E-3	126.362E-12	566.346E-3	-34.1098E-3	125.664E-12	562.281E-3	-23.1751E-3
2.98899E-3	126.432E-12	571.220E-3	-26.6162E-3	125.394E-12	551.043E-3	-28.0473E-3
2.98399E-3	126.904E-12	573.256E-3	-5.70731E-3	125.902E-12	536.222E-3	-38.8931E-3
2.97899E-3	125.947E-12	554.874E-3	-4.37251E-3	126.486E-12	549.656E-3	-34.6123E-3
2.97399E-3	125.277E-12	543.355E-3	-27.0515E-3	125.919E-12	570.929E-3	-22.0715E-3
2.96898E-3	124.985E-12	550.866E-3	-38.6768E-3	124.334E-12	567.718E-3	-17.0027E-3
2.96398E-3	126.200E-12	543.850E-3	-30.7928E-3	125.640E-12	556.734E-3	-18.1677E-3
2.95898E-3	126.242E-12	545.518E-3	-34.1638E-3	127.078E-12	562.956E-3	-30.7605E-3
2.95398E-3	125.664E-12	557.689E-3	-28.7811E-3	127.981E-12	577.343E-3	-12.1577E-3
2.94897E-3	125.644E-12	562.580E-3	-19.9375E-3	126.584E-12	588.632E-3	21.0990E-3
2.94397E-3	126.316E-12	566.354E-3	-27.7968E-3	127.979E-12	585.375E-3	578.657E-6
2.93897E-3	127.521E-12	557.051E-3	-27.4253E-3	129.497E-12	561.526E-3	-20.7970E-3
2.93397E-3	126.299E-12	555.222E-3	-22.9094E-3	128.837E-12	545.418E-3	-12.3097E-3
2.92896E-3	125.513E-12	586.094E-3	-32.3381E-3	127.465E-12	545.237E-3	-19.5543E-3
2.92396E-3	126.424E-12	586.998E-3	-41.8036E-3	127.538E-12	543.540E-3	-24.2282E-3
2.91896E-3	126.378E-12	552.854E-3	-47.1616E-3	128.506E-12	552.354E-3	-13.5536E-3
2.91396E-3	126.183E-12	544.806E-3	-53.5162E-3	127.137E-12	564.425E-3	-11.9397E-3
2.90895E-3	125.165E-12	551.222E-3	-46.3563E-3	125.360E-12	570.792E-3	-15.2415E-3
2.90395E-3	125.315E-12	557.983E-3	-29.8168E-3	123.090E-12	586.424E-3	-21.7880E-3
2.89895E-3	124.940E-12	571.697E-3	-25.0137E-3	123.952E-12	589.085E-3	-27.1163E-3
2.89395E-3	124.471E-12	582.509E-3	-23.7722E-3	123.808E-12	574.913E-3	-19.8579E-3
2.88894E-3	123.260E-12	569.982E-3	4.25028E-3	122.309E-12	566.211E-3	-17.2291E-3
2.88394E-3	122.510E-12	549.057E-3	18.6527E-3	122.306E-12	569.790E-3	-32.3911E-3
2.87894E-3	122.902E-12	551.501E-3	9.97184E-3	123.637E-12	579.006E-3	-49.5139E-3
2.87394E-3	122.740E-12	552.957E-3	9.43444E-3	125.340E-12	586.549E-3	-42.2707E-3
2.86893E-3	121.976E-12	546.245E-3	-747.759E-6	124.113E-12	597.774E-3	-19.0908E-3
2.86393E-3	122.056E-12	554.360E-3	-17.9891E-3	124.610E-12	588.143E-3	-234.933E-6
2.85893E-3	122.995E-12	563.696E-3	-27.2779E-3	125.297E-12	563.273E-3	8.56700E-3
2.85393E-3	122.644E-12	583.070E-3	-21.6181E-3	126.827E-12	560.804E-3	-5.24382E-3
2.84892E-3	122.132E-12	608.656E-3	-21.1450E-3	126.817E-12	572.911E-3	-33.1246E-3
2.84392E-3	123.350E-12	592.997E-3	-27.2673E-3	126.616E-12	584.423E-3	-48.1252E-3
2.83892E-3	124.361E-12	570.577E-3	-22.3099E-3	127.017E-12	591.494E-3	-43.3375E-3
2.83392E-3	124.087E-12	577.683E-3	-9.05663E-3	126.954E-12	575.029E-3	-46.1766E-3
2.82891E-3	123.426E-12	572.931E-3	7.81641E-3	125.963E-12	564.473E-3	-51.3537E-3
2.82391E-3	122.786E-12	551.897E-3	11.9935E-3	123.928E-12	590.756E-3	-30.7934E-3
2.81891E-3	123.434E-12	554.373E-3	8.90171E-3	123.478E-12	601.650E-3	-14.5456E-3
2.81391E-3	123.328E-12	575.767E-3	5.56537E-3	122.304E-12	585.402E-3	-7.72827E-3
2.80890E-3	121.804E-12	593.013E-3	-6.52233E-3	120.573E-12	585.932E-3	12.1453E-3
2.80390E-3	121.886E-12	606.142E-3	-18.9374E-3	119.631E-12	581.609E-3	24.3940E-3
2.79890E-3	121.272E-12	590.347E-3	-10.6213E-3	119.153E-12	553.302E-3	24.2541E-3
2.79390E-3	120.292E-12	546.901E-3	14.1753E-3	119.352E-12	555.264E-3	18.4882E-3
2.78889E-3	119.331E-12	534.197E-3	11.7647E-3	119.405E-12	569.680E-3	-3.05514E-3
2.78389E-3	119.663E-12	550.128E-3	-19.2225E-3	119.251E-12	552.557E-3	-6.82792E-3
2.77889E-3	119.089E-12	561.519E-3	-26.8237E-3	118.872E-12	550.274E-3	3.69492E-3
2.77389E-3	119.273E-12	561.668E-3	-16.5984E-3	119.882E-12	573.136E-3	-19.5229E-3
2.76888E-3	119.423E-12	542.409E-3	-12.4381E-3	120.486E-12	572.860E-3	-40.2337E-3
2.76388E-3	117.987E-12	538.902E-3	-5.27155E-3	120.159E-12	566.100E-3	-20.3198E-3
2.75888E-3	117.545E-12	564.237E-3	-911.534E-6	120.278E-12	570.954E-3	-25.5013E-3
2.75388E-3	118.645E-12	576.129E-3	-1.02933E-3	120.197E-12	564.448E-3	-60.3222E-3
2.74887E-3	118.981E-12	579.398E-3	-13.3426E-3	121.023E-12	566.475E-3	-45.7291E-3
2.74387E-3	117.788E-12	587.526E-3	-25.4322E-3	120.481E-12	578.572E-3	-14.6495E-3
2.73887E-3	117.260E-12	574.741E-3	-26.2485E-3	119.583E-12	554.410E-3	-19.5440E-3
2.73387E-3	117.490E-12	542.333E-3	-28.6109E-3	117.748E-12	516.071E-3	-31.9988E-3
2.72886E-3	118.090E-12	528.186E-3	-8.89354E-3	117.396E-12	524.081E-3	-27.2659E-3
2.72386E-3	118.050E-12	541.148E-3	20.3173E-3	117.076E-12	543.141E-3	-1.44085E-3
2.71886E-3	116.266E-12	556.894E-3	9.05309E-3	115.791E-12	534.066E-3	23.6279E-3
2.71386E-3	116.054E-12	560.470E-3	-12.2341E-3	114.330E-12	535.448E-3	10.2209E-3
2.70885E-3	116.412E-12	555.796E-3	-1.72861E-3	113.856E-12	541.746E-3	-20.6721E-3
2.70385E-3	116.471E-12	556.220E-3	15.4814E-3	114.730E-12	545.249E-3	-30.7921E-3
2.69885E-3	115.213E-12	559.882E-3	11.3814E-3	115.191E-12	587.989E-3	-27.8581E-3
2.69385E-3	115.418E-12	555.286E-3	-13.2323E-3	114.707E-12	628.668E-3	-37.1445E-3
2.68884E-3	115.216E-12	543.184E-3	-27.0028E-3	115.073E-12	609.312E-3	-57.8892E-3
2.68384E-3	115.239E-12	531.771E-3	-24.4393E-3	115.839E-12	569.997E-3	-61.4766E-3
2.67884E-3	115.863E-12	540.456E-3	-20.3458E-3	115.869E-12	559.905E-3	-43.3773E-3
2.67384E-3	115.551E-12	559.187E-3	-7.28281E-3	116.323E-12	565.393E-3	-20.6081E-3
2.66883E-3	116.097E-12	564.085E-3	10.2351E-3	116.374E-12	580.948E-3	-7.14416E-3
2.66383E-3	115.786E-12	561.612E-3	8.75976E-3	117.266E-12	603.457E-3	-9.84733E-3
2.65883E-3	116.672E-12	550.873E-3	-3.11956E-3	116.740E-12	606.416E-3	-28.2407E-3
2.65383E-3	115.854E-12	544.927E-3	-10.8414E-3	116.592E-12	590.275E-3	-42.6173E-3
2.64882E-3	115.898E-12	560.647E-3	-33.9907E-3	116.687E-12	572.149E-3	-47.5088E-3
2.64382E-3	114.973E-12	563.905E-3	-44.3645E-3	115.886E-12	573.130E-3	-48.9693E-3
2.63882E-3	114.923E-12	554.102E-3	-28.8681E-3	115.002E-12	579.270E-3	-25.1853E-3
2.63382E-3	114.578E-12	579.249E-3	-20.3737E-3	115.121E-12	569.058E-3	-4.21211E-3
2.62881E-3	114.443E-12	603.755E-3	-17.9757E-3	114.825E-12	557.453E-3	-13.8899E-3
2.62381E-3	113.929E-12	579.622E-3	-22.9091E-3	113.993E-12	558.303E-3	-25.2316E-3
2.61881E-3	113.147E-12	540.075E-3	-35.6919E-3	112.931E-12	580.722E-3	-34.1362E-3
2.61381E-3	112.755E-12	533.216E-3	-36.0221E-3	112.956E-12	593.903E-3	-49.2792E-3
2.60880E-3	112.745E-12	542.382E-3	-15.0793E-3	114.014E-12	585.099E-3	-38.7513E-3
2.60380E-3	112.927E-12	535.259E-3	952.785E-6	113.249E-12	580.373E-3	-14.9500E-3
2.59880E-3	112.505E-12	532.428E-3	-6.43252E-3	112.923E-12	569.923E-3	-1.16307E-3
2.59380E-3	112.000E-12	550.713E-3	-10.2940E-3	112.632E-12	558.391E-3	8.55934E-3
2.58879E-3	111.735E-12	578.546E-3	-14.4772E-3	113.533E-12	556.608E-3	-5.95503E-3
2.58379E-3	112.570E-12	585.075E-3	-30.4624E-3	112.964E-12	545.678E-3	-23.6241E-3
2.57879E-3	112.659E-12	576.605E-3	-18.1318E-3	112.900E-12	531.792E-3	-19.3418E-3
2.57379E-3	111.994E-12	581.290E-3	-1.53534E-3	112.348E-12	530.811E-3	-24.1461E-3
2.56878E-3	111.664E-12	591.009E-3	-10.2386E-3	112.456E-12	537.585E-3	-31.4405E-3
2.56378E-3	111.655E-12	596.672E-3	-11.8214E-3	112.122E-12	548.162E-3	-22.2770E-3
2.55878E-3	112.661E-12	593.120E-3	-7.30495E-3	112.067E-12	560.772E-3	-28.1497E-3
2.55378E-3	112.185E-12	579.770E-3	-1.61866E-3	112.062E-12	561.922E-3	-50.6138E-3
2.54877E-3	111.933E-12	568.726E-3	6.05749E-3	112.059E-12	558.521E-3	-48.2902E-3
2.54377E-3	110.903E-12	557.964E-3	-2.09763E-3	112.489E-12	566.995E-3	-27.6638E-3
2.53877E-3	110.978E-12	566.974E-3	-23.8559E-3	112.186E-12	563.075E-3	-21.9927E-3
2.53377E-3	111.553E-12	587.500E-3	-18.0403E-3	111.718E-12	546.239E-3	-22.4414E-3
2.52876E-3	110.563E-12	581.226E-3	7.25597E-3	111.610E-12	545.666E-3	-29.7478E-3
2.52376E-3	109.465E-12	579.115E-3	-1.56556E-3	112.270E-12	554.703E-3	-37.3583E-3
2.51876E-3	109.797E-12	585.182E-3	-8.61225E-3	112.035E-12	554.296E-3	-26.5048E-3
2.51376E-3	110.649E-12	565.820E-3	-145.281E-6	110.722E-12	556.933E-3	-14.3871E-3
2.50875E-3	109.734E-12	550.915E-3	-13.5455E-3	110.386E-12	563.301E-3	-20.4665E-3
2.50375E-3	108.841E-12	568.830E-3	-11.0793E-3	110.012E-12	545.017E-3	-26.3295E-3
2.49875E-3	108.480E-12	595.600E-3	7.59302E-3	109.823E-12	535.014E-3	-26.1038E-3
2.49375E-3	109.248E-12	605.976E-3	-2.07720E-3	108.879E-12	551.892E-3	-32.6910E-3
2.48874E-3	109.227E-12	592.315E-3	-14.6117E-3	107.559E-12	533.250E-3	-21.9103E-3
2.48374E-3	108.147E-12	575.753E-3	-14.1341E-3	106.193E-12	512.752E-3	-2.94431E-3
2.47874E-3	107.856E-12	584.525E-3	-23.5645E-3	106.099E-12	542.917E-3	-22.6242E-3
2.47374E-3	108.138E-12	584.995E-3	-30.1955E-3	106.761E-12	572.464E-3	-36.8782E-3
2.46873E-3	107.470E-12	565.580E-3	-21.4682E-3	105.589E-12	579.636E-3	-11.4856E-3
2.46373E-3	106.381E-12	560.627E-3	-15.0775E-3	104.853E-12	584.973E-3	-9.74847E-3
2.45873E-3	105.349E-12	566.790E-3	-15.4218E-3	105.240E-12	573.699E-3	-16.9203E-3
2.45373E-3	104.935E-12	557.502E-3	-10.4304E-3	106.626E-12	546.914E-3	-3.29403E-3
2.44872E-3	105.587E-12	547.940E-3	-486.930E-6	105.782E-12	546.640E-3	-7.01767E-3
2.44372E-3	105.481E-12	566.459E-3	-6.88703E-3	105.448E-12	566.079E-3	-13.4312E-3
2.43872E-3	104.981E-12	586.057E-3	-29.8415E-3	106.870E-12	574.457E-3	-1.47909E-3
2.43372E-3	104.453E-12	589.403E-3	-35.9560E-3	108.613E-12	576.723E-3	-2.36181E-3
2.42871E-3	105.332E-12	583.731E-3	-16.8368E-3	109.598E-12	560.115E-3	-8.42455E-3
2.42371E-3	106.253E-12	568.157E-3	8.14672E-3	108.644E-12	541.177E-3	1.60955E-3
2.41871E-3	105.507E-12	552.358E-3	13.7698E-3	108.483E-12	556.226E-3	4.74009E-3
2.41371E-3	104.809E-12	561.855E-3	-5.80848E-3	108.701E-12	567.088E-3	-8.41347E-3
2.40870E-3	104.799E-12	561.429E-3	-22.3556E-3	108.833E-12	554.386E-3	-24.8483E-3
2.40370E-3	105.398E-12	539.943E-3	-18.9381E-3	107.815E-12	558.713E-3	-34.3030E-3
2.39870E-3	106.912E-12	544.101E-3	-3.37276E-3	106.598E-12	571.995E-3	-46.1923E-3
2.39370E-3	106.022E-12	556.880E-3	-4.03773E-3	105.206E-12	562.847E-3	-45.2109E-3
2.38869E-3	104.918E-12	558.177E-3	-34.2058E-3	103.878E-12	551.940E-3	-22.2094E-3
2.38369E-3	104.701E-12	549.931E-3	-39.9124E-3	103.906E-12	558.475E-3	-11.7222E-3
2.37869E-3	105.135E-12	543.795E-3	-14.6978E-3	103.279E-12	555.923E-3	-12.8622E-3
2.37369E-3	104.295E-12	563.495E-3	-3.87802E-3	102.908E-12	547.413E-3	-23.7580E-3
2.36868E-3	102.911E-12	584.357E-3	2.65194E-3	102.000E-12	568.177E-3	-45.9745E-3
2.36368E-3	102.814E-12	570.384E-3	9.14472E-3	102.524E-12	576.135E-3	-34.5063E-3
2.35868E-3	102.409E-12	548.060E-3	-5.60571E-3	102.476E-12	560.366E-3	-1.91499E-3
2.35368E-3	102.612E-12	544.023E-3	-20.0167E-3	103.310E-12	572.701E-3	-9.03493E-3
2.34867E-3	102.123E-12	560.302E-3	-10.5307E-3	103.792E-12	581.742E-3	-35.9285E-3
2.34367E-3	102.000E-12	586.214E-3	-13.3192E-3	103.725E-12	579.123E-3	-22.6083E-3
2.33867E-3	102.180E-12	597.282E-3	-38.2258E-3	105.080E-12	578.681E-3	2.16910E-3
2.33367E-3	103.586E-12	593.184E-3	-43.7704E-3	105.582E-12	561.093E-3	-397.836E-6
2.32866E-3	102.723E-12	589.015E-3	-26.0331E-3	105.654E-12	560.784E-3	-8.31757E-3
2.32366E-3	102.181E-12	583.950E-3	-10.7293E-3	105.281E-12	578.435E-3	-20.5042E-3
2.31866E-3	103.889E-12	578.764E-3	-8.44728E-3	105.370E-12	583.364E-3	-25.3133E-3
2.31366E-3	104.160E-12	573.826E-3	-2.25507E-3	104.740E-12	591.870E-3	-18.7688E-3
2.30865E-3	103.700E-12	565.549E-3	12.1943E-3	103.862E-12	589.988E-3	-28.7134E-3
2.30365E-3	103.509E-12	560.760E-3	12.2521E-3	103.177E-12	552.836E-3	-36.4635E-3
2.29865E-3	103.095E-12	570.346E-3	10.2058E-3	102.324E-12	532.012E-3	-21.1240E-3
2.29365E-3	103.410E-12	590.172E-3	4.85431E-3	101.629E-12	556.099E-3	-5.85400E-3
2.28864E-3	102.504E-12	588.485E-3	-11.4556E-3	100.624E-12	583.071E-3	699.594E-6
2.28364E-3	101.774E-12	562.841E-3	-18.9232E-3	99.7229E-12	591.652E-3	-738.725E-6
2.27864E-3	100.251E-12	553.237E-3	-9.95136E-3	99.4297E-12	591.456E-3	-18.2674E-3
2.27364E-3	100.523E-12	566.028E-3	-10.8791E-3	99.4406E-12	577.180E-3	-33.5906E-3
2.26863E-3	99.9269E-12	576.568E-3	-33.6667E-3	99.2737E-12	563.111E-3	-17.9686E-3
2.26363E-3	100.026E-12	573.027E-3	-40.3578E-3	99.1681E-12	566.545E-3	4.36414E-3
2.25863E-3	99.6859E-12	561.313E-3	-20.7780E-3	99.3433E-12	558.699E-3	8.68463E-3
2.25363E-3	99.9747E-12	561.289E-3	-1.17742E-3	99.5245E-12	550.440E-3	18.6878E-3
2.24862E-3	99.9210E-12	573.477E-3	4.58495E-3	100.278E-12	564.116E-3	15.6310E-3
2.24362E-3	99.6668E-12	579.187E-3	2.32892E-3	100.415E-12	579.510E-3	-10.2891E-3
2.23862E-3	99.6810E-12	573.558E-3	-8.86557E-3	100.383E-12	579.864E-3	-9.47668E-3
2.23362E-3	99.0361E-12	568.838E-3	-28.9457E-3	100.176E-12	578.465E-3	-897.775E-6
2.22861E-3	100.434E-12	578.693E-3	-35.4207E-3	101.022E-12	581.121E-3	-13.7159E-3
2.22361E-3	100.012E-12	583.519E-3	-21.3365E-3	100.703E-12	576.203E-3	-14.0921E-3
2.21861E-3	99.3877E-12	576.114E-3	-16.0439E-3	99.9208E-12	584.771E-3	286.997E-6
2.21361E-3	99.2666E-12	575.101E-3	-25.4669E-3	99.0376E-12	592.884E-3	8.88370E-3
2.20860E-3	99.4367E-12	569.069E-3	-16.6844E-3	98.7489E-12	576.079E-3	9.18821E-3
2.20360E-3	98.7928E-12	569.260E-3	1.74475E-3	98.5882E-12	566.843E-3	-502.293E-6
2.19860E-3	97.6875E-12	581.312E-3	-10.3117E-3	97.9583E-12	559.127E-3	-23.4185E-3
2.19360E-3	97.4858E-12	574.060E-3	-25.0672E-3	96.9320E-12	544.377E-3	-33.5008E-3
2.18859E-3	96.6414E-12	555.478E-3	-23.0586E-3	96.7242E-12	560.072E-3	-16.0013E-3
2.18359E-3	97.0035E-12	539.090E-3	-35.2236E-3	96.0348E-12	593.756E-3	-10.8483E-3
2.17859E-3	95.9113E-12	525.865E-3	-46.4304E-3	96.4860E-12	586.655E-3	-15.8824E-3
2.17359E-3	94.7520E-12	540.907E-3	-43.1601E-3	96.0488E-12	563.205E-3	-3.28427E-3
2.16858E-3	94.3041E-12	577.620E-3	-37.3900E-3	95.5646E-12	564.052E-3	642.465E-6
2.16358E-3	94.9143E-12	594.220E-3	-41.8452E-3	95.2368E-12	570.147E-3	-5.85389E-3
2.15858E-3	95.0096E-12	571.468E-3	-40.8638E-3	95.3700E-12	585.094E-3	2.58082E-3
2.15358E-3	94.4127E-12	540.738E-3	-14.6106E-3	95.3401E-12	585.081E-3	-3.89147E-3
2.14857E-3	94.1575E-12	540.940E-3	7.32689E-3	95.4547E-12	558.723E-3	-26.4352E-3
2.14357E-3	94.8414E-12	549.650E-3	16.5717E-3	95.4770E-12	556.643E-3	-29.2878E-3
2.13857E-3	95.2778E-12	545.873E-3	15.5300E-3	95.4276E-12	577.456E-3	-21.7632E-3
2.13357E-3	94.6867E-12	543.367E-3	4.97547E-3	94.9741E-12	576.007E-3	-16.7755E-3
2.12856E-3	94.4591E-12	531.338E-3	13.6894E-3	94.8599E-12	572.885E-3	-10.9760E-3
2.12356E-3	94.6062E-12	522.213E-3	21.6994E-3	94.8338E-12	589.701E-3	-13.5611E-3
2.11856E-3	94.6601E-12	544.744E-3	-556.946E-6	94.6923E-12	587.664E-3	-27.1267E-3
2.11356E-3	94.0700E-12	559.683E-3	-13.6493E-3	94.9213E-12	569.564E-3	-21.9826E-3
2.10855E-3	94.0641E-12	552.132E-3	-4.62588E-3	95.3439E-12	564.746E-3	-13.3142E-3
2.10355E-3	94.5511E-12	571.368E-3	-4.10033E-3	94.7957E-12	557.960E-3	-19.1012E-3
2.09855E-3	94.5041E-12	605.643E-3	-6.58053E-3	94.3347E-12	557.899E-3	-14.7553E-3
2.09355E-3	93.6117E-12	604.535E-3	-7.25968E-3	94.7932E-12	593.573E-3	-18.3810E-3
2.08854E-3	93.3242E-12	585.186E-3	-15.4758E-3	95.4770E-12	621.097E-3	-23.4742E-3
2.08354E-3	93.5346E-12	577.424E-3	-22.6599E-3	94.7701E-12	601.855E-3	-10.1823E-3
2.07854E-3	94.2738E-12	570.802E-3	-24.4249E-3	93.7354E-12	566.888E-3	-16.5859E-3
2.07354E-3	93.6799E-12	569.819E-3	-33.5018E-3	93.3895E-12	552.224E-3	-39.7224E-3
2.06853E-3	93.2815E-12	579.913E-3	-37.5552E-3	93.9933E-12	559.513E-3	-41.5960E-3
2.06353E-3	92.8893E-12	590.585E-3	-31.6630E-3	93.5862E-12	575.755E-3	-25.7242E-3
2.05853E-3	93.2819E-12	600.563E-3	-37.0244E-3	92.4209E-12	581.402E-3	-5.75277E-3
2.05353E-3	93.5865E-12	597.779E-3	-31.3593E-3	91.9578E-12	564.379E-3	13.1289E-3
2.04852E-3	92.9069E-12	587.095E-3	-16.8837E-3	91.3371E-12	550.568E-3	13.5757E-3
2.04352E-3	92.4692E-12	588.571E-3	-23.8353E-3	92.4254E-12	546.330E-3	-13.2581E-3
2.03852E-3	92.2793E-12	588.428E-3	-35.2860E-3	91.4393E-12	542.853E-3	-27.8283E-3
2.03352E-3	92.1977E-12	572.182E-3	-42.3152E-3	90.8628E-12	561.376E-3	-10.0398E-3
2.02851E-3	91.7707E-12	549.304E-3	-42.8412E-3	90.8952E-12	576.898E-3	-2.78034E-3
2.02351E-3	91.0642E-12	543.423E-3	-24.6637E-3	92.0061E-12	555.719E-3	-14.3118E-3
2.01851E-3	90.0882E-12	551.053E-3	-11.1606E-3	91.4860E-12	534.718E-3	-16.8954E-3
2.01351E-3	90.2263E-12	550.105E-3	-15.9239E-3	92.0140E-12	546.879E-3	-15.3343E-3
2.00850E-3	89.8787E-12	551.281E-3	-10.7100E-3	92.4181E-12	574.124E-3	-8.64116E-3
2.00350E-3	90.1738E-12	542.819E-3	5.75635E-3	92.4997E-12	591.420E-3	-5.04591E-3
1.99850E-3	89.4211E-12	531.815E-3	-5.33346E-3	93.4519E-12	587.806E-3	-20.1284E-3
1.99350E-3	89.6323E-12	550.852E-3	-27.5222E-3	93.1420E-12	569.826E-3	-29.2485E-3
1.98849E-3	89.5434E-12	558.860E-3	-29.9378E-3	92.5298E-12	562.550E-3	-10.6860E-3
1.98349E-3	90.5919E-12	541.308E-3	-35.1746E-3	91.7411E-12	581.875E-3	-11.9674E-3
1.97849E-3	90.1755E-12	535.418E-3	-42.6201E-3	91.3357E-12	600.559E-3	-43.5838E-3
1.97349E-3	89.0738E-12	545.981E-3	-24.3156E-3	91.1729E-12	592.726E-3	-46.4400E-3
1.96848E-3	89.3092E-12	564.811E-3	-7.76506E-3	90.4671E-12	573.764E-3	-41.1180E-3
1.96348E-3	89.6537E-12	579.972E-3	-13.5306E-3	88.9133E-12	553.336E-3	-51.8306E-3
1.95848E-3	89.5388E-12	574.807E-3	-14.5603E-3	87.7251E-12	543.805E-3	-43.0509E-3
1.95348E-3	87.4220E-12	554.237E-3	-15.7434E-3	88.3166E-12	551.741E-3	-13.6122E-3
1.94847E-3	86.9043E-12	549.123E-3	-23.0595E-3	87.3404E-12	546.304E-3	-2.87998E-3
1.94347E-3	87.5326E-12	557.623E-3	-24.3645E-3	85.7506E-12	541.420E-3	-13.9786E-3
1.93847E-3	87.1962E-12	565.857E-3	-27.1643E-3	85.2419E-12	563.505E-3	-5.61658E-3
1.93347E-3	86.2869E-12	570.279E-3	-31.4602E-3	86.6453E-12	569.485E-3	9.54879E-3
1.92846E-3	85.5441E-12	552.319E-3	-11.9212E-3	87.0692E-12	547.556E-3	1.36812E-3
1.92346E-3	86.1675E-12	527.653E-3	16.4833E-3	86.2910E-12	549.593E-3	-19.9737E-3
1.91846E-3	85.9798E-12	532.585E-3	18.4148E-3	86.3179E-12	567.189E-3	-42.8156E-3
1.91346E-3	85.8597E-12	546.878E-3	11.8009E-3	87.1704E-12	562.140E-3	-41.6882E-3
1.90845E-3	85.2502E-12	527.733E-3	6.83548E-3	88.7110E-12	554.166E-3	-28.5002E-3
1.90345E-3	85.4174E-12	517.823E-3	-11.1565E-3	88.4194E-12	550.383E-3	-23.4424E-3
1.89845E-3	86.6991E-12	543.514E-3	-14.1922E-3	87.2460E-12	538.714E-3	-16.7552E-3
1.89345E-3	86.3312E-12	557.629E-3	-1.91246E-3	87.4375E-12	539.303E-3	-13.2973E-3
1.88844E-3	86.1502E-12	559.637E-3	-10.7373E-3	87.5017E-12	554.844E-3	-13.8499E-3
1.88344E-3	86.0262E-12	566.171E-3	-21.5467E-3	87.1021E-12	567.722E-3	-13.4000E-3
1.87844E-3	86.1912E-12	559.337E-3	-13.5510E-3	85.9979E-12	585.384E-3	-10.4415E-3
1.87344E-3	85.5317E-12	550.932E-3	-15.2369E-3	85.3193E-12	587.422E-3	-12.1922E-3
1.86843E-3	85.2257E-12	570.408E-3	-24.6269E-3	84.6600E-12	555.610E-3	-15.6865E-3
1.86343E-3	84.3828E-12	583.491E-3	-27.7929E-3	84.9921E-12	529.752E-3	-12.7715E-3
1.85843E-3	83.7167E-12	571.102E-3	-46.1972E-3	83.9570E-12	523.674E-3	-12.9280E-3
1.85343E-3	82.7619E-12	564.299E-3	-56.7914E-3	82.6865E-12	509.433E-3	-17.1706E-3
1.84842E-3	82.7066E-12	549.004E-3	-36.0431E-3	82.7248E-12	514.266E-3	-17.4444E-3
1.84342E-3	82.3679E-12	528.432E-3	-21.4191E-3	83.1958E-12	546.675E-3	-15.8554E-3
1.83842E-3	81.2739E-12	538.070E-3	-29.4451E-3	83.6450E-12	546.290E-3	-7.71842E-3
1.83342E-3	81.3790E-12	534.531E-3	-33.7743E-3	82.6388E-12	532.673E-3	-3.01065E-3
1.82841E-3	81.4416E-12	504.596E-3	-31.5205E-3	83.4252E-12	543.113E-3	-19.4835E-3
1.82341E-3	82.3106E-12	505.294E-3	-28.2991E-3	84.0966E-12	550.713E-3	-32.8722E-3
1.81841E-3	81.4820E-12	529.377E-3	-18.2371E-3	84.7863E-12	553.646E-3	-17.3186E-3
1.81341E-3	81.7388E-12	545.826E-3	-31.6793E-3	84.5209E-12	570.242E-3	1.13986E-3
1.80840E-3	82.3706E-12	554.522E-3	-56.4910E-3	84.6572E-12	582.361E-3	-5.46075E-3
1.80340E-3	82.7598E-12	538.132E-3	-42.3994E-3	84.4261E-12	568.433E-3	-18.7317E-3
1.79840E-3	82.8154E-12	517.492E-3	-13.2345E-3	84.7539E-12	547.290E-3	-21.4609E-3
1.79340E-3	83.6363E-12	541.333E-3	751.849E-6	84.6152E-12	555.082E-3	-17.7060E-3
1.78839E-3	83.7751E-12	572.253E-3	16.6028E-3	83.0361E-12	573.159E-3	-14.6264E-3
1.78339E-3	83.3657E-12	568.841E-3	26.7385E-3	82.4595E-12	562.463E-3	-23.9358E-3
1.77839E-3	83.9720E-12	565.605E-3	12.6615E-3	82.1097E-12	553.957E-3	-34.8196E-3
1.77339E-3	83.3373E-12	573.098E-3	-3.69198E-3	82.4891E-12	565.884E-3	-23.8686E-3
1.76838E-3	82.4060E-12	564.535E-3	-9.82123E-3	81.5865E-12	566.724E-3	-15.2807E-3
1.76338E-3	82.0392E-12	560.816E-3	-10.9794E-3	80.3588E-12	546.444E-3	-25.7296E-3
1.75838E-3	81.5846E-12	568.555E-3	-8.98365E-3	80.4013E-12	530.733E-3	-17.4246E-3
1.75338E-3	81.6623E-12	560.573E-3	-10.3558E-3	80.5579E-12	551.274E-3	1.66525E-3
1.74837E-3	81.2972E-12	551.595E-3	-19.7264E-3	81.1076E-12	573.725E-3	-10.2397E-3
1.74337E-3	80.7428E-12	565.083E-3	-19.8158E-3	79.9667E-12	557.984E-3	-27.6096E-3
1.73837E-3	80.1568E-12	580.352E-3	814.070E-6	79.9939E-12	539.647E-3	-24.0703E-3
1.73337E-3	80.2212E-12	582.146E-3	-223.206E-6	79.7117E-12	546.810E-3	-17.2940E-3
1.72836E-3	79.9865E-12	589.896E-3	-18.6953E-3	80.6952E-12	571.987E-3	-14.3362E-3
1.72336E-3	79.7287E-12	570.759E-3	-17.0346E-3	80.4203E-12	586.747E-3	-12.8947E-3
1.71836E-3	79.4271E-12	534.754E-3	-21.8361E-3	79.7967E-12	569.687E-3	-14.8024E-3
1.71336E-3	79.7344E-12	541.490E-3	-34.0113E-3	80.3457E-12	561.027E-3	-23.1565E-3
1.70835E-3	79.5382E-12	560.344E-3	-25.8925E-3	80.0410E-12	571.569E-3	-13.3827E-3
1.70335E-3	79.5221E-12	555.630E-3	-33.1055E-3	80.0653E-12	564.554E-3	-2.22202E-3
1.69835E-3	80.0486E-12	551.986E-3	-43.2077E-3	79.2423E-12	549.422E-3	-15.4485E-3
1.69335E-3	79.7569E-12	552.612E-3	-29.6061E-3	79.2040E-12	553.102E-3	-10.7801E-3
1.68834E-3	80.2943E-12	560.004E-3	-30.4978E-3	78.3442E-12	563.791E-3	6.04977E-3
1.68334E-3	80.2481E-12	579.073E-3	-36.2146E-3	77.8817E-12	560.794E-3	49.7001E-6
1.67834E-3	80.1269E-12	579.571E-3	-28.3894E-3	77.9138E-12	552.958E-3	-19.0139E-3
1.67334E-3	79.0282E-12	570.196E-3	-25.5569E-3	77.8317E-12	548.217E-3	-31.2875E-3
1.66833E-3	78.8574E-12	574.157E-3	-26.6871E-3	77.9548E-12	538.016E-3	-37.7474E-3
1.66333E-3	78.4406E-12	567.520E-3	-17.4983E-3	77.0049E-12	530.711E-3	-32.8634E-3
1.65833E-3	78.2998E-12	553.679E-3	-24.4076E-3	77.1442E-12	539.500E-3	-23.4131E-3
1.65333E-3	77.9692E-12	557.661E-3	-45.8941E-3	76.5188E-12	543.032E-3	-13.3622E-3
1.64832E-3	77.1390E-12	553.304E-3	-35.2753E-3	77.1506E-12	537.254E-3	10.4502E-3
1.64332E-3	76.7405E-12	530.110E-3	-8.74931E-3	76.0509E-12	550.891E-3	16.3312E-3
1.63832E-3	77.0129E-12	532.761E-3	-51.3743E-6	75.8580E-12	575.008E-3	6.64774E-3
1.63332E-3	76.4507E-12	562.794E-3	-5.31785E-3	75.8994E-12	568.415E-3	11.3409E-3
1.62831E-3	75.2594E-12	561.230E-3	-21.4923E-3	77.3284E-12	544.449E-3	2.15617E-3
1.62331E-3	75.0761E-12	530.680E-3	-25.0272E-3	75.8745E-12	533.370E-3	-29.9547E-3
1.61831E-3	76.2468E-12	525.172E-3	-9.93851E-3	74.7143E-12	532.533E-3	-40.6713E-3
1.61331E-3	75.5417E-12	538.000E-3	-4.24532E-3	74.7255E-12	537.403E-3	-25.2264E-3
1.60830E-3	74.5412E-12	551.456E-3	-13.6217E-3	74.6702E-12	534.408E-3	-14.5705E-3
1.60330E-3	74.2881E-12	563.100E-3	-19.0239E-3	74.9357E-12	528.927E-3	-4.46054E-3
1.59830E-3	74.3697E-12	550.567E-3	-20.6607E-3	73.9396E-12	540.437E-3	7.50624E-3
1.59330E-3	74.7519E-12	534.094E-3	-37.1596E-3	74.2300E-12	542.163E-3	16.6216E-3
1.58829E-3	74.0044E-12	545.335E-3	-50.1155E-3	74.1078E-12	529.792E-3	16.3250E-3
1.58329E-3	73.2246E-12	562.427E-3	-48.0448E-3	75.4995E-12	545.312E-3	-8.55454E-3
1.57829E-3	73.1242E-12	574.431E-3	-36.0683E-3	75.7055E-12	558.090E-3	-30.5719E-3
1.57329E-3	73.4635E-12	579.283E-3	-17.0167E-3	74.9338E-12	553.649E-3	-24.2553E-3
1.56828E-3	73.9119E-12	559.951E-3	-8.47294E-3	74.6073E-12	563.205E-3	-12.5239E-3
1.56328E-3	73.0797E-12	544.138E-3	-12.3836E-3	75.3741E-12	562.308E-3	-10.6303E-3
1.55828E-3	72.6093E-12	549.241E-3	-17.9977E-3	75.4812E-12	545.781E-3	-1.73113E-3
1.55328E-3	72.9120E-12	533.864E-3	-29.7291E-3	74.7116E-12	548.134E-3	4.40963E-3
1.54827E-3	72.8208E-12	513.338E-3	-40.1872E-3	73.6499E-12	555.345E-3	-5.01391E-3
1.54327E-3	72.3984E-12	518.471E-3	-29.0877E-3	73.3735E-12	541.095E-3	-1.64686E-3
1.53827E-3	72.6158E-12	521.453E-3	-21.2925E-3	73.7681E-12	526.724E-3	11.1986E-3
1.53327E-3	72.3541E-12	524.520E-3	-36.0713E-3	73.8649E-12	519.764E-3	5.62503E-3
1.52826E-3	71.9573E-12	540.572E-3	-48.3393E-3	72.1926E-12	519.433E-3	-9.80859E-3
1.52326E-3	72.2421E-12	536.188E-3	-40.3031E-3	71.1780E-12	524.064E-3	-11.5652E-3
1.51826E-3	72.5332E-12	508.980E-3	-38.7371E-3	71.3223E-12	537.742E-3	5.79027E-3
1.51326E-3	71.6556E-12	500.333E-3	-50.4964E-3	72.6513E-12	542.633E-3	11.9691E-3
1.50825E-3	70.8182E-12	521.318E-3	-42.6617E-3	72.3575E-12	529.683E-3	325.317E-6
1.50325E-3	71.1943E-12	532.036E-3	-31.3288E-3	71.3595E-12	521.227E-3	-3.43417E-3
1.49825E-3	72.0294E-12	517.474E-3	-28.2108E-3	71.3466E-12	500.446E-3	-8.55411E-3
1.49325E-3	71.3499E-12	508.984E-3	-20.0992E-3	73.1834E-12	490.098E-3	-11.7617E-3
1.48824E-3	70.3034E-12	507.694E-3	-23.4168E-3	73.7163E-12	512.579E-3	-12.0159E-3
1.48324E-3	70.2553E-12	502.124E-3	-25.8294E-3	73.0587E-12	527.943E-3	-20.4469E-3
1.47824E-3	71.1653E-12	493.400E-3	-11.3756E-3	72.3164E-12	529.348E-3	-14.3875E-3
1.47324E-3	72.0669E-12	489.972E-3	-9.61582E-3	73.3807E-12	521.807E-3	-9.87769E-3
1.46823E-3	71.5491E-12	498.993E-3	-17.7320E-3	74.0983E-12	502.845E-3	-16.5955E-3
1.46323E-3	70.5157E-12	510.878E-3	-11.6798E-3	73.0769E-12	494.701E-3	-10.1542E-3
1.45823E-3	71.1982E-12	515.144E-3	3.77213E-3	71.4409E-12	499.553E-3	-9.32043E-3
1.45323E-3	71.9282E-12	522.951E-3	4.00156E-3	71.0154E-12	493.352E-3	-14.1605E-3
1.44822E-3	71.6751E-12	530.124E-3	-7.30538E-3	71.1747E-12	486.190E-3	-3.83071E-3
1.44322E-3	71.0489E-12	514.808E-3	-6.34714E-3	70.4817E-12	492.710E-3	2.80872E-3
1.43822E-3	70.8704E-12	502.297E-3	-16.6969E-3	68.8444E-12	498.997E-3	-5.55291E-3
1.43322E-3	71.2491E-12	514.773E-3	-33.6527E-3	68.0740E-12	490.602E-3	-11.9967E-3
1.42821E-3	71.2299E-12	518.324E-3	-21.9423E-3	69.0533E-12	478.064E-3	-5.53971E-3
1.42321E-3	70.3262E-12	498.566E-3	-5.91727E-3	68.5596E-12	466.664E-3	-7.01249E-3
1.41821E-3	69.1082E-12	473.477E-3	-12.7783E-3	67.6584E-12	450.690E-3	-16.1752E-3
1.41321E-3	68.8072E-12	437.167E-3	-41.0248E-3	67.4809E-12	458.320E-3	-13.4117E-3
1.40820E-3	69.2004E-12	424.283E-3	-60.7581E-3	68.0426E-12	466.180E-3	-13.8783E-3
1.40320E-3	68.6725E-12	443.833E-3	-42.2729E-3	68.5787E-12	447.793E-3	-8.44660E-3
1.39820E-3	67.5705E-12	435.924E-3	-13.7120E-3	68.9282E-12	456.543E-3	270.176E-6
1.39320E-3	66.9569E-12	421.746E-3	-7.69346E-3	69.2572E-12	474.863E-3	-11.9445E-3
1.38819E-3	67.1896E-12	428.632E-3	-5.41162E-3	68.6765E-12	452.940E-3	-17.5471E-3
1.38319E-3	68.1618E-12	426.938E-3	3.55922E-3	69.2200E-12	431.764E-3	-9.95096E-3
1.37819E-3	68.2809E-12	420.287E-3	-1.83668E-3	69.9580E-12	442.314E-3	-16.4781E-3
1.37319E-3	66.9252E-12	428.082E-3	-13.4303E-3	69.8078E-12	452.374E-3	-30.0213E-3
1.36818E-3	66.9937E-12	424.416E-3	-9.69972E-3	68.4417E-12	441.164E-3	-31.8828E-3
1.36318E-3	68.1349E-12	402.454E-3	-6.01469E-3	68.3930E-12	427.177E-3	-35.4376E-3
1.35818E-3	69.0037E-12	413.668E-3	-12.5451E-3	68.3716E-12	411.204E-3	-47.3313E-3
1.35318E-3	67.6220E-12	440.529E-3	-10.1754E-3	67.8090E-12	379.455E-3	-40.6069E-3
1.34817E-3	67.1906E-12	441.223E-3	-9.56068E-3	66.6151E-12	361.556E-3	-27.3529E-3
1.34317E-3	67.8760E-12	442.781E-3	-19.9430E-3	65.6518E-12	370.973E-3	-29.4824E-3
1.33817E-3	68.4879E-12	431.672E-3	-6.60656E-3	65.9434E-12	376.717E-3	-31.7968E-3
1.33317E-3	67.8729E-12	398.324E-3	1.04347E-3	65.4430E-12	372.920E-3	-31.6177E-3
1.32816E-3	66.9655E-12	397.092E-3	-18.1477E-3	65.3053E-12	370.812E-3	-28.9671E-3
1.32316E-3	66.7811E-12	412.712E-3	-21.8392E-3	64.7665E-12	373.211E-3	-11.4460E-3
1.31816E-3	66.7258E-12	404.508E-3	-22.5838E-3	64.7928E-12	385.791E-3	-949.576E-6
1.31316E-3	66.4052E-12	394.135E-3	-21.7462E-3	65.0261E-12	391.850E-3	-16.2091E-3
1.30815E-3	65.9097E-12	391.708E-3	-11.8035E-3	66.2533E-12	372.621E-3	-17.5051E-3
1.30315E-3	65.5902E-12	381.192E-3	-16.7620E-3	65.9486E-12	346.395E-3	3.42910E-3
1.29815E-3	65.1838E-12	371.347E-3	-32.1761E-3	65.4507E-12	332.496E-3	1.76467E-3
1.29315E-3	64.9002E-12	358.932E-3	-25.2304E-3	66.4129E-12	337.439E-3	-16.1366E-3
1.28814E-3	64.9032E-12	336.044E-3	-10.4185E-3	66.7161E-12	347.713E-3	-24.3135E-3
1.28314E-3	65.1439E-12	330.126E-3	-16.5462E-3	66.7136E-12	337.366E-3	-30.6491E-3
1.27814E-3	65.3652E-12	351.714E-3	-16.4031E-3	66.2815E-12	314.814E-3	-33.6610E-3
1.27314E-3	66.0238E-12	358.504E-3	-6.12844E-3	67.0067E-12	301.665E-3	-33.0581E-3
1.26813E-3	66.0854E-12	329.491E-3	-1.27849E-3	66.6606E-12	287.018E-3	-27.5386E-3
1.26313E-3	66.3191E-12	312.995E-3	7.41052E-3	66.3424E-12	266.920E-3	-21.4697E-3
1.25813E-3	65.3322E-12	326.663E-3	11.4188E-3	65.9033E-12	267.651E-3	-23.5357E-3
1.25313E-3	65.4927E-12	344.617E-3	-7.87074E-3	66.0525E-12	275.180E-3	-27.3238E-3
1.24812E-3	65.2420E-12	346.063E-3	-23.9173E-3	65.5892E-12	268.103E-3	-9.97539E-3
1.24312E-3	64.5663E-12	313.817E-3	-18.0346E-3	65.5148E-12	277.477E-3	11.8144E-3
1.23812E-3	64.6388E-12	289.951E-3	-20.9923E-3	65.3077E-12	292.051E-3	-638.201E-6
1.23312E-3	64.5668E-12	314.339E-3	-25.4609E-3	64.7164E-12	283.106E-3	-6.85631E-3
1.22811E-3	64.6687E-12	325.328E-3	-13.9531E-3	65.5243E-12	271.036E-3	9.87025E-3
1.22311E-3	63.8620E-12	295.742E-3	-8.66728E-3	65.0364E-12	269.408E-3	-47.3896E-6
1.21811E-3	63.8181E-12	277.852E-3	-13.1590E-3	64.5537E-12	267.116E-3	-14.3982E-3
1.21311E-3	64.2726E-12	273.942E-3	-6.63141E-3	64.0087E-12	255.308E-3	-17.7684E-3
1.20810E-3	64.4599E-12	263.624E-3	-2.24840E-3	64.9749E-12	239.053E-3	-30.4447E-3
1.20310E-3	63.8797E-12	263.438E-3	-20.6957E-3	64.5245E-12	219.770E-3	-24.8417E-3
1.19810E-3	63.7244E-12	258.865E-3	-35.1264E-3	64.9470E-12	204.491E-3	-10.8460E-3
1.19310E-3	64.1028E-12	242.622E-3	-29.2549E-3	64.5042E-12	203.907E-3	-16.3688E-3
1.18809E-3	64.7620E-12	234.711E-3	-20.1153E-3	63.9690E-12	206.751E-3	-19.9746E-3
1.18309E-3	64.8458E-12	236.399E-3	-10.4142E-3	64.1031E-12	213.083E-3	-9.45145E-3
1.17809E-3	63.8119E-12	243.696E-3	-28.4333E-3	64.6830E-12	223.826E-3	-15.4259E-3
1.17309E-3	64.0600E-12	237.953E-3	-61.5845E-3	65.1161E-12	215.717E-3	-22.2526E-3
1.16808E-3	64.6621E-12	223.761E-3	-52.2541E-3	64.6165E-12	206.212E-3	-6.15934E-3
1.16308E-3	64.4513E-12	217.405E-3	-33.9359E-3	64.0121E-12	208.996E-3	-4.70063E-3
1.15808E-3	63.4905E-12	215.740E-3	-26.5726E-3	64.4978E-12	204.346E-3	-17.0127E-3
1.15308E-3	63.0346E-12	219.668E-3	-6.82345E-3	64.8566E-12	204.795E-3	-10.0448E-3
1.14807E-3	64.1170E-12	222.368E-3	-9.25774E-3	64.7053E-12	201.120E-3	1.20055E-3
1.14307E-3	63.3156E-12	222.629E-3	-38.0598E-3	64.0856E-12	179.237E-3	-3.73984E-3
1.13807E-3	62.1026E-12	213.313E-3	-39.7379E-3	63.2822E-12	166.075E-3	-289.263E-6
1.13307E-3	61.5072E-12	186.323E-3	-18.5664E-3	63.7691E-12	180.842E-3	11.4733E-3
1.12806E-3	62.5478E-12	184.935E-3	-8.68312E-3	63.6572E-12	196.712E-3	12.7444E-3
1.12306E-3	62.7328E-12	210.937E-3	-17.3502E-3	62.8770E-12	188.014E-3	12.3140E-3
1.11806E-3	61.8748E-12	209.055E-3	-33.6830E-3	62.2181E-12	179.355E-3	-1.36401E-3
1.11306E-3	61.9790E-12	192.764E-3	-32.6640E-3	62.4913E-12	175.544E-3	-22.9202E-3
1.10805E-3	61.8669E-12	190.232E-3	-14.3540E-3	62.3100E-12	168.115E-3	-13.6263E-3
1.10305E-3	62.0650E-12	178.477E-3	-8.02830E-3	61.8473E-12	165.502E-3	10.8023E-3
1.09805E-3	61.9289E-12	162.819E-3	-12.8432E-3	61.8275E-12	162.439E-3	19.8182E-3
1.09305E-3	61.9176E-12	151.809E-3	-12.7932E-3	61.1628E-12	158.302E-3	7.92470E-3
1.08804E-3	61.9284E-12	132.165E-3	-16.7409E-3	61.2536E-12	177.330E-3	-25.3401E-3
1.08304E-3	62.6721E-12	126.781E-3	-23.4005E-3	61.5805E-12	183.755E-3	-52.3472E-3
1.07804E-3	63.0655E-12	140.748E-3	-22.6167E-3	62.1590E-12	150.573E-3	-36.7850E-3
1.07304E-3	62.3953E-12	156.043E-3	-12.2583E-3	61.6351E-12	139.766E-3	-5.92360E-3
1.06803E-3	62.0613E-12	160.506E-3	-10.5760E-3	61.6283E-12	160.030E-3	-6.29072E-3
1.06303E-3	61.9679E-12	154.877E-3	-24.3212E-3	62.1066E-12	171.849E-3	-18.6451E-3
1.05803E-3	62.3899E-12	153.969E-3	-17.5854E-3	62.8612E-12	169.799E-3	-15.9486E-3
1.05303E-3	62.0098E-12	161.329E-3	-8.51018E-3	62.7356E-12	158.011E-3	-18.7039E-3
1.04802E-3	60.9821E-12	170.463E-3	-15.3355E-3	62.9661E-12	138.810E-3	-31.0140E-3
1.04302E-3	61.2783E-12	168.902E-3	-8.54125E-3	63.2195E-12	136.815E-3	-30.0443E-3
1.03802E-3	62.2137E-12	163.561E-3	-3.98335E-3	63.6793E-12	154.407E-3	-15.1718E-3
1.03302E-3	62.3727E-12	159.904E-3	-7.71560E-3	62.8634E-12	164.397E-3	1.45527E-3
1.02801E-3	61.0646E-12	150.932E-3	-3.53001E-3	61.6113E-12	174.722E-3	9.97573E-3
1.02301E-3	60.9557E-12	143.544E-3	-6.75646E-3	61.1025E-12	185.164E-3	1.65426E-3
1.01801E-3	61.4287E-12	152.512E-3	-9.99272E-3	60.7851E-12	176.080E-3	-15.9009E-3
1.01301E-3	62.0657E-12	162.728E-3	4.51245E-3	60.3655E-12	158.254E-3	-14.8963E-3
1.00800E-3	61.5729E-12	155.751E-3	19.9823E-3	58.9186E-12	152.336E-3	-2.54533E-3
1.00300E-3	61.1238E-12	159.559E-3	19.0199E-3	59.0767E-12	145.631E-3	46.9883E-6
997.999E-6	61.6215E-12	173.635E-3	3.28046E-3	59.3809E-12	140.569E-3	-3.06359E-3
992.997E-6	61.2103E-12	169.514E-3	-14.2712E-3	59.4632E-12	156.786E-3	-14.4647E-3
987.994E-6	60.9862E-12	174.483E-3	-19.5363E-3	59.2851E-12	161.953E-3	-27.8707E-3
982.991E-6	60.3586E-12	184.791E-3	-7.42412E-3	58.9358E-12	155.683E-3	-24.6612E-3
977.989E-6	60.2467E-12	176.305E-3	850.394E-6	60.0370E-12	175.288E-3	-11.1526E-3
972.986E-6	59.8929E-12	180.593E-3	-1.06284E-3	60.7922E-12	198.609E-3	-10.3638E-3
967.984E-6	60.0014E-12	203.648E-3	-10.0780E-3	61.5311E-12	212.877E-3	-10.8299E-3
962.981E-6	60.2456E-12	201.794E-3	-27.5616E-3	61.2377E-12	226.878E-3	-4.88468E-3
957.979E-6	60.1554E-12	187.247E-3	-29.8852E-3	62.1334E-12	226.112E-3	-7.95030E-3
952.976E-6	60.0689E-12	201.523E-3	-17.6947E-3	62.9963E-12	225.309E-3	-8.62350E-3
947.974E-6	60.1458E-12	215.861E-3	-17.5413E-3	62.6072E-12	240.680E-3	-5.54213E-3
942.971E-6	61.1361E-12	220.855E-3	-16.2965E-3	62.2031E-12	252.974E-3	-15.8764E-3
937.969E-6	61.0212E-12	226.845E-3	-5.69844E-3	61.7265E-12	257.147E-3	-25.6437E-3
932.966E-6	60.6091E-12	218.291E-3	-3.50235E-3	61.3746E-12	256.551E-3	-21.1256E-3
927.964E-6	60.3424E-12	227.826E-3	-2.60717E-3	60.7371E-12	250.311E-3	-29.5622E-3
922.961E-6	60.9589E-12	264.240E-3	-7.44819E-3	60.2774E-12	248.979E-3	-49.4662E-3
917.959E-6	60.4478E-12	277.673E-3	-21.7323E-3	59.8394E-12	257.077E-3	-46.0740E-3
912.956E-6	59.9394E-12	263.248E-3	-27.3911E-3	59.3237E-12	259.706E-3	-24.8353E-3
907.954E-6	59.8644E-12	256.729E-3	-13.3839E-3	58.7665E-12	261.391E-3	-6.88344E-3
902.951E-6	60.0404E-12	264.851E-3	20.3404E-3	58.4563E-12	288.540E-3	-3.13565E-3
897.949E-6	59.7316E-12	279.645E-3	38.9562E-3	58.6478E-12	318.378E-3	-19.3812E-3
892.946E-6	58.9932E-12	296.538E-3	9.25471E-3	58.4535E-12	322.511E-3	-27.5685E-3
887.944E-6	58.3763E-12	291.468E-3	-22.4381E-3	58.2591E-12	339.425E-3	-7.35762E-3
882.941E-6	58.6389E-12	284.517E-3	-19.5785E-3	58.1210E-12	374.516E-3	4.94776E-3
877.939E-6	59.1163E-12	301.423E-3	-21.4648E-3	58.5278E-12	376.940E-3	-11.9215E-3
872.936E-6	58.4875E-12	320.753E-3	-27.9293E-3	59.1732E-12	366.141E-3	-22.7177E-3
867.934E-6	58.3745E-12	325.904E-3	-28.4812E-3	59.2427E-12	376.708E-3	-11.0349E-3
862.931E-6	59.1147E-12	339.522E-3	-29.2847E-3	58.8199E-12	391.380E-3	6.34027E-3
857.929E-6	59.0192E-12	371.875E-3	-7.30966E-3	58.7739E-12	411.263E-3	8.05228E-3
852.926E-6	58.9137E-12	388.340E-3	18.5582E-3	58.6846E-12	435.146E-3	-11.5155E-3
847.924E-6	59.0019E-12	391.741E-3	7.65083E-3	58.9460E-12	441.097E-3	-26.1424E-3
842.921E-6	59.2209E-12	397.820E-3	-7.38733E-3	58.3747E-12	446.496E-3	-28.1197E-3
837.919E-6	59.0001E-12	410.778E-3	-2.47105E-3	57.5885E-12	467.768E-3	-27.8610E-3
832.916E-6	59.0684E-12	441.270E-3	-3.85773E-3	57.7522E-12	481.192E-3	-19.4069E-3
827.914E-6	58.3226E-12	469.349E-3	-7.35764E-3	57.5710E-12	484.334E-3	-16.4684E-3
822.911E-6	57.7287E-12	484.127E-3	-13.3462E-3	57.0775E-12	497.944E-3	-19.8557E-3
817.909E-6	57.3958E-12	501.728E-3	-19.8269E-3	56.3170E-12	514.110E-3	-9.03633E-3
812.906E-6	57.6186E-12	508.581E-3	-15.1726E-3	56.0381E-12	525.925E-3	8.97388E-3
807.904E-6	56.8078E-12	496.367E-3	-10.1377E-3	56.1709E-12	557.837E-3	15.7691E-3
802.901E-6	55.5737E-12	494.690E-3	-14.9713E-3	55.6703E-12	602.568E-3	6.71630E-3
797.899E-6	55.0104E-12	519.661E-3	-20.4180E-3	55.3418E-12	629.602E-3	12.1939E-3
792.896E-6	55.0815E-12	549.856E-3	-24.0579E-3	55.2032E-12	640.042E-3	25.8166E-3
787.894E-6	55.2260E-12	569.823E-3	-28.6630E-3	55.5520E-12	650.535E-3	6.54149E-3
782.891E-6	54.6926E-12	585.597E-3	-12.7249E-3	55.3945E-12	669.694E-3	-18.5357E-3
777.889E-6	54.3409E-12	603.387E-3	6.44278E-3	55.2207E-12	701.745E-3	-20.8258E-3
772.886E-6	54.3872E-12	626.703E-3	-5.17889E-3	54.7169E-12	739.396E-3	-27.8073E-3
767.884E-6	54.6606E-12	655.456E-3	-16.8982E-3	55.3263E-12	756.854E-3	-39.0777E-3
762.881E-6	54.8136E-12	670.950E-3	-22.7579E-3	55.3771E-12	768.664E-3	-34.3575E-3
757.879E-6	55.1686E-12	681.367E-3	-41.2239E-3	54.7517E-12	793.585E-3	-20.2393E-3
752.876E-6	55.0510E-12	719.146E-3	-33.1903E-3	53.6525E-12	816.213E-3	-13.3995E-3
747.874E-6	54.7029E-12	765.048E-3	-8.45923E-3	53.5967E-12	840.639E-3	-18.0747E-3
742.871E-6	55.0114E-12	793.056E-3	-29.0751E-3	53.6180E-12	865.790E-3	-22.9771E-3
737.869E-6	55.2498E-12	808.837E-3	-66.7391E-3	53.5797E-12	881.538E-3	-17.5416E-3
732.866E-6	54.1802E-12	826.160E-3	-60.3485E-3	52.9837E-12	909.133E-3	4.24535E-3
727.864E-6	53.5648E-12	854.644E-3	-30.8796E-3	52.7865E-12	950.909E-3	14.2198E-3
722.861E-6	53.0253E-12	892.135E-3	-28.5516E-3	52.7438E-12	978.210E-3	-13.8585E-3
717.859E-6	52.6951E-12	911.958E-3	-37.8052E-3	52.7922E-12	1.00656E+0	-37.3346E-3
712.856E-6	52.0120E-12	910.562E-3	-25.0117E-3	52.1246E-12	1.03774E+0	-38.5438E-3
707.854E-6	51.4213E-12	924.155E-3	-7.19408E-3	51.2586E-12	1.05253E+0	-31.3918E-3
702.851E-6	50.4960E-12	963.051E-3	1.71165E-3	51.3892E-12	1.07357E+0	-8.64564E-3
697.849E-6	49.9747E-12	997.945E-3	-2.40974E-3	51.4272E-12	1.10236E+0	2.89545E-3
692.846E-6	50.1459E-12	1.01317E+0	-15.5648E-3	50.8926E-12	1.11455E+0	-11.7357E-3
687.844E-6	49.8834E-12	1.02542E+0	-16.4656E-3	50.1552E-12	1.13290E+0	-22.9787E-3
682.841E-6	48.9549E-12	1.03976E+0	-15.4658E-3	49.9773E-12	1.16566E+0	-25.5840E-3
677.839E-6	48.6383E-12	1.06162E+0	-19.9641E-3	49.6795E-12	1.17876E+0	-32.2768E-3
672.836E-6	48.9169E-12	1.08733E+0	-13.9485E-3	49.1459E-12	1.20154E+0	-30.4420E-3
667.834E-6	49.0907E-12	1.10697E+0	-16.4592E-3	48.7602E-12	1.25975E+0	-31.8330E-3
662.831E-6	48.7171E-12	1.14005E+0	-31.1452E-3	47.8243E-12	1.31095E+0	-37.8625E-3
657.829E-6	47.9822E-12	1.18122E+0	-24.9239E-3	47.5956E-12	1.32592E+0	-32.5708E-3
652.826E-6	47.7844E-12	1.20327E+0	-7.56324E-3	48.2784E-12	1.33775E+0	-27.0607E-3
647.824E-6	48.3542E-12	1.23267E+0	-2.18413E-3	47.9152E-12	1.37467E+0	-22.2218E-3
642.821E-6	47.3950E-12	1.28574E+0	-15.2166E-3	47.1964E-12	1.40963E+0	-14.2109E-3
637.819E-6	47.0637E-12	1.31563E+0	-36.7643E-3	47.3989E-12	1.43959E+0	-8.82343E-3
632.816E-6	46.7817E-12	1.31592E+0	-40.7328E-3	47.0386E-12	1.46227E+0	-16.3247E-3
627.814E-6	46.3474E-12	1.32336E+0	-23.5221E-3	46.9924E-12	1.47614E+0	-15.1052E-3
622.811E-6	45.4661E-12	1.34514E+0	-6.36514E-3	46.4292E-12	1.50278E+0	-2.98759E-3
617.809E-6	44.8755E-12	1.37693E+0	-12.1048E-3	45.8574E-12	1.52425E+0	-18.6785E-3
612.806E-6	44.4609E-12	1.41460E+0	-24.1262E-3	45.4623E-12	1.53583E+0	-35.1348E-3
607.804E-6	44.4641E-12	1.44153E+0	-22.6854E-3	45.0244E-12	1.54698E+0	-27.1409E-3
602.801E-6	43.7292E-12	1.45437E+0	-19.0626E-3	44.4961E-12	1.53609E+0	-15.9006E-3
597.799E-6	42.8938E-12	1.48680E+0	-1.07156E-3	43.3295E-12	1.51985E+0	-9.08841E-3
592.796E-6	42.5894E-12	1.52334E+0	19.6277E-3	42.1624E-12	1.53703E+0	-16.3607E-3
587.794E-6	42.1103E-12	1.54165E+0	5.67607E-3	41.7356E-12	1.57212E+0	-39.2507E-3
582.791E-6	41.5500E-12	1.56639E+0	-13.5488E-3	41.0178E-12	1.59402E+0	-39.3988E-3
577.789E-6	40.9178E-12	1.58189E+0	-11.5146E-3	40.4708E-12	1.61261E+0	-5.42606E-3
572.786E-6	40.1307E-12	1.58785E+0	-21.9308E-3	39.5546E-12	1.62866E+0	8.19454E-3
567.784E-6	39.5530E-12	1.59535E+0	-38.3912E-3	39.1320E-12	1.62867E+0	2.21716E-3
562.781E-6	38.6689E-12	1.60491E+0	-35.7560E-3	38.7591E-12	1.63315E+0	2.72376E-3
557.779E-6	37.9955E-12	1.61409E+0	-31.7426E-3	38.4934E-12	1.65510E+0	-11.1770E-3
552.776E-6	37.4847E-12	1.62154E+0	-32.4998E-3	37.8130E-12	1.68194E+0	-22.3686E-3
547.774E-6	37.1307E-12	1.63338E+0	-23.1391E-3	37.6634E-12	1.71252E+0	-10.9333E-3
542.771E-6	36.3585E-12	1.64412E+0	-13.4216E-3	37.4071E-12	1.74435E+0	-9.84161E-3
537.769E-6	35.4660E-12	1.65544E+0	-26.3611E-3	36.8774E-12	1.74961E+0	-20.0814E-3
532.766E-6	35.3251E-12	1.65536E+0	-29.9136E-3	36.6058E-12	1.73851E+0	-7.02693E-3
527.764E-6	34.9516E-12	1.64891E+0	-5.52851E-3	36.2922E-12	1.74610E+0	9.06610E-3
522.761E-6	34.3638E-12	1.67327E+0	9.25886E-3	35.1312E-12	1.75562E+0	3.86441E-3
517.759E-6	33.3905E-12	1.71412E+0	1.23797E-3	34.3477E-12	1.75464E+0	-5.24848E-3
512.756E-6	33.2446E-12	1.71789E+0	-10.2255E-3	33.8982E-12	1.74816E+0	-12.3976E-3
507.754E-6	33.1827E-12	1.69654E+0	-24.2930E-3	33.2103E-12	1.73037E+0	-21.4750E-3
502.751E-6	32.5947E-12	1.70850E+0	-25.4109E-3	32.1280E-12	1.71590E+0	-17.5812E-3
497.749E-6	31.7001E-12	1.75131E+0	-14.1460E-3	31.3675E-12	1.71725E+0	-7.64660E-3
492.746E-6	31.2109E-12	1.77582E+0	-11.9627E-3	30.6916E-12	1.72496E+0	-10.8391E-3
487.744E-6	30.8577E-12	1.76330E+0	-2.92247E-3	30.0743E-12	1.72429E+0	-15.4758E-3
482.741E-6	30.2362E-12	1.73815E+0	-323.007E-6	29.3389E-12	1.71474E+0	-5.37866E-3
477.739E-6	29.7388E-12	1.74309E+0	-11.2008E-3	28.5576E-12	1.71137E+0	-1.65392E-3
472.736E-6	28.7284E-12	1.77300E+0	-19.3452E-3	28.1231E-12	1.71533E+0	-11.9547E-3
467.734E-6	27.7692E-12	1.78355E+0	-23.5805E-3	27.7595E-12	1.72325E+0	-17.9855E-3
462.731E-6	27.5961E-12	1.76605E+0	-27.4111E-3	26.9407E-12	1.73382E+0	-18.8878E-3
457.729E-6	27.3850E-12	1.73919E+0	-34.1267E-3	26.6065E-12	1.72949E+0	-11.9366E-3
452.726E-6	26.2032E-12	1.72511E+0	-37.2030E-3	26.4950E-12	1.71721E+0	-5.59663E-3
447.724E-6	25.2035E-12	1.73486E+0	-34.3783E-3	26.0745E-12	1.71148E+0	-13.7325E-3
442.721E-6	25.1209E-12	1.73275E+0	-25.9457E-3	25.4517E-12	1.70208E+0	-21.5275E-3
437.719E-6	24.7481E-12	1.70583E+0	-30.1167E-3	25.0305E-12	1.69735E+0	-20.5057E-3
432.716E-6	24.2665E-12	1.68603E+0	-45.7313E-3	24.4988E-12	1.69280E+0	-20.2533E-3
427.714E-6	23.4378E-12	1.67947E+0	-35.9265E-3	23.8653E-12	1.67383E+0	-14.3880E-3
422.711E-6	22.9038E-12	1.67221E+0	-6.34577E-3	23.2529E-12	1.65640E+0	-12.8865E-3
417.709E-6	22.7788E-12	1.66761E+0	2.05960E-3	22.5504E-12	1.63874E+0	-23.6889E-3
412.706E-6	22.5515E-12	1.67557E+0	-11.5278E-3	22.0854E-12	1.62102E+0	-18.4134E-3
407.704E-6	21.5765E-12	1.67993E+0	-20.6434E-3	21.5237E-12	1.61365E+0	110.378E-6
402.701E-6	21.0397E-12	1.67754E+0	-22.1667E-3	20.8867E-12	1.59288E+0	-2.84046E-3
397.699E-6	20.9523E-12	1.67333E+0	-14.0671E-3	20.4273E-12	1.56201E+0	-22.5509E-3
392.696E-6	20.3543E-12	1.66566E+0	-210.789E-6	19.8048E-12	1.55304E+0	-31.2583E-3
387.694E-6	19.5063E-12	1.66077E+0	-15.8337E-3	19.2898E-12	1.54818E+0	-28.4220E-3
382.691E-6	18.9107E-12	1.64606E+0	-40.4341E-3	18.7810E-12	1.53043E+0	-27.6564E-3
377.689E-6	18.4776E-12	1.60588E+0	-28.4119E-3	18.4079E-12	1.51744E+0	-22.5755E-3
372.686E-6	17.8970E-12	1.56431E+0	-15.6992E-3	17.9141E-12	1.50721E+0	-21.0411E-3
367.684E-6	17.3003E-12	1.54565E+0	-24.1762E-3	17.2491E-12	1.48394E+0	-27.8068E-3
362.681E-6	16.7059E-12	1.52758E+0	-15.6386E-3	16.9412E-12	1.44971E+0	-21.6846E-3
357.679E-6	16.2297E-12	1.49546E+0	-2.94009E-3	16.7147E-12	1.42158E+0	-14.5804E-3
352.676E-6	15.7155E-12	1.46942E+0	-6.99090E-3	16.3169E-12	1.39941E+0	-16.5363E-3
347.674E-6	15.1024E-12	1.44366E+0	-5.46831E-3	15.5356E-12	1.38186E+0	-11.1425E-3
342.671E-6	14.9615E-12	1.41190E+0	-5.40415E-3	15.0866E-12	1.36349E+0	-13.9601E-3
337.669E-6	14.4999E-12	1.40315E+0	-13.1426E-3	14.8858E-12	1.32959E+0	-29.9732E-3
332.666E-6	14.0490E-12	1.40265E+0	-13.8264E-3	14.6165E-12	1.30282E+0	-27.9564E-3
327.664E-6	13.7647E-12	1.37718E+0	-17.9124E-3	13.7004E-12	1.29048E+0	-18.0631E-3
322.661E-6	13.4442E-12	1.34821E+0	-26.4269E-3	13.2302E-12	1.26090E+0	-20.3191E-3
317.659E-6	12.9842E-12	1.33512E+0	-15.3908E-3	13.0384E-12	1.22135E+0	-21.5045E-3
312.656E-6	12.4153E-12	1.31331E+0	206.430E-6	12.6371E-12	1.19641E+0	-15.4580E-3
307.654E-6	12.1149E-12	1.27616E+0	-5.91299E-3	11.9704E-12	1.17170E+0	-11.5056E-3
302.651E-6	11.8782E-12	1.24396E+0	-15.5853E-3	11.4183E-12	1.13635E+0	-13.6848E-3
297.649E-6	11.4115E-12	1.21661E+0	-16.9807E-3	11.3012E-12	1.10757E+0	-16.7853E-3
292.646E-6	10.8288E-12	1.19421E+0	-25.3649E-3	10.9069E-12	1.08213E+0	-23.9581E-3
287.644E-6	10.4656E-12	1.18103E+0	-30.7778E-3	10.4634E-12	1.05011E+0	-21.0134E-3
282.641E-6	10.3094E-12	1.15123E+0	-28.6925E-3	10.0169E-12	1.03097E+0	-3.91672E-3
277.639E-6	9.69951E-12	1.11059E+0	-21.1420E-3	9.80666E-12	1.01285E+0	3.20041E-3
272.636E-6	9.23875E-12	1.08337E+0	-5.04708E-3	9.44745E-12	970.902E-3	3.19128E-3
267.634E-6	8.95861E-12	1.05873E+0	1.91827E-3	9.07818E-12	939.023E-3	-160.313E-6
262.631E-6	8.79209E-12	1.03259E+0	-4.49021E-3	8.80144E-12	927.563E-3	-20.1255E-3
257.629E-6	8.32907E-12	1.00599E+0	-11.7001E-3	8.48657E-12	910.944E-3	-40.5038E-3
252.626E-6	7.85327E-12	972.077E-3	-13.6087E-3	8.09337E-12	892.405E-3	-37.6247E-3
247.624E-6	7.71466E-12	937.407E-3	-20.4227E-3	7.77370E-12	870.619E-3	-32.3090E-3
242.621E-6	7.60044E-12	914.144E-3	-31.6592E-3	7.73203E-12	831.497E-3	-34.4061E-3
237.619E-6	7.35455E-12	894.432E-3	-29.8157E-3	7.46851E-12	787.911E-3	-30.1938E-3
232.616E-6	6.92071E-12	873.745E-3	-31.0019E-3	6.97244E-12	755.883E-3	-35.4842E-3
227.614E-6	6.53864E-12	845.940E-3	-37.4004E-3	6.55151E-12	726.177E-3	-51.8027E-3
222.611E-6	6.33899E-12	801.980E-3	-19.3642E-3	6.40710E-12	699.095E-3	-48.1758E-3
217.609E-6	6.03896E-12	762.502E-3	1.98846E-3	6.17813E-12	677.071E-3	-35.3394E-3
212.606E-6	5.73414E-12	751.704E-3	1.65887E-3	5.83919E-12	649.897E-3	-27.8467E-3
207.604E-6	5.57023E-12	740.978E-3	-9.27026E-3	5.49143E-12	624.310E-3	-13.1747E-3
202.601E-6	5.28029E-12	707.853E-3	-28.0977E-3	5.40123E-12	612.516E-3	-13.7939E-3
197.599E-6	5.02909E-12	680.284E-3	-34.5656E-3	5.32628E-12	595.506E-3	-30.7787E-3
192.596E-6	4.94616E-12	658.596E-3	-18.3797E-3	4.94752E-12	563.976E-3	-28.6151E-3
187.594E-6	4.81920E-12	629.108E-3	-13.7305E-3	4.71357E-12	536.718E-3	-29.1725E-3
182.591E-6	4.45069E-12	610.983E-3	-21.8152E-3	4.54111E-12	520.443E-3	-46.1836E-3
177.589E-6	4.24959E-12	595.542E-3	-17.4495E-3	4.51425E-12	513.649E-3	-37.5063E-3
172.586E-6	4.21380E-12	569.284E-3	-13.7415E-3	4.14408E-12	513.453E-3	-19.4040E-3
167.584E-6	4.05964E-12	561.708E-3	-18.8134E-3	3.90889E-12	500.828E-3	-20.5669E-3
162.581E-6	3.69166E-12	559.988E-3	-18.6751E-3	3.77506E-12	475.298E-3	-8.33877E-3
157.579E-6	3.56009E-12	534.332E-3	-17.5954E-3	3.60023E-12	461.998E-3	827.139E-6
152.576E-6	3.50859E-12	508.724E-3	-21.1225E-3	3.45148E-12	448.692E-3	-21.4671E-3
147.574E-6	3.39890E-12	498.022E-3	-21.7382E-3	3.20645E-12	426.314E-3	-30.3997E-3
142.571E-6	3.10469E-12	491.454E-3	-16.6463E-3	3.14358E-12	409.183E-3	-14.0425E-3
137.569E-6	2.93391E-12	478.792E-3	-14.7490E-3	3.03317E-12	395.710E-3	-8.93861E-3
132.566E-6	2.80731E-12	452.467E-3	-19.5556E-3	2.80902E-12	386.639E-3	-18.7163E-3
127.564E-6	2.75570E-12	425.826E-3	-29.5737E-3	2.72552E-12	390.180E-3	-27.0223E-3
122.561E-6	2.51803E-12	407.471E-3	-25.2401E-3	2.65418E-12	395.950E-3	-30.2412E-3
117.559E-6	2.31912E-12	392.249E-3	-1.18359E-3	2.45206E-12	389.322E-3	-25.2928E-3
112.556E-6	2.28366E-12	378.199E-3	8.19421E-3	2.28855E-12	374.337E-3	-18.7804E-3
107.554E-6	2.09271E-12	371.829E-3	-12.3789E-3	2.17862E-12	345.371E-3	-35.6376E-3
102.551E-6	2.00074E-12	365.443E-3	-27.9815E-3	2.12972E-12	311.532E-3	-46.2446E-3
97.5488E-6	1.88162E-12	352.539E-3	-18.6356E-3	1.94264E-12	307.009E-3	-23.8347E-3
92.5463E-6	1.75688E-12	337.814E-3	-13.3881E-3	1.75589E-12	312.905E-3	-8.03108E-3
87.5438E-6	1.63606E-12	322.378E-3	-12.6928E-3	1.67257E-12	295.357E-3	-4.98287E-3
82.5413E-6	1.46107E-12	313.522E-3	-12.2779E-3	1.67236E-12	291.168E-3	-1.94808E-3
77.5388E-6	1.52284E-12	310.903E-3	-25.9630E-3	1.50853E-12	300.547E-3	-1.07227E-3
72.5363E-6	1.40450E-12	313.830E-3	-34.1300E-3	1.21616E-12	294.732E-3	-2.16837E-3
67.5338E-6	1.18154E-12	317.827E-3	-20.9384E-3	1.20992E-12	295.202E-3	929.312E-6
62.5313E-6	1.07345E-12	319.672E-3	-6.81880E-3	1.20526E-12	296.603E-3	-11.2063E-3
57.5288E-6	1.08948E-12	320.175E-3	-5.08529E-3	1.06235E-12	284.280E-3	-27.5863E-3
52.5263E-6	1.04307E-12	308.751E-3	-12.3054E-3	835.281E-15	287.399E-3	-17.9797E-3
47.5238E-6	792.225E-15	297.516E-3	-15.4599E-3	825.019E-15	303.057E-3	-15.3264E-3
42.5213E-6	674.183E-15	297.531E-3	-7.56759E-3	799.497E-15	300.224E-3	-20.6326E-3
37.5188E-6	729.848E-15	296.292E-3	-4.98715E-3	694.447E-15	293.443E-3	-11.0746E-3
32.5163E-6	614.700E-15	291.969E-3	-21.7344E-3	479.185E-15	296.951E-3	-2.96731E-3
27.5138E-6	382.880E-15	284.132E-3	-41.2160E-3	394.651E-15	303.158E-3	-4.27214E-3
22.5113E-6	262.885E-15	270.952E-3	-37.5141E-3	416.397E-15	308.141E-3	-12.8296E-3
17.5088E-6	272.677E-15	259.660E-3	-26.2391E-3	250.425E-15	308.823E-3	-29.3657E-3
12.5063E-6	209.819E-15	265.627E-3	-32.0815E-3	59.8647E-15	304.373E-3	-35.5883E-3
7.50375E-6	47.0386E-15	279.193E-3	-31.5984E-3	61.1202E-15	300.337E-3	-19.1300E-3
2.50125E-6	-75.1538E-15	282.285E-3	-19.7781E-3	-44.5752E-15	297.651E-3	-10.1736E-3
-2.50125E-6	-127.226E-15	287.157E-3	-21.3874E-3	-208.167E-15	290.732E-3	-14.1484E-3
-7.50375E-6	-259.297E-15	297.113E-3	-22.9001E-3	-255.129E-15	295.099E-3	-3.79070E-3
-12.5063E-6	-426.045E-15	293.684E-3	-11.8354E-3	-346.350E-15	319.446E-3	-4.52896E-3
-17.5088E-6	-452.525E-15	284.395E-3	-3.84993E-3	-484.011E-15	331.339E-3	-29.6215E-3
-22.5113E-6	-537.940E-15	288.487E-3	-4.94265E-3	-685.008E-15	326.732E-3	-40.5239E-3
-27.5138E-6	-678.539E-15	293.050E-3	-15.1085E-3	-662.356E-15	336.985E-3	-32.3071E-3
-32.5163E-6	-815.510E-15	297.102E-3	-21.2255E-3	-716.494E-15	352.806E-3	-30.5784E-3
-37.5188E-6	-873.903E-15	312.103E-3	-9.73601E-3	-918.285E-15	355.716E-3	-26.2646E-3
-42.5213E-6	-939.272E-15	321.257E-3	-11.0024E-3	-1.15492E-12	357.579E-3	-21.9181E-3
-47.5238E-6	-1.24075E-12	318.749E-3	-30.6023E-3	-1.18383E-12	367.905E-3	-27.8126E-3
-52.5263E-6	-1.30982E-12	320.871E-3	-30.9913E-3	-1.14465E-12	385.329E-3	-20.9566E-3
-57.5288E-6	-1.30037E-12	327.703E-3	-15.1179E-3	-1.37737E-12	405.757E-3	-11.0199E-3
-62.5313E-6	-1.43931E-12	343.814E-3	-11.8570E-3	-1.63692E-12	412.709E-3	-18.3396E-3
-67.5338E-6	-1.72221E-12	371.845E-3	-23.1516E-3	-1.72758E-12	414.346E-3	-21.9210E-3
-72.5363E-6	-1.87927E-12	384.348E-3	-31.3211E-3	-1.71190E-12	438.785E-3	-9.59108E-3
-77.5388E-6	-1.87437E-12	381.958E-3	-27.4648E-3	-1.97563E-12	472.794E-3	-6.92771E-3
-82.5413E-6	-2.01071E-12	392.886E-3	-21.0305E-3	-2.21219E-12	494.781E-3	-20.9314E-3
-87.5438E-6	-2.25702E-12	406.638E-3	-18.4192E-3	-2.28956E-12	506.376E-3	-28.9340E-3
-92.5463E-6	-2.48115E-12	415.971E-3	-18.1268E-3	-2.38779E-12	522.936E-3	-29.0669E-3
-97.5488E-6	-2.56434E-12	441.323E-3	-19.9431E-3	-2.57453E-12	547.163E-3	-25.9485E-3
-102.551E-6	-2.70096E-12	473.356E-3	-14.5463E-3	-2.83975E-12	571.461E-3	-23.2929E-3
-107.554E-6	-3.01428E-12	494.966E-3	-6.63146E-3	-2.98238E-12	596.025E-3	-28.6193E-3
-112.556E-6	-3.24203E-12	518.855E-3	-11.3103E-3	-3.09536E-12	619.639E-3	-34.1024E-3
-117.559E-6	-3.34763E-12	548.395E-3	-19.5131E-3	-3.35147E-12	641.529E-3	-27.2675E-3
-122.561E-6	-3.52809E-12	568.696E-3	-29.2728E-3	-3.57444E-12	662.260E-3	-23.0219E-3
-127.564E-6	-3.80853E-12	576.760E-3	-33.1615E-3	-3.71944E-12	680.165E-3	-23.8395E-3
-132.566E-6	-3.99755E-12	592.875E-3	-17.9701E-3	-3.95514E-12	706.214E-3	-20.5534E-3
-137.569E-6	-4.14286E-12	623.855E-3	-5.83529E-3	-4.29013E-12	736.010E-3	-27.5604E-3
-142.571E-6	-4.39689E-12	650.880E-3	-12.1330E-3	-4.44106E-12	746.400E-3	-46.6885E-3
-147.574E-6	-4.67478E-12	658.953E-3	-6.93992E-3	-4.59904E-12	764.421E-3	-46.7204E-3
-152.576E-6	-4.82225E-12	669.917E-3	2.18939E-3	-4.89543E-12	812.271E-3	-38.0944E-3
-157.579E-6	-5.04067E-12	710.357E-3	-18.1189E-3	-5.21852E-12	854.580E-3	-44.4527E-3
-162.581E-6	-5.37525E-12	751.388E-3	-30.8493E-3	-5.39643E-12	887.404E-3	-32.9832E-3
-167.584E-6	-5.75680E-12	772.364E-3	-20.1510E-3	-5.59979E-12	930.140E-3	-16.4403E-3
-172.586E-6	-5.95288E-12	801.154E-3	-13.9853E-3	-6.03102E-12	964.765E-3	-11.6469E-3
-177.589E-6	-6.24703E-12	840.948E-3	-15.4674E-3	-6.50503E-12	994.757E-3	3.42531E-3
-182.591E-6	-6.73445E-12	877.690E-3	-20.5990E-3	-6.72930E-12	1.03571E+0	13.0644E-3
-187.594E-6	-7.14852E-12	923.380E-3	-16.4777E-3	-6.89464E-12	1.07087E+0	3.12240E-3
-192.596E-6	-7.31920E-12	975.670E-3	-1.81103E-3	-7.30054E-12	1.11106E+0	-2.39476E-3
-197.599E-6	-7.72822E-12	1.01638E+0	-382.778E-6	-7.86463E-12	1.18053E+0	-4.50345E-3
-202.601E-6	-8.25563E-12	1.04538E+0	-12.3757E-3	-8.09652E-12	1.24355E+0	-20.5354E-3
-207.604E-6	-8.66487E-12	1.07451E+0	-8.70223E-3	-8.35387E-12	1.28026E+0	-29.4011E-3
-212.606E-6	-8.87907E-12	1.11081E+0	4.28828E-3	-8.92811E-12	1.31543E+0	-16.9217E-3
-217.609E-6	-9.30614E-12	1.16495E+0	4.93936E-3	-9.51999E-12	1.35307E+0	-4.65208E-3
-222.611E-6	-9.82264E-12	1.21947E+0	131.435E-6	-9.83304E-12	1.40018E+0	2.28660E-3
-227.614E-6	-10.2800E-12	1.25611E+0	-7.12252E-3	-10.2559E-12	1.45933E+0	7.20748E-3
-232.616E-6	-10.5599E-12	1.29579E+0	-18.8480E-3	-10.8384E-12	1.51024E+0	-193.516E-6
-237.619E-6	-10.9877E-12	1.33831E+0	-28.3577E-3	-11.4340E-12	1.55336E+0	-5.23818E-3
-242.621E-6	-11.5562E-12	1.37926E+0	-31.9444E-3	-11.6783E-12	1.60608E+0	-193.760E-6
-247.624E-6	-12.0853E-12	1.43169E+0	-30.6743E-3	-12.2895E-12	1.66966E+0	1.10876E-3
-252.626E-6	-12.5047E-12	1.48605E+0	-20.5742E-3	-12.9364E-12	1.72608E+0	4.97595E-3
-257.629E-6	-13.0818E-12	1.51880E+0	-12.6664E-3	-13.3742E-12	1.78355E+0	9.42862E-3
-262.631E-6	-13.6354E-12	1.54025E+0	-17.7921E-3	-13.8027E-12	1.82671E+0	-1.34555E-3
-267.634E-6	-14.2674E-12	1.58441E+0	-21.8319E-3	-14.3839E-12	1.84392E+0	-9.25439E-3
-272.636E-6	-14.9377E-12	1.65614E+0	-17.7816E-3	-15.1548E-12	1.88801E+0	-4.13019E-3
-277.639E-6	-15.4432E-12	1.72820E+0	-16.6301E-3	-15.6028E-12	1.95729E+0	-12.1290E-3
-282.641E-6	-16.0408E-12	1.78408E+0	-18.7680E-3	-15.9352E-12	2.01025E+0	-21.2926E-3
-287.644E-6	-16.6858E-12	1.83157E+0	-13.8073E-3	-16.7029E-12	2.05396E+0	-12.1864E-3
-292.646E-6	-17.2875E-12	1.88974E+0	-13.5619E-3	-17.6847E-12	2.11619E+0	-12.8825E-3
-297.649E-6	-18.1250E-12	1.94791E+0	-19.7249E-3	-18.1499E-12	2.17703E+0	-15.2665E-3
-302.651E-6	-18.8760E-12	1.98822E+0	-20.9709E-3	-18.6400E-12	2.22358E+0	-1.60403E-3
-307.654E-6	-19.3699E-12	2.02791E+0	-29.1027E-3	-19.5654E-12	2.27653E+0	-6.81393E-3
-312.656E-6	-19.9387E-12	2.08699E+0	-34.9143E-3	-20.5643E-12	2.33274E+0	-23.5429E-3
-317.659E-6	-20.7943E-12	2.15207E+0	-25.1071E-3	-21.1916E-12	2.39295E+0	-19.9356E-3
-322.661E-6	-21.5221E-12	2.19678E+0	-15.3524E-3	-21.6092E-12	2.45399E+0	-19.2751E-3
-327.664E-6	-22.0099E-12	2.23458E+0	-10.1241E-3	-22.5621E-12	2.50134E+0	-29.3368E-3
-332.666E-6	-22.7144E-12	2.28347E+0	-4.64809E-3	-23.7405E-12	2.54157E+0	-29.6493E-3
-337.669E-6	-23.7763E-12	2.32940E+0	-9.00807E-3	-24.1741E-12	2.58062E+0	-27.3510E-3
-342.671E-6	-24.5938E-12	2.37353E+0	-14.7757E-3	-24.7869E-12	2.61434E+0	-29.4807E-3
-347.674E-6	-25.1394E-12	2.43214E+0	-10.4813E-3	-25.8321E-12	2.65129E+0	-23.9592E-3
-352.676E-6	-26.0489E-12	2.48375E+0	-12.7990E-3	-26.7433E-12	2.70127E+0	-19.1592E-3
-357.679E-6	-26.9093E-12	2.51775E+0	-12.8012E-3	-27.1132E-12	2.74722E+0	-25.3048E-3
-362.681E-6	-27.8548E-12	2.56228E+0	278.895E-6	-27.9818E-12	2.79135E+0	-30.4831E-3
-367.684E-6	-28.6208E-12	2.61628E+0	4.51218E-3	-29.2359E-12	2.85023E+0	-28.7740E-3
-372.686E-6	-29.6824E-12	2.66649E+0	-1.47721E-3	-30.3096E-12	2.89704E+0	-28.5380E-3
-377.689E-6	-30.6630E-12	2.71335E+0	-5.95462E-3	-30.8165E-12	2.92611E+0	-27.7863E-3
-382.691E-6	-31.6727E-12	2.75439E+0	-19.0620E-3	-31.8744E-12	2.97037E+0	-13.5816E-3
-387.694E-6	-32.4143E-12	2.79652E+0	-42.0610E-3	-33.2493E-12	3.02357E+0	4.50293E-3
-392.696E-6	-33.3951E-12	2.84255E+0	-43.9390E-3	-34.3062E-12	3.05765E+0	6.35732E-3
-397.699E-6	-34.6041E-12	2.87376E+0	-23.5871E-3	-34.9943E-12	3.09141E+0	-5.28171E-3
-402.701E-6	-35.6262E-12	2.90720E+0	-26.8591E-3	-35.9227E-12	3.13426E+0	-23.6930E-3
-407.704E-6	-36.3791E-12	2.96063E+0	-49.1621E-3	-37.2881E-12	3.14970E+0	-31.6961E-3
-412.706E-6	-37.5934E-12	2.99475E+0	-49.2066E-3	-38.3148E-12	3.14289E+0	-19.5235E-3
-417.709E-6	-38.9198E-12	3.01167E+0	-30.5672E-3	-39.1401E-12	3.15302E+0	-21.5145E-3
-422.711E-6	-39.8344E-12	3.04629E+0	-17.5797E-3	-40.0172E-12	3.18191E+0	-21.5327E-3
-427.714E-6	-40.8147E-12	3.08567E+0	-22.6847E-3	-41.2422E-12	3.20939E+0	-7.80267E-3
-432.716E-6	-41.9535E-12	3.12351E+0	-27.7452E-3	-42.1141E-12	3.22535E+0	-17.4858E-3
-437.719E-6	-43.0102E-12	3.15548E+0	-23.9220E-3	-42.8680E-12	3.22877E+0	-29.3009E-3
-442.721E-6	-44.0478E-12	3.17260E+0	-17.6067E-3	-43.7831E-12	3.24696E+0	-19.1460E-3
-447.724E-6	-45.0512E-12	3.20090E+0	-5.02777E-3	-45.1382E-12	3.27927E+0	-20.1632E-3
-452.726E-6	-46.1831E-12	3.23897E+0	7.86768E-3	-46.0189E-12	3.28654E+0	-33.2430E-3
-457.729E-6	-47.0285E-12	3.25453E+0	11.6990E-3	-46.7749E-12	3.29319E+0	-22.6836E-3
-462.731E-6	-47.7759E-12	3.24739E+0	-788.329E-6	-48.0954E-12	3.32480E+0	-2.96221E-3
-467.734E-6	-48.7739E-12	3.24789E+0	-13.1177E-3	-49.6054E-12	3.34313E+0	2.70662E-3
-472.736E-6	-50.2892E-12	3.25016E+0	-9.22188E-3	-50.6740E-12	3.33910E+0	3.35690E-3
-477.739E-6	-50.9895E-12	3.24901E+0	-10.2852E-3	-51.8111E-12	3.34947E+0	-8.90023E-3
-482.741E-6	-51.6261E-12	3.27185E+0	-13.1447E-3	-53.5038E-12	3.36137E+0	-34.2974E-3
-487.744E-6	-52.8220E-12	3.28832E+0	-2.59216E-3	-54.5780E-12	3.34719E+0	-37.3007E-3
-492.746E-6	-54.5466E-12	3.27224E+0	-4.77095E-3	-55.4660E-12	3.33567E+0	-25.0158E-3
-497.749E-6	-55.8624E-12	3.26253E+0	-28.5322E-3	-56.7452E-12	3.32876E+0	-35.2486E-3
-502.751E-6	-56.7645E-12	3.28021E+0	-50.8302E-3	-58.3316E-12	3.30700E+0	-42.6782E-3
-507.754E-6	-58.1257E-12	3.29126E+0	-45.7137E-3	-59.1932E-12	3.27515E+0	-32.9453E-3
-512.756E-6	-59.9311E-12	3.28742E+0	-20.5345E-3	-59.7023E-12	3.25349E+0	-29.3071E-3
-517.759E-6	-61.3006E-12	3.28943E+0	-11.9707E-3	-60.7050E-12	3.24539E+0	-26.2047E-3
-522.761E-6	-62.3841E-12	3.30712E+0	-22.5290E-3	-62.0447E-12	3.23701E+0	-27.0843E-3
-527.764E-6	-63.6740E-12	3.34017E+0	-25.9549E-3	-63.1588E-12	3.21639E+0	-34.9396E-3
-532.766E-6	-65.0881E-12	3.36154E+0	-7.69741E-3	-63.2279E-12	3.18328E+0	-43.8997E-3
-537.769E-6	-65.8974E-12	3.34809E+0	8.99886E-3	-64.8320E-12	3.17542E+0	-49.8664E-3
-542.771E-6	-66.9098E-12	3.31575E+0	5.85814E-3	-66.0655E-12	3.17784E+0	-41.8443E-3
-547.774E-6	-68.0291E-12	3.27750E+0	-6.89898E-3	-66.9283E-12	3.14764E+0	-24.7781E-3
-552.776E-6	-68.6182E-12	3.25497E+0	-20.8773E-3	-67.4241E-12	3.11483E+0	-10.0721E-3
-557.779E-6	-68.6106E-12	3.26343E+0	-26.5225E-3	-68.7095E-12	3.10505E+0	-8.99773E-3
-562.781E-6	-69.9207E-12	3.25301E+0	-15.5605E-3	-70.0672E-12	3.09545E+0	-13.0253E-3
-567.784E-6	-71.6107E-12	3.18451E+0	-5.35338E-3	-72.1189E-12	3.05901E+0	-13.0532E-3
-572.786E-6	-72.4122E-12	3.11798E+0	-8.55475E-3	-73.6426E-12	3.00563E+0	-16.4269E-3
-577.789E-6	-72.3159E-12	3.09927E+0	-8.58439E-3	-74.3976E-12	2.97269E+0	-1.52913E-3
-582.791E-6	-72.9641E-12	3.06690E+0	-9.73398E-3	-75.3221E-12	2.94991E+0	13.2062E-3
-587.794E-6	-74.9157E-12	3.01324E+0	-15.7731E-3	-76.4037E-12	2.91521E+0	-6.01128E-3
-592.796E-6	-76.1205E-12	2.97864E+0	-11.7194E-3	-77.6151E-12	2.87114E+0	-21.6641E-3
-597.799E-6	-75.8280E-12	2.94944E+0	-192.287E-6	-78.1974E-12	2.82036E+0	-17.4240E-3
-602.801E-6	-76.6391E-12	2.91894E+0	6.94404E-3	-79.3106E-12	2.77507E+0	-10.7682E-3
-607.804E-6	-78.6993E-12	2.88199E+0	7.94131E-3	-79.8373E-12	2.72180E+0	-14.5422E-3
-612.806E-6	-79.9796E-12	2.83290E+0	6.74419E-3	-79.9822E-12	2.68312E+0	-28.5056E-3
-617.809E-6	-80.0859E-12	2.80189E+0	-3.70569E-3	-81.6119E-12	2.66278E+0	-34.1762E-3
-622.811E-6	-80.7449E-12	2.78119E+0	-16.7876E-3	-82.2327E-12	2.61138E+0	-28.6287E-3
-627.814E-6	-82.2481E-12	2.72720E+0	-21.8872E-3	-82.8498E-12	2.55353E+0	-19.8469E-3
-632.816E-6	-83.0741E-12	2.66208E+0	-20.6110E-3	-83.1404E-12	2.51904E+0	-29.6585E-3
-637.819E-6	-83.9843E-12	2.61395E+0	-6.40975E-3	-84.5860E-12	2.48432E+0	-52.3112E-3
-642.821E-6	-84.4080E-12	2.57312E+0	14.5488E-3	-84.8251E-12	2.41970E+0	-38.9708E-3
-647.824E-6	-85.8957E-12	2.54322E+0	19.5159E-3	-85.7931E-12	2.35716E+0	-17.5764E-3
-652.826E-6	-86.6759E-12	2.52133E+0	2.68956E-3	-86.3393E-12	2.31797E+0	-28.4772E-3
-657.829E-6	-86.8836E-12	2.49127E+0	-17.2577E-3	-87.4464E-12	2.26994E+0	-26.7020E-3
-662.831E-6	-87.0660E-12	2.44573E+0	-26.8960E-3	-88.4789E-12	2.23281E+0	-9.63468E-3
-667.834E-6	-88.5754E-12	2.39711E+0	-24.7186E-3	-88.6197E-12	2.20549E+0	-16.8082E-3
-672.836E-6	-89.3632E-12	2.33887E+0	-15.6923E-3	-89.1377E-12	2.15624E+0	-22.6072E-3
-677.839E-6	-90.0919E-12	2.28583E+0	-5.06492E-3	-90.2539E-12	2.10274E+0	-22.7733E-3
-682.841E-6	-90.1424E-12	2.25897E+0	-8.53216E-3	-91.3414E-12	2.05164E+0	-38.8033E-3
-687.844E-6	-91.2344E-12	2.22581E+0	-21.7164E-3	-91.1655E-12	1.99529E+0	-28.2059E-3
-692.846E-6	-92.1821E-12	2.16760E+0	-19.1154E-3	-91.5897E-12	1.95153E+0	5.20406E-3
-697.849E-6	-92.9717E-12	2.11690E+0	-15.9912E-3	-92.4454E-12	1.91141E+0	2.47001E-3
-702.851E-6	-93.6937E-12	2.08617E+0	-9.64095E-3	-93.8499E-12	1.85651E+0	-15.0377E-3
-707.854E-6	-93.7629E-12	2.04466E+0	-5.16979E-3	-93.6007E-12	1.80399E+0	-9.63914E-3
-712.856E-6	-94.3019E-12	1.98619E+0	-27.1953E-3	-94.8596E-12	1.77083E+0	-2.75490E-3
-717.859E-6	-95.3345E-12	1.92041E+0	-47.6814E-3	-96.0664E-12	1.73570E+0	-639.962E-6
-722.861E-6	-96.2467E-12	1.85696E+0	-46.3449E-3	-96.3471E-12	1.68298E+0	4.57193E-3
-727.864E-6	-96.3232E-12	1.81868E+0	-30.9695E-3	-97.6095E-12	1.63396E+0	-6.01305E-3
-732.866E-6	-96.0712E-12	1.78780E+0	-19.7007E-3	-98.5874E-12	1.59166E+0	-25.8332E-3
-737.869E-6	-96.8566E-12	1.72895E+0	-15.7340E-3	-99.4922E-12	1.55877E+0	-32.2510E-3
-742.871E-6	-98.1645E-12	1.66840E+0	-10.9673E-3	-99.4782E-12	1.53087E+0	-31.6183E-3
-747.874E-6	-98.7828E-12	1.63864E+0	-1.82619E-3	-100.590E-12	1.48749E+0	-31.4046E-3
-752.876E-6	-99.1564E-12	1.61334E+0	5.92089E-3	-101.550E-12	1.43900E+0	-21.6738E-3
-757.879E-6	-100.264E-12	1.56190E+0	-6.37328E-3	-101.672E-12	1.38448E+0	-7.70292E-3
-762.881E-6	-101.706E-12	1.51161E+0	-28.9758E-3	-101.522E-12	1.31876E+0	-7.20058E-3
-767.884E-6	-102.542E-12	1.48323E+0	-36.1586E-3	-101.910E-12	1.27578E+0	-9.90049E-3
-772.886E-6	-101.383E-12	1.46542E+0	-34.5945E-3	-102.318E-12	1.24839E+0	-9.58198E-3
-777.889E-6	-102.934E-12	1.43748E+0	-25.2339E-3	-102.617E-12	1.19080E+0	-18.6391E-3
-782.891E-6	-103.643E-12	1.38090E+0	-12.7786E-3	-103.011E-12	1.13476E+0	-17.7854E-3
-787.894E-6	-104.095E-12	1.32425E+0	-22.6124E-3	-103.098E-12	1.12270E+0	-8.97770E-3
-792.896E-6	-104.339E-12	1.28823E+0	-25.2810E-3	-103.928E-12	1.11442E+0	-21.2439E-3
-797.899E-6	-105.031E-12	1.26094E+0	-18.9587E-3	-104.432E-12	1.07561E+0	-17.5090E-3
-802.901E-6	-105.910E-12	1.21344E+0	-25.1297E-3	-104.691E-12	1.01685E+0	9.67625E-3
-807.904E-6	-104.863E-12	1.16580E+0	-23.8403E-3	-104.985E-12	975.370E-3	-1.86890E-3
-812.906E-6	-105.885E-12	1.13304E+0	-14.8477E-3	-105.634E-12	953.965E-3	-33.0219E-3
-817.909E-6	-105.285E-12	1.08677E+0	-7.86530E-3	-106.996E-12	911.192E-3	-25.8091E-3
-822.911E-6	-105.506E-12	1.05439E+0	-5.32087E-3	-107.907E-12	874.122E-3	5.69993E-3
-827.914E-6	-105.427E-12	1.03083E+0	-27.1071E-3	-107.429E-12	868.107E-3	19.7630E-3
-832.916E-6	-106.027E-12	984.190E-3	-56.4488E-3	-108.288E-12	849.457E-3	3.93722E-3
-837.919E-6	-106.288E-12	929.758E-3	-51.3009E-3	-108.776E-12	813.105E-3	-21.1534E-3
-842.921E-6	-106.732E-12	894.944E-3	-30.9824E-3	-109.744E-12	781.595E-3	-29.8551E-3
-847.924E-6	-106.988E-12	863.326E-3	-21.3913E-3	-109.584E-12	758.637E-3	-23.5093E-3
-852.926E-6	-107.335E-12	833.447E-3	-12.4776E-3	-109.430E-12	743.161E-3	-25.1077E-3
-857.929E-6	-108.125E-12	822.898E-3	4.87321E-3	-108.964E-12	705.595E-3	-17.9814E-3
-862.931E-6	-107.946E-12	799.302E-3	15.5082E-3	-109.097E-12	654.532E-3	-5.21731E-3
-867.934E-6	-108.040E-12	762.056E-3	6.23384E-3	-110.145E-12	616.325E-3	-12.2605E-3
-872.936E-6	-107.790E-12	729.525E-3	-2.91881E-3	-109.644E-12	584.751E-3	-22.1826E-3
-877.939E-6	-108.714E-12	693.435E-3	5.73623E-3	-108.612E-12	568.945E-3	-32.7857E-3
-882.941E-6	-108.331E-12	674.534E-3	-62.0379E-6	-108.282E-12	554.530E-3	-28.3356E-3
-887.944E-6	-108.798E-12	662.265E-3	-25.7939E-3	-109.655E-12	517.763E-3	-8.02080E-3
-892.946E-6	-109.043E-12	614.322E-3	-25.2663E-3	-109.429E-12	485.793E-3	-3.79490E-3
-897.949E-6	-108.850E-12	567.975E-3	-13.4573E-3	-109.032E-12	483.731E-3	-954.511E-6
-902.951E-6	-109.391E-12	551.936E-3	-18.4605E-3	-108.652E-12	494.733E-3	4.82492E-3
-907.954E-6	-108.474E-12	543.810E-3	-10.7000E-3	-109.214E-12	492.106E-3	-2.35683E-3
-912.956E-6	-108.846E-12	542.070E-3	-3.66389E-3	-110.350E-12	472.095E-3	-16.5516E-3
-917.959E-6	-108.232E-12	534.468E-3	-16.1994E-3	-110.485E-12	441.553E-3	-14.4853E-3
-922.961E-6	-109.489E-12	510.893E-3	-30.8089E-3	-110.620E-12	415.683E-3	6.51425E-3
-927.964E-6	-109.019E-12	485.534E-3	-36.6702E-3	-110.676E-12	419.276E-3	20.9798E-3
-932.966E-6	-109.496E-12	467.003E-3	-29.3906E-3	-111.466E-12	407.788E-3	15.3705E-3
-937.969E-6	-109.538E-12	456.727E-3	-26.1046E-3	-112.219E-12	352.162E-3	-799.500E-6
-942.971E-6	-109.950E-12	427.251E-3	-37.9808E-3	-111.622E-12	320.462E-3	-6.24552E-3
-947.974E-6	-110.206E-12	392.382E-3	-36.5388E-3	-110.173E-12	332.386E-3	-7.38182E-3
-952.976E-6	-110.674E-12	378.355E-3	-13.1517E-3	-110.939E-12	345.298E-3	-17.0299E-3
-957.979E-6	-110.302E-12	376.445E-3	-2.67682E-3	-112.655E-12	332.146E-3	-17.1194E-3
-962.981E-6	-110.051E-12	370.315E-3	-8.64332E-3	-112.269E-12	304.320E-3	377.807E-6
-967.984E-6	-110.565E-12	346.240E-3	-15.4249E-3	-111.655E-12	288.783E-3	12.1399E-3
-972.986E-6	-110.293E-12	325.959E-3	-21.6155E-3	-111.689E-12	288.551E-3	11.0612E-3
-977.989E-6	-110.572E-12	323.090E-3	-3.33875E-3	-112.257E-12	283.750E-3	4.02291E-3
-982.991E-6	-110.528E-12	327.325E-3	17.9866E-3	-112.919E-12	275.656E-3	-11.1181E-3
-987.994E-6	-110.552E-12	328.979E-3	18.2933E-3	-112.913E-12	286.846E-3	-13.5479E-3
-992.997E-6	-110.195E-12	324.797E-3	14.3541E-3	-112.020E-12	287.725E-3	-2.39528E-3
-997.999E-6	-110.834E-12	313.363E-3	2.28932E-3	-111.932E-12	250.960E-3	2.61384E-3
-1.00300E-3	-111.684E-12	299.494E-3	-6.35150E-3	-113.537E-12	230.064E-3	-8.84612E-3
-1.00800E-3	-111.727E-12	290.212E-3	7.35466E-3	-114.002E-12	244.295E-3	-31.1258E-3
-1.01301E-3	-111.930E-12	280.620E-3	23.8101E-3	-113.832E-12	253.559E-3	-20.2501E-3
-1.01801E-3	-111.115E-12	270.759E-3	18.2217E-3	-112.351E-12	253.696E-3	8.55271E-3
-1.02301E-3	-112.262E-12	261.749E-3	7.10107E-3	-112.084E-12	244.055E-3	-7.41491E-3
-1.02801E-3	-112.679E-12	249.458E-3	4.80017E-3	-112.871E-12	229.123E-3	-28.2278E-3
-1.03302E-3	-113.013E-12	244.209E-3	4.88453E-3	-112.932E-12	230.776E-3	-14.5360E-3
-1.03802E-3	-112.299E-12	250.081E-3	-2.92262E-3	-111.771E-12	235.162E-3	-17.3489E-3
-1.04302E-3	-113.315E-12	255.002E-3	-5.73359E-3	-111.540E-12	228.861E-3	-29.3140E-3
-1.04802E-3	-113.835E-12	251.287E-3	-10.4974E-3	-112.054E-12	220.776E-3	-39.1649E-3
-1.05303E-3	-113.537E-12	249.094E-3	-25.2813E-3	-113.214E-12	216.439E-3	-59.9797E-3
-1.05803E-3	-112.993E-12	246.306E-3	-22.0228E-3	-112.646E-12	213.453E-3	-65.8407E-3
-1.06303E-3	-113.224E-12	223.082E-3	-18.6938E-3	-113.001E-12	215.608E-3	-60.9133E-3
-1.06803E-3	-114.266E-12	199.155E-3	-14.9227E-3	-113.260E-12	219.274E-3	-66.0688E-3
-1.07304E-3	-114.387E-12	192.107E-3	9.74120E-3	-114.116E-12	210.210E-3	-68.3243E-3
-1.07804E-3	-113.459E-12	193.042E-3	11.2201E-3	-113.732E-12	214.954E-3	-58.8033E-3
-1.08304E-3	-112.691E-12	214.822E-3	-18.5548E-3	-114.097E-12	230.709E-3	-51.0682E-3
-1.08804E-3	-113.347E-12	233.800E-3	-26.1054E-3	-114.008E-12	213.186E-3	-35.0044E-3
-1.09305E-3	-114.326E-12	215.974E-3	-5.53991E-3	-114.954E-12	201.809E-3	-16.8088E-3
-1.09805E-3	-113.652E-12	201.940E-3	-4.15964E-3	-115.065E-12	221.000E-3	-7.63464E-3
-1.10305E-3	-113.159E-12	209.033E-3	-14.7418E-3	-114.580E-12	233.626E-3	-12.2518E-3
-1.10805E-3	-113.211E-12	204.933E-3	-17.3087E-3	-114.380E-12	233.539E-3	-27.7039E-3
-1.11306E-3	-114.660E-12	199.853E-3	-29.3196E-3	-114.428E-12	230.730E-3	-34.1191E-3
-1.11806E-3	-114.780E-12	225.866E-3	-45.7942E-3	-114.314E-12	246.673E-3	-26.5850E-3
-1.12306E-3	-114.445E-12	241.472E-3	-44.9873E-3	-113.533E-12	273.826E-3	-19.4438E-3
-1.12806E-3	-114.717E-12	225.232E-3	-24.6867E-3	-112.416E-12	276.188E-3	-14.8786E-3
-1.13307E-3	-115.268E-12	223.364E-3	-4.63615E-3	-112.404E-12	258.479E-3	-17.8988E-3
-1.13807E-3	-115.980E-12	235.263E-3	3.04715E-3	-112.929E-12	253.058E-3	-26.8134E-3
-1.14307E-3	-115.977E-12	243.252E-3	1.41683E-3	-112.603E-12	259.420E-3	-26.3520E-3
-1.14807E-3	-115.653E-12	245.131E-3	-6.79118E-3	-112.360E-12	253.236E-3	-32.5986E-3
-1.15308E-3	-115.624E-12	233.542E-3	-21.5522E-3	-112.715E-12	236.359E-3	-31.1787E-3
-1.15808E-3	-116.055E-12	225.891E-3	-28.0501E-3	-113.568E-12	230.172E-3	-29.7781E-3
-1.16308E-3	-116.012E-12	239.250E-3	-20.8432E-3	-113.846E-12	248.919E-3	-45.2798E-3
-1.16808E-3	-115.424E-12	250.944E-3	-13.1659E-3	-114.103E-12	263.371E-3	-32.2211E-3
-1.17309E-3	-115.097E-12	243.772E-3	-14.8494E-3	-114.688E-12	273.708E-3	-10.9578E-3
-1.17809E-3	-114.884E-12	237.465E-3	-29.2738E-3	-115.478E-12	293.069E-3	-20.2272E-3
-1.18309E-3	-114.984E-12	257.865E-3	-33.6206E-3	-115.517E-12	289.879E-3	-31.4425E-3
-1.18809E-3	-114.874E-12	270.238E-3	-16.4671E-3	-115.805E-12	274.343E-3	-21.9826E-3
-1.19310E-3	-114.870E-12	261.968E-3	-12.7779E-3	-115.831E-12	274.590E-3	-14.0014E-3
-1.19810E-3	-114.260E-12	256.455E-3	-32.2395E-3	-115.670E-12	288.565E-3	-18.1616E-3
-1.20310E-3	-114.460E-12	245.944E-3	-37.3270E-3	-115.783E-12	303.431E-3	-12.4805E-3
-1.20810E-3	-114.422E-12	260.783E-3	-32.5225E-3	-115.470E-12	312.399E-3	-6.84938E-3
-1.21311E-3	-114.593E-12	291.076E-3	-34.2694E-3	-114.497E-12	312.359E-3	-3.04646E-3
-1.21811E-3	-115.504E-12	283.753E-3	-28.9927E-3	-114.309E-12	315.182E-3	1.37873E-3
-1.22311E-3	-115.556E-12	274.650E-3	-35.4030E-3	-114.595E-12	334.075E-3	-22.2227E-3
-1.22811E-3	-116.077E-12	293.300E-3	-49.0650E-3	-114.975E-12	354.517E-3	-40.8142E-3
-1.23312E-3	-116.241E-12	318.136E-3	-50.1202E-3	-114.921E-12	364.658E-3	-30.0271E-3
-1.23812E-3	-116.404E-12	340.091E-3	-39.4655E-3	-114.856E-12	362.034E-3	-28.7265E-3
-1.24312E-3	-117.143E-12	353.290E-3	-11.5898E-3	-115.755E-12	356.945E-3	-26.9357E-3
-1.24812E-3	-116.915E-12	351.859E-3	11.1647E-3	-116.617E-12	354.449E-3	-15.3627E-3
-1.25313E-3	-116.905E-12	346.565E-3	9.53466E-3	-117.400E-12	360.411E-3	-14.4965E-3
-1.25813E-3	-116.354E-12	356.331E-3	5.56938E-3	-116.638E-12	374.777E-3	-29.1921E-3
-1.26313E-3	-117.470E-12	364.665E-3	9.65181E-3	-116.927E-12	387.513E-3	-58.7071E-3
-1.26813E-3	-118.110E-12	350.197E-3	1.20217E-3	-117.086E-12	404.872E-3	-68.1663E-3
-1.27314E-3	-117.351E-12	348.866E-3	-11.8740E-3	-118.159E-12	412.427E-3	-51.0076E-3
-1.27814E-3	-117.422E-12	373.558E-3	-5.01372E-3	-117.936E-12	408.339E-3	-39.6412E-3
-1.28314E-3	-117.754E-12	384.080E-3	11.5308E-3	-117.620E-12	412.527E-3	-24.7335E-3
-1.28814E-3	-118.486E-12	385.712E-3	15.4198E-3	-117.392E-12	415.969E-3	-10.7420E-3
-1.29315E-3	-118.096E-12	395.999E-3	986.982E-6	-117.805E-12	415.935E-3	-12.8259E-3
-1.29815E-3	-118.417E-12	404.608E-3	-14.3265E-3	-117.406E-12	429.305E-3	-16.0588E-3
-1.30315E-3	-118.274E-12	404.027E-3	-9.74480E-3	-116.722E-12	433.064E-3	-20.1556E-3
-1.30815E-3	-117.971E-12	406.542E-3	370.702E-6	-117.214E-12	415.197E-3	-18.7032E-3
-1.31316E-3	-118.019E-12	420.040E-3	5.20546E-3	-118.044E-12	414.635E-3	-6.58102E-3
-1.31816E-3	-117.947E-12	439.359E-3	-2.19315E-3	-118.196E-12	426.966E-3	-18.0945E-3
-1.32316E-3	-118.480E-12	447.109E-3	-24.6523E-3	-117.715E-12	432.839E-3	-41.1845E-3
-1.32816E-3	-118.350E-12	440.684E-3	-35.8258E-3	-118.323E-12	447.709E-3	-39.5735E-3
-1.33317E-3	-118.295E-12	450.573E-3	-30.8366E-3	-119.897E-12	461.049E-3	-35.3914E-3
-1.33817E-3	-118.924E-12	450.675E-3	-23.8138E-3	-121.257E-12	460.563E-3	-36.8065E-3
-1.34317E-3	-118.994E-12	439.406E-3	-21.3182E-3	-119.899E-12	453.427E-3	-23.0650E-3
-1.34817E-3	-119.406E-12	460.020E-3	-17.0462E-3	-120.220E-12	452.055E-3	-17.1533E-3
-1.35318E-3	-119.494E-12	484.096E-3	-9.56777E-3	-120.048E-12	483.897E-3	-28.1390E-3
-1.35818E-3	-120.715E-12	487.314E-3	-10.8335E-3	-121.346E-12	528.421E-3	-26.3450E-3
-1.36318E-3	-120.932E-12	489.414E-3	-4.74105E-3	-121.411E-12	536.351E-3	-30.7299E-3
-1.36818E-3	-120.478E-12	501.584E-3	11.4624E-3	-120.885E-12	532.674E-3	-41.6639E-3
-1.37319E-3	-120.698E-12	514.467E-3	8.67626E-3	-120.830E-12	546.621E-3	-20.6317E-3
-1.37819E-3	-121.737E-12	532.185E-3	-7.93316E-3	-121.554E-12	558.974E-3	5.77004E-3
-1.38319E-3	-121.739E-12	543.384E-3	-5.63389E-3	-121.354E-12	557.735E-3	5.17149E-3
-1.38819E-3	-121.570E-12	538.459E-3	6.73562E-3	-120.722E-12	550.145E-3	2.99384E-3
-1.39320E-3	-120.674E-12	534.295E-3	690.098E-6	-120.008E-12	554.264E-3	-2.00059E-3
-1.39820E-3	-120.915E-12	534.009E-3	-21.6597E-3	-119.963E-12	569.160E-3	-11.4156E-3
-1.40320E-3	-120.848E-12	526.178E-3	-42.7426E-3	-120.800E-12	571.794E-3	-3.40911E-3
-1.40820E-3	-121.041E-12	512.377E-3	-45.2334E-3	-121.214E-12	557.517E-3	-232.266E-6
-1.41321E-3	-120.745E-12	506.699E-3	-28.8014E-3	-120.669E-12	537.321E-3	-379.212E-6
-1.41821E-3	-120.478E-12	518.407E-3	-16.7212E-3	-121.605E-12	525.815E-3	11.6693E-3
-1.42321E-3	-119.960E-12	541.374E-3	-24.7610E-3	-122.217E-12	540.554E-3	4.12145E-3
-1.42821E-3	-120.648E-12	554.977E-3	-26.5920E-3	-122.911E-12	565.231E-3	-15.7491E-3
-1.43322E-3	-121.083E-12	551.798E-3	-12.2642E-3	-122.906E-12	568.320E-3	-26.2218E-3
-1.43822E-3	-121.497E-12	552.515E-3	-9.22008E-3	-122.875E-12	570.853E-3	-35.9752E-3
-1.44322E-3	-121.402E-12	575.628E-3	-16.4342E-3	-122.717E-12	580.665E-3	-46.8909E-3
-1.44822E-3	-123.116E-12	587.817E-3	-24.0354E-3	-122.929E-12	585.936E-3	-45.1502E-3
-1.45323E-3	-123.786E-12	581.926E-3	-37.4153E-3	-123.172E-12	597.228E-3	-27.8762E-3
-1.45823E-3	-124.538E-12	574.967E-3	-35.7495E-3	-123.058E-12	610.350E-3	-12.5804E-3
-1.46323E-3	-123.608E-12	584.491E-3	-13.8658E-3	-122.360E-12	614.064E-3	-879.613E-6
-1.46823E-3	-124.439E-12	614.205E-3	-2.33861E-3	-122.222E-12	612.328E-3	114.946E-6
-1.47324E-3	-124.851E-12	623.586E-3	-10.0745E-3	-122.379E-12	610.829E-3	-21.8996E-3
-1.47824E-3	-125.673E-12	609.926E-3	-16.8783E-3	-122.167E-12	613.630E-3	-38.5479E-3
-1.48324E-3	-124.248E-12	602.649E-3	-20.7220E-3	-121.536E-12	616.511E-3	-29.7330E-3
-1.48824E-3	-124.288E-12	594.959E-3	-21.6120E-3	-122.196E-12	612.496E-3	-17.2946E-3
-1.49325E-3	-125.252E-12	589.184E-3	-9.63060E-3	-122.422E-12	600.126E-3	-11.2050E-3
-1.49825E-3	-125.174E-12	610.925E-3	-6.46067E-3	-123.109E-12	600.381E-3	-15.7786E-3
-1.50325E-3	-124.954E-12	638.024E-3	-12.9086E-3	-122.596E-12	619.730E-3	-28.0523E-3
-1.50825E-3	-124.155E-12	632.377E-3	-2.41119E-3	-123.165E-12	612.549E-3	-32.6568E-3
-1.51326E-3	-124.078E-12	610.860E-3	11.9675E-3	-124.476E-12	602.989E-3	-13.3388E-3
-1.51826E-3	-124.313E-12	612.842E-3	-12.8222E-3	-125.068E-12	620.279E-3	12.1896E-3
-1.52326E-3	-124.449E-12	627.661E-3	-43.4291E-3	-125.662E-12	628.480E-3	18.1184E-3
-1.52826E-3	-124.244E-12	631.404E-3	-25.8952E-3	-125.830E-12	634.234E-3	9.51773E-3
-1.53327E-3	-124.531E-12	629.300E-3	6.68537E-3	-127.036E-12	649.273E-3	-12.5211E-3
-1.53827E-3	-126.423E-12	627.599E-3	1.98582E-3	-126.642E-12	656.156E-3	-24.8813E-3
-1.54327E-3	-126.796E-12	619.293E-3	-12.3884E-3	-127.029E-12	641.008E-3	-6.65767E-3
-1.54827E-3	-126.670E-12	623.562E-3	-4.33442E-3	-126.027E-12	624.053E-3	5.85023E-3
-1.55328E-3	-126.841E-12	635.579E-3	-5.32742E-3	-126.349E-12	624.686E-3	-15.4046E-3
-1.55828E-3	-127.508E-12	639.370E-3	-16.7548E-3	-127.494E-12	623.357E-3	-39.1014E-3
-1.56328E-3	-128.499E-12	647.943E-3	-26.3350E-3	-127.500E-12	617.522E-3	-54.1352E-3
-1.56828E-3	-128.803E-12	639.689E-3	-11.8586E-3	-126.581E-12	621.785E-3	-59.3003E-3
-1.57329E-3	-128.813E-12	622.201E-3	18.5243E-3	-126.383E-12	636.467E-3	-31.4555E-3
-1.57829E-3	-128.862E-12	618.497E-3	13.1225E-3	-127.499E-12	653.064E-3	2.25690E-3
-1.58329E-3	-129.812E-12	629.647E-3	-5.97485E-3	-128.398E-12	661.361E-3	-13.7669E-3
-1.58829E-3	-129.394E-12	642.727E-3	660.121E-6	-127.881E-12	656.031E-3	-49.5972E-3
-1.59330E-3	-129.222E-12	638.608E-3	12.9575E-3	-128.037E-12	655.781E-3	-46.0433E-3
-1.59830E-3	-129.488E-12	647.778E-3	-2.54004E-3	-128.936E-12	657.926E-3	-13.3728E-3
-1.60330E-3	-130.216E-12	659.054E-3	-32.0464E-3	-130.216E-12	649.993E-3	11.2061E-3
-1.60830E-3	-129.869E-12	640.599E-3	-52.4162E-3	-130.101E-12	653.341E-3	-3.68433E-3
-1.61331E-3	-129.082E-12	633.155E-3	-58.0490E-3	-130.013E-12	662.463E-3	-23.3961E-3
-1.61831E-3	-128.938E-12	642.995E-3	-39.2716E-3	-130.618E-12	644.701E-3	-7.30646E-3
-1.62331E-3	-130.046E-12	641.750E-3	-12.3849E-3	-131.503E-12	625.633E-3	2.00304E-3
-1.62831E-3	-130.788E-12	641.230E-3	1.50473E-3	-131.115E-12	642.145E-3	-13.6106E-3
-1.63332E-3	-129.588E-12	621.061E-3	-537.493E-6	-131.104E-12	652.170E-3	-19.4074E-3
-1.63832E-3	-129.251E-12	586.425E-3	-21.6828E-3	-131.280E-12	641.315E-3	-6.59780E-3
-1.64332E-3	-130.567E-12	602.828E-3	-35.9054E-3	-131.484E-12	637.759E-3	-836.696E-6
-1.64832E-3	-131.803E-12	648.991E-3	-25.8161E-3	-131.577E-12	627.134E-3	-15.9977E-3
-1.65333E-3	-131.218E-12	657.087E-3	-14.2356E-3	-131.331E-12	622.832E-3	-30.0445E-3
-1.65833E-3	-130.861E-12	632.544E-3	-636.475E-6	-132.032E-12	643.502E-3	-26.7023E-3
-1.66333E-3	-131.681E-12	630.821E-3	6.30742E-3	-132.906E-12	667.219E-3	-22.1260E-3
-1.66833E-3	-132.036E-12	658.638E-3	-12.5462E-3	-132.596E-12	674.614E-3	-17.7877E-3
-1.67334E-3	-132.231E-12	665.130E-3	-31.6457E-3	-132.862E-12	669.070E-3	-8.47930E-3
-1.67834E-3	-130.916E-12	639.274E-3	-28.5331E-3	-133.728E-12	666.528E-3	-101.580E-6
-1.68334E-3	-131.910E-12	633.406E-3	-21.2218E-3	-134.499E-12	663.387E-3	190.499E-6
-1.68834E-3	-132.801E-12	658.149E-3	-20.4233E-3	-134.741E-12	662.051E-3	-2.98654E-3
-1.69335E-3	-134.007E-12	671.534E-3	-21.9556E-3	-134.615E-12	657.354E-3	-1.67849E-3
-1.69835E-3	-134.026E-12	656.939E-3	-19.0664E-3	-134.649E-12	644.243E-3	-6.29460E-3
-1.70335E-3	-134.416E-12	629.964E-3	-10.6856E-3	-134.520E-12	645.833E-3	-6.99190E-3
-1.70835E-3	-135.154E-12	625.828E-3	-14.1916E-3	-134.679E-12	653.108E-3	-11.8248E-3
-1.71336E-3	-135.298E-12	637.659E-3	-12.1289E-3	-133.935E-12	640.055E-3	-34.3943E-3
-1.71836E-3	-135.027E-12	629.972E-3	-805.760E-6	-133.501E-12	632.226E-3	-39.7164E-3
-1.72336E-3	-134.188E-12	633.166E-3	-9.75240E-3	-132.892E-12	650.019E-3	-41.6379E-3
-1.72836E-3	-135.762E-12	643.577E-3	-21.3774E-3	-132.916E-12	670.014E-3	-47.0921E-3
-1.73337E-3	-134.426E-12	622.425E-3	-12.8107E-3	-133.012E-12	677.330E-3	-31.6362E-3
-1.73837E-3	-134.364E-12	607.204E-3	1.50418E-3	-132.447E-12	661.473E-3	-18.4471E-3
-1.74337E-3	-133.472E-12	614.333E-3	-5.20095E-3	-132.433E-12	624.975E-3	-5.71988E-3
-1.74837E-3	-134.084E-12	635.619E-3	-22.0229E-3	-132.522E-12	602.985E-3	13.8347E-3
-1.75338E-3	-134.151E-12	655.645E-3	-24.3974E-3	-133.795E-12	617.040E-3	16.0293E-3
-1.75838E-3	-134.206E-12	653.824E-3	-31.5452E-3	-134.264E-12	626.332E-3	-3.87147E-3
-1.76338E-3	-134.085E-12	650.021E-3	-50.2292E-3	-134.251E-12	636.308E-3	-8.38900E-3
-1.76838E-3	-135.831E-12	654.795E-3	-47.0658E-3	-135.048E-12	671.565E-3	14.1916E-3
-1.77339E-3	-136.577E-12	653.849E-3	-20.9787E-3	-136.397E-12	684.902E-3	11.2283E-3
-1.77839E-3	-136.194E-12	657.316E-3	-474.644E-6	-137.694E-12	661.583E-3	-6.19716E-3
-1.78339E-3	-136.433E-12	658.060E-3	5.87199E-3	-137.460E-12	633.662E-3	-524.737E-6
-1.78839E-3	-137.758E-12	643.091E-3	6.20710E-3	-137.632E-12	632.260E-3	11.3271E-3
-1.79340E-3	-138.620E-12	644.272E-3	14.2321E-3	-138.296E-12	652.009E-3	4.92470E-3
-1.79840E-3	-138.531E-12	655.716E-3	20.7660E-3	-138.982E-12	665.231E-3	-19.2961E-3
-1.80340E-3	-139.099E-12	654.192E-3	9.95588E-3	-138.955E-12	661.825E-3	-28.8779E-3
-1.80840E-3	-139.172E-12	643.572E-3	-54.3821E-6	-137.417E-12	658.208E-3	-15.7108E-3
-1.81341E-3	-139.863E-12	643.726E-3	-11.7697E-3	-137.847E-12	654.347E-3	-2.31071E-3
-1.81841E-3	-139.595E-12	658.946E-3	-28.1451E-3	-138.827E-12	627.880E-3	20.3680E-3
-1.82341E-3	-139.398E-12	651.958E-3	-41.6655E-3	-138.604E-12	625.401E-3	38.5596E-3
-1.82841E-3	-139.112E-12	627.813E-3	-45.3889E-3	-137.043E-12	646.127E-3	10.5334E-3
-1.83342E-3	-139.745E-12	638.837E-3	-23.9111E-3	-137.065E-12	641.962E-3	-31.6677E-3
-1.83842E-3	-139.303E-12	665.074E-3	-3.92038E-3	-138.256E-12	655.649E-3	-43.7990E-3
-1.84342E-3	-138.738E-12	668.140E-3	-7.14365E-3	-139.014E-12	679.716E-3	-31.2621E-3
-1.84842E-3	-138.237E-12	656.287E-3	-18.7429E-3	-138.947E-12	683.111E-3	-23.1294E-3
-1.85343E-3	-139.092E-12	633.732E-3	-16.9240E-3	-139.017E-12	683.486E-3	-34.1560E-3
-1.85843E-3	-139.017E-12	612.162E-3	7.72253E-3	-139.948E-12	680.052E-3	-40.2121E-3
-1.86343E-3	-139.600E-12	610.030E-3	13.0039E-3	-142.943E-12	666.665E-3	-32.6478E-3
-1.86843E-3	-139.786E-12	626.493E-3	-6.28029E-3	-142.904E-12	639.869E-3	-31.5341E-3
-1.87344E-3	-141.294E-12	642.590E-3	-10.0378E-3	-143.226E-12	624.683E-3	-40.1771E-3
-1.87844E-3	-141.727E-12	634.562E-3	-2.13278E-3	-143.308E-12	644.719E-3	-38.6148E-3
-1.88344E-3	-140.944E-12	614.051E-3	5.61396E-3	-144.154E-12	657.489E-3	-27.1973E-3
-1.88844E-3	-141.160E-12	619.193E-3	15.3715E-3	-144.749E-12	643.617E-3	-27.4974E-3
-1.89345E-3	-141.536E-12	646.598E-3	24.7081E-3	-144.363E-12	638.469E-3	-28.0675E-3
-1.89845E-3	-143.029E-12	654.111E-3	10.8991E-3	-143.540E-12	641.959E-3	-16.9670E-3
-1.90345E-3	-143.504E-12	645.801E-3	-27.4256E-3	-142.652E-12	649.022E-3	-6.52692E-3
-1.90845E-3	-142.756E-12	641.431E-3	-56.9903E-3	-142.602E-12	654.715E-3	-11.1162E-3
-1.91346E-3	-142.403E-12	640.347E-3	-59.0818E-3	-142.897E-12	649.694E-3	-20.9023E-3
-1.91846E-3	-142.524E-12	653.718E-3	-41.2613E-3	-143.031E-12	652.960E-3	-18.5187E-3
-1.92346E-3	-143.840E-12	659.065E-3	-27.8749E-3	-142.381E-12	662.720E-3	-20.5738E-3
-1.92846E-3	-143.411E-12	660.574E-3	-19.8850E-3	-142.696E-12	654.526E-3	-34.5572E-3
-1.93347E-3	-142.971E-12	670.623E-3	-8.11147E-3	-143.939E-12	633.777E-3	-43.4552E-3
-1.93847E-3	-142.795E-12	677.220E-3	-8.66797E-3	-144.432E-12	637.025E-3	-42.7094E-3
-1.94347E-3	-144.424E-12	684.923E-3	-21.9337E-3	-143.987E-12	659.311E-3	-39.1766E-3
-1.94847E-3	-146.177E-12	669.635E-3	-16.8871E-3	-145.461E-12	661.366E-3	-40.1811E-3
-1.95348E-3	-144.950E-12	654.446E-3	2.33218E-3	-146.388E-12	648.846E-3	-38.7286E-3
-1.95848E-3	-145.430E-12	669.004E-3	112.767E-6	-147.403E-12	639.298E-3	-16.9133E-3
-1.96348E-3	-145.979E-12	664.123E-3	-6.30539E-3	-146.791E-12	626.361E-3	15.7487E-3
-1.96848E-3	-147.274E-12	633.418E-3	-9.04394E-3	-146.182E-12	612.028E-3	20.5539E-3
-1.97349E-3	-146.786E-12	645.812E-3	-26.4568E-3	-146.209E-12	610.119E-3	9.80259E-3
-1.97849E-3	-147.442E-12	688.061E-3	-25.2628E-3	-146.964E-12	619.010E-3	1.56034E-3
-1.98349E-3	-146.883E-12	701.092E-3	7.76300E-3	-146.469E-12	622.523E-3	-26.6282E-3
-1.98849E-3	-147.253E-12	683.264E-3	24.7667E-3	-145.508E-12	620.491E-3	-55.4115E-3
-1.99350E-3	-147.771E-12	652.639E-3	787.990E-6	-145.540E-12	631.223E-3	-36.5631E-3
-1.99850E-3	-146.990E-12	643.346E-3	-15.1865E-3	-145.821E-12	646.191E-3	569.310E-6
-2.00350E-3	-145.920E-12	649.525E-3	-13.0890E-3	-145.949E-12	651.356E-3	-7.46804E-3
-2.00850E-3	-145.991E-12	642.062E-3	-35.9043E-3	-145.458E-12	659.202E-3	-16.1128E-3
-2.01351E-3	-146.582E-12	653.118E-3	-45.4644E-3	-144.953E-12	670.314E-3	12.9769E-3
-2.01851E-3	-145.563E-12	671.053E-3	-19.2929E-3	-144.746E-12	663.123E-3	31.3449E-3
-2.02351E-3	-145.928E-12	661.344E-3	-9.21865E-3	-145.236E-12	641.480E-3	30.0555E-3
-2.02851E-3	-146.282E-12	644.963E-3	-20.2804E-3	-145.815E-12	641.416E-3	20.9359E-3
-2.03352E-3	-147.410E-12	638.267E-3	-33.1553E-3	-145.795E-12	650.168E-3	3.73808E-3
-2.03852E-3	-148.305E-12	653.849E-3	-38.1543E-3	-146.760E-12	653.412E-3	-16.2668E-3
-2.04352E-3	-147.289E-12	667.352E-3	-15.7948E-3	-147.692E-12	661.350E-3	-24.3403E-3
-2.04852E-3	-146.828E-12	656.537E-3	-18.9758E-3	-148.139E-12	661.677E-3	-18.8671E-3
-2.05353E-3	-147.709E-12	640.085E-3	-52.7316E-3	-147.805E-12	661.066E-3	-5.95395E-3
-2.05853E-3	-149.504E-12	633.507E-3	-53.2404E-3	-148.251E-12	651.848E-3	17.7718E-3
-2.06353E-3	-148.136E-12	646.380E-3	-18.9579E-3	-148.369E-12	642.053E-3	19.2813E-3
-2.06853E-3	-148.830E-12	662.150E-3	9.49831E-3	-148.442E-12	654.930E-3	-9.73923E-3
-2.07354E-3	-149.353E-12	664.296E-3	-4.70480E-3	-147.280E-12	670.402E-3	-20.4923E-3
-2.07854E-3	-149.633E-12	657.922E-3	-37.7859E-3	-147.113E-12	667.621E-3	-9.14972E-3
-2.08354E-3	-149.146E-12	661.719E-3	-43.1753E-3	-146.850E-12	649.772E-3	-8.05067E-3
-2.08854E-3	-149.265E-12	672.158E-3	-19.4808E-3	-147.293E-12	627.736E-3	-22.9796E-3
-2.09355E-3	-149.844E-12	669.181E-3	6.90742E-3	-147.332E-12	622.758E-3	-31.3937E-3
-2.09855E-3	-150.079E-12	665.313E-3	4.24552E-3	-148.271E-12	628.361E-3	-31.1319E-3
-2.10355E-3	-150.409E-12	659.097E-3	-12.8820E-3	-147.612E-12	620.459E-3	-23.7017E-3
-2.10855E-3	-150.477E-12	641.071E-3	-8.58386E-3	-148.762E-12	632.662E-3	-16.5874E-3
-2.11356E-3	-150.939E-12	632.985E-3	-492.814E-6	-150.861E-12	664.067E-3	-39.4451E-3
-2.11856E-3	-150.839E-12	635.680E-3	-3.36817E-3	-152.146E-12	674.820E-3	-59.9766E-3
-2.12356E-3	-151.575E-12	645.090E-3	-15.0319E-3	-152.152E-12	683.165E-3	-33.1134E-3
-2.12856E-3	-152.040E-12	656.776E-3	-27.1170E-3	-153.701E-12	700.044E-3	843.305E-6
-2.13357E-3	-152.308E-12	660.924E-3	-38.5018E-3	-154.962E-12	701.811E-3	-4.58249E-3
-2.13857E-3	-152.536E-12	658.967E-3	-39.0469E-3	-155.856E-12	702.343E-3	-19.5830E-3
-2.14357E-3	-152.809E-12	660.304E-3	-32.2674E-3	-155.495E-12	704.992E-3	-14.8381E-3
-2.14857E-3	-152.216E-12	688.908E-3	-35.4180E-3	-155.583E-12	689.128E-3	-10.4863E-3
-2.15358E-3	-151.713E-12	703.839E-3	-28.5656E-3	-155.874E-12	671.774E-3	-17.6240E-3
-2.15858E-3	-152.116E-12	681.183E-3	-21.0589E-3	-156.178E-12	662.100E-3	-37.4841E-3
-2.16358E-3	-152.244E-12	657.204E-3	-28.1566E-3	-155.854E-12	651.445E-3	-38.2306E-3
-2.16858E-3	-152.462E-12	649.127E-3	-16.7485E-3	-154.710E-12	656.778E-3	-13.1394E-3
-2.17359E-3	-152.077E-12	654.262E-3	14.4382E-3	-154.508E-12	672.997E-3	-10.0995E-3
-2.17859E-3	-152.282E-12	646.340E-3	24.6085E-3	-155.433E-12	685.067E-3	-16.3361E-3
-2.18359E-3	-152.811E-12	634.860E-3	10.5309E-3	-154.619E-12	684.870E-3	-22.9980E-3
-2.18859E-3	-154.604E-12	642.604E-3	-4.98386E-3	-153.405E-12	663.969E-3	-34.1277E-3
-2.19360E-3	-153.735E-12	642.654E-3	-18.4065E-3	-154.698E-12	647.714E-3	-21.2999E-3
-2.19860E-3	-154.443E-12	637.001E-3	-24.0309E-3	-156.179E-12	667.293E-3	-16.5078E-3
-2.20360E-3	-155.389E-12	650.292E-3	-25.1175E-3	-156.344E-12	685.856E-3	-21.7894E-3
-2.20860E-3	-157.144E-12	665.892E-3	-30.7782E-3	-156.660E-12	664.066E-3	-14.9775E-3
-2.21361E-3	-156.936E-12	657.417E-3	-21.9296E-3	-159.014E-12	664.028E-3	-14.0737E-3
-2.21861E-3	-157.024E-12	652.467E-3	-12.5527E-3	-159.985E-12	705.170E-3	-10.2044E-3
-2.22361E-3	-158.062E-12	687.652E-3	-25.6497E-3	-160.706E-12	706.867E-3	-4.74153E-3
-2.22861E-3	-159.148E-12	713.479E-3	-20.8508E-3	-160.394E-12	675.887E-3	4.16505E-3
-2.23362E-3	-158.585E-12	701.147E-3	2.17725E-3	-160.624E-12	666.056E-3	8.39879E-3
-2.23862E-3	-158.080E-12	681.684E-3	4.71479E-3	-159.581E-12	658.748E-3	-13.5639E-3
-2.24362E-3	-157.364E-12	672.871E-3	-5.08647E-3	-160.149E-12	660.547E-3	-21.1654E-3
-2.24862E-3	-157.519E-12	689.413E-3	-550.833E-6	-159.161E-12	691.030E-3	-12.6852E-3
-2.25363E-3	-157.441E-12	707.976E-3	29.9494E-3	-159.222E-12	721.334E-3	-24.5384E-3
-2.25863E-3	-157.225E-12	715.597E-3	60.4681E-3	-158.394E-12	731.200E-3	-20.2597E-3
-2.26363E-3	-156.784E-12	719.882E-3	55.6351E-3	-158.972E-12	719.516E-3	-5.65298E-3
-2.26863E-3	-155.690E-12	717.008E-3	22.9622E-3	-158.286E-12	689.021E-3	-10.6043E-3
-2.27364E-3	-155.534E-12	706.529E-3	-3.12560E-3	-158.165E-12	665.322E-3	-29.2008E-3
-2.27864E-3	-156.771E-12	681.891E-3	-16.8396E-3	-159.127E-12	677.721E-3	-37.5576E-3
-2.28364E-3	-156.882E-12	672.919E-3	-32.7640E-3	-159.532E-12	699.003E-3	-27.5909E-3
-2.28864E-3	-157.179E-12	687.660E-3	-30.2692E-3	-159.997E-12	683.797E-3	-15.8041E-3
-2.29365E-3	-157.353E-12	685.289E-3	-3.97892E-3	-160.056E-12	665.056E-3	-1.85503E-3
-2.29865E-3	-158.948E-12	673.169E-3	2.49445E-3	-160.833E-12	687.101E-3	-10.1963E-3
-2.30365E-3	-161.039E-12	688.911E-3	-20.7550E-3	-161.570E-12	717.141E-3	-22.0421E-3
-2.30865E-3	-159.576E-12	705.096E-3	-28.0546E-3	-161.646E-12	723.269E-3	-19.5642E-3
-2.31366E-3	-160.620E-12	690.860E-3	-8.59603E-3	-161.967E-12	701.084E-3	-24.7340E-3
-2.31866E-3	-161.714E-12	682.560E-3	-8.59851E-3	-161.540E-12	672.658E-3	-19.0853E-3
-2.32366E-3	-163.273E-12	684.724E-3	-32.4571E-3	-161.414E-12	677.366E-3	-737.052E-6
-2.32866E-3	-161.683E-12	685.898E-3	-50.3821E-3	-160.755E-12	696.251E-3	-637.879E-6
-2.33367E-3	-161.766E-12	702.575E-3	-32.1438E-3	-160.118E-12	691.624E-3	-9.95436E-3
-2.33867E-3	-161.597E-12	711.425E-3	17.0428E-3	-158.942E-12	688.139E-3	-14.1839E-3
-2.34367E-3	-162.927E-12	691.750E-3	34.6068E-3	-158.279E-12	702.613E-3	-32.9000E-3
-2.34867E-3	-162.344E-12	673.292E-3	9.63103E-3	-158.684E-12	695.459E-3	-44.3556E-3
-2.35368E-3	-161.935E-12	671.977E-3	-19.1513E-3	-159.722E-12	678.085E-3	-37.7309E-3
-2.35868E-3	-162.053E-12	677.777E-3	-27.2376E-3	-159.659E-12	685.319E-3	-52.0423E-3
-2.36368E-3	-162.269E-12	697.058E-3	-18.2333E-3	-159.912E-12	700.430E-3	-53.1551E-3
-2.36868E-3	-162.401E-12	730.013E-3	-9.66481E-3	-161.319E-12	717.789E-3	-25.1648E-3
-2.37369E-3	-162.522E-12	740.531E-3	-7.03339E-3	-162.362E-12	731.953E-3	-19.0256E-3
-2.37869E-3	-163.225E-12	713.621E-3	-12.6738E-3	-163.525E-12	730.192E-3	-28.6918E-3
-2.38369E-3	-162.976E-12	700.807E-3	-15.4958E-3	-164.158E-12	724.294E-3	-27.5565E-3
-2.38869E-3	-164.083E-12	716.237E-3	-18.0477E-3	-165.485E-12	715.689E-3	-32.7255E-3
-2.39370E-3	-164.347E-12	717.099E-3	-20.4330E-3	-165.925E-12	693.731E-3	-45.5889E-3
-2.39870E-3	-164.833E-12	713.263E-3	-4.78860E-3	-167.601E-12	687.296E-3	-33.5572E-3
-2.40370E-3	-164.607E-12	710.594E-3	6.52964E-3	-167.875E-12	718.137E-3	-9.80980E-3
-2.40870E-3	-165.539E-12	710.458E-3	-11.9083E-3	-167.399E-12	742.615E-3	-6.27012E-3
-2.41371E-3	-166.146E-12	723.011E-3	-31.0939E-3	-166.154E-12	731.889E-3	192.043E-6
-2.41871E-3	-165.522E-12	708.463E-3	-29.8895E-3	-165.238E-12	711.670E-3	14.9624E-3
-2.42371E-3	-165.735E-12	687.127E-3	-33.2490E-3	-165.042E-12	694.773E-3	-626.316E-6
-2.42871E-3	-166.472E-12	715.402E-3	-58.1365E-3	-164.784E-12	675.102E-3	-25.2631E-3
-2.43372E-3	-168.054E-12	730.853E-3	-75.3962E-3	-163.843E-12	658.456E-3	-32.8550E-3
-2.43872E-3	-167.782E-12	703.864E-3	-67.6081E-3	-163.328E-12	650.502E-3	-41.5421E-3
-2.44372E-3	-166.960E-12	693.800E-3	-59.2750E-3	-163.687E-12	635.809E-3	-37.7872E-3
-2.44872E-3	-167.426E-12	684.180E-3	-34.0709E-3	-164.334E-12	635.585E-3	-19.4590E-3
-2.45373E-3	-169.056E-12	655.922E-3	2.64221E-3	-166.168E-12	662.075E-3	-14.9986E-3
-2.45873E-3	-170.148E-12	652.600E-3	-22.5876E-3	-167.081E-12	684.113E-3	-14.6054E-3
-2.46373E-3	-168.627E-12	672.764E-3	-66.0773E-3	-168.569E-12	710.819E-3	-8.61977E-3
-2.46873E-3	-169.469E-12	662.505E-3	-61.8786E-3	-170.456E-12	740.437E-3	-30.7414E-3
-2.47374E-3	-170.278E-12	648.531E-3	-40.1657E-3	-172.067E-12	733.497E-3	-50.0662E-3
-2.47874E-3	-171.564E-12	655.477E-3	-35.0103E-3	-172.637E-12	708.265E-3	-13.8076E-3
-2.48374E-3	-170.523E-12	651.538E-3	-51.0230E-3	-173.813E-12	699.079E-3	8.13080E-3
-2.48874E-3	-170.993E-12	671.351E-3	-40.0345E-3	-173.190E-12	679.793E-3	-17.5257E-3
-2.49375E-3	-170.722E-12	706.679E-3	-7.09200E-3	-172.498E-12	671.422E-3	-13.0220E-3
-2.49875E-3	-170.344E-12	707.642E-3	-7.45945E-3	-172.640E-12	684.848E-3	7.35493E-3
-2.50375E-3	-171.032E-12	695.716E-3	-26.0204E-3	-171.893E-12	673.253E-3	-3.34652E-3
-2.50875E-3	-170.820E-12	713.023E-3	-33.7006E-3	-170.748E-12	658.348E-3	-8.71295E-3
-2.51376E-3	-169.156E-12	722.649E-3	-29.1561E-3	-169.072E-12	674.921E-3	-18.0528E-3
-2.51876E-3	-168.661E-12	691.928E-3	-25.8535E-3	-169.604E-12	693.298E-3	-43.7651E-3
-2.52376E-3	-170.415E-12	679.592E-3	-32.7960E-3	-169.878E-12	696.110E-3	-44.5893E-3
-2.52876E-3	-170.650E-12	691.948E-3	-36.6520E-3	-169.140E-12	696.588E-3	-28.6403E-3
-2.53377E-3	-169.598E-12	698.523E-3	-40.7896E-3	-167.968E-12	673.056E-3	-29.9881E-3
-2.53877E-3	-169.711E-12	699.914E-3	-33.7383E-3	-168.892E-12	637.213E-3	-24.0021E-3
-2.54377E-3	-169.595E-12	683.651E-3	-10.4133E-3	-171.285E-12	649.922E-3	-2.73592E-3
-2.54877E-3	-170.369E-12	659.203E-3	-10.1283E-3	-171.451E-12	695.541E-3	-5.89495E-3
-2.55378E-3	-170.721E-12	650.567E-3	-26.1786E-3	-172.112E-12	710.168E-3	-20.5460E-3
-2.55878E-3	-170.539E-12	646.866E-3	-31.8477E-3	-172.563E-12	695.184E-3	-11.9083E-3
-2.56378E-3	-170.719E-12	656.134E-3	-52.5862E-3	-174.697E-12	683.612E-3	-9.55589E-3
-2.56878E-3	-171.113E-12	678.502E-3	-71.1719E-3	-175.586E-12	668.075E-3	-23.0098E-3
-2.57379E-3	-172.486E-12	680.635E-3	-40.8433E-3	-174.401E-12	645.460E-3	-16.0917E-3
-2.57879E-3	-172.559E-12	679.552E-3	7.27291E-3	-173.281E-12	643.743E-3	2.00431E-3
-2.58379E-3	-171.367E-12	691.807E-3	23.8347E-3	-173.503E-12	670.038E-3	20.5833E-3
-2.58879E-3	-171.656E-12	699.211E-3	10.6442E-3	-173.643E-12	690.133E-3	21.4861E-3
-2.59380E-3	-171.970E-12	700.409E-3	-8.26613E-3	-171.917E-12	678.372E-3	-9.62015E-3
-2.59880E-3	-172.414E-12	700.492E-3	-9.85112E-3	-171.151E-12	657.779E-3	-29.8740E-3
-2.60380E-3	-172.006E-12	699.873E-3	-10.7278E-3	-171.069E-12	662.961E-3	-6.57684E-3
-2.60880E-3	-171.601E-12	698.226E-3	-40.1427E-3	-170.328E-12	688.860E-3	20.8674E-3
-2.61381E-3	-173.066E-12	672.436E-3	-63.5201E-3	-170.585E-12	692.292E-3	14.4487E-3
-2.61881E-3	-173.156E-12	644.226E-3	-36.5337E-3	-170.677E-12	677.892E-3	6.71416E-3
-2.62381E-3	-174.334E-12	664.541E-3	-3.50589E-3	-171.831E-12	680.341E-3	-8.35398E-3
-2.62881E-3	-175.048E-12	683.955E-3	-7.30648E-3	-171.105E-12	679.789E-3	-25.6759E-3
-2.63382E-3	-175.696E-12	666.276E-3	-11.2835E-3	-172.738E-12	679.343E-3	-11.3664E-3
-2.63882E-3	-176.158E-12	657.375E-3	-16.3959E-3	-174.301E-12	682.658E-3	-11.3820E-3
-2.64382E-3	-177.561E-12	660.659E-3	-28.2852E-3	-175.368E-12	666.155E-3	-26.0886E-3
-2.64882E-3	-178.692E-12	655.934E-3	-25.1386E-3	-176.003E-12	650.926E-3	-22.0286E-3
-2.65383E-3	-176.768E-12	654.893E-3	-4.54817E-3	-176.425E-12	658.088E-3	-9.54827E-3
-2.65883E-3	-177.408E-12	673.249E-3	-4.36449E-3	-177.991E-12	656.752E-3	-8.63769E-3
-2.66383E-3	-178.977E-12	678.856E-3	-21.9473E-3	-178.721E-12	646.252E-3	-28.7171E-3
-2.66883E-3	-178.595E-12	665.588E-3	-28.8868E-3	-178.422E-12	663.373E-3	-62.8572E-3
-2.67384E-3	-175.727E-12	684.223E-3	-19.9177E-3	-177.008E-12	690.792E-3	-93.6567E-3
-2.67884E-3	-176.008E-12	702.291E-3	9.73836E-3	-177.914E-12	688.943E-3	-74.4986E-3
-2.68384E-3	-176.215E-12	690.168E-3	13.0960E-3	-178.384E-12	683.666E-3	-18.9490E-3
-2.68884E-3	-177.715E-12	687.464E-3	3.88634E-3	-177.684E-12	701.990E-3	-2.54997E-3
-2.69385E-3	-176.051E-12	698.769E-3	8.20303E-3	-176.335E-12	695.020E-3	-30.1760E-3
-2.69885E-3	-175.176E-12	719.013E-3	-17.5331E-3	-176.859E-12	672.825E-3	-41.2399E-3
-2.70385E-3	-175.970E-12	733.079E-3	-53.4447E-3	-176.597E-12	673.389E-3	-11.5788E-3
-2.70885E-3	-178.620E-12	715.049E-3	-48.3399E-3	-177.104E-12	663.632E-3	3.64252E-3
-2.71386E-3	-178.248E-12	688.067E-3	-21.1224E-3	-178.201E-12	655.815E-3	-12.2893E-3
-2.71886E-3	-178.927E-12	671.382E-3	2.14877E-3	-179.723E-12	678.623E-3	-30.0487E-3
-2.72386E-3	-179.591E-12	661.854E-3	12.0697E-3	-181.461E-12	703.333E-3	-53.2389E-3
-2.72886E-3	-180.019E-12	660.803E-3	-2.46613E-3	-182.716E-12	717.183E-3	-55.1766E-3
-2.73387E-3	-181.579E-12	666.536E-3	-17.3561E-3	-184.335E-12	726.074E-3	-41.5840E-3
-2.73887E-3	-182.854E-12	670.428E-3	-22.2692E-3	-184.113E-12	736.057E-3	-36.6646E-3
-2.74387E-3	-182.149E-12	672.095E-3	-32.4970E-3	-184.388E-12	728.174E-3	-16.6490E-3
-2.74887E-3	-182.101E-12	687.025E-3	-38.0716E-3	-184.445E-12	701.366E-3	2.02496E-3
-2.75388E-3	-182.548E-12	694.068E-3	-21.5472E-3	-184.933E-12	693.867E-3	831.498E-6
-2.75888E-3	-183.256E-12	678.450E-3	-2.54685E-3	-184.297E-12	691.441E-3	-4.75308E-3
-2.76388E-3	-182.885E-12	666.674E-3	-8.30930E-3	-182.784E-12	671.951E-3	-9.19604E-3
-2.76888E-3	-181.684E-12	657.864E-3	-777.727E-6	-181.651E-12	653.320E-3	-30.7947E-3
-2.77389E-3	-180.970E-12	650.148E-3	19.8028E-3	-181.605E-12	662.036E-3	-47.3210E-3
-2.77889E-3	-181.235E-12	657.370E-3	2.50017E-3	-181.190E-12	693.562E-3	-41.7839E-3
-2.78389E-3	-180.528E-12	665.659E-3	-18.3037E-3	-179.584E-12	701.376E-3	-39.3359E-3
-2.78889E-3	-181.000E-12	661.433E-3	-17.1768E-3	-179.638E-12	688.612E-3	-43.8761E-3
-2.79390E-3	-180.432E-12	658.642E-3	-22.1943E-3	-180.515E-12	680.530E-3	-55.9575E-3
-2.79890E-3	-181.885E-12	669.339E-3	-25.5879E-3	-181.121E-12	659.938E-3	-56.3014E-3
-2.80390E-3	-182.651E-12	689.863E-3	-18.4595E-3	-181.246E-12	628.390E-3	-26.0928E-3
-2.80890E-3	-183.763E-12	702.515E-3	-23.0772E-3	-182.093E-12	631.003E-3	6.13229E-3
-2.81391E-3	-183.722E-12	697.729E-3	-44.1437E-3	-183.725E-12	667.646E-3	-14.2990E-3
-2.81891E-3	-185.063E-12	691.268E-3	-56.7652E-3	-185.098E-12	684.582E-3	-45.5862E-3
-2.82391E-3	-185.825E-12	690.408E-3	-64.3081E-3	-185.144E-12	686.121E-3	-38.9199E-3
-2.82891E-3	-185.468E-12	699.271E-3	-60.6853E-3	-185.613E-12	691.595E-3	-34.3660E-3
-2.83392E-3	-186.716E-12	710.917E-3	-36.6394E-3	-186.603E-12	691.141E-3	-36.4845E-3
-2.83892E-3	-186.932E-12	715.541E-3	-31.4338E-3	-185.631E-12	681.656E-3	-35.7302E-3
-2.84392E-3	-187.280E-12	723.817E-3	-33.9409E-3	-185.338E-12	684.550E-3	-38.2114E-3
-2.84892E-3	-185.733E-12	734.196E-3	-29.8806E-3	-184.273E-12	680.369E-3	-18.1966E-3
-2.85393E-3	-185.802E-12	728.004E-3	-36.0513E-3	-184.644E-12	652.023E-3	16.1041E-3
-2.85893E-3	-185.388E-12	705.449E-3	-31.6208E-3	-182.803E-12	656.911E-3	13.1640E-3
-2.86393E-3	-185.856E-12	677.013E-3	-18.8336E-3	-182.957E-12	689.218E-3	-9.10985E-3
-2.86893E-3	-185.244E-12	675.660E-3	-16.3431E-3	-182.218E-12	694.066E-3	-1.01938E-3
-2.87394E-3	-185.015E-12	700.721E-3	-21.6969E-3	-182.472E-12	694.288E-3	-382.325E-6
-2.87894E-3	-184.751E-12	692.427E-3	-16.8148E-3	-182.728E-12	705.985E-3	-25.0378E-3
-2.88394E-3	-185.600E-12	684.644E-3	-14.7242E-3	-182.434E-12	714.448E-3	-34.0088E-3
-2.88894E-3	-186.942E-12	696.946E-3	-19.5506E-3	-185.551E-12	707.623E-3	-30.2607E-3
-2.89395E-3	-187.016E-12	689.606E-3	-8.88447E-3	-185.761E-12	694.846E-3	-21.7657E-3
-2.89895E-3	-188.356E-12	687.787E-3	11.7992E-3	-186.196E-12	707.756E-3	-21.5684E-3
-2.90395E-3	-188.481E-12	698.165E-3	7.73520E-3	-185.748E-12	720.010E-3	-23.5578E-3
-2.90895E-3	-188.804E-12	713.735E-3	-25.3836E-3	-188.541E-12	714.864E-3	-14.0629E-3
-2.91396E-3	-190.031E-12	718.602E-3	-17.0586E-3	-189.966E-12	701.360E-3	-14.1697E-3
-2.91896E-3	-189.569E-12	707.357E-3	8.71950E-3	-188.106E-12	672.313E-3	-9.40895E-3
-2.92396E-3	-189.961E-12	708.036E-3	7.36749E-3	-188.327E-12	648.326E-3	12.2662E-3
-2.92896E-3	-190.116E-12	711.468E-3	18.4899E-3	-188.656E-12	640.225E-3	12.9670E-3
-2.93397E-3	-191.834E-12	704.773E-3	655.117E-6	-189.909E-12	651.250E-3	-1.79032E-3
-2.93897E-3	-190.569E-12	702.199E-3	-25.0062E-3	-187.510E-12	668.972E-3	-5.82587E-3
-2.94397E-3	-189.384E-12	694.766E-3	3.05156E-3	-186.890E-12	666.034E-3	-3.75034E-3
-2.94897E-3	-190.106E-12	692.579E-3	3.13198E-3	-187.075E-12	668.787E-3	724.252E-6
-2.95398E-3	-190.483E-12	697.920E-3	-49.0038E-3	-188.244E-12	696.187E-3	-3.48772E-3
-2.95898E-3	-190.564E-12	697.918E-3	-83.1186E-3	-188.930E-12	695.206E-3	-29.0148E-3
-2.96398E-3	-189.054E-12	708.002E-3	-78.3903E-3	-188.415E-12	669.947E-3	-53.9558E-3
-2.96898E-3	-190.751E-12	699.025E-3	-51.9714E-3	-190.239E-12	671.433E-3	-45.2820E-3
-2.97399E-3	-191.371E-12	672.471E-3	-24.8987E-3	-190.892E-12	681.373E-3	-29.6388E-3
-2.97899E-3	-193.088E-12	669.763E-3	8.48486E-3	-192.987E-12	675.612E-3	-33.6163E-3
-2.98399E-3	-193.096E-12	676.881E-3	31.5129E-3	-193.438E-12	678.997E-3	-27.7891E-3
-2.98899E-3	-193.439E-12	698.413E-3	25.3410E-3	-196.839E-12	696.632E-3	-19.6471E-3
-2.99400E-3	-193.720E-12	708.862E-3	13.2588E-3	-197.349E-12	706.698E-3	-22.4120E-3
-2.99900E-3	-194.325E-12	692.189E-3	-4.29648E-3	-198.105E-12	695.655E-3	-21.0846E-3
-3.00400E-3	-195.385E-12	700.846E-3	-26.5048E-3	-197.856E-12	672.813E-3	-10.9640E-3
-3.00900E-3	-194.326E-12	713.992E-3	-51.4429E-3	-198.199E-12	666.118E-3	-5.23139E-3
-3.01401E-3	-195.508E-12	715.902E-3	-63.8502E-3	-196.753E-12	674.806E-3	-10.6550E-3
-3.01901E-3	-194.413E-12	705.484E-3	-28.7197E-3	-195.183E-12	688.227E-3	-6.47679E-3
-3.02401E-3	-195.325E-12	665.035E-3	988.909E-6	-195.092E-12	716.352E-3	-13.8858E-3
-3.02901E-3	-194.853E-12	658.479E-3	-25.3377E-3	-194.004E-12	719.605E-3	-44.3116E-3
-3.03402E-3	-195.519E-12	679.571E-3	-33.2980E-3	-192.723E-12	691.751E-3	-54.6212E-3
-3.03902E-3	-193.207E-12	677.588E-3	9.06150E-3	-192.111E-12	702.865E-3	-38.5789E-3
-3.04402E-3	-193.122E-12	685.531E-3	32.5988E-3	-192.331E-12	723.772E-3	-17.2820E-3
-3.04902E-3	-194.952E-12	695.727E-3	16.2070E-3	-192.350E-12	714.275E-3	-25.0575E-3
-3.05403E-3	-195.664E-12	694.690E-3	-14.3452E-3	-191.915E-12	697.922E-3	-47.7381E-3
-3.05903E-3	-196.383E-12	714.632E-3	-25.7633E-3	-192.056E-12	675.838E-3	-47.1303E-3
-3.06403E-3	-195.906E-12	733.136E-3	-2.56110E-3	-195.080E-12	676.828E-3	-35.2222E-3
-3.06903E-3	-197.913E-12	714.586E-3	8.18041E-3	-197.526E-12	723.517E-3	-20.8943E-3
-3.07404E-3	-197.067E-12	693.083E-3	-21.0203E-3	-197.508E-12	756.863E-3	-14.4530E-3
-3.07904E-3	-196.319E-12	691.247E-3	-41.1399E-3	-197.907E-12	748.401E-3	-13.2088E-3
-3.08404E-3	-196.040E-12	707.000E-3	-35.7645E-3	-200.664E-12	731.867E-3	-29.6042E-3
-3.08904E-3	-197.781E-12	719.557E-3	-34.6776E-3	-201.647E-12	719.043E-3	-27.5563E-3
-3.09405E-3	-198.051E-12	706.572E-3	-39.2553E-3	-200.567E-12	716.678E-3	12.4729E-3
-3.09905E-3	-196.874E-12	681.393E-3	-31.0916E-3	-199.665E-12	713.033E-3	20.2640E-3
-3.10405E-3	-195.943E-12	672.498E-3	-24.9384E-3	-198.892E-12	696.714E-3	-9.44754E-3
-3.10905E-3	-195.968E-12	689.395E-3	-32.5053E-3	-197.671E-12	672.630E-3	-46.6823E-3
-3.11406E-3	-197.485E-12	693.678E-3	-36.9081E-3	-196.552E-12	641.135E-3	-44.6315E-3
-3.11906E-3	-196.976E-12	680.537E-3	-50.0019E-3	-195.260E-12	615.642E-3	-23.8138E-3
-3.12406E-3	-196.513E-12	673.471E-3	-52.4856E-3	-194.124E-12	611.161E-3	-33.0709E-3
-3.12906E-3	-196.003E-12	666.752E-3	-20.3111E-3	-194.410E-12	622.458E-3	-41.4007E-3
-3.13407E-3	-197.756E-12	654.713E-3	10.2709E-3	-193.060E-12	634.503E-3	-36.0224E-3
-3.13907E-3	-199.298E-12	685.514E-3	-4.45301E-3	-193.697E-12	633.064E-3	-28.9894E-3
-3.14407E-3	-198.340E-12	734.823E-3	-16.1568E-3	-193.844E-12	625.828E-3	-25.3177E-3
-3.14907E-3	-198.439E-12	730.862E-3	-829.503E-6	-194.971E-12	653.550E-3	-16.9943E-3
-3.15408E-3	-198.709E-12	714.160E-3	4.27281E-3	-195.090E-12	686.659E-3	-1.04037E-3
-3.15908E-3	-201.249E-12	713.064E-3	18.1196E-3	-197.428E-12	690.609E-3	19.5915E-3
-3.16408E-3	-202.108E-12	697.715E-3	25.9401E-3	-198.770E-12	714.030E-3	9.45467E-3
-3.16908E-3	-200.940E-12	683.740E-3	13.1035E-3	-199.213E-12	730.874E-3	-37.0987E-3
-3.17409E-3	-199.602E-12	710.568E-3	-5.95452E-3	-199.719E-12	695.988E-3	-51.5686E-3
-3.17909E-3	-200.762E-12	712.032E-3	-12.2313E-3	-199.728E-12	679.924E-3	-44.0271E-3
-3.18409E-3	-201.866E-12	673.482E-3	723.772E-6	-200.481E-12	691.060E-3	-51.1251E-3
-3.18909E-3	-200.920E-12	672.552E-3	330.470E-6	-199.966E-12	694.755E-3	-34.7134E-3
-3.19410E-3	-199.120E-12	682.962E-3	-13.7053E-3	-198.807E-12	684.552E-3	-313.338E-6
-3.19910E-3	-198.942E-12	666.128E-3	-22.1472E-3	-198.514E-12	665.485E-3	7.38164E-3
-3.20410E-3	-199.857E-12	653.673E-3	-23.5910E-3	-198.224E-12	657.451E-3	-10.2543E-3
-3.20910E-3	-199.737E-12	661.212E-3	-5.78785E-3	-197.834E-12	649.021E-3	-20.0280E-3
-3.21411E-3	-197.780E-12	684.134E-3	7.11104E-3	-197.240E-12	651.802E-3	-7.55328E-3
-3.21911E-3	-198.020E-12	694.360E-3	-2.51420E-3	-198.244E-12	670.560E-3	7.00439E-3
-3.22411E-3	-200.090E-12	676.448E-3	-12.1191E-3	-198.141E-12	689.246E-3	2.15251E-3
-3.22911E-3	-201.296E-12	671.068E-3	-19.3314E-3	-199.103E-12	701.475E-3	-33.4697E-3
-3.23412E-3	-201.937E-12	681.701E-3	-19.0512E-3	-199.283E-12	708.082E-3	-63.3205E-3
-3.23912E-3	-202.791E-12	695.922E-3	-17.0719E-3	-201.646E-12	714.917E-3	-34.8514E-3
-3.24412E-3	-205.119E-12	727.771E-3	-27.2225E-3	-204.291E-12	700.741E-3	2.21369E-3
-3.24912E-3	-207.224E-12	740.933E-3	-18.4758E-3	-204.613E-12	677.037E-3	-15.8621E-3
-3.25413E-3	-206.943E-12	730.629E-3	-5.60924E-3	-204.128E-12	670.369E-3	-56.9891E-3
-3.25913E-3	-207.013E-12	707.330E-3	-21.3875E-3	-206.585E-12	670.155E-3	-62.3052E-3
-3.26413E-3	-207.242E-12	666.025E-3	-16.8367E-3	-208.278E-12	690.850E-3	-37.8626E-3
-3.26913E-3	-207.480E-12	644.000E-3	22.5378E-3	-208.258E-12	705.071E-3	352.304E-6
-3.27414E-3	-207.988E-12	664.425E-3	38.7799E-3	-207.016E-12	670.155E-3	20.2724E-3
-3.27914E-3	-207.232E-12	695.298E-3	25.5407E-3	-205.783E-12	653.313E-3	414.280E-6
-3.28414E-3	-206.209E-12	730.117E-3	12.8520E-3	-204.658E-12	682.213E-3	-5.69055E-3
-3.28914E-3	-204.415E-12	758.415E-3	8.15167E-3	-205.308E-12	689.752E-3	12.6483E-3
-3.29415E-3	-205.193E-12	734.894E-3	12.6346E-3	-205.201E-12	683.593E-3	28.3691E-3
-3.29915E-3	-204.874E-12	694.533E-3	10.9862E-3	-204.380E-12	692.930E-3	36.7572E-3
-3.30415E-3	-202.995E-12	690.118E-3	-621.225E-6	-203.417E-12	687.863E-3	34.5465E-3
-3.30915E-3	-202.172E-12	705.772E-3	-4.63291E-3	-204.319E-12	672.548E-3	9.17478E-3
-3.31416E-3	-203.158E-12	700.500E-3	6.40027E-3	-206.135E-12	681.985E-3	-17.2664E-3
-3.31916E-3	-204.317E-12	692.181E-3	21.0333E-3	-206.164E-12	690.179E-3	-20.9029E-3
-3.32416E-3	-204.118E-12	701.861E-3	12.2494E-3	-206.210E-12	665.478E-3	-28.0034E-3
-3.32916E-3	-205.183E-12	692.367E-3	-25.7126E-3	-207.832E-12	648.512E-3	-36.4610E-3
-3.33417E-3	-206.011E-12	672.250E-3	-52.4958E-3	-210.667E-12	675.713E-3	-32.6837E-3
-3.33917E-3	-207.116E-12	661.289E-3	-42.2654E-3	-211.988E-12	708.544E-3	-18.2043E-3
-3.34417E-3	-208.382E-12	667.269E-3	-24.0110E-3	-211.981E-12	709.279E-3	24.3002E-3
-3.34917E-3	-207.689E-12	695.236E-3	-17.4327E-3	-212.369E-12	719.111E-3	40.0385E-3
-3.35418E-3	-209.087E-12	708.401E-3	-23.6326E-3	-213.919E-12	749.935E-3	-18.9873E-3
-3.35918E-3	-209.817E-12	706.675E-3	-2.80840E-3	-214.364E-12	747.227E-3	-82.9659E-3
-3.36418E-3	-209.708E-12	693.459E-3	31.1212E-3	-213.182E-12	717.915E-3	-79.8227E-3
-3.36918E-3	-208.562E-12	639.614E-3	7.19658E-3	-211.489E-12	683.390E-3	-33.0607E-3
-3.37419E-3	-210.401E-12	612.522E-3	-25.0075E-3	-210.587E-12	657.852E-3	1.33723E-3
-3.37919E-3	-210.110E-12	643.467E-3	-11.0441E-3	-210.691E-12	656.431E-3	16.4725E-3
-3.38419E-3	-209.447E-12	653.120E-3	7.86393E-3	-209.632E-12	657.321E-3	-2.85848E-3
-3.38919E-3	-207.648E-12	659.241E-3	-1.14494E-3	-207.609E-12	669.939E-3	-29.5091E-3
-3.39420E-3	-208.756E-12	677.614E-3	9.35265E-3	-208.452E-12	701.259E-3	-17.5585E-3
-3.39920E-3	-209.189E-12	660.551E-3	40.2707E-3	-209.299E-12	715.107E-3	3.93982E-3
-3.40420E-3	-208.919E-12	636.067E-3	18.0853E-3	-210.185E-12	715.366E-3	-13.9080E-3
-3.40920E-3	-209.140E-12	645.886E-3	-15.1399E-3	-210.198E-12	722.110E-3	-55.1334E-3
-3.41421E-3	-209.312E-12	667.356E-3	-6.05786E-3	-211.134E-12	720.572E-3	-48.8458E-3
-3.41921E-3	-210.549E-12	690.516E-3	-4.61460E-3	-211.962E-12	709.274E-3	-11.3643E-3
-3.42421E-3	-211.738E-12	715.167E-3	-17.6000E-3	-214.481E-12	705.059E-3	-582.286E-6
-3.42921E-3	-212.057E-12	718.260E-3	-19.6547E-3	-214.325E-12	708.086E-3	2.96585E-3
-3.43422E-3	-211.685E-12	711.721E-3	-22.8759E-3	-215.148E-12	706.184E-3	13.5989E-3
-3.43922E-3	-211.897E-12	709.008E-3	-37.0072E-3	-214.645E-12	687.399E-3	6.59705E-3
-3.44422E-3	-212.522E-12	691.229E-3	-60.0652E-3	-216.164E-12	660.842E-3	-20.4241E-3
-3.44922E-3	-211.640E-12	657.190E-3	-58.7335E-3	-214.733E-12	662.154E-3	-36.7143E-3
-3.45423E-3	-211.537E-12	653.549E-3	-30.1891E-3	-214.340E-12	671.176E-3	-13.0238E-3
-3.45923E-3	-209.805E-12	675.390E-3	-23.0304E-3	-211.950E-12	669.249E-3	9.97340E-3
-3.46423E-3	-210.138E-12	675.107E-3	-27.1442E-3	-212.555E-12	696.052E-3	-10.8463E-3
-3.46923E-3	-211.628E-12	668.078E-3	-17.9684E-3	-212.963E-12	708.023E-3	-30.7593E-3
-3.47424E-3	-210.507E-12	694.823E-3	-13.7624E-3	-210.825E-12	693.074E-3	-28.1711E-3
-3.47924E-3	-211.287E-12	716.034E-3	-24.2595E-3	-210.536E-12	704.225E-3	-48.4144E-3
-3.48424E-3	-212.055E-12	675.179E-3	-30.3266E-3	-212.305E-12	704.469E-3	-65.3548E-3
-3.48924E-3	-213.452E-12	628.527E-3	-33.3668E-3	-213.499E-12	690.538E-3	-27.6365E-3
-3.49425E-3	-214.016E-12	634.382E-3	-33.8284E-3	-213.646E-12	690.332E-3	6.63725E-3
-3.49925E-3	-215.158E-12	646.780E-3	-8.63364E-3	-214.401E-12	678.574E-3	-6.83867E-3
-3.50425E-3	-215.218E-12	627.909E-3	4.47247E-3	-216.284E-12	669.459E-3	-18.1507E-3
-3.50925E-3	-218.079E-12	631.441E-3	-19.2815E-3	-218.374E-12	681.559E-3	-20.0876E-3
-3.51426E-3	-218.517E-12	673.599E-3	-47.4496E-3	-219.791E-12	706.070E-3	-31.5093E-3
-3.51926E-3	-217.425E-12	698.214E-3	-64.9891E-3	-219.136E-12	702.466E-3	-16.0941E-3
-3.52426E-3	-218.020E-12	702.426E-3	-55.7724E-3	-219.813E-12	675.511E-3	-2.62894E-3
-3.52926E-3	-217.794E-12	722.413E-3	-24.7755E-3	-219.971E-12	666.324E-3	-34.4246E-3
-3.53427E-3	-218.099E-12	727.292E-3	-28.0585E-3	-220.296E-12	651.775E-3	-40.6405E-3
-3.53927E-3	-216.363E-12	705.280E-3	-58.1121E-3	-219.155E-12	657.390E-3	-12.0133E-3
-3.54427E-3	-215.697E-12	683.339E-3	-61.0451E-3	-218.703E-12	687.287E-3	-5.22684E-3
-3.54927E-3	-214.943E-12	657.118E-3	-57.1221E-3	-217.591E-12	692.061E-3	-14.3306E-3
-3.55428E-3	-215.144E-12	671.965E-3	-57.9056E-3	-216.660E-12	679.891E-3	-20.2311E-3
-3.55928E-3	-214.576E-12	697.374E-3	-26.9444E-3	-216.629E-12	672.318E-3	-3.25003E-3
-3.56428E-3	-214.973E-12	679.231E-3	12.5446E-3	-216.834E-12	673.381E-3	21.2490E-3
-3.56928E-3	-215.704E-12	676.072E-3	6.08211E-3	-216.931E-12	686.680E-3	9.53795E-3
-3.57429E-3	-216.384E-12	696.876E-3	-20.2085E-3	-216.945E-12	685.893E-3	-36.9148E-3
-3.57929E-3	-218.791E-12	684.789E-3	-25.2980E-3	-218.332E-12	668.333E-3	-51.6640E-3
-3.58429E-3	-219.290E-12	658.844E-3	-41.7438E-3	-219.929E-12	669.551E-3	-26.4359E-3
-3.58929E-3	-220.959E-12	700.662E-3	-70.3361E-3	-222.478E-12	665.792E-3	-19.2621E-3
-3.59430E-3	-221.645E-12	749.718E-3	-69.2420E-3	-223.319E-12	644.310E-3	-45.5916E-3
-3.59930E-3	-222.046E-12	735.080E-3	-62.0659E-3	-224.216E-12	629.405E-3	-71.2854E-3
-3.60430E-3	-223.078E-12	713.748E-3	-73.1467E-3	-224.986E-12	631.681E-3	-61.8403E-3
-3.60930E-3	-222.177E-12	717.763E-3	-82.4688E-3	-225.365E-12	636.881E-3	-40.9873E-3
-3.61431E-3	-223.731E-12	719.066E-3	-79.6569E-3	-225.129E-12	642.124E-3	-24.1510E-3
-3.61931E-3	-222.439E-12	704.902E-3	-51.9179E-3	-224.345E-12	664.104E-3	-1.29447E-3
-3.62431E-3	-221.720E-12	699.655E-3	-8.54336E-3	-222.599E-12	677.784E-3	-2.42315E-3
-3.62931E-3	-220.461E-12	687.708E-3	-3.38904E-3	-220.621E-12	670.746E-3	-18.3017E-3
-3.63432E-3	-220.697E-12	679.107E-3	-48.0349E-3	-219.516E-12	671.567E-3	-11.6437E-3
-3.63932E-3	-220.797E-12	693.670E-3	-63.3642E-3	-218.182E-12	687.705E-3	-5.84113E-3
-3.64432E-3	-220.099E-12	699.906E-3	-15.7501E-3	-217.104E-12	689.384E-3	-17.4603E-3
-3.64932E-3	-220.821E-12	689.253E-3	9.09181E-3	-217.427E-12	672.367E-3	-40.5114E-3
-3.65433E-3	-220.027E-12	693.242E-3	3.22994E-3	-217.407E-12	679.782E-3	-53.6045E-3
-3.65933E-3	-221.526E-12	693.090E-3	13.2396E-3	-217.391E-12	699.848E-3	-36.8669E-3
-3.66433E-3	-222.180E-12	668.095E-3	-7.88409E-3	-218.143E-12	679.057E-3	-15.4612E-3
-3.66933E-3	-225.518E-12	678.267E-3	-39.8570E-3	-221.390E-12	673.800E-3	-4.95397E-3
-3.67434E-3	-226.154E-12	701.701E-3	-15.1568E-3	-223.012E-12	725.013E-3	2.53282E-3
-3.67934E-3	-227.478E-12	699.882E-3	-5.08575E-3	-223.894E-12	748.429E-3	26.5719E-3
-3.68434E-3	-227.595E-12	697.699E-3	-43.0946E-3	-226.042E-12	731.213E-3	40.0511E-3
-3.68934E-3	-227.645E-12	678.086E-3	-48.1414E-3	-226.870E-12	714.397E-3	-9.76855E-3
-3.69435E-3	-228.161E-12	655.781E-3	-37.4792E-3	-228.261E-12	691.753E-3	-51.9109E-3
-3.69935E-3	-227.238E-12	660.014E-3	-44.8479E-3	-229.114E-12	682.485E-3	-17.2894E-3
-3.70435E-3	-226.590E-12	666.229E-3	-27.2928E-3	-229.507E-12	712.230E-3	44.2847E-3
-3.70935E-3	-224.658E-12	659.503E-3	-10.3539E-3	-227.207E-12	742.410E-3	68.3477E-3
-3.71436E-3	-224.763E-12	666.097E-3	-30.4056E-3	-226.438E-12	741.755E-3	44.8657E-3
-3.71936E-3	-224.048E-12	696.907E-3	-37.9343E-3	-226.241E-12	726.450E-3	-4.53087E-3
-3.72436E-3	-223.936E-12	717.430E-3	-27.7514E-3	-224.353E-12	711.319E-3	-54.2231E-3
-3.72936E-3	-222.691E-12	714.416E-3	-12.6370E-3	-221.676E-12	697.651E-3	-71.5716E-3
-3.73437E-3	-221.712E-12	717.695E-3	-11.7085E-3	-220.889E-12	678.746E-3	-62.8241E-3
-3.73937E-3	-219.996E-12	722.973E-3	-39.8040E-3	-221.925E-12	658.156E-3	-49.9399E-3
-3.74437E-3	-222.105E-12	711.020E-3	-42.2070E-3	-221.350E-12	639.398E-3	-43.8501E-3
-3.74937E-3	-224.218E-12	673.261E-3	-25.7019E-3	-221.861E-12	648.249E-3	-63.7271E-3
-3.75438E-3	-225.128E-12	646.479E-3	-9.27012E-3	-221.812E-12	701.908E-3	-75.3017E-3
-3.75938E-3	-224.760E-12	655.030E-3	19.8942E-3	-223.467E-12	746.270E-3	-53.0686E-3
-3.76438E-3	-225.907E-12	670.574E-3	15.4612E-3	-224.477E-12	723.908E-3	-42.5770E-3
-3.76938E-3	-228.257E-12	678.583E-3	-31.8400E-3	-225.222E-12	657.179E-3	-52.8949E-3
-3.77439E-3	-230.212E-12	676.414E-3	-45.5507E-3	-228.310E-12	638.022E-3	-37.8869E-3
-3.77939E-3	-229.612E-12	670.786E-3	-31.2488E-3	-229.368E-12	666.312E-3	410.627E-6
-3.78439E-3	-227.772E-12	663.915E-3	-28.0449E-3	-230.059E-12	673.514E-3	-7.03582E-3
-3.78939E-3	-228.622E-12	680.334E-3	-24.2002E-3	-229.709E-12	676.442E-3	-27.6243E-3
-3.79440E-3	-230.451E-12	701.018E-3	-11.7100E-3	-231.373E-12	676.097E-3	-26.7644E-3
-3.79940E-3	-228.556E-12	691.627E-3	1.18373E-3	-231.199E-12	666.035E-3	-18.7599E-3
-3.80440E-3	-227.259E-12	703.699E-3	2.47832E-3	-230.973E-12	668.009E-3	16.8058E-3
-3.80940E-3	-226.944E-12	734.951E-3	-985.256E-6	-230.661E-12	670.117E-3	32.0428E-3
-3.81441E-3	-229.133E-12	743.928E-3	-19.9176E-3	-231.625E-12	681.451E-3	7.90483E-3
-3.81941E-3	-227.871E-12	731.864E-3	-50.0419E-3	-230.720E-12	697.788E-3	2.92940E-3
-3.82441E-3	-227.154E-12	704.401E-3	-80.6312E-3	-230.379E-12	696.845E-3	6.69986E-3
-3.82941E-3	-226.562E-12	676.767E-3	-82.5456E-3	-232.112E-12	690.629E-3	-12.9985E-3
-3.83442E-3	-229.071E-12	680.173E-3	-37.5104E-3	-231.685E-12	693.620E-3	-33.4906E-3
-3.83942E-3	-229.998E-12	696.710E-3	-6.70516E-3	-232.104E-12	688.855E-3	-31.9734E-3
-3.84442E-3	-231.596E-12	698.024E-3	4.85645E-3	-232.130E-12	691.047E-3	-21.2795E-3
-3.84942E-3	-232.570E-12	691.416E-3	22.5882E-3	-233.395E-12	707.809E-3	-16.8143E-3
-3.85443E-3	-232.575E-12	694.855E-3	31.4466E-3	-234.644E-12	705.127E-3	-19.8305E-3
-3.85943E-3	-233.330E-12	705.936E-3	51.3645E-3	-235.541E-12	707.958E-3	-19.5498E-3
-3.86443E-3	-235.685E-12	693.238E-3	43.3349E-3	-235.535E-12	686.033E-3	-9.01607E-3
-3.86943E-3	-232.927E-12	679.941E-3	-8.30658E-3	-235.621E-12	643.962E-3	-14.4241E-3
-3.87444E-3	-232.268E-12	681.553E-3	-10.6235E-3	-236.558E-12	651.031E-3	-35.6705E-3
-3.87944E-3	-233.023E-12	680.627E-3	24.2404E-3	-234.828E-12	645.874E-3	-48.9281E-3
-3.88444E-3	-233.918E-12	675.592E-3	11.3774E-3	-233.195E-12	624.339E-3	-45.5436E-3
-3.88944E-3	-232.229E-12	685.821E-3	-22.1091E-3	-231.791E-12	652.736E-3	-28.0446E-3
-3.89445E-3	-230.896E-12	713.675E-3	-16.6972E-3	-231.600E-12	703.375E-3	-28.6063E-3
-3.89945E-3	-231.328E-12	729.332E-3	-10.8110E-3	-231.997E-12	715.923E-3	-58.9721E-3
-3.90445E-3	-232.638E-12	717.110E-3	-2.90776E-3	-230.897E-12	696.779E-3	-56.1887E-3
-3.90945E-3	-233.567E-12	690.907E-3	6.97123E-3	-230.213E-12	691.532E-3	-11.1596E-3
-3.91446E-3	-231.563E-12	677.569E-3	-14.5819E-3	-230.141E-12	691.759E-3	20.9322E-3
-3.91946E-3	-231.735E-12	679.731E-3	-15.1128E-3	-232.210E-12	658.571E-3	4.16907E-3
-3.92446E-3	-233.840E-12	675.478E-3	5.34809E-3	-234.347E-12	631.934E-3	-18.0020E-3
-3.92946E-3	-236.714E-12	655.680E-3	-14.7935E-3	-234.528E-12	666.505E-3	8.85119E-3
-3.93447E-3	-236.685E-12	644.557E-3	-35.1989E-3	-234.434E-12	690.587E-3	22.1582E-3
-3.93947E-3	-235.635E-12	653.598E-3	-29.6111E-3	-238.067E-12	661.537E-3	13.5821E-3
-3.94447E-3	-237.363E-12	674.188E-3	-46.3938E-3	-239.855E-12	651.546E-3	27.5255E-3
-3.94947E-3	-239.860E-12	703.939E-3	-52.2501E-3	-238.283E-12	695.049E-3	22.8486E-3
-3.95448E-3	-240.402E-12	721.559E-3	-36.8208E-3	-238.126E-12	737.848E-3	-17.9669E-3
-3.95948E-3	-236.875E-12	701.779E-3	-46.8494E-3	-240.565E-12	697.604E-3	-51.1335E-3
-3.96448E-3	-236.492E-12	680.930E-3	-52.4986E-3	-241.830E-12	649.686E-3	-49.4573E-3
-3.96948E-3	-235.722E-12	699.232E-3	-31.3635E-3	-239.350E-12	692.520E-3	-27.0029E-3
-3.97449E-3	-236.584E-12	708.353E-3	-13.6847E-3	-237.594E-12	716.805E-3	-17.7012E-3
-3.97949E-3	-236.127E-12	706.541E-3	-14.8895E-3	-237.065E-12	684.345E-3	-39.0738E-3
-3.98449E-3	-235.185E-12	698.861E-3	-37.0912E-3	-236.300E-12	661.912E-3	-46.1922E-3
-3.98949E-3	-233.541E-12	673.270E-3	-50.8901E-3	-234.836E-12	665.254E-3	-34.6202E-3
-3.99450E-3	-235.046E-12	679.184E-3	-49.7665E-3	-233.459E-12	672.546E-3	-28.8353E-3
-3.99950E-3	-236.665E-12	699.659E-3	-46.0874E-3	-233.892E-12	664.141E-3	-41.5585E-3
-4.00450E-3	-236.611E-12	672.191E-3	-16.8318E-3	-234.397E-12	642.094E-3	-53.8134E-3
-4.00950E-3	-236.529E-12	644.296E-3	-3.16460E-3	-234.998E-12	621.296E-3	-34.5560E-3
-4.01451E-3	-236.425E-12	680.284E-3	-23.3077E-3	-236.246E-12	652.591E-3	-20.1044E-3
-4.01951E-3	-238.054E-12	703.735E-3	-47.8918E-3	-236.800E-12	714.607E-3	-14.2842E-3
-4.02451E-3	-240.113E-12	692.762E-3	-57.9626E-3	-238.178E-12	712.249E-3	-4.74155E-3
-4.02951E-3	-240.693E-12	708.310E-3	-53.0394E-3	-239.858E-12	647.355E-3	2.69113E-3
-4.03452E-3	-239.165E-12	713.421E-3	-41.8194E-3	-241.494E-12	640.236E-3	-2.25825E-3
-4.03952E-3	-238.552E-12	703.595E-3	-33.3930E-3	-241.362E-12	698.228E-3	-22.1619E-3
-4.04452E-3	-239.802E-12	718.197E-3	-18.8921E-3	-242.229E-12	724.143E-3	-25.0694E-3
-4.04952E-3	-239.023E-12	709.587E-3	12.5846E-3	-242.186E-12	708.704E-3	-26.6767E-3
-4.05453E-3	-238.105E-12	694.819E-3	13.3899E-3	-242.598E-12	672.843E-3	-40.6386E-3
-4.05953E-3	-239.023E-12	713.454E-3	-4.29651E-3	-243.948E-12	661.502E-3	-44.8028E-3
-4.06453E-3	-239.471E-12	700.419E-3	13.3494E-3	-242.366E-12	672.632E-3	-49.5523E-3
-4.06953E-3	-238.978E-12	680.040E-3	24.5668E-3	-240.528E-12	655.795E-3	-37.5441E-3
-4.07454E-3	-238.901E-12	688.055E-3	-12.2258E-3	-239.439E-12	638.969E-3	-11.1272E-3
-4.07954E-3	-239.418E-12	681.140E-3	-33.0460E-3	-240.175E-12	686.693E-3	-634.250E-6
-4.08454E-3	-240.582E-12	699.290E-3	-25.3688E-3	-239.859E-12	733.638E-3	-24.9920E-3
-4.08954E-3	-242.673E-12	733.286E-3	-31.2411E-3	-240.136E-12	719.350E-3	-71.1701E-3
-4.09455E-3	-244.236E-12	698.067E-3	-20.3741E-3	-240.259E-12	708.467E-3	-78.0518E-3
-4.09955E-3	-244.657E-12	650.294E-3	-2.25353E-3	-241.061E-12	689.187E-3	-45.0273E-3
-4.10455E-3	-245.972E-12	675.806E-3	-13.8723E-3	-244.324E-12	656.774E-3	-23.4193E-3
-4.10955E-3	-247.129E-12	711.856E-3	-29.5026E-3	-245.894E-12	664.250E-3	-30.4336E-3
-4.11456E-3	-247.130E-12	707.273E-3	-28.2009E-3	-246.565E-12	691.847E-3	-35.4685E-3
-4.11956E-3	-246.892E-12	717.041E-3	-14.0674E-3	-246.864E-12	683.846E-3	-15.7151E-3
-4.12456E-3	-246.527E-12	749.577E-3	1.48043E-3	-247.672E-12	661.832E-3	-11.0680E-3
-4.12956E-3	-246.094E-12	769.299E-3	4.84411E-3	-250.138E-12	666.865E-3	-26.2602E-3
-4.13457E-3	-246.101E-12	749.858E-3	-17.7426E-3	-248.080E-12	670.042E-3	-33.8932E-3
-4.13957E-3	-243.759E-12	708.842E-3	-54.8421E-3	-247.911E-12	668.966E-3	-38.7809E-3
-4.14457E-3	-242.054E-12	715.348E-3	-86.0919E-3	-247.504E-12	669.602E-3	-48.6534E-3
-4.14957E-3	-241.852E-12	743.548E-3	-101.221E-3	-245.400E-12	678.536E-3	-82.1419E-3
-4.15458E-3	-243.406E-12	747.552E-3	-83.3756E-3	-245.992E-12	696.974E-3	-109.313E-3
-4.15958E-3	-243.903E-12	741.395E-3	-32.3138E-3	-245.141E-12	677.929E-3	-87.6751E-3
-4.16458E-3	-243.379E-12	723.087E-3	-99.7842E-6	-244.458E-12	660.648E-3	-56.3175E-3
-4.16958E-3	-243.517E-12	691.925E-3	10.4641E-3	-243.200E-12	673.377E-3	-56.2022E-3
-4.17459E-3	-244.839E-12	668.339E-3	36.8107E-3	-244.584E-12	683.227E-3	-73.7632E-3
-4.17959E-3	-247.290E-12	668.722E-3	46.4786E-3	-245.626E-12	699.840E-3	-67.4438E-3
-4.18459E-3	-247.979E-12	684.168E-3	29.5049E-3	-245.318E-12	712.087E-3	-45.1200E-3
-4.18959E-3	-247.335E-12	703.115E-3	-17.3466E-3	-245.763E-12	692.384E-3	-37.5425E-3
-4.19460E-3	-247.729E-12	698.210E-3	-70.8554E-3	-246.823E-12	654.023E-3	-41.2241E-3
-4.19960E-3	-250.210E-12	675.550E-3	-70.3958E-3	-248.818E-12	621.802E-3	-59.3358E-3
-4.20460E-3	-250.079E-12	663.267E-3	-39.7292E-3	-249.649E-12	642.391E-3	-63.7238E-3
-4.20960E-3	-249.640E-12	680.081E-3	-37.7719E-3	-250.035E-12	691.470E-3	-30.4355E-3
-4.21461E-3	-247.454E-12	722.493E-3	-54.9191E-3	-249.599E-12	684.627E-3	-7.69640E-3
-4.21961E-3	-249.244E-12	717.220E-3	-47.7787E-3	-251.872E-12	672.497E-3	-3.95703E-3
-4.22461E-3	-247.184E-12	679.742E-3	-17.5025E-3	-250.773E-12	692.079E-3	-8.38531E-3
-4.22961E-3	-246.593E-12	691.235E-3	938.546E-6	-249.461E-12	693.739E-3	-44.4227E-3
-4.23462E-3	-244.671E-12	721.504E-3	4.61154E-3	-248.593E-12	686.290E-3	-58.6453E-3
-4.23962E-3	-245.767E-12	727.648E-3	648.569E-6	-249.573E-12	702.476E-3	-24.5381E-3
-4.24462E-3	-243.975E-12	714.149E-3	-6.00932E-3	-249.227E-12	717.440E-3	-38.0184E-3
-4.24962E-3	-244.332E-12	679.431E-3	8.33949E-3	-247.204E-12	682.867E-3	-82.8268E-3
-4.25463E-3	-245.184E-12	649.736E-3	25.0989E-3	-247.268E-12	645.600E-3	-53.5616E-3
-4.25963E-3	-245.935E-12	653.457E-3	25.4669E-3	-246.768E-12	656.250E-3	3.96197E-3
-4.26463E-3	-247.862E-12	669.158E-3	3.24104E-3	-249.228E-12	686.579E-3	9.10891E-3
-4.26963E-3	-247.035E-12	664.536E-3	-32.2969E-3	-248.294E-12	701.620E-3	-29.3131E-3
-4.27464E-3	-246.760E-12	638.887E-3	-50.0725E-3	-248.049E-12	692.448E-3	-70.9901E-3
-4.27964E-3	-250.028E-12	620.787E-3	-36.5015E-3	-249.900E-12	686.648E-3	-68.3891E-3
-4.28464E-3	-253.005E-12	638.799E-3	-17.2016E-3	-251.099E-12	687.920E-3	-16.7736E-3
-4.28964E-3	-252.389E-12	684.370E-3	-23.7219E-3	-252.024E-12	699.368E-3	21.8104E-3
-4.29465E-3	-253.363E-12	730.054E-3	-55.7833E-3	-251.691E-12	708.757E-3	-10.3583E-3
-4.29965E-3	-254.470E-12	746.250E-3	-65.3613E-3	-252.736E-12	674.960E-3	-50.8245E-3
-4.30465E-3	-255.519E-12	726.580E-3	-16.2948E-3	-252.407E-12	659.897E-3	-45.9407E-3
-4.30965E-3	-256.010E-12	680.978E-3	10.7220E-3	-252.396E-12	667.114E-3	-45.8754E-3
-4.31466E-3	-253.840E-12	651.534E-3	-39.8095E-3	-251.864E-12	634.472E-3	-39.8647E-3
-4.31966E-3	-252.465E-12	675.300E-3	-79.8781E-3	-251.324E-12	623.719E-3	-10.3425E-3
-4.32466E-3	-252.143E-12	704.083E-3	-59.6575E-3	-251.311E-12	661.304E-3	-2.66054E-3
-4.32966E-3	-252.528E-12	707.801E-3	-41.6483E-3	-250.816E-12	689.434E-3	-7.23495E-3
-4.33467E-3	-251.663E-12	712.926E-3	-37.0742E-3	-250.615E-12	689.117E-3	2.89471E-3
-4.33967E-3	-250.776E-12	702.328E-3	-7.72179E-3	-249.323E-12	685.336E-3	-14.2731E-3
-4.34467E-3	-249.969E-12	674.812E-3	21.7898E-3	-250.551E-12	695.965E-3	-54.6628E-3
-4.34967E-3	-251.172E-12	678.848E-3	5.88729E-3	-251.828E-12	703.862E-3	-65.7769E-3
-4.35468E-3	-253.928E-12	702.910E-3	-27.9185E-3	-252.967E-12	684.171E-3	-66.7624E-3
-4.35968E-3	-251.629E-12	698.057E-3	-25.7843E-3	-252.858E-12	657.130E-3	-88.0530E-3
-4.36468E-3	-251.809E-12	707.258E-3	-1.88055E-3	-254.376E-12	684.260E-3	-94.9573E-3
-4.36968E-3	-253.699E-12	740.440E-3	5.47726E-3	-256.495E-12	746.127E-3	-48.1189E-3
-4.37469E-3	-257.075E-12	700.383E-3	-18.1261E-3	-259.270E-12	754.449E-3	2.54763E-3
-4.37969E-3	-254.942E-12	647.561E-3	-68.3585E-3	-259.350E-12	720.862E-3	18.1801E-3
-4.38469E-3	-255.178E-12	658.671E-3	-72.5855E-3	-259.230E-12	673.902E-3	4.58285E-3
-4.38969E-3	-255.138E-12	661.443E-3	-22.2541E-3	-262.148E-12	625.549E-3	-18.4126E-3
-4.39470E-3	-257.934E-12	650.779E-3	-31.6256E-3	-262.659E-12	609.239E-3	5.15034E-3
-4.39970E-3	-257.337E-12	647.016E-3	-63.9539E-3	-261.924E-12	641.289E-3	34.9786E-3
-4.40470E-3	-256.371E-12	631.431E-3	-43.7962E-3	-260.539E-12	678.036E-3	35.9153E-3
-4.40970E-3	-256.028E-12	618.714E-3	-31.4384E-3	-260.815E-12	675.315E-3	42.9349E-3
-4.41471E-3	-257.401E-12	647.979E-3	-27.7247E-3	-260.790E-12	647.624E-3	62.2109E-3
-4.41971E-3	-257.510E-12	667.309E-3	-14.3327E-3	-258.298E-12	594.645E-3	59.0171E-3
-4.42471E-3	-256.874E-12	645.567E-3	-15.8184E-3	-258.931E-12	602.830E-3	13.9751E-3
-4.42971E-3	-258.927E-12	637.922E-3	-12.2749E-3	-258.256E-12	683.298E-3	-16.3987E-3
-4.43472E-3	-259.466E-12	637.692E-3	11.2861E-3	-258.738E-12	692.417E-3	-14.5568E-3
-4.43972E-3	-261.458E-12	645.783E-3	36.7840E-3	-259.216E-12	643.818E-3	-24.6507E-3
-4.44472E-3	-259.668E-12	667.743E-3	27.4028E-3	-259.825E-12	631.450E-3	-38.1475E-3
-4.44972E-3	-260.868E-12	669.756E-3	4.22194E-3	-260.833E-12	645.521E-3	-30.9971E-3
-4.45473E-3	-259.974E-12	672.781E-3	14.2589E-3	-261.733E-12	671.820E-3	-27.6831E-3
-4.45973E-3	-260.307E-12	686.190E-3	16.0594E-3	-262.849E-12	677.785E-3	-21.7975E-3
-4.46473E-3	-261.298E-12	672.408E-3	-19.1150E-3	-262.800E-12	664.205E-3	-12.6398E-3
-4.46973E-3	-260.130E-12	642.021E-3	-45.3460E-3	-263.435E-12	676.048E-3	-41.6018E-3
-4.47474E-3	-259.272E-12	644.081E-3	-42.5051E-3	-263.049E-12	667.907E-3	-84.2965E-3
-4.47974E-3	-259.262E-12	676.780E-3	-24.7069E-3	-262.700E-12	648.372E-3	-83.6242E-3
-4.48474E-3	-260.048E-12	673.159E-3	-12.7539E-3	-262.693E-12	660.077E-3	-51.8629E-3
-4.48974E-3	-259.271E-12	642.120E-3	-27.8182E-3	-263.073E-12	682.828E-3	-25.1082E-3
-4.49475E-3	-259.575E-12	624.998E-3	-63.1604E-3	-261.093E-12	707.060E-3	-11.7315E-3
-4.49975E-3	-259.395E-12	613.645E-3	-70.2712E-3	-260.213E-12	694.531E-3	4.88796E-3
-4.50475E-3	-259.611E-12	614.189E-3	-33.1184E-3	-258.127E-12	646.541E-3	15.1902E-3
-4.50975E-3	-261.068E-12	631.902E-3	-22.2837E-3	-258.485E-12	606.999E-3	-8.77494E-3
-4.51476E-3	-261.421E-12	649.219E-3	-27.5597E-3	-259.309E-12	596.776E-3	-33.7516E-3
-4.51976E-3	-260.891E-12	655.289E-3	-6.80204E-3	-257.075E-12	614.849E-3	-9.34443E-3
-4.52476E-3	-261.484E-12	677.311E-3	21.1984E-3	-257.359E-12	626.716E-3	26.1380E-3
-4.52976E-3	-262.406E-12	692.073E-3	32.7716E-3	-259.013E-12	640.025E-3	16.3076E-3
-4.53477E-3	-265.132E-12	664.082E-3	17.1437E-3	-261.648E-12	675.123E-3	-14.4948E-3
-4.53977E-3	-264.299E-12	660.912E-3	-12.9849E-3	-261.319E-12	703.187E-3	-26.7363E-3
-4.54477E-3	-263.524E-12	706.529E-3	-27.4062E-3	-261.509E-12	669.520E-3	-12.1237E-3
-4.54977E-3	-262.728E-12	723.023E-3	-25.1303E-3	-262.760E-12	614.749E-3	1.68292E-3
-4.55478E-3	-263.450E-12	702.809E-3	-8.27921E-3	-264.250E-12	626.278E-3	-3.89642E-3
-4.55978E-3	-263.992E-12	687.625E-3	24.8849E-3	-265.463E-12	658.147E-3	-24.6458E-3
-4.56478E-3	-263.216E-12	689.929E-3	16.3980E-3	-265.530E-12	669.234E-3	-42.1225E-3
-4.56978E-3	-261.083E-12	702.910E-3	-44.3352E-3	-264.470E-12	660.124E-3	-21.8760E-3
-4.57479E-3	-262.116E-12	707.897E-3	-74.6270E-3	-264.892E-12	633.024E-3	-8.23875E-3
-4.57979E-3	-260.912E-12	712.167E-3	-37.6784E-3	-264.602E-12	630.884E-3	-5.40036E-3
-4.58479E-3	-262.253E-12	691.556E-3	15.9185E-3	-262.256E-12	660.299E-3	-3.42112E-3
-4.58979E-3	-261.018E-12	629.663E-3	47.8327E-3	-262.153E-12	677.832E-3	-31.2643E-3
-4.59480E-3	-259.829E-12	592.778E-3	47.6686E-3	-261.463E-12	658.835E-3	-50.0554E-3
-4.59980E-3	-260.327E-12	613.776E-3	5.86815E-3	-260.782E-12	636.272E-3	-34.9006E-3
-4.60480E-3	-261.570E-12	650.456E-3	-54.7442E-3	-260.994E-12	634.043E-3	-17.4091E-3
-4.60980E-3	-262.475E-12	662.911E-3	-85.6480E-3	-261.824E-12	662.825E-3	-20.2242E-3
-4.61481E-3	-263.240E-12	683.899E-3	-63.1210E-3	-263.883E-12	714.373E-3	-12.2725E-3
-4.61981E-3	-264.862E-12	687.748E-3	-32.5614E-3	-263.890E-12	724.581E-3	-10.3920E-3
-4.62481E-3	-265.603E-12	656.441E-3	-10.2120E-3	-265.989E-12	692.660E-3	-34.9205E-3
-4.62981E-3	-265.417E-12	649.176E-3	23.2841E-3	-267.425E-12	685.146E-3	-26.9295E-3
-4.63482E-3	-266.106E-12	674.521E-3	40.8538E-3	-268.999E-12	675.284E-3	-4.73279E-3
-4.63982E-3	-266.072E-12	706.310E-3	56.8981E-3	-270.998E-12	652.903E-3	1.29811E-3
-4.64482E-3	-268.898E-12	668.323E-3	58.5054E-3	-272.268E-12	656.636E-3	9.52236E-3
-4.64982E-3	-270.008E-12	611.399E-3	40.0925E-3	-273.327E-12	666.090E-3	5.09275E-3
-4.65483E-3	-270.277E-12	641.173E-3	33.4509E-3	-271.568E-12	661.918E-3	-7.23151E-3
-4.65983E-3	-268.490E-12	682.297E-3	4.09253E-3	-273.237E-12	651.846E-3	-13.2551E-3
-4.66483E-3	-270.474E-12	681.558E-3	-50.3853E-3	-271.735E-12	655.706E-3	4.00306E-3
-4.66983E-3	-271.352E-12	677.003E-3	-89.5644E-3	-270.457E-12	661.941E-3	45.3721E-3
-4.67484E-3	-268.511E-12	671.090E-3	-103.490E-3	-269.573E-12	647.625E-3	75.7952E-3
-4.67984E-3	-267.748E-12	657.675E-3	-82.9877E-3	-269.546E-12	643.045E-3	80.1676E-3
-4.68484E-3	-269.440E-12	646.744E-3	-56.7606E-3	-269.033E-12	637.453E-3	67.1366E-3
-4.68984E-3	-270.990E-12	644.147E-3	-47.0585E-3	-267.094E-12	621.419E-3	50.8939E-3
-4.69485E-3	-269.206E-12	654.860E-3	-9.93258E-3	-267.362E-12	602.409E-3	36.4861E-3
-4.69985E-3	-269.202E-12	673.505E-3	21.8449E-3	-269.418E-12	585.038E-3	42.8983E-3
-4.70485E-3	-270.958E-12	676.124E-3	8.41894E-3	-271.652E-12	609.730E-3	52.2571E-3
-4.70985E-3	-271.394E-12	664.131E-3	11.9985E-3	-270.254E-12	635.442E-3	15.9128E-3
-4.71486E-3	-270.688E-12	655.725E-3	31.4085E-3	-270.818E-12	643.507E-3	-27.6378E-3
-4.71986E-3	-269.578E-12	645.382E-3	20.0050E-3	-272.987E-12	657.574E-3	-35.1567E-3
-4.72486E-3	-271.055E-12	635.359E-3	4.63002E-3	-275.532E-12	673.161E-3	-8.42131E-3
-4.72986E-3	-271.401E-12	656.645E-3	21.3833E-3	-274.853E-12	691.356E-3	23.7690E-3
-4.73487E-3	-273.092E-12	689.096E-3	41.0414E-3	-273.903E-12	671.449E-3	28.3718E-3
-4.73987E-3	-272.370E-12	682.376E-3	32.1889E-3	-275.121E-12	639.193E-3	-13.2292E-3
-4.74487E-3	-273.192E-12	671.379E-3	28.1272E-3	-275.788E-12	636.021E-3	-74.7248E-3
-4.74988E-3	-273.978E-12	694.878E-3	22.8961E-3	-275.115E-12	620.358E-3	-75.8694E-3
-4.75488E-3	-275.527E-12	714.808E-3	-16.6418E-3	-272.415E-12	609.931E-3	-26.3782E-3
-4.75988E-3	-274.560E-12	715.301E-3	-49.6797E-3	-270.449E-12	625.623E-3	16.8233E-3
-4.76488E-3	-272.248E-12	718.969E-3	-40.1294E-3	-270.034E-12	637.663E-3	38.3253E-3
-4.76988E-3	-272.250E-12	693.052E-3	-25.4487E-3	-269.681E-12	638.118E-3	21.0359E-3
-4.77489E-3	-270.535E-12	652.227E-3	-21.8676E-3	-267.829E-12	645.455E-3	-6.64050E-3
-4.77989E-3	-272.106E-12	656.450E-3	18.9226E-3	-267.011E-12	652.190E-3	-6.24923E-3
-4.78489E-3	-271.737E-12	699.736E-3	58.7527E-3	-267.896E-12	664.151E-3	17.3876E-3
-4.78989E-3	-269.860E-12	732.080E-3	-4.81877E-3	-269.269E-12	663.799E-3	22.8115E-3
-4.79490E-3	-270.931E-12	716.382E-3	-83.5213E-3	-269.836E-12	638.839E-3	1.10531E-3
-4.79990E-3	-272.065E-12	666.038E-3	-50.7389E-3	-268.890E-12	648.396E-3	-11.2129E-3
-4.80490E-3	-271.492E-12	631.850E-3	-15.2186E-3	-270.993E-12	682.182E-3	-29.8864E-3
-4.80990E-3	-269.288E-12	623.237E-3	-32.2101E-3	-272.533E-12	672.147E-3	-32.9872E-3
-4.81491E-3	-270.212E-12	610.595E-3	-26.4911E-3	-274.451E-12	649.447E-3	-16.6766E-3
-4.81991E-3	-271.594E-12	604.232E-3	-2.07444E-3	-274.809E-12	681.241E-3	-11.9057E-3
-4.82491E-3	-274.451E-12	602.050E-3	4.76436E-3	-273.830E-12	686.810E-3	1.22105E-3
-4.82991E-3	-273.068E-12	603.695E-3	-13.0219E-3	-275.168E-12	650.452E-3	23.2800E-3
-4.83492E-3	-272.665E-12	631.334E-3	-46.2114E-3	-276.636E-12	652.049E-3	44.5170E-3
-4.83992E-3	-274.975E-12	643.540E-3	-44.0167E-3	-276.521E-12	654.542E-3	32.0595E-3
-4.84492E-3	-276.185E-12	643.814E-3	-14.0792E-3	-274.170E-12	643.800E-3	-21.0765E-3
-4.84992E-3	-274.915E-12	669.261E-3	-23.1520E-3	-274.269E-12	652.460E-3	-71.7931E-3
-4.85493E-3	-273.973E-12	682.638E-3	-44.8963E-3	-274.187E-12	668.014E-3	-74.1849E-3
-4.85993E-3	-273.318E-12	648.911E-3	-47.2185E-3	-273.058E-12	664.234E-3	-26.5447E-3
-4.86493E-3	-275.310E-12	620.239E-3	-38.1266E-3	-273.533E-12	644.439E-3	14.6932E-3
-4.86993E-3	-274.913E-12	646.953E-3	-20.6609E-3	-274.105E-12	645.757E-3	28.8351E-3
-4.87494E-3	-274.297E-12	657.189E-3	-4.84442E-3	-275.890E-12	657.807E-3	54.5114E-3
-4.87994E-3	-274.895E-12	638.873E-3	-5.18431E-3	-275.101E-12	667.781E-3	85.1621E-3
-4.88494E-3	-275.700E-12	645.341E-3	-3.67722E-3	-276.781E-12	661.867E-3	49.1324E-3
-4.88995E-3	-277.123E-12	672.158E-3	5.32432E-3	-278.887E-12	645.722E-3	-3.51080E-3
-4.89495E-3	-277.921E-12	692.197E-3	-13.4410E-3	-278.934E-12	648.330E-3	3.60272E-3
-4.89995E-3	-279.785E-12	685.811E-3	-33.7567E-3	-278.637E-12	604.933E-3	1.40649E-3
-4.90495E-3	-280.318E-12	658.431E-3	-34.6432E-3	-278.059E-12	562.191E-3	-9.74400E-3
-4.90995E-3	-279.810E-12	616.714E-3	-35.0135E-3	-279.397E-12	606.141E-3	18.1560E-3
-4.91496E-3	-280.733E-12	606.582E-3	-46.9703E-3	-277.986E-12	650.445E-3	26.6318E-3
-4.91996E-3	-281.404E-12	646.904E-3	-61.6402E-3	-278.402E-12	657.485E-3	-3.60597E-3
-4.92496E-3	-280.705E-12	656.553E-3	-47.0546E-3	-278.775E-12	672.670E-3	-30.7771E-3
-4.92996E-3	-279.344E-12	624.635E-3	403.441E-6	-278.764E-12	700.986E-3	-44.5361E-3
-4.93497E-3	-280.725E-12	629.358E-3	31.4477E-3	-278.574E-12	696.415E-3	-38.3299E-3
-4.93997E-3	-281.837E-12	665.894E-3	24.3238E-3	-278.268E-12	657.696E-3	-1.63307E-3
-4.94497E-3	-280.336E-12	705.055E-3	7.03866E-3	-278.200E-12	637.156E-3	31.0516E-3
-4.94997E-3	-280.144E-12	696.779E-3	-4.66514E-3	-279.204E-12	647.424E-3	5.93486E-3
-4.95498E-3	-279.126E-12	612.458E-3	-26.3793E-3	-280.952E-12	647.304E-3	-27.3559E-3
-4.95998E-3	-280.190E-12	587.526E-3	-29.6936E-3	-281.547E-12	641.430E-3	-17.4093E-3
-4.96498E-3	-280.252E-12	637.078E-3	-4.30210E-3	-282.221E-12	665.449E-3	284.041E-6
-4.96998E-3	-281.005E-12	663.107E-3	-5.91170E-3	-284.184E-12	680.708E-3	-2.30969E-3
-4.97499E-3	-280.748E-12	661.467E-3	-29.0011E-3	-286.451E-12	683.225E-3	-29.8744E-3
-4.97999E-3	-281.150E-12	637.810E-3	-30.5007E-3	-285.734E-12	709.471E-3	-54.6766E-3
-4.98499E-3	-282.157E-12	636.775E-3	-33.8272E-3	-285.868E-12	720.254E-3	-33.8869E-3
-4.98999E-3	-283.837E-12	654.604E-3	-29.1760E-3	-289.774E-12	690.174E-3	6.08772E-3
-4.99500E-3	-286.860E-12	662.321E-3	1.56369E-3	-286.617E-12	681.239E-3	7.01404E-3
-5.00000E-3	-287.186E-12	678.633E-3	5.94237E-3	-287.695E-12	691.658E-3	-5.89186E-3
