Experiment	bias spectroscopy	
Date	19.01.2016 21:54:41	
User		
X (m)	49.6944E-9	
Y (m)	257.36E-9	
Z (m)	-132.571E-9	
Z offset (m)	0E+0	
Settling time (s)	200E-6	
Integration time (s)	5E-3	
Z-Ctrl hold	TRUE	
Final Z (m)	N/A	
Filter type	None	
Order		
Cutoff frq		
Comment01	MnPc/Pb(111)	
Comment02	dz =00pm	
Comment03	7 Sweeps	
Comment04	MagField =0.T	
Comment05	Divider 1:10	
Comment06	Setpoint:5mV,200 pA	
Comment07	Lockin: 50uVrms,5ms,5mV	
Comment08	Gain:9; 912Hz modulation	
Comment09	T=1.06K	
Bias>Bias (V)	5E-3	
Bias>Calibration (V/V)	81.475E-3	
Bias>Offset (V)	1.046E-3	
Bias Spectroscopy>Sweep Start (V)	5E-3	
Bias Spectroscopy>Sweep End (V)	-5E-3	
Bias Spectroscopy>Num Pixel	2000	
Bias Spectroscopy>Z Avg time (s)	500E-3	
Bias Spectroscopy>Z offset (m)	0E+0	
Bias Spectroscopy>1st Settling time (s)	500E-3	
Bias Spectroscopy>Settling time (s)	200E-6	
Bias Spectroscopy>Integration time (s)	5E-3	
Bias Spectroscopy>End Settling time (s)	500E-3	
Bias Spectroscopy>Z control time (s)	500E-3	
Bias Spectroscopy>Max Slew rate (V/s)	Inf	
Bias Spectroscopy>backward sweep	TRUE	
Bias Spectroscopy>Z-controller hold	TRUE	
Bias Spectroscopy>Number of sweeps	7	
Bias Spectroscopy>Channels	Current (A);X% LockIn (V);Y% LockIn (V)	
Bias Spectroscopy>Reset Bias	TRUE	
Bias Spectroscopy>Record final Z	FALSE	
Bias Spectroscopy>Lock-In run	FALSE	
Bias Spectroscopy>Sweep mode	Linear	
Bias Spectroscopy>MultiLine Settings : Segment Start (V), Segment End (V), Settling (s), Integration (s), Steps (xn)	100E-3,3.3E-3,100E-6,10E-3,2500;3.3E-3,-3.3E-3,100E-6,10E-3,10;-3.3E-3,-100E-3,100E-6,10E-3,2500	
Current>Current (A)	200.069E-12	
Current>Calibration (A/V)	999.99900E-12	
Current>Offset (A)	-455.429E-15	
Current>Gain	LN 10^9	
Z-Controller>Z (m)	-132.569E-9	
Z-Controller>Controller name	log Current	
Z-Controller>Controller status	ON	
Z-Controller>Setpoint	200E-12	
Z-Controller>Setpoint unit	A	
Z-Controller>P gain	2.96994E-12	
Z-Controller>I gain	67.0321E-9	
Z-Controller>Time const (s)	44.3062E-6	
Z-Controller>TipLift (m)	0E+0	
Z-Controller>Switch off delay (s)	50E-3	
Current (A)	200.007E-12	
Z (m)	-132.569E-9	

[DATA]
Bias calc (V)	Current (A)	X% LockIn (V)	Y% LockIn (V)	Current [bwd] (A)	X% LockIn [bwd] (V)	Y% LockIn [bwd] (V)
5.00000E-3	200.071E-12	669.196E-3	-43.0116E-3	199.116E-12	635.228E-3	-15.3347E-3
4.99500E-3	200.087E-12	693.371E-3	-17.6074E-3	199.311E-12	617.310E-3	-19.9233E-3
4.98999E-3	201.227E-12	679.014E-3	-949.943E-6	199.903E-12	633.636E-3	-25.1252E-3
4.98499E-3	200.504E-12	666.390E-3	-11.0368E-3	199.725E-12	669.254E-3	-10.5644E-3
4.97999E-3	200.804E-12	665.804E-3	-4.99472E-3	201.446E-12	676.060E-3	10.9139E-3
4.97499E-3	200.391E-12	670.061E-3	2.45106E-3	202.005E-12	655.642E-3	2.30942E-3
4.96998E-3	200.366E-12	668.019E-3	-14.1892E-3	204.453E-12	635.160E-3	-9.99566E-3
4.96498E-3	199.773E-12	624.312E-3	-13.1387E-3	204.171E-12	636.379E-3	-2.15850E-3
4.95998E-3	199.010E-12	611.140E-3	4.52163E-3	204.194E-12	660.180E-3	-5.67850E-3
4.95498E-3	198.471E-12	667.805E-3	10.7579E-3	203.955E-12	672.293E-3	-23.9738E-3
4.94997E-3	197.944E-12	703.963E-3	4.35650E-3	203.541E-12	666.029E-3	-34.8922E-3
4.94497E-3	197.363E-12	675.322E-3	-14.5488E-3	202.207E-12	670.851E-3	-22.9305E-3
4.93997E-3	196.894E-12	650.596E-3	-6.88585E-3	200.542E-12	676.703E-3	-9.69493E-3
4.93497E-3	196.686E-12	639.188E-3	15.3187E-3	199.046E-12	665.625E-3	-18.4018E-3
4.92996E-3	197.325E-12	618.029E-3	-9.98814E-3	197.630E-12	654.239E-3	-12.4810E-3
4.92496E-3	197.060E-12	636.778E-3	-46.9633E-3	196.174E-12	648.584E-3	-7.84134E-3
4.91996E-3	197.693E-12	684.979E-3	-49.1221E-3	194.790E-12	649.021E-3	-3.41462E-3
4.91496E-3	197.166E-12	685.964E-3	-27.7155E-3	193.837E-12	661.159E-3	5.44471E-3
4.90995E-3	197.718E-12	671.937E-3	-13.5113E-3	192.890E-12	663.998E-3	-24.6580E-3
4.90495E-3	198.160E-12	673.847E-3	-18.0835E-3	192.556E-12	642.179E-3	-58.5640E-3
4.89995E-3	198.969E-12	664.310E-3	-34.8416E-3	192.553E-12	625.093E-3	-50.5560E-3
4.89495E-3	197.399E-12	671.395E-3	-54.6372E-3	192.179E-12	636.415E-3	-22.0305E-3
4.88995E-3	197.248E-12	689.576E-3	-50.8236E-3	192.197E-12	646.726E-3	-3.29468E-3
4.88494E-3	196.183E-12	689.463E-3	-21.5831E-3	192.663E-12	639.120E-3	-1.84941E-3
4.87994E-3	195.973E-12	684.964E-3	5.52649E-3	194.223E-12	631.023E-3	-13.5737E-3
4.87494E-3	195.357E-12	681.060E-3	8.59889E-3	194.768E-12	635.185E-3	-26.8745E-3
4.86993E-3	194.365E-12	651.087E-3	-13.8330E-3	195.171E-12	650.386E-3	-22.7340E-3
4.86493E-3	193.337E-12	617.482E-3	-44.8443E-3	195.644E-12	662.805E-3	-13.5254E-3
4.85993E-3	193.747E-12	625.309E-3	-40.4317E-3	196.431E-12	668.276E-3	-20.1121E-3
4.85493E-3	193.711E-12	646.734E-3	-6.60306E-3	196.252E-12	671.418E-3	-25.9984E-3
4.84992E-3	193.396E-12	642.625E-3	-12.0132E-3	195.443E-12	659.986E-3	-34.0113E-3
4.84492E-3	193.548E-12	638.046E-3	-30.9514E-3	195.005E-12	646.915E-3	-49.7876E-3
4.83992E-3	193.896E-12	632.456E-3	-12.1900E-3	194.150E-12	650.997E-3	-50.9748E-3
4.83492E-3	194.170E-12	636.809E-3	8.26911E-3	194.380E-12	653.606E-3	-35.1846E-3
4.82991E-3	195.088E-12	660.832E-3	-9.17854E-3	193.784E-12	651.834E-3	-19.4503E-3
4.82491E-3	194.422E-12	669.570E-3	-34.8254E-3	193.368E-12	657.696E-3	-25.3422E-3
4.81991E-3	194.021E-12	672.474E-3	-35.6161E-3	192.755E-12	670.184E-3	-22.6221E-3
4.81491E-3	194.175E-12	680.973E-3	-15.0063E-3	192.819E-12	666.394E-3	-22.5916E-6
4.80990E-3	194.152E-12	694.041E-3	892.404E-6	192.083E-12	645.890E-3	-16.3853E-3
4.80490E-3	193.106E-12	680.719E-3	-2.46130E-3	191.183E-12	647.468E-3	-42.6899E-3
4.79990E-3	192.220E-12	662.578E-3	-19.7647E-3	190.621E-12	658.888E-3	-46.4296E-3
4.79490E-3	190.984E-12	667.072E-3	-44.5512E-3	191.399E-12	638.876E-3	-43.5449E-3
4.78989E-3	190.445E-12	664.048E-3	-49.1162E-3	191.664E-12	623.924E-3	-38.8401E-3
4.78489E-3	189.925E-12	665.352E-3	-37.1356E-3	192.023E-12	643.052E-3	-50.9124E-3
4.77989E-3	189.000E-12	671.424E-3	-30.1919E-3	192.137E-12	663.025E-3	-52.2061E-3
4.77489E-3	187.459E-12	647.902E-3	-35.3729E-3	192.377E-12	673.884E-3	-22.8354E-3
4.76988E-3	188.536E-12	613.890E-3	-31.3938E-3	193.144E-12	671.961E-3	6.89183E-3
4.76488E-3	189.186E-12	612.793E-3	-14.0423E-3	192.914E-12	661.246E-3	6.93907E-3
4.75988E-3	189.689E-12	609.653E-3	-10.2529E-3	192.034E-12	659.794E-3	-16.8124E-3
4.75488E-3	189.858E-12	611.524E-3	-13.6996E-3	192.442E-12	657.156E-3	-39.6506E-3
4.74988E-3	190.731E-12	661.920E-3	-11.8692E-3	192.218E-12	638.017E-3	-40.6146E-3
4.74487E-3	191.071E-12	698.201E-3	-6.13171E-3	192.063E-12	624.851E-3	-19.4655E-3
4.73987E-3	192.119E-12	677.949E-3	-782.436E-6	191.596E-12	635.485E-3	-14.4679E-3
4.73487E-3	192.312E-12	667.142E-3	3.64804E-3	190.948E-12	657.986E-3	-6.91688E-3
4.72986E-3	191.431E-12	659.564E-3	-13.2908E-3	191.126E-12	665.057E-3	22.0697E-3
4.72486E-3	191.047E-12	621.675E-3	-29.0280E-3	191.624E-12	651.402E-3	31.1955E-3
4.71986E-3	190.194E-12	624.842E-3	-12.5668E-3	190.692E-12	629.911E-3	17.8385E-3
4.71486E-3	189.404E-12	665.522E-3	4.64936E-3	189.003E-12	607.325E-3	-3.19154E-3
4.70985E-3	188.737E-12	671.917E-3	-925.493E-6	188.435E-12	609.249E-3	-17.7542E-3
4.70485E-3	187.298E-12	658.229E-3	-1.14182E-3	187.799E-12	622.340E-3	-23.8971E-3
4.69985E-3	186.713E-12	653.208E-3	8.69256E-3	186.808E-12	643.311E-3	-40.0740E-3
4.69485E-3	186.394E-12	638.827E-3	-7.44719E-3	185.551E-12	671.138E-3	-44.2891E-3
4.68984E-3	185.835E-12	636.733E-3	-41.5844E-3	184.899E-12	669.476E-3	-12.3544E-3
4.68484E-3	184.748E-12	649.186E-3	-62.9547E-3	184.377E-12	651.664E-3	21.5335E-3
4.67984E-3	184.687E-12	637.692E-3	-44.0317E-3	184.601E-12	643.344E-3	28.8986E-3
4.67484E-3	185.205E-12	618.046E-3	932.626E-6	184.274E-12	648.375E-3	15.1564E-3
4.66983E-3	185.665E-12	629.265E-3	26.0663E-3	183.553E-12	663.974E-3	13.3320E-3
4.66483E-3	185.785E-12	645.972E-3	22.1173E-3	183.725E-12	664.699E-3	5.33164E-3
4.65983E-3	186.818E-12	639.726E-3	3.09505E-3	184.396E-12	641.719E-3	-13.8416E-3
4.65483E-3	185.813E-12	651.366E-3	-11.4697E-3	185.247E-12	635.197E-3	9.00565E-3
4.64982E-3	186.904E-12	666.492E-3	-8.79702E-3	185.383E-12	658.968E-3	28.1468E-3
4.64482E-3	187.429E-12	656.022E-3	-11.6664E-3	185.373E-12	665.596E-3	13.9176E-3
4.63982E-3	186.771E-12	668.966E-3	-11.9784E-3	185.973E-12	647.095E-3	8.51575E-3
4.63482E-3	185.432E-12	694.490E-3	2.81798E-3	186.605E-12	645.196E-3	16.6896E-3
4.62981E-3	184.754E-12	698.232E-3	-1.90854E-3	186.724E-12	648.656E-3	8.02998E-3
4.62481E-3	184.136E-12	701.441E-3	-24.8295E-3	186.703E-12	654.385E-3	-12.5396E-3
4.61981E-3	183.364E-12	686.792E-3	-39.5831E-3	186.029E-12	665.598E-3	-28.5063E-3
4.61481E-3	182.010E-12	673.096E-3	-42.5995E-3	186.090E-12	678.582E-3	-49.2600E-3
4.60980E-3	181.106E-12	669.288E-3	-21.2905E-3	185.864E-12	675.117E-3	-50.8525E-3
4.60480E-3	180.576E-12	642.395E-3	8.50004E-3	184.810E-12	655.129E-3	-32.1210E-3
4.59980E-3	180.916E-12	623.036E-3	-5.93155E-3	183.252E-12	646.568E-3	-15.8898E-3
4.59480E-3	180.822E-12	625.188E-3	-16.0585E-3	182.089E-12	636.126E-3	12.2767E-3
4.58979E-3	180.895E-12	617.867E-3	2.61100E-3	181.339E-12	639.683E-3	12.5361E-3
4.58479E-3	181.007E-12	605.051E-3	-17.3282E-3	180.577E-12	643.218E-3	-32.8765E-3
4.57979E-3	181.536E-12	610.778E-3	-39.6460E-3	180.260E-12	628.937E-3	-49.6810E-3
4.57479E-3	182.294E-12	628.601E-3	-25.5474E-3	179.131E-12	640.541E-3	-17.5476E-3
4.56978E-3	182.500E-12	639.913E-3	-15.3181E-3	179.586E-12	661.553E-3	6.34158E-3
4.56478E-3	182.853E-12	650.035E-3	-17.3771E-3	180.665E-12	664.147E-3	-10.5704E-3
4.55978E-3	182.901E-12	658.864E-3	-8.20322E-3	181.445E-12	650.934E-3	-31.2550E-3
4.55478E-3	183.069E-12	648.033E-3	-6.00445E-3	181.231E-12	627.462E-3	-21.8692E-3
4.54977E-3	182.941E-12	648.397E-3	-22.0282E-3	182.661E-12	630.059E-3	-5.10149E-6
4.54477E-3	181.955E-12	668.820E-3	-20.5148E-3	182.984E-12	653.388E-3	-3.02510E-3
4.53977E-3	180.767E-12	675.096E-3	3.93490E-3	184.251E-12	655.931E-3	-14.4099E-3
4.53477E-3	179.536E-12	679.647E-3	8.19393E-3	184.099E-12	644.685E-3	-13.0237E-3
4.52976E-3	179.012E-12	661.242E-3	-2.18956E-3	184.038E-12	635.475E-3	-13.5964E-3
4.52476E-3	178.757E-12	620.124E-3	17.8376E-3	183.654E-12	636.294E-3	-19.7754E-3
4.51976E-3	178.125E-12	605.966E-3	33.3251E-3	183.867E-12	653.118E-3	-34.0677E-3
4.51476E-3	177.296E-12	614.514E-3	19.4219E-3	182.792E-12	644.085E-3	-29.9425E-3
4.50975E-3	178.040E-12	612.816E-3	-2.06587E-3	181.452E-12	634.594E-3	-10.6555E-3
4.50475E-3	178.264E-12	611.915E-3	-23.8667E-3	179.685E-12	664.098E-3	-32.2440E-3
4.49975E-3	178.457E-12	627.831E-3	-26.1644E-3	178.627E-12	684.651E-3	-59.8795E-3
4.49475E-3	178.692E-12	646.347E-3	-15.6367E-3	176.985E-12	682.558E-3	-14.8524E-3
4.48974E-3	179.192E-12	662.177E-3	-17.6172E-3	176.272E-12	674.075E-3	38.1874E-3
4.48474E-3	179.586E-12	668.851E-3	-19.1757E-3	174.221E-12	662.432E-3	11.9570E-3
4.47974E-3	180.142E-12	672.177E-3	-20.8168E-3	175.160E-12	643.927E-3	-27.4605E-3
4.47474E-3	180.177E-12	684.933E-3	-12.0580E-3	175.435E-12	651.324E-3	-16.4407E-3
4.46973E-3	179.650E-12	690.944E-3	6.06343E-3	175.755E-12	680.711E-3	2.89577E-3
4.46473E-3	179.803E-12	665.056E-3	3.91197E-3	175.724E-12	681.511E-3	-16.1499E-3
4.45973E-3	179.770E-12	649.249E-3	-11.9290E-3	176.040E-12	668.982E-3	-34.1674E-3
4.45473E-3	179.256E-12	664.852E-3	-24.5243E-3	176.260E-12	680.409E-3	-13.8161E-3
4.44972E-3	177.908E-12	668.910E-3	-17.8945E-3	177.709E-12	689.413E-3	-8.31688E-3
4.44472E-3	177.215E-12	660.780E-3	-12.4936E-3	178.544E-12	665.725E-3	-22.8309E-3
4.43972E-3	176.557E-12	654.143E-3	-30.3186E-3	178.703E-12	645.660E-3	-23.4822E-3
4.43472E-3	175.861E-12	645.986E-3	-46.5319E-3	178.308E-12	640.793E-3	-6.35148E-3
4.42971E-3	174.974E-12	638.166E-3	-42.9793E-3	179.175E-12	631.523E-3	15.8061E-3
4.42471E-3	174.396E-12	640.092E-3	-29.2389E-3	178.560E-12	616.083E-3	1.91157E-3
4.41971E-3	174.582E-12	649.055E-3	-14.1940E-3	177.692E-12	611.229E-3	-21.5269E-3
4.41471E-3	174.426E-12	660.168E-3	-7.17267E-3	176.488E-12	633.232E-3	-18.5414E-3
4.40970E-3	175.210E-12	666.701E-3	-14.5451E-3	175.170E-12	644.924E-3	-17.0359E-3
4.40470E-3	175.180E-12	669.731E-3	3.20091E-3	174.161E-12	620.491E-3	-31.0101E-3
4.39970E-3	175.399E-12	665.107E-3	23.0822E-3	173.946E-12	614.654E-3	-44.8063E-3
4.39470E-3	175.074E-12	655.210E-3	-1.82721E-3	172.128E-12	646.873E-3	-34.7591E-3
4.38969E-3	175.515E-12	649.653E-3	-10.9294E-3	171.263E-12	660.256E-3	-10.9641E-3
4.38469E-3	174.942E-12	636.315E-3	12.5403E-3	170.569E-12	643.581E-3	817.374E-6
4.37969E-3	174.886E-12	618.419E-3	18.5909E-3	170.912E-12	642.652E-3	1.02314E-3
4.37469E-3	174.428E-12	621.560E-3	3.26538E-3	170.747E-12	654.823E-3	-12.2629E-3
4.36968E-3	173.435E-12	652.568E-3	-23.6615E-3	171.005E-12	651.650E-3	-19.0217E-3
4.36468E-3	172.711E-12	681.908E-3	-46.2969E-3	170.812E-12	637.517E-3	-10.9020E-3
4.35968E-3	172.099E-12	665.642E-3	-50.4070E-3	172.061E-12	624.399E-3	-23.4363E-3
4.35468E-3	171.844E-12	634.087E-3	-44.4805E-3	173.609E-12	599.586E-3	-53.0672E-3
4.34967E-3	170.926E-12	622.581E-3	-34.1356E-3	173.651E-12	584.249E-3	-71.1121E-3
4.34467E-3	171.019E-12	621.914E-3	-15.3005E-3	173.570E-12	628.107E-3	-81.3065E-3
4.33967E-3	171.705E-12	645.880E-3	16.3886E-3	173.780E-12	668.871E-3	-67.8304E-3
4.33467E-3	171.291E-12	669.649E-3	33.5413E-3	174.328E-12	680.229E-3	-36.6028E-3
4.32966E-3	170.808E-12	682.305E-3	8.84766E-3	173.745E-12	696.072E-3	-26.6819E-3
4.32466E-3	171.713E-12	684.144E-3	-22.1007E-3	172.880E-12	688.021E-3	-13.9725E-3
4.31966E-3	171.630E-12	657.196E-3	-23.5071E-3	172.253E-12	665.409E-3	10.9640E-3
4.31466E-3	170.727E-12	626.302E-3	-17.4307E-3	172.174E-12	644.116E-3	16.0773E-3
4.30965E-3	170.818E-12	629.522E-3	-16.7974E-3	171.007E-12	628.323E-3	3.59532E-3
4.30465E-3	170.868E-12	643.488E-3	-20.8952E-3	170.549E-12	623.261E-3	-6.84118E-3
4.29965E-3	171.040E-12	643.664E-3	-16.4065E-3	169.867E-12	612.023E-3	-17.4615E-3
4.29465E-3	169.709E-12	637.264E-3	-8.32094E-3	170.079E-12	609.950E-3	-30.6769E-3
4.28964E-3	169.388E-12	632.129E-3	-16.4378E-3	169.589E-12	639.678E-3	-22.7138E-3
4.28464E-3	169.517E-12	644.626E-3	-28.2583E-3	169.288E-12	670.217E-3	-8.95888E-3
4.27964E-3	168.649E-12	651.498E-3	-14.6338E-3	168.286E-12	670.744E-3	-26.3900E-3
4.27464E-3	167.348E-12	646.817E-3	23.0820E-3	168.769E-12	664.705E-3	-51.6921E-3
4.26963E-3	167.222E-12	647.382E-3	22.6560E-3	168.881E-12	677.394E-3	-54.3328E-3
4.26463E-3	166.999E-12	645.608E-3	-15.9553E-3	168.807E-12	682.889E-3	-45.9510E-3
4.25963E-3	166.825E-12	633.864E-3	-28.6439E-3	168.867E-12	672.249E-3	-36.6558E-3
4.25463E-3	166.636E-12	626.923E-3	-17.4516E-3	168.532E-12	664.916E-3	-33.2669E-3
4.24962E-3	167.008E-12	638.475E-3	-20.4020E-3	168.815E-12	661.282E-3	-38.5737E-3
4.24462E-3	167.111E-12	653.364E-3	-17.7356E-3	169.300E-12	654.280E-3	-29.2040E-3
4.23962E-3	167.391E-12	666.425E-3	-9.98258E-3	168.878E-12	647.965E-3	-11.2525E-3
4.23462E-3	168.063E-12	675.674E-3	-18.5347E-3	167.804E-12	636.803E-3	-10.5897E-3
4.22961E-3	168.679E-12	667.107E-3	-29.2821E-3	168.045E-12	623.782E-3	-15.8344E-3
4.22461E-3	168.825E-12	645.165E-3	-28.6286E-3	168.146E-12	638.088E-3	-11.0272E-3
4.21961E-3	168.733E-12	642.971E-3	-20.5406E-3	168.024E-12	667.469E-3	-3.18420E-3
4.21461E-3	168.241E-12	657.712E-3	-16.6047E-3	167.499E-12	667.926E-3	-7.05166E-3
4.20960E-3	168.106E-12	664.072E-3	-12.2084E-3	167.004E-12	650.638E-3	-7.45946E-3
4.20460E-3	166.721E-12	661.150E-3	-32.5223E-3	166.319E-12	641.588E-3	-9.54304E-3
4.19960E-3	166.387E-12	668.119E-3	-58.4382E-3	165.806E-12	639.194E-3	-23.7196E-3
4.19460E-3	165.409E-12	671.828E-3	-42.6092E-3	165.639E-12	637.931E-3	-20.5320E-3
4.18959E-3	165.030E-12	675.643E-3	-24.7330E-3	164.868E-12	624.983E-3	-20.7967E-3
4.18459E-3	164.076E-12	674.978E-3	-21.7459E-3	164.362E-12	602.976E-3	-22.0326E-3
4.17959E-3	163.461E-12	636.018E-3	-20.5391E-3	164.051E-12	595.065E-3	-7.72189E-3
4.17459E-3	163.076E-12	616.595E-3	-15.5396E-3	163.163E-12	617.758E-3	-17.3786E-3
4.16958E-3	162.850E-12	652.572E-3	-3.66693E-3	162.582E-12	644.092E-3	-42.0390E-3
4.16458E-3	162.738E-12	674.780E-3	-16.5186E-3	162.641E-12	658.163E-3	-30.1755E-3
4.15958E-3	163.468E-12	658.283E-3	-36.2513E-3	162.406E-12	667.289E-3	3.95720E-3
4.15458E-3	163.693E-12	652.582E-3	-23.7826E-3	161.923E-12	655.617E-3	4.52058E-3
4.14957E-3	164.262E-12	668.537E-3	-10.5172E-3	162.412E-12	638.427E-3	-17.0351E-3
4.14457E-3	165.201E-12	687.404E-3	-14.6797E-3	161.810E-12	642.911E-3	-22.9953E-3
4.13957E-3	165.992E-12	683.121E-3	-8.64894E-3	162.004E-12	646.275E-3	-20.3723E-3
4.13457E-3	166.330E-12	654.955E-3	18.1630E-3	162.270E-12	635.944E-3	-2.08955E-3
4.12956E-3	165.871E-12	642.728E-3	33.7228E-3	162.324E-12	624.984E-3	13.4983E-3
4.12456E-3	166.059E-12	646.513E-3	24.9464E-3	162.657E-12	627.793E-3	-18.5283E-3
4.11956E-3	165.350E-12	656.257E-3	19.5822E-3	163.234E-12	637.062E-3	-45.6408E-3
4.11456E-3	164.892E-12	673.029E-3	14.0504E-3	163.550E-12	650.051E-3	-15.9648E-3
4.10955E-3	164.236E-12	668.107E-3	10.2917E-3	163.179E-12	665.514E-3	13.3662E-3
4.10455E-3	163.146E-12	655.645E-3	21.1948E-3	163.707E-12	668.006E-3	826.076E-6
4.09955E-3	161.842E-12	670.154E-3	9.32168E-3	163.653E-12	666.589E-3	-12.5918E-3
4.09455E-3	160.490E-12	666.589E-3	-14.9316E-3	163.124E-12	661.183E-3	-12.9913E-3
4.08954E-3	160.104E-12	645.953E-3	-20.9859E-3	161.819E-12	655.891E-3	-27.5620E-3
4.08454E-3	159.701E-12	642.575E-3	-32.8888E-3	161.159E-12	656.947E-3	-35.7912E-3
4.07954E-3	159.658E-12	631.951E-3	-27.6309E-3	160.745E-12	637.403E-3	-20.0708E-3
4.07454E-3	158.901E-12	625.309E-3	710.118E-6	159.618E-12	608.872E-3	-11.7092E-3
4.06953E-3	158.495E-12	634.973E-3	9.05043E-3	158.382E-12	614.540E-3	-31.1341E-3
4.06453E-3	158.464E-12	641.043E-3	3.51870E-3	157.854E-12	649.252E-3	-34.4817E-3
4.05953E-3	158.969E-12	636.407E-3	5.81834E-3	157.099E-12	660.423E-3	-9.41377E-3
4.05453E-3	158.470E-12	639.779E-3	4.18630E-3	157.031E-12	642.150E-3	-11.0897E-3
4.04952E-3	158.663E-12	660.333E-3	3.71345E-3	157.040E-12	646.857E-3	-41.1597E-3
4.04452E-3	158.852E-12	669.050E-3	5.28707E-3	157.560E-12	675.989E-3	-45.0326E-3
4.03952E-3	158.585E-12	645.098E-3	9.81520E-3	157.945E-12	688.062E-3	-17.0771E-3
4.03452E-3	158.286E-12	627.985E-3	8.04504E-3	158.184E-12	684.716E-3	921.954E-6
4.02951E-3	158.425E-12	642.920E-3	-13.5202E-3	158.910E-12	687.809E-3	421.840E-6
4.02451E-3	157.896E-12	655.892E-3	-39.9071E-3	159.611E-12	669.027E-3	-10.5772E-3
4.01951E-3	156.814E-12	665.422E-3	-59.7013E-3	160.191E-12	638.203E-3	-31.0199E-3
4.01451E-3	157.262E-12	673.150E-3	-36.6053E-3	160.796E-12	648.303E-3	-36.5608E-3
4.00950E-3	156.587E-12	667.722E-3	-9.14787E-3	161.167E-12	681.094E-3	-34.4581E-3
4.00450E-3	155.595E-12	668.064E-3	-19.7838E-3	161.269E-12	691.886E-3	-45.9731E-3
3.99950E-3	155.437E-12	684.956E-3	-25.5171E-3	160.949E-12	665.146E-3	-48.9949E-3
3.99450E-3	155.287E-12	688.413E-3	-29.3943E-3	160.150E-12	634.111E-3	-21.3960E-3
3.98949E-3	154.692E-12	664.561E-3	-33.5359E-3	159.418E-12	634.639E-3	12.6683E-3
3.98449E-3	154.064E-12	628.900E-3	-8.11585E-3	157.681E-12	644.002E-3	2.10305E-3
3.97949E-3	154.974E-12	602.517E-3	7.99812E-3	156.417E-12	635.028E-3	-26.4572E-3
3.97449E-3	154.995E-12	617.712E-3	-18.4766E-3	155.143E-12	629.795E-3	-26.8972E-3
3.96948E-3	155.077E-12	653.022E-3	-22.4189E-3	154.439E-12	643.968E-3	-24.4143E-3
3.96448E-3	154.578E-12	658.773E-3	-2.29538E-3	153.267E-12	656.094E-3	-30.2253E-3
3.95948E-3	155.026E-12	656.570E-3	-11.3142E-3	152.698E-12	662.153E-3	-34.6175E-3
3.95448E-3	154.708E-12	665.810E-3	-29.8439E-3	152.323E-12	666.416E-3	-46.3967E-3
3.94947E-3	154.255E-12	667.883E-3	-31.4812E-3	152.914E-12	661.065E-3	-53.1014E-3
3.94447E-3	153.983E-12	653.759E-3	-22.7575E-3	152.941E-12	659.619E-3	-40.4312E-3
3.93947E-3	154.040E-12	632.301E-3	-7.52946E-3	153.770E-12	669.387E-3	-19.4570E-3
3.93447E-3	154.534E-12	615.691E-3	834.822E-6	154.598E-12	693.607E-3	-1.66888E-3
3.92946E-3	153.566E-12	611.656E-3	-8.97950E-3	155.229E-12	703.682E-3	2.25048E-3
3.92446E-3	153.599E-12	625.073E-3	-29.3056E-3	155.843E-12	690.158E-3	6.60295E-3
3.91946E-3	153.104E-12	634.394E-3	-47.0161E-3	156.650E-12	681.928E-3	18.9984E-3
3.91446E-3	153.375E-12	644.819E-3	-45.5368E-3	157.097E-12	681.912E-3	9.53384E-3
3.90945E-3	153.062E-12	677.461E-3	-43.3051E-3	156.511E-12	688.431E-3	-10.8226E-3
3.90445E-3	153.380E-12	673.773E-3	-42.8564E-3	156.972E-12	694.996E-3	-14.9794E-3
3.89945E-3	152.935E-12	623.393E-3	-32.6859E-3	156.205E-12	699.512E-3	-17.0377E-3
3.89445E-3	153.334E-12	614.746E-3	-22.1752E-3	155.615E-12	695.471E-3	-18.5935E-3
3.88944E-3	153.650E-12	637.363E-3	1.55323E-3	153.834E-12	683.454E-3	-9.54943E-3
3.88444E-3	153.425E-12	645.535E-3	18.0188E-3	152.866E-12	681.826E-3	-3.43228E-3
3.87944E-3	154.284E-12	658.617E-3	1.77118E-3	151.641E-12	685.590E-3	-2.53190E-3
3.87444E-3	153.543E-12	681.776E-3	-15.6024E-3	150.854E-12	678.872E-3	-7.03725E-3
3.86943E-3	153.121E-12	704.799E-3	-5.27094E-3	149.654E-12	678.136E-3	3.79830E-3
3.86443E-3	152.496E-12	713.822E-3	5.68171E-3	149.669E-12	682.964E-3	22.9581E-3
3.85943E-3	151.984E-12	693.948E-3	-9.46740E-3	149.558E-12	667.013E-3	7.60338E-3
3.85443E-3	151.104E-12	657.129E-3	-22.3200E-3	149.217E-12	642.054E-3	-11.3340E-3
3.84942E-3	151.110E-12	649.159E-3	-19.5258E-3	149.213E-12	638.712E-3	-15.7084E-3
3.84442E-3	149.961E-12	680.578E-3	-18.7445E-3	149.529E-12	657.222E-3	-11.5017E-3
3.83942E-3	149.058E-12	691.200E-3	-30.8701E-3	149.758E-12	672.698E-3	2.47602E-3
3.83442E-3	149.292E-12	656.401E-3	-38.3424E-3	150.084E-12	667.820E-3	11.5292E-3
3.82941E-3	149.884E-12	628.183E-3	-22.2886E-3	150.378E-12	655.779E-3	18.0886E-3
3.82441E-3	149.434E-12	626.321E-3	-20.2683E-3	151.266E-12	655.046E-3	14.0249E-3
3.81941E-3	149.129E-12	627.593E-3	-29.0282E-3	150.730E-12	674.202E-3	3.80744E-3
3.81441E-3	148.804E-12	630.712E-3	-10.1025E-3	151.021E-12	694.028E-3	-3.71760E-3
3.80940E-3	149.521E-12	641.115E-3	-724.000E-6	149.760E-12	672.598E-3	-20.0053E-3
3.80440E-3	149.382E-12	656.925E-3	-23.7333E-3	149.668E-12	645.824E-3	-26.6809E-3
3.79940E-3	149.051E-12	667.236E-3	-36.6697E-3	148.837E-12	651.406E-3	-10.9003E-3
3.79440E-3	149.482E-12	651.508E-3	-24.2383E-3	148.274E-12	661.866E-3	3.03289E-3
3.78939E-3	149.412E-12	626.991E-3	-12.6005E-3	147.079E-12	668.101E-3	291.321E-6
3.78439E-3	149.139E-12	639.944E-3	-7.91267E-3	146.324E-12	661.367E-3	-11.0956E-3
3.77939E-3	148.976E-12	664.830E-3	-5.87497E-3	145.721E-12	649.671E-3	-16.1795E-3
3.77439E-3	148.542E-12	665.222E-3	-14.3033E-3	145.377E-12	654.644E-3	-12.3622E-3
3.76938E-3	147.560E-12	660.331E-3	-29.6622E-3	145.171E-12	662.495E-3	-5.46068E-3
3.76438E-3	147.337E-12	660.087E-3	-25.0460E-3	144.427E-12	667.707E-3	3.78789E-3
3.75938E-3	146.368E-12	674.683E-3	-22.5443E-3	144.454E-12	673.381E-3	18.9369E-3
3.75438E-3	145.781E-12	705.172E-3	-27.5467E-3	144.840E-12	669.196E-3	23.9509E-3
3.74937E-3	144.629E-12	711.313E-3	-25.3338E-3	145.116E-12	651.266E-3	-3.73318E-3
3.74437E-3	144.476E-12	673.239E-3	-22.9700E-3	144.485E-12	645.997E-3	-26.0694E-3
3.73937E-3	144.035E-12	647.275E-3	-16.8055E-3	144.430E-12	659.033E-3	-10.1981E-3
3.73437E-3	143.936E-12	654.223E-3	-13.2513E-3	144.607E-12	660.630E-3	4.91262E-3
3.72936E-3	143.471E-12	662.354E-3	-22.7780E-3	144.865E-12	657.347E-3	8.91815E-3
3.72436E-3	143.981E-12	661.937E-3	-38.4317E-3	144.615E-12	654.284E-3	18.0287E-3
3.71936E-3	144.332E-12	656.201E-3	-27.3335E-3	144.670E-12	642.427E-3	18.1137E-3
3.71436E-3	143.797E-12	656.694E-3	-12.5182E-3	144.810E-12	643.037E-3	14.1701E-3
3.70935E-3	144.144E-12	677.552E-3	-15.2279E-3	144.763E-12	659.247E-3	22.7672E-3
3.70435E-3	144.337E-12	688.627E-3	-3.91175E-3	144.647E-12	661.734E-3	23.7199E-3
3.69935E-3	144.628E-12	678.312E-3	10.8781E-3	144.061E-12	662.035E-3	-461.373E-6
3.69435E-3	144.166E-12	675.828E-3	2.59666E-3	145.012E-12	674.359E-3	-27.6248E-3
3.68934E-3	143.609E-12	673.335E-3	-14.2775E-3	144.999E-12	678.229E-3	-26.7432E-3
3.68434E-3	143.401E-12	672.587E-3	-31.0844E-3	144.608E-12	665.065E-3	-9.13767E-3
3.67934E-3	143.295E-12	668.828E-3	-38.5511E-3	144.970E-12	650.886E-3	-612.393E-6
3.67434E-3	142.623E-12	661.833E-3	-29.7572E-3	145.152E-12	659.186E-3	-17.9797E-6
3.66933E-3	141.656E-12	657.138E-3	-31.1806E-3	144.446E-12	672.001E-3	7.45483E-3
3.66433E-3	141.100E-12	648.205E-3	-33.4988E-3	143.880E-12	667.021E-3	13.9363E-3
3.65933E-3	140.792E-12	638.434E-3	-14.6905E-3	143.877E-12	651.123E-3	-13.5152E-3
3.65433E-3	140.346E-12	629.023E-3	4.08010E-3	143.028E-12	640.906E-3	-42.8183E-3
3.64932E-3	140.190E-12	632.629E-3	-12.4059E-3	142.940E-12	645.908E-3	-25.7377E-3
3.64432E-3	139.649E-12	639.810E-3	-25.8941E-3	142.109E-12	660.373E-3	-1.68607E-3
3.63932E-3	138.959E-12	637.833E-3	3.85463E-3	141.658E-12	674.177E-3	-1.10177E-3
3.63432E-3	139.616E-12	632.273E-3	26.3167E-3	140.783E-12	668.226E-3	-9.64132E-3
3.62931E-3	140.110E-12	638.863E-3	711.766E-6	140.654E-12	650.139E-3	-16.8188E-3
3.62431E-3	140.449E-12	659.275E-3	-30.6139E-3	139.993E-12	645.244E-3	-35.7396E-3
3.61931E-3	140.388E-12	663.953E-3	-30.2618E-3	139.873E-12	650.443E-3	-57.1251E-3
3.61431E-3	140.394E-12	663.918E-3	-27.0839E-3	139.187E-12	663.673E-3	-42.9749E-3
3.60930E-3	141.014E-12	677.322E-3	-23.6182E-3	139.853E-12	678.944E-3	-15.4054E-3
3.60430E-3	140.528E-12	674.999E-3	-18.8299E-3	140.190E-12	678.492E-3	-9.92818E-3
3.59930E-3	140.159E-12	665.160E-3	-23.4882E-3	140.392E-12	667.326E-3	-14.2344E-3
3.59430E-3	140.075E-12	661.084E-3	-22.3719E-3	140.346E-12	681.207E-3	-19.3241E-3
3.58929E-3	140.271E-12	646.029E-3	-25.7303E-3	140.630E-12	700.996E-3	-34.4430E-3
3.58429E-3	139.586E-12	650.780E-3	-45.3185E-3	140.734E-12	687.689E-3	-41.5127E-3
3.57929E-3	138.905E-12	675.335E-3	-35.2836E-3	140.882E-12	669.737E-3	-33.8824E-3
3.57429E-3	138.227E-12	671.525E-3	-28.9560E-3	140.166E-12	658.273E-3	-29.0256E-3
3.56928E-3	138.327E-12	648.138E-3	-50.6872E-3	139.282E-12	666.172E-3	-23.1674E-3
3.56428E-3	138.444E-12	642.631E-3	-33.1046E-3	138.381E-12	682.149E-3	-8.50929E-3
3.55928E-3	138.269E-12	646.273E-3	-8.64149E-3	137.796E-12	664.631E-3	-6.12238E-3
3.55428E-3	138.122E-12	667.780E-3	-14.0285E-3	136.914E-12	637.057E-3	-19.3507E-3
3.54927E-3	137.902E-12	708.403E-3	-18.6691E-3	135.859E-12	635.596E-3	-20.6899E-3
3.54427E-3	138.323E-12	717.364E-3	-16.1157E-3	134.839E-12	645.392E-3	-8.26281E-3
3.53927E-3	138.382E-12	693.841E-3	-900.094E-6	134.343E-12	647.125E-3	-11.6920E-3
3.53427E-3	138.457E-12	676.865E-3	30.0386E-3	133.850E-12	647.331E-3	-30.6352E-3
3.52926E-3	138.071E-12	672.599E-3	20.8045E-3	133.082E-12	643.589E-3	-30.6009E-3
3.52426E-3	138.284E-12	663.314E-3	-24.5412E-3	132.960E-12	645.365E-3	-26.1649E-3
3.51926E-3	137.621E-12	654.607E-3	-49.9187E-3	133.586E-12	662.010E-3	-40.0954E-3
3.51426E-3	137.593E-12	659.490E-3	-40.7351E-3	134.219E-12	686.746E-3	-43.7089E-3
3.50925E-3	137.351E-12	665.012E-3	-21.8292E-3	134.542E-12	685.263E-3	-25.9159E-3
3.50425E-3	136.609E-12	659.431E-3	-29.1016E-3	134.692E-12	663.464E-3	-19.1615E-3
3.49925E-3	135.759E-12	654.504E-3	-37.2157E-3	136.180E-12	657.726E-3	-44.5417E-3
3.49425E-3	135.180E-12	654.066E-3	-18.7139E-3	137.136E-12	672.376E-3	-61.9755E-3
3.48924E-3	134.395E-12	653.017E-3	9.02167E-3	137.584E-12	694.845E-3	-40.5660E-3
3.48424E-3	133.865E-12	654.447E-3	11.7327E-3	137.414E-12	682.757E-3	-21.9222E-3
3.47924E-3	133.790E-12	648.187E-3	-5.70466E-3	137.080E-12	649.883E-3	-26.4958E-3
3.47424E-3	133.256E-12	637.263E-3	-15.1773E-3	136.866E-12	644.218E-3	-34.5095E-3
3.46923E-3	133.028E-12	648.138E-3	-9.73662E-3	136.210E-12	661.303E-3	-41.0377E-3
3.46423E-3	133.352E-12	659.595E-3	-3.15124E-3	135.194E-12	658.947E-3	-41.0305E-3
3.45923E-3	133.087E-12	655.544E-3	-9.73136E-3	134.123E-12	636.114E-3	-20.8515E-3
3.45423E-3	133.115E-12	670.739E-3	-6.70300E-3	133.077E-12	634.113E-3	-5.31195E-3
3.44922E-3	132.742E-12	680.061E-3	1.54523E-3	131.950E-12	639.414E-3	-29.0242E-3
3.44422E-3	132.999E-12	663.251E-3	-8.82250E-3	131.844E-12	640.742E-3	-60.8014E-3
3.43922E-3	132.562E-12	655.279E-3	-22.1162E-3	131.155E-12	659.984E-3	-49.6647E-3
3.43422E-3	132.162E-12	645.518E-3	-19.9794E-3	130.271E-12	689.410E-3	-1.23344E-3
3.42921E-3	131.726E-12	639.198E-3	-9.24259E-3	130.517E-12	688.544E-3	16.8798E-3
3.42421E-3	131.579E-12	660.142E-3	-816.146E-6	130.886E-12	659.693E-3	-12.0318E-3
3.41921E-3	131.214E-12	675.542E-3	-1.77431E-3	130.751E-12	658.974E-3	-39.0397E-3
3.41421E-3	131.033E-12	677.777E-3	-14.9344E-3	130.656E-12	670.190E-3	-35.1097E-3
3.40920E-3	130.680E-12	679.018E-3	-18.4742E-3	131.319E-12	666.376E-3	-3.04969E-3
3.40420E-3	129.761E-12	661.440E-3	2.86974E-3	131.703E-12	667.439E-3	4.38404E-3
3.39920E-3	129.801E-12	646.519E-3	6.33041E-3	132.000E-12	664.895E-3	-14.9305E-3
3.39420E-3	129.923E-12	654.520E-3	-19.5483E-3	131.695E-12	683.505E-3	-14.1311E-3
3.38919E-3	129.552E-12	659.451E-3	-23.1131E-3	131.920E-12	712.452E-3	3.65037E-3
3.38419E-3	128.856E-12	652.753E-3	-4.69790E-3	131.506E-12	688.962E-3	2.99363E-3
3.37919E-3	128.938E-12	660.000E-3	-28.0411E-6	131.035E-12	646.621E-3	-11.9383E-3
3.37419E-3	128.998E-12	670.343E-3	-8.16163E-3	130.394E-12	633.833E-3	-20.2663E-3
3.36918E-3	128.942E-12	657.098E-3	-12.0849E-3	129.648E-12	643.148E-3	-23.0180E-3
3.36418E-3	128.115E-12	646.530E-3	-19.9001E-3	128.581E-12	661.027E-3	-9.68248E-3
3.35918E-3	128.057E-12	653.330E-3	-24.6113E-3	128.489E-12	657.592E-3	9.84567E-3
3.35418E-3	128.262E-12	665.784E-3	-24.6139E-3	127.441E-12	629.724E-3	7.69610E-3
3.34917E-3	128.213E-12	681.627E-3	-35.7591E-3	126.786E-12	632.324E-3	-10.4372E-3
3.34417E-3	127.185E-12	683.075E-3	-46.1817E-3	126.317E-12	666.857E-3	-12.8748E-3
3.33917E-3	126.801E-12	671.624E-3	-34.8941E-3	126.106E-12	673.953E-3	-5.11172E-3
3.33417E-3	126.643E-12	670.180E-3	-20.3892E-3	125.845E-12	656.433E-3	-9.55585E-3
3.32916E-3	126.986E-12	655.998E-3	-16.5853E-3	126.018E-12	647.444E-3	-19.8890E-3
3.32416E-3	126.759E-12	636.452E-3	-19.3845E-3	125.916E-12	641.281E-3	-21.2851E-3
3.31916E-3	126.140E-12	631.281E-3	-23.8776E-3	126.014E-12	630.106E-3	-16.3578E-3
3.31416E-3	126.047E-12	648.970E-3	-13.6560E-3	126.778E-12	637.884E-3	-26.8907E-3
3.30915E-3	126.289E-12	673.810E-3	-3.76179E-3	127.115E-12	664.996E-3	-31.0440E-3
3.30415E-3	126.363E-12	669.193E-3	-16.2728E-3	126.801E-12	672.586E-3	2.91342E-3
3.29915E-3	126.286E-12	665.243E-3	-29.4119E-3	126.789E-12	669.247E-3	33.1523E-3
3.29415E-3	125.956E-12	660.076E-3	-18.2427E-3	127.386E-12	683.918E-3	24.8476E-3
3.28914E-3	125.976E-12	642.926E-3	-5.44207E-3	127.386E-12	700.656E-3	7.53645E-3
3.28414E-3	126.114E-12	642.584E-3	-6.63605E-3	126.957E-12	694.743E-3	-9.82374E-3
3.27914E-3	125.950E-12	661.485E-3	-11.4434E-3	127.227E-12	665.634E-3	-25.8643E-3
3.27414E-3	125.052E-12	678.669E-3	-20.7140E-3	127.225E-12	642.523E-3	-21.0567E-3
3.26913E-3	124.832E-12	677.003E-3	-25.8624E-3	126.824E-12	647.122E-3	-7.51756E-3
3.26413E-3	124.890E-12	668.011E-3	-20.4753E-3	126.407E-12	669.444E-3	-10.0770E-3
3.25913E-3	124.541E-12	675.289E-3	-17.9553E-3	126.320E-12	685.243E-3	-25.3927E-3
3.25413E-3	124.297E-12	686.064E-3	-24.3380E-3	125.281E-12	678.991E-3	-38.3440E-3
3.24912E-3	123.533E-12	671.033E-3	-33.4412E-3	125.124E-12	677.754E-3	-40.8244E-3
3.24412E-3	123.369E-12	646.912E-3	-35.9389E-3	124.985E-12	691.832E-3	-23.7061E-3
3.23912E-3	123.078E-12	651.585E-3	-34.8956E-3	124.615E-12	708.221E-3	1.54896E-3
3.23412E-3	122.982E-12	651.403E-3	-37.8942E-3	123.761E-12	716.345E-3	17.5015E-3
3.22911E-3	122.330E-12	634.920E-3	-35.2671E-3	123.810E-12	701.204E-3	16.6943E-3
3.22411E-3	121.944E-12	655.856E-3	-11.2281E-3	123.849E-12	683.230E-3	-3.82133E-3
3.21911E-3	121.459E-12	679.139E-3	14.2265E-3	123.218E-12	683.240E-3	-26.4773E-3
3.21411E-3	121.910E-12	668.611E-3	19.0579E-3	122.727E-12	692.337E-3	-26.1521E-3
3.20910E-3	122.102E-12	657.058E-3	4.68004E-3	122.637E-12	700.378E-3	-2.51692E-3
3.20410E-3	122.326E-12	659.026E-3	-9.67080E-3	122.069E-12	694.298E-3	-4.35970E-3
3.19910E-3	122.113E-12	665.223E-3	-7.24082E-3	121.016E-12	680.628E-3	-43.0212E-3
3.19410E-3	122.889E-12	668.880E-3	-5.98924E-3	121.171E-12	680.573E-3	-61.9778E-3
3.18909E-3	123.096E-12	665.997E-3	-2.44029E-3	121.168E-12	688.015E-3	-49.2355E-3
3.18409E-3	122.351E-12	657.112E-3	-2.16756E-3	120.636E-12	695.163E-3	-35.5740E-3
3.17909E-3	121.863E-12	668.724E-3	-13.3637E-3	120.341E-12	694.331E-3	-34.9763E-3
3.17409E-3	121.848E-12	688.481E-3	-17.3692E-3	120.471E-12	677.387E-3	-38.9069E-3
3.16908E-3	121.800E-12	678.099E-3	-29.9683E-3	120.951E-12	668.633E-3	-26.9244E-3
3.16408E-3	121.258E-12	664.555E-3	-35.8150E-3	120.468E-12	695.085E-3	5.36237E-3
3.15908E-3	120.967E-12	678.440E-3	-22.6584E-3	120.573E-12	703.197E-3	25.7404E-3
3.15408E-3	120.189E-12	690.122E-3	-29.7251E-3	120.211E-12	665.722E-3	16.6539E-3
3.14907E-3	119.777E-12	681.347E-3	-45.0421E-3	120.111E-12	649.635E-3	-1.26413E-3
3.14407E-3	119.399E-12	664.287E-3	-37.9405E-3	119.799E-12	670.612E-3	-20.3181E-3
3.13907E-3	119.043E-12	657.138E-3	-19.8143E-3	119.135E-12	690.855E-3	-26.3038E-3
3.13407E-3	118.530E-12	660.841E-3	-13.3643E-3	118.758E-12	686.618E-3	-9.78476E-3
3.12906E-3	117.585E-12	653.633E-3	-8.75358E-3	118.309E-12	662.374E-3	-4.39204E-3
3.12406E-3	117.217E-12	646.299E-3	-9.04946E-3	117.883E-12	641.032E-3	-9.90818E-3
3.11906E-3	117.735E-12	651.103E-3	-26.3051E-3	116.818E-12	643.269E-3	-4.63017E-3
3.11406E-3	117.666E-12	652.387E-3	-14.4021E-3	116.412E-12	668.355E-3	3.23762E-3
3.10905E-3	117.350E-12	652.285E-3	17.4070E-3	116.603E-12	686.581E-3	-1.99861E-3
3.10405E-3	117.460E-12	651.852E-3	17.9271E-3	116.087E-12	691.884E-3	-21.8543E-3
3.09905E-3	118.248E-12	652.688E-3	7.47049E-3	115.559E-12	692.982E-3	-37.6692E-3
3.09405E-3	117.825E-12	657.827E-3	7.99780E-3	115.980E-12	686.965E-3	-41.0781E-3
3.08904E-3	117.863E-12	657.927E-3	751.465E-6	115.815E-12	674.913E-3	-25.2709E-3
3.08404E-3	117.750E-12	667.428E-3	-12.9806E-3	116.188E-12	671.707E-3	-1.83662E-3
3.07904E-3	117.555E-12	690.775E-3	94.8225E-6	116.602E-12	689.035E-3	-3.25415E-3
3.07404E-3	117.617E-12	702.513E-3	-5.03346E-3	117.376E-12	696.840E-3	-22.0908E-3
3.06903E-3	117.297E-12	688.640E-3	-45.5353E-3	117.439E-12	684.219E-3	-32.8434E-3
3.06403E-3	116.398E-12	672.674E-3	-32.4111E-3	117.507E-12	677.929E-3	-27.2966E-3
3.05903E-3	116.322E-12	665.011E-3	5.85067E-3	117.380E-12	673.451E-3	-3.93818E-3
3.05403E-3	115.899E-12	670.481E-3	4.22499E-3	117.241E-12	665.754E-3	19.4415E-3
3.04902E-3	115.316E-12	689.643E-3	-13.1834E-3	117.030E-12	668.877E-3	10.5990E-3
3.04402E-3	114.163E-12	683.601E-3	-27.7799E-3	116.810E-12	681.629E-3	-18.3563E-3
3.03902E-3	113.940E-12	666.627E-3	-34.2318E-3	116.437E-12	691.414E-3	-25.6393E-3
3.03402E-3	113.307E-12	681.515E-3	-34.6781E-3	115.722E-12	694.073E-3	-21.5351E-3
3.02901E-3	113.514E-12	707.690E-3	-34.3101E-3	115.346E-12	689.556E-3	-30.5499E-3
3.02401E-3	112.806E-12	705.786E-3	-39.6186E-3	114.461E-12	681.168E-3	-45.0295E-3
3.01901E-3	112.308E-12	683.011E-3	-32.5410E-3	113.829E-12	691.667E-3	-60.6178E-3
3.01401E-3	112.432E-12	662.980E-3	-26.6007E-3	113.155E-12	705.102E-3	-57.6031E-3
3.00900E-3	112.653E-12	662.934E-3	-38.1645E-3	112.476E-12	699.309E-3	-21.6372E-3
3.00400E-3	112.822E-12	685.013E-3	-21.7772E-3	111.999E-12	683.342E-3	3.00967E-3
2.99900E-3	112.717E-12	685.078E-3	1.23099E-3	111.981E-12	656.857E-3	-4.84475E-3
2.99400E-3	112.439E-12	656.852E-3	-17.7223E-3	111.988E-12	644.321E-3	-22.9676E-3
2.98899E-3	112.628E-12	659.390E-3	-42.7502E-3	111.696E-12	664.256E-3	-26.9855E-3
2.98399E-3	112.783E-12	677.415E-3	-49.7503E-3	111.899E-12	682.016E-3	-10.3017E-3
2.97899E-3	112.648E-12	681.970E-3	-45.2981E-3	112.068E-12	678.080E-3	2.83358E-3
2.97399E-3	111.930E-12	696.984E-3	-24.3260E-3	112.436E-12	682.824E-3	174.595E-6
2.96898E-3	111.573E-12	694.639E-3	-10.4261E-3	112.452E-12	700.091E-3	-16.0883E-3
2.96398E-3	111.518E-12	677.455E-3	-24.8539E-3	112.115E-12	702.083E-3	-33.1900E-3
2.95898E-3	111.562E-12	678.922E-3	-48.8136E-3	111.810E-12	687.405E-3	-37.8471E-3
2.95398E-3	110.537E-12	674.672E-3	-39.7351E-3	111.999E-12	672.447E-3	-35.1333E-3
2.94897E-3	109.883E-12	658.172E-3	-9.04404E-3	111.502E-12	669.802E-3	-25.4018E-3
2.94397E-3	109.955E-12	648.711E-3	1.35299E-3	111.037E-12	676.062E-3	-11.2996E-3
2.93897E-3	109.959E-12	642.701E-3	1.65873E-3	110.052E-12	673.476E-3	-14.9156E-3
2.93397E-3	109.357E-12	648.148E-3	3.33504E-3	109.925E-12	660.498E-3	-18.1786E-3
2.92896E-3	109.126E-12	678.058E-3	-1.24184E-3	108.879E-12	654.521E-3	1.54642E-3
2.92396E-3	109.075E-12	693.120E-3	3.78804E-3	108.339E-12	664.508E-3	2.59345E-3
2.91896E-3	109.080E-12	672.862E-3	3.79533E-3	107.432E-12	678.893E-3	-31.4425E-3
2.91396E-3	109.005E-12	663.459E-3	-14.2840E-3	107.167E-12	685.170E-3	-45.9659E-3
2.90895E-3	108.530E-12	684.037E-3	-15.4948E-3	106.462E-12	689.950E-3	-26.3296E-3
2.90395E-3	107.702E-12	694.760E-3	-2.67527E-3	106.523E-12	687.158E-3	-11.5964E-3
2.89895E-3	107.664E-12	688.832E-3	-8.90077E-3	106.137E-12	669.508E-3	-18.7000E-3
2.89395E-3	107.897E-12	681.730E-3	-19.1031E-3	106.918E-12	661.803E-3	-42.7909E-3
2.88894E-3	107.494E-12	678.114E-3	-5.71145E-3	106.728E-12	674.647E-3	-47.9088E-3
2.88394E-3	107.242E-12	688.779E-3	-5.31780E-3	106.851E-12	687.155E-3	-34.2975E-3
2.87894E-3	106.957E-12	704.860E-3	-18.5863E-3	107.564E-12	682.035E-3	-25.1488E-3
2.87394E-3	107.138E-12	698.377E-3	-19.2426E-3	108.095E-12	668.252E-3	-23.5779E-3
2.86893E-3	106.905E-12	671.969E-3	-35.7172E-3	107.728E-12	667.676E-3	-27.6611E-3
2.86393E-3	106.935E-12	655.799E-3	-43.9809E-3	107.816E-12	672.758E-3	-22.5871E-3
2.85893E-3	106.223E-12	659.130E-3	-19.2341E-3	108.235E-12	671.846E-3	-11.3712E-3
2.85393E-3	105.956E-12	687.125E-3	-11.2801E-3	107.792E-12	671.772E-3	-6.00239E-3
2.84892E-3	106.324E-12	719.197E-3	-28.4817E-3	107.390E-12	669.022E-3	-16.7630E-3
2.84392E-3	106.217E-12	707.043E-3	-38.0146E-3	107.046E-12	671.025E-3	-38.5418E-3
2.83892E-3	105.510E-12	685.622E-3	-38.5552E-3	106.278E-12	664.340E-3	-34.6170E-3
2.83392E-3	105.395E-12	699.192E-3	-20.6310E-3	106.196E-12	661.628E-3	-4.30793E-3
2.82891E-3	105.460E-12	710.911E-3	-153.495E-6	105.238E-12	685.969E-3	7.24681E-3
2.82391E-3	105.160E-12	715.696E-3	-7.49331E-3	104.779E-12	697.210E-3	-3.35081E-3
2.81891E-3	104.692E-12	717.853E-3	-23.1753E-3	104.001E-12	690.036E-3	-12.5419E-3
2.81391E-3	104.009E-12	693.481E-3	-24.1483E-3	104.013E-12	682.425E-3	-7.10681E-3
2.80890E-3	103.585E-12	666.645E-3	-19.8466E-3	103.450E-12	671.119E-3	6.23685E-3
2.80390E-3	103.326E-12	664.710E-3	-18.6452E-3	103.248E-12	670.542E-3	8.57840E-3
2.79890E-3	102.709E-12	669.548E-3	-11.1137E-3	103.197E-12	690.803E-3	-5.27891E-3
2.79390E-3	102.532E-12	665.591E-3	-15.7464E-3	102.819E-12	697.434E-3	-24.7969E-3
2.78889E-3	102.315E-12	665.766E-3	-23.0959E-3	103.063E-12	684.302E-3	-27.0694E-3
2.78389E-3	102.377E-12	675.427E-3	-22.9349E-3	103.096E-12	677.210E-3	-16.5135E-3
2.77889E-3	102.366E-12	681.741E-3	-25.9130E-3	102.957E-12	679.390E-3	-20.3313E-3
2.77389E-3	102.327E-12	681.116E-3	-11.7776E-3	102.664E-12	686.064E-3	-24.8673E-3
2.76888E-3	102.278E-12	675.061E-3	9.56032E-3	102.936E-12	681.664E-3	-12.4010E-3
2.76388E-3	102.454E-12	668.722E-3	8.27540E-3	102.442E-12	659.606E-3	14.3357E-3
2.75888E-3	102.528E-12	667.921E-3	-12.6519E-3	102.201E-12	649.010E-3	35.4372E-3
2.75388E-3	102.846E-12	688.253E-3	-21.7433E-3	101.862E-12	661.851E-3	19.8779E-3
2.74887E-3	102.910E-12	705.364E-3	-21.9507E-3	101.583E-12	679.613E-3	-12.2095E-3
2.74387E-3	102.371E-12	697.814E-3	-34.0496E-3	101.609E-12	691.170E-3	-19.4060E-3
2.73887E-3	102.120E-12	701.716E-3	-28.0342E-3	101.451E-12	696.608E-3	-20.0164E-3
2.73387E-3	101.928E-12	710.072E-3	840.776E-6	100.556E-12	698.248E-3	-29.0480E-3
2.72886E-3	101.435E-12	700.725E-3	4.20564E-3	99.8215E-12	688.737E-3	-25.1916E-3
2.72386E-3	101.106E-12	691.788E-3	-16.6523E-3	99.7937E-12	678.318E-3	-11.6095E-3
2.71886E-3	100.277E-12	693.498E-3	-30.3626E-3	99.1611E-12	687.953E-3	-5.07050E-3
2.71386E-3	99.8856E-12	698.635E-3	-35.1716E-3	98.6548E-12	699.262E-3	-11.0941E-3
2.70885E-3	99.3796E-12	699.654E-3	-35.2600E-3	98.7766E-12	690.237E-3	-11.9845E-3
2.70385E-3	99.3496E-12	695.171E-3	-26.3499E-3	98.5690E-12	670.806E-3	-8.52801E-3
2.69885E-3	98.6348E-12	689.580E-3	-26.9883E-3	98.2478E-12	658.107E-3	-13.1929E-3
2.69385E-3	98.3755E-12	688.028E-3	-45.5057E-3	98.1897E-12	664.401E-3	-14.4736E-3
2.68884E-3	98.1538E-12	677.402E-3	-35.9265E-3	97.9580E-12	682.117E-3	-15.9981E-3
2.68384E-3	98.1167E-12	657.378E-3	-4.82068E-3	97.7826E-12	696.068E-3	-13.4607E-3
2.67884E-3	98.5412E-12	661.487E-3	-3.28869E-3	97.6329E-12	700.257E-3	-4.45697E-3
2.67384E-3	98.1466E-12	687.776E-3	-25.1095E-3	97.4437E-12	698.924E-3	-7.34873E-3
2.66883E-3	97.8471E-12	696.168E-3	-37.4845E-3	97.5360E-12	705.903E-3	-126.988E-6
2.66383E-3	97.8826E-12	682.848E-3	-42.1864E-3	97.7116E-12	722.236E-3	15.6501E-3
2.65883E-3	98.2352E-12	688.196E-3	-39.6972E-3	97.6559E-12	732.134E-3	2.97238E-3
2.65383E-3	97.6486E-12	710.787E-3	-22.6900E-3	97.1378E-12	722.271E-3	-18.0959E-3
2.64882E-3	97.4343E-12	717.293E-3	-12.4332E-3	97.3395E-12	712.082E-3	-27.5003E-3
2.64382E-3	97.1587E-12	706.933E-3	-13.3459E-3	97.8174E-12	709.862E-3	-23.6484E-3
2.63882E-3	96.6439E-12	697.092E-3	-11.9381E-3	97.6327E-12	703.884E-3	-10.4818E-3
2.63382E-3	96.5260E-12	702.360E-3	-14.5346E-3	97.0888E-12	703.307E-3	-3.54261E-3
2.62881E-3	96.2529E-12	707.492E-3	-16.6219E-3	96.8595E-12	707.795E-3	-2.88920E-3
2.62381E-3	95.8131E-12	696.331E-3	-4.30995E-3	97.2220E-12	710.435E-3	-16.5588E-3
2.61881E-3	94.8540E-12	682.783E-3	5.29784E-3	96.6229E-12	710.272E-3	-43.5819E-3
2.61381E-3	94.5302E-12	678.109E-3	6.53628E-3	96.0104E-12	707.623E-3	-65.6475E-3
2.60880E-3	94.0248E-12	682.614E-3	5.36925E-3	95.2339E-12	697.185E-3	-77.6609E-3
2.60380E-3	93.5286E-12	693.009E-3	2.06214E-3	95.2992E-12	674.300E-3	-71.1410E-3
2.59880E-3	93.6906E-12	704.642E-3	1.73615E-3	94.8716E-12	658.027E-3	-43.9952E-3
2.59380E-3	93.4351E-12	701.414E-3	-2.43116E-3	93.8695E-12	669.277E-3	-22.1664E-3
2.58879E-3	93.3078E-12	686.263E-3	-12.5215E-3	92.9611E-12	698.167E-3	-14.9165E-3
2.58379E-3	93.5251E-12	683.268E-3	-14.5760E-3	92.7269E-12	710.539E-3	-15.6916E-3
2.57879E-3	93.5737E-12	691.564E-3	-17.6502E-3	92.5296E-12	709.168E-3	-26.5815E-3
2.57379E-3	93.5244E-12	705.128E-3	-33.3385E-3	92.0381E-12	706.856E-3	-25.6149E-3
2.56878E-3	93.5237E-12	715.669E-3	-32.5625E-3	91.2785E-12	696.898E-3	-8.23151E-3
2.56378E-3	93.4326E-12	703.421E-3	-16.6810E-3	91.2117E-12	703.661E-3	-2.87012E-3
2.55878E-3	92.9689E-12	689.776E-3	-17.6894E-3	91.7307E-12	719.012E-3	-12.3109E-3
2.55378E-3	93.1197E-12	703.284E-3	-24.8665E-3	91.4266E-12	719.380E-3	-23.6737E-3
2.54877E-3	93.0985E-12	717.182E-3	-24.7498E-3	91.4432E-12	712.497E-3	-33.1090E-3
2.54377E-3	92.3573E-12	706.752E-3	-23.3023E-3	91.4443E-12	706.821E-3	-40.8697E-3
2.53877E-3	92.3627E-12	703.652E-3	-15.1902E-3	91.4728E-12	716.666E-3	-43.9689E-3
2.53377E-3	92.2176E-12	710.597E-3	-3.66636E-3	91.6751E-12	719.001E-3	-40.2986E-3
2.52876E-3	91.8869E-12	711.331E-3	-6.98221E-3	91.8083E-12	699.351E-3	-28.4058E-3
2.52376E-3	91.1915E-12	718.705E-3	-25.1214E-3	91.4238E-12	683.316E-3	-18.7224E-3
2.51876E-3	91.1015E-12	713.107E-3	-26.2212E-3	90.8975E-12	688.951E-3	-31.4150E-3
2.51376E-3	90.6496E-12	686.570E-3	-15.5294E-3	90.7648E-12	692.690E-3	-45.7722E-3
2.50875E-3	90.1439E-12	675.339E-3	-16.6978E-3	90.4461E-12	694.442E-3	-35.4936E-3
2.50375E-3	89.8597E-12	690.732E-3	-15.9909E-3	89.4582E-12	702.239E-3	-15.5091E-3
2.49875E-3	89.6179E-12	711.898E-3	-14.5626E-3	88.4788E-12	693.259E-3	-9.96425E-3
2.49375E-3	89.7566E-12	729.554E-3	-19.1285E-3	87.8935E-12	680.166E-3	-18.5608E-3
2.48874E-3	89.5619E-12	724.745E-3	-20.5488E-3	87.3662E-12	671.421E-3	-22.9707E-3
2.48374E-3	89.2178E-12	707.088E-3	-10.8020E-3	86.5000E-12	658.839E-3	-23.3581E-3
2.47874E-3	89.2806E-12	712.582E-3	-9.61928E-3	85.6921E-12	654.563E-3	-24.2279E-3
2.47374E-3	89.5766E-12	717.706E-3	-19.9494E-3	85.7882E-12	674.992E-3	-36.2698E-3
2.46873E-3	88.9737E-12	712.930E-3	-22.4159E-3	86.0341E-12	716.051E-3	-46.4561E-3
2.46373E-3	88.6020E-12	722.427E-3	-20.7761E-3	86.3601E-12	738.916E-3	-26.0464E-3
2.45873E-3	88.1344E-12	722.104E-3	-15.0955E-3	86.6832E-12	731.121E-3	-3.48139E-3
2.45373E-3	87.8371E-12	700.427E-3	-16.5792E-3	86.9259E-12	717.442E-3	-7.98554E-3
2.44872E-3	87.5826E-12	695.147E-3	-25.9703E-3	87.6521E-12	702.445E-3	-16.3504E-3
2.44372E-3	87.1135E-12	703.392E-3	-17.6954E-3	88.0414E-12	700.999E-3	-15.4334E-3
2.43872E-3	86.8708E-12	705.820E-3	-1.29587E-3	88.2506E-12	727.286E-3	-13.8931E-3
2.43372E-3	86.4260E-12	711.236E-3	-2.37759E-3	88.3133E-12	750.466E-3	-13.4685E-3
2.42871E-3	86.5359E-12	717.228E-3	-6.20297E-3	88.7498E-12	742.010E-3	-18.6159E-3
2.42371E-3	85.8662E-12	705.880E-3	-16.7638E-3	88.2281E-12	719.490E-3	-28.9514E-3
2.41871E-3	85.6042E-12	710.009E-3	-45.5924E-3	87.6038E-12	716.154E-3	-29.5229E-3
2.41371E-3	84.8308E-12	732.119E-3	-54.3133E-3	87.2143E-12	727.438E-3	-18.4320E-3
2.40870E-3	84.3809E-12	716.258E-3	-29.3438E-3	86.5378E-12	717.905E-3	-21.9432E-3
2.40370E-3	84.0851E-12	696.193E-3	-16.1635E-3	85.6290E-12	692.362E-3	-25.1800E-3
2.39870E-3	84.1502E-12	707.810E-3	-12.1515E-3	85.0262E-12	681.857E-3	-24.0188E-3
2.39370E-3	83.6781E-12	710.746E-3	4.14811E-3	84.3159E-12	696.554E-3	-37.2438E-3
2.38869E-3	83.4322E-12	696.682E-3	-7.54318E-3	83.6436E-12	714.272E-3	-41.8519E-3
2.38369E-3	83.3654E-12	694.181E-3	-26.5134E-3	83.1839E-12	714.878E-3	-35.5725E-3
2.37869E-3	83.2833E-12	705.221E-3	-20.8949E-3	83.0817E-12	697.791E-3	-28.2286E-3
2.37369E-3	83.3320E-12	714.419E-3	-29.9551E-3	82.8838E-12	682.015E-3	-17.4330E-3
2.36868E-3	83.1329E-12	712.356E-3	-46.1189E-3	82.7060E-12	692.646E-3	-6.61143E-3
2.36368E-3	83.0146E-12	708.882E-3	-39.8988E-3	82.5811E-12	710.817E-3	-4.30408E-3
2.35868E-3	82.9563E-12	711.956E-3	-29.4557E-3	82.9208E-12	728.511E-3	-7.10951E-3
2.35368E-3	82.9884E-12	707.854E-3	-26.9399E-3	83.0965E-12	737.612E-3	-7.25769E-3
2.34867E-3	82.3810E-12	703.041E-3	-22.9746E-3	83.3497E-12	716.718E-3	-17.4446E-3
2.34367E-3	82.5192E-12	700.497E-3	-16.6023E-3	83.3717E-12	708.973E-3	-27.5208E-3
2.33867E-3	82.0145E-12	712.684E-3	-19.3013E-3	83.4353E-12	734.835E-3	-17.8302E-3
2.33367E-3	81.8052E-12	730.334E-3	-18.7828E-3	82.5986E-12	748.224E-3	-4.92612E-3
2.32866E-3	81.8890E-12	719.464E-3	-8.58372E-3	82.7149E-12	738.157E-3	1.69093E-3
2.32366E-3	81.4998E-12	708.395E-3	-15.6579E-3	82.2835E-12	724.598E-3	1.56666E-3
2.31866E-3	81.2058E-12	717.784E-3	-22.7981E-3	81.4991E-12	720.787E-3	-14.6415E-3
2.31366E-3	80.9308E-12	721.991E-3	-14.1073E-3	81.1306E-12	731.249E-3	-32.1794E-3
2.30865E-3	80.6716E-12	719.077E-3	-17.5133E-3	80.5970E-12	740.522E-3	-29.6283E-3
2.30365E-3	80.2759E-12	729.818E-3	-24.2263E-3	79.8542E-12	732.263E-3	-23.8805E-3
2.29865E-3	80.1173E-12	738.884E-3	-23.3981E-3	79.5764E-12	721.214E-3	-28.3618E-3
2.29365E-3	79.4310E-12	735.743E-3	-31.3501E-3	79.0808E-12	720.010E-3	-25.9799E-3
2.28864E-3	79.2274E-12	730.286E-3	-34.0431E-3	78.9660E-12	729.798E-3	-17.5707E-3
2.28364E-3	79.3154E-12	723.321E-3	-29.4260E-3	78.7999E-12	734.893E-3	-9.47679E-3
2.27864E-3	79.1641E-12	733.314E-3	-36.7840E-3	78.7699E-12	725.314E-3	6.14036E-3
2.27364E-3	78.6671E-12	749.492E-3	-34.5788E-3	78.4736E-12	725.972E-3	12.5627E-3
2.26863E-3	78.4083E-12	740.430E-3	-14.6059E-3	78.6646E-12	731.874E-3	-6.61673E-3
2.26363E-3	78.4566E-12	723.663E-3	-12.9248E-3	78.6709E-12	730.822E-3	-22.1855E-3
2.25863E-3	78.3644E-12	718.452E-3	-23.5984E-3	78.5306E-12	731.606E-3	-10.0168E-3
2.25363E-3	78.0958E-12	730.606E-3	-8.34161E-3	78.2544E-12	727.653E-3	1.44087E-3
2.24862E-3	77.8922E-12	752.345E-3	13.4115E-3	78.1542E-12	724.033E-3	-13.7742E-3
2.24362E-3	77.8316E-12	764.724E-3	4.42688E-3	77.8681E-12	735.806E-3	-24.2669E-3
2.23862E-3	77.7879E-12	756.389E-3	-5.59344E-3	77.6632E-12	739.918E-3	-16.9086E-3
2.23362E-3	77.7171E-12	736.493E-3	-2.22112E-3	77.3926E-12	727.962E-3	-7.43567E-3
2.22861E-3	77.4976E-12	738.800E-3	-11.5097E-3	77.2432E-12	719.569E-3	-6.38283E-3
2.22361E-3	77.2978E-12	755.148E-3	-23.7810E-3	76.7076E-12	725.796E-3	-16.1084E-3
2.21861E-3	76.8988E-12	751.860E-3	-30.4310E-3	76.4909E-12	744.054E-3	-19.9375E-3
2.21361E-3	76.5558E-12	734.007E-3	-28.9506E-3	76.2315E-12	752.369E-3	-13.0317E-3
2.20860E-3	76.2813E-12	715.097E-3	-13.0640E-3	75.8761E-12	747.205E-3	-4.05548E-3
2.20360E-3	75.4961E-12	705.826E-3	-3.30918E-3	75.3603E-12	749.704E-3	2.38003E-3
2.19860E-3	75.0083E-12	724.700E-3	-3.25976E-3	75.4504E-12	762.163E-3	-7.02385E-3
2.19360E-3	74.4300E-12	740.117E-3	2.82165E-3	75.6500E-12	758.917E-3	-22.4851E-3
2.18859E-3	74.1582E-12	725.012E-3	-1.97021E-3	74.9722E-12	738.761E-3	-23.7730E-3
2.18359E-3	73.9027E-12	715.995E-3	-12.0692E-3	74.5719E-12	733.980E-3	-12.6395E-3
2.17859E-3	73.4601E-12	721.091E-3	-1.29443E-3	74.7198E-12	744.437E-3	-4.79758E-3
2.17359E-3	73.2335E-12	720.380E-3	3.27326E-3	74.6068E-12	749.187E-3	-15.8643E-3
2.16858E-3	73.3812E-12	723.452E-3	-11.8984E-3	74.2483E-12	749.683E-3	-19.5194E-3
2.16358E-3	73.2087E-12	732.585E-3	-14.0396E-3	73.6723E-12	740.893E-3	-4.61603E-3
2.15858E-3	73.1436E-12	728.161E-3	-804.182E-6	73.4196E-12	729.768E-3	3.16786E-3
2.15358E-3	73.0159E-12	714.206E-3	2.39822E-3	72.9851E-12	735.327E-3	3.47158E-3
2.14857E-3	73.2087E-12	721.013E-3	2.37417E-3	72.7463E-12	748.437E-3	-8.86301E-3
2.14357E-3	73.2662E-12	741.544E-3	8.87666E-3	72.1099E-12	747.568E-3	-31.0307E-3
2.13857E-3	73.3889E-12	749.231E-3	7.70919E-3	71.8876E-12	744.759E-3	-33.5803E-3
2.13357E-3	73.1401E-12	757.148E-3	3.75282E-3	71.4442E-12	748.888E-3	-31.9177E-3
2.12856E-3	73.1174E-12	771.502E-3	2.02110E-3	71.6216E-12	748.844E-3	-39.3057E-3
2.12356E-3	72.4557E-12	782.313E-3	-15.4749E-3	71.4815E-12	754.656E-3	-44.4353E-3
2.11856E-3	72.0911E-12	787.796E-3	-38.3275E-3	71.3577E-12	761.488E-3	-43.0000E-3
2.11356E-3	71.8792E-12	777.809E-3	-38.2235E-3	70.7990E-12	766.301E-3	-32.8334E-3
2.10855E-3	71.3908E-12	745.560E-3	-29.9777E-3	70.8524E-12	773.398E-3	-18.4912E-3
2.10355E-3	70.8215E-12	723.111E-3	-27.9910E-3	70.9324E-12	771.063E-3	-8.10094E-3
2.09855E-3	70.3623E-12	738.708E-3	-21.2047E-3	70.5930E-12	764.478E-3	-16.4633E-3
2.09355E-3	69.6524E-12	763.601E-3	-21.1208E-3	69.9470E-12	765.014E-3	-32.6803E-3
2.08854E-3	69.3374E-12	771.761E-3	-28.4504E-3	69.8012E-12	767.929E-3	-27.0999E-3
2.08354E-3	68.4885E-12	768.723E-3	-16.7706E-3	69.7869E-12	759.327E-3	-10.0787E-3
2.07854E-3	68.2541E-12	763.875E-3	-4.38968E-3	69.2967E-12	743.659E-3	-3.36946E-3
2.07354E-3	68.0804E-12	765.315E-3	-19.5474E-3	68.5972E-12	734.828E-3	-5.68653E-3
2.06853E-3	68.0125E-12	762.164E-3	-33.5731E-3	68.1941E-12	737.563E-3	-21.4391E-3
2.06353E-3	67.4855E-12	748.274E-3	-24.9919E-3	67.7724E-12	748.341E-3	-34.5721E-3
2.05853E-3	67.5857E-12	747.236E-3	-15.2642E-3	67.5396E-12	756.397E-3	-27.6450E-3
2.05353E-3	67.4533E-12	761.589E-3	-17.6584E-3	67.0207E-12	765.111E-3	-13.5170E-3
2.04852E-3	67.4477E-12	767.074E-3	-21.2259E-3	66.5619E-12	766.821E-3	-1.57687E-3
2.04352E-3	67.1921E-12	766.702E-3	-27.0507E-3	66.2291E-12	762.704E-3	-881.191E-6
2.03852E-3	67.3157E-12	772.921E-3	-29.8953E-3	66.4175E-12	772.870E-3	-18.3098E-3
2.03352E-3	67.3201E-12	774.235E-3	-19.1490E-3	66.5614E-12	784.967E-3	-26.2055E-3
2.02851E-3	67.0823E-12	786.827E-3	-14.6939E-3	66.6650E-12	798.472E-3	-16.9231E-3
2.02351E-3	66.6493E-12	811.042E-3	-17.0821E-3	66.3519E-12	804.183E-3	-21.2615E-3
2.01851E-3	66.4845E-12	807.197E-3	-7.18864E-3	66.5920E-12	791.013E-3	-27.2895E-3
2.01351E-3	66.2440E-12	784.607E-3	3.78075E-3	66.5949E-12	782.064E-3	-15.5166E-3
2.00850E-3	65.7253E-12	783.764E-3	8.75894E-3	66.5449E-12	784.909E-3	-21.3302E-3
2.00350E-3	65.0119E-12	811.834E-3	12.8042E-3	66.0722E-12	792.408E-3	-46.8471E-3
1.99850E-3	64.8249E-12	826.491E-3	-7.77853E-3	65.7884E-12	797.182E-3	-57.2324E-3
1.99350E-3	64.3541E-12	812.675E-3	-46.4988E-3	65.5412E-12	804.987E-3	-55.2762E-3
1.98849E-3	63.8855E-12	802.342E-3	-59.6188E-3	65.1570E-12	815.085E-3	-55.8044E-3
1.98349E-3	63.3075E-12	788.454E-3	-56.6985E-3	64.7034E-12	806.905E-3	-44.6489E-3
1.97849E-3	63.1621E-12	773.577E-3	-55.0559E-3	63.8227E-12	791.213E-3	-19.0266E-3
1.97349E-3	62.9405E-12	776.948E-3	-33.0180E-3	63.2540E-12	776.553E-3	-10.0166E-3
1.96848E-3	62.9496E-12	783.222E-3	-15.9887E-3	62.6874E-12	762.048E-3	-11.8342E-3
1.96348E-3	62.8205E-12	791.448E-3	-21.4476E-3	62.1128E-12	769.558E-3	-5.77685E-3
1.95848E-3	62.5678E-12	804.329E-3	-12.9114E-3	61.4227E-12	785.748E-3	-6.33475E-3
1.95348E-3	62.6342E-12	808.923E-3	-8.16759E-3	61.1580E-12	804.008E-3	-5.58862E-3
1.94847E-3	62.6696E-12	810.069E-3	-16.3408E-3	60.9630E-12	818.087E-3	-3.09414E-3
1.94347E-3	62.0688E-12	815.603E-3	-11.7675E-3	61.2221E-12	808.857E-3	-23.2562E-3
1.93847E-3	62.0230E-12	818.585E-3	-7.28920E-3	61.0731E-12	796.372E-3	-39.5984E-3
1.93347E-3	62.1395E-12	818.830E-3	-19.6754E-3	61.0185E-12	799.834E-3	-29.3518E-3
1.92846E-3	62.0872E-12	819.816E-3	-37.5209E-3	61.0279E-12	813.359E-3	-11.9376E-3
1.92346E-3	61.8497E-12	820.041E-3	-46.9606E-3	61.5757E-12	827.777E-3	-4.72728E-3
1.91846E-3	61.6446E-12	822.820E-3	-42.1462E-3	61.5356E-12	837.457E-3	-17.6998E-3
1.91346E-3	61.3096E-12	828.002E-3	-23.8477E-3	60.9528E-12	838.828E-3	-24.4076E-3
1.90845E-3	60.9536E-12	831.809E-3	-11.5327E-3	60.7698E-12	837.298E-3	-7.16016E-3
1.90345E-3	60.5944E-12	837.035E-3	-14.8950E-3	60.6631E-12	839.613E-3	-841.230E-6
1.89845E-3	60.1739E-12	844.510E-3	-19.1395E-3	60.0034E-12	836.427E-3	-15.7909E-3
1.89345E-3	59.6784E-12	846.563E-3	-15.6569E-3	59.5742E-12	820.607E-3	-14.7189E-3
1.88844E-3	59.2855E-12	843.925E-3	-19.4263E-3	58.9628E-12	811.835E-3	-1.83909E-3
1.88344E-3	58.8182E-12	838.416E-3	-27.3153E-3	58.2804E-12	823.110E-3	-1.26566E-3
1.87844E-3	58.2414E-12	833.927E-3	-18.0602E-3	57.8291E-12	840.577E-3	-3.05783E-3
1.87344E-3	57.9321E-12	841.039E-3	-11.9027E-3	57.3864E-12	845.549E-3	-5.91681E-3
1.86843E-3	57.5798E-12	841.667E-3	-25.8118E-3	56.7864E-12	841.030E-3	-10.7737E-3
1.86343E-3	57.1049E-12	821.595E-3	-34.7661E-3	56.3664E-12	834.679E-3	-9.91364E-3
1.85843E-3	56.7175E-12	810.178E-3	-31.6459E-3	56.2139E-12	833.949E-3	-4.90853E-3
1.85343E-3	56.6501E-12	818.988E-3	-34.9126E-3	56.0546E-12	837.351E-3	-6.39362E-3
1.84842E-3	56.2728E-12	840.813E-3	-44.0059E-3	55.8421E-12	837.625E-3	-9.99400E-3
1.84342E-3	55.9835E-12	863.921E-3	-50.4009E-3	55.9004E-12	844.395E-3	-15.2096E-3
1.83842E-3	55.8616E-12	870.180E-3	-41.1009E-3	55.9138E-12	860.656E-3	-28.1881E-3
1.83342E-3	55.6235E-12	863.090E-3	-19.3706E-3	56.2382E-12	870.329E-3	-27.4649E-3
1.82841E-3	55.3875E-12	856.150E-3	-13.8582E-3	56.3494E-12	872.833E-3	-18.7661E-3
1.82341E-3	55.2153E-12	860.157E-3	-15.6289E-3	55.9572E-12	880.835E-3	-22.0931E-3
1.81841E-3	54.9366E-12	874.135E-3	-5.69074E-3	55.8894E-12	872.313E-3	-22.2208E-3
1.81341E-3	54.7191E-12	877.736E-3	3.99626E-3	55.5779E-12	853.522E-3	-17.2545E-3
1.80840E-3	54.4504E-12	868.571E-3	12.2145E-3	55.1927E-12	858.432E-3	-20.5688E-3
1.80340E-3	54.1604E-12	866.790E-3	13.5877E-3	54.5032E-12	874.263E-3	-31.9941E-3
1.79840E-3	53.8121E-12	858.364E-3	-3.47986E-3	54.2701E-12	878.699E-3	-30.6569E-3
1.79340E-3	53.4517E-12	841.965E-3	-25.5440E-3	53.6919E-12	874.651E-3	-11.8818E-3
1.78839E-3	52.8648E-12	842.557E-3	-29.1913E-3	53.1914E-12	874.375E-3	-12.0137E-3
1.78339E-3	52.7457E-12	855.179E-3	-5.58154E-3	52.8444E-12	883.290E-3	-31.5554E-3
1.77839E-3	52.5243E-12	867.026E-3	6.37958E-3	52.4670E-12	888.774E-3	-28.0158E-3
1.77339E-3	52.1251E-12	876.694E-3	-10.1125E-3	51.9056E-12	888.308E-3	-6.49299E-3
1.76838E-3	51.5180E-12	884.064E-3	-19.3151E-3	51.7215E-12	892.101E-3	3.39364E-3
1.76338E-3	51.1628E-12	880.535E-3	-15.2354E-3	51.3735E-12	904.441E-3	8.79663E-3
1.75838E-3	50.7895E-12	872.100E-3	-16.3570E-3	50.9655E-12	924.291E-3	9.96739E-3
1.75338E-3	50.6534E-12	880.781E-3	-9.97082E-3	50.7420E-12	929.053E-3	2.73497E-3
1.74837E-3	50.2206E-12	898.912E-3	2.93846E-3	50.5014E-12	923.858E-3	-9.13029E-3
1.74337E-3	50.1249E-12	904.529E-3	-2.11271E-3	50.2983E-12	929.659E-3	-12.8132E-3
1.73837E-3	50.1840E-12	908.148E-3	-10.5910E-3	50.1058E-12	941.211E-3	-1.19421E-3
1.73337E-3	49.8797E-12	916.753E-3	-19.4421E-3	50.1066E-12	948.119E-3	12.6831E-3
1.72836E-3	49.8356E-12	917.798E-3	-24.5424E-3	49.5706E-12	943.430E-3	12.3526E-3
1.72336E-3	49.5244E-12	913.601E-3	-18.1533E-3	49.3429E-12	931.382E-3	-8.87267E-3
1.71836E-3	49.5260E-12	916.039E-3	-23.5690E-3	49.3211E-12	926.564E-3	-28.1963E-3
1.71336E-3	49.3956E-12	928.513E-3	-36.6248E-3	48.7207E-12	939.831E-3	-30.0799E-3
1.70835E-3	48.9685E-12	949.114E-3	-33.6673E-3	48.2517E-12	957.977E-3	-21.4437E-3
1.70335E-3	48.8315E-12	969.357E-3	-19.4240E-3	48.1422E-12	964.955E-3	-10.7898E-3
1.69835E-3	48.6758E-12	977.306E-3	-8.03193E-3	47.6826E-12	964.195E-3	-6.14475E-3
1.69335E-3	48.1585E-12	967.061E-3	1.45979E-3	47.1956E-12	971.243E-3	-13.8708E-3
1.68834E-3	47.6505E-12	952.370E-3	-165.972E-6	47.1725E-12	984.815E-3	-23.3725E-3
1.68334E-3	47.5160E-12	953.364E-3	-16.0192E-3	46.9166E-12	990.965E-3	-15.9848E-3
1.67834E-3	46.9209E-12	958.588E-3	-34.6203E-3	46.4355E-12	987.940E-3	-11.4352E-3
1.67334E-3	46.6212E-12	957.325E-3	-39.4612E-3	46.1986E-12	990.692E-3	-18.5260E-3
1.66833E-3	45.9766E-12	958.172E-3	-16.1366E-3	46.0800E-12	1.00738E+0	-26.5793E-3
1.66333E-3	45.4257E-12	962.319E-3	2.41303E-3	45.7549E-12	1.01340E+0	-36.7677E-3
1.65833E-3	45.1130E-12	969.230E-3	-7.23830E-3	45.2647E-12	1.00350E+0	-31.0738E-3
1.65333E-3	44.6998E-12	982.131E-3	-23.4807E-3	44.9495E-12	1.00302E+0	-6.12552E-3
1.64832E-3	43.9892E-12	995.692E-3	-25.2895E-3	44.5388E-12	1.00029E+0	8.12710E-3
1.64332E-3	43.7434E-12	1.00599E+0	-14.4645E-3	44.1333E-12	982.422E-3	-9.30654E-3
1.63832E-3	43.6918E-12	1.01347E+0	-14.1978E-3	43.8864E-12	977.858E-3	-29.7977E-3
1.63332E-3	43.2562E-12	1.01320E+0	-12.6176E-3	43.2013E-12	1.00227E+0	-28.8929E-3
1.62831E-3	43.0104E-12	1.00596E+0	-1.29438E-3	42.8946E-12	1.02670E+0	-22.3869E-3
1.62331E-3	42.9780E-12	1.01251E+0	3.47415E-3	42.6245E-12	1.03596E+0	-23.6650E-3
1.61831E-3	42.6311E-12	1.03167E+0	-873.404E-6	42.0548E-12	1.05014E+0	-31.5244E-3
1.61331E-3	42.2800E-12	1.03642E+0	-14.3499E-3	41.6322E-12	1.05897E+0	-31.4764E-3
1.60830E-3	42.0638E-12	1.03327E+0	-17.2549E-3	41.5625E-12	1.05321E+0	-16.4130E-3
1.60330E-3	41.7548E-12	1.04202E+0	-7.16383E-3	41.1926E-12	1.05229E+0	-3.69734E-3
1.59830E-3	41.5664E-12	1.04919E+0	-5.80834E-3	41.0339E-12	1.05781E+0	-14.5716E-3
1.59330E-3	41.1950E-12	1.04787E+0	-9.09328E-3	40.8241E-12	1.06643E+0	-27.3563E-3
1.58829E-3	40.5329E-12	1.05270E+0	597.482E-6	40.6688E-12	1.08191E+0	-18.3553E-3
1.58329E-3	40.1567E-12	1.05959E+0	12.3684E-3	40.5695E-12	1.07983E+0	-7.58208E-3
1.57829E-3	39.6807E-12	1.06405E+0	4.43792E-3	40.5597E-12	1.06930E+0	-2.09964E-3
1.57329E-3	39.2271E-12	1.08360E+0	-11.2629E-3	40.2325E-12	1.07901E+0	-8.67810E-3
1.56828E-3	38.6941E-12	1.09906E+0	-12.7331E-3	39.6177E-12	1.08693E+0	-26.6157E-3
1.56328E-3	38.3032E-12	1.08507E+0	-7.60842E-3	38.9399E-12	1.08446E+0	-32.4413E-3
1.55828E-3	37.8609E-12	1.06996E+0	-8.91182E-3	38.7317E-12	1.08848E+0	-30.6945E-3
1.55328E-3	37.6097E-12	1.07198E+0	-4.46199E-3	38.0367E-12	1.09926E+0	-31.8096E-3
1.54827E-3	37.2577E-12	1.07432E+0	-3.26835E-3	37.3369E-12	1.10589E+0	-24.2324E-3
1.54327E-3	36.9473E-12	1.08040E+0	-10.9423E-3	36.7029E-12	1.10551E+0	-5.06910E-3
1.53827E-3	36.7002E-12	1.09433E+0	-6.76896E-3	36.3698E-12	1.09852E+0	7.11870E-3
1.53327E-3	36.4177E-12	1.10320E+0	-3.19618E-3	35.9316E-12	1.08962E+0	-297.956E-6
1.52826E-3	36.2417E-12	1.10827E+0	-12.4563E-3	35.2315E-12	1.08616E+0	-15.6497E-3
1.52326E-3	35.8990E-12	1.10855E+0	-13.8658E-3	34.7778E-12	1.09157E+0	-28.2597E-3
1.51826E-3	35.7324E-12	1.11224E+0	-6.48737E-3	34.5137E-12	1.10853E+0	-37.5005E-3
1.51326E-3	35.1579E-12	1.12583E+0	-12.9097E-3	34.3924E-12	1.13965E+0	-34.0515E-3
1.50825E-3	35.1483E-12	1.13269E+0	-18.1680E-3	34.0782E-12	1.16097E+0	-21.5033E-3
1.50325E-3	34.7934E-12	1.12924E+0	-19.6891E-3	33.9538E-12	1.15147E+0	-14.1029E-3
1.49825E-3	34.1721E-12	1.13530E+0	-26.6989E-3	33.8384E-12	1.13543E+0	-10.4254E-3
1.49325E-3	33.7603E-12	1.14634E+0	-16.1785E-3	33.6612E-12	1.14082E+0	-10.8148E-3
1.48824E-3	33.3976E-12	1.13284E+0	-8.50262E-3	33.5512E-12	1.15544E+0	-11.2453E-3
1.48324E-3	32.9488E-12	1.12074E+0	-15.1527E-3	33.5560E-12	1.17020E+0	-11.2848E-3
1.47824E-3	32.2912E-12	1.12664E+0	-7.40227E-3	33.0167E-12	1.18547E+0	-23.4580E-3
1.47324E-3	31.7075E-12	1.12826E+0	-2.06435E-3	32.5941E-12	1.17873E+0	-30.9099E-3
1.46823E-3	31.2533E-12	1.13589E+0	-11.7081E-3	32.2133E-12	1.16379E+0	-12.7782E-3
1.46323E-3	31.0640E-12	1.14233E+0	-13.5596E-3	31.6337E-12	1.16671E+0	469.552E-6
1.45823E-3	30.5632E-12	1.13039E+0	-13.5862E-3	31.0275E-12	1.16803E+0	-14.3953E-3
1.45323E-3	30.0565E-12	1.12194E+0	-18.2656E-3	30.3170E-12	1.15193E+0	-23.3849E-3
1.44822E-3	29.7316E-12	1.12324E+0	-19.6917E-3	29.7295E-12	1.13322E+0	-20.6122E-3
1.44322E-3	29.3056E-12	1.11342E+0	-20.2823E-3	29.2924E-12	1.12284E+0	-22.2653E-3
1.43822E-3	29.0727E-12	1.10014E+0	-23.9221E-3	28.8224E-12	1.11959E+0	-21.3770E-3
1.43322E-3	28.7348E-12	1.10658E+0	-22.9396E-3	28.3933E-12	1.11801E+0	-22.4205E-3
1.42821E-3	28.4913E-12	1.12357E+0	-11.7450E-3	27.9444E-12	1.11612E+0	-25.7530E-3
1.42321E-3	27.9991E-12	1.13217E+0	-12.1023E-3	27.8212E-12	1.11438E+0	-22.8944E-3
1.41821E-3	27.6254E-12	1.12742E+0	-25.1019E-3	27.5574E-12	1.11958E+0	-24.9099E-3
1.41321E-3	27.5129E-12	1.11750E+0	-21.9742E-3	27.2971E-12	1.13388E+0	-28.5298E-3
1.40820E-3	27.1532E-12	1.12143E+0	-7.92208E-3	26.8952E-12	1.13544E+0	-13.7739E-3
1.40320E-3	26.5159E-12	1.13471E+0	-2.34647E-3	26.8626E-12	1.12887E+0	3.35013E-3
1.39820E-3	26.2047E-12	1.13124E+0	-8.70244E-3	26.6667E-12	1.12460E+0	-173.471E-6
1.39320E-3	25.8532E-12	1.11581E+0	-15.5990E-3	26.3677E-12	1.11696E+0	-18.1557E-3
1.38819E-3	25.3896E-12	1.11416E+0	-10.5360E-3	25.8531E-12	1.12066E+0	-24.9125E-3
1.38319E-3	25.1954E-12	1.10723E+0	1.31923E-3	25.5295E-12	1.11797E+0	-5.18671E-3
1.37819E-3	24.7214E-12	1.08779E+0	-1.87122E-3	25.1454E-12	1.08510E+0	15.1729E-3
1.37319E-3	24.3867E-12	1.08152E+0	-21.1004E-3	24.7176E-12	1.05494E+0	5.98809E-3
1.36818E-3	24.1955E-12	1.08373E+0	-29.2121E-3	24.1662E-12	1.05050E+0	-17.5007E-3
1.36318E-3	23.7755E-12	1.07933E+0	-24.8886E-3	23.6395E-12	1.04244E+0	-34.1623E-3
1.35818E-3	23.1454E-12	1.06881E+0	-24.6454E-3	23.2735E-12	1.02699E+0	-36.6068E-3
1.35318E-3	22.9861E-12	1.06631E+0	-20.3885E-3	22.8116E-12	1.02796E+0	-24.8841E-3
1.34817E-3	22.7494E-12	1.06986E+0	-10.3329E-3	22.4471E-12	1.02646E+0	-19.3184E-3
1.34317E-3	22.2860E-12	1.06164E+0	-17.3091E-3	22.0370E-12	1.00966E+0	-29.9620E-3
1.33817E-3	21.8402E-12	1.04109E+0	-27.7572E-3	21.6784E-12	998.670E-3	-37.3335E-3
1.33317E-3	21.7009E-12	1.02112E+0	-12.3627E-3	21.3980E-12	994.056E-3	-23.4726E-3
1.32816E-3	21.4393E-12	1.00751E+0	3.93503E-3	21.1748E-12	989.666E-3	-1.77865E-3
1.32316E-3	21.0255E-12	1.00398E+0	-2.38700E-3	20.7904E-12	988.118E-3	665.920E-6
1.31816E-3	20.6966E-12	1.00637E+0	-13.0093E-3	20.4983E-12	976.254E-3	-7.30087E-3
1.31316E-3	20.4280E-12	1.00240E+0	-18.9946E-3	20.3279E-12	962.799E-3	-1.89162E-3
1.30815E-3	20.1542E-12	988.050E-3	-22.9105E-3	20.0299E-12	965.162E-3	5.33329E-3
1.30315E-3	19.8301E-12	977.462E-3	-22.3465E-3	19.8114E-12	958.428E-3	1.07965E-3
1.29815E-3	19.4827E-12	974.163E-3	-16.1358E-3	19.4144E-12	926.637E-3	-1.31608E-3
1.29315E-3	19.2818E-12	959.087E-3	-8.65908E-3	19.0576E-12	900.358E-3	5.96424E-3
1.28814E-3	18.9252E-12	942.218E-3	-5.56638E-3	18.6849E-12	891.081E-3	3.43986E-3
1.28314E-3	18.5728E-12	934.255E-3	-2.49350E-3	18.5324E-12	885.547E-3	-7.37600E-3
1.27814E-3	18.3787E-12	922.607E-3	510.916E-6	18.0706E-12	882.937E-3	-16.3299E-3
1.27314E-3	18.1976E-12	913.567E-3	-6.19824E-3	17.6399E-12	870.624E-3	-29.6197E-3
1.26813E-3	17.8119E-12	909.469E-3	-16.8830E-3	17.3653E-12	841.023E-3	-31.3409E-3
1.26313E-3	17.3257E-12	896.792E-3	-20.3115E-3	17.2867E-12	810.301E-3	-14.4091E-3
1.25813E-3	17.1006E-12	875.535E-3	-16.4431E-3	16.9098E-12	790.685E-3	-11.1897E-3
1.25313E-3	16.9076E-12	859.162E-3	-14.9086E-3	16.4653E-12	786.051E-3	-20.0951E-3
1.24812E-3	16.3605E-12	843.058E-3	-18.8690E-3	16.2636E-12	781.015E-3	-21.8848E-3
1.24312E-3	15.9697E-12	813.383E-3	-16.9942E-3	16.1140E-12	756.866E-3	-27.3746E-3
1.23812E-3	15.8685E-12	785.388E-3	-13.8334E-3	15.9073E-12	721.292E-3	-35.0959E-3
1.23312E-3	15.6664E-12	778.672E-3	-14.1809E-3	15.7478E-12	707.763E-3	-37.3241E-3
1.22811E-3	15.3001E-12	775.983E-3	-12.7646E-3	15.4442E-12	715.293E-3	-38.9818E-3
1.22311E-3	14.9389E-12	760.064E-3	-15.4656E-3	15.2282E-12	702.913E-3	-36.3848E-3
1.21811E-3	14.8020E-12	740.703E-3	-30.5281E-3	15.0484E-12	674.243E-3	-25.8553E-3
1.21311E-3	14.6536E-12	716.715E-3	-40.6048E-3	14.8344E-12	653.114E-3	-19.8857E-3
1.20810E-3	14.3415E-12	690.186E-3	-25.2400E-3	14.5284E-12	631.643E-3	-18.7810E-3
1.20310E-3	14.1599E-12	680.692E-3	-10.5832E-3	14.1952E-12	604.595E-3	-4.61993E-3
1.19810E-3	14.0288E-12	674.460E-3	-15.9338E-3	14.0266E-12	586.396E-3	5.88960E-3
1.19310E-3	13.8968E-12	657.726E-3	-18.5817E-3	13.8198E-12	572.137E-3	-1.76152E-3
1.18809E-3	13.7009E-12	642.544E-3	-13.8613E-3	13.4160E-12	551.763E-3	-13.1568E-3
1.18309E-3	13.5160E-12	623.548E-3	-18.1276E-3	13.1696E-12	536.352E-3	-27.6264E-3
1.17809E-3	13.3537E-12	605.184E-3	-28.3953E-3	13.0534E-12	531.496E-3	-35.4240E-3
1.17309E-3	13.1270E-12	599.747E-3	-31.4396E-3	12.8572E-12	529.496E-3	-26.0729E-3
1.16808E-3	12.9478E-12	596.639E-3	-20.3454E-3	12.7288E-12	514.359E-3	-15.0404E-3
1.16308E-3	12.6783E-12	577.925E-3	-11.0702E-3	12.6518E-12	487.924E-3	-16.2868E-3
1.15808E-3	12.4898E-12	553.844E-3	-12.0201E-3	12.4065E-12	469.419E-3	-18.6173E-3
1.15308E-3	12.3291E-12	538.761E-3	-6.21993E-3	12.3157E-12	463.461E-3	-24.2446E-3
1.14807E-3	12.0094E-12	518.463E-3	-4.06622E-3	12.2917E-12	458.750E-3	-34.2067E-3
1.14307E-3	11.8893E-12	491.813E-3	-13.3202E-3	12.0971E-12	443.818E-3	-25.5359E-3
1.13807E-3	11.8407E-12	477.429E-3	-13.9352E-3	12.0688E-12	425.141E-3	-7.37793E-3
1.13307E-3	11.5967E-12	470.843E-3	-16.2027E-3	11.8909E-12	411.742E-3	-11.0650E-3
1.12806E-3	11.3452E-12	462.923E-3	-19.3709E-3	11.6411E-12	396.817E-3	-24.6517E-3
1.12306E-3	11.2678E-12	456.231E-3	-17.1583E-3	11.5706E-12	384.877E-3	-23.3174E-3
1.11806E-3	11.1892E-12	435.874E-3	-17.2235E-3	11.3601E-12	370.158E-3	-12.8968E-3
1.11306E-3	11.0435E-12	406.536E-3	-16.3149E-3	11.0177E-12	341.931E-3	-3.13412E-3
1.10805E-3	10.9243E-12	390.427E-3	-13.3163E-3	10.8842E-12	325.005E-3	-462.637E-6
1.10305E-3	10.8921E-12	384.828E-3	-5.17042E-3	10.8517E-12	319.367E-3	-8.49602E-3
1.09805E-3	10.8563E-12	372.460E-3	-2.44584E-3	10.5826E-12	304.070E-3	-15.1920E-3
1.09305E-3	10.6529E-12	354.877E-3	-6.05623E-3	10.4590E-12	288.438E-3	-7.61809E-3
1.08804E-3	10.5364E-12	353.403E-3	-5.48152E-3	10.2219E-12	289.740E-3	-7.03477E-3
1.08304E-3	10.4220E-12	361.732E-3	-8.02879E-3	10.2336E-12	294.162E-3	-21.3464E-3
1.07804E-3	10.3641E-12	350.580E-3	-8.10769E-3	10.2472E-12	282.729E-3	-29.7945E-3
1.07304E-3	10.3510E-12	320.264E-3	-2.60393E-3	10.0606E-12	279.098E-3	-28.7223E-3
1.06803E-3	10.1689E-12	295.880E-3	-10.8409E-3	10.0774E-12	274.188E-3	-24.8830E-3
1.06303E-3	10.0541E-12	288.554E-3	-22.0798E-3	10.1316E-12	259.749E-3	-23.0824E-3
1.05803E-3	10.0050E-12	283.709E-3	-10.2440E-3	10.0486E-12	259.588E-3	-19.9332E-3
1.05303E-3	9.74494E-12	278.618E-3	-3.38454E-3	10.0212E-12	247.913E-3	-18.3968E-3
1.04802E-3	9.71795E-12	271.997E-3	-10.1789E-3	10.0663E-12	221.933E-3	-12.6538E-3
1.04302E-3	9.76548E-12	256.040E-3	-2.17864E-3	9.90971E-12	198.560E-3	-6.84009E-3
1.03802E-3	9.55904E-12	248.568E-3	-1.45588E-3	9.90683E-12	171.909E-3	-15.3015E-3
1.03302E-3	9.39237E-12	252.317E-3	-17.7739E-3	9.81403E-12	159.033E-3	-22.8633E-3
1.02801E-3	9.34721E-12	238.775E-3	-16.7889E-3	9.42561E-12	166.709E-3	-25.9453E-3
1.02301E-3	9.21838E-12	208.225E-3	-2.56165E-3	9.11849E-12	166.224E-3	-26.3940E-3
1.01801E-3	9.07681E-12	185.203E-3	-3.62913E-3	9.24957E-12	141.507E-3	-20.4165E-3
1.01301E-3	9.09179E-12	169.992E-3	-9.03234E-3	9.04615E-12	120.321E-3	-18.3571E-3
1.00800E-3	8.99912E-12	164.622E-3	-8.44889E-3	8.96072E-12	122.437E-3	-23.2684E-3
1.00300E-3	9.06890E-12	164.313E-3	-11.3858E-3	9.02972E-12	126.235E-3	-30.3771E-3
997.999E-6	8.97762E-12	161.387E-3	-17.8158E-3	8.74671E-12	128.181E-3	-33.4741E-3
992.997E-6	8.77909E-12	161.668E-3	-21.8398E-3	8.72993E-12	128.553E-3	-36.8842E-3
987.994E-6	8.84077E-12	163.305E-3	-16.9044E-3	8.97207E-12	120.658E-3	-38.8379E-3
982.991E-6	8.92802E-12	161.254E-3	-10.6672E-3	8.78779E-12	121.363E-3	-26.1659E-3
977.989E-6	8.82191E-12	141.784E-3	-10.0033E-3	8.60415E-12	132.174E-3	-14.2040E-3
972.986E-6	8.66284E-12	122.247E-3	-4.15762E-3	8.72690E-12	134.460E-3	-19.3977E-3
967.984E-6	8.63204E-12	123.680E-3	2.27738E-3	8.77011E-12	122.128E-3	-29.2692E-3
962.981E-6	8.64959E-12	130.319E-3	240.950E-6	8.72288E-12	110.931E-3	-33.7158E-3
957.979E-6	8.58802E-12	123.256E-3	-6.71103E-3	8.75370E-12	107.136E-3	-38.8357E-3
952.976E-6	8.45628E-12	110.476E-3	-12.9724E-3	8.62096E-12	100.814E-3	-32.4441E-3
947.974E-6	8.36630E-12	101.616E-3	-13.3200E-3	8.56829E-12	85.4766E-3	-11.2290E-3
942.971E-6	8.42712E-12	92.5160E-3	-14.1457E-3	8.58126E-12	76.0715E-3	-7.63325E-3
937.969E-6	8.40672E-12	87.1207E-3	-23.7908E-3	8.48959E-12	79.2200E-3	-10.9565E-3
932.966E-6	8.37216E-12	80.2661E-3	-26.8867E-3	8.23035E-12	90.1545E-3	-4.05261E-3
927.964E-6	8.40220E-12	73.9067E-3	-15.4074E-3	8.17785E-12	101.366E-3	-9.30693E-3
922.961E-6	8.26175E-12	77.3006E-3	-4.69423E-3	8.29105E-12	91.1896E-3	-13.4991E-3
917.959E-6	8.18285E-12	84.3929E-3	-10.4119E-3	8.22130E-12	74.2725E-3	-3.98313E-3
912.956E-6	8.26383E-12	78.8192E-3	-25.2640E-3	8.08664E-12	68.2719E-3	-3.17153E-3
907.954E-6	8.15549E-12	69.2200E-3	-28.6452E-3	8.02330E-12	63.6791E-3	-6.63082E-3
902.951E-6	8.11038E-12	73.3860E-3	-24.2089E-3	8.05237E-12	68.9007E-3	-7.85964E-3
897.949E-6	8.13412E-12	75.7694E-3	-24.9201E-3	8.23093E-12	80.8371E-3	-15.0772E-3
892.946E-6	8.15641E-12	76.4266E-3	-28.8900E-3	8.21060E-12	78.9147E-3	-15.2479E-3
887.944E-6	8.19866E-12	73.6993E-3	-23.6223E-3	8.15204E-12	66.4275E-3	-8.04118E-3
882.941E-6	8.08757E-12	59.4285E-3	-19.9147E-3	8.14223E-12	58.1638E-3	-16.5662E-3
877.939E-6	8.03776E-12	54.4755E-3	-25.4617E-3	8.29980E-12	54.7070E-3	-28.0427E-3
872.936E-6	8.08012E-12	59.9539E-3	-23.2428E-3	8.36797E-12	46.7537E-3	-19.7438E-3
867.934E-6	8.04963E-12	55.5490E-3	-8.47560E-3	8.27038E-12	37.7131E-3	-17.7622E-3
862.931E-6	8.02593E-12	42.1893E-3	334.586E-6	8.12814E-12	40.4681E-3	-24.8829E-3
857.929E-6	7.97224E-12	40.6769E-3	-526.628E-6	8.07423E-12	52.3715E-3	-22.0409E-3
852.926E-6	7.95467E-12	56.4970E-3	1.85504E-3	8.16040E-12	56.2293E-3	-21.5257E-3
847.924E-6	7.91175E-12	69.0351E-3	-2.96254E-3	8.17750E-12	53.6410E-3	-28.0240E-3
842.921E-6	7.97513E-12	71.2623E-3	-11.7517E-3	7.93196E-12	53.8977E-3	-28.6495E-3
837.919E-6	7.97208E-12	75.1594E-3	-12.3382E-3	7.75531E-12	51.3927E-3	-23.3326E-3
832.916E-6	7.77128E-12	73.2401E-3	-14.9819E-3	7.86911E-12	55.7585E-3	-29.0131E-3
827.914E-6	7.82135E-12	69.4184E-3	-18.8134E-3	7.87393E-12	63.8947E-3	-28.8073E-3
822.911E-6	7.84948E-12	72.1736E-3	-19.0515E-3	7.71441E-12	60.9014E-3	-18.5840E-3
817.909E-6	7.72698E-12	67.1491E-3	-25.5174E-3	7.66363E-12	57.8438E-3	-23.7659E-3
812.906E-6	7.73373E-12	65.1866E-3	-28.6041E-3	7.72693E-12	53.3929E-3	-27.6268E-3
807.904E-6	7.70015E-12	75.4936E-3	-25.5925E-3	7.77524E-12	52.6920E-3	-19.1741E-3
802.901E-6	7.60238E-12	83.6625E-3	-21.3463E-3	7.82639E-12	59.0052E-3	-10.5858E-3
797.899E-6	7.69239E-12	78.2194E-3	-10.3032E-3	7.84202E-12	48.8186E-3	2.69679E-3
792.896E-6	7.72727E-12	64.4365E-3	-1.83483E-3	7.72544E-12	31.9897E-3	5.16344E-3
787.894E-6	7.50824E-12	63.7842E-3	-3.54759E-3	7.78161E-12	29.0240E-3	-19.1855E-3
782.891E-6	7.62067E-12	73.3692E-3	-15.1728E-3	7.80840E-12	44.1998E-3	-36.3633E-3
777.889E-6	7.71722E-12	69.9122E-3	-23.9195E-3	7.72682E-12	67.8792E-3	-33.3474E-3
772.886E-6	7.59529E-12	56.7937E-3	-27.7325E-3	7.58178E-12	81.9432E-3	-21.3986E-3
767.884E-6	7.55463E-12	56.1182E-3	-24.4417E-3	7.55976E-12	73.1467E-3	-5.47572E-3
762.881E-6	7.47852E-12	62.4606E-3	-15.7642E-3	7.56565E-12	59.4123E-3	-9.38488E-3
757.879E-6	7.65940E-12	60.5679E-3	-22.7915E-3	7.49464E-12	61.9696E-3	-30.1285E-3
752.876E-6	7.67201E-12	54.3692E-3	-36.8275E-3	7.44307E-12	62.2748E-3	-29.9427E-3
747.874E-6	7.51630E-12	52.3304E-3	-31.0654E-3	7.36767E-12	72.4212E-3	-8.49761E-3
742.871E-6	7.51365E-12	57.8205E-3	-20.0581E-3	7.40132E-12	82.7054E-3	-339.695E-6
737.869E-6	7.53137E-12	67.9571E-3	-28.5360E-3	7.44594E-12	67.4312E-3	-9.57211E-3
732.866E-6	7.56428E-12	67.5159E-3	-36.6319E-3	7.33886E-12	64.9152E-3	-12.3469E-3
727.864E-6	7.46509E-12	51.3115E-3	-29.4898E-3	7.27000E-12	80.7901E-3	-11.3264E-3
722.861E-6	7.30396E-12	46.9453E-3	-21.5193E-3	7.28679E-12	84.7684E-3	-7.95897E-3
717.859E-6	7.38173E-12	61.7126E-3	-16.1185E-3	7.37884E-12	77.6937E-3	-2.92304E-3
712.856E-6	7.35425E-12	70.3795E-3	-7.86605E-3	7.49882E-12	68.6369E-3	-8.23594E-3
707.854E-6	7.27212E-12	75.6899E-3	-4.70220E-3	7.40699E-12	61.8962E-3	-13.0875E-3
702.851E-6	7.26325E-12	90.0602E-3	-13.9107E-3	7.22196E-12	69.6965E-3	-6.59419E-3
697.849E-6	7.13741E-12	88.3328E-3	-21.4560E-3	7.42376E-12	85.8238E-3	-4.73362E-3
692.846E-6	7.12395E-12	70.0766E-3	-13.3709E-3	7.43087E-12	88.5659E-3	-13.5816E-3
687.844E-6	7.27502E-12	68.2967E-3	-3.81519E-3	7.18998E-12	80.3578E-3	-13.2065E-3
682.841E-6	7.23446E-12	74.5604E-3	1.08748E-3	7.16736E-12	73.2490E-3	-9.06488E-3
677.839E-6	7.06863E-12	75.8063E-3	-1.37708E-3	7.11651E-12	70.3754E-3	-13.6006E-3
672.836E-6	7.11838E-12	79.2151E-3	-9.93736E-3	7.10054E-12	68.3266E-3	-14.9344E-3
667.834E-6	7.13792E-12	84.1896E-3	-2.88163E-3	7.06687E-12	71.8799E-3	-18.2223E-3
662.831E-6	7.04532E-12	86.7574E-3	-306.126E-6	6.86604E-12	89.4362E-3	-21.9815E-3
657.829E-6	7.02265E-12	89.1757E-3	-10.9090E-3	6.88634E-12	101.488E-3	-8.57152E-3
652.826E-6	7.06547E-12	92.7814E-3	-13.2339E-3	6.84358E-12	98.5816E-3	3.63802E-3
647.824E-6	6.94799E-12	93.6065E-3	-20.9100E-3	6.90770E-12	96.2940E-3	364.223E-6
642.821E-6	6.90163E-12	90.2263E-3	-33.9200E-3	6.91361E-12	98.7743E-3	-6.47104E-3
637.819E-6	6.93169E-12	91.2443E-3	-30.2411E-3	6.80564E-12	104.841E-3	-6.65703E-3
632.816E-6	6.93935E-12	99.5325E-3	-13.4555E-3	6.84024E-12	113.994E-3	-7.71003E-3
627.814E-6	6.81179E-12	109.403E-3	-4.29219E-3	6.89803E-12	121.723E-3	-11.8781E-3
622.811E-6	6.83135E-12	116.279E-3	-11.7584E-3	6.90866E-12	127.093E-3	-4.52925E-3
617.809E-6	6.83308E-12	116.060E-3	-18.8735E-3	6.81302E-12	132.729E-3	1.32006E-3
612.806E-6	6.75014E-12	118.269E-3	-13.6082E-3	6.64954E-12	135.918E-3	-7.03647E-3
607.804E-6	6.56646E-12	120.143E-3	-2.81488E-3	6.68506E-12	136.968E-3	-19.3494E-3
602.801E-6	6.62154E-12	119.983E-3	392.709E-6	6.61127E-12	139.024E-3	-21.4748E-3
597.799E-6	6.55880E-12	130.507E-3	-18.8514E-3	6.46317E-12	138.459E-3	-6.76456E-3
592.796E-6	6.41427E-12	143.304E-3	-35.9015E-3	6.39581E-12	137.524E-3	8.28554E-3
587.794E-6	6.39223E-12	138.764E-3	-32.9440E-3	6.29538E-12	138.839E-3	11.2021E-3
582.791E-6	6.38581E-12	128.435E-3	-27.6533E-3	6.17646E-12	137.637E-3	3.83304E-3
577.789E-6	6.24174E-12	127.360E-3	-15.5566E-3	6.21422E-12	148.161E-3	-4.73854E-3
572.786E-6	6.23221E-12	130.123E-3	-1.05378E-3	6.07617E-12	162.530E-3	-397.478E-6
567.784E-6	6.20443E-12	142.260E-3	2.65101E-3	6.04772E-12	158.741E-3	4.87366E-3
562.781E-6	6.19370E-12	153.639E-3	-1.42219E-3	6.08816E-12	151.230E-3	446.603E-6
557.779E-6	6.04504E-12	151.949E-3	-10.7634E-3	6.08839E-12	152.427E-3	-5.52454E-3
552.776E-6	6.05947E-12	151.211E-3	-23.8621E-3	6.08574E-12	160.825E-3	-16.6552E-3
547.774E-6	6.15150E-12	161.830E-3	-29.2099E-3	6.02224E-12	175.882E-3	-24.4971E-3
542.771E-6	5.91829E-12	174.331E-3	-22.8155E-3	6.02838E-12	183.150E-3	-17.5540E-3
537.769E-6	5.91452E-12	170.675E-3	-23.0306E-3	6.04686E-12	180.545E-3	-8.83015E-3
532.766E-6	5.95240E-12	159.228E-3	-28.2769E-3	6.04706E-12	182.088E-3	-1.13621E-3
527.764E-6	5.85320E-12	155.392E-3	-17.1403E-3	5.98266E-12	182.413E-3	-3.94498E-3
522.761E-6	5.78412E-12	161.615E-3	2.17633E-3	5.82746E-12	187.381E-3	-16.9436E-3
517.759E-6	5.71625E-12	178.158E-3	9.62619E-3	5.78692E-12	194.022E-3	-15.7032E-3
512.756E-6	5.59719E-12	186.207E-3	7.34910E-3	5.74755E-12	190.788E-3	-7.32242E-3
507.754E-6	5.61947E-12	180.332E-3	-7.93051E-3	5.60381E-12	194.716E-3	-3.70679E-3
502.751E-6	5.50534E-12	177.735E-3	-26.9339E-3	5.41895E-12	202.105E-3	1.54887E-3
497.749E-6	5.43344E-12	173.231E-3	-26.3908E-3	5.43353E-12	200.505E-3	-185.695E-6
492.746E-6	5.25398E-12	165.456E-3	-15.2418E-3	5.29023E-12	205.606E-3	-21.4187E-3
487.744E-6	5.22448E-12	168.650E-3	-9.04632E-3	5.23877E-12	210.914E-3	-39.3311E-3
482.741E-6	5.22774E-12	178.768E-3	-11.4189E-3	5.21516E-12	205.484E-3	-34.6492E-3
477.739E-6	5.10179E-12	183.248E-3	-22.5036E-3	4.99789E-12	215.588E-3	-28.8647E-3
472.736E-6	4.95016E-12	184.941E-3	-22.6791E-3	5.00129E-12	235.617E-3	-24.9519E-3
467.734E-6	5.04012E-12	192.603E-3	-12.7075E-3	5.02959E-12	232.229E-3	-18.4540E-3
462.731E-6	4.97561E-12	196.766E-3	-6.19026E-3	5.03612E-12	211.240E-3	-21.1719E-3
457.729E-6	4.90080E-12	201.286E-3	-5.28609E-3	4.85654E-12	193.345E-3	-20.5656E-3
452.726E-6	4.90917E-12	206.154E-3	-15.0592E-3	4.87140E-12	195.788E-3	-6.15877E-3
447.724E-6	4.78653E-12	196.575E-3	-20.9075E-3	4.88319E-12	220.138E-3	-369.001E-6
442.721E-6	4.75874E-12	196.503E-3	-21.0187E-3	4.88922E-12	230.747E-3	-15.4090E-3
437.719E-6	4.67330E-12	216.937E-3	-26.8914E-3	4.80825E-12	208.859E-3	-21.6838E-3
432.716E-6	4.67387E-12	221.575E-3	-34.8846E-3	4.63468E-12	194.176E-3	-9.58918E-3
427.714E-6	4.50701E-12	221.107E-3	-33.6738E-3	4.54804E-12	211.628E-3	-1.06696E-3
422.711E-6	4.41598E-12	230.374E-3	-9.70321E-3	4.55755E-12	230.571E-3	-1.45690E-3
417.709E-6	4.38119E-12	229.820E-3	5.41812E-3	4.48198E-12	234.470E-3	-1.91019E-3
412.706E-6	4.36261E-12	229.179E-3	-8.77439E-3	4.26980E-12	223.479E-3	-1.28359E-3
407.704E-6	4.21873E-12	227.451E-3	-17.2028E-3	4.15134E-12	205.143E-3	-8.25325E-3
402.701E-6	4.09874E-12	216.016E-3	-17.5961E-3	4.06898E-12	205.931E-3	-14.0880E-3
397.699E-6	4.08370E-12	209.865E-3	-28.4741E-3	4.01134E-12	221.280E-3	-11.1279E-3
392.696E-6	3.94562E-12	214.272E-3	-37.5860E-3	3.89527E-12	232.028E-3	64.3137E-6
387.694E-6	3.87768E-12	216.885E-3	-25.3328E-3	3.78710E-12	235.820E-3	5.32173E-3
382.691E-6	3.80790E-12	209.612E-3	-14.6726E-3	3.67274E-12	223.371E-3	-14.6072E-3
377.689E-6	3.69686E-12	205.504E-3	-24.2379E-3	3.65348E-12	211.455E-3	-24.7615E-3
372.686E-6	3.64391E-12	216.173E-3	-28.4187E-3	3.68071E-12	220.911E-3	-18.8921E-3
367.684E-6	3.62487E-12	222.461E-3	-16.3557E-3	3.59478E-12	233.370E-3	-28.0828E-3
362.681E-6	3.56397E-12	219.019E-3	-7.18716E-3	3.35874E-12	236.663E-3	-28.3910E-3
357.679E-6	3.37392E-12	224.231E-3	-13.2048E-3	3.41342E-12	232.177E-3	-11.1461E-3
352.676E-6	3.37298E-12	227.471E-3	-22.1063E-3	3.44130E-12	224.845E-3	-9.68529E-3
347.674E-6	3.35093E-12	225.780E-3	-19.0838E-3	3.36000E-12	213.572E-3	-15.5927E-3
342.671E-6	3.20809E-12	228.340E-3	-9.47573E-3	3.20763E-12	201.776E-3	-8.82670E-3
337.669E-6	3.15783E-12	219.003E-3	-3.52331E-3	3.10150E-12	203.978E-3	-3.59539E-3
332.666E-6	3.07120E-12	212.574E-3	-587.236E-6	3.11231E-12	208.776E-3	-10.8553E-3
327.664E-6	2.95266E-12	224.274E-3	-6.30907E-3	3.10170E-12	206.343E-3	-26.2990E-3
322.661E-6	2.96212E-12	230.988E-3	-22.3623E-3	2.92730E-12	215.152E-3	-30.2744E-3
317.659E-6	2.92749E-12	228.676E-3	-33.6838E-3	2.74820E-12	222.151E-3	-11.8786E-3
312.656E-6	2.78960E-12	226.180E-3	-27.6331E-3	2.74644E-12	207.665E-3	1.52782E-3
307.654E-6	2.64653E-12	222.486E-3	-17.5437E-3	2.76301E-12	193.067E-3	-1.31195E-3
302.651E-6	2.67956E-12	220.021E-3	-15.5634E-3	2.59915E-12	183.515E-3	-5.32615E-3
297.649E-6	2.59436E-12	217.193E-3	-9.61163E-3	2.48649E-12	178.716E-3	-9.17562E-3
292.646E-6	2.46366E-12	203.609E-3	-6.84773E-3	2.46390E-12	196.934E-3	-16.2411E-3
287.644E-6	2.42366E-12	192.301E-3	-13.6260E-3	2.42730E-12	208.787E-3	-17.2563E-3
282.641E-6	2.37652E-12	203.445E-3	-13.0724E-3	2.38276E-12	199.177E-3	-17.3727E-3
277.639E-6	2.28476E-12	209.782E-3	-16.0385E-3	2.35440E-12	193.990E-3	-28.9337E-3
272.636E-6	2.28492E-12	198.093E-3	-30.2459E-3	2.17208E-12	191.743E-3	-32.8686E-3
267.634E-6	2.17070E-12	187.936E-3	-26.4313E-3	2.14141E-12	183.832E-3	-15.2131E-3
262.631E-6	2.00922E-12	175.029E-3	3.54364E-3	2.15194E-12	175.485E-3	2.68580E-6
257.629E-6	2.01646E-12	172.046E-3	15.9618E-3	2.11693E-12	174.267E-3	-7.80670E-3
252.626E-6	1.93811E-12	186.952E-3	-4.97378E-3	1.93486E-12	171.668E-3	-22.7357E-3
247.624E-6	1.85153E-12	190.417E-3	-23.2742E-3	1.84279E-12	164.964E-3	-27.2647E-3
242.621E-6	1.80626E-12	187.520E-3	-27.5453E-3	1.82879E-12	160.105E-3	-24.1470E-3
237.619E-6	1.78399E-12	191.269E-3	-28.6851E-3	1.87293E-12	153.387E-3	-11.1097E-3
232.616E-6	1.72495E-12	188.729E-3	-23.1206E-3	1.73659E-12	145.435E-3	-17.4819E-6
227.614E-6	1.67044E-12	183.301E-3	-15.1971E-3	1.62412E-12	145.462E-3	-8.03721E-3
222.611E-6	1.55706E-12	175.510E-3	-18.4439E-3	1.50299E-12	146.071E-3	-13.6564E-3
217.609E-6	1.52728E-12	162.099E-3	-20.2252E-3	1.52194E-12	139.417E-3	-2.88281E-3
212.606E-6	1.42774E-12	158.911E-3	-16.6006E-3	1.54981E-12	133.660E-3	2.65472E-3
207.604E-6	1.51635E-12	168.405E-3	-21.9894E-3	1.39737E-12	138.578E-3	-3.49385E-3
202.601E-6	1.41110E-12	177.513E-3	-24.4664E-3	1.29899E-12	150.309E-3	-5.06854E-3
197.599E-6	1.31509E-12	170.008E-3	-19.7026E-3	1.34127E-12	156.245E-3	-655.622E-6
192.596E-6	1.30212E-12	151.692E-3	-26.8052E-3	1.34119E-12	152.383E-3	-7.74964E-3
187.594E-6	1.24269E-12	141.587E-3	-29.7697E-3	1.20769E-12	141.381E-3	-24.4888E-3
182.591E-6	1.23647E-12	139.001E-3	-14.9901E-3	1.09692E-12	128.639E-3	-29.7368E-3
177.589E-6	1.11795E-12	144.695E-3	-10.0588E-3	1.06189E-12	121.396E-3	-30.0374E-3
172.586E-6	1.02017E-12	149.355E-3	-9.21242E-3	1.15239E-12	122.373E-3	-28.6090E-3
167.584E-6	1.03587E-12	144.787E-3	2.97842E-3	1.06246E-12	125.682E-3	-19.1414E-3
162.581E-6	997.469E-15	148.317E-3	5.92571E-3	925.910E-15	122.307E-3	-10.7074E-3
157.579E-6	928.125E-15	151.312E-3	-796.849E-6	859.242E-15	114.582E-3	-11.6761E-3
152.576E-6	852.179E-15	140.680E-3	-12.3266E-3	827.242E-15	107.855E-3	-17.1500E-3
147.574E-6	786.881E-15	129.761E-3	-27.7485E-3	906.082E-15	106.276E-3	-27.7578E-3
142.571E-6	838.891E-15	118.408E-3	-25.8326E-3	836.476E-15	112.896E-3	-33.8685E-3
137.569E-6	784.614E-15	111.215E-3	-15.5985E-3	718.818E-15	116.994E-3	-21.9631E-3
132.566E-6	692.320E-15	118.640E-3	-19.6712E-3	653.013E-15	107.240E-3	-16.7817E-3
127.564E-6	681.525E-15	112.935E-3	-24.3664E-3	706.314E-15	96.7740E-3	-23.3905E-3
122.561E-6	626.515E-15	85.7294E-3	-26.6898E-3	693.706E-15	104.449E-3	-29.5574E-3
117.559E-6	685.536E-15	77.1197E-3	-25.6873E-3	650.397E-15	112.566E-3	-34.6369E-3
112.556E-6	627.361E-15	94.4489E-3	-9.75465E-3	511.882E-15	106.359E-3	-31.2143E-3
107.554E-6	536.035E-15	114.427E-3	-1.82989E-3	506.267E-15	103.315E-3	-21.3007E-3
102.551E-6	459.994E-15	119.389E-3	-9.09680E-3	550.326E-15	106.943E-3	-24.2362E-3
97.5488E-6	502.753E-15	112.632E-3	-15.7295E-3	490.904E-15	105.758E-3	-28.8303E-3
92.5463E-6	505.291E-15	103.624E-3	-24.1128E-3	434.690E-15	101.187E-3	-19.7550E-3
87.5438E-6	406.998E-15	94.6180E-3	-23.8423E-3	342.571E-15	95.9419E-3	-12.0074E-3
82.5413E-6	355.353E-15	92.8085E-3	-15.0250E-3	417.225E-15	89.0991E-3	-17.8142E-3
77.5388E-6	330.460E-15	91.4521E-3	-17.3445E-3	412.020E-15	92.0562E-3	-30.4658E-3
72.5363E-6	341.429E-15	90.7538E-3	-27.3068E-3	293.272E-15	100.278E-3	-32.5044E-3
67.5338E-6	272.572E-15	98.8255E-3	-30.5565E-3	165.534E-15	96.9465E-3	-27.5411E-3
62.5313E-6	253.643E-15	104.421E-3	-28.5341E-3	206.933E-15	87.5444E-3	-18.2962E-3
57.5288E-6	116.924E-15	100.198E-3	-24.9963E-3	291.798E-15	83.2108E-3	-9.62748E-3
52.5263E-6	170.452E-15	100.730E-3	-24.2666E-3	275.537E-15	90.1949E-3	-13.6206E-3
47.5238E-6	207.055E-15	103.116E-3	-25.2104E-3	122.199E-15	96.3062E-3	-16.0957E-3
42.5213E-6	116.558E-15	93.2612E-3	-14.3905E-3	68.3922E-15	86.1716E-3	-10.1269E-3
37.5188E-6	90.3735E-15	80.3420E-3	-8.09400E-3	113.157E-15	75.5685E-3	-7.49338E-3
32.5163E-6	49.6195E-15	78.0206E-3	-14.1942E-3	100.174E-15	75.9878E-3	-9.98362E-3
27.5138E-6	27.1585E-15	82.7933E-3	-24.7927E-3	16.3728E-15	82.6278E-3	-14.4483E-3
22.5113E-6	49.3230E-15	86.7812E-3	-32.5738E-3	-32.4379E-15	93.7268E-3	-13.7929E-3
17.5088E-6	-60.8890E-15	95.6387E-3	-17.4486E-3	-14.5110E-15	102.618E-3	-5.30981E-3
12.5063E-6	-94.7287E-15	92.7318E-3	-1.89068E-3	-9.58462E-15	97.5746E-3	-9.78738E-3
7.50375E-6	-72.7735E-15	79.0912E-3	-10.7617E-3	-66.6263E-15	83.6549E-3	-29.1570E-3
2.50125E-6	-95.8535E-15	81.1227E-3	-23.0877E-3	-121.200E-15	78.5762E-3	-36.8506E-3
-2.50125E-6	-197.425E-15	84.3136E-3	-23.7069E-3	-225.841E-15	91.4247E-3	-37.5622E-3
-7.50375E-6	-175.731E-15	81.6199E-3	-17.3862E-3	-216.494E-15	109.459E-3	-35.1494E-3
-12.5063E-6	-227.559E-15	82.5978E-3	-13.4491E-3	-167.003E-15	115.630E-3	-25.1780E-3
-17.5088E-6	-193.274E-15	85.8999E-3	-8.05937E-3	-208.036E-15	112.693E-3	-19.3671E-3
-22.5113E-6	-236.086E-15	89.9683E-3	-1.03115E-3	-329.766E-15	107.165E-3	-17.6448E-3
-27.5138E-6	-317.655E-15	94.5053E-3	-2.40688E-3	-370.433E-15	99.7304E-3	-12.4166E-3
-32.5163E-6	-352.192E-15	96.8253E-3	-5.99788E-3	-326.392E-15	91.7722E-3	-125.087E-6
-37.5188E-6	-361.016E-15	93.5580E-3	-1.60934E-3	-320.646E-15	87.9063E-3	-5.98676E-3
-42.5213E-6	-370.634E-15	89.7891E-3	-1.79143E-3	-443.893E-15	93.4151E-3	-27.6119E-3
-47.5238E-6	-449.840E-15	89.8078E-3	-10.7045E-3	-571.797E-15	101.394E-3	-26.1159E-3
-52.5263E-6	-506.655E-15	90.0183E-3	-16.0078E-3	-475.274E-15	113.238E-3	-12.9727E-3
-57.5288E-6	-559.171E-15	95.4693E-3	-17.0019E-3	-479.102E-15	125.303E-3	-6.44495E-3
-62.5313E-6	-575.250E-15	112.116E-3	-14.3830E-3	-514.276E-15	125.217E-3	581.534E-6
-67.5338E-6	-563.252E-15	116.298E-3	-14.0380E-3	-710.495E-15	125.411E-3	1.76651E-3
-72.5363E-6	-616.387E-15	109.353E-3	-19.0656E-3	-712.082E-15	124.034E-3	-16.2225E-3
-77.5388E-6	-757.937E-15	109.383E-3	-24.8488E-3	-624.514E-15	116.645E-3	-32.0315E-3
-82.5413E-6	-695.629E-15	102.205E-3	-26.6160E-3	-714.532E-15	124.445E-3	-28.6076E-3
-87.5438E-6	-745.887E-15	102.816E-3	-22.8853E-3	-813.644E-15	140.318E-3	-25.2909E-3
-92.5463E-6	-807.375E-15	118.550E-3	-19.0125E-3	-871.820E-15	143.342E-3	-28.0122E-3
-97.5488E-6	-915.625E-15	128.411E-3	-21.0160E-3	-889.668E-15	148.114E-3	-29.9798E-3
-102.551E-6	-958.795E-15	131.831E-3	-23.0622E-3	-860.441E-15	165.763E-3	-21.8832E-3
-107.554E-6	-935.662E-15	136.728E-3	-18.4515E-3	-981.282E-15	170.228E-3	-8.85395E-3
-112.556E-6	-960.085E-15	138.506E-3	-11.0697E-3	-1.05174E-12	155.972E-3	-5.67168E-3
-117.559E-6	-1.06822E-12	132.626E-3	-3.32421E-3	-1.09991E-12	151.927E-3	-9.95774E-3
-122.561E-6	-1.14254E-12	121.358E-3	1.01624E-3	-1.13924E-12	161.051E-3	-17.4991E-3
-127.564E-6	-1.19561E-12	114.291E-3	-10.9522E-3	-1.11572E-12	168.175E-3	-21.2592E-3
-132.566E-6	-1.18754E-12	127.008E-3	-27.0267E-3	-1.18980E-12	169.846E-3	-14.4842E-3
-137.569E-6	-1.24468E-12	148.030E-3	-18.9220E-3	-1.37476E-12	170.600E-3	-8.61982E-3
-142.571E-6	-1.38102E-12	159.198E-3	-7.32050E-3	-1.43417E-12	183.303E-3	-15.9738E-3
-147.574E-6	-1.44683E-12	171.099E-3	-21.1294E-3	-1.38658E-12	193.485E-3	-30.5133E-3
-152.576E-6	-1.48208E-12	183.587E-3	-34.7022E-3	-1.42912E-12	194.452E-3	-34.9455E-3
-157.579E-6	-1.49463E-12	180.404E-3	-22.0512E-3	-1.52581E-12	208.375E-3	-21.3481E-3
-162.581E-6	-1.61047E-12	176.048E-3	-10.1019E-3	-1.68857E-12	230.659E-3	-11.2390E-3
-167.584E-6	-1.71684E-12	192.026E-3	-13.5025E-3	-1.71839E-12	237.102E-3	-18.6112E-3
-172.586E-6	-1.76495E-12	215.316E-3	-17.1420E-3	-1.73107E-12	219.244E-3	-23.9400E-3
-177.589E-6	-1.85432E-12	216.148E-3	-19.2026E-3	-1.82378E-12	218.321E-3	-20.0831E-3
-182.591E-6	-1.86305E-12	206.414E-3	-23.6470E-3	-2.02361E-12	240.463E-3	-22.5012E-3
-187.594E-6	-2.00403E-12	209.480E-3	-23.4142E-3	-2.08221E-12	244.914E-3	-21.6066E-3
-192.596E-6	-2.10984E-12	218.123E-3	-15.8974E-3	-2.07670E-12	246.252E-3	-15.8594E-3
-197.599E-6	-2.15010E-12	233.184E-3	-10.3686E-3	-2.14705E-12	258.826E-3	-19.1306E-3
-202.601E-6	-2.23018E-12	242.533E-3	-4.09317E-3	-2.28198E-12	265.651E-3	-18.6163E-3
-207.604E-6	-2.39603E-12	236.812E-3	-773.978E-6	-2.41653E-12	270.480E-3	-14.9665E-3
-212.606E-6	-2.45041E-12	234.245E-3	-6.59252E-3	-2.46482E-12	284.570E-3	-17.3895E-3
-217.609E-6	-2.59307E-12	242.227E-3	-14.6718E-3	-2.48601E-12	293.949E-3	-17.7812E-3
-222.611E-6	-2.65405E-12	255.626E-3	-20.2653E-3	-2.63009E-12	292.445E-3	-25.8916E-3
-227.614E-6	-2.67836E-12	276.221E-3	-25.3888E-3	-2.77591E-12	297.113E-3	-31.7674E-3
-232.616E-6	-2.90238E-12	292.446E-3	-18.8254E-3	-2.83375E-12	314.978E-3	-18.0882E-3
-237.619E-6	-2.92239E-12	293.419E-3	-8.19076E-3	-2.84229E-12	330.643E-3	-8.99901E-3
-242.621E-6	-2.97590E-12	293.959E-3	-12.3029E-3	-3.00542E-12	335.940E-3	-7.90713E-3
-247.624E-6	-3.10306E-12	307.648E-3	-10.0783E-3	-3.13860E-12	337.509E-3	-9.40459E-3
-252.626E-6	-3.18853E-12	315.011E-3	-670.689E-6	-3.28677E-12	344.314E-3	-14.3724E-3
-257.629E-6	-3.35292E-12	311.424E-3	-5.61932E-3	-3.37873E-12	348.664E-3	-12.1949E-3
-262.631E-6	-3.41400E-12	326.906E-3	-3.39724E-3	-3.45255E-12	344.946E-3	-4.79063E-3
-267.634E-6	-3.46434E-12	342.830E-3	16.6489E-3	-3.47832E-12	346.792E-3	-155.858E-6
-272.636E-6	-3.63947E-12	341.865E-3	12.8052E-3	-3.63666E-12	357.662E-3	-6.98339E-3
-277.639E-6	-3.76214E-12	339.721E-3	-12.6627E-3	-3.85823E-12	362.825E-3	-17.7131E-3
-282.641E-6	-3.81840E-12	331.963E-3	-22.0470E-3	-3.86261E-12	353.038E-3	-15.8779E-3
-287.644E-6	-3.98074E-12	330.576E-3	-19.4138E-3	-3.93680E-12	354.729E-3	-11.6215E-3
-292.646E-6	-4.08215E-12	344.846E-3	-12.9263E-3	-4.13290E-12	382.977E-3	-16.8338E-3
-297.649E-6	-4.23445E-12	354.632E-3	-10.4814E-3	-4.27613E-12	404.508E-3	-19.6600E-3
-302.651E-6	-4.37236E-12	354.900E-3	-28.9895E-3	-4.38592E-12	406.347E-3	-11.4152E-3
-307.654E-6	-4.56887E-12	355.159E-3	-42.9807E-3	-4.45071E-12	406.508E-3	-4.03767E-3
-312.656E-6	-4.66399E-12	363.213E-3	-22.4973E-3	-4.54449E-12	401.785E-3	-1.01898E-3
-317.659E-6	-4.77566E-12	374.950E-3	-9.33990E-3	-4.82106E-12	395.473E-3	-3.97263E-3
-322.661E-6	-4.90116E-12	384.182E-3	-24.3722E-3	-4.96028E-12	401.660E-3	-14.8944E-3
-327.664E-6	-5.08011E-12	389.121E-3	-27.0638E-3	-4.95391E-12	413.212E-3	-24.0731E-3
-332.666E-6	-5.17701E-12	387.370E-3	-11.0852E-3	-5.11710E-12	422.409E-3	-27.3084E-3
-337.669E-6	-5.23630E-12	389.988E-3	1.64232E-3	-5.32648E-12	423.227E-3	-24.2858E-3
-342.671E-6	-5.39867E-12	399.153E-3	-3.46728E-3	-5.50637E-12	407.806E-3	-23.6955E-3
-347.674E-6	-5.58964E-12	402.587E-3	-17.1833E-3	-5.57403E-12	396.930E-3	-22.0395E-3
-352.676E-6	-5.63633E-12	401.349E-3	-22.5022E-3	-5.59802E-12	409.112E-3	-19.6073E-3
-357.679E-6	-5.70265E-12	401.172E-3	-19.8952E-3	-5.71577E-12	420.821E-3	-28.4101E-3
-362.681E-6	-5.82969E-12	402.689E-3	-14.9666E-3	-5.89927E-12	415.440E-3	-31.4860E-3
-367.684E-6	-5.93100E-12	411.592E-3	-17.2945E-3	-6.02813E-12	405.862E-3	-21.4849E-3
-372.686E-6	-6.19552E-12	411.891E-3	-22.9193E-3	-6.14854E-12	406.366E-3	-18.0577E-3
-377.689E-6	-6.44033E-12	399.026E-3	-20.3670E-3	-6.19345E-12	417.552E-3	-24.3521E-3
-382.691E-6	-6.38626E-12	411.272E-3	-16.7443E-3	-6.34490E-12	426.957E-3	-26.0740E-3
-387.694E-6	-6.63465E-12	429.830E-3	-16.8078E-3	-6.66671E-12	428.769E-3	-16.9567E-3
-392.696E-6	-6.93673E-12	425.940E-3	-16.0052E-3	-6.78210E-12	421.170E-3	-6.79073E-3
-397.699E-6	-6.98411E-12	428.825E-3	-21.8485E-3	-6.90916E-12	412.705E-3	-5.44178E-3
-402.701E-6	-6.99703E-12	433.346E-3	-19.6125E-3	-7.07962E-12	418.901E-3	-10.4099E-3
-407.704E-6	-7.33280E-12	421.108E-3	-7.35198E-3	-7.21754E-12	429.353E-3	-13.0962E-3
-412.706E-6	-7.48963E-12	413.288E-3	-9.78414E-3	-7.43037E-12	426.236E-3	-14.1553E-3
-417.709E-6	-7.51425E-12	421.980E-3	-14.1755E-3	-7.58308E-12	417.081E-3	-25.2038E-3
-422.711E-6	-7.65956E-12	424.633E-3	-17.5325E-3	-7.67319E-12	413.664E-3	-25.7816E-3
-427.714E-6	-7.96370E-12	421.275E-3	-31.4642E-3	-7.74532E-12	410.618E-3	-11.1208E-3
-432.716E-6	-7.85108E-12	429.323E-3	-28.9422E-3	-8.02575E-12	404.712E-3	-9.89675E-3
-437.719E-6	-7.91832E-12	431.548E-3	-1.60205E-3	-8.13013E-12	397.543E-3	-10.2222E-3
-442.721E-6	-8.15382E-12	427.308E-3	7.05655E-3	-8.17358E-12	398.251E-3	-2.16532E-3
-447.724E-6	-8.13246E-12	436.233E-3	-11.5100E-3	-8.17487E-12	405.258E-3	-9.00637E-3
-452.726E-6	-8.18116E-12	439.580E-3	-23.5947E-3	-8.52088E-12	398.742E-3	-22.5848E-3
-457.729E-6	-8.32404E-12	423.392E-3	-15.4033E-3	-8.68105E-12	393.400E-3	-24.7625E-3
-462.731E-6	-8.55463E-12	416.203E-3	-1.92514E-3	-8.63380E-12	396.105E-3	-17.2161E-3
-467.734E-6	-8.66263E-12	413.223E-3	-3.68383E-3	-8.56992E-12	390.950E-3	-7.54678E-3
-472.736E-6	-8.84659E-12	398.518E-3	-13.4716E-3	-8.77283E-12	384.663E-3	-4.48834E-3
-477.739E-6	-8.86475E-12	398.810E-3	-22.5708E-3	-9.03508E-12	382.538E-3	-3.43057E-3
-482.741E-6	-9.13711E-12	407.936E-3	-24.6029E-3	-9.07763E-12	384.222E-3	-4.59648E-3
-487.744E-6	-9.43195E-12	394.102E-3	-8.38041E-3	-9.28123E-12	381.592E-3	-10.7097E-3
-492.746E-6	-9.55250E-12	384.080E-3	82.8246E-6	-9.41212E-12	375.609E-3	-18.3275E-3
-497.749E-6	-9.72777E-12	396.619E-3	-9.53319E-3	-9.71240E-12	376.784E-3	-24.3033E-3
-502.751E-6	-9.96318E-12	402.930E-3	-17.9335E-3	-9.96393E-12	372.963E-3	-30.2516E-3
-507.754E-6	-10.0949E-12	399.007E-3	-20.9478E-3	-10.0168E-12	363.058E-3	-32.3217E-3
-512.756E-6	-10.1066E-12	386.945E-3	-21.9889E-3	-10.2526E-12	360.811E-3	-19.1283E-3
-517.759E-6	-10.1279E-12	370.508E-3	-25.5043E-3	-10.2545E-12	358.003E-3	-9.21317E-3
-522.761E-6	-10.4324E-12	367.444E-3	-31.3042E-3	-10.3100E-12	354.674E-3	-17.4585E-3
-527.764E-6	-10.5474E-12	366.017E-3	-29.9546E-3	-10.5446E-12	350.161E-3	-24.2772E-3
-532.766E-6	-10.4064E-12	359.530E-3	-20.7661E-3	-10.6329E-12	342.099E-3	-16.0867E-3
-537.769E-6	-10.5104E-12	354.086E-3	-21.0814E-3	-10.4827E-12	339.116E-3	-10.5533E-3
-542.771E-6	-10.6811E-12	343.301E-3	-18.5580E-3	-10.6881E-12	330.721E-3	-20.6766E-3
-547.774E-6	-10.6553E-12	328.961E-3	-10.3032E-3	-10.8649E-12	314.428E-3	-25.5827E-3
-552.776E-6	-10.6162E-12	318.331E-3	-15.9695E-3	-10.7721E-12	304.581E-3	-23.7168E-3
-557.779E-6	-10.7719E-12	318.637E-3	-21.8323E-3	-10.7376E-12	298.013E-3	-26.6799E-3
-562.781E-6	-11.0851E-12	320.266E-3	-9.56734E-3	-10.8382E-12	289.382E-3	-27.9796E-3
-567.784E-6	-11.2442E-12	319.227E-3	1.67167E-3	-11.0063E-12	294.563E-3	-21.0506E-3
-572.786E-6	-11.3162E-12	326.837E-3	-5.26679E-3	-11.2408E-12	309.307E-3	-18.4902E-3
-577.789E-6	-11.5923E-12	324.228E-3	-16.6182E-3	-11.3680E-12	304.790E-3	-27.2817E-3
-582.791E-6	-11.7334E-12	305.599E-3	-28.5249E-3	-11.3634E-12	279.433E-3	-25.0379E-3
-587.794E-6	-11.8802E-12	296.323E-3	-26.8430E-3	-11.6402E-12	260.599E-3	-14.8626E-3
-592.796E-6	-11.9724E-12	293.901E-3	-2.60621E-3	-11.8220E-12	257.568E-3	-4.27407E-3
-597.799E-6	-12.0775E-12	291.549E-3	633.057E-6	-11.9250E-12	259.679E-3	3.32271E-3
-602.801E-6	-12.2098E-12	292.801E-3	-21.9876E-3	-12.0877E-12	256.532E-3	-3.59355E-3
-607.804E-6	-12.2343E-12	282.017E-3	-22.7595E-3	-12.2597E-12	242.788E-3	-13.9763E-3
-612.806E-6	-12.2012E-12	271.467E-3	-5.11822E-3	-12.2622E-12	222.090E-3	-14.7551E-3
-617.809E-6	-12.3539E-12	269.079E-3	-3.70590E-3	-12.3113E-12	207.128E-3	-10.1498E-3
-622.811E-6	-12.4852E-12	253.865E-3	-12.1579E-3	-12.3846E-12	198.070E-3	-16.9483E-3
-627.814E-6	-12.4267E-12	235.821E-3	-11.0186E-3	-12.2822E-12	198.041E-3	-36.4211E-3
-632.816E-6	-12.2883E-12	239.013E-3	-16.3235E-3	-12.3191E-12	211.708E-3	-37.0436E-3
-637.819E-6	-12.5796E-12	253.213E-3	-23.6406E-3	-12.5126E-12	217.907E-3	-23.0943E-3
-642.821E-6	-12.6648E-12	244.653E-3	-20.6787E-3	-12.5897E-12	209.763E-3	-23.4576E-3
-647.824E-6	-12.5730E-12	213.732E-3	-26.7153E-3	-12.4250E-12	199.978E-3	-30.8535E-3
-652.826E-6	-12.7619E-12	192.648E-3	-29.4063E-3	-12.4837E-12	178.547E-3	-39.6699E-3
-657.829E-6	-12.9849E-12	194.020E-3	-27.6479E-3	-12.6675E-12	150.613E-3	-44.0490E-3
-662.831E-6	-13.1107E-12	208.475E-3	-37.6849E-3	-12.7066E-12	145.950E-3	-33.6205E-3
-667.834E-6	-13.0080E-12	221.925E-3	-41.1821E-3	-12.6730E-12	151.496E-3	-14.4605E-3
-672.836E-6	-13.0845E-12	213.434E-3	-32.1208E-3	-12.7983E-12	145.095E-3	2.45721E-3
-677.839E-6	-13.3944E-12	192.701E-3	-18.5345E-3	-12.7681E-12	137.227E-3	5.84010E-3
-682.841E-6	-13.2727E-12	190.527E-3	-10.3458E-3	-12.9008E-12	135.663E-3	-7.85209E-3
-687.844E-6	-13.2399E-12	192.744E-3	-13.6877E-3	-13.1245E-12	137.363E-3	-18.6703E-3
-692.846E-6	-13.6055E-12	182.258E-3	-19.1127E-3	-13.0221E-12	140.026E-3	-10.6010E-3
-697.849E-6	-13.2235E-12	176.006E-3	-15.8462E-3	-13.0319E-12	138.885E-3	-2.92278E-3
-702.851E-6	-13.2346E-12	165.712E-3	-11.2003E-3	-13.2546E-12	134.869E-3	-10.7788E-3
-707.854E-6	-13.5014E-12	149.692E-3	-10.7765E-3	-13.3488E-12	130.959E-3	-12.8891E-3
-712.856E-6	-13.3326E-12	152.707E-3	-5.63275E-3	-13.3265E-12	128.530E-3	-3.31687E-3
-717.859E-6	-13.4173E-12	157.793E-3	-7.92850E-3	-13.4397E-12	122.578E-3	-4.26598E-3
-722.861E-6	-13.7312E-12	147.911E-3	-19.2228E-3	-13.5189E-12	116.964E-3	-10.6090E-3
-727.864E-6	-13.7502E-12	139.442E-3	-21.4304E-3	-13.6285E-12	120.399E-3	-19.0454E-3
-732.866E-6	-13.6496E-12	136.294E-3	-11.9521E-3	-13.6685E-12	116.515E-3	-32.0639E-3
-737.869E-6	-13.8100E-12	126.880E-3	-6.61218E-3	-13.5466E-12	111.668E-3	-23.7992E-3
-742.871E-6	-14.1618E-12	115.820E-3	-3.85425E-3	-13.5010E-12	115.540E-3	-8.91905E-3
-747.874E-6	-13.8906E-12	116.468E-3	3.11634E-3	-13.6766E-12	107.520E-3	-10.7205E-3
-752.876E-6	-13.9285E-12	112.353E-3	-3.93052E-3	-13.6763E-12	97.4267E-3	-5.70934E-3
-757.879E-6	-14.1716E-12	105.194E-3	-22.5489E-3	-13.9223E-12	101.901E-3	1.78818E-3
-762.881E-6	-13.9922E-12	119.052E-3	-23.0902E-3	-13.8656E-12	93.6800E-3	-8.28493E-3
-767.884E-6	-13.9769E-12	135.675E-3	-7.80091E-3	-13.8932E-12	81.4437E-3	-19.6575E-3
-772.886E-6	-14.0914E-12	135.219E-3	-10.0261E-3	-13.9069E-12	91.8854E-3	-14.6306E-3
-777.889E-6	-13.9700E-12	120.788E-3	-17.4387E-3	-14.0550E-12	98.3717E-3	-8.86489E-3
-782.891E-6	-14.1042E-12	101.771E-3	-13.0176E-3	-13.9244E-12	100.188E-3	-11.7143E-3
-787.894E-6	-13.9455E-12	98.7216E-3	-9.62826E-3	-13.9372E-12	104.374E-3	-18.5706E-3
-792.896E-6	-13.9274E-12	109.364E-3	-14.7078E-3	-14.0664E-12	101.493E-3	-30.5025E-3
-797.899E-6	-14.2289E-12	109.056E-3	-24.7920E-3	-14.1083E-12	92.4708E-3	-30.9512E-3
-802.901E-6	-14.0727E-12	100.972E-3	-30.9295E-3	-14.0238E-12	81.7197E-3	-19.2408E-3
-807.904E-6	-14.1289E-12	96.3407E-3	-27.5612E-3	-14.1470E-12	85.0986E-3	-11.0892E-3
-812.906E-6	-14.2633E-12	94.5107E-3	-15.8937E-3	-14.2017E-12	93.6846E-3	-9.17729E-3
-817.909E-6	-14.3242E-12	93.4359E-3	-13.4154E-3	-14.1075E-12	98.5570E-3	-13.4864E-3
-822.911E-6	-14.4937E-12	92.9059E-3	-28.5575E-3	-14.2062E-12	102.322E-3	-19.5151E-3
-827.914E-6	-14.6589E-12	92.4217E-3	-44.8995E-3	-14.1837E-12	91.4504E-3	-18.9926E-3
-832.916E-6	-14.4452E-12	89.8460E-3	-37.4955E-3	-14.0887E-12	79.8824E-3	-11.7234E-3
-837.919E-6	-14.7104E-12	84.1791E-3	-18.2015E-3	-14.4446E-12	78.5772E-3	-8.93141E-3
-842.921E-6	-14.6011E-12	86.5198E-3	-7.51746E-3	-14.8498E-12	66.7539E-3	-11.2311E-3
-847.924E-6	-14.5902E-12	93.3509E-3	-3.29907E-3	-14.5759E-12	49.5297E-3	-15.8792E-3
-852.926E-6	-14.5624E-12	83.6818E-3	-7.36494E-3	-14.4599E-12	54.7471E-3	-20.6335E-3
-857.929E-6	-14.6156E-12	76.0886E-3	-14.6662E-3	-14.7322E-12	70.3516E-3	-20.3783E-3
-862.931E-6	-14.5642E-12	89.5298E-3	-20.4384E-3	-14.8129E-12	75.4413E-3	-17.6873E-3
-867.934E-6	-14.5994E-12	92.2173E-3	-17.2214E-3	-14.7176E-12	82.1390E-3	-20.4035E-3
-872.936E-6	-14.4191E-12	80.4095E-3	-12.3139E-3	-14.6868E-12	89.3973E-3	-22.4015E-3
-877.939E-6	-14.3562E-12	74.7614E-3	-20.1344E-3	-14.6841E-12	93.3726E-3	-19.8384E-3
-882.941E-6	-14.4558E-12	75.6076E-3	-21.4230E-3	-14.5010E-12	89.9238E-3	-18.1133E-3
-887.944E-6	-14.5102E-12	75.4990E-3	-11.4356E-3	-14.4346E-12	80.6879E-3	-17.8949E-3
-892.946E-6	-14.5184E-12	74.2468E-3	-6.76690E-3	-14.5631E-12	82.0391E-3	-22.9283E-3
-897.949E-6	-14.5399E-12	76.4873E-3	-9.70632E-3	-14.4160E-12	88.8674E-3	-23.9174E-3
-902.951E-6	-14.5791E-12	75.2725E-3	-11.4522E-3	-14.4242E-12	86.5007E-3	-21.9195E-3
-907.954E-6	-14.7851E-12	69.9942E-3	-5.61460E-3	-14.4559E-12	80.0460E-3	-20.8009E-3
-912.956E-6	-14.7294E-12	73.6864E-3	10.8963E-3	-14.7679E-12	84.9078E-3	-13.6111E-3
-917.959E-6	-14.8688E-12	87.4250E-3	23.7617E-3	-14.7663E-12	90.1004E-3	-9.40557E-3
-922.961E-6	-15.1221E-12	98.3495E-3	12.9423E-3	-14.5189E-12	83.0997E-3	-8.66528E-3
-927.964E-6	-15.1204E-12	95.4032E-3	-10.7979E-3	-14.8549E-12	86.9586E-3	-9.19255E-3
-932.966E-6	-14.8096E-12	83.9213E-3	-26.7714E-3	-15.0429E-12	103.041E-3	-18.5719E-3
-937.969E-6	-15.0539E-12	77.9159E-3	-24.5623E-3	-14.9108E-12	107.240E-3	-27.6676E-3
-942.971E-6	-15.0944E-12	82.9370E-3	-10.0310E-3	-15.1852E-12	98.7178E-3	-23.5468E-3
-947.974E-6	-14.9125E-12	96.7562E-3	-1.60743E-3	-15.3026E-12	89.8630E-3	-16.7010E-3
-952.976E-6	-14.9007E-12	105.673E-3	-3.17559E-3	-15.1092E-12	86.5427E-3	-18.3196E-3
-957.979E-6	-14.9486E-12	111.779E-3	-11.6949E-3	-15.1829E-12	87.9383E-3	-22.0355E-3
-962.981E-6	-14.8354E-12	123.436E-3	-19.3740E-3	-15.2156E-12	97.7894E-3	-28.5249E-3
-967.984E-6	-14.7728E-12	124.453E-3	-22.2098E-3	-15.1215E-12	109.450E-3	-27.3499E-3
-972.986E-6	-14.8190E-12	113.467E-3	-29.4931E-3	-15.1573E-12	115.721E-3	-14.5230E-3
-977.989E-6	-14.8467E-12	105.572E-3	-39.6948E-3	-15.2920E-12	121.273E-3	-10.0691E-3
-982.991E-6	-14.9411E-12	109.088E-3	-33.6554E-3	-15.1963E-12	131.077E-3	-14.2508E-3
-987.994E-6	-15.1179E-12	113.874E-3	-18.7297E-3	-15.2125E-12	137.554E-3	-22.1704E-3
-992.997E-6	-15.1644E-12	114.952E-3	-21.9128E-3	-15.2337E-12	137.630E-3	-26.2123E-3
-997.999E-6	-15.1637E-12	120.574E-3	-33.0224E-3	-15.4337E-12	136.114E-3	-12.5858E-3
-1.00300E-3	-15.3696E-12	123.271E-3	-33.1776E-3	-15.3990E-12	131.493E-3	42.1925E-6
-1.00800E-3	-15.7031E-12	127.119E-3	-25.7107E-3	-15.4054E-12	141.199E-3	-7.13246E-3
-1.01301E-3	-15.7098E-12	135.653E-3	-24.0981E-3	-15.4189E-12	162.342E-3	-8.60091E-3
-1.01801E-3	-15.6625E-12	139.863E-3	-29.3631E-3	-15.3619E-12	170.604E-3	-5.05750E-3
-1.02301E-3	-15.7235E-12	143.374E-3	-30.8271E-3	-15.4349E-12	166.525E-3	-13.2330E-3
-1.02801E-3	-15.7844E-12	140.572E-3	-24.1341E-3	-15.5788E-12	162.524E-3	-17.3411E-3
-1.03302E-3	-15.7585E-12	140.420E-3	-11.7511E-3	-15.7163E-12	175.180E-3	-12.1139E-3
-1.03802E-3	-15.8127E-12	156.197E-3	-7.60742E-3	-15.8315E-12	196.306E-3	-9.38965E-3
-1.04302E-3	-15.7994E-12	174.045E-3	-12.1994E-3	-15.8725E-12	205.182E-3	-4.23458E-3
-1.04802E-3	-15.8517E-12	178.202E-3	-18.6804E-3	-16.0855E-12	209.404E-3	9.44199E-3
-1.05303E-3	-15.9284E-12	174.470E-3	-24.5826E-3	-16.1716E-12	222.536E-3	9.69574E-3
-1.05803E-3	-16.1150E-12	181.031E-3	-29.7828E-3	-16.1296E-12	241.579E-3	-6.90069E-3
-1.06303E-3	-15.9669E-12	189.047E-3	-36.2797E-3	-16.1215E-12	249.180E-3	-16.5331E-3
-1.06803E-3	-15.9576E-12	199.391E-3	-26.3048E-3	-16.2195E-12	246.246E-3	-13.8853E-3
-1.07304E-3	-16.3735E-12	216.732E-3	-7.97588E-3	-16.3607E-12	252.906E-3	-16.6077E-3
-1.07804E-3	-16.5057E-12	220.442E-3	-9.57828E-3	-16.3092E-12	265.649E-3	-20.4824E-3
-1.08304E-3	-16.4573E-12	217.068E-3	-22.2313E-3	-16.3094E-12	272.473E-3	-10.7693E-3
-1.08804E-3	-16.5748E-12	227.429E-3	-26.0695E-3	-16.3770E-12	277.257E-3	887.686E-6
-1.09305E-3	-16.7797E-12	239.856E-3	-24.8151E-3	-16.4789E-12	283.279E-3	2.11433E-3
-1.09805E-3	-16.8827E-12	249.653E-3	-26.8934E-3	-16.6324E-12	287.282E-3	-2.28338E-3
-1.10305E-3	-16.9895E-12	263.636E-3	-30.8040E-3	-16.5624E-12	293.213E-3	-2.54422E-3
-1.10805E-3	-17.1051E-12	273.420E-3	-33.5905E-3	-16.6534E-12	308.012E-3	-4.30010E-3
-1.11306E-3	-17.3711E-12	286.743E-3	-30.2819E-3	-17.1198E-12	320.867E-3	-11.2121E-3
-1.11806E-3	-17.1616E-12	298.938E-3	-21.4487E-3	-17.1376E-12	336.010E-3	-16.4596E-3
-1.12306E-3	-17.2160E-12	305.848E-3	-18.6876E-3	-17.1567E-12	355.210E-3	-18.6501E-3
-1.12806E-3	-17.5448E-12	306.045E-3	-20.7670E-3	-17.3723E-12	368.787E-3	-20.5611E-3
-1.13307E-3	-17.3111E-12	299.779E-3	-11.7490E-3	-17.4588E-12	387.484E-3	-25.9492E-3
-1.13807E-3	-17.4112E-12	312.839E-3	-1.04467E-3	-17.6044E-12	399.084E-3	-27.1808E-3
-1.14307E-3	-17.6753E-12	343.185E-3	-2.80369E-3	-18.0854E-12	396.320E-3	-14.7907E-3
-1.14807E-3	-17.8792E-12	366.810E-3	-7.37329E-3	-18.1218E-12	405.384E-3	-9.65357E-3
-1.15308E-3	-17.8670E-12	376.271E-3	-7.38989E-3	-18.0364E-12	424.094E-3	-19.9502E-3
-1.15808E-3	-18.2493E-12	383.847E-3	-8.96912E-3	-18.3941E-12	436.021E-3	-21.9075E-3
-1.16308E-3	-18.4680E-12	405.636E-3	-25.7887E-3	-18.6338E-12	458.444E-3	-18.9153E-3
-1.16808E-3	-18.5171E-12	421.352E-3	-41.5165E-3	-18.5037E-12	478.633E-3	-17.3580E-3
-1.17309E-3	-18.6887E-12	414.443E-3	-35.8496E-3	-18.8617E-12	478.449E-3	-13.3352E-3
-1.17809E-3	-18.9865E-12	421.116E-3	-25.5853E-3	-19.0238E-12	491.803E-3	-15.2833E-3
-1.18309E-3	-19.0257E-12	450.595E-3	-21.1513E-3	-18.9891E-12	529.863E-3	-19.6057E-3
-1.18809E-3	-19.0405E-12	478.482E-3	-20.5477E-3	-19.2063E-12	557.575E-3	-15.8530E-3
-1.19310E-3	-19.3970E-12	495.764E-3	-28.9365E-3	-19.5967E-12	567.196E-3	-7.29869E-3
-1.19810E-3	-19.3912E-12	503.029E-3	-29.8509E-3	-19.5362E-12	577.912E-3	-7.28361E-3
-1.20310E-3	-19.5552E-12	502.973E-3	-20.2891E-3	-19.6599E-12	591.611E-3	-17.5121E-3
-1.20810E-3	-19.8429E-12	511.758E-3	-17.9971E-3	-20.1598E-12	605.243E-3	-22.2558E-3
-1.21311E-3	-19.8318E-12	541.900E-3	-15.4068E-3	-20.3503E-12	623.581E-3	-18.7069E-3
-1.21811E-3	-20.2031E-12	568.272E-3	-6.25609E-3	-20.2473E-12	638.711E-3	-16.9083E-3
-1.22311E-3	-20.4989E-12	578.348E-3	-2.45271E-3	-20.4981E-12	651.832E-3	-12.4644E-3
-1.22811E-3	-20.4942E-12	593.903E-3	-11.1210E-3	-20.8470E-12	666.403E-3	-7.09728E-3
-1.23312E-3	-20.6906E-12	612.706E-3	-15.5640E-3	-21.0238E-12	680.057E-3	-14.9157E-3
-1.23812E-3	-21.3521E-12	623.133E-3	-11.7441E-3	-21.0456E-12	702.618E-3	-20.4180E-3
-1.24312E-3	-21.4310E-12	635.437E-3	-6.92135E-3	-21.5897E-12	730.570E-3	-23.3016E-3
-1.24812E-3	-21.6063E-12	651.697E-3	2.19540E-3	-21.6926E-12	746.058E-3	-34.0038E-3
-1.25313E-3	-21.9904E-12	670.388E-3	-2.77216E-3	-21.8039E-12	758.698E-3	-27.0365E-3
-1.25813E-3	-22.2939E-12	693.142E-3	-12.0385E-3	-22.3059E-12	777.867E-3	-13.9586E-3
-1.26313E-3	-22.5307E-12	708.214E-3	-6.84369E-3	-22.3611E-12	791.939E-3	-10.2559E-3
-1.26813E-3	-22.6375E-12	715.303E-3	-8.44367E-3	-22.4544E-12	799.085E-3	-553.589E-6
-1.27314E-3	-22.7057E-12	730.907E-3	-17.2023E-3	-23.0579E-12	804.029E-3	10.8927E-3
-1.27814E-3	-22.8305E-12	754.090E-3	-16.9406E-3	-23.2873E-12	813.458E-3	6.13327E-3
-1.28314E-3	-23.2919E-12	771.842E-3	-10.8446E-3	-23.1628E-12	830.507E-3	-20.7051E-3
-1.28814E-3	-23.3975E-12	784.894E-3	-2.68360E-3	-23.6246E-12	853.639E-3	-36.5887E-3
-1.29315E-3	-23.5754E-12	794.895E-3	-6.22790E-3	-23.9784E-12	872.711E-3	-24.2030E-3
-1.29815E-3	-24.0111E-12	801.146E-3	-30.5528E-3	-24.1210E-12	888.947E-3	-10.6754E-3
-1.30315E-3	-24.1694E-12	822.454E-3	-40.8561E-3	-24.3706E-12	911.566E-3	-5.79127E-3
-1.30815E-3	-24.3694E-12	857.323E-3	-28.5579E-3	-24.6614E-12	924.728E-3	-2.93698E-3
-1.31316E-3	-24.7547E-12	871.883E-3	-25.1944E-3	-24.9338E-12	933.351E-3	-2.87192E-3
-1.31816E-3	-25.0467E-12	873.490E-3	-16.3296E-3	-25.2788E-12	951.667E-3	-2.26140E-3
-1.32316E-3	-25.2444E-12	882.032E-3	-4.33443E-3	-25.5799E-12	970.542E-3	-3.92681E-3
-1.32816E-3	-25.6752E-12	891.943E-3	-15.1247E-3	-25.9366E-12	978.853E-3	-11.2335E-3
-1.33317E-3	-26.1234E-12	907.603E-3	-25.1786E-3	-26.0972E-12	977.791E-3	-12.0643E-3
-1.33817E-3	-26.3804E-12	932.961E-3	-15.3314E-3	-26.2407E-12	980.167E-3	-2.34402E-3
-1.34317E-3	-26.7789E-12	948.711E-3	-7.42067E-3	-26.7612E-12	990.969E-3	2.16881E-3
-1.34817E-3	-27.1990E-12	953.955E-3	-22.6624E-3	-27.1519E-12	1.01420E+0	-9.09299E-3
-1.35318E-3	-27.5028E-12	969.155E-3	-42.3598E-3	-27.3022E-12	1.03824E+0	-22.6557E-3
-1.35818E-3	-27.9389E-12	989.150E-3	-38.4175E-3	-27.7237E-12	1.05182E+0	-22.9489E-3
-1.36318E-3	-28.3995E-12	1.01817E+0	-19.8296E-3	-28.4010E-12	1.05853E+0	-12.6157E-3
-1.36818E-3	-28.5049E-12	1.04980E+0	-17.5592E-3	-28.8659E-12	1.06554E+0	-1.42766E-3
-1.37319E-3	-28.7954E-12	1.05652E+0	-29.0028E-3	-29.0275E-12	1.07286E+0	9.90699E-3
-1.37819E-3	-29.2601E-12	1.05383E+0	-32.2395E-3	-29.2636E-12	1.07905E+0	9.71139E-3
-1.38319E-3	-29.5101E-12	1.07170E+0	-17.1857E-3	-29.6989E-12	1.09196E+0	-16.2113E-3
-1.38819E-3	-29.6654E-12	1.08593E+0	-4.99236E-3	-30.1612E-12	1.10911E+0	-36.3057E-3
-1.39320E-3	-30.2142E-12	1.08647E+0	-16.1556E-3	-30.4314E-12	1.12019E+0	-34.2392E-3
-1.39820E-3	-30.7469E-12	1.09930E+0	-25.5575E-3	-30.7149E-12	1.11653E+0	-28.3003E-3
-1.40320E-3	-30.9065E-12	1.10400E+0	-20.7375E-3	-31.0375E-12	1.10832E+0	-16.7748E-3
-1.40820E-3	-31.2339E-12	1.09507E+0	-15.7800E-3	-31.5458E-12	1.11365E+0	-9.61787E-3
-1.41321E-3	-31.7005E-12	1.10176E+0	-5.50651E-3	-31.9346E-12	1.13084E+0	-19.8004E-3
-1.41821E-3	-32.5149E-12	1.10994E+0	7.03285E-3	-32.2091E-12	1.13898E+0	-24.6959E-3
-1.42321E-3	-32.4674E-12	1.11503E+0	-10.7553E-3	-32.6727E-12	1.13784E+0	-6.65961E-3
-1.42821E-3	-32.8123E-12	1.13417E+0	-37.3221E-3	-32.9268E-12	1.14644E+0	4.66369E-3
-1.43322E-3	-33.4512E-12	1.14568E+0	-28.8217E-3	-33.2796E-12	1.15782E+0	-10.9530E-3
-1.43822E-3	-33.7750E-12	1.14404E+0	-11.5504E-3	-33.5886E-12	1.15805E+0	-27.6798E-3
-1.44322E-3	-33.9488E-12	1.15393E+0	-12.3698E-3	-34.2138E-12	1.15762E+0	-27.1748E-3
-1.44822E-3	-34.8460E-12	1.16310E+0	-18.5429E-3	-34.7278E-12	1.16364E+0	-20.2014E-3
-1.45323E-3	-35.1458E-12	1.15687E+0	-26.7273E-3	-34.9559E-12	1.16670E+0	-23.6071E-3
-1.45823E-3	-35.1582E-12	1.15953E+0	-35.2008E-3	-35.5736E-12	1.16810E+0	-38.2492E-3
-1.46323E-3	-35.6701E-12	1.16956E+0	-35.0863E-3	-36.3774E-12	1.17553E+0	-49.2088E-3
-1.46823E-3	-36.2453E-12	1.16501E+0	-31.1128E-3	-36.4803E-12	1.18250E+0	-45.4166E-3
-1.47324E-3	-36.3521E-12	1.16263E+0	-29.2266E-3	-36.9902E-12	1.18098E+0	-29.4492E-3
-1.47824E-3	-36.6093E-12	1.17031E+0	-23.4938E-3	-37.7046E-12	1.17025E+0	-19.2132E-3
-1.48324E-3	-37.0802E-12	1.16090E+0	-11.8456E-3	-37.7225E-12	1.16480E+0	-19.8437E-3
-1.48824E-3	-37.4398E-12	1.15196E+0	-2.41507E-3	-37.6225E-12	1.17131E+0	-14.7456E-3
-1.49325E-3	-37.7096E-12	1.16170E+0	-2.38932E-3	-38.0419E-12	1.17694E+0	-9.75272E-3
-1.49825E-3	-38.1914E-12	1.16028E+0	-12.6782E-3	-38.2351E-12	1.17400E+0	-7.11284E-3
-1.50325E-3	-38.6524E-12	1.14659E+0	-29.5325E-3	-38.4463E-12	1.16824E+0	-7.74449E-3
-1.50825E-3	-38.9426E-12	1.13979E+0	-33.9076E-3	-38.6545E-12	1.16042E+0	-27.9020E-3
-1.51326E-3	-39.4678E-12	1.14290E+0	-22.9392E-3	-38.9089E-12	1.14200E+0	-40.9895E-3
-1.51826E-3	-39.5648E-12	1.15260E+0	-22.9764E-3	-39.2114E-12	1.13849E+0	-38.0834E-3
-1.52326E-3	-39.9717E-12	1.16315E+0	-33.7747E-3	-39.4597E-12	1.15983E+0	-42.6745E-3
-1.52826E-3	-40.4535E-12	1.16531E+0	-24.4547E-3	-39.8529E-12	1.16968E+0	-38.2390E-3
-1.53327E-3	-41.2673E-12	1.15280E+0	-3.08750E-3	-40.5277E-12	1.16483E+0	-23.1026E-3
-1.53827E-3	-41.3514E-12	1.14249E+0	5.99547E-3	-41.0232E-12	1.16382E+0	-17.8016E-3
-1.54327E-3	-41.7382E-12	1.14070E+0	9.26124E-3	-41.4382E-12	1.16435E+0	-20.3636E-3
-1.54827E-3	-42.0413E-12	1.13780E+0	7.89315E-3	-42.2319E-12	1.15936E+0	-21.0924E-3
-1.55328E-3	-42.4116E-12	1.14421E+0	-5.13017E-3	-42.9665E-12	1.15553E+0	-28.0652E-3
-1.55828E-3	-42.8145E-12	1.14667E+0	-14.5743E-3	-43.1128E-12	1.15498E+0	-44.8517E-3
-1.56328E-3	-43.3374E-12	1.12982E+0	-16.0076E-3	-43.8303E-12	1.14592E+0	-49.5972E-3
-1.56828E-3	-43.7106E-12	1.12877E+0	-29.1366E-3	-44.6112E-12	1.13281E+0	-41.4600E-3
-1.57329E-3	-44.0562E-12	1.14576E+0	-39.8119E-3	-44.6274E-12	1.12632E+0	-39.4438E-3
-1.57829E-3	-44.4797E-12	1.14919E+0	-32.7633E-3	-44.9822E-12	1.13044E+0	-36.0325E-3
-1.58329E-3	-45.0820E-12	1.14485E+0	-17.2576E-3	-45.7173E-12	1.12439E+0	-32.4100E-3
-1.58829E-3	-45.2956E-12	1.14428E+0	-4.69514E-3	-45.7282E-12	1.10273E+0	-35.5680E-3
-1.59330E-3	-45.7544E-12	1.14137E+0	-9.77904E-3	-45.5866E-12	1.09494E+0	-18.6421E-3
-1.59830E-3	-46.1087E-12	1.13277E+0	-25.1445E-3	-45.8880E-12	1.08918E+0	4.66977E-3
-1.60330E-3	-46.2676E-12	1.12335E+0	-24.7923E-3	-46.0547E-12	1.06496E+0	2.05963E-3
-1.60830E-3	-46.7285E-12	1.10587E+0	-9.53650E-3	-45.9883E-12	1.05334E+0	-8.47968E-3
-1.61331E-3	-47.0622E-12	1.08912E+0	2.62728E-3	-46.2654E-12	1.06099E+0	-13.1482E-3
-1.61831E-3	-47.0847E-12	1.08524E+0	-1.12354E-3	-46.7753E-12	1.06214E+0	-15.5976E-3
-1.62331E-3	-47.3885E-12	1.08656E+0	-19.2566E-3	-47.0189E-12	1.05514E+0	-10.0722E-3
-1.62831E-3	-47.9931E-12	1.08438E+0	-26.9955E-3	-47.2965E-12	1.05086E+0	-12.3111E-3
-1.63332E-3	-48.3374E-12	1.07757E+0	-19.2871E-3	-47.8020E-12	1.05872E+0	-29.0490E-3
-1.63832E-3	-48.6312E-12	1.06802E+0	-16.2038E-3	-48.4853E-12	1.06171E+0	-29.4901E-3
-1.64332E-3	-49.0563E-12	1.06154E+0	-21.4600E-3	-49.1548E-12	1.06103E+0	-21.7601E-3
-1.64832E-3	-49.5288E-12	1.05388E+0	-21.6880E-3	-49.2726E-12	1.06844E+0	-26.7397E-3
-1.65333E-3	-50.1679E-12	1.04922E+0	-13.7117E-3	-49.8379E-12	1.06854E+0	-22.2865E-3
-1.65833E-3	-50.5901E-12	1.05490E+0	-10.2069E-3	-51.1043E-12	1.06006E+0	-11.5095E-3
-1.66333E-3	-50.5625E-12	1.05903E+0	-15.9085E-3	-51.3804E-12	1.04360E+0	-11.0185E-3
-1.66833E-3	-51.1828E-12	1.05451E+0	-21.2075E-3	-51.3768E-12	1.02966E+0	-8.72636E-3
-1.67334E-3	-51.5263E-12	1.04106E+0	-20.3809E-3	-51.8861E-12	1.02486E+0	-5.63310E-3
-1.67834E-3	-51.4702E-12	1.02990E+0	-16.8403E-3	-52.2801E-12	1.01270E+0	-11.7103E-3
-1.68334E-3	-51.9646E-12	1.01537E+0	-14.2046E-3	-52.3934E-12	1.00256E+0	-24.4764E-3
-1.68834E-3	-52.3611E-12	1.00963E+0	-13.5153E-3	-52.3145E-12	1.00031E+0	-30.0701E-3
-1.69335E-3	-52.3792E-12	1.02241E+0	-26.1759E-3	-52.7361E-12	994.173E-3	-30.2715E-3
-1.69835E-3	-52.5682E-12	1.02654E+0	-42.8063E-3	-53.0114E-12	985.257E-3	-31.7741E-3
-1.70335E-3	-53.1233E-12	1.01945E+0	-34.2748E-3	-52.8860E-12	975.320E-3	-33.2005E-3
-1.70835E-3	-53.4981E-12	1.01269E+0	-12.2551E-3	-53.0498E-12	968.773E-3	-29.5663E-3
-1.71336E-3	-53.7902E-12	1.00794E+0	-3.66234E-3	-53.5409E-12	972.702E-3	-17.1258E-3
-1.71836E-3	-54.1003E-12	1.00620E+0	-9.69802E-3	-53.5522E-12	968.900E-3	-3.61971E-3
-1.72336E-3	-54.5541E-12	999.194E-3	-17.0983E-3	-54.0074E-12	946.358E-3	4.89548E-3
-1.72836E-3	-54.8106E-12	981.358E-3	-9.79191E-3	-54.2374E-12	934.496E-3	3.24383E-3
-1.73337E-3	-55.1624E-12	966.196E-3	2.78524E-3	-54.7159E-12	945.777E-3	-9.16160E-3
-1.73837E-3	-55.4948E-12	968.982E-3	-3.07221E-3	-55.4081E-12	959.861E-3	-22.2919E-3
-1.74337E-3	-55.9684E-12	975.010E-3	-10.6922E-3	-55.7207E-12	967.493E-3	-34.2660E-3
-1.74837E-3	-56.2659E-12	968.954E-3	-5.92825E-3	-55.6933E-12	970.938E-3	-31.6535E-3
-1.75338E-3	-56.3822E-12	961.563E-3	-15.8329E-3	-56.3051E-12	960.965E-3	-17.9313E-3
-1.75838E-3	-57.1904E-12	954.254E-3	-29.0872E-3	-56.9213E-12	940.967E-3	-22.5944E-3
-1.76338E-3	-57.4375E-12	947.955E-3	-23.5376E-3	-57.3660E-12	940.330E-3	-32.2333E-3
-1.76838E-3	-57.6306E-12	948.792E-3	-28.9420E-3	-57.7025E-12	959.304E-3	-24.3265E-3
-1.77339E-3	-57.9916E-12	955.593E-3	-40.9974E-3	-58.3630E-12	964.352E-3	-10.8145E-3
-1.77839E-3	-58.4117E-12	962.562E-3	-31.7734E-3	-58.6104E-12	943.750E-3	-3.49345E-3
-1.78339E-3	-58.2090E-12	961.581E-3	-17.1144E-3	-58.8700E-12	920.286E-3	-2.70043E-3
-1.78839E-3	-58.5064E-12	949.495E-3	-13.9452E-3	-59.2847E-12	914.990E-3	-6.37235E-3
-1.79340E-3	-58.9579E-12	936.208E-3	-16.6255E-3	-59.6622E-12	919.180E-3	2.15697E-3
-1.79840E-3	-59.2318E-12	928.995E-3	-20.1171E-3	-59.5923E-12	913.007E-3	10.8652E-3
-1.80340E-3	-59.3358E-12	915.784E-3	-15.2330E-3	-60.0225E-12	893.524E-3	901.506E-6
-1.80840E-3	-60.0784E-12	895.383E-3	-10.2805E-3	-59.9867E-12	883.816E-3	-4.88191E-3
-1.81341E-3	-60.3521E-12	890.473E-3	-18.7816E-3	-60.3572E-12	890.031E-3	-2.73809E-3
-1.81841E-3	-60.3715E-12	893.275E-3	-22.9059E-3	-60.1980E-12	889.785E-3	-11.7311E-3
-1.82341E-3	-60.8949E-12	887.166E-3	-20.5325E-3	-60.2919E-12	871.503E-3	-21.2009E-3
-1.82841E-3	-61.3272E-12	890.065E-3	-22.1782E-3	-60.6365E-12	850.063E-3	-7.49936E-3
-1.83342E-3	-61.5401E-12	903.800E-3	-15.3958E-3	-61.1380E-12	857.779E-3	12.8744E-3
-1.83842E-3	-61.9098E-12	901.637E-3	222.386E-6	-61.1367E-12	877.956E-3	17.1937E-3
-1.84342E-3	-62.1537E-12	891.829E-3	-2.88709E-3	-61.5924E-12	875.022E-3	20.4306E-3
-1.84842E-3	-62.7290E-12	883.441E-3	-16.0914E-3	-62.1283E-12	861.377E-3	16.2915E-3
-1.85343E-3	-62.4675E-12	873.652E-3	-15.7201E-3	-62.3824E-12	840.541E-3	2.25255E-3
-1.85843E-3	-63.2961E-12	879.028E-3	-20.2880E-3	-62.5542E-12	830.202E-3	-4.68637E-3
-1.86343E-3	-63.5592E-12	892.782E-3	-27.2842E-3	-63.2744E-12	854.948E-3	-19.2825E-3
-1.86843E-3	-63.4389E-12	895.523E-3	-20.2807E-3	-64.0843E-12	881.517E-3	-32.1308E-3
-1.87344E-3	-63.9112E-12	879.014E-3	-22.8643E-3	-64.3077E-12	888.943E-3	-19.2498E-3
-1.87844E-3	-64.2927E-12	855.118E-3	-35.8085E-3	-64.6183E-12	888.179E-3	-10.9555E-3
-1.88344E-3	-64.3449E-12	847.352E-3	-30.8100E-3	-65.4602E-12	877.734E-3	-31.6837E-3
-1.88844E-3	-64.9010E-12	857.947E-3	-24.4661E-3	-65.5515E-12	862.182E-3	-38.3909E-3
-1.89345E-3	-64.9556E-12	884.152E-3	-31.3628E-3	-65.9728E-12	849.961E-3	-20.1388E-3
-1.89845E-3	-65.3203E-12	897.369E-3	-36.0392E-3	-66.5644E-12	844.912E-3	-17.2525E-3
-1.90345E-3	-65.5533E-12	879.056E-3	-31.2657E-3	-66.4734E-12	845.612E-3	-41.0919E-3
-1.90845E-3	-65.8814E-12	868.256E-3	-22.1442E-3	-66.4103E-12	845.865E-3	-55.1342E-3
-1.91346E-3	-66.2635E-12	868.687E-3	-20.3603E-3	-67.0463E-12	843.285E-3	-40.2641E-3
-1.91846E-3	-66.2646E-12	861.667E-3	-26.9034E-3	-66.7391E-12	838.935E-3	-22.6703E-3
-1.92346E-3	-66.3002E-12	849.797E-3	-30.6030E-3	-66.6368E-12	839.254E-3	-17.0639E-3
-1.92846E-3	-66.8193E-12	843.844E-3	-29.4595E-3	-66.5324E-12	837.686E-3	-21.5985E-3
-1.93347E-3	-66.6875E-12	852.780E-3	-32.8403E-3	-66.9575E-12	825.467E-3	-20.8964E-3
-1.93847E-3	-66.7683E-12	858.957E-3	-27.7852E-3	-66.6684E-12	810.236E-3	-14.6041E-3
-1.94347E-3	-67.1120E-12	841.949E-3	-9.58398E-3	-67.0661E-12	810.709E-3	-13.1875E-3
-1.94847E-3	-67.3988E-12	809.342E-3	3.20331E-3	-67.2478E-12	818.440E-3	-10.8833E-3
-1.95348E-3	-67.4023E-12	802.231E-3	-4.57493E-3	-67.4405E-12	816.444E-3	-6.61772E-3
-1.95848E-3	-67.9107E-12	827.563E-3	-13.9296E-3	-67.8672E-12	810.062E-3	-4.53987E-3
-1.96348E-3	-68.7028E-12	832.601E-3	-2.09470E-3	-68.3803E-12	804.273E-3	-6.57857E-3
-1.96848E-3	-69.0721E-12	829.561E-3	3.96211E-3	-68.7354E-12	810.895E-3	-9.67075E-3
-1.97349E-3	-69.2150E-12	844.320E-3	-12.6157E-3	-69.4027E-12	822.516E-3	-8.52158E-3
-1.97849E-3	-70.1657E-12	846.550E-3	-26.8570E-3	-69.6976E-12	818.817E-3	-14.1374E-3
-1.98349E-3	-70.6418E-12	842.301E-3	-22.3683E-3	-70.7738E-12	815.214E-3	-20.5071E-3
-1.98849E-3	-70.9164E-12	834.532E-3	-11.0805E-3	-71.2473E-12	822.701E-3	-13.8737E-3
-1.99350E-3	-71.1479E-12	826.987E-3	-10.8007E-3	-71.6114E-12	824.319E-3	-9.91755E-3
-1.99850E-3	-71.6162E-12	828.818E-3	-24.9095E-3	-71.9689E-12	813.649E-3	-18.6853E-3
-2.00350E-3	-71.5387E-12	823.699E-3	-36.6628E-3	-72.7448E-12	791.423E-3	-24.3285E-3
-2.00850E-3	-71.6901E-12	809.404E-3	-28.4596E-3	-72.7954E-12	774.219E-3	-20.3373E-3
-2.01351E-3	-72.0609E-12	798.290E-3	-16.7712E-3	-72.5253E-12	782.156E-3	-23.5636E-3
-2.01851E-3	-72.2872E-12	806.261E-3	-22.5325E-3	-72.4522E-12	802.433E-3	-25.4680E-3
-2.02351E-3	-71.9770E-12	816.405E-3	-23.4746E-3	-72.4324E-12	805.551E-3	-15.2528E-3
-2.02851E-3	-72.1899E-12	804.509E-3	-17.6406E-3	-72.5269E-12	788.188E-3	-9.07915E-3
-2.03352E-3	-72.5474E-12	788.807E-3	-20.1567E-3	-72.3358E-12	774.881E-3	-6.45070E-3
-2.03852E-3	-72.8571E-12	787.271E-3	-7.96227E-3	-72.1352E-12	771.156E-3	-2.13159E-3
-2.04352E-3	-72.9412E-12	794.544E-3	8.57854E-3	-72.2960E-12	775.363E-3	-12.8295E-3
-2.04852E-3	-73.5109E-12	801.471E-3	11.0596E-3	-72.5025E-12	790.691E-3	-24.4286E-3
-2.05353E-3	-73.8549E-12	799.576E-3	11.2860E-3	-72.3568E-12	794.404E-3	-5.07520E-3
-2.05853E-3	-74.2831E-12	797.488E-3	8.37435E-3	-72.7670E-12	786.980E-3	7.04908E-3
-2.06353E-3	-74.6962E-12	810.179E-3	-691.494E-6	-73.4328E-12	784.950E-3	-12.8750E-3
-2.06853E-3	-75.6188E-12	811.302E-3	-14.3799E-3	-73.5836E-12	776.440E-3	-24.6350E-3
-2.07354E-3	-75.6794E-12	798.545E-3	-21.8193E-3	-74.1637E-12	769.250E-3	-16.5777E-3
-2.07854E-3	-76.2414E-12	801.747E-3	-21.4628E-3	-74.9621E-12	778.456E-3	-4.18171E-3
-2.08354E-3	-76.4885E-12	801.807E-3	-17.6921E-3	-75.5062E-12	783.651E-3	-1.97097E-3
-2.08854E-3	-76.4517E-12	786.745E-3	-13.6863E-3	-75.8169E-12	783.566E-3	-15.7355E-3
-2.09355E-3	-76.5010E-12	778.732E-3	-18.6451E-3	-76.5247E-12	790.062E-3	-18.7639E-3
-2.09855E-3	-76.5753E-12	774.686E-3	-22.9288E-3	-76.7407E-12	786.686E-3	-9.59612E-3
-2.10355E-3	-76.5271E-12	782.408E-3	-18.9936E-3	-76.9430E-12	776.288E-3	-13.2999E-3
-2.10855E-3	-76.2923E-12	800.725E-3	-21.6470E-3	-76.9365E-12	769.899E-3	-20.2340E-3
-2.11356E-3	-76.6352E-12	801.653E-3	-25.7877E-3	-77.2719E-12	774.387E-3	-21.0201E-3
-2.11856E-3	-76.5965E-12	783.296E-3	-27.8575E-3	-77.3027E-12	783.201E-3	-10.0540E-3
-2.12356E-3	-76.6602E-12	770.357E-3	-35.1121E-3	-77.3193E-12	765.330E-3	791.774E-6
-2.12856E-3	-76.4842E-12	774.140E-3	-36.3060E-3	-77.2849E-12	746.103E-3	-10.5057E-3
-2.13357E-3	-77.0617E-12	765.286E-3	-31.0866E-3	-77.2712E-12	757.196E-3	-27.4751E-3
-2.13857E-3	-77.0582E-12	750.705E-3	-26.0523E-3	-77.5272E-12	770.310E-3	-39.2296E-3
-2.14357E-3	-77.0904E-12	760.883E-3	-26.8781E-3	-77.2869E-12	771.801E-3	-36.2381E-3
-2.14857E-3	-77.4672E-12	769.564E-3	-27.6408E-3	-77.1770E-12	769.006E-3	-23.7922E-3
-2.15358E-3	-78.2556E-12	754.841E-3	-25.1431E-3	-77.5763E-12	757.856E-3	-19.6411E-3
-2.15858E-3	-78.6796E-12	752.859E-3	-22.7645E-3	-77.9417E-12	756.615E-3	-14.3443E-3
-2.16358E-3	-79.4669E-12	773.454E-3	-9.23908E-3	-78.0747E-12	773.796E-3	-14.8127E-3
-2.16858E-3	-80.0973E-12	788.401E-3	-9.92585E-3	-78.8141E-12	776.317E-3	-24.9012E-3
-2.17359E-3	-80.5395E-12	781.990E-3	-32.5494E-3	-79.4200E-12	774.457E-3	-27.7988E-3
-2.17859E-3	-80.5509E-12	762.518E-3	-33.4323E-3	-79.5866E-12	786.343E-3	-21.0577E-3
-2.18359E-3	-80.9425E-12	748.103E-3	-26.0332E-3	-80.2468E-12	779.607E-3	-17.3592E-3
-2.18859E-3	-81.4745E-12	747.481E-3	-28.3872E-3	-80.9377E-12	764.331E-3	-25.3458E-3
-2.19360E-3	-81.3699E-12	758.733E-3	-20.2476E-3	-81.1338E-12	764.577E-3	-32.2790E-3
-2.19860E-3	-81.2639E-12	766.188E-3	-18.4620E-3	-81.7235E-12	764.646E-3	-26.1032E-3
-2.20360E-3	-81.5272E-12	765.895E-3	-30.5260E-3	-82.3102E-12	752.354E-3	-20.6416E-3
-2.20860E-3	-81.6824E-12	762.031E-3	-26.4194E-3	-82.3464E-12	733.546E-3	-21.5145E-3
-2.21361E-3	-82.0429E-12	758.542E-3	-15.7711E-3	-82.3738E-12	727.870E-3	-19.9523E-3
-2.21861E-3	-81.9540E-12	761.583E-3	-27.5652E-3	-82.9056E-12	735.347E-3	-14.7286E-3
-2.22361E-3	-82.0843E-12	764.799E-3	-34.9611E-3	-82.8863E-12	739.563E-3	-7.82146E-3
-2.22861E-3	-82.3064E-12	762.347E-3	-23.2683E-3	-82.7388E-12	729.551E-3	-2.70528E-3
-2.23362E-3	-82.7911E-12	762.527E-3	-19.6799E-3	-82.7456E-12	719.949E-3	-550.825E-6
-2.23862E-3	-82.7853E-12	762.995E-3	-16.9952E-3	-83.0999E-12	728.500E-3	-11.4017E-3
-2.24362E-3	-82.6436E-12	754.277E-3	-9.12344E-3	-83.0444E-12	731.513E-3	-29.0223E-3
-2.24862E-3	-82.8275E-12	745.172E-3	-10.2692E-3	-83.2543E-12	721.453E-3	-35.3581E-3
-2.25363E-3	-83.5378E-12	742.937E-3	-20.2163E-3	-83.4561E-12	718.384E-3	-32.1619E-3
-2.25863E-3	-83.8486E-12	740.538E-3	-21.7885E-3	-83.7499E-12	727.218E-3	-17.0979E-3
-2.26363E-3	-84.3439E-12	735.132E-3	-10.4069E-3	-84.1262E-12	745.014E-3	-7.15198E-3
-2.26863E-3	-84.4751E-12	735.816E-3	-9.34672E-3	-84.4649E-12	756.678E-3	-20.6569E-3
-2.27364E-3	-85.0442E-12	742.870E-3	-15.8992E-3	-84.6481E-12	749.862E-3	-36.4451E-3
-2.27864E-3	-85.4297E-12	742.841E-3	-21.4881E-3	-84.9614E-12	730.713E-3	-40.2906E-3
-2.28364E-3	-85.6082E-12	740.278E-3	-30.2111E-3	-85.6462E-12	720.987E-3	-38.7656E-3
-2.28864E-3	-85.6805E-12	743.467E-3	-28.8463E-3	-85.6533E-12	728.120E-3	-30.3118E-3
-2.29365E-3	-85.9141E-12	749.761E-3	-26.4669E-3	-85.9822E-12	739.344E-3	-9.94613E-3
-2.29865E-3	-86.1038E-12	751.190E-3	-25.8296E-3	-86.6984E-12	747.847E-3	5.37973E-3
-2.30365E-3	-86.4846E-12	749.302E-3	-11.5895E-3	-86.7069E-12	745.753E-3	-3.36426E-3
-2.30865E-3	-86.9658E-12	752.919E-3	9.94711E-3	-86.9477E-12	738.436E-3	-12.7656E-3
-2.31366E-3	-86.8453E-12	759.931E-3	18.0124E-3	-87.2966E-12	744.764E-3	-5.74397E-3
-2.31866E-3	-87.0459E-12	761.024E-3	1.56176E-3	-87.6068E-12	755.394E-3	-351.842E-6
-2.32366E-3	-87.4352E-12	746.060E-3	-21.8896E-3	-87.7840E-12	743.932E-3	-287.545E-6
-2.32866E-3	-87.7231E-12	723.648E-3	-32.6374E-3	-88.1433E-12	729.190E-3	-2.12971E-3
-2.33367E-3	-87.5661E-12	730.159E-3	-32.9731E-3	-88.5747E-12	726.672E-3	-12.4044E-3
-2.33867E-3	-87.5347E-12	740.110E-3	-21.6389E-3	-88.5282E-12	724.466E-3	-22.5590E-3
-2.34367E-3	-87.9346E-12	726.929E-3	-10.8584E-3	-88.8049E-12	737.087E-3	-13.1690E-3
-2.34867E-3	-88.1899E-12	718.633E-3	-11.8106E-3	-88.7143E-12	749.344E-3	826.328E-6
-2.35368E-3	-87.9526E-12	711.862E-3	-9.77798E-3	-88.9456E-12	735.844E-3	6.19526E-3
-2.35868E-3	-88.0744E-12	708.167E-3	-9.55183E-3	-89.1437E-12	727.452E-3	16.4076E-3
-2.36368E-3	-88.2734E-12	725.177E-3	-13.4782E-3	-89.2957E-12	736.841E-3	12.6574E-3
-2.36868E-3	-88.4908E-12	730.439E-3	-9.37922E-3	-89.3850E-12	736.061E-3	-7.98842E-3
-2.37369E-3	-88.8603E-12	716.482E-3	-15.5903E-3	-89.6443E-12	714.903E-3	-21.3766E-3
-2.37869E-3	-89.1249E-12	723.137E-3	-24.7221E-3	-89.8708E-12	699.648E-3	-23.7826E-3
-2.38369E-3	-89.5647E-12	734.426E-3	-13.9621E-3	-89.8637E-12	706.264E-3	-15.7856E-3
-2.38869E-3	-90.4034E-12	730.927E-3	1.98676E-3	-90.3139E-12	720.543E-3	-11.6458E-3
-2.39370E-3	-90.8735E-12	727.389E-3	-1.64142E-3	-90.9015E-12	742.759E-3	-16.6051E-3
-2.39870E-3	-91.2040E-12	734.587E-3	-17.8307E-3	-90.7488E-12	749.718E-3	-27.8846E-3
-2.40370E-3	-91.6165E-12	737.964E-3	-22.2266E-3	-91.0270E-12	730.996E-3	-28.6487E-3
-2.40870E-3	-92.4827E-12	734.619E-3	-24.9674E-3	-91.4222E-12	731.998E-3	-21.1393E-3
-2.41371E-3	-92.7262E-12	740.873E-3	-29.8775E-3	-91.5774E-12	733.611E-3	-32.6662E-3
-2.41871E-3	-93.2434E-12	746.441E-3	-26.9549E-3	-91.9811E-12	721.098E-3	-25.7044E-3
-2.42371E-3	-93.3958E-12	745.492E-3	-18.7846E-3	-92.5271E-12	722.190E-3	8.03276E-3
-2.42871E-3	-93.8560E-12	740.141E-3	172.520E-6	-92.8817E-12	717.639E-3	18.3498E-3
-2.43372E-3	-93.6692E-12	739.770E-3	2.04122E-3	-93.2620E-12	704.515E-3	4.31569E-3
-2.43872E-3	-93.7651E-12	746.546E-3	-23.5554E-3	-93.7040E-12	712.214E-3	-9.89069E-3
-2.44372E-3	-93.6097E-12	734.478E-3	-30.1027E-3	-94.0090E-12	725.279E-3	-15.3598E-3
-2.44872E-3	-93.7105E-12	707.178E-3	-18.1798E-3	-94.2030E-12	719.660E-3	-6.61188E-3
-2.45373E-3	-92.8662E-12	703.808E-3	-13.2240E-3	-94.0413E-12	717.137E-3	2.03933E-3
-2.45873E-3	-92.9904E-12	718.028E-3	-9.31444E-3	-94.4402E-12	715.717E-3	-13.6828E-3
-2.46373E-3	-92.5474E-12	711.720E-3	-11.4459E-3	-94.0166E-12	708.845E-3	-38.9068E-3
-2.46873E-3	-92.5055E-12	700.331E-3	-19.5881E-3	-93.8882E-12	708.922E-3	-42.0195E-3
-2.47374E-3	-92.7654E-12	700.370E-3	-23.2487E-3	-94.2198E-12	710.782E-3	-34.7525E-3
-2.47874E-3	-93.2607E-12	704.841E-3	-32.5906E-3	-94.2976E-12	708.513E-3	-29.5113E-3
-2.48374E-3	-93.7530E-12	706.068E-3	-40.0763E-3	-94.2921E-12	698.774E-3	-20.5461E-3
-2.48874E-3	-94.5043E-12	695.187E-3	-23.2609E-3	-94.6544E-12	704.722E-3	-12.4410E-3
-2.49375E-3	-95.5519E-12	693.629E-3	-8.31681E-3	-94.5604E-12	722.317E-3	-10.5739E-3
-2.49875E-3	-96.0699E-12	708.063E-3	-24.2271E-3	-94.9982E-12	724.691E-3	-13.7928E-3
-2.50375E-3	-96.8354E-12	716.522E-3	-41.2399E-3	-95.3905E-12	726.695E-3	-8.54415E-3
-2.50875E-3	-97.6081E-12	719.201E-3	-39.7166E-3	-95.8971E-12	721.710E-3	-261.806E-6
-2.51376E-3	-98.0877E-12	718.053E-3	-23.4839E-3	-96.3178E-12	703.753E-3	-7.04705E-3
-2.51876E-3	-98.0567E-12	717.687E-3	-10.2215E-3	-97.0385E-12	695.210E-3	-17.4180E-3
-2.52376E-3	-98.2394E-12	728.499E-3	-10.7622E-3	-97.3454E-12	706.688E-3	-17.9504E-3
-2.52876E-3	-98.3834E-12	733.802E-3	-14.8207E-3	-97.6814E-12	719.511E-3	-10.1612E-3
-2.53377E-3	-97.7520E-12	733.755E-3	-13.7678E-3	-98.1214E-12	716.762E-3	-644.322E-6
-2.53877E-3	-97.3004E-12	736.255E-3	-1.46484E-3	-98.2542E-12	712.734E-3	2.29676E-3
-2.54377E-3	-96.9770E-12	728.092E-3	1.98552E-3	-98.3772E-12	708.403E-3	1.90131E-3
-2.54877E-3	-96.7606E-12	718.301E-3	-9.37191E-3	-98.6516E-12	705.329E-3	2.25280E-3
-2.55378E-3	-96.9197E-12	714.393E-3	-11.2898E-3	-98.1579E-12	707.714E-3	361.520E-6
-2.55878E-3	-96.8282E-12	707.657E-3	-7.45412E-3	-98.0938E-12	704.613E-3	-2.82956E-3
-2.56378E-3	-97.1265E-12	700.443E-3	-10.0476E-3	-98.5470E-12	705.716E-3	-7.00780E-3
-2.56878E-3	-97.7185E-12	686.359E-3	-16.7500E-3	-98.2271E-12	708.507E-3	-9.38907E-3
-2.57379E-3	-98.1890E-12	678.053E-3	-27.4840E-3	-98.4981E-12	705.174E-3	-8.35187E-3
-2.57879E-3	-98.3795E-12	689.456E-3	-25.4054E-3	-98.6242E-12	708.519E-3	-11.9949E-3
-2.58379E-3	-99.5723E-12	685.635E-3	-8.25500E-3	-99.1448E-12	705.688E-3	-20.1119E-3
-2.58879E-3	-100.347E-12	672.030E-3	-11.8500E-3	-99.5348E-12	705.707E-3	-21.4250E-3
-2.59380E-3	-100.665E-12	693.383E-3	-31.1912E-3	-100.336E-12	721.663E-3	-24.0983E-3
-2.59880E-3	-101.657E-12	717.122E-3	-38.2094E-3	-101.270E-12	729.320E-3	-23.8582E-3
-2.60380E-3	-102.619E-12	708.961E-3	-30.0893E-3	-101.916E-12	727.024E-3	-9.92068E-3
-2.60880E-3	-102.533E-12	696.965E-3	-18.4299E-3	-102.276E-12	725.944E-3	-3.72311E-3
-2.61381E-3	-102.594E-12	704.661E-3	-15.5985E-3	-103.641E-12	728.300E-3	-4.06955E-3
-2.61881E-3	-102.902E-12	711.717E-3	-25.1563E-3	-103.603E-12	729.736E-3	-4.59419E-3
-2.62381E-3	-102.821E-12	711.834E-3	-27.0035E-3	-103.832E-12	721.893E-3	-12.8730E-3
-2.62881E-3	-102.038E-12	713.447E-3	-8.10642E-3	-104.456E-12	700.390E-3	-17.6544E-3
-2.63382E-3	-101.741E-12	703.781E-3	-22.6873E-6	-104.658E-12	691.680E-3	-19.6576E-3
-2.63882E-3	-101.987E-12	695.331E-3	-19.4095E-3	-103.815E-12	721.086E-3	-25.2803E-3
-2.64382E-3	-102.010E-12	705.482E-3	-36.7641E-3	-104.176E-12	733.150E-3	-28.1641E-3
-2.64882E-3	-101.806E-12	712.010E-3	-30.0371E-3	-103.646E-12	708.861E-3	-41.7349E-3
-2.65383E-3	-102.073E-12	700.559E-3	-20.4423E-3	-103.292E-12	704.983E-3	-42.3084E-3
-2.65883E-3	-102.560E-12	691.294E-3	-14.4755E-3	-102.693E-12	713.027E-3	-27.4326E-3
-2.66383E-3	-102.993E-12	702.807E-3	-4.39516E-3	-102.791E-12	703.203E-3	-31.7142E-3
-2.66883E-3	-102.870E-12	711.340E-3	-17.6107E-3	-102.992E-12	694.696E-3	-35.1577E-3
-2.67384E-3	-103.356E-12	707.332E-3	-49.2303E-3	-102.785E-12	708.901E-3	-28.7602E-3
-2.67884E-3	-104.150E-12	700.001E-3	-53.1182E-3	-102.563E-12	720.838E-3	-20.5541E-3
-2.68384E-3	-104.678E-12	693.140E-3	-37.0075E-3	-103.807E-12	710.884E-3	-4.07432E-3
-2.68884E-3	-105.092E-12	707.090E-3	-43.9553E-3	-104.252E-12	702.884E-3	-2.60721E-3
-2.69385E-3	-105.705E-12	721.991E-3	-52.1377E-3	-104.347E-12	709.760E-3	-23.0815E-3
-2.69885E-3	-106.351E-12	702.724E-3	-37.4170E-3	-105.349E-12	725.383E-3	-37.9577E-3
-2.70385E-3	-106.634E-12	671.147E-3	-22.7271E-3	-106.080E-12	734.271E-3	-38.4540E-3
-2.70885E-3	-106.620E-12	665.203E-3	-8.17635E-3	-106.829E-12	722.769E-3	-24.2719E-3
-2.71386E-3	-106.566E-12	669.535E-3	-1.12456E-3	-107.103E-12	703.988E-3	-6.18117E-3
-2.71886E-3	-106.465E-12	681.225E-3	-11.7966E-3	-107.277E-12	700.235E-3	-61.5580E-6
-2.72386E-3	-106.443E-12	707.137E-3	-23.5282E-3	-107.932E-12	703.377E-3	-12.2682E-3
-2.72886E-3	-106.587E-12	719.885E-3	-36.7516E-3	-108.255E-12	695.844E-3	-29.6563E-3
-2.73387E-3	-106.601E-12	717.700E-3	-45.6748E-3	-107.928E-12	690.609E-3	-30.3076E-3
-2.73887E-3	-106.499E-12	712.640E-3	-26.6068E-3	-108.134E-12	696.657E-3	-27.2374E-3
-2.74387E-3	-107.173E-12	702.413E-3	-2.47024E-3	-107.767E-12	699.995E-3	-30.9735E-3
-2.74887E-3	-107.689E-12	697.300E-3	-2.01964E-3	-107.543E-12	701.320E-3	-28.2013E-3
-2.75388E-3	-107.635E-12	702.319E-3	2.34192E-3	-106.988E-12	693.134E-3	-22.7921E-3
-2.75888E-3	-107.606E-12	690.853E-3	11.2107E-3	-106.841E-12	682.059E-3	-23.4224E-3
-2.76388E-3	-107.533E-12	675.073E-3	3.86572E-3	-106.494E-12	688.575E-3	-25.4915E-3
-2.76888E-3	-108.004E-12	683.012E-3	-5.45897E-3	-106.813E-12	693.798E-3	-24.8921E-3
-2.77389E-3	-108.765E-12	690.697E-3	-5.79410E-3	-106.589E-12	678.723E-3	-22.1915E-3
-2.77889E-3	-108.190E-12	693.278E-3	-4.69358E-3	-107.222E-12	667.795E-3	-16.9060E-3
-2.78389E-3	-107.973E-12	701.321E-3	-6.48096E-3	-107.781E-12	670.349E-3	-22.5528E-3
-2.78889E-3	-108.921E-12	700.626E-3	-6.99056E-3	-108.671E-12	660.218E-3	-35.6585E-3
-2.79390E-3	-109.662E-12	692.096E-3	-10.4186E-3	-109.387E-12	659.841E-3	-38.7485E-3
-2.79890E-3	-109.191E-12	686.941E-3	-14.8998E-3	-110.080E-12	685.849E-3	-28.0480E-3
-2.80390E-3	-109.294E-12	675.055E-3	-6.90344E-3	-110.278E-12	704.687E-3	-1.48554E-3
-2.80890E-3	-109.394E-12	668.331E-3	-6.32152E-3	-110.650E-12	716.050E-3	12.7229E-3
-2.81391E-3	-109.824E-12	670.473E-3	-16.1654E-3	-111.426E-12	721.752E-3	-6.40207E-3
-2.81891E-3	-110.381E-12	664.575E-3	-7.09869E-3	-112.030E-12	709.973E-3	-30.8786E-3
-2.82391E-3	-110.574E-12	663.420E-3	5.48181E-3	-111.662E-12	695.039E-3	-20.9028E-3
-2.82891E-3	-110.624E-12	669.484E-3	8.73708E-3	-112.497E-12	685.610E-3	2.18939E-3
-2.83392E-3	-111.489E-12	663.141E-3	15.6167E-3	-112.767E-12	668.442E-3	7.92239E-3
-2.83892E-3	-112.464E-12	648.245E-3	25.6835E-3	-112.594E-12	650.285E-3	8.72270E-3
-2.84392E-3	-112.635E-12	646.519E-3	23.0528E-3	-112.919E-12	657.225E-3	-4.08768E-3
-2.84892E-3	-112.608E-12	663.956E-3	2.32794E-3	-112.851E-12	677.038E-3	-18.1011E-3
-2.85393E-3	-113.096E-12	681.204E-3	-17.9865E-3	-112.257E-12	699.252E-3	-11.5717E-3
-2.85893E-3	-113.463E-12	693.108E-3	-23.8740E-3	-112.848E-12	717.579E-3	-10.0078E-3
-2.86393E-3	-112.792E-12	702.375E-3	-14.9435E-3	-112.881E-12	706.098E-3	-22.5459E-3
-2.86893E-3	-112.725E-12	699.153E-3	-5.73019E-3	-112.841E-12	688.756E-3	-19.1697E-3
-2.87394E-3	-113.046E-12	695.625E-3	-10.1030E-3	-112.963E-12	687.770E-3	-7.47102E-3
-2.87894E-3	-112.854E-12	692.127E-3	-24.0149E-3	-113.435E-12	678.658E-3	-5.66031E-3
-2.88394E-3	-112.277E-12	688.250E-3	-38.6607E-3	-113.005E-12	662.870E-3	-1.62656E-3
-2.88894E-3	-112.950E-12	684.017E-3	-36.2474E-3	-114.044E-12	655.563E-3	-13.4526E-3
-2.89395E-3	-113.240E-12	674.145E-3	-15.4180E-3	-113.999E-12	654.390E-3	-38.5446E-3
-2.89895E-3	-113.261E-12	655.817E-3	-2.57820E-3	-113.837E-12	670.899E-3	-23.0715E-3
-2.90395E-3	-113.740E-12	644.432E-3	-9.73845E-3	-113.716E-12	700.100E-3	11.8735E-3
-2.90895E-3	-114.729E-12	659.544E-3	-11.2494E-3	-114.885E-12	704.671E-3	921.160E-6
-2.91396E-3	-114.978E-12	678.714E-3	-4.43402E-3	-114.910E-12	687.294E-3	-35.2941E-3
-2.91896E-3	-115.841E-12	689.123E-3	-25.9756E-3	-115.592E-12	677.753E-3	-53.1299E-3
-2.92396E-3	-116.366E-12	688.845E-3	-41.3911E-3	-115.589E-12	677.103E-3	-42.4318E-3
-2.92896E-3	-117.013E-12	674.061E-3	-21.6107E-3	-116.100E-12	686.034E-3	-6.80862E-3
-2.93397E-3	-117.557E-12	661.195E-3	-16.9071E-3	-117.271E-12	688.170E-3	8.50989E-3
-2.93897E-3	-117.690E-12	672.010E-3	-18.6007E-3	-117.767E-12	674.913E-3	-14.7880E-3
-2.94397E-3	-117.770E-12	698.197E-3	9.18684E-3	-117.700E-12	666.208E-3	-30.5735E-3
-2.94897E-3	-117.997E-12	708.721E-3	29.7055E-3	-118.122E-12	672.103E-3	-13.7949E-3
-2.95398E-3	-117.768E-12	698.961E-3	19.4548E-3	-119.222E-12	683.014E-3	7.67835E-3
-2.95898E-3	-117.383E-12	689.708E-3	-973.092E-6	-119.121E-12	687.762E-3	11.2600E-3
-2.96398E-3	-116.909E-12	697.141E-3	-21.7419E-3	-119.502E-12	691.705E-3	-1.87650E-3
-2.96898E-3	-116.655E-12	705.863E-3	-27.8104E-3	-118.794E-12	701.398E-3	-27.1547E-3
-2.97399E-3	-116.441E-12	683.703E-3	-13.8131E-3	-118.783E-12	702.988E-3	-45.0340E-3
-2.97899E-3	-116.061E-12	649.546E-3	-17.5383E-3	-119.222E-12	683.869E-3	-27.2904E-3
-2.98399E-3	-116.359E-12	633.256E-3	-44.2269E-3	-118.913E-12	666.781E-3	-4.30487E-3
-2.98899E-3	-116.802E-12	636.971E-3	-46.9521E-3	-117.816E-12	657.503E-3	-29.7107E-3
-2.99400E-3	-117.582E-12	657.612E-3	-37.1477E-3	-117.781E-12	647.766E-3	-44.0746E-3
-2.99900E-3	-117.533E-12	668.654E-3	-35.7033E-3	-117.671E-12	651.700E-3	-25.0952E-3
-3.00400E-3	-118.808E-12	655.791E-3	-26.7310E-3	-117.321E-12	659.205E-3	-18.0628E-3
-3.00900E-3	-119.745E-12	636.672E-3	-24.2218E-3	-117.524E-12	659.071E-3	-9.24254E-3
-3.01401E-3	-120.638E-12	641.888E-3	-36.7674E-3	-117.593E-12	674.556E-3	-9.61194E-3
-3.01901E-3	-120.894E-12	675.835E-3	-37.9571E-3	-118.386E-12	695.966E-3	-32.7153E-3
-3.02401E-3	-121.635E-12	695.082E-3	-26.9160E-3	-118.998E-12	700.701E-3	-27.6639E-3
-3.02901E-3	-121.969E-12	688.734E-3	-28.3063E-3	-119.803E-12	703.440E-3	-408.037E-6
-3.03402E-3	-122.169E-12	689.217E-3	-19.6898E-3	-120.250E-12	699.403E-3	811.454E-6
-3.03902E-3	-122.517E-12	702.194E-3	343.453E-6	-121.447E-12	687.717E-3	-7.98201E-3
-3.04402E-3	-122.549E-12	705.413E-3	-6.82453E-3	-122.214E-12	696.246E-3	-22.9086E-3
-3.04902E-3	-122.111E-12	699.289E-3	-25.3638E-3	-123.193E-12	717.083E-3	-31.2869E-3
-3.05403E-3	-121.689E-12	699.911E-3	-23.2079E-3	-123.539E-12	723.426E-3	-3.34290E-3
-3.05903E-3	-121.512E-12	687.859E-3	-14.7314E-3	-123.896E-12	708.352E-3	25.4709E-3
-3.06403E-3	-121.390E-12	667.575E-3	-10.7833E-3	-123.867E-12	690.154E-3	12.1593E-3
-3.06903E-3	-120.779E-12	666.233E-3	-12.0782E-3	-124.090E-12	675.717E-3	-19.8363E-3
-3.07404E-3	-120.398E-12	665.873E-3	-30.4194E-3	-123.961E-12	668.559E-3	-19.0809E-3
-3.07904E-3	-120.505E-12	656.548E-3	-38.4429E-3	-123.115E-12	681.334E-3	-3.04570E-3
-3.08404E-3	-121.256E-12	649.238E-3	-17.5619E-3	-122.737E-12	678.981E-3	-17.8057E-3
-3.08904E-3	-121.804E-12	640.007E-3	-6.97572E-3	-121.934E-12	664.942E-3	-32.1517E-3
-3.09405E-3	-122.019E-12	650.385E-3	-21.4968E-3	-121.378E-12	676.582E-3	-23.8398E-3
-3.09905E-3	-122.906E-12	662.335E-3	-26.0811E-3	-121.448E-12	687.982E-3	-8.17282E-3
-3.10405E-3	-123.890E-12	638.650E-3	-20.9360E-3	-121.421E-12	681.632E-3	5.45129E-3
-3.10905E-3	-125.233E-12	625.603E-3	-21.0415E-3	-121.689E-12	668.504E-3	-339.539E-6
-3.11406E-3	-125.592E-12	648.511E-3	-18.8052E-3	-122.388E-12	660.739E-3	-14.6680E-3
-3.11906E-3	-126.256E-12	665.790E-3	-17.4278E-3	-123.007E-12	673.635E-3	-24.0018E-3
-3.12406E-3	-126.351E-12	659.305E-3	-9.44753E-3	-123.725E-12	695.062E-3	-43.5523E-3
-3.12906E-3	-127.171E-12	664.426E-3	7.36166E-3	-125.249E-12	698.796E-3	-44.5157E-3
-3.13407E-3	-127.010E-12	683.824E-3	-4.54755E-3	-126.141E-12	683.871E-3	-11.9111E-3
-3.13907E-3	-126.847E-12	693.521E-3	-30.4958E-3	-126.813E-12	670.501E-3	-9.82881E-3
-3.14407E-3	-126.239E-12	694.514E-3	-23.1956E-3	-127.822E-12	676.422E-3	-36.9254E-3
-3.14907E-3	-126.763E-12	678.088E-3	-11.3843E-3	-128.192E-12	671.747E-3	-39.7725E-3
-3.15408E-3	-126.112E-12	666.856E-3	-10.9794E-3	-128.426E-12	658.732E-3	-22.8245E-3
-3.15908E-3	-125.775E-12	667.176E-3	-11.7551E-3	-128.493E-12	670.201E-3	-23.5902E-3
-3.16408E-3	-125.171E-12	654.384E-3	-25.2257E-3	-128.312E-12	677.661E-3	-39.5440E-3
-3.16908E-3	-125.446E-12	649.448E-3	-34.8560E-3	-127.819E-12	679.444E-3	-30.6008E-3
-3.17409E-3	-125.330E-12	667.052E-3	-32.7704E-3	-127.693E-12	693.281E-3	-24.0498E-3
-3.17909E-3	-125.775E-12	678.471E-3	-16.3856E-3	-126.538E-12	693.595E-3	-31.7960E-3
-3.18409E-3	-125.508E-12	666.311E-3	-774.746E-6	-126.652E-12	684.905E-3	-18.1083E-3
-3.18909E-3	-125.893E-12	662.585E-3	-15.0508E-3	-126.215E-12	680.593E-3	-8.01188E-3
-3.19410E-3	-126.730E-12	680.848E-3	-33.2324E-3	-126.389E-12	667.977E-3	-13.5036E-3
-3.19910E-3	-127.542E-12	680.617E-3	-35.1395E-3	-126.318E-12	670.785E-3	-16.2181E-3
-3.20410E-3	-128.040E-12	667.704E-3	-32.2027E-3	-127.099E-12	685.170E-3	-17.5120E-3
-3.20910E-3	-128.870E-12	664.770E-3	-26.3872E-3	-127.406E-12	678.535E-3	-22.9196E-3
-3.21411E-3	-129.363E-12	657.497E-3	-19.2629E-3	-128.161E-12	686.024E-3	-11.0939E-3
-3.21911E-3	-130.129E-12	654.031E-3	-27.0300E-3	-128.583E-12	717.242E-3	-2.66226E-3
-3.22411E-3	-130.431E-12	669.556E-3	-38.6992E-3	-129.433E-12	716.352E-3	-14.3356E-3
-3.22911E-3	-130.527E-12	689.753E-3	-37.1839E-3	-130.312E-12	698.943E-3	-5.92031E-3
-3.23412E-3	-130.324E-12	696.694E-3	-18.0627E-3	-130.727E-12	699.013E-3	11.9324E-3
-3.23912E-3	-130.697E-12	684.438E-3	2.53200E-3	-130.928E-12	686.430E-3	6.18714E-3
-3.24412E-3	-130.581E-12	666.322E-3	-9.54937E-3	-131.163E-12	688.606E-3	-12.9308E-3
-3.24912E-3	-130.760E-12	678.606E-3	-23.6035E-3	-131.748E-12	713.355E-3	-23.2506E-3
-3.25413E-3	-130.177E-12	700.871E-3	-16.6130E-3	-131.731E-12	689.711E-3	-28.4673E-3
-3.25913E-3	-130.490E-12	690.987E-3	-8.41960E-3	-131.646E-12	654.020E-3	-32.1157E-3
-3.26413E-3	-130.710E-12	682.145E-3	-5.54856E-3	-131.666E-12	659.429E-3	-35.5571E-3
-3.26913E-3	-130.351E-12	681.293E-3	-14.3376E-3	-131.753E-12	655.038E-3	-33.8985E-3
-3.27414E-3	-130.016E-12	668.211E-3	-29.6363E-3	-131.230E-12	655.600E-3	-12.4614E-3
-3.27914E-3	-130.445E-12	665.643E-3	-32.7474E-3	-131.241E-12	685.635E-3	-2.99082E-3
-3.28414E-3	-130.660E-12	665.793E-3	-17.5254E-3	-131.702E-12	691.667E-3	-24.8398E-3
-3.28914E-3	-130.843E-12	657.015E-3	-5.16483E-3	-132.228E-12	664.265E-3	-40.1620E-3
-3.29415E-3	-131.210E-12	659.880E-3	-9.45282E-3	-131.920E-12	658.342E-3	-25.8842E-3
-3.29915E-3	-131.583E-12	677.315E-3	-27.9444E-3	-132.216E-12	673.687E-3	-7.74203E-3
-3.30415E-3	-131.915E-12	678.831E-3	-48.2089E-3	-133.162E-12	674.336E-3	5.84317E-3
-3.30915E-3	-132.199E-12	660.984E-3	-62.1903E-3	-133.692E-12	664.592E-3	9.88485E-3
-3.31416E-3	-132.721E-12	662.712E-3	-52.3625E-3	-134.167E-12	655.105E-3	-21.1780E-3
-3.31916E-3	-133.354E-12	675.093E-3	-21.9357E-3	-134.111E-12	655.731E-3	-45.9955E-3
-3.32416E-3	-133.943E-12	679.825E-3	-10.4683E-3	-134.799E-12	675.892E-3	-34.1494E-3
-3.32916E-3	-133.925E-12	683.572E-3	-12.7419E-3	-134.925E-12	693.749E-3	-17.6434E-3
-3.33417E-3	-134.575E-12	669.126E-3	-8.57281E-3	-134.616E-12	672.668E-3	-21.0476E-3
-3.33917E-3	-135.229E-12	659.959E-3	-17.6726E-3	-134.878E-12	655.854E-3	-44.8676E-3
-3.34417E-3	-135.329E-12	681.442E-3	-25.3486E-3	-134.859E-12	691.924E-3	-66.1159E-3
-3.34917E-3	-135.174E-12	679.918E-3	-12.9488E-3	-135.007E-12	723.616E-3	-60.7958E-3
-3.35418E-3	-136.162E-12	659.675E-3	-10.4001E-3	-134.630E-12	715.493E-3	-33.4056E-3
-3.35918E-3	-136.445E-12	671.300E-3	-18.4851E-3	-135.198E-12	684.486E-3	-21.8002E-3
-3.36418E-3	-136.076E-12	686.360E-3	-4.75491E-3	-134.864E-12	651.060E-3	-35.3129E-3
-3.36918E-3	-136.134E-12	677.503E-3	1.07073E-3	-135.120E-12	664.821E-3	-34.4269E-3
-3.37419E-3	-136.747E-12	661.514E-3	-17.7374E-3	-135.333E-12	695.881E-3	-20.4851E-3
-3.37919E-3	-136.571E-12	645.463E-3	-26.0039E-3	-136.079E-12	686.109E-3	-23.5735E-3
-3.38419E-3	-135.964E-12	653.493E-3	-33.3598E-3	-136.048E-12	672.996E-3	-24.7005E-3
-3.38919E-3	-135.889E-12	674.817E-3	-45.0906E-3	-136.852E-12	688.616E-3	-16.6879E-3
-3.39420E-3	-135.976E-12	668.498E-3	-32.2522E-3	-136.941E-12	699.612E-3	-26.6476E-3
-3.39920E-3	-135.239E-12	653.136E-3	-14.2351E-3	-137.366E-12	684.988E-3	-28.5524E-3
-3.40420E-3	-135.744E-12	650.779E-3	-8.68701E-3	-137.585E-12	675.325E-3	-14.3772E-3
-3.40920E-3	-135.595E-12	649.146E-3	-545.105E-6	-138.323E-12	669.461E-3	-20.3838E-3
-3.41421E-3	-135.469E-12	640.574E-3	-9.11691E-3	-138.343E-12	652.455E-3	-25.9781E-3
-3.41921E-3	-135.784E-12	644.477E-3	-26.8913E-3	-138.184E-12	662.633E-3	-18.4279E-3
-3.42421E-3	-136.534E-12	659.934E-3	-27.6467E-3	-137.834E-12	688.287E-3	-10.5012E-3
-3.42921E-3	-136.770E-12	657.159E-3	-12.5744E-3	-138.173E-12	679.265E-3	7.44966E-3
-3.43422E-3	-138.002E-12	647.364E-3	-13.3759E-3	-137.898E-12	651.614E-3	13.9287E-3
-3.43922E-3	-138.856E-12	658.973E-3	-24.9415E-3	-137.740E-12	636.915E-3	2.30691E-3
-3.44422E-3	-139.685E-12	682.309E-3	-10.6244E-3	-137.139E-12	636.259E-3	4.41500E-3
-3.44922E-3	-140.504E-12	699.566E-3	4.01600E-3	-138.124E-12	656.208E-3	2.90414E-3
-3.45423E-3	-141.619E-12	707.078E-3	4.74262E-3	-138.291E-12	675.308E-3	-17.0073E-3
-3.45923E-3	-142.060E-12	697.906E-3	6.71538E-3	-138.851E-12	646.429E-3	-23.0447E-3
-3.46423E-3	-142.153E-12	684.184E-3	-7.45299E-3	-138.886E-12	596.483E-3	-12.5710E-3
-3.46923E-3	-142.245E-12	678.234E-3	-21.2018E-3	-139.528E-12	601.150E-3	-10.5969E-3
-3.47424E-3	-142.433E-12	664.911E-3	-12.2912E-3	-140.159E-12	638.073E-3	-21.9060E-3
-3.47924E-3	-142.028E-12	641.835E-3	-8.38310E-3	-141.479E-12	654.078E-3	-19.3731E-3
-3.48424E-3	-140.988E-12	643.611E-3	-13.8305E-3	-141.914E-12	666.674E-3	-804.182E-6
-3.48924E-3	-140.178E-12	658.210E-3	-7.04020E-3	-142.294E-12	672.180E-3	-4.80936E-3
-3.49425E-3	-139.980E-12	645.182E-3	2.56082E-3	-143.101E-12	657.475E-3	-17.3014E-3
-3.49925E-3	-139.828E-12	643.161E-3	5.77711E-3	-143.734E-12	656.779E-3	-14.6030E-3
-3.50425E-3	-139.392E-12	658.269E-3	8.75391E-3	-142.941E-12	663.139E-3	-16.2294E-3
-3.50925E-3	-139.648E-12	661.300E-3	10.5154E-3	-142.578E-12	652.322E-3	-17.7144E-3
-3.51426E-3	-140.376E-12	672.695E-3	7.49065E-3	-143.042E-12	656.085E-3	-11.7495E-3
-3.51926E-3	-140.473E-12	694.784E-3	12.2826E-3	-142.660E-12	661.445E-3	-8.20599E-3
-3.52426E-3	-141.452E-12	691.928E-3	14.1870E-3	-142.204E-12	655.760E-3	4.31423E-3
-3.52926E-3	-142.413E-12	659.436E-3	-5.87357E-3	-141.729E-12	673.513E-3	26.6913E-3
-3.53427E-3	-143.600E-12	645.425E-3	-10.8373E-3	-142.147E-12	682.366E-3	17.6239E-3
-3.53927E-3	-144.503E-12	664.542E-3	441.494E-6	-142.206E-12	656.696E-3	-7.03366E-3
-3.54427E-3	-145.178E-12	682.934E-3	-14.7139E-3	-142.679E-12	648.318E-3	-11.1734E-3
-3.54927E-3	-145.744E-12	682.642E-3	-30.1369E-3	-142.705E-12	646.269E-3	-28.1463E-3
-3.55428E-3	-146.423E-12	677.344E-3	-23.9887E-3	-143.499E-12	628.001E-3	-37.9679E-3
-3.55928E-3	-146.182E-12	679.024E-3	-17.2729E-3	-144.533E-12	640.075E-3	-23.2092E-3
-3.56428E-3	-146.738E-12	674.908E-3	-1.68662E-3	-145.629E-12	667.217E-3	-23.1080E-3
-3.56928E-3	-146.777E-12	667.972E-3	5.77823E-3	-146.045E-12	671.040E-3	-25.7461E-3
-3.57429E-3	-146.358E-12	675.795E-3	-18.1314E-3	-146.700E-12	678.155E-3	-6.11546E-3
-3.57929E-3	-146.295E-12	676.623E-3	-25.4758E-3	-147.501E-12	683.923E-3	5.38353E-3
-3.58429E-3	-145.699E-12	646.079E-3	-20.1379E-3	-147.872E-12	658.449E-3	-4.00633E-3
-3.58929E-3	-145.696E-12	621.993E-3	-40.2113E-3	-147.407E-12	636.156E-3	-7.06747E-3
-3.59430E-3	-145.374E-12	638.339E-3	-42.8453E-3	-146.808E-12	635.604E-3	-11.7727E-3
-3.59930E-3	-144.846E-12	656.556E-3	-19.3043E-3	-146.786E-12	645.584E-3	-10.6484E-3
-3.60430E-3	-144.257E-12	657.726E-3	-11.7897E-3	-145.986E-12	667.670E-3	15.4176E-3
-3.60930E-3	-145.395E-12	652.690E-3	-17.9898E-3	-144.907E-12	679.533E-3	31.4072E-3
-3.61431E-3	-145.033E-12	651.202E-3	-13.4257E-3	-144.624E-12	663.048E-3	6.91143E-3
-3.61931E-3	-145.289E-12	669.470E-3	-19.2431E-3	-144.280E-12	638.893E-3	-26.4917E-3
-3.62431E-3	-145.746E-12	668.841E-3	-37.1786E-3	-143.999E-12	638.455E-3	-30.8276E-3
-3.62931E-3	-146.463E-12	643.728E-3	-42.4899E-3	-144.020E-12	648.276E-3	-20.2218E-3
-3.63432E-3	-147.572E-12	640.985E-3	-36.8556E-3	-143.565E-12	636.330E-3	-7.78913E-3
-3.63932E-3	-148.788E-12	649.510E-3	-22.7851E-3	-145.115E-12	627.444E-3	-6.64309E-3
-3.64432E-3	-149.180E-12	654.012E-3	-6.35183E-3	-146.154E-12	653.630E-3	-38.3379E-3
-3.64932E-3	-149.200E-12	655.504E-3	2.58626E-3	-146.644E-12	691.305E-3	-64.7183E-3
-3.65433E-3	-149.782E-12	659.922E-3	-8.28016E-3	-147.922E-12	704.146E-3	-45.7242E-3
-3.65933E-3	-149.475E-12	672.219E-3	-20.1106E-3	-149.438E-12	696.085E-3	-22.7488E-3
-3.66433E-3	-149.290E-12	666.705E-3	-9.47889E-3	-151.276E-12	702.964E-3	-21.8884E-3
-3.66933E-3	-149.102E-12	655.426E-3	2.93771E-3	-151.798E-12	706.850E-3	-34.2865E-3
-3.67434E-3	-149.039E-12	654.091E-3	-1.01943E-3	-152.023E-12	683.644E-3	-61.0617E-3
-3.67934E-3	-148.864E-12	648.486E-3	-10.8026E-3	-152.240E-12	673.201E-3	-68.5690E-3
-3.68434E-3	-149.608E-12	652.624E-3	-29.6146E-3	-152.009E-12	667.277E-3	-49.6200E-3
-3.68934E-3	-149.134E-12	671.129E-3	-36.3312E-3	-151.630E-12	641.960E-3	-38.5494E-3
-3.69435E-3	-149.064E-12	671.910E-3	-16.7752E-3	-150.682E-12	626.462E-3	-37.6857E-3
-3.69935E-3	-148.725E-12	651.182E-3	-3.60304E-3	-149.807E-12	638.240E-3	-31.6936E-3
-3.70435E-3	-149.483E-12	647.417E-3	1.15322E-3	-149.428E-12	666.570E-3	-13.0867E-3
-3.70935E-3	-149.048E-12	660.582E-3	7.17903E-3	-149.547E-12	685.276E-3	22.0660E-3
-3.71436E-3	-149.705E-12	678.473E-3	-1.82029E-3	-148.461E-12	688.815E-3	30.0618E-3
-3.71936E-3	-150.502E-12	712.371E-3	-5.48779E-3	-149.151E-12	680.832E-3	4.46560E-3
-3.72436E-3	-151.610E-12	715.914E-3	15.8943E-3	-149.726E-12	668.403E-3	17.4400E-3
-3.72936E-3	-151.674E-12	678.223E-3	16.0455E-3	-149.988E-12	676.094E-3	40.9951E-3
-3.73437E-3	-152.597E-12	671.705E-3	-7.42344E-3	-151.365E-12	677.153E-3	29.2184E-3
-3.73937E-3	-153.779E-12	691.507E-3	-14.4892E-3	-152.664E-12	652.254E-3	23.3924E-3
-3.74437E-3	-154.243E-12	685.566E-3	-6.35539E-3	-153.586E-12	647.340E-3	19.7266E-3
-3.74937E-3	-154.072E-12	659.669E-3	-530.099E-6	-154.327E-12	662.998E-3	-17.9961E-3
-3.75438E-3	-154.213E-12	637.642E-3	-5.73398E-3	-156.040E-12	661.432E-3	-38.1440E-3
-3.75938E-3	-154.585E-12	625.837E-3	-5.50087E-3	-156.675E-12	650.110E-3	-7.56522E-3
-3.76438E-3	-154.747E-12	625.806E-3	-4.96238E-3	-157.400E-12	661.456E-3	2.65105E-3
-3.76938E-3	-154.524E-12	634.950E-3	-8.01337E-3	-157.261E-12	687.075E-3	-23.3719E-3
-3.77439E-3	-154.835E-12	648.198E-3	-9.55318E-3	-157.076E-12	692.200E-3	-35.5547E-3
-3.77939E-3	-154.777E-12	658.334E-3	-17.6760E-3	-156.579E-12	679.276E-3	-28.0451E-3
-3.78439E-3	-154.874E-12	666.811E-3	-28.3955E-3	-155.869E-12	665.264E-3	-213.091E-6
-3.78939E-3	-155.002E-12	664.202E-3	-37.2200E-3	-155.549E-12	667.123E-3	32.1458E-3
-3.79440E-3	-154.594E-12	669.077E-3	-36.5414E-3	-154.809E-12	691.162E-3	26.2615E-3
-3.79940E-3	-154.861E-12	677.029E-3	-31.2186E-3	-154.720E-12	701.455E-3	-2.51243E-3
-3.80440E-3	-155.429E-12	666.273E-3	-16.5024E-3	-154.291E-12	677.770E-3	-9.18331E-3
-3.80940E-3	-154.834E-12	677.086E-3	-224.078E-6	-153.803E-12	653.258E-3	-7.95102E-3
-3.81441E-3	-154.821E-12	683.771E-3	-11.2826E-3	-153.675E-12	651.993E-3	-23.0224E-3
-3.81941E-3	-155.622E-12	669.092E-3	-27.4514E-3	-154.769E-12	664.284E-3	-29.2529E-3
-3.82441E-3	-155.829E-12	662.994E-3	-30.8185E-3	-154.686E-12	685.356E-3	-25.2569E-3
-3.82941E-3	-155.583E-12	647.000E-3	-48.6562E-3	-155.080E-12	710.333E-3	-35.7627E-3
-3.83442E-3	-155.801E-12	635.011E-3	-63.4775E-3	-155.636E-12	715.833E-3	-24.2323E-3
-3.83942E-3	-155.735E-12	642.268E-3	-50.5790E-3	-156.530E-12	700.693E-3	8.37778E-3
-3.84442E-3	-156.247E-12	646.667E-3	-31.2964E-3	-156.401E-12	676.350E-3	595.215E-6
-3.84942E-3	-156.477E-12	646.762E-3	-25.6887E-3	-157.188E-12	655.679E-3	-14.2911E-3
-3.85443E-3	-156.732E-12	649.054E-3	-24.7467E-3	-156.932E-12	661.018E-3	-10.1611E-3
-3.85943E-3	-157.003E-12	660.840E-3	-18.2244E-3	-156.923E-12	666.556E-3	-22.7641E-3
-3.86443E-3	-157.329E-12	672.224E-3	-20.5163E-3	-156.585E-12	639.866E-3	-27.0083E-3
-3.86943E-3	-157.103E-12	671.329E-3	-40.7596E-3	-157.346E-12	622.151E-3	-4.50187E-3
-3.87444E-3	-157.847E-12	679.816E-3	-42.4604E-3	-157.243E-12	637.770E-3	760.760E-6
-3.87944E-3	-157.924E-12	670.725E-3	-26.4090E-3	-157.168E-12	634.814E-3	-6.31668E-3
-3.88444E-3	-158.930E-12	632.423E-3	-36.5088E-3	-157.249E-12	630.106E-3	7.28115E-3
-3.88944E-3	-158.301E-12	625.796E-3	-36.9083E-3	-157.905E-12	653.564E-3	6.09408E-3
-3.89445E-3	-158.781E-12	658.159E-3	854.728E-6	-159.090E-12	644.696E-3	-19.9694E-3
-3.89945E-3	-159.909E-12	691.392E-3	18.5301E-3	-159.585E-12	638.060E-3	-33.0989E-3
-3.90445E-3	-159.870E-12	699.170E-3	391.698E-6	-159.762E-12	680.633E-3	-29.5996E-3
-3.90945E-3	-159.110E-12	685.772E-3	-8.76561E-3	-160.169E-12	692.305E-3	-16.5259E-3
-3.91446E-3	-159.479E-12	660.375E-3	1.14316E-3	-161.675E-12	651.974E-3	7.43092E-3
-3.91946E-3	-159.705E-12	642.827E-3	11.6424E-3	-161.441E-12	632.645E-3	16.6807E-3
-3.92446E-3	-159.358E-12	655.777E-3	7.13923E-3	-161.670E-12	649.182E-3	-1.83008E-3
-3.92946E-3	-159.541E-12	668.662E-3	-7.25051E-3	-162.523E-12	654.951E-3	-3.18438E-3
-3.93447E-3	-159.799E-12	667.590E-3	-21.0659E-3	-161.800E-12	646.019E-3	25.0111E-3
-3.93947E-3	-159.987E-12	671.295E-3	-20.7328E-3	-160.930E-12	657.944E-3	19.5262E-3
-3.94447E-3	-160.806E-12	671.359E-3	-5.88802E-3	-160.617E-12	660.063E-3	-11.6122E-3
-3.94947E-3	-161.364E-12	658.781E-3	-3.36466E-3	-160.609E-12	651.496E-3	-7.39636E-3
-3.95448E-3	-161.322E-12	653.482E-3	-10.5051E-3	-159.837E-12	659.064E-3	11.9893E-6
-3.95948E-3	-162.070E-12	660.167E-3	-6.06501E-3	-159.960E-12	663.788E-3	-5.14421E-3
-3.96448E-3	-163.127E-12	666.041E-3	13.7043E-3	-159.496E-12	684.431E-3	3.10123E-3
-3.96948E-3	-163.843E-12	680.281E-3	15.5016E-3	-160.738E-12	703.768E-3	-3.70204E-3
-3.97449E-3	-164.835E-12	682.959E-3	10.5533E-3	-160.951E-12	680.128E-3	-29.1354E-3
-3.97949E-3	-165.314E-12	660.132E-3	22.5494E-3	-162.160E-12	662.032E-3	-42.4750E-3
-3.98449E-3	-165.472E-12	663.223E-3	14.0727E-3	-163.931E-12	668.383E-3	-39.1486E-3
-3.98949E-3	-165.928E-12	685.834E-3	-5.11977E-3	-164.905E-12	645.180E-3	-22.2155E-3
-3.99450E-3	-166.328E-12	681.366E-3	-11.6842E-3	-165.389E-12	629.651E-3	-14.5404E-3
-3.99950E-3	-165.018E-12	662.683E-3	-11.1030E-3	-166.306E-12	655.729E-3	-31.4459E-3
-4.00450E-3	-164.322E-12	667.690E-3	-25.4759E-3	-167.352E-12	670.401E-3	-39.8483E-3
-4.00950E-3	-164.499E-12	685.803E-3	-35.5316E-3	-168.065E-12	666.227E-3	-30.0588E-3
-4.01451E-3	-163.528E-12	687.950E-3	-25.3485E-3	-168.163E-12	640.288E-3	-28.7936E-3
-4.01951E-3	-162.716E-12	687.831E-3	-23.3458E-3	-167.378E-12	607.963E-3	-38.1632E-3
-4.02451E-3	-162.285E-12	674.693E-3	-22.4121E-3	-166.664E-12	638.397E-3	-33.2397E-3
-4.02951E-3	-161.639E-12	647.535E-3	-24.3770E-3	-166.108E-12	682.340E-3	-15.8963E-3
-4.03452E-3	-161.735E-12	648.672E-3	-30.0622E-3	-164.495E-12	651.316E-3	-18.7040E-3
-4.03952E-3	-162.556E-12	676.273E-3	-25.1416E-3	-163.160E-12	605.519E-3	-31.8997E-3
-4.04452E-3	-162.792E-12	686.316E-3	-11.2023E-3	-161.730E-12	613.056E-3	-20.0482E-3
-4.04952E-3	-163.580E-12	660.992E-3	11.0134E-3	-161.298E-12	637.252E-3	-27.4545E-3
-4.05453E-3	-164.741E-12	633.237E-3	24.4199E-3	-160.938E-12	642.128E-3	-49.0425E-3
-4.05953E-3	-165.824E-12	637.612E-3	17.3459E-3	-160.662E-12	638.876E-3	-31.1365E-3
-4.06453E-3	-166.883E-12	637.170E-3	5.46748E-3	-160.853E-12	638.355E-3	-12.5040E-3
-4.06953E-3	-168.378E-12	627.019E-3	-4.73821E-3	-161.933E-12	628.736E-3	-19.2195E-3
-4.07454E-3	-168.941E-12	647.137E-3	-27.3143E-3	-163.874E-12	625.057E-3	-34.5602E-3
-4.07954E-3	-170.135E-12	671.094E-3	-35.9304E-3	-165.439E-12	656.295E-3	-44.6288E-3
-4.08454E-3	-170.922E-12	671.119E-3	-18.0840E-3	-167.343E-12	682.022E-3	-31.0387E-3
-4.08954E-3	-170.420E-12	664.001E-3	-14.4440E-3	-168.897E-12	677.917E-3	-16.5562E-3
-4.09455E-3	-170.386E-12	659.827E-3	-12.4870E-3	-170.622E-12	675.017E-3	-38.7954E-3
-4.09955E-3	-170.937E-12	651.284E-3	-7.37092E-3	-172.400E-12	664.263E-3	-48.1905E-3
-4.10455E-3	-169.518E-12	638.967E-3	-16.4392E-3	-173.367E-12	651.689E-3	-23.9198E-3
-4.10955E-3	-168.038E-12	637.778E-3	-18.1833E-3	-172.620E-12	656.725E-3	-26.7933E-3
-4.11456E-3	-167.567E-12	653.021E-3	-16.5012E-3	-172.478E-12	646.472E-3	-42.7537E-3
-4.11956E-3	-167.095E-12	662.618E-3	-13.0142E-3	-171.914E-12	634.886E-3	-33.0279E-3
-4.12456E-3	-166.655E-12	657.297E-3	-4.98970E-3	-170.884E-12	655.417E-3	-13.7077E-3
-4.12956E-3	-166.287E-12	649.956E-3	-10.3043E-3	-169.793E-12	671.827E-3	6.25379E-3
-4.13457E-3	-165.904E-12	643.503E-3	-23.6530E-3	-168.568E-12	666.630E-3	19.9548E-3
-4.13957E-3	-166.699E-12	648.161E-3	-35.2374E-3	-168.151E-12	647.590E-3	9.65080E-3
-4.14457E-3	-167.642E-12	652.943E-3	-37.6750E-3	-167.721E-12	619.739E-3	-15.8070E-3
-4.14957E-3	-168.670E-12	636.785E-3	-38.2349E-3	-167.679E-12	613.872E-3	-10.7349E-3
-4.15458E-3	-170.494E-12	637.055E-3	-31.3767E-3	-167.141E-12	626.137E-3	10.4098E-3
-4.15958E-3	-172.234E-12	663.519E-3	-20.5569E-3	-167.757E-12	617.489E-3	9.17095E-3
-4.16458E-3	-173.326E-12	676.638E-3	-19.2274E-3	-168.819E-12	605.806E-3	7.89319E-3
-4.16958E-3	-174.241E-12	661.161E-3	-7.59701E-3	-169.848E-12	625.747E-3	-7.50981E-3
-4.17459E-3	-175.269E-12	643.850E-3	16.0694E-3	-170.935E-12	647.800E-3	-41.6823E-3
-4.17959E-3	-174.914E-12	657.780E-3	23.8212E-3	-172.045E-12	660.078E-3	-43.9615E-3
-4.18459E-3	-175.094E-12	676.529E-3	7.27205E-3	-174.644E-12	674.320E-3	-18.8682E-3
-4.18959E-3	-175.016E-12	683.414E-3	-16.0202E-3	-174.794E-12	664.751E-3	-32.5620E-3
-4.19460E-3	-174.363E-12	677.190E-3	-32.2297E-3	-175.710E-12	633.400E-3	-64.8651E-3
-4.19960E-3	-173.273E-12	659.865E-3	-38.9833E-3	-177.036E-12	629.426E-3	-59.8738E-3
-4.20460E-3	-172.477E-12	658.103E-3	-28.1437E-3	-176.568E-12	644.129E-3	-38.6121E-3
-4.20960E-3	-172.238E-12	676.821E-3	826.041E-6	-175.271E-12	633.205E-3	-20.7598E-3
-4.21461E-3	-171.456E-12	679.863E-3	26.5863E-3	-175.769E-12	614.675E-3	-6.17433E-3
-4.21961E-3	-170.730E-12	657.379E-3	12.0487E-3	-175.111E-12	606.178E-3	3.51486E-3
-4.22461E-3	-170.805E-12	647.932E-3	-15.3437E-3	-173.444E-12	602.814E-3	11.0673E-3
-4.22961E-3	-171.182E-12	642.858E-3	-21.1552E-3	-173.832E-12	640.420E-3	14.8226E-3
-4.23462E-3	-170.633E-12	636.062E-3	-27.6821E-3	-173.410E-12	681.093E-3	16.3857E-3
-4.23962E-3	-171.458E-12	647.546E-3	-29.9675E-3	-172.627E-12	646.204E-3	7.31563E-3
-4.24462E-3	-172.191E-12	653.962E-3	-17.7581E-3	-172.832E-12	608.107E-3	-14.6344E-3
-4.24962E-3	-173.949E-12	651.645E-3	-15.3843E-3	-174.106E-12	636.970E-3	-36.5367E-3
-4.25463E-3	-174.198E-12	653.326E-3	-17.5451E-3	-172.954E-12	657.761E-3	-36.7158E-3
-4.25963E-3	-174.720E-12	665.968E-3	3.51103E-3	-173.433E-12	639.563E-3	-2.88199E-3
-4.26463E-3	-176.423E-12	676.885E-3	13.6345E-3	-174.258E-12	624.400E-3	-4.79790E-3
-4.26963E-3	-177.466E-12	668.112E-3	25.4273E-3	-174.582E-12	600.285E-3	-60.0091E-3
-4.27464E-3	-176.824E-12	667.546E-3	33.0238E-3	-175.270E-12	598.536E-3	-61.5556E-3
-4.27964E-3	-177.554E-12	687.905E-3	10.9318E-3	-175.391E-12	647.653E-3	-2.44185E-3
-4.28464E-3	-177.348E-12	692.305E-3	10.4648E-3	-175.522E-12	661.569E-3	45.3161E-3
-4.28964E-3	-177.481E-12	667.542E-3	9.53648E-3	-176.294E-12	630.033E-3	59.8824E-3
-4.29465E-3	-177.262E-12	656.250E-3	-21.1608E-3	-176.759E-12	621.154E-3	35.0249E-3
-4.29965E-3	-178.591E-12	673.100E-3	-39.8092E-3	-176.613E-12	620.927E-3	-14.3903E-3
-4.30465E-3	-177.958E-12	686.427E-3	-32.5460E-3	-177.494E-12	620.667E-3	-20.0830E-3
-4.30965E-3	-177.933E-12	673.947E-3	-23.0123E-3	-177.508E-12	656.715E-3	5.41763E-3
-4.31466E-3	-178.503E-12	647.298E-3	-12.5456E-3	-177.327E-12	674.938E-3	-12.5709E-3
-4.31966E-3	-178.074E-12	631.323E-3	-5.48945E-3	-178.317E-12	630.624E-3	-42.2408E-3
-4.32466E-3	-177.830E-12	636.639E-3	-26.3929E-3	-178.422E-12	608.517E-3	-35.1615E-3
-4.32966E-3	-177.849E-12	656.882E-3	-31.3947E-3	-179.263E-12	637.573E-3	-25.4663E-3
-4.33467E-3	-177.617E-12	665.768E-3	-16.1013E-3	-180.597E-12	657.013E-3	-12.4787E-3
-4.33967E-3	-178.294E-12	658.314E-3	-23.1987E-3	-181.398E-12	678.777E-3	5.04582E-3
-4.34467E-3	-178.707E-12	641.434E-3	-19.6099E-3	-181.743E-12	709.165E-3	-26.4674E-3
-4.34967E-3	-178.898E-12	631.428E-3	14.3026E-3	-183.056E-12	712.825E-3	-57.0285E-3
-4.35468E-3	-179.546E-12	641.726E-3	37.2223E-3	-183.420E-12	707.649E-3	-38.2805E-3
-4.35968E-3	-179.697E-12	662.521E-3	16.8845E-3	-183.117E-12	683.414E-3	-18.7217E-3
-4.36468E-3	-180.047E-12	671.048E-3	-17.0659E-3	-183.582E-12	628.043E-3	-16.7753E-3
-4.36968E-3	-180.049E-12	654.434E-3	-20.2019E-3	-182.247E-12	597.375E-3	-24.9429E-3
-4.37469E-3	-180.638E-12	644.532E-3	-758.745E-6	-181.031E-12	601.097E-3	-40.3328E-3
-4.37969E-3	-180.717E-12	666.493E-3	1.72394E-3	-181.022E-12	619.549E-3	-53.1011E-3
-4.38469E-3	-181.351E-12	697.054E-3	-16.3844E-3	-180.725E-12	642.976E-3	-39.9534E-3
-4.38969E-3	-181.719E-12	686.010E-3	-32.4826E-3	-179.357E-12	652.807E-3	-27.9646E-3
-4.39470E-3	-182.139E-12	644.074E-3	-35.0644E-3	-178.788E-12	638.522E-3	-59.4423E-3
-4.39970E-3	-182.690E-12	633.612E-3	-24.9300E-3	-179.461E-12	622.540E-3	-69.6046E-3
-4.40470E-3	-183.535E-12	643.412E-3	-5.32426E-3	-179.556E-12	633.237E-3	-35.6058E-3
-4.40970E-3	-183.489E-12	643.122E-3	3.96055E-3	-180.673E-12	639.314E-3	-6.50726E-3
-4.41471E-3	-183.927E-12	642.556E-3	-3.56130E-3	-180.455E-12	633.497E-3	11.1501E-3
-4.41971E-3	-182.847E-12	655.955E-3	-9.69606E-3	-181.467E-12	654.775E-3	3.17807E-3
-4.42471E-3	-183.761E-12	669.207E-3	-13.0417E-3	-183.264E-12	688.568E-3	-27.0320E-3
-4.42971E-3	-182.725E-12	647.528E-3	-18.2725E-3	-184.491E-12	703.674E-3	-30.8675E-3
-4.43472E-3	-182.233E-12	634.812E-3	-21.6119E-3	-185.343E-12	695.892E-3	-17.9746E-3
-4.43972E-3	-181.212E-12	654.025E-3	107.570E-6	-186.226E-12	667.395E-3	-24.4289E-3
-4.44472E-3	-181.753E-12	645.765E-3	38.0338E-3	-186.009E-12	653.429E-3	-35.6583E-3
-4.44972E-3	-181.144E-12	619.979E-3	43.0494E-3	-186.017E-12	679.316E-3	-37.0751E-3
-4.45473E-3	-180.546E-12	625.491E-3	11.3090E-3	-185.071E-12	689.547E-3	-23.2484E-3
-4.45973E-3	-179.855E-12	639.200E-3	-4.97075E-3	-183.922E-12	658.085E-3	-2.07234E-3
-4.46473E-3	-180.464E-12	639.948E-3	2.03130E-3	-182.305E-12	627.390E-3	2.04192E-3
-4.46973E-3	-180.775E-12	653.364E-3	-434.160E-6	-181.127E-12	609.920E-3	-22.0101E-3
-4.47474E-3	-181.205E-12	658.438E-3	-2.34412E-3	-179.705E-12	607.688E-3	-50.4951E-3
-4.47974E-3	-182.414E-12	628.732E-3	7.67547E-3	-179.304E-12	622.077E-3	-48.4215E-3
-4.48474E-3	-184.009E-12	613.498E-3	9.71701E-3	-177.767E-12	628.221E-3	-19.0592E-3
-4.48974E-3	-184.962E-12	645.587E-3	-8.63004E-3	-177.693E-12	613.688E-3	3.81628E-3
-4.49475E-3	-186.234E-12	670.766E-3	-23.1988E-3	-178.901E-12	610.587E-3	-5.23516E-3
-4.49975E-3	-187.739E-12	672.826E-3	-15.8558E-3	-179.888E-12	615.659E-3	-23.7856E-3
-4.50475E-3	-189.747E-12	670.574E-3	-6.53996E-3	-181.174E-12	629.747E-3	-17.5919E-3
-4.50975E-3	-190.288E-12	656.069E-3	-11.3832E-3	-183.534E-12	652.810E-3	-3.18949E-3
-4.51476E-3	-191.448E-12	659.973E-3	-30.6696E-3	-185.921E-12	649.041E-3	-26.4599E-3
-4.51976E-3	-191.125E-12	680.813E-3	-46.4463E-3	-187.231E-12	642.858E-3	-63.5244E-3
-4.52476E-3	-190.420E-12	685.875E-3	-55.2248E-3	-188.527E-12	664.170E-3	-61.3910E-3
-4.52976E-3	-189.952E-12	691.152E-3	-53.6451E-3	-190.186E-12	688.322E-3	-37.7055E-3
-4.53477E-3	-188.587E-12	707.110E-3	-17.2983E-3	-191.182E-12	685.970E-3	-9.54098E-3
-4.53977E-3	-187.816E-12	711.372E-3	8.94309E-3	-191.522E-12	666.195E-3	11.8756E-3
-4.54477E-3	-186.985E-12	694.894E-3	-7.32612E-3	-191.516E-12	673.274E-3	9.48437E-3
-4.54977E-3	-185.473E-12	671.446E-3	-27.3454E-3	-192.367E-12	694.352E-3	-3.80886E-3
-4.55478E-3	-185.092E-12	659.548E-3	-45.2955E-3	-191.003E-12	682.405E-3	-12.4464E-3
-4.55978E-3	-184.900E-12	657.424E-3	-57.2338E-3	-190.209E-12	659.389E-3	-8.02470E-3
-4.56478E-3	-185.299E-12	646.613E-3	-34.8287E-3	-188.757E-12	640.625E-3	-8.09408E-3
-4.56978E-3	-185.908E-12	643.001E-3	-9.12422E-3	-187.893E-12	624.931E-3	-16.4827E-3
-4.57479E-3	-186.689E-12	653.375E-3	-4.71817E-3	-187.387E-12	642.767E-3	-11.8248E-3
-4.57979E-3	-187.864E-12	651.147E-3	-8.18557E-3	-186.674E-12	690.668E-3	4.59390E-3
-4.58479E-3	-189.669E-12	635.487E-3	-7.00187E-3	-186.702E-12	715.962E-3	21.6120E-3
-4.58979E-3	-191.225E-12	649.887E-3	-19.7284E-3	-187.829E-12	698.109E-3	25.7674E-3
-4.59480E-3	-193.010E-12	672.922E-3	-44.8581E-3	-188.816E-12	650.537E-3	9.40324E-3
-4.59980E-3	-195.193E-12	662.306E-3	-38.4013E-3	-189.755E-12	617.599E-3	-1.09226E-3
-4.60480E-3	-195.938E-12	665.593E-3	-15.2570E-3	-192.155E-12	615.103E-3	-20.2762E-3
-4.60980E-3	-196.449E-12	701.363E-3	-14.4521E-3	-192.400E-12	613.373E-3	-43.1380E-3
-4.61481E-3	-196.748E-12	717.373E-3	-30.7519E-3	-193.831E-12	624.384E-3	-18.2469E-3
-4.61981E-3	-196.555E-12	695.176E-3	-37.6738E-3	-194.817E-12	653.544E-3	415.763E-6
-4.62481E-3	-194.873E-12	674.415E-3	-36.8073E-3	-195.812E-12	685.668E-3	-15.1618E-3
-4.62981E-3	-193.170E-12	663.593E-3	-20.0568E-3	-194.027E-12	696.842E-3	-27.6644E-3
-4.63482E-3	-191.988E-12	633.206E-3	-11.3163E-3	-194.174E-12	684.847E-3	-16.2474E-3
-4.63982E-3	-190.351E-12	630.602E-3	-18.1194E-3	-194.246E-12	670.833E-3	-3.74042E-3
-4.64482E-3	-188.728E-12	661.800E-3	-18.8894E-3	-193.683E-12	650.450E-3	-31.1126E-3
-4.64982E-3	-187.883E-12	660.819E-3	-20.3159E-3	-192.550E-12	631.611E-3	-49.3236E-3
-4.65483E-3	-187.391E-12	643.553E-3	-16.0859E-3	-192.322E-12	628.712E-3	-22.4101E-3
-4.65983E-3	-187.106E-12	627.184E-3	-13.1500E-3	-191.498E-12	626.952E-3	14.2895E-3
-4.66483E-3	-187.915E-12	611.348E-3	-12.4000E-3	-190.995E-12	627.934E-3	12.6030E-3
-4.66983E-3	-188.846E-12	623.232E-3	-12.7331E-3	-190.660E-12	641.077E-3	-28.4552E-3
-4.67484E-3	-189.279E-12	634.594E-3	-16.1597E-3	-190.489E-12	638.917E-3	-36.2234E-3
-4.67984E-3	-191.027E-12	612.710E-3	-15.8848E-3	-190.382E-12	623.742E-3	-12.4341E-3
-4.68484E-3	-192.667E-12	608.356E-3	-16.1970E-3	-191.970E-12	625.008E-3	-2.65564E-3
-4.68984E-3	-193.727E-12	623.329E-3	-33.6745E-3	-193.047E-12	639.052E-3	-13.8960E-3
-4.69485E-3	-194.828E-12	635.256E-3	-48.2284E-3	-193.148E-12	639.746E-3	-23.8033E-3
-4.69985E-3	-195.676E-12	655.813E-3	-41.1240E-3	-194.075E-12	642.350E-3	-22.1916E-3
-4.70485E-3	-196.063E-12	652.212E-3	-36.8870E-3	-195.271E-12	648.402E-3	-46.4243E-3
-4.70985E-3	-196.193E-12	634.800E-3	-34.9106E-3	-195.427E-12	633.207E-3	-59.3572E-3
-4.71486E-3	-196.262E-12	650.547E-3	-30.5332E-3	-195.219E-12	623.975E-3	-40.5028E-3
-4.71986E-3	-195.522E-12	676.767E-3	-40.7106E-3	-195.357E-12	647.436E-3	-34.0210E-3
-4.72486E-3	-195.628E-12	681.534E-3	-58.5815E-3	-195.149E-12	673.196E-3	-28.2216E-3
-4.72986E-3	-195.473E-12	660.244E-3	-56.5165E-3	-194.830E-12	678.278E-3	-13.1509E-3
-4.73487E-3	-194.821E-12	638.950E-3	-35.3157E-3	-194.800E-12	682.212E-3	-4.92463E-3
-4.73987E-3	-194.277E-12	636.372E-3	-39.7669E-3	-194.942E-12	681.624E-3	-4.92591E-3
-4.74487E-3	-194.688E-12	644.956E-3	-55.4000E-3	-194.958E-12	671.129E-3	-9.16034E-3
-4.74988E-3	-194.150E-12	666.866E-3	-37.2821E-3	-195.603E-12	675.891E-3	-20.6593E-3
-4.75488E-3	-195.346E-12	667.073E-3	-20.4780E-3	-195.931E-12	705.986E-3	-36.6605E-3
-4.75988E-3	-195.971E-12	650.323E-3	-17.7575E-3	-196.669E-12	697.484E-3	-30.3956E-3
-4.76488E-3	-196.508E-12	659.204E-3	-10.6274E-3	-198.129E-12	653.833E-3	-9.73008E-3
-4.76988E-3	-197.368E-12	665.392E-3	-13.8854E-3	-199.342E-12	639.937E-3	-22.1792E-3
-4.77489E-3	-198.671E-12	646.677E-3	-27.9340E-3	-199.578E-12	640.235E-3	-45.8463E-3
-4.77989E-3	-198.631E-12	640.198E-3	-31.2973E-3	-199.933E-12	653.751E-3	-35.7374E-3
-4.78489E-3	-199.047E-12	650.539E-3	-15.6594E-3	-200.797E-12	670.991E-3	-16.5640E-3
-4.78989E-3	-199.480E-12	660.108E-3	-14.4412E-3	-201.070E-12	669.730E-3	-4.11284E-3
-4.79490E-3	-199.640E-12	665.629E-3	-36.9714E-3	-201.520E-12	663.302E-3	-8.70574E-3
-4.79990E-3	-198.385E-12	669.574E-3	-37.9144E-3	-201.094E-12	665.528E-3	-25.5554E-3
-4.80490E-3	-198.973E-12	658.764E-3	-9.85779E-3	-200.027E-12	665.139E-3	-25.9258E-3
-4.80990E-3	-198.999E-12	640.545E-3	-245.545E-6	-199.197E-12	651.447E-3	-14.8923E-3
-4.81491E-3	-199.228E-12	645.673E-3	-10.0524E-3	-198.686E-12	624.690E-3	-917.307E-6
-4.81991E-3	-199.069E-12	649.001E-3	-4.78973E-3	-198.356E-12	612.066E-3	-15.4990E-3
-4.82491E-3	-199.835E-12	640.780E-3	-1.91976E-3	-197.385E-12	625.420E-3	-56.2169E-3
-4.82991E-3	-200.470E-12	636.029E-3	-16.1262E-3	-196.251E-12	637.512E-3	-50.2158E-3
-4.83492E-3	-202.238E-12	637.646E-3	-31.5841E-3	-197.226E-12	653.834E-3	-9.92029E-3
-4.83992E-3	-202.255E-12	673.352E-3	-29.7447E-3	-197.767E-12	659.948E-3	-11.3847E-3
-4.84492E-3	-202.505E-12	695.529E-3	-17.0222E-3	-196.960E-12	635.031E-3	-37.9695E-3
-4.84992E-3	-203.213E-12	661.986E-3	-29.2758E-3	-197.258E-12	628.032E-3	-42.0955E-3
-4.85493E-3	-204.283E-12	647.059E-3	-34.0995E-3	-199.194E-12	658.909E-3	-30.9477E-3
-4.85993E-3	-203.497E-12	665.465E-3	-8.01996E-3	-201.486E-12	679.702E-3	-13.1286E-3
-4.86493E-3	-202.988E-12	673.409E-3	-6.86176E-3	-202.157E-12	676.987E-3	-1.38510E-3
-4.86993E-3	-203.412E-12	672.040E-3	-16.8762E-3	-201.860E-12	666.636E-3	1.42744E-3
-4.87494E-3	-202.147E-12	663.436E-3	-5.58433E-3	-202.855E-12	651.362E-3	15.5415E-3
-4.87994E-3	-201.304E-12	633.045E-3	-8.13508E-3	-203.180E-12	635.972E-3	3.23074E-3
-4.88494E-3	-200.562E-12	612.012E-3	-17.9179E-3	-203.509E-12	625.456E-3	-11.7671E-3
-4.88995E-3	-200.168E-12	640.580E-3	-15.4004E-3	-202.129E-12	619.563E-3	6.88558E-3
-4.89495E-3	-198.356E-12	653.402E-3	1.88050E-3	-201.340E-12	603.136E-3	10.5912E-3
-4.89995E-3	-199.029E-12	608.794E-3	12.8184E-3	-200.349E-12	583.249E-3	7.02185E-3
-4.90495E-3	-199.366E-12	589.270E-3	-2.07750E-3	-199.987E-12	604.148E-3	2.90776E-3
-4.90995E-3	-199.362E-12	618.418E-3	1.23551E-3	-199.059E-12	640.256E-3	-6.31929E-3
-4.91496E-3	-199.811E-12	650.037E-3	-8.80671E-3	-199.330E-12	639.511E-3	13.8643E-3
-4.91996E-3	-202.581E-12	666.368E-3	-66.5986E-3	-198.802E-12	631.165E-3	31.5758E-3
-4.92496E-3	-204.310E-12	677.206E-3	-70.5567E-3	-199.705E-12	658.276E-3	767.910E-6
-4.92996E-3	-205.934E-12	690.642E-3	-5.94204E-3	-201.459E-12	698.613E-3	-32.5627E-3
-4.93497E-3	-207.234E-12	690.221E-3	30.5354E-3	-202.309E-12	713.898E-3	-14.6959E-3
-4.93997E-3	-208.798E-12	685.979E-3	26.1635E-3	-203.812E-12	699.367E-3	10.0559E-3
-4.94497E-3	-208.782E-12	678.550E-3	28.6396E-3	-205.276E-12	675.889E-3	-1.59186E-3
-4.94997E-3	-209.301E-12	651.354E-3	29.8299E-3	-206.952E-12	666.567E-3	-12.9029E-3
-4.95498E-3	-209.321E-12	632.805E-3	-3.32221E-3	-208.672E-12	655.741E-3	-6.61385E-3
-4.95998E-3	-208.731E-12	642.293E-3	-25.3109E-3	-209.969E-12	639.873E-3	10.0697E-3
-4.96498E-3	-207.796E-12	658.963E-3	-35.1999E-3	-211.200E-12	637.045E-3	24.1184E-3
-4.96998E-3	-207.357E-12	681.327E-3	-52.7248E-3	-210.557E-12	642.442E-3	17.8222E-3
-4.97499E-3	-206.088E-12	683.662E-3	-32.4014E-3	-211.041E-12	660.818E-3	9.12791E-3
-4.97999E-3	-205.364E-12	667.621E-3	-16.1660E-3	-210.197E-12	694.986E-3	12.1764E-3
-4.98499E-3	-204.097E-12	666.449E-3	-30.8862E-3	-209.063E-12	698.558E-3	4.79674E-3
-4.98999E-3	-204.616E-12	651.880E-3	-18.5550E-3	-207.234E-12	672.072E-3	-11.4203E-3
-4.99500E-3	-204.147E-12	624.087E-3	3.15069E-3	-206.695E-12	659.110E-3	-21.1837E-3
-5.00000E-3	-205.111E-12	628.092E-3	-9.26468E-3	-205.576E-12	649.242E-3	-23.9252E-3
