Experiment	bias spectroscopy	
Date	19.01.2016 22:16:41	
User		
X (m)	49.2999E-9	
Y (m)	257.28E-9	
Z (m)	-132.589E-9	
Z offset (m)	0E+0	
Settling time (s)	200E-6	
Integration time (s)	5E-3	
Z-Ctrl hold	TRUE	
Final Z (m)	N/A	
Filter type	None	
Order		
Cutoff frq		
Comment01	MnPc/Pb(111)	
Comment02	dz =00pm	
Comment03	7 Sweeps	
Comment04	MagField =0.T	
Comment05	Divider 1:10	
Comment06	Setpoint:5mV,200 pA	
Comment07	Lockin: 50uVrms,5ms,5mV	
Comment08	Gain:9; 912Hz modulation	
Comment09	T=1.06K	
Bias>Bias (V)	5E-3	
Bias>Calibration (V/V)	81.475E-3	
Bias>Offset (V)	1.046E-3	
Bias Spectroscopy>Sweep Start (V)	5E-3	
Bias Spectroscopy>Sweep End (V)	-5E-3	
Bias Spectroscopy>Num Pixel	2000	
Bias Spectroscopy>Z Avg time (s)	500E-3	
Bias Spectroscopy>Z offset (m)	0E+0	
Bias Spectroscopy>1st Settling time (s)	500E-3	
Bias Spectroscopy>Settling time (s)	200E-6	
Bias Spectroscopy>Integration time (s)	5E-3	
Bias Spectroscopy>End Settling time (s)	500E-3	
Bias Spectroscopy>Z control time (s)	500E-3	
Bias Spectroscopy>Max Slew rate (V/s)	Inf	
Bias Spectroscopy>backward sweep	TRUE	
Bias Spectroscopy>Z-controller hold	TRUE	
Bias Spectroscopy>Number of sweeps	7	
Bias Spectroscopy>Channels	Current (A);X% LockIn (V);Y% LockIn (V)	
Bias Spectroscopy>Reset Bias	TRUE	
Bias Spectroscopy>Record final Z	FALSE	
Bias Spectroscopy>Lock-In run	FALSE	
Bias Spectroscopy>Sweep mode	Linear	
Bias Spectroscopy>MultiLine Settings : Segment Start (V), Segment End (V), Settling (s), Integration (s), Steps (xn)	100E-3,3.3E-3,100E-6,10E-3,2500;3.3E-3,-3.3E-3,100E-6,10E-3,10;-3.3E-3,-100E-3,100E-6,10E-3,2500	
Current>Current (A)	200.071E-12	
Current>Calibration (A/V)	999.99900E-12	
Current>Offset (A)	-455.429E-15	
Current>Gain	LN 10^9	
Z-Controller>Z (m)	-132.587E-9	
Z-Controller>Controller name	log Current	
Z-Controller>Controller status	ON	
Z-Controller>Setpoint	200E-12	
Z-Controller>Setpoint unit	A	
Z-Controller>P gain	2.96994E-12	
Z-Controller>I gain	67.0321E-9	
Z-Controller>Time const (s)	44.3062E-6	
Z-Controller>TipLift (m)	0E+0	
Z-Controller>Switch off delay (s)	50E-3	
Current (A)	199.941E-12	
Z (m)	-132.587E-9	

[DATA]
Bias calc (V)	Current (A)	X% LockIn (V)	Y% LockIn (V)	Current [bwd] (A)	X% LockIn [bwd] (V)	Y% LockIn [bwd] (V)
5.00000E-3	198.289E-12	653.385E-3	-22.9343E-3	197.803E-12	642.904E-3	-24.6606E-3
4.99500E-3	198.867E-12	631.460E-3	3.45955E-3	198.969E-12	625.772E-3	-20.2400E-3
4.98999E-3	198.412E-12	613.876E-3	22.3843E-3	198.590E-12	621.693E-3	-43.1518E-3
4.98499E-3	198.920E-12	626.131E-3	-575.396E-6	199.630E-12	652.199E-3	-59.8087E-3
4.97999E-3	199.290E-12	640.665E-3	-33.2090E-3	200.359E-12	676.839E-3	-55.0159E-3
4.97499E-3	199.518E-12	645.653E-3	-45.0496E-3	201.238E-12	675.976E-3	-42.2592E-3
4.96998E-3	200.191E-12	658.708E-3	-27.9745E-3	200.991E-12	675.624E-3	-24.3349E-3
4.96498E-3	200.223E-12	661.530E-3	-13.7292E-3	201.903E-12	667.114E-3	-7.29309E-3
4.95998E-3	199.904E-12	660.404E-3	-17.1955E-3	201.487E-12	626.089E-3	-2.56553E-3
4.95498E-3	199.838E-12	661.326E-3	5.16349E-3	201.885E-12	607.910E-3	-22.5017E-3
4.94997E-3	199.983E-12	660.419E-3	28.9697E-3	201.893E-12	636.102E-3	-51.5655E-3
4.94497E-3	199.683E-12	672.663E-3	13.1531E-3	201.907E-12	653.729E-3	-46.8760E-3
4.93997E-3	199.266E-12	691.870E-3	-4.25725E-3	201.416E-12	657.340E-3	-7.51339E-3
4.93497E-3	198.889E-12	688.327E-3	-1.30652E-3	201.189E-12	642.418E-3	-11.1692E-3
4.92996E-3	198.412E-12	673.276E-3	11.9594E-3	201.744E-12	626.631E-3	-48.9289E-3
4.92496E-3	197.295E-12	678.097E-3	11.4063E-3	200.320E-12	645.003E-3	-56.8454E-3
4.91996E-3	197.791E-12	688.494E-3	-4.83978E-3	199.790E-12	658.972E-3	-50.2763E-3
4.91496E-3	196.754E-12	684.447E-3	-20.4678E-3	198.938E-12	655.206E-3	-34.6601E-3
4.90995E-3	196.672E-12	673.081E-3	-36.7539E-3	198.188E-12	652.878E-3	-22.4400E-3
4.90495E-3	195.855E-12	651.905E-3	-42.8579E-3	196.432E-12	664.445E-3	-34.8685E-3
4.89995E-3	196.250E-12	619.177E-3	-26.2242E-3	195.861E-12	682.404E-3	-42.9588E-3
4.89495E-3	195.498E-12	624.050E-3	-8.30606E-3	195.996E-12	680.156E-3	-14.2621E-3
4.88995E-3	196.531E-12	671.660E-3	-3.73673E-3	195.793E-12	672.293E-3	18.1651E-3
4.88494E-3	195.234E-12	683.360E-3	-19.8803E-3	195.043E-12	672.078E-3	26.0311E-3
4.87994E-3	195.374E-12	651.706E-3	-43.3604E-3	195.150E-12	672.314E-3	16.5636E-3
4.87494E-3	195.028E-12	637.267E-3	-38.3484E-3	194.372E-12	668.612E-3	-12.9213E-3
4.86993E-3	193.927E-12	633.648E-3	-35.4390E-3	193.264E-12	657.824E-3	-31.5514E-3
4.86493E-3	194.154E-12	646.284E-3	-33.0442E-3	192.302E-12	655.262E-3	-9.32031E-3
4.85993E-3	193.608E-12	676.805E-3	1.57700E-3	191.989E-12	661.481E-3	16.3625E-3
4.85493E-3	192.611E-12	682.875E-3	17.3631E-3	190.961E-12	652.783E-3	9.59764E-3
4.84992E-3	192.995E-12	678.581E-3	-7.78753E-3	189.800E-12	651.078E-3	232.030E-6
4.84492E-3	193.179E-12	667.198E-3	-20.6451E-3	189.510E-12	684.589E-3	13.3532E-3
4.83992E-3	193.188E-12	635.837E-3	-13.7162E-3	189.196E-12	710.199E-3	21.7520E-3
4.83492E-3	192.377E-12	626.850E-3	-11.6620E-3	189.051E-12	684.264E-3	20.1854E-3
4.82991E-3	192.797E-12	647.641E-3	-5.23908E-3	188.748E-12	642.913E-3	14.8086E-3
4.82491E-3	193.060E-12	652.589E-3	-88.4142E-6	189.513E-12	644.454E-3	-3.00783E-3
4.81991E-3	193.019E-12	642.132E-3	-17.4887E-3	190.430E-12	675.542E-3	-13.5275E-3
4.81491E-3	192.740E-12	643.031E-3	-28.1538E-3	189.939E-12	700.333E-3	-19.0479E-3
4.80990E-3	192.735E-12	656.248E-3	-19.0133E-3	190.744E-12	699.998E-3	-19.6535E-3
4.80490E-3	192.816E-12	661.986E-3	-25.7980E-3	192.124E-12	675.072E-3	-1.91586E-3
4.79990E-3	192.759E-12	666.680E-3	-23.7055E-3	192.891E-12	674.943E-3	-1.59393E-3
4.79490E-3	192.533E-12	675.480E-3	15.2036E-3	192.639E-12	694.828E-3	-33.0708E-3
4.78989E-3	192.726E-12	684.799E-3	31.2585E-3	193.784E-12	684.241E-3	-36.1652E-3
4.78489E-3	192.415E-12	701.814E-3	6.78080E-3	193.845E-12	653.264E-3	-10.1260E-3
4.77989E-3	191.613E-12	687.993E-3	-11.1717E-3	193.776E-12	640.601E-3	-11.2826E-3
4.77489E-3	191.367E-12	638.177E-3	-44.3539E-3	192.991E-12	647.482E-3	-31.0696E-3
4.76988E-3	190.729E-12	611.416E-3	-48.6753E-3	192.637E-12	662.785E-3	-33.8684E-3
4.76488E-3	189.862E-12	639.862E-3	8.13235E-3	191.745E-12	679.232E-3	-25.9282E-3
4.75988E-3	189.622E-12	681.363E-3	30.0781E-3	190.925E-12	670.644E-3	-16.1279E-3
4.75488E-3	190.054E-12	697.084E-3	11.2507E-3	191.086E-12	666.584E-3	-945.618E-6
4.74988E-3	189.325E-12	682.503E-3	-12.9275E-3	189.256E-12	687.702E-3	-17.6757E-3
4.74487E-3	189.229E-12	666.283E-3	-36.7860E-3	188.718E-12	691.514E-3	-46.9673E-3
4.73987E-3	189.371E-12	661.239E-3	-41.3808E-3	188.413E-12	676.726E-3	-32.3091E-3
4.73487E-3	189.476E-12	649.931E-3	-36.9653E-3	188.063E-12	677.771E-3	-6.46561E-3
4.72986E-3	189.873E-12	663.216E-3	-37.9791E-3	187.135E-12	690.322E-3	-19.4645E-3
4.72486E-3	190.650E-12	696.858E-3	-37.8517E-3	188.437E-12	698.540E-3	-25.4501E-3
4.71986E-3	190.086E-12	700.886E-3	-33.8389E-3	188.829E-12	700.106E-3	-21.3129E-3
4.71486E-3	190.383E-12	690.484E-3	-25.7122E-3	188.613E-12	691.510E-3	-37.5189E-3
4.70985E-3	190.373E-12	699.854E-3	-28.7998E-3	188.205E-12	691.648E-3	-26.3299E-3
4.70485E-3	189.707E-12	697.102E-3	-43.1986E-3	188.929E-12	698.734E-3	-28.8273E-3
4.69985E-3	189.122E-12	663.853E-3	-50.4814E-3	189.975E-12	702.049E-3	-57.1775E-3
4.69485E-3	189.216E-12	628.202E-3	-46.6662E-3	189.129E-12	701.367E-3	-44.4012E-3
4.68984E-3	188.452E-12	624.285E-3	-29.5641E-3	188.897E-12	698.072E-3	-19.4721E-3
4.68484E-3	187.065E-12	645.239E-3	-17.9958E-3	189.040E-12	692.223E-3	-16.4333E-3
4.67984E-3	185.988E-12	658.678E-3	-27.3825E-3	188.654E-12	677.266E-3	-20.7973E-3
4.67484E-3	184.581E-12	656.246E-3	-17.2663E-3	187.513E-12	660.755E-3	-22.7740E-3
4.66983E-3	183.525E-12	649.036E-3	29.0844E-3	186.205E-12	659.135E-3	-32.5233E-3
4.66483E-3	182.090E-12	650.010E-3	32.9104E-3	185.866E-12	659.728E-3	-34.5031E-3
4.65983E-3	181.861E-12	650.595E-3	-9.32996E-3	184.765E-12	648.235E-3	-7.40272E-3
4.65483E-3	181.194E-12	650.450E-3	-11.9147E-3	183.456E-12	646.070E-3	-7.23323E-3
4.64982E-3	180.932E-12	633.634E-3	2.56469E-3	183.293E-12	645.325E-3	-27.0435E-3
4.64482E-3	180.290E-12	626.730E-3	-14.1430E-3	182.571E-12	636.634E-3	-6.11462E-3
4.63982E-3	181.004E-12	656.931E-3	-41.3750E-3	182.243E-12	631.400E-3	14.7059E-3
4.63482E-3	181.091E-12	680.110E-3	-44.4460E-3	181.411E-12	629.236E-3	12.7496E-3
4.62981E-3	181.700E-12	691.750E-3	-10.4448E-3	182.007E-12	632.855E-3	15.9035E-3
4.62481E-3	181.506E-12	698.169E-3	22.3667E-3	181.906E-12	637.111E-3	10.1408E-3
4.61981E-3	181.498E-12	671.855E-3	8.66588E-3	181.470E-12	636.818E-3	-5.82951E-3
4.61481E-3	181.803E-12	629.299E-3	-20.2809E-3	181.611E-12	656.128E-3	7.06086E-3
4.60980E-3	181.929E-12	596.470E-3	-24.6678E-3	181.277E-12	670.777E-3	12.1435E-3
4.60480E-3	181.564E-12	599.696E-3	-22.9013E-3	182.366E-12	649.028E-3	-17.1633E-3
4.59980E-3	181.679E-12	648.583E-3	-30.7745E-3	181.052E-12	637.101E-3	-26.3007E-3
4.59480E-3	182.137E-12	685.189E-3	-19.0952E-3	181.205E-12	650.323E-3	-16.8595E-3
4.58979E-3	182.311E-12	677.304E-3	8.54180E-3	180.526E-12	664.220E-3	-9.80245E-3
4.58479E-3	182.383E-12	669.618E-3	20.3302E-3	180.460E-12	657.229E-3	-7.57859E-3
4.57979E-3	182.065E-12	673.253E-3	9.03141E-3	179.312E-12	627.045E-3	-27.6641E-3
4.57479E-3	181.611E-12	659.757E-3	-12.7521E-3	179.924E-12	614.564E-3	-30.4593E-3
4.56978E-3	181.865E-12	656.964E-3	-17.8155E-3	179.496E-12	636.662E-3	-309.683E-6
4.56478E-3	182.273E-12	688.384E-3	1.27346E-3	179.697E-12	670.854E-3	24.1125E-3
4.55978E-3	181.959E-12	706.897E-3	15.5913E-3	179.810E-12	706.455E-3	31.2998E-3
4.55478E-3	181.517E-12	684.046E-3	-8.13591E-3	180.188E-12	713.315E-3	2.34262E-3
4.54977E-3	182.741E-12	657.203E-3	-19.6161E-3	180.698E-12	686.232E-3	-35.3689E-3
4.54477E-3	183.102E-12	643.179E-3	-13.8658E-3	180.686E-12	662.522E-3	-37.2109E-3
4.53977E-3	183.007E-12	634.840E-3	-22.4257E-3	181.362E-12	647.244E-3	-18.3537E-3
4.53477E-3	183.820E-12	649.253E-3	-20.0600E-3	181.859E-12	648.278E-3	-5.98518E-3
4.52976E-3	182.500E-12	676.283E-3	-5.50617E-3	182.273E-12	649.602E-3	-8.62245E-3
4.52476E-3	182.598E-12	688.047E-3	5.46777E-3	181.877E-12	650.330E-3	-18.0054E-3
4.51976E-3	181.780E-12	684.161E-3	-1.11234E-3	181.426E-12	683.938E-3	-36.8208E-3
4.51476E-3	182.140E-12	675.783E-3	1.43856E-3	181.574E-12	714.984E-3	-43.8312E-3
4.50975E-3	180.834E-12	676.660E-3	9.07351E-3	180.444E-12	704.132E-3	-16.6045E-3
4.50475E-3	180.926E-12	682.716E-3	3.48270E-3	180.723E-12	669.158E-3	5.89234E-3
4.49975E-3	180.051E-12	687.335E-3	-3.59447E-3	178.815E-12	626.360E-3	145.673E-6
4.49475E-3	179.534E-12	687.973E-3	-13.1366E-3	178.773E-12	602.675E-3	-8.83952E-3
4.48974E-3	178.653E-12	691.006E-3	-18.6642E-3	177.899E-12	641.992E-3	-22.4484E-3
4.48474E-3	178.249E-12	697.034E-3	-22.3760E-3	177.457E-12	700.942E-3	-27.6396E-3
4.47974E-3	177.156E-12	698.283E-3	-34.0879E-3	176.950E-12	704.297E-3	-12.7810E-3
4.47474E-3	177.288E-12	706.918E-3	-24.4270E-3	177.065E-12	683.490E-3	-2.53894E-3
4.46973E-3	176.031E-12	703.291E-3	4.05421E-3	176.763E-12	670.129E-3	-19.8101E-3
4.46473E-3	176.372E-12	667.756E-3	4.41811E-3	176.031E-12	665.553E-3	-43.1232E-3
4.45973E-3	175.570E-12	650.270E-3	3.86744E-3	177.037E-12	670.397E-3	-47.4023E-3
4.45473E-3	175.344E-12	669.212E-3	10.3273E-3	176.566E-12	662.786E-3	-43.8298E-3
4.44972E-3	173.937E-12	689.468E-3	4.34545E-3	177.001E-12	658.478E-3	-34.2443E-3
4.44472E-3	174.124E-12	689.882E-3	-7.42662E-3	176.462E-12	666.093E-3	-19.4756E-3
4.43972E-3	173.449E-12	664.536E-3	-13.7945E-3	176.094E-12	659.841E-3	-11.3910E-3
4.43472E-3	173.103E-12	633.083E-3	-12.8160E-3	176.196E-12	642.610E-3	-5.13020E-3
4.42971E-3	172.367E-12	640.279E-3	-27.0503E-3	175.098E-12	636.015E-3	5.66249E-3
4.42471E-3	172.438E-12	678.602E-3	-43.7491E-3	173.468E-12	638.283E-3	-5.70003E-3
4.41971E-3	172.460E-12	694.337E-3	-38.8353E-3	172.535E-12	640.814E-3	-28.1356E-3
4.41471E-3	171.967E-12	683.807E-3	-6.94345E-3	172.444E-12	650.031E-3	-31.5174E-3
4.40970E-3	171.406E-12	665.977E-3	31.8514E-3	171.435E-12	656.226E-3	-24.6252E-3
4.40470E-3	171.985E-12	653.165E-3	37.1773E-3	170.113E-12	648.899E-3	-8.50277E-3
4.39970E-3	171.869E-12	655.962E-3	4.09041E-3	169.985E-12	650.624E-3	14.9060E-3
4.39470E-3	171.807E-12	655.364E-3	-29.3109E-3	169.852E-12	661.338E-3	3.48541E-3
4.38969E-3	172.469E-12	642.671E-3	-20.2713E-3	169.535E-12	665.303E-3	-29.3679E-3
4.38469E-3	172.626E-12	642.127E-3	18.4544E-3	169.602E-12	662.968E-3	-31.8071E-3
4.37969E-3	172.577E-12	646.288E-3	15.8402E-3	170.569E-12	659.082E-3	-27.8454E-3
4.37469E-3	173.162E-12	637.610E-3	-20.2193E-3	171.247E-12	666.291E-3	-25.3543E-3
4.36968E-3	173.229E-12	627.461E-3	-49.7533E-3	172.674E-12	679.316E-3	-17.0176E-3
4.36468E-3	174.036E-12	624.184E-3	-56.8531E-3	173.480E-12	678.449E-3	-33.2931E-3
4.35968E-3	174.087E-12	644.704E-3	-34.8650E-3	173.886E-12	677.038E-3	-47.7483E-3
4.35468E-3	173.527E-12	688.241E-3	-1.77108E-3	174.592E-12	677.636E-3	-42.4139E-3
4.34967E-3	173.380E-12	708.029E-3	22.1996E-3	174.890E-12	679.922E-3	-49.2584E-3
4.34467E-3	173.043E-12	680.486E-3	18.5712E-3	174.918E-12	695.091E-3	-53.5823E-3
4.33967E-3	171.962E-12	669.308E-3	-124.075E-6	173.768E-12	698.919E-3	-42.8038E-3
4.33467E-3	171.418E-12	679.124E-3	-11.8932E-3	173.349E-12	683.538E-3	-37.3447E-3
4.32966E-3	170.916E-12	667.374E-3	-16.8123E-3	172.366E-12	659.364E-3	-40.6214E-3
4.32466E-3	170.024E-12	663.341E-3	-30.2228E-3	172.365E-12	628.872E-3	-35.7059E-3
4.31966E-3	170.493E-12	661.960E-3	-43.4566E-3	171.357E-12	626.887E-3	-18.8719E-3
4.31466E-3	170.434E-12	654.234E-3	-33.7714E-3	169.811E-12	652.946E-3	-464.486E-6
4.30965E-3	169.471E-12	663.192E-3	-22.6548E-3	168.870E-12	676.289E-3	6.67542E-3
4.30465E-3	170.133E-12	680.472E-3	-14.5873E-3	168.022E-12	690.572E-3	-436.270E-6
4.29965E-3	169.739E-12	691.652E-3	3.15955E-3	167.501E-12	677.240E-3	-9.50334E-3
4.29465E-3	169.075E-12	704.461E-3	-931.763E-6	166.794E-12	634.374E-3	-15.0784E-3
4.28964E-3	169.120E-12	700.641E-3	-12.4143E-3	166.016E-12	617.380E-3	-23.6236E-3
4.28464E-3	168.968E-12	678.615E-3	-9.48468E-3	166.444E-12	654.255E-3	-20.7167E-3
4.27964E-3	169.146E-12	668.926E-3	-15.5240E-3	166.809E-12	667.972E-3	2.88912E-3
4.27464E-3	169.012E-12	666.276E-3	-13.6511E-3	167.040E-12	647.439E-3	15.8755E-3
4.26963E-3	168.924E-12	649.446E-3	-8.86106E-3	166.751E-12	651.531E-3	3.06977E-3
4.26463E-3	167.882E-12	646.123E-3	-14.0524E-3	166.830E-12	659.430E-3	-20.1203E-3
4.25963E-3	168.546E-12	658.101E-3	-15.6289E-3	167.406E-12	669.788E-3	-50.5826E-3
4.25463E-3	168.545E-12	658.733E-3	-7.76204E-3	167.361E-12	679.636E-3	-68.2823E-3
4.24962E-3	167.859E-12	669.742E-3	-894.461E-6	166.772E-12	681.155E-3	-50.5283E-3
4.24462E-3	166.842E-12	690.907E-3	-19.7794E-3	166.459E-12	695.280E-3	-27.1986E-3
4.23962E-3	166.837E-12	694.358E-3	-39.9566E-3	166.366E-12	688.146E-3	-22.4187E-3
4.23462E-3	165.965E-12	678.221E-3	-27.9809E-3	166.113E-12	652.079E-3	-25.9417E-3
4.22961E-3	165.353E-12	666.826E-3	-22.7957E-3	165.996E-12	638.120E-3	-25.9133E-3
4.22461E-3	165.178E-12	666.888E-3	-37.2559E-3	165.567E-12	636.922E-3	-25.0240E-3
4.21961E-3	164.776E-12	670.607E-3	-29.0785E-3	164.922E-12	619.372E-3	-29.1121E-3
4.21461E-3	164.194E-12	665.304E-3	-20.6601E-3	164.956E-12	628.859E-3	-31.0923E-3
4.20960E-3	163.390E-12	649.294E-3	-34.5843E-3	164.376E-12	671.963E-3	-23.4019E-3
4.20460E-3	163.243E-12	643.313E-3	-32.5482E-3	164.699E-12	694.364E-3	-15.5316E-3
4.19960E-3	162.667E-12	646.738E-3	-18.2338E-3	163.882E-12	690.514E-3	-7.47136E-3
4.19460E-3	162.364E-12	644.081E-3	-29.5728E-3	164.584E-12	688.615E-3	-1.07784E-3
4.18959E-3	162.862E-12	639.818E-3	-46.2819E-3	164.632E-12	684.807E-3	-14.3447E-3
4.18459E-3	163.161E-12	646.069E-3	-46.7323E-3	165.065E-12	671.420E-3	-16.0491E-3
4.17959E-3	162.581E-12	667.644E-3	-21.9368E-3	163.785E-12	671.552E-3	4.03332E-3
4.17459E-3	162.323E-12	688.548E-3	24.5113E-3	163.878E-12	683.621E-3	8.47714E-3
4.16958E-3	163.315E-12	681.136E-3	40.2941E-3	163.489E-12	680.581E-3	624.102E-6
4.16458E-3	162.376E-12	670.144E-3	12.3079E-3	162.231E-12	675.821E-3	-2.34147E-3
4.15958E-3	162.157E-12	667.969E-3	-22.9993E-3	161.574E-12	666.443E-3	-1.91660E-3
4.15458E-3	162.429E-12	663.156E-3	-42.0421E-3	161.728E-12	643.229E-3	-2.95309E-3
4.14957E-3	163.025E-12	679.775E-3	-36.6568E-3	161.008E-12	639.517E-3	5.18507E-3
4.14457E-3	162.875E-12	687.625E-3	-22.2891E-3	160.663E-12	657.468E-3	4.36777E-3
4.13957E-3	163.053E-12	662.961E-3	-37.3062E-3	160.689E-12	660.618E-3	-14.9255E-3
4.13457E-3	163.676E-12	661.978E-3	-44.7444E-3	161.113E-12	667.429E-3	-13.5084E-3
4.12956E-3	163.484E-12	682.252E-3	-10.8539E-3	161.041E-12	705.071E-3	2.88933E-3
4.12456E-3	163.645E-12	675.751E-3	-2.67622E-3	161.389E-12	725.177E-3	-9.82836E-3
4.11956E-3	164.309E-12	658.862E-3	-37.9400E-3	161.479E-12	709.216E-3	-34.3091E-3
4.11456E-3	164.013E-12	664.130E-3	-48.5551E-3	161.997E-12	682.619E-3	-35.5910E-3
4.10955E-3	163.322E-12	683.884E-3	-36.6047E-3	163.210E-12	652.197E-3	-22.0482E-3
4.10455E-3	163.007E-12	704.473E-3	-24.4518E-3	163.754E-12	638.987E-3	-5.33219E-3
4.09955E-3	162.767E-12	709.552E-3	-9.94322E-3	164.418E-12	664.286E-3	6.03176E-3
4.09455E-3	161.990E-12	697.312E-3	-10.2909E-3	165.096E-12	692.701E-3	-18.4395E-3
4.08954E-3	160.876E-12	695.414E-3	-18.7696E-3	164.801E-12	703.106E-3	-55.0101E-3
4.08454E-3	160.507E-12	686.911E-3	-27.6522E-3	163.991E-12	707.268E-3	-41.6487E-3
4.07954E-3	159.413E-12	667.118E-3	-21.9888E-3	163.215E-12	692.890E-3	-14.2469E-3
4.07454E-3	158.781E-12	670.578E-3	-15.6445E-3	162.313E-12	672.346E-3	-22.3749E-3
4.06953E-3	158.116E-12	676.300E-3	-13.5111E-3	161.293E-12	661.083E-3	-32.2060E-3
4.06453E-3	156.806E-12	666.280E-3	-2.05885E-3	160.440E-12	648.676E-3	-26.5431E-3
4.05953E-3	156.577E-12	653.624E-3	15.1544E-3	159.257E-12	647.211E-3	-28.6816E-3
4.05453E-3	156.677E-12	648.739E-3	27.0971E-3	157.684E-12	661.928E-3	-42.4819E-3
4.04952E-3	156.621E-12	642.859E-3	10.3053E-3	157.143E-12	662.298E-3	-53.0383E-3
4.04452E-3	155.342E-12	641.178E-3	-16.6223E-3	157.022E-12	653.931E-3	-39.0861E-3
4.03952E-3	155.498E-12	652.700E-3	-29.0034E-3	156.083E-12	657.931E-3	-23.6902E-3
4.03452E-3	156.606E-12	663.345E-3	-17.3423E-3	154.955E-12	651.623E-3	-18.6102E-3
4.02951E-3	156.434E-12	668.973E-3	108.939E-6	155.252E-12	641.867E-3	-13.6518E-3
4.02451E-3	155.794E-12	667.491E-3	-1.42884E-3	155.919E-12	660.783E-3	-10.7366E-3
4.01951E-3	156.602E-12	662.589E-3	-16.2170E-3	155.768E-12	676.870E-3	-5.17274E-3
4.01451E-3	156.701E-12	653.770E-3	-38.6919E-3	155.549E-12	665.215E-3	-7.60886E-3
4.00950E-3	156.293E-12	655.574E-3	-60.9161E-3	156.072E-12	658.084E-3	-16.6331E-3
4.00450E-3	157.434E-12	663.965E-3	-57.4109E-3	156.304E-12	683.735E-3	-18.5095E-3
3.99950E-3	156.856E-12	668.420E-3	-36.4497E-3	156.308E-12	712.259E-3	-17.7345E-3
3.99450E-3	156.292E-12	666.749E-3	-11.9081E-3	155.907E-12	691.998E-3	-15.6851E-3
3.98949E-3	155.877E-12	650.306E-3	14.3489E-3	155.592E-12	646.589E-3	-1.78890E-3
3.98449E-3	155.885E-12	634.199E-3	21.1818E-3	154.967E-12	634.392E-3	-1.10417E-3
3.97949E-3	155.196E-12	639.350E-3	11.2190E-3	154.532E-12	654.345E-3	-27.8362E-3
3.97449E-3	154.478E-12	659.871E-3	16.9025E-3	154.148E-12	663.734E-3	-39.1395E-3
3.96948E-3	153.772E-12	672.135E-3	21.5826E-3	153.367E-12	648.164E-3	-38.0638E-3
3.96448E-3	153.541E-12	667.867E-3	4.71534E-3	152.419E-12	631.666E-3	-33.7498E-3
3.95948E-3	153.990E-12	653.431E-3	-3.53630E-3	151.967E-12	630.308E-3	-11.0546E-3
3.95448E-3	152.988E-12	640.493E-3	-8.76420E-3	152.461E-12	643.607E-3	-1.13910E-3
3.94947E-3	153.184E-12	643.321E-3	-27.8304E-3	152.418E-12	664.233E-3	-18.2061E-3
3.94447E-3	153.303E-12	654.182E-3	-39.7362E-3	152.510E-12	668.306E-3	-32.5484E-3
3.93947E-3	153.935E-12	647.031E-3	-36.9406E-3	152.733E-12	656.506E-3	-38.0644E-3
3.93447E-3	154.152E-12	664.871E-3	-54.0973E-3	153.133E-12	654.519E-3	-40.9152E-3
3.92946E-3	154.215E-12	701.087E-3	-67.8557E-3	154.196E-12	664.711E-3	-42.4169E-3
3.92446E-3	154.206E-12	695.108E-3	-41.7806E-3	154.343E-12	664.137E-3	-37.9039E-3
3.91946E-3	154.628E-12	675.532E-3	-18.6633E-3	155.153E-12	651.439E-3	-28.7329E-3
3.91446E-3	154.896E-12	690.218E-3	-9.93873E-3	154.868E-12	650.419E-3	-45.8062E-3
3.90945E-3	154.268E-12	715.230E-3	2.37523E-3	154.676E-12	659.828E-3	-69.1635E-3
3.90445E-3	154.201E-12	709.259E-3	422.904E-6	154.400E-12	669.263E-3	-49.5504E-3
3.89945E-3	153.696E-12	693.474E-3	-6.55511E-3	153.508E-12	668.049E-3	-9.43492E-3
3.89445E-3	153.706E-12	682.519E-3	-6.15325E-3	152.837E-12	656.025E-3	151.908E-6
3.88944E-3	153.204E-12	686.403E-3	-19.1271E-3	152.582E-12	644.415E-3	-30.4083E-3
3.88444E-3	152.018E-12	700.343E-3	-28.8114E-3	152.270E-12	647.151E-3	-59.0626E-3
3.87944E-3	151.145E-12	694.702E-3	-21.1936E-3	151.467E-12	664.985E-3	-49.7025E-3
3.87444E-3	151.084E-12	682.178E-3	-16.2648E-3	150.766E-12	668.004E-3	-17.1991E-3
3.86943E-3	150.067E-12	695.266E-3	-13.3151E-3	150.450E-12	657.424E-3	6.26058E-3
3.86443E-3	149.111E-12	693.954E-3	-21.8918E-3	149.997E-12	647.893E-3	4.77721E-3
3.85943E-3	148.806E-12	654.432E-3	-26.1285E-3	150.033E-12	641.142E-3	-6.84919E-3
3.85443E-3	148.331E-12	654.254E-3	3.79952E-3	149.807E-12	648.973E-3	-17.2288E-3
3.84942E-3	148.098E-12	689.947E-3	28.9440E-3	149.151E-12	659.180E-3	-24.5025E-3
3.84442E-3	147.932E-12	698.997E-3	7.52556E-3	149.177E-12	655.773E-3	-10.0554E-3
3.83942E-3	147.743E-12	692.765E-3	-19.9674E-3	148.986E-12	670.468E-3	2.94732E-3
3.83442E-3	146.806E-12	688.518E-3	-15.2925E-3	148.756E-12	704.641E-3	-904.045E-6
3.82941E-3	147.095E-12	674.756E-3	-4.70229E-3	148.116E-12	708.482E-3	-15.8558E-3
3.82441E-3	147.088E-12	668.930E-3	-16.5045E-3	147.880E-12	683.714E-3	-35.9680E-3
3.81941E-3	146.578E-12	676.726E-3	-18.8265E-3	147.237E-12	667.864E-3	-39.4128E-3
3.81441E-3	146.004E-12	674.203E-3	-778.896E-6	146.681E-12	656.937E-3	-32.3287E-3
3.80940E-3	146.361E-12	660.348E-3	-3.85345E-3	145.836E-12	634.273E-3	-38.2540E-3
3.80440E-3	146.709E-12	662.601E-3	-8.76430E-3	145.269E-12	627.497E-3	-38.4255E-3
3.79940E-3	146.368E-12	676.934E-3	2.06881E-3	144.542E-12	656.722E-3	-15.5781E-3
3.79440E-3	146.344E-12	672.172E-3	4.66507E-3	144.348E-12	677.871E-3	-9.55576E-3
3.78939E-3	146.204E-12	674.060E-3	1.54543E-3	143.575E-12	667.627E-3	-28.9340E-3
3.78439E-3	146.604E-12	687.382E-3	-5.75670E-3	143.473E-12	661.553E-3	-49.4663E-3
3.77939E-3	146.214E-12	681.670E-3	-13.5495E-3	144.788E-12	676.993E-3	-61.2357E-3
3.77439E-3	145.848E-12	671.716E-3	-10.3438E-3	144.971E-12	691.420E-3	-42.7501E-3
3.76938E-3	145.851E-12	675.278E-3	-15.0961E-3	145.357E-12	685.249E-3	-9.20370E-3
3.76438E-3	145.641E-12	666.080E-3	-22.4419E-3	146.414E-12	676.076E-3	-10.6786E-3
3.75938E-3	145.612E-12	653.075E-3	-28.2875E-3	146.736E-12	671.471E-3	-32.7862E-3
3.75438E-3	145.481E-12	666.979E-3	-40.0059E-3	147.397E-12	671.761E-3	-48.2991E-3
3.74937E-3	144.877E-12	678.140E-3	-31.5044E-3	147.671E-12	681.672E-3	-51.4028E-3
3.74437E-3	144.113E-12	681.676E-3	-12.4459E-3	147.660E-12	676.357E-3	-24.1038E-3
3.73937E-3	144.222E-12	693.962E-3	-14.2296E-3	146.961E-12	663.870E-3	365.540E-6
3.73437E-3	143.485E-12	694.889E-3	-34.1722E-3	146.995E-12	670.491E-3	-7.71302E-3
3.72936E-3	143.053E-12	684.898E-3	-37.0951E-3	146.010E-12	688.827E-3	-17.9028E-3
3.72436E-3	143.138E-12	664.606E-3	-27.7759E-3	144.400E-12	707.093E-3	-18.6053E-3
3.71936E-3	143.229E-12	653.476E-3	-33.3520E-3	143.679E-12	699.242E-3	-23.8658E-3
3.71436E-3	143.068E-12	674.332E-3	-49.3800E-3	142.318E-12	664.653E-3	-28.6179E-3
3.70935E-3	143.770E-12	676.789E-3	-49.3804E-3	141.010E-12	638.788E-3	-30.6389E-3
3.70435E-3	143.974E-12	659.127E-3	-32.3438E-3	140.477E-12	634.745E-3	-34.4610E-3
3.69935E-3	143.377E-12	657.620E-3	-15.7538E-3	140.255E-12	646.006E-3	-39.5152E-3
3.69435E-3	143.635E-12	673.454E-3	2.08745E-3	139.636E-12	661.748E-3	-28.3225E-3
3.68934E-3	143.939E-12	684.485E-3	4.42382E-3	139.898E-12	676.818E-3	-2.08998E-3
3.68434E-3	143.563E-12	682.573E-3	-8.37910E-3	140.675E-12	674.980E-3	12.8141E-3
3.67934E-3	143.620E-12	688.939E-3	-12.9566E-3	141.233E-12	678.589E-3	1.10175E-3
3.67434E-3	143.554E-12	699.978E-3	-4.91689E-3	142.082E-12	708.179E-3	-31.2410E-3
3.66933E-3	143.316E-12	698.716E-3	-9.01355E-3	142.724E-12	715.704E-3	-39.5817E-3
3.66433E-3	143.017E-12	671.268E-3	-16.9186E-3	144.267E-12	703.328E-3	-17.4250E-3
3.65933E-3	142.686E-12	648.642E-3	-1.90565E-3	144.448E-12	702.623E-3	3.15888E-3
3.65433E-3	142.060E-12	652.125E-3	11.1535E-3	144.169E-12	701.639E-3	9.28415E-3
3.64932E-3	141.945E-12	640.535E-3	-2.35819E-3	144.672E-12	690.541E-3	8.16320E-3
3.64432E-3	141.241E-12	628.085E-3	-20.0519E-3	144.884E-12	677.656E-3	10.1317E-3
3.63932E-3	140.309E-12	645.748E-3	-32.9232E-3	144.235E-12	679.523E-3	-6.31611E-3
3.63432E-3	139.346E-12	669.027E-3	-42.1868E-3	143.199E-12	698.232E-3	-38.5466E-3
3.62931E-3	139.237E-12	679.163E-3	-33.5767E-3	142.774E-12	696.139E-3	-45.3200E-3
3.62431E-3	138.637E-12	674.345E-3	-22.7160E-3	141.337E-12	659.009E-3	-23.1111E-3
3.61931E-3	138.121E-12	681.277E-3	-6.51284E-3	140.280E-12	636.090E-3	-6.27784E-3
3.61431E-3	137.800E-12	699.923E-3	12.6323E-3	138.928E-12	651.167E-3	-13.8473E-3
3.60930E-3	137.449E-12	694.712E-3	-1.86233E-3	138.239E-12	671.540E-3	-26.5403E-3
3.60430E-3	136.627E-12	677.588E-3	-15.6672E-3	137.309E-12	673.752E-3	-16.8149E-3
3.59930E-3	136.645E-12	662.736E-3	6.16845E-3	136.964E-12	665.894E-3	-13.4637E-3
3.59430E-3	136.914E-12	659.020E-3	6.73252E-3	136.255E-12	651.822E-3	-29.8458E-3
3.58929E-3	136.568E-12	668.866E-3	-15.9702E-3	136.310E-12	653.625E-3	-28.1426E-3
3.58429E-3	136.198E-12	672.946E-3	-26.6430E-3	136.232E-12	676.678E-3	-19.5222E-3
3.57929E-3	136.289E-12	665.209E-3	-35.3048E-3	135.915E-12	680.869E-3	-24.2469E-3
3.57429E-3	136.852E-12	679.729E-3	-37.4658E-3	135.576E-12	672.998E-3	-19.4961E-3
3.56928E-3	136.359E-12	697.114E-3	-32.8915E-3	135.883E-12	669.030E-3	9.21518E-3
3.56428E-3	136.076E-12	679.406E-3	-28.1985E-3	135.609E-12	665.188E-3	5.78578E-3
3.55928E-3	135.750E-12	676.840E-3	-24.4909E-3	135.790E-12	675.086E-3	-28.2919E-3
3.55428E-3	136.386E-12	689.043E-3	-9.90828E-3	135.020E-12	682.744E-3	-25.3571E-3
3.54927E-3	136.075E-12	675.554E-3	698.861E-6	135.129E-12	676.885E-3	-12.4201E-3
3.54427E-3	135.389E-12	664.654E-3	-9.29552E-3	135.033E-12	679.698E-3	-24.9359E-3
3.53927E-3	134.883E-12	663.433E-3	-17.6336E-3	135.086E-12	681.441E-3	-37.2747E-3
3.53427E-3	135.377E-12	648.562E-3	-20.8869E-3	134.914E-12	666.720E-3	-37.2537E-3
3.52926E-3	135.679E-12	649.201E-3	-31.4865E-3	134.741E-12	649.882E-3	-35.6160E-3
3.52426E-3	135.133E-12	675.897E-3	-44.1720E-3	134.681E-12	649.027E-3	-27.9737E-3
3.51926E-3	134.898E-12	703.130E-3	-41.7107E-3	135.068E-12	667.035E-3	-12.1051E-3
3.51426E-3	134.946E-12	720.579E-3	-31.7119E-3	134.659E-12	683.524E-3	984.182E-6
3.50925E-3	135.110E-12	722.746E-3	-32.5562E-3	134.867E-12	686.755E-3	1.90714E-3
3.50425E-3	134.435E-12	694.609E-3	-40.0066E-3	135.223E-12	683.424E-3	-11.9862E-3
3.49925E-3	134.301E-12	668.589E-3	-40.5560E-3	135.555E-12	686.513E-3	-33.0723E-3
3.49425E-3	133.622E-12	676.160E-3	-29.5481E-3	135.588E-12	688.061E-3	-36.1053E-3
3.48924E-3	133.528E-12	678.255E-3	-20.2550E-3	135.849E-12	684.209E-3	-26.1653E-3
3.48424E-3	133.223E-12	669.777E-3	-27.2361E-3	135.718E-12	681.095E-3	-27.4212E-3
3.47924E-3	133.136E-12	686.539E-3	-24.8925E-3	135.184E-12	684.188E-3	-36.1973E-3
3.47424E-3	132.495E-12	715.721E-3	-12.4037E-3	134.617E-12	702.998E-3	-39.3871E-3
3.46923E-3	131.739E-12	712.518E-3	-14.3673E-3	134.057E-12	720.067E-3	-43.4090E-3
3.46423E-3	131.899E-12	699.552E-3	-14.7777E-3	133.439E-12	722.023E-3	-47.9137E-3
3.45923E-3	131.444E-12	692.895E-3	-15.5453E-3	132.062E-12	704.744E-3	-30.8042E-3
3.45423E-3	131.197E-12	680.364E-3	-31.2704E-3	131.386E-12	673.097E-3	-19.8360E-3
3.44922E-3	130.615E-12	667.210E-3	-31.0805E-3	130.948E-12	653.008E-3	-23.1540E-3
3.44422E-3	131.055E-12	664.119E-3	-14.1130E-3	130.647E-12	666.743E-3	-13.4954E-3
3.43922E-3	130.799E-12	666.491E-3	-12.4100E-3	129.888E-12	690.581E-3	-4.38491E-3
3.43422E-3	129.661E-12	670.053E-3	-12.2768E-3	130.438E-12	691.105E-3	603.489E-6
3.42921E-3	129.614E-12	671.215E-3	-4.86649E-3	130.170E-12	687.785E-3	1.55684E-3
3.42421E-3	130.011E-12	661.796E-3	-7.26378E-3	130.094E-12	692.854E-3	-11.8772E-3
3.41921E-3	130.197E-12	666.460E-3	-26.4135E-3	130.139E-12	695.303E-3	-25.5692E-3
3.41421E-3	129.827E-12	680.177E-3	-41.2634E-3	130.263E-12	690.776E-3	-34.6448E-3
3.40920E-3	129.431E-12	671.922E-3	-53.6829E-3	130.256E-12	680.369E-3	-41.1637E-3
3.40420E-3	130.135E-12	643.562E-3	-64.9748E-3	130.101E-12	670.153E-3	-35.1219E-3
3.39920E-3	130.349E-12	632.463E-3	-37.9920E-3	130.010E-12	667.833E-3	-36.5500E-3
3.39420E-3	130.045E-12	654.046E-3	-17.3208E-3	129.388E-12	664.086E-3	-46.6164E-3
3.38919E-3	129.407E-12	673.684E-3	-37.0935E-3	128.890E-12	649.564E-3	-34.1641E-3
3.38419E-3	129.414E-12	674.049E-3	-41.1067E-3	128.389E-12	647.617E-3	-18.0474E-3
3.37919E-3	129.160E-12	664.759E-3	-26.9848E-3	126.992E-12	649.597E-3	-18.4498E-3
3.37419E-3	128.799E-12	663.561E-3	-21.8845E-3	126.175E-12	648.171E-3	-18.6655E-3
3.36918E-3	128.154E-12	681.784E-3	-20.4561E-3	125.419E-12	664.594E-3	-29.6057E-3
3.36418E-3	127.464E-12	710.723E-3	-11.1483E-3	125.259E-12	675.014E-3	-39.8694E-3
3.35918E-3	126.985E-12	725.146E-3	-5.92868E-3	124.928E-12	675.626E-3	-29.3076E-3
3.35418E-3	126.733E-12	701.961E-3	-20.8965E-3	125.154E-12	680.008E-3	-23.2884E-3
3.34917E-3	126.449E-12	665.077E-3	-28.9841E-3	124.732E-12	680.784E-3	-22.4787E-3
3.34417E-3	126.329E-12	658.736E-3	-31.9916E-3	124.907E-12	674.717E-3	-27.4911E-3
3.33917E-3	126.045E-12	674.596E-3	-39.3801E-3	125.056E-12	668.090E-3	-39.5812E-3
3.33417E-3	125.469E-12	683.846E-3	-28.7464E-3	126.400E-12	681.860E-3	-25.2926E-3
3.32916E-3	125.328E-12	688.854E-3	-25.3786E-3	126.568E-12	689.051E-3	1.35161E-3
3.32416E-3	126.078E-12	688.560E-3	-34.0214E-3	126.959E-12	688.637E-3	7.14416E-3
3.31916E-3	125.557E-12	679.001E-3	-22.7745E-3	127.876E-12	708.134E-3	12.3755E-3
3.31416E-3	125.522E-12	677.198E-3	-10.4367E-3	128.446E-12	704.738E-3	6.15576E-3
3.30915E-3	125.940E-12	689.245E-3	-10.5790E-3	128.017E-12	681.396E-3	-16.4481E-3
3.30415E-3	126.273E-12	692.058E-3	-15.2745E-3	127.856E-12	680.934E-3	-22.3660E-3
3.29915E-3	126.373E-12	682.855E-3	-24.9216E-3	127.279E-12	674.087E-3	-16.7102E-3
3.29415E-3	125.997E-12	692.370E-3	-25.3325E-3	126.243E-12	660.643E-3	-12.3187E-3
3.28914E-3	125.596E-12	714.802E-3	-19.3208E-3	125.403E-12	674.488E-3	-10.5745E-3
3.28414E-3	125.662E-12	720.411E-3	-30.1977E-3	124.118E-12	686.092E-3	-9.84045E-3
3.27914E-3	125.147E-12	707.501E-3	-41.4909E-3	122.738E-12	684.994E-3	-18.0752E-3
3.27414E-3	123.983E-12	704.818E-3	-37.0297E-3	121.915E-12	688.556E-3	-22.8632E-3
3.26913E-3	124.162E-12	715.559E-3	-37.7559E-3	121.290E-12	686.593E-3	-14.0694E-3
3.26413E-3	123.679E-12	713.986E-3	-38.4545E-3	120.909E-12	679.873E-3	-11.1386E-3
3.25913E-3	122.381E-12	706.207E-3	-18.6857E-3	120.935E-12	682.785E-3	-3.02447E-3
3.25413E-3	121.934E-12	693.482E-3	606.166E-6	120.619E-12	697.708E-3	8.65820E-3
3.24912E-3	121.549E-12	675.682E-3	742.658E-6	121.145E-12	707.787E-3	6.76049E-3
3.24412E-3	121.093E-12	671.699E-3	3.10379E-3	121.267E-12	703.894E-3	-1.70632E-3
3.23912E-3	121.146E-12	688.658E-3	8.41796E-3	121.661E-12	701.347E-3	-19.2115E-3
3.23412E-3	120.343E-12	702.931E-3	-3.38474E-3	122.195E-12	709.210E-3	-26.6738E-3
3.22911E-3	119.754E-12	684.069E-3	-6.72464E-3	122.704E-12	723.246E-3	-7.91920E-3
3.22411E-3	120.093E-12	653.083E-3	-4.26433E-3	122.508E-12	710.477E-3	-954.904E-6
3.21911E-3	119.881E-12	650.645E-3	-19.9696E-3	122.936E-12	667.383E-3	-14.3080E-3
3.21411E-3	119.856E-12	669.839E-3	-18.1464E-3	123.265E-12	651.919E-3	-13.9869E-3
3.20910E-3	119.942E-12	680.558E-3	1.49939E-3	122.649E-12	677.075E-3	1.17454E-3
3.20410E-3	119.733E-12	678.155E-3	-5.07657E-3	122.022E-12	692.252E-3	5.32682E-3
3.19910E-3	119.561E-12	671.211E-3	-25.1539E-3	121.552E-12	693.969E-3	9.44082E-3
3.19410E-3	120.187E-12	661.538E-3	-20.0312E-3	120.813E-12	698.923E-3	6.62450E-3
3.18909E-3	119.905E-12	667.638E-3	-9.28194E-3	119.708E-12	684.093E-3	-22.8094E-3
3.18409E-3	119.253E-12	689.262E-3	-11.3213E-3	119.101E-12	662.446E-3	-41.8665E-3
3.17909E-3	119.759E-12	688.906E-3	-22.1706E-3	118.352E-12	664.104E-3	-34.8024E-3
3.17409E-3	119.296E-12	664.929E-3	-38.2329E-3	117.730E-12	671.476E-3	-26.6086E-3
3.16908E-3	119.275E-12	670.783E-3	-32.8105E-3	117.556E-12	671.883E-3	-26.6777E-3
3.16408E-3	119.144E-12	691.652E-3	-15.7175E-3	117.488E-12	673.146E-3	-22.7360E-3
3.15908E-3	118.861E-12	687.306E-3	-18.0784E-3	117.590E-12	670.530E-3	-22.0952E-3
3.15408E-3	117.998E-12	683.176E-3	-24.4814E-3	117.547E-12	663.917E-3	-21.9600E-3
3.14907E-3	118.169E-12	676.613E-3	-14.6751E-3	117.599E-12	666.009E-3	-5.08643E-3
3.14407E-3	118.097E-12	663.598E-3	-13.3856E-3	117.089E-12	685.246E-3	6.01124E-3
3.13907E-3	117.488E-12	678.112E-3	-15.2890E-3	117.315E-12	706.164E-3	-8.80114E-3
3.13407E-3	117.027E-12	699.113E-3	-7.53956E-3	116.986E-12	705.807E-3	-30.5921E-3
3.12906E-3	117.612E-12	683.696E-3	-21.3017E-3	116.645E-12	693.308E-3	-34.5215E-3
3.12406E-3	117.289E-12	662.024E-3	-41.6758E-3	116.631E-12	680.965E-3	-28.6438E-3
3.11906E-3	116.781E-12	660.821E-3	-32.2796E-3	116.334E-12	670.146E-3	-29.6927E-3
3.11406E-3	116.422E-12	662.227E-3	-22.7089E-3	115.933E-12	666.839E-3	-33.8606E-3
3.10905E-3	116.604E-12	666.569E-3	-30.7228E-3	115.279E-12	671.561E-3	-33.2319E-3
3.10405E-3	116.099E-12	671.327E-3	-20.6998E-3	115.195E-12	672.214E-3	-38.7631E-3
3.09905E-3	116.122E-12	662.408E-3	5.63930E-3	115.112E-12	666.533E-3	-63.0745E-3
3.09405E-3	116.209E-12	663.794E-3	18.0678E-3	114.736E-12	664.208E-3	-73.0896E-3
3.08904E-3	116.088E-12	679.448E-3	6.85429E-3	114.504E-12	677.015E-3	-54.8545E-3
3.08404E-3	116.204E-12	690.235E-3	-26.8521E-3	114.684E-12	696.833E-3	-47.4744E-3
3.07904E-3	116.309E-12	700.575E-3	-66.6872E-3	115.051E-12	694.201E-3	-45.4534E-3
3.07404E-3	116.482E-12	700.878E-3	-77.8042E-3	115.031E-12	692.475E-3	-26.0681E-3
3.06903E-3	116.175E-12	681.788E-3	-62.7940E-3	115.194E-12	717.570E-3	-11.7769E-3
3.06403E-3	115.356E-12	670.505E-3	-45.9592E-3	115.705E-12	737.443E-3	-10.8549E-3
3.05903E-3	115.439E-12	691.098E-3	-38.8066E-3	116.145E-12	734.114E-3	-9.76959E-3
3.05403E-3	115.334E-12	710.438E-3	-41.6405E-3	116.393E-12	724.049E-3	-9.27802E-3
3.04902E-3	114.757E-12	719.127E-3	-54.9840E-3	116.406E-12	712.069E-3	-4.45647E-3
3.04402E-3	113.675E-12	730.308E-3	-52.6789E-3	115.706E-12	704.018E-3	96.8806E-6
3.03902E-3	113.211E-12	724.758E-3	-13.7056E-3	115.206E-12	712.935E-3	-6.55657E-3
3.03402E-3	113.072E-12	724.628E-3	12.2504E-3	114.442E-12	719.646E-3	-20.1453E-3
3.02901E-3	112.686E-12	739.219E-3	4.02854E-3	113.912E-12	698.659E-3	-44.7797E-3
3.02401E-3	111.013E-12	724.609E-3	-18.0286E-3	113.010E-12	669.117E-3	-52.4189E-3
3.01901E-3	111.071E-12	696.950E-3	-36.3596E-3	112.246E-12	656.585E-3	-32.8129E-3
3.01401E-3	110.300E-12	695.948E-3	-37.3950E-3	111.307E-12	655.619E-3	-28.0479E-3
3.00900E-3	109.658E-12	701.040E-3	-30.1021E-3	110.596E-12	662.718E-3	-42.8386E-3
3.00400E-3	109.375E-12	680.255E-3	-26.6966E-3	110.329E-12	666.611E-3	-40.0159E-3
2.99900E-3	109.043E-12	658.658E-3	-28.7419E-3	109.699E-12	671.053E-3	-28.6897E-3
2.99400E-3	108.903E-12	659.252E-3	-24.2698E-3	109.503E-12	691.842E-3	-29.9221E-3
2.98899E-3	109.334E-12	667.218E-3	-7.46146E-3	109.438E-12	710.622E-3	-25.9410E-3
2.98399E-3	109.089E-12	688.061E-3	1.95136E-3	109.195E-12	712.382E-3	-15.1725E-3
2.97899E-3	108.861E-12	696.557E-3	10.1998E-3	109.148E-12	703.567E-3	-15.1772E-3
2.97399E-3	109.367E-12	676.542E-3	8.00464E-3	109.302E-12	698.939E-3	-28.8089E-3
2.96898E-3	108.871E-12	669.467E-3	-15.5673E-3	109.143E-12	695.314E-3	-21.8615E-3
2.96398E-3	109.281E-12	678.086E-3	-19.6534E-3	108.706E-12	690.643E-3	5.81735E-3
2.95898E-3	109.289E-12	681.824E-3	-16.0736E-3	109.069E-12	697.277E-3	8.06355E-3
2.95398E-3	108.951E-12	689.995E-3	-20.1000E-3	108.659E-12	695.604E-3	-20.1747E-3
2.94897E-3	108.734E-12	697.872E-3	-9.22205E-3	108.612E-12	686.563E-3	-49.0363E-3
2.94397E-3	108.946E-12	693.585E-3	-3.11566E-3	108.001E-12	684.402E-3	-50.5799E-3
2.93897E-3	108.378E-12	694.508E-3	-3.18917E-3	107.679E-12	681.251E-3	-32.5552E-3
2.93397E-3	108.002E-12	701.826E-3	2.81088E-3	107.239E-12	684.440E-3	-28.4314E-3
2.92896E-3	107.462E-12	693.163E-3	-8.06987E-3	107.223E-12	696.582E-3	-43.0889E-3
2.92396E-3	106.756E-12	694.804E-3	-19.7832E-3	107.001E-12	707.315E-3	-42.5563E-3
2.91896E-3	106.963E-12	712.902E-3	-5.53939E-3	106.527E-12	714.642E-3	-16.6066E-3
2.91396E-3	106.671E-12	703.227E-3	1.75509E-3	106.697E-12	719.178E-3	-2.32003E-3
2.90895E-3	105.985E-12	696.685E-3	-6.15806E-3	106.804E-12	707.357E-3	-11.0975E-3
2.90395E-3	105.732E-12	708.055E-3	-949.393E-6	107.021E-12	689.018E-3	-18.7573E-3
2.89895E-3	105.662E-12	704.824E-3	7.86973E-3	106.613E-12	690.273E-3	-21.8254E-3
2.89395E-3	105.607E-12	696.558E-3	-6.52655E-3	107.174E-12	702.172E-3	-22.3029E-3
2.88894E-3	105.519E-12	694.882E-3	-16.3879E-3	106.730E-12	699.717E-3	-19.1554E-3
2.88394E-3	105.747E-12	697.702E-3	-8.70580E-3	106.958E-12	699.084E-3	-25.0273E-3
2.87894E-3	105.669E-12	704.856E-3	-15.5411E-3	106.739E-12	710.707E-3	-42.4522E-3
2.87394E-3	105.748E-12	711.146E-3	-21.2584E-3	105.923E-12	713.615E-3	-50.3212E-3
2.86893E-3	105.452E-12	702.537E-3	-5.03063E-3	105.547E-12	720.884E-3	-38.5089E-3
2.86393E-3	105.178E-12	698.142E-3	5.14921E-3	105.300E-12	714.699E-3	-28.4847E-3
2.85893E-3	104.995E-12	705.253E-3	-2.62663E-3	104.626E-12	691.237E-3	-24.2236E-3
2.85393E-3	104.797E-12	708.787E-3	-2.86361E-3	103.946E-12	691.271E-3	-13.6201E-3
2.84892E-3	104.101E-12	707.198E-3	-14.5038E-3	104.204E-12	692.309E-3	-1.64444E-3
2.84392E-3	104.011E-12	702.702E-3	-36.1628E-3	103.380E-12	685.940E-3	3.71107E-3
2.83892E-3	103.580E-12	701.466E-3	-26.5441E-3	103.537E-12	682.872E-3	-198.634E-6
2.83392E-3	103.192E-12	700.327E-3	-12.1261E-3	103.071E-12	680.687E-3	-10.8177E-3
2.82891E-3	102.548E-12	701.258E-3	-20.1187E-3	103.128E-12	702.144E-3	-24.9377E-3
2.82391E-3	102.523E-12	697.506E-3	-36.2401E-3	102.800E-12	732.656E-3	-43.3521E-3
2.81891E-3	102.336E-12	687.771E-3	-56.3800E-3	103.373E-12	729.010E-3	-49.2880E-3
2.81391E-3	102.119E-12	690.378E-3	-48.7934E-3	103.732E-12	704.047E-3	-29.5715E-3
2.80890E-3	101.608E-12	699.130E-3	-10.7664E-3	103.476E-12	698.568E-3	-20.7635E-3
2.80390E-3	101.564E-12	700.570E-3	-2.48104E-3	103.816E-12	708.787E-3	-29.9192E-3
2.79890E-3	101.467E-12	699.349E-3	-17.5114E-3	103.857E-12	711.816E-3	-22.0652E-3
2.79390E-3	101.586E-12	693.316E-3	-7.28625E-3	103.914E-12	714.138E-3	-10.5040E-3
2.78889E-3	100.921E-12	689.644E-3	7.38225E-3	103.475E-12	717.860E-3	-13.6814E-3
2.78389E-3	100.775E-12	706.289E-3	879.429E-6	102.465E-12	708.807E-3	-18.8795E-3
2.77889E-3	100.769E-12	714.188E-3	-1.25377E-3	102.151E-12	699.494E-3	-13.1719E-3
2.77389E-3	100.373E-12	708.172E-3	-3.15184E-3	100.915E-12	701.867E-3	-10.0936E-3
2.76888E-3	100.090E-12	713.792E-3	-6.01773E-3	99.9226E-12	698.417E-3	-9.84089E-3
2.76388E-3	99.8757E-12	715.813E-3	7.80674E-3	99.2875E-12	687.358E-3	-2.12641E-3
2.75888E-3	99.2692E-12	704.310E-3	9.37632E-3	98.7124E-12	678.321E-3	-6.75978E-3
2.75388E-3	99.1103E-12	704.521E-3	-6.37240E-3	97.8649E-12	670.748E-3	-14.2544E-3
2.74887E-3	98.7008E-12	709.925E-3	-19.4313E-3	97.6491E-12	668.906E-3	-10.8743E-3
2.74387E-3	98.2355E-12	694.295E-3	-26.4277E-3	97.2325E-12	678.947E-3	-19.6742E-3
2.73887E-3	97.9306E-12	689.736E-3	-16.6175E-3	97.2672E-12	679.502E-3	-22.1498E-3
2.73387E-3	97.8457E-12	708.358E-3	-665.117E-6	97.3273E-12	676.760E-3	-8.77392E-3
2.72886E-3	97.5386E-12	724.222E-3	-4.99262E-3	97.3164E-12	687.166E-3	-5.94377E-3
2.72386E-3	97.3071E-12	722.224E-3	-20.8096E-3	97.4885E-12	684.520E-3	-12.7859E-3
2.71886E-3	97.3810E-12	703.158E-3	-32.3328E-3	98.0321E-12	681.813E-3	-20.9764E-3
2.71386E-3	97.3812E-12	683.958E-3	-36.8487E-3	98.0068E-12	699.887E-3	-23.0440E-3
2.70885E-3	97.3082E-12	688.315E-3	-32.1932E-3	98.3229E-12	712.319E-3	-18.5785E-3
2.70385E-3	97.4881E-12	703.654E-3	-29.2369E-3	97.9776E-12	714.148E-3	-18.7887E-3
2.69885E-3	96.9338E-12	698.913E-3	-33.5873E-3	97.8747E-12	712.614E-3	-20.4561E-3
2.69385E-3	96.5622E-12	686.340E-3	-34.7961E-3	97.2624E-12	705.848E-3	-4.59021E-3
2.68884E-3	97.0966E-12	689.564E-3	-12.0274E-3	96.8353E-12	697.419E-3	16.9677E-3
2.68384E-3	96.7861E-12	693.768E-3	10.0271E-3	96.2157E-12	685.345E-3	9.68725E-3
2.67884E-3	96.0573E-12	692.766E-3	-10.3833E-3	95.4504E-12	681.106E-3	-11.0603E-3
2.67384E-3	96.1745E-12	700.944E-3	-28.9314E-3	94.5366E-12	695.002E-3	-17.5854E-3
2.66883E-3	96.1637E-12	704.298E-3	-8.01340E-3	94.1806E-12	700.052E-3	-24.5221E-3
2.66383E-3	95.7283E-12	699.071E-3	8.74431E-3	93.5263E-12	690.697E-3	-30.8140E-3
2.65883E-3	95.6700E-12	704.915E-3	1.04504E-3	92.8374E-12	689.518E-3	-20.6918E-3
2.65383E-3	94.9191E-12	712.114E-3	-5.43008E-3	92.5331E-12	682.542E-3	-15.4524E-3
2.64882E-3	94.8908E-12	711.735E-3	-16.9994E-3	92.3502E-12	676.391E-3	-35.9600E-3
2.64382E-3	94.4175E-12	722.654E-3	-46.9946E-3	92.4353E-12	694.569E-3	-49.8319E-3
2.63882E-3	94.3140E-12	729.927E-3	-49.4501E-3	93.2800E-12	723.099E-3	-29.9869E-3
2.63382E-3	94.0635E-12	723.267E-3	-26.9722E-3	93.4033E-12	728.476E-3	-5.56998E-3
2.62881E-3	93.6951E-12	728.193E-3	-24.5518E-3	93.8749E-12	716.199E-3	2.94534E-3
2.62381E-3	93.7703E-12	729.052E-3	-29.6579E-3	94.1882E-12	723.937E-3	1.07883E-3
2.61881E-3	93.6097E-12	699.858E-3	-35.2453E-3	94.3823E-12	743.266E-3	-14.0416E-3
2.61381E-3	93.2756E-12	686.466E-3	-38.7061E-3	94.4518E-12	742.773E-3	-25.5625E-3
2.60880E-3	92.6524E-12	704.450E-3	-15.8346E-3	94.3315E-12	730.959E-3	-16.2499E-3
2.60380E-3	92.7422E-12	703.712E-3	1.41492E-3	94.0687E-12	723.421E-3	-14.8346E-3
2.59880E-3	92.4892E-12	697.672E-3	-25.7779E-3	94.0375E-12	723.236E-3	-14.8774E-3
2.59380E-3	92.3981E-12	710.997E-3	-24.1655E-3	93.5854E-12	721.177E-3	-6.43472E-3
2.58879E-3	91.9442E-12	712.106E-3	4.71255E-3	93.2502E-12	711.719E-3	-15.7925E-3
2.58379E-3	91.5599E-12	706.810E-3	322.231E-6	92.3554E-12	702.957E-3	-25.6033E-3
2.57879E-3	91.2224E-12	717.553E-3	1.06496E-3	91.4064E-12	702.670E-3	-22.4393E-3
2.57379E-3	91.1839E-12	723.913E-3	1.90390E-3	91.0891E-12	714.317E-3	-22.1289E-3
2.56878E-3	91.1750E-12	724.049E-3	-24.6627E-3	90.2970E-12	725.367E-3	-14.7516E-3
2.56378E-3	90.4589E-12	717.307E-3	-31.3370E-3	89.3719E-12	725.814E-3	-2.92495E-3
2.55878E-3	90.3716E-12	699.071E-3	-5.04266E-3	89.1380E-12	709.117E-3	-816.363E-6
2.55378E-3	90.0588E-12	699.571E-3	5.30731E-3	88.7872E-12	693.102E-3	4.34282E-3
2.54877E-3	89.8369E-12	719.701E-3	-12.3727E-3	88.4049E-12	707.613E-3	-1.08478E-3
2.54377E-3	89.3509E-12	729.581E-3	-20.7928E-3	88.1952E-12	726.243E-3	-30.4705E-3
2.53877E-3	89.1293E-12	727.065E-3	-9.47943E-3	87.8050E-12	722.657E-3	-35.2451E-3
2.53377E-3	88.9933E-12	724.663E-3	10.4064E-3	87.6809E-12	717.921E-3	-11.0065E-3
2.52876E-3	88.5526E-12	735.423E-3	14.3396E-3	87.7942E-12	711.313E-3	-14.2872E-3
2.52376E-3	88.5796E-12	750.808E-3	-11.0175E-3	87.4752E-12	696.411E-3	-31.9513E-3
2.51876E-3	88.3388E-12	758.681E-3	-30.1027E-3	87.1425E-12	691.027E-3	-31.5071E-3
2.51376E-3	88.2914E-12	752.524E-3	-20.0840E-3	86.9664E-12	697.811E-3	-19.8755E-3
2.50875E-3	87.4823E-12	734.837E-3	-15.1196E-3	86.8800E-12	705.970E-3	-11.5884E-3
2.50375E-3	87.5232E-12	737.933E-3	-23.1426E-3	86.9037E-12	713.630E-3	-19.9661E-3
2.49875E-3	87.1181E-12	747.969E-3	-26.0132E-3	86.8243E-12	723.842E-3	-40.5220E-3
2.49375E-3	87.2130E-12	745.198E-3	-42.8301E-3	86.9055E-12	733.691E-3	-53.1251E-3
2.48874E-3	86.8971E-12	738.155E-3	-50.7851E-3	86.9381E-12	738.543E-3	-43.3533E-3
2.48374E-3	86.8606E-12	716.111E-3	-25.5975E-3	86.9048E-12	744.997E-3	-20.3588E-3
2.47874E-3	86.7848E-12	698.222E-3	-4.01400E-3	86.9491E-12	742.819E-3	-10.7341E-3
2.47374E-3	86.9290E-12	704.391E-3	-1.30073E-3	86.9842E-12	730.395E-3	-28.9815E-3
2.46873E-3	86.4247E-12	717.391E-3	-8.07289E-3	86.6954E-12	723.090E-3	-55.1474E-3
2.46373E-3	86.1324E-12	721.647E-3	-16.4809E-3	86.2716E-12	727.114E-3	-57.3337E-3
2.45873E-3	85.9702E-12	729.895E-3	-10.1366E-3	86.4500E-12	736.328E-3	-40.6648E-3
2.45373E-3	85.7776E-12	737.820E-3	3.56241E-3	86.4829E-12	727.769E-3	-26.4467E-3
2.44872E-3	85.4720E-12	736.624E-3	-1.03358E-3	85.9234E-12	713.879E-3	-14.0222E-3
2.44372E-3	84.8962E-12	735.417E-3	-21.2114E-3	85.3414E-12	708.589E-3	-5.89267E-3
2.43872E-3	84.8467E-12	727.708E-3	-20.5215E-3	85.1784E-12	713.827E-3	-16.5164E-3
2.43372E-3	84.1131E-12	726.986E-3	-8.97289E-3	84.6995E-12	724.563E-3	-22.0017E-3
2.42871E-3	83.8543E-12	740.993E-3	-11.5652E-3	83.9084E-12	732.084E-3	-8.97271E-3
2.42371E-3	83.4662E-12	750.985E-3	-16.2449E-3	83.0132E-12	740.570E-3	-5.16978E-3
2.41871E-3	83.0190E-12	739.177E-3	-23.4811E-3	82.5128E-12	735.058E-3	-4.62627E-3
2.41371E-3	82.2639E-12	724.523E-3	-32.4816E-3	82.0997E-12	721.771E-3	-4.22721E-3
2.40870E-3	81.8028E-12	721.748E-3	-26.4439E-3	82.0864E-12	717.513E-3	-10.2738E-3
2.40370E-3	81.5712E-12	722.246E-3	-19.4434E-3	81.5375E-12	724.885E-3	-13.8593E-3
2.39870E-3	81.1702E-12	737.281E-3	-18.3824E-3	81.5116E-12	742.688E-3	-17.2657E-3
2.39370E-3	81.2065E-12	756.610E-3	-9.80964E-3	81.7207E-12	755.365E-3	-30.0763E-3
2.38869E-3	81.2254E-12	750.868E-3	-4.44432E-3	81.9728E-12	754.309E-3	-40.6778E-3
2.38369E-3	81.3900E-12	737.930E-3	-9.36239E-3	81.9234E-12	744.542E-3	-31.7701E-3
2.37869E-3	81.6813E-12	751.813E-3	-13.1059E-3	81.9229E-12	747.267E-3	-10.3172E-3
2.37369E-3	81.3192E-12	757.646E-3	-10.0310E-3	82.4075E-12	757.566E-3	-5.68346E-3
2.36868E-3	81.4765E-12	739.514E-3	-19.8416E-3	82.1510E-12	752.981E-3	-17.8456E-3
2.36368E-3	81.2979E-12	736.701E-3	-28.0565E-3	82.1530E-12	746.564E-3	-26.0418E-3
2.35868E-3	81.7436E-12	741.688E-3	-20.5780E-3	81.7068E-12	741.201E-3	-17.0889E-3
2.35368E-3	81.4326E-12	741.948E-3	-12.8309E-3	81.5964E-12	730.946E-3	2.40669E-3
2.34867E-3	81.0450E-12	755.979E-3	-4.12727E-3	80.7805E-12	723.947E-3	2.70320E-3
2.34367E-3	80.5015E-12	772.717E-3	4.59260E-3	80.3247E-12	728.553E-3	-8.12691E-3
2.33867E-3	80.2032E-12	778.334E-3	-7.79558E-3	79.6278E-12	730.985E-3	-9.13366E-3
2.33367E-3	80.3250E-12	778.458E-3	-20.1251E-3	78.9158E-12	723.532E-3	-1.03821E-3
2.32866E-3	79.5176E-12	771.537E-3	-12.9811E-3	78.1380E-12	724.933E-3	4.77365E-3
2.32366E-3	78.8195E-12	764.778E-3	-9.41083E-3	77.9975E-12	732.277E-3	-9.85812E-3
2.31866E-3	78.4226E-12	761.201E-3	-5.77173E-3	77.2817E-12	739.269E-3	-30.4242E-3
2.31366E-3	77.8834E-12	738.816E-3	-964.146E-6	77.1113E-12	751.959E-3	-43.3501E-3
2.30865E-3	77.8179E-12	712.999E-3	-10.3899E-3	77.1519E-12	748.439E-3	-48.5235E-3
2.30365E-3	77.2755E-12	718.915E-3	-21.3135E-3	76.9909E-12	729.899E-3	-36.3100E-3
2.29865E-3	77.0186E-12	739.777E-3	-20.2375E-3	77.1217E-12	730.598E-3	-24.3724E-3
2.29365E-3	76.8456E-12	741.318E-3	-26.1579E-3	76.9723E-12	747.169E-3	-20.8006E-3
2.28864E-3	76.9806E-12	741.486E-3	-26.7241E-3	77.0505E-12	756.783E-3	-11.4286E-3
2.28364E-3	76.4278E-12	746.676E-3	-9.70309E-3	77.2750E-12	754.260E-3	-14.1201E-3
2.27864E-3	76.5003E-12	734.215E-3	-3.31982E-3	77.5750E-12	755.184E-3	-31.2824E-3
2.27364E-3	76.6464E-12	732.885E-3	-12.3019E-3	77.1534E-12	765.428E-3	-25.3391E-3
2.26863E-3	76.9135E-12	750.959E-3	-14.3778E-3	77.0145E-12	770.265E-3	-2.50639E-3
2.26363E-3	76.6094E-12	757.514E-3	-17.0872E-3	77.1755E-12	768.941E-3	-1.67999E-3
2.25863E-3	76.4044E-12	760.803E-3	-34.6701E-3	76.7272E-12	766.671E-3	-5.71211E-3
2.25363E-3	76.5123E-12	773.178E-3	-32.7083E-3	75.7318E-12	762.615E-3	3.10863E-3
2.24862E-3	76.3625E-12	774.882E-3	-16.6085E-3	75.7209E-12	763.589E-3	-1.22310E-3
2.24362E-3	75.8496E-12	765.998E-3	-17.8454E-3	74.9693E-12	768.031E-3	-11.9983E-3
2.23862E-3	75.5139E-12	769.406E-3	-19.7374E-3	74.1748E-12	762.427E-3	-10.2363E-3
2.23362E-3	75.0010E-12	769.859E-3	-16.3723E-3	74.0591E-12	760.964E-3	-7.59310E-3
2.22861E-3	74.4807E-12	768.210E-3	-23.1640E-3	73.9064E-12	765.857E-3	-3.93115E-3
2.22361E-3	74.1038E-12	781.014E-3	-23.1280E-3	73.4367E-12	758.083E-3	890.974E-6
2.21861E-3	73.4602E-12	774.138E-3	-7.00008E-3	73.2960E-12	746.540E-3	-7.70741E-3
2.21361E-3	73.0835E-12	759.582E-3	-9.13248E-3	73.2257E-12	752.122E-3	-4.31426E-3
2.20860E-3	73.1026E-12	776.269E-3	-21.4545E-3	72.8473E-12	763.715E-3	13.4091E-3
2.20360E-3	72.3593E-12	776.890E-3	-15.3304E-3	72.5409E-12	762.531E-3	5.60883E-3
2.19860E-3	72.1011E-12	757.787E-3	-22.1184E-3	73.0191E-12	763.972E-3	-10.7082E-3
2.19360E-3	71.6792E-12	761.851E-3	-23.2402E-3	72.8865E-12	778.077E-3	-17.6510E-3
2.18859E-3	71.2386E-12	756.236E-3	-1.33292E-3	72.7282E-12	784.647E-3	-28.2886E-3
2.18359E-3	70.5744E-12	737.000E-3	-2.28666E-3	72.7110E-12	784.653E-3	-34.5330E-3
2.17859E-3	70.7286E-12	742.049E-3	-11.4637E-3	72.9847E-12	794.990E-3	-37.1188E-3
2.17359E-3	70.6934E-12	752.961E-3	-13.4773E-3	72.2855E-12	794.697E-3	-17.7437E-3
2.16858E-3	69.9808E-12	761.602E-3	-18.7441E-3	72.4696E-12	782.910E-3	13.5066E-3
2.16358E-3	70.0961E-12	769.992E-3	-11.0018E-3	71.8051E-12	783.047E-3	21.1786E-3
2.15858E-3	70.1313E-12	766.788E-3	9.15581E-3	71.3151E-12	786.233E-3	12.1095E-3
2.15358E-3	69.9271E-12	764.902E-3	14.1367E-3	70.7951E-12	770.328E-3	-1.34787E-3
2.14857E-3	69.3860E-12	763.838E-3	8.44636E-3	70.2201E-12	751.162E-3	-8.45023E-3
2.14357E-3	69.6351E-12	769.292E-3	4.34718E-3	69.5354E-12	748.834E-3	-16.9746E-3
2.13857E-3	69.3006E-12	779.796E-3	-6.44452E-3	69.1006E-12	754.891E-3	-28.4030E-3
2.13357E-3	68.9355E-12	784.389E-3	-8.33326E-3	68.9753E-12	761.183E-3	-30.0314E-3
2.12856E-3	68.7362E-12	788.006E-3	1.53945E-3	68.3911E-12	768.103E-3	-34.0785E-3
2.12356E-3	68.7836E-12	789.986E-3	-5.69729E-3	68.3019E-12	771.540E-3	-32.2629E-3
2.11856E-3	68.6899E-12	797.258E-3	-24.0978E-3	67.6404E-12	774.429E-3	-18.7346E-3
2.11356E-3	68.8497E-12	799.645E-3	-30.7696E-3	67.4448E-12	789.298E-3	-15.2762E-3
2.10855E-3	68.0912E-12	782.334E-3	-27.1021E-3	67.1776E-12	801.515E-3	-14.2787E-3
2.10355E-3	67.9075E-12	773.580E-3	-21.3195E-3	67.0445E-12	803.411E-3	-7.79311E-3
2.09855E-3	67.7745E-12	785.173E-3	-13.3445E-3	66.5724E-12	794.267E-3	-2.67785E-3
2.09355E-3	67.3636E-12	789.731E-3	-13.1572E-3	66.2355E-12	774.679E-3	4.20898E-3
2.08854E-3	66.7939E-12	785.231E-3	-19.5973E-3	66.2185E-12	772.862E-3	16.2305E-3
2.08354E-3	66.2468E-12	787.712E-3	-19.8173E-3	65.7691E-12	791.755E-3	6.79905E-3
2.07854E-3	66.0931E-12	787.955E-3	-18.4923E-3	65.5672E-12	798.774E-3	-21.6768E-3
2.07354E-3	65.8065E-12	782.624E-3	-23.8889E-3	65.2750E-12	780.652E-3	-23.8705E-3
2.06853E-3	65.6348E-12	780.139E-3	-31.6237E-3	65.0979E-12	775.324E-3	-21.9744E-3
2.06353E-3	65.2697E-12	790.734E-3	-32.8541E-3	64.8078E-12	800.193E-3	-27.7961E-3
2.05853E-3	65.4285E-12	818.026E-3	-32.8144E-3	64.7743E-12	818.717E-3	-16.2035E-3
2.05353E-3	65.1022E-12	828.053E-3	-27.4671E-3	64.7596E-12	820.187E-3	-16.3863E-3
2.04852E-3	64.8717E-12	809.643E-3	-17.7419E-3	64.8047E-12	818.701E-3	-23.9100E-3
2.04352E-3	64.9151E-12	804.243E-3	-22.2967E-3	64.8148E-12	808.142E-3	-10.9536E-3
2.03852E-3	64.9167E-12	821.226E-3	-33.2364E-3	64.3183E-12	799.230E-3	-11.4895E-3
2.03352E-3	64.9517E-12	813.386E-3	-22.3489E-3	64.5344E-12	805.763E-3	-34.3132E-3
2.02851E-3	64.7780E-12	798.517E-3	-6.17881E-3	64.5928E-12	804.122E-3	-28.4555E-3
2.02351E-3	64.5675E-12	814.295E-3	-12.4137E-3	64.3959E-12	807.614E-3	-6.75760E-3
2.01851E-3	64.2665E-12	822.105E-3	-30.1311E-3	63.9012E-12	831.599E-3	-7.86788E-3
2.01351E-3	63.9621E-12	809.952E-3	-34.7409E-3	63.5300E-12	837.013E-3	-10.6788E-3
2.00850E-3	63.3745E-12	808.374E-3	-26.1478E-3	63.3978E-12	817.933E-3	-11.6709E-3
2.00350E-3	63.0461E-12	809.135E-3	-17.1840E-3	62.9932E-12	808.111E-3	-24.3579E-3
1.99850E-3	62.7423E-12	808.419E-3	-18.3772E-3	62.3412E-12	809.636E-3	-29.1155E-3
1.99350E-3	61.9916E-12	811.093E-3	-25.2089E-3	61.9789E-12	808.695E-3	-16.4810E-3
1.98849E-3	61.3437E-12	808.170E-3	-23.7399E-3	61.6823E-12	811.104E-3	-7.48438E-3
1.98349E-3	60.8571E-12	806.427E-3	-23.2850E-3	61.2695E-12	816.445E-3	-5.02522E-3
1.97849E-3	60.5608E-12	807.521E-3	-14.3733E-3	60.7268E-12	829.402E-3	-10.9744E-3
1.97349E-3	59.6826E-12	814.905E-3	4.90935E-3	60.2948E-12	838.637E-3	-25.9126E-3
1.96848E-3	59.2422E-12	823.722E-3	2.67357E-3	59.7375E-12	836.136E-3	-34.5339E-3
1.96348E-3	59.1373E-12	821.293E-3	-16.8752E-3	59.7333E-12	843.301E-3	-36.3851E-3
1.95848E-3	58.8734E-12	818.261E-3	-20.6487E-3	59.3424E-12	854.221E-3	-36.3413E-3
1.95348E-3	58.6765E-12	818.353E-3	-9.82481E-3	59.1228E-12	855.146E-3	-26.0731E-3
1.94847E-3	58.6280E-12	820.525E-3	-10.3071E-3	58.9400E-12	855.778E-3	-10.4167E-3
1.94347E-3	58.7528E-12	828.249E-3	-26.0046E-3	58.7517E-12	848.712E-3	-9.96713E-3
1.93847E-3	58.5103E-12	823.785E-3	-36.0572E-3	58.5676E-12	834.556E-3	-26.2589E-3
1.93347E-3	58.4606E-12	820.921E-3	-27.9490E-3	58.8174E-12	845.231E-3	-38.3841E-3
1.92846E-3	58.5957E-12	839.500E-3	-18.2650E-3	58.4012E-12	859.303E-3	-30.1125E-3
1.92346E-3	58.2742E-12	861.333E-3	-14.3015E-3	57.8193E-12	850.954E-3	-19.2418E-3
1.91846E-3	57.8296E-12	874.340E-3	-15.5770E-3	57.5975E-12	852.414E-3	-21.5955E-3
1.91346E-3	57.6493E-12	868.732E-3	-17.8561E-3	57.5692E-12	867.417E-3	-22.5073E-3
1.90845E-3	57.1042E-12	850.631E-3	-13.2800E-3	57.4824E-12	872.334E-3	-13.8958E-3
1.90345E-3	56.5308E-12	857.511E-3	-13.1547E-3	56.5051E-12	872.284E-3	-9.77646E-3
1.89845E-3	56.6482E-12	875.618E-3	-17.7247E-3	55.9730E-12	877.409E-3	-9.48397E-3
1.89345E-3	55.8559E-12	866.494E-3	-17.2542E-3	56.1185E-12	877.879E-3	-12.8806E-3
1.88844E-3	55.2930E-12	857.862E-3	-27.2406E-3	55.8988E-12	874.245E-3	-23.0230E-3
1.88344E-3	55.1585E-12	863.118E-3	-36.7747E-3	55.1394E-12	879.614E-3	-28.2652E-3
1.87844E-3	54.7882E-12	868.502E-3	-22.9363E-3	54.9053E-12	888.323E-3	-28.1005E-3
1.87344E-3	54.0840E-12	877.971E-3	-7.22314E-3	54.7578E-12	893.218E-3	-22.1572E-3
1.86843E-3	53.9555E-12	877.869E-3	-4.65646E-3	54.6012E-12	886.665E-3	-25.0646E-3
1.86343E-3	53.8127E-12	871.131E-3	-7.16802E-3	54.4184E-12	870.165E-3	-34.4658E-3
1.85843E-3	53.2862E-12	865.510E-3	-3.32482E-3	54.3312E-12	864.646E-3	-27.6172E-3
1.85343E-3	53.1667E-12	863.786E-3	-323.817E-6	53.8042E-12	876.024E-3	-19.2578E-3
1.84842E-3	53.3425E-12	876.410E-3	-5.62988E-3	53.8827E-12	886.570E-3	-23.5116E-3
1.84342E-3	53.1738E-12	886.541E-3	-8.32508E-3	53.5507E-12	885.429E-3	-21.3484E-3
1.83842E-3	53.0124E-12	885.052E-3	-95.8427E-6	53.1037E-12	888.810E-3	-21.9340E-3
1.83342E-3	52.7748E-12	886.166E-3	10.7967E-3	52.8588E-12	895.889E-3	-32.8931E-3
1.82841E-3	52.6581E-12	906.921E-3	6.50588E-3	52.5498E-12	902.279E-3	-21.6929E-3
1.82341E-3	52.2701E-12	928.134E-3	-6.64401E-3	51.9432E-12	913.114E-3	-8.80393E-3
1.81841E-3	51.9226E-12	913.550E-3	-20.9138E-3	51.6269E-12	918.163E-3	-24.0177E-3
1.81341E-3	51.6049E-12	897.502E-3	-38.9255E-3	51.0756E-12	918.224E-3	-32.2637E-3
1.80840E-3	51.3370E-12	906.563E-3	-36.0306E-3	50.4188E-12	928.404E-3	-22.7915E-3
1.80340E-3	51.1052E-12	923.298E-3	-9.43342E-3	50.0517E-12	943.811E-3	-21.7786E-3
1.79840E-3	50.7695E-12	940.041E-3	902.396E-6	49.9290E-12	939.448E-3	-14.5034E-3
1.79340E-3	50.5554E-12	949.391E-3	-10.5927E-3	49.5814E-12	922.629E-3	-1.67211E-3
1.78839E-3	50.1467E-12	939.230E-3	-7.99290E-3	48.9564E-12	916.890E-3	-16.0740E-3
1.78339E-3	49.7579E-12	923.909E-3	-8.78543E-3	48.9577E-12	922.253E-3	-29.2815E-3
1.77839E-3	49.1492E-12	922.953E-3	-28.1729E-3	48.8841E-12	936.750E-3	-17.2901E-3
1.77339E-3	49.0323E-12	925.339E-3	-30.3562E-3	48.6039E-12	954.255E-3	-15.1704E-3
1.76838E-3	48.5738E-12	933.694E-3	-27.7411E-3	48.4783E-12	953.784E-3	-16.5812E-3
1.76338E-3	48.1891E-12	950.760E-3	-30.2867E-3	48.5721E-12	944.039E-3	-15.4257E-3
1.75838E-3	47.8480E-12	958.658E-3	-13.3821E-3	48.4319E-12	940.788E-3	-32.3649E-3
1.75338E-3	47.7830E-12	950.349E-3	912.711E-6	48.1960E-12	952.013E-3	-33.6062E-3
1.74837E-3	47.4751E-12	942.490E-3	-8.78322E-3	47.7715E-12	977.891E-3	-9.22643E-3
1.74337E-3	46.9304E-12	941.274E-3	-11.4450E-3	47.3083E-12	985.547E-3	-4.98798E-3
1.73837E-3	46.6621E-12	938.521E-3	-9.21392E-3	47.0930E-12	972.544E-3	-15.9121E-3
1.73337E-3	46.4495E-12	945.587E-3	-17.6580E-3	46.7750E-12	975.753E-3	-22.3633E-3
1.72836E-3	46.1816E-12	965.385E-3	-14.7056E-3	46.2278E-12	987.116E-3	-26.3161E-3
1.72336E-3	45.5905E-12	972.814E-3	-12.3917E-3	45.8572E-12	988.770E-3	-19.9311E-3
1.71836E-3	45.3699E-12	970.355E-3	-13.4542E-3	45.4731E-12	989.604E-3	-9.35792E-3
1.71336E-3	45.0874E-12	971.349E-3	332.711E-6	44.9408E-12	992.901E-3	-14.6498E-3
1.70835E-3	45.0828E-12	968.970E-3	6.12814E-3	44.2698E-12	989.043E-3	-23.8672E-3
1.70335E-3	44.4683E-12	973.277E-3	1.11135E-3	44.1464E-12	983.159E-3	-20.4959E-3
1.69835E-3	44.2443E-12	991.850E-3	-412.537E-6	43.5564E-12	995.292E-3	-19.6595E-3
1.69335E-3	43.9402E-12	1.00673E+0	-11.3496E-3	43.3561E-12	1.00382E+0	-18.6468E-3
1.68834E-3	43.6455E-12	1.01152E+0	-24.8619E-3	42.8588E-12	998.415E-3	-8.60459E-3
1.68334E-3	42.9916E-12	1.01529E+0	-18.7618E-3	42.6157E-12	1.01331E+0	-16.5150E-3
1.67834E-3	42.7497E-12	1.01143E+0	-10.6173E-3	42.3451E-12	1.04163E+0	-35.2737E-3
1.67334E-3	42.4618E-12	1.02030E+0	-12.3823E-3	42.2818E-12	1.05378E+0	-32.5363E-3
1.66833E-3	42.1849E-12	1.05173E+0	-7.18867E-3	42.0166E-12	1.05462E+0	-23.2026E-3
1.66333E-3	41.4658E-12	1.05749E+0	-8.96266E-3	41.8384E-12	1.05957E+0	-23.3800E-3
1.65833E-3	40.9984E-12	1.03712E+0	-23.0269E-3	41.5833E-12	1.07016E+0	-14.9132E-3
1.65333E-3	40.7657E-12	1.02749E+0	-22.4313E-3	41.2416E-12	1.07620E+0	-1.28789E-3
1.64832E-3	40.3421E-12	1.02743E+0	-21.7334E-3	40.8109E-12	1.07885E+0	-11.3396E-3
1.64332E-3	39.6455E-12	1.03365E+0	-33.6831E-3	40.5208E-12	1.07896E+0	-25.3989E-3
1.63832E-3	39.4661E-12	1.03967E+0	-34.3344E-3	40.2842E-12	1.06990E+0	-19.6123E-3
1.63332E-3	39.3811E-12	1.03459E+0	-15.6333E-3	39.8888E-12	1.06272E+0	-15.6391E-3
1.62831E-3	38.8102E-12	1.03286E+0	-11.5474E-3	39.3667E-12	1.07185E+0	-15.5003E-3
1.62331E-3	38.4991E-12	1.03805E+0	-27.5218E-3	39.0986E-12	1.08967E+0	-17.1928E-3
1.61831E-3	38.3584E-12	1.03623E+0	-30.2315E-3	38.6409E-12	1.10327E+0	-22.8324E-3
1.61331E-3	38.1539E-12	1.04925E+0	-26.8647E-3	38.2787E-12	1.10624E+0	-14.6701E-3
1.60830E-3	37.8763E-12	1.07603E+0	-21.5713E-3	37.7863E-12	1.10407E+0	-6.82834E-3
1.60330E-3	37.4098E-12	1.08544E+0	-3.47855E-3	37.7220E-12	1.11178E+0	-11.0203E-3
1.59830E-3	37.3211E-12	1.09163E+0	2.41362E-3	37.1086E-12	1.12032E+0	-16.1868E-3
1.59330E-3	36.8790E-12	1.10044E+0	-13.5894E-3	36.7423E-12	1.12518E+0	-16.7289E-3
1.58829E-3	36.5289E-12	1.09817E+0	-26.5114E-3	36.4111E-12	1.14178E+0	-18.3496E-3
1.58329E-3	35.9566E-12	1.09934E+0	-31.6579E-3	36.2990E-12	1.15611E+0	-18.8785E-3
1.57829E-3	35.8478E-12	1.11684E+0	-19.3655E-3	35.9386E-12	1.16275E+0	-4.25621E-3
1.57329E-3	35.3479E-12	1.12698E+0	4.64480E-3	35.3745E-12	1.16130E+0	1.52351E-3
1.56828E-3	34.7027E-12	1.12512E+0	6.50402E-3	35.1527E-12	1.14685E+0	-16.4187E-3
1.56328E-3	33.9928E-12	1.13313E+0	-5.70302E-3	34.9318E-12	1.14207E+0	-30.6747E-3
1.55828E-3	33.8392E-12	1.13272E+0	-2.60700E-3	34.5820E-12	1.15564E+0	-28.0809E-3
1.55328E-3	33.2778E-12	1.12600E+0	-1.91867E-3	33.9112E-12	1.16439E+0	-21.9054E-3
1.54827E-3	32.7450E-12	1.12675E+0	-13.9036E-3	33.4925E-12	1.16176E+0	-24.7672E-3
1.54327E-3	32.2646E-12	1.12302E+0	-19.4435E-3	33.3146E-12	1.16480E+0	-29.9418E-3
1.53827E-3	32.2367E-12	1.11713E+0	-19.5060E-3	32.8209E-12	1.16315E+0	-27.2772E-3
1.53327E-3	31.8828E-12	1.11780E+0	-20.5739E-3	32.1659E-12	1.15401E+0	-13.8857E-3
1.52826E-3	31.4641E-12	1.12575E+0	-19.2967E-3	31.6063E-12	1.15878E+0	-13.7622E-3
1.52326E-3	31.0846E-12	1.13595E+0	-19.4496E-3	31.2921E-12	1.16366E+0	-29.8930E-3
1.51826E-3	30.9697E-12	1.15593E+0	-33.9843E-3	30.6442E-12	1.16551E+0	-32.6810E-3
1.51326E-3	30.5886E-12	1.18239E+0	-49.8467E-3	30.1085E-12	1.16971E+0	-22.9027E-3
1.50825E-3	30.1195E-12	1.18842E+0	-43.3757E-3	29.7909E-12	1.16575E+0	-24.3408E-3
1.50325E-3	29.8528E-12	1.18168E+0	-25.9293E-3	29.3909E-12	1.16421E+0	-31.7666E-3
1.49825E-3	29.8184E-12	1.18744E+0	-13.9295E-3	28.8869E-12	1.17219E+0	-34.6660E-3
1.49325E-3	29.2541E-12	1.19405E+0	-9.64313E-3	28.3834E-12	1.16940E+0	-41.7771E-3
1.48824E-3	28.7126E-12	1.18489E+0	-18.4991E-3	28.0908E-12	1.16274E+0	-33.6109E-3
1.48324E-3	28.4461E-12	1.17283E+0	-23.0446E-3	27.8368E-12	1.17190E+0	-16.9991E-3
1.47824E-3	28.2890E-12	1.17586E+0	-15.4437E-3	27.3703E-12	1.17914E+0	-16.0197E-3
1.47324E-3	27.5143E-12	1.19736E+0	-12.2954E-3	27.1300E-12	1.18213E+0	-16.7820E-3
1.46823E-3	26.9080E-12	1.21931E+0	-17.2788E-3	26.7867E-12	1.19428E+0	-18.9887E-3
1.46323E-3	26.5435E-12	1.20819E+0	-23.2014E-3	26.4971E-12	1.20468E+0	-22.9708E-3
1.45823E-3	26.2761E-12	1.18893E+0	-20.9380E-3	26.1665E-12	1.19918E+0	-18.0536E-3
1.45323E-3	25.6459E-12	1.20316E+0	-12.4077E-3	25.9625E-12	1.19368E+0	-12.9515E-3
1.44822E-3	25.2727E-12	1.20933E+0	-3.95256E-3	25.7069E-12	1.20652E+0	-14.4020E-3
1.44322E-3	25.1104E-12	1.19982E+0	-4.88388E-3	25.2729E-12	1.21855E+0	-18.9933E-3
1.43822E-3	24.8586E-12	1.20362E+0	-16.0206E-3	24.9011E-12	1.22109E+0	-18.5532E-3
1.43322E-3	24.3059E-12	1.20186E+0	-25.0061E-3	24.6616E-12	1.21667E+0	-9.53845E-3
1.42821E-3	23.8982E-12	1.19893E+0	-28.5823E-3	24.4231E-12	1.19991E+0	-8.98369E-3
1.42321E-3	23.6955E-12	1.20795E+0	-17.9397E-3	23.9189E-12	1.18655E+0	-16.5195E-3
1.41821E-3	23.2786E-12	1.21796E+0	-9.15629E-3	23.3404E-12	1.18591E+0	-11.8810E-3
1.41321E-3	22.6964E-12	1.21360E+0	-17.5183E-3	23.0392E-12	1.17655E+0	-12.1508E-3
1.40820E-3	22.2955E-12	1.19551E+0	-17.8133E-3	22.7694E-12	1.16017E+0	-16.2241E-3
1.40320E-3	22.0296E-12	1.17348E+0	-2.67667E-3	22.1598E-12	1.15458E+0	-5.00436E-3
1.39820E-3	21.5974E-12	1.15662E+0	404.445E-6	21.5727E-12	1.14811E+0	-4.27386E-3
1.39320E-3	21.0914E-12	1.16631E+0	-16.1842E-3	21.2564E-12	1.14543E+0	-14.1076E-3
1.38819E-3	20.7475E-12	1.18490E+0	-20.2838E-3	20.8724E-12	1.14496E+0	-9.05391E-3
1.38319E-3	20.4825E-12	1.17826E+0	-7.96138E-3	20.2804E-12	1.12234E+0	-2.16816E-3
1.37819E-3	19.9440E-12	1.16834E+0	-11.2096E-3	19.7639E-12	1.09722E+0	-6.85300E-3
1.37319E-3	19.3716E-12	1.16064E+0	-21.4620E-3	19.4507E-12	1.09440E+0	-13.4443E-3
1.36818E-3	19.0657E-12	1.14329E+0	-18.3947E-3	19.1292E-12	1.09248E+0	-14.3209E-3
1.36318E-3	18.7517E-12	1.13056E+0	-14.1091E-3	18.7304E-12	1.07723E+0	-7.34253E-3
1.35818E-3	18.3074E-12	1.11636E+0	-19.3794E-3	18.1820E-12	1.06936E+0	-3.55208E-3
1.35318E-3	17.8367E-12	1.09254E+0	-24.6276E-3	17.9152E-12	1.07328E+0	-16.0555E-3
1.34817E-3	17.5325E-12	1.07490E+0	-17.9355E-3	17.6950E-12	1.07587E+0	-24.5359E-3
1.34317E-3	17.3466E-12	1.07615E+0	-14.4170E-3	17.3196E-12	1.07472E+0	-17.8113E-3
1.33817E-3	17.0060E-12	1.07576E+0	-30.4618E-3	16.9739E-12	1.05916E+0	-13.0936E-3
1.33317E-3	16.5967E-12	1.05884E+0	-42.2739E-3	16.8051E-12	1.04047E+0	-8.53964E-3
1.32816E-3	16.2948E-12	1.04366E+0	-31.0870E-3	16.5465E-12	1.03438E+0	-9.76186E-3
1.32316E-3	16.0916E-12	1.04667E+0	-13.1882E-3	16.2008E-12	1.02331E+0	-26.7917E-3
1.31816E-3	15.6481E-12	1.06255E+0	-9.13505E-3	15.7959E-12	1.00459E+0	-33.9549E-3
1.31316E-3	15.1842E-12	1.05478E+0	-17.4875E-3	15.5438E-12	990.949E-3	-27.7549E-3
1.30815E-3	15.0142E-12	1.01874E+0	-30.0348E-3	15.2382E-12	978.021E-3	-25.7894E-3
1.30315E-3	14.7987E-12	993.994E-3	-35.2787E-3	14.8382E-12	953.907E-3	-20.9999E-3
1.29815E-3	14.3018E-12	987.617E-3	-17.1793E-3	14.4299E-12	927.906E-3	-13.9118E-3
1.29315E-3	13.8612E-12	986.951E-3	3.53510E-3	14.2388E-12	912.623E-3	-12.5499E-3
1.28814E-3	13.7377E-12	981.233E-3	4.79335E-3	13.7966E-12	899.017E-3	-9.59966E-3
1.28314E-3	13.4812E-12	960.457E-3	-4.55562E-3	13.2773E-12	879.454E-3	-10.7287E-3
1.27814E-3	13.0125E-12	925.405E-3	-18.5534E-3	12.9298E-12	854.789E-3	-30.1261E-3
1.27314E-3	12.6629E-12	898.652E-3	-23.9639E-3	12.6974E-12	825.115E-3	-39.9398E-3
1.26813E-3	12.4593E-12	891.104E-3	-5.04045E-3	12.3051E-12	800.955E-3	-23.3444E-3
1.26313E-3	12.2118E-12	890.036E-3	3.32024E-3	11.8624E-12	798.617E-3	-11.0788E-3
1.25813E-3	11.8181E-12	886.480E-3	-10.7352E-3	11.5713E-12	796.474E-3	-16.3645E-3
1.25313E-3	11.5669E-12	865.863E-3	-5.75261E-3	11.4449E-12	779.131E-3	-14.8376E-3
1.24812E-3	11.3624E-12	837.666E-3	15.0784E-3	11.0528E-12	760.631E-3	-4.91678E-3
1.24312E-3	11.0390E-12	829.486E-3	20.2434E-3	10.7555E-12	744.350E-3	-9.65976E-3
1.23812E-3	10.7467E-12	830.231E-3	6.53031E-3	10.6283E-12	731.790E-3	-16.9233E-3
1.23312E-3	10.6319E-12	802.386E-3	-9.35934E-3	10.6026E-12	724.902E-3	-10.0419E-3
1.22811E-3	10.4037E-12	761.761E-3	-19.0629E-3	10.2276E-12	715.866E-3	5.70575E-3
1.22311E-3	10.0634E-12	752.050E-3	-21.5707E-3	9.98382E-12	699.795E-3	20.1743E-3
1.21811E-3	9.75002E-12	758.893E-3	-13.5167E-3	9.84752E-12	686.315E-3	6.78901E-3
1.21311E-3	9.60234E-12	754.062E-3	-10.1882E-3	9.71215E-12	673.519E-3	-20.8825E-3
1.20810E-3	9.47591E-12	727.825E-3	-16.2716E-3	9.38887E-12	659.258E-3	-23.4995E-3
1.20310E-3	9.11871E-12	694.980E-3	-8.19361E-3	9.09125E-12	645.326E-3	-20.7069E-3
1.19810E-3	8.90124E-12	678.673E-3	3.67840E-3	9.03292E-12	618.892E-3	-28.4084E-3
1.19310E-3	8.81511E-12	680.078E-3	-3.57048E-3	8.78516E-12	591.036E-3	-25.0019E-3
1.18809E-3	8.64744E-12	673.991E-3	-14.3847E-3	8.52653E-12	579.209E-3	-16.7907E-3
1.18309E-3	8.36390E-12	648.902E-3	-19.6883E-3	8.24309E-12	569.632E-3	-26.3272E-3
1.17809E-3	8.14923E-12	621.841E-3	-21.7054E-3	8.11778E-12	552.969E-3	-30.8384E-3
1.17309E-3	8.02861E-12	600.597E-3	-15.4715E-3	7.88505E-12	534.930E-3	-19.5392E-3
1.16808E-3	7.83128E-12	583.731E-3	-13.5936E-3	7.56021E-12	519.165E-3	-16.3327E-3
1.16308E-3	7.57484E-12	568.778E-3	-25.2544E-3	7.36491E-12	504.298E-3	-12.1761E-3
1.15808E-3	7.28992E-12	558.337E-3	-39.8673E-3	7.30272E-12	489.723E-3	-10.4895E-3
1.15308E-3	7.20457E-12	545.765E-3	-45.2614E-3	7.11403E-12	477.250E-3	-23.5925E-3
1.14807E-3	7.00735E-12	528.887E-3	-26.5564E-3	6.86683E-12	467.104E-3	-27.6778E-3
1.14307E-3	6.77957E-12	513.663E-3	84.6383E-6	6.73678E-12	452.815E-3	-23.8222E-3
1.13807E-3	6.61130E-12	501.003E-3	5.24840E-3	6.71532E-12	433.286E-3	-27.8189E-3
1.13307E-3	6.51657E-12	487.807E-3	-6.36862E-3	6.55940E-12	418.490E-3	-24.6402E-3
1.12806E-3	6.32073E-12	474.006E-3	-15.3811E-3	6.29068E-12	411.101E-3	-12.0361E-3
1.12306E-3	6.10544E-12	457.196E-3	-4.80213E-3	6.23029E-12	407.538E-3	-10.9849E-3
1.11806E-3	5.95755E-12	440.649E-3	7.73176E-3	6.15513E-12	398.457E-3	-22.2624E-3
1.11306E-3	5.89375E-12	425.196E-3	-529.933E-6	5.91347E-12	387.675E-3	-21.6105E-3
1.10805E-3	5.65065E-12	404.588E-3	-11.3822E-3	5.66993E-12	373.937E-3	-16.0318E-3
1.10305E-3	5.52643E-12	398.536E-3	-13.3982E-3	5.64837E-12	348.432E-3	-19.7990E-3
1.09805E-3	5.49532E-12	397.941E-3	-7.60381E-3	5.55083E-12	331.287E-3	-18.6620E-3
1.09305E-3	5.38768E-12	387.023E-3	-3.85105E-3	5.37840E-12	333.297E-3	-23.0267E-3
1.08804E-3	5.18936E-12	375.061E-3	-11.4213E-3	5.17688E-12	326.312E-3	-32.5098E-3
1.08304E-3	5.07341E-12	358.420E-3	-24.4762E-3	5.07069E-12	306.142E-3	-28.4884E-3
1.07804E-3	5.05890E-12	339.588E-3	-30.1065E-3	4.99845E-12	296.614E-3	-22.2903E-3
1.07304E-3	4.93960E-12	325.157E-3	-19.1462E-3	4.82903E-12	292.733E-3	-16.0519E-3
1.06803E-3	4.70010E-12	321.324E-3	-7.07699E-3	4.68595E-12	283.835E-3	-3.23966E-3
1.06303E-3	4.60267E-12	318.500E-3	-6.42059E-3	4.57113E-12	277.857E-3	-640.277E-6
1.05803E-3	4.63704E-12	306.006E-3	-14.6671E-3	4.59597E-12	278.252E-3	-16.4151E-3
1.05303E-3	4.50667E-12	294.755E-3	-24.3311E-3	4.40813E-12	266.942E-3	-29.6111E-3
1.04802E-3	4.32388E-12	281.758E-3	-24.6568E-3	4.29814E-12	238.442E-3	-24.5120E-3
1.04302E-3	4.34884E-12	269.715E-3	-15.5965E-3	4.42942E-12	215.595E-3	-12.4854E-3
1.03802E-3	4.22923E-12	268.432E-3	-14.4137E-3	4.25130E-12	206.721E-3	-14.6275E-3
1.03302E-3	4.08648E-12	268.179E-3	-29.3739E-3	4.01624E-12	201.490E-3	-21.8033E-3
1.02801E-3	3.90219E-12	258.115E-3	-35.2614E-3	3.90760E-12	196.227E-3	-17.7074E-3
1.02301E-3	3.73357E-12	233.374E-3	-22.6041E-3	3.78980E-12	198.302E-3	-6.00948E-3
1.01801E-3	3.70638E-12	214.757E-3	-12.6089E-3	3.73901E-12	193.191E-3	-575.431E-6
1.01301E-3	3.62803E-12	215.118E-3	-15.7822E-3	3.56027E-12	167.672E-3	-6.41089E-3
1.00800E-3	3.51152E-12	217.765E-3	-27.8221E-3	3.54666E-12	150.689E-3	-11.3419E-3
1.00300E-3	3.53887E-12	207.027E-3	-34.3006E-3	3.52718E-12	158.179E-3	-8.87910E-3
997.999E-6	3.52551E-12	191.916E-3	-29.7030E-3	3.41649E-12	168.735E-3	-13.3567E-3
992.997E-6	3.30781E-12	184.061E-3	-19.6690E-3	3.30348E-12	168.688E-3	-26.4129E-3
987.994E-6	3.27603E-12	172.967E-3	-7.55929E-3	3.30176E-12	169.948E-3	-32.5809E-3
982.991E-6	3.41163E-12	165.179E-3	-7.61857E-3	3.29196E-12	171.726E-3	-30.6425E-3
977.989E-6	3.23833E-12	160.814E-3	-24.2013E-3	3.22374E-12	154.528E-3	-28.5502E-3
972.986E-6	3.19437E-12	153.029E-3	-28.3878E-3	3.10071E-12	138.330E-3	-23.9473E-3
967.984E-6	3.10661E-12	140.799E-3	-14.6668E-3	3.12404E-12	135.406E-3	-12.2224E-3
962.981E-6	3.11076E-12	129.932E-3	-5.56125E-3	3.12173E-12	135.744E-3	-13.8436E-3
957.979E-6	3.09336E-12	135.586E-3	-6.26270E-3	3.00487E-12	137.291E-3	-22.3397E-3
952.976E-6	2.93139E-12	141.302E-3	-14.1794E-3	2.89573E-12	125.833E-3	-16.4480E-3
947.974E-6	2.89918E-12	140.804E-3	-15.9795E-3	2.86195E-12	117.056E-3	-12.7401E-3
942.971E-6	2.89879E-12	152.232E-3	2.79010E-3	2.85403E-12	120.026E-3	-12.4733E-3
937.969E-6	2.85271E-12	157.330E-3	15.8172E-3	2.78968E-12	121.993E-3	-9.83864E-3
932.966E-6	2.71169E-12	137.351E-3	814.985E-6	2.68823E-12	116.273E-3	-12.2272E-3
927.964E-6	2.64031E-12	116.624E-3	-18.8803E-3	2.71864E-12	102.447E-3	-15.3182E-3
922.961E-6	2.69573E-12	111.190E-3	-23.8053E-3	2.67846E-12	87.8978E-3	-18.3106E-3
917.959E-6	2.64304E-12	111.360E-3	-19.7101E-3	2.54509E-12	85.4596E-3	-23.3852E-3
912.956E-6	2.52290E-12	110.328E-3	-8.64473E-3	2.54551E-12	97.7179E-3	-25.4122E-3
907.954E-6	2.57395E-12	101.880E-3	-5.20830E-3	2.54968E-12	103.129E-3	-27.4673E-3
902.951E-6	2.55303E-12	93.3540E-3	-18.6669E-3	2.56361E-12	96.1578E-3	-23.5872E-3
897.949E-6	2.48381E-12	94.9212E-3	-24.3163E-3	2.48656E-12	90.2094E-3	-8.00625E-3
892.946E-6	2.46716E-12	96.1926E-3	-22.8018E-3	2.46711E-12	92.1723E-3	-8.71615E-3
887.944E-6	2.44241E-12	92.4226E-3	-30.3755E-3	2.48910E-12	95.7404E-3	-24.1617E-3
882.941E-6	2.44911E-12	91.0653E-3	-39.5909E-3	2.50394E-12	84.4278E-3	-23.7478E-3
877.939E-6	2.36468E-12	87.4046E-3	-42.7536E-3	2.38491E-12	76.4579E-3	-12.6100E-3
872.936E-6	2.33950E-12	85.0404E-3	-37.7543E-3	2.41393E-12	81.0214E-3	-10.5669E-3
867.934E-6	2.38435E-12	88.2852E-3	-18.4784E-3	2.42912E-12	70.0873E-3	-20.5312E-3
862.931E-6	2.35338E-12	87.6244E-3	-4.27162E-3	2.32240E-12	51.2219E-3	-35.9658E-3
857.929E-6	2.22138E-12	80.8216E-3	-5.44203E-3	2.24370E-12	40.3613E-3	-34.1528E-3
852.926E-6	2.19116E-12	73.6896E-3	-10.4652E-3	2.25776E-12	36.9297E-3	-11.1204E-3
847.924E-6	2.31169E-12	65.6703E-3	-16.0577E-3	2.25223E-12	48.9809E-3	-2.65650E-3
842.921E-6	2.19354E-12	54.8565E-3	-13.1215E-3	2.20033E-12	57.9910E-3	-15.1402E-3
837.919E-6	2.10446E-12	47.4171E-3	-5.54021E-3	2.14273E-12	59.9419E-3	-20.6315E-3
832.916E-6	2.11061E-12	52.4062E-3	-7.26882E-3	2.07004E-12	70.0507E-3	-16.9379E-3
827.914E-6	2.16633E-12	61.0096E-3	-18.0447E-3	2.11776E-12	68.6758E-3	-14.6478E-3
822.911E-6	2.12321E-12	54.4487E-3	-23.7161E-3	2.05076E-12	55.3162E-3	-5.75558E-3
817.909E-6	2.01372E-12	48.4229E-3	-14.8604E-3	1.98623E-12	47.0266E-3	-1.64395E-3
812.906E-6	1.98969E-12	54.4332E-3	-8.03201E-3	2.00290E-12	43.0203E-3	-10.3367E-3
807.904E-6	2.02370E-12	52.3173E-3	-5.15478E-3	2.00299E-12	42.5713E-3	-17.2085E-3
802.901E-6	2.01434E-12	43.4210E-3	5.18090E-3	1.96096E-12	52.0471E-3	-16.8097E-3
797.899E-6	1.92298E-12	42.5126E-3	7.20610E-3	1.92589E-12	65.8673E-3	-15.1343E-3
792.896E-6	1.95987E-12	37.1493E-3	6.39686E-3	1.97738E-12	70.0778E-3	-25.7633E-3
787.894E-6	1.95770E-12	32.4779E-3	11.9147E-3	1.98732E-12	67.8589E-3	-37.6797E-3
782.891E-6	1.92230E-12	43.9019E-3	-2.67134E-3	1.93813E-12	68.8697E-3	-42.6632E-3
777.889E-6	1.88304E-12	49.4006E-3	-26.0338E-3	1.90181E-12	63.7579E-3	-37.2983E-3
772.886E-6	1.88414E-12	40.0791E-3	-30.6226E-3	1.92724E-12	44.2221E-3	-22.1703E-3
767.884E-6	1.85546E-12	33.6262E-3	-24.1110E-3	1.91294E-12	30.8146E-3	-11.8168E-3
762.881E-6	1.81515E-12	38.2666E-3	-16.0538E-3	1.77491E-12	33.0909E-3	-5.71430E-3
757.879E-6	1.82771E-12	44.5787E-3	-14.6895E-3	1.79164E-12	35.2302E-3	-5.89848E-3
752.876E-6	1.85387E-12	37.8244E-3	-19.4629E-3	1.79720E-12	33.6530E-3	-12.4226E-3
747.874E-6	1.86035E-12	23.2035E-3	-19.8553E-3	1.80292E-12	34.0002E-3	-14.2056E-3
742.871E-6	1.76975E-12	24.1891E-3	-19.4825E-3	1.68205E-12	36.6061E-3	-11.7053E-3
737.869E-6	1.74021E-12	40.0973E-3	-18.7040E-3	1.70950E-12	35.4146E-3	-14.4143E-3
732.866E-6	1.85873E-12	49.5971E-3	-19.7344E-3	1.75976E-12	31.1305E-3	-9.50588E-3
727.864E-6	1.76647E-12	45.8981E-3	-25.8851E-3	1.73393E-12	35.7848E-3	5.13237E-3
722.861E-6	1.71982E-12	39.4872E-3	-28.9607E-3	1.62073E-12	44.2006E-3	6.13532E-3
717.859E-6	1.68022E-12	37.8161E-3	-33.7608E-3	1.67597E-12	44.1394E-3	-6.65100E-3
712.856E-6	1.78790E-12	38.9483E-3	-37.8438E-3	1.75366E-12	47.6237E-3	-19.9306E-3
707.854E-6	1.76122E-12	37.6878E-3	-20.8089E-3	1.68443E-12	53.7565E-3	-19.2921E-3
702.851E-6	1.59535E-12	29.7189E-3	-2.58123E-3	1.62018E-12	42.4239E-3	-5.39846E-3
697.849E-6	1.60620E-12	23.3382E-3	-4.54841E-3	1.68031E-12	27.9230E-3	-3.84849E-3
692.846E-6	1.69569E-12	22.2505E-3	-2.73524E-3	1.67154E-12	21.6267E-3	-7.33020E-3
687.844E-6	1.60674E-12	24.9177E-3	6.23501E-3	1.67410E-12	22.2309E-3	-7.05738E-3
682.841E-6	1.55952E-12	25.9205E-3	5.51093E-3	1.59285E-12	33.3654E-3	-19.3074E-3
677.839E-6	1.60373E-12	17.2841E-3	171.875E-6	1.67554E-12	33.2495E-3	-29.1088E-3
672.836E-6	1.62505E-12	10.4750E-3	-4.84764E-3	1.65098E-12	21.2301E-3	-21.4571E-3
667.834E-6	1.61948E-12	14.0997E-3	-7.57059E-3	1.52834E-12	13.7319E-3	-11.3270E-3
662.831E-6	1.51346E-12	15.7592E-3	-7.17588E-3	1.53163E-12	17.3001E-3	-12.4258E-3
657.829E-6	1.59969E-12	15.4156E-3	-6.89221E-3	1.55102E-12	35.8206E-3	-18.7846E-3
652.826E-6	1.62957E-12	22.7075E-3	-6.84787E-3	1.53809E-12	50.2875E-3	-15.5810E-3
647.824E-6	1.56724E-12	24.7335E-3	-12.9980E-3	1.48643E-12	44.0970E-3	-12.2918E-3
642.821E-6	1.57947E-12	11.5389E-3	-22.9523E-3	1.46320E-12	29.0233E-3	-17.4264E-3
637.819E-6	1.57032E-12	7.04904E-3	-22.8898E-3	1.52761E-12	21.6326E-3	-20.5313E-3
632.816E-6	1.54200E-12	18.7518E-3	-14.0628E-3	1.50958E-12	27.2411E-3	-23.8585E-3
627.814E-6	1.45862E-12	25.9494E-3	-11.8787E-3	1.43132E-12	37.8338E-3	-24.7579E-3
622.811E-6	1.53166E-12	26.2772E-3	-15.5648E-3	1.45131E-12	40.3229E-3	-24.5572E-3
617.809E-6	1.56062E-12	23.8256E-3	-15.3211E-3	1.53283E-12	33.4337E-3	-23.1849E-3
612.806E-6	1.53708E-12	30.4827E-3	-8.80845E-3	1.49397E-12	27.3798E-3	-16.2297E-3
607.804E-6	1.35461E-12	42.6075E-3	-11.2198E-3	1.41357E-12	31.1482E-3	-18.6334E-3
602.801E-6	1.36675E-12	41.1901E-3	-23.1824E-3	1.45517E-12	34.8085E-3	-25.2065E-3
597.799E-6	1.47178E-12	30.7828E-3	-23.7642E-3	1.49858E-12	24.9753E-3	-20.3759E-3
592.796E-6	1.40171E-12	32.9432E-3	-18.5014E-3	1.44024E-12	18.4109E-3	-12.6147E-3
587.794E-6	1.34497E-12	45.5692E-3	-19.1524E-3	1.35771E-12	24.5806E-3	-10.4199E-3
582.791E-6	1.38618E-12	44.8825E-3	-20.0699E-3	1.37302E-12	31.9695E-3	-10.5877E-3
577.789E-6	1.43374E-12	31.0626E-3	-18.7811E-3	1.43114E-12	46.2154E-3	-11.1966E-3
572.786E-6	1.39712E-12	15.6543E-3	-19.1802E-3	1.38269E-12	58.3914E-3	-17.3326E-3
567.784E-6	1.30771E-12	12.4208E-3	-27.6670E-3	1.30523E-12	41.4859E-3	-21.7868E-3
562.781E-6	1.37978E-12	28.1070E-3	-26.7722E-3	1.31266E-12	16.2732E-3	-19.4819E-3
557.779E-6	1.39276E-12	49.8645E-3	-12.4641E-3	1.35554E-12	9.85771E-3	-15.5385E-3
552.776E-6	1.37723E-12	61.7928E-3	-15.6673E-3	1.30915E-12	5.81378E-3	-3.92429E-3
547.774E-6	1.30851E-12	55.1982E-3	-23.9890E-3	1.26760E-12	6.84485E-3	8.91868E-3
542.771E-6	1.32095E-12	31.1494E-3	-18.8097E-3	1.32020E-12	17.0018E-3	8.85704E-3
537.769E-6	1.33451E-12	16.2511E-3	-11.7113E-3	1.35367E-12	32.6680E-3	-1.01391E-3
532.766E-6	1.29236E-12	27.9896E-3	-5.10596E-3	1.25243E-12	48.0397E-3	-9.90301E-3
527.764E-6	1.24926E-12	39.1432E-3	-9.04231E-3	1.26210E-12	41.6639E-3	-14.2676E-3
522.761E-6	1.29685E-12	32.5274E-3	-21.9208E-3	1.24927E-12	26.9007E-3	-21.9921E-3
517.759E-6	1.24287E-12	26.2847E-3	-13.7399E-3	1.29897E-12	29.8780E-3	-31.1931E-3
512.756E-6	1.20981E-12	33.9739E-3	8.70660E-3	1.18881E-12	40.8522E-3	-31.3223E-3
507.754E-6	1.18590E-12	43.4779E-3	7.53168E-3	1.20072E-12	38.4403E-3	-24.0397E-3
502.751E-6	1.20002E-12	48.9926E-3	-16.4999E-3	1.24596E-12	28.0144E-3	-13.2569E-3
497.749E-6	1.20691E-12	43.0863E-3	-32.3503E-3	1.23816E-12	30.3037E-3	-12.7034E-3
492.746E-6	1.08885E-12	26.7341E-3	-31.7209E-3	1.10000E-12	39.0676E-3	-17.9690E-3
487.744E-6	1.05928E-12	15.4554E-3	-25.0711E-3	1.12636E-12	42.9082E-3	-9.90118E-3
482.741E-6	1.23373E-12	7.25470E-3	-15.2111E-3	1.17333E-12	52.1475E-3	-8.57486E-3
477.739E-6	1.12910E-12	11.6218E-3	-12.9831E-3	1.11497E-12	60.3171E-3	-18.5395E-3
472.736E-6	1.02210E-12	25.4847E-3	-17.2694E-3	1.04666E-12	49.6878E-3	-22.6047E-3
467.734E-6	1.03379E-12	24.7783E-3	-10.7110E-3	1.12215E-12	32.2809E-3	-20.3490E-3
462.731E-6	1.12476E-12	15.3770E-3	278.129E-6	1.09787E-12	31.0773E-3	-16.8349E-3
457.729E-6	1.08879E-12	18.8509E-3	108.442E-6	1.05951E-12	33.5212E-3	-17.7779E-3
452.726E-6	1.00029E-12	37.1996E-3	383.397E-6	1.04068E-12	29.6352E-3	-20.8421E-3
447.724E-6	1.00191E-12	42.7528E-3	3.63564E-3	1.05751E-12	31.2794E-3	-20.5681E-3
442.721E-6	1.10224E-12	28.8052E-3	-4.21905E-3	1.04802E-12	35.0594E-3	-20.4467E-3
437.719E-6	1.02383E-12	24.5455E-3	-16.6241E-3	986.021E-15	35.7147E-3	-26.6403E-3
432.716E-6	948.345E-15	27.5917E-3	-22.6380E-3	958.913E-15	40.3711E-3	-31.2254E-3
427.714E-6	967.501E-15	27.2375E-3	-21.9368E-3	963.944E-15	43.7243E-3	-22.3449E-3
422.711E-6	1.02703E-12	25.1640E-3	-15.1539E-3	976.090E-15	38.0788E-3	-17.6457E-3
417.709E-6	969.637E-15	16.8205E-3	-7.59386E-3	891.817E-15	38.8173E-3	-22.6966E-3
412.706E-6	909.108E-15	17.8261E-3	-10.1528E-3	868.127E-15	45.9861E-3	-21.3473E-3
407.704E-6	927.593E-15	37.0248E-3	-13.5872E-3	944.011E-15	50.0211E-3	-16.4205E-3
402.701E-6	940.829E-15	52.5796E-3	-8.93021E-3	906.074E-15	55.8726E-3	-15.7697E-3
397.699E-6	863.392E-15	58.4622E-3	-12.3747E-3	832.927E-15	53.7879E-3	-14.9942E-3
392.696E-6	849.712E-15	63.4801E-3	-16.8826E-3	836.886E-15	49.2175E-3	-3.10235E-3
387.694E-6	885.417E-15	59.0986E-3	-7.84412E-3	863.270E-15	50.3545E-3	779.741E-6
382.691E-6	874.928E-15	53.7640E-3	-10.8954E-3	866.976E-15	45.7808E-3	-8.76741E-3
377.689E-6	786.924E-15	59.9037E-3	-27.2582E-3	809.751E-15	52.4633E-3	-10.5031E-3
372.686E-6	748.795E-15	53.7670E-3	-22.7312E-3	798.608E-15	62.0530E-3	-6.43608E-3
367.684E-6	896.535E-15	31.4163E-3	-12.5488E-3	870.377E-15	51.4359E-3	-4.99968E-3
362.681E-6	844.899E-15	24.9693E-3	-14.0744E-3	807.807E-15	41.9211E-3	-13.8459E-3
357.679E-6	694.613E-15	31.2335E-3	-16.4589E-3	724.337E-15	44.4201E-3	-27.9337E-3
352.676E-6	737.782E-15	35.5388E-3	-11.8186E-3	753.852E-15	50.4387E-3	-22.1739E-3
347.674E-6	799.236E-15	44.0105E-3	-5.64960E-3	786.968E-15	46.2156E-3	-3.78155E-3
342.671E-6	779.530E-15	50.6385E-3	-12.9450E-3	718.957E-15	39.1337E-3	-10.6235E-3
337.669E-6	626.035E-15	42.0407E-3	-22.5538E-3	624.239E-15	43.6796E-3	-34.3768E-3
332.666E-6	658.053E-15	27.4016E-3	-18.6732E-3	666.284E-15	49.5108E-3	-37.2126E-3
327.664E-6	734.669E-15	20.9953E-3	-10.7430E-3	657.756E-15	50.6827E-3	-24.1591E-3
322.661E-6	683.426E-15	23.8176E-3	-20.5824E-3	613.079E-15	43.7810E-3	-18.7673E-3
317.659E-6	561.713E-15	39.7383E-3	-33.0234E-3	570.232E-15	32.2584E-3	-18.2199E-3
312.656E-6	632.636E-15	53.6322E-3	-27.2927E-3	604.481E-15	32.6461E-3	-14.8161E-3
307.654E-6	683.565E-15	52.6733E-3	-18.9154E-3	592.283E-15	36.9250E-3	-20.3346E-3
302.651E-6	626.811E-15	48.4725E-3	-18.6164E-3	551.180E-15	34.9879E-3	-26.2618E-3
297.649E-6	541.842E-15	46.1016E-3	-22.9309E-3	530.141E-15	31.1909E-3	-19.7223E-3
292.646E-6	540.246E-15	46.8209E-3	-20.9125E-3	558.984E-15	32.6765E-3	-17.7455E-3
287.644E-6	604.691E-15	44.2949E-3	-15.2911E-3	616.174E-15	40.0523E-3	-18.5507E-3
282.641E-6	465.199E-15	37.8622E-3	-10.4708E-3	479.316E-15	41.8439E-3	-16.1698E-3
277.639E-6	424.968E-15	41.3269E-3	-1.09428E-3	493.075E-15	40.8518E-3	-18.7593E-3
272.636E-6	509.973E-15	58.6780E-3	2.68880E-3	549.768E-15	38.4101E-3	-22.8562E-3
267.634E-6	526.635E-15	72.7456E-3	-2.83585E-3	526.531E-15	37.8387E-3	-27.9138E-3
262.631E-6	422.658E-15	65.4282E-3	-9.20890E-3	455.198E-15	43.3370E-3	-33.6339E-3
257.629E-6	439.512E-15	52.8219E-3	-14.5972E-3	445.555E-15	51.7611E-3	-28.8030E-3
252.626E-6	495.900E-15	58.7354E-3	-14.0464E-3	482.106E-15	54.6114E-3	-17.8505E-3
247.624E-6	428.447E-15	62.9440E-3	-3.86013E-3	459.383E-15	38.3834E-3	-13.6235E-3
242.621E-6	382.087E-15	52.7577E-3	-4.10544E-3	368.929E-15	22.2699E-3	-14.5622E-3
237.619E-6	305.121E-15	34.6431E-3	-10.4672E-3	384.563E-15	25.5505E-3	-18.0068E-3
232.616E-6	459.061E-15	19.8088E-3	-5.38293E-3	375.172E-15	37.3348E-3	-28.8669E-3
227.614E-6	409.422E-15	29.7182E-3	-4.12252E-3	335.325E-15	41.2222E-3	-37.0144E-3
222.611E-6	250.512E-15	47.6898E-3	-16.7245E-3	264.864E-15	42.2754E-3	-32.2833E-3
217.609E-6	289.313E-15	49.2479E-3	-27.6028E-3	323.755E-15	57.5721E-3	-27.3714E-3
212.606E-6	379.035E-15	41.1161E-3	-27.6233E-3	332.439E-15	69.2068E-3	-33.2947E-3
207.604E-6	363.872E-15	36.3370E-3	-24.7162E-3	275.912E-15	59.0840E-3	-22.6377E-3
202.601E-6	254.593E-15	40.0517E-3	-11.3875E-3	222.401E-15	41.1252E-3	-4.22140E-3
197.599E-6	258.299E-15	36.2919E-3	366.647E-6	243.903E-15	26.3855E-3	-17.8262E-3
192.596E-6	330.608E-15	31.4289E-3	-5.65431E-3	278.754E-15	21.2441E-3	-23.6672E-3
187.594E-6	272.433E-15	40.0651E-3	-8.27926E-3	241.488E-15	27.1757E-3	-12.4633E-3
182.591E-6	212.269E-15	45.5251E-3	-11.0675E-3	196.339E-15	31.6631E-3	-15.8121E-3
177.589E-6	209.627E-15	46.6727E-3	-21.3810E-3	249.658E-15	29.6806E-3	-25.2944E-3
172.586E-6	258.255E-15	45.6278E-3	-26.6212E-3	255.849E-15	31.7583E-3	-31.3744E-3
167.584E-6	246.188E-15	36.6287E-3	-30.8313E-3	202.931E-15	39.1398E-3	-27.9961E-3
162.581E-6	165.665E-15	37.6498E-3	-30.4665E-3	150.293E-15	36.3399E-3	-14.5423E-3
157.579E-6	159.056E-15	49.5595E-3	-25.1693E-3	194.194E-15	27.5643E-3	-4.46475E-3
152.576E-6	187.480E-15	44.3248E-3	-26.3544E-3	197.168E-15	23.8042E-3	-476.885E-6
147.574E-6	162.238E-15	29.1687E-3	-35.3463E-3	140.754E-15	17.8387E-3	5.80857E-3
142.571E-6	128.695E-15	27.8149E-3	-27.8324E-3	80.6776E-15	17.5758E-3	4.10891E-3
137.569E-6	140.658E-15	30.9994E-3	-3.45207E-3	166.441E-15	25.7310E-3	-5.08058E-3
132.566E-6	180.767E-15	34.5755E-3	-1.78461E-3	149.900E-15	26.0362E-3	-9.72556E-3
127.564E-6	69.8308E-15	34.9533E-3	-8.83853E-3	50.1514E-15	30.5177E-3	-7.14539E-3
122.561E-6	119.086E-15	21.8486E-3	-8.21225E-3	46.5154E-15	39.5169E-3	-4.46107E-3
117.559E-6	158.367E-15	8.22894E-3	-14.3965E-3	102.755E-15	33.5115E-3	-1.89993E-3
112.556E-6	92.9632E-15	7.70079E-3	-7.81131E-3	113.959E-15	24.5073E-3	5.52352E-3
107.554E-6	-40.5730E-15	17.6991E-3	8.49357E-3	8.72592E-15	24.8914E-3	4.54378E-3
102.551E-6	39.2173E-15	27.3829E-3	8.10208E-3	41.6413E-15	26.0226E-3	-3.75464E-3
97.5488E-6	133.081E-15	26.9434E-3	-3.31651E-3	66.2559E-15	33.3302E-3	-6.10386E-3
92.5463E-6	40.6560E-15	14.0664E-3	-15.5055E-3	30.4806E-15	46.1326E-3	-6.70157E-3
87.5438E-6	-46.4063E-15	5.99447E-3	-26.4402E-3	-30.0401E-15	40.4073E-3	-13.5327E-3
82.5413E-6	-56.4683E-15	14.0305E-3	-25.1133E-3	-15.9584E-15	22.0421E-3	-12.4239E-3
77.5388E-6	53.7350E-15	21.4414E-3	-14.6439E-3	31.7972E-15	20.1410E-3	-4.21094E-3
72.5363E-6	10.4785E-15	16.3209E-3	-17.3460E-3	-39.1954E-15	23.5517E-3	-8.15991E-3
67.5338E-6	-80.3680E-15	16.0455E-3	-21.1011E-3	-54.9773E-15	18.1209E-3	-15.3723E-3
62.5313E-6	-48.8651E-15	30.2694E-3	-9.77979E-3	-21.8265E-15	19.5431E-3	-27.4615E-3
57.5288E-6	-5.27729E-15	44.3930E-3	-15.5062E-3	-27.1104E-15	25.4458E-3	-41.1571E-3
52.5263E-6	-49.0918E-15	46.4567E-3	-30.1471E-3	-77.3511E-15	23.5711E-3	-29.2801E-3
47.5238E-6	-67.0885E-15	30.1190E-3	-27.1807E-3	-131.707E-15	20.5951E-3	-13.9241E-3
42.5213E-6	-70.2623E-15	9.03405E-3	-27.7620E-3	-51.7512E-15	25.8375E-3	-16.7057E-3
37.5188E-6	-39.2564E-15	8.32043E-3	-22.6265E-3	-26.1775E-15	29.5333E-3	-16.7059E-3
32.5163E-6	-113.379E-15	13.8298E-3	-6.56798E-3	-164.073E-15	31.1263E-3	-15.3303E-3
27.5138E-6	-165.512E-15	9.05475E-3	-6.53804E-3	-118.855E-15	38.3983E-3	-16.3511E-3
22.5113E-6	-82.9402E-15	8.51019E-3	-18.4265E-3	-98.6524E-15	35.7311E-3	-14.2798E-3
17.5088E-6	-108.235E-15	2.65016E-3	-15.5672E-3	-130.051E-15	23.5983E-3	-19.8248E-3
12.5063E-6	-201.069E-15	-5.93027E-3	-7.91846E-3	-180.065E-15	18.2728E-3	-28.8819E-3
7.50375E-6	-200.459E-15	10.6295E-3	-16.1779E-3	-196.893E-15	19.3875E-3	-28.6642E-3
2.50125E-6	-91.4851E-15	27.4496E-3	-22.6527E-3	-105.549E-15	17.6514E-3	-20.5854E-3
-2.50125E-6	-158.275E-15	14.2230E-3	-25.8064E-3	-178.704E-15	18.1325E-3	-7.78111E-3
-7.50375E-6	-228.195E-15	4.28850E-3	-32.3901E-3	-260.875E-15	27.5468E-3	126.892E-6
-12.5063E-6	-239.208E-15	23.0062E-3	-33.2279E-3	-270.152E-15	35.9479E-3	-4.12020E-3
-17.5088E-6	-160.568E-15	33.5650E-3	-35.6971E-3	-172.051E-15	37.4697E-3	-16.3553E-3
-22.5113E-6	-145.981E-15	25.3318E-3	-42.9877E-3	-187.476E-15	38.6630E-3	-23.8233E-3
-27.5138E-6	-294.436E-15	26.0786E-3	-32.1982E-3	-257.858E-15	46.7504E-3	-18.7319E-3
-32.5163E-6	-286.606E-15	35.5398E-3	-11.2423E-3	-233.636E-15	60.1710E-3	-16.8137E-3
-37.5188E-6	-214.140E-15	35.3150E-3	-8.75020E-3	-209.527E-15	63.2715E-3	-22.4393E-3
-42.5213E-6	-208.978E-15	27.3395E-3	-15.6642E-3	-292.587E-15	44.3756E-3	-25.5000E-3
-47.5238E-6	-320.611E-15	16.3310E-3	-23.8947E-3	-337.056E-15	26.0029E-3	-32.9935E-3
-52.5263E-6	-312.947E-15	14.2370E-3	-30.7783E-3	-290.320E-15	19.8784E-3	-33.9173E-3
-57.5288E-6	-256.263E-15	24.6039E-3	-25.3495E-3	-267.572E-15	24.0064E-3	-21.9706E-3
-62.5313E-6	-307.427E-15	23.9093E-3	-13.3381E-3	-377.557E-15	35.1606E-3	-25.0729E-3
-67.5338E-6	-408.580E-15	27.6886E-3	-22.2153E-3	-385.622E-15	32.9145E-3	-34.9009E-3
-72.5363E-6	-389.040E-15	43.9627E-3	-37.8798E-3	-334.100E-15	25.0078E-3	-26.4734E-3
-77.5388E-6	-317.158E-15	41.5284E-3	-29.7438E-3	-340.753E-15	35.8610E-3	-20.2745E-3
-82.5413E-6	-383.660E-15	29.7854E-3	-27.1442E-3	-428.469E-15	43.9160E-3	-16.5083E-3
-87.5438E-6	-467.653E-15	33.1704E-3	-33.4725E-3	-456.188E-15	32.9828E-3	3.24617E-3
-92.5463E-6	-417.988E-15	40.9826E-3	-17.6198E-3	-361.182E-15	30.3889E-3	13.1302E-3
-97.5488E-6	-375.107E-15	50.5582E-3	-9.96085E-3	-404.107E-15	39.9328E-3	137.651E-6
-102.551E-6	-480.881E-15	61.8875E-3	-20.2485E-3	-489.670E-15	52.5992E-3	-8.36661E-3
-107.554E-6	-493.454E-15	58.5421E-3	-16.1021E-3	-502.749E-15	69.6390E-3	-15.9487E-3
-112.556E-6	-463.965E-15	49.9178E-3	-18.9700E-3	-421.066E-15	68.8194E-3	-28.5266E-3
-117.559E-6	-468.735E-15	57.6963E-3	-26.5717E-3	-484.630E-15	51.1219E-3	-24.3425E-3
-122.561E-6	-545.927E-15	58.5041E-3	-18.1329E-3	-559.991E-15	43.4383E-3	-18.4839E-3
-127.564E-6	-588.364E-15	43.1131E-3	-10.1250E-3	-571.117E-15	39.9115E-3	-28.4169E-3
-132.566E-6	-522.428E-15	42.0273E-3	-6.49715E-3	-476.861E-15	33.0787E-3	-36.7297E-3
-137.569E-6	-522.201E-15	45.6256E-3	2.33851E-3	-531.025E-15	41.8511E-3	-31.5954E-3
-142.571E-6	-666.279E-15	42.8845E-3	7.57548E-3	-642.964E-15	59.5763E-3	-30.8323E-3
-147.574E-6	-660.237E-15	53.6720E-3	-5.02748E-3	-576.357E-15	61.5967E-3	-35.3184E-3
-152.576E-6	-535.577E-15	67.6562E-3	-19.2822E-3	-637.009E-15	61.5390E-3	-23.4978E-3
-157.579E-6	-632.771E-15	63.9407E-3	-23.6087E-3	-644.158E-15	73.1365E-3	-5.39404E-3
-162.581E-6	-682.706E-15	50.9449E-3	-28.0843E-3	-735.258E-15	68.2005E-3	3.63797E-3
-167.584E-6	-717.819E-15	41.7836E-3	-28.2128E-3	-701.933E-15	57.9527E-3	723.380E-6
-172.586E-6	-625.656E-15	45.0835E-3	-23.9215E-3	-723.583E-15	71.1132E-3	-10.6607E-3
-177.589E-6	-697.207E-15	56.0241E-3	-23.8662E-3	-810.174E-15	81.0400E-3	-17.8374E-3
-182.591E-6	-817.655E-15	61.6364E-3	-27.8477E-3	-812.136E-15	76.3566E-3	-15.6273E-3
-187.594E-6	-824.517E-15	56.4461E-3	-29.4510E-3	-817.673E-15	70.6619E-3	-12.7443E-3
-192.596E-6	-777.686E-15	57.4943E-3	-20.3429E-3	-763.630E-15	66.4639E-3	-18.1201E-3
-197.599E-6	-825.703E-15	81.0313E-3	1.65241E-3	-873.119E-15	74.2634E-3	-26.8657E-3
-202.601E-6	-883.931E-15	89.5896E-3	8.90547E-3	-904.473E-15	90.7010E-3	-33.5229E-3
-207.604E-6	-875.691E-15	76.4244E-3	-12.4796E-3	-800.347E-15	90.6714E-3	-36.8060E-3
-212.606E-6	-898.344E-15	70.6436E-3	-20.3378E-3	-847.022E-15	88.8692E-3	-31.1072E-3
-217.609E-6	-939.673E-15	65.0977E-3	-8.99189E-3	-1.00056E-12	95.6015E-3	-23.7177E-3
-222.611E-6	-963.791E-15	60.0719E-3	-9.35616E-3	-980.619E-15	88.7576E-3	-25.0389E-3
-227.614E-6	-940.781E-15	64.1346E-3	-17.9023E-3	-926.167E-15	81.1342E-3	-27.2388E-3
-232.616E-6	-1.01985E-12	60.7223E-3	-26.1660E-3	-985.511E-15	86.1164E-3	-29.6568E-3
-237.619E-6	-1.06253E-12	52.4883E-3	-34.1803E-3	-1.07540E-12	79.5059E-3	-26.8420E-3
-242.621E-6	-1.11346E-12	63.0969E-3	-22.5300E-3	-1.14541E-12	73.5726E-3	-9.27092E-3
-247.624E-6	-1.02624E-12	82.2441E-3	3.17931E-3	-1.07620E-12	86.1522E-3	-2.63465E-3
-252.626E-6	-1.08801E-12	90.2024E-3	-5.80711E-3	-1.10718E-12	83.8679E-3	-16.8538E-3
-257.629E-6	-1.20018E-12	84.8486E-3	-29.2354E-3	-1.22935E-12	75.7608E-3	-23.5317E-3
-262.631E-6	-1.23578E-12	73.7804E-3	-19.8443E-3	-1.22840E-12	82.2705E-3	-19.3230E-3
-267.634E-6	-1.12080E-12	77.4472E-3	-6.47498E-3	-1.22799E-12	84.0183E-3	-25.4520E-3
-272.636E-6	-1.19293E-12	91.4939E-3	-8.58575E-3	-1.27497E-12	85.8207E-3	-30.6720E-3
-277.639E-6	-1.34248E-12	88.4894E-3	-3.53884E-3	-1.30315E-12	94.6341E-3	-26.1230E-3
-282.641E-6	-1.32627E-12	78.9464E-3	7.72900E-3	-1.30735E-12	98.6946E-3	-28.7007E-3
-287.644E-6	-1.29076E-12	78.4109E-3	3.54738E-3	-1.29811E-12	96.8806E-3	-29.8987E-3
-292.646E-6	-1.33080E-12	78.5243E-3	-9.79375E-3	-1.38740E-12	98.6932E-3	-24.0952E-3
-297.649E-6	-1.48644E-12	81.0480E-3	-23.1948E-3	-1.46653E-12	99.9619E-3	-13.3504E-3
-302.651E-6	-1.45314E-12	90.2420E-3	-39.5972E-3	-1.41977E-12	92.9753E-3	-4.13766E-3
-307.654E-6	-1.41372E-12	95.0372E-3	-42.4111E-3	-1.43165E-12	90.1991E-3	-6.04016E-3
-312.656E-6	-1.46639E-12	89.0317E-3	-25.9590E-3	-1.47147E-12	95.0335E-3	-9.24184E-3
-317.659E-6	-1.55396E-12	94.7015E-3	-9.41880E-3	-1.52783E-12	98.2805E-3	-9.78639E-3
-322.661E-6	-1.54315E-12	107.974E-3	-2.81256E-3	-1.52267E-12	100.980E-3	-10.7067E-3
-327.664E-6	-1.49871E-12	105.380E-3	-9.12486E-3	-1.51734E-12	92.9853E-3	-16.8575E-3
-332.666E-6	-1.60678E-12	94.4864E-3	-21.2150E-3	-1.66753E-12	80.2318E-3	-19.7741E-3
-337.669E-6	-1.65238E-12	82.6433E-3	-23.0881E-3	-1.69442E-12	87.7210E-3	-10.8690E-3
-342.671E-6	-1.60018E-12	78.5643E-3	-17.2897E-3	-1.62550E-12	88.3464E-3	-6.74230E-3
-347.674E-6	-1.59143E-12	87.5427E-3	-12.9683E-3	-1.66835E-12	76.6417E-3	-14.7360E-3
-352.676E-6	-1.69728E-12	89.0529E-3	-10.5999E-3	-1.79867E-12	84.7036E-3	-12.3134E-3
-357.679E-6	-1.78636E-12	82.3494E-3	-8.98410E-3	-1.76032E-12	91.9353E-3	-1.49026E-3
-362.681E-6	-1.71614E-12	80.9895E-3	-12.1588E-3	-1.69219E-12	85.6233E-3	-7.42791E-3
-367.684E-6	-1.77810E-12	86.5649E-3	-10.8988E-3	-1.78436E-12	87.3966E-3	-18.9970E-3
-372.686E-6	-1.88624E-12	89.8804E-3	-4.87462E-3	-1.90305E-12	97.6923E-3	-16.4269E-3
-377.689E-6	-1.89750E-12	83.8488E-3	-8.30865E-3	-1.85626E-12	99.0252E-3	-12.8887E-3
-382.691E-6	-1.86451E-12	84.6249E-3	-6.87701E-3	-1.83449E-12	89.3460E-3	-25.8155E-3
-387.694E-6	-1.87861E-12	85.5937E-3	-1.17228E-3	-1.89650E-12	90.8600E-3	-40.7145E-3
-392.696E-6	-2.05663E-12	79.5030E-3	-11.2812E-3	-2.03326E-12	98.3410E-3	-41.1370E-3
-397.699E-6	-2.05531E-12	84.2210E-3	-15.2079E-3	-1.98920E-12	96.7580E-3	-28.4213E-3
-402.701E-6	-1.93020E-12	88.6425E-3	-3.34907E-3	-1.97960E-12	87.4432E-3	-5.11420E-3
-407.704E-6	-1.99263E-12	86.5804E-3	-8.54184E-3	-2.08755E-12	70.5578E-3	8.14694E-3
-412.706E-6	-2.17545E-12	88.3638E-3	-25.9449E-3	-2.15153E-12	71.4120E-3	1.30524E-3
-417.709E-6	-2.16870E-12	92.3820E-3	-31.5244E-3	-2.15453E-12	95.5934E-3	-9.07588E-3
-422.711E-6	-2.03703E-12	98.7626E-3	-37.0049E-3	-2.13050E-12	109.216E-3	-21.9441E-3
-427.714E-6	-2.12991E-12	96.0430E-3	-49.8332E-3	-2.18157E-12	94.4298E-3	-29.7628E-3
-432.716E-6	-2.26625E-12	82.8325E-3	-52.4967E-3	-2.25540E-12	80.3921E-3	-25.5281E-3
-437.719E-6	-2.22041E-12	74.0705E-3	-41.9369E-3	-2.27490E-12	83.9019E-3	-25.2611E-3
-442.721E-6	-2.15822E-12	73.9928E-3	-24.8908E-3	-2.24202E-12	81.4577E-3	-31.7143E-3
-447.724E-6	-2.25003E-12	76.8254E-3	2.50510E-3	-2.31166E-12	79.1427E-3	-31.2208E-3
-452.726E-6	-2.37625E-12	78.4000E-3	15.9414E-3	-2.34413E-12	85.7726E-3	-26.9007E-3
-457.729E-6	-2.34060E-12	90.8522E-3	-10.2465E-3	-2.34153E-12	84.5078E-3	-24.1789E-3
-462.731E-6	-2.30142E-12	101.101E-3	-33.5650E-3	-2.31267E-12	76.5836E-3	-16.2269E-3
-467.734E-6	-2.35433E-12	84.2378E-3	-23.7277E-3	-2.44654E-12	66.2774E-3	-11.0554E-3
-472.736E-6	-2.45927E-12	70.2243E-3	-6.92807E-3	-2.41573E-12	50.8880E-3	-14.7182E-3
-477.739E-6	-2.47353E-12	70.4222E-3	633.868E-6	-2.39275E-12	53.2737E-3	-17.6750E-3
-482.741E-6	-2.45604E-12	67.0523E-3	-6.82484E-3	-2.45412E-12	71.7109E-3	-17.2755E-3
-487.744E-6	-2.53118E-12	66.3138E-3	-18.3995E-3	-2.56160E-12	74.9820E-3	-12.7572E-3
-492.746E-6	-2.50822E-12	67.1785E-3	-10.2946E-3	-2.52633E-12	66.9395E-3	-3.65842E-3
-497.749E-6	-2.48655E-12	70.1038E-3	641.567E-6	-2.52411E-12	66.1302E-3	-12.6758E-3
-502.751E-6	-2.53538E-12	79.9116E-3	-3.59167E-3	-2.57575E-12	66.9897E-3	-30.8987E-3
-507.754E-6	-2.62387E-12	86.5166E-3	-4.96171E-3	-2.71056E-12	62.2524E-3	-23.8243E-3
-512.756E-6	-2.61686E-12	76.2452E-3	-5.39948E-3	-2.71524E-12	51.7200E-3	-13.2664E-3
-517.759E-6	-2.55291E-12	62.5221E-3	-11.2971E-3	-2.61541E-12	41.9057E-3	-17.9726E-3
-522.761E-6	-2.60694E-12	62.9790E-3	-18.5898E-3	-2.69609E-12	43.3235E-3	-13.1234E-3
-527.764E-6	-2.77070E-12	69.1843E-3	-29.9665E-3	-2.68738E-12	54.5897E-3	-5.34843E-3
-532.766E-6	-2.78028E-12	68.0082E-3	-40.3125E-3	-2.67399E-12	70.1755E-3	-15.6066E-3
-537.769E-6	-2.70744E-12	64.0818E-3	-36.0804E-3	-2.67264E-12	80.4816E-3	-19.8021E-3
-542.771E-6	-2.74521E-12	61.3805E-3	-14.6731E-3	-2.74732E-12	82.0113E-3	-16.2963E-3
-547.774E-6	-2.84564E-12	59.3346E-3	3.77205E-3	-2.74339E-12	74.3349E-3	-24.8353E-3
-552.776E-6	-2.82488E-12	62.8876E-3	5.62691E-3	-2.78661E-12	61.7907E-3	-21.3916E-3
-557.779E-6	-2.77147E-12	63.5477E-3	-11.1018E-3	-2.73178E-12	53.3248E-3	-6.48348E-3
-562.781E-6	-2.83890E-12	57.0792E-3	-30.5556E-3	-2.84528E-12	48.7302E-3	-9.17022E-3
-567.784E-6	-2.94911E-12	55.5929E-3	-28.8580E-3	-2.89443E-12	46.4004E-3	-17.8266E-3
-572.786E-6	-2.88885E-12	55.7436E-3	-11.2433E-3	-2.90269E-12	53.7090E-3	-16.4892E-3
-577.789E-6	-2.84719E-12	59.9845E-3	-5.79933E-3	-2.90322E-12	59.5293E-3	-18.5503E-3
-582.791E-6	-2.88946E-12	68.5208E-3	-15.2602E-3	-2.99429E-12	48.9694E-3	-21.3381E-3
-587.794E-6	-2.92408E-12	60.4099E-3	-19.0582E-3	-3.03723E-12	42.0671E-3	-14.7214E-3
-592.796E-6	-2.86270E-12	43.6324E-3	-15.4600E-3	-2.99195E-12	45.3824E-3	-8.34057E-3
-597.799E-6	-2.89628E-12	43.2731E-3	-7.86500E-3	-2.99920E-12	43.8443E-3	-5.94489E-3
-602.801E-6	-3.00409E-12	53.5456E-3	-4.29607E-3	-3.09170E-12	39.6831E-3	-2.84671E-3
-607.804E-6	-3.01169E-12	61.8153E-3	-15.2095E-3	-3.10526E-12	35.4080E-3	-3.64474E-3
-612.806E-6	-2.97837E-12	63.7565E-3	-32.6781E-3	-2.98175E-12	31.7622E-3	-7.63983E-3
-617.809E-6	-3.02396E-12	50.1241E-3	-29.2490E-3	-3.01379E-12	41.5523E-3	-12.4110E-3
-622.811E-6	-3.09277E-12	32.3496E-3	-10.0354E-3	-3.12117E-12	62.5866E-3	-26.6844E-3
-627.814E-6	-3.11702E-12	33.4192E-3	-13.6014E-3	-3.06564E-12	70.5724E-3	-29.0850E-3
-632.816E-6	-3.00905E-12	45.5167E-3	-32.3800E-3	-3.03173E-12	60.2946E-3	-11.2770E-3
-637.819E-6	-3.07313E-12	52.3554E-3	-39.7716E-3	-3.02244E-12	49.4509E-3	-3.30548E-3
-642.821E-6	-3.17742E-12	53.8137E-3	-36.9645E-3	-3.11030E-12	35.5750E-3	-6.83636E-3
-647.824E-6	-3.18843E-12	51.5306E-3	-32.9069E-3	-3.09278E-12	25.2102E-3	-17.1749E-3
-652.826E-6	-3.09387E-12	52.1840E-3	-32.6361E-3	-3.11082E-12	40.0668E-3	-28.8632E-3
-657.829E-6	-3.17436E-12	56.1828E-3	-30.9197E-3	-3.10599E-12	47.8914E-3	-28.0165E-3
-662.831E-6	-3.23509E-12	53.0028E-3	-22.6215E-3	-3.25385E-12	33.8515E-3	-22.3181E-3
-667.834E-6	-3.24395E-12	42.4828E-3	-13.5896E-3	-3.16968E-12	47.4609E-3	-27.6309E-3
-672.836E-6	-3.15560E-12	31.6777E-3	-6.35728E-3	-3.24006E-12	65.6188E-3	-28.8862E-3
-677.839E-6	-3.17575E-12	21.8314E-3	-6.84243E-3	-3.28958E-12	50.5590E-3	-14.6654E-3
-682.841E-6	-3.25183E-12	17.9105E-3	-17.6097E-3	-3.32619E-12	41.8901E-3	-7.12661E-3
-687.844E-6	-3.26616E-12	25.2504E-3	-20.4108E-3	-3.23138E-12	42.0991E-3	-17.5457E-3
-692.846E-6	-3.23929E-12	37.4469E-3	-6.93506E-3	-3.22821E-12	39.4311E-3	-26.1859E-3
-697.849E-6	-3.25968E-12	45.7730E-3	-1.95539E-3	-3.34094E-12	45.9107E-3	-18.5050E-3
-702.851E-6	-3.30350E-12	46.4611E-3	-8.99931E-3	-3.33130E-12	51.8436E-3	-11.0001E-3
-707.854E-6	-3.34032E-12	51.1639E-3	-12.3285E-3	-3.23983E-12	51.6713E-3	-5.54485E-3
-712.856E-6	-3.31194E-12	55.3433E-3	-13.7441E-3	-3.25908E-12	56.4250E-3	-6.81200E-3
-717.859E-6	-3.40083E-12	44.5978E-3	-11.5495E-3	-3.31129E-12	55.5062E-3	-25.4839E-3
-722.861E-6	-3.44384E-12	35.7444E-3	-11.1192E-3	-3.35406E-12	45.6444E-3	-35.2698E-3
-727.864E-6	-3.41069E-12	40.4670E-3	-14.0967E-3	-3.26871E-12	52.9248E-3	-32.9951E-3
-732.866E-6	-3.44067E-12	42.6189E-3	-19.3391E-3	-3.29957E-12	66.8854E-3	-40.6389E-3
-737.869E-6	-3.44974E-12	32.4159E-3	-23.7962E-3	-3.41787E-12	61.2826E-3	-41.8450E-3
-742.871E-6	-3.47453E-12	25.9286E-3	-24.4374E-3	-3.46233E-12	52.9925E-3	-27.1482E-3
-747.874E-6	-3.40793E-12	37.8398E-3	-21.8640E-3	-3.36397E-12	55.9924E-3	-9.67657E-3
-752.876E-6	-3.43738E-12	48.9876E-3	-8.16956E-3	-3.42999E-12	62.4126E-3	3.81505E-3
-757.879E-6	-3.52727E-12	41.4341E-3	98.3014E-6	-3.57321E-12	70.3233E-3	-4.03098E-3
-762.881E-6	-3.53147E-12	36.8223E-3	-6.30160E-3	-3.56727E-12	65.7271E-3	-23.4501E-3
-767.884E-6	-3.47622E-12	44.4261E-3	-4.82880E-3	-3.51135E-12	51.5117E-3	-19.3464E-3
-772.886E-6	-3.49045E-12	48.8868E-3	1.27415E-3	-3.65495E-12	55.6137E-3	-7.40885E-3
-777.889E-6	-3.65143E-12	55.9932E-3	522.496E-6	-3.72623E-12	67.7616E-3	-16.7823E-3
-782.891E-6	-3.63458E-12	73.1236E-3	-2.52462E-3	-3.72996E-12	61.3515E-3	-27.6415E-3
-787.894E-6	-3.57501E-12	80.6136E-3	-6.93907E-3	-3.70992E-12	52.1543E-3	-20.9343E-3
-792.896E-6	-3.62725E-12	67.3789E-3	-16.9168E-3	-3.75804E-12	61.1528E-3	-13.7864E-3
-797.899E-6	-3.77011E-12	54.0170E-3	-15.6463E-3	-3.77758E-12	69.6311E-3	-23.6646E-3
-802.901E-6	-3.81921E-12	52.7944E-3	764.091E-6	-3.69524E-12	75.1773E-3	-27.7014E-3
-807.904E-6	-3.68640E-12	68.1685E-3	7.03728E-3	-3.68912E-12	87.6152E-3	-18.8067E-3
-812.906E-6	-3.80079E-12	90.6190E-3	1.35168E-3	-3.73309E-12	84.1551E-3	-16.4914E-3
-817.909E-6	-3.82237E-12	90.8424E-3	-4.60514E-3	-3.78951E-12	78.3957E-3	-11.8029E-3
-822.911E-6	-3.89595E-12	75.0531E-3	-2.58913E-3	-3.75391E-12	91.8419E-3	-10.9349E-3
-827.914E-6	-3.82494E-12	74.6503E-3	1.71784E-3	-3.74068E-12	104.022E-3	-17.9920E-3
-832.916E-6	-3.84081E-12	87.8014E-3	-2.12161E-3	-3.89108E-12	102.120E-3	-14.1674E-3
-837.919E-6	-3.95895E-12	91.7400E-3	-16.0070E-3	-3.90366E-12	92.8456E-3	-12.7919E-3
-842.921E-6	-3.89788E-12	88.5587E-3	-27.7554E-3	-3.86552E-12	86.4595E-3	-27.5812E-3
-847.924E-6	-3.90320E-12	89.7023E-3	-22.5413E-3	-3.86503E-12	86.8615E-3	-32.0760E-3
-852.926E-6	-3.98014E-12	95.3060E-3	-15.5391E-3	-4.06203E-12	94.8506E-3	-19.7145E-3
-857.929E-6	-4.04317E-12	108.038E-3	-26.3338E-3	-4.08583E-12	102.185E-3	-16.9802E-3
-862.931E-6	-4.01155E-12	110.093E-3	-39.3513E-3	-4.06179E-12	106.825E-3	-21.6321E-3
-867.934E-6	-4.05874E-12	88.0077E-3	-36.8942E-3	-4.14960E-12	114.851E-3	-21.2410E-3
-872.936E-6	-4.14940E-12	80.6714E-3	-24.6470E-3	-4.24880E-12	115.898E-3	-26.6669E-3
-877.939E-6	-4.20915E-12	93.0565E-3	-13.3860E-3	-4.26773E-12	108.566E-3	-23.6593E-3
-882.941E-6	-4.19332E-12	101.688E-3	-10.5204E-3	-4.19079E-12	106.524E-3	-13.7879E-3
-887.944E-6	-4.21710E-12	109.516E-3	-23.5018E-3	-4.26572E-12	105.594E-3	-12.9610E-3
-892.946E-6	-4.41549E-12	108.600E-3	-35.4715E-3	-4.39377E-12	99.6070E-3	-7.08250E-3
-897.949E-6	-4.40622E-12	103.824E-3	-28.8530E-3	-4.37045E-12	103.265E-3	-8.90697E-3
-902.951E-6	-4.33877E-12	111.638E-3	-20.7062E-3	-4.36121E-12	114.721E-3	-18.7909E-3
-907.954E-6	-4.42617E-12	122.357E-3	-19.4441E-3	-4.43124E-12	117.414E-3	-6.44442E-3
-912.956E-6	-4.51935E-12	115.113E-3	-16.2038E-3	-4.48784E-12	123.922E-3	12.2652E-3
-917.959E-6	-4.51209E-12	105.621E-3	-15.7763E-3	-4.48726E-12	143.815E-3	152.187E-6
-922.961E-6	-4.48434E-12	115.737E-3	-16.0017E-3	-4.49050E-12	146.095E-3	-20.0626E-3
-927.964E-6	-4.54402E-12	130.203E-3	-14.6566E-3	-4.56261E-12	132.836E-3	-18.2249E-3
-932.966E-6	-4.63639E-12	141.997E-3	-19.6727E-3	-4.67308E-12	141.486E-3	-17.7915E-3
-937.969E-6	-4.66857E-12	151.149E-3	-27.4418E-3	-4.64747E-12	147.388E-3	-22.0277E-3
-942.971E-6	-4.61949E-12	148.466E-3	-28.5897E-3	-4.65630E-12	141.859E-3	-26.5993E-3
-947.974E-6	-4.71384E-12	145.974E-3	-19.9024E-3	-4.77147E-12	154.499E-3	-35.6356E-3
-952.976E-6	-4.83272E-12	153.097E-3	-11.2326E-3	-4.82878E-12	164.531E-3	-32.0712E-3
-957.979E-6	-4.82298E-12	154.961E-3	-14.1101E-3	-4.77926E-12	162.032E-3	-12.0791E-3
-962.981E-6	-4.84273E-12	149.960E-3	-23.4003E-3	-4.78017E-12	160.625E-3	-101.274E-6
-967.984E-6	-4.96591E-12	142.593E-3	-23.8695E-3	-5.00234E-12	161.409E-3	-12.5646E-3
-972.986E-6	-5.07118E-12	132.003E-3	-15.5822E-3	-5.01849E-12	165.006E-3	-23.0938E-3
-977.989E-6	-5.04515E-12	131.766E-3	-11.1587E-3	-4.96694E-12	177.154E-3	-22.5736E-3
-982.991E-6	-5.13120E-12	152.312E-3	-7.76181E-3	-5.05157E-12	188.761E-3	-17.1735E-3
-987.994E-6	-5.22282E-12	169.880E-3	-4.14183E-3	-5.19671E-12	192.869E-3	-2.14328E-3
-992.997E-6	-5.31233E-12	169.791E-3	-8.97682E-3	-5.29975E-12	199.359E-3	-7.29385E-3
-997.999E-6	-5.36496E-12	172.385E-3	-16.4040E-3	-5.30522E-12	196.000E-3	-33.5199E-3
-1.00300E-3	-5.33349E-12	181.433E-3	-19.7126E-3	-5.43719E-12	200.923E-3	-36.0260E-3
-1.00800E-3	-5.51677E-12	193.698E-3	-26.4766E-3	-5.53685E-12	227.312E-3	-12.9952E-3
-1.01301E-3	-5.62547E-12	207.890E-3	-24.2414E-3	-5.64084E-12	229.518E-3	-2.50013E-3
-1.01801E-3	-5.59896E-12	220.452E-3	-16.5028E-3	-5.66025E-12	218.435E-3	-6.38148E-3
-1.02301E-3	-5.64269E-12	218.896E-3	-16.5007E-3	-5.77973E-12	232.713E-3	-17.7777E-3
-1.02801E-3	-5.81894E-12	203.910E-3	-15.0570E-3	-5.84537E-12	249.640E-3	-25.7637E-3
-1.03302E-3	-5.87492E-12	206.239E-3	-10.8783E-3	-5.92598E-12	255.947E-3	-14.4139E-3
-1.03802E-3	-5.87387E-12	237.774E-3	-6.86672E-3	-5.97868E-12	264.766E-3	-14.3215E-3
-1.04302E-3	-5.97622E-12	257.889E-3	-11.9598E-3	-6.10408E-12	270.811E-3	-32.0501E-3
-1.04802E-3	-6.13629E-12	251.471E-3	-19.9782E-3	-6.16257E-12	266.183E-3	-33.2512E-3
-1.05303E-3	-6.24496E-12	244.094E-3	-23.3318E-3	-6.16552E-12	274.336E-3	-20.7455E-3
-1.05803E-3	-6.26365E-12	245.759E-3	-21.0619E-3	-6.16815E-12	296.457E-3	-19.5108E-3
-1.06303E-3	-6.42065E-12	261.446E-3	-20.4402E-3	-6.36747E-12	295.132E-3	-23.7839E-3
-1.06803E-3	-6.60048E-12	280.148E-3	-33.8295E-3	-6.49035E-12	289.379E-3	-20.9532E-3
-1.07304E-3	-6.60480E-12	284.348E-3	-34.3782E-3	-6.46136E-12	303.135E-3	-22.5421E-3
-1.07804E-3	-6.60628E-12	283.118E-3	-14.5184E-3	-6.51558E-12	319.091E-3	-24.6395E-3
-1.08304E-3	-6.77487E-12	295.368E-3	-6.94900E-3	-6.77053E-12	334.507E-3	-13.2640E-3
-1.08804E-3	-6.95303E-12	311.534E-3	-14.4906E-3	-6.94004E-12	345.995E-3	-10.2444E-3
-1.09305E-3	-7.04267E-12	317.532E-3	-15.8903E-3	-7.01974E-12	345.740E-3	-15.9558E-3
-1.09805E-3	-7.03684E-12	315.456E-3	-6.65302E-3	-7.00917E-12	353.411E-3	-23.0351E-3
-1.10305E-3	-7.18344E-12	320.604E-3	292.324E-6	-7.31000E-12	372.990E-3	-30.8623E-3
-1.10805E-3	-7.34461E-12	344.507E-3	3.70243E-3	-7.48098E-12	377.298E-3	-18.3807E-3
-1.11306E-3	-7.47527E-12	359.207E-3	-2.04129E-3	-7.47459E-12	379.707E-3	4.25464E-3
-1.11806E-3	-7.53209E-12	349.625E-3	-13.9823E-3	-7.57354E-12	392.048E-3	4.35038E-3
-1.12306E-3	-7.70225E-12	340.906E-3	-16.0662E-3	-7.82263E-12	389.955E-3	-14.3012E-3
-1.12806E-3	-7.87558E-12	353.425E-3	-17.6630E-3	-7.89015E-12	393.096E-3	-19.3915E-3
-1.13307E-3	-8.03334E-12	384.599E-3	-22.3155E-3	-7.94322E-12	417.798E-3	-15.7820E-3
-1.13807E-3	-8.07600E-12	413.177E-3	-23.1848E-3	-8.07805E-12	436.332E-3	-17.0569E-3
-1.14307E-3	-8.31162E-12	427.615E-3	-29.4653E-3	-8.21712E-12	441.298E-3	-13.4143E-3
-1.14807E-3	-8.45035E-12	426.832E-3	-34.5794E-3	-8.21972E-12	451.992E-3	-14.6946E-3
-1.15308E-3	-8.55734E-12	416.314E-3	-34.6091E-3	-8.32641E-12	473.501E-3	-22.7026E-3
-1.15808E-3	-8.74009E-12	419.439E-3	-32.5464E-3	-8.52543E-12	495.451E-3	-19.0961E-3
-1.16308E-3	-8.90122E-12	440.395E-3	-18.0046E-3	-8.71002E-12	519.355E-3	-11.7757E-3
-1.16808E-3	-9.04950E-12	454.830E-3	-6.03237E-3	-8.86138E-12	536.573E-3	-19.9936E-3
-1.17309E-3	-9.15255E-12	461.706E-3	-15.2826E-3	-8.99666E-12	544.624E-3	-25.3470E-3
-1.17809E-3	-9.23043E-12	478.663E-3	-27.5960E-3	-9.30686E-12	565.201E-3	-17.9582E-3
-1.18309E-3	-9.40755E-12	499.956E-3	-26.1286E-3	-9.59883E-12	591.299E-3	-11.3405E-3
-1.18809E-3	-9.62907E-12	515.457E-3	-20.0608E-3	-9.80331E-12	599.253E-3	-3.53507E-3
-1.19310E-3	-9.71047E-12	524.141E-3	-16.9879E-3	-9.97981E-12	603.125E-3	1.36692E-3
-1.19810E-3	-9.90385E-12	534.037E-3	-16.8942E-3	-10.3044E-12	627.995E-3	-6.54566E-3
-1.20310E-3	-10.1177E-12	549.913E-3	-13.2301E-3	-10.5948E-12	655.194E-3	-14.1286E-3
-1.20810E-3	-10.3155E-12	565.780E-3	-8.53332E-3	-10.6554E-12	663.854E-3	-4.84475E-3
-1.21311E-3	-10.4749E-12	580.528E-3	-1.58384E-3	-10.8572E-12	669.503E-3	-3.27326E-3
-1.21811E-3	-10.7300E-12	593.943E-3	-6.04582E-3	-11.1993E-12	677.010E-3	-12.2938E-3
-1.22311E-3	-11.0323E-12	607.693E-3	-32.7307E-3	-11.3648E-12	692.830E-3	-18.1151E-3
-1.22811E-3	-11.1989E-12	621.828E-3	-45.1144E-3	-11.4262E-12	717.929E-3	-27.8993E-3
-1.23312E-3	-11.4430E-12	642.541E-3	-32.4381E-3	-11.6634E-12	733.001E-3	-28.2138E-3
-1.23812E-3	-11.7455E-12	672.452E-3	-18.1044E-3	-11.8992E-12	742.173E-3	-8.80638E-3
-1.24312E-3	-12.0128E-12	698.891E-3	-14.1073E-3	-12.0804E-12	750.715E-3	294.033E-6
-1.24812E-3	-12.2960E-12	715.530E-3	-22.5978E-3	-12.1998E-12	759.098E-3	-16.1462E-3
-1.25313E-3	-12.5315E-12	723.536E-3	-19.5665E-3	-12.4125E-12	787.251E-3	-22.9652E-3
-1.25813E-3	-12.7512E-12	727.700E-3	-6.04436E-3	-12.7879E-12	825.624E-3	-17.1768E-3
-1.26313E-3	-13.0847E-12	737.405E-3	-9.80842E-3	-13.0729E-12	841.277E-3	-15.2956E-3
-1.26813E-3	-13.3632E-12	762.190E-3	-19.1264E-3	-13.3216E-12	848.045E-3	-12.2883E-3
-1.27314E-3	-13.5974E-12	796.884E-3	-16.0511E-3	-13.6409E-12	865.332E-3	-20.3534E-3
-1.27814E-3	-13.9044E-12	825.675E-3	-15.5421E-3	-14.0579E-12	875.393E-3	-33.6518E-3
-1.28314E-3	-14.2002E-12	851.369E-3	-22.8983E-3	-14.3703E-12	878.787E-3	-25.9527E-3
-1.28814E-3	-14.5224E-12	867.043E-3	-25.9948E-3	-14.6055E-12	905.368E-3	-10.1145E-3
-1.29315E-3	-14.7565E-12	858.823E-3	-32.4734E-3	-15.0428E-12	932.348E-3	-8.85628E-3
-1.29815E-3	-15.1652E-12	854.252E-3	-39.2694E-3	-15.3738E-12	936.984E-3	-8.72831E-3
-1.30315E-3	-15.4343E-12	869.562E-3	-38.8371E-3	-15.5838E-12	961.428E-3	-906.573E-6
-1.30815E-3	-15.7518E-12	885.422E-3	-28.6990E-3	-15.8121E-12	995.208E-3	1.57682E-3
-1.31316E-3	-16.0994E-12	905.220E-3	-9.06350E-3	-16.2176E-12	1.01223E+0	-730.294E-6
-1.31816E-3	-16.4776E-12	935.119E-3	-2.49741E-3	-16.5910E-12	1.02156E+0	-9.65567E-3
-1.32316E-3	-16.9172E-12	961.365E-3	-17.5818E-3	-16.7655E-12	1.01987E+0	-24.0681E-3
-1.32816E-3	-17.2705E-12	978.193E-3	-34.0742E-3	-17.0315E-12	1.02556E+0	-26.4173E-3
-1.33317E-3	-17.5524E-12	995.864E-3	-34.6380E-3	-17.3287E-12	1.04911E+0	-13.5085E-3
-1.33817E-3	-17.8937E-12	1.01708E+0	-26.3359E-3	-17.6874E-12	1.06007E+0	-4.65257E-3
-1.34317E-3	-18.1383E-12	1.04331E+0	-28.5189E-3	-17.9429E-12	1.05280E+0	-12.8589E-3
-1.34817E-3	-18.3940E-12	1.06901E+0	-42.2693E-3	-18.1572E-12	1.06396E+0	-22.1623E-3
-1.35318E-3	-18.6107E-12	1.07099E+0	-52.7611E-3	-18.4635E-12	1.09212E+0	-17.6725E-3
-1.35818E-3	-19.0646E-12	1.05158E+0	-41.2733E-3	-19.0506E-12	1.10882E+0	-9.14536E-3
-1.36318E-3	-19.4748E-12	1.04176E+0	-21.6144E-3	-19.3388E-12	1.12071E+0	-6.53296E-3
-1.36818E-3	-19.8641E-12	1.05625E+0	-14.9856E-3	-19.6996E-12	1.12158E+0	-11.7933E-3
-1.37319E-3	-20.1495E-12	1.07708E+0	-10.9612E-3	-20.1770E-12	1.10721E+0	-18.6448E-3
-1.37819E-3	-20.5270E-12	1.09394E+0	-2.60429E-3	-20.5578E-12	1.12101E+0	-17.0972E-3
-1.38319E-3	-20.9640E-12	1.10575E+0	-3.18424E-3	-20.8313E-12	1.15419E+0	-16.6599E-3
-1.38819E-3	-21.2741E-12	1.10806E+0	-20.5410E-3	-21.0087E-12	1.16789E+0	-15.8561E-3
-1.39320E-3	-21.5454E-12	1.12588E+0	-27.7247E-3	-21.5041E-12	1.16774E+0	-5.32158E-3
-1.39820E-3	-21.9416E-12	1.15417E+0	-17.6063E-3	-21.9192E-12	1.15855E+0	-7.22350E-3
-1.40320E-3	-22.3266E-12	1.15845E+0	-10.8543E-3	-22.2405E-12	1.15681E+0	-21.1936E-3
-1.40820E-3	-22.6600E-12	1.15769E+0	-9.26277E-3	-22.6478E-12	1.17852E+0	-19.4613E-3
-1.41321E-3	-22.9181E-12	1.16484E+0	-8.24395E-3	-23.0761E-12	1.19901E+0	-12.4736E-3
-1.41821E-3	-23.2862E-12	1.16525E+0	-11.1215E-3	-23.5516E-12	1.20451E+0	-14.1350E-3
-1.42321E-3	-23.6427E-12	1.16660E+0	-24.5482E-3	-23.8079E-12	1.21079E+0	-9.51314E-3
-1.42821E-3	-24.0183E-12	1.16821E+0	-31.5457E-3	-24.3270E-12	1.21437E+0	-10.8319E-3
-1.43322E-3	-24.3484E-12	1.16893E+0	-19.3242E-3	-25.0098E-12	1.20771E+0	-25.7831E-3
-1.43822E-3	-24.7202E-12	1.17347E+0	-7.95122E-3	-25.3894E-12	1.20678E+0	-22.4389E-3
-1.44322E-3	-25.1340E-12	1.17728E+0	-5.96965E-3	-25.7207E-12	1.21964E+0	-10.2021E-3
-1.44822E-3	-25.6005E-12	1.18713E+0	-10.4596E-3	-26.2444E-12	1.23510E+0	-18.3536E-3
-1.45323E-3	-26.0166E-12	1.20249E+0	-19.9874E-3	-26.7671E-12	1.23961E+0	-23.5920E-3
-1.45823E-3	-26.6185E-12	1.20844E+0	-14.7396E-3	-27.1636E-12	1.24648E+0	-25.4317E-3
-1.46323E-3	-27.0609E-12	1.20206E+0	2.51388E-3	-27.5022E-12	1.25539E+0	-36.8322E-3
-1.46823E-3	-27.5577E-12	1.19854E+0	3.66701E-3	-27.9676E-12	1.25203E+0	-27.4420E-3
-1.47324E-3	-28.1504E-12	1.20992E+0	-8.10097E-3	-28.3539E-12	1.25337E+0	-13.6832E-3
-1.47824E-3	-28.5942E-12	1.21619E+0	-12.4258E-3	-28.6520E-12	1.25357E+0	-23.8825E-3
-1.48324E-3	-28.9478E-12	1.21521E+0	-13.4158E-3	-28.9894E-12	1.24735E+0	-29.6064E-3
-1.48824E-3	-29.4496E-12	1.22343E+0	-12.1131E-3	-29.3879E-12	1.24858E+0	-26.9282E-3
-1.49325E-3	-29.7862E-12	1.23065E+0	-6.56800E-3	-29.7763E-12	1.24349E+0	-35.5235E-3
-1.49825E-3	-30.1050E-12	1.23036E+0	-4.04557E-3	-30.0510E-12	1.22762E+0	-35.4199E-3
-1.50325E-3	-30.4980E-12	1.22615E+0	-5.75741E-3	-30.4956E-12	1.22293E+0	-20.0690E-3
-1.50825E-3	-30.8704E-12	1.22772E+0	-15.9217E-3	-30.7764E-12	1.23210E+0	-16.0460E-3
-1.51326E-3	-31.3935E-12	1.23624E+0	-19.9168E-3	-31.1912E-12	1.23614E+0	-21.0710E-3
-1.51826E-3	-31.6737E-12	1.24063E+0	-9.62762E-3	-31.6538E-12	1.23239E+0	-21.9011E-3
-1.52326E-3	-31.9809E-12	1.23442E+0	-7.32478E-3	-32.0488E-12	1.22719E+0	-29.0918E-3
-1.52826E-3	-32.3070E-12	1.22732E+0	-15.5481E-3	-32.4123E-12	1.22272E+0	-37.0559E-3
-1.53327E-3	-32.7444E-12	1.22526E+0	-23.3260E-3	-32.9033E-12	1.22989E+0	-28.1322E-3
-1.53827E-3	-33.2082E-12	1.21894E+0	-23.5352E-3	-33.3904E-12	1.23657E+0	-18.5680E-3
-1.54327E-3	-33.6539E-12	1.20587E+0	-11.5849E-3	-33.7912E-12	1.22298E+0	-3.88703E-3
-1.54827E-3	-33.8863E-12	1.20372E+0	-3.73763E-3	-34.1078E-12	1.20692E+0	14.9686E-3
-1.55328E-3	-34.4382E-12	1.20849E+0	-16.2994E-3	-34.3903E-12	1.19926E+0	1.63225E-3
-1.55828E-3	-35.0229E-12	1.20303E+0	-32.2433E-3	-34.6693E-12	1.18350E+0	-18.0321E-3
-1.56328E-3	-35.5601E-12	1.20797E+0	-27.1267E-3	-35.1185E-12	1.16629E+0	-12.4036E-3
-1.56828E-3	-35.8713E-12	1.22139E+0	-3.65690E-3	-35.5036E-12	1.15699E+0	-5.37729E-3
-1.57329E-3	-36.5034E-12	1.22068E+0	5.90723E-3	-35.6712E-12	1.14999E+0	-11.1143E-3
-1.57829E-3	-37.0253E-12	1.21274E+0	-12.5367E-3	-36.0089E-12	1.16072E+0	-22.1791E-3
-1.58329E-3	-37.3984E-12	1.20578E+0	-31.0191E-3	-36.4256E-12	1.17815E+0	-31.7302E-3
-1.58829E-3	-37.7921E-12	1.20144E+0	-32.6808E-3	-37.0912E-12	1.16300E+0	-25.1992E-3
-1.59330E-3	-38.2258E-12	1.20969E+0	-27.8576E-3	-37.5035E-12	1.13384E+0	-1.91935E-3
-1.59830E-3	-38.3981E-12	1.20683E+0	-25.0903E-3	-37.7540E-12	1.13026E+0	2.07758E-3
-1.60330E-3	-38.7292E-12	1.19479E+0	-22.0253E-3	-38.3860E-12	1.13928E+0	-8.32563E-3
-1.60830E-3	-39.0478E-12	1.19595E+0	-17.3818E-3	-39.0525E-12	1.14928E+0	-1.05748E-3
-1.61331E-3	-39.2227E-12	1.18953E+0	-14.0980E-3	-39.7137E-12	1.16245E+0	-1.92096E-3
-1.61831E-3	-39.4276E-12	1.16237E+0	-6.99671E-3	-39.8132E-12	1.15646E+0	-23.9290E-3
-1.62331E-3	-39.8302E-12	1.13460E+0	-1.19521E-3	-40.5976E-12	1.13373E+0	-22.9106E-3
-1.62831E-3	-40.1662E-12	1.12779E+0	-3.16194E-3	-41.0777E-12	1.12259E+0	-4.71974E-3
-1.63332E-3	-40.5502E-12	1.12536E+0	-9.51208E-3	-41.6384E-12	1.11559E+0	-7.69205E-3
-1.63832E-3	-40.8795E-12	1.11354E+0	-16.9616E-3	-41.8309E-12	1.11100E+0	-6.95380E-3
-1.64332E-3	-41.2349E-12	1.10743E+0	-22.1541E-3	-42.1483E-12	1.11572E+0	-109.898E-6
-1.64832E-3	-41.5059E-12	1.11014E+0	-25.3131E-3	-42.3615E-12	1.10271E+0	-12.6484E-3
-1.65333E-3	-41.8653E-12	1.10136E+0	-27.0855E-3	-42.7046E-12	1.07580E+0	-26.8216E-3
-1.65833E-3	-42.5300E-12	1.09213E+0	-22.6462E-3	-43.0479E-12	1.08321E+0	-38.8634E-3
-1.66333E-3	-43.1085E-12	1.10131E+0	-16.2793E-3	-43.1789E-12	1.10133E+0	-50.1605E-3
-1.66833E-3	-43.4608E-12	1.10203E+0	-15.8597E-3	-43.5083E-12	1.07867E+0	-36.9032E-3
-1.67334E-3	-43.7304E-12	1.09261E+0	-19.2833E-3	-43.8275E-12	1.06395E+0	-15.5368E-3
-1.67834E-3	-44.4406E-12	1.08654E+0	-18.3208E-3	-44.1468E-12	1.08795E+0	-18.8966E-3
-1.68334E-3	-44.7708E-12	1.08000E+0	-7.57578E-3	-44.3569E-12	1.09086E+0	-28.4426E-3
-1.68834E-3	-44.9022E-12	1.07862E+0	1.00530E-3	-44.7751E-12	1.06056E+0	-21.3247E-3
-1.69335E-3	-45.2431E-12	1.06906E+0	-9.17298E-3	-45.0191E-12	1.03552E+0	-24.5431E-3
-1.69835E-3	-45.7071E-12	1.04203E+0	-25.9564E-3	-45.5784E-12	1.02174E+0	-32.5078E-3
-1.70335E-3	-45.8938E-12	1.03566E+0	-27.1656E-3	-46.2518E-12	1.01534E+0	-24.7788E-3
-1.70835E-3	-46.2017E-12	1.05615E+0	-21.9832E-3	-46.6148E-12	1.02221E+0	-31.4882E-3
-1.71336E-3	-46.6035E-12	1.05218E+0	-20.1082E-3	-46.8783E-12	1.02509E+0	-45.8883E-3
-1.71836E-3	-46.9632E-12	1.03746E+0	-11.1311E-3	-47.5199E-12	1.02003E+0	-32.5194E-3
-1.72336E-3	-47.1972E-12	1.04475E+0	181.623E-6	-47.8852E-12	1.02377E+0	-8.99343E-3
-1.72836E-3	-47.7088E-12	1.04222E+0	2.15157E-3	-48.0092E-12	1.01940E+0	-11.3959E-3
-1.73337E-3	-48.0246E-12	1.02909E+0	-12.0960E-3	-48.1968E-12	1.00162E+0	-23.6461E-3
-1.73837E-3	-48.0385E-12	1.02646E+0	-25.2181E-3	-48.5641E-12	988.515E-3	-24.3464E-3
-1.74337E-3	-48.3208E-12	1.00891E+0	-26.3535E-3	-48.7700E-12	984.253E-3	-21.6307E-3
-1.74837E-3	-48.9030E-12	990.176E-3	-25.2661E-3	-49.0720E-12	978.764E-3	-13.1985E-3
-1.75338E-3	-49.1070E-12	994.383E-3	-14.6704E-3	-49.1422E-12	971.108E-3	-11.6438E-3
-1.75838E-3	-49.3652E-12	1.00795E+0	-7.91857E-3	-49.4955E-12	964.100E-3	-25.6447E-3
-1.76338E-3	-49.7633E-12	1.02166E+0	-12.5891E-3	-49.8285E-12	961.878E-3	-35.7843E-3
-1.76838E-3	-50.0146E-12	1.01374E+0	-4.51952E-3	-50.1980E-12	967.460E-3	-35.8532E-3
-1.77339E-3	-50.5832E-12	980.869E-3	-785.226E-6	-50.2332E-12	962.159E-3	-32.8914E-3
-1.77839E-3	-50.9611E-12	961.937E-3	-14.8641E-3	-50.5163E-12	951.820E-3	-30.5710E-3
-1.78339E-3	-51.1905E-12	970.252E-3	-19.6558E-3	-50.9552E-12	957.726E-3	-37.2974E-3
-1.78839E-3	-51.3192E-12	978.399E-3	-18.4312E-3	-51.3676E-12	976.833E-3	-39.3524E-3
-1.79340E-3	-51.6884E-12	972.687E-3	-23.6992E-3	-51.8586E-12	985.340E-3	-18.3257E-3
-1.79840E-3	-51.9735E-12	958.126E-3	-17.3679E-3	-52.0608E-12	982.394E-3	-6.65679E-3
-1.80340E-3	-52.3292E-12	945.199E-3	-7.49268E-3	-52.6174E-12	971.960E-3	-22.9950E-3
-1.80840E-3	-52.6444E-12	939.586E-3	-19.9189E-3	-53.1276E-12	955.195E-3	-37.5879E-3
-1.81341E-3	-53.1908E-12	939.282E-3	-33.4895E-3	-53.5854E-12	953.885E-3	-43.0624E-3
-1.81841E-3	-53.3481E-12	934.734E-3	-20.8922E-3	-53.8586E-12	959.497E-3	-38.3881E-3
-1.82341E-3	-53.5663E-12	924.844E-3	-12.8172E-3	-54.1296E-12	952.368E-3	-19.2495E-3
-1.82841E-3	-54.0131E-12	918.144E-3	-17.2749E-3	-54.3436E-12	939.486E-3	-5.54855E-3
-1.83342E-3	-54.2522E-12	924.386E-3	-5.33242E-3	-54.6794E-12	916.071E-3	-10.5826E-3
-1.83842E-3	-54.5110E-12	936.081E-3	-6.36292E-3	-54.8468E-12	897.445E-3	-21.0468E-3
-1.84342E-3	-54.4925E-12	938.644E-3	-19.2524E-3	-54.9458E-12	903.493E-3	-18.2793E-3
-1.84842E-3	-54.6399E-12	935.076E-3	-14.5809E-3	-55.1573E-12	909.290E-3	-8.32754E-3
-1.85343E-3	-55.1095E-12	917.685E-3	-9.67376E-3	-55.8170E-12	897.504E-3	2.48218E-3
-1.85843E-3	-55.4408E-12	897.469E-3	-11.4627E-3	-55.9439E-12	892.811E-3	3.41940E-3
-1.86343E-3	-55.5253E-12	897.075E-3	-12.2497E-3	-56.1535E-12	898.766E-3	-13.4372E-3
-1.86843E-3	-55.6376E-12	894.641E-3	-16.6488E-3	-56.3996E-12	901.752E-3	-22.9279E-3
-1.87344E-3	-56.2800E-12	885.959E-3	-23.1684E-3	-57.1212E-12	904.602E-3	-15.0750E-3
-1.87844E-3	-56.5872E-12	884.742E-3	-16.1593E-3	-57.1521E-12	898.722E-3	-15.1255E-3
-1.88344E-3	-57.0319E-12	891.147E-3	-10.2757E-3	-57.4002E-12	878.011E-3	-20.2712E-3
-1.88844E-3	-57.4223E-12	915.285E-3	-25.5600E-3	-57.7065E-12	876.144E-3	-15.3341E-3
-1.89345E-3	-57.8283E-12	922.987E-3	-29.1672E-3	-58.0789E-12	901.401E-3	-13.4515E-3
-1.89845E-3	-58.2296E-12	896.866E-3	-11.4778E-3	-58.3523E-12	912.019E-3	-18.8861E-3
-1.90345E-3	-58.9021E-12	885.548E-3	-6.17870E-3	-58.7128E-12	904.329E-3	-18.1543E-3
-1.90845E-3	-59.5747E-12	895.373E-3	-7.15394E-3	-59.2240E-12	896.179E-3	-7.46871E-3
-1.91346E-3	-60.0585E-12	899.494E-3	-3.79928E-3	-59.6128E-12	896.310E-3	-1.42473E-3
-1.91846E-3	-60.3773E-12	899.429E-3	-14.5596E-3	-59.9569E-12	900.362E-3	-1.39443E-3
-1.92346E-3	-60.8110E-12	906.178E-3	-25.8860E-3	-60.0703E-12	902.420E-3	-4.20887E-3
-1.92846E-3	-61.2002E-12	907.272E-3	-26.4841E-3	-60.4527E-12	893.336E-3	-10.7311E-3
-1.93347E-3	-61.4915E-12	895.711E-3	-20.4580E-3	-60.8063E-12	861.059E-3	-9.12275E-3
-1.93847E-3	-61.3648E-12	884.479E-3	-11.9779E-3	-61.3982E-12	841.531E-3	-13.9861E-3
-1.94347E-3	-61.4427E-12	864.230E-3	-17.5554E-3	-61.5345E-12	840.649E-3	-28.0185E-3
-1.94847E-3	-61.7976E-12	842.226E-3	-23.6888E-3	-61.9291E-12	840.885E-3	-27.4897E-3
-1.95348E-3	-61.9013E-12	849.163E-3	-10.3496E-3	-61.9745E-12	844.873E-3	-10.5415E-3
-1.95848E-3	-61.8878E-12	869.866E-3	588.989E-6	-62.3686E-12	841.783E-3	778.146E-6
-1.96348E-3	-61.9092E-12	874.995E-3	-9.49468E-3	-62.5709E-12	832.884E-3	201.948E-6
-1.96848E-3	-62.2334E-12	873.733E-3	-20.9480E-3	-62.5229E-12	832.513E-3	-7.45746E-3
-1.97349E-3	-62.4446E-12	869.296E-3	-23.8227E-3	-62.4795E-12	848.206E-3	-18.8205E-3
-1.97849E-3	-62.7189E-12	850.677E-3	-33.3438E-3	-62.7063E-12	857.262E-3	-24.3458E-3
-1.98349E-3	-62.9659E-12	835.893E-3	-27.8467E-3	-63.0622E-12	846.091E-3	-23.0623E-3
-1.98849E-3	-63.3257E-12	829.588E-3	-3.36609E-3	-63.1703E-12	824.830E-3	-16.7392E-3
-1.99350E-3	-63.5113E-12	822.180E-3	-1.95675E-3	-63.1114E-12	809.841E-3	-13.3648E-3
-1.99850E-3	-63.7974E-12	834.080E-3	-19.2127E-3	-63.3705E-12	810.635E-3	-13.2288E-3
-2.00350E-3	-64.1235E-12	837.173E-3	-27.4658E-3	-63.5681E-12	811.811E-3	-20.5134E-3
-2.00850E-3	-64.7419E-12	808.014E-3	-20.3185E-3	-64.1890E-12	813.424E-3	-33.7192E-3
-2.01351E-3	-64.9402E-12	804.102E-3	-13.0251E-3	-64.1395E-12	820.702E-3	-30.6350E-3
-2.01851E-3	-64.8072E-12	827.329E-3	-21.4797E-3	-64.3498E-12	825.789E-3	-20.0697E-3
-2.02351E-3	-65.3804E-12	831.387E-3	-32.3523E-3	-64.9184E-12	824.607E-3	-19.7659E-3
-2.02851E-3	-65.5776E-12	824.692E-3	-26.3370E-3	-65.6396E-12	826.978E-3	-21.1055E-3
-2.03352E-3	-65.5661E-12	828.808E-3	-13.1657E-3	-65.6884E-12	831.295E-3	-13.3459E-3
-2.03852E-3	-65.7926E-12	826.245E-3	-15.8134E-3	-66.4988E-12	823.400E-3	-1.56034E-3
-2.04352E-3	-66.1677E-12	816.620E-3	-22.2273E-3	-67.0595E-12	807.090E-3	-2.05520E-3
-2.04852E-3	-65.9956E-12	812.116E-3	-10.7433E-3	-67.2224E-12	799.608E-3	-7.61317E-3
-2.05353E-3	-66.3473E-12	797.107E-3	-6.70258E-3	-67.6080E-12	817.580E-3	-11.0253E-3
-2.05853E-3	-66.4380E-12	774.337E-3	-20.4719E-3	-67.8699E-12	836.722E-3	-14.9029E-3
-2.06353E-3	-66.7987E-12	772.666E-3	-20.1194E-3	-68.1351E-12	827.571E-3	-14.9185E-3
-2.06853E-3	-67.0447E-12	786.943E-3	-23.9019E-3	-68.5969E-12	808.852E-3	-10.2802E-3
-2.07354E-3	-67.3842E-12	799.729E-3	-25.6236E-3	-68.6700E-12	796.066E-3	-972.072E-6
-2.07854E-3	-67.5991E-12	806.508E-3	-9.27723E-3	-68.8745E-12	783.801E-3	3.31621E-3
-2.08354E-3	-68.1392E-12	789.756E-3	-9.71388E-3	-68.8050E-12	775.674E-3	-5.86872E-3
-2.08854E-3	-68.8781E-12	781.213E-3	-23.8820E-3	-68.7212E-12	790.633E-3	-17.1200E-3
-2.09355E-3	-69.0544E-12	805.885E-3	-27.2518E-3	-68.7644E-12	812.157E-3	-19.4639E-3
-2.09855E-3	-68.9692E-12	823.790E-3	-18.5245E-3	-68.7983E-12	804.381E-3	-21.2951E-3
-2.10355E-3	-69.7638E-12	814.892E-3	-15.9826E-3	-68.9753E-12	782.563E-3	-22.5893E-3
-2.10855E-3	-70.3190E-12	798.469E-3	-21.3191E-3	-69.2897E-12	773.020E-3	-16.5496E-3
-2.11356E-3	-70.3276E-12	797.235E-3	-17.6370E-3	-69.3573E-12	766.089E-3	-7.55848E-3
-2.11856E-3	-70.8669E-12	796.319E-3	-20.6497E-3	-69.5967E-12	766.318E-3	-13.8902E-3
-2.12356E-3	-71.2409E-12	791.917E-3	-20.1781E-3	-70.0950E-12	781.827E-3	-28.2194E-3
-2.12856E-3	-71.7300E-12	793.519E-3	-2.29077E-3	-70.6067E-12	783.135E-3	-24.9722E-3
-2.13357E-3	-72.0381E-12	798.412E-3	-3.33462E-3	-70.7816E-12	772.639E-3	-16.9267E-3
-2.13857E-3	-72.4603E-12	813.652E-3	-12.2078E-3	-71.2330E-12	773.634E-3	-15.5668E-3
-2.14357E-3	-72.6635E-12	815.207E-3	-10.6366E-3	-71.7349E-12	784.714E-3	-4.22078E-3
-2.14857E-3	-72.5596E-12	799.659E-3	-12.7888E-3	-71.7941E-12	784.752E-3	7.52177E-3
-2.15358E-3	-72.8240E-12	805.167E-3	-9.33263E-3	-72.2492E-12	773.062E-3	3.83325E-3
-2.15858E-3	-73.6263E-12	816.702E-3	-3.57520E-3	-72.8939E-12	773.713E-3	192.357E-6
-2.16358E-3	-74.1536E-12	803.886E-3	-7.53392E-3	-73.5791E-12	779.316E-3	-256.557E-6
-2.16858E-3	-74.0135E-12	786.086E-3	-10.2138E-3	-73.1750E-12	778.160E-3	-11.5783E-3
-2.17359E-3	-74.1617E-12	777.337E-3	-6.88194E-3	-73.8399E-12	769.821E-3	-22.4884E-3
-2.17859E-3	-74.5308E-12	767.552E-3	-2.16787E-3	-73.9401E-12	755.893E-3	-18.3593E-3
-2.18359E-3	-75.0442E-12	762.400E-3	1.41194E-3	-73.9929E-12	750.876E-3	-6.11113E-3
-2.18859E-3	-74.8992E-12	772.333E-3	-10.8087E-3	-74.1793E-12	755.902E-3	-1.45455E-3
-2.19360E-3	-75.0031E-12	794.239E-3	-21.0984E-3	-74.6620E-12	774.710E-3	-8.09777E-3
-2.19860E-3	-75.2323E-12	812.725E-3	-19.1213E-3	-74.5860E-12	794.522E-3	-16.9907E-3
-2.20360E-3	-75.6108E-12	793.761E-3	-18.9827E-3	-74.6635E-12	790.439E-3	-27.4370E-3
-2.20860E-3	-75.3438E-12	765.026E-3	-13.7499E-3	-75.1689E-12	774.853E-3	-31.8542E-3
-2.21361E-3	-75.2006E-12	769.714E-3	-9.13519E-3	-75.1141E-12	774.945E-3	-29.7765E-3
-2.21861E-3	-75.7626E-12	777.486E-3	-4.83900E-3	-75.5474E-12	791.548E-3	-29.1422E-3
-2.22361E-3	-76.1949E-12	768.470E-3	-4.34547E-3	-76.0060E-12	795.634E-3	-20.7509E-3
-2.22861E-3	-76.1296E-12	766.822E-3	-5.02415E-3	-76.3225E-12	779.274E-3	-11.8434E-3
-2.23362E-3	-76.3291E-12	779.549E-3	2.44608E-3	-76.7681E-12	756.621E-3	-13.2634E-3
-2.23862E-3	-76.8752E-12	779.526E-3	5.66631E-3	-77.0516E-12	750.481E-3	-23.1498E-3
-2.24362E-3	-77.6385E-12	777.929E-3	-3.05499E-3	-77.7629E-12	761.400E-3	-37.3972E-3
-2.24862E-3	-77.5412E-12	780.473E-3	-14.7649E-3	-77.6038E-12	759.218E-3	-41.3952E-3
-2.25363E-3	-77.4097E-12	773.971E-3	-21.1509E-3	-78.3257E-12	760.001E-3	-26.5625E-3
-2.25863E-3	-77.5568E-12	770.885E-3	-20.5108E-3	-78.6208E-12	777.466E-3	-12.1746E-3
-2.26363E-3	-77.9070E-12	769.382E-3	-4.60849E-3	-79.0694E-12	780.581E-3	-6.54864E-3
-2.26863E-3	-78.2504E-12	765.035E-3	2.46338E-3	-78.7726E-12	772.851E-3	-2.11653E-3
-2.27364E-3	-78.3572E-12	768.750E-3	-17.2535E-3	-79.2592E-12	763.450E-3	-4.10005E-3
-2.27864E-3	-78.6608E-12	773.392E-3	-23.0306E-3	-79.3877E-12	740.629E-3	-9.17641E-3
-2.28364E-3	-78.7079E-12	764.046E-3	-7.15602E-3	-79.5208E-12	728.201E-3	-8.44382E-3
-2.28864E-3	-78.9086E-12	756.256E-3	-8.41235E-3	-79.6400E-12	738.713E-3	-13.2374E-3
-2.29365E-3	-79.2698E-12	758.607E-3	-24.8312E-3	-79.8923E-12	742.559E-3	-22.2218E-3
-2.29865E-3	-79.6480E-12	754.915E-3	-26.6015E-3	-79.9805E-12	729.962E-3	-22.2853E-3
-2.30365E-3	-79.9058E-12	750.465E-3	-19.9241E-3	-79.9288E-12	731.132E-3	-19.9897E-3
-2.30865E-3	-79.8567E-12	751.764E-3	-22.8832E-3	-80.3039E-12	751.469E-3	-13.8397E-3
-2.31366E-3	-80.2987E-12	742.006E-3	-28.5229E-3	-80.4262E-12	758.082E-3	-12.0736E-3
-2.31866E-3	-80.5997E-12	732.086E-3	-28.4272E-3	-80.6833E-12	756.223E-3	-17.3466E-3
-2.32366E-3	-80.9645E-12	745.489E-3	-25.1521E-3	-80.8003E-12	765.019E-3	-21.8490E-3
-2.32866E-3	-81.4629E-12	753.612E-3	-33.9762E-3	-81.0872E-12	771.379E-3	-25.0648E-3
-2.33367E-3	-82.0964E-12	741.364E-3	-45.8956E-3	-81.6214E-12	766.333E-3	-28.9356E-3
-2.33867E-3	-82.4748E-12	748.769E-3	-37.5165E-3	-81.7317E-12	762.957E-3	-30.9801E-3
-2.34367E-3	-82.4195E-12	764.159E-3	-17.1964E-3	-82.4443E-12	768.960E-3	-19.6517E-3
-2.34867E-3	-82.6455E-12	762.580E-3	-11.4197E-3	-82.3537E-12	767.247E-3	-16.0579E-3
-2.35368E-3	-83.2388E-12	760.262E-3	-16.1726E-3	-82.9948E-12	755.397E-3	-17.0895E-3
-2.35868E-3	-83.6338E-12	759.090E-3	-4.16975E-3	-83.3592E-12	746.518E-3	-9.68235E-3
-2.36368E-3	-83.2446E-12	746.042E-3	5.62932E-3	-83.6070E-12	746.262E-3	-19.0181E-3
-2.36868E-3	-83.4308E-12	746.709E-3	-9.60187E-3	-83.4575E-12	747.500E-3	-25.0519E-3
-2.37369E-3	-84.0096E-12	761.117E-3	-26.1048E-3	-83.9345E-12	745.847E-3	-16.6349E-3
-2.37869E-3	-84.5918E-12	756.852E-3	-31.1600E-3	-83.6811E-12	739.818E-3	-19.0797E-3
-2.38369E-3	-84.4262E-12	759.111E-3	-34.2085E-3	-84.1316E-12	728.797E-3	-22.1096E-3
-2.38869E-3	-84.8134E-12	764.124E-3	-28.4146E-3	-84.1164E-12	722.751E-3	-26.4779E-3
-2.39370E-3	-85.0396E-12	757.644E-3	-13.7682E-3	-84.0948E-12	720.855E-3	-32.5887E-3
-2.39870E-3	-85.3987E-12	764.636E-3	-3.00462E-3	-84.1035E-12	716.645E-3	-24.2578E-3
-2.40370E-3	-85.0112E-12	756.412E-3	5.71823E-3	-84.4716E-12	710.848E-3	-12.7397E-3
-2.40870E-3	-85.5119E-12	731.562E-3	7.09547E-3	-84.5456E-12	701.985E-3	-7.33092E-3
-2.41371E-3	-85.6318E-12	736.096E-3	-3.47433E-3	-84.4766E-12	704.886E-3	-8.11222E-3
-2.41871E-3	-85.7884E-12	741.864E-3	-13.1100E-3	-84.1667E-12	720.704E-3	-10.8139E-3
-2.42371E-3	-85.5754E-12	735.966E-3	-16.7208E-3	-84.6767E-12	723.248E-3	-16.0119E-3
-2.42871E-3	-85.8658E-12	736.447E-3	-13.7506E-3	-85.2910E-12	712.654E-3	-33.6915E-3
-2.43372E-3	-85.9065E-12	727.895E-3	-3.86752E-3	-85.6570E-12	717.995E-3	-57.1427E-3
-2.43872E-3	-86.0373E-12	715.618E-3	8.03717E-3	-85.5164E-12	730.484E-3	-50.7276E-3
-2.44372E-3	-86.2363E-12	721.804E-3	8.38150E-3	-86.1766E-12	733.813E-3	-17.8295E-3
-2.44872E-3	-86.5735E-12	729.768E-3	-12.1794E-3	-87.1900E-12	743.841E-3	-4.22375E-3
-2.45373E-3	-86.7417E-12	716.975E-3	-26.4003E-3	-87.5712E-12	744.513E-3	-12.0367E-3
-2.45873E-3	-87.2812E-12	708.183E-3	-18.5891E-3	-87.3181E-12	733.813E-3	-14.0273E-3
-2.46373E-3	-87.0754E-12	715.078E-3	-11.9019E-3	-87.8045E-12	724.338E-3	-12.6084E-3
-2.46873E-3	-87.6862E-12	716.747E-3	-17.6622E-3	-88.2566E-12	722.442E-3	-14.1232E-3
-2.47374E-3	-88.2794E-12	715.625E-3	-32.7973E-3	-88.9625E-12	732.301E-3	-18.8651E-3
-2.47874E-3	-88.1486E-12	725.257E-3	-28.8220E-3	-88.7718E-12	739.524E-3	-11.3115E-3
-2.48374E-3	-88.5085E-12	732.557E-3	-3.79316E-3	-89.4424E-12	740.135E-3	15.5557E-3
-2.48874E-3	-89.3383E-12	729.619E-3	-1.79752E-3	-89.4767E-12	732.457E-3	18.0357E-3
-2.49375E-3	-89.7590E-12	727.986E-3	-13.6148E-3	-90.0703E-12	716.289E-3	790.388E-6
-2.49875E-3	-89.8924E-12	721.047E-3	-21.5940E-3	-90.1544E-12	715.344E-3	-6.59195E-3
-2.50375E-3	-89.8053E-12	713.313E-3	-24.9787E-3	-90.6042E-12	740.932E-3	-13.0941E-3
-2.50875E-3	-90.1072E-12	720.195E-3	-22.0291E-3	-90.7533E-12	748.155E-3	-18.9985E-3
-2.51376E-3	-90.6480E-12	724.653E-3	-26.5410E-3	-90.8182E-12	720.411E-3	-20.1166E-3
-2.51876E-3	-90.8437E-12	728.528E-3	-30.5352E-3	-90.6495E-12	711.082E-3	-25.5630E-3
-2.52376E-3	-90.6951E-12	741.424E-3	-28.0469E-3	-91.2108E-12	718.895E-3	-34.3157E-3
-2.52876E-3	-91.2013E-12	736.311E-3	-25.5471E-3	-91.7612E-12	721.358E-3	-38.2327E-3
-2.53377E-3	-91.9557E-12	724.131E-3	-26.5712E-3	-91.3167E-12	730.173E-3	-39.8629E-3
-2.53877E-3	-91.8573E-12	736.493E-3	-34.0924E-3	-91.6974E-12	738.828E-3	-33.1133E-3
-2.54377E-3	-91.9832E-12	745.007E-3	-35.5037E-3	-91.9726E-12	732.886E-3	-11.7378E-3
-2.54877E-3	-92.3775E-12	730.005E-3	-28.2555E-3	-92.2291E-12	714.729E-3	5.68499E-3
-2.55378E-3	-92.8965E-12	728.322E-3	-32.2742E-3	-92.3412E-12	707.787E-3	-438.729E-6
-2.55878E-3	-93.1373E-12	732.280E-3	-37.6832E-3	-92.5355E-12	711.351E-3	-16.3797E-3
-2.56378E-3	-93.7092E-12	728.909E-3	-26.7020E-3	-92.7740E-12	707.762E-3	-16.5019E-3
-2.56878E-3	-93.7290E-12	734.811E-3	-21.8514E-3	-92.7895E-12	705.432E-3	82.2488E-6
-2.57379E-3	-93.4868E-12	731.484E-3	-22.3854E-3	-93.0682E-12	705.853E-3	15.4958E-3
-2.57879E-3	-94.1709E-12	714.441E-3	-20.5955E-3	-92.7853E-12	698.123E-3	24.9821E-3
-2.58379E-3	-94.2172E-12	712.296E-3	-20.7022E-3	-93.6334E-12	697.483E-3	16.9552E-3
-2.58879E-3	-94.2810E-12	722.062E-3	-6.58341E-3	-93.6670E-12	701.861E-3	-7.73888E-3
-2.59380E-3	-94.1876E-12	718.825E-3	12.1701E-3	-93.7835E-12	698.303E-3	-11.2020E-3
-2.59880E-3	-94.5095E-12	718.667E-3	2.25441E-3	-93.7820E-12	702.233E-3	-6.40366E-3
-2.60380E-3	-94.7891E-12	720.562E-3	-20.1945E-3	-94.3585E-12	704.777E-3	-19.8069E-3
-2.60880E-3	-95.0021E-12	712.488E-3	-27.7690E-3	-94.4159E-12	698.073E-3	-12.0163E-3
-2.61381E-3	-94.7845E-12	710.918E-3	-25.5760E-3	-95.0209E-12	700.470E-3	2.48799E-3
-2.61881E-3	-94.5762E-12	715.043E-3	-10.5923E-3	-95.4192E-12	715.485E-3	-11.8924E-3
-2.62381E-3	-95.3628E-12	718.214E-3	-6.48403E-3	-95.6515E-12	721.374E-3	-25.0484E-3
-2.62881E-3	-95.5466E-12	723.546E-3	-22.7152E-3	-95.7779E-12	708.413E-3	-28.3584E-3
-2.63382E-3	-95.4955E-12	727.086E-3	-22.3465E-3	-96.0722E-12	695.409E-3	-17.8143E-3
-2.63882E-3	-95.9666E-12	720.618E-3	-6.15860E-3	-96.4322E-12	695.699E-3	2.99309E-3
-2.64382E-3	-96.7464E-12	714.102E-3	-9.23527E-3	-97.0335E-12	701.417E-3	-2.45524E-3
-2.64882E-3	-96.9754E-12	714.015E-3	-13.1834E-3	-97.0062E-12	700.158E-3	-21.7280E-3
-2.65383E-3	-97.1249E-12	703.015E-3	1.06298E-3	-96.8280E-12	700.383E-3	-26.1277E-3
-2.65883E-3	-97.3231E-12	695.830E-3	3.65305E-3	-97.4357E-12	710.613E-3	-27.9370E-3
-2.66383E-3	-97.2828E-12	695.081E-3	4.63852E-3	-97.9512E-12	711.479E-3	-40.1929E-3
-2.66883E-3	-97.6550E-12	688.124E-3	9.91548E-3	-98.3421E-12	706.591E-3	-38.6097E-3
-2.67384E-3	-97.2287E-12	698.159E-3	2.56258E-3	-98.3567E-12	706.840E-3	-20.8338E-3
-2.67884E-3	-97.6163E-12	718.414E-3	-9.57116E-3	-98.7876E-12	698.707E-3	-20.8264E-3
-2.68384E-3	-97.5352E-12	716.425E-3	-17.7824E-3	-98.8229E-12	690.712E-3	-17.0732E-3
-2.68884E-3	-98.2765E-12	696.462E-3	-14.9819E-3	-99.4051E-12	700.264E-3	5.62555E-3
-2.69385E-3	-98.0312E-12	686.072E-3	-734.270E-6	-99.6213E-12	719.304E-3	10.9916E-3
-2.69885E-3	-98.5962E-12	684.350E-3	4.31989E-3	-99.5849E-12	721.389E-3	-2.77705E-3
-2.70385E-3	-98.9019E-12	683.625E-3	-14.4258E-3	-99.8857E-12	708.435E-3	-12.0804E-3
-2.70885E-3	-99.2808E-12	696.169E-3	-38.6441E-3	-99.8791E-12	710.957E-3	-15.0213E-3
-2.71386E-3	-99.3200E-12	698.537E-3	-39.6500E-3	-99.9523E-12	713.688E-3	-19.2768E-3
-2.71886E-3	-99.9170E-12	683.285E-3	-27.4182E-3	-100.176E-12	710.209E-3	-29.6634E-3
-2.72386E-3	-101.020E-12	679.058E-3	-22.3282E-3	-100.424E-12	715.932E-3	-31.7795E-3
-2.72886E-3	-100.965E-12	683.214E-3	-18.8605E-3	-99.9174E-12	709.934E-3	-26.0198E-3
-2.73387E-3	-101.707E-12	679.383E-3	-11.6995E-3	-100.007E-12	696.063E-3	-29.2897E-3
-2.73887E-3	-101.884E-12	672.543E-3	-15.3817E-3	-100.286E-12	686.806E-3	-34.8202E-3
-2.74387E-3	-102.422E-12	682.428E-3	-27.7996E-3	-100.472E-12	686.248E-3	-35.6757E-3
-2.74887E-3	-102.706E-12	713.985E-3	-22.0400E-3	-100.292E-12	696.183E-3	-30.5950E-3
-2.75388E-3	-102.957E-12	737.701E-3	-9.86697E-3	-101.022E-12	691.206E-3	-22.4916E-3
-2.75888E-3	-103.261E-12	733.573E-3	-9.07157E-3	-101.823E-12	678.466E-3	-15.9366E-3
-2.76388E-3	-103.211E-12	729.340E-3	-11.7462E-3	-102.484E-12	682.327E-3	-7.35383E-3
-2.76888E-3	-103.464E-12	729.267E-3	-19.6066E-3	-102.869E-12	697.395E-3	-8.12799E-3
-2.77389E-3	-103.330E-12	722.212E-3	-26.5782E-3	-103.915E-12	707.009E-3	-21.0376E-3
-2.77889E-3	-103.612E-12	719.269E-3	-27.2563E-3	-104.334E-12	710.875E-3	-23.7126E-3
-2.78389E-3	-103.323E-12	714.101E-3	-35.8156E-3	-105.108E-12	714.458E-3	-22.9973E-3
-2.78889E-3	-103.500E-12	696.921E-3	-35.4493E-3	-105.380E-12	714.864E-3	-23.5697E-3
-2.79390E-3	-103.420E-12	690.783E-3	-17.5755E-3	-105.443E-12	721.806E-3	-10.9184E-3
-2.79890E-3	-103.802E-12	713.310E-3	-13.3974E-3	-105.468E-12	717.672E-3	-11.9537E-3
-2.80390E-3	-103.989E-12	728.729E-3	-18.1006E-3	-105.409E-12	688.460E-3	-31.6438E-3
-2.80890E-3	-104.198E-12	712.376E-3	-13.9768E-3	-105.153E-12	661.920E-3	-37.9902E-3
-2.81391E-3	-104.765E-12	694.304E-3	-10.3629E-3	-104.881E-12	669.156E-3	-29.0051E-3
-2.81891E-3	-104.984E-12	684.865E-3	-3.59586E-3	-104.440E-12	691.340E-3	-25.7821E-3
-2.82391E-3	-104.797E-12	685.820E-3	-5.99827E-3	-104.056E-12	685.196E-3	-33.8794E-3
-2.82891E-3	-104.830E-12	701.834E-3	-23.8587E-3	-104.025E-12	668.536E-3	-32.1132E-3
-2.83392E-3	-105.270E-12	703.693E-3	-31.9748E-3	-103.774E-12	665.754E-3	-21.2157E-3
-2.83892E-3	-105.432E-12	692.542E-3	-28.9296E-3	-104.089E-12	677.653E-3	-3.59310E-3
-2.84392E-3	-105.434E-12	693.393E-3	-24.1974E-3	-104.191E-12	696.853E-3	13.7366E-3
-2.84892E-3	-105.363E-12	707.361E-3	-26.5788E-3	-105.078E-12	702.597E-3	21.0320E-3
-2.85393E-3	-106.228E-12	710.752E-3	-35.2546E-3	-105.411E-12	699.310E-3	21.0805E-3
-2.85893E-3	-106.310E-12	715.053E-3	-31.8303E-3	-106.307E-12	704.456E-3	2.82439E-3
-2.86393E-3	-106.037E-12	726.515E-3	-23.6800E-3	-106.465E-12	705.497E-3	-22.2963E-3
-2.86893E-3	-106.092E-12	708.459E-3	-19.8453E-3	-107.418E-12	701.302E-3	-14.2770E-3
-2.87394E-3	-106.892E-12	690.769E-3	-14.8444E-3	-108.513E-12	700.974E-3	5.34949E-3
-2.87894E-3	-106.493E-12	699.792E-3	-13.7429E-3	-108.754E-12	696.375E-3	-8.70965E-3
-2.88394E-3	-106.664E-12	705.977E-3	-7.07356E-3	-108.929E-12	688.775E-3	-15.9563E-3
-2.88894E-3	-106.858E-12	701.188E-3	-5.09293E-3	-109.262E-12	688.604E-3	-3.44716E-3
-2.89395E-3	-107.120E-12	694.983E-3	-14.5894E-3	-109.761E-12	690.318E-3	-8.63642E-3
-2.89895E-3	-107.304E-12	685.303E-3	-13.6864E-3	-109.499E-12	686.104E-3	-14.3271E-3
-2.90395E-3	-108.213E-12	676.592E-3	-9.64082E-3	-109.299E-12	686.812E-3	-15.8220E-3
-2.90895E-3	-108.256E-12	687.069E-3	-7.81952E-3	-108.862E-12	679.144E-3	-18.3373E-3
-2.91396E-3	-108.296E-12	695.460E-3	8.65974E-3	-108.988E-12	666.916E-3	-7.99513E-3
-2.91896E-3	-108.724E-12	673.382E-3	21.1384E-3	-109.369E-12	677.115E-3	6.96940E-3
-2.92396E-3	-108.961E-12	658.911E-3	4.26562E-3	-109.005E-12	692.884E-3	3.09286E-3
-2.92896E-3	-108.784E-12	675.016E-3	-11.6803E-3	-109.355E-12	691.831E-3	-15.2504E-3
-2.93397E-3	-109.395E-12	690.734E-3	-6.17853E-3	-109.227E-12	698.573E-3	-19.1756E-3
-2.93897E-3	-109.467E-12	700.056E-3	-7.44190E-3	-109.404E-12	704.807E-3	-14.4185E-3
-2.94397E-3	-110.227E-12	700.605E-3	-16.5010E-3	-109.724E-12	694.869E-3	-19.3108E-3
-2.94897E-3	-110.628E-12	697.532E-3	-13.1595E-3	-110.920E-12	706.424E-3	-25.5556E-3
-2.95398E-3	-111.533E-12	713.448E-3	-2.19848E-3	-111.154E-12	717.626E-3	-26.1726E-3
-2.95898E-3	-111.838E-12	738.579E-3	-2.73546E-3	-111.680E-12	704.681E-3	-23.0254E-3
-2.96398E-3	-112.319E-12	734.167E-3	-14.0476E-3	-112.019E-12	693.905E-3	-13.3953E-3
-2.96898E-3	-112.951E-12	710.243E-3	-22.6849E-3	-113.033E-12	696.660E-3	-11.5045E-3
-2.97399E-3	-113.682E-12	699.574E-3	-30.3000E-3	-112.720E-12	712.266E-3	-26.3913E-3
-2.97899E-3	-113.733E-12	692.224E-3	-29.5677E-3	-113.192E-12	715.958E-3	-29.4455E-3
-2.98399E-3	-113.881E-12	680.856E-3	-10.8791E-3	-113.373E-12	695.845E-3	-18.8766E-3
-2.98899E-3	-113.856E-12	685.522E-3	1.02954E-3	-113.499E-12	675.114E-3	-17.9397E-3
-2.99400E-3	-114.141E-12	692.564E-3	11.2603E-3	-113.193E-12	671.737E-3	-19.4421E-3
-2.99900E-3	-114.393E-12	689.551E-3	28.4923E-3	-112.990E-12	689.301E-3	-21.8676E-3
-3.00400E-3	-114.212E-12	705.257E-3	24.5334E-3	-113.010E-12	696.343E-3	-18.4958E-3
-3.00900E-3	-114.353E-12	716.889E-3	12.4356E-3	-113.646E-12	675.613E-3	2.56706E-3
-3.01401E-3	-114.458E-12	697.304E-3	-1.44492E-3	-113.427E-12	656.112E-3	3.60911E-3
-3.01901E-3	-113.848E-12	674.168E-3	-26.6180E-3	-113.165E-12	648.164E-3	-23.0509E-3
-3.02401E-3	-113.462E-12	662.496E-3	-26.4354E-3	-113.708E-12	653.659E-3	-32.7916E-3
-3.02901E-3	-114.060E-12	676.391E-3	1.54899E-3	-114.697E-12	678.048E-3	-22.4061E-3
-3.03402E-3	-113.713E-12	694.149E-3	14.6574E-3	-114.550E-12	701.615E-3	-27.4597E-3
-3.03902E-3	-113.886E-12	671.443E-3	2.01813E-3	-114.556E-12	693.620E-3	-39.4196E-3
-3.04402E-3	-114.018E-12	650.655E-3	-23.1926E-3	-115.304E-12	673.261E-3	-28.7772E-3
-3.04902E-3	-114.640E-12	668.431E-3	-36.5153E-3	-115.269E-12	676.165E-3	-17.9204E-3
-3.05403E-3	-114.899E-12	685.244E-3	-23.8919E-3	-115.923E-12	675.866E-3	-15.0606E-3
-3.05903E-3	-115.551E-12	683.034E-3	-8.08712E-3	-116.052E-12	675.188E-3	-12.9489E-3
-3.06403E-3	-115.568E-12	687.967E-3	-12.8549E-3	-116.217E-12	692.894E-3	-29.0506E-3
-3.06903E-3	-116.511E-12	697.894E-3	-18.4561E-3	-116.945E-12	699.288E-3	-38.9125E-3
-3.07404E-3	-116.720E-12	695.921E-3	-17.6064E-3	-117.353E-12	689.755E-3	-33.0327E-3
-3.07904E-3	-116.718E-12	693.535E-3	-21.9880E-3	-117.214E-12	690.431E-3	-32.2333E-3
-3.08404E-3	-117.244E-12	694.089E-3	-27.0712E-3	-117.274E-12	698.334E-3	-14.0659E-3
-3.08904E-3	-117.443E-12	688.522E-3	-21.3805E-3	-118.293E-12	703.319E-3	15.5894E-3
-3.09405E-3	-117.427E-12	685.248E-3	-11.4700E-3	-118.426E-12	709.837E-3	5.74683E-3
-3.09905E-3	-117.373E-12	683.243E-3	-6.22879E-3	-118.887E-12	716.934E-3	-18.0845E-3
-3.10405E-3	-117.387E-12	692.088E-3	-5.63375E-3	-119.196E-12	722.350E-3	-14.4522E-3
-3.10905E-3	-117.469E-12	712.242E-3	-20.5240E-3	-119.819E-12	722.382E-3	-6.42811E-3
-3.11406E-3	-117.351E-12	707.369E-3	-44.8974E-3	-119.563E-12	709.139E-3	-6.16515E-3
-3.11906E-3	-117.002E-12	685.816E-3	-57.3228E-3	-119.995E-12	700.876E-3	-954.319E-6
-3.12406E-3	-117.306E-12	687.276E-3	-40.0472E-3	-120.539E-12	709.258E-3	4.74100E-3
-3.12906E-3	-117.897E-12	695.748E-3	-11.9115E-3	-120.197E-12	712.830E-3	-1.47121E-3
-3.13407E-3	-117.733E-12	699.443E-3	-3.65201E-3	-120.047E-12	697.665E-3	-11.0393E-3
-3.13907E-3	-118.256E-12	697.197E-3	-22.3196E-3	-120.032E-12	689.030E-3	-23.8941E-3
-3.14407E-3	-118.631E-12	674.257E-3	-42.5889E-3	-119.547E-12	692.997E-3	-37.5024E-3
-3.14907E-3	-119.369E-12	652.232E-3	-39.0113E-3	-119.063E-12	694.876E-3	-26.1648E-3
-3.15408E-3	-119.521E-12	648.298E-3	-28.8435E-3	-118.784E-12	701.836E-3	-21.2706E-3
-3.15908E-3	-120.156E-12	665.883E-3	-15.9460E-3	-118.405E-12	693.833E-3	-35.9873E-3
-3.16408E-3	-121.159E-12	698.395E-3	6.70201E-3	-118.797E-12	678.344E-3	-24.2375E-3
-3.16908E-3	-121.568E-12	710.297E-3	11.7595E-3	-119.232E-12	672.703E-3	-19.0826E-3
-3.17409E-3	-121.958E-12	694.545E-3	-3.88339E-3	-118.713E-12	665.523E-3	-19.9578E-3
-3.17909E-3	-122.684E-12	683.521E-3	-21.2869E-3	-119.545E-12	664.536E-3	-929.871E-6
-3.18409E-3	-122.983E-12	681.868E-3	-34.9660E-3	-119.684E-12	677.981E-3	-5.71322E-3
-3.18909E-3	-122.786E-12	680.127E-3	-49.2519E-3	-120.749E-12	683.849E-3	-27.8528E-3
-3.19410E-3	-123.108E-12	689.251E-3	-45.6100E-3	-121.428E-12	687.978E-3	-27.9760E-3
-3.19910E-3	-123.530E-12	698.847E-3	-20.9394E-3	-122.278E-12	700.916E-3	-23.4125E-3
-3.20410E-3	-123.424E-12	691.993E-3	-12.6695E-3	-122.875E-12	698.863E-3	-40.5095E-3
-3.20910E-3	-122.717E-12	696.051E-3	-5.35624E-3	-123.949E-12	694.561E-3	-49.1582E-3
-3.21411E-3	-123.299E-12	701.627E-3	-3.71171E-3	-124.075E-12	700.970E-3	-32.0008E-3
-3.21911E-3	-123.635E-12	683.615E-3	-26.0257E-3	-124.576E-12	700.888E-3	-12.1484E-3
-3.22411E-3	-123.829E-12	673.940E-3	-35.2601E-3	-125.300E-12	690.957E-3	-2.76951E-3
-3.22911E-3	-123.664E-12	693.816E-3	-24.5485E-3	-124.908E-12	688.087E-3	-6.93812E-3
-3.23412E-3	-123.845E-12	705.299E-3	-12.2791E-3	-124.497E-12	687.650E-3	-11.6812E-3
-3.23912E-3	-124.518E-12	692.177E-3	-16.1611E-3	-124.426E-12	678.082E-3	-9.35791E-3
-3.24412E-3	-124.759E-12	681.636E-3	-34.8825E-3	-124.183E-12	692.887E-3	-7.00330E-3
-3.24912E-3	-124.881E-12	680.366E-3	-37.1448E-3	-123.143E-12	710.104E-3	-11.4620E-3
-3.25413E-3	-124.526E-12	682.271E-3	-19.4490E-3	-122.979E-12	692.116E-3	-22.5211E-3
-3.25913E-3	-125.098E-12	682.746E-3	-5.34719E-3	-123.276E-12	679.842E-3	-33.6986E-3
-3.26413E-3	-125.727E-12	672.135E-3	-6.57767E-3	-123.037E-12	683.600E-3	-47.6351E-3
-3.26913E-3	-125.927E-12	660.598E-3	-17.8706E-3	-123.196E-12	673.184E-3	-52.9682E-3
-3.27414E-3	-125.853E-12	665.068E-3	-13.9049E-3	-123.919E-12	669.036E-3	-21.1851E-3
-3.27914E-3	-125.596E-12	676.797E-3	-6.08872E-3	-125.151E-12	682.461E-3	-1.93938E-3
-3.28414E-3	-125.976E-12	683.242E-3	-18.9314E-3	-125.706E-12	692.739E-3	-26.7658E-3
-3.28914E-3	-126.399E-12	686.371E-3	-40.0996E-3	-126.637E-12	704.846E-3	-32.7862E-3
-3.29415E-3	-126.291E-12	689.269E-3	-45.7362E-3	-127.377E-12	711.242E-3	-25.7425E-3
-3.29915E-3	-126.321E-12	676.593E-3	-32.6632E-3	-128.299E-12	689.736E-3	-22.4350E-3
-3.30415E-3	-126.767E-12	659.761E-3	-29.8770E-3	-128.529E-12	667.061E-3	-133.615E-6
-3.30915E-3	-127.124E-12	667.434E-3	-35.6153E-3	-128.789E-12	670.238E-3	12.2027E-3
-3.31416E-3	-127.342E-12	680.452E-3	-23.9049E-3	-129.362E-12	665.476E-3	5.85229E-3
-3.31916E-3	-128.068E-12	678.018E-3	-7.94381E-3	-129.643E-12	663.037E-3	-8.33623E-3
-3.32416E-3	-127.583E-12	681.519E-3	-2.55307E-3	-129.088E-12	687.879E-3	-15.9909E-3
-3.32916E-3	-127.696E-12	675.995E-3	-5.16785E-3	-128.513E-12	689.626E-3	6.89002E-3
-3.33417E-3	-127.679E-12	669.415E-3	-16.8113E-3	-129.034E-12	663.437E-3	30.8016E-3
-3.33917E-3	-128.297E-12	680.518E-3	-25.4740E-3	-127.940E-12	651.003E-3	16.6956E-3
-3.34417E-3	-127.668E-12	677.787E-3	-22.0546E-3	-128.223E-12	664.507E-3	-14.5995E-3
-3.34917E-3	-128.345E-12	651.147E-3	-15.9839E-3	-127.814E-12	679.846E-3	-25.3190E-3
-3.35418E-3	-128.492E-12	629.000E-3	-16.8084E-3	-128.637E-12	679.472E-3	-18.5991E-3
-3.35918E-3	-129.660E-12	646.413E-3	-25.0253E-3	-128.637E-12	677.549E-3	-14.5622E-3
-3.36418E-3	-129.619E-12	684.429E-3	-47.3045E-3	-128.741E-12	670.551E-3	-3.43127E-3
-3.36918E-3	-129.435E-12	688.552E-3	-66.1015E-3	-128.848E-12	675.470E-3	15.3636E-3
-3.37419E-3	-130.347E-12	668.241E-3	-51.7961E-3	-129.544E-12	699.959E-3	3.12985E-3
-3.37919E-3	-131.265E-12	669.701E-3	-23.5305E-3	-131.122E-12	696.322E-3	-15.7796E-3
-3.38419E-3	-131.147E-12	689.199E-3	2.66291E-3	-131.333E-12	678.609E-3	-16.4462E-3
-3.38919E-3	-131.628E-12	696.716E-3	2.67306E-3	-132.452E-12	695.348E-3	-31.1816E-3
-3.39420E-3	-132.653E-12	694.757E-3	-25.6099E-3	-133.224E-12	726.634E-3	-29.9675E-3
-3.39920E-3	-133.864E-12	688.760E-3	-32.6130E-3	-134.384E-12	735.011E-3	-3.89820E-3
-3.40420E-3	-133.836E-12	674.091E-3	-18.7373E-3	-134.322E-12	721.874E-3	-13.9677E-3
-3.40920E-3	-134.312E-12	663.793E-3	-16.4036E-3	-133.902E-12	704.075E-3	-36.5875E-3
-3.41421E-3	-134.653E-12	676.071E-3	-11.9914E-3	-133.382E-12	694.632E-3	-23.7590E-3
-3.41921E-3	-134.876E-12	700.152E-3	-6.33236E-3	-133.580E-12	689.897E-3	-14.1153E-3
-3.42421E-3	-134.211E-12	705.860E-3	-17.2781E-3	-133.660E-12	667.833E-3	-15.2502E-3
-3.42921E-3	-134.408E-12	703.323E-3	-24.6386E-3	-132.952E-12	658.848E-3	-8.86089E-3
-3.43422E-3	-134.113E-12	705.495E-3	-26.4741E-3	-132.624E-12	683.924E-3	-9.36483E-3
-3.43922E-3	-133.428E-12	700.632E-3	-35.9312E-3	-132.498E-12	690.341E-3	-12.2827E-3
-3.44422E-3	-133.421E-12	693.867E-3	-37.3214E-3	-133.092E-12	670.883E-3	2.41633E-3
-3.44922E-3	-132.734E-12	698.965E-3	-26.3839E-3	-132.557E-12	673.957E-3	8.05066E-3
-3.45423E-3	-132.640E-12	698.941E-3	-21.6902E-3	-132.841E-12	675.119E-3	-9.80967E-3
-3.45923E-3	-132.509E-12	682.770E-3	-21.7867E-3	-132.334E-12	649.727E-3	-6.79338E-3
-3.46423E-3	-132.752E-12	673.947E-3	-15.5959E-3	-133.184E-12	652.128E-3	1.42511E-3
-3.46923E-3	-132.608E-12	666.675E-3	-5.26495E-3	-133.917E-12	674.985E-3	-11.7240E-3
-3.47424E-3	-133.182E-12	654.021E-3	-1.87760E-3	-134.083E-12	681.082E-3	-22.9624E-3
-3.47924E-3	-133.003E-12	651.661E-3	-3.73740E-3	-134.319E-12	693.813E-3	-26.8197E-3
-3.48424E-3	-133.758E-12	657.975E-3	12.7454E-3	-135.090E-12	703.674E-3	-24.5968E-3
-3.48924E-3	-135.063E-12	669.553E-3	28.2381E-3	-135.737E-12	679.461E-3	-18.2007E-3
-3.49425E-3	-134.791E-12	677.131E-3	9.83609E-3	-135.624E-12	658.991E-3	-17.0541E-3
-3.49925E-3	-134.963E-12	666.784E-3	-12.8426E-3	-135.940E-12	662.685E-3	-23.2526E-3
-3.50425E-3	-135.942E-12	650.383E-3	-12.2719E-3	-136.098E-12	660.683E-3	-14.6285E-3
-3.50925E-3	-136.796E-12	651.962E-3	-12.5912E-3	-135.983E-12	663.393E-3	-7.75995E-3
-3.51426E-3	-136.780E-12	663.874E-3	-26.8715E-3	-136.549E-12	688.253E-3	-24.2019E-3
-3.51926E-3	-136.873E-12	659.145E-3	-32.7877E-3	-135.746E-12	697.213E-3	-20.2940E-3
-3.52426E-3	-137.042E-12	657.381E-3	-27.5762E-3	-136.047E-12	673.929E-3	-5.24059E-3
-3.52926E-3	-137.434E-12	665.293E-3	-28.9164E-3	-136.817E-12	662.191E-3	-23.9168E-3
-3.53427E-3	-137.388E-12	662.840E-3	-52.2470E-3	-137.502E-12	672.539E-3	-42.5175E-3
-3.53927E-3	-137.303E-12	663.750E-3	-64.1003E-3	-136.953E-12	680.150E-3	-18.4690E-3
-3.54427E-3	-136.991E-12	680.810E-3	-34.5577E-3	-137.786E-12	673.430E-3	6.46472E-3
-3.54927E-3	-138.067E-12	692.283E-3	-11.6689E-3	-137.961E-12	656.251E-3	-2.18949E-3
-3.55428E-3	-138.575E-12	680.348E-3	-9.10152E-3	-138.482E-12	671.009E-3	-24.5828E-3
-3.55928E-3	-138.461E-12	669.721E-3	-5.19422E-3	-138.086E-12	698.126E-3	-42.2051E-3
-3.56428E-3	-138.496E-12	667.209E-3	-11.3354E-3	-138.252E-12	686.985E-3	-28.7016E-3
-3.56928E-3	-140.150E-12	665.518E-3	-20.6638E-3	-138.671E-12	676.421E-3	661.490E-6
-3.57429E-3	-140.030E-12	664.609E-3	-7.73515E-3	-139.370E-12	687.020E-3	-7.79161E-3
-3.57929E-3	-140.656E-12	654.298E-3	11.2563E-3	-138.981E-12	687.169E-3	-28.8698E-3
-3.58429E-3	-141.112E-12	651.639E-3	8.17445E-3	-138.688E-12	678.518E-3	-33.8302E-3
-3.58929E-3	-141.742E-12	658.701E-3	-14.1411E-3	-138.688E-12	663.509E-3	-40.2455E-3
-3.59430E-3	-141.851E-12	663.389E-3	-19.8263E-3	-138.490E-12	638.964E-3	-37.2418E-3
-3.59930E-3	-142.248E-12	672.558E-3	-9.04787E-3	-138.156E-12	642.862E-3	-22.2256E-3
-3.60430E-3	-142.152E-12	674.774E-3	-9.76665E-3	-138.269E-12	680.799E-3	-16.1358E-3
-3.60930E-3	-142.551E-12	663.704E-3	-2.87238E-3	-138.578E-12	697.665E-3	-19.8841E-3
-3.61431E-3	-142.684E-12	652.273E-3	-1.43372E-3	-139.172E-12	683.708E-3	-13.2252E-3
-3.61931E-3	-142.786E-12	657.186E-3	-13.4028E-3	-140.221E-12	674.828E-3	-6.93785E-3
-3.62431E-3	-142.677E-12	675.853E-3	-8.72038E-3	-140.995E-12	672.153E-3	-15.8513E-3
-3.62931E-3	-142.465E-12	700.081E-3	-341.117E-6	-141.967E-12	675.110E-3	-11.5120E-3
-3.63432E-3	-142.718E-12	717.916E-3	2.22164E-3	-142.158E-12	696.862E-3	-7.27364E-3
-3.63932E-3	-143.338E-12	718.092E-3	721.513E-6	-144.009E-12	705.959E-3	-19.7600E-3
-3.64432E-3	-143.456E-12	696.899E-3	4.75856E-3	-144.561E-12	696.438E-3	-27.6961E-3
-3.64932E-3	-142.756E-12	667.103E-3	20.3609E-3	-145.024E-12	694.105E-3	-31.9762E-3
-3.65433E-3	-143.591E-12	665.607E-3	21.6387E-3	-144.796E-12	682.118E-3	-35.9195E-3
-3.65933E-3	-144.413E-12	677.590E-3	10.1422E-3	-145.317E-12	668.737E-3	-28.7195E-3
-3.66433E-3	-144.452E-12	680.507E-3	-10.2987E-3	-145.625E-12	680.733E-3	-21.6376E-3
-3.66933E-3	-143.992E-12	679.569E-3	-27.2091E-3	-144.879E-12	701.706E-3	-32.7185E-3
-3.67434E-3	-144.137E-12	680.310E-3	-14.6994E-3	-144.427E-12	689.524E-3	-41.9992E-3
-3.67934E-3	-144.285E-12	687.037E-3	-185.459E-6	-144.366E-12	653.238E-3	-32.9352E-3
-3.68434E-3	-144.475E-12	691.965E-3	-7.57302E-3	-144.671E-12	630.973E-3	-17.4911E-3
-3.68934E-3	-144.095E-12	690.766E-3	-32.7676E-3	-143.978E-12	638.796E-3	-9.74837E-3
-3.69435E-3	-143.696E-12	685.744E-3	-44.5140E-3	-143.634E-12	674.000E-3	-10.2947E-3
-3.69935E-3	-143.729E-12	665.733E-3	-23.1165E-3	-143.423E-12	704.247E-3	-25.9670E-3
-3.70435E-3	-143.856E-12	654.691E-3	-10.9471E-3	-144.234E-12	703.372E-3	-40.6108E-3
-3.70935E-3	-143.455E-12	679.426E-3	-22.3632E-3	-145.232E-12	692.556E-3	-32.0461E-3
-3.71436E-3	-143.322E-12	693.531E-3	-36.2378E-3	-145.143E-12	680.207E-3	-31.3500E-3
-3.71936E-3	-143.323E-12	672.760E-3	-26.1197E-3	-146.152E-12	654.623E-3	-37.1809E-3
-3.72436E-3	-143.853E-12	666.084E-3	-45.2014E-6	-146.985E-12	649.186E-3	-26.7050E-3
-3.72936E-3	-144.030E-12	673.384E-3	-2.92663E-3	-146.900E-12	666.166E-3	-25.6455E-3
-3.73437E-3	-144.350E-12	663.551E-3	-15.4845E-3	-147.088E-12	671.634E-3	-37.2205E-3
-3.73937E-3	-144.967E-12	658.815E-3	-15.8566E-3	-148.150E-12	672.708E-3	-46.3952E-3
-3.74437E-3	-145.849E-12	658.428E-3	-10.9063E-3	-147.639E-12	679.606E-3	-40.9114E-3
-3.74937E-3	-146.291E-12	647.088E-3	7.11847E-3	-147.973E-12	682.456E-3	-12.4479E-3
-3.75438E-3	-146.576E-12	637.667E-3	632.629E-6	-148.025E-12	669.975E-3	-876.369E-6
-3.75938E-3	-146.725E-12	637.014E-3	-25.5964E-3	-147.796E-12	665.883E-3	-12.4666E-3
-3.76438E-3	-147.677E-12	644.287E-3	-25.7922E-3	-146.605E-12	672.560E-3	-9.94832E-3
-3.76938E-3	-148.589E-12	654.389E-3	-13.5462E-3	-146.457E-12	661.870E-3	-11.6727E-3
-3.77439E-3	-148.790E-12	666.938E-3	-18.2450E-3	-146.078E-12	653.115E-3	-29.6282E-3
-3.77939E-3	-149.210E-12	687.336E-3	-36.3295E-3	-145.299E-12	654.033E-3	-33.3813E-3
-3.78439E-3	-149.281E-12	695.887E-3	-23.7065E-3	-145.419E-12	669.892E-3	-17.6272E-3
-3.78939E-3	-149.605E-12	686.195E-3	1.86527E-3	-145.630E-12	687.862E-3	-15.6731E-3
-3.79440E-3	-150.292E-12	686.652E-3	-6.03615E-3	-146.056E-12	669.164E-3	-33.1704E-3
-3.79940E-3	-150.340E-12	695.450E-3	-13.5170E-3	-147.448E-12	644.743E-3	-35.0493E-3
-3.80440E-3	-150.927E-12	692.900E-3	-12.5625E-3	-148.408E-12	655.031E-3	-29.4346E-3
-3.80940E-3	-151.232E-12	697.118E-3	-18.5701E-3	-149.422E-12	684.159E-3	-30.2223E-3
-3.81441E-3	-152.060E-12	705.504E-3	-19.7156E-3	-150.393E-12	713.740E-3	-18.2470E-3
-3.81941E-3	-152.721E-12	696.269E-3	-17.4169E-3	-151.513E-12	736.946E-3	-8.13083E-3
-3.82441E-3	-152.954E-12	693.731E-3	-15.4289E-3	-152.143E-12	721.990E-3	-14.7436E-3
-3.82941E-3	-153.319E-12	699.521E-3	-9.60862E-3	-152.763E-12	689.354E-3	-24.9711E-3
-3.83442E-3	-154.425E-12	702.192E-3	3.33814E-3	-153.462E-12	687.055E-3	-21.3537E-3
-3.83942E-3	-153.961E-12	705.110E-3	-860.893E-6	-152.998E-12	675.546E-3	-9.06363E-3
-3.84442E-3	-153.455E-12	697.859E-3	-14.2183E-3	-153.394E-12	656.776E-3	-21.1062E-3
-3.84942E-3	-153.520E-12	693.133E-3	-13.2550E-3	-152.995E-12	658.524E-3	-37.6388E-3
-3.85443E-3	-153.659E-12	690.330E-3	-26.6384E-3	-152.542E-12	647.267E-3	-38.1700E-3
-3.85943E-3	-153.498E-12	676.201E-3	-40.0644E-3	-152.171E-12	642.932E-3	-27.9575E-3
-3.86443E-3	-153.515E-12	654.972E-3	-17.9527E-3	-151.128E-12	672.779E-3	-14.9664E-3
-3.86943E-3	-153.089E-12	638.210E-3	4.88587E-3	-151.295E-12	680.566E-3	-19.6251E-3
-3.87444E-3	-152.974E-12	644.955E-3	1.58868E-3	-151.620E-12	644.806E-3	-33.2676E-3
-3.87944E-3	-152.356E-12	667.874E-3	-9.34426E-3	-151.023E-12	624.899E-3	-48.2834E-3
-3.88444E-3	-152.052E-12	691.457E-3	-14.4321E-3	-150.668E-12	632.289E-3	-58.8504E-3
-3.88944E-3	-152.181E-12	703.199E-3	-20.8867E-3	-152.061E-12	640.182E-3	-48.3602E-3
-3.89445E-3	-152.553E-12	679.733E-3	-23.2104E-3	-152.974E-12	656.481E-3	-20.0399E-3
-3.89945E-3	-152.868E-12	655.859E-3	-17.2995E-3	-153.908E-12	694.031E-3	4.44713E-3
-3.90445E-3	-152.971E-12	655.463E-3	-22.0647E-3	-155.043E-12	721.855E-3	-5.12394E-3
-3.90945E-3	-153.641E-12	649.689E-3	-38.5097E-3	-155.139E-12	715.284E-3	-24.9281E-3
-3.91446E-3	-153.750E-12	652.576E-3	-36.3364E-3	-155.959E-12	709.308E-3	-18.4932E-3
-3.91946E-3	-153.787E-12	660.598E-3	-7.92662E-3	-157.530E-12	708.214E-3	-1.53156E-3
-3.92446E-3	-154.555E-12	662.598E-3	2.30425E-3	-157.297E-12	698.104E-3	4.23519E-3
-3.92946E-3	-155.174E-12	659.397E-3	-21.0938E-3	-156.963E-12	702.571E-3	-2.54385E-3
-3.93447E-3	-154.685E-12	666.775E-3	-41.1137E-3	-157.853E-12	696.027E-3	-22.1443E-3
-3.93947E-3	-155.105E-12	688.824E-3	-51.1801E-3	-157.897E-12	676.224E-3	-38.7916E-3
-3.94447E-3	-154.690E-12	689.005E-3	-44.0435E-3	-157.444E-12	679.514E-3	-19.3137E-3
-3.94947E-3	-155.161E-12	675.805E-3	-13.9862E-3	-157.223E-12	690.986E-3	9.49928E-3
-3.95448E-3	-154.897E-12	686.497E-3	3.10843E-3	-157.451E-12	693.168E-3	-4.17435E-3
-3.95948E-3	-155.510E-12	703.648E-3	5.67146E-3	-157.039E-12	691.840E-3	-37.5548E-3
-3.96448E-3	-155.426E-12	689.289E-3	6.56713E-3	-156.835E-12	678.944E-3	-46.3418E-3
-3.96948E-3	-155.541E-12	672.309E-3	9.36091E-3	-157.444E-12	669.046E-3	-42.0209E-3
-3.97449E-3	-156.358E-12	665.402E-3	11.4942E-3	-157.084E-12	661.459E-3	-33.6632E-3
-3.97949E-3	-157.132E-12	659.560E-3	-5.58434E-3	-157.090E-12	635.824E-3	-21.9456E-3
-3.98449E-3	-157.323E-12	669.444E-3	-16.5906E-3	-157.989E-12	628.511E-3	-23.0414E-3
-3.98949E-3	-158.309E-12	669.174E-3	-707.588E-6	-158.253E-12	635.643E-3	-27.7590E-3
-3.99450E-3	-159.051E-12	656.895E-3	22.5458E-3	-158.708E-12	617.588E-3	-17.0861E-3
-3.99950E-3	-159.619E-12	668.571E-3	24.4632E-3	-158.458E-12	612.922E-3	-1.30120E-3
-4.00450E-3	-160.486E-12	680.405E-3	8.76618E-3	-159.522E-12	640.256E-3	-7.83217E-3
-4.00950E-3	-161.011E-12	663.953E-3	-10.3431E-3	-158.946E-12	662.676E-3	-17.4536E-3
-4.01451E-3	-161.654E-12	642.372E-3	-33.7311E-3	-158.576E-12	669.848E-3	553.789E-6
-4.01951E-3	-161.993E-12	647.067E-3	-59.2627E-3	-158.282E-12	675.031E-3	28.2635E-3
-4.02451E-3	-162.592E-12	664.689E-3	-65.9126E-3	-158.487E-12	674.885E-3	35.2721E-3
-4.02951E-3	-162.409E-12	674.559E-3	-26.6221E-3	-158.465E-12	661.645E-3	20.4569E-3
-4.03452E-3	-161.760E-12	672.517E-3	10.1853E-3	-158.287E-12	657.292E-3	5.19060E-3
-4.03952E-3	-161.588E-12	672.917E-3	6.32905E-3	-157.960E-12	649.869E-3	-12.7997E-3
-4.04452E-3	-161.948E-12	684.322E-3	-1.31672E-3	-158.474E-12	631.289E-3	-25.5280E-3
-4.04952E-3	-161.100E-12	670.381E-3	8.64680E-3	-159.182E-12	653.556E-3	-12.0874E-3
-4.05453E-3	-160.650E-12	643.009E-3	8.31703E-3	-159.949E-12	685.123E-3	-14.8112E-3
-4.05953E-3	-160.843E-12	640.990E-3	-3.22443E-3	-160.521E-12	657.216E-3	-24.4845E-3
-4.06453E-3	-160.347E-12	652.603E-3	-18.0601E-3	-161.496E-12	637.133E-3	-2.07624E-3
-4.06953E-3	-161.110E-12	662.434E-3	-36.1886E-3	-162.249E-12	671.497E-3	-1.31776E-3
-4.07454E-3	-160.892E-12	673.571E-3	-44.2745E-3	-163.010E-12	691.914E-3	-19.7993E-3
-4.07954E-3	-161.177E-12	680.033E-3	-38.5599E-3	-163.267E-12	683.526E-3	-22.8727E-3
-4.08454E-3	-162.145E-12	680.382E-3	-19.8922E-3	-164.185E-12	687.569E-3	-31.8295E-3
-4.08954E-3	-162.866E-12	677.193E-3	-10.8756E-3	-164.045E-12	703.260E-3	-41.0422E-3
-4.09455E-3	-162.529E-12	655.841E-3	-8.46956E-3	-163.784E-12	715.749E-3	-20.0708E-3
-4.09955E-3	-163.535E-12	638.522E-3	-2.01222E-3	-164.094E-12	719.533E-3	1.07639E-3
-4.10455E-3	-163.698E-12	664.629E-3	-8.77512E-3	-164.513E-12	702.033E-3	-18.2993E-3
-4.10955E-3	-164.094E-12	691.371E-3	-24.7106E-3	-163.549E-12	676.152E-3	-29.3168E-3
-4.11456E-3	-163.560E-12	679.557E-3	-25.8251E-3	-163.484E-12	660.789E-3	-14.0636E-3
-4.11956E-3	-163.866E-12	643.929E-3	-8.26868E-3	-163.400E-12	651.691E-3	-20.8135E-3
-4.12456E-3	-164.008E-12	617.437E-3	-11.1013E-3	-163.472E-12	656.698E-3	-28.8555E-3
-4.12956E-3	-164.356E-12	641.217E-3	-36.7894E-3	-162.935E-12	666.235E-3	-16.1195E-3
-4.13457E-3	-163.990E-12	669.389E-3	-53.0479E-3	-163.122E-12	676.689E-3	-21.5140E-3
-4.13957E-3	-163.129E-12	653.575E-3	-53.2653E-3	-162.741E-12	693.204E-3	-25.5389E-3
-4.14457E-3	-164.198E-12	638.284E-3	-30.5013E-3	-164.383E-12	704.206E-3	-16.4455E-3
-4.14957E-3	-163.605E-12	644.755E-3	-11.3048E-3	-165.514E-12	714.751E-3	-9.22287E-3
-4.15458E-3	-163.067E-12	642.794E-3	-36.2545E-3	-166.093E-12	708.426E-3	-4.16952E-3
-4.15958E-3	-163.570E-12	629.482E-3	-63.7023E-3	-166.551E-12	686.741E-3	-17.6782E-3
-4.16458E-3	-164.886E-12	625.954E-3	-51.3454E-3	-167.324E-12	672.534E-3	-32.7001E-3
-4.16958E-3	-164.497E-12	633.533E-3	-39.6905E-3	-168.564E-12	673.056E-3	-27.8067E-3
-4.17459E-3	-165.073E-12	647.175E-3	-40.1905E-3	-169.101E-12	686.006E-3	-39.6370E-3
-4.17959E-3	-166.304E-12	657.952E-3	-32.7313E-3	-168.140E-12	683.896E-3	-66.2210E-3
-4.18459E-3	-166.222E-12	659.532E-3	-26.7931E-3	-167.830E-12	668.165E-3	-55.4427E-3
-4.18959E-3	-167.258E-12	665.816E-3	-20.0479E-3	-167.366E-12	670.610E-3	-16.2801E-3
-4.19460E-3	-167.515E-12	678.005E-3	-2.73818E-3	-167.144E-12	671.707E-3	-917.001E-6
-4.19960E-3	-167.919E-12	675.845E-3	26.1680E-3	-166.332E-12	654.892E-3	-19.6782E-3
-4.20460E-3	-168.334E-12	665.890E-3	27.8758E-3	-165.835E-12	655.882E-3	-25.0067E-3
-4.20960E-3	-169.100E-12	670.736E-3	2.35746E-3	-164.964E-12	666.492E-3	-961.034E-6
-4.21461E-3	-168.725E-12	684.489E-3	-876.884E-6	-164.954E-12	655.764E-3	25.6578E-3
-4.21961E-3	-169.318E-12	676.704E-3	-5.29718E-3	-165.165E-12	644.678E-3	25.8059E-3
-4.22461E-3	-170.230E-12	657.763E-3	-6.73849E-3	-165.804E-12	654.074E-3	-10.6118E-3
-4.22961E-3	-170.362E-12	668.463E-3	20.7824E-3	-166.260E-12	663.750E-3	-30.8757E-3
-4.23462E-3	-170.581E-12	680.438E-3	20.7821E-3	-166.866E-12	669.358E-3	-11.1470E-3
-4.23962E-3	-171.454E-12	668.008E-3	-23.4595E-3	-168.621E-12	688.269E-3	-14.7728E-3
-4.24462E-3	-171.059E-12	666.499E-3	-44.2410E-3	-169.695E-12	691.214E-3	-49.2748E-3
-4.24962E-3	-170.989E-12	684.140E-3	-25.2567E-3	-171.366E-12	669.646E-3	-41.4449E-3
-4.25463E-3	-171.529E-12	680.554E-3	-27.5188E-3	-172.499E-12	660.957E-3	-14.2327E-3
-4.25963E-3	-172.139E-12	657.415E-3	-57.2707E-3	-173.861E-12	659.678E-3	-10.9859E-3
-4.26463E-3	-172.308E-12	664.453E-3	-54.7742E-3	-175.040E-12	662.257E-3	-9.21382E-3
-4.26963E-3	-172.555E-12	687.490E-3	-25.7016E-3	-175.005E-12	675.089E-3	-18.9412E-3
-4.27464E-3	-172.492E-12	690.830E-3	-17.4469E-3	-173.965E-12	676.637E-3	-14.3847E-3
-4.27964E-3	-172.402E-12	679.995E-3	-35.3624E-3	-173.789E-12	671.961E-3	7.98247E-3
-4.28464E-3	-171.462E-12	664.973E-3	-36.0581E-3	-173.274E-12	683.131E-3	-11.8975E-3
-4.28964E-3	-171.364E-12	657.720E-3	14.3375E-3	-171.477E-12	676.692E-3	-45.9113E-3
-4.29465E-3	-170.867E-12	661.400E-3	45.9482E-3	-170.834E-12	635.295E-3	-47.4760E-3
-4.29965E-3	-171.331E-12	668.423E-3	16.8592E-3	-169.772E-12	605.007E-3	-33.5890E-3
-4.30465E-3	-170.432E-12	660.637E-3	-11.3826E-3	-168.927E-12	605.849E-3	-10.0681E-3
-4.30965E-3	-170.273E-12	637.689E-3	-11.0086E-3	-168.501E-12	618.827E-3	-1.39975E-3
-4.31466E-3	-170.442E-12	644.337E-3	-17.2534E-3	-169.305E-12	635.125E-3	-36.7243E-3
-4.31966E-3	-171.248E-12	671.979E-3	-31.2893E-3	-169.642E-12	641.235E-3	-64.6714E-3
-4.32466E-3	-170.377E-12	680.184E-3	-22.6933E-3	-169.963E-12	636.904E-3	-64.3269E-3
-4.32966E-3	-170.774E-12	676.261E-3	-9.77165E-3	-171.814E-12	631.723E-3	-65.7836E-3
-4.33467E-3	-171.445E-12	664.314E-3	1.22754E-3	-173.318E-12	628.421E-3	-58.7437E-3
-4.33967E-3	-171.957E-12	632.217E-3	6.85296E-3	-174.227E-12	638.354E-3	-45.0411E-3
-4.34467E-3	-172.271E-12	617.778E-3	-7.62177E-3	-175.263E-12	654.048E-3	-51.9620E-3
-4.34967E-3	-173.295E-12	650.642E-3	-12.3908E-3	-175.404E-12	666.787E-3	-53.6939E-3
-4.35468E-3	-174.277E-12	687.125E-3	-2.72474E-3	-176.402E-12	678.719E-3	-25.9731E-3
-4.35968E-3	-174.641E-12	708.919E-3	4.18614E-3	-176.754E-12	692.495E-3	-6.63096E-3
-4.36468E-3	-175.378E-12	712.462E-3	11.1419E-3	-176.371E-12	677.660E-3	-10.2877E-3
-4.36968E-3	-175.062E-12	693.094E-3	7.35958E-3	-175.440E-12	637.567E-3	-19.7453E-3
-4.37469E-3	-175.674E-12	676.726E-3	-17.2147E-3	-175.635E-12	631.079E-3	-26.6138E-3
-4.37969E-3	-174.596E-12	649.012E-3	-49.9683E-3	-175.253E-12	643.663E-3	-30.4897E-3
-4.38469E-3	-175.032E-12	622.787E-3	-62.3163E-3	-175.316E-12	650.496E-3	-25.1224E-3
-4.38969E-3	-175.520E-12	633.929E-3	-33.0333E-3	-174.090E-12	670.363E-3	-8.59616E-3
-4.39470E-3	-176.602E-12	648.309E-3	-2.62093E-3	-174.806E-12	686.448E-3	-6.73485E-3
-4.39970E-3	-176.438E-12	644.167E-3	52.6209E-6	-174.379E-12	669.326E-3	-12.5883E-3
-4.40470E-3	-176.556E-12	644.763E-3	-5.07327E-3	-175.301E-12	644.261E-3	-10.0774E-3
-4.40970E-3	-177.114E-12	654.405E-3	-12.4752E-3	-175.651E-12	652.409E-3	-16.2230E-3
-4.41471E-3	-178.431E-12	651.782E-3	-14.9752E-3	-177.361E-12	680.419E-3	-29.2104E-3
-4.41971E-3	-179.542E-12	629.304E-3	-20.1758E-3	-177.640E-12	675.672E-3	-32.8069E-3
-4.42471E-3	-179.694E-12	627.155E-3	-19.4159E-3	-178.607E-12	676.728E-3	-32.6591E-3
-4.42971E-3	-179.950E-12	662.317E-3	-9.38106E-3	-178.890E-12	706.029E-3	-39.7782E-3
-4.43472E-3	-181.207E-12	685.215E-3	-8.77202E-3	-179.843E-12	688.967E-3	-25.5253E-3
-4.43972E-3	-182.054E-12	687.015E-3	-6.33248E-3	-179.149E-12	665.711E-3	-10.9855E-3
-4.44472E-3	-182.917E-12	693.006E-3	-2.03259E-3	-178.971E-12	683.627E-3	-42.3553E-3
-4.44972E-3	-183.116E-12	690.901E-3	-8.94531E-3	-179.005E-12	704.268E-3	-71.2287E-3
-4.45473E-3	-182.556E-12	688.174E-3	-13.7986E-3	-178.928E-12	709.215E-3	-49.8396E-3
-4.45973E-3	-182.556E-12	698.839E-3	-24.5775E-3	-178.710E-12	682.741E-3	-13.8392E-3
-4.46473E-3	-182.590E-12	717.796E-3	-27.4501E-3	-177.705E-12	647.653E-3	-3.93216E-3
-4.46973E-3	-181.578E-12	728.878E-3	5.70798E-3	-177.879E-12	625.207E-3	854.632E-6
-4.47474E-3	-180.274E-12	713.228E-3	17.2845E-3	-178.377E-12	615.917E-3	3.84367E-3
-4.47974E-3	-179.326E-12	707.720E-3	-3.74363E-3	-178.859E-12	634.475E-3	-3.49636E-3
-4.48474E-3	-179.201E-12	699.395E-3	-15.5352E-3	-178.855E-12	667.336E-3	6.42376E-3
-4.48974E-3	-178.327E-12	664.449E-3	-31.2162E-3	-179.729E-12	695.130E-3	23.9270E-3
-4.49475E-3	-178.154E-12	652.416E-3	-26.7074E-3	-180.876E-12	705.867E-3	13.1519E-3
-4.49975E-3	-178.295E-12	665.126E-3	6.11586E-3	-181.464E-12	700.536E-3	-10.9546E-3
-4.50475E-3	-177.879E-12	656.598E-3	-3.09338E-3	-181.939E-12	709.879E-3	-22.6004E-3
-4.50975E-3	-178.475E-12	641.226E-3	-39.2361E-3	-182.433E-12	720.566E-3	-14.5026E-3
-4.51476E-3	-179.915E-12	645.782E-3	-31.8659E-3	-183.278E-12	696.295E-3	-11.9479E-3
-4.51976E-3	-179.048E-12	645.660E-3	-5.64377E-3	-183.491E-12	674.644E-3	-26.6381E-3
-4.52476E-3	-179.757E-12	644.361E-3	-18.5031E-3	-183.933E-12	674.345E-3	-37.6499E-3
-4.52976E-3	-180.616E-12	651.396E-3	-33.6538E-3	-183.450E-12	654.736E-3	-53.8535E-3
-4.53477E-3	-181.073E-12	653.463E-3	-2.37399E-3	-182.886E-12	640.383E-3	-51.9598E-3
-4.53977E-3	-181.312E-12	663.391E-3	21.2770E-3	-182.371E-12	657.883E-3	-21.9251E-3
-4.54477E-3	-182.313E-12	677.139E-3	5.53685E-3	-182.635E-12	654.325E-3	-5.03570E-3
-4.54977E-3	-182.831E-12	674.487E-3	-11.9698E-3	-181.676E-12	650.189E-3	-9.80276E-3
-4.55478E-3	-183.156E-12	668.263E-3	-39.8028E-3	-182.058E-12	688.928E-3	-15.7290E-3
-4.55978E-3	-182.533E-12	651.634E-3	-57.4701E-3	-181.374E-12	722.011E-3	-19.3359E-3
-4.56478E-3	-182.222E-12	631.123E-3	-25.5155E-3	-182.150E-12	709.085E-3	-30.4453E-3
-4.56978E-3	-182.623E-12	635.503E-3	8.00165E-3	-182.878E-12	675.453E-3	-49.1760E-3
-4.57479E-3	-182.630E-12	667.065E-3	14.8861E-3	-183.248E-12	666.381E-3	-62.9809E-3
-4.57979E-3	-182.064E-12	697.094E-3	-14.1968E-3	-184.044E-12	678.921E-3	-45.4555E-3
-4.58479E-3	-182.584E-12	690.842E-3	-55.7167E-3	-184.745E-12	665.037E-3	-6.65917E-3
-4.58979E-3	-183.858E-12	661.846E-3	-62.1631E-3	-185.640E-12	639.690E-3	22.4727E-3
-4.59480E-3	-184.156E-12	639.361E-3	-35.1013E-3	-186.185E-12	645.567E-3	21.9058E-3
-4.59980E-3	-184.775E-12	645.791E-3	-7.19032E-3	-187.011E-12	666.707E-3	-10.4564E-3
-4.60480E-3	-186.037E-12	670.448E-3	-9.63845E-3	-187.306E-12	682.669E-3	-44.6820E-3
-4.60980E-3	-186.121E-12	667.965E-3	-14.5481E-3	-187.252E-12	681.467E-3	-50.3544E-3
-4.61481E-3	-186.903E-12	651.079E-3	-3.44629E-3	-187.274E-12	653.606E-3	-29.4952E-3
-4.61981E-3	-186.613E-12	661.348E-3	-1.08044E-3	-185.631E-12	620.883E-3	-20.9091E-3
-4.62481E-3	-187.649E-12	654.741E-3	-24.3623E-3	-184.860E-12	619.421E-3	-32.3959E-3
-4.62981E-3	-187.324E-12	628.502E-3	-48.2831E-3	-183.835E-12	646.442E-3	-42.9109E-3
-4.63482E-3	-187.476E-12	630.977E-3	-35.4255E-3	-183.568E-12	667.949E-3	-36.6820E-3
-4.63982E-3	-188.014E-12	620.968E-3	-1.43254E-3	-182.632E-12	680.893E-3	-13.4304E-3
-4.64482E-3	-187.602E-12	593.788E-3	6.98090E-3	-182.840E-12	685.635E-3	-6.64950E-3
-4.64982E-3	-187.373E-12	597.091E-3	-1.53974E-3	-182.767E-12	678.582E-3	-24.6687E-3
-4.65483E-3	-187.343E-12	623.444E-3	-1.25356E-3	-183.553E-12	667.123E-3	-34.0266E-3
-4.65983E-3	-188.150E-12	645.915E-3	-8.66044E-3	-184.947E-12	669.568E-3	-33.0221E-3
-4.66483E-3	-188.898E-12	664.017E-3	-11.9707E-3	-186.993E-12	678.142E-3	-35.2507E-3
-4.66983E-3	-188.750E-12	675.895E-3	-11.3628E-3	-188.137E-12	671.962E-3	-29.4877E-3
-4.67484E-3	-189.238E-12	668.877E-3	-22.3729E-3	-190.211E-12	681.264E-3	-21.2240E-3
-4.67984E-3	-189.405E-12	662.596E-3	-24.1246E-3	-191.796E-12	708.362E-3	-41.6637E-3
-4.68484E-3	-190.714E-12	678.394E-3	-9.76219E-3	-193.289E-12	699.201E-3	-61.6048E-3
-4.68984E-3	-191.135E-12	688.963E-3	8.92586E-3	-194.279E-12	659.700E-3	-40.9743E-3
-4.69485E-3	-191.712E-12	693.158E-3	9.56782E-3	-194.602E-12	646.659E-3	-18.3388E-3
-4.69985E-3	-191.917E-12	709.988E-3	-9.50864E-3	-194.989E-12	651.144E-3	-1.33983E-3
-4.70485E-3	-192.069E-12	717.935E-3	-32.8762E-3	-194.384E-12	642.883E-3	2.33194E-3
-4.70985E-3	-192.506E-12	700.794E-3	-30.1966E-3	-194.171E-12	656.208E-3	-29.8630E-3
-4.71486E-3	-191.956E-12	683.969E-3	-3.06625E-3	-192.898E-12	691.213E-3	-42.7059E-3
-4.71986E-3	-191.574E-12	679.315E-3	8.79554E-3	-192.201E-12	706.057E-3	-25.1412E-3
-4.72486E-3	-191.395E-12	674.469E-3	12.3717E-3	-191.194E-12	698.105E-3	-32.3160E-3
-4.72986E-3	-191.304E-12	675.737E-3	5.59175E-3	-190.613E-12	674.557E-3	-31.1122E-3
-4.73487E-3	-189.825E-12	672.144E-3	-21.0794E-3	-190.033E-12	649.608E-3	21.8710E-3
-4.73987E-3	-189.362E-12	653.589E-3	-37.7105E-3	-189.476E-12	650.774E-3	55.4343E-3
-4.74487E-3	-189.008E-12	646.214E-3	-23.4203E-3	-189.382E-12	676.752E-3	44.2734E-3
-4.74988E-3	-189.911E-12	655.882E-3	-11.5153E-3	-190.161E-12	694.644E-3	26.4379E-3
-4.75488E-3	-189.904E-12	657.708E-3	-28.5999E-3	-190.732E-12	684.882E-3	1.89226E-3
-4.75988E-3	-189.797E-12	645.635E-3	-54.8918E-3	-191.574E-12	666.696E-3	-27.3420E-3
-4.76488E-3	-190.937E-12	651.958E-3	-69.8296E-3	-193.014E-12	657.886E-3	-41.4717E-3
-4.76988E-3	-191.644E-12	681.903E-3	-48.1247E-3	-193.438E-12	643.559E-3	-35.2529E-3
-4.77489E-3	-193.097E-12	686.135E-3	-7.17312E-3	-193.662E-12	640.508E-3	-44.5032E-3
-4.77989E-3	-193.322E-12	675.906E-3	3.17937E-3	-194.470E-12	662.026E-3	-41.7066E-3
-4.78489E-3	-194.052E-12	696.434E-3	-7.89783E-3	-194.729E-12	691.342E-3	-16.7447E-3
-4.78989E-3	-194.064E-12	718.608E-3	-9.24919E-3	-193.806E-12	694.388E-3	-10.1683E-3
-4.79490E-3	-195.667E-12	693.221E-3	-1.51803E-3	-194.029E-12	658.669E-3	-825.892E-6
-4.79990E-3	-195.231E-12	660.505E-3	-1.94584E-3	-193.848E-12	633.888E-3	9.83093E-3
-4.80490E-3	-195.349E-12	670.957E-3	-7.59937E-3	-193.634E-12	632.735E-3	3.50876E-3
-4.80990E-3	-194.679E-12	675.552E-3	9.46068E-3	-192.565E-12	643.620E-3	-3.28388E-3
-4.81491E-3	-195.214E-12	645.561E-3	10.5066E-3	-192.280E-12	666.624E-3	-4.91284E-3
-4.81991E-3	-194.784E-12	638.261E-3	-29.0596E-3	-192.299E-12	672.720E-3	-18.0906E-3
-4.82491E-3	-194.852E-12	668.210E-3	-36.4638E-3	-192.271E-12	655.845E-3	-42.2750E-3
-4.82991E-3	-194.376E-12	689.044E-3	-15.1482E-3	-192.859E-12	644.378E-3	-49.8191E-3
-4.83492E-3	-194.133E-12	694.289E-3	-12.5823E-3	-193.313E-12	639.542E-3	-36.6940E-3
-4.83992E-3	-194.788E-12	688.089E-3	-25.6575E-3	-193.373E-12	636.601E-3	-34.5356E-3
-4.84492E-3	-194.835E-12	662.294E-3	-42.5469E-3	-194.355E-12	645.623E-3	-30.9410E-3
-4.84992E-3	-194.815E-12	661.795E-3	-49.4436E-3	-195.213E-12	664.985E-3	-14.9784E-3
-4.85493E-3	-196.006E-12	678.594E-3	-58.5523E-3	-197.026E-12	687.931E-3	-17.3128E-3
-4.85993E-3	-197.086E-12	675.262E-3	-61.9727E-3	-197.765E-12	690.412E-3	-15.6033E-3
-4.86493E-3	-198.459E-12	685.005E-3	-48.5243E-3	-198.679E-12	670.925E-3	4.35328E-3
-4.86993E-3	-198.936E-12	674.812E-3	-13.0750E-3	-198.342E-12	678.183E-3	-437.492E-6
-4.87494E-3	-200.749E-12	630.765E-3	25.6334E-3	-199.070E-12	675.750E-3	-9.92672E-3
-4.87994E-3	-200.981E-12	624.655E-3	13.5970E-3	-198.173E-12	631.361E-3	-14.0934E-3
-4.88494E-3	-200.733E-12	655.714E-3	-24.1076E-3	-197.760E-12	618.933E-3	-28.5280E-3
-4.88995E-3	-200.653E-12	683.855E-3	-32.7458E-3	-197.741E-12	653.466E-3	-37.9256E-3
-4.89495E-3	-200.141E-12	680.583E-3	-16.6707E-3	-197.736E-12	661.143E-3	-43.4988E-3
-4.89995E-3	-199.341E-12	647.956E-3	8.54762E-3	-197.392E-12	632.286E-3	-30.5939E-3
-4.90495E-3	-198.592E-12	635.619E-3	20.6135E-3	-196.648E-12	611.328E-3	-15.0242E-3
-4.90995E-3	-197.791E-12	645.601E-3	10.2441E-3	-197.104E-12	622.116E-3	-14.0210E-3
-4.91496E-3	-197.493E-12	649.249E-3	4.79172E-3	-197.698E-12	661.282E-3	-11.4601E-3
-4.91996E-3	-195.770E-12	650.283E-3	6.22325E-3	-197.897E-12	689.489E-3	-7.06079E-3
-4.92496E-3	-196.336E-12	644.449E-3	-590.271E-6	-198.001E-12	692.119E-3	-17.5403E-3
-4.92996E-3	-196.814E-12	641.591E-3	4.51598E-3	-199.383E-12	684.874E-3	-24.4836E-3
-4.93497E-3	-196.435E-12	644.111E-3	5.56910E-3	-200.491E-12	669.092E-3	-5.68569E-3
-4.93997E-3	-196.623E-12	628.160E-3	-13.5356E-3	-201.301E-12	665.796E-3	-396.999E-6
-4.94497E-3	-198.194E-12	608.814E-3	-9.24393E-3	-202.050E-12	684.099E-3	-10.3244E-3
-4.94997E-3	-199.483E-12	617.170E-3	-13.7226E-3	-203.105E-12	672.355E-3	-18.1443E-3
-4.95498E-3	-200.252E-12	654.209E-3	-45.9320E-3	-203.322E-12	644.647E-3	-19.3070E-3
-4.95998E-3	-201.738E-12	683.574E-3	-42.9511E-3	-203.562E-12	660.569E-3	-833.924E-6
-4.96498E-3	-201.510E-12	675.744E-3	-9.04996E-3	-203.037E-12	668.631E-3	10.0566E-3
-4.96998E-3	-202.650E-12	658.279E-3	-1.61902E-3	-203.009E-12	650.142E-3	-14.5989E-3
-4.97499E-3	-203.696E-12	658.540E-3	-13.0129E-3	-202.873E-12	663.471E-3	-41.0538E-3
-4.97999E-3	-204.059E-12	662.353E-3	-13.2787E-3	-202.366E-12	688.471E-3	-34.4499E-3
-4.98499E-3	-202.901E-12	652.927E-3	-10.0823E-3	-201.686E-12	691.026E-3	-7.86586E-3
-4.98999E-3	-202.335E-12	651.868E-3	-15.4939E-3	-201.573E-12	671.793E-3	4.85120E-3
-4.99500E-3	-203.061E-12	686.577E-3	-13.8465E-3	-202.005E-12	656.350E-3	-6.42724E-3
-5.00000E-3	-202.487E-12	712.979E-3	-7.17587E-3	-202.138E-12	685.904E-3	-11.4806E-3
