Experiment	bias spectroscopy	
Date	19.01.2016 19:59:14	
User		
X (m)	49.854E-9	
Y (m)	256.571E-9	
Z (m)	-132.559E-9	
Z offset (m)	0E+0	
Settling time (s)	200E-6	
Integration time (s)	5E-3	
Z-Ctrl hold	TRUE	
Final Z (m)	N/A	
Filter type	None	
Order		
Cutoff frq		
Comment01	MnPc/Pb(111)	
Comment02	dz =00pm	
Comment03	7 Sweeps	
Comment04	MagField =0.T	
Comment05	Divider 1:10	
Comment06	Setpoint:5mV,200 pA	
Comment07	Lockin: 50uVrms,5ms,5mV	
Comment08	Gain:9; 912Hz modulation	
Comment09	T=1.06K	
Bias>Bias (V)	5E-3	
Bias>Calibration (V/V)	81.475E-3	
Bias>Offset (V)	1.046E-3	
Bias Spectroscopy>Sweep Start (V)	5E-3	
Bias Spectroscopy>Sweep End (V)	-5E-3	
Bias Spectroscopy>Num Pixel	2000	
Bias Spectroscopy>Z Avg time (s)	500E-3	
Bias Spectroscopy>Z offset (m)	0E+0	
Bias Spectroscopy>1st Settling time (s)	500E-3	
Bias Spectroscopy>Settling time (s)	200E-6	
Bias Spectroscopy>Integration time (s)	5E-3	
Bias Spectroscopy>End Settling time (s)	500E-3	
Bias Spectroscopy>Z control time (s)	500E-3	
Bias Spectroscopy>Max Slew rate (V/s)	Inf	
Bias Spectroscopy>backward sweep	TRUE	
Bias Spectroscopy>Z-controller hold	TRUE	
Bias Spectroscopy>Number of sweeps	7	
Bias Spectroscopy>Channels	Current (A);X% LockIn (V);Y% LockIn (V)	
Bias Spectroscopy>Reset Bias	TRUE	
Bias Spectroscopy>Record final Z	FALSE	
Bias Spectroscopy>Lock-In run	FALSE	
Bias Spectroscopy>Sweep mode	Linear	
Bias Spectroscopy>MultiLine Settings : Segment Start (V), Segment End (V), Settling (s), Integration (s), Steps (xn)	100E-3,3.3E-3,100E-6,10E-3,2500;3.3E-3,-3.3E-3,100E-6,10E-3,10;-3.3E-3,-100E-3,100E-6,10E-3,2500	
Current>Current (A)	199.928E-12	
Current>Calibration (A/V)	999.99900E-12	
Current>Offset (A)	-455.429E-15	
Current>Gain	LN 10^9	
Z-Controller>Z (m)	-132.556E-9	
Z-Controller>Controller name	log Current	
Z-Controller>Controller status	ON	
Z-Controller>Setpoint	200E-12	
Z-Controller>Setpoint unit	A	
Z-Controller>P gain	2.96994E-12	
Z-Controller>I gain	67.0321E-9	
Z-Controller>Time const (s)	44.3062E-6	
Z-Controller>TipLift (m)	0E+0	
Z-Controller>Switch off delay (s)	50E-3	
Current (A)	201.078E-12	
Z (m)	-132.556E-9	

[DATA]
Bias calc (V)	Current (A)	X% LockIn (V)	Y% LockIn (V)	Current [bwd] (A)	X% LockIn [bwd] (V)	Y% LockIn [bwd] (V)
5.00000E-3	200.228E-12	576.667E-3	-36.3673E-3	204.316E-12	635.874E-3	15.9165E-3
4.99500E-3	200.851E-12	583.481E-3	-37.0830E-3	205.619E-12	615.900E-3	18.7242E-3
4.98999E-3	202.054E-12	590.065E-3	-38.1331E-3	205.823E-12	583.797E-3	19.4452E-3
4.98499E-3	202.035E-12	584.085E-3	-16.8670E-3	205.804E-12	580.969E-3	-639.335E-6
4.97999E-3	201.657E-12	565.050E-3	9.20942E-3	206.870E-12	600.015E-3	-11.7463E-3
4.97499E-3	201.987E-12	559.744E-3	6.47896E-3	205.951E-12	595.541E-3	-12.0105E-3
4.96998E-3	201.005E-12	588.289E-3	-15.7349E-3	205.184E-12	575.793E-3	-9.75341E-3
4.96498E-3	201.350E-12	634.557E-3	-15.3298E-3	202.376E-12	583.891E-3	-5.04670E-3
4.95998E-3	200.639E-12	631.714E-3	1.49693E-3	202.446E-12	592.982E-3	-17.2331E-3
4.95498E-3	199.240E-12	594.110E-3	-13.2871E-3	200.165E-12	578.193E-3	-29.0220E-3
4.94997E-3	198.211E-12	575.178E-3	-29.4744E-3	198.149E-12	566.193E-3	-17.4788E-3
4.94497E-3	199.095E-12	571.491E-3	-1.01036E-3	196.329E-12	572.739E-3	-13.2083E-3
4.93997E-3	199.225E-12	581.918E-3	10.0320E-3	196.654E-12	590.073E-3	-34.2015E-3
4.93497E-3	197.903E-12	593.507E-3	-19.3397E-3	195.514E-12	591.960E-3	-34.4691E-3
4.92996E-3	197.210E-12	575.524E-3	-38.9448E-3	193.618E-12	579.741E-3	-12.7887E-3
4.92496E-3	197.348E-12	556.476E-3	-30.6800E-3	194.014E-12	576.729E-3	-24.7268E-3
4.91996E-3	197.162E-12	578.334E-3	-7.20486E-3	194.975E-12	590.106E-3	-26.9156E-3
4.91496E-3	197.281E-12	603.399E-3	5.64218E-3	195.776E-12	594.558E-3	973.886E-6
4.90995E-3	196.578E-12	597.956E-3	-12.5449E-3	195.157E-12	582.045E-3	1.38460E-3
4.90495E-3	197.148E-12	588.146E-3	-32.6160E-3	196.618E-12	577.173E-3	-6.50316E-3
4.89995E-3	196.805E-12	594.273E-3	-30.7480E-3	197.084E-12	598.034E-3	566.040E-6
4.89495E-3	198.140E-12	602.433E-3	-34.4436E-3	198.743E-12	608.128E-3	19.7529E-3
4.88995E-3	197.657E-12	616.795E-3	-27.1769E-3	199.256E-12	594.371E-3	27.7701E-3
4.88494E-3	196.756E-12	623.549E-3	-15.1098E-3	199.528E-12	594.089E-3	18.7781E-3
4.87994E-3	196.295E-12	602.187E-3	-19.8493E-3	199.902E-12	606.867E-3	14.2524E-3
4.87494E-3	196.578E-12	589.608E-3	-15.0077E-3	200.379E-12	603.697E-3	16.1380E-3
4.86993E-3	195.568E-12	594.768E-3	8.34650E-3	200.963E-12	573.767E-3	7.66657E-3
4.86493E-3	194.718E-12	597.383E-3	3.75095E-3	198.847E-12	552.646E-3	-20.1578E-3
4.85993E-3	194.225E-12	594.804E-3	-30.9737E-3	197.157E-12	560.863E-3	-26.4331E-3
4.85493E-3	194.166E-12	583.976E-3	-25.1297E-3	195.047E-12	580.128E-3	-12.3244E-3
4.84992E-3	193.648E-12	561.202E-3	-4.97444E-3	194.064E-12	586.114E-3	-18.3178E-6
4.84492E-3	193.416E-12	562.603E-3	-5.39423E-3	192.912E-12	583.960E-3	5.67969E-3
4.83992E-3	193.391E-12	583.592E-3	3.55511E-3	191.264E-12	594.810E-3	4.09405E-3
4.83492E-3	193.211E-12	588.397E-3	-3.45036E-3	190.054E-12	586.020E-3	-2.58898E-3
4.82991E-3	193.259E-12	610.741E-3	-41.7787E-3	190.414E-12	555.828E-3	-18.9922E-3
4.82491E-3	193.205E-12	641.470E-3	-45.5778E-3	190.262E-12	543.592E-3	-25.8035E-3
4.81991E-3	192.465E-12	635.970E-3	-13.5965E-3	189.587E-12	544.043E-3	-12.4432E-3
4.81491E-3	192.680E-12	618.887E-3	-3.29433E-3	190.579E-12	558.927E-3	-10.6481E-3
4.80990E-3	192.118E-12	597.535E-3	200.919E-6	191.514E-12	583.309E-3	-14.1356E-3
4.80490E-3	192.333E-12	562.044E-3	19.8080E-3	191.692E-12	598.325E-3	-5.98686E-3
4.79990E-3	191.901E-12	555.117E-3	23.1097E-3	192.354E-12	594.931E-3	-13.4176E-3
4.79490E-3	192.362E-12	591.690E-3	7.16722E-3	193.222E-12	576.312E-3	-17.3202E-3
4.78989E-3	192.106E-12	617.055E-3	5.06578E-3	196.074E-12	576.256E-3	-3.92442E-3
4.78489E-3	192.108E-12	593.577E-3	5.45362E-3	195.489E-12	614.521E-3	-11.4870E-3
4.77989E-3	191.713E-12	559.909E-3	-18.7200E-3	196.783E-12	630.063E-3	-33.7305E-3
4.77489E-3	191.101E-12	564.659E-3	-22.9668E-3	196.862E-12	612.545E-3	-34.5628E-3
4.76988E-3	192.097E-12	595.611E-3	-1.74948E-3	197.131E-12	599.276E-3	-24.7057E-3
4.76488E-3	192.135E-12	609.005E-3	-1.95816E-3	195.773E-12	588.336E-3	-19.9421E-3
4.75988E-3	192.609E-12	609.210E-3	20.1242E-6	194.055E-12	585.483E-3	-25.9386E-3
4.75488E-3	191.918E-12	597.249E-3	-3.58070E-3	193.037E-12	573.622E-3	-25.4758E-3
4.74988E-3	192.398E-12	577.746E-3	-12.8981E-3	191.587E-12	552.086E-3	8.74969E-3
4.74487E-3	192.270E-12	561.546E-3	-6.85727E-3	190.768E-12	552.027E-3	24.3598E-3
4.73987E-3	192.648E-12	538.744E-3	-21.1268E-3	189.537E-12	553.486E-3	-7.06324E-3
4.73487E-3	191.854E-12	555.800E-3	-60.4276E-3	187.750E-12	554.488E-3	-35.0470E-3
4.72986E-3	191.206E-12	591.231E-3	-70.8054E-3	186.606E-12	576.773E-3	-43.0273E-3
4.72486E-3	192.617E-12	585.248E-3	-63.5384E-3	186.861E-12	590.522E-3	-40.1642E-3
4.71986E-3	191.649E-12	566.890E-3	-77.1057E-3	186.824E-12	578.503E-3	-41.7445E-3
4.71486E-3	192.142E-12	572.473E-3	-66.0885E-3	185.905E-12	582.576E-3	-37.2591E-3
4.70985E-3	191.433E-12	575.085E-3	-42.5251E-3	186.093E-12	608.764E-3	-11.1283E-3
4.70485E-3	190.459E-12	566.320E-3	-46.0085E-3	186.180E-12	623.615E-3	-6.94674E-3
4.69985E-3	189.168E-12	578.236E-3	-27.3963E-3	188.114E-12	609.125E-3	-19.1942E-3
4.69485E-3	189.321E-12	585.737E-3	347.587E-6	188.190E-12	573.713E-3	-14.2039E-3
4.68984E-3	188.879E-12	574.470E-3	-25.2537E-3	189.347E-12	552.511E-3	-13.8772E-3
4.68484E-3	188.176E-12	567.843E-3	-44.4744E-3	190.274E-12	557.467E-3	-29.8824E-3
4.67984E-3	187.853E-12	565.710E-3	-10.2381E-3	191.748E-12	570.886E-3	-32.9839E-3
4.67484E-3	187.659E-12	580.252E-3	11.9200E-3	192.551E-12	572.143E-3	-21.7751E-3
4.66983E-3	188.452E-12	611.343E-3	1.04068E-3	192.710E-12	556.052E-3	-15.5498E-3
4.66483E-3	188.851E-12	608.689E-3	-9.72142E-3	191.361E-12	566.518E-3	-1.00735E-3
4.65983E-3	188.212E-12	586.709E-3	-36.8853E-3	191.724E-12	580.234E-3	2.93740E-3
4.65483E-3	188.234E-12	579.278E-3	-52.4429E-3	190.619E-12	558.939E-3	1.96953E-3
4.64982E-3	188.803E-12	586.276E-3	-1.13866E-3	189.174E-12	558.153E-3	17.6148E-3
4.64482E-3	188.876E-12	602.583E-3	22.8102E-3	187.592E-12	584.436E-3	10.4232E-3
4.63982E-3	187.980E-12	610.956E-3	-17.0777E-3	186.259E-12	598.380E-3	-23.4129E-3
4.63482E-3	188.005E-12	596.694E-3	-21.5954E-3	185.151E-12	613.876E-3	-34.0131E-3
4.62981E-3	187.754E-12	565.547E-3	3.07259E-3	183.788E-12	625.014E-3	-21.8465E-3
4.62481E-3	187.361E-12	562.642E-3	17.8000E-3	182.345E-12	597.490E-3	-16.8424E-3
4.61981E-3	186.422E-12	579.263E-3	35.2092E-3	181.805E-12	567.946E-3	-16.5871E-3
4.61481E-3	184.860E-12	579.541E-3	20.2082E-3	182.127E-12	578.763E-3	-17.7179E-3
4.60980E-3	183.315E-12	579.760E-3	-14.2137E-3	180.852E-12	593.781E-3	-22.1870E-3
4.60480E-3	183.207E-12	578.531E-3	-10.7483E-3	181.358E-12	585.594E-3	-9.45763E-3
4.59980E-3	182.502E-12	551.332E-3	4.21544E-3	181.219E-12	583.110E-3	-4.68235E-3
4.59480E-3	182.014E-12	537.095E-3	6.62426E-3	181.896E-12	585.586E-3	-30.0912E-3
4.58979E-3	181.237E-12	567.281E-3	-55.9521E-6	182.423E-12	566.065E-3	-30.4371E-3
4.58479E-3	181.966E-12	593.042E-3	-12.9515E-3	183.240E-12	566.648E-3	186.097E-6
4.57979E-3	181.492E-12	580.866E-3	-22.6748E-3	184.375E-12	602.110E-3	11.0115E-3
4.57479E-3	181.649E-12	562.468E-3	-23.0421E-3	184.813E-12	614.791E-3	7.12044E-3
4.56978E-3	181.459E-12	569.614E-3	-19.8516E-3	186.065E-12	605.784E-3	1.90206E-3
4.56478E-3	182.260E-12	580.808E-3	-15.8297E-3	186.430E-12	605.778E-3	-15.8076E-3
4.55978E-3	182.057E-12	569.416E-3	-21.3526E-3	186.503E-12	612.799E-3	-25.2497E-3
4.55478E-3	182.353E-12	559.222E-3	-26.3717E-3	186.231E-12	603.485E-3	-11.0879E-3
4.54977E-3	181.792E-12	559.408E-3	-21.8102E-3	185.495E-12	591.683E-3	-14.4596E-3
4.54477E-3	182.066E-12	556.454E-3	-32.2733E-3	185.275E-12	599.749E-3	-34.6342E-3
4.53977E-3	181.450E-12	583.357E-3	-38.3630E-3	183.954E-12	591.959E-3	-32.5272E-3
4.53477E-3	181.373E-12	621.264E-3	-23.3069E-3	181.915E-12	579.282E-3	-13.5163E-3
4.52976E-3	180.986E-12	624.863E-3	-7.54415E-3	179.944E-12	577.995E-3	5.31828E-3
4.52476E-3	180.555E-12	603.892E-3	-1.14922E-3	180.545E-12	582.347E-3	9.16720E-3
4.51976E-3	179.617E-12	593.916E-3	-2.25474E-3	178.913E-12	586.793E-3	7.38269E-3
4.51476E-3	179.082E-12	595.429E-3	-26.9893E-3	177.871E-12	577.856E-3	9.66670E-3
4.50975E-3	179.058E-12	562.929E-3	-45.9819E-3	177.548E-12	571.725E-3	-399.746E-6
4.50475E-3	179.118E-12	523.975E-3	-21.8553E-3	178.018E-12	567.482E-3	-33.6336E-3
4.49975E-3	179.287E-12	525.969E-3	-938.285E-6	178.108E-12	564.097E-3	-52.2252E-3
4.49475E-3	180.007E-12	562.113E-3	-7.73309E-3	179.067E-12	572.930E-3	-24.4963E-3
4.48974E-3	180.211E-12	597.463E-3	-24.9336E-3	179.671E-12	580.121E-3	-10.2561E-3
4.48474E-3	180.148E-12	619.572E-3	-34.7422E-3	180.147E-12	588.630E-3	-22.5155E-3
4.47974E-3	180.084E-12	608.110E-3	-30.3358E-3	181.307E-12	607.699E-3	-3.15714E-3
4.47474E-3	181.340E-12	580.180E-3	-8.20180E-3	181.572E-12	621.640E-3	19.5985E-3
4.46973E-3	180.464E-12	586.312E-3	13.3699E-3	182.497E-12	627.567E-3	18.0455E-3
4.46473E-3	180.111E-12	602.227E-3	20.0697E-3	182.804E-12	625.041E-3	12.5196E-3
4.45973E-3	180.344E-12	622.336E-3	32.6849E-3	183.328E-12	617.423E-3	2.22504E-3
4.45473E-3	180.046E-12	636.194E-3	19.1025E-3	183.146E-12	611.248E-3	-7.62877E-3
4.44972E-3	179.830E-12	605.261E-3	-16.9776E-3	183.120E-12	598.659E-3	-13.8115E-3
4.44472E-3	179.506E-12	563.010E-3	-23.5451E-3	182.009E-12	576.547E-3	-36.7274E-3
4.43972E-3	178.912E-12	568.100E-3	-17.6467E-3	180.567E-12	562.299E-3	-51.7599E-3
4.43472E-3	178.063E-12	602.836E-3	11.0224E-3	179.246E-12	577.205E-3	-27.4167E-3
4.42971E-3	177.699E-12	614.329E-3	35.3200E-3	178.468E-12	603.656E-3	-12.2466E-3
4.42471E-3	178.531E-12	607.919E-3	11.5522E-3	177.153E-12	618.286E-3	-8.47918E-3
4.41971E-3	177.719E-12	616.490E-3	-3.12466E-3	175.846E-12	620.318E-3	13.6931E-3
4.41471E-3	178.655E-12	609.074E-3	4.86665E-3	174.900E-12	612.772E-3	17.5474E-3
4.40970E-3	178.489E-12	586.617E-3	5.89638E-3	173.604E-12	599.533E-3	-3.11869E-3
4.40470E-3	179.232E-12	590.839E-3	9.74923E-3	172.913E-12	583.607E-3	-19.4443E-3
4.39970E-3	179.088E-12	588.291E-3	22.0407E-3	172.941E-12	577.784E-3	-14.7572E-3
4.39470E-3	179.447E-12	574.686E-3	21.1308E-3	173.138E-12	586.116E-3	4.90090E-3
4.38969E-3	179.600E-12	589.516E-3	9.95547E-3	172.061E-12	591.368E-3	-3.69352E-3
4.38469E-3	179.170E-12	604.689E-3	-8.23789E-3	172.907E-12	594.038E-3	-33.8377E-3
4.37969E-3	178.774E-12	592.497E-3	-26.1777E-3	174.354E-12	600.677E-3	-50.3235E-3
4.37469E-3	177.793E-12	586.414E-3	-18.6542E-3	174.732E-12	606.723E-3	-37.4361E-3
4.36968E-3	177.219E-12	580.030E-3	-5.58512E-3	175.422E-12	619.478E-3	-12.1138E-3
4.36468E-3	175.808E-12	568.768E-3	-2.66238E-3	176.533E-12	637.381E-3	-22.0620E-3
4.35968E-3	175.497E-12	583.714E-3	-14.5609E-3	177.865E-12	625.760E-3	-51.0863E-3
4.35468E-3	175.078E-12	600.592E-3	-21.8993E-3	178.433E-12	598.638E-3	-41.3399E-3
4.34967E-3	174.776E-12	602.997E-3	-10.5470E-3	178.901E-12	600.762E-3	-14.9342E-3
4.34467E-3	173.454E-12	609.896E-3	-9.05485E-3	178.452E-12	593.431E-3	-16.7091E-3
4.33967E-3	173.380E-12	611.062E-3	-16.8000E-3	177.943E-12	570.570E-3	-23.1368E-3
4.33467E-3	173.620E-12	593.660E-3	-18.3195E-3	177.748E-12	562.218E-3	-27.3774E-3
4.32966E-3	173.757E-12	566.636E-3	-19.3185E-3	176.278E-12	553.002E-3	-34.7356E-3
4.32466E-3	173.510E-12	552.251E-3	-9.67656E-3	174.291E-12	557.089E-3	-16.0691E-3
4.31966E-3	173.495E-12	564.089E-3	-5.80942E-3	172.107E-12	565.371E-3	-1.65335E-3
4.31466E-3	173.893E-12	588.921E-3	-18.3650E-3	171.211E-12	555.571E-3	-3.26275E-3
4.30965E-3	173.405E-12	593.752E-3	-16.6696E-3	169.542E-12	557.513E-3	12.3527E-3
4.30465E-3	173.523E-12	591.044E-3	-21.3203E-3	168.792E-12	565.775E-3	15.3205E-3
4.29965E-3	174.251E-12	621.089E-3	-35.9484E-3	167.782E-12	566.776E-3	-8.34967E-3
4.29465E-3	173.954E-12	638.228E-3	-31.2117E-3	167.773E-12	574.676E-3	-27.9827E-3
4.28964E-3	173.369E-12	612.700E-3	-18.9000E-3	168.270E-12	579.057E-3	-23.0894E-3
4.28464E-3	173.090E-12	591.522E-3	-26.4418E-3	167.916E-12	572.006E-3	-19.1362E-3
4.27964E-3	171.774E-12	593.641E-3	-40.6285E-3	168.467E-12	570.660E-3	-27.0600E-3
4.27464E-3	171.792E-12	590.593E-3	-36.2907E-3	169.801E-12	572.067E-3	-23.3703E-3
4.26963E-3	171.939E-12	575.204E-3	-22.2814E-3	170.755E-12	564.171E-3	-28.4809E-3
4.26463E-3	169.840E-12	581.090E-3	-16.1275E-3	171.543E-12	572.461E-3	-46.9952E-3
4.25963E-3	169.884E-12	599.572E-3	-16.5939E-3	172.332E-12	594.607E-3	-46.6979E-3
4.25463E-3	170.203E-12	605.847E-3	-28.2855E-3	174.408E-12	596.402E-3	-27.2406E-3
4.24962E-3	169.936E-12	602.476E-3	-21.7053E-3	175.464E-12	593.286E-3	-4.72606E-3
4.24462E-3	168.192E-12	587.843E-3	1.96736E-3	175.782E-12	591.615E-3	5.01826E-3
4.23962E-3	168.921E-12	580.090E-3	-11.8330E-3	175.960E-12	577.468E-3	-13.2655E-3
4.23462E-3	169.274E-12	590.456E-3	-35.2564E-3	175.859E-12	577.131E-3	-19.7669E-3
4.22961E-3	170.176E-12	591.711E-3	-39.0198E-3	175.649E-12	601.145E-3	1.36280E-3
4.22461E-3	169.868E-12	594.476E-3	-25.1522E-3	174.007E-12	605.315E-3	5.85170E-3
4.21961E-3	169.888E-12	600.902E-3	-7.75610E-3	172.125E-12	575.715E-3	529.114E-6
4.21461E-3	170.563E-12	598.440E-3	-3.88154E-3	171.648E-12	563.216E-3	7.65270E-3
4.20960E-3	170.805E-12	603.703E-3	6.11953E-3	170.189E-12	571.605E-3	-1.64052E-3
4.20460E-3	170.627E-12	591.646E-3	21.2662E-3	167.117E-12	559.810E-3	-13.2384E-3
4.19960E-3	169.718E-12	565.017E-3	26.9655E-3	166.767E-12	558.655E-3	-3.96582E-3
4.19460E-3	169.491E-12	572.487E-3	8.50929E-3	166.161E-12	577.475E-3	-8.25463E-3
4.18959E-3	169.032E-12	602.255E-3	-25.6155E-3	165.601E-12	579.273E-3	-11.1228E-3
4.18459E-3	169.057E-12	607.505E-3	-27.2869E-3	164.498E-12	579.017E-3	-8.48823E-3
4.17959E-3	168.446E-12	589.190E-3	-20.5984E-3	164.720E-12	597.819E-3	-9.20696E-3
4.17459E-3	167.783E-12	581.002E-3	-42.3276E-3	166.157E-12	612.729E-3	-8.14016E-3
4.16958E-3	167.505E-12	590.814E-3	-33.5813E-3	166.162E-12	604.338E-3	-22.4731E-3
4.16458E-3	167.514E-12	593.505E-3	-11.3468E-3	166.674E-12	601.802E-3	-28.7752E-3
4.15958E-3	167.466E-12	587.033E-3	-21.8877E-3	167.711E-12	600.940E-3	-37.3516E-3
4.15458E-3	166.930E-12	596.338E-3	-22.3312E-3	168.657E-12	591.807E-3	-53.2134E-3
4.14957E-3	167.511E-12	596.120E-3	-6.92944E-3	169.488E-12	597.007E-3	-33.0494E-3
4.14457E-3	167.085E-12	581.823E-3	-10.7612E-3	170.066E-12	599.717E-3	2.32326E-3
4.13957E-3	167.227E-12	580.969E-3	-6.04035E-3	169.806E-12	591.968E-3	2.20473E-3
4.13457E-3	167.463E-12	577.116E-3	5.39391E-3	169.614E-12	586.277E-3	-14.2533E-3
4.12956E-3	168.264E-12	575.578E-3	-17.5712E-3	169.758E-12	580.758E-3	-14.5272E-3
4.12456E-3	166.932E-12	583.942E-3	-37.6777E-3	169.807E-12	582.326E-3	-16.6516E-3
4.11956E-3	165.861E-12	567.890E-3	-30.1052E-3	167.835E-12	583.433E-3	-22.4224E-3
4.11456E-3	166.132E-12	553.412E-3	-16.6276E-3	166.307E-12	572.221E-3	-28.3683E-3
4.10955E-3	166.457E-12	576.597E-3	-3.94097E-3	165.517E-12	572.002E-3	-14.0423E-3
4.10455E-3	166.211E-12	594.098E-3	4.55200E-3	164.903E-12	588.389E-3	22.7123E-3
4.09955E-3	164.098E-12	580.208E-3	7.88459E-3	163.539E-12	594.697E-3	18.3355E-3
4.09455E-3	164.535E-12	584.159E-3	5.21385E-3	162.172E-12	572.831E-3	-20.5089E-3
4.08954E-3	164.788E-12	625.562E-3	-9.27544E-3	161.643E-12	566.653E-3	-27.5945E-3
4.08454E-3	164.679E-12	628.524E-3	-29.9274E-3	160.987E-12	588.105E-3	-8.09787E-3
4.07954E-3	164.034E-12	586.756E-3	-49.0443E-3	160.558E-12	583.724E-3	-3.00095E-3
4.07454E-3	164.525E-12	563.502E-3	-36.4354E-3	160.589E-12	579.683E-3	-1.84590E-3
4.06953E-3	164.535E-12	557.037E-3	14.5164E-3	160.224E-12	599.494E-3	-3.61672E-3
4.06453E-3	164.836E-12	551.005E-3	40.5323E-3	160.854E-12	601.915E-3	-23.5520E-3
4.05953E-3	164.800E-12	548.796E-3	11.7880E-3	161.312E-12	593.573E-3	-28.4100E-3
4.05453E-3	164.455E-12	560.546E-3	-18.7563E-3	161.561E-12	607.049E-3	-26.3373E-3
4.04952E-3	164.534E-12	575.972E-3	-16.5111E-3	162.343E-12	616.128E-3	-47.2598E-3
4.04452E-3	164.476E-12	592.344E-3	-23.9529E-3	162.939E-12	604.067E-3	-41.6254E-3
4.03952E-3	164.234E-12	607.932E-3	-25.6333E-3	164.027E-12	603.117E-3	-14.6373E-3
4.03452E-3	163.812E-12	611.175E-3	-5.62390E-3	164.419E-12	612.696E-3	-19.9241E-3
4.02951E-3	162.715E-12	599.913E-3	-3.36768E-3	165.490E-12	613.122E-3	-30.4299E-3
4.02451E-3	162.137E-12	590.422E-3	-572.876E-6	166.146E-12	615.870E-3	-20.5072E-3
4.01951E-3	161.288E-12	591.532E-3	-5.04053E-3	165.477E-12	622.245E-3	-8.32942E-3
4.01451E-3	159.998E-12	583.331E-3	-28.5145E-3	165.826E-12	615.633E-3	-19.3737E-3
4.00950E-3	159.097E-12	568.244E-3	-42.4077E-3	165.075E-12	602.123E-3	-44.4812E-3
4.00450E-3	159.543E-12	581.567E-3	-51.1478E-3	163.898E-12	584.508E-3	-61.1269E-3
3.99950E-3	157.972E-12	606.165E-3	-46.0644E-3	163.303E-12	563.834E-3	-68.1207E-3
3.99450E-3	158.121E-12	599.690E-3	-13.3327E-3	162.978E-12	565.670E-3	-46.2084E-3
3.98949E-3	157.894E-12	591.193E-3	13.1692E-3	161.281E-12	584.656E-3	-22.1149E-3
3.98449E-3	158.924E-12	609.784E-3	3.61508E-3	160.236E-12	582.443E-3	-35.8538E-3
3.97949E-3	159.488E-12	620.769E-3	-22.6474E-3	159.453E-12	579.483E-3	-46.7725E-3
3.97449E-3	159.902E-12	606.936E-3	-36.1304E-3	158.317E-12	608.235E-3	-26.3818E-3
3.96948E-3	159.977E-12	589.516E-3	-32.5668E-3	157.816E-12	622.351E-3	-12.3819E-3
3.96448E-3	160.048E-12	587.044E-3	-3.23376E-3	157.654E-12	605.679E-3	-26.9798E-3
3.95948E-3	160.345E-12	604.948E-3	20.9329E-3	157.873E-12	605.739E-3	-41.0913E-3
3.95448E-3	160.781E-12	606.467E-3	5.81417E-3	157.277E-12	610.697E-3	-43.8824E-3
3.94947E-3	160.615E-12	603.154E-3	-16.5051E-3	158.125E-12	600.699E-3	-31.7542E-3
3.94447E-3	160.107E-12	601.636E-3	-14.1080E-3	158.600E-12	592.779E-3	-12.3069E-3
3.93947E-3	159.772E-12	574.260E-3	6.11265E-3	159.487E-12	592.025E-3	693.533E-6
3.93447E-3	159.017E-12	549.433E-3	7.29752E-3	159.786E-12	587.993E-3	16.8613E-3
3.92946E-3	158.111E-12	551.204E-3	-12.1756E-3	161.320E-12	597.201E-3	22.0934E-3
3.92446E-3	157.167E-12	568.363E-3	-15.6743E-3	161.787E-12	624.486E-3	-1.63280E-3
3.91946E-3	157.032E-12	586.993E-3	878.689E-6	163.264E-12	623.363E-3	-26.7694E-3
3.91446E-3	156.358E-12	579.196E-3	1.72964E-3	163.420E-12	607.644E-3	-36.1760E-3
3.90945E-3	156.475E-12	562.430E-3	-25.8572E-3	163.683E-12	593.287E-3	-45.6891E-3
3.90445E-3	156.143E-12	575.505E-3	-38.9016E-3	162.672E-12	567.642E-3	-43.4692E-3
3.89945E-3	156.364E-12	580.691E-3	-24.7112E-3	162.782E-12	569.879E-3	-10.7631E-3
3.89445E-3	156.153E-12	569.808E-3	-14.0658E-3	161.278E-12	592.657E-3	4.43483E-3
3.88944E-3	156.804E-12	584.338E-3	-5.39222E-3	160.125E-12	585.060E-3	-8.92176E-3
3.88444E-3	157.299E-12	604.250E-3	-7.47811E-3	158.108E-12	567.028E-3	2.23673E-3
3.87944E-3	157.288E-12	598.678E-3	-31.8753E-3	156.269E-12	570.650E-3	19.6176E-3
3.87444E-3	157.980E-12	589.460E-3	-36.3509E-3	155.596E-12	586.226E-3	-4.28866E-3
3.86943E-3	157.990E-12	576.889E-3	-14.2433E-3	155.034E-12	604.683E-3	-41.3369E-3
3.86443E-3	157.798E-12	572.315E-3	-3.27495E-3	153.881E-12	626.586E-3	-40.4158E-3
3.85943E-3	157.623E-12	606.852E-3	-1.47865E-3	153.347E-12	621.412E-3	-14.9302E-3
3.85443E-3	157.333E-12	622.929E-3	5.79770E-3	152.789E-12	585.926E-3	649.806E-6
3.84942E-3	156.309E-12	593.651E-3	11.8692E-3	153.307E-12	579.867E-3	1.13851E-3
3.84442E-3	156.812E-12	591.155E-3	8.67317E-3	152.688E-12	592.959E-3	-14.5439E-3
3.83942E-3	155.498E-12	628.037E-3	-6.86006E-3	153.713E-12	598.473E-3	-32.3549E-3
3.83442E-3	154.850E-12	643.778E-3	-19.1447E-3	153.583E-12	607.242E-3	-15.6649E-3
3.82941E-3	155.294E-12	623.749E-3	-14.2071E-3	154.652E-12	608.654E-3	2.94371E-3
3.82441E-3	154.543E-12	616.645E-3	-8.86027E-3	155.135E-12	597.518E-3	-12.4353E-3
3.81941E-3	154.192E-12	632.070E-3	-10.0417E-3	156.788E-12	592.082E-3	-15.9118E-3
3.81441E-3	154.093E-12	631.743E-3	-7.52677E-3	156.900E-12	610.570E-3	-4.34857E-3
3.80940E-3	154.060E-12	613.653E-3	-12.0940E-3	157.437E-12	628.959E-3	-19.8706E-3
3.80440E-3	154.091E-12	597.101E-3	-13.5941E-3	157.313E-12	619.439E-3	-34.5924E-3
3.79940E-3	154.262E-12	586.415E-3	6.19793E-3	157.089E-12	578.029E-3	-22.0871E-3
3.79440E-3	155.082E-12	587.661E-3	16.6620E-6	156.698E-12	556.243E-3	-14.8690E-3
3.78939E-3	154.621E-12	603.335E-3	-23.4331E-3	155.060E-12	575.112E-3	-13.9350E-3
3.78439E-3	154.502E-12	626.960E-3	-7.88790E-3	154.162E-12	591.881E-3	-9.09986E-3
3.77939E-3	154.692E-12	633.643E-3	6.84542E-3	153.357E-12	604.977E-3	-12.2656E-3
3.77439E-3	154.230E-12	606.546E-3	4.74602E-3	152.058E-12	612.321E-3	-26.8857E-3
3.76938E-3	152.925E-12	578.125E-3	-161.290E-6	150.334E-12	597.838E-3	-37.1122E-3
3.76438E-3	152.969E-12	581.591E-3	-12.0283E-3	149.820E-12	577.344E-3	-21.1225E-3
3.75938E-3	151.928E-12	590.640E-3	-18.3178E-3	149.746E-12	574.499E-3	5.74686E-3
3.75438E-3	151.239E-12	590.752E-3	-22.2633E-3	148.252E-12	579.458E-3	5.77912E-3
3.74937E-3	149.911E-12	602.523E-3	-24.5189E-3	148.279E-12	578.383E-3	-7.59997E-3
3.74437E-3	149.526E-12	608.256E-3	-21.3469E-3	147.905E-12	591.936E-3	-11.5307E-3
3.73937E-3	149.318E-12	602.779E-3	-14.0379E-3	148.001E-12	620.605E-3	-14.8005E-3
3.73437E-3	148.941E-12	603.163E-3	-21.2923E-3	148.342E-12	620.645E-3	-14.3163E-3
3.72936E-3	148.548E-12	591.958E-3	-38.7130E-3	148.818E-12	606.250E-3	-13.4187E-3
3.72436E-3	147.953E-12	579.578E-3	-32.0899E-3	149.516E-12	599.048E-3	-29.7599E-3
3.71936E-3	149.094E-12	581.403E-3	-15.9424E-3	149.335E-12	586.141E-3	-36.1761E-3
3.71436E-3	148.398E-12	567.039E-3	-26.2596E-3	150.151E-12	607.312E-3	-8.43169E-3
3.70935E-3	148.766E-12	568.088E-3	-47.0704E-3	150.885E-12	645.057E-3	-57.4071E-6
3.70435E-3	148.926E-12	597.280E-3	-50.2626E-3	150.930E-12	630.234E-3	-27.7358E-3
3.69935E-3	149.474E-12	611.409E-3	-34.1772E-3	151.130E-12	592.416E-3	-48.0891E-3
3.69435E-3	149.051E-12	607.245E-3	-20.9055E-3	151.475E-12	590.232E-3	-46.3901E-3
3.68934E-3	148.587E-12	596.396E-3	-24.8431E-3	150.811E-12	602.363E-3	-21.2624E-3
3.68434E-3	148.319E-12	587.000E-3	-21.8006E-3	149.972E-12	607.392E-3	-3.65416E-3
3.67934E-3	147.797E-12	581.878E-3	-16.1482E-3	149.778E-12	622.950E-3	-27.0034E-3
3.67434E-3	147.978E-12	589.600E-3	-21.8350E-3	148.842E-12	605.995E-3	-49.8994E-3
3.66933E-3	146.827E-12	602.512E-3	-22.5149E-3	148.078E-12	571.864E-3	-32.0022E-3
3.66433E-3	146.259E-12	611.664E-3	-23.6116E-3	147.036E-12	591.945E-3	-13.5129E-3
3.65933E-3	146.080E-12	625.630E-3	-17.9559E-3	146.758E-12	618.629E-3	-20.7636E-3
3.65433E-3	146.115E-12	637.984E-3	-5.31400E-3	146.422E-12	615.130E-3	-14.5510E-3
3.64932E-3	145.699E-12	615.859E-3	-9.77359E-3	146.570E-12	625.011E-3	-7.76213E-3
3.64432E-3	144.801E-12	567.977E-3	-8.76631E-3	146.153E-12	642.256E-3	-21.1754E-3
3.63932E-3	145.586E-12	549.232E-3	4.25097E-3	145.572E-12	639.729E-3	-21.4354E-3
3.63432E-3	146.042E-12	574.779E-3	6.77101E-3	145.709E-12	629.612E-3	-17.6480E-3
3.62931E-3	145.880E-12	617.986E-3	8.71372E-3	145.503E-12	606.746E-3	-33.5563E-3
3.62431E-3	145.927E-12	630.266E-3	29.8967E-3	145.309E-12	588.154E-3	-49.9630E-3
3.61931E-3	146.726E-12	605.121E-3	33.9634E-3	145.749E-12	595.769E-3	-46.3456E-3
3.61431E-3	146.755E-12	598.985E-3	-7.16922E-3	145.289E-12	608.445E-3	-25.3482E-3
3.60930E-3	146.528E-12	624.726E-3	-37.4487E-3	146.377E-12	614.847E-3	-5.28818E-3
3.60430E-3	145.396E-12	632.086E-3	-27.6507E-3	147.150E-12	605.962E-3	2.41765E-3
3.59930E-3	145.501E-12	618.139E-3	-6.46680E-3	148.084E-12	599.465E-3	14.4857E-3
3.59430E-3	144.791E-12	617.316E-3	-9.46408E-3	146.588E-12	621.313E-3	19.2762E-3
3.58929E-3	144.334E-12	627.438E-3	-21.7942E-3	146.920E-12	636.346E-3	-3.05076E-3
3.58429E-3	143.783E-12	617.741E-3	-16.6287E-3	148.247E-12	610.795E-3	-30.3759E-3
3.57929E-3	143.639E-12	593.273E-3	-17.3441E-3	147.628E-12	594.062E-3	-41.8711E-3
3.57429E-3	143.593E-12	589.412E-3	-23.6239E-3	146.611E-12	618.059E-3	-35.3015E-3
3.56928E-3	143.677E-12	604.369E-3	-18.8317E-3	145.689E-12	627.049E-3	-23.1048E-3
3.56428E-3	143.817E-12	604.807E-3	-9.08453E-3	145.260E-12	607.027E-3	-16.6431E-3
3.55928E-3	143.864E-12	587.070E-3	-10.3381E-3	144.332E-12	598.880E-3	-13.7944E-3
3.55428E-3	144.081E-12	582.217E-3	-27.9632E-3	144.254E-12	606.101E-3	-24.5836E-3
3.54927E-3	144.228E-12	584.347E-3	-43.7728E-3	143.416E-12	604.915E-3	-46.7100E-3
3.54427E-3	144.608E-12	592.928E-3	-35.0846E-3	142.422E-12	594.746E-3	-46.2497E-3
3.53927E-3	144.060E-12	602.090E-3	-8.55817E-3	141.650E-12	588.623E-3	-26.2029E-3
3.53427E-3	143.875E-12	599.279E-3	815.944E-6	141.406E-12	573.709E-3	-13.6856E-3
3.52926E-3	144.234E-12	592.366E-3	-5.73102E-3	140.395E-12	563.261E-3	-8.55623E-3
3.52426E-3	143.540E-12	577.940E-3	-5.85062E-3	139.717E-12	587.200E-3	-16.3375E-3
3.51926E-3	143.166E-12	569.015E-3	7.73224E-3	140.105E-12	606.037E-3	-31.5207E-3
3.51426E-3	142.202E-12	601.947E-3	20.9249E-3	140.241E-12	605.704E-3	-28.0043E-3
3.50925E-3	142.231E-12	656.116E-3	2.28521E-3	140.323E-12	613.118E-3	-24.3714E-3
3.50425E-3	141.670E-12	658.667E-3	-36.4326E-3	140.879E-12	613.940E-3	-32.0275E-3
3.49925E-3	140.837E-12	614.405E-3	-52.9991E-3	141.144E-12	606.251E-3	-20.6483E-3
3.49425E-3	139.607E-12	568.740E-3	-30.7551E-3	141.079E-12	611.153E-3	-2.79878E-3
3.48924E-3	139.055E-12	551.912E-3	-17.1986E-3	141.546E-12	608.450E-3	-10.7226E-3
3.48424E-3	138.785E-12	561.632E-3	-17.4889E-3	141.662E-12	594.076E-3	-17.4614E-3
3.47924E-3	138.713E-12	564.061E-3	-1.86874E-3	141.655E-12	596.840E-3	-5.67456E-3
3.47424E-3	139.360E-12	557.667E-3	-14.2154E-3	141.529E-12	599.145E-3	-8.15976E-3
3.46923E-3	138.334E-12	577.252E-3	-49.4626E-3	141.614E-12	581.866E-3	-33.9949E-3
3.46423E-3	139.065E-12	622.447E-3	-43.3640E-3	141.325E-12	580.925E-3	-40.0392E-3
3.45923E-3	139.960E-12	633.510E-3	-12.5768E-3	140.872E-12	601.664E-3	-20.5042E-3
3.45423E-3	140.959E-12	606.215E-3	687.683E-6	141.375E-12	611.871E-3	-18.6529E-3
3.44922E-3	140.301E-12	587.423E-3	3.09426E-3	140.704E-12	610.466E-3	-25.6950E-3
3.44422E-3	140.079E-12	585.945E-3	-7.04187E-3	138.562E-12	591.836E-3	-30.7237E-3
3.43922E-3	141.033E-12	600.750E-3	-17.7344E-3	138.336E-12	573.693E-3	-23.0662E-3
3.43422E-3	140.741E-12	610.543E-3	-29.9485E-3	138.280E-12	568.599E-3	-5.16653E-3
3.42921E-3	140.046E-12	600.794E-3	-46.1302E-3	137.905E-12	574.174E-3	-4.30154E-3
3.42421E-3	139.387E-12	593.519E-3	-38.3137E-3	137.146E-12	572.140E-3	-19.1058E-3
3.41921E-3	138.817E-12	588.505E-3	-18.7302E-3	137.415E-12	560.536E-3	-37.2271E-3
3.41421E-3	137.779E-12	590.936E-3	-14.1168E-3	136.707E-12	592.062E-3	-33.5314E-3
3.40920E-3	137.585E-12	602.993E-3	-22.4283E-3	136.699E-12	627.449E-3	-19.2981E-3
3.40420E-3	136.339E-12	600.188E-3	-21.9096E-3	137.094E-12	616.082E-3	-14.4385E-3
3.39920E-3	135.742E-12	586.657E-3	-6.53325E-3	136.559E-12	599.219E-3	-3.76710E-3
3.39420E-3	134.780E-12	584.929E-3	-6.73153E-3	136.711E-12	601.617E-3	-2.74508E-3
3.38919E-3	135.885E-12	593.282E-3	-22.7265E-3	137.529E-12	600.362E-3	-21.2031E-3
3.38419E-3	135.612E-12	618.596E-3	-14.4311E-3	138.365E-12	592.394E-3	-24.5115E-3
3.37919E-3	135.451E-12	625.896E-3	-6.89513E-3	138.405E-12	600.660E-3	-12.9362E-3
3.37419E-3	135.194E-12	599.378E-3	-19.4009E-3	138.222E-12	617.572E-3	-17.4739E-3
3.36918E-3	136.062E-12	594.909E-3	-22.7424E-3	138.198E-12	621.171E-3	-32.2310E-3
3.36418E-3	136.805E-12	592.844E-3	-16.8778E-3	138.128E-12	609.308E-3	-33.7256E-3
3.35918E-3	137.403E-12	582.565E-3	-13.2752E-3	138.988E-12	595.283E-3	-29.0274E-3
3.35418E-3	137.674E-12	592.172E-3	-23.5568E-3	137.271E-12	597.219E-3	-28.3467E-3
3.34917E-3	137.347E-12	611.259E-3	-43.9708E-3	136.017E-12	610.670E-3	-21.2032E-3
3.34417E-3	138.191E-12	616.175E-3	-41.5472E-3	135.922E-12	616.847E-3	-12.0135E-3
3.33917E-3	136.963E-12	604.311E-3	-8.96744E-3	136.694E-12	603.254E-3	-11.0539E-3
3.33417E-3	136.244E-12	604.649E-3	12.2274E-3	135.452E-12	583.404E-3	-18.5816E-3
3.32916E-3	135.398E-12	620.284E-3	14.6358E-3	134.801E-12	577.057E-3	-11.7864E-3
3.32416E-3	135.289E-12	622.121E-3	-556.614E-6	134.098E-12	592.904E-3	1.94122E-3
3.31916E-3	134.719E-12	604.406E-3	-29.0191E-3	133.946E-12	608.010E-3	-3.02573E-3
3.31416E-3	134.057E-12	602.711E-3	-36.6885E-3	133.636E-12	605.712E-3	-6.14442E-3
3.30915E-3	133.428E-12	618.690E-3	-16.3594E-3	132.535E-12	609.102E-3	8.89023E-3
3.30415E-3	132.801E-12	622.612E-3	-4.49295E-3	132.602E-12	616.487E-3	9.21501E-3
3.29915E-3	132.613E-12	612.178E-3	-15.7154E-3	132.528E-12	621.017E-3	-5.66970E-3
3.29415E-3	132.221E-12	600.711E-3	-21.2270E-3	133.074E-12	629.622E-3	530.771E-6
3.28914E-3	132.286E-12	591.169E-3	-13.1499E-3	132.509E-12	640.936E-3	-3.99759E-3
3.28414E-3	132.290E-12	585.728E-3	-13.7413E-3	132.884E-12	632.468E-3	-32.3708E-3
3.27914E-3	132.046E-12	594.545E-3	-21.4190E-3	133.222E-12	605.718E-3	-38.9078E-3
3.27414E-3	132.264E-12	604.668E-3	-20.4999E-3	132.876E-12	584.811E-3	-28.8375E-3
3.26913E-3	132.772E-12	608.692E-3	-15.6594E-3	132.703E-12	576.022E-3	-26.8788E-3
3.26413E-3	132.727E-12	611.692E-3	-2.37565E-3	132.117E-12	591.966E-3	-14.8357E-3
3.25913E-3	132.155E-12	611.886E-3	8.23507E-3	131.557E-12	620.877E-3	5.55872E-3
3.25413E-3	132.334E-12	605.893E-3	3.76234E-3	131.655E-12	620.327E-3	8.40017E-3
3.24912E-3	132.537E-12	597.882E-3	-3.33287E-3	130.879E-12	601.904E-3	-42.4021E-6
3.24412E-3	132.353E-12	584.097E-3	-883.353E-6	130.185E-12	597.374E-3	-6.02149E-3
3.23912E-3	131.048E-12	571.866E-3	-3.71212E-3	130.061E-12	591.115E-3	-13.3889E-3
3.23412E-3	131.202E-12	583.235E-3	-17.4504E-3	129.990E-12	579.545E-3	-13.3991E-3
3.22911E-3	130.709E-12	604.827E-3	-22.7521E-3	129.641E-12	584.557E-3	-10.7968E-3
3.22411E-3	131.424E-12	614.922E-3	-19.7298E-3	129.301E-12	581.971E-3	-13.5224E-3
3.21911E-3	130.893E-12	613.069E-3	-17.7091E-3	129.636E-12	573.316E-3	-18.1919E-3
3.21411E-3	131.084E-12	605.420E-3	-22.6369E-3	129.596E-12	597.209E-3	-18.9921E-3
3.20910E-3	130.542E-12	592.549E-3	-23.6467E-3	129.625E-12	616.296E-3	-15.9143E-3
3.20410E-3	130.942E-12	583.624E-3	-29.4139E-3	129.945E-12	601.103E-3	-20.8907E-3
3.19910E-3	130.057E-12	575.654E-3	-51.1120E-3	129.403E-12	592.695E-3	-27.0968E-3
3.19410E-3	129.948E-12	572.409E-3	-42.6542E-3	129.011E-12	596.009E-3	-7.53303E-3
3.18909E-3	129.428E-12	584.743E-3	-6.15238E-3	129.110E-12	607.805E-3	17.3346E-3
3.18409E-3	128.798E-12	594.618E-3	2.03091E-3	129.458E-12	625.478E-3	14.2511E-3
3.17909E-3	128.400E-12	593.417E-3	-11.2307E-3	129.286E-12	625.707E-3	-379.526E-6
3.17409E-3	127.471E-12	591.994E-3	-16.5590E-3	128.496E-12	601.844E-3	-9.06624E-3
3.16908E-3	126.697E-12	605.569E-3	-14.5186E-3	128.030E-12	586.155E-3	-12.2934E-3
3.16408E-3	126.484E-12	614.942E-3	-15.4397E-3	128.070E-12	598.702E-3	-24.2490E-3
3.15908E-3	125.852E-12	607.265E-3	-24.8479E-3	128.041E-12	597.175E-3	-35.6572E-3
3.15408E-3	125.064E-12	608.535E-3	-27.4882E-3	127.684E-12	583.758E-3	-26.8603E-3
3.14907E-3	124.656E-12	620.132E-3	-13.5362E-3	127.067E-12	581.643E-3	-19.7761E-3
3.14407E-3	125.020E-12	616.241E-3	944.361E-6	126.895E-12	575.844E-3	-22.0056E-3
3.13907E-3	125.105E-12	600.807E-3	-3.86406E-3	126.257E-12	578.478E-3	-30.5408E-3
3.13407E-3	125.480E-12	594.687E-3	-11.1006E-3	125.966E-12	588.998E-3	-49.5631E-3
3.12906E-3	125.229E-12	598.211E-3	-17.8665E-3	125.980E-12	579.971E-3	-59.7934E-3
3.12406E-3	125.857E-12	590.750E-3	-40.1029E-3	125.424E-12	585.751E-3	-39.6577E-3
3.11906E-3	126.253E-12	588.090E-3	-37.8854E-3	124.971E-12	613.639E-3	-10.4899E-3
3.11406E-3	127.239E-12	599.644E-3	-12.5689E-3	125.143E-12	618.478E-3	-1.88931E-3
3.10905E-3	125.770E-12	605.457E-3	-19.6667E-3	125.529E-12	605.960E-3	-6.79436E-3
3.10405E-3	126.422E-12	610.660E-3	-44.8200E-3	125.198E-12	610.563E-3	-10.7157E-3
3.09905E-3	127.031E-12	600.004E-3	-47.0335E-3	124.605E-12	623.295E-3	-17.0982E-3
3.09405E-3	126.404E-12	584.022E-3	-35.5402E-3	124.475E-12	616.105E-3	-18.7111E-3
3.08904E-3	125.092E-12	595.795E-3	-29.1185E-3	124.337E-12	618.615E-3	-4.48762E-3
3.08404E-3	125.373E-12	607.218E-3	-30.5578E-3	123.618E-12	620.956E-3	3.85559E-3
3.07904E-3	124.632E-12	595.532E-3	-29.4062E-3	123.408E-12	604.873E-3	9.99660E-3
3.07404E-3	124.220E-12	591.274E-3	-24.4872E-3	123.590E-12	610.746E-3	19.4818E-3
3.06903E-3	123.199E-12	606.638E-3	-26.5639E-3	123.868E-12	626.562E-3	19.9272E-3
3.06403E-3	122.265E-12	618.997E-3	-28.5779E-3	123.959E-12	617.257E-3	30.0466E-3
3.05903E-3	122.097E-12	616.611E-3	-29.9939E-3	124.012E-12	611.843E-3	34.4163E-3
3.05403E-3	122.391E-12	610.419E-3	-34.6881E-3	123.613E-12	626.028E-3	3.04986E-3
3.04902E-3	122.696E-12	597.477E-3	-30.1986E-3	123.567E-12	624.725E-3	-19.6346E-3
3.04402E-3	122.634E-12	590.329E-3	-18.8142E-3	124.462E-12	610.112E-3	-12.1348E-3
3.03902E-3	122.585E-12	600.065E-3	-30.0490E-3	123.639E-12	613.686E-3	-19.3533E-3
3.03402E-3	123.790E-12	614.446E-3	-44.5269E-3	123.000E-12	613.452E-3	-20.3104E-3
3.02901E-3	124.452E-12	623.753E-3	-34.1876E-3	123.122E-12	590.946E-3	-7.83118E-3
3.02401E-3	124.331E-12	624.318E-3	-21.8319E-3	123.301E-12	594.709E-3	-20.7999E-3
3.01901E-3	124.308E-12	615.798E-3	-16.1051E-3	122.517E-12	621.200E-3	-27.5973E-3
3.01401E-3	124.191E-12	610.084E-3	-20.0676E-3	121.999E-12	623.107E-3	-6.95268E-3
3.00900E-3	124.776E-12	622.876E-3	-43.2043E-3	121.271E-12	614.257E-3	-644.453E-6
3.00400E-3	124.816E-12	644.475E-3	-47.9032E-3	121.738E-12	605.833E-3	-8.31061E-3
2.99900E-3	124.219E-12	641.984E-3	-17.7892E-3	121.072E-12	591.691E-3	1.40319E-3
2.99400E-3	123.728E-12	614.244E-3	-5.01862E-3	120.189E-12	583.446E-3	2.55306E-3
2.98899E-3	123.398E-12	605.018E-3	-14.0363E-3	119.511E-12	594.581E-3	-21.0881E-3
2.98399E-3	122.354E-12	614.709E-3	-15.8395E-3	119.981E-12	605.660E-3	-34.6201E-3
2.97899E-3	121.667E-12	612.473E-3	-13.0889E-3	119.768E-12	602.967E-3	-26.2992E-3
2.97399E-3	120.349E-12	609.805E-3	-19.2743E-3	120.023E-12	612.306E-3	-3.62162E-3
2.96898E-3	119.734E-12	626.962E-3	-22.7520E-3	119.763E-12	626.282E-3	11.7596E-3
2.96398E-3	118.823E-12	643.129E-3	-9.81412E-3	120.654E-12	627.501E-3	5.27588E-3
2.95898E-3	118.455E-12	633.217E-3	-3.18453E-3	120.120E-12	630.053E-3	-8.96047E-3
2.95398E-3	118.101E-12	620.201E-3	-6.73014E-3	120.857E-12	622.868E-3	-18.6712E-3
2.94897E-3	118.294E-12	630.119E-3	-15.1831E-3	119.720E-12	616.884E-3	-16.2278E-3
2.94397E-3	118.344E-12	639.847E-3	-30.1007E-3	120.127E-12	630.751E-3	-13.3611E-3
2.93897E-3	118.574E-12	625.178E-3	-35.4398E-3	119.617E-12	630.351E-3	-17.4608E-3
2.93397E-3	118.984E-12	606.684E-3	-25.8591E-3	119.052E-12	619.111E-3	-14.8156E-3
2.92896E-3	118.834E-12	602.876E-3	-22.6373E-3	118.629E-12	610.750E-3	-14.6734E-3
2.92396E-3	119.298E-12	605.576E-3	-26.5842E-3	117.950E-12	588.481E-3	-21.1565E-3
2.91896E-3	118.598E-12	606.064E-3	-31.7722E-3	117.661E-12	583.842E-3	-14.4402E-3
2.91396E-3	118.297E-12	617.441E-3	-45.0970E-3	117.161E-12	609.421E-3	-15.5344E-3
2.90895E-3	118.083E-12	637.076E-3	-46.2818E-3	116.752E-12	619.281E-3	-28.1361E-3
2.90395E-3	117.962E-12	639.341E-3	-29.2834E-3	116.287E-12	609.139E-3	-19.3068E-3
2.89895E-3	117.034E-12	628.872E-3	-22.7504E-3	115.469E-12	608.035E-3	-19.8144E-3
2.89395E-3	116.466E-12	622.567E-3	-23.9524E-3	115.353E-12	618.385E-3	-38.5286E-3
2.88894E-3	115.948E-12	626.976E-3	-6.62024E-3	115.558E-12	619.461E-3	-30.3300E-3
2.88394E-3	114.907E-12	624.207E-3	7.52587E-3	115.106E-12	617.751E-3	-5.92640E-3
2.87894E-3	114.048E-12	617.028E-3	-1.58592E-3	115.336E-12	625.467E-3	4.61971E-3
2.87394E-3	113.792E-12	615.230E-3	-15.8334E-3	115.613E-12	630.631E-3	3.56408E-3
2.86893E-3	113.467E-12	602.035E-3	-18.1324E-3	114.999E-12	632.094E-3	-11.8808E-3
2.86393E-3	113.205E-12	591.973E-3	-21.3567E-3	115.271E-12	621.521E-3	-28.3352E-3
2.85893E-3	113.208E-12	605.092E-3	-25.5683E-3	115.417E-12	607.904E-3	-18.2324E-3
2.85393E-3	113.083E-12	611.115E-3	-19.3474E-3	115.219E-12	611.757E-3	-18.1181E-3
2.84892E-3	113.468E-12	599.017E-3	-16.3487E-3	114.879E-12	606.792E-3	-33.0413E-3
2.84392E-3	114.083E-12	598.113E-3	-15.6806E-3	114.653E-12	588.459E-3	-19.5866E-3
2.83892E-3	114.179E-12	610.718E-3	-17.7780E-3	114.382E-12	594.016E-3	1.20206E-3
2.83392E-3	113.994E-12	627.794E-3	-30.1015E-3	114.313E-12	609.607E-3	-10.3111E-3
2.82891E-3	113.979E-12	623.698E-3	-37.8242E-3	113.973E-12	594.579E-3	-23.9529E-3
2.82391E-3	114.415E-12	598.484E-3	-21.0545E-3	113.883E-12	577.446E-3	-20.6717E-3
2.81891E-3	113.722E-12	594.907E-3	-14.6594E-3	113.665E-12	590.903E-3	-20.1828E-3
2.81391E-3	113.242E-12	618.632E-3	-31.2735E-3	113.543E-12	602.877E-3	-6.90315E-3
2.80890E-3	113.034E-12	628.457E-3	-32.9566E-3	113.377E-12	605.710E-3	2.09548E-3
2.80390E-3	113.444E-12	617.020E-3	-19.8051E-3	112.987E-12	607.227E-3	-15.6243E-3
2.79890E-3	113.218E-12	615.068E-3	-5.77742E-3	113.262E-12	599.491E-3	-27.6758E-3
2.79390E-3	112.223E-12	622.229E-3	1.37412E-3	112.927E-12	593.605E-3	-12.4495E-3
2.78889E-3	112.566E-12	623.270E-3	-13.4383E-3	112.742E-12	601.194E-3	5.50071E-3
2.78389E-3	112.572E-12	623.610E-3	-28.5610E-3	112.405E-12	616.785E-3	-3.67598E-3
2.77889E-3	112.333E-12	625.133E-3	-23.8997E-3	112.882E-12	622.140E-3	-17.3931E-3
2.77389E-3	112.624E-12	611.821E-3	-17.6127E-3	112.519E-12	611.106E-3	-14.1329E-3
2.76888E-3	112.169E-12	605.936E-3	-23.0639E-3	112.186E-12	603.352E-3	-1.86118E-3
2.76388E-3	111.811E-12	625.892E-3	-24.8982E-3	111.990E-12	610.089E-3	6.34355E-3
2.75888E-3	112.144E-12	637.007E-3	-21.5063E-3	112.328E-12	620.609E-3	1.56213E-3
2.75388E-3	112.008E-12	633.516E-3	-17.9517E-3	111.904E-12	623.417E-3	6.06205E-3
2.74887E-3	111.491E-12	630.126E-3	-5.96884E-3	111.420E-12	623.355E-3	20.1155E-3
2.74387E-3	111.410E-12	620.114E-3	2.41286E-3	110.912E-12	624.565E-3	19.5484E-3
2.73887E-3	110.697E-12	602.825E-3	-2.83087E-3	110.645E-12	621.666E-3	9.13603E-3
2.73387E-3	110.422E-12	595.805E-3	-15.4919E-3	110.558E-12	618.751E-3	2.99588E-3
2.72886E-3	110.404E-12	608.112E-3	-14.7016E-3	110.382E-12	614.421E-3	4.54313E-3
2.72386E-3	109.886E-12	612.723E-3	-929.077E-6	110.615E-12	609.974E-3	8.58878E-3
2.71886E-3	110.115E-12	606.930E-3	841.597E-6	109.923E-12	604.814E-3	1.95468E-3
2.71386E-3	110.104E-12	606.265E-3	-8.71917E-3	109.549E-12	597.275E-3	-21.7793E-3
2.70885E-3	109.190E-12	607.631E-3	-19.1416E-3	109.587E-12	594.163E-3	-37.9189E-3
2.70385E-3	109.024E-12	613.450E-3	-26.5504E-3	109.129E-12	596.169E-3	-30.7418E-3
2.69885E-3	109.756E-12	604.980E-3	-30.8674E-3	108.774E-12	596.562E-3	-27.6414E-3
2.69385E-3	109.539E-12	600.544E-3	-23.1715E-3	108.192E-12	595.002E-3	-45.1391E-3
2.68884E-3	109.375E-12	614.274E-3	-4.91224E-3	108.063E-12	602.072E-3	-53.2602E-3
2.68384E-3	109.618E-12	624.514E-3	1.77938E-3	106.817E-12	611.619E-3	-27.2263E-3
2.67884E-3	109.722E-12	631.939E-3	-5.74410E-3	107.170E-12	611.698E-3	-3.66030E-3
2.67384E-3	109.365E-12	631.725E-3	-17.4966E-3	106.717E-12	608.208E-3	6.22969E-3
2.66883E-3	109.441E-12	636.560E-3	-28.3422E-3	105.953E-12	611.297E-3	14.6200E-3
2.66383E-3	108.931E-12	634.178E-3	-28.0798E-3	105.430E-12	608.609E-3	128.270E-6
2.65883E-3	108.348E-12	619.614E-3	-18.9120E-3	105.485E-12	601.104E-3	-7.91648E-3
2.65383E-3	107.548E-12	623.506E-3	-5.72893E-3	105.480E-12	608.251E-3	-1.34347E-3
2.64882E-3	107.251E-12	627.024E-3	-10.3619E-3	105.473E-12	614.579E-3	-2.34000E-3
2.64382E-3	106.473E-12	616.958E-3	-27.9047E-3	105.597E-12	609.823E-3	2.04211E-3
2.63882E-3	106.037E-12	615.844E-3	-7.69045E-3	106.001E-12	612.037E-3	-13.7109E-3
2.63382E-3	104.963E-12	623.442E-3	13.7144E-3	106.644E-12	617.349E-3	-35.6400E-3
2.62881E-3	105.038E-12	626.749E-3	-5.04279E-3	106.309E-12	616.325E-3	-26.7821E-3
2.62381E-3	104.514E-12	627.750E-3	-20.8526E-3	106.156E-12	616.865E-3	-8.04616E-3
2.61881E-3	104.942E-12	624.340E-3	-18.9938E-3	106.730E-12	618.377E-3	-8.43345E-3
2.61381E-3	104.784E-12	625.352E-3	-21.4521E-3	106.069E-12	622.645E-3	-31.6146E-3
2.60880E-3	104.057E-12	628.859E-3	-24.6419E-3	105.831E-12	629.043E-3	-38.0151E-3
2.60380E-3	104.195E-12	623.206E-3	-27.6949E-3	105.951E-12	634.086E-3	-25.6991E-3
2.59880E-3	105.101E-12	624.073E-3	-37.5512E-3	105.976E-12	634.686E-3	-30.0017E-3
2.59380E-3	105.820E-12	635.319E-3	-27.5068E-3	105.546E-12	626.094E-3	-27.0996E-3
2.58879E-3	105.163E-12	631.452E-3	-7.39858E-3	104.759E-12	622.474E-3	-10.9799E-3
2.58379E-3	105.267E-12	620.725E-3	-7.39477E-3	104.332E-12	616.573E-3	-19.2330E-3
2.57879E-3	104.852E-12	613.107E-3	-19.4117E-3	104.401E-12	601.411E-3	-33.5411E-3
2.57379E-3	104.216E-12	608.850E-3	-24.5319E-3	103.356E-12	608.675E-3	-23.4723E-3
2.56878E-3	103.596E-12	623.353E-3	-19.6262E-3	103.050E-12	623.436E-3	499.468E-6
2.56378E-3	102.620E-12	633.375E-3	-21.6333E-3	102.794E-12	618.945E-3	6.87390E-3
2.55878E-3	102.114E-12	623.518E-3	-26.2173E-3	102.664E-12	614.477E-3	-18.2896E-3
2.55378E-3	101.733E-12	624.873E-3	-22.9139E-3	102.206E-12	620.154E-3	-50.8091E-3
2.54877E-3	101.222E-12	640.393E-3	-17.8222E-3	102.245E-12	618.138E-3	-51.6943E-3
2.54377E-3	100.604E-12	631.462E-3	-17.5382E-3	101.916E-12	616.348E-3	-21.7379E-3
2.53877E-3	100.317E-12	609.915E-3	-24.5731E-3	101.815E-12	634.273E-3	-2.56927E-3
2.53377E-3	100.347E-12	608.032E-3	-22.1722E-3	101.858E-12	646.500E-3	-944.562E-6
2.52876E-3	100.338E-12	612.046E-3	404.951E-6	102.173E-12	651.725E-3	-5.07680E-3
2.52376E-3	99.9184E-12	612.984E-3	19.3954E-3	101.916E-12	660.420E-3	-16.4143E-3
2.51876E-3	100.081E-12	616.637E-3	4.75192E-3	102.034E-12	651.915E-3	-23.8429E-3
2.51376E-3	100.932E-12	615.071E-3	-19.3048E-3	102.027E-12	637.018E-3	-11.1464E-3
2.50875E-3	101.402E-12	611.926E-3	-21.8135E-3	102.473E-12	626.374E-3	-8.84611E-3
2.50375E-3	101.167E-12	621.576E-3	-24.2697E-3	103.022E-12	616.953E-3	-31.6238E-3
2.49875E-3	101.575E-12	632.526E-3	-23.1995E-3	102.059E-12	610.734E-3	-42.1275E-3
2.49375E-3	101.770E-12	633.698E-3	-28.5515E-3	101.672E-12	620.070E-3	-35.0325E-3
2.48874E-3	102.153E-12	638.913E-3	-40.2870E-3	101.912E-12	638.987E-3	-22.6306E-3
2.48374E-3	101.100E-12	639.688E-3	-27.6353E-3	101.318E-12	638.223E-3	-20.1316E-3
2.47874E-3	100.273E-12	621.943E-3	-21.8362E-3	100.812E-12	627.084E-3	-33.6024E-3
2.47374E-3	99.9049E-12	613.492E-3	-33.4431E-3	100.181E-12	616.347E-3	-40.2632E-3
2.46873E-3	99.5895E-12	614.614E-3	-33.7378E-3	99.2203E-12	607.122E-3	-27.0067E-3
2.46373E-3	98.5887E-12	623.508E-3	-23.3801E-3	98.2767E-12	613.715E-3	-14.9625E-3
2.45873E-3	97.8053E-12	638.735E-3	-18.2113E-3	98.6653E-12	621.027E-3	-17.6262E-3
2.45373E-3	97.6239E-12	637.689E-3	-18.8848E-3	97.6330E-12	610.890E-3	-18.2510E-3
2.44872E-3	97.3930E-12	624.696E-3	-20.9042E-3	96.9973E-12	605.537E-3	-6.35253E-3
2.44372E-3	97.0835E-12	608.030E-3	-17.2272E-3	97.0386E-12	612.608E-3	523.228E-6
2.43872E-3	97.0941E-12	604.561E-3	-3.77915E-3	96.7543E-12	624.702E-3	-471.244E-6
2.43372E-3	97.1840E-12	610.877E-3	9.15392E-3	96.6639E-12	641.654E-3	-5.45972E-3
2.42871E-3	97.5766E-12	617.531E-3	6.45797E-3	96.4405E-12	646.702E-3	-26.1936E-3
2.42371E-3	97.7653E-12	628.274E-3	-509.286E-6	96.8622E-12	628.265E-3	-46.6907E-3
2.41871E-3	97.3898E-12	626.556E-3	-3.55399E-3	96.8710E-12	628.038E-3	-48.9213E-3
2.41371E-3	97.5930E-12	622.744E-3	-13.8401E-3	96.6983E-12	640.613E-3	-42.8806E-3
2.40870E-3	98.4114E-12	631.128E-3	-7.44782E-3	96.4355E-12	621.364E-3	-33.1578E-3
2.40370E-3	98.1136E-12	636.133E-3	16.0537E-3	96.9031E-12	610.368E-3	-24.8756E-3
2.39870E-3	97.4151E-12	634.303E-3	16.0324E-3	96.9841E-12	624.923E-3	-35.6205E-3
2.39370E-3	97.2560E-12	632.758E-3	-2.91378E-3	96.7656E-12	630.223E-3	-40.8854E-3
2.38869E-3	97.1375E-12	636.355E-3	-14.1707E-3	96.9888E-12	639.221E-3	-25.6938E-3
2.38369E-3	96.7358E-12	636.891E-3	-21.5535E-3	96.7800E-12	656.668E-3	-24.1348E-3
2.37869E-3	95.9045E-12	631.807E-3	-28.1547E-3	96.3173E-12	648.882E-3	-24.6374E-3
2.37369E-3	95.4796E-12	640.698E-3	-23.4123E-3	95.4033E-12	635.740E-3	-12.9675E-3
2.36868E-3	95.2269E-12	657.808E-3	-15.2878E-3	95.6287E-12	636.166E-3	-7.67163E-3
2.36368E-3	94.5816E-12	662.942E-3	-6.91854E-3	94.7736E-12	624.851E-3	-10.1883E-3
2.35868E-3	94.2987E-12	655.422E-3	2.07921E-3	93.9812E-12	627.079E-3	-13.4911E-3
2.35368E-3	94.1812E-12	638.265E-3	-2.61825E-3	93.5764E-12	644.136E-3	-24.1863E-3
2.34867E-3	93.9938E-12	624.216E-3	-27.4577E-3	93.3663E-12	636.492E-3	-21.6966E-3
2.34367E-3	94.2998E-12	618.530E-3	-53.8054E-3	93.1006E-12	625.668E-3	3.62194E-3
2.33867E-3	93.5477E-12	616.089E-3	-50.3396E-3	92.0629E-12	629.064E-3	-1.24404E-3
2.33367E-3	93.2635E-12	631.174E-3	-29.0333E-3	92.1921E-12	636.422E-3	-31.9712E-3
2.32866E-3	93.3233E-12	643.182E-3	-16.1663E-3	92.2532E-12	643.971E-3	-28.7144E-3
2.32366E-3	93.2138E-12	625.554E-3	-14.9402E-3	92.4686E-12	653.200E-3	-2.97826E-3
2.31866E-3	92.7970E-12	621.217E-3	-28.3297E-3	91.8103E-12	649.734E-3	-181.126E-6
2.31366E-3	92.6527E-12	644.513E-3	-23.5655E-3	91.8507E-12	628.676E-3	-6.40318E-3
2.30865E-3	92.1935E-12	664.093E-3	-2.74549E-3	92.1847E-12	631.941E-3	-18.5086E-3
2.30365E-3	91.7569E-12	670.093E-3	-10.9125E-3	92.4572E-12	655.371E-3	-47.9828E-3
2.29865E-3	91.7719E-12	661.443E-3	-14.4411E-3	92.0438E-12	656.722E-3	-60.2357E-3
2.29365E-3	91.1786E-12	642.494E-3	-1.43788E-3	91.6901E-12	650.436E-3	-34.5426E-3
2.28864E-3	90.4226E-12	625.450E-3	-8.48742E-3	92.4146E-12	652.822E-3	-7.63295E-3
2.28364E-3	90.7587E-12	620.059E-3	-17.8909E-3	92.2326E-12	645.358E-3	-9.24662E-3
2.27864E-3	90.3932E-12	621.177E-3	-18.2277E-3	91.7521E-12	625.647E-3	-21.3317E-3
2.27364E-3	90.1587E-12	630.090E-3	-16.0459E-3	91.6291E-12	607.307E-3	-29.6232E-3
2.26863E-3	90.5009E-12	642.856E-3	-2.15799E-3	91.1474E-12	609.477E-3	-38.0891E-3
2.26363E-3	90.5411E-12	645.038E-3	16.6039E-3	90.6421E-12	627.507E-3	-38.6696E-3
2.25863E-3	90.3950E-12	646.781E-3	17.1875E-3	90.2420E-12	635.890E-3	-25.7058E-3
2.25363E-3	90.2427E-12	653.611E-3	4.17934E-3	90.1146E-12	631.029E-3	-17.4154E-3
2.24862E-3	90.3991E-12	651.128E-3	-5.26672E-3	88.9631E-12	639.373E-3	-21.8207E-3
2.24362E-3	90.1652E-12	645.634E-3	-19.0464E-3	89.0110E-12	650.819E-3	-26.2349E-3
2.23862E-3	89.7516E-12	646.881E-3	-24.1061E-3	88.8735E-12	639.290E-3	-14.5624E-3
2.23362E-3	89.7306E-12	639.811E-3	-13.8545E-3	89.0270E-12	626.077E-3	-1.91223E-3
2.22861E-3	89.2207E-12	628.298E-3	-22.1182E-3	88.2624E-12	622.899E-3	-13.9204E-3
2.22361E-3	88.7883E-12	630.235E-3	-43.0214E-3	87.7937E-12	620.289E-3	-21.7862E-3
2.21861E-3	88.6194E-12	642.014E-3	-49.1546E-3	87.6356E-12	628.021E-3	-11.2903E-3
2.21361E-3	88.2422E-12	651.875E-3	-37.3814E-3	87.5135E-12	648.312E-3	-18.1036E-3
2.20860E-3	87.3430E-12	655.562E-3	-18.3254E-3	87.7260E-12	654.519E-3	-27.9752E-3
2.20360E-3	87.2741E-12	664.821E-3	-5.19114E-3	87.7344E-12	648.725E-3	-26.0284E-3
2.19860E-3	87.3047E-12	668.444E-3	-6.80952E-3	87.7345E-12	649.494E-3	-27.5412E-3
2.19360E-3	87.2198E-12	651.500E-3	-18.5917E-3	87.7040E-12	650.544E-3	-27.7294E-3
2.18859E-3	87.8399E-12	652.482E-3	-31.3725E-3	87.8006E-12	643.424E-3	-21.0490E-3
2.18359E-3	88.0242E-12	672.259E-3	-30.3965E-3	87.9427E-12	634.141E-3	-7.62221E-3
2.17859E-3	87.9374E-12	682.135E-3	-13.7024E-3	87.8937E-12	637.157E-3	1.77663E-3
2.17359E-3	88.1620E-12	683.037E-3	-8.88985E-3	87.5734E-12	654.015E-3	3.63005E-3
2.16858E-3	88.8238E-12	665.373E-3	-8.84392E-3	87.3533E-12	672.193E-3	-683.593E-6
2.16358E-3	88.4698E-12	655.450E-3	-4.59772E-3	87.2639E-12	674.828E-3	-10.3545E-3
2.15858E-3	87.7655E-12	668.521E-3	-2.96483E-3	86.7676E-12	653.823E-3	-16.5024E-3
2.15358E-3	87.2656E-12	674.808E-3	9.52465E-3	86.8107E-12	647.429E-3	-15.2977E-3
2.14857E-3	87.3650E-12	677.935E-3	5.49578E-3	86.3103E-12	659.211E-3	-22.6609E-3
2.14357E-3	86.8642E-12	688.184E-3	-24.1074E-3	85.8047E-12	650.098E-3	-25.7811E-3
2.13857E-3	85.7951E-12	693.376E-3	-39.0905E-3	85.5958E-12	646.053E-3	-12.4463E-3
2.13357E-3	85.2411E-12	680.585E-3	-31.9713E-3	85.2318E-12	659.253E-3	-14.1798E-3
2.12856E-3	84.0804E-12	667.679E-3	-8.93098E-3	84.5553E-12	660.988E-3	-19.5343E-3
2.12356E-3	83.8110E-12	661.919E-3	4.95141E-3	83.8071E-12	657.542E-3	-16.6067E-3
2.11856E-3	83.2867E-12	647.441E-3	-8.49607E-3	83.8800E-12	645.856E-3	-21.1031E-3
2.11356E-3	82.8716E-12	644.048E-3	-33.5348E-3	83.5472E-12	633.079E-3	-24.3975E-3
2.10855E-3	82.1465E-12	654.558E-3	-40.6593E-3	82.5433E-12	641.384E-3	-20.0095E-3
2.10355E-3	82.9265E-12	658.930E-3	-19.6745E-3	82.0806E-12	651.394E-3	-21.6876E-3
2.09855E-3	82.7930E-12	654.683E-3	-7.69882E-3	82.7974E-12	643.312E-3	-32.5928E-3
2.09355E-3	82.5791E-12	643.460E-3	-2.88715E-3	82.6728E-12	639.746E-3	-34.7408E-3
2.08854E-3	82.6727E-12	641.528E-3	2.38498E-3	82.2311E-12	662.229E-3	-34.2146E-3
2.08354E-3	83.2688E-12	647.075E-3	-3.34218E-3	82.2152E-12	669.275E-3	-37.7514E-3
2.07854E-3	83.5153E-12	645.031E-3	-1.88611E-3	82.4380E-12	655.724E-3	-34.7715E-3
2.07354E-3	83.5577E-12	646.239E-3	190.490E-6	82.7061E-12	660.152E-3	-23.9551E-3
2.06853E-3	83.5281E-12	655.850E-3	-8.13761E-3	82.4950E-12	666.768E-3	-13.7437E-3
2.06353E-3	83.1339E-12	663.938E-3	-12.1529E-3	81.7547E-12	674.710E-3	-11.3338E-3
2.05853E-3	82.4246E-12	660.266E-3	-1.94324E-3	81.9263E-12	686.481E-3	-11.8427E-3
2.05353E-3	82.8419E-12	652.311E-3	3.09155E-3	82.4508E-12	675.474E-3	-15.0400E-3
2.04852E-3	81.8212E-12	658.373E-3	-4.09582E-3	81.2435E-12	658.726E-3	-15.6095E-3
2.04352E-3	81.1291E-12	664.369E-3	1.59857E-3	80.7281E-12	664.840E-3	-16.4902E-3
2.03852E-3	80.5467E-12	660.924E-3	1.44842E-3	80.5445E-12	677.652E-3	-25.6596E-3
2.03352E-3	80.4356E-12	674.005E-3	-14.1952E-3	80.7972E-12	678.729E-3	-35.5170E-3
2.02851E-3	79.6056E-12	684.656E-3	-14.5786E-3	80.2123E-12	676.819E-3	-41.6312E-3
2.02351E-3	79.3420E-12	674.972E-3	-11.5238E-3	79.9091E-12	667.631E-3	-33.1094E-3
2.01851E-3	78.6937E-12	663.314E-3	-20.4509E-3	79.6289E-12	645.323E-3	-14.1866E-3
2.01351E-3	78.5913E-12	654.404E-3	-19.6523E-3	79.3755E-12	636.589E-3	-19.2239E-3
2.00850E-3	78.4292E-12	649.492E-3	-8.90819E-3	78.9922E-12	653.367E-3	-42.4587E-3
2.00350E-3	78.5925E-12	659.145E-3	-9.31267E-3	78.9633E-12	669.243E-3	-47.3605E-3
1.99850E-3	78.1523E-12	668.014E-3	-15.3073E-3	78.9438E-12	673.815E-3	-33.1763E-3
1.99350E-3	78.2116E-12	656.971E-3	-18.6275E-3	78.4650E-12	678.957E-3	-28.3611E-3
1.98849E-3	78.3972E-12	650.281E-3	-24.0351E-3	78.4985E-12	673.901E-3	-30.0664E-3
1.98349E-3	78.3387E-12	654.572E-3	-32.7057E-3	78.8126E-12	661.864E-3	-25.8701E-3
1.97849E-3	77.9557E-12	657.348E-3	-32.0682E-3	78.5977E-12	669.054E-3	-25.7145E-3
1.97349E-3	77.8237E-12	657.901E-3	-14.5531E-3	78.0029E-12	685.727E-3	-25.2358E-3
1.96848E-3	77.6676E-12	655.780E-3	-5.26560E-3	77.5663E-12	688.137E-3	-17.5104E-3
1.96348E-3	77.6334E-12	656.911E-3	-10.1598E-3	77.6600E-12	682.409E-3	-6.58236E-3
1.95848E-3	77.2241E-12	662.535E-3	-10.3823E-3	77.7245E-12	676.118E-3	5.75011E-3
1.95348E-3	77.2462E-12	671.510E-3	-3.99765E-3	77.2151E-12	677.884E-3	10.6647E-3
1.94847E-3	76.5586E-12	673.467E-3	-1.17052E-3	77.2813E-12	684.740E-3	-11.9044E-3
1.94347E-3	76.3893E-12	663.361E-3	672.572E-6	76.6866E-12	683.541E-3	-34.8873E-3
1.93847E-3	76.2790E-12	659.016E-3	9.85527E-3	77.1998E-12	689.028E-3	-36.4229E-3
1.93347E-3	76.1324E-12	665.004E-3	9.30059E-3	76.6617E-12	697.367E-3	-33.4377E-3
1.92846E-3	75.5813E-12	676.830E-3	-7.40783E-3	76.3179E-12	687.230E-3	-15.9919E-3
1.92346E-3	75.4262E-12	675.952E-3	-15.5023E-3	75.9972E-12	674.476E-3	2.32615E-3
1.91846E-3	75.6223E-12	658.096E-3	-15.3949E-3	76.2584E-12	686.006E-3	-4.06993E-3
1.91346E-3	75.3310E-12	657.153E-3	-32.8192E-3	75.9970E-12	705.374E-3	-17.3657E-3
1.90845E-3	75.0484E-12	682.060E-3	-42.4427E-3	75.3590E-12	707.274E-3	-23.4441E-3
1.90345E-3	75.1337E-12	698.259E-3	-22.0066E-3	74.5362E-12	697.712E-3	-31.7356E-3
1.89845E-3	75.0032E-12	688.064E-3	-19.3603E-3	74.6250E-12	685.822E-3	-37.0791E-3
1.89345E-3	74.2366E-12	672.982E-3	-36.3991E-3	74.8733E-12	679.476E-3	-18.3824E-3
1.88844E-3	73.7939E-12	661.574E-3	-27.5722E-3	73.7208E-12	673.583E-3	-3.15553E-3
1.88344E-3	73.3242E-12	655.340E-3	-10.2598E-3	73.2741E-12	666.061E-3	-16.5665E-3
1.87844E-3	72.9809E-12	669.464E-3	-3.61580E-3	73.4627E-12	670.662E-3	-15.7591E-3
1.87344E-3	72.8341E-12	696.352E-3	2.84277E-3	72.9993E-12	675.458E-3	2.83630E-3
1.86843E-3	72.0507E-12	707.873E-3	-9.49014E-3	72.7193E-12	670.744E-3	-1.14949E-3
1.86343E-3	71.7775E-12	707.400E-3	-15.4443E-3	72.5331E-12	666.081E-3	-13.9080E-3
1.85843E-3	72.1604E-12	707.659E-3	437.256E-6	72.2139E-12	679.509E-3	-10.7406E-3
1.85343E-3	71.9359E-12	698.331E-3	-1.92849E-3	71.6838E-12	704.241E-3	-13.9274E-3
1.84842E-3	71.5060E-12	683.849E-3	-13.7284E-3	72.0384E-12	690.279E-3	-16.9937E-3
1.84342E-3	71.4199E-12	678.612E-3	-19.1880E-3	71.4717E-12	662.207E-3	-14.4795E-3
1.83842E-3	71.5864E-12	674.441E-3	-28.9726E-3	70.9625E-12	666.367E-3	-23.0936E-3
1.83342E-3	71.3917E-12	670.342E-3	-26.8500E-3	71.3676E-12	667.278E-3	-24.9305E-3
1.82841E-3	71.4889E-12	679.202E-3	-7.16997E-3	70.9317E-12	672.502E-3	-12.7741E-3
1.82341E-3	71.0899E-12	693.658E-3	-733.268E-6	70.4364E-12	693.184E-3	-10.5563E-3
1.81841E-3	71.1756E-12	700.375E-3	-7.74911E-3	70.5540E-12	682.435E-3	-15.3227E-3
1.81341E-3	70.4738E-12	702.349E-3	-12.3018E-3	70.4066E-12	669.403E-3	-9.31221E-3
1.80840E-3	70.2082E-12	698.134E-3	-15.7968E-3	70.1206E-12	694.276E-3	-9.74317E-3
1.80340E-3	69.9185E-12	690.188E-3	-17.9033E-3	69.6663E-12	714.288E-3	-15.8085E-3
1.79840E-3	69.3352E-12	686.079E-3	-17.3399E-3	68.9240E-12	712.470E-3	-8.70511E-3
1.79340E-3	68.4231E-12	679.606E-3	-20.5935E-3	68.7871E-12	707.569E-3	904.132E-6
1.78839E-3	68.3607E-12	685.283E-3	-31.5292E-3	69.1624E-12	701.710E-3	-2.99297E-3
1.78339E-3	68.4005E-12	700.992E-3	-25.6052E-3	68.9923E-12	706.354E-3	-11.2422E-3
1.77839E-3	67.7356E-12	704.500E-3	-9.95147E-3	68.0490E-12	725.221E-3	-19.4205E-3
1.77339E-3	67.5326E-12	707.510E-3	-17.9943E-3	68.5775E-12	728.505E-3	-37.5038E-3
1.76838E-3	67.5749E-12	706.819E-3	-21.5720E-3	69.1257E-12	715.714E-3	-44.0785E-3
1.76338E-3	67.5360E-12	699.714E-3	-8.51312E-3	68.6099E-12	717.194E-3	-29.1170E-3
1.75838E-3	67.3119E-12	703.523E-3	-10.8285E-3	68.3063E-12	732.316E-3	-14.5646E-3
1.75338E-3	67.2912E-12	711.687E-3	-18.0266E-3	68.2206E-12	739.431E-3	-3.50458E-3
1.74837E-3	67.2156E-12	711.921E-3	-21.9812E-3	68.3753E-12	739.706E-3	1.38793E-3
1.74337E-3	67.6207E-12	715.026E-3	-31.6664E-3	67.8434E-12	737.570E-3	-11.0983E-3
1.73837E-3	67.2648E-12	726.761E-3	-35.6753E-3	67.2498E-12	728.265E-3	-21.2262E-3
1.73337E-3	67.2717E-12	725.774E-3	-30.0438E-3	66.8498E-12	735.780E-3	-15.1005E-3
1.72836E-3	67.1765E-12	721.532E-3	-24.7013E-3	67.2655E-12	747.289E-3	-11.5329E-3
1.72336E-3	66.5952E-12	735.635E-3	-22.1275E-3	67.3167E-12	732.627E-3	-8.85298E-3
1.71836E-3	66.1134E-12	741.858E-3	-22.6628E-3	66.3936E-12	729.404E-3	-5.16681E-3
1.71336E-3	65.6080E-12	729.210E-3	-26.6932E-3	66.0293E-12	740.999E-3	-8.78284E-3
1.70835E-3	65.7075E-12	716.660E-3	-18.6283E-3	65.6409E-12	732.386E-3	-6.43682E-3
1.70335E-3	65.5864E-12	717.128E-3	-3.08988E-3	66.2617E-12	728.340E-3	1.20518E-3
1.69835E-3	64.9618E-12	726.972E-3	-10.2454E-3	65.5723E-12	737.671E-3	-3.41623E-3
1.69335E-3	64.2898E-12	723.608E-3	-29.2131E-3	65.0945E-12	737.609E-3	-6.60456E-3
1.68834E-3	64.3157E-12	722.816E-3	-23.8270E-3	65.0527E-12	740.517E-3	-6.68661E-3
1.68334E-3	64.5028E-12	731.229E-3	-9.95171E-3	65.7438E-12	747.103E-3	-14.2962E-3
1.67834E-3	63.9660E-12	734.671E-3	-10.4940E-3	65.4237E-12	749.461E-3	-18.4537E-3
1.67334E-3	63.4811E-12	740.981E-3	-21.7081E-3	64.8303E-12	756.256E-3	-8.23058E-3
1.66833E-3	63.8302E-12	742.929E-3	-28.6978E-3	64.7097E-12	774.208E-3	2.14098E-3
1.66333E-3	64.2468E-12	741.795E-3	-32.5091E-3	64.8640E-12	783.914E-3	-1.79856E-3
1.65833E-3	63.6047E-12	742.900E-3	-33.6972E-3	64.8742E-12	765.143E-3	-1.27148E-3
1.65333E-3	63.4001E-12	742.486E-3	-20.9362E-3	64.1064E-12	744.675E-3	3.18752E-3
1.64832E-3	63.3431E-12	754.423E-3	-8.87463E-3	63.6361E-12	740.825E-3	2.58262E-3
1.64332E-3	63.4814E-12	762.622E-3	-7.20277E-3	63.1030E-12	746.626E-3	5.80561E-3
1.63832E-3	62.9301E-12	739.836E-3	-20.5481E-3	63.0752E-12	759.582E-3	-4.50532E-3
1.63332E-3	62.7002E-12	723.522E-3	-30.0774E-3	62.3811E-12	769.511E-3	-33.8680E-3
1.62831E-3	62.1772E-12	737.534E-3	-18.4879E-3	62.1454E-12	772.232E-3	-35.2656E-3
1.62331E-3	62.4264E-12	756.477E-3	-14.9437E-3	60.9801E-12	766.793E-3	-10.3694E-3
1.61831E-3	61.5013E-12	771.458E-3	-29.1658E-3	60.5683E-12	752.459E-3	-4.73798E-3
1.61331E-3	61.2462E-12	775.691E-3	-24.9027E-3	60.4105E-12	746.712E-3	-5.56530E-3
1.60830E-3	61.3968E-12	769.612E-3	-13.1752E-3	60.3231E-12	756.552E-3	-1.44103E-3
1.60330E-3	61.0587E-12	762.357E-3	-12.4065E-3	59.6319E-12	762.871E-3	-13.8482E-3
1.59830E-3	60.4759E-12	749.710E-3	-5.93196E-3	59.3968E-12	764.547E-3	-17.0850E-3
1.59330E-3	60.0481E-12	742.546E-3	-5.66007E-3	59.5771E-12	769.473E-3	-10.6153E-3
1.58829E-3	60.4104E-12	743.052E-3	-13.4304E-3	59.8631E-12	770.356E-3	-18.1377E-3
1.58329E-3	59.9196E-12	747.050E-3	-16.8379E-3	59.2023E-12	772.223E-3	-13.3452E-3
1.57829E-3	59.5317E-12	758.797E-3	-20.1095E-3	58.7693E-12	783.249E-3	2.70291E-3
1.57329E-3	59.1193E-12	765.574E-3	-29.7588E-3	59.0927E-12	785.286E-3	242.798E-6
1.56828E-3	58.6855E-12	769.618E-3	-31.6798E-3	59.0786E-12	771.386E-3	-18.9410E-3
1.56328E-3	58.7262E-12	769.609E-3	-20.1111E-3	58.9290E-12	765.357E-3	-22.6794E-3
1.55828E-3	58.2843E-12	771.592E-3	-20.3340E-3	58.2195E-12	766.509E-3	-20.3125E-3
1.55328E-3	58.0325E-12	788.763E-3	-22.1836E-3	57.6720E-12	765.711E-3	-31.0671E-3
1.54827E-3	57.5862E-12	794.929E-3	-18.3232E-3	57.4001E-12	771.373E-3	-28.4610E-3
1.54327E-3	57.3103E-12	791.669E-3	-25.7898E-3	57.0799E-12	782.210E-3	-17.6894E-3
1.53827E-3	56.7724E-12	787.605E-3	-19.3093E-3	56.8365E-12	786.549E-3	-9.57019E-3
1.53327E-3	56.5099E-12	766.194E-3	-1.25357E-3	56.2233E-12	787.898E-3	5.41604E-3
1.52826E-3	55.8807E-12	746.855E-3	-13.5233E-3	55.9147E-12	784.077E-3	-741.978E-6
1.52326E-3	55.4431E-12	751.316E-3	-31.7798E-3	56.1412E-12	779.183E-3	-26.2897E-3
1.51826E-3	55.5318E-12	762.391E-3	-12.7709E-3	55.8769E-12	779.096E-3	-24.2162E-3
1.51326E-3	55.0696E-12	770.514E-3	5.82726E-3	55.1788E-12	782.816E-3	-12.7837E-3
1.50825E-3	54.9162E-12	780.406E-3	-2.53157E-3	54.8809E-12	792.074E-3	-20.9617E-3
1.50325E-3	55.0662E-12	783.033E-3	-13.8738E-3	54.9052E-12	796.588E-3	-26.3544E-3
1.49825E-3	54.5959E-12	777.608E-3	-18.1588E-3	55.5812E-12	798.321E-3	-28.1733E-3
1.49325E-3	54.3766E-12	782.821E-3	-23.3222E-3	54.8199E-12	787.366E-3	-30.5480E-3
1.48824E-3	54.5646E-12	794.234E-3	-14.6081E-3	54.0079E-12	759.693E-3	-29.7616E-3
1.48324E-3	54.2855E-12	787.498E-3	-1.07297E-3	54.0003E-12	747.938E-3	-26.8617E-3
1.47824E-3	53.7617E-12	780.411E-3	-11.9095E-3	54.5304E-12	756.937E-3	-24.6277E-3
1.47324E-3	53.5413E-12	787.375E-3	-14.9435E-3	54.1550E-12	758.211E-3	-27.8538E-3
1.46823E-3	53.5530E-12	785.799E-3	-6.50371E-3	53.3409E-12	761.619E-3	-25.7322E-3
1.46323E-3	53.0666E-12	781.272E-3	-11.5769E-3	53.2238E-12	769.986E-3	-17.4953E-3
1.45823E-3	52.8768E-12	790.839E-3	-13.0909E-3	53.1790E-12	768.790E-3	-8.47895E-3
1.45323E-3	52.9192E-12	790.534E-3	-9.81332E-3	52.7110E-12	772.963E-3	-15.8392E-3
1.44822E-3	52.9030E-12	791.239E-3	-13.1217E-3	52.2344E-12	776.315E-3	-35.1387E-3
1.44322E-3	52.0974E-12	798.520E-3	-12.9641E-3	52.5799E-12	761.245E-3	-29.8324E-3
1.43822E-3	51.2162E-12	778.941E-3	3.27744E-3	52.7300E-12	750.959E-3	-10.3523E-3
1.43322E-3	51.4553E-12	752.647E-3	543.004E-6	52.3255E-12	763.371E-3	-8.55688E-3
1.42821E-3	51.8107E-12	755.811E-3	-24.5884E-3	51.5776E-12	770.874E-3	-12.0293E-3
1.42321E-3	51.1050E-12	772.285E-3	-16.3022E-3	51.7323E-12	768.216E-3	-11.2001E-3
1.41821E-3	50.0516E-12	770.001E-3	-3.28144E-3	51.8180E-12	768.630E-3	-10.8548E-3
1.41321E-3	49.9280E-12	768.935E-3	-18.1788E-3	51.0713E-12	754.303E-3	-5.93975E-3
1.40820E-3	50.4262E-12	773.608E-3	-21.8140E-3	50.5469E-12	725.142E-3	-5.42463E-3
1.40320E-3	49.9963E-12	763.228E-3	-13.6345E-3	50.2426E-12	713.348E-3	-11.5291E-3
1.39820E-3	49.3403E-12	763.918E-3	-19.8533E-3	49.9068E-12	717.100E-3	-23.3576E-3
1.39320E-3	48.8030E-12	773.786E-3	-29.7634E-3	49.5855E-12	710.792E-3	-40.8463E-3
1.38819E-3	49.2187E-12	761.542E-3	-34.2738E-3	49.1640E-12	695.391E-3	-38.4505E-3
1.38319E-3	49.3579E-12	743.173E-3	-34.0877E-3	48.5529E-12	677.293E-3	-16.8538E-3
1.37819E-3	48.9136E-12	733.862E-3	-19.9932E-3	48.2755E-12	671.926E-3	-2.24438E-3
1.37319E-3	48.1468E-12	728.009E-3	1.49415E-3	48.2775E-12	683.930E-3	-6.00348E-3
1.36818E-3	48.1649E-12	731.087E-3	264.535E-6	47.8177E-12	696.436E-3	-23.9145E-3
1.36318E-3	48.5396E-12	738.865E-3	-8.34801E-3	47.8433E-12	701.864E-3	-24.6318E-3
1.35818E-3	48.8283E-12	734.644E-3	-886.327E-6	47.7317E-12	696.386E-3	-10.6738E-3
1.35318E-3	48.1873E-12	722.601E-3	-11.8931E-3	47.8159E-12	685.256E-3	-9.72309E-3
1.34817E-3	47.6856E-12	727.601E-3	-25.5342E-3	48.1605E-12	676.090E-3	1.19140E-3
1.34317E-3	47.7765E-12	722.456E-3	-24.8804E-3	47.7212E-12	673.945E-3	19.1577E-3
1.33817E-3	48.0910E-12	694.196E-3	-39.2068E-3	47.5253E-12	672.966E-3	6.84480E-3
1.33317E-3	47.7845E-12	695.035E-3	-41.3189E-3	47.6101E-12	662.043E-3	-5.82326E-3
1.32816E-3	47.4062E-12	707.454E-3	-24.3141E-3	47.6059E-12	647.526E-3	4.76428E-3
1.32316E-3	47.1589E-12	690.880E-3	-26.0144E-3	46.8311E-12	630.990E-3	5.88564E-3
1.31816E-3	46.9905E-12	665.964E-3	-29.9639E-3	46.6019E-12	604.721E-3	-13.9592E-3
1.31316E-3	46.6389E-12	644.896E-3	-15.5283E-3	46.4070E-12	584.541E-3	-23.3466E-3
1.30815E-3	46.0592E-12	628.617E-3	-4.91384E-3	45.9531E-12	578.522E-3	-21.5654E-3
1.30315E-3	45.7873E-12	620.926E-3	-4.52781E-3	45.4440E-12	569.803E-3	-21.1830E-3
1.29815E-3	46.0494E-12	617.221E-3	-2.71252E-3	45.1727E-12	568.586E-3	-17.1972E-3
1.29315E-3	45.5698E-12	607.924E-3	-16.6640E-3	44.5015E-12	573.880E-3	-18.1844E-3
1.28814E-3	44.8560E-12	603.855E-3	-35.9357E-3	44.0436E-12	552.181E-3	-19.0406E-3
1.28314E-3	44.4573E-12	604.422E-3	-22.7850E-3	43.6822E-12	526.118E-3	-16.3915E-3
1.27814E-3	44.7267E-12	590.585E-3	-13.2504E-3	43.5595E-12	528.470E-3	-10.6264E-3
1.27314E-3	44.4244E-12	575.193E-3	-32.9707E-3	43.5736E-12	529.809E-3	2.86833E-3
1.26813E-3	44.4640E-12	567.783E-3	-33.1962E-3	43.1502E-12	512.498E-3	14.2997E-3
1.26313E-3	43.7963E-12	553.615E-3	-17.5472E-3	43.1534E-12	501.234E-3	5.28019E-3
1.25813E-3	43.5131E-12	544.897E-3	-19.6716E-3	43.2398E-12	504.787E-3	-17.7457E-3
1.25313E-3	43.5861E-12	544.259E-3	-19.1291E-3	43.2007E-12	505.546E-3	-24.4671E-3
1.24812E-3	43.7732E-12	522.853E-3	-21.2689E-3	43.3353E-12	495.817E-3	-16.6533E-3
1.24312E-3	43.2527E-12	509.472E-3	-18.3294E-3	43.1612E-12	483.835E-3	-21.0568E-3
1.23812E-3	42.9411E-12	516.324E-3	-5.54395E-3	43.4319E-12	472.181E-3	-29.1554E-3
1.23312E-3	43.2149E-12	503.807E-3	-20.2165E-3	42.9457E-12	459.988E-3	-23.0515E-3
1.22811E-3	43.2003E-12	490.340E-3	-29.6127E-3	43.4634E-12	445.766E-3	-23.4817E-3
1.22311E-3	42.6936E-12	493.781E-3	-18.6983E-3	43.5251E-12	443.645E-3	-29.2027E-3
1.21811E-3	42.6717E-12	481.938E-3	-19.5848E-3	43.2064E-12	447.572E-3	-22.6177E-3
1.21311E-3	42.4127E-12	462.408E-3	-9.99316E-3	43.0681E-12	432.357E-3	-14.9515E-3
1.20810E-3	42.0942E-12	452.665E-3	12.4457E-3	42.5580E-12	416.331E-3	-717.869E-6
1.20310E-3	42.1828E-12	438.317E-3	15.2665E-3	42.7771E-12	407.238E-3	11.9090E-3
1.19810E-3	42.2880E-12	423.186E-3	-6.28303E-3	42.2471E-12	391.198E-3	7.09404E-3
1.19310E-3	41.5536E-12	405.813E-3	-25.9084E-3	42.1744E-12	365.096E-3	84.0013E-6
1.18809E-3	41.1599E-12	386.142E-3	-25.7680E-3	41.4987E-12	341.079E-3	887.016E-6
1.18309E-3	41.3660E-12	383.256E-3	-24.7611E-3	41.4638E-12	342.309E-3	-6.44776E-3
1.17809E-3	41.3453E-12	390.934E-3	-22.8821E-3	41.2062E-12	353.458E-3	-21.8914E-3
1.17309E-3	40.7082E-12	377.418E-3	-14.0449E-3	41.0512E-12	355.963E-3	-19.2812E-3
1.16808E-3	40.4118E-12	352.266E-3	-17.2030E-3	40.9089E-12	349.048E-3	-17.8412E-3
1.16308E-3	40.5912E-12	348.323E-3	-24.9324E-3	40.6022E-12	324.298E-3	-24.6642E-3
1.15808E-3	40.6978E-12	341.399E-3	-20.2285E-3	40.3854E-12	307.298E-3	-16.3469E-3
1.15308E-3	40.3225E-12	334.287E-3	-21.6831E-3	40.4149E-12	304.519E-3	-12.2772E-3
1.14807E-3	40.3011E-12	341.825E-3	-35.5104E-3	40.4416E-12	294.636E-3	-16.2583E-3
1.14307E-3	40.5954E-12	336.019E-3	-37.7735E-3	40.1736E-12	285.852E-3	-9.71598E-3
1.13807E-3	40.1274E-12	325.280E-3	-27.7368E-3	40.1996E-12	280.857E-3	-1.33762E-3
1.13307E-3	39.9690E-12	318.831E-3	-14.0880E-3	40.0649E-12	270.889E-3	-5.64667E-3
1.12806E-3	40.0574E-12	302.353E-3	716.849E-6	40.3808E-12	262.245E-3	-15.1627E-3
1.12306E-3	40.3568E-12	288.306E-3	-3.66711E-3	40.7778E-12	259.016E-3	-23.1845E-3
1.11806E-3	39.9911E-12	286.641E-3	-18.6631E-3	40.1755E-12	256.149E-3	-32.5589E-3
1.11306E-3	39.7034E-12	274.752E-3	-16.4076E-3	40.1471E-12	253.243E-3	-37.4342E-3
1.10805E-3	39.8121E-12	261.605E-3	-6.33309E-3	40.3221E-12	252.338E-3	-34.5659E-3
1.10305E-3	39.8157E-12	266.132E-3	-10.8428E-3	40.7557E-12	259.332E-3	-29.8528E-3
1.09805E-3	39.7449E-12	263.804E-3	-30.6227E-3	40.3671E-12	262.761E-3	-19.4055E-3
1.09305E-3	39.5657E-12	249.362E-3	-45.8168E-3	40.1481E-12	250.639E-3	-10.2610E-3
1.08804E-3	39.5128E-12	244.799E-3	-39.3437E-3	40.3973E-12	221.090E-3	-13.4668E-3
1.08304E-3	39.4319E-12	241.177E-3	-17.9141E-3	40.3584E-12	202.384E-3	-9.37288E-3
1.07804E-3	39.1923E-12	234.135E-3	-5.39662E-3	40.1582E-12	218.358E-3	1.33407E-3
1.07304E-3	39.4337E-12	230.897E-3	-10.6067E-3	39.2711E-12	228.768E-3	-251.622E-6
1.06803E-3	39.0252E-12	221.553E-3	-16.8536E-3	39.4536E-12	219.145E-3	-6.33612E-3
1.06303E-3	38.9359E-12	211.086E-3	-17.6943E-3	39.5963E-12	205.503E-3	-16.7560E-3
1.05803E-3	38.8647E-12	211.176E-3	-16.8369E-3	39.1292E-12	188.033E-3	-33.4236E-3
1.05303E-3	39.2268E-12	211.448E-3	-20.6579E-3	38.5833E-12	172.471E-3	-28.0836E-3
1.04802E-3	39.1195E-12	203.629E-3	-31.0700E-3	38.3044E-12	161.008E-3	-8.64812E-3
1.04302E-3	38.8845E-12	202.333E-3	-29.3844E-3	38.5041E-12	157.704E-3	-7.43411E-3
1.03802E-3	38.9796E-12	205.684E-3	-13.9046E-3	38.2769E-12	161.815E-3	-7.51876E-3
1.03302E-3	39.4300E-12	193.727E-3	-8.82191E-3	38.3703E-12	174.510E-3	-6.14607E-3
1.02801E-3	39.8565E-12	185.290E-3	-12.3264E-3	37.9617E-12	191.615E-3	-13.9536E-3
1.02301E-3	39.0339E-12	193.260E-3	-9.70727E-3	37.9566E-12	191.971E-3	-10.0531E-3
1.01801E-3	38.7507E-12	190.699E-3	-8.01678E-3	37.9990E-12	181.178E-3	-6.02078E-3
1.01301E-3	38.9686E-12	182.195E-3	-14.1417E-3	38.1818E-12	175.452E-3	-17.8466E-3
1.00800E-3	39.5120E-12	176.707E-3	-14.3099E-3	38.4844E-12	170.948E-3	-26.6534E-3
1.00300E-3	39.1478E-12	170.727E-3	-10.4997E-3	38.4042E-12	166.805E-3	-19.3336E-3
997.999E-6	38.3698E-12	177.814E-3	-20.2707E-3	38.6451E-12	168.172E-3	-5.39907E-3
992.997E-6	38.4055E-12	190.276E-3	-28.2297E-3	38.8932E-12	176.843E-3	-93.3490E-6
987.994E-6	38.5483E-12	189.676E-3	-26.3431E-3	39.2225E-12	189.083E-3	-2.90992E-3
982.991E-6	38.4353E-12	178.839E-3	-34.0183E-3	38.8813E-12	194.085E-3	-13.9743E-3
977.989E-6	37.8593E-12	172.547E-3	-44.0748E-3	38.6511E-12	191.681E-3	-24.9636E-3
972.986E-6	37.4330E-12	166.921E-3	-31.1399E-3	38.3430E-12	195.089E-3	-15.8769E-3
967.984E-6	37.2686E-12	157.984E-3	-14.4878E-3	38.2425E-12	208.701E-3	-5.38992E-3
962.981E-6	37.3405E-12	156.272E-3	-10.2461E-3	38.1526E-12	212.041E-3	-9.72913E-3
957.979E-6	36.9714E-12	165.215E-3	-1.99155E-3	37.7413E-12	206.687E-3	-12.1734E-3
952.976E-6	36.8264E-12	177.638E-3	-9.26219E-3	37.3938E-12	205.787E-3	-13.9337E-3
947.974E-6	37.1151E-12	191.942E-3	-25.9967E-3	37.2631E-12	199.625E-3	-19.7006E-3
942.971E-6	36.8098E-12	209.579E-3	-25.7579E-3	36.8434E-12	208.961E-3	-23.1322E-3
937.969E-6	36.9347E-12	218.390E-3	-28.6747E-3	36.6064E-12	229.401E-3	-29.4511E-3
932.966E-6	37.2881E-12	215.473E-3	-34.6653E-3	36.7427E-12	228.962E-3	-38.8056E-3
927.964E-6	37.2621E-12	209.532E-3	-20.6203E-3	36.7987E-12	228.200E-3	-39.7249E-3
922.961E-6	37.3131E-12	203.678E-3	-14.3127E-3	36.8132E-12	239.794E-3	-28.7548E-3
917.959E-6	37.1724E-12	207.597E-3	-33.6312E-3	36.8240E-12	247.601E-3	-16.2978E-3
912.956E-6	37.1978E-12	225.032E-3	-25.5620E-3	36.9982E-12	250.138E-3	-11.4577E-3
907.954E-6	37.2119E-12	236.765E-3	-237.043E-6	37.1088E-12	257.640E-3	-10.9088E-3
902.951E-6	37.1664E-12	245.457E-3	-4.20798E-3	37.2937E-12	264.031E-3	-12.5097E-3
897.949E-6	36.9586E-12	259.337E-3	-20.1710E-3	37.4033E-12	267.548E-3	-19.9888E-3
892.946E-6	36.8649E-12	260.159E-3	-35.0055E-3	37.2244E-12	276.020E-3	-25.1848E-3
887.944E-6	36.8384E-12	263.394E-3	-47.8722E-3	37.2280E-12	287.986E-3	-27.1067E-3
882.941E-6	36.7068E-12	281.661E-3	-40.1346E-3	37.3273E-12	298.683E-3	-29.6359E-3
877.939E-6	36.2919E-12	281.450E-3	-16.8177E-3	36.8615E-12	309.803E-3	-13.5736E-3
872.936E-6	36.2422E-12	268.020E-3	-4.59966E-3	36.9206E-12	320.424E-3	4.94010E-3
867.934E-6	36.1085E-12	268.225E-3	-10.7442E-3	36.8795E-12	330.992E-3	2.58639E-3
862.931E-6	35.7726E-12	275.108E-3	-10.5170E-3	36.3748E-12	342.469E-3	-10.0981E-3
857.929E-6	35.6022E-12	284.378E-3	-7.70595E-3	35.8288E-12	341.847E-3	-25.2874E-3
852.926E-6	35.4494E-12	300.851E-3	-10.7562E-3	35.7857E-12	335.077E-3	-22.8367E-3
847.924E-6	35.5851E-12	313.864E-3	-5.35086E-3	35.7939E-12	341.275E-3	2.05841E-3
842.921E-6	34.9652E-12	320.941E-3	-20.0791E-3	35.2771E-12	359.943E-3	7.26051E-3
837.919E-6	34.9389E-12	332.356E-3	-33.3824E-3	35.0605E-12	374.760E-3	-15.6395E-3
832.916E-6	35.0456E-12	338.166E-3	-10.2058E-3	34.8897E-12	375.507E-3	-24.4911E-3
827.914E-6	35.3220E-12	333.881E-3	168.885E-6	34.9993E-12	381.572E-3	-19.2768E-3
822.911E-6	35.2711E-12	350.696E-3	-8.51987E-3	34.8381E-12	402.682E-3	-17.8696E-3
817.909E-6	34.7531E-12	378.829E-3	-315.979E-6	34.5646E-12	429.171E-3	-13.0802E-3
812.906E-6	34.7149E-12	385.834E-3	-67.0255E-6	34.3511E-12	447.594E-3	-13.4581E-3
807.904E-6	35.0652E-12	398.067E-3	-11.6734E-3	34.3517E-12	445.208E-3	-21.2599E-3
802.901E-6	34.9294E-12	420.978E-3	-9.72391E-3	34.2619E-12	444.749E-3	-15.8487E-3
797.899E-6	34.5725E-12	428.217E-3	-10.2303E-3	34.0842E-12	473.041E-3	-4.95823E-3
792.896E-6	34.6925E-12	439.166E-3	-20.3211E-3	33.8407E-12	509.359E-3	-12.5718E-3
787.894E-6	34.5886E-12	461.714E-3	-14.3124E-3	33.8822E-12	515.332E-3	-18.0631E-3
782.891E-6	34.5819E-12	464.212E-3	-3.29022E-3	33.8992E-12	510.632E-3	-6.67050E-3
777.889E-6	33.8243E-12	455.572E-3	-15.6610E-3	34.0016E-12	534.277E-3	-5.07210E-3
772.886E-6	33.8061E-12	470.502E-3	-18.6065E-3	33.2981E-12	574.104E-3	-12.2230E-3
767.884E-6	33.9357E-12	508.696E-3	-3.24279E-3	32.7629E-12	600.837E-3	-11.2119E-3
762.881E-6	33.7187E-12	548.968E-3	-13.4304E-3	33.1707E-12	604.773E-3	-18.5337E-3
757.879E-6	33.2083E-12	569.333E-3	-30.7729E-3	32.9455E-12	608.061E-3	-39.8692E-3
752.876E-6	32.5771E-12	568.594E-3	-23.4081E-3	32.8741E-12	630.087E-3	-46.1861E-3
747.874E-6	32.4526E-12	572.207E-3	-17.7973E-3	32.3764E-12	652.420E-3	-39.0450E-3
742.871E-6	32.2464E-12	588.179E-3	-15.8924E-3	32.3587E-12	660.065E-3	-29.9022E-3
737.869E-6	32.2985E-12	599.715E-3	-5.71573E-3	32.1559E-12	661.857E-3	-21.5103E-3
732.866E-6	31.7041E-12	612.247E-3	-3.59164E-3	32.4603E-12	674.344E-3	-28.8381E-3
727.864E-6	31.3835E-12	635.895E-3	2.58018E-3	31.3166E-12	705.946E-3	-31.5383E-3
722.861E-6	31.0740E-12	648.772E-3	14.5180E-3	30.8658E-12	731.428E-3	-16.9125E-3
717.859E-6	31.0026E-12	652.985E-3	-2.95571E-3	31.0875E-12	739.005E-3	-12.8612E-3
712.856E-6	30.7553E-12	672.289E-3	-24.8413E-3	30.8548E-12	746.712E-3	-21.0661E-3
707.854E-6	30.4947E-12	695.526E-3	-23.1311E-3	30.2555E-12	750.158E-3	-17.7671E-3
702.851E-6	30.2979E-12	712.136E-3	-19.7553E-3	29.8160E-12	750.576E-3	-8.95376E-3
697.849E-6	29.8173E-12	727.845E-3	-13.5167E-3	29.6052E-12	761.635E-3	-10.4449E-3
692.846E-6	29.7466E-12	739.539E-3	-2.21218E-3	29.2620E-12	779.170E-3	-15.8246E-3
687.844E-6	29.6993E-12	746.123E-3	-5.94081E-3	29.4582E-12	803.150E-3	-18.2113E-3
682.841E-6	29.7484E-12	762.770E-3	-21.2460E-3	29.0181E-12	825.992E-3	-21.7889E-3
677.839E-6	29.3709E-12	786.011E-3	-22.8347E-3	28.4770E-12	841.384E-3	-23.8492E-3
672.836E-6	28.7799E-12	804.689E-3	-14.5225E-3	28.5117E-12	857.744E-3	-23.9556E-3
667.834E-6	28.5623E-12	828.121E-3	-19.1922E-3	28.6408E-12	884.135E-3	-30.9944E-3
662.831E-6	28.5520E-12	840.311E-3	-28.0044E-3	28.3662E-12	913.312E-3	-37.5019E-3
657.829E-6	28.3465E-12	835.433E-3	-30.1934E-3	28.3265E-12	924.218E-3	-30.8201E-3
652.826E-6	27.7213E-12	845.014E-3	-31.9526E-3	28.1882E-12	926.247E-3	-18.9771E-3
647.824E-6	27.3396E-12	864.806E-3	-29.5622E-3	27.9149E-12	942.027E-3	-5.42766E-3
642.821E-6	27.0733E-12	872.433E-3	-23.6937E-3	27.8678E-12	961.497E-3	6.11595E-3
637.819E-6	27.4091E-12	886.607E-3	-26.6023E-3	27.5215E-12	967.846E-3	-7.35053E-3
632.816E-6	26.7770E-12	914.215E-3	-24.8867E-3	27.1693E-12	967.137E-3	-24.1004E-3
627.814E-6	25.9363E-12	935.885E-3	-7.49546E-3	26.7413E-12	978.656E-3	-15.1675E-3
622.811E-6	25.5175E-12	946.595E-3	8.65838E-3	26.3065E-12	994.001E-3	-9.79209E-3
617.809E-6	25.6383E-12	949.979E-3	11.3799E-3	25.9691E-12	995.359E-3	-20.9184E-3
612.806E-6	25.4838E-12	948.211E-3	-2.70741E-3	25.5301E-12	994.521E-3	-17.3742E-3
607.804E-6	24.6124E-12	959.230E-3	-18.3296E-3	25.0424E-12	995.844E-3	4.13261E-3
602.801E-6	24.4555E-12	980.117E-3	-23.0509E-3	24.7195E-12	1.00478E+0	12.1687E-3
597.799E-6	24.4837E-12	981.782E-3	-21.8594E-3	24.5058E-12	1.02312E+0	7.41272E-3
592.796E-6	24.3966E-12	984.176E-3	-19.3315E-3	24.0719E-12	1.04005E+0	6.96654E-3
587.794E-6	23.8244E-12	1.00271E+0	-12.0831E-3	23.4769E-12	1.04825E+0	8.68545E-3
582.791E-6	23.4796E-12	1.01089E+0	2.82788E-3	23.2022E-12	1.04425E+0	8.31809E-3
577.789E-6	23.2614E-12	1.01438E+0	4.23201E-3	23.2240E-12	1.04139E+0	-3.70501E-3
572.786E-6	22.9591E-12	1.03121E+0	-8.30207E-3	22.5938E-12	1.05056E+0	-14.8653E-3
567.784E-6	22.5493E-12	1.05032E+0	-12.5751E-3	22.3423E-12	1.06750E+0	-16.8343E-3
562.781E-6	22.0586E-12	1.06076E+0	-18.7202E-3	22.3019E-12	1.08035E+0	-16.9961E-3
557.779E-6	21.7441E-12	1.06682E+0	-26.0238E-3	22.1273E-12	1.07681E+0	-3.95496E-3
552.776E-6	21.4379E-12	1.06737E+0	-16.6115E-3	21.6269E-12	1.07599E+0	9.19075E-3
547.774E-6	21.0628E-12	1.06000E+0	-10.1955E-3	21.1635E-12	1.09586E+0	4.15440E-3
542.771E-6	20.4819E-12	1.06398E+0	-16.5877E-3	20.8570E-12	1.11048E+0	-8.60677E-3
537.769E-6	20.2272E-12	1.08001E+0	-15.6639E-3	20.5948E-12	1.09734E+0	-17.1056E-3
532.766E-6	19.6540E-12	1.07880E+0	-21.4549E-3	20.2740E-12	1.08432E+0	-25.1818E-3
527.764E-6	19.5883E-12	1.06795E+0	-31.6905E-3	19.5723E-12	1.08282E+0	-38.2255E-3
522.761E-6	19.2988E-12	1.07909E+0	-25.1495E-3	19.1340E-12	1.07230E+0	-31.2815E-3
517.759E-6	18.8462E-12	1.09078E+0	-27.6551E-3	18.9681E-12	1.06419E+0	-1.85195E-3
512.756E-6	18.3048E-12	1.08275E+0	-42.5129E-3	18.5299E-12	1.07668E+0	11.5194E-3
507.754E-6	18.0424E-12	1.07841E+0	-35.9696E-3	17.8986E-12	1.09148E+0	11.2985E-3
502.751E-6	18.1020E-12	1.07918E+0	-16.6813E-3	17.7091E-12	1.09179E+0	10.6618E-3
497.749E-6	17.6184E-12	1.08490E+0	-5.51684E-3	17.4830E-12	1.08335E+0	-3.29021E-3
492.746E-6	17.1901E-12	1.09605E+0	-5.81562E-3	17.1033E-12	1.07522E+0	-16.6441E-3
487.744E-6	16.8323E-12	1.09349E+0	-12.9105E-3	16.6473E-12	1.07689E+0	-18.4913E-3
482.741E-6	16.6714E-12	1.08173E+0	-15.2224E-3	16.3770E-12	1.06755E+0	-16.8632E-3
477.739E-6	16.2981E-12	1.08405E+0	-13.5816E-3	16.1961E-12	1.05164E+0	-13.8035E-3
472.736E-6	15.8487E-12	1.08479E+0	-11.1741E-3	15.7074E-12	1.05396E+0	-15.4961E-3
467.734E-6	15.5400E-12	1.06981E+0	-11.5962E-3	15.2920E-12	1.05697E+0	-13.9500E-3
462.731E-6	15.0863E-12	1.07190E+0	-13.5580E-3	14.9327E-12	1.04799E+0	-4.94644E-3
457.729E-6	14.7883E-12	1.07578E+0	-19.9193E-3	14.7268E-12	1.02428E+0	-5.77347E-3
452.726E-6	14.5344E-12	1.06320E+0	-29.7458E-3	14.2379E-12	1.00805E+0	-9.44475E-3
447.724E-6	14.0980E-12	1.06709E+0	-25.1744E-3	13.7794E-12	1.01128E+0	-6.71443E-3
442.721E-6	13.6474E-12	1.07032E+0	-10.0163E-3	13.4489E-12	1.00653E+0	-11.8216E-3
437.719E-6	13.2220E-12	1.05230E+0	-4.43678E-3	13.1750E-12	983.695E-3	-23.1503E-3
432.716E-6	12.8564E-12	1.03194E+0	-5.35650E-3	12.7111E-12	962.341E-3	-22.3537E-3
427.714E-6	12.7140E-12	1.01391E+0	-7.33649E-3	12.4150E-12	962.473E-3	-14.5080E-3
422.711E-6	12.3765E-12	998.911E-3	-17.4133E-3	12.0837E-12	970.435E-3	-23.9004E-3
417.709E-6	11.8104E-12	997.717E-3	-22.9029E-3	11.7141E-12	968.835E-3	-32.7196E-3
412.706E-6	11.4791E-12	992.484E-3	-21.3503E-3	11.4741E-12	955.456E-3	-20.8910E-3
407.704E-6	11.3378E-12	969.388E-3	-28.9641E-3	11.2874E-12	933.657E-3	-8.98867E-3
402.701E-6	11.0688E-12	946.677E-3	-37.4848E-3	11.0101E-12	917.033E-3	-4.12448E-3
397.699E-6	10.6321E-12	939.324E-3	-32.2524E-3	10.6465E-12	905.791E-3	-12.7490E-3
392.696E-6	10.2249E-12	943.488E-3	-21.4843E-3	10.3393E-12	889.291E-3	-27.3458E-3
387.694E-6	10.0760E-12	940.215E-3	-13.6073E-3	10.1943E-12	875.042E-3	-24.3248E-3
382.691E-6	9.79608E-12	922.762E-3	-10.6943E-3	9.93193E-12	863.018E-3	-10.4177E-3
377.689E-6	9.33641E-12	897.127E-3	-20.5405E-3	9.47902E-12	840.666E-3	-2.81989E-3
372.686E-6	9.04957E-12	878.105E-3	-36.4984E-3	9.03519E-12	818.938E-3	-6.61326E-3
367.684E-6	8.81690E-12	865.759E-3	-27.3899E-3	8.83299E-12	800.346E-3	-15.8528E-3
362.681E-6	8.63942E-12	849.433E-3	-5.57806E-3	8.69529E-12	775.106E-3	-24.3494E-3
357.679E-6	8.27391E-12	838.336E-3	-8.11847E-3	8.21031E-12	755.230E-3	-28.0716E-3
352.676E-6	8.05058E-12	824.463E-3	-19.9362E-3	7.84543E-12	751.144E-3	-28.2412E-3
347.674E-6	7.77900E-12	804.857E-3	-18.1882E-3	7.77998E-12	751.951E-3	-18.6209E-3
342.671E-6	7.58833E-12	796.874E-3	-17.6340E-3	7.55103E-12	743.254E-3	-15.1394E-3
337.669E-6	7.37360E-12	794.184E-3	-24.2961E-3	7.18089E-12	719.946E-3	-27.2360E-3
332.666E-6	7.13012E-12	779.139E-3	-27.3917E-3	6.94308E-12	691.665E-3	-26.7453E-3
327.664E-6	6.80932E-12	761.005E-3	-29.9745E-3	6.82931E-12	668.530E-3	-23.9375E-3
322.661E-6	6.60592E-12	747.596E-3	-20.6001E-3	6.51685E-12	654.907E-3	-28.3574E-3
317.659E-6	6.39598E-12	721.237E-3	180.839E-6	6.38837E-12	642.466E-3	-26.8481E-3
312.656E-6	6.23956E-12	692.200E-3	7.56989E-3	6.12827E-12	624.616E-3	-28.5902E-3
307.654E-6	5.96005E-12	683.998E-3	-1.96686E-3	5.96994E-12	616.891E-3	-31.9793E-3
302.651E-6	5.68213E-12	673.657E-3	-5.42843E-3	5.85039E-12	601.116E-3	-28.0098E-3
297.649E-6	5.49571E-12	645.891E-3	-1.83641E-3	5.59976E-12	567.698E-3	-26.3760E-3
292.646E-6	5.40553E-12	623.555E-3	-2.82617E-3	5.38473E-12	547.591E-3	-28.0467E-3
287.644E-6	5.20808E-12	610.149E-3	-1.55140E-3	5.22672E-12	546.947E-3	-19.6468E-3
282.641E-6	4.86169E-12	598.006E-3	-9.24771E-3	5.03881E-12	542.847E-3	-11.6656E-3
277.639E-6	4.68476E-12	592.505E-3	-22.3658E-3	4.74148E-12	520.733E-3	-19.8926E-3
272.636E-6	4.63575E-12	575.693E-3	-21.4435E-3	4.60520E-12	493.100E-3	-28.3148E-3
267.634E-6	4.47517E-12	548.505E-3	-21.3949E-3	4.42764E-12	476.239E-3	-22.9244E-3
262.631E-6	4.19145E-12	535.770E-3	-23.0048E-3	4.24096E-12	465.020E-3	-13.8852E-3
257.629E-6	3.98892E-12	526.290E-3	-9.69646E-3	3.99404E-12	443.090E-3	-15.6823E-3
252.626E-6	3.93223E-12	503.505E-3	4.14084E-3	3.84246E-12	422.700E-3	-18.4600E-3
247.624E-6	3.81802E-12	489.149E-3	1.54497E-3	3.78152E-12	416.210E-3	-11.3150E-3
242.621E-6	3.65215E-12	491.844E-3	-11.1227E-3	3.64102E-12	409.798E-3	-7.46916E-3
237.619E-6	3.54095E-12	479.005E-3	-23.6127E-3	3.41108E-12	396.408E-3	-11.8762E-3
232.616E-6	3.39463E-12	456.265E-3	-41.9161E-3	3.33141E-12	376.338E-3	-18.8420E-3
227.614E-6	3.24070E-12	430.058E-3	-43.1469E-3	3.22396E-12	355.556E-3	-27.6846E-3
222.611E-6	3.03274E-12	402.975E-3	-20.4961E-3	3.00037E-12	350.589E-3	-37.3730E-3
217.609E-6	2.93284E-12	404.137E-3	-11.5707E-3	2.83076E-12	353.710E-3	-32.2095E-3
212.606E-6	2.79458E-12	410.546E-3	-7.05675E-3	2.76789E-12	346.471E-3	-10.4392E-3
207.604E-6	2.68922E-12	387.695E-3	-563.433E-6	2.71111E-12	329.255E-3	3.00227E-3
202.601E-6	2.56904E-12	361.584E-3	-9.11707E-3	2.53766E-12	314.752E-3	-4.39097E-3
197.599E-6	2.42072E-12	345.242E-3	-16.9503E-3	2.31802E-12	306.253E-3	-15.1492E-3
192.596E-6	2.35643E-12	328.237E-3	-19.7083E-3	2.30739E-12	298.046E-3	-17.1516E-3
187.594E-6	2.21961E-12	321.991E-3	-27.0344E-3	2.23951E-12	294.579E-3	-13.2808E-3
182.591E-6	2.10084E-12	325.147E-3	-25.5678E-3	2.08418E-12	278.291E-3	-11.6026E-3
177.589E-6	2.04196E-12	319.466E-3	-18.8369E-3	1.90409E-12	253.987E-3	-26.0939E-3
172.586E-6	1.95885E-12	294.615E-3	-17.7391E-3	1.91285E-12	250.990E-3	-37.9289E-3
167.584E-6	1.86340E-12	272.018E-3	-13.4022E-3	1.84119E-12	255.063E-3	-31.1214E-3
162.581E-6	1.68970E-12	261.859E-3	-13.2957E-3	1.71150E-12	245.332E-3	-12.9071E-3
157.579E-6	1.66859E-12	253.524E-3	-13.3374E-3	1.60704E-12	222.136E-3	3.69611E-3
152.576E-6	1.58244E-12	249.881E-3	-1.17544E-3	1.56736E-12	205.121E-3	-1.01374E-3
147.574E-6	1.46166E-12	244.118E-3	5.33554E-3	1.49641E-12	204.784E-3	-21.2965E-3
142.571E-6	1.38067E-12	233.025E-3	-7.53659E-3	1.42893E-12	202.859E-3	-28.8864E-3
137.569E-6	1.35602E-12	222.978E-3	-24.4794E-3	1.27748E-12	194.410E-3	-17.0258E-3
132.566E-6	1.21893E-12	214.295E-3	-21.2259E-3	1.22973E-12	186.679E-3	-12.0882E-3
127.564E-6	1.17444E-12	208.016E-3	-10.3243E-3	1.16009E-12	176.904E-3	-26.0009E-3
122.561E-6	1.09325E-12	208.314E-3	-16.7188E-3	1.06247E-12	164.460E-3	-32.5663E-3
117.559E-6	1.04175E-12	204.273E-3	-18.8840E-3	1.01167E-12	156.974E-3	-17.8575E-3
112.556E-6	931.560E-15	188.748E-3	-7.67957E-3	986.152E-15	155.187E-3	3.26216E-3
107.554E-6	877.779E-15	182.160E-3	-1.57593E-3	892.907E-15	155.725E-3	14.8977E-3
102.551E-6	825.760E-15	184.146E-3	-2.50398E-3	816.038E-15	157.819E-3	3.38386E-3
97.5488E-6	779.905E-15	179.998E-3	-6.96584E-3	773.584E-15	157.137E-3	-18.2947E-3
92.5463E-6	733.684E-15	173.911E-3	-10.4159E-3	785.468E-15	148.561E-3	-26.0204E-3
87.5438E-6	697.699E-15	159.955E-3	-13.4986E-3	648.148E-15	141.428E-3	-20.0319E-3
82.5413E-6	630.090E-15	144.324E-3	-16.6129E-3	571.357E-15	142.033E-3	-6.23737E-3
77.5388E-6	566.980E-15	153.538E-3	-14.9680E-3	608.858E-15	142.264E-3	4.88832E-3
72.5363E-6	550.893E-15	170.556E-3	-5.38139E-3	565.323E-15	152.875E-3	3.13220E-3
67.5338E-6	483.640E-15	163.724E-3	-6.72760E-3	468.512E-15	162.789E-3	-8.35372E-3
62.5313E-6	443.453E-15	149.290E-3	-24.6935E-3	367.578E-15	149.928E-3	-11.9608E-3
57.5288E-6	463.656E-15	146.484E-3	-27.4865E-3	378.477E-15	136.581E-3	1.86738E-3
52.5263E-6	350.566E-15	144.986E-3	-21.6239E-3	339.074E-15	139.760E-3	10.0497E-3
47.5238E-6	287.439E-15	141.318E-3	-20.7909E-3	247.277E-15	139.401E-3	-527.405E-6
42.5213E-6	265.876E-15	150.250E-3	-8.22200E-3	172.780E-15	132.022E-3	-9.34306E-3
37.5188E-6	191.195E-15	155.709E-3	-1.08028E-3	217.283E-15	130.825E-3	-10.1577E-3
32.5163E-6	149.639E-15	138.167E-3	-9.21673E-3	198.920E-15	134.935E-3	-11.0024E-3
27.5138E-6	105.728E-15	119.467E-3	-13.6072E-3	81.8722E-15	129.855E-3	-11.9066E-3
22.5113E-6	97.0264E-15	112.126E-3	-17.1629E-3	24.6038E-15	118.274E-3	-7.20227E-3
17.5088E-6	18.0120E-15	114.427E-3	-25.8472E-3	-23.0821E-15	119.764E-3	-5.01161E-3
12.5063E-6	-30.9644E-15	120.675E-3	-29.7056E-3	39.4266E-15	136.759E-3	-19.7471E-3
7.50375E-6	-77.3860E-15	118.727E-3	-19.2703E-3	-79.0688E-15	147.057E-3	-30.9637E-3
2.50125E-6	-139.834E-15	117.968E-3	-11.5352E-3	-172.749E-15	136.845E-3	-27.1698E-3
-2.50125E-6	-184.764E-15	129.680E-3	-18.1838E-3	-172.583E-15	130.375E-3	-27.9276E-3
-7.50375E-6	-213.869E-15	141.449E-3	-27.9817E-3	-214.715E-15	139.296E-3	-27.5036E-3
-12.5063E-6	-231.587E-15	136.759E-3	-40.3660E-3	-307.619E-15	143.308E-3	-15.1033E-3
-17.5088E-6	-283.005E-15	132.544E-3	-33.0587E-3	-312.764E-15	131.714E-3	-12.3025E-3
-22.5113E-6	-386.198E-15	128.835E-3	-11.5569E-3	-311.247E-15	122.380E-3	-12.4505E-3
-27.5138E-6	-435.627E-15	113.362E-3	-10.0636E-3	-438.583E-15	127.423E-3	-9.41329E-3
-32.5163E-6	-487.246E-15	118.163E-3	-18.9038E-3	-537.853E-15	148.010E-3	-15.0522E-3
-37.5188E-6	-542.422E-15	142.685E-3	-18.7640E-3	-529.255E-15	181.664E-3	-16.7969E-3
-42.5213E-6	-601.286E-15	156.647E-3	-22.3153E-3	-541.401E-15	198.643E-3	-16.7385E-3
-47.5238E-6	-636.163E-15	157.197E-3	-31.1146E-3	-640.845E-15	187.876E-3	-25.3220E-3
-52.5263E-6	-714.794E-15	150.063E-3	-28.3400E-3	-766.778E-15	183.975E-3	-29.6574E-3
-57.5288E-6	-697.303E-15	148.278E-3	-27.9299E-3	-729.599E-15	191.996E-3	-28.3629E-3
-62.5313E-6	-807.863E-15	163.520E-3	-39.8022E-3	-769.193E-15	196.977E-3	-28.7932E-3
-67.5338E-6	-882.536E-15	180.168E-3	-40.7374E-3	-902.180E-15	204.054E-3	-29.6605E-3
-72.5363E-6	-982.468E-15	189.415E-3	-31.0244E-3	-1.02471E-12	209.137E-3	-27.5766E-3
-77.5388E-6	-1.02032E-12	204.693E-3	-31.4952E-3	-1.03563E-12	218.583E-3	-20.3132E-3
-82.5413E-6	-1.10296E-12	216.588E-3	-29.1549E-3	-1.05012E-12	243.385E-3	-15.9753E-3
-87.5438E-6	-1.15692E-12	217.986E-3	-22.5233E-3	-1.15119E-12	264.595E-3	-12.3203E-3
-92.5463E-6	-1.21866E-12	220.853E-3	-31.6440E-3	-1.25019E-12	267.644E-3	-7.05704E-3
-97.5488E-6	-1.32402E-12	226.587E-3	-37.6928E-3	-1.31721E-12	261.376E-3	-5.14255E-3
-102.551E-6	-1.40657E-12	228.142E-3	-20.2166E-3	-1.38778E-12	265.089E-3	-14.8106E-3
-107.554E-6	-1.49483E-12	218.911E-3	-17.4746E-3	-1.49117E-12	281.922E-3	-28.0217E-3
-112.556E-6	-1.54691E-12	221.775E-3	-33.0877E-3	-1.63588E-12	294.245E-3	-27.0198E-3
-117.559E-6	-1.67763E-12	239.452E-3	-30.5165E-3	-1.70995E-12	295.961E-3	-18.8270E-3
-122.561E-6	-1.74479E-12	243.598E-3	-24.1257E-3	-1.75832E-12	294.908E-3	-16.7096E-3
-127.564E-6	-1.85508E-12	251.600E-3	-22.0635E-3	-1.92684E-12	308.264E-3	-20.5132E-3
-132.566E-6	-1.98140E-12	268.244E-3	-8.27890E-3	-1.99461E-12	336.111E-3	-24.7364E-3
-137.569E-6	-2.05755E-12	271.969E-3	2.55179E-3	-2.04670E-12	362.127E-3	-24.3958E-3
-142.571E-6	-2.18465E-12	282.586E-3	-9.65676E-3	-2.17286E-12	377.267E-3	-14.9178E-3
-147.574E-6	-2.37990E-12	309.020E-3	-20.8356E-3	-2.35882E-12	379.959E-3	-1.30421E-3
-152.576E-6	-2.38379E-12	325.963E-3	-15.1123E-3	-2.45266E-12	384.742E-3	481.114E-6
-157.579E-6	-2.55433E-12	337.196E-3	-11.0553E-3	-2.47022E-12	403.074E-3	-5.00332E-3
-162.581E-6	-2.60578E-12	353.561E-3	-13.1961E-3	-2.65985E-12	424.841E-3	-6.35277E-3
-167.584E-6	-2.80261E-12	356.008E-3	-13.9163E-3	-2.89604E-12	444.833E-3	-4.05894E-3
-172.586E-6	-2.92220E-12	368.902E-3	-9.53258E-3	-3.02358E-12	469.923E-3	547.503E-6
-177.589E-6	-3.07235E-12	403.955E-3	-7.71797E-3	-3.12517E-12	494.693E-3	-4.82562E-3
-182.591E-6	-3.28355E-12	418.146E-3	-16.5147E-3	-3.31868E-12	519.144E-3	-19.3517E-3
-187.594E-6	-3.44744E-12	426.537E-3	-32.7700E-3	-3.54573E-12	543.163E-3	-26.1865E-3
-192.596E-6	-3.54805E-12	447.051E-3	-40.4328E-3	-3.63470E-12	563.194E-3	-20.3100E-3
-197.599E-6	-3.77021E-12	464.977E-3	-33.4548E-3	-3.71000E-12	580.699E-3	-10.8580E-3
-202.601E-6	-3.95620E-12	488.587E-3	-24.0396E-3	-3.99345E-12	598.191E-3	-10.8285E-3
-207.604E-6	-4.14100E-12	510.704E-3	-19.8484E-3	-4.24861E-12	621.306E-3	-19.4353E-3
-212.606E-6	-4.36756E-12	523.125E-3	-13.4385E-3	-4.37971E-12	648.072E-3	-23.7466E-3
-217.609E-6	-4.52509E-12	542.087E-3	-9.07671E-3	-4.58925E-12	674.587E-3	-20.7130E-3
-222.611E-6	-4.75457E-12	566.015E-3	-15.8842E-3	-4.87714E-12	698.484E-3	-15.2046E-3
-227.614E-6	-5.02358E-12	590.774E-3	-18.4128E-3	-5.13142E-12	724.063E-3	-17.5139E-3
-232.616E-6	-5.24840E-12	628.464E-3	-20.1595E-3	-5.29716E-12	753.764E-3	-18.8123E-3
-237.619E-6	-5.46356E-12	665.427E-3	-21.8683E-3	-5.46223E-12	785.161E-3	-9.02875E-3
-242.621E-6	-5.78398E-12	682.367E-3	-16.1343E-3	-5.77047E-12	812.855E-3	-8.31575E-3
-247.624E-6	-6.04564E-12	704.500E-3	-16.7754E-3	-6.02443E-12	833.945E-3	-18.9712E-3
-252.626E-6	-6.30506E-12	742.906E-3	-19.7883E-3	-6.21153E-12	862.731E-3	-20.5720E-3
-257.629E-6	-6.57807E-12	770.490E-3	-17.7022E-3	-6.49910E-12	902.271E-3	-8.54097E-3
-262.631E-6	-6.93605E-12	791.332E-3	-22.2682E-3	-6.85559E-12	937.266E-3	-4.95517E-3
-267.634E-6	-7.23936E-12	820.296E-3	-31.7155E-3	-7.15731E-12	954.025E-3	-11.9626E-3
-272.636E-6	-7.53963E-12	849.262E-3	-31.0429E-3	-7.44099E-12	973.758E-3	-16.3104E-3
-277.639E-6	-7.80242E-12	887.775E-3	-21.5219E-3	-7.77633E-12	1.01327E+0	-21.0700E-3
-282.641E-6	-8.20581E-12	937.349E-3	-15.5070E-3	-8.14460E-12	1.06236E+0	-19.2533E-3
-287.644E-6	-8.56099E-12	971.044E-3	-11.0861E-3	-8.46812E-12	1.11568E+0	-14.7703E-3
-292.646E-6	-8.78454E-12	987.783E-3	-14.2608E-3	-8.78866E-12	1.15284E+0	-20.4572E-3
-297.649E-6	-9.10544E-12	1.00808E+0	-16.1207E-3	-9.30792E-12	1.17105E+0	-18.4748E-3
-302.651E-6	-9.51459E-12	1.03485E+0	-10.6351E-3	-9.80199E-12	1.19498E+0	-12.5806E-3
-307.654E-6	-9.85406E-12	1.06864E+0	-12.2581E-3	-10.0235E-12	1.22695E+0	-22.1056E-3
-312.656E-6	-10.1264E-12	1.11016E+0	-16.5891E-3	-10.2739E-12	1.25694E+0	-29.0840E-3
-317.659E-6	-10.5393E-12	1.14523E+0	-21.5518E-3	-10.6775E-12	1.29144E+0	-25.6580E-3
-322.661E-6	-10.9480E-12	1.17111E+0	-29.6215E-3	-11.2689E-12	1.33140E+0	-22.8265E-3
-327.664E-6	-11.3233E-12	1.20058E+0	-32.5023E-3	-11.4759E-12	1.36335E+0	-18.7851E-3
-332.666E-6	-11.7818E-12	1.23374E+0	-19.2939E-3	-11.8234E-12	1.39138E+0	-17.5177E-3
-337.669E-6	-12.2790E-12	1.26917E+0	-10.6910E-3	-12.1924E-12	1.41779E+0	-24.9709E-3
-342.671E-6	-12.8609E-12	1.31469E+0	-19.4610E-3	-12.7441E-12	1.43973E+0	-25.3051E-3
-347.674E-6	-13.3205E-12	1.36358E+0	-15.9948E-3	-13.2077E-12	1.47741E+0	-8.74127E-3
-352.676E-6	-13.7019E-12	1.40391E+0	2.23050E-3	-13.5066E-12	1.52698E+0	-4.54987E-3
-357.679E-6	-14.2297E-12	1.43301E+0	5.90200E-3	-13.9748E-12	1.56498E+0	-18.0276E-3
-362.681E-6	-14.9016E-12	1.45110E+0	-9.05815E-3	-14.6466E-12	1.59750E+0	-21.2041E-3
-367.684E-6	-15.4969E-12	1.47120E+0	-19.9263E-3	-15.1770E-12	1.63342E+0	-13.4220E-3
-372.686E-6	-15.8087E-12	1.51213E+0	-20.4218E-3	-15.5388E-12	1.66991E+0	-16.9969E-3
-377.689E-6	-16.5530E-12	1.55238E+0	-17.8686E-3	-16.2509E-12	1.70062E+0	-29.3949E-3
-382.691E-6	-17.0289E-12	1.58172E+0	-12.3785E-3	-16.9204E-12	1.72012E+0	-26.5208E-3
-387.694E-6	-17.5077E-12	1.62769E+0	-11.9475E-3	-17.4705E-12	1.74096E+0	-13.6858E-3
-392.696E-6	-18.0116E-12	1.67763E+0	-19.2887E-3	-18.0925E-12	1.77845E+0	-3.07832E-3
-397.699E-6	-18.6516E-12	1.70536E+0	-18.9725E-3	-18.6511E-12	1.81432E+0	-9.38266E-3
-402.701E-6	-19.1184E-12	1.72911E+0	-15.8251E-3	-19.1526E-12	1.82947E+0	-27.0152E-3
-407.704E-6	-19.5749E-12	1.75896E+0	-19.7038E-3	-19.7148E-12	1.84155E+0	-34.3060E-3
-412.706E-6	-20.2833E-12	1.77931E+0	-19.1171E-3	-20.5670E-12	1.85973E+0	-32.3970E-3
-417.709E-6	-20.7621E-12	1.79321E+0	-20.1465E-3	-21.0244E-12	1.87587E+0	-25.2225E-3
-422.711E-6	-21.4700E-12	1.80586E+0	-23.3074E-3	-21.4555E-12	1.90157E+0	-13.9358E-3
-427.714E-6	-22.0048E-12	1.81902E+0	-8.42338E-3	-21.9506E-12	1.93057E+0	-14.3493E-3
-432.716E-6	-22.3503E-12	1.84179E+0	233.189E-6	-22.5778E-12	1.94171E+0	-25.9462E-3
-437.719E-6	-23.2878E-12	1.87230E+0	-9.63037E-3	-23.4408E-12	1.94798E+0	-28.4973E-3
-442.721E-6	-24.1314E-12	1.89478E+0	-6.44516E-3	-23.9309E-12	1.96929E+0	-29.7763E-3
-447.724E-6	-24.4649E-12	1.91815E+0	-2.27761E-3	-24.3716E-12	1.99282E+0	-31.8507E-3
-452.726E-6	-25.0863E-12	1.95073E+0	-21.6501E-3	-25.0889E-12	2.01036E+0	-29.7002E-3
-457.729E-6	-26.1553E-12	1.97557E+0	-30.9160E-3	-26.1369E-12	2.04532E+0	-27.2692E-3
-462.731E-6	-26.7419E-12	1.99595E+0	-12.7464E-3	-26.7788E-12	2.08106E+0	-32.8819E-3
-467.734E-6	-27.1348E-12	2.02354E+0	5.70608E-3	-27.3490E-12	2.09280E+0	-39.0480E-3
-472.736E-6	-28.0800E-12	2.04976E+0	4.54354E-3	-28.0651E-12	2.08850E+0	-27.5640E-3
-477.739E-6	-28.6352E-12	2.06044E+0	-13.8602E-3	-29.0111E-12	2.08813E+0	-18.8709E-3
-482.741E-6	-29.2811E-12	2.06542E+0	-11.7578E-3	-29.7677E-12	2.10247E+0	-12.8148E-3
-487.744E-6	-30.1549E-12	2.07522E+0	7.21456E-3	-30.1724E-12	2.12056E+0	-4.04371E-3
-492.746E-6	-30.8512E-12	2.07571E+0	4.77804E-3	-30.9871E-12	2.13438E+0	-14.8767E-3
-497.749E-6	-31.3611E-12	2.08401E+0	-7.88919E-3	-31.8873E-12	2.13604E+0	-31.3212E-3
-502.751E-6	-32.1447E-12	2.10792E+0	-16.1014E-3	-32.7359E-12	2.14201E+0	-33.2395E-3
-507.754E-6	-32.8054E-12	2.12004E+0	-27.1774E-3	-32.9523E-12	2.16213E+0	-24.0863E-3
-512.756E-6	-33.5008E-12	2.12973E+0	-34.4788E-3	-33.8711E-12	2.17977E+0	-12.4586E-3
-517.759E-6	-34.0878E-12	2.14509E+0	-24.3410E-3	-34.6766E-12	2.18514E+0	-3.08160E-3
-522.761E-6	-34.9063E-12	2.13936E+0	-17.2605E-3	-35.3603E-12	2.18074E+0	-8.39525E-3
-527.764E-6	-35.4755E-12	2.13326E+0	-24.7278E-3	-36.4215E-12	2.16855E+0	-26.5795E-3
-532.766E-6	-36.3875E-12	2.13601E+0	-25.8046E-3	-36.8245E-12	2.16583E+0	-35.0950E-3
-537.769E-6	-37.1034E-12	2.12724E+0	-15.9341E-3	-37.6357E-12	2.17741E+0	-35.1519E-3
-542.771E-6	-37.7228E-12	2.12726E+0	-12.5947E-3	-38.2857E-12	2.16327E+0	-35.5557E-3
-547.774E-6	-38.5434E-12	2.13230E+0	-8.45743E-3	-38.9317E-12	2.14806E+0	-29.1566E-3
-552.776E-6	-39.1252E-12	2.13931E+0	-10.7153E-3	-39.4365E-12	2.16007E+0	-23.3939E-3
-557.779E-6	-39.6061E-12	2.14820E+0	-26.6348E-3	-39.4911E-12	2.14710E+0	-22.0501E-3
-562.781E-6	-40.3673E-12	2.14034E+0	-20.4342E-3	-41.1714E-12	2.10651E+0	-15.6062E-3
-567.784E-6	-41.4674E-12	2.12014E+0	-9.29622E-3	-42.0024E-12	2.07979E+0	-17.0144E-3
-572.786E-6	-42.4527E-12	2.10100E+0	-19.4489E-3	-42.5106E-12	2.07124E+0	-28.2202E-3
-577.789E-6	-43.1035E-12	2.09744E+0	-29.1983E-3	-42.7466E-12	2.05568E+0	-27.8862E-3
-582.791E-6	-43.8567E-12	2.09569E+0	-30.1112E-3	-43.7060E-12	2.01993E+0	-19.0113E-3
-587.794E-6	-44.1506E-12	2.08554E+0	-25.5777E-3	-44.5078E-12	1.98159E+0	-17.5153E-3
-592.796E-6	-45.5937E-12	2.07811E+0	-26.0752E-3	-45.0697E-12	1.95947E+0	-16.5501E-3
-597.799E-6	-46.1901E-12	2.06200E+0	-33.5548E-3	-45.0699E-12	1.96063E+0	-16.2239E-3
-602.801E-6	-46.3697E-12	2.05269E+0	-39.1925E-3	-45.5328E-12	1.96072E+0	-24.9918E-3
-607.804E-6	-46.6779E-12	2.04915E+0	-37.1180E-3	-46.3496E-12	1.94102E+0	-21.3493E-3
-612.806E-6	-47.8860E-12	2.01996E+0	-22.7819E-3	-47.1575E-12	1.93276E+0	-10.0602E-3
-617.809E-6	-49.0143E-12	1.99498E+0	-15.4965E-3	-48.1214E-12	1.92757E+0	-20.8400E-3
-622.811E-6	-49.3943E-12	1.99255E+0	-22.2749E-3	-49.0820E-12	1.89914E+0	-34.8833E-3
-627.814E-6	-49.4291E-12	1.98274E+0	-19.2041E-3	-49.5395E-12	1.88120E+0	-25.6824E-3
-632.816E-6	-49.9200E-12	1.95346E+0	-19.1925E-3	-50.2735E-12	1.88732E+0	-12.0938E-3
-637.819E-6	-51.0152E-12	1.91611E+0	-33.2166E-3	-51.1586E-12	1.87221E+0	-20.8148E-3
-642.821E-6	-51.4126E-12	1.89247E+0	-31.7404E-3	-52.1881E-12	1.82108E+0	-28.7970E-3
-647.824E-6	-51.7359E-12	1.86598E+0	-19.3605E-3	-52.9737E-12	1.76732E+0	-20.1562E-3
-652.826E-6	-52.5686E-12	1.83945E+0	-12.8161E-3	-53.2630E-12	1.74224E+0	-17.4055E-3
-657.829E-6	-53.1549E-12	1.83231E+0	-7.48568E-3	-53.2673E-12	1.73679E+0	-19.2327E-3
-662.831E-6	-53.7784E-12	1.82137E+0	-22.8261E-3	-53.5208E-12	1.71106E+0	-12.1304E-3
-667.834E-6	-54.4744E-12	1.80128E+0	-44.0224E-3	-54.8330E-12	1.66993E+0	-5.14934E-3
-672.836E-6	-55.4669E-12	1.76885E+0	-40.3133E-3	-54.8102E-12	1.63189E+0	-10.0065E-3
-677.839E-6	-55.5667E-12	1.73006E+0	-36.5119E-3	-54.8303E-12	1.58601E+0	-20.9962E-3
-682.841E-6	-56.5855E-12	1.70255E+0	-39.0436E-3	-55.4086E-12	1.54295E+0	-33.7125E-3
-687.844E-6	-57.5996E-12	1.67785E+0	-38.3363E-3	-55.8604E-12	1.52824E+0	-29.4750E-3
-692.846E-6	-57.8294E-12	1.65430E+0	-31.6862E-3	-56.0048E-12	1.52037E+0	-4.76673E-3
-697.849E-6	-58.0505E-12	1.63641E+0	-14.3126E-3	-56.3042E-12	1.49606E+0	-1.63914E-3
-702.851E-6	-58.6195E-12	1.61407E+0	-8.99905E-3	-57.4633E-12	1.46956E+0	-15.7939E-3
-707.854E-6	-59.3878E-12	1.58110E+0	-27.2342E-3	-57.7024E-12	1.44546E+0	-24.2433E-3
-712.856E-6	-59.5268E-12	1.55182E+0	-44.2859E-3	-58.3536E-12	1.42522E+0	-25.7286E-3
-717.859E-6	-59.9528E-12	1.52713E+0	-35.8365E-3	-59.2817E-12	1.39083E+0	-19.9895E-3
-722.861E-6	-60.3514E-12	1.49848E+0	-21.4825E-3	-60.5944E-12	1.34814E+0	-14.4528E-3
-727.864E-6	-60.5314E-12	1.46536E+0	-27.7025E-3	-60.9925E-12	1.31831E+0	-22.3990E-3
-732.866E-6	-61.2366E-12	1.43900E+0	-24.4955E-3	-61.2260E-12	1.29558E+0	-28.2350E-3
-737.869E-6	-60.5500E-12	1.41912E+0	-10.7713E-3	-62.0942E-12	1.28081E+0	-14.8507E-3
-742.871E-6	-60.8753E-12	1.37848E+0	-27.3667E-3	-62.4502E-12	1.27000E+0	-9.52606E-3
-747.874E-6	-61.8119E-12	1.32595E+0	-45.6150E-3	-63.4729E-12	1.23601E+0	-8.41018E-3
-752.876E-6	-62.1284E-12	1.29154E+0	-28.6737E-3	-63.2853E-12	1.18012E+0	6.41408E-3
-757.879E-6	-61.6360E-12	1.27344E+0	-8.97987E-3	-64.3832E-12	1.14318E+0	9.15596E-3
-762.881E-6	-62.3355E-12	1.25636E+0	-12.2567E-3	-63.8398E-12	1.12366E+0	-9.41775E-3
-767.884E-6	-63.3930E-12	1.22073E+0	-13.1376E-3	-64.3455E-12	1.09278E+0	-17.7573E-3
-772.886E-6	-63.5517E-12	1.16801E+0	-10.8319E-3	-64.5900E-12	1.05196E+0	-24.8177E-3
-777.889E-6	-63.9875E-12	1.13130E+0	-22.3828E-3	-64.8756E-12	1.01502E+0	-37.1662E-3
-782.891E-6	-64.3943E-12	1.10997E+0	-21.0547E-3	-64.8914E-12	980.695E-3	-29.3880E-3
-787.894E-6	-65.0315E-12	1.08725E+0	-5.33253E-3	-65.3188E-12	960.118E-3	-18.9892E-3
-792.896E-6	-65.1205E-12	1.06129E+0	-12.2795E-3	-65.6350E-12	952.108E-3	-26.4908E-3
-797.899E-6	-65.6985E-12	1.03409E+0	-38.9267E-3	-66.1470E-12	931.539E-3	-40.0078E-3
-802.901E-6	-66.0349E-12	1.01173E+0	-51.4414E-3	-67.3053E-12	910.878E-3	-43.9587E-3
-807.904E-6	-66.4650E-12	992.449E-3	-42.0149E-3	-67.0729E-12	892.169E-3	-32.5670E-3
-812.906E-6	-66.5283E-12	962.589E-3	-20.9479E-3	-67.4510E-12	855.533E-3	-15.7993E-3
-817.909E-6	-67.4581E-12	920.832E-3	-6.19590E-3	-67.8646E-12	810.055E-3	-140.006E-6
-822.911E-6	-67.5539E-12	890.577E-3	-5.69667E-3	-68.9981E-12	773.600E-3	6.19519E-3
-827.914E-6	-67.6918E-12	877.508E-3	-13.2586E-3	-68.9009E-12	750.729E-3	-9.41154E-3
-832.916E-6	-67.8412E-12	855.991E-3	-18.3988E-3	-68.4047E-12	737.317E-3	-17.3011E-3
-837.919E-6	-68.1451E-12	828.672E-3	-22.9882E-3	-69.0297E-12	726.861E-3	-9.42856E-3
-842.921E-6	-68.4961E-12	798.245E-3	-29.0302E-3	-69.0269E-12	704.076E-3	-7.69881E-3
-847.924E-6	-68.8470E-12	756.033E-3	-19.3401E-3	-69.8704E-12	667.710E-3	-7.63784E-3
-852.926E-6	-68.9319E-12	724.986E-3	-10.3715E-3	-69.2052E-12	636.402E-3	-7.90302E-3
-857.929E-6	-69.1412E-12	713.115E-3	-20.0400E-3	-69.3772E-12	617.979E-3	-3.25705E-3
-862.931E-6	-69.1452E-12	705.620E-3	-32.8407E-3	-68.9166E-12	604.582E-3	323.556E-6
-867.934E-6	-70.3094E-12	695.788E-3	-41.1579E-3	-69.3010E-12	593.384E-3	-9.29108E-3
-872.936E-6	-70.4490E-12	679.103E-3	-44.0930E-3	-69.5897E-12	577.142E-3	-27.6639E-3
-877.939E-6	-70.1154E-12	650.758E-3	-29.9107E-3	-69.6291E-12	561.118E-3	-31.8025E-3
-882.941E-6	-70.6155E-12	623.320E-3	-12.7963E-3	-70.3543E-12	546.279E-3	-16.0061E-3
-887.944E-6	-71.4593E-12	601.473E-3	-13.7657E-3	-70.6128E-12	514.284E-3	-9.51908E-3
-892.946E-6	-70.9710E-12	580.262E-3	-10.4176E-3	-70.9877E-12	489.995E-3	-20.0525E-3
-897.949E-6	-70.2780E-12	566.180E-3	3.41386E-3	-70.7517E-12	479.747E-3	-32.1704E-3
-902.951E-6	-70.1829E-12	549.952E-3	397.871E-6	-71.1236E-12	452.703E-3	-21.3508E-3
-907.954E-6	-70.6171E-12	527.253E-3	-13.0852E-3	-71.2058E-12	423.121E-3	-666.914E-6
-912.956E-6	-71.5732E-12	506.636E-3	-17.8370E-3	-71.4695E-12	410.549E-3	-3.66474E-3
-917.959E-6	-70.8687E-12	481.402E-3	-23.5917E-3	-71.1739E-12	394.337E-3	-10.1806E-3
-922.961E-6	-70.0374E-12	449.570E-3	-27.7065E-3	-71.6839E-12	376.512E-3	-3.11094E-3
-927.964E-6	-70.7817E-12	439.110E-3	-20.7237E-3	-72.3930E-12	372.101E-3	-4.32402E-3
-932.966E-6	-72.3125E-12	439.636E-3	-13.6972E-3	-71.5325E-12	365.778E-3	-15.2186E-3
-937.969E-6	-71.9159E-12	420.525E-3	-11.8410E-3	-71.2247E-12	370.070E-3	-23.5100E-3
-942.971E-6	-71.2599E-12	406.756E-3	-11.2222E-3	-71.1808E-12	384.219E-3	-25.5066E-3
-947.974E-6	-71.6894E-12	392.900E-3	-13.2208E-3	-72.1243E-12	377.516E-3	-30.5302E-3
-952.976E-6	-72.5677E-12	368.647E-3	-19.5582E-3	-72.3814E-12	356.029E-3	-40.3757E-3
-957.979E-6	-73.1349E-12	367.364E-3	-13.0200E-3	-72.0618E-12	343.912E-3	-34.6403E-3
-962.981E-6	-72.6765E-12	384.385E-3	1.26242E-3	-71.9727E-12	344.571E-3	-26.4212E-3
-967.984E-6	-73.1150E-12	382.730E-3	6.00038E-3	-72.3721E-12	342.496E-3	-34.9267E-3
-972.986E-6	-72.9893E-12	362.316E-3	1.68786E-3	-73.2563E-12	331.989E-3	-33.5522E-3
-977.989E-6	-73.5491E-12	341.155E-3	-7.53458E-3	-73.8543E-12	312.160E-3	-24.5808E-3
-982.991E-6	-73.6974E-12	324.550E-3	-11.6343E-3	-74.5388E-12	291.652E-3	-26.8865E-3
-987.994E-6	-73.0169E-12	324.346E-3	-19.6202E-3	-74.2951E-12	287.450E-3	-21.7051E-3
-992.997E-6	-73.1185E-12	332.785E-3	-25.7100E-3	-73.9309E-12	291.030E-3	-15.6787E-3
-997.999E-6	-73.6029E-12	328.685E-3	-27.5129E-3	-73.9005E-12	291.394E-3	-30.0074E-3
-1.00300E-3	-73.8627E-12	311.855E-3	-39.0959E-3	-74.4785E-12	285.863E-3	-40.6525E-3
-1.00800E-3	-73.0722E-12	298.480E-3	-31.4390E-3	-74.7470E-12	278.557E-3	-31.6769E-3
-1.01301E-3	-73.4173E-12	293.713E-3	-17.0466E-3	-74.3405E-12	275.534E-3	-28.7813E-3
-1.01801E-3	-74.0921E-12	294.402E-3	-25.6703E-3	-74.1323E-12	278.388E-3	-22.9870E-3
-1.02301E-3	-73.9009E-12	298.491E-3	-23.6868E-3	-73.4233E-12	283.675E-3	-6.84378E-3
-1.02801E-3	-73.5300E-12	291.502E-3	-7.33988E-3	-73.9725E-12	269.581E-3	-5.05844E-3
-1.03302E-3	-73.9376E-12	272.943E-3	-11.7692E-3	-73.8558E-12	243.902E-3	-10.5658E-3
-1.03802E-3	-73.6379E-12	256.407E-3	-23.0483E-3	-73.3295E-12	238.484E-3	-7.26407E-3
-1.04302E-3	-73.8888E-12	245.864E-3	-24.0351E-3	-73.3172E-12	254.301E-3	3.00004E-3
-1.04802E-3	-74.3411E-12	246.818E-3	-32.5757E-3	-73.6276E-12	265.218E-3	15.1109E-3
-1.05303E-3	-73.5896E-12	252.581E-3	-39.2209E-3	-74.7014E-12	257.313E-3	16.0531E-3
-1.05803E-3	-73.9913E-12	249.061E-3	-40.1435E-3	-74.7776E-12	248.828E-3	9.01734E-3
-1.06303E-3	-74.5034E-12	240.210E-3	-33.7505E-3	-75.7061E-12	251.345E-3	4.08712E-3
-1.06803E-3	-74.2823E-12	241.499E-3	-24.0051E-3	-76.0717E-12	259.068E-3	-7.00437E-3
-1.07304E-3	-74.1803E-12	256.907E-3	-22.9206E-3	-75.9231E-12	265.374E-3	-15.5804E-3
-1.07804E-3	-75.0654E-12	257.939E-3	-12.0862E-3	-76.2947E-12	278.727E-3	-12.2305E-3
-1.08304E-3	-75.0847E-12	237.365E-3	-8.55035E-3	-76.8837E-12	286.997E-3	-10.6158E-3
-1.08804E-3	-75.2194E-12	231.719E-3	-23.8563E-3	-76.6106E-12	278.665E-3	-21.9155E-3
-1.09305E-3	-75.9328E-12	249.120E-3	-20.0677E-3	-76.2881E-12	282.212E-3	-27.9914E-3
-1.09805E-3	-75.9713E-12	272.566E-3	-11.9887E-3	-76.4553E-12	293.535E-3	-23.4040E-3
-1.10305E-3	-76.2237E-12	283.070E-3	-22.1606E-3	-76.9788E-12	288.982E-3	-23.7307E-3
-1.10805E-3	-76.7151E-12	271.975E-3	-26.4798E-3	-76.4850E-12	288.980E-3	-24.6525E-3
-1.11306E-3	-76.7057E-12	267.639E-3	-21.4877E-3	-75.3991E-12	305.150E-3	-27.7538E-3
-1.11806E-3	-76.1718E-12	272.433E-3	-15.0156E-3	-75.0917E-12	314.319E-3	-26.2358E-3
-1.12306E-3	-76.8640E-12	268.404E-3	-21.0216E-3	-75.2840E-12	312.867E-3	-10.8567E-3
-1.12806E-3	-76.8063E-12	275.976E-3	-36.7136E-3	-75.3739E-12	309.371E-3	-9.24242E-3
-1.13307E-3	-76.2242E-12	289.933E-3	-34.1139E-3	-75.4531E-12	303.994E-3	-21.0054E-3
-1.13807E-3	-76.3497E-12	278.900E-3	-16.5035E-3	-75.2706E-12	303.341E-3	-18.3636E-3
-1.14307E-3	-76.3492E-12	268.528E-3	-8.19656E-3	-75.5180E-12	307.132E-3	-15.7671E-3
-1.14807E-3	-76.2096E-12	293.891E-3	-5.49745E-3	-75.9111E-12	311.599E-3	-15.6244E-3
-1.15308E-3	-76.2585E-12	324.468E-3	4.27408E-3	-76.1693E-12	322.159E-3	-4.91881E-3
-1.15808E-3	-76.3100E-12	322.265E-3	4.93895E-3	-76.6778E-12	335.378E-3	-9.11229E-3
-1.16308E-3	-76.2353E-12	309.136E-3	-5.32065E-3	-76.8876E-12	348.848E-3	-25.2342E-3
-1.16808E-3	-76.7515E-12	311.552E-3	-18.5134E-3	-76.5839E-12	368.583E-3	-30.0009E-3
-1.17309E-3	-76.5261E-12	336.340E-3	-32.7910E-3	-77.0198E-12	387.736E-3	-28.2279E-3
-1.17809E-3	-77.1226E-12	371.791E-3	-31.3217E-3	-77.1035E-12	384.889E-3	-22.0713E-3
-1.18309E-3	-77.2542E-12	379.152E-3	-15.8201E-3	-77.4877E-12	368.458E-3	-8.85468E-3
-1.18809E-3	-77.1495E-12	368.300E-3	-19.4024E-3	-77.0242E-12	371.123E-3	-703.281E-6
-1.19310E-3	-77.5025E-12	382.857E-3	-35.8009E-3	-76.7645E-12	389.916E-3	-4.74131E-3
-1.19810E-3	-78.0748E-12	405.313E-3	-33.5605E-3	-76.4297E-12	409.061E-3	-6.31353E-3
-1.20310E-3	-77.7680E-12	397.745E-3	-28.1093E-3	-77.0329E-12	432.798E-3	-2.20507E-3
-1.20810E-3	-77.9433E-12	383.680E-3	-30.0357E-3	-77.0791E-12	452.060E-3	-20.2543E-3
-1.21311E-3	-78.7472E-12	406.479E-3	-23.9560E-3	-76.5689E-12	458.693E-3	-48.6330E-3
-1.21811E-3	-78.6598E-12	442.565E-3	-12.1093E-3	-76.3571E-12	476.012E-3	-36.3452E-3
-1.22311E-3	-78.0254E-12	455.978E-3	-15.6866E-3	-77.2479E-12	502.848E-3	-1.11038E-3
-1.22811E-3	-78.0769E-12	449.942E-3	-22.3586E-3	-78.2417E-12	505.146E-3	8.69551E-3
-1.23312E-3	-79.0891E-12	441.401E-3	-11.0191E-3	-77.7584E-12	496.725E-3	-2.76870E-3
-1.23812E-3	-78.5663E-12	452.241E-3	-5.65549E-3	-78.2625E-12	504.135E-3	-13.3698E-3
-1.24312E-3	-78.5360E-12	472.155E-3	-14.2675E-3	-78.7154E-12	507.093E-3	-8.76145E-3
-1.24812E-3	-78.7039E-12	481.704E-3	-16.6723E-3	-79.4088E-12	517.690E-3	2.38990E-3
-1.25313E-3	-79.0596E-12	486.864E-3	-20.9825E-3	-79.8957E-12	538.094E-3	-55.9343E-6
-1.25813E-3	-79.1981E-12	496.930E-3	-24.4727E-3	-79.7373E-12	541.387E-3	-3.51541E-3
-1.26313E-3	-79.2762E-12	508.902E-3	-21.0862E-3	-79.1694E-12	552.577E-3	9.30191E-3
-1.26813E-3	-78.9205E-12	514.160E-3	-28.8327E-3	-79.7579E-12	576.322E-3	23.2310E-3
-1.27314E-3	-79.3550E-12	521.875E-3	-36.9462E-3	-79.9955E-12	590.292E-3	17.7873E-3
-1.27814E-3	-80.0236E-12	539.449E-3	-18.6159E-3	-79.3421E-12	600.864E-3	-6.55473E-3
-1.28314E-3	-80.1690E-12	553.105E-3	-2.51632E-3	-79.3429E-12	611.706E-3	-26.9583E-3
-1.28814E-3	-80.2857E-12	565.391E-3	-5.85781E-3	-79.6625E-12	613.900E-3	-32.0410E-3
-1.29315E-3	-80.7689E-12	583.788E-3	-5.84623E-3	-80.0103E-12	606.267E-3	-36.0113E-3
-1.29815E-3	-81.1955E-12	599.728E-3	-10.4075E-3	-79.8517E-12	604.203E-3	-35.8831E-3
-1.30315E-3	-81.5728E-12	610.827E-3	-16.4780E-3	-79.4960E-12	614.450E-3	-32.0958E-3
-1.30815E-3	-81.3257E-12	620.564E-3	-5.26320E-3	-80.1448E-12	633.039E-3	-24.0256E-3
-1.31316E-3	-81.6254E-12	628.585E-3	1.92948E-3	-81.2206E-12	652.901E-3	-10.4715E-3
-1.31816E-3	-81.4938E-12	628.585E-3	-15.5818E-3	-81.8665E-12	672.304E-3	-19.5595E-3
-1.32316E-3	-82.8463E-12	636.622E-3	-28.2013E-3	-81.3826E-12	693.308E-3	-38.0003E-3
-1.32816E-3	-82.4874E-12	656.895E-3	-17.7115E-3	-83.0469E-12	706.927E-3	-33.6785E-3
-1.33317E-3	-81.9459E-12	662.226E-3	-13.5175E-3	-84.1257E-12	721.761E-3	-21.5261E-3
-1.33817E-3	-82.0228E-12	670.239E-3	-21.4035E-3	-85.4276E-12	740.486E-3	-19.6584E-3
-1.34317E-3	-82.9324E-12	687.922E-3	-25.2851E-3	-85.5252E-12	749.534E-3	-17.8657E-3
-1.34817E-3	-82.6946E-12	694.583E-3	-23.5749E-3	-84.4582E-12	745.739E-3	-11.6131E-3
-1.35318E-3	-82.1975E-12	697.236E-3	-16.4748E-3	-84.3877E-12	741.439E-3	-13.5533E-3
-1.35818E-3	-82.1330E-12	699.677E-3	-7.69692E-3	-85.8102E-12	742.182E-3	-11.7873E-3
-1.36318E-3	-82.3906E-12	708.141E-3	-19.2228E-3	-86.4798E-12	749.667E-3	-6.84855E-3
-1.36818E-3	-83.4981E-12	730.291E-3	-48.1862E-3	-84.7379E-12	769.723E-3	-21.9220E-3
-1.37319E-3	-83.5312E-12	747.159E-3	-52.6679E-3	-83.7998E-12	785.199E-3	-38.3398E-3
-1.37819E-3	-83.5962E-12	755.256E-3	-36.9766E-3	-85.2617E-12	789.522E-3	-34.1516E-3
-1.38319E-3	-83.8191E-12	757.327E-3	-28.7429E-3	-85.9398E-12	790.169E-3	-23.5358E-3
-1.38819E-3	-85.4174E-12	763.078E-3	-26.1329E-3	-85.3438E-12	790.310E-3	-14.5104E-3
-1.39320E-3	-85.6626E-12	774.393E-3	-24.2049E-3	-84.7984E-12	798.544E-3	-22.2758E-3
-1.39820E-3	-85.2892E-12	770.187E-3	-19.8016E-3	-86.2714E-12	805.135E-3	-40.4621E-3
-1.40320E-3	-85.4661E-12	771.392E-3	-9.57498E-3	-86.7075E-12	809.572E-3	-35.8227E-3
-1.40820E-3	-86.7747E-12	788.743E-3	1.64887E-3	-86.3632E-12	821.384E-3	-11.5818E-3
-1.41321E-3	-87.6089E-12	812.023E-3	-9.05749E-3	-86.7518E-12	831.550E-3	-6.54830E-6
-1.41821E-3	-87.9495E-12	829.973E-3	-33.7718E-3	-87.5818E-12	842.319E-3	-8.12019E-3
-1.42321E-3	-88.0646E-12	821.684E-3	-41.7420E-3	-89.0097E-12	853.203E-3	-19.3441E-3
-1.42821E-3	-88.1159E-12	805.631E-3	-35.3678E-3	-88.1291E-12	853.512E-3	-29.8994E-3
-1.43322E-3	-88.8536E-12	808.907E-3	-18.4940E-3	-87.6914E-12	840.319E-3	-29.5582E-3
-1.43822E-3	-90.0355E-12	812.972E-3	-2.06845E-3	-87.9337E-12	837.265E-3	-21.7152E-3
-1.44322E-3	-89.2401E-12	803.077E-3	807.914E-6	-88.3978E-12	849.119E-3	-32.3131E-3
-1.44822E-3	-89.0254E-12	803.987E-3	-3.07731E-3	-88.0967E-12	849.562E-3	-42.7234E-3
-1.45323E-3	-89.1959E-12	824.104E-3	-15.8531E-3	-87.6895E-12	839.879E-3	-21.1773E-3
-1.45823E-3	-89.3562E-12	836.755E-3	-24.3912E-3	-87.2999E-12	834.157E-3	-1.01137E-3
-1.46323E-3	-89.4526E-12	831.501E-3	-10.1266E-3	-88.0180E-12	829.143E-3	-3.70215E-3
-1.46823E-3	-89.8928E-12	830.957E-3	-2.80687E-3	-89.3017E-12	826.198E-3	-10.5688E-3
-1.47324E-3	-88.9413E-12	839.987E-3	-16.4966E-3	-88.5830E-12	830.982E-3	-7.37649E-3
-1.47824E-3	-89.1095E-12	850.459E-3	-18.7719E-3	-88.0626E-12	840.945E-3	-3.95480E-3
-1.48324E-3	-90.1120E-12	847.494E-3	-11.9854E-3	-88.7317E-12	855.744E-3	-21.1975E-3
-1.48824E-3	-90.3047E-12	838.241E-3	-15.7487E-3	-90.1225E-12	861.540E-3	-48.9515E-3
-1.49325E-3	-90.2495E-12	850.191E-3	-12.7438E-3	-91.1016E-12	851.303E-3	-51.3230E-3
-1.49825E-3	-90.3293E-12	853.712E-3	1.57687E-3	-90.5143E-12	850.090E-3	-31.0163E-3
-1.50325E-3	-91.4088E-12	842.108E-3	164.612E-6	-90.8815E-12	869.598E-3	-25.5977E-3
-1.50825E-3	-91.9177E-12	845.827E-3	-20.4321E-3	-92.4368E-12	884.198E-3	-27.5986E-3
-1.51326E-3	-92.4085E-12	850.641E-3	-29.7014E-3	-93.4765E-12	872.738E-3	-28.4414E-3
-1.51826E-3	-92.7538E-12	851.243E-3	-31.8367E-3	-92.3833E-12	854.219E-3	-37.8090E-3
-1.52326E-3	-92.8795E-12	865.659E-3	-41.2179E-3	-92.5345E-12	852.296E-3	-38.1717E-3
-1.52826E-3	-93.6808E-12	877.677E-3	-26.7264E-3	-92.4949E-12	857.452E-3	-25.7782E-3
-1.53327E-3	-94.2153E-12	877.448E-3	647.034E-6	-93.1921E-12	856.055E-3	-15.8091E-3
-1.53827E-3	-94.5584E-12	874.918E-3	-7.25533E-3	-93.0794E-12	850.056E-3	-20.4901E-3
-1.54327E-3	-94.2180E-12	871.583E-3	-28.7132E-3	-91.9112E-12	842.855E-3	-30.1265E-3
-1.54827E-3	-94.0928E-12	862.554E-3	-31.2676E-3	-92.2799E-12	832.295E-3	-29.3006E-3
-1.55328E-3	-93.6096E-12	846.813E-3	-24.1005E-3	-93.2488E-12	829.253E-3	-25.5231E-3
-1.55828E-3	-93.7848E-12	845.546E-3	-9.61866E-3	-93.4985E-12	841.737E-3	-21.9583E-3
-1.56328E-3	-94.6755E-12	849.042E-3	-4.18931E-3	-93.3456E-12	852.783E-3	-15.5483E-3
-1.56828E-3	-94.1610E-12	842.279E-3	-21.0783E-3	-94.1735E-12	844.376E-3	-13.8078E-3
-1.57329E-3	-94.5054E-12	841.285E-3	-29.8533E-3	-95.1345E-12	834.870E-3	-19.4947E-3
-1.57829E-3	-94.6826E-12	840.697E-3	-24.1107E-3	-97.2437E-12	848.339E-3	-22.3961E-3
-1.58329E-3	-95.1094E-12	846.558E-3	-26.0266E-3	-96.9403E-12	860.170E-3	-10.8813E-3
-1.58829E-3	-95.1091E-12	870.416E-3	-30.7137E-3	-96.8871E-12	849.065E-3	11.8233E-3
-1.59330E-3	-95.4631E-12	890.449E-3	-26.0531E-3	-98.4266E-12	840.600E-3	12.2066E-3
-1.59830E-3	-96.0532E-12	880.651E-3	-16.8327E-3	-99.5475E-12	848.344E-3	-15.3497E-3
-1.60330E-3	-96.7453E-12	849.974E-3	-13.6172E-3	-100.011E-12	845.094E-3	-27.5135E-3
-1.60830E-3	-96.5243E-12	828.444E-3	-9.53992E-3	-98.9236E-12	827.688E-3	-15.5917E-3
-1.61331E-3	-96.9213E-12	827.023E-3	-14.1194E-3	-99.1501E-12	817.535E-3	-6.06423E-3
-1.61831E-3	-97.5655E-12	826.515E-3	-28.8074E-3	-99.2999E-12	816.934E-3	-8.34987E-3
-1.62331E-3	-97.5803E-12	808.700E-3	-29.6894E-3	-99.2001E-12	825.559E-3	-9.99874E-3
-1.62831E-3	-98.3698E-12	812.755E-3	-19.2490E-3	-99.1311E-12	839.511E-3	-7.25892E-3
-1.63332E-3	-98.6122E-12	842.509E-3	-4.75799E-3	-98.6807E-12	841.513E-3	-10.1579E-3
-1.63832E-3	-97.9995E-12	849.478E-3	-11.8272E-3	-98.5940E-12	836.739E-3	-10.2199E-3
-1.64332E-3	-98.4678E-12	831.507E-3	-42.3662E-3	-98.5262E-12	834.625E-3	-10.7530E-3
-1.64832E-3	-98.6172E-12	812.909E-3	-61.6344E-3	-100.192E-12	818.613E-3	-17.1719E-3
-1.65333E-3	-99.0816E-12	809.250E-3	-55.1808E-3	-99.6932E-12	791.422E-3	-17.3484E-3
-1.65833E-3	-99.4819E-12	814.644E-3	-28.8764E-3	-100.593E-12	788.787E-3	-16.9302E-3
-1.66333E-3	-100.058E-12	815.574E-3	-7.29210E-3	-100.888E-12	820.659E-3	-17.2534E-3
-1.66833E-3	-99.7519E-12	824.680E-3	-3.57128E-3	-102.117E-12	837.623E-3	-4.89457E-3
-1.67334E-3	-100.325E-12	840.882E-3	-10.2048E-3	-103.144E-12	835.802E-3	3.94280E-3
-1.67834E-3	-100.572E-12	835.478E-3	-21.6227E-3	-103.230E-12	840.150E-3	-5.67318E-3
-1.68334E-3	-101.682E-12	813.729E-3	-27.9777E-3	-103.517E-12	831.882E-3	-16.9481E-3
-1.68834E-3	-101.966E-12	799.613E-3	-25.4723E-3	-103.690E-12	808.713E-3	-17.4379E-3
-1.69335E-3	-101.975E-12	795.608E-3	-22.8410E-3	-104.645E-12	801.716E-3	-14.2255E-3
-1.69835E-3	-102.873E-12	803.917E-3	-15.4578E-3	-104.199E-12	804.944E-3	-11.4260E-3
-1.70335E-3	-103.447E-12	817.825E-3	-10.7417E-3	-104.785E-12	796.358E-3	-9.33086E-3
-1.70835E-3	-103.338E-12	827.804E-3	-9.65550E-3	-103.460E-12	780.456E-3	-16.8506E-3
-1.71336E-3	-103.581E-12	826.746E-3	15.2206E-3	-102.811E-12	762.254E-3	-22.5165E-3
-1.71836E-3	-103.154E-12	818.537E-3	25.3844E-3	-103.599E-12	755.540E-3	-22.3208E-3
-1.72336E-3	-103.805E-12	804.526E-3	-5.57799E-3	-104.499E-12	765.314E-3	-23.2681E-3
-1.72836E-3	-104.660E-12	785.145E-3	-19.9501E-3	-104.279E-12	768.111E-3	-21.1026E-3
-1.73337E-3	-104.743E-12	780.015E-3	-23.2132E-3	-102.341E-12	766.553E-3	-12.9789E-3
-1.73837E-3	-104.578E-12	787.186E-3	-48.1448E-3	-102.699E-12	780.164E-3	-20.5395E-3
-1.74337E-3	-104.670E-12	780.975E-3	-61.6513E-3	-105.560E-12	780.390E-3	-34.5179E-3
-1.74837E-3	-104.880E-12	757.019E-3	-50.7842E-3	-106.393E-12	759.956E-3	-19.8049E-3
-1.75338E-3	-105.472E-12	747.546E-3	-36.5950E-3	-104.622E-12	748.493E-3	-6.92631E-3
-1.75838E-3	-105.546E-12	751.124E-3	-21.9571E-3	-104.217E-12	748.596E-3	-18.2676E-3
-1.76338E-3	-105.902E-12	752.553E-3	650.137E-6	-106.187E-12	764.634E-3	-17.7732E-3
-1.76838E-3	-105.368E-12	757.077E-3	24.4808E-3	-107.617E-12	780.114E-3	-2.29358E-3
-1.77339E-3	-105.635E-12	758.219E-3	26.8395E-3	-106.975E-12	773.529E-3	-8.60710E-3
-1.77839E-3	-106.390E-12	763.129E-3	12.3383E-3	-106.638E-12	763.367E-3	-29.9010E-3
-1.78339E-3	-106.733E-12	776.089E-3	-8.23131E-3	-106.628E-12	764.057E-3	-37.6398E-3
-1.78839E-3	-106.753E-12	784.155E-3	-21.6084E-3	-106.772E-12	768.834E-3	-36.2909E-3
-1.79340E-3	-106.323E-12	780.460E-3	-11.6153E-3	-108.548E-12	763.558E-3	-22.6943E-3
-1.79840E-3	-107.015E-12	773.488E-3	-5.67746E-3	-107.559E-12	761.940E-3	-6.87987E-3
-1.80340E-3	-107.592E-12	776.390E-3	-11.6721E-3	-107.220E-12	775.102E-3	-22.0434E-3
-1.80840E-3	-107.463E-12	776.455E-3	6.17003E-3	-106.303E-12	772.397E-3	-41.2060E-3
-1.81341E-3	-106.965E-12	775.179E-3	14.7245E-3	-107.335E-12	759.266E-3	-20.5688E-3
-1.81841E-3	-107.678E-12	791.886E-3	-9.55458E-3	-108.207E-12	751.259E-3	5.07930E-3
-1.82341E-3	-108.644E-12	793.879E-3	-14.8804E-3	-107.836E-12	741.174E-3	2.32565E-3
-1.82841E-3	-108.373E-12	773.128E-3	4.09330E-3	-107.608E-12	746.350E-3	-10.4625E-3
-1.83342E-3	-109.272E-12	756.361E-3	13.5321E-3	-108.742E-12	765.274E-3	-18.2039E-3
-1.83842E-3	-108.992E-12	742.404E-3	-4.40217E-3	-111.419E-12	773.481E-3	-24.7744E-3
-1.84342E-3	-109.201E-12	748.321E-3	-30.5551E-3	-110.004E-12	766.334E-3	-24.3995E-3
-1.84842E-3	-110.381E-12	767.832E-3	-30.9085E-3	-109.182E-12	759.752E-3	-12.8092E-3
-1.85343E-3	-110.921E-12	766.288E-3	-7.22498E-3	-109.623E-12	749.152E-3	-3.47562E-3
-1.85843E-3	-110.980E-12	748.236E-3	9.55143E-3	-112.029E-12	738.380E-3	2.13661E-3
-1.86343E-3	-110.980E-12	744.445E-3	6.15854E-3	-112.418E-12	749.247E-3	-3.12416E-3
-1.86843E-3	-111.588E-12	751.930E-3	7.86506E-3	-110.701E-12	758.577E-3	-24.0139E-3
-1.87344E-3	-111.786E-12	739.023E-3	-356.323E-6	-110.667E-12	747.113E-3	-28.6662E-3
-1.87844E-3	-111.903E-12	733.337E-3	-17.6553E-3	-112.367E-12	742.318E-3	-12.4118E-3
-1.88344E-3	-111.726E-12	756.948E-3	6.61907E-3	-113.159E-12	736.798E-3	-7.49873E-3
-1.88844E-3	-111.476E-12	763.386E-3	23.4419E-3	-111.241E-12	723.385E-3	-1.63011E-3
-1.89345E-3	-111.711E-12	752.730E-3	-285.444E-6	-110.544E-12	732.633E-3	6.27197E-3
-1.89845E-3	-111.513E-12	763.234E-3	-24.6567E-3	-111.681E-12	738.251E-3	-15.7530E-3
-1.90345E-3	-111.314E-12	768.098E-3	-44.6979E-3	-113.146E-12	732.557E-3	-30.8199E-3
-1.90845E-3	-111.549E-12	748.245E-3	-46.3358E-3	-113.541E-12	748.520E-3	-15.4554E-3
-1.91346E-3	-112.446E-12	731.641E-3	-23.0719E-3	-112.236E-12	758.270E-3	-15.0110E-3
-1.91846E-3	-113.089E-12	727.198E-3	-11.7865E-3	-114.567E-12	750.681E-3	-18.0485E-3
-1.92346E-3	-113.700E-12	736.178E-3	-21.2268E-3	-115.738E-12	752.494E-3	1.17923E-3
-1.92846E-3	-113.344E-12	746.685E-3	-27.1803E-3	-116.809E-12	760.248E-3	-7.24248E-3
-1.93347E-3	-114.703E-12	739.487E-3	-30.1145E-3	-116.638E-12	763.031E-3	-31.0805E-3
-1.93847E-3	-115.902E-12	736.051E-3	-39.4194E-3	-116.946E-12	767.650E-3	-19.5808E-3
-1.94347E-3	-115.519E-12	744.788E-3	-34.9978E-3	-117.201E-12	760.393E-3	-17.1701E-3
-1.94847E-3	-115.214E-12	743.336E-3	-16.1567E-3	-117.642E-12	726.754E-3	-36.7274E-3
-1.95348E-3	-115.716E-12	734.420E-3	-18.9461E-3	-118.379E-12	710.361E-3	-31.4791E-3
-1.95848E-3	-115.526E-12	737.098E-3	-28.9473E-3	-116.645E-12	731.350E-3	-8.46098E-3
-1.96348E-3	-115.992E-12	738.921E-3	-20.9021E-3	-116.345E-12	743.860E-3	-326.817E-6
-1.96848E-3	-115.917E-12	739.769E-3	-27.5529E-3	-116.895E-12	738.788E-3	-1.07105E-3
-1.97349E-3	-115.257E-12	750.263E-3	-43.0237E-3	-117.374E-12	743.004E-3	-9.93157E-3
-1.97849E-3	-115.359E-12	741.039E-3	-29.7348E-3	-116.614E-12	743.199E-3	-22.0783E-3
-1.98349E-3	-115.725E-12	726.046E-3	-19.3962E-3	-115.775E-12	735.030E-3	-21.9302E-3
-1.98849E-3	-116.048E-12	741.457E-3	-30.9621E-3	-115.930E-12	741.689E-3	-24.4712E-3
-1.99350E-3	-115.960E-12	747.241E-3	-29.1278E-3	-117.340E-12	746.706E-3	-32.7944E-3
-1.99850E-3	-117.322E-12	733.829E-3	-21.5253E-3	-117.891E-12	726.553E-3	-23.1969E-3
-2.00350E-3	-117.245E-12	743.263E-3	-22.5448E-3	-117.371E-12	710.853E-3	-4.54777E-3
-2.00850E-3	-118.281E-12	756.590E-3	-25.0006E-3	-117.559E-12	712.379E-3	-3.12802E-3
-2.01351E-3	-119.000E-12	751.911E-3	-26.3489E-3	-118.375E-12	718.332E-3	-10.2449E-3
-2.01851E-3	-119.979E-12	747.569E-3	-25.8723E-3	-119.957E-12	729.553E-3	-25.2000E-3
-2.02351E-3	-120.683E-12	740.248E-3	-27.0763E-3	-119.228E-12	721.700E-3	-38.4442E-3
-2.02851E-3	-120.854E-12	724.228E-3	-17.8762E-3	-119.604E-12	707.942E-3	-36.2921E-3
-2.03352E-3	-120.857E-12	719.126E-3	-1.88945E-3	-119.992E-12	722.558E-3	-27.4247E-3
-2.03852E-3	-121.943E-12	738.508E-3	16.0114E-3	-120.299E-12	724.176E-3	-13.2071E-3
-2.04352E-3	-121.968E-12	754.769E-3	24.0867E-3	-120.708E-12	710.222E-3	9.17418E-3
-2.04852E-3	-121.626E-12	747.861E-3	3.85438E-3	-120.060E-12	712.458E-3	13.5336E-3
-2.05353E-3	-121.758E-12	740.108E-3	-13.7512E-3	-120.035E-12	699.047E-3	-18.1207E-3
-2.05853E-3	-120.988E-12	735.648E-3	-14.5016E-3	-119.171E-12	683.875E-3	-42.2910E-3
-2.06353E-3	-120.793E-12	732.771E-3	-17.5306E-3	-118.792E-12	691.073E-3	-35.3333E-3
-2.06853E-3	-121.106E-12	731.762E-3	-11.5704E-3	-119.113E-12	698.595E-3	-20.1254E-3
-2.07354E-3	-120.663E-12	727.003E-3	3.90323E-3	-118.900E-12	708.918E-3	-5.91793E-3
-2.07854E-3	-120.305E-12	729.020E-3	-13.3330E-3	-118.657E-12	716.922E-3	-4.25329E-3
-2.08354E-3	-119.817E-12	738.331E-3	-26.0551E-3	-119.385E-12	707.858E-3	-32.9777E-3
-2.08854E-3	-121.098E-12	729.397E-3	-1.49577E-3	-119.923E-12	707.035E-3	-52.7424E-3
-2.09355E-3	-121.108E-12	712.650E-3	-6.67650E-3	-120.870E-12	723.657E-3	-41.8563E-3
-2.09855E-3	-121.379E-12	719.086E-3	-40.1676E-3	-121.420E-12	738.787E-3	-35.5072E-3
-2.10355E-3	-121.606E-12	720.699E-3	-46.9976E-3	-122.809E-12	744.250E-3	-38.7495E-3
-2.10855E-3	-123.273E-12	697.120E-3	-26.3813E-3	-123.301E-12	743.153E-3	-23.7858E-3
-2.11356E-3	-123.733E-12	695.286E-3	-7.63068E-3	-124.255E-12	744.134E-3	-11.2117E-3
-2.11856E-3	-124.181E-12	719.481E-3	-5.21573E-3	-123.944E-12	731.001E-3	-11.5959E-3
-2.12356E-3	-124.259E-12	724.806E-3	-14.2956E-3	-125.053E-12	712.308E-3	4.82331E-3
-2.12856E-3	-125.039E-12	727.410E-3	-14.7016E-3	-124.501E-12	712.829E-3	-2.41618E-3
-2.13357E-3	-124.858E-12	739.008E-3	-2.17437E-3	-124.597E-12	700.158E-3	-22.4641E-3
-2.13857E-3	-125.116E-12	741.734E-3	-6.08119E-3	-124.979E-12	680.610E-3	-578.971E-6
-2.14357E-3	-125.193E-12	740.524E-3	-14.4978E-3	-125.532E-12	690.348E-3	-4.41443E-3
-2.14857E-3	-125.381E-12	739.013E-3	-12.2954E-3	-124.275E-12	709.109E-3	-33.9136E-3
-2.15358E-3	-125.834E-12	730.434E-3	-19.8413E-3	-124.834E-12	710.173E-3	-29.6538E-3
-2.15858E-3	-125.042E-12	720.901E-3	-27.7020E-3	-125.174E-12	708.046E-3	-24.0820E-3
-2.16358E-3	-124.682E-12	732.617E-3	-19.2713E-3	-123.868E-12	704.582E-3	-15.2962E-3
-2.16858E-3	-125.745E-12	736.807E-3	-1.77516E-3	-124.290E-12	688.098E-3	18.4902E-3
-2.17359E-3	-125.666E-12	719.759E-3	7.55453E-3	-124.687E-12	691.345E-3	33.0662E-3
-2.17859E-3	-125.229E-12	723.210E-3	-9.66380E-3	-125.255E-12	714.459E-3	10.2167E-3
-2.18359E-3	-125.395E-12	738.273E-3	-39.9109E-3	-124.489E-12	716.148E-3	-4.34586E-3
-2.18859E-3	-126.478E-12	738.179E-3	-50.0249E-3	-126.191E-12	713.786E-3	-3.71155E-3
-2.19360E-3	-126.102E-12	731.036E-3	-31.1216E-3	-127.665E-12	729.092E-3	-7.82436E-3
-2.19860E-3	-126.145E-12	722.853E-3	2.04616E-3	-127.393E-12	736.403E-3	-2.49036E-3
-2.20360E-3	-126.379E-12	710.607E-3	6.08244E-3	-128.655E-12	745.388E-3	13.5366E-3
-2.20860E-3	-126.931E-12	702.936E-3	2.10781E-3	-128.261E-12	751.201E-3	9.05929E-3
-2.21361E-3	-127.029E-12	702.224E-3	26.3609E-3	-128.329E-12	720.737E-3	-13.0847E-3
-2.21861E-3	-127.648E-12	689.560E-3	24.6683E-3	-128.610E-12	700.315E-3	-2.39435E-3
-2.22361E-3	-128.603E-12	677.087E-3	-12.2389E-3	-129.216E-12	710.764E-3	24.7184E-3
-2.22861E-3	-129.208E-12	694.129E-3	-25.5002E-3	-128.210E-12	703.160E-3	10.8624E-3
-2.23362E-3	-129.006E-12	711.867E-3	-2.94535E-3	-129.138E-12	699.450E-3	-14.4328E-3
-2.23862E-3	-130.094E-12	718.037E-3	6.47886E-3	-129.289E-12	725.692E-3	-12.2640E-3
-2.24362E-3	-131.461E-12	726.340E-3	-14.5034E-3	-129.378E-12	728.479E-3	-7.88574E-3
-2.24862E-3	-132.251E-12	731.447E-3	-28.3177E-3	-128.664E-12	700.621E-3	-11.0875E-3
-2.25363E-3	-131.960E-12	729.900E-3	-25.1736E-3	-128.210E-12	697.237E-3	-12.8210E-3
-2.25863E-3	-132.252E-12	713.451E-3	-20.4293E-3	-129.731E-12	715.465E-3	-19.2756E-3
-2.26363E-3	-133.108E-12	695.559E-3	-16.0509E-3	-129.292E-12	717.867E-3	-29.2749E-3
-2.26863E-3	-133.374E-12	696.580E-3	-19.9205E-3	-130.413E-12	711.334E-3	-28.7287E-3
-2.27364E-3	-133.474E-12	718.778E-3	-7.82196E-3	-130.352E-12	713.256E-3	-27.8673E-3
-2.27864E-3	-132.693E-12	739.122E-3	1.21126E-3	-131.658E-12	725.640E-3	-32.5210E-3
-2.28364E-3	-133.037E-12	727.417E-3	-17.5675E-3	-131.236E-12	743.059E-3	-31.2485E-3
-2.28864E-3	-133.922E-12	707.720E-3	-20.7082E-3	-131.664E-12	735.102E-3	-26.2155E-3
-2.29365E-3	-133.477E-12	708.188E-3	-23.3981E-3	-132.492E-12	704.430E-3	-13.9172E-3
-2.29865E-3	-133.059E-12	707.213E-3	-35.8144E-3	-133.673E-12	689.492E-3	-9.03850E-3
-2.30365E-3	-132.708E-12	698.269E-3	-30.8653E-3	-133.403E-12	696.785E-3	-31.3564E-3
-2.30865E-3	-132.320E-12	697.747E-3	-20.0718E-3	-132.109E-12	698.343E-3	-50.1295E-3
-2.31366E-3	-133.635E-12	709.540E-3	-30.5480E-3	-131.928E-12	691.221E-3	-51.1190E-3
-2.31866E-3	-133.948E-12	723.407E-3	-43.1418E-3	-131.890E-12	681.358E-3	-46.5751E-3
-2.32366E-3	-134.102E-12	722.958E-3	-33.1407E-3	-132.959E-12	674.015E-3	-34.7959E-3
-2.32866E-3	-132.960E-12	719.674E-3	-35.2534E-3	-131.896E-12	686.245E-3	-17.6130E-3
-2.33367E-3	-134.001E-12	728.625E-3	-55.8951E-3	-131.740E-12	692.543E-3	-7.43771E-3
-2.33867E-3	-135.415E-12	728.348E-3	-60.8147E-3	-133.067E-12	689.761E-3	-5.02978E-3
-2.34367E-3	-135.991E-12	723.321E-3	-57.5015E-3	-133.337E-12	700.344E-3	-10.0726E-3
-2.34867E-3	-134.583E-12	732.104E-3	-41.5400E-3	-133.816E-12	706.964E-3	-32.0295E-3
-2.35368E-3	-135.739E-12	727.250E-3	-14.6008E-3	-134.639E-12	708.162E-3	-39.7842E-3
-2.35868E-3	-136.370E-12	710.203E-3	-13.4129E-3	-135.656E-12	719.015E-3	-13.0690E-3
-2.36368E-3	-137.225E-12	709.050E-3	-16.1927E-3	-136.206E-12	724.599E-3	-7.46901E-3
-2.36868E-3	-136.550E-12	703.170E-3	-5.44276E-3	-138.613E-12	719.259E-3	-30.4358E-3
-2.37369E-3	-136.495E-12	689.550E-3	-8.17795E-3	-138.152E-12	731.311E-3	-29.6092E-3
-2.37869E-3	-136.565E-12	700.945E-3	-14.0303E-3	-138.526E-12	740.202E-3	-19.6730E-3
-2.38369E-3	-136.995E-12	722.385E-3	-4.36816E-3	-139.010E-12	715.916E-3	-34.0439E-3
-2.38869E-3	-136.127E-12	727.648E-3	-5.84926E-3	-139.816E-12	693.348E-3	-38.2548E-3
-2.39370E-3	-135.793E-12	717.472E-3	-19.3718E-3	-139.496E-12	685.865E-3	-27.1582E-3
-2.39870E-3	-135.050E-12	699.371E-3	-17.1886E-3	-138.136E-12	685.562E-3	-30.9810E-3
-2.40370E-3	-135.127E-12	686.023E-3	-20.3749E-3	-138.648E-12	689.187E-3	-24.2090E-3
-2.40870E-3	-135.287E-12	700.289E-3	-32.2030E-3	-139.300E-12	696.895E-3	-9.23754E-3
-2.41371E-3	-135.935E-12	718.366E-3	-27.5878E-3	-138.184E-12	712.071E-3	-10.8393E-3
-2.41871E-3	-135.773E-12	711.756E-3	-24.4473E-3	-137.787E-12	714.769E-3	-13.3881E-3
-2.42371E-3	-135.661E-12	708.522E-3	-25.6164E-3	-137.808E-12	712.852E-3	-8.73717E-3
-2.42871E-3	-136.533E-12	714.137E-3	2.97493E-3	-138.156E-12	706.696E-3	-18.6665E-3
-2.43372E-3	-138.702E-12	700.087E-3	25.6455E-3	-139.332E-12	694.391E-3	-34.6984E-3
-2.43872E-3	-138.639E-12	684.657E-3	-4.62537E-3	-139.166E-12	700.868E-3	-34.9990E-3
-2.44372E-3	-138.720E-12	703.276E-3	-38.4030E-3	-138.950E-12	717.097E-3	-34.1920E-3
-2.44872E-3	-139.349E-12	716.875E-3	-35.8074E-3	-139.952E-12	736.049E-3	-36.2879E-3
-2.45373E-3	-141.129E-12	715.173E-3	-26.6326E-3	-141.227E-12	757.767E-3	-30.8451E-3
-2.45873E-3	-142.317E-12	722.016E-3	-8.21040E-3	-141.810E-12	753.475E-3	-25.1107E-3
-2.46373E-3	-142.503E-12	727.415E-3	13.0951E-3	-141.264E-12	728.232E-3	-17.5848E-3
-2.46873E-3	-142.144E-12	731.717E-3	3.85564E-3	-141.720E-12	717.433E-3	-928.127E-6
-2.47374E-3	-143.363E-12	719.660E-3	-6.43507E-3	-141.559E-12	712.961E-3	-401.689E-6
-2.47874E-3	-144.353E-12	699.597E-3	-4.07493E-3	-141.767E-12	703.062E-3	-14.6151E-3
-2.48374E-3	-143.304E-12	698.459E-3	-8.98567E-3	-141.997E-12	703.445E-3	-24.9154E-3
-2.48874E-3	-141.961E-12	697.472E-3	-12.5034E-3	-141.085E-12	723.425E-3	-39.8933E-3
-2.49375E-3	-142.003E-12	680.263E-3	-5.72974E-3	-140.581E-12	732.114E-3	-33.0714E-3
-2.49875E-3	-142.567E-12	671.111E-3	-1.50588E-3	-141.043E-12	721.714E-3	569.066E-6
-2.50375E-3	-141.574E-12	690.734E-3	3.19162E-3	-141.730E-12	715.937E-3	12.4067E-3
-2.50875E-3	-140.787E-12	698.516E-3	9.52478E-3	-141.432E-12	709.002E-3	-338.204E-6
-2.51376E-3	-141.148E-12	676.628E-3	16.3505E-3	-141.168E-12	716.347E-3	-8.25433E-3
-2.51876E-3	-141.959E-12	672.419E-3	22.2800E-3	-141.626E-12	730.121E-3	-10.5863E-3
-2.52376E-3	-142.121E-12	690.436E-3	974.558E-6	-143.265E-12	702.365E-3	-23.1569E-3
-2.52876E-3	-141.808E-12	691.306E-3	-26.3502E-3	-143.569E-12	664.274E-3	-30.6743E-3
-2.53377E-3	-141.705E-12	677.110E-3	-21.5218E-3	-143.808E-12	682.133E-3	-22.1988E-3
-2.53877E-3	-141.645E-12	666.568E-3	2.64914E-3	-143.627E-12	715.980E-3	-14.9561E-3
-2.54377E-3	-143.212E-12	674.811E-3	8.46075E-3	-144.491E-12	712.706E-3	504.212E-6
-2.54877E-3	-143.778E-12	686.489E-3	-7.11694E-3	-144.687E-12	696.580E-3	14.1873E-3
-2.55378E-3	-144.790E-12	679.369E-3	-12.2865E-3	-145.530E-12	679.416E-3	-1.82442E-3
-2.55878E-3	-144.570E-12	691.600E-3	-13.1289E-3	-145.637E-12	663.561E-3	-12.3416E-3
-2.56378E-3	-144.915E-12	725.334E-3	-20.7686E-3	-144.965E-12	668.029E-3	-2.10223E-3
-2.56878E-3	-145.364E-12	748.114E-3	-23.9142E-3	-144.193E-12	676.837E-3	-8.29703E-3
-2.57379E-3	-145.916E-12	746.447E-3	-16.0069E-3	-144.682E-12	674.505E-3	-15.4435E-3
-2.57879E-3	-145.091E-12	721.232E-3	-8.88611E-3	-143.653E-12	681.491E-3	-11.7505E-3
-2.58379E-3	-146.087E-12	695.434E-3	-7.04435E-3	-143.366E-12	686.726E-3	-17.2900E-3
-2.58879E-3	-145.496E-12	677.168E-3	-3.66486E-3	-142.729E-12	673.692E-3	-16.7452E-3
-2.59380E-3	-146.096E-12	677.582E-3	-8.68229E-3	-143.591E-12	682.220E-3	-16.3739E-3
-2.59880E-3	-145.992E-12	688.570E-3	-9.71779E-3	-143.584E-12	704.846E-3	-23.2233E-3
-2.60380E-3	-146.681E-12	695.231E-3	-5.23068E-3	-144.575E-12	705.242E-3	-22.0733E-3
-2.60880E-3	-145.362E-12	704.994E-3	-5.63860E-3	-145.331E-12	712.241E-3	-19.5022E-3
-2.61381E-3	-145.837E-12	703.402E-3	49.3863E-6	-146.829E-12	728.533E-3	-21.6644E-3
-2.61881E-3	-146.998E-12	673.034E-3	-18.8971E-3	-146.625E-12	723.887E-3	-11.4799E-3
-2.62381E-3	-147.476E-12	661.384E-3	-56.4648E-3	-147.606E-12	709.025E-3	-5.10889E-3
-2.62881E-3	-145.875E-12	694.216E-3	-42.0521E-3	-148.866E-12	707.789E-3	-29.8135E-3
-2.63382E-3	-145.612E-12	718.691E-3	-11.4400E-3	-150.342E-12	712.839E-3	-50.4931E-3
-2.63882E-3	-146.337E-12	715.411E-3	-20.8995E-3	-149.755E-12	712.372E-3	-40.8847E-3
-2.64382E-3	-147.463E-12	703.832E-3	-31.6453E-3	-149.235E-12	706.334E-3	-39.6175E-3
-2.64882E-3	-147.787E-12	699.344E-3	-31.7297E-3	-150.009E-12	701.682E-3	-57.8785E-3
-2.65383E-3	-148.032E-12	699.543E-3	-30.9293E-3	-150.406E-12	715.474E-3	-43.5616E-3
-2.65883E-3	-148.014E-12	706.777E-3	-35.0147E-3	-148.634E-12	717.385E-3	-210.214E-6
-2.66383E-3	-149.809E-12	710.461E-3	-45.2945E-3	-148.071E-12	680.598E-3	21.0657E-3
-2.66883E-3	-150.529E-12	689.113E-3	-36.7863E-3	-147.791E-12	657.819E-3	14.9445E-3
-2.67384E-3	-150.327E-12	683.197E-3	-17.7452E-3	-147.796E-12	681.642E-3	5.77309E-3
-2.67884E-3	-149.212E-12	696.481E-3	6.21346E-3	-146.987E-12	690.974E-3	10.2004E-3
-2.68384E-3	-150.452E-12	680.897E-3	16.2675E-3	-146.934E-12	668.376E-3	23.5945E-3
-2.68884E-3	-151.501E-12	679.916E-3	-6.84036E-3	-146.930E-12	677.786E-3	23.2110E-3
-2.69385E-3	-152.196E-12	716.520E-3	-7.38970E-3	-147.808E-12	701.841E-3	10.5454E-3
-2.69885E-3	-151.750E-12	719.191E-3	3.57462E-3	-148.208E-12	701.957E-3	17.3219E-3
-2.70385E-3	-151.669E-12	691.499E-3	-21.7158E-3	-150.020E-12	704.275E-3	23.4685E-3
-2.70885E-3	-152.362E-12	687.554E-3	-21.4463E-3	-151.148E-12	705.269E-3	-8.60052E-3
-2.71386E-3	-153.158E-12	684.347E-3	6.59995E-3	-150.872E-12	689.729E-3	-35.1731E-3
-2.71886E-3	-153.025E-12	671.702E-3	-5.62429E-3	-152.285E-12	682.787E-3	-29.5865E-3
-2.72386E-3	-151.982E-12	686.431E-3	-26.4269E-3	-154.200E-12	679.685E-3	-31.2487E-3
-2.72886E-3	-152.325E-12	698.091E-3	-26.0546E-3	-154.333E-12	673.785E-3	-31.0639E-3
-2.73387E-3	-153.596E-12	681.912E-3	-28.6173E-3	-154.360E-12	683.185E-3	-8.45311E-3
-2.73887E-3	-153.289E-12	681.837E-3	-24.7010E-3	-154.878E-12	704.822E-3	1.98329E-3
-2.74387E-3	-153.313E-12	699.874E-3	-1.87915E-3	-154.409E-12	711.547E-3	-10.8291E-3
-2.74887E-3	-152.841E-12	695.746E-3	19.9662E-3	-154.778E-12	704.785E-3	-15.9959E-3
-2.75388E-3	-154.592E-12	686.371E-3	21.1097E-3	-154.796E-12	707.553E-3	-18.5777E-3
-2.75888E-3	-154.224E-12	691.880E-3	-282.828E-6	-155.096E-12	701.874E-3	-38.2900E-3
-2.76388E-3	-154.494E-12	694.557E-3	-18.8294E-3	-153.989E-12	689.347E-3	-44.2952E-3
-2.76888E-3	-153.898E-12	720.452E-3	-12.6753E-3	-153.720E-12	687.758E-3	-17.3634E-3
-2.77389E-3	-154.998E-12	751.835E-3	-3.84603E-3	-154.142E-12	684.935E-3	220.258E-6
-2.77889E-3	-154.956E-12	731.076E-3	-25.0918E-3	-154.372E-12	694.237E-3	-12.2973E-3
-2.78389E-3	-155.090E-12	697.045E-3	-46.6482E-3	-154.211E-12	717.998E-3	-42.0122E-3
-2.78889E-3	-154.611E-12	680.032E-3	-18.6687E-3	-155.002E-12	705.877E-3	-63.8025E-3
-2.79390E-3	-155.090E-12	669.654E-3	15.8038E-3	-155.576E-12	683.524E-3	-44.2725E-3
-2.79890E-3	-155.671E-12	686.666E-3	23.8069E-3	-155.965E-12	699.834E-3	-23.6702E-3
-2.80390E-3	-154.975E-12	697.353E-3	20.9507E-3	-156.433E-12	709.981E-3	-25.3114E-3
-2.80890E-3	-155.295E-12	673.522E-3	13.0547E-3	-157.212E-12	708.362E-3	-12.7450E-3
-2.81391E-3	-155.621E-12	663.817E-3	-1.94573E-3	-156.667E-12	723.373E-3	1.35428E-3
-2.81891E-3	-157.005E-12	682.217E-3	-11.9705E-3	-156.535E-12	724.616E-3	-20.9217E-3
-2.82391E-3	-156.602E-12	680.317E-3	-16.5753E-3	-157.477E-12	700.913E-3	-39.2162E-3
-2.82891E-3	-155.092E-12	678.091E-3	-13.6606E-3	-157.786E-12	684.139E-3	-19.4968E-3
-2.83392E-3	-155.309E-12	691.104E-3	8.67804E-3	-157.617E-12	677.338E-3	-7.44490E-3
-2.83892E-3	-157.307E-12	682.911E-3	11.8365E-3	-157.054E-12	665.865E-3	-1.32166E-3
-2.84392E-3	-156.320E-12	684.802E-3	-10.1472E-3	-156.581E-12	682.614E-3	9.01607E-3
-2.84892E-3	-156.275E-12	703.374E-3	-21.6013E-3	-156.680E-12	710.819E-3	-9.80153E-3
-2.85393E-3	-157.225E-12	699.175E-3	-18.6409E-3	-156.993E-12	697.392E-3	-40.3298E-3
-2.85893E-3	-158.011E-12	686.550E-3	-23.5656E-3	-158.019E-12	697.966E-3	-53.1188E-3
-2.86393E-3	-157.712E-12	694.568E-3	-28.2037E-3	-157.356E-12	728.706E-3	-64.9577E-3
-2.86893E-3	-158.367E-12	702.845E-3	-22.3081E-3	-158.946E-12	727.176E-3	-66.3299E-3
-2.87394E-3	-159.287E-12	699.770E-3	-18.0463E-3	-159.485E-12	698.685E-3	-41.1479E-3
-2.87894E-3	-159.964E-12	710.491E-3	-22.4896E-3	-160.481E-12	680.672E-3	-25.7087E-3
-2.88394E-3	-159.798E-12	724.664E-3	-31.3465E-3	-160.590E-12	680.601E-3	-30.8517E-3
-2.88894E-3	-159.680E-12	716.623E-3	-26.9023E-3	-159.796E-12	688.486E-3	-21.9837E-3
-2.89395E-3	-160.288E-12	695.716E-3	-2.04571E-3	-159.948E-12	708.954E-3	-12.6936E-3
-2.89895E-3	-160.723E-12	685.398E-3	9.51657E-3	-160.869E-12	714.031E-3	-17.8084E-3
-2.90395E-3	-159.832E-12	697.035E-3	-3.52238E-3	-160.160E-12	695.429E-3	-13.2654E-3
-2.90895E-3	-159.524E-12	708.757E-3	-13.1064E-3	-160.408E-12	687.241E-3	-7.84737E-3
-2.91396E-3	-159.745E-12	690.905E-3	-24.0784E-3	-160.218E-12	679.556E-3	-34.6868E-3
-2.91896E-3	-159.304E-12	673.613E-3	-33.1429E-3	-159.929E-12	686.505E-3	-74.3298E-3
-2.92396E-3	-159.167E-12	670.729E-3	-18.1127E-3	-159.682E-12	704.935E-3	-72.4972E-3
-2.92896E-3	-160.197E-12	664.268E-3	-5.30415E-3	-160.038E-12	690.813E-3	-36.1705E-3
-2.93397E-3	-159.624E-12	668.152E-3	-18.2138E-3	-160.079E-12	678.291E-3	-6.77142E-3
-2.93897E-3	-159.841E-12	679.885E-3	-13.9013E-3	-160.090E-12	706.489E-3	-2.31107E-3
-2.94397E-3	-159.982E-12	667.501E-3	-1.13664E-3	-160.668E-12	713.163E-3	-18.6678E-3
-2.94897E-3	-161.054E-12	646.876E-3	-21.7026E-3	-161.731E-12	698.370E-3	-18.6095E-3
-2.95398E-3	-160.884E-12	659.663E-3	-35.1217E-3	-163.899E-12	708.384E-3	-1.74415E-3
-2.95898E-3	-161.266E-12	673.092E-3	-26.8036E-3	-164.069E-12	714.969E-3	-11.9298E-3
-2.96398E-3	-161.327E-12	665.374E-3	-15.0116E-3	-165.086E-12	725.548E-3	-45.3340E-3
-2.96898E-3	-162.819E-12	673.626E-3	-13.0500E-3	-166.400E-12	742.643E-3	-57.2326E-3
-2.97399E-3	-162.475E-12	694.241E-3	-12.9326E-3	-167.250E-12	722.446E-3	-51.3171E-3
-2.97899E-3	-162.847E-12	695.309E-3	-16.5050E-3	-167.842E-12	674.517E-3	-35.5167E-3
-2.98399E-3	-164.087E-12	699.483E-3	-23.9790E-3	-167.566E-12	665.650E-3	3.65913E-3
-2.98899E-3	-163.997E-12	721.535E-3	-1.91015E-3	-167.614E-12	687.558E-3	17.0557E-3
-2.99400E-3	-164.854E-12	733.829E-3	15.2135E-3	-167.790E-12	684.273E-3	3.19601E-3
-2.99900E-3	-165.053E-12	735.162E-3	-16.7064E-3	-166.646E-12	667.241E-3	2.47806E-3
-3.00400E-3	-164.655E-12	717.482E-3	-53.0972E-3	-165.764E-12	670.181E-3	-6.70882E-3
-3.00900E-3	-164.430E-12	685.940E-3	-49.2024E-3	-165.376E-12	690.123E-3	-20.6211E-3
-3.01401E-3	-165.968E-12	694.235E-3	-30.3924E-3	-165.595E-12	699.301E-3	-3.80511E-3
-3.01901E-3	-166.848E-12	716.536E-3	-18.9197E-3	-164.705E-12	688.037E-3	11.5655E-3
-3.02401E-3	-165.711E-12	705.540E-3	-18.7180E-3	-163.924E-12	677.620E-3	-1.70543E-3
-3.02901E-3	-165.046E-12	694.992E-3	-29.8764E-3	-163.989E-12	676.193E-3	-5.68100E-3
-3.03402E-3	-166.314E-12	684.282E-3	-26.8576E-3	-164.768E-12	667.818E-3	5.89404E-3
-3.03902E-3	-166.387E-12	654.654E-3	-13.9544E-3	-164.511E-12	665.720E-3	9.51079E-3
-3.04402E-3	-166.126E-12	659.317E-3	-6.47828E-3	-166.130E-12	690.556E-3	621.460E-6
-3.04902E-3	-166.430E-12	698.438E-3	5.05239E-3	-167.714E-12	705.652E-3	-11.6077E-3
-3.05403E-3	-167.460E-12	704.003E-3	-5.60877E-3	-167.906E-12	702.591E-3	-16.7371E-3
-3.05903E-3	-168.143E-12	684.480E-3	-32.1182E-3	-169.337E-12	715.899E-3	-19.9903E-3
-3.06403E-3	-168.416E-12	680.354E-3	-26.2470E-3	-170.340E-12	714.526E-3	-23.4795E-3
-3.06903E-3	-167.613E-12	696.047E-3	-12.5085E-3	-171.212E-12	691.299E-3	-25.6900E-3
-3.07404E-3	-167.792E-12	713.472E-3	-19.8727E-3	-170.754E-12	685.284E-3	-13.6128E-3
-3.07904E-3	-169.200E-12	721.809E-3	-18.6687E-3	-170.562E-12	680.903E-3	-1.01038E-3
-3.08404E-3	-171.012E-12	712.469E-3	-3.37926E-3	-171.102E-12	663.143E-3	-13.3390E-3
-3.08904E-3	-170.634E-12	694.010E-3	-1.69349E-3	-170.602E-12	651.036E-3	-22.9202E-3
-3.09405E-3	-170.592E-12	695.298E-3	-16.5324E-3	-169.370E-12	652.082E-3	-14.6374E-3
-3.09905E-3	-171.065E-12	702.912E-3	-26.9419E-3	-167.274E-12	670.452E-3	-4.65676E-3
-3.10405E-3	-171.303E-12	706.239E-3	-33.8648E-3	-167.348E-12	668.735E-3	7.27172E-3
-3.10905E-3	-170.425E-12	709.303E-3	-33.4624E-3	-167.534E-12	649.029E-3	15.5168E-3
-3.11406E-3	-171.042E-12	692.578E-3	-22.8972E-3	-167.418E-12	671.488E-3	12.4913E-3
-3.11906E-3	-170.918E-12	659.443E-3	-25.0093E-3	-167.447E-12	696.987E-3	12.5767E-3
-3.12406E-3	-170.711E-12	665.025E-3	-28.5804E-3	-166.946E-12	713.289E-3	30.3440E-3
-3.12906E-3	-170.907E-12	707.587E-3	-15.9847E-3	-168.496E-12	718.796E-3	29.2828E-3
-3.13407E-3	-171.055E-12	710.254E-3	-10.0468E-3	-169.595E-12	691.739E-3	-10.9615E-3
-3.13907E-3	-170.970E-12	689.743E-3	-32.9569E-3	-170.746E-12	683.997E-3	-30.1866E-3
-3.14407E-3	-171.004E-12	687.578E-3	-49.5662E-3	-171.420E-12	679.901E-3	-30.7378E-3
-3.14907E-3	-171.516E-12	684.488E-3	-27.3559E-3	-172.295E-12	661.433E-3	-31.8674E-3
-3.15408E-3	-171.139E-12	685.436E-3	-5.24630E-3	-173.026E-12	669.783E-3	-27.5858E-3
-3.15908E-3	-171.031E-12	683.925E-3	1.49362E-3	-174.970E-12	700.545E-3	-42.4705E-3
-3.16408E-3	-172.585E-12	667.613E-3	13.9279E-3	-174.686E-12	701.169E-3	-44.7402E-3
-3.16908E-3	-172.674E-12	661.509E-3	20.0134E-3	-173.315E-12	667.224E-3	13.1927E-3
-3.17409E-3	-172.590E-12	681.052E-3	12.9963E-3	-173.836E-12	653.004E-3	43.7788E-3
-3.17909E-3	-172.850E-12	688.321E-3	-4.69593E-3	-174.056E-12	661.644E-3	-1.19217E-3
-3.18409E-3	-174.914E-12	674.892E-3	-26.0439E-3	-173.702E-12	681.213E-3	-25.2801E-3
-3.18909E-3	-174.916E-12	679.810E-3	-29.8271E-3	-172.740E-12	701.932E-3	-21.6541E-3
-3.19410E-3	-173.664E-12	682.359E-3	-22.9853E-3	-171.707E-12	683.216E-3	-34.6047E-3
-3.19910E-3	-173.194E-12	668.456E-3	-27.2964E-3	-172.670E-12	653.945E-3	-38.7289E-3
-3.20410E-3	-175.245E-12	676.170E-3	-35.1835E-3	-174.232E-12	666.839E-3	-22.1218E-3
-3.20910E-3	-174.205E-12	691.431E-3	-16.4275E-3	-173.885E-12	686.710E-3	-20.3398E-3
-3.21411E-3	-173.348E-12	690.387E-3	11.5285E-3	-173.328E-12	684.762E-3	-16.7258E-3
-3.21911E-3	-172.643E-12	689.119E-3	3.83695E-3	-174.488E-12	688.284E-3	-4.09621E-3
-3.22411E-3	-172.851E-12	693.867E-3	-9.90314E-3	-176.304E-12	693.497E-3	-10.7707E-3
-3.22911E-3	-172.760E-12	691.954E-3	-6.12335E-3	-177.820E-12	688.206E-3	-12.8027E-3
-3.23412E-3	-172.673E-12	691.696E-3	-27.8991E-3	-178.166E-12	692.655E-3	-17.5907E-3
-3.23912E-3	-172.998E-12	693.028E-3	-41.8149E-3	-178.244E-12	697.510E-3	-40.8582E-3
-3.24412E-3	-172.300E-12	667.846E-3	-13.9609E-3	-178.657E-12	695.011E-3	-54.8087E-3
-3.24912E-3	-173.876E-12	646.162E-3	-12.7799E-3	-180.154E-12	690.438E-3	-34.3877E-3
-3.25413E-3	-173.937E-12	659.275E-3	-44.2033E-3	-179.382E-12	690.644E-3	964.138E-6
-3.25913E-3	-173.743E-12	664.556E-3	-52.3885E-3	-178.983E-12	691.801E-3	12.1006E-3
-3.26413E-3	-174.448E-12	651.643E-3	-46.7287E-3	-178.289E-12	680.840E-3	4.95920E-3
-3.26913E-3	-175.474E-12	654.987E-3	-38.3156E-3	-177.752E-12	675.091E-3	-10.1645E-3
-3.27414E-3	-177.358E-12	668.931E-3	-21.4170E-3	-177.890E-12	676.740E-3	-28.1119E-3
-3.27914E-3	-178.589E-12	683.583E-3	-19.0315E-3	-177.945E-12	667.368E-3	-38.2627E-3
-3.28414E-3	-178.624E-12	704.365E-3	-21.0992E-3	-177.565E-12	672.941E-3	-49.8003E-3
-3.28914E-3	-179.202E-12	719.965E-3	-14.6236E-3	-177.561E-12	705.187E-3	-58.0432E-3
-3.29415E-3	-179.804E-12	703.149E-3	-19.3215E-3	-177.318E-12	706.076E-3	-35.0194E-3
-3.29915E-3	-180.551E-12	668.387E-3	-34.2189E-3	-177.567E-12	670.911E-3	-18.4423E-3
-3.30415E-3	-179.873E-12	664.294E-3	-42.4056E-3	-178.637E-12	668.287E-3	-29.3650E-3
-3.30915E-3	-179.092E-12	689.394E-3	-35.4128E-3	-179.250E-12	701.522E-3	-25.1663E-3
-3.31416E-3	-179.889E-12	705.515E-3	-19.1422E-3	-178.924E-12	705.837E-3	-17.0270E-3
-3.31916E-3	-180.158E-12	700.573E-3	-14.0393E-3	-180.357E-12	687.842E-3	-12.9692E-3
-3.32416E-3	-179.077E-12	685.058E-3	-16.9831E-3	-180.295E-12	695.583E-3	6.10101E-3
-3.32916E-3	-179.899E-12	681.358E-3	1.27315E-3	-179.973E-12	702.626E-3	-3.38852E-3
-3.33417E-3	-179.230E-12	690.390E-3	10.0206E-3	-178.754E-12	685.288E-3	-43.2599E-3
-3.33917E-3	-179.870E-12	689.850E-3	-18.9732E-3	-179.074E-12	672.685E-3	-49.2958E-3
-3.34417E-3	-179.592E-12	698.519E-3	-34.0110E-3	-179.249E-12	690.153E-3	-28.8054E-3
-3.34917E-3	-180.398E-12	713.768E-3	-27.5084E-3	-178.660E-12	706.160E-3	-18.4199E-3
-3.35418E-3	-180.057E-12	711.050E-3	-12.5824E-3	-178.285E-12	697.482E-3	-10.6665E-3
-3.35918E-3	-181.258E-12	707.687E-3	10.6106E-3	-179.159E-12	700.455E-3	-1.91295E-3
-3.36418E-3	-180.895E-12	697.898E-3	19.2084E-3	-180.933E-12	703.064E-3	-4.65257E-3
-3.36918E-3	-180.585E-12	672.629E-3	11.1577E-3	-180.649E-12	678.839E-3	-558.079E-6
-3.37419E-3	-182.067E-12	666.712E-3	2.78849E-3	-180.676E-12	666.854E-3	-11.7017E-3
-3.37919E-3	-184.585E-12	684.091E-3	-1.22545E-3	-182.085E-12	687.085E-3	-49.3630E-3
-3.38419E-3	-182.270E-12	694.757E-3	471.532E-6	-182.728E-12	697.469E-3	-50.7722E-3
-3.38919E-3	-182.310E-12	700.242E-3	-5.57520E-3	-183.082E-12	689.997E-3	-24.2708E-3
-3.39420E-3	-183.557E-12	701.317E-3	-13.2910E-3	-183.396E-12	688.486E-3	-15.6049E-3
-3.39920E-3	-183.781E-12	689.320E-3	-10.1313E-3	-183.748E-12	676.618E-3	-17.3981E-3
-3.40420E-3	-183.420E-12	690.018E-3	-4.63097E-3	-184.659E-12	658.590E-3	-21.7633E-3
-3.40920E-3	-183.134E-12	707.119E-3	838.955E-6	-185.807E-12	650.674E-3	-37.0886E-3
-3.41421E-3	-183.523E-12	712.364E-3	8.10533E-3	-185.302E-12	655.132E-3	-36.8235E-3
-3.41921E-3	-184.689E-12	695.508E-3	4.72822E-3	-184.634E-12	675.389E-3	-4.91242E-3
-3.42421E-3	-185.554E-12	666.458E-3	-16.4049E-3	-185.237E-12	683.096E-3	-5.89201E-3
-3.42921E-3	-185.375E-12	654.837E-3	-38.0569E-3	-183.991E-12	661.893E-3	-21.3400E-3
-3.43422E-3	-184.863E-12	669.187E-3	-53.9840E-3	-183.019E-12	641.961E-3	470.903E-6
-3.43922E-3	-185.293E-12	681.875E-3	-46.6138E-3	-182.541E-12	653.333E-3	-6.52259E-3
-3.44422E-3	-184.648E-12	682.315E-3	-17.3013E-3	-183.880E-12	661.166E-3	-54.9635E-3
-3.44922E-3	-185.552E-12	686.395E-3	4.19500E-3	-182.313E-12	653.352E-3	-59.0608E-3
-3.45423E-3	-184.694E-12	691.053E-3	17.9492E-3	-183.455E-12	650.875E-3	-10.4513E-3
-3.45923E-3	-183.627E-12	698.677E-3	18.0643E-3	-184.551E-12	658.547E-3	17.1330E-3
-3.46423E-3	-183.490E-12	692.906E-3	-9.83773E-3	-185.601E-12	695.706E-3	4.19644E-3
-3.46923E-3	-184.335E-12	670.307E-3	-33.1478E-3	-186.258E-12	723.426E-3	-26.2689E-3
-3.47424E-3	-184.887E-12	657.580E-3	-44.4611E-3	-187.119E-12	708.097E-3	-64.5746E-3
-3.47924E-3	-184.547E-12	659.413E-3	-47.6320E-3	-188.541E-12	696.719E-3	-79.8983E-3
-3.48424E-3	-184.621E-12	686.130E-3	-6.35186E-3	-189.540E-12	716.157E-3	-57.8701E-3
-3.48924E-3	-184.279E-12	709.808E-3	23.5015E-3	-191.053E-12	727.511E-3	-26.3873E-3
-3.49425E-3	-186.072E-12	693.140E-3	-28.1660E-3	-191.348E-12	721.716E-3	-13.6474E-3
-3.49925E-3	-186.375E-12	662.154E-3	-73.4094E-3	-191.749E-12	718.129E-3	-1.51399E-3
-3.50425E-3	-187.124E-12	657.046E-3	-42.6174E-3	-192.281E-12	710.962E-3	4.95640E-3
-3.50925E-3	-187.599E-12	663.393E-3	-9.80539E-3	-191.823E-12	703.461E-3	-18.3150E-3
-3.51426E-3	-188.933E-12	678.953E-3	-10.9144E-3	-190.315E-12	710.694E-3	-19.5231E-3
-3.51926E-3	-189.433E-12	705.462E-3	-8.32654E-3	-189.284E-12	725.859E-3	12.7889E-3
-3.52426E-3	-191.099E-12	706.579E-3	-10.3023E-3	-189.549E-12	713.039E-3	15.2843E-3
-3.52926E-3	-191.398E-12	684.436E-3	-23.8387E-3	-188.279E-12	686.893E-3	-23.6864E-3
-3.53427E-3	-191.076E-12	669.753E-3	-21.5510E-3	-188.763E-12	674.197E-3	-53.4245E-3
-3.53927E-3	-190.414E-12	670.301E-3	-13.7044E-3	-188.424E-12	665.871E-3	-48.8448E-3
-3.54427E-3	-191.179E-12	688.798E-3	-23.3531E-3	-189.102E-12	675.074E-3	-26.8046E-3
-3.54927E-3	-190.408E-12	703.128E-3	-26.7884E-3	-189.040E-12	697.057E-3	-4.24059E-3
-3.55428E-3	-190.441E-12	708.317E-3	-19.9110E-3	-190.659E-12	718.001E-3	10.2946E-3
-3.55928E-3	-189.797E-12	711.147E-3	-29.1948E-3	-190.546E-12	718.543E-3	13.1605E-3
-3.56428E-3	-190.254E-12	695.821E-3	-34.6204E-3	-191.331E-12	697.200E-3	13.9713E-3
-3.56928E-3	-189.471E-12	667.400E-3	-25.8141E-3	-192.529E-12	691.836E-3	16.0487E-3
-3.57429E-3	-190.017E-12	630.738E-3	-7.48028E-3	-193.561E-12	712.269E-3	10.7715E-3
-3.57929E-3	-188.872E-12	626.631E-3	18.6315E-3	-194.170E-12	731.604E-3	-6.88008E-3
-3.58429E-3	-189.436E-12	659.006E-3	20.4657E-3	-195.209E-12	712.757E-3	-12.5962E-3
-3.58929E-3	-190.170E-12	679.448E-3	-6.16220E-3	-195.045E-12	682.923E-3	-1.54454E-3
-3.59430E-3	-191.122E-12	682.690E-3	-26.2175E-3	-193.896E-12	680.233E-3	-1.64963E-3
-3.59930E-3	-190.352E-12	673.117E-3	-13.5292E-3	-195.907E-12	681.370E-3	-14.6054E-3
-3.60430E-3	-192.446E-12	658.500E-3	-4.42296E-3	-195.054E-12	678.972E-3	-21.8265E-3
-3.60930E-3	-193.250E-12	684.847E-3	-28.6317E-3	-192.726E-12	678.993E-3	-15.5892E-3
-3.61431E-3	-194.322E-12	733.480E-3	-27.8316E-3	-191.935E-12	674.088E-3	-23.3620E-3
-3.61931E-3	-195.011E-12	717.276E-3	-11.8312E-3	-193.087E-12	669.300E-3	-28.6096E-3
-3.62431E-3	-196.289E-12	675.503E-3	-21.5004E-3	-193.223E-12	677.918E-3	-16.0517E-3
-3.62931E-3	-195.904E-12	687.505E-3	-20.0889E-3	-192.529E-12	698.463E-3	-21.2794E-3
-3.63432E-3	-195.443E-12	705.265E-3	-12.6238E-3	-191.450E-12	698.161E-3	-18.8983E-3
-3.63932E-3	-195.392E-12	695.713E-3	-15.9864E-3	-191.789E-12	692.297E-3	-2.88068E-3
-3.64432E-3	-195.148E-12	683.784E-3	-7.17612E-3	-192.961E-12	689.218E-3	-13.3378E-3
-3.64932E-3	-194.499E-12	676.610E-3	-902.048E-6	-193.773E-12	657.883E-3	-23.2771E-3
-3.65433E-3	-194.199E-12	683.155E-3	-2.66922E-3	-194.628E-12	656.311E-3	-21.9968E-3
-3.65933E-3	-194.074E-12	691.054E-3	-11.7411E-3	-194.790E-12	694.874E-3	-21.2541E-3
-3.66433E-3	-193.619E-12	695.765E-3	-50.5304E-3	-194.892E-12	700.541E-3	5.67761E-3
-3.66933E-3	-192.881E-12	708.853E-3	-76.5425E-3	-195.635E-12	685.848E-3	24.8851E-3
-3.67434E-3	-193.253E-12	710.687E-3	-51.6770E-3	-197.237E-12	680.143E-3	10.0367E-3
-3.67934E-3	-194.118E-12	686.384E-3	-16.3905E-3	-197.136E-12	672.978E-3	14.6714E-3
-3.68434E-3	-194.252E-12	651.750E-3	-7.66328E-3	-195.886E-12	663.122E-3	13.5963E-3
-3.68934E-3	-194.643E-12	639.958E-3	-17.6258E-3	-196.711E-12	676.889E-3	-35.1539E-3
-3.69435E-3	-195.979E-12	653.652E-3	-35.5743E-3	-197.145E-12	708.473E-3	-74.0983E-3
-3.69935E-3	-197.176E-12	677.065E-3	-42.6117E-3	-196.975E-12	696.921E-3	-55.4598E-3
-3.70435E-3	-198.627E-12	691.820E-3	-25.4161E-3	-196.145E-12	649.255E-3	-19.8993E-3
-3.70935E-3	-199.140E-12	678.378E-3	-10.4706E-3	-195.901E-12	630.769E-3	-11.9121E-3
-3.71436E-3	-198.390E-12	663.357E-3	-17.7356E-3	-196.018E-12	646.561E-3	-12.4152E-3
-3.71936E-3	-197.879E-12	676.908E-3	-18.6168E-3	-196.909E-12	658.712E-3	-27.8260E-3
-3.72436E-3	-198.930E-12	685.724E-3	7.84085E-3	-197.634E-12	665.731E-3	-34.0033E-3
-3.72936E-3	-198.593E-12	671.546E-3	20.0170E-3	-197.083E-12	664.043E-3	-15.6739E-3
-3.73437E-3	-198.394E-12	684.044E-3	-358.259E-6	-197.653E-12	659.813E-3	-18.0351E-3
-3.73937E-3	-197.493E-12	707.905E-3	2.00891E-3	-198.681E-12	682.472E-3	-44.2216E-3
-3.74437E-3	-198.061E-12	702.662E-3	17.3360E-3	-198.737E-12	700.956E-3	-27.1522E-3
-3.74937E-3	-199.060E-12	694.518E-3	9.83545E-3	-198.976E-12	701.427E-3	36.1466E-3
-3.75438E-3	-199.591E-12	700.837E-3	9.97473E-3	-200.272E-12	692.432E-3	46.9653E-3
-3.75938E-3	-199.871E-12	713.454E-3	19.7702E-3	-201.057E-12	687.414E-3	33.5549E-3
-3.76438E-3	-198.725E-12	706.762E-3	-3.03953E-3	-200.082E-12	697.603E-3	30.8343E-3
-3.76938E-3	-200.280E-12	690.022E-3	-46.0232E-3	-201.377E-12	695.375E-3	-5.80212E-3
-3.77439E-3	-200.274E-12	691.976E-3	-52.3753E-3	-201.952E-12	673.909E-3	-18.7306E-3
-3.77939E-3	-200.654E-12	694.676E-3	-28.0277E-3	-200.660E-12	683.179E-3	7.72441E-3
-3.78439E-3	-199.413E-12	701.187E-3	-8.63413E-3	-201.630E-12	705.071E-3	-7.70969E-3
-3.78939E-3	-199.964E-12	701.937E-3	7.33732E-3	-201.807E-12	682.501E-3	-41.9305E-3
-3.79440E-3	-201.064E-12	678.415E-3	13.3043E-3	-202.653E-12	658.715E-3	-33.4965E-3
-3.79940E-3	-201.143E-12	663.262E-3	13.3255E-3	-202.903E-12	662.896E-3	-19.3118E-3
-3.80440E-3	-199.689E-12	675.743E-3	11.3309E-3	-203.522E-12	665.645E-3	-39.6223E-3
-3.80940E-3	-199.347E-12	697.738E-3	-24.3715E-3	-203.718E-12	654.038E-3	-61.9913E-3
-3.81441E-3	-200.447E-12	696.430E-3	-70.2401E-3	-204.770E-12	657.690E-3	-41.2327E-3
-3.81941E-3	-200.396E-12	670.869E-3	-75.5972E-3	-205.752E-12	690.842E-3	6.74251E-3
-3.82441E-3	-200.509E-12	665.942E-3	-48.5357E-3	-204.663E-12	719.448E-3	41.0505E-3
-3.82941E-3	-200.675E-12	689.914E-3	-21.2013E-3	-204.988E-12	715.928E-3	31.4853E-3
-3.83442E-3	-201.173E-12	707.708E-3	-20.6361E-3	-205.053E-12	702.927E-3	-8.51161E-3
-3.83942E-3	-203.242E-12	703.606E-3	-25.5413E-3	-205.370E-12	700.567E-3	-23.3341E-3
-3.84442E-3	-202.800E-12	698.967E-3	-1.08925E-3	-204.614E-12	715.175E-3	-16.7079E-3
-3.84942E-3	-203.187E-12	692.025E-3	20.4544E-3	-204.771E-12	719.671E-3	-15.8579E-3
-3.85443E-3	-205.102E-12	678.536E-3	25.5104E-3	-203.789E-12	687.317E-3	-9.05596E-3
-3.85943E-3	-206.781E-12	680.175E-3	17.9394E-3	-202.971E-12	647.426E-3	-4.97793E-3
-3.86443E-3	-205.876E-12	680.088E-3	-17.7005E-3	-202.272E-12	640.233E-3	-18.2313E-3
-3.86943E-3	-207.317E-12	671.037E-3	-50.0439E-3	-203.221E-12	674.713E-3	-20.3891E-3
-3.87444E-3	-207.035E-12	672.199E-3	-34.5120E-3	-202.227E-12	708.677E-3	5.99527E-3
-3.87944E-3	-206.704E-12	671.145E-3	-2.79817E-3	-201.620E-12	706.906E-3	12.4679E-3
-3.88444E-3	-206.503E-12	679.069E-3	-457.345E-6	-202.053E-12	697.380E-3	-16.6068E-3
-3.88944E-3	-206.358E-12	696.696E-3	499.835E-6	-203.010E-12	697.583E-3	-41.5818E-3
-3.89445E-3	-206.074E-12	707.955E-3	13.9836E-3	-204.752E-12	692.611E-3	-35.5100E-3
-3.89945E-3	-206.114E-12	726.687E-3	14.8919E-3	-206.052E-12	673.022E-3	-3.26950E-3
-3.90445E-3	-205.194E-12	735.996E-3	5.15229E-3	-205.805E-12	650.533E-3	11.5869E-3
-3.90945E-3	-203.590E-12	729.342E-3	-22.4378E-3	-207.135E-12	662.894E-3	-8.30607E-3
-3.91446E-3	-205.716E-12	708.235E-3	-34.7251E-3	-208.447E-12	694.042E-3	-35.8950E-3
-3.91946E-3	-206.844E-12	696.178E-3	-30.7167E-3	-209.230E-12	700.205E-3	-42.8645E-3
-3.92446E-3	-205.548E-12	709.986E-3	-57.6004E-3	-208.830E-12	692.752E-3	-23.8092E-3
-3.92946E-3	-206.043E-12	716.486E-3	-70.8884E-3	-209.254E-12	686.317E-3	-18.4717E-3
-3.93447E-3	-208.363E-12	700.300E-3	-52.6326E-3	-209.249E-12	679.194E-3	-33.6788E-3
-3.93947E-3	-209.532E-12	694.153E-3	-34.4779E-3	-208.190E-12	691.213E-3	-19.2571E-3
-3.94447E-3	-210.368E-12	711.875E-3	-17.4280E-3	-208.516E-12	698.699E-3	4.71198E-3
-3.94947E-3	-210.923E-12	713.395E-3	-18.2802E-3	-208.457E-12	676.615E-3	12.0788E-3
-3.95448E-3	-211.435E-12	688.123E-3	-21.2180E-3	-207.979E-12	668.842E-3	-6.48698E-3
-3.95948E-3	-212.951E-12	662.184E-3	-23.6091E-3	-206.416E-12	679.448E-3	-28.8741E-3
-3.96448E-3	-214.444E-12	669.398E-3	-43.4188E-3	-206.999E-12	666.951E-3	-18.7731E-3
-3.96948E-3	-212.244E-12	693.070E-3	-45.4416E-3	-207.227E-12	644.244E-3	-12.6965E-3
-3.97449E-3	-211.202E-12	689.236E-3	-26.9983E-3	-207.450E-12	635.031E-3	-4.98994E-3
-3.97949E-3	-212.005E-12	677.076E-3	-15.3755E-3	-207.235E-12	629.491E-3	-3.05136E-3
-3.98449E-3	-212.027E-12	669.497E-3	-19.6874E-3	-207.652E-12	635.134E-3	-32.3416E-3
-3.98949E-3	-209.515E-12	673.786E-3	-33.2604E-3	-208.999E-12	651.818E-3	-50.3735E-3
-3.99450E-3	-209.292E-12	693.320E-3	-58.6104E-3	-211.101E-12	656.190E-3	-57.2253E-3
-3.99950E-3	-208.372E-12	691.127E-3	-54.4715E-3	-211.307E-12	639.233E-3	-39.1796E-3
-4.00450E-3	-208.771E-12	682.190E-3	-14.6909E-3	-211.087E-12	636.515E-3	-1.61101E-3
-4.00950E-3	-208.555E-12	686.698E-3	1.05651E-3	-214.020E-12	667.398E-3	-14.1996E-3
-4.01451E-3	-207.398E-12	686.510E-3	-892.839E-6	-216.312E-12	700.049E-3	-40.0337E-3
-4.01951E-3	-206.773E-12	676.672E-3	-6.76163E-3	-215.589E-12	725.140E-3	-12.7058E-3
-4.02451E-3	-209.180E-12	679.784E-3	-19.0107E-3	-214.346E-12	737.438E-3	12.2621E-3
-4.02951E-3	-211.311E-12	685.413E-3	-22.3543E-3	-215.013E-12	724.767E-3	-29.2947E-3
-4.03452E-3	-209.198E-12	663.272E-3	-32.3693E-3	-217.716E-12	692.067E-3	-68.7408E-3
-4.03952E-3	-210.137E-12	643.064E-3	-36.7724E-3	-215.779E-12	687.609E-3	-61.5151E-3
-4.04452E-3	-211.986E-12	640.977E-3	-18.1400E-3	-213.365E-12	704.303E-3	-51.4870E-3
-4.04952E-3	-213.212E-12	634.171E-3	-35.4609E-6	-213.823E-12	692.256E-3	-36.2799E-3
-4.05453E-3	-212.197E-12	663.816E-3	-1.94370E-3	-215.023E-12	672.367E-3	-8.56192E-3
-4.05953E-3	-212.307E-12	720.698E-3	-5.76050E-3	-214.363E-12	658.410E-3	-22.4074E-3
-4.06453E-3	-213.352E-12	719.074E-3	-1.69706E-3	-212.220E-12	646.645E-3	-66.7057E-3
-4.06953E-3	-213.511E-12	675.258E-3	-19.3831E-3	-212.787E-12	640.936E-3	-61.5078E-3
-4.07454E-3	-212.642E-12	647.631E-3	-21.4525E-3	-212.659E-12	640.390E-3	-38.0852E-3
-4.07954E-3	-210.408E-12	637.879E-3	14.5742E-3	-214.137E-12	643.561E-3	-29.0902E-3
-4.08454E-3	-212.894E-12	654.138E-3	38.7940E-3	-214.545E-12	651.541E-3	-17.4391E-3
-4.08954E-3	-212.926E-12	682.695E-3	31.3860E-3	-213.849E-12	669.799E-3	-25.5513E-3
-4.09455E-3	-212.165E-12	677.193E-3	6.91530E-3	-214.002E-12	676.060E-3	-40.4541E-3
-4.09955E-3	-212.320E-12	664.205E-3	-19.5482E-3	-215.620E-12	667.238E-3	-26.2923E-3
-4.10455E-3	-214.894E-12	664.043E-3	-21.4614E-3	-217.050E-12	659.485E-3	-3.65084E-3
-4.10955E-3	-214.817E-12	653.340E-3	-10.2760E-3	-216.241E-12	654.973E-3	-7.23008E-3
-4.11456E-3	-213.388E-12	656.228E-3	-23.4724E-3	-215.832E-12	664.056E-3	-10.6459E-3
-4.11956E-3	-215.033E-12	683.048E-3	-36.9342E-3	-218.035E-12	693.005E-3	3.55941E-3
-4.12456E-3	-215.984E-12	679.957E-3	-40.9565E-3	-218.646E-12	710.109E-3	1.43819E-3
-4.12956E-3	-216.818E-12	654.083E-3	-58.7496E-3	-218.176E-12	682.373E-3	-23.5039E-3
-4.13457E-3	-215.937E-12	665.236E-3	-56.1659E-3	-217.599E-12	660.538E-3	-40.8795E-3
-4.13957E-3	-217.863E-12	689.151E-3	-15.1544E-3	-217.485E-12	680.955E-3	-42.8626E-3
-4.14457E-3	-217.038E-12	659.176E-3	29.8447E-3	-218.084E-12	695.365E-3	-31.0710E-3
-4.14957E-3	-218.973E-12	616.923E-3	36.3682E-3	-218.635E-12	707.937E-3	-6.54149E-3
-4.15458E-3	-217.743E-12	637.437E-3	7.39580E-3	-219.150E-12	723.922E-3	5.51290E-3
-4.15958E-3	-218.111E-12	660.342E-3	-25.8876E-3	-217.341E-12	713.984E-3	-5.51615E-3
-4.16458E-3	-217.835E-12	651.375E-3	-39.5841E-3	-217.358E-12	689.168E-3	-23.5594E-3
-4.16958E-3	-218.314E-12	657.358E-3	-38.0035E-3	-218.691E-12	672.848E-3	-20.1764E-3
-4.17459E-3	-217.689E-12	658.453E-3	-45.6723E-3	-219.314E-12	683.934E-3	-17.1040E-3
-4.17959E-3	-218.008E-12	641.779E-3	-51.7799E-3	-218.085E-12	708.971E-3	-23.0558E-3
-4.18459E-3	-219.717E-12	634.522E-3	-26.9121E-3	-217.936E-12	713.775E-3	-12.0637E-3
-4.18959E-3	-219.660E-12	648.360E-3	-6.47696E-3	-219.077E-12	691.677E-3	10.9513E-3
-4.19460E-3	-221.560E-12	685.851E-3	-30.9400E-3	-218.899E-12	654.691E-3	16.9925E-3
-4.19960E-3	-221.233E-12	705.842E-3	-53.1249E-3	-218.897E-12	635.672E-3	4.21905E-3
-4.20460E-3	-221.390E-12	693.407E-3	-45.2050E-3	-218.803E-12	638.906E-3	-9.19581E-3
-4.20960E-3	-222.208E-12	679.684E-3	-15.8724E-3	-219.038E-12	643.314E-3	-37.9480E-3
-4.21461E-3	-223.068E-12	678.512E-3	12.1735E-3	-219.910E-12	681.063E-3	-48.7420E-3
-4.21961E-3	-223.762E-12	675.720E-3	7.49940E-3	-219.972E-12	702.548E-3	-21.9990E-3
-4.22461E-3	-220.994E-12	670.862E-3	-14.2295E-3	-219.918E-12	682.821E-3	-5.68371E-3
-4.22961E-3	-223.004E-12	699.270E-3	-2.40042E-3	-221.431E-12	680.710E-3	-20.2466E-3
-4.23462E-3	-222.347E-12	740.830E-3	27.7260E-3	-221.858E-12	670.680E-3	-40.6574E-3
-4.23962E-3	-222.437E-12	755.194E-3	17.5813E-3	-221.079E-12	670.938E-3	-30.4694E-3
-4.24462E-3	-222.360E-12	738.157E-3	-16.7437E-3	-222.025E-12	711.738E-3	-434.012E-6
-4.24962E-3	-222.032E-12	711.813E-3	-44.9556E-3	-222.683E-12	723.386E-3	6.51043E-3
-4.25463E-3	-221.003E-12	708.006E-3	-66.0720E-3	-222.747E-12	675.827E-3	4.24574E-3
-4.25963E-3	-221.875E-12	724.308E-3	-65.4709E-3	-222.589E-12	657.288E-3	14.0120E-3
-4.26463E-3	-223.514E-12	726.622E-3	-41.4086E-3	-223.619E-12	701.815E-3	9.78524E-3
-4.26963E-3	-222.027E-12	703.235E-3	-20.8032E-3	-223.274E-12	719.805E-3	-18.5003E-3
-4.27464E-3	-223.673E-12	676.794E-3	-12.3865E-3	-222.896E-12	686.481E-3	-54.4754E-3
-4.27964E-3	-224.841E-12	661.197E-3	-20.1688E-3	-222.712E-12	658.083E-3	-72.0879E-3
-4.28464E-3	-226.322E-12	662.824E-3	-24.9163E-3	-223.300E-12	656.679E-3	-61.0357E-3
-4.28964E-3	-225.461E-12	690.626E-3	-212.936E-6	-222.297E-12	659.424E-3	-52.2514E-3
-4.29465E-3	-225.932E-12	707.850E-3	8.78606E-3	-222.214E-12	663.259E-3	-65.6223E-3
-4.29965E-3	-225.805E-12	686.975E-3	-8.96021E-3	-221.765E-12	660.112E-3	-70.9502E-3
-4.30465E-3	-226.797E-12	667.106E-3	-3.61738E-3	-222.249E-12	664.823E-3	-53.9730E-3
-4.30965E-3	-226.932E-12	677.027E-3	10.1097E-3	-221.483E-12	706.277E-3	-39.4359E-3
-4.31466E-3	-225.860E-12	684.611E-3	12.6650E-3	-222.376E-12	734.166E-3	-47.6861E-3
-4.31966E-3	-225.146E-12	690.813E-3	18.3069E-3	-222.351E-12	728.828E-3	-47.2106E-3
-4.32466E-3	-226.451E-12	687.784E-3	16.1288E-3	-223.158E-12	715.091E-3	-13.5035E-3
-4.32966E-3	-226.724E-12	656.900E-3	9.45149E-3	-224.522E-12	700.685E-3	11.6343E-3
-4.33467E-3	-226.446E-12	648.931E-3	-5.46910E-3	-224.546E-12	695.580E-3	-1.46683E-3
-4.33967E-3	-225.408E-12	672.790E-3	-28.6610E-3	-224.976E-12	702.562E-3	-35.3473E-3
-4.34467E-3	-224.006E-12	690.171E-3	-42.7051E-3	-225.941E-12	707.081E-3	-48.5563E-3
-4.34967E-3	-225.167E-12	698.770E-3	-29.0272E-3	-226.711E-12	691.510E-3	-37.1225E-3
-4.35468E-3	-226.599E-12	699.949E-3	2.10108E-3	-226.344E-12	675.431E-3	-25.1204E-3
-4.35968E-3	-226.165E-12	684.353E-3	-930.707E-6	-227.609E-12	686.078E-3	-8.85759E-3
-4.36468E-3	-225.986E-12	674.931E-3	-19.3227E-3	-228.873E-12	693.095E-3	-423.357E-6
-4.36968E-3	-228.305E-12	675.379E-3	-28.1436E-3	-228.688E-12	687.591E-3	-6.96002E-3
-4.37469E-3	-229.294E-12	664.702E-3	-31.1748E-3	-228.744E-12	690.631E-3	6.68911E-3
-4.37969E-3	-230.201E-12	661.225E-3	-24.9832E-3	-228.751E-12	692.187E-3	29.9943E-3
-4.38469E-3	-229.544E-12	683.823E-3	-14.6606E-3	-228.760E-12	699.673E-3	21.6558E-3
-4.38969E-3	-229.070E-12	722.362E-3	-7.21436E-3	-228.722E-12	725.923E-3	-391.297E-6
-4.39470E-3	-228.973E-12	754.738E-3	-4.74939E-3	-229.340E-12	758.751E-3	-8.47498E-3
-4.39970E-3	-230.960E-12	745.883E-3	-9.42605E-3	-228.192E-12	752.114E-3	-23.3169E-3
-4.40470E-3	-228.835E-12	703.391E-3	-17.5601E-3	-228.698E-12	701.978E-3	-43.1378E-3
-4.40970E-3	-227.503E-12	682.645E-3	-28.0083E-3	-229.863E-12	680.590E-3	-32.8662E-3
-4.41471E-3	-228.027E-12	697.421E-3	-35.8238E-3	-229.724E-12	696.355E-3	-12.0487E-3
-4.41971E-3	-228.416E-12	720.420E-3	-31.5601E-3	-229.203E-12	688.031E-3	-12.2156E-3
-4.42471E-3	-228.924E-12	724.276E-3	-31.1030E-3	-230.241E-12	663.402E-3	-13.0834E-3
-4.42971E-3	-227.717E-12	698.085E-3	-39.0743E-3	-233.013E-12	676.593E-3	2.96318E-3
-4.43472E-3	-227.662E-12	681.392E-3	-31.7532E-3	-231.813E-12	688.010E-3	23.3970E-3
-4.43972E-3	-229.242E-12	684.613E-3	4.47305E-3	-231.618E-12	662.824E-3	40.6221E-3
-4.44472E-3	-230.623E-12	681.217E-3	23.9480E-3	-231.870E-12	652.641E-3	37.7520E-3
-4.44972E-3	-228.891E-12	691.251E-3	18.4913E-3	-233.737E-12	661.750E-3	816.058E-6
-4.45473E-3	-229.228E-12	696.829E-3	8.66386E-3	-232.699E-12	674.638E-3	-31.8639E-3
-4.45973E-3	-232.380E-12	686.824E-3	-15.0123E-3	-232.229E-12	683.884E-3	-24.7625E-3
-4.46473E-3	-234.071E-12	678.883E-3	-20.4993E-3	-231.668E-12	682.383E-3	-3.75193E-3
-4.46973E-3	-233.687E-12	682.175E-3	-1.58012E-3	-232.114E-12	675.466E-3	-1.15949E-3
-4.47474E-3	-233.991E-12	696.574E-3	2.65261E-3	-231.917E-12	638.368E-3	5.79071E-3
-4.47974E-3	-235.084E-12	698.680E-3	6.11682E-3	-231.243E-12	613.265E-3	18.0521E-3
-4.48474E-3	-234.180E-12	698.556E-3	-6.02917E-3	-231.732E-12	663.485E-3	6.47911E-3
-4.48974E-3	-235.500E-12	690.555E-3	-34.2765E-3	-230.714E-12	709.810E-3	-12.0275E-3
-4.49475E-3	-233.278E-12	692.111E-3	-36.0591E-3	-231.902E-12	692.768E-3	2.58781E-3
-4.49975E-3	-232.362E-12	714.509E-3	-10.6289E-3	-233.405E-12	672.354E-3	22.1762E-3
-4.50475E-3	-233.054E-12	711.655E-3	16.4821E-3	-231.041E-12	683.377E-3	6.05368E-3
-4.50975E-3	-233.589E-12	701.278E-3	14.3714E-3	-232.142E-12	671.404E-3	-533.064E-6
-4.51476E-3	-231.464E-12	689.925E-3	-12.2614E-3	-233.619E-12	642.316E-3	24.3179E-3
-4.51976E-3	-231.914E-12	666.407E-3	-29.5521E-3	-233.906E-12	676.930E-3	37.6101E-3
-4.52476E-3	-230.529E-12	660.945E-3	-26.9752E-3	-233.035E-12	711.120E-3	18.1242E-3
-4.52976E-3	-230.976E-12	665.605E-3	-35.4786E-3	-234.825E-12	684.712E-3	-2.38676E-3
-4.53477E-3	-231.373E-12	659.327E-3	-51.2790E-3	-234.108E-12	662.268E-3	-3.15887E-3
-4.53977E-3	-232.074E-12	661.374E-3	-38.2505E-3	-235.885E-12	653.582E-3	-24.8778E-3
-4.54477E-3	-232.778E-12	658.365E-3	-16.5553E-3	-235.582E-12	653.602E-3	-41.4605E-3
-4.54977E-3	-233.988E-12	643.626E-3	-5.92912E-3	-235.015E-12	671.856E-3	-19.0782E-3
-4.55478E-3	-236.491E-12	644.837E-3	-13.8690E-3	-235.288E-12	691.678E-3	980.922E-6
-4.55978E-3	-237.902E-12	672.190E-3	-47.2776E-3	-236.072E-12	692.333E-3	2.71621E-3
-4.56478E-3	-238.303E-12	690.525E-3	-58.3650E-3	-234.917E-12	686.695E-3	-15.5835E-3
-4.56978E-3	-236.629E-12	670.469E-3	-27.3566E-3	-235.755E-12	691.859E-3	-35.5040E-3
-4.57479E-3	-238.237E-12	655.989E-3	2.44940E-3	-235.816E-12	697.532E-3	-49.3659E-3
-4.57979E-3	-240.692E-12	686.271E-3	16.9432E-3	-235.814E-12	698.824E-3	-39.2803E-3
-4.58479E-3	-238.867E-12	712.529E-3	11.3805E-3	-235.525E-12	698.886E-3	-6.31698E-3
-4.58979E-3	-237.748E-12	698.007E-3	10.6118E-3	-236.449E-12	696.675E-3	-13.5400E-3
-4.59480E-3	-237.313E-12	669.994E-3	17.7836E-3	-235.867E-12	678.306E-3	-53.6477E-3
-4.59980E-3	-239.050E-12	652.855E-3	-3.02018E-3	-237.376E-12	676.211E-3	-67.4010E-3
-4.60480E-3	-237.957E-12	642.360E-3	-33.3116E-3	-236.560E-12	689.645E-3	-46.5615E-3
-4.60980E-3	-235.866E-12	617.449E-3	-48.3562E-3	-237.779E-12	665.988E-3	-23.6827E-3
-4.61481E-3	-235.596E-12	604.472E-3	-37.4657E-3	-237.670E-12	648.381E-3	-21.1655E-3
-4.61981E-3	-237.944E-12	625.327E-3	-16.8320E-3	-240.164E-12	665.384E-3	-19.5338E-3
-4.62481E-3	-238.539E-12	662.223E-3	-24.0551E-3	-238.905E-12	669.819E-3	-16.4930E-3
-4.62981E-3	-236.649E-12	690.376E-3	-39.8944E-3	-239.616E-12	665.100E-3	-23.9146E-3
-4.63482E-3	-236.550E-12	702.069E-3	-36.7233E-3	-240.186E-12	657.994E-3	-39.8817E-3
-4.63982E-3	-236.866E-12	698.820E-3	-15.1241E-3	-241.005E-12	640.721E-3	-64.7784E-3
-4.64482E-3	-239.334E-12	672.624E-3	8.22440E-3	-241.105E-12	645.211E-3	-68.2496E-3
-4.64982E-3	-239.396E-12	652.066E-3	2.01912E-3	-240.816E-12	674.533E-3	-42.9426E-3
-4.65483E-3	-238.073E-12	662.512E-3	-19.5578E-3	-240.816E-12	683.853E-3	-17.6612E-3
-4.65983E-3	-238.785E-12	679.766E-3	-20.3962E-3	-240.290E-12	664.343E-3	-9.92583E-3
-4.66483E-3	-240.384E-12	697.125E-3	-6.57273E-3	-241.603E-12	656.494E-3	-15.3057E-3
-4.66983E-3	-240.030E-12	687.110E-3	-8.48097E-3	-242.339E-12	690.996E-3	-3.28424E-3
-4.67484E-3	-239.695E-12	648.527E-3	-17.6427E-3	-242.245E-12	723.065E-3	26.5440E-3
-4.67984E-3	-241.187E-12	633.042E-3	5.17190E-3	-242.622E-12	714.068E-3	63.5209E-3
-4.68484E-3	-243.045E-12	641.068E-3	34.8807E-3	-242.762E-12	692.995E-3	65.7017E-3
-4.68984E-3	-243.160E-12	647.208E-3	31.8145E-3	-242.585E-12	693.449E-3	9.92244E-3
-4.69485E-3	-242.866E-12	658.354E-3	8.78694E-3	-240.673E-12	694.097E-3	-17.0502E-3
-4.69985E-3	-244.588E-12	690.946E-3	-16.4030E-3	-240.697E-12	680.441E-3	570.155E-6
-4.70485E-3	-245.213E-12	723.053E-3	-34.7453E-3	-240.621E-12	660.744E-3	-7.77731E-3
-4.70985E-3	-245.220E-12	731.826E-3	-23.4059E-3	-242.083E-12	641.922E-3	-25.6292E-3
-4.71486E-3	-244.791E-12	727.769E-3	11.3523E-3	-241.297E-12	662.701E-3	-31.5099E-3
-4.71986E-3	-245.014E-12	713.250E-3	19.6500E-3	-240.241E-12	695.995E-3	-33.3968E-3
-4.72486E-3	-246.596E-12	694.664E-3	6.89342E-3	-242.534E-12	696.704E-3	-15.2067E-3
-4.72986E-3	-246.194E-12	682.292E-3	-3.91746E-3	-243.845E-12	688.693E-3	658.849E-6
-4.73487E-3	-245.375E-12	674.321E-3	-13.7139E-3	-243.424E-12	704.815E-3	-16.2793E-3
-4.73987E-3	-244.972E-12	663.863E-3	-26.3014E-3	-242.409E-12	716.217E-3	-30.1056E-3
-4.74487E-3	-245.599E-12	654.876E-3	-34.2824E-3	-243.645E-12	692.798E-3	-8.09482E-3
-4.74988E-3	-245.089E-12	657.268E-3	-29.0176E-3	-245.105E-12	662.281E-3	-4.68728E-3
-4.75488E-3	-244.704E-12	666.244E-3	-33.7611E-3	-245.593E-12	632.483E-3	-27.9431E-3
-4.75988E-3	-244.669E-12	683.983E-3	-48.0464E-3	-244.478E-12	640.809E-3	-35.5047E-3
-4.76488E-3	-244.472E-12	692.369E-3	-38.9744E-3	-245.300E-12	681.730E-3	-50.0529E-3
-4.76988E-3	-245.240E-12	690.046E-3	-15.2782E-3	-246.270E-12	694.197E-3	-72.2351E-3
-4.77489E-3	-245.336E-12	690.108E-3	-14.1571E-3	-245.807E-12	679.256E-3	-54.6454E-3
-4.77989E-3	-245.370E-12	692.438E-3	-8.32577E-3	-245.628E-12	658.528E-3	-29.3076E-3
-4.78489E-3	-246.316E-12	704.322E-3	5.50961E-3	-244.442E-12	666.975E-3	-44.0504E-3
-4.78989E-3	-247.549E-12	696.140E-3	1.60912E-3	-245.195E-12	703.562E-3	-51.4963E-3
-4.79490E-3	-249.906E-12	680.786E-3	9.65917E-3	-244.749E-12	711.225E-3	-14.3905E-3
-4.79990E-3	-249.458E-12	676.000E-3	-4.10835E-3	-244.694E-12	685.728E-3	25.6441E-3
-4.80490E-3	-250.040E-12	673.685E-3	-33.8288E-3	-246.168E-12	657.906E-3	25.9285E-3
-4.80990E-3	-251.340E-12	677.715E-3	-33.6300E-3	-245.587E-12	651.636E-3	3.57721E-3
-4.81491E-3	-250.346E-12	653.841E-3	-42.8839E-3	-245.529E-12	665.727E-3	-6.14220E-3
-4.81991E-3	-250.280E-12	650.292E-3	-31.5660E-3	-246.667E-12	674.076E-3	15.9440E-3
-4.82491E-3	-249.391E-12	681.329E-3	4.41673E-3	-247.984E-12	671.762E-3	31.6512E-3
-4.82991E-3	-248.572E-12	669.168E-3	1.91118E-3	-247.315E-12	675.953E-3	-3.44288E-3
-4.83492E-3	-247.594E-12	655.987E-3	-11.4054E-3	-247.986E-12	683.979E-3	-31.0352E-3
-4.83992E-3	-246.653E-12	685.257E-3	2.58257E-3	-250.134E-12	691.083E-3	-28.0450E-3
-4.84492E-3	-245.283E-12	711.355E-3	22.2348E-3	-250.785E-12	699.997E-3	-46.0974E-3
-4.84992E-3	-245.607E-12	717.981E-3	5.88915E-3	-250.772E-12	703.540E-3	-45.1531E-3
-4.85493E-3	-245.452E-12	704.276E-3	-25.4530E-3	-251.277E-12	698.813E-3	-10.7633E-3
-4.85993E-3	-245.094E-12	674.128E-3	-35.6181E-3	-252.420E-12	686.114E-3	-28.3732E-3
-4.86493E-3	-245.468E-12	656.003E-3	-4.97850E-3	-252.366E-12	672.421E-3	-61.8903E-3
-4.86993E-3	-245.739E-12	647.424E-3	20.8903E-3	-251.498E-12	683.861E-3	-34.7400E-3
-4.87494E-3	-246.665E-12	642.894E-3	772.226E-6	-250.740E-12	714.390E-3	19.6242E-3
-4.87994E-3	-247.527E-12	665.578E-3	-780.255E-6	-250.376E-12	712.840E-3	30.2738E-3
-4.88494E-3	-248.884E-12	694.494E-3	-2.91763E-3	-251.633E-12	686.851E-3	-5.09198E-3
-4.88995E-3	-249.824E-12	695.002E-3	-28.0295E-3	-250.513E-12	670.612E-3	-21.9469E-3
-4.89495E-3	-251.730E-12	689.813E-3	-42.6973E-3	-249.251E-12	656.599E-3	-18.4953E-3
-4.89995E-3	-253.384E-12	678.489E-3	-48.2750E-3	-249.542E-12	670.579E-3	-17.3177E-3
-4.90495E-3	-255.548E-12	658.076E-3	-33.5812E-3	-251.738E-12	709.441E-3	-14.6649E-3
-4.90995E-3	-255.172E-12	674.914E-3	-17.3811E-3	-251.118E-12	715.336E-3	-4.13290E-3
-4.91496E-3	-254.944E-12	712.652E-3	-15.0441E-3	-249.914E-12	687.831E-3	-894.601E-6
-4.91996E-3	-254.840E-12	717.518E-3	-7.04929E-3	-250.047E-12	656.993E-3	-25.6782E-3
-4.92496E-3	-254.341E-12	698.219E-3	-2.23250E-3	-251.256E-12	656.604E-3	-62.9859E-3
-4.92996E-3	-253.183E-12	691.152E-3	-7.62596E-3	-251.211E-12	671.367E-3	-64.7285E-3
-4.93497E-3	-251.358E-12	677.104E-3	-15.4938E-3	-251.540E-12	653.351E-3	-30.2829E-3
-4.93997E-3	-252.090E-12	667.715E-3	-23.5680E-3	-251.662E-12	630.640E-3	-22.8064E-3
-4.94497E-3	-252.239E-12	701.438E-3	-28.5168E-3	-252.787E-12	647.197E-3	-46.1502E-3
-4.94997E-3	-251.784E-12	713.120E-3	-19.3324E-3	-254.939E-12	679.801E-3	-46.2616E-3
-4.95498E-3	-251.219E-12	680.537E-3	304.836E-6	-254.121E-12	689.097E-3	-16.4337E-3
-4.95998E-3	-251.592E-12	652.237E-3	10.4024E-3	-255.298E-12	668.327E-3	15.6969E-3
-4.96498E-3	-251.317E-12	650.623E-3	5.97402E-3	-254.364E-12	655.470E-3	26.3205E-3
-4.96998E-3	-251.233E-12	673.479E-3	-3.58025E-3	-255.640E-12	668.150E-3	-10.7258E-3
-4.97499E-3	-252.775E-12	693.054E-3	-22.4973E-3	-255.799E-12	667.253E-3	-59.6423E-3
-4.97999E-3	-253.182E-12	685.512E-3	-44.4553E-3	-256.086E-12	659.730E-3	-53.3068E-3
-4.98499E-3	-253.385E-12	644.978E-3	-41.5748E-3	-256.962E-12	651.586E-3	-37.3793E-3
-4.98999E-3	-254.012E-12	622.617E-3	-27.3984E-3	-257.156E-12	616.963E-3	-55.9990E-3
-4.99500E-3	-255.949E-12	646.754E-3	-12.7224E-3	-257.224E-12	615.262E-3	-44.9418E-3
-5.00000E-3	-257.245E-12	675.731E-3	6.59929E-3	-256.624E-12	662.679E-3	-3.31821E-3
