Experiment	bias spectroscopy	
Date	19.01.2016 18:36:45	
User		
X (m)	50.1865E-9	
Y (m)	256.145E-9	
Z (m)	-132.633E-9	
Z offset (m)	0E+0	
Settling time (s)	200E-6	
Integration time (s)	5E-3	
Z-Ctrl hold	TRUE	
Final Z (m)	N/A	
Filter type	None	
Order		
Cutoff frq		
Comment01	MnPc/Pb(111)	
Comment02	dz =00pm	
Comment03	7 Sweeps	
Comment04	MagField =0.T	
Comment05	Divider 1:10	
Comment06	Setpoint:5mV,200 pA	
Comment07	Lockin: 50uVrms,5ms,5mV	
Comment08	Gain:9; 912Hz modulation	
Comment09	T=1.06K	
Bias>Bias (V)	5E-3	
Bias>Calibration (V/V)	81.475E-3	
Bias>Offset (V)	1.046E-3	
Bias Spectroscopy>Sweep Start (V)	5E-3	
Bias Spectroscopy>Sweep End (V)	-5E-3	
Bias Spectroscopy>Num Pixel	2000	
Bias Spectroscopy>Z Avg time (s)	500E-3	
Bias Spectroscopy>Z offset (m)	0E+0	
Bias Spectroscopy>1st Settling time (s)	500E-3	
Bias Spectroscopy>Settling time (s)	200E-6	
Bias Spectroscopy>Integration time (s)	5E-3	
Bias Spectroscopy>End Settling time (s)	500E-3	
Bias Spectroscopy>Z control time (s)	500E-3	
Bias Spectroscopy>Max Slew rate (V/s)	Inf	
Bias Spectroscopy>backward sweep	TRUE	
Bias Spectroscopy>Z-controller hold	TRUE	
Bias Spectroscopy>Number of sweeps	7	
Bias Spectroscopy>Channels	Current (A);X% LockIn (V);Y% LockIn (V)	
Bias Spectroscopy>Reset Bias	TRUE	
Bias Spectroscopy>Record final Z	FALSE	
Bias Spectroscopy>Lock-In run	FALSE	
Bias Spectroscopy>Sweep mode	Linear	
Bias Spectroscopy>MultiLine Settings : Segment Start (V), Segment End (V), Settling (s), Integration (s), Steps (xn)	100E-3,3.3E-3,100E-6,10E-3,2500;3.3E-3,-3.3E-3,100E-6,10E-3,10;-3.3E-3,-100E-3,100E-6,10E-3,2500	
Current>Current (A)	200.053E-12	
Current>Calibration (A/V)	999.99900E-12	
Current>Offset (A)	-455.429E-15	
Current>Gain	LN 10^9	
Z-Controller>Z (m)	-132.634E-9	
Z-Controller>Controller name	log Current	
Z-Controller>Controller status	ON	
Z-Controller>Setpoint	200E-12	
Z-Controller>Setpoint unit	A	
Z-Controller>P gain	2.96994E-12	
Z-Controller>I gain	67.0321E-9	
Z-Controller>Time const (s)	44.3062E-6	
Z-Controller>TipLift (m)	0E+0	
Z-Controller>Switch off delay (s)	50E-3	
Current (A)	200.256E-12	
Z (m)	-132.632E-9	

[DATA]
Bias calc (V)	Current (A)	X% LockIn (V)	Y% LockIn (V)	Current [bwd] (A)	X% LockIn [bwd] (V)	Y% LockIn [bwd] (V)
5.00000E-3	201.547E-12	612.693E-3	-5.52126E-3	202.658E-12	651.204E-3	-27.5422E-3
4.99500E-3	202.922E-12	642.127E-3	184.589E-6	204.405E-12	634.383E-3	-26.6543E-3
4.98999E-3	200.653E-12	663.413E-3	-9.17862E-3	203.936E-12	639.161E-3	-16.8893E-3
4.98499E-3	201.579E-12	682.298E-3	-8.21311E-3	203.880E-12	643.600E-3	-4.97175E-3
4.97999E-3	202.372E-12	676.399E-3	-6.05500E-3	204.246E-12	642.567E-3	19.0313E-3
4.97499E-3	200.232E-12	654.302E-3	-257.473E-6	203.622E-12	636.437E-3	33.1338E-3
4.96998E-3	199.096E-12	656.730E-3	1.90247E-3	202.000E-12	628.230E-3	2.18199E-3
4.96498E-3	199.276E-12	683.114E-3	-6.73219E-3	201.245E-12	630.672E-3	-29.9647E-3
4.95998E-3	198.367E-12	672.221E-3	-23.3557E-3	199.995E-12	637.285E-3	-22.0645E-3
4.95498E-3	197.332E-12	630.531E-3	-37.1471E-3	198.708E-12	620.518E-3	-6.83564E-3
4.94997E-3	197.281E-12	615.053E-3	-25.7778E-3	197.366E-12	588.377E-3	-611.006E-6
4.94497E-3	196.831E-12	633.364E-3	-13.4372E-3	196.231E-12	575.692E-3	1.50810E-3
4.93997E-3	195.370E-12	664.378E-3	-18.3015E-3	195.794E-12	595.986E-3	-14.5348E-3
4.93497E-3	194.878E-12	660.963E-3	-38.6703E-3	195.304E-12	639.393E-3	-39.4599E-3
4.92996E-3	195.357E-12	654.060E-3	-64.3578E-3	195.021E-12	649.285E-3	-34.8442E-3
4.92496E-3	195.402E-12	653.516E-3	-59.5118E-3	194.918E-12	613.499E-3	-17.6742E-3
4.91996E-3	196.105E-12	627.640E-3	-38.0258E-3	195.012E-12	597.581E-3	-10.8564E-3
4.91496E-3	196.959E-12	612.584E-3	-11.5723E-3	195.498E-12	593.024E-3	-7.20640E-3
4.90995E-3	196.283E-12	640.796E-3	-923.959E-6	195.666E-12	598.835E-3	-5.16053E-3
4.90495E-3	196.715E-12	663.148E-3	-14.4359E-3	196.443E-12	622.872E-3	1.87559E-3
4.89995E-3	196.746E-12	644.699E-3	-18.0843E-3	197.211E-12	614.434E-3	12.0773E-3
4.89495E-3	196.325E-12	620.472E-3	-15.4482E-3	196.824E-12	607.715E-3	938.364E-6
4.88995E-3	196.195E-12	610.935E-3	-8.40978E-3	196.904E-12	626.308E-3	-10.3513E-3
4.88494E-3	195.656E-12	625.665E-3	287.440E-6	197.354E-12	643.665E-3	-7.76180E-3
4.87994E-3	194.665E-12	629.181E-3	8.73238E-3	197.736E-12	667.379E-3	-7.40876E-3
4.87494E-3	194.446E-12	600.876E-3	14.7683E-3	196.544E-12	677.344E-3	-1.64238E-3
4.86993E-3	194.189E-12	617.884E-3	19.5067E-3	196.641E-12	664.771E-3	-10.6841E-3
4.86493E-3	193.684E-12	671.925E-3	9.68858E-3	196.417E-12	657.439E-3	-15.2406E-3
4.85993E-3	193.713E-12	667.838E-3	-19.8809E-3	196.295E-12	671.793E-3	-880.022E-6
4.85493E-3	193.082E-12	642.153E-3	-29.7386E-3	195.980E-12	700.695E-3	-3.27161E-3
4.84992E-3	193.020E-12	646.255E-3	-4.99150E-3	195.911E-12	702.839E-3	-7.18548E-3
4.84492E-3	193.162E-12	658.083E-3	1.49123E-3	194.327E-12	667.746E-3	-21.4793E-3
4.83992E-3	192.837E-12	662.544E-3	-31.0227E-3	194.499E-12	650.108E-3	-47.1784E-3
4.83492E-3	193.611E-12	658.155E-3	-41.5477E-3	193.561E-12	659.219E-3	-30.4855E-3
4.82991E-3	194.268E-12	639.486E-3	-24.4096E-3	192.489E-12	671.682E-3	4.94749E-3
4.82491E-3	193.429E-12	621.571E-3	-11.1900E-3	192.028E-12	662.592E-3	-59.7534E-6
4.81991E-3	194.214E-12	641.132E-3	-4.14691E-3	191.285E-12	632.672E-3	-34.6641E-3
4.81491E-3	194.375E-12	666.204E-3	-11.6761E-3	191.019E-12	628.936E-3	-55.5119E-3
4.80990E-3	193.716E-12	678.018E-3	-41.1468E-3	191.473E-12	639.604E-3	-47.5787E-3
4.80490E-3	192.117E-12	685.220E-3	-41.7436E-3	191.325E-12	621.979E-3	-28.5120E-3
4.79990E-3	191.699E-12	668.788E-3	-6.00929E-3	190.481E-12	614.170E-3	-19.8891E-3
4.79490E-3	190.729E-12	650.760E-3	-3.85377E-3	192.433E-12	639.311E-3	-34.9067E-3
4.78989E-3	189.856E-12	656.786E-3	-19.0966E-3	192.611E-12	654.498E-3	-61.4202E-3
4.78489E-3	189.845E-12	660.994E-3	-21.2152E-3	191.795E-12	652.175E-3	-64.8172E-3
4.77989E-3	189.594E-12	643.088E-3	-6.78098E-3	192.439E-12	649.297E-3	-43.8823E-3
4.77489E-3	189.310E-12	626.972E-3	8.90134E-3	192.653E-12	645.573E-3	-20.8289E-3
4.76988E-3	189.454E-12	638.134E-3	-4.79727E-3	193.114E-12	635.983E-3	-2.52189E-3
4.76488E-3	188.366E-12	645.838E-3	-17.9005E-3	193.204E-12	651.730E-3	-3.07713E-3
4.75988E-3	189.547E-12	640.706E-3	-6.95607E-3	192.957E-12	682.854E-3	-16.2626E-3
4.75488E-3	190.345E-12	659.948E-3	-6.44128E-3	192.816E-12	685.637E-3	-1.42846E-3
4.74988E-3	190.298E-12	690.047E-3	106.045E-6	192.802E-12	670.285E-3	11.2327E-3
4.74487E-3	190.797E-12	690.646E-3	23.7402E-3	192.089E-12	647.316E-3	-9.87871E-3
4.73987E-3	191.678E-12	678.982E-3	24.3205E-3	191.816E-12	639.940E-3	-16.0138E-3
4.73487E-3	192.056E-12	680.179E-3	6.42202E-3	190.454E-12	653.053E-3	-8.72297E-3
4.72986E-3	191.794E-12	683.772E-3	-13.4219E-3	189.655E-12	664.188E-3	-5.82888E-3
4.72486E-3	191.537E-12	683.170E-3	-19.4061E-3	189.689E-12	669.836E-3	-7.11326E-3
4.71986E-3	191.217E-12	688.550E-3	-10.7129E-3	188.073E-12	669.882E-3	-25.6410E-3
4.71486E-3	189.466E-12	699.642E-3	14.1156E-6	186.690E-12	649.258E-3	-50.2016E-3
4.70985E-3	189.027E-12	695.686E-3	-5.19195E-3	186.885E-12	633.756E-3	-64.9346E-3
4.70485E-3	188.041E-12	676.277E-3	-12.6831E-3	186.244E-12	664.267E-3	-57.2012E-3
4.69985E-3	186.262E-12	660.750E-3	-11.3376E-3	185.493E-12	689.587E-3	-38.8929E-3
4.69485E-3	185.400E-12	658.798E-3	-23.7962E-3	185.020E-12	667.876E-3	-28.8471E-3
4.68984E-3	185.640E-12	645.860E-3	-38.0095E-3	185.911E-12	650.073E-3	-13.2801E-3
4.68484E-3	184.355E-12	634.406E-3	-52.4785E-3	185.855E-12	667.627E-3	-983.407E-6
4.67984E-3	184.130E-12	647.758E-3	-46.4864E-3	188.000E-12	688.111E-3	-1.09010E-3
4.67484E-3	184.383E-12	636.360E-3	-15.2182E-3	189.006E-12	683.889E-3	-6.61128E-3
4.66983E-3	184.799E-12	605.930E-3	-9.93893E-3	188.424E-12	674.005E-3	-17.3977E-3
4.66483E-3	185.419E-12	607.446E-3	-25.2450E-3	189.022E-12	676.759E-3	-35.9552E-3
4.65983E-3	186.377E-12	633.644E-3	-28.2267E-3	190.532E-12	681.651E-3	-55.4325E-3
4.65483E-3	186.581E-12	660.854E-3	-18.9444E-3	189.610E-12	661.760E-3	-53.4867E-3
4.64982E-3	186.889E-12	674.100E-3	-2.25448E-3	189.980E-12	622.137E-3	-39.1686E-3
4.64482E-3	188.513E-12	663.639E-3	3.63288E-3	188.694E-12	618.004E-3	-15.6511E-3
4.63982E-3	187.524E-12	650.751E-3	-14.3419E-3	187.743E-12	637.825E-3	5.09424E-3
4.63482E-3	187.123E-12	649.077E-3	-31.9799E-3	186.225E-12	637.249E-3	4.51754E-3
4.62981E-3	187.616E-12	641.378E-3	-29.7465E-3	186.234E-12	633.902E-3	11.8793E-3
4.62481E-3	186.449E-12	635.209E-3	-14.5829E-3	184.207E-12	630.859E-3	33.0818E-3
4.61981E-3	184.531E-12	625.028E-3	-12.4966E-3	182.350E-12	624.628E-3	30.1258E-3
4.61481E-3	184.393E-12	634.816E-3	-15.8227E-3	180.963E-12	622.607E-3	7.44186E-3
4.60980E-3	184.535E-12	667.614E-3	-12.4550E-3	180.625E-12	629.734E-3	-3.48575E-3
4.60480E-3	182.877E-12	670.829E-3	-19.5569E-3	179.114E-12	628.751E-3	-13.7742E-3
4.59980E-3	182.944E-12	634.767E-3	-16.3210E-3	179.837E-12	595.782E-3	-28.0205E-3
4.59480E-3	182.465E-12	596.991E-3	-4.29093E-3	180.844E-12	592.578E-3	-29.5394E-3
4.58979E-3	182.654E-12	625.333E-3	-12.1748E-3	181.189E-12	624.964E-3	-15.7306E-3
4.58479E-3	182.438E-12	673.488E-3	-15.2899E-3	181.806E-12	644.089E-3	-13.8608E-3
4.57979E-3	182.937E-12	665.999E-3	-27.3229E-3	183.645E-12	659.970E-3	-14.8034E-3
4.57479E-3	182.215E-12	661.725E-3	-49.4706E-3	184.133E-12	662.704E-3	7.47847E-3
4.56978E-3	182.462E-12	683.563E-3	-37.8794E-3	185.324E-12	640.976E-3	20.6313E-3
4.56478E-3	182.218E-12	673.244E-3	-16.2177E-3	186.529E-12	618.415E-3	10.0466E-3
4.55978E-3	182.434E-12	640.586E-3	-18.1388E-3	186.290E-12	632.365E-3	-5.31917E-3
4.55478E-3	181.705E-12	635.943E-3	-30.3072E-3	185.027E-12	659.061E-3	-19.0830E-3
4.54977E-3	181.357E-12	647.461E-3	-33.6865E-3	184.931E-12	646.899E-3	-26.6158E-3
4.54477E-3	179.569E-12	655.032E-3	-17.1208E-3	184.214E-12	623.830E-3	-17.3261E-3
4.53977E-3	179.488E-12	653.235E-3	13.3696E-3	182.513E-12	632.437E-3	-11.1114E-3
4.53477E-3	178.410E-12	641.268E-3	21.6728E-3	180.807E-12	652.332E-3	-9.93362E-3
4.52976E-3	178.455E-12	630.785E-3	617.964E-6	179.443E-12	654.935E-3	2.91725E-3
4.52476E-3	177.159E-12	630.411E-3	-15.7510E-3	177.943E-12	651.150E-3	13.1702E-3
4.51976E-3	177.997E-12	639.438E-3	-25.4971E-3	177.431E-12	659.834E-3	-2.19255E-3
4.51476E-3	177.187E-12	647.764E-3	-53.0209E-3	176.756E-12	651.447E-3	-40.9834E-3
4.50975E-3	177.572E-12	650.614E-3	-62.9698E-3	176.374E-12	614.270E-3	-64.4428E-3
4.50475E-3	177.811E-12	646.462E-3	-44.6201E-3	176.162E-12	617.430E-3	-52.0895E-3
4.49975E-3	178.117E-12	632.955E-3	-27.6054E-3	176.877E-12	661.266E-3	-9.79684E-3
4.49475E-3	178.724E-12	621.855E-3	-11.5393E-3	177.468E-12	681.158E-3	15.5078E-3
4.48974E-3	178.745E-12	625.024E-3	798.541E-6	177.971E-12	678.108E-3	-3.84965E-3
4.48474E-3	178.674E-12	636.721E-3	4.29265E-3	178.286E-12	676.531E-3	-28.7111E-3
4.47974E-3	178.702E-12	638.794E-3	3.60630E-3	179.390E-12	676.755E-3	-41.6407E-3
4.47474E-3	178.478E-12	628.490E-3	6.53814E-3	180.425E-12	671.381E-3	-39.7669E-3
4.46973E-3	178.865E-12	634.072E-3	-1.76092E-3	180.697E-12	657.665E-3	-20.1852E-3
4.46473E-3	178.637E-12	651.823E-3	-7.90315E-3	180.453E-12	653.868E-3	-6.55958E-3
4.45973E-3	178.275E-12	656.857E-3	-11.9480E-3	180.289E-12	650.194E-3	-9.69222E-3
4.45473E-3	177.453E-12	666.920E-3	-33.0482E-3	180.652E-12	637.864E-3	1.29363E-3
4.44972E-3	176.825E-12	670.730E-3	-36.6501E-3	180.439E-12	638.531E-3	19.3097E-3
4.44472E-3	176.072E-12	654.912E-3	-6.95710E-3	179.755E-12	651.617E-3	4.15899E-3
4.43972E-3	176.598E-12	641.596E-3	11.3440E-3	178.865E-12	664.808E-3	-26.6076E-3
4.43472E-3	174.966E-12	633.555E-3	-4.82204E-3	178.638E-12	655.651E-3	-23.6844E-3
4.42971E-3	174.965E-12	644.395E-3	-19.4555E-3	178.393E-12	647.144E-3	-3.38845E-3
4.42471E-3	175.861E-12	650.164E-3	-13.7359E-3	177.182E-12	653.459E-3	-3.58574E-3
4.41971E-3	175.577E-12	642.327E-3	-13.5993E-3	176.486E-12	654.523E-3	-15.8520E-3
4.41471E-3	176.038E-12	648.261E-3	-28.5058E-3	176.395E-12	649.487E-3	-26.4144E-3
4.40970E-3	176.815E-12	643.421E-3	-27.3039E-3	176.043E-12	646.162E-3	-36.2934E-3
4.40470E-3	176.756E-12	637.239E-3	-22.9726E-3	174.979E-12	660.435E-3	-38.5306E-3
4.39970E-3	176.863E-12	637.974E-3	-22.4159E-3	175.337E-12	677.767E-3	-16.7972E-3
4.39470E-3	178.421E-12	646.298E-3	-7.93453E-3	174.945E-12	671.068E-3	-9.38774E-3
4.38969E-3	177.005E-12	665.985E-3	7.28753E-3	174.164E-12	660.819E-3	-35.9315E-3
4.38469E-3	176.859E-12	689.913E-3	15.8023E-3	174.185E-12	644.377E-3	-41.2475E-3
4.37969E-3	177.516E-12	702.555E-3	4.18726E-3	174.146E-12	624.067E-3	-25.0091E-3
4.37469E-3	176.910E-12	686.875E-3	-18.7023E-3	173.999E-12	632.761E-3	-20.8880E-3
4.36968E-3	175.587E-12	665.247E-3	-10.7455E-3	173.079E-12	651.687E-3	-23.2907E-3
4.36468E-3	175.975E-12	660.076E-3	8.42245E-3	173.154E-12	657.330E-3	-23.1131E-3
4.35968E-3	174.620E-12	669.508E-3	-12.2225E-3	172.907E-12	651.221E-3	-23.1432E-3
4.35468E-3	173.021E-12	675.188E-3	-32.2768E-3	172.778E-12	660.452E-3	-24.8100E-3
4.34967E-3	173.101E-12	672.785E-3	-29.5301E-3	172.380E-12	679.829E-3	-19.2677E-3
4.34467E-3	171.787E-12	659.646E-3	-23.6331E-3	172.723E-12	685.983E-3	-15.1376E-3
4.33967E-3	170.346E-12	642.072E-3	-14.6639E-3	172.254E-12	673.559E-3	-7.97475E-3
4.33467E-3	170.770E-12	649.790E-3	2.67228E-3	172.795E-12	670.688E-3	-3.97546E-3
4.32966E-3	170.531E-12	681.207E-3	8.54724E-3	173.270E-12	681.447E-3	-18.5250E-3
4.32466E-3	170.252E-12	682.388E-3	-12.2574E-3	172.466E-12	678.795E-3	-25.0264E-3
4.31966E-3	170.203E-12	655.683E-3	-35.7919E-3	172.125E-12	690.555E-3	-23.4709E-3
4.31466E-3	169.871E-12	652.667E-3	-38.2800E-3	172.413E-12	687.933E-3	-25.6404E-3
4.30965E-3	169.547E-12	662.957E-3	-21.2257E-3	171.686E-12	654.614E-3	-14.0470E-3
4.30465E-3	170.499E-12	657.003E-3	-7.16752E-3	170.985E-12	645.600E-3	2.66024E-3
4.29965E-3	169.640E-12	650.736E-3	-3.06070E-3	170.152E-12	653.082E-3	6.83520E-3
4.29465E-3	169.340E-12	659.496E-3	-16.8687E-3	170.357E-12	633.393E-3	-1.31789E-3
4.28964E-3	169.650E-12	655.981E-3	-12.3763E-3	168.480E-12	621.418E-3	-14.6336E-3
4.28464E-3	170.153E-12	642.555E-3	23.4680E-3	168.400E-12	640.035E-3	-17.4709E-3
4.27964E-3	168.052E-12	658.571E-3	29.9991E-3	168.253E-12	655.329E-3	-20.1419E-3
4.27464E-3	167.875E-12	677.584E-3	1.26636E-3	167.416E-12	655.240E-3	-30.5938E-3
4.26963E-3	168.045E-12	649.806E-3	-22.6035E-3	166.583E-12	659.862E-3	-35.1219E-3
4.26463E-3	167.121E-12	634.238E-3	-10.7949E-3	168.118E-12	671.308E-3	-20.4877E-3
4.25963E-3	166.690E-12	656.805E-3	14.7645E-3	167.378E-12	668.233E-3	526.515E-6
4.25463E-3	166.931E-12	653.788E-3	-1.41204E-3	167.509E-12	662.485E-3	4.64793E-3
4.24962E-3	166.580E-12	643.169E-3	-33.0580E-3	168.995E-12	659.719E-3	4.66364E-3
4.24462E-3	166.246E-12	651.104E-3	-44.9280E-3	169.590E-12	657.316E-3	7.20926E-3
4.23962E-3	167.021E-12	669.682E-3	-55.0340E-3	169.328E-12	656.670E-3	-6.01776E-3
4.23462E-3	166.871E-12	685.601E-3	-50.1161E-3	169.578E-12	651.048E-3	-21.2638E-3
4.22961E-3	166.532E-12	677.860E-3	-45.0188E-3	170.184E-12	645.238E-3	-18.0906E-3
4.22461E-3	166.858E-12	660.202E-3	-45.9576E-3	169.423E-12	648.665E-3	-13.6618E-3
4.21961E-3	166.609E-12	652.138E-3	-40.7396E-3	169.627E-12	655.682E-3	-20.3928E-3
4.21461E-3	166.774E-12	642.939E-3	-27.9084E-3	168.876E-12	653.669E-3	-26.8041E-3
4.20960E-3	167.203E-12	631.936E-3	-12.8457E-3	168.124E-12	636.891E-3	-32.9834E-3
4.20460E-3	166.598E-12	641.715E-3	-31.7636E-3	166.917E-12	636.124E-3	-24.2485E-3
4.19960E-3	164.789E-12	668.980E-3	-51.7827E-3	166.304E-12	671.108E-3	-5.43965E-3
4.19460E-3	166.087E-12	666.619E-3	-39.7725E-3	165.244E-12	700.257E-3	-9.73782E-3
4.18959E-3	167.087E-12	639.318E-3	-26.4150E-3	164.260E-12	703.683E-3	-19.4110E-3
4.18459E-3	165.542E-12	634.443E-3	-11.6792E-3	163.915E-12	694.157E-3	-12.1313E-3
4.17959E-3	164.518E-12	647.655E-3	4.68030E-3	164.348E-12	685.105E-3	-8.62859E-3
4.17459E-3	165.217E-12	656.760E-3	-4.94759E-3	163.857E-12	675.863E-3	-7.90901E-3
4.16958E-3	164.488E-12	657.109E-3	-10.9794E-3	163.737E-12	667.291E-3	9.11083E-3
4.16458E-3	164.745E-12	678.790E-3	-4.68955E-3	164.660E-12	666.400E-3	19.9199E-3
4.15958E-3	165.324E-12	700.945E-3	-4.03450E-3	165.286E-12	661.604E-3	13.7812E-3
4.15458E-3	164.426E-12	696.601E-3	-3.94619E-3	166.330E-12	657.975E-3	15.7699E-3
4.14957E-3	165.038E-12	696.437E-3	-11.5497E-3	167.555E-12	669.250E-3	20.2248E-3
4.14457E-3	165.509E-12	683.270E-3	-20.2029E-3	167.149E-12	690.100E-3	2.15672E-3
4.13957E-3	165.682E-12	654.642E-3	-22.2118E-3	167.440E-12	687.856E-3	-3.99807E-3
4.13457E-3	165.245E-12	650.188E-3	-9.71366E-3	168.160E-12	673.612E-3	16.9681E-3
4.12956E-3	164.971E-12	660.293E-3	-6.05644E-3	167.735E-12	684.083E-3	7.03993E-3
4.12456E-3	164.586E-12	645.589E-3	-32.8523E-3	166.425E-12	688.889E-3	-33.3587E-3
4.11956E-3	164.822E-12	617.028E-3	-48.0881E-3	165.449E-12	667.975E-3	-45.1280E-3
4.11456E-3	164.082E-12	624.346E-3	-28.5962E-3	164.226E-12	638.232E-3	-21.6460E-3
4.10955E-3	162.766E-12	673.518E-3	-12.3266E-3	163.002E-12	623.676E-3	-15.2220E-3
4.10455E-3	163.425E-12	706.948E-3	-19.6859E-3	162.113E-12	634.474E-3	-25.0573E-3
4.09955E-3	163.030E-12	692.097E-3	-35.5527E-3	160.302E-12	653.762E-3	-22.0040E-3
4.09455E-3	162.397E-12	662.222E-3	-38.2452E-3	158.976E-12	657.980E-3	-22.8517E-3
4.08954E-3	161.623E-12	647.203E-3	-26.0617E-3	158.542E-12	632.807E-3	-23.7258E-3
4.08454E-3	161.096E-12	637.591E-3	-5.40612E-3	157.234E-12	624.423E-3	-27.0717E-3
4.07954E-3	160.198E-12	637.355E-3	8.53074E-3	156.812E-12	646.223E-3	-38.0960E-3
4.07454E-3	160.291E-12	664.647E-3	-3.84866E-3	157.323E-12	649.553E-3	-35.2730E-3
4.06953E-3	159.615E-12	681.349E-3	-21.7392E-3	157.902E-12	649.422E-3	-8.51821E-3
4.06453E-3	159.542E-12	656.249E-3	-26.8763E-3	158.566E-12	655.347E-3	5.47888E-3
4.05953E-3	160.427E-12	633.289E-3	-22.5196E-3	159.983E-12	640.518E-3	-10.3496E-3
4.05453E-3	160.416E-12	648.578E-3	-30.3933E-3	160.630E-12	631.887E-3	-19.9199E-3
4.04952E-3	160.219E-12	673.817E-3	-42.8894E-3	161.141E-12	654.345E-3	-13.2188E-3
4.04452E-3	160.958E-12	683.427E-3	-36.9002E-3	162.432E-12	677.092E-3	-7.44425E-3
4.03952E-3	161.184E-12	687.120E-3	-23.0213E-3	162.624E-12	670.775E-3	-16.2654E-3
4.03452E-3	161.017E-12	675.995E-3	-19.7075E-3	160.942E-12	648.715E-3	-28.1579E-3
4.02951E-3	160.310E-12	650.328E-3	-23.8736E-3	161.483E-12	639.017E-3	-27.8202E-3
4.02451E-3	159.527E-12	652.855E-3	-23.1196E-3	160.675E-12	639.378E-3	-14.8215E-3
4.01951E-3	159.259E-12	681.788E-3	-22.3301E-3	159.010E-12	640.170E-3	-3.89078E-3
4.01451E-3	158.672E-12	695.400E-3	-20.8119E-3	158.150E-12	639.720E-3	-14.4544E-3
4.00950E-3	158.355E-12	674.291E-3	-11.6492E-3	156.746E-12	644.779E-3	-29.4071E-3
4.00450E-3	157.037E-12	643.162E-3	4.68187E-3	156.105E-12	659.136E-3	-25.4973E-3
3.99950E-3	156.550E-12	636.242E-3	2.74723E-3	154.981E-12	663.134E-3	-15.6160E-3
3.99450E-3	156.148E-12	647.510E-3	-21.8531E-3	154.410E-12	664.737E-3	-18.2213E-3
3.98949E-3	156.831E-12	651.024E-3	-24.9512E-3	155.157E-12	667.673E-3	-32.8118E-3
3.98449E-3	155.580E-12	636.895E-3	1.67712E-3	154.777E-12	665.186E-3	-39.4296E-3
3.97949E-3	156.237E-12	643.399E-3	6.08206E-3	155.412E-12	673.872E-3	-27.4073E-3
3.97449E-3	155.740E-12	663.355E-3	-22.4968E-3	156.916E-12	692.704E-3	-25.4108E-3
3.96948E-3	155.411E-12	668.052E-3	-50.7289E-3	156.535E-12	684.597E-3	-41.9146E-3
3.96448E-3	155.759E-12	662.407E-3	-54.1606E-3	156.729E-12	667.661E-3	-62.4361E-3
3.95948E-3	156.552E-12	653.979E-3	-25.5374E-3	158.873E-12	676.829E-3	-69.8771E-3
3.95448E-3	155.978E-12	655.650E-3	-1.83478E-3	158.761E-12	682.907E-3	-54.9234E-3
3.94947E-3	155.497E-12	656.233E-3	-824.009E-6	158.306E-12	674.337E-3	-36.2169E-3
3.94447E-3	155.611E-12	636.930E-3	-2.69864E-3	158.704E-12	653.864E-3	-39.6839E-3
3.93947E-3	156.030E-12	631.636E-3	-4.58576E-3	158.957E-12	626.413E-3	-59.2928E-3
3.93447E-3	154.704E-12	642.723E-3	-23.6304E-3	157.125E-12	610.799E-3	-47.8817E-3
3.92946E-3	154.312E-12	648.948E-3	-33.9674E-3	157.034E-12	632.313E-3	-16.3619E-3
3.92446E-3	153.648E-12	659.717E-3	-25.7690E-3	156.608E-12	662.017E-3	-13.1569E-3
3.91946E-3	152.725E-12	662.030E-3	-30.5337E-3	155.646E-12	665.509E-3	-20.6976E-3
3.91446E-3	151.337E-12	651.165E-3	-29.9890E-3	154.427E-12	676.179E-3	-19.8436E-3
3.90945E-3	151.130E-12	626.282E-3	-796.657E-6	153.971E-12	688.845E-3	-29.9658E-3
3.90445E-3	151.147E-12	620.332E-3	24.7073E-3	152.964E-12	668.977E-3	-32.1354E-3
3.89945E-3	150.645E-12	642.186E-3	17.7162E-3	152.366E-12	637.791E-3	-29.0681E-3
3.89445E-3	150.797E-12	650.261E-3	-2.03889E-3	152.442E-12	624.931E-3	-35.7113E-3
3.88944E-3	151.554E-12	639.293E-3	-18.8697E-3	152.205E-12	631.814E-3	-32.4895E-3
3.88444E-3	151.486E-12	635.950E-3	-19.8396E-3	152.013E-12	646.858E-3	-19.8997E-3
3.87944E-3	152.159E-12	641.949E-3	-13.1878E-3	151.655E-12	663.387E-3	-14.4262E-3
3.87444E-3	152.792E-12	639.672E-3	-16.7783E-3	151.840E-12	676.659E-3	-25.0648E-3
3.86943E-3	152.798E-12	648.177E-3	-25.6342E-3	152.099E-12	677.876E-3	-42.2838E-3
3.86443E-3	152.684E-12	664.452E-3	-24.4655E-3	152.229E-12	669.053E-3	-40.8291E-3
3.85943E-3	152.953E-12	664.177E-3	-12.8046E-3	151.631E-12	651.399E-3	-27.7670E-3
3.85443E-3	151.693E-12	663.031E-3	5.20434E-3	151.155E-12	643.824E-3	-11.3660E-3
3.84942E-3	151.196E-12	679.084E-3	13.2453E-3	151.195E-12	653.011E-3	17.2288E-3
3.84442E-3	150.928E-12	691.904E-3	-10.0413E-3	150.992E-12	658.034E-3	14.1537E-3
3.83942E-3	150.018E-12	673.597E-3	-23.7105E-3	150.373E-12	676.480E-3	-1.97097E-3
3.83442E-3	149.932E-12	651.838E-3	-3.70778E-3	150.570E-12	691.158E-3	-1.26551E-3
3.82941E-3	148.921E-12	650.632E-3	4.64753E-3	150.469E-12	660.408E-3	-11.2915E-3
3.82441E-3	148.834E-12	649.001E-3	1.27288E-3	150.061E-12	630.747E-3	-14.8615E-3
3.81941E-3	148.693E-12	651.643E-3	11.9782E-3	150.399E-12	639.156E-3	-14.3177E-3
3.81441E-3	148.729E-12	647.062E-3	19.9727E-3	150.641E-12	650.864E-3	-18.3130E-3
3.80940E-3	147.987E-12	618.748E-3	15.4356E-3	150.591E-12	651.803E-3	-13.6186E-3
3.80440E-3	148.323E-12	605.392E-3	-12.2010E-3	149.605E-12	648.773E-3	-2.84889E-3
3.79940E-3	148.855E-12	621.031E-3	-33.9264E-3	149.995E-12	648.346E-3	4.46036E-3
3.79440E-3	148.695E-12	640.946E-3	-35.1065E-3	149.870E-12	662.913E-3	-11.4671E-3
3.78939E-3	149.205E-12	643.597E-3	-44.2967E-3	148.509E-12	676.265E-3	-20.5072E-3
3.78439E-3	150.009E-12	641.752E-3	-39.5733E-3	147.563E-12	659.620E-3	2.44467E-3
3.77939E-3	149.933E-12	657.277E-3	-31.0488E-3	147.270E-12	639.109E-3	14.5403E-3
3.77439E-3	149.602E-12	668.199E-3	-27.3969E-3	146.694E-12	650.087E-3	-1.03768E-3
3.76938E-3	149.841E-12	669.437E-3	-34.0809E-3	145.021E-12	658.555E-3	-12.3743E-3
3.76438E-3	149.058E-12	669.404E-3	-52.4017E-3	144.605E-12	644.806E-3	-7.30310E-3
3.75938E-3	148.096E-12	654.814E-3	-41.0445E-3	144.769E-12	629.523E-3	-16.2677E-3
3.75438E-3	147.806E-12	636.956E-3	-10.8571E-3	143.794E-12	622.063E-3	-40.6608E-3
3.74937E-3	146.421E-12	632.927E-3	-89.5122E-6	144.653E-12	626.507E-3	-43.6850E-3
3.74437E-3	145.220E-12	640.958E-3	-1.95268E-3	145.015E-12	635.366E-3	-21.2471E-3
3.73937E-3	145.332E-12	657.300E-3	-9.67389E-3	144.598E-12	638.205E-3	-3.67596E-3
3.73437E-3	144.788E-12	656.258E-3	-18.4490E-3	144.703E-12	647.941E-3	-9.57901E-3
3.72936E-3	142.813E-12	633.781E-3	6.56975E-3	147.230E-12	680.239E-3	-6.63191E-3
3.72436E-3	143.303E-12	624.131E-3	39.3484E-3	147.573E-12	698.685E-3	13.6683E-3
3.71936E-3	142.572E-12	643.004E-3	27.4161E-3	147.676E-12	692.749E-3	12.1656E-3
3.71436E-3	142.722E-12	657.328E-3	-11.7482E-3	148.445E-12	674.095E-3	3.06038E-3
3.70935E-3	142.243E-12	642.817E-3	-34.0895E-3	149.184E-12	649.817E-3	-177.969E-6
3.70435E-3	142.287E-12	630.660E-3	-31.0348E-3	147.814E-12	642.849E-3	-5.16975E-3
3.69935E-3	142.631E-12	639.041E-3	-16.6439E-3	147.807E-12	648.683E-3	-1.52096E-3
3.69435E-3	143.005E-12	648.023E-3	-10.0733E-3	146.678E-12	650.101E-3	-11.3035E-3
3.68934E-3	143.665E-12	656.095E-3	-25.1091E-3	145.237E-12	644.553E-3	-20.8713E-3
3.68434E-3	144.348E-12	669.270E-3	-31.8192E-3	143.239E-12	661.159E-3	-82.3455E-6
3.67934E-3	143.915E-12	669.777E-3	-22.9836E-3	142.687E-12	694.529E-3	3.16990E-3
3.67434E-3	144.249E-12	664.316E-3	-26.3522E-3	141.016E-12	693.200E-3	-15.0425E-3
3.66933E-3	144.036E-12	660.629E-3	-42.2204E-3	140.041E-12	661.984E-3	-18.3336E-3
3.66433E-3	143.970E-12	657.674E-3	-52.1520E-3	139.512E-12	650.251E-3	-10.2108E-3
3.65933E-3	142.743E-12	654.935E-3	-35.0800E-3	139.201E-12	659.369E-3	-6.17814E-3
3.65433E-3	142.584E-12	655.326E-3	-17.5326E-3	138.997E-12	673.825E-3	-12.0882E-3
3.64932E-3	141.672E-12	664.493E-3	-15.3126E-3	140.061E-12	682.262E-3	-23.0077E-3
3.64432E-3	141.423E-12	680.208E-3	-9.86709E-3	140.503E-12	677.103E-3	-22.9770E-3
3.63932E-3	140.795E-12	694.098E-3	-6.25576E-3	141.329E-12	681.422E-3	-6.53502E-3
3.63432E-3	140.770E-12	688.368E-3	2.28034E-3	142.328E-12	699.612E-3	-20.4933E-3
3.62931E-3	139.661E-12	675.065E-3	3.95277E-3	143.689E-12	715.087E-3	-53.9633E-3
3.62431E-3	139.871E-12	670.401E-3	-1.17931E-3	145.181E-12	722.267E-3	-36.1792E-3
3.61931E-3	139.446E-12	677.060E-3	-5.33446E-3	145.387E-12	707.584E-3	-4.31213E-3
3.61431E-3	139.109E-12	665.941E-3	-12.9336E-3	146.386E-12	672.122E-3	-11.0061E-3
3.60930E-3	138.842E-12	649.927E-3	-11.4238E-3	146.769E-12	646.544E-3	-17.5401E-3
3.60430E-3	139.310E-12	658.324E-3	-8.81707E-3	145.381E-12	647.611E-3	-7.83788E-3
3.59930E-3	138.901E-12	658.456E-3	2.32791E-3	144.291E-12	640.864E-3	-15.8984E-3
3.59430E-3	138.743E-12	657.797E-3	19.7528E-3	144.148E-12	632.370E-3	-21.8254E-3
3.58929E-3	139.157E-12	667.245E-3	16.9684E-3	142.889E-12	660.945E-3	-21.3051E-3
3.58429E-3	138.934E-12	667.197E-3	4.65168E-3	140.512E-12	671.072E-3	-37.0222E-3
3.57929E-3	139.451E-12	666.180E-3	-1.19348E-3	139.066E-12	650.824E-3	-31.4198E-3
3.57429E-3	139.453E-12	667.246E-3	-2.42263E-3	137.984E-12	657.115E-3	-8.31246E-3
3.56928E-3	139.546E-12	667.412E-3	652.388E-6	136.869E-12	665.842E-3	-13.2499E-3
3.56428E-3	140.015E-12	668.197E-3	-6.51340E-3	136.435E-12	639.966E-3	-27.6602E-3
3.55928E-3	140.060E-12	656.069E-3	-33.5897E-3	136.127E-12	612.972E-3	-19.5993E-3
3.55428E-3	140.385E-12	647.126E-3	-45.3963E-3	135.574E-12	617.222E-3	-20.3595E-3
3.54927E-3	140.475E-12	663.497E-3	-18.9469E-3	136.391E-12	638.757E-3	-27.0419E-3
3.54427E-3	140.137E-12	678.847E-3	9.29474E-3	137.127E-12	665.869E-3	-4.32374E-3
3.53927E-3	139.724E-12	681.547E-3	4.80465E-3	137.412E-12	691.376E-3	10.4688E-3
3.53427E-3	139.594E-12	682.468E-3	-14.3403E-3	138.218E-12	694.161E-3	-4.57342E-3
3.52926E-3	138.723E-12	662.134E-3	-18.8391E-3	138.579E-12	684.311E-3	-8.93005E-3
3.52426E-3	138.590E-12	639.971E-3	-8.52078E-3	139.237E-12	679.551E-3	-7.53833E-3
3.51926E-3	137.600E-12	643.714E-3	5.43473E-3	140.664E-12	661.023E-3	-5.05159E-3
3.51426E-3	136.951E-12	655.710E-3	-252.991E-6	139.775E-12	637.032E-3	6.25469E-3
3.50925E-3	135.639E-12	665.855E-3	-12.7418E-3	138.334E-12	640.501E-3	-11.2966E-3
3.50425E-3	135.295E-12	663.347E-3	-5.70833E-3	138.208E-12	660.413E-3	-39.8314E-3
3.49925E-3	134.380E-12	650.631E-3	7.53462E-3	137.347E-12	674.733E-3	-32.1254E-3
3.49425E-3	133.346E-12	650.861E-3	15.4693E-3	136.063E-12	675.899E-3	-10.5764E-3
3.48924E-3	133.213E-12	666.271E-3	6.69600E-3	134.977E-12	665.266E-3	-5.49727E-3
3.48424E-3	132.619E-12	658.261E-3	-18.1059E-3	134.665E-12	651.621E-3	-15.6377E-3
3.47924E-3	132.384E-12	639.654E-3	-26.4165E-3	133.032E-12	644.548E-3	-42.4928E-3
3.47424E-3	132.489E-12	640.403E-3	-12.6389E-3	131.864E-12	642.888E-3	-59.3085E-3
3.46923E-3	132.440E-12	637.805E-3	-11.3586E-3	131.983E-12	636.763E-3	-33.8867E-3
3.46423E-3	133.173E-12	647.974E-3	-22.9298E-3	130.431E-12	630.076E-3	-2.75157E-3
3.45923E-3	133.679E-12	677.351E-3	-34.5308E-3	130.498E-12	631.027E-3	610.474E-6
3.45423E-3	133.944E-12	672.441E-3	-42.1500E-3	130.991E-12	647.524E-3	-10.2929E-3
3.44922E-3	133.973E-12	631.263E-3	-24.9124E-3	130.839E-12	669.699E-3	-10.5737E-3
3.44422E-3	134.530E-12	609.007E-3	-8.14348E-3	130.890E-12	669.760E-3	-17.9261E-3
3.43922E-3	134.394E-12	632.049E-3	-16.9523E-3	132.473E-12	647.209E-3	-38.0672E-3
3.43422E-3	133.985E-12	665.213E-3	-32.2025E-3	132.949E-12	636.125E-3	-28.1166E-3
3.42921E-3	133.946E-12	671.400E-3	-47.0206E-3	132.778E-12	641.455E-3	-23.5507E-3
3.42421E-3	133.481E-12	676.085E-3	-33.4014E-3	132.989E-12	659.187E-3	-25.6582E-3
3.41921E-3	131.680E-12	678.563E-3	-5.52263E-3	133.297E-12	678.419E-3	-3.19376E-3
3.41421E-3	130.924E-12	670.808E-3	-1.82871E-3	132.792E-12	669.099E-3	10.8048E-3
3.40920E-3	130.733E-12	669.817E-3	-377.197E-6	132.742E-12	648.568E-3	14.5830E-3
3.40420E-3	129.174E-12	663.638E-3	14.5510E-3	132.386E-12	647.731E-3	9.82526E-3
3.39920E-3	128.120E-12	660.186E-3	10.3876E-3	131.496E-12	660.604E-3	-2.61259E-3
3.39420E-3	127.881E-12	664.234E-3	-979.179E-6	131.703E-12	658.764E-3	-4.62044E-3
3.38919E-3	127.239E-12	662.483E-3	-3.59923E-3	131.903E-12	653.547E-3	-12.2156E-3
3.38419E-3	127.350E-12	653.950E-3	-25.2136E-3	131.165E-12	660.820E-3	-32.3429E-3
3.37919E-3	127.581E-12	646.516E-3	-48.7662E-3	130.421E-12	652.313E-3	-44.8888E-3
3.37419E-3	128.108E-12	642.493E-3	-51.8970E-3	130.642E-12	651.465E-3	-49.2055E-3
3.36918E-3	128.126E-12	652.085E-3	-38.9688E-3	130.161E-12	675.091E-3	-43.0517E-3
3.36418E-3	129.402E-12	681.100E-3	-28.9565E-3	129.890E-12	690.485E-3	-27.2790E-3
3.35918E-3	130.167E-12	699.388E-3	-15.0427E-3	130.341E-12	683.069E-3	-20.2028E-3
3.35418E-3	130.815E-12	686.895E-3	112.968E-6	129.121E-12	663.109E-3	-32.1607E-3
3.34917E-3	131.043E-12	670.943E-3	-3.21950E-3	127.950E-12	653.942E-3	-45.1477E-3
3.34417E-3	130.981E-12	669.399E-3	-3.24107E-3	128.799E-12	662.811E-3	-18.2591E-3
3.33917E-3	131.145E-12	681.500E-3	7.14894E-3	128.777E-12	686.822E-3	24.5865E-3
3.33417E-3	130.986E-12	692.367E-3	9.42098E-3	127.649E-12	687.327E-3	20.7228E-3
3.32916E-3	129.766E-12	677.228E-3	-6.58113E-3	128.179E-12	661.998E-3	-15.2853E-3
3.32416E-3	128.914E-12	656.988E-3	-22.2567E-3	128.738E-12	665.528E-3	-37.3502E-3
3.31916E-3	128.446E-12	656.943E-3	-11.1639E-3	127.550E-12	683.226E-3	-32.5634E-3
3.31416E-3	127.484E-12	677.230E-3	9.65662E-3	128.729E-12	682.933E-3	-7.83084E-3
3.30915E-3	126.475E-12	699.090E-3	2.88634E-3	129.374E-12	681.933E-3	-200.125E-6
3.30415E-3	125.929E-12	698.354E-3	-11.1388E-3	128.507E-12	691.334E-3	-24.2802E-3
3.29915E-3	125.072E-12	668.173E-3	-9.83290E-3	128.535E-12	684.744E-3	-34.8734E-3
3.29415E-3	124.679E-12	647.407E-3	-15.3962E-3	129.683E-12	667.666E-3	-10.3342E-3
3.28914E-3	124.404E-12	672.832E-3	-22.4081E-3	128.843E-12	658.907E-3	3.04476E-3
3.28414E-3	124.415E-12	691.391E-3	-23.9245E-3	128.510E-12	643.591E-3	-10.1223E-3
3.27914E-3	124.304E-12	673.464E-3	-26.0758E-3	128.729E-12	634.437E-3	-12.6207E-3
3.27414E-3	125.125E-12	660.636E-3	-29.1095E-3	128.623E-12	637.712E-3	-3.89491E-3
3.26913E-3	125.897E-12	660.760E-3	-30.0015E-3	127.276E-12	643.198E-3	5.98618E-3
3.26413E-3	126.412E-12	659.682E-3	-24.6592E-3	126.819E-12	654.636E-3	12.7974E-3
3.25913E-3	126.109E-12	653.072E-3	-14.4130E-3	125.866E-12	652.016E-3	2.48173E-3
3.25413E-3	126.471E-12	652.680E-3	-13.2191E-3	124.456E-12	650.921E-3	-18.5730E-3
3.24912E-3	126.792E-12	663.194E-3	-14.1303E-3	123.274E-12	663.474E-3	-35.1614E-3
3.24412E-3	126.930E-12	667.415E-3	-947.675E-6	122.189E-12	661.488E-3	-37.0169E-3
3.23912E-3	125.824E-12	674.803E-3	4.30574E-3	122.039E-12	653.262E-3	-17.3492E-3
3.23412E-3	125.812E-12	692.921E-3	-2.68795E-3	120.865E-12	646.045E-3	424.421E-6
3.22911E-3	125.277E-12	700.953E-3	-6.53751E-3	120.282E-12	636.880E-3	-11.1331E-3
3.22411E-3	124.033E-12	692.573E-3	-13.0333E-3	121.170E-12	640.689E-3	-28.3565E-3
3.21911E-3	123.347E-12	679.173E-3	-23.9850E-3	121.466E-12	659.030E-3	-17.3715E-3
3.21411E-3	122.979E-12	681.081E-3	-30.1080E-3	120.824E-12	664.710E-3	4.17058E-3
3.20910E-3	121.599E-12	690.470E-3	-19.3248E-3	121.931E-12	656.515E-3	8.81259E-3
3.20410E-3	121.316E-12	677.973E-3	-10.6895E-3	122.989E-12	659.584E-3	-2.15272E-3
3.19910E-3	121.298E-12	655.771E-3	-18.8877E-3	123.268E-12	688.385E-3	-13.6775E-3
3.19410E-3	120.252E-12	654.024E-3	-17.9504E-3	123.953E-12	722.115E-3	-16.8261E-3
3.18909E-3	119.626E-12	666.986E-3	962.777E-6	124.347E-12	719.750E-3	-8.72775E-3
3.18409E-3	119.704E-12	682.514E-3	12.0850E-3	124.539E-12	685.565E-3	-9.08318E-3
3.17909E-3	119.601E-12	679.753E-3	8.43018E-3	124.550E-12	662.081E-3	-25.0789E-3
3.17409E-3	119.371E-12	650.348E-3	11.1656E-3	124.326E-12	664.842E-3	-28.5247E-3
3.16908E-3	119.514E-12	635.838E-3	-241.822E-6	122.988E-12	671.601E-3	-28.4538E-3
3.16408E-3	119.025E-12	649.278E-3	-17.0373E-3	122.151E-12	660.264E-3	-33.2473E-3
3.15908E-3	119.615E-12	660.769E-3	-12.3549E-3	121.860E-12	640.190E-3	-18.3688E-3
3.15408E-3	119.166E-12	659.667E-3	-15.2481E-3	119.406E-12	636.204E-3	444.179E-6
3.14907E-3	119.032E-12	652.095E-3	-20.3659E-3	118.062E-12	652.977E-3	-1.57096E-3
3.14407E-3	119.340E-12	651.393E-3	-8.50248E-3	118.078E-12	669.707E-3	-17.7174E-3
3.13907E-3	119.141E-12	668.236E-3	-7.75707E-3	117.046E-12	670.320E-3	-24.6487E-3
3.13407E-3	118.549E-12	676.926E-3	-24.5578E-3	115.878E-12	667.859E-3	-20.5898E-3
3.12906E-3	119.172E-12	667.278E-3	-27.1550E-3	116.584E-12	673.734E-3	-22.6577E-3
3.12406E-3	118.484E-12	663.750E-3	-23.3891E-3	116.625E-12	692.015E-3	-36.8979E-3
3.11906E-3	117.730E-12	661.806E-3	-21.1060E-3	116.936E-12	699.784E-3	-50.6848E-3
3.11406E-3	117.808E-12	653.243E-3	-15.9739E-3	118.360E-12	686.107E-3	-35.8173E-3
3.10905E-3	118.034E-12	653.086E-3	-27.9417E-3	119.325E-12	682.230E-3	-17.9525E-3
3.10405E-3	117.207E-12	669.166E-3	-37.4903E-3	119.534E-12	695.194E-3	-27.8954E-3
3.09905E-3	116.939E-12	678.928E-3	-26.2751E-3	120.494E-12	707.619E-3	-39.0314E-3
3.09405E-3	116.900E-12	678.403E-3	-22.4547E-3	121.509E-12	707.417E-3	-30.1516E-3
3.08904E-3	116.336E-12	683.501E-3	-27.7764E-3	121.414E-12	683.269E-3	-18.1882E-3
3.08404E-3	116.117E-12	694.958E-3	-28.9383E-3	121.407E-12	668.573E-3	-17.7430E-3
3.07904E-3	115.865E-12	706.958E-3	-33.5974E-3	121.187E-12	672.142E-3	-13.1434E-3
3.07404E-3	115.600E-12	710.593E-3	-32.7239E-3	119.799E-12	663.679E-3	-9.50185E-3
3.06903E-3	115.086E-12	693.586E-3	-32.7544E-3	118.305E-12	664.681E-3	-1.05936E-3
3.06403E-3	115.131E-12	663.476E-3	-25.5098E-3	118.183E-12	670.566E-3	23.1765E-3
3.05903E-3	115.190E-12	660.194E-3	-3.22479E-3	116.852E-12	662.537E-3	24.5684E-3
3.05403E-3	114.380E-12	679.640E-3	1.13474E-3	114.080E-12	659.878E-3	-1.94183E-3
3.04902E-3	115.092E-12	682.040E-3	-12.1804E-3	113.975E-12	661.293E-3	-17.2137E-3
3.04402E-3	114.919E-12	670.328E-3	-9.64007E-3	113.901E-12	666.124E-3	-15.5154E-3
3.03902E-3	114.994E-12	668.543E-3	16.0188E-3	112.362E-12	658.624E-3	-19.8294E-3
3.03402E-3	115.018E-12	678.845E-3	23.9526E-3	112.151E-12	630.849E-3	-30.8865E-3
3.02901E-3	114.875E-12	686.109E-3	-6.21002E-3	112.645E-12	630.788E-3	-32.8156E-3
3.02401E-3	114.730E-12	689.751E-3	-29.1234E-3	112.732E-12	662.784E-3	-22.2910E-3
3.01901E-3	115.204E-12	698.909E-3	-12.4288E-3	113.400E-12	691.110E-3	-20.9129E-3
3.01401E-3	114.819E-12	700.728E-3	5.18457E-3	114.083E-12	698.586E-3	-40.3870E-3
3.00900E-3	114.943E-12	693.764E-3	3.32422E-3	114.238E-12	685.513E-3	-47.6385E-3
3.00400E-3	114.818E-12	690.497E-3	-4.97281E-3	114.614E-12	668.830E-3	-43.4215E-3
2.99900E-3	114.597E-12	694.524E-3	-11.8062E-3	115.180E-12	665.747E-3	-46.1318E-3
2.99400E-3	114.169E-12	684.476E-3	-1.37605E-3	115.139E-12	682.580E-3	-45.4972E-3
2.98899E-3	114.350E-12	674.953E-3	18.5668E-3	115.208E-12	694.180E-3	-37.6344E-3
2.98399E-3	113.217E-12	683.403E-3	27.5249E-3	115.035E-12	689.695E-3	-28.8473E-3
2.97899E-3	112.336E-12	692.857E-3	25.9572E-3	114.528E-12	694.832E-3	-33.8108E-3
2.97399E-3	112.983E-12	689.990E-3	16.7547E-3	113.421E-12	693.042E-3	-30.9793E-3
2.96898E-3	112.348E-12	667.470E-3	1.19035E-3	113.044E-12	681.802E-3	-23.9970E-3
2.96398E-3	111.301E-12	668.391E-3	-15.8569E-3	111.949E-12	674.384E-3	-28.7637E-3
2.95898E-3	111.896E-12	690.842E-3	-19.4746E-3	110.761E-12	653.439E-3	-16.0776E-3
2.95398E-3	111.984E-12	695.964E-3	-20.2351E-3	110.342E-12	639.120E-3	826.294E-6
2.94897E-3	111.706E-12	693.048E-3	-23.7689E-3	109.752E-12	645.338E-3	34.5811E-6
2.94397E-3	111.500E-12	682.128E-3	-9.21761E-3	109.110E-12	670.522E-3	-3.77985E-3
2.93897E-3	111.489E-12	673.510E-3	-792.454E-6	108.846E-12	704.412E-3	604.692E-6
2.93397E-3	111.094E-12	687.628E-3	-17.3519E-3	108.510E-12	719.489E-3	5.93203E-3
2.92896E-3	111.052E-12	700.711E-3	-40.3275E-3	108.821E-12	714.259E-3	10.6448E-3
2.92396E-3	111.427E-12	689.339E-3	-39.0023E-3	108.267E-12	702.886E-3	13.7110E-3
2.91896E-3	111.122E-12	679.346E-3	-9.40792E-3	108.574E-12	689.531E-3	4.91631E-3
2.91396E-3	110.599E-12	682.451E-3	10.5284E-3	108.267E-12	682.484E-3	-11.8104E-3
2.90895E-3	109.572E-12	675.092E-3	17.6781E-3	108.201E-12	685.584E-3	-13.1653E-3
2.90395E-3	108.958E-12	666.831E-3	18.6434E-3	108.070E-12	690.427E-3	-13.4110E-3
2.89895E-3	107.907E-12	672.193E-3	-791.887E-6	108.245E-12	694.164E-3	-33.7055E-3
2.89395E-3	107.210E-12	668.907E-3	-21.1490E-3	107.870E-12	687.578E-3	-41.8584E-3
2.88894E-3	106.810E-12	657.111E-3	-22.8269E-3	108.096E-12	682.236E-3	-17.0798E-3
2.88394E-3	105.847E-12	654.845E-3	-9.00111E-3	107.973E-12	679.746E-3	12.7658E-3
2.87894E-3	105.093E-12	659.586E-3	-3.47175E-3	107.921E-12	679.914E-3	12.4524E-3
2.87394E-3	105.051E-12	659.170E-3	-19.6958E-3	107.681E-12	693.495E-3	-14.4851E-3
2.86893E-3	105.028E-12	655.105E-3	-37.8282E-3	107.867E-12	700.948E-3	-35.1241E-3
2.86393E-3	104.643E-12	654.343E-3	-48.3580E-3	108.133E-12	698.764E-3	-24.0781E-3
2.85893E-3	104.563E-12	659.298E-3	-36.4170E-3	107.859E-12	693.376E-3	-6.68897E-3
2.85393E-3	105.239E-12	670.862E-3	-14.0256E-3	107.529E-12	683.137E-3	-13.2981E-3
2.84892E-3	105.305E-12	680.487E-3	-19.2354E-3	107.191E-12	668.474E-3	-20.5382E-3
2.84392E-3	105.912E-12	689.580E-3	-36.2823E-3	106.633E-12	666.564E-3	-9.63052E-3
2.83892E-3	106.147E-12	691.440E-3	-42.5891E-3	106.442E-12	680.746E-3	-1.20434E-3
2.83392E-3	106.419E-12	684.314E-3	-36.6650E-3	106.365E-12	683.307E-3	-869.637E-6
2.82891E-3	106.887E-12	687.344E-3	-30.8503E-3	105.106E-12	684.386E-3	-52.8223E-6
2.82391E-3	107.229E-12	693.846E-3	-35.2805E-3	104.748E-12	685.921E-3	-4.17850E-3
2.81891E-3	106.694E-12	690.243E-3	-39.2766E-3	104.813E-12	689.363E-3	-16.4394E-3
2.81391E-3	106.532E-12	686.406E-3	-37.3404E-3	104.103E-12	705.557E-3	-31.4688E-3
2.80890E-3	106.323E-12	699.740E-3	-31.9396E-3	103.233E-12	697.345E-3	-27.6383E-3
2.80390E-3	105.349E-12	728.711E-3	-21.0470E-3	103.155E-12	676.244E-3	-9.69474E-3
2.79890E-3	103.906E-12	734.823E-3	-16.7793E-3	103.703E-12	683.168E-3	-3.24200E-3
2.79390E-3	103.164E-12	700.113E-3	-16.0456E-3	103.641E-12	702.320E-3	-12.0168E-3
2.78889E-3	102.533E-12	677.742E-3	-4.97885E-3	103.653E-12	712.491E-3	-13.1878E-3
2.78389E-3	101.764E-12	686.685E-3	-97.7955E-6	105.018E-12	710.994E-3	-1.78232E-3
2.77889E-3	101.072E-12	697.375E-3	-3.90044E-3	104.788E-12	704.124E-3	8.53950E-3
2.77389E-3	100.858E-12	698.046E-3	-11.2045E-3	104.071E-12	690.406E-3	8.18847E-3
2.76888E-3	100.471E-12	687.850E-3	-15.4475E-3	105.351E-12	677.927E-3	-13.5622E-3
2.76388E-3	99.9002E-12	678.655E-3	-9.09446E-3	105.649E-12	692.285E-3	-27.3471E-3
2.75888E-3	100.551E-12	679.945E-3	-1.62612E-3	104.560E-12	708.661E-3	-10.7979E-3
2.75388E-3	100.370E-12	685.410E-3	-4.87315E-3	104.535E-12	695.056E-3	6.59570E-3
2.74887E-3	100.385E-12	691.068E-3	-19.7950E-3	105.132E-12	677.933E-3	-3.62067E-3
2.74387E-3	100.998E-12	692.928E-3	-31.0399E-3	103.424E-12	677.656E-3	-25.6746E-3
2.73887E-3	101.160E-12	687.339E-3	-18.7052E-3	102.975E-12	698.878E-3	-28.0531E-3
2.73387E-3	101.432E-12	694.087E-3	5.15005E-3	102.514E-12	727.844E-3	-19.7118E-3
2.72886E-3	101.865E-12	717.443E-3	9.70672E-3	101.005E-12	712.631E-3	-25.8244E-3
2.72386E-3	101.592E-12	727.892E-3	-56.3265E-6	99.8280E-12	675.214E-3	-34.3801E-3
2.71886E-3	101.879E-12	716.360E-3	-18.7699E-3	99.8186E-12	680.142E-3	-24.0715E-3
2.71386E-3	101.933E-12	703.780E-3	-37.2068E-3	98.5613E-12	712.019E-3	-3.46209E-3
2.70885E-3	101.276E-12	699.821E-3	-31.9047E-3	97.6423E-12	711.302E-3	5.67653E-3
2.70385E-3	100.779E-12	704.082E-3	-23.8894E-3	98.1509E-12	685.704E-3	2.58151E-3
2.69885E-3	100.505E-12	710.706E-3	-25.8912E-3	98.2442E-12	684.610E-3	-14.2696E-3
2.69385E-3	99.4868E-12	716.815E-3	-23.2351E-3	98.0637E-12	694.124E-3	-24.8922E-3
2.68884E-3	98.7419E-12	714.441E-3	-14.6879E-3	98.9597E-12	696.648E-3	-13.9701E-3
2.68384E-3	98.3983E-12	697.108E-3	-4.40144E-3	99.2930E-12	699.899E-3	-6.32069E-3
2.67884E-3	97.4969E-12	692.665E-3	-2.76985E-3	99.2774E-12	689.523E-3	-7.95428E-3
2.67384E-3	96.9164E-12	705.060E-3	-13.6336E-3	99.4410E-12	682.899E-3	-11.1607E-3
2.66883E-3	96.9398E-12	703.479E-3	-20.2115E-3	100.055E-12	707.938E-3	-12.4956E-3
2.66383E-3	96.3486E-12	695.884E-3	-10.2267E-3	99.1780E-12	724.443E-3	-7.05861E-3
2.65883E-3	96.5197E-12	683.850E-3	-4.38149E-3	99.7071E-12	721.551E-3	4.28943E-3
2.65383E-3	97.3248E-12	678.420E-3	-15.9482E-3	99.2958E-12	712.206E-3	7.63652E-3
2.64882E-3	96.7217E-12	694.980E-3	-30.3967E-3	98.2465E-12	686.841E-3	-7.64938E-3
2.64382E-3	96.7130E-12	702.479E-3	-38.1296E-3	97.1843E-12	667.985E-3	-22.1042E-3
2.63882E-3	97.2829E-12	696.467E-3	-39.0294E-3	96.6884E-12	677.693E-3	-19.3050E-3
2.63382E-3	96.8607E-12	701.457E-3	-34.6446E-3	95.3168E-12	690.609E-3	-9.24506E-3
2.62881E-3	96.5982E-12	716.191E-3	-16.5818E-3	94.2232E-12	683.998E-3	-17.0115E-6
2.62381E-3	96.4981E-12	713.628E-3	-2.29129E-3	93.3908E-12	666.707E-3	467.119E-6
2.61881E-3	96.4975E-12	690.632E-3	-7.01808E-3	92.7167E-12	651.794E-3	-13.0290E-3
2.61381E-3	96.2458E-12	674.154E-3	-22.3989E-3	92.0008E-12	667.110E-3	-17.6595E-3
2.60880E-3	95.9022E-12	676.562E-3	-35.2972E-3	92.0986E-12	705.112E-3	-9.44520E-3
2.60380E-3	95.8014E-12	696.028E-3	-31.8618E-3	91.8388E-12	707.943E-3	-12.1123E-3
2.59880E-3	95.1922E-12	723.441E-3	-16.6612E-3	92.5274E-12	692.683E-3	-27.2748E-3
2.59380E-3	94.7943E-12	738.059E-3	-190.500E-6	93.1045E-12	708.035E-3	-39.0191E-3
2.58879E-3	93.9224E-12	732.587E-3	-2.55986E-3	93.1686E-12	727.607E-3	-44.6177E-3
2.58379E-3	93.4549E-12	717.054E-3	-13.2818E-3	94.1917E-12	736.577E-3	-41.9327E-3
2.57879E-3	93.2480E-12	694.411E-3	-3.08055E-3	94.9303E-12	738.453E-3	-31.3333E-3
2.57379E-3	92.6927E-12	687.970E-3	6.92835E-3	94.7345E-12	736.352E-3	-8.77723E-3
2.56878E-3	92.1295E-12	697.816E-3	3.67217E-3	95.5679E-12	746.732E-3	10.3441E-3
2.56378E-3	92.1810E-12	702.625E-3	4.74828E-3	95.8760E-12	763.399E-3	-1.26190E-3
2.55878E-3	91.5417E-12	710.504E-3	2.99014E-3	95.2956E-12	750.923E-3	-17.7815E-3
2.55378E-3	91.5922E-12	706.884E-3	-2.28378E-3	95.0011E-12	710.811E-3	-6.16002E-3
2.54877E-3	91.1173E-12	692.292E-3	3.25677E-3	94.1997E-12	693.457E-3	7.68951E-3
2.54377E-3	90.7675E-12	689.946E-3	-1.11760E-3	93.3525E-12	698.058E-3	1.21937E-3
2.53877E-3	91.0761E-12	688.347E-3	-12.9598E-3	92.5308E-12	713.700E-3	-7.83112E-3
2.53377E-3	91.5201E-12	687.015E-3	-7.63640E-3	91.6403E-12	726.749E-3	-17.8889E-3
2.52876E-3	90.8517E-12	703.496E-3	-6.22136E-3	90.9954E-12	709.789E-3	-24.2319E-3
2.52376E-3	90.8795E-12	716.318E-3	-26.0343E-3	90.3581E-12	687.605E-3	-14.3844E-3
2.51876E-3	91.4314E-12	718.147E-3	-33.9630E-3	90.0204E-12	693.206E-3	-15.1683E-3
2.51376E-3	91.1045E-12	729.347E-3	-25.6458E-3	89.4254E-12	713.782E-3	-31.6833E-3
2.50875E-3	90.6590E-12	738.241E-3	-30.3721E-3	89.4166E-12	722.335E-3	-25.1367E-3
2.50375E-3	91.4139E-12	733.137E-3	-34.8795E-3	89.7438E-12	720.253E-3	1.31965E-3
2.49875E-3	90.8932E-12	724.613E-3	-27.8992E-3	89.8371E-12	718.458E-3	1.18105E-3
2.49375E-3	90.6589E-12	722.201E-3	-18.2694E-3	89.5691E-12	715.592E-3	-20.8584E-3
2.48874E-3	90.8628E-12	729.677E-3	-9.30935E-3	89.8705E-12	717.642E-3	-30.8016E-3
2.48374E-3	90.9115E-12	731.183E-3	-10.7158E-3	90.3124E-12	730.871E-3	-37.6719E-3
2.47874E-3	89.9412E-12	732.851E-3	-15.3879E-3	90.4142E-12	733.730E-3	-35.8397E-3
2.47374E-3	90.1724E-12	746.509E-3	-14.2133E-3	90.6643E-12	729.586E-3	-24.8365E-3
2.46873E-3	89.3939E-12	734.998E-3	-19.8056E-3	90.5034E-12	728.216E-3	-30.5039E-3
2.46373E-3	88.5056E-12	705.589E-3	-24.4908E-3	90.5225E-12	729.721E-3	-42.5096E-3
2.45873E-3	88.1777E-12	697.327E-3	-18.9786E-3	89.7710E-12	742.091E-3	-32.1840E-3
2.45373E-3	87.5207E-12	703.743E-3	-21.5149E-3	89.5966E-12	751.122E-3	-10.6150E-3
2.44872E-3	86.4127E-12	703.321E-3	-32.8855E-3	89.4704E-12	746.451E-3	-2.99467E-3
2.44372E-3	86.0372E-12	703.035E-3	-27.3302E-3	88.4056E-12	733.879E-3	-9.98215E-3
2.43872E-3	85.8383E-12	707.450E-3	-8.94074E-3	87.5567E-12	720.662E-3	-32.8461E-3
2.43372E-3	85.8039E-12	707.043E-3	-2.34662E-3	87.2601E-12	720.254E-3	-48.2259E-3
2.42871E-3	85.8318E-12	704.467E-3	-5.33802E-3	86.9789E-12	728.558E-3	-38.0942E-3
2.42371E-3	85.8737E-12	700.526E-3	-2.54025E-3	86.0072E-12	717.852E-3	-31.6430E-3
2.41871E-3	86.2813E-12	699.241E-3	-6.98894E-3	85.3218E-12	695.863E-3	-35.2992E-3
2.41371E-3	86.1604E-12	704.278E-3	-16.3015E-3	85.0204E-12	695.943E-3	-25.5750E-3
2.40870E-3	86.0742E-12	714.779E-3	-3.63126E-3	84.9098E-12	714.092E-3	-19.4744E-3
2.40370E-3	86.7887E-12	724.066E-3	4.74406E-3	84.5763E-12	720.242E-3	-19.7566E-3
2.39870E-3	86.6543E-12	723.174E-3	-4.35108E-3	84.1003E-12	709.175E-3	-830.549E-6
2.39370E-3	86.4513E-12	722.501E-3	-3.41796E-3	83.9912E-12	700.281E-3	3.22518E-3
2.38869E-3	86.3948E-12	727.879E-3	5.01733E-3	83.7761E-12	707.217E-3	-21.7714E-3
2.38369E-3	86.0114E-12	738.808E-3	1.95441E-3	83.9862E-12	725.634E-3	-32.2193E-3
2.37869E-3	85.4744E-12	738.215E-3	-3.09726E-3	83.7196E-12	746.064E-3	-26.8654E-3
2.37369E-3	85.1566E-12	711.675E-3	-4.30101E-3	83.2060E-12	746.071E-3	-26.9650E-3
2.36868E-3	84.5286E-12	697.164E-3	-15.3958E-3	83.6546E-12	729.809E-3	-39.0261E-3
2.36368E-3	83.5669E-12	715.317E-3	-24.4901E-3	83.7766E-12	729.429E-3	-49.0674E-3
2.35868E-3	82.7283E-12	729.416E-3	-21.3500E-3	83.6614E-12	743.052E-3	-34.3748E-3
2.35368E-3	82.1669E-12	724.443E-3	-9.47840E-3	83.5053E-12	745.615E-3	-4.21993E-3
2.34867E-3	81.2919E-12	720.023E-3	-6.69788E-3	82.8295E-12	731.815E-3	9.52238E-3
2.34367E-3	80.5814E-12	722.251E-3	-8.67211E-3	83.4044E-12	721.460E-3	-4.85827E-3
2.33867E-3	80.4269E-12	718.705E-3	-9.94893E-3	82.9340E-12	721.151E-3	-28.9434E-3
2.33367E-3	79.6230E-12	705.684E-3	-14.8905E-3	82.3747E-12	737.041E-3	-30.1584E-3
2.32866E-3	79.4699E-12	703.729E-3	-3.14315E-3	82.0529E-12	753.009E-3	-2.57017E-3
2.32366E-3	80.1066E-12	719.775E-3	12.3016E-3	81.6671E-12	742.778E-3	11.1090E-3
2.31866E-3	80.0690E-12	736.264E-3	2.20148E-3	81.4488E-12	728.986E-3	4.25638E-3
2.31366E-3	79.8663E-12	739.411E-3	-13.7253E-3	81.1192E-12	728.334E-3	-6.91157E-3
2.30865E-3	80.0427E-12	734.027E-3	-17.1379E-3	80.1887E-12	723.747E-3	-23.6823E-3
2.30365E-3	80.4994E-12	727.584E-3	-19.2337E-3	79.7335E-12	723.629E-3	-23.6413E-3
2.29865E-3	80.3977E-12	733.081E-3	-21.3131E-3	79.1647E-12	733.182E-3	-17.7885E-3
2.29365E-3	80.3902E-12	743.257E-3	-26.8655E-3	78.8032E-12	725.547E-3	-34.8977E-3
2.28864E-3	80.5866E-12	732.349E-3	-33.5547E-3	78.1637E-12	713.449E-3	-41.0565E-3
2.28364E-3	80.6218E-12	722.757E-3	-33.6150E-3	77.9771E-12	731.435E-3	-30.6502E-3
2.27864E-3	80.0388E-12	731.232E-3	-28.8016E-3	77.7805E-12	754.591E-3	-31.7285E-3
2.27364E-3	79.3572E-12	746.311E-3	-31.2276E-3	78.1818E-12	749.237E-3	-36.2069E-3
2.26863E-3	79.0770E-12	754.759E-3	-35.4131E-3	78.6801E-12	733.717E-3	-40.1184E-3
2.26363E-3	78.3001E-12	752.973E-3	-22.2530E-3	78.4464E-12	730.136E-3	-46.0199E-3
2.25863E-3	77.6255E-12	742.548E-3	-12.9146E-3	78.3280E-12	742.188E-3	-43.0664E-3
2.25363E-3	77.1557E-12	730.803E-3	-19.6173E-3	79.3694E-12	760.367E-3	-18.8216E-3
2.24862E-3	76.5489E-12	738.169E-3	-16.9149E-3	79.1350E-12	771.271E-3	2.14670E-3
2.24362E-3	76.1820E-12	747.178E-3	-8.56799E-3	79.0906E-12	765.705E-3	4.64186E-3
2.23862E-3	75.8011E-12	741.185E-3	-10.1420E-3	79.5350E-12	746.612E-3	-3.99957E-3
2.23362E-3	76.3091E-12	729.935E-3	-18.3789E-3	79.5843E-12	748.492E-3	-17.6149E-3
2.22861E-3	76.0765E-12	729.184E-3	-15.6104E-3	79.0995E-12	763.734E-3	-8.90424E-3
2.22361E-3	76.0982E-12	735.196E-3	-3.88258E-3	78.6086E-12	763.415E-3	10.7585E-3
2.21861E-3	76.3992E-12	724.028E-3	-6.57591E-3	77.8767E-12	757.846E-3	-23.8738E-6
2.21361E-3	76.7043E-12	719.619E-3	-7.55102E-3	76.9271E-12	742.438E-3	-24.2010E-3
2.20860E-3	76.6893E-12	742.565E-3	-3.18435E-3	76.0459E-12	734.094E-3	-24.4823E-3
2.20360E-3	76.8865E-12	758.913E-3	-13.4682E-3	75.4607E-12	746.174E-3	-17.7763E-3
2.19860E-3	76.7957E-12	752.632E-3	-16.9241E-3	74.9418E-12	746.889E-3	-15.8816E-3
2.19360E-3	76.6086E-12	750.472E-3	-3.78672E-3	74.1655E-12	742.743E-3	-10.6540E-3
2.18859E-3	76.2798E-12	764.745E-3	-1.07144E-3	73.2867E-12	742.897E-3	-21.1504E-3
2.18359E-3	76.1266E-12	771.830E-3	-16.1492E-3	73.0644E-12	739.886E-3	-36.8745E-3
2.17859E-3	75.6425E-12	765.261E-3	-26.4442E-3	73.2610E-12	740.731E-3	-31.3982E-3
2.17359E-3	74.9782E-12	766.359E-3	-17.0423E-3	73.0222E-12	745.773E-3	-18.1913E-3
2.16858E-3	74.5338E-12	775.580E-3	-9.65705E-3	72.8541E-12	754.656E-3	-18.8127E-3
2.16358E-3	74.0668E-12	775.948E-3	-15.7418E-3	73.3042E-12	760.944E-3	-31.8210E-3
2.15858E-3	73.0064E-12	771.601E-3	-21.2832E-3	73.8741E-12	770.374E-3	-35.2787E-3
2.15358E-3	72.7555E-12	761.818E-3	-23.2439E-3	74.2250E-12	786.709E-3	-28.5459E-3
2.14857E-3	72.7914E-12	757.351E-3	-11.6831E-3	74.1838E-12	798.854E-3	-11.2910E-3
2.14357E-3	71.5256E-12	762.902E-3	3.37514E-3	74.4536E-12	797.665E-3	1.10416E-3
2.13857E-3	71.9069E-12	762.101E-3	-8.43400E-3	74.5947E-12	789.575E-3	-17.6460E-3
2.13357E-3	71.7459E-12	756.345E-3	-22.5837E-3	74.3045E-12	798.265E-3	-35.8649E-3
2.12856E-3	71.2348E-12	738.850E-3	-5.41469E-3	73.5347E-12	807.377E-3	-32.1644E-3
2.12356E-3	71.3200E-12	724.623E-3	10.9406E-3	72.8802E-12	780.797E-3	-26.3109E-3
2.11856E-3	71.4486E-12	735.788E-3	7.00411E-3	72.1710E-12	741.896E-3	-19.2543E-3
2.11356E-3	70.9907E-12	765.176E-3	-35.8973E-6	71.2212E-12	735.106E-3	-17.6068E-3
2.10855E-3	70.7343E-12	780.789E-3	-7.65098E-3	70.5169E-12	744.206E-3	-28.4511E-3
2.10355E-3	71.2248E-12	772.186E-3	-15.1655E-3	69.7277E-12	749.510E-3	-28.9096E-3
2.09855E-3	70.3016E-12	774.147E-3	-25.2664E-3	68.8574E-12	757.773E-3	-24.3713E-3
2.09355E-3	70.2680E-12	782.952E-3	-33.6389E-3	68.4635E-12	749.778E-3	-33.4086E-3
2.08854E-3	70.4161E-12	777.158E-3	-25.7206E-3	68.2102E-12	738.483E-3	-36.4284E-3
2.08354E-3	69.5501E-12	760.001E-3	-20.6802E-3	67.8112E-12	753.898E-3	-21.3231E-3
2.07854E-3	69.1602E-12	753.417E-3	-27.4702E-3	67.6517E-12	769.040E-3	-6.84812E-3
2.07354E-3	69.4707E-12	772.816E-3	-26.4953E-3	67.5112E-12	772.825E-3	-3.98763E-3
2.06853E-3	68.7446E-12	789.214E-3	-23.0980E-3	67.7589E-12	774.012E-3	-10.9145E-3
2.06353E-3	67.6202E-12	786.040E-3	-32.4502E-3	67.9892E-12	778.154E-3	-13.3446E-3
2.05853E-3	67.7669E-12	780.417E-3	-38.6633E-3	68.3290E-12	792.664E-3	-10.6853E-3
2.05353E-3	67.5147E-12	770.524E-3	-19.6783E-3	68.2044E-12	803.847E-3	-26.2458E-3
2.04852E-3	66.9098E-12	755.190E-3	2.74700E-3	68.5546E-12	811.116E-3	-37.5906E-3
2.04352E-3	66.6842E-12	756.769E-3	-5.61666E-3	68.7538E-12	798.024E-3	-14.2698E-3
2.03852E-3	66.4870E-12	772.392E-3	-28.9071E-3	68.3211E-12	775.592E-3	-729.405E-6
2.03352E-3	66.1840E-12	775.949E-3	-33.7044E-3	67.8073E-12	793.664E-3	-17.8490E-3
2.02851E-3	66.0707E-12	775.331E-3	-20.6829E-3	67.6807E-12	824.693E-3	-20.2694E-3
2.02351E-3	65.6925E-12	780.247E-3	-10.0556E-3	67.0878E-12	827.648E-3	-7.93752E-3
2.01851E-3	65.2238E-12	779.904E-3	-17.9467E-3	66.9254E-12	812.039E-3	-9.08658E-3
2.01351E-3	65.3838E-12	783.204E-3	-26.8646E-3	66.1423E-12	799.969E-3	-16.4967E-3
2.00850E-3	64.9672E-12	787.894E-3	-20.3005E-3	65.4165E-12	802.345E-3	-16.5180E-3
2.00350E-3	64.7444E-12	778.861E-3	-5.67312E-3	64.7894E-12	810.375E-3	-17.3552E-3
1.99850E-3	65.1153E-12	775.891E-3	1.86966E-3	64.5991E-12	809.614E-3	-12.9976E-3
1.99350E-3	64.6350E-12	795.606E-3	-3.97463E-3	63.9518E-12	792.168E-3	4.03201E-3
1.98849E-3	64.2117E-12	806.031E-3	-5.53843E-3	63.5235E-12	778.862E-3	2.69806E-3
1.98349E-3	64.3697E-12	804.391E-3	-4.85081E-3	63.4473E-12	786.628E-3	-23.3823E-3
1.97849E-3	64.8639E-12	807.002E-3	-11.2792E-3	63.4689E-12	805.846E-3	-38.6937E-3
1.97349E-3	64.1328E-12	806.751E-3	-13.0973E-3	63.1387E-12	830.924E-3	-29.1617E-3
1.96848E-3	63.8917E-12	809.955E-3	-14.5009E-3	63.1401E-12	836.377E-3	-6.33577E-3
1.96348E-3	64.2026E-12	813.282E-3	-25.2938E-3	63.1694E-12	819.725E-3	5.03380E-3
1.95848E-3	63.8775E-12	824.126E-3	-32.5528E-3	63.3941E-12	818.049E-3	-7.39116E-3
1.95348E-3	63.3120E-12	836.498E-3	-38.0711E-3	63.1844E-12	822.981E-3	-16.5351E-3
1.94847E-3	63.3207E-12	832.576E-3	-42.0530E-3	63.1774E-12	819.269E-3	-935.224E-6
1.94347E-3	62.5541E-12	832.985E-3	-33.3220E-3	63.0479E-12	821.334E-3	14.3916E-3
1.93847E-3	61.9793E-12	834.727E-3	-25.0806E-3	62.8945E-12	821.076E-3	-4.96080E-3
1.93347E-3	62.2334E-12	833.511E-3	-23.6177E-3	62.4028E-12	819.384E-3	-35.8382E-3
1.92846E-3	61.1865E-12	839.686E-3	-17.6929E-3	62.6869E-12	832.788E-3	-40.9606E-3
1.92346E-3	60.2675E-12	838.577E-3	-20.2581E-3	62.1031E-12	849.390E-3	-34.5945E-3
1.91846E-3	60.1607E-12	831.726E-3	-30.7381E-3	61.7961E-12	847.644E-3	-30.6146E-3
1.91346E-3	60.3090E-12	826.004E-3	-27.9261E-3	61.1501E-12	839.787E-3	-20.8921E-3
1.90845E-3	59.9242E-12	816.631E-3	-18.0662E-3	61.1751E-12	840.273E-3	-17.4510E-3
1.90345E-3	59.6966E-12	811.545E-3	-16.3436E-3	60.7589E-12	835.349E-3	-16.5290E-3
1.89845E-3	59.5637E-12	816.842E-3	-17.2299E-3	59.8444E-12	831.242E-3	-5.64606E-3
1.89345E-3	59.5105E-12	819.519E-3	-10.8494E-3	59.4292E-12	835.418E-3	-4.09258E-3
1.88844E-3	60.0075E-12	820.004E-3	-2.86861E-3	59.2785E-12	835.645E-3	-20.5912E-3
1.88344E-3	59.7129E-12	829.234E-3	-1.67631E-3	58.8307E-12	833.755E-3	-30.1783E-3
1.87844E-3	59.4276E-12	837.578E-3	-6.33366E-3	58.0273E-12	837.963E-3	-30.3567E-3
1.87344E-3	59.6097E-12	847.385E-3	-15.2063E-3	57.7946E-12	846.955E-3	-26.5941E-3
1.86843E-3	58.9663E-12	859.190E-3	-21.8421E-3	57.4878E-12	853.422E-3	-12.2002E-3
1.86343E-3	58.5706E-12	862.153E-3	-17.2488E-3	57.2787E-12	854.725E-3	-7.76785E-3
1.85843E-3	58.2009E-12	857.165E-3	-12.8081E-3	56.9855E-12	854.967E-3	-15.1694E-3
1.85343E-3	57.9781E-12	849.085E-3	-8.27393E-3	56.5441E-12	855.295E-3	-19.5246E-3
1.84842E-3	57.1642E-12	847.117E-3	-12.5993E-3	56.3737E-12	862.568E-3	-18.5135E-3
1.84342E-3	56.6754E-12	855.110E-3	-28.4734E-3	56.4052E-12	879.582E-3	-9.14821E-3
1.83842E-3	56.2013E-12	856.804E-3	-27.5584E-3	56.5552E-12	887.679E-3	1.54885E-3
1.83342E-3	55.5714E-12	843.604E-3	-16.2617E-3	56.2602E-12	885.043E-3	-14.8631E-3
1.82841E-3	54.7089E-12	841.677E-3	-7.34346E-3	56.3017E-12	882.740E-3	-38.0058E-3
1.82341E-3	54.3212E-12	854.270E-3	-2.29819E-3	56.1446E-12	887.017E-3	-19.4068E-3
1.81841E-3	53.7245E-12	856.776E-3	474.531E-6	55.6104E-12	901.440E-3	12.6041E-3
1.81341E-3	53.4057E-12	848.938E-3	-4.08009E-3	55.5788E-12	903.557E-3	19.5871E-3
1.80840E-3	53.2862E-12	847.527E-3	-4.82038E-3	55.3226E-12	884.628E-3	-53.2659E-6
1.80340E-3	53.2167E-12	864.283E-3	-2.38912E-3	54.8546E-12	887.454E-3	-22.3702E-3
1.79840E-3	52.9749E-12	878.384E-3	-15.6157E-3	54.4584E-12	909.327E-3	-18.2402E-3
1.79340E-3	53.0729E-12	884.471E-3	-23.8927E-3	54.1187E-12	895.811E-3	-3.54418E-3
1.78839E-3	53.4038E-12	890.793E-3	-26.5873E-3	53.4030E-12	862.954E-3	522.889E-6
1.78339E-3	53.4136E-12	890.576E-3	-20.2285E-3	52.7964E-12	850.014E-3	-7.03389E-3
1.77839E-3	53.0929E-12	897.853E-3	-4.91106E-3	52.1602E-12	859.717E-3	-17.7816E-3
1.77339E-3	53.2321E-12	906.094E-3	-3.99893E-3	51.6038E-12	876.729E-3	-16.1710E-3
1.76838E-3	53.2333E-12	905.693E-3	-10.2097E-3	51.0237E-12	883.407E-3	-12.1262E-3
1.76338E-3	52.5971E-12	909.434E-3	-12.9716E-3	50.5188E-12	886.587E-3	-8.52203E-3
1.75838E-3	52.3085E-12	914.837E-3	-13.7881E-3	50.1726E-12	892.241E-3	-727.103E-6
1.75338E-3	51.8311E-12	912.885E-3	-9.53919E-3	49.8247E-12	899.924E-3	-9.30644E-3
1.74837E-3	51.2178E-12	913.812E-3	-3.36227E-3	49.9053E-12	918.576E-3	-22.7608E-3
1.74337E-3	50.5279E-12	921.443E-3	-3.30566E-3	49.6921E-12	943.291E-3	-11.9248E-3
1.73837E-3	49.8962E-12	926.034E-3	-10.5308E-3	49.6698E-12	951.358E-3	-3.41589E-3
1.73337E-3	49.2182E-12	925.485E-3	-13.2778E-3	50.0856E-12	949.864E-3	-9.28816E-3
1.72836E-3	48.7481E-12	922.597E-3	-7.89426E-3	49.8326E-12	955.368E-3	-9.99092E-3
1.72336E-3	48.0982E-12	912.789E-3	-7.20990E-3	49.7140E-12	964.325E-3	-18.2259E-3
1.71836E-3	47.5172E-12	903.013E-3	-4.15367E-3	49.6727E-12	977.773E-3	-23.7672E-3
1.71336E-3	47.3548E-12	901.219E-3	6.74183E-3	49.6051E-12	978.464E-3	-6.22505E-3
1.70835E-3	47.1762E-12	901.275E-3	4.18116E-3	49.0143E-12	966.330E-3	4.80056E-3
1.70335E-3	46.8448E-12	899.079E-3	-12.4243E-3	48.7030E-12	961.145E-3	-16.1097E-3
1.69835E-3	46.7324E-12	900.342E-3	-20.9210E-3	48.3072E-12	962.698E-3	-42.7782E-3
1.69335E-3	46.8305E-12	907.530E-3	-18.0291E-3	47.8720E-12	968.645E-3	-47.6219E-3
1.68834E-3	46.8147E-12	909.772E-3	-12.6100E-3	47.1396E-12	958.170E-3	-40.7431E-3
1.68334E-3	47.0610E-12	913.442E-3	-14.8928E-3	46.7067E-12	943.998E-3	-34.1965E-3
1.67834E-3	46.9952E-12	927.111E-3	-20.7786E-3	46.2260E-12	949.661E-3	-41.2570E-3
1.67334E-3	46.7509E-12	951.562E-3	-21.9747E-3	45.1690E-12	959.654E-3	-59.6072E-3
1.66833E-3	46.8223E-12	977.632E-3	-18.6517E-3	44.9560E-12	970.866E-3	-52.9075E-3
1.66333E-3	46.6024E-12	989.705E-3	-12.8581E-3	44.7278E-12	982.368E-3	-21.1940E-3
1.65833E-3	46.0906E-12	988.740E-3	-16.5359E-3	44.8115E-12	980.521E-3	-3.47511E-3
1.65333E-3	45.7352E-12	988.822E-3	-16.1807E-3	44.3956E-12	977.530E-3	-2.77281E-3
1.64832E-3	45.5634E-12	994.546E-3	-5.30218E-3	44.1334E-12	1.00049E+0	-9.44628E-3
1.64332E-3	44.9276E-12	995.295E-3	-7.02115E-3	44.2654E-12	1.02626E+0	-14.4540E-3
1.63832E-3	44.4224E-12	996.650E-3	-12.2416E-3	44.4612E-12	1.02349E+0	-8.14656E-3
1.63332E-3	43.9951E-12	997.270E-3	-12.5548E-3	44.2308E-12	1.01956E+0	-8.04718E-3
1.62831E-3	43.3795E-12	988.943E-3	-14.3380E-3	44.2705E-12	1.03596E+0	-16.8799E-3
1.62331E-3	42.8404E-12	998.387E-3	-8.35923E-3	44.1230E-12	1.04673E+0	-9.76108E-3
1.61831E-3	42.4883E-12	1.01374E+0	-7.03626E-3	43.9874E-12	1.04631E+0	8.10224E-3
1.61331E-3	41.8040E-12	1.00439E+0	-20.6136E-3	43.8691E-12	1.04446E+0	5.73787E-3
1.60830E-3	41.3620E-12	1.00340E+0	-19.7854E-3	43.3248E-12	1.03779E+0	-8.16986E-3
1.60330E-3	41.2595E-12	1.01647E+0	-11.8894E-3	42.5697E-12	1.03739E+0	-17.4344E-3
1.59830E-3	40.9888E-12	1.01927E+0	-20.1762E-3	42.2897E-12	1.04376E+0	-22.5187E-3
1.59330E-3	40.4235E-12	1.01907E+0	-22.7218E-3	41.6577E-12	1.03196E+0	-19.7220E-3
1.58829E-3	40.4533E-12	1.02684E+0	-14.8053E-3	40.9114E-12	1.01575E+0	-9.45671E-3
1.58329E-3	40.4730E-12	1.02882E+0	-13.2929E-3	40.2985E-12	1.02950E+0	-13.9956E-3
1.57829E-3	40.1900E-12	1.02690E+0	-12.0466E-3	39.6902E-12	1.04552E+0	-32.0990E-3
1.57329E-3	39.8733E-12	1.03863E+0	-10.4007E-3	39.1971E-12	1.04358E+0	-32.2252E-3
1.56828E-3	39.7369E-12	1.05170E+0	-14.0713E-3	38.6991E-12	1.05174E+0	-23.1820E-3
1.56328E-3	39.6472E-12	1.05592E+0	-19.9897E-3	38.3549E-12	1.06771E+0	-17.0592E-3
1.55828E-3	39.2989E-12	1.05719E+0	-19.0261E-3	37.8017E-12	1.07041E+0	-9.87605E-3
1.55328E-3	38.7939E-12	1.06624E+0	-3.12285E-3	37.5495E-12	1.07008E+0	-15.4104E-3
1.54827E-3	38.4249E-12	1.08026E+0	6.22542E-3	37.2807E-12	1.07734E+0	-25.7172E-3
1.54327E-3	38.2815E-12	1.08925E+0	-1.77870E-3	37.1079E-12	1.09234E+0	-20.5350E-3
1.53827E-3	37.6198E-12	1.08629E+0	-10.0180E-3	37.1001E-12	1.10845E+0	-13.5607E-3
1.53327E-3	37.0669E-12	1.07259E+0	-13.3997E-3	36.6553E-12	1.11027E+0	-30.1338E-3
1.52826E-3	36.3803E-12	1.07014E+0	-14.7371E-3	36.3957E-12	1.10604E+0	-49.2545E-3
1.52326E-3	35.9728E-12	1.07785E+0	-16.4758E-3	36.1903E-12	1.10777E+0	-40.7482E-3
1.51826E-3	35.3223E-12	1.08657E+0	-22.0466E-3	35.8491E-12	1.10734E+0	-19.7036E-3
1.51326E-3	34.8630E-12	1.09417E+0	-20.5205E-3	35.2368E-12	1.10346E+0	-5.43192E-3
1.50825E-3	34.2648E-12	1.08726E+0	-12.7915E-3	34.8347E-12	1.10370E+0	-3.79588E-3
1.50325E-3	33.9154E-12	1.08118E+0	-19.1096E-3	34.5708E-12	1.10631E+0	-22.8046E-3
1.49825E-3	33.6110E-12	1.09054E+0	-26.7298E-3	34.1059E-12	1.10125E+0	-43.4921E-3
1.49325E-3	33.1961E-12	1.08931E+0	-21.0531E-3	33.4534E-12	1.09067E+0	-32.3153E-3
1.48824E-3	32.8079E-12	1.08001E+0	-26.0585E-3	33.0108E-12	1.08826E+0	-6.88878E-3
1.48324E-3	32.4110E-12	1.08163E+0	-26.1797E-3	32.5401E-12	1.09102E+0	47.2413E-6
1.47824E-3	32.1755E-12	1.07483E+0	-9.29647E-3	32.0917E-12	1.09236E+0	-11.3792E-3
1.47324E-3	31.7246E-12	1.06210E+0	-11.9322E-3	31.6914E-12	1.09715E+0	-26.6029E-3
1.46823E-3	31.6182E-12	1.07386E+0	-17.8134E-3	31.1552E-12	1.09792E+0	-31.2731E-3
1.46323E-3	31.5420E-12	1.09461E+0	-5.19251E-3	30.8065E-12	1.09931E+0	-26.8775E-3
1.45823E-3	31.0375E-12	1.10159E+0	-208.199E-6	30.4651E-12	1.10075E+0	-26.5859E-3
1.45323E-3	30.6842E-12	1.11040E+0	-7.93507E-3	30.0896E-12	1.09384E+0	-36.0461E-3
1.44822E-3	30.5730E-12	1.12242E+0	-13.4886E-3	29.8796E-12	1.10458E+0	-43.3643E-3
1.44322E-3	30.2537E-12	1.13032E+0	-21.6233E-3	29.5418E-12	1.12331E+0	-40.2321E-3
1.43822E-3	29.8471E-12	1.13525E+0	-25.1721E-3	29.2216E-12	1.12116E+0	-41.9131E-3
1.43322E-3	29.5573E-12	1.12432E+0	-13.5263E-3	29.0713E-12	1.10573E+0	-45.9518E-3
1.42821E-3	29.2176E-12	1.10847E+0	-7.54348E-3	28.9671E-12	1.10014E+0	-46.4656E-3
1.42321E-3	28.6955E-12	1.11530E+0	-8.66609E-3	28.5474E-12	1.10974E+0	-40.4581E-3
1.41821E-3	28.0352E-12	1.12475E+0	-2.81707E-3	28.0830E-12	1.11391E+0	-23.3879E-3
1.41321E-3	27.6400E-12	1.11829E+0	-5.07788E-3	27.8255E-12	1.11082E+0	-12.2874E-3
1.40820E-3	27.1729E-12	1.11097E+0	-15.7413E-3	27.8661E-12	1.10269E+0	-9.32811E-3
1.40320E-3	26.7860E-12	1.10409E+0	-12.3902E-3	27.3738E-12	1.09422E+0	-12.2473E-3
1.39820E-3	26.1479E-12	1.08375E+0	-6.78948E-3	26.9731E-12	1.09392E+0	-28.2440E-3
1.39320E-3	25.7665E-12	1.07671E+0	-9.95295E-3	26.6526E-12	1.09775E+0	-35.4771E-3
1.38819E-3	25.4127E-12	1.08899E+0	-12.7649E-3	26.3850E-12	1.08874E+0	-13.7164E-3
1.38319E-3	25.2088E-12	1.07136E+0	-11.4632E-3	26.1714E-12	1.06759E+0	1.51114E-3
1.37819E-3	24.8660E-12	1.04809E+0	-5.57363E-3	25.6274E-12	1.04816E+0	-15.3239E-3
1.37319E-3	24.6496E-12	1.04704E+0	-1.92043E-3	25.2607E-12	1.03609E+0	-27.8141E-3
1.36818E-3	24.4070E-12	1.03638E+0	-8.07829E-3	24.9246E-12	1.03325E+0	-22.7085E-3
1.36318E-3	24.2562E-12	1.03297E+0	-12.8080E-3	24.4454E-12	1.02824E+0	-12.4372E-3
1.35818E-3	23.9018E-12	1.04700E+0	-10.3759E-3	23.9257E-12	1.01537E+0	-6.56835E-3
1.35318E-3	23.8892E-12	1.03916E+0	-13.3553E-3	23.4611E-12	1.00474E+0	-9.50265E-3
1.34817E-3	23.7487E-12	1.02070E+0	-15.5396E-3	23.1945E-12	1.00365E+0	-8.02500E-3
1.34317E-3	23.4030E-12	1.02951E+0	-11.8955E-3	22.7453E-12	1.00745E+0	-130.886E-6
1.33817E-3	23.1347E-12	1.04612E+0	-16.2610E-3	22.5795E-12	1.01049E+0	4.98702E-3
1.33317E-3	22.9230E-12	1.05104E+0	-22.1627E-3	22.3702E-12	993.767E-3	-3.47249E-3
1.32816E-3	22.6289E-12	1.04261E+0	-16.6540E-3	21.9341E-12	964.028E-3	-18.5749E-3
1.32316E-3	22.2470E-12	1.02322E+0	-14.6671E-3	21.6274E-12	956.366E-3	-24.9504E-3
1.31816E-3	21.6656E-12	1.01749E+0	-17.7050E-3	21.2840E-12	952.362E-3	-28.3768E-3
1.31316E-3	21.2019E-12	1.01787E+0	-19.7516E-3	21.0922E-12	930.034E-3	-28.4833E-3
1.30815E-3	20.8076E-12	1.00111E+0	-20.4664E-3	20.8296E-12	913.513E-3	-16.3379E-3
1.30315E-3	20.2539E-12	979.800E-3	-18.5364E-3	20.3929E-12	909.705E-3	-7.43714E-3
1.29815E-3	19.6243E-12	964.600E-3	-11.1936E-3	20.2141E-12	895.617E-3	-10.9409E-3
1.29315E-3	19.3012E-12	950.693E-3	2.43543E-3	20.1086E-12	878.424E-3	-12.0610E-3
1.28814E-3	19.0413E-12	933.477E-3	-6.06376E-3	19.6570E-12	880.509E-3	-15.7359E-3
1.28314E-3	18.5894E-12	912.657E-3	-18.3673E-3	19.2341E-12	872.398E-3	-21.1943E-3
1.27814E-3	18.2267E-12	892.574E-3	-5.22406E-3	18.8764E-12	843.814E-3	-15.3092E-3
1.27314E-3	18.2258E-12	869.527E-3	-5.79567E-3	18.6428E-12	828.301E-3	-11.9817E-3
1.26813E-3	17.9243E-12	854.928E-3	-20.8313E-3	18.1939E-12	814.186E-3	-18.9918E-3
1.26313E-3	17.6126E-12	854.164E-3	-25.5087E-3	17.6396E-12	787.477E-3	-22.2889E-3
1.25813E-3	17.5569E-12	844.199E-3	-36.6465E-3	17.2690E-12	769.047E-3	-23.6703E-3
1.25313E-3	17.5197E-12	822.186E-3	-44.9066E-3	17.0756E-12	749.735E-3	-26.8888E-3
1.24812E-3	17.4052E-12	808.505E-3	-29.8630E-3	16.8032E-12	729.487E-3	-28.6343E-3
1.24312E-3	16.9480E-12	802.818E-3	-17.0520E-3	16.4156E-12	725.689E-3	-26.2570E-3
1.23812E-3	16.9262E-12	796.011E-3	-15.2908E-3	16.1202E-12	721.024E-3	-16.3436E-3
1.23312E-3	16.8479E-12	793.512E-3	-8.19756E-3	16.0502E-12	701.609E-3	-4.56583E-3
1.22811E-3	16.5600E-12	787.999E-3	-9.07615E-3	15.7490E-12	680.685E-3	2.44988E-3
1.22311E-3	16.0508E-12	780.645E-3	-20.7431E-3	15.5655E-12	672.459E-3	-8.72434E-3
1.21811E-3	15.7590E-12	771.521E-3	-13.1242E-3	15.4666E-12	673.118E-3	-26.2474E-3
1.21311E-3	15.5759E-12	744.518E-3	-2.75487E-3	15.2972E-12	672.027E-3	-34.5023E-3
1.20810E-3	15.1686E-12	712.846E-3	-17.0300E-3	15.0828E-12	658.246E-3	-34.0822E-3
1.20310E-3	14.7395E-12	691.990E-3	-32.1213E-3	15.0252E-12	641.583E-3	-20.6735E-3
1.19810E-3	14.5187E-12	668.734E-3	-19.4398E-3	14.7990E-12	635.303E-3	-12.0366E-3
1.19310E-3	14.2234E-12	655.487E-3	-5.75553E-3	14.5192E-12	622.594E-3	-10.6162E-3
1.18809E-3	13.9748E-12	653.020E-3	-13.0588E-3	14.3032E-12	597.944E-3	1.15168E-3
1.18309E-3	13.6951E-12	628.281E-3	-13.1824E-3	14.2250E-12	568.951E-3	8.71284E-3
1.17809E-3	13.5290E-12	604.169E-3	-12.1243E-3	14.0141E-12	535.441E-3	-6.83174E-3
1.17309E-3	13.3875E-12	592.130E-3	-16.7916E-3	13.7367E-12	515.628E-3	-27.8048E-3
1.16808E-3	13.1287E-12	564.193E-3	-19.1338E-3	13.2789E-12	510.888E-3	-33.4493E-3
1.16308E-3	12.8662E-12	550.581E-3	-20.6225E-3	13.1334E-12	493.767E-3	-29.9581E-3
1.15808E-3	12.9847E-12	558.069E-3	-18.7806E-3	12.9570E-12	467.625E-3	-19.0082E-3
1.15308E-3	12.8763E-12	540.201E-3	-20.4431E-3	12.6747E-12	454.198E-3	-5.51174E-3
1.14807E-3	12.6741E-12	509.143E-3	-27.0878E-3	12.3523E-12	447.287E-3	-11.4480E-3
1.14307E-3	12.6536E-12	497.757E-3	-17.8244E-3	12.2669E-12	439.226E-3	-24.8222E-3
1.13807E-3	12.6140E-12	498.466E-3	2.48255E-3	12.2242E-12	435.572E-3	-24.4804E-3
1.13307E-3	12.4614E-12	495.489E-3	-2.56799E-3	12.0575E-12	425.838E-3	-20.7120E-3
1.12806E-3	12.3030E-12	488.646E-3	-26.2537E-3	11.9194E-12	401.716E-3	-14.6310E-3
1.12306E-3	12.0922E-12	468.729E-3	-31.2662E-3	11.8097E-12	389.654E-3	-8.02759E-3
1.11806E-3	11.9676E-12	439.893E-3	-26.2712E-3	11.7596E-12	392.855E-3	-18.8987E-3
1.11306E-3	11.8553E-12	438.219E-3	-31.1217E-3	11.7812E-12	379.629E-3	-30.4611E-3
1.10805E-3	11.7081E-12	439.051E-3	-28.5530E-3	11.6023E-12	363.749E-3	-21.0493E-3
1.10305E-3	11.4492E-12	417.145E-3	-20.8576E-3	11.5041E-12	360.173E-3	-8.28710E-3
1.09805E-3	11.3976E-12	407.582E-3	-16.6930E-3	11.5206E-12	346.726E-3	-6.88432E-3
1.09305E-3	11.2676E-12	403.028E-3	-16.9600E-3	11.3310E-12	326.290E-3	-8.56822E-3
1.08804E-3	10.9465E-12	383.144E-3	-27.9075E-3	11.2805E-12	321.087E-3	-8.64420E-3
1.08304E-3	10.7670E-12	370.626E-3	-35.8094E-3	11.1355E-12	316.653E-3	-15.7646E-3
1.07804E-3	10.8448E-12	361.249E-3	-30.3336E-3	10.9248E-12	305.019E-3	-22.4371E-3
1.07304E-3	10.5902E-12	334.257E-3	-23.5593E-3	10.7561E-12	295.712E-3	-16.8700E-3
1.06803E-3	10.4844E-12	314.249E-3	-21.2714E-3	10.6630E-12	283.383E-3	-11.2690E-3
1.06303E-3	10.4866E-12	307.677E-3	-14.1798E-3	10.5794E-12	278.537E-3	-7.40580E-3
1.05803E-3	10.5161E-12	302.530E-3	-12.1113E-3	10.3229E-12	280.177E-3	-7.51228E-3
1.05303E-3	10.2856E-12	311.127E-3	-20.8051E-3	10.1106E-12	260.929E-3	-17.2395E-3
1.04802E-3	10.2294E-12	311.440E-3	-16.3013E-3	10.0528E-12	229.974E-3	-18.2090E-3
1.04302E-3	10.3345E-12	285.557E-3	-3.02668E-3	10.2559E-12	221.475E-3	-13.6183E-3
1.03802E-3	10.2171E-12	273.872E-3	-3.65758E-3	9.89247E-12	225.843E-3	-20.2793E-3
1.03302E-3	10.0611E-12	287.360E-3	-17.2956E-3	9.59542E-12	215.913E-3	-24.0661E-3
1.02801E-3	9.76888E-12	278.757E-3	-28.4839E-3	9.57716E-12	202.072E-3	-11.3698E-3
1.02301E-3	9.78496E-12	245.596E-3	-25.3353E-3	9.58120E-12	193.069E-3	-3.91010E-3
1.01801E-3	9.61904E-12	224.766E-3	-11.3913E-3	9.51580E-12	184.568E-3	-6.80925E-3
1.01301E-3	9.43297E-12	206.062E-3	-2.79244E-3	9.28751E-12	182.516E-3	-11.8355E-3
1.00800E-3	9.41275E-12	190.743E-3	-9.74780E-3	9.37607E-12	190.415E-3	-16.5997E-3
1.00300E-3	9.39192E-12	186.151E-3	-13.7067E-3	9.41631E-12	189.964E-3	-9.99618E-3
997.999E-6	9.28498E-12	173.555E-3	-16.1465E-3	9.36320E-12	174.637E-3	5.72805E-3
992.997E-6	9.00501E-12	171.384E-3	-25.1973E-3	9.10661E-12	158.176E-3	4.33430E-3
987.994E-6	8.96162E-12	185.864E-3	-19.7996E-3	9.01520E-12	148.768E-3	-11.9709E-3
982.991E-6	8.93753E-12	180.977E-3	-15.3601E-3	9.17068E-12	145.820E-3	-15.2831E-3
977.989E-6	8.87117E-12	166.447E-3	-30.7239E-3	9.06953E-12	148.258E-3	-11.5894E-3
972.986E-6	8.59925E-12	169.393E-3	-32.6130E-3	8.84659E-12	146.191E-3	-9.70993E-3
967.984E-6	8.59395E-12	170.049E-3	-10.4135E-3	8.80604E-12	134.872E-3	-11.7727E-3
962.981E-6	8.67213E-12	159.240E-3	-5.15735E-3	8.73476E-12	128.280E-3	-18.0078E-3
957.979E-6	8.55108E-12	162.172E-3	-18.1725E-3	8.66482E-12	128.887E-3	-13.4230E-3
952.976E-6	8.44315E-12	166.185E-3	-21.4806E-3	8.55518E-12	136.963E-3	-4.42207E-3
947.974E-6	8.49332E-12	152.844E-3	-24.7200E-3	8.36979E-12	136.918E-3	-11.4151E-3
942.971E-6	8.55252E-12	154.874E-3	-28.0352E-3	8.44356E-12	122.953E-3	-30.2592E-3
937.969E-6	8.40731E-12	161.884E-3	-22.1487E-3	8.41871E-12	113.763E-3	-39.7367E-3
932.966E-6	8.37175E-12	148.210E-3	-23.5570E-3	8.24110E-12	115.805E-3	-35.6965E-3
927.964E-6	8.46900E-12	137.559E-3	-29.5451E-3	8.33525E-12	121.973E-3	-29.7976E-3
922.961E-6	8.45457E-12	134.675E-3	-18.5253E-3	8.30953E-12	126.742E-3	-28.3297E-3
917.959E-6	8.42252E-12	125.312E-3	-5.11320E-3	8.04357E-12	133.699E-3	-35.2372E-3
912.956E-6	8.25192E-12	115.908E-3	-4.60216E-3	8.04033E-12	138.527E-3	-31.6206E-3
907.954E-6	8.25507E-12	114.953E-3	-10.3454E-3	8.33823E-12	129.858E-3	-12.1931E-3
902.951E-6	8.22949E-12	122.782E-3	-20.7170E-3	8.20382E-12	124.781E-3	-6.28647E-3
897.949E-6	8.13790E-12	133.688E-3	-26.3350E-3	8.00640E-12	129.591E-3	-17.4251E-3
892.946E-6	8.05749E-12	137.057E-3	-15.8170E-3	8.05959E-12	120.554E-3	-21.7083E-3
887.944E-6	8.11578E-12	127.569E-3	-2.67985E-3	8.23324E-12	112.754E-3	-8.46238E-3
882.941E-6	8.02481E-12	123.045E-3	-5.23660E-3	8.20363E-12	112.799E-3	-2.04941E-3
877.939E-6	7.91416E-12	127.785E-3	-16.0868E-3	7.91779E-12	109.411E-3	-6.10539E-3
872.936E-6	7.76787E-12	123.757E-3	-21.7345E-3	7.96945E-12	113.084E-3	-8.77119E-3
867.934E-6	7.73468E-12	122.738E-3	-24.3857E-3	8.07196E-12	119.437E-3	-18.8626E-3
862.931E-6	7.75761E-12	120.969E-3	-16.2866E-3	8.03099E-12	117.269E-3	-18.8321E-3
857.929E-6	7.64158E-12	111.888E-3	-2.86930E-3	7.78030E-12	123.098E-3	-9.27078E-3
852.926E-6	7.55785E-12	122.688E-3	-11.8341E-3	7.68347E-12	135.389E-3	-11.9429E-3
847.924E-6	7.66035E-12	138.808E-3	-23.9468E-3	7.80694E-12	127.710E-3	-23.4984E-3
842.921E-6	7.57262E-12	122.014E-3	-18.0392E-3	7.65129E-12	118.768E-3	-25.7901E-3
837.919E-6	7.48816E-12	100.037E-3	-23.7766E-3	7.60042E-12	124.915E-3	-19.5490E-3
832.916E-6	7.53630E-12	108.418E-3	-30.5352E-3	7.61306E-12	130.167E-3	-23.4848E-3
827.914E-6	7.59099E-12	120.588E-3	-20.3120E-3	7.47530E-12	128.660E-3	-17.4501E-3
822.911E-6	7.60584E-12	121.789E-3	-21.7746E-3	7.45685E-12	126.098E-3	-7.15733E-3
817.909E-6	7.49350E-12	129.609E-3	-29.7648E-3	7.40463E-12	128.062E-3	-17.5796E-3
812.906E-6	7.52559E-12	136.058E-3	-21.2520E-3	7.35350E-12	138.650E-3	-20.6666E-3
807.904E-6	7.64401E-12	137.741E-3	-16.9406E-3	7.31682E-12	154.015E-3	-19.9430E-3
802.901E-6	7.52623E-12	146.824E-3	-25.9143E-3	7.22872E-12	160.277E-3	-24.3643E-3
797.899E-6	7.29787E-12	142.431E-3	-28.5461E-3	7.28600E-12	157.435E-3	-11.7208E-3
792.896E-6	7.38489E-12	124.620E-3	-25.0902E-3	7.36949E-12	160.305E-3	-6.11068E-3
787.894E-6	7.46741E-12	128.089E-3	-21.5350E-3	7.39755E-12	169.011E-3	-19.7120E-3
782.891E-6	7.16759E-12	146.880E-3	-15.9343E-3	7.13407E-12	174.503E-3	-19.2919E-3
777.889E-6	7.06284E-12	154.883E-3	-12.7620E-3	7.18976E-12	178.695E-3	-9.30114E-3
772.886E-6	7.04420E-12	153.871E-3	-12.3062E-3	7.29975E-12	171.314E-3	-3.27788E-3
767.884E-6	6.99548E-12	148.875E-3	-7.54138E-3	7.12563E-12	161.771E-3	782.698E-6
762.881E-6	6.82835E-12	144.489E-3	-12.4863E-3	6.99375E-12	169.917E-3	-7.54341E-3
757.879E-6	6.73433E-12	152.605E-3	-32.3695E-3	6.92418E-12	177.186E-3	-14.1228E-3
752.876E-6	6.77666E-12	154.194E-3	-36.0608E-3	7.03295E-12	173.060E-3	-406.991E-6
747.874E-6	6.76772E-12	140.694E-3	-21.3120E-3	6.88309E-12	166.182E-3	7.13439E-3
742.871E-6	6.63307E-12	145.683E-3	-14.6985E-3	6.62993E-12	158.150E-3	-15.3922E-3
737.869E-6	6.62885E-12	163.757E-3	-8.05337E-3	6.54352E-12	162.308E-3	-33.7390E-3
732.866E-6	6.61031E-12	168.115E-3	3.98983E-3	6.61882E-12	176.122E-3	-26.4184E-3
727.864E-6	6.69514E-12	184.527E-3	2.25575E-3	6.44711E-12	181.028E-3	-22.0461E-3
722.861E-6	6.39564E-12	200.027E-3	-5.73096E-3	6.26860E-12	178.067E-3	-21.6261E-3
717.859E-6	6.42464E-12	179.405E-3	-3.26613E-3	6.26579E-12	189.051E-3	-11.4998E-3
712.856E-6	6.49086E-12	160.119E-3	-304.932E-6	6.21445E-12	206.648E-3	-11.2904E-3
707.854E-6	6.39817E-12	168.011E-3	78.6048E-6	6.21690E-12	199.812E-3	-19.6309E-3
702.851E-6	6.20734E-12	180.828E-3	-1.38752E-3	6.09717E-12	187.088E-3	-14.1973E-3
697.849E-6	6.22272E-12	190.660E-3	-17.3834E-3	6.20762E-12	180.046E-3	-16.4529E-3
692.846E-6	6.21622E-12	199.141E-3	-26.1630E-3	6.15504E-12	172.794E-3	-25.2860E-3
687.844E-6	6.00520E-12	199.023E-3	-19.1533E-3	6.05367E-12	182.262E-3	-11.3842E-3
682.841E-6	5.87114E-12	197.598E-3	-18.2211E-3	6.00465E-12	202.488E-3	-9.75701E-3
677.839E-6	5.90572E-12	199.783E-3	-14.1726E-3	6.02024E-12	206.309E-3	-21.3031E-3
672.836E-6	5.81239E-12	194.738E-3	-9.33507E-3	6.00430E-12	201.621E-3	-13.6238E-3
667.834E-6	5.71579E-12	189.989E-3	-19.3177E-3	5.61808E-12	211.290E-3	-2.41468E-3
662.831E-6	5.50646E-12	206.555E-3	-20.5494E-3	5.75737E-12	220.348E-3	-3.26992E-3
657.829E-6	5.51653E-12	223.823E-3	-6.04048E-3	5.74233E-12	222.677E-3	-9.67657E-3
652.826E-6	5.48661E-12	225.068E-3	513.672E-6	5.65729E-12	230.396E-3	-10.6569E-3
647.824E-6	5.44480E-12	228.525E-3	-2.14228E-3	5.35550E-12	223.415E-3	-5.97319E-3
642.821E-6	5.19389E-12	219.980E-3	-2.91840E-3	5.28908E-12	207.820E-3	-8.13218E-3
637.819E-6	5.36973E-12	197.702E-3	-1.03696E-3	5.44405E-12	211.484E-3	-21.3694E-3
632.816E-6	5.31867E-12	199.693E-3	-1.75019E-3	5.26214E-12	217.100E-3	-31.2517E-3
627.814E-6	5.19356E-12	216.884E-3	-8.53787E-3	5.06843E-12	221.528E-3	-25.0188E-3
622.811E-6	5.05485E-12	221.977E-3	-21.5049E-3	4.89814E-12	231.988E-3	-19.8041E-3
617.809E-6	5.00698E-12	227.961E-3	-29.0851E-3	5.00737E-12	234.219E-3	-30.7761E-3
612.806E-6	5.03171E-12	228.103E-3	-21.7234E-3	4.90192E-12	229.616E-3	-31.6390E-3
607.804E-6	4.78194E-12	219.587E-3	-9.64033E-3	4.70918E-12	228.068E-3	-22.4189E-3
602.801E-6	4.75161E-12	228.600E-3	-9.81417E-3	4.63326E-12	232.219E-3	-14.4023E-3
597.799E-6	4.72239E-12	238.767E-3	-14.9505E-3	4.72628E-12	232.734E-3	2.49957E-3
592.796E-6	4.58145E-12	233.657E-3	-16.4668E-3	4.61252E-12	228.459E-3	10.7647E-3
587.794E-6	4.40037E-12	229.650E-3	-20.6887E-3	4.46740E-12	235.269E-3	-8.22049E-3
582.791E-6	4.35448E-12	226.946E-3	-15.4172E-3	4.48374E-12	247.812E-3	-29.6121E-3
577.789E-6	4.32559E-12	220.867E-3	-19.2698E-3	4.42897E-12	254.244E-3	-33.1000E-3
572.786E-6	4.19319E-12	227.966E-3	-40.8776E-3	4.29162E-12	248.469E-3	-27.3520E-3
567.784E-6	4.05059E-12	240.507E-3	-37.8713E-3	4.23977E-12	230.423E-3	-13.9463E-3
562.781E-6	4.08076E-12	238.291E-3	-20.6232E-3	4.26136E-12	225.056E-3	-7.12827E-3
557.779E-6	4.06122E-12	235.251E-3	-19.6498E-3	4.19895E-12	229.479E-3	-19.3289E-3
552.776E-6	3.92613E-12	237.365E-3	-15.3412E-3	3.93034E-12	228.139E-3	-30.1442E-3
547.774E-6	3.76533E-12	233.787E-3	-9.75508E-3	3.94013E-12	228.174E-3	-18.4818E-3
542.771E-6	3.80104E-12	228.774E-3	-18.9905E-3	4.00228E-12	225.024E-3	-7.78380E-3
537.769E-6	3.77074E-12	220.324E-3	-18.5115E-3	3.86015E-12	219.361E-3	-9.67933E-3
532.766E-6	3.64617E-12	212.093E-3	-8.06463E-3	3.60960E-12	221.930E-3	-4.57048E-3
527.764E-6	3.53801E-12	226.557E-3	-13.2217E-3	3.55244E-12	231.547E-3	-10.8757E-3
522.761E-6	3.57803E-12	246.171E-3	-29.8197E-3	3.69502E-12	232.950E-3	-19.3030E-3
517.759E-6	3.57600E-12	238.100E-3	-34.7298E-3	3.55738E-12	225.006E-3	-13.3917E-3
512.756E-6	3.35732E-12	216.100E-3	-15.0196E-3	3.29016E-12	228.138E-3	-17.8564E-3
507.754E-6	3.29836E-12	215.989E-3	12.1475E-3	3.18836E-12	237.811E-3	-26.3066E-3
502.751E-6	3.30503E-12	229.454E-3	21.3119E-3	3.35952E-12	244.958E-3	-19.1172E-3
497.749E-6	3.26604E-12	234.526E-3	-2.81541E-3	3.21373E-12	244.651E-3	-8.16619E-3
492.746E-6	3.17159E-12	237.792E-3	-24.5099E-3	3.02044E-12	224.618E-3	1.43177E-3
487.744E-6	3.02051E-12	234.635E-3	-18.7785E-3	2.90436E-12	210.063E-3	16.9696E-3
482.741E-6	3.01498E-12	233.787E-3	-11.8267E-3	3.03265E-12	219.847E-3	15.6380E-3
477.739E-6	2.95671E-12	244.743E-3	-8.85336E-3	2.91651E-12	223.184E-3	-3.43417E-3
472.736E-6	2.78107E-12	238.160E-3	-4.74050E-3	2.75276E-12	211.587E-3	-11.9816E-3
467.734E-6	2.71478E-12	209.562E-3	-11.8112E-3	2.69688E-12	205.776E-3	-22.0639E-3
462.731E-6	2.74116E-12	193.136E-3	-28.8208E-3	2.65682E-12	202.290E-3	-33.9465E-3
457.729E-6	2.59963E-12	190.031E-3	-24.6583E-3	2.53682E-12	194.829E-3	-22.9516E-3
452.726E-6	2.43404E-12	190.416E-3	-8.32758E-3	2.51733E-12	194.853E-3	-11.5522E-3
447.724E-6	2.39776E-12	196.649E-3	-8.86978E-3	2.46038E-12	201.143E-3	-16.9777E-3
442.721E-6	2.42084E-12	193.843E-3	-16.7354E-3	2.35494E-12	196.570E-3	-21.6062E-3
437.719E-6	2.28126E-12	187.017E-3	-21.1395E-3	2.24489E-12	186.782E-3	-20.8946E-3
432.716E-6	2.11023E-12	200.084E-3	-17.4934E-3	2.15744E-12	183.663E-3	-22.7172E-3
427.714E-6	2.12957E-12	212.432E-3	-6.06567E-3	2.22243E-12	188.551E-3	-19.8706E-3
422.711E-6	2.11965E-12	204.256E-3	-3.57479E-3	2.09197E-12	195.735E-3	-8.15490E-3
417.709E-6	1.99818E-12	196.171E-3	-14.5334E-3	1.87039E-12	191.828E-3	-5.67800E-3
412.706E-6	1.85597E-12	190.275E-3	-24.2484E-3	1.91113E-12	179.142E-3	-7.55130E-3
407.704E-6	1.88785E-12	178.135E-3	-26.2938E-3	1.97415E-12	177.347E-3	-2.81013E-3
402.701E-6	1.90967E-12	184.185E-3	-24.8729E-3	1.82399E-12	178.613E-3	-4.56884E-3
397.699E-6	1.73863E-12	207.381E-3	-21.5042E-3	1.56733E-12	169.952E-3	-9.84402E-3
392.696E-6	1.63238E-12	200.218E-3	-13.4127E-3	1.59434E-12	163.550E-3	-15.6954E-3
387.694E-6	1.66908E-12	170.387E-3	-12.7964E-3	1.69382E-12	157.330E-3	-32.9139E-3
382.691E-6	1.67264E-12	159.415E-3	-20.5702E-3	1.59468E-12	149.086E-3	-37.6731E-3
377.689E-6	1.49830E-12	160.840E-3	-25.3198E-3	1.38190E-12	149.865E-3	-18.8770E-3
372.686E-6	1.42406E-12	154.188E-3	-31.3602E-3	1.35545E-12	147.506E-3	-4.10845E-3
367.684E-6	1.40220E-12	144.362E-3	-35.3827E-3	1.47851E-12	136.109E-3	-3.14813E-3
362.681E-6	1.40906E-12	137.204E-3	-31.3559E-3	1.44659E-12	138.363E-3	-5.07315E-3
357.679E-6	1.21425E-12	128.628E-3	-23.4633E-3	1.22009E-12	148.151E-3	-9.31549E-3
352.676E-6	1.18072E-12	128.028E-3	-14.7249E-3	1.17319E-12	135.746E-3	-9.82074E-3
347.674E-6	1.25521E-12	128.880E-3	-5.22358E-3	1.22946E-12	116.956E-3	-2.66666E-3
342.671E-6	1.12343E-12	130.758E-3	-6.18337E-3	1.20222E-12	111.651E-3	-10.8388E-3
337.669E-6	1.02843E-12	137.970E-3	-15.6798E-3	1.10430E-12	113.103E-3	-26.4367E-3
332.666E-6	1.04064E-12	129.643E-3	-15.0138E-3	1.03007E-12	119.567E-3	-25.9461E-3
327.664E-6	1.06274E-12	120.684E-3	-13.5212E-3	1.00096E-12	118.105E-3	-26.0285E-3
322.661E-6	928.970E-15	133.982E-3	-20.3425E-3	984.948E-15	105.058E-3	-27.6537E-3
317.659E-6	846.181E-15	132.305E-3	-17.2282E-3	918.699E-15	99.4894E-3	-12.8264E-3
312.656E-6	898.906E-15	113.191E-3	-11.7274E-3	941.509E-15	111.016E-3	-7.63202E-3
307.654E-6	911.558E-15	114.251E-3	-4.38017E-3	877.683E-15	121.481E-3	-22.4408E-3
302.651E-6	785.773E-15	120.710E-3	8.23072E-3	708.703E-15	113.603E-3	-17.6006E-3
297.649E-6	749.344E-15	117.610E-3	-3.93039E-3	703.350E-15	98.0360E-3	10.1314E-3
292.646E-6	749.579E-15	109.336E-3	-24.6719E-3	831.323E-15	81.1935E-3	13.4391E-3
287.644E-6	757.932E-15	100.204E-3	-23.5393E-3	740.101E-15	71.6332E-3	-2.26681E-3
282.641E-6	711.258E-15	94.6278E-3	-17.7612E-3	555.052E-15	78.8866E-3	-5.76663E-3
277.639E-6	590.295E-15	100.721E-3	-11.6445E-3	588.141E-15	89.9421E-3	-13.4897E-3
272.636E-6	653.466E-15	114.039E-3	-4.95959E-3	728.365E-15	85.3631E-3	-17.9544E-3
267.634E-6	645.157E-15	105.041E-3	-13.5449E-3	692.616E-15	74.0473E-3	-10.9874E-3
262.631E-6	508.761E-15	77.4707E-3	-26.3211E-3	442.381E-15	66.3486E-3	-10.9684E-3
257.629E-6	493.947E-15	60.3580E-3	-21.9917E-3	463.368E-15	58.0479E-3	-17.9395E-3
252.626E-6	478.069E-15	59.4346E-3	-10.7205E-3	589.641E-15	63.9147E-3	-22.6015E-3
247.624E-6	520.924E-15	68.2768E-3	-14.3347E-3	576.920E-15	71.1696E-3	-21.3158E-3
242.621E-6	414.854E-15	74.9491E-3	-26.4414E-3	342.222E-15	58.2675E-3	-12.2976E-3
237.619E-6	383.892E-15	67.1968E-3	-33.2733E-3	362.189E-15	49.6129E-3	-14.5134E-3
232.616E-6	463.996E-15	61.0345E-3	-28.6820E-3	453.759E-15	61.1816E-3	-21.5759E-3
227.614E-6	430.313E-15	65.3832E-3	-17.4186E-3	478.226E-15	66.4826E-3	-11.1050E-3
222.611E-6	315.550E-15	67.6622E-3	-11.1553E-3	297.047E-15	54.6985E-3	-3.91976E-3
217.609E-6	311.765E-15	68.3450E-3	-21.5381E-3	289.836E-15	45.1050E-3	-9.89439E-3
212.606E-6	380.029E-15	65.8595E-3	-35.4450E-3	334.854E-15	39.4251E-3	-19.9533E-3
207.604E-6	272.345E-15	51.9834E-3	-33.5909E-3	299.515E-15	40.0588E-3	-24.3583E-3
202.601E-6	246.580E-15	40.4157E-3	-31.3102E-3	204.980E-15	42.8225E-3	-24.6259E-3
197.599E-6	239.273E-15	46.3429E-3	-26.4867E-3	214.972E-15	38.5269E-3	-22.1463E-3
192.596E-6	302.697E-15	52.0273E-3	-21.5555E-3	256.503E-15	43.1577E-3	-13.2662E-3
187.594E-6	203.166E-15	53.7973E-3	-30.0606E-3	198.850E-15	55.1796E-3	-13.4514E-3
182.591E-6	110.454E-15	63.5744E-3	-24.7014E-3	133.351E-15	52.6391E-3	-13.2364E-3
177.589E-6	225.532E-15	67.8417E-3	-4.62678E-3	183.234E-15	42.9019E-3	-3.06190E-3
172.586E-6	228.330E-15	62.3472E-3	-7.04420E-3	217.327E-15	44.8935E-3	-6.08680E-3
167.584E-6	136.080E-15	62.2893E-3	-16.2586E-3	33.6806E-15	45.4837E-3	-17.4717E-3
162.581E-6	38.6942E-15	61.8266E-3	-8.39304E-3	137.754E-15	32.5671E-3	-21.7475E-3
157.579E-6	134.929E-15	58.1688E-3	-15.6054E-3	198.258E-15	16.5161E-3	-21.5938E-3
152.576E-6	195.694E-15	59.6841E-3	-29.0872E-3	159.605E-15	3.97881E-3	-22.2785E-3
147.574E-6	32.2506E-15	48.5205E-3	-22.9672E-3	-32.0630E-15	5.47641E-3	-24.0644E-3
142.571E-6	21.7351E-15	33.4601E-3	-18.6868E-3	-15.6620E-15	19.5779E-3	-19.6835E-3
137.569E-6	144.207E-15	36.3068E-3	-16.2392E-3	144.486E-15	28.0865E-3	-19.1493E-3
132.566E-6	120.586E-15	30.4828E-3	-1.21861E-3	126.158E-15	35.7665E-3	-28.7517E-3
127.564E-6	-32.4902E-15	19.1312E-3	-94.5523E-6	-25.9856E-15	45.0682E-3	-31.0526E-3
122.561E-6	-26.7878E-15	23.0743E-3	-20.7523E-3	-85.7478E-15	39.9858E-3	-12.9677E-3
117.559E-6	39.0604E-15	24.6641E-3	-30.9292E-3	101.020E-15	29.5833E-3	-3.70581E-3
112.556E-6	65.6194E-15	26.2106E-3	-26.4255E-3	93.7392E-15	30.8963E-3	-21.2824E-3
107.554E-6	-58.7790E-15	33.4357E-3	-16.8040E-3	-87.2911E-15	26.2831E-3	-32.8623E-3
102.551E-6	-45.2815E-15	25.6915E-3	-6.52148E-3	-133.041E-15	11.8449E-3	-26.6458E-3
97.5488E-6	78.1665E-15	12.1665E-3	-11.8768E-3	68.4096E-15	11.4773E-3	-18.8752E-3
92.5463E-6	-1.04842E-15	20.0624E-3	-25.5251E-3	63.2042E-15	16.9123E-3	-16.0647E-3
87.5438E-6	-86.7941E-15	33.3298E-3	-18.7164E-3	-108.898E-15	17.3118E-3	-12.0059E-3
82.5413E-6	-49.7370E-15	30.8310E-3	-6.02305E-3	-65.6934E-15	27.7576E-3	-11.5956E-3
77.5388E-6	26.5395E-15	25.4998E-3	-12.5071E-3	-79.1821E-15	33.2034E-3	-20.5130E-3
72.5363E-6	-76.2525E-15	21.7778E-3	-17.3670E-3	-50.3823E-15	20.2862E-3	-26.1329E-3
67.5338E-6	-93.8480E-15	15.1466E-3	-10.5153E-3	-103.901E-15	13.6535E-3	-23.5731E-3
62.5313E-6	-15.5661E-15	15.7766E-3	-10.4336E-3	-58.4476E-15	16.8858E-3	-22.0427E-3
57.5288E-6	-10.8576E-15	19.2391E-3	-23.6601E-3	-54.4803E-15	16.4371E-3	-16.3189E-3
52.5263E-6	-124.217E-15	17.2193E-3	-29.9745E-3	-158.022E-15	24.9140E-3	-8.82158E-3
47.5238E-6	-159.731E-15	22.8884E-3	-23.2473E-3	-153.854E-15	32.4093E-3	-17.6197E-3
42.5213E-6	-77.8655E-15	27.1612E-3	-22.6881E-3	-34.0684E-15	16.8415E-3	-32.6093E-3
37.5188E-6	-23.9540E-15	9.08137E-3	-26.7064E-3	-76.7582E-15	12.6967E-3	-37.7650E-3
32.5163E-6	-157.839E-15	-3.58959E-3	-29.2524E-3	-222.344E-15	32.2823E-3	-34.9126E-3
27.5138E-6	-202.020E-15	2.84467E-3	-16.9194E-3	-170.796E-15	42.8539E-3	-22.9423E-3
22.5113E-6	-88.1281E-15	7.66737E-3	4.22574E-3	-82.8355E-15	42.1304E-3	-7.93561E-3
17.5088E-6	-80.8911E-15	14.9100E-3	7.70167E-3	-64.5337E-15	37.3899E-3	593.584E-6
12.5063E-6	-206.885E-15	24.7791E-3	5.11848E-3	-272.934E-15	25.4618E-3	-733.425E-6
7.50375E-6	-185.505E-15	25.5993E-3	1.90335E-3	-250.455E-15	17.1156E-3	-8.15704E-3
2.50125E-6	-135.544E-15	21.6295E-3	-9.44104E-3	-86.1227E-15	13.0784E-3	-14.1914E-3
-2.50125E-6	-71.7010E-15	19.0402E-3	-19.2832E-3	-124.209E-15	2.38620E-3	-21.9639E-3
-7.50375E-6	-236.897E-15	24.4435E-3	-16.3222E-3	-232.494E-15	1.38707E-3	-24.7248E-3
-12.5063E-6	-236.941E-15	35.9662E-3	-17.6913E-3	-289.030E-15	12.5346E-3	-18.8562E-3
-17.5088E-6	-170.761E-15	40.7107E-3	-20.4169E-3	-116.858E-15	19.3839E-3	-15.1038E-3
-22.5113E-6	-160.368E-15	32.5322E-3	-10.6125E-3	-95.8360E-15	24.4554E-3	-17.5977E-3
-27.5138E-6	-240.393E-15	24.4125E-3	-10.8319E-3	-282.159E-15	36.7188E-3	-21.9505E-3
-32.5163E-6	-215.831E-15	24.6466E-3	-12.8408E-3	-283.170E-15	48.6874E-3	-11.1009E-3
-37.5188E-6	-149.346E-15	15.4265E-3	-2.88761E-3	-218.953E-15	44.1832E-3	3.42045E-3
-42.5213E-6	-235.615E-15	6.98663E-3	-4.47115E-3	-217.688E-15	28.4922E-3	-9.11993E-3
-47.5238E-6	-302.431E-15	18.9371E-3	-12.3478E-3	-284.574E-15	23.9718E-3	-30.6605E-3
-52.5263E-6	-215.578E-15	29.9100E-3	-12.8629E-3	-252.522E-15	27.0844E-3	-33.7374E-3
-57.5288E-6	-203.598E-15	25.0930E-3	-11.4383E-3	-255.870E-15	27.7934E-3	-30.4627E-3
-62.5313E-6	-268.295E-15	21.7394E-3	-11.5090E-3	-283.973E-15	28.4531E-3	-36.6665E-3
-67.5338E-6	-338.311E-15	28.1698E-3	-12.2013E-3	-281.810E-15	23.7099E-3	-40.4399E-3
-72.5363E-6	-238.353E-15	25.9348E-3	-8.71373E-3	-231.569E-15	24.5514E-3	-34.5672E-3
-77.5388E-6	-236.679E-15	19.9814E-3	-6.72037E-3	-280.092E-15	21.9993E-3	-32.2851E-3
-82.5413E-6	-362.525E-15	25.7192E-3	-13.4235E-3	-423.778E-15	9.47844E-3	-33.2625E-3
-87.5438E-6	-384.602E-15	19.9780E-3	-17.1921E-3	-373.511E-15	10.5097E-3	-26.7567E-3
-92.5463E-6	-318.562E-15	9.26348E-3	-13.8487E-3	-262.000E-15	21.8628E-3	-18.4252E-3
-97.5488E-6	-264.197E-15	13.6328E-3	-8.36931E-3	-318.850E-15	26.8202E-3	-17.0414E-3
-102.551E-6	-432.070E-15	14.9286E-3	-7.92754E-3	-442.167E-15	27.6201E-3	-14.1401E-3
-107.554E-6	-469.206E-15	21.3976E-3	-14.7958E-3	-472.126E-15	30.3177E-3	-6.85881E-3
-112.556E-6	-336.253E-15	40.9060E-3	-13.6507E-3	-301.193E-15	30.1358E-3	-6.60770E-3
-117.559E-6	-363.737E-15	42.1315E-3	-13.1333E-3	-294.366E-15	32.4055E-3	-13.2611E-3
-122.561E-6	-458.463E-15	36.9631E-3	-20.5559E-3	-507.012E-15	38.4077E-3	-31.1962E-3
-127.564E-6	-465.622E-15	48.0811E-3	-15.2914E-3	-562.066E-15	38.3145E-3	-42.1800E-3
-132.566E-6	-457.042E-15	53.3002E-3	-6.37297E-3	-398.570E-15	37.9143E-3	-29.6278E-3
-137.569E-6	-461.942E-15	51.6691E-3	-18.3191E-3	-371.785E-15	40.9203E-3	-16.4209E-3
-142.571E-6	-528.462E-15	43.7944E-3	-28.5556E-3	-569.216E-15	49.0947E-3	-17.3567E-3
-147.574E-6	-515.897E-15	35.5432E-3	-12.3485E-3	-572.625E-15	63.8941E-3	-19.0024E-3
-152.576E-6	-507.030E-15	41.2462E-3	1.59392E-3	-436.988E-15	77.3011E-3	-7.29068E-3
-157.579E-6	-519.080E-15	50.7404E-3	-1.54524E-3	-467.793E-15	75.3262E-3	2.54090E-3
-162.581E-6	-621.401E-15	59.2597E-3	-7.16917E-3	-559.485E-15	66.1423E-3	-1.99391E-3
-167.584E-6	-557.105E-15	61.2155E-3	-16.5878E-3	-636.991E-15	74.2019E-3	-4.72485E-3
-172.586E-6	-562.764E-15	51.6248E-3	-18.8434E-3	-592.985E-15	80.4911E-3	-2.88409E-3
-177.589E-6	-647.603E-15	39.5521E-3	-18.1265E-3	-640.322E-15	71.7765E-3	-7.64746E-3
-182.591E-6	-659.984E-15	48.9711E-3	-27.2664E-3	-672.008E-15	71.2160E-3	-12.4626E-3
-187.594E-6	-632.910E-15	77.7639E-3	-20.1101E-3	-681.756E-15	76.0427E-3	-13.9139E-3
-192.596E-6	-642.519E-15	85.5112E-3	-9.67264E-3	-673.281E-15	77.4330E-3	-19.9923E-3
-197.599E-6	-762.976E-15	69.1206E-3	-12.2050E-3	-774.843E-15	79.9104E-3	-19.7407E-3
-202.601E-6	-831.964E-15	55.4554E-3	-11.9906E-3	-802.379E-15	72.8908E-3	-14.7883E-3
-207.604E-6	-746.523E-15	52.8450E-3	-17.6235E-3	-706.458E-15	64.4617E-3	-20.8952E-3
-212.606E-6	-756.768E-15	60.7957E-3	-30.4025E-3	-788.951E-15	76.7530E-3	-26.1808E-3
-217.609E-6	-876.946E-15	77.3511E-3	-43.3352E-3	-948.898E-15	92.1495E-3	-20.2908E-3
-222.611E-6	-1.00591E-12	88.3266E-3	-43.9478E-3	-908.441E-15	98.1177E-3	-20.5958E-3
-227.614E-6	-865.638E-15	86.9865E-3	-26.2994E-3	-855.122E-15	105.894E-3	-25.1888E-3
-232.616E-6	-850.344E-15	99.1242E-3	-16.1869E-3	-885.073E-15	119.280E-3	-18.0362E-3
-237.619E-6	-1.04321E-12	122.693E-3	-22.4469E-3	-1.07528E-12	131.287E-3	-18.6074E-3
-242.621E-6	-1.08878E-12	127.194E-3	-30.5748E-3	-1.11607E-12	127.828E-3	-28.4805E-3
-247.624E-6	-1.04199E-12	117.187E-3	-39.8102E-3	-1.00798E-12	119.353E-3	-27.5496E-3
-252.626E-6	-1.07774E-12	114.065E-3	-43.1780E-3	-1.04607E-12	116.046E-3	-18.7870E-3
-257.629E-6	-1.17829E-12	120.965E-3	-32.5087E-3	-1.29008E-12	121.337E-3	-16.7930E-3
-262.631E-6	-1.22919E-12	125.094E-3	-25.0247E-3	-1.28748E-12	141.498E-3	-28.4235E-3
-267.634E-6	-1.23696E-12	129.490E-3	-23.4892E-3	-1.21092E-12	154.767E-3	-29.4660E-3
-272.636E-6	-1.30068E-12	136.711E-3	-20.6235E-3	-1.21186E-12	154.583E-3	-14.1480E-3
-277.639E-6	-1.38209E-12	136.529E-3	-23.5257E-3	-1.39658E-12	158.807E-3	-8.24074E-3
-282.641E-6	-1.40504E-12	134.729E-3	-17.7852E-3	-1.54507E-12	165.150E-3	-7.98263E-3
-287.644E-6	-1.42060E-12	140.117E-3	-6.43452E-3	-1.45666E-12	172.548E-3	-5.62861E-3
-292.646E-6	-1.53484E-12	154.759E-3	-14.9517E-3	-1.53430E-12	181.419E-3	-8.53496E-3
-297.649E-6	-1.63444E-12	172.586E-3	-25.0736E-3	-1.59879E-12	188.780E-3	-17.8133E-3
-302.651E-6	-1.65919E-12	174.314E-3	-25.7435E-3	-1.69980E-12	199.455E-3	-27.6098E-3
-307.654E-6	-1.67678E-12	169.875E-3	-30.3367E-3	-1.69040E-12	204.952E-3	-30.5658E-3
-312.656E-6	-1.80584E-12	175.571E-3	-27.6587E-3	-1.76223E-12	196.976E-3	-28.6792E-3
-317.659E-6	-1.89200E-12	188.245E-3	-18.1974E-3	-1.89871E-12	197.876E-3	-19.9945E-3
-322.661E-6	-1.88362E-12	196.019E-3	-19.5662E-3	-1.85022E-12	215.570E-3	-15.2704E-3
-327.664E-6	-1.94388E-12	200.662E-3	-25.6725E-3	-1.95363E-12	225.321E-3	-25.9752E-3
-332.666E-6	-2.13397E-12	216.845E-3	-21.2644E-3	-2.14287E-12	224.489E-3	-28.5942E-3
-337.669E-6	-2.26968E-12	226.016E-3	-16.7228E-3	-2.15838E-12	231.425E-3	-20.0109E-3
-342.671E-6	-2.23793E-12	226.098E-3	-20.8783E-3	-2.09255E-12	238.940E-3	-23.0585E-3
-347.674E-6	-2.26739E-12	227.558E-3	-21.7845E-3	-2.19315E-12	247.867E-3	-23.5367E-3
-352.676E-6	-2.46167E-12	229.227E-3	-13.3867E-3	-2.47908E-12	271.486E-3	-9.98472E-3
-357.679E-6	-2.56245E-12	243.792E-3	-6.94617E-3	-2.52049E-12	292.617E-3	304.626E-6
-362.681E-6	-2.53260E-12	262.021E-3	-9.01214E-3	-2.43665E-12	299.598E-3	2.41323E-3
-367.684E-6	-2.60847E-12	271.964E-3	-9.40446E-3	-2.51886E-12	301.042E-3	-8.40979E-3
-372.686E-6	-2.77922E-12	272.916E-3	-5.58284E-3	-2.85719E-12	304.473E-3	-17.9411E-3
-377.689E-6	-2.91092E-12	262.772E-3	-3.20928E-3	-2.94749E-12	310.901E-3	-11.1406E-3
-382.691E-6	-2.90957E-12	260.529E-3	-11.6587E-3	-2.93541E-12	320.829E-3	-8.62161E-3
-387.694E-6	-3.01099E-12	278.098E-3	-14.9576E-3	-3.00038E-12	334.720E-3	-11.9669E-3
-392.696E-6	-3.18542E-12	295.986E-3	-9.52855E-3	-3.25825E-12	344.315E-3	-3.11489E-3
-397.699E-6	-3.29110E-12	299.424E-3	-15.2426E-3	-3.39224E-12	340.321E-3	4.41806E-3
-402.701E-6	-3.30860E-12	300.645E-3	-26.5334E-3	-3.33982E-12	328.473E-3	-1.31544E-3
-407.704E-6	-3.46622E-12	306.017E-3	-31.2840E-3	-3.38518E-12	323.622E-3	-7.87802E-3
-412.706E-6	-3.61730E-12	310.914E-3	-27.9725E-3	-3.59702E-12	338.109E-3	-11.1460E-3
-417.709E-6	-3.69860E-12	317.944E-3	-22.1664E-3	-3.70874E-12	359.753E-3	-19.5600E-3
-422.711E-6	-3.74494E-12	327.646E-3	-19.7077E-3	-3.76955E-12	366.461E-3	-24.9189E-3
-427.714E-6	-3.91103E-12	338.502E-3	-25.0377E-3	-3.85869E-12	362.604E-3	-24.1933E-3
-432.716E-6	-4.04185E-12	349.349E-3	-29.6131E-3	-4.02067E-12	366.792E-3	-26.3794E-3
-437.719E-6	-4.07385E-12	360.056E-3	-25.7157E-3	-4.08232E-12	373.331E-3	-31.4042E-3
-442.721E-6	-4.13419E-12	365.938E-3	-20.6993E-3	-4.19955E-12	369.925E-3	-29.9253E-3
-447.724E-6	-4.34328E-12	368.118E-3	-15.3562E-3	-4.33372E-12	370.683E-3	-24.3857E-3
-452.726E-6	-4.49107E-12	369.242E-3	-3.33019E-3	-4.44276E-12	382.367E-3	-26.0842E-3
-457.729E-6	-4.50931E-12	373.712E-3	8.14145E-3	-4.43941E-12	398.230E-3	-21.3230E-3
-462.731E-6	-4.59840E-12	382.399E-3	3.22049E-3	-4.66985E-12	418.882E-3	-17.8734E-3
-467.734E-6	-4.76403E-12	383.475E-3	-8.71984E-3	-4.94738E-12	422.799E-3	-17.3971E-3
-472.736E-6	-5.02894E-12	372.504E-3	-11.4864E-3	-5.06794E-12	413.376E-3	-7.89629E-3
-477.739E-6	-4.91799E-12	362.848E-3	-19.0394E-3	-5.02702E-12	415.571E-3	-8.26732E-3
-482.741E-6	-5.07283E-12	369.967E-3	-30.5001E-3	-5.20542E-12	422.135E-3	-9.36551E-3
-487.744E-6	-5.34362E-12	386.873E-3	-30.5679E-3	-5.54058E-12	430.375E-3	-864.528E-6
-492.746E-6	-5.42554E-12	393.171E-3	-23.2540E-3	-5.68514E-12	434.627E-3	-5.38409E-3
-497.749E-6	-5.49213E-12	394.453E-3	-8.86128E-3	-5.65780E-12	433.820E-3	-14.0598E-3
-502.751E-6	-5.65676E-12	403.470E-3	-6.76970E-3	-5.78782E-12	440.334E-3	-10.0239E-3
-507.754E-6	-5.93816E-12	406.837E-3	-15.2683E-3	-6.03782E-12	448.254E-3	-13.5885E-3
-512.756E-6	-6.07540E-12	410.196E-3	-14.7481E-3	-6.19157E-12	446.957E-3	-20.5008E-3
-517.759E-6	-6.15803E-12	424.365E-3	-21.0673E-3	-6.21602E-12	443.576E-3	-16.4818E-3
-522.761E-6	-6.31455E-12	424.018E-3	-23.2352E-3	-6.31595E-12	447.818E-3	-17.5690E-3
-527.764E-6	-6.63065E-12	416.974E-3	-9.03563E-3	-6.59956E-12	449.937E-3	-18.7892E-3
-532.766E-6	-6.74910E-12	423.415E-3	-6.26756E-3	-6.76237E-12	445.819E-3	-14.6266E-3
-537.769E-6	-6.85133E-12	429.836E-3	-16.1274E-3	-6.77802E-12	451.144E-3	-16.0804E-3
-542.771E-6	-7.05451E-12	436.886E-3	-10.5871E-3	-6.93445E-12	462.901E-3	-21.1751E-3
-547.774E-6	-7.25550E-12	451.508E-3	-2.16302E-3	-7.02365E-12	459.244E-3	-16.4921E-3
-552.776E-6	-7.33890E-12	463.708E-3	-11.7785E-3	-7.23330E-12	446.414E-3	-10.0902E-3
-557.779E-6	-7.28927E-12	455.192E-3	-25.1235E-3	-7.39282E-12	447.028E-3	-17.1250E-3
-562.781E-6	-7.69557E-12	444.028E-3	-23.9448E-3	-7.65646E-12	452.512E-3	-17.9606E-3
-567.784E-6	-7.90207E-12	449.130E-3	-13.5564E-3	-7.90149E-12	445.766E-3	-13.3731E-3
-572.786E-6	-7.99800E-12	459.148E-3	-6.67303E-3	-8.07335E-12	440.604E-3	-20.4157E-3
-577.789E-6	-8.08335E-12	461.699E-3	-8.68694E-3	-8.30618E-12	443.335E-3	-26.1058E-3
-582.791E-6	-8.28013E-12	449.319E-3	-9.93628E-3	-8.53521E-12	450.718E-3	-25.2017E-3
-587.794E-6	-8.44772E-12	451.511E-3	456.962E-6	-8.72898E-12	466.892E-3	-16.7444E-3
-592.796E-6	-8.56269E-12	472.435E-3	10.0605E-3	-8.72707E-12	470.365E-3	-479.588E-6
-597.799E-6	-8.56904E-12	470.839E-3	-335.476E-6	-8.94776E-12	460.666E-3	-3.17786E-3
-602.801E-6	-8.76847E-12	449.391E-3	-20.2733E-3	-9.27551E-12	462.841E-3	-20.4923E-3
-607.804E-6	-9.03525E-12	431.676E-3	-25.5898E-3	-9.34775E-12	465.280E-3	-17.1930E-3
-612.806E-6	-9.00352E-12	422.750E-3	-26.7993E-3	-9.35805E-12	459.473E-3	-3.84500E-3
-617.809E-6	-9.23681E-12	428.937E-3	-28.8920E-3	-9.49456E-12	452.424E-3	-7.65201E-3
-622.811E-6	-9.49436E-12	439.636E-3	-28.4031E-3	-9.73432E-12	433.312E-3	-18.1398E-3
-627.814E-6	-9.68385E-12	439.990E-3	-29.4004E-3	-9.75690E-12	421.793E-3	-16.9515E-3
-632.816E-6	-9.80700E-12	435.663E-3	-28.4109E-3	-9.84195E-12	430.171E-3	-16.1254E-3
-637.819E-6	-9.93811E-12	436.170E-3	-20.6959E-3	-9.82607E-12	423.179E-3	-23.7572E-3
-642.821E-6	-10.1034E-12	435.500E-3	-19.6321E-3	-10.0436E-12	413.317E-3	-25.6077E-3
-647.824E-6	-10.2602E-12	425.957E-3	-34.7406E-3	-10.2347E-12	421.978E-3	-18.0070E-3
-652.826E-6	-10.4386E-12	416.891E-3	-41.8520E-3	-10.1658E-12	421.015E-3	-6.80578E-3
-657.829E-6	-10.5245E-12	421.046E-3	-40.3737E-3	-10.3494E-12	405.486E-3	-4.36939E-3
-662.831E-6	-10.6504E-12	431.936E-3	-43.4556E-3	-10.4963E-12	400.458E-3	-19.2696E-3
-667.834E-6	-10.7439E-12	428.049E-3	-33.2334E-3	-10.7206E-12	396.943E-3	-28.6580E-3
-672.836E-6	-10.7292E-12	412.210E-3	-17.9376E-3	-10.7907E-12	382.242E-3	-23.5932E-3
-677.839E-6	-10.8901E-12	404.275E-3	-23.3611E-3	-11.0355E-12	374.017E-3	-24.5851E-3
-682.841E-6	-10.9975E-12	403.358E-3	-25.8141E-3	-11.1642E-12	376.651E-3	-32.1663E-3
-687.844E-6	-11.0781E-12	399.195E-3	-17.3365E-3	-11.2389E-12	379.020E-3	-27.6951E-3
-692.846E-6	-11.0945E-12	391.401E-3	-26.2761E-3	-11.3936E-12	378.335E-3	-23.2177E-3
-697.849E-6	-11.3356E-12	374.775E-3	-34.2468E-3	-11.6151E-12	367.748E-3	-35.0788E-3
-702.851E-6	-11.4540E-12	357.387E-3	-15.9249E-3	-11.8190E-12	356.594E-3	-33.9981E-3
-707.854E-6	-11.4458E-12	360.429E-3	-3.66863E-3	-11.7571E-12	358.470E-3	-12.4959E-3
-712.856E-6	-11.6358E-12	365.874E-3	-11.2355E-3	-11.8799E-12	359.147E-3	-4.52139E-3
-717.859E-6	-11.9205E-12	360.882E-3	-14.6944E-3	-12.1076E-12	351.175E-3	-8.55214E-3
-722.861E-6	-12.0581E-12	368.699E-3	-15.3589E-3	-12.0484E-12	340.718E-3	-8.20409E-3
-727.864E-6	-12.0975E-12	380.001E-3	-19.0495E-3	-12.0041E-12	330.703E-3	-14.1462E-3
-732.866E-6	-12.1466E-12	373.180E-3	-15.7176E-3	-12.0714E-12	324.887E-3	-18.6027E-3
-737.869E-6	-12.4569E-12	349.038E-3	-8.89433E-3	-12.2639E-12	313.538E-3	-12.9645E-3
-742.871E-6	-12.6146E-12	323.923E-3	-13.8863E-3	-12.4204E-12	292.019E-3	-15.6307E-3
-747.874E-6	-12.6285E-12	313.892E-3	-20.6900E-3	-12.3246E-12	291.515E-3	-25.3179E-3
-752.876E-6	-12.6634E-12	311.732E-3	-22.8088E-3	-12.2981E-12	301.655E-3	-22.8804E-3
-757.879E-6	-12.8698E-12	306.270E-3	-26.3505E-3	-12.6179E-12	292.155E-3	-16.7196E-3
-762.881E-6	-13.0487E-12	301.232E-3	-16.8215E-3	-12.7210E-12	281.095E-3	-16.6075E-3
-767.884E-6	-13.0005E-12	301.325E-3	-3.01484E-3	-12.8464E-12	283.824E-3	-16.4712E-3
-772.886E-6	-13.0766E-12	303.294E-3	-910.453E-6	-13.0540E-12	297.749E-3	-19.6032E-3
-777.889E-6	-13.1849E-12	298.370E-3	1.59328E-3	-13.3631E-12	310.951E-3	-14.7546E-3
-782.891E-6	-13.3037E-12	288.922E-3	-937.212E-6	-13.4936E-12	308.098E-3	-3.39267E-3
-787.894E-6	-13.2628E-12	284.381E-3	-6.32923E-3	-13.5799E-12	290.766E-3	-10.9941E-3
-792.896E-6	-13.4186E-12	283.005E-3	1.91995E-3	-13.7855E-12	264.751E-3	-17.6507E-3
-797.899E-6	-13.5936E-12	282.008E-3	4.54377E-3	-14.1090E-12	247.025E-3	-7.70544E-3
-802.901E-6	-13.7110E-12	281.384E-3	-9.50689E-3	-14.2209E-12	254.457E-3	-3.36124E-3
-807.904E-6	-13.7003E-12	279.761E-3	-15.0727E-3	-14.4476E-12	265.527E-3	-6.65730E-3
-812.906E-6	-13.8574E-12	270.311E-3	-11.7886E-3	-14.5283E-12	258.257E-3	-11.7458E-3
-817.909E-6	-14.1520E-12	259.609E-3	-24.5128E-3	-14.6318E-12	247.322E-3	-15.4949E-3
-822.911E-6	-14.1650E-12	254.405E-3	-24.5060E-3	-14.7020E-12	246.867E-3	-18.1419E-3
-827.914E-6	-14.1892E-12	245.217E-3	-9.84253E-3	-14.6601E-12	241.703E-3	-22.5510E-3
-832.916E-6	-14.4750E-12	232.933E-3	-19.3043E-3	-14.8518E-12	235.253E-3	-31.3783E-3
-837.919E-6	-14.7020E-12	234.132E-3	-25.6219E-3	-14.8500E-12	227.540E-3	-40.0912E-3
-842.921E-6	-14.5197E-12	251.521E-3	-17.3703E-3	-14.5641E-12	207.248E-3	-36.3507E-3
-847.924E-6	-14.5758E-12	257.838E-3	-21.0883E-3	-14.6685E-12	200.298E-3	-24.8010E-3
-852.926E-6	-14.8548E-12	247.207E-3	-30.2559E-3	-14.8887E-12	213.431E-3	-20.2032E-3
-857.929E-6	-15.0635E-12	234.395E-3	-31.3610E-3	-14.7474E-12	222.295E-3	-30.0408E-3
-862.931E-6	-14.8684E-12	219.187E-3	-24.6319E-3	-14.7827E-12	216.369E-3	-38.3952E-3
-867.934E-6	-14.9178E-12	209.081E-3	-22.9167E-3	-14.9239E-12	195.172E-3	-30.2702E-3
-872.936E-6	-15.0971E-12	207.875E-3	-32.6374E-3	-15.1494E-12	180.185E-3	-17.8938E-3
-877.939E-6	-15.0483E-12	209.546E-3	-34.6023E-3	-15.1795E-12	188.800E-3	-10.0348E-3
-882.941E-6	-14.9284E-12	204.720E-3	-23.3557E-3	-15.3704E-12	197.603E-3	-14.2175E-3
-887.944E-6	-15.0002E-12	188.241E-3	-12.4249E-3	-15.3192E-12	191.159E-3	-21.7242E-3
-892.946E-6	-15.0563E-12	182.708E-3	-4.21205E-3	-15.4507E-12	182.439E-3	-18.3240E-3
-897.949E-6	-15.0239E-12	198.040E-3	-44.1810E-6	-15.8222E-12	182.324E-3	-15.5012E-3
-902.951E-6	-14.9928E-12	197.379E-3	-1.72614E-3	-15.6743E-12	184.047E-3	-11.5216E-3
-907.954E-6	-15.0265E-12	185.838E-3	-8.36723E-3	-15.9268E-12	181.649E-3	-7.90124E-3
-912.956E-6	-15.0684E-12	189.295E-3	-18.0304E-3	-16.0965E-12	183.415E-3	-14.4961E-3
-917.959E-6	-15.1889E-12	179.251E-3	-17.9177E-3	-16.1505E-12	190.416E-3	-23.4924E-3
-922.961E-6	-15.1907E-12	163.044E-3	-8.02447E-3	-15.9749E-12	188.078E-3	-27.0086E-3
-927.964E-6	-15.4010E-12	167.372E-3	-9.77137E-3	-16.0179E-12	169.544E-3	-29.6045E-3
-932.966E-6	-15.6664E-12	168.080E-3	-16.3577E-3	-16.0204E-12	159.937E-3	-36.5943E-3
-937.969E-6	-15.4875E-12	150.911E-3	-18.9312E-3	-15.9199E-12	165.533E-3	-36.8235E-3
-942.971E-6	-15.5668E-12	149.493E-3	-23.2890E-3	-15.8089E-12	160.485E-3	-19.7595E-3
-947.974E-6	-15.9328E-12	168.768E-3	-15.1874E-3	-15.8013E-12	150.976E-3	-9.53888E-3
-952.976E-6	-16.0251E-12	175.290E-3	-12.3075E-3	-15.7443E-12	155.923E-3	-14.9274E-3
-957.979E-6	-15.8621E-12	170.617E-3	-26.8550E-3	-15.5959E-12	164.220E-3	-4.00709E-3
-962.981E-6	-16.0765E-12	161.845E-3	-28.3491E-3	-15.8731E-12	158.216E-3	7.94281E-3
-967.984E-6	-16.4143E-12	152.947E-3	-15.1302E-3	-15.8951E-12	153.946E-3	-4.61986E-3
-972.986E-6	-16.3898E-12	163.561E-3	-5.73171E-3	-15.9776E-12	167.021E-3	-21.9785E-3
-977.989E-6	-16.2264E-12	185.382E-3	-27.3792E-6	-15.9045E-12	179.778E-3	-31.2885E-3
-982.991E-6	-16.4398E-12	195.014E-3	7.35213E-3	-16.2212E-12	183.905E-3	-22.8636E-3
-987.994E-6	-16.5505E-12	198.256E-3	4.76277E-3	-16.1903E-12	182.901E-3	-8.38550E-3
-992.997E-6	-16.6489E-12	199.040E-3	-6.22848E-3	-16.5544E-12	183.402E-3	-15.0465E-3
-997.999E-6	-16.4135E-12	191.663E-3	-13.8513E-3	-16.6014E-12	191.176E-3	-20.0528E-3
-1.00300E-3	-16.5344E-12	180.840E-3	-16.9548E-3	-16.5112E-12	200.981E-3	4.79192E-3
-1.00800E-3	-16.5639E-12	175.137E-3	-15.4144E-3	-16.8209E-12	210.633E-3	29.3076E-3
-1.01301E-3	-16.5132E-12	179.607E-3	-18.9062E-3	-17.0047E-12	218.123E-3	22.9162E-3
-1.01801E-3	-16.5101E-12	184.473E-3	-25.6694E-3	-16.7145E-12	214.397E-3	-2.81298E-3
-1.02301E-3	-16.5732E-12	187.285E-3	-25.3804E-3	-16.7031E-12	201.261E-3	-17.2574E-3
-1.02801E-3	-16.5840E-12	187.916E-3	-27.0456E-3	-17.0988E-12	195.676E-3	-23.4847E-3
-1.03302E-3	-16.5232E-12	189.193E-3	-31.0933E-3	-17.0188E-12	204.595E-3	-30.1443E-3
-1.03802E-3	-16.6726E-12	204.175E-3	-19.5060E-3	-16.7357E-12	217.608E-3	-21.0558E-3
-1.04302E-3	-16.8925E-12	216.501E-3	-7.02509E-3	-16.8997E-12	225.403E-3	-14.8244E-3
-1.04802E-3	-17.0321E-12	209.434E-3	-16.5064E-3	-16.8794E-12	229.146E-3	-20.2066E-3
-1.05303E-3	-17.0564E-12	200.113E-3	-20.4337E-3	-17.0026E-12	236.814E-3	-18.1423E-3
-1.05803E-3	-17.1304E-12	205.980E-3	-13.3663E-3	-17.1166E-12	243.311E-3	-5.69830E-3
-1.06303E-3	-17.3418E-12	223.034E-3	-15.6928E-3	-17.0670E-12	245.954E-3	10.9079E-3
-1.06803E-3	-17.4473E-12	238.540E-3	-20.6623E-3	-17.2573E-12	256.536E-3	5.87231E-3
-1.07304E-3	-17.4690E-12	238.294E-3	-23.4298E-3	-17.4035E-12	265.677E-3	-18.0540E-3
-1.07804E-3	-17.5539E-12	232.234E-3	-17.6956E-3	-17.2940E-12	265.091E-3	-26.5641E-3
-1.08304E-3	-17.7932E-12	236.889E-3	-13.2844E-3	-17.5343E-12	262.791E-3	-20.9305E-3
-1.08804E-3	-17.8617E-12	251.296E-3	-19.0251E-3	-17.7279E-12	272.836E-3	-17.3916E-3
-1.09305E-3	-17.9060E-12	273.859E-3	-21.5919E-3	-17.6793E-12	303.111E-3	-15.8035E-3
-1.09805E-3	-17.8548E-12	284.544E-3	-27.8588E-3	-17.8227E-12	333.017E-3	-15.9040E-3
-1.10305E-3	-18.0461E-12	284.797E-3	-32.2910E-3	-18.3488E-12	342.391E-3	-21.8109E-3
-1.10805E-3	-18.1010E-12	292.698E-3	-21.5526E-3	-18.4520E-12	342.714E-3	-32.3073E-3
-1.11306E-3	-18.0748E-12	293.700E-3	-12.3203E-3	-18.4731E-12	352.386E-3	-38.6791E-3
-1.11806E-3	-18.2557E-12	300.000E-3	-11.3081E-3	-18.6805E-12	372.401E-3	-35.7740E-3
-1.12306E-3	-18.5037E-12	319.874E-3	-10.7854E-3	-19.1550E-12	390.006E-3	-33.5643E-3
-1.12806E-3	-18.5252E-12	334.196E-3	-8.83667E-3	-19.1503E-12	395.110E-3	-33.0010E-3
-1.13307E-3	-18.5657E-12	347.503E-3	-6.78340E-3	-19.0553E-12	397.544E-3	-26.9041E-3
-1.13807E-3	-18.7101E-12	361.058E-3	-8.94236E-3	-19.2611E-12	401.964E-3	-21.8894E-3
-1.14307E-3	-18.9243E-12	368.475E-3	-16.8801E-3	-19.4777E-12	409.335E-3	-23.1110E-3
-1.14807E-3	-19.1055E-12	375.624E-3	-27.3958E-3	-19.2881E-12	417.459E-3	-18.9459E-3
-1.15308E-3	-19.3865E-12	386.780E-3	-33.2674E-3	-19.3008E-12	425.485E-3	-5.16730E-3
-1.15808E-3	-19.4781E-12	398.705E-3	-24.2021E-3	-19.4187E-12	437.531E-3	-3.62272E-3
-1.16308E-3	-19.9524E-12	407.374E-3	-9.66512E-3	-19.5071E-12	445.922E-3	-13.8587E-3
-1.16808E-3	-20.3047E-12	417.139E-3	-7.58949E-3	-19.4149E-12	471.478E-3	-14.0397E-3
-1.17309E-3	-20.2644E-12	443.983E-3	-12.3344E-3	-19.5690E-12	508.676E-3	-14.1792E-3
-1.17809E-3	-20.4760E-12	476.332E-3	-16.3704E-3	-19.7208E-12	521.703E-3	-22.1843E-3
-1.18309E-3	-20.8589E-12	492.448E-3	-23.2362E-3	-19.8191E-12	529.987E-3	-23.6547E-3
-1.18809E-3	-20.9659E-12	504.724E-3	-21.5753E-3	-20.0544E-12	555.531E-3	-12.7343E-3
-1.19310E-3	-20.9558E-12	519.031E-3	-10.8602E-3	-20.3762E-12	583.067E-3	-4.02781E-3
-1.19810E-3	-21.3847E-12	525.469E-3	-15.3739E-3	-20.9167E-12	598.724E-3	-6.33003E-3
-1.20310E-3	-21.5302E-12	528.225E-3	-21.6374E-3	-21.2236E-12	609.931E-3	-6.20715E-3
-1.20810E-3	-21.3410E-12	541.293E-3	-20.2843E-3	-21.2602E-12	622.127E-3	-570.601E-6
-1.21311E-3	-21.4882E-12	557.835E-3	-22.5389E-3	-21.6455E-12	626.772E-3	-6.15454E-3
-1.21811E-3	-21.9232E-12	563.230E-3	-22.7854E-3	-22.0769E-12	639.218E-3	-17.8898E-3
-1.22311E-3	-21.9627E-12	571.126E-3	-16.3593E-3	-22.2384E-12	658.832E-3	-17.6168E-3
-1.22811E-3	-22.0761E-12	602.158E-3	-783.412E-6	-22.4280E-12	671.371E-3	-8.49084E-3
-1.23312E-3	-22.0466E-12	637.527E-3	6.83221E-3	-22.8119E-12	689.448E-3	-10.6565E-3
-1.23812E-3	-22.4018E-12	644.267E-3	2.18672E-3	-23.0853E-12	708.494E-3	-18.8613E-3
-1.24312E-3	-22.7262E-12	634.170E-3	-4.29608E-3	-23.1283E-12	722.537E-3	-22.0312E-3
-1.24812E-3	-22.8607E-12	641.140E-3	-14.5538E-3	-23.0558E-12	727.187E-3	-27.8066E-3
-1.25313E-3	-22.8950E-12	666.997E-3	-15.0552E-3	-23.1904E-12	726.313E-3	-25.5355E-3
-1.25813E-3	-23.3425E-12	687.064E-3	-8.38693E-3	-23.5338E-12	743.635E-3	-18.6415E-3
-1.26313E-3	-23.8748E-12	697.352E-3	-14.2777E-3	-23.4778E-12	766.918E-3	-19.3452E-3
-1.26813E-3	-23.9048E-12	717.703E-3	-20.1754E-3	-23.4448E-12	775.689E-3	-20.6535E-3
-1.27314E-3	-24.0861E-12	749.977E-3	-13.7094E-3	-23.7024E-12	786.696E-3	-18.1501E-3
-1.27814E-3	-24.3796E-12	777.971E-3	-12.4996E-3	-23.9628E-12	807.776E-3	-7.22787E-3
-1.28314E-3	-24.8745E-12	791.124E-3	-26.2700E-3	-24.0582E-12	826.967E-3	5.39565E-3
-1.28814E-3	-24.8281E-12	796.008E-3	-40.7087E-3	-24.2465E-12	839.678E-3	8.58253E-3
-1.29315E-3	-24.9809E-12	806.538E-3	-37.7726E-3	-24.6899E-12	855.041E-3	5.37871E-3
-1.29815E-3	-25.3844E-12	832.744E-3	-21.5753E-3	-24.8405E-12	872.166E-3	-4.38494E-3
-1.30315E-3	-25.6693E-12	865.743E-3	-16.6720E-3	-25.2235E-12	882.994E-3	-19.8071E-3
-1.30815E-3	-25.7341E-12	881.707E-3	-24.8740E-3	-25.7451E-12	908.844E-3	-30.9882E-3
-1.31316E-3	-26.0674E-12	886.147E-3	-27.7424E-3	-26.3249E-12	950.240E-3	-22.7111E-3
-1.31816E-3	-26.3585E-12	892.635E-3	-23.8584E-3	-26.4945E-12	972.418E-3	-12.4031E-3
-1.32316E-3	-26.5107E-12	898.949E-3	-16.5111E-3	-26.9527E-12	982.488E-3	-15.8302E-3
-1.32816E-3	-26.5100E-12	906.388E-3	-8.23402E-3	-27.4390E-12	997.979E-3	-12.2131E-3
-1.33317E-3	-26.7915E-12	913.217E-3	-5.98061E-3	-27.9803E-12	1.01715E+0	-9.43083E-3
-1.33817E-3	-27.3136E-12	919.566E-3	-7.52185E-3	-28.2588E-12	1.03429E+0	-16.2246E-3
-1.34317E-3	-27.4121E-12	931.165E-3	-12.2581E-3	-28.4049E-12	1.02938E+0	-15.1647E-3
-1.34817E-3	-27.5963E-12	946.262E-3	-14.2074E-3	-28.8369E-12	1.01852E+0	-19.8403E-3
-1.35318E-3	-28.1663E-12	962.023E-3	-11.5203E-3	-29.2447E-12	1.02158E+0	-26.4739E-3
-1.35818E-3	-28.9780E-12	975.994E-3	-10.2548E-3	-29.3990E-12	1.02786E+0	-15.0040E-3
-1.36318E-3	-29.2248E-12	991.264E-3	-6.48878E-3	-29.3971E-12	1.03430E+0	-11.8782E-3
-1.36818E-3	-29.8222E-12	1.00373E+0	-3.09562E-3	-29.8227E-12	1.04107E+0	-19.9170E-3
-1.37319E-3	-30.2440E-12	1.01129E+0	-1.82268E-3	-30.0462E-12	1.05206E+0	-17.7141E-3
-1.37819E-3	-31.0355E-12	1.02450E+0	-6.45520E-3	-30.2796E-12	1.05579E+0	-8.65372E-3
-1.38319E-3	-31.4177E-12	1.04579E+0	-18.3668E-3	-30.1066E-12	1.04866E+0	-3.62939E-3
-1.38819E-3	-31.7080E-12	1.06739E+0	-20.8814E-3	-30.6145E-12	1.05303E+0	-10.1210E-3
-1.39320E-3	-32.1748E-12	1.08722E+0	-13.7595E-3	-30.9506E-12	1.07051E+0	-16.8502E-3
-1.39820E-3	-32.7367E-12	1.10563E+0	-6.97088E-3	-31.2198E-12	1.09322E+0	-17.3451E-3
-1.40320E-3	-33.1597E-12	1.11682E+0	-248.152E-6	-31.6401E-12	1.11154E+0	-25.6389E-3
-1.40820E-3	-33.2018E-12	1.12320E+0	4.18533E-3	-32.1141E-12	1.12478E+0	-33.8512E-3
-1.41321E-3	-33.8146E-12	1.13588E+0	2.56670E-3	-32.6894E-12	1.14639E+0	-28.6042E-3
-1.41821E-3	-33.9681E-12	1.14449E+0	-11.7903E-3	-33.2123E-12	1.16305E+0	-10.2386E-3
-1.42321E-3	-34.4429E-12	1.13006E+0	-25.1726E-3	-33.8983E-12	1.16948E+0	7.82095E-3
-1.42821E-3	-34.6182E-12	1.10997E+0	-9.35195E-3	-34.4556E-12	1.17516E+0	3.02461E-3
-1.43322E-3	-34.7885E-12	1.11294E+0	2.65071E-3	-35.1441E-12	1.18043E+0	-7.03034E-3
-1.43822E-3	-35.3154E-12	1.12360E+0	-18.9390E-3	-35.4939E-12	1.19656E+0	-10.4482E-3
-1.44322E-3	-35.3401E-12	1.13260E+0	-31.7149E-3	-35.9882E-12	1.21057E+0	-18.3565E-3
-1.44822E-3	-35.7872E-12	1.14160E+0	-27.5703E-3	-36.6985E-12	1.20109E+0	-14.5063E-3
-1.45323E-3	-36.3498E-12	1.14460E+0	-34.0195E-3	-37.1261E-12	1.18440E+0	-9.65119E-3
-1.45823E-3	-36.7493E-12	1.15067E+0	-40.0185E-3	-36.9636E-12	1.17074E+0	-19.3940E-3
-1.46323E-3	-37.0161E-12	1.16020E+0	-42.0514E-3	-37.2627E-12	1.15682E+0	-23.4954E-3
-1.46823E-3	-37.6723E-12	1.16770E+0	-39.2750E-3	-37.7614E-12	1.15502E+0	-22.8005E-3
-1.47324E-3	-38.2237E-12	1.17435E+0	-22.4711E-3	-37.6504E-12	1.15426E+0	-21.8876E-3
-1.47824E-3	-38.5011E-12	1.18661E+0	-15.8749E-3	-37.5675E-12	1.14396E+0	-17.7756E-3
-1.48324E-3	-38.6586E-12	1.20085E+0	-18.8700E-3	-37.8583E-12	1.14268E+0	-21.1421E-3
-1.48824E-3	-39.0008E-12	1.19640E+0	-19.8669E-3	-38.2911E-12	1.14749E+0	-29.8986E-3
-1.49325E-3	-39.4365E-12	1.18135E+0	-19.6013E-3	-38.5269E-12	1.14585E+0	-30.6022E-3
-1.49825E-3	-39.3046E-12	1.17682E+0	-9.27492E-3	-38.7721E-12	1.14267E+0	-23.1946E-3
-1.50325E-3	-39.4802E-12	1.17482E+0	-4.01139E-3	-39.0865E-12	1.15174E+0	-23.1253E-3
-1.50825E-3	-39.9605E-12	1.17223E+0	-10.4914E-3	-39.9782E-12	1.15608E+0	-30.6657E-3
-1.51326E-3	-40.3585E-12	1.16784E+0	-16.0346E-3	-40.5861E-12	1.14709E+0	-30.8964E-3
-1.51826E-3	-40.5068E-12	1.15874E+0	-16.3512E-3	-41.0409E-12	1.15628E+0	-28.1046E-3
-1.52326E-3	-40.8718E-12	1.15822E+0	-14.7567E-3	-41.7735E-12	1.17876E+0	-28.6284E-3
-1.52826E-3	-41.2669E-12	1.16192E+0	-18.1661E-3	-42.6664E-12	1.19235E+0	-17.9528E-3
-1.53327E-3	-41.8108E-12	1.15273E+0	-17.3451E-3	-43.1971E-12	1.20271E+0	-7.11634E-3
-1.53827E-3	-42.0378E-12	1.14503E+0	-6.43037E-3	-43.3850E-12	1.19990E+0	-8.43712E-3
-1.54327E-3	-42.4877E-12	1.14904E+0	-27.7187E-6	-44.7562E-12	1.18639E+0	-6.64052E-3
-1.54827E-3	-43.1536E-12	1.15473E+0	-5.98676E-3	-45.0092E-12	1.18135E+0	-11.5145E-3
-1.55328E-3	-43.5702E-12	1.14927E+0	-17.2212E-3	-44.9542E-12	1.16768E+0	-22.5989E-3
-1.55828E-3	-44.0168E-12	1.14201E+0	-29.0574E-3	-45.5061E-12	1.15193E+0	-19.3967E-3
-1.56328E-3	-44.8047E-12	1.14124E+0	-35.7107E-3	-45.9416E-12	1.15002E+0	-19.6339E-3
-1.56828E-3	-45.6098E-12	1.13868E+0	-35.1433E-3	-45.4990E-12	1.14081E+0	-27.2666E-3
-1.57329E-3	-45.7926E-12	1.14472E+0	-29.5812E-3	-45.4668E-12	1.11844E+0	-22.2009E-3
-1.57829E-3	-46.0241E-12	1.15568E+0	-10.3128E-3	-45.8394E-12	1.10733E+0	-16.3482E-3
-1.58329E-3	-46.8089E-12	1.15747E+0	3.89410E-3	-45.7862E-12	1.11136E+0	-18.2830E-3
-1.58829E-3	-47.1398E-12	1.15235E+0	-9.87303E-3	-45.8711E-12	1.10364E+0	-14.9028E-3
-1.59330E-3	-47.1473E-12	1.13563E+0	-26.6216E-3	-45.8571E-12	1.08683E+0	-9.74003E-3
-1.59830E-3	-47.8195E-12	1.10918E+0	-30.4489E-3	-46.2216E-12	1.08246E+0	-13.8887E-3
-1.60330E-3	-48.6143E-12	1.10094E+0	-28.8749E-3	-46.8088E-12	1.08562E+0	-13.4353E-3
-1.60830E-3	-48.7053E-12	1.10813E+0	-27.8395E-3	-47.0847E-12	1.08146E+0	-7.95966E-3
-1.61331E-3	-48.8759E-12	1.10139E+0	-27.2380E-3	-47.2402E-12	1.07583E+0	-3.84501E-3
-1.61831E-3	-49.1258E-12	1.08230E+0	-25.3197E-3	-48.2740E-12	1.08111E+0	191.189E-6
-1.62331E-3	-49.2592E-12	1.08072E+0	-20.0553E-3	-49.2333E-12	1.08362E+0	2.06702E-3
-1.62831E-3	-49.8728E-12	1.08568E+0	-14.4296E-3	-49.7299E-12	1.08508E+0	-4.95043E-3
-1.63332E-3	-50.1235E-12	1.07167E+0	-12.2723E-3	-50.2900E-12	1.09850E+0	-18.5407E-3
-1.63832E-3	-50.1057E-12	1.06131E+0	-5.84122E-3	-50.9295E-12	1.08624E+0	-16.7436E-3
-1.64332E-3	-50.6769E-12	1.06498E+0	-2.26351E-3	-51.6251E-12	1.05941E+0	-14.5522E-3
-1.64832E-3	-50.9709E-12	1.05959E+0	-22.0840E-3	-51.9502E-12	1.06003E+0	-16.5736E-3
-1.65333E-3	-51.1250E-12	1.05420E+0	-47.9482E-3	-52.3819E-12	1.06465E+0	-1.84425E-3
-1.65833E-3	-51.2405E-12	1.07044E+0	-49.1760E-3	-52.9356E-12	1.05833E+0	7.38228E-3
-1.66333E-3	-51.9148E-12	1.07662E+0	-32.6543E-3	-53.5255E-12	1.04412E+0	-1.65505E-3
-1.66833E-3	-52.3871E-12	1.06219E+0	-24.7709E-3	-53.4837E-12	1.02661E+0	-7.69294E-3
-1.67334E-3	-52.5628E-12	1.06249E+0	-27.8686E-3	-53.5240E-12	1.01478E+0	-11.8453E-3
-1.67834E-3	-52.9698E-12	1.05981E+0	-30.6323E-3	-53.5712E-12	1.01300E+0	-20.1153E-3
-1.68334E-3	-53.5302E-12	1.03637E+0	-39.6278E-3	-53.8548E-12	1.02024E+0	-28.6330E-3
-1.68834E-3	-54.1236E-12	1.02368E+0	-38.9711E-3	-53.5151E-12	1.01630E+0	-31.6980E-3
-1.69335E-3	-54.4341E-12	1.02571E+0	-14.1993E-3	-53.4690E-12	997.464E-3	-28.6982E-3
-1.69835E-3	-54.9672E-12	1.02114E+0	-4.10451E-3	-53.8724E-12	984.015E-3	-25.7752E-3
-1.70335E-3	-55.1273E-12	1.01833E+0	-16.3842E-3	-53.8325E-12	980.666E-3	-19.2589E-3
-1.70835E-3	-55.7228E-12	1.02822E+0	-23.0138E-3	-53.7854E-12	970.610E-3	-16.4854E-3
-1.71336E-3	-56.0585E-12	1.02717E+0	-23.1103E-3	-54.4071E-12	955.736E-3	-19.9486E-3
-1.71836E-3	-56.3519E-12	1.01854E+0	-13.9494E-3	-55.0584E-12	955.251E-3	-21.1437E-3
-1.72336E-3	-56.8940E-12	1.01936E+0	9.17817E-3	-55.4400E-12	964.420E-3	-22.8877E-3
-1.72836E-3	-56.8844E-12	1.00647E+0	18.2788E-3	-56.1436E-12	955.975E-3	-25.8559E-3
-1.73337E-3	-56.5103E-12	984.922E-3	5.58356E-3	-56.5875E-12	946.616E-3	-25.3340E-3
-1.73837E-3	-56.9426E-12	980.866E-3	2.53076E-3	-57.4714E-12	968.500E-3	-26.2530E-3
-1.74337E-3	-57.0907E-12	981.618E-3	-1.18427E-3	-57.7675E-12	997.188E-3	-28.6116E-3
-1.74837E-3	-56.6625E-12	980.319E-3	-10.9158E-3	-58.4158E-12	1.00309E+0	-31.8942E-3
-1.75338E-3	-56.7514E-12	980.671E-3	-9.12538E-3	-58.7504E-12	990.215E-3	-36.4494E-3
-1.75838E-3	-57.3882E-12	968.424E-3	-1.97445E-3	-59.5791E-12	964.304E-3	-31.8280E-3
-1.76338E-3	-57.9285E-12	956.267E-3	-3.50419E-3	-60.0923E-12	942.994E-3	-22.9199E-3
-1.76838E-3	-57.9435E-12	950.690E-3	-7.92727E-3	-60.0578E-12	938.341E-3	-16.5849E-3
-1.77339E-3	-58.4380E-12	936.431E-3	-14.0551E-3	-60.2845E-12	923.862E-3	-17.7394E-3
-1.77839E-3	-59.1713E-12	923.026E-3	-22.1655E-3	-60.8974E-12	903.015E-3	-21.3014E-3
-1.78339E-3	-59.6182E-12	916.392E-3	-27.3461E-3	-60.7405E-12	901.159E-3	-18.9614E-3
-1.78839E-3	-60.4223E-12	923.557E-3	-32.7997E-3	-60.1741E-12	902.693E-3	-13.3169E-3
-1.79340E-3	-60.5997E-12	939.663E-3	-26.1492E-3	-60.4404E-12	901.962E-3	3.03415E-3
-1.79840E-3	-61.7892E-12	933.562E-3	-13.6691E-3	-60.5005E-12	909.358E-3	4.79782E-3
-1.80340E-3	-62.3769E-12	922.098E-3	-19.9714E-3	-60.2022E-12	909.165E-3	-15.5221E-3
-1.80840E-3	-62.2532E-12	933.769E-3	-30.1900E-3	-60.1739E-12	902.757E-3	-33.9218E-3
-1.81341E-3	-62.6985E-12	949.385E-3	-19.4272E-3	-60.5190E-12	907.353E-3	-36.7253E-3
-1.81841E-3	-63.2606E-12	947.198E-3	-365.487E-6	-60.7380E-12	901.005E-3	-25.9689E-3
-1.82341E-3	-62.4829E-12	942.643E-3	8.43240E-3	-60.7680E-12	879.103E-3	-17.8026E-3
-1.82841E-3	-62.6086E-12	939.341E-3	11.1450E-3	-61.6338E-12	876.277E-3	-3.82243E-3
-1.83342E-3	-62.5883E-12	924.290E-3	2.55178E-3	-62.1826E-12	889.622E-3	11.8120E-3
-1.83842E-3	-62.4317E-12	914.132E-3	-22.0628E-3	-62.5805E-12	910.277E-3	-421.387E-6
-1.84342E-3	-62.5151E-12	913.969E-3	-37.4513E-3	-63.1873E-12	931.314E-3	-20.5164E-3
-1.84842E-3	-62.4762E-12	907.255E-3	-28.2113E-3	-63.8554E-12	929.404E-3	-27.9568E-3
-1.85343E-3	-62.7241E-12	892.489E-3	-22.1809E-3	-64.8895E-12	919.096E-3	-40.4262E-3
-1.85843E-3	-62.9310E-12	884.028E-3	-27.7443E-3	-65.6607E-12	917.291E-3	-40.9638E-3
-1.86343E-3	-63.2201E-12	880.650E-3	-25.0658E-3	-65.7856E-12	913.863E-3	-19.9387E-3
-1.86843E-3	-63.7780E-12	870.139E-3	-21.6874E-3	-66.2827E-12	917.045E-3	-9.68570E-3
-1.87344E-3	-64.5887E-12	860.931E-3	-22.7262E-3	-67.4049E-12	923.418E-3	-11.1739E-3
-1.87844E-3	-65.4430E-12	859.227E-3	-31.2244E-3	-67.3920E-12	909.261E-3	-13.0577E-3
-1.88344E-3	-66.1253E-12	864.737E-3	-39.2031E-3	-67.2698E-12	884.674E-3	-24.0463E-3
-1.88844E-3	-66.7583E-12	878.435E-3	-35.5539E-3	-66.9025E-12	877.407E-3	-21.2433E-3
-1.89345E-3	-67.3120E-12	888.993E-3	-23.5425E-3	-67.4936E-12	871.300E-3	-6.49726E-3
-1.89845E-3	-68.2735E-12	891.815E-3	-12.5784E-3	-67.2326E-12	847.585E-3	-6.67757E-3
-1.90345E-3	-68.4242E-12	890.154E-3	-15.7680E-3	-66.3527E-12	831.040E-3	-12.6089E-3
-1.90845E-3	-68.7455E-12	891.583E-3	-14.2090E-3	-66.4603E-12	832.003E-3	-21.2501E-3
-1.91346E-3	-69.0649E-12	889.119E-3	-4.43495E-3	-66.6842E-12	834.134E-3	-20.7307E-3
-1.91846E-3	-69.1209E-12	879.778E-3	-6.88566E-3	-66.4555E-12	840.239E-3	-6.82118E-3
-1.92346E-3	-68.7305E-12	877.759E-3	-6.66255E-3	-66.6450E-12	853.605E-3	-3.36616E-3
-1.92846E-3	-68.7965E-12	881.892E-3	3.12474E-3	-67.3037E-12	856.552E-3	-2.27103E-3
-1.93347E-3	-68.5564E-12	884.440E-3	-11.3502E-3	-67.8837E-12	849.917E-3	5.17077E-3
-1.93847E-3	-68.3821E-12	880.927E-3	-34.3683E-3	-67.9700E-12	850.197E-3	-3.04889E-3
-1.94347E-3	-68.4535E-12	865.837E-3	-34.6833E-3	-68.9994E-12	860.278E-3	-12.0375E-3
-1.94847E-3	-68.4474E-12	849.504E-3	-25.8809E-3	-69.7497E-12	863.710E-3	-12.6526E-3
-1.95348E-3	-68.4294E-12	839.065E-3	-11.1266E-3	-70.4896E-12	863.904E-3	-16.0604E-3
-1.95848E-3	-68.8312E-12	825.378E-3	-5.59767E-3	-71.3955E-12	869.571E-3	-11.5519E-3
-1.96348E-3	-69.1853E-12	818.645E-3	-14.7187E-3	-72.1377E-12	872.982E-3	-5.85890E-3
-1.96848E-3	-69.7614E-12	831.294E-3	-20.2500E-3	-72.9240E-12	876.536E-3	-1.67388E-3
-1.97349E-3	-70.5460E-12	843.689E-3	-20.8842E-3	-73.2018E-12	877.623E-3	6.66051E-3
-1.97849E-3	-70.7895E-12	832.230E-3	-22.9058E-3	-73.2983E-12	864.544E-3	5.58468E-3
-1.98349E-3	-71.1069E-12	820.984E-3	-18.9758E-3	-73.1939E-12	839.552E-3	-7.38375E-3
-1.98849E-3	-72.1452E-12	833.037E-3	-1.08327E-3	-73.2417E-12	822.283E-3	-22.3048E-3
-1.99350E-3	-72.8108E-12	850.286E-3	1.67162E-3	-73.0985E-12	816.752E-3	-31.0748E-3
-1.99850E-3	-72.8975E-12	848.192E-3	-7.91527E-3	-72.5273E-12	803.796E-3	-28.9929E-3
-2.00350E-3	-73.5056E-12	832.477E-3	2.29529E-3	-72.1849E-12	779.900E-3	-17.4731E-3
-2.00850E-3	-74.4166E-12	820.432E-3	9.11741E-3	-72.2708E-12	772.750E-3	-11.0529E-3
-2.01351E-3	-74.1243E-12	817.213E-3	-6.16899E-3	-72.1538E-12	779.489E-3	-17.6707E-3
-2.01851E-3	-73.8537E-12	817.862E-3	-16.0476E-3	-71.3467E-12	785.265E-3	-20.9898E-3
-2.02351E-3	-74.3796E-12	817.185E-3	-11.2295E-3	-71.5584E-12	792.296E-3	-23.6196E-3
-2.02851E-3	-74.5398E-12	817.527E-3	-7.86523E-3	-72.1302E-12	797.153E-3	-35.8974E-3
-2.03352E-3	-74.6789E-12	813.581E-3	-15.0565E-3	-72.7372E-12	807.598E-3	-34.7511E-3
-2.03852E-3	-74.4953E-12	813.259E-3	-20.9048E-3	-73.0920E-12	817.964E-3	-20.2967E-3
-2.04352E-3	-75.1695E-12	817.242E-3	-16.9084E-3	-74.0902E-12	819.903E-3	-5.50937E-3
-2.04852E-3	-74.9932E-12	807.256E-3	-11.0855E-3	-74.6722E-12	815.431E-3	5.37125E-3
-2.05353E-3	-75.0500E-12	802.853E-3	-6.06498E-3	-75.3542E-12	797.459E-3	2.56034E-3
-2.05853E-3	-75.5351E-12	814.139E-3	1.82961E-3	-76.0613E-12	791.289E-3	-11.0345E-3
-2.06353E-3	-76.0200E-12	808.271E-3	5.96777E-3	-76.8793E-12	814.686E-3	-27.6986E-3
-2.06853E-3	-75.5359E-12	790.843E-3	484.323E-6	-77.5269E-12	833.094E-3	-36.3019E-3
-2.07354E-3	-76.3007E-12	779.726E-3	-3.98690E-3	-77.8713E-12	836.065E-3	-30.3003E-3
-2.07854E-3	-76.5437E-12	766.368E-3	-2.81383E-3	-78.2540E-12	833.870E-3	-18.7076E-3
-2.08354E-3	-76.0046E-12	762.568E-3	-10.2700E-3	-78.3901E-12	825.867E-3	-15.3900E-3
-2.08854E-3	-76.7743E-12	789.734E-3	-28.5602E-3	-78.9052E-12	813.905E-3	-21.5396E-3
-2.09355E-3	-76.9034E-12	809.055E-3	-29.3297E-3	-78.4644E-12	788.707E-3	-29.2867E-3
-2.09855E-3	-76.8035E-12	788.118E-3	-15.6275E-3	-78.3252E-12	763.292E-3	-28.5388E-3
-2.10355E-3	-77.2796E-12	773.511E-3	-16.1271E-3	-78.1451E-12	758.920E-3	-10.7808E-3
-2.10855E-3	-78.2018E-12	777.857E-3	-25.4588E-3	-78.2332E-12	767.735E-3	64.3483E-6
-2.11356E-3	-78.3855E-12	770.150E-3	-26.4974E-3	-77.3940E-12	785.140E-3	-6.90599E-3
-2.11856E-3	-78.8317E-12	761.393E-3	-21.2920E-3	-77.4694E-12	796.294E-3	-11.1514E-3
-2.12356E-3	-79.5076E-12	774.293E-3	-19.1933E-3	-78.2937E-12	779.407E-3	-8.83900E-3
-2.12856E-3	-80.1763E-12	788.646E-3	-17.1333E-3	-78.1160E-12	760.612E-3	-9.01679E-3
-2.13357E-3	-79.9003E-12	786.276E-3	-14.3921E-3	-78.2635E-12	771.723E-3	-22.5650E-3
-2.13857E-3	-80.1274E-12	790.221E-3	-11.0892E-3	-78.7403E-12	791.574E-3	-25.0896E-3
-2.14357E-3	-80.9130E-12	796.455E-3	-7.06763E-3	-79.2428E-12	796.065E-3	235.474E-6
-2.14857E-3	-80.5179E-12	787.128E-3	-17.7434E-3	-79.5925E-12	790.988E-3	16.1858E-3
-2.15358E-3	-80.6460E-12	778.911E-3	-32.7061E-3	-80.3686E-12	777.117E-3	8.99744E-3
-2.15858E-3	-81.1236E-12	780.844E-3	-18.7108E-3	-81.2650E-12	768.519E-3	1.46375E-3
-2.16358E-3	-81.1855E-12	783.639E-3	-1.60285E-3	-81.9193E-12	787.091E-3	2.35967E-3
-2.16858E-3	-80.7877E-12	772.446E-3	-8.55873E-3	-82.5834E-12	800.656E-3	-4.86247E-3
-2.17359E-3	-81.5314E-12	753.741E-3	-23.2490E-3	-82.9913E-12	794.088E-3	-19.6045E-3
-2.17859E-3	-81.3652E-12	757.770E-3	-36.0500E-3	-83.8118E-12	794.736E-3	-17.4841E-3
-2.18359E-3	-80.8948E-12	768.398E-3	-36.1332E-3	-83.7423E-12	792.463E-3	-17.2314E-3
-2.18859E-3	-80.9996E-12	762.055E-3	-24.3233E-3	-83.9400E-12	788.470E-3	-26.1763E-3
-2.19360E-3	-81.4564E-12	754.880E-3	-16.1909E-3	-84.3645E-12	792.206E-3	-22.4728E-3
-2.19860E-3	-81.8844E-12	753.474E-3	-17.3966E-3	-84.4335E-12	789.903E-3	-21.5414E-3
-2.20360E-3	-82.5891E-12	766.712E-3	-22.2266E-3	-84.2337E-12	778.179E-3	-26.8738E-3
-2.20860E-3	-83.5366E-12	786.888E-3	-22.4410E-3	-84.1543E-12	760.678E-3	-26.6318E-3
-2.21361E-3	-83.8351E-12	797.304E-3	-10.8373E-3	-83.8790E-12	752.801E-3	-30.1152E-3
-2.21861E-3	-84.6453E-12	792.817E-3	-36.8480E-6	-83.5848E-12	754.124E-3	-35.4609E-3
-2.22361E-3	-85.2827E-12	769.136E-3	2.78977E-3	-83.7707E-12	740.555E-3	-32.6982E-3
-2.22861E-3	-86.1307E-12	750.373E-3	-2.88226E-3	-83.5896E-12	729.501E-3	-27.3456E-3
-2.23362E-3	-86.8108E-12	760.284E-3	-15.9164E-3	-83.3256E-12	723.828E-3	-24.0650E-3
-2.23862E-3	-87.5239E-12	783.474E-3	-12.7118E-3	-83.6382E-12	717.329E-3	-18.8611E-3
-2.24362E-3	-87.5859E-12	794.504E-3	-2.19617E-3	-83.9736E-12	729.479E-3	-12.6295E-3
-2.24862E-3	-87.5535E-12	789.888E-3	-9.80853E-3	-83.9712E-12	742.879E-3	-9.38919E-3
-2.25363E-3	-87.3898E-12	772.224E-3	-16.9542E-3	-84.5129E-12	739.251E-3	-12.1559E-3
-2.25863E-3	-87.4060E-12	745.928E-3	-14.2610E-3	-84.9374E-12	743.358E-3	-15.2609E-3
-2.26363E-3	-87.4202E-12	729.414E-3	-14.5623E-3	-85.7363E-12	765.470E-3	-17.1732E-3
-2.26863E-3	-86.4408E-12	728.159E-3	-16.7801E-3	-86.4697E-12	776.891E-3	-16.4970E-3
-2.27364E-3	-86.4901E-12	737.774E-3	-28.4118E-3	-86.8365E-12	770.260E-3	-12.6048E-3
-2.27864E-3	-86.7428E-12	753.368E-3	-36.2743E-3	-87.9903E-12	756.325E-3	-21.0051E-3
-2.28364E-3	-86.2501E-12	759.739E-3	-31.8612E-3	-88.8953E-12	741.706E-3	-24.0065E-3
-2.28864E-3	-86.3373E-12	755.154E-3	-39.9183E-3	-88.8586E-12	735.006E-3	-8.74506E-3
-2.29365E-3	-87.1518E-12	741.936E-3	-38.8758E-3	-89.8219E-12	742.975E-3	3.07172E-3
-2.29865E-3	-87.1758E-12	730.302E-3	-16.3094E-3	-90.3940E-12	750.136E-3	2.71967E-3
-2.30365E-3	-87.7107E-12	740.107E-3	-8.45719E-3	-89.8451E-12	737.833E-3	-1.42941E-3
-2.30865E-3	-88.6169E-12	751.572E-3	-11.9369E-3	-90.0929E-12	724.996E-3	-9.99609E-3
-2.31366E-3	-89.2041E-12	748.582E-3	-3.62246E-3	-90.1590E-12	720.252E-3	-21.9749E-3
-2.31866E-3	-89.0152E-12	744.693E-3	-200.414E-6	-89.4231E-12	723.402E-3	-29.2751E-3
-2.32366E-3	-89.8848E-12	738.037E-3	-15.0053E-3	-88.8286E-12	727.505E-3	-29.7456E-3
-2.32866E-3	-90.5930E-12	727.665E-3	-24.7057E-3	-88.5632E-12	718.255E-3	-28.2385E-3
-2.33367E-3	-90.3592E-12	730.027E-3	-32.2526E-3	-88.2994E-12	706.118E-3	-28.3297E-3
-2.33867E-3	-90.7679E-12	749.750E-3	-45.1341E-3	-88.3598E-12	707.063E-3	-28.2194E-3
-2.34367E-3	-90.8617E-12	772.185E-3	-46.5650E-3	-88.2514E-12	723.057E-3	-29.2455E-3
-2.34867E-3	-90.4355E-12	780.593E-3	-36.5818E-3	-88.6673E-12	739.555E-3	-17.8170E-3
-2.35368E-3	-89.9919E-12	765.267E-3	-26.3117E-3	-89.0567E-12	744.415E-3	-2.62120E-3
-2.35868E-3	-90.4080E-12	740.080E-3	-19.0530E-3	-89.7025E-12	741.599E-3	-5.83013E-3
-2.36368E-3	-90.1571E-12	723.648E-3	-12.4210E-3	-90.7930E-12	745.855E-3	-16.3440E-3
-2.36868E-3	-89.8895E-12	732.670E-3	-14.7252E-3	-91.2549E-12	752.997E-3	-19.2492E-3
-2.37369E-3	-90.1175E-12	750.055E-3	-21.8403E-3	-92.4865E-12	747.899E-3	-13.0987E-3
-2.37869E-3	-90.2667E-12	736.284E-3	-17.3975E-3	-93.0627E-12	735.353E-3	516.445E-6
-2.38369E-3	-90.6111E-12	712.038E-3	-12.0304E-3	-93.7724E-12	730.952E-3	4.44549E-3
-2.38869E-3	-91.1926E-12	715.307E-3	-16.6431E-3	-94.1461E-12	734.498E-3	-10.7269E-3
-2.39370E-3	-91.7533E-12	732.959E-3	-25.1193E-3	-95.6499E-12	747.137E-3	-21.8433E-3
-2.39870E-3	-92.5393E-12	734.203E-3	-33.7009E-3	-95.7300E-12	761.291E-3	-28.3420E-3
-2.40370E-3	-92.6676E-12	723.110E-3	-31.6154E-3	-95.6325E-12	755.765E-3	-28.8753E-3
-2.40870E-3	-93.2077E-12	717.443E-3	-12.0573E-3	-95.9985E-12	743.584E-3	-24.7544E-3
-2.41371E-3	-94.2571E-12	719.546E-3	676.418E-6	-95.9151E-12	739.628E-3	-27.6947E-3
-2.41871E-3	-94.2169E-12	731.665E-3	-4.09017E-3	-95.2015E-12	741.459E-3	-21.9887E-3
-2.42371E-3	-94.4508E-12	739.069E-3	-7.26483E-3	-95.0664E-12	739.810E-3	-8.33585E-3
-2.42871E-3	-95.3122E-12	732.681E-3	-9.55119E-3	-94.5684E-12	731.416E-3	520.438E-6
-2.43372E-3	-95.3192E-12	741.355E-3	-17.5635E-3	-93.7702E-12	722.551E-3	-7.99184E-3
-2.43872E-3	-95.1989E-12	746.019E-3	-19.1154E-3	-93.6238E-12	711.367E-3	-23.4279E-3
-2.44372E-3	-95.1108E-12	733.472E-3	-16.7637E-3	-93.8227E-12	709.558E-3	-24.3438E-3
-2.44872E-3	-95.4005E-12	734.371E-3	-36.4644E-3	-93.4955E-12	718.738E-3	-33.2903E-3
-2.45373E-3	-95.6105E-12	734.515E-3	-47.2459E-3	-94.6442E-12	724.220E-3	-48.1786E-3
-2.45873E-3	-95.1493E-12	721.763E-3	-29.7490E-3	-94.7872E-12	727.692E-3	-36.8302E-3
-2.46373E-3	-95.3524E-12	716.099E-3	-18.2550E-3	-95.6110E-12	730.715E-3	-13.6541E-3
-2.46873E-3	-95.7625E-12	725.484E-3	-20.9034E-3	-96.4467E-12	741.824E-3	-17.2544E-3
-2.47374E-3	-96.1862E-12	731.886E-3	-23.3709E-3	-97.3757E-12	743.608E-3	-39.9052E-3
-2.47874E-3	-96.7318E-12	737.199E-3	-25.2620E-3	-98.6640E-12	730.279E-3	-48.2803E-3
-2.48374E-3	-96.9373E-12	747.120E-3	-31.1974E-3	-99.6139E-12	739.866E-3	-24.5238E-3
-2.48874E-3	-97.2332E-12	747.444E-3	-33.9304E-3	-99.9312E-12	751.918E-3	-5.42670E-3
-2.49375E-3	-98.4988E-12	736.002E-3	-32.8231E-3	-101.060E-12	735.583E-3	-29.6350E-3
-2.49875E-3	-98.1888E-12	722.992E-3	-23.5921E-3	-101.495E-12	724.823E-3	-52.3452E-3
-2.50375E-3	-98.3420E-12	720.705E-3	-12.6137E-3	-101.004E-12	729.592E-3	-44.6038E-3
-2.50875E-3	-98.9625E-12	736.115E-3	-7.11602E-3	-101.303E-12	733.177E-3	-28.2886E-3
-2.51376E-3	-99.4956E-12	757.589E-3	3.25148E-3	-101.254E-12	724.692E-3	-19.6568E-3
-2.51876E-3	-98.9114E-12	751.253E-3	3.36220E-3	-99.9222E-12	715.052E-3	-24.7905E-3
-2.52376E-3	-99.3484E-12	730.381E-3	-15.4072E-3	-99.0411E-12	718.937E-3	-26.0922E-3
-2.52876E-3	-100.130E-12	721.783E-3	-19.6918E-3	-99.4962E-12	715.558E-3	-16.8441E-3
-2.53377E-3	-99.8504E-12	716.793E-3	-11.9062E-3	-98.4143E-12	708.652E-3	-5.95989E-3
-2.53877E-3	-100.167E-12	716.645E-3	-8.29458E-3	-97.7061E-12	712.120E-3	-5.09947E-3
-2.54377E-3	-100.456E-12	726.258E-3	-968.811E-6	-97.9045E-12	714.268E-3	-19.1615E-3
-2.54877E-3	-100.586E-12	740.489E-3	-5.91155E-3	-98.2896E-12	718.515E-3	-2.84928E-3
-2.55378E-3	-100.612E-12	748.835E-3	-14.8073E-3	-97.9211E-12	720.704E-3	23.2596E-3
-2.55878E-3	-101.305E-12	742.152E-3	-1.29157E-3	-98.7963E-12	709.474E-3	7.33293E-3
-2.56378E-3	-101.516E-12	721.618E-3	-7.07127E-6	-99.9275E-12	708.160E-3	-7.80727E-3
-2.56878E-3	-101.378E-12	701.131E-3	-21.0324E-3	-100.894E-12	711.808E-3	-12.1465E-3
-2.57379E-3	-101.876E-12	704.698E-3	-23.4037E-3	-101.246E-12	716.330E-3	-19.4159E-3
-2.57879E-3	-101.874E-12	719.675E-3	-17.2558E-3	-102.494E-12	734.064E-3	-10.1960E-3
-2.58379E-3	-101.755E-12	718.636E-3	-21.0329E-3	-103.521E-12	746.553E-3	-8.88524E-3
-2.58879E-3	-102.549E-12	717.764E-3	-16.1691E-3	-104.272E-12	744.659E-3	-28.0022E-3
-2.59380E-3	-103.155E-12	709.910E-3	-6.99833E-3	-104.733E-12	733.431E-3	-23.5981E-3
-2.59880E-3	-102.260E-12	701.962E-3	-10.4851E-3	-105.732E-12	721.413E-3	5.99641E-3
-2.60380E-3	-102.812E-12	717.287E-3	-26.6407E-3	-105.483E-12	716.259E-3	9.43617E-3
-2.60880E-3	-103.909E-12	726.919E-3	-34.8531E-3	-105.417E-12	714.206E-3	-13.5300E-3
-2.61381E-3	-103.627E-12	725.327E-3	-25.0048E-3	-105.324E-12	708.944E-3	-24.4527E-3
-2.61881E-3	-103.831E-12	720.623E-3	-15.7032E-3	-105.645E-12	696.530E-3	-20.6240E-3
-2.62381E-3	-104.664E-12	711.265E-3	-10.0661E-3	-104.378E-12	697.470E-3	-25.3978E-3
-2.62881E-3	-104.642E-12	711.189E-3	-6.18817E-3	-103.881E-12	709.168E-3	-22.6938E-3
-2.63382E-3	-104.566E-12	716.566E-3	-3.78011E-3	-104.110E-12	696.719E-3	-7.32457E-3
-2.63882E-3	-105.413E-12	713.986E-3	-7.51911E-3	-103.089E-12	679.915E-3	-14.0481E-3
-2.64382E-3	-105.388E-12	701.686E-3	-10.5256E-3	-103.052E-12	675.660E-3	-25.1332E-3
-2.64882E-3	-105.556E-12	687.829E-3	-1.27891E-3	-103.580E-12	683.163E-3	-16.9338E-3
-2.65383E-3	-105.626E-12	692.706E-3	-5.16546E-3	-103.022E-12	695.304E-3	-13.8626E-3
-2.65883E-3	-106.552E-12	708.227E-3	-19.1412E-3	-103.145E-12	698.845E-3	-27.8471E-3
-2.66383E-3	-106.405E-12	707.568E-3	-19.1581E-3	-104.107E-12	698.368E-3	-36.9837E-3
-2.66883E-3	-105.955E-12	708.399E-3	-1.18866E-3	-104.550E-12	689.508E-3	-31.4712E-3
-2.67384E-3	-106.095E-12	722.674E-3	10.9787E-3	-104.965E-12	688.118E-3	-20.5699E-3
-2.67884E-3	-106.839E-12	718.969E-3	6.19572E-3	-105.978E-12	705.750E-3	-3.24411E-3
-2.68384E-3	-106.181E-12	694.524E-3	5.31374E-3	-106.876E-12	724.109E-3	7.26623E-3
-2.68884E-3	-106.244E-12	688.895E-3	-4.44845E-3	-107.836E-12	729.527E-3	-2.06675E-3
-2.69385E-3	-106.451E-12	699.265E-3	-13.3785E-3	-108.648E-12	714.020E-3	-11.9290E-3
-2.69885E-3	-106.738E-12	707.358E-3	-2.69096E-3	-109.385E-12	706.586E-3	-10.0595E-3
-2.70385E-3	-106.782E-12	721.737E-3	-3.89597E-3	-110.062E-12	716.560E-3	-1.10811E-3
-2.70885E-3	-107.016E-12	719.663E-3	-19.7933E-3	-110.220E-12	710.175E-3	6.03639E-3
-2.71386E-3	-107.210E-12	693.919E-3	-27.8531E-3	-110.513E-12	708.819E-3	2.97439E-3
-2.71886E-3	-107.520E-12	678.834E-3	-24.0957E-3	-110.647E-12	721.550E-3	-1.61999E-3
-2.72386E-3	-108.129E-12	690.070E-3	-7.01083E-3	-110.391E-12	712.994E-3	405.064E-6
-2.72886E-3	-108.808E-12	714.244E-3	12.4455E-3	-110.140E-12	703.987E-3	-1.57892E-3
-2.73387E-3	-109.098E-12	725.993E-3	10.0271E-3	-109.817E-12	715.013E-3	-13.6864E-3
-2.73887E-3	-109.660E-12	718.957E-3	-9.08073E-3	-109.581E-12	719.912E-3	-13.9703E-3
-2.74387E-3	-110.527E-12	705.426E-3	-16.3599E-3	-109.108E-12	703.467E-3	-3.35226E-3
-2.74887E-3	-110.798E-12	693.966E-3	-16.9035E-3	-109.432E-12	682.954E-3	-7.54379E-3
-2.75388E-3	-111.270E-12	688.730E-3	-15.5374E-3	-109.026E-12	689.306E-3	-19.9323E-3
-2.75888E-3	-111.201E-12	694.655E-3	7.85132E-3	-108.596E-12	714.583E-3	-38.3406E-3
-2.76388E-3	-111.553E-12	705.839E-3	18.2268E-3	-109.091E-12	713.178E-3	-55.6223E-3
-2.76888E-3	-111.615E-12	722.583E-3	-10.9610E-3	-109.291E-12	681.219E-3	-49.6187E-3
-2.77389E-3	-111.607E-12	739.206E-3	-42.0853E-3	-108.530E-12	665.441E-3	-32.0695E-3
-2.77889E-3	-111.062E-12	733.105E-3	-43.7218E-3	-110.173E-12	678.558E-3	-10.8398E-3
-2.78389E-3	-111.155E-12	713.608E-3	-19.1911E-3	-111.066E-12	697.608E-3	8.01118E-3
-2.78889E-3	-111.193E-12	699.957E-3	1.87366E-3	-111.178E-12	709.302E-3	12.1155E-3
-2.79390E-3	-110.737E-12	694.799E-3	3.76637E-3	-112.268E-12	706.545E-3	2.68980E-3
-2.79890E-3	-111.281E-12	699.240E-3	-12.3393E-3	-113.841E-12	705.046E-3	-7.20565E-3
-2.80390E-3	-110.915E-12	712.664E-3	-29.5961E-3	-113.820E-12	708.559E-3	-11.4623E-3
-2.80890E-3	-110.769E-12	720.242E-3	-24.9313E-3	-115.096E-12	711.784E-3	-17.0372E-3
-2.81391E-3	-111.220E-12	695.196E-3	-9.59290E-3	-115.437E-12	719.155E-3	-14.7351E-3
-2.81891E-3	-112.123E-12	672.514E-3	-5.95514E-3	-115.609E-12	715.195E-3	-11.2351E-3
-2.82391E-3	-112.341E-12	690.736E-3	-11.3916E-3	-116.002E-12	705.858E-3	-20.9301E-3
-2.82891E-3	-112.666E-12	713.468E-3	-19.3945E-3	-116.043E-12	698.084E-3	-24.5831E-3
-2.83392E-3	-114.420E-12	716.589E-3	-17.8727E-3	-115.620E-12	706.632E-3	-15.8861E-3
-2.83892E-3	-115.381E-12	716.570E-3	-4.24864E-3	-114.954E-12	729.029E-3	-12.8520E-3
-2.84392E-3	-115.508E-12	720.243E-3	-11.2469E-3	-114.389E-12	719.386E-3	-14.0716E-3
-2.84892E-3	-116.403E-12	727.529E-3	-34.0011E-3	-114.443E-12	696.141E-3	-18.6213E-3
-2.85393E-3	-117.231E-12	729.460E-3	-37.4659E-3	-113.891E-12	695.497E-3	-30.3869E-3
-2.85893E-3	-117.067E-12	715.201E-3	-29.6448E-3	-112.788E-12	694.321E-3	-31.1835E-3
-2.86393E-3	-117.330E-12	702.375E-3	-22.3179E-3	-112.469E-12	692.379E-3	-16.6005E-3
-2.86893E-3	-116.980E-12	692.767E-3	-6.31669E-3	-112.280E-12	694.916E-3	-11.6980E-3
-2.87394E-3	-116.834E-12	678.788E-3	-836.809E-6	-112.451E-12	692.431E-3	-9.60423E-3
-2.87894E-3	-117.189E-12	677.826E-3	-19.2645E-3	-112.859E-12	698.078E-3	-454.145E-6
-2.88394E-3	-117.144E-12	685.276E-3	-27.8143E-3	-113.295E-12	710.983E-3	-16.1878E-3
-2.88894E-3	-116.142E-12	687.030E-3	-23.5518E-3	-114.519E-12	715.949E-3	-39.5090E-3
-2.89395E-3	-116.177E-12	688.357E-3	-36.3502E-3	-115.740E-12	719.803E-3	-41.6571E-3
-2.89895E-3	-116.014E-12	696.949E-3	-45.2815E-3	-116.708E-12	714.864E-3	-38.1001E-3
-2.90395E-3	-115.978E-12	704.664E-3	-35.1893E-3	-117.563E-12	695.839E-3	-23.7271E-3
-2.90895E-3	-115.568E-12	701.637E-3	-31.8930E-3	-118.663E-12	699.545E-3	-7.90627E-3
-2.91396E-3	-115.875E-12	702.131E-3	-36.8291E-3	-120.812E-12	715.042E-3	-6.29971E-3
-2.91896E-3	-116.154E-12	702.352E-3	-25.7079E-3	-120.761E-12	710.600E-3	-13.3207E-3
-2.92396E-3	-116.695E-12	696.111E-3	-5.27149E-3	-121.671E-12	698.407E-3	-20.1973E-3
-2.92896E-3	-117.386E-12	695.727E-3	277.379E-6	-121.703E-12	689.522E-3	-23.0701E-3
-2.93397E-3	-118.314E-12	693.594E-3	-1.95897E-3	-121.894E-12	685.721E-3	-8.22672E-3
-2.93897E-3	-118.436E-12	689.501E-3	-13.7105E-3	-121.379E-12	686.896E-3	5.24678E-3
-2.94397E-3	-119.238E-12	699.135E-3	-23.9180E-3	-120.710E-12	698.399E-3	-9.35562E-3
-2.94897E-3	-120.175E-12	700.728E-3	-28.0022E-3	-120.186E-12	697.314E-3	-21.4173E-3
-2.95398E-3	-120.804E-12	691.949E-3	-39.7901E-3	-119.598E-12	679.814E-3	-17.0384E-3
-2.95898E-3	-120.660E-12	706.747E-3	-36.3046E-3	-118.917E-12	685.876E-3	-9.32526E-3
-2.96398E-3	-120.509E-12	724.957E-3	-25.8634E-3	-119.049E-12	691.918E-3	-3.03957E-3
-2.96898E-3	-121.449E-12	717.675E-3	-28.2586E-3	-117.747E-12	679.917E-3	2.62728E-3
-2.97399E-3	-121.719E-12	704.265E-3	-27.4465E-3	-117.601E-12	681.428E-3	10.6633E-3
-2.97899E-3	-121.223E-12	698.977E-3	-26.9627E-3	-117.845E-12	692.299E-3	10.4534E-3
-2.98399E-3	-121.508E-12	688.508E-3	-30.0207E-3	-118.037E-12	689.762E-3	-4.78170E-3
-2.98899E-3	-121.468E-12	689.210E-3	-37.5268E-3	-118.457E-12	679.422E-3	-25.5621E-3
-2.99400E-3	-121.853E-12	709.534E-3	-45.0703E-3	-120.392E-12	671.925E-3	-43.2447E-3
-2.99900E-3	-121.913E-12	720.457E-3	-35.5905E-3	-120.619E-12	667.884E-3	-45.2058E-3
-3.00400E-3	-121.313E-12	713.421E-3	-25.0650E-3	-121.208E-12	677.866E-3	-30.8537E-3
-3.00900E-3	-120.904E-12	701.238E-3	-15.8665E-3	-123.048E-12	690.543E-3	-35.8576E-3
-3.01401E-3	-121.528E-12	695.165E-3	-11.1631E-3	-124.325E-12	688.542E-3	-46.3577E-3
-3.01901E-3	-121.537E-12	687.319E-3	-19.7327E-3	-123.730E-12	692.397E-3	-43.1334E-3
-3.02401E-3	-121.827E-12	679.504E-3	-15.9886E-3	-125.785E-12	705.055E-3	-43.8258E-3
-3.02901E-3	-121.845E-12	673.353E-3	-1.23368E-3	-126.296E-12	713.868E-3	-39.8467E-3
-3.03402E-3	-122.929E-12	672.261E-3	1.09717E-3	-125.710E-12	726.871E-3	-25.6664E-3
-3.03902E-3	-122.560E-12	683.866E-3	-6.06606E-3	-125.474E-12	735.815E-3	-22.6103E-3
-3.04402E-3	-123.134E-12	680.033E-3	-16.7094E-3	-125.970E-12	719.144E-3	-40.9603E-3
-3.04902E-3	-124.034E-12	679.120E-3	-27.1026E-3	-124.730E-12	678.054E-3	-49.4925E-3
-3.05403E-3	-123.877E-12	702.216E-3	-24.6912E-3	-124.454E-12	657.910E-3	-28.9336E-3
-3.05903E-3	-123.737E-12	706.735E-3	-11.7100E-3	-123.575E-12	688.235E-3	-5.09220E-3
-3.06403E-3	-124.951E-12	696.475E-3	-5.60563E-3	-122.469E-12	711.504E-3	-1.05654E-3
-3.06903E-3	-125.079E-12	696.487E-3	-329.895E-6	-122.459E-12	688.070E-3	-10.2450E-3
-3.07404E-3	-125.570E-12	687.078E-3	1.27284E-3	-122.753E-12	664.942E-3	-28.5477E-3
-3.07904E-3	-125.957E-12	679.759E-3	-9.83169E-3	-121.583E-12	663.993E-3	-40.8538E-3
-3.08404E-3	-126.568E-12	697.179E-3	-14.9921E-3	-122.550E-12	665.802E-3	-38.0286E-3
-3.08904E-3	-126.371E-12	703.085E-3	-21.8314E-3	-123.229E-12	668.656E-3	-35.6557E-3
-3.09405E-3	-126.086E-12	680.979E-3	-48.0589E-3	-123.628E-12	671.070E-3	-23.2867E-3
-3.09905E-3	-126.102E-12	668.121E-3	-56.1813E-3	-124.180E-12	673.011E-3	-16.7494E-3
-3.10405E-3	-126.742E-12	673.531E-3	-15.3190E-3	-124.978E-12	668.158E-3	-26.7978E-3
-3.10905E-3	-126.355E-12	675.083E-3	19.3760E-3	-125.310E-12	662.201E-3	-26.1230E-3
-3.11406E-3	-126.377E-12	675.194E-3	3.92169E-3	-125.905E-12	678.251E-3	-15.7769E-3
-3.11906E-3	-126.102E-12	677.718E-3	-18.0120E-3	-127.094E-12	705.305E-3	-11.1194E-3
-3.12406E-3	-126.140E-12	679.553E-3	-16.0813E-3	-128.360E-12	710.737E-3	-16.9767E-3
-3.12906E-3	-126.563E-12	687.854E-3	-22.1725E-3	-128.607E-12	705.446E-3	-16.8567E-3
-3.13407E-3	-127.028E-12	707.595E-3	-40.2091E-3	-129.429E-12	704.925E-3	-16.9660E-3
-3.13907E-3	-127.175E-12	721.371E-3	-41.1215E-3	-130.065E-12	694.575E-3	-16.7200E-3
-3.14407E-3	-127.143E-12	706.460E-3	-29.6434E-3	-130.009E-12	689.109E-3	1.48057E-3
-3.14907E-3	-127.475E-12	694.423E-3	-18.0953E-3	-129.343E-12	698.335E-3	15.7855E-3
-3.15408E-3	-128.010E-12	690.652E-3	-11.4560E-3	-129.720E-12	709.536E-3	7.96913E-3
-3.15908E-3	-128.594E-12	672.188E-3	-10.2867E-3	-129.802E-12	717.865E-3	-1.30798E-3
-3.16408E-3	-129.121E-12	665.153E-3	-17.9335E-3	-129.539E-12	710.488E-3	620.021E-6
-3.16908E-3	-130.303E-12	681.242E-3	-36.9661E-3	-129.212E-12	693.186E-3	-2.32002E-3
-3.17409E-3	-130.588E-12	690.623E-3	-42.8084E-3	-129.489E-12	681.619E-3	-19.2549E-3
-3.17909E-3	-130.849E-12	676.292E-3	-21.1830E-3	-129.281E-12	681.577E-3	-37.5351E-3
-3.18409E-3	-131.802E-12	660.632E-3	2.86847E-3	-129.297E-12	688.169E-3	-34.2955E-3
-3.18909E-3	-131.928E-12	670.602E-3	8.73369E-3	-129.075E-12	689.487E-3	-22.2114E-3
-3.19410E-3	-131.250E-12	691.534E-3	-16.2181E-6	-129.376E-12	687.252E-3	-19.1913E-3
-3.19910E-3	-132.095E-12	704.550E-3	-3.15193E-3	-129.217E-12	679.986E-3	-12.2020E-3
-3.20410E-3	-133.676E-12	711.229E-3	4.81090E-3	-129.836E-12	666.044E-3	-13.8268E-3
-3.20910E-3	-131.677E-12	710.065E-3	9.28863E-3	-130.128E-12	663.856E-3	-24.4324E-3
-3.21411E-3	-130.986E-12	699.831E-3	5.62253E-3	-131.668E-12	679.559E-3	-21.4064E-3
-3.21911E-3	-133.385E-12	691.075E-3	2.85375E-3	-131.682E-12	699.631E-3	-18.6563E-3
-3.22411E-3	-132.628E-12	682.870E-3	2.17881E-3	-132.048E-12	709.089E-3	-22.7647E-3
-3.22911E-3	-131.289E-12	681.799E-3	5.31783E-3	-133.138E-12	712.372E-3	-25.5059E-3
-3.23412E-3	-132.145E-12	692.580E-3	8.27638E-3	-134.106E-12	711.182E-3	-24.4629E-3
-3.23912E-3	-132.369E-12	692.543E-3	-9.79163E-3	-134.852E-12	700.112E-3	-6.15206E-3
-3.24412E-3	-132.140E-12	682.610E-3	-22.4879E-3	-136.328E-12	693.979E-3	11.4177E-3
-3.24912E-3	-132.857E-12	685.626E-3	-11.6917E-3	-136.373E-12	680.760E-3	3.17453E-3
-3.25413E-3	-132.913E-12	702.191E-3	-14.6314E-3	-136.301E-12	656.954E-3	129.098E-6
-3.25913E-3	-133.005E-12	710.914E-3	-29.6595E-3	-136.895E-12	660.188E-3	11.3489E-3
-3.26413E-3	-134.451E-12	698.651E-3	-36.5071E-3	-136.233E-12	690.085E-3	9.35159E-3
-3.26913E-3	-134.185E-12	681.479E-3	-29.1610E-3	-135.776E-12	702.953E-3	-1.25750E-3
-3.27414E-3	-134.493E-12	679.516E-3	-1.13503E-3	-135.432E-12	691.719E-3	-5.70421E-3
-3.27914E-3	-136.061E-12	692.872E-3	20.1511E-3	-135.084E-12	675.724E-3	-18.1615E-3
-3.28414E-3	-136.293E-12	707.377E-3	11.1946E-3	-134.084E-12	661.554E-3	-37.7443E-3
-3.28914E-3	-135.775E-12	702.346E-3	-10.4841E-3	-134.301E-12	660.299E-3	-29.6856E-3
-3.29415E-3	-137.081E-12	695.380E-3	-26.5376E-3	-133.320E-12	678.513E-3	-4.42271E-3
-3.29915E-3	-137.243E-12	712.798E-3	-40.1221E-3	-133.591E-12	705.949E-3	-4.43240E-3
-3.30415E-3	-136.752E-12	710.401E-3	-41.3600E-3	-133.555E-12	722.597E-3	-20.3826E-3
-3.30915E-3	-137.770E-12	680.216E-3	-19.8851E-3	-134.057E-12	721.296E-3	-24.8054E-3
-3.31416E-3	-137.379E-12	673.021E-3	2.33964E-3	-134.115E-12	703.018E-3	-9.26718E-3
-3.31916E-3	-136.795E-12	684.186E-3	11.8113E-3	-135.125E-12	678.622E-3	1.34232E-3
-3.32416E-3	-136.893E-12	686.254E-3	6.05863E-3	-135.915E-12	670.967E-3	-944.075E-6
-3.32916E-3	-137.241E-12	686.745E-3	-16.7774E-3	-136.724E-12	670.902E-3	-8.67370E-3
-3.33417E-3	-136.240E-12	678.206E-3	-34.0169E-3	-138.103E-12	667.276E-3	-25.0512E-3
-3.33917E-3	-136.763E-12	659.967E-3	-22.5677E-3	-138.564E-12	670.805E-3	-22.3269E-3
-3.34417E-3	-137.546E-12	662.158E-3	1.95031E-3	-139.264E-12	667.961E-3	-6.62013E-3
-3.34917E-3	-136.710E-12	683.965E-3	18.9336E-3	-139.644E-12	651.205E-3	-1.86938E-3
-3.35418E-3	-137.774E-12	703.723E-3	18.4123E-3	-140.251E-12	639.184E-3	-8.00085E-3
-3.35918E-3	-138.716E-12	699.137E-3	3.48577E-3	-140.729E-12	641.217E-3	-21.2340E-3
-3.36418E-3	-137.277E-12	681.816E-3	-8.58049E-3	-139.956E-12	652.214E-3	-23.3890E-3
-3.36918E-3	-137.753E-12	670.369E-3	-18.7810E-3	-139.476E-12	662.293E-3	-22.3134E-3
-3.37419E-3	-139.388E-12	660.350E-3	-34.4203E-3	-138.671E-12	674.800E-3	-35.0278E-3
-3.37919E-3	-139.231E-12	663.176E-3	-45.8028E-3	-138.058E-12	696.895E-3	-39.9101E-3
-3.38419E-3	-139.204E-12	668.351E-3	-35.3176E-3	-137.565E-12	698.464E-3	-32.3885E-3
-3.38919E-3	-140.703E-12	670.470E-3	-14.2544E-3	-137.191E-12	672.691E-3	-19.4065E-3
-3.39420E-3	-141.114E-12	678.719E-3	1.94801E-3	-136.703E-12	664.440E-3	-9.01246E-3
-3.39920E-3	-140.488E-12	677.901E-3	5.60104E-3	-136.580E-12	668.386E-3	-2.85776E-3
-3.40420E-3	-140.456E-12	674.560E-3	-7.63402E-3	-137.333E-12	668.551E-3	2.63510E-3
-3.40920E-3	-141.391E-12	686.350E-3	-8.28763E-3	-137.144E-12	677.945E-3	-3.55465E-3
-3.41421E-3	-141.515E-12	688.715E-3	7.34215E-3	-138.113E-12	688.073E-3	-10.0988E-3
-3.41921E-3	-141.030E-12	677.320E-3	368.251E-6	-139.806E-12	690.941E-3	-2.40158E-3
-3.42421E-3	-140.606E-12	674.917E-3	-21.3401E-3	-141.535E-12	693.057E-3	376.700E-6
-3.42921E-3	-140.802E-12	690.811E-3	-13.8115E-3	-141.909E-12	696.148E-3	-11.7006E-3
-3.43422E-3	-141.126E-12	711.565E-3	664.752E-6	-142.985E-12	699.201E-3	-20.9321E-3
-3.43922E-3	-140.524E-12	707.798E-3	-8.03540E-3	-143.807E-12	690.188E-3	-23.0874E-3
-3.44422E-3	-140.322E-12	683.979E-3	-9.29008E-3	-144.489E-12	670.403E-3	-30.3493E-3
-3.44922E-3	-141.673E-12	662.273E-3	3.89115E-3	-144.958E-12	661.020E-3	-27.5804E-3
-3.45423E-3	-142.070E-12	669.740E-3	6.65454E-3	-145.716E-12	658.726E-3	-20.0926E-3
-3.45923E-3	-142.285E-12	693.890E-3	9.29476E-3	-145.078E-12	662.945E-3	-26.2026E-3
-3.46423E-3	-143.643E-12	706.427E-3	16.8500E-3	-145.273E-12	679.595E-3	-36.5505E-3
-3.46923E-3	-144.264E-12	706.542E-3	10.7969E-3	-144.996E-12	687.006E-3	-36.4484E-3
-3.47424E-3	-144.104E-12	693.923E-3	-9.30702E-3	-143.889E-12	669.075E-3	-21.1836E-3
-3.47924E-3	-143.875E-12	682.640E-3	-20.0513E-3	-143.388E-12	651.484E-3	-7.72859E-3
-3.48424E-3	-144.008E-12	676.861E-3	-9.20078E-3	-142.853E-12	661.558E-3	1.16732E-3
-3.48924E-3	-144.751E-12	658.380E-3	-1.66943E-3	-142.489E-12	675.305E-3	9.66305E-3
-3.49425E-3	-144.856E-12	636.560E-3	-12.0502E-3	-142.429E-12	667.195E-3	13.2495E-3
-3.49925E-3	-144.837E-12	645.831E-3	-31.0264E-3	-141.658E-12	646.843E-3	-2.58595E-3
-3.50425E-3	-145.094E-12	668.813E-3	-32.5634E-3	-142.730E-12	646.405E-3	-18.2086E-3
-3.50925E-3	-145.128E-12	674.021E-3	-8.82750E-3	-143.729E-12	666.964E-3	-2.26354E-3
-3.51426E-3	-144.951E-12	672.173E-3	4.94692E-3	-143.305E-12	685.834E-3	8.71302E-3
-3.51926E-3	-145.345E-12	670.296E-3	9.93361E-3	-144.258E-12	701.222E-3	-1.70782E-3
-3.52426E-3	-144.574E-12	674.106E-3	18.2789E-3	-145.381E-12	708.129E-3	3.64573E-3
-3.52926E-3	-144.743E-12	681.276E-3	2.70065E-3	-146.492E-12	706.144E-3	12.0916E-3
-3.53427E-3	-144.898E-12	680.631E-3	-16.8937E-3	-147.389E-12	693.918E-3	5.21753E-3
-3.53927E-3	-144.826E-12	673.599E-3	-13.6352E-3	-147.746E-12	665.807E-3	12.8135E-3
-3.54427E-3	-145.560E-12	664.213E-3	-9.53040E-3	-149.046E-12	649.617E-3	22.8276E-3
-3.54927E-3	-146.280E-12	663.828E-3	-12.4647E-3	-149.521E-12	666.306E-3	9.18615E-3
-3.55428E-3	-147.524E-12	679.839E-3	-9.37926E-3	-149.878E-12	682.076E-3	1.21264E-3
-3.55928E-3	-147.946E-12	707.912E-3	-10.9366E-3	-148.969E-12	679.019E-3	-544.992E-6
-3.56428E-3	-148.867E-12	732.391E-3	-27.8241E-3	-149.970E-12	684.796E-3	-16.2580E-3
-3.56928E-3	-149.329E-12	723.315E-3	-35.4075E-3	-149.668E-12	699.106E-3	-23.0445E-3
-3.57429E-3	-148.920E-12	696.617E-3	-16.0410E-3	-148.719E-12	689.905E-3	-11.2162E-3
-3.57929E-3	-148.144E-12	688.952E-3	-5.12608E-3	-148.353E-12	668.110E-3	-12.3477E-3
-3.58429E-3	-149.053E-12	690.643E-3	-22.5885E-3	-147.756E-12	669.703E-3	-16.3762E-3
-3.58929E-3	-149.166E-12	698.360E-3	-23.6304E-3	-147.010E-12	686.475E-3	-45.5320E-6
-3.59430E-3	-148.565E-12	706.544E-3	-11.4402E-3	-147.007E-12	692.392E-3	-1.89026E-3
-3.59930E-3	-148.764E-12	687.664E-3	-5.69634E-3	-146.251E-12	681.303E-3	-25.1782E-3
-3.60430E-3	-148.360E-12	659.959E-3	13.8285E-3	-145.883E-12	669.096E-3	-31.6706E-3
-3.60930E-3	-148.126E-12	651.022E-3	33.7073E-3	-146.946E-12	665.317E-3	-30.1381E-3
-3.61431E-3	-147.816E-12	649.353E-3	28.7753E-3	-146.117E-12	668.310E-3	-35.6553E-3
-3.61931E-3	-148.422E-12	667.552E-3	8.51160E-3	-146.595E-12	687.765E-3	-26.4957E-3
-3.62431E-3	-148.308E-12	691.045E-3	-4.89800E-3	-147.551E-12	706.065E-3	-20.5582E-3
-3.62931E-3	-148.187E-12	676.002E-3	-15.5178E-3	-149.157E-12	691.456E-3	-22.1355E-3
-3.63432E-3	-148.461E-12	650.351E-3	-25.0691E-3	-149.933E-12	653.392E-3	-19.6656E-3
-3.63932E-3	-148.650E-12	643.317E-3	-13.6278E-3	-151.471E-12	641.967E-3	-33.5045E-3
-3.64432E-3	-150.069E-12	644.891E-3	6.47053E-3	-152.394E-12	654.749E-3	-38.7937E-3
-3.64932E-3	-150.978E-12	654.897E-3	9.48002E-3	-152.731E-12	659.141E-3	-28.4059E-3
-3.65433E-3	-150.660E-12	670.434E-3	5.42913E-3	-153.765E-12	673.871E-3	-38.0514E-3
-3.65933E-3	-151.789E-12	668.109E-3	2.76062E-3	-153.751E-12	680.580E-3	-56.2049E-3
-3.66433E-3	-152.891E-12	663.496E-3	4.78940E-3	-153.990E-12	664.552E-3	-60.0600E-3
-3.66933E-3	-152.685E-12	676.689E-3	6.85157E-3	-154.110E-12	667.151E-3	-61.2485E-3
-3.67434E-3	-152.318E-12	681.520E-3	-5.04306E-3	-153.972E-12	682.427E-3	-48.5654E-3
-3.67934E-3	-152.715E-12	663.660E-3	-14.9490E-3	-153.705E-12	688.994E-3	-14.6339E-3
-3.68434E-3	-153.549E-12	641.608E-3	-5.78328E-3	-154.116E-12	690.845E-3	12.7727E-3
-3.68934E-3	-153.247E-12	644.477E-3	-4.87184E-3	-152.980E-12	676.407E-3	10.2383E-3
-3.69435E-3	-153.417E-12	657.068E-3	-21.1760E-3	-152.653E-12	646.789E-3	-7.19685E-3
-3.69935E-3	-154.207E-12	658.332E-3	-33.7859E-3	-152.094E-12	631.827E-3	-7.94553E-3
-3.70435E-3	-154.311E-12	658.975E-3	-30.8848E-3	-151.666E-12	646.438E-3	-11.0986E-3
-3.70935E-3	-153.586E-12	664.663E-3	-9.01705E-3	-152.076E-12	655.822E-3	-25.3000E-3
-3.71436E-3	-154.591E-12	664.741E-3	-13.1215E-3	-150.759E-12	651.434E-3	-40.8867E-3
-3.71936E-3	-155.470E-12	671.626E-3	-40.6207E-3	-151.736E-12	655.146E-3	-53.3480E-3
-3.72436E-3	-155.012E-12	691.131E-3	-41.6697E-3	-152.178E-12	656.879E-3	-54.7653E-3
-3.72936E-3	-155.078E-12	682.326E-3	-22.4173E-3	-152.133E-12	655.663E-3	-55.7441E-3
-3.73437E-3	-155.755E-12	663.411E-3	2.82288E-3	-152.747E-12	670.637E-3	-42.6383E-3
-3.73937E-3	-156.166E-12	682.362E-3	21.6326E-3	-154.651E-12	695.196E-3	-21.4147E-3
-3.74437E-3	-156.810E-12	698.294E-3	25.5955E-3	-156.073E-12	701.096E-3	-15.6134E-3
-3.74937E-3	-156.662E-12	690.554E-3	21.1157E-3	-157.171E-12	686.313E-3	-22.8243E-3
-3.75438E-3	-156.107E-12	690.382E-3	-718.436E-6	-159.102E-12	670.010E-3	-30.7356E-3
-3.75938E-3	-156.856E-12	682.427E-3	-25.7361E-3	-159.426E-12	677.683E-3	-25.1225E-3
-3.76438E-3	-156.991E-12	670.564E-3	-35.3941E-3	-160.177E-12	706.559E-3	-12.5317E-3
-3.76938E-3	-156.037E-12	674.801E-3	-32.3585E-3	-161.283E-12	724.382E-3	-17.9881E-3
-3.77439E-3	-156.616E-12	673.205E-3	-10.3020E-3	-160.741E-12	718.816E-3	-31.9388E-3
-3.77939E-3	-157.544E-12	665.088E-3	-2.34058E-3	-160.909E-12	696.675E-3	-3.33962E-3
-3.78439E-3	-157.017E-12	664.033E-3	-20.0585E-3	-160.347E-12	684.032E-3	21.9718E-3
-3.78939E-3	-157.045E-12	677.122E-3	-31.4970E-3	-158.558E-12	676.170E-3	448.635E-6
-3.79440E-3	-158.194E-12	697.363E-3	-18.2496E-3	-158.337E-12	661.537E-3	-14.1137E-3
-3.79940E-3	-158.642E-12	701.681E-3	-3.94574E-3	-157.764E-12	649.643E-3	-22.6556E-3
-3.80440E-3	-158.756E-12	689.297E-3	-14.6223E-3	-156.157E-12	656.124E-3	-36.0346E-3
-3.80940E-3	-158.862E-12	671.755E-3	-26.7040E-3	-155.506E-12	673.985E-3	-38.2647E-3
-3.81441E-3	-159.275E-12	664.174E-3	-24.6227E-3	-155.526E-12	665.962E-3	-33.1111E-3
-3.81941E-3	-159.353E-12	673.810E-3	-9.69792E-3	-154.683E-12	653.023E-3	-26.0728E-3
-3.82441E-3	-160.174E-12	682.794E-3	322.125E-6	-155.012E-12	662.928E-3	-26.8747E-3
-3.82941E-3	-159.543E-12	681.269E-3	-4.70853E-3	-155.960E-12	682.452E-3	-30.0261E-3
-3.83442E-3	-158.851E-12	678.329E-3	-3.08612E-3	-156.307E-12	686.773E-3	-37.5069E-3
-3.83942E-3	-159.711E-12	673.804E-3	641.340E-6	-158.008E-12	674.069E-3	-42.5883E-3
-3.84442E-3	-159.068E-12	660.487E-3	-15.2099E-3	-159.492E-12	671.395E-3	-22.6573E-3
-3.84942E-3	-158.068E-12	640.256E-3	-23.5711E-3	-159.311E-12	684.366E-3	-84.9952E-6
-3.85443E-3	-158.052E-12	627.665E-3	-13.0196E-3	-161.793E-12	690.018E-3	3.91719E-3
-3.85943E-3	-158.354E-12	621.212E-3	98.1268E-6	-162.896E-12	685.027E-3	-17.5217E-3
-3.86443E-3	-158.267E-12	626.162E-3	16.3090E-3	-163.166E-12	676.371E-3	-46.9683E-3
-3.86943E-3	-158.095E-12	653.231E-3	23.5434E-3	-164.276E-12	670.532E-3	-36.4567E-3
-3.87444E-3	-158.404E-12	676.373E-3	24.6967E-3	-166.016E-12	681.955E-3	-8.52761E-3
-3.87944E-3	-160.419E-12	677.688E-3	17.1702E-3	-164.881E-12	675.880E-3	-8.11880E-3
-3.88444E-3	-161.165E-12	660.043E-3	-4.53053E-3	-163.988E-12	651.078E-3	-6.77377E-3
-3.88944E-3	-161.224E-12	642.701E-3	-19.4981E-3	-164.112E-12	654.219E-3	-9.68205E-3
-3.89445E-3	-162.833E-12	650.537E-3	-26.4091E-3	-162.599E-12	663.847E-3	-19.4256E-3
-3.89945E-3	-164.175E-12	665.778E-3	-33.7966E-3	-161.707E-12	651.923E-3	-6.15926E-3
-3.90445E-3	-163.624E-12	662.532E-3	-21.7682E-3	-161.078E-12	635.244E-3	-6.82188E-3
-3.90945E-3	-163.955E-12	673.234E-3	3.46967E-3	-159.798E-12	617.958E-3	-24.2424E-3
-3.91446E-3	-164.943E-12	689.594E-3	-470.860E-6	-159.480E-12	622.490E-3	-30.6982E-3
-3.91946E-3	-165.423E-12	688.008E-3	-27.9880E-3	-160.261E-12	653.121E-3	-41.8205E-3
-3.92446E-3	-163.790E-12	697.070E-3	-37.7180E-3	-159.736E-12	666.514E-3	-34.0561E-3
-3.92946E-3	-164.175E-12	705.529E-3	-26.0715E-3	-159.930E-12	665.651E-3	289.577E-6
-3.93447E-3	-164.222E-12	701.496E-3	-20.9866E-3	-161.229E-12	676.455E-3	9.23784E-3
-3.93947E-3	-163.087E-12	694.325E-3	-28.3070E-3	-161.977E-12	679.234E-3	2.86222E-3
-3.94447E-3	-162.397E-12	686.308E-3	-32.1847E-3	-162.986E-12	684.290E-3	6.81723E-3
-3.94947E-3	-162.933E-12	678.851E-3	-27.2255E-3	-165.393E-12	701.366E-3	-12.7390E-3
-3.95448E-3	-162.299E-12	666.026E-3	-16.7399E-3	-166.285E-12	699.702E-3	-37.0893E-3
-3.95948E-3	-162.717E-12	662.037E-3	-11.7803E-3	-167.329E-12	689.116E-3	-19.3883E-3
-3.96448E-3	-163.385E-12	668.707E-3	-13.7000E-3	-169.429E-12	669.708E-3	-1.85857E-3
-3.96948E-3	-164.121E-12	668.226E-3	-10.6919E-3	-169.323E-12	652.674E-3	-16.9682E-3
-3.97449E-3	-165.133E-12	667.304E-3	-13.4333E-3	-168.908E-12	649.191E-3	-31.1714E-3
-3.97949E-3	-166.676E-12	665.153E-3	-18.0953E-3	-169.984E-12	653.234E-3	-21.8581E-3
-3.98449E-3	-167.480E-12	664.667E-3	-12.9211E-3	-169.939E-12	666.397E-3	-2.28352E-3
-3.98949E-3	-168.167E-12	672.225E-3	-3.12772E-3	-169.059E-12	676.936E-3	-3.13721E-3
-3.99450E-3	-170.563E-12	668.331E-3	7.83059E-3	-170.039E-12	677.880E-3	-15.3195E-3
-3.99950E-3	-170.581E-12	660.235E-3	-2.93890E-3	-169.380E-12	665.296E-3	-17.9927E-3
-4.00450E-3	-169.718E-12	668.856E-3	-19.9286E-3	-168.554E-12	668.294E-3	-12.9545E-3
-4.00950E-3	-171.216E-12	674.338E-3	-18.0220E-3	-168.810E-12	696.080E-3	2.56388E-3
-4.01451E-3	-171.311E-12	659.376E-3	-13.9843E-3	-167.152E-12	691.271E-3	-8.52833E-3
-4.01951E-3	-169.921E-12	645.957E-3	-7.22125E-3	-166.761E-12	658.816E-3	-46.8507E-3
-4.02451E-3	-169.598E-12	635.163E-3	-79.8694E-6	-166.115E-12	648.363E-3	-47.7729E-3
-4.02951E-3	-170.569E-12	624.811E-3	-4.25674E-3	-166.954E-12	650.935E-3	-21.7529E-3
-4.03452E-3	-168.572E-12	624.238E-3	1.75904E-3	-166.508E-12	657.210E-3	-12.5523E-3
-4.03952E-3	-167.544E-12	630.100E-3	14.0783E-3	-166.676E-12	661.271E-3	-8.00418E-3
-4.04452E-3	-168.304E-12	636.586E-3	6.67738E-3	-168.048E-12	656.146E-3	-18.0541E-3
-4.04952E-3	-167.707E-12	648.749E-3	6.70227E-3	-169.356E-12	659.588E-3	-31.5373E-3
-4.05453E-3	-166.992E-12	658.628E-3	20.6939E-3	-169.829E-12	669.005E-3	-13.3520E-3
-4.05953E-3	-167.492E-12	648.537E-3	26.9597E-3	-169.491E-12	681.032E-3	-4.74899E-3
-4.06453E-3	-167.826E-12	640.168E-3	16.9693E-3	-170.946E-12	676.476E-3	-7.48656E-3
-4.06953E-3	-167.610E-12	648.189E-3	-11.1723E-3	-172.314E-12	655.393E-3	7.31534E-3
-4.07454E-3	-168.807E-12	662.693E-3	-33.2493E-3	-173.064E-12	664.090E-3	10.2237E-3
-4.07954E-3	-169.818E-12	675.849E-3	-28.2219E-3	-172.966E-12	686.742E-3	-2.96115E-3
-4.08454E-3	-169.947E-12	691.388E-3	-16.0016E-3	-173.721E-12	686.117E-3	7.15870E-3
-4.08954E-3	-170.704E-12	698.108E-3	-18.8566E-3	-174.272E-12	688.649E-3	16.4577E-3
-4.09455E-3	-171.465E-12	688.368E-3	-36.5636E-3	-173.880E-12	698.864E-3	-16.9138E-3
-4.09955E-3	-171.387E-12	694.238E-3	-36.7887E-3	-174.337E-12	688.548E-3	-41.3568E-3
-4.10455E-3	-172.138E-12	691.433E-3	-14.8085E-3	-174.764E-12	671.689E-3	-30.9170E-3
-4.10955E-3	-172.026E-12	665.911E-3	-14.3110E-3	-173.148E-12	660.194E-3	-22.3344E-3
-4.11456E-3	-172.158E-12	660.547E-3	-26.1021E-3	-171.902E-12	653.675E-3	-23.4648E-3
-4.11956E-3	-172.676E-12	662.922E-3	-22.1817E-3	-172.009E-12	665.617E-3	-15.5655E-3
-4.12456E-3	-171.800E-12	671.999E-3	-29.1601E-3	-171.125E-12	674.029E-3	3.69476E-3
-4.12956E-3	-171.516E-12	691.453E-3	-41.2187E-3	-169.753E-12	656.280E-3	10.9311E-3
-4.13457E-3	-171.715E-12	687.527E-3	-29.1144E-3	-170.293E-12	632.911E-3	16.1457E-3
-4.13957E-3	-171.224E-12	669.326E-3	-19.4812E-3	-170.014E-12	641.863E-3	17.5370E-3
-4.14457E-3	-172.132E-12	668.804E-3	-17.9973E-3	-169.271E-12	658.926E-3	-1.25148E-3
-4.14957E-3	-172.591E-12	681.610E-3	-16.0967E-3	-169.241E-12	644.485E-3	-10.6276E-3
-4.15458E-3	-172.931E-12	678.172E-3	-25.1843E-3	-170.661E-12	628.415E-3	-13.0893E-3
-4.15958E-3	-172.627E-12	659.093E-3	-19.4092E-3	-171.061E-12	630.097E-3	-21.6289E-3
-4.16458E-3	-173.139E-12	663.799E-3	1.28300E-3	-172.167E-12	644.864E-3	-24.9583E-3
-4.16958E-3	-173.891E-12	680.366E-3	14.1706E-3	-173.477E-12	665.309E-3	-23.5908E-3
-4.17459E-3	-173.515E-12	672.665E-3	4.05327E-3	-174.930E-12	676.368E-3	-22.7591E-3
-4.17959E-3	-173.376E-12	655.378E-3	-16.6180E-3	-176.396E-12	680.217E-3	-27.0910E-3
-4.18459E-3	-173.821E-12	648.001E-3	-11.7865E-3	-177.556E-12	687.273E-3	-21.9815E-3
-4.18959E-3	-174.843E-12	648.455E-3	-771.023E-6	-177.533E-12	702.193E-3	-7.81047E-3
-4.19460E-3	-174.780E-12	641.414E-3	-8.65020E-3	-178.224E-12	698.181E-3	-5.20680E-3
-4.19960E-3	-175.033E-12	637.419E-3	-32.1144E-3	-177.795E-12	655.004E-3	-21.3314E-3
-4.20460E-3	-175.677E-12	642.884E-3	-49.9777E-3	-177.066E-12	621.988E-3	-21.8920E-3
-4.20960E-3	-176.858E-12	643.936E-3	-56.7286E-3	-176.347E-12	638.854E-3	4.92019E-3
-4.21461E-3	-176.678E-12	639.380E-3	-46.2868E-3	-175.986E-12	672.188E-3	16.2840E-3
-4.21961E-3	-177.455E-12	657.453E-3	-17.7950E-3	-175.014E-12	676.307E-3	369.724E-6
-4.22461E-3	-179.838E-12	689.711E-3	-9.22285E-3	-174.226E-12	660.757E-3	-17.0828E-3
-4.22961E-3	-179.690E-12	682.668E-3	-29.7987E-3	-173.541E-12	667.602E-3	-33.9436E-3
-4.23462E-3	-179.117E-12	674.361E-3	-47.5885E-3	-172.044E-12	683.920E-3	-47.1696E-3
-4.23962E-3	-180.834E-12	685.664E-3	-34.4591E-3	-172.349E-12	688.314E-3	-27.7841E-3
-4.24462E-3	-180.711E-12	687.239E-3	-6.61578E-3	-173.872E-12	686.912E-3	-6.09345E-3
-4.24962E-3	-179.910E-12	678.239E-3	2.03912E-3	-172.562E-12	671.915E-3	-18.6285E-3
-4.25463E-3	-180.299E-12	639.790E-3	-8.25675E-3	-174.738E-12	677.317E-3	-43.2870E-3
-4.25963E-3	-180.279E-12	610.735E-3	-18.9759E-3	-176.526E-12	714.783E-3	-52.0822E-3
-4.26463E-3	-179.139E-12	618.108E-3	-31.7255E-3	-177.933E-12	708.981E-3	-32.2029E-3
-4.26963E-3	-178.692E-12	628.685E-3	-61.3772E-3	-179.634E-12	657.361E-3	-12.7078E-3
-4.27464E-3	-178.240E-12	651.372E-3	-86.9040E-3	-181.202E-12	654.463E-3	-19.4288E-3
-4.27964E-3	-178.120E-12	675.596E-3	-58.0238E-3	-182.378E-12	681.937E-3	-28.0048E-3
-4.28464E-3	-177.828E-12	681.639E-3	-2.18450E-3	-183.545E-12	675.775E-3	-29.6200E-3
-4.28964E-3	-177.127E-12	692.226E-3	-3.14478E-3	-184.370E-12	662.700E-3	-36.6644E-3
-4.29465E-3	-178.179E-12	702.107E-3	-25.3145E-3	-185.854E-12	659.510E-3	-47.0676E-3
-4.29965E-3	-179.159E-12	686.997E-3	-23.7762E-3	-184.828E-12	669.357E-3	-58.9292E-3
-4.30465E-3	-178.724E-12	668.006E-3	-20.2304E-3	-184.334E-12	686.514E-3	-56.9011E-3
-4.30965E-3	-180.363E-12	660.010E-3	-11.7868E-3	-184.710E-12	689.279E-3	-28.1261E-3
-4.31466E-3	-181.871E-12	657.061E-3	-10.3666E-3	-184.001E-12	677.659E-3	3.13969E-3
-4.31966E-3	-182.654E-12	655.936E-3	-23.9248E-3	-182.908E-12	666.651E-3	2.09846E-3
-4.32466E-3	-184.814E-12	655.013E-3	-29.1929E-3	-182.491E-12	661.001E-3	-29.8860E-3
-4.32966E-3	-186.837E-12	661.505E-3	-18.5530E-3	-180.578E-12	645.096E-3	-42.9547E-3
-4.33467E-3	-186.336E-12	656.123E-3	-29.9682E-3	-179.981E-12	639.201E-3	-28.6553E-3
-4.33967E-3	-186.683E-12	649.538E-3	-56.4418E-3	-179.627E-12	650.381E-3	-21.2708E-3
-4.34467E-3	-187.215E-12	663.222E-3	-51.3602E-3	-180.351E-12	636.449E-3	-28.8595E-3
-4.34967E-3	-186.527E-12	662.723E-3	-40.3759E-3	-180.369E-12	623.035E-3	-38.2832E-3
-4.35468E-3	-184.508E-12	662.019E-3	-38.6533E-3	-180.423E-12	646.354E-3	-35.5921E-3
-4.35968E-3	-184.844E-12	676.118E-3	-27.6624E-3	-182.256E-12	666.855E-3	-25.7135E-3
-4.36468E-3	-183.124E-12	660.828E-3	-4.03168E-3	-183.310E-12	679.977E-3	-25.5188E-3
-4.36968E-3	-182.260E-12	637.811E-3	9.48963E-3	-184.453E-12	699.274E-3	-36.6512E-3
-4.37469E-3	-181.167E-12	654.475E-3	12.5020E-3	-185.143E-12	703.036E-3	-29.8423E-3
-4.37969E-3	-181.065E-12	682.434E-3	7.13514E-3	-187.784E-12	690.289E-3	-7.42926E-3
-4.38469E-3	-180.020E-12	693.512E-3	-21.3767E-3	-188.486E-12	670.564E-3	-10.9397E-3
-4.38969E-3	-180.661E-12	692.268E-3	-37.4523E-3	-188.512E-12	643.615E-3	-28.1376E-3
-4.39470E-3	-180.272E-12	675.854E-3	-22.5062E-3	-188.735E-12	652.331E-3	-20.9591E-3
-4.39970E-3	-181.426E-12	672.740E-3	-5.31771E-3	-189.677E-12	694.764E-3	-12.3671E-3
-4.40470E-3	-181.564E-12	681.179E-3	-2.00458E-3	-188.372E-12	707.898E-3	-23.9628E-3
-4.40970E-3	-182.801E-12	660.568E-3	5.76542E-3	-189.167E-12	693.260E-3	-29.8315E-3
-4.41471E-3	-185.066E-12	644.990E-3	-3.75280E-3	-188.979E-12	676.392E-3	-22.3857E-3
-4.41971E-3	-186.377E-12	660.863E-3	-53.7183E-3	-186.692E-12	659.023E-3	-17.0296E-3
-4.42471E-3	-186.712E-12	664.881E-3	-64.7938E-3	-185.516E-12	644.324E-3	-17.2521E-3
-4.42971E-3	-187.769E-12	640.256E-3	-31.8034E-3	-186.053E-12	635.981E-3	-19.0251E-3
-4.43472E-3	-188.491E-12	641.788E-3	-31.9717E-3	-184.553E-12	636.029E-3	-14.2223E-3
-4.43972E-3	-187.350E-12	679.582E-3	-46.4522E-3	-183.830E-12	618.217E-3	-8.31272E-3
-4.44472E-3	-187.305E-12	686.443E-3	-49.7591E-3	-183.474E-12	604.958E-3	-16.7861E-3
-4.44972E-3	-187.490E-12	669.410E-3	-46.3079E-3	-183.691E-12	649.856E-3	-6.31117E-3
-4.45473E-3	-187.313E-12	668.987E-3	-37.3248E-3	-184.118E-12	684.481E-3	12.3993E-3
-4.45973E-3	-186.571E-12	659.217E-3	-30.8109E-3	-183.682E-12	661.012E-3	-11.9089E-3
-4.46473E-3	-186.410E-12	649.781E-3	-33.6575E-3	-184.907E-12	636.801E-3	-40.8049E-3
-4.46973E-3	-186.357E-12	661.914E-3	-34.1121E-3	-186.263E-12	649.690E-3	-49.0636E-3
-4.47474E-3	-185.597E-12	658.245E-3	-8.98002E-3	-185.802E-12	665.169E-3	-45.5566E-3
-4.47974E-3	-184.966E-12	649.302E-3	-764.300E-6	-186.289E-12	662.866E-3	-34.7082E-3
-4.48474E-3	-185.093E-12	650.543E-3	-11.0940E-3	-187.786E-12	670.934E-3	-25.0536E-3
-4.48974E-3	-185.721E-12	647.979E-3	-5.43908E-3	-190.023E-12	688.998E-3	-23.7093E-3
-4.49475E-3	-186.755E-12	639.503E-3	-22.2733E-3	-190.315E-12	691.538E-3	-41.0801E-3
-4.49975E-3	-186.788E-12	632.247E-3	-53.7834E-3	-191.299E-12	679.496E-3	-37.9599E-3
-4.50475E-3	-187.864E-12	632.830E-3	-62.3729E-3	-192.156E-12	663.769E-3	-20.8287E-3
-4.50975E-3	-189.692E-12	641.805E-3	-50.1968E-3	-192.608E-12	655.992E-3	-18.8463E-3
-4.51476E-3	-190.567E-12	665.451E-3	-32.3093E-3	-192.227E-12	663.659E-3	-11.4681E-3
-4.51976E-3	-190.185E-12	702.383E-3	-22.4826E-3	-193.248E-12	664.203E-3	-4.88896E-3
-4.52476E-3	-191.121E-12	709.391E-3	-26.9140E-3	-191.324E-12	650.952E-3	-1.70019E-3
-4.52976E-3	-192.476E-12	680.463E-3	-39.2910E-3	-192.035E-12	641.361E-3	-6.72008E-3
-4.53477E-3	-192.376E-12	657.716E-3	-36.2846E-3	-192.944E-12	642.511E-3	-12.2236E-3
-4.53977E-3	-193.624E-12	653.010E-3	-29.2017E-3	-191.060E-12	654.964E-3	-8.98724E-3
-4.54477E-3	-194.940E-12	662.028E-3	-19.2748E-3	-190.014E-12	669.569E-3	-7.94645E-3
-4.54977E-3	-193.547E-12	669.160E-3	14.5675E-3	-190.636E-12	676.245E-3	-3.09121E-3
-4.55478E-3	-193.345E-12	676.667E-3	25.3342E-3	-188.714E-12	662.101E-3	-4.64319E-3
-4.55978E-3	-194.491E-12	700.486E-3	1.06672E-3	-187.650E-12	655.544E-3	-7.46365E-3
-4.56478E-3	-193.157E-12	718.954E-3	-13.4924E-3	-188.583E-12	679.979E-3	302.725E-6
-4.56978E-3	-192.919E-12	715.726E-3	-11.0439E-3	-188.643E-12	691.242E-3	1.32915E-3
-4.57479E-3	-194.398E-12	713.821E-3	-13.6446E-3	-189.630E-12	672.718E-3	3.09975E-3
-4.57979E-3	-192.527E-12	705.147E-3	-32.0721E-3	-192.354E-12	653.654E-3	6.94423E-3
-4.58479E-3	-192.872E-12	678.873E-3	-29.0025E-3	-192.617E-12	660.214E-3	-16.9613E-3
-4.58979E-3	-193.617E-12	658.161E-3	-17.7146E-3	-193.341E-12	670.051E-3	-51.1987E-3
-4.59480E-3	-192.567E-12	651.125E-3	-23.2840E-3	-195.390E-12	664.588E-3	-39.7606E-3
-4.59980E-3	-192.045E-12	650.859E-3	-12.8457E-3	-197.167E-12	668.514E-3	-11.6222E-3
-4.60480E-3	-193.111E-12	656.962E-3	-3.82220E-3	-198.488E-12	675.630E-3	-15.3118E-3
-4.60980E-3	-193.298E-12	672.743E-3	-11.1729E-3	-198.604E-12	668.622E-3	-17.4159E-3
-4.61481E-3	-192.768E-12	687.864E-3	-14.8823E-3	-198.672E-12	665.604E-3	-12.7522E-3
-4.61981E-3	-194.037E-12	686.478E-3	-20.7574E-3	-199.347E-12	668.806E-3	-16.8851E-3
-4.62481E-3	-193.952E-12	685.856E-3	-25.6530E-3	-199.855E-12	683.604E-3	-11.3693E-3
-4.62981E-3	-194.689E-12	682.268E-3	-22.8114E-3	-198.652E-12	700.839E-3	-16.3389E-3
-4.63482E-3	-195.675E-12	681.715E-3	-12.1558E-3	-196.780E-12	693.765E-3	-29.8090E-3
-4.63982E-3	-195.717E-12	696.378E-3	1.78154E-3	-196.079E-12	688.689E-3	-14.4916E-3
-4.64482E-3	-196.636E-12	680.012E-3	-7.01720E-3	-195.718E-12	688.855E-3	8.72319E-3
-4.64982E-3	-197.373E-12	667.505E-3	-40.0550E-3	-193.592E-12	677.176E-3	16.0607E-3
-4.65483E-3	-197.318E-12	692.153E-3	-55.5059E-3	-192.452E-12	648.989E-3	4.40170E-3
-4.65983E-3	-197.832E-12	709.974E-3	-30.0738E-3	-193.527E-12	612.375E-3	-7.58536E-3
-4.66483E-3	-197.848E-12	704.040E-3	3.84828E-3	-192.758E-12	613.412E-3	-8.07365E-3
-4.66983E-3	-196.896E-12	678.725E-3	4.27839E-3	-193.153E-12	642.496E-3	-11.6300E-3
-4.67484E-3	-195.880E-12	672.947E-3	-1.96534E-3	-193.143E-12	641.054E-3	-21.2884E-3
-4.67984E-3	-196.546E-12	677.989E-3	13.7905E-3	-194.845E-12	631.132E-3	-38.8688E-3
-4.68484E-3	-196.121E-12	674.498E-3	13.6242E-3	-196.971E-12	652.798E-3	-61.8290E-3
-4.68984E-3	-195.833E-12	676.340E-3	-5.99129E-3	-197.814E-12	686.518E-3	-71.0277E-3
-4.69485E-3	-195.270E-12	685.027E-3	-2.97184E-3	-199.164E-12	705.223E-3	-56.6234E-3
-4.69985E-3	-195.285E-12	697.272E-3	9.04490E-3	-200.889E-12	684.080E-3	-35.9097E-3
-4.70485E-3	-195.387E-12	678.318E-3	-3.03855E-3	-203.188E-12	659.431E-3	-26.8047E-3
-4.70985E-3	-195.769E-12	651.251E-3	-34.5388E-3	-203.597E-12	671.067E-3	-20.4454E-3
-4.71486E-3	-194.893E-12	661.859E-3	-52.1486E-3	-204.300E-12	684.290E-3	-1.51265E-3
-4.71986E-3	-195.682E-12	661.821E-3	-37.6681E-3	-204.331E-12	686.743E-3	20.2788E-3
-4.72486E-3	-196.822E-12	648.105E-3	-33.0257E-3	-203.773E-12	681.100E-3	13.5847E-3
-4.72986E-3	-197.967E-12	665.158E-3	-36.6287E-3	-202.078E-12	642.673E-3	2.12712E-3
-4.73487E-3	-199.025E-12	682.040E-3	-27.6676E-3	-201.318E-12	612.821E-3	7.08670E-3
-4.73987E-3	-200.456E-12	665.613E-3	-35.7604E-3	-200.571E-12	649.961E-3	-6.67413E-3
-4.74487E-3	-202.103E-12	643.733E-3	-39.8589E-3	-199.001E-12	666.960E-3	-22.8510E-3
-4.74988E-3	-202.606E-12	643.507E-3	-14.7393E-3	-197.463E-12	645.627E-3	-22.4619E-3
-4.75488E-3	-203.123E-12	647.726E-3	-9.15657E-3	-197.070E-12	641.346E-3	-29.4598E-3
-4.75988E-3	-203.944E-12	666.533E-3	-28.8502E-3	-196.856E-12	624.957E-3	-42.2216E-3
-4.76488E-3	-204.742E-12	708.512E-3	-25.2822E-3	-196.670E-12	631.845E-3	-34.2921E-3
-4.76988E-3	-203.694E-12	718.074E-3	-20.5607E-3	-197.092E-12	669.167E-3	-27.1927E-3
-4.77489E-3	-204.045E-12	689.975E-3	-36.5155E-3	-197.694E-12	685.670E-3	-30.8486E-3
-4.77989E-3	-204.510E-12	659.780E-3	-34.7554E-3	-197.561E-12	689.984E-3	-21.6773E-3
-4.78489E-3	-203.583E-12	658.737E-3	-20.1620E-3	-200.021E-12	697.924E-3	-30.5668E-3
-4.78989E-3	-203.094E-12	671.298E-3	-34.4947E-3	-200.904E-12	698.218E-3	-51.0704E-3
-4.79490E-3	-202.427E-12	668.959E-3	-61.7162E-3	-202.578E-12	687.288E-3	-34.2344E-3
-4.79990E-3	-200.194E-12	672.394E-3	-56.7794E-3	-204.068E-12	688.216E-3	-4.18775E-3
-4.80490E-3	-200.329E-12	686.464E-3	-17.7372E-3	-206.574E-12	691.592E-3	-13.8880E-3
-4.80990E-3	-200.145E-12	694.183E-3	11.6626E-3	-206.266E-12	666.597E-3	-49.0624E-3
-4.81491E-3	-199.902E-12	690.308E-3	16.3163E-3	-207.755E-12	648.444E-3	-66.3660E-3
-4.81991E-3	-201.060E-12	670.210E-3	4.25044E-3	-208.139E-12	660.637E-3	-47.4498E-3
-4.82491E-3	-201.516E-12	640.068E-3	-19.5491E-3	-209.365E-12	673.727E-3	-8.34185E-3
-4.82991E-3	-202.415E-12	617.979E-3	-16.3185E-3	-208.025E-12	689.514E-3	3.20753E-3
-4.83492E-3	-204.110E-12	622.638E-3	711.922E-6	-208.270E-12	703.525E-3	-15.8059E-3
-4.83992E-3	-206.494E-12	648.315E-3	-7.75043E-3	-207.261E-12	701.113E-3	-27.9503E-3
-4.84492E-3	-205.670E-12	646.881E-3	-10.7908E-3	-206.453E-12	706.230E-3	-22.6489E-3
-4.84992E-3	-207.654E-12	628.916E-3	-11.7751E-3	-205.467E-12	697.220E-3	-28.5598E-3
-4.85493E-3	-208.735E-12	646.688E-3	-21.4316E-3	-205.312E-12	650.610E-3	-39.4080E-3
-4.85993E-3	-209.321E-12	675.504E-3	-7.76597E-3	-203.186E-12	641.924E-3	-20.9779E-3
-4.86493E-3	-208.686E-12	681.155E-3	-2.57209E-3	-203.460E-12	661.578E-3	-16.5220E-3
-4.86993E-3	-208.537E-12	692.725E-3	-18.6191E-3	-204.550E-12	665.170E-3	-28.6999E-3
-4.87494E-3	-206.975E-12	717.499E-3	-2.91882E-3	-204.611E-12	681.017E-3	-17.4534E-3
-4.87994E-3	-206.401E-12	718.033E-3	9.26229E-3	-204.464E-12	691.093E-3	-25.3673E-3
-4.88494E-3	-205.581E-12	695.282E-3	-13.6813E-3	-204.744E-12	676.234E-3	-68.0539E-3
-4.88995E-3	-203.666E-12	673.165E-3	-12.4291E-3	-205.403E-12	647.681E-3	-74.1902E-3
-4.89495E-3	-202.290E-12	668.734E-3	8.15110E-3	-206.331E-12	640.282E-3	-41.0689E-3
-4.89995E-3	-202.498E-12	673.530E-3	20.3729E-3	-207.519E-12	661.885E-3	-25.1717E-3
-4.90495E-3	-201.002E-12	664.746E-3	21.4485E-3	-207.978E-12	650.681E-3	-4.18202E-3
-4.90995E-3	-200.677E-12	650.201E-3	-904.585E-6	-209.649E-12	615.290E-3	13.6677E-3
-4.91496E-3	-202.948E-12	650.068E-3	-12.0730E-3	-210.390E-12	624.653E-3	-513.175E-6
-4.91996E-3	-202.139E-12	666.475E-3	2.46972E-3	-210.159E-12	653.102E-3	-703.726E-6
-4.92496E-3	-203.362E-12	672.907E-3	7.71272E-3	-209.752E-12	666.844E-3	23.8825E-3
-4.92996E-3	-205.107E-12	668.424E-3	-1.19380E-3	-210.299E-12	661.674E-3	24.3748E-3
-4.93497E-3	-205.820E-12	678.503E-3	-5.81921E-3	-211.192E-12	655.111E-3	6.50533E-3
-4.93997E-3	-207.572E-12	680.682E-3	4.95367E-3	-210.599E-12	677.026E-3	-14.7951E-3
-4.94497E-3	-209.190E-12	680.195E-3	17.1159E-3	-210.233E-12	691.339E-3	-44.3456E-3
-4.94997E-3	-211.021E-12	698.301E-3	23.4269E-3	-209.942E-12	678.443E-3	-48.9873E-3
-4.95498E-3	-211.160E-12	700.245E-3	8.19969E-3	-209.557E-12	672.281E-3	-33.6702E-3
-4.95998E-3	-212.891E-12	687.227E-3	-15.2007E-3	-208.646E-12	678.456E-3	-29.9704E-3
-4.96498E-3	-213.434E-12	696.919E-3	-13.3621E-3	-208.608E-12	668.056E-3	-31.2424E-3
-4.96998E-3	-211.754E-12	705.949E-3	-4.62264E-3	-207.490E-12	660.469E-3	-9.90581E-3
-4.97499E-3	-211.951E-12	694.443E-3	-4.14258E-3	-206.936E-12	652.077E-3	9.86451E-3
-4.97999E-3	-211.624E-12	684.805E-3	-4.84453E-3	-206.317E-12	608.677E-3	11.1880E-3
-4.98499E-3	-210.102E-12	661.478E-3	-2.55760E-3	-205.834E-12	599.497E-3	17.9550E-3
-4.98999E-3	-209.865E-12	635.352E-3	-3.30146E-3	-206.318E-12	627.142E-3	-6.53330E-3
-4.99500E-3	-209.593E-12	645.530E-3	-14.1498E-3	-207.591E-12	645.487E-3	-39.0555E-3
-5.00000E-3	-207.836E-12	675.653E-3	-20.7257E-3	-207.593E-12	672.326E-3	-31.3510E-3
