Experiment	bias spectroscopy	
Date	19.01.2016 18:03:46	
User		
X (m)	50.0136E-9	
Y (m)	255.782E-9	
Z (m)	-132.666E-9	
Z offset (m)	0E+0	
Settling time (s)	200E-6	
Integration time (s)	5E-3	
Z-Ctrl hold	TRUE	
Final Z (m)	N/A	
Filter type	None	
Order		
Cutoff frq		
Comment01	MnPc/Pb(111)	
Comment02	dz =00pm	
Comment03	7 Sweeps	
Comment04	MagField =0.T	
Comment05	Divider 1:10	
Comment06	Setpoint:5mV,200 pA	
Comment07	Lockin: 50uVrms,5ms,5mV	
Comment08	Gain:9; 912Hz modulation	
Comment09	T=1.06K	
Bias>Bias (V)	5E-3	
Bias>Calibration (V/V)	81.475E-3	
Bias>Offset (V)	1.046E-3	
Bias Spectroscopy>Sweep Start (V)	5E-3	
Bias Spectroscopy>Sweep End (V)	-5E-3	
Bias Spectroscopy>Num Pixel	2000	
Bias Spectroscopy>Z Avg time (s)	500E-3	
Bias Spectroscopy>Z offset (m)	0E+0	
Bias Spectroscopy>1st Settling time (s)	500E-3	
Bias Spectroscopy>Settling time (s)	200E-6	
Bias Spectroscopy>Integration time (s)	5E-3	
Bias Spectroscopy>End Settling time (s)	500E-3	
Bias Spectroscopy>Z control time (s)	500E-3	
Bias Spectroscopy>Max Slew rate (V/s)	Inf	
Bias Spectroscopy>backward sweep	TRUE	
Bias Spectroscopy>Z-controller hold	TRUE	
Bias Spectroscopy>Number of sweeps	7	
Bias Spectroscopy>Channels	Current (A);X% LockIn (V);Y% LockIn (V)	
Bias Spectroscopy>Reset Bias	TRUE	
Bias Spectroscopy>Record final Z	FALSE	
Bias Spectroscopy>Lock-In run	FALSE	
Bias Spectroscopy>Sweep mode	Linear	
Bias Spectroscopy>MultiLine Settings : Segment Start (V), Segment End (V), Settling (s), Integration (s), Steps (xn)	100E-3,3.3E-3,100E-6,10E-3,2500;3.3E-3,-3.3E-3,100E-6,10E-3,10;-3.3E-3,-100E-3,100E-6,10E-3,2500	
Current>Current (A)	200.002E-12	
Current>Calibration (A/V)	999.99900E-12	
Current>Offset (A)	-455.429E-15	
Current>Gain	LN 10^9	
Z-Controller>Z (m)	-132.665E-9	
Z-Controller>Controller name	log Current	
Z-Controller>Controller status	ON	
Z-Controller>Setpoint	200E-12	
Z-Controller>Setpoint unit	A	
Z-Controller>P gain	2.96994E-12	
Z-Controller>I gain	67.0321E-9	
Z-Controller>Time const (s)	44.3062E-6	
Z-Controller>TipLift (m)	0E+0	
Z-Controller>Switch off delay (s)	50E-3	
Current (A)	200.122E-12	
Z (m)	-132.665E-9	

[DATA]
Bias calc (V)	Current (A)	X% LockIn (V)	Y% LockIn (V)	Current [bwd] (A)	X% LockIn [bwd] (V)	Y% LockIn [bwd] (V)
5.00000E-3	197.145E-12	647.786E-3	-14.9408E-3	200.141E-12	659.492E-3	-8.83360E-3
4.99500E-3	198.094E-12	635.786E-3	-25.9474E-3	203.148E-12	679.132E-3	23.9144E-3
4.98999E-3	197.037E-12	641.667E-3	-41.0034E-3	205.205E-12	678.225E-3	-10.7299E-3
4.98499E-3	197.523E-12	652.235E-3	-35.0695E-3	200.755E-12	662.295E-3	-25.1321E-3
4.97999E-3	196.796E-12	635.578E-3	-19.6686E-3	198.530E-12	688.102E-3	-3.07875E-3
4.97499E-3	197.464E-12	617.418E-3	-6.62227E-3	199.990E-12	704.128E-3	17.2344E-3
4.96998E-3	198.718E-12	616.055E-3	-15.8729E-3	201.220E-12	702.385E-3	28.7075E-3
4.96498E-3	198.121E-12	640.276E-3	-52.0716E-3	197.837E-12	702.233E-3	25.0416E-3
4.95998E-3	198.825E-12	665.925E-3	-64.6115E-3	196.031E-12	662.250E-3	19.7894E-3
4.95498E-3	198.546E-12	678.113E-3	-36.2992E-3	195.265E-12	618.062E-3	25.4271E-3
4.94997E-3	197.625E-12	667.755E-3	-16.3429E-3	197.150E-12	629.708E-3	9.34583E-3
4.94497E-3	197.315E-12	649.714E-3	-20.2761E-3	195.076E-12	649.407E-3	-22.4965E-3
4.93997E-3	197.866E-12	640.671E-3	-25.0183E-3	195.111E-12	638.989E-3	-28.1445E-3
4.93497E-3	196.755E-12	647.846E-3	-35.2262E-3	194.450E-12	648.289E-3	-30.7293E-3
4.92996E-3	196.114E-12	681.799E-3	-48.6758E-3	196.076E-12	677.936E-3	-48.6306E-3
4.92496E-3	194.613E-12	712.555E-3	-33.5216E-3	197.193E-12	682.789E-3	-42.2444E-3
4.91996E-3	196.083E-12	691.482E-3	-10.9533E-3	195.421E-12	669.807E-3	-6.65538E-3
4.91496E-3	195.801E-12	636.396E-3	-10.3694E-3	195.151E-12	668.685E-3	17.9836E-3
4.90995E-3	195.447E-12	623.344E-3	-11.1951E-3	196.274E-12	671.480E-3	19.0926E-3
4.90495E-3	195.534E-12	657.302E-3	-8.05716E-3	197.934E-12	682.337E-3	5.09318E-3
4.89995E-3	195.642E-12	685.790E-3	-15.0433E-3	197.887E-12	704.976E-3	-29.9022E-3
4.89495E-3	195.545E-12	692.361E-3	-3.10870E-3	196.837E-12	688.508E-3	-47.7034E-3
4.88995E-3	195.605E-12	680.689E-3	29.2281E-3	197.257E-12	670.819E-3	-11.5525E-3
4.88494E-3	195.567E-12	651.441E-3	31.4105E-3	197.824E-12	696.550E-3	3.56303E-3
4.87994E-3	196.445E-12	643.431E-3	2.91774E-3	196.327E-12	696.212E-3	-14.0325E-3
4.87494E-3	197.088E-12	643.771E-3	-24.3754E-3	195.604E-12	688.586E-3	1.71905E-3
4.86993E-3	196.007E-12	634.045E-3	-35.8806E-3	194.914E-12	703.258E-3	13.5049E-3
4.86493E-3	195.813E-12	649.176E-3	-34.8976E-3	195.468E-12	688.667E-3	-1.25234E-3
4.85993E-3	196.583E-12	679.737E-3	-13.1389E-3	195.549E-12	648.072E-3	-22.0588E-3
4.85493E-3	197.462E-12	697.036E-3	11.9464E-3	195.175E-12	626.319E-3	-43.9942E-3
4.84992E-3	195.474E-12	679.378E-3	7.30758E-3	194.215E-12	622.731E-3	-23.8226E-3
4.84492E-3	194.806E-12	662.569E-3	-21.5612E-3	193.926E-12	639.001E-3	22.0282E-3
4.83992E-3	193.294E-12	680.329E-3	-38.4909E-3	195.718E-12	681.602E-3	21.6397E-3
4.83492E-3	195.573E-12	693.798E-3	-36.4644E-3	194.583E-12	699.093E-3	-2.24729E-3
4.82991E-3	196.015E-12	706.696E-3	-12.2715E-3	194.245E-12	670.451E-3	-16.3707E-3
4.82491E-3	193.942E-12	715.429E-3	7.62903E-3	194.704E-12	656.456E-3	-30.0785E-3
4.81991E-3	192.101E-12	688.484E-3	-1.63455E-3	196.283E-12	658.182E-3	-31.5143E-3
4.81491E-3	191.901E-12	664.458E-3	-14.7947E-3	195.050E-12	645.666E-3	-14.8744E-3
4.80990E-3	195.246E-12	644.864E-3	-19.8355E-3	193.108E-12	656.917E-3	3.31842E-3
4.80490E-3	192.933E-12	636.801E-3	-19.0167E-3	193.445E-12	677.435E-3	-6.37155E-3
4.79990E-3	191.639E-12	660.857E-3	-15.5276E-3	194.833E-12	649.285E-3	-18.4568E-3
4.79490E-3	191.151E-12	674.627E-3	-10.4015E-6	193.670E-12	639.023E-3	-2.94308E-3
4.78989E-3	193.035E-12	655.641E-3	3.76852E-3	191.545E-12	674.199E-3	-7.24135E-3
4.78489E-3	193.242E-12	627.804E-3	-17.9489E-3	190.578E-12	667.355E-3	-22.6401E-3
4.77989E-3	191.073E-12	635.273E-3	-31.6988E-3	191.691E-12	639.819E-3	-18.9999E-3
4.77489E-3	190.566E-12	666.133E-3	-11.6674E-3	192.229E-12	650.915E-3	-28.5801E-3
4.76988E-3	191.262E-12	673.247E-3	11.7748E-3	191.595E-12	673.920E-3	-30.9375E-3
4.76488E-3	193.094E-12	679.891E-3	-10.3879E-3	189.905E-12	683.754E-3	-3.80685E-3
4.75988E-3	189.845E-12	696.460E-3	-23.4497E-3	190.915E-12	686.577E-3	-4.21393E-3
4.75488E-3	187.699E-12	671.805E-3	-13.4237E-3	192.338E-12	693.561E-3	-15.6000E-3
4.74988E-3	186.233E-12	629.575E-3	-38.9382E-3	192.171E-12	707.768E-3	1.33962E-3
4.74487E-3	187.621E-12	608.128E-3	-63.1488E-3	190.892E-12	706.541E-3	7.41272E-3
4.73987E-3	188.079E-12	609.138E-3	-74.3154E-3	191.353E-12	683.424E-3	18.2728E-3
4.73487E-3	185.723E-12	643.020E-3	-88.4019E-3	193.229E-12	668.125E-3	39.3560E-3
4.72986E-3	184.055E-12	674.709E-3	-71.9198E-3	192.855E-12	693.571E-3	19.1631E-3
4.72486E-3	185.592E-12	670.620E-3	-49.8706E-3	190.171E-12	725.918E-3	-22.1053E-3
4.71986E-3	187.249E-12	647.892E-3	-51.5357E-3	188.596E-12	708.435E-3	-40.3216E-3
4.71486E-3	186.469E-12	636.428E-3	-32.8741E-3	189.900E-12	653.678E-3	-31.6976E-3
4.70985E-3	185.057E-12	630.901E-3	-6.63209E-3	189.953E-12	597.582E-3	-21.6340E-3
4.70485E-3	185.167E-12	629.019E-3	-11.9244E-3	186.756E-12	585.816E-3	-24.4338E-3
4.69985E-3	186.739E-12	647.643E-3	-18.6542E-3	185.248E-12	619.786E-3	-37.6035E-3
4.69485E-3	187.932E-12	669.866E-3	2.27852E-3	184.272E-12	650.119E-3	-34.6015E-3
4.68984E-3	186.961E-12	665.131E-3	19.0824E-3	185.456E-12	673.818E-3	-6.67045E-3
4.68484E-3	185.289E-12	633.690E-3	3.50142E-3	184.404E-12	680.626E-3	5.19180E-3
4.67984E-3	185.724E-12	610.247E-3	-12.2994E-3	185.322E-12	664.079E-3	-7.16933E-3
4.67484E-3	186.502E-12	626.766E-3	-5.63436E-3	184.346E-12	658.534E-3	-16.9177E-3
4.66983E-3	185.012E-12	667.822E-3	-5.59134E-3	186.514E-12	670.655E-3	-31.4335E-3
4.66483E-3	183.773E-12	697.515E-3	-6.91990E-3	186.723E-12	688.492E-3	-34.3643E-3
4.65983E-3	184.358E-12	701.896E-3	8.99782E-3	185.955E-12	688.722E-3	-13.7769E-3
4.65483E-3	183.657E-12	675.893E-3	33.7747E-3	185.725E-12	675.803E-3	-3.38976E-3
4.64982E-3	182.265E-12	650.220E-3	35.9150E-3	185.578E-12	669.949E-3	-22.3275E-3
4.64482E-3	181.696E-12	646.908E-3	-9.09912E-3	185.561E-12	658.455E-3	-42.7227E-3
4.63982E-3	180.768E-12	660.389E-3	-51.2061E-3	183.903E-12	658.009E-3	-15.0671E-3
4.63482E-3	180.903E-12	666.251E-3	-27.9681E-3	183.829E-12	655.719E-3	13.1599E-3
4.62981E-3	180.760E-12	640.124E-3	31.4619E-3	183.571E-12	633.922E-3	-4.44953E-3
4.62481E-3	181.851E-12	619.648E-3	46.1717E-3	183.524E-12	624.337E-3	-21.8609E-3
4.61981E-3	182.378E-12	638.898E-3	9.05496E-3	182.471E-12	634.451E-3	-7.39764E-3
4.61481E-3	182.363E-12	663.806E-3	-24.7501E-3	181.844E-12	657.106E-3	6.94950E-3
4.60980E-3	182.489E-12	662.031E-3	-27.7309E-3	182.820E-12	696.013E-3	10.3245E-3
4.60480E-3	182.422E-12	661.441E-3	-7.19459E-3	181.691E-12	708.113E-3	-5.80711E-3
4.59980E-3	182.942E-12	675.001E-3	24.6528E-3	181.742E-12	691.101E-3	-30.7443E-3
4.59480E-3	183.093E-12	671.700E-3	19.2232E-3	180.915E-12	696.934E-3	-30.5675E-3
4.58979E-3	183.669E-12	662.457E-3	-22.1825E-3	184.770E-12	696.198E-3	-34.4292E-3
4.58479E-3	182.085E-12	679.508E-3	-48.8122E-3	183.667E-12	674.668E-3	-32.8229E-3
4.57979E-3	182.009E-12	683.455E-3	-37.4237E-3	184.889E-12	673.860E-3	-12.7477E-3
4.57479E-3	181.789E-12	667.121E-3	-6.02373E-3	182.971E-12	673.874E-3	-8.07046E-3
4.56978E-3	181.648E-12	663.844E-3	6.47640E-3	186.062E-12	664.068E-3	-906.337E-6
4.56478E-3	179.798E-12	666.578E-3	652.736E-6	185.035E-12	679.921E-3	12.8722E-3
4.55978E-3	178.881E-12	667.054E-3	-14.0806E-3	185.634E-12	685.139E-3	12.6908E-3
4.55478E-3	180.114E-12	660.255E-3	-15.7625E-3	184.219E-12	663.003E-3	12.7648E-3
4.54977E-3	178.496E-12	656.060E-3	-16.8202E-3	183.624E-12	655.835E-3	-8.55776E-3
4.54477E-3	178.729E-12	665.519E-3	-18.0809E-3	183.772E-12	664.069E-3	-55.8694E-3
4.53977E-3	177.686E-12	658.303E-3	-7.03809E-3	183.611E-12	661.533E-3	-66.8187E-3
4.53477E-3	179.924E-12	635.024E-3	-9.66187E-3	184.044E-12	649.846E-3	-26.5290E-3
4.52976E-3	180.354E-12	637.145E-3	-20.4536E-3	181.589E-12	656.462E-3	-5.84609E-3
4.52476E-3	179.142E-12	650.412E-3	-22.9576E-3	179.765E-12	657.805E-3	-20.4905E-3
4.51976E-3	180.220E-12	663.807E-3	-24.0803E-3	180.388E-12	666.297E-3	-24.0015E-3
4.51476E-3	180.335E-12	671.183E-3	-28.3756E-3	181.184E-12	701.991E-3	-37.7657E-3
4.50975E-3	181.608E-12	668.961E-3	-33.2251E-3	181.112E-12	686.325E-3	-44.2035E-3
4.50475E-3	179.716E-12	670.767E-3	-31.3650E-3	179.861E-12	645.673E-3	-12.0685E-3
4.49975E-3	179.276E-12	663.575E-3	-13.6439E-3	179.810E-12	660.616E-3	-8.62363E-3
4.49475E-3	179.671E-12	643.455E-3	-147.173E-6	179.837E-12	681.109E-3	-30.9904E-3
4.48974E-3	180.888E-12	631.637E-3	-5.50389E-3	180.273E-12	682.538E-3	-18.3910E-3
4.48474E-3	178.036E-12	644.626E-3	-21.4002E-3	180.339E-12	668.658E-3	-9.75689E-3
4.47974E-3	175.254E-12	656.890E-3	-10.6353E-3	181.629E-12	632.529E-3	-25.0291E-3
4.47474E-3	176.008E-12	656.916E-3	14.6479E-3	181.913E-12	624.697E-3	-20.8195E-3
4.46973E-3	176.850E-12	663.509E-3	3.56837E-3	181.403E-12	653.907E-3	-14.2850E-3
4.46473E-3	177.330E-12	667.219E-3	-23.7407E-3	181.044E-12	665.487E-3	-21.0753E-3
4.45973E-3	174.142E-12	655.680E-3	-21.2353E-3	179.990E-12	674.987E-3	-4.42194E-3
4.45473E-3	174.308E-12	665.909E-3	-2.20441E-3	178.663E-12	682.136E-3	18.6614E-3
4.44972E-3	174.414E-12	684.542E-3	-3.97271E-3	177.317E-12	652.354E-3	10.1649E-3
4.44472E-3	175.972E-12	668.250E-3	-14.6561E-3	176.706E-12	632.892E-3	2.38391E-3
4.43972E-3	175.131E-12	642.528E-3	-10.9353E-3	175.348E-12	651.028E-3	6.43363E-3
4.43472E-3	174.530E-12	627.358E-3	-2.93707E-3	175.508E-12	676.173E-3	682.905E-6
4.42971E-3	174.588E-12	621.218E-3	-14.5392E-3	174.639E-12	680.700E-3	508.039E-6
4.42471E-3	175.948E-12	631.528E-3	-20.2571E-3	175.759E-12	680.480E-3	5.14798E-3
4.41971E-3	176.971E-12	658.030E-3	-11.0025E-3	173.499E-12	689.031E-3	1.87688E-3
4.41471E-3	173.975E-12	670.251E-3	-15.1011E-3	173.350E-12	685.407E-3	-6.84368E-3
4.40970E-3	173.386E-12	651.600E-3	-23.0208E-3	173.651E-12	689.783E-3	-1.58816E-3
4.40470E-3	174.340E-12	640.016E-3	-24.2619E-3	175.288E-12	697.581E-3	-5.53009E-3
4.39970E-3	175.008E-12	657.355E-3	5.09223E-3	174.964E-12	666.357E-3	-22.0062E-3
4.39470E-3	171.808E-12	660.501E-3	43.3700E-3	175.184E-12	638.622E-3	-19.6157E-3
4.38969E-3	170.548E-12	642.634E-3	42.0820E-3	175.612E-12	655.392E-3	-28.8604E-3
4.38469E-3	171.011E-12	625.781E-3	18.9155E-3	175.973E-12	661.025E-3	-37.9433E-3
4.37969E-3	172.213E-12	617.198E-3	-12.6569E-3	175.740E-12	639.212E-3	-20.9263E-3
4.37469E-3	172.896E-12	643.815E-3	-31.1250E-3	175.553E-12	641.172E-3	-26.2504E-3
4.36968E-3	171.533E-12	673.346E-3	2.54130E-3	174.474E-12	656.575E-3	-43.4312E-3
4.36468E-3	170.503E-12	669.326E-3	12.2170E-3	174.955E-12	679.254E-3	-22.6094E-3
4.35968E-3	171.389E-12	659.454E-3	-23.3938E-3	174.800E-12	709.404E-3	9.20688E-3
4.35468E-3	172.484E-12	656.849E-3	-17.5054E-3	172.265E-12	717.570E-3	9.74096E-3
4.34967E-3	171.631E-12	658.106E-3	8.62802E-3	170.585E-12	704.008E-3	-21.5887E-3
4.34467E-3	170.575E-12	686.910E-3	13.2435E-3	172.456E-12	683.853E-3	-36.7434E-3
4.33967E-3	169.874E-12	702.157E-3	3.91208E-3	174.060E-12	677.750E-3	-11.1548E-3
4.33467E-3	170.199E-12	672.540E-3	-8.58169E-3	171.528E-12	679.303E-3	3.04026E-3
4.32966E-3	169.374E-12	657.645E-3	-14.0373E-3	170.745E-12	677.102E-3	-7.05853E-3
4.32466E-3	168.505E-12	674.074E-3	-16.4233E-3	172.469E-12	672.252E-3	-5.30788E-3
4.31966E-3	168.551E-12	685.081E-3	-18.6074E-3	173.818E-12	670.495E-3	13.8591E-3
4.31466E-3	168.345E-12	678.208E-3	-21.0671E-3	172.511E-12	677.378E-3	15.6585E-3
4.30965E-3	169.242E-12	681.166E-3	-45.1013E-3	171.076E-12	661.870E-3	-9.62759E-3
4.30465E-3	168.281E-12	677.588E-3	-52.7251E-3	172.851E-12	625.877E-3	-14.6898E-3
4.29965E-3	167.724E-12	645.554E-3	-41.8528E-3	173.712E-12	635.212E-3	9.52756E-3
4.29465E-3	166.719E-12	634.805E-3	-47.0842E-3	172.792E-12	670.308E-3	-5.36197E-3
4.28964E-3	168.980E-12	644.105E-3	-40.9383E-3	171.611E-12	692.668E-3	-37.2318E-3
4.28464E-3	170.045E-12	626.928E-3	-35.1893E-3	172.777E-12	714.412E-3	-34.2044E-3
4.27964E-3	168.665E-12	626.322E-3	-29.9100E-3	174.273E-12	688.854E-3	-33.4218E-3
4.27464E-3	168.675E-12	638.152E-3	1.56946E-3	172.536E-12	640.855E-3	-26.6195E-3
4.26963E-3	169.442E-12	643.769E-3	6.08015E-3	170.556E-12	645.042E-3	-25.6280E-3
4.26463E-3	170.993E-12	673.746E-3	-23.9001E-3	170.875E-12	681.451E-3	-41.0147E-3
4.25963E-3	168.900E-12	684.735E-3	-30.6979E-3	173.590E-12	699.452E-3	-39.7926E-3
4.25463E-3	169.812E-12	673.499E-3	-30.9853E-3	172.343E-12	698.131E-3	-31.9428E-3
4.24962E-3	168.895E-12	693.559E-3	-28.2725E-3	171.665E-12	699.419E-3	-21.2330E-3
4.24462E-3	168.925E-12	716.679E-3	-16.5383E-3	171.932E-12	695.349E-3	-21.3376E-3
4.23962E-3	167.036E-12	697.073E-3	-8.12929E-3	173.699E-12	689.008E-3	-19.4861E-3
4.23462E-3	166.629E-12	661.329E-3	-15.2305E-3	172.340E-12	695.346E-3	4.55666E-3
4.22961E-3	165.768E-12	639.317E-3	-26.7020E-3	170.837E-12	691.259E-3	-2.92072E-3
4.22461E-3	164.102E-12	635.690E-3	-13.0410E-3	170.978E-12	663.854E-3	-22.2873E-3
4.21961E-3	163.311E-12	635.883E-3	-7.27617E-3	171.520E-12	655.399E-3	-993.548E-6
4.21461E-3	162.867E-12	652.201E-3	-18.4855E-3	172.938E-12	668.637E-3	-316.188E-6
4.20960E-3	163.173E-12	671.386E-3	-22.2771E-3	170.885E-12	685.142E-3	-16.3994E-3
4.20460E-3	160.445E-12	648.979E-3	-46.9148E-3	168.305E-12	687.003E-3	-14.0698E-3
4.19960E-3	161.642E-12	619.668E-3	-67.2186E-3	167.969E-12	667.139E-3	-4.34637E-3
4.19460E-3	162.689E-12	624.803E-3	-48.2100E-3	169.504E-12	647.465E-3	13.0620E-3
4.18959E-3	163.736E-12	654.436E-3	-44.7605E-3	167.558E-12	637.895E-3	-2.30322E-3
4.18459E-3	163.171E-12	681.453E-3	-56.8205E-3	164.422E-12	653.192E-3	-29.9099E-3
4.17959E-3	162.167E-12	675.644E-3	-46.9109E-3	165.222E-12	658.229E-3	-35.4325E-3
4.17459E-3	163.534E-12	655.448E-3	-30.9668E-3	167.370E-12	638.307E-3	-32.9160E-3
4.16958E-3	164.333E-12	669.272E-3	-12.9163E-3	166.585E-12	648.159E-3	-30.1665E-3
4.16458E-3	164.922E-12	694.220E-3	-13.0180E-3	165.226E-12	688.023E-3	-42.2839E-3
4.15958E-3	163.264E-12	687.736E-3	-52.6230E-3	164.568E-12	705.478E-3	-40.6870E-3
4.15458E-3	163.698E-12	685.504E-3	-71.5443E-3	166.408E-12	688.756E-3	-27.3829E-3
4.14957E-3	163.260E-12	711.919E-3	-27.0134E-3	168.229E-12	676.785E-3	-27.4836E-3
4.14457E-3	162.668E-12	710.431E-3	4.46872E-3	166.008E-12	671.379E-3	-21.9561E-3
4.13957E-3	160.630E-12	672.609E-3	-8.82103E-3	165.147E-12	647.604E-3	-11.7010E-3
4.13457E-3	160.253E-12	653.266E-3	-24.9802E-3	165.311E-12	639.784E-3	-6.45417E-3
4.12956E-3	161.847E-12	652.512E-3	-30.7877E-3	166.355E-12	661.642E-3	-10.3806E-3
4.12456E-3	159.581E-12	665.063E-3	-22.7489E-3	166.445E-12	674.629E-3	-18.8001E-3
4.11956E-3	159.077E-12	690.123E-3	-3.31848E-3	164.011E-12	670.907E-3	-22.3871E-3
4.11456E-3	159.246E-12	689.605E-3	-9.33561E-3	161.953E-12	666.023E-3	-17.4013E-3
4.10955E-3	161.752E-12	668.855E-3	-50.0840E-3	162.839E-12	654.771E-3	-13.7416E-3
4.10455E-3	161.811E-12	658.790E-3	-46.9455E-3	162.385E-12	633.606E-3	-10.4401E-3
4.09955E-3	162.066E-12	647.795E-3	-18.5609E-3	160.237E-12	634.512E-3	-14.3654E-3
4.09455E-3	162.692E-12	650.995E-3	-26.0865E-3	158.110E-12	654.478E-3	-14.5514E-3
4.08954E-3	163.978E-12	663.593E-3	-22.5266E-3	158.831E-12	651.933E-3	-11.6559E-3
4.08454E-3	164.094E-12	651.522E-3	-13.3199E-3	158.289E-12	636.893E-3	-28.7958E-3
4.07954E-3	164.540E-12	641.319E-3	-35.4491E-3	158.538E-12	640.368E-3	-34.8235E-3
4.07454E-3	164.045E-12	650.604E-3	-29.7714E-3	157.926E-12	668.670E-3	-22.6435E-3
4.06953E-3	162.484E-12	668.821E-3	6.44319E-3	159.093E-12	692.664E-3	-18.5841E-3
4.06453E-3	162.978E-12	688.227E-3	9.03233E-3	159.383E-12	685.009E-3	-13.5592E-3
4.05953E-3	162.771E-12	700.744E-3	-11.4227E-3	159.896E-12	665.937E-3	-8.17473E-3
4.05453E-3	159.349E-12	689.287E-3	-30.6943E-3	158.917E-12	664.196E-3	-21.5765E-3
4.04952E-3	158.927E-12	675.411E-3	-37.5286E-3	159.018E-12	692.244E-3	-39.0534E-3
4.04452E-3	158.746E-12	677.889E-3	-29.3703E-3	159.089E-12	714.665E-3	-44.6224E-3
4.03952E-3	159.344E-12	667.309E-3	-20.8335E-3	159.118E-12	706.156E-3	-43.6219E-3
4.03452E-3	157.271E-12	662.842E-3	-20.4587E-3	159.415E-12	688.986E-3	-42.9010E-3
4.02951E-3	157.082E-12	688.207E-3	-28.5751E-3	160.089E-12	662.072E-3	-32.8026E-3
4.02451E-3	157.966E-12	704.994E-3	-39.3770E-3	159.774E-12	631.118E-3	-12.0253E-3
4.01951E-3	159.901E-12	699.784E-3	-40.5832E-3	158.513E-12	631.059E-3	-16.7917E-3
4.01451E-3	159.125E-12	700.143E-3	-32.2213E-3	158.075E-12	657.267E-3	-36.7761E-3
4.00950E-3	158.741E-12	689.090E-3	-16.7718E-3	157.099E-12	687.849E-3	-27.2312E-3
4.00450E-3	159.432E-12	671.233E-3	-20.1128E-3	156.494E-12	695.641E-3	-21.8312E-3
3.99950E-3	160.316E-12	674.767E-3	-36.0826E-3	155.353E-12	663.536E-3	-22.8790E-3
3.99450E-3	160.177E-12	684.759E-3	-22.5236E-3	154.746E-12	642.814E-3	-10.2437E-3
3.98949E-3	157.367E-12	695.650E-3	7.48120E-3	154.711E-12	653.317E-3	-18.3429E-3
3.98449E-3	157.519E-12	696.439E-3	22.5623E-3	154.762E-12	663.547E-3	-24.2002E-3
3.97949E-3	157.545E-12	660.480E-3	6.40809E-3	154.325E-12	671.784E-3	-12.3564E-3
3.97449E-3	157.471E-12	628.803E-3	-17.2741E-3	154.431E-12	670.914E-3	-20.4008E-3
3.96948E-3	154.727E-12	647.215E-3	-21.6736E-3	154.910E-12	645.419E-3	-47.2545E-3
3.96448E-3	153.420E-12	667.572E-3	-21.1810E-3	154.616E-12	643.054E-3	-62.5467E-3
3.95948E-3	154.330E-12	651.786E-3	-28.4160E-3	154.198E-12	677.101E-3	-51.4366E-3
3.95448E-3	154.841E-12	645.126E-3	-25.0782E-3	154.253E-12	690.005E-3	-44.2723E-3
3.94947E-3	153.608E-12	666.334E-3	-16.9871E-3	155.083E-12	675.865E-3	-36.6729E-3
3.94447E-3	151.837E-12	676.641E-3	-13.7713E-3	156.425E-12	675.424E-3	-6.58681E-3
3.93947E-3	152.252E-12	681.203E-3	2.09194E-3	156.095E-12	690.844E-3	-7.09838E-3
3.93447E-3	154.490E-12	687.916E-3	19.5629E-3	155.073E-12	700.193E-3	-18.7784E-3
3.92946E-3	153.435E-12	653.309E-3	9.94090E-3	155.529E-12	716.137E-3	13.4624E-3
3.92446E-3	152.024E-12	620.033E-3	-8.97838E-3	155.131E-12	716.400E-3	29.2574E-3
3.91946E-3	152.971E-12	646.107E-3	2.25970E-3	155.866E-12	673.885E-3	13.3072E-3
3.91446E-3	155.048E-12	662.295E-3	4.77875E-3	154.045E-12	642.779E-3	9.42847E-3
3.90945E-3	154.592E-12	664.628E-3	-36.4528E-3	152.546E-12	647.575E-3	2.16835E-3
3.90445E-3	152.382E-12	675.280E-3	-43.4944E-3	151.992E-12	654.699E-3	-3.26453E-3
3.89945E-3	152.490E-12	647.724E-3	-15.7104E-3	153.861E-12	657.232E-3	-2.15857E-3
3.89445E-3	154.974E-12	631.612E-3	-15.3822E-3	152.908E-12	663.506E-3	-22.3635E-3
3.88944E-3	153.196E-12	653.840E-3	-7.53945E-3	150.922E-12	667.529E-3	-46.8201E-3
3.88444E-3	150.076E-12	655.578E-3	-4.60318E-3	150.113E-12	669.326E-3	-48.0307E-3
3.87944E-3	147.708E-12	654.881E-3	-28.3777E-3	150.952E-12	680.489E-3	-25.7088E-3
3.87444E-3	148.991E-12	664.748E-3	-35.4422E-3	151.239E-12	683.338E-3	-1.24152E-3
3.86943E-3	150.813E-12	661.195E-3	-20.5635E-3	150.215E-12	664.102E-3	-109.558E-6
3.86443E-3	149.552E-12	653.945E-3	460.711E-6	149.112E-12	653.991E-3	-15.4889E-3
3.85943E-3	146.436E-12	659.248E-3	1.92776E-3	150.348E-12	668.102E-3	-33.7378E-3
3.85443E-3	147.968E-12	684.478E-3	-19.9647E-3	151.106E-12	680.435E-3	-36.1202E-3
3.84942E-3	150.605E-12	680.183E-3	-28.9242E-3	151.574E-12	673.084E-3	-18.5183E-3
3.84442E-3	151.587E-12	661.488E-3	-26.9191E-3	149.427E-12	656.666E-3	-2.56243E-3
3.83942E-3	148.939E-12	684.995E-3	-17.6052E-3	149.448E-12	656.198E-3	-1.75132E-3
3.83442E-3	147.825E-12	704.767E-3	-9.85866E-3	149.453E-12	667.691E-3	-19.9871E-3
3.82941E-3	148.785E-12	696.854E-3	-26.6231E-3	150.640E-12	667.125E-3	-31.5196E-3
3.82441E-3	150.646E-12	676.907E-3	-33.1426E-3	148.848E-12	678.090E-3	-8.78701E-3
3.81941E-3	150.536E-12	665.270E-3	-17.8701E-3	148.186E-12	696.342E-3	4.51217E-3
3.81441E-3	146.795E-12	676.824E-3	-3.62707E-3	148.495E-12	688.593E-3	-24.0813E-3
3.80940E-3	146.232E-12	692.930E-3	3.73314E-3	149.866E-12	693.625E-3	-45.1545E-3
3.80440E-3	147.368E-12	686.406E-3	-21.5831E-3	149.765E-12	722.169E-3	-24.4518E-3
3.79940E-3	147.736E-12	672.962E-3	-41.5695E-3	148.889E-12	728.084E-3	-1.14709E-3
3.79440E-3	146.832E-12	669.566E-3	-14.6830E-3	148.149E-12	704.411E-3	-5.12578E-3
3.78939E-3	144.723E-12	665.321E-3	8.93507E-3	147.854E-12	674.456E-3	-21.7181E-3
3.78439E-3	145.289E-12	662.113E-3	6.91643E-3	147.792E-12	654.904E-3	-31.7363E-3
3.77939E-3	146.196E-12	660.287E-3	1.76999E-3	147.703E-12	643.391E-3	-17.0534E-3
3.77439E-3	146.544E-12	664.781E-3	-12.9766E-3	147.529E-12	644.786E-3	-13.5737E-3
3.76938E-3	145.178E-12	680.960E-3	-21.8406E-3	146.632E-12	662.768E-3	-36.6429E-3
3.76438E-3	145.906E-12	697.305E-3	-6.91476E-3	145.803E-12	675.436E-3	-33.0991E-3
3.75938E-3	146.595E-12	699.105E-3	-4.21395E-3	145.758E-12	674.291E-3	-9.43178E-3
3.75438E-3	148.434E-12	691.079E-3	-17.2344E-3	145.535E-12	670.785E-3	-3.46905E-3
3.74937E-3	148.107E-12	687.531E-3	-13.0340E-3	145.449E-12	665.456E-3	-5.63796E-3
3.74437E-3	146.691E-12	684.530E-3	-2.04860E-3	144.311E-12	671.277E-3	174.761E-6
3.73937E-3	147.125E-12	671.573E-3	708.635E-6	143.944E-12	676.349E-3	457.170E-6
3.73437E-3	147.603E-12	666.732E-3	12.9079E-3	143.528E-12	656.789E-3	-11.8681E-3
3.72936E-3	146.383E-12	681.900E-3	3.59091E-3	144.010E-12	665.757E-3	-22.3827E-3
3.72436E-3	142.922E-12	689.075E-3	-26.8293E-3	145.176E-12	694.112E-3	-22.7748E-3
3.71936E-3	144.263E-12	669.113E-3	-21.3730E-3	144.961E-12	689.019E-3	-20.0456E-3
3.71436E-3	144.366E-12	654.794E-3	738.377E-6	144.983E-12	674.910E-3	-27.3433E-3
3.70935E-3	144.255E-12	677.411E-3	-1.65166E-3	143.506E-12	666.031E-3	-43.1508E-3
3.70435E-3	143.296E-12	710.303E-3	-13.9560E-3	144.854E-12	652.274E-3	-45.4090E-3
3.69935E-3	142.309E-12	705.116E-3	-23.2515E-3	145.248E-12	650.579E-3	-28.6694E-3
3.69435E-3	143.045E-12	662.098E-3	-33.7708E-3	146.314E-12	659.224E-3	-21.2943E-3
3.68934E-3	143.260E-12	643.048E-3	-25.2924E-3	145.033E-12	657.579E-3	-23.6793E-3
3.68434E-3	144.557E-12	666.090E-3	-1.57356E-3	144.409E-12	652.237E-3	-22.9717E-3
3.67934E-3	142.981E-12	696.927E-3	4.28469E-3	143.757E-12	656.832E-3	-31.3765E-3
3.67434E-3	144.998E-12	698.346E-3	-1.17420E-3	144.394E-12	669.910E-3	-42.1956E-3
3.66933E-3	147.735E-12	663.936E-3	1.83473E-3	143.812E-12	679.732E-3	-32.2937E-3
3.66433E-3	147.051E-12	664.723E-3	367.231E-6	141.626E-12	681.110E-3	-19.4668E-3
3.65933E-3	144.487E-12	715.967E-3	-956.944E-6	140.801E-12	661.046E-3	-36.0722E-3
3.65433E-3	144.715E-12	717.041E-3	-4.44662E-3	141.053E-12	644.175E-3	-54.2252E-3
3.64932E-3	146.494E-12	676.357E-3	-24.9001E-3	141.767E-12	670.518E-3	-51.6790E-3
3.64432E-3	144.453E-12	659.806E-3	-28.9207E-3	139.471E-12	702.102E-3	-40.7863E-3
3.63932E-3	141.847E-12	654.250E-3	-10.3638E-3	139.082E-12	709.933E-3	-12.8199E-3
3.63432E-3	138.446E-12	655.713E-3	-2.50379E-3	139.304E-12	701.770E-3	5.09565E-3
3.62931E-3	139.082E-12	660.320E-3	-11.6851E-3	141.122E-12	683.253E-3	-15.8094E-3
3.62431E-3	139.016E-12	667.384E-3	-25.1090E-3	140.863E-12	673.817E-3	-34.1597E-3
3.61931E-3	136.845E-12	657.354E-3	-32.9962E-3	140.180E-12	680.538E-3	-29.3880E-3
3.61431E-3	134.199E-12	648.698E-3	-13.8380E-3	138.931E-12	672.528E-3	-24.0426E-3
3.60930E-3	134.580E-12	673.230E-3	14.6231E-3	140.916E-12	652.222E-3	-14.2768E-3
3.60430E-3	135.629E-12	676.420E-3	15.2895E-3	141.909E-12	656.540E-3	-544.844E-6
3.59930E-3	136.340E-12	656.199E-3	-3.23688E-3	139.997E-12	670.595E-3	4.42454E-3
3.59430E-3	135.554E-12	649.987E-3	-16.1227E-3	139.754E-12	672.405E-3	15.8565E-3
3.58929E-3	135.796E-12	641.923E-3	-14.5858E-3	140.276E-12	673.434E-3	20.1674E-3
3.58429E-3	138.085E-12	638.534E-3	-5.27568E-3	140.183E-12	673.981E-3	-1.12396E-3
3.57929E-3	139.569E-12	656.029E-3	-4.45344E-3	138.939E-12	663.362E-3	-31.7433E-3
3.57429E-3	139.362E-12	660.270E-3	-23.6944E-3	137.524E-12	670.632E-3	-31.1410E-3
3.56928E-3	138.846E-12	652.156E-3	-35.0694E-3	136.933E-12	693.873E-3	-3.73579E-3
3.56428E-3	139.581E-12	666.379E-3	-24.4619E-3	137.166E-12	701.132E-3	-2.12368E-3
3.55928E-3	140.533E-12	687.297E-3	-8.09741E-3	136.993E-12	693.829E-3	-13.6033E-3
3.55428E-3	139.336E-12	710.613E-3	-6.94543E-3	135.559E-12	687.586E-3	-22.9399E-3
3.54927E-3	136.841E-12	727.293E-3	-21.7721E-3	135.218E-12	691.352E-3	-22.3964E-3
3.54427E-3	136.351E-12	691.368E-3	-23.8237E-3	135.256E-12	695.632E-3	-6.07193E-3
3.53927E-3	136.451E-12	644.669E-3	-22.8841E-3	135.459E-12	692.330E-3	4.82106E-3
3.53427E-3	135.473E-12	653.323E-3	-36.5729E-3	134.411E-12	663.525E-3	-3.99645E-3
3.52926E-3	133.971E-12	686.243E-3	-36.6441E-3	134.097E-12	650.735E-3	-18.7436E-3
3.52426E-3	133.667E-12	688.191E-3	-19.8380E-3	134.465E-12	674.037E-3	-30.8861E-3
3.51926E-3	133.553E-12	652.399E-3	-2.47940E-3	135.622E-12	673.077E-3	-54.8824E-3
3.51426E-3	134.261E-12	626.741E-3	3.74586E-3	135.896E-12	655.977E-3	-48.7671E-3
3.50925E-3	133.794E-12	637.206E-3	-15.6130E-3	135.064E-12	665.559E-3	-19.4843E-3
3.50425E-3	134.214E-12	668.513E-3	-19.5211E-3	134.978E-12	670.191E-3	-21.7874E-3
3.49925E-3	134.247E-12	685.885E-3	-3.70640E-3	134.921E-12	657.857E-3	-25.3248E-3
3.49425E-3	135.975E-12	674.417E-3	2.98764E-3	134.993E-12	676.000E-3	-12.2429E-3
3.48924E-3	136.495E-12	653.941E-3	7.25449E-3	133.876E-12	686.112E-3	-18.7413E-3
3.48424E-3	135.465E-12	654.937E-3	-6.06015E-3	132.464E-12	661.179E-3	-15.5940E-3
3.47924E-3	135.717E-12	687.984E-3	-33.3266E-3	132.181E-12	659.083E-3	4.58137E-3
3.47424E-3	136.614E-12	696.976E-3	-32.3819E-3	132.116E-12	687.530E-3	-9.94863E-3
3.46923E-3	136.802E-12	665.376E-3	-18.3396E-3	132.495E-12	708.354E-3	-25.0895E-3
3.46423E-3	134.222E-12	648.977E-3	-12.9168E-3	131.349E-12	708.326E-3	-7.35626E-3
3.45923E-3	134.074E-12	664.751E-3	-4.42631E-3	131.409E-12	688.725E-3	-2.31966E-3
3.45423E-3	133.968E-12	679.762E-3	-7.26153E-3	130.383E-12	659.683E-3	-9.51018E-3
3.44922E-3	132.729E-12	676.309E-3	-23.5772E-3	131.677E-12	657.991E-3	-7.77967E-3
3.44422E-3	131.878E-12	671.641E-3	-38.4552E-3	130.947E-12	668.482E-3	-12.8951E-3
3.43922E-3	130.823E-12	666.520E-3	-32.4059E-3	130.574E-12	645.986E-3	-10.3959E-3
3.43422E-3	131.678E-12	655.648E-3	-3.10989E-3	129.894E-12	630.319E-3	3.39974E-3
3.42921E-3	131.139E-12	668.070E-3	17.4028E-3	130.836E-12	655.407E-3	5.93161E-3
3.42421E-3	130.818E-12	700.812E-3	11.7285E-3	130.333E-12	677.092E-3	3.08237E-3
3.41921E-3	129.308E-12	696.721E-3	-4.01182E-3	129.977E-12	683.210E-3	321.725E-6
3.41421E-3	130.209E-12	661.583E-3	-5.77392E-3	130.255E-12	677.695E-3	-12.3916E-3
3.40920E-3	129.485E-12	644.433E-3	2.16119E-3	129.989E-12	655.923E-3	-14.1243E-3
3.40420E-3	128.345E-12	653.093E-3	-2.47890E-3	131.175E-12	655.354E-3	2.02245E-3
3.39920E-3	128.082E-12	679.405E-3	-18.5197E-3	130.360E-12	671.493E-3	223.336E-6
3.39420E-3	128.538E-12	699.354E-3	-21.2491E-3	129.887E-12	680.025E-3	-22.3076E-3
3.38919E-3	129.444E-12	675.185E-3	-5.63161E-3	128.765E-12	693.500E-3	-37.8425E-3
3.38419E-3	127.917E-12	646.030E-3	13.0936E-3	128.412E-12	697.185E-3	-38.2566E-3
3.37919E-3	127.830E-12	651.787E-3	18.6144E-3	128.379E-12	680.729E-3	-36.9639E-3
3.37419E-3	128.106E-12	660.616E-3	6.19887E-3	128.733E-12	667.443E-3	-49.8963E-3
3.36918E-3	128.329E-12	669.607E-3	-16.8085E-3	128.691E-12	663.117E-3	-59.5914E-3
3.36418E-3	127.057E-12	668.067E-3	-20.9705E-3	127.968E-12	664.319E-3	-27.1563E-3
3.35918E-3	126.282E-12	647.746E-3	-6.20218E-3	128.825E-12	668.661E-3	27.5157E-3
3.35418E-3	125.636E-12	646.473E-3	-786.839E-6	129.103E-12	671.347E-3	31.0657E-3
3.34917E-3	126.153E-12	662.389E-3	-13.0382E-3	129.275E-12	689.130E-3	-6.35874E-3
3.34417E-3	126.359E-12	664.279E-3	-27.7229E-3	127.758E-12	710.663E-3	-8.54057E-3
3.33917E-3	125.122E-12	662.610E-3	-12.2262E-3	128.165E-12	709.795E-3	13.9656E-3
3.33417E-3	125.445E-12	676.551E-3	8.43053E-3	128.678E-12	695.738E-3	9.67251E-3
3.32916E-3	126.208E-12	682.891E-3	1.55910E-3	127.172E-12	677.936E-3	-2.00047E-3
3.32416E-3	126.547E-12	677.820E-3	-13.6809E-3	127.647E-12	676.471E-3	-10.5005E-3
3.31916E-3	125.332E-12	684.370E-3	-12.3764E-3	126.988E-12	685.267E-3	-33.4752E-3
3.31416E-3	124.716E-12	675.066E-3	2.41416E-3	127.235E-12	686.493E-3	-34.4483E-3
3.30915E-3	125.753E-12	654.928E-3	-4.00609E-3	126.128E-12	688.737E-3	-3.86671E-3
3.30415E-3	125.700E-12	661.753E-3	-22.3623E-3	125.061E-12	685.044E-3	10.4585E-3
3.29915E-3	124.834E-12	681.090E-3	-21.3303E-3	125.018E-12	682.292E-3	1.08193E-3
3.29415E-3	123.989E-12	688.163E-3	-31.2945E-3	124.384E-12	684.045E-3	-14.8298E-3
3.28914E-3	123.775E-12	684.043E-3	-39.5187E-3	124.536E-12	666.456E-3	-26.4570E-3
3.28414E-3	123.534E-12	674.303E-3	-19.9964E-3	123.379E-12	636.170E-3	-20.1735E-3
3.27914E-3	123.217E-12	658.621E-3	-8.13972E-3	124.078E-12	638.242E-3	-4.58139E-3
3.27414E-3	123.322E-12	661.944E-3	-11.8350E-3	124.300E-12	670.243E-3	-7.67280E-3
3.26913E-3	121.558E-12	672.672E-3	-26.6652E-3	124.036E-12	678.641E-3	-16.4366E-3
3.26413E-3	121.914E-12	656.578E-3	-45.9120E-3	123.978E-12	682.006E-3	4.12552E-3
3.25913E-3	122.421E-12	646.324E-3	-40.3305E-3	124.652E-12	687.523E-3	22.6215E-3
3.25413E-3	124.171E-12	656.197E-3	-8.74511E-3	125.008E-12	668.557E-3	-221.305E-6
3.24912E-3	122.983E-12	683.925E-3	525.321E-6	124.475E-12	674.652E-3	-30.5162E-3
3.24412E-3	122.163E-12	718.254E-3	-13.9977E-3	124.989E-12	701.187E-3	-36.6570E-3
3.23912E-3	123.051E-12	705.064E-3	-22.6269E-3	124.633E-12	698.739E-3	-18.0925E-3
3.23412E-3	123.316E-12	669.701E-3	-29.6325E-3	124.951E-12	695.216E-3	9.47828E-3
3.22911E-3	124.054E-12	674.567E-3	-21.8925E-3	123.921E-12	692.221E-3	11.6078E-3
3.22411E-3	123.046E-12	697.556E-3	634.094E-6	122.598E-12	676.694E-3	-1.52563E-3
3.21911E-3	122.558E-12	695.271E-3	6.50798E-3	122.422E-12	682.819E-3	-11.3066E-3
3.21411E-3	121.131E-12	671.662E-3	-8.05915E-3	122.010E-12	700.536E-3	-13.0091E-3
3.20910E-3	121.374E-12	657.136E-3	-15.0131E-3	121.663E-12	695.590E-3	-2.94875E-3
3.20410E-3	120.902E-12	662.941E-3	-13.8282E-3	120.718E-12	684.217E-3	2.13927E-3
3.19910E-3	119.408E-12	688.731E-3	-23.2480E-3	120.349E-12	685.204E-3	-5.30528E-3
3.19410E-3	118.999E-12	704.932E-3	-22.8109E-3	120.776E-12	687.584E-3	-17.9615E-3
3.18909E-3	118.881E-12	682.654E-3	-23.5306E-3	121.140E-12	705.039E-3	-19.6758E-3
3.18409E-3	119.758E-12	663.058E-3	-38.8666E-3	119.831E-12	723.327E-3	-18.0016E-3
3.17909E-3	118.296E-12	668.543E-3	-17.0970E-3	120.800E-12	711.762E-3	-21.0869E-3
3.17409E-3	118.092E-12	681.353E-3	11.3696E-3	120.881E-12	692.357E-3	-25.5864E-3
3.16908E-3	118.752E-12	694.526E-3	-2.13552E-3	121.667E-12	690.673E-3	-33.0080E-3
3.16408E-3	119.919E-12	698.541E-3	-22.2973E-3	120.460E-12	710.396E-3	-32.1923E-3
3.15908E-3	120.770E-12	686.289E-3	-39.0571E-3	120.688E-12	713.936E-3	-10.8855E-3
3.15408E-3	120.968E-12	688.392E-3	-59.1755E-3	121.962E-12	692.107E-3	12.9254E-3
3.14907E-3	120.217E-12	714.143E-3	-58.1901E-3	120.827E-12	675.574E-3	-4.54368E-3
3.14407E-3	119.532E-12	712.690E-3	-48.8503E-3	119.165E-12	668.300E-3	-26.4615E-3
3.13907E-3	119.506E-12	692.004E-3	-51.8951E-3	118.161E-12	689.898E-3	-7.83601E-3
3.13407E-3	119.209E-12	695.531E-3	-46.7904E-3	119.274E-12	695.521E-3	494.114E-6
3.12906E-3	119.488E-12	710.860E-3	-29.2569E-3	118.674E-12	662.118E-3	-700.213E-6
3.12406E-3	119.121E-12	720.259E-3	-18.9729E-3	117.528E-12	674.472E-3	11.0765E-3
3.11906E-3	118.829E-12	725.806E-3	-15.1064E-3	116.684E-12	706.922E-3	1.92819E-3
3.11406E-3	117.872E-12	716.336E-3	-9.50226E-3	116.780E-12	701.253E-3	-5.41989E-3
3.10905E-3	117.049E-12	698.967E-3	-21.0184E-3	116.876E-12	685.357E-3	-2.56770E-3
3.10405E-3	116.342E-12	699.007E-3	-31.2488E-3	115.935E-12	672.873E-3	-18.9003E-3
3.09905E-3	116.802E-12	701.587E-3	-19.4637E-3	116.530E-12	672.568E-3	-25.7822E-3
3.09405E-3	115.559E-12	687.845E-3	-9.80533E-3	116.102E-12	684.987E-3	-24.9341E-3
3.08904E-3	114.554E-12	678.281E-3	-7.00122E-3	117.359E-12	693.014E-3	-16.8681E-3
3.08404E-3	114.026E-12	677.176E-3	-2.58855E-3	116.756E-12	697.884E-3	9.03967E-3
3.07904E-3	114.415E-12	675.423E-3	4.27332E-3	115.940E-12	703.999E-3	13.7794E-3
3.07404E-3	115.660E-12	689.754E-3	76.6343E-6	115.024E-12	701.850E-3	-11.4379E-3
3.06903E-3	116.245E-12	710.278E-3	-10.7196E-3	115.588E-12	691.959E-3	-26.2328E-3
3.06403E-3	115.896E-12	707.481E-3	-22.9992E-3	115.914E-12	699.782E-3	-17.3624E-3
3.05903E-3	115.550E-12	688.212E-3	-30.6176E-3	114.323E-12	714.464E-3	-17.4009E-3
3.05403E-3	116.244E-12	671.309E-3	-16.6144E-3	113.297E-12	710.618E-3	-22.3328E-3
3.04902E-3	116.313E-12	676.663E-3	-2.54848E-3	113.817E-12	691.624E-3	-11.7049E-3
3.04402E-3	114.122E-12	710.704E-3	-2.43949E-3	113.586E-12	674.906E-3	-6.14433E-3
3.03902E-3	113.509E-12	720.819E-3	-14.5459E-3	112.157E-12	677.912E-3	-8.24059E-3
3.03402E-3	114.175E-12	685.444E-3	-44.6565E-3	110.393E-12	681.272E-3	8.31822E-3
3.02901E-3	114.669E-12	665.128E-3	-64.2732E-3	110.805E-12	689.239E-3	18.1341E-3
3.02401E-3	112.446E-12	690.558E-3	-32.3799E-3	111.737E-12	688.892E-3	-1.42027E-3
3.01901E-3	111.281E-12	728.945E-3	9.44623E-3	110.963E-12	687.198E-3	-10.8777E-3
3.01401E-3	110.799E-12	741.104E-3	3.69119E-3	109.848E-12	714.892E-3	-10.3838E-3
3.00900E-3	111.213E-12	726.476E-3	-19.1572E-3	111.546E-12	718.082E-3	-27.4656E-3
3.00400E-3	110.767E-12	700.055E-3	-14.5802E-3	112.523E-12	695.753E-3	-28.4359E-3
2.99900E-3	109.687E-12	677.416E-3	-6.71420E-3	112.036E-12	689.826E-3	-31.3832E-3
2.99400E-3	109.023E-12	678.256E-3	-8.07861E-3	111.448E-12	689.179E-3	-48.9055E-3
2.98899E-3	109.869E-12	690.490E-3	-12.6483E-3	111.944E-12	701.559E-3	-28.8218E-3
2.98399E-3	110.281E-12	688.533E-3	-30.5873E-3	112.666E-12	724.704E-3	-12.2144E-3
2.97899E-3	109.417E-12	681.364E-3	-34.2007E-3	113.596E-12	722.874E-3	-23.7504E-3
2.97399E-3	109.066E-12	671.094E-3	-13.5951E-3	112.919E-12	708.300E-3	-27.7980E-3
2.96898E-3	110.143E-12	668.598E-3	-5.70487E-3	111.772E-12	712.998E-3	-29.6402E-3
2.96398E-3	111.144E-12	694.582E-3	-21.0266E-3	110.772E-12	728.857E-3	-24.9283E-3
2.95898E-3	111.395E-12	707.918E-3	-32.0254E-3	110.895E-12	733.867E-3	-11.4328E-3
2.95398E-3	110.361E-12	695.006E-3	-40.2031E-3	110.802E-12	729.357E-3	-14.6528E-3
2.94897E-3	109.551E-12	686.891E-3	-33.1958E-3	109.936E-12	712.172E-3	-42.0185E-3
2.94397E-3	110.496E-12	681.115E-3	-9.42855E-3	109.097E-12	679.765E-3	-53.8825E-3
2.93897E-3	110.367E-12	683.748E-3	-16.9573E-3	108.855E-12	672.184E-3	-32.1654E-3
2.93397E-3	109.758E-12	698.388E-3	-33.9957E-3	108.593E-12	692.797E-3	-22.7628E-3
2.92896E-3	108.341E-12	695.057E-3	-25.5533E-3	107.867E-12	701.132E-3	-23.7586E-3
2.92396E-3	108.048E-12	677.564E-3	-12.7087E-3	106.930E-12	697.636E-3	-17.6960E-3
2.91896E-3	108.713E-12	665.121E-3	-3.53336E-3	107.195E-12	682.923E-3	-29.5019E-3
2.91396E-3	108.572E-12	663.836E-3	-4.91296E-3	108.392E-12	665.631E-3	-44.5710E-3
2.90895E-3	106.634E-12	677.476E-3	-20.0757E-3	108.658E-12	676.842E-3	-35.4649E-3
2.90395E-3	106.064E-12	687.967E-3	-24.8196E-3	106.976E-12	698.336E-3	-25.8424E-3
2.89895E-3	107.558E-12	687.699E-3	-18.6226E-3	106.728E-12	698.267E-3	-20.1957E-3
2.89395E-3	108.268E-12	689.708E-3	-16.3125E-3	107.498E-12	705.333E-3	-6.21347E-3
2.88894E-3	106.885E-12	700.498E-3	-21.9587E-3	108.925E-12	731.128E-3	612.723E-6
2.88394E-3	104.798E-12	700.765E-3	-17.2966E-3	106.988E-12	730.591E-3	14.7380E-3
2.87894E-3	105.261E-12	681.447E-3	-15.0292E-3	107.026E-12	707.293E-3	27.3874E-3
2.87394E-3	107.544E-12	682.805E-3	-26.9138E-3	106.693E-12	687.983E-3	-6.25058E-3
2.86893E-3	106.604E-12	703.803E-3	-23.4825E-3	107.053E-12	671.547E-3	-43.6188E-3
2.86393E-3	104.279E-12	714.228E-3	-8.03764E-3	105.532E-12	682.497E-3	-33.9568E-3
2.85893E-3	104.223E-12	715.642E-3	-9.55155E-3	104.814E-12	713.984E-3	-13.9575E-3
2.85393E-3	106.959E-12	712.883E-3	-26.2216E-3	104.445E-12	716.837E-3	2.00936E-3
2.84892E-3	107.019E-12	711.110E-3	-29.1562E-3	104.264E-12	700.895E-3	8.41232E-3
2.84392E-3	104.752E-12	719.796E-3	-25.6200E-3	103.548E-12	694.562E-3	-14.9714E-3
2.83892E-3	103.642E-12	732.424E-3	-21.9393E-3	103.274E-12	691.783E-3	-46.5412E-3
2.83392E-3	105.665E-12	719.702E-3	-15.2559E-3	103.336E-12	697.560E-3	-47.4429E-3
2.82891E-3	106.510E-12	694.060E-3	-10.0080E-3	102.744E-12	704.528E-3	-20.9842E-3
2.82391E-3	104.471E-12	681.695E-3	4.23950E-3	102.821E-12	693.248E-3	2.49898E-3
2.81891E-3	102.499E-12	676.996E-3	12.6759E-3	102.201E-12	687.328E-3	-810.416E-6
2.81391E-3	102.972E-12	689.953E-3	-8.89932E-3	102.865E-12	704.529E-3	-32.1988E-3
2.80890E-3	103.451E-12	711.751E-3	-31.4858E-3	102.847E-12	716.895E-3	-40.9189E-3
2.80390E-3	103.120E-12	710.990E-3	-24.1635E-3	100.849E-12	714.063E-3	-17.6827E-3
2.79890E-3	102.762E-12	699.613E-3	-17.6643E-3	100.467E-12	714.412E-3	-4.82893E-3
2.79390E-3	100.938E-12	709.611E-3	-12.1122E-3	101.269E-12	706.107E-3	-13.5757E-3
2.78889E-3	100.550E-12	721.922E-3	-9.07034E-3	101.555E-12	687.713E-3	-23.6674E-3
2.78389E-3	101.577E-12	719.279E-3	-30.0923E-3	99.7854E-12	696.703E-3	-17.7024E-3
2.77889E-3	101.404E-12	723.042E-3	-39.0469E-3	99.0542E-12	715.209E-3	-4.26504E-3
2.77389E-3	99.6982E-12	725.601E-3	-34.8732E-3	99.0197E-12	708.031E-3	9.53228E-3
2.76888E-3	98.8375E-12	714.041E-3	-29.6875E-3	99.5318E-12	705.640E-3	7.20364E-3
2.76388E-3	100.400E-12	697.890E-3	-10.9364E-3	99.8548E-12	716.427E-3	-17.7356E-3
2.75888E-3	101.010E-12	684.475E-3	-12.0436E-3	99.4751E-12	723.844E-3	-20.7915E-3
2.75388E-3	99.4162E-12	679.113E-3	-27.4211E-3	99.6671E-12	731.166E-3	8.35276E-3
2.74887E-3	98.3548E-12	680.056E-3	-16.6908E-3	100.040E-12	723.880E-3	24.4373E-3
2.74387E-3	99.1698E-12	688.756E-3	-2.83196E-3	100.287E-12	693.697E-3	1.64437E-3
2.73887E-3	101.768E-12	703.211E-3	-6.01180E-3	100.756E-12	687.234E-3	-37.9309E-3
2.73387E-3	101.978E-12	710.370E-3	-19.8199E-3	100.204E-12	708.023E-3	-69.8072E-3
2.72886E-3	99.5946E-12	704.920E-3	-28.4911E-3	99.6007E-12	706.299E-3	-64.8529E-3
2.72386E-3	99.0485E-12	705.359E-3	-33.6417E-3	99.7093E-12	690.184E-3	-22.8982E-3
2.71886E-3	99.6649E-12	724.023E-3	-37.2935E-3	99.1474E-12	684.416E-3	2.79341E-3
2.71386E-3	101.600E-12	736.354E-3	-35.3821E-3	98.4719E-12	689.068E-3	6.06754E-3
2.70885E-3	99.6720E-12	748.241E-3	-35.8472E-3	96.4119E-12	703.156E-3	-2.55219E-3
2.70385E-3	98.2332E-12	765.397E-3	-28.2175E-3	96.0692E-12	712.728E-3	-16.4616E-3
2.69885E-3	98.5657E-12	744.560E-3	-6.60559E-3	96.4168E-12	693.735E-3	-15.4171E-3
2.69385E-3	98.5964E-12	708.907E-3	1.63581E-3	96.2581E-12	676.849E-3	-7.27292E-3
2.68884E-3	98.7899E-12	705.267E-3	466.369E-6	95.0199E-12	700.735E-3	-10.5195E-3
2.68384E-3	97.4535E-12	718.727E-3	-7.39155E-3	94.7484E-12	720.901E-3	-19.8960E-3
2.67884E-3	96.5966E-12	730.903E-3	-36.8444E-3	96.3264E-12	731.340E-3	-16.4616E-3
2.67384E-3	95.1867E-12	731.257E-3	-53.8161E-3	96.2199E-12	751.051E-3	-9.75484E-3
2.66883E-3	96.3294E-12	705.358E-3	-45.1627E-3	95.9170E-12	746.098E-3	-15.6233E-3
2.66383E-3	95.9457E-12	681.390E-3	-30.0746E-3	95.3645E-12	729.083E-3	-14.9233E-3
2.65883E-3	95.3387E-12	700.692E-3	-19.2613E-3	97.9485E-12	738.508E-3	-10.0302E-3
2.65383E-3	94.7197E-12	725.288E-3	-13.3625E-3	97.7805E-12	744.575E-3	-13.0176E-3
2.64882E-3	95.5792E-12	708.314E-3	-16.5871E-3	97.7085E-12	726.926E-3	-10.0330E-3
2.64382E-3	97.0117E-12	682.064E-3	-21.3476E-3	96.6299E-12	711.966E-3	-13.5515E-3
2.63882E-3	95.7765E-12	694.082E-3	-18.5824E-3	96.7244E-12	709.727E-3	-29.2294E-3
2.63382E-3	95.0335E-12	713.834E-3	-14.2937E-3	98.1005E-12	721.546E-3	-30.1859E-3
2.62881E-3	95.7547E-12	710.279E-3	-11.3069E-3	97.4648E-12	740.755E-3	-24.5056E-3
2.62381E-3	97.7232E-12	703.330E-3	-13.0419E-3	95.9447E-12	734.850E-3	-18.4349E-3
2.61881E-3	96.9111E-12	699.788E-3	-14.4558E-3	94.8155E-12	709.027E-3	-9.59130E-3
2.61381E-3	94.7460E-12	714.275E-3	-23.1017E-3	95.0500E-12	708.527E-3	-8.31177E-3
2.60880E-3	95.0516E-12	736.194E-3	-29.3948E-3	93.7898E-12	707.405E-3	-18.2989E-3
2.60380E-3	96.0933E-12	729.364E-3	-22.0455E-3	92.8425E-12	693.267E-3	-21.7046E-3
2.59880E-3	96.9835E-12	720.955E-3	-23.6140E-3	91.9304E-12	698.582E-3	-7.95428E-3
2.59380E-3	94.4002E-12	726.775E-3	-22.9283E-3	91.4761E-12	715.202E-3	-5.24109E-3
2.58879E-3	92.8308E-12	743.502E-3	-16.7724E-3	91.7695E-12	722.352E-3	-14.6657E-3
2.58379E-3	91.5870E-12	772.713E-3	-20.9456E-3	91.5425E-12	728.808E-3	-29.7979E-3
2.57879E-3	91.6556E-12	770.802E-3	-16.0327E-3	91.9607E-12	746.554E-3	-42.6321E-3
2.57379E-3	90.8804E-12	738.798E-3	-13.7545E-3	90.9980E-12	748.881E-3	-27.5394E-3
2.56878E-3	90.0361E-12	726.858E-3	-16.9720E-3	91.3281E-12	727.832E-3	-818.036E-6
2.56378E-3	89.2507E-12	730.222E-3	-6.56076E-3	91.4984E-12	714.782E-3	-8.57443E-3
2.55878E-3	89.3309E-12	724.534E-3	-10.4606E-3	92.0448E-12	727.748E-3	-33.6928E-3
2.55378E-3	89.0830E-12	720.418E-3	-28.6279E-3	92.0009E-12	748.186E-3	-29.8392E-3
2.54877E-3	88.5129E-12	727.238E-3	-27.8768E-3	91.8037E-12	761.492E-3	-10.8802E-3
2.54377E-3	88.0268E-12	713.650E-3	-16.0616E-3	92.4172E-12	759.768E-3	4.01664E-3
2.53877E-3	88.9953E-12	686.623E-3	-18.1178E-3	91.6135E-12	751.968E-3	15.8115E-3
2.53377E-3	89.0511E-12	698.278E-3	-14.0681E-3	90.9290E-12	751.339E-3	-2.97963E-3
2.52876E-3	89.1441E-12	720.759E-3	-3.30826E-3	90.6764E-12	736.136E-3	-28.9030E-3
2.52376E-3	88.7478E-12	714.650E-3	-19.0311E-3	89.7632E-12	716.745E-3	-11.0883E-3
2.51876E-3	89.4156E-12	712.744E-3	-33.6057E-3	88.6931E-12	710.323E-3	5.51943E-3
2.51376E-3	89.7580E-12	718.607E-3	-24.2234E-3	88.3015E-12	694.870E-3	-4.29579E-3
2.50875E-3	90.0210E-12	720.879E-3	-7.32202E-3	87.7474E-12	688.351E-3	-12.2242E-3
2.50375E-3	88.9924E-12	725.693E-3	12.1588E-3	87.8373E-12	711.500E-3	-15.5195E-3
2.49875E-3	89.1146E-12	712.936E-3	17.7472E-3	86.5549E-12	727.562E-3	-11.0971E-3
2.49375E-3	88.6949E-12	698.501E-3	-4.17141E-3	85.8330E-12	715.264E-3	-1.59425E-3
2.48874E-3	88.2693E-12	709.395E-3	-20.6839E-3	86.0935E-12	709.328E-3	-7.39319E-3
2.48374E-3	87.5554E-12	726.934E-3	-18.5484E-3	86.1115E-12	718.455E-3	-21.8498E-3
2.47874E-3	86.8884E-12	732.467E-3	-24.1944E-3	86.1631E-12	726.853E-3	-19.5636E-3
2.47374E-3	86.4442E-12	728.754E-3	-37.1462E-3	86.0420E-12	732.663E-3	-6.80609E-3
2.46873E-3	85.3949E-12	715.963E-3	-34.6570E-3	86.4005E-12	718.971E-3	-12.7906E-3
2.46373E-3	85.0919E-12	705.893E-3	-19.2194E-3	85.6421E-12	696.100E-3	-20.1662E-3
2.45873E-3	84.3442E-12	720.906E-3	-6.93887E-3	84.7624E-12	707.721E-3	-20.3943E-3
2.45373E-3	84.2131E-12	740.361E-3	-414.046E-6	84.0878E-12	732.233E-3	-27.2894E-3
2.44872E-3	83.5171E-12	734.032E-3	-6.13239E-3	84.2544E-12	736.025E-3	-17.9820E-3
2.44372E-3	83.3186E-12	730.333E-3	-9.68788E-3	84.5462E-12	730.695E-3	-8.36659E-3
2.43872E-3	83.4493E-12	739.140E-3	8.05076E-3	83.6772E-12	719.016E-3	-22.5720E-3
2.43372E-3	84.3434E-12	731.962E-3	15.4385E-3	83.3972E-12	722.839E-3	-28.6324E-3
2.42871E-3	84.3401E-12	728.334E-3	-10.2898E-3	83.0661E-12	756.112E-3	-23.2484E-3
2.42371E-3	84.1477E-12	737.259E-3	-21.9892E-3	83.9235E-12	777.560E-3	-32.5493E-3
2.41871E-3	84.5398E-12	737.468E-3	-7.16013E-3	83.6025E-12	760.425E-3	-39.3030E-3
2.41371E-3	85.0004E-12	730.265E-3	-3.32016E-3	83.1856E-12	737.829E-3	-36.5798E-3
2.40870E-3	84.8575E-12	726.838E-3	2.42767E-3	82.9148E-12	742.686E-3	-51.1683E-3
2.40370E-3	84.4221E-12	729.823E-3	9.67968E-3	83.6791E-12	748.621E-3	-51.3440E-3
2.39870E-3	84.8680E-12	739.432E-3	-350.508E-6	84.2166E-12	758.163E-3	-17.4786E-3
2.39370E-3	84.6876E-12	748.125E-3	-15.9190E-3	83.7616E-12	763.932E-3	1.17319E-3
2.38869E-3	84.2272E-12	737.883E-3	-20.4241E-3	83.2086E-12	738.731E-3	-1.67839E-3
2.38369E-3	82.8513E-12	728.040E-3	-12.8233E-3	83.1392E-12	742.587E-3	-3.35969E-3
2.37869E-3	82.4579E-12	740.843E-3	-8.04306E-3	82.8428E-12	769.998E-3	-11.2583E-3
2.37369E-3	81.5193E-12	740.318E-3	-3.40367E-3	82.5038E-12	757.017E-3	-10.3015E-3
2.36868E-3	80.8960E-12	725.128E-3	-11.5731E-3	81.6958E-12	742.063E-3	7.31311E-3
2.36368E-3	80.9104E-12	726.222E-3	-18.4258E-3	80.9359E-12	749.875E-3	16.5231E-3
2.35868E-3	79.7046E-12	727.588E-3	-583.269E-6	80.3836E-12	746.763E-3	18.6863E-3
2.35368E-3	79.4339E-12	733.582E-3	1.05823E-3	80.4443E-12	743.544E-3	13.8201E-3
2.34867E-3	78.8657E-12	756.783E-3	-13.2689E-3	79.8702E-12	754.809E-3	-1.34731E-3
2.34367E-3	79.1425E-12	753.781E-3	-17.1829E-3	79.7779E-12	754.950E-3	-7.13223E-3
2.33867E-3	78.5638E-12	724.542E-3	-15.1967E-3	79.6903E-12	745.788E-3	9.94434E-3
2.33367E-3	78.4046E-12	717.668E-3	3.59652E-3	80.2914E-12	754.851E-3	8.18430E-3
2.32866E-3	78.4657E-12	729.567E-3	13.3929E-3	80.0066E-12	763.912E-3	-18.2621E-3
2.32366E-3	79.0614E-12	739.519E-3	-15.5536E-3	79.7545E-12	766.261E-3	-11.3395E-3
2.31866E-3	79.2309E-12	745.630E-3	-35.1499E-3	79.6962E-12	776.755E-3	7.00484E-3
2.31366E-3	78.0691E-12	736.503E-3	-13.6167E-3	79.9429E-12	758.127E-3	3.84191E-3
2.30865E-3	78.0954E-12	725.574E-3	-6.59026E-3	79.9638E-12	736.760E-3	7.32880E-3
2.30365E-3	77.9414E-12	742.208E-3	-33.1510E-3	79.5434E-12	761.131E-3	3.93309E-3
2.29865E-3	78.0776E-12	764.396E-3	-20.4998E-3	79.4932E-12	775.406E-3	-19.1482E-3
2.29365E-3	77.4885E-12	766.465E-3	12.1770E-3	79.1238E-12	758.727E-3	-15.4137E-3
2.28864E-3	76.8298E-12	757.542E-3	5.13219E-3	78.3951E-12	751.265E-3	-5.07387E-3
2.28364E-3	77.5571E-12	749.103E-3	-4.63061E-3	77.0132E-12	746.904E-3	-20.6318E-3
2.27864E-3	77.2038E-12	757.858E-3	-7.66813E-3	76.4796E-12	735.858E-3	-22.5963E-3
2.27364E-3	77.0319E-12	777.531E-3	-15.9414E-3	76.3092E-12	751.305E-3	-15.6436E-3
2.26863E-3	75.6174E-12	769.849E-3	-18.5495E-3	75.5506E-12	779.282E-3	-30.7164E-3
2.26363E-3	75.4201E-12	744.133E-3	-23.3605E-3	74.4611E-12	774.860E-3	-26.4751E-3
2.25863E-3	74.7626E-12	739.219E-3	-29.9731E-3	74.4206E-12	758.173E-3	-7.57495E-3
2.25363E-3	74.2305E-12	749.549E-3	-21.5007E-3	74.3323E-12	745.169E-3	-30.9407E-3
2.24862E-3	74.0033E-12	753.901E-3	-14.6569E-3	73.8448E-12	737.352E-3	-38.9525E-3
2.24362E-3	73.6900E-12	758.798E-3	-31.4829E-3	73.1170E-12	760.671E-3	1.44736E-3
2.23862E-3	73.8352E-12	756.866E-3	-32.1978E-3	73.0694E-12	789.180E-3	13.1183E-3
2.23362E-3	72.9880E-12	736.176E-3	-14.1511E-3	73.8484E-12	778.877E-3	-8.43912E-3
2.22861E-3	72.7585E-12	735.264E-3	-12.1252E-3	74.0076E-12	777.918E-3	-18.7232E-3
2.22361E-3	72.3529E-12	755.675E-3	-5.25331E-3	73.4736E-12	793.883E-3	-29.0878E-3
2.21861E-3	72.6680E-12	749.661E-3	1.99014E-3	73.4324E-12	776.694E-3	-32.9006E-3
2.21361E-3	72.1744E-12	742.824E-3	-10.1887E-3	74.2428E-12	762.685E-3	-7.52506E-3
2.20860E-3	71.8546E-12	752.236E-3	-9.50691E-3	73.8999E-12	767.927E-3	1.01272E-3
2.20360E-3	72.0128E-12	744.867E-3	5.22185E-3	72.7723E-12	764.134E-3	-19.7464E-3
2.19860E-3	72.6022E-12	751.383E-3	-7.06092E-3	72.2935E-12	773.255E-3	-21.4934E-3
2.19360E-3	73.3883E-12	781.215E-3	-26.6220E-3	72.1619E-12	795.622E-3	-12.8660E-3
2.18859E-3	73.0909E-12	782.221E-3	-30.0937E-3	72.3905E-12	794.088E-3	-17.8299E-3
2.18359E-3	72.9426E-12	768.238E-3	-34.6643E-3	71.2350E-12	781.091E-3	-22.3189E-3
2.17859E-3	72.1440E-12	779.470E-3	-29.3053E-3	70.2946E-12	781.297E-3	-35.9325E-3
2.17359E-3	72.5601E-12	796.044E-3	-15.4324E-3	69.8575E-12	781.381E-3	-51.5444E-3
2.16858E-3	72.4070E-12	798.157E-3	-24.9405E-3	69.9858E-12	774.043E-3	-33.9150E-3
2.16358E-3	71.3995E-12	790.714E-3	-29.3535E-3	69.7018E-12	776.111E-3	-4.85857E-3
2.15858E-3	70.0452E-12	775.740E-3	-2.59350E-3	69.4175E-12	780.300E-3	-1.50647E-3
2.15358E-3	70.0984E-12	770.448E-3	-240.357E-6	69.0904E-12	777.742E-3	-15.7514E-3
2.14857E-3	70.2637E-12	782.752E-3	-19.4998E-3	69.4260E-12	785.041E-3	-15.9835E-3
2.14357E-3	68.7147E-12	787.655E-3	-9.22144E-3	69.0800E-12	786.823E-3	-3.34033E-3
2.13857E-3	68.0224E-12	772.729E-3	6.23023E-3	69.0358E-12	777.414E-3	4.03245E-3
2.13357E-3	67.3636E-12	751.983E-3	1.72834E-3	69.2102E-12	785.275E-3	4.71916E-3
2.12856E-3	67.8847E-12	738.788E-3	1.89335E-3	68.7644E-12	795.111E-3	-6.71520E-3
2.12356E-3	67.1813E-12	742.163E-3	379.186E-6	69.3345E-12	797.008E-3	-24.7458E-3
2.11856E-3	66.4506E-12	761.349E-3	-15.1117E-3	69.2699E-12	812.758E-3	-34.1331E-3
2.11356E-3	66.4622E-12	766.844E-3	-26.4099E-3	69.2390E-12	817.342E-3	-35.1101E-3
2.10855E-3	67.3975E-12	747.052E-3	-29.4635E-3	69.1824E-12	790.876E-3	-30.5095E-3
2.10355E-3	67.7991E-12	757.033E-3	-25.6754E-3	68.6069E-12	790.344E-3	-36.5973E-3
2.09855E-3	67.2542E-12	792.337E-3	-9.17628E-3	67.9568E-12	812.266E-3	-61.9141E-3
2.09355E-3	67.6816E-12	806.714E-3	-5.20375E-3	67.5627E-12	810.894E-3	-65.5518E-3
2.08854E-3	68.1819E-12	815.377E-3	-27.2304E-3	67.8741E-12	814.042E-3	-31.2124E-3
2.08354E-3	68.7557E-12	818.057E-3	-47.7063E-3	67.0602E-12	814.156E-3	-854.597E-6
2.07854E-3	68.1035E-12	806.858E-3	-57.2321E-3	66.4816E-12	799.165E-3	3.42209E-3
2.07354E-3	68.2787E-12	810.946E-3	-55.6667E-3	66.2369E-12	807.172E-3	-3.62493E-3
2.06853E-3	68.4464E-12	834.826E-3	-38.6617E-3	66.1248E-12	826.512E-3	-10.5848E-3
2.06353E-3	68.1827E-12	853.449E-3	-25.4685E-3	66.6296E-12	831.311E-3	-5.69690E-3
2.05853E-3	66.5610E-12	851.853E-3	-28.5030E-3	65.5908E-12	829.540E-3	224.758E-6
2.05353E-3	65.3460E-12	843.190E-3	-29.4765E-3	65.0801E-12	826.136E-3	-14.9519E-3
2.04852E-3	64.7332E-12	836.610E-3	-26.1137E-3	64.9296E-12	823.382E-3	-31.6565E-3
2.04352E-3	64.0953E-12	823.093E-3	-36.2250E-3	65.6977E-12	826.400E-3	-18.5949E-3
2.03852E-3	63.6306E-12	815.008E-3	-45.5042E-3	65.4418E-12	827.488E-3	3.51888E-3
2.03352E-3	62.3606E-12	798.117E-3	-32.0475E-3	64.6668E-12	813.804E-3	1.09392E-3
2.02851E-3	62.1609E-12	776.780E-3	-10.5443E-3	64.2998E-12	807.209E-3	-13.2316E-3
2.02351E-3	62.2395E-12	785.432E-3	5.70809E-3	64.3943E-12	819.814E-3	-30.0422E-3
2.01851E-3	62.2321E-12	796.865E-3	6.87122E-3	64.5519E-12	827.872E-3	-36.7193E-3
2.01351E-3	62.1369E-12	798.293E-3	-13.1783E-3	63.5462E-12	836.781E-3	-16.7475E-3
2.00850E-3	62.3925E-12	803.459E-3	-29.3442E-3	62.8117E-12	843.560E-3	-4.57746E-3
2.00350E-3	63.2151E-12	799.420E-3	-13.2094E-3	63.1189E-12	824.790E-3	-16.0202E-3
1.99850E-3	63.7555E-12	801.356E-3	8.98818E-3	63.4485E-12	817.118E-3	-22.3963E-3
1.99350E-3	63.2459E-12	834.237E-3	3.08940E-3	62.9770E-12	852.419E-3	-16.4768E-3
1.98849E-3	62.7951E-12	861.870E-3	-11.9422E-3	61.8569E-12	875.889E-3	-2.72780E-3
1.98349E-3	63.4070E-12	852.926E-3	-25.8319E-3	62.0869E-12	860.803E-3	10.8613E-3
1.97849E-3	64.1643E-12	847.597E-3	-30.2372E-3	62.7787E-12	849.120E-3	4.94925E-3
1.97349E-3	62.8376E-12	863.543E-3	-15.0543E-3	63.0722E-12	862.274E-3	-10.0429E-3
1.96848E-3	61.5242E-12	871.946E-3	-4.30754E-3	61.7288E-12	880.528E-3	-13.0178E-3
1.96348E-3	60.7918E-12	868.378E-3	-9.62867E-3	61.0192E-12	880.304E-3	-2.95801E-3
1.95848E-3	60.9109E-12	861.097E-3	-6.32616E-3	61.3237E-12	866.124E-3	6.03666E-3
1.95348E-3	59.8097E-12	857.857E-3	2.88959E-3	61.9695E-12	860.873E-3	-1.96057E-3
1.94847E-3	58.3797E-12	861.809E-3	-303.754E-6	60.6220E-12	881.322E-3	-22.5187E-3
1.94347E-3	57.9120E-12	863.553E-3	-2.33488E-3	59.2591E-12	894.038E-3	-37.7537E-3
1.93847E-3	57.6244E-12	856.833E-3	-15.2931E-3	59.6119E-12	877.052E-3	-28.3371E-3
1.93347E-3	56.5645E-12	850.975E-3	-33.8418E-3	59.3190E-12	870.416E-3	-9.79545E-3
1.92846E-3	55.9657E-12	835.411E-3	-24.8603E-3	58.6779E-12	871.039E-3	-17.2941E-3
1.92346E-3	55.8674E-12	811.765E-3	-17.6118E-3	57.6588E-12	853.326E-3	-29.0397E-3
1.91846E-3	56.4993E-12	819.349E-3	-30.1443E-3	57.2740E-12	852.401E-3	-24.8245E-3
1.91346E-3	57.0702E-12	839.852E-3	-41.4864E-3	57.7142E-12	864.969E-3	-24.3901E-3
1.90845E-3	56.6705E-12	850.724E-3	-45.7162E-3	57.9174E-12	863.866E-3	-18.1088E-3
1.90345E-3	56.0085E-12	870.676E-3	-32.6130E-3	56.7541E-12	876.246E-3	-13.2762E-3
1.89845E-3	56.4321E-12	891.948E-3	-4.09884E-3	55.8526E-12	896.976E-3	-33.7156E-3
1.89345E-3	56.5082E-12	883.374E-3	8.22247E-3	56.1326E-12	894.643E-3	-40.8519E-3
1.88844E-3	56.8792E-12	868.178E-3	-2.22190E-3	56.1543E-12	886.860E-3	-19.4130E-3
1.88344E-3	56.1806E-12	880.123E-3	-8.05903E-3	55.8995E-12	883.236E-3	-15.5829E-3
1.87844E-3	56.1181E-12	888.200E-3	-7.82175E-3	54.6993E-12	867.477E-3	-32.6270E-3
1.87344E-3	55.8512E-12	888.924E-3	-15.2428E-3	54.6716E-12	863.334E-3	-35.8134E-3
1.86843E-3	55.6675E-12	902.970E-3	-16.1618E-3	54.8371E-12	886.913E-3	-37.2733E-3
1.86343E-3	54.9956E-12	911.367E-3	-10.8915E-3	54.7686E-12	904.966E-3	-33.2363E-3
1.85843E-3	54.5910E-12	905.856E-3	-22.1854E-3	53.8906E-12	909.714E-3	517.779E-6
1.85343E-3	54.3785E-12	901.764E-3	-37.6120E-3	53.4722E-12	907.760E-3	14.2441E-3
1.84842E-3	53.7117E-12	893.457E-3	-30.8114E-3	53.5032E-12	887.101E-3	-8.70020E-3
1.84342E-3	52.9144E-12	886.011E-3	-14.5712E-3	53.5170E-12	875.664E-3	-15.7153E-3
1.83842E-3	52.0388E-12	891.314E-3	-10.6884E-3	53.0362E-12	905.768E-3	-16.3928E-3
1.83342E-3	52.3098E-12	888.736E-3	-9.19938E-3	52.3300E-12	926.595E-3	-20.2692E-3
1.82841E-3	51.9332E-12	881.445E-3	-10.4789E-3	52.4522E-12	907.822E-3	-4.82343E-3
1.82341E-3	51.5139E-12	888.539E-3	-13.9492E-3	52.0722E-12	894.382E-3	-6.73097E-3
1.81841E-3	51.2103E-12	890.373E-3	-11.7623E-3	51.5425E-12	891.165E-3	-23.0240E-3
1.81341E-3	50.9751E-12	887.155E-3	-8.59493E-3	50.8287E-12	894.799E-3	-4.09037E-3
1.80840E-3	51.1614E-12	894.023E-3	-3.23056E-3	50.9553E-12	913.854E-3	11.6880E-3
1.80340E-3	50.6611E-12	891.281E-3	-4.74521E-3	50.7749E-12	923.104E-3	-6.01374E-3
1.79840E-3	50.3160E-12	887.399E-3	-10.4440E-3	50.0703E-12	928.321E-3	-16.0342E-3
1.79340E-3	50.4839E-12	905.541E-3	-9.92323E-3	49.9560E-12	948.619E-3	-10.4032E-3
1.78839E-3	51.0134E-12	928.449E-3	-2.90024E-3	50.9046E-12	960.680E-3	-7.08054E-3
1.78339E-3	50.2966E-12	935.680E-3	-8.08929E-3	50.5569E-12	953.917E-3	-8.52088E-3
1.77839E-3	49.4989E-12	933.345E-3	-24.2855E-3	49.5759E-12	949.671E-3	-20.0674E-3
1.77339E-3	49.6133E-12	928.906E-3	-23.6421E-3	49.3300E-12	953.300E-3	-36.4100E-3
1.76838E-3	49.3937E-12	930.053E-3	-497.253E-6	49.7490E-12	953.838E-3	-33.7984E-3
1.76338E-3	49.0444E-12	940.493E-3	22.5203E-3	49.9579E-12	966.235E-3	-22.8826E-3
1.75838E-3	48.7917E-12	942.911E-3	15.8997E-3	48.8403E-12	989.499E-3	-22.8667E-3
1.75338E-3	48.1387E-12	944.151E-3	-13.7529E-3	48.1357E-12	986.373E-3	-20.7631E-3
1.74837E-3	47.7224E-12	956.184E-3	-26.9852E-3	47.8291E-12	964.774E-3	-16.3981E-3
1.74337E-3	47.6703E-12	958.049E-3	-7.55188E-3	47.7335E-12	959.338E-3	-27.2486E-3
1.73837E-3	47.1600E-12	944.695E-3	-4.29765E-3	47.7782E-12	974.267E-3	-36.1437E-3
1.73337E-3	46.2006E-12	953.470E-3	-29.4532E-3	47.0360E-12	993.621E-3	-19.9672E-3
1.72836E-3	45.4717E-12	965.420E-3	-30.1729E-3	46.6452E-12	986.978E-3	-6.48371E-3
1.72336E-3	45.4335E-12	937.428E-3	-15.7527E-3	46.3149E-12	960.093E-3	-12.4866E-3
1.71836E-3	45.1807E-12	919.315E-3	-10.7905E-3	46.2579E-12	959.332E-3	-22.8873E-3
1.71336E-3	44.4948E-12	947.880E-3	-4.38947E-3	45.7457E-12	980.630E-3	-32.9957E-3
1.70835E-3	43.7776E-12	973.697E-3	-17.2590E-3	45.3507E-12	994.103E-3	-27.0283E-3
1.70335E-3	43.2293E-12	970.829E-3	-45.2515E-3	44.8906E-12	1.00497E+0	2.67357E-3
1.69835E-3	43.1237E-12	946.445E-3	-44.0138E-3	45.4021E-12	1.01676E+0	12.1306E-3
1.69335E-3	43.0339E-12	920.269E-3	-26.5510E-3	45.3243E-12	1.01027E+0	-9.45115E-3
1.68834E-3	42.6925E-12	932.614E-3	-20.3518E-3	44.7291E-12	1.01151E+0	-25.4427E-3
1.68334E-3	42.6358E-12	972.244E-3	-10.9225E-3	43.6921E-12	1.03012E+0	-23.4849E-3
1.67834E-3	42.4456E-12	986.933E-3	1.65001E-3	43.4066E-12	1.02323E+0	-799.848E-6
1.67334E-3	42.5359E-12	979.329E-3	3.71565E-3	43.2501E-12	1.00216E+0	23.7525E-3
1.66833E-3	42.6821E-12	985.296E-3	-1.30153E-3	42.7246E-12	1.00256E+0	3.61557E-3
1.66333E-3	42.8970E-12	992.243E-3	-11.6312E-3	41.8532E-12	1.01738E+0	-34.0064E-3
1.65833E-3	42.0495E-12	1.00599E+0	-24.6426E-3	40.9857E-12	1.01761E+0	-32.2724E-3
1.65333E-3	41.7709E-12	1.03465E+0	-34.9552E-3	41.1595E-12	1.01271E+0	-19.4340E-3
1.64832E-3	41.4196E-12	1.03743E+0	-39.9355E-3	41.0793E-12	1.01584E+0	-27.3197E-3
1.64332E-3	40.9414E-12	1.02639E+0	-34.9252E-3	40.0882E-12	1.02351E+0	-40.9806E-3
1.63832E-3	40.3710E-12	1.03685E+0	-15.7067E-3	39.2680E-12	1.03434E+0	-41.6037E-3
1.63332E-3	39.6170E-12	1.04944E+0	-4.98637E-3	39.7025E-12	1.03342E+0	-33.4690E-3
1.62831E-3	39.2945E-12	1.04486E+0	-19.7873E-3	40.4564E-12	1.03057E+0	-21.7206E-3
1.62331E-3	38.7779E-12	1.03812E+0	-28.0645E-3	39.2864E-12	1.04952E+0	-14.2117E-3
1.61831E-3	37.8489E-12	1.02981E+0	-13.3987E-3	38.1099E-12	1.07133E+0	-22.0553E-3
1.61331E-3	36.9167E-12	1.02435E+0	-6.68067E-3	37.9498E-12	1.07756E+0	-19.4957E-3
1.60830E-3	36.3761E-12	1.03621E+0	-14.2999E-3	38.7897E-12	1.08814E+0	-3.36779E-3
1.60330E-3	35.9948E-12	1.04057E+0	-17.3942E-3	38.4001E-12	1.09103E+0	-9.78182E-3
1.59830E-3	35.9474E-12	1.02718E+0	-18.8966E-3	37.4693E-12	1.08243E+0	-22.8231E-3
1.59330E-3	35.7188E-12	1.01661E+0	-18.9771E-3	36.7034E-12	1.09836E+0	-20.1738E-3
1.58829E-3	35.6392E-12	1.01498E+0	-10.4640E-3	36.7636E-12	1.11240E+0	-26.4636E-3
1.58329E-3	35.9879E-12	1.02626E+0	-11.3284E-3	36.7580E-12	1.09060E+0	-26.9118E-3
1.57829E-3	36.0572E-12	1.04969E+0	-18.2592E-3	36.1661E-12	1.08683E+0	-15.4503E-3
1.57329E-3	35.8390E-12	1.05988E+0	-11.4627E-3	35.3870E-12	1.11031E+0	-24.2958E-3
1.56828E-3	35.6436E-12	1.06674E+0	-9.62423E-3	34.9074E-12	1.10924E+0	-33.5212E-3
1.56328E-3	35.8912E-12	1.09417E+0	-12.6620E-3	34.9263E-12	1.10813E+0	-30.3953E-3
1.55828E-3	35.8598E-12	1.11805E+0	-14.2063E-3	34.3336E-12	1.12465E+0	-30.6638E-3
1.55328E-3	35.3111E-12	1.12635E+0	-25.2908E-3	33.9417E-12	1.13050E+0	-20.9206E-3
1.54827E-3	34.7577E-12	1.13373E+0	-34.9615E-3	33.4156E-12	1.13080E+0	-9.05969E-3
1.54327E-3	34.1438E-12	1.14217E+0	-30.9489E-3	33.7349E-12	1.13261E+0	-21.1398E-3
1.53827E-3	33.8811E-12	1.14408E+0	-16.7125E-3	33.3980E-12	1.13402E+0	-27.2271E-3
1.53327E-3	33.5624E-12	1.14865E+0	-14.8413E-3	32.4299E-12	1.14981E+0	-18.6010E-3
1.52826E-3	32.9611E-12	1.16336E+0	-23.8429E-3	31.9973E-12	1.15967E+0	-18.8224E-3
1.52326E-3	31.7723E-12	1.16292E+0	-34.8946E-3	32.0562E-12	1.13931E+0	-16.8257E-3
1.51826E-3	31.1958E-12	1.13995E+0	-49.2812E-3	32.1618E-12	1.12843E+0	-11.0308E-3
1.51326E-3	30.9696E-12	1.11955E+0	-38.2962E-3	31.2375E-12	1.15398E+0	-20.7501E-3
1.50825E-3	30.5498E-12	1.12432E+0	-19.0579E-3	30.8007E-12	1.18197E+0	-32.1832E-3
1.50325E-3	29.8901E-12	1.14308E+0	-17.3658E-3	30.5788E-12	1.19181E+0	-16.8728E-3
1.49825E-3	29.3014E-12	1.14759E+0	-15.0069E-3	30.9189E-12	1.19204E+0	-6.42789E-3
1.49325E-3	29.4346E-12	1.13932E+0	-12.6650E-3	30.4567E-12	1.16934E+0	-14.1947E-3
1.48824E-3	29.2035E-12	1.14092E+0	-19.3755E-3	29.5236E-12	1.15542E+0	-7.65552E-3
1.48324E-3	28.8934E-12	1.15978E+0	-21.7660E-3	28.8815E-12	1.18155E+0	-12.8562E-3
1.47824E-3	28.4713E-12	1.16423E+0	-18.9452E-3	28.7051E-12	1.18578E+0	-36.7045E-3
1.47324E-3	28.5664E-12	1.15898E+0	-20.8256E-3	28.5831E-12	1.17075E+0	-28.8203E-3
1.46823E-3	28.2032E-12	1.17632E+0	-15.8527E-3	27.8816E-12	1.17551E+0	-13.1085E-3
1.46323E-3	27.7626E-12	1.19181E+0	-5.61760E-3	27.0655E-12	1.17132E+0	-23.4705E-3
1.45823E-3	27.4948E-12	1.19463E+0	-10.3082E-3	26.8541E-12	1.16490E+0	-29.8089E-3
1.45323E-3	27.1724E-12	1.21430E+0	-18.8109E-3	26.8028E-12	1.18993E+0	-31.9519E-3
1.44822E-3	26.9641E-12	1.22420E+0	-16.0383E-3	26.3756E-12	1.21248E+0	-39.3608E-3
1.44322E-3	26.4090E-12	1.20737E+0	-16.6463E-3	25.5632E-12	1.20293E+0	-33.1845E-3
1.43822E-3	26.0734E-12	1.20512E+0	-13.8318E-3	25.3129E-12	1.19956E+0	-23.3551E-3
1.43322E-3	25.6171E-12	1.20981E+0	-888.132E-6	25.4778E-12	1.19794E+0	-32.5924E-3
1.42821E-3	25.1235E-12	1.21210E+0	-10.0320E-3	25.1768E-12	1.18254E+0	-34.4269E-3
1.42321E-3	24.5318E-12	1.21531E+0	-28.7471E-3	24.4673E-12	1.17908E+0	-17.3232E-3
1.41821E-3	24.2134E-12	1.20115E+0	-27.0888E-3	23.7138E-12	1.16616E+0	-15.4719E-3
1.41321E-3	23.6051E-12	1.18771E+0	-25.6377E-3	23.7237E-12	1.14537E+0	-25.4541E-3
1.40820E-3	23.0653E-12	1.19601E+0	-16.3253E-3	23.5203E-12	1.17158E+0	-28.0375E-3
1.40320E-3	22.7256E-12	1.19364E+0	4.54272E-3	22.8985E-12	1.20430E+0	-26.1475E-3
1.39820E-3	22.3347E-12	1.16977E+0	3.91608E-3	22.3546E-12	1.17761E+0	-12.8175E-3
1.39320E-3	22.1431E-12	1.15798E+0	-22.8089E-3	22.1117E-12	1.14632E+0	1.53608E-3
1.38819E-3	21.6758E-12	1.16284E+0	-30.8844E-3	21.9791E-12	1.14920E+0	-11.5481E-3
1.38319E-3	21.2163E-12	1.17521E+0	-19.1318E-3	21.3918E-12	1.15244E+0	-32.5841E-3
1.37819E-3	20.7428E-12	1.18007E+0	-20.9413E-3	20.8312E-12	1.16758E+0	-27.2896E-3
1.37319E-3	20.6337E-12	1.16116E+0	-17.9427E-3	20.3956E-12	1.17861E+0	-12.5467E-3
1.36818E-3	20.0576E-12	1.13591E+0	-19.7412E-3	20.3583E-12	1.14342E+0	-9.93545E-3
1.36318E-3	19.5544E-12	1.13853E+0	-28.1431E-3	19.8459E-12	1.11475E+0	-12.3754E-3
1.35818E-3	19.1835E-12	1.15256E+0	-19.3978E-3	19.4006E-12	1.12544E+0	-21.6399E-3
1.35318E-3	19.0817E-12	1.13891E+0	-9.52896E-3	18.9968E-12	1.13110E+0	-19.4278E-3
1.34817E-3	18.5079E-12	1.12482E+0	-10.2815E-3	18.5377E-12	1.12392E+0	-1.03053E-3
1.34317E-3	18.0752E-12	1.12314E+0	-12.3706E-3	18.2968E-12	1.11214E+0	3.06979E-3
1.33817E-3	17.7931E-12	1.11400E+0	-8.36993E-3	17.9474E-12	1.08460E+0	-1.94515E-3
1.33317E-3	17.7673E-12	1.11448E+0	-3.39544E-3	17.6837E-12	1.06747E+0	-5.74372E-3
1.32816E-3	17.2610E-12	1.12098E+0	-10.9735E-3	16.9005E-12	1.07441E+0	-15.4773E-3
1.32316E-3	16.6941E-12	1.10918E+0	-21.7718E-3	16.7897E-12	1.06208E+0	-17.2973E-3
1.31816E-3	16.2790E-12	1.10608E+0	-30.0095E-3	16.2568E-12	1.03240E+0	-11.5298E-3
1.31316E-3	16.0726E-12	1.11315E+0	-25.4722E-3	15.8389E-12	1.02367E+0	-22.9487E-3
1.30815E-3	15.6309E-12	1.09366E+0	-12.9827E-3	15.3143E-12	1.01473E+0	-38.3033E-3
1.30315E-3	15.1132E-12	1.06639E+0	-22.1049E-3	15.0507E-12	1.00325E+0	-29.6133E-3
1.29815E-3	14.7736E-12	1.04957E+0	-35.3786E-3	14.7998E-12	1.00814E+0	-16.3325E-3
1.29315E-3	14.5562E-12	1.03314E+0	-34.2265E-3	14.3788E-12	993.712E-3	-27.9129E-3
1.28814E-3	14.2118E-12	1.02371E+0	-32.4896E-3	14.1192E-12	961.281E-3	-38.4018E-3
1.28314E-3	13.8548E-12	1.02484E+0	-27.9952E-3	13.8103E-12	949.309E-3	-34.6384E-3
1.27814E-3	13.3677E-12	1.02194E+0	-21.2847E-3	13.4684E-12	949.192E-3	-26.6720E-3
1.27314E-3	12.9509E-12	1.00847E+0	-27.4085E-3	12.9906E-12	937.373E-3	-10.2405E-3
1.26813E-3	12.6773E-12	984.420E-3	-35.6026E-3	12.6978E-12	918.726E-3	-4.33809E-3
1.26313E-3	12.3693E-12	956.180E-3	-31.4578E-3	12.5996E-12	901.048E-3	-18.3082E-3
1.25813E-3	12.0074E-12	940.879E-3	-28.9561E-3	12.2729E-12	886.805E-3	-22.0923E-3
1.25313E-3	11.7018E-12	942.316E-3	-27.4948E-3	11.8091E-12	886.500E-3	-7.85339E-3
1.24812E-3	11.3556E-12	939.385E-3	-15.4184E-3	11.4896E-12	882.864E-3	-1.96228E-3
1.24312E-3	11.2750E-12	922.983E-3	-16.2260E-3	11.2565E-12	856.846E-3	2.03646E-3
1.23812E-3	11.1094E-12	908.974E-3	-27.7630E-3	11.0459E-12	834.940E-3	926.994E-6
1.23312E-3	10.7395E-12	895.539E-3	-25.2372E-3	10.6893E-12	824.369E-3	-21.7736E-3
1.22811E-3	10.4140E-12	879.377E-3	-19.3419E-3	10.3158E-12	806.306E-3	-30.6865E-3
1.22311E-3	10.2519E-12	874.476E-3	-10.1533E-3	10.1072E-12	793.096E-3	-9.97095E-3
1.21811E-3	10.0501E-12	858.794E-3	-4.07680E-3	9.89721E-12	775.855E-3	-745.570E-6
1.21311E-3	9.73538E-12	821.720E-3	-17.9298E-3	9.50073E-12	747.087E-3	-6.46101E-3
1.20810E-3	9.30030E-12	808.149E-3	-24.1728E-3	9.13236E-12	736.391E-3	-10.9854E-3
1.20310E-3	9.04289E-12	813.400E-3	-10.6856E-3	8.93860E-12	732.501E-3	-26.1549E-3
1.19810E-3	8.87896E-12	802.523E-3	-1.55060E-3	8.72272E-12	717.081E-3	-25.6136E-3
1.19310E-3	8.55000E-12	775.524E-3	-4.30551E-3	8.53599E-12	704.515E-3	2.61163E-3
1.18809E-3	8.22824E-12	747.204E-3	-3.69507E-3	8.23371E-12	689.711E-3	2.25355E-3
1.18309E-3	8.00238E-12	735.160E-3	517.360E-6	8.05067E-12	669.678E-3	-23.5198E-3
1.17809E-3	7.73926E-12	733.867E-3	-373.186E-6	7.90625E-12	667.308E-3	-20.6607E-3
1.17309E-3	7.45191E-12	715.539E-3	-3.89667E-3	7.70926E-12	669.677E-3	-9.80640E-3
1.16808E-3	7.16437E-12	681.203E-3	-16.5975E-3	7.42458E-12	645.301E-3	-15.6534E-3
1.16308E-3	6.98344E-12	660.623E-3	-25.0483E-3	7.19639E-12	614.313E-3	-15.6760E-3
1.15808E-3	6.86256E-12	653.734E-3	-6.79068E-3	7.01053E-12	603.962E-3	-24.1211E-3
1.15308E-3	6.61466E-12	643.655E-3	6.90972E-3	6.87049E-12	592.098E-3	-43.0980E-3
1.14807E-3	6.43408E-12	629.433E-3	-10.1483E-3	6.60166E-12	572.666E-3	-35.0209E-3
1.14307E-3	6.37711E-12	619.144E-3	-19.4239E-3	6.33958E-12	555.008E-3	-22.3644E-3
1.13807E-3	6.27024E-12	604.504E-3	-18.9773E-3	6.19077E-12	531.134E-3	-28.7752E-3
1.13307E-3	5.96910E-12	588.192E-3	-33.9556E-3	6.03735E-12	516.360E-3	-29.5299E-3
1.12806E-3	5.78765E-12	578.442E-3	-39.4722E-3	5.78218E-12	519.860E-3	-33.7499E-3
1.12306E-3	5.73388E-12	563.102E-3	-29.2086E-3	5.51946E-12	509.872E-3	-36.3580E-3
1.11806E-3	5.55093E-12	544.212E-3	-31.3016E-3	5.35853E-12	482.625E-3	-17.3672E-3
1.11306E-3	5.29273E-12	533.260E-3	-41.0106E-3	5.31640E-12	458.797E-3	-14.0560E-3
1.10805E-3	5.14139E-12	519.800E-3	-39.3128E-3	5.12631E-12	432.836E-3	-34.5293E-3
1.10305E-3	4.99341E-12	499.083E-3	-32.4986E-3	4.85617E-12	419.587E-3	-35.2027E-3
1.09805E-3	4.75892E-12	488.043E-3	-32.0409E-3	4.73182E-12	433.862E-3	-22.7352E-3
1.09305E-3	4.48406E-12	472.194E-3	-34.7566E-3	4.65052E-12	437.177E-3	-16.0347E-3
1.08804E-3	4.37013E-12	439.913E-3	-30.1301E-3	4.58471E-12	409.574E-3	-7.25603E-3
1.08304E-3	4.32087E-12	416.296E-3	-16.9435E-3	4.38450E-12	388.941E-3	-14.5646E-3
1.07804E-3	4.12638E-12	407.059E-3	-2.97091E-3	4.15591E-12	375.137E-3	-30.5334E-3
1.07304E-3	3.89068E-12	405.040E-3	-7.54728E-3	4.03767E-12	354.814E-3	-22.9231E-3
1.06803E-3	3.85044E-12	402.595E-3	-23.7854E-3	3.96863E-12	344.172E-3	-7.77073E-3
1.06303E-3	3.86848E-12	372.533E-3	-17.0061E-3	3.88075E-12	320.746E-3	-8.82410E-3
1.05803E-3	3.64619E-12	333.342E-3	708.906E-6	3.66219E-12	290.544E-3	-16.3466E-3
1.05303E-3	3.47217E-12	328.523E-3	-718.131E-6	3.48878E-12	292.435E-3	-15.9851E-3
1.04802E-3	3.40182E-12	335.759E-3	-10.2418E-3	3.37007E-12	296.385E-3	-10.6432E-3
1.04302E-3	3.49854E-12	330.599E-3	-18.5774E-3	3.55035E-12	276.396E-3	1.44576E-3
1.03802E-3	3.40109E-12	331.899E-3	-24.0193E-3	3.28789E-12	254.965E-3	3.88331E-3
1.03302E-3	3.15327E-12	331.282E-3	-15.1642E-3	3.04703E-12	234.939E-3	-22.6223E-3
1.02801E-3	2.96261E-12	310.304E-3	-9.83459E-3	2.78357E-12	216.764E-3	-42.4118E-3
1.02301E-3	2.82655E-12	297.889E-3	-22.6508E-3	2.73124E-12	216.991E-3	-30.7289E-3
1.01801E-3	2.75553E-12	292.552E-3	-26.9428E-3	2.66028E-12	218.319E-3	-17.5592E-3
1.01301E-3	2.55233E-12	261.622E-3	-14.2533E-3	2.51257E-12	195.352E-3	-9.82961E-3
1.00800E-3	2.57257E-12	228.394E-3	-4.23244E-3	2.35956E-12	170.554E-3	-6.83196E-3
1.00300E-3	2.46071E-12	219.346E-3	2.81808E-3	2.33757E-12	167.316E-3	-25.2417E-3
997.999E-6	2.30239E-12	213.903E-3	5.68775E-3	2.39673E-12	167.406E-3	-34.0952E-3
992.997E-6	2.33128E-12	205.721E-3	-4.12034E-3	2.24532E-12	171.213E-3	-16.8385E-3
987.994E-6	2.31184E-12	194.889E-3	-12.8971E-3	2.12304E-12	177.485E-3	-5.36730E-3
982.991E-6	2.16159E-12	180.902E-3	-21.1034E-3	2.08594E-12	156.721E-3	-9.03774E-3
977.989E-6	1.99830E-12	182.025E-3	-37.5763E-3	2.15492E-12	139.224E-3	-9.27741E-3
972.986E-6	2.00901E-12	187.279E-3	-42.9673E-3	2.06513E-12	149.274E-3	-9.87980E-3
967.984E-6	2.07024E-12	178.617E-3	-32.5086E-3	1.91591E-12	147.589E-3	-16.3225E-3
962.981E-6	1.94843E-12	166.552E-3	-25.1659E-3	1.86072E-12	135.580E-3	-8.21288E-3
957.979E-6	1.76208E-12	159.762E-3	-17.5982E-3	1.89171E-12	142.863E-3	-7.77513E-3
952.976E-6	1.75420E-12	149.920E-3	-4.87173E-3	1.87241E-12	140.663E-3	-30.1967E-3
947.974E-6	1.82976E-12	147.713E-3	-4.38868E-3	1.80276E-12	126.666E-3	-38.2708E-3
942.971E-6	1.82477E-12	153.487E-3	-12.0522E-3	1.70127E-12	133.110E-3	-25.5589E-3
937.969E-6	1.63475E-12	142.581E-3	-20.6547E-3	1.64249E-12	121.143E-3	-15.9585E-3
932.966E-6	1.64444E-12	115.337E-3	-26.8998E-3	1.62277E-12	93.5329E-3	-9.91459E-3
927.964E-6	1.67756E-12	105.155E-3	-13.4507E-3	1.62687E-12	95.1852E-3	-10.4381E-3
922.961E-6	1.61766E-12	118.767E-3	7.97038E-3	1.57845E-12	101.086E-3	-17.0336E-3
917.959E-6	1.52654E-12	126.171E-3	8.97431E-3	1.45680E-12	94.1769E-3	-7.68553E-3
912.956E-6	1.47817E-12	120.651E-3	-3.85136E-3	1.44273E-12	96.5493E-3	7.07351E-3
907.954E-6	1.43594E-12	109.871E-3	-4.35336E-3	1.49016E-12	88.3116E-3	7.70757E-3
902.951E-6	1.46689E-12	100.907E-3	4.31341E-3	1.44317E-12	64.7367E-3	6.16041E-3
897.949E-6	1.44437E-12	100.018E-3	199.097E-6	1.35364E-12	67.4103E-3	-348.476E-6
892.946E-6	1.40289E-12	96.3844E-3	-7.87605E-3	1.28004E-12	78.1121E-3	-17.8182E-3
887.944E-6	1.31984E-12	84.9232E-3	-8.24200E-3	1.32427E-12	67.6316E-3	-22.1337E-3
882.941E-6	1.28752E-12	82.2556E-3	-9.63123E-3	1.38216E-12	62.0713E-3	-14.3959E-3
877.939E-6	1.30948E-12	81.4076E-3	-14.7607E-3	1.32793E-12	65.6306E-3	-19.9601E-3
872.936E-6	1.34073E-12	64.2477E-3	-21.9223E-3	1.17131E-12	58.6199E-3	-28.4234E-3
867.934E-6	1.20580E-12	57.8780E-3	-27.1653E-3	1.18941E-12	62.3491E-3	-26.6771E-3
862.931E-6	1.12993E-12	71.1445E-3	-26.6856E-3	1.30811E-12	77.8725E-3	-26.1893E-3
857.929E-6	1.14152E-12	78.5395E-3	-26.2130E-3	1.18995E-12	69.0643E-3	-15.0014E-3
852.926E-6	1.22872E-12	78.6948E-3	-29.4221E-3	1.11368E-12	52.8802E-3	4.65219E-3
847.924E-6	1.09105E-12	70.3032E-3	-20.6849E-3	1.05346E-12	55.5362E-3	-3.26503E-3
842.921E-6	1.03045E-12	57.6762E-3	-5.22324E-3	1.14703E-12	58.6504E-3	-20.2189E-3
837.919E-6	1.03450E-12	62.8282E-3	-6.83178E-3	1.07756E-12	65.0830E-3	-12.2185E-3
832.916E-6	1.08919E-12	70.0340E-3	-17.8013E-3	1.01928E-12	65.5329E-3	-6.38729E-3
827.914E-6	1.05588E-12	60.7457E-3	-20.8801E-3	953.733E-15	40.0827E-3	-19.5741E-3
822.911E-6	953.306E-15	58.0678E-3	-15.3832E-3	999.039E-15	32.5177E-3	-28.7246E-3
817.909E-6	938.971E-15	62.1970E-3	-12.7318E-3	1.02650E-12	53.1778E-3	-30.9304E-3
812.906E-6	979.987E-15	52.5394E-3	-26.9326E-3	1.03290E-12	55.7987E-3	-23.0120E-3
807.904E-6	989.491E-15	36.3251E-3	-38.1537E-3	934.219E-15	44.4515E-3	-11.7640E-3
802.901E-6	925.744E-15	32.7272E-3	-20.3414E-3	896.203E-15	38.0444E-3	-20.4465E-3
797.899E-6	932.319E-15	42.0958E-3	-3.19560E-3	854.420E-15	22.0619E-3	-30.1275E-3
792.896E-6	931.150E-15	47.9842E-3	-10.6235E-3	932.258E-15	14.1327E-3	-26.3200E-3
787.894E-6	961.921E-15	43.2328E-3	-23.6684E-3	900.284E-15	36.7747E-3	-17.8021E-3
782.891E-6	921.376E-15	28.4536E-3	-34.6468E-3	851.360E-15	47.2211E-3	-5.69727E-3
777.889E-6	911.732E-15	19.5155E-3	-41.7747E-3	820.921E-15	33.0521E-3	3.47671E-3
772.886E-6	873.533E-15	27.3933E-3	-32.8052E-3	872.452E-15	29.3176E-3	-7.36004E-3
767.884E-6	814.957E-15	26.5352E-3	-24.7123E-3	906.736E-15	25.5019E-3	-23.6711E-3
762.881E-6	847.724E-15	20.6418E-3	-34.4891E-3	820.738E-15	21.8076E-3	-11.4796E-3
757.879E-6	890.649E-15	20.9812E-3	-41.0529E-3	727.851E-15	30.6825E-3	5.29880E-3
752.876E-6	811.922E-15	18.7792E-3	-38.5813E-3	775.188E-15	17.3386E-3	-8.98100E-3
747.874E-6	731.705E-15	21.4901E-3	-35.0333E-3	898.435E-15	3.35871E-3	-22.0271E-3
742.871E-6	745.351E-15	27.7957E-3	-24.5993E-3	801.538E-15	27.3808E-3	-8.31606E-3
737.869E-6	865.424E-15	23.8857E-3	-22.9432E-3	733.178E-15	42.6485E-3	-3.21068E-3
732.866E-6	800.910E-15	10.3651E-3	-30.7655E-3	735.253E-15	25.6097E-3	-5.26169E-3
727.864E-6	632.061E-15	3.39578E-3	-24.0449E-3	804.773E-15	9.07538E-3	-4.54484E-3
722.861E-6	662.883E-15	6.98107E-3	-11.3840E-3	764.080E-15	13.4707E-3	-19.1278E-3
717.859E-6	761.307E-15	15.0120E-3	-10.0343E-3	675.291E-15	33.0322E-3	-16.5873E-3
712.856E-6	759.798E-15	22.0155E-3	-14.3562E-3	665.360E-15	55.4305E-3	9.62640E-3
707.854E-6	685.222E-15	25.8056E-3	-18.6292E-3	704.317E-15	54.7490E-3	9.07500E-3
702.851E-6	664.182E-15	30.7066E-3	-19.5711E-3	787.927E-15	29.8007E-3	-9.70815E-3
697.849E-6	720.282E-15	35.5795E-3	-19.2139E-3	691.683E-15	25.4974E-3	-20.9120E-3
692.846E-6	748.821E-15	29.4105E-3	-23.2231E-3	655.794E-15	36.5529E-3	-38.3480E-3
687.844E-6	635.749E-15	13.9055E-3	-22.7222E-3	645.942E-15	32.2055E-3	-41.5142E-3
682.841E-6	687.725E-15	13.4105E-3	-18.8403E-3	684.280E-15	26.9363E-3	-24.5785E-3
677.839E-6	661.462E-15	26.2714E-3	-15.9147E-3	674.837E-15	16.5867E-3	-21.3778E-3
672.836E-6	688.980E-15	28.7069E-3	-19.1307E-3	683.749E-15	6.26749E-3	-30.7359E-3
667.834E-6	645.419E-15	30.3846E-3	-26.2515E-3	592.475E-15	24.1915E-3	-30.0902E-3
662.831E-6	557.728E-15	34.0611E-3	-17.4981E-3	623.306E-15	37.9209E-3	-16.6393E-3
657.829E-6	583.694E-15	24.9834E-3	-15.2547E-3	651.461E-15	16.2119E-3	-11.6927E-3
652.826E-6	605.144E-15	21.0932E-3	-30.9203E-3	720.492E-15	-4.56785E-3	-18.8527E-3
647.824E-6	593.181E-15	30.6228E-3	-32.6004E-3	586.441E-15	6.57908E-3	-28.9037E-3
642.821E-6	591.507E-15	34.1962E-3	-26.7454E-3	538.406E-15	27.8536E-3	-26.0239E-3
637.819E-6	555.645E-15	31.9942E-3	-30.6639E-3	589.589E-15	42.3154E-3	-3.23486E-3
632.816E-6	514.533E-15	29.0538E-3	-30.5578E-3	655.934E-15	41.4950E-3	327.724E-6
627.814E-6	553.377E-15	25.1752E-3	-18.5076E-3	543.429E-15	13.1097E-3	-20.7640E-3
622.811E-6	623.934E-15	24.5857E-3	-7.20289E-3	443.723E-15	-4.18189E-3	-21.8485E-3
617.809E-6	504.950E-15	21.9642E-3	-5.41342E-3	494.749E-15	19.9484E-3	-12.7652E-3
612.806E-6	420.548E-15	13.9846E-3	-572.676E-6	587.348E-15	46.2317E-3	-11.6153E-3
607.804E-6	515.222E-15	16.6475E-3	10.4426E-3	541.205E-15	44.0109E-3	-114.973E-6
602.801E-6	550.334E-15	27.2093E-3	11.2548E-3	444.438E-15	27.7219E-3	4.08702E-3
597.799E-6	524.996E-15	33.2838E-3	4.38561E-3	470.666E-15	13.4607E-3	-15.0492E-3
592.796E-6	385.513E-15	32.5723E-3	-5.98499E-3	519.076E-15	15.2296E-3	-25.6525E-3
587.794E-6	427.288E-15	23.1367E-3	-8.59612E-3	535.023E-15	31.6271E-3	-27.1866E-3
582.791E-6	540.813E-15	7.88251E-3	-913.627E-6	434.298E-15	35.3958E-3	-31.6134E-3
577.789E-6	502.971E-15	1.23186E-3	-4.59579E-3	383.534E-15	22.3897E-3	-28.0368E-3
572.786E-6	426.145E-15	13.1149E-3	-14.5622E-3	372.888E-15	18.5786E-3	-29.3496E-3
567.784E-6	395.680E-15	25.4828E-3	-15.3940E-3	422.797E-15	16.7285E-3	-30.0896E-3
562.781E-6	434.350E-15	33.6330E-3	-11.3742E-3	431.691E-15	5.11876E-3	-8.32093E-3
557.779E-6	448.162E-15	38.6610E-3	-12.5406E-3	373.986E-15	12.5542E-3	5.91882E-3
552.776E-6	358.379E-15	30.8382E-3	-12.1805E-3	389.995E-15	25.8718E-3	-5.23442E-3
547.774E-6	340.618E-15	23.8783E-3	-7.99149E-3	368.310E-15	11.0018E-3	-10.8880E-3
542.771E-6	367.395E-15	26.2810E-3	-11.5551E-3	419.588E-15	-1.66119E-3	-5.99597E-3
537.769E-6	411.218E-15	24.4128E-3	-23.9816E-3	392.637E-15	13.1298E-3	-3.53352E-3
532.766E-6	361.474E-15	22.0949E-3	-27.7243E-3	371.205E-15	23.6727E-3	-1.16036E-3
527.764E-6	312.576E-15	28.5759E-3	-13.4242E-3	269.608E-15	18.6039E-3	-2.01194E-3
522.761E-6	298.538E-15	31.1730E-3	1.21466E-3	335.569E-15	8.27244E-3	-13.7431E-3
517.759E-6	317.947E-15	26.3745E-3	-2.17702E-3	369.513E-15	1.39111E-3	-24.0571E-3
512.756E-6	309.568E-15	30.3550E-3	-18.5286E-3	299.297E-15	13.2320E-3	-23.0926E-3
507.754E-6	342.998E-15	29.5706E-3	-21.6597E-3	217.248E-15	24.5146E-3	-16.8896E-3
502.751E-6	309.272E-15	18.4073E-3	-11.6321E-3	295.731E-15	13.9570E-3	-3.76929E-3
497.749E-6	189.128E-15	24.9005E-3	-7.72981E-3	374.745E-15	7.00351E-3	1.96294E-3
492.746E-6	317.250E-15	32.2440E-3	-8.09657E-3	290.438E-15	13.4251E-3	-25.5122E-3
487.744E-6	369.775E-15	22.8561E-3	-15.0753E-3	165.081E-15	15.9651E-3	-47.0068E-3
482.741E-6	290.429E-15	22.7768E-3	-26.7212E-3	243.301E-15	13.2236E-3	-32.1832E-3
477.739E-6	190.637E-15	31.2182E-3	-34.5839E-3	291.371E-15	8.01263E-3	-18.2616E-3
472.736E-6	264.786E-15	33.0984E-3	-39.1184E-3	281.440E-15	267.674E-6	-18.1823E-3
467.734E-6	305.252E-15	35.3567E-3	-36.0751E-3	216.760E-15	4.48542E-3	-23.7581E-3
462.731E-6	251.044E-15	34.5485E-3	-25.8628E-3	162.552E-15	15.3292E-3	-28.5739E-3
457.729E-6	199.487E-15	27.8390E-3	-27.0441E-3	294.240E-15	14.4640E-3	-15.1409E-3
452.726E-6	174.201E-15	27.2472E-3	-38.5776E-3	271.770E-15	14.6568E-3	4.90637E-3
447.724E-6	233.457E-15	31.9544E-3	-38.9801E-3	207.308E-15	21.8055E-3	-3.25082E-3
442.721E-6	265.972E-15	31.8568E-3	-27.4675E-3	209.200E-15	22.1303E-3	-21.0566E-3
437.719E-6	173.233E-15	26.4353E-3	-19.1844E-3	209.732E-15	24.5916E-3	-9.15759E-3
432.716E-6	184.124E-15	22.8890E-3	-15.6512E-3	187.550E-15	25.2527E-3	6.85777E-3
427.714E-6	227.371E-15	18.4717E-3	-6.56696E-3	202.635E-15	10.5048E-3	3.59190E-3
422.711E-6	195.450E-15	18.2635E-3	-4.34001E-3	160.189E-15	3.25066E-3	-817.461E-6
417.709E-6	122.121E-15	21.7180E-3	-13.9185E-3	105.589E-15	11.9657E-3	-7.99512E-3
412.706E-6	151.165E-15	12.3998E-3	-22.7020E-3	101.927E-15	12.0407E-3	-18.3879E-3
407.704E-6	132.252E-15	1.29495E-3	-22.5320E-3	155.376E-15	11.1461E-3	-18.3890E-3
402.701E-6	142.463E-15	4.15542E-3	-8.02625E-3	230.754E-15	23.4899E-3	-11.5869E-3
397.699E-6	160.137E-15	11.7618E-3	137.268E-6	92.0825E-15	19.4445E-3	-18.7053E-3
392.696E-6	136.961E-15	20.4588E-3	-9.49385E-3	90.2689E-15	-5.80375E-3	-34.9200E-3
387.694E-6	114.343E-15	30.0609E-3	-15.2830E-3	140.047E-15	-7.09921E-3	-39.1792E-3
382.691E-6	56.6560E-15	25.3970E-3	-14.5841E-3	167.304E-15	11.9052E-3	-34.9108E-3
377.689E-6	96.5642E-15	17.9526E-3	-12.3447E-3	111.675E-15	12.1298E-3	-22.7049E-3
372.686E-6	178.168E-15	29.0357E-3	-3.19068E-3	23.6447E-15	10.3280E-3	-10.6930E-3
367.684E-6	69.1071E-15	40.5301E-3	-7.00602E-3	86.0836E-15	19.0167E-3	-11.3776E-3
362.681E-6	20.6975E-15	36.6625E-3	-31.8028E-3	149.116E-15	14.2310E-3	-15.3546E-3
357.679E-6	44.1612E-15	21.8146E-3	-41.1220E-3	97.4274E-15	10.0065E-3	-20.0572E-3
352.676E-6	113.209E-15	704.372E-6	-29.7151E-3	29.3471E-15	9.03357E-3	-17.0810E-3
347.674E-6	54.1710E-15	-10.2102E-3	-23.2451E-3	50.1252E-15	-3.56809E-3	-5.09620E-3
342.671E-6	-17.5977E-15	-8.24533E-3	-22.8109E-3	94.5588E-15	190.194E-6	-6.89529E-3
337.669E-6	18.5613E-15	-8.24404E-3	-19.1345E-3	80.3027E-15	18.4008E-3	-31.7148E-3
332.666E-6	114.988E-15	-4.15877E-3	-14.9219E-3	33.1051E-15	21.1513E-3	-43.8623E-3
327.664E-6	82.6482E-15	17.5190E-3	-15.9142E-3	5.83983E-15	15.9729E-3	-19.6358E-3
322.661E-6	-46.6853E-15	35.1291E-3	-15.5402E-3	33.9770E-15	9.48456E-3	-5.08556E-3
317.659E-6	-47.5572E-15	32.5803E-3	-14.1679E-3	79.8319E-15	-6.45500E-3	-16.5731E-3
312.656E-6	37.6740E-15	27.9393E-3	-18.6971E-3	42.3825E-15	-888.593E-6	-28.5614E-3
307.654E-6	47.9018E-15	19.1168E-3	-26.2040E-3	-5.06802E-15	25.4935E-3	-40.2612E-3
302.651E-6	-25.7328E-15	9.39012E-3	-22.4526E-3	-20.3791E-15	19.9524E-3	-47.8467E-3
297.649E-6	-38.2014E-15	13.1846E-3	-15.4627E-3	-24.2069E-15	1.81436E-3	-40.3691E-3
292.646E-6	17.5237E-15	15.7780E-3	-13.8473E-3	13.5913E-15	4.68565E-3	-32.0421E-3
287.644E-6	-28.0783E-15	319.397E-6	-12.5238E-3	21.9008E-15	8.84884E-3	-34.8809E-3
282.641E-6	-33.2052E-15	-11.9419E-3	-14.3033E-3	-56.7299E-15	13.7190E-3	-27.7782E-3
277.639E-6	-15.4527E-15	-4.41769E-3	-17.1817E-3	-74.1511E-15	17.1559E-3	-16.7280E-3
272.636E-6	-39.9627E-15	7.17924E-3	-20.6459E-3	21.0725E-15	2.63661E-3	-26.4395E-3
267.634E-6	-59.9212E-15	13.9316E-3	-27.8239E-3	44.5012E-15	-6.07438E-3	-37.0301E-3
262.631E-6	-51.6640E-15	16.7349E-3	-29.9246E-3	-65.1702E-15	10.5557E-3	-33.9350E-3
257.629E-6	8.39459E-15	18.2735E-3	-25.9087E-3	-101.547E-15	19.0041E-3	-30.0029E-3
252.626E-6	-48.0106E-15	10.7537E-3	-22.7687E-3	-40.6777E-15	13.4359E-3	-17.9470E-3
247.624E-6	-122.456E-15	6.13885E-3	-19.2013E-3	39.1476E-15	14.7908E-3	-10.7753E-3
242.621E-6	-3.42879E-15	16.8979E-3	-25.0418E-3	-9.31433E-15	7.83722E-3	-18.9216E-3
237.619E-6	-19.0712E-15	25.5086E-3	-33.0319E-3	-118.471E-15	-638.219E-6	-23.1037E-3
232.616E-6	-49.3098E-15	24.3856E-3	-27.5485E-3	-93.2638E-15	10.5612E-3	-29.3945E-3
227.614E-6	-103.657E-15	17.6190E-3	-17.6018E-3	-6.74213E-15	17.5943E-3	-27.0571E-3
222.611E-6	-49.5365E-15	5.34319E-3	-10.4941E-3	-46.5458E-15	2.55274E-3	-4.79639E-3
217.609E-6	-22.1143E-15	-2.65060E-3	5.47960E-3	-125.246E-15	-13.7109E-3	-2.45796E-3
212.606E-6	-49.6847E-15	6.74489E-3	14.5933E-3	-128.978E-15	-11.1199E-3	-16.2295E-3
207.604E-6	-137.183E-15	12.1214E-3	-1.85067E-3	-73.8634E-15	2.50096E-3	-1.94348E-3
202.601E-6	-79.2519E-15	-109.907E-6	-15.8036E-3	-9.83748E-15	13.8005E-3	16.4584E-3
197.599E-6	-34.8881E-15	-9.98561E-3	-19.0893E-3	-106.360E-15	15.4435E-3	9.14786E-3
192.596E-6	-21.4952E-15	-17.9559E-3	-19.1870E-3	-129.222E-15	60.5555E-6	-1.97541E-3
187.594E-6	-143.496E-15	-21.6766E-3	-15.3014E-3	-153.645E-15	-876.517E-6	-13.1093E-3
182.591E-6	-129.091E-15	-7.04816E-3	-17.3317E-3	-65.2138E-15	14.8288E-3	-24.8601E-3
177.589E-6	-65.9724E-15	9.81944E-3	-24.6320E-3	-55.9365E-15	16.8530E-3	-17.8877E-3
172.586E-6	-77.2116E-15	11.8828E-3	-24.6273E-3	-135.047E-15	15.1378E-3	1.67258E-3
167.584E-6	-107.965E-15	5.48240E-3	-18.5331E-3	-163.646E-15	11.7624E-3	2.24415E-3
162.581E-6	-95.6093E-15	6.85468E-3	-21.5545E-3	-181.399E-15	4.44414E-3	-14.1868E-3
157.579E-6	-122.029E-15	19.0737E-3	-29.7589E-3	-88.8344E-15	8.36164E-3	-29.3213E-3
152.576E-6	-76.2089E-15	18.5194E-3	-29.7604E-3	-16.2723E-15	12.1402E-3	-40.1448E-3
147.574E-6	-93.6126E-15	2.92674E-3	-20.1127E-3	-164.788E-15	2.46592E-3	-34.8326E-3
142.571E-6	-68.6928E-15	-2.12474E-3	-10.1384E-3	-129.859E-15	5.24452E-3	-15.6876E-3
137.569E-6	-91.6507E-15	277.771E-6	-17.1514E-3	-115.298E-15	21.3485E-3	-12.5690E-3
132.566E-6	-144.908E-15	171.508E-6	-32.0645E-3	-43.8515E-15	16.4470E-3	-21.4311E-3
127.564E-6	-99.7597E-15	-9.68120E-3	-36.1871E-3	-110.118E-15	16.8611E-3	-18.8939E-3
122.561E-6	-29.2205E-15	-20.3625E-3	-24.7230E-3	-232.651E-15	29.8283E-3	-16.4033E-3
117.559E-6	-174.615E-15	-12.1161E-3	-4.61910E-3	-160.743E-15	11.2150E-3	-10.1366E-3
112.556E-6	-199.003E-15	-3.90744E-3	1.07746E-3	-23.0560E-15	-10.3596E-3	-6.52135E-3
107.554E-6	-124.470E-15	-7.40476E-3	-16.1878E-3	-109.002E-15	-1.85715E-3	-22.2144E-3
102.551E-6	-59.6858E-15	-11.6678E-3	-30.1691E-3	-234.490E-15	-560.260E-6	-28.9692E-3
97.5488E-6	-111.130E-15	-18.2297E-3	-23.0095E-3	-159.208E-15	-17.6808E-3	-11.3301E-3
92.5463E-6	-207.897E-15	-18.5963E-3	-22.2184E-3	-101.922E-15	-25.1050E-3	-8.13224E-3
87.5438E-6	-156.915E-15	-5.41921E-3	-33.2103E-3	-88.3636E-15	-30.9854E-3	-29.7667E-3
82.5413E-6	-70.5413E-15	-291.931E-6	-30.4019E-3	-145.554E-15	-35.8533E-3	-32.2414E-3
77.5388E-6	-76.0868E-15	-4.73670E-3	-27.5200E-3	-150.489E-15	-19.0202E-3	-14.2944E-3
72.5363E-6	-180.012E-15	627.232E-6	-34.7564E-3	-125.769E-15	653.225E-6	-5.22294E-3
67.5338E-6	-195.864E-15	10.7144E-3	-38.3817E-3	-89.5930E-15	3.10848E-3	-2.41363E-3
62.5313E-6	-102.995E-15	13.9926E-3	-34.2369E-3	-140.165E-15	-819.197E-6	-17.0945E-3
57.5288E-6	-101.451E-15	12.3949E-3	-22.5157E-3	-156.400E-15	2.46568E-3	-45.1300E-3
52.5263E-6	-166.977E-15	3.41019E-3	-17.1964E-3	-180.989E-15	11.7296E-3	-31.3219E-3
47.5238E-6	-181.294E-15	-8.08073E-3	-21.7185E-3	-109.473E-15	6.36131E-3	6.50010E-3
42.5213E-6	-103.117E-15	-7.48738E-3	-17.1940E-3	-67.4721E-15	-16.6147E-3	10.0526E-3
37.5188E-6	-130.600E-15	-3.69281E-3	-7.21294E-3	-85.8960E-15	-23.9923E-3	-5.99663E-3
32.5163E-6	-162.007E-15	-10.0603E-3	-10.0947E-3	-198.323E-15	-1.47083E-3	-13.9414E-3
27.5138E-6	-164.945E-15	-14.5484E-3	-13.9732E-3	-191.557E-15	6.53517E-3	-14.7162E-3
22.5113E-6	-181.791E-15	-16.5287E-3	-14.2935E-3	-138.613E-15	-10.0450E-3	-9.42175E-3
17.5088E-6	-155.014E-15	-17.4827E-3	-19.9827E-3	-82.4693E-15	-9.45670E-3	-8.55807E-3
12.5063E-6	-167.544E-15	-2.90323E-3	-24.4476E-3	-187.441E-15	393.119E-6	-21.9087E-3
7.50375E-6	-128.969E-15	11.6074E-3	-22.8045E-3	-205.996E-15	1.23178E-3	-32.0977E-3
2.50125E-6	-170.508E-15	4.41960E-3	-17.9667E-3	-187.197E-15	3.37653E-3	-27.3841E-3
-2.50125E-6	-210.007E-15	-4.11369E-3	-3.12518E-3	-78.8246E-15	2.82132E-3	-16.8138E-3
-7.50375E-6	-133.634E-15	3.78941E-3	9.02558E-3	-153.174E-15	-4.15116E-3	-581.142E-6
-12.5063E-6	-64.1762E-15	4.50995E-3	-3.91246E-3	-248.851E-15	-10.5149E-3	12.8906E-3
-17.5088E-6	-185.418E-15	-9.64675E-3	-22.5818E-3	-199.945E-15	-12.2669E-3	-1.47093E-3
-22.5113E-6	-244.927E-15	-17.3761E-3	-26.7349E-3	-127.374E-15	-5.02644E-3	-27.3531E-3
-27.5138E-6	-187.851E-15	-16.2708E-3	-25.2258E-3	-155.031E-15	6.15022E-3	-35.3380E-3
-32.5163E-6	-102.166E-15	-13.8477E-3	-17.6698E-3	-247.936E-15	4.06523E-3	-26.2799E-3
-37.5188E-6	-192.211E-15	-8.22086E-3	-10.6126E-3	-186.151E-15	-9.40457E-3	-11.5151E-3
-42.5213E-6	-236.557E-15	-1.29384E-3	-18.1949E-3	-157.394E-15	-7.30529E-3	-10.6596E-3
-47.5238E-6	-235.345E-15	1.66297E-3	-21.3019E-3	-111.967E-15	7.33797E-3	-21.2975E-3
-52.5263E-6	-80.6644E-15	2.91708E-3	-12.8223E-3	-169.200E-15	6.64136E-3	-17.5201E-3
-57.5288E-6	-164.875E-15	3.64836E-3	-12.6520E-3	-227.820E-15	-988.778E-6	-11.3238E-3
-62.5313E-6	-186.438E-15	6.38361E-3	-22.8083E-3	-178.024E-15	2.48417E-3	-34.4965E-3
-67.5338E-6	-233.479E-15	8.11015E-3	-27.0705E-3	-183.169E-15	4.12538E-3	-52.0495E-3
-72.5363E-6	-182.262E-15	1.41476E-3	-23.1431E-3	-152.433E-15	5.47160E-3	-26.4386E-3
-77.5388E-6	-173.107E-15	-6.22668E-3	-17.3450E-3	-226.617E-15	11.8948E-3	-3.35447E-3
-82.5413E-6	-230.331E-15	-3.72873E-3	-17.3657E-3	-221.900E-15	4.32887E-3	-9.40635E-3
-87.5438E-6	-224.603E-15	-11.6949E-3	-20.1462E-3	-252.313E-15	-3.03366E-3	-14.2989E-3
-92.5463E-6	-241.370E-15	-27.0998E-3	-12.6051E-3	-168.808E-15	4.81989E-3	-19.2774E-3
-97.5488E-6	-158.484E-15	-14.8934E-3	-14.2735E-3	-131.873E-15	9.82092E-3	-22.1622E-3
-102.551E-6	-174.859E-15	4.69284E-3	-25.5411E-3	-243.489E-15	13.2847E-3	-7.47101E-3
-107.554E-6	-202.866E-15	5.18648E-3	-12.1115E-3	-273.692E-15	16.5952E-3	358.146E-6
-112.556E-6	-246.296E-15	5.30769E-3	6.67198E-3	-215.561E-15	8.43609E-3	-8.11186E-3
-117.559E-6	-217.008E-15	11.0470E-3	4.15877E-3	-130.835E-15	2.95261E-3	-14.0018E-3
-122.561E-6	-216.450E-15	-221.610E-6	-6.47246E-3	-204.435E-15	14.3950E-3	-13.7137E-3
-127.564E-6	-182.550E-15	-18.2799E-3	-14.2294E-3	-266.586E-15	17.2883E-3	-9.96561E-3
-132.566E-6	-220.880E-15	-15.5792E-3	-12.6039E-3	-216.180E-15	4.45637E-3	-6.17004E-3
-137.569E-6	-297.845E-15	-361.459E-6	-1.63826E-3	-142.240E-15	6.99990E-3	-6.61922E-3
-142.571E-6	-240.018E-15	7.80574E-3	-7.91188E-3	-205.830E-15	13.2336E-3	-17.7145E-3
-147.574E-6	-185.331E-15	4.63313E-3	-28.3619E-3	-283.101E-15	6.71821E-3	-32.1673E-3
-152.576E-6	-212.500E-15	-1.38694E-3	-23.9681E-3	-249.592E-15	10.8972E-3	-27.3122E-3
-157.579E-6	-275.933E-15	-1.89797E-3	-7.09944E-3	-182.619E-15	6.83848E-3	-19.2290E-3
-162.581E-6	-239.417E-15	4.08323E-3	-2.21351E-3	-179.925E-15	-10.3995E-3	-21.0046E-3
-167.584E-6	-201.619E-15	9.05996E-3	-9.27976E-3	-253.804E-15	-4.82099E-3	-25.4413E-3
-172.586E-6	-217.959E-15	8.38988E-3	-22.9382E-3	-299.371E-15	8.14021E-3	-35.3410E-3
-177.589E-6	-325.398E-15	83.9584E-6	-25.5076E-3	-221.821E-15	13.5654E-3	-30.5711E-3
-182.591E-6	-285.891E-15	-12.5505E-3	-11.8532E-3	-202.900E-15	18.4031E-3	-4.91878E-3
-187.594E-6	-185.130E-15	-7.16323E-3	-3.04651E-3	-258.948E-15	4.25718E-3	-877.040E-6
-192.596E-6	-209.492E-15	10.5764E-3	-10.0349E-3	-278.567E-15	-11.3779E-3	-11.2242E-3
-197.599E-6	-297.278E-15	14.7358E-3	-23.1710E-3	-291.166E-15	895.953E-6	-15.8389E-3
-202.601E-6	-297.121E-15	5.55589E-3	-26.9415E-3	-276.151E-15	19.2892E-3	-32.5662E-3
-207.604E-6	-221.263E-15	-2.25807E-3	-13.0745E-3	-227.158E-15	19.1355E-3	-38.8361E-3
-212.606E-6	-273.082E-15	-2.02829E-3	-5.97144E-3	-239.408E-15	11.9756E-3	-19.7612E-3
-217.609E-6	-273.300E-15	5.97674E-3	-14.2023E-3	-306.111E-15	4.32889E-3	-5.79291E-3
-222.611E-6	-252.810E-15	15.1884E-3	-21.4760E-3	-372.962E-15	-2.61976E-3	-8.79285E-3
-227.614E-6	-316.696E-15	2.06517E-3	-20.9852E-3	-242.826E-15	6.98506E-3	-11.3085E-3
-232.616E-6	-323.471E-15	-17.7363E-3	-13.1483E-3	-246.680E-15	21.6480E-3	-11.8236E-3
-237.619E-6	-325.163E-15	-14.2542E-3	-8.74869E-3	-337.553E-15	17.0396E-3	-17.2306E-3
-242.621E-6	-241.841E-15	-2.12422E-3	-10.2046E-3	-354.093E-15	6.82064E-3	-23.9976E-3
-247.624E-6	-280.563E-15	-1.89935E-3	-20.5510E-3	-283.789E-15	8.41045E-3	-32.6056E-3
-252.626E-6	-352.044E-15	-4.18158E-3	-26.9103E-3	-228.570E-15	11.2793E-3	-34.0693E-3
-257.629E-6	-292.256E-15	3.84499E-3	-20.7420E-3	-330.124E-15	4.10220E-3	-20.3039E-3
-262.631E-6	-224.298E-15	11.9617E-3	-19.7881E-3	-391.150E-15	-7.40861E-3	-5.74667E-3
-267.634E-6	-330.089E-15	18.1788E-3	-29.4805E-3	-344.301E-15	-11.2474E-3	-5.37113E-3
-272.636E-6	-369.352E-15	20.7801E-3	-35.1947E-3	-251.833E-15	-4.29464E-3	-13.2784E-3
-277.639E-6	-357.607E-15	4.46654E-3	-24.8906E-3	-304.027E-15	11.9300E-3	-14.5005E-3
-282.641E-6	-265.610E-15	-11.1234E-3	-4.21067E-3	-421.424E-15	20.9516E-3	-6.83304E-3
-287.644E-6	-345.827E-15	5.98130E-3	12.0797E-3	-396.975E-15	16.9133E-3	-772.592E-6
-292.646E-6	-431.852E-15	29.7199E-3	3.74718E-3	-339.776E-15	22.4856E-3	-7.79005E-3
-297.649E-6	-363.414E-15	29.7320E-3	-21.4205E-3	-347.135E-15	35.9847E-3	-20.5995E-3
-302.651E-6	-280.773E-15	18.7023E-3	-33.0689E-3	-403.863E-15	41.1024E-3	-24.2432E-3
-307.654E-6	-326.165E-15	12.9852E-3	-26.4105E-3	-438.522E-15	38.5355E-3	-20.4041E-3
-312.656E-6	-436.587E-15	20.3075E-3	-20.3843E-3	-406.025E-15	21.2304E-3	-13.7877E-3
-317.659E-6	-420.046E-15	30.4350E-3	-18.9655E-3	-368.663E-15	1.66331E-3	-2.92080E-3
-322.661E-6	-371.593E-15	30.4380E-3	-17.3157E-3	-403.968E-15	5.47519E-3	-904.541E-6
-327.664E-6	-392.720E-15	25.3118E-3	-20.8613E-3	-408.179E-15	22.4943E-3	-22.0024E-3
-332.666E-6	-467.776E-15	18.7767E-3	-18.1253E-3	-439.778E-15	29.5478E-3	-36.4738E-3
-337.669E-6	-405.790E-15	13.1908E-3	-3.05715E-3	-436.630E-15	26.3819E-3	-27.1563E-3
-342.671E-6	-437.232E-15	25.2930E-3	1.96995E-3	-373.799E-15	13.8100E-3	-20.1651E-3
-347.674E-6	-417.352E-15	39.7168E-3	-8.54040E-3	-377.609E-15	1.06308E-3	-18.5883E-3
-352.676E-6	-419.985E-15	30.5226E-3	-18.2707E-3	-468.185E-15	21.4795E-3	-12.4710E-3
-357.679E-6	-458.516E-15	22.6465E-3	-18.7849E-3	-511.773E-15	47.8238E-3	-15.6165E-3
-362.681E-6	-466.285E-15	33.1605E-3	-11.9305E-3	-464.994E-15	32.8507E-3	-17.8707E-3
-367.684E-6	-517.057E-15	36.2052E-3	-13.1462E-3	-418.067E-15	13.8705E-3	-4.63767E-3
-372.686E-6	-508.660E-15	28.0359E-3	-31.7883E-3	-471.656E-15	17.8872E-3	-6.90751E-3
-377.689E-6	-461.393E-15	29.2915E-3	-48.2452E-3	-564.917E-15	24.9681E-3	-23.9770E-3
-382.691E-6	-547.487E-15	23.4438E-3	-41.0685E-3	-524.678E-15	31.6433E-3	-29.3393E-3
-387.694E-6	-607.189E-15	12.1216E-3	-18.9862E-3	-434.180E-15	34.5863E-3	-24.6474E-3
-392.696E-6	-531.479E-15	23.8249E-3	-1.00524E-3	-502.356E-15	28.8920E-3	-22.8987E-3
-397.699E-6	-486.670E-15	39.1035E-3	2.03523E-3	-638.543E-15	28.9571E-3	-28.1239E-3
-402.701E-6	-566.243E-15	33.1144E-3	-11.2797E-3	-596.499E-15	31.9266E-3	-32.3416E-3
-407.704E-6	-648.152E-15	18.7514E-3	-17.5147E-3	-555.745E-15	24.4700E-3	-25.9039E-3
-412.706E-6	-595.853E-15	14.8576E-3	-4.50594E-3	-564.525E-15	26.0967E-3	-10.9954E-3
-417.709E-6	-536.841E-15	22.7560E-3	-1.39620E-3	-644.498E-15	31.1918E-3	-4.52849E-3
-422.711E-6	-582.818E-15	36.0620E-3	-14.5138E-3	-666.541E-15	21.7866E-3	-2.21761E-3
-427.714E-6	-697.808E-15	40.2955E-3	-27.5007E-3	-606.482E-15	21.3041E-3	809.893E-6
-432.716E-6	-683.831E-15	26.3017E-3	-37.1717E-3	-564.237E-15	33.2817E-3	-15.0503E-3
-437.719E-6	-597.231E-15	19.8018E-3	-31.5503E-3	-625.909E-15	38.6911E-3	-30.2115E-3
-442.721E-6	-559.328E-15	31.6015E-3	-17.7027E-3	-688.330E-15	39.6953E-3	-20.7628E-3
-447.724E-6	-706.580E-15	37.1589E-3	-13.2987E-3	-662.408E-15	37.1838E-3	-22.4205E-3
-452.726E-6	-723.583E-15	39.7409E-3	-20.8950E-3	-668.974E-15	27.4099E-3	-45.4821E-3
-457.729E-6	-619.282E-15	37.9878E-3	-33.7049E-3	-652.363E-15	30.6900E-3	-42.0416E-3
-462.731E-6	-631.751E-15	26.3172E-3	-36.0416E-3	-668.354E-15	45.8078E-3	-16.4452E-3
-467.734E-6	-669.584E-15	32.9964E-3	-20.1978E-3	-748.825E-15	39.0294E-3	-17.5295E-3
-472.736E-6	-725.789E-15	42.6577E-3	-5.00938E-3	-765.261E-15	24.2403E-3	-23.8243E-3
-477.739E-6	-763.561E-15	32.1557E-3	-12.3379E-3	-694.887E-15	29.2087E-3	-10.4940E-3
-482.741E-6	-761.503E-15	26.4123E-3	-23.5279E-3	-668.084E-15	38.9826E-3	-5.09212E-3
-487.744E-6	-758.809E-15	26.0270E-3	-14.9245E-3	-819.757E-15	39.3373E-3	-411.212E-6
-492.746E-6	-751.711E-15	21.4251E-3	-7.28794E-3	-846.220E-15	29.0388E-3	6.56907E-3
-497.749E-6	-764.799E-15	32.3686E-3	-11.4640E-3	-780.119E-15	20.6146E-3	-14.0449E-3
-502.751E-6	-797.662E-15	43.0530E-3	-14.1275E-3	-720.749E-15	30.3428E-3	-34.0334E-3
-507.754E-6	-794.192E-15	25.4598E-3	-22.3759E-3	-832.513E-15	47.7116E-3	-26.2110E-3
-512.756E-6	-748.685E-15	1.59575E-3	-26.0564E-3	-914.649E-15	40.5875E-3	-8.73597E-3
-517.759E-6	-831.039E-15	3.87613E-3	-10.1922E-3	-876.441E-15	16.4847E-3	3.51260E-3
-522.761E-6	-920.011E-15	24.6128E-3	-759.016E-6	-788.062E-15	16.4712E-3	-6.26047E-3
-527.764E-6	-853.396E-15	42.6650E-3	-16.7909E-3	-869.413E-15	42.3333E-3	-26.0781E-3
-532.766E-6	-796.136E-15	48.0340E-3	-32.3599E-3	-930.910E-15	55.4426E-3	-25.0662E-3
-537.769E-6	-879.248E-15	40.9565E-3	-26.4003E-3	-944.634E-15	45.2543E-3	-11.4630E-3
-542.771E-6	-969.136E-15	43.9297E-3	-13.3456E-3	-860.319E-15	32.3404E-3	-11.4909E-3
-547.774E-6	-929.594E-15	58.7854E-3	-11.4358E-3	-853.605E-15	23.9150E-3	-22.1959E-3
-552.776E-6	-796.633E-15	61.9977E-3	-24.2645E-3	-897.106E-15	29.9746E-3	-25.7517E-3
-557.779E-6	-881.376E-15	41.7450E-3	-34.3003E-3	-977.698E-15	42.9754E-3	-21.3286E-3
-562.781E-6	-990.725E-15	22.7799E-3	-30.0361E-3	-955.708E-15	44.3555E-3	-20.1816E-3
-567.784E-6	-980.968E-15	27.4619E-3	-17.3262E-3	-923.045E-15	42.3934E-3	-21.5794E-3
-572.786E-6	-951.000E-15	41.7782E-3	-3.91631E-3	-896.591E-15	40.2076E-3	-16.4982E-3
-577.789E-6	-901.160E-15	45.0869E-3	-7.98392E-3	-996.898E-15	27.4742E-3	-16.8562E-3
-582.791E-6	-1.02684E-12	32.5776E-3	-25.5329E-3	-1.01559E-12	24.7676E-3	-26.2475E-3
-587.794E-6	-1.03369E-12	21.9863E-3	-34.1376E-3	-1.02041E-12	39.9225E-3	-28.2936E-3
-592.796E-6	-1.02057E-12	32.6471E-3	-21.5048E-3	-960.748E-15	41.8595E-3	-15.5852E-3
-597.799E-6	-1.04213E-12	48.2885E-3	-2.01895E-3	-964.323E-15	23.6284E-3	-8.08234E-3
-602.801E-6	-1.02536E-12	45.6416E-3	-1.24432E-3	-1.08540E-12	12.9634E-3	-25.0618E-3
-607.804E-6	-1.06465E-12	38.3408E-3	-13.1816E-3	-1.08213E-12	23.0387E-3	-34.1566E-3
-612.806E-6	-1.10140E-12	27.1650E-3	-15.1472E-3	-1.06616E-12	37.3797E-3	-27.0703E-3
-617.809E-6	-1.11774E-12	12.8516E-3	-7.59219E-3	-1.05225E-12	41.7428E-3	-19.9085E-3
-622.811E-6	-1.12610E-12	22.0402E-3	-6.15833E-3	-1.12395E-12	31.1780E-3	1.02882E-3
-627.814E-6	-1.09813E-12	40.7258E-3	-12.0513E-3	-1.18918E-12	24.0185E-3	10.4629E-3
-632.816E-6	-1.15073E-12	37.9787E-3	-24.8439E-3	-1.12852E-12	35.6903E-3	-8.07937E-3
-637.819E-6	-1.22067E-12	27.4392E-3	-25.4897E-3	-1.01333E-12	41.5954E-3	-15.9154E-3
-642.821E-6	-1.11242E-12	28.8341E-3	-4.75895E-3	-1.13261E-12	30.7640E-3	-7.34445E-3
-647.824E-6	-1.10602E-12	37.0075E-3	2.95881E-3	-1.27411E-12	23.0236E-3	-13.4927E-3
-652.826E-6	-1.18980E-12	49.3457E-3	-7.37738E-3	-1.18639E-12	17.5580E-3	-29.2364E-3
-657.829E-6	-1.23181E-12	56.7226E-3	-13.8417E-3	-1.10521E-12	13.3109E-3	-18.9859E-3
-662.831E-6	-1.24131E-12	47.7079E-3	-18.8747E-3	-1.17016E-12	24.6354E-3	-266.846E-6
-667.834E-6	-1.14013E-12	32.4989E-3	-23.8800E-3	-1.21770E-12	30.9715E-3	-6.77650E-3
-672.836E-6	-1.22696E-12	24.4304E-3	-16.6405E-3	-1.25880E-12	22.9196E-3	-18.0428E-3
-677.839E-6	-1.34207E-12	32.2035E-3	-11.5827E-3	-1.22900E-12	28.3528E-3	-16.2284E-3
-682.841E-6	-1.33112E-12	38.2246E-3	-23.2055E-3	-1.22200E-12	45.2976E-3	-16.4517E-3
-687.844E-6	-1.25143E-12	19.8625E-3	-31.0210E-3	-1.28726E-12	55.1339E-3	-22.5531E-3
-692.846E-6	-1.21417E-12	2.91228E-3	-30.7124E-3	-1.36223E-12	54.4004E-3	-22.5082E-3
-697.849E-6	-1.36217E-12	21.6372E-3	-25.5642E-3	-1.29645E-12	36.2242E-3	-15.3333E-3
-702.851E-6	-1.34285E-12	46.6936E-3	-12.1982E-3	-1.33817E-12	8.04434E-3	-17.1411E-3
-707.854E-6	-1.31707E-12	42.4109E-3	-4.43436E-3	-1.35093E-12	4.33822E-3	-31.9413E-3
-712.856E-6	-1.30593E-12	26.7205E-3	-5.40843E-3	-1.36749E-12	20.0133E-3	-38.1370E-3
-717.859E-6	-1.37226E-12	23.3528E-3	-2.10713E-3	-1.44277E-12	26.0039E-3	-19.1136E-3
-722.861E-6	-1.35486E-12	28.8362E-3	-7.62152E-3	-1.48829E-12	19.9051E-3	138.768E-6
-727.864E-6	-1.43800E-12	38.0515E-3	-30.1026E-3	-1.39436E-12	16.3016E-3	-6.62454E-3
-732.866E-6	-1.38579E-12	48.1302E-3	-40.3730E-3	-1.39782E-12	14.8874E-3	-16.7443E-3
-737.869E-6	-1.38923E-12	31.3746E-3	-31.8538E-3	-1.47587E-12	25.2935E-3	-15.1763E-3
-742.871E-6	-1.38440E-12	6.68121E-3	-24.7814E-3	-1.48572E-12	42.3739E-3	-20.8484E-3
-747.874E-6	-1.38565E-12	19.5540E-3	-13.7174E-3	-1.43802E-12	33.5221E-3	-30.3598E-3
-752.876E-6	-1.49467E-12	41.0598E-3	-47.9996E-6	-1.41846E-12	23.6580E-3	-26.8448E-3
-757.879E-6	-1.41433E-12	37.6654E-3	-3.48699E-3	-1.43563E-12	22.2638E-3	-28.6027E-3
-762.881E-6	-1.38911E-12	27.3218E-3	-11.3031E-3	-1.56760E-12	17.7756E-3	-25.2024E-3
-767.884E-6	-1.45997E-12	20.0370E-3	-9.24785E-3	-1.53271E-12	26.2920E-3	-4.98464E-3
-772.886E-6	-1.54548E-12	25.8240E-3	-4.55087E-3	-1.43123E-12	44.1461E-3	-102.400E-6
-777.889E-6	-1.49590E-12	53.5886E-3	-2.17982E-3	-1.53731E-12	50.6495E-3	-947.196E-6
-782.891E-6	-1.41821E-12	64.1592E-3	-11.9247E-3	-1.59247E-12	45.7042E-3	937.125E-6
-787.894E-6	-1.48351E-12	45.8776E-3	-32.5062E-3	-1.55684E-12	42.9341E-3	-10.4324E-3
-792.896E-6	-1.61261E-12	25.8131E-3	-41.1794E-3	-1.50235E-12	34.4230E-3	-22.6324E-3
-797.899E-6	-1.52883E-12	20.6272E-3	-14.7063E-3	-1.53001E-12	28.0845E-3	-25.9758E-3
-802.901E-6	-1.52033E-12	38.3240E-3	1.99424E-3	-1.62464E-12	42.6952E-3	-24.3081E-3
-807.904E-6	-1.49163E-12	56.2896E-3	-21.0090E-3	-1.63258E-12	56.1741E-3	-19.5697E-3
-812.906E-6	-1.68169E-12	51.0173E-3	-39.2784E-3	-1.59614E-12	60.6910E-3	-12.6783E-3
-817.909E-6	-1.63882E-12	28.2001E-3	-38.7125E-3	-1.61734E-12	66.4286E-3	-828.082E-6
-822.911E-6	-1.58624E-12	14.7418E-3	-20.9964E-3	-1.62792E-12	63.0675E-3	6.05532E-3
-827.914E-6	-1.61062E-12	22.4099E-3	5.50206E-3	-1.68138E-12	52.7217E-3	-6.72620E-3
-832.916E-6	-1.68125E-12	31.8794E-3	11.2649E-3	-1.72037E-12	50.0192E-3	-24.1476E-3
-837.919E-6	-1.72455E-12	38.1153E-3	-7.29611E-3	-1.73528E-12	47.4157E-3	-21.0448E-3
-842.921E-6	-1.74533E-12	46.2831E-3	-15.6111E-3	-1.66329E-12	48.9991E-3	-6.81057E-3
-847.924E-6	-1.71901E-12	41.9237E-3	-7.46531E-3	-1.67259E-12	56.0635E-3	-10.2539E-3
-852.926E-6	-1.68649E-12	37.7560E-3	-8.98185E-3	-1.77226E-12	52.1076E-3	-22.1868E-3
-857.929E-6	-1.74381E-12	51.2430E-3	-14.3606E-3	-1.77896E-12	44.5468E-3	-25.1260E-3
-862.931E-6	-1.79219E-12	47.1636E-3	-19.6527E-3	-1.69218E-12	44.5364E-3	-27.7081E-3
-867.934E-6	-1.80471E-12	30.6644E-3	-27.9845E-3	-1.70471E-12	47.9590E-3	-17.6599E-3
-872.936E-6	-1.85057E-12	41.5352E-3	-12.3160E-3	-1.77488E-12	53.2776E-3	1.33186E-3
-877.939E-6	-1.80966E-12	58.9442E-3	10.0664E-3	-1.83757E-12	62.8131E-3	-8.32322E-3
-882.941E-6	-1.86122E-12	66.5903E-3	-3.17099E-3	-1.78655E-12	68.0668E-3	-31.8567E-3
-887.944E-6	-1.91363E-12	74.6407E-3	-27.4733E-3	-1.72638E-12	70.2760E-3	-30.2554E-3
-892.946E-6	-1.89692E-12	68.6805E-3	-29.8109E-3	-1.82660E-12	79.3528E-3	-17.5605E-3
-897.949E-6	-1.83304E-12	56.8788E-3	-25.9634E-3	-1.93908E-12	75.5786E-3	-13.5155E-3
-902.951E-6	-1.95623E-12	64.9341E-3	-22.0200E-3	-1.96305E-12	60.5608E-3	-14.3346E-3
-907.954E-6	-2.00693E-12	72.3992E-3	-10.9896E-3	-1.89712E-12	67.4642E-3	-22.2905E-3
-912.956E-6	-2.01870E-12	65.8311E-3	-16.6861E-3	-1.98793E-12	88.9727E-3	-31.0929E-3
-917.959E-6	-1.92042E-12	62.3045E-3	-31.6018E-3	-2.02652E-12	99.4794E-3	-24.1126E-3
-922.961E-6	-2.04366E-12	62.3895E-3	-26.7271E-3	-2.11892E-12	98.2916E-3	-1.36751E-3
-927.964E-6	-2.16934E-12	67.2572E-3	-20.7068E-3	-2.10115E-12	92.4033E-3	3.10885E-3
-932.966E-6	-2.13467E-12	82.5751E-3	-20.9883E-3	-2.06426E-12	91.1539E-3	-11.7512E-3
-937.969E-6	-2.07672E-12	85.4164E-3	-17.1606E-3	-2.15680E-12	103.253E-3	-11.8889E-3
-942.971E-6	-2.17058E-12	77.7352E-3	-24.5131E-3	-2.25601E-12	112.228E-3	-11.6102E-3
-947.974E-6	-2.25735E-12	87.1255E-3	-29.1009E-3	-2.22586E-12	110.785E-3	-17.3231E-3
-952.976E-6	-2.31881E-12	102.523E-3	-10.2424E-3	-2.24992E-12	111.182E-3	-8.97748E-3
-957.979E-6	-2.28288E-12	112.363E-3	-3.27960E-3	-2.29233E-12	115.156E-3	-5.19152E-3
-962.981E-6	-2.31354E-12	112.528E-3	-20.3022E-3	-2.28550E-12	123.964E-3	-14.7045E-3
-967.984E-6	-2.40748E-12	92.2064E-3	-29.9057E-3	-2.44368E-12	133.889E-3	-14.2944E-3
-972.986E-6	-2.45313E-12	75.0809E-3	-25.2891E-3	-2.51162E-12	134.297E-3	-14.3830E-3
-977.989E-6	-2.51501E-12	92.4497E-3	-15.2408E-3	-2.43238E-12	130.367E-3	-24.7208E-3
-982.991E-6	-2.55467E-12	125.093E-3	-6.79118E-3	-2.47286E-12	135.019E-3	-28.6096E-3
-987.994E-6	-2.57721E-12	132.855E-3	-13.4912E-3	-2.60640E-12	146.091E-3	-25.9070E-3
-992.997E-6	-2.61134E-12	129.065E-3	-33.3782E-3	-2.71145E-12	149.268E-3	-26.5483E-3
-997.999E-6	-2.67187E-12	133.228E-3	-35.4819E-3	-2.68020E-12	154.141E-3	-32.0543E-3
-1.00300E-3	-2.75917E-12	136.416E-3	-15.7451E-3	-2.70080E-12	171.382E-3	-25.7485E-3
-1.00800E-3	-2.80875E-12	147.197E-3	-8.49066E-3	-2.84894E-12	185.740E-3	-9.33575E-3
-1.01301E-3	-2.79079E-12	165.992E-3	-16.4627E-3	-3.02529E-12	192.237E-3	-8.02569E-3
-1.01801E-3	-2.92444E-12	168.463E-3	-18.3092E-3	-3.07937E-12	205.849E-3	-24.2328E-3
-1.02301E-3	-3.00232E-12	151.943E-3	-19.6772E-3	-3.05103E-12	220.785E-3	-33.8953E-3
-1.02801E-3	-3.05225E-12	147.093E-3	-9.83299E-3	-3.16916E-12	220.359E-3	-18.3321E-3
-1.03302E-3	-3.09536E-12	165.226E-3	-4.82112E-3	-3.27459E-12	226.831E-3	-11.0721E-3
-1.03802E-3	-3.15468E-12	187.275E-3	-35.2224E-3	-3.31452E-12	243.417E-3	-30.9484E-3
-1.04302E-3	-3.30268E-12	199.886E-3	-48.6267E-3	-3.30867E-12	245.573E-3	-41.8783E-3
-1.04802E-3	-3.34955E-12	197.988E-3	-32.2321E-3	-3.35471E-12	240.739E-3	-31.4713E-3
-1.05303E-3	-3.35864E-12	194.183E-3	-25.8236E-3	-3.43137E-12	248.273E-3	-19.5746E-3
-1.05803E-3	-3.50535E-12	203.619E-3	-29.7989E-3	-3.60614E-12	264.959E-3	-18.5721E-3
-1.06303E-3	-3.63081E-12	216.646E-3	-26.5524E-3	-3.62318E-12	275.526E-3	-24.1403E-3
-1.06803E-3	-3.69490E-12	227.229E-3	-13.4763E-3	-3.58481E-12	278.796E-3	-29.1624E-3
-1.07304E-3	-3.72077E-12	238.797E-3	-1.88286E-3	-3.70162E-12	279.685E-3	-23.0782E-3
-1.07804E-3	-3.86393E-12	248.658E-3	7.86176E-3	-3.79371E-12	285.642E-3	-8.22702E-3
-1.08304E-3	-3.99090E-12	262.544E-3	8.29307E-3	-3.92766E-12	296.247E-3	-5.79210E-3
-1.08804E-3	-4.00516E-12	290.421E-3	-6.23090E-3	-3.99063E-12	309.701E-3	-16.0916E-3
-1.09305E-3	-4.04063E-12	304.584E-3	-17.1978E-3	-3.97695E-12	338.148E-3	-16.4807E-3
-1.09805E-3	-4.22556E-12	294.477E-3	-15.6269E-3	-4.17440E-12	364.453E-3	-8.11087E-3
-1.10305E-3	-4.33618E-12	296.964E-3	-3.21571E-3	-4.41300E-12	369.713E-3	-7.07238E-3
-1.10805E-3	-4.39570E-12	314.664E-3	7.23410E-3	-4.51582E-12	370.685E-3	-12.1279E-3
-1.11306E-3	-4.51572E-12	334.149E-3	-9.87088E-3	-4.53050E-12	376.912E-3	-19.3374E-3
-1.11806E-3	-4.64288E-12	357.471E-3	-28.2426E-3	-4.68520E-12	396.135E-3	-16.2973E-3
-1.12306E-3	-4.85906E-12	362.034E-3	-10.0436E-3	-4.93428E-12	426.534E-3	-115.173E-6
-1.12806E-3	-4.92349E-12	360.461E-3	5.98423E-3	-5.13649E-12	442.935E-3	7.60546E-3
-1.13307E-3	-5.07056E-12	392.733E-3	-7.52212E-3	-5.21738E-12	447.410E-3	3.77312E-3
-1.13807E-3	-5.30859E-12	414.608E-3	-28.7258E-3	-5.24625E-12	459.311E-3	-146.005E-6
-1.14307E-3	-5.37984E-12	402.037E-3	-47.6759E-3	-5.38825E-12	471.124E-3	-2.57509E-3
-1.14807E-3	-5.43072E-12	402.395E-3	-47.7293E-3	-5.66228E-12	479.326E-3	-5.74928E-3
-1.15308E-3	-5.67393E-12	417.132E-3	-15.2777E-3	-5.73861E-12	494.870E-3	-12.5934E-3
-1.15808E-3	-5.96522E-12	430.740E-3	7.09987E-3	-5.81947E-12	516.951E-3	-29.4996E-3
-1.16308E-3	-6.13298E-12	455.813E-3	-5.02215E-3	-6.02207E-12	537.709E-3	-41.2011E-3
-1.16808E-3	-6.13677E-12	479.864E-3	-20.0041E-3	-6.21575E-12	558.054E-3	-26.0131E-3
-1.17309E-3	-6.36104E-12	482.730E-3	-28.3279E-3	-6.36664E-12	579.937E-3	-11.5376E-3
-1.17809E-3	-6.65041E-12	481.934E-3	-23.1330E-3	-6.47273E-12	590.605E-3	-11.3313E-3
-1.18309E-3	-6.81212E-12	504.488E-3	-4.49191E-3	-6.56079E-12	591.050E-3	-11.9542E-3
-1.18809E-3	-6.82668E-12	538.371E-3	-9.64327E-3	-6.87804E-12	599.813E-3	-22.0973E-3
-1.19310E-3	-7.00977E-12	557.446E-3	-33.2037E-3	-7.12162E-12	623.082E-3	-25.8169E-3
-1.19810E-3	-7.36604E-12	563.956E-3	-28.5554E-3	-7.30300E-12	653.260E-3	-14.7082E-3
-1.20310E-3	-7.46117E-12	566.354E-3	-1.92011E-3	-7.43123E-12	675.826E-3	-11.4389E-3
-1.20810E-3	-7.58739E-12	580.356E-3	3.69889E-3	-7.70438E-12	686.542E-3	-15.0593E-3
-1.21311E-3	-7.83760E-12	610.050E-3	-9.79849E-3	-8.06125E-12	709.264E-3	-11.3376E-3
-1.21811E-3	-8.18416E-12	625.331E-3	-20.2102E-3	-8.38718E-12	747.878E-3	-8.35593E-3
-1.22311E-3	-8.39946E-12	632.966E-3	-31.4763E-3	-8.48747E-12	774.825E-3	-12.6988E-3
-1.22811E-3	-8.54476E-12	655.733E-3	-33.6332E-3	-8.60016E-12	781.202E-3	-22.1374E-3
-1.23312E-3	-8.85192E-12	677.957E-3	-23.6198E-3	-9.02368E-12	767.215E-3	-36.4303E-3
-1.23812E-3	-9.19885E-12	701.240E-3	-20.3846E-3	-9.40197E-12	767.071E-3	-45.7572E-3
-1.24312E-3	-9.55729E-12	735.258E-3	-20.8495E-3	-9.58908E-12	811.134E-3	-35.7469E-3
-1.24812E-3	-9.68838E-12	761.495E-3	-25.2489E-3	-9.62825E-12	855.059E-3	-17.9071E-3
-1.25313E-3	-9.88241E-12	776.812E-3	-21.9928E-3	-10.0367E-12	859.989E-3	-11.4694E-3
-1.25813E-3	-10.2255E-12	793.584E-3	588.684E-6	-10.4174E-12	856.987E-3	-13.4781E-3
-1.26313E-3	-10.5508E-12	813.348E-3	9.62006E-3	-10.6584E-12	871.559E-3	-16.1851E-3
-1.26813E-3	-10.8662E-12	832.156E-3	-15.7909E-3	-10.7786E-12	890.798E-3	-13.7446E-3
-1.27314E-3	-11.0735E-12	850.970E-3	-40.1823E-3	-11.0546E-12	910.327E-3	-6.93893E-3
-1.27814E-3	-11.3402E-12	853.950E-3	-32.7011E-3	-11.5144E-12	924.491E-3	-3.26729E-3
-1.28314E-3	-11.5638E-12	848.859E-3	-17.8484E-3	-11.7686E-12	932.556E-3	-679.539E-6
-1.28814E-3	-11.8910E-12	869.037E-3	-21.3635E-3	-11.9705E-12	941.603E-3	1.57413E-3
-1.29315E-3	-12.2690E-12	896.956E-3	-35.2286E-3	-12.1902E-12	951.734E-3	1.16324E-3
-1.29815E-3	-12.5209E-12	903.764E-3	-41.2665E-3	-12.5729E-12	960.431E-3	-2.16786E-3
-1.30315E-3	-12.6191E-12	908.396E-3	-24.4609E-3	-12.8949E-12	980.792E-3	-5.73204E-3
-1.30815E-3	-13.0539E-12	924.352E-3	4.98328E-3	-13.2341E-12	1.01862E+0	-4.47088E-3
-1.31316E-3	-13.6126E-12	943.886E-3	15.5674E-3	-13.5872E-12	1.03737E+0	-17.0357E-3
-1.31816E-3	-13.8998E-12	971.008E-3	-6.90860E-3	-13.8987E-12	1.03537E+0	-30.1752E-3
-1.32316E-3	-14.0619E-12	987.554E-3	-29.9540E-3	-14.2927E-12	1.04760E+0	-18.4062E-3
-1.32816E-3	-14.3124E-12	985.181E-3	-25.0445E-3	-14.5676E-12	1.07273E+0	-6.07273E-3
-1.33317E-3	-14.8401E-12	991.336E-3	-7.82390E-3	-15.1093E-12	1.09281E+0	-17.0273E-3
-1.33817E-3	-15.1083E-12	1.00566E+0	5.75806E-3	-15.4103E-12	1.10308E+0	-31.1472E-3
-1.34317E-3	-15.2023E-12	1.02275E+0	-1.97967E-3	-15.8985E-12	1.11282E+0	-32.6418E-3
-1.34817E-3	-15.6061E-12	1.05405E+0	-25.9430E-3	-16.2725E-12	1.12530E+0	-34.0213E-3
-1.35318E-3	-15.8918E-12	1.07012E+0	-33.9010E-3	-16.6377E-12	1.14028E+0	-25.1217E-3
-1.35818E-3	-16.3825E-12	1.06305E+0	-27.5209E-3	-17.1178E-12	1.15271E+0	-11.0954E-3
-1.36318E-3	-16.7509E-12	1.07156E+0	-25.5997E-3	-17.3804E-12	1.15200E+0	-15.7564E-3
-1.36818E-3	-17.2368E-12	1.09155E+0	-22.6584E-3	-17.7354E-12	1.15722E+0	-19.4880E-3
-1.37319E-3	-17.8056E-12	1.09535E+0	-19.7582E-3	-18.1900E-12	1.17829E+0	-10.6068E-3
-1.37819E-3	-18.0267E-12	1.09856E+0	-20.8085E-3	-18.4741E-12	1.18286E+0	-8.39209E-3
-1.38319E-3	-18.3288E-12	1.10563E+0	-12.3880E-3	-18.5773E-12	1.16642E+0	-4.54834E-3
-1.38819E-3	-18.9427E-12	1.11892E+0	-3.89921E-3	-19.0799E-12	1.15475E+0	-1.69429E-3
-1.39320E-3	-19.5007E-12	1.15109E+0	-7.93621E-3	-19.4243E-12	1.15774E+0	-15.0933E-3
-1.39820E-3	-19.7061E-12	1.17123E+0	-18.2029E-3	-19.6992E-12	1.17581E+0	-23.9039E-3
-1.40320E-3	-20.1115E-12	1.16512E+0	-20.7897E-3	-19.7578E-12	1.19901E+0	-18.8272E-3
-1.40820E-3	-20.6708E-12	1.16498E+0	-15.7551E-3	-20.3343E-12	1.20497E+0	-9.30944E-3
-1.41321E-3	-20.8689E-12	1.18276E+0	-5.44748E-3	-20.7811E-12	1.19013E+0	-12.5348E-3
-1.41821E-3	-20.9645E-12	1.19126E+0	-4.29553E-3	-21.2413E-12	1.18847E+0	-30.8056E-3
-1.42321E-3	-21.5148E-12	1.18353E+0	-34.0707E-3	-21.6872E-12	1.20451E+0	-38.0113E-3
-1.42821E-3	-22.0529E-12	1.17222E+0	-48.7130E-3	-22.0244E-12	1.21091E+0	-36.1302E-3
-1.43322E-3	-22.3443E-12	1.17158E+0	-25.6066E-3	-22.4750E-12	1.21540E+0	-35.6142E-3
-1.43822E-3	-22.5246E-12	1.19073E+0	-8.89097E-3	-22.8769E-12	1.22560E+0	-26.5901E-3
-1.44322E-3	-22.9643E-12	1.20628E+0	-16.8538E-3	-23.4531E-12	1.22971E+0	-13.4490E-3
-1.44822E-3	-23.5418E-12	1.19153E+0	-29.6943E-3	-23.8450E-12	1.23661E+0	-13.9259E-3
-1.45323E-3	-23.9086E-12	1.18329E+0	-35.9402E-3	-24.4245E-12	1.24831E+0	-20.4592E-3
-1.45823E-3	-24.0639E-12	1.19730E+0	-31.5426E-3	-24.5295E-12	1.24027E+0	-13.7057E-3
-1.46323E-3	-24.4783E-12	1.20120E+0	-8.84685E-3	-25.0106E-12	1.22046E+0	-5.87013E-3
-1.46823E-3	-25.3916E-12	1.20268E+0	1.39505E-3	-25.5807E-12	1.21332E+0	-16.9323E-3
-1.47324E-3	-25.6696E-12	1.21815E+0	-10.0171E-3	-25.9784E-12	1.20961E+0	-24.8723E-3
-1.47824E-3	-26.0783E-12	1.22942E+0	-10.3597E-3	-25.8695E-12	1.20299E+0	-11.1202E-3
-1.48324E-3	-26.4208E-12	1.22308E+0	-9.36853E-3	-26.2198E-12	1.20613E+0	-2.92832E-3
-1.48824E-3	-26.9481E-12	1.22915E+0	-16.8013E-3	-26.7117E-12	1.20717E+0	-7.41355E-3
-1.49325E-3	-27.4535E-12	1.23782E+0	-13.1580E-3	-26.9707E-12	1.19966E+0	-16.5001E-3
-1.49825E-3	-27.6547E-12	1.22042E+0	-6.53429E-3	-27.3844E-12	1.20068E+0	-23.6520E-3
-1.50325E-3	-27.9601E-12	1.20474E+0	-8.52671E-3	-27.5823E-12	1.20756E+0	-12.3844E-3
-1.50825E-3	-28.4889E-12	1.20362E+0	-8.09034E-3	-27.9775E-12	1.20919E+0	9.04494E-3
-1.51326E-3	-29.0244E-12	1.20299E+0	-11.8703E-3	-28.4299E-12	1.19905E+0	10.8220E-3
-1.51826E-3	-29.1971E-12	1.20894E+0	-14.0527E-3	-28.9426E-12	1.18313E+0	-8.58526E-3
-1.52326E-3	-29.5445E-12	1.21605E+0	-9.88140E-3	-29.5234E-12	1.18704E+0	-20.9032E-3
-1.52826E-3	-29.9200E-12	1.20782E+0	-24.4690E-3	-29.9297E-12	1.21910E+0	-19.5720E-3
-1.53327E-3	-30.4208E-12	1.20014E+0	-41.2416E-3	-30.6914E-12	1.23535E+0	-15.3934E-3
-1.53827E-3	-30.7761E-12	1.20161E+0	-32.6152E-3	-31.1317E-12	1.21900E+0	-3.82636E-3
-1.54327E-3	-31.0945E-12	1.20012E+0	-18.3808E-3	-31.8183E-12	1.20630E+0	-1.30275E-3
-1.54827E-3	-31.3389E-12	1.20137E+0	-23.2139E-3	-32.0427E-12	1.20864E+0	-11.8864E-3
-1.55328E-3	-31.5441E-12	1.19458E+0	-32.5691E-3	-32.7062E-12	1.19993E+0	-9.73843E-3
-1.55828E-3	-32.1341E-12	1.17892E+0	-26.3746E-3	-33.4951E-12	1.18342E+0	-12.4453E-3
-1.56328E-3	-32.9319E-12	1.18240E+0	-15.5054E-3	-34.0846E-12	1.18911E+0	-27.8730E-3
-1.56828E-3	-33.4480E-12	1.18960E+0	-7.29493E-3	-34.0694E-12	1.19978E+0	-32.9069E-3
-1.57329E-3	-33.5096E-12	1.18201E+0	-8.58398E-3	-34.1280E-12	1.19037E+0	-34.4078E-3
-1.57829E-3	-33.8766E-12	1.17377E+0	-24.0312E-3	-34.7989E-12	1.16456E+0	-36.2919E-3
-1.58329E-3	-34.6503E-12	1.16905E+0	-28.2034E-3	-35.2465E-12	1.14281E+0	-35.6781E-3
-1.58829E-3	-35.0950E-12	1.16741E+0	-10.3728E-3	-35.6557E-12	1.14977E+0	-37.0470E-3
-1.59330E-3	-35.3519E-12	1.17063E+0	-8.62929E-3	-35.3597E-12	1.15956E+0	-34.1551E-3
-1.59830E-3	-35.5125E-12	1.16582E+0	-24.8255E-3	-35.7342E-12	1.14611E+0	-30.8212E-3
-1.60330E-3	-35.7951E-12	1.14532E+0	-29.7163E-3	-36.2245E-12	1.13650E+0	-20.4468E-3
-1.60830E-3	-36.3007E-12	1.13069E+0	-27.5874E-3	-36.7974E-12	1.13430E+0	-11.4672E-3
-1.61331E-3	-36.1358E-12	1.13173E+0	-11.3166E-3	-36.8288E-12	1.12787E+0	-18.7074E-3
-1.61831E-3	-36.5436E-12	1.12298E+0	8.03500E-3	-37.2547E-12	1.12667E+0	-18.5713E-3
-1.62331E-3	-37.1296E-12	1.10580E+0	-19.3892E-3	-38.1172E-12	1.12375E+0	-16.0504E-3
-1.62831E-3	-37.5855E-12	1.11001E+0	-49.0484E-3	-38.5645E-12	1.11579E+0	-24.9708E-3
-1.63332E-3	-37.4309E-12	1.10723E+0	-28.0338E-3	-38.8848E-12	1.11901E+0	-31.5739E-3
-1.63832E-3	-38.0519E-12	1.07993E+0	-10.2185E-3	-39.0010E-12	1.12250E+0	-35.4402E-3
-1.64332E-3	-38.4112E-12	1.07571E+0	-13.9218E-3	-39.6531E-12	1.10615E+0	-38.6798E-3
-1.64832E-3	-38.8434E-12	1.08485E+0	-18.6516E-3	-40.0871E-12	1.09569E+0	-30.0597E-3
-1.65333E-3	-39.0860E-12	1.07857E+0	-32.3743E-3	-40.3845E-12	1.09490E+0	-13.8032E-3
-1.65833E-3	-39.6261E-12	1.07472E+0	-38.0587E-3	-40.9753E-12	1.08200E+0	-13.8666E-3
-1.66333E-3	-40.0535E-12	1.07646E+0	-17.4334E-3	-41.1926E-12	1.06648E+0	-27.1951E-3
-1.66833E-3	-40.3373E-12	1.07922E+0	-1.58079E-3	-41.2116E-12	1.05911E+0	-32.0644E-3
-1.67334E-3	-40.9396E-12	1.09167E+0	-3.98342E-3	-41.1300E-12	1.06069E+0	-22.4925E-3
-1.67834E-3	-41.5430E-12	1.09387E+0	-10.6942E-3	-41.4895E-12	1.05112E+0	-11.5785E-3
-1.68334E-3	-41.9741E-12	1.06934E+0	-19.0750E-3	-41.7912E-12	1.02398E+0	-13.9038E-3
-1.68834E-3	-41.9476E-12	1.05260E+0	-13.9501E-3	-41.9883E-12	1.01066E+0	-11.2525E-3
-1.69335E-3	-42.4982E-12	1.05529E+0	3.23671E-3	-41.7398E-12	1.01597E+0	165.588E-6
-1.69835E-3	-42.8932E-12	1.05603E+0	1.22439E-3	-42.0815E-12	1.01319E+0	1.07479E-3
-1.70335E-3	-42.7972E-12	1.05148E+0	-18.7188E-3	-42.5094E-12	1.00327E+0	-5.32576E-3
-1.70835E-3	-42.8553E-12	1.03365E+0	-21.8836E-3	-42.8815E-12	1.00838E+0	-6.90035E-3
-1.71336E-3	-43.4341E-12	1.01611E+0	-15.5913E-3	-43.0294E-12	1.01396E+0	-4.96102E-3
-1.71836E-3	-43.9826E-12	1.01685E+0	-19.7648E-3	-43.2821E-12	997.487E-3	-12.6433E-3
-1.72336E-3	-44.1915E-12	1.01456E+0	-15.9547E-3	-43.8448E-12	989.180E-3	-31.1362E-3
-1.72836E-3	-44.4586E-12	998.847E-3	-14.8604E-3	-44.1647E-12	1.00183E+0	-37.4291E-3
-1.73337E-3	-44.9465E-12	994.034E-3	-30.8551E-3	-44.6155E-12	1.00530E+0	-25.5682E-3
-1.73837E-3	-45.1015E-12	998.348E-3	-36.6083E-3	-45.3906E-12	1.00304E+0	-10.6488E-3
-1.74337E-3	-45.7369E-12	990.785E-3	-25.4774E-3	-45.7250E-12	1.00140E+0	-3.75915E-3
-1.74837E-3	-45.9597E-12	997.336E-3	-13.1700E-3	-46.0858E-12	995.425E-3	-3.56264E-3
-1.75338E-3	-46.3502E-12	1.01972E+0	-11.3704E-3	-46.3047E-12	998.569E-3	-2.48304E-3
-1.75838E-3	-46.5779E-12	1.01424E+0	-18.6563E-3	-47.2844E-12	1.00249E+0	-2.80302E-3
-1.76338E-3	-47.1442E-12	985.063E-3	-14.5689E-3	-47.8260E-12	993.877E-3	2.94104E-3
-1.76838E-3	-47.4975E-12	977.792E-3	-3.72723E-3	-48.2278E-12	984.866E-3	7.23560E-3
-1.77339E-3	-47.8992E-12	985.699E-3	-9.34238E-3	-48.3473E-12	981.032E-3	-13.4643E-3
-1.77839E-3	-48.4090E-12	981.171E-3	-29.4174E-3	-48.8208E-12	977.809E-3	-31.6238E-3
-1.78339E-3	-48.4460E-12	979.822E-3	-37.8276E-3	-49.1957E-12	970.601E-3	-24.3919E-3
-1.78839E-3	-48.9318E-12	979.103E-3	-24.3992E-3	-49.4823E-12	958.690E-3	-16.8818E-3
-1.79340E-3	-49.4679E-12	968.105E-3	-15.9276E-3	-49.6059E-12	941.641E-3	-16.4339E-3
-1.79840E-3	-49.6712E-12	972.881E-3	-16.4532E-3	-49.8310E-12	928.218E-3	-15.6818E-3
-1.80340E-3	-49.5853E-12	975.907E-3	-14.3163E-3	-50.1093E-12	925.604E-3	-20.1916E-3
-1.80840E-3	-49.9264E-12	956.615E-3	-16.4562E-3	-50.2736E-12	922.849E-3	-18.7583E-3
-1.81341E-3	-50.6993E-12	938.965E-3	-18.6707E-3	-50.6524E-12	925.541E-3	-8.22239E-3
-1.81841E-3	-50.6498E-12	939.045E-3	-8.08837E-3	-50.5973E-12	941.132E-3	-11.8197E-3
-1.82341E-3	-50.8386E-12	956.957E-3	2.30109E-3	-50.6097E-12	945.982E-3	-26.7592E-3
-1.82841E-3	-50.7656E-12	968.883E-3	-16.7996E-3	-51.3292E-12	927.931E-3	-32.8755E-3
-1.83342E-3	-51.3333E-12	957.558E-3	-42.8407E-3	-51.6800E-12	920.373E-3	-24.4285E-3
-1.83842E-3	-51.5393E-12	927.874E-3	-39.7876E-3	-51.8192E-12	945.414E-3	-10.7394E-3
-1.84342E-3	-51.5307E-12	911.558E-3	-17.7384E-3	-51.8445E-12	969.379E-3	-12.2339E-3
-1.84842E-3	-51.9701E-12	925.831E-3	-4.05715E-3	-52.9218E-12	963.146E-3	-21.5379E-3
-1.85343E-3	-52.3797E-12	937.248E-3	-8.77329E-3	-54.1904E-12	944.450E-3	-17.0515E-3
-1.85843E-3	-52.6610E-12	922.373E-3	-21.9869E-3	-54.4851E-12	934.098E-3	-7.81032E-3
-1.86343E-3	-52.7689E-12	899.743E-3	-25.1974E-3	-54.7267E-12	938.116E-3	-7.88395E-3
-1.86843E-3	-53.1798E-12	894.107E-3	-11.8808E-3	-55.1037E-12	942.635E-3	-3.77631E-3
-1.87344E-3	-53.8807E-12	905.335E-3	-3.19798E-3	-55.7895E-12	930.266E-3	7.82768E-3
-1.87844E-3	-54.0564E-12	918.472E-3	-12.1151E-3	-56.8044E-12	910.157E-3	4.52900E-3
-1.88344E-3	-53.8657E-12	915.965E-3	-28.3059E-3	-56.8740E-12	900.999E-3	-8.36626E-3
-1.88844E-3	-54.1765E-12	901.097E-3	-31.5431E-3	-56.1278E-12	903.731E-3	-9.60767E-3
-1.89345E-3	-55.4958E-12	893.288E-3	-19.0725E-3	-56.3326E-12	898.702E-3	-8.53815E-3
-1.89845E-3	-55.6634E-12	891.584E-3	-13.1662E-3	-56.5360E-12	877.192E-3	-19.3536E-3
-1.90345E-3	-55.4377E-12	897.145E-3	-23.1803E-3	-56.5690E-12	865.024E-3	-31.9667E-3
-1.90845E-3	-55.6228E-12	901.631E-3	-34.0516E-3	-56.2353E-12	876.731E-3	-30.2991E-3
-1.91346E-3	-56.2803E-12	881.958E-3	-27.5483E-3	-56.1366E-12	880.201E-3	-19.1946E-3
-1.91846E-3	-56.7103E-12	874.274E-3	-10.9512E-3	-56.8497E-12	864.584E-3	-9.17910E-3
-1.92346E-3	-56.6907E-12	900.022E-3	1.77733E-3	-56.6579E-12	852.636E-3	-2.93992E-3
-1.92846E-3	-57.1463E-12	904.981E-3	9.04126E-3	-56.9275E-12	863.418E-3	-10.4529E-3
-1.93347E-3	-57.4077E-12	880.201E-3	3.82908E-3	-56.5934E-12	891.967E-3	-16.1790E-3
-1.93847E-3	-57.3750E-12	869.576E-3	-9.11438E-3	-56.8878E-12	903.717E-3	-8.47839E-3
-1.94347E-3	-57.5014E-12	868.024E-3	-9.70265E-3	-57.1202E-12	892.130E-3	-11.7340E-3
-1.94847E-3	-57.8617E-12	864.020E-3	-5.78859E-3	-57.5531E-12	880.427E-3	-21.2969E-3
-1.95348E-3	-58.3909E-12	875.304E-3	-13.9471E-3	-58.2568E-12	874.288E-3	-24.3849E-3
-1.95848E-3	-58.0942E-12	894.008E-3	-19.8561E-3	-59.4401E-12	881.789E-3	-35.8826E-3
-1.96348E-3	-58.8397E-12	891.764E-3	-22.6902E-3	-60.3237E-12	886.514E-3	-39.6882E-3
-1.96848E-3	-59.6082E-12	873.601E-3	-25.1424E-3	-60.2198E-12	875.575E-3	-20.4862E-3
-1.97349E-3	-60.1982E-12	860.308E-3	-19.1073E-3	-60.9045E-12	870.466E-3	-4.93704E-3
-1.97849E-3	-60.2038E-12	853.617E-3	-8.44481E-3	-61.7749E-12	864.260E-3	-10.3848E-3
-1.98349E-3	-61.0053E-12	853.711E-3	-10.3947E-3	-62.7555E-12	863.185E-3	-25.1296E-3
-1.98849E-3	-61.9650E-12	859.538E-3	-23.6692E-3	-62.6201E-12	872.234E-3	-31.0345E-3
-1.99350E-3	-61.7861E-12	867.134E-3	-28.7512E-3	-62.2846E-12	862.558E-3	-30.7055E-3
-1.99850E-3	-62.1930E-12	878.624E-3	-26.6363E-3	-62.4633E-12	847.897E-3	-27.6641E-3
-2.00350E-3	-62.5579E-12	876.031E-3	-27.3099E-3	-62.4933E-12	846.606E-3	-22.2265E-3
-2.00850E-3	-63.6653E-12	862.700E-3	-35.6823E-3	-63.2876E-12	845.151E-3	-9.81641E-3
-2.01351E-3	-63.4215E-12	873.138E-3	-33.7718E-3	-62.1634E-12	838.324E-3	7.86251E-3
-2.01851E-3	-63.6455E-12	883.229E-3	-14.0610E-3	-62.2683E-12	832.802E-3	3.20116E-3
-2.02351E-3	-63.8690E-12	871.603E-3	-2.07694E-3	-62.5369E-12	832.049E-3	-15.2389E-3
-2.02851E-3	-63.6791E-12	862.349E-3	-5.42808E-3	-63.5156E-12	832.917E-3	-14.5855E-3
-2.03352E-3	-63.8931E-12	857.452E-3	-10.1755E-3	-63.2535E-12	835.173E-3	-3.47886E-3
-2.03852E-3	-64.2623E-12	848.803E-3	-16.3779E-3	-62.6610E-12	842.819E-3	2.40926E-3
-2.04352E-3	-64.4047E-12	847.112E-3	-27.9656E-3	-63.4195E-12	851.344E-3	7.03328E-3
-2.04852E-3	-63.9054E-12	858.072E-3	-21.5189E-3	-65.0052E-12	849.130E-3	5.31909E-3
-2.05353E-3	-63.9858E-12	862.044E-3	-8.38088E-3	-66.4484E-12	836.329E-3	-4.50136E-3
-2.05853E-3	-64.4712E-12	848.499E-3	-18.5931E-3	-64.9771E-12	838.059E-3	-16.0606E-3
-2.06353E-3	-65.2857E-12	826.008E-3	-28.0087E-3	-65.3394E-12	855.607E-3	-16.7303E-3
-2.06853E-3	-65.0229E-12	802.039E-3	-18.4980E-3	-66.0350E-12	854.729E-3	-12.2132E-3
-2.07354E-3	-65.0198E-12	800.704E-3	-21.5516E-3	-67.9386E-12	823.660E-3	-11.2951E-3
-2.07854E-3	-65.7791E-12	815.928E-3	-33.0604E-3	-67.4326E-12	806.411E-3	-8.04530E-3
-2.08354E-3	-66.1067E-12	814.307E-3	-22.4752E-3	-66.9171E-12	830.907E-3	-11.1364E-3
-2.08854E-3	-66.8105E-12	806.551E-3	-10.2316E-3	-67.4375E-12	846.204E-3	-19.0982E-3
-2.09355E-3	-66.5494E-12	806.068E-3	-9.83706E-3	-68.9040E-12	832.533E-3	-21.6654E-3
-2.09855E-3	-67.6180E-12	808.890E-3	-6.06484E-3	-69.5465E-12	824.367E-3	-18.6716E-3
-2.10355E-3	-67.9664E-12	829.744E-3	-4.36154E-3	-68.9068E-12	830.495E-3	-14.6413E-3
-2.10855E-3	-67.9826E-12	855.142E-3	-12.2508E-3	-68.9161E-12	838.632E-3	-14.9343E-3
-2.11356E-3	-67.8807E-12	845.827E-3	-15.7865E-3	-69.0786E-12	826.861E-3	-17.6789E-3
-2.11856E-3	-68.0164E-12	826.677E-3	-9.75082E-3	-69.8972E-12	794.434E-3	-14.1738E-3
-2.12356E-3	-68.4943E-12	827.271E-3	-5.73165E-3	-69.8489E-12	782.631E-3	-6.79375E-3
-2.12856E-3	-68.8279E-12	832.278E-3	-7.75650E-3	-69.1733E-12	801.593E-3	-10.6840E-3
-2.13357E-3	-69.0271E-12	830.762E-3	-8.96110E-3	-69.2694E-12	813.868E-3	-19.7686E-3
-2.13857E-3	-68.4120E-12	821.612E-3	-9.46054E-3	-69.4014E-12	814.684E-3	-13.9512E-3
-2.14357E-3	-68.9678E-12	803.208E-3	-12.0694E-3	-69.4988E-12	816.258E-3	-11.9107E-3
-2.14857E-3	-68.9547E-12	792.746E-3	-9.93879E-3	-69.0531E-12	811.899E-3	-31.9023E-3
-2.15358E-3	-69.3743E-12	804.051E-3	-7.17426E-3	-69.7731E-12	807.331E-3	-42.2967E-3
-2.15858E-3	-69.5794E-12	814.298E-3	-14.8201E-3	-70.2584E-12	801.916E-3	-26.5198E-3
-2.16358E-3	-69.5400E-12	810.760E-3	-28.2166E-3	-70.8608E-12	798.810E-3	-15.0500E-3
-2.16858E-3	-69.7550E-12	803.334E-3	-28.3289E-3	-70.7986E-12	796.661E-3	-17.1543E-3
-2.17359E-3	-69.9538E-12	789.336E-3	-8.30951E-3	-71.8003E-12	786.401E-3	-31.0600E-3
-2.17859E-3	-70.6405E-12	774.798E-3	-2.94243E-3	-72.9126E-12	780.116E-3	-43.2052E-3
-2.18359E-3	-70.7924E-12	782.955E-3	-19.2130E-3	-72.7227E-12	790.487E-3	-33.0253E-3
-2.18859E-3	-71.1797E-12	796.262E-3	-24.9131E-3	-72.5523E-12	803.991E-3	-20.9901E-3
-2.19360E-3	-71.3927E-12	793.577E-3	-21.0603E-3	-73.1216E-12	802.023E-3	-11.7128E-3
-2.19860E-3	-71.8238E-12	796.690E-3	-13.6175E-3	-74.6369E-12	795.779E-3	4.39200E-3
-2.20360E-3	-71.8817E-12	797.646E-3	-6.52066E-3	-74.3212E-12	788.111E-3	18.4429E-3
-2.20860E-3	-72.5147E-12	785.680E-3	-20.6128E-3	-74.1636E-12	781.305E-3	12.5134E-3
-2.21361E-3	-73.3611E-12	787.304E-3	-42.5012E-3	-74.4175E-12	774.313E-3	109.942E-6
-2.21861E-3	-72.8889E-12	794.320E-3	-47.4887E-3	-75.2485E-12	765.747E-3	6.94342E-3
-2.22361E-3	-72.8506E-12	782.014E-3	-37.0719E-3	-75.1060E-12	770.034E-3	7.63707E-3
-2.22861E-3	-73.2233E-12	771.609E-3	-22.3369E-3	-74.0014E-12	780.367E-3	-13.9280E-3
-2.23362E-3	-74.1165E-12	777.701E-3	-16.4130E-3	-74.1372E-12	787.577E-3	-24.6742E-3
-2.23862E-3	-73.9619E-12	781.757E-3	-22.4276E-3	-74.7619E-12	787.005E-3	-18.5159E-3
-2.24362E-3	-73.8464E-12	779.503E-3	-23.3847E-3	-75.1539E-12	775.503E-3	-9.28505E-3
-2.24862E-3	-74.2175E-12	767.020E-3	-11.7255E-3	-74.8362E-12	770.905E-3	-3.09285E-3
-2.25363E-3	-74.5147E-12	751.701E-3	-4.20442E-3	-74.8572E-12	782.881E-3	-12.4988E-3
-2.25863E-3	-74.5986E-12	766.974E-3	-11.7472E-3	-75.1278E-12	781.023E-3	-24.6571E-3
-2.26363E-3	-74.5659E-12	787.954E-3	-17.7823E-3	-76.3761E-12	751.488E-3	-17.7096E-3
-2.26863E-3	-74.9414E-12	768.221E-3	-26.2710E-3	-77.6715E-12	734.909E-3	1.69448E-3
-2.27364E-3	-75.1152E-12	746.968E-3	-43.8870E-3	-76.7509E-12	743.051E-3	15.5728E-3
-2.27864E-3	-75.3806E-12	749.855E-3	-42.0970E-3	-77.0581E-12	751.475E-3	2.01257E-3
-2.28364E-3	-75.8495E-12	749.217E-3	-16.9881E-3	-77.2040E-12	761.947E-3	-19.9527E-3
-2.28864E-3	-75.5961E-12	742.954E-3	-15.0998E-3	-78.5380E-12	776.491E-3	-20.5697E-3
-2.29365E-3	-76.2410E-12	739.733E-3	-28.2470E-3	-77.9798E-12	785.372E-3	-12.2390E-3
-2.29865E-3	-76.2612E-12	739.616E-3	-13.2792E-3	-78.1670E-12	788.288E-3	-7.49669E-3
-2.30365E-3	-77.3664E-12	741.309E-3	-3.42682E-3	-78.7262E-12	789.215E-3	-10.4044E-3
-2.30865E-3	-77.5038E-12	758.788E-3	-12.0291E-3	-79.2454E-12	781.805E-3	-18.7090E-3
-2.31366E-3	-78.0949E-12	778.738E-3	-8.04237E-3	-79.0745E-12	770.538E-3	-21.7910E-3
-2.31866E-3	-78.3529E-12	776.106E-3	-8.07234E-3	-78.8640E-12	760.748E-3	-12.0604E-3
-2.32366E-3	-78.5966E-12	773.089E-3	-13.8990E-3	-79.3260E-12	745.745E-3	-943.734E-6
-2.32866E-3	-79.2808E-12	761.481E-3	-8.12011E-3	-80.0095E-12	737.899E-3	-864.205E-6
-2.33367E-3	-79.5495E-12	748.138E-3	-12.5132E-3	-79.7183E-12	742.840E-3	-6.16949E-3
-2.33867E-3	-79.6304E-12	757.554E-3	-17.3797E-3	-78.6317E-12	748.914E-3	1.00748E-3
-2.34367E-3	-79.3653E-12	767.775E-3	-16.5426E-3	-79.0464E-12	744.060E-3	4.55097E-3
-2.34867E-3	-80.0995E-12	766.583E-3	-30.2356E-3	-79.3673E-12	738.212E-3	-12.6848E-3
-2.35368E-3	-80.4271E-12	764.185E-3	-36.6204E-3	-80.0994E-12	746.372E-3	-31.5225E-3
-2.35868E-3	-80.5859E-12	766.253E-3	-20.0786E-3	-80.1025E-12	755.009E-3	-33.5164E-3
-2.36368E-3	-80.5994E-12	766.812E-3	-7.64191E-3	-79.8662E-12	759.705E-3	-12.9016E-3
-2.36868E-3	-80.6748E-12	765.631E-3	-13.5918E-3	-80.2059E-12	758.916E-3	256.958E-6
-2.37369E-3	-81.3364E-12	755.519E-3	-22.2777E-3	-80.9374E-12	749.181E-3	-6.20448E-3
-2.37869E-3	-81.5675E-12	740.157E-3	-23.3216E-3	-82.3368E-12	745.792E-3	-10.3465E-3
-2.38369E-3	-81.8721E-12	742.166E-3	-21.2874E-3	-81.9869E-12	757.942E-3	-10.2008E-3
-2.38869E-3	-81.8829E-12	744.319E-3	-18.5376E-3	-81.9583E-12	771.745E-3	-16.4554E-3
-2.39370E-3	-82.0931E-12	737.718E-3	-20.2182E-3	-82.4376E-12	766.076E-3	-23.6924E-3
-2.39870E-3	-82.6269E-12	755.909E-3	-22.1661E-3	-83.5187E-12	748.273E-3	-7.68951E-3
-2.40370E-3	-82.9284E-12	777.332E-3	-6.86050E-3	-83.8126E-12	749.702E-3	9.54486E-3
-2.40870E-3	-83.7436E-12	769.313E-3	3.09243E-3	-84.2646E-12	757.448E-3	-14.1288E-3
-2.41371E-3	-83.4990E-12	767.547E-3	-8.74545E-3	-84.5859E-12	756.130E-3	-39.6721E-3
-2.41871E-3	-83.8738E-12	773.035E-3	-17.9177E-3	-85.1859E-12	769.584E-3	-29.1515E-3
-2.42371E-3	-84.2057E-12	754.860E-3	-20.2192E-3	-85.9130E-12	770.354E-3	-15.2315E-3
-2.42871E-3	-84.3962E-12	738.742E-3	-26.3740E-3	-85.1759E-12	751.618E-3	-28.3478E-3
-2.43372E-3	-84.0835E-12	742.886E-3	-23.8323E-3	-85.3852E-12	757.044E-3	-38.6565E-3
-2.43872E-3	-84.2221E-12	740.357E-3	-5.60756E-3	-85.9141E-12	765.110E-3	-20.0788E-3
-2.44372E-3	-84.1515E-12	730.127E-3	-761.867E-6	-85.9495E-12	753.749E-3	-14.9158E-3
-2.44872E-3	-85.0332E-12	732.735E-3	-3.80831E-3	-85.5802E-12	742.685E-3	-36.7651E-3
-2.45373E-3	-84.7349E-12	734.272E-3	-5.91861E-3	-85.0835E-12	738.418E-3	-47.6961E-3
-2.45873E-3	-84.6313E-12	726.548E-3	-19.5552E-3	-85.6762E-12	737.577E-3	-41.1474E-3
-2.46373E-3	-84.8249E-12	728.206E-3	-17.3132E-3	-86.7070E-12	743.700E-3	-30.9794E-3
-2.46873E-3	-85.2521E-12	731.589E-3	-1.88981E-3	-86.8730E-12	754.949E-3	-34.7673E-3
-2.47374E-3	-85.6964E-12	730.825E-3	-3.51571E-3	-85.8368E-12	749.286E-3	-46.7188E-3
-2.47874E-3	-84.8841E-12	747.513E-3	-9.95933E-3	-86.6384E-12	736.411E-3	-36.9395E-3
-2.48374E-3	-84.8471E-12	758.374E-3	-9.98968E-3	-87.3550E-12	743.359E-3	-31.6374E-3
-2.48874E-3	-85.5766E-12	742.701E-3	-12.8674E-3	-87.7720E-12	754.213E-3	-38.9353E-3
-2.49375E-3	-87.0631E-12	726.846E-3	-15.5800E-3	-87.7486E-12	750.829E-3	-24.1728E-3
-2.49875E-3	-86.9105E-12	731.775E-3	-6.80558E-3	-87.7973E-12	737.283E-3	-8.98534E-3
-2.50375E-3	-85.9456E-12	753.838E-3	2.23803E-3	-87.9317E-12	720.872E-3	-28.6213E-3
-2.50875E-3	-86.1232E-12	766.333E-3	-7.57532E-3	-88.3756E-12	709.298E-3	-55.4145E-3
-2.51376E-3	-88.2154E-12	758.694E-3	-25.8760E-3	-89.1121E-12	712.015E-3	-53.2237E-3
-2.51876E-3	-89.2239E-12	742.578E-3	-35.1900E-3	-89.4018E-12	722.850E-3	-29.9667E-3
-2.52376E-3	-88.3650E-12	733.941E-3	-37.1525E-3	-89.4885E-12	739.655E-3	-4.28061E-3
-2.52876E-3	-87.6377E-12	735.804E-3	-39.3357E-3	-89.1556E-12	758.431E-3	11.2312E-3
-2.53377E-3	-88.7959E-12	737.717E-3	-25.7741E-3	-89.7066E-12	758.399E-3	2.68406E-3
-2.53877E-3	-90.4884E-12	729.374E-3	-11.4934E-3	-89.3191E-12	738.618E-3	-18.2151E-3
-2.54377E-3	-89.5076E-12	717.092E-3	-23.7597E-3	-89.2759E-12	735.785E-3	-41.9600E-3
-2.54877E-3	-88.9103E-12	723.880E-3	-36.9098E-3	-89.4781E-12	747.884E-3	-49.6539E-3
-2.55378E-3	-89.3228E-12	741.085E-3	-32.0320E-3	-88.9335E-12	738.661E-3	-20.2572E-3
-2.55878E-3	-91.7017E-12	738.494E-3	-5.71903E-3	-89.6102E-12	732.723E-3	-3.34673E-3
-2.56378E-3	-91.5395E-12	726.864E-3	11.4685E-3	-89.9027E-12	738.471E-3	-23.4948E-3
-2.56878E-3	-90.5597E-12	732.532E-3	926.985E-6	-89.5934E-12	738.156E-3	-37.5828E-3
-2.57379E-3	-90.2135E-12	736.304E-3	-161.403E-6	-90.1411E-12	728.251E-3	-30.2716E-3
-2.57879E-3	-91.2022E-12	716.129E-3	3.11897E-3	-91.7611E-12	708.088E-3	-25.7854E-3
-2.58379E-3	-92.7878E-12	700.731E-3	-6.85383E-3	-92.0699E-12	704.566E-3	-16.5921E-3
-2.58879E-3	-93.2800E-12	710.542E-3	-18.5468E-3	-91.0666E-12	733.472E-3	-1.96710E-3
-2.59380E-3	-91.8097E-12	720.232E-3	-18.0739E-3	-91.5469E-12	749.824E-3	-7.56159E-3
-2.59880E-3	-92.1722E-12	718.821E-3	-8.27210E-3	-93.3672E-12	729.857E-3	-18.1706E-3
-2.60380E-3	-93.4701E-12	713.272E-3	-3.35440E-3	-95.0732E-12	718.755E-3	-7.35543E-3
-2.60880E-3	-94.3130E-12	711.112E-3	-8.77921E-3	-93.7646E-12	723.638E-3	5.30462E-3
-2.61381E-3	-93.9544E-12	726.060E-3	-11.7309E-3	-94.4098E-12	727.594E-3	-17.9063E-3
-2.61881E-3	-92.8149E-12	743.946E-3	-4.49260E-3	-94.9628E-12	729.954E-3	-38.5385E-3
-2.62381E-3	-93.7582E-12	742.434E-3	-3.95989E-3	-95.7004E-12	735.037E-3	-16.2321E-3
-2.62881E-3	-95.1352E-12	727.824E-3	-13.3833E-3	-95.7560E-12	729.742E-3	5.59561E-3
-2.63382E-3	-95.8260E-12	731.304E-3	-20.9452E-3	-94.9356E-12	724.308E-3	1.78817E-3
-2.63882E-3	-95.0551E-12	745.241E-3	-25.2615E-3	-95.6594E-12	737.592E-3	-14.7367E-3
-2.64382E-3	-95.0645E-12	750.399E-3	-27.3087E-3	-95.3969E-12	733.158E-3	-22.4501E-3
-2.64882E-3	-96.4691E-12	745.465E-3	-26.2976E-3	-95.6831E-12	725.377E-3	-11.9987E-3
-2.65383E-3	-97.6008E-12	722.745E-3	-28.3526E-3	-94.8281E-12	729.779E-3	-12.3749E-3
-2.65883E-3	-96.7413E-12	703.897E-3	-29.5241E-3	-95.5428E-12	732.165E-3	-17.2956E-3
-2.66383E-3	-96.1725E-12	710.002E-3	-14.7093E-3	-94.9625E-12	742.407E-3	-19.9877E-3
-2.66883E-3	-97.1260E-12	736.273E-3	-864.162E-6	-95.7304E-12	733.743E-3	-35.2416E-3
-2.67384E-3	-98.0316E-12	753.232E-3	-9.55379E-3	-96.3156E-12	705.924E-3	-32.6849E-3
-2.67884E-3	-97.6812E-12	749.582E-3	-14.7465E-3	-95.5725E-12	699.510E-3	-9.13539E-3
-2.68384E-3	-97.7005E-12	724.604E-3	-2.17290E-3	-95.1670E-12	710.795E-3	1.88531E-3
-2.68884E-3	-97.0649E-12	693.862E-3	4.56973E-3	-95.5851E-12	721.890E-3	-6.06447E-3
-2.69385E-3	-97.4251E-12	692.967E-3	-6.86617E-3	-97.7369E-12	730.345E-3	-23.5282E-3
-2.69885E-3	-98.2164E-12	711.404E-3	-14.1000E-3	-98.1440E-12	737.885E-3	-24.3150E-3
-2.70385E-3	-97.5496E-12	728.371E-3	-22.3897E-3	-97.9631E-12	741.368E-3	-8.13304E-3
-2.70885E-3	-96.7032E-12	730.545E-3	-34.4914E-3	-98.2825E-12	731.992E-3	-2.15373E-3
-2.71386E-3	-96.9913E-12	713.919E-3	-29.8803E-3	-98.7977E-12	720.023E-3	-11.4312E-3
-2.71886E-3	-98.2918E-12	708.220E-3	-18.5488E-3	-99.5024E-12	726.613E-3	-29.6900E-3
-2.72386E-3	-98.2315E-12	724.859E-3	-3.78158E-3	-100.123E-12	738.635E-3	-31.6699E-3
-2.72886E-3	-96.8596E-12	724.200E-3	9.43508E-3	-99.7023E-12	741.836E-3	-14.3191E-3
-2.73387E-3	-97.6028E-12	702.987E-3	5.79679E-3	-100.310E-12	729.886E-3	-8.93249E-3
-2.73887E-3	-98.4701E-12	702.257E-3	-6.56407E-3	-101.082E-12	712.889E-3	-16.9161E-3
-2.74387E-3	-98.5582E-12	707.984E-3	-10.2113E-3	-100.359E-12	713.520E-3	-17.1729E-3
-2.74887E-3	-98.9138E-12	708.974E-3	-11.6938E-3	-99.9300E-12	708.045E-3	-7.79665E-3
-2.75388E-3	-99.2108E-12	715.510E-3	-21.3227E-3	-99.3859E-12	689.021E-3	-4.26368E-3
-2.75888E-3	-99.6548E-12	715.817E-3	-36.3406E-3	-100.114E-12	692.737E-3	-7.42450E-3
-2.76388E-3	-100.087E-12	706.004E-3	-47.6968E-3	-99.3641E-12	705.943E-3	-23.8146E-3
-2.76888E-3	-100.437E-12	706.715E-3	-34.6925E-3	-99.8138E-12	695.436E-3	-31.2177E-3
-2.77389E-3	-100.941E-12	713.321E-3	-20.6729E-3	-99.4244E-12	685.320E-3	-4.73226E-3
-2.77889E-3	-100.722E-12	709.135E-3	-30.3340E-3	-99.9300E-12	689.036E-3	14.0091E-3
-2.78389E-3	-101.261E-12	700.428E-3	-37.1616E-3	-99.6782E-12	684.830E-3	3.15755E-3
-2.78889E-3	-101.577E-12	696.037E-3	-31.5573E-3	-100.684E-12	678.558E-3	-8.60198E-3
-2.79390E-3	-102.034E-12	696.865E-3	-23.0353E-3	-100.984E-12	687.748E-3	-20.5288E-3
-2.79890E-3	-101.895E-12	694.574E-3	-16.0949E-3	-101.357E-12	704.965E-3	-30.2287E-3
-2.80390E-3	-102.438E-12	708.333E-3	-8.78503E-3	-101.880E-12	714.548E-3	-22.1199E-3
-2.80890E-3	-102.591E-12	720.769E-3	-17.4914E-3	-101.303E-12	703.629E-3	-10.8980E-3
-2.81391E-3	-102.860E-12	711.746E-3	-32.2482E-3	-102.457E-12	689.613E-3	-13.0612E-3
-2.81891E-3	-102.491E-12	709.003E-3	-28.1585E-3	-103.516E-12	686.534E-3	-26.0428E-3
-2.82391E-3	-101.890E-12	703.216E-3	-24.1058E-3	-104.623E-12	689.787E-3	-23.6449E-3
-2.82891E-3	-102.333E-12	691.715E-3	-14.1418E-3	-103.488E-12	703.548E-3	-11.7854E-3
-2.83392E-3	-102.861E-12	692.084E-3	1.74105E-3	-103.615E-12	699.499E-3	-24.3219E-3
-2.83892E-3	-103.362E-12	691.493E-3	-8.36989E-3	-103.928E-12	674.178E-3	-42.1556E-3
-2.84392E-3	-103.373E-12	692.144E-3	-28.5313E-3	-105.316E-12	666.009E-3	-39.4663E-3
-2.84892E-3	-103.683E-12	709.961E-3	-37.5012E-3	-104.889E-12	676.778E-3	-25.9354E-3
-2.85393E-3	-103.679E-12	722.754E-3	-36.6861E-3	-103.702E-12	690.019E-3	-19.0519E-3
-2.85893E-3	-103.606E-12	717.791E-3	-30.3994E-3	-103.293E-12	696.077E-3	-29.3908E-3
-2.86393E-3	-105.016E-12	705.041E-3	-19.0785E-3	-104.168E-12	683.900E-3	-33.3310E-3
-2.86893E-3	-105.591E-12	681.352E-3	-6.71954E-3	-105.554E-12	681.290E-3	-13.7099E-3
-2.87394E-3	-105.095E-12	680.025E-3	-1.81611E-3	-104.281E-12	700.463E-3	643.694E-6
-2.87894E-3	-104.898E-12	694.868E-3	-8.73313E-3	-103.881E-12	703.937E-3	-12.7793E-3
-2.88394E-3	-106.026E-12	694.045E-3	-27.8382E-3	-104.656E-12	690.144E-3	-28.1339E-3
-2.88894E-3	-106.760E-12	694.820E-3	-33.5567E-3	-105.555E-12	672.881E-3	-23.7669E-3
-2.89395E-3	-106.244E-12	699.597E-3	-8.17355E-3	-106.299E-12	680.365E-3	-12.3169E-3
-2.89895E-3	-105.841E-12	701.817E-3	17.0723E-3	-106.485E-12	714.674E-3	-3.30590E-3
-2.90395E-3	-107.344E-12	696.600E-3	13.0237E-3	-107.139E-12	730.382E-3	2.76813E-3
-2.90895E-3	-107.601E-12	687.945E-3	-7.40540E-3	-107.935E-12	714.246E-3	1.54633E-3
-2.91396E-3	-107.201E-12	688.151E-3	-12.7801E-3	-109.574E-12	693.851E-3	-8.78371E-3
-2.91896E-3	-106.991E-12	695.213E-3	-7.98447E-3	-110.372E-12	700.288E-3	-24.0693E-3
-2.92396E-3	-107.790E-12	694.955E-3	-15.7515E-3	-110.374E-12	718.809E-3	-36.4468E-3
-2.92896E-3	-107.992E-12	684.123E-3	-21.0506E-3	-110.128E-12	719.184E-3	-30.2393E-3
-2.93397E-3	-108.303E-12	683.772E-3	-18.3422E-3	-110.503E-12	712.965E-3	-28.4411E-3
-2.93897E-3	-108.546E-12	694.686E-3	-16.4057E-3	-111.697E-12	715.693E-3	-42.3667E-3
-2.94397E-3	-108.850E-12	691.628E-3	-18.7008E-3	-110.694E-12	719.570E-3	-23.4374E-3
-2.94897E-3	-108.921E-12	686.731E-3	-17.2945E-3	-109.840E-12	718.239E-3	2.63409E-3
-2.95398E-3	-109.616E-12	695.323E-3	-3.61280E-3	-109.984E-12	718.527E-3	-1.75286E-3
-2.95898E-3	-110.603E-12	705.129E-3	2.83724E-3	-111.169E-12	714.809E-3	-3.19691E-3
-2.96398E-3	-110.827E-12	706.597E-3	-4.34828E-3	-110.454E-12	700.959E-3	2.69661E-3
-2.96898E-3	-111.096E-12	699.345E-3	-11.0664E-3	-109.703E-12	694.820E-3	7.57935E-3
-2.97399E-3	-111.535E-12	692.822E-3	-7.10902E-3	-110.031E-12	702.115E-3	6.83825E-3
-2.97899E-3	-112.030E-12	698.268E-3	-11.7124E-3	-111.173E-12	708.270E-3	-5.43127E-3
-2.98399E-3	-112.915E-12	699.291E-3	-24.2602E-3	-111.860E-12	698.730E-3	-1.80895E-3
-2.98899E-3	-112.030E-12	700.069E-3	-18.3084E-3	-110.156E-12	681.461E-3	18.3734E-3
-2.99400E-3	-112.994E-12	723.199E-3	-8.62408E-3	-110.493E-12	669.575E-3	18.3062E-3
-2.99900E-3	-113.365E-12	731.986E-3	-10.4689E-3	-111.740E-12	667.590E-3	1.99367E-3
-3.00400E-3	-113.447E-12	725.538E-3	-19.0421E-3	-113.338E-12	681.905E-3	-5.08121E-3
-3.00900E-3	-112.482E-12	730.208E-3	-23.9610E-3	-113.110E-12	699.291E-3	-130.240E-6
-3.01401E-3	-112.757E-12	722.990E-3	-14.9157E-3	-112.502E-12	700.794E-3	-21.0090E-3
-3.01901E-3	-113.464E-12	703.507E-3	-2.78503E-3	-113.055E-12	691.586E-3	-52.6569E-3
-3.02401E-3	-113.576E-12	692.397E-3	-10.4445E-3	-113.598E-12	703.083E-3	-48.2199E-3
-3.02901E-3	-113.895E-12	694.082E-3	-18.4990E-3	-113.888E-12	714.898E-3	-25.9631E-3
-3.03402E-3	-113.098E-12	700.480E-3	-7.53707E-3	-115.257E-12	695.029E-3	-4.56688E-3
-3.03902E-3	-113.142E-12	683.313E-3	-5.29844E-3	-116.448E-12	702.035E-3	-3.97123E-3
-3.04402E-3	-113.911E-12	667.740E-3	-20.7198E-3	-116.235E-12	736.001E-3	-29.9823E-3
-3.04902E-3	-114.900E-12	683.347E-3	-31.2500E-3	-115.218E-12	737.466E-3	-39.4212E-3
-3.05403E-3	-113.878E-12	701.449E-3	-31.5485E-3	-115.335E-12	719.942E-3	-17.6054E-3
-3.05903E-3	-114.076E-12	718.859E-3	-33.0994E-3	-116.773E-12	703.426E-3	-2.37272E-3
-3.06403E-3	-114.399E-12	732.019E-3	-31.4808E-3	-116.464E-12	697.190E-3	-9.08436E-3
-3.06903E-3	-115.546E-12	724.154E-3	-27.7065E-3	-115.556E-12	703.083E-3	-17.8006E-3
-3.07404E-3	-115.639E-12	707.338E-3	-31.4072E-3	-115.460E-12	700.725E-3	-21.7785E-3
-3.07904E-3	-115.340E-12	692.402E-3	-27.5989E-3	-115.895E-12	683.495E-3	-22.9350E-3
-3.08404E-3	-115.554E-12	684.534E-3	-16.1446E-3	-115.786E-12	673.221E-3	-14.0067E-3
-3.08904E-3	-116.799E-12	678.313E-3	-8.77157E-3	-115.530E-12	675.339E-3	-4.28215E-3
-3.09405E-3	-115.959E-12	672.895E-3	-6.69405E-3	-114.787E-12	675.903E-3	-381.522E-6
-3.09905E-3	-116.506E-12	691.130E-3	-13.7632E-3	-115.734E-12	680.113E-3	2.36566E-3
-3.10405E-3	-115.736E-12	705.061E-3	-16.5271E-3	-115.545E-12	683.797E-3	-5.63808E-3
-3.10905E-3	-116.318E-12	700.153E-3	-9.75848E-3	-115.621E-12	685.747E-3	-11.7380E-3
-3.11406E-3	-116.565E-12	701.714E-3	-6.81184E-3	-116.144E-12	694.681E-3	-1.47744E-3
-3.11906E-3	-117.563E-12	707.363E-3	-5.24665E-3	-115.907E-12	700.098E-3	-13.6692E-3
-3.12406E-3	-116.440E-12	718.031E-3	133.493E-6	-116.606E-12	700.378E-3	-33.6889E-3
-3.12906E-3	-115.458E-12	717.711E-3	7.40603E-3	-117.369E-12	703.489E-3	-17.5130E-3
-3.13407E-3	-115.979E-12	699.813E-3	9.32767E-3	-117.924E-12	706.226E-3	13.8031E-3
-3.13907E-3	-117.807E-12	685.392E-3	1.73274E-3	-118.537E-12	711.688E-3	23.6546E-3
-3.14407E-3	-117.126E-12	671.628E-3	-4.90320E-3	-118.573E-12	709.046E-3	8.48793E-3
-3.14907E-3	-116.450E-12	663.716E-3	-16.9616E-3	-119.703E-12	698.057E-3	-6.46704E-3
-3.15408E-3	-116.764E-12	673.231E-3	-31.8434E-3	-120.341E-12	698.816E-3	-9.96949E-3
-3.15908E-3	-118.987E-12	681.375E-3	-35.2516E-3	-121.136E-12	695.612E-3	-13.0572E-3
-3.16408E-3	-118.868E-12	685.556E-3	-26.1671E-3	-120.240E-12	676.340E-3	-27.2626E-3
-3.16908E-3	-118.195E-12	694.372E-3	-6.30461E-3	-119.656E-12	661.413E-3	-37.7181E-3
-3.17409E-3	-119.241E-12	691.083E-3	6.41435E-3	-118.915E-12	669.706E-3	-41.2261E-3
-3.17909E-3	-120.482E-12	683.833E-3	725.594E-6	-119.336E-12	688.648E-3	-49.0069E-3
-3.18409E-3	-120.946E-12	693.599E-3	-7.93373E-3	-119.657E-12	688.340E-3	-49.5698E-3
-3.18909E-3	-119.799E-12	702.491E-3	-9.66308E-3	-117.669E-12	679.769E-3	-31.9467E-3
-3.19410E-3	-120.582E-12	698.946E-3	-9.19639E-3	-118.313E-12	686.366E-3	-17.9729E-3
-3.19910E-3	-121.348E-12	687.523E-3	-12.2321E-3	-118.696E-12	691.121E-3	-16.5714E-3
-3.20410E-3	-122.152E-12	676.639E-3	-11.4044E-3	-120.164E-12	694.808E-3	-8.29033E-3
-3.20910E-3	-121.201E-12	673.587E-3	-9.77686E-3	-119.735E-12	706.206E-3	3.55804E-3
-3.21411E-3	-121.492E-12	676.239E-3	-18.9225E-3	-119.961E-12	696.717E-3	3.41631E-3
-3.21911E-3	-121.326E-12	685.506E-3	-30.7951E-3	-122.002E-12	682.761E-3	-3.84586E-3
-3.22411E-3	-121.773E-12	690.687E-3	-41.5222E-3	-121.194E-12	708.381E-3	-19.2303E-3
-3.22911E-3	-122.102E-12	690.239E-3	-41.2917E-3	-121.804E-12	734.530E-3	-23.1338E-3
-3.23412E-3	-122.389E-12	692.083E-3	-32.6576E-3	-124.014E-12	723.765E-3	-3.21959E-3
-3.23912E-3	-122.373E-12	701.715E-3	-39.1955E-3	-126.347E-12	699.116E-3	-4.45533E-3
-3.24412E-3	-122.512E-12	700.411E-3	-40.9512E-3	-124.986E-12	675.081E-3	-38.2008E-3
-3.24912E-3	-123.795E-12	686.835E-3	-28.5794E-3	-124.092E-12	675.783E-3	-57.5123E-3
-3.25413E-3	-123.687E-12	698.562E-3	-20.5801E-3	-124.428E-12	695.571E-3	-47.8926E-3
-3.25913E-3	-123.689E-12	726.066E-3	-9.56328E-3	-126.388E-12	687.554E-3	-28.7034E-3
-3.26413E-3	-123.574E-12	732.508E-3	-3.17666E-3	-126.833E-12	654.318E-3	-4.77617E-3
-3.26913E-3	-123.861E-12	715.606E-3	-2.23576E-3	-125.608E-12	667.116E-3	4.27232E-3
-3.27414E-3	-123.690E-12	693.325E-3	609.018E-6	-123.545E-12	715.019E-3	-8.69576E-3
-3.27914E-3	-124.233E-12	684.439E-3	-2.13027E-3	-125.284E-12	720.574E-3	-23.0360E-3
-3.28414E-3	-124.760E-12	684.442E-3	-6.66384E-3	-126.819E-12	708.487E-3	-27.4496E-3
-3.28914E-3	-123.789E-12	677.042E-3	-15.2764E-3	-126.971E-12	724.135E-3	-26.6641E-3
-3.29415E-3	-124.038E-12	675.661E-3	-23.6693E-3	-124.428E-12	720.757E-3	-24.4914E-3
-3.29915E-3	-125.852E-12	692.545E-3	-10.7386E-3	-125.849E-12	688.121E-3	-18.6304E-3
-3.30415E-3	-126.836E-12	715.667E-3	3.55021E-3	-126.442E-12	681.124E-3	-21.9701E-3
-3.30915E-3	-125.671E-12	720.022E-3	5.36210E-3	-126.747E-12	697.040E-3	-20.8501E-3
-3.31416E-3	-124.881E-12	705.210E-3	-4.79338E-3	-125.239E-12	713.745E-3	-12.1573E-3
-3.31916E-3	-126.023E-12	678.671E-3	-29.5387E-3	-125.853E-12	716.434E-3	-22.2141E-3
-3.32416E-3	-127.474E-12	645.216E-3	-39.8972E-3	-127.613E-12	704.055E-3	-33.3170E-3
-3.32916E-3	-127.057E-12	640.482E-3	-33.7745E-3	-127.486E-12	695.155E-3	-25.7852E-3
-3.33417E-3	-126.257E-12	667.728E-3	-13.5411E-3	-126.406E-12	691.292E-3	-25.6293E-3
-3.33917E-3	-126.949E-12	693.638E-3	16.0063E-3	-126.866E-12	683.478E-3	-18.9529E-3
-3.34417E-3	-127.083E-12	691.895E-3	15.2812E-3	-127.515E-12	663.684E-3	-547.468E-6
-3.34917E-3	-126.834E-12	684.340E-3	-8.81900E-3	-127.939E-12	641.361E-3	-8.60006E-3
-3.35418E-3	-126.085E-12	690.949E-3	-14.6300E-3	-127.478E-12	640.202E-3	-18.9294E-3
-3.35918E-3	-126.554E-12	686.507E-3	-13.5194E-3	-128.086E-12	663.870E-3	-14.3685E-3
-3.36418E-3	-126.639E-12	683.380E-3	-23.5396E-3	-128.611E-12	677.173E-3	-14.6109E-3
-3.36918E-3	-126.390E-12	694.866E-3	-32.5183E-3	-129.929E-12	661.046E-3	-16.1748E-3
-3.37419E-3	-126.142E-12	688.642E-3	-28.2598E-3	-129.066E-12	657.000E-3	-19.2412E-3
-3.37919E-3	-127.555E-12	668.666E-3	2.90129E-3	-127.951E-12	678.000E-3	-30.1234E-3
-3.38419E-3	-128.276E-12	659.666E-3	22.4249E-3	-127.105E-12	678.705E-3	-31.8993E-3
-3.38919E-3	-128.374E-12	651.812E-3	2.26616E-3	-128.248E-12	663.559E-3	-27.3564E-3
-3.39420E-3	-128.856E-12	662.960E-3	-25.2211E-3	-128.591E-12	680.559E-3	-32.2476E-3
-3.39920E-3	-129.682E-12	688.900E-3	-34.0567E-3	-127.837E-12	701.477E-3	-24.2693E-3
-3.40420E-3	-129.814E-12	685.465E-3	-16.8809E-3	-127.838E-12	687.331E-3	-7.80636E-3
-3.40920E-3	-129.668E-12	672.571E-3	-12.1322E-3	-128.043E-12	675.276E-3	-60.8085E-6
-3.41421E-3	-130.091E-12	678.068E-3	-20.8153E-3	-130.918E-12	666.769E-3	-380.711E-6
-3.41921E-3	-131.357E-12	686.797E-3	-4.34899E-3	-130.197E-12	664.611E-3	-8.24491E-3
-3.42421E-3	-131.875E-12	688.649E-3	8.83348E-3	-129.539E-12	688.020E-3	-20.1212E-3
-3.42921E-3	-130.843E-12	679.533E-3	6.40980E-3	-129.160E-12	696.224E-3	-24.6358E-3
-3.43422E-3	-129.585E-12	669.161E-3	-143.598E-6	-131.675E-12	689.148E-3	-20.8054E-3
-3.43922E-3	-131.499E-12	676.862E-3	-14.9286E-3	-132.827E-12	692.588E-3	-22.2463E-3
-3.44422E-3	-131.914E-12	695.233E-3	-23.9554E-3	-130.455E-12	690.280E-3	-17.3261E-3
-3.44922E-3	-130.797E-12	698.530E-3	-27.9650E-3	-131.168E-12	684.469E-3	-8.43969E-3
-3.45423E-3	-130.183E-12	687.058E-3	-26.4758E-3	-132.803E-12	684.978E-3	-7.56682E-3
-3.45923E-3	-131.509E-12	679.172E-3	-25.5624E-3	-134.266E-12	694.263E-3	-8.40702E-3
-3.46423E-3	-132.680E-12	669.717E-3	-34.5968E-3	-132.267E-12	703.406E-3	-16.6672E-3
-3.46923E-3	-132.103E-12	666.029E-3	-28.7797E-3	-132.698E-12	700.618E-3	-14.4168E-3
-3.47424E-3	-131.984E-12	678.365E-3	-10.8911E-3	-134.006E-12	682.005E-3	-10.6117E-3
-3.47924E-3	-132.491E-12	685.673E-3	-8.95232E-3	-135.928E-12	661.206E-3	-26.3841E-3
-3.48424E-3	-134.762E-12	667.725E-3	-16.8576E-3	-134.451E-12	673.576E-3	-24.3523E-3
-3.48924E-3	-134.503E-12	657.549E-3	-11.5375E-3	-132.971E-12	687.386E-3	-9.46796E-3
-3.49425E-3	-134.611E-12	664.156E-3	-5.17384E-3	-133.538E-12	660.204E-3	-1.82818E-3
-3.49925E-3	-134.008E-12	658.104E-3	-15.6013E-3	-136.124E-12	651.432E-3	-5.58323E-3
-3.50425E-3	-135.781E-12	663.480E-3	-18.7103E-3	-135.256E-12	677.406E-3	-14.2885E-3
-3.50925E-3	-135.857E-12	679.342E-3	-3.92609E-3	-134.371E-12	683.235E-3	-7.22417E-3
-3.51426E-3	-135.573E-12	692.879E-3	-402.178E-6	-133.975E-12	679.294E-3	-2.15896E-3
-3.51926E-3	-134.593E-12	705.200E-3	-13.1279E-3	-135.757E-12	677.041E-3	-12.2431E-3
-3.52426E-3	-135.399E-12	700.916E-3	-10.7475E-3	-136.227E-12	679.886E-3	-12.2888E-3
-3.52926E-3	-136.824E-12	699.795E-3	5.99963E-3	-135.738E-12	692.505E-3	-3.64871E-3
-3.53427E-3	-136.823E-12	713.694E-3	-1.06094E-3	-134.422E-12	708.412E-3	-1.99603E-3
-3.53927E-3	-134.365E-12	711.904E-3	-21.9760E-3	-135.785E-12	720.029E-3	-10.6514E-3
-3.54427E-3	-134.692E-12	688.427E-3	-15.9754E-3	-137.924E-12	699.151E-3	-11.9154E-3
-3.54927E-3	-135.616E-12	679.880E-3	-2.57743E-3	-138.812E-12	661.650E-3	-1.54207E-3
-3.55428E-3	-136.168E-12	676.260E-3	-2.71734E-3	-136.963E-12	649.418E-3	-8.29826E-3
-3.55928E-3	-134.575E-12	653.529E-3	-1.09806E-3	-137.455E-12	666.909E-3	-14.9621E-3
-3.56428E-3	-135.402E-12	649.284E-3	5.84254E-3	-139.575E-12	687.611E-3	2.15739E-3
-3.56928E-3	-136.192E-12	665.754E-3	9.45541E-3	-140.591E-12	685.636E-3	15.8412E-3
-3.57429E-3	-136.834E-12	666.472E-3	-3.04922E-3	-138.508E-12	681.497E-3	7.33799E-3
-3.57929E-3	-135.787E-12	667.066E-3	-17.4721E-3	-137.552E-12	691.845E-3	-8.74333E-3
-3.58429E-3	-136.963E-12	665.215E-3	-15.8716E-3	-138.436E-12	692.583E-3	-9.10104E-3
-3.58929E-3	-138.200E-12	646.688E-3	-7.87382E-3	-138.917E-12	691.605E-3	10.9952E-3
-3.59430E-3	-139.659E-12	640.885E-3	-20.4864E-3	-137.788E-12	696.313E-3	12.7484E-3
-3.59930E-3	-140.089E-12	655.399E-3	-31.2028E-3	-137.751E-12	691.454E-3	-5.10624E-3
-3.60430E-3	-139.643E-12	659.395E-3	188.136E-6	-137.188E-12	672.005E-3	-18.0660E-3
-3.60930E-3	-139.919E-12	667.735E-3	22.8847E-3	-138.092E-12	639.661E-3	-36.1689E-3
-3.61431E-3	-140.539E-12	693.199E-3	12.4058E-3	-136.872E-12	624.742E-3	-42.4666E-3
-3.61931E-3	-140.595E-12	683.774E-3	-2.45155E-3	-137.242E-12	636.387E-3	-10.0252E-3
-3.62431E-3	-139.505E-12	653.550E-3	-9.59488E-3	-136.377E-12	670.120E-3	18.3718E-3
-3.62931E-3	-139.718E-12	655.522E-3	-1.68648E-3	-137.594E-12	700.739E-3	1.78546E-3
-3.63432E-3	-140.786E-12	680.639E-3	-7.33614E-3	-138.525E-12	703.176E-3	-17.0434E-3
-3.63932E-3	-141.998E-12	687.124E-3	-35.6842E-3	-139.191E-12	687.473E-3	-12.1544E-3
-3.64432E-3	-140.070E-12	673.824E-3	-35.7057E-3	-140.080E-12	653.416E-3	4.28302E-3
-3.64932E-3	-139.009E-12	665.115E-3	-14.6703E-3	-139.980E-12	630.435E-3	16.4456E-3
-3.65433E-3	-140.161E-12	653.499E-3	-20.7985E-3	-142.198E-12	645.503E-3	1.69324E-3
-3.65933E-3	-141.889E-12	650.715E-3	-32.4487E-3	-142.672E-12	667.051E-3	-22.4408E-3
-3.66433E-3	-142.202E-12	668.274E-3	-24.2055E-3	-143.681E-12	668.322E-3	-28.3350E-3
-3.66933E-3	-141.215E-12	677.294E-3	-24.0083E-3	-142.915E-12	664.788E-3	-9.40193E-3
-3.67434E-3	-141.120E-12	676.297E-3	-26.9781E-3	-144.015E-12	656.714E-3	4.24622E-3
-3.67934E-3	-141.243E-12	694.663E-3	-22.2532E-3	-144.117E-12	664.299E-3	667.802E-6
-3.68434E-3	-142.854E-12	697.590E-3	-15.3841E-3	-144.036E-12	697.594E-3	159.162E-6
-3.68934E-3	-142.325E-12	688.745E-3	-13.8469E-3	-143.440E-12	709.088E-3	-15.7157E-3
-3.69435E-3	-141.692E-12	696.126E-3	-5.56979E-3	-142.700E-12	681.698E-3	-41.7976E-3
-3.69935E-3	-142.161E-12	679.856E-3	9.15326E-3	-143.213E-12	657.453E-3	-44.6496E-3
-3.70435E-3	-143.280E-12	669.119E-3	5.68032E-3	-141.922E-12	659.997E-3	-33.8796E-3
-3.70935E-3	-143.433E-12	668.496E-3	4.13500E-3	-141.873E-12	660.951E-3	-27.4242E-3
-3.71436E-3	-144.104E-12	657.025E-3	-9.27695E-3	-142.887E-12	655.591E-3	-17.6783E-3
-3.71936E-3	-144.656E-12	665.183E-3	-44.0177E-3	-142.692E-12	666.291E-3	3.33929E-3
-3.72436E-3	-144.316E-12	667.511E-3	-52.7645E-3	-141.777E-12	667.005E-3	20.7451E-3
-3.72936E-3	-144.895E-12	647.391E-3	-36.6540E-3	-142.015E-12	654.371E-3	12.7881E-3
-3.73437E-3	-145.209E-12	639.014E-3	-27.4702E-3	-143.514E-12	654.390E-3	-6.38082E-3
-3.73937E-3	-144.235E-12	646.455E-3	-16.0282E-3	-143.792E-12	657.726E-3	-4.94569E-3
-3.74437E-3	-144.749E-12	651.699E-3	-18.0151E-3	-143.362E-12	648.856E-3	1.79063E-3
-3.74937E-3	-145.720E-12	665.269E-3	-39.6419E-3	-143.232E-12	638.760E-3	-17.2647E-3
-3.75438E-3	-146.610E-12	673.784E-3	-45.2032E-3	-146.346E-12	655.954E-3	-33.2080E-3
-3.75938E-3	-145.254E-12	663.759E-3	-48.0376E-3	-146.740E-12	675.041E-3	-23.0196E-3
-3.76438E-3	-145.066E-12	665.734E-3	-42.1741E-3	-147.537E-12	675.756E-3	-11.9047E-3
-3.76938E-3	-145.564E-12	679.631E-3	-24.3304E-3	-146.620E-12	679.927E-3	-2.99037E-3
-3.77439E-3	-146.755E-12	678.706E-3	-19.2950E-3	-147.195E-12	667.786E-3	18.7258E-3
-3.77939E-3	-146.736E-12	660.163E-3	-16.6530E-3	-147.274E-12	651.260E-3	26.5976E-3
-3.78439E-3	-145.791E-12	654.032E-3	-18.7492E-3	-148.398E-12	669.336E-3	2.94423E-3
-3.78939E-3	-146.213E-12	667.030E-3	-10.1106E-3	-148.546E-12	691.238E-3	-29.5225E-3
-3.79440E-3	-148.117E-12	679.380E-3	-3.71140E-3	-147.214E-12	685.283E-3	-35.7391E-3
-3.79940E-3	-150.052E-12	688.999E-3	-22.2320E-3	-147.863E-12	673.785E-3	-11.4038E-3
-3.80440E-3	-148.270E-12	689.766E-3	-23.0998E-3	-148.558E-12	675.179E-3	3.96860E-3
-3.80940E-3	-147.969E-12	666.052E-3	-5.43044E-3	-147.929E-12	674.043E-3	9.14599E-3
-3.81441E-3	-148.558E-12	639.340E-3	-1.55884E-3	-146.910E-12	672.990E-3	1.53012E-3
-3.81941E-3	-149.453E-12	644.009E-3	3.31328E-3	-146.859E-12	675.525E-3	-20.9231E-3
-3.82441E-3	-149.912E-12	662.876E-3	924.866E-6	-147.894E-12	670.155E-3	-33.1207E-3
-3.82941E-3	-148.946E-12	671.080E-3	-9.76248E-3	-147.154E-12	675.320E-3	-33.8758E-3
-3.83442E-3	-150.590E-12	666.405E-3	-10.3309E-3	-147.925E-12	684.870E-3	-28.0161E-3
-3.83942E-3	-151.576E-12	651.173E-3	-24.6655E-3	-148.930E-12	677.239E-3	-18.0675E-3
-3.84442E-3	-152.374E-12	659.412E-3	-34.2254E-3	-149.611E-12	675.167E-3	-18.7672E-3
-3.84942E-3	-152.135E-12	685.726E-3	-22.3158E-3	-148.209E-12	690.977E-3	-27.1325E-3
-3.85443E-3	-151.975E-12	686.415E-3	-26.4976E-3	-149.749E-12	703.620E-3	-42.3691E-3
-3.85943E-3	-153.115E-12	675.142E-3	-40.3322E-3	-152.288E-12	701.225E-3	-61.1074E-3
-3.86443E-3	-152.867E-12	672.345E-3	-42.3794E-3	-152.382E-12	686.558E-3	-54.2372E-3
-3.86943E-3	-153.244E-12	684.443E-3	-29.5495E-3	-151.855E-12	683.890E-3	-42.1850E-3
-3.87444E-3	-151.959E-12	702.065E-3	-23.4615E-3	-152.743E-12	695.811E-3	-34.9120E-3
-3.87944E-3	-152.918E-12	703.831E-3	-21.2527E-3	-154.992E-12	686.992E-3	-11.5066E-3
-3.88444E-3	-152.718E-12	707.595E-3	2.15819E-3	-154.838E-12	688.392E-3	-6.81388E-3
-3.88944E-3	-153.293E-12	700.545E-3	1.32173E-3	-154.052E-12	705.102E-3	-27.2220E-3
-3.89445E-3	-153.437E-12	666.122E-3	-16.9500E-3	-154.257E-12	685.492E-3	-21.7614E-3
-3.89945E-3	-153.290E-12	653.048E-3	-14.1506E-3	-156.445E-12	664.122E-3	-8.61087E-3
-3.90445E-3	-153.319E-12	671.406E-3	-19.5125E-3	-157.414E-12	686.422E-3	-34.3450E-3
-3.90945E-3	-152.681E-12	694.222E-3	-26.2757E-3	-154.255E-12	716.850E-3	-47.3206E-3
-3.91446E-3	-153.623E-12	695.822E-3	-27.6719E-3	-153.700E-12	713.287E-3	-20.8600E-3
-3.91946E-3	-153.649E-12	680.549E-3	-42.8547E-3	-154.453E-12	693.667E-3	8.24961E-3
-3.92446E-3	-153.914E-12	682.348E-3	-27.1631E-3	-155.476E-12	681.394E-3	23.8971E-3
-3.92946E-3	-154.464E-12	685.921E-3	14.7676E-3	-153.288E-12	678.078E-3	11.6000E-3
-3.93447E-3	-155.116E-12	669.925E-3	6.54273E-3	-152.286E-12	675.563E-3	-11.7642E-3
-3.93947E-3	-156.450E-12	671.296E-3	-2.99424E-3	-153.579E-12	675.645E-3	-23.4418E-3
-3.94447E-3	-156.032E-12	692.891E-3	15.8581E-3	-155.807E-12	682.458E-3	-30.2483E-3
-3.94947E-3	-156.532E-12	681.325E-3	15.1141E-3	-155.231E-12	679.480E-3	-28.7871E-3
-3.95448E-3	-155.309E-12	653.334E-3	10.0489E-3	-153.074E-12	673.901E-3	-14.1706E-3
-3.95948E-3	-156.484E-12	656.287E-3	-9.58754E-3	-155.755E-12	678.679E-3	-4.51726E-3
-3.96448E-3	-156.059E-12	665.652E-3	-35.1610E-3	-157.156E-12	688.518E-3	-3.19265E-3
-3.96948E-3	-156.130E-12	669.160E-3	-29.0568E-3	-157.350E-12	690.878E-3	13.7437E-3
-3.97449E-3	-154.408E-12	671.455E-3	-10.4983E-3	-156.165E-12	697.201E-3	22.4424E-3
-3.97949E-3	-153.502E-12	664.731E-3	-5.60724E-3	-156.693E-12	706.276E-3	19.7625E-3
-3.98449E-3	-155.168E-12	655.334E-3	-15.1222E-3	-157.491E-12	694.077E-3	16.0457E-3
-3.98949E-3	-156.035E-12	654.106E-3	-17.0009E-3	-158.352E-12	664.124E-3	5.35767E-3
-3.99450E-3	-155.514E-12	657.399E-3	-4.70666E-3	-159.289E-12	647.908E-3	3.91077E-3
-3.99950E-3	-154.778E-12	655.294E-3	-1.93692E-3	-157.207E-12	664.532E-3	10.3199E-3
-4.00450E-3	-155.958E-12	662.651E-3	-21.8708E-3	-158.305E-12	682.108E-3	16.7534E-3
-4.00950E-3	-157.810E-12	668.723E-3	-52.7156E-3	-158.273E-12	684.926E-3	7.69604E-3
-4.01451E-3	-158.116E-12	652.099E-3	-52.6482E-3	-158.848E-12	684.421E-3	-14.3205E-3
-4.01951E-3	-156.854E-12	639.079E-3	-29.9885E-3	-156.759E-12	686.461E-3	-24.6083E-3
-4.02451E-3	-156.883E-12	651.732E-3	-8.11576E-3	-157.526E-12	676.826E-3	-14.9877E-3
-4.02951E-3	-159.733E-12	667.743E-3	4.23369E-3	-157.979E-12	670.062E-3	-3.94734E-3
-4.03452E-3	-160.313E-12	679.504E-3	-20.0015E-3	-156.064E-12	688.466E-3	-3.58643E-3
-4.03952E-3	-158.296E-12	706.175E-3	-45.5646E-3	-156.729E-12	696.538E-3	-12.8751E-3
-4.04452E-3	-158.342E-12	715.893E-3	-37.9612E-3	-157.228E-12	678.223E-3	-16.9467E-3
-4.04952E-3	-159.187E-12	683.402E-3	-12.2831E-3	-157.959E-12	670.501E-3	-217.059E-6
-4.05453E-3	-159.073E-12	651.483E-3	6.97948E-3	-158.499E-12	674.956E-3	9.08704E-3
-4.05953E-3	-157.923E-12	643.803E-3	2.85450E-3	-157.962E-12	664.427E-3	-7.18394E-3
-4.06453E-3	-157.205E-12	649.802E-3	-5.12534E-3	-158.661E-12	655.297E-3	-33.1587E-3
-4.06953E-3	-157.803E-12	658.370E-3	664.568E-6	-159.886E-12	651.268E-3	-45.6709E-3
-4.07454E-3	-159.323E-12	671.576E-3	4.08012E-3	-161.781E-12	660.479E-3	-38.2107E-3
-4.07954E-3	-158.893E-12	679.161E-3	2.12987E-3	-161.537E-12	674.651E-3	-25.6911E-3
-4.08454E-3	-159.081E-12	669.129E-3	-11.2132E-3	-160.375E-12	672.051E-3	-18.3144E-3
-4.08954E-3	-159.014E-12	671.476E-3	-29.5389E-3	-162.728E-12	676.297E-3	-12.3960E-3
-4.09455E-3	-160.801E-12	682.082E-3	-18.4510E-3	-163.843E-12	676.159E-3	-13.3374E-3
-4.09955E-3	-161.231E-12	662.390E-3	-7.27215E-3	-163.520E-12	669.168E-3	-6.73965E-3
-4.10455E-3	-161.458E-12	654.571E-3	-9.93683E-3	-163.225E-12	669.188E-3	13.7133E-3
-4.10955E-3	-161.399E-12	669.829E-3	5.23548E-3	-163.334E-12	661.009E-3	5.66663E-3
-4.11456E-3	-162.601E-12	659.457E-3	580.915E-6	-163.774E-12	653.479E-3	-17.6077E-3
-4.11956E-3	-162.791E-12	664.889E-3	-29.6628E-3	-163.780E-12	656.691E-3	-34.2444E-3
-4.12456E-3	-162.604E-12	687.903E-3	-15.7762E-3	-163.853E-12	676.586E-3	-41.5324E-3
-4.12956E-3	-162.916E-12	688.241E-3	15.3226E-3	-163.358E-12	694.283E-3	-36.5187E-3
-4.13457E-3	-163.517E-12	689.192E-3	7.62741E-3	-163.574E-12	679.402E-3	-30.9307E-3
-4.13957E-3	-163.480E-12	680.010E-3	-11.6089E-3	-164.292E-12	670.020E-3	-11.6500E-3
-4.14457E-3	-161.658E-12	652.027E-3	-11.7751E-3	-164.160E-12	686.346E-3	11.4497E-3
-4.14957E-3	-162.786E-12	637.465E-3	-3.54298E-3	-163.331E-12	684.336E-3	2.44721E-3
-4.15458E-3	-164.361E-12	643.295E-3	-1.50351E-3	-163.983E-12	672.333E-3	-15.2079E-3
-4.15958E-3	-164.898E-12	656.794E-3	-9.32670E-3	-164.364E-12	677.167E-3	-22.1390E-3
-4.16458E-3	-163.575E-12	669.950E-3	-33.1023E-3	-164.620E-12	676.987E-3	-30.3512E-3
-4.16958E-3	-163.272E-12	678.227E-3	-44.5193E-3	-165.395E-12	673.123E-3	-27.8303E-3
-4.17459E-3	-165.222E-12	680.956E-3	-29.7655E-3	-166.090E-12	676.488E-3	-26.6377E-3
-4.17959E-3	-166.860E-12	670.196E-3	-13.4142E-3	-165.660E-12	670.732E-3	-35.8562E-3
-4.18459E-3	-165.663E-12	658.807E-3	-6.48761E-3	-166.197E-12	663.133E-3	-23.8840E-3
-4.18959E-3	-163.756E-12	651.566E-3	-14.4398E-3	-166.750E-12	659.315E-3	3.83218E-3
-4.19460E-3	-164.767E-12	633.637E-3	-34.8480E-3	-167.925E-12	658.209E-3	12.1447E-3
-4.19960E-3	-166.653E-12	636.061E-3	-52.3338E-3	-167.805E-12	676.207E-3	12.2091E-3
-4.20460E-3	-166.978E-12	657.846E-3	-46.2181E-3	-166.927E-12	711.990E-3	5.73305E-3
-4.20960E-3	-165.551E-12	653.293E-3	-22.7123E-3	-167.188E-12	716.988E-3	-29.2112E-3
-4.21461E-3	-165.813E-12	654.112E-3	2.50136E-3	-167.829E-12	688.938E-3	-42.3190E-3
-4.21961E-3	-166.056E-12	666.005E-3	29.8669E-3	-169.166E-12	663.185E-3	-12.5232E-3
-4.22461E-3	-166.602E-12	653.347E-3	35.3097E-3	-168.443E-12	644.274E-3	-979.789E-6
-4.22961E-3	-166.183E-12	645.552E-3	26.0123E-3	-167.262E-12	640.469E-3	7.30729E-3
-4.23462E-3	-165.917E-12	648.083E-3	31.0688E-3	-167.240E-12	635.637E-3	10.5475E-3
-4.23962E-3	-166.312E-12	651.470E-3	43.7711E-3	-167.908E-12	641.800E-3	-16.3617E-3
-4.24462E-3	-167.347E-12	653.095E-3	39.9541E-3	-167.499E-12	666.246E-3	-38.6526E-3
-4.24962E-3	-167.048E-12	653.170E-3	8.86706E-3	-166.318E-12	676.299E-3	-39.1939E-3
-4.25463E-3	-166.485E-12	665.735E-3	-13.0521E-3	-166.535E-12	665.084E-3	-27.6473E-3
-4.25963E-3	-168.252E-12	682.633E-3	-11.3564E-3	-168.389E-12	654.563E-3	-17.7948E-3
-4.26463E-3	-169.624E-12	695.816E-3	-7.19979E-3	-167.800E-12	666.970E-3	-6.97798E-3
-4.26963E-3	-169.219E-12	700.076E-3	-12.3265E-3	-167.557E-12	690.359E-3	-11.5499E-3
-4.27464E-3	-167.533E-12	695.509E-3	-19.7819E-3	-168.294E-12	683.189E-3	-16.6324E-3
-4.27964E-3	-169.450E-12	683.383E-3	-9.79162E-3	-170.049E-12	657.786E-3	5.84398E-3
-4.28464E-3	-171.220E-12	659.606E-3	-12.3812E-3	-171.373E-12	641.170E-3	16.1731E-3
-4.28964E-3	-169.766E-12	646.668E-3	-49.8519E-3	-171.007E-12	643.722E-3	1.28135E-3
-4.29465E-3	-168.210E-12	644.765E-3	-60.5857E-3	-170.117E-12	687.867E-3	-15.2015E-3
-4.29965E-3	-168.716E-12	636.001E-3	-37.3445E-3	-169.746E-12	728.323E-3	-22.4651E-3
-4.30465E-3	-169.083E-12	642.633E-3	-11.8036E-3	-171.652E-12	714.466E-3	-27.5936E-3
-4.30965E-3	-170.309E-12	662.680E-3	9.22322E-3	-170.405E-12	675.593E-3	-21.5416E-3
-4.31466E-3	-169.309E-12	677.787E-3	-8.20304E-3	-170.444E-12	647.191E-3	-7.68779E-3
-4.31966E-3	-168.860E-12	694.793E-3	-24.8403E-3	-169.375E-12	639.946E-3	-14.6194E-3
-4.32466E-3	-168.825E-12	690.445E-3	-331.063E-6	-169.700E-12	661.689E-3	-19.3715E-3
-4.32966E-3	-170.930E-12	670.820E-3	7.49602E-3	-170.639E-12	668.915E-3	-16.2843E-3
-4.33467E-3	-170.961E-12	658.128E-3	-13.4642E-3	-172.689E-12	650.220E-3	-28.5825E-3
-4.33967E-3	-169.306E-12	639.323E-3	-22.2571E-3	-171.336E-12	652.224E-3	-42.6857E-3
-4.34467E-3	-169.822E-12	631.699E-3	-21.2265E-3	-169.646E-12	677.712E-3	-41.9923E-3
-4.34967E-3	-171.151E-12	631.503E-3	-31.2750E-3	-170.862E-12	692.421E-3	-39.6361E-3
-4.35468E-3	-172.246E-12	629.755E-3	-48.4548E-3	-172.460E-12	664.697E-3	-44.7761E-3
-4.35968E-3	-171.395E-12	651.244E-3	-44.8187E-3	-172.627E-12	643.292E-3	-30.6827E-3
-4.36468E-3	-170.774E-12	681.428E-3	-37.4725E-3	-171.235E-12	657.886E-3	-15.3420E-3
-4.36968E-3	-171.278E-12	702.413E-3	-32.3996E-3	-171.653E-12	665.071E-3	-20.5145E-3
-4.37469E-3	-173.197E-12	711.060E-3	-16.8162E-3	-173.895E-12	670.353E-3	-28.1511E-3
-4.37969E-3	-174.799E-12	688.201E-3	-30.0939E-3	-173.359E-12	673.170E-3	-33.7361E-3
-4.38469E-3	-172.973E-12	668.487E-3	-46.2081E-3	-172.358E-12	668.643E-3	-17.9475E-3
-4.38969E-3	-171.695E-12	677.000E-3	-36.8421E-3	-172.391E-12	669.110E-3	8.64626E-3
-4.39470E-3	-170.654E-12	674.203E-3	-28.1520E-3	-175.067E-12	674.970E-3	-8.72949E-3
-4.39970E-3	-172.483E-12	660.022E-3	-24.1742E-3	-175.532E-12	670.624E-3	-39.4457E-3
-4.40470E-3	-171.886E-12	651.812E-3	-19.2358E-3	-175.570E-12	668.582E-3	-20.4761E-3
-4.40970E-3	-171.855E-12	641.943E-3	-12.7194E-3	-175.996E-12	685.719E-3	-834.255E-6
-4.41471E-3	-171.952E-12	643.573E-3	5.68816E-3	-177.111E-12	687.361E-3	-26.6806E-3
-4.41971E-3	-173.571E-12	661.670E-3	25.2804E-3	-177.835E-12	675.066E-3	-37.1339E-3
-4.42471E-3	-174.204E-12	677.135E-3	15.5943E-3	-177.217E-12	654.981E-3	-17.1114E-3
-4.42971E-3	-174.422E-12	687.584E-3	-10.2939E-3	-176.567E-12	638.236E-3	-10.9493E-3
-4.43472E-3	-174.297E-12	683.099E-3	-21.5802E-3	-178.117E-12	641.364E-3	-18.2811E-3
-4.43972E-3	-175.920E-12	666.702E-3	-22.5446E-3	-179.674E-12	660.338E-3	-24.2683E-3
-4.44472E-3	-176.514E-12	650.163E-3	-35.9072E-3	-179.647E-12	676.697E-3	-21.2486E-3
-4.44972E-3	-176.953E-12	649.616E-3	-47.7389E-3	-178.601E-12	667.039E-3	7.47080E-3
-4.45473E-3	-177.077E-12	655.020E-3	-39.9324E-3	-179.445E-12	662.768E-3	21.5566E-3
-4.45973E-3	-178.042E-12	660.406E-3	-13.5884E-3	-180.337E-12	677.639E-3	-18.1758E-3
-4.46473E-3	-178.894E-12	686.318E-3	17.3061E-3	-181.524E-12	678.582E-3	-49.2620E-3
-4.46973E-3	-179.211E-12	698.473E-3	14.2827E-3	-179.761E-12	671.223E-3	-46.1918E-3
-4.47474E-3	-179.097E-12	679.669E-3	-3.57662E-3	-178.812E-12	659.796E-3	-57.8325E-3
-4.47974E-3	-178.567E-12	679.121E-3	-6.69974E-3	-179.790E-12	642.018E-3	-55.3509E-3
-4.48474E-3	-178.767E-12	681.058E-3	3.08771E-3	-180.782E-12	662.155E-3	-18.2078E-3
-4.48974E-3	-179.693E-12	675.593E-3	13.6367E-3	-181.377E-12	691.757E-3	-23.2165E-3
-4.49475E-3	-178.326E-12	706.583E-3	-2.24831E-3	-178.970E-12	687.706E-3	-50.9584E-3
-4.49975E-3	-178.339E-12	711.773E-3	-25.5243E-3	-180.942E-12	681.445E-3	-46.2511E-3
-4.50475E-3	-178.227E-12	663.892E-3	-24.1136E-3	-183.783E-12	669.823E-3	-47.8208E-3
-4.50975E-3	-180.481E-12	654.455E-3	-27.0893E-3	-183.014E-12	649.540E-3	-43.3597E-3
-4.51476E-3	-181.205E-12	688.095E-3	-37.4302E-3	-181.311E-12	643.333E-3	-11.8960E-3
-4.51976E-3	-181.760E-12	682.839E-3	-12.6233E-3	-181.406E-12	647.501E-3	4.59368E-3
-4.52476E-3	-179.976E-12	653.486E-3	3.56695E-3	-184.499E-12	642.323E-3	11.7383E-3
-4.52976E-3	-182.798E-12	655.577E-3	-8.87795E-3	-184.454E-12	646.087E-3	13.9487E-3
-4.53477E-3	-182.929E-12	655.402E-3	-17.0401E-3	-183.873E-12	662.237E-3	3.44708E-3
-4.53977E-3	-182.266E-12	653.858E-3	-20.8396E-3	-182.438E-12	666.189E-3	-3.58099E-3
-4.54477E-3	-180.710E-12	667.835E-3	-2.63299E-3	-182.884E-12	672.629E-3	-15.6103E-3
-4.54977E-3	-181.641E-12	660.223E-3	9.42854E-3	-183.582E-12	675.044E-3	-35.1294E-3
-4.55478E-3	-183.942E-12	651.020E-3	-7.65051E-3	-183.357E-12	684.306E-3	-53.7430E-3
-4.55978E-3	-184.437E-12	673.941E-3	-15.1802E-3	-182.260E-12	699.526E-3	-45.9148E-3
-4.56478E-3	-183.909E-12	677.254E-3	-29.9734E-3	-182.479E-12	699.940E-3	-3.09363E-3
-4.56978E-3	-181.753E-12	651.755E-3	-73.2216E-3	-184.525E-12	694.065E-3	3.31707E-3
-4.57479E-3	-183.963E-12	639.145E-3	-89.3175E-3	-184.016E-12	663.535E-3	-23.9036E-3
-4.57979E-3	-182.231E-12	630.666E-3	-74.2506E-3	-182.313E-12	646.031E-3	-13.8609E-3
-4.58479E-3	-181.444E-12	646.077E-3	-58.4013E-3	-182.915E-12	659.355E-3	12.3993E-3
-4.58979E-3	-178.837E-12	678.284E-3	-28.0101E-3	-185.574E-12	668.447E-3	16.4567E-3
-4.59480E-3	-181.163E-12	662.891E-3	-10.1969E-3	-186.025E-12	685.361E-3	5.28553E-3
-4.59980E-3	-181.558E-12	623.035E-3	-13.7083E-3	-184.015E-12	690.260E-3	-4.90262E-3
-4.60480E-3	-181.480E-12	613.877E-3	-25.3908E-3	-184.257E-12	672.820E-3	510.577E-6
-4.60980E-3	-181.747E-12	621.806E-3	-37.2427E-3	-185.064E-12	659.902E-3	16.5538E-3
-4.61481E-3	-182.253E-12	628.557E-3	-31.8710E-3	-186.362E-12	658.113E-3	14.8267E-3
-4.61981E-3	-184.759E-12	646.657E-3	-21.7742E-3	-184.903E-12	658.931E-3	-5.55715E-3
-4.62481E-3	-183.849E-12	661.271E-3	-5.14851E-3	-183.519E-12	646.230E-3	-20.6728E-3
-4.62981E-3	-184.134E-12	646.289E-3	-6.82108E-3	-184.599E-12	637.642E-3	-19.4027E-3
-4.63482E-3	-184.085E-12	642.392E-3	-5.53808E-3	-184.538E-12	654.685E-3	-12.4553E-3
-4.63982E-3	-186.742E-12	657.779E-3	29.8128E-3	-184.329E-12	669.343E-3	-9.14374E-3
-4.64482E-3	-186.489E-12	673.659E-3	24.2020E-3	-183.038E-12	658.570E-3	-3.25972E-3
-4.64982E-3	-185.137E-12	703.491E-3	-17.4094E-3	-185.073E-12	660.299E-3	-9.81199E-3
-4.65483E-3	-184.998E-12	718.260E-3	-25.9354E-3	-183.876E-12	687.337E-3	-39.2003E-3
-4.65983E-3	-185.955E-12	704.218E-3	-10.9259E-3	-184.504E-12	691.081E-3	-54.4989E-3
-4.66483E-3	-187.356E-12	690.519E-3	-3.58196E-3	-185.188E-12	656.978E-3	-44.8765E-3
-4.66983E-3	-186.618E-12	672.032E-3	-5.02303E-3	-186.460E-12	631.362E-3	-26.7661E-3
-4.67484E-3	-186.182E-12	646.731E-3	-23.9832E-3	-187.282E-12	650.739E-3	-9.77140E-3
-4.67984E-3	-185.506E-12	647.292E-3	-34.2553E-3	-187.073E-12	690.668E-3	-11.3569E-3
-4.68484E-3	-186.454E-12	662.233E-3	-24.6295E-3	-187.664E-12	700.746E-3	-23.1685E-3
-4.68984E-3	-186.906E-12	650.991E-3	-26.7215E-3	-188.375E-12	679.286E-3	-47.5847E-3
-4.69485E-3	-187.807E-12	641.810E-3	-20.9219E-3	-188.369E-12	668.778E-3	-60.4959E-3
-4.69985E-3	-187.921E-12	657.950E-3	-8.25291E-3	-188.829E-12	677.779E-3	-34.8671E-3
-4.70485E-3	-187.434E-12	664.977E-3	-3.96421E-3	-189.747E-12	668.523E-3	-3.57347E-3
-4.70985E-3	-189.757E-12	653.619E-3	10.4461E-3	-190.194E-12	647.798E-3	19.4573E-3
-4.71486E-3	-189.415E-12	645.776E-3	3.59727E-3	-189.377E-12	666.853E-3	7.67301E-3
-4.71986E-3	-191.538E-12	676.273E-3	-13.4548E-3	-190.688E-12	713.561E-3	-30.8179E-3
-4.72486E-3	-192.135E-12	718.245E-3	-8.16322E-3	-189.644E-12	718.153E-3	-52.4824E-3
-4.72986E-3	-191.650E-12	713.116E-3	-13.0182E-3	-189.652E-12	681.186E-3	-54.1683E-3
-4.73487E-3	-190.249E-12	689.358E-3	-31.7434E-3	-188.498E-12	663.631E-3	-29.6842E-3
-4.73987E-3	-191.533E-12	681.636E-3	-48.1732E-3	-190.177E-12	663.545E-3	780.709E-6
-4.74487E-3	-192.784E-12	679.516E-3	-32.2676E-3	-190.213E-12	662.226E-3	-1.46068E-3
-4.74988E-3	-192.527E-12	664.862E-3	-1.27339E-3	-190.424E-12	660.186E-3	-18.8016E-3
-4.75488E-3	-191.613E-12	645.819E-3	2.75777E-3	-189.991E-12	656.441E-3	-21.0798E-3
-4.75988E-3	-191.773E-12	648.930E-3	-541.731E-6	-190.123E-12	654.327E-3	-17.9407E-3
-4.76488E-3	-192.742E-12	659.170E-3	-6.97726E-3	-191.151E-12	657.320E-3	-26.0440E-3
-4.76988E-3	-193.264E-12	669.295E-3	-9.70285E-3	-191.279E-12	661.807E-3	-33.2215E-3
-4.77489E-3	-193.271E-12	667.812E-3	-5.30674E-3	-190.466E-12	665.681E-3	-30.3761E-3
-4.77989E-3	-192.263E-12	659.257E-3	-5.87510E-3	-192.146E-12	667.478E-3	-34.1938E-3
-4.78489E-3	-195.057E-12	674.163E-3	3.60771E-3	-194.177E-12	669.891E-3	-51.3883E-3
-4.78989E-3	-195.630E-12	673.314E-3	11.8193E-3	-193.775E-12	674.354E-3	-63.4924E-3
-4.79490E-3	-196.674E-12	659.850E-3	1.90781E-3	-191.731E-12	666.273E-3	-48.8554E-3
-4.79990E-3	-195.396E-12	685.386E-3	-24.4939E-3	-191.528E-12	648.794E-3	-20.8303E-3
-4.80490E-3	-196.131E-12	705.111E-3	-38.2891E-3	-192.829E-12	644.966E-3	-10.9634E-3
-4.80990E-3	-196.183E-12	680.113E-3	-22.4181E-3	-194.982E-12	656.339E-3	-13.5903E-3
-4.81491E-3	-196.819E-12	637.946E-3	5.36223E-3	-193.495E-12	679.979E-3	-17.9255E-3
-4.81991E-3	-197.727E-12	621.580E-3	33.8842E-3	-191.208E-12	714.678E-3	-31.4906E-3
-4.82491E-3	-195.625E-12	646.057E-3	31.6226E-3	-191.415E-12	720.205E-3	-45.7405E-3
-4.82991E-3	-194.922E-12	672.693E-3	8.82835E-3	-193.158E-12	694.041E-3	-29.3329E-3
-4.83492E-3	-193.283E-12	698.540E-3	-11.5426E-3	-193.920E-12	700.298E-3	-7.33472E-3
-4.83992E-3	-197.786E-12	709.264E-3	-51.2459E-3	-193.464E-12	725.290E-3	-10.0527E-3
-4.84492E-3	-198.680E-12	682.924E-3	-76.2340E-3	-193.795E-12	701.660E-3	-9.17386E-3
-4.84992E-3	-196.162E-12	665.103E-3	-55.9367E-3	-194.776E-12	656.253E-3	-7.58487E-3
-4.85493E-3	-195.118E-12	676.512E-3	-32.9290E-3	-195.882E-12	639.270E-3	-18.4221E-3
-4.85993E-3	-195.983E-12	681.572E-3	-22.6044E-3	-195.315E-12	646.768E-3	-24.8276E-3
-4.86493E-3	-199.431E-12	660.207E-3	-11.3695E-3	-196.893E-12	659.317E-3	-12.3294E-3
-4.86993E-3	-198.317E-12	654.591E-3	-17.4740E-3	-197.006E-12	654.942E-3	6.36931E-3
-4.87494E-3	-198.246E-12	689.066E-3	-31.2048E-3	-197.723E-12	648.405E-3	-5.79003E-3
-4.87994E-3	-196.564E-12	715.819E-3	-12.8542E-3	-197.558E-12	652.215E-3	-42.1381E-3
-4.88494E-3	-198.864E-12	715.545E-3	3.03319E-3	-196.846E-12	670.943E-3	-60.8268E-3
-4.88995E-3	-200.319E-12	681.734E-3	-13.8909E-3	-196.179E-12	673.710E-3	-56.8087E-3
-4.89495E-3	-199.750E-12	658.282E-3	-27.0754E-3	-195.948E-12	648.106E-3	-30.7773E-3
-4.89995E-3	-195.577E-12	681.463E-3	-34.0636E-3	-198.273E-12	659.638E-3	17.8949E-3
-4.90495E-3	-195.358E-12	697.745E-3	-33.3796E-3	-197.769E-12	665.556E-3	23.9120E-3
-4.90995E-3	-199.134E-12	688.489E-3	-25.5368E-3	-196.011E-12	638.795E-3	-14.0681E-3
-4.91496E-3	-200.317E-12	665.191E-3	-23.5592E-3	-196.426E-12	646.293E-3	-33.2095E-3
-4.91996E-3	-195.127E-12	655.602E-3	-23.4131E-3	-198.358E-12	647.960E-3	-19.4569E-3
-4.92496E-3	-195.766E-12	666.088E-3	-17.2679E-3	-198.662E-12	631.887E-3	9.08071E-3
-4.92996E-3	-199.483E-12	682.874E-3	5.38680E-3	-198.700E-12	651.108E-3	3.16560E-3
-4.93497E-3	-201.041E-12	687.105E-3	4.16115E-3	-199.456E-12	672.005E-3	-24.1678E-3
-4.93997E-3	-198.386E-12	673.746E-3	-19.1386E-3	-201.472E-12	675.906E-3	-30.5671E-3
-4.94497E-3	-198.591E-12	663.608E-3	-17.8975E-3	-203.923E-12	688.496E-3	-29.5099E-3
-4.94997E-3	-201.620E-12	666.929E-3	-19.4745E-3	-201.721E-12	692.641E-3	-20.4591E-3
-4.95498E-3	-203.990E-12	683.280E-3	-21.3765E-3	-202.568E-12	665.998E-3	-916.102E-6
-4.95998E-3	-202.328E-12	686.085E-3	-26.7209E-3	-204.923E-12	656.297E-3	18.1813E-3
-4.96498E-3	-203.115E-12	673.885E-3	-47.7065E-3	-206.479E-12	698.113E-3	6.31091E-3
-4.96998E-3	-205.087E-12	664.087E-3	-38.4427E-3	-203.744E-12	732.557E-3	-32.7294E-3
-4.97499E-3	-205.312E-12	646.858E-3	-26.9104E-3	-203.511E-12	738.745E-3	-38.4929E-3
-4.97999E-3	-205.788E-12	642.273E-3	-48.4254E-3	-204.672E-12	736.771E-3	-35.7747E-3
-4.98499E-3	-204.979E-12	657.123E-3	-73.7869E-3	-204.049E-12	709.106E-3	-38.7384E-3
-4.98999E-3	-204.354E-12	682.611E-3	-80.8598E-3	-202.723E-12	676.441E-3	-23.4833E-3
-4.99500E-3	-205.320E-12	716.790E-3	-65.1142E-3	-203.195E-12	668.888E-3	-24.4894E-3
-5.00000E-3	-206.415E-12	716.308E-3	-50.5472E-3	-206.972E-12	686.227E-3	-41.2162E-3
