Experiment	bias spectroscopy	
Date	19.01.2016 20:01:59	
User		
X (m)	49.9959E-9	
Y (m)	256.682E-9	
Z (m)	-132.531E-9	
Z offset (m)	0E+0	
Settling time (s)	200E-6	
Integration time (s)	5E-3	
Z-Ctrl hold	TRUE	
Final Z (m)	N/A	
Filter type	None	
Order		
Cutoff frq		
Comment01	MnPc/Pb(111)	
Comment02	dz =00pm	
Comment03	7 Sweeps	
Comment04	MagField =0.T	
Comment05	Divider 1:10	
Comment06	Setpoint:5mV,200 pA	
Comment07	Lockin: 50uVrms,5ms,5mV	
Comment08	Gain:9; 912Hz modulation	
Comment09	T=1.06K	
Bias>Bias (V)	5E-3	
Bias>Calibration (V/V)	81.475E-3	
Bias>Offset (V)	1.046E-3	
Bias Spectroscopy>Sweep Start (V)	5E-3	
Bias Spectroscopy>Sweep End (V)	-5E-3	
Bias Spectroscopy>Num Pixel	2000	
Bias Spectroscopy>Z Avg time (s)	500E-3	
Bias Spectroscopy>Z offset (m)	0E+0	
Bias Spectroscopy>1st Settling time (s)	500E-3	
Bias Spectroscopy>Settling time (s)	200E-6	
Bias Spectroscopy>Integration time (s)	5E-3	
Bias Spectroscopy>End Settling time (s)	500E-3	
Bias Spectroscopy>Z control time (s)	500E-3	
Bias Spectroscopy>Max Slew rate (V/s)	Inf	
Bias Spectroscopy>backward sweep	TRUE	
Bias Spectroscopy>Z-controller hold	TRUE	
Bias Spectroscopy>Number of sweeps	7	
Bias Spectroscopy>Channels	Current (A);X% LockIn (V);Y% LockIn (V)	
Bias Spectroscopy>Reset Bias	TRUE	
Bias Spectroscopy>Record final Z	FALSE	
Bias Spectroscopy>Lock-In run	FALSE	
Bias Spectroscopy>Sweep mode	Linear	
Bias Spectroscopy>MultiLine Settings : Segment Start (V), Segment End (V), Settling (s), Integration (s), Steps (xn)	100E-3,3.3E-3,100E-6,10E-3,2500;3.3E-3,-3.3E-3,100E-6,10E-3,10;-3.3E-3,-100E-3,100E-6,10E-3,2500	
Current>Current (A)	200.112E-12	
Current>Calibration (A/V)	999.99900E-12	
Current>Offset (A)	-455.429E-15	
Current>Gain	LN 10^9	
Z-Controller>Z (m)	-132.532E-9	
Z-Controller>Controller name	log Current	
Z-Controller>Controller status	ON	
Z-Controller>Setpoint	200E-12	
Z-Controller>Setpoint unit	A	
Z-Controller>P gain	2.96994E-12	
Z-Controller>I gain	67.0321E-9	
Z-Controller>Time const (s)	44.3062E-6	
Z-Controller>TipLift (m)	0E+0	
Z-Controller>Switch off delay (s)	50E-3	
Current (A)	200.209E-12	
Z (m)	-132.532E-9	

[DATA]
Bias calc (V)	Current (A)	X% LockIn (V)	Y% LockIn (V)	Current [bwd] (A)	X% LockIn [bwd] (V)	Y% LockIn [bwd] (V)
5.00000E-3	196.442E-12	524.932E-3	3.72942E-3	198.219E-12	545.526E-3	5.26406E-3
4.99500E-3	197.117E-12	538.899E-3	-52.8329E-3	200.723E-12	556.898E-3	-21.3926E-3
4.98999E-3	196.360E-12	545.745E-3	-54.6145E-3	201.658E-12	592.515E-3	-43.5831E-3
4.98499E-3	197.551E-12	534.610E-3	-19.6335E-3	203.800E-12	628.132E-3	-36.3107E-3
4.97999E-3	197.596E-12	526.543E-3	-8.23316E-3	204.684E-12	619.105E-3	-38.2979E-3
4.97499E-3	197.727E-12	518.478E-3	-20.9377E-3	205.485E-12	577.071E-3	-33.2826E-3
4.96998E-3	197.914E-12	520.454E-3	-39.5938E-3	206.615E-12	556.715E-3	-15.4630E-3
4.96498E-3	198.582E-12	554.339E-3	-53.3280E-3	206.865E-12	566.490E-3	-12.8461E-3
4.95998E-3	197.589E-12	577.810E-3	-37.9826E-3	205.821E-12	558.914E-3	-20.5966E-3
4.95498E-3	198.198E-12	575.403E-3	-25.4914E-3	204.990E-12	543.042E-3	-21.5128E-3
4.94997E-3	197.633E-12	552.499E-3	-46.0973E-3	204.055E-12	520.408E-3	-10.9528E-3
4.94497E-3	198.873E-12	518.369E-3	-64.6506E-3	201.895E-12	478.016E-3	-110.771E-6
4.93997E-3	196.996E-12	492.255E-3	-62.2396E-3	200.851E-12	485.298E-3	-14.2854E-3
4.93497E-3	197.242E-12	491.462E-3	-43.9500E-3	198.510E-12	516.325E-3	-32.6560E-3
4.92996E-3	196.956E-12	523.873E-3	-35.8268E-3	196.185E-12	495.201E-3	-6.62589E-3
4.92496E-3	196.657E-12	548.758E-3	-28.9760E-3	194.700E-12	476.835E-3	38.8712E-3
4.91996E-3	196.370E-12	545.216E-3	-33.4055E-3	193.692E-12	494.626E-3	42.2869E-3
4.91496E-3	196.455E-12	542.821E-3	-26.0212E-3	193.957E-12	501.701E-3	14.4949E-3
4.90995E-3	196.475E-12	551.609E-3	11.0404E-3	192.248E-12	520.679E-3	13.9954E-3
4.90495E-3	196.334E-12	534.425E-3	-2.11814E-3	192.846E-12	552.322E-3	-28.5479E-6
4.89995E-3	196.971E-12	500.041E-3	-30.4857E-3	194.542E-12	530.372E-3	-45.3664E-3
4.89495E-3	196.031E-12	511.324E-3	-3.37156E-3	195.646E-12	515.628E-3	-39.5306E-3
4.88995E-3	196.182E-12	540.341E-3	17.4968E-3	196.498E-12	563.197E-3	-19.9508E-3
4.88494E-3	195.384E-12	543.221E-3	-12.0915E-3	198.869E-12	580.164E-3	-26.9262E-3
4.87994E-3	194.285E-12	542.471E-3	-32.8935E-3	199.387E-12	553.681E-3	-15.7868E-3
4.87494E-3	194.650E-12	523.318E-3	-24.6852E-3	200.673E-12	539.644E-3	-10.9212E-3
4.86993E-3	194.401E-12	495.088E-3	-29.7656E-3	200.883E-12	521.657E-3	-19.3144E-3
4.86493E-3	193.677E-12	493.608E-3	-36.1595E-3	201.988E-12	526.535E-3	-26.4061E-3
4.85993E-3	192.652E-12	502.556E-3	-21.1685E-3	199.341E-12	548.521E-3	-32.4046E-3
4.85493E-3	193.522E-12	506.370E-3	-11.0011E-3	198.716E-12	542.368E-3	-26.1411E-3
4.84992E-3	193.607E-12	525.292E-3	-21.3000E-3	197.995E-12	522.722E-3	-21.4344E-3
4.84492E-3	193.490E-12	549.427E-3	-37.4511E-3	196.169E-12	508.484E-3	-267.404E-6
4.83992E-3	194.144E-12	546.269E-3	-44.9495E-3	194.113E-12	507.898E-3	3.09360E-3
4.83492E-3	195.220E-12	533.939E-3	-52.4964E-3	192.631E-12	504.418E-3	-33.0149E-3
4.82991E-3	195.378E-12	538.291E-3	-44.5388E-3	191.408E-12	498.214E-3	-29.3818E-3
4.82491E-3	196.070E-12	561.105E-3	-8.35051E-3	189.041E-12	512.401E-3	-7.27491E-3
4.81991E-3	198.114E-12	565.605E-3	26.3882E-3	188.518E-12	541.885E-3	-14.4094E-3
4.81491E-3	198.382E-12	543.042E-3	23.3424E-3	188.676E-12	570.811E-3	-35.3869E-3
4.80990E-3	197.566E-12	532.590E-3	-16.8562E-3	188.288E-12	588.092E-3	-58.8572E-3
4.80490E-3	198.149E-12	529.895E-3	-55.2536E-3	188.963E-12	573.310E-3	-61.7630E-3
4.79990E-3	197.034E-12	539.922E-3	-74.1090E-3	189.794E-12	539.984E-3	-64.1908E-3
4.79490E-3	195.328E-12	563.205E-3	-63.3072E-3	190.423E-12	528.200E-3	-64.7447E-3
4.78989E-3	193.131E-12	564.311E-3	-24.1736E-3	190.836E-12	542.444E-3	-32.1887E-3
4.78489E-3	192.600E-12	551.524E-3	-16.8485E-3	191.384E-12	553.110E-3	-8.30986E-3
4.77989E-3	190.697E-12	542.417E-3	-43.3973E-3	192.324E-12	568.956E-3	-24.7661E-3
4.77489E-3	189.670E-12	537.814E-3	-40.8159E-3	193.246E-12	595.845E-3	-39.6297E-3
4.76988E-3	188.970E-12	533.830E-3	-28.9198E-3	193.185E-12	570.514E-3	-31.1165E-3
4.76488E-3	187.573E-12	536.065E-3	-32.0723E-3	193.414E-12	528.807E-3	-15.9646E-3
4.75988E-3	187.973E-12	553.606E-3	-28.1566E-3	193.204E-12	538.464E-3	-14.9606E-3
4.75488E-3	188.289E-12	551.267E-3	-29.0388E-3	192.843E-12	544.859E-3	-26.6830E-3
4.74988E-3	188.848E-12	539.624E-3	-35.7728E-3	192.106E-12	529.614E-3	-26.8215E-3
4.74487E-3	189.878E-12	521.609E-3	-31.4240E-3	191.917E-12	506.831E-3	-26.5052E-3
4.73987E-3	191.682E-12	485.946E-3	-6.03268E-3	191.496E-12	481.739E-3	-29.6485E-3
4.73487E-3	191.446E-12	496.711E-3	4.92861E-3	190.301E-12	496.216E-3	-20.6791E-3
4.72986E-3	192.930E-12	540.280E-3	-11.7632E-3	188.749E-12	521.390E-3	-8.26535E-3
4.72486E-3	194.527E-12	534.133E-3	-38.4139E-3	188.910E-12	525.485E-3	-2.00734E-3
4.71986E-3	193.917E-12	528.227E-3	-49.4266E-3	187.809E-12	529.568E-3	-947.728E-6
4.71486E-3	193.820E-12	565.430E-3	-33.8556E-3	187.185E-12	526.310E-3	-13.6660E-3
4.70985E-3	192.770E-12	562.227E-3	-34.6177E-3	186.210E-12	511.115E-3	-21.4023E-3
4.70485E-3	191.847E-12	534.744E-3	-46.7883E-3	187.156E-12	516.863E-3	-25.1425E-3
4.69985E-3	189.793E-12	544.319E-3	-38.6662E-3	186.935E-12	546.174E-3	-25.0196E-3
4.69485E-3	188.027E-12	535.460E-3	-25.6849E-3	187.050E-12	571.479E-3	-16.7347E-3
4.68984E-3	186.188E-12	514.679E-3	-36.7156E-3	186.631E-12	592.183E-3	-23.6330E-3
4.68484E-3	184.874E-12	530.634E-3	-35.0134E-3	187.213E-12	591.820E-3	-25.1409E-3
4.67984E-3	182.697E-12	533.053E-3	-19.0211E-3	188.338E-12	567.392E-3	-22.6225E-3
4.67484E-3	183.149E-12	528.588E-3	-37.2554E-3	188.523E-12	551.106E-3	-20.1250E-3
4.66983E-3	181.607E-12	551.848E-3	-46.6163E-3	189.432E-12	554.107E-3	-13.8942E-3
4.66483E-3	181.713E-12	556.011E-3	-11.9387E-3	190.382E-12	533.611E-3	-32.4405E-3
4.65983E-3	182.208E-12	553.378E-3	11.5793E-3	190.578E-12	503.159E-3	-56.7751E-3
4.65483E-3	183.038E-12	550.813E-3	16.6957E-3	190.981E-12	533.807E-3	-49.6508E-3
4.64982E-3	184.267E-12	509.944E-3	9.35628E-3	191.677E-12	576.349E-3	-30.5972E-3
4.64482E-3	185.625E-12	461.510E-3	-18.0809E-3	192.172E-12	572.620E-3	-19.4931E-3
4.63982E-3	187.959E-12	477.250E-3	-42.1039E-3	190.585E-12	549.873E-3	-5.94556E-3
4.63482E-3	189.359E-12	526.479E-3	-38.1095E-3	190.713E-12	522.838E-3	-1.54132E-3
4.62981E-3	189.829E-12	550.264E-3	-23.5336E-3	190.196E-12	522.384E-3	-6.11947E-3
4.62481E-3	191.072E-12	564.030E-3	-20.3804E-3	190.357E-12	548.062E-3	-14.4792E-3
4.61981E-3	191.534E-12	571.699E-3	-22.7356E-3	188.892E-12	549.304E-3	-16.5281E-3
4.61481E-3	191.071E-12	585.738E-3	-22.4278E-3	187.908E-12	528.357E-3	4.94509E-3
4.60980E-3	189.083E-12	585.111E-3	-7.78018E-3	186.686E-12	527.009E-3	-4.03797E-3
4.60480E-3	189.082E-12	563.967E-3	-10.6254E-3	186.006E-12	546.199E-3	-40.3165E-3
4.59980E-3	187.198E-12	553.211E-3	-22.4256E-3	184.152E-12	539.341E-3	-43.9355E-3
4.59480E-3	185.482E-12	545.135E-3	-11.7375E-3	183.786E-12	530.374E-3	-41.0911E-3
4.58979E-3	184.207E-12	540.477E-3	-6.43903E-3	182.753E-12	544.199E-3	-40.1411E-3
4.58479E-3	184.070E-12	535.479E-3	-2.86006E-3	181.788E-12	540.517E-3	-30.4753E-3
4.57979E-3	182.101E-12	527.078E-3	9.76998E-3	181.927E-12	530.977E-3	-25.7017E-3
4.57479E-3	181.765E-12	512.713E-3	12.1142E-3	182.086E-12	514.642E-3	-33.4268E-3
4.56978E-3	181.500E-12	510.970E-3	-7.69695E-3	182.697E-12	500.465E-3	-50.7526E-3
4.56478E-3	181.259E-12	522.684E-3	-35.4174E-3	182.637E-12	523.403E-3	-51.0866E-3
4.55978E-3	180.374E-12	525.011E-3	-40.5055E-3	183.817E-12	552.130E-3	-47.8442E-3
4.55478E-3	181.531E-12	522.734E-3	-42.8937E-3	185.146E-12	536.995E-3	-58.2673E-3
4.54977E-3	181.849E-12	504.951E-3	-50.3957E-3	185.274E-12	494.578E-3	-57.8136E-3
4.54477E-3	183.310E-12	489.020E-3	-39.5274E-3	185.516E-12	498.157E-3	-43.8660E-3
4.53977E-3	183.228E-12	499.760E-3	-36.3542E-3	186.144E-12	532.110E-3	-28.0317E-3
4.53477E-3	183.138E-12	535.568E-3	-34.5926E-3	185.859E-12	542.549E-3	-9.36603E-3
4.52976E-3	184.121E-12	551.753E-3	-26.0010E-3	185.612E-12	542.726E-3	-2.45595E-3
4.52476E-3	184.384E-12	530.365E-3	-36.3970E-3	184.963E-12	532.468E-3	-18.5599E-3
4.51976E-3	183.663E-12	533.484E-3	-45.4364E-3	183.133E-12	529.317E-3	-16.9529E-3
4.51476E-3	183.356E-12	538.895E-3	-53.5933E-3	182.134E-12	535.752E-3	15.8050E-3
4.50975E-3	184.446E-12	527.696E-3	-65.1802E-3	181.278E-12	512.327E-3	37.1790E-3
4.50475E-3	183.620E-12	538.218E-3	-34.5806E-3	178.990E-12	474.094E-3	45.0380E-3
4.49975E-3	183.362E-12	557.395E-3	2.43676E-3	177.452E-12	475.442E-3	29.3090E-3
4.49475E-3	182.555E-12	559.353E-3	-5.72809E-3	177.827E-12	510.343E-3	-24.3147E-3
4.48974E-3	182.802E-12	551.367E-3	-9.47638E-3	177.089E-12	527.465E-3	-49.2834E-3
4.48474E-3	181.992E-12	569.016E-3	-13.5308E-3	176.161E-12	530.566E-3	-25.5904E-3
4.47974E-3	181.098E-12	586.844E-3	-33.0009E-3	176.648E-12	537.158E-3	-7.15898E-3
4.47474E-3	181.856E-12	579.817E-3	-25.1950E-3	176.982E-12	528.975E-3	-8.16496E-3
4.46973E-3	181.490E-12	577.405E-3	6.47373E-3	177.804E-12	518.422E-3	-25.1908E-3
4.46473E-3	181.378E-12	571.937E-3	447.762E-6	177.787E-12	527.771E-3	-35.7483E-3
4.45973E-3	180.711E-12	558.065E-3	-40.0176E-3	178.970E-12	536.789E-3	-11.3887E-3
4.45473E-3	181.248E-12	558.165E-3	-55.8898E-3	179.827E-12	549.124E-3	9.51072E-3
4.44972E-3	180.502E-12	571.584E-3	-60.9487E-3	181.157E-12	555.754E-3	-20.8861E-3
4.44472E-3	179.883E-12	589.684E-3	-58.4013E-3	182.329E-12	531.852E-3	-54.5469E-3
4.43972E-3	180.221E-12	580.122E-3	-45.9368E-3	183.026E-12	537.737E-3	-59.6262E-3
4.43472E-3	179.906E-12	544.066E-3	-62.3874E-3	182.696E-12	576.586E-3	-51.9783E-3
4.42971E-3	180.405E-12	531.933E-3	-82.3439E-3	183.079E-12	570.982E-3	-35.2742E-3
4.42471E-3	179.133E-12	556.046E-3	-46.5961E-3	182.609E-12	537.118E-3	-34.4187E-3
4.41971E-3	179.534E-12	575.978E-3	-17.0394E-3	182.360E-12	535.222E-3	-48.3414E-3
4.41471E-3	180.068E-12	570.578E-3	-35.2603E-3	180.734E-12	537.240E-3	-62.7987E-3
4.40970E-3	180.295E-12	577.377E-3	-31.6853E-3	180.280E-12	524.281E-3	-73.7059E-3
4.40470E-3	178.731E-12	566.045E-3	-9.09497E-3	179.048E-12	515.577E-3	-68.1987E-3
4.39970E-3	179.452E-12	529.264E-3	-5.30178E-3	177.748E-12	501.820E-3	-50.6592E-3
4.39470E-3	179.421E-12	520.559E-3	874.276E-6	177.461E-12	515.272E-3	-37.6133E-3
4.38969E-3	179.366E-12	527.286E-3	12.2298E-3	177.897E-12	528.917E-3	-50.0328E-3
4.38469E-3	178.859E-12	539.647E-3	20.9267E-3	177.114E-12	516.573E-3	-41.3565E-3
4.37969E-3	178.377E-12	567.605E-3	29.1240E-3	177.301E-12	526.056E-3	12.3021E-3
4.37469E-3	177.506E-12	566.999E-3	14.4645E-3	177.108E-12	540.915E-3	25.9858E-3
4.36968E-3	177.739E-12	530.616E-3	-10.9495E-3	177.221E-12	552.449E-3	3.83216E-3
4.36468E-3	176.725E-12	510.219E-3	-17.8642E-3	177.328E-12	571.893E-3	2.51838E-3
4.35968E-3	175.713E-12	507.500E-3	-39.3567E-3	178.136E-12	559.080E-3	3.54939E-3
4.35468E-3	174.771E-12	510.187E-3	-67.2783E-3	178.477E-12	522.311E-3	-8.18732E-3
4.34967E-3	174.479E-12	511.244E-3	-40.5748E-3	178.666E-12	533.956E-3	-13.6450E-3
4.34467E-3	173.368E-12	510.727E-3	-9.81946E-3	178.415E-12	565.116E-3	-2.91052E-3
4.33967E-3	173.358E-12	518.349E-3	-28.7287E-3	178.903E-12	560.285E-3	-5.50281E-3
4.33467E-3	173.291E-12	548.997E-3	-52.6244E-3	178.528E-12	539.618E-3	-29.0266E-3
4.32966E-3	173.150E-12	573.426E-3	-42.2344E-3	177.344E-12	533.546E-3	-25.6281E-3
4.32466E-3	173.955E-12	573.419E-3	-19.2178E-3	176.362E-12	554.091E-3	-10.6925E-3
4.31966E-3	174.693E-12	579.925E-3	-14.4751E-3	175.855E-12	574.345E-3	-9.16257E-3
4.31466E-3	175.408E-12	583.072E-3	-16.5698E-3	175.187E-12	570.883E-3	-12.4653E-3
4.30965E-3	176.186E-12	563.928E-3	-22.9448E-3	173.601E-12	558.905E-3	-19.7276E-3
4.30465E-3	177.142E-12	538.879E-3	-31.0889E-3	173.218E-12	543.109E-3	-19.5591E-3
4.29965E-3	177.543E-12	521.668E-3	-30.8450E-3	173.125E-12	523.242E-3	-12.2697E-3
4.29465E-3	178.358E-12	507.754E-3	-17.3931E-3	172.767E-12	517.766E-3	-2.60230E-3
4.28964E-3	179.078E-12	505.385E-3	-4.41343E-3	172.090E-12	531.659E-3	-2.25460E-3
4.28464E-3	177.677E-12	519.638E-3	-11.6355E-3	173.228E-12	532.459E-3	-11.4537E-3
4.27964E-3	177.959E-12	553.078E-3	-22.7255E-3	172.318E-12	512.046E-3	-19.1312E-3
4.27464E-3	177.935E-12	566.096E-3	-18.7706E-3	172.143E-12	516.701E-3	-25.8742E-3
4.26963E-3	176.187E-12	550.877E-3	-8.17305E-3	172.885E-12	548.687E-3	-26.5255E-3
4.26463E-3	174.686E-12	561.973E-3	-677.997E-6	172.587E-12	555.637E-3	-13.3780E-3
4.25963E-3	173.295E-12	574.501E-3	275.154E-6	172.226E-12	534.245E-3	2.16113E-3
4.25463E-3	171.909E-12	556.459E-3	-18.7159E-3	172.012E-12	520.095E-3	1.91556E-3
4.24962E-3	170.210E-12	541.330E-3	-34.8811E-3	172.652E-12	532.220E-3	-7.30969E-3
4.24462E-3	169.722E-12	532.638E-3	-11.7183E-3	171.662E-12	552.679E-3	-26.0584E-3
4.23962E-3	169.244E-12	524.809E-3	3.32056E-3	172.380E-12	536.500E-3	-41.1619E-3
4.23462E-3	169.090E-12	515.776E-3	-10.6201E-3	171.326E-12	510.198E-3	-34.8020E-3
4.22961E-3	170.166E-12	499.612E-3	-6.49233E-3	170.753E-12	530.725E-3	-13.9048E-3
4.22461E-3	170.183E-12	512.576E-3	-12.9026E-3	170.962E-12	566.376E-3	1.48233E-3
4.21961E-3	171.133E-12	536.401E-3	-41.5081E-3	170.909E-12	554.110E-3	9.16677E-3
4.21461E-3	172.377E-12	535.125E-3	-33.3582E-3	170.206E-12	535.314E-3	23.9906E-3
4.20960E-3	174.199E-12	535.871E-3	-2.21722E-3	169.793E-12	556.097E-3	18.6647E-3
4.20460E-3	173.800E-12	544.192E-3	8.81921E-3	169.470E-12	560.472E-3	-16.8818E-3
4.19960E-3	175.118E-12	544.531E-3	3.05396E-3	169.373E-12	543.078E-3	-42.7984E-3
4.19460E-3	175.765E-12	547.091E-3	2.25896E-3	170.213E-12	541.423E-3	-49.0099E-3
4.18959E-3	175.976E-12	574.966E-3	19.0470E-3	170.005E-12	545.594E-3	-49.0247E-3
4.18459E-3	175.427E-12	587.604E-3	26.2738E-3	170.260E-12	542.693E-3	-55.6294E-3
4.17959E-3	175.104E-12	571.071E-3	11.9716E-3	171.132E-12	531.379E-3	-60.8650E-3
4.17459E-3	172.777E-12	571.576E-3	12.5153E-3	170.870E-12	525.610E-3	-40.4816E-3
4.16958E-3	171.160E-12	570.400E-3	9.24644E-3	170.670E-12	533.774E-3	-20.7960E-3
4.16458E-3	171.037E-12	540.764E-3	-24.4025E-3	171.678E-12	556.383E-3	-4.85925E-3
4.15958E-3	168.977E-12	537.248E-3	-41.2261E-3	170.890E-12	576.608E-3	31.6679E-3
4.15458E-3	166.352E-12	564.317E-3	-19.1586E-3	170.535E-12	578.944E-3	30.4812E-3
4.14957E-3	165.230E-12	552.996E-3	2.60584E-3	171.038E-12	566.657E-3	-8.00527E-3
4.14457E-3	165.222E-12	526.800E-3	-2.27481E-3	170.838E-12	526.645E-3	-25.3313E-3
4.13957E-3	163.714E-12	535.688E-3	-17.5035E-3	169.540E-12	488.273E-3	-13.3195E-3
4.13457E-3	163.749E-12	554.316E-3	-22.4599E-3	168.798E-12	486.598E-3	10.8292E-3
4.12956E-3	164.458E-12	553.794E-3	-3.21004E-3	169.505E-12	491.311E-3	23.7596E-3
4.12456E-3	165.405E-12	537.988E-3	7.20312E-3	169.445E-12	503.857E-3	12.5783E-3
4.11956E-3	165.543E-12	527.736E-3	-1.15087E-3	168.390E-12	517.708E-3	-12.0386E-3
4.11456E-3	167.367E-12	535.623E-3	-76.0412E-6	167.986E-12	513.410E-3	-18.5826E-3
4.10955E-3	168.135E-12	537.940E-3	-6.78604E-3	168.060E-12	519.080E-3	-19.8044E-3
4.10455E-3	169.217E-12	525.853E-3	-15.3414E-3	168.000E-12	519.501E-3	-31.3856E-3
4.09955E-3	169.646E-12	526.838E-3	1.79113E-3	167.994E-12	507.540E-3	-39.8796E-3
4.09455E-3	169.536E-12	536.954E-3	31.0698E-3	168.279E-12	528.195E-3	-40.9398E-3
4.08954E-3	169.865E-12	534.062E-3	43.0995E-3	168.253E-12	554.432E-3	-33.9891E-3
4.08454E-3	169.325E-12	535.974E-3	12.8567E-3	167.922E-12	539.714E-3	-15.6925E-3
4.07954E-3	167.840E-12	552.445E-3	-33.3864E-3	168.844E-12	517.917E-3	535.444E-6
4.07454E-3	166.948E-12	555.208E-3	-43.0303E-3	167.398E-12	515.283E-3	3.70840E-3
4.06953E-3	166.318E-12	544.833E-3	-48.7166E-3	167.578E-12	542.556E-3	30.2813E-6
4.06453E-3	165.056E-12	524.158E-3	-71.1932E-3	167.912E-12	585.037E-3	-9.67687E-3
4.05953E-3	164.403E-12	505.896E-3	-55.7786E-3	166.947E-12	578.151E-3	-27.6840E-3
4.05453E-3	163.216E-12	512.134E-3	-26.0260E-3	166.060E-12	537.884E-3	-25.6041E-3
4.04952E-3	162.262E-12	513.793E-3	-11.8343E-3	166.685E-12	529.668E-3	-21.9407E-3
4.04452E-3	162.427E-12	510.006E-3	-1.65133E-3	166.382E-12	538.655E-3	-33.8527E-3
4.03952E-3	164.025E-12	523.648E-3	-14.9577E-3	165.246E-12	535.803E-3	-7.32581E-3
4.03452E-3	163.729E-12	541.111E-3	-17.4044E-3	165.200E-12	547.330E-3	16.5858E-3
4.02951E-3	163.785E-12	563.097E-3	-19.5561E-3	165.422E-12	537.681E-3	-15.6009E-3
4.02451E-3	166.044E-12	574.730E-3	-34.7936E-3	165.095E-12	494.991E-3	-31.4151E-3
4.01951E-3	166.937E-12	552.600E-3	-24.9676E-3	164.812E-12	514.766E-3	-1.16230E-3
4.01451E-3	166.607E-12	547.439E-3	-23.4468E-3	164.831E-12	560.297E-3	9.78783E-3
4.00950E-3	167.220E-12	551.675E-3	-39.9038E-3	163.712E-12	554.345E-3	3.50229E-3
4.00450E-3	168.612E-12	535.208E-3	-36.3730E-3	163.917E-12	552.058E-3	16.3502E-3
3.99950E-3	167.359E-12	528.011E-3	-5.40647E-3	163.063E-12	548.009E-3	-2.28641E-3
3.99450E-3	167.019E-12	527.979E-3	13.3902E-3	163.386E-12	506.626E-3	-38.0739E-3
3.98949E-3	167.535E-12	536.336E-3	14.7124E-3	162.832E-12	493.747E-3	-37.0861E-3
3.98449E-3	166.574E-12	557.612E-3	19.1166E-3	161.711E-12	506.435E-3	-24.6824E-3
3.97949E-3	164.471E-12	573.313E-3	-3.36587E-3	161.360E-12	507.481E-3	-11.4523E-3
3.97449E-3	164.592E-12	566.436E-3	-32.5892E-3	161.526E-12	530.407E-3	-8.60533E-3
3.96948E-3	163.955E-12	560.733E-3	-29.0535E-3	160.880E-12	550.294E-3	-25.9734E-3
3.96448E-3	162.212E-12	573.677E-3	-30.5144E-3	160.195E-12	546.302E-3	-12.6828E-3
3.95948E-3	161.371E-12	587.365E-3	-37.8362E-3	160.097E-12	563.604E-3	30.5991E-3
3.95448E-3	161.382E-12	573.809E-3	-12.2466E-3	160.189E-12	548.796E-3	27.4268E-3
3.94947E-3	160.868E-12	546.180E-3	10.8274E-3	159.328E-12	492.452E-3	-4.12867E-3
3.94447E-3	160.154E-12	541.250E-3	13.8121E-3	159.422E-12	501.390E-3	-12.7929E-3
3.93947E-3	159.736E-12	543.015E-3	8.98042E-3	159.010E-12	539.422E-3	-16.3243E-3
3.93447E-3	159.866E-12	542.180E-3	-35.5268E-3	159.481E-12	534.222E-3	-20.9267E-3
3.92946E-3	160.265E-12	542.338E-3	-64.8295E-3	160.095E-12	524.533E-3	-24.8487E-3
3.92446E-3	159.987E-12	530.466E-3	-38.1161E-3	161.406E-12	522.673E-3	-37.0805E-3
3.91946E-3	160.176E-12	527.988E-3	-20.1094E-3	161.380E-12	523.884E-3	-36.5808E-3
3.91446E-3	160.761E-12	526.703E-3	-17.2159E-3	161.413E-12	536.059E-3	-23.4585E-3
3.90945E-3	160.339E-12	516.366E-3	-2.39272E-3	161.357E-12	545.910E-3	-25.1370E-3
3.90445E-3	159.890E-12	524.460E-3	4.35808E-3	161.371E-12	539.421E-3	-37.1275E-3
3.89945E-3	159.250E-12	531.226E-3	14.3364E-3	160.879E-12	537.610E-3	-27.3595E-3
3.89445E-3	159.632E-12	510.511E-3	26.9451E-3	159.599E-12	541.468E-3	-5.08393E-3
3.88944E-3	160.172E-12	505.689E-3	5.08975E-3	159.140E-12	533.206E-3	-4.90797E-3
3.88444E-3	160.209E-12	542.309E-3	-21.9574E-3	158.628E-12	545.360E-3	-4.93257E-3
3.87944E-3	159.927E-12	559.392E-3	-27.5691E-3	158.066E-12	557.124E-3	-16.0742E-3
3.87444E-3	160.699E-12	558.740E-3	-35.9583E-3	156.652E-12	536.908E-3	-51.8004E-3
3.86943E-3	161.058E-12	570.212E-3	-45.9843E-3	156.760E-12	528.241E-3	-40.3960E-3
3.86443E-3	161.207E-12	567.554E-3	-29.7730E-3	156.806E-12	539.844E-3	-7.74691E-3
3.85943E-3	160.030E-12	544.253E-3	-1.42551E-3	156.422E-12	530.255E-3	5.16468E-3
3.85443E-3	160.901E-12	533.067E-3	-7.63481E-3	157.400E-12	532.393E-3	16.6014E-3
3.84942E-3	159.533E-12	530.595E-3	-32.0333E-3	157.815E-12	569.811E-3	-5.72777E-3
3.84442E-3	158.445E-12	528.053E-3	-24.6061E-3	158.190E-12	577.960E-3	-45.3212E-3
3.83942E-3	157.941E-12	547.443E-3	4.65729E-3	159.529E-12	572.661E-3	-52.4145E-3
3.83442E-3	156.679E-12	563.630E-3	16.1593E-3	159.935E-12	575.830E-3	-30.8943E-3
3.82941E-3	155.973E-12	553.479E-3	-5.16808E-3	160.341E-12	559.141E-3	-4.99222E-3
3.82441E-3	154.764E-12	535.968E-3	-3.46301E-3	161.344E-12	546.065E-3	-4.56919E-3
3.81941E-3	154.346E-12	515.397E-3	20.3334E-3	160.970E-12	535.771E-3	-26.9063E-3
3.81441E-3	153.212E-12	500.603E-3	-2.98274E-3	161.172E-12	511.267E-3	-32.4934E-3
3.80940E-3	153.157E-12	515.287E-3	-35.3837E-3	160.568E-12	518.799E-3	-33.5196E-3
3.80440E-3	153.018E-12	526.748E-3	-29.6641E-3	159.770E-12	552.788E-3	-46.2104E-3
3.79940E-3	152.987E-12	514.000E-3	-11.0542E-3	159.401E-12	559.309E-3	-40.6330E-3
3.79440E-3	153.469E-12	509.198E-3	-7.54249E-3	159.201E-12	552.152E-3	-19.3443E-3
3.78939E-3	155.799E-12	519.207E-3	-7.66497E-3	157.718E-12	552.625E-3	-3.37860E-3
3.78439E-3	156.067E-12	527.972E-3	-5.01285E-3	155.996E-12	541.985E-3	13.8708E-3
3.77939E-3	157.022E-12	551.530E-3	-14.7923E-3	156.791E-12	529.733E-3	20.5433E-3
3.77439E-3	157.618E-12	576.813E-3	-18.7218E-3	155.364E-12	540.901E-3	-20.5138E-3
3.76938E-3	159.009E-12	563.146E-3	-6.02919E-3	154.019E-12	547.535E-3	-71.0589E-3
3.76438E-3	159.518E-12	556.700E-3	-12.2956E-3	154.005E-12	530.312E-3	-74.0094E-3
3.75938E-3	159.394E-12	578.193E-3	-24.9876E-3	153.797E-12	537.041E-3	-66.8259E-3
3.75438E-3	158.543E-12	572.851E-3	-16.6636E-3	153.577E-12	544.426E-3	-51.6301E-3
3.74937E-3	157.752E-12	558.662E-3	-8.17477E-3	153.751E-12	520.606E-3	-19.3808E-3
3.74437E-3	157.090E-12	560.920E-3	3.11084E-3	154.832E-12	529.988E-3	-4.39247E-3
3.73937E-3	155.182E-12	555.559E-3	789.900E-6	153.866E-12	563.930E-3	-2.11407E-3
3.73437E-3	153.454E-12	556.585E-3	-33.7902E-3	154.840E-12	576.129E-3	216.788E-6
3.72936E-3	152.811E-12	570.377E-3	-35.5990E-3	154.364E-12	581.822E-3	4.45329E-3
3.72436E-3	151.274E-12	561.728E-3	-8.45884E-3	154.107E-12	576.264E-3	15.6859E-3
3.71936E-3	150.133E-12	540.383E-3	-14.6548E-3	153.769E-12	568.037E-3	20.5489E-3
3.71436E-3	149.887E-12	536.398E-3	-20.5615E-3	152.898E-12	566.742E-3	-7.57515E-3
3.70935E-3	150.444E-12	528.881E-3	-16.9194E-3	152.664E-12	534.158E-3	-39.5142E-3
3.70435E-3	149.004E-12	508.435E-3	-39.1067E-3	151.866E-12	504.766E-3	-38.8899E-3
3.69935E-3	150.733E-12	514.078E-3	-38.1336E-3	152.145E-12	531.682E-3	-35.2270E-3
3.69435E-3	153.298E-12	538.810E-3	-11.9540E-3	151.082E-12	552.471E-3	-44.7399E-3
3.68934E-3	153.472E-12	569.565E-3	-11.3121E-3	151.214E-12	543.703E-3	-35.3823E-3
3.68434E-3	153.404E-12	600.903E-3	-13.2305E-3	150.292E-12	553.205E-3	-15.4846E-3
3.67934E-3	155.720E-12	579.114E-3	-15.5519E-3	150.613E-12	556.051E-3	-11.0792E-3
3.67434E-3	157.136E-12	536.007E-3	-29.1733E-3	150.446E-12	537.946E-3	3.90096E-3
3.66933E-3	155.922E-12	546.191E-3	-26.3401E-3	149.979E-12	550.944E-3	17.8074E-3
3.66433E-3	156.284E-12	569.482E-3	-28.5072E-3	150.584E-12	583.907E-3	-2.83854E-3
3.65933E-3	156.166E-12	559.498E-3	-34.7932E-3	151.194E-12	579.367E-3	-17.4259E-3
3.65433E-3	153.600E-12	568.006E-3	-8.68234E-3	150.707E-12	559.198E-3	-4.40468E-3
3.64932E-3	152.925E-12	586.140E-3	7.36184E-3	151.372E-12	542.107E-3	5.55955E-3
3.64432E-3	152.483E-12	559.247E-3	-11.0014E-3	151.425E-12	535.046E-3	1.03367E-3
3.63932E-3	150.186E-12	551.959E-3	-28.1820E-3	150.314E-12	550.775E-3	-18.0748E-3
3.63432E-3	147.758E-12	573.949E-3	-6.78880E-3	150.000E-12	555.612E-3	-32.2058E-3
3.62931E-3	146.691E-12	571.023E-3	20.6033E-3	149.902E-12	553.894E-3	-9.72830E-3
3.62431E-3	146.335E-12	568.352E-3	10.8093E-3	149.036E-12	555.694E-3	7.81897E-3
3.61931E-3	145.804E-12	568.658E-3	1.29397E-3	149.091E-12	555.269E-3	-12.3834E-3
3.61431E-3	145.189E-12	570.063E-3	7.71496E-3	148.646E-12	559.174E-3	-18.4431E-3
3.60930E-3	145.688E-12	574.963E-3	13.6475E-3	148.279E-12	563.263E-3	-2.26738E-3
3.60430E-3	147.006E-12	567.504E-3	3.99089E-3	148.592E-12	571.959E-3	-7.79324E-3
3.59930E-3	147.469E-12	556.793E-3	-18.7099E-3	149.362E-12	571.916E-3	-30.7708E-3
3.59430E-3	148.425E-12	558.080E-3	-10.3155E-3	149.832E-12	561.417E-3	-32.2700E-3
3.58929E-3	149.695E-12	562.051E-3	15.2522E-3	149.284E-12	555.141E-3	-24.8910E-3
3.58429E-3	151.377E-12	558.068E-3	14.2460E-3	149.644E-12	557.055E-3	-30.3177E-3
3.57929E-3	151.737E-12	558.131E-3	-14.7842E-3	150.540E-12	571.386E-3	-18.5868E-3
3.57429E-3	151.804E-12	553.654E-3	-41.6887E-3	151.136E-12	583.548E-3	5.73195E-3
3.56928E-3	151.379E-12	561.393E-3	-44.8098E-3	151.953E-12	579.000E-3	9.16658E-3
3.56428E-3	151.263E-12	593.660E-3	-41.6360E-3	151.239E-12	568.044E-3	22.4843E-3
3.55928E-3	150.591E-12	595.100E-3	-34.7167E-3	151.091E-12	560.357E-3	37.5625E-3
3.55428E-3	148.936E-12	570.609E-3	-35.5063E-3	150.876E-12	572.007E-3	22.2665E-3
3.54927E-3	147.953E-12	563.574E-3	-43.0245E-3	151.275E-12	598.774E-3	-848.868E-6
3.54427E-3	147.121E-12	558.750E-3	-27.7438E-3	149.219E-12	598.060E-3	-18.5238E-3
3.53927E-3	145.305E-12	546.156E-3	-18.0768E-3	148.279E-12	577.578E-3	-18.2090E-3
3.53427E-3	143.574E-12	552.204E-3	-41.3691E-3	147.330E-12	570.771E-3	-19.3397E-3
3.52926E-3	143.644E-12	548.656E-3	-37.9428E-3	147.142E-12	559.517E-3	-19.6530E-3
3.52426E-3	143.288E-12	524.139E-3	-10.6465E-3	146.496E-12	542.903E-3	-13.9033E-3
3.51926E-3	143.123E-12	539.460E-3	832.066E-6	145.838E-12	553.443E-3	-15.7528E-3
3.51426E-3	143.487E-12	568.410E-3	19.6101E-3	145.272E-12	569.370E-3	-16.3356E-3
3.50925E-3	143.317E-12	565.529E-3	22.8965E-3	145.729E-12	559.062E-3	-12.6298E-3
3.50425E-3	143.093E-12	554.023E-3	-13.1273E-3	146.060E-12	539.571E-3	1.22257E-3
3.49925E-3	143.193E-12	546.576E-3	-44.8586E-3	145.582E-12	543.982E-3	-5.57001E-3
3.49425E-3	145.105E-12	539.326E-3	-32.8755E-3	146.431E-12	555.968E-3	-33.5449E-3
3.48924E-3	144.692E-12	538.013E-3	-2.87302E-3	146.269E-12	550.095E-3	-34.4135E-3
3.48424E-3	145.257E-12	541.422E-3	2.68356E-3	145.991E-12	557.012E-3	-10.6116E-3
3.47924E-3	146.228E-12	544.605E-3	-22.9033E-3	145.897E-12	578.039E-3	6.21047E-3
3.47424E-3	146.464E-12	548.611E-3	-46.9717E-3	146.116E-12	588.954E-3	-2.27025E-3
3.46923E-3	146.479E-12	555.568E-3	-45.0549E-3	146.369E-12	576.185E-3	-22.6617E-3
3.46423E-3	146.571E-12	562.215E-3	-28.7738E-3	145.390E-12	554.013E-3	-39.5898E-3
3.45923E-3	147.350E-12	575.184E-3	-10.7531E-3	145.037E-12	555.386E-3	-19.5762E-3
3.45423E-3	145.790E-12	589.301E-3	-7.78149E-3	144.561E-12	557.800E-3	13.3023E-3
3.44922E-3	145.945E-12	593.827E-3	-13.7194E-3	143.303E-12	551.593E-3	-4.32725E-3
3.44422E-3	146.061E-12	579.343E-3	-19.6249E-3	142.665E-12	548.346E-3	-28.1190E-3
3.43922E-3	144.995E-12	544.220E-3	-32.8754E-3	141.881E-12	542.360E-3	-23.0681E-3
3.43422E-3	144.407E-12	536.006E-3	-42.8052E-3	141.766E-12	538.328E-3	-2.40662E-3
3.42921E-3	144.286E-12	558.660E-3	-40.8868E-3	140.319E-12	541.389E-3	444.257E-6
3.42421E-3	144.610E-12	568.957E-3	-40.9561E-3	140.269E-12	553.949E-3	-24.8670E-3
3.41921E-3	143.459E-12	568.227E-3	-55.3757E-3	140.181E-12	549.711E-3	-37.8092E-3
3.41421E-3	143.047E-12	566.729E-3	-65.1258E-3	139.940E-12	533.432E-3	-29.2118E-3
3.40920E-3	142.500E-12	561.016E-3	-57.3049E-3	139.217E-12	539.194E-3	-25.8366E-3
3.40420E-3	141.637E-12	544.361E-3	-42.1258E-3	139.920E-12	541.920E-3	-34.2354E-3
3.39920E-3	139.994E-12	537.516E-3	-25.7478E-3	139.775E-12	534.452E-3	-40.8513E-3
3.39420E-3	140.774E-12	548.457E-3	-9.06780E-3	140.192E-12	530.141E-3	-34.9222E-3
3.38919E-3	140.465E-12	546.517E-3	-244.865E-6	140.499E-12	518.160E-3	-17.9356E-3
3.38419E-3	139.951E-12	550.173E-3	-2.86607E-3	140.725E-12	519.400E-3	-11.0803E-3
3.37919E-3	139.910E-12	559.585E-3	-896.232E-6	140.923E-12	557.594E-3	-16.4986E-3
3.37419E-3	139.690E-12	556.578E-3	2.30709E-3	141.123E-12	581.352E-3	-27.3504E-3
3.36918E-3	139.422E-12	553.229E-3	-3.54430E-3	140.199E-12	555.473E-3	-32.0931E-3
3.36418E-3	139.672E-12	545.306E-3	-1.29418E-3	140.350E-12	540.772E-3	-27.3879E-3
3.35918E-3	140.158E-12	556.873E-3	-22.3006E-3	140.197E-12	568.018E-3	-25.8564E-3
3.35418E-3	140.051E-12	590.247E-3	-41.1319E-3	139.681E-12	580.644E-3	-11.5430E-3
3.34917E-3	140.618E-12	585.560E-3	-5.58194E-3	139.466E-12	569.277E-3	-12.2018E-3
3.34417E-3	141.211E-12	554.059E-3	16.7397E-3	139.650E-12	561.612E-3	-32.5053E-3
3.33917E-3	140.915E-12	546.320E-3	1.59899E-3	139.658E-12	562.279E-3	-29.4464E-3
3.33417E-3	141.187E-12	547.436E-3	-16.5894E-3	140.136E-12	562.580E-3	-12.4265E-3
3.32916E-3	141.237E-12	541.259E-3	-39.1023E-3	140.448E-12	550.233E-3	-11.8238E-3
3.32416E-3	140.093E-12	543.092E-3	-51.9838E-3	139.997E-12	543.379E-3	-28.7663E-3
3.31916E-3	139.073E-12	553.322E-3	-32.5464E-3	140.137E-12	551.379E-3	-31.4535E-3
3.31416E-3	138.328E-12	561.529E-3	-21.1940E-3	139.803E-12	564.409E-3	-24.8154E-3
3.30915E-3	137.052E-12	578.826E-3	-31.4917E-3	139.005E-12	565.022E-3	-39.0046E-3
3.30415E-3	135.930E-12	582.078E-3	-35.5473E-3	138.674E-12	543.854E-3	-65.3970E-3
3.29915E-3	135.451E-12	555.953E-3	-43.6935E-3	139.688E-12	537.083E-3	-72.0187E-3
3.29415E-3	134.982E-12	540.405E-3	-59.7030E-3	138.114E-12	556.646E-3	-46.7962E-3
3.28914E-3	134.565E-12	532.981E-3	-60.8825E-3	137.275E-12	560.100E-3	-12.9188E-3
3.28414E-3	133.997E-12	517.634E-3	-45.3762E-3	137.550E-12	547.297E-3	10.0193E-3
3.27914E-3	134.372E-12	514.195E-3	-21.8002E-3	137.162E-12	549.223E-3	18.5360E-3
3.27414E-3	134.778E-12	529.199E-3	1.42421E-3	135.544E-12	569.285E-3	10.3822E-3
3.26913E-3	134.907E-12	537.287E-3	-754.813E-6	136.350E-12	576.743E-3	-8.78369E-3
3.26413E-3	135.826E-12	537.507E-3	-19.3279E-3	135.308E-12	565.973E-3	-21.2896E-3
3.25913E-3	136.674E-12	530.267E-3	-21.0144E-3	135.452E-12	561.648E-3	-16.8988E-3
3.25413E-3	137.447E-12	524.700E-3	-17.2343E-3	136.232E-12	560.763E-3	-6.70653E-3
3.24912E-3	138.429E-12	538.585E-3	-28.0503E-3	136.581E-12	565.560E-3	9.17361E-3
3.24412E-3	138.996E-12	540.540E-3	-24.0967E-3	136.619E-12	563.972E-3	23.5494E-3
3.23912E-3	139.741E-12	525.690E-3	-26.9298E-3	137.853E-12	550.460E-3	16.8567E-3
3.23412E-3	138.920E-12	530.586E-3	-42.5128E-3	138.538E-12	544.656E-3	-15.8097E-3
3.22911E-3	138.444E-12	552.783E-3	-25.1360E-3	138.526E-12	553.812E-3	-47.8657E-3
3.22411E-3	136.990E-12	563.217E-3	1.04326E-3	138.532E-12	576.332E-3	-34.0933E-3
3.21911E-3	136.151E-12	564.612E-3	3.15137E-3	139.370E-12	600.384E-3	-15.8885E-3
3.21411E-3	134.876E-12	574.612E-3	8.31600E-3	138.438E-12	599.442E-3	-31.8036E-3
3.20910E-3	133.570E-12	575.773E-3	14.9731E-3	138.236E-12	577.700E-3	-33.4513E-3
3.20410E-3	132.921E-12	570.325E-3	-4.85940E-3	137.467E-12	569.651E-3	-19.8246E-3
3.19910E-3	131.500E-12	569.049E-3	-1.37009E-3	136.462E-12	565.855E-3	-16.3305E-3
3.19410E-3	130.997E-12	554.611E-3	6.65517E-3	135.388E-12	547.489E-3	-37.0262E-3
3.18909E-3	131.208E-12	541.254E-3	-24.5897E-3	133.436E-12	534.558E-3	-60.0229E-3
3.18409E-3	131.054E-12	545.108E-3	-31.1527E-3	132.138E-12	521.874E-3	-45.9525E-3
3.17909E-3	131.440E-12	548.916E-3	-4.36735E-3	131.019E-12	510.470E-3	-15.1079E-3
3.17409E-3	132.293E-12	548.289E-3	886.937E-6	129.939E-12	521.447E-3	1.53838E-3
3.16908E-3	133.265E-12	534.729E-3	-457.738E-6	129.504E-12	521.720E-3	-5.15961E-3
3.16408E-3	133.974E-12	514.711E-3	6.67332E-3	129.866E-12	525.798E-3	-11.0468E-3
3.15908E-3	135.793E-12	519.915E-3	-3.48981E-3	129.559E-12	545.565E-3	-6.69257E-3
3.15408E-3	136.263E-12	539.392E-3	-757.028E-6	130.019E-12	557.236E-3	-12.3136E-3
3.14907E-3	136.964E-12	555.053E-3	4.50508E-3	131.011E-12	572.104E-3	-13.6715E-3
3.14407E-3	136.922E-12	566.610E-3	-31.6121E-3	131.583E-12	587.555E-3	-9.04528E-3
3.13907E-3	137.321E-12	575.699E-3	-43.7950E-3	131.810E-12	587.792E-3	-24.0966E-3
3.13407E-3	135.749E-12	573.167E-3	-334.718E-6	132.509E-12	558.993E-3	-53.2704E-3
3.12906E-3	135.010E-12	570.180E-3	21.7053E-3	132.675E-12	527.532E-3	-65.7629E-3
3.12406E-3	133.824E-12	594.164E-3	17.3296E-3	132.928E-12	520.461E-3	-60.5613E-3
3.11906E-3	132.079E-12	598.109E-3	24.9050E-3	133.576E-12	534.299E-3	-52.1014E-3
3.11406E-3	130.571E-12	566.605E-3	6.29939E-3	133.050E-12	551.164E-3	-34.2177E-3
3.10905E-3	129.088E-12	554.166E-3	-21.4582E-3	132.258E-12	556.444E-3	-18.3625E-3
3.10405E-3	128.321E-12	548.366E-3	-6.92103E-3	131.594E-12	566.018E-3	-24.6380E-3
3.09905E-3	127.177E-12	538.298E-3	-1.82897E-3	130.945E-12	566.154E-3	-23.1546E-3
3.09405E-3	126.475E-12	542.682E-3	-22.2850E-3	130.130E-12	556.575E-3	-8.34061E-3
3.08904E-3	126.304E-12	535.309E-3	-16.3369E-3	128.782E-12	565.902E-3	-5.77600E-3
3.08404E-3	126.493E-12	524.739E-3	-8.14542E-3	128.561E-12	566.382E-3	-16.4371E-3
3.07904E-3	126.359E-12	545.098E-3	-3.91716E-3	127.534E-12	557.180E-3	-43.2207E-3
3.07404E-3	127.020E-12	561.170E-3	18.7553E-3	127.423E-12	567.900E-3	-47.6460E-3
3.06903E-3	128.834E-12	548.558E-3	30.5059E-3	127.790E-12	578.461E-3	-22.6445E-3
3.06403E-3	129.057E-12	553.008E-3	12.4551E-3	127.066E-12	576.596E-3	-3.69727E-3
3.05903E-3	129.995E-12	576.461E-3	-10.7553E-3	127.412E-12	572.016E-3	4.58228E-3
3.05403E-3	129.985E-12	588.024E-3	-28.9432E-3	128.454E-12	558.822E-3	-5.50473E-3
3.04902E-3	130.464E-12	597.436E-3	-33.7947E-3	128.218E-12	551.190E-3	-17.3237E-3
3.04402E-3	130.815E-12	583.342E-3	-9.64918E-3	128.652E-12	559.898E-3	-18.9334E-3
3.03902E-3	130.501E-12	552.539E-3	5.40235E-3	128.903E-12	560.559E-3	-13.8429E-3
3.03402E-3	130.017E-12	564.713E-3	-8.56254E-3	129.175E-12	559.834E-3	-3.06280E-3
3.02901E-3	129.522E-12	596.359E-3	-19.9046E-3	129.301E-12	567.266E-3	-4.35437E-3
3.02401E-3	128.697E-12	597.209E-3	-22.1101E-3	129.831E-12	566.040E-3	-14.4916E-3
3.01901E-3	128.724E-12	587.109E-3	-33.0513E-3	129.399E-12	564.947E-3	-1.73124E-3
3.01401E-3	127.408E-12	568.322E-3	-28.8350E-3	129.193E-12	564.776E-3	15.6954E-3
3.00900E-3	126.633E-12	538.322E-3	-14.9248E-3	128.855E-12	564.796E-3	-619.873E-6
3.00400E-3	126.264E-12	539.303E-3	-5.04931E-3	128.989E-12	566.292E-3	-26.0950E-3
2.99900E-3	126.048E-12	573.482E-3	-5.99247E-3	127.657E-12	573.350E-3	-21.3636E-3
2.99400E-3	125.081E-12	595.599E-3	-23.1335E-3	127.147E-12	587.225E-3	10.3598E-3
2.98899E-3	124.832E-12	578.290E-3	-17.7777E-3	127.252E-12	586.455E-3	26.8244E-3
2.98399E-3	125.115E-12	546.606E-3	-1.32379E-3	126.729E-12	565.566E-3	7.44386E-3
2.97899E-3	124.358E-12	535.280E-3	-14.0116E-3	126.221E-12	566.932E-3	-20.7524E-3
2.97399E-3	124.786E-12	548.482E-3	-31.3635E-3	126.629E-12	588.678E-3	-37.5039E-3
2.96898E-3	125.225E-12	573.188E-3	-25.2698E-3	126.017E-12	572.345E-3	-40.6710E-3
2.96398E-3	125.068E-12	578.909E-3	-17.8835E-3	125.181E-12	546.538E-3	-34.6141E-3
2.95898E-3	124.749E-12	574.990E-3	-29.4338E-3	125.060E-12	548.903E-3	-21.9906E-3
2.95398E-3	124.784E-12	577.689E-3	-40.0450E-3	124.985E-12	561.665E-3	-4.09395E-3
2.94897E-3	124.365E-12	568.893E-3	-29.3437E-3	124.166E-12	577.579E-3	1.61307E-3
2.94397E-3	124.671E-12	563.909E-3	-16.7121E-3	124.031E-12	570.527E-3	-5.37352E-3
2.93897E-3	124.781E-12	558.268E-3	-8.46429E-3	123.824E-12	542.380E-3	-13.8394E-3
2.93397E-3	124.902E-12	533.363E-3	-4.37483E-3	123.366E-12	540.342E-3	-27.0388E-3
2.92896E-3	124.764E-12	521.952E-3	-5.81672E-3	123.155E-12	548.166E-3	-35.4430E-3
2.92396E-3	124.809E-12	537.752E-3	-15.4441E-3	123.247E-12	558.421E-3	-29.4237E-3
2.91896E-3	125.285E-12	550.702E-3	-20.1349E-3	122.637E-12	584.378E-3	-22.4349E-3
2.91396E-3	124.875E-12	564.463E-3	-6.19547E-3	123.270E-12	582.686E-3	-27.3436E-3
2.90895E-3	125.085E-12	561.575E-3	15.7220E-3	122.949E-12	554.126E-3	-38.1669E-3
2.90395E-3	125.172E-12	540.627E-3	23.8007E-3	122.780E-12	547.953E-3	-35.9763E-3
2.89895E-3	124.662E-12	554.221E-3	15.7409E-3	122.888E-12	558.060E-3	-21.0065E-3
2.89395E-3	124.898E-12	583.074E-3	5.87234E-3	123.199E-12	574.724E-3	-2.64249E-3
2.88894E-3	123.939E-12	593.656E-3	-3.97916E-3	122.823E-12	589.261E-3	3.80586E-3
2.88394E-3	122.981E-12	586.902E-3	-20.7243E-3	122.271E-12	576.245E-3	-11.4434E-3
2.87894E-3	122.130E-12	563.392E-3	-38.9014E-3	122.645E-12	556.219E-3	-29.3399E-3
2.87394E-3	121.706E-12	551.863E-3	-39.6775E-3	122.361E-12	557.462E-3	-32.9246E-3
2.86893E-3	120.589E-12	570.468E-3	-28.3752E-3	121.307E-12	563.607E-3	-24.0547E-3
2.86393E-3	120.427E-12	580.193E-3	-19.2141E-3	120.273E-12	564.616E-3	-15.8081E-3
2.85893E-3	119.990E-12	569.115E-3	-27.2961E-3	120.428E-12	563.619E-3	-23.1571E-3
2.85393E-3	119.637E-12	567.910E-3	-34.4234E-3	119.331E-12	559.415E-3	-49.5629E-3
2.84892E-3	119.741E-12	582.259E-3	-19.2547E-3	118.463E-12	559.155E-3	-58.7852E-3
2.84392E-3	120.357E-12	588.005E-3	-13.2895E-3	118.523E-12	557.415E-3	-43.1453E-3
2.83892E-3	120.901E-12	569.725E-3	-18.1969E-3	118.694E-12	561.776E-3	-20.1841E-3
2.83392E-3	121.508E-12	544.847E-3	-15.0484E-3	118.232E-12	582.951E-3	2.65424E-3
2.82891E-3	122.425E-12	542.872E-3	-11.7726E-3	118.360E-12	597.858E-3	-2.21424E-3
2.82391E-3	122.887E-12	563.075E-3	3.50125E-3	118.762E-12	589.434E-3	-31.2499E-3
2.81891E-3	123.036E-12	572.604E-3	25.8599E-3	118.833E-12	573.176E-3	-47.5372E-3
2.81391E-3	123.632E-12	557.416E-3	33.9194E-3	119.119E-12	567.885E-3	-45.7220E-3
2.80890E-3	122.914E-12	538.012E-3	18.0407E-3	119.571E-12	565.209E-3	-30.0668E-3
2.80390E-3	121.891E-12	548.519E-3	-9.47927E-3	120.280E-12	556.286E-3	1.88660E-3
2.79890E-3	120.963E-12	575.071E-3	-10.5816E-3	120.471E-12	553.933E-3	18.4860E-3
2.79390E-3	119.562E-12	581.211E-3	7.82636E-3	121.359E-12	568.002E-3	7.68757E-3
2.78889E-3	118.480E-12	579.916E-3	13.5414E-3	121.678E-12	587.132E-3	2.08352E-3
2.78389E-3	117.451E-12	569.649E-3	1.22640E-3	121.704E-12	588.452E-3	-1.54704E-3
2.77889E-3	115.964E-12	556.928E-3	651.698E-6	121.439E-12	574.646E-3	-27.8040E-3
2.77389E-3	114.304E-12	558.873E-3	7.23896E-3	121.382E-12	558.684E-3	-43.8355E-3
2.76888E-3	113.799E-12	559.259E-3	-17.4300E-3	120.672E-12	561.021E-3	-23.2546E-3
2.76388E-3	113.348E-12	554.488E-3	-29.9532E-3	119.664E-12	566.127E-3	-4.69817E-3
2.75888E-3	113.334E-12	543.533E-3	-26.8580E-3	119.033E-12	553.454E-3	804.374E-6
2.75388E-3	112.757E-12	526.637E-3	-29.7805E-3	118.365E-12	557.983E-3	9.65092E-3
2.74887E-3	113.579E-12	529.842E-3	-9.91865E-3	117.248E-12	562.448E-3	10.0187E-3
2.74387E-3	114.810E-12	549.065E-3	8.04460E-3	116.483E-12	559.964E-3	1.96787E-3
2.73887E-3	115.463E-12	562.049E-3	-3.44734E-3	116.150E-12	585.022E-3	-11.2976E-3
2.73387E-3	116.832E-12	568.839E-3	-9.05015E-3	115.588E-12	600.163E-3	-24.1500E-3
2.72886E-3	117.639E-12	569.160E-3	-1.03684E-3	115.005E-12	588.209E-3	-19.5654E-3
2.72386E-3	118.635E-12	558.013E-3	-13.3009E-3	115.597E-12	582.319E-3	-5.24016E-3
2.71886E-3	119.585E-12	554.542E-3	-33.5649E-3	116.189E-12	572.771E-3	-10.4278E-3
2.71386E-3	119.922E-12	572.180E-3	-42.8624E-3	116.184E-12	564.930E-3	-25.0646E-3
2.70885E-3	119.225E-12	595.837E-3	-39.5432E-3	116.990E-12	558.722E-3	-28.9321E-3
2.70385E-3	118.480E-12	608.227E-3	-19.7205E-3	117.224E-12	554.543E-3	-25.0784E-3
2.69885E-3	117.646E-12	591.180E-3	-1.36224E-3	117.085E-12	565.005E-3	-10.4028E-3
2.69385E-3	116.370E-12	566.978E-3	-6.46116E-3	117.474E-12	570.273E-3	4.39922E-3
2.68884E-3	114.451E-12	561.120E-3	-16.6297E-3	117.484E-12	575.971E-3	-7.07377E-3
2.68384E-3	113.500E-12	551.460E-3	-28.5071E-3	116.555E-12	580.216E-3	-27.8001E-3
2.67884E-3	112.684E-12	539.485E-3	-44.6333E-3	116.541E-12	569.949E-3	-18.5409E-3
2.67384E-3	111.544E-12	561.300E-3	-48.5727E-3	116.040E-12	556.557E-3	-2.32542E-3
2.66883E-3	111.709E-12	579.323E-3	-38.7624E-3	114.922E-12	553.654E-3	4.99395E-3
2.66383E-3	111.157E-12	560.088E-3	-28.8527E-3	114.893E-12	573.239E-3	5.93594E-3
2.65883E-3	111.074E-12	550.630E-3	-27.1346E-3	114.544E-12	591.571E-3	-9.82906E-3
2.65383E-3	111.090E-12	554.535E-3	-13.1474E-3	112.747E-12	586.119E-3	-27.2741E-3
2.64882E-3	112.543E-12	545.864E-3	3.90166E-3	112.793E-12	584.741E-3	-19.9175E-3
2.64382E-3	112.831E-12	544.842E-3	-4.52608E-3	112.510E-12	572.135E-3	-16.6482E-3
2.63882E-3	114.096E-12	551.494E-3	-20.3969E-3	112.157E-12	553.580E-3	-30.2678E-3
2.63382E-3	114.743E-12	554.473E-3	-14.5949E-3	111.643E-12	567.700E-3	-24.3383E-3
2.62881E-3	115.008E-12	568.881E-3	-12.1147E-3	111.834E-12	587.092E-3	-22.6233E-3
2.62381E-3	116.000E-12	573.674E-3	-29.9632E-3	111.950E-12	582.104E-3	-35.1897E-3
2.61881E-3	116.388E-12	568.364E-3	-34.6811E-3	112.611E-12	569.711E-3	-35.4548E-3
2.61381E-3	116.382E-12	574.163E-3	-29.2776E-3	112.281E-12	558.436E-3	-26.2219E-3
2.60880E-3	115.779E-12	573.335E-3	-26.7151E-3	112.566E-12	546.160E-3	-25.1687E-3
2.60380E-3	115.083E-12	563.692E-3	-23.8392E-3	112.162E-12	554.840E-3	-31.8662E-3
2.59880E-3	114.351E-12	577.483E-3	-32.1905E-3	111.861E-12	570.936E-3	-28.1392E-3
2.59380E-3	113.287E-12	597.446E-3	-30.1302E-3	111.130E-12	552.665E-3	-23.3049E-3
2.58879E-3	112.549E-12	592.732E-3	-17.0937E-3	110.990E-12	521.895E-3	-16.6571E-3
2.58379E-3	112.149E-12	583.502E-3	-23.0780E-3	110.100E-12	517.312E-3	-13.6153E-3
2.57879E-3	111.343E-12	575.100E-3	-23.9186E-3	109.097E-12	524.285E-3	-21.3926E-3
2.57379E-3	110.081E-12	565.325E-3	-4.81593E-3	108.798E-12	538.266E-3	-25.8374E-3
2.56878E-3	109.755E-12	565.524E-3	-4.97441E-3	108.726E-12	560.494E-3	-24.9533E-3
2.56378E-3	109.566E-12	563.549E-3	-24.6842E-3	108.357E-12	560.908E-3	-2.83035E-3
2.55878E-3	109.399E-12	545.603E-3	-27.0994E-3	108.013E-12	545.124E-3	21.7061E-3
2.55378E-3	108.664E-12	527.970E-3	-6.45887E-3	107.492E-12	536.768E-3	17.3852E-3
2.54877E-3	108.180E-12	536.878E-3	14.7192E-3	107.677E-12	526.556E-3	288.069E-6
2.54377E-3	108.983E-12	558.227E-3	9.65057E-3	107.902E-12	525.343E-3	-19.3632E-3
2.53877E-3	109.035E-12	553.556E-3	-2.47077E-3	107.784E-12	540.602E-3	-38.3510E-3
2.53377E-3	108.754E-12	550.212E-3	8.93825E-3	107.979E-12	556.559E-3	-44.2972E-3
2.52876E-3	108.548E-12	566.057E-3	4.42624E-3	108.739E-12	575.983E-3	-23.5559E-3
2.52376E-3	108.350E-12	560.344E-3	-29.1995E-3	108.922E-12	583.210E-3	195.949E-6
2.51876E-3	108.183E-12	541.454E-3	-37.7221E-3	108.877E-12	566.754E-3	5.07954E-3
2.51376E-3	107.952E-12	532.386E-3	-16.7472E-3	109.091E-12	560.023E-3	-3.08533E-3
2.50875E-3	108.417E-12	535.705E-3	-17.6361E-3	109.029E-12	568.570E-3	-32.4913E-3
2.50375E-3	107.824E-12	555.174E-3	-37.8136E-3	108.580E-12	576.459E-3	-48.2693E-3
2.49875E-3	107.884E-12	568.714E-3	-39.3811E-3	108.059E-12	589.017E-3	-36.3476E-3
2.49375E-3	108.161E-12	570.834E-3	-22.4304E-3	107.885E-12	591.214E-3	-34.2069E-3
2.48874E-3	107.808E-12	573.649E-3	-3.98282E-3	107.176E-12	573.654E-3	-18.5661E-3
2.48374E-3	107.755E-12	577.784E-3	-9.24814E-3	107.106E-12	565.798E-3	14.5465E-3
2.47874E-3	107.280E-12	580.311E-3	-25.5517E-3	107.087E-12	574.212E-3	19.3261E-3
2.47374E-3	106.735E-12	581.233E-3	-17.0830E-3	106.845E-12	569.204E-3	14.9340E-3
2.46873E-3	106.292E-12	578.502E-3	-9.97931E-3	106.446E-12	556.872E-3	17.7749E-3
2.46373E-3	105.791E-12	576.386E-3	-17.6854E-3	106.448E-12	564.032E-3	2.76049E-3
2.45873E-3	104.746E-12	582.949E-3	-18.3139E-3	106.287E-12	563.612E-3	-11.7529E-3
2.45373E-3	104.443E-12	596.055E-3	-19.1719E-3	106.196E-12	562.202E-3	-17.1803E-3
2.44872E-3	103.981E-12	599.953E-3	-33.0903E-3	105.572E-12	586.635E-3	-19.2213E-3
2.44372E-3	103.592E-12	580.893E-3	-39.3829E-3	106.157E-12	597.321E-3	-17.4098E-3
2.43872E-3	103.384E-12	551.395E-3	-23.2436E-3	105.684E-12	587.901E-3	-24.3022E-3
2.43372E-3	103.548E-12	552.348E-3	-16.8535E-3	105.555E-12	581.220E-3	-31.9671E-3
2.42871E-3	103.571E-12	575.929E-3	-13.6408E-3	105.705E-12	575.963E-3	-31.6531E-3
2.42371E-3	103.826E-12	562.998E-3	182.966E-6	105.776E-12	581.089E-3	-23.2781E-3
2.41871E-3	104.058E-12	542.065E-3	-15.9325E-3	105.369E-12	590.183E-3	-24.8008E-3
2.41371E-3	104.886E-12	564.407E-3	-41.6938E-3	105.013E-12	582.830E-3	-33.1305E-3
2.40870E-3	105.985E-12	575.902E-3	-31.8365E-3	104.996E-12	567.894E-3	-21.0063E-3
2.40370E-3	106.078E-12	573.349E-3	-25.5338E-3	105.150E-12	569.312E-3	-1.57672E-3
2.39870E-3	106.810E-12	601.825E-3	-24.5450E-3	104.222E-12	574.012E-3	4.06038E-3
2.39370E-3	107.425E-12	607.293E-3	803.049E-6	104.403E-12	567.302E-3	-436.131E-6
2.38869E-3	107.576E-12	590.427E-3	-1.88659E-3	105.082E-12	580.518E-3	-8.81498E-3
2.38369E-3	107.309E-12	599.976E-3	-21.9891E-3	103.927E-12	600.672E-3	-15.1923E-3
2.37869E-3	106.401E-12	604.355E-3	-12.9061E-3	104.246E-12	603.332E-3	-12.3933E-3
2.37369E-3	106.019E-12	594.850E-3	-13.4735E-3	104.778E-12	619.183E-3	-6.75854E-3
2.36868E-3	105.196E-12	594.569E-3	-24.6353E-3	103.811E-12	629.970E-3	-11.1075E-3
2.36368E-3	103.962E-12	590.654E-3	-21.8140E-3	103.676E-12	604.254E-3	-11.9508E-3
2.35868E-3	102.310E-12	584.693E-3	-13.2034E-3	103.644E-12	587.045E-3	-8.82015E-3
2.35368E-3	101.225E-12	581.675E-3	-2.81826E-3	103.698E-12	588.077E-3	-19.2110E-3
2.34867E-3	100.313E-12	557.100E-3	-3.55826E-3	102.576E-12	580.042E-3	-18.2637E-3
2.34367E-3	98.8170E-12	540.431E-3	-30.5393E-3	102.133E-12	579.664E-3	-1.24489E-3
2.33867E-3	98.5930E-12	559.087E-3	-42.2435E-3	101.988E-12	580.141E-3	-3.88720E-3
2.33367E-3	98.4823E-12	564.521E-3	-19.6805E-3	101.834E-12	566.320E-3	-21.5944E-3
2.32866E-3	98.3231E-12	549.948E-3	-17.6960E-3	101.234E-12	563.465E-3	-34.9214E-3
2.32366E-3	99.0437E-12	563.840E-3	-28.4893E-3	100.271E-12	570.089E-3	-45.3698E-3
2.31866E-3	99.3309E-12	582.994E-3	-15.0281E-3	100.228E-12	558.654E-3	-57.1932E-3
2.31366E-3	101.288E-12	571.155E-3	-7.21235E-3	100.006E-12	563.389E-3	-53.5475E-3
2.30865E-3	101.013E-12	560.862E-3	-9.69170E-3	99.8841E-12	573.291E-3	-34.0966E-3
2.30365E-3	102.107E-12	570.530E-3	2.27060E-3	98.9628E-12	554.119E-3	-26.6788E-3
2.29865E-3	102.551E-12	586.253E-3	1.65470E-3	99.2169E-12	557.752E-3	-22.5316E-3
2.29365E-3	103.416E-12	588.322E-3	-7.92529E-3	99.5169E-12	591.280E-3	-25.6037E-3
2.28864E-3	102.912E-12	574.714E-3	3.43355E-3	99.0438E-12	610.574E-3	-40.1920E-3
2.28364E-3	102.533E-12	555.787E-3	1.95340E-3	98.8190E-12	622.067E-3	-50.4989E-3
2.27864E-3	102.270E-12	560.080E-3	-12.1963E-3	99.2147E-12	625.380E-3	-51.2628E-3
2.27364E-3	101.386E-12	587.437E-3	-5.85792E-3	99.1780E-12	600.074E-3	-34.4310E-3
2.26863E-3	99.6656E-12	597.533E-3	-8.96234E-3	98.7863E-12	581.627E-3	-24.7315E-3
2.26363E-3	98.5840E-12	601.604E-3	-26.9406E-3	99.3673E-12	590.609E-3	-30.2246E-3
2.25863E-3	97.8386E-12	609.097E-3	-13.6210E-3	99.1753E-12	602.414E-3	-19.7968E-3
2.25363E-3	96.2745E-12	591.020E-3	-504.203E-6	98.6668E-12	601.794E-3	-5.09608E-3
2.24862E-3	95.2489E-12	575.417E-3	-16.2123E-3	98.2577E-12	588.671E-3	-16.4064E-3
2.24362E-3	94.3331E-12	587.727E-3	-16.2925E-3	97.7320E-12	585.646E-3	-32.3604E-3
2.23862E-3	94.2423E-12	593.871E-3	-9.93459E-3	97.5491E-12	589.578E-3	-20.2014E-3
2.23362E-3	94.1632E-12	580.414E-3	-15.1230E-3	96.7742E-12	576.934E-3	-2.14539E-3
2.22861E-3	94.0466E-12	563.103E-3	-7.80318E-3	95.8470E-12	566.172E-3	-7.43020E-3
2.22361E-3	94.4828E-12	559.216E-3	-13.7637E-3	96.5684E-12	573.445E-3	-19.8854E-3
2.21861E-3	94.8161E-12	570.134E-3	-37.0599E-3	96.4096E-12	584.515E-3	-7.90279E-3
2.21361E-3	95.6729E-12	571.464E-3	-33.6764E-3	95.7763E-12	590.193E-3	10.9823E-3
2.20860E-3	95.7928E-12	556.615E-3	-19.8128E-3	96.1693E-12	591.927E-3	2.24255E-3
2.20360E-3	96.4660E-12	557.691E-3	-18.9538E-3	96.8536E-12	588.950E-3	-12.9742E-3
2.19860E-3	97.1273E-12	577.828E-3	-17.8598E-3	97.2145E-12	577.735E-3	-15.2549E-3
2.19360E-3	97.6112E-12	595.147E-3	-18.0705E-3	97.8657E-12	581.601E-3	-15.0406E-3
2.18859E-3	97.7533E-12	607.107E-3	-24.3864E-3	98.1168E-12	592.000E-3	-7.91507E-3
2.18359E-3	97.7376E-12	614.752E-3	-24.3026E-3	98.5711E-12	583.750E-3	7.81501E-3
2.17859E-3	97.6418E-12	607.654E-3	-16.6988E-3	98.6125E-12	589.991E-3	19.0702E-3
2.17359E-3	96.7173E-12	589.682E-3	-4.26021E-3	98.8074E-12	607.497E-3	16.9906E-3
2.16858E-3	96.2838E-12	585.043E-3	9.57966E-3	98.6138E-12	599.158E-3	8.88480E-3
2.16358E-3	95.4954E-12	592.901E-3	2.59220E-3	97.8901E-12	585.044E-3	8.34675E-3
2.15858E-3	94.9591E-12	598.556E-3	-22.7260E-3	97.4132E-12	576.943E-3	3.68817E-3
2.15358E-3	93.9755E-12	596.077E-3	-31.5015E-3	96.6527E-12	558.864E-3	-212.916E-6
2.14857E-3	93.7428E-12	592.384E-3	-21.0927E-3	95.4212E-12	562.064E-3	14.1568E-3
2.14357E-3	93.3837E-12	591.859E-3	-21.8615E-3	94.2065E-12	576.266E-3	6.61192E-3
2.13857E-3	92.7626E-12	583.987E-3	-22.0004E-3	93.3093E-12	574.243E-3	-24.0540E-3
2.13357E-3	92.6609E-12	570.188E-3	-15.5319E-3	92.8846E-12	579.604E-3	-21.8104E-3
2.12856E-3	92.5086E-12	553.778E-3	-22.5798E-3	91.5479E-12	573.743E-3	-12.1229E-3
2.12356E-3	92.7965E-12	552.041E-3	-22.1430E-3	90.9947E-12	554.029E-3	-24.6213E-3
2.11856E-3	92.6839E-12	563.364E-3	-19.2614E-3	90.7762E-12	564.360E-3	-41.2252E-3
2.11356E-3	92.6319E-12	560.686E-3	-24.2519E-3	90.7383E-12	596.484E-3	-50.5940E-3
2.10855E-3	93.0916E-12	555.109E-3	-18.9006E-3	90.8864E-12	609.628E-3	-41.0426E-3
2.10355E-3	92.9456E-12	559.345E-3	-17.5338E-3	91.4256E-12	601.891E-3	-19.0905E-3
2.09855E-3	93.2634E-12	568.594E-3	-19.2673E-3	91.5132E-12	583.145E-3	294.259E-6
2.09355E-3	93.2033E-12	582.070E-3	-14.3818E-3	92.3883E-12	568.052E-3	11.8547E-3
2.08854E-3	94.0106E-12	588.884E-3	-17.0985E-3	92.4938E-12	579.237E-3	8.90385E-3
2.08354E-3	93.4907E-12	589.274E-3	-18.7565E-3	93.4915E-12	606.416E-3	-18.3035E-3
2.07854E-3	93.1606E-12	604.597E-3	-2.91805E-3	93.6227E-12	613.623E-3	-33.8388E-3
2.07354E-3	92.9711E-12	624.767E-3	2.78097E-3	93.3736E-12	604.986E-3	-5.05899E-3
2.06853E-3	93.1079E-12	633.038E-3	-11.3383E-3	92.8204E-12	590.626E-3	11.7348E-3
2.06353E-3	92.1808E-12	617.752E-3	-9.86301E-3	93.2235E-12	568.792E-3	-13.7013E-3
2.05853E-3	91.9775E-12	575.076E-3	9.16768E-3	92.1973E-12	565.652E-3	-38.4677E-3
2.05353E-3	90.9458E-12	551.248E-3	12.6981E-3	91.4310E-12	576.019E-3	-44.9152E-3
2.04852E-3	91.0406E-12	566.454E-3	-137.460E-6	90.6680E-12	573.682E-3	-33.3357E-3
2.04352E-3	90.4745E-12	584.558E-3	-15.0022E-3	89.7869E-12	555.416E-3	-19.2795E-3
2.03852E-3	89.6921E-12	577.328E-3	-24.7759E-3	88.4685E-12	529.389E-3	-28.7675E-3
2.03352E-3	88.8405E-12	562.555E-3	-20.3797E-3	87.9272E-12	513.261E-3	-38.8993E-3
2.02851E-3	88.5864E-12	556.826E-3	-12.9620E-3	87.3860E-12	525.475E-3	-24.2866E-3
2.02351E-3	88.7089E-12	550.491E-3	-10.5454E-3	86.8120E-12	550.547E-3	-8.39488E-3
2.01851E-3	88.1398E-12	551.515E-3	-2.23259E-3	86.5841E-12	558.153E-3	-14.9404E-3
2.01351E-3	87.8103E-12	566.239E-3	-8.31734E-3	86.2121E-12	554.091E-3	-23.5236E-3
2.00850E-3	87.9056E-12	581.367E-3	-28.2508E-3	86.7042E-12	561.785E-3	-20.4618E-3
2.00350E-3	88.3474E-12	591.286E-3	-15.0184E-3	86.6026E-12	569.480E-3	-21.9727E-3
1.99850E-3	88.1201E-12	585.529E-3	10.6399E-3	86.6897E-12	563.228E-3	-24.3730E-3
1.99350E-3	88.2531E-12	577.025E-3	8.03708E-3	86.5573E-12	560.674E-3	-24.4441E-3
1.98849E-3	88.5513E-12	579.245E-3	-161.404E-6	87.2409E-12	562.196E-3	-25.6839E-3
1.98349E-3	88.2344E-12	573.249E-3	5.41098E-3	87.2327E-12	561.766E-3	-21.9422E-3
1.97849E-3	88.6098E-12	573.592E-3	-1.06357E-3	87.5320E-12	566.207E-3	-22.1353E-3
1.97349E-3	88.7500E-12	586.232E-3	-15.0674E-3	87.8685E-12	568.874E-3	-27.8079E-3
1.96848E-3	88.8138E-12	581.565E-3	-22.4558E-3	87.7686E-12	566.212E-3	-32.8243E-3
1.96348E-3	88.7310E-12	575.803E-3	-28.3666E-3	87.4842E-12	575.392E-3	-27.7327E-3
1.95848E-3	88.3060E-12	582.665E-3	-16.5836E-3	87.6865E-12	585.481E-3	-11.0044E-3
1.95348E-3	88.1644E-12	582.106E-3	4.59074E-3	87.6704E-12	582.766E-3	-13.5294E-3
1.94847E-3	87.3729E-12	581.730E-3	10.1994E-3	87.4711E-12	582.704E-3	-27.0592E-3
1.94347E-3	86.0724E-12	578.150E-3	5.69338E-3	87.4406E-12	583.991E-3	-24.0681E-3
1.93847E-3	85.1502E-12	569.855E-3	1.50113E-3	87.4885E-12	578.796E-3	-18.1899E-3
1.93347E-3	84.9972E-12	566.872E-3	-5.88055E-3	86.7042E-12	572.593E-3	-20.1766E-3
1.92846E-3	84.3507E-12	563.779E-3	-21.8168E-3	86.6869E-12	580.579E-3	-22.1580E-3
1.92346E-3	83.3224E-12	551.965E-3	-18.8257E-3	86.9619E-12	593.595E-3	-16.3556E-3
1.91846E-3	82.4317E-12	543.051E-3	-9.88953E-3	86.2460E-12	590.515E-3	-15.9223E-3
1.91346E-3	82.5052E-12	556.856E-3	-30.6868E-3	85.6889E-12	567.804E-3	-14.6049E-3
1.90845E-3	82.1766E-12	566.739E-3	-33.8139E-3	86.4776E-12	542.847E-3	1.14243E-3
1.90345E-3	82.0038E-12	554.819E-3	-17.5878E-3	85.5028E-12	543.922E-3	12.7654E-3
1.89845E-3	82.0707E-12	553.471E-3	-19.4708E-3	84.9962E-12	552.031E-3	8.63157E-3
1.89345E-3	82.6715E-12	563.374E-3	-14.4497E-3	84.9513E-12	546.449E-3	-4.88289E-3
1.88844E-3	83.1717E-12	563.214E-3	6.75339E-3	84.9737E-12	545.199E-3	-11.4433E-3
1.88344E-3	84.0966E-12	567.118E-3	13.5345E-3	84.4789E-12	557.851E-3	-13.4373E-3
1.87844E-3	84.0545E-12	568.113E-3	4.87966E-3	84.5056E-12	571.437E-3	-13.9254E-3
1.87344E-3	84.7530E-12	575.295E-3	-17.2646E-3	84.1360E-12	577.267E-3	-19.8455E-3
1.86843E-3	85.2874E-12	590.776E-3	-47.3503E-3	84.5857E-12	579.346E-3	-30.4968E-3
1.86343E-3	85.3556E-12	595.973E-3	-44.4132E-3	84.3401E-12	581.898E-3	-23.3479E-3
1.85843E-3	85.3923E-12	606.392E-3	-14.9580E-3	84.0603E-12	588.203E-3	-4.65035E-3
1.85343E-3	84.9488E-12	609.955E-3	-6.71510E-3	84.3987E-12	584.580E-3	-9.47276E-3
1.84842E-3	84.4307E-12	607.878E-3	-17.2359E-3	84.9684E-12	571.919E-3	-26.3845E-3
1.84342E-3	83.6393E-12	606.288E-3	-13.2269E-3	84.6957E-12	577.452E-3	-22.2185E-3
1.83842E-3	83.4329E-12	589.146E-3	-7.66586E-3	84.3742E-12	584.569E-3	-24.7524E-3
1.83342E-3	82.4527E-12	572.905E-3	-10.7955E-3	84.5538E-12	574.122E-3	-30.1599E-3
1.82841E-3	81.6249E-12	576.723E-3	-10.8870E-3	83.9909E-12	576.647E-3	-19.1339E-3
1.82341E-3	81.1310E-12	605.746E-3	-10.4215E-3	84.0601E-12	580.372E-3	-16.1328E-3
1.81841E-3	80.4172E-12	621.925E-3	-13.3775E-3	83.1715E-12	566.362E-3	-15.3221E-3
1.81341E-3	79.9647E-12	589.845E-3	-19.8698E-3	82.4121E-12	550.076E-3	-15.7151E-3
1.80840E-3	79.7384E-12	552.803E-3	-31.6497E-3	81.3962E-12	537.823E-3	-19.4971E-3
1.80340E-3	79.3018E-12	554.689E-3	-34.5135E-3	81.2810E-12	543.115E-3	-6.40536E-3
1.79840E-3	79.7831E-12	571.858E-3	-24.7583E-3	80.4548E-12	565.133E-3	7.51630E-3
1.79340E-3	80.9182E-12	563.083E-3	-21.2074E-3	80.1155E-12	574.209E-3	4.60784E-3
1.78839E-3	80.5389E-12	546.767E-3	-26.7155E-3	79.6086E-12	560.394E-3	-11.7937E-3
1.78339E-3	80.9153E-12	554.259E-3	-34.2497E-3	79.3640E-12	559.879E-3	-26.2738E-3
1.77839E-3	81.5074E-12	571.355E-3	-28.9403E-3	79.6276E-12	581.195E-3	-26.1923E-3
1.77339E-3	81.7541E-12	575.661E-3	-9.92624E-3	79.4421E-12	582.425E-3	-20.6759E-3
1.76838E-3	81.4873E-12	565.694E-3	-351.371E-6	79.6853E-12	570.205E-3	-6.31417E-3
1.76338E-3	81.5543E-12	554.083E-3	-12.0443E-3	80.3324E-12	576.824E-3	9.07500E-3
1.75838E-3	81.0877E-12	556.741E-3	-33.1128E-3	80.2862E-12	592.386E-3	-3.73443E-3
1.75338E-3	80.9600E-12	569.830E-3	-45.3219E-3	80.6910E-12	599.054E-3	-33.8141E-3
1.74837E-3	80.4319E-12	570.430E-3	-52.5754E-3	80.4298E-12	593.447E-3	-34.3216E-3
1.74337E-3	79.3572E-12	563.437E-3	-60.3899E-3	80.9228E-12	588.660E-3	-20.8764E-3
1.73837E-3	78.8050E-12	570.503E-3	-50.9182E-3	80.2221E-12	587.924E-3	-26.2177E-3
1.73337E-3	78.1680E-12	571.691E-3	-20.8431E-3	80.2992E-12	578.776E-3	-24.5557E-3
1.72836E-3	77.3536E-12	561.664E-3	-12.9722E-3	79.2838E-12	563.069E-3	-13.3897E-3
1.72336E-3	76.5217E-12	565.288E-3	-28.3663E-3	78.6478E-12	550.725E-3	-14.4817E-3
1.71836E-3	76.0602E-12	564.912E-3	-25.9592E-3	77.8294E-12	541.729E-3	-14.2413E-3
1.71336E-3	75.8350E-12	547.581E-3	-12.0921E-3	76.7269E-12	536.853E-3	-15.4199E-3
1.70835E-3	75.3530E-12	538.268E-3	-8.52711E-3	75.5341E-12	542.966E-3	-19.4406E-3
1.70335E-3	75.8890E-12	536.694E-3	-18.2117E-3	75.0625E-12	553.583E-3	-8.85479E-3
1.69835E-3	75.8587E-12	539.943E-3	-28.8579E-3	74.4557E-12	565.324E-3	-4.35952E-3
1.69335E-3	76.0623E-12	554.319E-3	-20.6784E-3	73.8789E-12	576.387E-3	-6.31342E-3
1.68834E-3	76.7005E-12	566.966E-3	2.18755E-3	73.4544E-12	568.600E-3	-9.03421E-3
1.68334E-3	77.2566E-12	567.104E-3	15.0974E-3	73.2381E-12	540.109E-3	-22.9794E-3
1.67834E-3	77.1862E-12	567.273E-3	12.8191E-3	73.6414E-12	519.219E-3	-23.9931E-3
1.67334E-3	77.1539E-12	570.929E-3	1.84283E-3	74.0880E-12	522.058E-3	-13.5704E-3
1.66833E-3	77.4250E-12	563.150E-3	-1.59734E-3	74.2822E-12	540.289E-3	-19.7502E-3
1.66333E-3	77.3430E-12	557.777E-3	-4.38062E-3	74.0263E-12	550.789E-3	-29.5952E-3
1.65833E-3	77.2711E-12	573.043E-3	-16.6589E-3	75.1631E-12	552.273E-3	-20.5882E-3
1.65333E-3	76.8686E-12	584.268E-3	-13.7929E-3	75.7666E-12	565.691E-3	-9.27153E-3
1.64832E-3	75.8564E-12	573.921E-3	-15.2699E-3	75.5095E-12	579.357E-3	-16.2986E-3
1.64332E-3	75.4264E-12	560.419E-3	-25.9381E-3	75.7790E-12	567.305E-3	-24.4903E-3
1.63832E-3	75.2738E-12	560.475E-3	-28.7062E-3	76.0805E-12	549.875E-3	-28.4875E-3
1.63332E-3	74.3015E-12	571.758E-3	-37.2203E-3	76.1141E-12	541.787E-3	-36.6171E-3
1.62831E-3	73.7551E-12	577.808E-3	-28.8840E-3	76.0597E-12	537.488E-3	-36.9304E-3
1.62331E-3	73.5300E-12	569.133E-3	-9.98247E-3	75.8794E-12	551.613E-3	-30.2280E-3
1.61831E-3	72.7169E-12	547.300E-3	-503.549E-6	75.1318E-12	565.942E-3	-24.4937E-3
1.61331E-3	72.5099E-12	535.914E-3	2.66626E-3	74.7006E-12	556.810E-3	-22.6637E-3
1.60830E-3	72.1476E-12	538.143E-3	-9.94602E-3	74.3554E-12	546.701E-3	-25.6014E-3
1.60330E-3	71.8186E-12	533.973E-3	-26.5999E-3	73.6243E-12	557.085E-3	-26.8178E-3
1.59830E-3	71.7250E-12	532.487E-3	-25.2696E-3	73.2524E-12	569.401E-3	-17.5007E-3
1.59330E-3	72.1794E-12	537.550E-3	-9.22379E-3	72.9868E-12	570.329E-3	-6.49476E-3
1.58829E-3	72.2832E-12	547.619E-3	-500.236E-6	72.8246E-12	561.989E-3	-6.63347E-3
1.58329E-3	72.4195E-12	560.328E-3	-4.34306E-3	72.8429E-12	546.196E-3	-10.3991E-3
1.57829E-3	73.0517E-12	566.768E-3	-18.6641E-3	72.5271E-12	537.865E-3	-18.7512E-3
1.57329E-3	72.9888E-12	564.460E-3	-33.0272E-3	72.6021E-12	543.066E-3	-30.7514E-3
1.56828E-3	73.1941E-12	558.118E-3	-32.0197E-3	72.8331E-12	550.718E-3	-28.7728E-3
1.56328E-3	74.0799E-12	560.973E-3	-24.5238E-3	72.8277E-12	551.390E-3	-18.7719E-3
1.55828E-3	74.1207E-12	565.880E-3	-14.5524E-3	72.5458E-12	547.960E-3	-11.6515E-3
1.55328E-3	73.4340E-12	563.056E-3	-4.77817E-3	72.2881E-12	550.674E-3	-1.83481E-3
1.54827E-3	73.9984E-12	552.018E-3	-9.42902E-3	72.0554E-12	560.086E-3	11.7715E-3
1.54327E-3	73.3588E-12	545.587E-3	-22.1772E-3	72.1220E-12	565.629E-3	10.7782E-3
1.53827E-3	72.1438E-12	562.438E-3	-22.2603E-3	71.6306E-12	562.989E-3	-1.75592E-3
1.53327E-3	72.0910E-12	570.931E-3	-14.3531E-3	70.7707E-12	560.798E-3	751.413E-6
1.52826E-3	71.7421E-12	559.300E-3	-10.3523E-3	70.4375E-12	555.176E-3	-5.29629E-3
1.52326E-3	71.0322E-12	550.976E-3	-11.6169E-3	70.4752E-12	538.590E-3	-24.3858E-3
1.51826E-3	70.1690E-12	539.718E-3	-18.0140E-3	70.3161E-12	530.716E-3	-15.7054E-3
1.51326E-3	69.8085E-12	535.406E-3	-20.9197E-3	69.7933E-12	529.733E-3	2.43522E-3
1.50825E-3	68.8336E-12	550.435E-3	-12.8219E-3	69.6172E-12	517.633E-3	-1.59968E-3
1.50325E-3	68.9285E-12	554.859E-3	-3.24030E-3	70.1454E-12	514.902E-3	-15.8398E-3
1.49825E-3	68.8052E-12	536.058E-3	-12.5586E-3	69.7851E-12	537.878E-3	-25.9470E-3
1.49325E-3	67.7688E-12	515.255E-3	-17.2483E-3	69.7785E-12	552.554E-3	-23.8015E-3
1.48824E-3	67.7606E-12	503.163E-3	-5.02153E-3	69.9741E-12	541.715E-3	-5.20576E-3
1.48324E-3	68.3267E-12	501.408E-3	-1.49137E-3	69.8054E-12	523.838E-3	-6.11092E-3
1.47824E-3	67.8613E-12	505.380E-3	-6.23344E-3	69.5025E-12	501.920E-3	-35.9897E-3
1.47324E-3	67.7934E-12	508.864E-3	-22.7904E-3	69.6949E-12	497.341E-3	-43.5450E-3
1.46823E-3	68.4780E-12	508.510E-3	-39.0599E-3	69.2065E-12	523.482E-3	-25.6998E-3
1.46323E-3	68.4962E-12	512.156E-3	-30.5144E-3	69.2382E-12	542.023E-3	-15.7341E-3
1.45823E-3	69.0279E-12	522.382E-3	-13.2116E-3	68.6231E-12	530.180E-3	-9.24885E-3
1.45323E-3	69.0339E-12	521.537E-3	-17.5021E-3	67.8787E-12	509.414E-3	-8.21530E-3
1.44822E-3	69.0819E-12	515.729E-3	-39.3441E-3	67.7148E-12	494.718E-3	-23.1922E-3
1.44322E-3	68.7585E-12	503.780E-3	-46.9654E-3	67.1508E-12	485.698E-3	-25.2421E-3
1.43822E-3	69.2495E-12	499.749E-3	-42.6710E-3	66.5766E-12	485.859E-3	-9.56396E-3
1.43322E-3	68.6015E-12	515.076E-3	-32.0487E-3	66.0519E-12	486.705E-3	3.59758E-3
1.42821E-3	68.1306E-12	513.816E-3	-15.8308E-3	66.1136E-12	476.352E-3	7.20880E-3
1.42321E-3	67.9721E-12	498.330E-3	-12.2613E-3	66.0271E-12	461.147E-3	-5.12179E-3
1.41821E-3	67.5274E-12	489.696E-3	-13.8062E-3	65.6434E-12	464.927E-3	-24.9856E-3
1.41321E-3	66.1488E-12	479.374E-3	-13.2092E-3	65.6239E-12	477.856E-3	-17.2943E-3
1.40820E-3	65.7927E-12	471.934E-3	-19.5211E-3	66.0565E-12	475.728E-3	9.03332E-3
1.40320E-3	65.4119E-12	480.391E-3	-24.1377E-3	66.0119E-12	464.188E-3	5.09708E-3
1.39820E-3	64.2487E-12	486.670E-3	-19.0977E-3	66.5357E-12	459.026E-3	-15.7377E-3
1.39320E-3	64.2674E-12	470.395E-3	-19.6051E-3	66.7195E-12	468.024E-3	-25.5654E-3
1.38819E-3	64.3073E-12	459.268E-3	-26.6366E-3	66.7456E-12	467.189E-3	-32.6890E-3
1.38319E-3	63.6873E-12	463.151E-3	-13.9675E-3	66.9193E-12	455.254E-3	-21.1447E-3
1.37819E-3	63.9271E-12	452.866E-3	-4.37214E-3	67.0805E-12	452.088E-3	-6.87939E-3
1.37319E-3	64.8470E-12	442.158E-3	-7.66943E-3	66.6028E-12	452.813E-3	-21.8268E-3
1.36818E-3	64.7031E-12	447.155E-3	3.71246E-3	66.8640E-12	455.520E-3	-36.6657E-3
1.36318E-3	65.2764E-12	450.543E-3	8.34728E-3	66.6767E-12	457.629E-3	-30.2971E-3
1.35818E-3	65.9095E-12	443.595E-3	-5.97478E-3	66.1118E-12	447.309E-3	-21.5480E-3
1.35318E-3	66.4262E-12	440.960E-3	-16.5208E-3	66.3727E-12	422.783E-3	-22.7340E-3
1.34817E-3	66.3192E-12	431.527E-3	-30.3309E-3	66.1259E-12	401.756E-3	-33.2495E-3
1.34317E-3	66.6523E-12	423.120E-3	-44.9616E-3	65.6356E-12	395.411E-3	-36.0179E-3
1.33817E-3	66.8366E-12	435.554E-3	-44.7390E-3	65.3698E-12	396.649E-3	-18.7460E-3
1.33317E-3	66.6302E-12	449.736E-3	-43.8367E-3	65.7722E-12	396.288E-3	-3.33463E-3
1.32816E-3	66.2900E-12	450.391E-3	-44.5928E-3	65.4777E-12	384.160E-3	-9.51331E-3
1.32316E-3	65.5159E-12	427.710E-3	-38.0491E-3	65.3194E-12	372.969E-3	-21.6920E-3
1.31816E-3	65.0014E-12	393.897E-3	-30.1060E-3	65.5501E-12	379.850E-3	-22.6542E-3
1.31316E-3	64.5007E-12	371.067E-3	-25.1126E-3	65.2501E-12	389.641E-3	-30.8794E-3
1.30815E-3	64.1801E-12	360.354E-3	-9.58746E-3	65.2021E-12	378.695E-3	-40.1690E-3
1.30315E-3	63.5010E-12	351.259E-3	1.03626E-3	65.3851E-12	352.214E-3	-23.3049E-3
1.29815E-3	62.9874E-12	350.217E-3	-4.54402E-3	65.0579E-12	351.122E-3	-782.253E-6
1.29315E-3	62.7025E-12	363.935E-3	-8.34229E-3	64.5804E-12	369.595E-3	-5.68473E-3
1.28814E-3	62.3769E-12	374.301E-3	-11.4354E-3	64.7860E-12	369.177E-3	-19.3711E-3
1.28314E-3	62.2832E-12	371.062E-3	-17.3321E-3	64.3917E-12	358.629E-3	-27.6103E-3
1.27814E-3	62.6968E-12	356.544E-3	-10.5554E-3	63.4871E-12	342.078E-3	-33.3485E-3
1.27314E-3	62.8359E-12	343.274E-3	-373.422E-6	63.2926E-12	316.693E-3	-35.4392E-3
1.26813E-3	62.8697E-12	340.235E-3	462.167E-6	62.8373E-12	307.999E-3	-41.4037E-3
1.26313E-3	63.3003E-12	349.032E-3	1.40453E-3	62.1207E-12	317.713E-3	-36.2684E-3
1.25813E-3	63.6097E-12	345.350E-3	2.35100E-3	61.5846E-12	326.875E-3	-18.9517E-3
1.25313E-3	63.6590E-12	333.407E-3	-12.7093E-3	61.6795E-12	327.682E-3	-11.1796E-3
1.24812E-3	63.9487E-12	336.864E-3	-37.0094E-3	61.3062E-12	304.073E-3	-11.4716E-3
1.24312E-3	63.8664E-12	331.423E-3	-38.3006E-3	60.8667E-12	279.552E-3	-18.5476E-3
1.23812E-3	63.8684E-12	315.677E-3	-29.8200E-3	61.0552E-12	277.110E-3	-24.7665E-3
1.23312E-3	63.9503E-12	318.751E-3	-29.5845E-3	60.8142E-12	271.617E-3	-8.41718E-3
1.22811E-3	63.8651E-12	317.783E-3	-32.6795E-3	60.9359E-12	272.571E-3	10.2050E-3
1.22311E-3	62.8759E-12	293.878E-3	-38.8976E-3	60.8442E-12	276.975E-3	7.46643E-3
1.21811E-3	62.6262E-12	287.745E-3	-29.0532E-3	61.1505E-12	264.712E-3	921.081E-6
1.21311E-3	62.0795E-12	298.087E-3	-7.93953E-3	61.2687E-12	257.079E-3	1.07129E-3
1.20810E-3	61.5647E-12	299.824E-3	-13.5857E-3	61.1025E-12	268.554E-3	-9.87832E-3
1.20310E-3	61.0763E-12	294.721E-3	-32.7897E-3	61.1999E-12	271.706E-3	-19.2328E-3
1.19810E-3	60.5049E-12	277.783E-3	-30.9491E-3	61.0065E-12	258.249E-3	4.84101E-3
1.19310E-3	60.2071E-12	251.195E-3	-20.9037E-3	61.3835E-12	250.005E-3	11.9019E-3
1.18809E-3	59.9237E-12	245.667E-3	-18.5031E-3	61.0587E-12	232.618E-3	-12.3304E-3
1.18309E-3	59.9203E-12	252.938E-3	-19.3104E-3	60.8656E-12	214.981E-3	-7.72130E-3
1.17809E-3	59.5360E-12	234.320E-3	-18.2279E-3	60.6248E-12	214.584E-3	-3.52397E-3
1.17309E-3	59.9703E-12	213.613E-3	-19.4422E-3	60.6499E-12	204.728E-3	-20.8391E-3
1.16808E-3	60.1150E-12	212.466E-3	-18.0990E-3	60.4447E-12	192.152E-3	-15.1130E-3
1.16308E-3	59.7025E-12	210.363E-3	-2.84167E-3	60.2908E-12	194.582E-3	-5.62552E-3
1.15808E-3	60.1711E-12	210.915E-3	4.69439E-3	60.1017E-12	196.925E-3	-13.9051E-3
1.15308E-3	60.1283E-12	221.233E-3	-2.24002E-3	59.9341E-12	197.731E-3	-7.74872E-3
1.14807E-3	60.4304E-12	222.883E-3	-7.90225E-3	60.1272E-12	202.758E-3	2.99707E-3
1.14307E-3	60.7230E-12	211.090E-3	-10.9219E-3	59.9432E-12	202.995E-3	-9.89564E-3
1.13807E-3	61.0115E-12	209.975E-3	-6.22825E-3	59.9891E-12	203.948E-3	-25.0545E-3
1.13307E-3	60.6883E-12	219.989E-3	178.336E-6	59.9888E-12	208.863E-3	-31.9918E-3
1.12806E-3	61.1500E-12	211.958E-3	-284.406E-6	59.8039E-12	204.621E-3	-36.3742E-3
1.12306E-3	60.7661E-12	196.387E-3	-3.95747E-3	59.8935E-12	183.296E-3	-26.5391E-3
1.11806E-3	60.5915E-12	199.477E-3	-5.17174E-3	59.3514E-12	174.007E-3	-19.5676E-3
1.11306E-3	60.0487E-12	201.531E-3	-9.19635E-3	59.1852E-12	177.167E-3	-31.3969E-3
1.10805E-3	60.0223E-12	196.174E-3	-16.4765E-3	59.2644E-12	170.924E-3	-33.5407E-3
1.10305E-3	59.4875E-12	193.682E-3	-17.5821E-3	58.9697E-12	173.026E-3	-15.7554E-3
1.09805E-3	59.2860E-12	185.009E-3	-15.2901E-3	58.9346E-12	180.037E-3	-10.5840E-3
1.09305E-3	58.6079E-12	183.388E-3	-9.92196E-3	58.4644E-12	178.518E-3	-28.7214E-3
1.08804E-3	58.7262E-12	189.230E-3	-2.76398E-3	58.8439E-12	173.075E-3	-34.2881E-3
1.08304E-3	58.3270E-12	188.554E-3	-3.05228E-6	58.9893E-12	174.545E-3	-28.1019E-3
1.07804E-3	58.3213E-12	180.674E-3	-8.92653E-3	59.4919E-12	176.884E-3	-23.2631E-3
1.07304E-3	58.1329E-12	173.216E-3	-31.6362E-3	59.7288E-12	173.401E-3	-14.2513E-3
1.06803E-3	58.2471E-12	179.804E-3	-50.9154E-3	59.9319E-12	173.080E-3	-23.5589E-3
1.06303E-3	58.5766E-12	178.760E-3	-46.4380E-3	60.5403E-12	177.232E-3	-25.2245E-3
1.05803E-3	58.4342E-12	164.466E-3	-30.8638E-3	61.0191E-12	183.948E-3	-2.51127E-3
1.05303E-3	58.4269E-12	163.400E-3	-29.8746E-3	61.4158E-12	190.650E-3	-6.95586E-3
1.04802E-3	58.9975E-12	169.193E-3	-32.2115E-3	61.5707E-12	202.386E-3	-23.2304E-3
1.04302E-3	59.6056E-12	177.911E-3	-21.3826E-3	62.0283E-12	208.588E-3	-10.6145E-3
1.03802E-3	59.3633E-12	184.611E-3	-7.70943E-3	61.7940E-12	200.573E-3	-915.685E-6
1.03302E-3	59.7322E-12	181.691E-3	-6.44330E-3	61.5947E-12	193.180E-3	-6.54559E-3
1.02801E-3	60.0645E-12	194.985E-3	-1.69957E-3	60.8061E-12	193.256E-3	-8.48789E-3
1.02301E-3	60.1573E-12	216.664E-3	-2.26625E-3	60.4735E-12	199.483E-3	-10.4537E-3
1.01801E-3	60.1832E-12	206.579E-3	-23.5430E-3	59.9103E-12	203.632E-3	-12.1441E-3
1.01301E-3	60.1050E-12	195.465E-3	-34.6435E-3	59.2348E-12	217.096E-3	-11.1826E-3
1.00800E-3	59.9701E-12	209.701E-3	-30.1745E-3	58.7030E-12	233.992E-3	-8.78146E-3
1.00300E-3	59.7385E-12	215.607E-3	-20.1348E-3	58.1951E-12	231.936E-3	-18.3591E-3
997.999E-6	59.8376E-12	222.120E-3	-22.9102E-3	57.7421E-12	229.191E-3	-30.8945E-3
992.997E-6	59.3420E-12	236.256E-3	-28.4346E-3	57.5689E-12	236.422E-3	-17.2041E-3
987.994E-6	58.9769E-12	232.740E-3	-19.1440E-3	57.2405E-12	238.502E-3	1.94475E-3
982.991E-6	58.6275E-12	222.666E-3	-21.7541E-3	57.3718E-12	245.120E-3	-6.87238E-3
977.989E-6	58.8282E-12	225.092E-3	-28.4215E-3	57.6264E-12	258.579E-3	-27.6325E-3
972.986E-6	57.8337E-12	229.362E-3	-25.1959E-3	57.9447E-12	262.110E-3	-39.6255E-3
967.984E-6	57.6188E-12	225.911E-3	-26.5544E-3	58.1380E-12	263.021E-3	-35.2494E-3
962.981E-6	57.6559E-12	228.831E-3	-32.5692E-3	58.4078E-12	268.237E-3	-22.7753E-3
957.979E-6	57.3594E-12	240.398E-3	-30.4172E-3	58.8570E-12	282.947E-3	-22.6816E-3
952.976E-6	57.6968E-12	258.760E-3	-20.8459E-3	58.5090E-12	299.176E-3	-28.5993E-3
947.974E-6	57.6944E-12	280.569E-3	-6.71688E-3	58.2806E-12	299.683E-3	-28.5182E-3
942.971E-6	57.6558E-12	289.871E-3	9.40175E-3	58.5738E-12	299.328E-3	-25.3576E-3
937.969E-6	57.5301E-12	289.638E-3	6.11364E-3	58.1445E-12	312.302E-3	-23.8200E-3
932.966E-6	58.2404E-12	298.719E-3	-3.74643E-3	57.5142E-12	324.923E-3	-19.7187E-3
927.964E-6	57.9542E-12	308.296E-3	-2.29289E-3	57.2217E-12	336.620E-3	-15.2381E-3
922.961E-6	57.5741E-12	297.923E-3	-5.54469E-3	57.1837E-12	344.747E-3	-13.4630E-3
917.959E-6	57.9583E-12	286.153E-3	-5.61363E-3	56.4086E-12	348.570E-3	-17.9041E-3
912.956E-6	57.6099E-12	298.134E-3	-6.52513E-3	56.2950E-12	368.077E-3	-21.0169E-3
907.954E-6	57.3502E-12	325.083E-3	-9.55299E-3	56.2443E-12	381.508E-3	-9.90296E-3
902.951E-6	56.9676E-12	354.698E-3	1.07995E-3	55.8130E-12	383.378E-3	-8.09463E-3
897.949E-6	56.7339E-12	378.746E-3	4.24881E-3	55.7134E-12	396.137E-3	-25.3229E-3
892.946E-6	55.7745E-12	387.510E-3	-4.77479E-3	55.9225E-12	415.932E-3	-32.2365E-3
887.944E-6	55.7592E-12	393.735E-3	478.097E-6	55.9083E-12	440.123E-3	-21.6286E-3
882.941E-6	55.5967E-12	404.087E-3	20.5424E-3	56.0150E-12	459.152E-3	-17.6530E-3
877.939E-6	54.8898E-12	409.481E-3	16.4761E-3	56.1962E-12	463.606E-3	-24.9741E-3
872.936E-6	54.4729E-12	414.117E-3	-10.5097E-3	56.0661E-12	456.282E-3	-25.9109E-3
867.934E-6	54.4293E-12	424.830E-3	-17.0168E-3	55.7922E-12	460.325E-3	-22.0946E-3
862.931E-6	54.5418E-12	438.941E-3	-14.0387E-3	55.8573E-12	490.755E-3	-22.1707E-3
857.929E-6	54.2672E-12	453.619E-3	-14.1807E-3	55.6198E-12	527.322E-3	-25.8082E-3
852.926E-6	54.1131E-12	462.038E-3	-31.6336E-6	54.9673E-12	551.118E-3	-27.3587E-3
847.924E-6	54.4017E-12	475.796E-3	6.06688E-3	54.4138E-12	565.830E-3	-20.5796E-3
842.921E-6	54.4512E-12	503.190E-3	-7.30661E-3	54.0495E-12	566.337E-3	-9.84385E-3
837.919E-6	54.7396E-12	527.747E-3	-13.4873E-3	53.5352E-12	569.313E-3	-17.5848E-3
832.916E-6	54.4704E-12	549.934E-3	-13.1412E-3	52.8828E-12	605.420E-3	-33.6162E-3
827.914E-6	54.4197E-12	574.553E-3	-23.4006E-3	52.8854E-12	641.191E-3	-29.3191E-3
822.911E-6	54.7613E-12	591.446E-3	-31.7220E-3	52.4696E-12	659.364E-3	-18.9688E-3
817.909E-6	54.2811E-12	622.574E-3	-25.3853E-3	52.1214E-12	677.813E-3	-22.7603E-3
812.906E-6	54.0905E-12	662.233E-3	-15.8571E-3	52.1558E-12	690.807E-3	-36.5208E-3
807.904E-6	53.5188E-12	673.278E-3	-15.4736E-3	52.1089E-12	710.858E-3	-37.9308E-3
802.901E-6	53.2821E-12	674.296E-3	-25.1426E-3	52.2883E-12	749.060E-3	-21.1560E-3
797.899E-6	52.8083E-12	692.940E-3	-29.3426E-3	52.2596E-12	791.666E-3	-9.56111E-3
792.896E-6	52.4876E-12	718.270E-3	-26.7862E-3	52.9079E-12	822.069E-3	-7.18583E-3
787.894E-6	52.0797E-12	731.010E-3	-26.9198E-3	52.8556E-12	836.923E-3	-8.36124E-3
782.891E-6	51.5256E-12	751.579E-3	-26.1947E-3	52.8126E-12	851.686E-3	-20.8456E-3
777.889E-6	51.2667E-12	774.076E-3	-18.1221E-3	53.0693E-12	886.116E-3	-31.0040E-3
772.886E-6	51.1182E-12	784.258E-3	-14.9302E-3	53.1100E-12	932.032E-3	-31.6581E-3
767.884E-6	50.6901E-12	807.614E-3	-21.5275E-3	52.3471E-12	950.134E-3	-28.3897E-3
762.881E-6	50.5150E-12	834.697E-3	-26.1676E-3	51.8155E-12	956.906E-3	-22.4202E-3
757.879E-6	50.4410E-12	854.195E-3	-28.1331E-3	51.7392E-12	982.003E-3	-17.3487E-3
752.876E-6	50.4532E-12	884.827E-3	-28.4086E-3	50.8397E-12	999.258E-3	-13.1775E-3
747.874E-6	50.2651E-12	921.961E-3	-33.2998E-3	50.1903E-12	1.01651E+0	-10.0363E-3
742.871E-6	50.1404E-12	942.752E-3	-34.6480E-3	49.9039E-12	1.04658E+0	-9.30792E-3
737.869E-6	50.1782E-12	970.515E-3	-26.6657E-3	49.4352E-12	1.06557E+0	-19.1875E-3
732.866E-6	50.2274E-12	1.01936E+0	-23.9911E-3	48.9261E-12	1.08653E+0	-26.9338E-3
727.864E-6	49.8106E-12	1.04902E+0	-18.9369E-3	48.8807E-12	1.12259E+0	-20.7470E-3
722.861E-6	49.3595E-12	1.06159E+0	-10.5963E-3	48.4227E-12	1.15044E+0	-16.2194E-3
717.859E-6	49.2507E-12	1.08568E+0	-7.09700E-3	47.8113E-12	1.16732E+0	-7.40203E-3
712.856E-6	48.8563E-12	1.10871E+0	-6.42358E-3	47.9262E-12	1.19757E+0	-920.105E-6
707.854E-6	48.3537E-12	1.11801E+0	-10.9492E-3	47.5475E-12	1.22810E+0	-18.0568E-3
702.851E-6	47.6091E-12	1.12916E+0	-16.6231E-3	47.2192E-12	1.25165E+0	-30.9010E-3
697.849E-6	46.9566E-12	1.17053E+0	-12.2695E-3	46.8657E-12	1.28254E+0	-15.8311E-3
692.846E-6	46.1948E-12	1.22212E+0	-4.24053E-3	46.6572E-12	1.28718E+0	-6.33592E-3
687.844E-6	45.6548E-12	1.24066E+0	-8.34788E-3	45.7779E-12	1.27268E+0	-12.2270E-3
682.841E-6	45.2776E-12	1.24064E+0	-15.7524E-3	45.2307E-12	1.29192E+0	-7.16063E-3
677.839E-6	44.2678E-12	1.24723E+0	-17.1963E-3	44.7253E-12	1.32972E+0	-370.911E-6
672.836E-6	43.6236E-12	1.26091E+0	-15.0966E-3	43.7646E-12	1.34777E+0	-26.0189E-6
667.834E-6	43.3805E-12	1.27777E+0	-11.6765E-3	43.1655E-12	1.36751E+0	2.29080E-3
662.831E-6	42.8841E-12	1.30716E+0	-6.83248E-3	42.5157E-12	1.39702E+0	2.96023E-3
657.829E-6	42.0243E-12	1.33620E+0	-3.33766E-3	41.9853E-12	1.40708E+0	162.641E-6
652.826E-6	41.6364E-12	1.33694E+0	-7.47416E-3	41.3245E-12	1.41041E+0	-5.88137E-3
647.824E-6	41.6006E-12	1.33634E+0	-19.9711E-3	40.9222E-12	1.43680E+0	-12.5565E-3
642.821E-6	41.1309E-12	1.35503E+0	-16.8860E-3	40.4320E-12	1.46841E+0	-14.8756E-3
637.819E-6	40.7449E-12	1.38365E+0	-4.92593E-3	40.3869E-12	1.48780E+0	-13.2143E-3
632.816E-6	40.5609E-12	1.42290E+0	-6.71057E-3	40.1771E-12	1.50780E+0	-15.8987E-3
627.814E-6	40.1906E-12	1.45217E+0	-9.56811E-3	39.7037E-12	1.53570E+0	-22.1497E-3
622.811E-6	39.5751E-12	1.46679E+0	-15.8757E-3	39.4906E-12	1.57648E+0	-21.4075E-3
617.809E-6	39.3879E-12	1.48808E+0	-21.4744E-3	39.3624E-12	1.61010E+0	-20.2182E-3
612.806E-6	39.0849E-12	1.50943E+0	-14.0093E-3	38.9976E-12	1.61078E+0	-13.4530E-3
607.804E-6	38.4055E-12	1.53289E+0	-13.2626E-3	38.5350E-12	1.60486E+0	-1.95098E-3
602.801E-6	37.9604E-12	1.55556E+0	-17.6541E-3	38.2526E-12	1.61548E+0	-6.65683E-3
597.799E-6	37.3854E-12	1.56368E+0	-8.54603E-3	37.6855E-12	1.62679E+0	-20.7536E-3
592.796E-6	36.7265E-12	1.57981E+0	-2.75479E-3	36.9618E-12	1.63099E+0	-21.0317E-3
587.794E-6	35.7474E-12	1.60371E+0	-7.92484E-3	36.1845E-12	1.63463E+0	-16.7784E-3
582.791E-6	35.1603E-12	1.60996E+0	-20.9259E-3	35.4784E-12	1.63465E+0	-20.6539E-3
577.789E-6	34.4620E-12	1.60831E+0	-33.5765E-3	34.8595E-12	1.63227E+0	-26.3520E-3
572.786E-6	33.6611E-12	1.61002E+0	-33.9844E-3	34.0132E-12	1.63731E+0	-31.9668E-3
567.784E-6	32.9675E-12	1.60032E+0	-14.5848E-3	33.2966E-12	1.64070E+0	-36.5783E-3
562.781E-6	32.2757E-12	1.58845E+0	9.30563E-3	32.9492E-12	1.63527E+0	-29.7261E-3
557.779E-6	31.6496E-12	1.59489E+0	11.5398E-3	32.2599E-12	1.63973E+0	-19.5374E-3
552.776E-6	31.2438E-12	1.61022E+0	1.81111E-3	31.5418E-12	1.65502E+0	-25.7970E-3
547.774E-6	30.7077E-12	1.61316E+0	-16.2446E-3	31.2674E-12	1.66303E+0	-25.8257E-3
542.771E-6	30.1529E-12	1.60537E+0	-27.2962E-3	30.8497E-12	1.66899E+0	-12.5821E-3
537.769E-6	30.0344E-12	1.60029E+0	-12.1582E-3	30.3157E-12	1.67799E+0	-11.9099E-3
532.766E-6	29.9035E-12	1.60713E+0	-4.83875E-3	29.6107E-12	1.68618E+0	-11.5900E-3
527.764E-6	29.2699E-12	1.62906E+0	-7.30287E-3	29.4780E-12	1.70602E+0	-9.59147E-3
522.761E-6	28.8006E-12	1.64422E+0	-9.61569E-3	29.1562E-12	1.71981E+0	-19.0573E-3
517.759E-6	28.7660E-12	1.65258E+0	-21.8469E-3	28.5005E-12	1.70690E+0	-16.1272E-3
512.756E-6	28.2784E-12	1.67679E+0	-27.3854E-3	28.1628E-12	1.69443E+0	-7.47246E-3
507.754E-6	27.7856E-12	1.70212E+0	-19.5701E-3	27.6399E-12	1.69052E+0	-18.1292E-3
502.751E-6	27.2912E-12	1.70806E+0	-17.5416E-3	27.1108E-12	1.68266E+0	-31.4937E-3
497.749E-6	26.6434E-12	1.70448E+0	-26.1573E-3	26.1556E-12	1.67289E+0	-21.5124E-3
492.746E-6	26.1189E-12	1.69702E+0	-18.5238E-3	25.6009E-12	1.66811E+0	-11.4195E-3
487.744E-6	25.5778E-12	1.69150E+0	-4.01469E-3	25.2632E-12	1.65682E+0	-10.4195E-3
482.741E-6	24.8782E-12	1.69157E+0	-9.81893E-3	24.6252E-12	1.64356E+0	3.80220E-3
477.739E-6	24.0848E-12	1.69217E+0	-13.4917E-3	23.9706E-12	1.63607E+0	3.48234E-3
472.736E-6	23.3048E-12	1.68156E+0	-13.5436E-3	23.5124E-12	1.63361E+0	-14.2869E-3
467.734E-6	22.7763E-12	1.66443E+0	-15.1309E-3	23.3368E-12	1.64743E+0	-17.4400E-3
462.731E-6	22.1730E-12	1.64944E+0	-13.3099E-3	22.8580E-12	1.66016E+0	-15.9603E-3
457.729E-6	21.4329E-12	1.63682E+0	-22.5160E-3	22.2548E-12	1.64678E+0	-17.3859E-3
452.726E-6	20.8649E-12	1.63097E+0	-28.2163E-3	21.8890E-12	1.61960E+0	-13.3984E-3
447.724E-6	20.4252E-12	1.60751E+0	-24.2058E-3	21.5491E-12	1.60414E+0	-13.6451E-3
442.721E-6	19.9621E-12	1.57129E+0	-24.3924E-3	20.8891E-12	1.58517E+0	-20.8729E-3
437.719E-6	19.6084E-12	1.56143E+0	-18.1477E-3	20.2010E-12	1.54116E+0	-23.7155E-3
432.716E-6	19.1745E-12	1.57010E+0	-8.67882E-3	19.5864E-12	1.48980E+0	-35.2301E-3
427.714E-6	18.7518E-12	1.56847E+0	-12.1371E-3	19.0149E-12	1.45207E+0	-50.3107E-3
422.711E-6	18.3153E-12	1.55762E+0	-24.6787E-3	18.1221E-12	1.43376E+0	-40.8090E-3
417.709E-6	18.0344E-12	1.53777E+0	-25.2128E-3	17.4681E-12	1.42827E+0	-27.6646E-3
412.706E-6	17.5999E-12	1.52105E+0	-6.58587E-3	16.8637E-12	1.40452E+0	-25.9866E-3
407.704E-6	17.1205E-12	1.52326E+0	4.01598E-3	16.5391E-12	1.36805E+0	-23.1475E-3
402.701E-6	16.7157E-12	1.51178E+0	5.65802E-3	15.8655E-12	1.34588E+0	-23.3554E-3
397.699E-6	16.2754E-12	1.48005E+0	5.29676E-3	15.1434E-12	1.32084E+0	-23.9219E-3
392.696E-6	15.6520E-12	1.47233E+0	-4.70995E-3	14.7441E-12	1.30064E+0	-16.3289E-3
387.694E-6	15.1274E-12	1.47215E+0	-14.2073E-3	14.4614E-12	1.30268E+0	-16.7945E-3
382.691E-6	14.5510E-12	1.43999E+0	-26.0639E-3	14.1069E-12	1.29297E+0	-25.0400E-3
377.689E-6	14.1673E-12	1.40905E+0	-42.8158E-3	13.4242E-12	1.26888E+0	-16.1152E-3
372.686E-6	13.5762E-12	1.38735E+0	-38.6867E-3	13.3415E-12	1.25512E+0	-8.03258E-3
367.684E-6	13.1054E-12	1.34263E+0	-15.3116E-3	13.0519E-12	1.23762E+0	-14.1320E-3
362.681E-6	12.4385E-12	1.29812E+0	-7.82690E-3	12.6835E-12	1.20743E+0	-11.4720E-3
357.679E-6	11.9915E-12	1.27114E+0	-6.74757E-3	12.1901E-12	1.17023E+0	-17.3739E-3
352.676E-6	11.6943E-12	1.23581E+0	-9.80878E-3	11.9326E-12	1.12640E+0	-40.6042E-3
347.674E-6	11.2910E-12	1.19735E+0	-24.9055E-3	11.6214E-12	1.09792E+0	-38.4677E-3
342.671E-6	10.8497E-12	1.17025E+0	-16.7109E-3	11.0949E-12	1.09468E+0	-12.5192E-3
337.669E-6	10.5089E-12	1.14479E+0	2.24149E-3	10.6745E-12	1.07564E+0	694.563E-6
332.666E-6	10.2148E-12	1.12320E+0	-3.40625E-3	10.3566E-12	1.01932E+0	-804.731E-6
327.664E-6	9.91662E-12	1.10249E+0	-14.7710E-3	10.0391E-12	965.469E-3	-16.1600E-3
322.661E-6	9.46804E-12	1.07146E+0	-23.2346E-3	9.44462E-12	937.435E-3	-28.2347E-3
317.659E-6	9.27225E-12	1.04904E+0	-31.6857E-3	9.12220E-12	914.285E-3	-21.9696E-3
312.656E-6	8.95657E-12	1.04017E+0	-22.0088E-3	8.88861E-12	899.772E-3	-15.1490E-3
307.654E-6	8.73789E-12	1.01056E+0	-7.21859E-3	8.55262E-12	884.881E-3	-18.8875E-3
302.651E-6	8.38627E-12	970.387E-3	-4.20581E-3	8.08117E-12	852.543E-3	-24.3880E-3
297.649E-6	8.16178E-12	950.512E-3	-4.37676E-3	7.81427E-12	836.373E-3	-25.5389E-3
292.646E-6	7.85663E-12	935.525E-3	-11.0333E-3	7.70675E-12	824.820E-3	-20.2861E-3
287.644E-6	7.55809E-12	924.524E-3	-24.8469E-3	7.42460E-12	791.691E-3	-8.70655E-3
282.641E-6	7.28195E-12	924.513E-3	-21.9981E-3	6.97950E-12	764.265E-3	-4.84058E-3
277.639E-6	7.03658E-12	901.232E-3	-10.0728E-3	6.73482E-12	739.945E-3	-8.49609E-3
272.636E-6	6.65317E-12	862.999E-3	-17.3846E-3	6.63707E-12	706.474E-3	-6.12131E-3
267.634E-6	6.36758E-12	841.771E-3	-21.1675E-3	6.34175E-12	681.962E-3	-8.62790E-3
262.631E-6	6.08397E-12	808.577E-3	-13.3968E-3	5.99968E-12	662.962E-3	-16.3590E-3
257.629E-6	5.79094E-12	758.940E-3	-13.8116E-3	5.71438E-12	639.974E-3	-1.57817E-3
252.626E-6	5.56123E-12	721.112E-3	-7.10343E-3	5.68828E-12	632.206E-3	13.3039E-3
247.624E-6	5.27687E-12	689.361E-3	-1.88259E-3	5.45653E-12	626.918E-3	-4.61265E-3
242.621E-6	5.13583E-12	669.473E-3	-14.3694E-3	5.04601E-12	597.199E-3	-19.7401E-3
237.619E-6	5.05981E-12	664.171E-3	-13.8280E-3	4.96619E-12	566.101E-3	-16.8761E-3
232.616E-6	4.82432E-12	641.581E-3	1.79211E-3	4.82889E-12	556.530E-3	-22.6399E-3
227.614E-6	4.44194E-12	613.146E-3	-864.981E-6	4.55904E-12	548.368E-3	-23.7416E-3
222.611E-6	4.27487E-12	599.694E-3	-11.6265E-3	4.25824E-12	528.536E-3	-9.73058E-3
217.609E-6	4.23353E-12	573.371E-3	-14.2974E-3	4.15457E-12	506.600E-3	-7.17242E-3
212.606E-6	4.03685E-12	538.863E-3	-22.7086E-3	4.03787E-12	480.734E-3	-13.4791E-3
207.604E-6	3.85540E-12	523.057E-3	-22.4127E-3	3.85057E-12	458.559E-3	-9.63965E-3
202.601E-6	3.72966E-12	518.434E-3	-11.1516E-3	3.63505E-12	447.063E-3	-14.0681E-3
197.599E-6	3.60509E-12	512.676E-3	-17.8975E-3	3.56282E-12	437.171E-3	-26.1174E-3
192.596E-6	3.51282E-12	502.739E-3	-24.9635E-3	3.48021E-12	430.448E-3	-18.8543E-3
187.594E-6	3.34003E-12	477.820E-3	-11.3694E-3	3.31717E-12	426.974E-3	-8.23230E-3
182.591E-6	3.16273E-12	455.022E-3	-10.9883E-3	3.11136E-12	402.552E-3	-10.8978E-3
177.589E-6	3.04457E-12	446.553E-3	-27.7503E-3	3.04543E-12	367.013E-3	-7.75570E-3
172.586E-6	2.89449E-12	426.481E-3	-24.4562E-3	2.89005E-12	350.070E-3	-12.5270E-3
167.584E-6	2.75145E-12	399.569E-3	-11.9999E-3	2.74832E-12	343.720E-3	-34.1864E-3
162.581E-6	2.62536E-12	388.589E-3	-8.19659E-3	2.50580E-12	343.161E-3	-42.0002E-3
157.579E-6	2.49726E-12	379.739E-3	1.02336E-3	2.49970E-12	347.420E-3	-43.5574E-3
152.576E-6	2.27064E-12	366.613E-3	-422.424E-6	2.37016E-12	329.097E-3	-43.3296E-3
147.574E-6	2.18204E-12	353.652E-3	-21.7856E-3	2.11831E-12	300.710E-3	-26.2270E-3
142.571E-6	2.08538E-12	331.967E-3	-24.3785E-3	1.96207E-12	292.895E-3	-15.7469E-3
137.569E-6	1.96225E-12	313.707E-3	-10.3085E-3	2.00672E-12	278.091E-3	-21.1364E-3
132.566E-6	1.79883E-12	304.319E-3	-8.10729E-3	1.88605E-12	252.654E-3	-19.6523E-3
127.564E-6	1.70936E-12	288.815E-3	-10.9362E-3	1.63516E-12	239.724E-3	-21.9440E-3
122.561E-6	1.68753E-12	277.926E-3	-18.6228E-3	1.49509E-12	228.148E-3	-24.8430E-3
117.559E-6	1.53161E-12	282.609E-3	-24.8492E-3	1.62244E-12	219.883E-3	-17.9537E-3
112.556E-6	1.38162E-12	281.007E-3	-18.8840E-3	1.52337E-12	227.033E-3	-19.4261E-3
107.554E-6	1.32913E-12	269.966E-3	-14.8018E-3	1.30359E-12	228.824E-3	-19.2218E-3
102.551E-6	1.35051E-12	257.420E-3	-20.0735E-3	1.16407E-12	214.864E-3	-12.6518E-3
97.5488E-6	1.26677E-12	233.164E-3	-18.3962E-3	1.21727E-12	212.421E-3	-19.5388E-3
92.5463E-6	1.11927E-12	215.851E-3	-15.7643E-3	1.22995E-12	218.165E-3	-23.1882E-3
87.5438E-6	1.04345E-12	226.285E-3	-21.0632E-3	1.04401E-12	210.855E-3	-12.0948E-3
82.5413E-6	1.07669E-12	244.874E-3	-15.1312E-3	894.093E-15	202.239E-3	-9.91511E-3
77.5388E-6	976.726E-15	242.022E-3	-17.0831E-3	1.03222E-12	190.714E-3	-20.9007E-3
72.5363E-6	784.300E-15	228.433E-3	-31.6575E-3	892.184E-15	182.290E-3	-25.2773E-3
67.5338E-6	728.679E-15	216.482E-3	-29.2263E-3	701.937E-15	195.498E-3	-15.4182E-3
62.5313E-6	709.540E-15	200.246E-3	-21.9858E-3	623.646E-15	207.682E-3	-14.6757E-3
57.5288E-6	660.834E-15	196.857E-3	-32.1406E-3	670.016E-15	195.199E-3	-15.4231E-3
52.5263E-6	531.989E-15	204.372E-3	-28.0343E-3	535.093E-15	181.142E-3	-2.27380E-3
47.5238E-6	463.255E-15	203.793E-3	-13.0348E-3	461.781E-15	178.838E-3	-844.544E-6
42.5213E-6	467.021E-15	196.037E-3	-24.9129E-3	420.234E-15	172.816E-3	-5.92599E-3
37.5188E-6	356.565E-15	188.209E-3	-25.6008E-3	432.266E-15	170.367E-3	-349.558E-6
32.5163E-6	259.755E-15	181.118E-3	-6.63367E-3	259.929E-15	165.271E-3	1.94879E-3
27.5138E-6	230.066E-15	179.582E-3	-558.820E-6	144.459E-15	154.326E-3	-3.52672E-3
22.5113E-6	149.752E-15	183.551E-3	-3.81530E-3	178.630E-15	161.144E-3	-10.7145E-3
17.5088E-6	36.2266E-15	173.490E-3	-20.4078E-3	138.862E-15	175.232E-3	-27.3659E-3
12.5063E-6	13.8354E-15	164.468E-3	-34.4939E-3	-3.23697E-15	184.547E-3	-37.0199E-3
7.50375E-6	-71.8230E-15	178.284E-3	-23.2329E-3	-159.644E-15	195.361E-3	-25.6594E-3
2.50125E-6	-82.3996E-15	189.486E-3	-9.28958E-3	-85.3816E-15	198.459E-3	-16.4137E-3
-2.50125E-6	-227.062E-15	189.046E-3	-3.03188E-3	-36.9284E-15	201.995E-3	-9.21327E-3
-7.50375E-6	-281.915E-15	187.153E-3	-199.123E-6	-350.283E-15	213.972E-3	-2.68101E-3
-12.5063E-6	-203.554E-15	182.752E-3	-8.48336E-3	-445.219E-15	211.371E-3	-9.39177E-3
-17.5088E-6	-351.940E-15	190.844E-3	-28.7698E-3	-315.554E-15	198.837E-3	-13.7660E-3
-22.5113E-6	-552.684E-15	214.784E-3	-37.9863E-3	-316.626E-15	200.391E-3	-6.26519E-3
-27.5138E-6	-537.329E-15	220.943E-3	-30.1038E-3	-600.169E-15	213.214E-3	-10.9733E-3
-32.5163E-6	-588.983E-15	212.053E-3	-25.8048E-3	-700.677E-15	230.877E-3	-20.4308E-3
-37.5188E-6	-626.947E-15	213.111E-3	-11.6977E-3	-639.084E-15	245.002E-3	-15.1288E-3
-42.5213E-6	-883.826E-15	217.190E-3	1.57351E-3	-662.277E-15	238.826E-3	-19.1398E-3
-47.5238E-6	-933.587E-15	230.814E-3	-774.536E-6	-919.444E-15	232.159E-3	-28.2007E-3
-52.5263E-6	-866.980E-15	247.738E-3	1.48052E-3	-993.245E-15	248.415E-3	-20.6580E-3
-57.5288E-6	-979.983E-15	241.242E-3	-3.29354E-3	-942.123E-15	269.581E-3	-10.7328E-3
-62.5313E-6	-1.09529E-12	232.404E-3	-21.1962E-3	-1.06870E-12	278.377E-3	-3.20818E-3
-67.5338E-6	-1.25149E-12	243.798E-3	-21.9005E-3	-1.22844E-12	289.070E-3	-1.88685E-3
-72.5363E-6	-1.22685E-12	248.306E-3	-16.7656E-3	-1.31678E-12	302.602E-3	-12.5252E-3
-77.5388E-6	-1.32382E-12	243.861E-3	-31.9287E-3	-1.30927E-12	310.220E-3	-18.6383E-3
-82.5413E-6	-1.52381E-12	257.410E-3	-27.4809E-3	-1.50761E-12	324.452E-3	-13.0264E-3
-87.5438E-6	-1.60822E-12	269.180E-3	-6.21266E-3	-1.69260E-12	349.611E-3	-16.9495E-3
-92.5463E-6	-1.68910E-12	278.394E-3	-9.93972E-3	-1.69912E-12	365.827E-3	-26.0760E-3
-97.5488E-6	-1.87603E-12	304.035E-3	-13.6310E-3	-1.72262E-12	370.889E-3	-21.2067E-3
-102.551E-6	-2.00361E-12	324.170E-3	-8.67024E-3	-1.94798E-12	378.865E-3	-14.3093E-3
-107.554E-6	-2.09478E-12	335.127E-3	-21.9410E-3	-2.19255E-12	389.211E-3	-6.12256E-3
-112.556E-6	-2.22956E-12	350.950E-3	-32.5838E-3	-2.13488E-12	403.197E-3	-8.63080E-3
-117.559E-6	-2.41239E-12	365.217E-3	-23.1170E-3	-2.23062E-12	423.229E-3	-22.7226E-3
-122.561E-6	-2.57386E-12	383.966E-3	-14.5385E-3	-2.55878E-12	448.343E-3	-16.8819E-3
-127.564E-6	-2.63785E-12	400.305E-3	-7.07016E-3	-2.78695E-12	478.794E-3	-1.30687E-3
-132.566E-6	-2.72296E-12	408.966E-3	-5.38300E-3	-2.73208E-12	495.605E-3	-811.654E-6
-137.569E-6	-3.02351E-12	428.694E-3	-14.1311E-3	-2.82062E-12	497.904E-3	-16.3054E-3
-142.571E-6	-3.14184E-12	452.556E-3	-14.7081E-3	-3.21834E-12	520.008E-3	-25.0779E-3
-147.574E-6	-3.17559E-12	463.432E-3	-13.4566E-3	-3.40356E-12	555.454E-3	-15.1986E-3
-152.576E-6	-3.34910E-12	472.741E-3	-24.9417E-3	-3.34053E-12	581.346E-3	-4.79498E-3
-157.579E-6	-3.60608E-12	501.788E-3	-17.0332E-3	-3.48582E-12	610.005E-3	-12.6073E-3
-162.581E-6	-3.72169E-12	533.970E-3	4.53444E-3	-3.89664E-12	637.230E-3	-25.3200E-3
-167.584E-6	-3.83217E-12	557.272E-3	-1.29895E-3	-4.10534E-12	655.430E-3	-21.6704E-3
-172.586E-6	-4.05187E-12	579.745E-3	-4.61076E-3	-4.14398E-12	677.133E-3	-13.0739E-3
-177.589E-6	-4.46146E-12	589.730E-3	4.83691E-3	-4.41513E-12	697.633E-3	-15.3514E-3
-182.591E-6	-4.64853E-12	607.945E-3	-907.070E-6	-4.75801E-12	715.424E-3	-16.2417E-3
-187.594E-6	-4.79135E-12	649.619E-3	-14.2637E-3	-4.86772E-12	745.783E-3	-3.73416E-3
-192.596E-6	-5.03869E-12	674.003E-3	-16.1991E-3	-4.91600E-12	776.884E-3	1.04563E-3
-197.599E-6	-5.34990E-12	690.635E-3	-10.5239E-3	-5.28894E-12	804.770E-3	-6.90935E-3
-202.601E-6	-5.69989E-12	718.320E-3	-8.87818E-3	-5.64659E-12	848.988E-3	-16.3648E-3
-207.604E-6	-5.92280E-12	745.467E-3	-6.94038E-3	-5.77891E-12	899.962E-3	-25.7518E-3
-212.606E-6	-6.24004E-12	773.839E-3	-14.0602E-3	-5.95872E-12	940.475E-3	-27.2560E-3
-217.609E-6	-6.62975E-12	810.314E-3	-23.8773E-3	-6.46701E-12	980.121E-3	-18.3643E-3
-222.611E-6	-6.93001E-12	858.304E-3	-18.6582E-3	-6.87062E-12	1.02959E+0	-9.21042E-3
-227.614E-6	-7.25123E-12	906.633E-3	-22.1347E-3	-7.08138E-12	1.07520E+0	-6.35188E-3
-232.616E-6	-7.65749E-12	946.251E-3	-28.3083E-3	-7.35937E-12	1.11538E+0	-1.80775E-3
-237.619E-6	-7.96591E-12	977.034E-3	-14.0443E-3	-8.05769E-12	1.15732E+0	1.16190E-3
-242.621E-6	-8.26453E-12	1.01618E+0	-13.7986E-3	-8.46340E-12	1.20352E+0	-2.32785E-3
-247.624E-6	-8.64531E-12	1.07124E+0	-23.1176E-3	-8.64150E-12	1.25989E+0	-10.9109E-3
-252.626E-6	-9.02715E-12	1.10662E+0	-13.8399E-3	-8.92368E-12	1.31055E+0	-28.4759E-3
-257.629E-6	-9.43809E-12	1.12410E+0	-13.8275E-3	-9.76894E-12	1.34668E+0	-40.3400E-3
-262.631E-6	-9.66433E-12	1.15327E+0	-23.7075E-3	-10.1156E-12	1.38547E+0	-35.2372E-3
-267.634E-6	-10.0479E-12	1.18953E+0	-19.5873E-3	-10.2163E-12	1.41939E+0	-26.0435E-3
-272.636E-6	-10.6902E-12	1.22684E+0	-23.7200E-3	-10.7464E-12	1.44722E+0	-24.7092E-3
-277.639E-6	-11.1380E-12	1.27190E+0	-39.3199E-3	-11.4357E-12	1.49039E+0	-26.7976E-3
-282.641E-6	-11.3135E-12	1.32460E+0	-32.3613E-3	-11.6723E-12	1.53304E+0	-25.1475E-3
-287.644E-6	-11.8382E-12	1.38147E+0	-22.4933E-3	-11.8563E-12	1.56847E+0	-16.0886E-3
-292.646E-6	-12.5469E-12	1.43519E+0	-24.4415E-3	-12.3431E-12	1.61504E+0	-10.6953E-3
-297.649E-6	-13.0795E-12	1.46928E+0	-16.0667E-3	-13.1081E-12	1.67506E+0	-18.2693E-3
-302.651E-6	-13.4521E-12	1.50267E+0	-11.4728E-3	-13.4094E-12	1.74157E+0	-25.1216E-3
-307.654E-6	-14.0790E-12	1.56974E+0	-17.3737E-3	-13.7035E-12	1.80001E+0	-22.0877E-3
-312.656E-6	-14.8951E-12	1.63921E+0	-16.3481E-3	-14.5398E-12	1.85198E+0	-25.1920E-3
-317.659E-6	-15.5079E-12	1.67982E+0	-13.5562E-3	-15.4129E-12	1.91680E+0	-32.3650E-3
-322.661E-6	-16.0619E-12	1.72707E+0	-18.9034E-3	-15.9254E-12	2.00205E+0	-25.5363E-3
-327.664E-6	-16.8000E-12	1.79040E+0	-17.0785E-3	-16.3659E-12	2.07961E+0	-20.2107E-3
-332.666E-6	-17.6480E-12	1.85142E+0	-9.62293E-3	-17.4914E-12	2.12953E+0	-30.7851E-3
-337.669E-6	-18.3789E-12	1.90652E+0	-7.83208E-3	-18.4065E-12	2.18377E+0	-31.5696E-3
-342.671E-6	-18.8224E-12	1.95982E+0	-6.32198E-3	-18.8913E-12	2.24628E+0	-19.5056E-3
-347.674E-6	-19.5528E-12	2.01304E+0	-7.30335E-3	-19.4807E-12	2.29343E+0	-16.0970E-3
-352.676E-6	-20.5744E-12	2.07417E+0	-7.04654E-3	-20.7169E-12	2.33724E+0	-15.4846E-3
-357.679E-6	-20.9643E-12	2.14590E+0	-4.27127E-3	-21.5781E-12	2.38928E+0	-12.3249E-3
-362.681E-6	-21.4521E-12	2.20144E+0	-14.6705E-3	-21.7792E-12	2.43205E+0	-17.1864E-3
-367.684E-6	-22.2842E-12	2.22833E+0	-31.4292E-3	-22.6470E-12	2.46992E+0	-22.8386E-3
-372.686E-6	-23.2067E-12	2.24954E+0	-29.6929E-3	-23.8292E-12	2.51529E+0	-21.6731E-3
-377.689E-6	-23.7125E-12	2.29322E+0	-23.5719E-3	-24.5756E-12	2.56123E+0	-18.1878E-3
-382.691E-6	-24.3826E-12	2.36034E+0	-27.8554E-3	-24.7359E-12	2.60875E+0	-17.9316E-3
-387.694E-6	-25.2237E-12	2.41827E+0	-31.2634E-3	-25.7088E-12	2.64924E+0	-28.6928E-3
-392.696E-6	-25.9915E-12	2.45330E+0	-34.3553E-3	-26.9810E-12	2.68976E+0	-34.5696E-3
-397.699E-6	-26.5569E-12	2.48666E+0	-34.8606E-3	-27.6004E-12	2.74343E+0	-31.5650E-3
-402.701E-6	-27.6132E-12	2.53090E+0	-25.8023E-3	-27.9125E-12	2.78485E+0	-35.2096E-3
-407.704E-6	-28.6661E-12	2.57522E+0	-30.8576E-3	-28.8663E-12	2.80632E+0	-34.1123E-3
-412.706E-6	-29.7414E-12	2.61812E+0	-48.8003E-3	-30.3814E-12	2.83991E+0	-24.6301E-3
-417.709E-6	-30.7945E-12	2.66450E+0	-42.2246E-3	-30.9783E-12	2.88879E+0	-23.5406E-3
-422.711E-6	-31.8321E-12	2.71702E+0	-28.2848E-3	-31.6129E-12	2.93147E+0	-27.3055E-3
-427.714E-6	-33.1096E-12	2.78049E+0	-25.6524E-3	-32.7195E-12	2.96861E+0	-25.6592E-3
-432.716E-6	-34.3842E-12	2.84359E+0	-14.6080E-3	-34.0347E-12	2.99595E+0	-24.7991E-3
-437.719E-6	-35.4504E-12	2.90507E+0	-4.04006E-3	-34.4753E-12	3.01252E+0	-13.4238E-3
-442.721E-6	-36.5501E-12	2.97172E+0	-876.431E-6	-35.2803E-12	3.04383E+0	7.83854E-3
-447.724E-6	-37.6726E-12	3.02229E+0	-321.760E-6	-36.4972E-12	3.07547E+0	14.3673E-3
-452.726E-6	-38.6851E-12	3.05166E+0	-10.7124E-3	-37.6462E-12	3.08124E+0	3.89022E-3
-457.729E-6	-39.1204E-12	3.08796E+0	-19.2202E-3	-38.2290E-12	3.09243E+0	-8.29232E-3
-462.731E-6	-39.9294E-12	3.12998E+0	-18.4079E-3	-38.9361E-12	3.11795E+0	-17.6729E-3
-467.734E-6	-41.0472E-12	3.14794E+0	-23.1595E-3	-40.2650E-12	3.13136E+0	-22.9647E-3
-472.736E-6	-41.9688E-12	3.14570E+0	-30.1197E-3	-41.3927E-12	3.13733E+0	-20.8807E-3
-477.739E-6	-41.8082E-12	3.15004E+0	-25.9132E-3	-41.9131E-12	3.14210E+0	-22.6497E-3
-482.741E-6	-42.5013E-12	3.15129E+0	-16.7410E-3	-42.6262E-12	3.15491E+0	-23.3723E-3
-487.744E-6	-43.7253E-12	3.12890E+0	-15.0174E-3	-44.2122E-12	3.17854E+0	-16.2364E-3
-492.746E-6	-44.6639E-12	3.10771E+0	-16.5596E-3	-45.2522E-12	3.19378E+0	-6.58552E-3
-497.749E-6	-45.1557E-12	3.10671E+0	-14.9668E-3	-45.7889E-12	3.19620E+0	673.697E-6
-502.751E-6	-46.6720E-12	3.12129E+0	-20.4095E-3	-46.7507E-12	3.20041E+0	-82.3976E-6
-507.754E-6	-48.1952E-12	3.14748E+0	-23.3976E-3	-48.4070E-12	3.20148E+0	-15.7796E-3
-512.756E-6	-49.3901E-12	3.16621E+0	-13.5855E-3	-49.4467E-12	3.18321E+0	-35.3871E-3
-517.759E-6	-50.3982E-12	3.17708E+0	-4.81890E-3	-50.0738E-12	3.18270E+0	-28.9447E-3
-522.761E-6	-52.3166E-12	3.20246E+0	-1.07586E-3	-50.8367E-12	3.20893E+0	-23.1945E-3
-527.764E-6	-53.7226E-12	3.23830E+0	-8.99020E-3	-52.5154E-12	3.22292E+0	-29.1166E-3
-532.766E-6	-54.9607E-12	3.27509E+0	-21.0100E-3	-53.6398E-12	3.22654E+0	-23.4488E-3
-537.769E-6	-56.0641E-12	3.31253E+0	-27.7928E-3	-54.3108E-12	3.22997E+0	-16.7954E-3
-542.771E-6	-57.6358E-12	3.32741E+0	-34.7076E-3	-55.4072E-12	3.22506E+0	-17.4047E-3
-547.774E-6	-58.3318E-12	3.31179E+0	-33.3218E-3	-57.2252E-12	3.21638E+0	-20.9092E-3
-552.776E-6	-58.7866E-12	3.29401E+0	-22.3496E-3	-58.3277E-12	3.20943E+0	-18.4319E-3
-557.779E-6	-59.0293E-12	3.29312E+0	-20.5585E-3	-58.3932E-12	3.20685E+0	-17.6074E-3
-562.781E-6	-60.5907E-12	3.28984E+0	-15.3069E-3	-60.7112E-12	3.20843E+0	-7.26699E-3
-567.784E-6	-61.9413E-12	3.25313E+0	1.82785E-3	-62.7953E-12	3.20410E+0	14.0880E-3
-572.786E-6	-62.2817E-12	3.20897E+0	7.18449E-3	-64.0193E-12	3.18312E+0	14.4025E-3
-577.789E-6	-62.7654E-12	3.18301E+0	2.59297E-3	-64.7640E-12	3.16102E+0	-286.063E-6
-582.791E-6	-63.9218E-12	3.14818E+0	-8.98236E-3	-66.4874E-12	3.14395E+0	-14.1897E-3
-587.794E-6	-65.0321E-12	3.10005E+0	-7.70455E-3	-67.7085E-12	3.10477E+0	-30.6975E-3
-592.796E-6	-65.3801E-12	3.06723E+0	13.8230E-3	-68.1412E-12	3.06254E+0	-37.0407E-3
-597.799E-6	-66.1444E-12	3.04413E+0	17.7407E-3	-68.7158E-12	3.02799E+0	-27.4239E-3
-602.801E-6	-68.0229E-12	3.01369E+0	-7.41884E-3	-70.0173E-12	2.98537E+0	-21.3780E-3
-607.804E-6	-69.2739E-12	2.99210E+0	-23.2085E-3	-70.9111E-12	2.92981E+0	-15.1790E-3
-612.806E-6	-70.2088E-12	2.98292E+0	-18.2504E-3	-70.6447E-12	2.87940E+0	-4.09228E-3
-617.809E-6	-71.4832E-12	2.97368E+0	-16.2858E-3	-71.4015E-12	2.85744E+0	-11.8448E-3
-622.811E-6	-73.2934E-12	2.96182E+0	-15.1549E-3	-72.6535E-12	2.83876E+0	-17.7512E-3
-627.814E-6	-74.3687E-12	2.94373E+0	-4.91004E-3	-73.4988E-12	2.80694E+0	-7.54646E-3
-632.816E-6	-75.8745E-12	2.92279E+0	629.595E-6	-74.2657E-12	2.77911E+0	-13.6077E-3
-637.819E-6	-77.0151E-12	2.90610E+0	-3.14570E-3	-75.0348E-12	2.77012E+0	-22.3790E-3
-642.821E-6	-78.4761E-12	2.89443E+0	987.322E-6	-76.9176E-12	2.76575E+0	-17.0073E-3
-647.824E-6	-79.4838E-12	2.88510E+0	197.509E-6	-78.3676E-12	2.73515E+0	-15.4123E-3
-652.826E-6	-80.4204E-12	2.86781E+0	2.51485E-3	-79.3808E-12	2.70886E+0	-15.4455E-3
-657.829E-6	-81.4875E-12	2.83996E+0	16.7823E-3	-80.6502E-12	2.70774E+0	-12.0601E-3
-662.831E-6	-82.7975E-12	2.80044E+0	3.73359E-3	-83.0245E-12	2.68175E+0	-10.8273E-3
-667.834E-6	-83.4624E-12	2.76859E+0	-23.1177E-3	-84.2256E-12	2.63886E+0	-19.9845E-3
-672.836E-6	-83.8577E-12	2.74743E+0	-27.5885E-3	-85.2771E-12	2.59785E+0	-27.5099E-3
-677.839E-6	-84.8223E-12	2.70596E+0	-28.6730E-3	-86.4703E-12	2.53141E+0	-8.36880E-3
-682.841E-6	-85.3930E-12	2.65328E+0	-35.4710E-3	-87.3736E-12	2.44611E+0	16.8510E-3
-687.844E-6	-85.5910E-12	2.60716E+0	-35.6530E-3	-87.9689E-12	2.37829E+0	9.04131E-3
-692.846E-6	-86.3623E-12	2.56460E+0	-32.9853E-3	-87.7461E-12	2.33762E+0	-13.2413E-3
-697.849E-6	-86.6214E-12	2.51934E+0	-27.6784E-3	-88.1684E-12	2.28519E+0	-18.4992E-3
-702.851E-6	-87.3680E-12	2.46551E+0	-20.7750E-3	-88.5879E-12	2.21661E+0	-13.9011E-3
-707.854E-6	-87.0040E-12	2.39796E+0	-13.7355E-3	-88.3848E-12	2.15591E+0	-8.96596E-3
-712.856E-6	-87.6151E-12	2.33648E+0	-20.3646E-3	-87.7754E-12	2.09939E+0	-3.73846E-3
-717.859E-6	-87.9890E-12	2.29908E+0	-36.6351E-3	-88.3527E-12	2.05092E+0	-15.7743E-3
-722.861E-6	-88.7839E-12	2.25668E+0	-35.8988E-3	-88.8268E-12	2.01265E+0	-33.5457E-3
-727.864E-6	-89.4919E-12	2.20691E+0	-11.5514E-3	-88.8966E-12	1.98396E+0	-25.0158E-3
-732.866E-6	-90.0994E-12	2.15941E+0	12.0717E-3	-89.4033E-12	1.96424E+0	-15.6423E-3
-737.869E-6	-91.2403E-12	2.10351E+0	8.51025E-3	-90.5070E-12	1.93146E+0	-17.9705E-3
-742.871E-6	-92.6476E-12	2.05690E+0	-7.53313E-3	-91.5071E-12	1.88202E+0	-4.33204E-3
-747.874E-6	-93.8817E-12	2.02968E+0	-18.0677E-3	-92.5697E-12	1.84071E+0	3.03586E-3
-752.876E-6	-94.7488E-12	1.98383E+0	-29.3272E-3	-93.3502E-12	1.80770E+0	-3.98757E-3
-757.879E-6	-96.4855E-12	1.93754E+0	-41.1038E-3	-94.5478E-12	1.77117E+0	-4.46889E-3
-762.881E-6	-97.3433E-12	1.92156E+0	-21.4378E-3	-96.2918E-12	1.71626E+0	-18.8675E-3
-767.884E-6	-98.4133E-12	1.87673E+0	128.025E-6	-97.2744E-12	1.65517E+0	-36.4221E-3
-772.886E-6	-99.3804E-12	1.80822E+0	-15.0621E-3	-97.3837E-12	1.61850E+0	-21.8416E-3
-777.889E-6	-99.7144E-12	1.77017E+0	-13.2401E-3	-98.4942E-12	1.57803E+0	-5.73798E-3
-782.891E-6	-100.204E-12	1.73197E+0	402.379E-6	-99.7715E-12	1.52891E+0	-11.9426E-3
-787.894E-6	-99.6738E-12	1.67810E+0	-13.9483E-3	-99.3750E-12	1.48479E+0	-3.46470E-3
-792.896E-6	-99.4373E-12	1.64687E+0	-38.3507E-3	-99.4011E-12	1.43504E+0	6.61564E-3
-797.899E-6	-99.2522E-12	1.61503E+0	-33.3516E-3	-99.9271E-12	1.38593E+0	-7.10714E-3
-802.901E-6	-98.3914E-12	1.55523E+0	-14.3733E-3	-99.4636E-12	1.33518E+0	-15.0302E-3
-807.904E-6	-97.9880E-12	1.49877E+0	-5.66325E-3	-98.8956E-12	1.29505E+0	-13.5091E-3
-812.906E-6	-98.0359E-12	1.44624E+0	-3.77972E-3	-99.9068E-12	1.25778E+0	-26.5125E-3
-817.909E-6	-97.8394E-12	1.38622E+0	-17.7019E-3	-99.5436E-12	1.20974E+0	-33.0602E-3
-822.911E-6	-97.4946E-12	1.33933E+0	-24.9449E-3	-99.6748E-12	1.17402E+0	-19.0832E-3
-827.914E-6	-97.9538E-12	1.29169E+0	-14.6271E-3	-99.9227E-12	1.14340E+0	-13.2044E-3
-832.916E-6	-99.4210E-12	1.24871E+0	-11.0997E-3	-100.747E-12	1.09924E+0	-10.1900E-3
-837.919E-6	-100.122E-12	1.21991E+0	-2.58479E-3	-101.451E-12	1.06725E+0	-417.166E-6
-842.921E-6	-101.265E-12	1.16466E+0	536.900E-6	-102.180E-12	1.04496E+0	2.45666E-3
-847.924E-6	-102.819E-12	1.11352E+0	-24.7094E-3	-103.053E-12	1.02852E+0	-3.40423E-3
-852.926E-6	-104.055E-12	1.09798E+0	-33.5079E-3	-103.775E-12	1.01865E+0	-13.8287E-3
-857.929E-6	-105.890E-12	1.07070E+0	-22.0393E-3	-105.451E-12	981.343E-3	-24.1046E-3
-862.931E-6	-106.993E-12	1.03179E+0	-17.6185E-3	-105.931E-12	925.481E-3	-33.0024E-3
-867.934E-6	-108.483E-12	1.01892E+0	-15.3099E-3	-106.679E-12	899.274E-3	-44.0352E-3
-872.936E-6	-108.606E-12	997.187E-3	-12.8658E-3	-107.486E-12	875.168E-3	-43.8486E-3
-877.939E-6	-109.288E-12	957.419E-3	-19.5139E-3	-107.532E-12	810.675E-3	-21.0022E-3
-882.941E-6	-108.881E-12	940.190E-3	-30.9335E-3	-108.227E-12	760.490E-3	-4.11640E-3
-887.944E-6	-108.847E-12	922.821E-3	-22.4339E-3	-107.620E-12	745.835E-3	-13.6150E-3
-892.946E-6	-108.174E-12	889.058E-3	-9.63346E-3	-107.596E-12	715.714E-3	-14.9717E-3
-897.949E-6	-107.553E-12	857.865E-3	-1.13525E-3	-107.943E-12	671.532E-3	-800.276E-6
-902.951E-6	-106.615E-12	807.393E-3	3.10679E-3	-107.705E-12	642.902E-3	-12.6074E-3
-907.954E-6	-106.228E-12	752.661E-3	-17.7707E-3	-106.533E-12	626.780E-3	-22.2710E-3
-912.956E-6	-106.362E-12	725.225E-3	-41.2899E-3	-106.607E-12	617.023E-3	-12.2144E-3
-917.959E-6	-105.272E-12	697.264E-3	-35.5326E-3	-106.877E-12	602.942E-3	-30.5289E-3
-922.961E-6	-105.959E-12	666.272E-3	-20.9403E-3	-105.869E-12	572.081E-3	-57.6239E-3
-927.964E-6	-106.019E-12	654.191E-3	-10.3445E-3	-106.311E-12	548.391E-3	-41.8925E-3
-932.966E-6	-106.772E-12	638.245E-3	329.155E-6	-106.769E-12	553.589E-3	-20.1881E-3
-937.969E-6	-107.194E-12	600.986E-3	-16.9204E-3	-107.368E-12	542.859E-3	-22.1722E-3
-942.971E-6	-108.708E-12	580.696E-3	-35.4701E-3	-107.548E-12	506.907E-3	-20.0803E-3
-947.974E-6	-109.290E-12	575.542E-3	-7.06057E-3	-108.642E-12	490.567E-3	-16.0188E-3
-952.976E-6	-109.956E-12	549.916E-3	19.1020E-3	-109.724E-12	489.540E-3	-15.3143E-3
-957.979E-6	-111.568E-12	542.879E-3	13.0643E-3	-110.071E-12	483.852E-3	-3.04331E-3
-962.981E-6	-112.401E-12	547.503E-3	-3.49038E-3	-110.874E-12	476.026E-3	-2.72460E-3
-967.984E-6	-112.122E-12	526.761E-3	-27.5469E-3	-111.123E-12	457.199E-3	-6.63631E-3
-972.986E-6	-112.585E-12	507.916E-3	-36.7138E-3	-112.246E-12	435.666E-3	5.77829E-3
-977.989E-6	-112.758E-12	476.683E-3	-21.4172E-3	-112.636E-12	429.247E-3	-2.23224E-3
-982.991E-6	-111.773E-12	431.092E-3	-23.1903E-3	-112.629E-12	422.272E-3	-18.7441E-3
-987.994E-6	-111.438E-12	423.135E-3	-39.0971E-3	-113.309E-12	403.646E-3	-11.5963E-3
-992.997E-6	-111.431E-12	426.096E-3	-28.3066E-3	-113.285E-12	388.106E-3	-9.80995E-3
-997.999E-6	-110.271E-12	390.986E-3	-13.4737E-3	-113.013E-12	373.494E-3	-23.7018E-3
-1.00300E-3	-109.447E-12	368.646E-3	-11.4588E-3	-112.318E-12	349.582E-3	-38.5440E-3
-1.00800E-3	-109.627E-12	374.342E-3	-3.51141E-3	-111.821E-12	337.136E-3	-41.0781E-3
-1.01301E-3	-109.152E-12	365.338E-3	-11.3173E-3	-111.227E-12	322.587E-3	-23.5543E-3
-1.01801E-3	-108.405E-12	358.175E-3	-22.3542E-3	-110.588E-12	303.150E-3	-12.6021E-3
-1.02301E-3	-108.814E-12	348.108E-3	-7.97785E-3	-109.501E-12	296.857E-3	-16.1736E-3
-1.02801E-3	-108.627E-12	306.602E-3	-12.8933E-3	-108.918E-12	295.726E-3	-16.2913E-3
-1.03302E-3	-109.098E-12	293.912E-3	-27.0903E-3	-109.070E-12	304.852E-3	-22.8165E-3
-1.03802E-3	-109.707E-12	317.857E-3	-6.68066E-3	-108.543E-12	298.092E-3	-34.3039E-3
-1.04302E-3	-110.520E-12	319.370E-3	9.81544E-3	-108.118E-12	274.546E-3	-25.8025E-3
-1.04802E-3	-110.959E-12	318.538E-3	-6.46826E-3	-108.372E-12	277.249E-3	-8.33239E-3
-1.05303E-3	-111.441E-12	312.767E-3	-11.6209E-3	-108.457E-12	291.509E-3	-14.3773E-3
-1.05803E-3	-112.000E-12	290.674E-3	451.765E-6	-109.008E-12	293.776E-3	-17.6943E-3
-1.06303E-3	-112.231E-12	277.387E-3	-209.237E-6	-108.873E-12	305.210E-3	1.39048E-3
-1.06803E-3	-112.815E-12	269.967E-3	-625.393E-6	-109.445E-12	314.116E-3	291.408E-6
-1.07304E-3	-112.884E-12	271.605E-3	5.39254E-3	-110.573E-12	295.523E-3	-4.68096E-3
-1.07804E-3	-112.532E-12	279.590E-3	-91.6222E-6	-111.266E-12	282.295E-3	13.2100E-3
-1.08304E-3	-112.373E-12	277.979E-3	-6.19246E-3	-111.315E-12	277.285E-3	23.8430E-3
-1.08804E-3	-112.627E-12	264.947E-3	-6.93739E-3	-112.455E-12	261.775E-3	18.1533E-3
-1.09305E-3	-112.315E-12	256.223E-3	-17.8331E-3	-112.899E-12	251.091E-3	8.80040E-3
-1.09805E-3	-112.687E-12	263.374E-3	-23.5532E-3	-112.806E-12	257.559E-3	5.54042E-3
-1.10305E-3	-112.556E-12	266.886E-3	-13.7021E-3	-112.898E-12	267.567E-3	5.44323E-3
-1.10805E-3	-112.688E-12	260.454E-3	-9.77952E-3	-113.428E-12	262.324E-3	4.66508E-3
-1.11306E-3	-112.392E-12	258.541E-3	-26.0549E-3	-113.740E-12	255.987E-3	-2.89344E-3
-1.11806E-3	-112.348E-12	254.767E-3	-40.0799E-3	-112.817E-12	256.527E-3	-23.4956E-3
-1.12306E-3	-111.987E-12	249.725E-3	-28.8556E-3	-112.800E-12	248.069E-3	-22.9629E-3
-1.12806E-3	-111.844E-12	253.318E-3	-17.0309E-3	-112.512E-12	245.230E-3	817.383E-6
-1.13307E-3	-111.872E-12	255.292E-3	-20.1963E-3	-111.659E-12	252.993E-3	11.4219E-3
-1.13807E-3	-111.568E-12	244.816E-3	-36.8601E-3	-111.686E-12	262.885E-3	10.9607E-3
-1.14307E-3	-111.605E-12	238.986E-3	-51.0963E-3	-112.090E-12	275.331E-3	592.652E-6
-1.14807E-3	-112.058E-12	242.197E-3	-51.2864E-3	-111.799E-12	266.656E-3	-9.72669E-3
-1.15308E-3	-111.904E-12	248.359E-3	-55.0204E-3	-111.359E-12	262.769E-3	-2.36021E-3
-1.15808E-3	-112.140E-12	264.061E-3	-43.0283E-3	-111.896E-12	279.245E-3	183.280E-6
-1.16308E-3	-112.605E-12	271.594E-3	-23.1096E-3	-112.283E-12	280.305E-3	-10.9902E-3
-1.16808E-3	-113.238E-12	267.025E-3	-29.9837E-3	-113.029E-12	288.373E-3	-20.7703E-3
-1.17309E-3	-113.168E-12	269.200E-3	-34.8616E-3	-113.590E-12	317.678E-3	-23.8145E-3
-1.17809E-3	-114.083E-12	268.234E-3	-21.5129E-3	-114.285E-12	335.202E-3	-21.4478E-3
-1.18309E-3	-114.784E-12	259.858E-3	-22.8443E-3	-115.287E-12	339.338E-3	-23.0236E-3
-1.18809E-3	-115.695E-12	274.099E-3	-35.0515E-3	-116.497E-12	341.444E-3	-41.0923E-3
-1.19310E-3	-116.151E-12	288.886E-3	-26.0436E-3	-116.936E-12	339.290E-3	-56.2672E-3
-1.19810E-3	-116.845E-12	294.067E-3	-26.3656E-3	-117.727E-12	329.236E-3	-45.8445E-3
-1.20310E-3	-117.608E-12	300.754E-3	-27.3363E-3	-118.536E-12	326.146E-3	-39.8134E-3
-1.20810E-3	-117.039E-12	297.248E-3	-14.0462E-3	-118.939E-12	342.546E-3	-30.9508E-3
-1.21311E-3	-117.009E-12	299.467E-3	-28.8277E-3	-118.783E-12	345.522E-3	-4.68006E-3
-1.21811E-3	-116.647E-12	320.653E-3	-44.6442E-3	-117.808E-12	346.205E-3	5.46017E-3
-1.22311E-3	-116.302E-12	334.363E-3	-40.0963E-3	-117.927E-12	354.464E-3	-12.9800E-3
-1.22811E-3	-115.645E-12	326.813E-3	-29.9075E-3	-116.710E-12	363.037E-3	-23.8584E-3
-1.23312E-3	-114.430E-12	325.204E-3	-15.2124E-3	-115.930E-12	374.786E-3	-18.7830E-3
-1.23812E-3	-114.674E-12	325.710E-3	7.30009E-3	-115.327E-12	370.049E-3	-32.8005E-3
-1.24312E-3	-113.869E-12	331.342E-3	18.5840E-3	-115.150E-12	356.027E-3	-31.0417E-3
-1.24812E-3	-114.043E-12	355.422E-3	2.82263E-3	-114.038E-12	352.484E-3	-7.06028E-3
-1.25313E-3	-114.029E-12	364.087E-3	-7.65326E-3	-114.327E-12	365.913E-3	3.73954E-3
-1.25813E-3	-113.993E-12	351.474E-3	-8.78427E-3	-114.163E-12	378.860E-3	17.4851E-3
-1.26313E-3	-114.549E-12	350.315E-3	-13.8139E-3	-114.811E-12	379.052E-3	15.2219E-3
-1.26813E-3	-115.808E-12	367.226E-3	-18.1157E-3	-115.251E-12	374.495E-3	-8.14804E-3
-1.27314E-3	-116.602E-12	387.044E-3	-27.3521E-3	-115.495E-12	390.726E-3	-13.9363E-3
-1.27814E-3	-117.208E-12	395.831E-3	-28.0808E-3	-117.089E-12	425.349E-3	-12.2158E-3
-1.28314E-3	-118.851E-12	405.643E-3	-16.2787E-3	-118.029E-12	441.592E-3	-12.9683E-3
-1.28814E-3	-119.463E-12	410.212E-3	-30.5620E-3	-118.988E-12	444.708E-3	-7.23676E-3
-1.29315E-3	-120.094E-12	412.404E-3	-46.2219E-3	-119.501E-12	445.489E-3	-6.26125E-3
-1.29815E-3	-120.752E-12	431.275E-3	-24.7801E-3	-120.577E-12	436.910E-3	-9.18094E-3
-1.30315E-3	-120.258E-12	451.427E-3	-21.3614E-3	-120.737E-12	434.779E-3	-18.9861E-3
-1.30815E-3	-119.858E-12	470.839E-3	-47.4531E-3	-120.679E-12	452.383E-3	-40.9071E-3
-1.31316E-3	-119.151E-12	493.078E-3	-47.7738E-3	-120.389E-12	467.062E-3	-36.0492E-3
-1.31816E-3	-118.255E-12	500.086E-3	-28.7689E-3	-118.951E-12	471.972E-3	-6.56331E-3
-1.32316E-3	-116.726E-12	495.320E-3	-20.5678E-3	-118.021E-12	494.914E-3	-7.19271E-3
-1.32816E-3	-116.166E-12	478.640E-3	-25.4969E-3	-117.507E-12	511.639E-3	-28.7835E-3
-1.33317E-3	-115.520E-12	447.339E-3	-25.8847E-3	-116.413E-12	497.975E-3	-35.5359E-3
-1.33817E-3	-114.942E-12	448.641E-3	-277.692E-6	-115.281E-12	483.476E-3	-16.7000E-3
-1.34317E-3	-114.565E-12	477.371E-3	13.1805E-3	-115.347E-12	489.564E-3	10.3475E-3
-1.34817E-3	-114.848E-12	478.531E-3	-8.06443E-3	-114.320E-12	514.098E-3	16.1435E-3
-1.35318E-3	-115.464E-12	473.317E-3	-21.6067E-3	-113.592E-12	531.659E-3	17.1038E-3
-1.35818E-3	-116.248E-12	482.645E-3	-20.4855E-3	-113.989E-12	531.563E-3	19.2247E-3
-1.36318E-3	-118.023E-12	495.882E-3	-20.3373E-3	-114.911E-12	534.382E-3	2.53170E-3
-1.36818E-3	-118.768E-12	523.821E-3	-7.16052E-3	-114.466E-12	541.645E-3	-15.1701E-3
-1.37319E-3	-119.621E-12	535.318E-3	4.25908E-3	-115.896E-12	550.042E-3	-18.1414E-3
-1.37819E-3	-121.370E-12	528.564E-3	-3.28327E-3	-117.457E-12	561.360E-3	-20.2160E-3
-1.38319E-3	-122.427E-12	539.739E-3	-9.76092E-3	-118.404E-12	571.117E-3	-28.0170E-3
-1.38819E-3	-122.956E-12	555.189E-3	-17.9528E-3	-119.956E-12	575.710E-3	-35.8754E-3
-1.39320E-3	-123.007E-12	570.363E-3	-23.9422E-3	-120.895E-12	582.255E-3	-25.0698E-3
-1.39820E-3	-123.079E-12	582.177E-3	-16.9648E-3	-122.570E-12	589.050E-3	2.16687E-3
-1.40320E-3	-122.390E-12	565.760E-3	-5.37818E-3	-122.926E-12	585.910E-3	12.3779E-3
-1.40820E-3	-121.534E-12	548.027E-3	-9.91921E-3	-123.985E-12	586.017E-3	17.7129E-3
-1.41321E-3	-121.103E-12	564.450E-3	-33.5095E-3	-124.181E-12	600.309E-3	21.0570E-3
-1.41821E-3	-119.634E-12	585.616E-3	-40.1208E-3	-124.476E-12	600.125E-3	-1.85189E-3
-1.42321E-3	-119.175E-12	594.397E-3	-17.8080E-3	-124.365E-12	582.987E-3	-18.5990E-3
-1.42821E-3	-118.454E-12	592.995E-3	19.4871E-3	-124.047E-12	594.700E-3	-20.1244E-3
-1.43322E-3	-118.050E-12	572.210E-3	39.6955E-3	-123.063E-12	614.683E-3	-23.7457E-3
-1.43822E-3	-117.503E-12	559.037E-3	24.4824E-3	-123.330E-12	604.620E-3	-28.4483E-3
-1.44322E-3	-118.226E-12	562.442E-3	2.09376E-3	-122.896E-12	615.749E-3	-46.2423E-3
-1.44822E-3	-118.594E-12	557.099E-3	6.90852E-3	-121.626E-12	644.504E-3	-57.8723E-3
-1.45323E-3	-119.454E-12	555.720E-3	14.9331E-3	-121.773E-12	642.606E-3	-35.1656E-3
-1.45823E-3	-120.939E-12	575.095E-3	-3.03760E-3	-121.412E-12	636.979E-3	-12.0594E-3
-1.46323E-3	-122.207E-12	582.624E-3	-16.4517E-3	-120.915E-12	630.013E-3	-11.7291E-3
-1.46823E-3	-123.281E-12	583.191E-3	-17.5033E-3	-121.265E-12	621.592E-3	-3.05788E-3
-1.47324E-3	-124.845E-12	611.368E-3	-16.5753E-3	-122.109E-12	626.843E-3	7.72738E-3
-1.47824E-3	-126.074E-12	636.954E-3	-12.4127E-3	-121.645E-12	635.498E-3	-4.91625E-3
-1.48324E-3	-126.762E-12	629.691E-3	-18.2817E-3	-121.738E-12	636.611E-3	-24.5165E-3
-1.48824E-3	-127.350E-12	628.713E-3	-33.9458E-3	-122.525E-12	638.279E-3	-34.1039E-3
-1.49325E-3	-127.432E-12	646.769E-3	-29.9168E-3	-123.724E-12	652.499E-3	-21.4608E-3
-1.49825E-3	-127.602E-12	658.884E-3	-21.0743E-3	-123.652E-12	655.858E-3	-2.77702E-3
-1.50325E-3	-126.745E-12	680.165E-3	-32.4929E-3	-124.879E-12	645.184E-3	-8.64639E-3
-1.50825E-3	-126.918E-12	682.088E-3	-31.4927E-3	-125.816E-12	645.008E-3	-19.4075E-3
-1.51326E-3	-126.724E-12	649.763E-3	-23.4715E-3	-126.500E-12	661.666E-3	-9.12525E-3
-1.51826E-3	-126.013E-12	645.560E-3	-25.6186E-3	-127.348E-12	679.339E-3	-9.53313E-3
-1.52326E-3	-125.484E-12	651.398E-3	-17.2071E-3	-127.693E-12	667.080E-3	-28.3068E-3
-1.52826E-3	-125.356E-12	629.829E-3	-11.9227E-3	-128.618E-12	635.393E-3	-21.1123E-3
-1.53327E-3	-125.327E-12	607.650E-3	-28.4911E-3	-128.340E-12	629.752E-3	1.47782E-3
-1.53827E-3	-125.690E-12	603.053E-3	-31.7033E-3	-128.508E-12	636.977E-3	-8.03493E-3
-1.54327E-3	-125.812E-12	612.336E-3	-26.3394E-3	-128.572E-12	639.390E-3	-24.9794E-3
-1.54827E-3	-125.770E-12	642.000E-3	-41.5470E-3	-127.672E-12	648.678E-3	-21.4867E-3
-1.55328E-3	-126.629E-12	670.391E-3	-43.2425E-3	-127.197E-12	661.602E-3	-18.0146E-3
-1.55828E-3	-126.221E-12	663.307E-3	-24.7863E-3	-127.268E-12	671.993E-3	-9.15225E-3
-1.56328E-3	-126.741E-12	648.988E-3	-33.8295E-3	-126.707E-12	678.020E-3	308.402E-6
-1.56828E-3	-126.857E-12	654.271E-3	-57.8757E-3	-125.387E-12	675.825E-3	-11.1431E-3
-1.57329E-3	-127.806E-12	661.570E-3	-39.1956E-3	-126.334E-12	665.987E-3	-21.8971E-3
-1.57829E-3	-127.445E-12	666.685E-3	-5.83886E-3	-125.364E-12	661.198E-3	-17.5125E-3
-1.58329E-3	-128.166E-12	659.068E-3	-10.7087E-3	-125.138E-12	657.375E-3	-16.8865E-3
-1.58829E-3	-128.906E-12	636.844E-3	-24.6842E-3	-125.791E-12	656.778E-3	-9.12021E-3
-1.59330E-3	-128.685E-12	649.163E-3	-24.7147E-3	-126.148E-12	665.073E-3	2.90451E-3
-1.59830E-3	-129.184E-12	682.712E-3	-16.8481E-3	-126.140E-12	667.571E-3	-5.00106E-3
-1.60330E-3	-129.882E-12	688.155E-3	-11.2553E-3	-127.269E-12	655.757E-3	-17.8204E-3
-1.60830E-3	-130.207E-12	677.421E-3	-17.5506E-3	-129.054E-12	653.696E-3	-23.9907E-3
-1.61331E-3	-130.787E-12	677.490E-3	-25.8039E-3	-129.599E-12	673.948E-3	-38.3716E-3
-1.61831E-3	-131.280E-12	671.830E-3	-24.6472E-3	-130.518E-12	685.862E-3	-34.6391E-3
-1.62331E-3	-130.841E-12	646.785E-3	-23.1303E-3	-131.769E-12	676.063E-3	-11.2499E-3
-1.62831E-3	-131.503E-12	636.220E-3	-33.3471E-3	-132.255E-12	668.862E-3	-13.3582E-3
-1.63332E-3	-130.917E-12	640.723E-3	-41.3007E-3	-132.968E-12	655.394E-3	-9.16140E-3
-1.63832E-3	-131.077E-12	646.670E-3	-36.5308E-3	-132.811E-12	635.998E-3	9.57206E-3
-1.64332E-3	-130.594E-12	660.410E-3	-16.4257E-3	-132.310E-12	641.369E-3	10.5955E-3
-1.64832E-3	-129.468E-12	654.135E-3	6.58461E-3	-131.785E-12	660.222E-3	10.1209E-3
-1.65333E-3	-129.203E-12	633.511E-3	14.2595E-3	-131.801E-12	674.511E-3	9.74798E-3
-1.65833E-3	-128.515E-12	639.057E-3	3.71511E-3	-130.981E-12	687.725E-3	2.05362E-3
-1.66333E-3	-128.181E-12	661.557E-3	-19.6411E-3	-129.638E-12	674.918E-3	-2.79704E-3
-1.66833E-3	-127.908E-12	657.967E-3	-41.2948E-3	-128.810E-12	640.179E-3	-161.411E-6
-1.67334E-3	-128.342E-12	632.261E-3	-42.2256E-3	-128.848E-12	627.847E-3	-4.63754E-3
-1.67834E-3	-128.333E-12	627.762E-3	-22.5042E-3	-128.463E-12	638.336E-3	-10.3621E-3
-1.68334E-3	-129.341E-12	644.540E-3	-11.3784E-3	-127.866E-12	648.042E-3	-7.76763E-3
-1.68834E-3	-129.590E-12	666.218E-3	-24.4063E-3	-129.325E-12	653.801E-3	-9.42323E-3
-1.69335E-3	-131.657E-12	677.429E-3	-32.9864E-3	-130.030E-12	661.919E-3	-7.47276E-3
-1.69835E-3	-132.478E-12	667.825E-3	-17.7422E-3	-130.846E-12	672.514E-3	-7.92943E-3
-1.70335E-3	-134.078E-12	668.395E-3	-2.98680E-3	-132.238E-12	679.001E-3	-19.7860E-3
-1.70835E-3	-135.606E-12	670.916E-3	-14.7325E-3	-134.329E-12	675.988E-3	-31.1663E-3
-1.71336E-3	-136.933E-12	663.776E-3	-39.5281E-3	-135.380E-12	676.726E-3	-25.6448E-3
-1.71836E-3	-137.742E-12	673.311E-3	-44.3297E-3	-137.090E-12	673.888E-3	-3.06029E-3
-1.72336E-3	-137.849E-12	688.345E-3	-35.5334E-3	-138.677E-12	668.675E-3	-2.70944E-3
-1.72836E-3	-138.557E-12	690.224E-3	-33.6268E-3	-139.725E-12	681.157E-3	-22.5458E-3
-1.73337E-3	-137.989E-12	675.497E-3	-40.0430E-3	-140.407E-12	699.165E-3	-29.7482E-3
-1.73837E-3	-137.464E-12	655.813E-3	-45.0257E-3	-140.556E-12	703.986E-3	-44.2391E-3
-1.74337E-3	-136.766E-12	662.969E-3	-39.5957E-3	-140.303E-12	690.888E-3	-56.8137E-3
-1.74837E-3	-135.669E-12	666.937E-3	-17.4801E-3	-139.610E-12	682.896E-3	-45.8938E-3
-1.75338E-3	-134.771E-12	649.594E-3	4.95154E-3	-138.556E-12	683.981E-3	-28.8500E-3
-1.75838E-3	-133.538E-12	656.690E-3	4.94065E-3	-137.622E-12	679.342E-3	-3.51757E-3
-1.76338E-3	-132.989E-12	670.230E-3	-2.90362E-3	-136.645E-12	669.440E-3	3.58713E-3
-1.76838E-3	-132.305E-12	665.000E-3	-11.4317E-3	-135.638E-12	651.139E-3	-20.6857E-3
-1.77339E-3	-132.210E-12	663.393E-3	-22.2872E-3	-134.424E-12	631.087E-3	-31.1557E-3
-1.77839E-3	-132.056E-12	662.484E-3	-19.1692E-3	-133.520E-12	631.483E-3	-28.0640E-3
-1.78339E-3	-133.733E-12	636.417E-3	-7.03801E-3	-133.827E-12	651.386E-3	-31.0404E-3
-1.78839E-3	-134.864E-12	612.002E-3	-20.8323E-3	-134.078E-12	666.917E-3	-20.8778E-3
-1.79340E-3	-135.744E-12	624.446E-3	-27.9457E-3	-133.809E-12	661.070E-3	-10.9757E-3
-1.79840E-3	-137.448E-12	638.531E-3	2.88663E-3	-134.956E-12	640.478E-3	-7.09039E-3
-1.80340E-3	-139.270E-12	641.839E-3	8.63260E-3	-135.848E-12	646.209E-3	-5.25712E-3
-1.80840E-3	-140.714E-12	677.843E-3	-3.63893E-3	-136.805E-12	683.474E-3	-18.3038E-3
-1.81341E-3	-142.034E-12	701.899E-3	10.8470E-3	-138.243E-12	702.795E-3	-28.2319E-3
-1.81841E-3	-142.656E-12	677.997E-3	20.2886E-3	-139.694E-12	693.818E-3	-21.3402E-3
-1.82341E-3	-142.956E-12	679.260E-3	15.6874E-3	-140.875E-12	677.770E-3	-9.08145E-3
-1.82841E-3	-143.337E-12	706.113E-3	4.41650E-3	-141.725E-12	659.251E-3	-16.6466E-3
-1.83342E-3	-142.330E-12	712.934E-3	-25.1991E-3	-142.107E-12	661.814E-3	-22.7651E-3
-1.83842E-3	-142.089E-12	706.995E-3	-40.9579E-3	-143.075E-12	674.861E-3	-13.3043E-3
-1.84342E-3	-140.415E-12	681.918E-3	-11.8985E-3	-143.191E-12	673.883E-3	-8.90200E-3
-1.84842E-3	-139.466E-12	656.898E-3	33.1043E-3	-142.851E-12	677.158E-3	-6.43120E-3
-1.85343E-3	-138.333E-12	676.900E-3	52.5953E-3	-141.973E-12	675.309E-3	-19.5553E-3
-1.85843E-3	-137.573E-12	697.473E-3	27.8982E-3	-141.893E-12	670.614E-3	-32.2880E-3
-1.86343E-3	-136.759E-12	676.597E-3	-11.2734E-3	-141.052E-12	682.319E-3	-19.5058E-3
-1.86843E-3	-136.545E-12	645.219E-3	-36.9292E-3	-140.452E-12	683.900E-3	-13.2059E-3
-1.87344E-3	-136.300E-12	625.395E-3	-52.7840E-3	-139.644E-12	671.488E-3	-34.1270E-3
-1.87844E-3	-136.828E-12	613.915E-3	-48.3243E-3	-138.777E-12	665.950E-3	-52.5045E-3
-1.88344E-3	-138.230E-12	612.087E-3	-19.7415E-3	-138.330E-12	666.892E-3	-44.2797E-3
-1.88844E-3	-138.975E-12	628.304E-3	8.07784E-3	-138.082E-12	667.612E-3	-35.6926E-3
-1.89345E-3	-139.488E-12	645.070E-3	3.66759E-3	-137.838E-12	663.914E-3	-38.3857E-3
-1.89845E-3	-141.646E-12	645.392E-3	-24.1942E-3	-138.453E-12	653.160E-3	-28.1786E-3
-1.90345E-3	-142.521E-12	639.146E-3	-27.8326E-3	-137.846E-12	642.360E-3	-17.0087E-3
-1.90845E-3	-143.416E-12	636.688E-3	-24.8442E-3	-138.199E-12	639.043E-3	-14.8335E-3
-1.91346E-3	-144.713E-12	639.651E-3	-38.6684E-3	-139.427E-12	633.362E-3	-1.83653E-3
-1.91846E-3	-145.746E-12	647.424E-3	-30.2677E-3	-140.189E-12	631.492E-3	13.6756E-3
-1.92346E-3	-145.163E-12	664.797E-3	1.40530E-3	-140.714E-12	649.566E-3	12.1684E-3
-1.92846E-3	-145.478E-12	680.975E-3	14.9012E-3	-141.585E-12	660.465E-3	1.27284E-3
-1.93347E-3	-145.666E-12	682.377E-3	5.38676E-3	-142.269E-12	663.650E-3	-3.72710E-3
-1.93847E-3	-144.665E-12	682.094E-3	-7.55818E-3	-143.477E-12	681.926E-3	-10.2553E-3
-1.94347E-3	-143.598E-12	688.420E-3	-9.44090E-3	-143.434E-12	678.257E-3	-18.7932E-3
-1.94847E-3	-143.565E-12	697.484E-3	3.74673E-3	-143.932E-12	657.642E-3	-16.1724E-3
-1.95348E-3	-142.688E-12	696.613E-3	-8.88901E-3	-143.863E-12	663.563E-3	-8.27699E-3
-1.95848E-3	-142.811E-12	679.142E-3	-42.3114E-3	-144.546E-12	670.348E-3	-16.9598E-3
-1.96348E-3	-143.325E-12	638.370E-3	-42.3854E-3	-144.486E-12	663.525E-3	-31.6766E-3
-1.96848E-3	-142.905E-12	608.763E-3	-27.3415E-3	-145.617E-12	668.086E-3	-28.8439E-3
-1.97349E-3	-142.985E-12	622.100E-3	-17.7735E-3	-145.238E-12	680.727E-3	-22.7975E-3
-1.97849E-3	-144.303E-12	640.253E-3	-11.7707E-3	-145.799E-12	682.075E-3	-20.2691E-3
-1.98349E-3	-144.482E-12	659.954E-3	-20.7718E-3	-146.050E-12	670.868E-3	-22.0674E-3
-1.98849E-3	-144.634E-12	678.794E-3	-32.5231E-3	-145.330E-12	666.057E-3	-30.1242E-3
-1.99350E-3	-145.266E-12	683.438E-3	-29.0964E-3	-145.824E-12	664.779E-3	-21.2966E-3
-1.99850E-3	-146.147E-12	670.898E-3	-21.0339E-3	-146.280E-12	647.195E-3	-4.53700E-3
-2.00350E-3	-146.476E-12	647.626E-3	-25.6612E-3	-146.234E-12	636.331E-3	-12.9775E-3
-2.00850E-3	-146.307E-12	657.300E-3	-27.0074E-3	-145.864E-12	650.373E-3	-28.2197E-3
-2.01351E-3	-147.115E-12	683.661E-3	-25.2501E-3	-147.429E-12	675.937E-3	-30.5015E-3
-2.01851E-3	-147.923E-12	695.884E-3	-34.5517E-3	-148.100E-12	698.680E-3	-22.2513E-3
-2.02351E-3	-148.051E-12	706.070E-3	-33.6186E-3	-148.132E-12	705.687E-3	-6.98623E-3
-2.02851E-3	-148.535E-12	703.045E-3	-20.7508E-3	-149.395E-12	714.527E-3	-6.14424E-3
-2.03352E-3	-148.957E-12	697.523E-3	-17.1364E-3	-150.725E-12	717.701E-3	-11.4352E-3
-2.03852E-3	-148.904E-12	685.933E-3	-14.3907E-3	-150.991E-12	687.653E-3	-15.2218E-3
-2.04352E-3	-149.747E-12	656.624E-3	-17.3959E-3	-151.745E-12	668.158E-3	-16.0610E-3
-2.04852E-3	-150.767E-12	648.662E-3	-23.6610E-3	-152.204E-12	672.458E-3	-24.6729E-3
-2.05353E-3	-150.568E-12	666.718E-3	-14.5834E-3	-153.092E-12	661.281E-3	-54.1510E-3
-2.05853E-3	-151.058E-12	677.990E-3	-17.1510E-3	-153.052E-12	665.982E-3	-42.2780E-3
-2.06353E-3	-151.457E-12	667.915E-3	-28.7932E-3	-152.105E-12	692.742E-3	-2.88211E-3
-2.06853E-3	-151.042E-12	653.488E-3	-35.4758E-3	-152.776E-12	693.585E-3	-7.69730E-3
-2.07354E-3	-151.090E-12	661.818E-3	-38.6931E-3	-152.595E-12	688.377E-3	-36.1912E-3
-2.07854E-3	-151.025E-12	695.971E-3	-19.8663E-3	-151.365E-12	682.564E-3	-56.4652E-3
-2.08354E-3	-150.302E-12	714.715E-3	-6.62372E-3	-150.905E-12	664.923E-3	-42.4200E-3
-2.08854E-3	-149.901E-12	692.793E-3	-24.4785E-3	-150.367E-12	673.303E-3	-10.0244E-3
-2.09355E-3	-149.690E-12	682.434E-3	-38.3649E-3	-149.841E-12	688.031E-3	-13.1181E-3
-2.09855E-3	-149.659E-12	706.290E-3	-34.8599E-3	-149.689E-12	672.194E-3	-14.6315E-3
-2.10355E-3	-149.911E-12	719.723E-3	-14.6231E-3	-149.306E-12	661.963E-3	8.20628E-3
-2.10855E-3	-149.746E-12	712.400E-3	8.87925E-3	-148.967E-12	671.752E-3	10.7394E-3
-2.11356E-3	-150.621E-12	701.141E-3	10.9435E-3	-149.663E-12	667.512E-3	-11.6768E-3
-2.11856E-3	-150.774E-12	682.953E-3	-7.47341E-3	-149.520E-12	660.961E-3	-28.3770E-3
-2.12356E-3	-151.395E-12	666.418E-3	-47.4199E-3	-150.324E-12	675.371E-3	-44.8794E-3
-2.12856E-3	-152.339E-12	662.735E-3	-75.2801E-3	-150.814E-12	685.880E-3	-53.6380E-3
-2.13357E-3	-153.621E-12	662.747E-3	-60.9764E-3	-152.127E-12	692.555E-3	-18.0780E-3
-2.13857E-3	-153.398E-12	666.458E-3	-29.6085E-3	-152.164E-12	707.685E-3	2.68030E-3
-2.14357E-3	-154.962E-12	670.007E-3	-2.48506E-3	-153.412E-12	710.473E-3	-14.2875E-3
-2.14857E-3	-155.128E-12	665.026E-3	-4.41929E-3	-153.897E-12	713.042E-3	-6.92602E-3
-2.15358E-3	-155.644E-12	662.306E-3	-28.1908E-3	-155.141E-12	720.545E-3	8.27876E-3
-2.15858E-3	-156.348E-12	672.219E-3	-33.2308E-3	-155.281E-12	693.392E-3	2.55032E-3
-2.16358E-3	-156.609E-12	677.566E-3	-20.8662E-3	-155.735E-12	658.708E-3	-4.18938E-3
-2.16858E-3	-155.274E-12	661.679E-3	-16.6973E-3	-155.698E-12	667.830E-3	-757.891E-6
-2.17359E-3	-154.796E-12	651.429E-3	-25.3047E-3	-155.011E-12	683.535E-3	-9.66092E-3
-2.17859E-3	-153.909E-12	670.840E-3	-30.0237E-3	-154.357E-12	672.204E-3	-28.6742E-3
-2.18359E-3	-152.701E-12	694.168E-3	-48.6940E-3	-153.733E-12	665.265E-3	-24.6817E-3
-2.18859E-3	-151.393E-12	705.914E-3	-55.2637E-3	-153.646E-12	675.836E-3	180.028E-6
-2.19360E-3	-150.950E-12	694.296E-3	-31.8075E-3	-152.616E-12	676.909E-3	15.9589E-3
-2.19860E-3	-150.458E-12	672.260E-3	-20.3694E-3	-153.139E-12	668.780E-3	9.78178E-3
-2.20360E-3	-150.038E-12	663.627E-3	-9.82544E-3	-152.523E-12	667.273E-3	10.9566E-3
-2.20860E-3	-150.674E-12	651.416E-3	7.01917E-3	-152.882E-12	673.273E-3	27.9596E-3
-2.21361E-3	-150.766E-12	644.888E-3	9.60041E-3	-153.357E-12	693.116E-3	15.3720E-3
-2.21861E-3	-152.510E-12	651.075E-3	15.0773E-3	-153.554E-12	697.401E-3	-28.4696E-3
-2.22361E-3	-153.854E-12	663.612E-3	19.8131E-3	-154.803E-12	676.690E-3	-35.1178E-3
-2.22861E-3	-155.716E-12	670.517E-3	10.6115E-3	-155.337E-12	669.092E-3	-11.8684E-3
-2.23362E-3	-156.920E-12	670.135E-3	-9.39258E-3	-156.163E-12	675.117E-3	-8.51340E-3
-2.23862E-3	-159.288E-12	672.841E-3	-29.8989E-3	-156.988E-12	684.414E-3	1.71254E-3
-2.24362E-3	-160.964E-12	675.202E-3	-30.8816E-3	-158.338E-12	696.348E-3	-1.46177E-3
-2.24862E-3	-161.343E-12	704.721E-3	-27.6383E-3	-159.244E-12	694.684E-3	-47.2960E-3
-2.25363E-3	-162.698E-12	726.803E-3	-23.2672E-3	-159.647E-12	692.662E-3	-57.8350E-3
-2.25863E-3	-161.691E-12	697.855E-3	-17.8656E-3	-160.200E-12	699.853E-3	-23.3845E-3
-2.26363E-3	-161.199E-12	687.948E-3	-23.8936E-3	-161.170E-12	688.165E-3	-9.02001E-3
-2.26863E-3	-160.037E-12	698.148E-3	-23.6767E-3	-161.820E-12	668.766E-3	-9.49077E-3
-2.27364E-3	-158.842E-12	686.773E-3	-26.1013E-3	-160.644E-12	679.674E-3	-12.4052E-3
-2.27864E-3	-157.413E-12	678.678E-3	-37.8100E-3	-161.599E-12	715.069E-3	-13.7516E-3
-2.28364E-3	-157.060E-12	676.303E-3	-27.4521E-3	-161.176E-12	736.798E-3	-490.793E-6
-2.28864E-3	-154.837E-12	667.448E-3	-15.7889E-3	-161.415E-12	744.409E-3	5.06129E-3
-2.29365E-3	-154.667E-12	664.373E-3	-28.1459E-3	-160.287E-12	740.034E-3	-16.8493E-3
-2.29865E-3	-155.471E-12	667.567E-3	-35.9069E-3	-161.166E-12	718.349E-3	-20.6167E-3
-2.30365E-3	-155.489E-12	656.760E-3	-51.0045E-3	-160.733E-12	712.313E-3	874.634E-6
-2.30865E-3	-156.195E-12	653.397E-3	-66.5522E-3	-161.264E-12	702.823E-3	-18.8700E-3
-2.31366E-3	-158.299E-12	657.820E-3	-43.6024E-3	-160.617E-12	673.052E-3	-49.5435E-3
-2.31866E-3	-159.864E-12	639.416E-3	-5.58554E-3	-161.774E-12	664.270E-3	-35.9075E-3
-2.32366E-3	-160.988E-12	630.612E-3	10.2024E-3	-162.101E-12	669.453E-3	-20.8384E-3
-2.32866E-3	-163.987E-12	658.560E-3	2.33234E-3	-162.517E-12	670.047E-3	-39.9672E-3
-2.33367E-3	-165.459E-12	686.524E-3	1.08271E-3	-162.705E-12	680.484E-3	-54.7998E-3
-2.33867E-3	-166.235E-12	703.193E-3	7.74170E-3	-163.721E-12	693.921E-3	-29.7410E-3
-2.34367E-3	-166.759E-12	721.137E-3	7.95369E-3	-164.941E-12	693.769E-3	-15.7359E-3
-2.34867E-3	-167.844E-12	722.330E-3	17.0003E-3	-164.818E-12	699.104E-3	-36.2626E-3
-2.35368E-3	-167.363E-12	711.175E-3	21.6905E-3	-165.219E-12	699.592E-3	-45.1971E-3
-2.35868E-3	-166.472E-12	707.096E-3	5.59517E-3	-165.212E-12	671.955E-3	-40.0937E-3
-2.36368E-3	-166.065E-12	700.814E-3	-6.83949E-3	-166.302E-12	659.442E-3	-27.5455E-3
-2.36868E-3	-165.433E-12	700.337E-3	-19.3173E-3	-165.725E-12	674.679E-3	-25.8450E-3
-2.37369E-3	-164.001E-12	719.873E-3	-36.6735E-3	-165.154E-12	687.844E-3	-43.3742E-3
-2.37869E-3	-162.856E-12	731.623E-3	-28.9085E-3	-164.671E-12	698.908E-3	-41.7502E-3
-2.38369E-3	-161.888E-12	715.558E-3	-5.15538E-3	-164.917E-12	695.818E-3	-26.0278E-3
-2.38869E-3	-161.586E-12	691.686E-3	-2.45049E-3	-163.736E-12	682.148E-3	-15.9026E-3
-2.39370E-3	-161.528E-12	679.210E-3	-18.4272E-3	-163.209E-12	676.621E-3	-6.54024E-3
-2.39870E-3	-161.655E-12	671.651E-3	-16.1741E-3	-163.830E-12	688.927E-3	-10.8508E-3
-2.40370E-3	-162.870E-12	662.729E-3	-9.55307E-3	-163.535E-12	704.288E-3	-26.5093E-3
-2.40870E-3	-163.426E-12	670.089E-3	-11.8695E-3	-162.787E-12	675.860E-3	-15.1945E-3
-2.41371E-3	-164.438E-12	690.668E-3	-17.2470E-3	-163.136E-12	641.540E-3	-6.47907E-3
-2.41871E-3	-165.973E-12	691.370E-3	-35.0093E-3	-164.144E-12	662.360E-3	-18.6272E-3
-2.42371E-3	-167.268E-12	668.012E-3	-54.9835E-3	-163.854E-12	701.531E-3	-9.13847E-3
-2.42871E-3	-168.538E-12	658.470E-3	-48.5758E-3	-164.323E-12	714.991E-3	-196.708E-6
-2.43372E-3	-168.170E-12	680.002E-3	-12.8866E-3	-165.831E-12	690.817E-3	-18.1068E-3
-2.43872E-3	-168.821E-12	698.887E-3	-1.83459E-3	-166.270E-12	656.874E-3	-33.9642E-3
-2.44372E-3	-169.148E-12	708.794E-3	-16.6806E-3	-166.308E-12	666.089E-3	-22.4792E-3
-2.44872E-3	-168.552E-12	704.229E-3	-2.38353E-3	-167.169E-12	703.562E-3	-240.121E-6
-2.45373E-3	-168.348E-12	677.543E-3	5.06587E-3	-169.078E-12	696.257E-3	8.34528E-3
-2.45873E-3	-168.210E-12	663.137E-3	-9.54483E-3	-169.613E-12	655.224E-3	2.16249E-3
-2.46373E-3	-167.213E-12	677.937E-3	-12.1127E-3	-169.006E-12	650.807E-3	-19.9022E-3
-2.46873E-3	-167.378E-12	699.676E-3	-13.9489E-3	-169.976E-12	656.136E-3	-32.3144E-3
-2.47374E-3	-167.630E-12	726.399E-3	-20.0601E-3	-170.448E-12	669.054E-3	-19.1008E-3
-2.47874E-3	-166.429E-12	732.658E-3	-26.2021E-3	-170.075E-12	699.592E-3	-4.15336E-3
-2.48374E-3	-167.001E-12	685.912E-3	-23.7967E-3	-170.151E-12	691.908E-3	-4.46899E-3
-2.48874E-3	-166.720E-12	640.670E-3	-9.04665E-3	-169.530E-12	671.789E-3	-13.4242E-3
-2.49375E-3	-166.897E-12	636.748E-3	-10.4847E-3	-168.295E-12	671.518E-3	-19.1811E-3
-2.49875E-3	-167.424E-12	650.053E-3	-38.1934E-3	-167.932E-12	676.132E-3	-12.7442E-3
-2.50375E-3	-167.552E-12	668.734E-3	-35.9195E-3	-167.947E-12	686.588E-3	-1.22018E-3
-2.50875E-3	-167.733E-12	681.840E-3	-1.50888E-3	-166.636E-12	681.040E-3	-14.1189E-3
-2.51376E-3	-169.106E-12	668.916E-3	825.849E-6	-166.066E-12	656.351E-3	-38.8721E-3
-2.51876E-3	-169.375E-12	673.042E-3	-34.0835E-3	-166.506E-12	650.529E-3	-51.4576E-3
-2.52376E-3	-169.019E-12	704.875E-3	-39.2610E-3	-165.906E-12	648.744E-3	-46.7149E-3
-2.52876E-3	-169.971E-12	701.414E-3	817.784E-6	-166.601E-12	646.911E-3	-22.4376E-3
-2.53377E-3	-170.836E-12	687.387E-3	5.96056E-3	-167.197E-12	664.838E-3	-13.2644E-3
-2.53877E-3	-170.532E-12	705.245E-3	-29.0209E-3	-167.773E-12	674.541E-3	-33.7876E-3
-2.54377E-3	-171.005E-12	701.735E-3	-37.4162E-3	-168.702E-12	673.335E-3	-45.6362E-3
-2.54877E-3	-172.417E-12	665.791E-3	-15.3888E-3	-171.108E-12	674.601E-3	-29.4855E-3
-2.55378E-3	-172.196E-12	670.640E-3	-19.3544E-3	-171.586E-12	688.192E-3	-15.0374E-3
-2.55878E-3	-173.613E-12	700.088E-3	-36.1167E-3	-173.018E-12	704.166E-3	-23.2644E-3
-2.56378E-3	-174.378E-12	701.659E-3	-33.7667E-3	-175.367E-12	703.127E-3	-35.8796E-3
-2.56878E-3	-175.033E-12	694.868E-3	-33.7411E-3	-176.090E-12	692.580E-3	-37.1477E-3
-2.57379E-3	-174.698E-12	675.164E-3	-14.1525E-3	-178.016E-12	674.732E-3	-45.7053E-3
-2.57879E-3	-176.007E-12	650.619E-3	-1.48318E-3	-178.206E-12	666.011E-3	-50.1145E-3
-2.58379E-3	-175.940E-12	661.577E-3	-20.9298E-3	-178.155E-12	679.080E-3	-30.4609E-3
-2.58879E-3	-174.600E-12	684.409E-3	-17.1083E-3	-178.499E-12	686.770E-3	-17.5094E-3
-2.59380E-3	-174.298E-12	686.601E-3	-13.3187E-3	-179.485E-12	694.240E-3	-10.9120E-3
-2.59880E-3	-174.455E-12	683.211E-3	-32.4247E-3	-177.701E-12	700.368E-3	-8.12456E-3
-2.60380E-3	-172.788E-12	680.858E-3	-3.04115E-3	-177.338E-12	690.826E-3	-23.6071E-3
-2.60880E-3	-171.046E-12	686.878E-3	43.6082E-3	-177.353E-12	686.207E-3	-34.6598E-3
-2.61381E-3	-171.322E-12	691.395E-3	21.9018E-3	-175.896E-12	683.329E-3	-33.9965E-3
-2.61881E-3	-170.517E-12	684.056E-3	-27.5580E-3	-174.755E-12	673.787E-3	-31.2849E-3
-2.62381E-3	-169.738E-12	676.715E-3	-51.5302E-3	-174.269E-12	685.537E-3	-19.8487E-3
-2.62881E-3	-170.338E-12	667.645E-3	-51.2121E-3	-174.247E-12	705.009E-3	-12.2093E-3
-2.63382E-3	-171.385E-12	679.722E-3	-33.2117E-3	-172.859E-12	693.095E-3	-29.7435E-3
-2.63882E-3	-171.302E-12	710.791E-3	-25.1331E-3	-173.241E-12	677.881E-3	-40.1677E-3
-2.64382E-3	-173.141E-12	712.233E-3	-37.5677E-3	-173.673E-12	679.639E-3	-27.2492E-3
-2.64882E-3	-175.830E-12	692.296E-3	-36.0785E-3	-173.893E-12	679.317E-3	-33.9625E-3
-2.65383E-3	-177.858E-12	682.491E-3	-17.8974E-3	-175.179E-12	669.404E-3	-47.9005E-3
-2.65883E-3	-179.408E-12	683.847E-3	-30.4295E-3	-175.897E-12	653.984E-3	-24.7689E-3
-2.66383E-3	-181.707E-12	698.720E-3	-52.6480E-3	-176.162E-12	647.189E-3	5.66912E-3
-2.66883E-3	-182.808E-12	709.488E-3	-29.0033E-3	-177.741E-12	665.081E-3	8.07909E-3
-2.67384E-3	-184.263E-12	706.668E-3	-5.15060E-3	-178.937E-12	702.856E-3	-1.97259E-3
-2.67884E-3	-185.292E-12	709.784E-3	-3.56791E-3	-178.962E-12	725.440E-3	-7.65848E-3
-2.68384E-3	-184.744E-12	720.009E-3	-6.21438E-3	-180.327E-12	711.232E-3	-1.08861E-3
-2.68884E-3	-183.725E-12	732.937E-3	-15.9144E-3	-180.740E-12	693.587E-3	-1.58588E-3
-2.69385E-3	-183.017E-12	719.017E-3	-11.2942E-3	-181.414E-12	698.398E-3	-16.7714E-3
-2.69885E-3	-180.117E-12	687.759E-3	-2.31460E-3	-180.132E-12	716.465E-3	-23.6876E-3
-2.70385E-3	-178.382E-12	678.906E-3	-2.33960E-3	-180.791E-12	723.593E-3	-13.8100E-3
-2.70885E-3	-176.367E-12	686.540E-3	-17.9505E-3	-180.106E-12	709.348E-3	-10.0459E-3
-2.71386E-3	-174.824E-12	701.941E-3	-27.6720E-3	-179.596E-12	702.706E-3	-23.2679E-3
-2.71886E-3	-173.253E-12	697.046E-3	-14.9022E-3	-177.775E-12	707.700E-3	-21.8691E-3
-2.72386E-3	-173.009E-12	680.817E-3	-7.15085E-3	-178.127E-12	713.066E-3	-11.2181E-3
-2.72886E-3	-173.531E-12	673.212E-3	-10.8353E-3	-177.275E-12	701.469E-3	-2.62080E-3
-2.73387E-3	-174.231E-12	658.584E-3	-10.3237E-3	-176.290E-12	671.478E-3	7.78650E-3
-2.73887E-3	-175.633E-12	642.247E-3	1.08282E-3	-175.845E-12	655.218E-3	577.541E-6
-2.74387E-3	-178.343E-12	644.235E-3	-18.8535E-3	-176.613E-12	660.130E-3	-11.2900E-3
-2.74887E-3	-180.869E-12	657.130E-3	-58.7990E-3	-176.153E-12	669.406E-3	-12.5842E-3
-2.75388E-3	-183.682E-12	671.705E-3	-56.0352E-3	-175.915E-12	674.826E-3	-25.2655E-3
-2.75888E-3	-185.894E-12	683.352E-3	-39.2293E-3	-177.914E-12	679.716E-3	-40.6142E-3
-2.76388E-3	-188.438E-12	691.701E-3	-40.5386E-3	-178.175E-12	693.876E-3	-40.3106E-3
-2.76888E-3	-189.264E-12	703.037E-3	-40.1183E-3	-178.733E-12	690.239E-3	-22.1534E-3
-2.77389E-3	-190.583E-12	719.558E-3	-21.1244E-3	-180.297E-12	669.474E-3	8.02154E-3
-2.77889E-3	-189.379E-12	747.380E-3	-7.88158E-3	-181.592E-12	661.613E-3	11.4053E-3
-2.78389E-3	-189.439E-12	752.326E-3	-14.3728E-3	-182.660E-12	674.307E-3	-4.62100E-3
-2.78889E-3	-187.174E-12	729.841E-3	-14.6295E-3	-184.091E-12	699.070E-3	-479.484E-6
-2.79390E-3	-185.259E-12	729.156E-3	-11.6059E-3	-184.541E-12	704.374E-3	7.81913E-3
-2.79890E-3	-182.335E-12	731.107E-3	-7.20468E-3	-185.202E-12	709.119E-3	4.45408E-3
-2.80390E-3	-180.986E-12	707.160E-3	-17.9848E-3	-186.424E-12	713.785E-3	33.9613E-6
-2.80890E-3	-178.098E-12	702.882E-3	-23.9479E-3	-186.286E-12	694.064E-3	-7.73290E-3
-2.81391E-3	-177.000E-12	702.738E-3	969.683E-6	-185.572E-12	684.472E-3	-1.52702E-3
-2.81891E-3	-176.165E-12	655.986E-3	2.24973E-3	-185.351E-12	699.407E-3	20.1717E-3
-2.82391E-3	-175.462E-12	627.096E-3	-15.7646E-3	-185.042E-12	691.410E-3	20.6658E-3
-2.82891E-3	-176.276E-12	632.726E-3	-13.3890E-3	-184.220E-12	662.188E-3	-2.20628E-3
-2.83392E-3	-177.519E-12	633.021E-3	-17.4279E-3	-184.173E-12	658.822E-3	-9.54634E-3
-2.83892E-3	-179.237E-12	639.299E-3	-28.8986E-3	-183.390E-12	674.966E-3	-4.13661E-3
-2.84392E-3	-181.958E-12	645.511E-3	-30.0959E-3	-182.985E-12	687.552E-3	-13.3589E-3
-2.84892E-3	-184.945E-12	646.352E-3	-38.5244E-3	-182.654E-12	698.736E-3	-26.9186E-3
-2.85393E-3	-186.286E-12	642.127E-3	-35.6449E-3	-182.969E-12	712.655E-3	-45.2393E-3
-2.85893E-3	-188.713E-12	644.985E-3	-8.77807E-3	-183.098E-12	710.613E-3	-57.9778E-3
-2.86393E-3	-191.125E-12	678.913E-3	3.72873E-3	-184.812E-12	704.600E-3	-56.8235E-3
-2.86893E-3	-191.400E-12	716.912E-3	-4.87081E-3	-186.657E-12	720.004E-3	-48.6481E-3
-2.87394E-3	-191.697E-12	706.224E-3	-19.6504E-3	-187.150E-12	712.483E-3	-25.1550E-3
-2.87894E-3	-192.030E-12	678.914E-3	-39.5924E-3	-188.691E-12	698.662E-3	6.82717E-3
-2.88394E-3	-190.486E-12	687.260E-3	-41.8532E-3	-190.160E-12	712.765E-3	23.2274E-3
-2.88894E-3	-189.846E-12	690.091E-3	-13.8138E-3	-191.265E-12	715.670E-3	811.497E-6
-2.89395E-3	-188.860E-12	675.227E-3	8.85319E-3	-192.170E-12	715.282E-3	-24.1598E-3
-2.89895E-3	-186.875E-12	681.138E-3	-4.23979E-3	-193.155E-12	718.879E-3	-25.4097E-3
-2.90395E-3	-185.432E-12	699.044E-3	-33.0077E-3	-192.895E-12	722.160E-3	-13.1534E-3
-2.90895E-3	-185.584E-12	681.925E-3	-43.5186E-3	-192.622E-12	723.244E-3	7.13671E-3
-2.91396E-3	-186.253E-12	651.826E-3	-41.1898E-3	-192.578E-12	702.503E-3	-1.58513E-3
-2.91896E-3	-184.611E-12	651.983E-3	-22.4567E-3	-191.658E-12	682.436E-3	-37.6164E-3
-2.92396E-3	-185.488E-12	655.738E-3	4.43345E-3	-191.260E-12	685.614E-3	-33.3339E-3
-2.92896E-3	-186.236E-12	656.133E-3	-5.40428E-3	-189.956E-12	689.704E-3	-14.2697E-3
-2.93397E-3	-187.509E-12	667.832E-3	-12.5421E-3	-188.972E-12	681.694E-3	-24.9368E-3
-2.93897E-3	-188.597E-12	664.666E-3	-3.63329E-3	-187.753E-12	667.761E-3	-24.7667E-3
-2.94397E-3	-190.227E-12	652.436E-3	-38.5574E-3	-186.998E-12	674.894E-3	3.03390E-3
-2.94897E-3	-190.461E-12	669.827E-3	-71.4249E-3	-185.491E-12	691.330E-3	35.8877E-3
-2.95398E-3	-191.179E-12	677.578E-3	-50.3121E-3	-185.545E-12	687.702E-3	38.3164E-3
-2.95898E-3	-192.422E-12	667.750E-3	-13.1967E-3	-186.392E-12	698.470E-3	10.6701E-3
-2.96398E-3	-193.100E-12	692.262E-3	16.3455E-3	-185.750E-12	711.913E-3	-15.4441E-3
-2.96898E-3	-193.323E-12	705.109E-3	36.3774E-3	-186.557E-12	712.462E-3	-19.4519E-3
-2.97399E-3	-193.161E-12	680.334E-3	30.4508E-3	-187.815E-12	712.507E-3	-18.3130E-3
-2.97899E-3	-194.568E-12	681.300E-3	9.66934E-3	-188.445E-12	694.121E-3	-27.9841E-3
-2.98399E-3	-193.444E-12	706.962E-3	-12.2332E-3	-190.164E-12	670.974E-3	-35.0599E-3
-2.98899E-3	-194.129E-12	713.975E-3	-25.2680E-3	-191.035E-12	667.749E-3	-53.5514E-3
-2.99400E-3	-194.549E-12	701.402E-3	-5.60726E-3	-191.907E-12	696.898E-3	-59.0321E-3
-2.99900E-3	-194.276E-12	684.263E-3	14.0188E-3	-192.534E-12	730.100E-3	-34.1894E-3
-3.00400E-3	-194.349E-12	695.948E-3	1.99282E-3	-194.822E-12	720.396E-3	-18.5703E-3
-3.00900E-3	-194.441E-12	733.127E-3	-7.46600E-3	-193.511E-12	701.939E-3	-8.15336E-3
-3.01401E-3	-194.015E-12	739.500E-3	9.83604E-3	-194.649E-12	695.389E-3	2.39966E-3
-3.01901E-3	-193.624E-12	716.734E-3	16.4550E-3	-194.923E-12	663.585E-3	-3.74883E-3
-3.02401E-3	-193.659E-12	708.996E-3	5.65301E-3	-193.734E-12	646.569E-3	-20.9555E-3
-3.02901E-3	-192.274E-12	717.403E-3	11.4872E-3	-193.892E-12	670.929E-3	-33.3511E-3
-3.03402E-3	-192.988E-12	708.435E-3	11.9982E-3	-193.583E-12	697.900E-3	-29.7156E-3
-3.03902E-3	-192.356E-12	684.119E-3	-10.8498E-3	-192.656E-12	712.996E-3	-9.33568E-3
-3.04402E-3	-191.000E-12	662.818E-3	-13.4793E-3	-192.199E-12	703.573E-3	10.0215E-3
-3.04902E-3	-190.654E-12	645.157E-3	-3.04935E-3	-193.233E-12	685.017E-3	15.5979E-3
-3.05403E-3	-190.716E-12	654.634E-3	-3.51118E-3	-192.596E-12	682.876E-3	10.8470E-3
-3.05903E-3	-190.015E-12	680.473E-3	-1.22212E-3	-193.032E-12	677.534E-3	920.244E-6
-3.06403E-3	-190.749E-12	681.929E-3	-21.5585E-3	-194.082E-12	670.101E-3	-13.0622E-3
-3.06903E-3	-191.158E-12	697.672E-3	-46.8012E-3	-194.789E-12	683.132E-3	-27.9613E-3
-3.07404E-3	-193.062E-12	722.075E-3	-35.4405E-3	-195.396E-12	685.250E-3	-36.3136E-3
-3.07904E-3	-193.936E-12	696.696E-3	-12.6755E-3	-196.127E-12	676.781E-3	-21.8776E-3
-3.08404E-3	-194.883E-12	679.214E-3	-5.58734E-3	-195.897E-12	682.319E-3	7.70589E-3
-3.08904E-3	-197.731E-12	685.207E-3	-4.51568E-3	-197.271E-12	687.277E-3	13.0128E-3
-3.09405E-3	-199.410E-12	656.380E-3	-20.6972E-3	-197.996E-12	688.369E-3	-9.90172E-3
-3.09905E-3	-199.683E-12	646.443E-3	-51.2927E-3	-197.812E-12	689.230E-3	-26.9935E-3
-3.10405E-3	-200.847E-12	674.663E-3	-19.6021E-3	-198.194E-12	686.705E-3	-24.5987E-3
-3.10905E-3	-201.631E-12	679.204E-3	37.4912E-3	-198.620E-12	684.934E-3	-28.6611E-3
-3.11406E-3	-201.334E-12	669.774E-3	-1.71133E-3	-198.972E-12	681.905E-3	-35.2167E-3
-3.11906E-3	-201.142E-12	688.654E-3	-53.7140E-3	-199.182E-12	690.371E-3	-26.4667E-3
-3.12406E-3	-199.331E-12	715.255E-3	-40.3237E-3	-199.061E-12	707.117E-3	-22.7005E-3
-3.12906E-3	-198.619E-12	730.518E-3	-38.1360E-3	-199.788E-12	702.646E-3	-10.0251E-3
-3.13407E-3	-197.193E-12	723.397E-3	-44.6940E-3	-200.078E-12	690.197E-3	6.36732E-3
-3.13907E-3	-195.410E-12	675.808E-3	-55.8909E-3	-201.013E-12	675.552E-3	-4.64537E-3
-3.14407E-3	-193.313E-12	658.256E-3	-79.9649E-3	-200.969E-12	673.808E-3	-17.3596E-3
-3.14907E-3	-193.839E-12	691.206E-3	-73.7000E-3	-200.820E-12	691.004E-3	-34.4829E-3
-3.15408E-3	-193.231E-12	696.598E-3	-44.5661E-3	-200.271E-12	693.147E-3	-61.8466E-3
-3.15908E-3	-193.759E-12	687.030E-3	-44.9723E-3	-200.340E-12	691.529E-3	-44.5939E-3
-3.16408E-3	-195.067E-12	702.918E-3	-51.7583E-3	-200.573E-12	702.630E-3	-6.23053E-3
-3.16908E-3	-197.383E-12	707.644E-3	-13.3625E-3	-201.526E-12	703.599E-3	-2.64069E-3
-3.17409E-3	-199.754E-12	684.799E-3	2.94135E-3	-201.483E-12	698.643E-3	6.02220E-3
-3.17909E-3	-202.500E-12	685.452E-3	-11.5837E-3	-201.466E-12	716.367E-3	23.1460E-3
-3.18409E-3	-205.308E-12	714.016E-3	28.0136E-3	-201.550E-12	742.549E-3	15.9956E-3
-3.18909E-3	-207.966E-12	714.512E-3	70.3521E-3	-201.658E-12	736.165E-3	17.0733E-6
-3.19410E-3	-209.208E-12	682.033E-3	42.9769E-3	-202.385E-12	703.729E-3	-19.5387E-3
-3.19910E-3	-210.798E-12	659.966E-3	-3.31795E-3	-202.837E-12	700.397E-3	-18.5619E-3
-3.20410E-3	-210.108E-12	661.662E-3	-14.8546E-3	-202.324E-12	728.134E-3	21.2292E-3
-3.20910E-3	-209.397E-12	680.016E-3	-3.88885E-3	-202.731E-12	737.368E-3	48.4322E-3
-3.21411E-3	-208.461E-12	723.403E-3	8.66463E-3	-203.732E-12	723.113E-3	40.8641E-3
-3.21911E-3	-206.644E-12	751.537E-3	6.94027E-3	-202.778E-12	696.789E-3	29.9958E-3
-3.22411E-3	-204.549E-12	738.187E-3	-4.65824E-3	-203.088E-12	685.226E-3	13.9440E-3
-3.22911E-3	-202.615E-12	725.986E-3	-26.6919E-3	-203.604E-12	699.263E-3	-12.0649E-3
-3.23412E-3	-199.591E-12	722.714E-3	-52.9245E-3	-204.047E-12	710.745E-3	-26.5382E-3
-3.23912E-3	-198.210E-12	715.584E-3	-52.5616E-3	-202.991E-12	707.935E-3	-28.3200E-3
-3.24412E-3	-197.857E-12	701.133E-3	-65.0962E-3	-203.315E-12	713.490E-3	-27.7047E-3
-3.24912E-3	-197.839E-12	702.932E-3	-84.4073E-3	-202.657E-12	705.867E-3	-21.0802E-3
-3.25413E-3	-198.066E-12	721.099E-3	-65.6724E-3	-202.571E-12	674.045E-3	-10.5447E-3
-3.25913E-3	-199.235E-12	707.277E-3	-28.9906E-3	-201.720E-12	676.169E-3	-11.1567E-3
-3.26413E-3	-201.420E-12	686.502E-3	10.8023E-3	-202.139E-12	715.088E-3	-21.8338E-3
-3.26913E-3	-203.917E-12	678.826E-3	33.9241E-3	-201.941E-12	726.450E-3	-41.0828E-3
-3.27414E-3	-206.005E-12	678.904E-3	37.8038E-3	-201.923E-12	689.244E-3	-42.9666E-3
-3.27914E-3	-207.279E-12	708.953E-3	28.1602E-3	-202.847E-12	667.517E-3	-21.1209E-3
-3.28414E-3	-209.505E-12	729.926E-3	9.76964E-3	-203.851E-12	690.280E-3	-15.4833E-3
-3.28914E-3	-211.172E-12	716.757E-3	-8.76781E-3	-204.178E-12	701.948E-3	-11.1631E-3
-3.29415E-3	-211.066E-12	698.525E-3	-35.4261E-3	-204.680E-12	672.891E-3	-3.50348E-3
-3.29915E-3	-210.868E-12	684.226E-3	-47.6311E-3	-205.137E-12	663.956E-3	-327.549E-6
-3.30415E-3	-211.561E-12	684.068E-3	-44.4555E-3	-207.501E-12	681.947E-3	9.03277E-3
-3.30915E-3	-209.719E-12	696.820E-3	-31.9456E-3	-207.723E-12	684.349E-3	-4.84128E-3
-3.31416E-3	-208.081E-12	694.563E-3	-8.91590E-3	-208.497E-12	684.358E-3	-49.1483E-3
-3.31916E-3	-207.173E-12	677.105E-3	-9.51630E-3	-208.649E-12	675.830E-3	-72.2027E-3
-3.32416E-3	-205.659E-12	672.201E-3	-37.9204E-3	-209.863E-12	656.453E-3	-56.5164E-3
-3.32916E-3	-203.849E-12	689.406E-3	-52.6622E-3	-209.174E-12	644.783E-3	-42.2521E-3
-3.33417E-3	-203.017E-12	699.651E-3	-45.3940E-3	-207.648E-12	634.586E-3	-41.3837E-3
-3.33917E-3	-203.411E-12	695.743E-3	-39.6222E-3	-207.231E-12	646.561E-3	-41.4452E-3
-3.34417E-3	-203.200E-12	698.965E-3	-38.2996E-3	-207.396E-12	687.015E-3	-46.7293E-3
-3.34917E-3	-204.118E-12	700.858E-3	-36.9548E-3	-205.873E-12	704.901E-3	-52.9060E-3
-3.35418E-3	-205.253E-12	682.992E-3	-24.4757E-3	-205.583E-12	687.712E-3	-38.7140E-3
-3.35918E-3	-207.344E-12	665.877E-3	11.3957E-3	-205.052E-12	668.480E-3	-12.1460E-3
-3.36418E-3	-209.215E-12	679.659E-3	22.9817E-3	-204.889E-12	653.789E-3	13.8109E-3
-3.36918E-3	-210.144E-12	688.789E-3	-9.36009E-3	-204.426E-12	634.712E-3	27.0926E-3
-3.37419E-3	-210.861E-12	679.606E-3	-17.5852E-3	-205.680E-12	621.371E-3	7.62788E-3
-3.37919E-3	-212.752E-12	673.052E-3	3.15948E-3	-206.460E-12	641.159E-3	-35.4711E-3
-3.38419E-3	-214.169E-12	673.649E-3	15.9364E-3	-206.978E-12	698.053E-3	-57.9723E-3
-3.38919E-3	-213.226E-12	682.615E-3	22.3448E-3	-207.648E-12	732.135E-3	-44.3361E-3
-3.39420E-3	-213.442E-12	683.776E-3	13.9149E-3	-209.985E-12	715.421E-3	-42.4158E-3
-3.39920E-3	-212.888E-12	693.636E-3	-6.80758E-3	-211.861E-12	701.904E-3	-48.0405E-3
-3.40420E-3	-212.362E-12	692.266E-3	-15.9792E-3	-212.588E-12	712.924E-3	-28.4674E-3
-3.40920E-3	-210.678E-12	675.853E-3	-17.7307E-3	-213.476E-12	712.600E-3	-6.50642E-3
-3.41421E-3	-210.988E-12	687.891E-3	-13.3248E-3	-214.774E-12	703.355E-3	9.39557E-3
-3.41921E-3	-210.633E-12	703.235E-3	15.8594E-3	-214.391E-12	699.453E-3	14.9260E-3
-3.42421E-3	-209.538E-12	710.540E-3	36.3751E-3	-216.184E-12	691.738E-3	-2.60203E-3
-3.42921E-3	-210.054E-12	730.415E-3	970.424E-6	-215.449E-12	688.922E-3	-33.2915E-3
-3.43422E-3	-210.615E-12	723.313E-3	-43.0336E-3	-215.323E-12	696.993E-3	-51.5902E-3
-3.43922E-3	-210.659E-12	676.777E-3	-33.3828E-3	-215.171E-12	702.460E-3	-34.8626E-3
-3.44422E-3	-211.004E-12	641.296E-3	-2.31512E-3	-215.964E-12	691.199E-3	-6.98804E-3
-3.44922E-3	-213.029E-12	642.472E-3	-9.87889E-3	-214.830E-12	704.118E-3	-2.95605E-3
-3.45423E-3	-213.586E-12	659.829E-3	-39.9310E-3	-214.157E-12	729.131E-3	9.09437E-3
-3.45923E-3	-214.330E-12	657.423E-3	-38.3929E-3	-214.157E-12	721.826E-3	44.4075E-3
-3.46423E-3	-214.048E-12	661.218E-3	-21.9671E-3	-213.615E-12	728.436E-3	48.9587E-3
-3.46923E-3	-214.777E-12	665.910E-3	-36.0876E-3	-213.502E-12	731.403E-3	18.4792E-3
-3.47424E-3	-215.066E-12	671.665E-3	-50.8433E-3	-213.638E-12	699.165E-3	2.38918E-3
-3.47924E-3	-215.261E-12	709.606E-3	-22.1821E-3	-214.231E-12	692.571E-3	12.8764E-3
-3.48424E-3	-215.241E-12	705.341E-3	2.27179E-3	-214.948E-12	703.844E-3	24.0307E-3
-3.48924E-3	-215.267E-12	658.564E-3	-33.2067E-3	-214.758E-12	691.723E-3	32.3328E-3
-3.49425E-3	-216.144E-12	653.109E-3	-59.0088E-3	-216.775E-12	695.707E-3	19.9216E-3
-3.49925E-3	-215.732E-12	690.927E-3	-11.7061E-3	-217.603E-12	721.120E-3	-38.0784E-3
-3.50425E-3	-216.217E-12	742.749E-3	11.2986E-3	-218.167E-12	698.616E-3	-95.2161E-3
-3.50925E-3	-216.286E-12	751.703E-3	-29.1604E-3	-217.584E-12	661.580E-3	-101.160E-3
-3.51426E-3	-216.836E-12	694.308E-3	-63.3401E-3	-217.687E-12	669.518E-3	-71.9070E-3
-3.51926E-3	-216.689E-12	656.845E-3	-82.4197E-3	-218.733E-12	671.564E-3	-35.6574E-3
-3.52426E-3	-217.452E-12	671.664E-3	-77.1686E-3	-218.219E-12	654.181E-3	-13.3780E-3
-3.52926E-3	-218.156E-12	689.562E-3	-47.7027E-3	-217.318E-12	655.376E-3	-6.56411E-3
-3.53427E-3	-218.569E-12	700.254E-3	-30.0004E-3	-216.922E-12	664.384E-3	3.56366E-3
-3.53927E-3	-218.603E-12	703.611E-3	-7.14537E-3	-216.896E-12	668.047E-3	1.96951E-3
-3.54427E-3	-218.408E-12	689.940E-3	21.8627E-3	-216.334E-12	658.131E-3	-19.3045E-3
-3.54927E-3	-218.205E-12	673.892E-3	22.9172E-3	-215.439E-12	634.973E-3	-29.7931E-3
-3.55428E-3	-218.085E-12	683.472E-3	8.79588E-3	-215.342E-12	622.150E-3	-22.0408E-3
-3.55928E-3	-217.245E-12	700.337E-3	-298.420E-6	-215.051E-12	633.265E-3	-11.9911E-3
-3.56428E-3	-216.922E-12	696.570E-3	-1.39071E-3	-215.342E-12	657.728E-3	-11.6604E-3
-3.56928E-3	-216.220E-12	683.126E-3	-4.93299E-3	-213.998E-12	686.969E-3	-19.8789E-3
-3.57429E-3	-216.114E-12	669.154E-3	-3.86046E-3	-215.156E-12	716.806E-3	-37.7664E-3
-3.57929E-3	-216.242E-12	674.019E-3	-344.343E-6	-215.439E-12	704.989E-3	-39.1087E-3
-3.58429E-3	-216.107E-12	704.371E-3	-16.0415E-3	-216.475E-12	671.529E-3	-13.2354E-3
-3.58929E-3	-217.009E-12	710.830E-3	-44.3786E-3	-216.191E-12	682.503E-3	-5.74366E-3
-3.59430E-3	-217.221E-12	678.444E-3	-51.8559E-3	-217.614E-12	713.794E-3	-6.38478E-3
-3.59930E-3	-219.111E-12	653.140E-3	-19.2278E-3	-218.479E-12	723.620E-3	-3.61943E-3
-3.60430E-3	-220.257E-12	640.894E-3	10.6780E-3	-218.086E-12	715.653E-3	-11.3475E-3
-3.60930E-3	-220.985E-12	636.537E-3	309.083E-6	-219.494E-12	708.991E-3	-33.7361E-3
-3.61431E-3	-222.932E-12	673.847E-3	-27.4298E-3	-220.682E-12	721.937E-3	-65.4817E-3
-3.61931E-3	-224.565E-12	719.561E-3	-33.4002E-3	-221.230E-12	724.260E-3	-42.4245E-3
-3.62431E-3	-224.008E-12	718.124E-3	-23.4571E-3	-221.053E-12	723.056E-3	14.8702E-3
-3.62931E-3	-224.701E-12	709.564E-3	-28.3489E-3	-223.023E-12	743.483E-3	9.54896E-3
-3.63432E-3	-224.956E-12	706.013E-3	-29.6520E-3	-223.208E-12	750.817E-3	-21.7288E-3
-3.63932E-3	-223.835E-12	683.357E-3	-17.3833E-3	-223.360E-12	725.612E-3	-32.8149E-3
-3.64432E-3	-220.835E-12	675.830E-3	-21.5828E-3	-224.354E-12	705.889E-3	-30.4629E-3
-3.64932E-3	-220.658E-12	699.024E-3	-20.3759E-3	-224.036E-12	705.658E-3	-5.45135E-3
-3.65433E-3	-218.780E-12	710.507E-3	-14.3576E-3	-223.297E-12	698.173E-3	19.5442E-3
-3.65933E-3	-217.255E-12	683.280E-3	-28.1881E-3	-223.394E-12	670.880E-3	25.3314E-3
-3.66433E-3	-215.761E-12	659.870E-3	-36.5742E-3	-223.033E-12	636.919E-3	8.03042E-3
-3.66933E-3	-215.660E-12	669.154E-3	-25.5454E-3	-222.008E-12	639.475E-3	612.471E-6
-3.67434E-3	-215.159E-12	672.528E-3	-8.42772E-3	-221.365E-12	670.603E-3	13.7494E-3
-3.67934E-3	-215.928E-12	665.570E-3	-20.2538E-3	-221.581E-12	701.508E-3	11.8701E-3
-3.68434E-3	-217.912E-12	668.124E-3	-34.9883E-3	-221.273E-12	697.125E-3	12.9990E-3
-3.68934E-3	-219.070E-12	653.740E-3	-18.8052E-3	-221.005E-12	652.990E-3	33.2946E-3
-3.69435E-3	-222.686E-12	626.218E-3	-4.87872E-3	-222.454E-12	629.682E-3	25.0046E-3
-3.69935E-3	-224.014E-12	632.867E-3	-10.0494E-3	-224.051E-12	661.388E-3	-16.0593E-3
-3.70435E-3	-225.957E-12	650.929E-3	-21.0698E-3	-224.993E-12	710.939E-3	-20.9461E-3
-3.70935E-3	-228.761E-12	650.319E-3	-33.1289E-3	-225.975E-12	720.594E-3	4.49393E-3
-3.71436E-3	-230.199E-12	673.263E-3	-51.6707E-3	-227.646E-12	702.262E-3	28.4416E-3
-3.71936E-3	-230.964E-12	697.779E-3	-41.2653E-3	-228.631E-12	689.286E-3	10.4853E-3
-3.72436E-3	-231.537E-12	684.664E-3	-5.63326E-3	-230.485E-12	689.099E-3	-37.6502E-3
-3.72936E-3	-232.391E-12	692.663E-3	3.35047E-3	-231.418E-12	698.024E-3	-42.2157E-3
-3.73437E-3	-230.274E-12	720.469E-3	-18.6456E-3	-231.764E-12	713.049E-3	-40.7954E-3
-3.73937E-3	-228.619E-12	707.372E-3	-37.4588E-3	-232.792E-12	712.262E-3	-80.9792E-3
-3.74437E-3	-226.591E-12	679.070E-3	-52.2180E-3	-233.542E-12	691.628E-3	-89.9996E-3
-3.74937E-3	-224.885E-12	673.542E-3	-59.5676E-3	-233.403E-12	667.392E-3	-51.3389E-3
-3.75438E-3	-223.480E-12	671.338E-3	-32.0684E-3	-231.679E-12	657.004E-3	-46.7280E-3
-3.75938E-3	-222.753E-12	670.889E-3	-1.04658E-3	-231.341E-12	671.026E-3	-57.3747E-3
-3.76438E-3	-221.835E-12	668.577E-3	8.72306E-3	-230.180E-12	682.209E-3	-42.8805E-3
-3.76938E-3	-222.185E-12	658.907E-3	-5.06391E-3	-228.725E-12	687.250E-3	-24.8733E-3
-3.77439E-3	-222.105E-12	660.374E-3	-53.4487E-3	-227.382E-12	690.685E-3	-18.2281E-3
-3.77939E-3	-224.036E-12	667.849E-3	-73.9119E-3	-225.042E-12	688.949E-3	-25.6806E-3
-3.78439E-3	-225.697E-12	656.558E-3	-50.6858E-3	-223.911E-12	686.277E-3	-54.5218E-3
-3.78939E-3	-226.952E-12	635.044E-3	-45.5772E-3	-222.962E-12	661.147E-3	-76.6588E-3
-3.79440E-3	-230.265E-12	665.124E-3	-48.9588E-3	-222.668E-12	621.545E-3	-51.9552E-3
-3.79940E-3	-232.315E-12	718.446E-3	-30.9865E-3	-222.033E-12	617.779E-3	-28.3162E-3
-3.80440E-3	-235.033E-12	735.084E-3	-15.5082E-3	-222.473E-12	647.618E-3	-40.9322E-3
-3.80940E-3	-236.206E-12	740.699E-3	-17.3217E-3	-223.397E-12	680.055E-3	-51.7503E-3
-3.81441E-3	-238.178E-12	746.994E-3	-10.9858E-3	-224.452E-12	695.052E-3	-46.8641E-3
-3.81941E-3	-238.513E-12	748.171E-3	-26.3064E-3	-225.130E-12	672.013E-3	-53.9103E-3
-3.82441E-3	-237.926E-12	738.621E-3	-66.0199E-3	-227.249E-12	671.167E-3	-63.6507E-3
-3.82941E-3	-237.711E-12	719.652E-3	-69.1883E-3	-228.407E-12	720.383E-3	-54.4291E-3
-3.83442E-3	-235.274E-12	704.654E-3	-60.5394E-3	-230.323E-12	721.373E-3	-56.4990E-3
-3.83942E-3	-233.448E-12	702.497E-3	-55.6602E-3	-231.164E-12	673.751E-3	-54.0622E-3
-3.84442E-3	-232.432E-12	696.374E-3	-32.6442E-3	-233.270E-12	642.035E-3	-10.1750E-3
-3.84942E-3	-230.432E-12	689.866E-3	-19.8647E-3	-234.761E-12	614.545E-3	28.8110E-3
-3.85443E-3	-228.260E-12	702.597E-3	-21.7611E-3	-233.880E-12	630.456E-3	18.6915E-3
-3.85943E-3	-228.844E-12	691.608E-3	-9.13062E-3	-233.439E-12	691.491E-3	-4.11618E-3
-3.86443E-3	-227.408E-12	650.744E-3	4.42600E-3	-233.814E-12	709.304E-3	6.33275E-3
-3.86943E-3	-226.382E-12	653.553E-3	5.85457E-3	-233.118E-12	711.467E-3	13.9389E-3
-3.87444E-3	-227.709E-12	679.025E-3	16.4562E-3	-231.626E-12	722.734E-3	-17.1749E-3
-3.87944E-3	-228.139E-12	667.902E-3	5.77964E-3	-230.765E-12	701.374E-3	-24.6569E-3
-3.88444E-3	-228.794E-12	679.559E-3	-27.5716E-3	-230.926E-12	691.519E-3	-7.96381E-3
-3.88944E-3	-229.617E-12	701.378E-3	-13.4013E-3	-229.938E-12	721.506E-3	-16.9316E-3
-3.89445E-3	-230.497E-12	681.972E-3	17.8292E-3	-228.390E-12	734.553E-3	-33.3494E-3
-3.89945E-3	-231.626E-12	659.599E-3	-491.157E-6	-230.460E-12	713.163E-3	-40.3018E-3
-3.90445E-3	-233.073E-12	652.997E-3	-38.2579E-3	-230.501E-12	702.625E-3	-41.3591E-3
-3.90945E-3	-233.577E-12	661.921E-3	-45.9035E-3	-230.785E-12	706.192E-3	-34.3232E-3
-3.91446E-3	-233.605E-12	670.700E-3	-24.1687E-3	-231.563E-12	696.794E-3	-16.2373E-3
-3.91946E-3	-235.278E-12	670.140E-3	-568.978E-6	-234.165E-12	684.519E-3	-6.54820E-3
-3.92446E-3	-235.366E-12	684.370E-3	18.2328E-3	-235.622E-12	694.282E-3	-5.84655E-3
-3.92946E-3	-235.566E-12	722.201E-3	12.7464E-3	-236.062E-12	715.722E-3	3.33067E-3
-3.93447E-3	-234.888E-12	729.153E-3	4.75743E-3	-238.309E-12	705.975E-3	12.6273E-3
-3.93947E-3	-236.019E-12	719.649E-3	7.37055E-3	-239.440E-12	660.856E-3	16.5908E-3
-3.94447E-3	-236.336E-12	742.295E-3	-5.80594E-3	-240.181E-12	656.435E-3	-8.92626E-3
-3.94947E-3	-236.622E-12	741.723E-3	-26.9646E-3	-239.773E-12	685.419E-3	-43.1644E-3
-3.95448E-3	-236.267E-12	709.414E-3	-41.6491E-3	-241.529E-12	695.108E-3	-34.6407E-3
-3.95948E-3	-236.220E-12	686.612E-3	-41.8885E-3	-240.200E-12	693.390E-3	-32.5701E-3
-3.96448E-3	-236.339E-12	686.304E-3	-47.2908E-3	-239.507E-12	676.815E-3	-49.4764E-3
-3.96948E-3	-235.650E-12	701.359E-3	-61.1076E-3	-238.113E-12	677.775E-3	-47.0264E-3
-3.97449E-3	-235.132E-12	713.497E-3	-64.8167E-3	-238.097E-12	686.978E-3	-28.7531E-3
-3.97949E-3	-234.950E-12	697.326E-3	-44.6491E-3	-237.262E-12	667.184E-3	-6.78250E-3
-3.98449E-3	-235.179E-12	634.642E-3	-3.11218E-3	-236.322E-12	640.896E-3	16.1234E-3
-3.98949E-3	-232.994E-12	577.418E-3	10.7689E-3	-235.590E-12	628.855E-3	13.7436E-3
-3.99450E-3	-233.993E-12	576.433E-3	-8.75275E-3	-235.189E-12	640.740E-3	6.51821E-3
-3.99950E-3	-233.781E-12	625.042E-3	-1.17370E-3	-235.084E-12	678.972E-3	16.3152E-3
-4.00450E-3	-233.264E-12	672.038E-3	35.2333E-3	-235.205E-12	703.806E-3	21.5741E-3
-4.00950E-3	-232.862E-12	662.546E-3	55.8047E-3	-236.306E-12	704.827E-3	16.8144E-3
-4.01451E-3	-234.297E-12	656.905E-3	53.7855E-3	-237.424E-12	707.149E-3	-7.30845E-3
-4.01951E-3	-235.588E-12	675.647E-3	32.6815E-3	-238.266E-12	724.290E-3	-35.0743E-3
-4.02451E-3	-237.838E-12	653.407E-3	-8.17755E-3	-239.710E-12	726.998E-3	-40.2133E-3
-4.02951E-3	-239.701E-12	621.953E-3	-46.8114E-3	-240.386E-12	695.267E-3	-19.3583E-3
-4.03452E-3	-241.611E-12	651.906E-3	-53.5393E-3	-241.544E-12	688.353E-3	-16.8125E-3
-4.03952E-3	-242.998E-12	700.035E-3	-42.8266E-3	-242.602E-12	704.193E-3	-31.8957E-3
-4.04452E-3	-244.849E-12	691.690E-3	-27.1191E-3	-242.841E-12	716.217E-3	-16.5922E-3
-4.04952E-3	-245.990E-12	698.218E-3	-2.36852E-3	-242.819E-12	722.794E-3	-2.69606E-3
-4.05453E-3	-246.206E-12	751.108E-3	9.58277E-3	-243.919E-12	717.258E-3	-2.48785E-3
-4.05953E-3	-246.909E-12	769.823E-3	1.38213E-3	-243.311E-12	706.297E-3	11.6921E-3
-4.06453E-3	-246.170E-12	739.030E-3	-33.5140E-3	-243.754E-12	708.387E-3	16.0095E-3
-4.06953E-3	-244.232E-12	714.617E-3	-58.1410E-3	-242.641E-12	727.682E-3	18.2750E-3
-4.07454E-3	-243.530E-12	722.356E-3	-42.4772E-3	-242.607E-12	718.611E-3	32.3849E-3
-4.07954E-3	-243.019E-12	735.606E-3	-28.4853E-3	-241.364E-12	702.932E-3	10.6648E-3
-4.08454E-3	-239.979E-12	732.188E-3	-23.0468E-3	-241.934E-12	708.316E-3	-27.5221E-3
-4.08954E-3	-238.162E-12	709.769E-3	-14.7216E-3	-239.773E-12	693.544E-3	-41.4520E-3
-4.09455E-3	-238.668E-12	689.865E-3	-24.2972E-3	-240.110E-12	668.751E-3	-30.7784E-3
-4.09955E-3	-237.171E-12	695.907E-3	-32.6909E-3	-239.486E-12	662.657E-3	-5.92981E-3
-4.10455E-3	-236.785E-12	706.699E-3	-16.1211E-3	-239.355E-12	669.443E-3	3.50406E-3
-4.10955E-3	-237.883E-12	682.638E-3	2.03441E-3	-238.994E-12	665.852E-3	-1.02091E-3
-4.11456E-3	-240.153E-12	683.978E-3	6.00297E-3	-239.830E-12	657.658E-3	-5.82007E-3
-4.11956E-3	-241.019E-12	716.634E-3	19.6554E-3	-239.230E-12	670.759E-3	-13.0903E-3
-4.12456E-3	-244.621E-12	702.785E-3	13.2972E-3	-238.825E-12	687.263E-3	-39.1906E-3
-4.12956E-3	-247.022E-12	686.201E-3	-23.9443E-3	-240.278E-12	690.427E-3	-59.5406E-3
-4.13457E-3	-249.067E-12	717.940E-3	-10.5624E-3	-241.056E-12	686.195E-3	-36.1792E-3
-4.13957E-3	-250.907E-12	746.130E-3	21.5619E-3	-241.907E-12	692.440E-3	-32.3095E-3
-4.14457E-3	-252.059E-12	727.604E-3	21.0998E-3	-243.422E-12	717.978E-3	-60.6812E-3
-4.14957E-3	-251.620E-12	712.118E-3	22.8642E-3	-244.309E-12	733.370E-3	-44.9647E-3
-4.15458E-3	-251.409E-12	723.368E-3	-2.28797E-3	-246.439E-12	724.114E-3	3.71141E-3
-4.15958E-3	-250.572E-12	736.863E-3	-36.0434E-3	-249.084E-12	715.440E-3	19.0951E-3
-4.16458E-3	-248.379E-12	720.523E-3	-16.2003E-3	-249.466E-12	721.346E-3	-11.3057E-3
-4.16958E-3	-247.326E-12	680.908E-3	-12.9621E-3	-250.330E-12	730.846E-3	-24.0492E-3
-4.17459E-3	-245.391E-12	667.677E-3	-38.0708E-3	-251.816E-12	724.862E-3	283.256E-6
-4.17959E-3	-243.204E-12	642.303E-3	-42.7429E-3	-250.831E-12	709.652E-3	-10.5440E-3
-4.18459E-3	-241.534E-12	610.891E-3	-38.4337E-3	-250.220E-12	698.568E-3	-39.7642E-3
-4.18959E-3	-239.677E-12	646.409E-3	-20.1821E-3	-249.992E-12	679.477E-3	-39.7799E-3
-4.19460E-3	-239.223E-12	672.472E-3	-937.107E-6	-249.574E-12	657.974E-3	-28.5064E-3
-4.19960E-3	-239.405E-12	648.810E-3	5.94992E-3	-247.168E-12	650.163E-3	-11.8032E-3
-4.20460E-3	-238.844E-12	667.291E-3	-2.78502E-3	-245.530E-12	667.341E-3	-1.24207E-3
-4.20960E-3	-240.446E-12	686.660E-3	-4.98065E-3	-245.262E-12	666.633E-3	-405.622E-6
-4.21461E-3	-243.116E-12	656.934E-3	1.73437E-3	-244.679E-12	628.066E-3	-4.03536E-3
-4.21961E-3	-244.241E-12	656.947E-3	-10.6389E-3	-244.024E-12	648.113E-3	-10.9306E-3
-4.22461E-3	-247.191E-12	696.325E-3	73.9047E-6	-243.280E-12	714.672E-3	-8.43032E-3
-4.22961E-3	-249.848E-12	720.827E-3	16.8014E-3	-245.290E-12	726.075E-3	9.38110E-3
-4.23462E-3	-252.257E-12	701.528E-3	-7.52110E-3	-244.245E-12	687.152E-3	11.9347E-3
-4.23962E-3	-252.975E-12	671.569E-3	-23.7926E-3	-246.341E-12	655.233E-3	679.147E-6
-4.24462E-3	-254.848E-12	669.824E-3	-3.72750E-3	-248.226E-12	670.239E-3	2.37990E-3
-4.24962E-3	-256.413E-12	691.139E-3	23.5432E-3	-250.444E-12	705.010E-3	-1.60724E-3
-4.25463E-3	-257.599E-12	735.760E-3	36.5175E-3	-251.186E-12	698.960E-3	-4.61962E-3
-4.25963E-3	-256.627E-12	736.268E-3	40.7951E-3	-254.219E-12	698.144E-3	-7.30596E-3
-4.26463E-3	-256.254E-12	700.828E-3	14.4539E-3	-256.732E-12	739.537E-3	-3.46925E-3
-4.26963E-3	-254.617E-12	714.048E-3	-20.2189E-3	-256.869E-12	717.627E-3	31.8294E-3
-4.27464E-3	-253.954E-12	738.011E-3	-29.2231E-3	-257.875E-12	671.351E-3	44.3516E-3
-4.27964E-3	-252.377E-12	741.390E-3	-37.2646E-3	-256.995E-12	689.452E-3	-2.35968E-3
-4.28464E-3	-249.672E-12	723.119E-3	-36.5485E-3	-257.144E-12	720.198E-3	-31.0655E-3
-4.28964E-3	-249.395E-12	684.301E-3	-48.3406E-3	-255.410E-12	736.292E-3	-7.64831E-3
-4.29465E-3	-248.067E-12	652.960E-3	-77.6155E-3	-255.632E-12	711.545E-3	-3.74465E-3
-4.29965E-3	-246.401E-12	654.242E-3	-49.5182E-3	-253.798E-12	669.268E-3	-26.6278E-3
-4.30465E-3	-246.280E-12	660.542E-3	-16.4998E-3	-251.942E-12	655.083E-3	-27.2107E-3
-4.30965E-3	-247.936E-12	646.462E-3	-42.5430E-3	-251.682E-12	661.679E-3	-17.8403E-3
-4.31466E-3	-247.126E-12	654.452E-3	-40.3050E-3	-250.428E-12	656.307E-3	-28.3145E-3
-4.31966E-3	-249.090E-12	659.905E-3	-23.4481E-3	-249.725E-12	641.301E-3	-22.3961E-3
-4.32466E-3	-250.607E-12	648.568E-3	-29.7619E-3	-248.083E-12	649.151E-3	-1.21234E-3
-4.32966E-3	-253.279E-12	670.206E-3	-13.9644E-3	-250.937E-12	661.712E-3	2.85867E-3
-4.33467E-3	-253.491E-12	693.371E-3	11.2112E-3	-249.765E-12	665.925E-3	10.8963E-3
-4.33967E-3	-255.169E-12	702.833E-3	10.0413E-3	-251.362E-12	691.126E-3	29.0403E-3
-4.34467E-3	-258.446E-12	711.234E-3	4.96416E-3	-252.511E-12	708.231E-3	18.7541E-3
-4.34967E-3	-259.088E-12	696.266E-3	25.0405E-3	-255.099E-12	706.282E-3	-13.8556E-3
-4.35468E-3	-259.321E-12	694.057E-3	26.7620E-3	-255.117E-12	712.992E-3	-25.2278E-3
-4.35968E-3	-260.098E-12	705.689E-3	9.56413E-3	-256.730E-12	704.437E-3	-20.6624E-3
-4.36468E-3	-261.431E-12	691.306E-3	12.2147E-3	-257.583E-12	698.194E-3	-36.9840E-3
-4.36968E-3	-259.888E-12	701.182E-3	4.90077E-3	-256.655E-12	707.765E-3	-67.5665E-3
-4.37469E-3	-259.796E-12	742.878E-3	-5.57643E-3	-257.920E-12	690.874E-3	-54.7710E-3
-4.37969E-3	-259.194E-12	756.526E-3	-5.75554E-3	-257.132E-12	661.824E-3	-14.8880E-3
-4.38469E-3	-259.545E-12	725.833E-3	-2.76757E-3	-255.565E-12	662.502E-3	-15.5061E-3
-4.38969E-3	-258.309E-12	690.351E-3	-2.02638E-3	-255.614E-12	669.876E-3	-43.4293E-3
-4.39470E-3	-256.880E-12	687.760E-3	-2.28340E-3	-256.263E-12	664.259E-3	-29.1675E-3
-4.39970E-3	-256.054E-12	689.340E-3	84.8821E-6	-253.654E-12	656.321E-3	-122.969E-6
-4.40470E-3	-255.843E-12	685.815E-3	-22.1137E-3	-252.524E-12	675.373E-3	-21.3431E-3
-4.40970E-3	-254.138E-12	682.085E-3	-45.8231E-3	-253.586E-12	713.169E-3	-48.7480E-3
-4.41471E-3	-253.250E-12	659.155E-3	-33.5119E-3	-253.024E-12	735.571E-3	-42.9154E-3
-4.41971E-3	-253.147E-12	644.014E-3	-12.0795E-3	-251.841E-12	742.023E-3	-33.4366E-3
-4.42471E-3	-252.935E-12	668.647E-3	-22.7162E-3	-253.743E-12	728.660E-3	-27.7250E-3
-4.42971E-3	-253.810E-12	719.944E-3	-43.5333E-3	-254.161E-12	709.660E-3	-20.5651E-3
-4.43472E-3	-254.856E-12	729.411E-3	-30.3871E-3	-254.414E-12	690.711E-3	-8.80498E-3
-4.43972E-3	-255.990E-12	674.464E-3	14.1524E-3	-256.306E-12	673.702E-3	12.7918E-3
-4.44472E-3	-257.546E-12	654.996E-3	21.0871E-3	-258.483E-12	694.862E-3	15.2573E-3
-4.44972E-3	-257.349E-12	667.645E-3	1.49879E-3	-260.110E-12	721.190E-3	-33.6846E-3
-4.45473E-3	-258.513E-12	641.508E-3	-13.8387E-3	-262.128E-12	683.756E-3	-65.4954E-3
-4.45973E-3	-260.046E-12	616.896E-3	-51.7254E-3	-262.858E-12	656.160E-3	-33.9365E-3
-4.46473E-3	-259.889E-12	632.762E-3	-63.2452E-3	-263.337E-12	670.156E-3	11.7817E-3
-4.46973E-3	-259.792E-12	650.573E-3	-41.5961E-3	-265.013E-12	658.807E-3	20.8812E-3
-4.47474E-3	-261.824E-12	667.223E-3	-50.6762E-3	-264.576E-12	664.937E-3	-3.87169E-3
-4.47974E-3	-261.816E-12	696.199E-3	-59.2341E-3	-265.584E-12	689.395E-3	-11.5372E-3
-4.48474E-3	-261.526E-12	676.675E-3	-29.3651E-3	-265.690E-12	686.590E-3	-4.14185E-3
-4.48974E-3	-261.833E-12	634.640E-3	4.65455E-3	-264.610E-12	678.992E-3	3.90886E-3
-4.49475E-3	-259.941E-12	657.368E-3	22.1845E-3	-264.888E-12	679.213E-3	9.29673E-3
-4.49975E-3	-258.754E-12	693.446E-3	9.47870E-3	-264.234E-12	648.469E-3	5.90264E-3
-4.50475E-3	-258.693E-12	678.481E-3	-11.5718E-3	-263.146E-12	614.137E-3	-4.58484E-3
-4.50975E-3	-257.127E-12	668.702E-3	-8.61075E-3	-262.059E-12	626.455E-3	-31.4526E-3
-4.51476E-3	-255.224E-12	675.844E-3	-21.1443E-3	-262.814E-12	647.289E-3	-49.6780E-3
-4.51976E-3	-257.476E-12	664.007E-3	-48.1469E-3	-261.388E-12	670.830E-3	-45.3614E-3
-4.52476E-3	-256.570E-12	673.614E-3	-49.3131E-3	-261.109E-12	684.564E-3	-38.6717E-3
-4.52976E-3	-256.908E-12	674.927E-3	-23.1685E-3	-261.042E-12	672.037E-3	-18.4845E-3
-4.53477E-3	-258.435E-12	640.242E-3	-8.56890E-3	-261.310E-12	675.649E-3	7.64580E-3
-4.53977E-3	-260.033E-12	650.747E-3	-16.8144E-3	-261.919E-12	680.846E-3	-8.26783E-3
-4.54477E-3	-259.832E-12	679.356E-3	-24.1792E-3	-262.462E-12	665.218E-3	-19.9668E-3
-4.54977E-3	-262.493E-12	666.764E-3	-39.2749E-3	-264.467E-12	666.829E-3	2.26366E-3
-4.55478E-3	-263.725E-12	671.489E-3	-46.2146E-3	-264.506E-12	679.160E-3	-27.4510E-3
-4.55978E-3	-265.423E-12	696.424E-3	-15.8371E-3	-266.611E-12	678.042E-3	-62.7331E-3
-4.56478E-3	-267.401E-12	699.253E-3	31.3525E-3	-266.051E-12	691.516E-3	-37.0544E-3
-4.56978E-3	-268.829E-12	696.376E-3	23.9357E-3	-268.332E-12	718.749E-3	-30.2177E-3
-4.57479E-3	-269.133E-12	687.998E-3	-28.2187E-3	-268.913E-12	711.978E-3	-64.0802E-3
-4.57979E-3	-270.734E-12	697.545E-3	-53.8030E-3	-269.301E-12	662.880E-3	-68.9473E-3
-4.58479E-3	-270.205E-12	706.673E-3	-27.2027E-3	-269.005E-12	629.715E-3	-35.3829E-3
-4.58979E-3	-268.530E-12	689.034E-3	9.05098E-3	-269.975E-12	642.983E-3	-29.7371E-3
-4.59480E-3	-268.967E-12	671.473E-3	14.3617E-3	-268.164E-12	677.306E-3	-58.0758E-3
-4.59980E-3	-266.425E-12	683.334E-3	12.1797E-3	-267.761E-12	700.355E-3	-81.5605E-3
-4.60480E-3	-265.518E-12	684.446E-3	6.41698E-3	-268.127E-12	695.505E-3	-90.1301E-3
-4.60980E-3	-264.140E-12	647.376E-3	-872.245E-6	-266.756E-12	684.610E-3	-61.9065E-3
-4.61481E-3	-264.336E-12	640.473E-3	-20.9480E-3	-265.637E-12	661.444E-3	-11.3100E-3
-4.61981E-3	-263.134E-12	663.569E-3	-52.4804E-3	-263.757E-12	640.201E-3	5.67320E-3
-4.62481E-3	-263.024E-12	689.127E-3	-55.6507E-3	-262.328E-12	637.949E-3	-18.4902E-3
-4.62981E-3	-262.696E-12	703.612E-3	-43.3691E-3	-260.778E-12	651.539E-3	-26.1200E-3
-4.63482E-3	-264.314E-12	677.132E-3	-50.2684E-3	-260.950E-12	665.891E-3	-25.4704E-3
-4.63982E-3	-265.231E-12	638.585E-3	-54.2763E-3	-260.942E-12	641.434E-3	-44.3458E-3
-4.64482E-3	-266.302E-12	629.541E-3	-20.7696E-3	-260.101E-12	644.872E-3	-42.9487E-3
-4.64982E-3	-269.539E-12	645.815E-3	23.6994E-3	-260.947E-12	678.624E-3	-54.7113E-3
-4.65483E-3	-272.667E-12	680.523E-3	21.9763E-3	-262.363E-12	667.682E-3	-91.0501E-3
-4.65983E-3	-273.296E-12	725.815E-3	19.8240E-3	-263.406E-12	642.084E-3	-80.4119E-3
-4.66483E-3	-275.395E-12	753.106E-3	34.9368E-3	-264.261E-12	642.056E-3	-25.4809E-3
-4.66983E-3	-277.590E-12	734.518E-3	19.8122E-3	-267.390E-12	665.811E-3	14.1237E-3
-4.67484E-3	-277.625E-12	703.006E-3	9.33208E-3	-268.457E-12	674.217E-3	-5.65717E-3
-4.67984E-3	-277.971E-12	683.456E-3	10.3716E-3	-270.484E-12	664.758E-3	-1.15608E-3
-4.68484E-3	-278.353E-12	693.144E-3	5.10244E-3	-272.152E-12	691.341E-3	34.7720E-3
-4.68984E-3	-276.995E-12	716.890E-3	-7.49806E-3	-272.787E-12	723.749E-3	11.4751E-3
-4.69485E-3	-274.448E-12	705.226E-3	-33.7390E-3	-273.650E-12	711.451E-3	-11.8964E-3
-4.69985E-3	-272.655E-12	674.123E-3	-41.2011E-3	-273.278E-12	684.963E-3	-32.1892E-3
-4.70485E-3	-270.985E-12	653.535E-3	-38.6580E-3	-273.841E-12	667.949E-3	-66.3071E-3
-4.70985E-3	-268.656E-12	657.700E-3	-51.8641E-3	-274.552E-12	671.988E-3	-70.6772E-3
-4.71486E-3	-266.224E-12	662.970E-3	-53.4952E-3	-272.501E-12	702.140E-3	-76.6590E-3
-4.71986E-3	-264.880E-12	646.687E-3	-39.9627E-3	-271.289E-12	702.704E-3	-78.8382E-3
-4.72486E-3	-263.543E-12	642.192E-3	-16.3413E-3	-269.562E-12	675.568E-3	-45.4508E-3
-4.72986E-3	-264.771E-12	654.425E-3	8.43858E-3	-268.994E-12	697.863E-3	-18.1340E-3
-4.73487E-3	-265.101E-12	647.952E-3	4.22022E-3	-268.458E-12	739.473E-3	-17.7255E-3
-4.73987E-3	-266.310E-12	616.020E-3	-26.1173E-3	-267.729E-12	719.437E-3	-34.1739E-3
-4.74487E-3	-267.548E-12	594.710E-3	-33.4031E-3	-267.269E-12	653.104E-3	-43.9769E-3
-4.74988E-3	-269.170E-12	616.549E-3	-24.5930E-3	-269.081E-12	624.413E-3	-48.5333E-3
-4.75488E-3	-271.865E-12	659.008E-3	-14.8516E-3	-269.547E-12	635.509E-3	-66.2450E-3
-4.75988E-3	-274.017E-12	679.372E-3	-18.3789E-3	-269.923E-12	646.252E-3	-68.2961E-3
-4.76488E-3	-275.487E-12	680.663E-3	-33.5929E-3	-271.801E-12	661.754E-3	-23.9813E-3
-4.76988E-3	-277.310E-12	668.296E-3	-15.9389E-3	-273.664E-12	666.693E-3	22.2844E-3
-4.77489E-3	-279.134E-12	671.760E-3	-8.12163E-3	-275.080E-12	669.728E-3	29.6436E-3
-4.77989E-3	-278.219E-12	708.016E-3	-17.9566E-3	-276.504E-12	686.763E-3	39.0000E-3
-4.78489E-3	-280.014E-12	703.300E-3	-14.0226E-3	-279.532E-12	678.175E-3	33.1083E-3
-4.78989E-3	-278.269E-12	640.202E-3	-16.5034E-3	-280.698E-12	656.900E-3	-6.60402E-3
-4.79490E-3	-276.878E-12	630.648E-3	-12.0120E-3	-280.767E-12	686.683E-3	-13.1364E-3
-4.79990E-3	-275.060E-12	707.268E-3	-10.8451E-3	-281.094E-12	714.166E-3	16.1914E-3
-4.80490E-3	-274.675E-12	738.340E-3	-32.7462E-3	-280.370E-12	688.752E-3	9.60387E-3
-4.80990E-3	-271.262E-12	699.220E-3	-32.9015E-3	-280.546E-12	648.793E-3	-16.4502E-3
-4.81491E-3	-270.886E-12	668.234E-3	-6.70782E-3	-278.490E-12	626.523E-3	-7.34999E-3
-4.81991E-3	-269.951E-12	638.670E-3	10.3024E-3	-277.024E-12	629.986E-3	-18.6000E-3
-4.82491E-3	-271.176E-12	597.097E-3	25.1046E-3	-275.636E-12	638.868E-3	-70.5475E-3
-4.82991E-3	-270.058E-12	607.945E-3	32.3718E-3	-273.472E-12	638.975E-3	-83.6324E-3
-4.83492E-3	-271.174E-12	663.478E-3	3.25005E-3	-272.663E-12	660.513E-3	-55.0758E-3
-4.83992E-3	-272.297E-12	684.570E-3	-30.5391E-3	-271.170E-12	703.233E-3	-51.3799E-3
-4.84492E-3	-273.988E-12	682.837E-3	-30.2720E-3	-270.500E-12	709.837E-3	-32.7766E-3
-4.84992E-3	-274.729E-12	675.473E-3	9.73641E-3	-271.055E-12	687.409E-3	11.6461E-3
-4.85493E-3	-276.711E-12	661.132E-3	54.6371E-3	-271.500E-12	669.528E-3	-1.18641E-3
-4.85993E-3	-277.722E-12	660.985E-3	54.1900E-3	-271.230E-12	667.903E-3	-17.1069E-3
-4.86493E-3	-278.746E-12	659.026E-3	24.1549E-3	-274.073E-12	673.173E-3	9.24679E-3
-4.86993E-3	-280.679E-12	661.565E-3	-3.78501E-3	-276.031E-12	644.758E-3	3.97791E-3
-4.87494E-3	-281.235E-12	675.271E-3	-22.5777E-3	-278.020E-12	604.810E-3	-44.3244E-3
-4.87994E-3	-282.167E-12	666.681E-3	-30.6356E-3	-280.713E-12	643.151E-3	-99.4515E-3
-4.88494E-3	-283.614E-12	674.900E-3	-37.8588E-3	-282.805E-12	717.723E-3	-107.214E-3
-4.88995E-3	-283.697E-12	719.882E-3	-32.1533E-3	-283.736E-12	712.775E-3	-50.7650E-3
-4.89495E-3	-282.339E-12	722.906E-3	-21.2379E-3	-285.170E-12	689.402E-3	-14.3226E-3
-4.89995E-3	-283.516E-12	684.857E-3	-23.7945E-3	-286.980E-12	689.861E-3	-1.58244E-3
-4.90495E-3	-281.884E-12	671.081E-3	-15.2003E-3	-286.424E-12	655.909E-3	18.9749E-3
-4.90995E-3	-280.796E-12	690.412E-3	-24.5687E-3	-284.992E-12	631.268E-3	29.5376E-3
-4.91496E-3	-279.940E-12	759.945E-3	-44.3665E-3	-284.522E-12	635.486E-3	32.7488E-3
-4.91996E-3	-278.639E-12	827.200E-3	-37.0572E-3	-281.961E-12	644.679E-3	12.2536E-3
-4.92496E-3	-278.114E-12	785.843E-3	-30.3805E-3	-280.871E-12	655.176E-3	-32.7201E-3
-4.92996E-3	-277.031E-12	678.842E-3	-44.3459E-3	-277.803E-12	639.585E-3	-44.4551E-3
-4.93497E-3	-277.046E-12	649.306E-3	-60.6854E-3	-275.910E-12	636.482E-3	-17.6736E-3
-4.93997E-3	-275.538E-12	685.456E-3	-45.1856E-3	-274.321E-12	655.512E-3	-1.15653E-3
-4.94497E-3	-276.440E-12	676.634E-3	-23.1528E-3	-274.087E-12	663.171E-3	2.22671E-3
-4.94997E-3	-277.502E-12	661.602E-3	-18.8529E-3	-272.759E-12	644.365E-3	1.62508E-3
-4.95498E-3	-278.878E-12	689.028E-3	-16.5547E-3	-272.616E-12	618.250E-3	14.6312E-3
-4.95998E-3	-278.356E-12	687.042E-3	-21.2855E-3	-274.429E-12	616.651E-3	30.1618E-3
-4.96498E-3	-281.828E-12	663.322E-3	-17.7800E-3	-276.043E-12	660.728E-3	12.7229E-3
-4.96998E-3	-282.297E-12	642.648E-3	-16.7029E-3	-277.901E-12	734.309E-3	-51.3027E-3
-4.97499E-3	-284.026E-12	618.367E-3	-44.4602E-3	-278.790E-12	733.307E-3	-90.2696E-3
-4.97999E-3	-285.760E-12	625.040E-3	-52.0776E-3	-281.550E-12	674.644E-3	-35.9069E-3
-4.98499E-3	-287.194E-12	661.900E-3	-22.8470E-3	-283.372E-12	659.881E-3	-3.88375E-3
-4.98999E-3	-287.560E-12	693.295E-3	36.2817E-6	-285.680E-12	690.319E-3	-41.1125E-3
-4.99500E-3	-287.216E-12	690.961E-3	11.8169E-3	-286.574E-12	688.643E-3	-52.4261E-3
-5.00000E-3	-288.154E-12	658.389E-3	5.10245E-3	-287.540E-12	649.954E-3	-24.3397E-3
