Experiment	bias spectroscopy	
Date	19.01.2016 21:07:57	
User		
X (m)	50.3416E-9	
Y (m)	257.409E-9	
Z (m)	-132.578E-9	
Z offset (m)	0E+0	
Settling time (s)	200E-6	
Integration time (s)	5E-3	
Z-Ctrl hold	TRUE	
Final Z (m)	N/A	
Filter type	None	
Order		
Cutoff frq		
Comment01	MnPc/Pb(111)	
Comment02	dz =00pm	
Comment03	7 Sweeps	
Comment04	MagField =0.T	
Comment05	Divider 1:10	
Comment06	Setpoint:5mV,200 pA	
Comment07	Lockin: 50uVrms,5ms,5mV	
Comment08	Gain:9; 912Hz modulation	
Comment09	T=1.06K	
Bias>Bias (V)	5E-3	
Bias>Calibration (V/V)	81.475E-3	
Bias>Offset (V)	1.046E-3	
Bias Spectroscopy>Sweep Start (V)	5E-3	
Bias Spectroscopy>Sweep End (V)	-5E-3	
Bias Spectroscopy>Num Pixel	2000	
Bias Spectroscopy>Z Avg time (s)	500E-3	
Bias Spectroscopy>Z offset (m)	0E+0	
Bias Spectroscopy>1st Settling time (s)	500E-3	
Bias Spectroscopy>Settling time (s)	200E-6	
Bias Spectroscopy>Integration time (s)	5E-3	
Bias Spectroscopy>End Settling time (s)	500E-3	
Bias Spectroscopy>Z control time (s)	500E-3	
Bias Spectroscopy>Max Slew rate (V/s)	Inf	
Bias Spectroscopy>backward sweep	TRUE	
Bias Spectroscopy>Z-controller hold	TRUE	
Bias Spectroscopy>Number of sweeps	7	
Bias Spectroscopy>Channels	Current (A);X% LockIn (V);Y% LockIn (V)	
Bias Spectroscopy>Reset Bias	TRUE	
Bias Spectroscopy>Record final Z	FALSE	
Bias Spectroscopy>Lock-In run	FALSE	
Bias Spectroscopy>Sweep mode	Linear	
Bias Spectroscopy>MultiLine Settings : Segment Start (V), Segment End (V), Settling (s), Integration (s), Steps (xn)	100E-3,3.3E-3,100E-6,10E-3,2500;3.3E-3,-3.3E-3,100E-6,10E-3,10;-3.3E-3,-100E-3,100E-6,10E-3,2500	
Current>Current (A)	200.094E-12	
Current>Calibration (A/V)	999.99900E-12	
Current>Offset (A)	-455.429E-15	
Current>Gain	LN 10^9	
Z-Controller>Z (m)	-132.578E-9	
Z-Controller>Controller name	log Current	
Z-Controller>Controller status	ON	
Z-Controller>Setpoint	200E-12	
Z-Controller>Setpoint unit	A	
Z-Controller>P gain	2.96994E-12	
Z-Controller>I gain	67.0321E-9	
Z-Controller>Time const (s)	44.3062E-6	
Z-Controller>TipLift (m)	0E+0	
Z-Controller>Switch off delay (s)	50E-3	
Current (A)	200.071E-12	
Z (m)	-132.578E-9	

[DATA]
Bias calc (V)	Current (A)	X% LockIn (V)	Y% LockIn (V)	Current [bwd] (A)	X% LockIn [bwd] (V)	Y% LockIn [bwd] (V)
5.00000E-3	195.751E-12	602.554E-3	35.2739E-3	202.149E-12	681.484E-3	-34.0071E-3
4.99500E-3	195.816E-12	613.940E-3	12.2183E-3	202.761E-12	664.234E-3	-49.1232E-3
4.98999E-3	196.399E-12	612.795E-3	967.215E-6	203.678E-12	636.914E-3	-50.2694E-3
4.98499E-3	196.446E-12	609.819E-3	-380.860E-6	203.488E-12	602.134E-3	-19.4627E-3
4.97999E-3	197.129E-12	626.652E-3	-10.9783E-3	202.818E-12	581.915E-3	2.47415E-3
4.97499E-3	196.848E-12	629.977E-3	-21.2912E-3	201.574E-12	591.086E-3	-11.2613E-3
4.96998E-3	198.764E-12	619.736E-3	-25.7562E-3	200.113E-12	598.676E-3	-23.7901E-3
4.96498E-3	199.555E-12	613.867E-3	-23.4295E-3	198.828E-12	601.763E-3	-17.7897E-3
4.95998E-3	200.818E-12	614.433E-3	-1.29885E-3	198.492E-12	620.832E-3	-25.1221E-3
4.95498E-3	200.884E-12	610.463E-3	13.3645E-3	196.661E-12	619.554E-3	-41.4619E-3
4.94997E-3	201.900E-12	626.820E-3	6.99072E-3	195.322E-12	608.418E-3	-19.0675E-3
4.94497E-3	200.823E-12	659.686E-3	-17.8404E-3	195.435E-12	615.610E-3	10.0532E-3
4.93997E-3	200.844E-12	672.032E-3	-31.5907E-3	195.717E-12	619.942E-3	6.35196E-3
4.93497E-3	200.931E-12	660.632E-3	-18.5205E-3	194.795E-12	624.907E-3	8.90444E-3
4.92996E-3	199.265E-12	641.519E-3	-4.48901E-3	194.882E-12	635.435E-3	4.34438E-3
4.92496E-3	198.264E-12	636.160E-3	-7.11169E-3	195.307E-12	646.468E-3	-43.7184E-3
4.91996E-3	196.931E-12	653.864E-3	-25.2665E-3	196.187E-12	661.871E-3	-74.7076E-3
4.91496E-3	196.365E-12	671.395E-3	-52.3782E-3	196.462E-12	674.001E-3	-64.3611E-3
4.90995E-3	194.797E-12	634.730E-3	-56.6687E-3	197.191E-12	650.692E-3	-60.5636E-3
4.90495E-3	194.127E-12	601.919E-3	-23.8830E-3	198.148E-12	600.922E-3	-37.4430E-3
4.89995E-3	192.131E-12	623.089E-3	1.00276E-3	198.664E-12	590.874E-3	-818.560E-6
4.89495E-3	192.176E-12	632.011E-3	4.20660E-3	198.926E-12	622.617E-3	-15.0244E-3
4.88995E-3	192.752E-12	626.775E-3	3.10637E-3	198.985E-12	637.713E-3	-33.1896E-3
4.88494E-3	192.639E-12	652.107E-3	2.17827E-3	198.535E-12	631.594E-3	-7.88518E-3
4.87994E-3	192.833E-12	654.229E-3	-5.69952E-3	196.825E-12	617.024E-3	2.78738E-3
4.87494E-3	194.203E-12	623.973E-3	-24.3456E-3	196.612E-12	600.180E-3	-3.34608E-3
4.86993E-3	194.611E-12	631.783E-3	-39.3059E-3	195.217E-12	592.613E-3	20.9137E-3
4.86493E-3	195.900E-12	657.465E-3	-20.0481E-3	194.112E-12	594.331E-3	22.4150E-3
4.85993E-3	196.376E-12	651.241E-3	6.39233E-3	193.030E-12	607.214E-3	-14.5346E-3
4.85493E-3	196.473E-12	637.427E-3	225.944E-6	192.401E-12	615.892E-3	-26.8604E-3
4.84992E-3	196.545E-12	638.649E-3	-22.2038E-3	191.599E-12	595.461E-3	-24.0733E-3
4.84492E-3	197.019E-12	640.989E-3	-40.3459E-3	191.125E-12	583.040E-3	-29.0308E-3
4.83992E-3	195.985E-12	643.164E-3	-33.4265E-3	190.869E-12	598.828E-3	-12.0447E-3
4.83492E-3	195.630E-12	622.072E-3	-10.0108E-3	191.071E-12	605.261E-3	9.24442E-3
4.82991E-3	195.091E-12	594.082E-3	-10.4476E-3	191.558E-12	603.171E-3	2.23458E-3
4.82491E-3	194.516E-12	591.305E-3	-37.8520E-3	192.043E-12	607.091E-3	-10.0643E-3
4.81991E-3	193.009E-12	594.163E-3	-54.0506E-3	192.070E-12	633.242E-3	-12.3953E-3
4.81491E-3	192.265E-12	592.914E-3	-41.5018E-3	192.778E-12	654.272E-3	-17.7328E-3
4.80990E-3	191.221E-12	602.760E-3	-20.1834E-3	193.507E-12	638.515E-3	-33.6325E-3
4.80490E-3	190.814E-12	611.576E-3	-12.7662E-3	193.902E-12	627.193E-3	-35.8665E-3
4.79990E-3	189.140E-12	596.787E-3	-19.7523E-3	193.401E-12	618.597E-3	-29.1433E-3
4.79490E-3	189.577E-12	588.639E-3	-24.0362E-3	193.212E-12	613.608E-3	-35.4664E-3
4.78989E-3	187.994E-12	604.917E-3	-12.3462E-3	193.223E-12	633.019E-3	-20.4117E-3
4.78489E-3	187.676E-12	620.000E-3	-7.55391E-3	193.012E-12	651.633E-3	14.5577E-3
4.77989E-3	189.589E-12	638.955E-3	-18.3861E-3	192.069E-12	646.696E-3	24.7469E-3
4.77489E-3	189.615E-12	654.911E-3	-10.9637E-3	191.555E-12	632.742E-3	-2.00052E-3
4.76988E-3	189.291E-12	638.702E-3	3.22039E-3	191.115E-12	637.527E-3	-21.9797E-3
4.76488E-3	189.629E-12	620.333E-3	-10.7587E-3	191.237E-12	652.657E-3	-5.33222E-3
4.75988E-3	190.796E-12	613.157E-3	-33.7965E-3	190.995E-12	668.407E-3	4.88378E-3
4.75488E-3	190.649E-12	609.065E-3	-21.3936E-3	191.347E-12	664.707E-3	-3.06282E-3
4.74988E-3	190.524E-12	615.841E-3	1.65003E-3	190.474E-12	633.698E-3	-15.0012E-3
4.74487E-3	190.453E-12	625.670E-3	-4.77990E-3	190.470E-12	626.708E-3	-32.6784E-3
4.73987E-3	191.745E-12	630.336E-3	-28.9615E-3	190.639E-12	645.310E-3	-25.1372E-3
4.73487E-3	191.555E-12	644.240E-3	-58.2138E-3	190.928E-12	647.493E-3	6.49816E-3
4.72986E-3	191.022E-12	664.409E-3	-66.8893E-3	190.125E-12	635.550E-3	13.7093E-3
4.72486E-3	190.816E-12	645.510E-3	-40.9938E-3	189.595E-12	630.429E-3	-7.35379E-3
4.71986E-3	189.635E-12	626.267E-3	-30.7721E-3	189.395E-12	642.365E-3	-21.2787E-3
4.71486E-3	189.048E-12	644.846E-3	-36.5701E-3	188.949E-12	648.978E-3	-22.6994E-3
4.70985E-3	188.279E-12	645.807E-3	-36.4387E-3	188.453E-12	639.045E-3	-17.1417E-3
4.70485E-3	187.505E-12	629.034E-3	-35.2626E-3	187.424E-12	637.349E-3	5.44912E-3
4.69985E-3	186.682E-12	619.294E-3	-26.2864E-3	187.737E-12	632.177E-3	20.3465E-3
4.69485E-3	185.369E-12	591.521E-3	-35.1549E-3	187.715E-12	630.545E-3	3.83169E-3
4.68984E-3	186.369E-12	571.766E-3	-37.9751E-3	187.705E-12	643.802E-3	-29.0258E-3
4.68484E-3	185.622E-12	596.095E-3	-7.58785E-3	187.454E-12	640.183E-3	-29.3637E-3
4.67984E-3	185.265E-12	621.477E-3	9.37585E-3	187.813E-12	625.682E-3	6.37441E-3
4.67484E-3	185.358E-12	626.182E-3	8.18543E-3	187.120E-12	614.304E-3	5.78803E-3
4.66983E-3	186.295E-12	626.799E-3	22.5352E-3	188.000E-12	617.914E-3	-13.9069E-3
4.66483E-3	185.840E-12	617.995E-3	23.1923E-3	188.680E-12	626.696E-3	-757.533E-6
4.65983E-3	185.807E-12	615.281E-3	-15.9456E-3	187.507E-12	616.854E-3	-1.83647E-3
4.65483E-3	187.156E-12	639.881E-3	-28.5557E-3	188.099E-12	608.045E-3	-12.6576E-3
4.64982E-3	186.964E-12	643.809E-3	-4.88445E-3	188.190E-12	619.266E-3	-9.74536E-3
4.64482E-3	188.041E-12	619.065E-3	-9.09022E-3	187.482E-12	643.353E-3	-31.9587E-3
4.63982E-3	189.152E-12	614.557E-3	-11.0314E-3	186.533E-12	647.202E-3	-52.1945E-3
4.63482E-3	188.476E-12	613.379E-3	14.0946E-3	185.889E-12	647.876E-3	-40.2411E-3
4.62981E-3	188.498E-12	608.999E-3	8.38002E-3	184.319E-12	676.592E-3	-31.4063E-3
4.62481E-3	189.104E-12	625.102E-3	-30.3133E-3	183.948E-12	692.363E-3	-30.8095E-3
4.61981E-3	189.661E-12	649.224E-3	-60.9150E-3	183.820E-12	680.002E-3	-27.3102E-3
4.61481E-3	187.891E-12	649.173E-3	-70.1455E-3	182.727E-12	664.366E-3	-24.5706E-3
4.60980E-3	187.852E-12	624.276E-3	-49.1652E-3	181.350E-12	663.381E-3	-3.65517E-3
4.60480E-3	185.609E-12	611.721E-3	-10.2374E-3	181.441E-12	661.491E-3	22.0670E-3
4.59980E-3	185.083E-12	615.516E-3	8.60048E-3	181.397E-12	638.591E-3	290.631E-6
4.59480E-3	184.879E-12	619.949E-3	7.10156E-3	182.253E-12	619.719E-3	-50.4054E-3
4.58979E-3	183.013E-12	634.004E-3	7.96300E-3	182.678E-12	617.291E-3	-49.3790E-3
4.58479E-3	181.119E-12	650.554E-3	4.31869E-3	182.694E-12	627.750E-3	-1.63893E-3
4.57979E-3	180.510E-12	657.125E-3	-7.86319E-3	182.816E-12	638.655E-3	30.2140E-3
4.57479E-3	180.138E-12	633.504E-3	-15.9656E-3	184.414E-12	637.342E-3	29.0838E-3
4.56978E-3	179.118E-12	600.658E-3	-20.0741E-3	184.341E-12	634.600E-3	4.13392E-3
4.56478E-3	178.676E-12	610.474E-3	-21.6461E-3	183.769E-12	636.160E-3	-24.3306E-3
4.55978E-3	179.269E-12	629.498E-3	-10.1878E-3	184.446E-12	640.369E-3	-45.5261E-3
4.55478E-3	179.994E-12	613.228E-3	-6.39721E-3	184.925E-12	657.792E-3	-38.6694E-3
4.54977E-3	180.187E-12	602.165E-3	-18.4216E-3	184.397E-12	669.976E-3	-6.74622E-3
4.54477E-3	180.006E-12	628.097E-3	-13.5311E-3	183.862E-12	648.900E-3	8.37180E-3
4.53977E-3	181.010E-12	628.825E-3	621.878E-6	183.044E-12	623.246E-3	14.7570E-3
4.53477E-3	181.240E-12	613.634E-3	-10.6646E-3	181.626E-12	615.933E-3	17.5965E-3
4.52976E-3	182.880E-12	619.081E-3	-16.8616E-3	180.719E-12	617.164E-3	3.22828E-3
4.52476E-3	182.959E-12	607.913E-3	-7.73692E-3	179.610E-12	615.040E-3	-16.1460E-3
4.51976E-3	182.926E-12	599.409E-3	-34.1843E-3	179.159E-12	625.921E-3	-20.3117E-3
4.51476E-3	182.078E-12	624.921E-3	-68.3364E-3	178.343E-12	652.050E-3	-11.6944E-3
4.50975E-3	182.574E-12	633.454E-3	-68.1949E-3	176.784E-12	656.961E-3	-15.9630E-3
4.50475E-3	181.782E-12	606.775E-3	-33.5708E-3	178.344E-12	648.490E-3	-27.7633E-3
4.49975E-3	180.574E-12	602.426E-3	8.58860E-3	178.262E-12	659.030E-3	-38.9179E-3
4.49475E-3	178.925E-12	603.912E-3	1.97834E-3	177.813E-12	661.256E-3	-38.2024E-3
4.48974E-3	177.751E-12	607.337E-3	-33.5359E-3	177.976E-12	628.151E-3	-27.5151E-3
4.48474E-3	177.014E-12	629.579E-3	-21.9076E-3	180.253E-12	598.258E-3	-29.0696E-3
4.47974E-3	175.768E-12	633.922E-3	-9.02878E-3	179.471E-12	614.171E-3	-15.7443E-3
4.47474E-3	174.586E-12	625.530E-3	-49.5162E-3	179.476E-12	627.302E-3	-2.73152E-3
4.46973E-3	173.483E-12	627.411E-3	-62.5461E-3	179.610E-12	616.155E-3	-3.65228E-3
4.46473E-3	174.008E-12	619.928E-3	-28.4322E-3	179.868E-12	627.949E-3	5.80699E-3
4.45973E-3	174.706E-12	610.829E-3	-27.7809E-3	179.038E-12	643.954E-3	13.4674E-3
4.45473E-3	174.479E-12	628.327E-3	-53.5480E-3	178.666E-12	643.802E-3	5.76970E-3
4.44972E-3	175.037E-12	636.500E-3	-39.3212E-3	179.266E-12	647.588E-3	-7.93083E-3
4.44472E-3	176.055E-12	612.355E-3	-33.2988E-3	177.724E-12	651.281E-3	-15.7576E-3
4.43972E-3	177.202E-12	599.229E-3	-36.5932E-3	176.729E-12	634.567E-3	-9.01857E-3
4.43472E-3	178.380E-12	622.652E-3	-10.3375E-3	176.478E-12	614.856E-3	12.5944E-3
4.42971E-3	178.439E-12	647.585E-3	-11.6906E-3	176.059E-12	602.880E-3	14.6656E-3
4.42471E-3	178.787E-12	644.306E-3	-19.4194E-3	175.027E-12	604.526E-3	877.189E-6
4.41971E-3	179.970E-12	619.363E-3	-8.71325E-3	174.138E-12	618.786E-3	489.737E-6
4.41471E-3	180.249E-12	597.769E-3	-15.5543E-3	174.443E-12	621.797E-3	3.89745E-3
4.40970E-3	178.877E-12	609.066E-3	-15.6660E-3	174.516E-12	625.715E-3	-3.34984E-3
4.40470E-3	178.267E-12	639.930E-3	-3.32371E-3	175.073E-12	651.243E-3	-22.2112E-3
4.39970E-3	177.179E-12	636.092E-3	-16.1977E-3	174.898E-12	678.923E-3	-31.6504E-3
4.39470E-3	176.499E-12	620.385E-3	-43.6687E-3	175.231E-12	678.841E-3	-42.0302E-3
4.38969E-3	174.772E-12	638.175E-3	-37.1059E-3	175.467E-12	663.506E-3	-48.6878E-3
4.38469E-3	173.594E-12	665.209E-3	-21.6700E-3	175.592E-12	658.418E-3	-36.8182E-3
4.37969E-3	172.704E-12	671.714E-3	-17.5999E-3	176.522E-12	669.804E-3	-26.6851E-3
4.37469E-3	171.199E-12	648.801E-3	10.8747E-3	175.253E-12	668.586E-3	-17.7308E-3
4.36968E-3	171.242E-12	617.197E-3	21.8613E-3	175.476E-12	642.299E-3	-6.00587E-3
4.36468E-3	170.488E-12	605.593E-3	7.63223E-3	175.411E-12	620.284E-3	72.2491E-6
4.35968E-3	170.046E-12	608.645E-3	-5.48018E-3	174.147E-12	613.613E-3	-10.5157E-3
4.35468E-3	171.211E-12	608.483E-3	-26.8591E-3	172.883E-12	616.043E-3	-22.7933E-3
4.34967E-3	171.427E-12	607.752E-3	-25.3752E-3	173.475E-12	627.232E-3	-20.4024E-3
4.34467E-3	171.912E-12	602.303E-3	-5.27941E-3	172.780E-12	636.367E-3	-16.5797E-3
4.33967E-3	172.465E-12	574.959E-3	2.28700E-3	172.874E-12	628.527E-3	-25.4662E-3
4.33467E-3	173.870E-12	545.157E-3	-1.20872E-3	172.409E-12	616.229E-3	-46.7536E-3
4.32966E-3	173.968E-12	559.278E-3	3.25765E-3	171.706E-12	605.030E-3	-63.3227E-3
4.32466E-3	174.317E-12	599.411E-3	-8.72716E-3	172.580E-12	605.308E-3	-48.7552E-3
4.31966E-3	175.044E-12	622.763E-3	-41.8631E-3	172.829E-12	623.198E-3	-27.9325E-3
4.31466E-3	174.154E-12	625.937E-3	-39.2335E-3	171.581E-12	637.102E-3	-21.8842E-3
4.30965E-3	175.108E-12	616.109E-3	-24.5749E-3	171.406E-12	635.112E-3	-12.0589E-3
4.30465E-3	175.070E-12	613.933E-3	-31.9505E-3	171.927E-12	622.952E-3	470.224E-6
4.29965E-3	174.228E-12	623.325E-3	-30.7399E-3	171.801E-12	622.315E-3	-973.799E-6
4.29465E-3	171.946E-12	633.909E-3	-35.1650E-3	170.878E-12	632.935E-3	-12.0319E-3
4.28964E-3	170.980E-12	651.937E-3	-45.1012E-3	170.972E-12	626.148E-3	3.37536E-3
4.28464E-3	169.541E-12	659.764E-3	-30.5975E-3	170.459E-12	613.638E-3	22.3962E-3
4.27964E-3	169.130E-12	639.723E-3	-9.14631E-3	169.864E-12	608.485E-3	-5.42275E-3
4.27464E-3	168.008E-12	626.189E-3	-7.12271E-3	169.449E-12	602.287E-3	-28.4482E-3
4.26963E-3	167.763E-12	635.317E-3	-23.9490E-3	168.685E-12	614.329E-3	-5.03205E-3
4.26463E-3	167.260E-12	627.660E-3	-21.0401E-3	168.076E-12	639.062E-3	19.1323E-3
4.25963E-3	166.810E-12	613.954E-3	-4.12214E-3	167.963E-12	639.561E-3	19.6281E-3
4.25463E-3	167.175E-12	630.759E-3	-1.97286E-3	168.131E-12	627.826E-3	-4.98859E-3
4.24962E-3	167.238E-12	647.685E-3	-2.73121E-3	167.359E-12	631.766E-3	-38.6680E-3
4.24462E-3	167.349E-12	646.740E-3	-12.2181E-3	167.312E-12	624.180E-3	-37.6498E-3
4.23962E-3	166.901E-12	640.839E-3	-15.9784E-3	167.552E-12	612.920E-3	-13.3892E-3
4.23462E-3	167.550E-12	627.229E-3	-6.57207E-3	167.487E-12	621.850E-3	-19.0118E-3
4.22961E-3	169.185E-12	613.811E-3	1.98812E-3	167.826E-12	632.949E-3	-41.2111E-3
4.22461E-3	168.308E-12	604.990E-3	13.6751E-3	168.267E-12	641.969E-3	-42.4469E-3
4.21961E-3	168.601E-12	590.968E-3	279.724E-6	167.385E-12	645.793E-3	-34.1813E-3
4.21461E-3	169.300E-12	585.878E-3	-29.0071E-3	167.344E-12	639.111E-3	-32.8776E-3
4.20960E-3	170.823E-12	617.636E-3	-17.5663E-3	167.923E-12	631.401E-3	-29.8458E-3
4.20460E-3	169.100E-12	642.667E-3	-6.82105E-3	167.128E-12	627.468E-3	-18.5136E-3
4.19960E-3	168.955E-12	628.667E-3	-28.9711E-3	166.390E-12	625.302E-3	-8.51569E-3
4.19460E-3	169.084E-12	626.596E-3	-28.1671E-3	166.461E-12	631.184E-3	-7.54821E-3
4.18959E-3	168.175E-12	626.322E-3	3.32853E-3	166.526E-12	646.471E-3	-9.76370E-3
4.18459E-3	167.187E-12	622.163E-3	-204.851E-6	165.372E-12	656.452E-3	-20.3552E-3
4.17959E-3	166.765E-12	636.098E-3	-14.3662E-3	165.733E-12	640.753E-3	-29.5409E-3
4.17459E-3	166.468E-12	653.219E-3	16.3793E-3	165.579E-12	637.400E-3	-40.0883E-3
4.16958E-3	164.561E-12	641.966E-3	1.31349E-3	165.564E-12	652.805E-3	-42.6344E-3
4.16458E-3	165.860E-12	635.814E-3	-67.0314E-3	165.834E-12	641.361E-3	-12.9580E-3
4.15958E-3	165.761E-12	658.514E-3	-83.6585E-3	165.162E-12	633.614E-3	-804.540E-6
4.15458E-3	163.631E-12	640.150E-3	-45.7546E-3	165.315E-12	651.873E-3	-3.06021E-3
4.14957E-3	163.886E-12	597.760E-3	-8.70307E-3	165.400E-12	658.441E-3	3.98345E-3
4.14457E-3	164.002E-12	595.878E-3	22.5363E-3	165.285E-12	651.091E-3	-25.8641E-3
4.13957E-3	162.801E-12	613.159E-3	35.3252E-3	165.434E-12	631.051E-3	-57.2806E-3
4.13457E-3	162.366E-12	614.847E-3	10.2128E-3	165.534E-12	617.860E-3	-30.4812E-3
4.12956E-3	163.388E-12	618.444E-3	-17.6166E-3	165.183E-12	616.569E-3	2.32387E-3
4.12456E-3	163.870E-12	623.972E-3	-26.2817E-3	164.787E-12	612.441E-3	-16.1246E-3
4.11956E-3	163.522E-12	637.649E-3	-32.8101E-3	165.155E-12	624.589E-3	-66.1867E-3
4.11456E-3	163.916E-12	642.413E-3	-37.0169E-3	164.295E-12	646.797E-3	-82.3897E-3
4.10955E-3	163.721E-12	635.323E-3	-45.2614E-3	163.158E-12	665.013E-3	-40.5445E-3
4.10455E-3	164.887E-12	647.700E-3	-51.8189E-3	162.475E-12	660.991E-3	-2.81336E-3
4.09955E-3	164.837E-12	644.124E-3	-21.7641E-3	162.870E-12	650.070E-3	-5.17108E-3
4.09455E-3	164.249E-12	631.311E-3	-7.47024E-3	162.259E-12	665.515E-3	-20.9734E-3
4.08954E-3	164.258E-12	661.295E-3	-41.5015E-3	161.540E-12	670.077E-3	-32.8597E-3
4.08454E-3	163.758E-12	681.323E-3	-71.0834E-3	161.580E-12	641.322E-3	-31.7073E-3
4.07954E-3	163.373E-12	638.061E-3	-63.8386E-3	161.976E-12	627.379E-3	-14.8603E-3
4.07454E-3	162.530E-12	608.337E-3	-39.2682E-3	162.043E-12	648.954E-3	-19.2979E-3
4.06953E-3	161.950E-12	617.842E-3	-15.1601E-3	162.160E-12	667.958E-3	-49.2641E-3
4.06453E-3	161.100E-12	613.974E-3	10.7353E-3	162.568E-12	647.303E-3	-63.0704E-3
4.05953E-3	160.304E-12	613.200E-3	13.6137E-3	162.035E-12	613.705E-3	-47.6085E-3
4.05453E-3	160.009E-12	635.835E-3	-3.56197E-3	161.714E-12	597.757E-3	-25.2557E-3
4.04952E-3	159.515E-12	641.720E-3	-18.7428E-3	162.088E-12	596.214E-3	-26.6246E-3
4.04452E-3	158.836E-12	624.239E-3	-25.4904E-3	161.514E-12	616.669E-3	-40.2478E-3
4.03952E-3	158.472E-12	626.580E-3	-13.2187E-3	160.514E-12	649.680E-3	-32.3015E-3
4.03452E-3	158.589E-12	640.899E-3	-1.18740E-3	160.003E-12	667.867E-3	-1.81390E-3
4.02951E-3	159.038E-12	629.245E-3	-12.8741E-3	160.916E-12	670.920E-3	-1.35348E-3
4.02451E-3	159.526E-12	613.020E-3	-18.4603E-3	159.572E-12	664.586E-3	-29.3193E-3
4.01951E-3	159.222E-12	627.755E-3	-12.8469E-3	159.386E-12	642.920E-3	-32.2108E-3
4.01451E-3	159.911E-12	656.337E-3	-19.7034E-3	158.886E-12	634.955E-3	-30.6395E-3
4.00950E-3	161.188E-12	671.077E-3	-33.0020E-3	158.356E-12	641.997E-3	-44.8443E-3
4.00450E-3	160.522E-12	665.268E-3	-35.4637E-3	157.388E-12	639.251E-3	-38.2673E-3
3.99950E-3	161.315E-12	639.613E-3	-22.1846E-3	156.888E-12	632.697E-3	-11.6160E-3
3.99450E-3	160.534E-12	625.787E-3	-8.40000E-3	156.642E-12	634.966E-3	-11.3118E-3
3.98949E-3	160.510E-12	640.352E-3	7.80015E-3	156.334E-12	649.240E-3	-24.6021E-3
3.98449E-3	159.278E-12	648.207E-3	4.77460E-3	157.273E-12	659.529E-3	-21.7656E-3
3.97949E-3	158.978E-12	656.299E-3	-17.3292E-3	156.501E-12	652.879E-3	-11.5413E-3
3.97449E-3	157.896E-12	665.655E-3	-21.9207E-3	156.705E-12	649.791E-3	-11.8369E-3
3.96948E-3	156.996E-12	660.957E-3	-26.0693E-3	157.383E-12	658.807E-3	-26.1460E-3
3.96448E-3	156.098E-12	666.493E-3	-14.2572E-3	158.007E-12	665.810E-3	-22.4101E-3
3.95948E-3	155.463E-12	647.986E-3	23.3468E-3	157.587E-12	658.592E-3	14.5403E-3
3.95448E-3	154.212E-12	618.223E-3	27.3891E-3	157.621E-12	640.211E-3	31.0097E-3
3.94947E-3	153.205E-12	613.014E-3	2.24974E-3	157.616E-12	633.479E-3	-4.98419E-3
3.94447E-3	153.477E-12	602.270E-3	-7.31539E-3	157.081E-12	637.176E-3	-21.9736E-3
3.93947E-3	153.465E-12	608.337E-3	-17.3435E-3	157.096E-12	635.100E-3	7.80955E-3
3.93447E-3	152.744E-12	629.201E-3	-35.0279E-3	157.082E-12	634.234E-3	16.9703E-3
3.92946E-3	152.912E-12	624.737E-3	-35.6583E-3	156.476E-12	636.145E-3	-5.54594E-3
3.92446E-3	154.388E-12	611.343E-3	-25.4680E-3	155.723E-12	630.511E-3	-27.4570E-3
3.91946E-3	154.279E-12	624.636E-3	-15.8339E-3	155.195E-12	631.636E-3	-37.7342E-3
3.91446E-3	155.035E-12	657.670E-3	-3.24445E-3	154.776E-12	637.163E-3	-33.3891E-3
3.90945E-3	155.628E-12	661.075E-3	-9.00175E-3	153.696E-12	632.482E-3	-26.5685E-3
3.90445E-3	155.580E-12	644.955E-3	-18.5251E-3	154.271E-12	627.582E-3	-32.5136E-3
3.89945E-3	155.577E-12	643.175E-3	-6.11622E-3	153.410E-12	626.802E-3	-58.0525E-3
3.89445E-3	156.855E-12	631.485E-3	-2.46326E-3	152.826E-12	627.092E-3	-69.0556E-3
3.88944E-3	156.436E-12	621.264E-3	-9.20954E-3	153.228E-12	623.562E-3	-47.2177E-3
3.88444E-3	155.378E-12	632.460E-3	-11.2597E-3	152.821E-12	627.608E-3	-31.6200E-3
3.87944E-3	155.300E-12	637.587E-3	-23.6428E-3	153.258E-12	641.743E-3	-46.7160E-3
3.87444E-3	154.140E-12	638.940E-3	-22.9668E-3	152.756E-12	639.455E-3	-44.4513E-3
3.86943E-3	152.757E-12	638.320E-3	5.18837E-3	152.459E-12	630.173E-3	-27.5241E-3
3.86443E-3	151.745E-12	641.739E-3	14.6710E-3	152.638E-12	626.118E-3	-48.1403E-3
3.85943E-3	151.404E-12	655.209E-3	-3.38437E-3	152.915E-12	639.994E-3	-34.6237E-3
3.85443E-3	149.748E-12	650.191E-3	-19.4075E-3	152.774E-12	671.176E-3	16.4195E-3
3.84942E-3	149.737E-12	616.563E-3	-13.1786E-3	152.832E-12	687.312E-3	15.2375E-3
3.84442E-3	149.926E-12	588.379E-3	-13.9303E-3	153.235E-12	664.843E-3	-21.3521E-3
3.83942E-3	149.319E-12	605.196E-3	-17.3608E-3	152.834E-12	631.898E-3	-46.5302E-3
3.83442E-3	149.108E-12	633.398E-3	-6.95082E-3	152.437E-12	637.061E-3	-49.1733E-3
3.82941E-3	149.839E-12	646.875E-3	-19.7138E-3	152.822E-12	657.631E-3	-26.5845E-3
3.82441E-3	150.459E-12	657.408E-3	-27.5913E-3	152.615E-12	667.775E-3	4.46787E-3
3.81941E-3	150.324E-12	646.519E-3	-14.7253E-3	152.820E-12	662.277E-3	-1.35921E-3
3.81441E-3	151.783E-12	619.836E-3	-18.1147E-3	151.402E-12	651.711E-3	-40.2809E-3
3.80940E-3	151.881E-12	618.145E-3	-33.6629E-3	151.192E-12	660.235E-3	-41.7361E-3
3.80440E-3	151.645E-12	634.569E-3	-27.6513E-3	151.164E-12	663.006E-3	-17.5143E-3
3.79940E-3	152.638E-12	621.407E-3	-14.0539E-3	150.952E-12	650.055E-3	-32.7417E-3
3.79440E-3	152.800E-12	611.860E-3	-8.66404E-3	149.507E-12	655.394E-3	-53.9717E-3
3.78939E-3	151.920E-12	631.040E-3	-2.07356E-3	149.703E-12	672.900E-3	-49.3512E-3
3.78439E-3	151.519E-12	623.933E-3	-11.2679E-3	149.413E-12	660.618E-3	-44.4584E-3
3.77939E-3	151.612E-12	609.772E-3	-22.0313E-3	149.092E-12	648.210E-3	-34.0219E-3
3.77439E-3	150.898E-12	624.669E-3	-17.7980E-3	149.105E-12	663.446E-3	-14.2309E-3
3.76938E-3	149.468E-12	643.524E-3	-13.0155E-3	148.999E-12	683.590E-3	-9.26808E-3
3.76438E-3	148.335E-12	645.641E-3	-19.7174E-3	148.842E-12	689.441E-3	-22.6467E-3
3.75938E-3	148.192E-12	632.203E-3	-25.4341E-3	149.055E-12	659.983E-3	-19.7251E-3
3.75438E-3	147.094E-12	621.185E-3	-27.2362E-3	149.135E-12	636.274E-3	-4.08555E-3
3.74937E-3	146.138E-12	625.702E-3	-36.5255E-3	148.798E-12	637.321E-3	-6.07252E-3
3.74437E-3	145.738E-12	636.922E-3	-60.2078E-3	148.940E-12	638.454E-3	-21.5894E-3
3.73937E-3	146.020E-12	626.868E-3	-68.9416E-3	147.914E-12	642.857E-3	-46.3663E-3
3.73437E-3	146.092E-12	605.660E-3	-46.0739E-3	148.648E-12	644.295E-3	-58.0811E-3
3.72936E-3	145.866E-12	610.648E-3	-36.3422E-3	148.416E-12	655.312E-3	-38.5450E-3
3.72436E-3	146.245E-12	639.184E-3	-48.5314E-3	147.746E-12	673.186E-3	-11.2642E-3
3.71936E-3	146.527E-12	655.849E-3	-44.7485E-3	147.739E-12	657.589E-3	-9.89683E-3
3.71436E-3	146.761E-12	652.452E-3	-25.4416E-3	147.502E-12	627.995E-3	-22.8984E-3
3.70935E-3	146.962E-12	646.918E-3	-4.79723E-3	146.901E-12	630.332E-3	-27.5669E-3
3.70435E-3	146.706E-12	644.042E-3	-1.33154E-3	146.646E-12	635.281E-3	-35.2773E-3
3.69935E-3	147.031E-12	649.304E-3	-27.3906E-3	145.759E-12	625.571E-3	-31.0567E-3
3.69435E-3	146.790E-12	654.509E-3	-30.0644E-3	144.937E-12	607.492E-3	-11.8504E-3
3.68934E-3	146.331E-12	652.213E-3	-827.271E-6	144.492E-12	591.687E-3	-6.16616E-3
3.68434E-3	146.657E-12	644.265E-3	12.3772E-3	144.232E-12	602.135E-3	-29.2591E-3
3.67934E-3	146.828E-12	632.431E-3	-8.76828E-3	143.816E-12	617.459E-3	-48.8333E-3
3.67434E-3	145.657E-12	644.550E-3	-21.1619E-3	143.502E-12	629.862E-3	-24.4709E-3
3.66933E-3	145.384E-12	669.036E-3	-4.31454E-3	143.553E-12	653.871E-3	3.30388E-3
3.66433E-3	145.413E-12	666.562E-3	-3.17971E-3	143.517E-12	670.429E-3	-9.27251E-3
3.65933E-3	144.294E-12	664.157E-3	-21.4925E-3	142.730E-12	667.037E-3	-29.1832E-3
3.65433E-3	142.938E-12	668.039E-3	-19.9279E-3	142.382E-12	640.165E-3	-24.3459E-3
3.64932E-3	143.323E-12	641.010E-3	249.101E-6	142.948E-12	627.823E-3	-13.7134E-3
3.64432E-3	142.676E-12	628.861E-3	5.50692E-3	142.406E-12	648.717E-3	-15.8501E-3
3.63932E-3	142.137E-12	649.361E-3	-3.97760E-3	142.107E-12	660.404E-3	-12.3285E-3
3.63432E-3	141.645E-12	648.364E-3	-21.4731E-3	141.827E-12	643.680E-3	-2.05170E-3
3.62931E-3	141.381E-12	628.553E-3	-22.8016E-3	142.000E-12	630.835E-3	6.05279E-3
3.62431E-3	141.120E-12	624.686E-3	-1.52646E-3	142.712E-12	635.467E-3	16.9746E-3
3.61931E-3	140.766E-12	625.217E-3	6.11755E-3	143.028E-12	623.805E-3	5.74745E-3
3.61431E-3	139.994E-12	628.465E-3	-11.9861E-3	142.777E-12	609.915E-3	-31.3809E-3
3.60930E-3	140.345E-12	648.124E-3	-39.8583E-3	142.000E-12	629.006E-3	-53.9139E-3
3.60430E-3	140.722E-12	654.708E-3	-48.9908E-3	142.427E-12	649.423E-3	-60.9272E-3
3.59930E-3	140.481E-12	645.164E-3	-42.3214E-3	141.959E-12	649.254E-3	-59.9124E-3
3.59430E-3	141.075E-12	645.365E-3	-30.9566E-3	141.832E-12	640.418E-3	-53.7101E-3
3.58929E-3	142.015E-12	632.141E-3	-27.4882E-3	142.062E-12	626.463E-3	-47.9913E-3
3.58429E-3	142.071E-12	625.162E-3	-49.1487E-3	140.794E-12	625.338E-3	-31.6197E-3
3.57929E-3	142.002E-12	656.028E-3	-59.0431E-3	140.578E-12	634.017E-3	-4.96880E-3
3.57429E-3	142.709E-12	674.285E-3	-44.5427E-3	141.629E-12	636.826E-3	-812.457E-6
3.56928E-3	142.595E-12	653.332E-3	-34.4265E-3	141.204E-12	645.194E-3	-31.6878E-3
3.56428E-3	142.218E-12	645.499E-3	-23.1017E-3	140.217E-12	660.862E-3	-47.1606E-3
3.55928E-3	142.206E-12	658.647E-3	-10.9154E-3	139.735E-12	661.806E-3	-37.6831E-3
3.55428E-3	141.149E-12	647.906E-3	-6.88276E-3	140.044E-12	650.839E-3	-41.2874E-3
3.54927E-3	140.478E-12	640.928E-3	-19.6317E-3	139.446E-12	644.374E-3	-42.8202E-3
3.54427E-3	139.766E-12	651.870E-3	-36.8974E-3	139.033E-12	647.471E-3	-36.7083E-3
3.53927E-3	138.759E-12	651.355E-3	-29.3457E-3	138.288E-12	660.945E-3	-40.0671E-3
3.53427E-3	137.551E-12	645.231E-3	-12.1464E-3	139.147E-12	664.337E-3	-48.8534E-3
3.52926E-3	137.203E-12	655.405E-3	-8.38062E-3	139.322E-12	654.286E-3	-34.8366E-3
3.52426E-3	135.543E-12	661.901E-3	-14.8374E-3	139.155E-12	653.677E-3	387.207E-6
3.51926E-3	135.670E-12	642.508E-3	-30.8177E-3	139.127E-12	655.345E-3	20.9300E-3
3.51426E-3	135.435E-12	627.457E-3	-44.4319E-3	139.308E-12	655.998E-3	15.3661E-3
3.50925E-3	135.099E-12	624.548E-3	-32.0645E-3	138.965E-12	653.954E-3	-3.94886E-3
3.50425E-3	134.810E-12	617.455E-3	-13.0250E-3	139.051E-12	644.670E-3	-12.8365E-3
3.49925E-3	135.954E-12	613.726E-3	334.332E-6	139.167E-12	638.703E-3	-15.7138E-3
3.49425E-3	136.242E-12	610.706E-3	4.12176E-3	138.827E-12	640.614E-3	-35.0959E-3
3.48924E-3	136.577E-12	610.643E-3	-19.3541E-3	138.354E-12	638.075E-3	-57.2259E-3
3.48424E-3	137.734E-12	622.143E-3	-35.1446E-3	138.065E-12	625.412E-3	-47.6482E-3
3.47924E-3	138.357E-12	639.235E-3	-32.3451E-3	138.009E-12	620.025E-3	-28.8747E-3
3.47424E-3	138.519E-12	650.011E-3	-33.9973E-3	137.506E-12	623.882E-3	-25.0735E-3
3.46923E-3	138.690E-12	641.340E-3	-30.6764E-3	136.195E-12	634.469E-3	-18.2843E-3
3.46423E-3	139.067E-12	637.369E-3	-19.4125E-3	136.040E-12	653.824E-3	938.729E-6
3.45923E-3	138.160E-12	647.133E-3	-7.85352E-3	135.826E-12	654.374E-3	13.0472E-3
3.45423E-3	137.168E-12	649.723E-3	-21.9025E-3	135.497E-12	638.161E-3	-7.01239E-3
3.44922E-3	136.916E-12	653.074E-3	-55.5989E-3	134.147E-12	635.967E-3	-14.1727E-3
3.44422E-3	136.200E-12	658.949E-3	-42.4879E-3	134.346E-12	629.852E-3	13.2942E-3
3.43922E-3	134.923E-12	651.838E-3	-8.10290E-3	134.043E-12	614.731E-3	24.3255E-3
3.43422E-3	133.874E-12	633.356E-3	-10.9762E-3	133.221E-12	614.071E-3	7.84316E-3
3.42921E-3	133.370E-12	624.055E-3	-23.4167E-3	133.250E-12	626.702E-3	-14.3942E-3
3.42421E-3	132.629E-12	627.852E-3	-17.2020E-3	134.103E-12	645.445E-3	-17.6080E-3
3.41921E-3	131.568E-12	621.760E-3	-17.1695E-3	133.829E-12	650.810E-3	698.268E-6
3.41421E-3	131.217E-12	599.702E-3	-35.2655E-3	134.314E-12	646.249E-3	2.64248E-3
3.40920E-3	131.397E-12	582.761E-3	-40.9913E-3	133.991E-12	655.006E-3	-10.7143E-3
3.40420E-3	131.483E-12	580.344E-3	-31.5877E-3	134.196E-12	665.447E-3	-29.7674E-3
3.39920E-3	131.173E-12	605.795E-3	-21.2460E-3	134.596E-12	665.264E-3	-31.8868E-3
3.39420E-3	132.297E-12	639.040E-3	-14.9532E-3	133.994E-12	656.916E-3	715.515E-6
3.38919E-3	133.276E-12	650.943E-3	-15.0000E-3	133.688E-12	646.998E-3	21.1237E-3
3.38419E-3	132.907E-12	655.056E-3	-19.4695E-3	133.284E-12	641.133E-3	21.6145E-3
3.37919E-3	133.398E-12	647.990E-3	-12.8041E-3	133.178E-12	634.988E-3	-1.77305E-3
3.37419E-3	133.912E-12	636.838E-3	3.81499E-3	131.848E-12	638.751E-3	-37.2216E-3
3.36918E-3	133.521E-12	641.828E-3	5.14115E-3	132.363E-12	655.318E-3	-31.1158E-3
3.36418E-3	133.700E-12	646.834E-3	-7.14526E-3	131.562E-12	652.756E-3	-11.6775E-3
3.35918E-3	132.962E-12	634.186E-3	-24.0099E-3	130.468E-12	635.734E-3	-5.84995E-3
3.35418E-3	132.059E-12	626.213E-3	-43.2179E-3	131.104E-12	646.231E-3	10.5903E-3
3.34917E-3	131.582E-12	624.074E-3	-42.6959E-3	131.286E-12	653.098E-3	2.40154E-3
3.34417E-3	130.793E-12	607.929E-3	-32.2841E-3	130.642E-12	639.618E-3	-14.3141E-3
3.33917E-3	129.800E-12	609.180E-3	-50.6131E-3	129.807E-12	634.936E-3	-13.6558E-3
3.33417E-3	129.399E-12	640.190E-3	-53.4278E-3	130.175E-12	621.744E-3	-31.9061E-3
3.32916E-3	128.655E-12	644.449E-3	-23.8841E-3	129.075E-12	621.177E-3	-28.2269E-3
3.32416E-3	127.879E-12	625.659E-3	-9.84504E-3	129.145E-12	642.481E-3	-7.94205E-3
3.31916E-3	127.980E-12	637.732E-3	-12.8826E-3	129.812E-12	651.126E-3	-2.39325E-3
3.31416E-3	127.006E-12	660.730E-3	-16.5309E-3	129.597E-12	645.562E-3	-8.81027E-3
3.30915E-3	127.448E-12	652.459E-3	-14.9140E-3	129.206E-12	641.249E-3	-33.1468E-3
3.30415E-3	126.895E-12	618.308E-3	-26.1559E-3	129.068E-12	658.630E-3	-39.1755E-3
3.29915E-3	127.517E-12	592.158E-3	-34.4353E-3	128.992E-12	677.299E-3	-23.5923E-3
3.29415E-3	127.936E-12	584.515E-3	-19.7826E-3	128.814E-12	672.251E-3	-9.41013E-3
3.28914E-3	127.762E-12	599.341E-3	-1.73921E-3	128.508E-12	665.966E-3	-7.40737E-3
3.28414E-3	127.835E-12	632.477E-3	-2.87405E-3	128.046E-12	660.766E-3	-18.2622E-3
3.27914E-3	128.408E-12	653.439E-3	-15.0306E-3	128.447E-12	642.471E-3	-28.2674E-3
3.27414E-3	128.776E-12	652.572E-3	-15.5395E-3	127.981E-12	626.982E-3	-40.0497E-3
3.26913E-3	127.550E-12	639.667E-3	-2.41461E-3	127.597E-12	624.047E-3	-29.2071E-3
3.26413E-3	128.066E-12	621.165E-3	5.47293E-3	127.757E-12	630.126E-3	8.35263E-3
3.25913E-3	128.321E-12	630.205E-3	-10.5908E-3	127.572E-12	649.088E-3	9.61404E-3
3.25413E-3	127.069E-12	664.810E-3	-29.7389E-3	127.136E-12	663.776E-3	-24.9601E-3
3.24912E-3	127.344E-12	662.459E-3	-31.1501E-3	126.726E-12	666.879E-3	-33.9644E-3
3.24412E-3	127.361E-12	648.527E-3	-15.7934E-3	126.924E-12	662.096E-3	-8.33248E-3
3.23912E-3	126.983E-12	658.761E-3	-3.88905E-3	126.556E-12	643.564E-3	7.39275E-3
3.23412E-3	126.142E-12	664.634E-3	3.32230E-3	126.316E-12	633.643E-3	-7.95458E-3
3.22911E-3	127.110E-12	653.740E-3	22.9317E-3	125.548E-12	639.267E-3	-33.0433E-3
3.22411E-3	125.134E-12	644.120E-3	23.3258E-3	125.439E-12	647.712E-3	-44.5746E-3
3.21911E-3	125.221E-12	644.132E-3	-934.378E-6	124.866E-12	645.448E-3	-51.8080E-3
3.21411E-3	124.975E-12	637.387E-3	-4.70557E-3	125.589E-12	638.841E-3	-55.9025E-3
3.20910E-3	124.323E-12	643.626E-3	3.43866E-3	124.420E-12	640.417E-3	-47.2717E-3
3.20410E-3	124.114E-12	666.036E-3	-204.285E-6	124.083E-12	633.342E-3	-36.3805E-3
3.19910E-3	123.372E-12	673.517E-3	-7.16863E-3	124.643E-12	632.695E-3	-23.1178E-3
3.19410E-3	123.712E-12	659.065E-3	-11.4420E-3	124.015E-12	647.620E-3	-12.3269E-3
3.18909E-3	123.396E-12	644.150E-3	-13.0239E-3	123.558E-12	647.448E-3	-18.5531E-3
3.18409E-3	123.454E-12	637.396E-3	-16.9376E-3	124.092E-12	630.325E-3	-28.1584E-3
3.17909E-3	123.258E-12	631.316E-3	-24.7522E-3	124.232E-12	628.552E-3	-21.5428E-3
3.17409E-3	123.470E-12	639.618E-3	-17.1462E-3	123.928E-12	652.905E-3	-14.3804E-3
3.16908E-3	123.436E-12	644.611E-3	20.2701E-3	124.192E-12	673.133E-3	-28.5561E-3
3.16408E-3	122.861E-12	629.741E-3	50.0169E-3	124.484E-12	654.761E-3	-38.3011E-3
3.15908E-3	123.858E-12	628.237E-3	32.8098E-3	123.906E-12	632.844E-3	-31.7091E-3
3.15408E-3	123.405E-12	643.015E-3	-10.5449E-3	123.854E-12	652.041E-3	-36.9593E-3
3.14907E-3	124.469E-12	647.776E-3	-33.6201E-3	123.946E-12	673.634E-3	-50.3974E-3
3.14407E-3	123.215E-12	635.633E-3	-31.1639E-3	123.461E-12	677.892E-3	-53.6982E-3
3.13907E-3	123.448E-12	632.282E-3	-6.79279E-3	123.121E-12	662.410E-3	-49.7052E-3
3.13407E-3	123.635E-12	651.253E-3	21.7143E-3	122.556E-12	630.635E-3	-43.2259E-3
3.12906E-3	123.461E-12	656.411E-3	27.5511E-3	122.265E-12	622.335E-3	-30.2416E-3
3.12406E-3	122.739E-12	647.067E-3	11.5597E-3	121.674E-12	642.741E-3	-20.4758E-3
3.11906E-3	121.977E-12	638.554E-3	-7.84519E-3	121.213E-12	663.713E-3	-26.7517E-3
3.11406E-3	121.419E-12	633.621E-3	-6.29650E-3	120.351E-12	661.024E-3	-37.7607E-3
3.10905E-3	120.725E-12	642.045E-3	-2.91360E-3	120.265E-12	642.228E-3	-28.3619E-3
3.10405E-3	119.806E-12	657.193E-3	965.394E-6	120.229E-12	647.462E-3	-5.94653E-3
3.09905E-3	119.448E-12	672.091E-3	740.304E-6	120.348E-12	652.164E-3	-9.91985E-3
3.09405E-3	119.217E-12	676.014E-3	-18.4848E-3	119.477E-12	633.358E-3	-38.5727E-3
3.08904E-3	118.348E-12	663.586E-3	-28.2222E-3	119.584E-12	636.052E-3	-55.8564E-3
3.08404E-3	117.931E-12	643.077E-3	-11.3161E-3	119.906E-12	649.117E-3	-46.6989E-3
3.07904E-3	119.130E-12	633.245E-3	-1.42011E-3	119.436E-12	642.275E-3	-23.8057E-3
3.07404E-3	118.307E-12	643.257E-3	-16.1766E-3	119.117E-12	639.513E-3	-3.43302E-3
3.06903E-3	118.617E-12	653.758E-3	-28.1167E-3	119.047E-12	652.546E-3	11.9020E-3
3.06403E-3	118.728E-12	665.236E-3	-20.0788E-3	119.046E-12	662.343E-3	-362.104E-6
3.05903E-3	119.402E-12	675.517E-3	-11.0072E-3	118.819E-12	658.925E-3	-28.5795E-3
3.05403E-3	119.409E-12	674.745E-3	-12.6944E-3	118.404E-12	651.520E-3	-37.8091E-3
3.04902E-3	119.781E-12	667.220E-3	-9.13161E-3	117.867E-12	648.112E-3	-45.0780E-3
3.04402E-3	120.133E-12	664.760E-3	-12.7606E-3	117.594E-12	644.694E-3	-40.6872E-3
3.03902E-3	120.508E-12	671.943E-3	-25.4846E-3	117.365E-12	630.317E-3	-16.4881E-3
3.03402E-3	120.358E-12	665.711E-3	-21.2555E-3	116.941E-12	616.947E-3	-14.3105E-3
3.02901E-3	119.552E-12	656.769E-3	-15.1590E-3	115.906E-12	628.699E-3	-35.9805E-3
3.02401E-3	118.952E-12	665.337E-3	-28.7528E-3	116.247E-12	649.041E-3	-40.9804E-3
3.01901E-3	118.597E-12	677.515E-3	-47.8656E-3	115.368E-12	659.956E-3	-25.6624E-3
3.01401E-3	117.417E-12	676.289E-3	-43.1880E-3	115.096E-12	662.639E-3	-16.9277E-3
3.00900E-3	116.567E-12	670.991E-3	-5.53404E-3	115.117E-12	657.306E-3	-19.3735E-3
3.00400E-3	115.828E-12	679.605E-3	23.0986E-3	115.467E-12	646.217E-3	-15.3072E-3
2.99900E-3	114.984E-12	693.451E-3	13.5618E-3	115.108E-12	643.274E-3	-10.8279E-3
2.99400E-3	114.196E-12	683.677E-3	-3.59290E-3	115.234E-12	652.346E-3	-12.3077E-3
2.98899E-3	113.831E-12	663.298E-3	-22.2706E-3	115.513E-12	656.373E-3	-11.8732E-3
2.98399E-3	113.655E-12	654.057E-3	-43.7503E-3	115.456E-12	664.750E-3	-12.1588E-3
2.97899E-3	113.660E-12	642.922E-3	-45.8653E-3	115.337E-12	686.710E-3	-14.8394E-3
2.97399E-3	113.924E-12	649.419E-3	-38.5811E-3	114.796E-12	699.646E-3	-15.0263E-3
2.96898E-3	114.107E-12	668.822E-3	-30.5377E-3	114.974E-12	679.764E-3	-12.4116E-3
2.96398E-3	114.512E-12	658.685E-3	-19.5393E-3	115.479E-12	656.138E-3	1.09440E-3
2.95898E-3	114.652E-12	637.373E-3	-13.0823E-3	114.399E-12	670.943E-3	14.8138E-3
2.95398E-3	114.922E-12	648.420E-3	-13.4076E-3	114.576E-12	678.962E-3	-194.946E-6
2.94897E-3	115.156E-12	675.435E-3	-20.7380E-3	114.741E-12	657.768E-3	-10.2940E-3
2.94397E-3	115.195E-12	695.408E-3	-28.8009E-3	113.986E-12	642.782E-3	-7.92269E-3
2.93897E-3	114.624E-12	695.042E-3	-20.2915E-3	113.385E-12	644.861E-3	-24.2195E-3
2.93397E-3	114.018E-12	660.910E-3	-13.0688E-3	112.939E-12	653.819E-3	-39.9451E-3
2.92896E-3	113.960E-12	638.256E-3	-26.6335E-3	112.730E-12	656.356E-3	-41.5460E-3
2.92396E-3	112.648E-12	654.034E-3	-26.1338E-3	112.442E-12	647.238E-3	-32.9140E-3
2.91896E-3	112.237E-12	667.579E-3	-9.48879E-3	112.417E-12	645.818E-3	-10.0644E-3
2.91396E-3	111.303E-12	648.590E-3	-8.92783E-3	112.171E-12	649.411E-3	3.39442E-3
2.90895E-3	110.685E-12	619.590E-3	-7.83248E-3	111.936E-12	645.146E-3	-68.9519E-6
2.90395E-3	109.503E-12	622.679E-3	1.56095E-3	112.016E-12	647.233E-3	7.44576E-3
2.89895E-3	109.306E-12	645.913E-3	10.0361E-3	112.074E-12	658.348E-3	494.699E-6
2.89395E-3	108.713E-12	657.422E-3	12.0794E-3	111.956E-12	667.819E-3	-24.3216E-3
2.88894E-3	108.815E-12	639.811E-3	-7.14653E-3	111.113E-12	659.901E-3	-22.7156E-3
2.88394E-3	109.026E-12	613.954E-3	-25.0766E-3	111.638E-12	654.578E-3	-5.71097E-3
2.87894E-3	109.248E-12	613.742E-3	-2.51264E-3	111.303E-12	653.424E-3	-405.562E-6
2.87394E-3	109.898E-12	619.253E-3	19.0536E-3	111.008E-12	648.118E-3	624.494E-6
2.86893E-3	109.958E-12	628.368E-3	7.55509E-3	110.444E-12	650.334E-3	5.89790E-3
2.86393E-3	110.422E-12	640.755E-3	-6.83380E-3	109.705E-12	647.619E-3	-492.859E-6
2.85893E-3	110.629E-12	639.501E-3	-32.9584E-3	109.299E-12	642.785E-3	-19.5889E-3
2.85393E-3	110.670E-12	651.298E-3	-52.8236E-3	108.958E-12	645.664E-3	-41.7726E-3
2.84892E-3	110.444E-12	678.460E-3	-40.3494E-3	108.783E-12	645.888E-3	-50.6392E-3
2.84392E-3	110.219E-12	685.400E-3	-23.3954E-3	107.827E-12	650.620E-3	-28.0279E-3
2.83892E-3	109.622E-12	680.301E-3	-24.4650E-3	107.447E-12	661.894E-3	7.01106E-3
2.83392E-3	109.292E-12	679.075E-3	-17.2796E-3	107.413E-12	657.461E-3	16.2480E-3
2.82891E-3	109.034E-12	677.769E-3	-4.52849E-3	107.577E-12	651.125E-3	3.71085E-3
2.82391E-3	108.561E-12	681.625E-3	-5.36683E-3	107.355E-12	658.720E-3	-4.69148E-3
2.81891E-3	107.642E-12	681.302E-3	-2.40136E-3	106.923E-12	669.869E-3	-9.91800E-3
2.81391E-3	107.550E-12	660.891E-3	-5.25671E-3	106.973E-12	668.630E-3	-16.9134E-3
2.80890E-3	107.419E-12	649.509E-3	-11.0881E-3	107.099E-12	650.437E-3	-9.39265E-3
2.80390E-3	106.891E-12	653.541E-3	-12.2736E-3	107.187E-12	651.726E-3	6.63827E-3
2.79890E-3	106.356E-12	651.622E-3	-10.6961E-3	106.999E-12	661.421E-3	6.43658E-3
2.79390E-3	106.007E-12	664.423E-3	-10.0348E-3	106.779E-12	649.523E-3	-6.81608E-3
2.78889E-3	106.234E-12	686.437E-3	-25.4188E-3	107.030E-12	652.957E-3	-12.2230E-3
2.78389E-3	105.806E-12	684.770E-3	-38.3452E-3	106.992E-12	667.656E-3	-13.1833E-3
2.77889E-3	105.704E-12	674.432E-3	-27.7289E-3	106.813E-12	674.940E-3	-20.0558E-3
2.77389E-3	106.045E-12	672.473E-3	-18.2972E-3	106.140E-12	678.479E-3	-17.6704E-3
2.76888E-3	106.422E-12	670.353E-3	-20.5066E-3	106.183E-12	671.547E-3	-18.6914E-3
2.76388E-3	106.001E-12	666.974E-3	-22.7989E-3	106.070E-12	661.591E-3	-28.1947E-3
2.75888E-3	106.362E-12	674.767E-3	-20.4409E-3	105.521E-12	654.798E-3	-22.0818E-3
2.75388E-3	106.214E-12	689.941E-3	-9.46558E-3	104.911E-12	658.788E-3	-19.6533E-3
2.74887E-3	105.910E-12	683.190E-3	-6.19773E-3	104.502E-12	666.856E-3	-24.7786E-3
2.74387E-3	105.100E-12	665.245E-3	-6.95678E-3	104.427E-12	668.395E-3	-9.11041E-3
2.73887E-3	105.094E-12	670.639E-3	-10.3194E-3	104.388E-12	669.564E-3	718.540E-6
2.73387E-3	104.690E-12	666.437E-3	-26.1469E-3	104.281E-12	670.573E-3	-4.38390E-3
2.72886E-3	104.714E-12	649.267E-3	-30.1466E-3	103.904E-12	668.696E-3	-10.3189E-3
2.72386E-3	104.348E-12	661.327E-3	-14.4833E-3	104.050E-12	656.802E-3	-29.4877E-3
2.71886E-3	104.164E-12	677.226E-3	982.640E-6	103.752E-12	644.277E-3	-43.1906E-3
2.71386E-3	103.859E-12	682.944E-3	4.57948E-3	103.740E-12	645.710E-3	-25.3152E-3
2.70885E-3	103.494E-12	694.758E-3	-3.01250E-3	103.245E-12	655.047E-3	289.367E-6
2.70385E-3	103.258E-12	690.580E-3	-10.2899E-3	103.031E-12	655.153E-3	3.99393E-3
2.69885E-3	102.584E-12	673.946E-3	-19.5245E-3	102.652E-12	644.108E-3	-7.33616E-3
2.69385E-3	102.217E-12	664.355E-3	-34.3209E-3	102.699E-12	651.259E-3	-16.3073E-3
2.68884E-3	101.863E-12	653.773E-3	-34.8408E-3	102.088E-12	673.449E-3	-16.3253E-3
2.68384E-3	101.360E-12	645.999E-3	-20.3745E-3	101.817E-12	682.041E-3	-4.80447E-3
2.67884E-3	101.133E-12	641.271E-3	-22.5681E-3	101.248E-12	680.442E-3	-10.1222E-3
2.67384E-3	100.727E-12	651.506E-3	-38.9693E-3	101.175E-12	677.282E-3	-30.6061E-3
2.66883E-3	100.383E-12	654.670E-3	-30.9238E-3	100.755E-12	677.924E-3	-23.7277E-3
2.66383E-3	99.8167E-12	634.932E-3	-20.6314E-3	100.437E-12	683.331E-3	-3.53749E-3
2.65883E-3	99.6939E-12	630.200E-3	-39.8172E-3	100.246E-12	693.209E-3	-7.63931E-3
2.65383E-3	99.4048E-12	644.349E-3	-46.1909E-3	100.382E-12	704.756E-3	-18.7560E-3
2.64882E-3	99.5416E-12	667.338E-3	-23.5895E-3	100.006E-12	698.497E-3	-11.3315E-3
2.64382E-3	99.4976E-12	687.423E-3	-10.2159E-3	99.4190E-12	672.412E-3	1.59237E-3
2.63882E-3	99.7163E-12	695.667E-3	-16.5581E-3	99.6145E-12	651.178E-3	9.23511E-3
2.63382E-3	99.8234E-12	696.470E-3	-20.5671E-3	99.6362E-12	642.609E-3	6.27890E-3
2.62881E-3	100.045E-12	676.274E-3	-17.3592E-3	99.1307E-12	649.165E-3	-4.91250E-3
2.62381E-3	100.373E-12	653.654E-3	-9.67499E-3	99.0693E-12	663.576E-3	-18.8812E-3
2.61881E-3	100.137E-12	653.041E-3	-7.56467E-3	99.1078E-12	659.915E-3	-35.3043E-3
2.61381E-3	100.117E-12	673.855E-3	-17.8899E-3	98.0145E-12	648.109E-3	-42.3051E-3
2.60880E-3	99.5321E-12	692.438E-3	-32.1492E-3	97.5230E-12	656.410E-3	-33.1420E-3
2.60380E-3	99.3962E-12	692.215E-3	-44.3338E-3	97.9143E-12	682.686E-3	-24.1248E-3
2.59880E-3	98.6411E-12	691.815E-3	-50.9091E-3	97.0435E-12	706.599E-3	-21.3051E-3
2.59380E-3	97.5463E-12	693.147E-3	-40.8750E-3	96.5384E-12	712.039E-3	-23.8088E-3
2.58879E-3	97.1138E-12	679.371E-3	-16.6849E-3	96.3680E-12	698.505E-3	-31.8631E-3
2.58379E-3	96.2118E-12	667.129E-3	-10.1173E-3	96.3496E-12	679.394E-3	-25.5241E-3
2.57879E-3	95.7113E-12	666.816E-3	-15.2705E-3	96.2119E-12	669.012E-3	-11.7757E-3
2.57379E-3	94.9425E-12	654.443E-3	-8.12722E-3	96.4028E-12	678.599E-3	-9.11804E-3
2.56878E-3	94.5987E-12	643.848E-3	-9.55509E-3	96.4510E-12	699.751E-3	-12.2860E-3
2.56378E-3	94.4911E-12	652.732E-3	-24.3655E-3	96.7067E-12	720.139E-3	-16.4085E-3
2.55878E-3	94.4979E-12	660.588E-3	-18.4348E-3	97.1953E-12	729.482E-3	-20.4957E-3
2.55378E-3	94.4453E-12	660.960E-3	-6.75705E-3	97.1261E-12	712.128E-3	-18.7831E-3
2.54877E-3	94.4294E-12	667.285E-3	-12.3368E-3	97.4713E-12	693.049E-3	-9.57578E-3
2.54377E-3	95.0257E-12	672.873E-3	-6.48427E-3	97.1885E-12	691.452E-3	-6.97015E-3
2.53877E-3	95.4018E-12	675.210E-3	-507.987E-6	96.9961E-12	694.430E-3	-14.7410E-3
2.53377E-3	96.1469E-12	701.102E-3	-9.95009E-3	96.5009E-12	686.962E-3	-20.2718E-3
2.52876E-3	95.6824E-12	724.676E-3	-981.332E-6	96.6741E-12	675.742E-3	-19.6144E-3
2.52376E-3	95.5075E-12	706.470E-3	7.34433E-3	95.8636E-12	670.370E-3	-14.0380E-3
2.51876E-3	96.0389E-12	680.905E-3	-11.8753E-3	94.9910E-12	667.877E-3	-6.19803E-3
2.51376E-3	95.9721E-12	680.009E-3	-18.3218E-3	94.4742E-12	662.971E-3	-4.41274E-3
2.50875E-3	95.5548E-12	674.636E-3	-13.3477E-3	93.9335E-12	648.726E-3	-6.27093E-3
2.50375E-3	94.7762E-12	661.338E-3	-28.3552E-3	92.9342E-12	657.201E-3	-7.83656E-3
2.49875E-3	94.1694E-12	667.934E-3	-41.7060E-3	92.5711E-12	671.942E-3	-16.5436E-3
2.49375E-3	93.5409E-12	678.472E-3	-40.7207E-3	92.4787E-12	671.738E-3	-24.8664E-3
2.48874E-3	92.9501E-12	676.722E-3	-37.4839E-3	92.6897E-12	687.898E-3	-28.7196E-3
2.48374E-3	91.8321E-12	678.077E-3	-19.9228E-3	92.4976E-12	695.806E-3	-33.7004E-3
2.47874E-3	91.4159E-12	679.535E-3	-11.3015E-3	92.2445E-12	679.564E-3	-25.7640E-3
2.47374E-3	90.8035E-12	659.651E-3	-41.2632E-3	92.5498E-12	670.098E-3	-13.8935E-3
2.46873E-3	90.5977E-12	638.353E-3	-49.2413E-3	92.6830E-12	687.055E-3	-11.6291E-3
2.46373E-3	90.9638E-12	636.201E-3	-2.86350E-3	92.4910E-12	705.085E-3	-22.2752E-3
2.45873E-3	90.8278E-12	645.656E-3	12.1683E-3	92.5064E-12	705.165E-3	-37.4591E-3
2.45373E-3	90.6973E-12	661.578E-3	-24.0285E-3	92.5440E-12	701.340E-3	-31.9108E-3
2.44872E-3	90.9726E-12	665.292E-3	-29.6925E-3	92.2025E-12	680.104E-3	-26.9963E-3
2.44372E-3	91.6143E-12	651.977E-3	-6.10937E-3	91.8915E-12	659.047E-3	-25.5642E-3
2.43872E-3	91.6678E-12	661.734E-3	2.64036E-3	91.3979E-12	667.210E-3	-12.5476E-3
2.43372E-3	91.6572E-12	691.315E-3	-3.56286E-3	91.1925E-12	673.744E-3	3.10615E-3
2.42871E-3	91.4400E-12	697.543E-3	-14.9318E-3	90.6638E-12	661.458E-3	10.6589E-3
2.42371E-3	92.0482E-12	696.787E-3	-21.7934E-3	90.0748E-12	662.819E-3	578.639E-6
2.41871E-3	91.9002E-12	699.708E-3	-19.6313E-3	89.5432E-12	683.663E-3	-2.25738E-3
2.41371E-3	91.2454E-12	691.282E-3	-14.7398E-3	89.1530E-12	691.671E-3	1.73765E-3
2.40870E-3	91.0209E-12	693.607E-3	-11.3922E-3	88.4998E-12	687.299E-3	-16.8360E-3
2.40370E-3	90.1879E-12	717.500E-3	-6.96396E-3	88.2401E-12	687.310E-3	-31.2382E-3
2.39870E-3	89.6155E-12	726.502E-3	-12.0058E-3	87.7819E-12	689.842E-3	-25.0667E-3
2.39370E-3	88.8730E-12	716.385E-3	-37.2671E-3	87.9168E-12	690.722E-3	-25.5712E-3
2.38869E-3	88.4096E-12	716.114E-3	-39.2897E-3	88.1628E-12	697.077E-3	-26.2865E-3
2.38369E-3	87.9556E-12	705.178E-3	-3.73587E-3	87.9120E-12	710.728E-3	-22.6766E-3
2.37869E-3	87.3456E-12	692.416E-3	-628.409E-6	87.6722E-12	704.944E-3	-23.7419E-3
2.37369E-3	86.9325E-12	695.281E-3	-24.6773E-3	88.0208E-12	686.878E-3	-24.7062E-3
2.36868E-3	87.0660E-12	682.587E-3	-31.2253E-3	88.0569E-12	685.671E-3	-14.5576E-3
2.36368E-3	87.0502E-12	667.048E-3	-33.4510E-3	87.6548E-12	691.734E-3	-7.78255E-3
2.35868E-3	86.2730E-12	663.285E-3	-32.9120E-3	87.3728E-12	692.002E-3	-28.3679E-3
2.35368E-3	86.6800E-12	657.781E-3	-12.7720E-3	87.1602E-12	695.427E-3	-32.3847E-3
2.34867E-3	86.5734E-12	659.972E-3	5.38708E-3	87.0226E-12	702.026E-3	-10.4669E-3
2.34367E-3	86.5484E-12	671.533E-3	6.84967E-3	86.9616E-12	704.352E-3	-6.81873E-3
2.33867E-3	86.2483E-12	663.806E-3	8.05048E-3	86.2005E-12	704.356E-3	-18.2420E-3
2.33367E-3	85.4447E-12	653.461E-3	10.4623E-3	85.5976E-12	706.653E-3	-27.1043E-3
2.32866E-3	85.4252E-12	682.548E-3	9.56141E-3	85.6581E-12	704.361E-3	-35.5951E-3
2.32366E-3	85.7517E-12	709.756E-3	-5.73168E-3	85.5072E-12	689.392E-3	-42.2390E-3
2.31866E-3	85.6756E-12	701.472E-3	-34.0328E-3	84.6894E-12	677.165E-3	-37.3073E-3
2.31366E-3	84.9690E-12	684.221E-3	-53.2978E-3	84.6090E-12	684.572E-3	-29.6050E-3
2.30865E-3	85.0968E-12	675.867E-3	-42.0037E-3	84.2416E-12	692.692E-3	-28.3314E-3
2.30365E-3	85.2792E-12	679.374E-3	-12.9028E-3	84.3026E-12	688.124E-3	-35.1267E-3
2.29865E-3	84.6660E-12	684.676E-3	-5.99787E-3	84.1047E-12	691.665E-3	-41.1097E-3
2.29365E-3	84.2970E-12	691.659E-3	-25.5132E-3	83.8557E-12	697.167E-3	-26.2126E-3
2.28864E-3	84.4870E-12	702.665E-3	-37.0464E-3	84.0413E-12	699.999E-3	-13.6960E-3
2.28364E-3	84.0984E-12	712.662E-3	-24.1372E-3	83.6278E-12	709.292E-3	-25.1473E-3
2.27864E-3	83.3028E-12	727.942E-3	-20.8290E-3	83.2560E-12	702.864E-3	-22.4300E-3
2.27364E-3	83.2065E-12	730.719E-3	-36.5361E-3	82.7985E-12	679.088E-3	-7.08384E-3
2.26863E-3	82.8031E-12	713.709E-3	-39.9307E-3	82.7072E-12	667.609E-3	-17.2022E-3
2.26363E-3	82.6443E-12	701.704E-3	-31.8358E-3	82.2848E-12	670.280E-3	-24.4974E-3
2.25863E-3	82.1146E-12	694.904E-3	-15.9015E-3	81.9719E-12	670.657E-3	-17.0556E-3
2.25363E-3	81.5720E-12	685.673E-3	14.3127E-3	82.1387E-12	667.126E-3	-18.5609E-3
2.24862E-3	81.2723E-12	678.282E-3	22.4853E-3	82.0237E-12	671.711E-3	-13.4789E-3
2.24362E-3	81.2066E-12	678.610E-3	-6.59891E-3	81.2712E-12	694.826E-3	1.20626E-3
2.23862E-3	81.1622E-12	687.967E-3	-26.9619E-3	81.0528E-12	707.180E-3	-2.56403E-3
2.23362E-3	80.6812E-12	701.407E-3	-19.4335E-3	81.2505E-12	696.958E-3	-18.9020E-3
2.22861E-3	80.4468E-12	713.883E-3	-16.7848E-3	81.2025E-12	693.206E-3	-18.7458E-3
2.22361E-3	79.9604E-12	727.164E-3	-28.3853E-3	80.6948E-12	696.719E-3	-13.8773E-3
2.21861E-3	80.9841E-12	733.985E-3	-32.2733E-3	80.3807E-12	709.305E-3	-11.2482E-3
2.21361E-3	80.6536E-12	722.883E-3	-23.4470E-3	80.3832E-12	730.307E-3	-12.1066E-3
2.20860E-3	80.6266E-12	712.247E-3	-10.9106E-3	80.3819E-12	723.482E-3	-20.1339E-3
2.20360E-3	80.7043E-12	716.157E-3	-5.38091E-3	80.2411E-12	708.937E-3	-7.87661E-3
2.19860E-3	81.1575E-12	719.694E-3	-13.6289E-3	79.8658E-12	714.638E-3	5.16401E-3
2.19360E-3	80.7077E-12	724.432E-3	-29.3779E-3	79.7721E-12	709.576E-3	-6.04887E-3
2.18859E-3	80.6662E-12	728.849E-3	-33.0522E-3	78.8124E-12	701.567E-3	-16.2042E-3
2.18359E-3	80.4184E-12	723.917E-3	-28.0618E-3	78.9910E-12	702.366E-3	-21.8892E-3
2.17859E-3	79.8421E-12	727.975E-3	-21.1566E-3	78.6179E-12	708.582E-3	-27.8848E-3
2.17359E-3	79.8486E-12	734.624E-3	-21.1245E-3	78.2195E-12	736.863E-3	-28.0565E-3
2.16858E-3	79.1067E-12	729.810E-3	-26.4910E-3	77.9864E-12	766.387E-3	-16.7432E-3
2.16358E-3	78.4318E-12	726.020E-3	-18.2011E-3	77.9156E-12	774.376E-3	-11.4570E-3
2.15858E-3	77.9489E-12	716.179E-3	-7.96771E-3	77.9917E-12	760.618E-3	-26.9621E-3
2.15358E-3	77.4752E-12	696.477E-3	-9.71266E-3	77.6454E-12	735.220E-3	-29.4335E-3
2.14857E-3	76.4342E-12	694.679E-3	-8.37549E-3	77.6147E-12	723.560E-3	-10.5808E-3
2.14357E-3	76.2415E-12	705.818E-3	2.97629E-3	77.9162E-12	729.472E-3	-817.845E-6
2.13857E-3	75.7409E-12	702.572E-3	-3.06763E-3	77.8816E-12	735.241E-3	270.464E-6
2.13357E-3	75.6402E-12	695.420E-3	-17.6632E-3	77.5058E-12	728.114E-3	-3.81335E-3
2.12856E-3	75.5694E-12	698.708E-3	-16.4775E-3	77.2223E-12	721.041E-3	-18.8240E-3
2.12356E-3	75.2895E-12	705.034E-3	-7.04948E-3	77.6758E-12	724.078E-3	-32.7692E-3
2.11856E-3	75.5754E-12	711.538E-3	-9.97338E-3	76.8791E-12	727.596E-3	-36.2891E-3
2.11356E-3	75.9169E-12	718.976E-3	-13.7098E-3	76.8775E-12	727.798E-3	-30.0750E-3
2.10855E-3	75.8803E-12	721.232E-3	-6.90109E-3	76.5783E-12	730.895E-3	-26.8547E-3
2.10355E-3	75.8391E-12	726.370E-3	-5.64375E-3	75.9321E-12	725.979E-3	-31.2404E-3
2.09855E-3	75.9557E-12	734.386E-3	-3.60976E-3	75.6058E-12	714.381E-3	-31.2020E-3
2.09355E-3	75.7522E-12	727.513E-3	-7.66326E-3	75.3425E-12	728.231E-3	-28.6828E-3
2.08854E-3	75.6179E-12	714.971E-3	-20.2516E-3	74.5456E-12	744.224E-3	-25.2985E-3
2.08354E-3	75.1089E-12	713.699E-3	-19.5995E-3	73.8344E-12	740.687E-3	-21.8656E-3
2.07854E-3	74.7704E-12	721.744E-3	2.12291E-3	73.6960E-12	742.527E-3	-17.9361E-3
2.07354E-3	73.6786E-12	741.791E-3	13.0206E-3	73.3299E-12	746.316E-3	-7.13214E-3
2.06853E-3	73.1896E-12	767.492E-3	-6.56165E-3	72.9473E-12	746.346E-3	996.093E-6
2.06353E-3	72.6516E-12	766.587E-3	-26.8264E-3	72.5969E-12	742.250E-3	-5.73581E-3
2.05853E-3	72.1088E-12	748.634E-3	-38.8587E-3	72.5188E-12	731.829E-3	-16.9282E-3
2.05353E-3	71.9203E-12	739.802E-3	-39.0263E-3	72.4036E-12	728.072E-3	-18.6744E-3
2.04852E-3	71.0084E-12	727.703E-3	-21.0566E-3	72.0702E-12	729.419E-3	-28.6530E-3
2.04352E-3	70.9313E-12	719.711E-3	-20.7200E-3	71.7005E-12	731.375E-3	-50.5669E-3
2.03852E-3	71.0591E-12	725.853E-3	-50.8642E-3	71.4414E-12	727.043E-3	-50.3827E-3
2.03352E-3	71.0512E-12	732.155E-3	-55.7492E-3	71.5457E-12	719.643E-3	-30.8077E-3
2.02851E-3	70.6766E-12	734.028E-3	-29.0441E-3	71.5452E-12	721.586E-3	-18.1542E-3
2.02351E-3	70.7411E-12	742.171E-3	-11.9549E-3	71.1161E-12	731.244E-3	-15.4799E-3
2.01851E-3	70.9168E-12	743.728E-3	2.92096E-3	70.3531E-12	737.888E-3	-16.2085E-3
2.01351E-3	70.6629E-12	721.976E-3	6.61836E-3	70.7422E-12	730.945E-3	-14.0693E-3
2.00850E-3	71.1087E-12	714.855E-3	-9.75275E-3	70.3321E-12	728.695E-3	-13.6238E-3
2.00350E-3	70.8631E-12	734.193E-3	-13.9051E-3	69.4967E-12	749.725E-3	-18.1566E-3
1.99850E-3	70.7676E-12	736.922E-3	-6.77006E-3	69.3478E-12	762.980E-3	-34.8384E-3
1.99350E-3	71.1166E-12	741.155E-3	-18.8909E-3	69.4099E-12	752.388E-3	-53.6024E-3
1.98849E-3	71.0097E-12	766.190E-3	-28.5027E-3	69.0431E-12	749.525E-3	-42.3376E-3
1.98349E-3	70.2360E-12	765.297E-3	-18.2708E-3	68.4775E-12	758.272E-3	-31.2179E-3
1.97849E-3	69.4593E-12	754.035E-3	-9.58418E-3	68.6971E-12	754.308E-3	-36.9729E-3
1.97349E-3	69.6587E-12	759.864E-3	12.0287E-3	67.9720E-12	743.959E-3	-26.4721E-3
1.96848E-3	69.2333E-12	752.704E-3	30.3916E-3	67.9539E-12	746.190E-3	-18.6921E-3
1.96348E-3	68.2794E-12	749.247E-3	16.4311E-3	67.9637E-12	747.425E-3	-25.6944E-3
1.95848E-3	67.6758E-12	756.724E-3	-12.1003E-3	67.6284E-12	748.697E-3	-18.9582E-3
1.95348E-3	67.2844E-12	738.875E-3	-29.7169E-3	67.0517E-12	749.050E-3	-9.04040E-3
1.94847E-3	67.3801E-12	726.778E-3	-30.0428E-3	66.7598E-12	745.870E-3	-18.6828E-3
1.94347E-3	66.9613E-12	746.725E-3	-21.1057E-3	67.4195E-12	756.971E-3	-27.5934E-3
1.93847E-3	66.6190E-12	750.364E-3	-17.4185E-3	66.7664E-12	774.774E-3	-29.3695E-3
1.93347E-3	66.7309E-12	739.123E-3	-37.8462E-3	66.3770E-12	779.597E-3	-35.1756E-3
1.92846E-3	66.9022E-12	743.736E-3	-44.8639E-3	66.1960E-12	775.332E-3	-28.1552E-3
1.92346E-3	66.6680E-12	753.860E-3	-20.4425E-3	66.3158E-12	782.094E-3	-8.49195E-3
1.91846E-3	66.2888E-12	758.839E-3	-22.7553E-3	65.9884E-12	787.343E-3	-4.92675E-3
1.91346E-3	66.7092E-12	766.243E-3	-34.4318E-3	65.2207E-12	773.742E-3	-4.16041E-3
1.90845E-3	66.3525E-12	767.660E-3	-15.5030E-3	65.0327E-12	769.768E-3	-4.55929E-3
1.90345E-3	65.8052E-12	758.898E-3	-8.21415E-3	64.9888E-12	776.490E-3	-27.9615E-3
1.89845E-3	66.0903E-12	773.746E-3	-15.8403E-3	64.4956E-12	772.259E-3	-39.3848E-3
1.89345E-3	66.1127E-12	791.352E-3	-6.24623E-3	64.3320E-12	773.853E-3	-22.2574E-3
1.88844E-3	64.8981E-12	792.630E-3	285.078E-6	64.0675E-12	787.299E-3	-12.2367E-3
1.88344E-3	64.8181E-12	796.280E-3	-10.8822E-3	63.7295E-12	792.159E-3	-17.5469E-3
1.87844E-3	65.0532E-12	793.313E-3	-20.0954E-3	63.9568E-12	789.648E-3	-14.2976E-3
1.87344E-3	64.1876E-12	786.126E-3	-24.0859E-3	63.7276E-12	791.854E-3	2.39239E-3
1.86843E-3	63.7985E-12	785.487E-3	-24.3761E-3	63.0708E-12	797.193E-3	11.0440E-3
1.86343E-3	63.4635E-12	784.690E-3	-11.2348E-3	62.9862E-12	805.816E-3	-14.5439E-6
1.85843E-3	63.1887E-12	779.687E-3	-3.37868E-3	62.9214E-12	813.358E-3	-12.8369E-3
1.85343E-3	62.7447E-12	784.765E-3	-10.8510E-3	62.2228E-12	803.717E-3	-13.0834E-3
1.84842E-3	63.2113E-12	795.576E-3	-18.4920E-3	62.3600E-12	795.300E-3	-12.3613E-3
1.84342E-3	62.2465E-12	795.629E-3	-21.9528E-3	62.2551E-12	809.538E-3	-21.5964E-3
1.83842E-3	61.7374E-12	800.900E-3	-25.9514E-3	61.7108E-12	809.856E-3	-31.3645E-3
1.83342E-3	61.9643E-12	808.075E-3	-26.1959E-3	61.3527E-12	799.674E-3	-25.6953E-3
1.82841E-3	61.5671E-12	796.651E-3	-9.16000E-3	61.3007E-12	803.557E-3	-15.5135E-3
1.82341E-3	60.7553E-12	789.085E-3	4.33033E-3	61.0501E-12	799.008E-3	-4.47158E-3
1.81841E-3	60.5766E-12	784.445E-3	-4.88472E-3	60.0893E-12	783.226E-3	8.22525E-3
1.81341E-3	60.5886E-12	770.392E-3	-17.2699E-3	60.0676E-12	777.314E-3	1.74881E-3
1.80840E-3	59.6363E-12	778.508E-3	-20.9550E-3	59.3945E-12	787.742E-3	-17.4653E-3
1.80340E-3	59.9119E-12	808.050E-3	-12.5543E-3	59.3359E-12	807.106E-3	-25.3186E-3
1.79840E-3	59.5775E-12	821.267E-3	-2.81059E-3	59.0436E-12	812.151E-3	-21.2480E-3
1.79340E-3	58.7888E-12	819.112E-3	-5.61176E-3	58.8798E-12	800.446E-3	-27.2818E-3
1.78839E-3	59.1644E-12	821.908E-3	-17.1186E-3	58.4889E-12	801.555E-3	-36.8387E-3
1.78339E-3	59.3964E-12	833.727E-3	-28.2176E-3	58.7700E-12	821.214E-3	-41.5558E-3
1.77839E-3	58.5006E-12	850.040E-3	-29.7651E-3	58.6581E-12	827.986E-3	-41.0661E-3
1.77339E-3	58.1863E-12	852.283E-3	-20.0459E-3	58.0285E-12	819.493E-3	-21.1815E-3
1.76838E-3	58.6118E-12	837.559E-3	-10.8332E-3	57.9709E-12	827.911E-3	-442.696E-6
1.76338E-3	58.1446E-12	831.693E-3	-13.4880E-3	57.9692E-12	842.813E-3	-1.97841E-3
1.75838E-3	58.1269E-12	838.021E-3	-8.45462E-3	57.4891E-12	843.861E-3	-8.75322E-3
1.75338E-3	57.3656E-12	835.870E-3	9.43915E-3	56.9270E-12	837.751E-3	-3.06199E-3
1.74837E-3	57.0154E-12	829.487E-3	9.22381E-3	56.7870E-12	843.812E-3	7.89994E-3
1.74337E-3	57.2129E-12	840.096E-3	-6.91820E-3	56.6437E-12	861.398E-3	5.20216E-3
1.73837E-3	56.1775E-12	859.152E-3	-9.68779E-3	56.1969E-12	863.996E-3	-13.4137E-3
1.73337E-3	55.4529E-12	860.770E-3	-7.33602E-3	56.0447E-12	848.706E-3	-20.7253E-3
1.72836E-3	55.2628E-12	861.881E-3	-10.5470E-3	55.4720E-12	848.369E-3	-10.4324E-3
1.72336E-3	54.7786E-12	861.642E-3	-14.1804E-3	55.3184E-12	862.964E-3	-8.92791E-3
1.71836E-3	54.1067E-12	853.628E-3	-30.1205E-3	55.0168E-12	861.171E-3	-19.6550E-3
1.71336E-3	53.9412E-12	857.452E-3	-40.9337E-3	54.6003E-12	857.378E-3	-21.2542E-3
1.70835E-3	53.6662E-12	856.975E-3	-24.5817E-3	54.3385E-12	856.411E-3	-16.4370E-3
1.70335E-3	53.1189E-12	854.024E-3	-11.2716E-3	53.8741E-12	854.874E-3	-18.3232E-3
1.69835E-3	53.1051E-12	859.160E-3	-9.93222E-3	53.6921E-12	862.684E-3	-12.8834E-3
1.69335E-3	53.3165E-12	852.339E-3	-3.40167E-3	53.2246E-12	870.530E-3	-3.14737E-3
1.68834E-3	52.9242E-12	848.748E-3	1.14201E-3	53.2191E-12	877.214E-3	-12.5768E-3
1.68334E-3	52.9807E-12	873.567E-3	5.54975E-3	52.6289E-12	889.166E-3	-23.7807E-3
1.67834E-3	53.0117E-12	900.418E-3	7.04538E-3	52.2967E-12	897.209E-3	-19.2384E-3
1.67334E-3	52.7641E-12	907.105E-3	-350.490E-6	52.2802E-12	892.192E-3	-13.4757E-3
1.66833E-3	52.3947E-12	903.941E-3	-6.38796E-3	52.2232E-12	888.972E-3	-5.52103E-3
1.66333E-3	52.1377E-12	892.344E-3	-3.04356E-3	51.6062E-12	904.072E-3	-4.52062E-3
1.65833E-3	51.8127E-12	882.772E-3	-908.099E-6	51.3565E-12	911.558E-3	-14.7390E-3
1.65333E-3	51.3712E-12	898.437E-3	-8.17714E-3	51.1567E-12	897.903E-3	-18.1551E-3
1.64832E-3	50.9053E-12	919.424E-3	-12.4616E-3	51.0076E-12	896.520E-3	-20.9090E-3
1.64332E-3	50.4381E-12	915.946E-3	-12.0555E-3	50.7430E-12	911.444E-3	-16.9485E-3
1.63832E-3	49.8626E-12	906.785E-3	-6.01758E-3	50.1007E-12	919.235E-3	-7.53148E-3
1.63332E-3	49.2810E-12	903.559E-3	470.285E-6	49.9996E-12	919.098E-3	-3.37657E-3
1.62831E-3	49.0021E-12	894.493E-3	-1.20916E-3	50.0801E-12	918.717E-3	896.397E-6
1.62331E-3	48.7575E-12	889.039E-3	-5.84234E-3	49.5422E-12	918.299E-3	3.90595E-3
1.61831E-3	48.3002E-12	893.398E-3	-14.4672E-3	48.6910E-12	919.292E-3	-3.66874E-3
1.61331E-3	47.9092E-12	899.093E-3	-22.8862E-3	48.2282E-12	921.312E-3	-13.9754E-3
1.60830E-3	47.6109E-12	912.832E-3	-17.8094E-3	48.4655E-12	922.685E-3	-10.2680E-3
1.60330E-3	47.5812E-12	933.634E-3	-12.4139E-3	47.7957E-12	932.018E-3	1.46718E-3
1.59830E-3	48.1219E-12	939.165E-3	-17.5763E-3	47.3654E-12	948.098E-3	8.62028E-3
1.59330E-3	47.5151E-12	936.078E-3	-23.6557E-3	47.0124E-12	949.678E-3	8.75816E-3
1.58829E-3	47.3023E-12	932.459E-3	-21.1672E-3	47.2460E-12	936.363E-3	9.92847E-3
1.58329E-3	47.7746E-12	927.924E-3	-16.2599E-3	46.5274E-12	934.390E-3	-2.09494E-3
1.57829E-3	47.7210E-12	941.661E-3	-18.6781E-3	46.3113E-12	948.444E-3	-25.7726E-3
1.57329E-3	47.0461E-12	966.149E-3	-16.3666E-3	46.1160E-12	969.321E-3	-32.1970E-3
1.56828E-3	46.6251E-12	977.266E-3	-25.8123E-3	45.5488E-12	984.177E-3	-35.0662E-3
1.56328E-3	46.6567E-12	975.563E-3	-44.4598E-3	45.5316E-12	977.339E-3	-40.6002E-3
1.55828E-3	45.4322E-12	976.804E-3	-25.1244E-3	45.4452E-12	968.259E-3	-31.3470E-3
1.55328E-3	45.1341E-12	986.136E-3	4.39886E-3	45.4634E-12	979.605E-3	-21.2949E-3
1.54827E-3	44.9912E-12	986.561E-3	-7.13074E-3	44.9093E-12	987.055E-3	-15.6220E-3
1.54327E-3	44.0185E-12	971.548E-3	-21.6604E-3	44.7660E-12	974.677E-3	-10.0274E-3
1.53827E-3	43.4946E-12	961.459E-3	-17.5938E-3	44.3378E-12	971.761E-3	-19.4868E-3
1.53327E-3	43.2951E-12	964.601E-3	-19.6197E-3	44.6081E-12	986.199E-3	-28.7314E-3
1.52826E-3	43.2478E-12	979.485E-3	-15.5276E-3	44.4651E-12	997.014E-3	-20.6134E-3
1.52326E-3	42.2999E-12	992.903E-3	-4.86318E-3	43.4462E-12	992.918E-3	-7.81214E-3
1.51826E-3	41.9313E-12	977.898E-3	-291.303E-6	43.2674E-12	991.274E-3	-1.99043E-3
1.51326E-3	41.8682E-12	957.896E-3	8.23085E-3	43.2184E-12	1.00760E+0	1.22923E-3
1.50825E-3	42.0080E-12	966.190E-3	11.2251E-3	43.2105E-12	1.02771E+0	134.652E-6
1.50325E-3	41.5221E-12	981.114E-3	-7.18039E-3	42.3174E-12	1.03299E+0	-12.0163E-3
1.49825E-3	41.1284E-12	987.648E-3	-18.2432E-3	42.0710E-12	1.01986E+0	-22.0156E-3
1.49325E-3	40.8150E-12	985.939E-3	-10.2505E-3	41.6922E-12	1.00969E+0	-23.9878E-3
1.48824E-3	41.0452E-12	986.489E-3	-17.2200E-3	41.2175E-12	1.00876E+0	-25.3408E-3
1.48324E-3	40.6622E-12	999.201E-3	-18.8491E-3	40.9311E-12	1.00055E+0	-18.7126E-3
1.47824E-3	39.9935E-12	1.00193E+0	-12.4419E-6	40.2380E-12	996.982E-3	-6.62571E-3
1.47324E-3	39.8421E-12	995.927E-3	-10.2803E-3	39.9860E-12	999.031E-3	272.530E-6
1.46823E-3	39.4461E-12	1.00837E+0	-27.3868E-3	39.5991E-12	1.00061E+0	6.55272E-3
1.46323E-3	38.8847E-12	1.01235E+0	-17.2736E-3	39.4849E-12	1.00512E+0	-418.483E-6
1.45823E-3	38.6302E-12	991.413E-3	-13.0895E-3	38.9674E-12	1.00227E+0	-15.5324E-3
1.45323E-3	38.2114E-12	990.271E-3	-11.3272E-3	38.4674E-12	1.00026E+0	-15.7198E-3
1.44822E-3	37.5708E-12	1.00140E+0	-12.3325E-3	38.8222E-12	997.898E-3	-10.7760E-3
1.44322E-3	36.9919E-12	1.00214E+0	-31.5565E-3	37.8194E-12	986.842E-3	-14.8479E-3
1.43822E-3	37.0318E-12	998.717E-3	-42.8446E-3	37.6121E-12	976.487E-3	-6.99085E-3
1.43322E-3	36.7575E-12	980.765E-3	-30.7263E-3	37.3119E-12	975.634E-3	14.0426E-3
1.42821E-3	36.1408E-12	960.657E-3	-24.3481E-3	36.7224E-12	975.131E-3	15.0096E-3
1.42321E-3	35.8664E-12	963.731E-3	-29.4679E-3	36.2751E-12	965.625E-3	2.40296E-3
1.41821E-3	35.8300E-12	973.150E-3	-19.1534E-3	36.1748E-12	956.958E-3	-5.69846E-3
1.41321E-3	35.3251E-12	971.961E-3	-8.15898E-3	35.7961E-12	959.556E-3	-6.83520E-3
1.40820E-3	34.8421E-12	979.283E-3	-13.6341E-3	35.3548E-12	970.328E-3	-2.10226E-3
1.40320E-3	34.8881E-12	984.557E-3	-20.3210E-3	35.0901E-12	963.757E-3	-905.831E-6
1.39820E-3	34.5640E-12	964.600E-3	-17.8565E-3	35.0098E-12	951.614E-3	-6.13501E-3
1.39320E-3	34.3033E-12	948.227E-3	-8.08035E-3	34.4050E-12	950.140E-3	-12.1270E-3
1.38819E-3	33.6837E-12	947.254E-3	5.63413E-3	34.0502E-12	942.501E-3	-15.7263E-3
1.38319E-3	33.3333E-12	935.793E-3	6.87018E-3	33.9564E-12	935.955E-3	-16.2821E-3
1.37819E-3	33.2123E-12	935.359E-3	-5.84004E-3	33.3587E-12	927.874E-3	-7.10550E-3
1.37319E-3	33.1267E-12	958.131E-3	-9.24487E-3	33.2188E-12	913.292E-3	2.97026E-3
1.36818E-3	32.8005E-12	966.736E-3	-9.09181E-3	32.9947E-12	894.756E-3	-2.55792E-3
1.36318E-3	32.2666E-12	953.078E-3	-20.4847E-3	32.7408E-12	876.115E-3	-10.6507E-3
1.35818E-3	32.4124E-12	934.190E-3	-25.8606E-3	32.0330E-12	871.713E-3	-8.20322E-3
1.35318E-3	32.2136E-12	918.759E-3	-19.6637E-3	31.6006E-12	876.026E-3	-7.31572E-3
1.34817E-3	31.8990E-12	910.297E-3	-17.5365E-3	31.7098E-12	869.437E-3	-17.3915E-3
1.34317E-3	31.3367E-12	906.194E-3	-14.3384E-3	31.5774E-12	855.625E-3	-22.8058E-3
1.33817E-3	31.2273E-12	904.903E-3	-16.2777E-3	30.9799E-12	851.643E-3	-21.1142E-3
1.33317E-3	30.9479E-12	904.338E-3	-26.3387E-3	30.6626E-12	849.644E-3	-23.6340E-3
1.32816E-3	30.5847E-12	902.060E-3	-26.9818E-3	30.7234E-12	835.344E-3	-26.3147E-3
1.32316E-3	30.5020E-12	895.016E-3	-24.3405E-3	29.9021E-12	815.967E-3	-27.1063E-3
1.31816E-3	30.0144E-12	881.705E-3	-20.1396E-3	29.6994E-12	807.368E-3	-28.5390E-3
1.31316E-3	29.6039E-12	865.191E-3	-8.23111E-3	29.2515E-12	802.351E-3	-24.6313E-3
1.30815E-3	29.3747E-12	835.654E-3	-1.46825E-3	29.1404E-12	794.823E-3	-25.5959E-3
1.30315E-3	29.0343E-12	811.830E-3	-7.49811E-3	28.9362E-12	790.430E-3	-39.3861E-3
1.29815E-3	28.4812E-12	809.901E-3	-12.9262E-3	28.8611E-12	781.461E-3	-38.1585E-3
1.29315E-3	28.3875E-12	796.136E-3	-13.0487E-3	28.1315E-12	767.939E-3	-19.6967E-3
1.28814E-3	28.1344E-12	774.337E-3	-17.9670E-3	27.9836E-12	756.158E-3	-13.9421E-3
1.28314E-3	27.6289E-12	769.050E-3	-23.2867E-3	28.1148E-12	737.130E-3	-20.1080E-3
1.27814E-3	27.4659E-12	764.803E-3	-22.9541E-3	27.4747E-12	721.734E-3	-15.9167E-3
1.27314E-3	27.1827E-12	757.829E-3	-20.3566E-3	27.5774E-12	703.927E-3	-6.09876E-3
1.26813E-3	27.0527E-12	752.099E-3	-13.3067E-3	27.5310E-12	669.413E-3	-7.31535E-3
1.26313E-3	26.6731E-12	734.433E-3	-16.5870E-3	26.9912E-12	655.743E-3	-9.05138E-3
1.25813E-3	26.7682E-12	708.088E-3	-35.6874E-3	26.9591E-12	660.393E-3	-5.95898E-3
1.25313E-3	26.6050E-12	695.425E-3	-38.9269E-3	26.5329E-12	641.357E-3	-9.12265E-3
1.24812E-3	26.1590E-12	693.836E-3	-27.6148E-3	26.4890E-12	622.091E-3	-16.5958E-3
1.24312E-3	26.0167E-12	688.796E-3	-31.8252E-3	26.2021E-12	626.551E-3	-19.7495E-3
1.23812E-3	26.0657E-12	680.211E-3	-41.7895E-3	26.2597E-12	619.325E-3	-14.1323E-3
1.23312E-3	25.7818E-12	667.461E-3	-41.4339E-3	25.8128E-12	603.564E-3	-10.0766E-3
1.22811E-3	25.3847E-12	657.104E-3	-37.3420E-3	26.1564E-12	597.448E-3	-14.4493E-3
1.22311E-3	25.1206E-12	649.188E-3	-26.3047E-3	26.3944E-12	581.530E-3	-13.0312E-3
1.21811E-3	24.8880E-12	629.311E-3	-18.0668E-3	25.2393E-12	558.784E-3	1.77883E-3
1.21311E-3	24.9382E-12	603.689E-3	-29.0643E-3	24.9529E-12	538.996E-3	5.01215E-3
1.20810E-3	24.5183E-12	592.202E-3	-35.5499E-3	25.3942E-12	523.800E-3	-8.66883E-3
1.20310E-3	23.9651E-12	579.579E-3	-23.0673E-3	25.3761E-12	527.470E-3	-20.1253E-3
1.19810E-3	23.8117E-12	552.819E-3	-15.4731E-3	25.0541E-12	532.362E-3	-22.8817E-3
1.19310E-3	23.5009E-12	528.277E-3	-14.9601E-3	24.3912E-12	513.475E-3	-13.2436E-3
1.18809E-3	23.3418E-12	497.516E-3	-15.8408E-3	24.2604E-12	487.027E-3	649.257E-6
1.18309E-3	23.9555E-12	470.441E-3	-21.5863E-3	23.8781E-12	471.688E-3	1.67466E-3
1.17809E-3	23.5742E-12	481.008E-3	-24.3410E-3	23.9286E-12	458.438E-3	-17.8565E-3
1.17309E-3	23.2097E-12	499.506E-3	-14.2274E-3	23.5433E-12	437.166E-3	-38.3692E-3
1.16808E-3	23.2162E-12	492.170E-3	-8.93727E-3	23.2694E-12	422.122E-3	-35.5395E-3
1.16308E-3	23.2274E-12	478.608E-3	-24.0782E-3	23.0565E-12	415.019E-3	-25.7248E-3
1.15808E-3	23.2149E-12	460.532E-3	-32.4522E-3	23.1997E-12	410.433E-3	-14.0831E-3
1.15308E-3	23.0144E-12	433.026E-3	-32.7374E-3	23.2590E-12	402.285E-3	8.05690E-3
1.14807E-3	22.8444E-12	422.430E-3	-33.0757E-3	22.6368E-12	377.600E-3	11.7520E-3
1.14307E-3	22.7205E-12	424.076E-3	-20.8423E-3	22.8161E-12	348.680E-3	-7.19962E-3
1.13807E-3	22.8672E-12	409.775E-3	-15.6800E-3	22.5518E-12	342.795E-3	-12.7299E-3
1.13307E-3	22.5464E-12	393.884E-3	-29.1985E-3	22.8254E-12	349.052E-3	-10.3443E-3
1.12806E-3	22.2974E-12	388.880E-3	-31.6021E-3	22.3945E-12	338.921E-3	-14.8456E-3
1.12306E-3	22.1196E-12	375.110E-3	-26.3041E-3	22.3638E-12	332.385E-3	-19.0008E-3
1.11806E-3	21.4353E-12	352.246E-3	-28.9893E-3	22.0727E-12	327.742E-3	-14.3595E-3
1.11306E-3	21.0709E-12	334.802E-3	-18.5453E-3	22.0870E-12	297.928E-3	-2.29467E-3
1.10805E-3	21.3726E-12	324.907E-3	-11.2839E-3	22.0000E-12	279.275E-3	700.779E-6
1.10305E-3	21.4367E-12	323.606E-3	-23.3491E-3	21.7549E-12	280.094E-3	-12.1875E-3
1.09805E-3	20.8350E-12	317.577E-3	-27.4761E-3	21.7034E-12	270.624E-3	-18.3285E-3
1.09305E-3	20.6117E-12	293.149E-3	-31.0762E-3	21.3799E-12	266.518E-3	-3.33340E-3
1.08804E-3	20.9483E-12	272.522E-3	-43.8668E-3	21.7021E-12	260.661E-3	-1.04725E-3
1.08304E-3	20.7979E-12	273.898E-3	-35.5447E-3	21.3321E-12	240.894E-3	-15.1653E-3
1.07804E-3	20.6287E-12	270.943E-3	-14.9587E-3	21.1819E-12	222.512E-3	-18.9577E-3
1.07304E-3	20.7591E-12	260.214E-3	-17.7763E-3	20.8489E-12	218.323E-3	-16.6815E-3
1.06803E-3	20.8228E-12	252.805E-3	-15.6706E-3	20.6136E-12	224.031E-3	-14.0281E-3
1.06303E-3	20.7485E-12	234.431E-3	-308.951E-6	21.1214E-12	228.568E-3	-5.89147E-3
1.05803E-3	20.7170E-12	220.441E-3	-14.4621E-3	20.8080E-12	225.735E-3	-90.0445E-6
1.05303E-3	20.9327E-12	234.089E-3	-35.3653E-3	20.3964E-12	210.107E-3	-4.24136E-3
1.04802E-3	20.9177E-12	239.833E-3	-29.2564E-3	20.5387E-12	189.385E-3	-14.7841E-3
1.04302E-3	20.8420E-12	217.010E-3	-22.8380E-3	20.4990E-12	178.579E-3	-12.0244E-3
1.03802E-3	21.1119E-12	212.548E-3	-25.3914E-3	20.3446E-12	174.330E-3	1.58213E-3
1.03302E-3	20.6173E-12	213.985E-3	-13.6401E-3	20.1408E-12	158.959E-3	-9.37729E-3
1.02801E-3	20.4239E-12	198.637E-3	-6.95895E-3	19.6871E-12	145.207E-3	-33.6045E-3
1.02301E-3	20.1772E-12	191.068E-3	-19.6307E-3	19.8512E-12	144.873E-3	-33.6439E-3
1.01801E-3	20.6197E-12	172.767E-3	-20.2753E-3	19.9790E-12	151.663E-3	-11.8037E-3
1.01301E-3	20.0962E-12	141.576E-3	-20.2628E-3	19.7720E-12	157.865E-3	9.59922E-3
1.00800E-3	20.1184E-12	145.648E-3	-21.8752E-3	19.4439E-12	152.958E-3	13.8914E-3
1.00300E-3	20.2103E-12	166.465E-3	-10.5989E-3	19.2493E-12	149.165E-3	902.945E-6
997.999E-6	20.2675E-12	151.041E-3	-13.9419E-3	19.4678E-12	134.282E-3	-4.10505E-3
992.997E-6	20.0952E-12	145.458E-3	-29.5220E-3	19.7578E-12	105.536E-3	-5.60232E-3
987.994E-6	20.0662E-12	167.082E-3	-22.7079E-3	19.2762E-12	98.1101E-3	-13.3117E-3
982.991E-6	20.1447E-12	155.456E-3	-6.85474E-3	19.1137E-12	110.885E-3	-13.3312E-3
977.989E-6	20.2358E-12	137.466E-3	-14.0406E-3	19.4017E-12	124.840E-3	-22.1114E-3
972.986E-6	20.3625E-12	141.618E-3	-16.2123E-3	19.6391E-12	128.671E-3	-29.2173E-3
967.984E-6	19.8882E-12	131.788E-3	-11.8165E-3	19.4775E-12	120.925E-3	-16.7941E-3
962.981E-6	19.7613E-12	121.612E-3	-30.5784E-3	19.5729E-12	116.361E-3	-7.25158E-3
957.979E-6	20.1253E-12	125.364E-3	-38.8033E-3	19.2737E-12	125.199E-3	-3.58461E-3
952.976E-6	20.4109E-12	122.670E-3	-26.5217E-3	19.3277E-12	129.444E-3	956.037E-6
947.974E-6	19.9911E-12	113.012E-3	-24.6909E-3	19.5744E-12	124.042E-3	-2.99869E-3
942.971E-6	19.6913E-12	111.727E-3	-18.4916E-3	19.2432E-12	122.014E-3	-13.1058E-3
937.969E-6	19.6232E-12	111.352E-3	-5.71605E-3	19.1740E-12	120.540E-3	-16.0153E-3
932.966E-6	19.7444E-12	115.531E-3	-17.4960E-3	19.5233E-12	116.178E-3	-17.9810E-3
927.964E-6	20.0550E-12	140.694E-3	-29.2780E-3	19.4639E-12	106.733E-3	-15.9064E-3
922.961E-6	19.7094E-12	150.917E-3	-18.2290E-3	19.3106E-12	96.4362E-3	-6.17761E-3
917.959E-6	19.4135E-12	128.249E-3	-15.4904E-3	19.3369E-12	99.7288E-3	-6.86592E-3
912.956E-6	19.2208E-12	115.302E-3	-17.1521E-3	19.2585E-12	114.881E-3	-11.2229E-3
907.954E-6	20.3796E-12	117.797E-3	-10.6540E-3	18.9185E-12	120.726E-3	-9.96199E-3
902.951E-6	19.5820E-12	115.762E-3	-12.9440E-3	19.2077E-12	112.520E-3	-7.44059E-3
897.949E-6	19.0321E-12	124.280E-3	-10.6532E-3	19.4656E-12	101.700E-3	-9.25231E-3
892.946E-6	19.0930E-12	128.296E-3	3.63340E-3	19.1838E-12	103.069E-3	-14.6766E-3
887.944E-6	20.1367E-12	115.150E-3	274.500E-6	18.7696E-12	116.714E-3	-17.0681E-3
882.941E-6	19.5491E-12	108.162E-3	-9.73993E-3	19.0672E-12	123.316E-3	-23.3146E-3
877.939E-6	19.0603E-12	108.582E-3	-3.86753E-3	19.1966E-12	117.941E-3	-22.7860E-3
872.936E-6	19.0168E-12	115.923E-3	-9.90169E-3	18.9694E-12	118.480E-3	-17.3622E-3
867.934E-6	19.1523E-12	130.336E-3	-20.9286E-3	18.9178E-12	124.391E-3	-21.1086E-3
862.931E-6	19.0958E-12	134.599E-3	-7.95409E-3	18.6451E-12	126.629E-3	-13.7083E-3
857.929E-6	18.9714E-12	129.112E-3	-320.644E-6	18.7594E-12	133.156E-3	1.70103E-3
852.926E-6	18.9007E-12	136.377E-3	-7.26464E-3	19.0930E-12	145.947E-3	2.99180E-3
847.924E-6	18.8006E-12	147.168E-3	-9.64687E-3	18.6272E-12	166.576E-3	-4.15073E-3
842.921E-6	18.7021E-12	144.461E-3	-17.0795E-3	18.2493E-12	180.786E-3	-10.7790E-3
837.919E-6	19.0734E-12	147.239E-3	-17.7696E-3	18.4587E-12	174.459E-3	-18.3912E-3
832.916E-6	19.0160E-12	150.378E-3	6.36740E-3	18.8814E-12	164.960E-3	-22.2337E-3
827.914E-6	18.7562E-12	152.358E-3	19.3152E-3	18.5446E-12	156.908E-3	-5.80891E-3
822.911E-6	18.3272E-12	163.929E-3	3.12596E-3	18.1290E-12	155.495E-3	6.35106E-3
817.909E-6	18.7736E-12	164.872E-3	-14.3541E-3	18.5314E-12	169.880E-3	-3.63373E-3
812.906E-6	19.0071E-12	159.344E-3	-30.0660E-3	18.5519E-12	174.850E-3	-9.44694E-3
807.904E-6	18.6742E-12	162.576E-3	-39.1286E-3	18.7306E-12	176.993E-3	-8.74690E-3
802.901E-6	18.1579E-12	169.518E-3	-28.7824E-3	18.6409E-12	190.836E-3	-22.0061E-3
797.899E-6	17.9530E-12	173.117E-3	-20.3045E-3	18.4121E-12	193.805E-3	-37.5914E-3
792.896E-6	18.6628E-12	169.841E-3	-30.4529E-3	18.4010E-12	194.792E-3	-34.7606E-3
787.894E-6	18.4006E-12	175.536E-3	-32.0092E-3	18.8503E-12	204.390E-3	-31.1932E-3
782.891E-6	17.6364E-12	187.260E-3	-23.9349E-3	18.6778E-12	209.628E-3	-33.4196E-3
777.889E-6	17.7284E-12	191.677E-3	-28.4413E-3	17.9025E-12	209.412E-3	-26.9744E-3
772.886E-6	17.9084E-12	195.088E-3	-28.8338E-3	18.1445E-12	207.789E-3	-14.6490E-3
767.884E-6	17.5203E-12	197.551E-3	-31.0562E-3	18.2174E-12	214.235E-3	-5.97139E-3
762.881E-6	17.5382E-12	204.637E-3	-33.0932E-3	17.9006E-12	225.418E-3	-4.35066E-3
757.879E-6	17.4082E-12	219.668E-3	-18.7569E-3	17.3377E-12	234.811E-3	-5.01430E-3
752.876E-6	17.1944E-12	226.002E-3	-22.3155E-3	17.3917E-12	247.459E-3	-5.20721E-3
747.874E-6	17.4043E-12	224.092E-3	-41.5294E-3	17.0960E-12	257.984E-3	-3.95477E-3
742.871E-6	17.5987E-12	234.694E-3	-41.4492E-3	17.3953E-12	259.322E-3	275.905E-6
737.869E-6	17.4089E-12	239.142E-3	-30.8817E-3	17.1056E-12	262.566E-3	55.7860E-6
732.866E-6	17.1071E-12	232.851E-3	-21.9985E-3	16.7743E-12	276.393E-3	-9.11577E-3
727.864E-6	17.4912E-12	241.578E-3	-8.82571E-3	16.5910E-12	283.705E-3	-23.4830E-3
722.861E-6	17.3196E-12	249.993E-3	-4.80230E-3	16.6013E-12	282.639E-3	-30.2559E-3
717.859E-6	17.0844E-12	247.137E-3	-20.2750E-3	16.9119E-12	289.715E-3	-22.7200E-3
712.856E-6	17.1939E-12	250.013E-3	-22.0091E-3	16.3348E-12	309.739E-3	-19.5500E-3
707.854E-6	17.0663E-12	265.015E-3	-10.8227E-3	16.1344E-12	325.248E-3	-24.7263E-3
702.851E-6	16.7999E-12	292.710E-3	-21.0299E-3	16.2203E-12	322.005E-3	-28.3246E-3
697.849E-6	16.4887E-12	323.982E-3	-34.1617E-3	16.4388E-12	316.315E-3	-25.8692E-3
692.846E-6	16.3456E-12	331.122E-3	-24.2884E-3	16.3281E-12	312.753E-3	-20.6056E-3
687.844E-6	16.1976E-12	323.208E-3	-13.2000E-3	15.9162E-12	319.235E-3	-27.9805E-3
682.841E-6	16.2270E-12	322.337E-3	-2.80073E-3	16.1235E-12	348.973E-3	-28.9025E-3
677.839E-6	15.7043E-12	326.982E-3	9.18000E-3	16.2299E-12	375.614E-3	-14.3426E-3
672.836E-6	15.4892E-12	334.921E-3	1.90164E-3	16.0501E-12	384.129E-3	-7.96397E-3
667.834E-6	15.6390E-12	346.159E-3	-284.773E-6	15.8079E-12	382.756E-3	-11.2007E-3
662.831E-6	15.5556E-12	361.162E-3	9.20858E-3	15.5910E-12	389.652E-3	-12.5483E-3
657.829E-6	15.3955E-12	372.872E-3	3.92171E-3	15.7435E-12	405.040E-3	-14.7131E-3
652.826E-6	15.3858E-12	384.384E-3	-2.52001E-3	15.6688E-12	415.477E-3	-19.1493E-3
647.824E-6	15.4257E-12	393.626E-3	-11.8700E-3	15.4923E-12	421.917E-3	-29.7430E-3
642.821E-6	15.2080E-12	397.010E-3	-32.1768E-3	15.1916E-12	412.868E-3	-39.6579E-3
637.819E-6	15.4762E-12	399.270E-3	-35.1929E-3	15.4144E-12	411.546E-3	-24.9625E-3
632.816E-6	15.1919E-12	395.324E-3	-22.5664E-3	15.0279E-12	436.542E-3	-11.4188E-3
627.814E-6	15.1314E-12	402.723E-3	-20.9565E-3	14.5954E-12	450.156E-3	-18.7728E-3
622.811E-6	14.7968E-12	429.712E-3	-27.3022E-3	14.9844E-12	442.348E-3	-14.4912E-3
617.809E-6	14.5532E-12	441.839E-3	-25.0003E-3	14.6283E-12	441.996E-3	-7.79181E-3
612.806E-6	14.4378E-12	439.786E-3	-16.6215E-3	14.1447E-12	461.447E-3	-11.1489E-3
607.804E-6	14.3112E-12	452.591E-3	-6.31932E-3	14.1530E-12	488.197E-3	-2.83113E-3
602.801E-6	14.0839E-12	463.813E-3	-2.92394E-3	14.3513E-12	501.437E-3	7.33047E-3
597.799E-6	13.8098E-12	458.051E-3	-21.6027E-3	13.8779E-12	496.113E-3	935.215E-6
592.796E-6	13.8197E-12	461.980E-3	-32.0552E-3	13.6599E-12	483.280E-3	-6.77697E-3
587.794E-6	13.4988E-12	472.691E-3	-18.4199E-3	13.7324E-12	486.591E-3	-8.13981E-3
582.791E-6	13.2825E-12	470.956E-3	-13.1527E-3	13.2912E-12	506.796E-3	-14.6716E-3
577.789E-6	13.2579E-12	474.250E-3	-12.5327E-3	13.3907E-12	511.482E-3	-29.5944E-3
572.786E-6	12.9651E-12	481.385E-3	-3.20027E-3	13.2643E-12	504.576E-3	-31.6403E-3
567.784E-6	12.6548E-12	485.659E-3	-10.7969E-3	12.8319E-12	510.914E-3	-20.9340E-3
562.781E-6	12.8429E-12	497.103E-3	-26.0099E-3	12.4276E-12	525.684E-3	-16.0840E-3
557.779E-6	12.6334E-12	514.723E-3	-18.1239E-3	12.8024E-12	539.665E-3	-10.1838E-3
552.776E-6	12.3971E-12	528.717E-3	-13.6752E-3	12.6864E-12	557.382E-3	-5.96154E-3
547.774E-6	12.2739E-12	530.953E-3	-20.5571E-3	11.9973E-12	568.716E-3	-6.85222E-3
542.771E-6	12.0957E-12	525.670E-3	-9.92655E-3	12.0739E-12	562.674E-3	-3.30377E-3
537.769E-6	11.9941E-12	521.078E-3	-3.92614E-3	12.2372E-12	555.882E-3	-993.722E-6
532.766E-6	12.0215E-12	525.583E-3	-18.3851E-3	11.9458E-12	550.464E-3	-9.29034E-3
527.764E-6	11.8531E-12	538.901E-3	-20.3061E-3	11.5368E-12	553.698E-3	-13.7795E-3
522.761E-6	11.4564E-12	546.860E-3	-16.2561E-3	11.5823E-12	569.163E-3	-9.61972E-3
517.759E-6	11.2220E-12	551.749E-3	-23.5536E-3	11.1154E-12	563.182E-3	-9.93557E-3
512.756E-6	10.9426E-12	549.405E-3	-21.7503E-3	11.1432E-12	539.226E-3	-11.6572E-3
507.754E-6	10.6611E-12	532.605E-3	-14.8752E-3	11.0342E-12	537.982E-3	-16.4246E-3
502.751E-6	10.6524E-12	531.861E-3	-21.0685E-3	10.6082E-12	555.231E-3	-24.5137E-3
497.749E-6	10.4206E-12	548.853E-3	-28.8571E-3	10.2022E-12	566.387E-3	-18.3405E-3
492.746E-6	10.2194E-12	554.855E-3	-29.9332E-3	10.2830E-12	567.723E-3	-9.03217E-3
487.744E-6	10.1660E-12	553.458E-3	-31.2392E-3	10.1563E-12	557.904E-3	-18.3989E-3
482.741E-6	9.86251E-12	558.060E-3	-21.2331E-3	9.88571E-12	549.442E-3	-21.2188E-3
477.739E-6	9.82399E-12	558.652E-3	-8.06451E-3	9.67940E-12	553.037E-3	-7.64567E-3
472.736E-6	9.59211E-12	559.330E-3	-9.40828E-3	9.35626E-12	559.259E-3	-5.55610E-3
467.734E-6	9.26650E-12	573.329E-3	-13.5221E-3	9.27246E-12	556.713E-3	-12.7379E-3
462.731E-6	9.06010E-12	573.806E-3	-24.2357E-3	9.15423E-12	545.148E-3	-23.9561E-3
457.729E-6	8.84513E-12	557.933E-3	-37.4367E-3	8.97639E-12	546.027E-3	-36.1048E-3
452.726E-6	8.76998E-12	555.113E-3	-25.6157E-3	8.62613E-12	559.583E-3	-33.1454E-3
447.724E-6	8.57451E-12	549.754E-3	-8.88134E-3	8.50924E-12	555.692E-3	-27.7400E-3
442.721E-6	8.54156E-12	539.623E-3	-12.7370E-3	8.50163E-12	539.654E-3	-31.6380E-3
437.719E-6	8.28013E-12	553.780E-3	-7.53393E-3	8.25475E-12	529.245E-3	-33.9274E-3
432.716E-6	8.15382E-12	561.185E-3	164.376E-6	8.02023E-12	527.181E-3	-35.9308E-3
427.714E-6	7.91258E-12	546.205E-3	-16.9079E-3	7.66245E-12	535.442E-3	-40.9372E-3
422.711E-6	7.81452E-12	548.773E-3	-17.7019E-3	7.53352E-12	542.683E-3	-40.7420E-3
417.709E-6	7.52432E-12	560.361E-3	-737.811E-6	7.47463E-12	537.536E-3	-23.4109E-3
412.706E-6	7.33932E-12	555.199E-3	-12.5070E-3	7.21639E-12	528.690E-3	-1.60505E-3
407.704E-6	7.29530E-12	535.192E-3	-17.4797E-3	6.93528E-12	527.705E-3	-2.85293E-3
402.701E-6	7.00678E-12	511.634E-3	1.68669E-3	6.87451E-12	529.661E-3	-19.1871E-3
397.699E-6	6.79284E-12	498.994E-3	-1.60757E-3	6.78598E-12	528.219E-3	-26.5146E-3
392.696E-6	6.78437E-12	509.459E-3	-13.0475E-3	6.52800E-12	523.228E-3	-10.1831E-3
387.694E-6	6.60464E-12	521.843E-3	-14.4415E-3	6.40407E-12	517.974E-3	2.93690E-3
382.691E-6	6.34770E-12	511.749E-3	-26.3743E-3	6.30157E-12	510.924E-3	-6.23432E-3
377.689E-6	6.28283E-12	505.785E-3	-25.1638E-3	6.16504E-12	494.023E-3	-12.1179E-3
372.686E-6	6.03552E-12	502.945E-3	-9.87086E-3	6.21988E-12	483.662E-3	-13.6455E-3
367.684E-6	5.85048E-12	488.736E-3	-24.7054E-3	5.95049E-12	487.190E-3	-19.3220E-3
362.681E-6	5.57123E-12	493.839E-3	-43.8737E-3	5.57990E-12	487.692E-3	-21.3190E-3
357.679E-6	5.50545E-12	507.043E-3	-38.2807E-3	5.52825E-12	476.577E-3	-17.5516E-3
352.676E-6	5.52224E-12	488.375E-3	-32.4253E-3	5.64573E-12	471.615E-3	-15.6773E-3
347.674E-6	5.17899E-12	476.691E-3	-26.2379E-3	5.37761E-12	472.849E-3	-15.6039E-3
342.671E-6	4.97108E-12	480.539E-3	-15.4391E-3	4.95828E-12	456.992E-3	-14.4026E-3
337.669E-6	4.78873E-12	470.399E-3	-14.4702E-3	4.91992E-12	430.543E-3	-11.4021E-3
332.666E-6	4.73007E-12	466.592E-3	-20.0605E-3	4.81972E-12	411.898E-3	-11.4674E-3
327.664E-6	4.60279E-12	455.713E-3	-18.3963E-3	4.76782E-12	405.001E-3	-10.3060E-3
322.661E-6	4.47428E-12	432.676E-3	-16.0948E-3	4.43509E-12	397.818E-3	2.39440E-3
317.659E-6	4.22218E-12	430.133E-3	-27.5355E-3	4.19257E-12	387.301E-3	5.00966E-3
312.656E-6	4.21655E-12	438.907E-3	-33.1781E-3	4.16819E-12	375.675E-3	-2.82635E-3
307.654E-6	4.12182E-12	434.389E-3	-26.8058E-3	4.13516E-12	369.238E-3	-6.92114E-3
302.651E-6	3.95553E-12	423.194E-3	-19.2296E-3	4.00999E-12	377.390E-3	-12.5049E-3
297.649E-6	3.85507E-12	415.477E-3	-6.08186E-3	3.71636E-12	381.412E-3	-15.6530E-3
292.646E-6	3.66208E-12	400.267E-3	-2.54582E-3	3.62091E-12	367.928E-3	-15.7294E-3
287.644E-6	3.63894E-12	387.856E-3	-14.4597E-3	3.58241E-12	348.062E-3	-20.2092E-3
282.641E-6	3.44476E-12	388.472E-3	-25.0346E-3	3.56313E-12	333.265E-3	-28.8860E-3
277.639E-6	3.30294E-12	375.222E-3	-27.6633E-3	3.29332E-12	326.685E-3	-35.4183E-3
272.636E-6	3.07429E-12	357.221E-3	-22.2635E-3	3.12410E-12	319.083E-3	-38.3610E-3
267.634E-6	3.06762E-12	352.038E-3	-5.31026E-3	3.15103E-12	312.821E-3	-37.6797E-3
262.631E-6	3.03498E-12	343.275E-3	6.68229E-3	3.04496E-12	312.417E-3	-34.4644E-3
257.629E-6	2.79811E-12	341.354E-3	-1.41041E-3	2.89176E-12	310.492E-3	-33.0833E-3
252.626E-6	2.62947E-12	339.088E-3	-12.0432E-3	2.71702E-12	302.137E-3	-27.0160E-3
247.624E-6	2.52207E-12	312.550E-3	-15.7133E-3	2.69756E-12	291.103E-3	-14.8635E-3
242.621E-6	2.56779E-12	287.902E-3	-16.8507E-3	2.65225E-12	278.872E-3	-11.7466E-3
237.619E-6	2.53045E-12	289.883E-3	-10.2932E-3	2.56129E-12	261.646E-3	-22.1372E-3
232.616E-6	2.32758E-12	292.318E-3	-7.79456E-3	2.43563E-12	250.643E-3	-20.8640E-3
227.614E-6	2.12718E-12	285.087E-3	-22.9379E-3	2.28915E-12	249.796E-3	-9.71673E-3
222.611E-6	2.10136E-12	284.837E-3	-25.4934E-3	2.24107E-12	244.034E-3	-14.6400E-3
217.609E-6	2.06431E-12	280.975E-3	-6.19027E-3	2.14461E-12	227.280E-3	-21.7880E-3
212.606E-6	2.00996E-12	271.273E-3	-5.47054E-3	2.05903E-12	217.794E-3	-19.9400E-3
207.604E-6	1.86894E-12	262.714E-3	-18.6677E-3	1.99484E-12	219.561E-3	-25.7554E-3
202.601E-6	1.80066E-12	242.163E-3	-16.8693E-3	1.83225E-12	214.221E-3	-36.1428E-3
197.599E-6	1.64476E-12	217.914E-3	-19.3557E-3	1.81625E-12	209.708E-3	-30.3676E-3
192.596E-6	1.57543E-12	210.034E-3	-24.0709E-3	1.73321E-12	211.636E-3	-15.7456E-3
187.594E-6	1.58828E-12	212.415E-3	-8.87354E-3	1.60180E-12	202.027E-3	-9.63449E-3
182.591E-6	1.46182E-12	209.959E-3	-10.6923E-3	1.47741E-12	181.269E-3	-9.39717E-3
177.589E-6	1.39990E-12	206.627E-3	-23.6650E-3	1.49014E-12	183.845E-3	-10.6173E-3
172.586E-6	1.31658E-12	196.371E-3	-8.28281E-3	1.39440E-12	196.772E-3	-12.8945E-3
167.584E-6	1.28347E-12	171.649E-3	-4.40758E-3	1.27974E-12	187.222E-3	-11.8789E-3
162.581E-6	1.20639E-12	160.476E-3	-23.7527E-3	1.23572E-12	173.811E-3	-13.1693E-3
157.579E-6	1.07977E-12	162.262E-3	-30.0246E-3	1.14054E-12	168.518E-3	-15.5247E-3
152.576E-6	1.08660E-12	157.056E-3	-34.8868E-3	1.12899E-12	162.232E-3	-20.0485E-3
147.574E-6	1.09426E-12	154.163E-3	-41.4933E-3	1.07545E-12	164.103E-3	-27.2409E-3
142.571E-6	1.01936E-12	151.194E-3	-35.0534E-3	952.486E-15	169.354E-3	-22.8794E-3
137.569E-6	916.624E-15	149.828E-3	-28.9930E-3	976.491E-15	157.361E-3	-6.58568E-3
132.566E-6	819.805E-15	163.716E-3	-25.7620E-3	930.584E-15	143.226E-3	2.41482E-3
127.564E-6	837.243E-15	167.415E-3	-17.2409E-3	848.238E-15	137.930E-3	-4.62779E-3
122.561E-6	848.099E-15	143.139E-3	-13.3493E-3	814.259E-15	133.881E-3	-12.3340E-3
117.559E-6	753.512E-15	127.786E-3	-10.9068E-3	684.655E-15	128.580E-3	-17.7271E-3
112.556E-6	622.539E-15	135.314E-3	-4.65936E-3	694.578E-15	123.181E-3	-20.0837E-3
107.554E-6	666.153E-15	133.664E-3	-7.48983E-3	694.090E-15	120.959E-3	-10.2618E-3
102.551E-6	650.711E-15	127.410E-3	-16.0170E-3	654.312E-15	116.440E-3	-6.37063E-3
97.5488E-6	623.969E-15	133.454E-3	-16.6573E-3	589.318E-15	108.591E-3	-15.8747E-3
92.5463E-6	518.805E-15	134.041E-3	-18.1403E-3	528.231E-15	105.888E-3	-17.6431E-3
87.5438E-6	472.497E-15	125.244E-3	-19.2741E-3	526.993E-15	107.877E-3	-7.88998E-3
82.5413E-6	422.265E-15	118.486E-3	-6.27591E-3	465.905E-15	105.328E-3	-2.66410E-3
77.5388E-6	414.618E-15	107.707E-3	1.10745E-3	369.217E-15	99.8759E-3	-10.6542E-3
72.5363E-6	390.492E-15	92.8304E-3	-8.33250E-3	340.330E-15	104.805E-3	-21.1574E-3
67.5338E-6	302.636E-15	92.2796E-3	-6.07827E-3	358.963E-15	111.640E-3	-26.5302E-3
62.5313E-6	266.373E-15	92.9744E-3	1.04407E-3	272.860E-15	103.994E-3	-23.1054E-3
57.5288E-6	287.604E-15	86.2185E-3	-4.69062E-3	273.113E-15	98.4511E-3	-13.4282E-3
52.5263E-6	217.100E-15	98.4987E-3	-7.00477E-3	156.858E-15	99.3208E-3	-17.4972E-3
47.5238E-6	203.123E-15	106.664E-3	-13.0704E-3	190.297E-15	90.8770E-3	-23.3525E-3
42.5213E-6	132.531E-15	95.8242E-3	-19.2253E-3	190.637E-15	86.4834E-3	-14.6686E-3
37.5188E-6	107.210E-15	94.8612E-3	-7.14286E-3	115.729E-15	93.9146E-3	-8.08817E-3
32.5163E-6	68.4009E-15	96.6578E-3	4.85717E-3	86.5719E-15	96.1365E-3	-8.78916E-3
27.5138E-6	51.2151E-15	95.6558E-3	-3.96290E-3	10.6180E-15	92.3676E-3	-6.68542E-3
22.5113E-6	-26.6745E-15	100.088E-3	-22.9571E-3	-10.5873E-15	98.5759E-3	-4.40728E-3
17.5088E-6	-90.6829E-15	103.321E-3	-27.4653E-3	-2.28656E-15	108.372E-3	-2.58924E-3
12.5063E-6	-44.7845E-15	111.095E-3	-29.5163E-3	-25.2183E-15	112.691E-3	1.94961E-3
7.50375E-6	-54.2013E-15	121.435E-3	-37.1641E-3	-128.272E-15	108.572E-3	-3.82592E-3
2.50125E-6	-132.501E-15	119.714E-3	-32.4093E-3	-160.202E-15	102.658E-3	-16.7102E-3
-2.50125E-6	-207.757E-15	123.471E-3	-30.7715E-3	-176.577E-15	109.235E-3	-18.6044E-3
-7.50375E-6	-208.612E-15	141.228E-3	-28.9434E-3	-151.439E-15	109.426E-3	-16.4291E-3
-12.5063E-6	-179.280E-15	136.332E-3	-21.7164E-3	-260.727E-15	108.363E-3	-19.5755E-3
-17.5088E-6	-294.052E-15	113.500E-3	-17.8289E-3	-341.485E-15	128.297E-3	-20.9618E-3
-22.5113E-6	-358.156E-15	119.697E-3	-3.59914E-3	-342.444E-15	142.186E-3	-21.2701E-3
-27.5138E-6	-363.248E-15	132.881E-3	2.28263E-3	-320.628E-15	133.285E-3	-27.6217E-3
-32.5163E-6	-364.112E-15	125.066E-3	-16.5804E-3	-401.387E-15	134.105E-3	-31.5453E-3
-37.5188E-6	-431.067E-15	124.648E-3	-32.3267E-3	-485.040E-15	150.924E-3	-26.5164E-3
-42.5213E-6	-529.491E-15	126.080E-3	-24.3019E-3	-504.353E-15	149.084E-3	-20.3281E-3
-47.5238E-6	-568.876E-15	120.045E-3	-9.99982E-3	-511.442E-15	136.162E-3	-8.05806E-3
-52.5263E-6	-567.934E-15	127.063E-3	-7.57799E-3	-581.519E-15	139.995E-3	259.862E-6
-57.5288E-6	-617.067E-15	140.795E-3	-6.58239E-3	-691.121E-15	143.936E-3	-10.3002E-3
-62.5313E-6	-656.610E-15	144.232E-3	-8.42494E-3	-689.011E-15	143.404E-3	-15.9899E-3
-67.5338E-6	-749.182E-15	145.186E-3	-13.7495E-3	-782.996E-15	154.029E-3	-14.3732E-3
-72.5363E-6	-790.843E-15	143.337E-3	-15.2306E-3	-775.820E-15	161.889E-3	-19.7638E-3
-77.5388E-6	-843.883E-15	140.063E-3	-23.1404E-3	-859.290E-15	167.607E-3	-26.6940E-3
-82.5413E-6	-892.101E-15	144.069E-3	-41.5612E-3	-914.832E-15	178.825E-3	-34.0014E-3
-87.5438E-6	-914.910E-15	142.157E-3	-46.8291E-3	-983.688E-15	179.569E-3	-34.7135E-3
-92.5463E-6	-1.03700E-12	146.875E-3	-30.9044E-3	-1.04321E-12	184.272E-3	-23.0196E-3
-97.5488E-6	-1.09179E-12	160.340E-3	-21.5687E-3	-1.02602E-12	195.763E-3	-19.7671E-3
-102.551E-6	-1.07448E-12	170.072E-3	-25.4477E-3	-1.11414E-12	196.473E-3	-23.3256E-3
-107.554E-6	-1.17067E-12	184.017E-3	-30.1024E-3	-1.26194E-12	209.368E-3	-11.4481E-3
-112.556E-6	-1.27034E-12	190.752E-3	-31.6355E-3	-1.31617E-12	237.169E-3	-1.94783E-3
-117.559E-6	-1.38976E-12	183.894E-3	-25.2469E-3	-1.30598E-12	243.059E-3	-7.53530E-3
-122.561E-6	-1.38033E-12	179.805E-3	-21.7745E-3	-1.39827E-12	238.333E-3	-4.51698E-3
-127.564E-6	-1.45655E-12	198.516E-3	-33.2324E-3	-1.53922E-12	245.592E-3	4.21898E-3
-132.566E-6	-1.60120E-12	223.770E-3	-35.4102E-3	-1.61814E-12	250.650E-3	-7.43421E-3
-137.569E-6	-1.71456E-12	229.719E-3	-29.7155E-3	-1.69236E-12	262.965E-3	-25.4061E-3
-142.571E-6	-1.77013E-12	233.517E-3	-39.8862E-3	-1.70027E-12	285.848E-3	-26.4412E-3
-147.574E-6	-1.79894E-12	246.341E-3	-40.0428E-3	-1.84110E-12	293.533E-3	-22.7027E-3
-152.576E-6	-1.95510E-12	254.372E-3	-21.9240E-3	-1.98271E-12	293.858E-3	-28.3335E-3
-157.579E-6	-1.97871E-12	258.157E-3	-13.0693E-3	-2.02506E-12	315.107E-3	-36.7762E-3
-162.581E-6	-2.06943E-12	274.411E-3	-9.46501E-3	-2.12419E-12	350.115E-3	-40.0071E-3
-167.584E-6	-2.24980E-12	290.370E-3	-6.60884E-3	-2.25604E-12	362.787E-3	-29.6316E-3
-172.586E-6	-2.36811E-12	300.743E-3	-14.7121E-3	-2.38472E-12	364.232E-3	-16.5878E-3
-177.589E-6	-2.44075E-12	325.312E-3	-15.1012E-3	-2.52721E-12	374.776E-3	-20.6978E-3
-182.591E-6	-2.52070E-12	344.656E-3	-1.72474E-3	-2.64861E-12	385.242E-3	-23.5975E-3
-187.594E-6	-2.71810E-12	348.068E-3	-6.21182E-3	-2.86436E-12	408.251E-3	-21.2670E-3
-192.596E-6	-2.89887E-12	349.502E-3	-19.8290E-3	-2.84518E-12	438.733E-3	-28.2873E-3
-197.599E-6	-2.90835E-12	349.997E-3	-15.4472E-3	-3.01031E-12	453.601E-3	-27.5185E-3
-202.601E-6	-2.98160E-12	363.687E-3	-7.15101E-3	-3.20021E-12	459.784E-3	-20.4602E-3
-207.604E-6	-3.20230E-12	392.153E-3	-7.41181E-3	-3.38835E-12	464.433E-3	-27.2607E-3
-212.606E-6	-3.53809E-12	403.320E-3	-9.88188E-3	-3.54232E-12	475.553E-3	-25.3190E-3
-217.609E-6	-3.63752E-12	400.071E-3	-15.5328E-3	-3.57224E-12	504.182E-3	-11.8909E-3
-222.611E-6	-3.69379E-12	419.597E-3	-16.5793E-3	-3.79553E-12	532.811E-3	-12.9829E-3
-227.614E-6	-3.97256E-12	451.878E-3	-5.50455E-3	-4.06243E-12	536.984E-3	-24.0983E-3
-232.616E-6	-4.06721E-12	479.322E-3	-6.59345E-3	-4.13040E-12	531.119E-3	-34.5182E-3
-237.619E-6	-4.23892E-12	499.039E-3	-21.1855E-3	-4.24576E-12	549.616E-3	-36.5216E-3
-242.621E-6	-4.51208E-12	503.883E-3	-22.9352E-3	-4.43912E-12	578.705E-3	-18.5309E-3
-247.624E-6	-4.68879E-12	525.061E-3	-28.8425E-3	-4.53285E-12	596.466E-3	4.28324E-3
-252.626E-6	-4.78767E-12	560.771E-3	-35.1154E-3	-4.85835E-12	614.753E-3	3.18889E-3
-257.629E-6	-4.87696E-12	577.435E-3	-14.9896E-3	-5.10689E-12	636.657E-3	-12.3068E-3
-262.631E-6	-5.22864E-12	588.243E-3	-4.49449E-3	-5.01142E-12	664.361E-3	-20.5812E-3
-267.634E-6	-5.40151E-12	608.211E-3	-16.9021E-3	-5.31276E-12	694.876E-3	-26.1755E-3
-272.636E-6	-5.66296E-12	622.218E-3	-14.1588E-3	-5.61892E-12	700.555E-3	-24.5364E-3
-277.639E-6	-5.78818E-12	620.704E-3	-7.79128E-3	-5.89133E-12	695.278E-3	-14.2315E-3
-282.641E-6	-6.24126E-12	630.653E-3	-20.7744E-3	-6.10186E-12	719.274E-3	-15.3273E-3
-287.644E-6	-6.61028E-12	663.025E-3	-28.4410E-3	-6.17638E-12	752.478E-3	-21.4707E-3
-292.646E-6	-6.62103E-12	694.704E-3	-21.1332E-3	-6.30329E-12	767.033E-3	-16.8068E-3
-297.649E-6	-6.74363E-12	717.214E-3	-17.8501E-3	-6.84877E-12	779.260E-3	-15.0125E-3
-302.651E-6	-7.22126E-12	730.828E-3	-15.4410E-3	-7.21841E-12	788.610E-3	-20.6128E-3
-307.654E-6	-7.71871E-12	745.293E-3	-7.45854E-3	-7.12067E-12	789.760E-3	-24.7879E-3
-312.656E-6	-7.94724E-12	778.042E-3	-5.02002E-3	-7.45523E-12	807.836E-3	-41.2501E-3
-317.659E-6	-7.91532E-12	817.007E-3	-9.77475E-3	-7.78852E-12	834.673E-3	-59.8795E-3
-322.661E-6	-8.39827E-12	836.487E-3	-18.3278E-3	-8.05243E-12	844.671E-3	-48.3550E-3
-327.664E-6	-8.89983E-12	846.971E-3	-23.8320E-3	-8.34318E-12	864.064E-3	-30.5071E-3
-332.666E-6	-9.11351E-12	877.564E-3	-13.6872E-3	-8.55453E-12	904.229E-3	-30.0873E-3
-337.669E-6	-8.92144E-12	908.564E-3	3.84460E-3	-8.74416E-12	934.186E-3	-24.6410E-3
-342.671E-6	-9.30434E-12	917.621E-3	7.69398E-3	-9.30491E-12	943.501E-3	-17.7215E-3
-347.674E-6	-9.86082E-12	921.538E-3	-730.966E-6	-9.69919E-12	948.406E-3	-19.4784E-3
-352.676E-6	-9.94486E-12	929.726E-3	-8.62871E-3	-9.68529E-12	972.423E-3	-12.4565E-3
-357.679E-6	-10.1138E-12	941.484E-3	-12.2358E-3	-9.99353E-12	1.00971E+0	-1.61893E-3
-362.681E-6	-10.3814E-12	958.505E-3	-15.4786E-3	-10.5395E-12	1.02541E+0	-7.23042E-3
-367.684E-6	-10.7898E-12	969.951E-3	-21.3492E-3	-10.9102E-12	1.02726E+0	-19.2022E-3
-372.686E-6	-11.1186E-12	963.256E-3	-25.2478E-3	-11.3614E-12	1.05076E+0	-18.4770E-3
-377.689E-6	-11.5421E-12	965.689E-3	-25.1866E-3	-11.6708E-12	1.07734E+0	-20.9365E-3
-382.691E-6	-11.8229E-12	990.000E-3	-25.2565E-3	-11.8926E-12	1.07558E+0	-25.7493E-3
-387.694E-6	-12.2185E-12	1.01017E+0	-24.3430E-3	-12.4204E-12	1.06541E+0	-10.4141E-3
-392.696E-6	-12.5948E-12	1.02548E+0	-24.1219E-3	-12.7492E-12	1.06866E+0	-733.268E-6
-397.699E-6	-12.8134E-12	1.03970E+0	-28.1725E-3	-13.1916E-12	1.08718E+0	-1.66301E-3
-402.701E-6	-13.3580E-12	1.04867E+0	-30.4458E-3	-13.2385E-12	1.11856E+0	8.52045E-3
-407.704E-6	-13.6927E-12	1.07029E+0	-20.2487E-3	-13.5198E-12	1.12222E+0	10.5823E-3
-412.706E-6	-14.0947E-12	1.09217E+0	-9.04398E-3	-14.0140E-12	1.09800E+0	1.79618E-3
-417.709E-6	-14.5100E-12	1.09907E+0	-20.1262E-3	-14.5879E-12	1.10494E+0	-2.32919E-3
-422.711E-6	-14.9337E-12	1.11809E+0	-27.4102E-3	-14.6434E-12	1.12740E+0	-12.6884E-3
-427.714E-6	-15.2436E-12	1.13244E+0	-7.45657E-3	-14.7689E-12	1.12999E+0	-20.3243E-3
-432.716E-6	-15.4190E-12	1.12777E+0	268.860E-6	-15.3987E-12	1.13331E+0	-8.27586E-3
-437.719E-6	-15.7096E-12	1.14066E+0	-17.5504E-3	-15.6636E-12	1.14854E+0	2.31141E-3
-442.721E-6	-16.0856E-12	1.15246E+0	-30.2765E-3	-16.1142E-12	1.15730E+0	8.62093E-3
-447.724E-6	-16.5941E-12	1.13782E+0	-25.6284E-3	-16.3976E-12	1.16839E+0	17.4599E-3
-452.726E-6	-16.9411E-12	1.12667E+0	-11.0712E-3	-16.7916E-12	1.19588E+0	6.34512E-3
-457.729E-6	-16.9391E-12	1.13235E+0	-2.79255E-3	-17.1173E-12	1.20092E+0	-15.6810E-3
-462.731E-6	-17.6849E-12	1.13872E+0	-12.4809E-3	-17.8598E-12	1.18306E+0	-22.6709E-3
-467.734E-6	-18.2156E-12	1.14212E+0	-26.5234E-3	-18.1040E-12	1.17828E+0	-26.0018E-3
-472.736E-6	-18.5218E-12	1.15527E+0	-27.0054E-3	-18.5607E-12	1.18366E+0	-22.1785E-3
-477.739E-6	-18.8804E-12	1.16978E+0	-18.5782E-3	-18.9652E-12	1.18689E+0	-2.34319E-3
-482.741E-6	-19.2518E-12	1.16444E+0	-17.6063E-3	-19.2331E-12	1.19399E+0	-1.18781E-3
-487.744E-6	-19.3950E-12	1.14735E+0	-20.7816E-3	-19.7859E-12	1.19256E+0	-19.1615E-3
-492.746E-6	-19.7562E-12	1.14908E+0	-14.8114E-3	-20.0914E-12	1.17842E+0	-20.9692E-3
-497.749E-6	-20.3082E-12	1.16417E+0	-13.8469E-3	-21.1141E-12	1.16908E+0	-12.3618E-3
-502.751E-6	-20.7207E-12	1.16987E+0	-15.6251E-3	-20.9832E-12	1.15118E+0	-16.2351E-3
-507.754E-6	-20.7981E-12	1.17009E+0	-9.21822E-3	-21.3035E-12	1.14250E+0	-20.3854E-3
-512.756E-6	-20.7026E-12	1.16531E+0	-850.550E-6	-21.3413E-12	1.15432E+0	-20.3377E-3
-517.759E-6	-21.3910E-12	1.15927E+0	2.24008E-3	-21.9472E-12	1.14975E+0	-21.5444E-3
-522.761E-6	-22.1353E-12	1.15323E+0	-5.58835E-3	-22.2653E-12	1.13341E+0	-17.9859E-3
-527.764E-6	-21.9057E-12	1.14958E+0	-8.27556E-3	-22.7870E-12	1.12854E+0	-18.6368E-3
-532.766E-6	-22.2926E-12	1.15680E+0	-9.12349E-3	-23.1163E-12	1.12668E+0	-31.3986E-3
-537.769E-6	-23.0717E-12	1.16215E+0	-15.5223E-3	-23.1872E-12	1.12570E+0	-36.3338E-3
-542.771E-6	-24.0250E-12	1.15524E+0	-22.1046E-3	-24.0044E-12	1.12543E+0	-39.0772E-3
-547.774E-6	-24.1695E-12	1.14381E+0	-22.0525E-3	-24.1968E-12	1.12314E+0	-52.1749E-3
-552.776E-6	-23.6811E-12	1.13742E+0	-13.4791E-3	-24.8188E-12	1.11982E+0	-33.0781E-3
-557.779E-6	-24.3066E-12	1.12795E+0	-11.9728E-3	-24.8609E-12	1.10823E+0	-94.1948E-6
-562.781E-6	-25.8775E-12	1.11388E+0	-11.6828E-3	-25.9547E-12	1.09343E+0	1.44768E-3
-567.784E-6	-25.8712E-12	1.11286E+0	-4.89636E-3	-25.5207E-12	1.07785E+0	-2.35927E-3
-572.786E-6	-25.9222E-12	1.12146E+0	-8.04003E-3	-26.8105E-12	1.05628E+0	-3.29354E-3
-577.789E-6	-26.5932E-12	1.10741E+0	-21.0108E-3	-27.7060E-12	1.03058E+0	-14.0279E-3
-582.791E-6	-26.8523E-12	1.06928E+0	-21.1057E-3	-27.1206E-12	1.01626E+0	-15.8047E-3
-587.794E-6	-27.0353E-12	1.04640E+0	-14.4217E-3	-27.4149E-12	1.01307E+0	-12.3003E-3
-592.796E-6	-27.4737E-12	1.05002E+0	-23.4982E-3	-27.7844E-12	998.760E-3	-25.6520E-3
-597.799E-6	-27.5615E-12	1.04245E+0	-36.8147E-3	-28.4470E-12	982.138E-3	-34.0902E-3
-602.801E-6	-27.7263E-12	1.01359E+0	-32.2829E-3	-28.3023E-12	977.740E-3	-26.9077E-3
-607.804E-6	-28.3216E-12	994.872E-3	-15.1663E-3	-28.6837E-12	964.846E-3	-34.0935E-3
-612.806E-6	-29.0168E-12	988.118E-3	-2.47523E-3	-28.8091E-12	944.945E-3	-46.1608E-3
-617.809E-6	-28.8534E-12	980.615E-3	-5.26900E-3	-29.5167E-12	928.882E-3	-33.1005E-3
-622.811E-6	-29.3647E-12	974.686E-3	-20.9098E-3	-30.1228E-12	909.703E-3	-13.5339E-3
-627.814E-6	-29.5600E-12	957.140E-3	-24.9258E-3	-30.2667E-12	892.444E-3	-8.34770E-3
-632.816E-6	-30.4326E-12	926.428E-3	-16.7695E-3	-30.0990E-12	885.123E-3	-18.1136E-3
-637.819E-6	-31.2557E-12	904.972E-3	-10.0267E-3	-30.8004E-12	878.206E-3	-38.4870E-3
-642.821E-6	-31.2463E-12	899.109E-3	-6.05035E-3	-31.0194E-12	863.245E-3	-34.4278E-3
-647.824E-6	-31.5445E-12	903.465E-3	-6.87667E-3	-31.5283E-12	844.440E-3	-12.2166E-3
-652.826E-6	-32.5152E-12	903.140E-3	-7.34973E-3	-32.1767E-12	815.365E-3	-14.7293E-3
-657.829E-6	-32.9992E-12	873.128E-3	-7.89958E-3	-32.4054E-12	789.662E-3	-19.1540E-3
-662.831E-6	-32.4228E-12	848.809E-3	-13.6283E-3	-32.0914E-12	780.910E-3	-7.12217E-3
-667.834E-6	-32.8755E-12	862.666E-3	-21.0449E-3	-32.7061E-12	763.285E-3	-14.7191E-3
-672.836E-6	-33.4388E-12	862.503E-3	-23.4555E-3	-33.2536E-12	734.180E-3	-31.0286E-3
-677.839E-6	-32.9028E-12	825.939E-3	-30.7704E-3	-33.1407E-12	721.475E-3	-17.6506E-3
-682.841E-6	-32.5290E-12	790.514E-3	-35.8066E-3	-33.3463E-12	710.711E-3	-3.25288E-3
-687.844E-6	-32.8688E-12	774.932E-3	-24.7965E-3	-33.3863E-12	678.286E-3	-6.62735E-3
-692.846E-6	-33.2662E-12	755.979E-3	-13.9977E-3	-33.4803E-12	652.319E-3	1.70941E-3
-697.849E-6	-33.1340E-12	727.840E-3	-16.9655E-3	-33.8866E-12	636.643E-3	-3.94448E-3
-702.851E-6	-33.6110E-12	703.026E-3	-21.1843E-3	-33.5561E-12	607.994E-3	-28.6522E-3
-707.854E-6	-34.0612E-12	684.949E-3	-15.3174E-3	-33.6757E-12	577.326E-3	-18.3226E-3
-712.856E-6	-33.7163E-12	677.217E-3	-14.1240E-3	-33.7777E-12	572.951E-3	-1.14257E-3
-717.859E-6	-34.4323E-12	663.728E-3	-9.09648E-3	-34.5571E-12	577.937E-3	-12.4634E-3
-722.861E-6	-35.0875E-12	636.064E-3	-1.71780E-3	-34.3254E-12	571.837E-3	-16.4408E-3
-727.864E-6	-35.3096E-12	612.807E-3	-3.27474E-3	-34.7871E-12	573.719E-3	-21.6913E-3
-732.866E-6	-35.9070E-12	601.749E-3	-3.51601E-3	-35.0962E-12	560.621E-3	-37.5873E-3
-737.869E-6	-35.6531E-12	600.652E-3	-7.77898E-3	-35.3890E-12	528.626E-3	-24.0481E-3
-742.871E-6	-36.4399E-12	595.374E-3	-12.2514E-3	-36.1073E-12	511.565E-3	-6.43310E-3
-747.874E-6	-36.8924E-12	575.291E-3	-15.6346E-3	-36.3628E-12	494.680E-3	-16.7721E-3
-752.876E-6	-37.1947E-12	558.442E-3	-15.3866E-3	-36.0647E-12	467.289E-3	-21.0123E-3
-757.879E-6	-36.4469E-12	557.144E-3	-3.29215E-3	-36.8237E-12	450.374E-3	-20.2247E-3
-762.881E-6	-36.4181E-12	551.986E-3	-579.538E-6	-37.7209E-12	444.919E-3	-25.2993E-3
-767.884E-6	-37.7884E-12	526.479E-3	-11.6006E-3	-36.7734E-12	440.344E-3	-8.75342E-3
-772.886E-6	-37.1052E-12	496.275E-3	-12.0835E-3	-36.5177E-12	434.146E-3	12.2470E-3
-777.889E-6	-36.7895E-12	474.767E-3	-4.09955E-3	-37.0558E-12	418.907E-3	14.2071E-3
-782.891E-6	-36.3215E-12	451.998E-3	-873.953E-6	-37.5140E-12	398.407E-3	6.64460E-3
-787.894E-6	-36.7470E-12	427.197E-3	-3.04252E-3	-36.9856E-12	393.789E-3	-10.3956E-3
-792.896E-6	-37.0726E-12	411.085E-3	-7.51973E-3	-37.4702E-12	394.815E-3	-28.3204E-3
-797.899E-6	-36.6350E-12	403.144E-3	-10.1681E-3	-37.1311E-12	383.959E-3	-26.4881E-3
-802.901E-6	-36.0837E-12	398.407E-3	-13.1660E-3	-37.1497E-12	367.650E-3	-16.2843E-3
-807.904E-6	-36.7138E-12	394.270E-3	-2.28138E-3	-38.1377E-12	337.361E-3	-36.0480E-3
-812.906E-6	-38.1118E-12	378.909E-3	11.9252E-3	-38.2207E-12	303.600E-3	-58.6972E-3
-817.909E-6	-37.9354E-12	353.675E-3	-1.35460E-3	-37.5033E-12	294.294E-3	-48.6291E-3
-822.911E-6	-37.6228E-12	345.743E-3	-22.7646E-3	-38.1976E-12	289.321E-3	-41.2609E-3
-827.914E-6	-37.3571E-12	349.194E-3	-19.6915E-3	-38.7128E-12	271.399E-3	-36.3976E-3
-832.916E-6	-38.4667E-12	340.606E-3	-7.76458E-3	-37.9175E-12	274.170E-3	-25.9956E-3
-837.919E-6	-38.1871E-12	325.661E-3	-7.86490E-3	-38.2838E-12	297.548E-3	-26.5730E-3
-842.921E-6	-38.2055E-12	311.935E-3	-17.1342E-3	-37.9070E-12	288.906E-3	-24.5960E-3
-847.924E-6	-38.5432E-12	293.976E-3	-27.6459E-3	-38.3873E-12	249.843E-3	-9.72024E-3
-852.926E-6	-38.5707E-12	281.571E-3	-22.5966E-3	-38.4564E-12	231.599E-3	-10.3354E-3
-857.929E-6	-38.4625E-12	270.154E-3	-17.2132E-3	-38.7840E-12	229.414E-3	-27.8240E-3
-862.931E-6	-38.3801E-12	259.967E-3	-25.2520E-3	-38.2810E-12	215.853E-3	-17.7802E-3
-867.934E-6	-38.8012E-12	254.937E-3	-26.4813E-3	-38.8204E-12	201.850E-3	-3.11940E-3
-872.936E-6	-38.9984E-12	236.512E-3	-22.5831E-3	-38.6637E-12	203.502E-3	-22.8039E-3
-877.939E-6	-38.5712E-12	228.349E-3	-16.4129E-3	-38.3279E-12	215.658E-3	-34.2211E-3
-882.941E-6	-38.7063E-12	242.433E-3	1.44666E-3	-39.1827E-12	221.375E-3	-20.5556E-3
-887.944E-6	-38.5385E-12	238.050E-3	9.52882E-3	-38.8155E-12	208.456E-3	-15.3891E-3
-892.946E-6	-39.0496E-12	213.504E-3	-3.45622E-3	-38.7876E-12	189.925E-3	-8.31883E-3
-897.949E-6	-39.1976E-12	197.561E-3	-9.23394E-3	-39.1966E-12	186.133E-3	883.022E-6
-902.951E-6	-39.1883E-12	188.436E-3	738.909E-6	-39.3165E-12	188.279E-3	-5.00488E-3
-907.954E-6	-39.2411E-12	184.671E-3	8.12595E-3	-38.9547E-12	189.991E-3	-5.47331E-3
-912.956E-6	-39.1370E-12	198.480E-3	1.84624E-3	-39.0791E-12	194.250E-3	-2.36359E-3
-917.959E-6	-39.7220E-12	215.185E-3	-6.76174E-3	-39.3745E-12	179.771E-3	-13.7810E-3
-922.961E-6	-39.3128E-12	213.015E-3	-4.17291E-3	-39.3191E-12	160.669E-3	-13.5329E-3
-927.964E-6	-39.1833E-12	200.091E-3	-12.2077E-3	-39.5459E-12	175.928E-3	-335.248E-6
-932.966E-6	-39.4789E-12	199.041E-3	-19.4918E-3	-39.1313E-12	183.686E-3	-11.6525E-3
-937.969E-6	-39.0912E-12	195.939E-3	-2.76857E-3	-39.1404E-12	170.167E-3	-18.2085E-3
-942.971E-6	-38.8838E-12	189.462E-3	2.69705E-3	-39.2178E-12	174.652E-3	-8.39198E-3
-947.974E-6	-38.7706E-12	179.071E-3	-10.8637E-3	-39.5413E-12	175.660E-3	-9.37465E-3
-952.976E-6	-39.4351E-12	157.683E-3	-15.5551E-3	-39.3322E-12	168.087E-3	-9.46387E-3
-957.979E-6	-39.0532E-12	157.944E-3	-11.4835E-3	-39.5532E-12	176.258E-3	-14.8370E-3
-962.981E-6	-39.2864E-12	168.144E-3	-14.7265E-3	-39.7275E-12	179.278E-3	-35.5230E-3
-967.984E-6	-39.3991E-12	165.201E-3	-11.8915E-3	-39.8297E-12	167.567E-3	-35.6851E-3
-972.986E-6	-39.3644E-12	164.085E-3	-6.60814E-3	-39.9554E-12	162.161E-3	-12.2744E-3
-977.989E-6	-39.6546E-12	170.080E-3	-10.6684E-3	-40.3740E-12	161.560E-3	-7.38739E-3
-982.991E-6	-40.2255E-12	165.841E-3	-13.1454E-3	-40.5512E-12	158.505E-3	-5.73879E-3
-987.994E-6	-40.3227E-12	166.858E-3	-26.7401E-3	-40.3256E-12	162.141E-3	-2.41162E-3
-992.997E-6	-40.5820E-12	188.847E-3	-39.6883E-3	-40.4490E-12	166.550E-3	-17.6773E-3
-997.999E-6	-40.7821E-12	188.272E-3	-25.7260E-3	-40.3921E-12	161.636E-3	-21.2953E-3
-1.00300E-3	-40.3874E-12	149.311E-3	-4.68107E-3	-40.9731E-12	163.628E-3	-16.5775E-3
-1.00800E-3	-40.3332E-12	126.154E-3	1.89260E-3	-40.5661E-12	176.215E-3	-30.6577E-3
-1.01301E-3	-40.6188E-12	141.773E-3	1.19910E-3	-40.6217E-12	171.166E-3	-31.9701E-3
-1.01801E-3	-40.8683E-12	163.010E-3	-3.47524E-3	-40.2052E-12	167.460E-3	-12.4433E-3
-1.02301E-3	-40.5925E-12	171.675E-3	-4.19537E-3	-41.2055E-12	187.065E-3	-11.6473E-3
-1.02801E-3	-41.1036E-12	169.102E-3	1.22461E-3	-40.5746E-12	196.355E-3	-16.6286E-3
-1.03302E-3	-40.6969E-12	166.568E-3	-10.2141E-3	-40.3600E-12	197.076E-3	1.32728E-3
-1.03802E-3	-40.2818E-12	180.486E-3	-23.3377E-3	-40.0788E-12	201.278E-3	9.87533E-3
-1.04302E-3	-40.5879E-12	192.326E-3	-7.99347E-3	-40.8139E-12	193.887E-3	2.67729E-3
-1.04802E-3	-40.7411E-12	186.309E-3	9.23136E-3	-40.5580E-12	188.316E-3	-1.40886E-3
-1.05303E-3	-41.6364E-12	192.948E-3	274.771E-6	-40.6344E-12	193.865E-3	-11.2136E-3
-1.05803E-3	-40.3846E-12	210.113E-3	-11.2431E-3	-41.5556E-12	193.986E-3	-28.4452E-3
-1.06303E-3	-41.1432E-12	206.276E-3	-10.7634E-3	-40.7621E-12	195.045E-3	-27.1007E-3
-1.06803E-3	-41.6144E-12	201.612E-3	-9.98095E-3	-41.8681E-12	211.695E-3	-15.4995E-3
-1.07304E-3	-42.9802E-12	201.744E-3	-2.79803E-3	-41.9500E-12	236.966E-3	-25.4811E-3
-1.07804E-3	-41.9416E-12	190.450E-3	-153.521E-6	-42.0407E-12	245.575E-3	-19.8681E-3
-1.08304E-3	-41.4494E-12	190.878E-3	-13.7569E-3	-41.9463E-12	247.171E-3	-5.83030E-3
-1.08804E-3	-42.7862E-12	206.133E-3	-9.78285E-3	-43.0572E-12	264.175E-3	-27.2964E-3
-1.09305E-3	-42.6937E-12	216.878E-3	842.591E-6	-43.6137E-12	268.180E-3	-38.9104E-3
-1.09805E-3	-42.4626E-12	235.547E-3	-14.0498E-3	-42.9450E-12	266.068E-3	-25.4984E-3
-1.10305E-3	-41.9716E-12	267.722E-3	-28.6918E-3	-42.3143E-12	286.602E-3	-27.7844E-3
-1.10805E-3	-42.1003E-12	273.574E-3	-28.9045E-3	-42.3029E-12	307.683E-3	-27.6247E-3
-1.11306E-3	-42.0214E-12	253.131E-3	-21.8983E-3	-43.4747E-12	315.599E-3	-22.9999E-3
-1.11806E-3	-42.1465E-12	249.730E-3	-19.4659E-3	-43.1878E-12	316.741E-3	-31.5037E-3
-1.12306E-3	-41.5592E-12	261.673E-3	-27.8386E-3	-41.8988E-12	317.797E-3	-35.2606E-3
-1.12806E-3	-41.3776E-12	271.114E-3	-32.2556E-3	-41.7930E-12	324.075E-3	-42.2557E-3
-1.13307E-3	-42.0884E-12	283.687E-3	-30.6362E-3	-42.9385E-12	333.004E-3	-44.4078E-3
-1.13807E-3	-41.9525E-12	302.613E-3	-31.1667E-3	-42.7775E-12	341.843E-3	-30.2317E-3
-1.14307E-3	-42.5587E-12	311.157E-3	-28.7562E-3	-42.5981E-12	352.358E-3	-29.3761E-3
-1.14807E-3	-43.1333E-12	317.621E-3	-20.1321E-3	-42.1721E-12	366.816E-3	-36.5340E-3
-1.15308E-3	-42.7434E-12	332.809E-3	-9.56323E-3	-42.7697E-12	393.343E-3	-19.3743E-3
-1.15808E-3	-42.7399E-12	339.408E-3	-16.9997E-3	-43.3133E-12	420.633E-3	2.53449E-3
-1.16308E-3	-43.8929E-12	343.376E-3	-29.2357E-3	-43.3319E-12	425.422E-3	-1.36797E-3
-1.16808E-3	-44.2053E-12	361.487E-3	-14.7908E-3	-43.2239E-12	434.499E-3	-10.1388E-3
-1.17309E-3	-44.0229E-12	390.206E-3	-17.5365E-3	-43.5265E-12	463.396E-3	-11.6174E-3
-1.17809E-3	-44.5506E-12	407.048E-3	-43.9307E-3	-44.4098E-12	473.735E-3	-20.3256E-3
-1.18309E-3	-44.7989E-12	408.265E-3	-46.5802E-3	-44.3171E-12	476.380E-3	-22.5563E-3
-1.18809E-3	-44.5455E-12	418.245E-3	-39.6005E-3	-44.3524E-12	497.205E-3	-20.0081E-3
-1.19310E-3	-44.3597E-12	446.354E-3	-40.5322E-3	-43.4798E-12	506.394E-3	-25.8707E-3
-1.19810E-3	-44.2043E-12	466.904E-3	-35.3451E-3	-44.6475E-12	501.422E-3	-12.1326E-3
-1.20310E-3	-44.1576E-12	473.823E-3	-35.2800E-3	-44.8332E-12	522.799E-3	1.29845E-3
-1.20810E-3	-44.5065E-12	486.316E-3	-35.2524E-3	-44.5003E-12	540.586E-3	-13.2516E-3
-1.21311E-3	-44.4581E-12	497.722E-3	-15.4020E-3	-44.2131E-12	538.499E-3	-17.7295E-3
-1.21811E-3	-43.5011E-12	508.755E-3	-4.12280E-3	-44.8896E-12	556.628E-3	-14.0217E-3
-1.22311E-3	-43.7753E-12	515.807E-3	-14.0458E-3	-45.0648E-12	583.539E-3	-21.9723E-3
-1.22811E-3	-44.5425E-12	515.945E-3	-33.4815E-3	-45.0404E-12	607.466E-3	-14.8471E-3
-1.23312E-3	-44.7787E-12	525.514E-3	-46.6080E-3	-45.2360E-12	630.528E-3	-925.162E-6
-1.23812E-3	-44.6923E-12	547.359E-3	-51.0821E-3	-45.6931E-12	641.297E-3	-13.1391E-3
-1.24312E-3	-45.1347E-12	575.735E-3	-50.5325E-3	-45.5827E-12	637.634E-3	-21.5329E-3
-1.24812E-3	-45.9433E-12	593.163E-3	-40.4743E-3	-45.8335E-12	638.406E-3	-20.8868E-3
-1.25313E-3	-46.4800E-12	598.794E-3	-34.5849E-3	-46.6797E-12	668.704E-3	-34.5351E-3
-1.25813E-3	-46.7477E-12	614.992E-3	-24.2506E-3	-46.3639E-12	708.679E-3	-38.5446E-3
-1.26313E-3	-46.8529E-12	637.922E-3	-15.6094E-3	-46.5208E-12	721.366E-3	-22.8244E-3
-1.26813E-3	-47.9073E-12	656.538E-3	-19.1366E-3	-47.1904E-12	719.279E-3	-15.8247E-3
-1.27314E-3	-47.8937E-12	673.430E-3	-19.0438E-3	-47.6363E-12	718.731E-3	-20.1860E-3
-1.27814E-3	-47.9115E-12	686.585E-3	-24.7311E-3	-47.5804E-12	731.066E-3	-18.0601E-3
-1.28314E-3	-48.3564E-12	704.140E-3	-25.2673E-3	-47.1995E-12	753.567E-3	-18.1350E-3
-1.28814E-3	-48.3167E-12	734.392E-3	-10.1691E-3	-47.6112E-12	772.002E-3	-20.4552E-3
-1.29315E-3	-48.6029E-12	757.472E-3	-19.4849E-3	-47.7416E-12	795.091E-3	-24.2502E-3
-1.29815E-3	-48.1904E-12	762.533E-3	-47.1593E-3	-48.0662E-12	823.398E-3	-33.0259E-3
-1.30315E-3	-48.2793E-12	778.947E-3	-49.7407E-3	-48.1060E-12	837.950E-3	-31.8785E-3
-1.30815E-3	-48.1232E-12	811.040E-3	-39.3705E-3	-48.7525E-12	836.139E-3	-20.7106E-3
-1.31316E-3	-48.9735E-12	822.083E-3	-35.5621E-3	-48.7352E-12	831.427E-3	-13.8654E-3
-1.31816E-3	-48.8757E-12	815.066E-3	-31.5340E-3	-49.0427E-12	844.532E-3	-17.1980E-3
-1.32316E-3	-49.2200E-12	817.445E-3	-19.2635E-3	-49.8811E-12	868.842E-3	-28.4701E-3
-1.32816E-3	-50.2184E-12	825.008E-3	-11.0360E-3	-49.5518E-12	880.365E-3	-37.1435E-3
-1.33317E-3	-50.3455E-12	830.546E-3	-14.7382E-3	-49.7236E-12	893.067E-3	-32.3682E-3
-1.33817E-3	-50.4200E-12	828.107E-3	-18.4890E-3	-50.6562E-12	907.627E-3	-25.1413E-3
-1.34317E-3	-50.8606E-12	827.883E-3	-20.1009E-3	-51.0837E-12	913.124E-3	-17.9757E-3
-1.34817E-3	-51.4803E-12	843.466E-3	-7.00190E-3	-51.0982E-12	928.794E-3	-5.74633E-3
-1.35318E-3	-51.3970E-12	855.379E-3	11.7557E-3	-50.7429E-12	944.624E-3	-63.0847E-6
-1.35818E-3	-52.0792E-12	861.536E-3	10.3186E-3	-51.5034E-12	960.372E-3	-5.34298E-3
-1.36318E-3	-52.3358E-12	887.545E-3	6.63657E-3	-51.8091E-12	982.025E-3	-6.70496E-3
-1.36818E-3	-51.7925E-12	914.826E-3	9.84051E-3	-52.7129E-12	986.650E-3	-2.56980E-3
-1.37319E-3	-52.0396E-12	922.572E-3	1.13321E-3	-52.4068E-12	980.837E-3	-13.1123E-3
-1.37819E-3	-52.6842E-12	939.777E-3	6.76774E-3	-52.3252E-12	982.112E-3	-32.6420E-3
-1.38319E-3	-53.1772E-12	959.498E-3	32.5888E-3	-52.8052E-12	995.395E-3	-35.7606E-3
-1.38819E-3	-52.6712E-12	959.847E-3	23.8612E-3	-53.0821E-12	1.01348E+0	-35.3450E-3
-1.39320E-3	-53.0023E-12	965.596E-3	-11.4332E-3	-53.6679E-12	1.01543E+0	-40.0786E-3
-1.39820E-3	-53.5991E-12	981.675E-3	-15.9361E-3	-54.1507E-12	1.01112E+0	-34.2752E-3
-1.40320E-3	-54.0829E-12	985.331E-3	1.72393E-3	-54.7065E-12	1.02468E+0	-33.6883E-3
-1.40820E-3	-54.4245E-12	988.853E-3	-8.87343E-3	-54.8508E-12	1.04291E+0	-35.8471E-3
-1.41321E-3	-54.9333E-12	995.292E-3	-23.4823E-3	-55.3332E-12	1.04635E+0	-17.6619E-3
-1.41821E-3	-55.3479E-12	992.286E-3	-9.47659E-3	-56.2267E-12	1.03955E+0	3.79846E-3
-1.42321E-3	-55.4479E-12	1.00411E+0	-285.244E-6	-56.2557E-12	1.03760E+0	9.25637E-3
-1.42821E-3	-56.6860E-12	1.02212E+0	-6.00478E-3	-56.6439E-12	1.04414E+0	10.5725E-3
-1.43322E-3	-56.8927E-12	1.01699E+0	-5.64424E-3	-56.6090E-12	1.04527E+0	-624.207E-6
-1.43822E-3	-56.7078E-12	1.00655E+0	-3.04858E-3	-57.4808E-12	1.03412E+0	-27.8642E-3
-1.44322E-3	-57.4998E-12	1.01847E+0	-20.3494E-3	-57.4998E-12	1.02569E+0	-28.2870E-3
-1.44822E-3	-58.1856E-12	1.02972E+0	-36.7115E-3	-57.6051E-12	1.03814E+0	-7.91418E-3
-1.45323E-3	-58.2449E-12	1.02552E+0	-31.3254E-3	-57.7155E-12	1.05000E+0	-8.40487E-3
-1.45823E-3	-57.9701E-12	1.03006E+0	-23.5763E-3	-58.7277E-12	1.04690E+0	-15.8774E-3
-1.46323E-3	-58.9450E-12	1.03029E+0	-13.3277E-3	-58.2507E-12	1.04750E+0	-4.66244E-3
-1.46823E-3	-59.3817E-12	1.03043E+0	-1.57235E-3	-58.1435E-12	1.03636E+0	4.14795E-3
-1.47324E-3	-59.3281E-12	1.04198E+0	5.21354E-3	-58.7077E-12	1.02174E+0	-130.432E-6
-1.47824E-3	-59.6787E-12	1.03969E+0	5.54866E-3	-58.7507E-12	1.03393E+0	-2.33049E-3
-1.48324E-3	-60.5877E-12	1.04093E+0	-7.37112E-3	-59.5378E-12	1.05107E+0	-8.26582E-3
-1.48824E-3	-60.6307E-12	1.06230E+0	-9.48048E-3	-59.8730E-12	1.06244E+0	-13.7495E-3
-1.49325E-3	-60.9883E-12	1.07410E+0	-3.07129E-3	-60.2560E-12	1.08034E+0	-12.2400E-3
-1.49825E-3	-61.4842E-12	1.06785E+0	-13.9599E-3	-60.5503E-12	1.10109E+0	-10.2400E-3
-1.50325E-3	-61.8753E-12	1.06287E+0	-30.9727E-3	-61.4862E-12	1.09065E+0	-10.7377E-3
-1.50825E-3	-63.1179E-12	1.06205E+0	-32.5090E-3	-62.4655E-12	1.06277E+0	-19.5602E-3
-1.51326E-3	-63.1408E-12	1.05821E+0	-19.0048E-3	-62.5323E-12	1.06667E+0	-37.3880E-3
-1.51826E-3	-63.4024E-12	1.05791E+0	-23.0141E-3	-62.8128E-12	1.06601E+0	-44.0066E-3
-1.52326E-3	-63.6709E-12	1.06857E+0	-27.5257E-3	-63.7761E-12	1.05540E+0	-24.7506E-3
-1.52826E-3	-63.8746E-12	1.07983E+0	-20.4483E-3	-64.8534E-12	1.06010E+0	-10.3804E-3
-1.53327E-3	-63.9664E-12	1.07749E+0	-23.7801E-3	-64.4707E-12	1.05149E+0	-24.1257E-3
-1.53827E-3	-64.4437E-12	1.07193E+0	-23.9996E-3	-63.9938E-12	1.04355E+0	-36.1985E-3
-1.54327E-3	-63.6153E-12	1.06864E+0	-17.0714E-3	-64.4068E-12	1.05133E+0	-37.7676E-3
-1.54827E-3	-63.4862E-12	1.05886E+0	-19.3261E-3	-65.1149E-12	1.05298E+0	-40.7302E-3
-1.55328E-3	-63.5616E-12	1.06216E+0	-30.2489E-3	-65.1293E-12	1.04864E+0	-30.8076E-3
-1.55828E-3	-63.8284E-12	1.06472E+0	-25.3114E-3	-65.1896E-12	1.04891E+0	-10.0911E-3
-1.56328E-3	-64.3711E-12	1.04180E+0	-16.3022E-3	-64.9594E-12	1.05144E+0	-2.88017E-3
-1.56828E-3	-64.5614E-12	1.03379E+0	-17.8515E-3	-65.0270E-12	1.04852E+0	-10.3770E-3
-1.57329E-3	-65.4556E-12	1.04697E+0	-9.41642E-3	-66.0618E-12	1.04909E+0	-10.5646E-3
-1.57829E-3	-65.2206E-12	1.04165E+0	-5.52910E-3	-66.0539E-12	1.06082E+0	-13.1078E-3
-1.58329E-3	-66.9755E-12	1.01957E+0	-10.2533E-3	-66.6566E-12	1.06534E+0	-21.8792E-3
-1.58829E-3	-67.0860E-12	1.01560E+0	-11.0038E-3	-67.8776E-12	1.04543E+0	-18.1970E-3
-1.59330E-3	-68.2806E-12	1.03467E+0	-11.0300E-3	-68.1860E-12	1.02412E+0	-18.2428E-3
-1.59830E-3	-69.6864E-12	1.03705E+0	-21.1969E-3	-68.0907E-12	1.01007E+0	-35.8269E-3
-1.60330E-3	-69.7739E-12	1.02222E+0	-31.9506E-3	-68.8110E-12	996.709E-3	-29.8154E-3
-1.60830E-3	-69.7573E-12	1.02652E+0	-24.7633E-3	-69.1032E-12	1.00976E+0	12.0666E-3
-1.61331E-3	-70.1027E-12	1.04097E+0	-15.3344E-3	-68.9855E-12	1.02428E+0	20.3807E-3
-1.61831E-3	-72.0929E-12	1.04620E+0	-8.30746E-3	-69.1530E-12	1.00774E+0	-2.93873E-3
-1.62331E-3	-70.4524E-12	1.03977E+0	-4.91428E-3	-69.8913E-12	998.952E-3	-15.0351E-3
-1.62831E-3	-70.6938E-12	1.01880E+0	-14.5543E-3	-70.0367E-12	1.00079E+0	-22.5645E-3
-1.63332E-3	-70.4837E-12	999.803E-3	-28.4156E-3	-70.3249E-12	983.113E-3	-14.2062E-3
-1.63832E-3	-70.4928E-12	1.00078E+0	-35.7753E-3	-69.6698E-12	969.740E-3	-6.07319E-3
-1.64332E-3	-70.5477E-12	1.00405E+0	-34.0312E-3	-70.2262E-12	965.846E-3	-16.4738E-3
-1.64832E-3	-70.3598E-12	988.399E-3	-30.2388E-3	-71.2758E-12	954.279E-3	-15.2424E-3
-1.65333E-3	-70.3338E-12	965.273E-3	-25.7477E-3	-70.6514E-12	948.736E-3	-1.68512E-3
-1.65833E-3	-70.3645E-12	952.550E-3	-19.2755E-3	-71.0805E-12	948.871E-3	-2.88142E-3
-1.66333E-3	-70.9441E-12	940.653E-3	-18.8233E-3	-71.7519E-12	936.079E-3	-6.55082E-3
-1.66833E-3	-71.0962E-12	923.547E-3	-23.6137E-3	-72.1457E-12	926.795E-3	-11.3450E-3
-1.67334E-3	-72.5457E-12	923.038E-3	-16.6949E-3	-72.2108E-12	929.171E-3	-36.6566E-3
-1.67834E-3	-72.6434E-12	948.038E-3	943.630E-6	-72.8184E-12	931.280E-3	-60.3097E-3
-1.68334E-3	-74.1040E-12	975.816E-3	6.96446E-3	-73.1873E-12	937.265E-3	-63.0930E-3
-1.68834E-3	-75.0713E-12	987.050E-3	-4.47662E-3	-73.8040E-12	930.795E-3	-54.0118E-3
-1.69335E-3	-75.4523E-12	975.026E-3	-9.88015E-3	-74.8110E-12	915.502E-3	-41.7734E-3
-1.69835E-3	-75.7590E-12	958.296E-3	-3.78181E-3	-75.0989E-12	905.703E-3	-36.0148E-3
-1.70335E-3	-76.5905E-12	956.672E-3	-9.63861E-3	-74.7599E-12	906.614E-3	-26.8440E-3
-1.70835E-3	-77.1245E-12	966.792E-3	-28.7699E-3	-74.6990E-12	921.955E-3	-9.48411E-3
-1.71336E-3	-76.4044E-12	966.670E-3	-27.9178E-3	-75.6092E-12	924.468E-3	-17.0509E-3
-1.71836E-3	-77.0804E-12	941.085E-3	-16.0142E-3	-75.8575E-12	903.906E-3	-27.1742E-3
-1.72336E-3	-77.6250E-12	921.833E-3	-14.1577E-3	-75.5963E-12	896.706E-3	-1.90522E-3
-1.72836E-3	-77.8988E-12	923.810E-3	-11.3661E-3	-75.6385E-12	900.378E-3	17.1857E-3
-1.73337E-3	-76.3950E-12	926.608E-3	-14.3939E-3	-75.8275E-12	884.520E-3	14.3181E-3
-1.73837E-3	-76.4669E-12	924.092E-3	-15.8826E-3	-76.2596E-12	879.694E-3	9.54409E-3
-1.74337E-3	-77.2865E-12	905.725E-3	-3.94537E-3	-77.9552E-12	887.934E-3	8.09046E-3
-1.74837E-3	-78.3352E-12	877.748E-3	-4.17722E-3	-77.1446E-12	879.767E-3	10.6462E-3
-1.75338E-3	-77.9499E-12	871.735E-3	-11.7623E-3	-76.9406E-12	875.724E-3	9.24049E-3
-1.75838E-3	-77.6735E-12	878.885E-3	-5.49353E-3	-78.0414E-12	882.289E-3	4.18312E-3
-1.76338E-3	-78.6647E-12	882.049E-3	-3.69921E-3	-79.1240E-12	878.865E-3	-1.28968E-3
-1.76838E-3	-79.9942E-12	888.482E-3	-15.5998E-3	-79.8151E-12	868.005E-3	-8.43589E-3
-1.77339E-3	-80.5961E-12	890.569E-3	-24.7957E-3	-79.1582E-12	867.764E-3	-22.2945E-3
-1.77839E-3	-80.3013E-12	885.302E-3	-27.7865E-3	-80.0301E-12	873.862E-3	-29.8146E-3
-1.78339E-3	-80.9828E-12	888.827E-3	-27.3792E-3	-80.3743E-12	869.789E-3	-12.6650E-3
-1.78839E-3	-82.1632E-12	900.333E-3	-21.7685E-3	-82.1734E-12	854.586E-3	-3.24959E-3
-1.79340E-3	-82.8961E-12	894.944E-3	-7.79999E-3	-81.3244E-12	849.803E-3	-6.81075E-3
-1.79840E-3	-82.3432E-12	885.363E-3	4.48661E-3	-80.5595E-12	865.212E-3	-1.85067E-3
-1.80340E-3	-82.2329E-12	886.740E-3	11.4935E-3	-81.5712E-12	874.034E-3	703.160E-6
-1.80840E-3	-82.4128E-12	883.931E-3	17.1906E-3	-82.5233E-12	869.591E-3	-1.83710E-3
-1.81341E-3	-81.7571E-12	870.497E-3	8.88320E-3	-82.1572E-12	856.640E-3	-1.86347E-3
-1.81841E-3	-82.1207E-12	861.670E-3	1.41813E-3	-80.6240E-12	847.293E-3	-14.3056E-3
-1.82341E-3	-81.5850E-12	864.313E-3	-2.10296E-3	-81.8316E-12	854.410E-3	-29.6052E-3
-1.82841E-3	-81.8077E-12	858.395E-3	-12.8251E-3	-82.4988E-12	869.092E-3	-26.4107E-3
-1.83342E-3	-81.4907E-12	842.825E-3	-1.41655E-3	-83.0015E-12	880.479E-3	-28.6678E-3
-1.83842E-3	-82.4302E-12	837.237E-3	25.1003E-3	-83.5963E-12	869.757E-3	-35.0022E-3
-1.84342E-3	-82.9170E-12	846.166E-3	27.8659E-3	-82.8886E-12	848.998E-3	-28.0192E-3
-1.84842E-3	-82.6099E-12	846.530E-3	16.6054E-3	-83.1527E-12	844.942E-3	-16.7908E-3
-1.85343E-3	-83.2682E-12	843.998E-3	5.95894E-3	-84.7746E-12	848.488E-3	-14.9408E-3
-1.85843E-3	-83.9335E-12	854.992E-3	-12.4659E-3	-86.6610E-12	836.541E-3	-23.9192E-3
-1.86343E-3	-84.4592E-12	852.984E-3	-19.2252E-3	-84.8343E-12	828.862E-3	-22.7364E-3
-1.86843E-3	-84.4978E-12	841.279E-3	-6.01282E-3	-84.7050E-12	847.879E-3	-19.6506E-3
-1.87344E-3	-85.5893E-12	841.128E-3	-2.08643E-3	-86.1623E-12	847.938E-3	-29.0782E-3
-1.87844E-3	-85.7701E-12	848.931E-3	-8.20476E-3	-87.0483E-12	827.211E-3	-19.2560E-3
-1.88344E-3	-85.3458E-12	859.714E-3	-3.18077E-3	-86.5006E-12	817.999E-3	-5.38767E-3
-1.88844E-3	-85.6793E-12	851.023E-3	2.48108E-3	-85.1181E-12	811.374E-3	-9.72763E-3
-1.89345E-3	-85.6145E-12	832.048E-3	-14.7341E-3	-85.6703E-12	812.278E-3	1.33701E-3
-1.89845E-3	-85.4838E-12	823.853E-3	-35.5409E-3	-86.8941E-12	806.261E-3	1.10477E-3
-1.90345E-3	-86.3529E-12	807.994E-3	-39.4949E-3	-87.6824E-12	796.744E-3	-22.3656E-3
-1.90845E-3	-86.3032E-12	790.193E-3	-34.1384E-3	-85.6799E-12	811.606E-3	-14.9374E-3
-1.91346E-3	-86.1545E-12	799.548E-3	-15.8422E-3	-85.7626E-12	830.012E-3	-11.8287E-3
-1.91846E-3	-86.4219E-12	819.850E-3	7.06341E-3	-87.4766E-12	815.290E-3	-36.9459E-3
-1.92346E-3	-86.9496E-12	823.893E-3	12.5394E-3	-88.5730E-12	788.364E-3	-24.8606E-3
-1.92846E-3	-88.0718E-12	821.361E-3	-2.59317E-3	-88.5743E-12	793.958E-3	1.35138E-3
-1.93347E-3	-87.8759E-12	817.187E-3	-17.7181E-3	-88.3738E-12	813.912E-3	631.374E-6
-1.93847E-3	-88.5789E-12	806.221E-3	-9.08551E-3	-89.3279E-12	814.264E-3	-4.28060E-3
-1.94347E-3	-89.2881E-12	803.867E-3	-450.597E-6	-90.2936E-12	812.484E-3	-19.0543E-3
-1.94847E-3	-89.7555E-12	818.536E-3	-9.38600E-3	-90.2024E-12	803.220E-3	-30.4265E-3
-1.95348E-3	-90.2605E-12	822.975E-3	-8.21033E-3	-90.4418E-12	782.609E-3	-21.8551E-3
-1.95848E-3	-90.2819E-12	807.103E-3	-5.14562E-3	-90.5977E-12	789.346E-3	-16.5055E-3
-1.96348E-3	-90.0521E-12	786.354E-3	-10.3210E-3	-90.7133E-12	801.906E-3	-36.9527E-3
-1.96848E-3	-90.4599E-12	786.084E-3	-9.29249E-3	-91.2522E-12	782.587E-3	-48.6032E-3
-1.97349E-3	-90.2646E-12	811.273E-3	-25.0121E-3	-91.0353E-12	770.770E-3	-33.8234E-3
-1.97849E-3	-89.5269E-12	813.143E-3	-42.3343E-3	-90.3566E-12	787.029E-3	-40.3073E-3
-1.98349E-3	-89.4623E-12	785.690E-3	-21.9648E-3	-90.6021E-12	792.653E-3	-40.7359E-3
-1.98849E-3	-89.5308E-12	769.154E-3	-2.97254E-3	-90.7198E-12	787.780E-3	-14.3404E-3
-1.99350E-3	-89.2631E-12	783.111E-3	-6.76794E-3	-91.2127E-12	779.654E-3	2.25655E-3
-1.99850E-3	-89.9602E-12	815.021E-3	-16.5805E-3	-91.2795E-12	763.778E-3	-4.83981E-3
-2.00350E-3	-90.2921E-12	815.736E-3	-32.0050E-3	-90.7024E-12	761.425E-3	-14.8447E-3
-2.00850E-3	-90.4077E-12	795.137E-3	-32.5687E-3	-92.2445E-12	770.330E-3	-18.2041E-3
-2.01351E-3	-91.9504E-12	793.353E-3	-19.5493E-3	-92.6302E-12	777.335E-3	-36.1606E-3
-2.01851E-3	-92.6703E-12	787.793E-3	-18.6435E-3	-92.9625E-12	799.504E-3	-38.1755E-3
-2.02351E-3	-93.7331E-12	784.694E-3	-29.4317E-3	-92.7037E-12	817.005E-3	-10.8354E-3
-2.02851E-3	-94.1655E-12	804.303E-3	-30.7137E-3	-93.6568E-12	790.841E-3	7.33409E-3
-2.03352E-3	-94.5919E-12	811.021E-3	-9.72603E-3	-94.9540E-12	775.650E-3	14.5412E-3
-2.03852E-3	-95.8109E-12	801.067E-3	-9.93440E-3	-95.5500E-12	795.472E-3	12.8468E-3
-2.04352E-3	-96.4637E-12	808.399E-3	-24.9136E-3	-95.5332E-12	796.368E-3	6.88899E-3
-2.04852E-3	-96.8962E-12	812.087E-3	-1.47049E-3	-94.9451E-12	783.197E-3	6.77373E-3
-2.05353E-3	-95.9423E-12	787.980E-3	15.3895E-3	-95.4398E-12	780.101E-3	-4.77419E-3
-2.05853E-3	-96.1185E-12	769.839E-3	-13.2269E-3	-95.4512E-12	775.971E-3	-30.9589E-3
-2.06353E-3	-96.0191E-12	768.506E-3	-26.0172E-3	-95.4733E-12	765.441E-3	-49.8350E-3
-2.06853E-3	-95.0129E-12	769.011E-3	-12.6144E-3	-94.8785E-12	757.591E-3	-48.7633E-3
-2.07354E-3	-94.9517E-12	781.491E-3	-4.56477E-3	-94.5315E-12	744.691E-3	-42.0664E-3
-2.07854E-3	-94.2956E-12	784.879E-3	6.98138E-3	-94.7748E-12	728.958E-3	-35.9732E-3
-2.08354E-3	-94.4521E-12	760.725E-3	8.79517E-3	-94.5598E-12	721.489E-3	-21.5990E-3
-2.08854E-3	-94.5887E-12	738.688E-3	3.74445E-3	-95.8208E-12	725.993E-3	-13.3385E-3
-2.09355E-3	-94.7922E-12	731.070E-3	6.75907E-3	-95.5709E-12	742.273E-3	-3.56349E-3
-2.09855E-3	-94.6642E-12	726.935E-3	-4.11616E-3	-95.7751E-12	757.242E-3	3.51031E-3
-2.10355E-3	-96.0875E-12	737.616E-3	-27.1476E-3	-96.8168E-12	763.843E-3	-22.4369E-3
-2.10855E-3	-97.4676E-12	758.567E-3	-21.1122E-3	-97.3169E-12	769.605E-3	-44.2492E-3
-2.11356E-3	-97.3814E-12	754.647E-3	227.957E-6	-97.9907E-12	769.759E-3	-33.9879E-3
-2.11856E-3	-98.0746E-12	748.832E-3	1.26567E-3	-98.7643E-12	753.997E-3	-21.1732E-3
-2.12356E-3	-99.8040E-12	765.091E-3	-2.55325E-3	-98.8337E-12	753.184E-3	-12.9003E-3
-2.12856E-3	-99.9628E-12	774.524E-3	-8.81179E-3	-98.5469E-12	767.820E-3	-7.16712E-3
-2.13357E-3	-99.7955E-12	767.727E-3	-23.9549E-3	-99.5255E-12	771.086E-3	-17.4421E-3
-2.13857E-3	-100.016E-12	758.039E-3	-24.8755E-3	-100.332E-12	779.820E-3	-25.9048E-3
-2.14357E-3	-100.269E-12	759.066E-3	-13.5729E-3	-99.3298E-12	786.072E-3	-14.1533E-3
-2.14857E-3	-99.9219E-12	761.329E-3	-9.50126E-3	-98.6452E-12	764.658E-3	-4.26489E-3
-2.15358E-3	-99.5105E-12	755.613E-3	-11.6851E-3	-99.8673E-12	735.079E-3	-3.73240E-3
-2.15858E-3	-98.9202E-12	751.505E-3	-14.6315E-3	-100.171E-12	733.812E-3	-111.930E-6
-2.16358E-3	-98.5558E-12	756.766E-3	-26.3507E-3	-99.1725E-12	746.088E-3	444.475E-6
-2.16858E-3	-98.4113E-12	758.430E-3	-42.5627E-3	-99.7623E-12	747.332E-3	-2.08191E-3
-2.17359E-3	-97.9354E-12	738.608E-3	-48.0865E-3	-99.8271E-12	742.253E-3	-4.92581E-3
-2.17859E-3	-97.9497E-12	715.497E-3	-49.7829E-3	-99.4422E-12	729.769E-3	-11.2645E-3
-2.18359E-3	-98.6531E-12	707.949E-3	-42.7196E-3	-100.735E-12	725.271E-3	-15.8288E-3
-2.18859E-3	-99.7251E-12	699.298E-3	-18.2942E-3	-100.858E-12	741.390E-3	-18.4992E-3
-2.19360E-3	-100.185E-12	699.968E-3	-2.79013E-3	-100.713E-12	752.911E-3	-29.7429E-3
-2.19860E-3	-100.746E-12	735.724E-3	-7.79350E-3	-101.411E-12	748.418E-3	-39.2434E-3
-2.20360E-3	-101.785E-12	755.137E-3	-10.1116E-3	-103.473E-12	759.473E-3	-39.1934E-3
-2.20860E-3	-102.626E-12	743.902E-3	-5.38202E-3	-103.302E-12	774.902E-3	-18.5482E-3
-2.21361E-3	-103.089E-12	738.715E-3	-9.27661E-3	-102.658E-12	765.327E-3	18.0327E-3
-2.21861E-3	-103.844E-12	741.298E-3	-8.08271E-3	-104.044E-12	756.567E-3	16.0954E-3
-2.22361E-3	-104.347E-12	754.408E-3	-606.123E-6	-104.405E-12	751.828E-3	-24.6948E-3
-2.22861E-3	-103.934E-12	759.755E-3	-7.54563E-3	-104.022E-12	722.181E-3	-41.5652E-3
-2.23362E-3	-104.326E-12	743.905E-3	-12.0915E-3	-103.944E-12	706.968E-3	-21.9299E-3
-2.23862E-3	-104.447E-12	734.682E-3	-29.0115E-3	-104.133E-12	732.500E-3	-13.9008E-3
-2.24362E-3	-103.657E-12	746.941E-3	-54.9720E-3	-104.556E-12	744.167E-3	-25.0987E-3
-2.24862E-3	-102.760E-12	756.553E-3	-48.5035E-3	-104.923E-12	730.595E-3	-7.36825E-3
-2.25363E-3	-102.879E-12	755.128E-3	-33.3261E-3	-104.633E-12	719.311E-3	17.1925E-3
-2.25863E-3	-102.830E-12	745.811E-3	-43.8764E-3	-104.150E-12	711.852E-3	6.07055E-3
-2.26363E-3	-102.410E-12	721.196E-3	-57.0555E-3	-104.625E-12	712.485E-3	-4.98555E-3
-2.26863E-3	-102.843E-12	698.065E-3	-43.0648E-3	-104.855E-12	726.625E-3	-12.2300E-3
-2.27364E-3	-102.726E-12	698.014E-3	-8.05278E-3	-106.324E-12	742.940E-3	-29.3803E-3
-2.27864E-3	-103.429E-12	710.978E-3	5.96462E-3	-105.303E-12	744.458E-3	-27.3549E-3
-2.28364E-3	-104.944E-12	714.323E-3	-29.4541E-3	-106.508E-12	735.199E-3	-23.7435E-3
-2.28864E-3	-104.734E-12	718.969E-3	-45.4004E-3	-106.001E-12	734.397E-3	-40.4816E-3
-2.29365E-3	-106.018E-12	727.978E-3	-5.00199E-3	-106.897E-12	745.520E-3	-48.6712E-3
-2.29865E-3	-106.989E-12	726.235E-3	-831.865E-6	-108.170E-12	760.357E-3	-38.2059E-3
-2.30365E-3	-107.427E-12	730.644E-3	-35.5675E-3	-107.800E-12	761.468E-3	-27.6056E-3
-2.30865E-3	-107.400E-12	746.446E-3	-41.1958E-3	-106.999E-12	746.125E-3	-14.8202E-3
-2.31366E-3	-108.886E-12	738.882E-3	-36.8959E-3	-108.387E-12	729.085E-3	2.76256E-3
-2.31866E-3	-108.335E-12	734.017E-3	-29.0950E-3	-109.127E-12	721.471E-3	7.13059E-3
-2.32366E-3	-107.928E-12	744.503E-3	-16.4259E-3	-107.896E-12	720.698E-3	1.45577E-3
-2.32866E-3	-108.917E-12	732.474E-3	-14.9910E-3	-107.678E-12	710.348E-3	-1.57679E-3
-2.33367E-3	-108.473E-12	733.672E-3	-12.5976E-3	-108.721E-12	704.392E-3	-19.5873E-3
-2.33867E-3	-108.057E-12	733.573E-3	-8.59228E-3	-108.753E-12	719.764E-3	-39.9353E-3
-2.34367E-3	-107.979E-12	718.239E-3	-13.6319E-3	-109.009E-12	740.607E-3	-32.7923E-3
-2.34867E-3	-108.623E-12	724.141E-3	-25.3168E-3	-108.573E-12	752.667E-3	-13.3967E-3
-2.35368E-3	-108.792E-12	732.634E-3	-36.3336E-3	-109.367E-12	743.904E-3	-9.06798E-3
-2.35868E-3	-108.928E-12	735.901E-3	-37.0573E-3	-109.933E-12	721.744E-3	-25.0938E-3
-2.36368E-3	-109.489E-12	735.785E-3	-23.8207E-3	-110.439E-12	724.999E-3	-28.0109E-3
-2.36868E-3	-110.375E-12	733.664E-3	-2.24831E-3	-111.386E-12	739.952E-3	-25.3177E-3
-2.37369E-3	-111.680E-12	735.638E-3	4.08097E-3	-110.823E-12	727.888E-3	-39.6510E-3
-2.37869E-3	-111.286E-12	733.112E-3	-2.11347E-3	-111.418E-12	712.715E-3	-42.3929E-3
-2.38369E-3	-112.339E-12	723.532E-3	3.30847E-3	-112.362E-12	720.987E-3	-24.6633E-3
-2.38869E-3	-112.196E-12	714.992E-3	-8.15650E-3	-111.602E-12	721.123E-3	-3.99232E-3
-2.39370E-3	-112.239E-12	711.683E-3	-28.9866E-3	-111.906E-12	710.860E-3	-1.51820E-3
-2.39870E-3	-112.319E-12	728.520E-3	-22.6958E-3	-112.669E-12	733.841E-3	-18.8054E-3
-2.40370E-3	-112.034E-12	749.445E-3	-11.1370E-3	-112.509E-12	749.447E-3	-30.7570E-3
-2.40870E-3	-112.246E-12	740.988E-3	-23.7140E-3	-112.022E-12	724.690E-3	-16.7819E-3
-2.41371E-3	-111.129E-12	731.874E-3	-30.8563E-3	-112.841E-12	708.188E-3	1.45988E-3
-2.41871E-3	-111.577E-12	717.863E-3	-17.0453E-3	-112.073E-12	703.737E-3	-2.00542E-3
-2.42371E-3	-111.644E-12	694.800E-3	-17.0580E-3	-112.305E-12	696.129E-3	-17.2302E-3
-2.42871E-3	-111.282E-12	714.689E-3	-15.1334E-3	-113.067E-12	704.376E-3	-20.1449E-3
-2.43372E-3	-110.945E-12	741.022E-3	-4.57731E-3	-112.725E-12	731.102E-3	-22.6580E-3
-2.43872E-3	-111.550E-12	727.057E-3	-4.24083E-3	-113.398E-12	742.739E-3	-33.1876E-3
-2.44372E-3	-112.624E-12	710.399E-3	-6.64436E-3	-113.407E-12	736.109E-3	-19.4709E-3
-2.44872E-3	-113.263E-12	705.433E-3	-21.3490E-3	-115.246E-12	737.363E-3	-8.75007E-3
-2.45373E-3	-114.596E-12	705.333E-3	-41.2868E-3	-114.821E-12	751.857E-3	-22.1697E-3
-2.45873E-3	-114.713E-12	713.119E-3	-32.8166E-3	-115.896E-12	751.769E-3	-28.3505E-3
-2.46373E-3	-116.510E-12	712.412E-3	-1.56422E-3	-116.312E-12	730.824E-3	-25.7223E-3
-2.46873E-3	-117.074E-12	690.995E-3	136.641E-6	-117.023E-12	720.138E-3	-27.3559E-3
-2.47374E-3	-117.432E-12	686.409E-3	-16.8550E-3	-116.552E-12	713.712E-3	-25.5369E-3
-2.47874E-3	-117.137E-12	705.202E-3	-18.9729E-3	-116.645E-12	701.420E-3	-20.0720E-3
-2.48374E-3	-117.795E-12	710.347E-3	-21.4734E-3	-117.094E-12	699.877E-3	-19.4701E-3
-2.48874E-3	-116.989E-12	702.067E-3	-24.0946E-3	-116.261E-12	712.873E-3	-12.5830E-3
-2.49375E-3	-117.258E-12	708.180E-3	-20.8425E-3	-115.420E-12	734.654E-3	5.59113E-3
-2.49875E-3	-116.731E-12	724.177E-3	-20.0499E-3	-116.139E-12	739.679E-3	1.48465E-3
-2.50375E-3	-115.397E-12	718.077E-3	-4.17066E-3	-116.326E-12	719.571E-3	-20.5971E-3
-2.50875E-3	-115.272E-12	705.614E-3	18.7529E-3	-114.891E-12	701.766E-3	-32.3716E-3
-2.51376E-3	-115.099E-12	717.164E-3	5.68136E-3	-115.348E-12	695.187E-3	-37.6773E-3
-2.51876E-3	-115.340E-12	734.625E-3	-16.4702E-3	-115.540E-12	703.035E-3	-30.9891E-3
-2.52376E-3	-115.450E-12	732.285E-3	-20.7273E-3	-116.073E-12	720.729E-3	-19.2861E-3
-2.52876E-3	-116.014E-12	726.214E-3	-19.3731E-3	-116.138E-12	720.296E-3	-21.7308E-3
-2.53377E-3	-116.443E-12	728.454E-3	1.08784E-3	-116.922E-12	702.415E-3	-29.3270E-3
-2.53877E-3	-117.420E-12	730.301E-3	13.3336E-3	-117.088E-12	717.430E-3	-8.85597E-3
-2.54377E-3	-118.502E-12	727.496E-3	-11.0860E-3	-119.264E-12	749.535E-3	8.59415E-3
-2.54877E-3	-119.207E-12	709.243E-3	-12.3303E-3	-119.568E-12	740.330E-3	-673.157E-6
-2.55378E-3	-120.178E-12	695.040E-3	12.6176E-3	-119.791E-12	716.429E-3	-717.015E-6
-2.55878E-3	-120.534E-12	703.870E-3	-2.54957E-3	-119.759E-12	708.047E-3	-11.6767E-3
-2.56378E-3	-121.678E-12	709.285E-3	-36.6376E-3	-121.455E-12	703.592E-3	-42.5337E-3
-2.56878E-3	-121.069E-12	697.421E-3	-28.1976E-3	-121.148E-12	693.945E-3	-57.4823E-3
-2.57379E-3	-122.070E-12	695.777E-3	-10.1120E-3	-120.453E-12	685.467E-3	-48.7946E-3
-2.57879E-3	-120.092E-12	719.422E-3	-20.7397E-3	-120.344E-12	685.269E-3	-22.4441E-3
-2.58379E-3	-119.889E-12	734.291E-3	-21.9007E-3	-120.451E-12	686.029E-3	11.9414E-3
-2.58879E-3	-120.387E-12	719.307E-3	-18.4293E-3	-120.650E-12	695.793E-3	20.1367E-3
-2.59380E-3	-118.942E-12	722.171E-3	-31.0268E-3	-120.182E-12	695.464E-3	-11.1645E-3
-2.59880E-3	-118.829E-12	739.852E-3	-20.0295E-3	-119.615E-12	683.960E-3	-24.1221E-3
-2.60380E-3	-118.721E-12	719.590E-3	-746.643E-6	-118.946E-12	695.468E-3	-14.9472E-3
-2.60880E-3	-118.782E-12	702.431E-3	5.07622E-3	-119.516E-12	698.231E-3	-26.0590E-3
-2.61381E-3	-118.743E-12	708.734E-3	16.9054E-3	-120.707E-12	686.004E-3	-18.4191E-3
-2.61881E-3	-119.756E-12	694.076E-3	-2.96716E-3	-120.525E-12	697.595E-3	323.828E-6
-2.62381E-3	-120.954E-12	690.310E-3	-31.1004E-3	-120.878E-12	715.033E-3	-32.5826E-3
-2.62881E-3	-120.873E-12	714.314E-3	-8.58452E-3	-121.751E-12	709.618E-3	-67.0834E-3
-2.63382E-3	-122.988E-12	710.651E-3	10.1442E-3	-122.639E-12	701.807E-3	-50.5205E-3
-2.63882E-3	-122.967E-12	704.239E-3	-4.53660E-3	-123.425E-12	698.204E-3	-41.3125E-3
-2.64382E-3	-124.581E-12	709.913E-3	-8.98548E-3	-124.550E-12	701.384E-3	-57.0385E-3
-2.64882E-3	-125.355E-12	682.984E-3	-9.16480E-3	-124.650E-12	720.803E-3	-45.2871E-3
-2.65383E-3	-125.975E-12	673.161E-3	-14.6746E-3	-124.606E-12	730.906E-3	-34.1482E-3
-2.65883E-3	-125.784E-12	702.520E-3	8.32635E-3	-125.635E-12	725.633E-3	-48.9432E-3
-2.66383E-3	-125.919E-12	700.422E-3	21.5695E-3	-126.866E-12	711.306E-3	-45.5135E-3
-2.66883E-3	-126.666E-12	689.440E-3	-8.38036E-3	-125.235E-12	714.742E-3	-29.2252E-3
-2.67384E-3	-125.673E-12	714.810E-3	-22.3696E-3	-124.184E-12	723.826E-3	-11.7256E-3
-2.67884E-3	-125.399E-12	711.611E-3	-8.12411E-3	-125.162E-12	717.214E-3	9.16220E-3
-2.68384E-3	-124.123E-12	689.754E-3	1.65222E-3	-125.096E-12	724.279E-3	-6.23674E-3
-2.68884E-3	-123.958E-12	706.346E-3	14.2327E-3	-124.029E-12	718.601E-3	-30.9325E-3
-2.69385E-3	-124.471E-12	713.543E-3	20.8140E-3	-124.662E-12	686.150E-3	-7.58291E-3
-2.69885E-3	-124.412E-12	684.073E-3	-8.49085E-3	-124.574E-12	690.807E-3	24.3254E-3
-2.70385E-3	-123.968E-12	672.766E-3	-26.1335E-3	-123.948E-12	713.305E-3	37.1383E-3
-2.70885E-3	-123.953E-12	681.354E-3	-8.36296E-3	-125.160E-12	699.817E-3	45.1490E-3
-2.71386E-3	-126.763E-12	672.300E-3	-15.2347E-3	-125.498E-12	689.829E-3	26.3101E-3
-2.71886E-3	-126.345E-12	683.514E-3	-40.7481E-3	-125.599E-12	695.503E-3	-15.6764E-3
-2.72386E-3	-125.866E-12	706.818E-3	-39.6572E-3	-127.257E-12	698.729E-3	-33.0101E-3
-2.72886E-3	-127.938E-12	704.445E-3	-17.5615E-3	-127.892E-12	717.926E-3	-17.6115E-3
-2.73387E-3	-129.150E-12	701.985E-3	-9.51951E-3	-127.830E-12	727.956E-3	-2.28713E-3
-2.73887E-3	-130.802E-12	692.575E-3	-8.40053E-3	-128.382E-12	715.854E-3	-3.55237E-3
-2.74387E-3	-128.580E-12	688.328E-3	-7.42295E-3	-128.884E-12	706.351E-3	-21.6631E-3
-2.74887E-3	-129.002E-12	716.754E-3	-38.1552E-3	-129.160E-12	708.975E-3	-49.8656E-3
-2.75388E-3	-130.500E-12	722.470E-3	-42.3350E-3	-129.283E-12	717.893E-3	-46.5415E-3
-2.75888E-3	-130.769E-12	686.391E-3	-6.29061E-3	-128.942E-12	721.388E-3	-14.8401E-3
-2.76388E-3	-129.794E-12	686.707E-3	-5.73250E-3	-128.868E-12	710.310E-3	-19.5402E-3
-2.76888E-3	-128.809E-12	703.877E-3	-12.7540E-3	-129.235E-12	686.829E-3	-46.5147E-3
-2.77389E-3	-129.602E-12	682.623E-3	-11.3366E-3	-129.321E-12	692.850E-3	-37.8879E-3
-2.77889E-3	-129.415E-12	680.145E-3	-31.0757E-3	-128.826E-12	720.573E-3	-11.6284E-3
-2.78389E-3	-130.329E-12	700.513E-3	-32.4355E-3	-129.422E-12	720.689E-3	-6.85920E-3
-2.78889E-3	-129.132E-12	699.638E-3	-23.2512E-3	-129.162E-12	705.115E-3	-4.09454E-3
-2.79390E-3	-129.339E-12	692.294E-3	-36.3501E-3	-130.710E-12	695.165E-3	-8.60624E-3
-2.79890E-3	-130.223E-12	706.187E-3	-34.4729E-3	-129.717E-12	696.859E-3	-27.6365E-3
-2.80390E-3	-131.421E-12	699.289E-3	-24.9740E-3	-130.186E-12	718.853E-3	-40.0850E-3
-2.80890E-3	-132.377E-12	658.064E-3	-36.5617E-3	-131.257E-12	723.303E-3	-40.8241E-3
-2.81391E-3	-131.517E-12	665.893E-3	-26.8797E-3	-133.147E-12	707.536E-3	-13.9636E-3
-2.81891E-3	-133.461E-12	705.758E-3	5.28082E-3	-131.553E-12	721.250E-3	6.33569E-3
-2.82391E-3	-134.051E-12	712.090E-3	-8.61898E-3	-131.683E-12	730.372E-3	-22.8924E-3
-2.82891E-3	-134.305E-12	717.534E-3	-31.2970E-3	-133.206E-12	702.699E-3	-39.2414E-3
-2.83392E-3	-133.663E-12	720.467E-3	-10.7541E-3	-131.602E-12	671.138E-3	-14.5897E-3
-2.83892E-3	-133.773E-12	704.366E-3	-5.50400E-3	-131.541E-12	642.606E-3	-4.04850E-3
-2.84392E-3	-133.087E-12	710.609E-3	-19.9812E-3	-132.375E-12	631.336E-3	-22.0040E-3
-2.84892E-3	-132.968E-12	719.847E-3	-13.5964E-3	-132.922E-12	662.995E-3	-37.6943E-3
-2.85393E-3	-132.626E-12	706.264E-3	38.2694E-6	-131.327E-12	696.613E-3	-23.6165E-3
-2.85893E-3	-132.349E-12	697.298E-3	4.42996E-3	-132.678E-12	693.528E-3	-17.3008E-3
-2.86393E-3	-132.101E-12	691.209E-3	1.62932E-3	-134.061E-12	707.623E-3	-43.4162E-3
-2.86893E-3	-132.204E-12	694.443E-3	-10.1495E-3	-133.053E-12	725.156E-3	-62.9726E-3
-2.87394E-3	-133.068E-12	719.903E-3	-11.5894E-3	-133.391E-12	705.448E-3	-52.3209E-3
-2.87894E-3	-133.086E-12	728.064E-3	-4.21515E-3	-134.929E-12	704.347E-3	-15.0543E-3
-2.88394E-3	-133.865E-12	703.796E-3	-11.7394E-3	-134.668E-12	716.872E-3	-10.1421E-3
-2.88894E-3	-134.398E-12	689.802E-3	1.37425E-3	-134.905E-12	703.475E-3	-38.3772E-3
-2.89395E-3	-134.998E-12	696.644E-3	25.7508E-3	-136.487E-12	703.749E-3	-12.4273E-3
-2.89895E-3	-136.114E-12	703.743E-3	6.73453E-3	-136.109E-12	720.116E-3	29.6492E-3
-2.90395E-3	-135.513E-12	711.187E-3	-35.0998E-3	-136.172E-12	713.366E-3	18.6042E-3
-2.90895E-3	-136.092E-12	707.348E-3	-47.8794E-3	-136.920E-12	692.591E-3	-8.55330E-3
-2.91396E-3	-136.479E-12	702.585E-3	-26.7513E-3	-136.354E-12	659.665E-3	-13.9760E-3
-2.91896E-3	-136.529E-12	728.385E-3	-8.72002E-3	-135.847E-12	627.459E-3	-11.2781E-3
-2.92396E-3	-135.819E-12	740.596E-3	-11.7543E-3	-136.383E-12	633.546E-3	-548.610E-6
-2.92896E-3	-135.043E-12	707.716E-3	-12.3648E-3	-136.175E-12	669.167E-3	13.8631E-3
-2.93397E-3	-135.781E-12	697.725E-3	-3.89865E-3	-135.747E-12	698.450E-3	16.9009E-3
-2.93897E-3	-135.354E-12	705.357E-3	-8.75418E-3	-135.484E-12	707.834E-3	18.6778E-3
-2.94397E-3	-134.761E-12	691.856E-3	-6.25748E-3	-135.065E-12	690.950E-3	16.9452E-3
-2.94897E-3	-135.637E-12	694.997E-3	8.36328E-3	-135.919E-12	675.035E-3	-339.565E-6
-2.95398E-3	-135.242E-12	714.213E-3	6.06209E-3	-135.261E-12	691.256E-3	-19.2144E-3
-2.95898E-3	-135.207E-12	718.832E-3	-8.35654E-3	-135.811E-12	712.575E-3	-21.0987E-3
-2.96398E-3	-136.201E-12	705.781E-3	-8.33234E-3	-135.933E-12	711.484E-3	-30.7368E-3
-2.96898E-3	-137.350E-12	695.535E-3	18.3073E-3	-137.453E-12	694.622E-3	-37.3757E-3
-2.97399E-3	-137.160E-12	691.987E-3	19.1179E-3	-137.815E-12	665.508E-3	-36.2198E-3
-2.97899E-3	-137.913E-12	707.786E-3	-8.70811E-3	-139.130E-12	653.333E-3	-48.5006E-3
-2.98399E-3	-140.373E-12	722.867E-3	-20.8165E-3	-140.311E-12	677.999E-3	-49.1839E-3
-2.98899E-3	-140.056E-12	720.273E-3	-30.3849E-3	-140.585E-12	699.445E-3	-39.1035E-3
-2.99400E-3	-141.228E-12	738.693E-3	-38.2329E-3	-141.719E-12	689.288E-3	-25.3013E-3
-2.99900E-3	-141.256E-12	734.234E-3	-29.5841E-3	-141.504E-12	669.354E-3	-16.6226E-3
-3.00400E-3	-142.399E-12	695.137E-3	-25.1677E-3	-141.797E-12	676.787E-3	-12.7312E-3
-3.00900E-3	-140.755E-12	700.540E-3	-39.5851E-3	-142.611E-12	696.119E-3	-12.2638E-3
-3.01401E-3	-141.041E-12	709.679E-3	-45.5248E-3	-142.186E-12	690.989E-3	-13.6836E-3
-3.01901E-3	-140.346E-12	677.691E-3	-37.5347E-3	-141.108E-12	681.857E-3	-5.92847E-3
-3.02401E-3	-140.537E-12	682.460E-3	-19.9850E-3	-140.633E-12	681.566E-3	-8.86669E-3
-3.02901E-3	-139.828E-12	715.682E-3	-3.43078E-3	-141.249E-12	677.441E-3	-18.1104E-3
-3.03402E-3	-138.387E-12	705.432E-3	-27.4209E-3	-139.937E-12	680.434E-3	-10.6144E-3
-3.03902E-3	-138.692E-12	683.289E-3	-60.3731E-3	-139.693E-12	701.976E-3	-4.49976E-3
-3.04402E-3	-139.752E-12	668.576E-3	-30.8952E-3	-139.894E-12	701.480E-3	-14.7848E-3
-3.04902E-3	-140.949E-12	654.809E-3	23.3544E-3	-140.688E-12	676.251E-3	-34.0735E-3
-3.05403E-3	-140.210E-12	664.244E-3	34.6612E-3	-140.540E-12	688.481E-3	-41.8078E-3
-3.05903E-3	-141.310E-12	686.846E-3	11.1254E-3	-141.350E-12	724.047E-3	-20.0537E-3
-3.06403E-3	-143.278E-12	671.894E-3	-4.97337E-3	-142.458E-12	735.791E-3	-20.0448E-3
-3.06903E-3	-144.173E-12	644.609E-3	-6.25416E-3	-143.579E-12	731.198E-3	-43.9922E-3
-3.07404E-3	-144.534E-12	679.585E-3	-2.40485E-3	-143.878E-12	724.576E-3	-34.0339E-3
-3.07904E-3	-145.984E-12	724.144E-3	-1.10107E-3	-144.775E-12	705.713E-3	-19.9502E-3
-3.08404E-3	-146.765E-12	718.520E-3	-27.8816E-3	-145.618E-12	696.004E-3	-26.6018E-3
-3.08904E-3	-146.365E-12	697.248E-3	-54.3229E-3	-146.924E-12	718.976E-3	-31.3974E-3
-3.09405E-3	-147.397E-12	686.110E-3	-40.9587E-3	-146.172E-12	731.977E-3	-34.3337E-3
-3.09905E-3	-147.390E-12	675.894E-3	-27.8678E-3	-146.182E-12	713.480E-3	-39.9966E-3
-3.10405E-3	-146.208E-12	672.829E-3	-33.9148E-3	-146.138E-12	695.155E-3	-36.5876E-3
-3.10905E-3	-145.709E-12	678.130E-3	-27.3254E-3	-145.275E-12	686.479E-3	-33.1197E-3
-3.11406E-3	-144.920E-12	681.716E-3	-21.2406E-3	-144.831E-12	671.675E-3	-34.8157E-3
-3.11906E-3	-144.499E-12	693.632E-3	-25.9676E-3	-144.519E-12	658.419E-3	-15.1808E-3
-3.12406E-3	-144.770E-12	677.902E-3	-15.6046E-3	-144.165E-12	675.813E-3	309.902E-6
-3.12906E-3	-143.250E-12	648.048E-3	-5.07145E-3	-143.664E-12	685.121E-3	-24.4836E-3
-3.13407E-3	-143.865E-12	660.928E-3	7.53491E-3	-143.147E-12	672.077E-3	-36.1808E-3
-3.13907E-3	-144.925E-12	669.651E-3	27.3183E-3	-144.813E-12	690.808E-3	-12.5655E-3
-3.14407E-3	-145.277E-12	651.978E-3	29.1844E-3	-143.821E-12	723.467E-3	-11.9674E-3
-3.14907E-3	-145.293E-12	650.913E-3	30.1071E-3	-145.048E-12	721.616E-3	-36.9287E-3
-3.15408E-3	-146.585E-12	658.696E-3	32.1728E-3	-146.402E-12	703.593E-3	-34.2977E-3
-3.15908E-3	-146.990E-12	664.377E-3	6.76537E-3	-147.959E-12	695.742E-3	-19.7291E-3
-3.16408E-3	-148.233E-12	686.873E-3	-18.7650E-3	-147.046E-12	692.182E-3	-23.3118E-3
-3.16908E-3	-149.917E-12	702.394E-3	-5.09188E-3	-148.770E-12	689.245E-3	-24.7162E-3
-3.17409E-3	-149.496E-12	684.518E-3	11.3358E-3	-149.898E-12	691.325E-3	-26.2612E-3
-3.17909E-3	-150.705E-12	678.576E-3	-6.81139E-3	-150.017E-12	675.882E-3	-30.7482E-3
-3.18409E-3	-150.909E-12	693.426E-3	-18.0346E-3	-150.296E-12	665.101E-3	-29.1302E-3
-3.18909E-3	-150.759E-12	695.342E-3	-12.9053E-3	-150.162E-12	682.129E-3	-26.6050E-3
-3.19410E-3	-149.811E-12	708.645E-3	-18.6559E-3	-150.179E-12	670.671E-3	-27.4689E-3
-3.19910E-3	-150.398E-12	728.309E-3	-12.3194E-3	-149.877E-12	650.159E-3	-16.0771E-3
-3.20410E-3	-150.135E-12	727.810E-3	-11.0835E-3	-149.116E-12	660.205E-3	-15.5773E-3
-3.20910E-3	-149.282E-12	718.470E-3	-36.3633E-3	-148.788E-12	681.388E-3	-27.6525E-3
-3.21411E-3	-148.719E-12	701.943E-3	-33.6905E-3	-148.430E-12	707.445E-3	-17.2947E-3
-3.21911E-3	-149.398E-12	679.059E-3	-5.09324E-3	-148.640E-12	711.481E-3	-14.8463E-3
-3.22411E-3	-149.465E-12	663.568E-3	-7.15159E-3	-148.009E-12	674.929E-3	-41.1893E-3
-3.22911E-3	-149.972E-12	657.868E-3	-23.3786E-3	-149.820E-12	644.012E-3	-51.4309E-3
-3.23412E-3	-149.448E-12	664.407E-3	-32.4696E-3	-149.969E-12	665.802E-3	-52.8483E-3
-3.23912E-3	-150.749E-12	694.187E-3	-36.0424E-3	-150.835E-12	697.143E-3	-67.0465E-3
-3.24412E-3	-150.849E-12	722.405E-3	-29.6512E-3	-151.203E-12	681.939E-3	-29.2329E-3
-3.24912E-3	-152.149E-12	719.459E-3	-15.8627E-3	-152.836E-12	689.263E-3	33.2077E-3
-3.25413E-3	-153.217E-12	711.490E-3	2.25521E-3	-153.421E-12	710.805E-3	24.5538E-3
-3.25913E-3	-153.427E-12	707.891E-3	8.29321E-3	-153.506E-12	683.872E-3	-9.33081E-3
-3.26413E-3	-153.325E-12	704.413E-3	3.93329E-3	-153.107E-12	687.399E-3	-13.8136E-3
-3.26913E-3	-152.833E-12	703.627E-3	9.99589E-3	-154.182E-12	727.337E-3	-13.5130E-3
-3.27414E-3	-154.461E-12	703.590E-3	6.98432E-3	-153.373E-12	711.178E-3	7.30205E-3
-3.27914E-3	-154.220E-12	721.290E-3	-29.2802E-3	-153.290E-12	675.341E-3	17.2769E-3
-3.28414E-3	-153.148E-12	728.633E-3	-59.4600E-3	-153.485E-12	682.097E-3	-12.7140E-3
-3.28914E-3	-152.128E-12	710.584E-3	-42.8740E-3	-153.298E-12	691.373E-3	-33.2440E-3
-3.29415E-3	-151.957E-12	703.293E-3	-14.8301E-3	-153.051E-12	703.101E-3	-36.8111E-3
-3.29915E-3	-152.641E-12	694.575E-3	-24.2525E-3	-152.799E-12	714.142E-3	-34.3729E-3
-3.30415E-3	-151.985E-12	677.934E-3	-20.7914E-3	-152.747E-12	685.606E-3	-25.0598E-3
-3.30915E-3	-151.761E-12	675.478E-3	13.0365E-3	-152.949E-12	661.079E-3	-5.20462E-3
-3.31416E-3	-151.704E-12	685.937E-3	11.6602E-3	-154.242E-12	679.840E-3	-182.086E-6
-3.31916E-3	-153.905E-12	678.484E-3	-10.1587E-3	-153.666E-12	695.525E-3	-12.0162E-3
-3.32416E-3	-153.535E-12	658.430E-3	-11.7198E-3	-153.925E-12	689.962E-3	-5.66605E-3
-3.32916E-3	-154.836E-12	670.387E-3	-22.6379E-3	-154.728E-12	683.200E-3	-9.80829E-3
-3.33417E-3	-154.595E-12	692.434E-3	-28.2964E-3	-156.184E-12	669.504E-3	-17.9466E-3
-3.33917E-3	-155.888E-12	682.044E-3	-23.7451E-3	-155.955E-12	670.334E-3	-7.65411E-3
-3.34417E-3	-156.853E-12	655.885E-3	-38.0048E-3	-157.379E-12	697.959E-3	-27.4916E-3
-3.34917E-3	-157.405E-12	666.680E-3	-44.0154E-3	-156.735E-12	709.633E-3	-48.6250E-3
-3.35418E-3	-157.007E-12	703.021E-3	-25.0429E-3	-157.074E-12	701.509E-3	-20.4728E-3
-3.35918E-3	-156.631E-12	714.059E-3	-13.3661E-3	-157.358E-12	702.711E-3	-568.665E-6
-3.36418E-3	-156.511E-12	704.390E-3	-18.6554E-3	-155.923E-12	691.540E-3	-3.53428E-3
-3.36918E-3	-156.773E-12	682.739E-3	-21.8555E-3	-155.083E-12	677.653E-3	817.487E-6
-3.37419E-3	-156.818E-12	661.645E-3	-33.9346E-3	-156.099E-12	684.542E-3	12.9759E-3
-3.37919E-3	-155.188E-12	664.776E-3	-30.4374E-3	-156.411E-12	687.946E-3	24.4845E-3
-3.38419E-3	-155.920E-12	670.031E-3	-3.47811E-3	-155.672E-12	671.021E-3	13.8572E-3
-3.38919E-3	-156.659E-12	670.364E-3	-4.50909E-3	-156.269E-12	660.895E-3	2.44346E-3
-3.39420E-3	-156.698E-12	689.859E-3	-29.3399E-3	-157.674E-12	679.656E-3	-14.7627E-3
-3.39920E-3	-157.353E-12	694.084E-3	-25.0756E-3	-157.342E-12	689.418E-3	-34.7174E-3
-3.40420E-3	-157.913E-12	666.012E-3	12.5010E-3	-158.116E-12	669.744E-3	-15.2880E-3
-3.40920E-3	-159.260E-12	654.982E-3	16.8067E-3	-159.443E-12	662.492E-3	-8.00767E-3
-3.41421E-3	-160.421E-12	673.679E-3	-148.358E-6	-159.735E-12	675.982E-3	-33.0443E-3
-3.41921E-3	-161.092E-12	687.198E-3	-7.45731E-3	-160.633E-12	691.821E-3	-31.9880E-3
-3.42421E-3	-161.640E-12	675.910E-3	-31.8166E-3	-161.654E-12	699.395E-3	-4.52454E-3
-3.42921E-3	-161.480E-12	677.105E-3	-30.3166E-3	-161.051E-12	689.731E-3	20.1273E-3
-3.43422E-3	-162.411E-12	698.792E-3	-18.1604E-3	-162.112E-12	673.690E-3	13.6606E-3
-3.43922E-3	-161.924E-12	703.673E-3	-39.6110E-3	-161.255E-12	660.842E-3	-22.7436E-3
-3.44422E-3	-161.809E-12	703.696E-3	-39.4573E-3	-160.637E-12	670.465E-3	-46.3926E-3
-3.44922E-3	-161.497E-12	675.274E-3	-1.95552E-3	-160.065E-12	679.243E-3	-48.4892E-3
-3.45423E-3	-160.733E-12	640.954E-3	25.6748E-3	-159.741E-12	661.067E-3	-10.6429E-3
-3.45923E-3	-161.439E-12	663.731E-3	30.5223E-3	-158.149E-12	656.875E-3	29.8539E-3
-3.46423E-3	-160.349E-12	667.155E-3	22.1745E-3	-158.365E-12	665.043E-3	2.64574E-3
-3.46923E-3	-159.112E-12	636.320E-3	-8.16033E-3	-158.832E-12	682.915E-3	-26.4532E-3
-3.47424E-3	-159.497E-12	654.287E-3	-27.4499E-3	-158.904E-12	725.028E-3	-8.44078E-3
-3.47924E-3	-160.735E-12	670.410E-3	-16.9790E-3	-158.953E-12	739.536E-3	12.0337E-3
-3.48424E-3	-159.925E-12	645.130E-3	-4.24737E-3	-160.690E-12	717.600E-3	18.9150E-3
-3.48924E-3	-160.988E-12	653.765E-3	4.91092E-3	-161.430E-12	693.141E-3	10.0144E-3
-3.49425E-3	-161.862E-12	675.665E-3	-4.20677E-3	-162.311E-12	678.127E-3	-12.5873E-3
-3.49925E-3	-163.585E-12	673.411E-3	-20.0758E-3	-163.331E-12	665.672E-3	-21.8702E-3
-3.50425E-3	-165.218E-12	681.939E-3	-13.5418E-3	-165.255E-12	659.616E-3	-19.4956E-3
-3.50925E-3	-165.191E-12	681.781E-3	5.48091E-3	-165.587E-12	676.483E-3	-28.0939E-3
-3.51426E-3	-166.073E-12	683.159E-3	3.02896E-3	-166.655E-12	688.017E-3	-43.2676E-3
-3.51926E-3	-166.179E-12	714.979E-3	-27.0765E-3	-166.714E-12	682.964E-3	-34.2700E-3
-3.52426E-3	-166.373E-12	722.680E-3	-25.2295E-3	-166.894E-12	680.233E-3	-12.0518E-3
-3.52926E-3	-166.220E-12	694.466E-3	-6.65839E-3	-166.811E-12	684.107E-3	3.03993E-3
-3.53427E-3	-165.584E-12	687.411E-3	-25.8733E-3	-165.448E-12	669.568E-3	14.2715E-3
-3.53927E-3	-165.759E-12	688.668E-3	-23.3286E-3	-165.009E-12	650.685E-3	5.90672E-3
-3.54427E-3	-164.352E-12	670.578E-3	-16.2824E-3	-164.066E-12	647.148E-3	-18.7431E-3
-3.54927E-3	-164.370E-12	673.410E-3	-45.9266E-3	-162.339E-12	659.011E-3	-12.6756E-3
-3.55428E-3	-163.134E-12	692.878E-3	-44.1178E-3	-161.488E-12	673.802E-3	4.09033E-3
-3.55928E-3	-163.314E-12	692.195E-3	-22.7585E-3	-161.836E-12	659.804E-3	-13.6110E-3
-3.56428E-3	-161.318E-12	666.892E-3	-38.9427E-3	-162.503E-12	640.163E-3	-14.9864E-3
-3.56928E-3	-163.128E-12	660.438E-3	-62.4072E-3	-161.305E-12	642.408E-3	-2.43604E-3
-3.57429E-3	-164.441E-12	669.822E-3	-61.8024E-3	-162.494E-12	652.727E-3	-21.4125E-3
-3.57929E-3	-163.123E-12	648.899E-3	-48.4825E-3	-164.026E-12	661.976E-3	-29.3051E-3
-3.58429E-3	-163.893E-12	630.165E-3	-26.0297E-3	-165.352E-12	667.664E-3	-16.8952E-3
-3.58929E-3	-165.386E-12	642.674E-3	-13.7991E-3	-165.686E-12	662.213E-3	-31.0496E-3
-3.59430E-3	-167.824E-12	672.317E-3	-26.8353E-3	-167.698E-12	647.301E-3	-55.4537E-3
-3.59930E-3	-166.799E-12	690.747E-3	-19.1483E-3	-169.227E-12	654.330E-3	-42.4252E-3
-3.60430E-3	-169.582E-12	681.303E-3	10.7471E-3	-168.792E-12	710.076E-3	-14.2470E-3
-3.60930E-3	-169.544E-12	663.585E-3	11.9173E-3	-169.961E-12	730.338E-3	-22.7046E-3
-3.61431E-3	-169.779E-12	670.211E-3	10.7175E-3	-170.571E-12	687.768E-3	-45.2038E-3
-3.61931E-3	-171.258E-12	691.538E-3	8.10024E-3	-170.516E-12	674.890E-3	-60.6449E-3
-3.62431E-3	-170.059E-12	685.231E-3	-24.3432E-3	-169.237E-12	692.658E-3	-52.2610E-3
-3.62931E-3	-169.723E-12	658.602E-3	-47.5784E-3	-169.684E-12	695.322E-3	-11.9683E-3
-3.63432E-3	-169.010E-12	649.910E-3	-36.6261E-3	-169.271E-12	681.229E-3	5.24952E-3
-3.63932E-3	-169.357E-12	652.905E-3	-13.6234E-3	-168.087E-12	658.589E-3	-8.46987E-3
-3.64432E-3	-166.884E-12	659.383E-3	7.43392E-3	-167.174E-12	654.196E-3	1.04035E-3
-3.64932E-3	-167.222E-12	674.482E-3	4.08982E-3	-167.441E-12	697.655E-3	13.7909E-3
-3.65433E-3	-167.699E-12	685.299E-3	-17.7654E-3	-168.084E-12	712.677E-3	-12.4987E-3
-3.65933E-3	-167.024E-12	684.631E-3	-14.4601E-3	-167.483E-12	683.764E-3	-33.2536E-3
-3.66433E-3	-167.511E-12	683.284E-3	-5.43643E-3	-167.773E-12	703.268E-3	-44.4086E-3
-3.66933E-3	-168.139E-12	677.326E-3	-17.3770E-3	-169.160E-12	721.261E-3	-64.5280E-3
-3.67434E-3	-169.395E-12	644.570E-3	-19.0548E-3	-169.404E-12	700.420E-3	-68.0326E-3
-3.67934E-3	-170.042E-12	610.025E-3	-2.84236E-3	-171.362E-12	707.500E-3	-35.2966E-3
-3.68434E-3	-172.075E-12	618.200E-3	-8.35584E-3	-172.592E-12	719.124E-3	-5.63937E-3
-3.68934E-3	-170.884E-12	640.924E-3	-20.0089E-3	-172.779E-12	693.996E-3	-9.95269E-3
-3.69435E-3	-172.232E-12	638.401E-3	-15.5807E-3	-172.683E-12	673.063E-3	-18.1965E-3
-3.69935E-3	-174.386E-12	627.264E-3	-19.0117E-3	-174.920E-12	663.378E-3	-25.9843E-3
-3.70435E-3	-173.911E-12	652.809E-3	-21.5672E-3	-174.749E-12	656.612E-3	-28.6587E-3
-3.70935E-3	-172.615E-12	684.417E-3	-12.3736E-3	-174.293E-12	672.594E-3	-12.8745E-3
-3.71436E-3	-172.706E-12	656.609E-3	-1.02730E-3	-174.070E-12	681.545E-3	5.63735E-3
-3.71936E-3	-174.558E-12	629.177E-3	4.50250E-3	-173.341E-12	666.434E-3	-106.489E-6
-3.72436E-3	-173.278E-12	637.858E-3	10.0844E-3	-173.957E-12	648.434E-3	-9.49319E-3
-3.72936E-3	-172.095E-12	634.048E-3	3.31154E-3	-171.783E-12	657.230E-3	-6.47059E-3
-3.73437E-3	-171.604E-12	634.597E-3	-26.6022E-3	-171.617E-12	683.137E-3	-10.9275E-3
-3.73937E-3	-172.007E-12	645.985E-3	-21.9745E-3	-172.331E-12	673.632E-3	-20.7795E-3
-3.74437E-3	-172.714E-12	650.655E-3	6.62710E-3	-172.082E-12	659.942E-3	-36.5466E-3
-3.74937E-3	-173.287E-12	648.442E-3	-3.49245E-3	-172.665E-12	665.591E-3	-44.7280E-3
-3.75438E-3	-172.689E-12	650.658E-3	-16.7995E-3	-172.484E-12	669.459E-3	-30.7778E-3
-3.75938E-3	-174.422E-12	654.165E-3	-8.16781E-3	-172.762E-12	679.985E-3	-14.2631E-3
-3.76438E-3	-175.500E-12	646.519E-3	-8.22057E-3	-174.105E-12	676.614E-3	-13.0525E-3
-3.76938E-3	-175.568E-12	663.517E-3	-2.56059E-3	-175.052E-12	659.506E-3	-6.15896E-3
-3.77439E-3	-176.598E-12	685.576E-3	10.3314E-3	-174.323E-12	663.572E-3	1.65452E-3
-3.77939E-3	-178.239E-12	660.853E-3	5.77262E-3	-175.569E-12	691.169E-3	-10.1085E-3
-3.78439E-3	-177.647E-12	635.060E-3	-2.19023E-3	-175.544E-12	707.607E-3	-16.4760E-3
-3.78939E-3	-178.077E-12	650.391E-3	-11.6809E-3	-176.132E-12	713.249E-3	-2.19471E-3
-3.79440E-3	-178.260E-12	684.683E-3	-18.4761E-3	-175.787E-12	707.343E-3	-10.2269E-3
-3.79940E-3	-178.599E-12	704.690E-3	-8.89991E-3	-175.866E-12	682.859E-3	-51.6413E-3
-3.80440E-3	-177.910E-12	724.091E-3	5.12627E-3	-175.615E-12	671.831E-3	-58.3109E-3
-3.80940E-3	-178.102E-12	730.343E-3	-926.103E-6	-175.797E-12	668.294E-3	-21.2000E-3
-3.81441E-3	-177.934E-12	695.671E-3	-1.05931E-3	-176.693E-12	673.787E-3	6.16939E-3
-3.81941E-3	-177.205E-12	668.212E-3	4.72819E-3	-174.928E-12	688.854E-3	-8.81092E-3
-3.82441E-3	-177.835E-12	670.095E-3	-28.5517E-3	-176.016E-12	694.853E-3	-31.1018E-3
-3.82941E-3	-178.511E-12	671.534E-3	-49.4012E-3	-176.956E-12	708.261E-3	-21.5934E-3
-3.83442E-3	-178.123E-12	662.153E-3	-35.4762E-3	-178.109E-12	711.932E-3	-4.42621E-3
-3.83942E-3	-178.341E-12	678.833E-3	-24.5401E-3	-178.309E-12	686.032E-3	-5.93784E-3
-3.84442E-3	-179.148E-12	716.524E-3	-9.69863E-3	-178.399E-12	668.298E-3	-12.1022E-3
-3.84942E-3	-180.572E-12	703.461E-3	-13.1074E-3	-180.324E-12	672.088E-3	-16.1160E-3
-3.85443E-3	-180.344E-12	665.082E-3	-48.0958E-3	-180.015E-12	682.494E-3	-18.4083E-3
-3.85943E-3	-181.696E-12	665.427E-3	-48.4632E-3	-181.133E-12	690.053E-3	-9.52374E-3
-3.86443E-3	-181.149E-12	665.901E-3	-9.01329E-3	-180.769E-12	693.833E-3	11.9407E-3
-3.86943E-3	-181.446E-12	639.953E-3	-3.09272E-3	-181.213E-12	689.541E-3	28.7555E-3
-3.87444E-3	-181.120E-12	638.057E-3	-25.7811E-3	-181.308E-12	668.973E-3	9.08957E-3
-3.87944E-3	-181.685E-12	664.857E-3	-31.3898E-3	-181.233E-12	652.353E-3	-17.6010E-3
-3.88444E-3	-180.307E-12	690.283E-3	-51.6560E-3	-180.844E-12	644.671E-3	-15.2950E-3
-3.88944E-3	-180.017E-12	707.990E-3	-65.6263E-3	-179.637E-12	633.523E-3	-8.60402E-3
-3.89445E-3	-178.772E-12	698.518E-3	-32.6147E-3	-179.023E-12	624.314E-3	-4.61508E-3
-3.89945E-3	-178.855E-12	673.309E-3	-8.26068E-3	-179.656E-12	618.202E-3	-9.84140E-3
-3.90445E-3	-179.657E-12	664.261E-3	-23.4972E-3	-179.625E-12	625.581E-3	-29.2253E-3
-3.90945E-3	-177.946E-12	645.775E-3	-58.1044E-3	-179.741E-12	652.910E-3	-22.8658E-3
-3.91446E-3	-179.261E-12	633.954E-3	-72.5625E-3	-179.422E-12	686.319E-3	11.7786E-3
-3.91946E-3	-178.882E-12	679.773E-3	-47.4132E-3	-179.466E-12	699.465E-3	16.2082E-3
-3.92446E-3	-179.653E-12	726.312E-3	-6.62961E-3	-181.538E-12	679.176E-3	-26.0980E-3
-3.92946E-3	-180.222E-12	714.205E-3	22.1956E-3	-182.992E-12	662.490E-3	-46.9727E-3
-3.93447E-3	-181.264E-12	679.180E-3	14.2191E-3	-182.547E-12	691.659E-3	-15.8367E-3
-3.93947E-3	-181.185E-12	665.188E-3	266.680E-6	-183.583E-12	727.219E-3	18.5033E-3
-3.94447E-3	-182.531E-12	652.201E-3	5.38120E-3	-185.619E-12	710.021E-3	15.5185E-3
-3.94947E-3	-183.394E-12	611.277E-3	-7.01334E-3	-186.127E-12	666.861E-3	-4.92623E-3
-3.95448E-3	-184.457E-12	621.190E-3	-24.9253E-3	-185.393E-12	660.709E-3	-10.0653E-3
-3.95948E-3	-184.290E-12	670.196E-3	-24.6653E-3	-185.359E-12	689.856E-3	-21.8000E-3
-3.96448E-3	-184.161E-12	662.813E-3	-30.8066E-3	-185.454E-12	699.059E-3	-33.6914E-3
-3.96948E-3	-185.240E-12	647.373E-3	-35.5197E-3	-184.195E-12	687.416E-3	-21.6075E-3
-3.97449E-3	-184.250E-12	650.958E-3	-2.91807E-3	-184.598E-12	680.386E-3	-1.93970E-3
-3.97949E-3	-183.046E-12	643.287E-3	12.8732E-3	-182.626E-12	659.271E-3	-5.93309E-3
-3.98449E-3	-184.041E-12	651.455E-3	-19.8084E-3	-182.794E-12	642.036E-3	-36.9279E-3
-3.98949E-3	-182.936E-12	680.248E-3	-38.6189E-3	-181.538E-12	646.382E-3	-53.6130E-3
-3.99450E-3	-181.846E-12	696.875E-3	-24.6409E-3	-182.236E-12	653.766E-3	-30.7884E-3
-3.99950E-3	-183.243E-12	702.278E-3	-8.96242E-3	-182.022E-12	649.913E-3	-11.8167E-3
-4.00450E-3	-182.674E-12	683.684E-3	-12.5534E-3	-183.405E-12	651.811E-3	-36.7324E-3
-4.00950E-3	-181.999E-12	653.774E-3	-24.3730E-3	-182.850E-12	670.940E-3	-57.3705E-3
-4.01451E-3	-183.836E-12	647.190E-3	-35.4720E-3	-183.102E-12	693.183E-3	-51.9223E-3
-4.01951E-3	-184.961E-12	649.136E-3	-32.6922E-3	-186.022E-12	696.528E-3	-41.2853E-3
-4.02451E-3	-186.060E-12	642.605E-3	-21.6462E-3	-187.881E-12	672.375E-3	-29.5718E-3
-4.02951E-3	-187.863E-12	658.276E-3	-34.0278E-3	-188.564E-12	656.171E-3	-40.8962E-3
-4.03452E-3	-190.131E-12	693.271E-3	-45.1214E-3	-188.576E-12	654.283E-3	-87.1456E-3
-4.03952E-3	-189.402E-12	682.760E-3	-34.2268E-3	-190.307E-12	673.141E-3	-87.1553E-3
-4.04452E-3	-190.233E-12	649.468E-3	-22.5428E-3	-190.294E-12	711.307E-3	-30.7838E-3
-4.04952E-3	-192.480E-12	660.307E-3	-21.6971E-3	-191.001E-12	691.996E-3	-10.2915E-3
-4.05453E-3	-191.303E-12	680.827E-3	-6.36278E-3	-191.173E-12	628.916E-3	-13.9482E-3
-4.05953E-3	-190.332E-12	682.481E-3	1.14627E-3	-189.306E-12	621.725E-3	-17.7841E-3
-4.06453E-3	-191.832E-12	682.371E-3	-32.0962E-3	-188.404E-12	654.683E-3	-29.3701E-3
-4.06953E-3	-190.812E-12	662.027E-3	-55.5279E-3	-188.651E-12	647.268E-3	-27.1095E-3
-4.07454E-3	-188.905E-12	640.207E-3	-60.1261E-3	-187.201E-12	636.997E-3	-15.8382E-3
-4.07954E-3	-188.786E-12	669.618E-3	-50.6912E-3	-185.953E-12	657.387E-3	-19.1652E-3
-4.08454E-3	-189.494E-12	723.904E-3	-29.1180E-3	-185.571E-12	644.428E-3	-18.1302E-3
-4.08954E-3	-188.815E-12	713.941E-3	-17.2418E-3	-185.772E-12	643.486E-3	-6.36448E-3
-4.09455E-3	-188.589E-12	652.705E-3	-19.6961E-3	-187.404E-12	697.711E-3	2.11904E-3
-4.09955E-3	-189.076E-12	646.418E-3	-34.2802E-3	-187.055E-12	722.148E-3	6.97831E-3
-4.10455E-3	-189.280E-12	686.014E-3	-39.9336E-3	-188.422E-12	705.508E-3	2.26708E-3
-4.10955E-3	-190.452E-12	693.888E-3	-34.2921E-3	-189.677E-12	699.829E-3	-16.5799E-3
-4.11456E-3	-191.106E-12	666.274E-3	-41.4997E-3	-191.136E-12	696.907E-3	-49.8900E-3
-4.11956E-3	-192.795E-12	657.054E-3	-53.5232E-3	-191.451E-12	676.524E-3	-59.0701E-3
-4.12456E-3	-194.115E-12	681.242E-3	-43.6869E-3	-193.143E-12	673.391E-3	-41.1110E-3
-4.12956E-3	-193.624E-12	693.403E-3	-10.6146E-3	-193.792E-12	686.767E-3	-42.9183E-3
-4.13457E-3	-194.316E-12	696.799E-3	11.0498E-3	-193.497E-12	673.508E-3	-38.4725E-3
-4.13957E-3	-195.580E-12	700.483E-3	-15.8102E-3	-193.394E-12	669.838E-3	-17.9034E-3
-4.14457E-3	-194.400E-12	675.598E-3	-55.3659E-3	-193.954E-12	698.748E-3	-6.57906E-3
-4.14957E-3	-193.310E-12	656.790E-3	-28.2671E-3	-194.134E-12	697.600E-3	-633.021E-6
-4.15458E-3	-194.211E-12	671.868E-3	23.3938E-3	-192.347E-12	656.863E-3	2.31418E-3
-4.15958E-3	-194.415E-12	678.600E-3	964.469E-6	-191.568E-12	645.607E-3	5.74737E-3
-4.16458E-3	-191.904E-12	673.529E-3	-40.4539E-3	-191.157E-12	665.158E-3	-1.83405E-3
-4.16958E-3	-192.242E-12	664.626E-3	-29.9503E-3	-190.738E-12	655.987E-3	-8.69707E-3
-4.17459E-3	-192.270E-12	659.768E-3	-19.9229E-3	-189.784E-12	647.218E-3	13.3807E-3
-4.17959E-3	-192.798E-12	666.197E-3	-26.2067E-3	-189.816E-12	667.795E-3	29.3695E-3
-4.18459E-3	-190.816E-12	672.948E-3	-51.4216E-3	-190.534E-12	672.683E-3	14.9242E-3
-4.18959E-3	-191.844E-12	690.102E-3	-94.0903E-3	-190.730E-12	651.799E-3	-4.65088E-3
-4.19460E-3	-192.820E-12	685.261E-3	-94.6812E-3	-191.554E-12	631.261E-3	-28.2561E-3
-4.19960E-3	-193.307E-12	666.781E-3	-56.9881E-3	-193.314E-12	631.041E-3	-55.8072E-3
-4.20460E-3	-193.888E-12	668.449E-3	-10.2563E-3	-192.754E-12	631.303E-3	-80.9801E-3
-4.20960E-3	-195.533E-12	670.625E-3	-3.46000E-3	-194.211E-12	627.808E-3	-100.971E-3
-4.21461E-3	-195.468E-12	686.431E-3	-27.4546E-3	-194.549E-12	638.646E-3	-77.9541E-3
-4.21961E-3	-196.371E-12	686.723E-3	-34.4270E-3	-196.629E-12	649.866E-3	-26.6622E-3
-4.22461E-3	-197.299E-12	651.328E-3	-59.3400E-3	-195.806E-12	651.047E-3	-4.35639E-3
-4.22961E-3	-197.377E-12	652.943E-3	-72.8663E-3	-196.833E-12	640.501E-3	1.43459E-3
-4.23462E-3	-196.609E-12	689.156E-3	-56.7533E-3	-197.369E-12	645.387E-3	5.77237E-3
-4.23962E-3	-196.494E-12	704.453E-3	-44.6024E-3	-196.666E-12	648.829E-3	4.96756E-3
-4.24462E-3	-196.132E-12	699.337E-3	-25.2730E-3	-195.235E-12	643.808E-3	12.7320E-3
-4.24962E-3	-196.417E-12	691.005E-3	-13.9497E-3	-196.243E-12	660.728E-3	22.9821E-3
-4.25463E-3	-196.737E-12	682.253E-3	9.46373E-3	-196.565E-12	654.817E-3	21.0347E-3
-4.25963E-3	-195.323E-12	684.835E-3	36.4088E-3	-195.232E-12	629.742E-3	7.38550E-3
-4.26463E-3	-195.866E-12	701.300E-3	23.5781E-3	-196.351E-12	633.359E-3	-17.2430E-3
-4.26963E-3	-196.580E-12	703.362E-3	-2.13354E-3	-197.030E-12	678.184E-3	-41.7952E-3
-4.27464E-3	-195.931E-12	686.634E-3	-11.0199E-3	-198.619E-12	708.070E-3	-29.4631E-3
-4.27964E-3	-196.560E-12	670.825E-3	-7.57505E-3	-197.796E-12	665.881E-3	21.5925E-3
-4.28464E-3	-197.677E-12	666.773E-3	-3.05375E-3	-199.364E-12	652.615E-3	47.0622E-3
-4.28964E-3	-198.261E-12	679.050E-3	-18.3068E-3	-199.840E-12	685.319E-3	22.6879E-3
-4.29465E-3	-197.100E-12	696.226E-3	-49.0270E-3	-199.560E-12	674.896E-3	2.84597E-3
-4.29965E-3	-200.303E-12	689.594E-3	-64.4134E-3	-200.452E-12	645.908E-3	6.51171E-3
-4.30465E-3	-199.927E-12	696.150E-3	-50.5542E-3	-200.752E-12	639.239E-3	569.791E-6
-4.30965E-3	-200.498E-12	712.695E-3	-19.5005E-3	-201.268E-12	655.772E-3	-17.9344E-3
-4.31466E-3	-199.816E-12	692.937E-3	-21.8569E-3	-200.481E-12	667.331E-3	-32.8811E-3
-4.31966E-3	-201.300E-12	677.796E-3	-47.8132E-3	-200.010E-12	668.078E-3	-31.8842E-3
-4.32466E-3	-200.087E-12	660.076E-3	-42.5165E-3	-200.556E-12	674.929E-3	-22.1951E-3
-4.32966E-3	-199.381E-12	634.832E-3	-23.3444E-3	-200.320E-12	672.297E-3	-12.8553E-3
-4.33467E-3	-198.953E-12	640.597E-3	-17.9432E-3	-198.785E-12	660.312E-3	-3.10723E-3
-4.33967E-3	-198.112E-12	640.982E-3	-33.3309E-3	-198.646E-12	667.077E-3	-3.78359E-3
-4.34467E-3	-198.145E-12	617.746E-3	-41.7192E-3	-199.346E-12	674.332E-3	6.82758E-3
-4.34967E-3	-197.633E-12	618.459E-3	-11.7253E-3	-199.550E-12	675.237E-3	18.8253E-3
-4.35468E-3	-199.789E-12	644.437E-3	20.4089E-3	-199.434E-12	684.910E-3	5.27613E-3
-4.35968E-3	-199.835E-12	659.748E-3	9.30665E-3	-201.001E-12	687.739E-3	12.4287E-3
-4.36468E-3	-200.992E-12	679.493E-3	-23.3347E-3	-201.356E-12	686.487E-3	9.89045E-3
-4.36968E-3	-200.537E-12	689.538E-3	-40.7353E-3	-204.132E-12	689.467E-3	-41.5537E-3
-4.37469E-3	-203.599E-12	670.067E-3	-54.9574E-3	-203.809E-12	694.029E-3	-76.3796E-3
-4.37969E-3	-204.007E-12	673.401E-3	-47.4695E-3	-204.567E-12	701.916E-3	-60.1194E-3
-4.38469E-3	-204.074E-12	696.790E-3	-658.953E-6	-205.825E-12	680.232E-3	-22.6688E-3
-4.38969E-3	-204.349E-12	701.663E-3	36.5458E-3	-205.874E-12	647.912E-3	-14.8503E-3
-4.39470E-3	-205.769E-12	699.384E-3	993.268E-6	-203.982E-12	646.732E-3	-29.0673E-3
-4.39970E-3	-205.574E-12	680.311E-3	-47.4184E-3	-205.000E-12	650.150E-3	-11.5990E-3
-4.40470E-3	-204.451E-12	637.807E-3	-22.6154E-3	-204.551E-12	648.325E-3	10.4423E-3
-4.40970E-3	-204.990E-12	636.992E-3	12.3757E-3	-201.870E-12	642.737E-3	-7.17906E-3
-4.41471E-3	-205.158E-12	694.591E-3	5.19205E-3	-201.016E-12	629.859E-3	-31.6520E-3
-4.41971E-3	-203.963E-12	727.761E-3	-21.0688E-3	-202.074E-12	625.748E-3	-50.7433E-3
-4.42471E-3	-203.211E-12	714.599E-3	-42.3551E-3	-200.640E-12	668.171E-3	-41.6178E-3
-4.42971E-3	-203.413E-12	686.955E-3	-21.0762E-3	-199.976E-12	729.918E-3	-14.7265E-3
-4.43472E-3	-203.519E-12	655.856E-3	13.1050E-3	-201.597E-12	728.304E-3	-19.2416E-3
-4.43972E-3	-203.307E-12	659.312E-3	3.59126E-3	-202.535E-12	683.016E-3	-16.9453E-3
-4.44472E-3	-203.931E-12	711.223E-3	-6.92925E-3	-202.501E-12	659.916E-3	-1.10803E-3
-4.44972E-3	-204.787E-12	738.368E-3	-34.6815E-3	-204.619E-12	675.057E-3	-17.4160E-3
-4.45473E-3	-206.829E-12	710.405E-3	-79.0797E-3	-205.409E-12	691.026E-3	-40.3800E-3
-4.45973E-3	-207.061E-12	679.613E-3	-48.2616E-3	-208.007E-12	682.048E-3	-33.0385E-3
-4.46473E-3	-208.156E-12	666.593E-3	6.47869E-3	-209.358E-12	658.840E-3	-21.6381E-3
-4.46973E-3	-209.948E-12	678.780E-3	-9.60694E-3	-209.965E-12	655.708E-3	-24.3535E-3
-4.47474E-3	-210.813E-12	709.129E-3	-60.5363E-3	-210.350E-12	700.569E-3	-11.5597E-3
-4.47974E-3	-210.425E-12	693.650E-3	-63.7293E-3	-211.113E-12	729.203E-3	9.86452E-3
-4.48474E-3	-210.266E-12	660.627E-3	-47.0819E-3	-210.422E-12	701.961E-3	21.8489E-3
-4.48974E-3	-211.067E-12	681.876E-3	-59.9376E-3	-209.030E-12	671.431E-3	35.7208E-3
-4.49475E-3	-209.481E-12	695.056E-3	-67.2193E-3	-209.016E-12	664.997E-3	34.1649E-3
-4.49975E-3	-207.932E-12	676.566E-3	-54.0922E-3	-207.854E-12	649.231E-3	4.86911E-3
-4.50475E-3	-208.332E-12	648.168E-3	-26.0385E-3	-206.078E-12	616.493E-3	-25.9076E-3
-4.50975E-3	-206.881E-12	610.806E-3	3.96257E-3	-205.042E-12	614.921E-3	-34.3303E-3
-4.51476E-3	-205.434E-12	609.875E-3	14.6790E-3	-204.505E-12	625.093E-3	-30.2436E-3
-4.51976E-3	-205.391E-12	662.166E-3	-7.45166E-3	-204.271E-12	618.422E-3	-25.5849E-3
-4.52476E-3	-205.905E-12	699.478E-3	-57.5793E-3	-204.478E-12	641.443E-3	-4.66421E-3
-4.52976E-3	-204.558E-12	674.734E-3	-104.962E-3	-205.362E-12	663.668E-3	42.4993E-3
-4.53477E-3	-205.507E-12	634.324E-3	-78.3260E-3	-206.720E-12	651.603E-3	52.4787E-3
-4.53977E-3	-206.608E-12	618.216E-3	-21.0703E-3	-208.335E-12	667.232E-3	15.1148E-3
-4.54477E-3	-208.001E-12	638.110E-3	-30.6250E-3	-208.833E-12	703.427E-3	-26.9991E-3
-4.54977E-3	-208.862E-12	688.377E-3	-48.6313E-3	-210.328E-12	709.220E-3	-41.0490E-3
-4.55478E-3	-209.767E-12	706.723E-3	-33.1590E-3	-212.852E-12	707.953E-3	-14.9039E-3
-4.55978E-3	-211.299E-12	662.382E-3	-39.9130E-3	-212.470E-12	718.364E-3	11.8228E-3
-4.56478E-3	-212.954E-12	663.319E-3	-71.7364E-3	-213.764E-12	703.014E-3	14.4414E-3
-4.56978E-3	-213.137E-12	726.950E-3	-71.3608E-3	-214.959E-12	660.666E-3	2.65561E-3
-4.57479E-3	-212.804E-12	750.627E-3	-47.5737E-3	-213.991E-12	639.825E-3	-1.82438E-3
-4.57979E-3	-214.156E-12	717.709E-3	-33.5920E-3	-212.317E-12	636.917E-3	-3.43839E-3
-4.58479E-3	-212.944E-12	677.565E-3	-10.0504E-3	-213.855E-12	626.011E-3	-595.398E-6
-4.58979E-3	-210.706E-12	684.359E-3	17.2776E-3	-212.264E-12	620.654E-3	-4.12400E-3
-4.59480E-3	-212.380E-12	713.002E-3	25.8575E-3	-210.330E-12	638.535E-3	-14.8388E-3
-4.59980E-3	-211.479E-12	697.676E-3	16.9209E-3	-211.376E-12	677.523E-3	-4.73105E-3
-4.60480E-3	-208.369E-12	631.068E-3	-17.2871E-3	-210.441E-12	720.256E-3	-4.18189E-3
-4.60980E-3	-209.702E-12	590.954E-3	-35.9503E-3	-208.946E-12	706.478E-3	-22.6414E-3
-4.61481E-3	-211.141E-12	617.395E-3	-3.88292E-3	-210.060E-12	643.345E-3	-33.5586E-3
-4.61981E-3	-209.912E-12	654.773E-3	15.9448E-3	-211.801E-12	626.337E-3	-29.2391E-3
-4.62481E-3	-210.746E-12	675.325E-3	-27.4990E-3	-210.773E-12	659.369E-3	-5.54107E-3
-4.62981E-3	-212.049E-12	672.306E-3	-61.7358E-3	-212.597E-12	682.096E-3	23.8894E-3
-4.63482E-3	-213.409E-12	637.324E-3	-36.4510E-3	-214.445E-12	673.655E-3	30.9582E-3
-4.63982E-3	-214.922E-12	620.243E-3	-20.6810E-3	-215.858E-12	663.586E-3	18.2349E-3
-4.64482E-3	-216.978E-12	680.919E-3	-29.2411E-3	-216.399E-12	652.481E-3	-3.48159E-3
-4.64982E-3	-217.402E-12	739.813E-3	-30.3352E-3	-216.990E-12	647.521E-3	-26.8591E-3
-4.65483E-3	-218.045E-12	737.321E-3	-37.9703E-3	-217.812E-12	665.767E-3	-31.7700E-3
-4.65983E-3	-218.559E-12	724.410E-3	-7.22586E-3	-218.410E-12	686.879E-3	-18.8644E-3
-4.66483E-3	-219.710E-12	699.737E-3	61.4172E-3	-218.236E-12	700.974E-3	-2.64179E-3
-4.66983E-3	-218.494E-12	671.790E-3	80.3523E-3	-217.656E-12	675.983E-3	-9.43127E-3
-4.67484E-3	-218.208E-12	672.625E-3	36.2430E-3	-217.673E-12	644.930E-3	-32.9315E-3
-4.67984E-3	-216.719E-12	658.878E-3	-13.0270E-3	-217.976E-12	652.915E-3	-19.3468E-3
-4.68484E-3	-217.187E-12	627.842E-3	-28.9971E-3	-215.038E-12	655.602E-3	417.489E-6
-4.68984E-3	-216.714E-12	640.704E-3	-17.2827E-3	-215.644E-12	641.290E-3	-10.9115E-3
-4.69485E-3	-215.269E-12	664.001E-3	21.5709E-3	-216.460E-12	648.164E-3	-25.3217E-3
-4.69985E-3	-214.508E-12	655.473E-3	43.0385E-3	-216.273E-12	681.642E-3	-36.8182E-3
-4.70485E-3	-214.510E-12	652.091E-3	20.3135E-3	-216.667E-12	697.224E-3	-26.3192E-3
-4.70985E-3	-215.621E-12	656.414E-3	-6.24557E-3	-217.550E-12	688.675E-3	-20.1848E-3
-4.71486E-3	-216.150E-12	640.515E-3	-17.7059E-3	-218.405E-12	686.811E-3	-28.5121E-3
-4.71986E-3	-216.787E-12	634.529E-3	-16.7184E-3	-218.866E-12	671.455E-3	-22.2290E-3
-4.72486E-3	-216.402E-12	654.125E-3	-9.65183E-3	-220.047E-12	643.155E-3	-28.8865E-3
-4.72986E-3	-217.936E-12	662.077E-3	-4.49419E-3	-221.431E-12	639.426E-3	-37.4275E-3
-4.73487E-3	-219.793E-12	644.931E-3	347.535E-6	-220.585E-12	651.853E-3	-41.0595E-3
-4.73987E-3	-220.333E-12	624.955E-3	24.8201E-3	-220.532E-12	662.264E-3	-46.4888E-3
-4.74487E-3	-220.484E-12	648.647E-3	43.1308E-3	-220.390E-12	672.372E-3	-25.5686E-3
-4.74988E-3	-219.444E-12	690.132E-3	25.8701E-3	-219.834E-12	681.677E-3	-10.6202E-3
-4.75488E-3	-219.026E-12	700.165E-3	-5.79606E-3	-218.668E-12	706.667E-3	-14.5641E-3
-4.75988E-3	-220.830E-12	704.091E-3	-33.7287E-3	-218.163E-12	723.163E-3	5.15767E-3
-4.76488E-3	-219.190E-12	679.949E-3	-39.0184E-3	-218.110E-12	713.401E-3	19.6931E-3
-4.76988E-3	-217.810E-12	641.837E-3	-23.6642E-3	-217.702E-12	687.837E-3	-15.4348E-3
-4.77489E-3	-218.993E-12	650.384E-3	-19.5195E-3	-217.580E-12	650.306E-3	-56.9777E-3
-4.77989E-3	-219.223E-12	672.385E-3	-30.1887E-3	-217.526E-12	640.395E-3	-56.6562E-3
-4.78489E-3	-218.594E-12	665.817E-3	-47.5121E-3	-218.815E-12	649.251E-3	-20.5074E-3
-4.78989E-3	-218.438E-12	653.675E-3	-52.2718E-3	-218.383E-12	662.207E-3	-5.58344E-3
-4.79490E-3	-218.576E-12	654.218E-3	-39.4131E-3	-219.535E-12	688.478E-3	-16.7378E-3
-4.79990E-3	-220.121E-12	665.037E-3	-37.0054E-3	-219.950E-12	702.947E-3	-27.5460E-3
-4.80490E-3	-220.501E-12	697.818E-3	-29.8409E-3	-222.156E-12	688.866E-3	-49.7039E-3
-4.80990E-3	-222.076E-12	710.357E-3	-9.53105E-3	-221.530E-12	667.797E-3	-30.5816E-3
-4.81491E-3	-223.260E-12	683.857E-3	439.611E-6	-222.667E-12	659.297E-3	4.18362E-3
-4.81991E-3	-223.440E-12	667.013E-3	4.10302E-3	-224.201E-12	662.594E-3	-23.9123E-3
-4.82491E-3	-223.504E-12	672.019E-3	-11.8252E-3	-223.400E-12	660.628E-3	-32.6252E-3
-4.82991E-3	-224.622E-12	711.794E-3	-42.0260E-3	-222.548E-12	655.350E-3	16.8179E-3
-4.83492E-3	-225.395E-12	741.898E-3	-61.6847E-3	-222.981E-12	662.842E-3	25.8755E-3
-4.83992E-3	-222.607E-12	704.592E-3	-45.1816E-3	-223.183E-12	673.972E-3	5.54450E-3
-4.84492E-3	-223.274E-12	685.609E-3	-11.0508E-3	-219.685E-12	673.713E-3	21.0478E-3
-4.84992E-3	-222.774E-12	705.871E-3	-18.6731E-3	-221.629E-12	678.570E-3	24.4876E-3
-4.85493E-3	-222.523E-12	706.293E-3	-42.2033E-3	-221.307E-12	674.855E-3	-19.4694E-3
-4.85993E-3	-222.898E-12	679.981E-3	-61.6200E-3	-220.328E-12	649.037E-3	-54.5811E-3
-4.86493E-3	-221.233E-12	630.983E-3	-53.1896E-3	-220.684E-12	645.204E-3	-46.6081E-3
-4.86993E-3	-221.731E-12	611.132E-3	623.945E-6	-221.594E-12	656.677E-3	-14.7087E-3
-4.87494E-3	-223.033E-12	639.692E-3	22.7700E-3	-223.987E-12	677.549E-3	10.1669E-3
-4.87994E-3	-224.710E-12	655.159E-3	995.666E-6	-223.145E-12	714.541E-3	1.69444E-3
-4.88494E-3	-222.987E-12	660.276E-3	-7.72361E-3	-225.710E-12	723.389E-3	-23.3632E-3
-4.88995E-3	-225.649E-12	637.868E-3	-2.89819E-3	-226.161E-12	681.446E-3	-26.4860E-3
-4.89495E-3	-225.825E-12	604.998E-3	1.64777E-3	-229.183E-12	662.048E-3	-31.4007E-3
-4.89995E-3	-227.313E-12	625.747E-3	11.3743E-3	-228.851E-12	694.440E-3	-46.2685E-3
-4.90495E-3	-229.213E-12	647.799E-3	26.4294E-3	-229.016E-12	712.536E-3	-40.2138E-3
-4.90995E-3	-228.783E-12	667.365E-3	25.7975E-3	-230.510E-12	709.928E-3	-32.9922E-3
-4.91496E-3	-229.025E-12	703.509E-3	-15.5343E-3	-230.543E-12	699.328E-3	-34.5767E-3
-4.91996E-3	-228.158E-12	717.579E-3	-31.8978E-3	-229.133E-12	669.553E-3	-43.0636E-3
-4.92496E-3	-229.177E-12	691.828E-3	8.86879E-3	-228.134E-12	652.085E-3	-54.5487E-3
-4.92996E-3	-229.640E-12	663.886E-3	36.6982E-3	-227.917E-12	657.193E-3	-57.5034E-3
-4.93497E-3	-227.175E-12	675.183E-3	45.9129E-3	-226.896E-12	654.520E-3	-54.4988E-3
-4.93997E-3	-225.330E-12	686.195E-3	55.1329E-3	-225.753E-12	652.170E-3	-38.9137E-3
-4.94497E-3	-226.384E-12	659.618E-3	42.8373E-3	-224.298E-12	658.406E-3	-20.6671E-3
-4.94997E-3	-226.757E-12	650.896E-3	14.5810E-3	-225.645E-12	659.539E-3	-8.87121E-3
-4.95498E-3	-225.340E-12	689.503E-3	21.3655E-3	-224.730E-12	672.012E-3	9.48080E-3
-4.95998E-3	-225.283E-12	705.164E-3	49.5005E-3	-225.813E-12	692.477E-3	339.965E-6
-4.96498E-3	-225.284E-12	689.696E-3	43.3080E-3	-226.527E-12	687.375E-3	-24.5714E-3
-4.96998E-3	-227.116E-12	674.573E-3	33.2751E-3	-227.473E-12	653.803E-3	-22.3335E-3
-4.97499E-3	-228.484E-12	665.029E-3	23.5740E-3	-228.530E-12	619.131E-3	-23.5452E-3
-4.97999E-3	-228.616E-12	684.001E-3	3.73891E-3	-230.880E-12	616.801E-3	-30.8386E-3
-4.98499E-3	-230.548E-12	696.863E-3	-142.169E-6	-233.022E-12	654.524E-3	-28.1457E-3
-4.98999E-3	-230.145E-12	684.035E-3	-17.0594E-3	-233.046E-12	690.064E-3	5.43629E-3
-4.99500E-3	-232.773E-12	680.723E-3	-36.1995E-3	-233.185E-12	681.351E-3	51.3290E-3
-5.00000E-3	-235.310E-12	671.332E-3	-5.96357E-3	-235.119E-12	661.861E-3	43.7043E-3
