Experiment	bias spectroscopy	
Date	19.01.2016 18:31:15	
User		
X (m)	49.9028E-9	
Y (m)	255.924E-9	
Z (m)	-132.653E-9	
Z offset (m)	0E+0	
Settling time (s)	200E-6	
Integration time (s)	5E-3	
Z-Ctrl hold	TRUE	
Final Z (m)	N/A	
Filter type	None	
Order		
Cutoff frq		
Comment01	MnPc/Pb(111)	
Comment02	dz =00pm	
Comment03	7 Sweeps	
Comment04	MagField =0.T	
Comment05	Divider 1:10	
Comment06	Setpoint:5mV,200 pA	
Comment07	Lockin: 50uVrms,5ms,5mV	
Comment08	Gain:9; 912Hz modulation	
Comment09	T=1.06K	
Bias>Bias (V)	5E-3	
Bias>Calibration (V/V)	81.475E-3	
Bias>Offset (V)	1.046E-3	
Bias Spectroscopy>Sweep Start (V)	5E-3	
Bias Spectroscopy>Sweep End (V)	-5E-3	
Bias Spectroscopy>Num Pixel	2000	
Bias Spectroscopy>Z Avg time (s)	500E-3	
Bias Spectroscopy>Z offset (m)	0E+0	
Bias Spectroscopy>1st Settling time (s)	500E-3	
Bias Spectroscopy>Settling time (s)	200E-6	
Bias Spectroscopy>Integration time (s)	5E-3	
Bias Spectroscopy>End Settling time (s)	500E-3	
Bias Spectroscopy>Z control time (s)	500E-3	
Bias Spectroscopy>Max Slew rate (V/s)	Inf	
Bias Spectroscopy>backward sweep	TRUE	
Bias Spectroscopy>Z-controller hold	TRUE	
Bias Spectroscopy>Number of sweeps	7	
Bias Spectroscopy>Channels	Current (A);X% LockIn (V);Y% LockIn (V)	
Bias Spectroscopy>Reset Bias	TRUE	
Bias Spectroscopy>Record final Z	FALSE	
Bias Spectroscopy>Lock-In run	FALSE	
Bias Spectroscopy>Sweep mode	Linear	
Bias Spectroscopy>MultiLine Settings : Segment Start (V), Segment End (V), Settling (s), Integration (s), Steps (xn)	100E-3,3.3E-3,100E-6,10E-3,2500;3.3E-3,-3.3E-3,100E-6,10E-3,10;-3.3E-3,-100E-3,100E-6,10E-3,2500	
Current>Current (A)	200.058E-12	
Current>Calibration (A/V)	999.99900E-12	
Current>Offset (A)	-455.429E-15	
Current>Gain	LN 10^9	
Z-Controller>Z (m)	-132.654E-9	
Z-Controller>Controller name	log Current	
Z-Controller>Controller status	ON	
Z-Controller>Setpoint	200E-12	
Z-Controller>Setpoint unit	A	
Z-Controller>P gain	2.96994E-12	
Z-Controller>I gain	67.0321E-9	
Z-Controller>Time const (s)	44.3062E-6	
Z-Controller>TipLift (m)	0E+0	
Z-Controller>Switch off delay (s)	50E-3	
Current (A)	200.09E-12	
Z (m)	-132.654E-9	

[DATA]
Bias calc (V)	Current (A)	X% LockIn (V)	Y% LockIn (V)	Current [bwd] (A)	X% LockIn [bwd] (V)	Y% LockIn [bwd] (V)
5.00000E-3	201.145E-12	657.037E-3	-5.41478E-3	200.081E-12	616.657E-3	5.51388E-3
4.99500E-3	200.143E-12	694.355E-3	-28.2161E-3	199.770E-12	650.678E-3	-24.9143E-3
4.98999E-3	198.853E-12	707.339E-3	-21.7396E-3	199.814E-12	669.831E-3	-38.5585E-3
4.98499E-3	198.653E-12	700.442E-3	-11.8335E-3	199.823E-12	666.712E-3	-48.9482E-3
4.97999E-3	198.805E-12	674.020E-3	2.67041E-3	198.336E-12	638.845E-3	-58.1876E-3
4.97499E-3	198.665E-12	640.105E-3	24.5972E-3	197.538E-12	616.133E-3	-53.8715E-3
4.96998E-3	197.537E-12	626.998E-3	16.1673E-3	198.222E-12	617.335E-3	-45.7294E-3
4.96498E-3	196.653E-12	637.510E-3	-24.2079E-3	197.824E-12	628.163E-3	-37.7330E-3
4.95998E-3	196.979E-12	639.475E-3	-25.9520E-3	197.018E-12	635.318E-3	-23.7434E-3
4.95498E-3	197.471E-12	621.232E-3	4.19488E-3	196.887E-12	652.947E-3	-20.0624E-3
4.94997E-3	196.247E-12	622.133E-3	5.21863E-3	198.394E-12	672.763E-3	-25.8990E-3
4.94497E-3	196.357E-12	637.560E-3	-6.42288E-3	196.965E-12	667.059E-3	-10.0998E-3
4.93997E-3	195.937E-12	639.806E-3	-20.2513E-3	196.743E-12	660.100E-3	19.0250E-3
4.93497E-3	196.374E-12	649.171E-3	-43.5950E-3	196.686E-12	657.620E-3	7.74988E-3
4.92996E-3	196.003E-12	665.972E-3	-40.0465E-3	196.975E-12	637.814E-3	-15.4159E-3
4.92496E-3	196.061E-12	670.676E-3	-4.73743E-3	196.143E-12	632.045E-3	-13.7113E-3
4.91996E-3	195.836E-12	662.515E-3	14.6105E-3	196.362E-12	642.776E-3	-28.8963E-3
4.91496E-3	196.266E-12	649.799E-3	2.65472E-3	196.583E-12	631.992E-3	-68.5642E-3
4.90995E-3	195.386E-12	637.163E-3	-12.1992E-3	195.679E-12	629.256E-3	-77.8532E-3
4.90495E-3	195.401E-12	652.573E-3	-11.8882E-3	196.459E-12	637.301E-3	-36.0496E-3
4.89995E-3	196.393E-12	684.401E-3	-966.954E-6	195.453E-12	628.590E-3	-1.02727E-3
4.89495E-3	196.577E-12	692.338E-3	3.68938E-3	194.589E-12	638.492E-3	-14.0519E-3
4.88995E-3	196.537E-12	678.740E-3	-12.4686E-3	192.966E-12	668.232E-3	-63.0625E-3
4.88494E-3	196.111E-12	647.507E-3	-27.7416E-3	193.505E-12	681.218E-3	-94.3711E-3
4.87994E-3	196.595E-12	627.245E-3	-41.7815E-3	193.283E-12	679.181E-3	-53.0400E-3
4.87494E-3	197.116E-12	639.397E-3	-53.4401E-3	192.703E-12	687.392E-3	20.7575E-3
4.86993E-3	196.314E-12	656.455E-3	-41.3521E-3	192.834E-12	691.564E-3	38.1159E-3
4.86493E-3	195.018E-12	653.441E-3	-11.7993E-3	192.285E-12	670.212E-3	21.3766E-3
4.85993E-3	194.372E-12	643.004E-3	2.91988E-3	192.724E-12	649.834E-3	8.66215E-3
4.85493E-3	193.792E-12	625.785E-3	9.55621E-3	193.333E-12	656.467E-3	-21.3460E-3
4.84992E-3	192.872E-12	619.775E-3	7.53528E-3	193.745E-12	652.871E-3	-40.0795E-3
4.84492E-3	191.371E-12	644.071E-3	-23.4643E-3	193.037E-12	628.207E-3	-32.4093E-3
4.83992E-3	190.226E-12	656.989E-3	-40.6643E-3	194.959E-12	619.818E-3	-34.8565E-3
4.83492E-3	191.496E-12	634.908E-3	-44.2002E-3	194.163E-12	621.920E-3	-45.7760E-3
4.82991E-3	190.312E-12	621.350E-3	-54.4956E-3	193.947E-12	637.857E-3	-31.6127E-3
4.82491E-3	189.786E-12	650.341E-3	-43.4998E-3	193.033E-12	657.745E-3	-10.6586E-3
4.81991E-3	189.888E-12	688.438E-3	-15.9993E-3	192.735E-12	663.389E-3	-6.10579E-3
4.81491E-3	191.312E-12	691.510E-3	-14.1805E-3	192.204E-12	657.069E-3	-12.1479E-3
4.80990E-3	191.286E-12	666.871E-3	-27.0615E-3	191.168E-12	636.052E-3	-19.0544E-3
4.80490E-3	191.131E-12	649.406E-3	-27.7012E-3	190.062E-12	632.658E-3	-12.8913E-3
4.79990E-3	192.212E-12	648.356E-3	-29.2092E-3	189.030E-12	657.530E-3	-457.092E-6
4.79490E-3	193.317E-12	654.304E-3	-28.7141E-3	189.281E-12	678.155E-3	-5.54559E-3
4.78989E-3	193.478E-12	664.758E-3	-30.5391E-3	189.261E-12	670.722E-3	-33.6320E-3
4.78489E-3	192.811E-12	670.290E-3	-48.6318E-3	189.002E-12	654.292E-3	-39.2881E-3
4.77989E-3	192.035E-12	649.289E-3	-49.3971E-3	188.087E-12	650.716E-3	-15.2731E-3
4.77489E-3	192.207E-12	614.988E-3	-13.8110E-3	188.697E-12	646.180E-3	-17.0599E-3
4.76988E-3	191.001E-12	604.633E-3	12.3435E-3	189.074E-12	647.784E-3	-25.7972E-3
4.76488E-3	190.039E-12	632.144E-3	18.6283E-3	188.678E-12	649.202E-3	-16.9945E-3
4.75988E-3	188.418E-12	669.183E-3	8.37205E-3	188.483E-12	640.965E-3	-5.24690E-3
4.75488E-3	188.553E-12	678.202E-3	-12.8352E-3	188.016E-12	643.905E-3	17.3536E-3
4.74988E-3	187.177E-12	673.089E-3	-5.92762E-3	187.798E-12	659.731E-3	21.1334E-3
4.74487E-3	186.403E-12	658.942E-3	3.37980E-3	187.415E-12	672.671E-3	-4.14622E-3
4.73987E-3	184.698E-12	648.974E-3	-15.8913E-3	187.191E-12	671.556E-3	-14.2279E-3
4.73487E-3	184.700E-12	656.739E-3	-20.6621E-3	187.567E-12	658.619E-3	-15.5197E-3
4.72986E-3	184.620E-12	648.950E-3	-4.09601E-3	187.104E-12	638.832E-3	-22.0675E-3
4.72486E-3	185.070E-12	633.841E-3	2.66574E-3	186.851E-12	622.350E-3	-9.70490E-3
4.71986E-3	184.481E-12	652.287E-3	-390.529E-6	185.503E-12	628.197E-3	-2.22005E-3
4.71486E-3	184.625E-12	681.330E-3	-20.3341E-3	185.938E-12	641.121E-3	-19.3948E-3
4.70985E-3	185.175E-12	661.731E-3	-46.3215E-3	185.038E-12	659.466E-3	-36.7906E-3
4.70485E-3	186.217E-12	641.599E-3	-47.2216E-3	184.756E-12	672.522E-3	-40.8178E-3
4.69985E-3	186.919E-12	663.115E-3	-19.4356E-3	184.122E-12	663.745E-3	-28.3674E-3
4.69485E-3	186.632E-12	659.788E-3	-10.4275E-3	184.675E-12	644.347E-3	-6.93746E-3
4.68984E-3	186.970E-12	640.693E-3	-36.9675E-3	184.982E-12	633.673E-3	-5.04717E-3
4.68484E-3	186.913E-12	644.361E-3	-47.2561E-3	184.049E-12	658.333E-3	-20.9725E-3
4.67984E-3	186.876E-12	633.262E-3	-26.5117E-3	184.265E-12	671.652E-3	-23.4708E-3
4.67484E-3	186.222E-12	641.490E-3	-12.1490E-3	184.333E-12	657.579E-3	-21.3012E-3
4.66983E-3	185.072E-12	678.171E-3	-9.97644E-3	184.819E-12	637.152E-3	-24.6890E-3
4.66483E-3	184.812E-12	697.580E-3	-15.9955E-3	184.135E-12	626.554E-3	-16.1130E-3
4.65983E-3	185.187E-12	686.806E-3	-34.6982E-3	184.265E-12	644.947E-3	-16.6040E-3
4.65483E-3	185.000E-12	642.842E-3	-19.8049E-3	184.596E-12	651.526E-3	-27.6185E-3
4.64982E-3	182.960E-12	610.140E-3	7.35624E-3	184.516E-12	651.251E-3	-21.3699E-3
4.64482E-3	182.009E-12	620.026E-3	1.28279E-3	184.709E-12	670.293E-3	-17.1554E-3
4.63982E-3	182.512E-12	655.668E-3	-13.0391E-3	183.973E-12	683.392E-3	-26.0415E-3
4.63482E-3	183.325E-12	672.170E-3	-33.0844E-3	183.500E-12	670.607E-3	-28.5924E-3
4.62981E-3	182.573E-12	662.188E-3	-41.3698E-3	183.003E-12	658.363E-3	-20.3950E-3
4.62481E-3	182.375E-12	660.662E-3	-9.97850E-3	183.263E-12	661.279E-3	-28.9398E-3
4.61981E-3	183.075E-12	661.556E-3	9.02752E-3	183.633E-12	667.967E-3	-39.9313E-3
4.61481E-3	184.353E-12	656.811E-3	-11.3508E-3	182.262E-12	685.092E-3	-21.8715E-3
4.60980E-3	184.250E-12	654.487E-3	-8.01197E-3	181.052E-12	692.738E-3	-2.77966E-3
4.60480E-3	183.890E-12	645.739E-3	8.57195E-3	181.802E-12	679.660E-3	-9.86778E-3
4.59980E-3	182.694E-12	639.026E-3	9.08801E-3	183.205E-12	673.706E-3	-27.4700E-3
4.59480E-3	183.318E-12	651.680E-3	9.73317E-3	181.775E-12	674.750E-3	-40.9294E-3
4.58979E-3	183.707E-12	685.855E-3	7.45133E-3	181.090E-12	664.114E-3	-56.0402E-3
4.58479E-3	183.735E-12	706.388E-3	-8.26332E-3	181.567E-12	648.364E-3	-59.0132E-3
4.57979E-3	182.409E-12	678.988E-3	-32.5411E-3	182.521E-12	647.155E-3	-42.9174E-3
4.57479E-3	182.280E-12	632.772E-3	-28.1163E-3	181.692E-12	659.455E-3	-14.7041E-3
4.56978E-3	182.751E-12	608.114E-3	-3.71105E-3	181.229E-12	665.981E-3	-4.27182E-3
4.56478E-3	182.380E-12	633.149E-3	-23.3691E-3	181.811E-12	657.464E-3	-29.2191E-3
4.55978E-3	181.801E-12	652.551E-3	-60.8211E-3	181.635E-12	644.849E-3	-43.8364E-3
4.55478E-3	180.818E-12	627.186E-3	-65.7516E-3	181.418E-12	636.127E-3	-21.9674E-3
4.54977E-3	180.926E-12	619.623E-3	-61.7688E-3	180.450E-12	634.144E-3	-1.51215E-3
4.54477E-3	180.178E-12	634.838E-3	-41.1074E-3	180.770E-12	639.313E-3	-751.822E-6
4.53977E-3	180.159E-12	653.873E-3	-22.0352E-3	179.812E-12	650.233E-3	-2.95046E-3
4.53477E-3	180.539E-12	675.518E-3	-27.9199E-3	180.228E-12	657.848E-3	-6.62722E-3
4.52976E-3	180.512E-12	680.510E-3	-41.7895E-3	179.199E-12	659.870E-3	-21.2161E-3
4.52476E-3	180.346E-12	676.595E-3	-42.3573E-3	179.312E-12	659.082E-3	-30.9025E-3
4.51976E-3	179.664E-12	664.081E-3	-18.2185E-3	178.550E-12	641.669E-3	-22.8755E-3
4.51476E-3	180.283E-12	655.509E-3	-6.93216E-3	177.905E-12	637.335E-3	-11.5204E-3
4.50975E-3	180.181E-12	665.969E-3	-26.5424E-3	179.031E-12	661.093E-3	-12.8793E-3
4.50475E-3	180.257E-12	659.561E-3	-28.5943E-3	180.064E-12	672.776E-3	-36.1703E-3
4.49975E-3	179.007E-12	651.133E-3	-8.16159E-3	179.487E-12	666.463E-3	-33.7999E-3
4.49475E-3	178.662E-12	655.487E-3	-8.80269E-3	178.792E-12	651.860E-3	3.05873E-3
4.48974E-3	179.176E-12	666.280E-3	-19.1055E-3	178.754E-12	648.803E-3	2.82189E-3
4.48474E-3	179.299E-12	687.893E-3	-24.4826E-3	178.731E-12	657.679E-3	-39.4032E-3
4.47974E-3	177.353E-12	673.620E-3	-32.1165E-3	177.850E-12	664.523E-3	-66.6064E-3
4.47474E-3	176.873E-12	631.493E-3	-35.7435E-3	177.547E-12	669.246E-3	-59.8649E-3
4.46973E-3	178.115E-12	627.886E-3	-31.3303E-3	175.692E-12	666.892E-3	-49.3706E-3
4.46473E-3	177.359E-12	648.207E-3	-20.3658E-3	176.563E-12	663.413E-3	-44.7221E-3
4.45973E-3	176.437E-12	653.034E-3	-21.7283E-3	175.941E-12	665.723E-3	-35.7490E-3
4.45473E-3	176.510E-12	655.774E-3	-29.5761E-3	176.444E-12	666.645E-3	-42.7579E-3
4.44972E-3	178.003E-12	656.134E-3	-15.7217E-3	174.468E-12	661.989E-3	-34.5715E-3
4.44472E-3	177.527E-12	655.646E-3	-450.065E-6	174.500E-12	664.133E-3	-817.138E-6
4.43972E-3	176.906E-12	677.096E-3	5.36258E-3	174.525E-12	673.972E-3	-3.47585E-3
4.43472E-3	176.608E-12	700.258E-3	-12.2499E-3	174.456E-12	677.536E-3	-16.0973E-3
4.42971E-3	176.923E-12	700.454E-3	-45.7769E-3	174.283E-12	665.785E-3	-10.5574E-3
4.42471E-3	176.152E-12	691.768E-3	-30.6288E-3	173.520E-12	657.860E-3	-16.4469E-3
4.41971E-3	174.367E-12	681.783E-3	-6.98881E-3	173.058E-12	680.628E-3	-25.4146E-3
4.41471E-3	173.872E-12	682.558E-3	-19.2138E-3	173.948E-12	693.264E-3	-29.0811E-3
4.40970E-3	174.079E-12	693.606E-3	-39.9692E-3	175.039E-12	684.198E-3	-20.1064E-3
4.40470E-3	173.231E-12	696.382E-3	-59.4306E-3	173.941E-12	679.598E-3	-17.2380E-3
4.39970E-3	171.849E-12	695.196E-3	-55.6294E-3	172.631E-12	674.667E-3	-38.1729E-3
4.39470E-3	170.861E-12	675.095E-3	-40.6986E-3	173.155E-12	682.190E-3	-37.4604E-3
4.38969E-3	171.773E-12	641.578E-3	-37.6830E-3	173.336E-12	678.704E-3	-7.57894E-3
4.38469E-3	170.136E-12	641.355E-3	-40.7754E-3	172.735E-12	647.955E-3	14.5798E-3
4.37969E-3	169.822E-12	663.231E-3	-55.8574E-3	170.983E-12	635.674E-3	14.8165E-3
4.37469E-3	169.627E-12	663.482E-3	-63.6153E-3	170.519E-12	648.744E-3	-124.546E-6
4.36968E-3	170.835E-12	652.142E-3	-34.0126E-3	171.097E-12	665.679E-3	-5.86238E-3
4.36468E-3	170.957E-12	650.355E-3	3.71271E-3	171.748E-12	671.730E-3	15.1772E-3
4.35968E-3	170.826E-12	647.369E-3	7.45562E-3	170.684E-12	650.297E-3	15.5273E-3
4.35468E-3	170.172E-12	631.292E-3	-26.6289E-3	169.269E-12	638.369E-3	-20.9526E-3
4.34967E-3	170.668E-12	628.249E-3	-42.7004E-3	170.019E-12	661.855E-3	-35.1900E-3
4.34467E-3	170.649E-12	644.669E-3	-20.0528E-3	170.804E-12	680.707E-3	-18.7810E-3
4.33967E-3	170.607E-12	664.228E-3	-2.40634E-3	170.979E-12	670.108E-3	299.159E-6
4.33467E-3	170.141E-12	686.655E-3	-8.75513E-3	169.960E-12	635.070E-3	5.24464E-3
4.32966E-3	169.550E-12	668.545E-3	-22.8556E-3	170.255E-12	609.706E-3	-12.2915E-3
4.32466E-3	169.140E-12	627.993E-3	-13.0296E-3	169.883E-12	635.068E-3	-23.7155E-3
4.31966E-3	168.571E-12	637.601E-3	5.06845E-3	170.302E-12	689.660E-3	-5.02185E-3
4.31466E-3	168.181E-12	682.647E-3	21.2825E-3	169.549E-12	712.375E-3	3.06715E-3
4.30965E-3	167.673E-12	701.391E-3	24.3193E-3	169.192E-12	686.071E-3	-15.0035E-3
4.30465E-3	167.349E-12	681.047E-3	-4.17774E-3	168.551E-12	649.608E-3	-35.9041E-3
4.29965E-3	167.552E-12	664.173E-3	-34.1984E-3	168.668E-12	639.636E-3	-30.5400E-3
4.29465E-3	167.049E-12	654.070E-3	-23.6766E-3	168.278E-12	632.197E-3	4.54595E-3
4.28964E-3	166.865E-12	662.017E-3	11.2792E-3	167.741E-12	621.372E-3	16.5564E-3
4.28464E-3	167.124E-12	684.526E-3	27.7999E-3	168.463E-12	617.293E-3	-3.96706E-3
4.27964E-3	167.225E-12	655.272E-3	18.0109E-3	168.399E-12	609.662E-3	-22.9535E-3
4.27464E-3	166.933E-12	615.193E-3	-11.6942E-3	167.398E-12	628.015E-3	-21.7521E-3
4.26963E-3	167.314E-12	629.569E-3	-27.8170E-3	167.367E-12	650.151E-3	-7.34111E-3
4.26463E-3	168.062E-12	643.265E-3	-23.0834E-3	167.467E-12	655.643E-3	-8.06247E-3
4.25963E-3	168.326E-12	658.362E-3	-20.6536E-3	168.288E-12	664.724E-3	-130.057E-6
4.25463E-3	167.722E-12	694.772E-3	-29.5755E-3	167.339E-12	660.185E-3	18.0965E-3
4.24962E-3	167.581E-12	686.614E-3	-39.4119E-3	167.377E-12	648.470E-3	-13.7187E-3
4.24462E-3	167.666E-12	655.102E-3	-41.7694E-3	167.186E-12	654.695E-3	-60.0705E-3
4.23962E-3	167.738E-12	661.914E-3	-10.3388E-3	167.804E-12	672.704E-3	-42.0707E-3
4.23462E-3	166.610E-12	685.927E-3	22.0625E-3	168.584E-12	682.677E-3	-3.33459E-3
4.22961E-3	166.802E-12	697.065E-3	5.01490E-3	167.711E-12	683.371E-3	-2.92079E-3
4.22461E-3	166.899E-12	695.106E-3	-9.88663E-3	166.911E-12	679.754E-3	-8.75294E-3
4.21961E-3	166.879E-12	676.622E-3	10.3934E-3	167.305E-12	664.689E-3	-1.39083E-3
4.21461E-3	166.432E-12	671.978E-3	24.0426E-3	168.332E-12	643.680E-3	2.56137E-3
4.20960E-3	166.279E-12	692.746E-3	5.11659E-3	166.244E-12	650.076E-3	-17.8636E-3
4.20460E-3	166.049E-12	692.982E-3	-11.9226E-3	164.880E-12	673.155E-3	-39.7097E-3
4.19960E-3	165.775E-12	672.054E-3	-23.6972E-3	163.767E-12	666.806E-3	-29.1378E-3
4.19460E-3	165.226E-12	658.163E-3	-30.2003E-3	164.500E-12	653.324E-3	-5.69064E-3
4.18959E-3	164.764E-12	650.851E-3	-15.6673E-3	163.117E-12	668.339E-3	-3.25864E-3
4.18459E-3	164.359E-12	650.368E-3	-15.5991E-3	162.868E-12	689.846E-3	-8.78182E-3
4.17959E-3	164.027E-12	652.375E-3	-39.0722E-3	161.561E-12	675.846E-3	3.72652E-3
4.17459E-3	164.549E-12	638.889E-3	-56.4079E-3	161.636E-12	643.039E-3	2.85611E-3
4.16958E-3	164.013E-12	620.628E-3	-55.2718E-3	161.803E-12	635.225E-3	-18.6392E-3
4.16458E-3	163.632E-12	643.172E-3	-29.5948E-3	161.574E-12	647.360E-3	-16.1286E-3
4.15958E-3	163.511E-12	689.187E-3	5.45423E-3	160.500E-12	667.345E-3	3.13583E-3
4.15458E-3	163.714E-12	683.855E-3	15.2316E-3	160.558E-12	679.650E-3	-2.28520E-3
4.14957E-3	163.637E-12	652.109E-3	-14.5076E-3	160.962E-12	676.321E-3	-13.7338E-3
4.14457E-3	163.007E-12	636.882E-3	-37.8446E-3	161.832E-12	665.972E-3	-4.02107E-3
4.13957E-3	162.701E-12	627.061E-3	-14.6149E-3	161.053E-12	650.383E-3	4.12254E-3
4.13457E-3	162.215E-12	637.177E-3	-2.16915E-3	161.365E-12	632.352E-3	5.48164E-3
4.12956E-3	161.979E-12	673.111E-3	-17.9722E-3	160.075E-12	614.247E-3	11.0522E-3
4.12456E-3	161.170E-12	694.716E-3	-38.0866E-3	160.706E-12	607.904E-3	13.9986E-3
4.11956E-3	161.488E-12	675.970E-3	-48.6985E-3	159.617E-12	617.088E-3	2.33780E-3
4.11456E-3	161.284E-12	652.364E-3	-21.5213E-3	159.337E-12	645.693E-3	-7.42504E-3
4.10955E-3	160.580E-12	662.264E-3	18.2806E-3	158.296E-12	664.765E-3	7.44140E-3
4.10455E-3	159.981E-12	687.179E-3	19.7743E-3	158.578E-12	641.131E-3	17.3624E-3
4.09955E-3	159.887E-12	692.784E-3	-4.02356E-3	158.890E-12	627.353E-3	-3.01600E-3
4.09455E-3	160.237E-12	677.663E-3	-21.8701E-3	158.079E-12	635.245E-3	-28.5466E-3
4.08954E-3	159.657E-12	659.634E-3	-36.8109E-3	157.790E-12	636.756E-3	-45.9702E-3
4.08454E-3	158.634E-12	659.234E-3	-28.3923E-3	157.319E-12	640.509E-3	-50.0384E-3
4.07954E-3	158.554E-12	667.755E-3	-17.9119E-3	158.575E-12	635.015E-3	-26.7432E-3
4.07454E-3	158.360E-12	672.667E-3	-41.6787E-3	158.546E-12	609.944E-3	-10.5938E-3
4.06953E-3	158.504E-12	671.047E-3	-63.3865E-3	158.598E-12	616.866E-3	-12.8297E-3
4.06453E-3	157.021E-12	647.126E-3	-60.7759E-3	158.571E-12	659.912E-3	-9.54467E-3
4.05953E-3	156.932E-12	638.046E-3	-39.7423E-3	159.663E-12	677.342E-3	-8.96210E-3
4.05453E-3	156.559E-12	661.135E-3	-16.7380E-3	159.631E-12	665.611E-3	-19.3877E-3
4.04952E-3	157.104E-12	665.191E-3	-15.3278E-3	159.238E-12	659.353E-3	-39.0923E-3
4.04452E-3	156.347E-12	647.287E-3	-17.0994E-3	158.664E-12	656.427E-3	-55.8530E-3
4.03952E-3	155.903E-12	633.804E-3	-12.5314E-3	158.890E-12	653.017E-3	-47.4313E-3
4.03452E-3	155.330E-12	641.327E-3	-7.48016E-3	159.172E-12	657.804E-3	-17.7692E-3
4.02951E-3	155.294E-12	671.929E-3	651.253E-6	158.395E-12	650.799E-3	-3.97761E-3
4.02451E-3	155.745E-12	690.191E-3	-18.4973E-3	158.228E-12	634.237E-3	-20.1586E-3
4.01951E-3	155.612E-12	676.977E-3	-49.1994E-3	157.493E-12	630.242E-3	-28.9883E-3
4.01451E-3	155.342E-12	655.918E-3	-35.2104E-3	157.898E-12	633.733E-3	-13.2183E-3
4.00950E-3	155.862E-12	649.663E-3	2.66694E-3	157.387E-12	635.067E-3	-4.21247E-3
4.00450E-3	156.298E-12	661.118E-3	2.51406E-3	156.616E-12	636.784E-3	6.35466E-3
3.99950E-3	156.024E-12	671.013E-3	-25.2009E-3	155.961E-12	645.267E-3	14.6223E-3
3.99450E-3	155.585E-12	665.095E-3	-40.0612E-3	155.397E-12	655.016E-3	-2.82084E-3
3.98949E-3	155.374E-12	661.103E-3	-35.2763E-3	156.262E-12	649.156E-3	-16.7820E-3
3.98449E-3	155.200E-12	674.798E-3	-12.6387E-3	156.064E-12	642.685E-3	-14.4904E-3
3.97949E-3	154.063E-12	698.923E-3	9.39035E-3	155.490E-12	650.952E-3	-12.4081E-3
3.97449E-3	153.658E-12	694.836E-3	13.4331E-3	155.334E-12	654.491E-3	-22.2767E-3
3.96948E-3	153.284E-12	657.729E-3	3.53249E-3	154.957E-12	647.691E-3	-33.3227E-3
3.96448E-3	152.821E-12	637.937E-3	-3.34267E-3	155.154E-12	640.197E-3	-37.9491E-3
3.95948E-3	153.390E-12	646.483E-3	6.66430E-3	153.766E-12	643.344E-3	-33.1295E-3
3.95448E-3	153.035E-12	666.442E-3	7.38680E-3	153.881E-12	653.271E-3	-14.2998E-3
3.94947E-3	153.481E-12	675.655E-3	-38.8388E-3	153.426E-12	660.674E-3	-1.36474E-3
3.94447E-3	153.237E-12	653.982E-3	-73.2219E-3	153.706E-12	663.467E-3	6.03671E-3
3.93947E-3	152.586E-12	625.899E-3	-47.9728E-3	153.877E-12	654.554E-3	-246.068E-6
3.93447E-3	153.131E-12	639.367E-3	-20.9701E-3	152.897E-12	651.889E-3	-22.1742E-3
3.92946E-3	153.183E-12	680.439E-3	-30.0632E-3	152.553E-12	660.110E-3	-27.7076E-3
3.92446E-3	153.218E-12	690.210E-3	-47.3178E-3	152.873E-12	660.227E-3	-25.4165E-3
3.91946E-3	153.104E-12	672.101E-3	-48.0276E-3	153.549E-12	659.829E-3	-30.1246E-3
3.91446E-3	153.356E-12	651.571E-3	-45.5932E-3	153.268E-12	671.069E-3	-24.2053E-3
3.90945E-3	152.615E-12	649.620E-3	-27.6959E-3	152.321E-12	691.714E-3	-9.11568E-3
3.90445E-3	152.395E-12	668.312E-3	-2.44185E-3	151.199E-12	693.484E-3	-4.47790E-3
3.89945E-3	152.232E-12	681.777E-3	-12.8639E-3	151.562E-12	667.764E-3	-5.32134E-3
3.89445E-3	151.639E-12	668.067E-3	-48.4912E-3	151.685E-12	648.962E-3	-12.0461E-3
3.88944E-3	151.250E-12	627.678E-3	-57.7635E-3	150.981E-12	666.118E-3	-25.4218E-3
3.88444E-3	150.293E-12	613.520E-3	-18.1854E-3	149.617E-12	684.206E-3	-21.2166E-3
3.87944E-3	150.076E-12	647.313E-3	20.6800E-3	149.592E-12	661.655E-3	-5.08340E-3
3.87444E-3	149.406E-12	684.508E-3	14.3799E-3	150.264E-12	630.815E-3	-48.0001E-6
3.86943E-3	149.651E-12	678.789E-3	-8.18884E-3	149.293E-12	618.861E-3	7.10279E-3
3.86443E-3	148.772E-12	651.643E-3	-19.7118E-3	147.608E-12	624.122E-3	15.2981E-3
3.85943E-3	148.859E-12	637.862E-3	-17.7772E-3	147.300E-12	637.953E-3	7.54722E-3
3.85443E-3	148.711E-12	651.279E-3	-15.9215E-3	147.264E-12	649.922E-3	6.92706E-3
3.84942E-3	148.897E-12	676.215E-3	-21.6938E-3	147.247E-12	651.913E-3	9.76562E-3
3.84442E-3	149.772E-12	681.473E-3	-24.1502E-3	146.665E-12	642.041E-3	-11.4165E-3
3.83942E-3	149.237E-12	669.154E-3	-23.2331E-3	145.981E-12	632.226E-3	-32.0150E-3
3.83442E-3	148.916E-12	652.694E-3	-13.3839E-3	146.778E-12	641.811E-3	-23.0644E-3
3.82941E-3	148.807E-12	655.979E-3	-1.93671E-3	147.931E-12	661.324E-3	-16.5827E-3
3.82441E-3	148.383E-12	684.391E-3	5.20905E-3	148.193E-12	661.481E-3	-31.6869E-3
3.81941E-3	148.149E-12	697.606E-3	-9.13487E-3	147.528E-12	644.951E-3	-42.7343E-3
3.81441E-3	147.722E-12	665.959E-3	-53.7746E-3	147.607E-12	645.999E-3	-33.6435E-3
3.80940E-3	148.217E-12	626.629E-3	-64.8661E-3	148.956E-12	678.674E-3	-13.8881E-3
3.80440E-3	146.600E-12	627.710E-3	-28.2742E-3	148.789E-12	703.960E-3	-8.85620E-3
3.79940E-3	146.207E-12	650.436E-3	-12.5054E-3	148.916E-12	699.362E-3	-5.33565E-3
3.79440E-3	146.426E-12	648.632E-3	-22.1048E-3	148.218E-12	688.258E-3	1.22254E-3
3.78939E-3	146.681E-12	643.067E-3	-14.3982E-3	147.588E-12	678.959E-3	-15.6265E-3
3.78439E-3	145.883E-12	656.942E-3	6.30761E-3	146.939E-12	666.437E-3	-26.3906E-3
3.77939E-3	144.367E-12	670.226E-3	10.2432E-3	147.136E-12	650.210E-3	-30.9833E-3
3.77439E-3	144.647E-12	673.805E-3	3.86447E-3	147.342E-12	635.271E-3	-34.7918E-3
3.76938E-3	145.168E-12	656.410E-3	-11.9392E-3	145.775E-12	643.544E-3	-16.7946E-3
3.76438E-3	145.595E-12	630.610E-3	-45.7395E-3	144.943E-12	657.406E-3	-6.91905E-3
3.75938E-3	145.034E-12	631.240E-3	-56.2344E-3	145.682E-12	655.315E-3	-10.9814E-3
3.75438E-3	145.015E-12	646.383E-3	-25.1337E-3	145.873E-12	660.761E-3	-17.8955E-3
3.74937E-3	144.585E-12	654.739E-3	-5.59343E-3	145.785E-12	677.840E-3	-25.8456E-3
3.74437E-3	145.423E-12	667.041E-3	-29.7450E-3	145.263E-12	681.664E-3	-43.0841E-3
3.73937E-3	145.674E-12	665.128E-3	-45.2547E-3	145.379E-12	674.058E-3	-59.3079E-3
3.73437E-3	144.698E-12	643.852E-3	-35.9217E-3	145.811E-12	670.057E-3	-41.0640E-3
3.72936E-3	144.513E-12	634.820E-3	-29.3444E-3	146.341E-12	677.177E-3	-16.7972E-3
3.72436E-3	144.715E-12	647.747E-3	-19.8513E-3	145.322E-12	690.667E-3	-14.2076E-3
3.71936E-3	145.309E-12	662.153E-3	-17.0991E-3	144.676E-12	690.261E-3	-6.19805E-3
3.71436E-3	143.678E-12	670.753E-3	-21.3152E-3	145.162E-12	678.807E-3	-8.59558E-3
3.70935E-3	143.352E-12	670.458E-3	-20.6173E-3	146.144E-12	670.315E-3	-26.9529E-3
3.70435E-3	143.491E-12	654.367E-3	-12.0983E-3	145.966E-12	668.349E-3	-27.2256E-3
3.69935E-3	144.197E-12	650.747E-3	3.15253E-3	144.639E-12	666.150E-3	-24.6470E-3
3.69435E-3	143.514E-12	665.760E-3	2.74931E-3	144.158E-12	659.887E-3	-18.2378E-3
3.68934E-3	142.050E-12	673.218E-3	-9.26733E-3	143.168E-12	659.659E-3	-10.2616E-3
3.68434E-3	143.180E-12	671.216E-3	-4.32538E-3	143.235E-12	663.126E-3	-19.2247E-3
3.67934E-3	142.797E-12	675.496E-3	18.2290E-3	141.996E-12	658.705E-3	-25.7315E-3
3.67434E-3	142.032E-12	681.582E-3	30.1599E-3	141.487E-12	660.191E-3	-21.0200E-3
3.66933E-3	141.190E-12	684.141E-3	-1.20210E-3	140.384E-12	664.213E-3	-12.1693E-3
3.66433E-3	141.409E-12	670.067E-3	-42.9143E-3	140.415E-12	652.611E-3	-10.9097E-3
3.65933E-3	141.427E-12	644.010E-3	-40.2424E-3	140.430E-12	648.305E-3	-37.5799E-3
3.65433E-3	140.836E-12	637.441E-3	-15.6068E-3	139.749E-12	673.070E-3	-66.3016E-3
3.64932E-3	139.591E-12	656.234E-3	4.85003E-3	139.246E-12	685.117E-3	-60.8840E-3
3.64432E-3	139.340E-12	672.736E-3	11.1930E-3	139.588E-12	664.927E-3	-51.2615E-3
3.63932E-3	139.796E-12	664.713E-3	4.48097E-3	139.934E-12	661.602E-3	-53.6454E-3
3.63432E-3	139.876E-12	652.113E-3	-6.92587E-3	138.691E-12	661.200E-3	-38.1752E-3
3.62931E-3	139.225E-12	646.464E-3	-16.6323E-3	138.286E-12	646.670E-3	-11.2547E-3
3.62431E-3	138.272E-12	651.905E-3	-6.64186E-3	138.574E-12	657.661E-3	-14.1645E-3
3.61931E-3	139.110E-12	660.615E-3	7.30160E-3	139.012E-12	672.740E-3	-32.4454E-3
3.61431E-3	139.198E-12	653.628E-3	-13.6752E-3	138.785E-12	660.514E-3	-36.9863E-3
3.60930E-3	138.794E-12	635.440E-3	-44.8201E-3	138.074E-12	642.772E-3	-46.3626E-3
3.60430E-3	137.906E-12	636.865E-3	-29.7064E-3	137.915E-12	636.112E-3	-49.8443E-3
3.59930E-3	137.872E-12	664.708E-3	7.24904E-3	137.772E-12	642.768E-3	-28.2355E-3
3.59430E-3	139.085E-12	688.367E-3	8.65974E-3	138.075E-12	661.170E-3	-16.4132E-3
3.58929E-3	139.058E-12	694.406E-3	-12.9022E-3	137.186E-12	670.243E-3	-17.1523E-3
3.58429E-3	138.336E-12	684.024E-3	-15.6985E-3	137.195E-12	659.601E-3	-13.0675E-3
3.57929E-3	137.687E-12	665.267E-3	-11.5533E-3	136.882E-12	648.171E-3	-13.7385E-3
3.57429E-3	138.439E-12	648.477E-3	-16.4143E-3	137.074E-12	646.417E-3	-21.1512E-3
3.56928E-3	138.521E-12	661.824E-3	-20.6414E-3	136.154E-12	648.141E-3	-18.9228E-3
3.56428E-3	137.477E-12	693.498E-3	-31.6750E-3	135.117E-12	642.288E-3	-14.3473E-3
3.55928E-3	135.564E-12	696.773E-3	-45.6283E-3	134.647E-12	643.501E-3	-20.9401E-3
3.55428E-3	135.464E-12	669.964E-3	-38.5996E-3	134.817E-12	658.973E-3	-10.0600E-3
3.54927E-3	135.910E-12	652.515E-3	-16.9443E-3	134.663E-12	658.597E-3	7.15245E-3
3.54427E-3	135.581E-12	661.356E-3	-9.88825E-3	134.436E-12	642.086E-3	-2.02122E-3
3.53927E-3	134.502E-12	653.901E-3	-27.0174E-3	133.784E-12	646.852E-3	-18.3258E-3
3.53427E-3	134.300E-12	638.908E-3	-46.5904E-3	133.646E-12	674.503E-3	-31.0169E-3
3.52926E-3	134.666E-12	644.217E-3	-34.5323E-3	133.943E-12	679.235E-3	-33.8318E-3
3.52426E-3	135.552E-12	650.439E-3	-140.537E-6	134.609E-12	667.932E-3	-19.0028E-3
3.51926E-3	134.813E-12	656.943E-3	14.7296E-3	133.719E-12	672.729E-3	-5.50127E-3
3.51426E-3	134.240E-12	665.871E-3	3.39986E-3	133.326E-12	687.416E-3	-10.1273E-3
3.50925E-3	134.332E-12	664.411E-3	-9.06310E-3	133.800E-12	696.233E-3	-15.0400E-3
3.50425E-3	135.017E-12	662.009E-3	-20.5528E-3	134.499E-12	688.591E-3	-4.35186E-3
3.49925E-3	135.425E-12	660.744E-3	-25.2529E-3	134.430E-12	679.766E-3	-10.6746E-3
3.49425E-3	134.478E-12	660.679E-3	-8.23889E-3	133.278E-12	672.818E-3	-30.5853E-3
3.48924E-3	134.275E-12	663.561E-3	-3.84654E-3	133.190E-12	657.740E-3	-21.2313E-3
3.48424E-3	134.936E-12	664.052E-3	-26.7439E-3	134.153E-12	654.542E-3	-1.19566E-3
3.47924E-3	135.211E-12	664.899E-3	-43.2422E-3	134.828E-12	652.158E-3	-8.17242E-3
3.47424E-3	134.093E-12	661.824E-3	-21.9389E-3	134.123E-12	650.782E-3	-29.1366E-3
3.46923E-3	132.930E-12	664.311E-3	7.96757E-3	133.479E-12	666.007E-3	-36.9548E-3
3.46423E-3	133.091E-12	674.489E-3	-183.315E-6	133.663E-12	672.561E-3	-39.7898E-3
3.45923E-3	133.298E-12	671.578E-3	-17.0195E-3	134.296E-12	671.179E-3	-37.1201E-3
3.45423E-3	131.907E-12	655.029E-3	-18.4871E-3	133.091E-12	672.323E-3	-17.3108E-3
3.44922E-3	131.055E-12	644.128E-3	-22.0792E-3	131.972E-12	671.577E-3	2.29594E-3
3.44422E-3	130.958E-12	649.740E-3	-14.3579E-3	131.937E-12	671.823E-3	2.54382E-3
3.43922E-3	131.406E-12	673.491E-3	-2.11088E-3	133.225E-12	681.300E-3	-4.47328E-3
3.43422E-3	131.153E-12	679.699E-3	-19.3261E-3	132.721E-12	690.467E-3	-3.02102E-3
3.42921E-3	131.105E-12	653.310E-3	-27.9137E-3	131.522E-12	683.969E-3	-5.30235E-3
3.42421E-3	130.718E-12	641.690E-3	-9.07247E-3	130.630E-12	666.756E-3	-18.1835E-3
3.41921E-3	130.478E-12	668.500E-3	-4.42032E-3	131.112E-12	646.778E-3	-27.2116E-3
3.41421E-3	130.915E-12	705.618E-3	-11.2360E-3	130.930E-12	638.018E-3	-23.4838E-3
3.40920E-3	130.799E-12	706.407E-3	-18.7256E-3	130.670E-12	654.613E-3	-16.9307E-3
3.40420E-3	130.825E-12	674.307E-3	-27.3892E-3	130.490E-12	660.680E-3	-9.49429E-3
3.39920E-3	130.764E-12	658.573E-3	-18.8946E-3	130.099E-12	639.267E-3	2.21355E-3
3.39420E-3	130.902E-12	669.509E-3	-1.05214E-3	130.520E-12	638.001E-3	7.37699E-3
3.38919E-3	130.747E-12	685.365E-3	2.30711E-3	129.980E-12	649.082E-3	21.2935E-3
3.38419E-3	130.426E-12	703.153E-3	4.18812E-3	130.316E-12	648.492E-3	32.5428E-3
3.37919E-3	130.126E-12	707.623E-3	4.42105E-3	130.501E-12	656.538E-3	7.51427E-3
3.37419E-3	128.859E-12	687.198E-3	-12.9357E-3	129.933E-12	667.094E-3	-38.7537E-3
3.36918E-3	128.341E-12	677.029E-3	-20.3372E-3	128.969E-12	673.394E-3	-65.2128E-3
3.36418E-3	128.152E-12	686.166E-3	-13.1356E-3	129.092E-12	681.246E-3	-50.1741E-3
3.35918E-3	127.723E-12	686.187E-3	-24.8847E-3	128.902E-12	676.946E-3	-29.3345E-3
3.35418E-3	126.708E-12	670.791E-3	-32.2605E-3	128.696E-12	676.204E-3	-34.1456E-3
3.34917E-3	126.227E-12	666.410E-3	-16.1574E-3	126.864E-12	682.937E-3	-25.1474E-3
3.34417E-3	125.642E-12	675.158E-3	-1.68199E-3	126.523E-12	681.038E-3	-3.12447E-3
3.33917E-3	125.276E-12	681.069E-3	2.62909E-3	125.741E-12	670.713E-3	-8.47814E-3
3.33417E-3	125.043E-12	681.373E-3	-572.667E-6	125.901E-12	661.447E-3	-6.45257E-3
3.32916E-3	125.344E-12	667.462E-3	-5.04177E-3	125.061E-12	668.599E-3	13.7215E-3
3.32416E-3	125.054E-12	647.029E-3	-4.56464E-3	124.461E-12	665.604E-3	27.2542E-3
3.31916E-3	124.799E-12	630.406E-3	-2.64443E-3	124.135E-12	652.898E-3	27.2977E-3
3.31416E-3	124.431E-12	641.952E-3	4.56477E-3	124.716E-12	664.076E-3	5.61204E-3
3.30915E-3	124.194E-12	678.094E-3	8.00461E-3	124.417E-12	672.919E-3	-17.6909E-3
3.30415E-3	124.109E-12	687.222E-3	-11.0245E-3	123.459E-12	660.025E-3	-34.0980E-3
3.29915E-3	124.350E-12	680.470E-3	-22.1933E-3	123.148E-12	653.543E-3	-43.4753E-3
3.29415E-3	124.247E-12	667.817E-3	-6.18618E-3	123.600E-12	664.042E-3	-42.3582E-3
3.28914E-3	124.212E-12	658.149E-3	9.50575E-3	123.495E-12	681.837E-3	-28.3945E-3
3.28414E-3	123.686E-12	685.606E-3	-1.21807E-3	123.299E-12	692.359E-3	-10.9630E-3
3.27914E-3	124.275E-12	716.950E-3	-26.8462E-3	123.449E-12	687.894E-3	-14.7898E-3
3.27414E-3	123.581E-12	711.578E-3	-35.0149E-3	123.278E-12	685.054E-3	-27.8382E-3
3.26913E-3	123.269E-12	682.373E-3	-24.2603E-3	123.631E-12	694.200E-3	-27.7458E-3
3.26413E-3	123.778E-12	673.142E-3	-17.7946E-3	123.121E-12	686.437E-3	-17.3180E-3
3.25913E-3	123.287E-12	686.367E-3	-29.0430E-3	122.317E-12	664.028E-3	2.52537E-3
3.25413E-3	123.018E-12	682.986E-3	-49.0473E-3	121.747E-12	652.916E-3	16.5448E-3
3.24912E-3	122.445E-12	672.433E-3	-40.0464E-3	122.163E-12	643.044E-3	1.26108E-3
3.24412E-3	122.572E-12	674.925E-3	214.051E-6	121.788E-12	645.968E-3	-19.3511E-3
3.23912E-3	122.142E-12	677.720E-3	21.5345E-3	121.009E-12	670.451E-3	-29.0779E-3
3.23412E-3	122.169E-12	684.935E-3	17.2407E-3	120.813E-12	672.784E-3	-33.3013E-3
3.22911E-3	121.838E-12	695.413E-3	5.90630E-3	120.897E-12	647.606E-3	-28.3508E-3
3.22411E-3	120.866E-12	686.064E-3	-21.1802E-3	121.519E-12	637.925E-3	-21.8222E-3
3.21911E-3	120.341E-12	675.890E-3	-33.9840E-3	119.869E-12	656.814E-3	-24.4370E-3
3.21411E-3	120.127E-12	687.710E-3	-13.0688E-3	118.808E-12	680.662E-3	-23.1381E-3
3.20910E-3	120.522E-12	711.008E-3	-1.09973E-3	119.342E-12	686.670E-3	-18.5186E-3
3.20410E-3	118.793E-12	715.386E-3	-6.03767E-3	120.404E-12	673.933E-3	-14.5922E-3
3.19910E-3	118.667E-12	687.960E-3	-6.03721E-3	119.974E-12	657.695E-3	3.27012E-3
3.19410E-3	118.553E-12	660.375E-3	2.85273E-3	119.161E-12	660.128E-3	12.9196E-3
3.18909E-3	119.540E-12	650.949E-3	14.6075E-3	119.892E-12	665.820E-3	7.31113E-3
3.18409E-3	119.458E-12	652.761E-3	2.84364E-3	120.914E-12	662.128E-3	1.07601E-3
3.17909E-3	119.366E-12	662.592E-3	-23.3528E-3	121.557E-12	668.433E-3	-7.22191E-3
3.17409E-3	119.942E-12	663.919E-3	-29.0082E-3	120.120E-12	678.375E-3	-12.5957E-3
3.16908E-3	119.971E-12	654.985E-3	-16.2392E-3	120.065E-12	690.220E-3	-18.2614E-3
3.16408E-3	120.247E-12	653.988E-3	-11.1281E-3	120.488E-12	704.017E-3	-16.6993E-3
3.15908E-3	119.870E-12	665.317E-3	-25.8485E-3	120.994E-12	697.576E-3	-10.6513E-3
3.15408E-3	120.238E-12	691.505E-3	-26.3908E-3	120.087E-12	686.985E-3	-16.7070E-3
3.14907E-3	119.770E-12	699.851E-3	-25.4171E-3	118.686E-12	685.471E-3	-19.5570E-3
3.14407E-3	119.820E-12	682.349E-3	-44.6382E-3	118.685E-12	684.800E-3	-14.2629E-3
3.13907E-3	118.928E-12	676.393E-3	-43.5810E-3	118.762E-12	679.261E-3	-9.03363E-3
3.13407E-3	118.504E-12	683.982E-3	-21.9951E-3	118.460E-12	664.992E-3	-3.07333E-3
3.12906E-3	118.194E-12	687.367E-3	-14.1237E-3	117.212E-12	657.572E-3	3.46082E-3
3.12406E-3	117.292E-12	673.166E-3	-22.0250E-3	116.802E-12	654.972E-3	2.46038E-3
3.11906E-3	116.383E-12	660.179E-3	-31.3219E-3	116.822E-12	656.914E-3	-4.65534E-3
3.11406E-3	116.105E-12	666.640E-3	-24.4570E-3	116.486E-12	671.098E-3	-9.95705E-3
3.10905E-3	116.113E-12	686.727E-3	-745.265E-6	115.947E-12	690.363E-3	-14.6956E-3
3.10405E-3	115.357E-12	701.910E-3	6.92998E-3	114.943E-12	698.939E-3	-14.4397E-3
3.09905E-3	115.058E-12	697.345E-3	-8.39917E-3	115.962E-12	688.906E-3	-11.9098E-3
3.09405E-3	114.826E-12	680.738E-3	-4.91044E-3	116.297E-12	683.660E-3	-8.95547E-3
3.08904E-3	115.711E-12	663.350E-3	7.60792E-3	116.022E-12	678.549E-3	-17.7202E-3
3.08404E-3	115.284E-12	666.358E-3	-5.05786E-3	115.009E-12	672.056E-3	-37.1408E-3
3.07904E-3	115.267E-12	685.207E-3	-21.1297E-3	115.158E-12	675.287E-3	-34.0053E-3
3.07404E-3	115.119E-12	678.666E-3	-21.3181E-3	115.603E-12	673.961E-3	-12.3234E-3
3.06903E-3	115.994E-12	656.634E-3	-19.2788E-3	115.594E-12	684.831E-3	4.61256E-3
3.06403E-3	116.028E-12	651.970E-3	-26.3406E-3	114.839E-12	699.311E-3	1.58817E-3
3.05903E-3	114.644E-12	675.084E-3	-19.2983E-3	115.073E-12	683.815E-3	-12.8610E-3
3.05403E-3	114.274E-12	717.430E-3	-10.4106E-3	115.506E-12	670.900E-3	-32.8415E-3
3.04902E-3	114.684E-12	730.439E-3	-12.7067E-3	114.664E-12	688.627E-3	-56.2435E-3
3.04402E-3	115.073E-12	704.067E-3	-13.0538E-3	114.294E-12	702.103E-3	-58.1364E-3
3.03902E-3	113.483E-12	684.974E-3	-8.36242E-3	113.910E-12	693.127E-3	-47.8852E-3
3.03402E-3	112.238E-12	694.625E-3	-1.03508E-3	113.342E-12	680.049E-3	-44.8235E-3
3.02901E-3	111.909E-12	701.447E-3	-13.4164E-3	112.905E-12	671.948E-3	-31.6831E-3
3.02401E-3	112.284E-12	688.034E-3	-28.9279E-3	112.480E-12	671.919E-3	-7.50887E-3
3.01901E-3	111.415E-12	672.357E-3	-28.3237E-3	111.933E-12	676.006E-3	6.25142E-3
3.01401E-3	110.262E-12	657.501E-3	-18.8260E-3	111.704E-12	675.713E-3	3.38653E-3
3.00900E-3	110.126E-12	655.439E-3	-10.6153E-3	111.367E-12	678.373E-3	-3.82245E-3
3.00400E-3	110.067E-12	675.681E-3	-16.9182E-3	111.101E-12	688.637E-3	-8.18069E-3
2.99900E-3	110.605E-12	685.635E-3	-32.8772E-3	110.752E-12	688.397E-3	-14.8798E-3
2.99400E-3	109.883E-12	665.652E-3	-35.0167E-3	109.815E-12	668.881E-3	-18.0240E-3
2.98899E-3	110.007E-12	638.762E-3	-20.5432E-3	109.679E-12	657.084E-3	-24.5740E-3
2.98399E-3	110.254E-12	639.749E-3	-15.3772E-3	109.782E-12	670.093E-3	-30.3828E-3
2.97899E-3	110.684E-12	673.817E-3	-26.8355E-3	110.211E-12	686.575E-3	-19.3434E-3
2.97399E-3	109.745E-12	692.042E-3	-35.3450E-3	109.889E-12	692.675E-3	-19.3847E-3
2.96898E-3	109.226E-12	678.075E-3	-37.9834E-3	109.975E-12	688.106E-3	-27.2748E-3
2.96398E-3	108.948E-12	665.176E-3	-33.0672E-3	110.528E-12	675.552E-3	-26.3276E-3
2.95898E-3	108.977E-12	676.129E-3	-22.2253E-3	110.818E-12	671.577E-3	-31.7040E-3
2.95398E-3	108.694E-12	686.117E-3	-25.8022E-3	109.813E-12	675.004E-3	-46.1219E-3
2.94897E-3	107.448E-12	679.396E-3	-29.0189E-3	109.041E-12	670.437E-3	-47.6296E-3
2.94397E-3	107.121E-12	679.678E-3	-27.5626E-3	109.292E-12	676.133E-3	-24.7992E-3
2.93897E-3	106.971E-12	673.058E-3	-25.9338E-3	109.143E-12	694.677E-3	-4.12156E-3
2.93397E-3	107.039E-12	668.995E-3	-12.5438E-3	108.057E-12	696.948E-3	577.567E-6
2.92896E-3	106.614E-12	676.368E-3	703.421E-6	107.262E-12	692.348E-3	-10.4611E-3
2.92396E-3	106.271E-12	679.406E-3	-7.17276E-3	106.789E-12	689.569E-3	-29.8344E-3
2.91896E-3	105.947E-12	682.170E-3	-36.9716E-3	106.812E-12	685.822E-3	-35.5799E-3
2.91396E-3	106.605E-12	672.858E-3	-53.0186E-3	106.246E-12	685.476E-3	-24.5280E-3
2.90895E-3	106.778E-12	674.534E-3	-39.9061E-3	105.306E-12	687.182E-3	-18.6652E-3
2.90395E-3	106.754E-12	694.840E-3	-27.5141E-3	104.996E-12	693.977E-3	-26.3137E-3
2.89895E-3	106.646E-12	693.673E-3	-11.7504E-3	104.887E-12	701.233E-3	-35.1824E-3
2.89395E-3	106.360E-12	678.053E-3	9.73683E-3	104.996E-12	697.356E-3	-40.4096E-3
2.88894E-3	106.361E-12	670.004E-3	-3.54377E-3	104.130E-12	687.912E-3	-36.0428E-3
2.88394E-3	105.894E-12	678.327E-3	-20.9244E-3	103.975E-12	690.392E-3	-19.8728E-3
2.87894E-3	105.675E-12	689.703E-3	-14.4675E-3	104.209E-12	702.426E-3	-14.9354E-3
2.87394E-3	104.891E-12	677.125E-3	-24.7748E-3	104.993E-12	710.010E-3	-21.4776E-3
2.86893E-3	104.440E-12	674.708E-3	-42.3500E-3	104.319E-12	700.636E-3	-9.66973E-3
2.86393E-3	104.496E-12	695.457E-3	-20.3181E-3	103.736E-12	693.363E-3	3.74203E-3
2.85893E-3	104.496E-12	707.022E-3	16.6488E-3	104.042E-12	702.885E-3	-6.52943E-3
2.85393E-3	104.677E-12	709.378E-3	16.3474E-3	104.626E-12	701.132E-3	-11.6213E-3
2.84892E-3	104.367E-12	706.908E-3	1.63351E-3	104.935E-12	695.045E-3	-4.21220E-3
2.84392E-3	104.268E-12	705.185E-3	-3.10178E-3	104.183E-12	689.526E-3	-12.3586E-3
2.83892E-3	103.845E-12	692.257E-3	-9.44169E-3	103.985E-12	691.253E-3	-22.8958E-3
2.83392E-3	103.763E-12	675.471E-3	-5.10512E-3	103.732E-12	710.111E-3	-12.8767E-3
2.82891E-3	103.316E-12	691.166E-3	7.38577E-3	104.438E-12	714.231E-3	-6.60921E-3
2.82391E-3	103.372E-12	726.117E-3	-11.5354E-3	103.726E-12	702.393E-3	-15.7130E-3
2.81891E-3	103.284E-12	735.480E-3	-43.0244E-3	102.641E-12	690.838E-3	-18.6154E-3
2.81391E-3	103.202E-12	691.994E-3	-42.8417E-3	101.497E-12	680.055E-3	-20.1051E-3
2.80890E-3	102.796E-12	655.064E-3	-17.6245E-3	101.995E-12	667.970E-3	-14.4833E-3
2.80390E-3	102.229E-12	671.110E-3	6.48893E-3	101.537E-12	661.566E-3	-334.097E-6
2.79890E-3	102.164E-12	689.015E-3	5.81212E-3	100.776E-12	676.460E-3	-7.38177E-3
2.79390E-3	101.531E-12	685.051E-3	-10.5965E-3	99.6554E-12	682.462E-3	-12.0143E-3
2.78889E-3	101.333E-12	684.989E-3	-14.7329E-3	99.9735E-12	669.820E-3	2.73672E-3
2.78389E-3	100.778E-12	697.098E-3	-3.73758E-3	100.572E-12	677.904E-3	3.95946E-3
2.77889E-3	100.718E-12	709.771E-3	-1.24803E-3	100.060E-12	699.539E-3	2.81197E-3
2.77389E-3	100.282E-12	718.944E-3	-5.60731E-3	99.1465E-12	705.915E-3	14.4568E-3
2.76888E-3	100.093E-12	712.661E-3	-10.3414E-3	98.9544E-12	689.177E-3	6.21037E-3
2.76388E-3	100.201E-12	689.150E-3	-17.7205E-3	99.8778E-12	678.628E-3	-11.9000E-3
2.75888E-3	100.373E-12	678.026E-3	-18.0059E-3	100.071E-12	699.743E-3	-13.3837E-3
2.75388E-3	100.568E-12	687.521E-3	-10.7967E-3	99.4339E-12	724.914E-3	-16.3133E-3
2.74887E-3	100.112E-12	710.679E-3	-10.8563E-3	99.5236E-12	720.959E-3	-23.6393E-3
2.74387E-3	100.360E-12	728.119E-3	-19.0968E-3	99.8213E-12	706.911E-3	-9.89849E-3
2.73887E-3	100.677E-12	711.133E-3	-14.1143E-3	100.358E-12	704.662E-3	8.56175E-3
2.73387E-3	100.304E-12	682.574E-3	-2.24959E-3	99.9222E-12	707.531E-3	1.27869E-3
2.72886E-3	99.8935E-12	684.234E-3	8.01789E-3	99.5525E-12	725.020E-3	-12.1226E-3
2.72386E-3	98.7928E-12	707.705E-3	11.6042E-3	98.8684E-12	728.672E-3	-18.4894E-3
2.71886E-3	99.0047E-12	714.887E-3	-8.41136E-3	98.6851E-12	704.590E-3	-25.2247E-3
2.71386E-3	98.3576E-12	704.244E-3	-27.2826E-3	98.2507E-12	710.283E-3	-29.6451E-3
2.70885E-3	97.5442E-12	696.215E-3	-19.6135E-3	97.5692E-12	732.151E-3	-36.6196E-3
2.70385E-3	96.9531E-12	689.232E-3	-13.8295E-3	96.8400E-12	716.970E-3	-35.5797E-3
2.69885E-3	96.6598E-12	682.126E-3	-5.12876E-3	96.0120E-12	685.433E-3	-21.0739E-3
2.69385E-3	96.2986E-12	682.613E-3	13.8386E-3	96.6749E-12	681.577E-3	-13.0166E-3
2.68884E-3	95.3508E-12	685.765E-3	13.9326E-3	96.1991E-12	693.831E-3	-13.1906E-3
2.68384E-3	95.7630E-12	679.156E-3	5.73495E-3	95.4859E-12	692.279E-3	-6.25111E-3
2.67884E-3	95.4041E-12	676.217E-3	4.46175E-3	94.6319E-12	695.421E-3	-1.63917E-3
2.67384E-3	95.5761E-12	689.772E-3	2.59688E-3	94.7259E-12	706.766E-3	-12.0252E-3
2.66883E-3	95.3087E-12	694.226E-3	-10.0970E-3	95.9407E-12	707.971E-3	-20.2949E-3
2.66383E-3	95.3399E-12	687.837E-3	-28.8537E-3	95.5450E-12	716.944E-3	-22.7874E-3
2.65883E-3	95.6038E-12	675.359E-3	-30.5053E-3	94.4841E-12	731.567E-3	-27.7212E-3
2.65383E-3	95.3512E-12	673.981E-3	-13.4333E-3	94.6447E-12	723.220E-3	-23.5608E-3
2.64882E-3	95.7783E-12	698.459E-3	-7.75681E-3	95.3578E-12	701.727E-3	-7.66166E-3
2.64382E-3	95.2624E-12	710.201E-3	-16.7222E-3	95.7625E-12	699.719E-3	-324.305E-6
2.63882E-3	95.4851E-12	704.243E-3	-21.8166E-3	94.8612E-12	716.783E-3	6.83898E-3
2.63382E-3	95.6183E-12	704.085E-3	-22.2049E-3	94.5333E-12	731.424E-3	8.50952E-3
2.62881E-3	94.8405E-12	702.288E-3	-20.2520E-3	94.8423E-12	730.023E-3	-3.65982E-3
2.62381E-3	94.2662E-12	689.068E-3	-18.3928E-3	95.0959E-12	712.441E-3	2.70558E-3
2.61881E-3	93.4640E-12	678.664E-3	-13.9829E-3	94.5972E-12	702.982E-3	16.9133E-3
2.61381E-3	93.0372E-12	683.859E-3	-9.16368E-3	93.7215E-12	708.781E-3	7.33854E-3
2.60880E-3	92.2886E-12	688.350E-3	-7.63092E-3	93.2857E-12	712.059E-3	-10.3140E-3
2.60380E-3	91.3033E-12	681.280E-3	-7.25878E-3	93.4716E-12	708.780E-3	-16.1067E-3
2.59880E-3	90.8334E-12	671.547E-3	-11.2837E-3	93.2047E-12	698.822E-3	-12.6338E-3
2.59380E-3	91.2056E-12	680.389E-3	-26.4852E-3	92.5429E-12	692.317E-3	-19.9786E-3
2.58879E-3	91.1052E-12	700.591E-3	-41.7080E-3	91.9360E-12	701.347E-3	-27.4030E-3
2.58379E-3	91.0648E-12	696.437E-3	-34.3181E-3	91.6357E-12	717.157E-3	-21.3273E-3
2.57879E-3	91.4373E-12	682.595E-3	-5.02945E-3	91.1685E-12	728.053E-3	-11.7988E-3
2.57379E-3	92.0654E-12	692.995E-3	7.12006E-3	91.4755E-12	726.058E-3	-4.02925E-3
2.56878E-3	92.3915E-12	712.838E-3	-10.2869E-3	91.0435E-12	721.082E-3	-13.7740E-3
2.56378E-3	92.3197E-12	722.555E-3	-36.5754E-3	90.8566E-12	710.372E-3	-36.3979E-3
2.55878E-3	91.7442E-12	725.699E-3	-52.3827E-3	90.3518E-12	696.439E-3	-45.6867E-3
2.55378E-3	91.8784E-12	718.097E-3	-33.1674E-3	90.6444E-12	694.796E-3	-32.9028E-3
2.54877E-3	91.4696E-12	710.428E-3	857.910E-6	90.2540E-12	699.669E-3	-17.0615E-3
2.54377E-3	91.6342E-12	715.914E-3	12.7046E-3	90.0329E-12	713.135E-3	-16.1963E-3
2.53877E-3	91.1537E-12	715.551E-3	2.49120E-3	89.4496E-12	729.557E-3	-24.0750E-3
2.53377E-3	90.4199E-12	710.879E-3	-15.5881E-3	89.5221E-12	741.522E-3	-23.6207E-3
2.52876E-3	89.5568E-12	711.374E-3	-20.8231E-3	89.5480E-12	740.988E-3	-19.7858E-3
2.52376E-3	89.1301E-12	711.924E-3	-15.1778E-3	89.6149E-12	719.884E-3	-24.2504E-3
2.51876E-3	88.5014E-12	717.708E-3	-16.3294E-3	89.0864E-12	706.788E-3	-28.3253E-3
2.51376E-3	87.8288E-12	723.054E-3	-21.8233E-3	88.6093E-12	711.229E-3	-17.0876E-3
2.50875E-3	87.2854E-12	708.457E-3	-22.8211E-3	88.3567E-12	720.293E-3	-2.65590E-3
2.50375E-3	87.1392E-12	690.661E-3	-17.8538E-3	88.1795E-12	723.225E-3	-8.29701E-3
2.49875E-3	86.8196E-12	697.821E-3	-17.5552E-3	87.9869E-12	713.613E-3	-18.3990E-3
2.49375E-3	87.0936E-12	713.347E-3	-23.1299E-3	87.0656E-12	706.103E-3	-9.61364E-3
2.48874E-3	86.9939E-12	715.540E-3	-32.1269E-3	86.3910E-12	710.846E-3	2.29858E-3
2.48374E-3	87.2627E-12	713.351E-3	-35.5414E-3	86.1272E-12	715.993E-3	107.753E-6
2.47874E-3	87.0784E-12	712.416E-3	-15.0926E-3	86.2848E-12	720.069E-3	998.675E-6
2.47374E-3	87.5358E-12	715.335E-3	1.29306E-3	85.7686E-12	722.114E-3	-6.21522E-3
2.46873E-3	87.0948E-12	736.577E-3	-5.96775E-3	85.1190E-12	713.678E-3	-23.9636E-3
2.46373E-3	86.7882E-12	749.456E-3	-16.0159E-3	85.0266E-12	714.942E-3	-25.9219E-3
2.45873E-3	86.5294E-12	728.626E-3	-21.5560E-3	85.2659E-12	717.970E-3	-23.3036E-3
2.45373E-3	87.3260E-12	722.489E-3	-26.3243E-3	85.2777E-12	710.842E-3	-17.2361E-3
2.44872E-3	86.8848E-12	748.593E-3	-24.3978E-3	84.4566E-12	721.571E-3	-7.28955E-3
2.44372E-3	85.3814E-12	763.012E-3	-11.3093E-3	83.9932E-12	737.846E-3	-6.94276E-3
2.43872E-3	85.1471E-12	752.322E-3	-11.1258E-3	84.7560E-12	739.450E-3	-9.42996E-3
2.43372E-3	85.8180E-12	735.371E-3	-27.2955E-3	84.6761E-12	742.538E-3	-11.5006E-3
2.42871E-3	85.5462E-12	731.976E-3	-31.2387E-3	84.2106E-12	735.677E-3	-20.8970E-3
2.42371E-3	84.4877E-12	735.781E-3	-19.7810E-3	84.2303E-12	703.324E-3	-20.2389E-3
2.41871E-3	83.5792E-12	737.343E-3	-4.93905E-3	84.3592E-12	698.504E-3	-2.39816E-3
2.41371E-3	83.5431E-12	734.180E-3	-6.06054E-3	84.4245E-12	732.221E-3	-380.310E-6
2.40870E-3	83.5334E-12	715.781E-3	-18.4829E-3	84.1365E-12	742.930E-3	-13.3945E-3
2.40370E-3	83.0346E-12	711.413E-3	-10.7165E-3	83.1178E-12	733.600E-3	-19.4054E-3
2.39870E-3	82.1134E-12	729.784E-3	1.35360E-3	83.0051E-12	734.771E-3	-23.9501E-3
2.39370E-3	82.3102E-12	738.842E-3	-8.28617E-3	82.8515E-12	735.347E-3	-30.6168E-3
2.38869E-3	82.2294E-12	739.555E-3	-19.9823E-3	82.2014E-12	726.770E-3	-25.4669E-3
2.38369E-3	81.9230E-12	725.971E-3	-22.8795E-3	81.6847E-12	717.738E-3	-13.6353E-3
2.37869E-3	81.0948E-12	708.879E-3	-23.9139E-3	81.0427E-12	707.007E-3	-3.30573E-3
2.37369E-3	81.0371E-12	717.669E-3	-13.9510E-3	81.0150E-12	697.505E-3	4.19566E-3
2.36868E-3	80.9623E-12	726.133E-3	-4.79707E-3	80.6437E-12	700.131E-3	-1.05521E-3
2.36368E-3	80.6470E-12	720.837E-3	-9.63332E-3	80.5350E-12	709.166E-3	-7.67457E-3
2.35868E-3	80.1544E-12	730.913E-3	-18.3144E-3	79.8859E-12	721.293E-3	-13.0642E-3
2.35368E-3	80.1906E-12	741.154E-3	-19.9550E-3	80.3144E-12	736.452E-3	-22.8956E-3
2.34867E-3	80.2600E-12	730.406E-3	-10.5380E-3	79.6951E-12	744.778E-3	-20.6474E-3
2.34367E-3	80.2174E-12	725.442E-3	2.84941E-3	79.6860E-12	749.235E-3	-6.26551E-3
2.33867E-3	79.9355E-12	727.934E-3	3.70616E-3	79.5876E-12	757.309E-3	-5.93057E-3
2.33367E-3	79.7709E-12	727.706E-3	-8.99900E-3	79.6603E-12	758.914E-3	-23.7276E-3
2.32866E-3	79.6454E-12	730.134E-3	-9.61153E-3	79.5607E-12	753.453E-3	-23.0140E-3
2.32366E-3	79.5783E-12	731.103E-3	7.46292E-3	79.6472E-12	756.830E-3	-1.19162E-3
2.31866E-3	79.0924E-12	733.550E-3	5.99275E-3	79.3451E-12	757.049E-3	175.363E-6
2.31366E-3	79.1724E-12	741.564E-3	-15.4759E-3	78.9412E-12	751.075E-3	-13.0153E-3
2.30865E-3	79.0788E-12	748.403E-3	-15.2772E-3	78.9638E-12	756.475E-3	-13.7939E-3
2.30365E-3	78.9457E-12	738.278E-3	-6.33629E-3	78.4827E-12	768.142E-3	-18.2351E-3
2.29865E-3	78.3126E-12	733.291E-3	-1.89142E-3	77.9990E-12	765.470E-3	-25.5295E-3
2.29365E-3	77.7760E-12	749.836E-3	6.96513E-3	77.6615E-12	748.833E-3	-22.2791E-3
2.28864E-3	77.2431E-12	753.629E-3	1.30472E-3	77.4022E-12	732.984E-3	-23.4354E-3
2.28364E-3	76.8216E-12	742.235E-3	-10.0046E-3	76.8749E-12	725.584E-3	-23.2583E-3
2.27864E-3	76.8357E-12	728.526E-3	-5.12372E-3	76.0436E-12	734.430E-3	-4.60068E-3
2.27364E-3	76.3467E-12	725.376E-3	942.975E-6	75.4201E-12	746.691E-3	13.2529E-3
2.26863E-3	75.9948E-12	735.651E-3	-14.2550E-3	75.1325E-12	739.267E-3	14.5280E-3
2.26363E-3	76.1808E-12	735.085E-3	-31.7690E-3	75.0602E-12	727.633E-3	6.97953E-3
2.25863E-3	76.1479E-12	727.915E-3	-34.9991E-3	74.5172E-12	725.735E-3	-2.44789E-3
2.25363E-3	76.0555E-12	724.133E-3	-31.5114E-3	74.3377E-12	724.835E-3	-9.86319E-3
2.24862E-3	75.6116E-12	726.826E-3	-23.1479E-3	74.4763E-12	729.555E-3	-7.55783E-3
2.24362E-3	75.4089E-12	742.601E-3	-8.14233E-3	74.3128E-12	731.847E-3	-8.42563E-3
2.23862E-3	75.5954E-12	762.326E-3	-71.4277E-6	73.6661E-12	735.714E-3	-18.1189E-3
2.23362E-3	75.9651E-12	763.629E-3	-15.2821E-3	73.9615E-12	753.108E-3	-6.92504E-3
2.22861E-3	75.7287E-12	736.593E-3	-29.4591E-3	73.9514E-12	756.973E-3	3.56933E-3
2.22361E-3	75.5865E-12	727.360E-3	-23.4213E-3	73.8115E-12	751.453E-3	-2.22302E-3
2.21861E-3	75.4265E-12	756.678E-3	-12.4122E-3	73.7184E-12	758.137E-3	-5.46484E-3
2.21361E-3	75.2056E-12	782.924E-3	-15.3380E-3	74.0248E-12	769.315E-3	-24.8364E-3
2.20860E-3	74.8590E-12	785.579E-3	-25.0323E-3	73.9771E-12	773.129E-3	-40.2686E-3
2.20360E-3	74.0520E-12	775.013E-3	-23.2221E-3	73.6902E-12	773.629E-3	-15.5615E-3
2.19860E-3	73.5649E-12	761.739E-3	-16.5534E-3	73.1498E-12	775.532E-3	13.4419E-3
2.19360E-3	72.7967E-12	749.324E-3	-19.9664E-3	72.7472E-12	761.966E-3	9.68022E-3
2.18859E-3	72.3885E-12	744.973E-3	-15.8514E-3	72.5217E-12	742.253E-3	-8.20564E-3
2.18359E-3	71.3473E-12	746.116E-3	-8.10903E-3	72.1407E-12	733.436E-3	-25.7189E-3
2.17859E-3	71.0299E-12	744.126E-3	-13.2943E-3	71.4138E-12	735.543E-3	-33.7885E-3
2.17359E-3	70.6122E-12	751.848E-3	-13.2740E-3	70.6750E-12	746.796E-3	-25.8903E-3
2.16858E-3	70.6667E-12	767.664E-3	-6.72887E-3	70.5937E-12	753.060E-3	-21.3096E-3
2.16358E-3	70.4563E-12	773.770E-3	-11.3352E-3	70.4491E-12	757.697E-3	-21.0949E-3
2.15858E-3	70.2024E-12	773.650E-3	-26.6663E-3	69.7438E-12	766.680E-3	-14.7693E-3
2.15358E-3	70.0716E-12	764.139E-3	-31.1364E-3	69.3456E-12	771.385E-3	-6.63323E-3
2.14857E-3	70.1452E-12	750.902E-3	-27.2042E-3	69.3346E-12	762.355E-3	-5.03381E-3
2.14357E-3	70.3633E-12	757.688E-3	-26.8997E-3	69.6689E-12	742.081E-3	-1.31907E-3
2.13857E-3	70.4640E-12	779.186E-3	-24.9152E-3	69.3916E-12	746.010E-3	3.58618E-3
2.13357E-3	69.9667E-12	789.187E-3	-21.7349E-3	68.8773E-12	782.971E-3	-5.42725E-3
2.12856E-3	69.8081E-12	784.442E-3	-22.2619E-3	69.4698E-12	804.104E-3	-2.26750E-3
2.12356E-3	69.5264E-12	771.496E-3	-10.6109E-3	69.8440E-12	798.985E-3	13.2349E-3
2.11856E-3	69.1217E-12	772.669E-3	6.70312E-3	69.3835E-12	792.528E-3	10.3563E-3
2.11356E-3	68.4675E-12	798.232E-3	-524.789E-6	68.9706E-12	788.748E-3	6.27001E-3
2.10855E-3	67.7475E-12	810.814E-3	-11.5250E-3	68.7753E-12	793.872E-3	5.52253E-3
2.10355E-3	67.3711E-12	787.259E-3	-11.7900E-3	68.9770E-12	802.623E-3	-5.46485E-3
2.09855E-3	67.0260E-12	758.505E-3	-16.7350E-3	68.4357E-12	796.551E-3	-17.0710E-3
2.09355E-3	66.6586E-12	762.710E-3	-16.1187E-3	67.5983E-12	786.589E-3	-21.8576E-3
2.08854E-3	65.9389E-12	773.382E-3	-8.56528E-3	67.0224E-12	787.301E-3	-25.5630E-3
2.08354E-3	65.7120E-12	768.701E-3	1.43474E-3	66.9168E-12	786.688E-3	-35.9816E-3
2.07854E-3	65.3678E-12	758.157E-3	8.63791E-3	66.7809E-12	785.502E-3	-33.8114E-3
2.07354E-3	65.5533E-12	741.434E-3	-443.926E-6	65.8339E-12	787.668E-3	-14.7944E-3
2.06853E-3	65.5669E-12	745.940E-3	-13.0810E-3	65.3263E-12	785.021E-3	-8.32363E-3
2.06353E-3	64.9464E-12	780.176E-3	-15.5918E-3	64.9474E-12	783.051E-3	-14.9660E-3
2.05853E-3	64.8866E-12	788.212E-3	-24.9525E-3	65.3815E-12	791.940E-3	-21.6145E-3
2.05353E-3	65.0791E-12	761.777E-3	-37.9310E-3	64.6440E-12	810.187E-3	-19.2439E-3
2.04852E-3	65.0396E-12	754.853E-3	-19.3164E-3	64.1549E-12	821.404E-3	-7.91916E-3
2.04352E-3	64.8663E-12	778.401E-3	-910.322E-6	63.7297E-12	810.785E-3	-3.95619E-3
2.03852E-3	64.7921E-12	802.776E-3	-16.6312E-3	63.9771E-12	797.883E-3	-9.00099E-3
2.03352E-3	64.8763E-12	803.175E-3	-25.1118E-3	63.7211E-12	807.272E-3	-6.51857E-3
2.02851E-3	64.9499E-12	784.739E-3	-19.5070E-3	63.5301E-12	828.268E-3	-13.3185E-3
2.02351E-3	64.3127E-12	773.239E-3	-24.8940E-3	63.2003E-12	827.530E-3	-22.5438E-3
2.01851E-3	63.8545E-12	778.874E-3	-25.3031E-3	63.5121E-12	809.152E-3	-5.26157E-3
2.01351E-3	63.6865E-12	795.040E-3	-15.5894E-3	63.6676E-12	810.538E-3	929.016E-6
2.00850E-3	63.3761E-12	805.562E-3	-23.4897E-3	63.2707E-12	830.897E-3	-14.8319E-3
2.00350E-3	62.9321E-12	804.028E-3	-42.4457E-3	63.1400E-12	840.713E-3	-22.7320E-3
1.99850E-3	62.2371E-12	803.006E-3	-35.9450E-3	62.7865E-12	835.152E-3	-15.8103E-3
1.99350E-3	62.0963E-12	803.807E-3	-16.4916E-3	62.6610E-12	829.423E-3	-3.19249E-3
1.98849E-3	62.0223E-12	807.647E-3	-10.6875E-3	62.6442E-12	830.200E-3	-2.19391E-3
1.98349E-3	61.7363E-12	811.787E-3	-21.8535E-3	62.4581E-12	835.764E-3	-13.2160E-3
1.97849E-3	61.1503E-12	809.880E-3	-46.0652E-3	62.0573E-12	833.537E-3	-29.9547E-3
1.97349E-3	60.8321E-12	817.501E-3	-48.5105E-3	61.3036E-12	826.922E-3	-34.3110E-3
1.96848E-3	60.9602E-12	830.705E-3	-29.5526E-3	61.2630E-12	821.420E-3	-29.5647E-3
1.96348E-3	60.5605E-12	830.356E-3	-18.0347E-3	60.7336E-12	810.698E-3	-33.2823E-3
1.95848E-3	60.3872E-12	828.582E-3	-24.4516E-3	60.1589E-12	814.691E-3	-29.1629E-3
1.95348E-3	60.2191E-12	830.913E-3	-46.1573E-3	59.4529E-12	834.084E-3	-17.9886E-3
1.94847E-3	60.2839E-12	818.225E-3	-47.3006E-3	59.3798E-12	840.989E-3	-16.3825E-3
1.94347E-3	60.1166E-12	808.954E-3	-16.8731E-3	59.4757E-12	828.135E-3	-13.2879E-3
1.93847E-3	59.8434E-12	820.071E-3	1.25527E-3	58.9158E-12	809.616E-3	-9.14564E-3
1.93347E-3	59.4620E-12	821.872E-3	-11.1553E-3	58.6482E-12	808.537E-3	-22.3908E-3
1.92846E-3	59.2305E-12	819.331E-3	-29.7224E-3	58.4547E-12	829.419E-3	-35.8024E-3
1.92346E-3	59.0543E-12	820.786E-3	-29.5762E-3	59.2098E-12	853.996E-3	-26.3493E-3
1.91846E-3	58.4578E-12	811.334E-3	-12.2073E-3	58.5494E-12	866.168E-3	-12.5446E-3
1.91346E-3	58.0591E-12	816.889E-3	904.907E-6	58.1209E-12	866.717E-3	-15.2302E-3
1.90845E-3	57.8779E-12	834.009E-3	-7.11318E-3	57.8204E-12	870.180E-3	-30.7386E-3
1.90345E-3	57.4011E-12	837.959E-3	-28.5465E-3	58.0150E-12	882.326E-3	-38.0979E-3
1.89845E-3	57.0474E-12	847.097E-3	-39.4515E-3	58.2990E-12	891.955E-3	-23.5553E-3
1.89345E-3	56.7475E-12	861.003E-3	-36.1964E-3	57.4301E-12	882.861E-3	-5.52393E-3
1.88844E-3	56.5783E-12	853.611E-3	-32.1170E-3	56.9992E-12	859.229E-3	-2.25677E-3
1.88344E-3	56.1114E-12	842.569E-3	-36.9682E-3	56.7859E-12	848.266E-3	-7.31642E-3
1.87844E-3	55.7888E-12	858.832E-3	-36.3608E-3	56.7095E-12	859.147E-3	-15.0565E-3
1.87344E-3	55.4082E-12	870.744E-3	-27.8462E-3	56.3009E-12	871.085E-3	-19.9835E-3
1.86843E-3	55.0672E-12	863.699E-3	-24.5948E-3	55.2842E-12	871.282E-3	-18.8961E-3
1.86343E-3	54.6105E-12	868.983E-3	-17.8012E-3	55.1364E-12	861.947E-3	-22.7202E-3
1.85843E-3	54.5558E-12	871.189E-3	-12.6364E-3	54.5233E-12	852.670E-3	-29.7657E-3
1.85343E-3	54.2564E-12	855.054E-3	-28.3819E-3	54.4955E-12	862.076E-3	-33.7594E-3
1.84842E-3	53.8226E-12	847.909E-3	-32.7555E-3	53.2017E-12	879.454E-3	-35.2378E-3
1.84342E-3	53.3179E-12	844.410E-3	-7.02451E-3	53.0213E-12	876.812E-3	-31.5540E-3
1.83842E-3	53.2055E-12	836.789E-3	6.43375E-3	52.7082E-12	854.344E-3	-23.5686E-3
1.83342E-3	52.9010E-12	844.203E-3	-4.14051E-3	52.8576E-12	842.207E-3	-18.0517E-3
1.82841E-3	52.5310E-12	858.217E-3	-17.6031E-3	52.1526E-12	858.361E-3	-17.8464E-3
1.82341E-3	52.0230E-12	864.069E-3	-23.2878E-3	51.7465E-12	887.502E-3	-20.2342E-3
1.81841E-3	51.6909E-12	867.819E-3	-20.7764E-3	51.5656E-12	912.535E-3	-21.5501E-3
1.81341E-3	51.4208E-12	866.728E-3	-5.53709E-3	51.6525E-12	920.665E-3	-24.7255E-3
1.80840E-3	51.1183E-12	860.799E-3	-2.71005E-3	51.7777E-12	912.779E-3	-29.9932E-3
1.80340E-3	50.9908E-12	865.686E-3	-23.6699E-3	51.2131E-12	911.322E-3	-27.5637E-3
1.79840E-3	50.7297E-12	870.297E-3	-25.8015E-3	51.2361E-12	915.890E-3	-20.3644E-3
1.79340E-3	50.3586E-12	862.953E-3	-12.9214E-3	51.4943E-12	916.704E-3	-13.0448E-3
1.78839E-3	50.1143E-12	873.789E-3	-14.0775E-3	51.8710E-12	926.252E-3	-9.45953E-3
1.78339E-3	49.6748E-12	891.744E-3	-16.8836E-3	51.2477E-12	934.748E-3	-15.1423E-3
1.77839E-3	49.4342E-12	885.312E-3	-24.1413E-3	50.4648E-12	930.361E-3	-22.5065E-3
1.77339E-3	49.1632E-12	870.196E-3	-41.8809E-3	50.4164E-12	926.581E-3	-24.1013E-3
1.76838E-3	48.8018E-12	866.861E-3	-45.4589E-3	50.0382E-12	927.860E-3	-17.9863E-3
1.76338E-3	48.8449E-12	880.992E-3	-35.7272E-3	49.6110E-12	928.193E-3	-16.3152E-3
1.75838E-3	48.5215E-12	912.658E-3	-33.4268E-3	48.4160E-12	927.442E-3	-28.7397E-3
1.75338E-3	48.1274E-12	931.760E-3	-23.8500E-3	48.1942E-12	927.821E-3	-39.6909E-3
1.74837E-3	47.7118E-12	926.410E-3	-2.99836E-3	47.8151E-12	927.227E-3	-34.7331E-3
1.74337E-3	47.7229E-12	922.520E-3	-4.82749E-3	47.6239E-12	938.737E-3	-14.3784E-3
1.73837E-3	47.7387E-12	924.172E-3	-12.8123E-3	46.9587E-12	961.659E-3	-2.74628E-3
1.73337E-3	47.2997E-12	927.969E-3	-6.95118E-3	46.5470E-12	969.747E-3	-13.8642E-3
1.72836E-3	46.8227E-12	931.627E-3	-12.9134E-3	46.8858E-12	966.332E-3	-19.1128E-3
1.72336E-3	46.5822E-12	932.996E-3	-12.8992E-3	46.7553E-12	972.978E-3	-4.55673E-3
1.71836E-3	46.5625E-12	935.376E-3	3.59653E-3	46.2689E-12	990.730E-3	14.2593E-3
1.71336E-3	46.2121E-12	951.268E-3	1.05395E-3	45.6072E-12	1.00510E+0	13.4395E-3
1.70835E-3	45.8526E-12	979.186E-3	-8.68590E-3	45.9651E-12	1.00150E+0	-11.7576E-3
1.70335E-3	45.4966E-12	994.193E-3	-10.9666E-3	46.1294E-12	987.831E-3	-32.4579E-3
1.69835E-3	45.2329E-12	990.616E-3	-25.0801E-3	45.7835E-12	995.235E-3	-35.0392E-3
1.69335E-3	44.9005E-12	990.285E-3	-22.7385E-3	45.0709E-12	1.02528E+0	-23.1995E-3
1.68834E-3	44.3079E-12	994.095E-3	3.10297E-3	44.9901E-12	1.03771E+0	-2.62245E-3
1.68334E-3	43.9266E-12	985.864E-3	7.07687E-3	45.0191E-12	1.02028E+0	159.564E-6
1.67834E-3	43.5533E-12	983.191E-3	-11.2026E-3	44.4344E-12	1.01113E+0	-14.1685E-3
1.67334E-3	43.2744E-12	980.917E-3	-16.8860E-3	43.9044E-12	1.02123E+0	-14.2885E-3
1.66833E-3	42.6546E-12	973.661E-3	-13.9286E-3	43.2130E-12	1.02198E+0	-2.12015E-3
1.66333E-3	42.4616E-12	981.998E-3	-11.2206E-3	42.8999E-12	1.00635E+0	-3.19247E-3
1.65833E-3	42.0771E-12	987.251E-3	-10.0741E-3	42.5993E-12	998.139E-3	-16.1742E-3
1.65333E-3	41.8613E-12	976.537E-3	-26.0486E-3	41.8692E-12	1.01735E+0	-18.0555E-3
1.64832E-3	41.4162E-12	979.143E-3	-35.8276E-3	41.2665E-12	1.04445E+0	-21.5562E-3
1.64332E-3	41.1304E-12	995.270E-3	-17.3772E-3	40.9294E-12	1.04570E+0	-24.6139E-3
1.63832E-3	41.1992E-12	1.00501E+0	4.80739E-3	40.8772E-12	1.03252E+0	-6.15278E-3
1.63332E-3	40.7767E-12	1.03093E+0	8.72587E-3	40.4608E-12	1.03939E+0	9.73535E-3
1.62831E-3	40.4476E-12	1.05262E+0	298.444E-6	39.6412E-12	1.05868E+0	-3.42398E-3
1.62331E-3	40.2947E-12	1.04415E+0	-8.14905E-3	39.2991E-12	1.06526E+0	-32.1377E-3
1.61831E-3	40.0007E-12	1.04765E+0	-18.3802E-3	39.1584E-12	1.06486E+0	-31.7711E-3
1.61331E-3	39.7988E-12	1.04895E+0	-21.7307E-3	39.1920E-12	1.06713E+0	-8.05927E-3
1.60830E-3	39.5017E-12	1.03802E+0	-17.6323E-3	38.6082E-12	1.06559E+0	-4.52863E-3
1.60330E-3	39.0428E-12	1.05557E+0	-21.9355E-3	38.0729E-12	1.06708E+0	-10.9372E-3
1.59830E-3	38.6481E-12	1.07220E+0	-28.6788E-3	38.0225E-12	1.07965E+0	-17.3873E-3
1.59330E-3	38.2000E-12	1.06077E+0	-24.9083E-3	38.1719E-12	1.08614E+0	-18.1296E-3
1.58829E-3	37.8529E-12	1.05877E+0	-9.29950E-3	37.7135E-12	1.08454E+0	-8.69818E-3
1.58329E-3	37.4607E-12	1.08019E+0	8.28971E-3	36.9888E-12	1.08269E+0	-4.60364E-3
1.57829E-3	36.7520E-12	1.09248E+0	4.60842E-3	36.8936E-12	1.08408E+0	-4.58718E-3
1.57329E-3	36.2013E-12	1.07871E+0	-17.0366E-3	36.7233E-12	1.09063E+0	-2.26519E-3
1.56828E-3	35.6637E-12	1.06399E+0	-22.6430E-3	36.3850E-12	1.08917E+0	-3.67680E-3
1.56328E-3	35.3298E-12	1.06209E+0	-14.8762E-3	35.4962E-12	1.08716E+0	-5.25052E-3
1.55828E-3	34.8043E-12	1.07194E+0	-23.8603E-3	35.1173E-12	1.09761E+0	3.15884E-3
1.55328E-3	34.3500E-12	1.08681E+0	-37.9351E-3	34.8337E-12	1.11210E+0	-962.219E-6
1.54827E-3	34.0315E-12	1.09015E+0	-31.9101E-3	34.5052E-12	1.12395E+0	-17.3512E-3
1.54327E-3	33.8443E-12	1.08834E+0	-21.9830E-3	33.8386E-12	1.13266E+0	-16.3055E-3
1.53827E-3	33.4978E-12	1.09101E+0	-21.1503E-3	33.3933E-12	1.13546E+0	-9.15890E-3
1.53327E-3	33.0589E-12	1.09078E+0	-19.9214E-3	33.0275E-12	1.13141E+0	-15.6474E-3
1.52826E-3	32.9757E-12	1.09848E+0	-14.3636E-3	32.8299E-12	1.13226E+0	-21.9442E-3
1.52326E-3	32.7683E-12	1.11109E+0	-5.41097E-3	32.7587E-12	1.13656E+0	-23.6349E-3
1.51826E-3	32.4628E-12	1.11433E+0	-4.47884E-3	32.1381E-12	1.13615E+0	-27.9176E-3
1.51326E-3	31.7850E-12	1.11716E+0	-14.0688E-3	31.7540E-12	1.14020E+0	-14.2203E-3
1.50825E-3	31.7631E-12	1.11707E+0	-19.6073E-3	31.4768E-12	1.14367E+0	3.51008E-3
1.50325E-3	31.5790E-12	1.12079E+0	-17.1458E-3	31.3659E-12	1.14378E+0	-6.61652E-3
1.49825E-3	31.1885E-12	1.13824E+0	-16.0634E-3	30.8728E-12	1.15668E+0	-14.9467E-3
1.49325E-3	30.4995E-12	1.14281E+0	-16.1705E-3	30.4402E-12	1.18037E+0	-6.71134E-3
1.48824E-3	30.1975E-12	1.13054E+0	-13.2240E-3	30.2307E-12	1.18414E+0	-4.60903E-3
1.48324E-3	29.7640E-12	1.12928E+0	-14.1244E-3	30.0067E-12	1.16245E+0	-6.49080E-3
1.47824E-3	29.1706E-12	1.14215E+0	-10.8627E-3	29.7504E-12	1.15145E+0	-17.6951E-3
1.47324E-3	28.6005E-12	1.14957E+0	-10.2456E-3	28.9150E-12	1.16389E+0	-27.5632E-3
1.46823E-3	28.2980E-12	1.14653E+0	-28.1364E-3	28.3809E-12	1.16862E+0	-20.2127E-3
1.46323E-3	27.9069E-12	1.13966E+0	-30.4837E-3	28.1416E-12	1.15989E+0	-20.1889E-3
1.45823E-3	27.4226E-12	1.12983E+0	-12.9300E-3	27.8480E-12	1.14325E+0	-33.8569E-3
1.45323E-3	27.0247E-12	1.12933E+0	-18.1592E-3	27.0977E-12	1.13241E+0	-29.6364E-3
1.44822E-3	26.7421E-12	1.14644E+0	-32.2993E-3	26.5433E-12	1.13741E+0	-16.7581E-3
1.44322E-3	26.3830E-12	1.15338E+0	-32.1850E-3	26.1618E-12	1.14169E+0	-28.0854E-3
1.43822E-3	26.0199E-12	1.15075E+0	-23.0156E-3	26.0602E-12	1.13910E+0	-29.0345E-3
1.43322E-3	25.8366E-12	1.15879E+0	-9.55214E-3	25.5353E-12	1.11945E+0	-12.0791E-3
1.42821E-3	25.5606E-12	1.16549E+0	-8.52503E-3	24.7679E-12	1.10223E+0	-13.9167E-3
1.42321E-3	25.1845E-12	1.17245E+0	-20.9229E-3	24.4874E-12	1.12224E+0	-22.5781E-3
1.41821E-3	24.7025E-12	1.17806E+0	-31.0291E-3	24.2038E-12	1.15449E+0	-13.9082E-3
1.41321E-3	24.4636E-12	1.16795E+0	-25.4072E-3	23.8103E-12	1.15568E+0	-1.00112E-3
1.40820E-3	24.2554E-12	1.15461E+0	-14.7104E-3	23.3481E-12	1.14266E+0	3.58628E-3
1.40320E-3	23.8182E-12	1.15674E+0	-19.1044E-3	23.0022E-12	1.13460E+0	-3.81417E-3
1.39820E-3	23.2775E-12	1.16447E+0	-18.7948E-3	22.7966E-12	1.12545E+0	-26.8597E-3
1.39320E-3	22.8820E-12	1.15240E+0	-13.4718E-3	22.6333E-12	1.11815E+0	-34.2229E-3
1.38819E-3	22.6286E-12	1.13205E+0	-15.2189E-3	22.2721E-12	1.11253E+0	-12.4198E-3
1.38319E-3	22.1679E-12	1.13018E+0	-6.87448E-3	21.9219E-12	1.11649E+0	45.1396E-6
1.37819E-3	21.5929E-12	1.13921E+0	-2.95655E-3	21.5021E-12	1.12017E+0	-3.31112E-3
1.37319E-3	21.3620E-12	1.14095E+0	-11.4869E-3	21.3660E-12	1.11803E+0	-3.13686E-3
1.36818E-3	20.9828E-12	1.12593E+0	-15.6088E-3	21.1355E-12	1.12215E+0	-8.63603E-3
1.36318E-3	20.5930E-12	1.10659E+0	-23.2463E-3	20.7302E-12	1.11073E+0	-20.8180E-3
1.35818E-3	19.9856E-12	1.10156E+0	-27.1576E-3	20.0670E-12	1.08612E+0	-20.0441E-3
1.35318E-3	19.7602E-12	1.09831E+0	-12.9661E-3	19.6101E-12	1.07008E+0	-12.8132E-3
1.34817E-3	19.5938E-12	1.09424E+0	-6.53244E-3	19.3394E-12	1.05364E+0	-14.9977E-3
1.34317E-3	19.1569E-12	1.09745E+0	-25.9765E-3	19.0355E-12	1.03885E+0	-13.6453E-3
1.33817E-3	18.6981E-12	1.10100E+0	-41.8719E-3	18.3333E-12	1.03412E+0	-6.50295E-3
1.33317E-3	18.3556E-12	1.09530E+0	-41.5014E-3	17.9106E-12	1.02603E+0	-13.1499E-3
1.32816E-3	18.1964E-12	1.08053E+0	-40.0890E-3	17.7360E-12	1.00279E+0	-26.7789E-3
1.32316E-3	17.9354E-12	1.07475E+0	-34.3832E-3	17.5388E-12	983.405E-3	-37.3324E-3
1.31816E-3	17.3847E-12	1.06790E+0	-26.5106E-3	16.9568E-12	983.651E-3	-41.8059E-3
1.31316E-3	17.1541E-12	1.04440E+0	-18.4550E-3	16.4971E-12	986.558E-3	-22.5125E-3
1.30815E-3	16.9215E-12	1.02521E+0	-2.91395E-3	16.3615E-12	980.783E-3	-3.23882E-3
1.30315E-3	16.7465E-12	1.02483E+0	6.80505E-3	16.3017E-12	967.109E-3	-6.65582E-3
1.29815E-3	16.3043E-12	1.03065E+0	-4.37247E-3	15.8859E-12	948.632E-3	-3.86499E-3
1.29315E-3	15.9031E-12	1.02614E+0	-8.55901E-3	15.3864E-12	944.633E-3	4.04585E-3
1.28814E-3	15.5399E-12	998.655E-3	5.76478E-3	15.2999E-12	952.654E-3	-12.2648E-3
1.28314E-3	15.3556E-12	962.768E-3	3.39000E-3	15.2100E-12	943.426E-3	-34.4467E-3
1.27814E-3	15.0909E-12	952.948E-3	-5.01272E-3	14.9157E-12	920.909E-3	-36.9451E-3
1.27314E-3	14.7611E-12	965.283E-3	-6.07549E-3	14.6034E-12	896.380E-3	-38.9320E-3
1.26813E-3	14.2840E-12	963.218E-3	-16.4997E-3	14.2102E-12	876.830E-3	-39.1127E-3
1.26313E-3	13.9390E-12	941.823E-3	-21.3319E-3	14.0284E-12	867.046E-3	-26.4932E-3
1.25813E-3	13.7582E-12	917.999E-3	-16.6022E-3	13.7952E-12	846.768E-3	-13.9428E-3
1.25313E-3	13.3869E-12	899.085E-3	-13.4526E-3	13.4107E-12	818.512E-3	-8.40364E-3
1.24812E-3	12.9438E-12	890.011E-3	-13.4351E-3	12.9867E-12	811.778E-3	-14.1282E-3
1.24312E-3	12.6476E-12	871.844E-3	-15.6765E-3	12.6689E-12	818.125E-3	-21.9711E-3
1.23812E-3	12.3309E-12	840.108E-3	-12.2223E-3	12.3268E-12	805.267E-3	-18.7995E-3
1.23312E-3	12.1587E-12	817.329E-3	-636.789E-6	12.1142E-12	777.307E-3	-11.1993E-3
1.22811E-3	11.7852E-12	802.910E-3	5.89462E-3	11.8330E-12	754.004E-3	-11.5276E-3
1.22311E-3	11.4754E-12	791.799E-3	-3.62265E-3	11.5157E-12	728.583E-3	-11.3419E-3
1.21811E-3	11.2187E-12	788.354E-3	-23.1470E-3	10.9854E-12	700.846E-3	-6.16145E-3
1.21311E-3	11.0842E-12	779.463E-3	-30.1865E-3	10.9317E-12	686.536E-3	-2.16075E-3
1.20810E-3	10.7647E-12	752.274E-3	-11.9522E-3	10.8191E-12	681.116E-3	-2.01779E-3
1.20310E-3	10.4764E-12	733.468E-3	1.53774E-3	10.4163E-12	665.842E-3	-10.9643E-3
1.19810E-3	10.3359E-12	726.256E-3	-4.19441E-3	10.0805E-12	639.332E-3	-19.7145E-3
1.19310E-3	10.0784E-12	709.917E-3	-15.2798E-3	10.0578E-12	615.069E-3	-18.0086E-3
1.18809E-3	9.89803E-12	700.895E-3	-28.1308E-3	9.95238E-12	607.904E-3	-5.27485E-3
1.18309E-3	9.78608E-12	697.536E-3	-29.9696E-3	9.73390E-12	619.484E-3	-1.37152E-3
1.17809E-3	9.51778E-12	673.503E-3	-20.9885E-3	9.35942E-12	616.709E-3	-18.1210E-3
1.17309E-3	9.33767E-12	647.849E-3	-19.9837E-3	9.20167E-12	589.999E-3	-28.0738E-3
1.16808E-3	9.20189E-12	639.815E-3	-23.0455E-3	9.28925E-12	567.151E-3	-28.1321E-3
1.16308E-3	8.98639E-12	631.779E-3	-18.1391E-3	8.98866E-12	549.584E-3	-37.2742E-3
1.15808E-3	8.68174E-12	617.670E-3	-10.0644E-3	8.66890E-12	530.150E-3	-37.0813E-3
1.15308E-3	8.45899E-12	600.052E-3	-6.49699E-3	8.46659E-12	519.886E-3	-29.6963E-3
1.14807E-3	8.28630E-12	583.317E-3	-14.9371E-3	8.39265E-12	509.815E-3	-43.2028E-3
1.14307E-3	8.14488E-12	572.018E-3	-25.2167E-3	8.20366E-12	492.288E-3	-42.8148E-3
1.13807E-3	7.90084E-12	552.438E-3	-27.1616E-3	7.89559E-12	483.490E-3	-19.1049E-3
1.13307E-3	7.62541E-12	513.976E-3	-31.2800E-3	7.63033E-12	465.778E-3	-16.7637E-3
1.12806E-3	7.43716E-12	483.854E-3	-31.4950E-3	7.51473E-12	425.276E-3	-21.8420E-3
1.12306E-3	7.32082E-12	478.546E-3	-20.3064E-3	7.37696E-12	400.726E-3	-17.4668E-3
1.11806E-3	7.16129E-12	472.837E-3	-12.8200E-3	7.15115E-12	401.783E-3	-22.9592E-3
1.11306E-3	6.93930E-12	463.012E-3	-14.9419E-3	6.96139E-12	400.512E-3	-28.5180E-3
1.10805E-3	6.84736E-12	454.957E-3	-7.71860E-3	6.79945E-12	401.065E-3	-21.2025E-3
1.10305E-3	6.75109E-12	444.778E-3	160.941E-6	6.62444E-12	397.320E-3	-7.99944E-3
1.09805E-3	6.66382E-12	438.161E-3	-9.86775E-3	6.59376E-12	370.370E-3	-5.47453E-3
1.09305E-3	6.60471E-12	430.487E-3	-17.5823E-3	6.54584E-12	352.678E-3	-10.4346E-3
1.08804E-3	6.42852E-12	404.411E-3	-9.95514E-3	6.30944E-12	357.741E-3	-10.3195E-3
1.08304E-3	6.30323E-12	374.154E-3	-10.4275E-3	6.14644E-12	347.845E-3	-10.5454E-3
1.07804E-3	6.24190E-12	377.066E-3	-21.0850E-3	6.17038E-12	319.392E-3	-7.45430E-3
1.07304E-3	6.14657E-12	391.797E-3	-18.3849E-3	6.19352E-12	303.295E-3	-13.5422E-3
1.06803E-3	6.02035E-12	379.709E-3	-13.4188E-3	6.03295E-12	295.574E-3	-31.7801E-3
1.06303E-3	5.85897E-12	358.630E-3	-18.3232E-3	5.81228E-12	287.772E-3	-27.2062E-3
1.05803E-3	5.71079E-12	336.610E-3	-20.4996E-3	5.70560E-12	292.911E-3	-5.44243E-3
1.05303E-3	5.64409E-12	313.646E-3	-17.1071E-3	5.77037E-12	281.857E-3	-9.22184E-3
1.04802E-3	5.52246E-12	302.541E-3	-12.9607E-3	5.67839E-12	250.956E-3	-23.5856E-3
1.04302E-3	5.51703E-12	293.102E-3	-5.55954E-3	5.43068E-12	240.370E-3	-25.6498E-3
1.03802E-3	5.25959E-12	283.460E-3	-564.235E-6	5.30611E-12	234.742E-3	-29.7045E-3
1.03302E-3	5.20188E-12	278.907E-3	-5.86531E-3	5.27003E-12	216.403E-3	-22.1186E-3
1.02801E-3	5.03447E-12	277.301E-3	-10.5813E-3	5.01829E-12	205.040E-3	-13.2668E-3
1.02301E-3	4.78577E-12	259.269E-3	-8.12825E-3	4.78511E-12	193.392E-3	-21.0330E-3
1.01801E-3	4.61457E-12	224.157E-3	-4.35607E-3	4.56401E-12	180.855E-3	-16.7485E-3
1.01301E-3	4.65477E-12	202.356E-3	-6.53702E-3	4.62160E-12	188.049E-3	-9.29308E-3
1.00800E-3	4.65675E-12	201.798E-3	-16.7586E-3	4.57240E-12	186.353E-3	-19.0771E-3
1.00300E-3	4.55816E-12	210.555E-3	-14.9754E-3	4.47263E-12	166.854E-3	-24.8369E-3
997.999E-6	4.48196E-12	209.328E-3	-2.34181E-3	4.30355E-12	157.812E-3	-21.5861E-3
992.997E-6	4.44352E-12	193.937E-3	-1.73485E-3	4.28382E-12	154.327E-3	-22.3902E-3
987.994E-6	4.41939E-12	186.208E-3	-9.27639E-3	4.32007E-12	158.714E-3	-25.0015E-3
982.991E-6	4.39121E-12	189.241E-3	-5.04253E-3	4.31986E-12	170.168E-3	-28.3304E-3
977.989E-6	4.30447E-12	183.928E-3	6.77197E-3	4.22986E-12	159.588E-3	-35.4418E-3
972.986E-6	4.28162E-12	177.593E-3	8.49026E-3	4.22297E-12	133.800E-3	-28.2726E-3
967.984E-6	4.21155E-12	174.231E-3	-4.46122E-3	4.10840E-12	133.971E-3	-8.56328E-3
962.981E-6	4.14911E-12	158.876E-3	-23.2434E-3	4.13000E-12	147.283E-3	-8.18069E-3
957.979E-6	4.09353E-12	151.461E-3	-30.6926E-3	4.15388E-12	139.087E-3	-14.3388E-3
952.976E-6	4.06858E-12	162.529E-3	-27.0850E-3	4.02149E-12	126.150E-3	-5.15289E-3
947.974E-6	3.96193E-12	161.872E-3	-25.4151E-3	3.96031E-12	119.202E-3	-482.997E-6
942.971E-6	3.92034E-12	149.996E-3	-22.6997E-3	3.96853E-12	103.299E-3	-3.62592E-3
937.969E-6	3.89830E-12	143.020E-3	-12.0805E-3	3.99811E-12	99.3252E-3	-6.10367E-3
932.966E-6	3.91807E-12	136.094E-3	-3.39256E-3	3.94895E-12	117.597E-3	-15.6625E-3
927.964E-6	3.78141E-12	131.669E-3	-1.03377E-3	3.74051E-12	119.792E-3	-18.2594E-3
922.961E-6	3.68429E-12	123.232E-3	-2.91271E-3	3.72531E-12	113.371E-3	-11.4508E-3
917.959E-6	3.74702E-12	111.011E-3	-4.34174E-3	3.80838E-12	120.633E-3	-19.3894E-3
912.956E-6	3.74952E-12	109.796E-3	-2.31805E-3	3.76131E-12	118.184E-3	-26.6738E-3
907.954E-6	3.61774E-12	110.467E-3	-3.06121E-3	3.48027E-12	111.956E-3	-14.4182E-3
902.951E-6	3.53192E-12	105.464E-3	-9.76949E-3	3.44764E-12	106.906E-3	-11.5533E-3
897.949E-6	3.55660E-12	102.105E-3	-17.5839E-3	3.55605E-12	85.7176E-3	-27.9475E-3
892.946E-6	3.63149E-12	104.716E-3	-16.8035E-3	3.60228E-12	73.4847E-3	-32.4637E-3
887.944E-6	3.53560E-12	102.697E-3	-15.1012E-3	3.43683E-12	86.2407E-3	-24.9500E-3
882.941E-6	3.39369E-12	102.863E-3	-22.9241E-3	3.33915E-12	95.6997E-3	-23.4783E-3
877.939E-6	3.38567E-12	112.957E-3	-19.4867E-3	3.33267E-12	97.3949E-3	-10.3284E-3
872.936E-6	3.46027E-12	112.638E-3	-20.9049E-3	3.45665E-12	98.9723E-3	6.21517E-3
867.934E-6	3.36686E-12	107.597E-3	-35.7419E-3	3.38061E-12	92.6147E-3	1.22277E-3
862.931E-6	3.32502E-12	104.879E-3	-30.7579E-3	3.26961E-12	90.3199E-3	2.51143E-3
857.929E-6	3.29844E-12	104.758E-3	-19.3731E-3	3.28856E-12	102.789E-3	6.58191E-3
852.926E-6	3.31270E-12	109.919E-3	-11.0315E-3	3.27676E-12	97.5758E-3	-5.81104E-3
847.924E-6	3.28006E-12	97.5100E-3	-4.18236E-3	3.31549E-12	81.4842E-3	-7.31555E-3
842.921E-6	3.22432E-12	75.8070E-3	-6.51422E-3	3.28928E-12	88.9030E-3	-343.254E-6
837.919E-6	3.19406E-12	76.5566E-3	-16.1785E-3	3.18573E-12	92.4882E-3	-5.58872E-3
832.916E-6	3.14478E-12	92.3844E-3	-24.2132E-3	3.09837E-12	79.6875E-3	-1.50826E-3
827.914E-6	3.09165E-12	99.9056E-3	-16.0513E-3	3.16653E-12	82.2904E-3	13.1169E-3
822.911E-6	3.08134E-12	86.7821E-3	-9.29027E-3	3.12510E-12	90.1879E-3	10.4802E-3
817.909E-6	3.05047E-12	76.9430E-3	-12.5288E-3	3.03174E-12	84.8353E-3	4.25631E-3
812.906E-6	3.01408E-12	82.9316E-3	-13.7413E-3	2.96829E-12	77.9793E-3	1.98744E-3
807.904E-6	2.94158E-12	86.6650E-3	-19.0136E-3	2.84436E-12	76.1311E-3	-4.29746E-3
802.901E-6	3.00523E-12	89.6382E-3	-22.9916E-3	2.98742E-12	85.4249E-3	-8.42018E-3
797.899E-6	3.06103E-12	90.8619E-3	-17.3265E-3	2.92948E-12	93.6069E-3	-16.8149E-3
792.896E-6	2.89202E-12	91.2618E-3	-11.5384E-3	2.64919E-12	90.5918E-3	-26.6032E-3
787.894E-6	2.82458E-12	91.1871E-3	-8.97134E-3	2.66984E-12	95.9054E-3	-21.6491E-3
782.891E-6	2.85024E-12	88.5489E-3	-8.48952E-3	2.82344E-12	102.531E-3	-5.62177E-3
777.889E-6	2.87907E-12	80.3413E-3	-12.7419E-3	2.78383E-12	96.9532E-3	2.46719E-3
772.886E-6	2.77707E-12	64.8526E-3	-23.0776E-3	2.61969E-12	90.7854E-3	2.98297E-3
767.884E-6	2.67116E-12	55.8927E-3	-25.6669E-3	2.57814E-12	90.2902E-3	-1.13286E-3
762.881E-6	2.71423E-12	63.0720E-3	-17.5080E-3	2.71929E-12	95.2876E-3	-15.4103E-3
757.879E-6	2.74617E-12	77.9823E-3	-15.1315E-3	2.72503E-12	99.5586E-3	-25.2662E-3
752.876E-6	2.70171E-12	90.6491E-3	-18.5126E-3	2.63806E-12	103.350E-3	-23.4481E-3
747.874E-6	2.60143E-12	90.8978E-3	-18.3504E-3	2.57423E-12	95.5701E-3	-24.8567E-3
742.871E-6	2.56690E-12	77.0174E-3	-12.0279E-3	2.55377E-12	76.1857E-3	-28.5534E-3
737.869E-6	2.58669E-12	67.0012E-3	-10.8681E-3	2.58899E-12	75.5629E-3	-23.8939E-3
732.866E-6	2.55236E-12	72.3490E-3	-22.3654E-3	2.53843E-12	91.1326E-3	-22.3353E-3
727.864E-6	2.47748E-12	81.5460E-3	-29.4868E-3	2.50431E-12	93.4309E-3	-26.8590E-3
722.861E-6	2.46616E-12	85.6819E-3	-22.1793E-3	2.43959E-12	97.6859E-3	-25.0489E-3
717.859E-6	2.41908E-12	92.7551E-3	-10.2985E-3	2.38763E-12	110.741E-3	-23.7645E-3
712.856E-6	2.35170E-12	100.206E-3	1.61808E-3	2.42473E-12	102.734E-3	-28.4035E-3
707.854E-6	2.35002E-12	98.8117E-3	6.10792E-3	2.41071E-12	92.1360E-3	-24.7166E-3
702.851E-6	2.30477E-12	87.5672E-3	-3.48297E-3	2.25471E-12	90.7848E-3	-13.6174E-3
697.849E-6	2.26724E-12	79.6082E-3	-21.0510E-3	2.14916E-12	77.7980E-3	-11.2469E-3
692.846E-6	2.22553E-12	81.0196E-3	-30.3817E-3	2.23171E-12	76.4893E-3	-17.4706E-3
687.844E-6	2.21721E-12	80.3493E-3	-22.3204E-3	2.26558E-12	97.0400E-3	-22.4632E-3
682.841E-6	2.29173E-12	84.3395E-3	-6.96257E-3	2.20198E-12	99.5100E-3	-21.6608E-3
677.839E-6	2.15175E-12	104.034E-3	-2.51831E-3	1.97884E-12	85.3873E-3	-11.9918E-3
672.836E-6	2.07820E-12	117.724E-3	-13.7952E-3	2.02391E-12	80.1769E-3	-5.87743E-3
667.834E-6	2.12102E-12	102.466E-3	-19.6208E-3	2.18152E-12	80.7848E-3	-8.87261E-3
662.831E-6	2.15093E-12	92.1505E-3	-19.4926E-3	2.10941E-12	83.1615E-3	-8.54218E-3
657.829E-6	1.97476E-12	112.255E-3	-18.1854E-3	1.88677E-12	85.6590E-3	-13.3167E-3
652.826E-6	1.93780E-12	123.411E-3	-15.4075E-3	1.93701E-12	92.7160E-3	-23.0261E-3
647.824E-6	1.98242E-12	111.805E-3	-21.1835E-3	1.99417E-12	101.781E-3	-24.8939E-3
642.821E-6	2.00165E-12	100.939E-3	-27.0818E-3	2.01096E-12	108.587E-3	-29.8699E-3
637.819E-6	1.90095E-12	94.2112E-3	-31.9914E-3	1.87058E-12	110.024E-3	-35.8347E-3
632.816E-6	1.76557E-12	91.1083E-3	-32.1980E-3	1.77897E-12	90.4439E-3	-21.8157E-3
627.814E-6	1.75876E-12	89.3326E-3	-11.6621E-3	1.80860E-12	72.8657E-3	-5.60616E-3
622.811E-6	1.79852E-12	81.8670E-3	1.89392E-3	1.92089E-12	79.7960E-3	-6.83568E-3
617.809E-6	1.70664E-12	77.5762E-3	-9.12395E-3	1.79267E-12	87.6250E-3	-12.6378E-3
612.806E-6	1.65636E-12	79.3950E-3	-8.78927E-3	1.68714E-12	95.6357E-3	-15.5176E-3
607.804E-6	1.62100E-12	74.5369E-3	346.165E-6	1.64279E-12	106.684E-3	-14.3560E-3
602.801E-6	1.68080E-12	75.6601E-3	-7.43169E-3	1.62427E-12	101.665E-3	-8.84418E-3
597.799E-6	1.59482E-12	87.8508E-3	-12.0113E-3	1.66606E-12	86.3390E-3	-1.92371E-3
592.796E-6	1.55393E-12	83.7719E-3	-3.72274E-3	1.56086E-12	76.2143E-3	2.66778E-3
587.794E-6	1.51395E-12	75.0264E-3	-8.83255E-3	1.46950E-12	78.7918E-3	-9.66983E-6
582.791E-6	1.57148E-12	82.6070E-3	-27.2307E-3	1.40634E-12	90.6403E-3	-12.1136E-3
577.789E-6	1.50356E-12	86.9595E-3	-21.5173E-3	1.50709E-12	94.4032E-3	-24.8831E-3
572.786E-6	1.46067E-12	88.9806E-3	-707.249E-6	1.50938E-12	91.8976E-3	-31.5352E-3
567.784E-6	1.48446E-12	103.694E-3	-3.45604E-3	1.38739E-12	92.5345E-3	-32.2039E-3
562.781E-6	1.36015E-12	109.227E-3	-17.7083E-3	1.24982E-12	92.4793E-3	-24.3603E-3
557.779E-6	1.35394E-12	102.229E-3	-17.7049E-3	1.28906E-12	86.2990E-3	-6.23036E-3
552.776E-6	1.38421E-12	98.7001E-3	-8.71759E-3	1.39380E-12	84.4387E-3	8.87354E-3
547.774E-6	1.40120E-12	94.9956E-3	-9.27709E-3	1.34418E-12	92.2919E-3	1.50793E-3
542.771E-6	1.28877E-12	84.2772E-3	-14.7550E-3	1.11561E-12	91.5010E-3	-10.5254E-3
537.769E-6	1.19106E-12	76.2170E-3	-11.8431E-3	1.12005E-12	91.3521E-3	-3.75265E-3
532.766E-6	1.24560E-12	80.2042E-3	-10.9292E-3	1.30977E-12	100.846E-3	1.76800E-3
527.764E-6	1.29352E-12	91.4405E-3	-13.8145E-3	1.24356E-12	100.542E-3	-6.60488E-3
522.761E-6	1.17819E-12	104.794E-3	-16.1275E-3	1.08493E-12	89.5912E-3	-10.3269E-3
517.759E-6	1.05299E-12	102.445E-3	-19.2360E-3	981.260E-15	84.9132E-3	-12.4202E-3
512.756E-6	1.07153E-12	85.6312E-3	-19.6298E-3	1.03986E-12	87.8943E-3	-20.9259E-3
507.754E-6	1.10859E-12	76.3320E-3	-15.6210E-3	1.11280E-12	87.0789E-3	-22.5345E-3
502.751E-6	1.03474E-12	84.4639E-3	-6.31612E-3	989.796E-15	91.7646E-3	-22.9348E-3
497.749E-6	963.603E-15	104.949E-3	-2.57636E-3	852.729E-15	101.957E-3	-31.2551E-3
492.746E-6	972.924E-15	109.148E-3	-7.15401E-3	893.361E-15	99.3296E-3	-30.4899E-3
487.744E-6	986.945E-15	87.0382E-3	-13.3595E-3	997.862E-15	88.9583E-3	-19.2208E-3
482.741E-6	897.520E-15	71.1647E-3	-13.8514E-3	917.618E-15	77.1559E-3	-15.0021E-3
477.739E-6	866.348E-15	80.1546E-3	-8.94232E-3	855.571E-15	65.8127E-3	-9.47134E-3
472.736E-6	861.108E-15	93.0448E-3	-11.1038E-3	799.253E-15	65.8353E-3	1.62851E-3
467.734E-6	868.144E-15	89.4414E-3	-15.8754E-3	788.973E-15	71.1612E-3	-1.16618E-3
462.731E-6	776.382E-15	71.0212E-3	-21.1790E-3	819.691E-15	72.5792E-3	-14.7430E-3
457.729E-6	816.648E-15	56.7792E-3	-26.3332E-3	811.905E-15	76.1544E-3	-15.5856E-3
452.726E-6	789.985E-15	61.1001E-3	-21.9571E-3	668.333E-15	82.0494E-3	-6.79007E-3
447.724E-6	763.992E-15	74.4532E-3	-21.1012E-3	637.371E-15	75.2605E-3	-3.77826E-3
442.721E-6	664.523E-15	77.5113E-3	-27.6273E-3	743.249E-15	56.9021E-3	-8.52125E-3
437.719E-6	731.461E-15	64.3693E-3	-29.9435E-3	726.918E-15	49.4191E-3	-27.7025E-3
432.716E-6	684.150E-15	59.5285E-3	-24.2574E-3	677.383E-15	53.2840E-3	-44.9128E-3
427.714E-6	617.203E-15	69.6391E-3	-12.3422E-3	550.465E-15	59.4011E-3	-38.4606E-3
422.711E-6	496.179E-15	70.6813E-3	2.80121E-3	552.575E-15	74.6292E-3	-27.8335E-3
417.709E-6	610.498E-15	70.0608E-3	9.96191E-3	668.751E-15	84.6331E-3	-22.1634E-3
412.706E-6	603.470E-15	69.0006E-3	-1.12693E-3	611.030E-15	82.4564E-3	-12.8704E-3
407.704E-6	465.016E-15	60.0976E-3	-6.38642E-3	433.417E-15	80.4628E-3	-10.7065E-3
402.701E-6	444.691E-15	61.0818E-3	-7.32754E-3	397.319E-15	72.3928E-3	-9.79047E-3
397.699E-6	467.571E-15	60.1541E-3	-23.4165E-3	533.550E-15	67.1275E-3	1.40921E-3
392.696E-6	532.861E-15	55.1763E-3	-33.1761E-3	536.218E-15	57.7593E-3	2.95971E-3
387.694E-6	452.408E-15	51.2828E-3	-33.7928E-3	445.729E-15	36.9709E-3	-7.38749E-3
382.691E-6	350.549E-15	41.1454E-3	-27.4430E-3	312.664E-15	37.0901E-3	-8.15822E-3
377.689E-6	382.156E-15	38.7496E-3	-8.14851E-3	382.174E-15	43.8673E-3	-6.37721E-3
372.686E-6	423.983E-15	49.4465E-3	-1.21768E-3	468.460E-15	36.5832E-3	-11.5876E-3
367.684E-6	386.098E-15	64.9227E-3	-11.1673E-3	371.292E-15	37.2483E-3	-9.11439E-3
362.681E-6	323.475E-15	63.9857E-3	-17.9143E-3	302.584E-15	42.0739E-3	-9.01458E-3
357.679E-6	310.937E-15	48.1042E-3	-18.5511E-3	259.240E-15	37.9508E-3	-20.9652E-3
352.676E-6	333.154E-15	47.0956E-3	-8.58104E-3	317.206E-15	30.9139E-3	-27.9651E-3
347.674E-6	298.146E-15	54.8276E-3	3.49168E-3	314.268E-15	26.7685E-3	-24.8428E-3
342.671E-6	260.731E-15	58.5236E-3	1.58262E-3	288.694E-15	27.2086E-3	-17.3548E-3
337.669E-6	277.411E-15	57.4838E-3	-5.19400E-3	243.598E-15	24.8257E-3	-5.94226E-3
332.666E-6	271.256E-15	46.0103E-3	-5.42588E-3	151.723E-15	22.8157E-3	-7.87409E-3
327.664E-6	203.977E-15	45.6366E-3	1.85868E-3	275.415E-15	26.9395E-3	-24.3878E-3
322.661E-6	234.329E-15	59.2276E-3	11.8751E-3	309.804E-15	32.1300E-3	-17.9534E-3
317.659E-6	203.507E-15	49.9346E-3	6.78712E-3	178.386E-15	40.4660E-3	-7.28013E-3
312.656E-6	173.852E-15	26.4370E-3	-6.90881E-3	101.351E-15	44.5462E-3	-23.5846E-3
307.654E-6	173.817E-15	19.6914E-3	-8.57629E-3	152.708E-15	29.8747E-3	-32.7842E-3
302.651E-6	177.192E-15	26.5726E-3	-9.31007E-3	226.630E-15	16.3905E-3	-16.2619E-3
297.649E-6	231.993E-15	35.9061E-3	-14.8870E-3	178.456E-15	20.0899E-3	-3.02793E-3
292.646E-6	132.444E-15	39.0284E-3	-27.1182E-3	37.4124E-15	27.3740E-3	-5.76705E-3
287.644E-6	82.5785E-15	35.0429E-3	-36.7030E-3	66.9360E-15	31.3520E-3	-5.36711E-3
282.641E-6	127.160E-15	28.6473E-3	-18.9748E-3	224.433E-15	26.3596E-3	-9.78310E-3
277.639E-6	150.563E-15	27.8899E-3	536.682E-6	160.703E-15	18.3191E-3	-23.6585E-3
272.636E-6	107.516E-15	32.0482E-3	-7.07290E-3	40.0195E-15	20.8852E-3	-26.6544E-3
267.634E-6	12.5363E-15	33.0461E-3	-19.5426E-3	-27.0668E-15	23.6522E-3	-20.3983E-3
262.631E-6	73.1529E-15	34.4867E-3	-16.3151E-3	118.040E-15	15.8040E-3	-18.3611E-3
257.629E-6	145.471E-15	38.7238E-3	-15.6621E-3	152.176E-15	9.06380E-3	-27.1892E-3
252.626E-6	55.7056E-15	44.4507E-3	-25.6789E-3	55.7579E-15	15.9913E-3	-31.0760E-3
247.624E-6	3.59025E-15	44.6262E-3	-23.3114E-3	-33.4145E-15	21.3675E-3	-24.5873E-3
242.621E-6	50.7007E-15	40.5980E-3	-14.4285E-3	23.5662E-15	16.4370E-3	-21.0496E-3
237.619E-6	108.126E-15	30.9223E-3	-8.13681E-3	86.1708E-15	14.9246E-3	-15.8375E-3
232.616E-6	34.6048E-15	21.7771E-3	-2.14872E-3	62.0706E-15	3.97817E-3	-15.9687E-3
227.614E-6	10.5744E-15	21.6366E-3	3.88589E-3	-18.7399E-15	1.34610E-3	-22.2183E-3
222.611E-6	4.31395E-15	17.9219E-3	10.1130E-3	-17.3710E-15	30.5790E-3	-19.1578E-3
217.609E-6	-2.35632E-15	13.6671E-3	4.05145E-3	-17.0222E-15	38.9534E-3	-8.57897E-3
212.606E-6	8.06325E-15	17.7679E-3	-10.8559E-3	23.0605E-15	21.0767E-3	-777.536E-6
207.604E-6	-699.649E-18	25.0307E-3	-14.3850E-3	17.5237E-15	18.5787E-3	-6.20965E-3
202.601E-6	5.16845E-15	21.7728E-3	-8.13993E-3	-68.6492E-15	16.4717E-3	-12.9174E-3
197.599E-6	-30.5982E-15	7.98955E-3	-4.28157E-3	-60.5751E-15	730.660E-6	-9.20594E-3
192.596E-6	-49.1528E-15	3.26714E-3	-7.86845E-3	-44.7670E-15	-6.41984E-3	-7.12590E-3
187.594E-6	-30.5458E-15	16.5865E-3	-17.5741E-3	23.4528E-15	3.61067E-3	-10.8099E-3
182.591E-6	-2.78356E-15	21.9468E-3	-22.7491E-3	-19.3328E-15	10.3069E-3	-10.8034E-3
177.589E-6	-69.5647E-15	14.3297E-3	-18.4852E-3	-148.309E-15	-766.933E-6	-7.58031E-3
172.586E-6	-87.0818E-15	10.1680E-3	-12.4077E-3	-104.311E-15	-16.1801E-3	-1.85470E-3
167.584E-6	-8.43368E-15	9.48910E-3	-14.1342E-3	23.9411E-15	-13.8692E-3	4.36253E-3
162.581E-6	-3.21953E-15	6.47455E-3	-16.3463E-3	-429.352E-18	3.71812E-3	-8.61234E-3
157.579E-6	-101.992E-15	-13.1573E-3	-12.0651E-3	-170.970E-15	11.9178E-3	-28.0382E-3
152.576E-6	-133.530E-15	-30.5456E-3	-3.64789E-3	-149.120E-15	7.68541E-3	-24.7751E-3
147.574E-6	-73.8459E-15	-17.3781E-3	106.306E-6	-31.2347E-15	3.88374E-3	-17.8996E-3
142.571E-6	-7.68381E-15	5.15468E-3	-8.99784E-3	-2.05114E-15	9.28850E-3	-24.8903E-3
137.569E-6	-43.8602E-15	19.0007E-3	-22.3218E-3	-116.204E-15	22.0162E-3	-31.7500E-3
132.566E-6	-158.519E-15	17.1861E-3	-39.0839E-3	-187.031E-15	19.7288E-3	-28.4375E-3
127.564E-6	-111.906E-15	-3.76081E-3	-47.8774E-3	-94.0747E-15	7.39849E-3	-15.8756E-3
122.561E-6	-20.6669E-15	-8.64257E-3	-33.8760E-3	-11.9563E-15	10.0681E-3	-6.81071E-3
117.559E-6	-81.7456E-15	9.64961E-3	-22.1542E-3	-83.2889E-15	10.3179E-3	-20.0720E-3
112.556E-6	-162.687E-15	18.7345E-3	-24.6121E-3	-162.853E-15	3.78333E-3	-31.9072E-3
107.554E-6	-108.244E-15	12.8228E-3	-28.8807E-3	-133.067E-15	11.1899E-3	-20.0175E-3
102.551E-6	-102.934E-15	4.04721E-3	-29.1154E-3	-106.936E-15	14.8700E-3	-9.65090E-3
97.5488E-6	-93.7695E-15	6.05005E-3	-19.7475E-3	-106.796E-15	11.1717E-3	-10.8968E-3
92.5463E-6	-140.313E-15	21.5867E-3	-5.27217E-3	-130.120E-15	9.81213E-3	-15.3687E-3
87.5438E-6	-117.102E-15	33.1812E-3	-1.34846E-3	-172.801E-15	6.92194E-3	-20.8976E-3
82.5413E-6	-148.021E-15	28.8190E-3	-7.65658E-3	-159.260E-15	8.74304E-3	-22.4675E-3
77.5388E-6	-108.653E-15	17.4635E-3	-11.2715E-3	-39.7186E-15	14.8262E-3	-21.3558E-3
72.5363E-6	-136.747E-15	7.23007E-3	-7.33103E-3	-90.8399E-15	14.4280E-3	-21.2329E-3
67.5338E-6	-130.094E-15	4.91328E-3	3.04853E-3	-137.340E-15	15.8120E-3	-22.7195E-3
62.5313E-6	-176.001E-15	17.1274E-3	1.00761E-3	-165.216E-15	23.2850E-3	-20.3525E-3
57.5288E-6	-148.117E-15	18.9325E-3	-13.6169E-3	-179.123E-15	27.2382E-3	-6.23993E-3
52.5263E-6	-146.774E-15	-2.27679E-3	-16.5288E-3	-39.1344E-15	26.4435E-3	-517.334E-6
47.5238E-6	-69.0503E-15	-13.0721E-3	-12.6086E-3	-102.105E-15	13.8117E-3	-16.9717E-3
42.5213E-6	-177.440E-15	-9.95757E-3	-9.55847E-3	-242.355E-15	-41.2077E-6	-24.2927E-3
37.5188E-6	-203.232E-15	-6.74536E-3	-8.64831E-3	-210.905E-15	-2.43130E-3	-14.8084E-3
32.5163E-6	-125.735E-15	-3.60182E-3	-2.16572E-3	-84.2568E-15	-6.03383E-3	-14.0528E-3
27.5138E-6	-122.927E-15	-9.97928E-3	9.61224E-3	-86.8115E-15	2.05510E-3	-11.7277E-3
22.5113E-6	-171.415E-15	-10.4610E-3	7.43385E-3	-201.810E-15	26.6793E-3	-5.36675E-3
17.5088E-6	-255.582E-15	3.77352E-3	-6.11529E-3	-227.053E-15	35.4438E-3	-10.8742E-3
12.5063E-6	-176.001E-15	11.5796E-3	-14.3892E-3	-142.667E-15	22.7235E-3	-16.4234E-3
7.50375E-6	-91.3456E-15	5.93952E-3	-15.9444E-3	-101.556E-15	7.81199E-3	-16.3217E-3
2.50125E-6	-174.188E-15	-7.21624E-3	-10.2197E-3	-166.558E-15	2.07570E-3	-20.5718E-3
-2.50125E-6	-215.997E-15	-11.7971E-3	-286.770E-6	-245.887E-15	-439.994E-6	-30.4137E-3
-7.50375E-6	-168.337E-15	-7.17988E-3	-9.19629E-3	-202.229E-15	1.08894E-3	-30.7185E-3
-12.5063E-6	-200.197E-15	893.232E-6	-28.3374E-3	-106.857E-15	3.98687E-3	-16.0756E-3
-17.5088E-6	-189.202E-15	8.35055E-3	-32.2756E-3	-128.769E-15	-6.92864E-3	-8.73913E-3
-22.5113E-6	-220.121E-15	-229.632E-6	-24.5738E-3	-200.023E-15	-15.4012E-3	-13.2508E-3
-27.5138E-6	-180.588E-15	-5.88582E-3	-17.6939E-3	-210.905E-15	-13.6500E-3	-12.0906E-3
-32.5163E-6	-195.367E-15	465.742E-6	-13.9229E-3	-182.942E-15	-9.86309E-3	-11.0755E-3
-37.5188E-6	-183.142E-15	3.12895E-3	-9.26108E-3	-102.585E-15	7.14894E-3	-15.5057E-3
-42.5213E-6	-209.885E-15	11.3980E-3	-12.0774E-3	-167.186E-15	18.7691E-3	-10.6585E-3
-47.5238E-6	-184.102E-15	14.6916E-3	-22.4484E-3	-240.943E-15	13.0223E-3	-3.36755E-3
-52.5263E-6	-231.290E-15	3.46293E-3	-20.8899E-3	-265.645E-15	9.07220E-3	-6.59486E-3
-57.5288E-6	-193.675E-15	-2.71280E-3	-15.6416E-3	-181.407E-15	11.6092E-3	-5.61809E-3
-62.5313E-6	-233.156E-15	1.99489E-3	-21.7620E-3	-141.246E-15	18.0198E-3	-6.58505E-3
-67.5338E-6	-162.225E-15	14.1028E-3	-22.7742E-3	-206.571E-15	15.7028E-3	-21.4999E-3
-72.5363E-6	-248.781E-15	22.4997E-3	-19.6474E-3	-294.436E-15	11.2027E-3	-30.8827E-3
-77.5388E-6	-265.453E-15	18.2947E-3	-19.7396E-3	-225.789E-15	16.5263E-3	-26.1894E-3
-82.5413E-6	-168.581E-15	9.36391E-3	-21.3356E-3	-137.942E-15	16.9381E-3	-17.7241E-3
-87.5438E-6	-153.462E-15	-7.18667E-3	-30.9673E-3	-165.913E-15	7.76733E-3	-16.7860E-3
-92.5463E-6	-261.119E-15	-25.0153E-3	-32.0411E-3	-299.536E-15	-9.64641E-3	-25.3456E-3
-97.5488E-6	-317.211E-15	-16.4369E-3	-22.8314E-3	-299.458E-15	-9.34191E-3	-36.5595E-3
-102.551E-6	-252.348E-15	1.41153E-3	-17.6294E-3	-218.735E-15	12.0449E-3	-39.2810E-3
-107.554E-6	-173.141E-15	1.85482E-3	-20.6386E-3	-162.164E-15	24.0262E-3	-30.7230E-3
-112.556E-6	-222.859E-15	2.27633E-3	-27.7268E-3	-305.221E-15	25.5248E-3	-17.5613E-3
-117.559E-6	-338.459E-15	4.20080E-3	-20.3766E-3	-302.100E-15	15.6149E-3	-8.58613E-3
-122.561E-6	-272.280E-15	-2.05600E-3	-9.02053E-3	-256.358E-15	10.7091E-3	-11.0931E-3
-127.564E-6	-201.505E-15	2.95854E-3	-8.32583E-3	-171.668E-15	19.2285E-3	-21.8794E-3
-132.566E-6	-266.412E-15	14.0260E-3	-8.58988E-3	-211.131E-15	20.7245E-3	-32.3947E-3
-137.569E-6	-313.078E-15	9.04805E-3	-7.04542E-3	-378.019E-15	19.6009E-3	-31.1777E-3
-142.571E-6	-267.842E-15	12.9355E-3	-30.9970E-6	-347.571E-15	15.9556E-3	-25.7191E-3
-147.574E-6	-249.732E-15	21.9111E-3	10.7838E-3	-254.231E-15	-3.36938E-3	-26.8595E-3
-152.576E-6	-307.070E-15	14.5517E-3	5.45753E-3	-265.505E-15	-17.7961E-3	-29.8322E-3
-157.579E-6	-302.623E-15	1.23690E-3	-6.31851E-3	-297.400E-15	-6.78777E-3	-32.0822E-3
-162.581E-6	-292.796E-15	-629.961E-6	-8.20082E-3	-310.959E-15	12.6605E-3	-25.3591E-3
-167.584E-6	-328.493E-15	12.8416E-3	-14.8910E-3	-310.889E-15	22.7488E-3	-10.7666E-3
-172.586E-6	-337.884E-15	18.4442E-3	-30.3689E-3	-269.533E-15	26.7295E-3	-4.73267E-3
-177.589E-6	-302.963E-15	16.7099E-3	-34.8438E-3	-279.430E-15	22.1779E-3	-9.86078E-3
-182.591E-6	-340.482E-15	24.1036E-3	-25.4654E-3	-331.737E-15	14.0916E-3	-14.5624E-3
-187.594E-6	-361.723E-15	31.5119E-3	-27.6882E-3	-386.948E-15	11.9864E-3	-7.02712E-3
-192.596E-6	-405.328E-15	27.5461E-3	-38.8878E-3	-351.076E-15	9.06547E-3	1.78017E-3
-197.599E-6	-345.670E-15	18.4888E-3	-37.7740E-3	-299.109E-15	9.20200E-3	-6.08713E-3
-202.601E-6	-320.794E-15	10.1428E-3	-34.4215E-3	-315.231E-15	20.1669E-3	-18.7344E-3
-207.604E-6	-387.418E-15	12.8817E-3	-23.3852E-3	-453.650E-15	34.7626E-3	-21.2818E-3
-212.606E-6	-447.782E-15	27.6796E-3	-1.22708E-3	-452.935E-15	43.8678E-3	-14.1601E-3
-217.609E-6	-367.059E-15	33.1580E-3	1.48993E-3	-334.030E-15	45.9199E-3	-11.9193E-3
-222.611E-6	-329.234E-15	31.9167E-3	-16.2680E-3	-326.130E-15	42.8690E-3	-15.8254E-3
-227.614E-6	-411.405E-15	31.0671E-3	-27.7162E-3	-523.012E-15	35.0404E-3	-12.4708E-3
-232.616E-6	-487.237E-15	26.2680E-3	-25.6905E-3	-495.948E-15	26.6724E-3	-13.8291E-3
-237.619E-6	-426.943E-15	27.3684E-3	-23.4815E-3	-418.337E-15	25.5802E-3	-20.8789E-3
-242.621E-6	-377.818E-15	33.8324E-3	-21.7327E-3	-399.643E-15	38.5050E-3	-17.5440E-3
-247.624E-6	-470.714E-15	32.4557E-3	-14.5865E-3	-457.809E-15	53.9991E-3	-16.3247E-3
-252.626E-6	-529.735E-15	23.6321E-3	-12.2757E-3	-572.067E-15	49.1796E-3	-22.0172E-3
-257.629E-6	-512.357E-15	23.4083E-3	-7.88820E-3	-547.723E-15	46.4296E-3	-26.5661E-3
-262.631E-6	-487.900E-15	42.5152E-3	582.066E-6	-465.456E-15	64.1124E-3	-20.0224E-3
-267.634E-6	-520.562E-15	62.7663E-3	-5.32588E-3	-441.478E-15	64.9604E-3	-1.45769E-3
-272.636E-6	-557.157E-15	60.6592E-3	-16.5697E-3	-577.892E-15	37.2971E-3	-1.31515E-3
-277.639E-6	-588.512E-15	49.8442E-3	-17.6000E-3	-617.887E-15	14.6035E-3	-18.2535E-3
-282.641E-6	-544.558E-15	45.2721E-3	-17.3132E-3	-588.512E-15	17.9451E-3	-23.2938E-3
-287.644E-6	-584.588E-15	40.1551E-3	-18.5637E-3	-564.769E-15	31.8975E-3	-15.3470E-3
-292.646E-6	-596.586E-15	33.4704E-3	-15.2416E-3	-554.132E-15	43.1917E-3	-2.83540E-3
-297.649E-6	-649.085E-15	34.8523E-3	-17.4910E-3	-622.936E-15	54.5052E-3	-1.29009E-3
-302.651E-6	-653.122E-15	41.6910E-3	-22.5123E-3	-698.567E-15	54.1271E-3	-19.9483E-3
-307.654E-6	-716.302E-15	41.5313E-3	-13.3284E-3	-637.200E-15	52.2264E-3	-35.9822E-3
-312.656E-6	-670.569E-15	36.0322E-3	-5.33498E-3	-624.252E-15	68.3632E-3	-37.4085E-3
-317.659E-6	-730.732E-15	44.8317E-3	-16.1414E-3	-692.716E-15	87.5927E-3	-27.8725E-3
-322.661E-6	-777.729E-15	62.1547E-3	-32.0906E-3	-847.336E-15	87.6861E-3	-21.1339E-3
-327.664E-6	-790.155E-15	61.6060E-3	-38.5623E-3	-835.913E-15	75.0180E-3	-28.8389E-3
-332.666E-6	-782.412E-15	51.2489E-3	-29.0774E-3	-723.347E-15	72.2616E-3	-33.5520E-3
-337.669E-6	-730.314E-15	47.8276E-3	-21.8449E-3	-753.315E-15	81.5178E-3	-19.9278E-3
-342.671E-6	-865.079E-15	52.7541E-3	-24.7246E-3	-950.197E-15	96.9132E-3	-8.66586E-3
-347.674E-6	-918.694E-15	61.4687E-3	-24.0532E-3	-961.672E-15	105.129E-3	-13.1862E-3
-352.676E-6	-927.754E-15	62.2167E-3	-18.0713E-3	-850.074E-15	97.3348E-3	-14.8449E-3
-357.679E-6	-863.876E-15	59.7685E-3	-14.6598E-3	-847.841E-15	89.8719E-3	-12.5381E-3
-362.681E-6	-967.122E-15	77.9371E-3	-17.7967E-3	-982.345E-15	90.5304E-3	-19.4634E-3
-367.684E-6	-1.08978E-12	99.5784E-3	-19.1176E-3	-1.06704E-12	93.7023E-3	-26.2352E-3
-372.686E-6	-1.03806E-12	95.4003E-3	-15.6938E-3	-963.381E-15	92.1859E-3	-23.5719E-3
-377.689E-6	-967.087E-15	83.9803E-3	-18.1212E-3	-1.00874E-12	89.7760E-3	-31.7404E-3
-382.691E-6	-1.07007E-12	92.9746E-3	-29.2960E-3	-1.02558E-12	85.3085E-3	-47.4174E-3
-387.694E-6	-1.14370E-12	106.281E-3	-33.0863E-3	-1.14448E-12	84.4203E-3	-45.1633E-3
-392.696E-6	-1.22605E-12	108.659E-3	-31.9522E-3	-1.21065E-12	100.207E-3	-27.4403E-3
-397.699E-6	-1.19249E-12	108.399E-3	-36.3196E-3	-1.15296E-12	109.712E-3	-6.16050E-3
-402.701E-6	-1.22475E-12	101.754E-3	-31.5410E-3	-1.23239E-12	109.415E-3	-4.17172E-3
-407.704E-6	-1.28351E-12	99.1620E-3	-21.5525E-3	-1.26888E-12	116.623E-3	-27.0229E-3
-412.706E-6	-1.27298E-12	104.479E-3	-18.0227E-3	-1.34551E-12	121.326E-3	-33.1180E-3
-417.709E-6	-1.31138E-12	98.7047E-3	-21.1756E-3	-1.37874E-12	119.894E-3	-16.7305E-3
-422.711E-6	-1.37515E-12	94.0483E-3	-32.6922E-3	-1.38281E-12	115.604E-3	-9.88862E-3
-427.714E-6	-1.39524E-12	103.290E-3	-40.5196E-3	-1.42207E-12	112.421E-3	-11.5627E-3
-432.716E-6	-1.42680E-12	110.860E-3	-31.2504E-3	-1.52967E-12	121.780E-3	-14.7351E-3
-437.719E-6	-1.49277E-12	124.476E-3	-9.60163E-3	-1.63349E-12	138.122E-3	-29.2575E-3
-442.721E-6	-1.54935E-12	135.417E-3	-391.593E-6	-1.62189E-12	148.773E-3	-32.8746E-3
-447.724E-6	-1.58345E-12	119.556E-3	-7.05145E-3	-1.52468E-12	151.688E-3	-13.3566E-3
-452.726E-6	-1.55754E-12	106.854E-3	-11.9596E-3	-1.64193E-12	141.435E-3	-8.47006E-3
-457.729E-6	-1.67947E-12	122.649E-3	-9.37392E-3	-1.77289E-12	131.386E-3	-21.4030E-3
-462.731E-6	-1.77201E-12	138.305E-3	-9.40805E-3	-1.82290E-12	143.590E-3	-21.3917E-3
-467.734E-6	-1.73387E-12	131.273E-3	-19.0970E-3	-1.70336E-12	155.527E-3	-15.4922E-3
-472.736E-6	-1.76461E-12	127.207E-3	-27.7548E-3	-1.76890E-12	144.041E-3	-13.4780E-3
-477.739E-6	-1.87714E-12	133.988E-3	-16.7644E-3	-1.98354E-12	131.587E-3	-14.6614E-3
-482.741E-6	-1.99759E-12	134.991E-3	-1.78265E-3	-2.02728E-12	131.388E-3	-23.7533E-3
-487.744E-6	-1.99774E-12	142.894E-3	-9.30324E-3	-1.94222E-12	136.018E-3	-39.5544E-3
-492.746E-6	-1.96104E-12	159.140E-3	-19.6394E-3	-1.90045E-12	155.630E-3	-40.8532E-3
-497.749E-6	-2.08629E-12	160.385E-3	-24.9633E-3	-2.05025E-12	173.554E-3	-25.1829E-3
-502.751E-6	-2.20366E-12	147.216E-3	-28.6749E-3	-2.14463E-12	162.827E-3	-16.1421E-3
-507.754E-6	-2.18540E-12	137.529E-3	-11.5584E-3	-2.21282E-12	145.515E-3	-13.9331E-3
-512.756E-6	-2.19382E-12	146.777E-3	-1.82411E-3	-2.15081E-12	147.541E-3	-17.6079E-3
-517.759E-6	-2.21413E-12	166.317E-3	-15.5823E-3	-2.23990E-12	160.717E-3	-22.9177E-3
-522.761E-6	-2.30766E-12	169.165E-3	-17.3630E-3	-2.39289E-12	166.222E-3	-15.3016E-3
-527.764E-6	-2.33812E-12	158.162E-3	-10.7430E-3	-2.40841E-12	164.397E-3	-10.3192E-3
-532.766E-6	-2.39709E-12	150.223E-3	-15.3489E-3	-2.50746E-12	158.220E-3	-30.9820E-3
-537.769E-6	-2.46031E-12	147.371E-3	-20.9077E-3	-2.49751E-12	157.351E-3	-51.0567E-3
-542.771E-6	-2.51305E-12	145.011E-3	-21.8858E-3	-2.57020E-12	172.649E-3	-44.4765E-3
-547.774E-6	-2.52453E-12	144.710E-3	-19.7679E-3	-2.65174E-12	181.386E-3	-22.4745E-3
-552.776E-6	-2.55359E-12	154.105E-3	-9.66255E-3	-2.74910E-12	170.915E-3	-11.9229E-3
-557.779E-6	-2.60362E-12	165.580E-3	-5.90368E-3	-2.63660E-12	167.404E-3	-21.8547E-3
-562.781E-6	-2.71906E-12	164.353E-3	-16.4681E-3	-2.74321E-12	172.655E-3	-20.2693E-3
-567.784E-6	-2.79224E-12	161.884E-3	-23.5581E-3	-2.85002E-12	173.555E-3	1.36060E-3
-572.786E-6	-2.92061E-12	154.855E-3	-27.5375E-3	-3.01123E-12	172.231E-3	13.5189E-3
-577.789E-6	-3.00888E-12	142.637E-3	-30.0515E-3	-3.02297E-12	162.070E-3	6.66180E-3
-582.791E-6	-3.02458E-12	150.009E-3	-27.9550E-3	-2.90460E-12	152.143E-3	-3.50194E-3
-587.794E-6	-3.05082E-12	161.843E-3	-24.7866E-3	-2.96727E-12	158.628E-3	-11.4842E-3
-592.796E-6	-3.20470E-12	167.760E-3	-22.7491E-3	-3.21429E-12	173.581E-3	-20.2264E-3
-597.799E-6	-3.28461E-12	172.042E-3	-15.4241E-3	-3.20613E-12	175.705E-3	-24.4952E-3
-602.801E-6	-3.28544E-12	161.712E-3	-8.57518E-3	-3.14273E-12	163.768E-3	-27.8151E-3
-607.804E-6	-3.28194E-12	153.443E-3	-16.2648E-3	-3.21901E-12	162.371E-3	-32.1098E-3
-612.806E-6	-3.36327E-12	167.292E-3	-23.1812E-3	-3.37096E-12	178.308E-3	-29.4211E-3
-617.809E-6	-3.45835E-12	179.148E-3	-21.6005E-3	-3.48902E-12	195.533E-3	-26.2743E-3
-622.811E-6	-3.44669E-12	176.196E-3	-25.9476E-3	-3.47893E-12	198.717E-3	-24.0054E-3
-627.814E-6	-3.41557E-12	180.228E-3	-33.4928E-3	-3.57809E-12	192.241E-3	-6.83672E-3
-632.816E-6	-3.49532E-12	180.364E-3	-27.9164E-3	-3.64690E-12	185.844E-3	3.91980E-3
-637.819E-6	-3.58919E-12	171.043E-3	-22.1283E-3	-3.78020E-12	175.866E-3	-14.8023E-3
-642.821E-6	-3.63590E-12	166.623E-3	-22.7947E-3	-3.86558E-12	175.612E-3	-35.6118E-3
-647.824E-6	-3.65449E-12	159.014E-3	-15.9013E-3	-3.84395E-12	185.868E-3	-32.3642E-3
-652.826E-6	-3.72349E-12	150.937E-3	-16.0828E-3	-3.96307E-12	183.965E-3	-21.9227E-3
-657.829E-6	-3.77756E-12	154.175E-3	-27.5319E-3	-4.03709E-12	169.273E-3	-22.2721E-3
-662.831E-6	-3.83379E-12	156.117E-3	-31.9653E-3	-4.08609E-12	159.780E-3	-26.1737E-3
-667.834E-6	-3.91282E-12	151.048E-3	-35.2122E-3	-4.13850E-12	168.236E-3	-27.9147E-3
-672.836E-6	-4.05654E-12	155.536E-3	-36.2330E-3	-4.08286E-12	177.536E-3	-20.3915E-3
-677.839E-6	-4.10413E-12	158.408E-3	-27.9219E-3	-4.14117E-12	170.443E-3	-9.98546E-3
-682.841E-6	-4.15733E-12	152.151E-3	-21.2100E-3	-4.16969E-12	154.404E-3	-17.2978E-3
-687.844E-6	-4.25983E-12	158.055E-3	-15.9159E-3	-4.32629E-12	147.838E-3	-35.4841E-3
-692.846E-6	-4.33838E-12	166.383E-3	-14.5803E-3	-4.25435E-12	165.724E-3	-39.8240E-3
-697.849E-6	-4.46387E-12	165.959E-3	-24.2602E-3	-4.21918E-12	184.839E-3	-25.7370E-3
-702.851E-6	-4.44282E-12	161.929E-3	-29.7573E-3	-4.31293E-12	173.987E-3	-8.01779E-3
-707.854E-6	-4.54641E-12	156.556E-3	-14.1435E-3	-4.47261E-12	144.546E-3	-5.79428E-3
-712.856E-6	-4.61696E-12	162.302E-3	1.42545E-3	-4.44129E-12	132.687E-3	-15.0713E-3
-717.859E-6	-4.61428E-12	165.662E-3	-10.4976E-3	-4.35748E-12	144.323E-3	-23.0898E-3
-722.861E-6	-4.62822E-12	147.060E-3	-33.5501E-3	-4.53038E-12	158.337E-3	-25.2417E-3
-727.864E-6	-4.73814E-12	132.783E-3	-44.8510E-3	-4.64472E-12	161.691E-3	-14.1069E-3
-732.866E-6	-4.73296E-12	138.684E-3	-38.1713E-3	-4.71827E-12	151.007E-3	-6.57822E-3
-737.869E-6	-4.69474E-12	147.012E-3	-24.1404E-3	-4.69265E-12	133.543E-3	-15.1898E-3
-742.871E-6	-4.61024E-12	151.588E-3	-19.7376E-3	-4.70841E-12	127.781E-3	-24.4550E-3
-747.874E-6	-4.71014E-12	158.806E-3	-17.1570E-3	-4.86327E-12	137.196E-3	-27.8108E-3
-752.876E-6	-4.78870E-12	164.754E-3	-758.729E-9	-4.93475E-12	136.905E-3	-22.3688E-3
-757.879E-6	-4.73271E-12	155.097E-3	12.7283E-3	-4.98093E-12	124.213E-3	-11.0543E-3
-762.881E-6	-4.79188E-12	142.766E-3	5.35182E-3	-4.94585E-12	117.663E-3	-10.7349E-3
-767.884E-6	-4.82941E-12	141.861E-3	-1.80067E-3	-5.03387E-12	126.065E-3	-25.1492E-3
-772.886E-6	-4.91063E-12	133.529E-3	-3.67665E-3	-5.14645E-12	140.976E-3	-28.9238E-3
-777.889E-6	-4.98616E-12	120.205E-3	-11.7873E-3	-5.14631E-12	143.259E-3	-9.59758E-3
-782.891E-6	-5.05845E-12	116.752E-3	-14.7472E-3	-5.13309E-12	129.465E-3	3.65945E-3
-787.894E-6	-5.12784E-12	114.899E-3	-13.5404E-3	-5.09514E-12	118.337E-3	-6.94545E-3
-792.896E-6	-5.23730E-12	118.325E-3	-32.9056E-3	-5.15030E-12	124.439E-3	-25.7546E-3
-797.899E-6	-5.29636E-12	127.846E-3	-53.6329E-3	-5.20533E-12	135.510E-3	-26.6030E-3
-802.901E-6	-5.33665E-12	127.945E-3	-43.2840E-3	-5.24924E-12	131.367E-3	-3.70521E-3
-807.904E-6	-5.45097E-12	124.759E-3	-20.2432E-3	-5.19388E-12	110.586E-3	12.4218E-3
-812.906E-6	-5.44077E-12	129.893E-3	-13.6983E-3	-5.25374E-12	95.7052E-3	-5.73118E-3
-817.909E-6	-5.53372E-12	133.626E-3	-22.6926E-3	-5.34393E-12	110.076E-3	-38.2603E-3
-822.911E-6	-5.54555E-12	125.463E-3	-30.5005E-3	-5.47129E-12	139.665E-3	-40.7234E-3
-827.914E-6	-5.60095E-12	115.547E-3	-23.4536E-3	-5.45659E-12	150.075E-3	-12.2603E-3
-832.916E-6	-5.62195E-12	119.711E-3	-2.73387E-3	-5.38184E-12	138.575E-3	4.85279E-3
-837.919E-6	-5.53646E-12	126.358E-3	9.37629E-3	-5.44176E-12	119.644E-3	-9.40703E-3
-842.921E-6	-5.68028E-12	124.364E-3	749.660E-6	-5.67995E-12	109.598E-3	-29.5212E-3
-847.924E-6	-5.79836E-12	126.071E-3	-13.8681E-3	-5.66268E-12	119.856E-3	-27.4248E-3
-852.926E-6	-5.70927E-12	119.215E-3	-18.6679E-3	-5.54349E-12	131.462E-3	-13.1640E-3
-857.929E-6	-5.67901E-12	107.464E-3	-7.32802E-3	-5.60990E-12	120.770E-3	-4.97305E-3
-862.931E-6	-5.71923E-12	118.514E-3	6.00086E-3	-5.77634E-12	101.228E-3	-9.33093E-3
-867.934E-6	-5.81752E-12	129.382E-3	3.71833E-3	-5.88649E-12	99.7177E-3	-26.2938E-3
-872.936E-6	-5.74263E-12	130.181E-3	-6.28426E-3	-5.81259E-12	114.195E-3	-37.2068E-3
-877.939E-6	-5.78269E-12	126.566E-3	-6.60664E-3	-5.80285E-12	119.216E-3	-31.1167E-3
-882.941E-6	-5.93143E-12	113.782E-3	-5.08323E-3	-5.92350E-12	113.225E-3	-22.5895E-3
-887.944E-6	-6.00106E-12	110.526E-3	-7.55254E-3	-6.00675E-12	117.787E-3	-19.6852E-3
-892.946E-6	-6.11865E-12	116.740E-3	-3.97503E-3	-6.07695E-12	129.530E-3	-22.3622E-3
-897.949E-6	-6.14119E-12	120.214E-3	-10.3622E-3	-6.04658E-12	149.571E-3	-25.5825E-3
-902.951E-6	-6.27537E-12	120.131E-3	-27.3310E-3	-6.02287E-12	160.645E-3	-15.9022E-3
-907.954E-6	-6.29166E-12	113.583E-3	-26.6758E-3	-6.11605E-12	140.825E-3	2.59136E-3
-912.956E-6	-6.44260E-12	106.089E-3	-14.5728E-3	-6.20418E-12	118.272E-3	6.68665E-3
-917.959E-6	-6.43079E-12	109.782E-3	-15.7311E-3	-6.24373E-12	115.363E-3	-13.7970E-3
-922.961E-6	-6.53381E-12	122.546E-3	-19.6296E-3	-6.25269E-12	130.240E-3	-37.1009E-3
-927.964E-6	-6.56280E-12	128.249E-3	-17.7481E-3	-6.22954E-12	147.514E-3	-26.8359E-3
-932.966E-6	-6.51234E-12	127.920E-3	-26.5519E-3	-6.38338E-12	156.059E-3	4.48936E-3
-937.969E-6	-6.59635E-12	136.603E-3	-32.3547E-3	-6.51932E-12	144.119E-3	10.9745E-3
-942.971E-6	-6.57426E-12	145.292E-3	-24.1870E-3	-6.58605E-12	118.121E-3	-3.97398E-3
-947.974E-6	-6.56092E-12	147.074E-3	-21.4746E-3	-6.55781E-12	122.432E-3	-10.0026E-3
-952.976E-6	-6.50364E-12	149.126E-3	-20.0399E-3	-6.65333E-12	152.725E-3	-9.43754E-3
-957.979E-6	-6.56439E-12	139.113E-3	-8.53492E-3	-6.94534E-12	162.114E-3	-19.1838E-3
-962.981E-6	-6.63274E-12	128.811E-3	-5.04374E-3	-6.93571E-12	147.783E-3	-30.2651E-3
-967.984E-6	-6.55322E-12	143.941E-3	-19.6156E-3	-6.84775E-12	131.826E-3	-37.9205E-3
-972.986E-6	-6.59091E-12	156.882E-3	-30.3255E-3	-7.01202E-12	144.657E-3	-40.0851E-3
-977.989E-6	-6.68398E-12	149.013E-3	-33.8588E-3	-7.24028E-12	182.582E-3	-20.5091E-3
-982.991E-6	-6.80623E-12	135.802E-3	-31.7228E-3	-7.23779E-12	190.834E-3	285.087E-6
-987.994E-6	-6.85081E-12	126.717E-3	-14.6761E-3	-7.18311E-12	170.160E-3	1.64988E-3
-992.997E-6	-6.88716E-12	134.140E-3	4.63681E-3	-7.27298E-12	164.141E-3	-13.0001E-3
-997.999E-6	-7.09369E-12	149.743E-3	6.99426E-3	-7.33848E-12	183.253E-3	-42.1471E-3
-1.00300E-3	-7.28613E-12	149.009E-3	-16.1151E-3	-7.47330E-12	211.917E-3	-49.4486E-3
-1.00800E-3	-7.26682E-12	150.234E-3	-45.2849E-3	-7.40282E-12	214.418E-3	-26.3941E-3
-1.01301E-3	-7.35137E-12	174.772E-3	-44.0069E-3	-7.57192E-12	194.836E-3	-22.3858E-3
-1.01801E-3	-7.44252E-12	203.203E-3	-23.7428E-3	-7.36613E-12	190.875E-3	-31.9531E-3
-1.02301E-3	-7.61907E-12	217.653E-3	-23.1245E-3	-7.59180E-12	208.082E-3	-25.5850E-3
-1.02801E-3	-7.66092E-12	218.474E-3	-30.7642E-3	-7.69599E-12	237.242E-3	-9.39517E-3
-1.03302E-3	-7.63175E-12	208.552E-3	-28.3009E-3	-7.67393E-12	253.239E-3	4.80606E-3
-1.03802E-3	-7.72617E-12	195.934E-3	-25.4224E-3	-7.76513E-12	247.160E-3	-1.12059E-3
-1.04302E-3	-7.76958E-12	197.476E-3	-23.1301E-3	-7.73739E-12	247.835E-3	-17.0666E-3
-1.04802E-3	-7.78180E-12	215.874E-3	-20.2631E-3	-7.88355E-12	255.578E-3	-12.0861E-3
-1.05303E-3	-7.82280E-12	235.561E-3	-28.0239E-3	-8.02454E-12	264.714E-3	4.68060E-3
-1.05803E-3	-7.87088E-12	245.680E-3	-30.2648E-3	-8.04281E-12	281.064E-3	-1.25371E-3
-1.06303E-3	-7.94272E-12	241.799E-3	-5.85539E-3	-8.14181E-12	294.967E-3	-18.7460E-3
-1.06803E-3	-7.94535E-12	238.397E-3	13.1832E-3	-8.35667E-12	299.376E-3	-23.5766E-3
-1.07304E-3	-8.05909E-12	260.653E-3	-936.593E-6	-8.61036E-12	309.707E-3	-21.0318E-3
-1.07804E-3	-8.14502E-12	284.126E-3	-23.7318E-3	-8.51462E-12	331.618E-3	-12.6391E-3
-1.08304E-3	-8.25155E-12	286.715E-3	-29.0103E-3	-8.44089E-12	346.390E-3	-4.83950E-3
-1.08804E-3	-8.36559E-12	288.226E-3	-26.1178E-3	-8.61379E-12	346.151E-3	-7.53950E-3
-1.09305E-3	-8.57255E-12	297.980E-3	-22.7040E-3	-8.77482E-12	332.489E-3	-19.6343E-3
-1.09805E-3	-8.89761E-12	311.743E-3	-12.7178E-3	-8.81927E-12	331.305E-3	-31.5741E-3
-1.10305E-3	-8.94952E-12	319.487E-3	-10.7494E-3	-8.80893E-12	354.810E-3	-33.8875E-3
-1.10805E-3	-9.15623E-12	318.666E-3	-17.9890E-3	-8.86295E-12	381.001E-3	-32.8507E-3
-1.11306E-3	-9.33007E-12	320.386E-3	-20.6705E-3	-9.05813E-12	397.739E-3	-24.3011E-3
-1.11806E-3	-9.59574E-12	333.354E-3	-16.6132E-3	-9.19170E-12	404.989E-3	-6.18706E-3
-1.12306E-3	-9.65266E-12	360.789E-3	-14.5491E-3	-9.16030E-12	411.471E-3	-3.08040E-3
-1.12806E-3	-9.80017E-12	387.907E-3	-22.1293E-3	-9.27354E-12	429.080E-3	-19.3608E-3
-1.13307E-3	-10.0913E-12	400.176E-3	-28.7743E-3	-9.52426E-12	452.501E-3	-15.1555E-3
-1.13807E-3	-10.2523E-12	400.643E-3	-16.9427E-3	-9.73904E-12	468.285E-3	-368.565E-6
-1.14307E-3	-10.3869E-12	402.544E-3	-1.90437E-3	-9.90312E-12	473.278E-3	-9.53700E-3
-1.14807E-3	-10.4938E-12	430.156E-3	-8.27225E-3	-10.0598E-12	485.591E-3	-20.6845E-3
-1.15308E-3	-10.4430E-12	467.826E-3	-14.3172E-3	-10.2875E-12	507.653E-3	-19.9235E-3
-1.15808E-3	-10.7092E-12	475.269E-3	-6.39015E-3	-10.5221E-12	521.198E-3	-16.7961E-3
-1.16308E-3	-10.7682E-12	464.442E-3	-8.07056E-3	-10.7550E-12	530.492E-3	-17.1584E-3
-1.16808E-3	-10.8332E-12	470.677E-3	-12.5459E-3	-11.0317E-12	544.699E-3	-23.6963E-3
-1.17309E-3	-10.9631E-12	496.778E-3	-6.03946E-3	-11.1881E-12	573.612E-3	-30.0514E-3
-1.17809E-3	-11.1295E-12	515.083E-3	-12.6311E-3	-11.3056E-12	607.984E-3	-29.1173E-3
-1.18309E-3	-11.1554E-12	519.181E-3	-30.3534E-3	-11.5200E-12	622.267E-3	-25.4567E-3
-1.18809E-3	-11.3888E-12	525.962E-3	-28.8153E-3	-11.7627E-12	624.228E-3	-19.9361E-3
-1.19310E-3	-11.6651E-12	538.382E-3	-12.6880E-3	-11.8445E-12	622.432E-3	-9.52736E-3
-1.19810E-3	-11.8572E-12	562.720E-3	-5.27054E-3	-11.8447E-12	626.438E-3	-9.20088E-3
-1.20310E-3	-12.0792E-12	587.271E-3	-14.4171E-3	-12.1245E-12	654.053E-3	-21.3572E-3
-1.20810E-3	-12.3841E-12	591.368E-3	-25.7001E-3	-12.3134E-12	679.852E-3	-20.5555E-3
-1.21311E-3	-12.6848E-12	595.828E-3	-18.0627E-3	-12.5465E-12	687.047E-3	-6.02447E-3
-1.21811E-3	-12.9066E-12	616.720E-3	-1.52127E-3	-12.4288E-12	693.570E-3	-3.29173E-3
-1.22311E-3	-13.1894E-12	645.778E-3	1.85895E-3	-12.7616E-12	712.408E-3	-17.1875E-3
-1.22811E-3	-13.5792E-12	677.981E-3	-7.43880E-3	-13.1981E-12	745.610E-3	-23.9381E-3
-1.23312E-3	-13.8507E-12	705.047E-3	-21.4589E-3	-13.4485E-12	764.034E-3	-25.3408E-3
-1.23812E-3	-13.9975E-12	722.728E-3	-33.7981E-3	-13.5075E-12	763.523E-3	-28.8763E-3
-1.24312E-3	-14.1988E-12	744.661E-3	-34.7351E-3	-13.8039E-12	778.397E-3	-12.3433E-3
-1.24812E-3	-14.5603E-12	777.221E-3	-15.1882E-3	-14.3152E-12	809.722E-3	-3.25990E-3
-1.25313E-3	-14.7424E-12	797.962E-3	5.77083E-3	-14.5196E-12	843.125E-3	-17.1133E-3
-1.25813E-3	-14.8321E-12	804.623E-3	-167.324E-6	-14.7264E-12	873.186E-3	-13.6611E-3
-1.26313E-3	-15.0554E-12	802.100E-3	-19.8956E-3	-15.0718E-12	885.837E-3	-1.10037E-3
-1.26813E-3	-15.3422E-12	799.975E-3	-24.8400E-3	-15.5499E-12	883.639E-3	1.64901E-3
-1.27314E-3	-15.4141E-12	819.492E-3	-19.0537E-3	-15.7876E-12	893.411E-3	-162.083E-6
-1.27814E-3	-15.6656E-12	847.627E-3	-19.4301E-3	-16.0404E-12	920.281E-3	-4.89032E-3
-1.28314E-3	-15.9692E-12	862.210E-3	-22.7384E-3	-16.2904E-12	936.225E-3	-4.15221E-3
-1.28814E-3	-16.1520E-12	862.424E-3	-28.6825E-3	-16.6835E-12	936.050E-3	-2.32271E-3
-1.29315E-3	-16.4788E-12	862.769E-3	-25.2901E-3	-16.7765E-12	948.877E-3	-17.9244E-3
-1.29815E-3	-16.8103E-12	872.097E-3	-13.0230E-3	-17.0124E-12	966.928E-3	-34.1567E-3
-1.30315E-3	-17.2356E-12	880.760E-3	-20.7845E-3	-17.4560E-12	982.653E-3	-26.2922E-3
-1.30815E-3	-17.5490E-12	900.138E-3	-33.7012E-3	-17.4878E-12	1.00764E+0	-17.1215E-3
-1.31316E-3	-17.9566E-12	934.313E-3	-32.4125E-3	-17.6986E-12	1.02083E+0	-15.8309E-3
-1.31816E-3	-18.3369E-12	967.575E-3	-27.1008E-3	-17.9891E-12	1.02044E+0	-11.2914E-3
-1.32316E-3	-18.7991E-12	999.762E-3	-21.0635E-3	-18.4747E-12	1.03095E+0	-15.8645E-3
-1.32816E-3	-19.1262E-12	1.02117E+0	-23.0036E-3	-18.7311E-12	1.04406E+0	-28.6949E-3
-1.33317E-3	-19.5973E-12	1.02713E+0	-38.5006E-3	-18.9610E-12	1.05778E+0	-29.6124E-3
-1.33817E-3	-19.9263E-12	1.03140E+0	-42.9587E-3	-19.4331E-12	1.07250E+0	-21.6971E-3
-1.34317E-3	-20.3362E-12	1.03752E+0	-25.1873E-3	-19.9125E-12	1.07573E+0	-16.3486E-3
-1.34817E-3	-20.5789E-12	1.05271E+0	-9.87050E-3	-20.1554E-12	1.08628E+0	-11.7515E-3
-1.35318E-3	-20.7323E-12	1.07267E+0	-10.9192E-3	-20.3425E-12	1.10708E+0	-16.1618E-3
-1.35818E-3	-21.1366E-12	1.07189E+0	-21.1666E-3	-20.9373E-12	1.11880E+0	-25.1276E-3
-1.36318E-3	-21.5629E-12	1.06957E+0	-31.7017E-3	-21.6402E-12	1.12854E+0	-23.0197E-3
-1.36818E-3	-21.9080E-12	1.09095E+0	-30.3981E-3	-22.0394E-12	1.14376E+0	-10.2221E-3
-1.37319E-3	-22.0955E-12	1.11641E+0	-19.3572E-3	-22.3382E-12	1.15684E+0	-9.22214E-3
-1.37819E-3	-22.3097E-12	1.12374E+0	-21.7271E-3	-22.9789E-12	1.15843E+0	-22.4824E-3
-1.38319E-3	-22.5914E-12	1.11931E+0	-34.6035E-3	-23.4102E-12	1.17567E+0	-29.6549E-3
-1.38819E-3	-22.9143E-12	1.11033E+0	-37.7778E-3	-23.7109E-12	1.20622E+0	-36.7642E-3
-1.39320E-3	-23.2930E-12	1.10561E+0	-35.7672E-3	-24.0604E-12	1.19927E+0	-37.5273E-3
-1.39820E-3	-23.6476E-12	1.12218E+0	-28.3473E-3	-24.7145E-12	1.18416E+0	-22.6853E-3
-1.40320E-3	-24.1327E-12	1.14295E+0	-17.1319E-3	-25.0185E-12	1.19215E+0	-15.9774E-3
-1.40820E-3	-24.5882E-12	1.14464E+0	-20.6731E-3	-25.2248E-12	1.20117E+0	-21.9848E-3
-1.41321E-3	-24.8366E-12	1.13884E+0	-31.6801E-3	-25.4505E-12	1.21211E+0	-17.0775E-3
-1.41821E-3	-25.5783E-12	1.14453E+0	-33.6993E-3	-25.8624E-12	1.21100E+0	-12.5003E-3
-1.42321E-3	-26.0532E-12	1.15750E+0	-31.3393E-3	-26.3401E-12	1.19019E+0	-26.0063E-3
-1.42821E-3	-26.5748E-12	1.17422E+0	-34.1614E-3	-26.3073E-12	1.18620E+0	-33.8001E-3
-1.43322E-3	-27.1073E-12	1.19499E+0	-30.8221E-3	-26.6375E-12	1.19834E+0	-26.5339E-3
-1.43822E-3	-27.7656E-12	1.20770E+0	-16.6784E-3	-26.9856E-12	1.20138E+0	-21.6908E-3
-1.44322E-3	-28.3977E-12	1.21785E+0	-8.25759E-3	-27.4159E-12	1.20980E+0	-9.23076E-3
-1.44822E-3	-28.7956E-12	1.23112E+0	-3.18026E-3	-27.6869E-12	1.22516E+0	5.69935E-3
-1.45323E-3	-28.9068E-12	1.23793E+0	-6.49859E-3	-28.0664E-12	1.22158E+0	91.5966E-6
-1.45823E-3	-29.4382E-12	1.23342E+0	-19.4613E-3	-28.6444E-12	1.21407E+0	-10.0344E-3
-1.46323E-3	-29.9389E-12	1.23568E+0	-25.4683E-3	-29.2063E-12	1.22833E+0	-18.8613E-3
-1.46823E-3	-29.9530E-12	1.24746E+0	-17.8268E-3	-29.7620E-12	1.23931E+0	-31.5190E-3
-1.47324E-3	-30.0343E-12	1.24312E+0	-8.95368E-3	-30.2382E-12	1.24164E+0	-24.1098E-3
-1.47824E-3	-30.3364E-12	1.23559E+0	-6.80562E-3	-30.9862E-12	1.26163E+0	-12.9869E-3
-1.48324E-3	-30.7024E-12	1.23460E+0	-9.46957E-3	-31.4457E-12	1.27447E+0	-18.3389E-3
-1.48824E-3	-30.7742E-12	1.22399E+0	-26.2029E-3	-32.1128E-12	1.26229E+0	-8.23136E-3
-1.49325E-3	-30.9670E-12	1.19843E+0	-34.5909E-3	-32.6557E-12	1.25231E+0	3.89553E-3
-1.49825E-3	-31.5085E-12	1.18340E+0	-13.1276E-3	-32.9913E-12	1.23967E+0	-2.95332E-3
-1.50325E-3	-32.0751E-12	1.20016E+0	5.44150E-3	-33.3430E-12	1.21678E+0	-6.25187E-3
-1.50825E-3	-32.3205E-12	1.21741E+0	-5.62055E-3	-33.5826E-12	1.20875E+0	-18.1736E-3
-1.51326E-3	-32.9781E-12	1.20795E+0	-29.9668E-3	-34.0060E-12	1.21177E+0	-31.6461E-3
-1.51826E-3	-33.7155E-12	1.18848E+0	-40.1710E-3	-34.4065E-12	1.20270E+0	-17.7921E-3
-1.52326E-3	-34.3532E-12	1.18334E+0	-26.2458E-3	-34.3349E-12	1.19045E+0	-6.32853E-3
-1.52826E-3	-34.8476E-12	1.18977E+0	-9.04300E-3	-34.3165E-12	1.17096E+0	-18.9255E-3
-1.53327E-3	-35.5627E-12	1.19766E+0	-9.51480E-3	-34.5818E-12	1.16109E+0	-22.8112E-3
-1.53827E-3	-36.0718E-12	1.20755E+0	-16.4349E-3	-35.0612E-12	1.17807E+0	-6.76964E-3
-1.54327E-3	-36.8172E-12	1.20845E+0	-18.3668E-3	-35.0888E-12	1.18045E+0	-2.48657E-3
-1.54827E-3	-37.1204E-12	1.20509E+0	-23.4663E-3	-35.2473E-12	1.16115E+0	-5.96533E-3
-1.55328E-3	-37.5362E-12	1.22227E+0	-30.5708E-3	-35.7403E-12	1.15012E+0	-7.29756E-3
-1.55828E-3	-37.8950E-12	1.24249E+0	-31.8525E-3	-36.5048E-12	1.15774E+0	-12.0879E-3
-1.56328E-3	-38.0122E-12	1.23868E+0	-29.7714E-3	-37.1060E-12	1.17214E+0	-8.64219E-3
-1.56828E-3	-38.1367E-12	1.21742E+0	-24.7871E-3	-37.5305E-12	1.18430E+0	-1.79624E-3
-1.57329E-3	-38.3537E-12	1.19657E+0	-16.0922E-3	-38.4212E-12	1.19643E+0	-11.0262E-3
-1.57829E-3	-38.5559E-12	1.17871E+0	-9.60819E-3	-39.1842E-12	1.18870E+0	-20.7328E-3
-1.58329E-3	-38.4587E-12	1.17221E+0	-9.26251E-3	-39.7035E-12	1.17069E+0	-8.06801E-3
-1.58829E-3	-38.7929E-12	1.16812E+0	-14.3496E-3	-40.1811E-12	1.16720E+0	-9.28481E-3
-1.59330E-3	-39.2963E-12	1.14113E+0	-21.0146E-3	-41.1274E-12	1.15340E+0	-22.8319E-3
-1.59830E-3	-39.5227E-12	1.12441E+0	-20.6661E-3	-41.5667E-12	1.14038E+0	-18.0736E-3
-1.60330E-3	-39.6752E-12	1.13822E+0	-14.5954E-3	-41.5380E-12	1.13337E+0	-21.6579E-3
-1.60830E-3	-40.3448E-12	1.14513E+0	-22.7877E-3	-41.9328E-12	1.11706E+0	-28.5986E-3
-1.61331E-3	-40.8028E-12	1.13068E+0	-43.6418E-3	-42.1193E-12	1.11305E+0	-21.4951E-3
-1.61831E-3	-41.6022E-12	1.11952E+0	-49.9257E-3	-42.2039E-12	1.11421E+0	-18.2968E-3
-1.62331E-3	-42.0523E-12	1.11896E+0	-38.4365E-3	-41.9032E-12	1.10087E+0	-22.3825E-3
-1.62831E-3	-42.6866E-12	1.11994E+0	-28.1834E-3	-42.3068E-12	1.08487E+0	-27.6781E-3
-1.63332E-3	-43.1853E-12	1.12279E+0	-21.5075E-3	-42.3480E-12	1.07513E+0	-28.0981E-3
-1.63832E-3	-43.8281E-12	1.12051E+0	-11.3402E-3	-42.2603E-12	1.06291E+0	-26.2238E-3
-1.64332E-3	-44.2572E-12	1.11303E+0	-4.95082E-3	-42.2541E-12	1.05356E+0	-23.1609E-3
-1.64832E-3	-44.7789E-12	1.11215E+0	-8.51134E-3	-42.6623E-12	1.05514E+0	-15.7679E-3
-1.65333E-3	-45.2416E-12	1.11331E+0	-12.6357E-3	-43.0797E-12	1.05390E+0	-12.8591E-3
-1.65833E-3	-45.1852E-12	1.11236E+0	-11.5957E-3	-43.5800E-12	1.05308E+0	-11.1930E-3
-1.66333E-3	-45.3471E-12	1.11514E+0	-8.70076E-3	-43.9634E-12	1.06469E+0	-14.4853E-3
-1.66833E-3	-45.4289E-12	1.10154E+0	-1.40068E-3	-44.6374E-12	1.06700E+0	-31.6047E-3
-1.67334E-3	-45.8372E-12	1.08456E+0	1.81407E-3	-45.6697E-12	1.04986E+0	-34.3228E-3
-1.67834E-3	-45.7165E-12	1.08022E+0	-11.2512E-3	-46.0641E-12	1.03859E+0	-21.1182E-3
-1.68334E-3	-45.7013E-12	1.06949E+0	-25.5017E-3	-46.4902E-12	1.03740E+0	-24.3675E-3
-1.68834E-3	-45.6466E-12	1.05523E+0	-30.6975E-3	-47.1514E-12	1.03662E+0	-21.2636E-3
-1.69335E-3	-45.8797E-12	1.04145E+0	-26.5359E-3	-47.5829E-12	1.03965E+0	-5.75210E-3
-1.69835E-3	-46.0834E-12	1.02459E+0	-13.7457E-3	-47.9937E-12	1.03121E+0	-6.74894E-3
-1.70335E-3	-46.2074E-12	1.01540E+0	-8.48610E-3	-48.3664E-12	1.01047E+0	-7.41467E-3
-1.70835E-3	-46.4539E-12	1.01501E+0	-11.3403E-3	-48.5095E-12	1.00632E+0	-4.92992E-3
-1.71336E-3	-47.2703E-12	1.00465E+0	-12.6357E-3	-48.6253E-12	1.01083E+0	-22.1578E-3
-1.71836E-3	-47.6788E-12	979.835E-3	-25.4958E-3	-49.1553E-12	1.00687E+0	-32.5437E-3
-1.72336E-3	-48.0899E-12	965.670E-3	-40.5501E-3	-49.2619E-12	1.00558E+0	-17.0480E-3
-1.72836E-3	-48.7926E-12	974.507E-3	-21.1839E-3	-49.1557E-12	1.00192E+0	-10.3797E-3
-1.73337E-3	-49.7211E-12	986.065E-3	4.37115E-3	-49.3558E-12	989.288E-3	-16.9756E-3
-1.73837E-3	-50.2340E-12	998.800E-3	-6.42369E-3	-49.7634E-12	985.578E-3	-16.5107E-3
-1.74337E-3	-50.7453E-12	1.00110E+0	-22.9880E-3	-50.1072E-12	985.811E-3	-12.2033E-3
-1.74837E-3	-51.2465E-12	987.261E-3	-23.5991E-3	-50.1053E-12	973.002E-3	-7.58548E-3
-1.75338E-3	-51.8810E-12	989.558E-3	-22.4360E-3	-50.5432E-12	969.756E-3	-10.5178E-3
-1.75838E-3	-52.0577E-12	1.00682E+0	-10.3242E-3	-50.9986E-12	973.407E-3	-26.8620E-3
-1.76338E-3	-52.3146E-12	1.00343E+0	5.02739E-3	-51.5944E-12	962.896E-3	-26.9597E-3
-1.76838E-3	-52.6215E-12	980.265E-3	4.24014E-3	-51.9263E-12	965.835E-3	-9.16014E-3
-1.77339E-3	-52.7969E-12	966.577E-3	-7.02589E-3	-52.4103E-12	975.692E-3	-12.1501E-3
-1.77839E-3	-52.4750E-12	970.703E-3	-24.7311E-3	-52.8206E-12	964.039E-3	-23.9394E-3
-1.78339E-3	-52.5344E-12	980.620E-3	-26.1519E-3	-53.6294E-12	963.039E-3	-14.1856E-3
-1.78839E-3	-52.8780E-12	976.055E-3	-11.9689E-3	-54.2743E-12	974.578E-3	-419.364E-6
-1.79340E-3	-52.8556E-12	949.208E-3	-8.54801E-3	-55.0088E-12	967.918E-3	-7.01528E-3
-1.79840E-3	-52.9009E-12	928.869E-3	-12.1995E-3	-55.4215E-12	964.622E-3	-15.5740E-3
-1.80340E-3	-52.9473E-12	928.540E-3	-5.06022E-3	-55.5899E-12	970.839E-3	-11.1609E-3
-1.80840E-3	-53.1030E-12	926.206E-3	-504.141E-6	-56.4699E-12	961.572E-3	-4.41522E-3
-1.81341E-3	-53.5438E-12	921.697E-3	-17.6074E-3	-56.7179E-12	953.683E-3	-532.619E-6
-1.81841E-3	-53.8141E-12	918.850E-3	-28.0942E-3	-56.7042E-12	957.894E-3	-8.54147E-3
-1.82341E-3	-54.2684E-12	910.714E-3	-18.0740E-3	-56.7047E-12	947.297E-3	-28.4706E-3
-1.82841E-3	-54.9463E-12	906.368E-3	-11.8408E-3	-57.4979E-12	928.332E-3	-25.5190E-3
-1.83342E-3	-55.4584E-12	904.853E-3	-8.71396E-3	-57.4117E-12	916.585E-3	-12.2845E-3
-1.83842E-3	-56.3573E-12	907.854E-3	-3.14563E-3	-56.9132E-12	895.245E-3	-14.2328E-3
-1.84342E-3	-57.2146E-12	919.807E-3	-15.4478E-3	-57.1397E-12	878.688E-3	-12.7945E-3
-1.84842E-3	-57.7590E-12	917.767E-3	-23.5254E-3	-57.3632E-12	890.720E-3	-13.5042E-3
-1.85343E-3	-57.8744E-12	906.023E-3	-7.51291E-3	-57.1916E-12	899.627E-3	-19.3168E-3
-1.85843E-3	-58.4662E-12	916.352E-3	-2.57812E-3	-57.2016E-12	891.387E-3	-15.3631E-3
-1.86343E-3	-59.1719E-12	927.478E-3	-7.22728E-3	-57.4774E-12	890.502E-3	-9.62742E-3
-1.86843E-3	-59.6963E-12	919.707E-3	-7.19948E-3	-57.7730E-12	888.174E-3	-19.6457E-3
-1.87344E-3	-59.1278E-12	912.586E-3	-13.0434E-3	-58.1324E-12	878.712E-3	-27.1027E-3
-1.87844E-3	-59.2783E-12	906.922E-3	-14.4894E-3	-58.2371E-12	882.198E-3	-23.0197E-3
-1.88344E-3	-59.4989E-12	901.522E-3	-13.4407E-3	-58.4025E-12	883.969E-3	-15.4785E-3
-1.88844E-3	-59.8967E-12	897.005E-3	-18.3602E-3	-58.9907E-12	865.559E-3	-2.23126E-3
-1.89345E-3	-59.5002E-12	886.174E-3	-23.2837E-3	-59.1675E-12	861.593E-3	-3.71116E-3
-1.89845E-3	-59.1721E-12	878.901E-3	-25.9157E-3	-59.8033E-12	872.418E-3	-19.1860E-3
-1.90345E-3	-59.2950E-12	880.307E-3	-15.6554E-3	-60.0313E-12	861.273E-3	-22.8165E-3
-1.90845E-3	-59.4145E-12	881.183E-3	-7.65673E-3	-60.7763E-12	854.817E-3	-12.5829E-3
-1.91346E-3	-59.7486E-12	868.575E-3	-12.0485E-3	-61.1734E-12	857.580E-3	-5.17920E-3
-1.91846E-3	-59.4762E-12	842.869E-3	-8.07989E-3	-61.7395E-12	840.568E-3	-370.413E-6
-1.92346E-3	-59.8977E-12	829.907E-3	-2.23137E-3	-62.1425E-12	838.526E-3	1.02389E-3
-1.92846E-3	-60.4414E-12	832.905E-3	-6.03781E-3	-62.4747E-12	866.012E-3	-14.5707E-3
-1.93347E-3	-61.1774E-12	838.985E-3	-13.3226E-3	-62.5130E-12	872.094E-3	-19.0381E-3
-1.93847E-3	-61.5514E-12	844.846E-3	-18.9281E-3	-62.3807E-12	850.546E-3	-6.52485E-3
-1.94347E-3	-62.1069E-12	847.500E-3	-23.6106E-3	-62.0782E-12	833.650E-3	-13.7357E-3
-1.94847E-3	-62.9198E-12	847.869E-3	-19.6589E-3	-61.7141E-12	821.044E-3	-25.7353E-3
-1.95348E-3	-63.9121E-12	851.243E-3	-6.67868E-3	-61.9944E-12	818.908E-3	-18.5603E-3
-1.95848E-3	-64.7968E-12	859.828E-3	-10.6946E-3	-62.0461E-12	826.367E-3	-13.1770E-3
-1.96348E-3	-65.1639E-12	862.997E-3	-25.0384E-3	-61.9080E-12	819.547E-3	-22.2406E-3
-1.96848E-3	-65.8285E-12	848.035E-3	-29.4286E-3	-61.8210E-12	812.039E-3	-33.8153E-3
-1.97349E-3	-66.0586E-12	840.727E-3	-21.1469E-3	-62.1111E-12	823.174E-3	-33.6069E-3
-1.97849E-3	-66.5840E-12	851.861E-3	-5.55581E-3	-62.6361E-12	822.661E-3	-11.5289E-3
-1.98349E-3	-66.0839E-12	857.664E-3	-2.49460E-3	-63.0765E-12	812.525E-3	5.06971E-3
-1.98849E-3	-66.1982E-12	860.138E-3	-7.85406E-3	-63.5116E-12	823.780E-3	-11.5189E-3
-1.99350E-3	-65.8987E-12	854.456E-3	-6.39117E-3	-64.2001E-12	830.147E-3	-35.2722E-3
-1.99850E-3	-65.5828E-12	850.617E-3	-6.18921E-3	-65.4362E-12	827.383E-3	-27.9894E-3
-2.00350E-3	-65.6387E-12	854.242E-3	-10.1791E-3	-66.3606E-12	835.439E-3	-3.98544E-3
-2.00850E-3	-65.2484E-12	838.890E-3	-18.8606E-3	-66.6660E-12	843.011E-3	-4.01506E-3
-2.01351E-3	-65.0153E-12	816.336E-3	-35.9753E-3	-67.6099E-12	843.520E-3	-13.4453E-3
-2.01851E-3	-65.1817E-12	809.557E-3	-50.0455E-3	-68.4885E-12	848.072E-3	-12.4713E-3
-2.02351E-3	-65.6242E-12	805.729E-3	-44.5981E-3	-69.2605E-12	854.738E-3	-13.7941E-3
-2.02851E-3	-65.6343E-12	801.616E-3	-26.3537E-3	-68.9481E-12	855.446E-3	-12.0868E-3
-2.03352E-3	-65.8984E-12	810.935E-3	-8.93056E-3	-68.9893E-12	848.834E-3	-9.02742E-3
-2.03852E-3	-66.7996E-12	822.955E-3	-2.27870E-3	-68.9014E-12	826.826E-3	-10.8832E-3
-2.04352E-3	-67.4844E-12	816.370E-3	-12.7311E-3	-69.0857E-12	805.737E-3	-7.52650E-3
-2.04852E-3	-68.0434E-12	806.797E-3	-23.1910E-3	-68.6895E-12	800.189E-3	-10.6489E-3
-2.05353E-3	-68.8532E-12	812.051E-3	-19.6307E-3	-68.2376E-12	797.412E-3	-16.8862E-3
-2.05853E-3	-70.1497E-12	816.787E-3	-6.90977E-3	-68.3191E-12	793.454E-3	-1.03813E-3
-2.06353E-3	-70.4753E-12	829.046E-3	-4.23375E-3	-68.3243E-12	794.091E-3	11.8680E-3
-2.06853E-3	-70.9571E-12	847.455E-3	-21.2046E-3	-68.5232E-12	792.764E-3	-16.1272E-3
-2.07354E-3	-71.2680E-12	837.620E-3	-38.4335E-3	-68.4407E-12	789.459E-3	-38.5342E-3
-2.07854E-3	-72.0062E-12	814.602E-3	-42.8876E-3	-68.7515E-12	802.237E-3	-20.4300E-3
-2.08354E-3	-72.1915E-12	813.398E-3	-33.7308E-3	-69.0362E-12	822.627E-3	-10.9290E-3
-2.08854E-3	-72.1661E-12	824.906E-3	-18.0856E-3	-69.9909E-12	827.426E-3	-5.68878E-3
-2.09355E-3	-71.7756E-12	823.921E-3	-11.9681E-3	-70.7350E-12	822.492E-3	1.46481E-3
-2.09855E-3	-71.6431E-12	810.093E-3	-7.75936E-3	-71.2155E-12	815.342E-3	-25.2997E-3
-2.10355E-3	-71.1587E-12	800.424E-3	-5.52201E-3	-72.3927E-12	800.786E-3	-47.6462E-3
-2.10855E-3	-71.2293E-12	810.352E-3	-16.2194E-3	-73.3310E-12	804.627E-3	-38.0144E-3
-2.11356E-3	-70.7152E-12	822.949E-3	-26.7878E-3	-73.8277E-12	821.000E-3	-36.8231E-3
-2.11856E-3	-70.5798E-12	806.021E-3	-32.5647E-3	-73.8393E-12	811.877E-3	-38.3956E-3
-2.12356E-3	-70.6274E-12	779.730E-3	-38.4138E-3	-74.2195E-12	796.619E-3	-20.3172E-3
-2.12856E-3	-70.8713E-12	767.217E-3	-33.3004E-3	-74.3523E-12	793.784E-3	-25.4725E-3
-2.13357E-3	-70.9113E-12	774.063E-3	-20.4451E-3	-74.5695E-12	794.866E-3	-45.9195E-3
-2.13857E-3	-71.1608E-12	800.794E-3	-21.2116E-3	-74.0788E-12	790.981E-3	-31.4413E-3
-2.14357E-3	-71.9920E-12	813.583E-3	-28.6291E-3	-73.3498E-12	787.023E-3	-13.1031E-3
-2.14857E-3	-72.3349E-12	793.381E-3	-22.7974E-3	-73.5408E-12	789.945E-3	-6.11159E-3
-2.15358E-3	-72.9508E-12	767.687E-3	-4.47944E-3	-73.6049E-12	783.836E-3	12.9659E-3
-2.15858E-3	-73.5888E-12	752.024E-3	9.34650E-3	-73.4448E-12	774.109E-3	8.85074E-3
-2.16358E-3	-74.8098E-12	758.182E-3	-356.672E-6	-73.1959E-12	767.737E-3	-19.5465E-3
-2.16858E-3	-75.6318E-12	780.728E-3	-22.5303E-3	-73.6725E-12	752.533E-3	-19.7877E-3
-2.17359E-3	-76.4086E-12	789.903E-3	-23.5400E-3	-74.2488E-12	747.909E-3	-13.7135E-3
-2.17859E-3	-77.0690E-12	792.066E-3	-11.8783E-3	-73.9614E-12	759.462E-3	-27.8497E-3
-2.18359E-3	-77.1080E-12	791.926E-3	-17.9331E-3	-73.8743E-12	767.981E-3	-27.8118E-3
-2.18859E-3	-77.4960E-12	789.833E-3	-28.6866E-3	-74.2946E-12	775.795E-3	-18.8616E-3
-2.19360E-3	-77.2040E-12	785.064E-3	-25.4654E-3	-75.4335E-12	772.476E-3	-29.0288E-3
-2.19860E-3	-76.9967E-12	768.482E-3	-20.4978E-3	-76.0058E-12	761.145E-3	-34.7782E-3
-2.20360E-3	-76.7255E-12	766.385E-3	-24.5400E-3	-76.1975E-12	763.760E-3	-25.8241E-3
-2.20860E-3	-76.7109E-12	785.890E-3	-25.0038E-3	-76.5417E-12	767.464E-3	-18.9823E-3
-2.21361E-3	-76.4527E-12	792.262E-3	-21.0870E-3	-77.5071E-12	755.567E-3	-19.9216E-3
-2.21861E-3	-76.1906E-12	790.100E-3	-17.3242E-3	-77.5368E-12	747.646E-3	-24.6855E-3
-2.22361E-3	-76.0748E-12	795.919E-3	-7.67431E-3	-77.9351E-12	745.843E-3	-37.7494E-3
-2.22861E-3	-76.1504E-12	792.264E-3	3.56430E-3	-78.2578E-12	747.218E-3	-46.4364E-3
-2.23362E-3	-76.4970E-12	771.111E-3	11.9820E-3	-78.9232E-12	756.338E-3	-31.0427E-3
-2.23862E-3	-76.5008E-12	754.198E-3	9.49963E-3	-78.8895E-12	751.649E-3	-27.5855E-3
-2.24362E-3	-76.9861E-12	754.128E-3	-11.1801E-3	-78.6710E-12	739.685E-3	-38.5763E-3
-2.24862E-3	-77.5049E-12	749.620E-3	-23.4452E-3	-79.0165E-12	744.263E-3	-37.5520E-3
-2.25363E-3	-78.0013E-12	740.519E-3	-18.3876E-3	-79.1909E-12	749.883E-3	-37.9132E-3
-2.25863E-3	-78.6554E-12	738.104E-3	-17.1132E-3	-78.8521E-12	735.327E-3	-37.5215E-3
-2.26363E-3	-79.4275E-12	738.576E-3	-24.5240E-3	-78.7368E-12	728.261E-3	-26.2753E-3
-2.26863E-3	-80.3690E-12	751.331E-3	-40.0496E-3	-78.7762E-12	737.823E-3	-19.0634E-3
-2.27364E-3	-80.7338E-12	769.693E-3	-42.7867E-3	-78.9589E-12	730.788E-3	-18.6734E-3
-2.27864E-3	-81.2477E-12	773.120E-3	-32.5887E-3	-78.7737E-12	729.405E-3	-8.47106E-3
-2.28364E-3	-81.8925E-12	767.801E-3	-25.2429E-3	-79.3690E-12	741.298E-3	2.87998E-3
-2.28864E-3	-82.4664E-12	766.008E-3	-11.0996E-3	-79.4644E-12	736.480E-3	8.72653E-3
-2.29365E-3	-82.3526E-12	764.265E-3	-3.69851E-3	-79.7051E-12	734.008E-3	5.65831E-3
-2.29865E-3	-82.4790E-12	761.568E-3	-9.85190E-3	-79.7874E-12	745.736E-3	-10.0925E-3
-2.30365E-3	-82.8053E-12	760.498E-3	-12.1391E-3	-80.0665E-12	746.511E-3	-27.7408E-3
-2.30865E-3	-82.7052E-12	769.657E-3	-15.5854E-3	-80.6688E-12	735.296E-3	-43.1964E-3
-2.31366E-3	-82.6288E-12	786.160E-3	-20.4845E-3	-81.1243E-12	730.496E-3	-50.0069E-3
-2.31866E-3	-82.2470E-12	775.469E-3	-18.0443E-3	-82.1394E-12	730.615E-3	-39.3734E-3
-2.32366E-3	-82.1686E-12	747.870E-3	-20.3382E-3	-82.7805E-12	736.109E-3	-22.0398E-3
-2.32866E-3	-82.4029E-12	742.200E-3	-23.2223E-3	-83.7159E-12	748.012E-3	-17.4510E-3
-2.33367E-3	-82.4500E-12	737.475E-3	-30.6923E-3	-84.0560E-12	745.054E-3	-23.1847E-3
-2.33867E-3	-81.8650E-12	729.694E-3	-36.9057E-3	-84.4384E-12	740.305E-3	-22.0563E-3
-2.34367E-3	-81.4318E-12	729.991E-3	-27.3978E-3	-84.8768E-12	754.104E-3	-19.2286E-3
-2.34867E-3	-82.4371E-12	725.490E-3	-21.5824E-3	-85.0670E-12	759.197E-3	-17.3917E-3
-2.35368E-3	-82.5758E-12	723.936E-3	-15.7257E-3	-84.8612E-12	742.994E-3	-11.2333E-3
-2.35868E-3	-83.0861E-12	732.509E-3	-6.44463E-3	-85.0045E-12	727.171E-3	-15.6080E-3
-2.36368E-3	-83.5241E-12	750.038E-3	-10.0591E-3	-84.9474E-12	724.491E-3	-10.8609E-3
-2.36868E-3	-84.8166E-12	766.012E-3	-20.7276E-3	-84.3257E-12	719.042E-3	8.22545E-3
-2.37369E-3	-85.3394E-12	759.323E-3	-26.2860E-3	-84.1830E-12	713.727E-3	-2.66832E-3
-2.37869E-3	-85.5465E-12	737.388E-3	-32.6983E-3	-83.9961E-12	706.418E-3	-23.4985E-3
-2.38369E-3	-86.1290E-12	717.746E-3	-39.9561E-3	-83.7145E-12	704.933E-3	-12.2029E-3
-2.38869E-3	-87.1676E-12	719.340E-3	-37.0727E-3	-83.7134E-12	726.232E-3	2.71074E-3
-2.39370E-3	-87.8336E-12	733.875E-3	-18.8513E-3	-83.5878E-12	730.719E-3	-8.19523E-3
-2.39870E-3	-87.5685E-12	730.521E-3	-12.9670E-3	-84.1215E-12	715.766E-3	-13.5367E-3
-2.40370E-3	-87.6788E-12	736.630E-3	-24.7101E-3	-84.5376E-12	730.190E-3	-3.27838E-3
-2.40870E-3	-87.8553E-12	759.384E-3	-15.0952E-3	-85.1445E-12	761.481E-3	-5.32661E-3
-2.41371E-3	-87.7044E-12	767.211E-3	10.9076E-3	-85.9497E-12	762.350E-3	-12.2680E-3
-2.41871E-3	-87.3636E-12	771.124E-3	18.0011E-3	-86.9038E-12	747.692E-3	-14.9408E-3
-2.42371E-3	-87.2711E-12	764.497E-3	10.1477E-3	-88.2393E-12	743.359E-3	-22.3332E-3
-2.42871E-3	-86.9198E-12	739.693E-3	-871.573E-6	-88.6847E-12	734.156E-3	-24.3865E-3
-2.43372E-3	-86.3595E-12	730.300E-3	-2.06312E-3	-89.6806E-12	732.132E-3	-9.59649E-3
-2.43872E-3	-86.6234E-12	733.231E-3	7.38166E-3	-90.3682E-12	748.793E-3	5.18218E-3
-2.44372E-3	-86.9812E-12	732.228E-3	-5.21910E-3	-90.9017E-12	749.404E-3	-3.88385E-3
-2.44872E-3	-87.1725E-12	733.374E-3	-24.8228E-3	-90.9347E-12	755.124E-3	-9.95118E-3
-2.45373E-3	-87.1956E-12	731.070E-3	-28.9088E-3	-90.9740E-12	774.560E-3	-6.74820E-3
-2.45873E-3	-87.9759E-12	733.390E-3	-26.9482E-3	-90.8648E-12	759.687E-3	-9.79511E-3
-2.46373E-3	-88.4913E-12	744.413E-3	-17.7097E-3	-90.9569E-12	736.744E-3	-3.54489E-3
-2.46873E-3	-89.2415E-12	744.865E-3	-10.3365E-3	-90.3284E-12	735.957E-3	-3.52483E-3
-2.47374E-3	-89.7004E-12	736.264E-3	-13.7849E-3	-90.0954E-12	724.952E-3	-7.36043E-3
-2.47874E-3	-90.8046E-12	734.077E-3	-17.1578E-3	-89.5877E-12	703.213E-3	2.89176E-3
-2.48374E-3	-91.8117E-12	741.530E-3	-5.06303E-3	-89.1528E-12	702.724E-3	8.64151E-3
-2.48874E-3	-92.6426E-12	740.162E-3	183.602E-6	-89.2546E-12	698.892E-3	10.8169E-3
-2.49375E-3	-92.3185E-12	737.958E-3	-18.2935E-3	-89.0239E-12	688.328E-3	13.8435E-3
-2.49875E-3	-92.6268E-12	732.218E-3	-29.4746E-3	-89.3681E-12	706.767E-3	926.148E-6
-2.50375E-3	-93.3146E-12	716.179E-3	-22.8649E-3	-89.6723E-12	723.665E-3	-2.74868E-3
-2.50875E-3	-93.3002E-12	718.349E-3	-10.3077E-3	-90.1927E-12	719.213E-3	10.1202E-3
-2.51376E-3	-93.1414E-12	733.652E-3	5.07656E-3	-91.0524E-12	721.131E-3	3.49656E-3
-2.51876E-3	-92.5769E-12	733.954E-3	10.1407E-3	-91.9955E-12	723.716E-3	-17.3599E-3
-2.52376E-3	-92.7085E-12	723.045E-3	-1.57113E-3	-92.9197E-12	713.904E-3	-23.8448E-3
-2.52876E-3	-92.0881E-12	714.652E-3	-14.8177E-3	-93.7286E-12	701.473E-3	-14.5615E-3
-2.53377E-3	-92.2086E-12	703.818E-3	-16.4606E-3	-94.3377E-12	695.718E-3	-12.0206E-3
-2.53877E-3	-91.8883E-12	696.753E-3	-17.8290E-3	-94.5051E-12	707.095E-3	-20.2495E-3
-2.54377E-3	-91.3396E-12	702.847E-3	-16.4925E-3	-95.2470E-12	718.614E-3	-17.9462E-3
-2.54877E-3	-91.3179E-12	714.809E-3	-6.46797E-3	-95.7705E-12	715.053E-3	-13.2483E-3
-2.55378E-3	-91.8656E-12	724.943E-3	-5.04861E-3	-96.2319E-12	719.015E-3	-13.5590E-3
-2.55878E-3	-92.5134E-12	725.944E-3	-4.00544E-3	-95.7494E-12	728.836E-3	-22.7768E-3
-2.56378E-3	-92.5673E-12	719.085E-3	4.36641E-3	-95.6221E-12	729.684E-3	-33.8354E-3
-2.56878E-3	-93.3201E-12	716.173E-3	4.99326E-3	-95.4795E-12	719.345E-3	-19.8283E-3
-2.57379E-3	-93.7847E-12	718.793E-3	-12.7855E-3	-95.2490E-12	706.952E-3	345.014E-6
-2.57879E-3	-94.9675E-12	714.486E-3	-25.6312E-3	-94.8207E-12	694.334E-3	9.33310E-3
-2.58379E-3	-95.9260E-12	706.489E-3	-17.4559E-3	-93.8666E-12	682.702E-3	10.8832E-3
-2.58879E-3	-96.9210E-12	712.168E-3	-11.3306E-3	-94.0397E-12	690.687E-3	-6.09366E-3
-2.59380E-3	-97.5950E-12	726.120E-3	-19.9712E-3	-93.9084E-12	698.394E-3	-34.3613E-3
-2.59880E-3	-98.5088E-12	728.740E-3	-34.5142E-3	-93.8810E-12	695.888E-3	-38.6486E-3
-2.60380E-3	-99.2339E-12	722.551E-3	-30.1588E-3	-93.5933E-12	699.729E-3	-31.2502E-3
-2.60880E-3	-98.2989E-12	723.866E-3	-13.1438E-3	-94.0274E-12	693.060E-3	-39.9954E-3
-2.61381E-3	-98.7557E-12	735.940E-3	-19.0112E-3	-94.8536E-12	683.853E-3	-28.4338E-3
-2.61881E-3	-98.4124E-12	753.067E-3	-29.2453E-3	-95.1495E-12	701.987E-3	-4.72493E-3
-2.62381E-3	-98.2046E-12	761.126E-3	-11.2426E-3	-95.7439E-12	710.455E-3	-13.2044E-3
-2.62881E-3	-97.5410E-12	745.539E-3	4.07404E-3	-96.6622E-12	699.356E-3	-25.9413E-3
-2.63382E-3	-97.4470E-12	724.244E-3	-2.16127E-3	-97.4754E-12	713.354E-3	-14.7534E-3
-2.63882E-3	-97.2220E-12	712.131E-3	-5.02609E-3	-98.2001E-12	729.558E-3	-3.68156E-3
-2.64382E-3	-96.6672E-12	703.655E-3	-13.4297E-3	-98.4785E-12	720.288E-3	-810.660E-6
-2.64882E-3	-96.7299E-12	699.835E-3	-27.6377E-3	-99.0448E-12	705.654E-3	420.471E-6
-2.65383E-3	-96.7781E-12	684.372E-3	-24.8560E-3	-98.8514E-12	693.925E-3	-8.90111E-3
-2.65883E-3	-97.2796E-12	669.418E-3	-16.4774E-3	-99.0517E-12	687.853E-3	-15.9012E-3
-2.66383E-3	-97.1783E-12	678.208E-3	-14.7922E-3	-99.5521E-12	700.352E-3	-4.85988E-3
-2.66883E-3	-97.6604E-12	688.877E-3	-16.3596E-3	-99.8591E-12	705.550E-3	-8.51936E-3
-2.67384E-3	-97.8653E-12	694.858E-3	-24.5141E-3	-99.7617E-12	696.323E-3	-31.4698E-3
-2.67884E-3	-99.1830E-12	712.195E-3	-27.6601E-3	-99.7944E-12	706.483E-3	-35.5950E-3
-2.68384E-3	-99.6331E-12	722.510E-3	-18.8900E-3	-99.9573E-12	722.987E-3	-18.8926E-3
-2.68884E-3	-100.283E-12	714.910E-3	-11.8645E-3	-99.6321E-12	710.931E-3	2.36653E-3
-2.69385E-3	-101.121E-12	708.149E-3	-24.3807E-3	-99.6066E-12	685.152E-3	14.4275E-3
-2.69885E-3	-102.003E-12	705.821E-3	-39.1690E-3	-99.7964E-12	678.262E-3	7.02015E-3
-2.70385E-3	-102.020E-12	695.392E-3	-40.5169E-3	-100.112E-12	689.083E-3	-4.94373E-3
-2.70885E-3	-101.832E-12	694.368E-3	-40.9662E-3	-99.8244E-12	701.505E-3	-5.04492E-3
-2.71386E-3	-101.895E-12	709.226E-3	-30.5188E-3	-100.065E-12	698.046E-3	-475.002E-6
-2.71886E-3	-101.670E-12	705.659E-3	-11.8172E-3	-100.252E-12	678.896E-3	-4.24259E-3
-2.72386E-3	-101.163E-12	695.248E-3	-7.97168E-3	-100.085E-12	684.773E-3	-8.50910E-3
-2.72886E-3	-100.575E-12	699.180E-3	-14.1676E-3	-100.680E-12	720.022E-3	-9.47523E-3
-2.73387E-3	-100.645E-12	699.034E-3	-10.0769E-3	-101.709E-12	721.605E-3	-19.2040E-3
-2.73887E-3	-100.746E-12	701.774E-3	3.33752E-3	-102.483E-12	689.347E-3	-21.3245E-3
-2.74387E-3	-100.344E-12	714.073E-3	6.74705E-3	-102.629E-12	691.460E-3	-14.2982E-3
-2.74887E-3	-99.8956E-12	709.630E-3	-13.3860E-3	-102.906E-12	703.024E-3	-11.7199E-3
-2.75388E-3	-100.486E-12	681.733E-3	-26.9978E-3	-103.963E-12	694.437E-3	-10.6561E-3
-2.75888E-3	-100.689E-12	663.725E-3	-11.3387E-3	-104.734E-12	699.977E-3	-13.9189E-3
-2.76388E-3	-100.796E-12	667.465E-3	9.35396E-3	-105.239E-12	690.979E-3	-18.0584E-3
-2.76888E-3	-101.530E-12	667.968E-3	8.58254E-3	-105.147E-12	677.081E-3	-17.7191E-3
-2.77389E-3	-101.997E-12	673.593E-3	-15.1547E-3	-105.060E-12	697.151E-3	-13.6890E-3
-2.77889E-3	-102.860E-12	678.933E-3	-27.4110E-3	-105.358E-12	710.494E-3	-16.6304E-3
-2.78389E-3	-103.985E-12	667.156E-3	-30.4824E-3	-105.308E-12	696.140E-3	-22.0943E-3
-2.78889E-3	-104.859E-12	666.739E-3	-35.1896E-3	-104.832E-12	689.180E-3	-20.3765E-3
-2.79390E-3	-105.042E-12	684.563E-3	-25.3534E-3	-104.459E-12	688.673E-3	-20.6677E-3
-2.79890E-3	-105.788E-12	701.384E-3	-16.6704E-3	-104.453E-12	677.167E-3	-25.5733E-3
-2.80390E-3	-106.751E-12	706.658E-3	-27.4627E-3	-104.603E-12	678.640E-3	-31.8598E-3
-2.80890E-3	-107.189E-12	701.793E-3	-29.6957E-3	-104.319E-12	698.427E-3	-30.6778E-3
-2.81391E-3	-107.055E-12	694.904E-3	-18.1730E-3	-104.047E-12	700.053E-3	-17.9599E-3
-2.81891E-3	-106.728E-12	699.328E-3	-11.4130E-3	-104.800E-12	688.162E-3	-16.1015E-3
-2.82391E-3	-106.837E-12	693.226E-3	-1.01089E-3	-105.562E-12	691.221E-3	-24.4671E-3
-2.82891E-3	-106.878E-12	665.402E-3	3.40685E-3	-105.977E-12	702.510E-3	-22.3403E-3
-2.83392E-3	-106.793E-12	659.331E-3	-11.6133E-3	-106.064E-12	720.119E-3	-11.0992E-3
-2.83892E-3	-106.190E-12	675.902E-3	-22.4976E-3	-107.567E-12	732.142E-3	-4.94469E-3
-2.84392E-3	-105.741E-12	687.435E-3	-25.4269E-3	-108.711E-12	718.796E-3	-7.79555E-3
-2.84892E-3	-105.949E-12	687.856E-3	-37.5137E-3	-109.413E-12	708.734E-3	-9.47352E-3
-2.85393E-3	-106.376E-12	686.991E-3	-34.8243E-3	-109.860E-12	715.772E-3	-7.57366E-3
-2.85893E-3	-106.488E-12	692.538E-3	-23.0779E-3	-110.323E-12	709.135E-3	-1.81205E-3
-2.86393E-3	-105.847E-12	689.471E-3	-27.7525E-3	-111.211E-12	696.265E-3	5.02666E-3
-2.86893E-3	-106.312E-12	675.711E-3	-28.2432E-3	-110.914E-12	698.187E-3	-4.27747E-3
-2.87394E-3	-106.896E-12	663.154E-3	-13.0579E-3	-110.936E-12	696.698E-3	-14.3222E-3
-2.87894E-3	-107.423E-12	670.495E-3	-3.38756E-3	-110.366E-12	687.734E-3	-4.72781E-3
-2.88394E-3	-107.909E-12	688.948E-3	-2.72118E-3	-110.089E-12	696.802E-3	-9.36715E-3
-2.88894E-3	-108.511E-12	689.734E-3	254.865E-6	-109.613E-12	710.402E-3	-29.9630E-3
-2.89395E-3	-109.693E-12	687.857E-3	-11.2946E-3	-108.967E-12	702.715E-3	-26.5315E-3
-2.89895E-3	-110.737E-12	696.962E-3	-33.0219E-3	-108.723E-12	687.726E-3	-20.8935E-3
-2.90395E-3	-111.971E-12	702.658E-3	-37.3190E-3	-108.399E-12	677.028E-3	-34.1224E-3
-2.90895E-3	-112.465E-12	697.158E-3	-23.9054E-3	-108.289E-12	669.249E-3	-32.1835E-3
-2.91396E-3	-112.769E-12	696.093E-3	-13.5497E-3	-108.345E-12	674.943E-3	-6.88380E-3
-2.91896E-3	-112.843E-12	699.514E-3	-12.4704E-3	-108.521E-12	676.699E-3	14.9839E-3
-2.92396E-3	-113.684E-12	698.478E-3	-10.3838E-3	-108.553E-12	669.326E-3	7.30232E-3
-2.92896E-3	-114.098E-12	708.247E-3	-10.7574E-3	-109.075E-12	677.029E-3	-16.4513E-3
-2.93397E-3	-113.492E-12	714.485E-3	-16.6593E-3	-110.183E-12	692.417E-3	-20.6852E-3
-2.93897E-3	-112.735E-12	698.925E-3	-26.1556E-3	-110.439E-12	704.583E-3	450.474E-6
-2.94397E-3	-112.347E-12	690.326E-3	-27.5327E-3	-111.386E-12	713.471E-3	10.1410E-3
-2.94897E-3	-112.059E-12	688.349E-3	-32.1735E-3	-112.581E-12	714.449E-3	2.81941E-3
-2.95398E-3	-111.972E-12	672.961E-3	-43.3281E-3	-113.989E-12	714.634E-3	-7.40833E-3
-2.95898E-3	-110.842E-12	649.132E-3	-27.5021E-3	-114.605E-12	719.734E-3	-31.7459E-3
-2.96398E-3	-110.702E-12	631.305E-3	-10.6095E-3	-114.404E-12	723.140E-3	-47.1934E-3
-2.96898E-3	-111.131E-12	643.309E-3	-16.6198E-3	-114.866E-12	716.345E-3	-28.5389E-3
-2.97399E-3	-110.450E-12	669.487E-3	-18.6236E-3	-114.896E-12	703.975E-3	-8.33010E-3
-2.97899E-3	-110.422E-12	680.562E-3	-18.8522E-3	-114.977E-12	694.835E-3	-19.2818E-3
-2.98399E-3	-110.583E-12	680.208E-3	-27.5783E-3	-114.263E-12	698.875E-3	-22.1247E-3
-2.98899E-3	-111.669E-12	684.093E-3	-36.8842E-3	-113.912E-12	714.672E-3	-9.80065E-3
-2.99400E-3	-112.505E-12	688.206E-3	-34.1025E-3	-113.763E-12	711.604E-3	-9.97589E-3
-2.99900E-3	-113.523E-12	678.477E-3	-25.3158E-3	-113.409E-12	688.424E-3	-1.32380E-3
-3.00400E-3	-114.653E-12	685.751E-3	-24.6885E-3	-112.973E-12	687.618E-3	4.27424E-3
-3.00900E-3	-115.210E-12	696.481E-3	-29.2763E-3	-112.233E-12	688.201E-3	-16.5146E-3
-3.01401E-3	-116.088E-12	681.797E-3	-33.5044E-3	-112.459E-12	672.199E-3	-31.9365E-3
-3.01901E-3	-117.657E-12	672.200E-3	-39.4726E-3	-112.138E-12	686.480E-3	-26.1166E-3
-3.02401E-3	-117.866E-12	674.668E-3	-38.6776E-3	-112.872E-12	705.069E-3	-29.9130E-3
-3.02901E-3	-118.065E-12	684.287E-3	-35.6914E-3	-113.098E-12	697.058E-3	-37.3857E-3
-3.03402E-3	-117.882E-12	701.828E-3	-36.6571E-3	-113.777E-12	702.776E-3	-30.1339E-3
-3.03902E-3	-119.227E-12	713.297E-3	-19.6741E-3	-114.995E-12	716.008E-3	-20.1558E-3
-3.04402E-3	-118.389E-12	708.550E-3	2.53876E-3	-116.387E-12	709.805E-3	-7.52668E-3
-3.04902E-3	-117.418E-12	699.799E-3	-1.23790E-3	-116.528E-12	696.375E-3	909.686E-6
-3.05403E-3	-116.762E-12	702.050E-3	-18.6593E-3	-117.547E-12	691.393E-3	-8.33715E-3
-3.05903E-3	-115.824E-12	712.409E-3	-26.4462E-3	-118.697E-12	692.071E-3	-18.7556E-3
-3.06403E-3	-115.355E-12	716.646E-3	-29.6180E-3	-119.185E-12	690.220E-3	-13.6559E-3
-3.06903E-3	-114.534E-12	707.298E-3	-19.6011E-3	-118.674E-12	690.025E-3	-15.3648E-3
-3.07404E-3	-114.931E-12	687.109E-3	-1.04219E-3	-119.217E-12	678.482E-3	-23.8713E-3
-3.07904E-3	-114.910E-12	659.385E-3	2.54878E-3	-119.542E-12	652.054E-3	-25.5196E-3
-3.08404E-3	-115.142E-12	641.657E-3	7.75712E-3	-119.939E-12	650.486E-3	-29.3590E-3
-3.08904E-3	-115.724E-12	640.901E-3	10.1526E-3	-119.557E-12	677.300E-3	-27.6739E-3
-3.09405E-3	-116.601E-12	646.253E-3	-10.6916E-3	-119.605E-12	696.020E-3	-15.9788E-3
-3.09905E-3	-118.209E-12	659.959E-3	-24.7445E-3	-119.630E-12	691.114E-3	-20.8204E-3
-3.10405E-3	-118.285E-12	668.430E-3	-19.9198E-3	-118.515E-12	678.528E-3	-44.6768E-3
-3.10905E-3	-119.150E-12	661.175E-3	-16.6375E-3	-118.956E-12	683.233E-3	-38.0783E-3
-3.11406E-3	-121.228E-12	668.570E-3	-17.6450E-3	-118.523E-12	696.157E-3	-15.5315E-3
-3.11906E-3	-122.701E-12	685.438E-3	-16.9417E-3	-118.513E-12	688.963E-3	-30.6886E-3
-3.12406E-3	-122.750E-12	677.513E-3	-28.5114E-3	-118.474E-12	675.937E-3	-41.7536E-3
-3.12906E-3	-122.818E-12	672.652E-3	-48.2606E-3	-118.746E-12	675.162E-3	-25.9933E-3
-3.13407E-3	-124.060E-12	684.884E-3	-38.1212E-3	-119.641E-12	662.855E-3	-25.8416E-3
-3.13907E-3	-123.935E-12	687.959E-3	-23.0727E-3	-119.155E-12	656.041E-3	-32.4421E-3
-3.14407E-3	-123.755E-12	696.163E-3	-30.3629E-3	-119.224E-12	681.810E-3	-11.8443E-3
-3.14907E-3	-123.383E-12	710.561E-3	-23.8626E-3	-119.716E-12	684.699E-3	-5.42432E-3
-3.15408E-3	-122.573E-12	700.718E-3	-11.9000E-3	-121.884E-12	672.596E-3	-28.8484E-3
-3.15908E-3	-122.441E-12	696.816E-3	-13.6229E-3	-122.762E-12	701.011E-3	-33.1191E-3
-3.16408E-3	-121.853E-12	703.855E-3	-15.4889E-3	-122.712E-12	719.348E-3	-35.0929E-3
-3.16908E-3	-121.500E-12	696.066E-3	-18.6562E-3	-123.366E-12	707.974E-3	-27.9065E-3
-3.17409E-3	-120.826E-12	696.127E-3	-18.2998E-3	-125.594E-12	703.600E-3	-4.37805E-3
-3.17909E-3	-120.554E-12	687.014E-3	-1.58063E-3	-126.300E-12	703.611E-3	-13.6168E-3
-3.18409E-3	-121.393E-12	653.917E-3	9.20434E-3	-125.347E-12	704.946E-3	-31.6099E-3
-3.18909E-3	-121.708E-12	631.600E-3	5.80056E-3	-125.165E-12	713.649E-3	-27.4921E-3
-3.19410E-3	-122.368E-12	638.415E-3	6.10924E-3	-125.211E-12	700.816E-3	-19.4056E-3
-3.19910E-3	-122.178E-12	644.975E-3	-2.39949E-3	-125.412E-12	659.917E-3	-7.47286E-3
-3.20410E-3	-123.911E-12	639.032E-3	-13.4577E-3	-124.821E-12	656.144E-3	510.263E-6
-3.20910E-3	-124.747E-12	648.428E-3	-12.5918E-3	-123.914E-12	690.245E-3	-12.3791E-3
-3.21411E-3	-125.491E-12	673.275E-3	-16.9714E-3	-123.351E-12	692.364E-3	-23.1112E-3
-3.21911E-3	-125.629E-12	694.291E-3	-20.2822E-3	-123.835E-12	655.261E-3	-12.4874E-3
-3.22411E-3	-125.804E-12	698.953E-3	-14.4745E-6	-124.001E-12	625.836E-3	8.78027E-3
-3.22911E-3	-126.711E-12	685.905E-3	11.1762E-3	-123.638E-12	619.721E-3	13.5163E-3
-3.23412E-3	-127.137E-12	684.106E-3	-17.7496E-3	-122.755E-12	630.766E-3	-5.34914E-3
-3.23912E-3	-127.392E-12	711.513E-3	-37.3443E-3	-122.547E-12	661.679E-3	-16.4409E-3
-3.24412E-3	-126.795E-12	730.346E-3	-29.2555E-3	-123.694E-12	674.825E-3	-2.89472E-3
-3.24912E-3	-127.187E-12	720.799E-3	-32.3805E-3	-124.656E-12	659.809E-3	13.0506E-3
-3.25413E-3	-126.462E-12	701.006E-3	-27.4348E-3	-124.916E-12	665.120E-3	-9.74625E-3
-3.25913E-3	-126.745E-12	679.329E-3	-14.7502E-3	-125.257E-12	679.516E-3	-35.8539E-3
-3.26413E-3	-126.749E-12	674.155E-3	-26.0613E-3	-126.996E-12	684.060E-3	-28.9987E-3
-3.26913E-3	-126.542E-12	690.182E-3	-27.4372E-3	-128.569E-12	684.702E-3	-13.7354E-3
-3.27414E-3	-126.295E-12	692.853E-3	-5.02427E-3	-128.871E-12	669.806E-3	2.29907E-3
-3.27914E-3	-125.687E-12	680.819E-3	-293.431E-6	-128.965E-12	662.058E-3	8.81216E-3
-3.28414E-3	-125.242E-12	682.289E-3	-15.5386E-3	-129.868E-12	677.269E-3	-3.38840E-3
-3.28914E-3	-125.452E-12	685.445E-3	-13.7096E-3	-130.316E-12	683.389E-3	-28.2316E-3
-3.29415E-3	-126.266E-12	677.684E-3	4.22955E-3	-130.270E-12	680.123E-3	-38.1681E-3
-3.29915E-3	-125.638E-12	667.757E-3	14.7212E-3	-129.853E-12	686.592E-3	-16.1681E-3
-3.30415E-3	-126.652E-12	651.561E-3	12.7170E-3	-129.511E-12	667.259E-3	135.236E-6
-3.30915E-3	-126.639E-12	650.911E-3	-1.53577E-3	-129.334E-12	630.382E-3	-10.1068E-3
-3.31416E-3	-128.296E-12	675.141E-3	-14.7131E-3	-128.992E-12	636.379E-3	-19.7422E-3
-3.31916E-3	-128.605E-12	678.747E-3	-20.6405E-3	-127.679E-12	655.796E-3	-20.7578E-3
-3.32416E-3	-129.294E-12	664.393E-3	-27.4831E-3	-126.810E-12	653.555E-3	-17.8174E-3
-3.32916E-3	-129.326E-12	665.570E-3	-21.5504E-3	-126.390E-12	650.505E-3	-5.54787E-3
-3.33417E-3	-129.832E-12	663.567E-3	-7.81626E-3	-126.978E-12	656.757E-3	-6.76607E-3
-3.33917E-3	-131.229E-12	650.029E-3	-19.2627E-3	-126.986E-12	662.826E-3	-20.9267E-3
-3.34417E-3	-130.746E-12	657.131E-3	-35.5087E-3	-126.811E-12	657.091E-3	-18.8843E-3
-3.34917E-3	-131.002E-12	679.349E-3	-29.4513E-3	-126.632E-12	645.500E-3	-13.1186E-3
-3.35418E-3	-130.410E-12	684.474E-3	-39.2918E-3	-127.715E-12	643.978E-3	-24.1218E-3
-3.35918E-3	-131.511E-12	674.865E-3	-50.8456E-3	-128.537E-12	659.752E-3	-38.8635E-3
-3.36418E-3	-131.827E-12	660.449E-3	-25.4773E-3	-130.083E-12	674.774E-3	-44.4556E-3
-3.36918E-3	-131.815E-12	642.028E-3	4.84156E-3	-131.169E-12	678.092E-3	-35.6006E-3
-3.37419E-3	-131.328E-12	648.068E-3	6.74864E-3	-132.334E-12	691.642E-3	-15.6659E-3
-3.37919E-3	-130.828E-12	680.583E-3	-8.25591E-3	-133.695E-12	689.863E-3	-24.5401E-3
-3.38419E-3	-131.752E-12	694.254E-3	-5.95326E-3	-134.007E-12	659.607E-3	-50.6007E-3
-3.38919E-3	-131.553E-12	689.822E-3	3.59993E-3	-134.895E-12	662.897E-3	-42.3123E-3
-3.39420E-3	-131.070E-12	683.921E-3	11.8155E-3	-135.032E-12	703.324E-3	-28.4308E-3
-3.39920E-3	-130.664E-12	669.695E-3	23.4227E-3	-134.785E-12	722.922E-3	-27.3653E-3
-3.40420E-3	-131.783E-12	673.890E-3	19.8668E-3	-134.160E-12	705.446E-3	-23.3648E-3
-3.40920E-3	-132.388E-12	683.869E-3	15.3131E-3	-134.272E-12	678.378E-3	-28.8688E-3
-3.41421E-3	-131.865E-12	655.282E-3	11.3390E-3	-134.146E-12	662.116E-3	-21.1208E-3
-3.41921E-3	-132.804E-12	637.485E-3	-2.31055E-3	-133.294E-12	669.074E-3	-412.746E-6
-3.42421E-3	-133.876E-12	659.532E-3	-10.5873E-3	-132.265E-12	681.331E-3	-4.71826E-3
-3.42921E-3	-134.481E-12	675.229E-3	-17.0417E-3	-132.887E-12	673.450E-3	-4.09526E-3
-3.43422E-3	-134.727E-12	676.817E-3	-24.1381E-3	-133.050E-12	667.985E-3	12.1523E-3
-3.43922E-3	-135.882E-12	671.363E-3	-22.8462E-3	-132.551E-12	677.584E-3	9.85808E-3
-3.44422E-3	-137.136E-12	652.016E-3	-24.5564E-3	-132.161E-12	676.490E-3	-1.43458E-3
-3.44922E-3	-138.214E-12	637.625E-3	-28.7398E-3	-132.681E-12	667.269E-3	-4.96406E-3
-3.45423E-3	-138.086E-12	648.069E-3	-23.4126E-3	-134.360E-12	669.453E-3	-13.5967E-3
-3.45923E-3	-137.712E-12	660.084E-3	-26.3197E-3	-135.364E-12	674.135E-3	-34.9109E-3
-3.46423E-3	-138.231E-12	676.402E-3	-36.7550E-3	-135.952E-12	683.977E-3	-35.9042E-3
-3.46923E-3	-138.559E-12	700.716E-3	-24.8945E-3	-136.002E-12	703.358E-3	-10.1109E-3
-3.47424E-3	-137.768E-12	692.418E-3	-6.00242E-3	-137.099E-12	694.070E-3	15.0728E-3
-3.47924E-3	-135.989E-12	676.068E-3	-10.3868E-3	-138.631E-12	661.623E-3	27.6087E-3
-3.48424E-3	-135.674E-12	672.005E-3	-27.7889E-3	-139.425E-12	662.145E-3	14.3838E-3
-3.48924E-3	-135.920E-12	650.946E-3	-29.8311E-3	-138.403E-12	678.280E-3	-21.3572E-3
-3.49425E-3	-136.282E-12	637.696E-3	-13.5209E-3	-138.687E-12	689.336E-3	-35.4919E-3
-3.49925E-3	-135.357E-12	647.813E-3	-4.99418E-3	-141.131E-12	707.216E-3	-11.2264E-3
-3.50425E-3	-134.895E-12	658.011E-3	4.10590E-3	-141.979E-12	703.023E-3	13.6228E-3
-3.50925E-3	-136.732E-12	651.463E-3	12.2961E-3	-140.371E-12	683.276E-3	7.70465E-3
-3.51426E-3	-137.291E-12	647.993E-3	-2.67638E-3	-138.501E-12	686.981E-3	-24.3704E-3
-3.51926E-3	-137.440E-12	656.461E-3	-5.78290E-3	-139.752E-12	697.459E-3	-53.9782E-3
-3.52426E-3	-137.696E-12	650.537E-3	-2.43596E-3	-140.222E-12	687.186E-3	-49.1189E-3
-3.52926E-3	-138.844E-12	655.592E-3	-19.8430E-3	-140.029E-12	672.312E-3	-18.5551E-3
-3.53427E-3	-140.161E-12	664.138E-3	-23.5189E-3	-137.832E-12	668.291E-3	-5.47249E-3
-3.53927E-3	-140.139E-12	652.126E-3	-16.6983E-3	-137.591E-12	662.150E-3	-21.3526E-3
-3.54427E-3	-141.244E-12	662.144E-3	3.12424E-3	-138.313E-12	644.624E-3	-43.4452E-3
-3.54927E-3	-141.450E-12	681.915E-3	39.3723E-3	-139.544E-12	633.085E-3	-41.0832E-3
-3.55428E-3	-142.245E-12	676.923E-3	31.9319E-3	-139.408E-12	642.938E-3	-22.3478E-3
-3.55928E-3	-141.906E-12	676.784E-3	-15.6752E-3	-137.868E-12	656.325E-3	-16.0953E-3
-3.56428E-3	-142.018E-12	696.916E-3	-37.9340E-3	-138.035E-12	663.701E-3	-30.6617E-3
-3.56928E-3	-141.066E-12	707.026E-3	-25.5455E-3	-139.238E-12	671.831E-3	-51.0363E-3
-3.57429E-3	-140.301E-12	697.957E-3	-21.1733E-3	-140.907E-12	672.419E-3	-48.0170E-3
-3.57929E-3	-140.064E-12	691.696E-3	-30.1226E-3	-140.818E-12	673.903E-3	-30.4636E-3
-3.58429E-3	-139.934E-12	685.535E-3	-24.7400E-3	-141.309E-12	671.905E-3	-15.8890E-3
-3.58929E-3	-139.261E-12	670.767E-3	-3.76538E-3	-143.048E-12	662.086E-3	304.478E-6
-3.59430E-3	-138.438E-12	654.269E-3	25.5851E-3	-143.968E-12	665.539E-3	343.052E-6
-3.59930E-3	-138.436E-12	647.337E-3	33.5741E-3	-144.032E-12	669.923E-3	234.985E-6
-3.60430E-3	-139.628E-12	649.907E-3	5.20288E-3	-143.239E-12	669.040E-3	2.25577E-3
-3.60930E-3	-139.525E-12	658.220E-3	-7.77794E-3	-143.978E-12	668.766E-3	-16.6853E-3
-3.61431E-3	-140.139E-12	661.638E-3	4.02911E-3	-144.445E-12	648.406E-3	-26.6462E-3
-3.61931E-3	-140.734E-12	658.571E-3	1.53571E-3	-144.626E-12	634.519E-3	-8.18994E-3
-3.62431E-3	-142.952E-12	662.527E-3	-9.43178E-3	-143.492E-12	645.589E-3	6.14353E-3
-3.62931E-3	-143.657E-12	670.729E-3	-16.1233E-3	-142.521E-12	658.283E-3	-1.00242E-3
-3.63432E-3	-144.611E-12	670.340E-3	-18.8294E-3	-142.629E-12	659.542E-3	-9.19289E-3
-3.63932E-3	-145.957E-12	662.387E-3	-10.0156E-3	-142.686E-12	653.151E-3	-13.3401E-3
-3.64432E-3	-146.984E-12	663.024E-3	7.26394E-3	-141.944E-12	647.035E-3	-24.3854E-3
-3.64932E-3	-147.557E-12	676.732E-3	9.28984E-3	-140.206E-12	640.442E-3	-28.5812E-3
-3.65433E-3	-147.328E-12	703.564E-3	-10.6329E-3	-139.661E-12	649.491E-3	-13.3292E-3
-3.65933E-3	-147.235E-12	709.433E-3	-21.2313E-3	-140.612E-12	657.941E-3	-12.6057E-3
-3.66433E-3	-147.348E-12	678.536E-3	-40.5648E-3	-141.288E-12	651.008E-3	-13.2145E-3
-3.66933E-3	-147.028E-12	672.203E-3	-64.3305E-3	-142.083E-12	652.467E-3	17.5305E-3
-3.67434E-3	-146.615E-12	692.110E-3	-44.9756E-3	-142.240E-12	663.411E-3	38.8743E-3
-3.67934E-3	-144.990E-12	691.117E-3	-22.6220E-3	-143.843E-12	674.108E-3	34.5319E-3
-3.68434E-3	-144.575E-12	677.179E-3	-20.1141E-3	-145.073E-12	681.437E-3	13.2811E-3
-3.68934E-3	-143.929E-12	654.343E-3	-15.7587E-3	-146.488E-12	687.397E-3	-34.5040E-3
-3.69435E-3	-144.330E-12	635.321E-3	-28.5909E-3	-147.409E-12	695.742E-3	-58.4161E-3
-3.69935E-3	-143.943E-12	638.704E-3	-49.3266E-3	-148.103E-12	706.946E-3	-33.1693E-3
-3.70435E-3	-144.049E-12	642.843E-3	-44.3101E-3	-148.972E-12	709.903E-3	-14.1591E-3
-3.70935E-3	-144.891E-12	636.036E-3	-47.8420E-3	-148.822E-12	689.051E-3	2.73540E-3
-3.71436E-3	-144.465E-12	647.042E-3	-70.4271E-3	-150.085E-12	663.024E-3	13.4860E-3
-3.71936E-3	-145.704E-12	664.953E-3	-50.7043E-3	-149.200E-12	658.707E-3	-6.49349E-3
-3.72436E-3	-146.599E-12	650.797E-3	-23.5998E-3	-149.226E-12	653.592E-3	-11.8221E-3
-3.72936E-3	-148.947E-12	636.719E-3	-44.3488E-3	-147.706E-12	645.577E-3	-1.53980E-3
-3.73437E-3	-148.772E-12	646.893E-3	-45.3415E-3	-147.695E-12	652.019E-3	-20.9973E-3
-3.73937E-3	-149.376E-12	656.386E-3	-14.7491E-3	-145.957E-12	654.384E-3	-49.4267E-3
-3.74437E-3	-149.578E-12	661.654E-3	-8.92998E-3	-145.583E-12	659.665E-3	-46.9085E-3
-3.74937E-3	-150.815E-12	670.734E-3	-19.5317E-3	-144.814E-12	670.190E-3	-35.9436E-3
-3.75438E-3	-150.610E-12	681.771E-3	-39.8181E-3	-145.165E-12	663.259E-3	-38.1388E-3
-3.75938E-3	-150.542E-12	691.136E-3	-61.7982E-3	-145.751E-12	647.716E-3	-43.3008E-3
-3.76438E-3	-150.038E-12	685.652E-3	-58.2287E-3	-145.917E-12	653.505E-3	-47.3061E-3
-3.76938E-3	-149.836E-12	669.464E-3	-36.8664E-3	-146.939E-12	674.302E-3	-40.0296E-3
-3.77439E-3	-150.175E-12	672.883E-3	-23.7503E-3	-147.136E-12	677.673E-3	-14.1803E-3
-3.77939E-3	-149.578E-12	682.069E-3	-19.6568E-3	-148.233E-12	660.532E-3	-5.13748E-3
-3.78439E-3	-149.266E-12	651.937E-3	-17.7505E-3	-150.039E-12	641.988E-3	-15.9200E-3
-3.78939E-3	-148.989E-12	622.470E-3	-25.4252E-3	-151.544E-12	635.109E-3	-455.305E-6
-3.79440E-3	-149.149E-12	628.246E-3	-17.0233E-3	-152.432E-12	654.209E-3	7.27129E-3
-3.79940E-3	-149.701E-12	639.891E-3	6.50935E-3	-152.505E-12	678.902E-3	-3.94501E-3
-3.80440E-3	-148.925E-12	662.395E-3	4.46365E-3	-154.413E-12	680.590E-3	-13.6554E-3
-3.80940E-3	-148.864E-12	685.570E-3	-1.73767E-3	-155.254E-12	665.150E-3	-33.3053E-3
-3.81441E-3	-149.021E-12	667.355E-3	-3.01997E-3	-155.811E-12	664.507E-3	-49.4731E-3
-3.81941E-3	-149.854E-12	638.928E-3	-12.0851E-3	-155.230E-12	680.132E-3	-50.3286E-3
-3.82441E-3	-149.672E-12	648.346E-3	-1.60961E-3	-155.329E-12	684.242E-3	-36.3956E-3
-3.82941E-3	-150.179E-12	661.076E-3	17.1774E-3	-154.223E-12	688.045E-3	-24.5971E-3
-3.83442E-3	-151.307E-12	655.018E-3	696.681E-6	-153.140E-12	680.355E-3	-24.2087E-3
-3.83942E-3	-152.214E-12	652.888E-3	-22.6527E-3	-152.477E-12	652.432E-3	-23.2447E-3
-3.84442E-3	-152.303E-12	649.764E-3	-7.58126E-3	-152.614E-12	637.521E-3	-23.6757E-3
-3.84942E-3	-152.926E-12	638.947E-3	5.39267E-3	-152.862E-12	642.938E-3	-15.3622E-3
-3.85443E-3	-154.859E-12	645.391E-3	-14.1942E-3	-152.373E-12	653.279E-3	-12.5099E-3
-3.85943E-3	-155.671E-12	656.241E-3	-27.8373E-3	-152.277E-12	661.668E-3	-28.3189E-3
-3.86443E-3	-156.077E-12	645.076E-3	-13.4724E-3	-152.548E-12	663.844E-3	-24.9619E-3
-3.86943E-3	-156.773E-12	647.546E-3	2.04750E-3	-152.795E-12	662.760E-3	3.85478E-3
-3.87444E-3	-156.651E-12	670.085E-3	3.84115E-3	-152.408E-12	661.093E-3	11.4789E-3
-3.87944E-3	-157.275E-12	683.081E-3	1.04342E-3	-153.409E-12	645.884E-3	-20.7889E-3
-3.88444E-3	-156.914E-12	694.509E-3	-5.13007E-3	-153.821E-12	640.194E-3	-37.2011E-3
-3.88944E-3	-156.365E-12	700.975E-3	-14.8201E-3	-153.798E-12	665.543E-3	-25.5906E-3
-3.89445E-3	-156.207E-12	690.067E-3	-20.7782E-3	-155.226E-12	683.873E-3	-34.7700E-3
-3.89945E-3	-155.437E-12	681.666E-3	-13.4200E-3	-156.025E-12	685.047E-3	-38.3068E-3
-3.90445E-3	-155.429E-12	681.536E-3	-344.290E-6	-156.599E-12	679.045E-3	-11.9386E-3
-3.90945E-3	-153.759E-12	678.668E-3	-7.36265E-3	-156.390E-12	676.036E-3	5.84357E-3
-3.91446E-3	-152.701E-12	665.782E-3	-24.9942E-3	-157.477E-12	682.661E-3	2.84780E-3
-3.91946E-3	-153.035E-12	648.488E-3	-26.2876E-3	-158.285E-12	681.356E-3	-6.96692E-3
-3.92446E-3	-154.046E-12	633.661E-3	-8.77005E-3	-157.876E-12	674.193E-3	709.656E-6
-3.92946E-3	-153.611E-12	632.908E-3	9.24229E-3	-157.624E-12	684.644E-3	15.5887E-3
-3.93447E-3	-153.700E-12	658.752E-3	29.1894E-3	-156.975E-12	701.862E-3	3.31681E-3
-3.93947E-3	-154.826E-12	675.232E-3	39.1709E-3	-157.735E-12	685.499E-3	-25.0955E-3
-3.94447E-3	-156.935E-12	668.975E-3	12.9502E-3	-157.932E-12	660.148E-3	-36.1601E-3
-3.94947E-3	-157.668E-12	676.043E-3	-6.18473E-3	-157.450E-12	659.399E-3	-17.7010E-3
-3.95448E-3	-157.695E-12	676.131E-3	-1.31551E-3	-156.058E-12	665.174E-3	-3.69844E-3
-3.95948E-3	-159.811E-12	650.868E-3	-1.78519E-3	-156.810E-12	662.755E-3	-9.05839E-3
-3.96448E-3	-161.899E-12	641.888E-3	-3.37663E-3	-156.200E-12	671.598E-3	-10.8155E-3
-3.96948E-3	-163.300E-12	649.842E-3	14.6711E-3	-155.603E-12	672.086E-3	-21.9286E-3
-3.97449E-3	-162.362E-12	646.747E-3	26.1752E-3	-155.505E-12	654.780E-3	-34.0761E-3
-3.97949E-3	-162.042E-12	657.905E-3	18.7244E-3	-155.534E-12	657.065E-3	-36.2451E-3
-3.98449E-3	-162.705E-12	676.990E-3	13.7821E-3	-156.892E-12	661.222E-3	-32.1755E-3
-3.98949E-3	-163.417E-12	674.277E-3	-3.68085E-3	-156.736E-12	650.386E-3	-2.16679E-3
-3.99450E-3	-161.998E-12	666.450E-3	-13.4738E-3	-157.142E-12	656.621E-3	17.9505E-3
-3.99950E-3	-159.415E-12	670.541E-3	-6.95647E-3	-157.950E-12	654.547E-3	-4.95484E-3
-4.00450E-3	-158.573E-12	688.173E-3	-15.5734E-3	-159.272E-12	626.696E-3	-26.0033E-3
-4.00950E-3	-158.683E-12	691.425E-3	-17.7576E-3	-160.089E-12	639.274E-3	-13.0859E-3
-4.01451E-3	-158.236E-12	676.784E-3	-21.2274E-3	-160.660E-12	683.308E-3	-1.59822E-3
-4.01951E-3	-156.048E-12	656.146E-3	-36.7197E-3	-161.604E-12	699.488E-3	-7.20834E-3
-4.02451E-3	-154.371E-12	622.170E-3	-29.8942E-3	-162.546E-12	687.064E-3	-7.38055E-3
-4.02951E-3	-155.298E-12	605.747E-3	-21.2225E-3	-162.517E-12	669.502E-3	-1.32379E-3
-4.03452E-3	-156.784E-12	626.824E-3	-25.6869E-3	-163.341E-12	657.367E-3	-8.06711E-3
-4.03952E-3	-157.004E-12	657.563E-3	-31.4485E-3	-163.758E-12	661.224E-3	-17.5520E-3
-4.04452E-3	-156.415E-12	667.314E-3	-17.7106E-3	-163.345E-12	684.405E-3	3.33867E-3
-4.04952E-3	-158.387E-12	636.908E-3	-3.24441E-3	-162.385E-12	688.630E-3	24.9191E-3
-4.05453E-3	-160.780E-12	618.516E-3	-15.5358E-3	-162.852E-12	663.238E-3	8.71467E-3
-4.05953E-3	-162.951E-12	654.878E-3	-31.0110E-3	-162.677E-12	650.198E-3	-8.94656E-3
-4.06453E-3	-163.532E-12	691.829E-3	-44.8271E-3	-161.462E-12	651.525E-3	-1.96863E-3
-4.06953E-3	-164.876E-12	700.063E-3	-47.1252E-3	-160.630E-12	650.101E-3	-69.1439E-6
-4.07454E-3	-166.121E-12	692.244E-3	-33.6533E-3	-160.739E-12	668.193E-3	-16.0682E-3
-4.07954E-3	-166.569E-12	681.098E-3	-23.5797E-3	-161.139E-12	677.200E-3	-22.8478E-3
-4.08454E-3	-167.073E-12	683.179E-3	-25.9521E-3	-161.752E-12	655.097E-3	-1.48860E-3
-4.08954E-3	-166.107E-12	688.379E-3	-28.2851E-3	-161.558E-12	642.787E-3	12.9069E-3
-4.09455E-3	-166.079E-12	688.036E-3	-25.7220E-3	-161.712E-12	643.632E-3	-3.45829E-3
-4.09955E-3	-165.072E-12	690.939E-3	-30.8418E-3	-163.265E-12	651.654E-3	-21.2177E-3
-4.10455E-3	-164.545E-12	678.701E-3	-29.0368E-3	-163.873E-12	657.237E-3	-19.5064E-3
-4.10955E-3	-163.516E-12	672.295E-3	-20.1515E-3	-164.659E-12	657.509E-3	-9.99043E-3
-4.11456E-3	-163.356E-12	691.232E-3	-12.3316E-3	-165.017E-12	677.987E-3	2.24229E-3
-4.11956E-3	-162.103E-12	683.106E-3	-6.07732E-3	-166.822E-12	714.538E-3	14.5550E-3
-4.12456E-3	-162.116E-12	655.253E-3	-16.3023E-3	-168.388E-12	730.157E-3	6.16581E-3
-4.12956E-3	-161.369E-12	641.762E-3	-26.4619E-3	-169.313E-12	705.853E-3	-14.2446E-3
-4.13457E-3	-161.903E-12	640.495E-3	-21.3194E-3	-168.815E-12	677.403E-3	-31.4467E-3
-4.13957E-3	-162.539E-12	644.378E-3	-24.9075E-3	-168.657E-12	673.787E-3	-40.1496E-3
-4.14457E-3	-163.483E-12	647.992E-3	-42.7984E-3	-168.911E-12	668.839E-3	-13.3969E-3
-4.14957E-3	-164.101E-12	651.946E-3	-49.5609E-3	-169.020E-12	658.975E-3	8.82523E-3
-4.15458E-3	-165.522E-12	645.279E-3	-52.2999E-3	-167.526E-12	651.644E-3	-9.33283E-3
-4.15958E-3	-166.443E-12	643.038E-3	-60.2682E-3	-166.018E-12	645.576E-3	-26.8044E-3
-4.16458E-3	-167.317E-12	655.525E-3	-55.2837E-3	-165.021E-12	653.012E-3	-35.2772E-3
-4.16958E-3	-168.150E-12	657.769E-3	-42.3966E-3	-165.358E-12	664.856E-3	-29.8168E-3
-4.17459E-3	-169.316E-12	655.837E-3	-40.7726E-3	-164.965E-12	661.101E-3	-15.6817E-3
-4.17959E-3	-169.674E-12	660.330E-3	-42.0943E-3	-163.821E-12	660.721E-3	-9.85287E-3
-4.18459E-3	-169.987E-12	656.891E-3	-45.4187E-3	-164.620E-12	669.773E-3	-15.5472E-3
-4.18959E-3	-170.548E-12	655.647E-3	-54.8309E-3	-166.367E-12	652.360E-3	-29.8798E-3
-4.19460E-3	-171.233E-12	675.035E-3	-53.3296E-3	-166.688E-12	643.623E-3	-23.5022E-3
-4.19960E-3	-171.178E-12	690.520E-3	-45.8985E-3	-165.935E-12	657.262E-3	-20.4874E-3
-4.20460E-3	-169.455E-12	689.453E-3	-36.9838E-3	-166.989E-12	641.386E-3	-42.1000E-3
-4.20960E-3	-169.463E-12	682.812E-3	-19.1241E-3	-168.912E-12	644.942E-3	-36.9396E-3
-4.21461E-3	-169.363E-12	663.824E-3	-10.6686E-3	-170.306E-12	689.656E-3	-23.7291E-3
-4.21961E-3	-169.334E-12	642.185E-3	-18.0937E-3	-170.517E-12	707.623E-3	-29.9238E-3
-4.22461E-3	-167.885E-12	642.770E-3	-16.8785E-3	-170.807E-12	703.705E-3	-25.8513E-3
-4.22961E-3	-167.500E-12	668.046E-3	-9.19040E-3	-171.788E-12	689.430E-3	-6.85575E-3
-4.23462E-3	-167.969E-12	678.374E-3	-14.4559E-3	-171.809E-12	661.532E-3	11.6493E-3
-4.23962E-3	-167.789E-12	669.678E-3	-21.9240E-3	-171.306E-12	658.079E-3	25.9936E-3
-4.24462E-3	-167.112E-12	662.057E-3	-26.9237E-3	-171.396E-12	676.436E-3	17.7796E-3
-4.24962E-3	-167.353E-12	635.019E-3	-35.9079E-3	-171.855E-12	668.161E-3	-15.6922E-3
-4.25463E-3	-167.889E-12	611.600E-3	-33.8956E-3	-170.849E-12	624.975E-3	-17.4783E-3
-4.25963E-3	-168.143E-12	622.977E-3	-12.3699E-3	-170.379E-12	621.941E-3	-422.555E-6
-4.26463E-3	-168.633E-12	643.027E-3	-4.72249E-3	-169.375E-12	659.363E-3	-7.83065E-3
-4.26963E-3	-168.958E-12	663.978E-3	-26.9834E-3	-169.358E-12	660.360E-3	-27.7756E-3
-4.27464E-3	-170.266E-12	673.400E-3	-46.8974E-3	-169.388E-12	642.930E-3	-35.2481E-3
-4.27964E-3	-170.290E-12	659.760E-3	-47.9976E-3	-168.849E-12	652.408E-3	-27.8244E-3
-4.28464E-3	-171.196E-12	645.858E-3	-37.1916E-3	-169.671E-12	671.306E-3	-18.6238E-3
-4.28964E-3	-172.802E-12	647.157E-3	-14.8027E-3	-168.913E-12	665.157E-3	-5.45024E-3
-4.29465E-3	-173.573E-12	660.359E-3	1.73236E-3	-170.549E-12	648.622E-3	-9.20445E-3
-4.29965E-3	-173.413E-12	669.073E-3	10.8001E-3	-170.289E-12	627.559E-3	-35.9441E-3
-4.30465E-3	-174.276E-12	668.444E-3	7.18215E-3	-171.810E-12	612.125E-3	-50.4577E-3
-4.30965E-3	-174.768E-12	661.422E-3	-23.5532E-3	-171.062E-12	625.749E-3	-43.2546E-3
-4.31466E-3	-174.842E-12	671.985E-3	-37.8545E-3	-172.737E-12	652.871E-3	-35.7525E-3
-4.31966E-3	-173.947E-12	698.729E-3	-30.8683E-3	-172.194E-12	667.992E-3	-32.7722E-3
-4.32466E-3	-173.784E-12	701.866E-3	-36.5483E-3	-173.186E-12	677.265E-3	-36.5113E-3
-4.32966E-3	-173.222E-12	685.095E-3	-38.2417E-3	-173.950E-12	687.604E-3	-55.1820E-3
-4.33467E-3	-171.760E-12	675.050E-3	-19.4852E-3	-174.678E-12	688.146E-3	-75.9417E-3
-4.33967E-3	-171.719E-12	670.868E-3	-15.0924E-3	-174.429E-12	690.684E-3	-76.3211E-3
-4.34467E-3	-170.847E-12	675.393E-3	-43.8152E-3	-174.053E-12	682.051E-3	-46.4798E-3
-4.34967E-3	-170.790E-12	676.742E-3	-58.7167E-3	-174.725E-12	651.739E-3	-18.6730E-3
-4.35468E-3	-170.096E-12	642.299E-3	-33.6430E-3	-175.605E-12	643.581E-3	-4.04299E-3
-4.35968E-3	-169.756E-12	626.353E-3	-8.84024E-3	-176.312E-12	662.583E-3	-23.2196E-6
-4.36468E-3	-170.604E-12	658.304E-3	11.5984E-3	-175.764E-12	672.368E-3	-11.5237E-3
-4.36968E-3	-172.688E-12	675.456E-3	24.3133E-3	-175.525E-12	677.227E-3	-27.9842E-3
-4.37469E-3	-173.601E-12	669.734E-3	-5.44570E-3	-176.247E-12	677.683E-3	-39.3742E-3
-4.37969E-3	-175.259E-12	658.381E-3	-27.1414E-3	-176.201E-12	652.334E-3	-30.3986E-3
-4.38469E-3	-176.685E-12	637.922E-3	-3.78839E-3	-175.960E-12	638.252E-3	-14.4233E-3
-4.38969E-3	-178.515E-12	631.057E-3	16.4101E-3	-174.347E-12	656.056E-3	-4.24706E-3
-4.39470E-3	-179.954E-12	647.278E-3	20.0522E-3	-175.615E-12	669.163E-3	7.09602E-3
-4.39970E-3	-181.183E-12	652.779E-3	-8.96348E-3	-176.299E-12	678.732E-3	15.3072E-3
-4.40470E-3	-181.719E-12	648.379E-3	-58.0182E-3	-176.214E-12	680.116E-3	8.53359E-3
-4.40970E-3	-182.416E-12	656.891E-3	-41.0264E-3	-175.426E-12	673.281E-3	-19.8736E-3
-4.41471E-3	-182.027E-12	659.414E-3	-3.76931E-3	-175.245E-12	686.807E-3	-49.2532E-3
-4.41971E-3	-181.300E-12	651.808E-3	-23.3287E-3	-176.310E-12	696.878E-3	-62.4197E-3
-4.42471E-3	-180.463E-12	651.675E-3	-43.6248E-3	-177.427E-12	667.433E-3	-41.6773E-3
-4.42971E-3	-179.540E-12	638.544E-3	-37.9779E-3	-177.906E-12	644.848E-3	2.27440E-3
-4.43472E-3	-177.964E-12	629.484E-3	-35.5049E-3	-177.952E-12	660.935E-3	8.31855E-3
-4.43972E-3	-176.120E-12	634.294E-3	-23.4812E-3	-178.896E-12	675.944E-3	-545.184E-6
-4.44472E-3	-175.806E-12	629.152E-3	-13.5026E-3	-179.970E-12	685.778E-3	7.93370E-3
-4.44972E-3	-176.149E-12	638.341E-3	-27.2108E-3	-181.208E-12	691.999E-3	-4.93429E-3
-4.45473E-3	-176.418E-12	645.714E-3	-41.5946E-3	-181.327E-12	666.234E-3	-26.2572E-3
-4.45973E-3	-176.148E-12	629.654E-3	-39.5943E-3	-181.674E-12	647.266E-3	-20.0757E-3
-4.46473E-3	-177.370E-12	624.498E-3	-37.1378E-3	-182.478E-12	662.363E-3	-25.5193E-3
-4.46973E-3	-178.744E-12	639.439E-3	-53.8626E-3	-181.891E-12	661.405E-3	-51.3058E-3
-4.47474E-3	-179.444E-12	651.127E-3	-51.4785E-3	-181.103E-12	658.003E-3	-56.8001E-3
-4.47974E-3	-180.576E-12	651.917E-3	-33.2641E-3	-181.003E-12	655.804E-3	-42.4208E-3
-4.48474E-3	-181.776E-12	651.990E-3	-33.8403E-3	-180.115E-12	639.476E-3	-7.10235E-3
-4.48974E-3	-184.205E-12	656.598E-3	-11.7037E-3	-180.057E-12	644.786E-3	13.2714E-3
-4.49475E-3	-185.478E-12	671.144E-3	12.3466E-3	-179.716E-12	663.488E-3	3.42108E-3
-4.49975E-3	-185.537E-12	685.506E-3	-2.34934E-3	-178.699E-12	671.942E-3	-1.52511E-3
-4.50475E-3	-186.115E-12	677.512E-3	-22.3562E-3	-178.793E-12	669.909E-3	4.22659E-3
-4.50975E-3	-186.495E-12	654.727E-3	-24.1169E-3	-179.482E-12	653.405E-3	16.3599E-3
-4.51476E-3	-186.378E-12	647.234E-3	-22.4710E-3	-181.188E-12	636.682E-3	20.2780E-3
-4.51976E-3	-184.021E-12	653.289E-3	-6.97194E-3	-181.067E-12	644.695E-3	15.5840E-3
-4.52476E-3	-183.383E-12	646.224E-3	11.3418E-3	-182.123E-12	664.377E-3	11.1626E-3
-4.52976E-3	-182.779E-12	644.481E-3	-9.10350E-3	-182.895E-12	659.649E-3	13.8469E-3
-4.53477E-3	-181.886E-12	673.442E-3	-16.3923E-3	-184.988E-12	637.475E-3	18.6761E-3
-4.53977E-3	-180.501E-12	695.228E-3	870.518E-6	-186.293E-12	644.150E-3	95.3107E-6
-4.54477E-3	-180.159E-12	689.808E-3	2.92238E-3	-185.795E-12	677.615E-3	-18.7776E-3
-4.54977E-3	-180.102E-12	674.801E-3	-17.2142E-3	-186.360E-12	695.761E-3	-4.94733E-3
-4.55478E-3	-180.464E-12	642.689E-3	-51.8153E-3	-186.646E-12	686.520E-3	11.6067E-3
-4.55978E-3	-180.032E-12	630.088E-3	-53.3650E-3	-186.663E-12	670.606E-3	4.41330E-3
-4.56478E-3	-180.770E-12	646.184E-3	-16.1398E-3	-186.101E-12	673.223E-3	-8.58818E-3
-4.56978E-3	-181.765E-12	647.448E-3	-1.09330E-3	-186.461E-12	682.626E-3	2.20123E-3
-4.57479E-3	-182.445E-12	655.867E-3	-11.6870E-3	-185.948E-12	681.579E-3	16.7349E-3
-4.57979E-3	-183.504E-12	663.503E-3	-9.76642E-3	-184.439E-12	683.899E-3	12.0837E-3
-4.58479E-3	-184.892E-12	643.853E-3	-3.22936E-3	-183.428E-12	690.524E-3	5.98602E-3
-4.58979E-3	-186.020E-12	634.093E-3	-6.39002E-3	-182.233E-12	679.739E-3	-24.0904E-3
-4.59480E-3	-185.595E-12	649.593E-3	-6.39017E-3	-182.129E-12	648.147E-3	-63.0956E-3
-4.59980E-3	-186.457E-12	676.014E-3	-12.1070E-3	-181.454E-12	624.118E-3	-46.2290E-3
-4.60480E-3	-187.037E-12	694.167E-3	-23.1719E-3	-182.102E-12	617.117E-3	-14.8658E-3
-4.60980E-3	-185.881E-12	693.621E-3	-15.5704E-3	-182.552E-12	629.968E-3	-10.0996E-3
-4.61481E-3	-186.070E-12	676.144E-3	-4.48382E-3	-183.888E-12	656.338E-3	-16.3666E-3
-4.61981E-3	-185.607E-12	652.174E-3	-145.769E-6	-185.126E-12	671.895E-3	-28.6213E-3
-4.62481E-3	-184.664E-12	647.022E-3	809.622E-6	-185.775E-12	680.616E-3	-34.6875E-3
-4.62981E-3	-184.414E-12	646.454E-3	22.1467E-6	-188.091E-12	692.989E-3	-38.6054E-3
-4.63482E-3	-185.449E-12	636.713E-3	-6.12442E-3	-189.206E-12	687.948E-3	-37.6631E-3
-4.63982E-3	-184.464E-12	633.725E-3	-16.6199E-3	-190.347E-12	668.051E-3	-12.7478E-3
-4.64482E-3	-184.308E-12	640.433E-3	-1.25160E-3	-190.864E-12	673.901E-3	18.8142E-3
-4.64982E-3	-184.536E-12	642.737E-3	18.9267E-3	-191.054E-12	696.190E-3	14.9622E-3
-4.65483E-3	-184.904E-12	640.170E-3	12.4350E-3	-191.861E-12	699.069E-3	-5.75101E-3
-4.65983E-3	-185.924E-12	643.621E-3	-438.093E-6	-191.659E-12	703.105E-3	-1.15680E-3
-4.66483E-3	-186.556E-12	641.985E-3	-10.8947E-3	-191.850E-12	701.327E-3	-1.83273E-3
-4.66983E-3	-187.021E-12	642.888E-3	-12.1088E-3	-190.431E-12	659.897E-3	-36.9059E-3
-4.67484E-3	-188.510E-12	637.248E-3	13.6364E-6	-190.655E-12	646.105E-3	-61.4101E-3
-4.67984E-3	-189.284E-12	609.086E-3	-995.509E-6	-188.848E-12	678.841E-3	-56.4640E-3
-4.68484E-3	-190.373E-12	613.110E-3	-16.7854E-3	-187.354E-12	661.962E-3	-38.0388E-3
-4.68984E-3	-191.954E-12	648.718E-3	-19.9071E-3	-187.240E-12	621.793E-3	-22.8984E-3
-4.69485E-3	-192.670E-12	664.932E-3	-20.6681E-3	-187.629E-12	634.461E-3	-32.9026E-3
-4.69985E-3	-192.307E-12	668.651E-3	-30.6098E-3	-187.577E-12	660.916E-3	-41.8381E-3
-4.70485E-3	-192.832E-12	687.610E-3	-22.5412E-3	-185.907E-12	666.052E-3	-7.30350E-3
-4.70985E-3	-194.458E-12	714.106E-3	-2.96616E-3	-186.843E-12	671.678E-3	12.4448E-3
-4.71486E-3	-194.624E-12	698.313E-3	-5.77774E-3	-188.756E-12	692.484E-3	-19.0349E-3
-4.71986E-3	-193.841E-12	679.108E-3	-11.4283E-3	-190.712E-12	696.535E-3	-13.5849E-3
-4.72486E-3	-194.154E-12	686.274E-3	-4.26899E-3	-190.065E-12	697.590E-3	6.57395E-3
-4.72986E-3	-193.968E-12	684.038E-3	-15.3375E-3	-191.145E-12	710.938E-3	-9.74689E-3
-4.73487E-3	-193.093E-12	682.730E-3	-40.3013E-3	-192.792E-12	713.302E-3	-2.84374E-3
-4.73987E-3	-192.482E-12	662.825E-3	-50.8979E-3	-194.537E-12	717.340E-3	8.08909E-3
-4.74487E-3	-191.551E-12	648.521E-3	-50.5871E-3	-194.918E-12	700.396E-3	-12.3217E-3
-4.74988E-3	-191.074E-12	659.261E-3	-42.1628E-3	-196.125E-12	660.727E-3	-31.8031E-3
-4.75488E-3	-191.129E-12	662.501E-3	-28.5050E-3	-197.113E-12	650.414E-3	-49.9738E-3
-4.75988E-3	-191.181E-12	674.583E-3	-39.7891E-3	-196.149E-12	667.527E-3	-52.9660E-3
-4.76488E-3	-190.438E-12	682.376E-3	-48.4611E-3	-195.608E-12	680.381E-3	-30.0703E-3
-4.76988E-3	-191.982E-12	655.362E-3	-20.4542E-3	-195.948E-12	682.016E-3	-2.81574E-3
-4.77489E-3	-191.616E-12	643.065E-3	-7.70788E-3	-196.148E-12	676.554E-3	9.53878E-3
-4.77989E-3	-192.697E-12	653.838E-3	-8.35371E-3	-194.550E-12	664.737E-3	424.595E-6
-4.78489E-3	-192.213E-12	641.374E-3	706.491E-6	-194.302E-12	657.187E-3	8.69659E-3
-4.78989E-3	-192.820E-12	633.948E-3	-16.2963E-3	-193.946E-12	640.069E-3	27.9415E-3
-4.79490E-3	-194.476E-12	646.651E-3	-47.1924E-3	-193.706E-12	618.993E-3	15.3239E-3
-4.79990E-3	-195.304E-12	644.723E-3	-60.0646E-3	-192.800E-12	634.512E-3	2.37647E-3
-4.80490E-3	-195.571E-12	647.363E-3	-55.4712E-3	-191.771E-12	663.170E-3	2.43574E-3
-4.80990E-3	-196.617E-12	694.037E-3	-47.6583E-3	-191.438E-12	669.297E-3	2.70061E-3
-4.81491E-3	-198.824E-12	732.255E-3	-33.9725E-3	-192.051E-12	659.656E-3	11.1918E-3
-4.81991E-3	-197.829E-12	707.741E-3	-28.3218E-3	-192.764E-12	639.716E-3	-12.6028E-3
-4.82491E-3	-198.762E-12	663.881E-3	-41.2864E-3	-193.427E-12	627.454E-3	-43.3797E-3
-4.82991E-3	-197.720E-12	645.765E-3	-30.6860E-3	-191.828E-12	653.936E-3	-18.8751E-3
-4.83492E-3	-199.502E-12	645.833E-3	-16.1934E-3	-193.419E-12	684.541E-3	2.86823E-3
-4.83992E-3	-197.475E-12	648.021E-3	-22.3549E-3	-195.303E-12	676.477E-3	-11.1777E-3
-4.84492E-3	-195.989E-12	654.484E-3	-26.8682E-3	-197.497E-12	649.909E-3	-32.5934E-3
-4.84992E-3	-194.686E-12	662.113E-3	-29.7346E-3	-196.929E-12	654.637E-3	-52.7580E-3
-4.85493E-3	-194.943E-12	673.884E-3	-37.8708E-3	-198.305E-12	681.435E-3	-58.2694E-3
-4.85993E-3	-193.462E-12	685.440E-3	-38.6426E-3	-199.895E-12	679.155E-3	-29.0430E-3
-4.86493E-3	-191.843E-12	671.477E-3	-36.4215E-3	-201.200E-12	648.278E-3	19.0735E-3
-4.86993E-3	-191.210E-12	656.030E-3	-24.0724E-3	-200.819E-12	623.999E-3	16.5840E-3
-4.87494E-3	-191.552E-12	661.745E-3	-1.76546E-3	-202.370E-12	647.610E-3	-34.6389E-3
-4.87994E-3	-191.037E-12	655.354E-3	-11.4339E-3	-201.539E-12	678.597E-3	-63.0819E-3
-4.88494E-3	-191.848E-12	622.541E-3	-30.8245E-3	-200.873E-12	675.277E-3	-36.9242E-3
-4.88995E-3	-193.520E-12	590.082E-3	-23.3899E-3	-200.097E-12	678.481E-3	-4.14474E-3
-4.89495E-3	-195.512E-12	592.632E-3	-536.116E-6	-200.779E-12	684.700E-3	-11.1811E-3
-4.89995E-3	-196.413E-12	628.397E-3	18.4833E-3	-199.808E-12	668.142E-3	-30.8356E-3
-4.90495E-3	-198.557E-12	659.635E-3	21.0954E-3	-198.224E-12	648.766E-3	-32.2679E-3
-4.90995E-3	-200.809E-12	674.373E-3	1.53149E-3	-198.043E-12	642.064E-3	-15.3135E-3
-4.91496E-3	-202.656E-12	685.522E-3	-16.7043E-3	-197.291E-12	630.012E-3	-7.71042E-3
-4.91996E-3	-203.751E-12	691.223E-3	-10.6604E-3	-198.354E-12	611.728E-3	-18.9428E-3
-4.92496E-3	-204.044E-12	687.466E-3	-7.00561E-3	-197.353E-12	617.858E-3	-16.4950E-3
-4.92996E-3	-204.012E-12	688.266E-3	-20.0782E-3	-197.557E-12	641.695E-3	-3.17310E-3
-4.93497E-3	-202.680E-12	693.939E-3	-11.2667E-3	-197.719E-12	654.762E-3	-9.47196E-3
-4.93997E-3	-202.599E-12	677.070E-3	9.52822E-3	-199.138E-12	666.702E-3	-20.7919E-3
-4.94497E-3	-201.848E-12	648.455E-3	-4.19954E-3	-201.427E-12	671.087E-3	-25.5935E-3
-4.94997E-3	-200.451E-12	643.148E-3	-24.4393E-3	-201.843E-12	668.139E-3	-30.2595E-3
-4.95498E-3	-198.285E-12	662.284E-3	-16.5890E-3	-203.538E-12	682.645E-3	-33.6492E-3
-4.95998E-3	-197.920E-12	691.525E-3	7.82042E-3	-204.404E-12	708.009E-3	-35.6890E-3
-4.96498E-3	-197.952E-12	699.847E-3	21.0524E-3	-207.730E-12	700.841E-3	-26.4523E-3
-4.96998E-3	-198.098E-12	676.657E-3	8.82412E-3	-208.098E-12	664.927E-3	-16.4384E-3
-4.97499E-3	-197.594E-12	656.444E-3	11.6584E-3	-208.944E-12	648.914E-3	-16.9002E-3
-4.97999E-3	-198.310E-12	646.847E-3	11.8901E-3	-209.317E-12	658.537E-3	-17.6824E-3
-4.98499E-3	-199.897E-12	634.461E-3	-18.7946E-3	-209.897E-12	672.046E-3	-21.0799E-3
-4.98999E-3	-201.209E-12	630.197E-3	-29.6022E-3	-208.781E-12	671.675E-3	-9.25994E-3
-4.99500E-3	-203.525E-12	633.572E-3	-16.0839E-3	-206.771E-12	652.824E-3	8.02556E-3
-5.00000E-3	-204.844E-12	637.068E-3	-4.22919E-3	-207.010E-12	639.556E-3	5.31292E-3
