Experiment	bias spectroscopy	
Date	19.01.2016 22:05:41	
User		
X (m)	50.2618E-9	
Y (m)	257.803E-9	
Z (m)	-132.623E-9	
Z offset (m)	0E+0	
Settling time (s)	200E-6	
Integration time (s)	5E-3	
Z-Ctrl hold	TRUE	
Final Z (m)	N/A	
Filter type	None	
Order		
Cutoff frq		
Comment01	MnPc/Pb(111)	
Comment02	dz =00pm	
Comment03	7 Sweeps	
Comment04	MagField =0.T	
Comment05	Divider 1:10	
Comment06	Setpoint:5mV,200 pA	
Comment07	Lockin: 50uVrms,5ms,5mV	
Comment08	Gain:9; 912Hz modulation	
Comment09	T=1.06K	
Bias>Bias (V)	5E-3	
Bias>Calibration (V/V)	81.475E-3	
Bias>Offset (V)	1.046E-3	
Bias Spectroscopy>Sweep Start (V)	5E-3	
Bias Spectroscopy>Sweep End (V)	-5E-3	
Bias Spectroscopy>Num Pixel	2000	
Bias Spectroscopy>Z Avg time (s)	500E-3	
Bias Spectroscopy>Z offset (m)	0E+0	
Bias Spectroscopy>1st Settling time (s)	500E-3	
Bias Spectroscopy>Settling time (s)	200E-6	
Bias Spectroscopy>Integration time (s)	5E-3	
Bias Spectroscopy>End Settling time (s)	500E-3	
Bias Spectroscopy>Z control time (s)	500E-3	
Bias Spectroscopy>Max Slew rate (V/s)	Inf	
Bias Spectroscopy>backward sweep	TRUE	
Bias Spectroscopy>Z-controller hold	TRUE	
Bias Spectroscopy>Number of sweeps	7	
Bias Spectroscopy>Channels	Current (A);X% LockIn (V);Y% LockIn (V)	
Bias Spectroscopy>Reset Bias	TRUE	
Bias Spectroscopy>Record final Z	FALSE	
Bias Spectroscopy>Lock-In run	FALSE	
Bias Spectroscopy>Sweep mode	Linear	
Bias Spectroscopy>MultiLine Settings : Segment Start (V), Segment End (V), Settling (s), Integration (s), Steps (xn)	100E-3,3.3E-3,100E-6,10E-3,2500;3.3E-3,-3.3E-3,100E-6,10E-3,10;-3.3E-3,-100E-3,100E-6,10E-3,2500	
Current>Current (A)	200.117E-12	
Current>Calibration (A/V)	999.99900E-12	
Current>Offset (A)	-455.429E-15	
Current>Gain	LN 10^9	
Z-Controller>Z (m)	-132.623E-9	
Z-Controller>Controller name	log Current	
Z-Controller>Controller status	ON	
Z-Controller>Setpoint	200E-12	
Z-Controller>Setpoint unit	A	
Z-Controller>P gain	2.96994E-12	
Z-Controller>I gain	67.0321E-9	
Z-Controller>Time const (s)	44.3062E-6	
Z-Controller>TipLift (m)	0E+0	
Z-Controller>Switch off delay (s)	50E-3	
Current (A)	200.189E-12	
Z (m)	-132.623E-9	

[DATA]
Bias calc (V)	Current (A)	X% LockIn (V)	Y% LockIn (V)	Current [bwd] (A)	X% LockIn [bwd] (V)	Y% LockIn [bwd] (V)
5.00000E-3	200.142E-12	663.996E-3	-28.8634E-3	202.089E-12	639.648E-3	35.3375E-3
4.99500E-3	199.167E-12	661.817E-3	-59.5676E-3	203.135E-12	660.779E-3	12.9365E-3
4.98999E-3	198.199E-12	668.774E-3	-45.3943E-3	202.933E-12	661.613E-3	-54.9342E-3
4.98499E-3	197.281E-12	681.648E-3	-17.0100E-3	202.479E-12	653.813E-3	-89.2011E-3
4.97999E-3	197.090E-12	699.542E-3	-18.1678E-3	203.133E-12	651.206E-3	-42.6378E-3
4.97499E-3	197.382E-12	678.141E-3	-38.1291E-3	203.267E-12	665.659E-3	-2.29064E-3
4.96998E-3	196.136E-12	628.553E-3	-54.6165E-3	203.132E-12	688.222E-3	-1.79226E-3
4.96498E-3	196.771E-12	627.129E-3	-49.3075E-3	200.370E-12	704.920E-3	-1.61558E-3
4.95998E-3	197.095E-12	659.527E-3	-50.2451E-3	199.220E-12	694.864E-3	-21.4997E-3
4.95498E-3	196.936E-12	654.852E-3	-60.6448E-3	198.349E-12	649.923E-3	-48.5525E-3
4.94997E-3	197.840E-12	648.665E-3	-41.3793E-3	197.942E-12	629.008E-3	-54.2690E-3
4.94497E-3	197.433E-12	665.539E-3	-834.900E-6	195.472E-12	653.392E-3	-63.5856E-3
4.93997E-3	199.185E-12	683.630E-3	9.65725E-3	193.876E-12	673.317E-3	-63.6623E-3
4.93497E-3	201.003E-12	678.027E-3	-12.2453E-3	193.040E-12	680.688E-3	-32.1235E-3
4.92996E-3	201.345E-12	663.213E-3	-11.7832E-3	193.704E-12	683.597E-3	6.85547E-3
4.92496E-3	199.181E-12	675.470E-3	1.37328E-3	193.851E-12	667.101E-3	27.1148E-3
4.91996E-3	199.450E-12	692.450E-3	-6.63921E-3	192.088E-12	639.378E-3	19.8508E-3
4.91496E-3	199.488E-12	688.458E-3	-23.9005E-3	192.408E-12	636.690E-3	-3.92687E-3
4.90995E-3	198.722E-12	684.907E-3	-33.0242E-3	193.700E-12	669.338E-3	-22.4047E-3
4.90495E-3	197.423E-12	696.894E-3	-36.7389E-3	194.808E-12	680.386E-3	2.06025E-3
4.89995E-3	196.702E-12	693.628E-3	-35.6034E-3	195.173E-12	666.988E-3	27.2813E-3
4.89495E-3	195.221E-12	670.842E-3	-6.32535E-3	195.830E-12	671.414E-3	2.78086E-3
4.88995E-3	194.055E-12	676.276E-3	30.0160E-3	196.149E-12	688.183E-3	-32.0722E-3
4.88494E-3	193.810E-12	696.531E-3	30.7007E-3	198.042E-12	712.365E-3	-53.6322E-3
4.87994E-3	192.646E-12	695.429E-3	17.5037E-3	198.484E-12	722.347E-3	-52.9582E-3
4.87494E-3	192.629E-12	691.754E-3	10.1076E-3	197.111E-12	687.160E-3	-40.4158E-3
4.86993E-3	193.105E-12	677.888E-3	-7.95767E-3	197.283E-12	660.595E-3	-27.5517E-3
4.86493E-3	194.034E-12	674.384E-3	-27.0438E-3	197.830E-12	684.346E-3	-6.78161E-3
4.85993E-3	194.104E-12	668.630E-3	-14.8597E-3	198.862E-12	678.597E-3	12.0274E-3
4.85493E-3	194.098E-12	649.961E-3	23.4211E-3	195.952E-12	654.247E-3	12.0020E-3
4.84992E-3	194.671E-12	668.263E-3	32.5599E-3	194.491E-12	680.835E-3	-9.47918E-3
4.84492E-3	196.136E-12	709.519E-3	236.964E-6	193.029E-12	703.649E-3	-13.6428E-3
4.83992E-3	195.974E-12	739.973E-3	-21.9578E-3	193.073E-12	682.888E-3	1.58780E-3
4.83492E-3	197.264E-12	737.697E-3	-9.85026E-3	191.351E-12	666.152E-3	-20.3525E-3
4.82991E-3	197.230E-12	699.229E-3	10.3211E-3	189.718E-12	663.463E-3	-44.2062E-3
4.82491E-3	197.426E-12	656.908E-3	33.6690E-3	188.434E-12	638.453E-3	-7.33798E-3
4.81991E-3	196.739E-12	656.016E-3	44.0337E-3	188.589E-12	634.677E-3	3.49967E-3
4.81491E-3	195.259E-12	688.700E-3	24.9598E-3	187.428E-12	660.191E-3	-46.1529E-3
4.80990E-3	193.699E-12	709.234E-3	-4.57276E-3	186.779E-12	646.942E-3	-67.5534E-3
4.80490E-3	192.621E-12	711.604E-3	-37.8338E-3	186.954E-12	630.662E-3	-44.6257E-3
4.79990E-3	190.978E-12	699.110E-3	-40.9704E-3	188.067E-12	648.654E-3	-16.9090E-3
4.79490E-3	189.453E-12	681.502E-3	-18.3544E-3	189.272E-12	642.494E-3	6.06129E-3
4.78989E-3	188.860E-12	670.294E-3	-2.26248E-3	190.158E-12	609.746E-3	2.68736E-3
4.78489E-3	188.537E-12	646.491E-3	19.2796E-3	190.587E-12	599.342E-3	-23.5976E-3
4.77989E-3	187.637E-12	636.169E-3	49.3835E-3	192.511E-12	625.724E-3	-24.4456E-3
4.77489E-3	187.035E-12	631.346E-3	46.2153E-3	194.223E-12	654.711E-3	-7.89165E-3
4.76988E-3	188.356E-12	613.458E-3	-918.073E-6	193.894E-12	666.910E-3	-17.4790E-3
4.76488E-3	188.294E-12	621.478E-3	-43.9098E-3	193.772E-12	685.363E-3	-31.8754E-3
4.75988E-3	187.993E-12	616.597E-3	-30.2790E-3	193.854E-12	687.511E-3	193.369E-6
4.75488E-3	188.923E-12	606.601E-3	-3.90396E-3	194.124E-12	671.484E-3	19.8976E-3
4.74988E-3	189.411E-12	630.395E-3	-17.0489E-3	193.013E-12	674.353E-3	-10.5069E-3
4.74487E-3	188.690E-12	649.480E-3	-13.7073E-3	190.758E-12	686.085E-3	-42.7441E-3
4.73987E-3	189.507E-12	682.998E-3	6.34011E-3	188.814E-12	678.373E-3	-56.0086E-3
4.73487E-3	189.095E-12	709.795E-3	940.945E-6	188.018E-12	671.381E-3	-38.2914E-3
4.72986E-3	189.095E-12	685.096E-3	-16.6914E-3	187.058E-12	673.059E-3	-1.57444E-3
4.72486E-3	188.098E-12	659.333E-3	-15.3971E-3	184.844E-12	650.954E-3	-5.33668E-3
4.71986E-3	189.024E-12	671.122E-3	-1.36190E-3	183.500E-12	614.329E-3	-47.1828E-3
4.71486E-3	188.086E-12	696.463E-3	-1.64643E-3	182.344E-12	593.443E-3	-52.3990E-3
4.70985E-3	187.216E-12	684.273E-3	-12.4027E-3	183.031E-12	611.827E-3	-27.6293E-3
4.70485E-3	186.291E-12	651.587E-3	-1.80265E-3	182.270E-12	642.898E-3	-19.6568E-3
4.69985E-3	186.002E-12	643.630E-3	-1.98867E-3	181.884E-12	639.527E-3	206.543E-6
4.69485E-3	185.429E-12	649.863E-3	-27.5133E-3	183.112E-12	641.009E-3	35.4456E-3
4.68984E-3	185.694E-12	670.201E-3	-22.8178E-3	185.239E-12	664.489E-3	43.1772E-3
4.68484E-3	185.505E-12	700.823E-3	16.1728E-3	186.789E-12	685.183E-3	12.3879E-3
4.67984E-3	185.464E-12	718.648E-3	37.8964E-3	188.202E-12	710.014E-3	-38.5633E-3
4.67484E-3	185.521E-12	724.995E-3	27.8998E-3	188.158E-12	728.224E-3	-52.7242E-3
4.66983E-3	184.629E-12	712.280E-3	15.2208E-3	190.272E-12	724.268E-3	-9.08068E-3
4.66483E-3	184.429E-12	691.893E-3	1.03773E-3	190.927E-12	701.623E-3	24.2402E-3
4.65983E-3	184.716E-12	672.165E-3	-27.9375E-3	191.243E-12	675.852E-3	6.99173E-3
4.65483E-3	185.066E-12	656.446E-3	-59.9336E-3	189.867E-12	661.246E-3	3.00711E-3
4.64982E-3	184.798E-12	627.050E-3	-47.7934E-3	188.731E-12	665.805E-3	10.3813E-3
4.64482E-3	184.275E-12	599.408E-3	-7.45463E-3	187.800E-12	671.412E-3	-20.7156E-3
4.63982E-3	184.440E-12	620.314E-3	8.91872E-3	187.209E-12	671.624E-3	-47.2495E-3
4.63482E-3	184.106E-12	650.702E-3	14.4879E-3	183.615E-12	674.276E-3	-38.2285E-3
4.62981E-3	183.575E-12	664.003E-3	11.2190E-3	181.862E-12	657.031E-3	-29.2195E-3
4.62481E-3	183.380E-12	673.948E-3	1.46298E-3	181.584E-12	635.091E-3	-31.9076E-3
4.61981E-3	185.193E-12	672.533E-3	-14.0744E-3	179.605E-12	618.884E-3	-19.5432E-3
4.61481E-3	184.994E-12	678.799E-3	-27.3024E-3	179.024E-12	608.625E-3	-7.27664E-3
4.60980E-3	184.083E-12	683.078E-3	-26.2706E-3	178.390E-12	623.901E-3	-22.6746E-3
4.60480E-3	183.291E-12	651.275E-3	-24.7006E-3	178.376E-12	632.284E-3	-27.8840E-3
4.59980E-3	183.184E-12	633.573E-3	-18.4110E-3	177.938E-12	646.852E-3	-2.75590E-3
4.59480E-3	183.741E-12	648.899E-3	-8.78109E-3	179.902E-12	689.997E-3	9.61777E-3
4.58979E-3	183.522E-12	662.613E-3	1.04915E-3	180.736E-12	696.182E-3	1.08232E-3
4.58479E-3	182.484E-12	665.214E-3	9.73893E-3	181.341E-12	659.054E-3	10.0190E-3
4.57979E-3	180.832E-12	668.667E-3	3.80220E-3	182.498E-12	639.992E-3	17.4726E-3
4.57479E-3	181.249E-12	680.830E-3	-22.7358E-3	183.040E-12	664.693E-3	7.08947E-3
4.56978E-3	180.302E-12	691.749E-3	-29.3722E-3	183.495E-12	697.390E-3	6.77881E-3
4.56478E-3	178.760E-12	677.655E-3	3.39542E-3	183.893E-12	695.332E-3	-4.90455E-3
4.55978E-3	176.922E-12	650.417E-3	16.9086E-3	184.498E-12	672.227E-3	-20.5543E-3
4.55478E-3	177.192E-12	636.888E-3	-15.7720E-3	183.713E-12	661.341E-3	-29.9235E-3
4.54977E-3	177.978E-12	639.265E-3	-39.1975E-3	183.487E-12	652.689E-3	-41.2032E-3
4.54477E-3	177.117E-12	648.459E-3	-16.6424E-3	183.176E-12	639.084E-3	-44.8897E-3
4.53977E-3	176.502E-12	640.935E-3	8.56172E-3	181.854E-12	650.205E-3	-30.7576E-3
4.53477E-3	176.691E-12	638.335E-3	-4.56834E-3	180.706E-12	672.766E-3	-8.43309E-3
4.52976E-3	178.445E-12	640.969E-3	-13.6710E-3	179.501E-12	673.373E-3	-13.8211E-3
4.52476E-3	178.771E-12	640.332E-3	5.19463E-3	178.126E-12	658.009E-3	-36.7175E-3
4.51976E-3	179.491E-12	653.667E-3	14.4776E-3	176.792E-12	640.896E-3	-40.3186E-3
4.51476E-3	179.898E-12	652.475E-3	5.55185E-3	176.770E-12	635.047E-3	-35.5196E-3
4.50975E-3	180.506E-12	633.908E-3	-8.76875E-3	175.462E-12	634.363E-3	-42.9612E-3
4.50475E-3	181.915E-12	631.591E-3	-14.0137E-3	174.828E-12	625.588E-3	-44.0287E-3
4.49975E-3	181.799E-12	647.711E-3	-17.6668E-3	174.614E-12	634.491E-3	-34.8635E-3
4.49475E-3	180.504E-12	651.505E-3	-2.70298E-3	174.533E-12	654.887E-3	-39.1231E-3
4.48974E-3	179.506E-12	652.359E-3	30.8658E-3	174.744E-12	659.306E-3	-49.2986E-3
4.48474E-3	179.572E-12	669.148E-3	26.2986E-3	175.911E-12	655.131E-3	-53.2358E-3
4.47974E-3	178.846E-12	687.292E-3	-5.40016E-3	176.200E-12	667.331E-3	-52.3496E-3
4.47474E-3	177.497E-12	684.022E-3	-20.5560E-3	176.572E-12	693.208E-3	-49.6370E-3
4.46973E-3	176.532E-12	652.876E-3	-25.3493E-3	177.807E-12	697.442E-3	-47.1211E-3
4.46473E-3	175.776E-12	637.810E-3	-15.5467E-3	178.083E-12	677.301E-3	-30.6860E-3
4.45973E-3	175.789E-12	656.724E-3	2.65534E-3	178.801E-12	642.798E-3	2.44013E-3
4.45473E-3	174.703E-12	670.082E-3	1.87661E-3	178.678E-12	619.630E-3	31.9992E-3
4.44972E-3	174.245E-12	664.081E-3	7.08266E-3	178.885E-12	629.767E-3	19.8715E-3
4.44472E-3	174.290E-12	637.404E-3	10.9313E-3	178.516E-12	664.263E-3	-28.8592E-3
4.43972E-3	174.939E-12	610.715E-3	-2.39250E-3	178.367E-12	695.637E-3	-54.4835E-3
4.43472E-3	175.699E-12	623.222E-3	-17.8666E-3	177.573E-12	692.998E-3	-43.3387E-3
4.42971E-3	175.980E-12	664.832E-3	-7.31274E-3	177.104E-12	676.347E-3	-38.1981E-3
4.42471E-3	177.069E-12	685.378E-3	18.0352E-3	176.157E-12	672.361E-3	-31.0542E-3
4.41971E-3	177.756E-12	673.619E-3	9.51458E-3	175.670E-12	678.024E-3	6.02912E-3
4.41471E-3	177.429E-12	666.125E-3	-13.8111E-3	174.758E-12	670.822E-3	25.5486E-3
4.40970E-3	177.471E-12	665.878E-3	-20.6682E-3	172.849E-12	639.991E-3	10.2442E-3
4.40470E-3	178.196E-12	671.176E-3	-11.1348E-3	171.709E-12	644.051E-3	-21.6969E-3
4.39970E-3	178.097E-12	688.737E-3	-9.53170E-3	171.105E-12	687.307E-3	-38.5244E-3
4.39470E-3	178.251E-12	684.535E-3	-23.6272E-3	170.351E-12	699.592E-3	-24.2889E-3
4.38969E-3	176.942E-12	666.060E-3	-32.5704E-3	169.710E-12	683.152E-3	-10.1910E-3
4.38469E-3	175.249E-12	672.854E-3	-33.2316E-3	169.318E-12	687.039E-3	-25.0178E-3
4.37969E-3	173.997E-12	679.185E-3	-29.7396E-3	170.327E-12	696.207E-3	-53.3753E-3
4.37469E-3	172.852E-12	674.465E-3	-796.682E-6	170.363E-12	711.163E-3	-43.4746E-3
4.36968E-3	171.242E-12	664.061E-3	16.0786E-3	171.038E-12	720.336E-3	-12.7168E-3
4.36468E-3	170.110E-12	640.660E-3	-5.81237E-3	171.743E-12	694.473E-3	-11.6300E-3
4.35968E-3	169.965E-12	622.266E-3	-7.21273E-3	172.939E-12	699.233E-3	-19.2394E-3
4.35468E-3	169.466E-12	627.699E-3	12.0932E-3	173.418E-12	718.396E-3	-23.9475E-3
4.34967E-3	168.524E-12	652.931E-3	-3.61994E-3	174.141E-12	691.378E-3	-65.6651E-3
4.34467E-3	168.461E-12	674.014E-3	-40.4972E-3	175.144E-12	676.249E-3	-99.6496E-3
4.33967E-3	168.228E-12	672.483E-3	-47.6637E-3	175.646E-12	690.707E-3	-66.7010E-3
4.33467E-3	168.591E-12	642.127E-3	-41.2763E-3	174.960E-12	694.452E-3	-35.1322E-3
4.32966E-3	169.150E-12	618.984E-3	-28.3785E-3	174.645E-12	682.237E-3	-37.6314E-3
4.32466E-3	169.425E-12	639.809E-3	-14.6794E-3	173.708E-12	681.621E-3	-25.3935E-3
4.31966E-3	169.046E-12	656.586E-3	-22.4587E-3	171.924E-12	688.000E-3	-6.58203E-3
4.31466E-3	168.726E-12	648.155E-3	-31.6063E-3	170.096E-12	671.083E-3	-2.46472E-3
4.30965E-3	169.546E-12	650.276E-3	-18.5145E-3	169.189E-12	658.182E-3	-10.4060E-3
4.30465E-3	169.605E-12	651.722E-3	-11.8919E-3	167.681E-12	653.121E-3	-15.3803E-3
4.29965E-3	168.578E-12	631.925E-3	-24.9987E-3	166.674E-12	621.329E-3	-8.10403E-3
4.29465E-3	168.258E-12	630.635E-3	-19.3671E-3	165.872E-12	597.292E-3	4.43789E-3
4.28964E-3	169.763E-12	648.501E-3	-16.2098E-3	164.984E-12	621.743E-3	17.8956E-3
4.28464E-3	169.829E-12	647.195E-3	-37.2522E-3	164.463E-12	653.191E-3	13.0087E-3
4.27964E-3	168.653E-12	646.999E-3	-59.2793E-3	164.812E-12	650.125E-3	-7.45326E-3
4.27464E-3	168.229E-12	663.629E-3	-70.7043E-3	164.779E-12	647.635E-3	-25.0399E-3
4.26963E-3	167.068E-12	663.098E-3	-76.0020E-3	165.218E-12	659.537E-3	-34.8114E-3
4.26463E-3	167.206E-12	662.698E-3	-73.6168E-3	166.640E-12	671.095E-3	-41.5729E-3
4.25963E-3	166.635E-12	668.120E-3	-53.6145E-3	167.860E-12	695.409E-3	-33.3077E-3
4.25463E-3	166.108E-12	669.202E-3	-28.2390E-3	168.243E-12	707.429E-3	-9.34821E-3
4.24962E-3	165.894E-12	690.895E-3	-23.6133E-3	169.319E-12	697.957E-3	12.6027E-3
4.24462E-3	166.503E-12	690.155E-3	-31.7952E-3	171.367E-12	689.839E-3	6.54299E-3
4.23962E-3	165.529E-12	658.382E-3	-25.6551E-3	171.252E-12	677.398E-3	-16.3879E-3
4.23462E-3	164.621E-12	650.533E-3	-11.0807E-3	171.425E-12	684.564E-3	-8.92096E-3
4.22961E-3	165.584E-12	668.884E-3	-6.58160E-3	170.991E-12	697.214E-3	-11.6046E-3
4.22461E-3	166.577E-12	678.146E-3	-4.68063E-3	171.170E-12	677.119E-3	-20.1896E-3
4.21961E-3	165.803E-12	667.861E-3	-13.8377E-3	169.366E-12	651.731E-3	254.735E-6
4.21461E-3	164.795E-12	650.061E-3	-48.1440E-3	168.626E-12	648.231E-3	6.19899E-3
4.20960E-3	164.870E-12	637.183E-3	-69.5234E-3	166.193E-12	662.552E-3	-13.0092E-3
4.20460E-3	165.767E-12	640.029E-3	-51.9696E-3	165.189E-12	667.865E-3	-42.6368E-3
4.19960E-3	164.492E-12	652.796E-3	-34.0453E-3	164.626E-12	651.177E-3	-52.0644E-3
4.19460E-3	165.001E-12	658.437E-3	-39.2334E-3	162.747E-12	629.917E-3	-46.5698E-3
4.18959E-3	164.086E-12	672.773E-3	-45.6740E-3	161.269E-12	628.385E-3	-47.6123E-3
4.18459E-3	165.613E-12	681.007E-3	-33.6257E-3	160.677E-12	642.415E-3	-35.2648E-3
4.17959E-3	165.383E-12	660.009E-3	-28.9476E-3	160.901E-12	651.441E-3	-29.8200E-3
4.17459E-3	165.165E-12	637.778E-3	-32.1528E-3	160.460E-12	660.399E-3	-28.1125E-3
4.16958E-3	163.687E-12	632.544E-3	-24.2081E-3	160.485E-12	650.373E-3	-9.67833E-3
4.16458E-3	163.419E-12	652.601E-3	-32.6791E-3	161.323E-12	634.624E-3	-6.30770E-3
4.15958E-3	163.885E-12	669.019E-3	-43.1515E-3	162.995E-12	638.819E-3	-10.3444E-3
4.15458E-3	162.992E-12	664.768E-3	-18.1522E-3	163.550E-12	640.945E-3	-431.361E-6
4.14957E-3	162.686E-12	655.793E-3	21.3950E-3	163.963E-12	655.764E-3	2.79864E-3
4.14457E-3	161.355E-12	657.274E-3	25.4137E-3	165.203E-12	673.198E-3	-13.8686E-3
4.13957E-3	161.118E-12	680.337E-3	-11.7370E-3	166.209E-12	667.608E-3	-28.3822E-3
4.13457E-3	160.666E-12	703.682E-3	-32.8152E-3	166.199E-12	669.086E-3	-23.6702E-3
4.12956E-3	160.462E-12	701.941E-3	-36.5744E-3	165.777E-12	674.092E-3	-16.9077E-3
4.12456E-3	159.640E-12	682.011E-3	-26.7085E-3	165.025E-12	663.269E-3	-5.38189E-3
4.11956E-3	159.352E-12	663.550E-3	-1.26752E-3	164.994E-12	649.441E-3	8.97754E-3
4.11456E-3	159.147E-12	661.507E-3	-12.7693E-3	163.680E-12	637.419E-3	-5.71711E-3
4.10955E-3	159.996E-12	689.480E-3	-42.7285E-3	162.060E-12	632.255E-3	-24.4165E-3
4.10455E-3	159.966E-12	691.944E-3	-35.5058E-3	159.964E-12	649.873E-3	-30.5179E-3
4.09955E-3	159.564E-12	659.860E-3	-8.73815E-3	159.194E-12	669.350E-3	-37.2877E-3
4.09455E-3	160.874E-12	647.475E-3	-17.5849E-3	157.985E-12	666.094E-3	-31.5325E-3
4.08954E-3	161.558E-12	656.814E-3	-33.9194E-3	156.866E-12	670.188E-3	-23.4651E-3
4.08454E-3	161.824E-12	667.815E-3	-30.9366E-3	155.478E-12	676.313E-3	-17.6027E-3
4.07954E-3	161.780E-12	648.842E-3	-22.5603E-3	154.771E-12	662.294E-3	-13.4273E-3
4.07454E-3	161.314E-12	619.281E-3	-12.6420E-3	155.135E-12	654.943E-3	-16.7689E-3
4.06953E-3	161.599E-12	628.081E-3	-16.4962E-3	154.774E-12	669.179E-3	-16.1094E-3
4.06453E-3	161.307E-12	649.378E-3	-28.6376E-3	155.194E-12	681.012E-3	-10.9256E-3
4.05953E-3	160.019E-12	644.626E-3	-28.6034E-3	155.259E-12	675.540E-3	-6.50808E-3
4.05453E-3	158.990E-12	632.749E-3	-17.2450E-3	157.140E-12	670.178E-3	6.78272E-3
4.04952E-3	158.888E-12	638.066E-3	5.70547E-3	156.845E-12	677.442E-3	12.4603E-3
4.04452E-3	158.715E-12	658.654E-3	24.4159E-3	158.085E-12	677.851E-3	6.00007E-3
4.03952E-3	157.534E-12	669.256E-3	18.3216E-3	158.787E-12	668.944E-3	-399.903E-6
4.03452E-3	156.043E-12	668.758E-3	-5.25371E-3	160.618E-12	674.904E-3	-8.52996E-3
4.02951E-3	155.715E-12	670.439E-3	-47.7078E-3	160.317E-12	701.663E-3	-37.1896E-3
4.02451E-3	155.949E-12	658.397E-3	-66.6991E-3	160.076E-12	703.179E-3	-66.1668E-3
4.01951E-3	155.133E-12	654.346E-3	-33.3620E-3	159.811E-12	667.694E-3	-44.8263E-3
4.01451E-3	155.565E-12	654.132E-3	2.92363E-3	160.318E-12	665.461E-3	-16.8852E-3
4.00950E-3	155.440E-12	649.061E-3	1.20204E-3	159.479E-12	683.806E-3	-11.6231E-3
4.00450E-3	154.734E-12	661.260E-3	-18.8097E-3	157.486E-12	685.075E-3	-19.1898E-3
3.99950E-3	155.817E-12	660.166E-3	-19.0765E-3	156.174E-12	684.435E-3	-35.5637E-3
3.99450E-3	157.320E-12	637.087E-3	-9.30543E-3	156.014E-12	671.686E-3	-43.9110E-3
3.98949E-3	156.752E-12	644.992E-3	-10.7098E-3	155.743E-12	656.987E-3	-29.6860E-3
3.98449E-3	157.035E-12	675.891E-3	-21.7873E-3	153.941E-12	652.499E-3	-4.87388E-3
3.97949E-3	157.860E-12	680.227E-3	-32.1476E-3	152.741E-12	658.205E-3	4.83038E-3
3.97449E-3	156.995E-12	671.034E-3	-34.5178E-3	153.146E-12	666.271E-3	2.92756E-3
3.96948E-3	157.353E-12	674.319E-3	-15.5066E-3	153.120E-12	646.688E-3	-1.99568E-3
3.96448E-3	156.159E-12	677.141E-3	-1.40290E-3	152.352E-12	621.149E-3	-6.15668E-3
3.95948E-3	155.060E-12	654.471E-3	-28.1505E-3	151.717E-12	625.315E-3	-27.4858E-3
3.95448E-3	154.881E-12	630.952E-3	-58.6370E-3	152.184E-12	651.077E-3	-50.7688E-3
3.94947E-3	154.471E-12	635.987E-3	-59.8897E-3	152.727E-12	680.144E-3	-40.4919E-3
3.94447E-3	152.093E-12	634.921E-3	-43.1409E-3	152.263E-12	696.027E-3	-21.3695E-3
3.93947E-3	151.098E-12	640.542E-3	-22.9300E-3	152.827E-12	694.883E-3	-20.5839E-3
3.93447E-3	150.709E-12	668.023E-3	-21.8901E-3	153.897E-12	692.490E-3	-17.8908E-3
3.92946E-3	150.981E-12	644.612E-3	-29.1840E-3	154.436E-12	694.694E-3	16.3029E-3
3.92446E-3	149.132E-12	597.829E-3	-17.9255E-3	154.544E-12	696.350E-3	31.5461E-3
3.91946E-3	149.344E-12	602.942E-3	-281.991E-6	155.006E-12	709.334E-3	-674.508E-6
3.91446E-3	149.150E-12	638.016E-3	23.9085E-3	155.165E-12	715.313E-3	-12.5682E-3
3.90945E-3	149.620E-12	665.111E-3	33.3766E-3	155.126E-12	703.485E-3	-4.03960E-3
3.90445E-3	150.037E-12	678.199E-3	8.73979E-3	155.410E-12	684.730E-3	1.06395E-3
3.89945E-3	150.686E-12	672.926E-3	-13.5174E-3	154.939E-12	668.817E-3	2.33333E-3
3.89445E-3	149.877E-12	660.125E-3	-8.12406E-3	153.489E-12	663.874E-3	-536.002E-6
3.88944E-3	150.454E-12	659.226E-3	-2.32078E-3	152.995E-12	658.001E-3	-298.759E-6
3.88444E-3	151.041E-12	659.484E-3	-8.42469E-3	151.431E-12	663.679E-3	-10.6559E-3
3.87944E-3	151.171E-12	664.139E-3	-12.6823E-3	150.858E-12	668.874E-3	-28.6873E-3
3.87444E-3	151.401E-12	662.124E-3	-19.8316E-3	149.637E-12	656.627E-3	-40.1320E-3
3.86943E-3	150.868E-12	644.967E-3	-40.0519E-3	148.425E-12	660.324E-3	-27.6910E-3
3.86443E-3	150.815E-12	640.982E-3	-43.3020E-3	147.428E-12	667.208E-3	-15.6622E-3
3.85943E-3	150.606E-12	643.536E-3	-28.3698E-3	146.695E-12	640.052E-3	-17.9068E-3
3.85443E-3	150.124E-12	647.256E-3	-38.3092E-3	146.244E-12	625.786E-3	-8.08617E-3
3.84942E-3	149.048E-12	663.310E-3	-43.8276E-3	145.984E-12	656.147E-3	2.52764E-3
3.84442E-3	148.330E-12	675.174E-3	-38.4703E-3	146.166E-12	685.905E-3	17.2263E-3
3.83942E-3	148.125E-12	672.533E-3	-31.7609E-3	146.651E-12	680.830E-3	9.52954E-3
3.83442E-3	147.721E-12	665.556E-3	-1.74167E-3	147.124E-12	648.956E-3	-26.8239E-3
3.82941E-3	147.594E-12	668.294E-3	26.4541E-3	147.539E-12	627.739E-3	-28.7192E-3
3.82441E-3	147.278E-12	687.930E-3	-2.11270E-3	148.580E-12	650.381E-3	-10.3799E-3
3.81941E-3	147.817E-12	687.510E-3	-36.8452E-3	149.709E-12	687.689E-3	-1.97682E-3
3.81441E-3	147.659E-12	667.749E-3	-11.2753E-3	150.409E-12	686.795E-3	16.6623E-3
3.80940E-3	147.569E-12	654.253E-3	16.2000E-3	151.204E-12	675.153E-3	24.0887E-3
3.80440E-3	147.932E-12	659.496E-3	16.4754E-3	151.947E-12	682.719E-3	-3.97327E-3
3.79940E-3	148.676E-12	691.394E-3	9.50305E-3	151.651E-12	686.354E-3	-20.9412E-3
3.79440E-3	148.394E-12	702.541E-3	-8.93903E-3	150.940E-12	688.749E-3	-9.01670E-3
3.78939E-3	148.395E-12	684.938E-3	-32.8972E-3	150.224E-12	683.573E-3	95.1194E-6
3.78439E-3	149.303E-12	682.453E-3	-39.9125E-3	148.594E-12	659.611E-3	18.3939E-3
3.77939E-3	149.171E-12	692.075E-3	-40.1607E-3	148.323E-12	646.371E-3	14.0158E-3
3.77439E-3	148.745E-12	697.715E-3	-36.3831E-3	146.750E-12	658.884E-3	-28.6369E-3
3.76938E-3	148.596E-12	693.983E-3	-24.2314E-3	145.155E-12	679.208E-3	-41.9761E-3
3.76438E-3	148.381E-12	674.817E-3	-10.8882E-3	143.724E-12	670.973E-3	-24.0966E-3
3.75938E-3	147.014E-12	644.527E-3	-1.83983E-3	143.391E-12	642.657E-3	-25.7666E-3
3.75438E-3	145.918E-12	626.864E-3	-15.7902E-3	141.481E-12	635.056E-3	-45.3189E-3
3.74937E-3	145.312E-12	632.256E-3	-32.4841E-3	141.208E-12	649.529E-3	-43.6050E-3
3.74437E-3	145.172E-12	642.515E-3	-35.5264E-3	141.022E-12	665.912E-3	-24.7825E-3
3.73937E-3	144.076E-12	652.549E-3	-35.6853E-3	141.537E-12	656.029E-3	-6.58536E-3
3.73437E-3	143.383E-12	638.415E-3	-31.0901E-3	142.054E-12	634.270E-3	-2.36763E-3
3.72936E-3	143.091E-12	630.363E-3	-25.8025E-3	142.563E-12	639.949E-3	-33.4657E-3
3.72436E-3	142.942E-12	650.349E-3	-16.0039E-3	143.014E-12	652.449E-3	-61.7783E-3
3.71936E-3	143.200E-12	669.542E-3	-8.93760E-3	143.848E-12	659.697E-3	-27.6219E-3
3.71436E-3	142.422E-12	691.021E-3	-26.4459E-3	145.315E-12	687.893E-3	27.9806E-3
3.70935E-3	141.919E-12	684.137E-3	-31.4190E-3	145.733E-12	706.243E-3	24.8754E-3
3.70435E-3	142.061E-12	660.822E-3	-14.3560E-3	146.152E-12	686.341E-3	-14.6201E-3
3.69935E-3	141.993E-12	665.917E-3	-13.9318E-3	146.217E-12	688.575E-3	-29.2492E-3
3.69435E-3	141.511E-12	676.709E-3	-19.6996E-3	146.117E-12	705.869E-3	-15.1366E-3
3.68934E-3	141.204E-12	667.005E-3	-28.8805E-3	145.308E-12	697.752E-3	6.44849E-3
3.68434E-3	141.365E-12	660.473E-3	-34.2837E-3	144.312E-12	680.208E-3	2.19482E-3
3.67934E-3	141.775E-12	679.527E-3	-27.1411E-3	142.779E-12	659.345E-3	-29.8304E-3
3.67434E-3	141.697E-12	694.799E-3	-9.69109E-3	141.521E-12	661.712E-3	-56.2336E-3
3.66933E-3	141.250E-12	682.569E-3	-6.02956E-3	140.488E-12	673.852E-3	-49.7070E-3
3.66433E-3	141.140E-12	660.822E-3	-25.4258E-3	138.926E-12	656.097E-3	-16.8759E-3
3.65933E-3	141.649E-12	651.872E-3	-17.8662E-3	137.831E-12	640.738E-3	-5.12884E-3
3.65433E-3	141.810E-12	654.892E-3	2.74799E-3	137.048E-12	639.094E-3	-27.3032E-3
3.64932E-3	141.575E-12	661.540E-3	6.94085E-3	136.752E-12	622.511E-3	-47.9019E-3
3.64432E-3	141.041E-12	682.648E-3	13.2841E-3	137.496E-12	606.848E-3	-36.1925E-3
3.63932E-3	140.834E-12	707.740E-3	13.8262E-3	137.402E-12	612.287E-3	-9.77769E-3
3.63432E-3	141.202E-12	686.798E-3	-2.25037E-3	137.068E-12	645.705E-3	-6.67595E-3
3.62931E-3	140.951E-12	646.458E-3	-12.3059E-3	137.887E-12	687.793E-3	-2.86970E-3
3.62431E-3	140.311E-12	646.178E-3	2.37931E-3	139.879E-12	706.257E-3	-4.69720E-3
3.61931E-3	139.315E-12	675.443E-3	18.0768E-3	140.045E-12	704.973E-3	-34.6307E-3
3.61431E-3	139.483E-12	688.074E-3	5.77718E-3	140.143E-12	693.965E-3	-33.5400E-3
3.60930E-3	138.743E-12	674.069E-3	-17.6957E-3	140.257E-12	673.361E-3	-18.7511E-3
3.60430E-3	137.783E-12	668.771E-3	-26.6180E-3	141.866E-12	659.788E-3	-37.8061E-3
3.59930E-3	136.929E-12	679.723E-3	-23.7490E-3	141.436E-12	655.910E-3	-37.6615E-3
3.59430E-3	137.252E-12	691.643E-3	-23.0720E-3	141.179E-12	669.634E-3	-6.93570E-3
3.58929E-3	137.263E-12	686.821E-3	-32.8276E-3	140.575E-12	694.065E-3	8.01397E-3
3.58429E-3	136.898E-12	677.827E-3	-35.4652E-3	140.579E-12	685.617E-3	4.26274E-3
3.57929E-3	136.836E-12	664.958E-3	-15.5943E-3	139.918E-12	656.965E-3	5.59485E-3
3.57429E-3	136.845E-12	649.046E-3	2.73594E-3	139.308E-12	653.266E-3	8.80957E-3
3.56928E-3	137.432E-12	650.869E-3	3.18386E-3	137.852E-12	667.029E-3	-1.44256E-3
3.56428E-3	137.798E-12	668.461E-3	-9.48866E-3	136.931E-12	662.220E-3	-17.4836E-3
3.55928E-3	137.706E-12	686.521E-3	-14.0067E-3	136.116E-12	662.825E-3	-19.1682E-3
3.55428E-3	137.831E-12	687.537E-3	7.48692E-3	135.519E-12	681.878E-3	-18.5262E-3
3.54927E-3	137.970E-12	686.593E-3	18.6323E-3	134.721E-12	674.891E-3	-15.0770E-3
3.54427E-3	137.422E-12	694.661E-3	10.9293E-3	134.303E-12	656.138E-3	-2.98454E-3
3.53927E-3	137.178E-12	704.710E-3	-6.27391E-3	133.914E-12	660.908E-3	-3.79455E-3
3.53427E-3	136.849E-12	716.343E-3	-29.8991E-3	134.493E-12	674.223E-3	-10.2230E-3
3.52926E-3	135.660E-12	732.818E-3	-36.7905E-3	134.561E-12	677.138E-3	-2.03318E-3
3.52426E-3	134.983E-12	720.828E-3	-31.0565E-3	133.643E-12	663.099E-3	11.1531E-3
3.51926E-3	134.286E-12	681.535E-3	-14.5215E-3	133.045E-12	639.308E-3	9.80212E-3
3.51426E-3	133.222E-12	674.998E-3	-7.36202E-3	134.024E-12	631.755E-3	-3.50166E-3
3.50925E-3	132.309E-12	674.432E-3	-28.7864E-3	134.284E-12	633.281E-3	-13.4543E-3
3.50425E-3	132.026E-12	648.241E-3	-40.5832E-3	134.049E-12	625.739E-3	6.86348E-3
3.49925E-3	131.646E-12	630.419E-3	-9.86638E-3	133.173E-12	633.108E-3	48.5982E-3
3.49425E-3	131.169E-12	620.540E-3	23.0580E-3	133.744E-12	655.367E-3	59.0201E-3
3.48924E-3	130.813E-12	630.379E-3	13.8176E-3	134.207E-12	670.101E-3	20.9541E-3
3.48424E-3	131.072E-12	658.223E-3	-17.3937E-3	134.119E-12	684.852E-3	-17.5685E-3
3.47924E-3	131.948E-12	653.605E-3	-26.4449E-3	133.790E-12	687.266E-3	-9.78472E-3
3.47424E-3	132.494E-12	639.564E-3	-11.8150E-3	133.606E-12	691.024E-3	7.49449E-3
3.46923E-3	133.482E-12	648.679E-3	-21.2386E-3	133.533E-12	713.612E-3	342.991E-6
3.46423E-3	133.687E-12	655.326E-3	-45.0384E-3	132.840E-12	695.034E-3	-10.1141E-3
3.45923E-3	134.001E-12	649.938E-3	-37.2343E-3	132.162E-12	651.873E-3	-6.77051E-3
3.45423E-3	134.560E-12	634.067E-3	-21.0287E-3	131.379E-12	648.676E-3	2.63369E-3
3.44922E-3	134.486E-12	634.791E-3	-33.6648E-3	130.636E-12	661.787E-3	895.002E-6
3.44422E-3	133.684E-12	669.844E-3	-35.1947E-3	129.748E-12	657.262E-3	-1.49025E-3
3.43922E-3	133.104E-12	698.326E-3	-30.1738E-3	129.431E-12	646.616E-3	4.19350E-3
3.43422E-3	132.924E-12	702.741E-3	-36.0265E-3	128.697E-12	655.517E-3	15.3833E-3
3.42921E-3	131.289E-12	692.036E-3	-14.9886E-3	128.208E-12	666.142E-3	19.5724E-3
3.42421E-3	131.025E-12	664.829E-3	9.07227E-3	127.826E-12	664.671E-3	8.94959E-3
3.41921E-3	130.607E-12	646.185E-3	13.9160E-3	127.744E-12	669.445E-3	17.9632E-3
3.41421E-3	129.985E-12	657.674E-3	8.58812E-3	127.094E-12	671.699E-3	21.2124E-3
3.40920E-3	129.172E-12	668.488E-3	-10.6678E-3	126.886E-12	680.595E-3	-14.6442E-3
3.40420E-3	128.633E-12	647.611E-3	-28.6422E-3	127.181E-12	698.700E-3	-41.5526E-3
3.39920E-3	128.098E-12	631.656E-3	-34.2208E-3	128.664E-12	709.949E-3	-40.1685E-3
3.39420E-3	128.610E-12	646.565E-3	-29.3654E-3	128.175E-12	714.706E-3	-27.6906E-3
3.38919E-3	128.373E-12	653.582E-3	-13.2679E-3	129.750E-12	706.903E-3	-12.0004E-3
3.38419E-3	127.988E-12	640.780E-3	-18.7541E-3	130.310E-12	696.822E-3	4.54985E-3
3.37919E-3	128.531E-12	648.042E-3	-38.8819E-3	131.457E-12	702.975E-3	21.7421E-3
3.37419E-3	129.985E-12	668.825E-3	-31.6107E-3	131.102E-12	687.091E-3	22.4448E-3
3.36918E-3	129.331E-12	677.652E-3	-4.91936E-3	131.219E-12	652.720E-3	14.4685E-3
3.36418E-3	129.032E-12	699.668E-3	16.9331E-3	130.756E-12	641.115E-3	12.2964E-3
3.35918E-3	129.151E-12	710.775E-3	8.19475E-3	130.089E-12	653.916E-3	-2.48013E-3
3.35418E-3	128.954E-12	697.916E-3	-26.6599E-3	128.329E-12	689.531E-3	-7.89770E-3
3.34917E-3	128.329E-12	685.410E-3	-35.0124E-3	127.943E-12	709.556E-3	7.93861E-3
3.34417E-3	127.685E-12	664.231E-3	-20.0812E-3	126.688E-12	683.786E-3	20.4658E-3
3.33917E-3	127.446E-12	655.020E-3	-12.0132E-3	126.285E-12	662.339E-3	5.95734E-3
3.33417E-3	126.801E-12	674.029E-3	-11.7589E-3	125.818E-12	671.949E-3	-20.5220E-3
3.32916E-3	125.741E-12	679.388E-3	-29.2960E-3	124.359E-12	698.030E-3	-25.0477E-3
3.32416E-3	125.034E-12	664.114E-3	-41.8942E-3	123.260E-12	713.812E-3	-20.7017E-3
3.31916E-3	124.899E-12	651.646E-3	-26.6461E-3	123.915E-12	693.579E-3	-10.0137E-3
3.31416E-3	124.742E-12	660.613E-3	-18.9075E-3	123.422E-12	666.447E-3	7.60092E-3
3.30915E-3	123.812E-12	681.806E-3	-31.5924E-3	123.420E-12	661.501E-3	14.6003E-3
3.30415E-3	123.181E-12	679.690E-3	-32.7841E-3	124.006E-12	675.161E-3	969.710E-6
3.29915E-3	123.714E-12	674.379E-3	-35.2012E-3	125.134E-12	678.458E-3	-18.4886E-3
3.29415E-3	124.026E-12	681.503E-3	-37.1785E-3	125.136E-12	664.564E-3	-12.2484E-3
3.28914E-3	123.643E-12	693.711E-3	-26.1939E-3	125.651E-12	668.776E-3	-4.28641E-3
3.28414E-3	123.399E-12	702.047E-3	-20.6569E-3	126.151E-12	677.867E-3	-12.8425E-3
3.27914E-3	123.146E-12	697.937E-3	-18.7392E-3	127.111E-12	656.125E-3	-19.4213E-3
3.27414E-3	123.269E-12	694.310E-3	-6.85808E-3	127.080E-12	639.803E-3	-16.4367E-3
3.26913E-3	123.006E-12	679.251E-3	3.00532E-3	125.973E-12	659.081E-3	-6.91656E-3
3.26413E-3	122.506E-12	666.960E-3	-10.3259E-3	125.704E-12	683.730E-3	-8.81005E-3
3.25913E-3	122.288E-12	688.972E-3	-26.7827E-3	124.975E-12	689.889E-3	-17.5338E-3
3.25413E-3	121.860E-12	693.246E-3	-25.9113E-3	123.882E-12	685.496E-3	-31.7801E-3
3.24912E-3	121.721E-12	669.756E-3	-11.6990E-3	121.850E-12	682.215E-3	-35.6948E-3
3.24412E-3	121.790E-12	662.592E-3	-2.40966E-3	120.613E-12	683.443E-3	-29.4201E-3
3.23912E-3	122.092E-12	658.301E-3	-2.47790E-3	119.881E-12	677.380E-3	-27.7391E-3
3.23412E-3	121.677E-12	668.867E-3	-4.19094E-3	119.569E-12	667.426E-3	-28.2366E-3
3.22911E-3	122.004E-12	690.735E-3	1.83942E-3	118.332E-12	676.127E-3	-18.6581E-3
3.22411E-3	122.080E-12	676.784E-3	5.31253E-3	118.118E-12	687.762E-3	-1.35352E-3
3.21911E-3	122.254E-12	648.108E-3	-13.5223E-3	118.429E-12	671.312E-3	7.57104E-3
3.21411E-3	120.836E-12	642.771E-3	-21.0818E-3	119.112E-12	639.121E-3	6.82087E-3
3.20910E-3	120.703E-12	657.764E-3	-1.70262E-3	118.924E-12	633.612E-3	-1.73921E-3
3.20410E-3	120.902E-12	666.459E-3	-4.80393E-3	119.465E-12	669.750E-3	-8.41841E-3
3.19910E-3	121.058E-12	667.712E-3	-41.7798E-3	120.435E-12	697.108E-3	-12.9329E-3
3.19410E-3	119.805E-12	673.313E-3	-64.3637E-3	121.343E-12	695.147E-3	-14.2972E-3
3.18909E-3	118.884E-12	676.246E-3	-64.5162E-3	122.132E-12	696.055E-3	-21.4964E-3
3.18409E-3	118.526E-12	683.908E-3	-53.9559E-3	122.427E-12	691.794E-3	-30.3507E-3
3.17909E-3	118.882E-12	686.460E-3	-37.9625E-3	122.800E-12	679.137E-3	-31.4327E-3
3.17409E-3	117.966E-12	674.738E-3	-34.5745E-3	121.980E-12	676.865E-3	-32.3098E-3
3.16908E-3	116.939E-12	667.595E-3	-33.2007E-3	122.220E-12	683.494E-3	-17.4371E-3
3.16408E-3	116.761E-12	667.343E-3	-14.4970E-3	121.465E-12	687.327E-3	3.48382E-3
3.15908E-3	117.247E-12	667.250E-3	-3.60161E-3	120.471E-12	682.745E-3	3.10785E-3
3.15408E-3	117.339E-12	671.932E-3	-19.3248E-3	119.557E-12	675.007E-3	5.97825E-3
3.14907E-3	117.543E-12	678.527E-3	-26.6192E-3	119.139E-12	664.702E-3	10.8448E-3
3.14407E-3	117.776E-12	670.790E-3	-10.3110E-3	118.088E-12	667.687E-3	-10.2664E-3
3.13907E-3	118.095E-12	665.318E-3	1.09271E-3	116.935E-12	690.110E-3	-28.0719E-3
3.13407E-3	118.449E-12	673.169E-3	-171.517E-6	116.345E-12	697.478E-3	-22.6111E-3
3.12906E-3	118.443E-12	669.040E-3	-12.3333E-3	116.019E-12	669.798E-3	-20.7961E-3
3.12406E-3	118.169E-12	673.304E-3	-29.8944E-3	116.029E-12	660.246E-3	-14.1131E-3
3.11906E-3	117.699E-12	697.146E-3	-25.1154E-3	115.690E-12	690.625E-3	2.28462E-3
3.11406E-3	117.843E-12	709.686E-3	2.02741E-3	115.368E-12	692.691E-3	-7.13348E-3
3.10905E-3	117.491E-12	712.008E-3	15.2510E-3	115.223E-12	669.875E-3	-22.9319E-3
3.10405E-3	116.426E-12	717.372E-3	2.79374E-3	115.811E-12	676.528E-3	-20.3755E-3
3.09905E-3	115.528E-12	707.289E-3	-4.85683E-3	116.259E-12	691.949E-3	-21.2463E-3
3.09405E-3	115.161E-12	680.490E-3	1.71630E-3	115.739E-12	694.089E-3	-26.2595E-3
3.08904E-3	114.207E-12	660.445E-3	2.76824E-3	115.865E-12	687.533E-3	-16.7216E-3
3.08404E-3	113.011E-12	656.292E-3	4.14025E-3	115.927E-12	669.307E-3	-14.5542E-3
3.07904E-3	112.029E-12	671.752E-3	1.37738E-3	116.526E-12	655.877E-3	-16.4142E-3
3.07404E-3	111.537E-12	693.230E-3	-9.38207E-3	115.173E-12	670.660E-3	-5.69057E-3
3.06903E-3	111.800E-12	687.955E-3	-13.4305E-3	114.273E-12	685.874E-3	-11.6666E-3
3.06403E-3	111.678E-12	670.254E-3	-10.1525E-3	115.003E-12	671.675E-3	-18.6411E-3
3.05903E-3	111.405E-12	668.623E-3	-12.5855E-3	114.498E-12	660.924E-3	-15.0853E-3
3.05403E-3	111.937E-12	658.834E-3	-27.1574E-3	113.738E-12	674.520E-3	-18.7312E-3
3.04902E-3	113.326E-12	646.230E-3	-37.4624E-3	112.653E-12	694.409E-3	-15.0770E-3
3.04402E-3	113.612E-12	650.393E-3	-21.3551E-3	112.138E-12	701.268E-3	-6.45928E-3
3.03902E-3	114.137E-12	673.538E-3	-9.76890E-3	111.572E-12	693.504E-3	1.70977E-3
3.03402E-3	114.492E-12	700.766E-3	-29.2807E-3	111.388E-12	674.117E-3	1.76555E-3
3.02901E-3	114.960E-12	702.990E-3	-22.1642E-3	110.596E-12	653.813E-3	-7.56676E-3
3.02401E-3	114.961E-12	694.882E-3	-5.94421E-3	110.874E-12	652.209E-3	-7.19636E-3
3.01901E-3	114.213E-12	710.394E-3	-35.3898E-3	110.291E-12	662.400E-3	-9.89545E-3
3.01401E-3	113.949E-12	724.576E-3	-54.0810E-3	109.856E-12	664.276E-3	-21.1676E-3
3.00900E-3	113.239E-12	710.694E-3	-35.7866E-3	109.876E-12	655.435E-3	-19.7746E-3
3.00400E-3	113.141E-12	701.789E-3	-25.7825E-3	110.130E-12	657.890E-3	-10.9207E-3
2.99900E-3	111.581E-12	704.972E-3	-21.8349E-3	109.667E-12	674.678E-3	-17.8381E-3
2.99400E-3	110.958E-12	698.686E-3	-8.95501E-3	109.564E-12	691.624E-3	-28.3315E-3
2.98899E-3	110.016E-12	675.816E-3	-7.08078E-3	110.340E-12	704.612E-3	-32.4115E-3
2.98399E-3	109.388E-12	651.305E-3	-12.4478E-3	110.739E-12	712.195E-3	-25.8851E-3
2.97899E-3	108.534E-12	656.281E-3	-16.6412E-3	110.980E-12	714.445E-3	-21.9346E-3
2.97399E-3	108.449E-12	688.423E-3	-21.3840E-3	110.459E-12	723.683E-3	-52.2023E-3
2.96898E-3	108.005E-12	712.755E-3	-14.6470E-3	110.556E-12	735.593E-3	-74.7920E-3
2.96398E-3	108.298E-12	717.813E-3	405.213E-6	111.654E-12	723.865E-3	-50.5622E-3
2.95898E-3	107.957E-12	718.087E-3	-11.5765E-3	111.417E-12	706.974E-3	-11.7753E-3
2.95398E-3	108.085E-12	707.822E-3	-29.4449E-3	111.045E-12	702.258E-3	6.96661E-3
2.94897E-3	109.085E-12	689.993E-3	-6.28182E-3	110.578E-12	699.215E-3	7.25989E-3
2.94397E-3	109.824E-12	694.552E-3	8.67720E-3	110.911E-12	696.861E-3	1.95764E-3
2.93897E-3	109.684E-12	714.780E-3	-18.0001E-3	110.631E-12	697.021E-3	-328.814E-6
2.93397E-3	109.753E-12	705.471E-3	-41.1871E-3	109.656E-12	693.085E-3	13.2585E-3
2.92896E-3	110.266E-12	686.238E-3	-40.3028E-3	108.000E-12	672.186E-3	18.4230E-3
2.92396E-3	110.105E-12	704.213E-3	-26.2953E-3	107.175E-12	657.226E-3	-2.53466E-3
2.91896E-3	109.666E-12	731.079E-3	-16.0153E-3	106.824E-12	666.780E-3	-16.8859E-3
2.91396E-3	109.135E-12	724.895E-3	-17.6759E-3	106.194E-12	678.835E-3	-9.97108E-3
2.90895E-3	108.282E-12	697.765E-3	-19.8903E-3	105.513E-12	684.844E-3	8.56365E-3
2.90395E-3	107.508E-12	686.737E-3	-13.8999E-3	104.821E-12	690.372E-3	7.52609E-3
2.89895E-3	107.166E-12	689.429E-3	1.10084E-3	104.599E-12	688.435E-3	-17.3604E-3
2.89395E-3	106.378E-12	699.289E-3	3.71964E-3	104.867E-12	684.624E-3	-24.9780E-3
2.88894E-3	105.124E-12	716.050E-3	-6.69696E-3	104.502E-12	684.344E-3	-23.1501E-3
2.88394E-3	104.492E-12	705.965E-3	-10.5325E-3	104.618E-12	662.276E-3	-31.9821E-3
2.87894E-3	104.328E-12	670.602E-3	1.89225E-3	104.185E-12	634.973E-3	-36.4553E-3
2.87394E-3	104.346E-12	652.593E-3	7.92938E-3	105.322E-12	653.638E-3	-32.3622E-3
2.86893E-3	103.671E-12	657.131E-3	-16.6748E-3	105.598E-12	696.325E-3	-27.3049E-3
2.86393E-3	103.353E-12	680.022E-3	-36.1230E-3	106.077E-12	714.789E-3	-19.3743E-3
2.85893E-3	103.296E-12	694.161E-3	-27.8664E-3	105.710E-12	718.266E-3	-10.4024E-3
2.85393E-3	103.744E-12	687.292E-3	-16.5014E-3	106.402E-12	716.255E-3	-3.81018E-3
2.84892E-3	103.827E-12	685.267E-3	-25.2449E-3	106.583E-12	706.833E-3	-11.4605E-3
2.84392E-3	103.650E-12	679.972E-3	-27.8049E-3	106.267E-12	703.436E-3	-18.7447E-3
2.83892E-3	103.622E-12	685.334E-3	-9.88137E-3	105.387E-12	701.349E-3	-6.73166E-3
2.83392E-3	104.427E-12	703.311E-3	-12.8123E-3	104.637E-12	685.062E-3	-4.75503E-3
2.82891E-3	104.162E-12	693.323E-3	-23.0056E-3	103.426E-12	667.955E-3	-8.67057E-3
2.82391E-3	102.949E-12	672.710E-3	-20.8036E-3	102.422E-12	670.728E-3	-3.18684E-3
2.81891E-3	103.178E-12	670.040E-3	-23.5652E-3	101.428E-12	665.227E-3	-6.83225E-3
2.81391E-3	103.568E-12	684.390E-3	-25.7584E-3	100.160E-12	653.708E-3	-17.6043E-3
2.80890E-3	103.674E-12	701.450E-3	-28.1308E-3	99.4307E-12	666.855E-3	-2.66901E-3
2.80390E-3	102.828E-12	692.496E-3	-30.3751E-3	99.7033E-12	687.295E-3	29.7604E-3
2.79890E-3	102.506E-12	675.406E-3	-18.5951E-3	99.1794E-12	691.708E-3	30.2420E-3
2.79390E-3	102.306E-12	674.667E-3	-3.68828E-3	98.9417E-12	675.168E-3	5.90133E-3
2.78889E-3	102.448E-12	685.646E-3	10.3180E-3	98.6223E-12	661.977E-3	-12.7823E-3
2.78389E-3	102.278E-12	699.570E-3	23.3267E-3	99.1155E-12	681.015E-3	-20.4869E-3
2.77889E-3	101.659E-12	702.699E-3	8.54558E-3	100.142E-12	704.242E-3	-26.2696E-3
2.77389E-3	101.090E-12	709.070E-3	-12.7930E-3	100.853E-12	703.948E-3	-30.2458E-3
2.76888E-3	101.172E-12	714.405E-3	-100.272E-6	100.841E-12	704.484E-3	-12.2529E-3
2.76388E-3	101.010E-12	702.607E-3	18.1841E-3	101.545E-12	719.757E-3	6.31538E-3
2.75888E-3	100.559E-12	699.474E-3	7.75883E-3	102.624E-12	722.218E-3	1.87406E-3
2.75388E-3	99.2190E-12	712.461E-3	-17.7620E-3	102.662E-12	713.433E-3	1.15657E-3
2.74887E-3	98.8566E-12	715.238E-3	-30.7877E-3	102.751E-12	714.181E-3	5.61631E-3
2.74387E-3	98.6433E-12	712.544E-3	-31.0298E-3	102.049E-12	720.887E-3	-1.07307E-3
2.73887E-3	98.5432E-12	711.977E-3	-31.5292E-3	101.967E-12	726.258E-3	-14.9995E-3
2.73387E-3	97.7080E-12	706.741E-3	-25.3452E-3	100.951E-12	727.566E-3	-29.0152E-3
2.72886E-3	97.9629E-12	708.463E-3	-19.8608E-3	100.023E-12	721.119E-3	-39.9313E-3
2.72386E-3	97.9216E-12	706.888E-3	-16.3274E-3	99.1934E-12	697.927E-3	-41.3039E-3
2.71886E-3	98.3233E-12	688.441E-3	-2.65672E-3	97.9954E-12	681.815E-3	-29.6063E-3
2.71386E-3	97.7010E-12	684.323E-3	6.77858E-3	97.3406E-12	691.400E-3	-18.4434E-3
2.70885E-3	97.7922E-12	699.161E-3	7.66769E-3	96.5969E-12	703.175E-3	-20.8808E-3
2.70385E-3	97.9996E-12	697.783E-3	6.82917E-3	95.5219E-12	691.091E-3	-23.5881E-3
2.69885E-3	98.6650E-12	694.928E-3	-12.2851E-3	94.9294E-12	673.444E-3	-12.4294E-3
2.69385E-3	97.8294E-12	710.188E-3	-23.1444E-3	95.1756E-12	670.417E-3	4.38329E-3
2.68884E-3	97.8317E-12	716.336E-3	-3.32737E-3	94.7737E-12	671.013E-3	-335.082E-6
2.68384E-3	97.2808E-12	713.078E-3	-7.81917E-3	94.6340E-12	680.025E-3	-20.8538E-3
2.67884E-3	97.6173E-12	709.566E-3	-37.8967E-3	94.8266E-12	684.683E-3	-36.5916E-3
2.67384E-3	96.9732E-12	696.590E-3	-44.9565E-3	94.8381E-12	684.516E-3	-48.3450E-3
2.66883E-3	95.7337E-12	694.512E-3	-39.2097E-3	95.5138E-12	700.547E-3	-38.0723E-3
2.66383E-3	94.3197E-12	713.756E-3	-26.9572E-3	95.5628E-12	711.950E-3	-16.9168E-3
2.65883E-3	94.0348E-12	725.808E-3	-2.40020E-3	95.9409E-12	703.983E-3	-15.0877E-3
2.65383E-3	93.2004E-12	710.266E-3	-1.44806E-3	95.0598E-12	702.339E-3	-21.2721E-3
2.64882E-3	92.6224E-12	700.051E-3	-27.9161E-3	95.2257E-12	711.254E-3	-18.3278E-3
2.64382E-3	92.0345E-12	704.146E-3	-30.2387E-3	95.4848E-12	702.700E-3	-13.6083E-3
2.63882E-3	91.8716E-12	693.012E-3	-10.3261E-3	94.9128E-12	686.773E-3	-12.0702E-3
2.63382E-3	92.3975E-12	692.537E-3	-10.3933E-3	93.9985E-12	696.972E-3	-2.04017E-3
2.62881E-3	92.3162E-12	708.773E-3	-26.5611E-3	93.1232E-12	711.307E-3	4.57903E-3
2.62381E-3	92.3621E-12	709.360E-3	-39.9746E-3	93.3953E-12	704.802E-3	-7.38863E-3
2.61881E-3	92.8777E-12	691.695E-3	-38.4098E-3	92.4518E-12	695.888E-3	-19.7716E-3
2.61381E-3	93.3216E-12	696.336E-3	-24.4235E-3	91.2095E-12	695.711E-3	-26.9803E-3
2.60880E-3	93.6905E-12	722.467E-3	-25.8684E-3	90.7327E-12	705.628E-3	-29.9509E-3
2.60380E-3	93.9571E-12	720.891E-3	-31.3000E-3	91.2252E-12	716.726E-3	-29.4450E-3
2.59880E-3	94.0801E-12	710.284E-3	-26.2484E-3	90.9211E-12	723.377E-3	-25.8753E-3
2.59380E-3	94.6065E-12	717.305E-3	-36.1863E-3	90.6128E-12	723.937E-3	-14.8112E-3
2.58879E-3	94.8176E-12	721.481E-3	-31.4992E-3	90.5455E-12	711.440E-3	-14.1790E-3
2.58379E-3	94.1413E-12	714.353E-3	-11.5691E-3	91.1161E-12	705.518E-3	-23.5318E-3
2.57879E-3	93.5385E-12	713.184E-3	-26.1401E-3	91.2791E-12	723.312E-3	-14.8495E-3
2.57379E-3	92.7230E-12	727.903E-3	-54.6685E-3	90.8566E-12	736.484E-3	329.459E-6
2.56878E-3	91.8094E-12	736.520E-3	-50.3264E-3	90.7095E-12	733.983E-3	4.88806E-3
2.56378E-3	90.6022E-12	727.786E-3	-37.8526E-3	91.3539E-12	719.564E-3	-4.51520E-3
2.55878E-3	89.3539E-12	726.755E-3	-51.6427E-3	91.7025E-12	712.880E-3	-30.2152E-3
2.55378E-3	88.3513E-12	726.993E-3	-55.6248E-3	91.3053E-12	730.351E-3	-41.8428E-3
2.54877E-3	87.9655E-12	718.681E-3	-41.4102E-3	90.9267E-12	737.128E-3	-35.7703E-3
2.54377E-3	87.6387E-12	714.067E-3	-36.4075E-3	91.5328E-12	728.857E-3	-37.6287E-3
2.53877E-3	87.1532E-12	704.139E-3	-26.3887E-3	91.2055E-12	721.865E-3	-42.0145E-3
2.53377E-3	87.2001E-12	693.678E-3	-11.8733E-3	90.8376E-12	726.508E-3	-39.1020E-3
2.52876E-3	87.4675E-12	692.799E-3	-12.1890E-3	90.2741E-12	745.929E-3	-22.1998E-3
2.52376E-3	88.1957E-12	693.391E-3	-14.0964E-3	90.0569E-12	749.337E-3	-3.77163E-3
2.51876E-3	88.2630E-12	691.300E-3	-9.16859E-3	89.3993E-12	731.847E-3	-8.51075E-3
2.51376E-3	88.6224E-12	691.559E-3	-5.58525E-3	89.3132E-12	719.969E-3	-28.6418E-3
2.50875E-3	88.8151E-12	701.546E-3	-19.7909E-3	88.5213E-12	720.721E-3	-42.6203E-3
2.50375E-3	89.4511E-12	716.464E-3	-36.8273E-3	87.9729E-12	716.757E-3	-56.9078E-3
2.49875E-3	89.6789E-12	736.986E-3	-30.7789E-3	87.5914E-12	712.558E-3	-52.8405E-3
2.49375E-3	89.2669E-12	750.385E-3	-13.1269E-3	87.0433E-12	715.290E-3	-23.4821E-3
2.48874E-3	88.9814E-12	730.557E-3	-9.98797E-3	86.4536E-12	714.564E-3	-2.92032E-3
2.48374E-3	88.3748E-12	715.279E-3	-30.7975E-3	86.6440E-12	715.492E-3	-10.0314E-3
2.47874E-3	88.1247E-12	736.419E-3	-41.5142E-3	86.2623E-12	714.326E-3	-32.0021E-3
2.47374E-3	87.2884E-12	759.156E-3	-28.1915E-3	85.7996E-12	712.692E-3	-32.0724E-3
2.46873E-3	86.4350E-12	753.782E-3	-22.9763E-3	85.7679E-12	718.962E-3	-18.6281E-3
2.46373E-3	85.3117E-12	726.824E-3	-28.6209E-3	85.7305E-12	717.501E-3	-25.6130E-3
2.45873E-3	84.8255E-12	720.550E-3	-26.8918E-3	85.4726E-12	719.761E-3	-42.7443E-3
2.45373E-3	84.8203E-12	720.989E-3	-17.6296E-3	85.3184E-12	726.341E-3	-39.5357E-3
2.44872E-3	84.1838E-12	704.172E-3	-3.66908E-3	85.1118E-12	723.747E-3	-20.9557E-3
2.44372E-3	83.6783E-12	689.446E-3	-2.82867E-3	85.6393E-12	732.138E-3	-8.28108E-3
2.43872E-3	83.5891E-12	690.964E-3	-16.0426E-3	85.4747E-12	738.175E-3	-7.48579E-3
2.43372E-3	83.7362E-12	707.087E-3	-13.1480E-3	85.2762E-12	731.296E-3	-6.07642E-3
2.42871E-3	83.7425E-12	713.156E-3	-5.44476E-3	84.5401E-12	719.464E-3	-6.05743E-3
2.42371E-3	83.5028E-12	715.789E-3	-17.5132E-3	84.3904E-12	708.599E-3	-22.8067E-3
2.41871E-3	83.7739E-12	725.118E-3	-17.7584E-3	84.2273E-12	720.608E-3	-34.0723E-3
2.41371E-3	83.6145E-12	720.450E-3	1.29097E-3	83.8625E-12	731.728E-3	-15.2462E-3
2.40870E-3	83.8440E-12	701.784E-3	2.90610E-3	82.8770E-12	712.335E-3	-342.599E-6
2.40370E-3	83.8698E-12	700.951E-3	-3.96942E-3	82.5979E-12	701.036E-3	-10.0601E-3
2.39870E-3	83.6874E-12	720.261E-3	-3.11280E-3	82.2494E-12	712.570E-3	-17.6106E-3
2.39370E-3	83.4823E-12	731.619E-3	-16.0490E-3	82.2207E-12	725.505E-3	-19.2814E-3
2.38869E-3	83.2317E-12	736.977E-3	-27.6189E-3	81.5312E-12	737.856E-3	-18.4417E-3
2.38369E-3	82.8135E-12	748.175E-3	-17.2754E-3	80.8832E-12	736.835E-3	-19.0120E-3
2.37869E-3	82.2607E-12	753.728E-3	-12.5267E-3	80.6925E-12	716.944E-3	-9.32118E-3
2.37369E-3	82.1694E-12	741.902E-3	-6.81287E-3	81.3475E-12	706.982E-3	10.3682E-3
2.36868E-3	82.0861E-12	736.146E-3	9.81024E-3	80.8698E-12	703.530E-3	9.29963E-3
2.36368E-3	81.4423E-12	752.500E-3	3.24104E-3	80.6085E-12	699.531E-3	-8.07576E-3
2.35868E-3	81.1452E-12	757.978E-3	-16.7498E-3	80.3384E-12	712.771E-3	-12.2948E-3
2.35368E-3	80.6760E-12	741.020E-3	-13.8364E-3	80.5032E-12	732.917E-3	-10.1350E-3
2.34867E-3	80.4153E-12	738.705E-3	-10.7715E-3	80.7971E-12	742.242E-3	-26.3518E-3
2.34367E-3	80.1727E-12	759.343E-3	-19.9098E-3	80.5631E-12	741.210E-3	-36.2501E-3
2.33867E-3	79.7679E-12	764.355E-3	-11.3548E-3	80.1879E-12	739.824E-3	-21.7781E-3
2.33367E-3	79.4948E-12	743.112E-3	-7.10382E-3	80.4773E-12	739.495E-3	-14.1202E-3
2.32866E-3	79.4066E-12	729.867E-3	-19.5647E-3	80.3995E-12	737.840E-3	-14.3396E-3
2.32366E-3	79.1021E-12	721.060E-3	-17.6585E-3	79.6590E-12	749.371E-3	-6.60434E-3
2.31866E-3	78.6914E-12	706.651E-3	-6.98976E-3	79.3368E-12	768.982E-3	-782.236E-6
2.31366E-3	78.0465E-12	724.549E-3	-6.02421E-3	79.1509E-12	769.718E-3	-1.12834E-3
2.30865E-3	77.9736E-12	763.277E-3	-18.4034E-3	78.9433E-12	748.543E-3	-2.74007E-3
2.30365E-3	77.6848E-12	773.732E-3	-39.9419E-3	78.3536E-12	730.663E-3	-9.18075E-3
2.29865E-3	77.6060E-12	761.768E-3	-39.3713E-3	77.9931E-12	731.102E-3	-30.9294E-3
2.29365E-3	77.2366E-12	754.901E-3	-9.36686E-3	77.7772E-12	737.403E-3	-52.6275E-3
2.28864E-3	77.1937E-12	752.189E-3	1.86187E-3	77.1856E-12	742.816E-3	-53.9699E-3
2.28364E-3	77.4628E-12	748.446E-3	-8.99111E-3	76.6379E-12	742.362E-3	-36.4886E-3
2.27864E-3	77.2887E-12	750.570E-3	-14.2005E-3	76.5640E-12	737.287E-3	-4.43978E-3
2.27364E-3	77.3716E-12	757.096E-3	-19.5466E-3	76.5482E-12	728.693E-3	11.1824E-3
2.26863E-3	77.6335E-12	759.686E-3	-22.7385E-3	76.1470E-12	731.676E-3	-4.02755E-3
2.26363E-3	77.3067E-12	759.652E-3	-12.0001E-3	75.8566E-12	759.161E-3	-8.54105E-3
2.25863E-3	76.9815E-12	764.069E-3	-12.9070E-3	75.7406E-12	771.126E-3	-2.45465E-3
2.25363E-3	76.8267E-12	771.152E-3	-21.1722E-3	76.2962E-12	749.671E-3	-15.1753E-3
2.24862E-3	76.2509E-12	772.188E-3	-11.9432E-3	75.8493E-12	739.530E-3	-26.7087E-3
2.24362E-3	75.3249E-12	761.478E-3	-6.14845E-3	75.1704E-12	754.748E-3	-10.5088E-3
2.23862E-3	74.8287E-12	760.405E-3	-9.05777E-3	75.1103E-12	769.923E-3	5.69568E-3
2.23362E-3	74.1698E-12	773.954E-3	-4.08799E-3	75.4957E-12	771.184E-3	-812.090E-6
2.22861E-3	73.4107E-12	772.768E-3	-1.69204E-3	75.0565E-12	766.882E-3	-5.96940E-3
2.22361E-3	73.1242E-12	762.385E-3	-5.60533E-3	74.3918E-12	761.113E-3	-1.40730E-3
2.21861E-3	72.5505E-12	757.463E-3	647.627E-6	73.5566E-12	749.619E-3	-2.90540E-3
2.21361E-3	72.2481E-12	751.409E-3	3.23758E-3	73.6966E-12	744.482E-3	-13.7548E-3
2.20860E-3	71.8979E-12	754.498E-3	-8.52910E-3	73.1232E-12	742.417E-3	-18.4200E-3
2.20360E-3	71.7986E-12	754.683E-3	-9.72892E-3	72.5169E-12	748.787E-3	-10.8670E-3
2.19860E-3	71.9690E-12	736.212E-3	-6.68576E-3	71.9063E-12	760.992E-3	414.996E-6
2.19360E-3	72.1213E-12	730.015E-3	-21.6862E-3	71.8498E-12	762.350E-3	6.01382E-3
2.18859E-3	72.2895E-12	740.357E-3	-18.6988E-3	71.9453E-12	755.725E-3	7.20554E-3
2.18359E-3	72.9564E-12	748.208E-3	-16.5485E-3	71.5022E-12	757.184E-3	8.44152E-3
2.17859E-3	73.3962E-12	755.294E-3	-48.6071E-3	71.2027E-12	768.129E-3	-1.81313E-3
2.17359E-3	73.6752E-12	766.068E-3	-45.5259E-3	70.9841E-12	777.720E-3	-15.5330E-3
2.16858E-3	73.3980E-12	775.057E-3	-7.06416E-3	71.1758E-12	783.826E-3	-928.127E-6
2.16358E-3	72.9265E-12	787.240E-3	-719.308E-6	71.1225E-12	785.425E-3	7.85480E-3
2.15858E-3	72.6094E-12	800.157E-3	-5.86738E-3	71.2610E-12	789.639E-3	-9.24089E-3
2.15358E-3	72.3046E-12	785.598E-3	-1.36850E-3	71.0394E-12	788.678E-3	-21.2296E-3
2.14857E-3	71.6028E-12	769.352E-3	-14.7295E-3	70.7680E-12	777.518E-3	-23.3600E-3
2.14357E-3	70.4353E-12	778.518E-3	-26.5797E-3	71.2036E-12	774.009E-3	-20.9403E-3
2.13857E-3	69.8815E-12	778.114E-3	-8.49189E-3	71.2156E-12	782.301E-3	-16.3370E-3
2.13357E-3	68.9709E-12	766.471E-3	-137.852E-6	70.4680E-12	790.375E-3	-16.3402E-3
2.12856E-3	68.3215E-12	765.230E-3	-25.9779E-3	70.4117E-12	789.900E-3	-28.8014E-3
2.12356E-3	67.3816E-12	764.520E-3	-36.7244E-3	70.6110E-12	787.247E-3	-40.1187E-3
2.11856E-3	66.8544E-12	757.830E-3	-13.7073E-3	69.9740E-12	789.476E-3	-32.0296E-3
2.11356E-3	66.8901E-12	766.582E-3	7.01260E-3	69.6753E-12	790.502E-3	-15.5444E-3
2.10855E-3	66.8204E-12	773.248E-3	5.81552E-3	68.6391E-12	790.351E-3	-12.1636E-3
2.10355E-3	66.7325E-12	757.843E-3	-9.43931E-3	67.9429E-12	787.749E-3	-19.9312E-3
2.09855E-3	67.0689E-12	755.270E-3	-16.8055E-3	67.8205E-12	777.394E-3	-22.1754E-3
2.09355E-3	67.4387E-12	751.383E-3	-9.29060E-3	67.7006E-12	783.647E-3	-10.7361E-3
2.08854E-3	67.6676E-12	735.007E-3	-3.35303E-3	66.4454E-12	805.198E-3	-15.8865E-3
2.08354E-3	67.6035E-12	762.209E-3	-3.30775E-3	65.9466E-12	805.691E-3	-31.7107E-3
2.07854E-3	67.6100E-12	808.276E-3	-2.50480E-3	66.1484E-12	788.498E-3	-19.9181E-3
2.07354E-3	67.9164E-12	807.370E-3	-8.32898E-3	66.0858E-12	778.113E-3	-9.79823E-3
2.06853E-3	67.8988E-12	792.060E-3	-23.6946E-3	65.6450E-12	776.023E-3	-23.8236E-3
2.06353E-3	67.3411E-12	790.484E-3	-23.3187E-3	65.4748E-12	774.133E-3	-29.7502E-3
2.05853E-3	67.1360E-12	786.412E-3	-11.7061E-3	65.2291E-12	781.720E-3	-26.7414E-3
2.05353E-3	66.8016E-12	788.364E-3	-8.74283E-3	65.6587E-12	803.183E-3	-30.2741E-3
2.04852E-3	65.9732E-12	797.906E-3	-5.02771E-3	65.5289E-12	823.567E-3	-21.7935E-3
2.04352E-3	64.6693E-12	804.839E-3	-20.1294E-3	65.1873E-12	821.882E-3	-6.23976E-3
2.03852E-3	63.9120E-12	809.236E-3	-44.4795E-3	64.8730E-12	800.674E-3	-4.25324E-3
2.03352E-3	63.5552E-12	805.930E-3	-38.1148E-3	65.3230E-12	792.140E-3	-4.10412E-3
2.02851E-3	63.1112E-12	794.471E-3	-19.5453E-3	64.8451E-12	807.778E-3	-8.77974E-3
2.02351E-3	62.3184E-12	798.191E-3	-12.0365E-3	64.3644E-12	829.648E-3	-17.6458E-3
2.01851E-3	61.8546E-12	805.621E-3	-7.33854E-3	63.6711E-12	832.662E-3	-13.5016E-3
2.01351E-3	62.2322E-12	791.973E-3	759.155E-6	63.0670E-12	812.735E-3	-1.34079E-3
2.00850E-3	62.3776E-12	782.498E-3	-7.15631E-3	62.8087E-12	798.760E-3	2.57512E-3
2.00350E-3	62.1213E-12	789.781E-3	-19.1572E-3	62.4340E-12	800.690E-3	-3.83282E-3
1.99850E-3	62.1910E-12	793.969E-3	-18.2001E-3	61.5738E-12	807.336E-3	-10.1493E-3
1.99350E-3	62.1323E-12	797.006E-3	-19.9609E-3	61.0011E-12	815.825E-3	-5.43767E-3
1.98849E-3	62.1571E-12	806.514E-3	-18.3911E-3	60.9880E-12	814.260E-3	7.69885E-3
1.98349E-3	61.9625E-12	813.643E-3	-16.0757E-3	60.7753E-12	810.034E-3	-74.1055E-6
1.97849E-3	62.4771E-12	828.579E-3	-13.5746E-3	60.2553E-12	814.354E-3	-26.1157E-3
1.97349E-3	62.3021E-12	847.086E-3	-9.82349E-3	59.9186E-12	819.668E-3	-36.9493E-3
1.96848E-3	62.1103E-12	841.925E-3	-20.6443E-3	60.1430E-12	832.102E-3	-30.2364E-3
1.96348E-3	61.3280E-12	830.685E-3	-36.0921E-3	60.1805E-12	843.410E-3	-18.0180E-3
1.95848E-3	61.2692E-12	823.780E-3	-30.2108E-3	60.3521E-12	835.899E-3	-2.66640E-3
1.95348E-3	60.8882E-12	815.211E-3	-8.62523E-3	59.9815E-12	821.724E-3	6.56458E-3
1.94847E-3	60.2631E-12	823.560E-3	836.940E-6	60.0241E-12	817.875E-3	-2.40138E-3
1.94347E-3	59.3938E-12	838.774E-3	3.50487E-3	60.0999E-12	824.108E-3	-23.1777E-3
1.93847E-3	58.9148E-12	836.400E-3	7.63590E-3	60.1435E-12	839.455E-3	-32.4354E-3
1.93347E-3	58.7184E-12	825.508E-3	-3.87872E-3	59.5919E-12	853.985E-3	-23.0332E-3
1.92846E-3	58.1573E-12	819.543E-3	-9.27758E-3	59.3924E-12	845.313E-3	-10.8468E-3
1.92346E-3	57.7699E-12	814.641E-3	-3.69678E-3	59.1914E-12	835.362E-3	-14.2541E-3
1.91846E-3	57.5517E-12	826.659E-3	-5.97024E-3	58.8090E-12	841.504E-3	-25.1492E-3
1.91346E-3	57.4557E-12	849.764E-3	-4.53071E-3	58.2754E-12	840.703E-3	-25.6987E-3
1.90845E-3	57.1975E-12	847.281E-3	-9.58811E-3	57.8578E-12	842.258E-3	-24.8125E-3
1.90345E-3	56.5598E-12	832.642E-3	-15.7133E-3	57.2389E-12	852.943E-3	-30.8305E-3
1.89845E-3	56.3971E-12	831.542E-3	-3.37377E-3	56.9089E-12	854.555E-3	-32.2891E-3
1.89345E-3	55.9383E-12	833.343E-3	-1.69426E-3	56.6471E-12	845.433E-3	-23.3384E-3
1.88844E-3	56.1123E-12	833.478E-3	-20.2810E-3	56.1328E-12	835.610E-3	-13.2808E-3
1.88344E-3	55.9925E-12	834.794E-3	-23.6801E-3	55.7880E-12	838.208E-3	-9.44786E-3
1.87844E-3	55.7771E-12	836.691E-3	-17.2336E-3	55.5383E-12	858.958E-3	-14.9697E-3
1.87344E-3	55.9205E-12	851.904E-3	-10.2139E-3	55.2975E-12	878.278E-3	-17.9967E-3
1.86843E-3	55.6766E-12	880.284E-3	2.65723E-3	55.1401E-12	884.616E-3	-11.4834E-3
1.86343E-3	55.6931E-12	882.747E-3	-4.25516E-3	54.8250E-12	893.180E-3	-10.6275E-3
1.85843E-3	55.2260E-12	863.803E-3	-14.2066E-3	54.4171E-12	895.456E-3	-18.7869E-3
1.85343E-3	55.0578E-12	867.072E-3	-5.29046E-3	54.3985E-12	886.430E-3	-22.0274E-3
1.84842E-3	54.3880E-12	878.926E-3	8.84457E-3	54.1356E-12	883.543E-3	-25.4476E-3
1.84342E-3	54.2277E-12	883.872E-3	4.05824E-3	53.7534E-12	889.408E-3	-33.6361E-3
1.83842E-3	53.5936E-12	890.749E-3	-18.8523E-3	53.5563E-12	895.688E-3	-27.4655E-3
1.83342E-3	53.4226E-12	889.531E-3	-32.4710E-3	53.4101E-12	900.004E-3	-10.4678E-3
1.82841E-3	53.1693E-12	878.830E-3	-37.8247E-3	53.4465E-12	908.640E-3	-11.5738E-3
1.82341E-3	52.5748E-12	880.185E-3	-32.1520E-3	53.1388E-12	910.049E-3	-17.3772E-3
1.81841E-3	51.9418E-12	890.224E-3	-23.9943E-3	52.5069E-12	901.628E-3	-16.9981E-3
1.81341E-3	51.4353E-12	876.152E-3	-34.4849E-3	52.1839E-12	895.804E-3	-22.2879E-3
1.80840E-3	50.7813E-12	854.920E-3	-39.0776E-3	51.9876E-12	893.222E-3	-20.8777E-3
1.80340E-3	50.4556E-12	864.322E-3	-28.2745E-3	51.5031E-12	893.591E-3	-13.9867E-3
1.79840E-3	50.2512E-12	871.304E-3	-29.9574E-3	51.2779E-12	899.061E-3	-12.2998E-3
1.79340E-3	49.6863E-12	862.423E-3	-28.3181E-3	50.6326E-12	910.589E-3	-15.0069E-3
1.78839E-3	49.4267E-12	864.809E-3	-7.78026E-3	50.2504E-12	922.230E-3	-16.3613E-3
1.78339E-3	49.3824E-12	874.398E-3	6.81978E-3	50.1165E-12	935.199E-3	-26.6923E-3
1.77839E-3	49.4505E-12	884.708E-3	4.90594E-3	49.5908E-12	934.677E-3	-39.3034E-3
1.77339E-3	49.4218E-12	888.065E-3	1.88208E-3	49.0434E-12	921.879E-3	-28.4049E-3
1.76838E-3	49.4120E-12	887.004E-3	-10.3691E-3	48.7183E-12	920.625E-3	-15.9043E-3
1.76338E-3	49.5365E-12	909.598E-3	-25.2162E-3	48.4036E-12	924.375E-3	-26.2740E-3
1.75838E-3	49.4924E-12	934.457E-3	-15.7920E-3	47.8067E-12	928.316E-3	-36.7677E-3
1.75338E-3	49.4469E-12	933.822E-3	-7.68834E-3	47.6052E-12	941.017E-3	-27.2551E-3
1.74837E-3	49.2046E-12	941.254E-3	-16.9929E-3	47.1854E-12	954.944E-3	221.322E-6
1.74337E-3	48.8602E-12	956.156E-3	-10.8001E-3	46.9360E-12	959.136E-3	12.8130E-3
1.73837E-3	48.6130E-12	960.344E-3	940.037E-6	46.7402E-12	959.916E-3	-5.33165E-3
1.73337E-3	48.0258E-12	965.043E-3	-8.04029E-3	46.7306E-12	963.136E-3	-19.9407E-3
1.72836E-3	47.5956E-12	967.712E-3	-11.1639E-3	46.5998E-12	961.419E-3	-21.9011E-3
1.72336E-3	46.7902E-12	967.786E-3	-14.2066E-3	46.4571E-12	966.715E-3	-24.5591E-3
1.71836E-3	46.1881E-12	969.649E-3	-25.3109E-3	46.2785E-12	983.860E-3	-34.3046E-3
1.71336E-3	45.2181E-12	963.903E-3	-15.8495E-3	46.3498E-12	993.316E-3	-35.4512E-3
1.70835E-3	44.6439E-12	952.541E-3	-4.05895E-3	46.2125E-12	1.00515E+0	-15.7405E-3
1.70335E-3	44.0765E-12	955.356E-3	-8.28048E-3	45.8764E-12	1.02012E+0	-6.38314E-3
1.69835E-3	43.5661E-12	959.303E-3	-6.67773E-3	45.7467E-12	1.01531E+0	-9.73463E-3
1.69335E-3	43.0724E-12	954.961E-3	3.16186E-3	45.5992E-12	1.00717E+0	1.88777E-3
1.68834E-3	42.8192E-12	966.061E-3	1.22677E-3	45.0108E-12	1.00840E+0	10.1192E-3
1.68334E-3	42.8609E-12	981.310E-3	-11.2554E-3	44.4001E-12	1.00067E+0	-11.0027E-3
1.67834E-3	42.6884E-12	976.221E-3	-15.9867E-3	43.8366E-12	992.168E-3	-28.3794E-3
1.67334E-3	42.6036E-12	969.430E-3	-13.5410E-3	43.3801E-12	991.707E-3	-19.9256E-3
1.66833E-3	42.7665E-12	978.890E-3	-9.59935E-3	42.9698E-12	999.991E-3	-14.2988E-3
1.66333E-3	42.7439E-12	986.470E-3	-13.7724E-3	42.1317E-12	1.02161E+0	-16.7022E-3
1.65833E-3	42.6994E-12	994.772E-3	-33.1519E-3	41.3881E-12	1.02858E+0	-13.4258E-3
1.65333E-3	42.5589E-12	1.00751E+0	-42.3127E-3	41.1102E-12	1.02225E+0	-8.74333E-3
1.64832E-3	42.5237E-12	1.01637E+0	-32.9275E-3	40.7714E-12	1.03625E+0	-14.1760E-3
1.64332E-3	42.2675E-12	1.03738E+0	-22.4998E-3	40.4792E-12	1.05304E+0	-23.9131E-3
1.63832E-3	41.8708E-12	1.06213E+0	-11.0355E-3	39.7977E-12	1.04736E+0	-23.7255E-3
1.63332E-3	41.5631E-12	1.07758E+0	-2.51189E-3	39.8072E-12	1.04171E+0	-20.9141E-3
1.62831E-3	41.0431E-12	1.07886E+0	-8.86943E-3	39.8469E-12	1.04315E+0	-24.7066E-3
1.62331E-3	40.2583E-12	1.06995E+0	-11.4082E-3	39.9827E-12	1.05229E+0	-36.1979E-3
1.61831E-3	39.5797E-12	1.07138E+0	-7.14769E-3	39.4788E-12	1.08397E+0	-42.3288E-3
1.61331E-3	38.9658E-12	1.08129E+0	-15.5676E-3	39.2544E-12	1.11002E+0	-32.4842E-3
1.60830E-3	38.3598E-12	1.07658E+0	-22.7788E-3	39.0747E-12	1.11149E+0	-22.6509E-3
1.60330E-3	37.7999E-12	1.06000E+0	-23.5008E-3	39.1182E-12	1.10590E+0	-27.6292E-3
1.59830E-3	37.2092E-12	1.05907E+0	-32.0625E-3	38.5525E-12	1.10779E+0	-31.3900E-3
1.59330E-3	36.7315E-12	1.05894E+0	-31.2284E-3	38.0613E-12	1.10779E+0	-18.3858E-3
1.58829E-3	36.5554E-12	1.03898E+0	-11.1358E-3	37.6111E-12	1.10139E+0	-4.23546E-3
1.58329E-3	36.2968E-12	1.03453E+0	-5.71967E-3	37.4958E-12	1.10063E+0	-11.3503E-3
1.57829E-3	36.1029E-12	1.04851E+0	-14.0769E-3	36.8082E-12	1.09351E+0	-29.6315E-3
1.57329E-3	35.9847E-12	1.05363E+0	-15.7531E-3	36.1334E-12	1.08961E+0	-20.2301E-3
1.56828E-3	36.0312E-12	1.06779E+0	-17.4885E-3	35.4636E-12	1.10290E+0	-4.11569E-3
1.56328E-3	35.7790E-12	1.09120E+0	-5.51450E-3	34.9771E-12	1.10880E+0	-14.4783E-3
1.55828E-3	35.6821E-12	1.09874E+0	16.2815E-3	34.6058E-12	1.11201E+0	-16.3777E-3
1.55328E-3	35.4926E-12	1.10525E+0	17.6757E-3	34.2904E-12	1.12670E+0	-9.52075E-3
1.54827E-3	35.4103E-12	1.12165E+0	2.66888E-3	33.7963E-12	1.14040E+0	-9.00712E-3
1.54327E-3	34.7710E-12	1.12742E+0	-12.1601E-3	33.4381E-12	1.14370E+0	-807.914E-6
1.53827E-3	34.4113E-12	1.13237E+0	-23.1644E-3	33.3536E-12	1.14642E+0	4.08546E-3
1.53327E-3	34.1512E-12	1.15068E+0	-18.8569E-3	33.2377E-12	1.15705E+0	-3.94514E-3
1.52826E-3	33.6049E-12	1.16463E+0	-11.5227E-3	32.9337E-12	1.16154E+0	-16.6842E-3
1.52326E-3	32.6126E-12	1.16697E+0	-25.4681E-3	32.5019E-12	1.15892E+0	-14.6067E-3
1.51826E-3	32.0730E-12	1.16120E+0	-31.3764E-3	32.3210E-12	1.15340E+0	3.41468E-3
1.51326E-3	31.6730E-12	1.14511E+0	-5.01706E-3	32.1083E-12	1.14978E+0	2.23920E-3
1.50825E-3	31.2333E-12	1.13431E+0	9.93435E-3	31.6862E-12	1.15989E+0	-14.4816E-3
1.50325E-3	30.3892E-12	1.13991E+0	683.001E-6	31.2485E-12	1.16443E+0	-12.5724E-3
1.49825E-3	29.8918E-12	1.14639E+0	-11.7583E-3	30.8646E-12	1.15208E+0	-9.88086E-3
1.49325E-3	29.5766E-12	1.13709E+0	-30.3693E-3	30.4954E-12	1.14633E+0	-23.4011E-3
1.48824E-3	29.2087E-12	1.12875E+0	-37.8987E-3	30.1027E-12	1.15359E+0	-35.7520E-3
1.48324E-3	28.6758E-12	1.12654E+0	-23.8285E-3	29.5207E-12	1.16935E+0	-32.0766E-3
1.47824E-3	28.3236E-12	1.13134E+0	-16.5296E-3	28.8900E-12	1.17963E+0	-17.7687E-3
1.47324E-3	28.1858E-12	1.15435E+0	-21.1804E-3	28.4564E-12	1.17201E+0	-5.23343E-3
1.46823E-3	27.9784E-12	1.16164E+0	-22.7874E-3	28.1318E-12	1.16005E+0	-7.34107E-3
1.46323E-3	27.5433E-12	1.14573E+0	-26.5406E-3	27.5903E-12	1.15497E+0	-15.8982E-3
1.45823E-3	27.3224E-12	1.15150E+0	-27.7953E-3	27.1899E-12	1.15133E+0	-7.93400E-3
1.45323E-3	27.3016E-12	1.16568E+0	-20.5496E-3	26.8458E-12	1.13996E+0	7.18450E-3
1.44822E-3	26.8270E-12	1.16387E+0	-21.4294E-3	26.4550E-12	1.13593E+0	8.00126E-3
1.44322E-3	26.4039E-12	1.17636E+0	-16.7655E-3	26.0496E-12	1.14951E+0	-5.48270E-3
1.43822E-3	26.2368E-12	1.18467E+0	3.41902E-3	25.7995E-12	1.15957E+0	-9.50521E-3
1.43322E-3	26.0331E-12	1.17130E+0	8.07133E-3	25.5539E-12	1.15726E+0	-321.891E-6
1.42821E-3	25.5227E-12	1.16680E+0	1.19063E-3	25.0689E-12	1.14799E+0	6.03132E-3
1.42321E-3	24.8983E-12	1.17389E+0	10.2935E-3	24.7717E-12	1.14148E+0	4.70017E-3
1.41821E-3	24.5869E-12	1.17861E+0	6.98228E-3	24.3823E-12	1.14277E+0	-6.75886E-3
1.41321E-3	24.1073E-12	1.17819E+0	-20.3502E-3	24.0823E-12	1.13978E+0	-20.8047E-3
1.40820E-3	23.5180E-12	1.16385E+0	-35.3701E-3	23.6225E-12	1.13127E+0	-27.6195E-3
1.40320E-3	23.0186E-12	1.14146E+0	-31.7844E-3	23.1262E-12	1.12516E+0	-25.9677E-3
1.39820E-3	22.6542E-12	1.14267E+0	-20.0628E-3	22.8212E-12	1.12870E+0	-18.1649E-3
1.39320E-3	22.3372E-12	1.14875E+0	-9.27119E-3	22.5370E-12	1.13571E+0	-10.5567E-3
1.38819E-3	21.8149E-12	1.12876E+0	-13.3477E-3	22.1014E-12	1.13680E+0	-13.8744E-3
1.38319E-3	21.4248E-12	1.10420E+0	-28.1150E-3	21.6679E-12	1.12790E+0	-18.8797E-3
1.37819E-3	21.0512E-12	1.09803E+0	-20.6684E-3	21.4096E-12	1.10918E+0	-15.4254E-3
1.37319E-3	20.6531E-12	1.09620E+0	-5.16199E-3	21.1367E-12	1.09770E+0	-14.6838E-3
1.36818E-3	20.1892E-12	1.09876E+0	-13.8557E-3	20.7022E-12	1.09298E+0	-15.6014E-3
1.36318E-3	19.9511E-12	1.10325E+0	-17.4368E-3	20.3240E-12	1.07685E+0	-13.5220E-3
1.35818E-3	19.6670E-12	1.08477E+0	-9.02188E-3	19.9854E-12	1.04886E+0	-15.1565E-3
1.35318E-3	19.4107E-12	1.06116E+0	-7.43685E-3	19.7410E-12	1.02627E+0	-20.9880E-3
1.34817E-3	19.1198E-12	1.05565E+0	-4.61841E-3	19.3654E-12	1.02158E+0	-18.7205E-3
1.34317E-3	18.9149E-12	1.05463E+0	-1.55750E-3	18.8539E-12	1.02640E+0	-13.1037E-3
1.33817E-3	18.8405E-12	1.05214E+0	-5.49356E-3	18.4889E-12	1.01670E+0	-15.8975E-3
1.33317E-3	18.5212E-12	1.05968E+0	-6.08446E-3	18.1443E-12	994.961E-3	-11.1891E-3
1.32816E-3	18.1430E-12	1.05573E+0	949.410E-6	17.9734E-12	980.675E-3	-428.345E-6
1.32316E-3	17.8826E-12	1.04002E+0	1.06889E-3	17.4567E-12	969.879E-3	-6.31733E-3
1.31816E-3	17.6157E-12	1.04225E+0	-11.4930E-3	17.0195E-12	954.450E-3	-19.3846E-3
1.31316E-3	17.1144E-12	1.04091E+0	-25.2910E-3	16.7048E-12	946.187E-3	-21.8220E-3
1.30815E-3	16.6568E-12	1.01879E+0	-30.6865E-3	16.4245E-12	945.739E-3	-21.3593E-3
1.30315E-3	16.4285E-12	995.423E-3	-27.0888E-3	16.1610E-12	930.485E-3	-23.8209E-3
1.29815E-3	16.1135E-12	975.376E-3	-18.9275E-3	15.7339E-12	914.190E-3	-24.0983E-3
1.29315E-3	15.5832E-12	957.635E-3	-18.6708E-3	15.4139E-12	905.233E-3	-18.6363E-3
1.28814E-3	15.1151E-12	943.068E-3	-18.9036E-3	15.2900E-12	890.627E-3	-9.02405E-3
1.28314E-3	14.7970E-12	926.392E-3	-15.6906E-3	15.0991E-12	879.517E-3	-2.50814E-3
1.27814E-3	14.4962E-12	923.805E-3	-27.7767E-3	14.8061E-12	869.642E-3	-8.05723E-3
1.27314E-3	14.1664E-12	927.637E-3	-35.7852E-3	14.4813E-12	849.919E-3	-16.2775E-3
1.26813E-3	13.7400E-12	905.052E-3	-23.5975E-3	14.2586E-12	836.042E-3	-10.5907E-3
1.26313E-3	13.5237E-12	875.337E-3	-22.1074E-3	14.0662E-12	827.978E-3	-4.19942E-3
1.25813E-3	13.3777E-12	859.282E-3	-28.0545E-3	13.7938E-12	801.100E-3	-4.00014E-3
1.25313E-3	13.1174E-12	835.461E-3	-14.0651E-3	13.3140E-12	776.388E-3	-819.353E-6
1.24812E-3	12.8835E-12	812.666E-3	-663.348E-6	13.0707E-12	770.431E-3	-9.24421E-3
1.24312E-3	12.7302E-12	808.839E-3	-7.00464E-3	12.7527E-12	756.318E-3	-24.6205E-3
1.23812E-3	12.6020E-12	803.415E-3	-20.9162E-3	12.5389E-12	732.700E-3	-30.3940E-3
1.23312E-3	12.3944E-12	794.048E-3	-29.1082E-3	12.1803E-12	719.950E-3	-35.5410E-3
1.22811E-3	12.2100E-12	786.076E-3	-21.6384E-3	11.7519E-12	706.081E-3	-38.3340E-3
1.22311E-3	12.0129E-12	771.767E-3	-4.82087E-3	11.5416E-12	681.528E-3	-40.2066E-3
1.21811E-3	11.6385E-12	760.035E-3	1.06562E-3	11.3218E-12	659.995E-3	-37.6217E-3
1.21311E-3	11.3171E-12	752.026E-3	-6.69735E-3	11.0354E-12	641.999E-3	-23.4686E-3
1.20810E-3	11.1599E-12	729.632E-3	-13.7079E-3	10.7907E-12	625.480E-3	-14.1971E-3
1.20310E-3	10.9907E-12	693.913E-3	-19.3450E-3	10.5358E-12	611.593E-3	-20.5143E-3
1.19810E-3	10.6114E-12	668.676E-3	-26.8011E-3	10.4287E-12	599.486E-3	-28.3330E-3
1.19310E-3	10.2213E-12	652.343E-3	-23.8022E-3	10.3068E-12	585.222E-3	-18.6875E-3
1.18809E-3	10.1036E-12	629.920E-3	-21.4807E-3	10.0301E-12	563.110E-3	-8.50660E-3
1.18309E-3	9.90548E-12	607.141E-3	-24.5160E-3	9.88922E-12	546.524E-3	-6.97150E-3
1.17809E-3	9.62909E-12	590.019E-3	-21.3137E-3	9.78529E-12	547.454E-3	-3.95210E-3
1.17309E-3	9.32768E-12	575.185E-3	-15.0899E-3	9.64598E-12	546.642E-3	-3.64202E-3
1.16808E-3	9.15495E-12	563.665E-3	-8.63326E-3	9.45234E-12	517.681E-3	-5.55965E-3
1.16308E-3	9.05271E-12	559.977E-3	-5.46439E-3	9.17049E-12	478.264E-3	-10.3296E-3
1.15808E-3	8.84568E-12	550.633E-3	-12.5478E-3	8.98207E-12	462.978E-3	-12.1957E-3
1.15308E-3	8.71093E-12	530.524E-3	-23.6600E-3	8.78474E-12	455.236E-3	-15.1067E-3
1.14807E-3	8.52056E-12	512.935E-3	-22.7843E-3	8.64394E-12	435.171E-3	-23.8039E-3
1.14307E-3	8.54556E-12	490.742E-3	-12.8329E-3	8.33476E-12	420.599E-3	-26.3845E-3
1.13807E-3	8.44933E-12	473.448E-3	-3.46302E-3	8.14768E-12	409.332E-3	-25.7393E-3
1.13307E-3	8.34159E-12	467.568E-3	-1.48951E-3	8.03789E-12	382.758E-3	-26.2985E-3
1.12806E-3	8.15079E-12	461.999E-3	-9.29421E-3	7.92362E-12	353.800E-3	-21.1157E-3
1.12306E-3	8.05244E-12	446.931E-3	-17.9724E-3	7.77147E-12	344.761E-3	-13.5917E-3
1.11806E-3	7.90334E-12	423.125E-3	-17.5419E-3	7.57484E-12	347.342E-3	-3.69636E-3
1.11306E-3	7.81180E-12	406.767E-3	-14.5751E-3	7.49314E-12	343.511E-3	9.65923E-3
1.10805E-3	7.64719E-12	399.570E-3	-12.9367E-3	7.42395E-12	328.080E-3	7.85650E-3
1.10305E-3	7.42410E-12	388.631E-3	-9.62786E-3	7.42147E-12	315.922E-3	-3.30057E-3
1.09805E-3	7.30082E-12	370.769E-3	-7.73224E-3	7.28183E-12	316.410E-3	-8.37928E-3
1.09305E-3	7.20625E-12	362.030E-3	-7.53700E-3	7.14965E-12	310.944E-3	-12.5650E-3
1.08804E-3	7.05676E-12	355.772E-3	-1.56832E-3	7.04973E-12	297.665E-3	-17.2492E-3
1.08304E-3	6.77719E-12	335.180E-3	-6.50620E-3	7.03454E-12	289.486E-3	-22.4434E-3
1.07804E-3	6.67417E-12	306.593E-3	-20.6319E-3	6.96384E-12	275.489E-3	-26.6711E-3
1.07304E-3	6.62081E-12	288.637E-3	-15.1511E-3	6.77635E-12	257.600E-3	-23.4679E-3
1.06803E-3	6.50690E-12	282.355E-3	-9.18572E-3	6.61173E-12	250.297E-3	-23.0429E-3
1.06303E-3	6.36293E-12	271.241E-3	-13.4619E-3	6.56352E-12	243.715E-3	-30.4029E-3
1.05803E-3	6.25045E-12	261.999E-3	-14.1941E-3	6.54823E-12	231.035E-3	-20.5433E-3
1.05303E-3	6.21348E-12	255.565E-3	-16.8206E-3	6.36841E-12	215.286E-3	-642.840E-6
1.04802E-3	6.19794E-12	237.548E-3	-17.5791E-3	6.16060E-12	199.693E-3	994.359E-6
1.04302E-3	6.26510E-12	219.837E-3	-16.3918E-3	6.21159E-12	183.878E-3	-4.25989E-3
1.03802E-3	6.14371E-12	218.285E-3	-25.5115E-3	6.15817E-12	170.665E-3	2.01643E-3
1.03302E-3	6.02792E-12	227.178E-3	-31.5720E-3	6.01548E-12	158.033E-3	6.69230E-3
1.02801E-3	5.92964E-12	232.039E-3	-23.6166E-3	5.81892E-12	139.747E-3	7.32441E-3
1.02301E-3	5.88184E-12	223.565E-3	-18.3908E-3	5.67011E-12	142.848E-3	9.82347E-3
1.01801E-3	5.81497E-12	206.679E-3	-21.2602E-3	5.71533E-12	158.885E-3	2.47429E-3
1.01301E-3	5.76595E-12	186.933E-3	-14.2984E-3	5.72367E-12	154.549E-3	-6.95705E-3
1.00800E-3	5.67900E-12	165.310E-3	1.19470E-3	5.58317E-12	142.566E-3	44.5119E-6
1.00300E-3	5.61780E-12	153.817E-3	994.306E-6	5.48815E-12	129.720E-3	-130.319E-6
997.999E-6	5.60014E-12	147.700E-3	-7.11345E-3	5.50546E-12	116.254E-3	-22.5542E-3
992.997E-6	5.54460E-12	129.662E-3	-7.74023E-3	5.55099E-12	105.836E-3	-26.5872E-3
987.994E-6	5.39911E-12	121.800E-3	-8.51830E-3	5.48168E-12	96.6721E-3	-9.25081E-3
982.991E-6	5.33240E-12	132.078E-3	3.09605E-3	5.32663E-12	97.9018E-3	3.66408E-3
977.989E-6	5.37167E-12	128.178E-3	10.7464E-3	5.33825E-12	106.222E-3	9.52015E-3
972.986E-6	5.25188E-12	113.707E-3	-8.00174E-3	5.33084E-12	105.693E-3	7.95884E-3
967.984E-6	5.16096E-12	110.565E-3	-26.5086E-3	5.28666E-12	94.1685E-3	1.36748E-3
962.981E-6	5.10350E-12	113.673E-3	-34.1658E-3	5.16457E-12	87.3469E-3	-10.6982E-3
957.979E-6	5.11615E-12	105.575E-3	-29.7889E-3	5.11471E-12	84.7938E-3	-22.0289E-3
952.976E-6	5.07919E-12	89.9558E-3	-13.5273E-3	5.06279E-12	72.9792E-3	-30.9097E-3
947.974E-6	5.01208E-12	83.2907E-3	-9.93968E-3	5.05500E-12	72.3552E-3	-31.7686E-3
942.971E-6	4.98323E-12	80.4608E-3	-20.5704E-3	5.14633E-12	87.9317E-3	-28.5158E-3
937.969E-6	5.02487E-12	75.9520E-3	-21.3204E-3	5.04142E-12	86.1523E-3	-32.5675E-3
932.966E-6	5.05991E-12	73.3225E-3	-18.1934E-3	4.94541E-12	66.5813E-3	-26.5549E-3
927.964E-6	5.00778E-12	76.6620E-3	-26.9905E-3	5.02166E-12	52.7879E-3	-12.1845E-3
922.961E-6	4.96182E-12	87.2874E-3	-28.3184E-3	5.05922E-12	54.4378E-3	-10.5018E-3
917.959E-6	5.01369E-12	88.3011E-3	-11.3880E-3	5.00414E-12	57.8373E-3	-13.4556E-3
912.956E-6	5.03528E-12	76.1620E-3	-4.49865E-3	4.86058E-12	56.3226E-3	-13.0247E-3
907.954E-6	4.94174E-12	77.1701E-3	-13.6767E-3	4.87849E-12	56.8084E-3	-18.6608E-3
902.951E-6	4.97405E-12	86.1527E-3	-18.3745E-3	4.92738E-12	58.6266E-3	-20.8278E-3
897.949E-6	4.90099E-12	80.5728E-3	-27.6191E-3	4.88970E-12	59.6759E-3	-19.5332E-3
892.946E-6	4.90647E-12	70.6944E-3	-41.3612E-3	4.72891E-12	51.0174E-3	-28.6866E-3
887.944E-6	4.92135E-12	67.3418E-3	-33.8873E-3	4.68472E-12	37.8902E-3	-32.8532E-3
882.941E-6	4.86005E-12	68.5715E-3	-4.65156E-3	4.75894E-12	37.7300E-3	-27.7594E-3
877.939E-6	4.76966E-12	68.8428E-3	18.5672E-3	4.72908E-12	43.7983E-3	-26.8899E-3
872.936E-6	4.70863E-12	60.8819E-3	17.5440E-3	4.66888E-12	49.8283E-3	-18.9629E-3
867.934E-6	4.66379E-12	50.2054E-3	3.59800E-3	4.56162E-12	59.3034E-3	-262.608E-6
862.931E-6	4.63530E-12	50.9882E-3	-5.20439E-3	4.61481E-12	60.0102E-3	4.14396E-3
857.929E-6	4.63872E-12	52.6618E-3	-8.72234E-3	4.63492E-12	41.1699E-3	-39.5334E-6
852.926E-6	4.54327E-12	48.8795E-3	-16.0064E-3	4.60976E-12	27.1387E-3	-2.33356E-3
847.924E-6	4.57034E-12	40.9557E-3	-17.4721E-3	4.60102E-12	24.0633E-3	-20.2160E-3
842.921E-6	4.60396E-12	24.9756E-3	-13.4855E-3	4.59622E-12	21.8024E-3	-29.7008E-3
837.919E-6	4.62352E-12	20.7274E-3	-17.7607E-3	4.58641E-12	32.3381E-3	-13.7897E-3
832.916E-6	4.52309E-12	25.5214E-3	-19.9466E-3	4.64733E-12	46.5331E-3	-9.97919E-3
827.914E-6	4.54381E-12	24.6644E-3	-7.91926E-3	4.65747E-12	41.6676E-3	-21.5708E-3
822.911E-6	4.60424E-12	26.4297E-3	-1.61523E-3	4.54986E-12	33.8617E-3	-25.3677E-3
817.909E-6	4.61931E-12	25.8602E-3	-10.6652E-3	4.51162E-12	39.5024E-3	-23.5722E-3
812.906E-6	4.54032E-12	21.7956E-3	-25.4911E-3	4.56212E-12	42.0712E-3	-21.5018E-3
807.904E-6	4.51749E-12	21.8393E-3	-44.4958E-3	4.61066E-12	42.7896E-3	-27.8632E-3
802.901E-6	4.61359E-12	22.0435E-3	-52.1430E-3	4.49410E-12	45.8499E-3	-40.7826E-3
797.899E-6	4.57449E-12	20.3090E-3	-39.2944E-3	4.40087E-12	43.3279E-3	-35.5833E-3
792.896E-6	4.54229E-12	18.3039E-3	-20.4834E-3	4.39675E-12	42.5749E-3	-17.9386E-3
787.894E-6	4.48462E-12	17.0054E-3	-11.5900E-3	4.48225E-12	41.8170E-3	-25.0735E-3
782.891E-6	4.51851E-12	21.6548E-3	-12.1382E-3	4.48004E-12	34.8775E-3	-44.4280E-3
777.889E-6	4.45713E-12	35.5697E-3	-10.4042E-3	4.31978E-12	32.9794E-3	-38.2641E-3
772.886E-6	4.42029E-12	46.6250E-3	-12.2614E-3	4.33994E-12	26.1413E-3	-23.9116E-3
767.884E-6	4.41201E-12	46.5424E-3	-16.4636E-3	4.45266E-12	9.66929E-3	-22.0966E-3
762.881E-6	4.31422E-12	38.3309E-3	-13.6599E-3	4.45341E-12	11.2836E-3	-25.8188E-3
757.879E-6	4.29261E-12	27.9758E-3	-3.02083E-3	4.30616E-12	33.2023E-3	-28.5699E-3
752.876E-6	4.32726E-12	26.7410E-3	10.7071E-3	4.28879E-12	43.2678E-3	-30.1394E-3
747.874E-6	4.29585E-12	32.5867E-3	10.4151E-3	4.40885E-12	38.1922E-3	-23.1394E-3
742.871E-6	4.25358E-12	35.1565E-3	-8.70391E-3	4.42497E-12	33.4811E-3	-13.2524E-3
737.869E-6	4.15926E-12	33.5326E-3	-22.5912E-3	4.34363E-12	21.0368E-3	-4.66199E-3
732.866E-6	4.28291E-12	33.0099E-3	-23.8345E-3	4.31907E-12	10.4558E-3	7.68822E-3
727.864E-6	4.31759E-12	33.3157E-3	-20.6412E-3	4.31701E-12	16.7025E-3	6.67686E-3
722.861E-6	4.30538E-12	29.2294E-3	-14.6179E-3	4.33849E-12	17.9644E-3	-5.39046E-3
717.859E-6	4.22596E-12	25.1601E-3	-14.2311E-3	4.30764E-12	15.9044E-3	-11.3901E-3
712.856E-6	4.28165E-12	23.1962E-3	-9.52985E-3	4.24992E-12	30.4063E-3	-21.5891E-3
707.854E-6	4.38194E-12	20.0482E-3	-1.63799E-3	4.25284E-12	44.0287E-3	-35.4504E-3
702.851E-6	4.33257E-12	24.8913E-3	-4.74182E-3	4.20687E-12	47.5992E-3	-30.3720E-3
697.849E-6	4.31518E-12	35.3838E-3	-12.6490E-3	4.20803E-12	56.3476E-3	-11.6738E-3
692.846E-6	4.27929E-12	31.5192E-3	-11.9532E-3	4.25226E-12	54.7502E-3	260.951E-6
687.844E-6	4.33890E-12	23.1386E-3	-14.4267E-3	4.18722E-12	40.4363E-3	2.30477E-3
682.841E-6	4.30041E-12	22.4245E-3	-27.5382E-3	4.05641E-12	39.1805E-3	-10.2704E-3
677.839E-6	4.18438E-12	23.3421E-3	-32.8492E-3	4.16010E-12	48.2478E-3	-34.2449E-3
672.836E-6	4.13683E-12	26.7066E-3	-39.4583E-3	4.21641E-12	51.7166E-3	-33.7497E-3
667.834E-6	4.16389E-12	33.9996E-3	-40.3046E-3	4.19461E-12	44.2713E-3	-13.5230E-3
662.831E-6	4.13863E-12	41.7419E-3	-18.2208E-3	4.08028E-12	29.7655E-3	-2.84356E-3
657.829E-6	4.05271E-12	43.5358E-3	2.41775E-3	4.12298E-12	23.8138E-3	-1.31757E-3
652.826E-6	3.99299E-12	43.6522E-3	99.1648E-6	4.21000E-12	40.4757E-3	-18.1889E-3
647.824E-6	3.97524E-12	46.9281E-3	-4.61481E-3	4.19355E-12	57.7661E-3	-33.6807E-3
642.821E-6	3.91482E-12	46.5264E-3	-2.26500E-3	4.06195E-12	64.5170E-3	-19.9512E-3
637.819E-6	3.97741E-12	51.2860E-3	-13.2698E-3	4.05172E-12	69.3217E-3	-7.37232E-3
632.816E-6	3.94124E-12	61.0983E-3	-21.2171E-3	4.06538E-12	62.8628E-3	-13.4075E-3
627.814E-6	3.85761E-12	59.1996E-3	-15.0647E-3	4.08546E-12	59.5428E-3	-27.2639E-3
622.811E-6	3.86697E-12	50.0639E-3	-17.8285E-3	3.94669E-12	71.6834E-3	-37.8122E-3
617.809E-6	3.96328E-12	52.0405E-3	-24.2011E-3	3.86267E-12	78.3331E-3	-31.1105E-3
612.806E-6	3.99034E-12	58.3792E-3	-15.7125E-3	3.92947E-12	70.7307E-3	-16.2232E-3
607.804E-6	3.99941E-12	52.4072E-3	141.148E-6	3.94161E-12	67.3161E-3	-17.9885E-3
602.801E-6	3.91369E-12	46.7581E-3	7.08910E-3	3.81636E-12	70.1085E-3	-35.3303E-3
597.799E-6	3.93757E-12	55.9863E-3	-2.10630E-3	3.79626E-12	64.3382E-3	-36.2245E-3
592.796E-6	4.02834E-12	70.0414E-3	-13.9660E-3	3.80911E-12	58.2489E-3	-19.6645E-3
587.794E-6	3.98776E-12	79.5258E-3	-2.44919E-3	3.85575E-12	55.9415E-3	-7.73452E-3
582.791E-6	3.87583E-12	79.0908E-3	12.9257E-3	3.78581E-12	56.3118E-3	-5.11033E-3
577.789E-6	3.87088E-12	70.7532E-3	-3.31154E-3	3.80066E-12	64.3898E-3	-7.90270E-3
572.786E-6	3.90686E-12	63.2027E-3	-23.1243E-3	3.80089E-12	76.3181E-3	-6.91433E-3
567.784E-6	3.81429E-12	62.8093E-3	-20.5060E-3	3.69900E-12	82.9233E-3	1.60174E-3
562.781E-6	3.69120E-12	75.0439E-3	-7.54356E-3	3.73666E-12	87.8564E-3	5.00637E-3
557.779E-6	3.62901E-12	89.1230E-3	-5.92994E-3	3.75775E-12	96.9764E-3	704.075E-6
552.776E-6	3.68387E-12	88.2020E-3	-16.0462E-3	3.64900E-12	98.5887E-3	4.37847E-3
547.774E-6	3.56165E-12	81.7807E-3	-16.5492E-3	3.54379E-12	92.7164E-3	3.28723E-3
542.771E-6	3.51046E-12	89.5517E-3	-15.4801E-3	3.51760E-12	94.0627E-3	-16.0853E-3
537.769E-6	3.40682E-12	97.1199E-3	-24.0022E-3	3.59728E-12	100.513E-3	-30.1347E-3
532.766E-6	3.43400E-12	86.6039E-3	-30.1714E-3	3.50342E-12	98.1964E-3	-25.7183E-3
527.764E-6	3.44865E-12	78.8544E-3	-25.4739E-3	3.40243E-12	86.6983E-3	-20.0796E-3
522.761E-6	3.38976E-12	86.9369E-3	-16.6904E-3	3.33596E-12	79.8623E-3	-24.0235E-3
517.759E-6	3.38865E-12	92.0187E-3	-18.6469E-3	3.39565E-12	84.9063E-3	-19.6696E-3
512.756E-6	3.37141E-12	89.5764E-3	-23.4613E-3	3.38855E-12	92.4850E-3	-5.44057E-3
507.754E-6	3.35020E-12	87.7496E-3	-15.8945E-3	3.25916E-12	92.5447E-3	178.380E-6
502.751E-6	3.31537E-12	87.0516E-3	-8.77054E-3	3.21325E-12	91.5912E-3	-3.75928E-3
497.749E-6	3.38269E-12	87.9887E-3	-11.3936E-3	3.28883E-12	96.8985E-3	-22.3685E-3
492.746E-6	3.27657E-12	95.5722E-3	-11.1815E-3	3.28038E-12	110.924E-3	-35.7643E-3
487.744E-6	3.24649E-12	100.921E-3	-10.2715E-3	3.19114E-12	126.534E-3	-24.1018E-3
482.741E-6	3.28401E-12	98.8686E-3	-26.3090E-3	3.12945E-12	125.349E-3	-11.5790E-3
477.739E-6	3.26234E-12	99.6173E-3	-36.3800E-3	3.15984E-12	113.594E-3	-9.72178E-3
472.736E-6	3.21179E-12	104.205E-3	-18.6133E-3	3.12789E-12	108.480E-3	-10.4037E-3
467.734E-6	3.02595E-12	110.437E-3	-5.38886E-3	3.07731E-12	107.590E-3	-12.9190E-3
462.731E-6	3.02075E-12	108.525E-3	-2.72089E-3	3.01608E-12	107.259E-3	-12.3502E-3
457.729E-6	3.04250E-12	104.390E-3	-1.48164E-3	2.94734E-12	115.048E-3	-14.3635E-3
452.726E-6	2.94087E-12	110.601E-3	-6.77093E-3	2.91217E-12	126.678E-3	-14.1177E-3
447.724E-6	2.79660E-12	112.109E-3	-15.9151E-3	2.87797E-12	116.837E-3	-1.99270E-3
442.721E-6	2.72077E-12	111.913E-3	-23.5445E-3	2.87600E-12	99.9697E-3	1.72927E-3
437.719E-6	2.80249E-12	124.778E-3	-20.6402E-3	2.78879E-12	107.366E-3	-20.0647E-3
432.716E-6	2.75492E-12	126.403E-3	-11.0670E-3	2.69764E-12	116.110E-3	-36.6888E-3
427.714E-6	2.59739E-12	111.183E-3	-10.2833E-3	2.68365E-12	108.864E-3	-17.4772E-3
422.711E-6	2.59191E-12	107.398E-3	-16.6667E-3	2.71753E-12	110.585E-3	-9.22602E-3
417.709E-6	2.64414E-12	116.146E-3	-21.0944E-3	2.67269E-12	121.796E-3	-24.0328E-3
412.706E-6	2.61250E-12	121.194E-3	-24.5778E-3	2.54516E-12	128.726E-3	-18.7940E-3
407.704E-6	2.56144E-12	126.002E-3	-21.5034E-3	2.58391E-12	142.006E-3	-4.26985E-3
402.701E-6	2.48071E-12	137.340E-3	-14.3858E-3	2.65212E-12	150.952E-3	-2.73320E-3
397.699E-6	2.50418E-12	142.774E-3	-16.9657E-3	2.61511E-12	140.525E-3	-8.80729E-3
392.696E-6	2.50003E-12	133.280E-3	-22.0798E-3	2.42305E-12	136.503E-3	-13.6165E-3
387.694E-6	2.46012E-12	119.480E-3	-22.6538E-3	2.44863E-12	138.619E-3	-19.4204E-3
382.691E-6	2.42284E-12	109.625E-3	-15.2702E-3	2.49199E-12	126.151E-3	-22.5004E-3
377.689E-6	2.32024E-12	110.379E-3	-5.35031E-3	2.43069E-12	113.829E-3	-16.7273E-3
372.686E-6	2.29598E-12	124.647E-3	-8.75670E-3	2.29530E-12	105.796E-3	-13.0054E-3
367.684E-6	2.30070E-12	131.150E-3	-18.7647E-3	2.13180E-12	104.934E-3	-18.4224E-3
362.681E-6	2.25807E-12	129.438E-3	-22.7458E-3	2.22704E-12	119.478E-3	-26.6788E-3
357.679E-6	2.13857E-12	135.817E-3	-21.8645E-3	2.19939E-12	129.040E-3	-29.7806E-3
352.676E-6	2.05047E-12	137.063E-3	-23.0892E-3	2.05382E-12	127.729E-3	-20.7228E-3
347.674E-6	1.98034E-12	125.832E-3	-27.0463E-3	2.00293E-12	129.666E-3	-9.24379E-3
342.671E-6	2.05087E-12	117.029E-3	-25.1782E-3	1.99269E-12	129.453E-3	-9.31647E-3
337.669E-6	1.94360E-12	118.942E-3	-10.4580E-3	1.96726E-12	125.032E-3	-14.6076E-3
332.666E-6	1.78660E-12	133.383E-3	-2.36767E-3	1.89743E-12	123.804E-3	-15.5305E-3
327.664E-6	1.77511E-12	148.184E-3	-7.61274E-3	1.87607E-12	124.656E-3	-14.2403E-3
322.661E-6	1.85544E-12	142.836E-3	-9.24792E-3	1.82852E-12	123.176E-3	-20.2654E-3
317.659E-6	1.74805E-12	123.393E-3	-14.0871E-3	1.80072E-12	117.273E-3	-27.3047E-3
312.656E-6	1.69364E-12	113.854E-3	-24.7415E-3	1.76979E-12	110.802E-3	-26.9015E-3
307.654E-6	1.65068E-12	124.283E-3	-16.7781E-3	1.76343E-12	109.816E-3	-13.9733E-3
302.651E-6	1.72235E-12	134.086E-3	1.41523E-3	1.69160E-12	118.138E-3	-3.31416E-3
297.649E-6	1.65638E-12	133.292E-3	-6.30014E-3	1.53241E-12	130.553E-3	-9.63811E-3
292.646E-6	1.55970E-12	130.648E-3	-25.6509E-3	1.55815E-12	139.601E-3	-12.9277E-3
287.644E-6	1.57334E-12	123.461E-3	-28.4724E-3	1.62189E-12	144.258E-3	-10.9345E-3
282.641E-6	1.54740E-12	128.130E-3	-17.4591E-3	1.53845E-12	136.422E-3	-18.2773E-3
277.639E-6	1.55275E-12	143.163E-3	-7.55620E-3	1.35609E-12	126.820E-3	-27.2585E-3
272.636E-6	1.48020E-12	146.134E-3	-13.3644E-3	1.35190E-12	129.895E-3	-28.1811E-3
267.634E-6	1.41283E-12	139.448E-3	-14.5690E-3	1.41683E-12	121.571E-3	-23.9095E-3
262.631E-6	1.40060E-12	131.914E-3	-12.1509E-3	1.35752E-12	101.692E-3	-24.7692E-3
257.629E-6	1.30098E-12	126.549E-3	-30.3089E-3	1.20622E-12	99.9978E-3	-37.0512E-3
252.626E-6	1.30729E-12	122.979E-3	-44.0237E-3	1.19714E-12	112.528E-3	-46.1269E-3
247.624E-6	1.27823E-12	119.146E-3	-39.7345E-3	1.26116E-12	119.742E-3	-29.9807E-3
242.621E-6	1.18947E-12	113.556E-3	-31.4481E-3	1.23894E-12	118.423E-3	-6.93787E-3
237.619E-6	1.13639E-12	114.445E-3	-19.1547E-3	1.11050E-12	113.451E-3	-9.94682E-3
232.616E-6	1.09558E-12	116.547E-3	-4.29314E-3	1.05767E-12	117.220E-3	-25.9876E-3
227.614E-6	1.07016E-12	110.763E-3	-1.86263E-3	1.08213E-12	132.683E-3	-27.6454E-3
222.611E-6	1.04202E-12	102.376E-3	-12.2545E-3	1.07865E-12	143.076E-3	-14.0720E-3
217.609E-6	890.091E-15	92.0043E-3	-17.0641E-3	1.02650E-12	123.476E-3	-6.50049E-3
212.606E-6	880.927E-15	83.6820E-3	-14.2901E-3	880.910E-15	92.5796E-3	-8.29891E-3
207.604E-6	951.048E-15	84.7040E-3	-11.5376E-3	926.128E-15	88.3992E-3	-8.05981E-3
202.601E-6	920.818E-15	87.8481E-3	-4.87579E-3	912.142E-15	95.6820E-3	-7.38742E-3
197.599E-6	773.566E-15	88.8603E-3	-3.31519E-3	851.761E-15	90.5604E-3	-8.76919E-3
192.596E-6	759.423E-15	94.8368E-3	-15.7331E-3	843.111E-15	84.4518E-3	-9.42994E-3
187.594E-6	818.567E-15	99.1694E-3	-29.4884E-3	746.702E-15	87.9076E-3	-14.7434E-3
182.591E-6	820.345E-15	96.7379E-3	-34.1022E-3	685.056E-15	92.9494E-3	-17.8115E-3
177.589E-6	714.380E-15	86.0505E-3	-23.3865E-3	698.624E-15	84.8859E-3	-13.8308E-3
172.586E-6	679.991E-15	71.2960E-3	-8.35095E-3	740.686E-15	61.3480E-3	-19.0548E-3
167.584E-6	715.687E-15	76.5830E-3	-908.334E-6	639.821E-15	49.5912E-3	-20.8649E-3
162.581E-6	745.211E-15	94.1916E-3	-622.149E-6	550.980E-15	70.1832E-3	-12.0813E-3
157.579E-6	558.844E-15	96.0870E-3	-460.545E-6	536.000E-15	92.7225E-3	-13.3902E-3
152.576E-6	577.722E-15	90.3144E-3	-5.93450E-3	626.759E-15	88.4656E-3	-20.8092E-3
147.574E-6	569.752E-15	82.7891E-3	-25.2709E-3	570.650E-15	73.2510E-3	-20.2863E-3
142.571E-6	547.780E-15	75.8941E-3	-28.8729E-3	464.467E-15	60.6850E-3	-18.7849E-3
137.569E-6	503.407E-15	80.5032E-3	-19.3657E-3	449.173E-15	64.1550E-3	-13.2237E-3
132.566E-6	482.925E-15	91.7106E-3	-19.1042E-3	496.127E-15	75.1382E-3	-7.87688E-3
127.564E-6	429.703E-15	93.2268E-3	-16.1774E-3	491.723E-15	74.1781E-3	-19.6530E-3
122.561E-6	365.128E-15	85.0626E-3	-11.7059E-3	353.444E-15	70.1840E-3	-24.9051E-3
117.559E-6	403.719E-15	73.6447E-3	-11.4051E-3	335.543E-15	67.1300E-3	-13.4861E-3
112.556E-6	346.861E-15	65.1238E-3	-9.30088E-3	373.428E-15	58.5647E-3	-7.26531E-3
107.554E-6	298.006E-15	71.9360E-3	-12.7553E-3	437.097E-15	51.8203E-3	-12.5806E-3
102.551E-6	245.159E-15	87.3345E-3	-21.8758E-3	280.777E-15	50.9625E-3	-20.4421E-3
97.5488E-6	233.919E-15	80.6576E-3	-22.4653E-3	240.119E-15	51.1820E-3	-17.1285E-3
92.5463E-6	308.452E-15	54.8072E-3	-18.6204E-3	262.310E-15	63.2550E-3	-1.52368E-3
87.5438E-6	332.413E-15	43.4293E-3	-21.3205E-3	244.226E-15	79.3176E-3	-2.58124E-3
82.5413E-6	166.005E-15	46.0385E-3	-19.3192E-3	192.764E-15	73.9718E-3	-26.6539E-3
77.5388E-6	136.228E-15	49.8583E-3	-9.63384E-3	153.092E-15	55.8965E-3	-42.5504E-3
72.5363E-6	232.097E-15	56.6017E-3	-4.52597E-3	144.198E-15	50.6651E-3	-36.6848E-3
67.5338E-6	219.245E-15	67.1963E-3	-5.48879E-3	144.198E-15	58.3213E-3	-23.6049E-3
62.5313E-6	93.5735E-15	71.3413E-3	-11.8917E-3	112.076E-15	57.9059E-3	-14.9880E-3
57.5288E-6	114.482E-15	67.3778E-3	-11.0133E-3	115.816E-15	59.5763E-3	-9.30493E-3
52.5263E-6	115.808E-15	58.0065E-3	-2.97274E-3	76.3878E-15	64.0883E-3	-15.1940E-3
47.5238E-6	128.686E-15	42.3239E-3	-7.32438E-3	41.8680E-15	56.0736E-3	-25.0924E-3
42.5213E-6	-4.96339E-15	40.5463E-3	-20.1405E-3	18.5787E-15	61.7856E-3	-26.5260E-3
37.5188E-6	-21.0418E-15	49.2484E-3	-22.5941E-3	88.0367E-15	81.3536E-3	-33.1710E-3
32.5163E-6	68.5578E-15	58.8683E-3	-21.2569E-3	30.8032E-15	78.1485E-3	-35.6682E-3
27.5138E-6	390.264E-18	70.2072E-3	-31.8091E-3	-100.030E-15	60.0080E-3	-25.7250E-3
22.5113E-6	-45.6564E-15	69.8695E-3	-33.4327E-3	-53.7654E-15	54.8064E-3	-21.0711E-3
17.5088E-6	-89.8982E-15	56.0598E-3	-9.34013E-3	28.3792E-15	55.6251E-3	-20.7408E-3
12.5063E-6	-98.4692E-15	51.0505E-3	6.41717E-3	-23.4309E-15	65.0894E-3	-15.1238E-3
7.50375E-6	-72.3288E-15	65.0158E-3	-1.27216E-3	-189.647E-15	73.9574E-3	-12.5350E-3
2.50125E-6	-125.046E-15	73.6926E-3	-8.50667E-3	-203.118E-15	54.5046E-3	-12.9922E-3
-2.50125E-6	-138.203E-15	70.7824E-3	-16.2720E-3	-39.7621E-15	36.1618E-3	-8.92494E-3
-7.50375E-6	-169.444E-15	64.8190E-3	-23.9701E-3	-140.967E-15	44.5790E-3	-10.8163E-3
-12.5063E-6	-244.762E-15	55.8234E-3	-18.1737E-3	-254.990E-15	62.4754E-3	-17.7621E-3
-17.5088E-6	-202.229E-15	48.8734E-3	-11.7086E-3	-304.803E-15	74.1458E-3	-21.5236E-3
-22.5113E-6	-241.902E-15	50.2671E-3	-5.34353E-3	-230.140E-15	73.4526E-3	-25.3478E-3
-27.5138E-6	-268.906E-15	61.3846E-3	1.38653E-3	-213.616E-15	66.9477E-3	-19.2586E-3
-32.5163E-6	-335.294E-15	72.8317E-3	-2.46563E-3	-306.224E-15	67.9345E-3	-1.17756E-3
-37.5188E-6	-377.696E-15	76.3888E-3	-15.7133E-3	-384.166E-15	71.7348E-3	-3.47230E-3
-42.5213E-6	-314.682E-15	76.1613E-3	-22.4975E-3	-364.312E-15	67.3931E-3	-26.9581E-3
-47.5238E-6	-388.412E-15	80.2309E-3	-16.7884E-3	-361.077E-15	77.6816E-3	-32.6478E-3
-52.5263E-6	-474.306E-15	84.5610E-3	-18.3763E-3	-409.975E-15	92.3534E-3	-25.3013E-3
-57.5288E-6	-467.200E-15	78.1840E-3	-21.1480E-3	-445.044E-15	80.3235E-3	-24.2529E-3
-62.5313E-6	-415.172E-15	70.7092E-3	-17.3157E-3	-515.409E-15	71.3716E-3	-29.5311E-3
-67.5338E-6	-473.766E-15	67.2236E-3	-21.7588E-3	-512.706E-15	77.2265E-3	-38.6683E-3
-72.5363E-6	-546.511E-15	67.1957E-3	-30.5973E-3	-526.500E-15	74.2787E-3	-37.6125E-3
-77.5388E-6	-573.244E-15	75.8512E-3	-29.8676E-3	-528.959E-15	76.2738E-3	-26.2708E-3
-82.5413E-6	-527.128E-15	87.3211E-3	-23.2569E-3	-595.583E-15	97.6575E-3	-10.6028E-3
-87.5438E-6	-549.127E-15	90.5212E-3	-18.5879E-3	-648.971E-15	111.388E-3	2.35497E-3
-92.5463E-6	-681.547E-15	85.5057E-3	-13.1653E-3	-687.406E-15	106.517E-3	-1.93297E-3
-97.5488E-6	-685.174E-15	80.3155E-3	-10.5792E-3	-631.045E-15	103.563E-3	-21.6863E-3
-102.551E-6	-701.906E-15	79.9654E-3	-12.4778E-3	-672.392E-15	101.099E-3	-35.9523E-3
-107.554E-6	-728.204E-15	82.4074E-3	-15.0479E-3	-818.588E-15	104.670E-3	-25.0722E-3
-112.556E-6	-845.862E-15	86.6888E-3	-22.1755E-3	-877.993E-15	121.372E-3	-9.57026E-3
-117.559E-6	-864.853E-15	98.3521E-3	-21.9764E-3	-752.722E-15	134.679E-3	-8.42371E-3
-122.561E-6	-862.586E-15	111.963E-3	-7.68221E-3	-809.381E-15	138.986E-3	-6.07221E-3
-127.564E-6	-935.671E-15	123.294E-3	-4.21006E-3	-979.111E-15	135.542E-3	-13.1718E-3
-132.566E-6	-977.785E-15	127.683E-3	-10.7627E-3	-1.04278E-12	140.923E-3	-26.3804E-3
-137.569E-6	-1.07224E-12	123.149E-3	-18.8119E-3	-960.739E-15	154.573E-3	-23.3901E-3
-142.571E-6	-1.09469E-12	121.216E-3	-25.3664E-3	-952.552E-15	159.956E-3	-18.9475E-3
-147.574E-6	-1.16478E-12	125.883E-3	-18.7044E-3	-1.13784E-12	159.186E-3	-20.9532E-3
-152.576E-6	-1.15378E-12	134.860E-3	-7.63620E-3	-1.22712E-12	150.821E-3	-22.2523E-3
-157.579E-6	-1.16159E-12	137.206E-3	62.9014E-6	-1.16728E-12	147.218E-3	-23.8134E-3
-162.581E-6	-1.23418E-12	133.073E-3	4.66209E-3	-1.16464E-12	150.123E-3	-27.6559E-3
-167.584E-6	-1.33705E-12	141.786E-3	6.07769E-3	-1.25853E-12	153.213E-3	-29.2716E-3
-172.586E-6	-1.38448E-12	154.020E-3	583.304E-6	-1.38887E-12	166.954E-3	-20.0044E-3
-177.589E-6	-1.30658E-12	158.561E-3	-10.6889E-3	-1.42906E-12	181.499E-3	-6.95540E-3
-182.591E-6	-1.40881E-12	159.197E-3	-20.8191E-3	-1.40294E-12	181.767E-3	1.57775E-3
-187.594E-6	-1.54359E-12	160.503E-3	-29.1007E-3	-1.54101E-12	178.946E-3	4.65968E-3
-192.596E-6	-1.58103E-12	166.714E-3	-31.7888E-3	-1.60997E-12	181.201E-3	-784.572E-6
-197.599E-6	-1.55094E-12	161.635E-3	-27.7024E-3	-1.64435E-12	179.333E-3	-6.22786E-3
-202.601E-6	-1.58958E-12	146.150E-3	-23.8594E-3	-1.74942E-12	187.277E-3	-10.4127E-3
-207.604E-6	-1.73959E-12	148.938E-3	-26.5673E-3	-1.79302E-12	200.635E-3	-25.6643E-3
-212.606E-6	-1.82593E-12	166.611E-3	-31.9420E-3	-1.77344E-12	197.634E-3	-37.0236E-3
-217.609E-6	-1.77559E-12	173.824E-3	-34.7208E-3	-1.93136E-12	202.858E-3	-29.9513E-3
-222.611E-6	-1.88387E-12	170.453E-3	-36.1320E-3	-2.07645E-12	221.847E-3	-15.8584E-3
-227.614E-6	-2.02979E-12	173.270E-3	-36.3712E-3	-2.09339E-12	223.226E-3	-7.42166E-3
-232.616E-6	-2.09230E-12	185.046E-3	-32.8763E-3	-2.03855E-12	216.351E-3	-13.8182E-3
-237.619E-6	-2.13846E-12	192.318E-3	-22.4165E-3	-2.16265E-12	220.406E-3	-18.8114E-3
-242.621E-6	-2.23541E-12	198.890E-3	-16.4533E-3	-2.30203E-12	228.919E-3	-16.8090E-3
-247.624E-6	-2.27717E-12	209.208E-3	-20.7227E-3	-2.35417E-12	237.449E-3	-15.6896E-3
-252.626E-6	-2.42858E-12	215.462E-3	-29.0558E-3	-2.29213E-12	244.396E-3	-13.3555E-3
-257.629E-6	-2.45974E-12	220.550E-3	-32.5113E-3	-2.42699E-12	239.861E-3	-22.4372E-3
-262.631E-6	-2.58386E-12	228.356E-3	-26.8381E-3	-2.61232E-12	230.139E-3	-36.8276E-3
-267.634E-6	-2.63072E-12	237.777E-3	-25.5012E-3	-2.69338E-12	234.915E-3	-32.9657E-3
-272.636E-6	-2.66867E-12	246.152E-3	-18.8770E-3	-2.62961E-12	249.552E-3	-11.2759E-3
-277.639E-6	-2.78025E-12	250.495E-3	-9.27531E-3	-2.75706E-12	255.078E-3	594.011E-6
-282.641E-6	-2.93141E-12	256.438E-3	-12.7811E-3	-2.88253E-12	251.572E-3	-4.71878E-3
-287.644E-6	-2.97312E-12	259.659E-3	-11.8628E-3	-2.98485E-12	255.017E-3	-9.96215E-3
-292.646E-6	-2.97537E-12	247.458E-3	-4.64213E-3	-3.01190E-12	268.546E-3	-6.06110E-3
-297.649E-6	-3.01632E-12	239.939E-3	-8.83514E-3	-3.06649E-12	279.508E-3	1.67692E-3
-302.651E-6	-3.19852E-12	252.112E-3	-21.1383E-3	-3.18319E-12	277.086E-3	1.36203E-3
-307.654E-6	-3.23154E-12	265.015E-3	-27.8759E-3	-3.29832E-12	267.549E-3	-4.90161E-3
-312.656E-6	-3.25906E-12	271.796E-3	-31.1809E-3	-3.34797E-12	267.301E-3	-13.5305E-3
-317.659E-6	-3.34884E-12	275.967E-3	-41.0706E-3	-3.40879E-12	267.592E-3	-17.2771E-3
-322.661E-6	-3.55260E-12	266.675E-3	-41.0919E-3	-3.55440E-12	258.395E-3	-13.9894E-3
-327.664E-6	-3.66868E-12	252.863E-3	-18.7446E-3	-3.58867E-12	258.138E-3	-12.9903E-3
-332.666E-6	-3.69395E-12	243.549E-3	3.08573E-3	-3.68006E-12	267.153E-3	-14.3701E-3
-337.669E-6	-3.77297E-12	239.975E-3	10.9961E-3	-3.82643E-12	274.633E-3	-17.4066E-3
-342.671E-6	-4.01390E-12	247.542E-3	4.89076E-3	-3.94279E-12	280.875E-3	-26.0995E-3
-347.674E-6	-4.20590E-12	252.526E-3	-5.34828E-3	-3.95078E-12	280.382E-3	-34.7549E-3
-352.676E-6	-4.17832E-12	253.870E-3	-7.72126E-3	-4.06024E-12	267.390E-3	-27.3782E-3
-357.679E-6	-4.27288E-12	269.347E-3	-7.39987E-3	-4.23792E-12	267.628E-3	-14.2450E-3
-362.681E-6	-4.47651E-12	281.746E-3	-14.3408E-3	-4.35169E-12	291.869E-3	-17.3898E-3
-367.684E-6	-4.61079E-12	282.780E-3	-24.5537E-3	-4.37841E-12	301.241E-3	-19.8071E-3
-372.686E-6	-4.66602E-12	292.965E-3	-26.2747E-3	-4.52455E-12	294.473E-3	-11.8763E-3
-377.689E-6	-4.65946E-12	297.785E-3	-18.1613E-3	-4.72016E-12	283.981E-3	-15.8297E-3
-382.691E-6	-4.71444E-12	291.694E-3	-15.4830E-3	-4.80716E-12	269.856E-3	-25.0270E-3
-387.694E-6	-4.74945E-12	292.684E-3	-20.2681E-3	-4.79293E-12	277.480E-3	-21.1246E-3
-392.696E-6	-4.80469E-12	289.789E-3	-18.1741E-3	-4.85728E-12	298.018E-3	-17.6158E-3
-397.699E-6	-4.83222E-12	273.425E-3	-13.5679E-3	-5.00128E-12	297.526E-3	-17.2326E-3
-402.701E-6	-4.88721E-12	263.732E-3	-23.0931E-3	-5.07120E-12	284.631E-3	-9.46626E-3
-407.704E-6	-4.92812E-12	267.852E-3	-36.2851E-3	-5.04470E-12	271.285E-3	-2.89851E-3
-412.706E-6	-5.02381E-12	266.034E-3	-33.6678E-3	-5.14256E-12	263.976E-3	-2.86737E-3
-417.709E-6	-5.21203E-12	256.476E-3	-19.2610E-3	-5.32178E-12	277.529E-3	-9.84715E-3
-422.711E-6	-5.29591E-12	259.639E-3	-13.4189E-3	-5.41202E-12	280.766E-3	-18.9394E-3
-427.714E-6	-5.29898E-12	264.498E-3	-14.0054E-3	-5.42162E-12	260.386E-3	-19.7508E-3
-432.716E-6	-5.48293E-12	257.236E-3	-7.81581E-3	-5.47758E-12	253.024E-3	-14.2064E-3
-437.719E-6	-5.73840E-12	255.886E-3	-3.39825E-3	-5.67533E-12	263.913E-3	-6.69964E-3
-442.721E-6	-5.84993E-12	259.446E-3	-6.82951E-3	-5.77608E-12	273.554E-3	-7.88058E-3
-447.724E-6	-5.97821E-12	262.407E-3	-20.4968E-3	-5.86698E-12	269.316E-3	-26.7334E-3
-452.726E-6	-6.11724E-12	273.179E-3	-30.2190E-3	-5.94089E-12	257.004E-3	-35.6661E-3
-457.729E-6	-6.36613E-12	282.079E-3	-17.5435E-3	-6.07229E-12	243.636E-3	-14.4045E-3
-462.731E-6	-6.49326E-12	277.879E-3	-3.92840E-3	-6.23115E-12	246.823E-3	87.1319E-6
-467.734E-6	-6.49916E-12	270.642E-3	-12.2454E-3	-6.31616E-12	256.617E-3	-18.3000E-3
-472.736E-6	-6.45311E-12	271.782E-3	-25.2026E-3	-6.47297E-12	247.617E-3	-30.9469E-3
-477.739E-6	-6.62729E-12	271.873E-3	-22.5054E-3	-6.50863E-12	245.750E-3	-16.0975E-3
-482.741E-6	-6.69676E-12	266.623E-3	-13.5586E-3	-6.58168E-12	259.834E-3	-9.14004E-3
-487.744E-6	-6.57325E-12	263.221E-3	-9.66853E-3	-6.62860E-12	267.798E-3	-19.1831E-3
-492.746E-6	-6.57807E-12	261.203E-3	-13.0842E-3	-6.79921E-12	257.275E-3	-17.6409E-3
-497.749E-6	-6.59261E-12	254.068E-3	-24.0246E-3	-6.90777E-12	235.967E-3	-11.3034E-3
-502.751E-6	-6.73146E-12	244.831E-3	-24.5918E-3	-6.83965E-12	223.361E-3	-16.9950E-3
-507.754E-6	-6.71927E-12	243.818E-3	-13.5520E-3	-6.92375E-12	221.051E-3	-25.1355E-3
-512.756E-6	-6.77782E-12	246.367E-3	-10.7231E-3	-7.12405E-12	223.020E-3	-23.2551E-3
-517.759E-6	-6.89128E-12	244.004E-3	-10.7923E-3	-7.21364E-12	217.746E-3	-13.7664E-3
-522.761E-6	-7.03369E-12	232.530E-3	-12.0157E-3	-7.11143E-12	208.817E-3	-6.77053E-3
-527.764E-6	-7.18192E-12	216.456E-3	-16.1944E-3	-7.18076E-12	213.539E-3	-14.2378E-3
-532.766E-6	-7.32501E-12	209.632E-3	-10.8285E-3	-7.38057E-12	211.601E-3	-30.1071E-3
-537.769E-6	-7.47850E-12	209.874E-3	-9.47820E-3	-7.54182E-12	204.562E-3	-35.3762E-3
-542.771E-6	-7.57657E-12	211.926E-3	-17.6166E-3	-7.46887E-12	203.736E-3	-33.9845E-3
-547.774E-6	-7.64596E-12	214.067E-3	-11.4170E-3	-7.51086E-12	194.078E-3	-34.9252E-3
-552.776E-6	-7.85190E-12	210.771E-3	-13.0055E-3	-7.73173E-12	191.163E-3	-34.0112E-3
-557.779E-6	-7.91451E-12	209.832E-3	-33.2791E-3	-7.78762E-12	197.249E-3	-37.7577E-3
-562.781E-6	-7.95144E-12	210.184E-3	-27.0587E-3	-7.80700E-12	185.822E-3	-43.0257E-3
-567.784E-6	-8.00481E-12	208.052E-3	-7.41716E-3	-7.84433E-12	171.929E-3	-27.5339E-3
-572.786E-6	-8.07915E-12	208.797E-3	-673.976E-6	-7.96322E-12	181.111E-3	-9.52672E-3
-577.789E-6	-8.10825E-12	198.894E-3	5.17603E-3	-8.05680E-12	181.011E-3	-17.2247E-3
-582.791E-6	-8.01401E-12	183.667E-3	4.23592E-3	-8.13577E-12	158.700E-3	-21.3262E-3
-587.794E-6	-8.04552E-12	183.846E-3	-679.086E-6	-8.09434E-12	148.788E-3	1.23350E-3
-592.796E-6	-8.11274E-12	188.567E-3	1.38157E-3	-8.14035E-12	153.339E-3	10.4270E-3
-597.799E-6	-8.13332E-12	180.264E-3	-383.649E-6	-8.18974E-12	153.691E-3	-2.25814E-3
-602.801E-6	-8.07492E-12	165.841E-3	-12.9238E-3	-8.26068E-12	155.753E-3	-10.3462E-3
-607.804E-6	-8.14793E-12	155.274E-3	-20.0114E-3	-8.30599E-12	154.717E-3	-17.7602E-3
-612.806E-6	-8.20850E-12	149.210E-3	-20.9284E-3	-8.29827E-12	149.272E-3	-23.2744E-3
-617.809E-6	-8.32284E-12	146.298E-3	-25.7555E-3	-8.32605E-12	149.167E-3	-25.0493E-3
-622.811E-6	-8.31174E-12	145.309E-3	-27.0695E-3	-8.41134E-12	141.731E-3	-26.6942E-3
-627.814E-6	-8.34203E-12	143.236E-3	-17.2790E-3	-8.61115E-12	133.665E-3	-23.9106E-3
-632.816E-6	-8.45632E-12	138.782E-3	-9.03500E-3	-8.63890E-12	134.451E-3	-20.3440E-3
-637.819E-6	-8.50144E-12	136.522E-3	-12.6871E-3	-8.55077E-12	129.774E-3	-18.0282E-3
-642.821E-6	-8.58384E-12	137.605E-3	-16.0975E-3	-8.66705E-12	117.774E-3	-13.8141E-3
-647.824E-6	-8.59768E-12	141.519E-3	-15.9394E-3	-8.78517E-12	109.181E-3	-14.7234E-3
-652.826E-6	-8.73048E-12	142.414E-3	-8.94321E-3	-8.84583E-12	103.205E-3	-21.1780E-3
-657.829E-6	-8.66399E-12	132.890E-3	-637.687E-6	-8.75975E-12	103.129E-3	-29.9842E-3
-662.831E-6	-8.76729E-12	116.333E-3	-180.603E-6	-8.78278E-12	111.882E-3	-38.5425E-3
-667.834E-6	-8.88142E-12	102.151E-3	-4.33080E-3	-8.96260E-12	115.036E-3	-29.5995E-3
-672.836E-6	-8.93340E-12	98.8491E-3	-11.6806E-3	-8.93929E-12	107.693E-3	-14.2401E-3
-677.839E-6	-8.91553E-12	101.034E-3	-24.1349E-3	-8.91996E-12	103.232E-3	-17.8149E-3
-682.841E-6	-8.98550E-12	102.155E-3	-28.2582E-3	-8.95216E-12	104.373E-3	-25.6105E-3
-687.844E-6	-9.16113E-12	101.961E-3	-11.2987E-3	-9.05573E-12	96.4834E-3	-23.6383E-3
-692.846E-6	-9.17849E-12	98.1983E-3	-3.31805E-3	-9.06257E-12	83.6275E-3	-20.2997E-3
-697.849E-6	-9.09580E-12	92.8214E-3	-14.4767E-3	-9.06818E-12	83.9154E-3	-27.5055E-3
-702.851E-6	-9.14498E-12	84.8129E-3	-16.4819E-3	-9.07579E-12	88.0027E-3	-39.3087E-3
-707.854E-6	-9.32165E-12	80.2067E-3	-12.5190E-3	-9.17233E-12	86.0303E-3	-38.6577E-3
-712.856E-6	-9.31267E-12	86.5257E-3	-18.3472E-3	-9.15337E-12	88.6641E-3	-28.0981E-3
-717.859E-6	-9.24277E-12	86.6050E-3	-24.1748E-3	-9.21832E-12	87.8683E-3	-20.1894E-3
-722.861E-6	-9.21962E-12	82.6119E-3	-30.3284E-3	-9.28082E-12	78.1058E-3	-18.0332E-3
-727.864E-6	-9.27753E-12	93.7113E-3	-40.6913E-3	-9.29006E-12	75.1041E-3	-14.5463E-3
-732.866E-6	-9.26590E-12	97.5436E-3	-37.8885E-3	-9.26054E-12	72.3068E-3	-12.9948E-3
-737.869E-6	-9.22957E-12	84.2343E-3	-15.4679E-3	-9.32678E-12	64.5787E-3	-14.7220E-3
-742.871E-6	-9.23575E-12	78.9967E-3	4.72359E-3	-9.43661E-12	69.2402E-3	-13.7519E-3
-747.874E-6	-9.30682E-12	90.3043E-3	5.83547E-3	-9.44726E-12	79.0629E-3	-8.84743E-3
-752.876E-6	-9.39010E-12	93.2619E-3	-8.89172E-3	-9.36640E-12	79.5712E-3	-5.08858E-3
-757.879E-6	-9.41492E-12	75.7491E-3	-20.7832E-3	-9.42870E-12	71.8438E-3	-7.21875E-3
-762.881E-6	-9.42202E-12	63.8866E-3	-15.6381E-3	-9.57079E-12	56.6130E-3	-7.67372E-3
-767.884E-6	-9.61634E-12	67.3450E-3	-10.8339E-3	-9.63487E-12	51.5621E-3	-6.18702E-3
-772.886E-6	-9.66015E-12	79.7957E-3	-24.3133E-3	-9.58077E-12	59.0494E-3	-13.0747E-3
-777.889E-6	-9.77236E-12	80.4746E-3	-34.6465E-3	-9.53181E-12	58.5863E-3	-19.0993E-3
-782.891E-6	-9.85617E-12	65.3967E-3	-31.0836E-3	-9.64353E-12	50.8188E-3	-19.3330E-3
-787.894E-6	-9.89151E-12	59.6085E-3	-28.5531E-3	-9.69456E-12	56.0982E-3	-23.9553E-3
-792.896E-6	-9.92250E-12	69.8508E-3	-21.2544E-3	-9.65624E-12	79.1343E-3	-22.4869E-3
-797.899E-6	-9.95580E-12	81.0991E-3	-12.4773E-3	-9.60892E-12	91.7297E-3	-14.4167E-3
-802.901E-6	-9.88375E-12	88.1282E-3	-13.0206E-3	-9.70515E-12	88.3573E-3	-18.6256E-3
-807.904E-6	-9.85855E-12	87.5372E-3	-10.2616E-3	-9.73684E-12	84.9581E-3	-26.0952E-3
-812.906E-6	-9.68126E-12	76.6525E-3	235.212E-6	-9.69148E-12	71.7677E-3	-30.2208E-3
-817.909E-6	-9.68326E-12	75.3750E-3	-5.40475E-3	-9.67594E-12	59.1964E-3	-36.8313E-3
-822.911E-6	-9.67627E-12	82.8217E-3	-18.6644E-3	-9.85797E-12	70.6102E-3	-26.4586E-3
-827.914E-6	-9.62020E-12	81.9098E-3	-21.9623E-3	-9.91187E-12	81.6267E-3	-11.7490E-3
-832.916E-6	-9.49709E-12	81.2439E-3	-20.9287E-3	-9.90616E-12	70.2238E-3	-11.2221E-3
-837.919E-6	-9.49584E-12	80.6249E-3	-15.4199E-3	-9.87778E-12	58.5662E-3	-22.7457E-3
-842.921E-6	-9.58024E-12	65.4133E-3	-11.7197E-3	-9.92549E-12	64.6998E-3	-27.7711E-3
-847.924E-6	-9.65492E-12	48.6489E-3	-13.9113E-3	-9.85496E-12	77.1029E-3	-12.2678E-3
-852.926E-6	-9.57412E-12	49.4894E-3	-15.2685E-3	-9.90965E-12	75.1227E-3	935.756E-6
-857.929E-6	-9.71151E-12	62.4866E-3	-6.79406E-3	-10.0784E-12	65.0967E-3	5.02048E-3
-862.931E-6	-9.97808E-12	70.1927E-3	2.46140E-3	-9.99113E-12	66.6637E-3	1.35560E-3
-867.934E-6	-10.0894E-12	70.1831E-3	-1.01676E-3	-9.98414E-12	82.6493E-3	-5.87401E-3
-872.936E-6	-10.2159E-12	67.7749E-3	-16.3233E-3	-10.0319E-12	91.9815E-3	-8.34895E-3
-877.939E-6	-10.2979E-12	59.0761E-3	-32.7794E-3	-10.1874E-12	84.7800E-3	-16.3293E-3
-882.941E-6	-10.4727E-12	58.2979E-3	-34.6580E-3	-10.2150E-12	77.8977E-3	-24.9390E-3
-887.944E-6	-10.5314E-12	69.5848E-3	-24.1042E-3	-10.0999E-12	79.6823E-3	-21.1084E-3
-892.946E-6	-10.5762E-12	69.4871E-3	-22.3712E-3	-10.1502E-12	86.0148E-3	-11.7130E-3
-897.949E-6	-10.5137E-12	75.3171E-3	-20.7663E-3	-10.2603E-12	87.4009E-3	-12.5103E-3
-902.951E-6	-10.5016E-12	95.5767E-3	-11.4813E-3	-10.3098E-12	83.3197E-3	-21.1857E-3
-907.954E-6	-10.4479E-12	96.1147E-3	-10.8752E-3	-10.2723E-12	81.7210E-3	-22.9914E-3
-912.956E-6	-10.4188E-12	79.8340E-3	-19.0762E-3	-10.2417E-12	85.0896E-3	-19.4309E-3
-917.959E-6	-10.3724E-12	68.1819E-3	-27.5211E-3	-10.4032E-12	85.8357E-3	-18.2982E-3
-922.961E-6	-10.2195E-12	61.8357E-3	-31.6710E-3	-10.4540E-12	88.4907E-3	-16.9932E-3
-927.964E-6	-10.1109E-12	66.6391E-3	-24.7912E-3	-10.3882E-12	95.0071E-3	-17.1974E-3
-932.966E-6	-10.1049E-12	77.5557E-3	-11.8203E-3	-10.3060E-12	94.2189E-3	-25.0709E-3
-937.969E-6	-10.1753E-12	85.7255E-3	-20.5361E-3	-10.4151E-12	97.4937E-3	-26.2933E-3
-942.971E-6	-10.2406E-12	99.8650E-3	-37.4810E-3	-10.5409E-12	104.654E-3	-21.8564E-3
-947.974E-6	-10.2100E-12	106.856E-3	-33.2616E-3	-10.4559E-12	100.774E-3	-19.7203E-3
-952.976E-6	-10.4022E-12	95.6401E-3	-26.7405E-3	-10.4415E-12	98.3840E-3	-5.96065E-3
-957.979E-6	-10.5143E-12	88.3025E-3	-19.2757E-3	-10.5512E-12	111.083E-3	1.41777E-3
-962.981E-6	-10.6438E-12	92.2819E-3	-4.75432E-3	-10.6230E-12	126.544E-3	-16.2514E-3
-967.984E-6	-10.7360E-12	99.9856E-3	-3.84739E-3	-10.7142E-12	128.117E-3	-34.4021E-3
-972.986E-6	-10.9002E-12	108.987E-3	-12.9841E-3	-10.7931E-12	120.017E-3	-32.0471E-3
-977.989E-6	-11.0606E-12	107.007E-3	-11.5878E-3	-10.7919E-12	117.431E-3	-14.3798E-3
-982.991E-6	-11.1216E-12	106.623E-3	-7.16455E-3	-10.8269E-12	126.343E-3	-4.61581E-3
-987.994E-6	-11.1109E-12	124.730E-3	-7.48822E-3	-10.9214E-12	137.635E-3	-12.4986E-3
-992.997E-6	-11.1097E-12	133.530E-3	-4.04749E-3	-11.0009E-12	143.623E-3	-20.1532E-3
-997.999E-6	-11.1933E-12	125.104E-3	-10.6769E-3	-10.9994E-12	152.268E-3	-16.7217E-3
-1.00300E-3	-11.1345E-12	126.745E-3	-27.7615E-3	-10.9812E-12	170.138E-3	-13.7120E-3
-1.00800E-3	-11.0616E-12	139.810E-3	-24.6709E-3	-11.1013E-12	176.552E-3	-13.5605E-3
-1.01301E-3	-10.9374E-12	145.843E-3	-9.09645E-3	-11.1884E-12	168.535E-3	-9.90686E-3
-1.01801E-3	-11.0054E-12	150.430E-3	-15.0950E-3	-11.1101E-12	169.216E-3	-8.28233E-3
-1.02301E-3	-10.9962E-12	156.918E-3	-36.5340E-3	-11.1277E-12	180.458E-3	-25.9988E-3
-1.02801E-3	-11.0248E-12	156.401E-3	-47.8455E-3	-11.1344E-12	187.431E-3	-43.4200E-3
-1.03302E-3	-10.9906E-12	169.409E-3	-48.3248E-3	-11.2682E-12	195.568E-3	-29.1069E-3
-1.03802E-3	-11.0335E-12	180.980E-3	-31.0287E-3	-11.2593E-12	201.344E-3	-6.33592E-3
-1.04302E-3	-11.1662E-12	173.010E-3	-9.16858E-3	-11.2191E-12	196.209E-3	2.37694E-3
-1.04802E-3	-11.3289E-12	184.040E-3	-15.2832E-3	-11.3011E-12	202.695E-3	-3.06123E-3
-1.05303E-3	-11.4003E-12	207.818E-3	-25.8806E-3	-11.5215E-12	225.205E-3	-14.3216E-3
-1.05803E-3	-11.5649E-12	210.360E-3	-23.8983E-3	-11.6222E-12	242.587E-3	-12.9854E-3
-1.06303E-3	-11.6912E-12	204.637E-3	-31.7604E-3	-11.6118E-12	248.069E-3	-3.24387E-3
-1.06803E-3	-11.7891E-12	206.164E-3	-33.3327E-3	-11.7483E-12	251.662E-3	-5.97625E-3
-1.07304E-3	-12.0114E-12	207.392E-3	-18.3141E-3	-11.9276E-12	263.006E-3	-16.7801E-3
-1.07804E-3	-12.1046E-12	212.581E-3	-15.9640E-3	-12.0525E-12	272.572E-3	-18.7392E-3
-1.08304E-3	-12.0897E-12	234.343E-3	-21.0779E-3	-12.1112E-12	269.540E-3	-19.2827E-3
-1.08804E-3	-12.1802E-12	254.046E-3	-20.1632E-3	-12.2113E-12	268.828E-3	-24.9810E-3
-1.09305E-3	-12.2887E-12	259.453E-3	-29.5711E-3	-12.3129E-12	288.152E-3	-25.5747E-3
-1.09805E-3	-12.4197E-12	268.940E-3	-41.9459E-3	-12.4502E-12	312.323E-3	-27.4643E-3
-1.10305E-3	-12.3657E-12	272.136E-3	-45.2889E-3	-12.5191E-12	330.107E-3	-31.2515E-3
-1.10805E-3	-12.4283E-12	265.706E-3	-40.7493E-3	-12.6807E-12	340.572E-3	-21.3914E-3
-1.11306E-3	-12.5463E-12	272.633E-3	-21.1394E-3	-12.7007E-12	344.239E-3	-12.8587E-3
-1.11806E-3	-12.7019E-12	288.696E-3	-4.22820E-3	-12.6755E-12	354.183E-3	-12.1295E-3
-1.12306E-3	-12.7493E-12	298.761E-3	-11.6217E-3	-12.7398E-12	365.765E-3	-13.9761E-3
-1.12806E-3	-12.8772E-12	306.448E-3	-24.7397E-3	-12.9380E-12	376.438E-3	-21.5336E-3
-1.13307E-3	-13.0342E-12	309.523E-3	-28.1910E-3	-12.9860E-12	385.130E-3	-23.2882E-3
-1.13807E-3	-13.2303E-12	314.940E-3	-24.9003E-3	-13.0191E-12	392.557E-3	-17.4484E-3
-1.14307E-3	-13.3415E-12	340.970E-3	-7.67349E-3	-13.1675E-12	407.970E-3	-13.2052E-3
-1.14807E-3	-13.4123E-12	366.994E-3	8.61339E-3	-13.3447E-12	423.103E-3	-26.2387E-3
-1.15308E-3	-13.5437E-12	373.309E-3	-10.0941E-3	-13.5510E-12	431.222E-3	-34.1589E-3
-1.15808E-3	-13.6931E-12	387.053E-3	-31.1465E-3	-13.6770E-12	443.413E-3	-21.8910E-3
-1.16308E-3	-13.8624E-12	414.129E-3	-19.4787E-3	-13.8455E-12	472.674E-3	-18.0198E-3
-1.16808E-3	-14.0654E-12	429.826E-3	-21.8949E-3	-14.1109E-12	499.850E-3	-20.3811E-3
-1.17309E-3	-14.2152E-12	429.928E-3	-41.5648E-3	-14.3516E-12	513.939E-3	-24.3434E-3
-1.17809E-3	-14.3968E-12	427.651E-3	-37.7660E-3	-14.5024E-12	523.546E-3	-34.3829E-3
-1.18309E-3	-14.4978E-12	444.790E-3	-26.7766E-3	-14.6367E-12	536.309E-3	-38.0055E-3
-1.18809E-3	-14.6649E-12	480.503E-3	-21.5761E-3	-14.8567E-12	556.121E-3	-17.6654E-3
-1.19310E-3	-14.9548E-12	506.216E-3	-11.1938E-3	-15.0871E-12	569.940E-3	7.12809E-3
-1.19810E-3	-15.1387E-12	516.698E-3	-9.57113E-3	-15.2722E-12	572.139E-3	7.20311E-3
-1.20310E-3	-15.2638E-12	534.483E-3	-18.5203E-3	-15.3487E-12	587.988E-3	-2.92725E-3
-1.20810E-3	-15.6201E-12	554.487E-3	-12.0570E-3	-15.4811E-12	618.699E-3	-10.3449E-3
-1.21311E-3	-15.8351E-12	566.920E-3	591.614E-6	-15.6710E-12	635.543E-3	-16.2721E-3
-1.21811E-3	-16.0479E-12	590.352E-3	1.38897E-3	-15.9024E-12	646.710E-3	-14.4431E-3
-1.22311E-3	-16.2093E-12	616.763E-3	4.92165E-3	-16.1013E-12	663.622E-3	-12.8224E-3
-1.22811E-3	-16.4277E-12	619.207E-3	-5.23030E-3	-16.2613E-12	678.769E-3	-15.3947E-3
-1.23312E-3	-16.6808E-12	617.827E-3	-37.1382E-3	-16.4586E-12	697.433E-3	-9.60557E-3
-1.23812E-3	-16.8016E-12	635.630E-3	-47.3723E-3	-16.7506E-12	720.521E-3	-4.37028E-3
-1.24312E-3	-16.8352E-12	658.496E-3	-35.8670E-3	-16.9435E-12	738.054E-3	-6.70162E-3
-1.24812E-3	-17.0143E-12	675.764E-3	-36.7319E-3	-17.1419E-12	755.976E-3	-11.1757E-3
-1.25313E-3	-17.1582E-12	689.846E-3	-37.4878E-3	-17.2655E-12	773.004E-3	-15.9941E-3
-1.25813E-3	-17.2733E-12	707.695E-3	-28.5725E-3	-17.6565E-12	791.050E-3	-14.3905E-3
-1.26313E-3	-17.3661E-12	736.286E-3	-19.1522E-3	-18.0149E-12	821.541E-3	-4.84582E-3
-1.26813E-3	-17.6348E-12	756.164E-3	-6.79661E-3	-18.1452E-12	846.750E-3	-906.703E-6
-1.27314E-3	-17.9357E-12	756.257E-3	-5.17417E-3	-18.4191E-12	850.840E-3	-334.438E-6
-1.27814E-3	-18.2139E-12	763.789E-3	-16.6892E-3	-18.6304E-12	857.502E-3	1.30073E-3
-1.28314E-3	-18.4994E-12	782.026E-3	-20.0955E-3	-19.0011E-12	876.731E-3	-1.73483E-3
-1.28814E-3	-18.9060E-12	797.001E-3	-14.7635E-3	-19.2300E-12	903.708E-3	-1.63943E-3
-1.29315E-3	-19.3589E-12	819.495E-3	-16.8128E-3	-19.5484E-12	931.179E-3	-1.01888E-3
-1.29815E-3	-19.8709E-12	842.065E-3	-20.4800E-3	-19.7840E-12	938.260E-3	-15.6993E-3
-1.30315E-3	-20.2314E-12	854.433E-3	-17.3270E-3	-20.1500E-12	934.746E-3	-28.1886E-3
-1.30815E-3	-20.7593E-12	881.085E-3	-19.0298E-3	-20.4980E-12	947.177E-3	-24.8398E-3
-1.31316E-3	-21.2408E-12	913.610E-3	-22.9885E-3	-20.8008E-12	970.087E-3	-17.3577E-3
-1.31816E-3	-21.6622E-12	925.706E-3	-23.1452E-3	-21.0814E-12	976.411E-3	-10.7982E-3
-1.32316E-3	-21.9755E-12	933.175E-3	-26.3688E-3	-21.4166E-12	983.918E-3	-6.32779E-3
-1.32816E-3	-22.2245E-12	960.307E-3	-28.4596E-3	-21.7939E-12	1.01252E+0	-4.64607E-3
-1.33317E-3	-22.4606E-12	983.647E-3	-33.1182E-3	-22.2036E-12	1.03843E+0	-6.46862E-3
-1.33817E-3	-22.6305E-12	990.661E-3	-38.2086E-3	-22.5509E-12	1.06166E+0	-6.05507E-3
-1.34317E-3	-22.7054E-12	1.00732E+0	-27.2848E-3	-22.7276E-12	1.08070E+0	-10.6074E-3
-1.34817E-3	-22.8110E-12	1.01947E+0	-7.87494E-3	-22.9617E-12	1.08129E+0	-20.7383E-3
-1.35318E-3	-22.8119E-12	1.01697E+0	-12.8992E-3	-23.3276E-12	1.08161E+0	-25.9522E-3
-1.35818E-3	-22.9931E-12	1.01907E+0	-26.2465E-3	-23.7205E-12	1.09303E+0	-30.6816E-3
-1.36318E-3	-23.4298E-12	1.02441E+0	-18.7928E-3	-23.9788E-12	1.10409E+0	-27.6346E-3
-1.36818E-3	-23.8361E-12	1.03663E+0	-16.6135E-3	-24.1628E-12	1.11427E+0	-13.1914E-3
-1.37319E-3	-24.1010E-12	1.06520E+0	-17.8375E-3	-24.6555E-12	1.12612E+0	-7.88714E-3
-1.37819E-3	-24.6050E-12	1.08253E+0	-17.9741E-3	-25.1346E-12	1.12924E+0	-20.5238E-3
-1.38319E-3	-25.3197E-12	1.07924E+0	-28.0943E-3	-25.4083E-12	1.13075E+0	-28.8000E-3
-1.38819E-3	-26.0271E-12	1.08852E+0	-31.6097E-3	-25.7232E-12	1.14806E+0	-18.2273E-3
-1.39320E-3	-26.6194E-12	1.11689E+0	-26.0644E-3	-26.3797E-12	1.16477E+0	-12.8790E-3
-1.39820E-3	-27.0586E-12	1.14638E+0	-16.3309E-3	-26.8618E-12	1.15970E+0	-23.0717E-3
-1.40320E-3	-27.7960E-12	1.17157E+0	-4.27278E-3	-27.3300E-12	1.16065E+0	-30.2214E-3
-1.40820E-3	-28.4662E-12	1.18017E+0	4.12326E-3	-27.7137E-12	1.18359E+0	-30.0648E-3
-1.41321E-3	-28.8879E-12	1.18156E+0	390.930E-6	-28.2495E-12	1.20259E+0	-29.6881E-3
-1.41821E-3	-29.0838E-12	1.20178E+0	-10.3281E-3	-28.7590E-12	1.21235E+0	-25.8002E-3
-1.42321E-3	-29.3809E-12	1.21730E+0	-16.1582E-3	-29.0861E-12	1.21670E+0	-16.9065E-3
-1.42821E-3	-29.5664E-12	1.22063E+0	-25.7597E-3	-29.4565E-12	1.21397E+0	-7.97491E-3
-1.43322E-3	-29.8281E-12	1.23302E+0	-29.6208E-3	-29.9005E-12	1.21490E+0	-5.10232E-3
-1.43822E-3	-29.7275E-12	1.22254E+0	-30.9160E-3	-30.2153E-12	1.22185E+0	-10.8885E-3
-1.44322E-3	-29.7478E-12	1.18420E+0	-45.7482E-3	-30.4232E-12	1.23165E+0	-10.1560E-3
-1.44822E-3	-29.9351E-12	1.17629E+0	-38.1916E-3	-30.7308E-12	1.23902E+0	-2.19487E-3
-1.45323E-3	-30.0339E-12	1.18812E+0	-4.68663E-3	-31.0846E-12	1.23423E+0	-10.9692E-3
-1.45823E-3	-30.4683E-12	1.18769E+0	-3.28838E-3	-31.3967E-12	1.22319E+0	-22.5826E-3
-1.46323E-3	-30.8441E-12	1.19626E+0	-26.5711E-3	-31.6450E-12	1.22222E+0	-20.1174E-3
-1.46823E-3	-31.4086E-12	1.19571E+0	-19.8021E-3	-32.0027E-12	1.22894E+0	-21.7224E-3
-1.47324E-3	-31.9585E-12	1.18140E+0	-6.53982E-3	-32.5372E-12	1.23186E+0	-22.5613E-3
-1.47824E-3	-32.6847E-12	1.19338E+0	-15.1592E-3	-32.8036E-12	1.22647E+0	-15.7806E-3
-1.48324E-3	-33.3927E-12	1.21003E+0	-31.9644E-3	-33.1793E-12	1.22250E+0	-20.7393E-3
-1.48824E-3	-34.1090E-12	1.21634E+0	-42.0165E-3	-33.7221E-12	1.23047E+0	-28.4127E-3
-1.49325E-3	-34.6860E-12	1.23151E+0	-31.1065E-3	-34.1661E-12	1.24078E+0	-28.0118E-3
-1.49825E-3	-35.5560E-12	1.24300E+0	-19.8289E-3	-34.6829E-12	1.24396E+0	-23.6877E-3
-1.50325E-3	-36.2027E-12	1.25127E+0	-20.7979E-3	-35.2483E-12	1.24000E+0	-18.5399E-3
-1.50825E-3	-36.3305E-12	1.27520E+0	-11.6277E-3	-35.8123E-12	1.23465E+0	-14.3343E-3
-1.51326E-3	-36.5990E-12	1.27880E+0	1.50262E-3	-36.2877E-12	1.22703E+0	-18.9851E-3
-1.51826E-3	-36.9827E-12	1.25046E+0	-3.63746E-3	-36.6771E-12	1.22401E+0	-25.5306E-3
-1.52326E-3	-37.4607E-12	1.24504E+0	-20.6213E-3	-37.0649E-12	1.22982E+0	-20.8608E-3
-1.52826E-3	-37.2908E-12	1.25746E+0	-16.2481E-3	-37.5440E-12	1.23142E+0	-22.6740E-3
-1.53327E-3	-37.4218E-12	1.24924E+0	-7.20340E-3	-37.9789E-12	1.22704E+0	-21.1115E-3
-1.53827E-3	-37.5782E-12	1.24805E+0	-20.0100E-3	-38.1406E-12	1.21943E+0	-13.7412E-3
-1.54327E-3	-37.9817E-12	1.24353E+0	-18.4935E-3	-38.6350E-12	1.20524E+0	-19.8621E-3
-1.54827E-3	-38.2748E-12	1.20502E+0	-830.130E-6	-38.9936E-12	1.18931E+0	-18.7399E-3
-1.55328E-3	-38.3374E-12	1.18529E+0	5.26184E-3	-39.0892E-12	1.18259E+0	-9.18080E-3
-1.55828E-3	-38.7836E-12	1.18667E+0	-2.05675E-3	-39.2712E-12	1.18481E+0	-21.7731E-3
-1.56328E-3	-39.4737E-12	1.17432E+0	-24.2123E-3	-39.5717E-12	1.18120E+0	-33.1931E-3
-1.56828E-3	-40.2058E-12	1.17473E+0	-43.4465E-3	-39.9955E-12	1.16247E+0	-21.1969E-3
-1.57329E-3	-40.5433E-12	1.19059E+0	-35.1496E-3	-40.2584E-12	1.15762E+0	-5.36279E-3
-1.57829E-3	-41.1163E-12	1.18786E+0	-14.5122E-3	-40.6865E-12	1.16650E+0	4.81737E-3
-1.58329E-3	-41.6134E-12	1.17255E+0	-11.4619E-3	-41.2034E-12	1.16959E+0	2.35680E-3
-1.58829E-3	-42.1985E-12	1.16689E+0	-11.3715E-3	-41.9348E-12	1.17512E+0	-13.6159E-3
-1.59330E-3	-42.6114E-12	1.16401E+0	-14.8303E-3	-42.0499E-12	1.16754E+0	-24.6305E-3
-1.59830E-3	-42.9655E-12	1.16541E+0	-40.4957E-3	-42.5215E-12	1.16122E+0	-16.5029E-3
-1.60330E-3	-43.1894E-12	1.17517E+0	-37.9016E-3	-43.0050E-12	1.16302E+0	-1.77729E-3
-1.60830E-3	-43.6211E-12	1.16896E+0	-12.4186E-3	-43.4651E-12	1.14524E+0	4.63586E-3
-1.61331E-3	-43.9136E-12	1.16676E+0	-25.8336E-3	-43.8415E-12	1.12852E+0	-4.46713E-3
-1.61831E-3	-44.3147E-12	1.17207E+0	-38.0944E-3	-44.3372E-12	1.13872E+0	-23.7936E-3
-1.62331E-3	-44.5240E-12	1.15248E+0	-22.4183E-3	-44.6013E-12	1.14761E+0	-28.4617E-3
-1.62831E-3	-44.6301E-12	1.12540E+0	-13.4561E-3	-45.0774E-12	1.13720E+0	-21.1368E-3
-1.63332E-3	-45.3205E-12	1.10853E+0	-1.30124E-3	-45.5486E-12	1.12715E+0	-19.6131E-3
-1.63832E-3	-45.7874E-12	1.10520E+0	4.83892E-3	-45.7057E-12	1.11428E+0	-15.7728E-3
-1.64332E-3	-46.1742E-12	1.10929E+0	-9.19048E-3	-46.1635E-12	1.09634E+0	-8.52338E-3
-1.64832E-3	-46.2890E-12	1.11268E+0	-11.4946E-3	-46.2178E-12	1.08826E+0	-11.9078E-3
-1.65333E-3	-46.8610E-12	1.10981E+0	-6.26276E-3	-46.5376E-12	1.08065E+0	-26.6439E-3
-1.65833E-3	-47.3160E-12	1.09887E+0	-22.9195E-3	-47.1189E-12	1.06459E+0	-25.9886E-3
-1.66333E-3	-47.6478E-12	1.08909E+0	-33.5622E-3	-47.4066E-12	1.06087E+0	-12.8969E-3
-1.66833E-3	-47.6479E-12	1.08441E+0	-18.9369E-3	-47.6544E-12	1.06894E+0	-16.6034E-3
-1.67334E-3	-47.9094E-12	1.08641E+0	-15.5568E-3	-48.0205E-12	1.06784E+0	-13.7733E-3
-1.67834E-3	-47.9677E-12	1.08486E+0	-17.7641E-3	-48.4050E-12	1.06062E+0	-446.141E-6
-1.68334E-3	-48.0971E-12	1.06855E+0	-7.13896E-3	-48.7266E-12	1.05094E+0	-9.64921E-3
-1.68834E-3	-48.4980E-12	1.04839E+0	-9.44127E-3	-49.1191E-12	1.02968E+0	-27.1985E-3
-1.69335E-3	-48.6171E-12	1.03934E+0	-15.7244E-3	-49.2735E-12	1.02143E+0	-29.0924E-3
-1.69835E-3	-48.9748E-12	1.03521E+0	-3.19188E-3	-49.5659E-12	1.02866E+0	-9.74979E-3
-1.70335E-3	-49.3917E-12	1.02464E+0	5.02120E-3	-49.9628E-12	1.02094E+0	9.45472E-3
-1.70835E-3	-49.9277E-12	1.02022E+0	-3.35052E-3	-50.4847E-12	1.01951E+0	8.85228E-3
-1.71336E-3	-50.2992E-12	1.02002E+0	-20.4553E-3	-50.9847E-12	1.02283E+0	3.67892E-3
-1.71836E-3	-50.8607E-12	1.01336E+0	-35.7209E-3	-51.3523E-12	1.01402E+0	-2.78523E-3
-1.72336E-3	-51.9207E-12	1.01530E+0	-37.5283E-3	-52.0198E-12	1.01056E+0	-11.8636E-3
-1.72836E-3	-52.6538E-12	1.01940E+0	-27.4814E-3	-52.3211E-12	1.01258E+0	-22.1554E-3
-1.73337E-3	-53.3663E-12	1.00860E+0	-7.59716E-3	-52.7055E-12	1.01402E+0	-20.8873E-3
-1.73837E-3	-53.8337E-12	1.01039E+0	7.87988E-3	-53.2752E-12	1.01354E+0	-7.80983E-3
-1.74337E-3	-54.5977E-12	1.01948E+0	3.56971E-3	-53.8822E-12	1.00757E+0	-8.20329E-3
-1.74837E-3	-54.9094E-12	1.01954E+0	-14.1277E-3	-53.9128E-12	1.00105E+0	-13.6943E-3
-1.75338E-3	-55.2776E-12	1.03535E+0	-31.1035E-3	-54.0455E-12	1.00046E+0	-11.9085E-3
-1.75838E-3	-55.1925E-12	1.04270E+0	-25.0754E-3	-54.4891E-12	997.432E-3	-13.1270E-3
-1.76338E-3	-54.9616E-12	1.02887E+0	-8.60598E-3	-55.1124E-12	977.356E-3	-18.9658E-3
-1.76838E-3	-54.6596E-12	1.02661E+0	-11.6295E-3	-55.2868E-12	953.058E-3	-16.4395E-3
-1.77339E-3	-54.4295E-12	1.01823E+0	-13.5859E-3	-55.1472E-12	949.229E-3	-16.0399E-3
-1.77839E-3	-54.1843E-12	984.618E-3	-8.49074E-3	-55.4064E-12	951.380E-3	-23.0111E-3
-1.78339E-3	-54.0838E-12	962.379E-3	-7.07687E-3	-55.9687E-12	947.382E-3	-14.1383E-3
-1.78839E-3	-54.1544E-12	952.234E-3	-7.57655E-3	-56.0562E-12	943.705E-3	-5.94636E-3
-1.79340E-3	-54.3588E-12	934.903E-3	-27.6521E-3	-56.2206E-12	933.668E-3	-14.5415E-3
-1.79840E-3	-54.8526E-12	926.560E-3	-48.1576E-3	-56.6721E-12	932.005E-3	-14.6708E-3
-1.80340E-3	-55.2992E-12	917.414E-3	-36.2741E-3	-56.9896E-12	945.631E-3	-3.34931E-3
-1.80840E-3	-55.8230E-12	897.033E-3	-18.8693E-3	-57.4409E-12	948.564E-3	-1.00285E-3
-1.81341E-3	-56.5681E-12	901.356E-3	-15.2211E-3	-57.6972E-12	924.442E-3	-478.804E-6
-1.81841E-3	-58.0638E-12	922.488E-3	-8.95309E-3	-58.4000E-12	899.464E-3	-904.000E-6
-1.82341E-3	-59.0186E-12	920.009E-3	-13.4837E-3	-58.7036E-12	895.293E-3	-14.8056E-3
-1.82841E-3	-59.6649E-12	926.318E-3	-32.0279E-3	-59.0507E-12	913.831E-3	-23.7910E-3
-1.83342E-3	-60.6798E-12	944.833E-3	-31.9002E-3	-59.4306E-12	941.723E-3	-18.3321E-3
-1.83842E-3	-61.4280E-12	938.448E-3	-16.9401E-3	-60.0904E-12	929.595E-3	-15.1869E-3
-1.84342E-3	-61.9052E-12	936.149E-3	-7.27038E-3	-60.2158E-12	897.582E-3	-12.7087E-3
-1.84842E-3	-61.6507E-12	944.671E-3	4.80594E-3	-60.3558E-12	892.299E-3	-623.247E-6
-1.85343E-3	-61.5676E-12	931.579E-3	11.5274E-3	-60.3228E-12	888.884E-3	899.379E-6
-1.85843E-3	-60.9556E-12	928.630E-3	5.57650E-3	-60.5613E-12	884.844E-3	-5.26962E-3
-1.86343E-3	-60.9567E-12	944.235E-3	394.270E-6	-60.9828E-12	888.501E-3	-1.91742E-3
-1.86843E-3	-60.4283E-12	934.152E-3	-9.70544E-3	-60.9081E-12	878.735E-3	-1.51079E-3
-1.87344E-3	-59.4054E-12	913.455E-3	-27.5932E-3	-61.1271E-12	862.750E-3	-2.05738E-3
-1.87844E-3	-59.3951E-12	904.045E-3	-26.5365E-3	-61.3756E-12	867.601E-3	-2.43287E-3
-1.88344E-3	-59.7863E-12	887.427E-3	-19.9617E-3	-61.3666E-12	879.514E-3	-7.06701E-3
-1.88844E-3	-59.9114E-12	861.609E-3	-21.1631E-3	-61.4647E-12	871.554E-3	-4.95797E-3
-1.89345E-3	-59.9810E-12	853.548E-3	-4.41802E-3	-61.7904E-12	865.197E-3	-4.49141E-3
-1.89845E-3	-60.6044E-12	853.071E-3	10.8395E-3	-61.9185E-12	869.929E-3	-17.7555E-3
-1.90345E-3	-61.3887E-12	851.217E-3	1.83235E-3	-62.1290E-12	870.042E-3	-24.9209E-3
-1.90845E-3	-62.5420E-12	865.611E-3	-8.84749E-3	-62.6537E-12	877.836E-3	-15.5540E-3
-1.91346E-3	-63.4772E-12	877.090E-3	-14.0644E-3	-63.4778E-12	879.863E-3	-9.28706E-3
-1.91846E-3	-64.5438E-12	873.428E-3	-25.3515E-3	-63.4235E-12	851.176E-3	-10.8991E-3
-1.92346E-3	-65.4015E-12	869.496E-3	-22.6772E-3	-63.5569E-12	822.862E-3	-14.3733E-3
-1.92846E-3	-65.9032E-12	865.070E-3	-9.34064E-3	-64.1900E-12	831.062E-3	-20.8579E-3
-1.93347E-3	-66.6829E-12	868.284E-3	-25.6108E-3	-64.7916E-12	847.777E-3	-27.6880E-3
-1.93847E-3	-67.1395E-12	886.511E-3	-37.8961E-3	-65.0162E-12	840.551E-3	-37.6496E-3
-1.94347E-3	-67.1653E-12	900.147E-3	-20.1172E-3	-65.1689E-12	832.421E-3	-50.2699E-3
-1.94847E-3	-67.0569E-12	898.651E-3	-17.1560E-3	-65.3275E-12	826.863E-3	-52.7175E-3
-1.95348E-3	-66.8791E-12	892.356E-3	-28.7171E-3	-65.8797E-12	819.291E-3	-40.0051E-3
-1.95848E-3	-66.7752E-12	872.432E-3	-24.9981E-3	-66.4236E-12	828.590E-3	-29.8153E-3
-1.96348E-3	-66.5275E-12	848.663E-3	-15.3769E-3	-66.5438E-12	835.691E-3	-23.4410E-3
-1.96848E-3	-66.2007E-12	844.296E-3	-7.30020E-3	-66.5177E-12	825.659E-3	-21.4910E-3
-1.97349E-3	-65.9967E-12	842.095E-3	194.126E-6	-66.8033E-12	827.620E-3	-29.5344E-3
-1.97849E-3	-65.9633E-12	835.821E-3	782.401E-6	-67.6108E-12	833.341E-3	-27.9905E-3
-1.98349E-3	-66.2660E-12	836.609E-3	-1.71371E-3	-67.5589E-12	833.153E-3	-22.6706E-3
-1.98849E-3	-66.4247E-12	831.813E-3	-6.43981E-3	-67.3298E-12	844.494E-3	-30.0652E-3
-1.99350E-3	-66.9205E-12	819.665E-3	-22.3235E-3	-67.4034E-12	847.851E-3	-27.8348E-3
-1.99850E-3	-67.3728E-12	819.438E-3	-28.5563E-3	-68.0807E-12	836.258E-3	-13.6936E-3
-2.00350E-3	-68.2272E-12	817.914E-3	-12.3075E-3	-68.2615E-12	827.690E-3	-19.7487E-3
-2.00850E-3	-68.7850E-12	813.391E-3	-10.8754E-3	-68.6632E-12	819.925E-3	-21.4210E-3
-2.01351E-3	-69.3591E-12	818.776E-3	-23.0317E-3	-68.9819E-12	812.554E-3	4.67325E-3
-2.01851E-3	-69.8836E-12	825.755E-3	-11.6288E-3	-69.3323E-12	814.666E-3	2.63812E-3
-2.02351E-3	-70.2613E-12	829.344E-3	-5.07860E-3	-69.8606E-12	818.078E-3	-17.3491E-3
-2.02851E-3	-71.3405E-12	836.399E-3	-26.2490E-3	-70.4699E-12	817.145E-3	-6.55008E-3
-2.03352E-3	-71.2307E-12	850.184E-3	-42.2896E-3	-70.9152E-12	821.550E-3	2.59354E-3
-2.03852E-3	-71.1937E-12	845.431E-3	-42.0833E-3	-70.8984E-12	822.828E-3	-5.53720E-3
-2.04352E-3	-71.2089E-12	829.786E-3	-26.1313E-3	-71.1195E-12	813.699E-3	-9.82240E-3
-2.04852E-3	-71.8960E-12	829.752E-3	-1.86523E-3	-71.8365E-12	803.764E-3	-8.75307E-3
-2.05353E-3	-71.5372E-12	832.613E-3	10.4379E-3	-72.1123E-12	801.452E-3	-15.0292E-3
-2.05853E-3	-71.6183E-12	833.641E-3	3.29622E-3	-72.3054E-12	819.482E-3	-29.5337E-3
-2.06353E-3	-71.6477E-12	834.021E-3	-3.06277E-3	-72.1874E-12	843.112E-3	-36.5338E-3
-2.06853E-3	-72.3811E-12	824.477E-3	1.68999E-3	-72.8603E-12	836.140E-3	-22.9188E-3
-2.07354E-3	-72.4083E-12	817.489E-3	5.34556E-3	-73.1067E-12	808.623E-3	-3.33646E-3
-2.07854E-3	-72.2639E-12	817.098E-3	8.20517E-3	-72.9637E-12	787.117E-3	-9.15317E-3
-2.08354E-3	-72.5614E-12	817.413E-3	-1.44577E-3	-72.8349E-12	782.805E-3	-19.3237E-3
-2.08854E-3	-73.0870E-12	823.520E-3	-26.9523E-3	-73.0118E-12	795.092E-3	-4.93072E-3
-2.09355E-3	-73.2323E-12	818.412E-3	-39.4539E-3	-73.6104E-12	801.975E-3	3.60569E-3
-2.09855E-3	-73.4455E-12	804.230E-3	-36.3143E-3	-73.6570E-12	797.161E-3	-9.85586E-3
-2.10355E-3	-73.0339E-12	804.355E-3	-24.9465E-3	-73.7772E-12	785.806E-3	-16.9577E-3
-2.10855E-3	-73.4153E-12	819.996E-3	-3.20523E-3	-73.9479E-12	782.467E-3	-19.1179E-3
-2.11356E-3	-74.1739E-12	817.840E-3	7.71629E-3	-74.4189E-12	787.424E-3	-27.2015E-3
-2.11856E-3	-74.0765E-12	796.598E-3	-1.95781E-3	-74.7334E-12	792.960E-3	-34.1926E-3
-2.12356E-3	-73.9413E-12	791.283E-3	-7.09953E-3	-75.3895E-12	798.631E-3	-38.5588E-3
-2.12856E-3	-74.9482E-12	796.018E-3	-2.99193E-3	-75.5375E-12	788.829E-3	-36.1783E-3
-2.13357E-3	-75.3632E-12	804.992E-3	-9.09513E-3	-76.0356E-12	780.306E-3	-19.4184E-3
-2.13857E-3	-75.6229E-12	813.324E-3	-17.0644E-3	-76.5717E-12	795.296E-3	-2.66909E-3
-2.14357E-3	-75.7620E-12	801.121E-3	-19.4452E-3	-76.8711E-12	801.750E-3	-6.89435E-3
-2.14857E-3	-76.1137E-12	789.158E-3	-23.4788E-3	-77.3287E-12	778.930E-3	79.1705E-6
-2.15358E-3	-76.8855E-12	791.133E-3	-15.8073E-3	-77.6196E-12	767.454E-3	26.5536E-3
-2.15858E-3	-77.2600E-12	789.886E-3	-14.9360E-3	-78.1891E-12	771.358E-3	8.25866E-3
-2.16358E-3	-78.3288E-12	787.444E-3	-35.8143E-3	-78.7735E-12	768.542E-3	-30.0347E-3
-2.16858E-3	-78.8423E-12	786.365E-3	-40.4285E-3	-79.0981E-12	781.012E-3	-17.8139E-3
-2.17359E-3	-79.0527E-12	778.452E-3	-28.0408E-3	-78.6414E-12	792.826E-3	2.91338E-3
-2.17859E-3	-79.0687E-12	777.685E-3	-17.8476E-3	-78.6482E-12	780.485E-3	-5.31465E-3
-2.18359E-3	-79.6180E-12	786.230E-3	-10.8191E-3	-78.9468E-12	776.638E-3	-9.78334E-3
-2.18859E-3	-79.7903E-12	778.716E-3	-7.53040E-3	-78.9713E-12	788.656E-3	-16.7263E-3
-2.19360E-3	-79.0815E-12	772.631E-3	-14.5660E-3	-78.7097E-12	781.984E-3	-31.0813E-3
-2.19860E-3	-78.5049E-12	772.530E-3	-26.3164E-3	-78.4756E-12	773.113E-3	-31.4468E-3
-2.20360E-3	-78.3531E-12	751.527E-3	-28.1126E-3	-79.0271E-12	780.563E-3	-39.2649E-3
-2.20860E-3	-78.4227E-12	742.833E-3	-35.3399E-3	-78.9378E-12	763.169E-3	-51.1713E-3
-2.21361E-3	-78.3107E-12	752.395E-3	-30.6726E-3	-78.9385E-12	750.235E-3	-32.0062E-3
-2.21861E-3	-77.9142E-12	747.047E-3	-7.62305E-3	-79.1100E-12	775.375E-3	-7.43446E-3
-2.22361E-3	-78.5242E-12	739.245E-3	-8.58271E-3	-79.8226E-12	775.030E-3	-67.3131E-6
-2.22861E-3	-79.0579E-12	743.241E-3	-18.0953E-3	-79.9228E-12	761.326E-3	-6.69332E-3
-2.23362E-3	-79.6014E-12	741.518E-3	-4.38545E-3	-80.7084E-12	762.993E-3	-29.9901E-3
-2.23862E-3	-79.6140E-12	732.755E-3	4.17427E-3	-81.3818E-12	765.994E-3	-32.7496E-3
-2.24362E-3	-80.6347E-12	744.038E-3	6.29510E-3	-81.6938E-12	775.944E-3	-11.8828E-3
-2.24862E-3	-81.7150E-12	749.790E-3	14.2166E-3	-82.2343E-12	772.414E-3	-11.6732E-3
-2.25363E-3	-82.5904E-12	742.423E-3	-2.02973E-3	-82.7571E-12	752.177E-3	-40.1595E-3
-2.25863E-3	-82.7424E-12	756.721E-3	-29.6807E-3	-83.2996E-12	750.341E-3	-52.0330E-3
-2.26363E-3	-83.2077E-12	767.530E-3	-28.3513E-3	-83.5544E-12	775.263E-3	-32.8565E-3
-2.26863E-3	-84.6197E-12	751.765E-3	-21.6881E-3	-83.9277E-12	781.183E-3	-16.5463E-3
-2.27364E-3	-85.0459E-12	749.904E-3	-20.1413E-3	-83.6083E-12	754.189E-3	-11.1887E-3
-2.27864E-3	-84.6690E-12	768.619E-3	-7.74012E-3	-83.6084E-12	744.797E-3	-19.6944E-3
-2.28364E-3	-84.0223E-12	769.554E-3	1.21929E-3	-83.8916E-12	757.586E-3	-30.5458E-3
-2.28864E-3	-83.9253E-12	761.504E-3	-7.30193E-3	-83.4762E-12	759.642E-3	-19.5121E-3
-2.29365E-3	-83.6771E-12	762.042E-3	-29.0922E-3	-83.2146E-12	754.314E-3	-9.68094E-3
-2.29865E-3	-82.9557E-12	765.038E-3	-40.2631E-3	-82.9035E-12	740.861E-3	-19.2256E-3
-2.30365E-3	-81.9873E-12	765.736E-3	-26.3534E-3	-83.3953E-12	735.329E-3	-13.1926E-3
-2.30865E-3	-81.9034E-12	749.591E-3	-2.19840E-3	-83.3153E-12	747.979E-3	-3.49247E-3
-2.31366E-3	-81.9648E-12	730.407E-3	-1.25080E-3	-83.5829E-12	747.397E-3	-10.2615E-3
-2.31866E-3	-82.0875E-12	752.247E-3	-16.7623E-3	-83.4711E-12	751.771E-3	-5.43114E-3
-2.32366E-3	-82.8137E-12	779.146E-3	-18.8441E-3	-84.4781E-12	774.837E-3	3.66479E-3
-2.32866E-3	-83.4428E-12	768.937E-3	-14.9662E-3	-84.8934E-12	765.029E-3	16.6625E-6
-2.33367E-3	-84.5247E-12	765.143E-3	-14.7062E-3	-85.4654E-12	727.548E-3	3.86351E-3
-2.33867E-3	-85.4233E-12	764.953E-3	-1.82815E-3	-86.3015E-12	726.371E-3	4.41701E-3
-2.34367E-3	-86.2426E-12	736.764E-3	13.3757E-3	-86.8096E-12	744.450E-3	-17.3045E-3
-2.34867E-3	-87.4423E-12	726.840E-3	3.19107E-3	-87.4835E-12	752.251E-3	-25.2320E-3
-2.35368E-3	-88.3984E-12	732.582E-3	-9.02427E-3	-87.9621E-12	773.925E-3	-11.9217E-3
-2.35868E-3	-89.4810E-12	720.948E-3	-16.0034E-3	-88.2086E-12	777.177E-3	-11.8080E-3
-2.36368E-3	-90.2278E-12	725.300E-3	-25.1948E-3	-88.5234E-12	764.027E-3	-18.1252E-3
-2.36868E-3	-90.2776E-12	762.160E-3	-17.5342E-3	-88.8820E-12	764.336E-3	-20.9894E-3
-2.37369E-3	-89.5856E-12	793.337E-3	-19.0787E-3	-88.8418E-12	749.068E-3	-28.5415E-3
-2.37869E-3	-89.4473E-12	781.110E-3	-33.4974E-3	-89.5039E-12	724.144E-3	-21.5954E-3
-2.38369E-3	-89.4742E-12	747.678E-3	-18.4808E-3	-88.9539E-12	727.793E-3	-9.01623E-3
-2.38869E-3	-88.5671E-12	731.487E-3	757.603E-6	-88.6904E-12	746.052E-3	-21.7261E-3
-2.39370E-3	-87.6237E-12	738.717E-3	-10.5257E-3	-88.9492E-12	741.585E-3	-31.9785E-3
-2.39870E-3	-87.3777E-12	747.655E-3	-17.7511E-3	-89.6254E-12	724.477E-3	-29.2260E-3
-2.40370E-3	-87.3231E-12	729.590E-3	-11.6494E-3	-89.3709E-12	720.305E-3	-33.5270E-3
-2.40870E-3	-86.7070E-12	716.226E-3	-22.6937E-3	-89.2087E-12	734.595E-3	-23.2553E-3
-2.41371E-3	-86.3857E-12	716.636E-3	-28.5822E-3	-90.0880E-12	753.168E-3	-9.11190E-3
-2.41871E-3	-87.2600E-12	708.791E-3	-21.2496E-3	-90.4928E-12	744.745E-3	-18.7705E-3
-2.42371E-3	-88.1097E-12	710.248E-3	-15.4392E-3	-90.9227E-12	713.996E-3	-19.4888E-3
-2.42871E-3	-88.6281E-12	714.282E-3	-2.00358E-3	-90.9224E-12	713.033E-3	-11.3371E-3
-2.43372E-3	-89.2377E-12	717.681E-3	-2.00751E-3	-91.4016E-12	741.345E-3	-10.1678E-3
-2.43872E-3	-90.6999E-12	725.501E-3	-17.8110E-3	-91.6888E-12	732.893E-3	1.38500E-3
-2.44372E-3	-91.9862E-12	727.728E-3	-19.8015E-3	-92.5741E-12	715.497E-3	1.32117E-3
-2.44872E-3	-92.5410E-12	719.899E-3	-14.2514E-3	-92.1721E-12	729.309E-3	-23.5039E-3
-2.45373E-3	-92.4399E-12	720.662E-3	-11.5300E-3	-92.5397E-12	728.181E-3	-37.1108E-3
-2.45873E-3	-93.3217E-12	745.417E-3	-9.74010E-3	-93.0320E-12	723.328E-3	-29.8866E-3
-2.46373E-3	-94.2302E-12	754.987E-3	-23.3949E-3	-92.9370E-12	724.941E-3	-29.4556E-3
-2.46873E-3	-94.1216E-12	745.447E-3	-37.1589E-3	-93.1721E-12	713.721E-3	-25.0449E-3
-2.47374E-3	-93.6735E-12	757.490E-3	-18.0856E-3	-93.4997E-12	716.186E-3	-7.37922E-3
-2.47874E-3	-93.0712E-12	770.239E-3	9.57541E-3	-93.9853E-12	732.797E-3	-5.78665E-3
-2.48374E-3	-93.5110E-12	754.093E-3	9.11105E-3	-94.2174E-12	734.091E-3	-11.8641E-3
-2.48874E-3	-93.2339E-12	744.268E-3	-694.885E-6	-94.4056E-12	732.153E-3	-10.0163E-3
-2.49375E-3	-92.9013E-12	736.352E-3	-138.349E-6	-94.5118E-12	754.048E-3	-18.8770E-3
-2.49875E-3	-92.6108E-12	725.038E-3	-7.10164E-3	-94.8706E-12	762.633E-3	-28.5949E-3
-2.50375E-3	-92.4991E-12	721.463E-3	-14.8307E-3	-94.8075E-12	742.170E-3	-26.8271E-3
-2.50875E-3	-92.6949E-12	704.182E-3	-14.4682E-3	-94.9208E-12	737.144E-3	-28.7120E-3
-2.51376E-3	-93.2170E-12	706.405E-3	-17.9708E-3	-95.1316E-12	743.097E-3	-19.7510E-3
-2.51876E-3	-93.6011E-12	724.294E-3	-18.8692E-3	-95.4849E-12	735.155E-3	-10.3168E-3
-2.52376E-3	-93.9525E-12	717.719E-3	-18.1364E-3	-95.0593E-12	722.403E-3	-18.7423E-3
-2.52876E-3	-94.4745E-12	712.129E-3	-35.9311E-3	-95.2074E-12	708.133E-3	-24.3641E-3
-2.53377E-3	-95.0350E-12	723.549E-3	-54.3010E-3	-95.0728E-12	706.401E-3	-25.7941E-3
-2.53877E-3	-96.1506E-12	732.074E-3	-34.2512E-3	-95.0499E-12	717.899E-3	-21.9089E-3
-2.54377E-3	-95.9572E-12	738.082E-3	-12.0680E-3	-95.2525E-12	705.373E-3	-9.61234E-3
-2.54877E-3	-96.4087E-12	740.897E-3	-14.6297E-3	-95.2656E-12	697.582E-3	-304.766E-6
-2.55378E-3	-96.8178E-12	725.106E-3	-2.53081E-3	-95.2523E-12	717.149E-3	-5.82050E-3
-2.55878E-3	-97.3401E-12	710.356E-3	635.236E-6	-96.2120E-12	727.008E-3	-20.6439E-3
-2.56378E-3	-97.4406E-12	724.634E-3	-18.0140E-3	-97.2178E-12	723.525E-3	-14.3243E-3
-2.56878E-3	-97.5929E-12	746.573E-3	-15.8562E-3	-97.1451E-12	725.682E-3	-18.4178E-3
-2.57379E-3	-97.6619E-12	749.262E-3	-10.7369E-3	-97.8843E-12	717.303E-3	-36.1550E-3
-2.57879E-3	-98.1172E-12	747.180E-3	-25.6290E-3	-99.0197E-12	704.127E-3	-26.4095E-3
-2.58379E-3	-98.4050E-12	744.932E-3	-35.0791E-3	-99.5128E-12	720.789E-3	-17.2101E-3
-2.58879E-3	-98.0510E-12	736.441E-3	-34.7381E-3	-100.441E-12	732.132E-3	-9.49477E-3
-2.59380E-3	-98.9399E-12	729.917E-3	-32.6386E-3	-100.181E-12	720.629E-3	-3.56124E-3
-2.59880E-3	-98.9260E-12	729.773E-3	-19.8440E-3	-100.598E-12	726.080E-3	-24.7369E-3
-2.60380E-3	-98.9743E-12	725.132E-3	-3.35412E-3	-100.570E-12	730.205E-3	-44.1987E-3
-2.60880E-3	-99.0027E-12	721.071E-3	-2.11806E-3	-100.487E-12	732.466E-3	-38.7425E-3
-2.61381E-3	-99.3543E-12	724.707E-3	-6.70755E-3	-99.4178E-12	742.584E-3	-35.2468E-3
-2.61881E-3	-99.8270E-12	718.277E-3	-9.22954E-3	-99.4465E-12	720.421E-3	-32.7899E-3
-2.62381E-3	-99.1548E-12	710.555E-3	-17.9618E-3	-99.5934E-12	690.349E-3	-12.9236E-3
-2.62881E-3	-99.2789E-12	713.585E-3	-15.1235E-3	-99.5519E-12	688.722E-3	-4.75662E-3
-2.63382E-3	-99.2097E-12	712.133E-3	-1.52332E-3	-99.2420E-12	689.065E-3	-10.7616E-3
-2.63882E-3	-99.8202E-12	707.071E-3	5.37516E-3	-98.9608E-12	690.486E-3	769.749E-6
-2.64382E-3	-99.4267E-12	701.022E-3	14.8188E-3	-99.2460E-12	708.444E-3	7.11434E-3
-2.64882E-3	-99.4744E-12	695.611E-3	25.5307E-3	-99.7994E-12	711.537E-3	-8.26007E-3
-2.65383E-3	-99.6627E-12	699.136E-3	25.5159E-3	-100.178E-12	706.748E-3	-9.98214E-3
-2.65883E-3	-100.060E-12	692.217E-3	8.13158E-3	-100.922E-12	726.172E-3	-7.04176E-3
-2.66383E-3	-100.945E-12	681.501E-3	-21.1738E-3	-101.787E-12	745.832E-3	-26.9593E-3
-2.66883E-3	-101.394E-12	684.844E-3	-41.1054E-3	-102.977E-12	756.050E-3	-47.5692E-3
-2.67384E-3	-102.352E-12	699.436E-3	-38.0406E-3	-104.108E-12	775.057E-3	-45.3683E-3
-2.67884E-3	-102.750E-12	716.697E-3	-33.0235E-3	-104.967E-12	778.937E-3	-31.5974E-3
-2.68384E-3	-103.511E-12	713.684E-3	-40.7118E-3	-105.294E-12	753.601E-3	-13.0258E-3
-2.68884E-3	-104.430E-12	703.902E-3	-47.2595E-3	-105.849E-12	738.139E-3	8.41980E-3
-2.69385E-3	-105.272E-12	712.962E-3	-41.4096E-3	-105.881E-12	743.672E-3	-1.34429E-3
-2.69885E-3	-104.888E-12	729.788E-3	-25.8640E-3	-105.654E-12	732.884E-3	-22.7887E-3
-2.70385E-3	-104.213E-12	744.008E-3	-25.2048E-3	-105.659E-12	710.015E-3	-6.69246E-3
-2.70885E-3	-104.413E-12	754.952E-3	-37.2685E-3	-105.369E-12	711.082E-3	4.47860E-3
-2.71386E-3	-104.464E-12	754.156E-3	-41.6771E-3	-105.151E-12	727.857E-3	-13.8337E-3
-2.71886E-3	-103.667E-12	737.353E-3	-27.4467E-3	-104.555E-12	732.466E-3	-12.0484E-3
-2.72386E-3	-102.933E-12	721.171E-3	-3.42392E-3	-104.195E-12	726.399E-3	6.67480E-3
-2.72886E-3	-102.557E-12	713.234E-3	484.200E-6	-104.518E-12	720.743E-3	-249.503E-6
-2.73387E-3	-102.660E-12	706.761E-3	-15.0383E-3	-104.593E-12	721.752E-3	-24.2391E-3
-2.73887E-3	-102.320E-12	708.807E-3	-34.3216E-3	-104.686E-12	724.525E-3	-41.3380E-3
-2.74387E-3	-102.273E-12	715.471E-3	-44.7995E-3	-104.900E-12	722.775E-3	-45.7109E-3
-2.74887E-3	-102.650E-12	712.007E-3	-36.1360E-3	-105.411E-12	727.162E-3	-36.2482E-3
-2.75388E-3	-103.500E-12	698.143E-3	-15.7617E-3	-105.874E-12	727.852E-3	-24.9687E-3
-2.75888E-3	-104.967E-12	687.077E-3	243.086E-6	-106.373E-12	712.020E-3	-15.9334E-3
-2.76388E-3	-105.832E-12	706.036E-3	-2.70179E-3	-107.158E-12	710.064E-3	-9.68808E-3
-2.76888E-3	-107.116E-12	727.409E-3	-25.0300E-3	-107.923E-12	728.756E-3	-10.3276E-3
-2.77389E-3	-108.823E-12	715.703E-3	-43.3084E-3	-108.374E-12	730.590E-3	-9.43637E-3
-2.77889E-3	-109.923E-12	699.538E-3	-32.8635E-3	-108.121E-12	730.246E-3	-7.23648E-3
-2.78389E-3	-110.706E-12	692.887E-3	-11.0882E-3	-108.962E-12	736.894E-3	-20.5291E-3
-2.78889E-3	-111.557E-12	683.893E-3	-10.3655E-3	-108.872E-12	718.453E-3	-36.5588E-3
-2.79390E-3	-111.932E-12	691.073E-3	-4.44327E-3	-108.613E-12	706.962E-3	-27.4706E-3
-2.79890E-3	-111.809E-12	711.309E-3	9.95486E-3	-108.602E-12	725.195E-3	-22.2772E-3
-2.80390E-3	-111.575E-12	721.897E-3	5.62806E-3	-108.944E-12	725.360E-3	-23.5311E-3
-2.80890E-3	-110.227E-12	744.795E-3	5.36488E-3	-108.940E-12	702.611E-3	-10.1706E-3
-2.81391E-3	-108.870E-12	748.865E-3	6.29834E-3	-108.494E-12	686.210E-3	5.79554E-3
-2.81891E-3	-108.923E-12	714.448E-3	-7.54476E-3	-109.230E-12	670.979E-3	13.9506E-3
-2.82391E-3	-108.205E-12	694.760E-3	-21.1474E-3	-109.759E-12	675.905E-3	17.1815E-3
-2.82891E-3	-106.933E-12	694.461E-3	-16.2310E-3	-110.056E-12	703.786E-3	9.59901E-3
-2.83392E-3	-106.124E-12	689.447E-3	-3.92303E-3	-109.718E-12	706.473E-3	-17.9594E-3
-2.83892E-3	-106.869E-12	677.024E-3	-2.77662E-3	-110.010E-12	688.763E-3	-32.1648E-3
-2.84392E-3	-106.965E-12	681.918E-3	-9.24859E-3	-110.930E-12	691.494E-3	-19.3206E-3
-2.84892E-3	-106.911E-12	701.296E-3	-9.72647E-3	-110.738E-12	686.300E-3	-15.9890E-3
-2.85393E-3	-107.859E-12	705.108E-3	633.754E-6	-110.775E-12	663.636E-3	-11.3581E-3
-2.85893E-3	-109.844E-12	696.447E-3	-650.950E-6	-111.057E-12	675.229E-3	-10.7764E-3
-2.86393E-3	-111.240E-12	686.021E-3	-25.5752E-3	-111.777E-12	712.063E-3	-31.9422E-3
-2.86893E-3	-112.376E-12	686.527E-3	-34.0176E-3	-111.586E-12	714.552E-3	-24.5579E-3
-2.87394E-3	-113.179E-12	700.661E-3	-10.6283E-3	-111.616E-12	689.461E-3	-17.4708E-3
-2.87894E-3	-114.569E-12	706.330E-3	2.23544E-3	-111.703E-12	690.616E-3	-39.3550E-3
-2.88394E-3	-116.088E-12	706.255E-3	-14.3445E-3	-112.471E-12	711.130E-3	-28.0114E-3
-2.88894E-3	-116.487E-12	724.422E-3	-21.3262E-3	-112.163E-12	718.818E-3	-4.32023E-3
-2.89395E-3	-115.791E-12	741.566E-3	4.50018E-3	-112.141E-12	711.555E-3	-10.7968E-3
-2.89895E-3	-115.504E-12	739.354E-3	8.17945E-3	-112.605E-12	705.547E-3	-20.3011E-3
-2.90395E-3	-115.470E-12	734.190E-3	-25.4575E-3	-113.319E-12	713.031E-3	-35.3745E-3
-2.90895E-3	-114.930E-12	718.495E-3	-40.8888E-3	-113.605E-12	718.086E-3	-51.4222E-3
-2.91396E-3	-113.907E-12	709.604E-3	-29.3487E-3	-114.323E-12	727.730E-3	-46.6278E-3
-2.91896E-3	-112.760E-12	712.816E-3	-27.8679E-3	-114.618E-12	745.386E-3	-47.9039E-3
-2.92396E-3	-112.215E-12	706.786E-3	-45.3735E-3	-115.322E-12	738.200E-3	-64.0149E-3
-2.92896E-3	-111.882E-12	691.288E-3	-60.8068E-3	-115.429E-12	715.409E-3	-56.7312E-3
-2.93397E-3	-112.023E-12	676.461E-3	-49.9307E-3	-115.773E-12	716.109E-3	-28.9455E-3
-2.93897E-3	-111.708E-12	676.438E-3	-20.5466E-3	-115.668E-12	726.233E-3	-13.7024E-3
-2.94397E-3	-112.002E-12	687.829E-3	-17.9443E-3	-115.338E-12	720.954E-3	-7.53872E-3
-2.94897E-3	-112.773E-12	700.981E-3	-37.7957E-3	-115.148E-12	714.753E-3	-11.8781E-3
-2.95398E-3	-114.204E-12	697.788E-3	-43.1767E-3	-115.492E-12	715.637E-3	-29.8654E-3
-2.95898E-3	-115.002E-12	683.799E-3	-47.0356E-3	-115.070E-12	709.453E-3	-31.1527E-3
-2.96398E-3	-115.039E-12	676.497E-3	-51.7857E-3	-115.231E-12	693.867E-3	-20.6968E-3
-2.96898E-3	-116.119E-12	684.139E-3	-40.1137E-3	-114.851E-12	690.684E-3	-23.5658E-3
-2.97399E-3	-117.571E-12	703.005E-3	-34.9194E-3	-115.218E-12	705.122E-3	-18.7045E-3
-2.97899E-3	-118.105E-12	714.030E-3	-43.4450E-3	-115.452E-12	734.363E-3	5.20844E-3
-2.98399E-3	-118.355E-12	704.046E-3	-26.2361E-3	-115.790E-12	741.305E-3	13.2810E-3
-2.98899E-3	-118.243E-12	679.024E-3	3.55876E-3	-116.207E-12	709.597E-3	3.26793E-3
-2.99400E-3	-118.552E-12	684.671E-3	1.11524E-3	-117.320E-12	694.384E-3	-4.87886E-3
-2.99900E-3	-118.570E-12	711.589E-3	-16.6840E-3	-118.333E-12	690.626E-3	-25.4605E-3
-3.00400E-3	-118.462E-12	709.816E-3	-21.1862E-3	-118.771E-12	680.159E-3	-23.1814E-3
-3.00900E-3	-118.349E-12	698.591E-3	-16.4822E-3	-119.730E-12	706.603E-3	20.0791E-3
-3.01401E-3	-118.281E-12	702.731E-3	-10.6507E-3	-120.610E-12	739.069E-3	30.5108E-3
-3.01901E-3	-118.236E-12	699.069E-3	-2.25296E-3	-121.688E-12	724.780E-3	4.68596E-3
-3.02401E-3	-118.064E-12	681.474E-3	-8.67578E-3	-121.795E-12	711.729E-3	693.490E-6
-3.02901E-3	-118.204E-12	665.955E-3	-28.5861E-3	-121.257E-12	711.573E-3	-3.13904E-3
-3.03402E-3	-117.818E-12	664.487E-3	-32.6581E-3	-121.454E-12	692.045E-3	-19.9793E-3
-3.03902E-3	-118.515E-12	673.034E-3	-21.6058E-3	-122.077E-12	684.883E-3	-15.5741E-3
-3.04402E-3	-118.664E-12	675.995E-3	-15.0707E-3	-121.598E-12	699.030E-3	-22.4747E-3
-3.04902E-3	-119.037E-12	672.692E-3	-14.4491E-3	-120.848E-12	694.847E-3	-44.2653E-3
-3.05403E-3	-119.238E-12	674.872E-3	-21.9626E-3	-120.082E-12	680.041E-3	-34.3953E-3
-3.05903E-3	-120.047E-12	690.696E-3	-30.5031E-3	-120.074E-12	685.441E-3	-14.7448E-3
-3.06403E-3	-119.809E-12	702.259E-3	-12.2513E-3	-119.790E-12	694.339E-3	-12.1392E-3
-3.06903E-3	-119.609E-12	709.083E-3	6.56400E-3	-119.827E-12	710.002E-3	2.64920E-3
-3.07404E-3	-120.029E-12	717.136E-3	-7.55352E-3	-119.570E-12	728.642E-3	15.4509E-3
-3.07904E-3	-121.097E-12	700.922E-3	-26.2687E-3	-120.406E-12	708.364E-3	761.928E-6
-3.08404E-3	-121.063E-12	686.779E-3	-31.6410E-3	-121.368E-12	690.263E-3	4.82997E-3
-3.08904E-3	-121.938E-12	708.425E-3	-26.3047E-3	-121.875E-12	719.423E-3	14.9907E-3
-3.09405E-3	-121.913E-12	721.193E-3	-14.3034E-3	-122.828E-12	741.058E-3	-4.22208E-3
-3.09905E-3	-122.935E-12	703.938E-3	-14.2032E-3	-123.997E-12	725.597E-3	-21.2691E-3
-3.10405E-3	-123.249E-12	688.253E-3	-28.3979E-3	-124.301E-12	719.974E-3	-24.2570E-3
-3.10905E-3	-123.925E-12	681.943E-3	-37.4318E-3	-124.742E-12	725.582E-3	-17.6111E-3
-3.11406E-3	-123.839E-12	671.694E-3	-23.5291E-3	-125.542E-12	713.199E-3	-18.6158E-3
-3.11906E-3	-124.862E-12	668.839E-3	17.2642E-3	-125.258E-12	690.538E-3	-34.4288E-3
-3.12406E-3	-125.388E-12	680.059E-3	38.9522E-3	-125.334E-12	670.407E-3	-40.6781E-3
-3.12906E-3	-125.748E-12	693.242E-3	17.1328E-3	-124.931E-12	661.227E-3	-30.0151E-3
-3.13407E-3	-125.442E-12	694.951E-3	-17.2401E-3	-125.389E-12	670.536E-3	-9.91324E-3
-3.13907E-3	-125.404E-12	682.590E-3	-26.1499E-3	-124.491E-12	669.516E-3	-11.5706E-3
-3.14407E-3	-125.573E-12	684.796E-3	-14.0188E-3	-124.018E-12	654.310E-3	-27.2247E-3
-3.14907E-3	-124.691E-12	698.573E-3	-20.0870E-3	-123.874E-12	664.063E-3	-21.7280E-3
-3.15408E-3	-124.491E-12	698.159E-3	-22.0857E-3	-123.293E-12	680.171E-3	-5.52802E-3
-3.15908E-3	-123.748E-12	691.731E-3	-22.7315E-3	-123.161E-12	672.498E-3	1.86477E-3
-3.16408E-3	-123.883E-12	686.120E-3	-24.9925E-3	-123.287E-12	674.215E-3	-12.0809E-3
-3.16908E-3	-123.347E-12	691.464E-3	-11.0127E-3	-124.116E-12	703.613E-3	-31.6318E-3
-3.17409E-3	-123.870E-12	701.390E-3	-25.1978E-3	-124.206E-12	709.938E-3	-28.8523E-3
-3.17909E-3	-123.961E-12	687.859E-3	-46.5499E-3	-125.402E-12	682.266E-3	-11.5044E-3
-3.18409E-3	-124.965E-12	673.900E-3	-28.5665E-3	-125.735E-12	670.593E-3	-5.58078E-3
-3.18909E-3	-126.475E-12	684.109E-3	-8.55273E-3	-126.725E-12	684.396E-3	1.32774E-3
-3.19410E-3	-127.279E-12	697.596E-3	-18.5347E-3	-127.295E-12	704.249E-3	12.9361E-3
-3.19910E-3	-128.198E-12	694.852E-3	-32.3303E-3	-128.396E-12	709.380E-3	-4.16166E-3
-3.20410E-3	-129.003E-12	693.734E-3	-19.5208E-3	-128.660E-12	702.422E-3	-35.4272E-3
-3.20910E-3	-130.494E-12	698.907E-3	-8.00140E-3	-128.357E-12	703.406E-3	-50.3509E-3
-3.21411E-3	-131.578E-12	690.871E-3	-14.6211E-3	-128.300E-12	699.030E-3	-55.9005E-3
-3.21911E-3	-132.082E-12	691.907E-3	-26.4545E-3	-128.477E-12	688.711E-3	-41.0784E-3
-3.22411E-3	-131.800E-12	706.643E-3	-31.3887E-3	-128.425E-12	689.542E-3	-9.35813E-3
-3.22911E-3	-132.136E-12	712.317E-3	-27.9721E-3	-127.708E-12	693.308E-3	-7.60672E-3
-3.23412E-3	-131.534E-12	708.998E-3	-28.9784E-3	-127.821E-12	673.893E-3	-19.2110E-3
-3.23912E-3	-130.457E-12	714.476E-3	-15.2726E-3	-127.780E-12	656.963E-3	-9.29143E-3
-3.24412E-3	-129.145E-12	718.239E-3	13.8777E-3	-127.925E-12	664.501E-3	-1.00091E-3
-3.24912E-3	-127.759E-12	691.334E-3	22.9525E-3	-127.285E-12	663.419E-3	-9.84553E-3
-3.25413E-3	-127.139E-12	671.310E-3	8.80885E-3	-127.630E-12	668.739E-3	-35.0144E-3
-3.25913E-3	-126.739E-12	678.725E-3	547.704E-6	-128.288E-12	679.995E-3	-61.4836E-3
-3.26413E-3	-126.063E-12	683.440E-3	-5.52386E-3	-129.077E-12	679.116E-3	-45.6737E-3
-3.26913E-3	-125.670E-12	683.522E-3	-21.0239E-3	-129.357E-12	682.965E-3	689.881E-6
-3.27414E-3	-126.415E-12	681.505E-3	-17.6651E-3	-129.834E-12	685.263E-3	17.3020E-3
-3.27914E-3	-127.503E-12	680.260E-3	-13.6759E-3	-131.266E-12	688.134E-3	2.17662E-3
-3.28414E-3	-127.876E-12	686.470E-3	-38.1157E-3	-131.041E-12	698.006E-3	-19.7161E-3
-3.28914E-3	-129.591E-12	691.023E-3	-59.6547E-3	-131.662E-12	692.385E-3	-33.2574E-3
-3.29415E-3	-131.168E-12	682.234E-3	-61.8048E-3	-131.873E-12	669.508E-3	-27.0270E-3
-3.29915E-3	-132.685E-12	668.107E-3	-44.6723E-3	-132.030E-12	666.995E-3	-17.7199E-3
-3.30415E-3	-132.895E-12	669.506E-3	-15.2008E-3	-132.222E-12	683.868E-3	-24.4714E-3
-3.30915E-3	-134.163E-12	685.335E-3	-2.06332E-3	-132.111E-12	684.315E-3	-37.2989E-3
-3.31416E-3	-135.723E-12	704.740E-3	-10.4510E-3	-131.485E-12	689.952E-3	-35.3914E-3
-3.31916E-3	-136.043E-12	711.857E-3	-13.9887E-3	-132.466E-12	691.736E-3	-19.1294E-3
-3.32416E-3	-135.119E-12	697.793E-3	-14.8718E-3	-132.175E-12	673.040E-3	-7.09541E-3
-3.32916E-3	-134.494E-12	693.505E-3	-12.6177E-3	-132.429E-12	668.018E-3	485.142E-6
-3.33417E-3	-134.677E-12	703.724E-3	-1.90750E-3	-132.796E-12	673.246E-3	-13.0173E-3
-3.33917E-3	-133.329E-12	695.555E-3	-1.34568E-3	-133.663E-12	678.323E-3	-37.2908E-3
-3.34417E-3	-132.791E-12	692.604E-3	-9.76195E-3	-133.702E-12	689.423E-3	-30.0876E-3
-3.34917E-3	-131.513E-12	707.794E-3	-14.5919E-3	-133.858E-12	701.578E-3	-20.9825E-3
-3.35418E-3	-130.737E-12	700.723E-3	-20.2755E-3	-134.516E-12	694.842E-3	-24.3770E-3
-3.35918E-3	-131.000E-12	678.649E-3	-31.6067E-3	-135.365E-12	685.924E-3	-24.1975E-3
-3.36418E-3	-131.976E-12	661.233E-3	-33.6551E-3	-135.324E-12	700.690E-3	-41.6673E-3
-3.36918E-3	-132.439E-12	643.189E-3	-22.2146E-3	-135.387E-12	704.702E-3	-53.2459E-3
-3.37419E-3	-132.537E-12	647.231E-3	-20.4169E-3	-135.473E-12	690.012E-3	-36.0609E-3
-3.37919E-3	-133.408E-12	667.723E-3	-18.5368E-3	-136.259E-12	693.641E-3	-23.8843E-3
-3.38419E-3	-135.026E-12	672.911E-3	-996.817E-6	-135.846E-12	693.660E-3	-24.7358E-3
-3.38919E-3	-137.021E-12	665.026E-3	-2.23013E-3	-135.462E-12	674.807E-3	-36.9444E-3
-3.39420E-3	-137.089E-12	665.753E-3	-14.8424E-3	-135.380E-12	674.888E-3	-55.6687E-3
-3.39920E-3	-137.513E-12	692.397E-3	-23.6884E-3	-135.915E-12	681.520E-3	-54.1332E-3
-3.40420E-3	-137.942E-12	709.014E-3	-35.9832E-3	-135.791E-12	675.507E-3	-29.6884E-3
-3.40920E-3	-139.420E-12	700.364E-3	-19.7640E-3	-136.326E-12	679.044E-3	-22.0598E-3
-3.41421E-3	-140.079E-12	690.284E-3	1.93114E-3	-136.135E-12	680.791E-3	-26.7776E-3
-3.41921E-3	-139.453E-12	688.631E-3	-19.5289E-3	-135.992E-12	668.178E-3	-11.8051E-3
-3.42421E-3	-138.108E-12	694.075E-3	-49.3714E-3	-137.724E-12	675.871E-3	-10.8247E-3
-3.42921E-3	-138.254E-12	676.661E-3	-41.0855E-3	-138.421E-12	695.388E-3	-32.1442E-3
-3.43422E-3	-138.767E-12	649.457E-3	-17.1788E-3	-138.854E-12	704.554E-3	-45.1704E-3
-3.43922E-3	-137.674E-12	647.717E-3	-18.1350E-3	-139.388E-12	722.678E-3	-42.0704E-3
-3.44422E-3	-136.522E-12	666.157E-3	-30.1644E-3	-140.681E-12	728.653E-3	-33.5242E-3
-3.44922E-3	-136.367E-12	684.045E-3	-33.3514E-3	-141.332E-12	706.420E-3	-9.56455E-3
-3.45423E-3	-136.889E-12	677.834E-3	-25.1412E-3	-141.841E-12	696.434E-3	19.5115E-3
-3.45923E-3	-137.260E-12	670.122E-3	-22.8389E-3	-141.499E-12	700.443E-3	8.13500E-3
-3.46423E-3	-137.412E-12	690.885E-3	-29.5331E-3	-141.268E-12	683.426E-3	-5.00827E-3
-3.46923E-3	-137.761E-12	701.613E-3	-20.1020E-3	-140.829E-12	662.723E-3	-259.321E-6
-3.47424E-3	-139.163E-12	685.830E-3	-4.74789E-3	-140.760E-12	660.192E-3	-31.1539E-3
-3.47924E-3	-139.790E-12	666.686E-3	-12.1055E-3	-139.574E-12	668.747E-3	-61.5415E-3
-3.48424E-3	-139.966E-12	663.146E-3	-18.3813E-3	-139.541E-12	677.758E-3	-42.1373E-3
-3.48924E-3	-140.395E-12	676.127E-3	-9.60299E-3	-139.112E-12	678.383E-3	-20.5839E-3
-3.49425E-3	-141.110E-12	680.829E-3	-12.5335E-3	-139.006E-12	671.810E-3	-5.74880E-3
-3.49925E-3	-141.672E-12	686.468E-3	-29.7293E-3	-139.147E-12	660.236E-3	7.69528E-3
-3.50425E-3	-142.319E-12	686.931E-3	-35.4343E-3	-139.771E-12	665.448E-3	-11.8957E-3
-3.50925E-3	-142.603E-12	665.305E-3	-10.8485E-3	-139.953E-12	694.483E-3	-42.0802E-3
-3.51426E-3	-142.773E-12	649.992E-3	10.9968E-3	-140.421E-12	710.234E-3	-38.3064E-3
-3.51926E-3	-143.615E-12	653.606E-3	13.5121E-3	-141.595E-12	708.475E-3	-21.9228E-3
-3.52426E-3	-143.508E-12	659.915E-3	19.9673E-3	-143.016E-12	698.916E-3	-21.2044E-3
-3.52926E-3	-142.589E-12	658.755E-3	16.7783E-3	-143.311E-12	690.941E-3	-8.16754E-3
-3.53427E-3	-143.166E-12	656.881E-3	-8.39365E-3	-143.748E-12	689.900E-3	-3.06913E-3
-3.53927E-3	-143.494E-12	666.816E-3	-23.2667E-3	-144.200E-12	679.253E-3	-10.2543E-3
-3.54427E-3	-143.239E-12	684.397E-3	-22.2292E-3	-145.570E-12	671.508E-3	1.21334E-3
-3.54927E-3	-142.958E-12	691.240E-3	-20.8573E-3	-145.343E-12	675.445E-3	6.50898E-3
-3.55428E-3	-143.097E-12	696.539E-3	-33.6689E-3	-144.634E-12	671.995E-3	-9.97526E-3
-3.55928E-3	-143.558E-12	701.279E-3	-42.6179E-3	-143.209E-12	656.390E-3	-30.7788E-3
-3.56428E-3	-142.803E-12	691.043E-3	-12.9612E-3	-143.449E-12	650.410E-3	-40.4752E-3
-3.56928E-3	-142.659E-12	676.753E-3	13.9268E-3	-143.424E-12	673.634E-3	-20.7254E-3
-3.57429E-3	-142.927E-12	670.271E-3	199.403E-6	-142.779E-12	699.107E-3	-3.41282E-3
-3.57929E-3	-142.556E-12	670.067E-3	-17.3202E-3	-142.077E-12	701.477E-3	-22.9521E-3
-3.58429E-3	-142.576E-12	665.946E-3	1.19465E-3	-142.024E-12	686.176E-3	-33.3380E-3
-3.58929E-3	-142.627E-12	648.698E-3	20.2617E-3	-142.508E-12	670.682E-3	-18.2234E-3
-3.59430E-3	-142.428E-12	644.587E-3	8.23062E-3	-142.826E-12	678.609E-3	-20.7860E-3
-3.59930E-3	-142.895E-12	663.962E-3	-6.52061E-3	-143.181E-12	692.054E-3	-34.6363E-3
-3.60430E-3	-143.571E-12	664.679E-3	-21.1059E-3	-143.782E-12	695.900E-3	-23.6773E-3
-3.60930E-3	-143.941E-12	658.856E-3	-30.9883E-3	-145.972E-12	688.270E-3	-9.07714E-3
-3.61431E-3	-145.345E-12	674.003E-3	-27.9584E-3	-147.282E-12	674.952E-3	-8.55242E-3
-3.61931E-3	-146.421E-12	682.718E-3	-13.6968E-3	-146.830E-12	688.317E-3	-9.10022E-3
-3.62431E-3	-147.782E-12	673.136E-3	1.62857E-3	-147.419E-12	707.755E-3	-18.1928E-3
-3.62931E-3	-147.657E-12	664.558E-3	-4.90918E-3	-149.225E-12	713.028E-3	-33.6655E-3
-3.63432E-3	-148.405E-12	686.964E-3	-11.9413E-3	-150.077E-12	714.337E-3	-27.8268E-3
-3.63932E-3	-149.838E-12	713.604E-3	-6.32585E-3	-149.499E-12	699.368E-3	-10.9140E-3
-3.64432E-3	-150.325E-12	696.127E-3	-2.51910E-3	-148.706E-12	668.577E-3	-1.02026E-3
-3.64932E-3	-148.743E-12	681.758E-3	-10.1101E-3	-149.443E-12	656.353E-3	2.63614E-3
-3.65433E-3	-148.141E-12	690.130E-3	-11.2724E-3	-149.882E-12	665.551E-3	2.82095E-3
-3.65933E-3	-148.977E-12	674.756E-3	4.83861E-3	-148.591E-12	670.120E-3	10.7861E-3
-3.66433E-3	-148.153E-12	647.093E-3	470.616E-6	-147.264E-12	660.824E-3	15.4152E-3
-3.66933E-3	-147.154E-12	656.482E-3	-9.06074E-3	-147.598E-12	659.768E-3	-2.45091E-3
-3.67434E-3	-145.554E-12	686.650E-3	2.96776E-3	-148.325E-12	675.016E-3	-18.1521E-3
-3.67934E-3	-145.200E-12	704.872E-3	19.4639E-3	-148.585E-12	695.395E-3	-25.5310E-3
-3.68434E-3	-145.270E-12	709.985E-3	22.5605E-3	-147.935E-12	709.766E-3	-39.6911E-3
-3.68934E-3	-145.325E-12	685.309E-3	2.02677E-3	-148.163E-12	704.938E-3	-36.0875E-3
-3.69435E-3	-144.277E-12	659.397E-3	-4.51229E-3	-149.712E-12	702.065E-3	-10.2356E-3
-3.69935E-3	-145.217E-12	664.227E-3	2.80574E-3	-150.917E-12	708.383E-3	12.6420E-3
-3.70435E-3	-148.195E-12	658.742E-3	-6.24677E-3	-151.619E-12	706.573E-3	11.0626E-3
-3.70935E-3	-149.249E-12	646.265E-3	-16.1678E-3	-152.331E-12	709.430E-3	-5.53344E-3
-3.71436E-3	-149.800E-12	662.121E-3	-14.1341E-3	-152.618E-12	715.898E-3	-167.969E-6
-3.71936E-3	-151.598E-12	675.376E-3	-1.61646E-3	-153.550E-12	704.165E-3	32.4619E-3
-3.72436E-3	-154.057E-12	677.694E-3	1.90808E-3	-154.534E-12	691.549E-3	46.0305E-3
-3.72936E-3	-155.047E-12	696.769E-3	-16.9616E-3	-153.908E-12	699.413E-3	19.9577E-3
-3.73437E-3	-155.455E-12	710.199E-3	-32.0800E-3	-152.660E-12	696.194E-3	3.26515E-3
-3.73937E-3	-155.872E-12	700.274E-3	-32.5518E-3	-153.144E-12	685.500E-3	16.8910E-3
-3.74437E-3	-156.033E-12	708.956E-3	-40.9653E-3	-153.952E-12	689.366E-3	20.9312E-3
-3.74937E-3	-156.237E-12	722.268E-3	-39.1529E-3	-153.397E-12	681.754E-3	10.7669E-3
-3.75438E-3	-155.274E-12	693.211E-3	-3.58399E-3	-152.387E-12	675.703E-3	-1.30953E-3
-3.75938E-3	-154.629E-12	673.505E-3	24.5774E-3	-153.140E-12	676.983E-3	-14.0043E-3
-3.76438E-3	-153.829E-12	679.639E-3	13.9983E-3	-153.438E-12	669.858E-3	-11.6565E-3
-3.76938E-3	-152.845E-12	680.153E-3	-12.6563E-3	-153.299E-12	665.141E-3	-8.82771E-3
-3.77439E-3	-152.083E-12	680.628E-3	-8.03444E-3	-153.398E-12	662.599E-3	-15.6623E-3
-3.77939E-3	-150.487E-12	663.531E-3	10.5150E-3	-154.272E-12	677.492E-3	-25.0449E-3
-3.78439E-3	-150.743E-12	654.123E-3	-12.8517E-3	-154.556E-12	688.126E-3	-28.8706E-3
-3.78939E-3	-150.641E-12	679.315E-3	-63.0161E-3	-154.827E-12	672.028E-3	-19.6041E-3
-3.79440E-3	-151.177E-12	682.607E-3	-72.1189E-3	-156.112E-12	663.025E-3	-24.9714E-3
-3.79940E-3	-151.904E-12	653.184E-3	-34.4146E-3	-155.646E-12	672.105E-3	-28.1053E-3
-3.80440E-3	-153.445E-12	648.053E-3	-16.1631E-3	-155.819E-12	688.336E-3	-7.07755E-3
-3.80940E-3	-154.810E-12	667.098E-3	-20.2354E-3	-156.050E-12	677.843E-3	2.11269E-3
-3.81441E-3	-157.162E-12	672.394E-3	-26.0790E-3	-155.009E-12	647.328E-3	-5.96229E-3
-3.81941E-3	-158.504E-12	669.621E-3	-36.0531E-3	-154.411E-12	641.685E-3	-20.8444E-3
-3.82441E-3	-159.314E-12	684.773E-3	-32.9111E-3	-154.725E-12	651.682E-3	-47.2657E-3
-3.82941E-3	-160.771E-12	702.860E-3	-22.8557E-3	-154.443E-12	649.983E-3	-57.6496E-3
-3.83442E-3	-161.751E-12	707.410E-3	-23.1983E-3	-154.083E-12	668.105E-3	-31.1524E-3
-3.83942E-3	-162.512E-12	693.462E-3	-8.16026E-3	-154.768E-12	704.698E-3	-9.01228E-3
-3.84442E-3	-162.047E-12	677.004E-3	16.6748E-3	-154.503E-12	712.733E-3	-23.6469E-3
-3.84942E-3	-161.380E-12	697.088E-3	12.5847E-3	-155.465E-12	711.893E-3	-34.8865E-3
-3.85443E-3	-160.300E-12	713.286E-3	-6.27902E-3	-155.366E-12	709.866E-3	-20.6482E-3
-3.85943E-3	-159.432E-12	703.992E-3	-27.2452E-3	-156.376E-12	692.006E-3	-7.63120E-3
-3.86443E-3	-158.146E-12	694.032E-3	-39.6726E-3	-157.477E-12	688.321E-3	-295.881E-6
-3.86943E-3	-157.354E-12	680.673E-3	1.97244E-3	-158.103E-12	686.038E-3	-4.15332E-3
-3.87444E-3	-155.785E-12	672.955E-3	28.9035E-3	-158.759E-12	666.038E-3	-21.2557E-3
-3.87944E-3	-154.206E-12	672.429E-3	-13.4287E-3	-159.087E-12	668.901E-3	-12.6511E-3
-3.88444E-3	-154.283E-12	671.106E-3	-44.2697E-3	-159.946E-12	694.384E-3	5.73391E-3
-3.88944E-3	-153.713E-12	661.785E-3	-54.9885E-3	-160.271E-12	702.464E-3	-13.8899E-3
-3.89445E-3	-154.529E-12	651.839E-3	-57.3685E-3	-160.106E-12	684.289E-3	-32.9724E-3
-3.89945E-3	-154.755E-12	652.419E-3	-29.4221E-3	-159.522E-12	665.527E-3	-46.2039E-3
-3.90445E-3	-157.084E-12	642.373E-3	-450.849E-6	-159.750E-12	659.678E-3	-52.3836E-3
-3.90945E-3	-157.709E-12	640.230E-3	1.93341E-3	-158.663E-12	661.371E-3	-35.1618E-3
-3.91446E-3	-158.744E-12	664.607E-3	1.26796E-3	-157.478E-12	682.721E-3	-33.9330E-3
-3.91946E-3	-159.973E-12	674.691E-3	10.2132E-3	-157.781E-12	708.229E-3	-34.2131E-3
-3.92446E-3	-161.666E-12	688.879E-3	2.43168E-3	-158.125E-12	708.645E-3	-11.5758E-3
-3.92946E-3	-162.487E-12	714.742E-3	-9.88511E-3	-157.784E-12	691.364E-3	4.88051E-3
-3.93447E-3	-163.108E-12	704.786E-3	-11.8958E-3	-158.129E-12	674.741E-3	2.75535E-3
-3.93947E-3	-163.896E-12	684.837E-3	-38.6261E-3	-159.703E-12	661.126E-3	-511.761E-6
-3.94447E-3	-164.091E-12	691.588E-3	-53.1306E-3	-160.429E-12	666.983E-3	1.26281E-3
-3.94947E-3	-164.295E-12	694.229E-3	-2.56882E-3	-161.241E-12	671.763E-3	-4.94815E-3
-3.95448E-3	-164.392E-12	697.246E-3	37.0904E-3	-162.573E-12	667.375E-3	-34.2993E-3
-3.95948E-3	-163.620E-12	704.230E-3	28.2489E-3	-164.523E-12	678.137E-3	-54.2623E-3
-3.96448E-3	-162.556E-12	684.782E-3	2.17783E-3	-163.876E-12	693.062E-3	-39.0047E-3
-3.96948E-3	-162.181E-12	667.157E-3	-38.6216E-3	-164.172E-12	708.093E-3	-26.1268E-3
-3.97449E-3	-162.017E-12	676.238E-3	-47.5372E-3	-165.042E-12	708.967E-3	-25.6646E-3
-3.97949E-3	-161.591E-12	679.038E-3	-23.4421E-3	-165.650E-12	697.743E-3	-27.9008E-3
-3.98449E-3	-161.307E-12	670.554E-3	-26.2192E-3	-164.707E-12	684.325E-3	-37.5359E-3
-3.98949E-3	-160.851E-12	671.566E-3	-47.1805E-3	-164.304E-12	664.950E-3	-28.4107E-3
-3.99450E-3	-160.706E-12	662.293E-3	-51.5062E-3	-163.539E-12	636.356E-3	-9.74038E-3
-3.99950E-3	-161.089E-12	653.164E-3	-38.0386E-3	-162.469E-12	602.770E-3	-15.3194E-3
-4.00450E-3	-161.397E-12	672.851E-3	-23.1454E-3	-162.394E-12	604.069E-3	-24.7016E-3
-4.00950E-3	-161.365E-12	687.629E-3	-25.9177E-3	-162.146E-12	651.201E-3	-28.1035E-3
-4.01451E-3	-162.130E-12	681.532E-3	-43.4143E-3	-162.257E-12	687.306E-3	-31.9562E-3
-4.01951E-3	-162.353E-12	675.027E-3	-47.7877E-3	-161.623E-12	690.701E-3	-21.1741E-3
-4.02451E-3	-163.457E-12	663.833E-3	-49.1517E-3	-162.433E-12	676.788E-3	-7.79962E-3
-4.02951E-3	-164.451E-12	650.482E-3	-52.2414E-3	-163.557E-12	656.065E-3	-2.21699E-3
-4.03452E-3	-165.299E-12	666.689E-3	-37.8872E-3	-164.364E-12	663.482E-3	-2.54319E-3
-4.03952E-3	-165.869E-12	687.587E-3	-32.5817E-3	-165.065E-12	667.237E-3	-8.78225E-3
-4.04452E-3	-166.649E-12	686.253E-3	-56.9609E-3	-166.622E-12	658.616E-3	-32.3348E-3
-4.04952E-3	-167.998E-12	684.937E-3	-52.0928E-3	-168.583E-12	679.085E-3	-39.5130E-3
-4.05453E-3	-168.323E-12	690.968E-3	-1.35922E-3	-169.642E-12	702.854E-3	-4.82589E-3
-4.05953E-3	-168.525E-12	695.321E-3	23.0506E-3	-170.115E-12	711.016E-3	-5.20602E-3
-4.06453E-3	-169.094E-12	691.288E-3	7.39813E-3	-170.307E-12	695.459E-3	-38.3167E-3
-4.06953E-3	-169.547E-12	680.369E-3	8.84966E-3	-170.432E-12	666.749E-3	-42.2186E-3
-4.07454E-3	-169.038E-12	668.322E-3	27.1482E-3	-170.412E-12	651.452E-3	-21.8503E-3
-4.07954E-3	-169.639E-12	668.329E-3	11.4301E-3	-169.838E-12	652.249E-3	-3.12312E-3
-4.08454E-3	-167.687E-12	670.203E-3	-2.93695E-3	-168.289E-12	690.870E-3	2.02028E-3
-4.08954E-3	-167.088E-12	678.359E-3	-7.20208E-3	-167.710E-12	735.166E-3	4.76644E-3
-4.09455E-3	-166.980E-12	708.710E-3	-27.2935E-3	-167.460E-12	727.569E-3	11.7225E-3
-4.09955E-3	-166.585E-12	710.775E-3	-35.4583E-3	-167.422E-12	709.601E-3	28.4232E-3
-4.10455E-3	-165.088E-12	664.229E-3	-33.5770E-3	-166.924E-12	707.290E-3	43.4221E-3
-4.10955E-3	-165.159E-12	618.206E-3	-22.4520E-3	-167.079E-12	695.108E-3	39.9633E-3
-4.11456E-3	-166.281E-12	619.896E-3	-11.7060E-3	-167.858E-12	681.326E-3	11.7871E-3
-4.11956E-3	-166.433E-12	655.499E-3	-10.6020E-3	-168.151E-12	688.301E-3	-25.5658E-3
-4.12456E-3	-166.321E-12	677.996E-3	-10.0887E-3	-169.430E-12	704.659E-3	-24.9899E-3
-4.12956E-3	-166.627E-12	686.359E-3	-1.74380E-3	-168.902E-12	716.936E-3	-13.6515E-3
-4.13457E-3	-168.148E-12	688.845E-3	8.37169E-3	-170.154E-12	726.171E-3	-38.2102E-3
-4.13957E-3	-169.794E-12	691.352E-3	-13.3919E-3	-171.133E-12	697.076E-3	-57.1006E-3
-4.14457E-3	-170.658E-12	686.955E-3	-49.5984E-3	-172.250E-12	646.098E-3	-37.3857E-3
-4.14957E-3	-172.055E-12	659.711E-3	-48.3736E-3	-171.288E-12	646.157E-3	-21.8703E-3
-4.15458E-3	-173.760E-12	644.972E-3	-32.5552E-3	-172.123E-12	690.080E-3	-46.1040E-3
-4.15958E-3	-175.393E-12	672.771E-3	-34.4741E-3	-173.136E-12	701.434E-3	-68.0758E-3
-4.16458E-3	-175.515E-12	709.477E-3	-14.4593E-3	-173.203E-12	666.111E-3	-49.2277E-3
-4.16958E-3	-175.539E-12	714.813E-3	11.6395E-3	-172.325E-12	634.657E-3	-23.8831E-3
-4.17459E-3	-176.038E-12	698.411E-3	-3.72288E-3	-171.804E-12	646.300E-3	-14.4392E-3
-4.17959E-3	-176.036E-12	697.524E-3	-17.5805E-3	-171.878E-12	691.903E-3	1.14025E-3
-4.18459E-3	-174.997E-12	706.543E-3	776.872E-6	-171.950E-12	701.421E-3	-4.42057E-3
-4.18959E-3	-173.815E-12	699.524E-3	11.3407E-3	-171.367E-12	672.940E-3	-44.5725E-3
-4.19460E-3	-172.640E-12	681.458E-3	-11.8785E-3	-171.764E-12	665.738E-3	-61.5390E-3
-4.19960E-3	-172.295E-12	675.889E-3	-41.7873E-3	-171.988E-12	685.747E-3	-43.9321E-3
-4.20460E-3	-171.482E-12	675.998E-3	-39.1173E-3	-172.252E-12	694.460E-3	-17.0736E-3
-4.20960E-3	-170.280E-12	676.522E-3	-12.6692E-3	-172.155E-12	669.241E-3	-9.55737E-3
-4.21461E-3	-170.464E-12	692.491E-3	2.08383E-3	-172.796E-12	637.276E-3	-27.4490E-3
-4.21961E-3	-169.926E-12	687.038E-3	1.88905E-3	-174.141E-12	647.808E-3	-20.0772E-3
-4.22461E-3	-171.312E-12	646.783E-3	-2.66790E-3	-174.726E-12	677.104E-3	2.57043E-3
-4.22961E-3	-172.709E-12	637.911E-3	-17.7074E-3	-175.261E-12	687.902E-3	-1.54973E-3
-4.23462E-3	-173.138E-12	663.930E-3	-24.4932E-3	-174.683E-12	679.893E-3	-17.3329E-3
-4.23962E-3	-172.752E-12	664.096E-3	-17.0060E-3	-175.372E-12	657.359E-3	-16.9723E-3
-4.24462E-3	-174.554E-12	663.662E-3	-26.8603E-3	-176.082E-12	652.614E-3	-18.7178E-3
-4.24962E-3	-176.764E-12	684.827E-3	-32.2389E-3	-176.872E-12	674.598E-3	-30.7004E-3
-4.25463E-3	-177.473E-12	694.881E-3	-27.0960E-3	-176.070E-12	706.089E-3	-18.1121E-3
-4.25963E-3	-177.745E-12	692.260E-3	-43.1518E-3	-175.976E-12	703.614E-3	2.60652E-3
-4.26463E-3	-178.272E-12	705.835E-3	-47.2529E-3	-176.278E-12	657.587E-3	17.3131E-3
-4.26963E-3	-178.898E-12	725.695E-3	-24.4974E-3	-176.443E-12	644.926E-3	10.9345E-3
-4.27464E-3	-178.761E-12	710.196E-3	-5.63961E-3	-175.845E-12	676.308E-3	-23.8453E-3
-4.27964E-3	-178.120E-12	697.151E-3	-8.95984E-3	-174.923E-12	684.689E-3	-28.8031E-3
-4.28464E-3	-176.102E-12	702.574E-3	-32.5040E-3	-175.217E-12	659.714E-3	-3.38935E-3
-4.28964E-3	-175.798E-12	698.854E-3	-69.9621E-3	-176.069E-12	634.452E-3	-1.99493E-3
-4.29465E-3	-175.258E-12	699.345E-3	-87.9786E-3	-176.199E-12	633.197E-3	-24.2326E-3
-4.29965E-3	-174.103E-12	714.420E-3	-48.4391E-3	-176.504E-12	654.660E-3	-38.9285E-3
-4.30465E-3	-173.966E-12	721.501E-3	-15.6176E-3	-177.434E-12	660.829E-3	-28.6185E-3
-4.30965E-3	-172.561E-12	715.832E-3	-19.0319E-3	-179.708E-12	650.185E-3	-12.2424E-3
-4.31466E-3	-173.736E-12	687.447E-3	-13.0050E-3	-179.489E-12	648.028E-3	-15.8803E-3
-4.31966E-3	-173.924E-12	635.357E-3	-20.6349E-3	-179.017E-12	646.368E-3	-14.9910E-3
-4.32466E-3	-174.199E-12	623.703E-3	-24.9133E-3	-179.998E-12	648.609E-3	-10.3367E-3
-4.32966E-3	-174.010E-12	651.357E-3	-3.10536E-3	-179.825E-12	667.108E-3	-15.9620E-3
-4.33467E-3	-175.834E-12	659.704E-3	9.61276E-3	-180.000E-12	686.891E-3	-17.3888E-3
-4.33967E-3	-177.916E-12	651.543E-3	19.5410E-3	-179.545E-12	685.514E-3	-15.5203E-3
-4.34467E-3	-178.957E-12	645.439E-3	40.6606E-3	-180.165E-12	648.373E-3	-15.7777E-3
-4.34967E-3	-178.248E-12	638.800E-3	18.4669E-3	-179.334E-12	614.720E-3	-13.1312E-3
-4.35468E-3	-178.679E-12	637.423E-3	-43.1794E-3	-179.506E-12	634.510E-3	-8.85182E-3
-4.35968E-3	-181.150E-12	641.687E-3	-41.0905E-3	-179.606E-12	661.020E-3	-3.32193E-3
-4.36468E-3	-181.824E-12	647.251E-3	7.09225E-3	-179.614E-12	667.140E-3	-12.6795E-3
-4.36968E-3	-181.950E-12	661.518E-3	27.4961E-3	-179.972E-12	670.185E-3	-20.9347E-3
-4.37469E-3	-181.127E-12	674.959E-3	25.8666E-3	-180.528E-12	677.220E-3	-419.495E-6
-4.37969E-3	-181.884E-12	677.230E-3	5.66166E-3	-181.737E-12	686.374E-3	12.9669E-3
-4.38469E-3	-182.387E-12	691.773E-3	-25.8896E-3	-180.555E-12	671.386E-3	9.47367E-3
-4.38969E-3	-181.781E-12	717.948E-3	-40.2669E-3	-180.758E-12	658.867E-3	-7.56022E-3
-4.39470E-3	-181.313E-12	714.295E-3	-25.6150E-3	-181.611E-12	660.561E-3	-43.1559E-3
-4.39970E-3	-181.775E-12	674.008E-3	-1.48700E-3	-182.275E-12	678.504E-3	-54.9800E-3
-4.40470E-3	-181.706E-12	645.520E-3	4.78469E-3	-181.640E-12	694.689E-3	-52.1400E-3
-4.40970E-3	-180.915E-12	655.528E-3	10.7903E-3	-181.160E-12	665.081E-3	-57.8232E-3
-4.41471E-3	-180.939E-12	680.633E-3	15.0537E-3	-181.708E-12	625.708E-3	-36.7115E-3
-4.41971E-3	-180.903E-12	707.143E-3	-2.75819E-3	-182.592E-12	610.398E-3	-10.3985E-3
-4.42471E-3	-181.021E-12	713.827E-3	-12.3569E-3	-182.143E-12	616.500E-3	-13.2627E-3
-4.42971E-3	-181.184E-12	680.279E-3	-9.87171E-3	-181.191E-12	641.822E-3	-24.8908E-3
-4.43472E-3	-181.892E-12	653.330E-3	-24.6976E-3	-181.701E-12	663.642E-3	-30.1397E-3
-4.43972E-3	-181.895E-12	671.414E-3	-37.8803E-3	-181.824E-12	649.681E-3	-27.5662E-3
-4.44472E-3	-182.733E-12	706.298E-3	-30.5790E-3	-182.215E-12	625.187E-3	-9.82104E-3
-4.44972E-3	-183.988E-12	715.748E-3	-7.67450E-3	-181.502E-12	632.044E-3	-2.70917E-3
-4.45473E-3	-184.117E-12	702.370E-3	-1.79337E-3	-181.540E-12	656.195E-3	-20.6328E-3
-4.45973E-3	-185.590E-12	701.905E-3	-16.9300E-3	-183.516E-12	667.048E-3	-23.3496E-3
-4.46473E-3	-186.147E-12	711.363E-3	-9.96390E-3	-185.255E-12	661.980E-3	-5.56674E-3
-4.46973E-3	-186.560E-12	701.290E-3	305.708E-6	-185.621E-12	666.494E-3	-11.3592E-3
-4.47474E-3	-187.356E-12	685.444E-3	-15.6722E-3	-185.513E-12	665.544E-3	-49.9107E-3
-4.47974E-3	-187.792E-12	710.219E-3	-18.0887E-3	-187.192E-12	655.899E-3	-74.3880E-3
-4.48474E-3	-187.801E-12	733.328E-3	-30.2238E-3	-188.166E-12	682.367E-3	-61.7693E-3
-4.48974E-3	-187.174E-12	693.834E-3	-62.9109E-3	-187.677E-12	699.921E-3	-45.0110E-3
-4.49475E-3	-186.678E-12	658.268E-3	-45.6251E-3	-187.350E-12	685.516E-3	-43.2680E-3
-4.49975E-3	-186.543E-12	675.275E-3	-1.11632E-3	-187.684E-12	671.699E-3	-45.1621E-3
-4.50475E-3	-187.054E-12	684.195E-3	-1.02986E-3	-187.923E-12	660.802E-3	-44.3542E-3
-4.50975E-3	-186.279E-12	661.825E-3	-29.9242E-3	-187.041E-12	664.115E-3	-37.1283E-3
-4.51476E-3	-185.645E-12	643.632E-3	-35.9372E-3	-187.739E-12	662.014E-3	-41.3637E-3
-4.51976E-3	-185.740E-12	655.269E-3	-31.3177E-3	-187.859E-12	642.174E-3	-44.2658E-3
-4.52476E-3	-186.043E-12	673.861E-3	-28.6139E-3	-187.688E-12	634.138E-3	-32.0884E-3
-4.52976E-3	-185.789E-12	663.781E-3	-8.01600E-3	-186.426E-12	641.948E-3	-28.0933E-3
-4.53477E-3	-185.153E-12	657.183E-3	10.9163E-3	-186.636E-12	640.941E-3	-20.3400E-3
-4.53977E-3	-185.615E-12	679.080E-3	-4.42432E-3	-186.122E-12	658.796E-3	3.38362E-3
-4.54477E-3	-186.753E-12	698.701E-3	-17.0698E-3	-187.762E-12	692.742E-3	22.0200E-3
-4.54977E-3	-188.370E-12	708.041E-3	-12.8733E-3	-188.438E-12	686.821E-3	24.8399E-3
-4.55478E-3	-188.445E-12	704.854E-3	-27.1670E-3	-188.843E-12	664.364E-3	11.6705E-3
-4.55978E-3	-188.780E-12	697.134E-3	-30.4607E-3	-189.739E-12	669.224E-3	-14.8543E-3
-4.56478E-3	-189.253E-12	695.094E-3	-6.94756E-3	-190.987E-12	675.253E-3	-25.1575E-3
-4.56978E-3	-190.014E-12	686.324E-3	18.6460E-3	-192.061E-12	656.016E-3	-2.61540E-3
-4.57479E-3	-191.283E-12	674.784E-3	18.1595E-3	-191.885E-12	642.365E-3	16.0416E-3
-4.57979E-3	-190.907E-12	666.796E-3	4.61110E-3	-192.437E-12	664.957E-3	-5.14388E-3
-4.58479E-3	-190.643E-12	687.973E-3	2.84299E-3	-192.014E-12	703.375E-3	-27.6308E-3
-4.58979E-3	-190.873E-12	706.949E-3	10.2387E-3	-192.094E-12	704.327E-3	-30.0647E-3
-4.59480E-3	-191.692E-12	676.666E-3	22.7891E-3	-192.365E-12	682.250E-3	-35.0997E-3
-4.59980E-3	-191.483E-12	655.838E-3	12.3309E-3	-191.525E-12	669.269E-3	-31.7077E-3
-4.60480E-3	-190.562E-12	667.808E-3	-31.0114E-3	-190.285E-12	660.322E-3	-20.2463E-3
-4.60980E-3	-190.318E-12	679.000E-3	-54.8294E-3	-190.582E-12	657.533E-3	-24.7184E-3
-4.61481E-3	-190.536E-12	664.581E-3	-23.3965E-3	-190.964E-12	652.161E-3	-39.1191E-3
-4.61981E-3	-190.381E-12	641.189E-3	-6.53647E-3	-189.434E-12	653.224E-3	-37.2099E-3
-4.62481E-3	-190.430E-12	661.819E-3	-56.0896E-3	-189.636E-12	669.975E-3	-51.3337E-3
-4.62981E-3	-190.198E-12	701.326E-3	-86.8526E-3	-190.506E-12	677.560E-3	-93.0142E-3
-4.63482E-3	-190.834E-12	697.848E-3	-62.2909E-3	-190.231E-12	662.198E-3	-68.9766E-3
-4.63982E-3	-191.460E-12	679.443E-3	-40.3473E-3	-189.693E-12	667.547E-3	-9.42413E-3
-4.64482E-3	-192.034E-12	683.304E-3	-20.1342E-3	-190.288E-12	692.699E-3	-3.35695E-3
-4.64982E-3	-192.125E-12	678.728E-3	16.0983E-3	-191.244E-12	703.557E-3	-20.7720E-3
-4.65483E-3	-193.127E-12	656.933E-3	26.5897E-3	-192.600E-12	701.314E-3	-13.8608E-3
-4.65983E-3	-193.650E-12	656.024E-3	13.1276E-3	-194.135E-12	699.193E-3	1.00177E-3
-4.66483E-3	-194.480E-12	665.921E-3	6.91968E-3	-194.085E-12	715.108E-3	-20.3983E-3
-4.66983E-3	-194.586E-12	672.232E-3	3.10836E-3	-195.100E-12	725.800E-3	-39.1939E-3
-4.67484E-3	-195.636E-12	684.354E-3	15.8332E-3	-195.911E-12	703.462E-3	-32.5063E-3
-4.67984E-3	-195.785E-12	682.845E-3	6.82372E-3	-196.349E-12	676.480E-3	-30.4431E-3
-4.68484E-3	-195.870E-12	669.837E-3	-36.0856E-3	-195.156E-12	654.346E-3	-14.9090E-3
-4.68984E-3	-196.354E-12	654.146E-3	-52.9754E-3	-196.051E-12	646.769E-3	13.7527E-3
-4.69485E-3	-196.477E-12	656.086E-3	-33.9325E-3	-195.859E-12	667.740E-3	9.69834E-3
-4.69985E-3	-196.604E-12	683.056E-3	-12.8617E-3	-194.553E-12	682.593E-3	-25.4825E-3
-4.70485E-3	-195.276E-12	699.719E-3	-24.0755E-3	-194.718E-12	670.933E-3	-40.9743E-3
-4.70985E-3	-195.622E-12	696.468E-3	-31.7938E-3	-193.918E-12	669.485E-3	-37.1363E-3
-4.71486E-3	-195.315E-12	703.148E-3	-22.9472E-3	-192.930E-12	691.828E-3	-34.1272E-3
-4.71986E-3	-195.138E-12	721.032E-3	-28.0552E-3	-193.135E-12	713.840E-3	-14.3356E-3
-4.72486E-3	-194.443E-12	719.449E-3	-30.0195E-3	-193.994E-12	722.303E-3	11.3782E-3
-4.72986E-3	-194.661E-12	701.623E-3	-21.3496E-3	-194.094E-12	706.254E-3	14.9216E-3
-4.73487E-3	-195.855E-12	690.718E-3	-24.8598E-3	-194.358E-12	677.172E-3	5.89023E-3
-4.73987E-3	-195.849E-12	696.032E-3	-24.1092E-3	-195.907E-12	664.451E-3	10.8022E-3
-4.74487E-3	-195.847E-12	686.572E-3	-4.08168E-3	-196.434E-12	675.144E-3	18.5288E-3
-4.74988E-3	-195.367E-12	659.186E-3	-10.4151E-3	-197.133E-12	684.477E-3	17.5431E-3
-4.75488E-3	-196.715E-12	664.516E-3	-35.0404E-3	-196.868E-12	684.038E-3	-8.58881E-3
-4.75988E-3	-197.564E-12	679.668E-3	-42.1300E-3	-198.671E-12	674.262E-3	-29.6522E-3
-4.76488E-3	-197.550E-12	669.539E-3	-30.8329E-3	-199.427E-12	677.135E-3	-3.18310E-3
-4.76988E-3	-199.452E-12	651.892E-3	-2.16158E-3	-200.708E-12	703.702E-3	-1.31474E-3
-4.77489E-3	-200.326E-12	634.111E-3	14.2236E-3	-200.111E-12	701.965E-3	-41.9488E-3
-4.77989E-3	-200.606E-12	641.409E-3	-5.28125E-3	-200.523E-12	666.042E-3	-40.8646E-3
-4.78489E-3	-201.198E-12	691.353E-3	-34.6794E-3	-199.950E-12	655.680E-3	-5.35773E-3
-4.78989E-3	-202.653E-12	708.824E-3	-34.2136E-3	-200.906E-12	668.328E-3	-5.02054E-3
-4.79490E-3	-201.936E-12	677.266E-3	-4.47838E-3	-200.311E-12	669.901E-3	-19.0512E-3
-4.79990E-3	-202.280E-12	677.513E-3	10.3513E-3	-200.341E-12	681.537E-3	-28.2056E-3
-4.80490E-3	-202.501E-12	696.934E-3	375.471E-6	-199.799E-12	676.211E-3	-35.8805E-3
-4.80990E-3	-202.775E-12	699.159E-3	-11.1378E-3	-200.636E-12	650.583E-3	-27.6275E-3
-4.81491E-3	-202.082E-12	696.694E-3	-12.2919E-3	-199.608E-12	669.199E-3	-13.9037E-3
-4.81991E-3	-201.270E-12	688.797E-3	-14.1785E-3	-199.011E-12	702.921E-3	-16.4612E-3
-4.82491E-3	-200.170E-12	683.977E-3	-31.5072E-3	-198.949E-12	705.562E-3	-19.0882E-3
-4.82991E-3	-199.744E-12	696.786E-3	-34.5503E-3	-200.302E-12	692.872E-3	14.6961E-3
-4.83492E-3	-199.926E-12	699.149E-3	-15.8480E-3	-199.965E-12	673.804E-3	29.8244E-3
-4.83992E-3	-199.447E-12	696.976E-3	-18.9988E-3	-201.164E-12	661.910E-3	-775.182E-6
-4.84492E-3	-199.136E-12	706.392E-3	-28.9162E-3	-200.376E-12	678.757E-3	6.41519E-3
-4.84992E-3	-199.265E-12	695.251E-3	-24.3919E-3	-201.674E-12	702.509E-3	18.3602E-3
-4.85493E-3	-199.265E-12	685.879E-3	-17.3674E-3	-201.704E-12	689.372E-3	-18.6161E-3
-4.85993E-3	-200.421E-12	691.081E-3	3.99647E-3	-202.574E-12	652.131E-3	-20.9911E-3
-4.86493E-3	-200.519E-12	696.852E-3	23.4355E-3	-202.653E-12	656.933E-3	-2.29030E-3
-4.86993E-3	-201.879E-12	684.305E-3	12.5298E-3	-203.655E-12	687.580E-3	-30.2870E-3
-4.87494E-3	-202.526E-12	666.495E-3	11.7218E-3	-204.057E-12	693.988E-3	-38.3162E-3
-4.87994E-3	-203.921E-12	673.887E-3	22.4292E-3	-205.090E-12	693.736E-3	6.88192E-3
-4.88494E-3	-204.645E-12	677.791E-3	-9.85747E-3	-204.846E-12	690.497E-3	2.03847E-3
-4.88995E-3	-205.506E-12	676.119E-3	-37.2867E-3	-205.248E-12	690.649E-3	-58.8120E-3
-4.89495E-3	-205.434E-12	688.258E-3	-17.9010E-3	-206.343E-12	714.150E-3	-85.4063E-3
-4.89995E-3	-206.351E-12	689.918E-3	3.99638E-3	-207.445E-12	732.262E-3	-73.5187E-3
-4.90495E-3	-206.160E-12	671.436E-3	-1.06598E-3	-207.398E-12	714.251E-3	-47.4773E-3
-4.90995E-3	-204.923E-12	660.238E-3	-13.9271E-3	-209.094E-12	688.049E-3	-20.0314E-3
-4.91496E-3	-204.837E-12	680.504E-3	-13.1588E-3	-208.654E-12	693.339E-3	-25.8051E-3
-4.91996E-3	-204.437E-12	708.688E-3	-22.1571E-3	-209.053E-12	714.952E-3	-47.1515E-3
-4.92496E-3	-203.687E-12	695.969E-3	-24.4575E-3	-208.362E-12	719.538E-3	-43.5358E-3
-4.92996E-3	-202.031E-12	673.902E-3	2.18495E-3	-208.270E-12	704.261E-3	-35.4904E-3
-4.93497E-3	-201.400E-12	689.874E-3	11.6027E-3	-207.238E-12	689.206E-3	-22.7069E-3
-4.93997E-3	-202.044E-12	724.769E-3	1.11520E-3	-206.761E-12	680.466E-3	10.1696E-3
-4.94497E-3	-202.259E-12	727.262E-3	-4.83201E-3	-206.512E-12	683.032E-3	29.1668E-3
-4.94997E-3	-203.099E-12	691.774E-3	-20.5299E-3	-205.741E-12	700.412E-3	9.13898E-3
-4.95498E-3	-202.036E-12	663.986E-3	-39.6254E-3	-206.290E-12	706.175E-3	-23.5683E-3
-4.95998E-3	-204.530E-12	669.948E-3	-45.2070E-3	-205.939E-12	673.940E-3	-36.9497E-3
-4.96498E-3	-205.433E-12	692.001E-3	-28.0639E-3	-207.133E-12	630.237E-3	-12.5988E-3
-4.96998E-3	-205.990E-12	684.526E-3	-8.70056E-3	-206.732E-12	645.579E-3	22.9809E-3
-4.97499E-3	-205.678E-12	638.907E-3	-22.5967E-3	-207.473E-12	698.273E-3	34.0302E-3
-4.97999E-3	-207.703E-12	632.459E-3	-42.7576E-3	-207.227E-12	721.195E-3	8.30262E-3
-4.98499E-3	-209.344E-12	680.974E-3	-50.8557E-3	-209.366E-12	705.252E-3	-39.8866E-3
-4.98999E-3	-210.629E-12	713.519E-3	-46.5182E-3	-209.491E-12	682.860E-3	-46.2461E-3
-4.99500E-3	-210.838E-12	732.678E-3	-31.5450E-3	-210.378E-12	698.340E-3	-29.7155E-3
-5.00000E-3	-209.931E-12	749.533E-3	-27.6629E-3	-210.644E-12	736.707E-3	-31.1444E-3
