Experiment	bias spectroscopy	
Date	19.01.2016 19:34:29	
User		
X (m)	50.1067E-9	
Y (m)	256.54E-9	
Z (m)	-132.552E-9	
Z offset (m)	0E+0	
Settling time (s)	200E-6	
Integration time (s)	5E-3	
Z-Ctrl hold	TRUE	
Final Z (m)	N/A	
Filter type	None	
Order		
Cutoff frq		
Comment01	MnPc/Pb(111)	
Comment02	dz =00pm	
Comment03	7 Sweeps	
Comment04	MagField =0.T	
Comment05	Divider 1:10	
Comment06	Setpoint:5mV,200 pA	
Comment07	Lockin: 50uVrms,5ms,5mV	
Comment08	Gain:9; 912Hz modulation	
Comment09	T=1.06K	
Bias>Bias (V)	5E-3	
Bias>Calibration (V/V)	81.475E-3	
Bias>Offset (V)	1.046E-3	
Bias Spectroscopy>Sweep Start (V)	5E-3	
Bias Spectroscopy>Sweep End (V)	-5E-3	
Bias Spectroscopy>Num Pixel	2000	
Bias Spectroscopy>Z Avg time (s)	500E-3	
Bias Spectroscopy>Z offset (m)	0E+0	
Bias Spectroscopy>1st Settling time (s)	500E-3	
Bias Spectroscopy>Settling time (s)	200E-6	
Bias Spectroscopy>Integration time (s)	5E-3	
Bias Spectroscopy>End Settling time (s)	500E-3	
Bias Spectroscopy>Z control time (s)	500E-3	
Bias Spectroscopy>Max Slew rate (V/s)	Inf	
Bias Spectroscopy>backward sweep	TRUE	
Bias Spectroscopy>Z-controller hold	TRUE	
Bias Spectroscopy>Number of sweeps	7	
Bias Spectroscopy>Channels	Current (A);X% LockIn (V);Y% LockIn (V)	
Bias Spectroscopy>Reset Bias	TRUE	
Bias Spectroscopy>Record final Z	FALSE	
Bias Spectroscopy>Lock-In run	FALSE	
Bias Spectroscopy>Sweep mode	Linear	
Bias Spectroscopy>MultiLine Settings : Segment Start (V), Segment End (V), Settling (s), Integration (s), Steps (xn)	100E-3,3.3E-3,100E-6,10E-3,2500;3.3E-3,-3.3E-3,100E-6,10E-3,10;-3.3E-3,-100E-3,100E-6,10E-3,2500	
Current>Current (A)	200.406E-12	
Current>Calibration (A/V)	999.99900E-12	
Current>Offset (A)	-455.429E-15	
Current>Gain	LN 10^9	
Z-Controller>Z (m)	-132.554E-9	
Z-Controller>Controller name	log Current	
Z-Controller>Controller status	ON	
Z-Controller>Setpoint	200E-12	
Z-Controller>Setpoint unit	A	
Z-Controller>P gain	2.96994E-12	
Z-Controller>I gain	67.0321E-9	
Z-Controller>Time const (s)	44.3062E-6	
Z-Controller>TipLift (m)	0E+0	
Z-Controller>Switch off delay (s)	50E-3	
Current (A)	200.02E-12	
Z (m)	-132.554E-9	

[DATA]
Bias calc (V)	Current (A)	X% LockIn (V)	Y% LockIn (V)	Current [bwd] (A)	X% LockIn [bwd] (V)	Y% LockIn [bwd] (V)
5.00000E-3	197.367E-12	554.643E-3	-3.22336E-3	203.492E-12	536.754E-3	-40.2998E-3
4.99500E-3	196.260E-12	540.870E-3	-13.6096E-3	204.353E-12	527.246E-3	-34.3501E-3
4.98999E-3	195.913E-12	529.483E-3	-20.7994E-3	205.330E-12	527.376E-3	-40.5025E-3
4.98499E-3	194.944E-12	507.720E-3	8.60169E-3	204.531E-12	524.257E-3	-44.9591E-3
4.97999E-3	193.748E-12	491.264E-3	11.1318E-3	204.002E-12	532.418E-3	-29.6962E-3
4.97499E-3	194.263E-12	506.484E-3	-15.5735E-3	203.360E-12	549.050E-3	8.94368E-3
4.96998E-3	195.787E-12	531.906E-3	-25.8305E-3	202.119E-12	563.134E-3	20.1705E-3
4.96498E-3	196.786E-12	523.717E-3	-23.3014E-3	200.557E-12	563.434E-3	4.06868E-3
4.95998E-3	198.840E-12	514.938E-3	-11.7318E-3	199.398E-12	540.874E-3	-12.6070E-3
4.95498E-3	200.751E-12	546.470E-3	-13.6557E-3	198.093E-12	533.161E-3	-13.1682E-3
4.94997E-3	202.883E-12	584.792E-3	-27.5758E-3	196.905E-12	528.050E-3	-6.99248E-3
4.94497E-3	204.559E-12	600.087E-3	-25.7376E-3	195.795E-12	516.318E-3	-19.9529E-3
4.93997E-3	206.244E-12	591.063E-3	-16.3930E-3	194.968E-12	533.548E-3	-34.9134E-3
4.93497E-3	206.249E-12	579.813E-3	-10.7988E-3	194.207E-12	545.544E-3	-51.2830E-3
4.92996E-3	205.566E-12	574.320E-3	-7.75723E-3	194.223E-12	547.928E-3	-40.8612E-3
4.92496E-3	204.319E-12	566.295E-3	-6.34671E-3	194.092E-12	546.322E-3	-6.24687E-3
4.91996E-3	202.785E-12	571.079E-3	-10.3039E-3	194.726E-12	537.776E-3	13.3782E-3
4.91496E-3	200.847E-12	581.656E-3	-20.9097E-3	195.568E-12	548.326E-3	14.6942E-3
4.90995E-3	197.534E-12	579.732E-3	-18.2766E-3	197.455E-12	576.360E-3	1.85220E-3
4.90495E-3	195.576E-12	572.998E-3	-24.6826E-3	198.402E-12	596.850E-3	-4.17160E-3
4.89995E-3	193.425E-12	553.011E-3	-28.2263E-3	199.899E-12	586.903E-3	-4.69790E-3
4.89495E-3	191.329E-12	527.889E-3	5.17282E-3	201.210E-12	579.862E-3	-8.53381E-3
4.88995E-3	188.638E-12	518.745E-3	3.97665E-3	201.686E-12	586.204E-3	-15.8190E-3
4.88494E-3	187.982E-12	525.883E-3	-28.2379E-3	201.266E-12	576.940E-3	-26.0858E-3
4.87994E-3	187.124E-12	517.290E-3	-34.0958E-3	201.300E-12	580.636E-3	-23.4662E-3
4.87494E-3	186.513E-12	512.166E-3	-22.8588E-3	199.973E-12	597.872E-3	-13.2441E-3
4.86993E-3	187.183E-12	538.058E-3	-21.4291E-3	197.524E-12	586.934E-3	-20.4689E-3
4.86493E-3	188.507E-12	533.468E-3	-18.7387E-3	195.884E-12	559.158E-3	-37.2400E-3
4.85993E-3	190.774E-12	515.923E-3	-7.18001E-3	193.938E-12	555.603E-3	-36.5068E-3
4.85493E-3	192.369E-12	542.403E-3	-15.7235E-3	191.855E-12	567.540E-3	-20.2455E-3
4.84992E-3	194.585E-12	577.654E-3	-21.7283E-3	189.481E-12	554.225E-3	-11.7684E-3
4.84492E-3	196.655E-12	567.777E-3	-18.5953E-3	188.299E-12	518.641E-3	-9.24599E-3
4.83992E-3	197.566E-12	537.406E-3	-37.6289E-3	186.973E-12	490.823E-3	-10.4269E-3
4.83492E-3	198.849E-12	539.099E-3	-39.9886E-3	186.820E-12	491.102E-3	-6.80802E-3
4.82991E-3	199.304E-12	546.044E-3	-6.49001E-3	187.308E-12	511.602E-3	2.60782E-3
4.82491E-3	199.164E-12	553.292E-3	4.32670E-3	188.408E-12	530.105E-3	-16.0100E-3
4.81991E-3	197.395E-12	584.061E-3	-374.852E-6	188.931E-12	524.345E-3	-44.6460E-3
4.81491E-3	196.988E-12	598.851E-3	-7.08747E-3	190.668E-12	519.619E-3	-44.4776E-3
4.80990E-3	195.398E-12	584.758E-3	-24.7403E-3	192.408E-12	539.082E-3	-24.8057E-3
4.80490E-3	193.384E-12	578.330E-3	-24.0212E-3	193.875E-12	567.788E-3	-23.2618E-3
4.79990E-3	190.956E-12	571.219E-3	-13.2420E-3	195.073E-12	589.280E-3	-37.7572E-3
4.79490E-3	189.312E-12	575.115E-3	-21.9568E-3	196.418E-12	576.973E-3	-24.5907E-3
4.78989E-3	187.389E-12	571.440E-3	-25.7411E-3	198.031E-12	546.100E-3	11.1872E-3
4.78489E-3	186.084E-12	543.137E-3	320.766E-6	198.142E-12	529.512E-3	32.2879E-3
4.77989E-3	185.045E-12	541.486E-3	22.5596E-3	198.011E-12	531.518E-3	36.8242E-3
4.77489E-3	185.316E-12	567.133E-3	18.6927E-3	196.979E-12	560.461E-3	31.1515E-3
4.76988E-3	185.648E-12	579.271E-3	4.24498E-3	196.120E-12	579.875E-3	2.55831E-3
4.76488E-3	186.833E-12	564.225E-3	-1.97899E-3	194.687E-12	557.073E-3	-20.7799E-3
4.75988E-3	187.933E-12	555.018E-3	-19.0601E-3	193.027E-12	545.509E-3	225.552E-6
4.75488E-3	189.975E-12	542.553E-3	-32.9114E-3	191.277E-12	558.355E-3	17.7666E-3
4.74988E-3	191.097E-12	524.534E-3	-24.8973E-3	190.148E-12	560.555E-3	-11.7444E-3
4.74487E-3	192.326E-12	539.866E-3	-13.4966E-3	189.370E-12	546.506E-3	-51.0156E-3
4.73987E-3	194.418E-12	565.035E-3	-1.67148E-3	188.251E-12	534.890E-3	-40.2806E-3
4.73487E-3	195.445E-12	553.509E-3	-8.48300E-3	187.303E-12	519.608E-3	-7.97172E-3
4.72986E-3	196.449E-12	550.279E-3	-14.7729E-3	187.717E-12	514.858E-3	-4.98283E-3
4.72486E-3	197.151E-12	570.353E-3	2.39900E-3	187.875E-12	540.811E-3	-14.9308E-3
4.71986E-3	197.550E-12	570.394E-3	8.97641E-3	187.372E-12	564.189E-3	-16.8630E-3
4.71486E-3	196.381E-12	561.121E-3	-20.6256E-3	188.414E-12	570.192E-3	-27.0436E-3
4.70985E-3	195.202E-12	550.337E-3	-54.0752E-3	188.665E-12	567.895E-3	-38.0034E-3
4.70485E-3	193.197E-12	530.485E-3	-58.1343E-3	188.646E-12	575.039E-3	-32.9928E-3
4.69985E-3	191.092E-12	530.410E-3	-50.8463E-3	189.164E-12	595.391E-3	-23.0006E-3
4.69485E-3	188.777E-12	564.014E-3	-32.0191E-3	190.128E-12	598.143E-3	-17.3221E-3
4.68984E-3	187.544E-12	576.957E-3	-16.9305E-3	190.909E-12	581.882E-3	-36.9847E-3
4.68484E-3	186.125E-12	561.160E-3	-26.7340E-3	191.131E-12	557.106E-3	-54.0874E-3
4.67984E-3	185.060E-12	541.830E-3	-20.5690E-3	192.115E-12	536.170E-3	-39.2091E-3
4.67484E-3	184.298E-12	534.920E-3	-5.71338E-3	192.597E-12	553.969E-3	-20.4473E-3
4.66983E-3	184.266E-12	544.581E-3	-13.6773E-3	192.196E-12	593.644E-3	-22.4037E-3
4.66483E-3	184.969E-12	556.708E-3	-16.9498E-3	191.626E-12	595.933E-3	-36.0561E-3
4.65983E-3	185.072E-12	549.911E-3	-2.70258E-3	191.211E-12	556.913E-3	-48.0921E-3
4.65483E-3	185.127E-12	528.318E-3	-10.1742E-3	190.006E-12	537.576E-3	-63.6345E-3
4.64982E-3	185.901E-12	524.721E-3	-25.4140E-3	189.084E-12	561.088E-3	-64.3634E-3
4.64482E-3	187.162E-12	525.849E-3	-11.6975E-3	189.065E-12	582.302E-3	-48.4093E-3
4.63982E-3	187.794E-12	524.712E-3	5.33327E-3	188.009E-12	578.226E-3	-37.7569E-3
4.63482E-3	188.538E-12	534.585E-3	3.28365E-3	186.724E-12	560.470E-3	-27.8710E-3
4.62981E-3	189.943E-12	536.057E-3	-2.69054E-3	186.007E-12	536.449E-3	-22.3152E-3
4.62481E-3	191.273E-12	525.475E-3	5.75821E-3	186.047E-12	532.297E-3	-14.2283E-3
4.61981E-3	191.377E-12	527.786E-3	7.19661E-3	184.550E-12	563.467E-3	95.6246E-6
4.61481E-3	190.262E-12	554.093E-3	-1.27583E-3	183.700E-12	587.251E-3	553.746E-6
4.60980E-3	190.291E-12	577.659E-3	1.48122E-3	183.291E-12	574.185E-3	-6.96972E-3
4.60480E-3	189.333E-12	559.951E-3	-1.01330E-3	182.905E-12	571.532E-3	-34.6176E-3
4.59980E-3	187.855E-12	550.306E-3	-12.4594E-3	182.504E-12	569.979E-3	-53.9131E-3
4.59480E-3	187.173E-12	571.794E-3	-18.3836E-3	182.680E-12	549.510E-3	-32.7486E-3
4.58979E-3	185.768E-12	565.803E-3	-20.2999E-3	183.289E-12	548.405E-3	-13.8318E-3
4.58479E-3	183.570E-12	546.295E-3	-26.8951E-3	183.661E-12	552.980E-3	-17.8378E-3
4.57979E-3	181.793E-12	547.065E-3	-19.5910E-3	184.908E-12	549.266E-3	-31.1021E-3
4.57479E-3	181.309E-12	550.947E-3	-11.7960E-3	186.040E-12	550.273E-3	-37.9609E-3
4.56978E-3	179.282E-12	542.153E-3	-15.3730E-3	186.788E-12	558.118E-3	-50.0629E-3
4.56478E-3	178.196E-12	524.689E-3	-18.0985E-3	187.607E-12	549.916E-3	-56.1616E-3
4.55978E-3	177.861E-12	520.488E-3	-36.0822E-3	187.726E-12	536.018E-3	-22.5722E-3
4.55478E-3	177.753E-12	538.448E-3	-53.3010E-3	187.334E-12	547.623E-3	-2.40718E-3
4.54977E-3	177.706E-12	528.322E-3	-39.1357E-3	186.624E-12	550.501E-3	-28.3304E-3
4.54477E-3	178.127E-12	507.620E-3	-12.8419E-3	185.674E-12	547.158E-3	-34.2635E-3
4.53977E-3	179.306E-12	532.636E-3	-8.50506E-3	183.829E-12	564.966E-3	-6.45337E-3
4.53477E-3	180.888E-12	552.133E-3	-4.87354E-3	183.192E-12	571.856E-3	2.35029E-3
4.52976E-3	181.688E-12	552.215E-3	-3.29523E-3	181.665E-12	549.234E-3	-6.30491E-3
4.52476E-3	183.055E-12	562.739E-3	-13.4302E-3	180.376E-12	532.920E-3	-20.9615E-3
4.51976E-3	184.364E-12	572.002E-3	-13.5793E-3	178.961E-12	539.339E-3	-39.7071E-3
4.51476E-3	185.504E-12	569.498E-3	-654.960E-6	177.768E-12	540.893E-3	-33.1483E-3
4.50975E-3	186.439E-12	559.772E-3	13.4908E-3	177.710E-12	539.246E-3	-13.7162E-3
4.50475E-3	187.398E-12	575.702E-3	16.4313E-3	177.400E-12	528.645E-3	-13.1500E-3
4.49975E-3	188.164E-12	617.852E-3	1.35167E-3	177.418E-12	506.053E-3	-11.8584E-3
4.49475E-3	187.783E-12	632.191E-3	-23.7522E-3	177.969E-12	520.022E-3	-10.0161E-3
4.48974E-3	187.516E-12	610.111E-3	-35.2747E-3	179.262E-12	556.760E-3	-17.7122E-3
4.48474E-3	186.391E-12	580.423E-3	-38.9476E-3	180.197E-12	566.114E-3	-24.8856E-3
4.47974E-3	183.964E-12	574.440E-3	-26.1877E-3	181.307E-12	576.913E-3	-17.0146E-3
4.47474E-3	181.789E-12	575.083E-3	129.665E-6	183.704E-12	582.603E-3	4.01888E-3
4.46973E-3	180.144E-12	556.842E-3	8.86990E-3	184.530E-12	568.014E-3	12.3205E-3
4.46473E-3	179.093E-12	542.194E-3	-1.75770E-3	185.257E-12	568.502E-3	19.2779E-3
4.45973E-3	177.379E-12	535.823E-3	-13.6445E-3	186.019E-12	587.374E-3	8.44986E-3
4.45473E-3	177.116E-12	532.300E-3	-27.3133E-3	186.158E-12	584.535E-3	-24.8861E-3
4.44972E-3	176.198E-12	542.104E-3	-47.1955E-3	184.762E-12	553.517E-3	-39.0199E-3
4.44472E-3	176.556E-12	541.117E-3	-46.3504E-3	183.643E-12	540.537E-3	-21.5282E-3
4.43972E-3	176.301E-12	510.180E-3	-30.9336E-3	182.573E-12	542.451E-3	-1.67768E-3
4.43472E-3	177.111E-12	497.899E-3	-11.3228E-3	180.639E-12	539.788E-3	1.22389E-3
4.42971E-3	178.432E-12	520.529E-3	7.48161E-3	178.991E-12	541.161E-3	-1.66134E-3
4.42471E-3	179.181E-12	550.482E-3	-22.0567E-3	177.424E-12	542.186E-3	-830.496E-6
4.41971E-3	179.678E-12	571.551E-3	-56.6525E-3	176.597E-12	552.375E-3	-1.95789E-3
4.41471E-3	181.054E-12	582.524E-3	-40.1121E-3	174.779E-12	566.532E-3	-23.3866E-3
4.40970E-3	181.831E-12	593.443E-3	-28.8531E-3	173.431E-12	568.667E-3	-45.3267E-3
4.40470E-3	182.140E-12	590.151E-3	-36.3057E-3	173.077E-12	567.152E-3	-36.7699E-3
4.39970E-3	181.724E-12	569.635E-3	-35.0588E-3	173.429E-12	548.012E-3	-9.65993E-3
4.39470E-3	181.380E-12	545.194E-3	-35.4021E-3	174.135E-12	519.467E-3	3.35700E-3
4.38969E-3	179.855E-12	545.337E-3	-54.1145E-3	175.267E-12	528.055E-3	-11.0756E-3
4.38469E-3	177.987E-12	581.826E-3	-59.2751E-3	176.025E-12	571.091E-3	-9.16710E-3
4.37969E-3	176.151E-12	597.196E-3	-23.3394E-3	177.271E-12	592.204E-3	13.1169E-3
4.37469E-3	175.163E-12	572.868E-3	-4.36078E-3	178.973E-12	581.064E-3	2.81110E-3
4.36968E-3	173.302E-12	544.326E-3	-34.3113E-3	180.080E-12	577.602E-3	-24.6997E-3
4.36468E-3	171.921E-12	509.104E-3	-52.3992E-3	181.098E-12	585.993E-3	-39.2190E-3
4.35968E-3	171.355E-12	496.994E-3	-46.5627E-3	182.396E-12	582.417E-3	-39.5345E-3
4.35468E-3	171.591E-12	543.552E-3	-38.4551E-3	182.655E-12	559.277E-3	-20.6943E-3
4.34967E-3	170.554E-12	575.351E-3	-22.2147E-3	182.880E-12	547.994E-3	-8.74003E-3
4.34467E-3	170.673E-12	550.814E-3	-37.1455E-3	182.500E-12	558.977E-3	-32.8990E-3
4.33967E-3	171.017E-12	527.591E-3	-60.1377E-3	180.554E-12	564.803E-3	-47.3005E-3
4.33467E-3	171.258E-12	534.217E-3	-48.0871E-3	179.285E-12	554.926E-3	-23.4562E-3
4.32966E-3	171.716E-12	544.688E-3	-42.0702E-3	177.753E-12	551.537E-3	-2.27585E-3
4.32466E-3	172.634E-12	544.592E-3	-47.4293E-3	175.746E-12	554.977E-3	-5.09471E-3
4.31966E-3	173.670E-12	537.872E-3	-38.4278E-3	173.258E-12	548.308E-3	-19.8600E-3
4.31466E-3	173.538E-12	550.045E-3	-26.8182E-3	172.606E-12	561.560E-3	-11.7996E-3
4.30965E-3	174.730E-12	585.832E-3	-25.8787E-3	171.487E-12	588.480E-3	6.94792E-3
4.30465E-3	174.955E-12	580.693E-3	-22.1575E-3	170.154E-12	588.523E-3	-7.39603E-3
4.29965E-3	175.319E-12	556.647E-3	-20.8982E-3	169.472E-12	577.620E-3	-36.2980E-3
4.29465E-3	174.391E-12	583.674E-3	-28.3588E-3	169.577E-12	568.377E-3	-36.4731E-3
4.28964E-3	173.929E-12	596.504E-3	-29.7724E-3	169.229E-12	570.422E-3	-27.2488E-3
4.28464E-3	172.711E-12	557.940E-3	-15.3640E-3	169.888E-12	578.562E-3	-38.6422E-3
4.27964E-3	172.684E-12	526.316E-3	-12.7352E-3	170.748E-12	566.276E-3	-36.3464E-3
4.27464E-3	171.728E-12	530.080E-3	-22.2575E-3	170.562E-12	544.691E-3	-28.6559E-3
4.26963E-3	171.643E-12	537.796E-3	-31.8454E-3	170.941E-12	547.189E-3	-31.1357E-3
4.26463E-3	171.518E-12	523.781E-3	-27.0552E-3	172.343E-12	574.804E-3	-20.1286E-3
4.25963E-3	170.896E-12	528.826E-3	2.52408E-3	173.258E-12	587.711E-3	-19.6857E-3
4.25463E-3	169.938E-12	552.901E-3	3.69190E-3	174.071E-12	565.452E-3	-36.5228E-3
4.24962E-3	170.551E-12	561.072E-3	-17.3616E-3	174.853E-12	543.186E-3	-44.0295E-3
4.24462E-3	169.986E-12	557.632E-3	-6.85113E-3	175.439E-12	552.787E-3	-52.9142E-3
4.23962E-3	169.744E-12	549.371E-3	5.05586E-3	175.771E-12	558.289E-3	-57.6732E-3
4.23462E-3	170.284E-12	541.320E-3	-16.4296E-3	174.952E-12	541.121E-3	-18.1925E-3
4.22961E-3	171.545E-12	539.979E-3	-27.3425E-3	174.487E-12	540.542E-3	2.88470E-3
4.22461E-3	172.048E-12	537.970E-3	-18.3663E-3	173.697E-12	548.470E-3	-14.5192E-3
4.21961E-3	172.597E-12	541.739E-3	-18.8745E-3	173.051E-12	548.326E-3	-22.5781E-3
4.21461E-3	173.251E-12	554.575E-3	-23.3759E-3	172.122E-12	551.270E-3	-46.0955E-3
4.20960E-3	173.576E-12	560.474E-3	-25.4079E-3	170.165E-12	547.445E-3	-59.2569E-3
4.20460E-3	173.137E-12	570.212E-3	-20.3206E-3	169.541E-12	554.754E-3	-26.0445E-3
4.19960E-3	173.478E-12	585.026E-3	-6.31265E-3	168.690E-12	582.239E-3	-7.24864E-3
4.19460E-3	172.992E-12	578.902E-3	-16.5095E-3	168.328E-12	581.358E-3	-21.5099E-3
4.18959E-3	173.109E-12	549.714E-3	-44.3754E-3	167.455E-12	559.418E-3	-31.2532E-3
4.18459E-3	172.711E-12	548.799E-3	-34.7829E-3	167.130E-12	548.137E-3	-38.8107E-3
4.17959E-3	172.744E-12	584.319E-3	-9.21946E-3	167.324E-12	542.074E-3	-33.8386E-3
4.17459E-3	172.637E-12	595.146E-3	-648.237E-6	167.333E-12	543.612E-3	5.40811E-3
4.16958E-3	171.775E-12	578.643E-3	-12.0492E-3	166.808E-12	554.496E-3	36.9164E-3
4.16458E-3	171.079E-12	569.842E-3	-38.2894E-3	167.455E-12	574.868E-3	26.6124E-3
4.15958E-3	170.603E-12	569.004E-3	-43.0105E-3	168.304E-12	584.380E-3	12.6791E-3
4.15458E-3	169.654E-12	568.343E-3	-23.9100E-3	169.055E-12	580.556E-3	11.2790E-3
4.14957E-3	168.556E-12	563.636E-3	-16.1878E-3	170.394E-12	583.484E-3	17.0917E-3
4.14457E-3	168.593E-12	576.550E-3	-27.1676E-3	171.011E-12	583.151E-3	12.1557E-3
4.13957E-3	168.011E-12	591.523E-3	-27.7792E-3	171.452E-12	585.742E-3	5.35622E-3
4.13457E-3	167.606E-12	569.736E-3	-8.60908E-3	171.806E-12	601.521E-3	4.75881E-3
4.12956E-3	166.846E-12	548.638E-3	-8.97418E-3	172.761E-12	598.586E-3	-1.03562E-3
4.12456E-3	167.053E-12	559.753E-3	-21.3990E-3	172.064E-12	583.599E-3	519.052E-6
4.11956E-3	166.915E-12	566.055E-3	-23.6579E-3	171.064E-12	589.858E-3	-22.5406E-3
4.11456E-3	166.799E-12	533.271E-3	-35.8576E-3	170.792E-12	584.358E-3	-45.4212E-3
4.10955E-3	166.170E-12	510.326E-3	-34.1584E-3	169.787E-12	566.580E-3	-23.6277E-3
4.10455E-3	166.198E-12	527.809E-3	-12.1140E-3	168.803E-12	579.442E-3	-3.31581E-3
4.09955E-3	166.702E-12	553.808E-3	-7.73520E-3	167.450E-12	590.685E-3	340.157E-6
4.09455E-3	166.229E-12	591.762E-3	-21.2041E-3	166.658E-12	562.120E-3	-10.3136E-3
4.08954E-3	165.895E-12	617.953E-3	-10.7284E-3	165.261E-12	538.501E-3	-20.1480E-3
4.08454E-3	165.851E-12	585.868E-3	6.50082E-3	164.186E-12	543.051E-3	-8.26702E-3
4.07954E-3	165.739E-12	551.577E-3	-23.5900E-3	163.143E-12	555.879E-3	1.77251E-3
4.07454E-3	164.714E-12	576.177E-3	-44.6936E-3	162.007E-12	557.722E-3	8.05489E-3
4.06953E-3	164.359E-12	588.665E-3	-37.6640E-3	161.537E-12	554.612E-3	18.9022E-3
4.06453E-3	164.378E-12	556.021E-3	-34.6488E-3	161.787E-12	560.870E-3	16.8783E-3
4.05953E-3	163.308E-12	542.843E-3	-15.6764E-3	162.430E-12	583.703E-3	14.1645E-3
4.05453E-3	163.453E-12	554.052E-3	-8.91896E-3	162.877E-12	609.236E-3	21.0403E-3
4.04952E-3	162.861E-12	548.113E-3	-29.4778E-3	163.974E-12	588.410E-3	13.4901E-3
4.04452E-3	162.604E-12	546.673E-3	-15.3725E-3	165.876E-12	555.610E-3	-3.47991E-3
4.03952E-3	161.802E-12	541.156E-3	23.7246E-3	167.275E-12	554.200E-3	-23.3694E-3
4.03452E-3	161.751E-12	519.161E-3	9.56826E-3	168.031E-12	557.668E-3	-35.0133E-3
4.02951E-3	162.189E-12	533.635E-3	-25.4630E-3	169.483E-12	573.625E-3	-15.2768E-3
4.02451E-3	162.001E-12	551.845E-3	-24.1514E-3	170.076E-12	597.880E-3	20.7095E-6
4.01951E-3	161.946E-12	548.956E-3	-18.9882E-3	168.380E-12	597.139E-3	2.28701E-3
4.01451E-3	162.496E-12	556.664E-3	-22.9704E-3	168.732E-12	577.505E-3	22.5808E-3
4.00950E-3	163.099E-12	561.289E-3	-5.75505E-3	167.682E-12	557.713E-3	28.5446E-3
4.00450E-3	163.000E-12	547.454E-3	16.5200E-3	165.298E-12	545.622E-3	8.91532E-3
3.99950E-3	163.419E-12	550.452E-3	27.4885E-3	164.003E-12	558.578E-3	-27.0909E-3
3.99450E-3	163.219E-12	566.894E-3	35.3333E-3	162.524E-12	566.832E-3	-62.1379E-3
3.98949E-3	162.880E-12	558.066E-3	23.0704E-3	160.723E-12	536.095E-3	-46.1846E-3
3.98449E-3	162.400E-12	552.219E-3	4.54934E-3	158.821E-12	507.703E-3	-13.8303E-3
3.97949E-3	162.036E-12	558.784E-3	1.58330E-3	157.655E-12	520.341E-3	-2.45848E-3
3.97449E-3	160.991E-12	559.377E-3	-12.0308E-3	156.510E-12	540.742E-3	-7.59919E-3
3.96948E-3	160.592E-12	544.104E-3	-37.7478E-3	155.882E-12	524.144E-3	-25.1353E-3
3.96448E-3	159.858E-12	528.805E-3	-36.3923E-3	156.205E-12	510.177E-3	-34.1282E-3
3.95948E-3	159.044E-12	556.103E-3	-22.2298E-3	156.241E-12	539.763E-3	-60.0811E-3
3.95448E-3	158.057E-12	590.013E-3	-14.6552E-3	157.009E-12	565.892E-3	-78.9977E-3
3.94947E-3	157.556E-12	583.076E-3	-1.85022E-3	159.052E-12	571.339E-3	-54.9333E-3
3.94447E-3	156.839E-12	584.902E-3	1.64649E-3	160.288E-12	571.363E-3	-17.2389E-3
3.93947E-3	156.943E-12	599.195E-3	-12.3166E-3	161.366E-12	574.577E-3	19.9323E-3
3.93447E-3	157.015E-12	575.709E-3	-37.9059E-3	163.037E-12	592.267E-3	11.1863E-3
3.92946E-3	156.784E-12	544.254E-3	-49.0663E-3	165.189E-12	600.643E-3	-36.0565E-3
3.92446E-3	158.197E-12	534.415E-3	-28.4023E-3	165.616E-12	598.844E-3	-54.7671E-3
3.91946E-3	158.927E-12	539.060E-3	-5.35273E-3	166.118E-12	591.465E-3	-37.6237E-3
3.91446E-3	159.927E-12	553.547E-3	-4.43604E-3	165.406E-12	573.323E-3	-11.2337E-3
3.90945E-3	160.929E-12	556.340E-3	-8.34985E-3	165.119E-12	571.095E-3	-3.71651E-3
3.90445E-3	162.331E-12	537.929E-3	-8.74980E-3	163.319E-12	579.023E-3	-1.08751E-3
3.89945E-3	162.642E-12	528.571E-3	2.84206E-3	162.073E-12	580.702E-3	1.20242E-3
3.89445E-3	162.873E-12	558.947E-3	12.6001E-3	160.854E-12	566.698E-3	-15.9280E-3
3.88944E-3	163.288E-12	599.682E-3	487.313E-6	158.669E-12	542.957E-3	-27.1565E-3
3.88444E-3	163.190E-12	597.311E-3	-14.7063E-3	157.592E-12	549.311E-3	-25.5999E-3
3.87944E-3	161.637E-12	581.825E-3	-30.9999E-3	156.368E-12	585.877E-3	-26.7114E-3
3.87444E-3	161.680E-12	593.691E-3	-37.7955E-3	155.239E-12	597.881E-3	-33.9846E-3
3.86943E-3	161.050E-12	600.975E-3	-26.1685E-3	154.302E-12	566.145E-3	-44.7542E-3
3.86443E-3	159.901E-12	598.314E-3	-3.32102E-3	154.695E-12	549.477E-3	-40.3656E-3
3.85943E-3	158.635E-12	593.108E-3	23.2171E-3	154.424E-12	571.462E-3	-26.3936E-3
3.85443E-3	157.305E-12	578.536E-3	10.7019E-3	154.922E-12	586.195E-3	-23.5187E-3
3.84942E-3	156.479E-12	559.730E-3	-16.8053E-3	155.555E-12	583.947E-3	-24.8425E-3
3.84442E-3	155.443E-12	541.549E-3	-8.47534E-3	155.836E-12	582.536E-3	-14.3988E-3
3.83942E-3	154.292E-12	534.553E-3	691.807E-6	156.657E-12	582.409E-3	-13.5694E-3
3.83442E-3	154.303E-12	547.047E-3	-10.6816E-3	157.870E-12	602.152E-3	-29.4458E-3
3.82941E-3	154.244E-12	558.025E-3	-14.3461E-3	158.776E-12	616.041E-3	-31.1233E-3
3.82441E-3	154.436E-12	562.878E-3	2.42535E-3	159.184E-12	592.759E-3	-18.6319E-3
3.81941E-3	154.889E-12	581.834E-3	3.96681E-3	160.274E-12	571.053E-3	5.89755E-3
3.81441E-3	155.771E-12	596.982E-3	-25.2736E-3	159.849E-12	567.113E-3	23.5789E-3
3.80940E-3	156.681E-12	574.831E-3	-35.2114E-3	159.992E-12	560.759E-3	14.7740E-3
3.80440E-3	156.866E-12	546.853E-3	-23.6459E-3	159.293E-12	555.266E-3	-4.10965E-3
3.79940E-3	157.516E-12	550.921E-3	-21.9297E-3	158.220E-12	547.285E-3	-12.0101E-3
3.79440E-3	158.057E-12	570.251E-3	-5.10182E-3	157.109E-12	538.224E-3	2.59563E-3
3.78939E-3	157.363E-12	596.628E-3	-3.97773E-3	156.039E-12	533.800E-3	7.20595E-3
3.78439E-3	157.102E-12	622.692E-3	-20.6337E-3	155.324E-12	527.773E-3	-5.85334E-3
3.77939E-3	156.966E-12	621.690E-3	-16.9279E-3	154.087E-12	530.749E-3	-16.4399E-3
3.77439E-3	156.335E-12	590.742E-3	-16.8372E-3	153.154E-12	548.472E-3	-24.6509E-3
3.76938E-3	155.445E-12	568.474E-3	-9.44761E-3	152.636E-12	564.336E-3	-19.9280E-3
3.76438E-3	154.806E-12	564.964E-3	2.89732E-3	152.109E-12	572.444E-3	-5.72367E-3
3.75938E-3	154.001E-12	558.524E-3	-3.70818E-3	151.382E-12	565.876E-3	13.4209E-3
3.75438E-3	152.612E-12	548.037E-3	-17.1977E-3	151.390E-12	561.744E-3	39.9650E-3
3.74937E-3	151.263E-12	538.771E-3	75.9283E-6	150.558E-12	571.238E-3	58.8975E-3
3.74437E-3	150.554E-12	544.103E-3	16.9573E-3	150.413E-12	546.914E-3	43.3372E-3
3.73937E-3	149.925E-12	565.795E-3	-16.0971E-3	150.820E-12	505.616E-3	7.31499E-3
3.73437E-3	149.404E-12	577.065E-3	-42.7018E-3	151.968E-12	510.783E-3	-18.1118E-3
3.72936E-3	149.037E-12	570.145E-3	-39.8444E-3	152.308E-12	545.630E-3	-11.9789E-3
3.72436E-3	149.478E-12	571.659E-3	-41.6978E-3	152.445E-12	570.770E-3	11.5347E-3
3.71936E-3	149.949E-12	576.684E-3	-33.8496E-3	153.459E-12	597.819E-3	5.01763E-3
3.71436E-3	149.816E-12	574.139E-3	-12.3020E-3	153.822E-12	612.511E-3	-16.2606E-3
3.70935E-3	150.281E-12	573.195E-3	-18.1849E-3	154.415E-12	598.843E-3	-19.3095E-3
3.70435E-3	150.609E-12	557.306E-3	-34.8463E-3	154.359E-12	586.939E-3	-7.64438E-3
3.69935E-3	151.007E-12	521.250E-3	-33.9976E-3	154.377E-12	581.134E-3	-14.0110E-3
3.69435E-3	151.622E-12	516.806E-3	-24.6289E-3	154.052E-12	562.970E-3	-38.8923E-3
3.68934E-3	151.659E-12	555.379E-3	-8.50279E-3	153.109E-12	551.144E-3	-43.2919E-3
3.68434E-3	151.838E-12	576.969E-3	-7.07930E-3	152.175E-12	547.443E-3	-34.0276E-3
3.67934E-3	151.238E-12	579.044E-3	-25.9899E-3	151.283E-12	540.360E-3	-23.1036E-3
3.67434E-3	151.068E-12	583.861E-3	-23.9422E-3	150.495E-12	553.381E-3	-6.40131E-3
3.66933E-3	150.758E-12	570.881E-3	4.55856E-3	149.676E-12	561.733E-3	2.02192E-3
3.66433E-3	150.320E-12	554.681E-3	-2.04042E-3	148.613E-12	555.803E-3	842.494E-6
3.65933E-3	149.870E-12	561.648E-3	-44.2081E-3	147.468E-12	576.269E-3	-3.60694E-3
3.65433E-3	148.745E-12	566.630E-3	-56.2160E-3	147.266E-12	589.398E-3	-21.4672E-3
3.64932E-3	148.364E-12	549.664E-3	-29.4896E-3	146.917E-12	564.377E-3	-34.7744E-3
3.64432E-3	147.722E-12	544.308E-3	-850.385E-6	146.677E-12	551.932E-3	-34.0134E-3
3.63932E-3	147.310E-12	566.114E-3	14.0682E-3	147.313E-12	567.266E-3	-13.6806E-3
3.63432E-3	147.692E-12	583.811E-3	-1.04293E-3	147.029E-12	567.219E-3	17.1925E-3
3.62931E-3	147.780E-12	585.015E-3	-14.2658E-3	147.488E-12	562.438E-3	32.9649E-3
3.62431E-3	147.681E-12	577.697E-3	9.99018E-3	148.298E-12	574.026E-3	29.7341E-3
3.61931E-3	147.825E-12	561.293E-3	21.1052E-3	149.161E-12	575.743E-3	920.759E-6
3.61431E-3	148.933E-12	556.453E-3	3.75094E-3	150.103E-12	564.917E-3	-20.2476E-3
3.60930E-3	148.350E-12	569.677E-3	-13.9245E-3	151.594E-12	549.317E-3	-23.4095E-3
3.60430E-3	148.757E-12	570.563E-3	-27.1897E-3	152.513E-12	549.542E-3	-31.9918E-3
3.59930E-3	149.141E-12	584.818E-3	-17.5909E-3	153.283E-12	559.404E-3	-31.8584E-3
3.59430E-3	149.455E-12	615.932E-3	12.7913E-3	153.417E-12	569.625E-3	-24.9634E-3
3.58929E-3	148.942E-12	604.095E-3	28.1618E-3	153.320E-12	577.217E-3	-38.3575E-3
3.58429E-3	148.371E-12	585.116E-3	20.4156E-3	152.667E-12	561.059E-3	-58.5435E-3
3.57929E-3	149.433E-12	590.439E-3	-9.74340E-3	151.019E-12	548.821E-3	-49.6054E-3
3.57429E-3	148.912E-12	576.680E-3	-36.7678E-3	149.505E-12	542.909E-3	-25.0832E-3
3.56928E-3	148.489E-12	553.461E-3	-38.3659E-3	148.383E-12	538.334E-3	-8.59474E-3
3.56428E-3	147.639E-12	553.819E-3	-22.5151E-3	147.168E-12	546.147E-3	647.575E-6
3.55928E-3	147.189E-12	548.825E-3	-6.87553E-3	145.106E-12	551.897E-3	-8.80792E-3
3.55428E-3	145.887E-12	530.947E-3	-12.9038E-3	143.954E-12	553.186E-3	-26.8704E-3
3.54927E-3	144.973E-12	543.621E-3	-28.4534E-3	142.991E-12	544.515E-3	-32.5964E-3
3.54427E-3	144.553E-12	571.042E-3	-31.3082E-3	142.472E-12	536.839E-3	-26.8824E-3
3.53927E-3	144.096E-12	584.801E-3	-36.2080E-3	141.741E-12	551.843E-3	-13.1847E-3
3.53427E-3	143.402E-12	576.211E-3	-40.6546E-3	142.164E-12	574.763E-3	-10.5216E-3
3.52926E-3	142.855E-12	545.272E-3	-29.5054E-3	142.049E-12	571.379E-3	-11.8541E-3
3.52426E-3	142.649E-12	540.533E-3	-22.8826E-3	142.947E-12	555.333E-3	-14.3270E-3
3.51926E-3	141.852E-12	566.470E-3	-26.3521E-3	144.539E-12	562.691E-3	-20.0364E-3
3.51426E-3	141.374E-12	574.922E-3	-44.3056E-3	145.521E-12	584.019E-3	-3.52478E-3
3.50925E-3	141.160E-12	571.788E-3	-55.4246E-3	146.737E-12	588.104E-3	4.31347E-3
3.50425E-3	141.759E-12	578.291E-3	-28.6723E-3	147.743E-12	570.548E-3	-5.91562E-3
3.49925E-3	141.439E-12	571.430E-3	-6.11195E-3	148.795E-12	561.150E-3	-9.88368E-3
3.49425E-3	141.312E-12	543.564E-3	-5.84563E-3	148.955E-12	584.185E-3	-19.0581E-3
3.48924E-3	141.953E-12	532.890E-3	-1.24848E-3	149.025E-12	608.714E-3	-19.9412E-3
3.48424E-3	142.722E-12	545.469E-3	4.00855E-3	148.470E-12	601.513E-3	-13.7538E-3
3.47924E-3	143.031E-12	546.462E-3	-10.4990E-3	147.012E-12	589.548E-3	-8.14158E-3
3.47424E-3	142.872E-12	541.642E-3	-28.2894E-3	145.660E-12	586.389E-3	2.45190E-3
3.46923E-3	143.373E-12	554.357E-3	-24.3832E-3	143.850E-12	557.669E-3	-17.4315E-3
3.46423E-3	143.431E-12	566.913E-3	-22.8212E-3	142.863E-12	516.784E-3	-50.7225E-3
3.45923E-3	143.016E-12	569.681E-3	-29.8200E-3	140.516E-12	506.241E-3	-30.9647E-3
3.45423E-3	142.648E-12	564.992E-3	-17.3767E-3	139.134E-12	505.788E-3	4.65758E-3
3.44922E-3	142.465E-12	557.194E-3	-2.40342E-3	138.262E-12	519.452E-3	7.17426E-3
3.44422E-3	141.866E-12	557.874E-3	-7.56908E-3	136.742E-12	551.227E-3	-7.34907E-3
3.43922E-3	141.552E-12	554.241E-3	-11.2161E-3	135.746E-12	569.396E-3	-25.4980E-3
3.43422E-3	140.980E-12	544.866E-3	-9.83474E-3	136.000E-12	567.941E-3	-31.3725E-3
3.42921E-3	139.993E-12	551.901E-3	-20.5042E-3	136.024E-12	548.788E-3	-19.5622E-3
3.42421E-3	139.896E-12	560.944E-3	-20.2320E-3	136.890E-12	542.898E-3	-13.3175E-3
3.41921E-3	139.494E-12	560.427E-3	-1.10692E-3	137.812E-12	560.617E-3	-17.4345E-3
3.41421E-3	139.641E-12	567.234E-3	1.09501E-3	138.450E-12	572.535E-3	-19.8040E-3
3.40920E-3	139.264E-12	579.201E-3	6.52440E-3	139.528E-12	565.658E-3	-21.6636E-3
3.40420E-3	139.675E-12	580.560E-3	12.4212E-3	140.470E-12	543.201E-3	-27.1695E-3
3.39920E-3	140.032E-12	561.767E-3	-13.8814E-3	141.466E-12	543.296E-3	-41.9245E-3
3.39420E-3	140.538E-12	547.771E-3	-31.3026E-3	141.931E-12	567.903E-3	-35.8452E-3
3.38919E-3	140.544E-12	557.223E-3	-24.5003E-3	143.309E-12	571.337E-3	4.26178E-3
3.38419E-3	140.615E-12	573.242E-3	-22.9058E-3	143.685E-12	566.107E-3	31.4746E-3
3.37919E-3	140.929E-12	582.786E-3	-19.0611E-3	143.078E-12	581.690E-3	27.8215E-3
3.37419E-3	140.132E-12	592.676E-3	-12.2408E-3	143.414E-12	594.401E-3	18.5434E-3
3.36918E-3	140.744E-12	594.915E-3	-30.1904E-3	142.826E-12	584.775E-3	3.80163E-3
3.36418E-3	140.021E-12	595.374E-3	-47.1428E-3	141.991E-12	576.682E-3	-16.5904E-3
3.35918E-3	140.478E-12	601.746E-3	-37.9190E-3	141.150E-12	571.203E-3	-16.1600E-3
3.35418E-3	139.603E-12	600.091E-3	-25.5072E-3	140.325E-12	561.842E-3	-7.23963E-3
3.34917E-3	139.373E-12	597.227E-3	-10.8195E-3	138.413E-12	562.165E-3	-15.0639E-3
3.34417E-3	139.008E-12	594.586E-3	5.34296E-3	137.823E-12	566.338E-3	-17.0990E-3
3.33917E-3	138.734E-12	591.766E-3	10.8346E-3	136.876E-12	543.785E-3	-6.09112E-3
3.33417E-3	137.473E-12	596.925E-3	22.2433E-3	136.004E-12	513.713E-3	5.20228E-3
3.32916E-3	136.927E-12	591.195E-3	31.6164E-3	135.748E-12	522.166E-3	9.08270E-3
3.32416E-3	137.143E-12	565.496E-3	12.0055E-3	135.255E-12	564.356E-3	6.14307E-3
3.31916E-3	136.589E-12	575.673E-3	-21.1502E-3	135.200E-12	592.359E-3	7.25793E-3
3.31416E-3	136.372E-12	603.448E-3	-35.4449E-3	135.174E-12	589.096E-3	-4.84467E-3
3.30915E-3	136.762E-12	589.897E-3	-31.4388E-3	135.267E-12	577.806E-3	-10.3817E-3
3.30415E-3	136.773E-12	570.201E-3	-11.3509E-3	135.500E-12	571.724E-3	-3.62830E-3
3.29915E-3	136.724E-12	570.109E-3	8.53045E-3	136.188E-12	587.333E-3	-5.83326E-3
3.29415E-3	136.497E-12	571.961E-3	-5.52329E-3	137.197E-12	616.507E-3	-8.55755E-3
3.28914E-3	136.650E-12	569.386E-3	-19.0477E-3	137.304E-12	633.520E-3	-21.9036E-3
3.28414E-3	137.105E-12	568.501E-3	1.89737E-3	138.224E-12	625.303E-3	-25.0846E-3
3.27914E-3	136.790E-12	580.758E-3	17.1262E-3	138.973E-12	607.489E-3	-4.98155E-3
3.27414E-3	136.611E-12	597.713E-3	1.08422E-3	139.132E-12	607.560E-3	5.33291E-3
3.26913E-3	136.419E-12	590.597E-3	-13.8830E-3	138.922E-12	608.933E-3	-9.79032E-3
3.26413E-3	136.025E-12	571.503E-3	-28.8107E-3	139.027E-12	593.741E-3	-20.5991E-3
3.25913E-3	135.045E-12	573.787E-3	-35.0948E-3	138.354E-12	581.423E-3	-12.8924E-3
3.25413E-3	134.267E-12	583.732E-3	-15.8055E-3	137.253E-12	587.737E-3	-9.30145E-3
3.24912E-3	134.033E-12	573.425E-3	-26.8484E-3	136.835E-12	606.016E-3	-10.9327E-3
3.24412E-3	132.789E-12	568.579E-3	-40.6254E-3	135.868E-12	613.799E-3	-20.4353E-3
3.23912E-3	132.018E-12	570.641E-3	-14.9427E-3	134.870E-12	607.018E-3	-33.0523E-3
3.23412E-3	131.298E-12	551.761E-3	-639.456E-6	133.441E-12	586.077E-3	-39.3184E-3
3.22911E-3	131.035E-12	553.844E-3	-6.86053E-3	132.382E-12	554.162E-3	-18.9893E-3
3.22411E-3	130.713E-12	569.775E-3	1.51848E-3	131.498E-12	547.241E-3	12.1649E-3
3.21911E-3	130.771E-12	558.121E-3	10.1919E-3	130.584E-12	558.631E-3	13.6527E-3
3.21411E-3	131.346E-12	550.363E-3	3.16047E-3	130.286E-12	563.196E-3	7.54219E-3
3.20910E-3	131.456E-12	557.765E-3	601.833E-6	129.472E-12	585.283E-3	-6.23624E-3
3.20410E-3	131.563E-12	559.052E-3	-14.9358E-3	129.736E-12	593.270E-3	-27.8378E-3
3.19910E-3	131.942E-12	565.199E-3	-49.6726E-3	129.700E-12	554.674E-3	-17.9274E-3
3.19410E-3	133.094E-12	580.462E-3	-53.4154E-3	130.436E-12	542.384E-3	-5.83261E-3
3.18909E-3	132.985E-12	577.451E-3	-19.5135E-3	130.593E-12	569.170E-3	-25.0392E-3
3.18409E-3	132.571E-12	563.412E-3	-9.50440E-3	131.378E-12	585.420E-3	-32.9296E-3
3.17909E-3	132.698E-12	578.007E-3	-9.02770E-3	131.802E-12	591.861E-3	-20.1624E-3
3.17409E-3	132.739E-12	578.924E-3	5.73749E-3	132.698E-12	592.323E-3	-30.9303E-3
3.16908E-3	131.887E-12	558.752E-3	-5.89093E-3	134.054E-12	590.704E-3	-47.6289E-3
3.16408E-3	131.493E-12	561.661E-3	-21.3445E-3	133.519E-12	592.174E-3	-43.8676E-3
3.15908E-3	131.213E-12	565.179E-3	-7.05294E-3	134.002E-12	582.310E-3	-30.9469E-3
3.15408E-3	130.309E-12	563.431E-3	-3.57971E-3	134.267E-12	560.707E-3	-12.0724E-3
3.14907E-3	130.006E-12	563.574E-3	-12.2980E-3	133.806E-12	554.215E-3	-5.53133E-3
3.14407E-3	129.316E-12	564.711E-3	-14.3113E-3	132.444E-12	569.285E-3	-21.4194E-3
3.13907E-3	128.828E-12	563.318E-3	-33.3358E-3	132.069E-12	570.197E-3	-41.9094E-3
3.13407E-3	128.384E-12	561.288E-3	-36.0648E-3	130.657E-12	548.428E-3	-40.1434E-3
3.12906E-3	128.763E-12	565.967E-3	-3.48022E-3	129.640E-12	545.607E-3	-26.2461E-3
3.12406E-3	128.448E-12	563.025E-3	15.5696E-3	127.926E-12	546.039E-3	-19.3605E-3
3.11906E-3	128.391E-12	571.461E-3	1.93410E-3	126.843E-12	532.877E-3	-8.55227E-3
3.11406E-3	128.490E-12	580.404E-3	-16.3833E-3	125.762E-12	542.811E-3	-2.05096E-3
3.10905E-3	128.817E-12	557.639E-3	-16.9008E-3	125.055E-12	554.239E-3	-1.74922E-3
3.10405E-3	128.982E-12	550.961E-3	523.141E-6	124.685E-12	545.313E-3	11.6816E-3
3.09905E-3	128.806E-12	568.733E-3	10.2785E-3	124.749E-12	546.647E-3	18.2578E-3
3.09405E-3	129.184E-12	563.599E-3	1.22171E-3	124.582E-12	559.064E-3	5.53069E-3
3.08904E-3	129.127E-12	552.282E-3	-1.86150E-3	125.546E-12	563.144E-3	-9.42697E-3
3.08404E-3	129.352E-12	552.513E-3	2.88481E-3	125.800E-12	564.913E-3	-23.0850E-3
3.07904E-3	129.146E-12	562.457E-3	-4.04137E-3	127.054E-12	576.891E-3	-27.1753E-3
3.07404E-3	129.244E-12	592.891E-3	-13.7063E-3	128.362E-12	596.637E-3	-19.8913E-3
3.06903E-3	129.213E-12	609.036E-3	-8.59935E-3	129.593E-12	613.496E-3	-10.2817E-3
3.06403E-3	128.746E-12	575.476E-3	-17.4768E-3	130.992E-12	620.080E-3	-3.43774E-3
3.05903E-3	128.280E-12	550.157E-3	-29.1674E-3	131.576E-12	610.981E-3	-2.06265E-3
3.05403E-3	128.044E-12	568.696E-3	-12.8854E-3	131.802E-12	600.438E-3	10.4930E-3
3.04902E-3	127.832E-12	578.889E-3	-2.72976E-3	131.396E-12	602.237E-3	20.9538E-3
3.04402E-3	127.316E-12	562.380E-3	-20.2619E-3	131.450E-12	591.562E-3	19.9151E-3
3.03902E-3	127.027E-12	546.572E-3	-33.3947E-3	130.525E-12	570.548E-3	9.87009E-3
3.03402E-3	127.282E-12	548.177E-3	-24.0837E-3	129.097E-12	574.639E-3	-16.2573E-3
3.02901E-3	126.875E-12	546.895E-3	-11.9625E-3	127.698E-12	576.196E-3	-20.9119E-3
3.02401E-3	126.434E-12	531.167E-3	-15.3776E-3	126.413E-12	566.295E-3	-16.7061E-3
3.01901E-3	126.855E-12	524.137E-3	-34.1122E-3	125.089E-12	560.563E-3	-30.2224E-3
3.01401E-3	126.504E-12	533.923E-3	-50.8425E-3	123.263E-12	551.394E-3	-29.6998E-3
3.00900E-3	126.507E-12	548.770E-3	-33.9639E-3	122.756E-12	559.378E-3	-19.4612E-3
3.00400E-3	125.705E-12	557.543E-3	3.92058E-3	121.294E-12	559.810E-3	-6.99857E-3
2.99900E-3	126.208E-12	567.917E-3	6.99103E-3	121.054E-12	548.697E-3	6.60410E-3
2.99400E-3	125.688E-12	597.237E-3	-12.5346E-3	120.840E-12	559.350E-3	-694.441E-6
2.98899E-3	125.488E-12	614.740E-3	-13.8272E-3	121.705E-12	562.077E-3	-26.0217E-3
2.98399E-3	124.353E-12	603.645E-3	-13.8661E-3	121.301E-12	555.387E-3	-50.0535E-3
2.97899E-3	125.012E-12	587.188E-3	-16.9938E-3	122.496E-12	564.011E-3	-36.5416E-3
2.97399E-3	124.339E-12	570.424E-3	-6.40828E-3	123.773E-12	572.938E-3	-9.59458E-3
2.96898E-3	124.093E-12	566.422E-3	-2.46469E-3	124.634E-12	571.252E-3	-12.1126E-3
2.96398E-3	123.947E-12	578.030E-3	-20.4950E-3	125.587E-12	567.749E-3	-8.50628E-3
2.95898E-3	124.135E-12	591.400E-3	-26.2005E-3	126.157E-12	572.688E-3	-222.281E-6
2.95398E-3	122.961E-12	604.236E-3	-12.1028E-3	126.767E-12	576.352E-3	-9.49982E-3
2.94897E-3	122.367E-12	608.709E-3	971.392E-6	126.589E-12	577.493E-3	-12.5227E-3
2.94397E-3	121.960E-12	592.392E-3	-1.01915E-3	126.229E-12	581.592E-3	-6.58681E-3
2.93897E-3	121.470E-12	566.320E-3	-27.1124E-3	125.970E-12	577.868E-3	-29.5287E-3
2.93397E-3	120.656E-12	560.094E-3	-41.5530E-3	125.385E-12	574.518E-3	-51.0568E-3
2.92896E-3	119.734E-12	551.616E-3	-34.0913E-3	124.529E-12	590.573E-3	-39.6106E-3
2.92396E-3	119.333E-12	533.347E-3	-29.6537E-3	123.824E-12	598.795E-3	-31.1724E-3
2.91896E-3	118.845E-12	538.501E-3	-31.1367E-3	122.940E-12	574.017E-3	-31.9569E-3
2.91396E-3	118.299E-12	543.428E-3	-45.4816E-3	121.799E-12	558.921E-3	-24.0528E-3
2.90895E-3	118.235E-12	531.782E-3	-74.4523E-3	121.295E-12	563.375E-3	-14.4446E-3
2.90395E-3	118.126E-12	529.327E-3	-72.3732E-3	120.864E-12	556.204E-3	-11.1295E-3
2.89895E-3	118.282E-12	525.130E-3	-46.0843E-3	120.213E-12	546.760E-3	1.95234E-3
2.89395E-3	118.590E-12	522.138E-3	-42.7426E-3	119.686E-12	559.713E-3	8.94647E-3
2.88894E-3	119.180E-12	545.219E-3	-52.5834E-3	119.373E-12	588.982E-3	3.37961E-3
2.88394E-3	119.082E-12	547.039E-3	-41.9800E-3	119.060E-12	602.314E-3	-259.417E-6
2.87894E-3	119.571E-12	532.852E-3	-20.5182E-3	119.186E-12	599.702E-3	-12.2828E-3
2.87394E-3	119.913E-12	561.342E-3	-10.7478E-3	119.125E-12	592.601E-3	-24.3830E-3
2.86893E-3	119.923E-12	592.430E-3	-1.30187E-3	119.206E-12	588.619E-3	-26.1201E-3
2.86393E-3	120.598E-12	581.216E-3	-7.18463E-3	119.580E-12	585.814E-3	-26.7140E-3
2.85893E-3	120.653E-12	565.146E-3	-23.4289E-3	119.862E-12	574.064E-3	-17.6512E-3
2.85393E-3	120.954E-12	560.135E-3	-24.4387E-3	119.164E-12	580.120E-3	1.37826E-3
2.84892E-3	121.321E-12	555.982E-3	-35.6117E-3	119.970E-12	599.584E-3	-6.46527E-3
2.84392E-3	120.564E-12	563.170E-3	-43.0083E-3	120.434E-12	613.485E-3	-32.1408E-3
2.83892E-3	120.008E-12	582.089E-3	-28.9517E-3	120.065E-12	617.465E-3	-28.4252E-3
2.83392E-3	119.536E-12	597.716E-3	-37.2487E-3	120.397E-12	594.545E-3	-9.27610E-3
2.82891E-3	118.850E-12	596.165E-3	-51.0462E-3	120.532E-12	559.231E-3	-8.59129E-3
2.82391E-3	117.962E-12	574.439E-3	-27.1250E-3	120.044E-12	536.026E-3	-7.88549E-3
2.81891E-3	117.296E-12	556.255E-3	-4.14881E-3	119.644E-12	548.910E-3	-3.31108E-3
2.81391E-3	116.789E-12	576.676E-3	-23.2284E-3	119.180E-12	576.320E-3	-7.81974E-3
2.80890E-3	115.981E-12	603.140E-3	-34.5187E-3	118.425E-12	581.686E-3	-17.9572E-3
2.80390E-3	116.158E-12	580.332E-3	-13.6834E-3	117.894E-12	586.931E-3	-37.5434E-3
2.79890E-3	115.695E-12	552.853E-3	-5.03048E-3	116.945E-12	581.713E-3	-51.3260E-3
2.79390E-3	115.481E-12	575.434E-3	-11.2663E-3	116.365E-12	562.923E-3	-41.5375E-3
2.78889E-3	115.984E-12	581.618E-3	-12.7992E-3	115.718E-12	556.183E-3	-16.8521E-3
2.78389E-3	116.637E-12	564.571E-3	-17.2324E-3	115.099E-12	553.754E-3	393.799E-6
2.77889E-3	116.946E-12	577.929E-3	-17.2659E-3	114.322E-12	561.700E-3	-10.5672E-3
2.77389E-3	117.532E-12	587.217E-3	-17.3546E-3	113.896E-12	584.571E-3	-32.5994E-3
2.76888E-3	118.313E-12	577.573E-3	-43.4400E-3	113.639E-12	590.094E-3	-33.3267E-3
2.76388E-3	118.694E-12	584.955E-3	-57.7917E-3	113.635E-12	570.497E-3	-25.3579E-3
2.75888E-3	118.902E-12	599.347E-3	-31.1676E-3	114.455E-12	557.493E-3	-29.2474E-3
2.75388E-3	119.052E-12	596.298E-3	-22.7805E-3	114.756E-12	561.130E-3	-25.8147E-3
2.74887E-3	118.766E-12	588.457E-3	-39.3637E-3	115.578E-12	582.923E-3	-16.4233E-3
2.74387E-3	118.574E-12	591.242E-3	-37.4247E-3	116.210E-12	609.992E-3	-25.9510E-3
2.73887E-3	118.123E-12	604.644E-3	-33.8948E-3	117.276E-12	604.651E-3	-34.3058E-3
2.73387E-3	116.795E-12	627.937E-3	-30.6625E-3	117.686E-12	585.262E-3	-26.0848E-3
2.72886E-3	116.129E-12	631.791E-3	-28.1340E-3	117.621E-12	586.946E-3	-13.1150E-3
2.72386E-3	115.796E-12	605.512E-3	-29.9636E-3	117.750E-12	597.158E-3	-3.95398E-3
2.71886E-3	114.821E-12	589.724E-3	-26.7252E-3	117.811E-12	611.012E-3	-9.83276E-3
2.71386E-3	113.677E-12	583.786E-3	-13.8342E-3	117.392E-12	615.178E-3	-16.9809E-3
2.70885E-3	113.360E-12	582.600E-3	-11.8037E-3	116.366E-12	587.427E-3	-19.4991E-3
2.70385E-3	113.208E-12	595.606E-3	-35.6317E-3	115.609E-12	564.092E-3	-25.1053E-3
2.69885E-3	112.412E-12	599.658E-3	-31.0950E-3	114.515E-12	572.526E-3	-28.2531E-3
2.69385E-3	112.293E-12	584.968E-3	-8.01941E-3	112.931E-12	578.985E-3	-30.9463E-3
2.68884E-3	111.932E-12	582.304E-3	-14.6040E-3	111.533E-12	566.836E-3	-25.4173E-3
2.68384E-3	111.996E-12	604.782E-3	-16.8040E-3	110.401E-12	553.041E-3	-23.9254E-3
2.67884E-3	111.721E-12	610.052E-3	-8.49650E-3	109.934E-12	545.970E-3	-24.3378E-3
2.67384E-3	112.178E-12	592.173E-3	-10.7392E-3	109.361E-12	545.767E-3	-7.03366E-3
2.66883E-3	112.382E-12	584.569E-3	-5.15262E-3	109.012E-12	562.261E-3	-1.61024E-3
2.66383E-3	112.276E-12	572.790E-3	-7.79386E-3	108.650E-12	575.727E-3	-13.2100E-3
2.65883E-3	112.202E-12	567.909E-3	-21.7063E-3	109.431E-12	572.574E-3	-12.3805E-3
2.65383E-3	112.227E-12	579.351E-3	-7.49547E-3	110.162E-12	580.224E-3	-6.74820E-3
2.64882E-3	111.898E-12	580.148E-3	9.39070E-3	111.102E-12	586.295E-3	-18.2364E-3
2.64382E-3	111.364E-12	590.196E-3	989.250E-6	111.560E-12	590.332E-3	-23.5004E-3
2.63882E-3	110.803E-12	602.009E-3	-15.0602E-3	112.687E-12	614.438E-3	-27.6583E-3
2.63382E-3	110.466E-12	588.063E-3	-23.3245E-3	113.294E-12	616.992E-3	-53.0498E-3
2.62881E-3	109.784E-12	573.666E-3	-26.5698E-3	114.499E-12	602.428E-3	-56.0103E-3
2.62381E-3	109.485E-12	566.239E-3	-27.7055E-3	114.647E-12	614.440E-3	-34.6141E-3
2.61881E-3	108.693E-12	543.204E-3	-20.1198E-3	114.415E-12	624.641E-3	-33.4784E-3
2.61381E-3	108.331E-12	533.911E-3	-30.6048E-3	113.969E-12	613.315E-3	-34.5529E-3
2.60880E-3	108.038E-12	566.691E-3	-46.0552E-3	113.176E-12	595.362E-3	-18.7538E-3
2.60380E-3	107.785E-12	580.241E-3	-29.9500E-3	112.494E-12	590.946E-3	-23.3883E-3
2.59880E-3	107.414E-12	559.780E-3	-17.9042E-3	110.073E-12	592.195E-3	-41.3816E-3
2.59380E-3	107.136E-12	551.110E-3	-7.84924E-3	108.789E-12	573.530E-3	-36.2914E-3
2.58879E-3	107.065E-12	559.114E-3	8.58502E-3	107.565E-12	563.365E-3	-36.4269E-3
2.58379E-3	107.079E-12	569.104E-3	-8.57157E-3	106.653E-12	573.048E-3	-46.9879E-3
2.57879E-3	107.727E-12	572.682E-3	-30.6217E-3	105.413E-12	576.867E-3	-36.7944E-3
2.57379E-3	107.851E-12	572.555E-3	-21.5635E-3	104.212E-12	579.361E-3	-21.8470E-3
2.56878E-3	107.934E-12	584.816E-3	-8.26909E-3	104.319E-12	577.031E-3	-21.5842E-3
2.56378E-3	108.095E-12	593.447E-3	-10.7617E-3	104.217E-12	575.846E-3	-17.1027E-3
2.55878E-3	107.810E-12	571.531E-3	-25.7663E-3	104.868E-12	587.506E-3	-4.67466E-3
2.55378E-3	108.249E-12	566.709E-3	-35.3652E-3	104.915E-12	590.467E-3	-13.5988E-3
2.54877E-3	108.453E-12	601.716E-3	-14.0119E-3	105.602E-12	597.329E-3	-29.0342E-3
2.54377E-3	108.434E-12	620.391E-3	21.4577E-3	106.574E-12	612.840E-3	-18.7438E-3
2.53877E-3	108.063E-12	612.951E-3	19.0349E-3	107.447E-12	616.429E-3	-2.25980E-3
2.53377E-3	107.976E-12	615.686E-3	-658.125E-6	108.422E-12	612.483E-3	-3.31791E-3
2.52876E-3	107.757E-12	613.357E-3	-2.43947E-3	108.406E-12	606.590E-3	-11.4559E-3
2.52376E-3	107.636E-12	584.995E-3	-6.87858E-3	108.929E-12	599.257E-3	-14.8543E-3
2.51876E-3	107.132E-12	572.857E-3	-10.1789E-3	109.267E-12	584.840E-3	-20.6690E-3
2.51376E-3	106.829E-12	591.174E-3	12.4724E-3	108.582E-12	578.258E-3	-22.7515E-3
2.50875E-3	106.625E-12	595.405E-3	14.6541E-3	107.705E-12	593.587E-3	-22.0275E-3
2.50375E-3	105.976E-12	586.621E-3	-14.9792E-3	107.520E-12	603.646E-3	-31.9063E-3
2.49875E-3	105.292E-12	584.459E-3	-21.3338E-3	106.739E-12	605.258E-3	-35.7637E-3
2.49375E-3	105.127E-12	575.334E-3	-17.1108E-3	105.661E-12	602.708E-3	-38.4741E-3
2.48874E-3	104.999E-12	576.771E-3	-18.3398E-3	104.919E-12	590.280E-3	-30.0354E-3
2.48374E-3	104.609E-12	594.409E-3	-8.02659E-3	104.159E-12	576.199E-3	-5.76161E-3
2.47874E-3	104.349E-12	597.280E-3	-2.56646E-3	103.608E-12	580.886E-3	-8.57776E-3
2.47374E-3	104.538E-12	601.005E-3	-14.1685E-3	103.096E-12	607.665E-3	-29.5527E-3
2.46873E-3	104.460E-12	602.407E-3	-15.2777E-3	102.871E-12	621.564E-3	-33.7502E-3
2.46373E-3	104.053E-12	581.754E-3	-6.08885E-3	102.100E-12	609.757E-3	-29.7919E-3
2.45873E-3	104.320E-12	578.403E-3	-5.79708E-3	101.899E-12	583.715E-3	-26.2046E-3
2.45373E-3	104.363E-12	595.092E-3	-18.6923E-3	102.150E-12	574.729E-3	-5.10867E-3
2.44872E-3	104.190E-12	596.717E-3	-26.6171E-3	102.242E-12	597.004E-3	9.21610E-3
2.44372E-3	104.033E-12	590.054E-3	-10.7332E-3	102.490E-12	602.305E-3	1.02919E-3
2.43872E-3	103.842E-12	593.277E-3	-1.22488E-3	102.292E-12	593.373E-3	2.33549E-3
2.43372E-3	103.805E-12	591.630E-3	-10.2411E-3	102.567E-12	601.328E-3	3.50955E-3
2.42871E-3	104.020E-12	589.329E-3	-20.4474E-3	103.262E-12	600.919E-3	-7.93350E-3
2.42371E-3	103.868E-12	596.965E-3	-23.0478E-3	103.418E-12	590.847E-3	-14.3579E-3
2.41871E-3	103.673E-12	596.925E-3	-16.0027E-3	103.082E-12	598.282E-3	-20.9813E-3
2.41371E-3	103.069E-12	599.517E-3	-13.9334E-3	103.390E-12	619.037E-3	-12.3315E-3
2.40870E-3	102.880E-12	603.539E-3	-14.7216E-3	103.421E-12	629.056E-3	4.91921E-3
2.40370E-3	102.654E-12	597.541E-3	-17.6580E-3	103.443E-12	618.270E-3	-7.65070E-3
2.39870E-3	102.338E-12	604.812E-3	-23.4313E-3	103.520E-12	594.398E-3	-18.5298E-3
2.39370E-3	101.599E-12	617.393E-3	-14.9368E-3	103.163E-12	586.441E-3	-12.1243E-3
2.38869E-3	100.785E-12	604.454E-3	-8.87264E-3	102.505E-12	606.557E-3	-15.7339E-3
2.38369E-3	99.8683E-12	580.006E-3	-18.9229E-3	101.896E-12	616.753E-3	-29.4805E-3
2.37869E-3	99.9317E-12	591.574E-3	-16.7325E-3	101.533E-12	603.786E-3	-33.3928E-3
2.37369E-3	99.0697E-12	619.572E-3	3.92857E-3	101.101E-12	596.271E-3	-25.6084E-3
2.36868E-3	98.6553E-12	610.447E-3	1.30773E-3	100.278E-12	599.369E-3	-22.8806E-3
2.36368E-3	98.7376E-12	592.831E-3	-21.0271E-3	99.3656E-12	595.016E-3	-23.3795E-3
2.35868E-3	98.7867E-12	584.047E-3	-12.3627E-3	99.0518E-12	580.071E-3	-17.5331E-3
2.35368E-3	98.4988E-12	563.831E-3	-1.38442E-3	98.9180E-12	577.961E-3	-2.99050E-3
2.34867E-3	98.5403E-12	560.296E-3	-15.4364E-3	98.0480E-12	583.924E-3	2.59731E-3
2.34367E-3	98.3242E-12	574.642E-3	-22.2003E-3	97.6873E-12	583.014E-3	-14.6473E-3
2.33867E-3	98.7687E-12	578.217E-3	-14.4315E-3	97.6756E-12	583.959E-3	-21.6976E-3
2.33367E-3	98.3623E-12	587.386E-3	-17.5459E-3	97.5191E-12	577.610E-3	1.62752E-3
2.32866E-3	98.9062E-12	595.114E-3	-24.6510E-3	97.8520E-12	576.087E-3	14.5271E-3
2.32366E-3	98.8479E-12	593.002E-3	-26.7494E-3	97.7588E-12	584.055E-3	-13.5099E-3
2.31866E-3	98.5598E-12	591.376E-3	-33.4845E-3	98.5698E-12	598.824E-3	-44.3002E-3
2.31366E-3	98.6838E-12	586.933E-3	-29.1659E-3	98.8477E-12	627.663E-3	-34.1071E-3
2.30865E-3	98.7575E-12	584.055E-3	-13.8545E-3	99.2660E-12	639.243E-3	-2.00456E-3
2.30365E-3	98.4871E-12	596.429E-3	-10.3550E-3	100.061E-12	617.084E-3	20.2847E-3
2.29865E-3	97.8072E-12	613.348E-3	-11.5816E-3	100.108E-12	601.184E-3	13.5472E-3
2.29365E-3	97.1117E-12	607.803E-3	-7.45205E-3	100.245E-12	606.990E-3	-22.1579E-3
2.28864E-3	96.5524E-12	594.167E-3	-8.30504E-3	99.9024E-12	601.113E-3	-36.3327E-3
2.28364E-3	95.7989E-12	584.813E-3	-6.40136E-3	100.012E-12	592.906E-3	-17.4883E-3
2.27864E-3	95.3552E-12	563.333E-3	-17.0027E-3	99.1378E-12	591.816E-3	-7.90155E-3
2.27364E-3	95.0443E-12	551.283E-3	-43.5368E-3	98.0826E-12	577.708E-3	-12.9306E-3
2.26863E-3	95.1090E-12	573.095E-3	-37.2359E-3	97.0230E-12	562.889E-3	-13.4662E-3
2.26363E-3	94.8367E-12	590.407E-3	-20.7156E-3	96.3850E-12	558.473E-3	-8.54012E-3
2.25863E-3	95.1648E-12	586.814E-3	-34.9158E-3	95.1805E-12	562.438E-3	-8.40467E-3
2.25363E-3	95.5965E-12	588.226E-3	-39.3542E-3	93.6272E-12	571.015E-3	-16.9753E-3
2.24862E-3	95.2639E-12	587.099E-3	-27.5824E-3	93.3104E-12	571.696E-3	-30.0919E-3
2.24362E-3	95.6261E-12	571.415E-3	-31.1341E-3	93.0381E-12	582.092E-3	-42.1236E-3
2.23862E-3	95.6762E-12	567.303E-3	-22.5427E-3	92.6931E-12	602.385E-3	-51.5918E-3
2.23362E-3	95.9394E-12	573.741E-3	-4.79071E-3	92.5399E-12	601.820E-3	-43.9976E-3
2.22861E-3	95.9280E-12	576.138E-3	-14.8013E-3	93.4907E-12	591.748E-3	-15.7816E-3
2.22361E-3	95.9386E-12	579.769E-3	-23.2967E-3	93.9921E-12	585.294E-3	-4.12429E-3
2.21861E-3	96.1078E-12	582.239E-3	-5.26612E-3	94.2303E-12	586.777E-3	-22.8290E-3
2.21361E-3	95.5724E-12	602.331E-3	-5.43661E-3	95.2541E-12	589.771E-3	-37.7749E-3
2.20860E-3	95.0801E-12	621.093E-3	-27.9607E-3	95.7575E-12	587.097E-3	-31.8277E-3
2.20360E-3	94.7360E-12	602.621E-3	-20.7458E-3	96.4348E-12	594.066E-3	-24.9328E-3
2.19860E-3	94.3223E-12	584.803E-3	-4.31124E-3	96.5921E-12	594.706E-3	-23.1636E-3
2.19360E-3	93.7807E-12	588.634E-3	-5.73108E-3	97.0745E-12	594.452E-3	-17.1884E-3
2.18859E-3	93.0340E-12	582.638E-3	-1.49860E-3	96.2689E-12	601.978E-3	-20.7407E-3
2.18359E-3	92.8102E-12	583.009E-3	505.616E-6	95.7970E-12	598.892E-3	-34.8401E-3
2.17859E-3	92.7636E-12	609.103E-3	-12.9107E-3	95.0962E-12	596.051E-3	-30.3125E-3
2.17359E-3	92.4160E-12	614.583E-3	-35.6471E-3	94.6132E-12	592.110E-3	-25.2608E-3
2.16858E-3	92.3355E-12	590.925E-3	-51.0220E-3	92.6524E-12	569.599E-3	-43.0727E-3
2.16358E-3	92.2723E-12	586.724E-3	-48.9786E-3	91.7240E-12	560.981E-3	-49.9536E-3
2.15858E-3	92.1841E-12	594.340E-3	-32.2155E-3	91.0755E-12	591.071E-3	-31.7719E-3
2.15358E-3	92.3225E-12	592.624E-3	-11.4656E-3	90.1770E-12	604.022E-3	-3.20449E-3
2.14857E-3	92.7224E-12	597.708E-3	-17.2549E-3	89.1226E-12	582.989E-3	11.7393E-3
2.14357E-3	93.0790E-12	597.960E-3	-36.1136E-3	89.0215E-12	571.160E-3	869.629E-6
2.13857E-3	92.7159E-12	575.998E-3	-38.0895E-3	88.7754E-12	579.716E-3	-6.41403E-3
2.13357E-3	92.3052E-12	568.193E-3	-29.4833E-3	88.7512E-12	586.980E-3	-1.87284E-3
2.12856E-3	92.2599E-12	584.001E-3	-16.0700E-3	89.0822E-12	583.307E-3	-2.54775E-3
2.12356E-3	92.0205E-12	583.243E-3	-17.4064E-3	89.2395E-12	580.080E-3	-2.24008E-3
2.11856E-3	91.2678E-12	587.148E-3	-35.1649E-3	89.7826E-12	575.069E-3	-5.48602E-3
2.11356E-3	90.8397E-12	611.873E-3	-37.6889E-3	89.9897E-12	575.520E-3	-11.7151E-3
2.10855E-3	90.1463E-12	617.255E-3	-25.5977E-3	90.6207E-12	588.127E-3	-1.05895E-3
2.10355E-3	89.4388E-12	606.498E-3	-27.8455E-3	90.8033E-12	593.554E-3	2.06900E-3
2.09855E-3	89.3637E-12	600.663E-3	-29.8350E-3	91.0748E-12	594.222E-3	-6.82531E-3
2.09355E-3	88.4722E-12	595.831E-3	-30.5767E-3	90.9750E-12	594.489E-3	529.664E-6
2.08854E-3	88.3518E-12	594.051E-3	-46.5742E-3	90.7464E-12	582.980E-3	1.00203E-3
2.08354E-3	87.7661E-12	594.639E-3	-41.3116E-3	90.6465E-12	584.884E-3	-10.9307E-3
2.07854E-3	87.8977E-12	582.773E-3	-23.0667E-3	89.8426E-12	596.920E-3	-8.94720E-3
2.07354E-3	87.3952E-12	572.898E-3	-16.7673E-3	88.9720E-12	586.676E-3	-20.4655E-3
2.06853E-3	87.5805E-12	578.050E-3	-8.84215E-3	88.4579E-12	576.567E-3	-37.5506E-3
2.06353E-3	87.0040E-12	585.348E-3	201.834E-6	87.9083E-12	577.848E-3	-24.2596E-3
2.05853E-3	87.2363E-12	595.381E-3	-3.80137E-3	86.9609E-12	579.598E-3	-6.54075E-3
2.05353E-3	87.2258E-12	600.928E-3	-14.6460E-3	86.7062E-12	583.632E-3	3.06854E-3
2.04852E-3	86.9181E-12	585.760E-3	-19.5679E-3	86.5759E-12	581.609E-3	10.8433E-3
2.04352E-3	86.4290E-12	570.996E-3	-29.9235E-3	86.2921E-12	576.228E-3	6.53590E-3
2.03852E-3	86.3782E-12	574.619E-3	-33.2110E-3	86.1645E-12	579.300E-3	-8.17054E-3
2.03352E-3	86.4386E-12	578.416E-3	-21.7338E-3	86.3318E-12	577.477E-3	-6.47277E-3
2.02851E-3	85.7217E-12	581.392E-3	-29.6813E-3	86.6173E-12	567.460E-3	11.4663E-3
2.02351E-3	85.8294E-12	589.654E-3	-53.1030E-3	86.6884E-12	569.682E-3	11.9381E-3
2.01851E-3	85.3929E-12	594.721E-3	-54.3871E-3	86.5268E-12	586.011E-3	485.177E-6
2.01351E-3	85.2837E-12	590.797E-3	-32.5749E-3	86.6325E-12	595.117E-3	-12.3605E-3
2.00850E-3	85.6110E-12	588.063E-3	-7.89313E-3	87.0458E-12	587.562E-3	-22.4168E-3
2.00350E-3	85.5023E-12	572.282E-3	-8.02262E-3	86.3131E-12	586.305E-3	-23.4666E-3
1.99850E-3	85.2890E-12	556.145E-3	-30.2859E-3	86.3778E-12	593.877E-3	-17.7101E-3
1.99350E-3	85.0106E-12	573.259E-3	-35.4694E-3	85.9906E-12	605.985E-3	-9.92127E-3
1.98849E-3	85.4160E-12	599.532E-3	-25.7423E-3	85.9143E-12	628.329E-3	-12.7443E-3
1.98349E-3	85.2709E-12	613.609E-3	-28.8873E-3	85.8763E-12	624.290E-3	-30.9993E-3
1.97849E-3	85.2021E-12	616.227E-3	-37.1254E-3	85.4892E-12	593.766E-3	-22.9290E-3
1.97349E-3	85.1521E-12	603.117E-3	-26.1478E-3	85.1153E-12	588.818E-3	-137.887E-6
1.96848E-3	84.9919E-12	574.116E-3	-16.4538E-3	84.6242E-12	594.751E-3	-21.8730E-3
1.96348E-3	85.2197E-12	566.209E-3	-22.3941E-3	84.8897E-12	592.912E-3	-39.1304E-3
1.95848E-3	85.0169E-12	593.885E-3	-22.3733E-3	84.6182E-12	611.587E-3	-20.7384E-3
1.95348E-3	84.5014E-12	607.819E-3	-23.0409E-3	84.2716E-12	633.400E-3	-9.48322E-3
1.94847E-3	84.0080E-12	603.112E-3	-24.7049E-3	83.9894E-12	611.785E-3	-8.38831E-3
1.94347E-3	83.8508E-12	591.466E-3	-8.39563E-3	84.0853E-12	580.920E-3	-14.0160E-3
1.93847E-3	83.5425E-12	568.046E-3	3.29768E-3	83.6233E-12	585.180E-3	-24.5539E-3
1.93347E-3	83.0778E-12	567.093E-3	-6.42643E-3	83.6172E-12	592.606E-3	-15.9738E-3
1.92846E-3	82.9777E-12	579.206E-3	-4.77699E-3	82.9813E-12	591.054E-3	-4.33158E-3
1.92346E-3	82.7064E-12	579.403E-3	10.8240E-3	82.6225E-12	595.957E-3	-20.0315E-3
1.91846E-3	82.7128E-12	587.802E-3	6.26985E-3	82.3790E-12	603.041E-3	-27.2486E-3
1.91346E-3	82.6418E-12	595.931E-3	-7.16118E-3	82.0821E-12	606.636E-3	-13.8167E-3
1.90845E-3	82.8281E-12	601.009E-3	-15.5845E-3	82.0393E-12	606.598E-3	-18.4081E-3
1.90345E-3	82.5687E-12	619.365E-3	-20.3887E-3	81.7032E-12	600.325E-3	-25.2063E-3
1.89845E-3	82.3787E-12	630.681E-3	-13.4578E-3	81.5286E-12	586.195E-3	-6.06226E-3
1.89345E-3	82.7717E-12	619.032E-3	-1.43359E-3	81.3387E-12	581.315E-3	11.7137E-3
1.88844E-3	82.5726E-12	612.327E-3	2.23097E-3	81.0115E-12	587.807E-3	3.91450E-3
1.88344E-3	82.2036E-12	621.364E-3	-6.70236E-3	81.1521E-12	599.020E-3	-7.94476E-3
1.87844E-3	82.1313E-12	627.650E-3	-14.2064E-3	81.0386E-12	612.314E-3	-8.37377E-3
1.87344E-3	81.7623E-12	635.888E-3	-18.7850E-3	81.3316E-12	598.203E-3	-4.67550E-3
1.86843E-3	81.0942E-12	635.347E-3	-29.6628E-3	81.1996E-12	585.669E-3	-7.61640E-3
1.86343E-3	80.4918E-12	606.129E-3	-36.2784E-3	81.0803E-12	604.439E-3	-31.3681E-3
1.85843E-3	80.0253E-12	590.293E-3	-30.7268E-3	80.6900E-12	615.322E-3	-50.6031E-3
1.85343E-3	78.9944E-12	600.946E-3	-15.6132E-3	80.6927E-12	618.280E-3	-38.8314E-3
1.84842E-3	78.9732E-12	598.455E-3	-3.74394E-3	80.2226E-12	615.841E-3	-14.0566E-3
1.84342E-3	78.4962E-12	584.918E-3	-18.7530E-3	79.6071E-12	596.923E-3	-3.81416E-3
1.83842E-3	78.2541E-12	577.714E-3	-28.5031E-3	78.6852E-12	580.001E-3	-8.68342E-3
1.83342E-3	77.9131E-12	575.754E-3	-11.0683E-3	78.1687E-12	582.362E-3	-7.26335E-3
1.82841E-3	78.3151E-12	586.244E-3	-7.57108E-3	77.8601E-12	590.752E-3	-7.62919E-3
1.82341E-3	78.1200E-12	612.420E-3	-12.4241E-3	76.8617E-12	578.264E-3	-18.1865E-3
1.81841E-3	77.9879E-12	627.774E-3	-13.5126E-3	75.8652E-12	576.120E-3	-27.1318E-3
1.81341E-3	78.1773E-12	612.871E-3	-14.3818E-3	75.8304E-12	594.431E-3	-38.7742E-3
1.80840E-3	78.1549E-12	600.924E-3	-6.42865E-3	76.2997E-12	594.337E-3	-49.0738E-3
1.80340E-3	78.0237E-12	603.813E-3	7.71462E-3	75.6591E-12	599.096E-3	-34.1686E-3
1.79840E-3	77.7006E-12	598.479E-3	10.0678E-3	75.6570E-12	619.472E-3	-15.8468E-3
1.79340E-3	78.0147E-12	600.764E-3	8.90106E-3	76.2876E-12	612.028E-3	-7.85827E-3
1.78839E-3	77.6272E-12	607.712E-3	16.5071E-3	76.8767E-12	594.745E-3	-2.52440E-3
1.78339E-3	76.9507E-12	600.269E-3	7.81014E-3	76.9547E-12	596.377E-3	-11.5931E-3
1.77839E-3	76.6728E-12	593.478E-3	-16.0595E-3	77.7277E-12	600.097E-3	-23.0652E-3
1.77339E-3	76.1977E-12	593.851E-3	-21.7042E-3	78.1892E-12	603.609E-3	-30.7210E-3
1.76838E-3	75.6374E-12	600.856E-3	-11.0474E-3	77.7032E-12	600.249E-3	-26.7274E-3
1.76338E-3	75.2689E-12	613.201E-3	-4.44223E-3	78.0387E-12	586.616E-3	-7.74024E-3
1.75838E-3	74.6602E-12	607.985E-3	-823.635E-6	77.7894E-12	588.008E-3	4.41848E-3
1.75338E-3	74.1233E-12	596.230E-3	-12.1772E-3	77.1661E-12	605.875E-3	8.49731E-3
1.74837E-3	74.3747E-12	598.036E-3	-29.0766E-3	76.4123E-12	600.740E-3	1.24809E-3
1.74337E-3	74.2271E-12	600.403E-3	-24.6964E-3	75.6604E-12	576.490E-3	-18.6043E-3
1.73837E-3	73.9767E-12	596.658E-3	-20.7770E-3	74.7920E-12	568.814E-3	-35.5025E-3
1.73337E-3	74.5951E-12	590.918E-3	-25.5220E-3	73.8384E-12	572.497E-3	-42.4184E-3
1.72836E-3	74.6157E-12	589.192E-3	-14.8063E-3	73.3943E-12	574.739E-3	-34.5459E-3
1.72336E-3	74.8805E-12	596.349E-3	-6.61431E-3	72.9531E-12	578.405E-3	-18.8373E-3
1.71836E-3	74.8664E-12	598.958E-3	-14.9497E-3	72.9417E-12	578.462E-3	-4.03324E-3
1.71336E-3	75.1254E-12	596.243E-3	-11.8955E-3	72.2036E-12	584.566E-3	-1.69948E-3
1.70835E-3	75.0573E-12	596.700E-3	3.28167E-3	72.2477E-12	610.995E-3	-5.61052E-3
1.70335E-3	74.7341E-12	591.918E-3	-2.10365E-3	72.5072E-12	626.862E-3	1.30843E-3
1.69835E-3	74.6465E-12	600.401E-3	-23.0084E-3	72.4780E-12	619.718E-3	10.3820E-3
1.69335E-3	74.3577E-12	615.662E-3	-26.4361E-3	72.3890E-12	618.800E-3	10.6625E-3
1.68834E-3	74.0438E-12	620.900E-3	-24.1598E-3	72.6959E-12	625.660E-3	-1.31524E-3
1.68334E-3	73.4804E-12	626.701E-3	-22.0656E-3	73.0668E-12	629.671E-3	-14.7995E-3
1.67834E-3	73.2933E-12	621.280E-3	-21.1365E-3	73.3550E-12	633.324E-3	-19.1214E-3
1.67334E-3	72.8709E-12	602.598E-3	-27.9839E-3	73.0814E-12	622.608E-3	-26.1744E-3
1.66833E-3	72.5156E-12	587.664E-3	-20.7672E-3	72.9986E-12	603.962E-3	-26.9022E-3
1.66333E-3	72.0332E-12	577.404E-3	-17.4055E-3	73.0284E-12	602.816E-3	-26.2537E-3
1.65833E-3	71.9936E-12	581.847E-3	-32.8940E-3	72.5853E-12	597.109E-3	-43.9274E-3
1.65333E-3	71.5781E-12	603.735E-3	-28.2528E-3	72.1751E-12	582.834E-3	-46.3489E-3
1.64832E-3	71.2643E-12	610.385E-3	-261.919E-6	71.6288E-12	594.006E-3	-17.2452E-3
1.64332E-3	71.3252E-12	599.861E-3	5.99170E-3	71.0978E-12	606.117E-3	1.36278E-3
1.63832E-3	71.5796E-12	598.980E-3	-12.7375E-3	71.0938E-12	597.820E-3	-2.39195E-3
1.63332E-3	71.4303E-12	599.491E-3	-25.7708E-3	70.5431E-12	591.551E-3	-4.01066E-3
1.62831E-3	71.2933E-12	587.337E-3	-33.4772E-3	70.5189E-12	590.787E-3	-19.2831E-3
1.62331E-3	71.3876E-12	577.309E-3	-39.3205E-3	69.4626E-12	592.597E-3	-29.6619E-3
1.61831E-3	71.1895E-12	579.917E-3	-31.9562E-3	69.8513E-12	602.240E-3	-11.2212E-3
1.61331E-3	71.1148E-12	595.669E-3	-29.1729E-3	69.8323E-12	609.597E-3	-3.96839E-3
1.60830E-3	70.3897E-12	616.628E-3	-27.4770E-3	69.7772E-12	606.980E-3	-12.4539E-3
1.60330E-3	70.1551E-12	624.317E-3	-9.70204E-3	69.1439E-12	621.617E-3	-20.2494E-3
1.59830E-3	69.8214E-12	618.609E-3	-3.72110E-3	69.4652E-12	641.037E-3	-35.3430E-3
1.59330E-3	69.2992E-12	621.081E-3	-8.67530E-3	69.5635E-12	634.254E-3	-41.6210E-3
1.58829E-3	69.1178E-12	618.110E-3	-6.90867E-3	69.6995E-12	623.413E-3	-22.0110E-3
1.58329E-3	68.8461E-12	603.383E-3	-13.7885E-3	69.3559E-12	620.097E-3	-5.87424E-3
1.57829E-3	68.7163E-12	604.556E-3	-26.0487E-3	68.9165E-12	614.541E-3	-4.42875E-3
1.57329E-3	68.5772E-12	603.808E-3	-15.8577E-3	68.8989E-12	615.093E-3	-2.75930E-3
1.56828E-3	68.4220E-12	597.081E-3	-2.75335E-3	68.9680E-12	614.755E-3	-13.7038E-3
1.56328E-3	68.0307E-12	614.923E-3	-13.9828E-3	68.6358E-12	599.857E-3	-31.2934E-3
1.55828E-3	68.2001E-12	635.022E-3	-28.4696E-3	67.8891E-12	593.942E-3	-33.1915E-3
1.55328E-3	68.2577E-12	626.182E-3	-36.8304E-3	67.5261E-12	602.395E-3	-32.3096E-3
1.54827E-3	68.0891E-12	613.785E-3	-33.6106E-3	67.4157E-12	609.369E-3	-31.2500E-3
1.54327E-3	67.9285E-12	621.495E-3	-8.99288E-3	67.3495E-12	618.543E-3	-25.0266E-3
1.53827E-3	67.6781E-12	634.325E-3	13.1010E-3	67.1070E-12	618.012E-3	-20.4418E-3
1.53327E-3	67.6954E-12	640.934E-3	5.45784E-3	66.5450E-12	598.369E-3	-20.3073E-3
1.52826E-3	67.4366E-12	635.365E-3	-6.50361E-3	66.6567E-12	589.839E-3	-26.5390E-3
1.52326E-3	66.7434E-12	614.360E-3	4.27730E-3	66.8209E-12	611.804E-3	-30.7569E-3
1.51826E-3	66.3266E-12	607.454E-3	2.70656E-3	66.4258E-12	619.203E-3	-19.2733E-3
1.51326E-3	65.6377E-12	616.466E-3	-19.7041E-3	66.1784E-12	609.535E-3	-408.072E-6
1.50825E-3	65.1107E-12	609.986E-3	-27.9482E-3	65.7555E-12	624.621E-3	-1.10898E-3
1.50325E-3	64.5353E-12	605.615E-3	-30.2994E-3	66.1005E-12	636.995E-3	-14.4945E-3
1.49825E-3	64.1447E-12	601.816E-3	-35.6482E-3	65.8052E-12	626.861E-3	-17.8895E-3
1.49325E-3	63.8211E-12	587.564E-3	-29.9152E-3	65.3734E-12	610.934E-3	-23.9280E-3
1.48824E-3	63.6089E-12	584.407E-3	-29.2426E-3	65.0963E-12	596.612E-3	-33.0584E-3
1.48324E-3	63.6512E-12	585.128E-3	-39.8527E-3	64.8508E-12	588.326E-3	-29.8114E-3
1.47824E-3	63.8454E-12	575.463E-3	-38.8562E-3	64.6574E-12	593.292E-3	-24.0358E-3
1.47324E-3	63.7100E-12	580.213E-3	-26.7382E-3	64.2073E-12	587.992E-3	-32.7760E-3
1.46823E-3	63.7998E-12	600.932E-3	-16.8887E-3	64.2116E-12	568.669E-3	-41.3439E-3
1.46323E-3	64.0206E-12	603.721E-3	-7.57842E-3	63.7810E-12	562.852E-3	-41.0478E-3
1.45823E-3	64.5571E-12	597.004E-3	-9.82420E-3	63.5447E-12	563.400E-3	-46.7798E-3
1.45323E-3	64.2054E-12	598.723E-3	-24.1035E-3	63.4734E-12	565.408E-3	-41.7575E-3
1.44822E-3	64.1317E-12	595.709E-3	-23.0039E-3	63.9220E-12	578.532E-3	-22.5025E-3
1.44322E-3	63.7162E-12	585.786E-3	-14.1918E-3	63.4785E-12	589.651E-3	-11.0396E-3
1.43822E-3	64.0314E-12	578.472E-3	-7.80684E-3	63.0570E-12	582.802E-3	-6.95493E-3
1.43322E-3	63.3674E-12	568.242E-3	-3.69203E-3	62.7986E-12	561.456E-3	-7.71255E-3
1.42821E-3	62.9347E-12	556.012E-3	-15.1684E-3	63.0582E-12	547.268E-3	-19.2632E-3
1.42321E-3	62.3291E-12	556.273E-3	-23.8504E-3	62.9633E-12	543.483E-3	-29.2524E-3
1.41821E-3	62.1884E-12	564.317E-3	-13.3347E-3	62.5551E-12	541.732E-3	-7.31500E-3
1.41321E-3	61.7608E-12	555.344E-3	-10.6950E-3	61.9289E-12	546.805E-3	15.3159E-3
1.40820E-3	61.5123E-12	541.842E-3	-14.6641E-3	61.7960E-12	544.803E-3	6.77148E-3
1.40320E-3	61.5453E-12	550.117E-3	-5.90411E-3	61.6399E-12	532.023E-3	-5.72759E-3
1.39820E-3	61.5713E-12	556.489E-3	-9.81316E-3	61.0183E-12	525.649E-3	-13.5646E-3
1.39320E-3	61.6396E-12	546.938E-3	-26.3299E-3	60.3778E-12	525.948E-3	-24.3513E-3
1.38819E-3	61.7617E-12	534.481E-3	-24.3189E-3	60.3555E-12	524.625E-3	-32.5864E-3
1.38319E-3	62.1145E-12	524.714E-3	-13.6465E-3	60.0276E-12	518.394E-3	-39.1946E-3
1.37819E-3	61.9780E-12	526.232E-3	-5.10571E-3	59.9098E-12	510.918E-3	-49.7276E-3
1.37319E-3	62.2229E-12	530.756E-3	2.09073E-3	59.6383E-12	504.031E-3	-36.7065E-3
1.36818E-3	62.3252E-12	526.531E-3	-2.56595E-3	59.6306E-12	509.597E-3	-21.1297E-3
1.36318E-3	62.0550E-12	520.604E-3	-17.8709E-3	59.6761E-12	509.668E-3	-31.1272E-3
1.35818E-3	62.0055E-12	516.829E-3	-23.9975E-3	59.7435E-12	497.087E-3	-39.9503E-3
1.35318E-3	61.6693E-12	503.381E-3	-14.7193E-3	59.5809E-12	492.204E-3	-35.6735E-3
1.34817E-3	61.2191E-12	494.098E-3	-7.52592E-3	59.5314E-12	485.693E-3	-26.6906E-3
1.34317E-3	60.8256E-12	503.482E-3	-8.11448E-3	59.7675E-12	480.679E-3	-21.8696E-3
1.33817E-3	60.4240E-12	505.641E-3	-13.5383E-3	60.0062E-12	480.491E-3	-15.0732E-3
1.33317E-3	60.1997E-12	495.928E-3	-17.9427E-3	59.8442E-12	468.687E-3	-17.5784E-3
1.32816E-3	59.8339E-12	483.978E-3	-5.40347E-3	59.8230E-12	455.306E-3	-21.2871E-3
1.32316E-3	59.5012E-12	469.907E-3	7.36387E-3	59.9476E-12	466.156E-3	-15.5967E-3
1.31816E-3	59.0218E-12	456.462E-3	-8.66874E-3	59.8535E-12	477.384E-3	-20.7998E-3
1.31316E-3	59.1781E-12	455.539E-3	-17.4384E-3	59.3049E-12	459.960E-3	-20.6053E-3
1.30815E-3	59.0001E-12	465.100E-3	-7.31445E-3	59.1971E-12	438.555E-3	-6.80307E-3
1.30315E-3	59.0674E-12	464.692E-3	-16.2419E-3	58.6846E-12	432.455E-3	-11.6709E-3
1.29815E-3	58.8805E-12	457.516E-3	-16.1479E-3	58.7107E-12	425.085E-3	-17.6026E-3
1.29315E-3	58.6667E-12	443.827E-3	-9.26113E-3	58.2743E-12	415.143E-3	-15.0930E-3
1.28814E-3	58.8755E-12	431.148E-3	-30.4101E-3	57.8781E-12	404.289E-3	-30.4137E-3
1.28314E-3	58.6805E-12	437.383E-3	-34.6228E-3	57.4609E-12	387.210E-3	-30.7117E-3
1.27814E-3	58.5256E-12	433.367E-3	-16.2017E-3	57.3688E-12	370.744E-3	-5.21381E-3
1.27314E-3	58.2409E-12	405.213E-3	-16.5137E-3	57.3500E-12	361.349E-3	8.15264E-3
1.26813E-3	58.2277E-12	392.328E-3	-25.0331E-3	57.2762E-12	361.774E-3	10.8024E-3
1.26313E-3	57.8521E-12	409.701E-3	-26.1933E-3	57.1472E-12	367.611E-3	19.9101E-3
1.25813E-3	57.4151E-12	423.542E-3	-21.7286E-3	57.1572E-12	366.719E-3	21.5133E-3
1.25313E-3	57.0746E-12	418.123E-3	-14.2687E-3	57.6489E-12	352.119E-3	-2.54433E-3
1.24812E-3	56.2465E-12	402.428E-3	-11.4708E-3	57.7196E-12	347.762E-3	-20.8572E-3
1.24312E-3	55.8976E-12	389.609E-3	-12.7566E-3	57.7413E-12	367.128E-3	-14.8001E-3
1.23812E-3	55.9322E-12	379.147E-3	-13.6225E-3	57.4309E-12	367.406E-3	-7.39520E-3
1.23312E-3	55.8567E-12	365.895E-3	-1.82443E-3	57.9110E-12	347.278E-3	-5.33928E-3
1.22811E-3	55.1520E-12	362.348E-3	9.39689E-3	57.8651E-12	337.726E-3	-11.9189E-3
1.22311E-3	55.1076E-12	356.216E-3	-3.41394E-3	57.3657E-12	322.621E-3	-21.6303E-3
1.21811E-3	55.1184E-12	329.799E-3	-19.3453E-3	57.1840E-12	316.684E-3	-23.8797E-3
1.21311E-3	55.2415E-12	311.916E-3	-16.6551E-3	57.0225E-12	328.937E-3	-19.0428E-3
1.20810E-3	55.7663E-12	321.490E-3	-8.60166E-3	56.6271E-12	329.124E-3	-5.47857E-3
1.20310E-3	55.4969E-12	338.255E-3	-9.84320E-3	56.0070E-12	310.818E-3	4.48837E-3
1.19810E-3	55.4640E-12	338.416E-3	-14.9664E-3	55.8271E-12	283.920E-3	-6.09271E-3
1.19310E-3	55.0412E-12	322.124E-3	-20.7119E-3	55.5522E-12	264.872E-3	-16.6986E-3
1.18809E-3	55.1861E-12	313.696E-3	-21.6248E-3	55.2385E-12	250.130E-3	-18.7938E-3
1.18309E-3	54.6600E-12	309.825E-3	-13.7633E-3	55.1264E-12	244.915E-3	-25.5977E-3
1.17809E-3	54.3425E-12	303.476E-3	-7.79281E-3	54.9782E-12	257.231E-3	-35.4840E-3
1.17309E-3	54.3250E-12	295.070E-3	-9.52882E-3	55.0904E-12	266.043E-3	-37.7797E-3
1.16808E-3	54.6130E-12	287.074E-3	-16.6556E-3	54.8626E-12	271.601E-3	-23.6277E-3
1.16308E-3	54.3836E-12	291.527E-3	-16.9911E-3	54.9708E-12	268.483E-3	-4.44927E-3
1.15808E-3	54.1438E-12	292.106E-3	-9.86314E-3	55.2348E-12	251.255E-3	-874.119E-6
1.15308E-3	54.1863E-12	280.866E-3	-18.5168E-3	55.2106E-12	237.862E-3	-14.8445E-3
1.14807E-3	54.2093E-12	268.704E-3	-36.1405E-3	54.9036E-12	229.419E-3	-22.6449E-3
1.14307E-3	53.9102E-12	260.422E-3	-37.3228E-3	55.3766E-12	236.184E-3	-15.2384E-3
1.13807E-3	54.1277E-12	254.030E-3	-31.2845E-3	55.5411E-12	261.281E-3	-11.6602E-3
1.13307E-3	54.8124E-12	247.938E-3	-32.3623E-3	55.2203E-12	271.209E-3	-14.1301E-3
1.12806E-3	55.2689E-12	245.249E-3	-39.7418E-3	54.6437E-12	253.712E-3	-13.6957E-3
1.12306E-3	55.1343E-12	242.585E-3	-45.6420E-3	54.8369E-12	236.658E-3	-18.2695E-3
1.11806E-3	55.3838E-12	239.424E-3	-36.3236E-3	54.3126E-12	227.985E-3	-28.6346E-3
1.11306E-3	55.5308E-12	240.740E-3	-11.9377E-3	54.0359E-12	227.003E-3	-25.0407E-3
1.10805E-3	55.4599E-12	233.077E-3	9.64714E-3	53.8678E-12	239.010E-3	-19.5595E-3
1.10305E-3	55.4831E-12	224.351E-3	9.13050E-3	54.0377E-12	240.480E-3	-26.7958E-3
1.09805E-3	55.2849E-12	238.263E-3	-4.20156E-3	53.4848E-12	235.336E-3	-23.3747E-3
1.09305E-3	55.1181E-12	242.074E-3	-5.26555E-3	53.5249E-12	245.790E-3	-13.5661E-3
1.08804E-3	54.7852E-12	228.513E-3	-226.527E-6	53.5061E-12	251.021E-3	-16.0349E-3
1.08304E-3	54.7039E-12	231.356E-3	-3.77131E-3	53.2586E-12	232.355E-3	-15.0489E-3
1.07804E-3	54.2407E-12	234.947E-3	-13.8504E-3	53.7608E-12	216.980E-3	-5.22199E-3
1.07304E-3	54.0707E-12	223.371E-3	-24.8081E-3	53.7727E-12	210.704E-3	-5.32413E-3
1.06803E-3	53.6726E-12	221.118E-3	-28.5321E-3	53.7600E-12	204.471E-3	-12.4811E-3
1.06303E-3	53.5517E-12	222.149E-3	-25.5867E-3	53.8760E-12	213.556E-3	-10.2314E-3
1.05803E-3	53.5856E-12	207.979E-3	-27.9826E-3	53.9799E-12	226.537E-3	2.39901E-3
1.05303E-3	53.6427E-12	199.776E-3	-30.6983E-3	53.7292E-12	227.376E-3	647.051E-6
1.04802E-3	53.5110E-12	209.133E-3	-23.2515E-3	53.7274E-12	223.283E-3	-11.7829E-3
1.04302E-3	53.7401E-12	220.737E-3	-12.2329E-3	53.6522E-12	220.927E-3	-19.6101E-3
1.03802E-3	53.8460E-12	232.566E-3	-10.0608E-3	53.4106E-12	217.615E-3	-17.9092E-3
1.03302E-3	53.6947E-12	232.532E-3	-10.4259E-3	53.2331E-12	216.431E-3	-14.7260E-3
1.02801E-3	53.9672E-12	214.575E-3	-13.9625E-3	52.8872E-12	224.707E-3	-23.5357E-3
1.02301E-3	53.9323E-12	213.374E-3	-22.6756E-3	52.7371E-12	246.490E-3	-14.0417E-3
1.01801E-3	53.7313E-12	237.197E-3	-22.2118E-3	52.6232E-12	268.398E-3	1.27711E-3
1.01301E-3	53.4021E-12	249.092E-3	-19.3654E-3	52.6856E-12	274.352E-3	-6.47189E-3
1.00800E-3	53.2865E-12	243.264E-3	-13.0753E-3	52.4182E-12	274.676E-3	-14.2352E-3
1.00300E-3	53.0529E-12	240.169E-3	-2.94302E-3	52.5572E-12	275.063E-3	-21.1214E-3
997.999E-6	52.5445E-12	244.174E-3	1.11097E-3	52.6010E-12	273.455E-3	-22.4540E-3
992.997E-6	52.2166E-12	256.859E-3	-1.88871E-3	52.4319E-12	274.316E-3	-14.6195E-3
987.994E-6	51.4976E-12	258.645E-3	-8.39034E-3	52.3476E-12	282.966E-3	-6.76192E-3
982.991E-6	51.4272E-12	245.464E-3	-15.6627E-3	52.3819E-12	308.822E-3	-454.930E-6
977.989E-6	51.1848E-12	254.917E-3	-21.6471E-3	52.5601E-12	330.592E-3	-7.64013E-3
972.986E-6	51.0421E-12	284.444E-3	-20.6231E-3	52.4298E-12	323.723E-3	-16.0952E-3
967.984E-6	50.8448E-12	288.544E-3	-16.8114E-3	52.3915E-12	319.523E-3	-13.5687E-3
962.981E-6	50.7919E-12	275.596E-3	-12.7562E-3	52.1709E-12	330.626E-3	-8.08761E-3
957.979E-6	50.6889E-12	290.888E-3	-14.4659E-3	52.1293E-12	337.191E-3	8.64902E-3
952.976E-6	50.5809E-12	322.399E-3	-25.0496E-3	51.7438E-12	347.036E-3	12.7937E-3
947.974E-6	51.0196E-12	343.785E-3	-33.4323E-3	51.3393E-12	364.068E-3	-11.4097E-3
942.971E-6	50.7245E-12	344.701E-3	-24.3559E-3	51.1971E-12	380.365E-3	-13.1371E-3
937.969E-6	50.8017E-12	324.602E-3	-7.04458E-3	51.1218E-12	391.154E-3	-350.281E-6
932.966E-6	50.9013E-12	327.431E-3	522.705E-6	50.7995E-12	393.482E-3	-17.1327E-3
927.964E-6	50.7505E-12	366.037E-3	-3.93774E-3	50.7749E-12	396.677E-3	-29.7198E-3
922.961E-6	50.2523E-12	385.213E-3	-20.0309E-3	50.5929E-12	421.669E-3	-17.4824E-3
917.959E-6	50.2472E-12	377.426E-3	-30.3596E-3	50.4558E-12	459.426E-3	-23.7921E-3
912.956E-6	50.0780E-12	388.712E-3	-29.1774E-3	50.6662E-12	486.293E-3	-43.4455E-3
907.954E-6	49.5397E-12	412.997E-3	-24.0669E-3	50.5559E-12	493.193E-3	-43.6689E-3
902.951E-6	49.5702E-12	430.273E-3	-15.1954E-3	50.4765E-12	492.801E-3	-41.3431E-3
897.949E-6	49.6194E-12	451.997E-3	-15.1020E-3	50.1667E-12	503.278E-3	-39.2829E-3
892.946E-6	49.2390E-12	469.348E-3	-20.8928E-3	50.2883E-12	522.348E-3	-27.0174E-3
887.944E-6	48.8734E-12	467.701E-3	-17.9425E-3	50.1072E-12	546.716E-3	-19.4421E-3
882.941E-6	49.0278E-12	464.157E-3	-14.0113E-3	49.7994E-12	569.216E-3	-22.9725E-3
877.939E-6	48.7687E-12	474.670E-3	-9.94001E-3	49.3207E-12	588.587E-3	-24.5735E-3
872.936E-6	48.7468E-12	491.890E-3	-5.03193E-3	48.8601E-12	603.386E-3	-19.0869E-3
867.934E-6	48.9071E-12	510.149E-3	-10.9879E-3	48.7786E-12	606.973E-3	-22.6387E-3
862.931E-6	48.2882E-12	524.543E-3	-16.0677E-3	48.2136E-12	617.445E-3	-25.6820E-3
857.929E-6	48.7104E-12	535.296E-3	-10.3072E-3	47.7930E-12	647.639E-3	-10.2261E-3
852.926E-6	48.3635E-12	546.161E-3	-5.23901E-3	47.2036E-12	670.974E-3	10.8121E-3
847.924E-6	48.0387E-12	567.417E-3	-4.28966E-3	47.0297E-12	676.571E-3	19.0047E-3
842.921E-6	47.8177E-12	600.249E-3	901.603E-6	47.0388E-12	688.230E-3	8.88031E-3
837.919E-6	47.6513E-12	628.528E-3	3.11707E-3	46.9813E-12	709.195E-3	-7.24139E-3
832.916E-6	47.3200E-12	654.772E-3	1.70446E-3	46.7357E-12	727.625E-3	-14.4597E-3
827.914E-6	46.8905E-12	673.776E-3	717.843E-6	46.6289E-12	758.669E-3	-11.9073E-3
822.911E-6	46.8203E-12	679.395E-3	-10.3124E-3	46.4627E-12	795.992E-3	-9.68433E-3
817.909E-6	46.1946E-12	694.869E-3	-27.8100E-3	46.7060E-12	826.680E-3	-9.71170E-3
812.906E-6	46.2339E-12	719.535E-3	-36.1969E-3	46.3767E-12	857.992E-3	-11.3871E-3
807.904E-6	46.0536E-12	741.431E-3	-31.3641E-3	46.1985E-12	873.335E-3	-19.3743E-3
802.901E-6	46.1633E-12	773.043E-3	-16.8584E-3	46.0839E-12	870.434E-3	-16.3684E-3
797.899E-6	45.6318E-12	807.532E-3	894.479E-6	45.9618E-12	875.089E-3	-5.14247E-3
792.896E-6	45.3062E-12	825.697E-3	-2.94661E-3	45.4391E-12	895.362E-3	-8.20988E-3
787.894E-6	45.2441E-12	837.146E-3	-27.4665E-3	44.8211E-12	921.346E-3	-7.35201E-3
782.891E-6	45.1671E-12	855.707E-3	-35.3354E-3	44.4802E-12	943.762E-3	-1.59436E-3
777.889E-6	45.1457E-12	881.571E-3	-30.1668E-3	43.9990E-12	959.589E-3	-11.8296E-3
772.886E-6	44.6385E-12	903.389E-3	-25.1673E-3	43.4835E-12	977.909E-3	-29.5084E-3
767.884E-6	44.5923E-12	920.261E-3	-16.9021E-3	42.8832E-12	1.00232E+0	-28.2901E-3
762.881E-6	44.0605E-12	937.338E-3	-18.1026E-3	42.5668E-12	1.02515E+0	-3.22677E-3
757.879E-6	44.1642E-12	949.906E-3	-27.3875E-3	42.2317E-12	1.04820E+0	9.14499E-3
752.876E-6	43.1270E-12	965.505E-3	-28.1335E-3	42.0189E-12	1.07807E+0	865.531E-6
747.874E-6	42.5684E-12	993.922E-3	-12.8260E-3	42.1004E-12	1.11085E+0	-10.3437E-3
742.871E-6	42.3480E-12	1.02961E+0	-4.61889E-3	42.1359E-12	1.13493E+0	-8.65513E-3
737.869E-6	41.7940E-12	1.05791E+0	-15.5451E-3	41.8099E-12	1.15876E+0	3.23879E-3
732.866E-6	41.0355E-12	1.07606E+0	-30.2924E-3	41.6276E-12	1.19681E+0	981.498E-6
727.864E-6	40.4594E-12	1.09399E+0	-37.3857E-3	41.6482E-12	1.23056E+0	-7.83944E-3
722.861E-6	40.3640E-12	1.11095E+0	-30.0865E-3	41.2887E-12	1.23905E+0	-7.50649E-3
717.859E-6	39.9362E-12	1.12248E+0	-23.3133E-3	41.0548E-12	1.24574E+0	-1.33345E-3
712.856E-6	39.7709E-12	1.13782E+0	-21.0404E-3	40.5164E-12	1.26327E+0	-109.044E-6
707.854E-6	39.2111E-12	1.14448E+0	-12.3947E-3	40.0978E-12	1.27255E+0	-2.24745E-3
702.851E-6	39.1278E-12	1.13789E+0	-9.96371E-3	39.6886E-12	1.28551E+0	-9.48423E-3
697.849E-6	38.8360E-12	1.15768E+0	-16.9908E-3	39.1558E-12	1.29747E+0	-17.8419E-3
692.846E-6	38.5823E-12	1.20389E+0	-11.9353E-3	38.3952E-12	1.29695E+0	-14.3406E-3
687.844E-6	38.1888E-12	1.24331E+0	-2.17114E-3	37.8749E-12	1.30640E+0	-13.2422E-3
682.841E-6	37.9743E-12	1.27082E+0	-4.97049E-3	37.1852E-12	1.32213E+0	-21.3096E-3
677.839E-6	37.4625E-12	1.29211E+0	-6.38774E-3	36.4116E-12	1.32832E+0	-18.7174E-3
672.836E-6	36.7934E-12	1.31411E+0	-11.9261E-3	35.9129E-12	1.34558E+0	-5.42010E-3
667.834E-6	36.3335E-12	1.33898E+0	-22.1408E-3	35.3937E-12	1.37545E+0	-243.452E-6
662.831E-6	35.4212E-12	1.35848E+0	-19.2181E-3	35.1368E-12	1.39642E+0	-7.22464E-3
657.829E-6	35.0337E-12	1.36053E+0	-23.2669E-3	34.8777E-12	1.42173E+0	-13.6590E-3
652.826E-6	34.4677E-12	1.36371E+0	-33.0022E-3	34.8581E-12	1.45452E+0	-19.5323E-3
647.824E-6	33.9891E-12	1.37193E+0	-25.0858E-3	34.6900E-12	1.46500E+0	-19.1254E-3
642.821E-6	33.3772E-12	1.36715E+0	-6.97221E-3	34.4436E-12	1.46857E+0	-5.53052E-3
637.819E-6	32.9320E-12	1.35830E+0	1.90492E-3	34.3428E-12	1.49538E+0	-9.54263E-3
632.816E-6	32.4854E-12	1.35657E+0	1.12372E-3	33.9579E-12	1.51477E+0	-27.1000E-3
627.814E-6	32.0040E-12	1.36763E+0	2.57104E-3	33.4654E-12	1.51125E+0	-24.1207E-3
622.811E-6	31.4721E-12	1.39192E+0	478.385E-6	32.7862E-12	1.51892E+0	-13.9847E-3
617.809E-6	30.9662E-12	1.40913E+0	-11.9796E-3	32.2966E-12	1.52964E+0	-14.4342E-3
612.806E-6	30.6715E-12	1.41649E+0	-25.0977E-3	31.5393E-12	1.52215E+0	-17.5708E-3
607.804E-6	30.3780E-12	1.44126E+0	-28.8580E-3	31.1708E-12	1.51114E+0	-24.5125E-3
602.801E-6	29.9216E-12	1.47405E+0	-26.1810E-3	30.0583E-12	1.49386E+0	-29.0343E-3
597.799E-6	29.3790E-12	1.48572E+0	-20.0270E-3	29.2655E-12	1.48181E+0	-22.1047E-3
592.796E-6	29.0447E-12	1.47742E+0	-18.8786E-3	28.6271E-12	1.48629E+0	-16.2503E-3
587.794E-6	28.8487E-12	1.48145E+0	-25.4443E-3	28.2417E-12	1.48340E+0	-25.9387E-3
582.791E-6	28.2764E-12	1.49626E+0	-25.2857E-3	27.3052E-12	1.47485E+0	-36.9991E-3
577.789E-6	27.5392E-12	1.49518E+0	-20.0571E-3	26.8197E-12	1.48690E+0	-36.3448E-3
572.786E-6	27.0077E-12	1.50537E+0	-19.9136E-3	26.3909E-12	1.51135E+0	-38.0362E-3
567.784E-6	26.7376E-12	1.52503E+0	-17.4911E-3	26.0616E-12	1.51920E+0	-35.4100E-3
562.781E-6	26.0813E-12	1.52194E+0	-8.58229E-3	25.5673E-12	1.51561E+0	-28.7966E-3
557.779E-6	25.4842E-12	1.51164E+0	-7.10589E-3	25.1274E-12	1.51753E+0	-26.4106E-3
552.776E-6	25.0308E-12	1.51033E+0	-20.7754E-3	24.7301E-12	1.51671E+0	-17.8007E-3
547.774E-6	24.6962E-12	1.51817E+0	-30.6224E-3	24.4269E-12	1.50697E+0	-8.38518E-3
542.771E-6	24.0462E-12	1.52699E+0	-22.3133E-3	23.9331E-12	1.49802E+0	-2.07123E-3
537.769E-6	23.6683E-12	1.52652E+0	-8.29751E-3	23.4301E-12	1.49291E+0	-2.96504E-3
532.766E-6	23.2983E-12	1.52504E+0	2.08834E-3	22.9987E-12	1.48678E+0	-10.4264E-3
527.764E-6	22.9790E-12	1.52913E+0	2.17638E-3	22.5877E-12	1.48144E+0	-12.2171E-3
522.761E-6	22.3915E-12	1.52535E+0	-7.55134E-3	22.0175E-12	1.48209E+0	-17.7636E-3
517.759E-6	22.0634E-12	1.52030E+0	-11.5613E-3	21.2898E-12	1.47571E+0	-32.8187E-3
512.756E-6	21.6050E-12	1.52676E+0	-8.56892E-3	20.9161E-12	1.45369E+0	-31.0399E-3
507.754E-6	21.3064E-12	1.53017E+0	-13.9749E-3	20.3230E-12	1.42867E+0	-5.50384E-3
502.751E-6	20.6615E-12	1.52094E+0	-25.5103E-3	19.7437E-12	1.40674E+0	4.86290E-3
497.749E-6	20.0982E-12	1.50390E+0	-31.2859E-3	19.2543E-12	1.38657E+0	-10.2824E-3
492.746E-6	19.7879E-12	1.49746E+0	-20.5128E-3	18.8962E-12	1.36348E+0	-17.4604E-3
487.744E-6	19.2399E-12	1.50165E+0	-4.05207E-3	18.3430E-12	1.35130E+0	-15.5575E-3
482.741E-6	18.5311E-12	1.48281E+0	-4.13368E-3	17.6035E-12	1.35067E+0	-25.4710E-3
477.739E-6	18.0123E-12	1.45169E+0	-8.22116E-3	17.3303E-12	1.33959E+0	-30.5248E-3
472.736E-6	17.4820E-12	1.43670E+0	136.753E-6	16.9701E-12	1.32859E+0	-12.7601E-3
467.734E-6	16.9369E-12	1.42053E+0	-532.723E-6	16.4282E-12	1.32712E+0	599.793E-6
462.731E-6	16.4100E-12	1.40030E+0	-9.39163E-3	15.9731E-12	1.31841E+0	-3.92460E-3
457.729E-6	15.9345E-12	1.38182E+0	-5.02028E-3	15.6826E-12	1.29859E+0	-12.3291E-3
452.726E-6	15.3927E-12	1.35969E+0	-2.10571E-3	15.5566E-12	1.28259E+0	-24.3239E-3
447.724E-6	15.0087E-12	1.33443E+0	-8.35747E-3	14.9250E-12	1.27355E+0	-28.3273E-3
442.721E-6	14.6192E-12	1.30457E+0	-16.9630E-3	14.5477E-12	1.26711E+0	-23.3562E-3
437.719E-6	14.3245E-12	1.28044E+0	-18.6655E-3	14.1925E-12	1.24861E+0	-28.1797E-3
432.716E-6	13.8767E-12	1.27377E+0	-16.5274E-3	13.9410E-12	1.21181E+0	-33.8900E-3
427.714E-6	13.4126E-12	1.27326E+0	-19.5199E-3	13.3974E-12	1.18413E+0	-25.0117E-3
422.711E-6	12.8770E-12	1.26334E+0	-25.8595E-3	12.9396E-12	1.17193E+0	-13.7660E-3
417.709E-6	12.5911E-12	1.23985E+0	-28.8094E-3	12.5673E-12	1.14616E+0	-824.724E-6
412.706E-6	12.2561E-12	1.21267E+0	-30.9953E-3	12.3036E-12	1.11335E+0	3.63423E-3
407.704E-6	11.8149E-12	1.19028E+0	-30.5742E-3	11.8257E-12	1.09750E+0	-6.80457E-3
402.701E-6	11.4135E-12	1.17507E+0	-20.5602E-3	11.3387E-12	1.07940E+0	-12.8262E-3
397.699E-6	10.9717E-12	1.16183E+0	-19.7281E-3	11.1083E-12	1.04803E+0	-13.3363E-3
392.696E-6	10.7313E-12	1.13947E+0	-27.7144E-3	10.6058E-12	1.01971E+0	-7.66272E-3
387.694E-6	10.2327E-12	1.11739E+0	-26.4876E-3	10.2966E-12	996.841E-3	-3.71940E-3
382.691E-6	9.87699E-12	1.09420E+0	-13.6139E-3	9.89469E-12	975.287E-3	-4.12383E-3
377.689E-6	9.53140E-12	1.04717E+0	-11.6168E-3	9.57059E-12	957.179E-3	-8.77755E-3
372.686E-6	9.22943E-12	1.00291E+0	-22.1415E-3	9.20519E-12	938.098E-3	-18.6914E-3
367.684E-6	8.86604E-12	993.540E-3	-17.4088E-3	8.80527E-12	913.324E-3	-22.0222E-3
362.681E-6	8.52474E-12	983.369E-3	-10.3764E-3	8.54429E-12	882.923E-3	-27.0301E-3
357.679E-6	8.24702E-12	955.728E-3	-20.0002E-3	8.23197E-12	845.090E-3	-31.9522E-3
352.676E-6	8.01045E-12	919.871E-3	-28.1141E-3	7.88064E-12	811.533E-3	-20.9202E-3
347.674E-6	7.66990E-12	884.025E-3	-26.1696E-3	7.55714E-12	791.545E-3	-15.5294E-3
342.671E-6	7.35232E-12	874.326E-3	-20.5973E-3	7.38136E-12	771.047E-3	-26.4243E-3
337.669E-6	7.11024E-12	876.689E-3	-16.8209E-3	7.20970E-12	746.774E-3	-24.5565E-3
332.666E-6	6.95326E-12	855.207E-3	-19.2306E-3	6.83328E-12	737.593E-3	-12.5790E-3
327.664E-6	6.61279E-12	813.444E-3	-26.6079E-3	6.48558E-12	730.860E-3	-7.83955E-3
322.661E-6	6.39184E-12	778.115E-3	-30.2889E-3	6.32516E-12	702.375E-3	-1.86707E-3
317.659E-6	6.14134E-12	756.898E-3	-20.5852E-3	6.23445E-12	673.081E-3	5.32200E-3
312.656E-6	5.96277E-12	735.036E-3	-15.2462E-3	5.93736E-12	659.360E-3	-704.267E-6
307.654E-6	5.75494E-12	705.702E-3	-19.1157E-3	5.62256E-12	641.614E-3	-12.1717E-3
302.651E-6	5.56326E-12	683.673E-3	-12.6699E-3	5.43618E-12	607.119E-3	-5.82051E-3
297.649E-6	5.33498E-12	666.067E-3	-8.72644E-3	5.33061E-12	573.448E-3	6.23277E-3
292.646E-6	5.18987E-12	647.267E-3	-14.1792E-3	5.10553E-12	565.237E-3	5.83293E-3
287.644E-6	4.95147E-12	636.851E-3	-21.1502E-3	4.80829E-12	559.777E-3	2.92173E-3
282.641E-6	4.79167E-12	626.630E-3	-28.3197E-3	4.55959E-12	533.326E-3	-8.82409E-3
277.639E-6	4.61883E-12	615.557E-3	-30.9031E-3	4.41024E-12	510.152E-3	-25.9562E-3
272.636E-6	4.38809E-12	599.369E-3	-33.6453E-3	4.25280E-12	499.534E-3	-21.2214E-3
267.634E-6	4.20088E-12	577.888E-3	-39.7305E-3	3.97326E-12	484.857E-3	-13.0269E-3
262.631E-6	4.08088E-12	566.560E-3	-28.3001E-3	3.75968E-12	463.831E-3	-17.7539E-3
257.629E-6	3.87632E-12	551.041E-3	-4.21103E-3	3.62312E-12	444.679E-3	-16.8825E-3
252.626E-6	3.67750E-12	520.435E-3	-3.46635E-3	3.52031E-12	417.354E-3	-21.1608E-3
247.624E-6	3.52251E-12	495.192E-3	-15.7286E-3	3.33641E-12	386.365E-3	-21.5632E-3
242.621E-6	3.46695E-12	481.398E-3	-15.9422E-3	3.22144E-12	373.610E-3	-1.60002E-3
237.619E-6	3.34572E-12	462.943E-3	-14.6390E-3	3.11621E-12	377.766E-3	1.36275E-3
232.616E-6	3.12543E-12	446.774E-3	-15.3564E-3	2.95946E-12	371.917E-3	-18.1576E-3
227.614E-6	2.93410E-12	437.724E-3	-10.2880E-3	2.83259E-12	348.625E-3	-28.1155E-3
222.611E-6	2.71423E-12	409.466E-3	-8.37697E-3	2.68351E-12	326.355E-3	-23.5201E-3
217.609E-6	2.63605E-12	387.891E-3	-8.87651E-3	2.52803E-12	298.625E-3	-12.6360E-3
212.606E-6	2.54893E-12	388.043E-3	-4.53803E-3	2.43911E-12	274.465E-3	-433.672E-6
207.604E-6	2.37659E-12	374.663E-3	-690.264E-6	2.32262E-12	267.735E-3	-5.85229E-3
202.601E-6	2.22966E-12	357.037E-3	-1.76433E-3	2.32334E-12	260.039E-3	-31.9735E-3
197.599E-6	2.17617E-12	341.727E-3	-6.75226E-3	2.18801E-12	253.450E-3	-52.7917E-3
192.596E-6	2.11451E-12	320.991E-3	-9.60965E-3	1.98821E-12	255.262E-3	-49.2164E-3
187.594E-6	1.99692E-12	309.634E-3	-6.19260E-3	1.87799E-12	248.360E-3	-27.3249E-3
182.591E-6	1.86151E-12	303.929E-3	-3.40031E-3	1.88486E-12	226.538E-3	-15.8117E-3
177.589E-6	1.78630E-12	292.768E-3	-11.1589E-3	1.76640E-12	208.395E-3	-19.2170E-3
172.586E-6	1.70946E-12	280.985E-3	-16.6193E-3	1.60144E-12	210.392E-3	-23.8746E-3
167.584E-6	1.64875E-12	273.386E-3	-7.00382E-3	1.49640E-12	218.370E-3	-15.1479E-3
162.581E-6	1.52426E-12	262.905E-3	-772.879E-6	1.49264E-12	209.828E-3	-1.76058E-3
157.579E-6	1.43616E-12	249.106E-3	-9.18305E-3	1.47776E-12	188.270E-3	-7.20351E-3
152.576E-6	1.36724E-12	244.727E-3	-15.8017E-3	1.29166E-12	164.931E-3	-13.0171E-3
147.574E-6	1.29955E-12	235.122E-3	-14.8309E-3	1.18185E-12	157.844E-3	-11.2913E-3
142.571E-6	1.23649E-12	211.616E-3	-20.0019E-3	1.13838E-12	163.149E-3	-16.2545E-3
137.569E-6	1.15085E-12	199.304E-3	-22.6880E-3	1.14251E-12	163.579E-3	-18.3964E-3
132.566E-6	1.05013E-12	195.249E-3	-10.6715E-3	1.04882E-12	161.992E-3	-14.6091E-3
127.564E-6	993.999E-15	183.876E-3	-6.64055E-3	944.874E-15	151.016E-3	-17.8759E-3
122.561E-6	965.757E-15	172.325E-3	-10.8216E-3	901.417E-15	142.499E-3	-31.8776E-3
117.559E-6	904.548E-15	158.712E-3	-3.21986E-3	910.137E-15	157.440E-3	-35.5968E-3
112.556E-6	830.547E-15	149.515E-3	-4.05745E-3	856.199E-15	166.139E-3	-21.1652E-3
107.554E-6	746.048E-15	153.423E-3	-12.4733E-3	809.620E-15	153.789E-3	-6.78390E-3
102.551E-6	766.286E-15	155.398E-3	-8.68304E-3	715.435E-15	141.862E-3	-4.65854E-3
97.5488E-6	730.275E-15	154.584E-3	-18.8021E-3	634.981E-15	136.885E-3	-16.5310E-3
92.5463E-6	607.524E-15	150.547E-3	-36.8164E-3	646.979E-15	136.085E-3	-28.4771E-3
87.5438E-6	535.895E-15	145.019E-3	-30.1955E-3	618.825E-15	137.232E-3	-20.9228E-3
82.5413E-6	552.340E-15	137.360E-3	-26.0759E-3	477.162E-15	134.980E-3	-6.48662E-3
77.5388E-6	511.813E-15	129.610E-3	-31.7728E-3	444.578E-15	132.793E-3	-11.1989E-3
72.5363E-6	488.035E-15	136.207E-3	-18.4318E-3	405.943E-15	138.001E-3	-23.9888E-3
67.5338E-6	382.558E-15	130.648E-3	-14.7218E-3	419.780E-15	134.185E-3	-25.8940E-3
62.5313E-6	377.867E-15	124.951E-3	-31.6119E-3	374.013E-15	116.499E-3	-23.9747E-3
57.5288E-6	297.623E-15	144.810E-3	-32.0556E-3	280.420E-15	107.403E-3	-24.1650E-3
52.5263E-6	310.370E-15	146.720E-3	-25.3180E-3	211.973E-15	115.079E-3	-26.1275E-3
47.5238E-6	243.258E-15	131.215E-3	-27.2196E-3	250.887E-15	123.114E-3	-24.8295E-3
42.5213E-6	167.784E-15	121.626E-3	-24.2032E-3	274.517E-15	118.731E-3	-13.0674E-3
37.5188E-6	176.337E-15	107.686E-3	-25.4000E-3	128.102E-15	111.114E-3	-7.08418E-3
32.5163E-6	155.655E-15	106.989E-3	-31.4062E-3	59.7339E-15	110.027E-3	-9.21220E-3
27.5138E-6	94.7332E-15	126.724E-3	-22.7096E-3	79.9627E-15	109.512E-3	-4.20528E-3
22.5113E-6	4.39243E-15	127.618E-3	-15.5570E-3	77.7741E-15	108.591E-3	-3.16591E-3
17.5088E-6	26.6354E-15	116.920E-3	-21.0259E-3	-3.16722E-15	112.122E-3	-7.27296E-3
12.5063E-6	-28.3922E-15	117.606E-3	-14.7277E-3	-76.9151E-15	114.713E-3	-13.5711E-3
7.50375E-6	-112.699E-15	108.896E-3	-900.530E-6	-114.016E-15	113.872E-3	-26.2411E-3
2.50125E-6	-171.153E-15	102.033E-3	-1.64117E-3	-68.8498E-15	115.260E-3	-25.1832E-3
-2.50125E-6	-170.133E-15	106.040E-3	-7.62480E-3	-134.114E-15	125.142E-3	-15.3464E-3
-7.50375E-6	-211.995E-15	105.497E-3	-8.60348E-3	-204.976E-15	133.968E-3	-17.8079E-3
-12.5063E-6	-251.258E-15	105.559E-3	-12.0801E-3	-271.556E-15	133.578E-3	-20.5541E-3
-17.5088E-6	-224.176E-15	109.106E-3	-13.3219E-3	-316.016E-15	135.407E-3	-11.6990E-3
-22.5113E-6	-355.567E-15	111.448E-3	-13.1861E-3	-322.259E-15	147.519E-3	-2.64716E-3
-27.5138E-6	-427.553E-15	118.376E-3	-23.5657E-3	-375.717E-15	158.242E-3	-1.87692E-3
-32.5163E-6	-452.735E-15	130.039E-3	-31.9479E-3	-459.344E-15	150.263E-3	-8.63887E-3
-37.5188E-6	-423.734E-15	120.691E-3	-23.0551E-3	-518.391E-15	143.546E-3	-19.1985E-3
-42.5213E-6	-501.171E-15	101.160E-3	-13.7300E-3	-525.820E-15	148.485E-3	-15.7569E-3
-47.5238E-6	-610.197E-15	115.211E-3	-11.7396E-3	-552.553E-15	149.506E-3	-5.05661E-3
-52.5263E-6	-638.805E-15	144.487E-3	-7.71354E-3	-587.073E-15	150.020E-3	-13.4737E-3
-57.5288E-6	-624.540E-15	157.325E-3	-11.0641E-3	-731.901E-15	152.488E-3	-26.6453E-3
-62.5313E-6	-682.593E-15	158.695E-3	-20.7039E-3	-754.789E-15	161.236E-3	-28.1393E-3
-67.5338E-6	-846.874E-15	150.485E-3	-19.8708E-3	-758.974E-15	179.021E-3	-27.2887E-3
-72.5363E-6	-872.334E-15	142.460E-3	-17.0704E-3	-792.648E-15	187.580E-3	-21.9963E-3
-77.5388E-6	-913.637E-15	150.284E-3	-19.5182E-3	-961.253E-15	186.858E-3	-19.5998E-3
-82.5413E-6	-941.426E-15	162.369E-3	-14.8039E-3	-1.02441E-12	201.158E-3	-16.8256E-3
-87.5438E-6	-1.06953E-12	167.661E-3	-12.1109E-3	-1.03438E-12	222.548E-3	-1.31731E-3
-92.5463E-6	-1.12258E-12	174.914E-3	-15.6237E-3	-1.06673E-12	230.099E-3	-1.57688E-3
-97.5488E-6	-1.15943E-12	184.351E-3	-14.7738E-3	-1.21165E-12	232.445E-3	-8.42393E-3
-102.551E-6	-1.22862E-12	184.135E-3	-17.1834E-3	-1.34338E-12	239.562E-3	-122.838E-6
-107.554E-6	-1.33481E-12	190.048E-3	-17.5264E-3	-1.32680E-12	249.247E-3	-162.641E-6
-112.556E-6	-1.38788E-12	204.058E-3	-10.6467E-3	-1.36867E-12	256.363E-3	-10.9299E-3
-117.559E-6	-1.50517E-12	209.818E-3	-10.3763E-3	-1.46430E-12	258.678E-3	-14.7910E-3
-122.561E-6	-1.59140E-12	227.491E-3	-16.3636E-3	-1.64481E-12	270.770E-3	-18.4972E-3
-127.564E-6	-1.62487E-12	245.342E-3	-15.9021E-3	-1.69701E-12	294.188E-3	-21.8893E-3
-132.566E-6	-1.73158E-12	248.662E-3	-13.4827E-3	-1.74505E-12	309.441E-3	-17.7316E-3
-137.569E-6	-1.89414E-12	270.956E-3	-15.0033E-3	-1.85056E-12	318.033E-3	-14.7834E-3
-142.571E-6	-1.99059E-12	305.056E-3	-5.11205E-3	-1.98912E-12	328.552E-3	-18.8279E-3
-147.574E-6	-2.07455E-12	313.248E-3	-2.05213E-3	-2.09027E-12	342.046E-3	-30.8689E-3
-152.576E-6	-2.10957E-12	305.795E-3	-23.7341E-3	-2.18767E-12	357.371E-3	-39.5423E-3
-157.579E-6	-2.29014E-12	307.906E-3	-38.0750E-3	-2.22143E-12	371.188E-3	-25.1153E-3
-162.581E-6	-2.43671E-12	314.146E-3	-34.5592E-3	-2.38723E-12	391.965E-3	-2.97563E-3
-167.584E-6	-2.52991E-12	325.452E-3	-31.4441E-3	-2.53302E-12	424.181E-3	559.161E-6
-172.586E-6	-2.58184E-12	344.988E-3	-21.0888E-3	-2.70166E-12	448.055E-3	-11.8810E-3
-177.589E-6	-2.78231E-12	355.902E-3	-6.04350E-3	-2.84598E-12	458.663E-3	-31.4623E-3
-182.591E-6	-2.95973E-12	364.734E-3	-11.8345E-3	-2.89354E-12	469.222E-3	-42.7336E-3
-187.594E-6	-3.10612E-12	389.253E-3	-13.0630E-3	-3.07358E-12	485.746E-3	-28.8190E-3
-192.596E-6	-3.16552E-12	415.860E-3	-848.075E-6	-3.34344E-12	511.377E-3	-11.5203E-3
-197.599E-6	-3.36704E-12	431.961E-3	-3.48618E-3	-3.54538E-12	541.244E-3	-13.9782E-3
-202.601E-6	-3.55649E-12	450.848E-3	-5.44977E-3	-3.61250E-12	572.823E-3	-20.2645E-3
-207.604E-6	-3.74189E-12	477.647E-3	3.75276E-3	-3.71505E-12	595.201E-3	-27.0934E-3
-212.606E-6	-3.86325E-12	498.082E-3	-4.75149E-3	-4.04468E-12	611.862E-3	-34.6560E-3
-217.609E-6	-4.05800E-12	508.719E-3	-31.7900E-3	-4.32298E-12	633.894E-3	-31.3243E-3
-222.611E-6	-4.31527E-12	523.549E-3	-33.3697E-3	-4.43607E-12	665.619E-3	-23.0214E-3
-227.614E-6	-4.46451E-12	547.251E-3	-13.4916E-3	-4.55926E-12	701.584E-3	-20.5141E-3
-232.616E-6	-4.67988E-12	582.377E-3	-3.43467E-3	-4.85942E-12	732.731E-3	-21.0277E-3
-237.619E-6	-4.90487E-12	609.112E-3	-6.20649E-3	-5.14813E-12	764.579E-3	-24.0671E-3
-242.621E-6	-5.16073E-12	618.958E-3	-13.8372E-3	-5.29404E-12	788.223E-3	-27.0480E-3
-247.624E-6	-5.43057E-12	644.233E-3	-14.6112E-3	-5.39549E-12	801.581E-3	-20.1958E-3
-252.626E-6	-5.71975E-12	683.100E-3	-5.95961E-3	-5.71838E-12	822.618E-3	-16.1623E-3
-257.629E-6	-5.97072E-12	721.461E-3	-4.68536E-3	-6.01367E-12	861.378E-3	-23.2620E-3
-262.631E-6	-6.25250E-12	760.459E-3	-17.2943E-3	-6.20209E-12	904.705E-3	-24.1501E-3
-267.634E-6	-6.59631E-12	790.587E-3	-19.2790E-3	-6.45971E-12	941.180E-3	-11.3563E-3
-272.636E-6	-6.90867E-12	820.097E-3	-8.30060E-3	-6.89690E-12	976.853E-3	7.38063E-3
-277.639E-6	-7.31005E-12	861.895E-3	-5.61300E-3	-7.15074E-12	1.00745E+0	6.49345E-3
-282.641E-6	-7.52365E-12	902.231E-3	-13.6086E-3	-7.41440E-12	1.03912E+0	-18.2654E-3
-287.644E-6	-7.77417E-12	938.294E-3	-19.3451E-3	-7.74972E-12	1.08954E+0	-30.8307E-3
-292.646E-6	-8.16536E-12	972.611E-3	-17.2686E-3	-8.25302E-12	1.14557E+0	-16.8646E-3
-297.649E-6	-8.59151E-12	1.00874E+0	-10.6051E-3	-8.54623E-12	1.19848E+0	-8.45943E-3
-302.651E-6	-8.89137E-12	1.04225E+0	-18.5374E-3	-8.86507E-12	1.24591E+0	-13.3161E-3
-307.654E-6	-9.11230E-12	1.06909E+0	-31.4726E-3	-9.42672E-12	1.28794E+0	-17.2879E-3
-312.656E-6	-9.61108E-12	1.10405E+0	-21.1756E-3	-9.90355E-12	1.33304E+0	-15.8140E-3
-317.659E-6	-10.1271E-12	1.14042E+0	-11.4613E-3	-10.2140E-12	1.37315E+0	-12.6559E-3
-322.661E-6	-10.4541E-12	1.18063E+0	-19.9496E-3	-10.5182E-12	1.40796E+0	-18.5447E-3
-327.664E-6	-10.8097E-12	1.22912E+0	-21.5208E-3	-11.2133E-12	1.44689E+0	-28.2561E-3
-332.666E-6	-11.3336E-12	1.27456E+0	-21.4652E-3	-11.6611E-12	1.49461E+0	-23.9667E-3
-337.669E-6	-11.9886E-12	1.32178E+0	-32.0153E-3	-12.0063E-12	1.53876E+0	-8.69032E-3
-342.671E-6	-12.4778E-12	1.36741E+0	-24.2964E-3	-12.4433E-12	1.57030E+0	-3.63297E-3
-347.674E-6	-12.8285E-12	1.40970E+0	-7.97619E-3	-12.9846E-12	1.60069E+0	-10.1584E-3
-352.676E-6	-13.4383E-12	1.46807E+0	-14.0901E-3	-13.4944E-12	1.65034E+0	-20.1419E-3
-357.679E-6	-14.0581E-12	1.52758E+0	-20.1420E-3	-13.7754E-12	1.71735E+0	-21.6508E-3
-362.681E-6	-14.5928E-12	1.56766E+0	-8.59474E-3	-14.2596E-12	1.76795E+0	-18.0238E-3
-367.684E-6	-15.0178E-12	1.61689E+0	-6.50671E-3	-14.9247E-12	1.80325E+0	-12.8262E-3
-372.686E-6	-15.7983E-12	1.67521E+0	-16.5433E-3	-15.8007E-12	1.85624E+0	-9.98611E-3
-377.689E-6	-16.4072E-12	1.71523E+0	-25.4776E-3	-16.1803E-12	1.92302E+0	-14.9664E-3
-382.691E-6	-16.9549E-12	1.76426E+0	-29.9773E-3	-16.7919E-12	1.97924E+0	-16.0075E-3
-387.694E-6	-17.4168E-12	1.83235E+0	-32.0511E-3	-17.6676E-12	2.03308E+0	-19.1184E-3
-392.696E-6	-18.1520E-12	1.87539E+0	-31.5157E-3	-18.3031E-12	2.09453E+0	-25.8233E-3
-397.699E-6	-18.6918E-12	1.89802E+0	-26.8592E-3	-18.9469E-12	2.15115E+0	-25.1840E-3
-402.701E-6	-19.2784E-12	1.94478E+0	-20.4270E-3	-19.7413E-12	2.20066E+0	-17.2543E-3
-407.704E-6	-19.8923E-12	2.00206E+0	-10.0238E-3	-20.7058E-12	2.24407E+0	-10.0620E-3
-412.706E-6	-20.6474E-12	2.03821E+0	-11.8013E-3	-21.4081E-12	2.29168E+0	-15.1918E-3
-417.709E-6	-21.3937E-12	2.07115E+0	-25.4827E-3	-22.1278E-12	2.34240E+0	-24.9980E-3
-422.711E-6	-21.9943E-12	2.10831E+0	-30.6521E-3	-22.9126E-12	2.38472E+0	-21.4401E-3
-427.714E-6	-22.9943E-12	2.14479E+0	-25.9203E-3	-23.8564E-12	2.42303E+0	-7.39922E-3
-432.716E-6	-23.7981E-12	2.19630E+0	-14.8997E-3	-24.5531E-12	2.45454E+0	-7.66831E-3
-437.719E-6	-24.4493E-12	2.25232E+0	-1.22235E-3	-24.9931E-12	2.48687E+0	-21.8173E-3
-442.721E-6	-25.1385E-12	2.29602E+0	-5.18435E-3	-25.8541E-12	2.52251E+0	-23.4499E-3
-447.724E-6	-26.1804E-12	2.33396E+0	-15.5127E-3	-26.7380E-12	2.55492E+0	-21.4039E-3
-452.726E-6	-26.9949E-12	2.37784E+0	-10.3683E-3	-27.4914E-12	2.58758E+0	-22.8618E-3
-457.729E-6	-27.6375E-12	2.42293E+0	-14.8961E-3	-27.8645E-12	2.61552E+0	-16.9302E-3
-462.731E-6	-28.3992E-12	2.46900E+0	-21.3663E-3	-28.8803E-12	2.64227E+0	-10.6461E-3
-467.734E-6	-29.4534E-12	2.51409E+0	-17.0240E-3	-29.8824E-12	2.67138E+0	-12.0998E-3
-472.736E-6	-30.4520E-12	2.53932E+0	-29.6554E-3	-30.5798E-12	2.70162E+0	-13.8233E-3
-477.739E-6	-30.7997E-12	2.57213E+0	-43.6770E-3	-31.1105E-12	2.73745E+0	-11.2066E-3
-482.741E-6	-31.5478E-12	2.61306E+0	-31.9182E-3	-32.0957E-12	2.77730E+0	-10.6539E-3
-487.744E-6	-32.7714E-12	2.63677E+0	-18.2418E-3	-33.3830E-12	2.81383E+0	-11.6127E-3
-492.746E-6	-33.7366E-12	2.66374E+0	-19.9568E-3	-34.2449E-12	2.83626E+0	-19.4603E-3
-497.749E-6	-34.3384E-12	2.69469E+0	-18.0298E-3	-35.1400E-12	2.84575E+0	-31.4772E-3
-502.751E-6	-35.1473E-12	2.71192E+0	-19.1294E-3	-36.2573E-12	2.85674E+0	-30.5772E-3
-507.754E-6	-36.3240E-12	2.73412E+0	-36.9082E-3	-37.3226E-12	2.88421E+0	-20.7000E-3
-512.756E-6	-37.3865E-12	2.76577E+0	-39.0790E-3	-38.3849E-12	2.92151E+0	-19.0197E-3
-517.759E-6	-38.1118E-12	2.78641E+0	-19.5949E-3	-39.0486E-12	2.94494E+0	-18.2872E-3
-522.761E-6	-39.0609E-12	2.81053E+0	-8.93231E-3	-40.2109E-12	2.94681E+0	-16.1510E-3
-527.764E-6	-40.3514E-12	2.83793E+0	3.09210E-3	-41.2733E-12	2.94615E+0	-20.1117E-3
-532.766E-6	-41.4269E-12	2.85457E+0	7.25153E-3	-41.7529E-12	2.95045E+0	-14.2597E-3
-537.769E-6	-42.2069E-12	2.89109E+0	-9.55919E-3	-42.6413E-12	2.94539E+0	-3.84015E-3
-542.771E-6	-43.1575E-12	2.93486E+0	-17.7431E-3	-43.5391E-12	2.93140E+0	-1.54900E-3
-547.774E-6	-44.1795E-12	2.93072E+0	-18.3772E-3	-44.2491E-12	2.92252E+0	-15.1175E-3
-552.776E-6	-45.0474E-12	2.91481E+0	-18.3323E-3	-44.2715E-12	2.91585E+0	-33.3058E-3
-557.779E-6	-45.6728E-12	2.92750E+0	-17.5279E-3	-44.8960E-12	2.90224E+0	-38.9044E-3
-562.781E-6	-46.9867E-12	2.94349E+0	-21.0978E-3	-46.5125E-12	2.88678E+0	-46.2187E-3
-567.784E-6	-48.8240E-12	2.97310E+0	-27.8262E-3	-47.7798E-12	2.87225E+0	-60.7843E-3
-572.786E-6	-50.0723E-12	3.00625E+0	-36.2439E-3	-48.3457E-12	2.86358E+0	-60.1929E-3
-577.789E-6	-50.7380E-12	2.99510E+0	-34.6014E-3	-49.4409E-12	2.86989E+0	-31.7175E-3
-582.791E-6	-52.0550E-12	2.97299E+0	-27.0573E-3	-50.7019E-12	2.88509E+0	-13.4576E-3
-587.794E-6	-53.4285E-12	2.98205E+0	-26.4596E-3	-51.6375E-12	2.88926E+0	-24.6011E-3
-592.796E-6	-54.0812E-12	2.99869E+0	-23.5298E-3	-52.3782E-12	2.88548E+0	-28.0475E-3
-597.799E-6	-54.5721E-12	3.00132E+0	-23.5942E-3	-53.5047E-12	2.89074E+0	-10.4032E-3
-602.801E-6	-55.6450E-12	2.99574E+0	-31.2742E-3	-54.8821E-12	2.89478E+0	-931.562E-6
-607.804E-6	-56.7160E-12	2.97809E+0	-34.4647E-3	-56.2703E-12	2.88906E+0	-9.09540E-3
-612.806E-6	-57.5423E-12	2.95548E+0	-41.2777E-3	-57.2138E-12	2.87720E+0	-14.4517E-3
-617.809E-6	-58.2495E-12	2.94898E+0	-43.2711E-3	-58.7078E-12	2.86684E+0	-16.3396E-3
-622.811E-6	-59.1495E-12	2.93438E+0	-25.8490E-3	-60.1853E-12	2.85727E+0	-19.0641E-3
-627.814E-6	-60.4505E-12	2.89232E+0	-14.3555E-3	-61.2460E-12	2.84513E+0	-12.9821E-3
-632.816E-6	-61.2151E-12	2.86632E+0	-9.68004E-3	-62.0452E-12	2.83276E+0	-9.30456E-3
-637.819E-6	-61.7471E-12	2.86144E+0	1.47685E-3	-63.2284E-12	2.81241E+0	-11.8248E-3
-642.821E-6	-62.7073E-12	2.84228E+0	-7.25225E-3	-64.2755E-12	2.79009E+0	-4.40083E-3
-647.824E-6	-63.9309E-12	2.81791E+0	-21.0424E-3	-65.1136E-12	2.76167E+0	-1.77758E-3
-652.826E-6	-64.7063E-12	2.79116E+0	-12.8752E-3	-65.5433E-12	2.71350E+0	-11.5542E-3
-657.829E-6	-65.4742E-12	2.76392E+0	-7.71976E-3	-66.7183E-12	2.66854E+0	-16.4314E-3
-662.831E-6	-66.9713E-12	2.75183E+0	-20.1471E-3	-67.3624E-12	2.62849E+0	-23.1850E-3
-667.834E-6	-67.8579E-12	2.74157E+0	-30.8862E-3	-67.9251E-12	2.57902E+0	-29.8823E-3
-672.836E-6	-68.7789E-12	2.71960E+0	-28.4415E-3	-68.3675E-12	2.53514E+0	-29.0770E-3
-677.839E-6	-69.8965E-12	2.69965E+0	-23.8213E-3	-69.0395E-12	2.50966E+0	-21.2497E-3
-682.841E-6	-71.1795E-12	2.68582E+0	-20.1057E-3	-69.6281E-12	2.49233E+0	-10.8903E-3
-687.844E-6	-72.0738E-12	2.66049E+0	-23.3433E-3	-70.3272E-12	2.47768E+0	-18.9546E-3
-692.846E-6	-72.2823E-12	2.63305E+0	-34.0421E-3	-71.1046E-12	2.46299E+0	-23.5459E-3
-697.849E-6	-73.1613E-12	2.60229E+0	-34.7134E-3	-72.2888E-12	2.43090E+0	-9.60368E-3
-702.851E-6	-74.0770E-12	2.55767E+0	-22.3621E-3	-73.3120E-12	2.39216E+0	-2.26315E-3
-707.854E-6	-74.5317E-12	2.52354E+0	-9.77378E-3	-74.2816E-12	2.37242E+0	-12.3410E-3
-712.856E-6	-74.7440E-12	2.48889E+0	691.249E-6	-75.4996E-12	2.35207E+0	-27.7344E-3
-717.859E-6	-75.2849E-12	2.42830E+0	-5.70940E-3	-77.1547E-12	2.31319E+0	-20.6527E-3
-722.861E-6	-75.6786E-12	2.36939E+0	-27.1792E-3	-77.8794E-12	2.27258E+0	-7.54215E-3
-727.864E-6	-76.3447E-12	2.33639E+0	-16.2055E-3	-79.2102E-12	2.23791E+0	-15.0507E-3
-732.866E-6	-76.7307E-12	2.30154E+0	9.01076E-3	-80.1550E-12	2.20145E+0	-25.5543E-3
-737.869E-6	-77.5871E-12	2.24815E+0	3.76706E-3	-81.4777E-12	2.16582E+0	-21.9714E-3
-742.871E-6	-78.3566E-12	2.19583E+0	-13.0196E-3	-82.0396E-12	2.13074E+0	-13.4449E-3
-747.874E-6	-79.1688E-12	2.15229E+0	-22.7535E-3	-82.6249E-12	2.09352E+0	-13.5596E-3
-752.876E-6	-80.2671E-12	2.12062E+0	-23.9542E-3	-82.8416E-12	2.04266E+0	-17.9211E-3
-757.879E-6	-81.1258E-12	2.10587E+0	-15.0599E-3	-83.3651E-12	1.97139E+0	-17.8897E-3
-762.881E-6	-82.2389E-12	2.08902E+0	-8.63820E-3	-83.7325E-12	1.89959E+0	-21.2239E-3
-767.884E-6	-83.2082E-12	2.06068E+0	-14.4083E-3	-83.7464E-12	1.84381E+0	-27.2522E-3
-772.886E-6	-84.2436E-12	2.02766E+0	-16.4462E-3	-84.0355E-12	1.80869E+0	-23.7218E-3
-777.889E-6	-84.6818E-12	1.98652E+0	-17.4134E-3	-83.9402E-12	1.76911E+0	-9.14074E-3
-782.891E-6	-85.0232E-12	1.95238E+0	-29.9953E-3	-84.1764E-12	1.70633E+0	-1.73434E-3
-787.894E-6	-85.3409E-12	1.93582E+0	-24.6858E-3	-84.4203E-12	1.65079E+0	-10.9281E-3
-792.896E-6	-86.0508E-12	1.90443E+0	-6.33054E-3	-84.7242E-12	1.60733E+0	-15.7366E-3
-797.899E-6	-86.1274E-12	1.84086E+0	-11.3113E-3	-85.1913E-12	1.56728E+0	-17.4947E-3
-802.901E-6	-86.1756E-12	1.78204E+0	-14.8161E-3	-85.6730E-12	1.54598E+0	-24.6221E-3
-807.904E-6	-86.2371E-12	1.73417E+0	787.511E-6	-86.2287E-12	1.54276E+0	-23.8168E-3
-812.906E-6	-86.5024E-12	1.67370E+0	703.953E-6	-87.2788E-12	1.52145E+0	-20.9460E-3
-817.909E-6	-87.0737E-12	1.62832E+0	-11.8554E-3	-88.2349E-12	1.47119E+0	-22.7902E-3
-822.911E-6	-87.1238E-12	1.58791E+0	-14.9385E-3	-89.2988E-12	1.41937E+0	-14.0570E-3
-827.914E-6	-87.5922E-12	1.53373E+0	-9.93034E-3	-90.3177E-12	1.38536E+0	1.94710E-3
-832.916E-6	-88.1913E-12	1.48408E+0	3.76439E-3	-91.5741E-12	1.36345E+0	2.80613E-3
-837.919E-6	-89.7229E-12	1.42934E+0	6.66867E-3	-92.6481E-12	1.33575E+0	764.456E-6
-842.921E-6	-89.7329E-12	1.38965E+0	-13.4711E-3	-92.9108E-12	1.31014E+0	-3.75272E-3
-847.924E-6	-91.0747E-12	1.37433E+0	-31.7202E-3	-93.1537E-12	1.28304E+0	-20.9236E-3
-852.926E-6	-91.9401E-12	1.35221E+0	-27.3227E-3	-93.8023E-12	1.22585E+0	-29.9350E-3
-857.929E-6	-92.8302E-12	1.31175E+0	-16.7397E-3	-93.9534E-12	1.16490E+0	-33.1211E-3
-862.931E-6	-93.6534E-12	1.27788E+0	-5.90024E-3	-93.3596E-12	1.11281E+0	-31.3347E-3
-867.934E-6	-94.1178E-12	1.26075E+0	9.09383E-3	-93.1932E-12	1.05369E+0	-19.6127E-3
-872.936E-6	-94.2939E-12	1.23209E+0	-1.33323E-3	-93.8386E-12	1.01769E+0	-16.3861E-3
-877.939E-6	-94.8303E-12	1.19656E+0	-21.7332E-3	-93.3280E-12	1.00553E+0	-19.6017E-3
-882.941E-6	-96.0498E-12	1.15847E+0	-5.27511E-3	-93.1366E-12	978.980E-3	-25.8905E-3
-887.944E-6	-95.5359E-12	1.11659E+0	13.1547E-3	-93.3543E-12	936.448E-3	-29.8663E-3
-892.946E-6	-94.9257E-12	1.09085E+0	-2.77139E-3	-94.0302E-12	899.688E-3	-23.7601E-3
-897.949E-6	-95.9254E-12	1.06345E+0	-9.78592E-3	-94.4124E-12	876.498E-3	-24.2148E-3
-902.951E-6	-96.0236E-12	1.01509E+0	-4.17417E-3	-94.7457E-12	857.936E-3	-22.3044E-3
-907.954E-6	-95.6757E-12	967.574E-3	-9.29638E-3	-95.2349E-12	834.845E-3	-11.5468E-3
-912.956E-6	-95.8306E-12	929.823E-3	3.43156E-3	-95.8694E-12	797.035E-3	-14.7213E-3
-917.959E-6	-96.1773E-12	893.197E-3	11.1368E-3	-96.9874E-12	752.945E-3	-14.3641E-3
-922.961E-6	-95.8940E-12	869.433E-3	-23.2836E-3	-97.4513E-12	739.207E-3	-4.58162E-3
-927.964E-6	-96.1266E-12	850.542E-3	-47.4404E-3	-98.1428E-12	737.653E-3	-3.50423E-3
-932.966E-6	-96.3342E-12	804.322E-3	-35.4042E-3	-98.5323E-12	724.245E-3	-7.79420E-3
-937.969E-6	-97.3530E-12	762.868E-3	-16.6846E-3	-99.2921E-12	710.021E-3	-19.2247E-3
-942.971E-6	-97.8044E-12	761.602E-3	-3.30235E-3	-99.6848E-12	685.140E-3	-33.4574E-3
-947.974E-6	-98.6556E-12	753.424E-3	-7.51665E-3	-100.030E-12	641.764E-3	-36.1859E-3
-952.976E-6	-98.7946E-12	729.388E-3	-31.2751E-3	-99.7804E-12	609.057E-3	-20.0794E-3
-957.979E-6	-99.5701E-12	719.990E-3	-41.0139E-3	-100.258E-12	597.014E-3	-1.79960E-3
-962.981E-6	-100.229E-12	699.119E-3	-26.6488E-3	-99.8093E-12	579.722E-3	4.68573E-3
-967.984E-6	-100.236E-12	667.879E-3	-10.8166E-3	-99.6467E-12	550.606E-3	6.28987E-3
-972.986E-6	-100.771E-12	652.915E-3	3.10312E-3	-99.2587E-12	520.319E-3	3.54829E-3
-977.989E-6	-101.160E-12	622.708E-3	7.71803E-3	-99.1756E-12	497.624E-3	-13.2851E-3
-982.991E-6	-101.308E-12	576.841E-3	-16.4709E-3	-99.1398E-12	487.478E-3	-27.5482E-3
-987.994E-6	-100.733E-12	566.118E-3	-33.7109E-3	-99.1646E-12	484.581E-3	-13.7739E-3
-992.997E-6	-101.833E-12	564.091E-3	-21.5506E-3	-98.9484E-12	475.220E-3	7.30991E-3
-997.999E-6	-101.562E-12	541.998E-3	-16.3676E-3	-98.7850E-12	463.844E-3	8.27159E-3
-1.00300E-3	-101.072E-12	525.594E-3	-27.3728E-3	-99.3979E-12	448.866E-3	-8.51762E-3
-1.00800E-3	-101.695E-12	502.010E-3	-30.8848E-3	-99.5824E-12	423.714E-3	-21.6838E-3
-1.01301E-3	-101.677E-12	479.069E-3	-32.3626E-3	-99.1963E-12	396.055E-3	-15.1043E-3
-1.01801E-3	-101.330E-12	482.054E-3	-44.0658E-3	-100.038E-12	379.967E-3	-10.8704E-3
-1.02301E-3	-101.112E-12	487.624E-3	-32.1710E-3	-100.569E-12	385.195E-3	-16.5597E-3
-1.02801E-3	-101.865E-12	470.533E-3	-15.1314E-3	-101.226E-12	389.612E-3	-16.2684E-3
-1.03302E-3	-101.764E-12	449.691E-3	-21.7168E-3	-101.643E-12	375.090E-3	-26.6488E-3
-1.03802E-3	-101.260E-12	427.501E-3	-19.9847E-3	-102.050E-12	354.233E-3	-41.5311E-3
-1.04302E-3	-100.980E-12	397.514E-3	-24.2224E-3	-102.684E-12	331.632E-3	-25.9007E-3
-1.04802E-3	-101.128E-12	395.358E-3	-39.6712E-3	-103.024E-12	317.243E-3	-9.69429E-3
-1.05303E-3	-100.795E-12	396.185E-3	-29.6091E-3	-103.151E-12	327.931E-3	-23.0459E-3
-1.05803E-3	-100.685E-12	369.275E-3	-8.59020E-3	-102.865E-12	349.886E-3	-23.9599E-3
-1.06303E-3	-100.811E-12	361.099E-3	-5.62298E-3	-103.132E-12	351.216E-3	-4.08044E-3
-1.06803E-3	-101.220E-12	361.220E-3	-9.83628E-3	-103.058E-12	340.333E-3	-4.60435E-3
-1.07304E-3	-101.342E-12	340.975E-3	-14.3828E-3	-102.926E-12	337.070E-3	-24.1260E-3
-1.07804E-3	-102.014E-12	327.827E-3	-27.7344E-3	-102.342E-12	329.386E-3	-31.0712E-3
-1.08304E-3	-102.375E-12	332.318E-3	-30.8048E-3	-102.013E-12	317.635E-3	-26.2163E-3
-1.08804E-3	-103.136E-12	331.489E-3	-22.6441E-3	-101.758E-12	306.861E-3	-20.7694E-3
-1.09305E-3	-103.404E-12	320.260E-3	-19.6794E-3	-102.072E-12	311.862E-3	-7.01329E-3
-1.09805E-3	-104.008E-12	322.961E-3	-10.9749E-3	-101.832E-12	333.836E-3	3.84352E-3
-1.10305E-3	-104.271E-12	326.409E-3	-11.6213E-3	-101.763E-12	333.615E-3	-6.48680E-3
-1.10805E-3	-104.474E-12	318.798E-3	-24.7055E-3	-101.791E-12	317.432E-3	-28.8110E-3
-1.11306E-3	-104.443E-12	315.696E-3	-32.9008E-3	-101.883E-12	313.723E-3	-37.1646E-3
-1.11806E-3	-104.346E-12	311.042E-3	-41.1896E-3	-102.132E-12	307.871E-3	-23.3644E-3
-1.12306E-3	-104.078E-12	307.576E-3	-40.3462E-3	-102.258E-12	305.615E-3	-6.56924E-3
-1.12806E-3	-103.971E-12	307.406E-3	-28.3372E-3	-102.777E-12	318.227E-3	2.82639E-3
-1.13307E-3	-103.546E-12	293.161E-3	-24.6397E-3	-103.332E-12	332.819E-3	8.77918E-3
-1.13807E-3	-103.461E-12	282.699E-3	-41.3361E-3	-104.037E-12	333.889E-3	46.4651E-6
-1.14307E-3	-102.550E-12	299.394E-3	-49.5482E-3	-104.205E-12	320.563E-3	-21.7860E-3
-1.14807E-3	-102.743E-12	309.796E-3	-21.2308E-3	-104.953E-12	312.463E-3	-31.9008E-3
-1.15308E-3	-102.444E-12	304.048E-3	3.23924E-3	-104.930E-12	315.728E-3	-22.3480E-3
-1.15808E-3	-102.822E-12	316.755E-3	-3.93461E-3	-105.323E-12	323.105E-3	-16.8642E-3
-1.16308E-3	-103.306E-12	325.966E-3	-21.6455E-3	-105.455E-12	325.215E-3	-24.7039E-3
-1.16808E-3	-103.343E-12	306.376E-3	-29.8929E-3	-104.706E-12	333.486E-3	-27.6291E-3
-1.17309E-3	-103.468E-12	297.233E-3	-22.0797E-3	-104.206E-12	359.876E-3	-21.5386E-3
-1.17809E-3	-104.008E-12	307.595E-3	-1.40294E-3	-104.650E-12	377.574E-3	-27.0978E-3
-1.18309E-3	-104.285E-12	317.494E-3	6.41762E-3	-104.499E-12	368.571E-3	-40.1668E-3
-1.18809E-3	-105.188E-12	324.665E-3	-8.11295E-3	-104.014E-12	361.319E-3	-44.0896E-3
-1.19310E-3	-105.689E-12	329.786E-3	-14.2879E-3	-103.763E-12	367.490E-3	-45.4045E-3
-1.19810E-3	-106.286E-12	348.121E-3	-20.2023E-3	-104.118E-12	369.392E-3	-34.1717E-3
-1.20310E-3	-106.765E-12	380.060E-3	-29.4572E-3	-104.398E-12	377.925E-3	-5.39499E-3
-1.20810E-3	-106.929E-12	392.050E-3	-17.9314E-3	-103.864E-12	384.603E-3	13.4369E-3
-1.21311E-3	-106.876E-12	383.045E-3	-15.8124E-3	-104.310E-12	389.007E-3	8.93771E-3
-1.21811E-3	-106.296E-12	377.741E-3	-28.9716E-3	-104.090E-12	410.503E-3	-4.80727E-3
-1.22311E-3	-105.657E-12	368.716E-3	-32.8580E-3	-104.586E-12	424.900E-3	-7.54513E-3
-1.22811E-3	-105.768E-12	362.379E-3	-27.1852E-3	-105.340E-12	418.499E-3	1.79499E-3
-1.23312E-3	-104.987E-12	382.986E-3	-9.64498E-3	-105.680E-12	414.161E-3	-4.64632E-3
-1.23812E-3	-104.733E-12	407.057E-3	8.68339E-3	-105.615E-12	416.661E-3	-23.6256E-3
-1.24312E-3	-104.095E-12	404.219E-3	3.04851E-3	-106.517E-12	421.252E-3	-27.4520E-3
-1.24812E-3	-104.191E-12	400.540E-3	-21.6716E-3	-106.662E-12	437.781E-3	-16.5926E-3
-1.25313E-3	-104.122E-12	410.645E-3	-29.7071E-3	-107.703E-12	454.861E-3	-12.7990E-3
-1.25813E-3	-104.172E-12	422.701E-3	-24.9048E-3	-107.600E-12	459.848E-3	-20.2081E-3
-1.26313E-3	-104.667E-12	436.484E-3	-31.8279E-3	-107.563E-12	464.239E-3	-21.3602E-3
-1.26813E-3	-105.611E-12	445.565E-3	-29.9264E-3	-108.564E-12	461.977E-3	-27.6080E-3
-1.27314E-3	-105.603E-12	436.545E-3	-20.8398E-3	-108.649E-12	446.951E-3	-41.2140E-3
-1.27814E-3	-106.130E-12	429.916E-3	-12.1468E-3	-108.771E-12	450.335E-3	-26.7709E-3
-1.28314E-3	-106.751E-12	448.419E-3	6.53252E-3	-108.490E-12	477.091E-3	7.48440E-3
-1.28814E-3	-107.340E-12	456.682E-3	2.22576E-3	-108.437E-12	496.957E-3	17.7759E-3
-1.29315E-3	-107.927E-12	460.086E-3	-24.1141E-3	-108.027E-12	502.397E-3	-9.82504E-3
-1.29815E-3	-108.745E-12	480.697E-3	-24.9205E-3	-108.020E-12	504.212E-3	-38.0412E-3
-1.30315E-3	-109.367E-12	483.829E-3	-13.3236E-3	-108.096E-12	518.791E-3	-28.8853E-3
-1.30815E-3	-109.447E-12	476.742E-3	-23.1606E-3	-107.841E-12	532.002E-3	-10.3227E-3
-1.31316E-3	-109.756E-12	495.240E-3	-28.7110E-3	-107.908E-12	532.637E-3	-11.1087E-3
-1.31816E-3	-109.956E-12	517.330E-3	-22.4654E-3	-108.124E-12	535.000E-3	-12.8530E-3
-1.32316E-3	-109.728E-12	518.236E-3	-27.1313E-3	-108.518E-12	538.003E-3	-11.1245E-3
-1.32816E-3	-109.307E-12	530.826E-3	-30.5188E-3	-108.446E-12	539.002E-3	-12.3536E-3
-1.33317E-3	-108.755E-12	541.328E-3	-18.7424E-3	-108.470E-12	544.092E-3	-19.0749E-3
-1.33817E-3	-109.145E-12	523.886E-3	2.69552E-3	-108.982E-12	562.666E-3	-27.5545E-3
-1.34317E-3	-108.781E-12	518.585E-3	14.7680E-3	-109.409E-12	575.476E-3	-23.2641E-3
-1.34817E-3	-108.815E-12	540.949E-3	11.7566E-3	-110.410E-12	578.899E-3	-16.6806E-3
-1.35318E-3	-108.887E-12	564.795E-3	4.59572E-3	-110.353E-12	594.475E-3	-10.1943E-3
-1.35818E-3	-109.748E-12	571.337E-3	1.26235E-3	-111.059E-12	612.782E-3	-3.23476E-3
-1.36318E-3	-109.215E-12	568.283E-3	7.70972E-3	-112.172E-12	623.007E-3	-98.1361E-6
-1.36818E-3	-109.194E-12	563.922E-3	5.44765E-3	-112.725E-12	620.830E-3	1.13306E-3
-1.37319E-3	-110.013E-12	568.409E-3	-12.6142E-3	-112.220E-12	624.491E-3	-16.5705E-3
-1.37819E-3	-109.804E-12	581.618E-3	-15.8330E-3	-112.388E-12	642.522E-3	-42.5493E-3
-1.38319E-3	-110.134E-12	588.582E-3	-17.8250E-3	-112.649E-12	648.713E-3	-49.4750E-3
-1.38819E-3	-110.343E-12	597.433E-3	-29.7396E-3	-112.265E-12	637.699E-3	-33.6788E-3
-1.39320E-3	-111.114E-12	600.848E-3	-22.8998E-3	-111.373E-12	632.837E-3	-10.9817E-3
-1.39820E-3	-111.047E-12	602.617E-3	-23.2289E-3	-110.926E-12	649.847E-3	5.24350E-3
-1.40320E-3	-112.126E-12	627.116E-3	-38.1292E-3	-110.525E-12	666.063E-3	16.3910E-3
-1.40820E-3	-112.735E-12	646.485E-3	-37.8953E-3	-110.395E-12	658.223E-3	3.87596E-3
-1.41321E-3	-113.251E-12	642.060E-3	-34.0571E-3	-110.104E-12	648.947E-3	-20.5004E-3
-1.41821E-3	-113.930E-12	632.564E-3	-43.1518E-3	-109.694E-12	666.113E-3	-14.3619E-3
-1.42321E-3	-114.236E-12	621.402E-3	-50.2769E-3	-109.294E-12	668.794E-3	-2.01050E-3
-1.42821E-3	-114.797E-12	631.322E-3	-42.5343E-3	-110.024E-12	648.637E-3	-1.99518E-3
-1.43322E-3	-115.174E-12	661.562E-3	-24.9225E-3	-110.509E-12	656.175E-3	519.950E-6
-1.43822E-3	-115.738E-12	677.158E-3	-5.65881E-3	-111.111E-12	674.236E-3	-7.57935E-3
-1.44322E-3	-115.749E-12	674.509E-3	6.01407E-3	-111.503E-12	677.120E-3	-13.0107E-3
-1.44822E-3	-115.907E-12	661.647E-3	2.07970E-3	-112.857E-12	682.348E-3	-304.653E-6
-1.45323E-3	-115.850E-12	660.491E-3	-6.22382E-3	-113.327E-12	688.899E-3	-6.88790E-3
-1.45823E-3	-115.847E-12	667.116E-3	-12.8122E-3	-114.458E-12	693.997E-3	-17.9384E-3
-1.46323E-3	-115.443E-12	669.894E-3	-20.2930E-3	-115.867E-12	699.665E-3	18.9634E-3
-1.46823E-3	-114.838E-12	688.835E-3	-19.7285E-3	-116.429E-12	709.035E-3	42.9399E-3
-1.47324E-3	-114.695E-12	694.757E-3	-14.8178E-3	-116.403E-12	713.587E-3	1.61193E-3
-1.47824E-3	-114.871E-12	685.243E-3	-20.0028E-3	-117.645E-12	703.810E-3	-20.2018E-3
-1.48324E-3	-114.959E-12	682.788E-3	-23.8602E-3	-117.423E-12	702.835E-3	-369.977E-6
-1.48824E-3	-114.161E-12	672.800E-3	-16.7471E-3	-116.560E-12	699.020E-3	-5.52137E-3
-1.49325E-3	-114.185E-12	676.568E-3	-18.4755E-3	-116.772E-12	679.732E-3	-20.0997E-3
-1.49825E-3	-114.960E-12	689.103E-3	-26.8074E-3	-116.412E-12	686.120E-3	-15.7189E-3
-1.50325E-3	-115.625E-12	676.044E-3	-28.3755E-3	-115.293E-12	692.661E-3	-10.3502E-3
-1.50825E-3	-115.803E-12	671.034E-3	-37.9365E-3	-115.243E-12	675.770E-3	-19.0137E-3
-1.51326E-3	-116.154E-12	691.414E-3	-36.0470E-3	-114.931E-12	681.483E-3	-36.8675E-3
-1.51826E-3	-117.459E-12	696.424E-3	-20.9720E-3	-114.175E-12	689.875E-3	-34.8682E-3
-1.52326E-3	-118.748E-12	690.084E-3	-18.8437E-3	-113.921E-12	687.494E-3	-15.0099E-3
-1.52826E-3	-118.855E-12	687.175E-3	-10.4008E-3	-114.649E-12	694.958E-3	-3.52375E-3
-1.53327E-3	-119.287E-12	690.822E-3	609.201E-6	-114.370E-12	703.216E-3	6.23040E-3
-1.53827E-3	-119.880E-12	709.888E-3	-9.34282E-3	-114.860E-12	709.740E-3	21.7411E-3
-1.54327E-3	-120.366E-12	738.216E-3	-24.3019E-3	-116.477E-12	713.310E-3	19.1818E-3
-1.54827E-3	-120.417E-12	743.951E-3	-20.9531E-3	-116.587E-12	707.647E-3	-9.13251E-3
-1.55328E-3	-120.669E-12	716.076E-3	-21.0241E-3	-118.522E-12	701.263E-3	-14.0342E-3
-1.55828E-3	-120.221E-12	695.518E-3	-28.3552E-3	-119.085E-12	714.202E-3	13.3948E-3
-1.56328E-3	-119.955E-12	707.912E-3	-11.9766E-3	-120.850E-12	724.469E-3	23.6573E-3
-1.56828E-3	-119.618E-12	723.328E-3	-2.73748E-3	-121.075E-12	712.130E-3	14.1756E-3
-1.57329E-3	-119.202E-12	723.534E-3	-21.5106E-3	-121.990E-12	702.439E-3	-2.89596E-3
-1.57829E-3	-118.224E-12	721.083E-3	-18.7844E-3	-122.020E-12	703.289E-3	-24.3369E-3
-1.58329E-3	-118.303E-12	715.901E-3	-12.1903E-3	-122.616E-12	714.172E-3	-27.7679E-3
-1.58829E-3	-118.111E-12	710.507E-3	-26.6996E-3	-122.879E-12	735.475E-3	-20.9859E-3
-1.59330E-3	-118.994E-12	706.201E-3	-23.6047E-3	-122.446E-12	737.591E-3	-20.5585E-3
-1.59830E-3	-118.530E-12	697.983E-3	-16.4213E-3	-122.680E-12	729.940E-3	-15.7503E-3
-1.60330E-3	-119.239E-12	691.292E-3	-18.1011E-3	-121.834E-12	734.957E-3	-20.6327E-3
-1.60830E-3	-120.085E-12	686.401E-3	-10.6082E-3	-121.586E-12	731.249E-3	-23.3875E-3
-1.61331E-3	-120.807E-12	682.664E-3	-13.4075E-3	-121.318E-12	711.257E-3	-11.1126E-3
-1.61831E-3	-121.277E-12	683.159E-3	-28.4165E-3	-120.772E-12	689.523E-3	-4.81268E-3
-1.62331E-3	-122.351E-12	683.280E-3	-23.8640E-3	-120.961E-12	678.851E-3	-4.25310E-3
-1.62831E-3	-122.567E-12	681.338E-3	-13.7576E-3	-120.359E-12	667.174E-3	-1.45843E-3
-1.63332E-3	-122.812E-12	692.470E-3	-22.3567E-3	-121.354E-12	669.842E-3	-4.66074E-3
-1.63832E-3	-123.331E-12	711.909E-3	-13.7706E-3	-120.628E-12	688.442E-3	-18.8917E-3
-1.64332E-3	-123.527E-12	709.222E-3	5.78742E-3	-121.826E-12	695.995E-3	-12.4798E-3
-1.64832E-3	-123.746E-12	702.564E-3	-2.06796E-3	-121.993E-12	713.135E-3	11.8315E-3
-1.65333E-3	-123.706E-12	711.759E-3	-1.14777E-3	-122.350E-12	728.454E-3	4.60754E-3
-1.65833E-3	-123.984E-12	703.275E-3	6.62834E-3	-123.223E-12	715.682E-3	-20.7563E-3
-1.66333E-3	-123.684E-12	679.229E-3	-18.7545E-3	-123.950E-12	710.899E-3	-16.1946E-3
-1.66833E-3	-123.904E-12	686.734E-3	-31.9664E-3	-124.915E-12	728.799E-3	-8.68932E-3
-1.67334E-3	-123.787E-12	699.111E-3	-12.8876E-3	-125.650E-12	732.794E-3	-14.7171E-3
-1.67834E-3	-123.460E-12	683.129E-3	-994.978E-6	-126.479E-12	728.753E-3	-11.6599E-3
-1.68334E-3	-123.584E-12	686.949E-3	280.901E-6	-126.810E-12	735.998E-3	-3.35997E-3
-1.68834E-3	-123.921E-12	713.941E-3	5.14873E-3	-127.112E-12	741.588E-3	159.424E-6
-1.69335E-3	-124.369E-12	716.813E-3	10.4091E-3	-127.621E-12	734.258E-3	560.992E-6
-1.69835E-3	-124.469E-12	711.001E-3	2.28630E-3	-127.634E-12	725.153E-3	-2.46476E-3
-1.70335E-3	-124.887E-12	692.391E-3	-5.77769E-3	-128.220E-12	728.446E-3	-9.46274E-3
-1.70835E-3	-125.113E-12	654.859E-3	-13.7101E-3	-128.089E-12	713.901E-3	-9.08858E-3
-1.71336E-3	-126.120E-12	652.112E-3	-24.4134E-3	-127.701E-12	697.623E-3	-7.27792E-3
-1.71836E-3	-126.852E-12	671.314E-3	-13.9088E-3	-127.225E-12	703.965E-3	-24.8506E-3
-1.72336E-3	-126.657E-12	682.845E-3	-6.64130E-3	-127.242E-12	697.528E-3	-39.8752E-3
-1.72836E-3	-126.828E-12	696.450E-3	-2.92800E-3	-127.128E-12	693.853E-3	-29.9082E-3
-1.73337E-3	-127.578E-12	701.222E-3	15.0206E-3	-126.370E-12	706.788E-3	-18.3926E-3
-1.73837E-3	-127.498E-12	691.966E-3	10.6349E-3	-126.902E-12	704.193E-3	-13.3104E-3
-1.74337E-3	-127.183E-12	694.978E-3	-11.7227E-3	-126.855E-12	690.035E-3	-2.91340E-3
-1.74837E-3	-127.007E-12	707.972E-3	-21.1609E-3	-126.710E-12	691.679E-3	-4.96216E-3
-1.75338E-3	-127.980E-12	699.304E-3	-19.4122E-3	-126.750E-12	693.772E-3	-20.1715E-3
-1.75838E-3	-128.160E-12	686.083E-3	-17.5212E-3	-127.402E-12	685.224E-3	-26.8357E-3
-1.76338E-3	-128.304E-12	692.316E-3	-10.4142E-3	-127.813E-12	685.260E-3	-30.9661E-3
-1.76838E-3	-128.005E-12	700.530E-3	-12.8484E-3	-128.433E-12	690.687E-3	-21.7307E-3
-1.77339E-3	-129.170E-12	702.952E-3	-29.2750E-3	-129.694E-12	703.799E-3	-7.11445E-3
-1.77839E-3	-129.406E-12	697.923E-3	-34.8010E-3	-130.047E-12	721.332E-3	-20.7682E-3
-1.78339E-3	-129.204E-12	679.212E-3	-36.0610E-3	-130.882E-12	714.661E-3	-28.6168E-3
-1.78839E-3	-129.457E-12	680.211E-3	-26.4484E-3	-131.210E-12	715.500E-3	-24.5355E-3
-1.79340E-3	-129.952E-12	687.993E-3	-3.62735E-3	-131.896E-12	724.423E-3	-36.7314E-3
-1.79840E-3	-129.982E-12	667.712E-3	5.68142E-3	-132.353E-12	698.473E-3	-33.1031E-3
-1.80340E-3	-129.488E-12	670.416E-3	-2.53975E-3	-132.536E-12	675.925E-3	-5.78360E-3
-1.80840E-3	-129.861E-12	702.863E-3	-4.47497E-3	-132.956E-12	682.474E-3	13.7393E-3
-1.81341E-3	-129.743E-12	710.143E-3	354.327E-6	-132.654E-12	683.941E-3	17.0540E-3
-1.81841E-3	-129.417E-12	706.235E-3	9.45373E-3	-132.463E-12	675.015E-3	4.46658E-3
-1.82341E-3	-129.770E-12	701.316E-3	16.8967E-3	-132.119E-12	675.351E-3	-16.8218E-3
-1.82841E-3	-129.651E-12	679.261E-3	6.24174E-3	-132.107E-12	671.383E-3	-26.3212E-3
-1.83342E-3	-130.051E-12	685.603E-3	5.96269E-3	-131.913E-12	663.403E-3	-16.5454E-3
-1.83842E-3	-130.207E-12	707.531E-3	28.0026E-3	-131.712E-12	678.712E-3	-2.63212E-3
-1.84342E-3	-130.993E-12	696.554E-3	20.0243E-3	-131.244E-12	698.520E-3	-2.50513E-3
-1.84842E-3	-131.600E-12	680.097E-3	-8.94196E-3	-131.112E-12	694.944E-3	-7.99298E-3
-1.85343E-3	-131.891E-12	677.792E-3	-550.267E-6	-131.646E-12	675.955E-3	7.21956E-3
-1.85843E-3	-132.390E-12	687.886E-3	4.78294E-3	-131.583E-12	674.530E-3	17.4519E-3
-1.86343E-3	-132.981E-12	696.362E-3	-13.0841E-3	-131.495E-12	684.606E-3	8.03535E-3
-1.86843E-3	-133.465E-12	693.066E-3	-19.3175E-3	-132.150E-12	681.300E-3	378.375E-6
-1.87344E-3	-133.997E-12	688.621E-3	-12.2617E-3	-133.057E-12	675.014E-3	401.638E-6
-1.87844E-3	-134.656E-12	684.261E-3	-248.884E-6	-133.372E-12	685.436E-3	765.886E-6
-1.88344E-3	-134.491E-12	682.414E-3	4.28164E-3	-134.164E-12	707.055E-3	-5.14957E-3
-1.88844E-3	-135.023E-12	672.217E-3	3.09675E-3	-135.552E-12	701.306E-3	-11.9101E-3
-1.89345E-3	-134.525E-12	662.681E-3	4.03310E-3	-136.073E-12	690.031E-3	-20.4321E-3
-1.89845E-3	-134.654E-12	687.924E-3	4.41466E-3	-136.445E-12	713.117E-3	-32.3029E-3
-1.90345E-3	-134.473E-12	714.880E-3	240.514E-6	-137.845E-12	731.062E-3	-46.4120E-3
-1.90845E-3	-134.613E-12	705.993E-3	-9.50275E-3	-137.892E-12	705.775E-3	-41.4704E-3
-1.91346E-3	-133.633E-12	683.935E-3	-8.05168E-3	-137.730E-12	681.413E-3	-21.4814E-3
-1.91846E-3	-134.117E-12	665.409E-3	3.31472E-3	-137.873E-12	684.743E-3	-25.1133E-3
-1.92346E-3	-134.539E-12	654.872E-3	-4.14668E-3	-137.438E-12	675.536E-3	-30.8296E-3
-1.92846E-3	-134.869E-12	665.758E-3	-18.7631E-3	-136.903E-12	669.817E-3	-10.2360E-3
-1.93347E-3	-135.459E-12	678.923E-3	-11.6520E-3	-136.269E-12	680.916E-3	9.53941E-3
-1.93847E-3	-135.774E-12	674.943E-3	-10.9398E-3	-136.362E-12	675.076E-3	20.0253E-3
-1.94347E-3	-136.189E-12	677.655E-3	-24.7596E-3	-135.909E-12	662.910E-3	20.4774E-3
-1.94847E-3	-137.652E-12	686.452E-3	-14.4337E-3	-135.175E-12	659.543E-3	1.59827E-3
-1.95348E-3	-138.747E-12	686.140E-3	-11.5976E-3	-135.480E-12	657.420E-3	-16.2039E-3
-1.95848E-3	-138.784E-12	691.580E-3	-33.6265E-3	-135.330E-12	663.935E-3	-7.89047E-3
-1.96348E-3	-138.267E-12	699.268E-3	-35.0988E-3	-135.767E-12	676.852E-3	22.3625E-3
-1.96848E-3	-139.610E-12	679.596E-3	-40.1591E-3	-136.192E-12	671.573E-3	30.6393E-3
-1.97349E-3	-140.091E-12	672.530E-3	-52.6821E-3	-136.757E-12	679.647E-3	8.38839E-3
-1.97849E-3	-139.766E-12	703.083E-3	-34.4593E-3	-137.402E-12	701.803E-3	-6.06666E-3
-1.98349E-3	-139.440E-12	714.649E-3	-16.8802E-3	-138.892E-12	689.885E-3	-20.0556E-3
-1.98849E-3	-139.973E-12	709.831E-3	-24.0551E-3	-139.737E-12	676.322E-3	-24.0030E-3
-1.99350E-3	-139.964E-12	706.890E-3	-36.0177E-3	-140.546E-12	693.985E-3	-4.78281E-3
-1.99850E-3	-139.387E-12	693.638E-3	-20.9464E-3	-141.563E-12	718.661E-3	8.05804E-3
-2.00350E-3	-139.304E-12	678.621E-3	11.6129E-3	-141.310E-12	724.326E-3	-2.14361E-3
-2.00850E-3	-139.294E-12	671.741E-3	30.2876E-3	-141.930E-12	726.472E-3	-30.9114E-3
-2.01351E-3	-139.562E-12	666.751E-3	43.1894E-3	-142.038E-12	716.947E-3	-44.4686E-3
-2.01851E-3	-139.941E-12	652.911E-3	41.9674E-3	-142.161E-12	686.254E-3	-25.6581E-3
-2.02351E-3	-140.487E-12	646.042E-3	18.9648E-3	-141.586E-12	684.384E-3	-17.1341E-3
-2.02851E-3	-140.809E-12	653.186E-3	2.34194E-3	-141.743E-12	696.749E-3	-35.2137E-3
-2.03352E-3	-141.761E-12	671.149E-3	-12.0241E-3	-140.592E-12	688.355E-3	-35.3327E-3
-2.03852E-3	-142.659E-12	698.386E-3	-39.9967E-3	-140.584E-12	690.078E-3	-16.4989E-3
-2.04352E-3	-142.989E-12	702.096E-3	-61.3978E-3	-140.185E-12	704.090E-3	-613.979E-6
-2.04852E-3	-143.780E-12	683.450E-3	-54.7517E-3	-139.639E-12	697.504E-3	18.4208E-3
-2.05353E-3	-143.895E-12	680.386E-3	-44.2378E-3	-139.588E-12	676.338E-3	30.1343E-3
-2.05853E-3	-144.441E-12	703.155E-3	-32.2157E-3	-139.511E-12	677.054E-3	19.7658E-3
-2.06353E-3	-144.230E-12	721.190E-3	-9.29110E-3	-139.854E-12	694.094E-3	22.4941E-3
-2.06853E-3	-143.709E-12	710.917E-3	-20.2187E-3	-141.187E-12	706.699E-3	39.1771E-3
-2.07354E-3	-143.234E-12	693.528E-3	-35.1061E-3	-141.658E-12	713.644E-3	16.4120E-3
-2.07854E-3	-143.913E-12	694.790E-3	-13.4219E-3	-141.795E-12	704.937E-3	-9.47963E-3
-2.08354E-3	-143.495E-12	703.214E-3	-205.951E-6	-143.298E-12	695.279E-3	-12.5524E-3
-2.08854E-3	-142.679E-12	697.492E-3	2.66673E-3	-144.411E-12	702.718E-3	-13.2152E-3
-2.09355E-3	-142.880E-12	688.888E-3	216.029E-6	-144.217E-12	701.810E-3	2.73955E-3
-2.09855E-3	-143.466E-12	686.555E-3	-5.90283E-3	-144.809E-12	703.341E-3	21.6777E-3
-2.10355E-3	-144.148E-12	670.115E-3	-10.1616E-3	-146.484E-12	725.402E-3	13.7071E-3
-2.10855E-3	-143.955E-12	663.031E-3	-24.5046E-3	-145.827E-12	732.687E-3	-7.18706E-3
-2.11356E-3	-144.483E-12	694.338E-3	-16.1033E-3	-146.165E-12	726.205E-3	-10.0498E-3
-2.11856E-3	-145.312E-12	713.941E-3	8.49561E-3	-145.847E-12	715.610E-3	-16.9601E-3
-2.12356E-3	-145.909E-12	684.021E-3	-2.14443E-3	-145.723E-12	685.139E-3	-43.7989E-3
-2.12856E-3	-146.204E-12	662.352E-3	-18.4634E-3	-145.275E-12	664.480E-3	-46.9133E-3
-2.13357E-3	-145.975E-12	683.161E-3	-1.84001E-3	-145.289E-12	677.663E-3	-26.9741E-3
-2.13857E-3	-146.198E-12	698.404E-3	19.3004E-3	-144.721E-12	694.902E-3	-15.7817E-3
-2.14357E-3	-146.457E-12	691.467E-3	23.2765E-3	-144.972E-12	705.454E-3	-15.4404E-3
-2.14857E-3	-146.383E-12	693.339E-3	27.7223E-3	-144.575E-12	709.318E-3	-27.9023E-3
-2.15358E-3	-147.189E-12	698.470E-3	28.4291E-3	-144.923E-12	711.455E-3	-34.4171E-3
-2.15858E-3	-147.284E-12	692.850E-3	3.39450E-3	-145.822E-12	718.369E-3	-22.8529E-3
-2.16358E-3	-147.083E-12	673.967E-3	-13.6473E-3	-146.582E-12	715.239E-3	-15.2124E-3
-2.16858E-3	-147.719E-12	659.143E-3	-11.3856E-3	-147.262E-12	698.280E-3	-14.4643E-3
-2.17359E-3	-147.908E-12	688.139E-3	-11.4075E-3	-148.180E-12	686.812E-3	-10.1546E-3
-2.17859E-3	-146.839E-12	707.930E-3	-7.88175E-3	-149.420E-12	693.450E-3	-20.4036E-3
-2.18359E-3	-147.534E-12	690.980E-3	-4.09722E-3	-149.194E-12	694.378E-3	-55.9669E-3
-2.18859E-3	-147.486E-12	686.381E-3	-26.7156E-3	-149.521E-12	700.793E-3	-80.8405E-3
-2.19360E-3	-147.773E-12	699.179E-3	-50.4012E-3	-150.595E-12	712.829E-3	-71.1332E-3
-2.19860E-3	-147.365E-12	712.701E-3	-53.8058E-3	-150.584E-12	711.759E-3	-34.6755E-3
-2.20360E-3	-147.873E-12	713.341E-3	-53.5195E-3	-150.788E-12	720.874E-3	1.97129E-3
-2.20860E-3	-147.846E-12	718.250E-3	-36.3498E-3	-151.089E-12	727.001E-3	-4.08157E-3
-2.21361E-3	-147.932E-12	718.987E-3	-10.4119E-3	-151.187E-12	722.176E-3	-32.4788E-3
-2.21861E-3	-148.030E-12	695.539E-3	830.035E-6	-150.423E-12	717.594E-3	-27.6960E-3
-2.22361E-3	-147.599E-12	674.118E-3	-5.72910E-3	-150.952E-12	704.963E-3	-3.48154E-3
-2.22861E-3	-147.297E-12	667.248E-3	-9.55629E-3	-150.459E-12	691.505E-3	3.27811E-3
-2.23362E-3	-147.899E-12	668.142E-3	-9.70588E-3	-150.632E-12	688.499E-3	-13.3882E-3
-2.23862E-3	-148.630E-12	673.220E-3	-16.4500E-3	-150.747E-12	699.234E-3	-31.0460E-3
-2.24362E-3	-148.544E-12	688.403E-3	-10.6584E-3	-150.229E-12	721.811E-3	-41.8126E-3
-2.24862E-3	-148.390E-12	700.797E-3	-6.47387E-3	-150.313E-12	731.065E-3	-44.1411E-3
-2.25363E-3	-149.617E-12	702.394E-3	-10.1760E-3	-150.814E-12	723.724E-3	-21.4545E-3
-2.25863E-3	-150.525E-12	698.046E-3	-6.13556E-3	-151.371E-12	698.067E-3	685.539E-6
-2.26363E-3	-150.822E-12	687.046E-3	-11.2051E-3	-150.555E-12	679.689E-3	6.49209E-3
-2.26863E-3	-151.092E-12	680.490E-3	-34.5810E-3	-151.456E-12	699.202E-3	56.2653E-6
-2.27364E-3	-152.113E-12	675.241E-3	-37.2253E-3	-151.539E-12	708.813E-3	-22.7674E-3
-2.27864E-3	-152.928E-12	675.570E-3	-23.6646E-3	-151.673E-12	690.843E-3	-27.5224E-3
-2.28364E-3	-153.837E-12	695.348E-3	-30.2935E-3	-152.033E-12	682.761E-3	-5.21563E-3
-2.28864E-3	-153.332E-12	701.601E-3	-24.9287E-3	-152.853E-12	684.025E-3	1.53953E-3
-2.29365E-3	-154.102E-12	699.603E-3	-13.6072E-3	-153.433E-12	676.724E-3	5.76486E-3
-2.29865E-3	-154.548E-12	713.011E-3	-3.67742E-3	-153.577E-12	697.229E-3	20.4253E-3
-2.30365E-3	-154.568E-12	714.646E-3	7.56152E-3	-154.480E-12	730.590E-3	11.9329E-3
-2.30865E-3	-153.900E-12	711.648E-3	-3.47076E-3	-155.029E-12	715.346E-3	-7.49443E-3
-2.31366E-3	-154.512E-12	725.349E-3	-13.2893E-3	-155.537E-12	699.004E-3	-3.83802E-3
-2.31866E-3	-153.866E-12	737.807E-3	-8.95943E-3	-155.998E-12	712.727E-3	4.34895E-3
-2.32366E-3	-154.112E-12	727.902E-3	-14.9930E-3	-156.268E-12	713.123E-3	-4.06445E-3
-2.32866E-3	-153.565E-12	710.255E-3	-26.7156E-3	-156.479E-12	704.259E-3	-6.82472E-3
-2.33367E-3	-153.659E-12	709.915E-3	-20.1784E-3	-156.806E-12	703.411E-3	-2.23371E-3
-2.33867E-3	-154.112E-12	725.778E-3	-7.62107E-3	-157.460E-12	703.114E-3	-11.1406E-3
-2.34367E-3	-154.271E-12	729.779E-3	-5.26475E-3	-156.854E-12	702.142E-3	-14.5843E-3
-2.34867E-3	-155.313E-12	706.740E-3	-16.9338E-3	-156.821E-12	702.574E-3	-10.8825E-3
-2.35368E-3	-155.024E-12	686.799E-3	-21.2404E-3	-155.531E-12	697.177E-3	-10.6101E-3
-2.35868E-3	-156.632E-12	682.692E-3	-7.52187E-3	-155.476E-12	701.431E-3	5.21409E-3
-2.36368E-3	-157.267E-12	683.200E-3	-6.57488E-3	-154.779E-12	722.243E-3	12.8543E-3
-2.36868E-3	-158.669E-12	688.568E-3	-14.4771E-3	-154.711E-12	723.886E-3	-1.67427E-3
-2.37369E-3	-159.025E-12	716.297E-3	-16.9424E-3	-154.297E-12	707.092E-3	-17.9854E-3
-2.37869E-3	-159.916E-12	745.996E-3	281.634E-6	-153.940E-12	675.217E-3	-38.5789E-3
-2.38369E-3	-160.212E-12	736.102E-3	9.63270E-3	-154.412E-12	648.587E-3	-55.8319E-3
-2.38869E-3	-160.198E-12	729.993E-3	-3.33550E-3	-154.682E-12	652.898E-3	-53.1785E-3
-2.39370E-3	-159.716E-12	728.682E-3	-196.420E-6	-155.556E-12	676.100E-3	-32.4990E-3
-2.39870E-3	-159.393E-12	699.017E-3	7.24756E-3	-156.262E-12	699.239E-3	-8.89217E-3
-2.40370E-3	-159.448E-12	675.225E-3	-1.65345E-3	-156.937E-12	705.065E-3	-7.09684E-3
-2.40870E-3	-158.964E-12	670.847E-3	-11.7135E-3	-158.891E-12	712.983E-3	-37.1020E-3
-2.41371E-3	-158.853E-12	675.375E-3	-14.8622E-3	-160.533E-12	726.106E-3	-46.8400E-3
-2.41871E-3	-157.987E-12	684.638E-3	-22.1357E-3	-161.451E-12	729.163E-3	-19.1409E-3
-2.42371E-3	-157.732E-12	685.287E-3	-26.0919E-3	-161.940E-12	729.788E-3	-5.34513E-3
-2.42871E-3	-157.468E-12	680.876E-3	-25.1632E-3	-163.259E-12	719.886E-3	-11.6863E-3
-2.43372E-3	-157.889E-12	681.554E-3	-20.8441E-3	-164.087E-12	710.904E-3	-2.14764E-3
-2.43872E-3	-157.519E-12	686.320E-3	-4.01154E-3	-163.971E-12	724.278E-3	9.95187E-3
-2.44372E-3	-158.670E-12	685.454E-3	16.1429E-3	-162.963E-12	743.062E-3	-4.56077E-3
-2.44872E-3	-159.469E-12	685.421E-3	5.81236E-3	-162.086E-12	741.334E-3	-16.8295E-3
-2.45373E-3	-160.446E-12	697.572E-3	-30.3470E-3	-161.900E-12	708.689E-3	-10.9619E-3
-2.45873E-3	-160.419E-12	708.517E-3	-37.2537E-3	-161.124E-12	675.354E-3	-8.62214E-3
-2.46373E-3	-161.403E-12	714.847E-3	-26.1893E-3	-159.912E-12	670.444E-3	-25.4373E-3
-2.46873E-3	-162.590E-12	722.384E-3	-29.5253E-3	-159.350E-12	676.445E-3	-52.1544E-3
-2.47374E-3	-162.807E-12	709.754E-3	-12.4840E-3	-158.465E-12	680.598E-3	-55.0131E-3
-2.47874E-3	-163.522E-12	688.681E-3	11.4675E-3	-158.472E-12	690.531E-3	-34.2152E-3
-2.48374E-3	-163.238E-12	685.567E-3	2.72868E-3	-158.736E-12	706.570E-3	-9.21115E-3
-2.48874E-3	-163.943E-12	687.738E-3	-9.91480E-3	-158.693E-12	716.453E-3	218.698E-6
-2.49375E-3	-164.100E-12	698.879E-3	-14.4318E-3	-158.357E-12	700.903E-3	-15.4726E-3
-2.49875E-3	-163.841E-12	716.355E-3	-18.9293E-3	-159.495E-12	686.415E-3	-12.8875E-3
-2.50375E-3	-163.988E-12	724.437E-3	-13.9594E-3	-161.974E-12	707.067E-3	6.09109E-3
-2.50875E-3	-163.443E-12	707.646E-3	-8.18288E-3	-163.126E-12	734.481E-3	-13.7616E-3
-2.51376E-3	-163.713E-12	695.752E-3	-17.8968E-3	-163.986E-12	733.466E-3	-43.4600E-3
-2.51876E-3	-162.991E-12	689.245E-3	-25.4975E-3	-165.460E-12	715.332E-3	-42.3181E-3
-2.52376E-3	-163.153E-12	668.724E-3	-6.14022E-3	-167.220E-12	716.936E-3	-44.6933E-3
-2.52876E-3	-163.266E-12	669.556E-3	8.49980E-3	-167.496E-12	734.970E-3	-64.4237E-3
-2.53377E-3	-163.296E-12	670.701E-3	-2.27475E-3	-167.267E-12	729.156E-3	-82.1267E-3
-2.53877E-3	-163.151E-12	673.306E-3	-20.2924E-3	-167.609E-12	716.775E-3	-68.7102E-3
-2.54377E-3	-163.148E-12	699.780E-3	-33.7180E-3	-167.498E-12	723.073E-3	-24.3513E-3
-2.54877E-3	-163.242E-12	711.079E-3	-25.0525E-3	-166.714E-12	716.833E-3	-2.56952E-3
-2.55378E-3	-163.403E-12	686.374E-3	-10.3808E-3	-166.038E-12	682.583E-3	-23.3785E-3
-2.55878E-3	-163.764E-12	675.301E-3	-12.0960E-3	-166.074E-12	656.260E-3	-37.0231E-3
-2.56378E-3	-164.525E-12	695.146E-3	-24.0984E-3	-165.748E-12	666.951E-3	-35.7746E-3
-2.56878E-3	-165.415E-12	692.919E-3	-28.4573E-3	-165.213E-12	692.768E-3	-35.6510E-3
-2.57379E-3	-165.631E-12	703.994E-3	-16.3169E-3	-164.325E-12	685.617E-3	-27.8848E-3
-2.57879E-3	-166.557E-12	730.670E-3	-3.85888E-3	-164.607E-12	662.618E-3	-18.7976E-3
-2.58379E-3	-167.312E-12	714.629E-3	13.8522E-3	-164.537E-12	673.313E-3	-8.67151E-3
-2.58879E-3	-168.603E-12	694.100E-3	16.4932E-3	-165.172E-12	675.911E-3	15.9882E-3
-2.59380E-3	-168.598E-12	708.128E-3	375.558E-6	-165.831E-12	664.988E-3	36.5032E-3
-2.59880E-3	-169.263E-12	731.141E-3	4.84703E-3	-167.406E-12	683.733E-3	24.5487E-3
-2.60380E-3	-170.079E-12	725.869E-3	14.0772E-3	-168.006E-12	704.799E-3	-11.6692E-3
-2.60880E-3	-170.350E-12	707.218E-3	19.9435E-3	-169.042E-12	704.875E-3	-40.1880E-3
-2.61381E-3	-169.882E-12	697.180E-3	19.0982E-3	-170.310E-12	693.384E-3	-31.0492E-3
-2.61881E-3	-169.692E-12	710.782E-3	3.07777E-3	-170.890E-12	690.891E-3	3.42340E-3
-2.62381E-3	-170.191E-12	740.701E-3	7.40726E-3	-171.496E-12	696.828E-3	17.1060E-3
-2.62881E-3	-169.967E-12	718.672E-3	23.5889E-3	-171.428E-12	696.181E-3	-5.93365E-3
-2.63382E-3	-169.364E-12	665.938E-3	11.1190E-3	-171.427E-12	705.074E-3	-12.4967E-3
-2.63882E-3	-168.104E-12	669.328E-3	-6.80256E-3	-171.645E-12	720.067E-3	108.843E-6
-2.64382E-3	-168.347E-12	705.179E-3	938.860E-6	-172.111E-12	702.111E-3	-6.61552E-3
-2.64882E-3	-168.233E-12	712.380E-3	-3.56138E-3	-171.673E-12	675.440E-3	-17.2991E-3
-2.65383E-3	-167.832E-12	704.003E-3	-32.4921E-3	-171.419E-12	684.063E-3	-28.3054E-3
-2.65883E-3	-168.205E-12	700.404E-3	-36.3295E-3	-172.041E-12	693.135E-3	-29.4045E-3
-2.66383E-3	-168.234E-12	685.789E-3	-17.9838E-3	-171.417E-12	676.241E-3	-1.47497E-3
-2.66883E-3	-167.948E-12	674.048E-3	-7.23061E-3	-171.692E-12	662.860E-3	23.6630E-3
-2.67384E-3	-168.479E-12	669.516E-3	-9.33480E-3	-170.748E-12	665.862E-3	11.1824E-3
-2.67884E-3	-169.501E-12	656.448E-3	-39.6370E-3	-170.633E-12	676.036E-3	-6.77988E-3
-2.68384E-3	-170.283E-12	660.000E-3	-71.4830E-3	-170.771E-12	687.839E-3	-3.01377E-3
-2.68884E-3	-170.702E-12	686.562E-3	-53.6487E-3	-171.276E-12	696.358E-3	-6.38458E-3
-2.69385E-3	-171.408E-12	706.710E-3	-27.5265E-3	-170.593E-12	692.391E-3	-11.7578E-3
-2.69885E-3	-171.733E-12	725.002E-3	-30.5371E-3	-169.869E-12	677.352E-3	-16.5591E-3
-2.70385E-3	-172.599E-12	725.805E-3	-33.3193E-3	-171.180E-12	683.517E-3	-16.7057E-3
-2.70885E-3	-172.953E-12	695.627E-3	-48.5429E-3	-170.590E-12	694.455E-3	-4.64353E-3
-2.71386E-3	-172.918E-12	684.354E-3	-66.6198E-3	-170.551E-12	703.782E-3	-18.4770E-3
-2.71886E-3	-173.247E-12	706.245E-3	-38.2697E-3	-170.467E-12	706.261E-3	-35.5621E-3
-2.72386E-3	-173.966E-12	714.029E-3	2.00889E-3	-171.739E-12	674.652E-3	-15.2882E-3
-2.72886E-3	-173.412E-12	704.194E-3	4.46458E-3	-171.622E-12	673.567E-3	13.0609E-3
-2.73387E-3	-173.224E-12	705.122E-3	-5.91869E-3	-172.698E-12	727.384E-3	11.3976E-3
-2.73887E-3	-172.790E-12	712.316E-3	-10.7905E-3	-173.459E-12	754.039E-3	-11.7270E-3
-2.74387E-3	-173.327E-12	706.581E-3	-31.9326E-3	-174.083E-12	733.536E-3	-20.8611E-3
-2.74887E-3	-172.727E-12	692.501E-3	-53.3014E-3	-175.046E-12	709.174E-3	-19.1556E-3
-2.75388E-3	-172.498E-12	677.434E-3	-35.0099E-3	-175.979E-12	699.021E-3	-27.0880E-3
-2.75888E-3	-171.636E-12	665.955E-3	-2.80917E-3	-176.471E-12	696.865E-3	-28.5345E-3
-2.76388E-3	-172.470E-12	666.924E-3	-9.14836E-3	-176.032E-12	696.445E-3	-26.7739E-3
-2.76888E-3	-172.277E-12	685.277E-3	-31.0457E-3	-176.464E-12	694.738E-3	-51.6155E-3
-2.77389E-3	-172.978E-12	696.240E-3	-28.9348E-3	-175.965E-12	697.209E-3	-64.5204E-3
-2.77889E-3	-173.104E-12	678.226E-3	-13.0325E-3	-175.355E-12	704.318E-3	-40.9591E-3
-2.78389E-3	-174.225E-12	663.261E-3	-1.28273E-3	-175.241E-12	686.467E-3	-29.4746E-3
-2.78889E-3	-175.993E-12	662.358E-3	-1.39900E-3	-174.619E-12	658.789E-3	-33.4727E-3
-2.79390E-3	-176.526E-12	671.708E-3	-20.7970E-3	-173.499E-12	665.092E-3	-27.3030E-3
-2.79890E-3	-177.148E-12	689.872E-3	-48.3980E-3	-173.285E-12	681.310E-3	-28.0397E-3
-2.80390E-3	-177.124E-12	698.023E-3	-63.6649E-3	-173.116E-12	697.466E-3	-34.0290E-3
-2.80890E-3	-177.586E-12	697.323E-3	-52.1559E-3	-173.088E-12	706.321E-3	-39.5156E-3
-2.81391E-3	-177.789E-12	685.320E-3	-9.35605E-3	-173.772E-12	687.941E-3	-46.3197E-3
-2.81891E-3	-178.019E-12	672.976E-3	1.63164E-3	-174.209E-12	681.762E-3	-34.8546E-3
-2.82391E-3	-178.145E-12	683.751E-3	-44.5033E-3	-174.829E-12	707.429E-3	-13.9768E-3
-2.82891E-3	-177.607E-12	704.224E-3	-60.1869E-3	-176.593E-12	737.085E-3	-25.7710E-3
-2.83392E-3	-177.883E-12	708.881E-3	-36.4724E-3	-178.058E-12	724.160E-3	-56.9997E-3
-2.83892E-3	-178.051E-12	685.522E-3	-33.5201E-3	-179.116E-12	693.856E-3	-51.3970E-3
-2.84392E-3	-178.467E-12	669.221E-3	-32.8871E-3	-180.320E-12	677.192E-3	-22.5108E-3
-2.84892E-3	-178.029E-12	680.737E-3	-6.68294E-3	-181.521E-12	664.990E-3	-7.43161E-3
-2.85393E-3	-178.479E-12	676.909E-3	-5.72585E-3	-182.044E-12	684.109E-3	-5.41449E-3
-2.85893E-3	-179.349E-12	665.480E-3	-51.8613E-3	-183.292E-12	708.135E-3	-10.5304E-3
-2.86393E-3	-179.437E-12	670.293E-3	-62.5178E-3	-182.950E-12	701.481E-3	-9.09314E-3
-2.86893E-3	-180.272E-12	679.918E-3	-30.8991E-3	-183.582E-12	701.161E-3	-22.5978E-3
-2.87394E-3	-180.399E-12	696.714E-3	-24.9401E-3	-183.077E-12	714.055E-3	-54.4645E-3
-2.87894E-3	-180.919E-12	710.756E-3	-31.1760E-3	-182.730E-12	695.190E-3	-57.7113E-3
-2.88394E-3	-180.891E-12	699.677E-3	-34.4240E-3	-181.012E-12	677.680E-3	-29.4657E-3
-2.88894E-3	-181.548E-12	698.146E-3	-35.0885E-3	-180.078E-12	677.867E-3	-7.84073E-3
-2.89395E-3	-182.454E-12	716.010E-3	-24.0493E-3	-179.659E-12	655.465E-3	-5.37193E-3
-2.89895E-3	-182.564E-12	723.922E-3	-18.4082E-3	-178.331E-12	643.532E-3	-7.80591E-3
-2.90395E-3	-183.217E-12	717.013E-3	-22.9615E-3	-177.578E-12	649.500E-3	-9.38982E-3
-2.90895E-3	-184.467E-12	700.275E-3	-29.7432E-3	-178.322E-12	652.526E-3	-15.6176E-3
-2.91396E-3	-185.434E-12	702.351E-3	-32.4382E-3	-178.076E-12	668.040E-3	-13.9564E-3
-2.91896E-3	-184.897E-12	715.924E-3	-27.1414E-3	-178.970E-12	682.059E-3	-2.37860E-3
-2.92396E-3	-185.037E-12	713.901E-3	-26.8265E-3	-180.597E-12	686.821E-3	-6.76225E-3
-2.92896E-3	-185.324E-12	703.276E-3	-38.4815E-3	-181.122E-12	700.037E-3	-27.6548E-3
-2.93397E-3	-185.065E-12	683.406E-3	-43.7402E-3	-181.949E-12	707.285E-3	-51.5960E-3
-2.93897E-3	-184.532E-12	690.149E-3	-11.5002E-3	-184.030E-12	696.070E-3	-56.0066E-3
-2.94397E-3	-183.823E-12	733.233E-3	20.4157E-3	-184.650E-12	685.811E-3	-33.6876E-3
-2.94897E-3	-183.977E-12	743.699E-3	15.5031E-3	-185.687E-12	700.258E-3	-22.0534E-3
-2.95398E-3	-183.767E-12	707.416E-3	8.27880E-3	-186.815E-12	714.209E-3	-28.2405E-3
-2.95898E-3	-183.017E-12	665.702E-3	-1.53678E-3	-187.419E-12	709.864E-3	-33.1068E-3
-2.96398E-3	-182.760E-12	666.317E-3	-22.7053E-3	-187.916E-12	717.889E-3	-28.4385E-3
-2.96898E-3	-182.586E-12	675.275E-3	-44.3324E-3	-187.852E-12	710.948E-3	-3.13861E-3
-2.97399E-3	-183.183E-12	668.037E-3	-61.8625E-3	-187.380E-12	687.197E-3	30.0866E-3
-2.97899E-3	-182.284E-12	692.230E-3	-62.4544E-3	-187.262E-12	687.983E-3	26.1325E-3
-2.98399E-3	-182.578E-12	700.311E-3	-44.2616E-3	-186.483E-12	691.524E-3	-16.9191E-3
-2.98899E-3	-182.787E-12	681.386E-3	-27.9166E-3	-185.805E-12	676.474E-3	-38.8198E-3
-2.99400E-3	-183.336E-12	688.034E-3	-15.3922E-3	-185.172E-12	678.856E-3	-29.8731E-3
-2.99900E-3	-184.455E-12	703.303E-3	-9.83310E-3	-184.472E-12	686.324E-3	-15.9272E-3
-3.00400E-3	-185.178E-12	704.180E-3	-28.9602E-3	-184.945E-12	659.052E-3	-14.8628E-3
-3.00900E-3	-186.423E-12	689.850E-3	-34.3761E-3	-184.317E-12	645.681E-3	-27.2578E-3
-3.01401E-3	-186.752E-12	681.842E-3	-13.8577E-3	-186.084E-12	662.730E-3	-40.2760E-3
-3.01901E-3	-188.236E-12	681.824E-3	-1.73146E-3	-184.997E-12	686.640E-3	-59.1757E-3
-3.02401E-3	-188.687E-12	678.418E-3	3.51135E-3	-184.832E-12	713.531E-3	-54.4709E-3
-3.02901E-3	-188.901E-12	691.185E-3	6.56103E-3	-186.123E-12	728.517E-3	-33.6898E-3
-3.03402E-3	-189.094E-12	715.263E-3	-4.83789E-3	-186.903E-12	725.447E-3	-41.7620E-3
-3.03902E-3	-189.816E-12	737.627E-3	-16.3351E-3	-187.017E-12	711.792E-3	-58.6971E-3
-3.04402E-3	-189.958E-12	737.200E-3	550.137E-6	-187.325E-12	704.763E-3	-57.2796E-3
-3.04902E-3	-188.878E-12	709.602E-3	19.3704E-3	-188.640E-12	704.523E-3	-53.4593E-3
-3.05403E-3	-188.598E-12	690.046E-3	2.74063E-3	-189.059E-12	702.652E-3	-51.9491E-3
-3.05903E-3	-187.849E-12	702.181E-3	-2.07218E-3	-189.797E-12	709.870E-3	-34.6943E-3
-3.06403E-3	-187.358E-12	723.678E-3	17.4693E-3	-189.370E-12	721.000E-3	-21.8049E-3
-3.06903E-3	-185.920E-12	708.871E-3	8.91225E-3	-189.506E-12	737.708E-3	-6.60216E-3
-3.07404E-3	-185.531E-12	672.200E-3	-6.69359E-3	-189.413E-12	748.421E-3	2.46089E-3
-3.07904E-3	-185.320E-12	654.308E-3	-13.0570E-3	-189.883E-12	721.541E-3	-13.5586E-3
-3.08404E-3	-185.797E-12	652.903E-3	-20.1553E-3	-189.270E-12	685.726E-3	-24.3688E-3
-3.08904E-3	-186.521E-12	657.049E-3	-24.8599E-3	-189.900E-12	684.494E-3	-41.8048E-3
-3.09405E-3	-187.084E-12	665.558E-3	-35.9621E-3	-190.452E-12	680.096E-3	-44.5581E-3
-3.09905E-3	-187.564E-12	684.466E-3	-44.7979E-3	-190.092E-12	662.939E-3	-16.3839E-3
-3.10405E-3	-189.130E-12	689.638E-3	-51.4553E-3	-189.534E-12	675.665E-3	-9.61523E-3
-3.10905E-3	-190.700E-12	675.075E-3	-42.0200E-3	-189.675E-12	674.810E-3	-15.7210E-3
-3.11406E-3	-191.883E-12	674.328E-3	-27.2696E-3	-189.179E-12	654.803E-3	-11.2411E-3
-3.11906E-3	-192.644E-12	673.918E-3	-35.7368E-3	-189.589E-12	662.880E-3	-1.30830E-3
-3.12406E-3	-193.673E-12	675.280E-3	-48.6310E-3	-190.568E-12	668.608E-3	5.96725E-3
-3.12906E-3	-194.913E-12	697.215E-3	-43.0427E-3	-189.779E-12	656.734E-3	1.56490E-3
-3.13407E-3	-195.749E-12	705.953E-3	-18.5307E-3	-190.484E-12	667.030E-3	-12.4223E-3
-3.13907E-3	-195.196E-12	704.695E-3	4.58326E-3	-190.791E-12	694.035E-3	-34.4645E-3
-3.14407E-3	-194.543E-12	714.149E-3	2.09707E-3	-191.578E-12	706.802E-3	-35.3740E-3
-3.14907E-3	-194.988E-12	712.446E-3	-31.4761E-3	-191.427E-12	713.484E-3	-11.9738E-3
-3.15408E-3	-194.437E-12	703.240E-3	-57.7548E-3	-192.305E-12	706.239E-3	-6.73883E-3
-3.15908E-3	-192.979E-12	699.598E-3	-54.9959E-3	-192.399E-12	670.540E-3	-15.5624E-3
-3.16408E-3	-192.786E-12	690.851E-3	-34.7365E-3	-193.560E-12	653.353E-3	-17.4378E-3
-3.16908E-3	-193.854E-12	682.081E-3	-10.6317E-3	-193.980E-12	682.774E-3	-27.8111E-3
-3.17409E-3	-192.860E-12	698.291E-3	-3.91608E-3	-194.473E-12	698.323E-3	-36.9322E-3
-3.17909E-3	-192.263E-12	720.493E-3	-19.4019E-3	-194.721E-12	681.190E-3	-21.8203E-3
-3.18409E-3	-193.741E-12	713.237E-3	-17.5689E-3	-195.501E-12	672.812E-3	-5.08574E-3
-3.18909E-3	-194.242E-12	704.854E-3	-2.55554E-3	-196.061E-12	679.805E-3	-3.23417E-3
-3.19410E-3	-193.752E-12	707.165E-3	-8.19339E-3	-196.568E-12	694.755E-3	-8.34303E-3
-3.19910E-3	-195.026E-12	702.657E-3	-3.31875E-3	-196.573E-12	708.567E-3	-22.1202E-3
-3.20410E-3	-195.986E-12	692.497E-3	8.56737E-3	-195.989E-12	697.555E-3	-33.4853E-3
-3.20910E-3	-196.855E-12	687.135E-3	491.384E-6	-196.514E-12	678.428E-3	-26.6100E-3
-3.21411E-3	-198.121E-12	689.128E-3	-10.3910E-3	-195.513E-12	693.133E-3	-24.2171E-3
-3.21911E-3	-199.543E-12	692.528E-3	-6.46323E-3	-195.410E-12	717.222E-3	-21.9346E-3
-3.22411E-3	-199.031E-12	705.276E-3	-7.19976E-3	-195.167E-12	705.316E-3	-15.4143E-3
-3.22911E-3	-199.826E-12	707.747E-3	-12.7440E-3	-195.885E-12	676.290E-3	-27.7559E-3
-3.23412E-3	-200.693E-12	687.865E-3	-4.60399E-3	-195.625E-12	661.261E-3	-55.1080E-3
-3.23912E-3	-200.363E-12	678.320E-3	-7.62470E-3	-195.664E-12	657.759E-3	-65.9174E-3
-3.24412E-3	-199.819E-12	687.418E-3	-4.65844E-3	-196.313E-12	674.804E-3	-59.8532E-3
-3.24912E-3	-199.830E-12	688.762E-3	10.9582E-3	-197.135E-12	706.276E-3	-58.0913E-3
-3.25413E-3	-199.158E-12	681.651E-3	-3.08607E-3	-197.764E-12	722.598E-3	-40.9721E-3
-3.25913E-3	-198.507E-12	686.424E-3	-24.7880E-3	-198.835E-12	716.533E-3	-22.7320E-3
-3.26413E-3	-198.487E-12	682.148E-3	-30.1005E-3	-199.042E-12	695.227E-3	-17.5376E-3
-3.26913E-3	-197.837E-12	672.222E-3	-46.7750E-3	-200.804E-12	690.065E-3	-19.2352E-3
-3.27414E-3	-196.632E-12	688.603E-3	-52.4174E-3	-201.209E-12	711.264E-3	-47.5446E-3
-3.27914E-3	-197.134E-12	712.789E-3	-23.7972E-3	-201.828E-12	720.334E-3	-70.7009E-3
-3.28414E-3	-197.018E-12	714.445E-3	-6.27154E-3	-201.764E-12	730.442E-3	-53.7846E-3
-3.28914E-3	-196.322E-12	706.840E-3	-7.65332E-3	-202.451E-12	748.232E-3	-28.0120E-3
-3.29415E-3	-197.019E-12	702.563E-3	-13.3350E-3	-202.169E-12	733.352E-3	-14.0927E-3
-3.29915E-3	-197.622E-12	698.104E-3	-24.4691E-3	-202.176E-12	700.057E-3	1.20885E-3
-3.30415E-3	-198.278E-12	702.664E-3	-16.8135E-3	-201.931E-12	683.825E-3	17.8171E-3
-3.30915E-3	-199.403E-12	700.909E-3	-4.83677E-3	-201.506E-12	687.465E-3	13.2710E-3
-3.31416E-3	-200.246E-12	688.117E-3	-25.4774E-3	-200.646E-12	710.428E-3	-8.17019E-3
-3.31916E-3	-200.303E-12	684.231E-3	-51.8579E-3	-200.608E-12	733.083E-3	-14.9528E-3
-3.32416E-3	-200.439E-12	688.227E-3	-50.3637E-3	-200.390E-12	719.554E-3	-5.95023E-3
-3.32916E-3	-202.174E-12	695.599E-3	-31.8873E-3	-199.774E-12	686.347E-3	-9.91085E-3
-3.33417E-3	-202.289E-12	703.006E-3	-38.0079E-3	-199.108E-12	664.259E-3	-34.1570E-3
-3.33917E-3	-202.353E-12	702.315E-3	-29.8922E-3	-200.442E-12	661.384E-3	-38.7196E-3
-3.34417E-3	-202.772E-12	689.777E-3	16.4265E-3	-200.487E-12	664.959E-3	-28.9052E-3
-3.34917E-3	-203.496E-12	692.739E-3	32.0044E-3	-200.273E-12	676.769E-3	-40.8016E-3
-3.35418E-3	-202.430E-12	713.685E-3	10.3028E-3	-201.694E-12	688.314E-3	-61.6426E-3
-3.35918E-3	-202.663E-12	727.914E-3	-6.98676E-3	-202.143E-12	683.429E-3	-66.7284E-3
-3.36418E-3	-202.384E-12	727.523E-3	2.04776E-3	-203.422E-12	695.821E-3	-46.8136E-3
-3.36918E-3	-201.844E-12	717.581E-3	9.38970E-3	-204.206E-12	715.894E-3	-23.5968E-3
-3.37419E-3	-201.848E-12	714.188E-3	1.74280E-3	-205.111E-12	723.097E-3	-8.33430E-3
-3.37919E-3	-200.889E-12	716.829E-3	-5.88102E-3	-206.044E-12	730.083E-3	17.1079E-3
-3.38419E-3	-201.408E-12	697.868E-3	-19.1460E-3	-205.918E-12	720.033E-3	18.8785E-3
-3.38919E-3	-200.736E-12	648.337E-3	-18.4559E-3	-205.536E-12	694.616E-3	-15.3671E-3
-3.39420E-3	-200.070E-12	635.870E-3	-6.42820E-3	-204.810E-12	694.173E-3	-36.9953E-3
-3.39920E-3	-199.871E-12	652.776E-3	-3.14708E-3	-204.135E-12	713.539E-3	-31.7653E-3
-3.40420E-3	-200.959E-12	644.785E-3	-7.35889E-3	-204.090E-12	711.408E-3	-7.81648E-3
-3.40920E-3	-201.168E-12	649.831E-3	-19.5069E-3	-203.641E-12	698.249E-3	3.87324E-3
-3.41421E-3	-201.687E-12	675.411E-3	-15.1943E-3	-202.637E-12	691.723E-3	-17.8507E-3
-3.41921E-3	-203.417E-12	677.053E-3	-2.43220E-3	-202.980E-12	676.031E-3	-33.8478E-3
-3.42421E-3	-203.501E-12	659.321E-3	-15.3318E-3	-202.747E-12	671.047E-3	-26.7324E-3
-3.42921E-3	-204.957E-12	666.543E-3	-24.6409E-3	-202.734E-12	700.425E-3	-29.8250E-3
-3.43422E-3	-206.023E-12	686.970E-3	-18.5069E-3	-202.625E-12	714.198E-3	-29.4809E-3
-3.43922E-3	-208.125E-12	688.732E-3	-30.7683E-3	-202.634E-12	689.861E-3	-10.9642E-3
-3.44422E-3	-208.811E-12	671.699E-3	-51.6487E-3	-204.394E-12	691.100E-3	5.06540E-3
-3.44922E-3	-209.891E-12	678.518E-3	-60.6925E-3	-205.060E-12	707.605E-3	-12.7336E-3
-3.45423E-3	-210.890E-12	723.908E-3	-53.9239E-3	-205.692E-12	694.358E-3	-48.0720E-3
-3.45923E-3	-210.307E-12	749.145E-3	-43.1171E-3	-207.268E-12	691.909E-3	-49.9472E-3
-3.46423E-3	-210.462E-12	753.187E-3	-39.6640E-3	-207.983E-12	697.632E-3	-56.0853E-3
-3.46923E-3	-208.890E-12	735.648E-3	-42.5433E-3	-208.572E-12	696.843E-3	-63.9815E-3
-3.47424E-3	-209.248E-12	718.020E-3	-44.9774E-3	-210.280E-12	702.493E-3	-40.0692E-3
-3.47924E-3	-208.008E-12	707.032E-3	-24.3096E-3	-209.461E-12	677.819E-3	-24.8658E-3
-3.48424E-3	-207.209E-12	678.455E-3	4.59681E-3	-209.120E-12	658.473E-3	-19.8054E-3
-3.48924E-3	-206.652E-12	679.918E-3	4.44349E-3	-209.360E-12	674.579E-3	-30.8309E-3
-3.49425E-3	-206.308E-12	714.752E-3	-8.02978E-3	-208.795E-12	670.235E-3	-63.0054E-3
-3.49925E-3	-205.149E-12	729.809E-3	-17.6238E-3	-207.965E-12	653.916E-3	-53.7390E-3
-3.50425E-3	-204.407E-12	723.007E-3	-30.9633E-3	-208.168E-12	680.203E-3	-18.0483E-3
-3.50925E-3	-205.542E-12	687.863E-3	-9.34907E-3	-208.405E-12	710.047E-3	-28.1602E-3
-3.51426E-3	-206.146E-12	620.047E-3	31.9488E-3	-207.708E-12	677.097E-3	-40.2033E-3
-3.51926E-3	-206.364E-12	606.504E-3	35.2031E-3	-207.932E-12	654.211E-3	-20.2182E-3
-3.52426E-3	-207.756E-12	663.200E-3	30.6328E-3	-207.109E-12	672.044E-3	-20.2547E-3
-3.52926E-3	-210.438E-12	704.350E-3	24.8437E-3	-208.194E-12	687.331E-3	-50.2930E-3
-3.53427E-3	-211.912E-12	687.010E-3	-3.41517E-3	-208.359E-12	713.410E-3	-54.8694E-3
-3.53927E-3	-212.742E-12	659.358E-3	-9.59759E-3	-208.763E-12	710.134E-3	-58.0515E-3
-3.54427E-3	-214.334E-12	655.780E-3	3.91206E-3	-209.629E-12	667.169E-3	-89.6108E-3
-3.54927E-3	-214.712E-12	670.517E-3	8.79636E-3	-211.195E-12	652.010E-3	-79.2759E-3
-3.55428E-3	-215.673E-12	709.560E-3	372.035E-6	-212.520E-12	673.160E-3	-64.3533E-3
-3.55928E-3	-215.706E-12	733.690E-3	-6.95842E-3	-213.536E-12	673.987E-3	-80.7440E-3
-3.56428E-3	-215.371E-12	736.172E-3	-9.17653E-3	-214.426E-12	667.171E-3	-53.8549E-3
-3.56928E-3	-213.517E-12	722.094E-3	-33.8992E-3	-215.657E-12	701.064E-3	-22.0563E-3
-3.57429E-3	-213.804E-12	689.413E-3	-50.3980E-3	-215.849E-12	709.147E-3	-21.0431E-3
-3.57929E-3	-212.627E-12	685.969E-3	-36.0640E-3	-216.725E-12	687.332E-3	-23.4914E-3
-3.58429E-3	-212.292E-12	711.436E-3	-21.0221E-3	-216.940E-12	705.282E-3	-34.1620E-3
-3.58929E-3	-209.676E-12	721.063E-3	-14.5573E-3	-216.249E-12	697.167E-3	-31.9414E-3
-3.59430E-3	-209.888E-12	704.295E-3	-7.70437E-3	-216.724E-12	656.874E-3	-11.3090E-3
-3.59930E-3	-209.413E-12	683.328E-3	-7.76495E-3	-216.606E-12	671.155E-3	-6.36153E-3
-3.60430E-3	-209.404E-12	666.676E-3	-11.2766E-3	-216.438E-12	693.555E-3	-25.4524E-3
-3.60930E-3	-210.254E-12	663.606E-3	-26.1188E-3	-215.147E-12	681.562E-3	-23.2690E-3
-3.61431E-3	-211.548E-12	674.935E-3	-50.8608E-3	-215.248E-12	675.569E-3	13.3096E-3
-3.61931E-3	-212.309E-12	670.844E-3	-40.4779E-3	-214.292E-12	675.741E-3	48.1374E-3
-3.62431E-3	-214.089E-12	669.780E-3	-28.1674E-3	-214.255E-12	669.918E-3	58.3924E-3
-3.62931E-3	-215.764E-12	683.935E-3	-28.0099E-3	-213.068E-12	674.272E-3	39.9345E-3
-3.63432E-3	-217.272E-12	682.027E-3	-13.4227E-3	-213.000E-12	679.774E-3	5.42501E-3
-3.63932E-3	-219.284E-12	697.991E-3	3.02919E-3	-213.710E-12	684.321E-3	-19.8995E-3
-3.64432E-3	-220.391E-12	709.384E-3	24.5574E-3	-212.802E-12	712.606E-3	-39.2928E-3
-3.64932E-3	-221.615E-12	689.115E-3	35.8316E-3	-213.806E-12	710.017E-3	-65.2531E-3
-3.65433E-3	-222.630E-12	681.573E-3	23.3199E-3	-213.918E-12	660.787E-3	-64.1670E-3
-3.65933E-3	-222.152E-12	705.533E-3	7.33873E-3	-214.772E-12	642.325E-3	-13.8836E-3
-3.66433E-3	-222.766E-12	733.919E-3	-11.3398E-3	-215.648E-12	669.096E-3	31.7618E-3
-3.66933E-3	-222.168E-12	709.898E-3	-40.1217E-3	-215.931E-12	691.854E-3	29.0747E-3
-3.67434E-3	-222.192E-12	685.692E-3	-62.0890E-3	-215.833E-12	708.239E-3	23.3715E-3
-3.67934E-3	-220.261E-12	695.270E-3	-59.0970E-3	-216.506E-12	739.418E-3	21.7763E-3
-3.68434E-3	-219.655E-12	692.561E-3	-28.7369E-3	-217.736E-12	728.279E-3	-1.81012E-3
-3.68934E-3	-217.922E-12	692.574E-3	-18.5490E-3	-218.062E-12	700.418E-3	-22.6429E-3
-3.69435E-3	-217.711E-12	716.454E-3	-29.2246E-3	-218.575E-12	716.832E-3	-17.6685E-3
-3.69935E-3	-216.744E-12	724.781E-3	-25.7174E-3	-219.235E-12	710.456E-3	-224.923E-6
-3.70435E-3	-216.403E-12	710.285E-3	-18.6940E-3	-219.715E-12	684.808E-3	6.28888E-3
-3.70935E-3	-216.119E-12	701.000E-3	4.30123E-3	-219.689E-12	669.705E-3	162.789E-6
-3.71436E-3	-217.033E-12	682.849E-3	25.8939E-3	-219.661E-12	671.805E-3	2.03481E-3
-3.71936E-3	-216.493E-12	675.362E-3	22.3318E-3	-219.104E-12	703.024E-3	11.4035E-3
-3.72436E-3	-216.684E-12	699.320E-3	14.8011E-3	-218.314E-12	733.834E-3	779.140E-6
-3.72936E-3	-217.244E-12	707.424E-3	13.1583E-3	-218.077E-12	743.973E-3	-11.3941E-3
-3.73437E-3	-218.269E-12	682.745E-3	3.23036E-3	-218.685E-12	724.412E-3	-30.4129E-3
-3.73937E-3	-219.015E-12	649.264E-3	-537.397E-6	-217.629E-12	701.490E-3	-60.9651E-3
-3.74437E-3	-220.188E-12	644.107E-3	-2.42519E-3	-218.114E-12	697.408E-3	-49.2443E-3
-3.74937E-3	-221.456E-12	665.068E-3	-21.1208E-3	-218.092E-12	701.278E-3	-32.4287E-3
-3.75438E-3	-222.564E-12	678.688E-3	-21.1083E-3	-218.312E-12	696.522E-3	-46.0535E-3
-3.75938E-3	-223.698E-12	675.976E-3	-4.06978E-3	-218.012E-12	671.267E-3	-42.5260E-3
-3.76438E-3	-224.236E-12	662.528E-3	-14.2142E-3	-217.394E-12	658.453E-3	-28.8772E-3
-3.76938E-3	-224.981E-12	663.242E-3	-39.6183E-3	-218.938E-12	668.948E-3	-22.1447E-3
-3.77439E-3	-224.512E-12	677.661E-3	-43.8761E-3	-219.721E-12	674.184E-3	3.36429E-3
-3.77939E-3	-225.335E-12	686.333E-3	-32.2744E-3	-219.774E-12	684.571E-3	39.7721E-3
-3.78439E-3	-225.660E-12	695.958E-3	-25.8450E-3	-221.905E-12	713.264E-3	34.8621E-3
-3.78939E-3	-224.960E-12	708.864E-3	-32.3897E-3	-222.214E-12	746.718E-3	-3.48071E-3
-3.79440E-3	-224.430E-12	708.637E-3	-28.5114E-3	-223.999E-12	747.049E-3	-34.4343E-3
-3.79940E-3	-223.404E-12	699.403E-3	-29.1581E-3	-224.192E-12	717.406E-3	-32.4276E-3
-3.80440E-3	-222.990E-12	718.277E-3	-39.8387E-3	-226.049E-12	681.521E-3	1.26987E-3
-3.80940E-3	-221.102E-12	749.683E-3	-35.7158E-3	-225.706E-12	646.761E-3	-4.43246E-3
-3.81441E-3	-219.797E-12	750.455E-3	-51.6995E-3	-226.526E-12	652.463E-3	-38.3671E-3
-3.81941E-3	-218.266E-12	725.938E-3	-72.9600E-3	-226.749E-12	694.720E-3	-39.0753E-3
-3.82441E-3	-218.678E-12	686.489E-3	-52.0481E-3	-226.945E-12	726.758E-3	-28.6966E-3
-3.82941E-3	-218.036E-12	668.328E-3	-13.5592E-3	-226.596E-12	714.693E-3	-13.2330E-3
-3.83442E-3	-217.636E-12	674.495E-3	-5.32779E-3	-225.998E-12	684.561E-3	-8.26229E-3
-3.83942E-3	-218.079E-12	648.250E-3	-26.3906E-3	-224.443E-12	677.421E-3	-18.3790E-3
-3.84442E-3	-220.041E-12	622.050E-3	-40.3880E-3	-224.612E-12	686.552E-3	-24.6261E-3
-3.84942E-3	-221.032E-12	647.151E-3	-21.6451E-3	-223.855E-12	699.206E-3	-36.3385E-3
-3.85443E-3	-222.364E-12	664.743E-3	9.78557E-3	-222.989E-12	692.214E-3	-23.8793E-3
-3.85943E-3	-223.479E-12	659.846E-3	21.1190E-3	-222.676E-12	689.612E-3	-18.3595E-3
-3.86443E-3	-225.566E-12	668.705E-3	11.3514E-3	-222.453E-12	705.226E-3	-24.1930E-3
-3.86943E-3	-228.113E-12	679.311E-3	-8.17719E-3	-223.403E-12	693.995E-3	-2.68712E-3
-3.87444E-3	-229.340E-12	694.207E-3	-16.0405E-3	-225.623E-12	686.301E-3	-9.45948E-3
-3.87944E-3	-229.968E-12	694.474E-3	165.781E-6	-226.486E-12	714.362E-3	-38.9053E-3
-3.88444E-3	-230.153E-12	662.488E-3	17.9691E-3	-227.649E-12	726.320E-3	-39.8645E-3
-3.88944E-3	-231.687E-12	658.288E-3	14.7604E-3	-230.286E-12	721.377E-3	-39.1152E-3
-3.89445E-3	-230.479E-12	690.654E-3	-11.1539E-3	-231.264E-12	723.860E-3	-55.5739E-3
-3.89945E-3	-229.778E-12	708.622E-3	-27.1681E-3	-232.351E-12	724.465E-3	-43.2526E-3
-3.90445E-3	-227.254E-12	709.619E-3	-23.7589E-3	-232.291E-12	741.496E-3	-3.28902E-3
-3.90945E-3	-225.993E-12	700.556E-3	-16.1016E-3	-233.099E-12	757.877E-3	14.6416E-3
-3.91446E-3	-224.982E-12	665.400E-3	-3.08634E-3	-233.166E-12	722.353E-3	23.4022E-3
-3.91946E-3	-224.020E-12	638.749E-3	3.14932E-3	-233.158E-12	679.368E-3	30.4652E-3
-3.92446E-3	-223.230E-12	657.627E-3	12.5165E-3	-231.075E-12	674.189E-3	11.4251E-3
-3.92946E-3	-222.353E-12	679.870E-3	14.6170E-3	-230.267E-12	659.321E-3	-17.3483E-3
-3.93447E-3	-223.372E-12	674.590E-3	-3.34467E-3	-230.075E-12	661.403E-3	-19.7204E-3
-3.93947E-3	-224.354E-12	666.129E-3	-30.4172E-3	-228.578E-12	713.541E-3	-5.03178E-3
-3.94447E-3	-225.357E-12	659.709E-3	-57.8261E-3	-227.800E-12	723.195E-3	-6.34897E-3
-3.94947E-3	-226.834E-12	655.673E-3	-59.1002E-3	-226.315E-12	671.856E-3	-4.39129E-3
-3.95448E-3	-228.426E-12	665.939E-3	-48.0546E-3	-225.685E-12	662.268E-3	-22.4829E-3
-3.95948E-3	-231.000E-12	661.749E-3	-46.3131E-3	-226.074E-12	677.984E-3	-52.2557E-3
-3.96448E-3	-233.919E-12	647.983E-3	-35.3055E-3	-226.325E-12	652.153E-3	-28.0848E-3
-3.96948E-3	-236.163E-12	670.370E-3	-6.61890E-3	-226.753E-12	639.219E-3	16.9793E-3
-3.97449E-3	-236.825E-12	712.724E-3	15.0053E-3	-227.221E-12	667.198E-3	38.0614E-3
-3.97949E-3	-237.477E-12	730.337E-3	3.18064E-3	-228.422E-12	699.271E-3	38.8030E-3
-3.98449E-3	-237.872E-12	710.891E-3	-12.9067E-3	-230.032E-12	726.863E-3	13.5304E-3
-3.98949E-3	-237.944E-12	684.681E-3	-27.9983E-3	-231.400E-12	730.501E-3	-19.4995E-3
-3.99450E-3	-236.921E-12	699.909E-3	-59.2725E-3	-232.273E-12	692.755E-3	-12.2456E-3
-3.99950E-3	-235.700E-12	732.057E-3	-59.5908E-3	-233.330E-12	670.658E-3	9.93041E-3
-4.00450E-3	-233.766E-12	732.584E-3	-44.5297E-3	-234.924E-12	690.714E-3	10.9812E-3
-4.00950E-3	-232.554E-12	700.461E-3	-55.3215E-3	-235.493E-12	702.963E-3	-7.78006E-3
-4.01451E-3	-231.236E-12	686.639E-3	-66.8153E-3	-235.844E-12	691.406E-3	-18.8827E-3
-4.01951E-3	-229.916E-12	727.121E-3	-66.7577E-3	-235.587E-12	693.012E-3	-7.19708E-3
-4.02451E-3	-229.483E-12	740.579E-3	-45.0258E-3	-236.123E-12	700.810E-3	-5.03919E-3
-4.02951E-3	-229.337E-12	695.140E-3	-24.4169E-3	-236.290E-12	700.327E-3	-13.2701E-3
-4.03452E-3	-230.205E-12	667.579E-3	-20.3851E-3	-234.824E-12	727.810E-3	-12.0897E-3
-4.03952E-3	-230.295E-12	679.574E-3	-30.3500E-3	-234.255E-12	727.854E-3	12.2241E-3
-4.04452E-3	-231.230E-12	682.297E-3	-35.7192E-3	-234.185E-12	667.300E-3	37.6334E-3
-4.04952E-3	-232.362E-12	683.429E-3	-12.9407E-3	-233.569E-12	645.547E-3	17.3115E-3
-4.05453E-3	-234.234E-12	689.568E-3	-10.7332E-3	-232.416E-12	677.055E-3	-21.3303E-3
-4.05953E-3	-236.159E-12	666.163E-3	-33.1426E-3	-233.203E-12	699.337E-3	-14.8302E-3
-4.06453E-3	-238.628E-12	639.269E-3	-43.7274E-3	-232.714E-12	688.116E-3	4.09725E-3
-4.06953E-3	-239.721E-12	642.123E-3	-47.3499E-3	-234.020E-12	677.535E-3	15.8640E-3
-4.07454E-3	-241.107E-12	681.302E-3	-56.5495E-3	-234.353E-12	694.286E-3	29.0054E-3
-4.07954E-3	-241.731E-12	716.602E-3	-59.6885E-3	-235.223E-12	695.372E-3	11.8458E-3
-4.08454E-3	-241.049E-12	725.015E-3	-51.4486E-3	-236.356E-12	697.702E-3	-8.74177E-3
-4.08954E-3	-239.918E-12	719.285E-3	-40.5569E-3	-235.607E-12	707.087E-3	-29.9949E-3
-4.09455E-3	-239.775E-12	686.694E-3	-30.6148E-3	-236.567E-12	674.777E-3	-26.2627E-3
-4.09955E-3	-238.806E-12	669.590E-3	-38.8737E-3	-238.582E-12	667.811E-3	17.2319E-3
-4.10455E-3	-237.813E-12	679.248E-3	-63.6041E-3	-237.870E-12	718.576E-3	36.3957E-3
-4.10955E-3	-236.509E-12	665.067E-3	-81.3841E-3	-237.360E-12	729.759E-3	30.5688E-3
-4.11456E-3	-235.582E-12	660.246E-3	-74.7380E-3	-238.358E-12	717.263E-3	16.0671E-3
-4.11956E-3	-233.809E-12	676.726E-3	-57.4083E-3	-238.907E-12	734.813E-3	-11.8320E-3
-4.12456E-3	-234.128E-12	674.161E-3	-50.7775E-3	-238.853E-12	712.075E-3	-29.2917E-3
-4.12956E-3	-232.993E-12	672.040E-3	-37.7655E-3	-239.095E-12	655.967E-3	-6.49848E-3
-4.13457E-3	-232.357E-12	681.268E-3	-32.3914E-3	-239.977E-12	641.061E-3	14.2546E-3
-4.13957E-3	-232.382E-12	685.214E-3	-29.7271E-3	-239.923E-12	653.364E-3	9.50963E-3
-4.14457E-3	-232.527E-12	670.241E-3	-4.82013E-3	-240.330E-12	654.795E-3	30.2482E-3
-4.14957E-3	-232.858E-12	659.739E-3	11.5540E-3	-240.062E-12	663.499E-3	35.6362E-3
-4.15458E-3	-233.529E-12	649.514E-3	2.45059E-3	-240.065E-12	698.997E-3	-2.46879E-3
-4.15958E-3	-235.488E-12	619.834E-3	-10.9133E-3	-239.794E-12	719.767E-3	-24.4727E-3
-4.16458E-3	-236.884E-12	616.671E-3	-25.0713E-3	-240.111E-12	716.775E-3	-28.0808E-3
-4.16958E-3	-237.953E-12	634.887E-3	-34.8579E-3	-239.819E-12	703.668E-3	-26.6919E-3
-4.17459E-3	-239.294E-12	655.120E-3	-31.9646E-3	-239.661E-12	668.213E-3	-29.4385E-3
-4.17959E-3	-241.255E-12	660.864E-3	-18.0636E-3	-239.632E-12	638.307E-3	-41.8733E-3
-4.18459E-3	-242.372E-12	659.886E-3	-4.30791E-3	-239.631E-12	656.113E-3	-42.0377E-3
-4.18959E-3	-244.175E-12	701.666E-3	-13.5778E-3	-239.968E-12	689.043E-3	-26.8042E-3
-4.19460E-3	-245.759E-12	742.928E-3	-8.74622E-3	-240.086E-12	708.988E-3	12.3783E-3
-4.19960E-3	-246.117E-12	741.610E-3	11.0777E-3	-240.672E-12	726.847E-3	48.2190E-3
-4.20460E-3	-246.126E-12	732.607E-3	3.30548E-3	-242.192E-12	731.590E-3	34.7703E-3
-4.20960E-3	-246.728E-12	716.674E-3	600.002E-6	-241.496E-12	699.537E-3	19.0588E-3
-4.21461E-3	-245.638E-12	689.077E-3	-2.60516E-3	-242.215E-12	671.671E-3	17.7319E-3
-4.21961E-3	-245.307E-12	682.257E-3	-24.6823E-3	-242.318E-12	706.524E-3	16.7062E-3
-4.22461E-3	-244.157E-12	681.432E-3	-35.9847E-3	-242.675E-12	746.880E-3	27.1846E-3
-4.22961E-3	-243.060E-12	667.759E-3	-36.5144E-3	-242.363E-12	728.812E-3	11.9424E-3
-4.23462E-3	-242.086E-12	652.681E-3	-51.2211E-3	-243.180E-12	679.337E-3	-35.7688E-3
-4.23962E-3	-241.343E-12	648.562E-3	-61.9846E-3	-243.473E-12	662.681E-3	-51.2397E-3
-4.24462E-3	-240.099E-12	666.359E-3	-41.6581E-3	-243.417E-12	681.300E-3	-18.6451E-3
-4.24962E-3	-239.900E-12	679.572E-3	-30.0102E-3	-242.820E-12	675.620E-3	1.53480E-3
-4.25463E-3	-240.291E-12	668.532E-3	-32.8814E-3	-244.090E-12	649.323E-3	3.31936E-3
-4.25963E-3	-241.250E-12	660.666E-3	-40.9432E-3	-244.175E-12	658.861E-3	8.26454E-3
-4.26463E-3	-241.649E-12	652.665E-3	-54.8890E-3	-244.228E-12	689.599E-3	-1.70232E-3
-4.26963E-3	-241.990E-12	660.972E-3	-44.6990E-3	-243.306E-12	705.665E-3	-35.7793E-3
-4.27464E-3	-244.713E-12	677.818E-3	-33.3450E-3	-243.940E-12	722.893E-3	-47.7565E-3
-4.27964E-3	-246.205E-12	669.417E-3	-21.2482E-3	-244.608E-12	732.021E-3	-26.2674E-3
-4.28464E-3	-248.075E-12	659.275E-3	-12.5396E-3	-245.696E-12	734.739E-3	-18.4595E-3
-4.28964E-3	-249.546E-12	682.137E-3	-21.6558E-3	-245.643E-12	747.114E-3	-23.6519E-3
-4.29465E-3	-250.513E-12	727.124E-3	-56.9629E-6	-247.154E-12	736.865E-3	-29.8497E-3
-4.29965E-3	-250.996E-12	730.820E-3	32.4056E-3	-248.344E-12	715.103E-3	-31.0994E-3
-4.30465E-3	-252.194E-12	709.312E-3	29.5728E-3	-248.229E-12	712.109E-3	-10.4393E-3
-4.30965E-3	-252.360E-12	713.673E-3	-8.28583E-3	-248.320E-12	708.362E-3	7.65867E-3
-4.31466E-3	-251.641E-12	741.777E-3	-72.9355E-3	-249.542E-12	699.968E-3	-7.00396E-3
-4.31966E-3	-250.224E-12	769.352E-3	-113.669E-3	-249.776E-12	699.779E-3	-16.0594E-3
-4.32466E-3	-249.287E-12	755.239E-3	-96.0609E-3	-249.796E-12	698.276E-3	2.92043E-3
-4.32966E-3	-247.220E-12	709.835E-3	-53.5424E-3	-250.093E-12	671.817E-3	12.2019E-3
-4.33467E-3	-245.744E-12	673.910E-3	-23.8370E-3	-249.792E-12	644.523E-3	-9.12204E-3
-4.33967E-3	-244.127E-12	668.978E-3	-14.7512E-3	-249.165E-12	668.098E-3	-26.3262E-3
-4.34467E-3	-243.011E-12	669.923E-3	-9.41938E-3	-248.806E-12	701.788E-3	-22.5453E-3
-4.34967E-3	-242.710E-12	664.123E-3	-9.34973E-3	-249.097E-12	694.672E-3	-13.2135E-3
-4.35468E-3	-242.709E-12	684.306E-3	-19.1179E-3	-246.766E-12	699.212E-3	-14.1459E-3
-4.35968E-3	-242.774E-12	711.411E-3	-11.7386E-3	-246.633E-12	720.635E-3	-24.4440E-3
-4.36468E-3	-243.115E-12	720.433E-3	-5.17405E-3	-244.930E-12	724.106E-3	-14.3749E-3
-4.36968E-3	-244.562E-12	700.498E-3	-18.9269E-3	-246.321E-12	713.203E-3	-1.60814E-3
-4.37469E-3	-245.844E-12	664.884E-3	-25.0226E-3	-245.569E-12	692.252E-3	-11.1798E-3
-4.37969E-3	-247.552E-12	671.337E-3	-25.2686E-3	-245.794E-12	687.039E-3	-21.1460E-3
-4.38469E-3	-248.292E-12	689.563E-3	-18.5579E-3	-246.833E-12	688.593E-3	-37.8124E-3
-4.38969E-3	-249.480E-12	684.894E-3	-5.54218E-3	-248.443E-12	688.468E-3	-54.9102E-3
-4.39470E-3	-250.831E-12	693.609E-3	-11.2704E-3	-248.457E-12	698.396E-3	-41.2971E-3
-4.39970E-3	-252.952E-12	698.500E-3	-25.6281E-3	-250.227E-12	698.720E-3	-14.2284E-3
-4.40470E-3	-253.520E-12	701.136E-3	-40.8994E-3	-251.478E-12	695.274E-3	-4.45630E-3
-4.40970E-3	-253.040E-12	688.952E-3	-45.8263E-3	-252.913E-12	689.335E-3	-15.8337E-3
-4.41471E-3	-253.993E-12	672.873E-3	-28.5795E-3	-253.057E-12	670.399E-3	-28.7042E-3
-4.41971E-3	-253.246E-12	694.106E-3	-11.9087E-3	-254.491E-12	647.742E-3	-31.4333E-3
-4.42471E-3	-251.818E-12	706.560E-3	6.93481E-3	-254.715E-12	656.236E-3	-16.8649E-3
-4.42971E-3	-250.301E-12	676.510E-3	2.09224E-3	-254.896E-12	694.050E-3	5.86421E-3
-4.43472E-3	-250.056E-12	645.867E-3	-28.3704E-3	-254.688E-12	713.736E-3	-17.8144E-3
-4.43972E-3	-247.737E-12	685.729E-3	-40.5898E-3	-253.700E-12	700.027E-3	-42.1299E-3
-4.44472E-3	-248.132E-12	736.335E-3	-49.4340E-3	-252.391E-12	677.904E-3	-24.6769E-3
-4.44972E-3	-248.084E-12	703.448E-3	-63.0476E-3	-251.352E-12	667.116E-3	-9.21430E-3
-4.45473E-3	-248.232E-12	669.033E-3	-35.0926E-3	-250.471E-12	663.056E-3	14.6938E-3
-4.45973E-3	-248.019E-12	679.128E-3	32.2850E-3	-249.407E-12	656.204E-3	5.58033E-3
-4.46473E-3	-249.719E-12	670.865E-3	42.8785E-3	-248.274E-12	644.934E-3	-42.5503E-3
-4.46973E-3	-251.050E-12	636.704E-3	-4.92167E-3	-247.833E-12	655.021E-3	-57.3098E-3
-4.47474E-3	-251.745E-12	632.458E-3	-12.5594E-3	-248.220E-12	673.312E-3	-12.5943E-3
-4.47974E-3	-254.001E-12	673.840E-3	-28.4486E-3	-248.941E-12	688.438E-3	20.0891E-3
-4.48474E-3	-256.203E-12	707.704E-3	-97.1034E-3	-249.160E-12	715.642E-3	-6.22649E-3
-4.48974E-3	-257.074E-12	712.669E-3	-104.888E-3	-250.501E-12	712.461E-3	-41.1602E-3
-4.49475E-3	-259.177E-12	705.917E-3	-40.1669E-3	-252.461E-12	676.200E-3	-50.0613E-3
-4.49975E-3	-261.182E-12	685.762E-3	11.2133E-3	-254.376E-12	670.866E-3	-18.3988E-3
-4.50475E-3	-261.645E-12	674.420E-3	11.0432E-3	-255.032E-12	701.118E-3	18.0928E-3
-4.50975E-3	-262.925E-12	702.462E-3	-11.2746E-3	-255.954E-12	734.189E-3	11.6782E-3
-4.51476E-3	-262.830E-12	747.197E-3	-7.78702E-3	-258.416E-12	734.757E-3	-7.85721E-3
-4.51976E-3	-262.435E-12	776.623E-3	-13.8848E-3	-259.194E-12	717.393E-3	-9.77133E-3
-4.52476E-3	-262.368E-12	767.025E-3	-38.3176E-3	-259.625E-12	712.947E-3	-44.3211E-3
-4.52976E-3	-261.461E-12	725.182E-3	-45.6574E-3	-258.105E-12	694.075E-3	-62.9873E-3
-4.53477E-3	-259.657E-12	698.471E-3	-36.7011E-3	-259.593E-12	686.018E-3	1.11269E-3
-4.53977E-3	-259.078E-12	704.524E-3	-46.2405E-3	-259.002E-12	690.045E-3	35.6759E-3
-4.54477E-3	-256.441E-12	710.847E-3	-60.6748E-3	-259.103E-12	665.418E-3	-5.15353E-3
-4.54977E-3	-255.854E-12	719.078E-3	-24.6642E-3	-257.598E-12	658.543E-3	-47.4810E-3
-4.55478E-3	-256.712E-12	726.271E-3	7.76698E-3	-256.679E-12	688.543E-3	-66.9372E-3
-4.55978E-3	-255.844E-12	696.203E-3	5.40450E-3	-256.120E-12	692.086E-3	-57.7550E-3
-4.56478E-3	-255.756E-12	666.380E-3	8.48313E-3	-256.140E-12	696.557E-3	-33.7057E-3
-4.56978E-3	-257.064E-12	671.030E-3	5.83657E-3	-255.529E-12	732.945E-3	-1.76246E-3
-4.57479E-3	-257.318E-12	686.864E-3	9.46839E-3	-255.337E-12	732.621E-3	48.6698E-3
-4.57979E-3	-257.400E-12	699.701E-3	8.76232E-3	-256.078E-12	688.218E-3	60.7155E-3
-4.58479E-3	-258.854E-12	698.202E-3	-32.1065E-3	-257.414E-12	656.690E-3	23.5672E-3
-4.58979E-3	-260.550E-12	702.475E-3	-72.3474E-3	-258.242E-12	662.692E-3	-19.7794E-3
-4.59480E-3	-262.024E-12	728.661E-3	-68.8087E-3	-259.436E-12	688.236E-3	-11.9388E-3
-4.59980E-3	-262.884E-12	731.092E-3	-37.0458E-3	-260.207E-12	707.561E-3	40.9917E-3
-4.60480E-3	-265.232E-12	695.285E-3	-19.0442E-3	-261.269E-12	722.824E-3	36.7593E-3
-4.60980E-3	-265.599E-12	690.563E-3	-27.4701E-3	-262.685E-12	716.906E-3	-18.0277E-3
-4.61481E-3	-266.258E-12	721.502E-3	-37.9509E-3	-263.794E-12	687.049E-3	-58.6018E-3
-4.61981E-3	-266.204E-12	728.132E-3	-53.5513E-3	-264.614E-12	679.993E-3	-71.9344E-3
-4.62481E-3	-266.019E-12	701.275E-3	-60.5292E-3	-265.342E-12	703.034E-3	-68.0230E-3
-4.62981E-3	-265.903E-12	693.712E-3	-24.4882E-3	-265.915E-12	713.466E-3	-73.9546E-3
-4.63482E-3	-264.332E-12	716.570E-3	24.5763E-3	-265.013E-12	701.497E-3	-66.3432E-3
-4.63982E-3	-263.692E-12	724.483E-3	35.4624E-3	-265.303E-12	689.502E-3	-38.8206E-3
-4.64482E-3	-262.002E-12	713.042E-3	8.34895E-3	-265.319E-12	679.383E-3	-32.7327E-3
-4.64982E-3	-261.538E-12	697.877E-3	-27.4212E-3	-264.434E-12	667.104E-3	-36.9596E-3
-4.65483E-3	-258.294E-12	689.893E-3	-29.2910E-3	-263.248E-12	673.718E-3	-34.5605E-3
-4.65983E-3	-256.772E-12	672.306E-3	2.82258E-3	-263.384E-12	675.089E-3	-29.8915E-3
-4.66483E-3	-256.438E-12	641.462E-3	23.8792E-3	-261.846E-12	669.985E-3	-11.3395E-3
-4.66983E-3	-255.169E-12	652.455E-3	8.52048E-3	-260.742E-12	691.376E-3	15.2119E-3
-4.67484E-3	-255.416E-12	681.877E-3	243.312E-6	-260.169E-12	699.793E-3	1.86247E-3
-4.67984E-3	-255.690E-12	674.111E-3	2.89222E-3	-260.536E-12	671.397E-3	-21.9399E-3
-4.68484E-3	-257.458E-12	657.677E-3	-36.8998E-3	-260.065E-12	650.496E-3	-7.42603E-3
-4.68984E-3	-257.831E-12	662.879E-3	-53.6420E-3	-260.885E-12	663.268E-3	-13.5472E-3
-4.69485E-3	-259.890E-12	673.563E-3	-14.2574E-3	-261.524E-12	673.541E-3	-38.2139E-3
-4.69985E-3	-261.370E-12	693.097E-3	12.8569E-3	-261.881E-12	672.327E-3	-33.4590E-3
-4.70485E-3	-262.440E-12	708.443E-3	15.6340E-3	-262.383E-12	686.353E-3	-30.1286E-3
-4.70985E-3	-264.194E-12	708.619E-3	2.44356E-3	-263.182E-12	683.252E-3	-24.8963E-3
-4.71486E-3	-266.133E-12	713.902E-3	17.5264E-3	-264.583E-12	659.970E-3	-14.1020E-3
-4.71986E-3	-267.782E-12	714.378E-3	35.4378E-3	-265.424E-12	677.458E-3	-32.2837E-3
-4.72486E-3	-268.851E-12	709.446E-3	-4.03543E-3	-266.608E-12	700.532E-3	-63.9638E-3
-4.72986E-3	-268.282E-12	697.775E-3	-32.2806E-3	-268.346E-12	689.329E-3	-46.5349E-3
-4.73487E-3	-267.844E-12	693.984E-3	-42.4189E-3	-268.648E-12	683.257E-3	7.00278E-3
-4.73987E-3	-266.702E-12	697.702E-3	-53.5273E-3	-269.230E-12	693.440E-3	15.1234E-3
-4.74487E-3	-266.736E-12	678.715E-3	-37.0284E-3	-270.414E-12	684.327E-3	-28.0966E-3
-4.74988E-3	-264.121E-12	644.303E-3	-8.97618E-3	-269.606E-12	659.475E-3	-32.5185E-3
-4.75488E-3	-262.526E-12	639.967E-3	3.76621E-3	-269.707E-12	666.221E-3	10.6021E-3
-4.75988E-3	-262.844E-12	682.165E-3	-14.1071E-3	-268.481E-12	671.840E-3	13.3164E-3
-4.76488E-3	-261.818E-12	706.408E-3	-27.4554E-3	-267.871E-12	657.620E-3	-4.78028E-3
-4.76988E-3	-261.397E-12	687.912E-3	-30.7074E-3	-267.514E-12	653.607E-3	-12.1572E-3
-4.77489E-3	-261.452E-12	670.928E-3	-42.0712E-3	-265.902E-12	653.066E-3	-16.1944E-3
-4.77989E-3	-262.785E-12	664.692E-3	-16.8834E-3	-264.217E-12	644.192E-3	4.05983E-3
-4.78489E-3	-263.571E-12	662.365E-3	14.5846E-3	-263.429E-12	651.253E-3	4.37926E-3
-4.78989E-3	-264.072E-12	667.764E-3	17.7666E-3	-263.072E-12	688.164E-3	-11.6705E-3
-4.79490E-3	-265.900E-12	674.994E-3	43.7375E-3	-262.511E-12	703.532E-3	9.34345E-3
-4.79990E-3	-266.960E-12	648.823E-3	40.2000E-3	-263.747E-12	685.488E-3	28.9878E-3
-4.80490E-3	-269.387E-12	639.376E-3	-19.3214E-3	-263.890E-12	658.660E-3	10.4520E-3
-4.80990E-3	-271.317E-12	670.007E-3	-18.9357E-3	-264.157E-12	649.645E-3	-16.2841E-3
-4.81491E-3	-273.632E-12	663.764E-3	22.8698E-3	-264.367E-12	674.457E-3	-12.0250E-3
-4.81991E-3	-275.290E-12	655.668E-3	19.3621E-3	-266.357E-12	689.551E-3	-1.61100E-3
-4.82491E-3	-277.336E-12	654.840E-3	23.5702E-3	-268.831E-12	679.454E-3	-18.1577E-3
-4.82991E-3	-278.126E-12	648.453E-3	18.8723E-3	-270.257E-12	683.177E-3	-40.0377E-3
-4.83492E-3	-279.589E-12	661.511E-3	-15.4886E-3	-271.868E-12	687.622E-3	-50.8742E-3
-4.83992E-3	-279.804E-12	688.104E-3	-19.5869E-3	-274.042E-12	671.562E-3	-46.2935E-3
-4.84492E-3	-278.981E-12	730.264E-3	-17.6422E-3	-275.625E-12	672.729E-3	-14.6388E-3
-4.84992E-3	-277.410E-12	730.100E-3	-35.1614E-3	-277.057E-12	711.762E-3	11.6923E-3
-4.85493E-3	-275.379E-12	703.272E-3	-43.4945E-3	-277.490E-12	732.730E-3	-280.902E-6
-4.85993E-3	-273.577E-12	713.793E-3	-48.3138E-3	-277.537E-12	693.680E-3	-18.7388E-3
-4.86493E-3	-272.097E-12	724.264E-3	-54.5475E-3	-276.744E-12	649.036E-3	-26.2479E-3
-4.86993E-3	-272.469E-12	705.623E-3	-43.0987E-3	-275.988E-12	633.193E-3	-46.6580E-3
-4.87494E-3	-268.971E-12	687.823E-3	-18.8658E-3	-274.521E-12	622.375E-3	-54.0287E-3
-4.87994E-3	-269.777E-12	680.491E-3	4.83516E-3	-272.317E-12	610.939E-3	-40.0334E-3
-4.88494E-3	-269.107E-12	671.522E-3	5.61342E-3	-271.534E-12	621.159E-3	-42.2172E-3
-4.88995E-3	-270.359E-12	662.499E-3	7.18607E-3	-271.570E-12	636.760E-3	-26.1793E-3
-4.89495E-3	-270.609E-12	647.160E-3	21.5187E-3	-271.119E-12	644.149E-3	7.18026E-3
-4.89995E-3	-271.031E-12	631.433E-3	532.697E-6	-270.414E-12	669.271E-3	14.0755E-3
-4.90495E-3	-272.153E-12	635.291E-3	-21.0936E-3	-269.605E-12	681.101E-3	12.4853E-3
-4.90995E-3	-273.699E-12	681.032E-3	-17.4896E-3	-271.284E-12	659.904E-3	3.84625E-3
-4.91496E-3	-275.752E-12	733.938E-3	-10.3573E-3	-272.408E-12	641.863E-3	-28.6206E-3
-4.91996E-3	-276.930E-12	713.434E-3	-8.32078E-3	-274.083E-12	659.414E-3	-54.8143E-3
-4.92496E-3	-277.896E-12	651.667E-3	-12.0847E-3	-275.140E-12	681.607E-3	-37.0750E-3
-4.92996E-3	-280.036E-12	646.867E-3	-6.92761E-3	-277.172E-12	701.430E-3	968.880E-6
-4.93497E-3	-280.993E-12	664.535E-3	-13.5320E-3	-278.359E-12	726.993E-3	6.19049E-3
-4.93997E-3	-281.295E-12	673.730E-3	-13.4980E-3	-279.863E-12	739.432E-3	-3.43643E-3
-4.94497E-3	-281.216E-12	707.620E-3	-3.43950E-3	-281.540E-12	739.810E-3	6.75025E-3
-4.94997E-3	-280.848E-12	734.067E-3	-12.0886E-3	-282.009E-12	717.410E-3	10.2459E-3
-4.95498E-3	-279.585E-12	729.001E-3	-26.8801E-3	-281.384E-12	705.156E-3	-5.44019E-3
-4.95998E-3	-278.472E-12	730.766E-3	-22.6671E-3	-281.863E-12	711.314E-3	-10.9784E-3
-4.96498E-3	-276.222E-12	743.884E-3	-373.108E-6	-280.077E-12	684.343E-3	-15.9657E-3
-4.96998E-3	-275.220E-12	727.793E-3	9.00284E-3	-278.859E-12	650.149E-3	-36.4043E-3
-4.97499E-3	-274.191E-12	710.360E-3	166.566E-6	-277.419E-12	667.946E-3	-39.9754E-3
-4.97999E-3	-272.808E-12	696.927E-3	-3.81238E-3	-274.611E-12	688.481E-3	-13.3308E-3
-4.98499E-3	-271.138E-12	665.945E-3	-2.72746E-3	-273.291E-12	661.660E-3	-2.02285E-3
-4.98999E-3	-270.958E-12	663.527E-3	-28.9549E-3	-271.983E-12	642.519E-3	-19.6707E-3
-4.99500E-3	-270.604E-12	708.568E-3	-61.7275E-3	-270.485E-12	681.380E-3	-34.6344E-3
-5.00000E-3	-270.100E-12	747.627E-3	-59.5226E-3	-269.584E-12	736.468E-3	-45.0263E-3
