Experiment	bias spectroscopy	
Date	19.01.2016 21:49:12	
User		
X (m)	49.4107E-9	
Y (m)	257.138E-9	
Z (m)	-132.586E-9	
Z offset (m)	0E+0	
Settling time (s)	200E-6	
Integration time (s)	5E-3	
Z-Ctrl hold	TRUE	
Final Z (m)	N/A	
Filter type	None	
Order		
Cutoff frq		
Comment01	MnPc/Pb(111)	
Comment02	dz =00pm	
Comment03	7 Sweeps	
Comment04	MagField =0.T	
Comment05	Divider 1:10	
Comment06	Setpoint:5mV,200 pA	
Comment07	Lockin: 50uVrms,5ms,5mV	
Comment08	Gain:9; 912Hz modulation	
Comment09	T=1.06K	
Bias>Bias (V)	5E-3	
Bias>Calibration (V/V)	81.475E-3	
Bias>Offset (V)	1.046E-3	
Bias Spectroscopy>Sweep Start (V)	5E-3	
Bias Spectroscopy>Sweep End (V)	-5E-3	
Bias Spectroscopy>Num Pixel	2000	
Bias Spectroscopy>Z Avg time (s)	500E-3	
Bias Spectroscopy>Z offset (m)	0E+0	
Bias Spectroscopy>1st Settling time (s)	500E-3	
Bias Spectroscopy>Settling time (s)	200E-6	
Bias Spectroscopy>Integration time (s)	5E-3	
Bias Spectroscopy>End Settling time (s)	500E-3	
Bias Spectroscopy>Z control time (s)	500E-3	
Bias Spectroscopy>Max Slew rate (V/s)	Inf	
Bias Spectroscopy>backward sweep	TRUE	
Bias Spectroscopy>Z-controller hold	TRUE	
Bias Spectroscopy>Number of sweeps	7	
Bias Spectroscopy>Channels	Current (A);X% LockIn (V);Y% LockIn (V)	
Bias Spectroscopy>Reset Bias	TRUE	
Bias Spectroscopy>Record final Z	FALSE	
Bias Spectroscopy>Lock-In run	FALSE	
Bias Spectroscopy>Sweep mode	Linear	
Bias Spectroscopy>MultiLine Settings : Segment Start (V), Segment End (V), Settling (s), Integration (s), Steps (xn)	100E-3,3.3E-3,100E-6,10E-3,2500;3.3E-3,-3.3E-3,100E-6,10E-3,10;-3.3E-3,-100E-3,100E-6,10E-3,2500	
Current>Current (A)	200.115E-12	
Current>Calibration (A/V)	999.99900E-12	
Current>Offset (A)	-455.429E-15	
Current>Gain	LN 10^9	
Z-Controller>Z (m)	-132.587E-9	
Z-Controller>Controller name	log Current	
Z-Controller>Controller status	ON	
Z-Controller>Setpoint	200E-12	
Z-Controller>Setpoint unit	A	
Z-Controller>P gain	2.96994E-12	
Z-Controller>I gain	67.0321E-9	
Z-Controller>Time const (s)	44.3062E-6	
Z-Controller>TipLift (m)	0E+0	
Z-Controller>Switch off delay (s)	50E-3	
Current (A)	200.077E-12	
Z (m)	-132.587E-9	

[DATA]
Bias calc (V)	Current (A)	X% LockIn (V)	Y% LockIn (V)	Current [bwd] (A)	X% LockIn [bwd] (V)	Y% LockIn [bwd] (V)
5.00000E-3	202.770E-12	685.101E-3	-40.4032E-3	200.279E-12	667.452E-3	-60.0208E-3
4.99500E-3	202.174E-12	691.091E-3	-48.9376E-3	200.001E-12	666.853E-3	-33.5523E-3
4.98999E-3	201.145E-12	677.943E-3	-20.9876E-3	199.587E-12	668.345E-3	-4.74334E-3
4.98499E-3	200.383E-12	649.177E-3	16.8151E-3	198.917E-12	677.996E-3	4.08295E-3
4.97999E-3	199.003E-12	666.608E-3	4.53016E-3	197.641E-12	677.552E-3	-18.8234E-3
4.97499E-3	198.373E-12	689.991E-3	-38.6678E-3	196.925E-12	678.367E-3	-29.6649E-3
4.96998E-3	196.393E-12	692.663E-3	-61.8088E-3	196.147E-12	651.777E-3	-10.1700E-3
4.96498E-3	196.206E-12	691.851E-3	-50.6688E-3	195.618E-12	610.444E-3	-1.33002E-3
4.95998E-3	196.114E-12	674.624E-3	-22.4016E-3	194.893E-12	608.384E-3	-12.3799E-3
4.95498E-3	196.328E-12	666.913E-3	-19.8567E-3	195.487E-12	633.065E-3	-35.4593E-3
4.94997E-3	197.161E-12	675.523E-3	-26.0992E-3	195.469E-12	643.478E-3	-12.1918E-3
4.94497E-3	196.526E-12	670.396E-3	-13.5521E-3	195.135E-12	660.993E-3	28.6031E-3
4.93997E-3	197.183E-12	655.591E-3	-4.23575E-3	195.574E-12	686.058E-3	21.0861E-3
4.93497E-3	197.557E-12	647.634E-3	28.6625E-3	196.503E-12	682.197E-3	18.1514E-3
4.92996E-3	197.742E-12	644.765E-3	61.0784E-3	197.008E-12	667.488E-3	11.9755E-3
4.92496E-3	197.798E-12	667.986E-3	35.1277E-3	197.444E-12	656.494E-3	-7.52930E-3
4.91996E-3	198.255E-12	714.210E-3	-20.3432E-3	197.810E-12	638.381E-3	-5.75317E-3
4.91496E-3	198.082E-12	719.310E-3	-34.9194E-3	197.639E-12	639.705E-3	6.44688E-3
4.90995E-3	198.320E-12	692.509E-3	-13.7037E-3	197.571E-12	657.514E-3	7.47187E-3
4.90495E-3	197.706E-12	684.175E-3	-122.079E-6	197.732E-12	649.652E-3	-9.08738E-3
4.89995E-3	197.465E-12	682.276E-3	10.9934E-3	197.047E-12	635.756E-3	-20.6012E-3
4.89495E-3	197.129E-12	673.908E-3	8.78783E-3	196.511E-12	626.373E-3	-16.3287E-3
4.88995E-3	196.438E-12	686.595E-3	9.34763E-3	196.628E-12	621.549E-3	-16.8450E-3
4.88494E-3	195.338E-12	702.808E-3	31.4531E-3	195.748E-12	634.655E-3	-34.9425E-3
4.87994E-3	194.951E-12	707.262E-3	43.3566E-3	195.682E-12	654.915E-3	-53.1465E-3
4.87494E-3	194.853E-12	691.525E-3	22.2286E-3	195.382E-12	667.000E-3	-45.1166E-3
4.86993E-3	193.634E-12	659.769E-3	-14.1921E-3	194.832E-12	638.756E-3	-28.4741E-3
4.86493E-3	194.432E-12	644.654E-3	-49.0651E-3	194.224E-12	619.807E-3	-30.3700E-3
4.85993E-3	194.086E-12	654.750E-3	-64.7043E-3	193.848E-12	665.554E-3	-53.9122E-3
4.85493E-3	193.968E-12	666.518E-3	-48.4799E-3	193.284E-12	694.198E-3	-53.4700E-3
4.84992E-3	193.521E-12	650.368E-3	-22.4611E-3	193.869E-12	674.771E-3	-7.47237E-3
4.84492E-3	192.898E-12	645.991E-3	-10.2250E-3	193.958E-12	667.019E-3	17.7543E-3
4.83992E-3	192.363E-12	683.388E-3	-7.80157E-3	194.475E-12	680.358E-3	17.6899E-3
4.83492E-3	192.347E-12	699.395E-3	-20.0592E-3	194.800E-12	684.027E-3	14.1401E-3
4.82991E-3	191.608E-12	677.443E-3	-30.4046E-3	195.166E-12	672.158E-3	-22.1570E-3
4.82491E-3	191.625E-12	675.355E-3	-21.1701E-3	195.377E-12	646.751E-3	-46.8466E-3
4.81991E-3	191.740E-12	660.834E-3	-4.67259E-3	195.642E-12	631.854E-3	-33.5290E-3
4.81491E-3	192.044E-12	630.327E-3	5.13239E-3	194.605E-12	654.352E-3	-19.3566E-3
4.80990E-3	192.273E-12	637.625E-3	-2.26270E-3	194.644E-12	664.052E-3	-23.6730E-3
4.80490E-3	192.558E-12	653.535E-3	-7.93192E-3	193.433E-12	663.920E-3	-43.9385E-3
4.79990E-3	192.362E-12	652.018E-3	-21.1885E-3	192.223E-12	691.203E-3	-39.4888E-3
4.79490E-3	192.107E-12	639.658E-3	-53.7376E-3	190.265E-12	690.476E-3	-12.4394E-3
4.78989E-3	192.545E-12	635.831E-3	-71.1613E-3	190.304E-12	672.241E-3	-3.78968E-3
4.78489E-3	192.579E-12	663.995E-3	-44.2950E-3	189.384E-12	682.453E-3	-21.2828E-3
4.77989E-3	192.317E-12	700.305E-3	-24.6641E-3	188.520E-12	692.406E-3	-24.2110E-3
4.77489E-3	192.832E-12	691.720E-3	-41.0534E-3	188.093E-12	681.462E-3	5.55959E-3
4.76988E-3	192.844E-12	672.608E-3	-51.0934E-3	188.103E-12	660.055E-3	25.2561E-3
4.76488E-3	192.671E-12	668.787E-3	-61.8344E-3	187.684E-12	657.012E-3	8.40664E-3
4.75988E-3	191.767E-12	659.227E-3	-60.2919E-3	187.521E-12	680.885E-3	-18.6221E-3
4.75488E-3	191.259E-12	669.584E-3	-12.7450E-3	188.019E-12	696.108E-3	-34.3680E-3
4.74988E-3	190.039E-12	689.846E-3	28.3552E-3	188.387E-12	688.853E-3	-52.0022E-3
4.74487E-3	189.262E-12	686.323E-3	31.5558E-3	188.950E-12	679.500E-3	-52.2731E-3
4.73987E-3	188.663E-12	667.010E-3	24.8696E-3	189.205E-12	675.291E-3	-17.4467E-3
4.73487E-3	187.611E-12	639.647E-3	14.7923E-3	189.703E-12	666.808E-3	-1.17217E-3
4.72986E-3	186.925E-12	619.621E-3	-12.8339E-3	189.521E-12	661.885E-3	-16.3167E-3
4.72486E-3	187.209E-12	624.045E-3	-43.0298E-3	189.486E-12	683.666E-3	-26.8539E-3
4.71986E-3	186.764E-12	619.463E-3	-33.5314E-3	188.836E-12	696.841E-3	-18.7809E-3
4.71486E-3	187.095E-12	597.722E-3	-38.9019E-3	187.914E-12	675.157E-3	-5.32084E-3
4.70985E-3	186.922E-12	605.659E-3	-69.3386E-3	188.203E-12	667.423E-3	-23.5648E-3
4.70485E-3	186.409E-12	651.059E-3	-44.5022E-3	187.446E-12	669.733E-3	-45.9477E-3
4.69985E-3	186.578E-12	674.788E-3	-15.5882E-3	187.351E-12	657.159E-3	-26.4770E-3
4.69485E-3	186.555E-12	660.266E-3	-20.6854E-3	186.580E-12	672.373E-3	-4.81917E-3
4.68984E-3	186.827E-12	645.271E-3	-17.6137E-3	186.675E-12	694.438E-3	-2.05573E-3
4.68484E-3	186.760E-12	646.737E-3	7.06025E-3	185.966E-12	683.168E-3	12.3822E-3
4.67984E-3	186.747E-12	653.527E-3	16.6010E-3	186.288E-12	674.092E-3	20.7120E-3
4.67484E-3	186.107E-12	666.280E-3	-15.3030E-3	185.911E-12	673.186E-3	-2.76679E-3
4.66983E-3	185.732E-12	678.248E-3	-50.8278E-3	185.781E-12	669.058E-3	-20.5111E-3
4.66483E-3	185.055E-12	666.324E-3	-56.9387E-3	186.311E-12	673.691E-3	-11.4773E-3
4.65983E-3	185.379E-12	653.707E-3	-40.3272E-3	186.485E-12	676.882E-3	-19.8551E-3
4.65483E-3	184.630E-12	658.919E-3	-23.9979E-3	186.464E-12	656.144E-3	-31.5905E-3
4.64982E-3	183.983E-12	670.682E-3	-17.2866E-3	186.879E-12	648.915E-3	-23.2063E-3
4.64482E-3	183.768E-12	664.052E-3	-30.3556E-3	187.130E-12	675.478E-3	-39.1819E-3
4.63982E-3	183.600E-12	652.224E-3	-52.4084E-3	186.977E-12	671.131E-3	-60.6734E-3
4.63482E-3	183.118E-12	661.756E-3	-34.5767E-3	186.321E-12	630.673E-3	-49.1653E-3
4.62981E-3	182.904E-12	659.982E-3	7.40409E-3	185.818E-12	626.777E-3	-38.4963E-3
4.62481E-3	183.270E-12	644.259E-3	30.3957E-3	185.671E-12	665.094E-3	-25.2436E-3
4.61981E-3	183.770E-12	649.645E-3	25.9051E-3	185.945E-12	674.638E-3	5.80992E-3
4.61481E-3	183.768E-12	655.821E-3	4.28131E-3	185.064E-12	655.854E-3	21.3839E-3
4.60980E-3	183.860E-12	643.104E-3	65.5788E-6	184.460E-12	649.812E-3	-8.84287E-3
4.60480E-3	183.956E-12	659.742E-3	-14.6800E-3	183.951E-12	643.401E-3	-57.4832E-3
4.59980E-3	184.207E-12	686.922E-3	-43.3448E-3	183.367E-12	641.704E-3	-49.5073E-3
4.59480E-3	183.829E-12	674.343E-3	-44.0608E-3	182.785E-12	642.019E-3	-8.32818E-3
4.58979E-3	183.958E-12	655.312E-3	-20.1731E-3	182.438E-12	648.919E-3	-11.3415E-3
4.58479E-3	183.570E-12	643.677E-3	1.45562E-3	181.701E-12	678.970E-3	-34.9743E-3
4.57979E-3	182.964E-12	638.210E-3	2.60507E-3	181.667E-12	678.142E-3	-42.6179E-3
4.57479E-3	181.995E-12	644.634E-3	4.09357E-3	181.063E-12	659.354E-3	-34.6341E-3
4.56978E-3	182.122E-12	635.900E-3	-1.06996E-3	181.199E-12	670.681E-3	-17.7084E-3
4.56478E-3	180.595E-12	618.387E-3	-24.1480E-3	180.087E-12	658.584E-3	-10.6791E-3
4.55978E-3	180.722E-12	632.085E-3	-34.9489E-3	179.890E-12	643.165E-3	-27.9603E-3
4.55478E-3	179.939E-12	665.242E-3	-32.1392E-3	179.028E-12	669.985E-3	-50.7775E-3
4.54977E-3	179.790E-12	663.743E-3	-40.9735E-3	178.721E-12	682.740E-3	-34.7910E-3
4.54477E-3	179.568E-12	645.986E-3	-55.3924E-3	178.128E-12	662.395E-3	8.56800E-3
4.53977E-3	179.701E-12	646.326E-3	-47.8648E-3	177.613E-12	646.262E-3	42.5290E-3
4.53477E-3	179.735E-12	635.075E-3	-18.5959E-3	177.392E-12	641.337E-3	41.8543E-3
4.52976E-3	180.147E-12	631.410E-3	9.12757E-3	177.528E-12	637.835E-3	2.15910E-3
4.52476E-3	180.796E-12	656.028E-3	25.2314E-3	177.673E-12	646.005E-3	-28.2811E-3
4.51976E-3	181.262E-12	674.529E-3	4.44042E-3	178.266E-12	664.789E-3	-28.5642E-3
4.51476E-3	181.608E-12	673.397E-3	-48.8821E-3	178.242E-12	676.428E-3	-24.2364E-3
4.50975E-3	181.871E-12	670.771E-3	-48.4979E-3	178.664E-12	677.465E-3	-20.7581E-3
4.50475E-3	182.274E-12	679.735E-3	-7.42106E-3	179.150E-12	672.332E-3	-26.2760E-3
4.49975E-3	181.552E-12	692.069E-3	-15.6139E-3	179.832E-12	660.510E-3	-32.1765E-3
4.49475E-3	181.139E-12	687.859E-3	-49.6717E-3	179.580E-12	662.293E-3	-26.9074E-3
4.48974E-3	180.864E-12	650.570E-3	-28.6820E-3	180.027E-12	674.338E-3	-20.1134E-3
4.48474E-3	179.648E-12	627.336E-3	19.6345E-3	180.234E-12	662.905E-3	2.55688E-3
4.47974E-3	178.582E-12	648.396E-3	21.6500E-3	180.552E-12	638.434E-3	34.4991E-3
4.47474E-3	177.987E-12	664.991E-3	-23.1852E-3	179.909E-12	639.992E-3	42.6818E-3
4.46973E-3	176.856E-12	660.203E-3	-55.6250E-3	179.503E-12	664.428E-3	17.4671E-3
4.46473E-3	175.686E-12	666.647E-3	-26.7600E-3	178.651E-12	673.517E-3	-6.12884E-3
4.45973E-3	174.730E-12	671.586E-3	9.43933E-3	177.807E-12	662.724E-3	-8.97994E-3
4.45473E-3	173.813E-12	656.450E-3	15.6488E-3	176.407E-12	664.590E-3	-9.07178E-3
4.44972E-3	173.888E-12	646.697E-3	16.1700E-3	175.257E-12	682.763E-3	-8.12157E-3
4.44472E-3	173.210E-12	638.920E-3	14.4014E-3	173.987E-12	705.978E-3	-8.36713E-3
4.43972E-3	173.189E-12	627.005E-3	3.46325E-3	173.262E-12	725.260E-3	-14.1169E-3
4.43472E-3	173.332E-12	624.186E-3	-10.1761E-3	173.445E-12	716.238E-3	-19.6270E-3
4.42971E-3	173.986E-12	621.398E-3	-26.2595E-3	173.084E-12	710.442E-3	-15.1381E-3
4.42471E-3	174.335E-12	645.911E-3	-30.9988E-3	173.704E-12	716.682E-3	-12.5177E-3
4.41971E-3	174.489E-12	690.108E-3	-16.0895E-3	173.841E-12	697.861E-3	-19.2547E-3
4.41471E-3	175.202E-12	699.090E-3	-6.32310E-3	173.918E-12	690.686E-3	-9.36516E-3
4.40970E-3	175.063E-12	678.952E-3	-9.58532E-3	173.914E-12	697.115E-3	70.3738E-6
4.40470E-3	175.288E-12	672.372E-3	-11.1542E-3	174.244E-12	690.299E-3	-12.4166E-3
4.39970E-3	174.571E-12	693.262E-3	-4.73879E-3	173.941E-12	687.694E-3	-32.6722E-3
4.39470E-3	174.813E-12	690.019E-3	-24.8570E-3	174.243E-12	687.409E-3	-32.8445E-3
4.38969E-3	174.232E-12	662.390E-3	-58.1779E-3	174.702E-12	682.379E-3	-6.47069E-3
4.38469E-3	173.849E-12	649.488E-3	-48.7847E-3	174.254E-12	670.859E-3	-1.25448E-3
4.37969E-3	173.081E-12	646.217E-3	-5.18461E-3	173.316E-12	657.969E-3	-25.4447E-3
4.37469E-3	172.701E-12	660.874E-3	11.5916E-3	173.046E-12	645.378E-3	-31.5255E-3
4.36968E-3	172.149E-12	675.559E-3	-2.97169E-3	172.387E-12	635.773E-3	-19.4419E-3
4.36468E-3	171.947E-12	669.801E-3	-6.47795E-3	171.285E-12	643.336E-3	-29.9488E-3
4.35968E-3	170.816E-12	658.246E-3	664.184E-6	169.996E-12	650.982E-3	-61.8835E-3
4.35468E-3	171.008E-12	648.642E-3	-1.66403E-3	169.187E-12	647.794E-3	-83.6214E-3
4.34967E-3	170.303E-12	656.470E-3	-17.8404E-3	168.611E-12	637.241E-3	-69.5191E-3
4.34467E-3	170.564E-12	677.689E-3	-48.0927E-3	168.062E-12	632.866E-3	-35.2964E-3
4.33967E-3	170.343E-12	660.605E-3	-63.1244E-3	167.752E-12	643.840E-3	-15.4383E-3
4.33467E-3	170.533E-12	626.691E-3	-43.4711E-3	167.753E-12	649.785E-3	-10.0414E-3
4.32966E-3	170.859E-12	649.333E-3	-30.4776E-3	167.976E-12	647.129E-3	-4.72099E-3
4.32466E-3	170.592E-12	683.309E-3	-24.8337E-3	168.176E-12	648.170E-3	6.03399E-3
4.31966E-3	170.531E-12	667.702E-3	-20.9566E-3	168.448E-12	648.924E-3	-1.65544E-3
4.31466E-3	170.968E-12	650.850E-3	-29.0894E-3	169.158E-12	639.054E-3	-32.6648E-3
4.30965E-3	170.391E-12	655.112E-3	-25.1911E-3	169.942E-12	638.482E-3	-29.0247E-3
4.30465E-3	170.268E-12	650.853E-3	-18.2273E-3	170.584E-12	664.992E-3	7.43464E-3
4.29965E-3	170.460E-12	665.804E-3	-25.1924E-3	170.923E-12	686.011E-3	11.6593E-3
4.29465E-3	169.996E-12	697.610E-3	-21.3377E-3	171.412E-12	673.376E-3	1.33295E-3
4.28964E-3	169.806E-12	692.357E-3	-6.06089E-3	171.247E-12	660.457E-3	4.65998E-3
4.28464E-3	169.258E-12	637.926E-3	-7.87361E-3	170.585E-12	665.946E-3	-13.9227E-3
4.27964E-3	169.406E-12	603.446E-3	-11.7941E-3	169.994E-12	674.374E-3	-38.4580E-3
4.27464E-3	168.966E-12	624.267E-3	-2.73174E-3	169.359E-12	691.650E-3	-26.6909E-3
4.26963E-3	168.868E-12	647.212E-3	8.50596E-3	168.747E-12	706.691E-3	-13.3714E-3
4.26463E-3	168.316E-12	663.540E-3	1.04178E-3	167.922E-12	691.549E-3	-4.06496E-3
4.25963E-3	168.282E-12	680.909E-3	-14.1023E-3	167.778E-12	669.844E-3	16.2288E-3
4.25463E-3	168.231E-12	693.466E-3	-39.4147E-3	167.690E-12	674.611E-3	8.14693E-3
4.24962E-3	168.236E-12	689.108E-3	-64.0389E-3	167.401E-12	684.053E-3	-37.9850E-3
4.24462E-3	167.949E-12	656.904E-3	-44.3637E-3	167.176E-12	681.031E-3	-77.9094E-3
4.23962E-3	167.694E-12	638.788E-3	-22.2227E-3	167.250E-12	676.008E-3	-81.2059E-3
4.23462E-3	166.565E-12	658.315E-3	-19.1971E-3	167.159E-12	672.733E-3	-51.4570E-3
4.22961E-3	165.984E-12	676.192E-3	-3.46677E-3	167.367E-12	682.406E-3	-21.7133E-3
4.22461E-3	165.649E-12	695.770E-3	12.3989E-3	166.919E-12	686.921E-3	-16.5645E-3
4.21961E-3	165.102E-12	707.070E-3	23.0285E-3	167.150E-12	666.600E-3	-11.8952E-3
4.21461E-3	164.590E-12	681.644E-3	26.0076E-3	167.048E-12	666.309E-3	2.22717E-3
4.20960E-3	164.030E-12	665.610E-3	1.56578E-3	167.150E-12	684.084E-3	-481.986E-6
4.20460E-3	163.608E-12	677.929E-3	-19.3270E-3	166.490E-12	669.044E-3	-11.8014E-3
4.19960E-3	163.333E-12	694.141E-3	-26.8351E-3	166.510E-12	651.414E-3	-8.80690E-3
4.19460E-3	163.359E-12	688.559E-3	-34.0045E-3	165.621E-12	672.520E-3	-19.5714E-3
4.18959E-3	163.908E-12	666.749E-3	-47.8830E-3	165.420E-12	684.462E-3	-33.9145E-3
4.18459E-3	163.873E-12	662.901E-3	-35.5629E-3	164.802E-12	653.300E-3	-13.7693E-3
4.17959E-3	164.422E-12	662.067E-3	191.197E-6	164.374E-12	619.197E-3	11.2003E-3
4.17459E-3	165.005E-12	653.254E-3	-14.5580E-3	163.380E-12	611.707E-3	14.5522E-3
4.16958E-3	165.424E-12	675.880E-3	-48.3737E-3	163.314E-12	622.959E-3	2.27097E-3
4.16458E-3	165.511E-12	690.231E-3	-37.0231E-3	162.465E-12	646.822E-3	-18.7009E-3
4.15958E-3	166.085E-12	656.927E-3	-20.3620E-3	162.450E-12	653.720E-3	-28.6868E-3
4.15458E-3	165.592E-12	648.833E-3	-30.7362E-3	161.772E-12	642.769E-3	-22.6339E-3
4.14957E-3	164.914E-12	666.868E-3	-34.4035E-3	161.502E-12	652.227E-3	-17.8560E-3
4.14457E-3	164.425E-12	676.122E-3	-41.7238E-3	161.156E-12	667.091E-3	-31.6566E-3
4.13957E-3	162.873E-12	697.709E-3	-49.7850E-3	161.269E-12	673.467E-3	-40.0440E-3
4.13457E-3	162.030E-12	709.962E-3	-35.3778E-3	160.710E-12	670.530E-3	-21.6974E-3
4.12956E-3	160.620E-12	691.582E-3	-14.8911E-3	160.311E-12	656.549E-3	-29.7654E-3
4.12456E-3	159.949E-12	663.047E-3	-2.82163E-3	160.261E-12	650.969E-3	-41.2643E-3
4.11956E-3	158.639E-12	658.252E-3	-11.9766E-3	160.105E-12	660.464E-3	-17.1892E-3
4.11456E-3	158.360E-12	667.694E-3	-36.2371E-3	160.514E-12	657.171E-3	-1.24970E-3
4.10955E-3	157.927E-12	659.821E-3	-40.6764E-3	159.797E-12	628.694E-3	1.34113E-3
4.10455E-3	158.447E-12	656.247E-3	-21.5763E-3	159.686E-12	619.221E-3	23.9170E-6
4.09955E-3	158.786E-12	668.077E-3	-13.7638E-3	158.983E-12	636.787E-3	842.922E-6
4.09455E-3	159.111E-12	678.951E-3	-17.2163E-3	158.897E-12	638.906E-3	10.1183E-3
4.08954E-3	160.085E-12	670.779E-3	-22.2844E-3	158.206E-12	642.038E-3	14.1613E-3
4.08454E-3	160.908E-12	646.767E-3	-22.9982E-3	158.512E-12	666.465E-3	2.71348E-3
4.07954E-3	161.675E-12	638.182E-3	-17.0115E-3	158.605E-12	682.512E-3	-30.6670E-3
4.07454E-3	161.455E-12	649.209E-3	-18.8856E-3	158.772E-12	678.641E-3	-52.0935E-3
4.06953E-3	162.129E-12	666.062E-3	-43.3038E-3	159.343E-12	666.840E-3	-28.5069E-3
4.06453E-3	161.812E-12	673.067E-3	-62.4416E-3	159.739E-12	659.329E-3	-4.78890E-3
4.05953E-3	161.351E-12	682.624E-3	-43.0905E-3	160.037E-12	662.893E-3	-1.32054E-3
4.05453E-3	160.064E-12	702.321E-3	-22.1171E-3	159.975E-12	680.228E-3	2.44073E-3
4.04952E-3	159.260E-12	701.551E-3	-20.0980E-3	160.182E-12	684.825E-3	2.98277E-3
4.04452E-3	158.375E-12	678.408E-3	-13.4678E-3	159.886E-12	665.752E-3	1.95579E-3
4.03952E-3	157.061E-12	654.368E-3	-18.0534E-3	159.549E-12	662.928E-3	-2.41268E-3
4.03452E-3	155.933E-12	649.121E-3	-37.6407E-3	158.922E-12	672.467E-3	-11.6197E-3
4.02951E-3	155.065E-12	651.252E-3	-24.4263E-3	158.478E-12	657.059E-3	-8.73199E-3
4.02451E-3	154.674E-12	642.279E-3	-10.4245E-3	158.298E-12	646.449E-3	-4.47000E-3
4.01951E-3	154.273E-12	634.303E-3	-32.7424E-3	157.468E-12	655.751E-3	-21.6031E-3
4.01451E-3	154.189E-12	633.752E-3	-46.8119E-3	156.551E-12	664.989E-3	-35.5349E-3
4.00950E-3	153.951E-12	638.121E-3	-32.3815E-3	156.063E-12	680.059E-3	-24.9964E-3
4.00450E-3	154.482E-12	654.079E-3	-12.1363E-3	155.371E-12	687.990E-3	-3.89136E-3
3.99950E-3	154.453E-12	664.640E-3	-6.90574E-3	154.344E-12	667.150E-3	4.04739E-3
3.99450E-3	155.067E-12	658.609E-3	-7.99653E-3	154.567E-12	637.349E-3	-12.5624E-3
3.98949E-3	154.951E-12	646.905E-3	-9.51580E-3	153.870E-12	635.072E-3	-37.0089E-3
3.98449E-3	156.025E-12	647.971E-3	-9.64299E-3	154.496E-12	646.644E-3	-47.5365E-3
3.97949E-3	156.559E-12	652.197E-3	-1.90231E-3	154.117E-12	640.188E-3	-42.2183E-3
3.97449E-3	156.588E-12	660.801E-3	-2.45173E-3	154.257E-12	649.119E-3	-27.7616E-3
3.96948E-3	156.914E-12	679.874E-3	-19.8133E-3	154.630E-12	673.393E-3	-12.1444E-3
3.96448E-3	156.423E-12	693.397E-3	-22.7993E-3	154.820E-12	680.427E-3	-7.28568E-3
3.95948E-3	156.125E-12	697.017E-3	-21.8063E-3	154.668E-12	682.078E-3	-6.24442E-3
3.95448E-3	155.255E-12	681.520E-3	-37.8327E-3	154.182E-12	675.332E-3	-10.8796E-3
3.94947E-3	154.935E-12	663.190E-3	-25.2554E-3	154.090E-12	675.823E-3	-17.8174E-3
3.94447E-3	153.918E-12	646.270E-3	6.45792E-3	153.412E-12	674.345E-3	-22.3425E-3
3.93947E-3	153.607E-12	643.916E-3	9.38186E-3	153.151E-12	642.074E-3	-32.8541E-3
3.93447E-3	153.023E-12	658.006E-3	4.43522E-3	152.405E-12	619.471E-3	-33.1217E-3
3.92946E-3	152.936E-12	660.511E-3	6.38806E-3	152.022E-12	626.732E-3	-29.1373E-3
3.92446E-3	152.597E-12	654.637E-3	6.84054E-3	151.408E-12	636.785E-3	-32.8594E-3
3.91946E-3	152.162E-12	654.061E-3	3.01266E-3	151.038E-12	657.994E-3	-26.9198E-3
3.91446E-3	151.996E-12	653.656E-3	-10.9259E-3	150.159E-12	687.124E-3	-28.6453E-3
3.90945E-3	152.214E-12	640.604E-3	-33.3470E-3	150.136E-12	674.792E-3	-30.9575E-3
3.90445E-3	152.286E-12	632.042E-3	-45.1655E-3	149.989E-12	646.882E-3	-11.5510E-3
3.89945E-3	151.894E-12	647.280E-3	-26.9439E-3	150.127E-12	659.290E-3	9.93738E-3
3.89445E-3	151.972E-12	656.626E-3	-5.74570E-3	150.666E-12	685.290E-3	-11.7931E-3
3.88944E-3	151.771E-12	640.403E-3	-11.1395E-3	151.344E-12	679.967E-3	-41.0947E-3
3.88444E-3	151.450E-12	633.307E-3	-33.3100E-3	151.691E-12	656.124E-3	-32.0263E-3
3.87944E-3	151.134E-12	658.519E-3	-45.6117E-3	152.153E-12	655.888E-3	-23.6421E-3
3.87444E-3	150.441E-12	677.417E-3	-31.8132E-3	152.643E-12	668.258E-3	-14.7168E-3
3.86943E-3	150.292E-12	675.287E-3	-20.1327E-3	152.573E-12	665.477E-3	-9.40690E-3
3.86443E-3	149.698E-12	695.661E-3	-34.9852E-3	152.408E-12	660.471E-3	-20.3304E-3
3.85943E-3	149.569E-12	703.499E-3	-50.2446E-3	151.764E-12	652.540E-3	-12.5226E-3
3.85443E-3	149.488E-12	667.479E-3	-44.3640E-3	151.503E-12	645.345E-3	3.62455E-3
3.84942E-3	149.569E-12	643.240E-3	-37.6925E-3	150.570E-12	635.707E-3	887.879E-6
3.84442E-3	149.473E-12	656.367E-3	-47.6848E-3	150.202E-12	627.635E-3	6.24551E-3
3.83942E-3	149.469E-12	686.047E-3	-33.1587E-3	149.493E-12	654.988E-3	14.3995E-3
3.83442E-3	149.156E-12	680.985E-3	4.74487E-3	148.711E-12	684.069E-3	-2.94615E-3
3.82941E-3	149.130E-12	660.842E-3	12.4158E-3	148.422E-12	697.366E-3	-25.4591E-3
3.82441E-3	149.096E-12	676.128E-3	5.59176E-3	147.411E-12	701.894E-3	-16.2809E-3
3.81941E-3	149.157E-12	687.474E-3	-13.2573E-3	147.268E-12	673.681E-3	2.17767E-3
3.81441E-3	148.704E-12	678.474E-3	-37.5664E-3	147.221E-12	638.796E-3	-6.09104E-3
3.80940E-3	148.657E-12	670.136E-3	-28.5270E-3	147.157E-12	638.303E-3	-30.5426E-3
3.80440E-3	147.665E-12	654.347E-3	-16.8454E-3	147.293E-12	670.417E-3	-35.8941E-3
3.79940E-3	147.142E-12	657.336E-3	-18.5027E-3	147.397E-12	691.907E-3	-20.3285E-3
3.79440E-3	146.373E-12	683.049E-3	-14.4574E-3	148.058E-12	683.788E-3	1.07310E-3
3.78939E-3	146.176E-12	685.462E-3	-3.96505E-3	148.340E-12	676.050E-3	20.5630E-3
3.78439E-3	145.505E-12	674.286E-3	39.4201E-6	148.089E-12	673.036E-3	24.6885E-3
3.77939E-3	144.491E-12	685.619E-3	-1.57022E-3	148.466E-12	675.604E-3	16.5471E-3
3.77439E-3	144.592E-12	690.734E-3	-2.79913E-3	148.193E-12	679.820E-3	3.59089E-3
3.76938E-3	144.297E-12	664.878E-3	-2.83160E-3	147.608E-12	666.289E-3	-12.8367E-3
3.76438E-3	144.396E-12	652.390E-3	-689.348E-6	146.910E-12	651.778E-3	-20.7360E-3
3.75938E-3	144.375E-12	658.970E-3	-4.44723E-3	146.153E-12	649.491E-3	-12.1319E-3
3.75438E-3	144.863E-12	668.730E-3	-9.10844E-3	145.110E-12	652.179E-3	-4.77053E-3
3.74937E-3	144.952E-12	679.276E-3	-18.6643E-3	144.003E-12	648.219E-3	313.241E-6
3.74437E-3	145.117E-12	682.557E-3	-18.5095E-3	142.467E-12	641.110E-3	-3.45135E-3
3.73937E-3	145.485E-12	689.389E-3	-9.82767E-3	141.772E-12	635.704E-3	-14.6680E-3
3.73437E-3	145.463E-12	693.605E-3	-12.9291E-3	141.190E-12	639.228E-3	-15.8938E-3
3.72936E-3	145.874E-12	683.469E-3	-11.9620E-3	140.642E-12	655.336E-3	-19.7081E-3
3.72436E-3	145.056E-12	665.851E-3	-3.22631E-3	140.147E-12	654.389E-3	-31.1727E-3
3.71936E-3	144.753E-12	645.654E-3	4.37999E-3	140.050E-12	646.950E-3	-30.5340E-3
3.71436E-3	144.364E-12	632.118E-3	8.66518E-3	140.499E-12	661.792E-3	-13.8492E-3
3.70935E-3	143.873E-12	645.278E-3	873.134E-6	140.477E-12	680.904E-3	-6.36840E-3
3.70435E-3	142.602E-12	658.941E-3	-13.7932E-3	140.838E-12	679.342E-3	-9.92950E-3
3.69935E-3	141.850E-12	640.958E-3	-17.5606E-3	140.804E-12	674.782E-3	-12.6675E-3
3.69435E-3	141.369E-12	628.309E-3	-22.6288E-3	140.993E-12	674.881E-3	-23.4461E-3
3.68934E-3	140.262E-12	647.623E-3	-32.1841E-3	141.275E-12	678.405E-3	-23.3049E-3
3.68434E-3	140.007E-12	652.035E-3	-35.3149E-3	141.500E-12	690.936E-3	-11.4910E-3
3.67934E-3	139.915E-12	645.474E-3	-35.0178E-3	141.541E-12	682.372E-3	-23.7901E-3
3.67434E-3	140.151E-12	667.164E-3	-31.1998E-3	141.900E-12	661.991E-3	-31.0740E-3
3.66933E-3	140.357E-12	678.012E-3	-24.2092E-3	141.734E-12	663.097E-3	-18.6173E-3
3.66433E-3	140.789E-12	659.742E-3	-20.0645E-3	142.471E-12	672.208E-3	-27.8931E-3
3.65933E-3	141.197E-12	640.777E-3	-3.32686E-3	142.774E-12	672.416E-3	-30.5043E-3
3.65433E-3	141.429E-12	648.199E-3	12.5449E-3	142.509E-12	669.461E-3	-10.0702E-3
3.64932E-3	141.391E-12	672.018E-3	1.66840E-3	141.816E-12	675.427E-3	-2.79216E-3
3.64432E-3	141.652E-12	684.628E-3	-10.6592E-3	141.466E-12	684.929E-3	7.19134E-3
3.63932E-3	141.866E-12	675.037E-3	-8.21326E-3	141.268E-12	681.396E-3	15.0071E-3
3.63432E-3	141.659E-12	660.489E-3	-1.30558E-3	140.550E-12	670.598E-3	8.00541E-3
3.62931E-3	141.410E-12	647.379E-3	-3.88675E-3	140.282E-12	653.186E-3	9.03551E-3
3.62431E-3	141.079E-12	633.746E-3	-14.7134E-3	139.946E-12	658.602E-3	11.8550E-3
3.61931E-3	140.576E-12	644.377E-3	-15.7216E-3	139.910E-12	689.162E-3	3.45656E-3
3.61431E-3	140.074E-12	671.716E-3	-4.28717E-3	139.874E-12	678.299E-3	-5.33682E-3
3.60930E-3	138.777E-12	680.094E-3	-716.082E-6	139.909E-12	657.990E-3	-252.276E-6
3.60430E-3	137.729E-12	676.404E-3	-14.7160E-3	139.825E-12	685.660E-3	-4.16471E-3
3.59930E-3	137.415E-12	687.006E-3	-33.7848E-3	139.582E-12	708.275E-3	-17.3048E-3
3.59430E-3	136.281E-12	693.546E-3	-38.3958E-3	139.313E-12	685.354E-3	-7.70930E-3
3.58929E-3	136.305E-12	677.092E-3	-26.0047E-3	138.776E-12	653.173E-3	-6.54515E-3
3.58429E-3	135.742E-12	659.134E-3	-9.03327E-3	138.269E-12	652.670E-3	-18.8847E-3
3.57929E-3	136.234E-12	652.164E-3	1.01579E-3	137.674E-12	668.953E-3	-22.1351E-3
3.57429E-3	136.178E-12	645.489E-3	-8.80842E-3	137.683E-12	663.104E-3	-23.0023E-3
3.56928E-3	136.717E-12	664.941E-3	-34.7940E-3	137.100E-12	634.268E-3	-22.3171E-3
3.56428E-3	136.903E-12	687.316E-3	-45.4711E-3	136.683E-12	618.676E-3	-12.9030E-3
3.55928E-3	137.495E-12	666.306E-3	-30.1029E-3	136.606E-12	633.026E-3	6.73395E-3
3.55428E-3	137.352E-12	644.847E-3	-31.9518E-3	136.628E-12	652.987E-3	11.1731E-3
3.54927E-3	137.520E-12	661.184E-3	-42.7208E-3	136.116E-12	667.463E-3	3.88329E-3
3.54427E-3	137.369E-12	680.736E-3	-27.3821E-3	136.220E-12	666.727E-3	5.63436E-3
3.53927E-3	136.938E-12	683.082E-3	-3.18015E-3	136.001E-12	649.293E-3	-3.65972E-3
3.53427E-3	136.270E-12	683.724E-3	1.85717E-3	135.467E-12	653.769E-3	-28.7798E-3
3.52926E-3	135.668E-12	668.123E-3	-22.3165E-3	135.020E-12	673.385E-3	-36.2965E-3
3.52426E-3	135.178E-12	657.543E-3	-38.0274E-3	134.855E-12	677.089E-3	-27.2284E-3
3.51926E-3	134.815E-12	649.576E-3	-27.3008E-3	133.896E-12	672.466E-3	-20.2327E-3
3.51426E-3	133.724E-12	634.152E-3	-15.2596E-3	133.361E-12	654.571E-3	-19.2308E-3
3.50925E-3	133.374E-12	652.385E-3	-16.1565E-3	132.300E-12	638.269E-3	-24.1558E-3
3.50425E-3	133.083E-12	680.169E-3	-16.9439E-3	132.398E-12	661.342E-3	-22.9960E-3
3.49925E-3	132.972E-12	679.648E-3	-12.1220E-3	131.395E-12	696.448E-3	-7.09284E-3
3.49425E-3	132.716E-12	681.705E-3	-16.9981E-3	131.236E-12	694.992E-3	11.9416E-3
3.48924E-3	132.786E-12	694.545E-3	-24.9822E-3	130.970E-12	665.084E-3	9.28811E-3
3.48424E-3	132.741E-12	690.195E-3	-28.6998E-3	131.498E-12	640.711E-3	-9.23684E-3
3.47924E-3	132.953E-12	682.562E-3	-30.4834E-3	131.374E-12	643.630E-3	-22.2060E-3
3.47424E-3	133.363E-12	680.817E-3	-28.2577E-3	131.864E-12	666.797E-3	-32.5608E-3
3.46923E-3	133.056E-12	689.960E-3	-16.6657E-3	132.066E-12	679.927E-3	-34.2552E-3
3.46423E-3	133.361E-12	714.067E-3	-11.1952E-3	132.534E-12	681.886E-3	-20.6894E-3
3.45923E-3	133.141E-12	723.842E-3	-16.5514E-3	132.823E-12	683.861E-3	-15.5541E-3
3.45423E-3	132.628E-12	710.018E-3	-18.4302E-3	133.502E-12	683.763E-3	-22.0659E-3
3.44922E-3	132.036E-12	703.644E-3	-21.5242E-3	133.698E-12	696.618E-3	-14.7760E-3
3.44422E-3	131.517E-12	698.108E-3	-30.2191E-3	134.434E-12	701.776E-3	-4.37409E-3
3.43922E-3	130.867E-12	672.919E-3	-29.6158E-3	134.109E-12	686.675E-3	-11.8493E-3
3.43422E-3	129.888E-12	642.576E-3	-16.0620E-3	134.532E-12	683.465E-3	-30.4137E-3
3.42921E-3	129.515E-12	629.092E-3	-20.8244E-3	133.582E-12	690.878E-3	-44.2637E-3
3.42421E-3	128.940E-12	655.217E-3	-49.5217E-3	133.388E-12	706.630E-3	-32.1138E-3
3.41921E-3	128.719E-12	682.686E-3	-67.2182E-3	132.056E-12	712.002E-3	-23.2996E-3
3.41421E-3	128.810E-12	681.741E-3	-60.7759E-3	131.256E-12	680.086E-3	-38.8404E-3
3.40920E-3	129.229E-12	679.634E-3	-47.0562E-3	130.125E-12	634.674E-3	-37.6798E-3
3.40420E-3	129.202E-12	681.374E-3	-23.3900E-3	129.170E-12	623.064E-3	-23.7333E-3
3.39920E-3	129.387E-12	685.834E-3	6.00488E-3	128.088E-12	648.935E-3	-24.5442E-3
3.39420E-3	129.246E-12	682.839E-3	13.4162E-3	127.792E-12	668.316E-3	-29.2735E-3
3.38919E-3	129.498E-12	672.451E-3	-451.407E-6	126.996E-12	664.633E-3	-28.0437E-3
3.38419E-3	129.215E-12	677.650E-3	-8.68063E-3	127.021E-12	659.222E-3	-38.9793E-3
3.37919E-3	129.078E-12	686.668E-3	177.212E-6	126.683E-12	663.641E-3	-27.9801E-3
3.37419E-3	128.731E-12	679.173E-3	4.86489E-3	127.047E-12	676.755E-3	15.2775E-3
3.36918E-3	128.585E-12	673.652E-3	-24.1155E-3	127.557E-12	692.108E-3	22.0374E-3
3.36418E-3	128.381E-12	688.095E-3	-41.7539E-3	128.484E-12	688.369E-3	-4.39746E-3
3.35918E-3	127.875E-12	688.410E-3	-11.4906E-3	128.755E-12	678.183E-3	-26.7272E-3
3.35418E-3	127.383E-12	664.970E-3	1.75658E-3	129.458E-12	674.333E-3	-33.4178E-3
3.34917E-3	126.580E-12	663.850E-3	-19.6766E-3	129.639E-12	673.477E-3	-14.9356E-3
3.34417E-3	126.375E-12	671.470E-3	-25.1761E-3	129.530E-12	690.700E-3	10.8181E-3
3.33917E-3	126.024E-12	664.553E-3	-15.0674E-3	128.703E-12	697.610E-3	19.4359E-3
3.33417E-3	125.959E-12	669.478E-3	-24.5099E-3	128.213E-12	669.875E-3	11.0010E-3
3.32916E-3	125.881E-12	687.966E-3	-46.8699E-3	127.218E-12	667.254E-3	8.60525E-3
3.32416E-3	126.104E-12	689.588E-3	-58.5489E-3	126.388E-12	692.716E-3	3.06862E-3
3.31916E-3	126.119E-12	673.008E-3	-57.4735E-3	125.172E-12	679.423E-3	-15.4671E-3
3.31416E-3	126.177E-12	662.191E-3	-46.0917E-3	124.572E-12	651.109E-3	-33.1330E-3
3.30915E-3	126.364E-12	661.256E-3	-30.2065E-3	123.745E-12	651.460E-3	-51.6412E-3
3.30415E-3	126.116E-12	664.219E-3	-15.9769E-3	122.739E-12	659.760E-3	-51.5730E-3
3.29915E-3	126.252E-12	667.408E-3	-10.8380E-3	121.672E-12	653.432E-3	-20.9007E-3
3.29415E-3	125.656E-12	665.697E-3	-19.4235E-3	121.433E-12	657.207E-3	1.94310E-3
3.28914E-3	125.087E-12	658.236E-3	-20.9531E-3	120.713E-12	653.681E-3	11.0856E-3
3.28414E-3	124.573E-12	650.305E-3	-16.5030E-3	120.987E-12	627.914E-3	17.0463E-3
3.27914E-3	123.984E-12	655.671E-3	-27.4984E-3	120.918E-12	642.683E-3	3.25247E-3
3.27414E-3	123.378E-12	676.028E-3	-38.7200E-3	121.427E-12	673.034E-3	-14.3682E-3
3.26913E-3	123.017E-12	681.604E-3	-35.6657E-3	122.026E-12	676.967E-3	-15.0842E-3
3.26413E-3	122.752E-12	661.947E-3	-21.6939E-3	122.525E-12	679.367E-3	-12.8297E-3
3.25913E-3	122.565E-12	662.264E-3	-9.89031E-3	122.791E-12	679.319E-3	-10.1095E-3
3.25413E-3	122.208E-12	690.548E-3	-3.16219E-3	123.368E-12	685.509E-3	328.806E-6
3.24912E-3	122.231E-12	692.762E-3	-1.60066E-3	123.808E-12	694.053E-3	-513.497E-6
3.24412E-3	122.274E-12	672.898E-3	-10.5063E-3	123.801E-12	697.287E-3	-10.0364E-3
3.23912E-3	122.168E-12	668.851E-3	-5.12274E-3	123.942E-12	698.471E-3	-9.67526E-3
3.23412E-3	122.292E-12	672.303E-3	9.36886E-3	123.855E-12	702.205E-3	-10.0137E-3
3.22911E-3	122.619E-12	681.718E-3	-4.09361E-3	123.723E-12	705.016E-3	-20.2679E-3
3.22411E-3	123.034E-12	696.549E-3	-24.7597E-3	123.118E-12	694.416E-3	-28.1191E-3
3.21911E-3	122.822E-12	697.721E-3	-18.4504E-3	122.667E-12	680.223E-3	-19.8595E-3
3.21411E-3	122.720E-12	685.707E-3	-10.7477E-3	122.138E-12	664.297E-3	-21.9272E-3
3.20910E-3	122.394E-12	669.359E-3	-11.4717E-3	121.689E-12	669.721E-3	-31.3086E-3
3.20410E-3	121.906E-12	659.305E-3	-3.78555E-3	121.066E-12	694.252E-3	-16.0303E-3
3.19910E-3	121.231E-12	664.138E-3	-4.08372E-3	120.750E-12	687.916E-3	-7.88526E-3
3.19410E-3	120.231E-12	675.112E-3	-17.0590E-3	120.408E-12	666.348E-3	-15.1946E-3
3.18909E-3	119.616E-12	674.392E-3	-29.3061E-3	120.203E-12	679.018E-3	-12.6349E-3
3.18409E-3	118.977E-12	666.183E-3	-24.7052E-3	120.075E-12	700.765E-3	-12.5561E-3
3.17909E-3	118.103E-12	655.265E-3	-11.8351E-3	119.816E-12	689.978E-3	-23.7153E-3
3.17409E-3	117.730E-12	654.201E-3	-29.9938E-3	119.804E-12	678.312E-3	-38.8139E-3
3.16908E-3	117.330E-12	674.095E-3	-57.5322E-3	119.350E-12	691.806E-3	-48.6396E-3
3.16408E-3	117.407E-12	681.247E-3	-61.6297E-3	118.875E-12	696.680E-3	-33.1488E-3
3.15908E-3	117.307E-12	664.936E-3	-45.8738E-3	118.312E-12	681.360E-3	-12.5216E-3
3.15408E-3	117.498E-12	670.453E-3	-15.0933E-3	118.194E-12	670.543E-3	-12.1861E-3
3.14907E-3	117.590E-12	686.599E-3	4.41072E-3	117.846E-12	667.713E-3	-10.9709E-3
3.14407E-3	118.075E-12	678.994E-3	5.65325E-3	117.711E-12	660.901E-3	4.73754E-3
3.13907E-3	118.311E-12	669.674E-3	-5.28344E-3	117.363E-12	653.602E-3	4.84883E-3
3.13407E-3	119.031E-12	672.984E-3	-5.79797E-3	117.370E-12	666.930E-3	-12.7232E-3
3.12906E-3	118.981E-12	683.646E-3	12.9984E-3	116.905E-12	699.492E-3	-2.79725E-3
3.12406E-3	118.799E-12	677.624E-3	10.2109E-3	117.088E-12	703.205E-3	15.7531E-3
3.11906E-3	118.141E-12	665.447E-3	-6.06804E-3	116.289E-12	679.143E-3	1.89874E-3
3.11406E-3	118.043E-12	668.980E-3	-1.29321E-3	115.805E-12	672.225E-3	-20.0799E-3
3.10905E-3	117.072E-12	680.832E-3	5.12092E-3	115.195E-12	682.842E-3	-25.6410E-3
3.10405E-3	116.538E-12	697.484E-3	-5.07418E-3	115.204E-12	700.112E-3	-35.9134E-3
3.09905E-3	115.654E-12	702.280E-3	-14.5700E-3	114.956E-12	702.116E-3	-36.0093E-3
3.09405E-3	115.150E-12	688.340E-3	-24.4357E-3	114.810E-12	697.521E-3	-10.9580E-3
3.08904E-3	114.207E-12	684.096E-3	-33.4215E-3	114.711E-12	705.119E-3	-5.75418E-3
3.08404E-3	113.474E-12	682.953E-3	-27.8722E-3	114.397E-12	695.840E-3	-21.4273E-3
3.07904E-3	113.047E-12	673.056E-3	-11.1812E-3	114.482E-12	672.294E-3	-32.6358E-3
3.07404E-3	112.694E-12	674.434E-3	-2.24211E-3	113.995E-12	663.799E-3	-47.3717E-3
3.06903E-3	112.327E-12	676.258E-3	-4.16526E-3	113.622E-12	655.172E-3	-39.6388E-3
3.06403E-3	112.413E-12	670.316E-3	-8.28702E-3	113.349E-12	650.283E-3	-6.84037E-3
3.05903E-3	112.513E-12	664.861E-3	-15.5966E-3	112.979E-12	674.061E-3	7.38508E-3
3.05403E-3	112.817E-12	657.881E-3	-13.0585E-3	112.566E-12	697.891E-3	2.88477E-3
3.04902E-3	113.126E-12	651.053E-3	-2.73262E-3	112.912E-12	709.717E-3	2.64829E-3
3.04402E-3	113.517E-12	660.836E-3	-8.73877E-3	113.169E-12	711.449E-3	4.89391E-3
3.03902E-3	114.003E-12	677.259E-3	-23.3545E-3	113.686E-12	691.948E-3	11.4329E-3
3.03402E-3	113.800E-12	674.476E-3	-23.7518E-3	114.227E-12	677.871E-3	8.53268E-3
3.02901E-3	113.918E-12	665.498E-3	-18.9927E-3	114.192E-12	689.933E-3	-27.2417E-3
3.02401E-3	113.846E-12	662.245E-3	-29.4976E-3	114.714E-12	700.470E-3	-54.5364E-3
3.01901E-3	113.655E-12	682.223E-3	-34.6845E-3	114.514E-12	688.665E-3	-40.2608E-3
3.01401E-3	113.184E-12	717.705E-3	-19.2266E-3	114.553E-12	677.611E-3	-26.3767E-3
3.00900E-3	112.682E-12	723.588E-3	-6.74664E-3	114.178E-12	670.955E-3	-34.1061E-3
3.00400E-3	112.425E-12	711.068E-3	2.73369E-3	113.926E-12	676.811E-3	-35.6625E-3
2.99900E-3	112.093E-12	705.977E-3	7.20612E-3	113.288E-12	699.844E-3	-36.0642E-3
2.99400E-3	111.386E-12	708.710E-3	-15.9296E-3	112.540E-12	692.534E-3	-33.9255E-3
2.98899E-3	110.994E-12	697.212E-3	-34.1969E-3	111.697E-12	658.400E-3	-26.3476E-3
2.98399E-3	110.530E-12	671.361E-3	-15.9386E-3	110.747E-12	652.847E-3	-20.7718E-3
2.97899E-3	110.255E-12	664.488E-3	1.73345E-3	110.072E-12	659.746E-3	-16.0420E-3
2.97399E-3	110.025E-12	670.826E-3	-4.05765E-3	108.988E-12	655.191E-3	-26.4758E-3
2.96898E-3	109.525E-12	670.251E-3	-16.6569E-3	108.282E-12	659.707E-3	-35.2900E-3
2.96398E-3	109.259E-12	675.265E-3	-15.9433E-3	107.943E-12	665.886E-3	-26.0242E-3
2.95898E-3	109.077E-12	678.836E-3	-9.08724E-3	108.110E-12	667.109E-3	-18.0266E-3
2.95398E-3	109.037E-12	684.154E-3	-12.5870E-3	107.675E-12	678.798E-3	-20.7407E-3
2.94897E-3	108.491E-12	705.540E-3	-13.1667E-3	107.597E-12	689.787E-3	-32.3327E-3
2.94397E-3	108.487E-12	709.365E-3	-10.2385E-3	107.639E-12	676.070E-3	-40.1122E-3
2.93897E-3	108.259E-12	690.974E-3	-18.1023E-3	108.048E-12	664.504E-3	-33.0941E-3
2.93397E-3	108.186E-12	692.399E-3	-15.9942E-3	108.283E-12	670.028E-3	-36.8774E-3
2.92896E-3	107.717E-12	700.877E-3	-9.23363E-3	108.369E-12	671.503E-3	-39.6597E-3
2.92396E-3	107.461E-12	691.997E-3	-23.7505E-3	108.962E-12	661.216E-3	-16.5038E-3
2.91896E-3	107.544E-12	683.872E-3	-30.2961E-3	108.742E-12	657.688E-3	-5.64601E-3
2.91396E-3	107.284E-12	682.538E-3	-8.48294E-3	108.929E-12	680.885E-3	-1.66463E-3
2.90895E-3	107.345E-12	691.456E-3	-4.41062E-3	108.520E-12	697.481E-3	8.43119E-3
2.90395E-3	107.289E-12	698.414E-3	-22.4025E-3	108.076E-12	693.124E-3	2.18483E-3
2.89895E-3	107.490E-12	702.146E-3	-26.2167E-3	107.235E-12	694.428E-3	-9.88090E-3
2.89395E-3	107.157E-12	700.505E-3	-28.5121E-3	106.200E-12	702.604E-3	-5.88069E-3
2.88894E-3	106.989E-12	687.447E-3	-25.4049E-3	105.548E-12	709.577E-3	-708.714E-6
2.88394E-3	106.673E-12	684.338E-3	-9.37220E-3	104.251E-12	705.464E-3	-15.2905E-3
2.87894E-3	106.735E-12	695.909E-3	2.76352E-3	103.766E-12	688.880E-3	-26.8793E-3
2.87394E-3	106.211E-12	702.249E-3	-2.07033E-3	102.680E-12	674.442E-3	-27.8423E-3
2.86893E-3	105.771E-12	703.905E-3	-8.63137E-3	103.004E-12	660.527E-3	-14.2532E-3
2.86393E-3	105.162E-12	703.330E-3	-668.413E-6	102.391E-12	652.154E-3	5.09424E-3
2.85893E-3	104.401E-12	699.939E-3	4.80165E-3	102.546E-12	665.943E-3	-8.19897E-3
2.85393E-3	103.809E-12	697.875E-3	-7.47001E-3	102.513E-12	677.496E-3	-35.9146E-3
2.84892E-3	103.201E-12	680.021E-3	-25.8957E-3	103.050E-12	688.456E-3	-40.6943E-3
2.84392E-3	102.834E-12	655.705E-3	-36.3607E-3	103.359E-12	714.871E-3	-17.7671E-3
2.83892E-3	102.479E-12	652.778E-3	-30.1786E-3	103.709E-12	732.215E-3	13.8177E-3
2.83392E-3	102.223E-12	657.934E-3	-15.9838E-3	103.995E-12	734.298E-3	13.1447E-3
2.82891E-3	101.986E-12	657.752E-3	3.63355E-3	104.541E-12	728.957E-3	-8.58522E-3
2.82391E-3	102.011E-12	669.532E-3	12.8515E-3	104.969E-12	718.918E-3	-6.75201E-3
2.81891E-3	102.059E-12	680.049E-3	-3.07204E-3	105.051E-12	715.118E-3	-4.04801E-3
2.81391E-3	102.188E-12	670.511E-3	-20.2377E-3	105.040E-12	707.080E-3	-3.04434E-3
2.80890E-3	102.369E-12	669.935E-3	-20.7810E-3	104.422E-12	686.259E-3	9.47435E-3
2.80390E-3	102.520E-12	682.406E-3	1.58094E-3	104.125E-12	675.401E-3	-8.28525E-3
2.79890E-3	102.893E-12	682.301E-3	11.6776E-3	103.375E-12	683.143E-3	-36.9549E-3
2.79390E-3	102.998E-12	678.947E-3	-13.8225E-3	102.784E-12	706.451E-3	-32.0570E-3
2.78889E-3	103.099E-12	680.772E-3	-35.7464E-3	102.096E-12	720.510E-3	-18.1011E-3
2.78389E-3	102.928E-12	681.228E-3	-32.1333E-3	101.410E-12	711.235E-3	-22.9729E-3
2.77889E-3	102.819E-12	694.623E-3	-21.2969E-3	100.990E-12	694.755E-3	-39.7659E-3
2.77389E-3	102.303E-12	708.950E-3	-21.6302E-3	100.473E-12	685.458E-3	-36.3578E-3
2.76888E-3	101.629E-12	706.347E-3	-11.7804E-3	100.455E-12	693.397E-3	-3.62312E-3
2.76388E-3	100.766E-12	713.030E-3	23.0321E-3	99.9816E-12	697.218E-3	7.00561E-3
2.75888E-3	100.136E-12	719.043E-3	38.6060E-3	99.8265E-12	696.895E-3	-16.1287E-3
2.75388E-3	99.5748E-12	709.066E-3	13.3744E-3	99.7540E-12	713.209E-3	-32.2475E-3
2.74887E-3	98.9836E-12	706.518E-3	-12.6817E-3	99.6659E-12	717.520E-3	-35.1273E-3
2.74387E-3	98.5784E-12	701.297E-3	-16.6488E-3	99.8680E-12	704.763E-3	-25.2040E-3
2.73887E-3	98.1762E-12	688.289E-3	-9.63021E-3	99.9743E-12	697.340E-3	-3.37642E-3
2.73387E-3	98.0222E-12	685.895E-3	-7.56191E-3	100.165E-12	687.336E-3	-4.16501E-3
2.72886E-3	97.7926E-12	690.902E-3	-14.6921E-3	100.043E-12	680.555E-3	-30.0144E-3
2.72386E-3	98.0890E-12	695.958E-3	-20.5626E-3	99.8930E-12	683.637E-3	-34.1115E-3
2.71886E-3	98.0986E-12	700.008E-3	-17.8301E-3	99.0105E-12	694.014E-3	-22.1207E-3
2.71386E-3	98.1558E-12	696.081E-3	-13.2230E-3	98.7297E-12	691.789E-3	-12.7971E-3
2.70885E-3	98.3122E-12	690.193E-3	-18.7538E-3	97.8371E-12	678.179E-3	-2.27172E-3
2.70385E-3	98.5789E-12	700.413E-3	-32.7437E-3	97.1218E-12	664.902E-3	-13.6966E-3
2.69885E-3	98.5564E-12	717.050E-3	-40.3962E-3	96.2016E-12	650.340E-3	-32.9000E-3
2.69385E-3	98.7321E-12	714.176E-3	-32.4569E-3	95.8282E-12	660.728E-3	-25.6885E-3
2.68884E-3	98.5863E-12	700.036E-3	-26.1970E-3	95.0424E-12	677.099E-3	-8.67277E-3
2.68384E-3	98.1634E-12	698.415E-3	-21.1419E-3	94.7293E-12	676.249E-3	-15.9748E-3
2.67884E-3	97.6497E-12	710.145E-3	-8.66302E-3	94.4582E-12	685.406E-3	-31.1754E-3
2.67384E-3	96.7873E-12	721.052E-3	-8.22508E-3	94.2428E-12	697.880E-3	-23.4940E-3
2.66883E-3	96.2317E-12	719.886E-3	-13.4198E-3	94.2326E-12	694.731E-3	-20.7471E-3
2.66383E-3	95.4829E-12	711.759E-3	-7.00013E-3	93.9359E-12	693.615E-3	-20.6654E-3
2.65883E-3	94.8200E-12	712.938E-3	-4.54123E-3	94.1185E-12	697.570E-3	-7.67992E-3
2.65383E-3	94.3424E-12	724.703E-3	-14.5215E-3	93.9386E-12	687.411E-3	-9.75461E-3
2.64882E-3	93.9015E-12	723.876E-3	-29.6523E-3	94.3383E-12	683.366E-3	-6.92820E-3
2.64382E-3	93.5927E-12	698.888E-3	-40.2414E-3	94.4226E-12	711.577E-3	15.3842E-3
2.63882E-3	93.4317E-12	676.147E-3	-39.7257E-3	94.9909E-12	737.404E-3	17.2553E-3
2.63382E-3	93.2776E-12	675.609E-3	-33.0685E-3	94.8560E-12	719.389E-3	-1.72321E-3
2.62881E-3	93.5921E-12	677.146E-3	-30.5345E-3	94.9247E-12	701.269E-3	-12.7390E-3
2.62381E-3	93.5659E-12	682.999E-3	-29.0800E-3	95.0091E-12	719.935E-3	-14.1593E-3
2.61881E-3	93.3639E-12	704.335E-3	-14.2958E-3	94.9311E-12	731.610E-3	-13.8106E-3
2.61381E-3	93.1894E-12	706.702E-3	1.20093E-3	94.6789E-12	722.538E-3	-10.3231E-3
2.60880E-3	93.2216E-12	703.013E-3	2.80909E-3	94.5984E-12	719.708E-3	-14.2679E-3
2.60380E-3	93.1650E-12	717.653E-3	-847.011E-6	94.4174E-12	724.778E-3	-23.6887E-3
2.59880E-3	92.9957E-12	709.648E-3	6.32786E-3	94.3824E-12	730.666E-3	-15.4826E-3
2.59380E-3	92.9236E-12	696.071E-3	8.47386E-3	94.3616E-12	729.845E-3	-11.3510E-3
2.58879E-3	92.7185E-12	710.547E-3	-1.69996E-3	93.7709E-12	726.498E-3	-12.7368E-3
2.58379E-3	92.2661E-12	732.102E-3	-7.77099E-3	93.3954E-12	728.281E-3	5.69493E-3
2.57879E-3	91.8595E-12	733.638E-3	-19.5624E-3	92.7543E-12	722.612E-3	11.9964E-3
2.57379E-3	91.6971E-12	719.301E-3	-22.3686E-3	92.4196E-12	714.211E-3	-11.6963E-3
2.56878E-3	91.3309E-12	713.484E-3	-4.73051E-3	91.7677E-12	710.345E-3	-23.0500E-3
2.56378E-3	91.0784E-12	712.822E-3	14.3283E-3	91.1890E-12	706.221E-3	-13.0903E-3
2.55878E-3	90.7805E-12	716.220E-3	21.1246E-3	90.4870E-12	703.936E-3	-13.1424E-3
2.55378E-3	90.6301E-12	716.565E-3	-2.29804E-3	90.1713E-12	707.468E-3	-19.4278E-3
2.54877E-3	90.3626E-12	705.710E-3	-38.2331E-3	89.8196E-12	725.374E-3	-14.4581E-3
2.54377E-3	90.2345E-12	705.989E-3	-34.9518E-3	89.1560E-12	728.724E-3	-11.6443E-3
2.53877E-3	90.0857E-12	705.771E-3	-3.42216E-3	89.0149E-12	697.753E-3	-16.5936E-3
2.53377E-3	89.9964E-12	699.421E-3	5.08503E-3	88.6886E-12	686.493E-3	-21.5044E-3
2.52876E-3	89.8749E-12	710.163E-3	-6.82788E-3	88.5576E-12	712.970E-3	-30.2411E-3
2.52376E-3	89.8918E-12	724.796E-3	-17.0374E-3	88.3413E-12	718.383E-3	-32.6873E-3
2.51876E-3	89.3585E-12	725.993E-3	-32.2818E-3	88.3047E-12	705.478E-3	-14.9282E-3
2.51376E-3	89.1249E-12	706.047E-3	-40.1113E-3	88.2244E-12	710.162E-3	3.27139E-3
2.50875E-3	88.5793E-12	696.341E-3	-25.5344E-3	88.4953E-12	716.526E-3	-180.498E-6
2.50375E-3	88.3126E-12	716.585E-3	-17.3168E-3	88.3834E-12	715.900E-3	-9.14866E-3
2.49875E-3	87.7167E-12	731.277E-3	-27.7218E-3	88.3861E-12	716.638E-3	-9.78279E-3
2.49375E-3	87.2764E-12	720.331E-3	-30.0013E-3	88.0217E-12	730.818E-3	-3.68595E-3
2.48874E-3	86.7229E-12	700.347E-3	-17.0621E-3	87.6959E-12	750.255E-3	3.90604E-3
2.48374E-3	86.6720E-12	703.421E-3	-10.4784E-3	87.2046E-12	743.085E-3	2.74312E-3
2.47874E-3	86.4410E-12	725.649E-3	-11.7377E-3	86.8725E-12	722.784E-3	-15.5651E-3
2.47374E-3	86.1711E-12	725.189E-3	-18.1741E-3	86.3185E-12	721.218E-3	-27.7405E-3
2.46873E-3	85.9879E-12	704.098E-3	-30.4903E-3	85.4384E-12	719.727E-3	-19.7196E-3
2.46373E-3	85.7116E-12	705.447E-3	-26.9288E-3	85.2023E-12	709.267E-3	-24.7716E-3
2.45873E-3	85.4196E-12	718.746E-3	-14.5003E-3	84.6121E-12	711.772E-3	-40.2686E-3
2.45373E-3	85.3464E-12	722.202E-3	-17.0966E-3	84.1808E-12	719.856E-3	-45.1934E-3
2.44872E-3	85.2997E-12	721.002E-3	-12.4653E-3	83.5765E-12	712.580E-3	-41.0058E-3
2.44372E-3	85.4843E-12	716.228E-3	2.08919E-3	83.2691E-12	710.108E-3	-28.3175E-3
2.43872E-3	85.6130E-12	717.109E-3	-8.41760E-3	83.0303E-12	721.188E-3	-16.0609E-3
2.43372E-3	85.6374E-12	724.947E-3	-26.5716E-3	83.1022E-12	721.290E-3	-19.4096E-3
2.42871E-3	85.2260E-12	734.894E-3	-19.0108E-3	83.0563E-12	719.351E-3	-31.4530E-3
2.42371E-3	84.7853E-12	733.099E-3	-17.0445E-3	83.3490E-12	729.247E-3	-38.4168E-3
2.41871E-3	84.1172E-12	723.478E-3	-21.9969E-3	83.4629E-12	736.392E-3	-34.3587E-3
2.41371E-3	83.5580E-12	714.704E-3	-5.27141E-3	83.9603E-12	735.348E-3	-21.1774E-3
2.40870E-3	83.1036E-12	709.120E-3	-8.44224E-3	84.2543E-12	730.550E-3	-16.8974E-3
2.40370E-3	82.5922E-12	717.906E-3	-35.0777E-3	84.2866E-12	728.452E-3	-28.2443E-3
2.39870E-3	82.1741E-12	726.636E-3	-38.3306E-3	84.5020E-12	737.144E-3	-35.9690E-3
2.39370E-3	82.3339E-12	724.439E-3	-33.7230E-3	84.2926E-12	754.426E-3	-27.3417E-3
2.38869E-3	82.1271E-12	727.976E-3	-30.8402E-3	84.0224E-12	756.422E-3	-14.1745E-3
2.38369E-3	81.7444E-12	742.826E-3	-7.29366E-3	83.7395E-12	742.827E-3	-10.9613E-3
2.37869E-3	81.4359E-12	743.051E-3	3.70628E-3	83.5845E-12	740.934E-3	-16.9934E-3
2.37369E-3	81.4608E-12	727.177E-3	-19.5371E-3	82.9615E-12	745.058E-3	-22.4165E-3
2.36868E-3	81.2224E-12	718.611E-3	-35.8922E-3	82.5190E-12	739.397E-3	-17.7047E-3
2.36368E-3	80.9610E-12	723.799E-3	-37.2745E-3	81.7931E-12	732.299E-3	-15.7756E-3
2.35868E-3	80.9439E-12	740.156E-3	-27.8080E-3	80.9547E-12	726.624E-3	-26.9195E-3
2.35368E-3	80.8607E-12	754.815E-3	-6.52667E-3	80.2387E-12	730.843E-3	-31.7181E-3
2.34867E-3	80.6697E-12	748.741E-3	-3.64619E-3	79.7136E-12	746.907E-3	-29.0349E-3
2.34367E-3	80.5228E-12	726.088E-3	-15.9726E-3	79.3491E-12	754.666E-3	-24.7740E-3
2.33867E-3	80.2293E-12	710.548E-3	-13.9248E-3	79.0854E-12	747.812E-3	-7.39135E-3
2.33367E-3	79.8654E-12	712.006E-3	-2.14737E-3	78.8047E-12	743.637E-3	2.08221E-3
2.32866E-3	79.1954E-12	726.853E-3	4.57131E-3	78.8134E-12	750.936E-3	-11.4380E-3
2.32366E-3	78.6657E-12	734.191E-3	642.430E-6	79.1507E-12	748.761E-3	-27.7692E-3
2.31866E-3	78.4418E-12	722.980E-3	-13.5752E-3	79.1815E-12	746.232E-3	-36.1084E-3
2.31366E-3	78.2136E-12	716.398E-3	-24.6493E-3	79.4177E-12	745.628E-3	-40.1276E-3
2.30865E-3	77.9210E-12	716.909E-3	-24.4231E-3	79.5245E-12	744.616E-3	-38.4962E-3
2.30365E-3	78.0071E-12	718.063E-3	-16.4540E-3	79.4231E-12	757.802E-3	-27.3414E-3
2.29865E-3	77.9222E-12	725.627E-3	-11.8517E-3	79.3172E-12	759.250E-3	-13.9380E-3
2.29365E-3	77.8641E-12	734.983E-3	-7.47967E-3	79.0821E-12	737.732E-3	-9.93884E-3
2.28864E-3	77.7475E-12	739.351E-3	-5.61190E-3	78.9669E-12	729.480E-3	-14.4914E-3
2.28364E-3	77.6285E-12	748.134E-3	-14.7821E-3	78.3204E-12	740.779E-3	-13.0885E-3
2.27864E-3	77.5498E-12	768.891E-3	-25.8708E-3	77.7036E-12	748.871E-3	-9.78009E-3
2.27364E-3	77.2068E-12	774.086E-3	-38.8362E-3	77.1265E-12	748.265E-3	-12.8281E-3
2.26863E-3	76.8045E-12	758.794E-3	-37.2164E-3	76.0829E-12	743.163E-3	-12.3992E-3
2.26363E-3	76.6258E-12	753.201E-3	-13.6450E-3	75.1522E-12	738.659E-3	-15.9780E-3
2.25863E-3	76.3051E-12	753.029E-3	2.37470E-3	74.5779E-12	741.452E-3	-31.8938E-3
2.25363E-3	75.8232E-12	755.726E-3	-5.49208E-3	74.0571E-12	749.893E-3	-38.4144E-3
2.24862E-3	75.2934E-12	767.704E-3	-8.28094E-3	73.6733E-12	750.535E-3	-26.5088E-3
2.24362E-3	74.8814E-12	770.123E-3	1.98745E-3	73.4293E-12	754.000E-3	-17.8459E-3
2.23862E-3	74.2285E-12	765.175E-3	-6.31300E-3	73.3541E-12	767.744E-3	-27.7072E-3
2.23362E-3	74.0346E-12	767.224E-3	-12.4490E-3	73.5152E-12	780.607E-3	-40.5014E-3
2.22861E-3	73.7332E-12	759.706E-3	-5.78785E-3	73.5991E-12	786.010E-3	-41.8963E-3
2.22361E-3	73.6242E-12	738.946E-3	-20.0415E-3	73.8203E-12	781.707E-3	-43.6621E-3
2.21861E-3	73.3641E-12	723.993E-3	-38.7499E-3	73.9412E-12	771.983E-3	-48.5013E-3
2.21361E-3	73.5116E-12	719.996E-3	-29.8435E-3	74.1209E-12	755.120E-3	-41.6278E-3
2.20860E-3	73.5727E-12	717.156E-3	-15.6378E-3	74.1785E-12	738.918E-3	-35.1060E-3
2.20360E-3	73.6291E-12	732.959E-3	-22.5551E-3	74.3997E-12	747.160E-3	-39.7019E-3
2.19860E-3	73.5041E-12	754.311E-3	-36.2033E-3	74.2917E-12	778.130E-3	-33.5937E-3
2.19360E-3	73.6442E-12	756.608E-3	-37.5629E-3	74.2756E-12	797.905E-3	-18.6187E-3
2.18859E-3	73.3520E-12	760.982E-3	-27.6099E-3	73.7817E-12	794.882E-3	-16.1563E-3
2.18359E-3	73.4665E-12	769.520E-3	-6.89811E-3	73.5001E-12	795.288E-3	-21.4109E-3
2.17859E-3	73.0945E-12	776.543E-3	2.02535E-3	72.9739E-12	798.281E-3	-32.7939E-3
2.17359E-3	72.9411E-12	789.347E-3	-14.9974E-3	72.2918E-12	791.834E-3	-31.3939E-3
2.16858E-3	72.5679E-12	801.241E-3	-22.3495E-3	72.0956E-12	786.285E-3	-12.0498E-3
2.16358E-3	72.1383E-12	790.611E-3	-13.0824E-3	71.8253E-12	780.557E-3	-6.35338E-3
2.15858E-3	71.6988E-12	777.383E-3	-8.54292E-3	71.4256E-12	777.455E-3	-13.4038E-3
2.15358E-3	71.2059E-12	793.515E-3	-8.24816E-3	71.0464E-12	788.850E-3	-20.7043E-3
2.14857E-3	70.3654E-12	805.229E-3	-14.0495E-3	70.7093E-12	799.568E-3	-23.2171E-3
2.14357E-3	69.7762E-12	789.051E-3	-31.1177E-3	70.3528E-12	786.372E-3	-27.2263E-3
2.13857E-3	69.3803E-12	775.286E-3	-30.8071E-3	70.0932E-12	766.135E-3	-29.8682E-3
2.13357E-3	69.0336E-12	770.981E-3	-190.568E-6	69.7449E-12	760.489E-3	-20.1446E-3
2.12856E-3	68.7137E-12	767.186E-3	20.9057E-3	69.2014E-12	769.981E-3	-18.7137E-3
2.12356E-3	68.6966E-12	773.128E-3	12.6178E-3	69.0900E-12	787.475E-3	-32.0206E-3
2.11856E-3	68.8449E-12	773.979E-3	9.10152E-3	68.6293E-12	786.780E-3	-41.7817E-3
2.11356E-3	68.7142E-12	761.475E-3	17.1898E-3	68.2963E-12	774.817E-3	-44.9020E-3
2.10855E-3	68.5546E-12	760.324E-3	12.0424E-3	67.9188E-12	779.863E-3	-49.1794E-3
2.10355E-3	68.4352E-12	761.354E-3	2.69632E-3	67.7521E-12	787.294E-3	-49.3307E-3
2.09855E-3	68.5009E-12	767.011E-3	-9.96919E-3	67.3265E-12	783.292E-3	-33.2047E-3
2.09355E-3	68.2586E-12	787.776E-3	-13.6528E-3	67.1650E-12	782.644E-3	-9.10713E-3
2.08854E-3	68.0450E-12	795.069E-3	1.07585E-3	66.6283E-12	783.485E-3	15.3672E-3
2.08354E-3	67.8988E-12	793.521E-3	-37.2662E-6	66.3992E-12	788.533E-3	20.8820E-3
2.07854E-3	67.5895E-12	809.041E-3	-15.5187E-3	65.9525E-12	801.764E-3	2.85481E-3
2.07354E-3	67.1401E-12	812.538E-3	-18.9048E-3	65.9084E-12	800.385E-3	-4.35194E-3
2.06853E-3	66.6989E-12	792.791E-3	-12.5918E-3	65.7908E-12	795.802E-3	-5.59747E-3
2.06353E-3	66.1739E-12	784.568E-3	3.58630E-3	65.6012E-12	800.333E-3	-25.4250E-3
2.05853E-3	65.5208E-12	792.042E-3	12.2551E-3	65.2864E-12	794.393E-3	-32.0971E-3
2.05353E-3	64.8312E-12	802.757E-3	-4.65270E-3	65.0215E-12	788.205E-3	-15.7715E-3
2.04852E-3	64.4009E-12	818.627E-3	-19.4320E-3	64.7021E-12	797.998E-3	-5.22199E-3
2.04352E-3	64.0362E-12	817.582E-3	-18.2705E-3	64.5224E-12	803.266E-3	-2.09562E-3
2.03852E-3	63.6287E-12	786.843E-3	-10.4292E-3	64.4655E-12	798.865E-3	-15.3153E-3
2.03352E-3	63.2521E-12	765.373E-3	-75.4916E-6	64.1906E-12	801.208E-3	-34.8669E-3
2.02851E-3	63.2819E-12	776.017E-3	7.90513E-3	63.9919E-12	801.962E-3	-32.9851E-3
2.02351E-3	63.1757E-12	797.904E-3	-8.20138E-3	63.7712E-12	809.352E-3	-13.8781E-3
2.01851E-3	62.9071E-12	809.314E-3	-36.8655E-3	63.4910E-12	821.357E-3	-4.82514E-3
2.01351E-3	62.5193E-12	803.665E-3	-34.5746E-3	63.2831E-12	809.838E-3	-13.9518E-3
2.00850E-3	62.5318E-12	797.372E-3	-3.90783E-3	63.0714E-12	799.573E-3	-12.1476E-3
2.00350E-3	62.5913E-12	797.944E-3	10.8035E-3	62.9296E-12	813.726E-3	-4.07430E-3
1.99850E-3	62.4548E-12	803.531E-3	-4.62780E-3	62.5606E-12	829.396E-3	-6.52059E-3
1.99350E-3	62.2339E-12	816.149E-3	-23.9457E-3	62.4928E-12	830.572E-3	-8.04151E-3
1.98849E-3	62.2417E-12	814.478E-3	-36.7945E-3	62.3241E-12	827.102E-3	-14.1098E-3
1.98349E-3	62.1190E-12	810.333E-3	-36.1005E-3	62.4172E-12	827.887E-3	-9.70219E-3
1.97849E-3	61.7742E-12	815.562E-3	-18.0707E-3	62.2378E-12	836.686E-3	4.79267E-3
1.97349E-3	61.6269E-12	813.044E-3	-7.48593E-3	62.0930E-12	843.135E-3	1.66123E-3
1.96848E-3	61.2349E-12	816.309E-3	-16.3713E-3	62.0834E-12	835.498E-3	2.56415E-3
1.96348E-3	60.9439E-12	827.584E-3	-24.9902E-3	61.8703E-12	836.856E-3	15.6499E-3
1.95848E-3	60.5287E-12	835.000E-3	-22.5961E-3	61.6207E-12	846.299E-3	6.08235E-3
1.95348E-3	60.4260E-12	849.547E-3	-16.5002E-3	61.0036E-12	843.341E-3	-15.2363E-3
1.94847E-3	60.0259E-12	858.833E-3	-9.63526E-3	60.8089E-12	838.854E-3	-15.2862E-3
1.94347E-3	59.7225E-12	847.611E-3	-8.85199E-3	59.9660E-12	837.312E-3	-5.57583E-3
1.93847E-3	59.4614E-12	833.617E-3	-12.7461E-3	59.4303E-12	828.779E-3	-7.97204E-3
1.93347E-3	59.2126E-12	828.919E-3	-13.8361E-3	58.8544E-12	817.158E-3	-12.6884E-3
1.92846E-3	58.7953E-12	832.567E-3	-12.8320E-3	58.2796E-12	821.549E-3	-6.19775E-3
1.92346E-3	58.3804E-12	849.134E-3	-9.17657E-3	57.7194E-12	836.489E-3	1.37411E-3
1.91846E-3	57.8805E-12	860.325E-3	-1.00867E-3	57.1306E-12	841.607E-3	1.92482E-3
1.91346E-3	57.5433E-12	841.922E-3	5.95878E-3	56.7707E-12	843.205E-3	-2.69443E-3
1.90845E-3	57.2663E-12	831.051E-3	1.17660E-3	56.6427E-12	849.877E-3	-16.4495E-3
1.90345E-3	56.9497E-12	846.911E-3	-14.2973E-3	56.2424E-12	857.752E-3	-28.3360E-3
1.89845E-3	56.5391E-12	848.271E-3	-31.7846E-3	56.0708E-12	861.294E-3	-28.2564E-3
1.89345E-3	56.2439E-12	836.630E-3	-46.4908E-3	56.0819E-12	852.040E-3	-19.7665E-3
1.88844E-3	56.0403E-12	835.782E-3	-46.7258E-3	56.1090E-12	847.976E-3	-17.4388E-3
1.88344E-3	55.7622E-12	841.180E-3	-23.2245E-3	56.2042E-12	873.395E-3	-27.7371E-3
1.87844E-3	55.4109E-12	846.743E-3	-2.93640E-3	55.9182E-12	892.434E-3	-37.2568E-3
1.87344E-3	55.2544E-12	855.363E-3	-7.23547E-3	55.9552E-12	893.974E-3	-39.6828E-3
1.86843E-3	55.0469E-12	868.011E-3	-21.0194E-3	55.8952E-12	905.786E-3	-30.5883E-3
1.86343E-3	55.0192E-12	868.553E-3	-34.1314E-3	55.5152E-12	901.203E-3	-14.2293E-3
1.85843E-3	54.7570E-12	860.259E-3	-41.3346E-3	55.0268E-12	876.757E-3	-12.8741E-3
1.85343E-3	54.4993E-12	864.143E-3	-33.4269E-3	54.6816E-12	874.507E-3	-26.8231E-3
1.84842E-3	54.2468E-12	879.145E-3	-20.4759E-3	54.1488E-12	893.251E-3	-29.4762E-3
1.84342E-3	53.9766E-12	891.439E-3	-21.7868E-3	53.4634E-12	897.094E-3	-19.9022E-3
1.83842E-3	53.5284E-12	905.537E-3	-24.8582E-3	52.8505E-12	883.189E-3	-16.9842E-3
1.83342E-3	53.3082E-12	922.397E-3	-16.3911E-3	52.3554E-12	879.777E-3	-23.4953E-3
1.82841E-3	53.0223E-12	914.125E-3	-13.0645E-3	51.8728E-12	885.920E-3	-17.2830E-3
1.82341E-3	52.5606E-12	882.499E-3	-22.2657E-3	51.2584E-12	884.718E-3	-638.855E-6
1.81841E-3	52.0997E-12	860.889E-3	-28.0399E-3	50.7275E-12	881.353E-3	2.08380E-3
1.81341E-3	51.6160E-12	866.449E-3	-15.1511E-3	50.7869E-12	885.700E-3	-2.73835E-3
1.80840E-3	51.3480E-12	886.571E-3	-6.96474E-3	50.4037E-12	901.634E-3	-7.78933E-3
1.80340E-3	50.8512E-12	901.464E-3	-21.2459E-3	50.4983E-12	921.780E-3	-9.71018E-3
1.79840E-3	50.5926E-12	908.444E-3	-32.4791E-3	50.4122E-12	936.115E-3	-4.05958E-3
1.79340E-3	50.1280E-12	910.676E-3	-27.7846E-3	50.6158E-12	940.633E-3	-9.51802E-3
1.78839E-3	49.9886E-12	914.373E-3	-18.3694E-3	50.6898E-12	941.248E-3	-26.6028E-3
1.78339E-3	49.6190E-12	915.854E-3	-10.2740E-3	50.7346E-12	951.107E-3	-30.7429E-3
1.77839E-3	49.3468E-12	912.142E-3	708.871E-6	50.6607E-12	967.273E-3	-28.8798E-3
1.77339E-3	49.3135E-12	913.011E-3	225.770E-6	50.7144E-12	971.019E-3	-30.9876E-3
1.76838E-3	49.0514E-12	925.065E-3	-12.8967E-3	50.4385E-12	967.021E-3	-12.7997E-3
1.76338E-3	48.8691E-12	927.017E-3	-14.9842E-3	49.9316E-12	968.047E-3	7.23667E-3
1.75838E-3	48.5923E-12	920.029E-3	-11.9838E-3	49.6607E-12	963.515E-3	3.77587E-3
1.75338E-3	48.7066E-12	935.448E-3	-10.4389E-3	49.1815E-12	957.845E-3	4.87232E-3
1.74837E-3	48.2061E-12	954.817E-3	-6.81914E-3	48.7837E-12	967.780E-3	15.0691E-3
1.74337E-3	47.9865E-12	952.845E-3	-12.5071E-3	47.9083E-12	985.230E-3	10.7767E-3
1.73837E-3	47.6573E-12	943.765E-3	-23.9710E-3	47.6356E-12	983.326E-3	-9.97911E-3
1.73337E-3	47.4164E-12	952.817E-3	-22.5523E-3	47.1336E-12	969.042E-3	-30.0639E-3
1.72836E-3	46.9327E-12	975.042E-3	-14.3636E-3	46.8279E-12	973.988E-3	-34.6317E-3
1.72336E-3	46.5519E-12	982.411E-3	-25.2170E-3	46.2985E-12	992.250E-3	-25.7714E-3
1.71836E-3	46.0280E-12	973.544E-3	-44.7682E-3	45.9400E-12	1.00424E+0	-20.1839E-3
1.71336E-3	45.6737E-12	963.593E-3	-29.5451E-3	45.8194E-12	1.00812E+0	-28.6559E-3
1.70835E-3	45.3459E-12	964.310E-3	8.64003E-3	45.5106E-12	999.659E-3	-39.8934E-3
1.70335E-3	44.8043E-12	977.229E-3	18.2101E-3	45.2602E-12	991.388E-3	-36.6935E-3
1.69835E-3	44.4980E-12	988.721E-3	-1.53030E-3	44.8668E-12	1.00032E+0	-23.8108E-3
1.69335E-3	43.9697E-12	995.995E-3	-16.9595E-3	44.6797E-12	1.01081E+0	-14.8306E-3
1.68834E-3	43.7366E-12	999.565E-3	-19.4914E-3	44.2150E-12	1.00877E+0	-6.14167E-3
1.68334E-3	43.4564E-12	996.414E-3	-22.2704E-3	43.8941E-12	1.00973E+0	4.20183E-3
1.67834E-3	43.3978E-12	994.724E-3	-18.0225E-3	43.4775E-12	1.02085E+0	993.164E-6
1.67334E-3	43.0852E-12	997.566E-3	-8.08985E-3	43.1604E-12	1.03242E+0	-2.70748E-3
1.66833E-3	42.9409E-12	1.00826E+0	-14.2148E-3	42.4215E-12	1.03509E+0	3.22433E-3
1.66333E-3	42.5240E-12	1.01024E+0	-32.5574E-3	41.9230E-12	1.04132E+0	-7.54248E-3
1.65833E-3	42.3902E-12	1.00239E+0	-36.3105E-3	41.4645E-12	1.05508E+0	-26.8232E-3
1.65333E-3	41.9937E-12	1.01598E+0	-18.1884E-3	41.0600E-12	1.05267E+0	-26.2359E-3
1.64832E-3	41.5140E-12	1.03445E+0	-9.15172E-3	40.4560E-12	1.04639E+0	-22.5037E-3
1.64332E-3	41.1493E-12	1.04564E+0	-20.1227E-3	40.0765E-12	1.04757E+0	-21.8839E-3
1.63832E-3	40.9214E-12	1.06382E+0	-29.6857E-3	39.9411E-12	1.04358E+0	-16.9995E-3
1.63332E-3	40.5666E-12	1.06959E+0	-23.6638E-3	39.5943E-12	1.05192E+0	-15.4104E-3
1.62831E-3	40.0696E-12	1.06305E+0	-12.2214E-3	39.2327E-12	1.06737E+0	-9.76652E-3
1.62331E-3	39.5670E-12	1.07026E+0	-13.6636E-3	38.8094E-12	1.06338E+0	-558.202E-6
1.61831E-3	39.1829E-12	1.07802E+0	-21.6974E-3	38.8200E-12	1.06794E+0	3.04733E-3
1.61331E-3	38.7282E-12	1.06601E+0	-18.0465E-3	38.4640E-12	1.09584E+0	-7.15785E-3
1.60830E-3	38.2133E-12	1.05219E+0	-1.85493E-3	38.0145E-12	1.11270E+0	-21.9458E-3
1.60330E-3	37.7790E-12	1.05864E+0	10.7160E-3	37.6973E-12	1.10941E+0	-24.4843E-3
1.59830E-3	37.4934E-12	1.07302E+0	-2.39756E-3	37.4955E-12	1.10369E+0	-28.6683E-3
1.59330E-3	37.1728E-12	1.08253E+0	-20.9515E-3	37.1051E-12	1.10317E+0	-28.1064E-3
1.58829E-3	36.8210E-12	1.08737E+0	-16.7000E-3	36.6869E-12	1.10272E+0	-17.6920E-3
1.58329E-3	36.4770E-12	1.09409E+0	-9.73540E-3	36.4577E-12	1.10793E+0	-23.6689E-3
1.57829E-3	36.3121E-12	1.11215E+0	-5.27156E-3	36.1739E-12	1.12683E+0	-31.6977E-3
1.57329E-3	35.9218E-12	1.12529E+0	-4.20814E-3	35.7024E-12	1.14354E+0	-20.6857E-3
1.56828E-3	35.6222E-12	1.12940E+0	-6.29900E-3	35.2761E-12	1.14473E+0	-14.0484E-3
1.56328E-3	35.2179E-12	1.13331E+0	-10.5015E-3	35.1880E-12	1.13847E+0	-18.9767E-3
1.55828E-3	34.9239E-12	1.12967E+0	-13.1585E-3	34.8474E-12	1.14192E+0	-14.7795E-3
1.55328E-3	34.4334E-12	1.13696E+0	-6.05994E-3	34.4753E-12	1.15834E+0	-2.12691E-3
1.54827E-3	33.9599E-12	1.16523E+0	-8.35981E-3	34.0861E-12	1.16545E+0	-655.361E-6
1.54327E-3	33.6501E-12	1.17363E+0	-14.4629E-3	33.9029E-12	1.16527E+0	-6.25834E-3
1.53827E-3	33.3260E-12	1.14825E+0	-15.1273E-3	33.6650E-12	1.16707E+0	-15.6153E-3
1.53327E-3	32.9550E-12	1.13188E+0	-16.8802E-3	33.1474E-12	1.16003E+0	-28.7657E-3
1.52826E-3	32.3963E-12	1.14769E+0	-3.39779E-3	32.7801E-12	1.16298E+0	-20.7634E-3
1.52326E-3	32.2346E-12	1.16825E+0	5.91850E-3	32.4208E-12	1.18369E+0	-7.37633E-3
1.51826E-3	31.7543E-12	1.17023E+0	-12.7658E-3	31.9746E-12	1.19160E+0	-11.2537E-3
1.51326E-3	31.2705E-12	1.16544E+0	-23.3917E-3	31.2179E-12	1.17290E+0	-13.4448E-3
1.50825E-3	30.7766E-12	1.15729E+0	-15.1943E-3	30.7040E-12	1.14651E+0	-15.3956E-3
1.50325E-3	30.5161E-12	1.14842E+0	-16.8048E-3	30.3438E-12	1.13615E+0	-23.4212E-3
1.49825E-3	30.3143E-12	1.15851E+0	-23.5505E-3	29.9628E-12	1.14023E+0	-24.1253E-3
1.49325E-3	29.7962E-12	1.17404E+0	-14.1617E-3	29.2986E-12	1.14827E+0	-19.7523E-3
1.48824E-3	29.4054E-12	1.18023E+0	-1.28735E-3	28.8801E-12	1.15695E+0	-19.6103E-3
1.48324E-3	29.1542E-12	1.19249E+0	-1.32215E-3	28.5510E-12	1.15735E+0	-25.1744E-3
1.47824E-3	28.7354E-12	1.19903E+0	-6.60700E-3	28.1798E-12	1.16340E+0	-28.8832E-3
1.47324E-3	28.2678E-12	1.18404E+0	-17.2052E-3	27.7524E-12	1.18523E+0	-20.8914E-3
1.46823E-3	27.7110E-12	1.17702E+0	-28.0569E-3	27.3650E-12	1.18651E+0	-14.7263E-3
1.46323E-3	27.3835E-12	1.18180E+0	-21.8619E-3	27.2119E-12	1.16792E+0	-18.9704E-3
1.45823E-3	26.9688E-12	1.17924E+0	-10.2374E-3	26.9779E-12	1.16728E+0	-22.2175E-3
1.45323E-3	26.4319E-12	1.17534E+0	-16.6736E-3	26.5960E-12	1.17956E+0	-20.4091E-3
1.44822E-3	25.9317E-12	1.17177E+0	-24.2926E-3	26.2221E-12	1.19556E+0	-20.7968E-3
1.44322E-3	25.6610E-12	1.17112E+0	-24.7812E-3	26.1086E-12	1.20439E+0	-19.2866E-3
1.43822E-3	25.2482E-12	1.17100E+0	-26.3136E-3	25.7767E-12	1.18697E+0	-20.4593E-3
1.43322E-3	24.9759E-12	1.17335E+0	-21.4572E-3	25.4037E-12	1.16112E+0	-27.1221E-3
1.42821E-3	24.5388E-12	1.18565E+0	-17.6171E-3	25.0077E-12	1.14787E+0	-26.3582E-3
1.42321E-3	24.1266E-12	1.18381E+0	-15.3599E-3	24.5258E-12	1.14641E+0	-17.1911E-3
1.41821E-3	23.7086E-12	1.16353E+0	-8.65799E-3	23.8493E-12	1.14610E+0	-15.6581E-3
1.41321E-3	23.3823E-12	1.15126E+0	-8.09789E-3	23.2233E-12	1.13520E+0	-16.1941E-3
1.40820E-3	23.0107E-12	1.14581E+0	-15.8627E-3	22.8434E-12	1.11778E+0	-15.4346E-3
1.40320E-3	22.7763E-12	1.14708E+0	-26.3002E-3	22.4135E-12	1.11058E+0	-22.4305E-3
1.39820E-3	22.4083E-12	1.15142E+0	-34.7630E-3	21.8734E-12	1.12208E+0	-16.7822E-3
1.39320E-3	21.9934E-12	1.14960E+0	-36.5958E-3	21.4638E-12	1.13333E+0	-3.20517E-3
1.38819E-3	21.8391E-12	1.14957E+0	-26.4049E-3	21.2751E-12	1.12489E+0	-7.82414E-3
1.38319E-3	21.5282E-12	1.14358E+0	-13.5869E-3	20.9844E-12	1.11157E+0	-23.9867E-3
1.37819E-3	21.0097E-12	1.12862E+0	-14.5999E-3	20.5395E-12	1.10203E+0	-28.6595E-3
1.37319E-3	20.5513E-12	1.12550E+0	-20.0282E-3	20.1956E-12	1.09118E+0	-25.9317E-3
1.36818E-3	20.2846E-12	1.13077E+0	-20.5135E-3	20.0702E-12	1.08375E+0	-19.5469E-3
1.36318E-3	19.8253E-12	1.12034E+0	-23.8104E-3	19.9106E-12	1.07542E+0	-8.70667E-3
1.35818E-3	19.4506E-12	1.09529E+0	-20.8929E-3	19.4595E-12	1.06233E+0	-13.6077E-3
1.35318E-3	18.8750E-12	1.07634E+0	-8.48304E-3	19.0959E-12	1.05234E+0	-23.2534E-3
1.34817E-3	18.6354E-12	1.07599E+0	-12.5815E-3	19.0064E-12	1.04793E+0	-21.9225E-3
1.34317E-3	18.3042E-12	1.07716E+0	-25.9740E-3	18.7155E-12	1.03642E+0	-15.6736E-3
1.33817E-3	18.0122E-12	1.05554E+0	-25.5722E-3	18.2009E-12	1.01166E+0	-7.69215E-3
1.33317E-3	17.5916E-12	1.02333E+0	-18.0128E-3	17.7557E-12	994.488E-3	-10.9258E-3
1.32816E-3	17.3414E-12	1.02365E+0	-9.68439E-3	17.4149E-12	991.880E-3	-19.7387E-3
1.32316E-3	16.9549E-12	1.03739E+0	-12.5154E-3	16.9796E-12	981.610E-3	-18.2345E-3
1.31816E-3	16.6981E-12	1.02477E+0	-29.2175E-3	16.4779E-12	959.763E-3	-9.49837E-3
1.31316E-3	16.3556E-12	1.00372E+0	-33.9556E-3	16.1635E-12	932.989E-3	-7.42099E-3
1.30815E-3	16.0589E-12	987.409E-3	-15.0917E-3	15.8145E-12	911.428E-3	-11.6900E-3
1.30315E-3	15.6988E-12	973.451E-3	-2.51004E-3	15.4705E-12	912.243E-3	-14.7112E-3
1.29815E-3	15.3344E-12	962.992E-3	-11.9308E-3	15.0699E-12	915.409E-3	-22.3124E-3
1.29315E-3	15.0621E-12	954.615E-3	-17.4921E-3	14.8858E-12	895.900E-3	-18.6883E-3
1.28814E-3	14.7652E-12	939.704E-3	-19.7826E-3	14.6595E-12	876.244E-3	3.44094E-3
1.28314E-3	14.3733E-12	925.593E-3	-32.2805E-3	14.3210E-12	870.405E-3	12.0494E-3
1.27814E-3	14.0644E-12	918.657E-3	-35.5938E-3	14.0295E-12	857.657E-3	-2.63163E-3
1.27314E-3	13.8199E-12	899.173E-3	-27.2722E-3	13.8576E-12	840.288E-3	-27.2828E-3
1.26813E-3	13.5677E-12	873.544E-3	-23.0006E-3	13.6908E-12	835.390E-3	-38.4880E-3
1.26313E-3	13.2714E-12	864.963E-3	-20.4545E-3	13.3126E-12	815.383E-3	-25.0398E-3
1.25813E-3	12.9401E-12	857.638E-3	-16.5843E-3	13.0156E-12	779.784E-3	-12.5494E-3
1.25313E-3	12.7348E-12	846.541E-3	-13.4142E-3	12.7779E-12	759.105E-3	-19.3298E-3
1.24812E-3	12.5461E-12	838.316E-3	-9.40403E-3	12.5319E-12	744.050E-3	-25.7393E-3
1.24312E-3	12.2015E-12	818.669E-3	-13.4306E-3	12.1231E-12	728.681E-3	-14.8009E-3
1.23812E-3	11.9247E-12	789.001E-3	-30.6527E-3	11.7624E-12	707.628E-3	-12.3486E-3
1.23312E-3	11.8369E-12	772.501E-3	-46.3033E-3	11.5878E-12	676.777E-3	-25.4992E-3
1.22811E-3	11.5824E-12	768.636E-3	-43.7041E-3	11.2792E-12	660.814E-3	-20.1395E-3
1.22311E-3	11.2973E-12	761.072E-3	-31.8693E-3	10.9889E-12	667.707E-3	-5.56379E-3
1.21811E-3	11.0234E-12	749.514E-3	-29.7125E-3	10.5864E-12	660.173E-3	-15.0043E-3
1.21311E-3	10.8809E-12	724.986E-3	-22.4602E-3	10.4174E-12	626.900E-3	-27.3355E-3
1.20810E-3	10.6565E-12	694.260E-3	-1.32725E-3	10.3135E-12	604.201E-3	-23.8178E-3
1.20310E-3	10.3732E-12	679.552E-3	9.97288E-3	10.0892E-12	595.623E-3	-14.2930E-3
1.19810E-3	10.1105E-12	662.342E-3	3.81494E-3	9.86487E-12	586.174E-3	-4.96011E-3
1.19310E-3	9.91687E-12	633.769E-3	-16.4927E-3	9.77207E-12	574.092E-3	2.51190E-3
1.18809E-3	9.64842E-12	615.712E-3	-32.5435E-3	9.63131E-12	557.505E-3	4.19503E-3
1.18309E-3	9.47415E-12	600.467E-3	-19.3588E-3	9.32127E-12	542.197E-3	-5.00006E-3
1.17809E-3	9.27102E-12	580.602E-3	-6.77431E-3	9.20518E-12	529.435E-3	-13.3421E-3
1.17309E-3	9.11712E-12	577.515E-3	-10.8293E-3	9.16150E-12	518.306E-3	-6.63767E-3
1.16808E-3	8.91419E-12	571.916E-3	-4.27589E-3	8.96352E-12	502.777E-3	5.26935E-3
1.16308E-3	8.74105E-12	542.517E-3	-1.04563E-3	8.72798E-12	474.526E-3	-1.76666E-3
1.15808E-3	8.58623E-12	522.949E-3	-6.56355E-3	8.60297E-12	451.911E-3	-23.9840E-3
1.15308E-3	8.51652E-12	515.953E-3	1.76759E-3	8.47610E-12	446.437E-3	-26.4748E-3
1.14807E-3	8.27780E-12	499.748E-3	3.68825E-3	8.24539E-12	447.422E-3	-23.2593E-3
1.14307E-3	8.13727E-12	482.377E-3	-4.93632E-3	8.03169E-12	436.867E-3	-39.9756E-3
1.13807E-3	8.00108E-12	467.748E-3	-1.34017E-3	7.87284E-12	411.217E-3	-41.0130E-3
1.13307E-3	7.88140E-12	457.871E-3	527.457E-6	7.86687E-12	391.496E-3	-17.8072E-3
1.12806E-3	7.70835E-12	458.647E-3	-15.8429E-3	7.64903E-12	380.434E-3	-8.79917E-3
1.12306E-3	7.44838E-12	451.712E-3	-22.4599E-3	7.46682E-12	363.672E-3	-13.0561E-3
1.11806E-3	7.33402E-12	435.486E-3	-21.9686E-3	7.34298E-12	355.627E-3	-10.4160E-3
1.11306E-3	7.24174E-12	412.426E-3	-35.3191E-3	7.32204E-12	351.455E-3	-5.91212E-3
1.10805E-3	7.12386E-12	382.447E-3	-34.3060E-3	7.16428E-12	327.230E-3	-11.2426E-3
1.10305E-3	6.93417E-12	365.687E-3	-16.9246E-3	7.00904E-12	314.290E-3	-26.0805E-3
1.09805E-3	6.80211E-12	360.069E-3	-15.4646E-3	6.94104E-12	322.669E-3	-34.3957E-3
1.09305E-3	6.76192E-12	354.577E-3	-22.1733E-3	6.85369E-12	311.524E-3	-27.2151E-3
1.08804E-3	6.59819E-12	342.259E-3	-15.8818E-3	6.71644E-12	281.533E-3	-11.5133E-3
1.08304E-3	6.54299E-12	326.579E-3	-10.4257E-3	6.43571E-12	260.250E-3	-3.52461E-3
1.07804E-3	6.48435E-12	321.490E-3	-4.93910E-3	6.41182E-12	247.814E-3	-12.6546E-3
1.07304E-3	6.36054E-12	317.993E-3	-5.27036E-3	6.32337E-12	246.660E-3	-17.4339E-3
1.06803E-3	6.26577E-12	308.044E-3	-24.8608E-3	6.14947E-12	253.955E-3	-5.92941E-3
1.06303E-3	6.25171E-12	291.408E-3	-39.5927E-3	6.01535E-12	247.474E-3	-4.56621E-3
1.05803E-3	6.18013E-12	269.891E-3	-24.7051E-3	5.99095E-12	236.075E-3	-11.8489E-3
1.05303E-3	5.98349E-12	257.802E-3	146.502E-6	5.89641E-12	228.222E-3	-12.4558E-3
1.04802E-3	5.97957E-12	257.742E-3	-2.24622E-3	5.86229E-12	214.425E-3	-10.8374E-3
1.04302E-3	5.99621E-12	254.085E-3	-27.8922E-3	5.84717E-12	197.244E-3	-4.94246E-3
1.03802E-3	5.78758E-12	242.917E-3	-45.6194E-3	5.74726E-12	181.998E-3	-5.71021E-3
1.03302E-3	5.67837E-12	236.645E-3	-32.9819E-3	5.62543E-12	158.835E-3	-18.2268E-3
1.02801E-3	5.55881E-12	223.842E-3	-10.5629E-3	5.45962E-12	142.558E-3	-13.6110E-3
1.02301E-3	5.43130E-12	201.306E-3	-17.6719E-3	5.41209E-12	151.726E-3	1.26271E-3
1.01801E-3	5.31388E-12	192.555E-3	-31.2262E-3	5.37439E-12	154.124E-3	-1.78578E-3
1.01301E-3	5.26419E-12	179.944E-3	-15.1514E-3	5.25637E-12	137.741E-3	-4.58758E-3
1.00800E-3	5.15274E-12	150.685E-3	4.02397E-3	5.17781E-12	131.794E-3	-10.2356E-3
1.00300E-3	5.17328E-12	145.383E-3	1.57234E-3	5.17409E-12	138.476E-3	-34.4220E-3
997.999E-6	5.16740E-12	158.401E-3	-7.37255E-3	5.18374E-12	134.798E-3	-38.9788E-3
992.997E-6	5.04773E-12	147.366E-3	-14.9632E-3	5.04281E-12	131.888E-3	-21.0453E-3
987.994E-6	4.98051E-12	113.703E-3	-19.5024E-3	4.99040E-12	125.585E-3	-14.1927E-3
982.991E-6	4.94711E-12	96.9601E-3	-14.4373E-3	4.90700E-12	105.762E-3	-14.3233E-3
977.989E-6	5.00887E-12	110.244E-3	-16.6163E-3	4.92076E-12	101.797E-3	-11.2728E-3
972.986E-6	4.89149E-12	130.499E-3	-35.8130E-3	4.89605E-12	110.888E-3	-6.75795E-3
967.984E-6	4.83576E-12	139.568E-3	-39.4726E-3	4.77417E-12	105.079E-3	-904.018E-6
962.981E-6	4.76608E-12	126.244E-3	-32.0918E-3	4.68758E-12	94.2320E-3	-2.20006E-3
957.979E-6	4.75384E-12	104.332E-3	-32.5375E-3	4.74583E-12	92.2672E-3	-11.7732E-3
952.976E-6	4.78220E-12	105.642E-3	-25.9492E-3	4.71482E-12	90.7071E-3	-17.0348E-3
947.974E-6	4.76672E-12	115.979E-3	-14.6243E-3	4.62223E-12	82.9223E-3	-15.4240E-3
942.971E-6	4.68244E-12	105.680E-3	-16.2463E-3	4.65152E-12	78.4628E-3	-17.3477E-3
937.969E-6	4.65651E-12	91.6050E-3	-23.5471E-3	4.70904E-12	73.9296E-3	-20.6001E-3
932.966E-6	4.65492E-12	81.2493E-3	-22.2120E-3	4.63641E-12	67.1781E-3	-20.1172E-3
927.964E-6	4.64885E-12	76.3097E-3	-18.0414E-3	4.57467E-12	74.6653E-3	-23.5695E-3
922.961E-6	4.56816E-12	81.7536E-3	-24.1654E-3	4.62220E-12	73.3937E-3	-32.2277E-3
917.959E-6	4.57566E-12	67.2760E-3	-26.1224E-3	4.61151E-12	59.4111E-3	-37.4208E-3
912.956E-6	4.51969E-12	46.3904E-3	-13.1436E-3	4.53392E-12	58.6555E-3	-32.0405E-3
907.954E-6	4.53391E-12	60.4236E-3	-3.31614E-3	4.46599E-12	57.4314E-3	-27.5756E-3
902.951E-6	4.53568E-12	76.8414E-3	8.02180E-3	4.46713E-12	59.1395E-3	-18.7082E-3
897.949E-6	4.48496E-12	71.5827E-3	7.76044E-3	4.38543E-12	73.0250E-3	-8.13537E-3
892.946E-6	4.37659E-12	62.8763E-3	-10.8228E-3	4.33373E-12	69.5672E-3	-13.5566E-3
887.944E-6	4.48069E-12	57.9763E-3	-10.9190E-3	4.33151E-12	47.0872E-3	-23.7907E-3
882.941E-6	4.48444E-12	49.3165E-3	-4.96190E-3	4.38628E-12	41.5696E-3	-26.0253E-3
877.939E-6	4.33080E-12	47.0983E-3	-15.8308E-3	4.25169E-12	46.2079E-3	-16.2508E-3
872.936E-6	4.31746E-12	64.3200E-3	-17.5357E-3	4.20395E-12	34.4649E-3	168.745E-6
867.934E-6	4.33085E-12	71.6902E-3	-17.5604E-3	4.23170E-12	30.2870E-3	7.63536E-3
862.931E-6	4.27945E-12	57.4495E-3	-33.8312E-3	4.26207E-12	43.8165E-3	-3.16125E-3
857.929E-6	4.31690E-12	45.3683E-3	-29.9648E-3	4.19950E-12	46.5105E-3	-11.8956E-3
852.926E-6	4.35958E-12	44.8631E-3	-12.1581E-3	4.15642E-12	40.8181E-3	-3.12730E-3
847.924E-6	4.37311E-12	49.8527E-3	-17.6794E-3	4.17851E-12	41.0157E-3	-6.17523E-3
842.921E-6	4.28337E-12	54.0244E-3	-24.3947E-3	4.30931E-12	47.2858E-3	-19.6898E-3
837.919E-6	4.24022E-12	56.1320E-3	-22.1772E-3	4.25427E-12	54.3201E-3	-19.1278E-3
832.916E-6	4.30081E-12	55.8100E-3	-27.3867E-3	4.14714E-12	49.1791E-3	-17.9895E-3
827.914E-6	4.23654E-12	54.4056E-3	-23.2457E-3	4.20032E-12	34.8617E-3	-16.7724E-3
822.911E-6	4.21724E-12	48.7008E-3	-18.2729E-3	4.19598E-12	36.1355E-3	-13.6078E-3
817.909E-6	4.17460E-12	45.0407E-3	-28.1910E-3	4.10672E-12	47.7488E-3	-16.8847E-3
812.906E-6	4.21506E-12	44.4911E-3	-30.3422E-3	4.09534E-12	40.0114E-3	-13.6496E-3
807.904E-6	4.16909E-12	35.3531E-3	-25.1382E-3	4.07423E-12	35.3424E-3	-3.49999E-3
802.901E-6	4.07204E-12	29.5913E-3	-26.2367E-3	4.10029E-12	52.4022E-3	-9.90553E-3
797.899E-6	4.19021E-12	35.6920E-3	-27.4121E-3	4.04856E-12	54.1866E-3	-22.5274E-3
792.896E-6	4.16923E-12	37.7754E-3	-22.2370E-3	4.01601E-12	33.4826E-3	-19.7518E-3
787.894E-6	4.13535E-12	32.2704E-3	-27.1431E-3	4.04927E-12	30.0259E-3	-21.4573E-3
782.891E-6	4.12743E-12	33.4935E-3	-34.1694E-3	4.08092E-12	41.8163E-3	-31.1766E-3
777.889E-6	4.13846E-12	38.4031E-3	-23.7318E-3	4.00659E-12	36.1226E-3	-25.4262E-3
772.886E-6	4.10485E-12	38.8484E-3	-25.7251E-3	3.98215E-12	24.9387E-3	-23.1068E-3
767.884E-6	4.09133E-12	34.8384E-3	-39.3799E-3	4.06353E-12	16.1305E-3	-35.7671E-3
762.881E-6	4.08390E-12	22.6022E-3	-33.0472E-3	4.07138E-12	16.8413E-3	-32.8977E-3
757.879E-6	4.04320E-12	18.7685E-3	-17.7627E-3	3.98737E-12	32.9134E-3	-22.2508E-3
752.876E-6	4.06052E-12	34.2046E-3	-4.79265E-3	3.95957E-12	41.8870E-3	-32.7719E-3
747.874E-6	4.05837E-12	49.3696E-3	9.72172E-3	4.04831E-12	41.5730E-3	-42.5178E-3
742.871E-6	4.01541E-12	48.2305E-3	10.0729E-3	4.01372E-12	46.9648E-3	-26.4750E-3
737.869E-6	3.94367E-12	40.7561E-3	-7.93394E-3	3.91057E-12	45.9573E-3	-9.20091E-3
732.866E-6	3.96379E-12	36.9992E-3	-17.1509E-3	3.89742E-12	35.5216E-3	-13.2890E-3
727.864E-6	3.98048E-12	34.3307E-3	-13.6429E-3	3.97851E-12	36.7084E-3	-21.6495E-3
722.861E-6	3.93934E-12	34.1307E-3	-14.8294E-3	3.96610E-12	35.8012E-3	-19.2783E-3
717.859E-6	3.98179E-12	37.2783E-3	-11.8048E-3	3.88453E-12	25.2782E-3	-21.8742E-3
712.856E-6	3.87447E-12	41.9584E-3	-6.97616E-3	3.82544E-12	41.7763E-3	-22.9468E-3
707.854E-6	3.86092E-12	50.0659E-3	-15.1102E-3	3.93434E-12	65.6805E-3	-16.5461E-3
702.851E-6	3.88148E-12	54.6200E-3	-16.1696E-3	3.95482E-12	51.6152E-3	-14.2349E-3
697.849E-6	3.84302E-12	43.4207E-3	-7.92044E-3	3.80972E-12	29.8608E-3	-10.8432E-3
692.846E-6	3.82151E-12	31.5651E-3	-16.5787E-3	3.85387E-12	26.4594E-3	-13.9964E-3
687.844E-6	3.78448E-12	26.4200E-3	-32.9176E-3	3.87960E-12	22.3793E-3	-21.1098E-3
682.841E-6	3.86172E-12	24.8339E-3	-30.7011E-3	3.92494E-12	29.4198E-3	-12.5322E-3
677.839E-6	3.83034E-12	34.6756E-3	-25.5732E-3	3.80112E-12	57.5893E-3	-4.81517E-3
672.836E-6	3.79073E-12	47.5287E-3	-23.4464E-3	3.77269E-12	66.8972E-3	-13.1039E-3
667.834E-6	3.70942E-12	52.8121E-3	-14.8603E-3	3.80551E-12	53.3341E-3	-14.5065E-3
662.831E-6	3.71792E-12	45.9018E-3	-25.0342E-3	3.77892E-12	48.1240E-3	-7.26834E-3
657.829E-6	3.74995E-12	29.0699E-3	-37.3742E-3	3.74501E-12	56.4569E-3	-9.88124E-3
652.826E-6	3.77189E-12	24.5840E-3	-27.1941E-3	3.73305E-12	61.5693E-3	-3.97682E-3
647.824E-6	3.64786E-12	31.9936E-3	-21.5716E-3	3.67089E-12	58.9295E-3	7.03367E-3
642.821E-6	3.62032E-12	46.2669E-3	-26.3765E-3	3.61385E-12	57.4019E-3	-4.03181E-3
637.819E-6	3.73565E-12	60.8531E-3	-27.2815E-3	3.66263E-12	56.5411E-3	-19.3851E-3
632.816E-6	3.70881E-12	58.3250E-3	-24.9800E-3	3.67963E-12	54.5148E-3	-27.6705E-3
627.814E-6	3.59315E-12	51.8210E-3	-20.7901E-3	3.59642E-12	48.0488E-3	-30.5663E-3
622.811E-6	3.56286E-12	54.7372E-3	-10.8951E-3	3.53154E-12	43.2515E-3	-17.7860E-3
617.809E-6	3.51824E-12	56.9928E-3	-8.54441E-3	3.50545E-12	47.9544E-3	-8.24876E-3
612.806E-6	3.55630E-12	54.2740E-3	-11.6720E-3	3.65101E-12	51.4015E-3	-17.2303E-3
607.804E-6	3.54059E-12	44.8291E-3	-7.46662E-3	3.58958E-12	50.4579E-3	-21.7317E-3
602.801E-6	3.54549E-12	34.2417E-3	-14.6871E-3	3.47846E-12	51.9795E-3	-17.1530E-3
597.799E-6	3.47438E-12	45.2516E-3	-25.9753E-3	3.50145E-12	53.4713E-3	-24.7352E-3
592.796E-6	3.49986E-12	69.4033E-3	-16.0614E-3	3.54917E-12	50.5073E-3	-30.2732E-3
587.794E-6	3.45744E-12	75.8431E-3	-3.35734E-3	3.57735E-12	45.6113E-3	-20.3185E-3
582.791E-6	3.51564E-12	67.3394E-3	-5.81719E-3	3.46373E-12	42.8473E-3	-24.4739E-3
577.789E-6	3.45978E-12	60.7347E-3	-8.40329E-3	3.40736E-12	50.1193E-3	-30.7428E-3
572.786E-6	3.41384E-12	56.5980E-3	-10.7958E-3	3.44371E-12	67.7751E-3	-16.4883E-3
567.784E-6	3.42383E-12	60.0968E-3	-22.4886E-3	3.44906E-12	84.9527E-3	-21.7962E-3
562.781E-6	3.43879E-12	65.5491E-3	-24.4604E-3	3.36767E-12	87.0911E-3	-39.0928E-3
557.779E-6	3.33714E-12	54.0701E-3	-13.4809E-3	3.37141E-12	78.3883E-3	-24.5741E-3
552.776E-6	3.24994E-12	57.1067E-3	-13.8426E-3	3.33791E-12	72.2390E-3	-4.47307E-3
547.774E-6	3.31891E-12	87.5430E-3	-25.1285E-3	3.28204E-12	61.8786E-3	-2.96306E-3
542.771E-6	3.31900E-12	93.7678E-3	-24.6090E-3	3.22612E-12	58.2594E-3	-2.95925E-3
537.769E-6	3.27248E-12	75.9240E-3	-17.5146E-3	3.25996E-12	64.6503E-3	-5.37728E-3
532.766E-6	3.20115E-12	68.8620E-3	-15.7188E-3	3.21651E-12	64.5091E-3	-11.0198E-3
527.764E-6	3.26245E-12	71.4426E-3	-15.3159E-3	3.10206E-12	67.7692E-3	-7.11564E-3
522.761E-6	3.30135E-12	79.4737E-3	-21.2186E-3	3.13857E-12	74.9290E-3	-7.10267E-3
517.759E-6	3.22013E-12	90.2937E-3	-24.5198E-3	3.17861E-12	76.0807E-3	-17.8406E-3
512.756E-6	3.10047E-12	85.9743E-3	-27.0222E-3	3.07733E-12	84.3083E-3	-23.0591E-3
507.754E-6	3.05248E-12	70.9974E-3	-32.8815E-3	2.96710E-12	102.622E-3	-24.1192E-3
502.751E-6	3.03205E-12	78.1144E-3	-26.4077E-3	3.03637E-12	103.768E-3	-26.5738E-3
497.749E-6	3.07171E-12	98.4152E-3	-20.3840E-3	3.03804E-12	86.5569E-3	-23.8284E-3
492.746E-6	3.01388E-12	104.146E-3	-22.1318E-3	2.98225E-12	93.8570E-3	-16.4539E-3
487.744E-6	2.96085E-12	98.3463E-3	-23.0306E-3	2.91482E-12	105.519E-3	-19.5892E-3
482.741E-6	2.95052E-12	87.3963E-3	-18.5812E-3	2.86490E-12	97.8001E-3	-28.2705E-3
477.739E-6	2.92255E-12	78.0775E-3	-11.0337E-3	2.90880E-12	103.462E-3	-22.2891E-3
472.736E-6	2.88804E-12	78.0993E-3	-15.6395E-3	2.91164E-12	107.288E-3	-10.4737E-3
467.734E-6	2.79836E-12	84.4098E-3	-17.4983E-3	2.77882E-12	97.1025E-3	-8.14725E-3
462.731E-6	2.75593E-12	88.3511E-3	-9.81324E-3	2.67944E-12	103.792E-3	-15.1736E-3
457.729E-6	2.77558E-12	93.9166E-3	-15.2002E-3	2.72218E-12	109.385E-3	-22.0439E-3
452.726E-6	2.73051E-12	104.002E-3	-25.7896E-3	2.76182E-12	91.6431E-3	-12.8531E-3
447.724E-6	2.73236E-12	102.870E-3	-31.7479E-3	2.62987E-12	83.5230E-3	5.67735E-3
442.721E-6	2.62969E-12	95.5998E-3	-38.9352E-3	2.57861E-12	86.1197E-3	-1.76267E-3
437.719E-6	2.57761E-12	98.2645E-3	-35.0954E-3	2.59515E-12	77.7878E-3	-27.6523E-3
432.716E-6	2.58955E-12	101.083E-3	-21.3750E-3	2.59391E-12	82.9136E-3	-31.6086E-3
427.714E-6	2.59326E-12	98.2157E-3	-13.9837E-3	2.51346E-12	96.5507E-3	-22.0609E-3
422.711E-6	2.45190E-12	101.435E-3	-4.13756E-3	2.48586E-12	87.9002E-3	-20.2886E-3
417.709E-6	2.44753E-12	110.288E-3	3.87020E-3	2.49016E-12	86.5828E-3	-14.8498E-3
412.706E-6	2.44907E-12	114.564E-3	-6.36002E-3	2.42898E-12	102.517E-3	-5.63246E-3
407.704E-6	2.45039E-12	110.472E-3	-16.8903E-3	2.38925E-12	104.119E-3	-11.0141E-3
402.701E-6	2.33332E-12	101.955E-3	-15.1366E-3	2.43568E-12	99.7354E-3	-17.0224E-3
397.699E-6	2.26184E-12	102.836E-3	-20.6193E-3	2.36495E-12	103.705E-3	-18.5585E-3
392.696E-6	2.26108E-12	116.799E-3	-24.4930E-3	2.26238E-12	104.615E-3	-27.7060E-3
387.694E-6	2.25617E-12	120.467E-3	-21.3186E-3	2.22307E-12	101.242E-3	-33.5444E-3
382.691E-6	2.24039E-12	101.418E-3	-25.9401E-3	2.25341E-12	106.446E-3	-29.8711E-3
377.689E-6	2.16898E-12	90.6615E-3	-27.7686E-3	2.19612E-12	115.079E-3	-23.8904E-3
372.686E-6	2.10342E-12	98.1522E-3	-16.3178E-3	2.06834E-12	105.455E-3	-13.1565E-3
367.684E-6	2.07027E-12	103.625E-3	341.283E-6	2.02005E-12	93.4959E-3	-11.3134E-3
362.681E-6	2.04624E-12	109.429E-3	1.75046E-3	2.06634E-12	96.2273E-3	-23.4352E-3
357.679E-6	2.00617E-12	115.920E-3	-11.3023E-3	2.05852E-12	106.934E-3	-19.2779E-3
352.676E-6	1.94712E-12	116.198E-3	-16.8895E-3	1.87161E-12	118.561E-3	-7.57376E-3
347.674E-6	1.90970E-12	112.655E-3	-11.0482E-3	1.84005E-12	112.340E-3	-10.6610E-3
342.671E-6	1.88943E-12	106.314E-3	-1.06955E-3	1.90921E-12	92.0172E-3	-8.88063E-3
337.669E-6	1.86005E-12	97.7944E-3	-1.21722E-3	1.88673E-12	93.3178E-3	-6.60035E-6
332.666E-6	1.82848E-12	100.680E-3	-7.42004E-3	1.75658E-12	112.793E-3	-8.55024E-3
327.664E-6	1.74019E-12	110.367E-3	-2.26169E-3	1.74748E-12	114.825E-3	-11.1297E-3
322.661E-6	1.69819E-12	111.842E-3	-6.82714E-3	1.75295E-12	98.3629E-3	5.38694E-3
317.659E-6	1.69662E-12	120.268E-3	-18.2234E-3	1.71197E-12	83.9755E-3	1.15609E-3
312.656E-6	1.70454E-12	128.304E-3	-19.8129E-3	1.66733E-12	84.4240E-3	-11.0116E-3
307.654E-6	1.58247E-12	109.508E-3	-16.4619E-3	1.61378E-12	102.626E-3	24.1435E-6
302.651E-6	1.49713E-12	89.4340E-3	-2.08101E-3	1.59306E-12	123.329E-3	-4.30462E-3
297.649E-6	1.53483E-12	102.178E-3	11.1718E-3	1.56066E-12	119.165E-3	-21.9683E-3
292.646E-6	1.56116E-12	121.670E-3	6.97877E-3	1.50199E-12	100.471E-3	-19.5367E-3
287.644E-6	1.44807E-12	114.138E-3	-7.42314E-3	1.50620E-12	98.7213E-3	-24.2335E-3
282.641E-6	1.36010E-12	97.4764E-3	-14.7414E-3	1.43692E-12	103.853E-3	-29.1338E-3
277.639E-6	1.40264E-12	92.4954E-3	-9.69823E-3	1.31857E-12	100.856E-3	-13.1153E-3
272.636E-6	1.36195E-12	94.1163E-3	-12.1352E-3	1.33593E-12	96.7413E-3	-10.1538E-3
267.634E-6	1.29414E-12	101.496E-3	-24.0033E-3	1.39733E-12	92.3502E-3	-22.8226E-3
262.631E-6	1.26483E-12	106.998E-3	-28.8000E-3	1.27006E-12	90.7462E-3	-25.4143E-3
257.629E-6	1.18490E-12	97.7814E-3	-32.4276E-3	1.24458E-12	104.378E-3	-23.6754E-3
252.626E-6	1.23388E-12	91.0688E-3	-26.5588E-3	1.17886E-12	111.794E-3	-25.5910E-3
247.624E-6	1.18450E-12	98.8474E-3	-10.2989E-3	1.25555E-12	100.509E-3	-10.4594E-3
242.621E-6	1.15055E-12	114.617E-3	-14.7070E-3	1.19350E-12	100.004E-3	9.72246E-3
237.619E-6	1.09295E-12	123.001E-3	-22.3479E-3	1.09199E-12	106.482E-3	-1.69752E-3
232.616E-6	1.11045E-12	116.615E-3	-18.0808E-3	1.06119E-12	105.883E-3	-11.6913E-3
227.614E-6	1.03980E-12	111.867E-3	-20.7685E-3	1.06776E-12	103.420E-3	-3.80799E-3
222.611E-6	1.02552E-12	110.618E-3	-24.5360E-3	1.03111E-12	103.618E-3	-9.70247E-3
217.609E-6	989.160E-15	105.305E-3	-23.1780E-3	940.366E-15	103.730E-3	-18.2633E-3
212.606E-6	921.751E-15	105.116E-3	-20.4398E-3	836.668E-15	100.709E-3	-17.5179E-3
207.604E-6	882.244E-15	107.650E-3	-21.3369E-3	911.314E-15	100.576E-3	-22.7015E-3
202.601E-6	874.510E-15	107.202E-3	-17.7923E-3	878.224E-15	91.6151E-3	-21.4040E-3
197.599E-6	897.389E-15	108.383E-3	-8.09861E-3	807.946E-15	80.3105E-3	-7.08411E-3
192.596E-6	773.924E-15	109.778E-3	-2.78104E-3	826.388E-15	81.4608E-3	-10.5013E-3
187.594E-6	718.914E-15	108.057E-3	-7.80272E-3	810.492E-15	77.7913E-3	-24.1195E-3
182.591E-6	735.672E-15	94.3404E-3	-15.9946E-3	726.098E-15	77.0445E-3	-28.2054E-3
177.589E-6	756.729E-15	75.2550E-3	-19.4735E-3	684.158E-15	86.6663E-3	-27.9599E-3
172.586E-6	674.846E-15	69.2393E-3	-18.0361E-3	661.575E-15	80.6645E-3	-31.1443E-3
167.584E-6	611.867E-15	73.6526E-3	-14.5980E-3	685.074E-15	72.5134E-3	-29.0518E-3
162.581E-6	630.151E-15	81.8065E-3	-13.5617E-3	572.708E-15	80.1792E-3	-22.0109E-3
157.579E-6	643.814E-15	85.0605E-3	-12.7531E-3	579.387E-15	79.6972E-3	-28.0407E-3
152.576E-6	622.338E-15	80.4061E-3	-11.7811E-3	667.784E-15	78.5070E-3	-17.6708E-3
147.574E-6	494.766E-15	80.8971E-3	-9.74152E-3	557.955E-15	87.1855E-3	2.07542E-3
142.571E-6	481.844E-15	89.3160E-3	-10.9166E-3	489.081E-15	82.9568E-3	-757.080E-6
137.569E-6	550.195E-15	88.4913E-3	-15.0876E-3	442.241E-15	66.7296E-3	-2.24840E-3
132.566E-6	499.919E-15	79.0174E-3	-19.8871E-3	480.066E-15	65.2808E-3	-7.02467E-3
127.564E-6	464.092E-15	75.4187E-3	-17.9383E-3	460.308E-15	73.3367E-3	-16.1665E-3
122.561E-6	445.711E-15	71.6306E-3	-10.8329E-3	387.667E-15	65.2936E-3	-8.30951E-3
117.559E-6	406.884E-15	73.3664E-3	-11.0520E-3	354.237E-15	55.8239E-3	-8.51068E-3
112.556E-6	360.986E-15	83.4121E-3	-10.7706E-3	421.899E-15	57.8089E-3	-31.8717E-3
107.554E-6	363.698E-15	84.5319E-3	-6.96440E-3	332.762E-15	62.5894E-3	-37.7912E-3
102.551E-6	299.000E-15	79.0760E-3	-9.41799E-3	265.440E-15	73.2070E-3	-17.6096E-3
97.5488E-6	279.443E-15	73.2278E-3	-19.4967E-3	238.340E-15	82.6745E-3	-9.61278E-3
92.5463E-6	236.875E-15	71.1930E-3	-30.1689E-3	283.532E-15	72.7967E-3	-6.58690E-3
87.5438E-6	254.663E-15	74.3664E-3	-35.0045E-3	285.128E-15	67.4938E-3	-77.1657E-6
82.5413E-6	219.384E-15	71.0966E-3	-25.6353E-3	220.875E-15	76.1962E-3	-11.8509E-3
77.5388E-6	199.714E-15	63.9385E-3	-7.16413E-3	178.526E-15	73.2275E-3	-17.5893E-3
72.5363E-6	113.951E-15	61.9816E-3	5.28401E-3	209.907E-15	65.6996E-3	-9.49940E-3
67.5338E-6	137.667E-15	63.4056E-3	6.66190E-3	149.255E-15	57.0951E-3	-14.4987E-3
62.5313E-6	155.856E-15	60.7284E-3	-4.15787E-3	125.704E-15	36.9202E-3	-21.7746E-3
57.5288E-6	88.2809E-15	57.3257E-3	-15.0269E-3	94.7768E-15	24.6234E-3	-23.1102E-3
52.5263E-6	-2.23425E-15	58.5723E-3	-11.9336E-3	120.987E-15	30.8810E-3	-28.7956E-3
47.5238E-6	52.3486E-15	60.1459E-3	-4.42324E-3	69.2990E-15	31.5708E-3	-25.3314E-3
42.5213E-6	91.0187E-15	66.3620E-3	-7.02306E-3	991.895E-18	35.5101E-3	-8.67017E-3
37.5188E-6	10.8273E-15	65.7915E-3	-14.0194E-3	66.5785E-15	48.5449E-3	-7.27400E-3
32.5163E-6	-59.8863E-15	52.5697E-3	-13.0602E-3	34.8315E-15	53.9658E-3	-19.9422E-3
27.5138E-6	-46.6591E-15	46.4432E-3	-7.41241E-3	-149.172E-15	63.3393E-3	-18.4615E-3
22.5113E-6	-15.8276E-15	56.1367E-3	-14.4563E-3	-91.6072E-15	68.7184E-3	-13.6685E-3
17.5088E-6	-32.7257E-15	75.8522E-3	-28.8448E-3	-19.7426E-15	50.4724E-3	-18.4558E-3
12.5063E-6	-127.862E-15	85.6227E-3	-24.8488E-3	-92.7668E-15	39.9100E-3	-16.8630E-3
7.50375E-6	-159.478E-15	75.1505E-3	-10.8734E-3	-170.665E-15	57.3273E-3	-20.2480E-3
2.50125E-6	-124.252E-15	63.9253E-3	-12.8304E-3	-151.561E-15	76.4737E-3	-28.3172E-3
-2.50125E-6	-142.301E-15	59.9372E-3	-19.1424E-3	-112.760E-15	84.3886E-3	-23.3819E-3
-7.50375E-6	-187.563E-15	58.2225E-3	-13.9296E-3	-181.399E-15	83.4159E-3	-16.6893E-3
-12.5063E-6	-204.139E-15	66.5668E-3	-13.7228E-3	-270.039E-15	70.6415E-3	-11.2589E-3
-17.5088E-6	-284.504E-15	70.8359E-3	-15.5347E-3	-300.112E-15	58.0981E-3	891.349E-6
-22.5113E-6	-268.138E-15	67.1745E-3	-3.41970E-3	-216.215E-15	69.1424E-3	-300.371E-6
-27.5138E-6	-261.825E-15	75.6363E-3	9.64669E-3	-225.405E-15	84.8928E-3	-16.3297E-3
-32.5163E-6	-316.757E-15	82.4557E-3	8.30790E-3	-338.486E-15	72.0343E-3	-15.4799E-3
-37.5188E-6	-340.570E-15	77.1865E-3	-14.3851E-3	-386.215E-15	59.5337E-3	-8.49425E-3
-42.5213E-6	-383.390E-15	78.6808E-3	-35.5955E-3	-367.591E-15	71.9030E-3	-19.2083E-3
-47.5238E-6	-362.769E-15	85.3420E-3	-27.8730E-3	-393.278E-15	83.7469E-3	-18.5770E-3
-52.5263E-6	-383.137E-15	80.5638E-3	-9.80613E-3	-463.939E-15	91.4318E-3	630.606E-6
-57.5288E-6	-458.612E-15	74.6411E-3	546.849E-6	-459.501E-15	94.9225E-3	-525.660E-6
-62.5313E-6	-529.037E-15	77.9680E-3	4.82285E-3	-482.677E-15	83.1670E-3	-17.1124E-3
-67.5338E-6	-493.306E-15	80.9896E-3	-1.68267E-3	-521.138E-15	81.6009E-3	-23.6526E-3
-72.5363E-6	-475.370E-15	92.0092E-3	-12.0222E-3	-580.002E-15	93.4451E-3	-27.2007E-3
-77.5388E-6	-560.863E-15	105.929E-3	-11.1857E-3	-590.090E-15	95.0191E-3	-18.6434E-3
-82.5413E-6	-668.215E-15	103.887E-3	-3.22548E-3	-588.459E-15	103.151E-3	-1.23386E-3
-87.5438E-6	-617.608E-15	96.6422E-3	-5.32840E-3	-665.582E-15	118.706E-3	-6.83951E-3
-92.5463E-6	-631.829E-15	99.0713E-3	-18.4589E-3	-687.990E-15	113.567E-3	-31.3534E-3
-97.5488E-6	-665.983E-15	101.905E-3	-22.5829E-3	-637.663E-15	105.661E-3	-36.9698E-3
-102.551E-6	-800.347E-15	97.0442E-3	-22.6344E-3	-746.183E-15	115.964E-3	-17.7289E-3
-107.554E-6	-796.162E-15	103.643E-3	-20.7957E-3	-852.053E-15	117.964E-3	-10.2557E-3
-112.556E-6	-812.964E-15	123.106E-3	-7.76451E-3	-827.212E-15	105.253E-3	-19.4763E-3
-117.559E-6	-822.364E-15	129.205E-3	-10.0234E-3	-826.409E-15	110.483E-3	-26.6960E-3
-122.561E-6	-925.818E-15	119.972E-3	-26.1956E-3	-874.418E-15	123.905E-3	-26.6085E-3
-127.564E-6	-947.259E-15	108.433E-3	-20.0298E-3	-996.523E-15	129.156E-3	-7.05473E-3
-132.566E-6	-943.065E-15	102.835E-3	-9.40005E-3	-1.00845E-12	141.726E-3	813.625E-6
-137.569E-6	-959.178E-15	110.092E-3	-19.0056E-3	-948.619E-15	141.534E-3	-21.9990E-3
-142.571E-6	-1.04715E-12	123.624E-3	-30.2333E-3	-1.01255E-12	126.934E-3	-27.2450E-3
-147.574E-6	-1.06092E-12	131.693E-3	-30.2413E-3	-1.17781E-12	133.622E-3	-17.1740E-3
-152.576E-6	-1.14854E-12	127.609E-3	-31.3674E-3	-1.17952E-12	141.881E-3	-16.9767E-3
-157.579E-6	-1.14237E-12	119.343E-3	-36.6702E-3	-1.12940E-12	129.072E-3	-11.2714E-3
-162.581E-6	-1.16464E-12	118.246E-3	-28.0766E-3	-1.20334E-12	130.280E-3	-7.31869E-3
-167.584E-6	-1.22858E-12	119.455E-3	-12.0763E-3	-1.29643E-12	147.407E-3	-17.9412E-3
-172.586E-6	-1.31725E-12	122.845E-3	1.04969E-3	-1.35386E-12	148.489E-3	-16.1991E-3
-177.589E-6	-1.40639E-12	123.300E-3	4.45672E-3	-1.36263E-12	149.138E-3	-4.05524E-3
-182.591E-6	-1.41815E-12	120.518E-3	-555.873E-6	-1.40601E-12	160.093E-3	-13.7957E-3
-187.594E-6	-1.44982E-12	138.791E-3	7.97837E-3	-1.45042E-12	157.340E-3	-30.7736E-3
-192.596E-6	-1.49308E-12	161.838E-3	12.1698E-3	-1.54521E-12	159.330E-3	-23.8999E-3
-197.599E-6	-1.67860E-12	160.182E-3	-5.70348E-3	-1.58231E-12	182.317E-3	-12.0266E-3
-202.601E-6	-1.66427E-12	153.662E-3	-17.3976E-3	-1.62901E-12	190.717E-3	-6.60326E-3
-207.604E-6	-1.61880E-12	160.336E-3	-12.5329E-3	-1.69962E-12	182.657E-3	-250.506E-6
-212.606E-6	-1.71021E-12	165.738E-3	-2.86829E-3	-1.75574E-12	182.319E-3	-4.42064E-3
-217.609E-6	-1.79643E-12	160.345E-3	-1.99325E-3	-1.80348E-12	177.058E-3	-11.6453E-3
-222.611E-6	-1.86433E-12	156.343E-3	-14.5677E-3	-1.92309E-12	168.330E-3	-5.33038E-3
-227.614E-6	-1.88031E-12	163.018E-3	-18.4062E-3	-1.94358E-12	173.702E-3	-2.77414E-3
-232.616E-6	-1.92917E-12	176.810E-3	-7.93099E-3	-1.95316E-12	176.270E-3	-13.2095E-3
-237.619E-6	-1.99759E-12	176.088E-3	2.12122E-3	-2.04710E-12	167.510E-3	-5.40574E-3
-242.621E-6	-2.13240E-12	158.635E-3	8.44635E-3	-2.12774E-12	169.345E-3	4.84980E-3
-247.624E-6	-2.12464E-12	158.109E-3	6.36175E-3	-2.16350E-12	189.346E-3	-6.63831E-3
-252.626E-6	-2.21534E-12	171.081E-3	-2.06781E-3	-2.16763E-12	204.845E-3	-6.01168E-3
-257.629E-6	-2.26857E-12	171.526E-3	-192.915E-6	-2.23649E-12	208.388E-3	-5.16377E-3
-262.631E-6	-2.31586E-12	175.556E-3	5.57329E-3	-2.39388E-12	201.583E-3	-21.3123E-3
-267.634E-6	-2.42945E-12	186.642E-3	-5.09637E-3	-2.37526E-12	184.642E-3	-21.4862E-3
-272.636E-6	-2.50882E-12	183.892E-3	-23.0052E-3	-2.40932E-12	189.190E-3	-11.7247E-3
-277.639E-6	-2.51738E-12	182.246E-3	-24.9693E-3	-2.46758E-12	207.451E-3	-14.8610E-3
-282.641E-6	-2.58908E-12	192.731E-3	-13.5356E-3	-2.61029E-12	203.417E-3	-17.8052E-3
-287.644E-6	-2.71798E-12	196.154E-3	-4.58776E-3	-2.65646E-12	195.590E-3	-14.4674E-3
-292.646E-6	-2.81784E-12	187.311E-3	-6.88345E-3	-2.67484E-12	199.711E-3	-13.5445E-3
-297.649E-6	-2.77391E-12	187.330E-3	-8.09168E-3	-2.77454E-12	204.975E-3	-10.3273E-3
-302.651E-6	-2.77277E-12	190.660E-3	1.42544E-3	-2.90783E-12	214.712E-3	-2.05871E-3
-307.654E-6	-2.90405E-12	190.126E-3	3.14388E-3	-2.90520E-12	216.268E-3	-2.58020E-3
-312.656E-6	-3.02499E-12	197.866E-3	-4.92443E-3	-2.93404E-12	194.130E-3	-15.1398E-3
-317.659E-6	-3.06666E-12	210.266E-3	-10.9393E-3	-3.11336E-12	186.857E-3	-21.6663E-3
-322.661E-6	-2.99008E-12	218.984E-3	-20.6264E-3	-3.13955E-12	208.772E-3	-28.3042E-3
-327.664E-6	-3.18055E-12	216.573E-3	-24.7729E-3	-3.21849E-12	217.628E-3	-23.1517E-3
-332.666E-6	-3.33939E-12	208.363E-3	-16.6712E-3	-3.30068E-12	211.900E-3	-1.11945E-3
-337.669E-6	-3.39264E-12	205.694E-3	-22.3938E-3	-3.41848E-12	209.969E-3	-2.77802E-3
-342.671E-6	-3.35741E-12	211.179E-3	-28.9528E-3	-3.47978E-12	196.837E-3	-20.1941E-3
-347.674E-6	-3.46801E-12	213.695E-3	-13.5124E-3	-3.43789E-12	185.557E-3	-21.9019E-3
-352.676E-6	-3.61492E-12	203.143E-3	-3.32664E-3	-3.58855E-12	201.465E-3	-12.3296E-3
-357.679E-6	-3.72244E-12	199.729E-3	-8.11372E-3	-3.68488E-12	209.739E-3	-11.2773E-3
-362.681E-6	-3.74120E-12	214.155E-3	-15.2909E-3	-3.71722E-12	198.863E-3	-9.67039E-3
-367.684E-6	-3.77566E-12	223.541E-3	-22.9181E-3	-3.73433E-12	207.282E-3	-7.42480E-3
-372.686E-6	-3.94716E-12	212.093E-3	-18.7843E-3	-3.82113E-12	215.601E-3	-15.3139E-3
-377.689E-6	-4.03747E-12	197.309E-3	-6.64656E-3	-3.96552E-12	203.139E-3	-15.5889E-3
-382.691E-6	-4.13589E-12	199.095E-3	-8.22076E-3	-3.96972E-12	199.286E-3	-11.6321E-3
-387.694E-6	-4.03794E-12	207.624E-3	-15.3529E-3	-4.02946E-12	196.725E-3	-15.3719E-3
-392.696E-6	-4.20117E-12	211.239E-3	-18.5601E-3	-4.08903E-12	186.686E-3	-15.5994E-3
-397.699E-6	-4.26522E-12	209.362E-3	-27.0819E-3	-4.17650E-12	190.695E-3	-15.0682E-3
-402.701E-6	-4.26283E-12	215.086E-3	-33.4646E-3	-4.33583E-12	194.760E-3	-16.0124E-3
-407.704E-6	-4.35075E-12	223.359E-3	-25.0911E-3	-4.32366E-12	189.351E-3	-3.61778E-3
-412.706E-6	-4.44635E-12	218.550E-3	-13.1535E-3	-4.38329E-12	197.372E-3	-4.51946E-3
-417.709E-6	-4.45204E-12	210.144E-3	-24.3486E-3	-4.49140E-12	200.916E-3	-27.9249E-3
-422.711E-6	-4.57152E-12	194.767E-3	-42.3619E-3	-4.56722E-12	185.209E-3	-25.7334E-3
-427.714E-6	-4.80093E-12	178.677E-3	-42.0321E-3	-4.57131E-12	185.950E-3	-2.71576E-3
-432.716E-6	-4.69547E-12	184.630E-3	-39.7138E-3	-4.70421E-12	193.583E-3	-4.75704E-3
-437.719E-6	-4.69659E-12	198.066E-3	-36.4348E-3	-4.79246E-12	179.691E-3	-17.0180E-3
-442.721E-6	-4.78126E-12	196.870E-3	-36.1542E-3	-4.75155E-12	176.122E-3	-15.6653E-3
-447.724E-6	-4.98287E-12	190.627E-3	-43.4323E-3	-4.84592E-12	184.757E-3	-19.3517E-3
-452.726E-6	-4.94695E-12	191.387E-3	-28.7648E-3	-4.98617E-12	172.459E-3	-22.6389E-3
-457.729E-6	-4.94123E-12	185.728E-3	3.59367E-3	-5.05279E-12	158.888E-3	-15.5266E-3
-462.731E-6	-5.03185E-12	166.121E-3	1.60968E-3	-4.93013E-12	164.462E-3	-19.0451E-3
-467.734E-6	-5.15660E-12	157.188E-3	-29.1103E-3	-5.09103E-12	163.423E-3	-25.0634E-3
-472.736E-6	-5.16279E-12	164.925E-3	-33.4312E-3	-5.17150E-12	158.910E-3	-16.8070E-3
-477.739E-6	-5.13542E-12	175.437E-3	-23.8397E-3	-5.22637E-12	171.532E-3	-8.79670E-3
-482.741E-6	-5.17318E-12	177.010E-3	-18.3205E-3	-5.24401E-12	179.980E-3	-7.66322E-3
-487.744E-6	-5.34675E-12	167.259E-3	278.242E-6	-5.28185E-12	177.182E-3	-7.08896E-3
-492.746E-6	-5.46676E-12	168.418E-3	5.39507E-3	-5.38649E-12	171.588E-3	-15.0566E-3
-497.749E-6	-5.34267E-12	178.857E-3	-16.2686E-3	-5.45831E-12	156.576E-3	-24.7007E-3
-502.751E-6	-5.38749E-12	175.520E-3	-22.8546E-3	-5.45001E-12	140.287E-3	-20.1484E-3
-507.754E-6	-5.56344E-12	155.688E-3	-16.3981E-3	-5.47381E-12	137.231E-3	-19.9700E-3
-512.756E-6	-5.69803E-12	141.709E-3	-18.5323E-3	-5.58790E-12	132.654E-3	-18.6244E-3
-517.759E-6	-5.66163E-12	147.133E-3	-13.0372E-3	-5.67681E-12	128.241E-3	5.90797E-3
-522.761E-6	-5.61443E-12	152.010E-3	-1.87647E-3	-5.59161E-12	140.133E-3	18.1261E-3
-527.764E-6	-5.74810E-12	149.189E-3	-3.06140E-3	-5.58045E-12	144.123E-3	-630.807E-6
-532.766E-6	-5.88927E-12	153.687E-3	-6.39782E-3	-5.72751E-12	128.302E-3	-14.6312E-3
-537.769E-6	-5.97520E-12	162.613E-3	-4.84501E-3	-5.77019E-12	124.471E-3	-17.9495E-3
-542.771E-6	-5.97023E-12	161.763E-3	-11.0019E-3	-5.76809E-12	136.304E-3	-24.5713E-3
-547.774E-6	-5.87006E-12	142.260E-3	-21.3973E-3	-5.79156E-12	139.147E-3	-20.6553E-3
-552.776E-6	-5.98133E-12	116.362E-3	-22.6761E-3	-5.88121E-12	137.707E-3	-8.97098E-3
-557.779E-6	-6.08193E-12	114.543E-3	-11.9560E-3	-5.91417E-12	134.274E-3	-14.1817E-3
-562.781E-6	-6.11392E-12	128.814E-3	-2.82422E-3	-6.00225E-12	127.306E-3	-22.3007E-3
-567.784E-6	-6.05364E-12	131.864E-3	-6.00372E-3	-6.07921E-12	123.741E-3	-17.7780E-3
-572.786E-6	-6.07607E-12	124.126E-3	-18.2373E-3	-6.17574E-12	115.617E-3	-20.3343E-3
-577.789E-6	-6.11821E-12	119.908E-3	-22.7867E-3	-6.14684E-12	102.987E-3	-25.9545E-3
-582.791E-6	-6.21031E-12	120.923E-3	-17.5625E-3	-6.15276E-12	103.529E-3	-18.6394E-3
-587.794E-6	-6.16702E-12	117.846E-3	-15.6185E-3	-6.32016E-12	113.452E-3	-10.1343E-3
-592.796E-6	-6.13978E-12	118.232E-3	-9.64812E-3	-6.33420E-12	113.794E-3	-5.54173E-3
-597.799E-6	-6.30635E-12	122.682E-3	-9.02742E-3	-6.27262E-12	112.174E-3	-2.39060E-3
-602.801E-6	-6.36423E-12	118.075E-3	-19.8139E-3	-6.38670E-12	112.787E-3	-2.81822E-3
-607.804E-6	-6.37800E-12	114.166E-3	-22.0285E-3	-6.44034E-12	96.5914E-3	2.76215E-3
-612.806E-6	-6.36018E-12	114.298E-3	-16.7458E-3	-6.40184E-12	83.2322E-3	9.43937E-3
-617.809E-6	-6.40038E-12	102.201E-3	-15.8302E-3	-6.44046E-12	81.0830E-3	-7.87182E-3
-622.811E-6	-6.47889E-12	89.4942E-3	-18.8728E-3	-6.44905E-12	71.0156E-3	-25.0545E-3
-627.814E-6	-6.44889E-12	86.1651E-3	-14.1893E-3	-6.56448E-12	74.4572E-3	-10.7601E-3
-632.816E-6	-6.49987E-12	74.2216E-3	-11.5933E-3	-6.57977E-12	87.3227E-3	1.17651E-3
-637.819E-6	-6.51233E-12	66.1625E-3	-25.3233E-3	-6.58093E-12	81.0854E-3	-267.378E-6
-642.821E-6	-6.69349E-12	74.3803E-3	-28.2592E-3	-6.50671E-12	65.2175E-3	3.88649E-3
-647.824E-6	-6.64811E-12	78.4116E-3	-16.0996E-3	-6.73065E-12	65.1325E-3	5.35104E-3
-652.826E-6	-6.62539E-12	78.1389E-3	-6.62714E-3	-6.84768E-12	76.6334E-3	-8.89117E-3
-657.829E-6	-6.61412E-12	80.6555E-3	4.46939E-3	-6.68342E-12	75.4045E-3	-20.5970E-3
-662.831E-6	-6.64841E-12	79.4588E-3	4.71303E-3	-6.74270E-12	69.6471E-3	-9.57800E-3
-667.834E-6	-6.70848E-12	79.3104E-3	-12.6682E-3	-6.94490E-12	66.0632E-3	-6.64723E-3
-672.836E-6	-6.68769E-12	80.9324E-3	-26.0845E-3	-6.89578E-12	50.9313E-3	-15.6121E-3
-677.839E-6	-6.66474E-12	74.4589E-3	-26.7362E-3	-6.79637E-12	49.6049E-3	-11.3320E-3
-682.841E-6	-6.72307E-12	67.3907E-3	-26.8948E-3	-6.99610E-12	64.9763E-3	-5.39320E-3
-687.844E-6	-6.81207E-12	68.5842E-3	-19.6529E-3	-6.92695E-12	59.7957E-3	-362.897E-6
-692.846E-6	-6.85276E-12	63.5776E-3	-4.50919E-3	-6.81681E-12	44.9158E-3	4.72358E-3
-697.849E-6	-6.87326E-12	48.3014E-3	-2.91623E-3	-6.95272E-12	41.3755E-3	-13.7046E-3
-702.851E-6	-6.92367E-12	39.8473E-3	-7.31226E-3	-6.98057E-12	41.5443E-3	-26.7286E-3
-707.854E-6	-6.96819E-12	47.6118E-3	-7.44456E-3	-6.94863E-12	50.8565E-3	-10.4016E-3
-712.856E-6	-7.03184E-12	56.1770E-3	-9.61283E-3	-6.93210E-12	58.1308E-3	-5.42741E-3
-717.859E-6	-7.00586E-12	53.3590E-3	-16.1564E-3	-7.01815E-12	44.4838E-3	-11.7465E-3
-722.861E-6	-6.88171E-12	46.3176E-3	-23.3903E-3	-7.07197E-12	40.2525E-3	-8.16345E-3
-727.864E-6	-6.92135E-12	41.3635E-3	-29.7465E-3	-6.97593E-12	50.1395E-3	-4.24208E-3
-732.866E-6	-7.03110E-12	41.1843E-3	-23.8586E-3	-7.07030E-12	49.8139E-3	-10.0282E-3
-737.869E-6	-7.01265E-12	49.7797E-3	-1.59405E-3	-7.12019E-12	43.2454E-3	-12.7914E-3
-742.871E-6	-6.92563E-12	59.8093E-3	2.90172E-3	-7.17712E-12	39.7450E-3	-17.1761E-3
-747.874E-6	-6.95157E-12	66.4807E-3	-11.1771E-3	-7.13386E-12	37.0008E-3	-22.7963E-3
-752.876E-6	-6.94766E-12	65.8544E-3	-15.1741E-3	-7.10865E-12	38.0449E-3	-6.14928E-3
-757.879E-6	-7.02291E-12	50.1561E-3	-17.8247E-3	-7.16933E-12	55.5730E-3	10.7638E-3
-762.881E-6	-7.00300E-12	38.6254E-3	-25.7600E-3	-7.30895E-12	64.8582E-3	274.205E-6
-767.884E-6	-6.92700E-12	46.0458E-3	-22.5923E-3	-7.40160E-12	49.6000E-3	-3.09822E-3
-772.886E-6	-7.06895E-12	66.7414E-3	-19.8296E-3	-7.26178E-12	43.1076E-3	4.36279E-3
-777.889E-6	-7.20566E-12	71.3425E-3	-24.0894E-3	-7.16985E-12	43.0173E-3	2.31756E-3
-782.891E-6	-7.16245E-12	43.7618E-3	-8.66963E-3	-7.44217E-12	41.0771E-3	2.69567E-3
-787.894E-6	-7.14214E-12	20.4048E-3	11.8730E-3	-7.45579E-12	57.5998E-3	-4.13595E-3
-792.896E-6	-7.23905E-12	30.7727E-3	5.92932E-3	-7.24739E-12	69.3531E-3	-8.19011E-3
-797.899E-6	-7.20223E-12	58.6712E-3	-9.99836E-3	-7.39309E-12	63.7179E-3	1.74958E-3
-802.901E-6	-7.23238E-12	60.0294E-3	-13.0239E-3	-7.51205E-12	68.0495E-3	6.92349E-3
-807.904E-6	-7.31039E-12	43.4382E-3	-13.0708E-3	-7.31589E-12	72.4553E-3	3.57240E-3
-812.906E-6	-7.33496E-12	44.3255E-3	-21.7584E-3	-7.36300E-12	56.2614E-3	-4.12543E-3
-817.909E-6	-7.27687E-12	44.9065E-3	-29.0690E-3	-7.37928E-12	38.9787E-3	-9.76298E-3
-822.911E-6	-7.29781E-12	39.6162E-3	-26.5742E-3	-7.49445E-12	33.1224E-3	-11.6224E-3
-827.914E-6	-7.33375E-12	40.7870E-3	-14.8898E-3	-7.44382E-12	31.9847E-3	-7.20351E-3
-832.916E-6	-7.48119E-12	34.0420E-3	-5.27697E-3	-7.46218E-12	38.7702E-3	2.12991E-3
-837.919E-6	-7.39411E-12	34.3136E-3	-8.13583E-3	-7.50521E-12	48.3400E-3	-268.180E-6
-842.921E-6	-7.34457E-12	57.3535E-3	-18.8386E-3	-7.49358E-12	52.9300E-3	-6.95755E-3
-847.924E-6	-7.52749E-12	72.5871E-3	-25.6435E-3	-7.39840E-12	57.5432E-3	-3.40377E-3
-852.926E-6	-7.67023E-12	61.1640E-3	-25.4936E-3	-7.56208E-12	59.4791E-3	-7.71872E-3
-857.929E-6	-7.54557E-12	38.4265E-3	-22.9180E-3	-7.57672E-12	57.5869E-3	-18.6359E-3
-862.931E-6	-7.52215E-12	31.1332E-3	-6.13586E-3	-7.49863E-12	60.0255E-3	-17.8095E-3
-867.934E-6	-7.73180E-12	39.9245E-3	9.74121E-3	-7.53559E-12	61.8715E-3	-16.0190E-3
-872.936E-6	-7.67727E-12	50.6540E-3	4.28760E-3	-7.60076E-12	47.5924E-3	-11.7028E-3
-877.939E-6	-7.63058E-12	57.4846E-3	4.33812E-3	-7.64145E-12	37.3744E-3	-1.99708E-3
-882.941E-6	-7.68686E-12	63.3117E-3	3.90655E-3	-7.65080E-12	52.3662E-3	-9.45388E-3
-887.944E-6	-7.62562E-12	78.2805E-3	-10.9972E-3	-7.58241E-12	61.9774E-3	-25.9545E-3
-892.946E-6	-7.69628E-12	85.3115E-3	-16.4599E-3	-7.58115E-12	65.3173E-3	-20.2350E-3
-897.949E-6	-7.79178E-12	79.7303E-3	-15.9819E-3	-7.70871E-12	72.3097E-3	-7.28952E-3
-902.951E-6	-7.66522E-12	81.8259E-3	-27.0595E-3	-7.72057E-12	68.5221E-3	-12.1725E-3
-907.954E-6	-7.62060E-12	83.9089E-3	-25.6639E-3	-7.63122E-12	69.6500E-3	-15.5482E-3
-912.956E-6	-7.68966E-12	76.0543E-3	-14.4619E-3	-7.74300E-12	85.8405E-3	-12.1103E-3
-917.959E-6	-7.74920E-12	60.9491E-3	-20.0596E-3	-7.93049E-12	93.4994E-3	-17.3193E-3
-922.961E-6	-7.77878E-12	56.3321E-3	-25.6560E-3	-7.80584E-12	87.0946E-3	-19.2370E-3
-927.964E-6	-7.79469E-12	67.7926E-3	-22.3724E-3	-7.76654E-12	85.5435E-3	-19.3025E-3
-932.966E-6	-7.81343E-12	80.0329E-3	-19.7160E-3	-7.90753E-12	85.0247E-3	-30.0219E-3
-937.969E-6	-7.90779E-12	92.5579E-3	-20.3589E-3	-8.00523E-12	80.8199E-3	-28.2648E-3
-942.971E-6	-7.94264E-12	97.4785E-3	-18.1252E-3	-7.89382E-12	91.1969E-3	-11.1779E-3
-947.974E-6	-8.09497E-12	95.5657E-3	-17.5818E-3	-7.97354E-12	107.753E-3	-7.52964E-3
-952.976E-6	-7.99137E-12	104.141E-3	-13.9436E-3	-7.98534E-12	102.189E-3	-17.4075E-3
-957.979E-6	-8.03889E-12	109.950E-3	-2.81894E-3	-7.98881E-12	89.9222E-3	-16.3086E-3
-962.981E-6	-8.23203E-12	100.771E-3	-9.66729E-3	-7.93646E-12	99.5586E-3	-11.9084E-3
-967.984E-6	-8.29405E-12	102.705E-3	-19.0542E-3	-8.06223E-12	117.723E-3	-20.0510E-3
-972.986E-6	-8.15923E-12	110.127E-3	-11.1867E-3	-8.13933E-12	134.759E-3	-29.6708E-3
-977.989E-6	-8.23509E-12	99.6098E-3	-4.42346E-3	-8.08808E-12	139.670E-3	-31.9841E-3
-982.991E-6	-8.35034E-12	90.3106E-3	-2.11973E-3	-8.00867E-12	122.615E-3	-23.0497E-3
-987.994E-6	-8.30831E-12	98.8465E-3	-10.0336E-3	-8.11912E-12	115.142E-3	-9.13757E-3
-992.997E-6	-8.20955E-12	111.257E-3	-32.9937E-3	-8.23218E-12	131.286E-3	-4.36793E-3
-997.999E-6	-8.28694E-12	121.774E-3	-44.4963E-3	-8.35819E-12	142.953E-3	-6.11740E-3
-1.00300E-3	-8.26188E-12	129.963E-3	-36.1128E-3	-8.27873E-12	144.550E-3	-2.75813E-3
-1.00800E-3	-8.28954E-12	123.253E-3	-28.6946E-3	-8.39435E-12	146.027E-3	-1.56742E-3
-1.01301E-3	-8.38456E-12	120.001E-3	-25.4805E-3	-8.51991E-12	146.427E-3	-6.16191E-3
-1.01801E-3	-8.45153E-12	131.749E-3	-21.8200E-3	-8.60411E-12	148.274E-3	-2.83470E-3
-1.02301E-3	-8.44990E-12	138.297E-3	-28.6915E-3	-8.54056E-12	155.724E-3	-6.92993E-3
-1.02801E-3	-8.57855E-12	139.138E-3	-31.3791E-3	-8.55701E-12	164.343E-3	-22.6476E-3
-1.03302E-3	-8.69093E-12	145.405E-3	-15.4744E-3	-8.75330E-12	172.363E-3	-20.4455E-3
-1.03802E-3	-8.72022E-12	151.560E-3	-519.942E-6	-8.72792E-12	184.588E-3	-15.3407E-3
-1.04302E-3	-8.87334E-12	156.955E-3	2.30071E-3	-8.73264E-12	197.322E-3	-25.0522E-3
-1.04802E-3	-8.99509E-12	171.822E-3	-2.80587E-3	-8.72465E-12	207.625E-3	-24.2617E-3
-1.05303E-3	-8.91663E-12	180.969E-3	-13.0792E-3	-8.93024E-12	221.083E-3	-20.4345E-3
-1.05803E-3	-9.11148E-12	176.659E-3	-19.4149E-3	-8.92784E-12	227.353E-3	-26.4609E-3
-1.06303E-3	-9.24622E-12	178.392E-3	-9.40823E-3	-9.04597E-12	228.957E-3	-25.1361E-3
-1.06803E-3	-9.14868E-12	189.130E-3	-4.52102E-3	-9.24023E-12	243.880E-3	-14.6958E-3
-1.07304E-3	-9.13680E-12	198.822E-3	-22.3870E-3	-9.16493E-12	257.671E-3	-10.0501E-3
-1.07804E-3	-9.29791E-12	217.303E-3	-28.8712E-3	-9.13787E-12	271.376E-3	-4.69894E-3
-1.08304E-3	-9.44394E-12	242.436E-3	-19.1181E-3	-9.38200E-12	290.705E-3	776.908E-6
-1.08804E-3	-9.38881E-12	251.829E-3	-9.97083E-3	-9.63156E-12	291.610E-3	-10.8557E-3
-1.09305E-3	-9.48784E-12	249.960E-3	2.17792E-3	-9.59260E-12	285.125E-3	-24.5339E-3
-1.09805E-3	-9.51555E-12	243.135E-3	8.65968E-3	-9.59571E-12	302.231E-3	-31.0626E-3
-1.10305E-3	-9.69061E-12	234.348E-3	2.60928E-3	-9.79972E-12	324.489E-3	-44.3108E-3
-1.10805E-3	-9.72659E-12	244.361E-3	-4.72937E-3	-10.0042E-12	329.528E-3	-47.8013E-3
-1.11306E-3	-9.88220E-12	271.436E-3	-2.11771E-3	-10.1096E-12	333.779E-3	-27.6683E-3
-1.11806E-3	-10.0725E-12	297.652E-3	-2.67354E-3	-10.0758E-12	345.708E-3	-6.25875E-3
-1.12306E-3	-10.1192E-12	312.750E-3	-14.5274E-3	-10.1841E-12	365.477E-3	-3.67228E-3
-1.12806E-3	-10.2009E-12	315.410E-3	-24.4768E-3	-10.3700E-12	388.419E-3	-11.4478E-3
-1.13307E-3	-10.4009E-12	319.289E-3	-27.8384E-3	-10.6629E-12	396.435E-3	-13.4815E-3
-1.13807E-3	-10.5694E-12	330.437E-3	-17.0555E-3	-10.6108E-12	388.024E-3	-8.38698E-3
-1.14307E-3	-10.7210E-12	340.470E-3	-7.15790E-3	-10.5154E-12	383.219E-3	-8.57432E-3
-1.14807E-3	-10.8908E-12	354.743E-3	-12.1884E-3	-10.7144E-12	402.402E-3	-18.3839E-3
-1.15308E-3	-10.9013E-12	375.219E-3	-7.12805E-3	-10.9402E-12	428.625E-3	-25.9321E-3
-1.15808E-3	-10.9148E-12	384.514E-3	7.20664E-3	-11.0855E-12	442.987E-3	-22.0691E-3
-1.16308E-3	-11.0942E-12	390.880E-3	3.71987E-3	-11.2277E-12	452.753E-3	-15.6993E-3
-1.16808E-3	-11.2931E-12	408.830E-3	-2.31862E-3	-11.4508E-12	460.289E-3	-13.3044E-3
-1.17309E-3	-11.3649E-12	424.495E-3	4.42473E-3	-11.4972E-12	477.068E-3	-1.67574E-3
-1.17809E-3	-11.5284E-12	436.409E-3	5.81012E-3	-11.7859E-12	511.025E-3	7.58189E-3
-1.18309E-3	-11.6523E-12	450.814E-3	2.15846E-3	-12.1154E-12	539.635E-3	-4.31965E-3
-1.18809E-3	-11.8220E-12	460.678E-3	3.16982E-3	-12.0970E-12	558.584E-3	-18.6677E-3
-1.19310E-3	-12.0309E-12	459.811E-3	395.743E-6	-12.1850E-12	584.057E-3	-28.1752E-3
-1.19810E-3	-12.2280E-12	472.105E-3	-20.9935E-3	-12.4457E-12	596.014E-3	-38.4446E-3
-1.20310E-3	-12.3410E-12	511.231E-3	-37.8683E-3	-12.7184E-12	597.568E-3	-33.8206E-3
-1.20810E-3	-12.4810E-12	539.293E-3	-29.7870E-3	-12.7373E-12	613.168E-3	-20.0101E-3
-1.21311E-3	-12.7908E-12	544.385E-3	-24.3579E-3	-12.7499E-12	629.664E-3	-13.8380E-3
-1.21811E-3	-13.0448E-12	556.789E-3	-24.2165E-3	-12.9143E-12	652.538E-3	-12.3088E-3
-1.22311E-3	-13.3064E-12	580.216E-3	-18.4815E-3	-13.3498E-12	680.543E-3	-16.8287E-3
-1.22811E-3	-13.3915E-12	598.710E-3	-17.0781E-3	-13.5297E-12	683.998E-3	-20.8425E-3
-1.23312E-3	-13.6099E-12	607.892E-3	-23.5018E-3	-13.5816E-12	678.799E-3	-10.4939E-3
-1.23812E-3	-13.8844E-12	619.906E-3	-27.8730E-3	-13.8121E-12	691.111E-3	-2.99334E-3
-1.24312E-3	-14.2020E-12	641.112E-3	-26.4664E-3	-14.1960E-12	720.877E-3	-11.6469E-3
-1.24812E-3	-14.2709E-12	656.864E-3	-29.0685E-3	-14.3308E-12	745.325E-3	-18.1982E-3
-1.25313E-3	-14.4362E-12	673.495E-3	-31.1900E-3	-14.4180E-12	756.467E-3	-19.8736E-3
-1.25813E-3	-14.7010E-12	694.186E-3	-26.0736E-3	-14.7039E-12	771.046E-3	-28.2945E-3
-1.26313E-3	-15.1285E-12	706.921E-3	-13.4645E-3	-15.1313E-12	786.443E-3	-27.5363E-3
-1.26813E-3	-15.4412E-12	722.594E-3	-3.76631E-3	-15.3896E-12	809.893E-3	-10.8391E-3
-1.27314E-3	-15.6040E-12	742.787E-3	-10.6716E-3	-15.6288E-12	830.722E-3	-5.93313E-3
-1.27814E-3	-15.8740E-12	760.396E-3	-19.8636E-3	-15.8980E-12	843.021E-3	-13.3501E-3
-1.28314E-3	-16.2464E-12	786.547E-3	-20.8058E-3	-16.3126E-12	864.866E-3	-11.5614E-3
-1.28814E-3	-16.6130E-12	812.302E-3	-20.1550E-3	-16.5603E-12	882.263E-3	-13.4078E-3
-1.29315E-3	-16.8247E-12	821.427E-3	-13.7946E-3	-16.7766E-12	887.084E-3	-23.1313E-3
-1.29815E-3	-16.9618E-12	833.891E-3	-12.1664E-3	-17.0687E-12	903.305E-3	-24.7005E-3
-1.30315E-3	-17.2797E-12	855.922E-3	-23.5105E-3	-17.5135E-12	936.528E-3	-21.8384E-3
-1.30815E-3	-17.7196E-12	870.635E-3	-32.1339E-3	-17.6942E-12	950.178E-3	-17.4411E-3
-1.31316E-3	-18.0417E-12	877.372E-3	-29.6254E-3	-17.8634E-12	943.074E-3	-9.33380E-3
-1.31816E-3	-18.1757E-12	893.749E-3	-21.5939E-3	-18.3207E-12	953.509E-3	-7.04537E-3
-1.32316E-3	-18.3839E-12	916.731E-3	-21.3159E-3	-18.5442E-12	973.240E-3	-9.70912E-3
-1.32816E-3	-18.8205E-12	928.855E-3	-27.5227E-3	-18.6611E-12	982.356E-3	-8.36134E-3
-1.33317E-3	-19.1408E-12	934.810E-3	-24.9652E-3	-18.9838E-12	998.885E-3	-7.19518E-3
-1.33817E-3	-19.3164E-12	941.779E-3	-16.1926E-3	-19.4134E-12	1.02194E+0	-10.4133E-3
-1.34317E-3	-19.5651E-12	958.896E-3	-3.30319E-3	-19.6565E-12	1.03159E+0	-17.0548E-3
-1.34817E-3	-19.8817E-12	984.556E-3	7.95980E-3	-19.8965E-12	1.04350E+0	-18.1587E-3
-1.35318E-3	-20.1062E-12	995.356E-3	-3.46194E-3	-20.2512E-12	1.05775E+0	-13.9589E-3
-1.35818E-3	-20.5262E-12	991.557E-3	-20.4596E-3	-20.8196E-12	1.05976E+0	-14.6329E-3
-1.36318E-3	-20.8975E-12	1.00362E+0	-17.9253E-3	-21.2707E-12	1.06654E+0	-19.6765E-3
-1.36818E-3	-21.4015E-12	1.03384E+0	-8.66252E-3	-21.5112E-12	1.07996E+0	-23.8522E-3
-1.37319E-3	-21.8017E-12	1.05383E+0	-15.6615E-3	-21.9031E-12	1.09302E+0	-22.6857E-3
-1.37819E-3	-22.2773E-12	1.05573E+0	-31.8434E-3	-22.5179E-12	1.11343E+0	-16.6153E-3
-1.38319E-3	-22.6929E-12	1.06458E+0	-31.4593E-3	-22.8669E-12	1.13199E+0	-17.7122E-3
-1.38819E-3	-22.9691E-12	1.09121E+0	-13.3070E-3	-23.0934E-12	1.14471E+0	-20.2279E-3
-1.39320E-3	-23.3250E-12	1.12041E+0	-780.535E-6	-23.3799E-12	1.15847E+0	-13.9662E-3
-1.39820E-3	-23.9288E-12	1.13873E+0	-11.0390E-3	-24.0919E-12	1.16591E+0	-11.0991E-3
-1.40320E-3	-24.3711E-12	1.13516E+0	-24.3502E-3	-24.2900E-12	1.15960E+0	-11.1879E-3
-1.40820E-3	-24.6829E-12	1.12021E+0	-24.3275E-3	-24.5394E-12	1.15464E+0	-6.93077E-3
-1.41321E-3	-25.0159E-12	1.12296E+0	-17.8695E-3	-24.9076E-12	1.16584E+0	-12.3154E-3
-1.41821E-3	-25.6468E-12	1.14779E+0	-9.95288E-3	-25.3676E-12	1.18222E+0	-26.5877E-3
-1.42321E-3	-26.1432E-12	1.17071E+0	-7.07691E-3	-25.5559E-12	1.18997E+0	-28.1793E-3
-1.42821E-3	-26.2749E-12	1.17539E+0	-10.8435E-3	-25.8596E-12	1.19315E+0	-14.5477E-3
-1.43322E-3	-26.4182E-12	1.17211E+0	-14.3038E-3	-26.3706E-12	1.19320E+0	-11.0951E-3
-1.43822E-3	-26.9359E-12	1.17277E+0	-10.7413E-3	-26.7133E-12	1.18833E+0	-20.1234E-3
-1.44322E-3	-27.3751E-12	1.18398E+0	-8.44243E-3	-27.0969E-12	1.18969E+0	-26.0527E-3
-1.44822E-3	-27.6411E-12	1.20297E+0	-13.4509E-3	-27.4255E-12	1.20168E+0	-34.5010E-3
-1.45323E-3	-27.8724E-12	1.20584E+0	-12.4149E-3	-27.9341E-12	1.21452E+0	-34.1145E-3
-1.45823E-3	-28.2260E-12	1.18794E+0	-3.81509E-3	-28.4458E-12	1.20990E+0	-19.5677E-3
-1.46323E-3	-28.7611E-12	1.18186E+0	-7.20752E-3	-28.7287E-12	1.19725E+0	-13.0329E-3
-1.46823E-3	-29.2027E-12	1.19744E+0	-24.9107E-3	-29.0631E-12	1.20049E+0	-14.8547E-3
-1.47324E-3	-29.5435E-12	1.20968E+0	-24.4490E-3	-29.5793E-12	1.20653E+0	-22.3584E-3
-1.47824E-3	-29.9552E-12	1.20663E+0	-4.24907E-3	-30.0277E-12	1.20612E+0	-29.3076E-3
-1.48324E-3	-30.3713E-12	1.20399E+0	-1.93934E-3	-30.2361E-12	1.19900E+0	-22.0905E-3
-1.48824E-3	-30.8763E-12	1.20656E+0	-7.80115E-3	-30.6399E-12	1.19487E+0	-16.9310E-3
-1.49325E-3	-31.2210E-12	1.20933E+0	-2.96092E-3	-31.1180E-12	1.20567E+0	-19.7904E-3
-1.49825E-3	-31.5567E-12	1.21801E+0	-224.827E-6	-31.5647E-12	1.21851E+0	-25.4134E-3
-1.50325E-3	-31.8458E-12	1.22901E+0	334.342E-6	-31.8233E-12	1.22642E+0	-27.3299E-3
-1.50825E-3	-32.2842E-12	1.23049E+0	2.78468E-3	-32.1758E-12	1.22970E+0	-14.2841E-3
-1.51326E-3	-32.7931E-12	1.21881E+0	-1.04100E-3	-32.7339E-12	1.22437E+0	-3.79407E-3
-1.51826E-3	-33.1841E-12	1.20988E+0	-14.6606E-3	-33.1764E-12	1.21158E+0	-7.08159E-3
-1.52326E-3	-33.5190E-12	1.21277E+0	-20.8686E-3	-33.5670E-12	1.20747E+0	-10.1560E-3
-1.52826E-3	-33.9336E-12	1.21728E+0	-14.3090E-3	-33.9998E-12	1.21096E+0	-8.83444E-3
-1.53327E-3	-34.3958E-12	1.21746E+0	-10.5376E-3	-34.6389E-12	1.19989E+0	-8.24347E-3
-1.53827E-3	-34.9266E-12	1.21504E+0	-18.2261E-3	-34.9847E-12	1.18535E+0	-20.1732E-3
-1.54327E-3	-35.2562E-12	1.21620E+0	-29.5934E-3	-35.3426E-12	1.19384E+0	-32.0203E-3
-1.54827E-3	-35.5163E-12	1.22210E+0	-32.4293E-3	-35.5701E-12	1.21286E+0	-32.8366E-3
-1.55328E-3	-35.9966E-12	1.21510E+0	-28.0150E-3	-36.0267E-12	1.20767E+0	-36.1927E-3
-1.55828E-3	-36.4780E-12	1.18995E+0	-16.1147E-3	-36.3866E-12	1.18347E+0	-39.4173E-3
-1.56328E-3	-36.8607E-12	1.18503E+0	451.564E-6	-36.8145E-12	1.16727E+0	-37.9668E-3
-1.56828E-3	-37.1043E-12	1.20372E+0	13.7464E-3	-37.1280E-12	1.15468E+0	-29.9149E-3
-1.57329E-3	-37.5902E-12	1.21074E+0	16.3542E-3	-37.5279E-12	1.14789E+0	-21.3113E-3
-1.57829E-3	-38.0417E-12	1.20707E+0	-2.63850E-3	-37.8487E-12	1.15046E+0	-12.7864E-3
-1.58329E-3	-38.4503E-12	1.19967E+0	-31.8315E-3	-38.2783E-12	1.14516E+0	220.878E-6
-1.58829E-3	-38.7745E-12	1.18672E+0	-46.5072E-3	-38.7132E-12	1.13659E+0	7.36064E-3
-1.59330E-3	-39.0331E-12	1.17491E+0	-42.5257E-3	-39.2818E-12	1.14311E+0	-1.65624E-3
-1.59830E-3	-39.5045E-12	1.16275E+0	-29.7147E-3	-39.4517E-12	1.15240E+0	-8.78066E-3
-1.60330E-3	-39.7699E-12	1.14579E+0	-29.2262E-3	-39.8404E-12	1.15008E+0	-5.81635E-3
-1.60830E-3	-40.0247E-12	1.13828E+0	-44.1372E-3	-40.4421E-12	1.14720E+0	-11.4075E-3
-1.61331E-3	-40.3208E-12	1.14449E+0	-45.9302E-3	-40.8741E-12	1.14552E+0	-20.1494E-3
-1.61831E-3	-40.8995E-12	1.14193E+0	-32.6331E-3	-41.1099E-12	1.14024E+0	-22.2280E-3
-1.62331E-3	-41.0982E-12	1.13076E+0	-21.8376E-3	-41.6489E-12	1.12763E+0	-20.2835E-3
-1.62831E-3	-41.6598E-12	1.12809E+0	-18.2666E-3	-42.1606E-12	1.10406E+0	-20.5594E-3
-1.63332E-3	-42.1425E-12	1.11920E+0	-19.6221E-3	-42.7952E-12	1.09289E+0	-18.4358E-3
-1.63832E-3	-42.7147E-12	1.10479E+0	-23.3157E-3	-42.9673E-12	1.10188E+0	-16.4814E-3
-1.64332E-3	-43.1575E-12	1.10923E+0	-20.3582E-3	-43.2682E-12	1.10429E+0	-27.0076E-3
-1.64832E-3	-43.6123E-12	1.11726E+0	-10.9793E-3	-43.5349E-12	1.09288E+0	-34.3780E-3
-1.65333E-3	-44.0641E-12	1.11054E+0	-12.0126E-3	-43.8423E-12	1.08648E+0	-20.5006E-3
-1.65833E-3	-44.4266E-12	1.10687E+0	-8.23437E-3	-43.8569E-12	1.09321E+0	-10.8939E-3
-1.66333E-3	-44.7033E-12	1.11114E+0	2.54899E-3	-44.2421E-12	1.08325E+0	-16.8737E-3
-1.66833E-3	-44.9331E-12	1.11490E+0	-4.70616E-3	-44.6151E-12	1.05486E+0	-23.6791E-3
-1.67334E-3	-45.3582E-12	1.11689E+0	-12.4968E-3	-45.0803E-12	1.04460E+0	-19.6718E-3
-1.67834E-3	-45.4940E-12	1.10865E+0	-6.67166E-3	-45.2466E-12	1.05445E+0	-16.1987E-3
-1.68334E-3	-45.7002E-12	1.09001E+0	561.532E-6	-45.5320E-12	1.06108E+0	-32.8129E-3
-1.68834E-3	-45.9574E-12	1.07554E+0	13.0108E-3	-45.9733E-12	1.05496E+0	-39.4493E-3
-1.69335E-3	-46.2322E-12	1.06711E+0	20.5484E-3	-46.4271E-12	1.04662E+0	-26.3709E-3
-1.69835E-3	-46.5962E-12	1.04607E+0	8.93411E-3	-46.8472E-12	1.05135E+0	-28.2086E-3
-1.70335E-3	-46.9258E-12	1.02420E+0	-9.63051E-3	-47.3972E-12	1.05809E+0	-38.9085E-3
-1.70835E-3	-47.3614E-12	1.02063E+0	-19.8009E-3	-47.7553E-12	1.04369E+0	-33.2352E-3
-1.71336E-3	-47.7863E-12	1.02021E+0	-27.0907E-3	-48.2459E-12	1.02387E+0	-32.2952E-3
-1.71836E-3	-48.2393E-12	1.01996E+0	-32.1826E-3	-48.7456E-12	1.01641E+0	-40.1160E-3
-1.72336E-3	-48.6527E-12	1.02523E+0	-27.8147E-3	-49.1910E-12	1.01505E+0	-33.4218E-3
-1.72836E-3	-49.0822E-12	1.02918E+0	-26.3956E-3	-49.5991E-12	1.00276E+0	-20.6281E-3
-1.73337E-3	-49.5628E-12	1.02708E+0	-27.5409E-3	-49.7387E-12	983.878E-3	-12.0648E-3
-1.73837E-3	-50.1788E-12	1.02147E+0	-20.8106E-3	-49.9620E-12	983.653E-3	-9.06384E-3
-1.74337E-3	-50.5022E-12	1.01909E+0	-13.5812E-3	-50.1550E-12	985.274E-3	-3.07120E-3
-1.74837E-3	-50.7288E-12	1.02665E+0	-11.3759E-3	-50.2911E-12	970.623E-3	6.38878E-3
-1.75338E-3	-51.1045E-12	1.03315E+0	-11.5681E-3	-50.5653E-12	959.198E-3	-863.909E-6
-1.75838E-3	-51.3232E-12	1.02209E+0	-16.6969E-3	-50.6661E-12	956.521E-3	-9.77536E-3
-1.76338E-3	-51.4759E-12	1.01024E+0	-19.7247E-3	-51.2109E-12	956.954E-3	-7.74183E-3
-1.76838E-3	-51.7389E-12	1.00913E+0	-12.6215E-3	-51.3425E-12	955.958E-3	-6.29688E-3
-1.77339E-3	-51.8636E-12	1.00413E+0	-9.14836E-3	-51.4817E-12	946.631E-3	-3.75303E-3
-1.77839E-3	-52.0587E-12	992.952E-3	-15.5846E-3	-51.7228E-12	938.662E-3	-8.96329E-3
-1.78339E-3	-52.0252E-12	981.480E-3	-15.9302E-3	-52.1804E-12	934.595E-3	-14.3742E-3
-1.78839E-3	-52.4112E-12	974.885E-3	-16.0457E-3	-52.4983E-12	926.335E-3	-14.1694E-3
-1.79340E-3	-52.7659E-12	968.076E-3	-21.7537E-3	-52.8964E-12	927.835E-3	-16.3362E-3
-1.79840E-3	-53.1065E-12	959.003E-3	-13.6112E-3	-53.2385E-12	942.368E-3	-11.2345E-3
-1.80340E-3	-53.2827E-12	949.346E-3	2.73648E-3	-53.8695E-12	936.469E-3	-3.10599E-3
-1.80840E-3	-53.9981E-12	944.009E-3	-1.28736E-3	-54.3746E-12	923.851E-3	-3.66464E-3
-1.81341E-3	-54.4530E-12	950.396E-3	-16.6018E-3	-54.7384E-12	927.366E-3	-13.0985E-3
-1.81841E-3	-55.0761E-12	947.314E-3	-15.1387E-3	-55.1968E-12	919.408E-3	-24.8398E-3
-1.82341E-3	-55.3378E-12	933.651E-3	-8.37419E-3	-55.3663E-12	910.659E-3	-29.8540E-3
-1.82841E-3	-55.9043E-12	943.053E-3	-6.24193E-3	-55.7835E-12	918.301E-3	-30.6605E-3
-1.83342E-3	-56.3420E-12	955.350E-3	-1.53396E-3	-55.8524E-12	917.494E-3	-27.5180E-3
-1.83842E-3	-56.7400E-12	939.589E-3	-11.7560E-3	-56.2485E-12	898.547E-3	-16.2323E-3
-1.84342E-3	-56.8729E-12	925.068E-3	-29.3839E-3	-56.2416E-12	877.466E-3	-5.64383E-3
-1.84842E-3	-57.2585E-12	924.480E-3	-20.1703E-3	-56.4963E-12	875.415E-3	-3.34041E-3
-1.85343E-3	-57.5614E-12	921.666E-3	-788.513E-6	-56.5787E-12	893.744E-3	-4.34795E-3
-1.85843E-3	-57.6135E-12	920.860E-3	-2.46201E-3	-57.0539E-12	901.550E-3	-7.91915E-3
-1.86343E-3	-57.9394E-12	916.400E-3	-18.5187E-3	-57.1842E-12	892.103E-3	-17.0241E-3
-1.86843E-3	-58.2399E-12	909.347E-3	-25.4358E-3	-57.5157E-12	890.951E-3	-13.3809E-3
-1.87344E-3	-58.5083E-12	915.437E-3	-20.9561E-3	-57.6566E-12	899.675E-3	-12.0612E-3
-1.87844E-3	-58.6578E-12	918.853E-3	-22.7010E-3	-58.1875E-12	896.870E-3	-15.2263E-3
-1.88344E-3	-59.0267E-12	907.627E-3	-31.4366E-3	-58.5229E-12	882.247E-3	-1.73152E-3
-1.88844E-3	-59.4300E-12	892.117E-3	-35.1369E-3	-58.9754E-12	866.778E-3	4.18247E-3
-1.89345E-3	-59.6307E-12	882.712E-3	-28.6054E-3	-59.0763E-12	857.962E-3	-13.7516E-3
-1.89845E-3	-59.6814E-12	881.098E-3	-20.0110E-3	-59.5364E-12	867.859E-3	-33.7078E-3
-1.90345E-3	-60.0285E-12	884.534E-3	-20.3950E-3	-59.8008E-12	878.115E-3	-22.5014E-3
-1.90845E-3	-60.4893E-12	889.645E-3	-20.8587E-3	-60.1611E-12	863.818E-3	3.31563E-3
-1.91346E-3	-60.5248E-12	893.213E-3	-19.5903E-3	-60.2521E-12	834.660E-3	10.0736E-3
-1.91846E-3	-60.8056E-12	892.304E-3	-21.3760E-3	-60.7321E-12	825.143E-3	-4.93895E-3
-1.92346E-3	-60.7954E-12	892.741E-3	-22.7186E-3	-60.9213E-12	837.660E-3	-24.8260E-3
-1.92846E-3	-61.2776E-12	903.394E-3	-14.1635E-3	-61.3532E-12	847.551E-3	-27.8810E-3
-1.93347E-3	-61.1361E-12	897.087E-3	-3.41674E-3	-61.3926E-12	859.334E-3	-22.3863E-3
-1.93847E-3	-61.3402E-12	866.219E-3	-4.54786E-3	-61.9003E-12	869.122E-3	-19.3843E-3
-1.94347E-3	-61.4938E-12	845.297E-3	-5.64839E-3	-62.2829E-12	864.797E-3	-23.9436E-3
-1.94847E-3	-61.8709E-12	845.888E-3	-10.2685E-3	-62.8037E-12	856.236E-3	-32.1025E-3
-1.95348E-3	-62.0396E-12	850.724E-3	-16.5002E-3	-62.9384E-12	848.808E-3	-30.5098E-3
-1.95848E-3	-62.6259E-12	849.649E-3	-12.4727E-3	-63.4729E-12	847.848E-3	-25.3209E-3
-1.96348E-3	-63.2000E-12	847.469E-3	-12.5874E-3	-63.8659E-12	852.270E-3	-21.7428E-3
-1.96848E-3	-63.7637E-12	845.875E-3	-23.9356E-3	-64.0751E-12	839.950E-3	-22.7341E-3
-1.97349E-3	-64.0070E-12	842.252E-3	-22.1369E-3	-64.5096E-12	820.983E-3	-23.8104E-3
-1.97849E-3	-64.4844E-12	839.442E-3	-2.57694E-3	-65.1362E-12	820.600E-3	-12.4472E-3
-1.98349E-3	-64.9567E-12	843.702E-3	3.46878E-3	-65.3056E-12	816.712E-3	-481.497E-6
-1.98849E-3	-65.3173E-12	845.183E-3	-4.74030E-3	-65.5496E-12	802.272E-3	-2.54898E-3
-1.99350E-3	-65.6051E-12	837.847E-3	-10.6741E-3	-65.9391E-12	808.193E-3	-10.7522E-3
-1.99850E-3	-66.0074E-12	836.775E-3	-14.8668E-3	-66.0840E-12	829.233E-3	-17.7827E-3
-2.00350E-3	-66.3045E-12	840.772E-3	-18.8843E-3	-65.9476E-12	841.224E-3	-28.1112E-3
-2.00850E-3	-66.3800E-12	841.589E-3	-28.4079E-3	-65.9906E-12	840.065E-3	-31.6153E-3
-2.01351E-3	-66.5276E-12	832.923E-3	-36.5176E-3	-65.9916E-12	830.494E-3	-20.9874E-3
-2.01851E-3	-66.7637E-12	815.267E-3	-30.3343E-3	-66.3554E-12	821.036E-3	-18.0549E-3
-2.02351E-3	-66.7940E-12	812.375E-3	-22.4039E-3	-66.3138E-12	819.810E-3	-21.8281E-3
-2.02851E-3	-66.9840E-12	827.391E-3	-20.2717E-3	-66.5781E-12	816.315E-3	-18.8538E-3
-2.03352E-3	-66.8635E-12	837.225E-3	-5.25046E-3	-66.9830E-12	801.265E-3	-15.5074E-3
-2.03852E-3	-67.0911E-12	828.002E-3	6.81467E-3	-67.2532E-12	790.530E-3	-1.22968E-3
-2.04352E-3	-67.3914E-12	813.228E-3	-8.27307E-3	-67.4474E-12	800.038E-3	14.9703E-3
-2.04852E-3	-67.7899E-12	816.517E-3	-16.4956E-3	-67.7061E-12	810.594E-3	4.39511E-3
-2.05353E-3	-68.0880E-12	825.146E-3	-8.92989E-3	-68.0751E-12	797.495E-3	-17.6576E-3
-2.05853E-3	-68.7201E-12	815.233E-3	-18.0457E-3	-68.4879E-12	781.314E-3	-28.9552E-3
-2.06353E-3	-68.9517E-12	794.564E-3	-31.9774E-3	-68.7533E-12	782.915E-3	-36.0529E-3
-2.06853E-3	-69.7145E-12	790.737E-3	-23.0620E-3	-69.0254E-12	792.254E-3	-38.3490E-3
-2.07354E-3	-69.6710E-12	805.654E-3	-19.9709E-3	-69.3651E-12	801.681E-3	-28.5130E-3
-2.07854E-3	-70.1182E-12	813.349E-3	-35.0660E-3	-69.7257E-12	812.359E-3	-16.1496E-3
-2.08354E-3	-70.3837E-12	808.790E-3	-30.7142E-3	-69.8691E-12	809.684E-3	-13.2995E-3
-2.08854E-3	-70.6865E-12	800.106E-3	-12.5354E-3	-70.3085E-12	795.529E-3	-25.6238E-3
-2.09355E-3	-70.6239E-12	801.344E-3	-6.17254E-3	-70.3560E-12	784.314E-3	-36.2767E-3
-2.09855E-3	-70.9523E-12	810.455E-3	-3.67685E-3	-70.3283E-12	780.557E-3	-30.6660E-3
-2.10355E-3	-71.2009E-12	799.896E-3	-3.74601E-3	-70.5698E-12	784.616E-3	-20.4776E-3
-2.10855E-3	-71.4558E-12	779.818E-3	-15.3621E-3	-70.8702E-12	792.432E-3	-15.0764E-3
-2.11356E-3	-71.5512E-12	773.914E-3	-21.3036E-3	-71.1116E-12	788.627E-3	-13.1253E-3
-2.11856E-3	-71.8875E-12	772.413E-3	-11.1178E-3	-71.3161E-12	778.274E-3	-20.6662E-3
-2.12356E-3	-72.2239E-12	785.822E-3	-2.30559E-3	-71.7429E-12	780.663E-3	-30.7596E-3
-2.12856E-3	-72.1048E-12	809.392E-3	-2.44747E-3	-72.0438E-12	780.568E-3	-14.5320E-3
-2.13357E-3	-72.3810E-12	812.927E-3	-6.40948E-3	-72.5251E-12	770.361E-3	13.5987E-3
-2.13857E-3	-72.4850E-12	796.398E-3	-7.53643E-3	-72.6908E-12	755.362E-3	11.1793E-3
-2.14357E-3	-72.8160E-12	774.659E-3	-7.44906E-3	-72.9011E-12	745.953E-3	-5.67595E-3
-2.14857E-3	-72.6903E-12	765.858E-3	-16.6050E-3	-73.2053E-12	751.309E-3	-17.1328E-3
-2.15358E-3	-73.2897E-12	777.521E-3	-24.5222E-3	-73.6712E-12	757.801E-3	-20.9017E-3
-2.15858E-3	-73.8697E-12	786.034E-3	-10.4929E-3	-74.1484E-12	754.433E-3	-10.5784E-3
-2.16358E-3	-74.3383E-12	780.057E-3	-97.8740E-6	-74.6359E-12	758.346E-3	1.77052E-3
-2.16858E-3	-74.5272E-12	775.901E-3	-18.2042E-3	-74.6576E-12	769.146E-3	4.16786E-3
-2.17359E-3	-74.6782E-12	778.112E-3	-33.1715E-3	-74.8381E-12	759.016E-3	-9.13585E-3
-2.17859E-3	-74.8401E-12	778.037E-3	-28.1857E-3	-74.9919E-12	749.238E-3	-20.1077E-3
-2.18359E-3	-74.8377E-12	765.041E-3	-35.7104E-3	-74.9993E-12	759.288E-3	-18.3943E-3
-2.18859E-3	-74.8802E-12	754.646E-3	-42.9982E-3	-75.1508E-12	762.450E-3	264.055E-6
-2.19360E-3	-75.2187E-12	760.268E-3	-21.2138E-3	-75.1732E-12	757.195E-3	13.4437E-3
-2.19860E-3	-75.5191E-12	766.269E-3	-2.28230E-3	-75.3561E-12	763.102E-3	-6.33292E-3
-2.20360E-3	-75.5110E-12	776.324E-3	-60.0323E-6	-75.7434E-12	775.096E-3	-21.9061E-3
-2.20860E-3	-75.7745E-12	782.935E-3	3.95380E-3	-76.1510E-12	785.831E-3	-12.0672E-3
-2.21361E-3	-76.0131E-12	768.715E-3	7.71703E-3	-76.7925E-12	789.869E-3	4.86492E-3
-2.21861E-3	-76.3871E-12	754.062E-3	3.66956E-3	-77.0656E-12	778.928E-3	3.86781E-3
-2.22361E-3	-76.6774E-12	756.482E-3	-78.0028E-6	-77.5898E-12	764.011E-3	-11.5760E-3
-2.22861E-3	-77.1671E-12	765.349E-3	-8.87960E-3	-77.9357E-12	767.233E-3	-11.7390E-3
-2.23362E-3	-77.5021E-12	769.305E-3	-32.7884E-3	-78.5471E-12	779.140E-3	-6.07683E-3
-2.23862E-3	-78.1348E-12	765.599E-3	-48.9926E-3	-78.8227E-12	779.184E-3	-8.19751E-3
-2.24362E-3	-78.4337E-12	766.026E-3	-44.7840E-3	-79.2961E-12	769.837E-3	-13.7065E-3
-2.24862E-3	-78.7259E-12	765.627E-3	-28.6269E-3	-79.2404E-12	757.605E-3	-20.8638E-3
-2.25363E-3	-79.0518E-12	759.743E-3	-238.377E-6	-79.4637E-12	751.073E-3	-26.0908E-3
-2.25863E-3	-79.5052E-12	769.689E-3	17.0613E-3	-79.4486E-12	754.283E-3	-20.6713E-3
-2.26363E-3	-79.6937E-12	785.031E-3	3.42919E-3	-79.6279E-12	751.394E-3	-12.6211E-3
-2.26863E-3	-80.0248E-12	780.717E-3	-12.5845E-3	-79.6640E-12	736.801E-3	-9.52324E-3
-2.27364E-3	-80.2971E-12	766.398E-3	-10.9715E-3	-79.7339E-12	741.029E-3	-13.9227E-3
-2.27864E-3	-80.5888E-12	772.868E-3	-3.58038E-3	-79.7059E-12	759.007E-3	-32.4153E-3
-2.28364E-3	-80.8140E-12	784.777E-3	-429.173E-6	-79.7860E-12	748.413E-3	-46.9169E-3
-2.28864E-3	-81.0674E-12	775.121E-3	-3.24042E-3	-79.9909E-12	732.958E-3	-53.1516E-3
-2.29365E-3	-81.3567E-12	766.539E-3	-1.26271E-3	-79.8185E-12	742.463E-3	-46.2059E-3
-2.29865E-3	-81.4904E-12	766.430E-3	1.55004E-3	-80.3343E-12	748.454E-3	-31.2808E-3
-2.30365E-3	-81.5314E-12	756.795E-3	-4.05877E-3	-80.5361E-12	742.318E-3	-21.1502E-3
-2.30865E-3	-81.7759E-12	740.260E-3	-14.6696E-3	-81.1822E-12	736.449E-3	-2.04469E-3
-2.31366E-3	-82.0746E-12	732.070E-3	-31.2009E-3	-81.4532E-12	746.706E-3	12.5195E-3
-2.31866E-3	-82.2305E-12	743.723E-3	-40.7883E-3	-81.9700E-12	759.828E-3	-5.06376E-3
-2.32366E-3	-82.4703E-12	759.060E-3	-33.2517E-3	-82.3270E-12	753.360E-3	-27.9473E-3
-2.32866E-3	-82.7659E-12	750.999E-3	-20.5226E-3	-82.8392E-12	743.373E-3	-27.1566E-3
-2.33367E-3	-83.1559E-12	736.816E-3	-7.41104E-3	-83.0656E-12	737.783E-3	-15.6140E-3
-2.33867E-3	-83.2113E-12	731.798E-3	-9.67930E-3	-83.2017E-12	735.151E-3	-7.04150E-3
-2.34367E-3	-83.2297E-12	731.582E-3	-25.0920E-3	-83.7497E-12	733.503E-3	-8.85753E-3
-2.34867E-3	-83.2991E-12	742.274E-3	-34.2039E-3	-83.6912E-12	725.942E-3	-10.5293E-3
-2.35368E-3	-83.3717E-12	740.183E-3	-33.3790E-3	-83.7397E-12	720.709E-3	-9.68337E-3
-2.35868E-3	-83.3495E-12	725.262E-3	-21.0234E-3	-83.9466E-12	724.453E-3	-12.1059E-3
-2.36368E-3	-83.7068E-12	725.606E-3	-11.4279E-3	-84.0785E-12	724.338E-3	-2.11174E-3
-2.36868E-3	-83.4259E-12	721.143E-3	-22.8039E-3	-83.9531E-12	724.306E-3	3.30366E-3
-2.37369E-3	-83.9104E-12	711.828E-3	-37.1686E-3	-84.2278E-12	729.952E-3	-5.97422E-3
-2.37869E-3	-83.9528E-12	728.888E-3	-20.6328E-3	-84.3833E-12	733.395E-3	-9.37012E-3
-2.38369E-3	-84.2823E-12	759.681E-3	1.94458E-3	-84.7347E-12	739.839E-3	-12.7724E-3
-2.38869E-3	-84.3396E-12	758.953E-3	-426.888E-6	-84.9871E-12	737.152E-3	-10.2144E-3
-2.39370E-3	-84.8140E-12	727.877E-3	-10.1689E-3	-85.5699E-12	725.119E-3	1.61826E-3
-2.39870E-3	-84.9870E-12	709.691E-3	-5.44741E-3	-85.9526E-12	727.422E-3	2.62404E-3
-2.40370E-3	-85.2455E-12	712.185E-3	-2.03295E-3	-86.3626E-12	735.337E-3	-10.9401E-3
-2.40870E-3	-85.8547E-12	715.346E-3	-12.1681E-3	-86.9507E-12	739.709E-3	-15.5780E-3
-2.41371E-3	-86.4154E-12	717.594E-3	-20.7551E-3	-87.0494E-12	732.241E-3	-9.66275E-3
-2.41871E-3	-86.8196E-12	723.944E-3	-24.4071E-3	-87.5295E-12	718.616E-3	-17.3586E-3
-2.42371E-3	-87.0558E-12	718.961E-3	-26.0187E-3	-87.3870E-12	723.149E-3	-17.1129E-3
-2.42871E-3	-87.6216E-12	711.653E-3	-22.6674E-3	-87.8244E-12	739.465E-3	-7.89158E-3
-2.43372E-3	-88.1117E-12	732.906E-3	-16.9314E-3	-87.9741E-12	753.442E-3	-5.23342E-3
-2.43872E-3	-88.1366E-12	746.163E-3	-12.8049E-3	-87.9484E-12	754.610E-3	-1.27386E-3
-2.44372E-3	-88.4197E-12	725.352E-3	-16.0076E-3	-88.1027E-12	734.855E-3	-18.2641E-3
-2.44872E-3	-88.6255E-12	708.755E-3	-24.0961E-3	-88.2856E-12	720.580E-3	-44.7075E-3
-2.45373E-3	-88.8571E-12	727.799E-3	-28.6826E-3	-88.6766E-12	728.214E-3	-41.2501E-3
-2.45873E-3	-88.9072E-12	759.628E-3	-25.5904E-3	-88.2770E-12	736.079E-3	-24.8330E-3
-2.46373E-3	-89.0262E-12	763.368E-3	-15.2326E-3	-88.6561E-12	726.255E-3	-20.1476E-3
-2.46873E-3	-89.3155E-12	749.556E-3	-16.8222E-3	-88.6663E-12	707.555E-3	-29.0586E-3
-2.47374E-3	-89.5895E-12	735.558E-3	-28.8954E-3	-89.1341E-12	710.246E-3	-36.7701E-3
-2.47874E-3	-89.4338E-12	725.641E-3	-30.1636E-3	-89.1993E-12	735.192E-3	-31.5518E-3
-2.48374E-3	-89.6718E-12	725.910E-3	-21.9743E-3	-89.3722E-12	751.025E-3	-33.2602E-3
-2.48874E-3	-90.0634E-12	717.387E-3	-17.3821E-3	-89.5288E-12	735.680E-3	-39.1401E-3
-2.49375E-3	-90.3719E-12	706.749E-3	-22.7586E-3	-90.0268E-12	710.237E-3	-31.9389E-3
-2.49875E-3	-90.5234E-12	714.359E-3	-26.3815E-3	-90.3235E-12	696.719E-3	-25.8802E-3
-2.50375E-3	-91.1321E-12	718.054E-3	-19.3575E-3	-90.4383E-12	698.676E-3	-26.3960E-3
-2.50875E-3	-91.5548E-12	723.780E-3	-19.6894E-3	-90.9988E-12	716.875E-3	-23.4591E-3
-2.51376E-3	-91.8188E-12	745.912E-3	-32.3866E-3	-91.3582E-12	725.213E-3	-13.6866E-3
-2.51876E-3	-91.9856E-12	756.448E-3	-32.4618E-3	-91.6391E-12	708.708E-3	-8.74002E-3
-2.52376E-3	-92.1752E-12	738.211E-3	-19.6982E-3	-92.0058E-12	701.096E-3	-15.6967E-3
-2.52876E-3	-92.3216E-12	714.361E-3	-6.79680E-3	-92.2783E-12	714.350E-3	-26.6629E-3
-2.53377E-3	-92.4132E-12	715.350E-3	-1.59905E-3	-92.4131E-12	719.179E-3	-29.5739E-3
-2.53877E-3	-92.4837E-12	720.095E-3	-12.6966E-3	-92.6745E-12	724.751E-3	-18.2637E-3
-2.54377E-3	-92.7400E-12	708.013E-3	-28.4069E-3	-92.8097E-12	732.577E-3	-11.8823E-3
-2.54877E-3	-92.9368E-12	701.826E-3	-30.9516E-3	-93.1698E-12	729.716E-3	-19.5684E-3
-2.55378E-3	-93.3079E-12	709.931E-3	-17.1561E-3	-93.6895E-12	738.845E-3	-30.7082E-3
-2.55878E-3	-93.6553E-12	715.298E-3	-9.37580E-3	-94.0440E-12	755.001E-3	-30.1832E-3
-2.56378E-3	-94.2038E-12	717.419E-3	-21.5773E-3	-94.4424E-12	747.542E-3	-21.3330E-3
-2.56878E-3	-94.4159E-12	727.989E-3	-40.3267E-3	-95.0379E-12	721.986E-3	-15.6967E-3
-2.57379E-3	-94.7104E-12	731.914E-3	-42.6528E-3	-95.1992E-12	704.938E-3	-9.79862E-3
-2.57879E-3	-94.9326E-12	722.370E-3	-33.3122E-3	-95.6187E-12	698.842E-3	-8.42459E-3
-2.58379E-3	-95.5016E-12	707.032E-3	-29.8975E-3	-95.9783E-12	703.515E-3	-10.7954E-3
-2.58879E-3	-95.8591E-12	695.729E-3	-28.3519E-3	-95.9010E-12	705.829E-3	-14.8187E-3
-2.59380E-3	-96.1561E-12	695.913E-3	-20.2244E-3	-96.2228E-12	702.033E-3	-9.49258E-3
-2.59880E-3	-96.3874E-12	696.556E-3	-5.33920E-3	-96.0921E-12	710.835E-3	-2.99993E-3
-2.60380E-3	-96.6370E-12	703.962E-3	4.80912E-3	-96.2265E-12	711.379E-3	-19.3515E-3
-2.60880E-3	-96.4228E-12	715.226E-3	-4.57429E-3	-96.2151E-12	700.247E-3	-26.4804E-3
-2.61381E-3	-96.4241E-12	708.407E-3	-25.1292E-3	-96.2521E-12	705.474E-3	-18.5927E-3
-2.61881E-3	-96.3639E-12	698.867E-3	-24.7261E-3	-96.1939E-12	715.039E-3	-28.5493E-3
-2.62381E-3	-96.2805E-12	713.699E-3	-9.95123E-3	-96.3164E-12	697.522E-3	-37.7187E-3
-2.62881E-3	-96.3144E-12	738.308E-3	-20.7263E-3	-96.3116E-12	678.438E-3	-33.7193E-3
-2.63382E-3	-96.2941E-12	735.735E-3	-38.9070E-3	-96.4629E-12	689.495E-3	-36.8128E-3
-2.63882E-3	-96.3933E-12	714.148E-3	-34.0811E-3	-96.5002E-12	703.434E-3	-28.8565E-3
-2.64382E-3	-96.6331E-12	707.119E-3	-25.2712E-3	-96.7815E-12	701.192E-3	-17.9444E-3
-2.64882E-3	-96.8521E-12	708.232E-3	-22.2055E-3	-97.2788E-12	702.395E-3	-28.7254E-3
-2.65383E-3	-97.2066E-12	705.510E-3	-20.5523E-3	-97.8251E-12	710.193E-3	-42.1387E-3
-2.65883E-3	-97.4809E-12	692.840E-3	-13.0700E-3	-98.2194E-12	709.287E-3	-31.5580E-3
-2.66383E-3	-97.9693E-12	670.695E-3	-9.38167E-3	-98.6104E-12	697.636E-3	-6.58285E-3
-2.66883E-3	-98.5205E-12	669.963E-3	-17.0256E-3	-98.9589E-12	693.149E-3	-9.11291E-3
-2.67384E-3	-98.8794E-12	692.146E-3	-21.1131E-3	-99.5000E-12	704.425E-3	-26.5968E-3
-2.67884E-3	-99.7058E-12	707.340E-3	-8.26564E-3	-99.8017E-12	715.226E-3	-29.0424E-3
-2.68384E-3	-100.240E-12	706.414E-3	-2.44464E-3	-100.069E-12	719.459E-3	-27.2553E-3
-2.68884E-3	-100.726E-12	705.927E-3	-19.3958E-3	-100.138E-12	716.080E-3	-23.5534E-3
-2.69385E-3	-100.973E-12	711.534E-3	-18.8641E-3	-100.246E-12	701.404E-3	-19.8969E-3
-2.69885E-3	-101.295E-12	700.106E-3	-10.3830E-3	-100.207E-12	701.218E-3	-30.7955E-3
-2.70385E-3	-101.287E-12	690.417E-3	-11.8350E-3	-100.409E-12	717.623E-3	-39.9360E-3
-2.70885E-3	-101.554E-12	700.467E-3	-8.61724E-3	-100.397E-12	716.370E-3	-34.5698E-3
-2.71386E-3	-101.263E-12	707.021E-3	-381.452E-6	-100.324E-12	688.692E-3	-27.0248E-3
-2.71886E-3	-101.236E-12	712.335E-3	12.2281E-3	-100.629E-12	675.199E-3	-24.4069E-3
-2.72386E-3	-101.455E-12	718.500E-3	14.5750E-3	-100.802E-12	684.332E-3	-21.3740E-3
-2.72886E-3	-101.273E-12	706.165E-3	860.648E-6	-101.105E-12	686.157E-3	1.81619E-3
-2.73387E-3	-101.370E-12	693.853E-3	-15.2068E-3	-101.361E-12	694.069E-3	31.7104E-3
-2.73887E-3	-101.678E-12	712.833E-3	-16.5069E-3	-101.945E-12	708.632E-3	29.3825E-3
-2.74387E-3	-102.001E-12	722.874E-3	-7.55830E-3	-102.381E-12	722.259E-3	7.59309E-3
-2.74887E-3	-101.969E-12	704.839E-3	-7.51478E-3	-103.040E-12	733.758E-3	-6.55487E-3
-2.75388E-3	-102.256E-12	707.431E-3	-14.6572E-3	-103.158E-12	737.525E-3	-18.3613E-3
-2.75888E-3	-102.752E-12	717.664E-3	-10.6552E-3	-103.836E-12	722.680E-3	-20.9138E-3
-2.76388E-3	-102.932E-12	707.926E-3	-9.84175E-3	-104.176E-12	696.887E-3	-9.52598E-3
-2.76888E-3	-103.252E-12	698.924E-3	-17.4134E-3	-104.438E-12	684.222E-3	-3.00951E-3
-2.77389E-3	-103.480E-12	691.156E-3	-16.2685E-3	-104.649E-12	682.106E-3	-3.58513E-3
-2.77889E-3	-104.329E-12	690.334E-3	-29.9460E-3	-104.937E-12	681.382E-3	5.40437E-3
-2.78389E-3	-104.285E-12	706.395E-3	-42.2848E-3	-105.042E-12	689.576E-3	14.5212E-3
-2.78889E-3	-104.567E-12	716.040E-3	-28.8013E-3	-104.831E-12	700.675E-3	6.88187E-3
-2.79390E-3	-104.629E-12	713.702E-3	-22.2583E-3	-105.015E-12	692.383E-3	-6.10574E-3
-2.79890E-3	-105.033E-12	715.588E-3	-27.9173E-3	-105.365E-12	679.451E-3	-11.0250E-3
-2.80390E-3	-105.207E-12	710.569E-3	-20.0546E-3	-105.563E-12	679.239E-3	-15.5479E-3
-2.80890E-3	-105.315E-12	697.454E-3	-2.15636E-3	-105.572E-12	685.927E-3	-20.3305E-3
-2.81391E-3	-105.792E-12	691.952E-3	5.14190E-3	-106.046E-12	689.597E-3	-24.4809E-3
-2.81891E-3	-105.793E-12	687.946E-3	-3.86882E-3	-106.345E-12	682.945E-3	-25.6846E-3
-2.82391E-3	-105.858E-12	690.835E-3	-19.4576E-3	-106.507E-12	678.525E-3	-18.3003E-3
-2.82891E-3	-106.149E-12	711.031E-3	-28.0343E-3	-106.546E-12	687.578E-3	-27.8196E-3
-2.83392E-3	-106.669E-12	727.324E-3	-22.4465E-3	-107.191E-12	693.724E-3	-38.9873E-3
-2.83892E-3	-106.545E-12	719.282E-3	-24.3414E-3	-107.669E-12	684.192E-3	-17.5580E-3
-2.84392E-3	-107.096E-12	705.245E-3	-37.9908E-3	-108.136E-12	673.399E-3	4.41207E-3
-2.84892E-3	-107.218E-12	711.182E-3	-31.3893E-3	-107.977E-12	667.489E-3	2.51363E-3
-2.85393E-3	-108.002E-12	714.280E-3	-13.6725E-3	-108.253E-12	667.225E-3	-3.27577E-3
-2.85893E-3	-108.168E-12	697.048E-3	-21.7439E-3	-108.452E-12	672.154E-3	2.66010E-3
-2.86393E-3	-108.228E-12	692.374E-3	-44.0305E-3	-108.682E-12	668.736E-3	17.3720E-3
-2.86893E-3	-108.597E-12	693.601E-3	-52.7756E-3	-108.309E-12	667.006E-3	22.1825E-3
-2.87394E-3	-108.838E-12	680.924E-3	-41.9942E-3	-108.604E-12	668.146E-3	-191.538E-6
-2.87894E-3	-109.058E-12	683.248E-3	-16.8760E-3	-108.415E-12	673.816E-3	-29.4034E-3
-2.88394E-3	-109.131E-12	698.699E-3	8.73761E-3	-108.648E-12	684.154E-3	-33.5628E-3
-2.88894E-3	-109.445E-12	708.366E-3	15.9435E-3	-108.506E-12	685.078E-3	-18.2426E-3
-2.89395E-3	-109.445E-12	703.337E-3	5.35677E-3	-108.729E-12	683.506E-3	-6.54565E-3
-2.89895E-3	-110.037E-12	681.412E-3	1.85628E-3	-108.763E-12	674.242E-3	762.782E-6
-2.90395E-3	-110.139E-12	679.544E-3	-8.76794E-3	-109.052E-12	664.979E-3	6.51943E-3
-2.90895E-3	-110.751E-12	700.193E-3	-30.1381E-3	-109.199E-12	674.920E-3	177.263E-6
-2.91396E-3	-110.709E-12	695.104E-3	-35.5626E-3	-109.665E-12	688.626E-3	-15.8470E-3
-2.91896E-3	-110.956E-12	659.101E-3	-34.1079E-3	-109.518E-12	689.461E-3	-19.1408E-3
-2.92396E-3	-110.763E-12	654.199E-3	-36.8397E-3	-109.935E-12	683.318E-3	-23.1533E-3
-2.92896E-3	-111.015E-12	686.420E-3	-29.8745E-3	-110.471E-12	674.845E-3	-35.8169E-3
-2.93397E-3	-111.028E-12	703.708E-3	-14.8976E-3	-110.867E-12	678.454E-3	-24.9721E-3
-2.93897E-3	-111.141E-12	705.372E-3	-3.97317E-3	-110.657E-12	689.897E-3	-3.65296E-3
-2.94397E-3	-111.408E-12	693.506E-3	-8.31302E-3	-111.032E-12	676.910E-3	-4.63657E-3
-2.94897E-3	-111.282E-12	668.592E-3	-29.1265E-3	-111.010E-12	662.838E-3	-24.4041E-3
-2.95398E-3	-111.623E-12	669.660E-3	-40.5755E-3	-111.558E-12	667.090E-3	-37.0674E-3
-2.95898E-3	-111.410E-12	690.731E-3	-35.4335E-3	-111.529E-12	661.553E-3	-35.8851E-3
-2.96398E-3	-111.294E-12	692.359E-3	-29.6200E-3	-111.918E-12	663.289E-3	-21.9890E-3
-2.96898E-3	-111.285E-12	674.376E-3	-19.4367E-3	-111.793E-12	687.715E-3	-4.83301E-3
-2.97399E-3	-111.607E-12	658.998E-3	-2.47107E-3	-112.451E-12	701.860E-3	-9.16096E-3
-2.97899E-3	-111.876E-12	654.469E-3	13.7424E-3	-112.852E-12	699.836E-3	-23.5653E-3
-2.98399E-3	-112.051E-12	670.745E-3	16.3716E-3	-113.211E-12	691.400E-3	-22.2542E-3
-2.98899E-3	-112.476E-12	696.157E-3	616.036E-6	-113.518E-12	681.091E-3	-19.1694E-3
-2.99400E-3	-113.138E-12	698.815E-3	-19.8061E-3	-114.305E-12	691.054E-3	-22.1057E-3
-2.99900E-3	-113.761E-12	693.853E-3	-35.2366E-3	-114.504E-12	703.837E-3	-12.5389E-3
-3.00400E-3	-114.151E-12	688.843E-3	-44.8319E-3	-114.771E-12	690.249E-3	-10.1993E-3
-3.00900E-3	-114.811E-12	676.907E-3	-36.0197E-3	-114.928E-12	681.436E-3	-3.60079E-3
-3.01401E-3	-115.249E-12	684.588E-3	-12.8200E-3	-115.341E-12	685.405E-3	19.2302E-3
-3.01901E-3	-115.851E-12	707.131E-3	5.52854E-3	-115.732E-12	682.668E-3	10.9725E-3
-3.02401E-3	-115.962E-12	713.693E-3	727.042E-6	-116.091E-12	686.297E-3	-19.8879E-3
-3.02901E-3	-116.586E-12	707.429E-3	-27.5151E-3	-116.357E-12	691.427E-3	-22.7877E-3
-3.03402E-3	-116.604E-12	697.313E-3	-42.9208E-3	-116.696E-12	693.772E-3	-12.0339E-3
-3.03902E-3	-116.862E-12	681.994E-3	-23.3399E-3	-116.675E-12	700.868E-3	-8.65062E-3
-3.04402E-3	-116.878E-12	666.657E-3	-6.33234E-3	-116.492E-12	705.012E-3	-4.45706E-3
-3.04902E-3	-116.684E-12	660.393E-3	-19.1406E-3	-116.811E-12	707.747E-3	-13.6650E-3
-3.05403E-3	-116.721E-12	665.070E-3	-21.9664E-3	-116.939E-12	695.890E-3	-26.3343E-3
-3.05903E-3	-116.385E-12	688.402E-3	-11.6129E-3	-116.722E-12	673.197E-3	-21.1107E-3
-3.06403E-3	-116.012E-12	720.997E-3	-18.9662E-3	-116.811E-12	676.493E-3	-12.2872E-3
-3.06903E-3	-116.402E-12	721.314E-3	-26.1801E-3	-116.782E-12	685.161E-3	-4.31490E-3
-3.07404E-3	-116.237E-12	690.999E-3	-23.2986E-3	-117.117E-12	679.433E-3	7.74725E-3
-3.07904E-3	-116.562E-12	683.489E-3	-27.5783E-3	-117.320E-12	677.578E-3	3.61114E-3
-3.08404E-3	-116.827E-12	689.406E-3	-24.9447E-3	-117.859E-12	669.524E-3	-13.7963E-3
-3.08904E-3	-117.678E-12	673.558E-3	-18.1345E-3	-118.311E-12	661.092E-3	-12.4135E-3
-3.09405E-3	-118.227E-12	669.749E-3	-25.1586E-3	-118.815E-12	669.330E-3	3.23457E-3
-3.09905E-3	-119.025E-12	683.380E-3	-19.2792E-3	-118.806E-12	675.109E-3	-1.87390E-3
-3.10405E-3	-119.703E-12	685.447E-3	3.41943E-3	-118.830E-12	676.839E-3	-16.3384E-3
-3.10905E-3	-120.216E-12	684.535E-3	-2.69024E-3	-119.288E-12	683.142E-3	-13.7811E-3
-3.11406E-3	-120.532E-12	689.058E-3	-19.2550E-3	-119.133E-12	680.054E-3	-13.0050E-3
-3.11906E-3	-120.992E-12	670.794E-3	-10.1022E-3	-119.004E-12	665.279E-3	-21.9255E-3
-3.12406E-3	-121.339E-12	658.247E-3	-13.6572E-3	-119.162E-12	647.649E-3	-18.1768E-3
-3.12906E-3	-121.473E-12	680.340E-3	-22.2376E-3	-119.838E-12	652.783E-3	-9.13438E-3
-3.13407E-3	-121.386E-12	677.743E-3	-11.3639E-3	-119.956E-12	679.382E-3	-16.1188E-3
-3.13907E-3	-121.690E-12	652.727E-3	-17.6969E-3	-120.098E-12	695.972E-3	-22.7209E-3
-3.14407E-3	-121.342E-12	652.724E-3	-31.9915E-3	-120.429E-12	699.405E-3	-21.5034E-3
-3.14907E-3	-121.314E-12	669.567E-3	-34.4515E-3	-120.941E-12	679.021E-3	-13.7674E-3
-3.15408E-3	-121.238E-12	683.226E-3	-28.0974E-3	-121.058E-12	653.000E-3	-9.21266E-3
-3.15908E-3	-121.337E-12	687.391E-3	-9.69306E-3	-121.215E-12	652.919E-3	-22.6992E-3
-3.16408E-3	-121.418E-12	680.589E-3	3.70760E-3	-121.451E-12	658.420E-3	-22.4277E-3
-3.16908E-3	-121.589E-12	665.013E-3	-8.87231E-3	-121.348E-12	669.460E-3	3.84174E-3
-3.17409E-3	-121.516E-12	664.813E-3	-26.8186E-3	-121.842E-12	685.099E-3	15.7119E-3
-3.17909E-3	-121.754E-12	686.035E-3	-21.4012E-3	-122.100E-12	686.283E-3	7.59293E-3
-3.18409E-3	-122.134E-12	693.671E-3	-14.0309E-3	-122.665E-12	692.040E-3	-85.1438E-6
-3.18909E-3	-122.166E-12	684.599E-3	-16.0188E-3	-122.931E-12	709.449E-3	-12.3245E-3
-3.19410E-3	-122.946E-12	677.471E-3	-11.2883E-3	-123.236E-12	702.369E-3	-30.9743E-3
-3.19910E-3	-123.018E-12	663.364E-3	-3.45708E-3	-123.320E-12	680.229E-3	-33.7786E-3
-3.20410E-3	-123.761E-12	664.064E-3	-4.47691E-3	-123.648E-12	679.321E-3	-17.1212E-3
-3.20910E-3	-123.911E-12	687.247E-3	-3.20817E-3	-123.873E-12	687.092E-3	-6.62085E-3
-3.21411E-3	-124.604E-12	700.638E-3	-6.55041E-3	-124.124E-12	684.527E-3	-2.13628E-3
-3.21911E-3	-124.620E-12	708.275E-3	-20.2746E-3	-124.490E-12	683.584E-3	-8.66900E-3
-3.22411E-3	-124.890E-12	699.403E-3	-16.0327E-3	-124.494E-12	683.662E-3	-20.0034E-3
-3.22911E-3	-124.922E-12	678.060E-3	-3.93091E-3	-124.586E-12	674.331E-3	-12.5818E-3
-3.23412E-3	-125.038E-12	682.026E-3	-11.0138E-3	-124.758E-12	670.962E-3	-10.9199E-3
-3.23912E-3	-125.131E-12	678.318E-3	-27.4573E-3	-125.037E-12	679.798E-3	-7.67360E-3
-3.24412E-3	-125.259E-12	659.314E-3	-39.8502E-3	-125.050E-12	689.859E-3	12.9105E-3
-3.24912E-3	-125.393E-12	672.570E-3	-38.3424E-3	-125.379E-12	695.909E-3	6.74927E-3
-3.25413E-3	-125.874E-12	689.690E-3	-28.3463E-3	-125.378E-12	709.088E-3	-22.4406E-3
-3.25913E-3	-126.014E-12	674.938E-3	-27.3581E-3	-125.760E-12	717.408E-3	-28.0248E-3
-3.26413E-3	-126.027E-12	681.854E-3	-25.6287E-3	-126.418E-12	710.773E-3	-5.28694E-3
-3.26913E-3	-126.603E-12	717.408E-3	-8.07884E-3	-126.845E-12	702.223E-3	4.91976E-3
-3.27414E-3	-126.719E-12	719.643E-3	7.69091E-3	-127.176E-12	695.346E-3	-5.01071E-3
-3.27914E-3	-126.767E-12	698.528E-3	-8.26428E-3	-127.559E-12	701.837E-3	-11.7128E-3
-3.28414E-3	-127.150E-12	691.293E-3	-36.2016E-3	-128.081E-12	708.027E-3	-34.6748E-3
-3.28914E-3	-127.589E-12	695.467E-3	-41.8640E-3	-128.029E-12	695.284E-3	-52.5290E-3
-3.29415E-3	-127.897E-12	701.980E-3	-37.4890E-3	-128.399E-12	684.261E-3	-41.1214E-3
-3.29915E-3	-128.134E-12	705.159E-3	-23.3960E-3	-128.584E-12	677.193E-3	-25.5225E-3
-3.30415E-3	-128.418E-12	693.773E-3	-12.3069E-3	-128.937E-12	665.160E-3	-20.2304E-3
-3.30915E-3	-128.763E-12	662.006E-3	-20.6708E-3	-128.746E-12	675.800E-3	-25.7113E-3
-3.31416E-3	-128.904E-12	649.319E-3	-23.6395E-3	-128.801E-12	695.897E-3	-26.6137E-3
-3.31916E-3	-128.913E-12	670.504E-3	-22.0706E-3	-128.794E-12	686.025E-3	-27.2260E-3
-3.32416E-3	-129.564E-12	673.190E-3	-14.1284E-3	-128.936E-12	677.985E-3	-26.0069E-3
-3.32916E-3	-129.956E-12	656.472E-3	-3.07375E-3	-128.936E-12	691.330E-3	-31.9110E-3
-3.33417E-3	-130.568E-12	656.856E-3	-8.06313E-3	-128.436E-12	679.198E-3	-48.6742E-3
-3.33917E-3	-130.724E-12	675.865E-3	-15.0189E-3	-128.775E-12	656.375E-3	-43.2545E-3
-3.34417E-3	-131.364E-12	692.120E-3	-22.3513E-3	-128.716E-12	661.062E-3	-36.5626E-3
-3.34917E-3	-131.383E-12	681.343E-3	-32.9485E-3	-128.939E-12	666.276E-3	-31.8386E-3
-3.35418E-3	-131.618E-12	657.094E-3	-31.2281E-3	-128.924E-12	657.212E-3	-3.01084E-3
-3.35918E-3	-131.704E-12	656.184E-3	-25.8476E-3	-129.655E-12	654.269E-3	29.0979E-3
-3.36418E-3	-131.572E-12	675.042E-3	-18.4351E-3	-129.707E-12	673.901E-3	42.8261E-3
-3.36918E-3	-131.431E-12	681.124E-3	6.07835E-3	-130.143E-12	680.902E-3	20.1973E-3
-3.37419E-3	-131.258E-12	669.397E-3	18.6081E-3	-130.277E-12	662.326E-3	-28.5340E-3
-3.37919E-3	-131.217E-12	661.151E-3	2.80173E-3	-131.052E-12	668.414E-3	-42.3404E-3
-3.38419E-3	-131.238E-12	652.598E-3	-14.8680E-3	-131.598E-12	692.525E-3	-20.6980E-3
-3.38919E-3	-131.275E-12	654.460E-3	-17.4661E-3	-131.743E-12	702.574E-3	-5.03644E-3
-3.39420E-3	-131.595E-12	674.573E-3	6.72355E-3	-132.599E-12	702.716E-3	812.778E-6
-3.39920E-3	-132.052E-12	673.748E-3	21.6768E-3	-133.501E-12	687.290E-3	1.88675E-3
-3.40420E-3	-132.123E-12	652.068E-3	-5.71796E-3	-133.742E-12	679.186E-3	-2.81850E-3
-3.40920E-3	-132.882E-12	650.185E-3	-15.6217E-3	-133.729E-12	683.124E-3	-5.03999E-3
-3.41421E-3	-133.004E-12	667.126E-3	20.0376E-3	-134.132E-12	674.712E-3	5.17471E-3
-3.41921E-3	-133.320E-12	672.006E-3	35.5215E-3	-134.185E-12	670.428E-3	8.01830E-3
-3.42421E-3	-133.701E-12	660.837E-3	16.6061E-3	-134.143E-12	673.466E-3	-17.6395E-3
-3.42921E-3	-134.277E-12	650.842E-3	-830.409E-6	-134.020E-12	676.002E-3	-41.5186E-3
-3.43422E-3	-134.752E-12	658.164E-3	-16.9672E-3	-133.732E-12	668.181E-3	-35.3806E-3
-3.43922E-3	-134.946E-12	676.627E-3	-25.7947E-3	-134.278E-12	655.374E-3	-20.1776E-3
-3.44422E-3	-135.196E-12	680.072E-3	-18.7233E-3	-134.326E-12	663.855E-3	-296.980E-6
-3.44922E-3	-135.046E-12	674.922E-3	-24.1759E-3	-134.386E-12	684.303E-3	17.6886E-3
-3.45423E-3	-134.986E-12	691.459E-3	-35.5849E-3	-134.994E-12	690.504E-3	5.44496E-3
-3.45923E-3	-134.932E-12	698.793E-3	-19.4677E-3	-135.286E-12	674.367E-3	-25.5165E-3
-3.46423E-3	-134.971E-12	688.998E-3	-12.5195E-3	-135.281E-12	663.184E-3	-45.5447E-3
-3.46923E-3	-135.168E-12	692.967E-3	-27.2538E-3	-135.298E-12	668.356E-3	-55.5948E-3
-3.47424E-3	-135.109E-12	691.984E-3	-25.8648E-3	-135.803E-12	667.257E-3	-61.7521E-3
-3.47924E-3	-135.251E-12	677.905E-3	-22.8222E-3	-135.877E-12	661.816E-3	-50.4003E-3
-3.48424E-3	-135.371E-12	671.915E-3	-31.4896E-3	-135.758E-12	665.481E-3	-29.9112E-3
-3.48924E-3	-135.464E-12	684.138E-3	-31.9427E-3	-136.012E-12	679.348E-3	-15.1573E-3
-3.49425E-3	-135.877E-12	702.432E-3	-26.4215E-3	-136.634E-12	680.239E-3	16.9565E-3
-3.49925E-3	-136.274E-12	704.144E-3	-22.2067E-3	-136.855E-12	659.247E-3	44.8672E-3
-3.50425E-3	-136.726E-12	688.790E-3	-24.1026E-3	-136.651E-12	656.004E-3	26.3974E-3
-3.50925E-3	-137.003E-12	675.203E-3	-30.2541E-3	-136.711E-12	669.499E-3	102.966E-6
-3.51426E-3	-137.118E-12	670.457E-3	-33.7326E-3	-137.047E-12	665.452E-3	-730.504E-6
-3.51926E-3	-137.908E-12	668.715E-3	-26.2937E-3	-137.194E-12	653.266E-3	-3.21222E-3
-3.52426E-3	-138.205E-12	673.109E-3	-10.0316E-3	-137.495E-12	647.492E-3	-11.1281E-3
-3.52926E-3	-138.346E-12	680.572E-3	-12.0204E-3	-137.746E-12	658.992E-3	-12.2141E-3
-3.53427E-3	-138.470E-12	683.854E-3	-24.2015E-3	-138.062E-12	689.382E-3	-18.0936E-3
-3.53927E-3	-139.145E-12	678.824E-3	-25.5326E-3	-138.121E-12	705.384E-3	-20.4057E-3
-3.54427E-3	-139.317E-12	664.217E-3	-23.5992E-3	-138.452E-12	705.608E-3	-4.21307E-3
-3.54927E-3	-139.684E-12	655.084E-3	-15.0081E-3	-138.867E-12	686.102E-3	4.07280E-3
-3.55428E-3	-139.699E-12	652.579E-3	-9.40022E-3	-139.406E-12	661.669E-3	-579.066E-6
-3.55928E-3	-139.941E-12	651.030E-3	-33.1870E-3	-139.659E-12	670.628E-3	5.15050E-3
-3.56428E-3	-139.970E-12	664.258E-3	-55.7011E-3	-140.382E-12	682.271E-3	-7.65452E-3
-3.56928E-3	-140.208E-12	691.972E-3	-55.1725E-3	-140.441E-12	681.316E-3	-42.0580E-3
-3.57429E-3	-140.167E-12	695.071E-3	-47.7279E-3	-140.782E-12	693.543E-3	-36.0525E-3
-3.57929E-3	-140.506E-12	685.255E-3	-27.1320E-3	-141.039E-12	701.876E-3	-7.74783E-3
-3.58429E-3	-140.633E-12	691.219E-3	-12.0825E-3	-141.282E-12	677.365E-3	-10.4592E-3
-3.58929E-3	-140.892E-12	691.244E-3	-15.7441E-3	-141.295E-12	652.853E-3	-13.1579E-3
-3.59430E-3	-141.221E-12	686.302E-3	-10.1585E-3	-141.676E-12	655.099E-3	-12.5134E-3
-3.59930E-3	-141.235E-12	680.918E-3	896.024E-6	-141.720E-12	658.064E-3	-23.9573E-3
-3.60430E-3	-141.768E-12	674.667E-3	-8.18336E-3	-142.112E-12	659.469E-3	-28.0294E-3
-3.60930E-3	-142.113E-12	670.317E-3	-34.5762E-3	-142.331E-12	669.617E-3	-23.3095E-3
-3.61431E-3	-142.642E-12	667.487E-3	-30.2041E-3	-142.637E-12	662.372E-3	-23.8983E-3
-3.61931E-3	-143.266E-12	660.863E-3	-12.2203E-3	-143.206E-12	654.831E-3	-13.8438E-3
-3.62431E-3	-143.419E-12	661.611E-3	-17.6769E-3	-143.330E-12	664.021E-3	5.70761E-3
-3.62931E-3	-144.108E-12	668.969E-3	-19.6172E-3	-143.951E-12	672.830E-3	-5.99780E-3
-3.63432E-3	-143.946E-12	664.236E-3	-32.4444E-3	-144.199E-12	683.090E-3	-26.7534E-3
-3.63932E-3	-144.336E-12	661.994E-3	-47.0836E-3	-144.504E-12	678.063E-3	-25.7572E-3
-3.64432E-3	-144.202E-12	655.437E-3	-35.0102E-3	-144.741E-12	652.210E-3	-19.3508E-3
-3.64932E-3	-144.493E-12	656.992E-3	-23.3306E-3	-144.859E-12	653.301E-3	-11.5415E-3
-3.65433E-3	-144.301E-12	682.964E-3	-31.1705E-3	-145.063E-12	690.958E-3	6.80122E-3
-3.65933E-3	-144.804E-12	683.916E-3	-49.6133E-3	-144.676E-12	700.043E-3	9.91052E-3
-3.66433E-3	-144.342E-12	675.149E-3	-54.5767E-3	-144.610E-12	659.906E-3	-2.33715E-3
-3.66933E-3	-144.155E-12	690.248E-3	-35.2757E-3	-144.772E-12	639.944E-3	-316.476E-6
-3.67434E-3	-144.210E-12	687.658E-3	-2.47795E-3	-144.836E-12	666.335E-3	-12.2778E-3
-3.67934E-3	-143.617E-12	643.438E-3	11.8145E-3	-144.259E-12	684.195E-3	-29.0443E-3
-3.68434E-3	-143.927E-12	620.046E-3	2.81927E-3	-144.187E-12	676.199E-3	-17.9352E-3
-3.68934E-3	-144.113E-12	647.289E-3	17.7904E-3	-144.391E-12	671.779E-3	-9.99788E-3
-3.69435E-3	-144.494E-12	661.865E-3	33.6741E-3	-144.333E-12	680.114E-3	-19.0256E-3
-3.69935E-3	-144.480E-12	661.642E-3	2.70225E-3	-144.389E-12	695.333E-3	-21.4816E-3
-3.70435E-3	-145.061E-12	678.059E-3	-16.3298E-3	-145.237E-12	699.033E-3	-15.5490E-3
-3.70935E-3	-145.298E-12	685.174E-3	-3.56526E-3	-146.084E-12	672.865E-3	-20.0693E-3
-3.71436E-3	-145.964E-12	688.218E-3	-11.3942E-3	-146.490E-12	655.843E-3	-39.7351E-3
-3.71936E-3	-146.563E-12	692.488E-3	-27.9144E-3	-146.816E-12	668.112E-3	-55.3188E-3
-3.72436E-3	-147.039E-12	667.534E-3	-20.4594E-3	-147.306E-12	671.352E-3	-36.8551E-3
-3.72936E-3	-147.635E-12	650.563E-3	-19.8725E-3	-147.625E-12	653.990E-3	-8.14562E-3
-3.73437E-3	-148.489E-12	657.173E-3	-31.4426E-3	-147.530E-12	647.599E-3	-7.79250E-3
-3.73937E-3	-148.496E-12	672.085E-3	-22.0250E-3	-147.367E-12	656.577E-3	-9.94684E-3
-3.74437E-3	-149.300E-12	709.175E-3	-10.8002E-3	-147.920E-12	653.410E-3	3.18340E-3
-3.74937E-3	-149.660E-12	731.633E-3	-6.72328E-3	-147.855E-12	647.899E-3	5.03394E-3
-3.75438E-3	-150.017E-12	707.600E-3	-888.803E-6	-147.549E-12	650.852E-3	-6.25435E-3
-3.75938E-3	-150.140E-12	666.382E-3	-3.76710E-3	-147.412E-12	648.493E-3	-9.46140E-3
-3.76438E-3	-150.030E-12	643.957E-3	-20.0548E-3	-147.351E-12	640.409E-3	-20.6055E-3
-3.76938E-3	-150.000E-12	642.515E-3	-18.5529E-3	-147.140E-12	641.624E-3	-41.2612E-3
-3.77439E-3	-150.030E-12	646.373E-3	13.5357E-3	-147.016E-12	652.395E-3	-35.1385E-3
-3.77939E-3	-149.937E-12	648.098E-3	25.3574E-3	-147.490E-12	662.549E-3	-18.0071E-3
-3.78439E-3	-150.071E-12	655.208E-3	21.1760E-3	-147.731E-12	660.196E-3	-13.5389E-3
-3.78939E-3	-150.139E-12	670.561E-3	13.5603E-3	-147.803E-12	645.123E-3	-7.00637E-3
-3.79440E-3	-150.455E-12	684.441E-3	-3.23422E-3	-148.281E-12	631.632E-3	-17.7817E-3
-3.79940E-3	-150.328E-12	691.755E-3	-5.28761E-3	-148.872E-12	638.063E-3	-33.2067E-3
-3.80440E-3	-150.356E-12	694.484E-3	-1.08753E-3	-149.792E-12	656.101E-3	-9.34521E-3
-3.80940E-3	-150.176E-12	683.265E-3	6.99750E-3	-150.309E-12	665.093E-3	25.1883E-3
-3.81441E-3	-151.027E-12	663.580E-3	12.0371E-3	-151.385E-12	664.668E-3	22.9260E-3
-3.81941E-3	-150.595E-12	658.985E-3	1.17766E-3	-151.824E-12	655.538E-3	864.720E-6
-3.82441E-3	-151.464E-12	672.813E-3	-3.87541E-3	-152.238E-12	650.690E-3	-10.4820E-3
-3.82941E-3	-152.049E-12	691.496E-3	-7.01495E-3	-152.561E-12	655.804E-3	-19.7867E-3
-3.83442E-3	-152.042E-12	689.561E-3	-21.3266E-3	-152.839E-12	665.609E-3	-25.6849E-3
-3.83942E-3	-151.980E-12	666.070E-3	-36.0581E-3	-153.260E-12	670.170E-3	-24.8926E-3
-3.84442E-3	-151.897E-12	657.788E-3	-34.3301E-3	-153.814E-12	669.882E-3	-24.4897E-3
-3.84942E-3	-152.605E-12	653.873E-3	-29.3714E-3	-154.299E-12	668.097E-3	-22.1428E-3
-3.85443E-3	-152.653E-12	653.518E-3	-42.0725E-3	-153.823E-12	666.362E-3	-19.7217E-3
-3.85943E-3	-152.904E-12	678.077E-3	-39.1521E-3	-154.571E-12	673.816E-3	-26.1268E-3
-3.86443E-3	-153.340E-12	684.171E-3	-30.7796E-3	-154.404E-12	673.469E-3	-34.5609E-3
-3.86943E-3	-153.875E-12	657.979E-3	-41.2166E-3	-154.625E-12	664.216E-3	-28.7304E-3
-3.87444E-3	-154.098E-12	657.957E-3	-44.2535E-3	-154.620E-12	668.917E-3	-14.3862E-3
-3.87944E-3	-153.853E-12	675.081E-3	-33.6187E-3	-155.042E-12	669.401E-3	-12.6436E-3
-3.88444E-3	-153.985E-12	659.990E-3	-28.9806E-3	-155.010E-12	663.069E-3	-19.5221E-3
-3.88944E-3	-153.680E-12	641.168E-3	-41.4471E-3	-155.443E-12	666.429E-3	-14.9806E-3
-3.89445E-3	-154.065E-12	643.554E-3	-42.4747E-3	-155.348E-12	660.259E-3	-4.45580E-3
-3.89945E-3	-153.827E-12	663.477E-3	-27.3422E-3	-156.095E-12	650.043E-3	109.968E-6
-3.90445E-3	-154.699E-12	692.427E-3	-23.0626E-3	-155.760E-12	653.833E-3	-7.10729E-3
-3.90945E-3	-154.729E-12	708.380E-3	-27.5735E-3	-156.007E-12	663.153E-3	-9.62395E-3
-3.91446E-3	-155.474E-12	709.737E-3	-24.0390E-3	-155.802E-12	663.641E-3	-4.63204E-3
-3.91946E-3	-154.875E-12	690.886E-3	886.737E-6	-156.083E-12	658.290E-3	-274.484E-6
-3.92446E-3	-155.910E-12	648.945E-3	29.0706E-3	-155.778E-12	653.235E-3	24.5771E-3
-3.92946E-3	-155.977E-12	613.647E-3	15.6576E-3	-155.158E-12	651.125E-3	28.3099E-3
-3.93447E-3	-156.114E-12	616.430E-3	-17.1726E-3	-155.623E-12	646.838E-3	-16.6747E-3
-3.93947E-3	-156.293E-12	652.058E-3	-13.0899E-3	-155.191E-12	642.520E-3	-43.2315E-3
-3.94447E-3	-156.247E-12	676.589E-3	8.69171E-3	-155.547E-12	655.988E-3	-39.6101E-3
-3.94947E-3	-156.810E-12	671.581E-3	14.4402E-3	-155.303E-12	668.391E-3	-29.5247E-3
-3.95448E-3	-156.950E-12	657.991E-3	4.25768E-3	-155.653E-12	665.841E-3	-12.7249E-3
-3.95948E-3	-157.526E-12	657.890E-3	1.45844E-3	-155.974E-12	661.093E-3	-5.12852E-3
-3.96448E-3	-157.709E-12	680.470E-3	-1.01378E-3	-156.822E-12	660.316E-3	-10.0319E-3
-3.96948E-3	-158.494E-12	701.254E-3	-15.8442E-3	-157.272E-12	671.298E-3	-28.7803E-3
-3.97449E-3	-158.649E-12	693.513E-3	-27.6586E-3	-158.299E-12	668.883E-3	-45.7572E-3
-3.97949E-3	-159.390E-12	669.957E-3	-35.9666E-3	-158.802E-12	651.772E-3	-44.4979E-3
-3.98449E-3	-159.596E-12	648.134E-3	-26.3088E-3	-159.859E-12	653.661E-3	-27.3760E-3
-3.98949E-3	-159.596E-12	636.032E-3	-12.3662E-3	-160.346E-12	665.068E-3	-9.21098E-3
-3.99450E-3	-159.287E-12	648.042E-3	-17.2313E-3	-160.505E-12	673.792E-3	-14.8376E-3
-3.99950E-3	-159.431E-12	672.786E-3	-16.8589E-3	-161.027E-12	657.227E-3	-37.6834E-3
-4.00450E-3	-159.620E-12	682.160E-3	-12.2003E-3	-159.990E-12	613.043E-3	-51.4286E-3
-4.00950E-3	-159.901E-12	683.641E-3	-22.6854E-3	-159.984E-12	606.477E-3	-49.3020E-3
-4.01451E-3	-160.103E-12	682.785E-3	-28.4154E-3	-160.061E-12	643.824E-3	-31.7744E-3
-4.01951E-3	-159.737E-12	680.306E-3	-21.2624E-3	-159.358E-12	661.084E-3	-8.94976E-3
-4.02451E-3	-160.402E-12	674.085E-3	-16.6174E-3	-159.401E-12	663.867E-3	-7.22327E-3
-4.02951E-3	-160.454E-12	663.938E-3	-7.34604E-3	-159.589E-12	671.989E-3	-25.7917E-3
-4.03452E-3	-160.433E-12	667.819E-3	1.32785E-3	-159.771E-12	679.409E-3	-41.0620E-3
-4.03952E-3	-160.995E-12	676.319E-3	-20.4789E-3	-159.591E-12	696.726E-3	-41.1529E-3
-4.04452E-3	-161.332E-12	670.210E-3	-61.6012E-3	-159.818E-12	692.409E-3	-35.6449E-3
-4.04952E-3	-161.557E-12	652.344E-3	-71.4682E-3	-160.297E-12	658.467E-3	-31.1303E-3
-4.05453E-3	-161.521E-12	639.291E-3	-37.0931E-3	-161.167E-12	648.944E-3	-6.65798E-3
-4.05953E-3	-161.764E-12	639.965E-3	-16.8032E-3	-161.462E-12	672.638E-3	17.8309E-3
-4.06453E-3	-161.959E-12	654.405E-3	-29.7759E-3	-161.932E-12	674.315E-3	8.24151E-3
-4.06953E-3	-162.728E-12	671.919E-3	-22.3253E-3	-163.064E-12	650.238E-3	-26.3401E-3
-4.07454E-3	-162.011E-12	666.372E-3	3.07710E-3	-163.538E-12	645.939E-3	-37.1898E-3
-4.07954E-3	-162.733E-12	660.813E-3	8.13545E-3	-164.261E-12	648.102E-3	-10.1239E-3
-4.08454E-3	-162.209E-12	665.050E-3	-208.574E-6	-164.019E-12	644.467E-3	9.87190E-3
-4.08954E-3	-162.632E-12	663.128E-3	-10.5119E-3	-164.397E-12	660.790E-3	4.83485E-3
-4.09455E-3	-162.373E-12	666.062E-3	-9.49552E-3	-164.403E-12	681.320E-3	-10.5650E-3
-4.09955E-3	-162.984E-12	660.185E-3	-4.35876E-3	-165.020E-12	691.389E-3	-8.21326E-3
-4.10455E-3	-162.677E-12	646.011E-3	-25.4457E-3	-164.199E-12	694.577E-3	-2.79730E-3
-4.10955E-3	-162.980E-12	642.861E-3	-37.3572E-3	-164.989E-12	677.007E-3	-21.3791E-3
-4.11456E-3	-162.705E-12	641.598E-3	-6.53582E-3	-164.132E-12	645.019E-3	-26.4600E-3
-4.11956E-3	-163.333E-12	644.718E-3	22.3480E-3	-164.868E-12	645.286E-3	-12.6221E-3
-4.12456E-3	-163.247E-12	657.242E-3	22.9462E-3	-164.652E-12	678.221E-3	-4.88318E-3
-4.12956E-3	-162.979E-12	662.445E-3	8.67638E-3	-164.785E-12	701.041E-3	-873.587E-6
-4.13457E-3	-163.600E-12	661.220E-3	-13.7998E-3	-164.810E-12	707.387E-3	1.39897E-3
-4.13957E-3	-163.755E-12	671.763E-3	-23.8485E-3	-165.317E-12	702.571E-3	-2.90891E-3
-4.14457E-3	-163.331E-12	690.381E-3	-16.2433E-3	-165.964E-12	692.592E-3	-2.52798E-3
-4.14957E-3	-163.900E-12	684.486E-3	-21.1634E-3	-166.658E-12	675.536E-3	1.76903E-3
-4.15458E-3	-164.579E-12	655.010E-3	-23.0015E-3	-167.163E-12	651.017E-3	-9.56172E-3
-4.15958E-3	-165.092E-12	635.418E-3	-13.2346E-3	-167.323E-12	648.733E-3	-19.8261E-3
-4.16458E-3	-165.722E-12	624.089E-3	-13.8363E-3	-167.864E-12	673.499E-3	-28.4099E-3
-4.16958E-3	-166.115E-12	646.550E-3	-17.9910E-3	-167.850E-12	683.579E-3	-37.7227E-3
-4.17459E-3	-166.774E-12	684.854E-3	-29.6937E-3	-168.278E-12	671.172E-3	-41.2027E-3
-4.17959E-3	-167.073E-12	678.133E-3	-32.7655E-3	-167.886E-12	663.142E-3	-29.7947E-3
-4.18459E-3	-167.640E-12	659.583E-3	-25.6391E-3	-167.683E-12	653.197E-3	-19.8382E-3
-4.18959E-3	-168.266E-12	662.793E-3	-25.8727E-3	-167.559E-12	657.083E-3	-43.9958E-3
-4.19460E-3	-168.860E-12	673.748E-3	-20.3468E-3	-167.034E-12	679.252E-3	-49.8038E-3
-4.19960E-3	-169.004E-12	667.958E-3	-7.03737E-3	-166.997E-12	669.230E-3	-20.3179E-3
-4.20460E-3	-168.871E-12	655.778E-3	-6.54956E-3	-167.429E-12	654.823E-3	-22.6676E-3
-4.20960E-3	-169.043E-12	655.319E-3	-26.5894E-3	-168.113E-12	659.240E-3	-56.4104E-3
-4.21461E-3	-169.313E-12	663.636E-3	-36.1701E-3	-168.066E-12	647.001E-3	-64.2580E-3
-4.21961E-3	-170.025E-12	675.889E-3	-36.1409E-3	-168.412E-12	626.688E-3	-49.1373E-3
-4.22461E-3	-169.470E-12	668.588E-3	-36.0534E-3	-168.836E-12	622.347E-3	-23.0332E-3
-4.22961E-3	-169.429E-12	663.105E-3	-35.4971E-3	-169.414E-12	643.937E-3	16.2097E-3
-4.23462E-3	-169.437E-12	681.215E-3	-45.1608E-3	-169.599E-12	669.215E-3	28.7810E-3
-4.23962E-3	-169.359E-12	682.296E-3	-46.4087E-3	-169.651E-12	671.604E-3	-7.43516E-3
-4.24462E-3	-169.817E-12	657.535E-3	-40.4347E-3	-170.270E-12	672.627E-3	-52.2270E-3
-4.24962E-3	-169.376E-12	658.491E-3	-31.8950E-3	-170.752E-12	680.011E-3	-54.1656E-3
-4.25463E-3	-169.980E-12	677.898E-3	-8.68457E-3	-170.796E-12	679.868E-3	-19.9828E-3
-4.25963E-3	-169.749E-12	681.015E-3	-10.8169E-3	-170.762E-12	661.537E-3	-2.19151E-3
-4.26463E-3	-170.172E-12	673.568E-3	-39.0584E-3	-170.945E-12	637.302E-3	-12.1971E-3
-4.26963E-3	-170.351E-12	668.718E-3	-48.9146E-3	-170.668E-12	656.888E-3	-20.8952E-3
-4.27464E-3	-171.206E-12	672.340E-3	-42.2915E-3	-170.624E-12	684.866E-3	-21.8634E-3
-4.27964E-3	-171.661E-12	674.878E-3	-25.6842E-3	-170.006E-12	675.976E-3	-20.6809E-3
-4.28464E-3	-171.785E-12	673.326E-3	-11.1017E-3	-170.298E-12	658.662E-3	-17.3478E-3
-4.28964E-3	-172.298E-12	653.458E-3	-19.3018E-3	-170.066E-12	636.909E-3	-13.7859E-3
-4.29465E-3	-172.420E-12	639.710E-3	-20.5355E-3	-170.251E-12	626.422E-3	-14.7144E-3
-4.29965E-3	-172.688E-12	655.251E-3	3.69864E-3	-170.668E-12	631.292E-3	-19.7226E-3
-4.30465E-3	-172.989E-12	648.600E-3	14.0140E-3	-171.100E-12	640.846E-3	-20.4914E-3
-4.30965E-3	-173.333E-12	636.421E-3	-4.19280E-3	-172.048E-12	660.404E-3	-32.2071E-3
-4.31466E-3	-173.693E-12	665.987E-3	-17.0739E-3	-172.582E-12	687.759E-3	-51.5412E-3
-4.31966E-3	-174.051E-12	688.999E-3	-17.2310E-3	-173.454E-12	697.741E-3	-42.1104E-3
-4.32466E-3	-173.680E-12	669.003E-3	-13.7949E-3	-173.952E-12	683.589E-3	-11.9134E-3
-4.32966E-3	-173.753E-12	634.279E-3	-3.96893E-3	-174.853E-12	668.623E-3	-2.00843E-3
-4.33467E-3	-174.116E-12	608.250E-3	-19.7431E-3	-174.570E-12	646.074E-3	-13.8591E-3
-4.33967E-3	-174.304E-12	625.217E-3	-34.3046E-3	-175.576E-12	638.470E-3	-21.4253E-3
-4.34467E-3	-174.441E-12	664.870E-3	-18.8921E-3	-175.085E-12	633.732E-3	-14.9933E-3
-4.34967E-3	-174.606E-12	660.476E-3	-30.3176E-3	-175.408E-12	615.188E-3	-8.86860E-3
-4.35468E-3	-175.445E-12	631.885E-3	-44.9645E-3	-174.807E-12	621.585E-3	-24.6546E-3
-4.35968E-3	-175.110E-12	624.538E-3	-34.4128E-3	-174.896E-12	641.619E-3	-43.8154E-3
-4.36468E-3	-175.726E-12	641.862E-3	-24.8419E-3	-174.016E-12	665.979E-3	-42.0084E-3
-4.36968E-3	-176.150E-12	659.247E-3	-13.4675E-3	-173.936E-12	681.369E-3	-23.0170E-3
-4.37469E-3	-176.956E-12	657.074E-3	-13.4762E-3	-173.990E-12	662.226E-3	-8.99966E-3
-4.37969E-3	-177.040E-12	650.314E-3	-19.5285E-3	-174.207E-12	658.884E-3	-16.8881E-3
-4.38469E-3	-177.555E-12	646.439E-3	-12.0076E-3	-174.361E-12	651.792E-3	-30.0377E-3
-4.38969E-3	-177.924E-12	659.572E-3	-4.13441E-3	-174.890E-12	600.825E-3	-21.5089E-3
-4.39470E-3	-178.369E-12	675.316E-3	-8.27100E-3	-175.845E-12	588.499E-3	8.35968E-3
-4.39970E-3	-178.237E-12	674.261E-3	-18.2221E-3	-176.053E-12	639.684E-3	23.4719E-3
-4.40470E-3	-178.570E-12	688.928E-3	-33.5580E-3	-176.798E-12	685.925E-3	6.00861E-3
-4.40970E-3	-178.747E-12	686.651E-3	-33.3548E-3	-177.700E-12	693.258E-3	-19.5247E-3
-4.41471E-3	-178.308E-12	658.425E-3	-11.6680E-3	-178.564E-12	684.393E-3	-44.6141E-3
-4.41971E-3	-178.285E-12	661.272E-3	-9.13133E-3	-179.368E-12	690.924E-3	-58.3305E-3
-4.42471E-3	-178.292E-12	676.898E-3	-24.6943E-3	-179.784E-12	703.308E-3	-34.8917E-3
-4.42971E-3	-178.921E-12	663.059E-3	-49.7367E-3	-180.297E-12	683.150E-3	-4.96454E-3
-4.43472E-3	-178.704E-12	629.493E-3	-72.2288E-3	-180.346E-12	649.734E-3	-8.48703E-3
-4.43972E-3	-179.279E-12	621.580E-3	-58.9056E-3	-180.685E-12	658.277E-3	-39.9598E-3
-4.44472E-3	-179.062E-12	635.995E-3	-22.5562E-3	-179.716E-12	675.421E-3	-53.5295E-3
-4.44972E-3	-179.739E-12	641.307E-3	-1.29799E-3	-179.988E-12	641.804E-3	-26.3304E-3
-4.45473E-3	-179.579E-12	644.332E-3	-17.7702E-3	-179.187E-12	622.148E-3	3.87445E-3
-4.45973E-3	-180.148E-12	648.456E-3	-39.3058E-3	-179.493E-12	648.766E-3	891.741E-6
-4.46473E-3	-180.193E-12	642.820E-3	-8.63320E-3	-178.939E-12	642.708E-3	-18.6977E-3
-4.46973E-3	-180.104E-12	624.129E-3	45.0532E-3	-180.071E-12	622.124E-3	-7.48998E-3
-4.47474E-3	-180.055E-12	610.807E-3	60.5716E-3	-180.071E-12	638.761E-3	13.9062E-3
-4.47974E-3	-180.266E-12	621.229E-3	32.1307E-3	-181.107E-12	660.805E-3	16.5241E-3
-4.48474E-3	-180.446E-12	633.460E-3	-8.47102E-3	-181.471E-12	666.552E-3	8.15169E-3
-4.48974E-3	-180.313E-12	621.414E-3	-23.5610E-3	-182.589E-12	669.840E-3	-14.7771E-3
-4.49475E-3	-180.416E-12	615.145E-3	-28.6403E-3	-182.778E-12	679.316E-3	-32.8541E-3
-4.49975E-3	-179.592E-12	634.108E-3	-30.6056E-3	-183.389E-12	692.107E-3	-29.1274E-3
-4.50475E-3	-179.889E-12	649.796E-3	-13.2646E-3	-183.817E-12	692.736E-3	-14.3276E-3
-4.50975E-3	-179.239E-12	646.504E-3	-1.42078E-3	-183.971E-12	685.355E-3	-4.41202E-3
-4.51476E-3	-179.822E-12	651.363E-3	-11.9354E-3	-184.142E-12	677.265E-3	499.014E-6
-4.51976E-3	-179.195E-12	665.456E-3	-39.7558E-3	-183.619E-12	668.655E-3	553.825E-6
-4.52476E-3	-179.752E-12	676.846E-3	-54.1790E-3	-183.456E-12	670.493E-3	-2.10124E-3
-4.52976E-3	-180.118E-12	677.605E-3	-27.2852E-3	-182.606E-12	676.263E-3	3.67048E-3
-4.53477E-3	-180.961E-12	653.650E-3	1.39402E-3	-182.011E-12	670.458E-3	-10.0899E-3
-4.53977E-3	-181.239E-12	629.333E-3	-1.91017E-3	-181.985E-12	659.775E-3	-49.8045E-3
-4.54477E-3	-181.741E-12	617.030E-3	4.77348E-3	-181.347E-12	640.937E-3	-61.1537E-3
-4.54977E-3	-182.302E-12	610.241E-3	30.2162E-3	-181.805E-12	628.209E-3	-25.1821E-3
-4.55478E-3	-182.874E-12	614.915E-3	35.7764E-3	-181.584E-12	643.170E-3	-12.5951E-3
-4.55978E-3	-183.314E-12	638.363E-3	17.2409E-3	-183.213E-12	658.992E-3	-46.0283E-3
-4.56478E-3	-183.311E-12	658.102E-3	-1.71839E-3	-182.901E-12	662.942E-3	-55.6436E-3
-4.56978E-3	-184.008E-12	642.085E-3	-14.5635E-3	-184.292E-12	655.730E-3	-48.5209E-3
-4.57479E-3	-184.393E-12	620.544E-3	-9.69979E-3	-184.838E-12	650.507E-3	-49.8523E-3
-4.57979E-3	-184.470E-12	630.077E-3	-7.04787E-3	-185.906E-12	661.505E-3	-44.4664E-3
-4.58479E-3	-184.743E-12	654.827E-3	-38.7234E-3	-185.686E-12	653.192E-3	-38.8559E-3
-4.58979E-3	-185.031E-12	663.921E-3	-56.4662E-3	-186.296E-12	624.757E-3	-28.3388E-3
-4.59480E-3	-185.176E-12	654.109E-3	-35.1972E-3	-186.393E-12	634.375E-3	-15.4509E-3
-4.59980E-3	-185.276E-12	658.487E-3	-16.0126E-3	-186.472E-12	663.043E-3	-16.3246E-3
-4.60480E-3	-185.824E-12	673.941E-3	-10.7207E-3	-186.022E-12	656.782E-3	-28.6574E-3
-4.60980E-3	-186.657E-12	664.961E-3	-13.7794E-3	-185.968E-12	631.735E-3	-24.0506E-3
-4.61481E-3	-187.488E-12	655.518E-3	-15.5491E-3	-185.605E-12	621.654E-3	-17.6980E-3
-4.61981E-3	-187.234E-12	652.736E-3	-10.5506E-3	-184.748E-12	625.375E-3	-40.1927E-3
-4.62481E-3	-188.373E-12	644.080E-3	-20.9058E-3	-184.764E-12	636.029E-3	-56.4743E-3
-4.62981E-3	-188.466E-12	650.769E-3	-47.0787E-3	-184.467E-12	665.739E-3	-50.5552E-3
-4.63482E-3	-188.846E-12	656.086E-3	-57.3171E-3	-184.047E-12	676.369E-3	-43.1111E-3
-4.63982E-3	-188.946E-12	659.015E-3	-35.5509E-3	-183.851E-12	649.698E-3	-30.0046E-3
-4.64482E-3	-189.151E-12	659.332E-3	-14.3965E-3	-184.407E-12	635.766E-3	-21.1836E-3
-4.64982E-3	-189.170E-12	659.582E-3	-16.4162E-3	-185.199E-12	640.063E-3	-43.3092E-3
-4.65483E-3	-188.963E-12	671.200E-3	-16.2305E-3	-185.985E-12	661.471E-3	-54.5904E-3
-4.65983E-3	-189.281E-12	661.157E-3	-10.8171E-3	-186.922E-12	696.195E-3	-40.5504E-3
-4.66483E-3	-189.282E-12	653.975E-3	-9.73735E-3	-188.021E-12	723.793E-3	-35.8813E-3
-4.66983E-3	-189.245E-12	671.297E-3	-15.7483E-3	-189.480E-12	721.458E-3	-30.6872E-3
-4.67484E-3	-189.070E-12	663.817E-3	-14.3936E-3	-189.854E-12	695.814E-3	-5.96925E-3
-4.67984E-3	-189.448E-12	647.619E-3	-3.99577E-3	-190.132E-12	669.240E-3	16.3711E-3
-4.68484E-3	-189.640E-12	640.848E-3	-2.35646E-3	-190.733E-12	643.659E-3	8.89912E-3
-4.68984E-3	-189.721E-12	626.073E-3	5.40953E-3	-190.419E-12	632.225E-3	-20.2619E-3
-4.69485E-3	-190.170E-12	630.671E-3	-4.78362E-3	-190.313E-12	635.086E-3	-44.8833E-3
-4.69985E-3	-190.704E-12	650.532E-3	-49.0049E-3	-189.747E-12	642.962E-3	-54.7193E-3
-4.70485E-3	-190.422E-12	648.140E-3	-67.1974E-3	-190.438E-12	649.367E-3	-49.8663E-3
-4.70985E-3	-190.578E-12	650.962E-3	-38.8277E-3	-189.864E-12	645.680E-3	-50.3987E-3
-4.71486E-3	-190.245E-12	675.805E-3	-10.5134E-3	-190.436E-12	627.527E-3	-52.6684E-3
-4.71986E-3	-191.270E-12	676.947E-3	-3.59672E-3	-190.519E-12	628.657E-3	-42.0396E-3
-4.72486E-3	-190.440E-12	671.028E-3	-1.71222E-3	-191.060E-12	670.075E-3	-40.3715E-3
-4.72986E-3	-191.037E-12	681.688E-3	2.60414E-3	-191.419E-12	685.815E-3	-43.5326E-3
-4.73487E-3	-190.907E-12	676.759E-3	140.128E-6	-191.661E-12	678.291E-3	-54.8949E-3
-4.73987E-3	-191.786E-12	662.160E-3	-13.6781E-3	-192.889E-12	686.558E-3	-90.2001E-3
-4.74487E-3	-190.754E-12	660.300E-3	-18.5273E-3	-193.807E-12	669.454E-3	-100.322E-3
-4.74988E-3	-191.365E-12	671.608E-3	-6.49340E-3	-194.188E-12	651.927E-3	-60.2045E-3
-4.75488E-3	-191.027E-12	678.785E-3	-3.47715E-3	-195.072E-12	668.576E-3	-32.2114E-3
-4.75988E-3	-191.518E-12	667.616E-3	-27.7593E-3	-195.737E-12	679.488E-3	-19.4945E-3
-4.76488E-3	-191.195E-12	648.885E-3	-54.9419E-3	-195.448E-12	678.630E-3	-1.41268E-3
-4.76988E-3	-191.669E-12	643.468E-3	-44.2520E-3	-195.385E-12	670.602E-3	7.50614E-3
-4.77489E-3	-192.691E-12	647.035E-3	-19.3737E-3	-195.502E-12	646.702E-3	1.67376E-3
-4.77989E-3	-193.441E-12	645.237E-3	-18.4202E-3	-195.361E-12	634.115E-3	-18.6507E-3
-4.78489E-3	-194.624E-12	642.104E-3	-18.9798E-3	-195.212E-12	667.619E-3	-44.1477E-3
-4.78989E-3	-195.564E-12	653.330E-3	-25.3383E-3	-194.514E-12	712.618E-3	-52.7285E-3
-4.79490E-3	-196.603E-12	664.490E-3	-23.8930E-3	-194.482E-12	693.659E-3	-38.0264E-3
-4.79990E-3	-196.889E-12	674.382E-3	-1.44070E-3	-193.991E-12	642.637E-3	-25.4629E-3
-4.80490E-3	-197.636E-12	676.324E-3	-10.6713E-3	-193.478E-12	624.490E-3	-15.0871E-3
-4.80990E-3	-197.496E-12	664.916E-3	-40.5436E-3	-193.005E-12	643.982E-3	-16.1208E-3
-4.81491E-3	-197.330E-12	676.165E-3	-43.8148E-3	-193.457E-12	674.006E-3	-23.6074E-3
-4.81991E-3	-196.705E-12	683.032E-3	-29.0112E-3	-193.650E-12	663.191E-3	-23.7302E-3
-4.82491E-3	-196.693E-12	657.897E-3	-18.7092E-3	-194.152E-12	633.002E-3	-28.9252E-3
-4.82991E-3	-196.270E-12	638.332E-3	-12.1023E-3	-194.777E-12	650.882E-3	-12.6044E-3
-4.83492E-3	-195.857E-12	654.973E-3	-4.55114E-3	-195.375E-12	672.791E-3	17.4155E-3
-4.83992E-3	-195.073E-12	684.104E-3	-14.3272E-3	-195.271E-12	655.872E-3	32.5020E-3
-4.84492E-3	-195.304E-12	671.777E-3	-23.7303E-3	-195.917E-12	660.953E-3	23.6099E-3
-4.84992E-3	-194.722E-12	652.472E-3	-2.89515E-3	-196.099E-12	674.060E-3	-14.4575E-3
-4.85493E-3	-194.910E-12	644.015E-3	4.25090E-3	-196.680E-12	642.760E-3	-47.5524E-3
-4.85993E-3	-194.805E-12	620.384E-3	-3.61020E-3	-196.297E-12	635.936E-3	-39.9547E-3
-4.86493E-3	-195.320E-12	610.657E-3	-4.91131E-3	-196.663E-12	671.135E-3	-15.8285E-3
-4.86993E-3	-195.363E-12	621.060E-3	-4.55311E-3	-195.982E-12	676.227E-3	-9.30499E-3
-4.87494E-3	-196.672E-12	641.815E-3	-8.98216E-3	-196.283E-12	672.214E-3	-16.1276E-3
-4.87994E-3	-197.337E-12	679.680E-3	-34.6236E-3	-196.313E-12	685.131E-3	-33.2828E-3
-4.88494E-3	-198.054E-12	706.729E-3	-39.0071E-3	-196.315E-12	680.382E-3	-56.9151E-3
-4.88995E-3	-198.465E-12	693.222E-3	-18.0031E-3	-195.991E-12	662.519E-3	-65.0239E-3
-4.89495E-3	-199.151E-12	681.261E-3	-31.8318E-3	-197.016E-12	653.594E-3	-36.0092E-3
-4.89995E-3	-199.252E-12	678.222E-3	-36.5010E-3	-197.086E-12	636.370E-3	-17.0329E-3
-4.90495E-3	-198.942E-12	653.427E-3	-12.1973E-3	-198.096E-12	618.602E-3	-40.5752E-3
-4.90995E-3	-198.894E-12	643.625E-3	-18.8748E-3	-198.742E-12	630.743E-3	-73.0886E-3
-4.91496E-3	-198.985E-12	662.475E-3	-38.2351E-3	-200.113E-12	656.051E-3	-88.8186E-3
-4.91996E-3	-198.705E-12	679.822E-3	-33.1456E-3	-201.010E-12	670.410E-3	-78.4996E-3
-4.92496E-3	-197.810E-12	675.058E-3	-19.5240E-3	-202.151E-12	675.971E-3	-56.6302E-3
-4.92996E-3	-197.695E-12	656.054E-3	-22.3183E-3	-202.554E-12	671.697E-3	-43.9003E-3
-4.93497E-3	-197.857E-12	639.136E-3	-40.3650E-3	-203.123E-12	658.791E-3	-35.2798E-3
-4.93997E-3	-198.051E-12	617.720E-3	-56.8852E-3	-203.226E-12	665.626E-3	-40.5021E-3
-4.94497E-3	-198.418E-12	609.552E-3	-61.3882E-3	-203.024E-12	680.757E-3	-48.6593E-3
-4.94997E-3	-198.446E-12	636.101E-3	-39.5623E-3	-202.686E-12	655.006E-3	-25.6300E-3
-4.95498E-3	-199.511E-12	660.680E-3	-10.0594E-3	-202.564E-12	630.353E-3	7.08731E-3
-4.95998E-3	-200.288E-12	652.632E-3	-24.5476E-3	-202.587E-12	640.178E-3	277.274E-6
-4.96498E-3	-200.911E-12	648.547E-3	-52.1584E-3	-202.423E-12	662.668E-3	-17.6304E-3
-4.96998E-3	-201.969E-12	657.954E-3	-34.0688E-3	-202.329E-12	686.602E-3	-23.0222E-3
-4.97499E-3	-203.196E-12	671.570E-3	-11.4087E-3	-203.263E-12	682.041E-3	-35.4701E-3
-4.97999E-3	-203.510E-12	681.159E-3	-6.34534E-3	-203.324E-12	671.643E-3	-35.8181E-3
-4.98499E-3	-203.973E-12	662.023E-3	-12.9538E-3	-203.402E-12	673.536E-3	-25.3119E-3
-4.98999E-3	-205.022E-12	655.450E-3	-30.7159E-3	-203.235E-12	672.342E-3	-22.9376E-3
-4.99500E-3	-204.549E-12	683.794E-3	-27.6773E-3	-204.630E-12	669.090E-3	-32.7664E-3
-5.00000E-3	-204.953E-12	685.470E-3	-25.3902E-3	-204.707E-12	669.179E-3	-36.1124E-3
