Experiment	bias spectroscopy	
Date	19.01.2016 19:48:14	
User		
X (m)	50.8159E-9	
Y (m)	257.094E-9	
Z (m)	-132.674E-9	
Z offset (m)	0E+0	
Settling time (s)	200E-6	
Integration time (s)	5E-3	
Z-Ctrl hold	TRUE	
Final Z (m)	N/A	
Filter type	None	
Order		
Cutoff frq		
Comment01	MnPc/Pb(111)	
Comment02	dz =00pm	
Comment03	7 Sweeps	
Comment04	MagField =0.T	
Comment05	Divider 1:10	
Comment06	Setpoint:5mV,200 pA	
Comment07	Lockin: 50uVrms,5ms,5mV	
Comment08	Gain:9; 912Hz modulation	
Comment09	T=1.06K	
Bias>Bias (V)	5E-3	
Bias>Calibration (V/V)	81.475E-3	
Bias>Offset (V)	1.046E-3	
Bias Spectroscopy>Sweep Start (V)	5E-3	
Bias Spectroscopy>Sweep End (V)	-5E-3	
Bias Spectroscopy>Num Pixel	2000	
Bias Spectroscopy>Z Avg time (s)	500E-3	
Bias Spectroscopy>Z offset (m)	0E+0	
Bias Spectroscopy>1st Settling time (s)	500E-3	
Bias Spectroscopy>Settling time (s)	200E-6	
Bias Spectroscopy>Integration time (s)	5E-3	
Bias Spectroscopy>End Settling time (s)	500E-3	
Bias Spectroscopy>Z control time (s)	500E-3	
Bias Spectroscopy>Max Slew rate (V/s)	Inf	
Bias Spectroscopy>backward sweep	TRUE	
Bias Spectroscopy>Z-controller hold	TRUE	
Bias Spectroscopy>Number of sweeps	7	
Bias Spectroscopy>Channels	Current (A);X% LockIn (V);Y% LockIn (V)	
Bias Spectroscopy>Reset Bias	TRUE	
Bias Spectroscopy>Record final Z	FALSE	
Bias Spectroscopy>Lock-In run	FALSE	
Bias Spectroscopy>Sweep mode	Linear	
Bias Spectroscopy>MultiLine Settings : Segment Start (V), Segment End (V), Settling (s), Integration (s), Steps (xn)	100E-3,3.3E-3,100E-6,10E-3,2500;3.3E-3,-3.3E-3,100E-6,10E-3,10;-3.3E-3,-100E-3,100E-6,10E-3,2500	
Current>Current (A)	200.61E-12	
Current>Calibration (A/V)	999.99900E-12	
Current>Offset (A)	-455.429E-15	
Current>Gain	LN 10^9	
Z-Controller>Z (m)	-132.671E-9	
Z-Controller>Controller name	log Current	
Z-Controller>Controller status	ON	
Z-Controller>Setpoint	200E-12	
Z-Controller>Setpoint unit	A	
Z-Controller>P gain	2.96994E-12	
Z-Controller>I gain	67.0321E-9	
Z-Controller>Time const (s)	44.3062E-6	
Z-Controller>TipLift (m)	0E+0	
Z-Controller>Switch off delay (s)	50E-3	
Current (A)	200.442E-12	
Z (m)	-132.671E-9	

[DATA]
Bias calc (V)	Current (A)	X% LockIn (V)	Y% LockIn (V)	Current [bwd] (A)	X% LockIn [bwd] (V)	Y% LockIn [bwd] (V)
5.00000E-3	186.407E-12	605.822E-3	-64.9253E-3	187.201E-12	599.039E-3	772.844E-6
4.99500E-3	187.872E-12	603.887E-3	-57.2212E-3	186.066E-12	584.394E-3	2.28756E-3
4.98999E-3	188.134E-12	597.267E-3	-18.1906E-3	186.465E-12	613.450E-3	-14.6060E-3
4.98499E-3	184.664E-12	594.737E-3	-422.371E-6	187.092E-12	639.253E-3	-37.5913E-3
4.97999E-3	183.760E-12	603.808E-3	15.1786E-3	188.026E-12	590.573E-3	-32.1274E-3
4.97499E-3	184.983E-12	577.015E-3	17.1340E-3	186.334E-12	540.661E-3	-19.7275E-3
4.96998E-3	187.537E-12	566.498E-3	-4.77301E-3	185.886E-12	559.675E-3	-50.9653E-3
4.96498E-3	184.209E-12	579.563E-3	-427.246E-6	185.381E-12	607.678E-3	-70.6180E-3
4.95998E-3	181.992E-12	585.658E-3	1.96383E-3	185.061E-12	645.981E-3	-44.2747E-3
4.95498E-3	183.132E-12	595.328E-3	-9.16214E-3	184.239E-12	648.390E-3	-22.0119E-3
4.94997E-3	186.614E-12	588.311E-3	678.641E-6	184.574E-12	622.467E-3	-31.9742E-3
4.94497E-3	186.354E-12	555.737E-3	-27.1488E-3	184.165E-12	600.136E-3	-30.2629E-3
4.93997E-3	183.064E-12	566.196E-3	-72.8677E-3	183.392E-12	584.773E-3	-12.8360E-3
4.93497E-3	182.986E-12	601.127E-3	-80.8511E-3	182.767E-12	569.149E-3	-10.5516E-3
4.92996E-3	185.506E-12	593.457E-3	-45.4368E-3	183.989E-12	558.408E-3	7.58170E-3
4.92496E-3	188.357E-12	597.984E-3	-35.4185E-3	182.979E-12	568.540E-3	39.5885E-3
4.91996E-3	183.067E-12	618.524E-3	-47.8299E-3	183.272E-12	586.076E-3	31.4981E-3
4.91496E-3	181.935E-12	621.350E-3	-52.5807E-3	184.354E-12	616.972E-3	-14.9743E-3
4.90995E-3	183.203E-12	607.965E-3	-61.6105E-3	185.173E-12	650.951E-3	-16.9411E-3
4.90495E-3	185.852E-12	608.906E-3	-44.1683E-3	184.272E-12	648.178E-3	27.3595E-3
4.89995E-3	182.607E-12	617.414E-3	-2.25113E-3	185.373E-12	628.653E-3	34.1628E-3
4.89495E-3	179.604E-12	618.605E-3	18.3466E-3	187.397E-12	652.207E-3	-11.8254E-3
4.88995E-3	179.629E-12	619.827E-3	2.63166E-3	187.123E-12	685.803E-3	-43.0686E-3
4.88494E-3	181.105E-12	598.195E-3	-6.85851E-3	185.540E-12	643.995E-3	-25.8088E-3
4.87994E-3	180.650E-12	556.385E-3	-38.8468E-3	184.506E-12	567.530E-3	19.8403E-3
4.87494E-3	179.108E-12	582.997E-3	-57.8643E-3	186.076E-12	549.179E-3	36.9307E-3
4.86993E-3	178.775E-12	636.124E-3	-22.5291E-3	184.103E-12	571.167E-3	10.5076E-3
4.86493E-3	179.460E-12	616.509E-3	5.64913E-3	183.186E-12	583.221E-3	7.71372E-3
4.85993E-3	180.325E-12	610.121E-3	-9.07581E-3	182.083E-12	617.200E-3	20.7450E-3
4.85493E-3	179.777E-12	648.360E-3	-25.9617E-3	184.183E-12	641.495E-3	5.63598E-3
4.84992E-3	179.825E-12	667.964E-3	-18.4526E-3	184.458E-12	631.211E-3	-10.4083E-3
4.84492E-3	181.049E-12	643.903E-3	-10.3652E-3	181.950E-12	639.257E-3	-6.69763E-3
4.83992E-3	181.078E-12	621.048E-3	-11.5852E-3	182.884E-12	649.334E-3	-10.6448E-3
4.83492E-3	181.413E-12	616.808E-3	-13.3764E-3	182.957E-12	632.392E-3	2.11366E-3
4.82991E-3	181.073E-12	630.414E-3	-6.58685E-3	184.580E-12	618.064E-3	17.7819E-3
4.82491E-3	179.537E-12	639.967E-3	-10.5895E-3	183.084E-12	630.516E-3	10.4862E-3
4.81991E-3	180.551E-12	627.009E-3	-24.6162E-3	184.282E-12	638.793E-3	1.97721E-3
4.81491E-3	182.169E-12	601.929E-3	-46.4615E-3	184.159E-12	640.569E-3	6.98846E-3
4.80990E-3	180.412E-12	597.781E-3	-51.7184E-3	183.736E-12	652.441E-3	40.0873E-3
4.80490E-3	176.054E-12	638.561E-3	-40.5064E-3	184.202E-12	664.215E-3	23.3228E-3
4.79990E-3	176.952E-12	653.539E-3	-28.0961E-3	182.981E-12	637.694E-3	-21.8135E-3
4.79490E-3	182.362E-12	645.856E-3	-24.3130E-3	183.671E-12	613.160E-3	-22.9000E-3
4.78989E-3	183.122E-12	653.694E-3	-10.4279E-3	182.118E-12	622.919E-3	-29.9856E-3
4.78489E-3	176.164E-12	661.419E-3	18.6909E-3	180.693E-12	606.042E-3	-47.7139E-3
4.77989E-3	176.391E-12	643.571E-3	23.9239E-3	179.233E-12	581.819E-3	-36.5471E-3
4.77489E-3	180.470E-12	620.664E-3	16.1352E-3	180.166E-12	580.217E-3	-28.3930E-3
4.76988E-3	181.938E-12	603.296E-3	-8.38136E-3	179.737E-12	572.439E-3	-45.3836E-3
4.76488E-3	178.070E-12	605.915E-3	-24.3642E-3	177.252E-12	564.695E-3	-71.8683E-3
4.75988E-3	176.751E-12	612.751E-3	-25.7976E-3	175.469E-12	586.044E-3	-58.7374E-3
4.75488E-3	180.178E-12	612.094E-3	-36.7401E-3	179.099E-12	619.282E-3	-31.8553E-3
4.74988E-3	183.862E-12	633.980E-3	-54.4384E-3	182.599E-12	630.178E-3	-39.6138E-3
4.74487E-3	183.118E-12	627.253E-3	-41.6669E-3	177.016E-12	610.369E-3	-31.0569E-3
4.73987E-3	180.796E-12	604.168E-3	-27.8470E-3	174.446E-12	584.647E-3	-28.0343E-3
4.73487E-3	177.393E-12	596.254E-3	-22.0727E-3	175.713E-12	566.920E-3	-27.9346E-3
4.72986E-3	178.104E-12	599.194E-3	-1.93431E-3	179.606E-12	584.312E-3	4.63250E-3
4.72486E-3	177.715E-12	612.238E-3	9.88335E-3	177.882E-12	604.789E-3	7.99209E-3
4.71986E-3	178.271E-12	631.100E-3	14.7833E-3	175.645E-12	579.750E-3	-7.15269E-3
4.71486E-3	175.010E-12	625.888E-3	-1.01195E-3	175.680E-12	572.517E-3	14.2974E-3
4.70985E-3	176.454E-12	616.971E-3	-5.44942E-3	179.165E-12	579.689E-3	11.2966E-3
4.70485E-3	177.667E-12	622.209E-3	4.56808E-3	178.330E-12	581.688E-3	-9.46508E-3
4.69985E-3	176.766E-12	619.199E-3	9.08079E-3	173.444E-12	611.218E-3	-3.70472E-3
4.69485E-3	175.380E-12	608.439E-3	-5.98533E-3	173.480E-12	634.555E-3	-13.3847E-3
4.68984E-3	171.373E-12	602.013E-3	-18.5476E-3	175.311E-12	618.185E-3	-33.4344E-3
4.68484E-3	173.372E-12	609.430E-3	-29.6206E-3	176.526E-12	598.565E-3	-25.3854E-3
4.67984E-3	174.646E-12	614.250E-3	-32.0211E-3	172.891E-12	579.468E-3	-12.1523E-3
4.67484E-3	174.140E-12	638.080E-3	-16.3963E-3	170.984E-12	559.752E-3	2.27209E-3
4.66983E-3	173.005E-12	646.428E-3	-20.8604E-3	172.980E-12	553.346E-3	18.0814E-3
4.66483E-3	172.202E-12	643.735E-3	-32.3936E-3	175.730E-12	571.709E-3	5.85921E-3
4.65983E-3	174.004E-12	644.281E-3	-13.8270E-3	173.647E-12	617.474E-3	-13.1670E-3
4.65483E-3	174.506E-12	618.854E-3	22.0649E-3	171.283E-12	651.978E-3	-24.4064E-3
4.64982E-3	174.917E-12	599.771E-3	4.85788E-3	170.679E-12	639.977E-3	-13.1340E-3
4.64482E-3	172.633E-12	611.986E-3	-11.6880E-3	173.700E-12	607.974E-3	7.65570E-3
4.63982E-3	174.817E-12	598.110E-3	7.70356E-3	173.237E-12	608.382E-3	7.96609E-3
4.63482E-3	174.781E-12	557.078E-3	-9.54142E-3	170.506E-12	607.567E-3	-16.6610E-3
4.62981E-3	174.542E-12	577.180E-3	-47.1740E-3	168.216E-12	596.678E-3	-34.0948E-3
4.62481E-3	172.654E-12	624.232E-3	-33.7851E-3	171.132E-12	599.254E-3	-7.42872E-3
4.61981E-3	173.541E-12	640.787E-3	-18.9525E-3	171.250E-12	607.180E-3	5.11344E-3
4.61481E-3	175.006E-12	635.473E-3	-35.7615E-3	169.340E-12	603.221E-3	-18.7439E-3
4.60980E-3	173.712E-12	630.916E-3	-28.8949E-3	168.122E-12	584.876E-3	-25.5680E-3
4.60480E-3	172.866E-12	610.240E-3	-31.9343E-3	170.887E-12	590.452E-3	-10.5515E-3
4.59980E-3	171.417E-12	591.023E-3	-43.1160E-3	171.286E-12	615.052E-3	-19.1161E-3
4.59480E-3	172.153E-12	603.027E-3	-10.0341E-3	169.930E-12	628.879E-3	-31.1717E-3
4.58979E-3	173.490E-12	609.984E-3	21.0613E-3	169.775E-12	615.258E-3	-24.9862E-3
4.58479E-3	172.472E-12	610.859E-3	5.93721E-3	169.929E-12	606.427E-3	-23.8645E-3
4.57979E-3	171.717E-12	637.532E-3	2.53192E-3	170.343E-12	629.576E-3	-14.5580E-3
4.57479E-3	169.707E-12	643.871E-3	-6.38116E-3	170.779E-12	638.866E-3	8.25502E-3
4.56978E-3	168.740E-12	609.829E-3	-40.4739E-3	172.105E-12	629.244E-3	9.11144E-3
4.56478E-3	169.278E-12	607.218E-3	-41.9298E-3	171.572E-12	627.889E-3	1.48316E-3
4.55978E-3	169.599E-12	603.709E-3	-24.6401E-3	170.653E-12	649.079E-3	9.29850E-3
4.55478E-3	169.590E-12	595.387E-3	-27.7853E-3	170.939E-12	679.048E-3	4.69629E-3
4.54977E-3	167.680E-12	595.685E-3	-23.2510E-3	173.369E-12	658.919E-3	-11.8026E-3
4.54477E-3	167.278E-12	568.925E-3	-23.9049E-3	172.531E-12	610.034E-3	-10.4873E-3
4.53977E-3	167.649E-12	548.448E-3	-35.1707E-3	170.219E-12	591.287E-3	-3.00657E-3
4.53477E-3	168.678E-12	574.283E-3	5.16764E-3	169.224E-12	602.704E-3	-19.8236E-3
4.52976E-3	168.969E-12	604.135E-3	24.1383E-3	169.196E-12	637.091E-3	-22.0179E-3
4.52476E-3	167.763E-12	608.969E-3	-5.36459E-3	171.198E-12	638.589E-3	-7.04226E-3
4.51976E-3	167.497E-12	614.802E-3	-22.8742E-3	170.222E-12	593.946E-3	-2.95382E-3
4.51476E-3	167.002E-12	609.572E-3	-11.4535E-3	168.370E-12	567.360E-3	11.6893E-3
4.50975E-3	168.565E-12	600.801E-3	178.430E-6	167.265E-12	562.344E-3	19.5971E-3
4.50475E-3	166.471E-12	610.374E-3	75.6133E-6	168.959E-12	560.418E-3	7.32062E-3
4.49975E-3	166.287E-12	605.754E-3	12.3929E-3	169.345E-12	583.286E-3	-5.13416E-3
4.49475E-3	166.116E-12	567.997E-3	5.93601E-3	168.227E-12	613.143E-3	-15.8201E-3
4.48974E-3	165.150E-12	572.744E-3	-27.5077E-3	168.611E-12	614.341E-3	-14.1241E-3
4.48474E-3	164.354E-12	600.285E-3	-22.8876E-3	170.032E-12	608.528E-3	-6.50629E-3
4.47974E-3	163.841E-12	594.596E-3	-4.31234E-3	170.122E-12	623.837E-3	-20.3410E-3
4.47474E-3	164.587E-12	593.721E-3	-18.8372E-3	168.852E-12	649.019E-3	8.96085E-3
4.46973E-3	162.752E-12	601.404E-3	-13.3848E-3	170.345E-12	640.399E-3	64.9066E-3
4.46473E-3	162.892E-12	578.231E-3	2.48940E-3	170.141E-12	606.305E-3	67.0861E-3
4.45973E-3	162.739E-12	564.616E-3	18.0284E-3	170.296E-12	604.975E-3	36.7854E-3
4.45473E-3	162.267E-12	605.436E-3	21.9012E-3	167.547E-12	623.726E-3	8.34615E-3
4.44972E-3	162.090E-12	650.829E-3	-5.18945E-3	165.910E-12	623.731E-3	61.8542E-6
4.44472E-3	164.316E-12	676.813E-3	-20.8512E-3	167.837E-12	611.244E-3	-18.8301E-3
4.43972E-3	165.941E-12	661.113E-3	6.56900E-3	166.987E-12	603.129E-3	-45.5409E-3
4.43472E-3	161.989E-12	630.533E-3	9.13316E-3	164.119E-12	607.820E-3	-40.1993E-3
4.42971E-3	163.760E-12	617.713E-3	-18.9930E-3	163.036E-12	602.704E-3	-38.4848E-3
4.42471E-3	164.387E-12	608.635E-3	-11.7513E-3	165.840E-12	606.866E-3	-40.1055E-3
4.41971E-3	166.573E-12	597.163E-3	2.69955E-3	167.218E-12	642.394E-3	-28.2544E-3
4.41471E-3	164.614E-12	605.963E-3	14.0158E-3	164.710E-12	629.870E-3	-33.9760E-3
4.40970E-3	163.635E-12	632.247E-3	16.5674E-3	161.936E-12	586.941E-3	-15.1889E-3
4.40470E-3	163.150E-12	647.852E-3	-2.82969E-3	164.051E-12	604.897E-3	15.9016E-3
4.39970E-3	164.801E-12	655.680E-3	-16.8591E-3	165.643E-12	643.583E-3	3.12224E-3
4.39470E-3	163.501E-12	661.435E-3	-18.9461E-3	164.372E-12	639.370E-3	-22.1368E-3
4.38969E-3	161.606E-12	653.264E-3	-37.5910E-3	162.827E-12	626.837E-3	-38.3712E-3
4.38469E-3	161.094E-12	620.437E-3	-25.0004E-3	164.299E-12	627.573E-3	-47.8668E-3
4.37969E-3	159.325E-12	597.305E-3	14.2053E-3	165.579E-12	614.071E-3	-36.5566E-3
4.37469E-3	160.951E-12	584.747E-3	8.06008E-3	164.718E-12	598.186E-3	-5.16445E-3
4.36968E-3	159.400E-12	583.544E-3	-30.1502E-3	163.935E-12	592.643E-3	5.00915E-3
4.36468E-3	159.140E-12	598.344E-3	-58.1364E-3	164.369E-12	581.735E-3	20.2951E-3
4.35968E-3	158.275E-12	620.538E-3	-44.8036E-3	163.389E-12	580.724E-3	36.4398E-3
4.35468E-3	159.292E-12	627.513E-3	-11.0199E-3	161.267E-12	597.331E-3	9.16840E-3
4.34967E-3	159.457E-12	608.530E-3	7.12747E-3	160.230E-12	595.061E-3	-12.7543E-3
4.34467E-3	159.476E-12	596.296E-3	-4.00090E-3	159.497E-12	597.687E-3	6.00272E-3
4.33967E-3	159.864E-12	605.338E-3	-18.5078E-3	158.446E-12	629.182E-3	15.8698E-3
4.33467E-3	160.374E-12	618.402E-3	-21.4736E-3	156.517E-12	621.846E-3	-1.57475E-3
4.32966E-3	162.110E-12	614.233E-3	-17.1540E-3	157.370E-12	579.609E-3	-7.23751E-3
4.32466E-3	162.259E-12	610.166E-3	-20.0694E-3	157.204E-12	585.527E-3	1.00759E-3
4.31966E-3	160.953E-12	614.843E-3	-32.3212E-3	156.640E-12	612.424E-3	4.60029E-3
4.31466E-3	161.816E-12	612.539E-3	-45.6469E-3	155.403E-12	614.395E-3	-1.20554E-3
4.30965E-3	163.088E-12	598.498E-3	-50.5578E-3	157.204E-12	612.066E-3	-1.86096E-3
4.30465E-3	163.724E-12	604.352E-3	-45.5725E-3	158.307E-12	603.747E-3	-8.63051E-3
4.29965E-3	160.406E-12	621.487E-3	-57.8683E-3	157.951E-12	599.990E-3	-18.5369E-3
4.29465E-3	158.803E-12	625.173E-3	-55.5784E-3	158.133E-12	594.539E-3	-4.25624E-3
4.28964E-3	160.099E-12	618.047E-3	-31.4322E-3	157.959E-12	588.723E-3	13.8027E-3
4.28464E-3	159.929E-12	599.874E-3	-8.66144E-3	159.505E-12	606.594E-3	-2.51130E-3
4.27964E-3	158.291E-12	579.447E-3	-4.09561E-3	160.731E-12	624.680E-3	-47.6742E-3
4.27464E-3	154.977E-12	589.297E-3	-19.6752E-3	159.807E-12	642.145E-3	-51.8055E-3
4.26963E-3	154.619E-12	615.133E-3	-42.6005E-3	158.678E-12	644.353E-3	-19.8988E-3
4.26463E-3	157.246E-12	590.737E-3	-43.5154E-3	158.770E-12	601.921E-3	-23.4557E-3
4.25963E-3	156.454E-12	572.724E-3	-16.6971E-3	160.152E-12	593.169E-3	-42.6843E-3
4.25463E-3	155.568E-12	591.118E-3	-4.36307E-3	159.526E-12	616.112E-3	-24.9023E-3
4.24962E-3	153.487E-12	607.401E-3	-13.2874E-3	157.562E-12	621.421E-3	6.21278E-3
4.24462E-3	155.225E-12	624.919E-3	-16.1960E-3	156.659E-12	636.770E-3	577.480E-6
4.23962E-3	155.803E-12	630.879E-3	-3.43155E-3	157.647E-12	622.699E-3	-21.8292E-3
4.23462E-3	156.932E-12	604.682E-3	-58.8285E-6	157.778E-12	589.486E-3	-13.1516E-3
4.22961E-3	155.976E-12	589.941E-3	-3.79217E-3	156.370E-12	579.425E-3	-2.45741E-3
4.22461E-3	156.675E-12	602.807E-3	-10.3544E-3	153.820E-12	595.612E-3	8.12690E-3
4.21961E-3	157.091E-12	602.057E-3	-7.20711E-3	155.101E-12	628.364E-3	24.0418E-3
4.21461E-3	158.616E-12	597.967E-3	-795.141E-6	156.955E-12	623.617E-3	3.87143E-3
4.20960E-3	156.712E-12	607.086E-3	13.4860E-3	157.522E-12	615.097E-3	-18.8841E-3
4.20460E-3	155.036E-12	613.649E-3	16.6895E-3	153.732E-12	652.237E-3	-26.5814E-3
4.19960E-3	154.962E-12	597.488E-3	-13.9968E-3	153.472E-12	666.589E-3	-32.2811E-3
4.19460E-3	154.685E-12	576.165E-3	-33.9985E-3	156.008E-12	649.213E-3	-28.6099E-3
4.18959E-3	154.830E-12	554.003E-3	-28.0450E-3	157.879E-12	639.976E-3	-9.46136E-3
4.18459E-3	153.498E-12	556.477E-3	-10.5600E-3	155.209E-12	627.049E-3	12.9396E-3
4.17959E-3	152.059E-12	589.881E-3	-15.8078E-3	152.632E-12	610.737E-3	5.28934E-3
4.17459E-3	152.565E-12	610.320E-3	-40.4979E-3	155.403E-12	611.336E-3	-19.9537E-3
4.16958E-3	151.949E-12	600.739E-3	-56.8987E-3	160.147E-12	623.280E-3	-30.9080E-3
4.16458E-3	151.958E-12	576.446E-3	-38.2078E-3	157.534E-12	600.149E-3	-25.0418E-3
4.15958E-3	151.633E-12	571.701E-3	-15.7855E-3	153.796E-12	557.829E-3	-16.7681E-3
4.15458E-3	152.763E-12	594.973E-3	-36.8107E-3	153.295E-12	548.837E-3	-18.4678E-3
4.14957E-3	152.961E-12	607.299E-3	-61.3934E-3	156.173E-12	582.383E-3	-41.1700E-3
4.14457E-3	151.966E-12	599.012E-3	-38.6310E-3	156.806E-12	626.556E-3	-59.2380E-3
4.13957E-3	151.407E-12	592.473E-3	-3.38498E-3	153.874E-12	617.031E-3	-51.4791E-3
4.13457E-3	149.782E-12	591.895E-3	5.11032E-3	151.871E-12	584.304E-3	-29.2372E-3
4.12956E-3	150.051E-12	607.850E-3	6.09487E-3	153.246E-12	604.653E-3	-4.56989E-3
4.12456E-3	150.908E-12	602.261E-3	6.10510E-3	155.757E-12	623.878E-3	269.009E-6
4.11956E-3	150.288E-12	592.780E-3	-2.24073E-3	153.631E-12	616.183E-3	-3.91118E-3
4.11456E-3	150.202E-12	590.507E-3	-31.4050E-3	151.330E-12	629.953E-3	-2.11165E-3
4.10955E-3	149.921E-12	572.065E-3	-56.2388E-3	150.483E-12	628.595E-3	-7.91642E-3
4.10455E-3	150.418E-12	579.071E-3	-40.5558E-3	153.451E-12	601.805E-3	-6.47073E-3
4.09955E-3	150.734E-12	602.378E-3	-2.04106E-3	152.531E-12	577.008E-3	6.02362E-3
4.09455E-3	151.397E-12	606.106E-3	-140.887E-6	148.672E-12	576.707E-3	10.5383E-3
4.08954E-3	152.108E-12	591.972E-3	-20.0279E-3	148.004E-12	596.273E-3	21.2980E-3
4.08454E-3	150.174E-12	593.032E-3	-15.3526E-3	148.644E-12	587.828E-3	17.9266E-3
4.07954E-3	150.573E-12	607.007E-3	3.56133E-3	150.601E-12	584.237E-3	-27.9788E-3
4.07454E-3	151.416E-12	619.495E-3	18.3647E-3	149.996E-12	601.628E-3	-65.9698E-3
4.06953E-3	152.585E-12	621.375E-3	22.4318E-3	148.114E-12	589.859E-3	-51.0057E-3
4.06453E-3	149.616E-12	602.146E-3	-131.531E-6	148.415E-12	591.257E-3	-22.4046E-3
4.05953E-3	147.740E-12	584.671E-3	-27.0754E-3	150.039E-12	609.423E-3	-2.08677E-3
4.05453E-3	148.388E-12	582.010E-3	-22.4239E-3	150.738E-12	592.470E-3	14.7503E-3
4.04952E-3	150.338E-12	586.843E-3	-16.2083E-3	148.673E-12	568.267E-3	15.3877E-3
4.04452E-3	149.513E-12	598.911E-3	-12.9274E-3	148.549E-12	559.467E-3	19.6389E-3
4.03952E-3	146.672E-12	603.466E-3	-5.84377E-3	149.271E-12	574.207E-3	27.8557E-3
4.03452E-3	147.199E-12	592.743E-3	5.73319E-3	149.048E-12	593.649E-3	5.15144E-3
4.02951E-3	148.238E-12	585.212E-3	5.13061E-3	148.361E-12	581.484E-3	-30.7973E-3
4.02451E-3	147.647E-12	578.731E-3	-33.2548E-3	147.040E-12	555.866E-3	-49.6769E-3
4.01951E-3	146.180E-12	588.309E-3	-70.9596E-3	145.758E-12	569.439E-3	-55.7839E-3
4.01451E-3	146.295E-12	611.626E-3	-76.4263E-3	144.077E-12	597.799E-3	-30.1303E-3
4.00950E-3	147.515E-12	609.025E-3	-64.6265E-3	145.549E-12	597.143E-3	-18.3546E-3
4.00450E-3	147.600E-12	587.280E-3	-40.8963E-3	145.217E-12	570.164E-3	-35.9097E-3
3.99950E-3	148.981E-12	595.845E-3	-3.87462E-3	143.227E-12	544.228E-3	-29.4120E-3
3.99450E-3	147.798E-12	615.846E-3	-8.01917E-3	141.589E-12	567.571E-3	-18.1031E-3
3.98949E-3	147.706E-12	614.992E-3	-33.2498E-3	142.564E-12	593.966E-3	-25.0575E-3
3.98449E-3	147.441E-12	610.102E-3	-18.0296E-3	142.625E-12	579.531E-3	-15.4589E-3
3.97949E-3	148.157E-12	606.523E-3	-7.93068E-3	142.822E-12	583.783E-3	10.3340E-3
3.97449E-3	147.731E-12	626.606E-3	-14.0982E-3	142.981E-12	618.952E-3	6.41363E-3
3.96948E-3	145.996E-12	637.784E-3	-5.38071E-3	142.168E-12	630.451E-3	-22.0300E-3
3.96448E-3	144.496E-12	610.203E-3	-17.4070E-3	143.555E-12	624.918E-3	-33.2312E-3
3.95948E-3	144.774E-12	582.724E-3	-26.9342E-3	145.341E-12	620.538E-3	-27.3293E-3
3.95448E-3	145.782E-12	595.163E-3	-9.43118E-3	146.276E-12	594.247E-3	-33.0116E-3
3.94947E-3	143.035E-12	638.038E-3	-3.03278E-3	146.270E-12	571.708E-3	-41.4414E-3
3.94447E-3	141.413E-12	640.396E-3	6.13566E-3	145.416E-12	588.237E-3	-24.0481E-3
3.93947E-3	142.380E-12	607.026E-3	1.74681E-3	146.383E-12	616.569E-3	8.47746E-3
3.93447E-3	143.540E-12	616.400E-3	174.603E-6	147.582E-12	626.617E-3	2.62124E-3
3.92946E-3	142.144E-12	617.520E-3	24.5974E-3	148.828E-12	630.975E-3	-22.8378E-3
3.92446E-3	140.271E-12	590.264E-3	14.0807E-3	145.696E-12	638.863E-3	-29.1226E-3
3.91946E-3	142.355E-12	597.782E-3	-23.3119E-3	143.694E-12	625.083E-3	-27.0400E-3
3.91446E-3	143.287E-12	590.753E-3	-16.9508E-3	144.774E-12	592.544E-3	-36.2482E-3
3.90945E-3	143.379E-12	573.807E-3	2.67289E-3	145.679E-12	592.928E-3	-33.3179E-3
3.90445E-3	142.918E-12	567.887E-3	-13.5800E-3	142.693E-12	613.888E-3	12.3183E-3
3.89945E-3	144.173E-12	582.657E-3	-29.5505E-3	140.892E-12	627.254E-3	18.5527E-3
3.89445E-3	144.828E-12	615.085E-3	-34.8612E-3	140.354E-12	626.240E-3	-17.4375E-3
3.88944E-3	146.288E-12	623.174E-3	-47.6080E-3	142.422E-12	619.019E-3	-3.55830E-3
3.88444E-3	146.018E-12	613.662E-3	-59.4550E-3	141.786E-12	609.717E-3	22.8027E-3
3.87944E-3	143.660E-12	608.406E-3	-54.2396E-3	140.570E-12	598.108E-3	1.70527E-3
3.87444E-3	143.063E-12	616.596E-3	-31.9127E-3	140.815E-12	623.128E-3	-21.1011E-3
3.86943E-3	144.163E-12	629.677E-3	-2.68488E-3	141.855E-12	646.582E-3	-22.5478E-3
3.86443E-3	144.875E-12	628.072E-3	4.45313E-3	142.411E-12	635.357E-3	-23.9165E-3
3.85943E-3	143.649E-12	631.633E-3	-4.75853E-3	143.167E-12	627.247E-3	-27.5747E-3
3.85443E-3	142.192E-12	645.417E-3	-15.8605E-3	144.039E-12	621.752E-3	-27.6104E-3
3.84942E-3	140.867E-12	620.031E-3	-13.8863E-3	144.868E-12	622.267E-3	-16.0395E-3
3.84442E-3	139.919E-12	594.906E-3	7.46496E-3	147.196E-12	631.812E-3	-4.23254E-3
3.83942E-3	139.274E-12	596.433E-3	22.4957E-3	145.773E-12	639.177E-3	-1.06595E-3
3.83442E-3	137.507E-12	595.133E-3	15.7173E-3	144.250E-12	646.228E-3	-884.512E-6
3.82941E-3	137.506E-12	610.916E-3	-10.9989E-3	144.609E-12	631.209E-3	-9.54263E-3
3.82441E-3	137.592E-12	638.460E-3	-12.6943E-3	146.036E-12	606.672E-3	-13.3787E-3
3.81941E-3	138.530E-12	630.865E-3	9.74780E-3	146.412E-12	597.617E-3	-6.37999E-3
3.81441E-3	138.005E-12	604.094E-3	-907.043E-6	144.798E-12	590.087E-3	4.06798E-3
3.80940E-3	137.448E-12	589.937E-3	-22.3339E-3	141.574E-12	595.478E-3	19.3334E-3
3.80440E-3	137.466E-12	592.165E-3	-18.1958E-3	140.260E-12	602.518E-3	16.5662E-3
3.79940E-3	138.366E-12	606.122E-3	-8.33689E-3	139.421E-12	591.233E-3	-4.07063E-3
3.79440E-3	140.198E-12	614.182E-3	-2.86742E-3	140.200E-12	592.933E-3	-20.9260E-3
3.78939E-3	139.223E-12	617.075E-3	-1.42006E-3	138.391E-12	609.935E-3	-30.1462E-3
3.78439E-3	138.055E-12	619.249E-3	18.5061E-3	135.702E-12	605.638E-3	-27.7771E-3
3.77939E-3	138.357E-12	628.134E-3	28.9029E-3	135.455E-12	596.875E-3	-34.2586E-3
3.77439E-3	138.548E-12	627.721E-3	4.39943E-3	136.815E-12	614.950E-3	-41.4821E-3
3.76938E-3	138.818E-12	604.722E-3	-15.6976E-3	137.263E-12	620.448E-3	-34.4518E-3
3.76438E-3	138.757E-12	603.329E-3	-47.4487E-3	135.482E-12	603.322E-3	-25.9358E-3
3.75938E-3	138.007E-12	636.787E-3	-54.6001E-3	134.289E-12	607.054E-3	-20.0312E-3
3.75438E-3	138.826E-12	648.821E-3	-18.6828E-3	136.097E-12	617.161E-3	-19.3480E-3
3.74937E-3	138.008E-12	643.820E-3	-10.2150E-3	137.889E-12	604.490E-3	-27.1165E-3
3.74437E-3	136.631E-12	645.103E-3	-25.1127E-3	137.234E-12	611.810E-3	-40.6112E-3
3.73937E-3	135.759E-12	619.223E-3	-33.5039E-3	135.317E-12	649.670E-3	-47.3693E-3
3.73437E-3	135.674E-12	597.240E-3	-32.7572E-3	136.427E-12	646.615E-3	-32.7251E-3
3.72936E-3	136.485E-12	614.601E-3	-19.2230E-3	137.507E-12	600.743E-3	-7.37218E-3
3.72436E-3	135.168E-12	635.235E-3	-11.3690E-3	137.665E-12	583.651E-3	2.08218E-3
3.71936E-3	136.045E-12	648.220E-3	-17.5650E-3	134.926E-12	599.486E-3	2.62659E-3
3.71436E-3	135.944E-12	654.827E-3	-26.7111E-3	134.448E-12	609.274E-3	6.88265E-3
3.70935E-3	136.928E-12	640.035E-3	-28.4057E-3	133.973E-12	596.216E-3	16.8940E-3
3.70435E-3	135.022E-12	601.106E-3	-15.6866E-3	134.943E-12	582.823E-3	23.3114E-3
3.69935E-3	135.402E-12	558.156E-3	-11.8401E-3	133.968E-12	591.916E-3	16.7391E-3
3.69435E-3	134.992E-12	573.575E-3	-4.34439E-3	132.219E-12	604.893E-3	-3.93107E-3
3.68934E-3	134.890E-12	617.951E-3	10.1931E-3	131.063E-12	610.114E-3	-19.5967E-3
3.68434E-3	134.358E-12	611.674E-3	2.17712E-3	132.298E-12	603.425E-3	-17.1002E-3
3.67934E-3	133.482E-12	606.808E-3	-12.0613E-3	134.547E-12	610.780E-3	-22.6417E-3
3.67434E-3	134.225E-12	620.849E-3	-14.6633E-3	133.231E-12	612.060E-3	-31.8945E-3
3.66933E-3	133.870E-12	627.204E-3	-23.3702E-3	131.487E-12	591.622E-3	-21.9459E-3
3.66433E-3	134.883E-12	631.739E-3	-33.8663E-3	131.319E-12	599.677E-3	-11.6266E-3
3.65933E-3	134.583E-12	618.010E-3	-25.7157E-3	133.086E-12	601.057E-3	-18.1801E-3
3.65433E-3	133.811E-12	596.671E-3	-20.6559E-3	131.721E-12	599.403E-3	-3.78566E-3
3.64932E-3	133.089E-12	588.051E-3	-16.8112E-3	131.886E-12	620.413E-3	15.0056E-3
3.64432E-3	132.222E-12	580.488E-3	-26.9320E-3	131.601E-12	608.940E-3	72.0562E-6
3.63932E-3	133.320E-12	599.993E-3	-48.5456E-3	133.070E-12	585.988E-3	-23.5635E-3
3.63432E-3	132.865E-12	621.083E-3	-41.7893E-3	133.482E-12	609.479E-3	-36.7960E-3
3.62931E-3	131.991E-12	601.744E-3	-32.5367E-3	132.833E-12	633.317E-3	-48.9403E-3
3.62431E-3	129.745E-12	596.756E-3	-36.6878E-3	132.494E-12	633.297E-3	-39.0749E-3
3.61931E-3	129.815E-12	612.938E-3	-32.1859E-3	132.925E-12	630.426E-3	-8.25539E-3
3.61431E-3	129.773E-12	603.371E-3	-26.8197E-3	132.982E-12	632.919E-3	-12.2486E-3
3.60930E-3	130.031E-12	572.501E-3	-24.1414E-3	132.451E-12	648.940E-3	-30.1270E-3
3.60430E-3	128.461E-12	582.569E-3	-27.1756E-3	132.481E-12	652.850E-3	-16.5534E-3
3.59930E-3	128.833E-12	617.541E-3	-24.5457E-3	131.608E-12	624.370E-3	-1.99828E-3
3.59430E-3	128.544E-12	622.583E-3	2.28096E-3	131.281E-12	606.771E-3	-8.60960E-3
3.58929E-3	128.113E-12	604.479E-3	15.5098E-3	131.388E-12	624.964E-3	-7.31489E-3
3.58429E-3	127.847E-12	607.065E-3	-6.56435E-3	129.290E-12	631.646E-3	4.62065E-3
3.57929E-3	127.907E-12	632.816E-3	-26.3307E-3	128.565E-12	619.003E-3	20.3596E-3
3.57429E-3	128.812E-12	622.069E-3	-18.8071E-3	126.975E-12	627.068E-3	24.7083E-3
3.56928E-3	129.666E-12	615.256E-3	-24.3171E-3	128.121E-12	641.848E-3	-2.24691E-3
3.56428E-3	129.924E-12	638.997E-3	-43.8242E-3	128.120E-12	619.636E-3	-19.9199E-3
3.55928E-3	128.417E-12	641.519E-3	-48.1640E-3	126.160E-12	599.121E-3	-5.03614E-3
3.55428E-3	129.578E-12	632.457E-3	-36.3483E-3	124.985E-12	599.495E-3	10.1109E-3
3.54927E-3	130.969E-12	634.996E-3	-9.93814E-3	126.154E-12	600.193E-3	4.98157E-3
3.54427E-3	130.386E-12	634.892E-3	1.88325E-3	127.684E-12	627.812E-3	-13.2959E-3
3.53927E-3	127.755E-12	641.639E-3	-14.9533E-3	127.453E-12	654.278E-3	-27.1726E-3
3.53427E-3	126.623E-12	658.289E-3	-24.5617E-3	126.954E-12	648.383E-3	-30.6396E-3
3.52926E-3	128.083E-12	656.464E-3	-24.8304E-3	127.354E-12	634.306E-3	-41.3163E-3
3.52426E-3	127.042E-12	634.915E-3	-34.0708E-3	130.370E-12	637.229E-3	-35.7960E-3
3.51926E-3	125.440E-12	631.728E-3	-24.0030E-3	130.606E-12	643.025E-3	-20.4211E-3
3.51426E-3	124.780E-12	636.899E-3	-8.54778E-3	129.049E-12	628.019E-3	-31.9283E-3
3.50925E-3	125.820E-12	622.818E-3	-18.4741E-3	127.804E-12	621.709E-3	-43.3649E-3
3.50425E-3	124.809E-12	629.747E-3	-30.5364E-3	129.156E-12	624.385E-3	-43.4109E-3
3.49925E-3	124.532E-12	651.992E-3	-13.9496E-3	130.208E-12	615.175E-3	-17.9293E-3
3.49425E-3	122.472E-12	642.664E-3	1.51679E-3	127.971E-12	614.127E-3	13.3016E-3
3.48924E-3	124.186E-12	610.263E-3	-5.75677E-3	125.844E-12	617.621E-3	-5.05980E-3
3.48424E-3	125.931E-12	597.319E-3	-2.77015E-3	125.233E-12	604.301E-3	-29.6557E-3
3.47924E-3	124.207E-12	605.264E-3	988.142E-6	126.205E-12	581.037E-3	-7.15865E-3
3.47424E-3	124.140E-12	625.924E-3	-9.43283E-3	125.189E-12	572.438E-3	4.84270E-3
3.46923E-3	125.087E-12	643.479E-3	-11.4697E-3	122.652E-12	587.990E-3	-6.14707E-3
3.46423E-3	128.399E-12	628.043E-3	-5.95523E-3	120.938E-12	610.150E-3	-13.5477E-3
3.45923E-3	127.389E-12	607.148E-3	-5.04783E-3	121.835E-12	622.189E-3	-14.9339E-3
3.45423E-3	126.506E-12	602.214E-3	6.75238E-3	123.774E-12	615.521E-3	-4.22150E-3
3.44922E-3	125.507E-12	595.815E-3	10.6676E-3	122.099E-12	608.366E-3	1.56377E-3
3.44422E-3	127.919E-12	585.335E-3	9.75194E-3	120.996E-12	606.955E-3	3.07363E-3
3.43922E-3	128.582E-12	601.919E-3	5.70971E-3	121.956E-12	618.795E-3	4.23288E-3
3.43422E-3	125.066E-12	633.595E-3	-25.4907E-3	124.347E-12	639.929E-3	6.87967E-3
3.42921E-3	123.976E-12	636.795E-3	-47.8940E-3	125.313E-12	654.018E-3	-12.6765E-3
3.42421E-3	124.580E-12	618.843E-3	-37.1700E-3	123.942E-12	654.980E-3	-41.3617E-3
3.41921E-3	127.006E-12	617.219E-3	-7.12637E-3	123.683E-12	637.850E-3	-35.9446E-3
3.41421E-3	122.936E-12	627.062E-3	12.0937E-3	124.968E-12	631.901E-3	-15.4670E-3
3.40920E-3	121.150E-12	630.612E-3	5.55756E-3	126.218E-12	632.966E-3	-3.72352E-3
3.40420E-3	121.380E-12	633.076E-3	-9.99639E-3	124.793E-12	625.425E-3	7.87149E-3
3.39920E-3	124.297E-12	617.416E-3	-27.7850E-3	123.241E-12	639.054E-3	-198.765E-6
3.39420E-3	122.986E-12	610.555E-3	-46.2145E-3	122.174E-12	646.435E-3	-17.1774E-3
3.38919E-3	120.576E-12	633.806E-3	-40.2991E-3	124.001E-12	624.454E-3	-21.8315E-3
3.38419E-3	120.348E-12	632.286E-3	-24.7719E-3	123.385E-12	614.763E-3	-37.0030E-3
3.37919E-3	122.325E-12	595.850E-3	-25.4142E-3	121.816E-12	605.891E-3	-46.3362E-3
3.37419E-3	123.932E-12	583.304E-3	-39.0070E-3	118.837E-12	598.778E-3	-43.2930E-3
3.36918E-3	121.914E-12	602.243E-3	-45.0291E-3	117.980E-12	605.335E-3	-44.9729E-3
3.36418E-3	121.328E-12	629.378E-3	-25.9194E-3	118.596E-12	601.958E-3	-47.6522E-3
3.35918E-3	121.669E-12	644.732E-3	-6.86761E-3	117.932E-12	596.208E-3	-45.9257E-3
3.35418E-3	123.809E-12	642.338E-3	-7.54381E-3	117.043E-12	599.805E-3	-44.3138E-3
3.34917E-3	123.970E-12	627.173E-3	-16.1237E-3	116.127E-12	595.203E-3	-39.0982E-3
3.34417E-3	122.100E-12	617.392E-3	-11.0221E-3	117.126E-12	594.746E-3	-34.4243E-3
3.33917E-3	121.071E-12	622.465E-3	-5.64367E-3	118.814E-12	616.336E-3	-42.0650E-3
3.33417E-3	122.323E-12	626.755E-3	-8.26951E-3	118.919E-12	628.315E-3	-57.2669E-3
3.32916E-3	122.059E-12	636.757E-3	1.89255E-3	117.718E-12	640.881E-3	-47.6484E-3
3.32416E-3	119.254E-12	633.027E-3	7.97447E-3	117.814E-12	645.989E-3	-9.11499E-3
3.31916E-3	119.236E-12	621.519E-3	-4.22332E-3	119.782E-12	624.988E-3	-111.930E-6
3.31416E-3	119.575E-12	621.303E-3	-17.5720E-3	121.125E-12	613.186E-3	-15.4133E-3
3.30915E-3	120.185E-12	624.157E-3	-28.6339E-3	119.430E-12	633.118E-3	-23.1891E-3
3.30415E-3	117.384E-12	622.570E-3	-22.0901E-3	117.138E-12	644.451E-3	-36.7876E-3
3.29915E-3	116.649E-12	612.586E-3	-10.2540E-3	117.347E-12	619.969E-3	-30.7250E-3
3.29415E-3	116.873E-12	597.857E-3	-14.8141E-3	119.351E-12	602.178E-3	-2.80244E-3
3.28914E-3	117.600E-12	596.213E-3	-9.83105E-3	118.723E-12	598.100E-3	-4.68954E-3
3.28414E-3	116.881E-12	603.548E-3	20.4577E-3	116.610E-12	587.396E-3	-29.9543E-3
3.27914E-3	114.620E-12	606.359E-3	25.6841E-3	114.956E-12	585.793E-3	-39.9176E-3
3.27414E-3	115.183E-12	619.992E-3	-7.53777E-3	115.288E-12	593.225E-3	-37.0945E-3
3.26913E-3	115.707E-12	615.375E-3	-18.4908E-3	116.144E-12	593.372E-3	-27.7713E-3
3.26413E-3	115.245E-12	588.282E-3	-19.8723E-3	114.384E-12	609.784E-3	-17.9374E-3
3.25913E-3	115.059E-12	593.734E-3	-21.9056E-3	113.637E-12	626.806E-3	-34.7934E-3
3.25413E-3	114.132E-12	628.030E-3	-10.4987E-3	113.857E-12	630.624E-3	-62.1192E-3
3.24912E-3	115.281E-12	648.902E-3	-7.70510E-3	113.606E-12	628.844E-3	-52.0552E-3
3.24412E-3	114.732E-12	648.154E-3	-12.2638E-3	113.829E-12	612.298E-3	-40.7298E-3
3.23912E-3	116.007E-12	623.068E-3	-11.7490E-3	113.300E-12	583.594E-3	-33.7644E-3
3.23412E-3	115.456E-12	601.104E-3	-9.76431E-3	113.127E-12	570.524E-3	-5.77670E-3
3.22911E-3	115.776E-12	611.198E-3	-22.0771E-3	114.149E-12	579.177E-3	14.2614E-3
3.22411E-3	114.859E-12	616.041E-3	-26.7736E-3	113.383E-12	574.220E-3	18.0548E-3
3.21911E-3	115.302E-12	601.598E-3	-20.9923E-3	113.021E-12	591.105E-3	3.69761E-3
3.21411E-3	116.070E-12	599.722E-3	-24.5592E-3	113.525E-12	627.365E-3	-5.01484E-3
3.20910E-3	114.379E-12	624.249E-3	-15.8860E-3	115.408E-12	639.039E-3	3.21531E-3
3.20410E-3	114.875E-12	641.356E-3	-1.74230E-3	115.839E-12	629.320E-3	-2.96359E-3
3.19910E-3	114.479E-12	635.092E-3	-16.7625E-3	115.006E-12	621.905E-3	-16.0119E-3
3.19410E-3	115.718E-12	632.872E-3	-19.0080E-3	115.555E-12	635.185E-3	-12.8423E-3
3.18909E-3	114.045E-12	628.563E-3	206.352E-6	115.693E-12	626.696E-3	-13.7890E-3
3.18409E-3	114.150E-12	609.366E-3	-3.65509E-3	115.955E-12	600.795E-3	-13.3246E-3
3.17909E-3	115.010E-12	613.372E-3	-20.5923E-3	114.129E-12	617.780E-3	-17.3761E-3
3.17409E-3	115.348E-12	634.034E-3	-32.2371E-3	114.584E-12	651.030E-3	-27.0927E-3
3.16908E-3	114.187E-12	635.067E-3	-27.9892E-3	114.769E-12	645.587E-3	-16.3299E-3
3.16408E-3	113.740E-12	636.931E-3	-8.54570E-3	114.100E-12	626.861E-3	-9.10498E-3
3.15908E-3	114.781E-12	645.001E-3	-2.50038E-3	113.114E-12	618.380E-3	-11.9740E-3
3.15408E-3	114.237E-12	660.833E-3	-28.9681E-3	110.763E-12	619.693E-3	-9.48046E-3
3.14907E-3	113.479E-12	674.764E-3	-57.0987E-3	112.481E-12	619.851E-3	-9.43270E-3
3.14407E-3	114.297E-12	667.985E-3	-52.4002E-3	111.374E-12	622.368E-3	-21.6337E-3
3.13907E-3	115.770E-12	651.494E-3	-36.2511E-3	111.595E-12	628.334E-3	-40.6406E-3
3.13407E-3	115.005E-12	657.598E-3	-30.2552E-3	110.404E-12	618.198E-3	-47.3478E-3
3.12906E-3	115.591E-12	681.987E-3	-20.6446E-3	111.499E-12	601.095E-3	-38.9461E-3
3.12406E-3	117.133E-12	674.165E-3	5.40022E-3	112.385E-12	612.298E-3	-32.4915E-3
3.11906E-3	115.734E-12	643.807E-3	13.2068E-3	111.193E-12	648.107E-3	-37.9759E-3
3.11406E-3	115.170E-12	638.480E-3	-3.10584E-3	110.319E-12	658.327E-3	-41.5287E-3
3.10905E-3	114.684E-12	655.097E-3	-1.82110E-3	110.322E-12	654.308E-3	-33.9843E-3
3.10405E-3	115.078E-12	671.028E-3	-1.36210E-3	112.465E-12	640.413E-3	-30.3473E-3
3.09905E-3	115.010E-12	676.565E-3	-24.3311E-3	112.458E-12	624.679E-3	-34.5029E-3
3.09405E-3	113.382E-12	655.748E-3	-42.4939E-3	112.329E-12	643.824E-3	-35.3506E-3
3.08904E-3	112.036E-12	630.058E-3	-38.9773E-3	111.945E-12	658.235E-3	-24.6510E-3
3.08404E-3	111.440E-12	626.778E-3	-25.1155E-3	111.988E-12	636.743E-3	-1.56461E-3
3.07904E-3	111.661E-12	628.209E-3	-31.9643E-3	112.640E-12	631.710E-3	-3.63673E-3
3.07404E-3	110.905E-12	624.502E-3	-53.4807E-3	110.641E-12	642.995E-3	-32.3634E-3
3.06903E-3	109.987E-12	630.184E-3	-41.0160E-3	111.024E-12	639.263E-3	-46.9776E-3
3.06403E-3	108.553E-12	622.282E-3	-13.1763E-3	110.432E-12	632.098E-3	-32.6561E-3
3.05903E-3	109.970E-12	617.061E-3	-6.28431E-3	110.104E-12	629.256E-3	-24.3730E-3
3.05403E-3	111.346E-12	630.699E-3	-23.6231E-3	109.088E-12	619.776E-3	-41.6454E-3
3.04902E-3	110.367E-12	638.112E-3	-37.9146E-3	106.340E-12	601.321E-3	-49.0538E-3
3.04402E-3	110.110E-12	647.495E-3	-27.9598E-3	106.450E-12	594.742E-3	-26.0961E-3
3.03902E-3	109.572E-12	657.805E-3	-12.8729E-3	106.970E-12	600.167E-3	-7.38057E-3
3.03402E-3	110.996E-12	651.363E-3	-19.1800E-3	107.452E-12	611.398E-3	-17.5762E-3
3.02901E-3	110.652E-12	640.993E-3	-27.9945E-3	104.875E-12	621.566E-3	-36.6880E-3
3.02401E-3	110.518E-12	655.592E-3	-16.6649E-3	104.682E-12	616.707E-3	-45.4743E-3
3.01901E-3	110.490E-12	671.519E-3	-3.92551E-3	104.983E-12	600.928E-3	-25.4393E-3
3.01401E-3	109.716E-12	679.769E-3	-4.40904E-3	107.136E-12	606.660E-3	-7.31093E-3
3.00900E-3	109.096E-12	691.023E-3	-5.69460E-3	105.922E-12	613.012E-3	-6.65601E-3
3.00400E-3	108.471E-12	687.590E-3	244.403E-6	105.244E-12	605.938E-3	6.53358E-3
2.99900E-3	108.576E-12	667.369E-3	-12.9601E-3	105.575E-12	621.607E-3	8.73400E-3
2.99400E-3	106.695E-12	658.523E-3	-28.7817E-3	106.774E-12	630.334E-3	1.59146E-3
2.98899E-3	104.913E-12	652.007E-3	-32.6616E-3	107.724E-12	628.880E-3	23.5321E-3
2.98399E-3	104.216E-12	645.140E-3	-38.8696E-3	105.681E-12	637.074E-3	14.5145E-3
2.97899E-3	104.545E-12	662.743E-3	-28.9694E-3	106.040E-12	619.288E-3	-39.9270E-3
2.97399E-3	104.196E-12	666.742E-3	-16.7259E-3	106.909E-12	606.658E-3	-55.1211E-3
2.96898E-3	102.300E-12	635.612E-3	-22.1900E-3	107.101E-12	647.298E-3	-39.4346E-3
2.96398E-3	102.885E-12	611.668E-3	-12.8855E-3	105.461E-12	658.425E-3	-20.6145E-3
2.95898E-3	102.603E-12	611.166E-3	-1.07590E-3	104.351E-12	630.681E-3	5.18154E-3
2.95398E-3	103.164E-12	615.498E-3	-18.0269E-3	103.896E-12	633.329E-3	-3.96201E-3
2.94897E-3	102.015E-12	617.972E-3	-31.3309E-3	103.040E-12	633.126E-3	-39.2314E-3
2.94397E-3	102.982E-12	630.358E-3	-24.7915E-3	102.106E-12	611.846E-3	-30.0520E-3
2.93897E-3	102.084E-12	649.899E-3	-6.55224E-3	101.048E-12	602.180E-3	-1.35911E-3
2.93397E-3	103.326E-12	639.071E-3	5.37435E-3	101.079E-12	596.670E-3	-640.181E-6
2.92896E-3	103.083E-12	622.534E-3	-11.8169E-3	100.329E-12	599.096E-3	-6.60731E-3
2.92396E-3	103.467E-12	646.061E-3	-38.5229E-3	100.074E-12	624.054E-3	-8.25595E-3
2.91896E-3	102.739E-12	655.334E-3	-45.4660E-3	101.305E-12	630.859E-3	-1.19222E-3
2.91396E-3	101.367E-12	637.708E-3	-43.9267E-3	101.107E-12	626.793E-3	-5.29598E-3
2.90895E-3	102.512E-12	640.944E-3	-42.3560E-3	101.399E-12	642.610E-3	-22.4246E-3
2.90395E-3	101.478E-12	637.541E-3	-14.0332E-3	101.114E-12	662.010E-3	-30.0880E-3
2.89895E-3	102.126E-12	609.575E-3	9.80030E-3	102.375E-12	665.654E-3	-28.0133E-3
2.89395E-3	100.281E-12	597.766E-3	-8.56622E-3	102.023E-12	666.501E-3	-22.6660E-3
2.88894E-3	100.731E-12	610.687E-3	-29.4601E-3	101.969E-12	671.942E-3	-18.4149E-3
2.88394E-3	100.279E-12	620.982E-3	-26.4600E-3	101.862E-12	656.105E-3	-14.9513E-3
2.87894E-3	100.095E-12	612.861E-3	-6.80858E-3	102.982E-12	640.318E-3	-15.3109E-3
2.87394E-3	100.099E-12	614.718E-3	3.75759E-3	103.373E-12	641.662E-3	-12.8281E-3
2.86893E-3	99.0531E-12	628.538E-3	-4.21816E-3	101.240E-12	641.234E-3	-3.18833E-3
2.86393E-3	99.1537E-12	620.963E-3	-21.4890E-3	101.387E-12	637.367E-3	-7.51174E-3
2.85893E-3	98.3240E-12	606.212E-3	-37.4324E-3	100.606E-12	632.236E-3	-17.8894E-3
2.85393E-3	99.6489E-12	611.509E-3	-24.3884E-3	100.860E-12	634.328E-3	-15.4697E-3
2.84892E-3	98.6791E-12	627.847E-3	-12.4936E-3	98.9696E-12	651.393E-3	-8.38569E-3
2.84392E-3	99.5014E-12	643.819E-3	-15.7848E-3	98.0288E-12	665.116E-3	-2.06522E-3
2.83892E-3	98.9569E-12	654.472E-3	-6.59633E-3	97.8480E-12	656.089E-3	-1.33830E-3
2.83392E-3	98.1847E-12	647.235E-3	688.729E-6	98.3561E-12	636.356E-3	2.38027E-3
2.82891E-3	98.0216E-12	637.390E-3	-2.93278E-3	98.3582E-12	628.698E-3	-8.31862E-3
2.82391E-3	98.2612E-12	631.392E-3	-7.07631E-3	97.4305E-12	631.628E-3	-29.7485E-3
2.81891E-3	99.8311E-12	621.709E-3	-15.1243E-3	97.7635E-12	642.633E-3	-38.1219E-3
2.81391E-3	97.4326E-12	625.543E-3	-33.1626E-3	98.3392E-12	653.586E-3	-35.6423E-3
2.80890E-3	97.5963E-12	633.579E-3	-20.5068E-3	99.0599E-12	646.952E-3	-18.3103E-3
2.80390E-3	97.1929E-12	629.003E-3	10.1012E-3	98.6574E-12	658.603E-3	-20.8004E-3
2.79890E-3	97.0657E-12	624.012E-3	9.12781E-3	97.8269E-12	682.054E-3	-56.7467E-3
2.79390E-3	96.2508E-12	629.443E-3	-7.76515E-3	97.3202E-12	683.981E-3	-60.7824E-3
2.78889E-3	95.7061E-12	635.199E-3	-9.68441E-3	98.4554E-12	674.206E-3	-29.4883E-3
2.78389E-3	96.5674E-12	628.353E-3	-1.49884E-3	99.5382E-12	656.155E-3	-16.8278E-3
2.77889E-3	97.0097E-12	621.788E-3	-4.94291E-3	98.0052E-12	648.340E-3	-11.5338E-3
2.77389E-3	96.3383E-12	630.514E-3	-8.23875E-3	97.1289E-12	662.293E-3	-12.9942E-3
2.76888E-3	94.9383E-12	633.518E-3	-6.97611E-3	97.6774E-12	666.043E-3	-22.7407E-3
2.76388E-3	95.6973E-12	630.092E-3	-5.71408E-3	98.0950E-12	648.939E-3	-19.8014E-3
2.75888E-3	95.8391E-12	616.322E-3	-12.0282E-3	97.0781E-12	635.383E-3	-10.2859E-3
2.75388E-3	95.6846E-12	600.213E-3	-41.4734E-3	95.8498E-12	639.213E-3	-2.05656E-3
2.74887E-3	95.1686E-12	625.204E-3	-59.3508E-3	95.7294E-12	644.381E-3	1.73733E-3
2.74387E-3	95.1016E-12	643.536E-3	-34.0422E-3	95.5267E-12	637.196E-3	-2.51994E-3
2.73887E-3	95.2069E-12	629.758E-3	-18.4012E-3	95.2241E-12	642.132E-3	-15.5849E-3
2.73387E-3	94.1606E-12	638.220E-3	-21.3720E-3	94.7590E-12	635.644E-3	-20.7659E-3
2.72886E-3	94.8184E-12	647.763E-3	759.085E-6	93.3200E-12	614.298E-3	-17.4187E-3
2.72386E-3	94.1586E-12	640.823E-3	16.2766E-3	92.1898E-12	607.841E-3	-17.3619E-3
2.71886E-3	93.6460E-12	640.113E-3	7.90220E-3	92.6625E-12	600.376E-3	-20.5714E-3
2.71386E-3	92.8964E-12	638.510E-3	2.80493E-3	92.3395E-12	602.132E-3	-26.8706E-3
2.70885E-3	94.0381E-12	638.872E-3	-4.16781E-3	90.8834E-12	621.308E-3	-32.0667E-3
2.70385E-3	94.8192E-12	638.114E-3	-14.5215E-3	91.0254E-12	642.203E-3	-12.0609E-3
2.69885E-3	93.8528E-12	643.579E-3	-17.0172E-3	91.6452E-12	661.561E-3	11.0977E-3
2.69385E-3	93.0492E-12	651.691E-3	-19.2891E-3	91.4570E-12	676.789E-3	5.51458E-3
2.68884E-3	92.7024E-12	637.690E-3	-26.0690E-3	91.3487E-12	666.717E-3	-6.71486E-3
2.68384E-3	94.0030E-12	625.656E-3	-35.6415E-3	91.5818E-12	642.403E-3	-12.1275E-3
2.67884E-3	93.2217E-12	628.393E-3	-42.7034E-3	91.5520E-12	642.990E-3	-7.62609E-3
2.67384E-3	91.8357E-12	638.368E-3	-43.9918E-3	92.1581E-12	660.020E-3	517.805E-6
2.66883E-3	90.8275E-12	664.814E-3	-40.4495E-3	91.8520E-12	658.693E-3	-3.92859E-3
2.66383E-3	91.7599E-12	685.169E-3	-27.6270E-3	92.5199E-12	645.181E-3	-21.0977E-3
2.65883E-3	93.0079E-12	677.356E-3	-24.9383E-3	92.7372E-12	625.361E-3	-22.4313E-3
2.65383E-3	91.3099E-12	657.741E-3	-33.9161E-3	91.5821E-12	612.846E-3	-9.62769E-3
2.64882E-3	89.4744E-12	633.215E-3	-27.1912E-3	91.1854E-12	622.009E-3	-11.6235E-3
2.64382E-3	89.1890E-12	639.262E-3	-28.9872E-3	90.6733E-12	633.881E-3	-25.7082E-3
2.63882E-3	90.4639E-12	666.297E-3	-44.0083E-3	90.3179E-12	640.791E-3	-25.3928E-3
2.63382E-3	90.0632E-12	667.020E-3	-37.3674E-3	89.8101E-12	635.478E-3	-11.2357E-3
2.62881E-3	88.9813E-12	667.408E-3	-9.56945E-3	89.2487E-12	635.976E-3	4.36660E-3
2.62381E-3	89.2716E-12	672.654E-3	18.5522E-3	89.0749E-12	646.524E-3	1.76665E-3
2.61881E-3	89.6132E-12	661.603E-3	12.9254E-3	87.8297E-12	646.902E-3	-14.0659E-3
2.61381E-3	90.2910E-12	645.406E-3	-15.3429E-3	87.9313E-12	650.200E-3	-19.9452E-3
2.60880E-3	90.1041E-12	650.163E-3	-29.2518E-3	87.9335E-12	651.108E-3	-34.1050E-3
2.60380E-3	90.5896E-12	661.529E-3	-22.8368E-3	87.8178E-12	636.478E-3	-45.5350E-3
2.59880E-3	89.7099E-12	664.945E-3	-2.88211E-3	87.5771E-12	625.980E-3	-49.1945E-3
2.59380E-3	89.4997E-12	668.247E-3	11.6279E-3	87.9557E-12	609.918E-3	-42.1640E-3
2.58879E-3	89.3078E-12	672.587E-3	7.09606E-3	88.1201E-12	610.039E-3	-26.1448E-3
2.58379E-3	88.8597E-12	682.515E-3	-1.96605E-3	86.9628E-12	644.910E-3	-25.9201E-3
2.57879E-3	87.8035E-12	674.967E-3	6.39300E-3	88.3414E-12	655.379E-3	-37.5936E-3
2.57379E-3	87.1182E-12	654.757E-3	1.35227E-3	87.8284E-12	658.361E-3	-44.3527E-3
2.56878E-3	87.6659E-12	654.963E-3	-25.3359E-3	88.8692E-12	677.065E-3	-26.0470E-3
2.56378E-3	86.6447E-12	671.391E-3	-32.4083E-3	86.9683E-12	682.525E-3	3.40249E-3
2.55878E-3	86.4579E-12	679.767E-3	-17.2358E-3	87.3614E-12	668.154E-3	11.4709E-3
2.55378E-3	85.3041E-12	665.308E-3	-4.48850E-3	88.0884E-12	641.944E-3	8.67646E-3
2.54877E-3	84.8247E-12	651.002E-3	-10.0022E-3	88.1524E-12	624.477E-3	13.5676E-3
2.54377E-3	84.1558E-12	655.563E-3	-26.5576E-3	87.1000E-12	637.606E-3	13.7180E-3
2.53877E-3	84.3436E-12	664.426E-3	-34.5273E-3	86.0430E-12	658.828E-3	9.20012E-3
2.53377E-3	84.2265E-12	668.645E-3	-30.0294E-3	86.5852E-12	663.365E-3	-5.36904E-3
2.52876E-3	84.5532E-12	656.093E-3	-13.9269E-3	86.6987E-12	658.296E-3	-22.8424E-3
2.52376E-3	84.8904E-12	642.002E-3	8.68598E-3	86.5058E-12	644.316E-3	-27.0498E-3
2.51876E-3	84.5074E-12	651.195E-3	8.12984E-3	85.2493E-12	647.082E-3	-27.5637E-3
2.51376E-3	84.8338E-12	668.641E-3	-8.76051E-3	84.8952E-12	656.633E-3	-34.3226E-3
2.50875E-3	84.5756E-12	672.303E-3	-12.7908E-3	85.1383E-12	658.963E-3	-37.3214E-3
2.50375E-3	84.7721E-12	670.146E-3	-3.92031E-3	86.2678E-12	675.945E-3	-42.0690E-3
2.49875E-3	84.2494E-12	684.123E-3	-5.03157E-3	86.0656E-12	688.126E-3	-50.4939E-3
2.49375E-3	84.7428E-12	689.975E-3	-22.7284E-3	84.5665E-12	676.936E-3	-33.4468E-3
2.48874E-3	84.4130E-12	678.236E-3	-27.5562E-3	84.6649E-12	661.074E-3	-11.2676E-3
2.48374E-3	83.6108E-12	669.829E-3	-15.0747E-3	85.3601E-12	647.266E-3	-12.1647E-3
2.47874E-3	83.3657E-12	670.882E-3	-18.8020E-3	85.7426E-12	637.647E-3	-24.6229E-3
2.47374E-3	82.6427E-12	671.574E-3	-40.0536E-3	84.0014E-12	641.213E-3	-28.4615E-3
2.46873E-3	83.2587E-12	670.047E-3	-41.9967E-3	84.2060E-12	649.868E-3	-26.2758E-3
2.46373E-3	81.6165E-12	663.749E-3	-32.3934E-3	83.8746E-12	660.064E-3	-23.6262E-3
2.45873E-3	81.4012E-12	646.048E-3	-35.3582E-3	84.0658E-12	675.198E-3	-21.9689E-3
2.45373E-3	81.5261E-12	635.661E-3	-31.6647E-3	83.2428E-12	675.148E-3	-16.2050E-3
2.44872E-3	81.2259E-12	640.303E-3	-21.8729E-3	83.6818E-12	650.301E-3	-7.03298E-3
2.44372E-3	81.1116E-12	649.439E-3	-34.1602E-3	83.5180E-12	642.628E-3	-3.50642E-3
2.43872E-3	80.3315E-12	658.544E-3	-32.9352E-3	82.4704E-12	655.902E-3	-15.0490E-3
2.43372E-3	80.7057E-12	663.676E-3	-1.23301E-3	82.6269E-12	659.091E-3	-30.0880E-3
2.42871E-3	81.2765E-12	671.022E-3	-5.24418E-3	82.1252E-12	659.037E-3	-22.9037E-3
2.42371E-3	81.6772E-12	677.651E-3	-39.1110E-3	82.7295E-12	665.670E-3	-10.2347E-3
2.41871E-3	80.8857E-12	672.165E-3	-28.8361E-3	80.3730E-12	664.736E-3	-11.6652E-3
2.41371E-3	81.5421E-12	661.240E-3	-5.47501E-3	80.8276E-12	658.356E-3	-24.4173E-3
2.40870E-3	82.2227E-12	649.034E-3	-7.22360E-3	80.3678E-12	673.897E-3	-16.2562E-3
2.40370E-3	81.7474E-12	654.447E-3	-12.6357E-3	79.9970E-12	686.856E-3	-885.088E-6
2.39870E-3	80.2453E-12	667.313E-3	-18.3596E-3	79.3367E-12	677.874E-3	-7.51291E-3
2.39370E-3	79.6697E-12	667.091E-3	-15.1618E-3	79.5809E-12	672.685E-3	-8.19172E-3
2.38869E-3	80.8937E-12	655.865E-3	-10.3644E-3	79.7604E-12	676.073E-3	-856.690E-6
2.38369E-3	80.6834E-12	647.088E-3	-25.5314E-3	79.1917E-12	674.367E-3	-7.26195E-3
2.37869E-3	79.7035E-12	671.516E-3	-40.1813E-3	78.6129E-12	681.466E-3	-13.3463E-3
2.37369E-3	78.6695E-12	683.504E-3	-36.9401E-3	78.9545E-12	691.969E-3	-4.52877E-3
2.36868E-3	79.1521E-12	665.112E-3	-30.1454E-3	80.1238E-12	682.593E-3	-7.70509E-3
2.36368E-3	77.8826E-12	674.414E-3	-18.5564E-3	80.3215E-12	671.938E-3	-13.2426E-3
2.35868E-3	77.2802E-12	683.972E-3	3.62128E-3	79.1423E-12	685.881E-3	-5.66790E-3
2.35368E-3	76.4097E-12	668.096E-3	9.00916E-3	78.4625E-12	701.225E-3	3.06680E-3
2.34867E-3	76.8854E-12	665.465E-3	-15.4491E-3	78.3462E-12	678.716E-3	3.57745E-3
2.34367E-3	76.2260E-12	675.591E-3	-24.6104E-3	79.2184E-12	656.949E-3	-11.1704E-3
2.33867E-3	75.6218E-12	676.772E-3	-15.7833E-3	78.7203E-12	662.675E-3	-41.0383E-3
2.33367E-3	75.5217E-12	668.580E-3	-11.4525E-3	77.2693E-12	680.097E-3	-53.3308E-3
2.32866E-3	75.4522E-12	665.267E-3	-8.90417E-3	76.7526E-12	690.118E-3	-31.3148E-3
2.32366E-3	75.9306E-12	660.416E-3	-19.7688E-3	77.4386E-12	672.225E-3	-10.0445E-3
2.31866E-3	75.1653E-12	661.412E-3	-29.5882E-3	77.0808E-12	658.663E-3	-3.65733E-3
2.31366E-3	74.8561E-12	672.634E-3	-23.3435E-3	76.2677E-12	672.389E-3	-11.5898E-3
2.30865E-3	74.5598E-12	667.385E-3	-15.5439E-3	74.5281E-12	679.671E-3	-18.4202E-3
2.30365E-3	75.1616E-12	652.042E-3	-15.4776E-3	74.7108E-12	676.556E-3	-4.56832E-3
2.29865E-3	74.6960E-12	654.707E-3	-9.01527E-3	75.7383E-12	686.506E-3	14.3891E-3
2.29365E-3	74.6475E-12	675.052E-3	-7.80947E-3	75.6399E-12	694.240E-3	6.41078E-3
2.28864E-3	74.8208E-12	686.865E-3	-26.6946E-3	73.5446E-12	681.998E-3	-9.37434E-3
2.28364E-3	74.9787E-12	688.988E-3	-28.9518E-3	73.6381E-12	665.274E-3	-8.18479E-3
2.27864E-3	75.2248E-12	686.788E-3	-11.0844E-3	74.8211E-12	670.766E-3	-4.11008E-3
2.27364E-3	74.2158E-12	677.384E-3	-7.86555E-3	74.4929E-12	695.850E-3	-5.51257E-3
2.26863E-3	74.0967E-12	684.122E-3	-14.1047E-3	73.5128E-12	712.958E-3	-12.1255E-3
2.26363E-3	73.6168E-12	693.866E-3	-15.9468E-3	72.5656E-12	707.914E-3	-16.0164E-3
2.25863E-3	74.4269E-12	688.481E-3	-24.0605E-3	73.6408E-12	701.329E-3	-15.0829E-3
2.25363E-3	74.5448E-12	694.507E-3	-25.4987E-3	74.2122E-12	695.196E-3	-8.32516E-3
2.24862E-3	73.7786E-12	696.643E-3	-17.9550E-3	73.0958E-12	691.327E-3	-1.78644E-3
2.24362E-3	72.5398E-12	681.872E-3	-15.1657E-3	71.8335E-12	696.478E-3	951.372E-6
2.23862E-3	72.5526E-12	679.672E-3	-6.37770E-3	71.7848E-12	693.393E-3	-6.41912E-3
2.23362E-3	73.2427E-12	688.703E-3	-8.58976E-3	71.9975E-12	677.896E-3	-11.5548E-3
2.22861E-3	72.6081E-12	698.475E-3	-21.7105E-3	72.3486E-12	661.139E-3	-5.15240E-3
2.22361E-3	72.1768E-12	702.091E-3	-10.5494E-3	71.2889E-12	664.449E-3	325.701E-6
2.21861E-3	71.7100E-12	699.693E-3	-1.11456E-3	70.6182E-12	674.736E-3	-1.98041E-3
2.21361E-3	71.4372E-12	698.005E-3	-14.5004E-3	70.9634E-12	672.401E-3	-15.1247E-3
2.20860E-3	71.2514E-12	698.143E-3	-21.3117E-3	71.6608E-12	668.740E-3	-26.2804E-3
2.20360E-3	71.0167E-12	704.614E-3	-19.6980E-3	71.6858E-12	665.191E-3	-24.1343E-3
2.19860E-3	70.8592E-12	712.468E-3	-17.1683E-3	70.1134E-12	669.580E-3	-6.81896E-3
2.19360E-3	71.3171E-12	715.537E-3	-16.8569E-3	69.2829E-12	686.312E-3	5.20949E-3
2.18859E-3	71.3376E-12	710.962E-3	-4.38307E-3	70.1685E-12	680.373E-3	3.06682E-3
2.18359E-3	71.0749E-12	698.573E-3	12.1179E-3	70.8692E-12	664.179E-3	-6.09571E-3
2.17859E-3	70.8889E-12	699.990E-3	-6.12815E-3	70.4118E-12	680.677E-3	-4.76663E-3
2.17359E-3	71.0195E-12	719.615E-3	-22.7152E-3	69.4507E-12	701.624E-3	-9.48079E-3
2.16858E-3	71.5580E-12	722.569E-3	-12.6639E-3	68.5425E-12	700.668E-3	-35.6331E-3
2.16358E-3	70.9010E-12	717.964E-3	-11.7980E-3	68.4646E-12	696.365E-3	-38.1717E-3
2.15858E-3	69.8040E-12	722.985E-3	-13.5745E-3	69.4113E-12	693.705E-3	-17.3384E-3
2.15358E-3	69.0812E-12	722.827E-3	-18.5064E-3	69.3469E-12	690.715E-3	-381.103E-6
2.14857E-3	69.5310E-12	718.184E-3	-27.6763E-3	67.9032E-12	699.485E-3	11.0145E-3
2.14357E-3	68.9284E-12	709.615E-3	-14.3931E-3	67.1621E-12	710.193E-3	7.22893E-3
2.13857E-3	67.8248E-12	695.979E-3	-5.59095E-3	68.1857E-12	711.799E-3	-11.9795E-3
2.13357E-3	67.1577E-12	689.018E-3	-16.6172E-3	69.6173E-12	713.686E-3	-23.7445E-3
2.12856E-3	67.0119E-12	695.720E-3	-33.4340E-3	67.8870E-12	722.095E-3	-15.9146E-3
2.12356E-3	67.5488E-12	698.339E-3	-43.4495E-3	65.9783E-12	715.379E-3	-8.64580E-3
2.11856E-3	66.8815E-12	692.799E-3	-40.7029E-3	66.4691E-12	694.026E-3	-16.5181E-3
2.11356E-3	66.0027E-12	699.538E-3	-31.4269E-3	68.5305E-12	699.144E-3	-20.8372E-3
2.10855E-3	65.3400E-12	702.725E-3	-16.8887E-3	68.1259E-12	714.357E-3	-30.8537E-3
2.10355E-3	66.5257E-12	691.177E-3	-10.3939E-3	66.1917E-12	711.521E-3	-38.9797E-3
2.09855E-3	66.6274E-12	688.985E-3	-8.38532E-3	65.6614E-12	708.411E-3	-27.8055E-3
2.09355E-3	65.8603E-12	689.910E-3	1.16498E-3	66.4625E-12	710.633E-3	-17.5912E-3
2.08854E-3	65.1892E-12	684.174E-3	5.19315E-3	67.1869E-12	711.138E-3	-20.2044E-3
2.08354E-3	66.3574E-12	686.550E-3	-7.55547E-3	65.6476E-12	711.162E-3	-30.0620E-3
2.07854E-3	68.2917E-12	706.980E-3	-21.3133E-3	64.1365E-12	705.072E-3	-29.2717E-3
2.07354E-3	67.6703E-12	742.347E-3	-28.1693E-3	64.4168E-12	705.212E-3	-18.4510E-3
2.06853E-3	66.2188E-12	770.442E-3	-29.7661E-3	65.4242E-12	715.935E-3	-17.8297E-3
2.06353E-3	65.3996E-12	760.982E-3	-17.1864E-3	64.7331E-12	722.536E-3	-26.9982E-3
2.05853E-3	66.6016E-12	736.991E-3	1.54194E-3	63.4194E-12	721.220E-3	-19.9873E-3
2.05353E-3	66.2522E-12	742.903E-3	2.76787E-3	63.2624E-12	719.783E-3	-12.7311E-3
2.04852E-3	64.0728E-12	769.380E-3	-10.5653E-3	63.8413E-12	731.924E-3	-7.27071E-3
2.04352E-3	63.5188E-12	779.105E-3	-19.7201E-3	64.5877E-12	733.752E-3	-5.83359E-3
2.03852E-3	63.8019E-12	766.353E-3	-7.71167E-3	63.4184E-12	723.903E-3	-22.1177E-3
2.03352E-3	63.6049E-12	749.653E-3	8.34697E-3	62.9531E-12	723.919E-3	-24.8594E-3
2.02851E-3	62.0254E-12	747.622E-3	-6.32395E-3	63.3217E-12	742.037E-3	-12.9428E-3
2.02351E-3	60.8873E-12	758.498E-3	-24.7632E-3	64.2512E-12	755.545E-3	-5.34650E-3
2.01851E-3	61.2688E-12	745.098E-3	-31.2105E-3	63.5893E-12	749.485E-3	-3.73255E-3
2.01351E-3	62.0105E-12	724.632E-3	-45.4395E-3	62.3938E-12	743.479E-3	2.15147E-3
2.00850E-3	61.7441E-12	725.919E-3	-39.1310E-3	61.9286E-12	743.898E-3	8.46626E-3
2.00350E-3	59.8461E-12	732.111E-3	-11.9215E-3	62.5392E-12	741.453E-3	3.57059E-3
1.99850E-3	59.5288E-12	744.943E-3	-9.68363E-3	62.3072E-12	726.106E-3	-2.27916E-3
1.99350E-3	60.4820E-12	739.768E-3	-14.1517E-3	60.9323E-12	719.987E-3	337.691E-6
1.98849E-3	61.9288E-12	712.119E-3	-261.431E-6	60.2422E-12	733.113E-3	1.30509E-3
1.98349E-3	60.4413E-12	714.006E-3	-3.88488E-3	60.8191E-12	751.433E-3	-11.5396E-3
1.97849E-3	58.9591E-12	742.752E-3	-27.3427E-3	60.6808E-12	760.648E-3	-24.5861E-3
1.97349E-3	59.5759E-12	749.480E-3	-24.5766E-3	59.9186E-12	759.305E-3	-24.3811E-3
1.96848E-3	61.0435E-12	735.843E-3	-14.7355E-3	59.2548E-12	752.532E-3	-24.8091E-3
1.96348E-3	60.9362E-12	733.870E-3	-20.3435E-3	59.8359E-12	748.590E-3	-29.7423E-3
1.95848E-3	58.6718E-12	741.629E-3	-14.2318E-3	60.3935E-12	753.365E-3	-31.8772E-3
1.95348E-3	58.2947E-12	742.364E-3	-7.86958E-3	59.3512E-12	771.828E-3	-40.5757E-3
1.94847E-3	59.0412E-12	748.223E-3	-13.7806E-3	58.6459E-12	783.732E-3	-41.9242E-3
1.94347E-3	59.3008E-12	759.729E-3	-14.4513E-3	58.4368E-12	768.054E-3	-33.6099E-3
1.93847E-3	57.6958E-12	761.916E-3	-13.7041E-3	60.2037E-12	746.848E-3	-32.9160E-3
1.93347E-3	56.5507E-12	761.428E-3	-13.0569E-3	60.0091E-12	741.870E-3	-27.7832E-3
1.92846E-3	56.7293E-12	751.972E-3	-5.38819E-3	58.8593E-12	760.876E-3	-16.4402E-3
1.92346E-3	57.5069E-12	733.884E-3	-1.65197E-3	57.9684E-12	778.646E-3	-31.1613E-3
1.91846E-3	57.4898E-12	734.117E-3	3.73077E-3	57.7398E-12	782.510E-3	-42.7261E-3
1.91346E-3	56.0762E-12	747.413E-3	6.24833E-3	58.3648E-12	785.845E-3	-18.4932E-3
1.90845E-3	55.8151E-12	746.533E-3	-5.44357E-3	57.5190E-12	788.975E-3	-12.0383E-3
1.90345E-3	55.8422E-12	743.966E-3	-17.6428E-3	56.8821E-12	782.560E-3	-26.1286E-3
1.89845E-3	56.1527E-12	752.814E-3	-24.6667E-3	56.3524E-12	778.050E-3	-22.4555E-3
1.89345E-3	55.4563E-12	760.589E-3	-34.3312E-3	55.5190E-12	778.134E-3	-6.86438E-3
1.88844E-3	55.0924E-12	765.775E-3	-40.1938E-3	55.6189E-12	765.944E-3	-5.58209E-3
1.88344E-3	55.6710E-12	763.774E-3	-26.2931E-3	54.9742E-12	756.647E-3	-15.5704E-3
1.87844E-3	55.7434E-12	759.184E-3	-5.61952E-3	54.3411E-12	775.596E-3	-29.6159E-3
1.87344E-3	55.4074E-12	775.620E-3	-9.24741E-3	54.0970E-12	798.724E-3	-35.8823E-3
1.86843E-3	54.5833E-12	802.990E-3	-21.2300E-3	53.7437E-12	787.271E-3	-13.9530E-3
1.86343E-3	54.8316E-12	797.891E-3	-10.7297E-3	54.0262E-12	775.521E-3	5.21177E-3
1.85843E-3	54.9852E-12	774.286E-3	-7.85383E-3	53.5826E-12	775.320E-3	138.924E-6
1.85343E-3	54.6549E-12	785.969E-3	-12.6097E-3	53.3357E-12	779.329E-3	-6.48647E-3
1.84842E-3	54.3337E-12	813.300E-3	4.44005E-3	53.1835E-12	798.083E-3	-5.12126E-3
1.84342E-3	54.4214E-12	821.253E-3	12.9139E-3	52.8663E-12	811.337E-3	-10.3177E-3
1.83842E-3	54.1777E-12	829.782E-3	5.09982E-3	53.0967E-12	807.490E-3	-16.7420E-3
1.83342E-3	54.4813E-12	838.536E-3	262.530E-6	52.9968E-12	795.851E-3	-17.5168E-3
1.82841E-3	54.0092E-12	838.332E-3	-17.6586E-3	53.1003E-12	779.568E-3	-22.9140E-3
1.82341E-3	52.6433E-12	847.949E-3	-41.6217E-3	52.4746E-12	767.502E-3	-31.5176E-3
1.81841E-3	52.1925E-12	854.383E-3	-39.0661E-3	51.9929E-12	779.940E-3	-27.6840E-3
1.81341E-3	52.2633E-12	834.346E-3	-18.5660E-3	51.9453E-12	799.941E-3	-23.9051E-3
1.80840E-3	51.8796E-12	820.754E-3	-6.69944E-3	51.6816E-12	812.167E-3	-24.2492E-3
1.80340E-3	51.2537E-12	822.185E-3	-11.4797E-3	51.3966E-12	818.354E-3	-18.8391E-3
1.79840E-3	50.5628E-12	821.213E-3	-26.4729E-3	50.6255E-12	824.871E-3	-25.3786E-3
1.79340E-3	50.6188E-12	818.781E-3	-37.9499E-3	50.6276E-12	841.741E-3	-34.0130E-3
1.78839E-3	50.4550E-12	809.961E-3	-38.2363E-3	50.8444E-12	852.576E-3	-27.6725E-3
1.78339E-3	49.8903E-12	812.124E-3	-32.9427E-3	50.2930E-12	840.522E-3	-9.52972E-3
1.77839E-3	49.7884E-12	832.090E-3	-19.8507E-3	50.0380E-12	842.561E-3	-11.3467E-3
1.77339E-3	49.5103E-12	851.415E-3	-4.69214E-3	49.8609E-12	856.442E-3	-24.7416E-3
1.76838E-3	49.0535E-12	845.515E-3	-3.04017E-3	49.1674E-12	848.884E-3	-22.3828E-3
1.76338E-3	48.6415E-12	831.439E-3	-10.7178E-3	48.9040E-12	844.125E-3	-16.7082E-3
1.75838E-3	48.5079E-12	843.904E-3	-11.0227E-3	48.9136E-12	847.223E-3	-20.4325E-3
1.75338E-3	48.3347E-12	857.472E-3	-4.27951E-3	48.7556E-12	854.196E-3	-28.1014E-3
1.74837E-3	48.4673E-12	856.363E-3	-3.96240E-3	48.2384E-12	863.788E-3	-28.9146E-3
1.74337E-3	48.3533E-12	855.409E-3	2.19433E-3	48.2983E-12	862.049E-3	-33.6215E-3
1.73837E-3	47.7246E-12	855.420E-3	12.4999E-3	48.1172E-12	864.290E-3	-42.3050E-3
1.73337E-3	47.4711E-12	866.448E-3	8.58777E-3	47.6150E-12	881.079E-3	-36.5481E-3
1.72836E-3	47.5923E-12	877.413E-3	-2.87281E-3	47.1137E-12	895.428E-3	-20.0541E-3
1.72336E-3	46.4703E-12	867.310E-3	-11.1367E-3	47.1156E-12	907.111E-3	-15.3479E-3
1.71836E-3	45.7881E-12	860.165E-3	-14.4735E-3	47.0603E-12	912.428E-3	-16.8091E-3
1.71336E-3	45.6676E-12	860.794E-3	-20.5059E-3	46.5727E-12	904.186E-3	-20.3455E-3
1.70835E-3	45.5836E-12	854.176E-3	-31.3026E-3	46.5903E-12	894.679E-3	-29.8220E-3
1.70335E-3	44.9788E-12	850.415E-3	-33.8435E-3	45.9081E-12	893.878E-3	-38.7578E-3
1.69835E-3	44.4218E-12	860.932E-3	-21.3811E-3	45.7915E-12	901.869E-3	-31.5800E-3
1.69335E-3	43.8559E-12	874.325E-3	-9.48581E-3	45.5024E-12	906.188E-3	-14.6198E-3
1.68834E-3	43.6841E-12	876.256E-3	-21.8128E-3	44.7647E-12	905.582E-3	-4.01850E-3
1.68334E-3	43.9265E-12	875.043E-3	-42.8577E-3	44.6852E-12	914.700E-3	3.78455E-3
1.67834E-3	43.6546E-12	874.242E-3	-37.2060E-3	44.1814E-12	935.584E-3	4.51544E-3
1.67334E-3	43.3717E-12	877.382E-3	-21.7631E-3	43.9076E-12	934.073E-3	-5.49830E-3
1.66833E-3	43.1983E-12	893.499E-3	-17.5125E-3	43.8475E-12	918.778E-3	-15.5275E-3
1.66333E-3	43.4035E-12	911.477E-3	-10.1952E-3	43.5919E-12	920.117E-3	-21.5418E-3
1.65833E-3	43.0168E-12	916.731E-3	-2.81408E-3	43.5186E-12	926.684E-3	-16.3688E-3
1.65333E-3	42.5942E-12	926.206E-3	-5.94840E-3	43.0781E-12	934.662E-3	-4.92528E-3
1.64832E-3	42.3057E-12	936.567E-3	-7.00036E-3	41.8983E-12	942.589E-3	-16.0971E-3
1.64332E-3	42.5332E-12	930.726E-3	-4.72280E-3	41.3335E-12	947.447E-3	-27.2890E-3
1.63832E-3	42.2373E-12	931.295E-3	-5.74450E-3	41.4456E-12	950.970E-3	-13.1716E-3
1.63332E-3	41.6327E-12	935.924E-3	-12.0697E-3	41.4804E-12	960.326E-3	2.15828E-3
1.62831E-3	41.1869E-12	935.422E-3	-21.1913E-3	40.9319E-12	971.223E-3	-753.000E-6
1.62331E-3	41.0214E-12	946.063E-3	-12.7868E-3	40.8371E-12	988.897E-3	-10.8737E-3
1.61831E-3	40.6200E-12	956.640E-3	6.31843E-3	40.6945E-12	1.00380E+0	-26.9473E-3
1.61331E-3	40.2555E-12	955.407E-3	4.28574E-3	40.7770E-12	993.041E-3	-41.3571E-3
1.60830E-3	40.1568E-12	958.935E-3	-16.7954E-3	40.5285E-12	982.872E-3	-24.3067E-3
1.60330E-3	39.3552E-12	963.307E-3	-39.3031E-3	39.7910E-12	997.312E-3	-8.10999E-3
1.59830E-3	38.9005E-12	964.263E-3	-43.8849E-3	39.3265E-12	1.00990E+0	-19.5899E-3
1.59330E-3	39.1866E-12	968.428E-3	-22.2942E-3	39.7817E-12	1.00401E+0	-29.7463E-3
1.58829E-3	38.3357E-12	970.397E-3	-3.74358E-3	39.4677E-12	994.686E-3	-27.9363E-3
1.58329E-3	37.2622E-12	969.934E-3	-9.08575E-3	38.6652E-12	991.476E-3	-29.7113E-3
1.57829E-3	36.9528E-12	970.348E-3	-20.0202E-3	37.9096E-12	993.925E-3	-21.4503E-3
1.57329E-3	36.8128E-12	970.313E-3	-12.5119E-3	38.1262E-12	1.00229E+0	-10.6838E-3
1.56828E-3	37.3584E-12	974.681E-3	1.22215E-3	37.7660E-12	1.01903E+0	-18.9375E-3
1.56328E-3	36.6511E-12	992.910E-3	-8.29035E-3	36.5222E-12	1.02927E+0	-14.0989E-3
1.55828E-3	36.0023E-12	1.00584E+0	-19.2897E-3	36.1469E-12	1.01426E+0	-1.12795E-3
1.55328E-3	35.5702E-12	1.00149E+0	-16.2123E-3	36.3416E-12	985.135E-3	-10.6146E-3
1.54827E-3	35.6284E-12	998.571E-3	-23.4514E-3	35.8888E-12	987.880E-3	-18.4702E-3
1.54327E-3	35.7895E-12	1.00773E+0	-29.7529E-3	35.3677E-12	1.02217E+0	-18.7899E-3
1.53827E-3	35.2718E-12	1.01983E+0	-33.1055E-3	34.9221E-12	1.04313E+0	-25.5947E-3
1.53327E-3	34.9580E-12	1.02444E+0	-47.6178E-3	35.1703E-12	1.03980E+0	-21.4510E-3
1.52826E-3	34.7353E-12	1.02138E+0	-39.7252E-3	35.4586E-12	1.03818E+0	-16.3655E-3
1.52326E-3	35.0063E-12	1.02834E+0	-13.6285E-3	34.8748E-12	1.05121E+0	-22.0789E-3
1.51826E-3	34.1885E-12	1.05063E+0	-15.6889E-3	33.8051E-12	1.05685E+0	-27.9684E-3
1.51326E-3	33.1529E-12	1.06916E+0	-30.9774E-3	34.1781E-12	1.04794E+0	-18.1974E-3
1.50825E-3	32.8256E-12	1.06002E+0	-34.2881E-3	34.6621E-12	1.04910E+0	-12.8403E-3
1.50325E-3	32.8715E-12	1.03812E+0	-20.4804E-3	33.9830E-12	1.06975E+0	-27.5570E-3
1.49825E-3	32.6804E-12	1.04419E+0	1.49957E-3	32.7468E-12	1.07710E+0	-30.8580E-3
1.49325E-3	31.4495E-12	1.05315E+0	2.76018E-3	32.8464E-12	1.06568E+0	-23.2580E-3
1.48824E-3	30.8864E-12	1.04884E+0	-9.62941E-3	33.3278E-12	1.06247E+0	-18.5256E-3
1.48324E-3	30.8153E-12	1.05418E+0	-2.86006E-3	32.6490E-12	1.07117E+0	-8.94307E-3
1.47824E-3	31.2243E-12	1.05271E+0	7.59174E-3	30.9862E-12	1.08017E+0	-7.30182E-3
1.47324E-3	30.6419E-12	1.04292E+0	-2.20289E-3	30.8194E-12	1.07865E+0	-22.1228E-3
1.46823E-3	29.5980E-12	1.05264E+0	-8.96259E-3	31.5941E-12	1.05851E+0	-26.1510E-3
1.46323E-3	29.3513E-12	1.06188E+0	-8.28531E-3	31.7287E-12	1.04906E+0	-19.1137E-3
1.45823E-3	29.9939E-12	1.04490E+0	-22.8713E-3	30.1932E-12	1.05919E+0	-17.6643E-3
1.45323E-3	29.7791E-12	1.03767E+0	-39.1888E-3	28.8386E-12	1.05941E+0	-20.1483E-3
1.44822E-3	28.6280E-12	1.05679E+0	-27.6492E-3	29.6407E-12	1.05343E+0	-22.5191E-3
1.44322E-3	28.4671E-12	1.07063E+0	-14.7667E-3	30.0058E-12	1.04792E+0	-20.9897E-3
1.43822E-3	28.8518E-12	1.07493E+0	-26.2326E-3	28.7340E-12	1.05577E+0	-5.93772E-3
1.43322E-3	28.6326E-12	1.06492E+0	-33.6886E-3	27.6632E-12	1.06940E+0	-717.111E-6
1.42821E-3	27.8911E-12	1.04972E+0	-24.7344E-3	27.9122E-12	1.06452E+0	-16.7048E-3
1.42321E-3	27.5472E-12	1.05471E+0	-15.3944E-3	28.4057E-12	1.04939E+0	-14.3702E-3
1.41821E-3	26.8313E-12	1.04922E+0	-12.8884E-3	28.0037E-12	1.05101E+0	-788.565E-6
1.41321E-3	26.6018E-12	1.03664E+0	-23.4069E-3	26.9693E-12	1.06508E+0	-6.85866E-3
1.40820E-3	26.2311E-12	1.04982E+0	-37.4821E-3	26.5020E-12	1.06688E+0	-20.7137E-3
1.40320E-3	25.5192E-12	1.05918E+0	-25.8832E-3	26.7920E-12	1.05493E+0	-20.8861E-3
1.39820E-3	25.1656E-12	1.04124E+0	-9.41588E-3	26.6754E-12	1.03736E+0	-18.9577E-3
1.39320E-3	24.7375E-12	1.02900E+0	-10.9055E-3	26.0493E-12	1.02976E+0	-23.2093E-3
1.38819E-3	24.4553E-12	1.02962E+0	-9.14974E-3	24.9089E-12	1.02584E+0	-27.1990E-3
1.38319E-3	24.2095E-12	1.01750E+0	-8.36987E-3	24.6069E-12	1.01873E+0	-21.5259E-3
1.37819E-3	23.6847E-12	1.00566E+0	-19.6082E-3	25.2819E-12	1.01147E+0	-5.17753E-3
1.37319E-3	23.0285E-12	1.00336E+0	-13.5369E-3	25.0417E-12	1.00023E+0	-1.71497E-3
1.36818E-3	22.9395E-12	999.139E-3	6.03124E-3	23.7807E-12	988.124E-3	-5.12040E-3
1.36318E-3	22.6448E-12	993.108E-3	1.84742E-3	22.8635E-12	969.312E-3	-4.10115E-3
1.35818E-3	22.1193E-12	985.934E-3	-13.9751E-3	22.8803E-12	947.134E-3	-2.88073E-3
1.35318E-3	21.5924E-12	969.963E-3	-23.5309E-3	22.8121E-12	941.655E-3	-3.18239E-3
1.34817E-3	21.6151E-12	960.257E-3	-29.4583E-3	22.2709E-12	949.604E-3	-834.255E-6
1.34317E-3	21.9106E-12	965.573E-3	-22.7400E-3	21.3151E-12	950.896E-3	-5.09223E-3
1.33817E-3	21.1649E-12	969.298E-3	-3.43610E-3	20.9634E-12	949.006E-3	-19.0262E-3
1.33317E-3	20.7074E-12	961.974E-3	-4.04622E-3	21.2122E-12	940.361E-3	-15.7498E-3
1.32816E-3	20.4044E-12	951.405E-3	-18.5618E-3	21.1507E-12	921.766E-3	-2.93694E-3
1.32316E-3	20.4715E-12	941.306E-3	-12.8262E-3	20.7047E-12	904.530E-3	-10.4191E-3
1.31816E-3	20.1537E-12	926.134E-3	-5.00264E-3	20.0023E-12	891.412E-3	-18.7334E-3
1.31316E-3	20.0459E-12	914.700E-3	-14.9837E-3	19.9404E-12	880.203E-3	-8.57045E-3
1.30815E-3	19.4175E-12	906.919E-3	-25.0432E-3	19.9244E-12	864.455E-3	-5.52372E-3
1.30315E-3	18.9667E-12	896.031E-3	-21.9889E-3	19.2606E-12	838.024E-3	-13.4536E-3
1.29815E-3	18.8292E-12	880.471E-3	-12.9777E-3	19.0009E-12	822.456E-3	-22.4948E-3
1.29315E-3	18.3025E-12	864.632E-3	-3.02733E-3	18.6275E-12	830.114E-3	-30.8101E-3
1.28814E-3	18.0653E-12	856.717E-3	3.05244E-3	18.3514E-12	827.828E-3	-38.7019E-3
1.28314E-3	17.3976E-12	857.101E-3	319.842E-6	17.8657E-12	811.520E-3	-43.8324E-3
1.27814E-3	17.3634E-12	845.459E-3	-3.89635E-3	17.6522E-12	797.919E-3	-42.9241E-3
1.27314E-3	17.6525E-12	818.733E-3	-4.04204E-3	17.2459E-12	779.117E-3	-30.5781E-3
1.26813E-3	17.2065E-12	806.871E-3	-5.10822E-3	17.2319E-12	757.442E-3	-20.0279E-3
1.26313E-3	16.6430E-12	801.163E-3	2.04080E-3	16.9285E-12	741.208E-3	-23.7066E-3
1.25813E-3	16.2297E-12	781.312E-3	8.14933E-3	16.2910E-12	722.735E-3	-18.5373E-3
1.25313E-3	16.6866E-12	759.141E-3	1.67233E-3	16.3610E-12	711.261E-3	-9.49853E-3
1.24812E-3	16.3945E-12	749.943E-3	-6.96494E-3	16.3160E-12	704.910E-3	-21.1896E-3
1.24312E-3	15.8127E-12	742.392E-3	-12.5478E-3	16.6133E-12	696.306E-3	-30.7624E-3
1.23812E-3	15.3562E-12	729.779E-3	-13.9220E-3	15.4957E-12	690.425E-3	-19.1664E-3
1.23312E-3	15.8174E-12	720.598E-3	-12.1788E-3	15.1510E-12	677.196E-3	-16.4041E-3
1.22811E-3	15.8503E-12	713.142E-3	-18.1956E-3	15.5171E-12	643.592E-3	-22.9245E-3
1.22311E-3	15.2589E-12	706.891E-3	-31.0554E-3	16.0396E-12	612.807E-3	-22.5636E-3
1.21811E-3	14.6848E-12	700.078E-3	-30.1891E-3	14.9920E-12	614.348E-3	-20.3353E-3
1.21311E-3	14.4221E-12	678.870E-3	-20.2675E-3	14.1942E-12	604.332E-3	-19.4065E-3
1.20810E-3	14.9476E-12	653.285E-3	-14.5566E-3	14.4445E-12	568.703E-3	-14.5081E-3
1.20310E-3	14.6697E-12	640.183E-3	-12.9859E-3	15.0937E-12	549.270E-3	-9.93477E-3
1.19810E-3	14.0795E-12	628.358E-3	-8.82374E-3	14.9056E-12	550.709E-3	-17.1478E-3
1.19310E-3	13.6662E-12	614.134E-3	-6.20614E-3	13.5167E-12	557.605E-3	-16.9425E-3
1.18809E-3	13.6527E-12	596.544E-3	-3.69353E-3	13.3249E-12	554.450E-3	-9.76760E-3
1.18309E-3	14.0570E-12	582.927E-3	-8.16903E-3	13.6062E-12	531.316E-3	-12.5319E-3
1.17809E-3	13.2852E-12	583.636E-3	-22.4801E-3	13.9918E-12	508.012E-3	-17.8740E-3
1.17309E-3	12.7231E-12	573.757E-3	-25.0208E-3	13.8538E-12	499.300E-3	-17.7159E-3
1.16808E-3	12.7509E-12	538.816E-3	-20.1433E-3	13.1264E-12	495.955E-3	-13.3202E-3
1.16308E-3	12.9831E-12	519.476E-3	-12.1912E-3	12.7055E-12	485.207E-3	-5.42070E-3
1.15808E-3	12.6576E-12	527.014E-3	-5.45747E-3	12.9062E-12	465.798E-3	-7.17110E-3
1.15308E-3	12.1124E-12	515.655E-3	-14.7767E-3	13.2238E-12	448.240E-3	-18.6021E-3
1.14807E-3	12.1324E-12	478.295E-3	-35.5616E-3	12.3460E-12	425.556E-3	-17.2853E-3
1.14307E-3	12.2019E-12	451.880E-3	-38.3744E-3	12.0865E-12	404.950E-3	-8.56205E-3
1.13807E-3	11.9602E-12	443.778E-3	-18.1231E-3	12.2122E-12	391.066E-3	-4.11365E-3
1.13307E-3	11.4460E-12	434.544E-3	-3.00817E-3	13.1371E-12	379.543E-3	-6.17700E-3
1.12806E-3	11.1689E-12	428.605E-3	2.23332E-3	12.3747E-12	377.781E-3	-10.5598E-3
1.12306E-3	11.3462E-12	419.170E-3	1.93507E-3	11.4707E-12	370.691E-3	-20.5433E-3
1.11806E-3	11.5958E-12	400.293E-3	-6.76757E-3	11.3196E-12	345.209E-3	-30.0332E-3
1.11306E-3	11.2015E-12	394.499E-3	-8.85166E-3	11.7178E-12	326.953E-3	-30.6272E-3
1.10805E-3	10.8035E-12	397.071E-3	-3.38023E-3	11.8755E-12	326.523E-3	-35.4026E-3
1.10305E-3	10.6592E-12	384.709E-3	-15.0698E-3	10.9172E-12	322.295E-3	-33.4519E-3
1.09805E-3	11.0394E-12	359.575E-3	-30.8341E-3	10.7902E-12	321.298E-3	-17.4150E-3
1.09305E-3	10.9804E-12	337.233E-3	-29.8658E-3	10.8436E-12	325.163E-3	-17.9729E-3
1.08804E-3	10.3473E-12	327.686E-3	-19.1419E-3	11.4343E-12	321.664E-3	-30.3734E-3
1.08304E-3	10.2478E-12	324.653E-3	-8.14170E-3	11.2346E-12	308.776E-3	-22.7175E-3
1.07804E-3	10.0997E-12	313.058E-3	-3.94321E-3	10.8403E-12	293.849E-3	-11.9053E-3
1.07304E-3	10.2341E-12	298.933E-3	-21.6050E-3	10.5863E-12	270.096E-3	-14.3766E-3
1.06803E-3	9.79107E-12	296.732E-3	-42.5864E-3	10.9624E-12	241.042E-3	-17.7867E-3
1.06303E-3	9.87938E-12	295.810E-3	-27.0490E-3	11.1825E-12	232.796E-3	-19.4166E-3
1.05803E-3	9.62397E-12	283.312E-3	-6.46575E-3	10.4824E-12	236.769E-3	-24.8752E-3
1.05303E-3	9.77878E-12	278.661E-3	-18.8012E-3	9.86051E-12	232.120E-3	-24.5291E-3
1.04802E-3	9.47776E-12	267.420E-3	-30.3327E-3	9.96607E-12	219.100E-3	-21.8448E-3
1.04302E-3	9.43041E-12	234.305E-3	-18.2972E-3	10.3546E-12	210.661E-3	-27.7443E-3
1.03802E-3	9.59424E-12	216.331E-3	-8.25276E-3	10.1760E-12	199.150E-3	-23.8640E-3
1.03302E-3	9.26919E-12	219.690E-3	-3.66272E-3	9.68435E-12	186.321E-3	-10.8496E-3
1.02801E-3	9.19919E-12	216.942E-3	-4.39961E-3	9.47238E-12	181.631E-3	-10.6548E-3
1.02301E-3	8.88689E-12	207.613E-3	-18.3753E-3	9.65186E-12	181.286E-3	-15.0050E-3
1.01801E-3	9.07691E-12	205.601E-3	-23.3571E-3	9.69662E-12	186.461E-3	-12.0256E-3
1.01301E-3	9.01846E-12	208.188E-3	-14.7565E-3	9.32057E-12	190.100E-3	-14.8031E-3
1.00800E-3	8.80013E-12	203.454E-3	-23.6080E-3	9.01016E-12	186.538E-3	-16.6346E-3
1.00300E-3	8.65534E-12	185.892E-3	-32.9725E-3	9.15793E-12	186.529E-3	-19.4864E-3
997.999E-6	8.71946E-12	165.081E-3	-19.4159E-3	9.54972E-12	181.579E-3	-28.2278E-3
992.997E-6	8.75275E-12	159.142E-3	-13.3563E-3	9.16966E-12	163.207E-3	-21.9524E-3
987.994E-6	8.68070E-12	173.762E-3	-11.4053E-3	8.89205E-12	149.751E-3	-11.1401E-3
982.991E-6	8.61944E-12	180.013E-3	-726.772E-6	8.84363E-12	149.275E-3	-20.2025E-3
977.989E-6	8.50285E-12	170.904E-3	6.65067E-3	8.83234E-12	154.764E-3	-35.1082E-3
972.986E-6	8.52650E-12	165.619E-3	4.21872E-3	8.82606E-12	157.756E-3	-36.9775E-3
967.984E-6	8.38989E-12	162.320E-3	-6.07085E-3	8.49946E-12	163.989E-3	-27.6663E-3
962.981E-6	8.22986E-12	154.017E-3	-17.3272E-3	8.65616E-12	166.142E-3	-13.2278E-3
957.979E-6	8.19310E-12	149.932E-3	-17.5691E-3	8.49712E-12	154.747E-3	-6.25741E-3
952.976E-6	8.24960E-12	155.864E-3	-11.1332E-3	8.43709E-12	147.661E-3	-2.71807E-3
947.974E-6	8.34134E-12	153.714E-3	-15.0896E-3	8.25750E-12	146.565E-3	-93.6280E-6
942.971E-6	8.20830E-12	145.975E-3	-22.0661E-3	8.05426E-12	146.618E-3	-7.57473E-3
937.969E-6	8.04088E-12	140.828E-3	-14.0388E-3	8.12717E-12	150.984E-3	-23.9186E-3
932.966E-6	7.98919E-12	140.248E-3	1.04023E-3	8.40408E-12	148.546E-3	-29.0820E-3
927.964E-6	8.20184E-12	149.182E-3	3.41350E-3	8.12509E-12	139.777E-3	-15.5930E-3
922.961E-6	8.20047E-12	148.376E-3	-1.27632E-3	7.91566E-12	136.711E-3	-14.1343E-3
917.959E-6	7.81365E-12	141.073E-3	-12.7993E-3	8.01799E-12	132.430E-3	-26.8972E-3
912.956E-6	7.96600E-12	149.652E-3	-21.3308E-3	7.92995E-12	127.373E-3	-30.0732E-3
907.954E-6	8.12811E-12	156.772E-3	-13.9932E-3	7.89363E-12	135.158E-3	-27.1267E-3
902.951E-6	8.19270E-12	151.182E-3	-6.48721E-3	7.64434E-12	148.667E-3	-19.1897E-3
897.949E-6	7.85247E-12	152.022E-3	-8.74490E-3	7.71688E-12	153.018E-3	-3.08291E-3
892.946E-6	7.93117E-12	159.877E-3	-10.0230E-3	7.66605E-12	161.321E-3	2.72114E-3
887.944E-6	7.99255E-12	161.539E-3	-12.2220E-3	7.58559E-12	178.864E-3	-2.31389E-3
882.941E-6	7.93301E-12	158.972E-3	-28.9580E-3	7.66525E-12	191.077E-3	-1.09174E-3
877.939E-6	7.71969E-12	165.164E-3	-34.4276E-3	7.74221E-12	199.028E-3	94.8142E-6
872.936E-6	7.49259E-12	172.214E-3	-23.5260E-3	7.66334E-12	188.840E-3	-10.8204E-3
867.934E-6	7.72284E-12	180.552E-3	-20.2418E-3	7.64707E-12	168.098E-3	-15.9788E-3
862.931E-6	7.44532E-12	188.072E-3	-17.0724E-3	7.45601E-12	164.393E-3	-13.1531E-3
857.929E-6	7.45079E-12	185.135E-3	-5.90491E-3	7.39551E-12	167.362E-3	-21.8867E-3
852.926E-6	7.37212E-12	186.143E-3	-2.38807E-3	7.49294E-12	165.336E-3	-33.1733E-3
847.924E-6	7.13214E-12	188.781E-3	-12.4224E-3	7.40528E-12	170.327E-3	-29.9426E-3
842.921E-6	7.10183E-12	180.393E-3	-33.2070E-3	7.35285E-12	175.661E-3	-15.2680E-3
837.919E-6	7.06920E-12	166.674E-3	-51.5427E-3	7.18285E-12	177.884E-3	-7.30676E-3
832.916E-6	7.50696E-12	164.760E-3	-42.9414E-3	7.25311E-12	184.617E-3	-10.5421E-3
827.914E-6	6.98367E-12	166.810E-3	-13.7345E-3	7.13706E-12	184.509E-3	-26.1200E-3
822.911E-6	6.70769E-12	175.125E-3	-810.834E-6	6.88325E-12	180.223E-3	-30.4313E-3
817.909E-6	6.63101E-12	192.032E-3	-19.1635E-3	6.75683E-12	184.297E-3	-13.3786E-3
812.906E-6	6.85818E-12	196.033E-3	-30.6214E-3	6.86794E-12	190.392E-3	-10.1849E-3
807.904E-6	6.98036E-12	194.407E-3	-22.0166E-3	6.80993E-12	190.244E-3	-12.5320E-3
802.901E-6	6.64108E-12	201.252E-3	-11.0686E-3	6.60687E-12	202.080E-3	-2.82615E-3
797.899E-6	6.50810E-12	210.538E-3	-5.01579E-3	6.45178E-12	217.111E-3	-6.07148E-3
792.896E-6	6.66301E-12	209.834E-3	-10.1014E-3	6.50978E-12	218.300E-3	-13.5993E-3
787.894E-6	6.97103E-12	203.834E-3	-13.9680E-3	6.58750E-12	217.708E-3	-4.65239E-3
782.891E-6	6.46346E-12	214.337E-3	-6.53581E-3	6.29792E-12	225.718E-3	-6.51956E-3
777.889E-6	6.20261E-12	229.712E-3	-9.50765E-3	6.26244E-12	233.598E-3	-19.4823E-3
772.886E-6	6.47428E-12	228.473E-3	-20.0563E-3	6.33507E-12	234.792E-3	-17.8309E-3
767.884E-6	6.78191E-12	226.808E-3	-23.3583E-3	6.35316E-12	235.016E-3	-8.83554E-3
762.881E-6	6.75464E-12	230.822E-3	-22.8789E-3	6.26132E-12	226.551E-3	-5.47930E-3
757.879E-6	6.07664E-12	237.013E-3	-22.1530E-3	6.14519E-12	218.415E-3	-3.41602E-3
752.876E-6	6.21050E-12	234.161E-3	-27.7134E-3	6.06170E-12	224.537E-3	-7.02363E-3
747.874E-6	6.18302E-12	221.716E-3	-27.9323E-3	6.08970E-12	240.384E-3	-18.1422E-3
742.871E-6	6.32604E-12	227.956E-3	-21.5939E-3	5.99703E-12	248.540E-3	-24.5321E-3
737.869E-6	5.85529E-12	245.704E-3	-10.8131E-3	5.76679E-12	247.364E-3	-24.1798E-3
732.866E-6	5.82470E-12	237.794E-3	2.90370E-3	5.77121E-12	245.543E-3	-28.1778E-3
727.864E-6	5.84225E-12	219.357E-3	6.24683E-3	5.75322E-12	245.462E-3	-25.4135E-3
722.861E-6	5.76774E-12	228.855E-3	2.42578E-3	5.84521E-12	243.282E-3	-13.8312E-3
717.859E-6	5.49583E-12	247.702E-3	-5.44339E-3	5.67202E-12	235.747E-3	-16.7530E-3
712.856E-6	5.30660E-12	255.380E-3	-11.7774E-3	5.47311E-12	228.590E-3	-15.7922E-3
707.854E-6	5.33218E-12	249.688E-3	-4.19809E-3	5.25308E-12	232.340E-3	-13.4667E-3
702.851E-6	5.37534E-12	243.177E-3	-3.07649E-3	5.26726E-12	238.673E-3	-22.7221E-3
697.849E-6	5.33202E-12	252.706E-3	-7.88280E-3	5.17407E-12	236.931E-3	-22.2754E-3
692.846E-6	5.06637E-12	266.156E-3	-15.0494E-6	5.03753E-12	246.451E-3	-15.9399E-3
687.844E-6	5.00282E-12	258.083E-3	-3.60085E-3	4.72482E-12	258.093E-3	-18.4809E-3
682.841E-6	4.99155E-12	237.788E-3	-7.76447E-3	4.83638E-12	255.909E-3	-22.9513E-3
677.839E-6	5.18571E-12	245.544E-3	680.429E-6	5.03921E-12	253.168E-3	-21.9528E-3
672.836E-6	4.80060E-12	268.494E-3	17.7092E-6	4.62313E-12	258.456E-3	-23.8558E-3
667.834E-6	4.73805E-12	270.305E-3	-6.52223E-3	4.40947E-12	259.753E-3	-32.1534E-3
662.831E-6	4.75245E-12	256.586E-3	-8.46270E-3	4.33630E-12	247.985E-3	-31.7518E-3
657.829E-6	4.81448E-12	245.256E-3	-12.5578E-3	4.71291E-12	234.976E-3	-26.9503E-3
652.826E-6	4.67950E-12	241.379E-3	-21.6399E-3	4.47663E-12	231.186E-3	-36.3156E-3
647.824E-6	4.46261E-12	249.503E-3	-20.3850E-3	4.10955E-12	237.745E-3	-40.7299E-3
642.821E-6	4.44410E-12	258.405E-3	-13.6190E-3	4.11933E-12	239.467E-3	-27.1127E-3
637.819E-6	4.54014E-12	260.381E-3	-19.6730E-3	4.38937E-12	232.017E-3	-13.9185E-3
632.816E-6	4.42811E-12	262.782E-3	-28.5841E-3	4.39037E-12	241.336E-3	-15.5392E-3
627.814E-6	4.15021E-12	261.635E-3	-22.6283E-3	3.87501E-12	264.832E-3	-22.7891E-3
622.811E-6	4.15891E-12	257.365E-3	-10.2586E-3	3.76581E-12	263.728E-3	-23.8145E-3
617.809E-6	4.12187E-12	260.199E-3	-4.60522E-3	3.83949E-12	242.714E-3	-20.5402E-3
612.806E-6	4.02819E-12	265.817E-3	-5.41383E-3	3.85692E-12	234.390E-3	-21.9820E-3
607.804E-6	3.79169E-12	261.600E-3	-7.95108E-3	3.57331E-12	235.624E-3	-33.3033E-3
602.801E-6	3.87935E-12	250.959E-3	-10.7022E-3	3.52317E-12	233.676E-3	-37.4648E-3
597.799E-6	3.83609E-12	240.914E-3	-10.6282E-3	3.40514E-12	242.149E-3	-30.8204E-3
592.796E-6	3.65725E-12	252.284E-3	-12.9198E-3	3.40931E-12	258.797E-3	-24.0010E-3
587.794E-6	3.49364E-12	274.002E-3	-25.1586E-3	3.32976E-12	255.587E-3	-23.3604E-3
582.791E-6	3.58621E-12	279.092E-3	-28.6736E-3	3.33656E-12	237.140E-3	-24.1757E-3
577.789E-6	3.66081E-12	261.688E-3	-17.2652E-3	3.21532E-12	222.310E-3	-15.5748E-3
572.786E-6	3.32090E-12	246.294E-3	-6.48083E-3	2.98092E-12	216.241E-3	-8.65936E-3
567.784E-6	3.11918E-12	254.925E-3	-5.91071E-3	3.02841E-12	211.359E-3	-15.4896E-3
562.781E-6	3.21179E-12	257.479E-3	-12.7386E-3	3.04441E-12	206.360E-3	-18.3346E-3
557.779E-6	3.19095E-12	245.692E-3	-21.6632E-3	3.01531E-12	209.786E-3	-12.9029E-3
552.776E-6	3.06592E-12	236.963E-3	-24.1162E-3	2.74136E-12	218.465E-3	-15.2941E-3
547.774E-6	2.78083E-12	240.758E-3	-18.4924E-3	2.59935E-12	213.934E-3	-27.1198E-3
542.771E-6	2.75393E-12	253.569E-3	-8.13492E-3	2.68792E-12	205.973E-3	-30.9457E-3
537.769E-6	2.85003E-12	257.088E-3	-4.54792E-3	2.71250E-12	211.459E-3	-29.0487E-3
532.766E-6	2.62961E-12	240.445E-3	-18.3070E-3	2.53302E-12	209.934E-3	-40.2281E-3
527.764E-6	2.46795E-12	229.128E-3	-23.8844E-3	2.27492E-12	197.474E-3	-36.5313E-3
522.761E-6	2.37551E-12	233.006E-3	-10.0221E-3	2.36803E-12	194.608E-3	-13.9812E-3
517.759E-6	2.38348E-12	229.596E-3	-7.07175E-3	2.35969E-12	195.839E-3	-4.27688E-3
512.756E-6	2.27693E-12	223.456E-3	-20.4408E-3	2.22265E-12	185.746E-3	-2.30029E-3
507.754E-6	2.25299E-12	227.586E-3	-23.3978E-3	2.06256E-12	183.714E-3	-4.92149E-3
502.751E-6	2.09256E-12	222.956E-3	-21.2904E-3	2.04121E-12	184.396E-3	-18.3197E-3
497.749E-6	2.00823E-12	212.338E-3	-26.0494E-3	2.04254E-12	173.711E-3	-21.2699E-3
492.746E-6	2.02218E-12	212.511E-3	-28.1643E-3	1.91452E-12	178.154E-3	-12.5823E-3
487.744E-6	1.93845E-12	202.918E-3	-23.3119E-3	1.82159E-12	188.012E-3	-13.2620E-3
482.741E-6	1.88089E-12	187.890E-3	-23.2004E-3	1.76409E-12	173.902E-3	-8.82623E-3
477.739E-6	1.74774E-12	178.202E-3	-19.3781E-3	1.80074E-12	165.702E-3	-3.66314E-3
472.736E-6	1.70658E-12	168.031E-3	-9.65562E-3	1.68409E-12	170.725E-3	-19.3082E-3
467.734E-6	1.75894E-12	166.522E-3	-10.4569E-3	1.66293E-12	159.534E-3	-31.1973E-3
462.731E-6	1.64417E-12	182.655E-3	-8.73330E-3	1.57644E-12	153.440E-3	-15.7725E-3
457.729E-6	1.48020E-12	194.437E-3	-13.8172E-3	1.48181E-12	165.330E-3	-8.88620E-3
452.726E-6	1.37434E-12	191.104E-3	-27.0487E-3	1.43242E-12	178.376E-3	-18.7909E-3
447.724E-6	1.50460E-12	183.020E-3	-26.4614E-3	1.48910E-12	176.548E-3	-18.8329E-3
442.721E-6	1.45485E-12	169.565E-3	-20.4886E-3	1.40372E-12	157.628E-3	-21.5477E-3
437.719E-6	1.25651E-12	157.927E-3	-23.5774E-3	1.22336E-12	134.034E-3	-23.2217E-3
432.716E-6	1.14133E-12	152.146E-3	-29.5143E-3	1.17554E-12	124.590E-3	-13.3857E-3
427.714E-6	1.24092E-12	143.152E-3	-28.4492E-3	1.22558E-12	122.537E-3	-16.6752E-3
422.711E-6	1.24332E-12	130.549E-3	-22.7759E-3	1.22434E-12	114.294E-3	-26.5895E-3
417.709E-6	1.01820E-12	129.942E-3	-12.8153E-3	971.817E-15	118.611E-3	-15.1470E-3
412.706E-6	941.029E-15	133.743E-3	-5.10999E-3	941.369E-15	131.114E-3	-6.65697E-3
407.704E-6	982.245E-15	128.952E-3	-10.8888E-3	1.05963E-12	126.955E-3	-20.8430E-3
402.701E-6	1.05291E-12	113.247E-3	-17.6549E-3	1.01057E-12	118.297E-3	-29.8521E-3
397.699E-6	921.760E-15	107.002E-3	-12.0164E-3	830.407E-15	126.476E-3	-16.3553E-3
392.696E-6	777.865E-15	119.624E-3	-12.1881E-3	744.086E-15	132.746E-3	-6.28326E-3
387.694E-6	846.834E-15	126.418E-3	-20.2741E-3	834.645E-15	121.489E-3	-13.5952E-3
382.691E-6	828.855E-15	119.812E-3	-15.2818E-3	862.991E-15	104.596E-3	-22.8337E-3
377.689E-6	726.988E-15	114.663E-3	-7.61001E-3	758.987E-15	96.9290E-3	-20.4031E-3
372.686E-6	723.875E-15	119.756E-3	-14.3659E-3	654.731E-15	93.1391E-3	-10.6895E-3
367.684E-6	714.092E-15	117.044E-3	-20.4630E-3	691.953E-15	88.3928E-3	-11.6043E-3
362.681E-6	660.015E-15	104.682E-3	-18.4693E-3	692.477E-15	82.2155E-3	-18.9871E-3
357.679E-6	654.670E-15	98.3547E-3	-17.6756E-3	632.322E-15	78.3987E-3	-20.6655E-3
352.676E-6	603.932E-15	93.5415E-3	-15.6075E-3	528.937E-15	92.6213E-3	-16.3381E-3
347.674E-6	583.424E-15	85.8331E-3	-14.3997E-3	545.425E-15	105.273E-3	-20.9303E-3
342.671E-6	530.777E-15	82.3148E-3	-13.0521E-3	515.780E-15	96.5307E-3	-24.9975E-3
337.669E-6	430.322E-15	78.2251E-3	-14.1009E-3	474.320E-15	80.7271E-3	-21.1656E-3
332.666E-6	526.025E-15	74.6375E-3	-21.7085E-3	460.499E-15	76.3062E-3	-28.6834E-3
327.664E-6	497.356E-15	72.7910E-3	-33.1057E-3	479.307E-15	67.8660E-3	-30.2312E-3
322.661E-6	400.859E-15	66.2783E-3	-37.7511E-3	372.539E-15	55.3837E-3	-18.3288E-3
317.659E-6	356.783E-15	68.1155E-3	-28.6898E-3	351.473E-15	56.1142E-3	-25.6875E-3
312.656E-6	443.680E-15	74.2620E-3	-20.3184E-3	381.189E-15	61.8084E-3	-42.1506E-3
307.654E-6	447.525E-15	71.9189E-3	-26.7342E-3	365.877E-15	60.9969E-3	-40.2188E-3
302.651E-6	255.552E-15	68.0615E-3	-37.9271E-3	255.927E-15	52.8586E-3	-35.1338E-3
297.649E-6	253.494E-15	68.2431E-3	-37.2832E-3	246.807E-15	51.5465E-3	-31.1954E-3
292.646E-6	301.390E-15	64.1151E-3	-22.3416E-3	300.012E-15	63.3264E-3	-29.6911E-3
287.644E-6	344.489E-15	60.7061E-3	-4.87722E-3	316.125E-15	70.6553E-3	-32.5607E-3
282.641E-6	254.218E-15	62.4860E-3	-5.67794E-3	178.953E-15	62.5304E-3	-36.2486E-3
277.639E-6	161.820E-15	60.4885E-3	-10.5768E-3	135.993E-15	40.1793E-3	-36.2247E-3
272.636E-6	201.832E-15	50.4078E-3	-2.65342E-3	250.879E-15	12.8392E-3	-33.7711E-3
267.634E-6	238.942E-15	45.6360E-3	1.83358E-3	259.406E-15	9.09764E-3	-31.5644E-3
262.631E-6	153.815E-15	54.5200E-3	-5.59580E-3	120.952E-15	28.3913E-3	-30.2761E-3
257.629E-6	146.561E-15	54.5748E-3	-21.2834E-3	96.4422E-15	46.9085E-3	-35.6148E-3
252.626E-6	169.309E-15	49.5079E-3	-42.6835E-3	168.115E-15	49.4536E-3	-28.6372E-3
247.624E-6	167.025E-15	50.5054E-3	-45.5547E-3	190.271E-15	46.0497E-3	-12.4591E-3
242.621E-6	147.991E-15	48.3298E-3	-27.4617E-3	102.441E-15	43.8497E-3	-6.39562E-3
237.619E-6	94.3146E-15	44.1192E-3	-20.4013E-3	37.9618E-15	27.5340E-3	-16.0763E-3
232.616E-6	114.334E-15	41.9587E-3	-28.8936E-3	115.250E-15	15.1057E-3	-18.0982E-3
227.614E-6	79.8842E-15	29.8988E-3	-25.6738E-3	115.398E-15	17.7382E-3	-6.85828E-3
222.611E-6	80.5730E-15	10.0186E-3	-8.76711E-3	29.2076E-15	22.5545E-3	-1.10467E-3
217.609E-6	87.3828E-15	7.68248E-3	-10.8675E-3	38.4675E-15	21.9615E-3	7.01461E-3
212.606E-6	65.8287E-15	24.6080E-3	-31.7948E-3	67.7556E-15	22.1167E-3	9.64618E-3
207.604E-6	-19.7077E-15	26.4046E-3	-38.2698E-3	23.9586E-15	25.8791E-3	-315.935E-6
202.601E-6	1.20116E-15	9.76631E-3	-15.6886E-3	-24.4946E-15	26.2514E-3	-5.25225E-3
197.599E-6	67.4156E-15	2.41506E-3	404.044E-6	86.9555E-15	21.5913E-3	-3.57702E-3
192.596E-6	72.7954E-15	6.73856E-3	-6.40463E-3	35.6424E-15	14.2495E-3	-10.0890E-3
187.594E-6	-53.2073E-15	21.3678E-3	-8.70124E-3	-77.9527E-15	9.20314E-3	-12.8666E-3
182.591E-6	-69.3380E-15	30.4840E-3	-2.59524E-3	-57.4536E-15	12.7402E-3	-15.7316E-3
177.589E-6	49.0702E-15	20.9943E-3	-10.3123E-3	21.2992E-15	22.2134E-3	-28.8757E-3
172.586E-6	37.7002E-15	16.7630E-3	-26.2212E-3	25.8768E-15	25.3863E-3	-32.6874E-3
167.584E-6	-55.1517E-15	21.7340E-3	-20.9666E-3	-54.0182E-15	14.9897E-3	-25.6004E-3
162.581E-6	-72.0846E-15	19.5637E-3	-17.2390E-3	-116.178E-15	5.33861E-3	-25.8019E-3
157.579E-6	-53.2771E-15	18.6973E-3	-27.4468E-3	7.57497E-15	11.8185E-3	-33.3128E-3
152.576E-6	-6.03586E-15	19.8784E-3	-33.1064E-3	24.2812E-15	9.38346E-3	-36.2492E-3
147.574E-6	-50.6874E-15	7.63628E-3	-35.5088E-3	-101.957E-15	-5.66823E-3	-26.8748E-3
142.571E-6	-110.746E-15	-5.96021E-3	-29.0050E-3	-155.895E-15	-9.87517E-3	-11.9471E-3
137.569E-6	-55.8580E-15	-3.09466E-3	-8.58609E-3	-33.4406E-15	1.28657E-3	-11.6234E-3
132.566E-6	-39.0297E-15	9.59471E-3	-1.16716E-3	-19.4374E-15	8.90569E-3	-23.7422E-3
127.564E-6	-103.779E-15	22.1987E-3	-14.2350E-3	-100.693E-15	2.71038E-3	-29.6238E-3
122.561E-6	-108.217E-15	26.9483E-3	-22.4074E-3	-124.139E-15	4.63773E-3	-24.7460E-3
117.559E-6	-64.6819E-15	17.8021E-3	-21.9589E-3	-54.8727E-15	14.1864E-3	-20.4838E-3
112.556E-6	-149.913E-15	5.92376E-3	-14.9774E-3	-49.9463E-15	10.3647E-3	-11.5094E-3
107.554E-6	-109.831E-15	6.39027E-3	-11.4513E-3	-120.137E-15	1.41793E-3	-3.05153E-3
102.551E-6	-46.8335E-15	11.9937E-3	-14.9422E-3	-142.572E-15	-768.267E-6	-5.83583E-3
97.5488E-6	-87.4219E-15	9.63894E-3	-24.7192E-3	-86.1750E-15	-4.19274E-3	-11.1425E-3
92.5463E-6	-132.039E-15	6.01882E-3	-25.9626E-3	-142.144E-15	-8.80219E-3	-13.2494E-3
87.5438E-6	-135.457E-15	12.0302E-3	-12.7415E-3	-150.375E-15	-18.9560E-3	-19.0087E-3
82.5413E-6	-106.186E-15	15.7533E-3	-10.7812E-3	-123.014E-15	-27.4283E-3	-31.2666E-3
77.5388E-6	-84.1173E-15	5.37657E-3	-22.6958E-3	-103.997E-15	-22.2928E-3	-36.8335E-3
72.5363E-6	-171.520E-15	-5.88532E-3	-32.2164E-3	-163.350E-15	-10.9893E-3	-29.5152E-3
67.5338E-6	-185.915E-15	173.357E-6	-32.1097E-3	-166.428E-15	-7.21993E-3	-14.3671E-3
62.5313E-6	-73.9506E-15	11.3421E-3	-28.4355E-3	-99.0098E-15	-2.70853E-3	-3.00370E-3
57.5288E-6	-69.1288E-15	13.7510E-3	-28.6410E-3	-107.337E-15	1.49287E-3	630.109E-6
52.5263E-6	-128.246E-15	10.5916E-3	-27.3231E-3	-166.131E-15	-3.69929E-3	-3.46394E-3
47.5238E-6	-205.464E-15	5.84798E-3	-18.2474E-3	-159.766E-15	-2.17979E-3	-1.86761E-3
42.5213E-6	-91.6333E-15	-2.86449E-3	-13.6135E-3	-119.840E-15	-553.816E-6	-1.46341E-3
37.5188E-6	-65.4579E-15	-11.5847E-3	-18.5942E-3	-93.2725E-15	-92.9134E-6	-8.28819E-3
32.5163E-6	-152.215E-15	-4.29501E-3	-30.4377E-3	-217.383E-15	-419.172E-6	-2.94580E-3
27.5138E-6	-218.909E-15	9.61494E-3	-36.7223E-3	-256.132E-15	-3.35002E-3	4.34785E-3
22.5113E-6	-155.354E-15	8.11647E-3	-26.3523E-3	-119.771E-15	-5.94904E-3	-3.45941E-3
17.5088E-6	-109.386E-15	-4.85501E-3	-9.10771E-3	-93.6475E-15	-2.84669E-3	-12.1748E-3
12.5063E-6	-167.936E-15	-6.90123E-3	1.01733E-3	-179.602E-15	4.40880E-3	-10.4681E-3
7.50375E-6	-209.623E-15	-4.83007E-3	1.96547E-3	-217.069E-15	2.41661E-3	-11.5811E-3
2.50125E-6	-120.538E-15	-4.62468E-3	-3.80562E-3	-159.191E-15	639.247E-6	-17.3926E-3
-2.50125E-6	-122.194E-15	-2.18935E-3	-17.9891E-3	-114.347E-15	8.02662E-3	-26.7508E-3
-7.50375E-6	-192.306E-15	-564.349E-6	-23.8899E-3	-228.649E-15	14.1525E-3	-25.2331E-3
-12.5063E-6	-156.043E-15	935.067E-6	-17.3998E-3	-244.988E-15	9.07712E-3	-8.13911E-3
-17.5088E-6	-175.626E-15	6.90213E-3	-13.6132E-3	-177.806E-15	2.93623E-3	-5.14403E-3
-22.5113E-6	-224.385E-15	16.4484E-3	-16.7581E-3	-144.603E-15	4.82675E-3	-23.0656E-3
-27.5138E-6	-214.174E-15	15.3105E-3	-25.0668E-3	-213.634E-15	15.6896E-3	-27.5705E-3
-32.5163E-6	-161.998E-15	2.00776E-3	-30.2638E-3	-230.375E-15	22.4011E-3	-12.5082E-3
-37.5188E-6	-146.835E-15	-13.0339E-3	-12.9782E-3	-172.627E-15	16.3043E-3	-7.20034E-3
-42.5213E-6	-237.098E-15	-9.20476E-3	279.646E-6	-236.260E-15	9.59644E-3	-10.6963E-3
-47.5238E-6	-218.194E-15	7.91784E-3	-12.6208E-3	-230.959E-15	11.5175E-3	-15.8380E-3
-52.5263E-6	-147.576E-15	16.8492E-3	-20.9979E-3	-165.233E-15	14.9407E-3	-27.4818E-3
-57.5288E-6	-152.747E-15	17.3395E-3	-18.3687E-3	-184.625E-15	3.07147E-3	-34.3926E-3
-62.5313E-6	-244.369E-15	7.48818E-3	-16.7199E-3	-320.751E-15	-20.2144E-3	-30.3870E-3
-67.5338E-6	-302.510E-15	-8.54969E-3	-19.1871E-3	-271.242E-15	-33.5057E-3	-22.2019E-3
-72.5363E-6	-213.590E-15	-10.2215E-3	-25.6715E-3	-183.622E-15	-27.9192E-3	-13.4077E-3
-77.5388E-6	-164.841E-15	-5.75073E-3	-38.6249E-3	-182.733E-15	-10.9757E-3	-17.4024E-3
-82.5413E-6	-257.771E-15	-560.390E-6	-44.7140E-3	-292.500E-15	635.175E-6	-26.4723E-3
-87.5438E-6	-279.805E-15	6.56667E-3	-32.3128E-3	-285.995E-15	-2.32969E-3	-24.3454E-3
-92.5463E-6	-246.750E-15	6.56517E-3	-14.0726E-3	-222.754E-15	-1.22872E-3	-15.9928E-3
-97.5488E-6	-211.288E-15	7.90159E-3	-10.4009E-3	-172.444E-15	3.60940E-3	-8.70536E-3
-102.551E-6	-268.522E-15	10.5228E-3	-23.2122E-3	-311.813E-15	7.32981E-3	-6.83763E-3
-107.554E-6	-304.044E-15	8.17021E-3	-37.4051E-3	-322.730E-15	13.2905E-3	-7.56282E-3
-112.556E-6	-274.268E-15	4.02810E-3	-35.2228E-3	-240.873E-15	16.6534E-3	-12.4319E-3
-117.559E-6	-244.962E-15	1.07310E-3	-20.0187E-3	-215.160E-15	11.5959E-3	-8.45441E-3
-122.561E-6	-286.955E-15	571.341E-6	-20.4906E-3	-303.547E-15	6.72367E-3	-1.37562E-3
-127.564E-6	-322.564E-15	2.11828E-3	-35.4059E-3	-358.566E-15	12.5847E-3	-10.4338E-3
-132.566E-6	-284.626E-15	6.19671E-3	-36.7503E-3	-223.051E-15	17.4214E-3	-20.8580E-3
-137.569E-6	-285.525E-15	8.26891E-3	-22.9820E-3	-224.463E-15	17.5608E-3	-15.0408E-3
-142.571E-6	-328.676E-15	8.93607E-3	-11.7560E-3	-326.767E-15	9.35204E-3	-6.75922E-3
-147.574E-6	-297.348E-15	7.07507E-3	-14.2600E-3	-341.023E-15	8.72151E-3	-12.2818E-3
-152.576E-6	-332.618E-15	-813.974E-6	-25.4713E-3	-305.701E-15	24.1262E-3	-18.5595E-3
-157.579E-6	-347.650E-15	-1.80985E-3	-25.6657E-3	-300.356E-15	29.5604E-3	-18.7575E-3
-162.581E-6	-359.255E-15	7.23020E-3	-17.8944E-3	-350.544E-15	19.2943E-3	-16.1836E-3
-167.584E-6	-322.137E-15	11.0071E-3	-13.7648E-3	-360.397E-15	17.5314E-3	-15.4701E-3
-172.586E-6	-328.363E-15	15.5600E-3	-14.8987E-3	-334.361E-15	16.6849E-3	-15.4024E-3
-177.589E-6	-414.448E-15	21.2786E-3	-20.8739E-3	-372.526E-15	511.370E-6	-19.4242E-3
-182.591E-6	-445.175E-15	18.2278E-3	-25.3396E-3	-434.337E-15	-2.22797E-3	-19.4608E-3
-187.594E-6	-338.494E-15	18.8820E-3	-22.8442E-3	-347.362E-15	16.2281E-3	-19.0435E-3
-192.596E-6	-320.027E-15	27.5224E-3	-14.3991E-3	-323.192E-15	28.6538E-3	-31.2630E-3
-197.599E-6	-426.219E-15	38.4774E-3	-9.93195E-3	-418.014E-15	23.9677E-3	-33.4187E-3
-202.601E-6	-479.486E-15	39.1759E-3	-13.0641E-3	-457.443E-15	14.4612E-3	-25.8832E-3
-207.604E-6	-401.631E-15	30.0870E-3	-20.7877E-3	-427.161E-15	15.3770E-3	-23.9471E-3
-212.606E-6	-364.469E-15	22.7950E-3	-24.2607E-3	-443.928E-15	32.9143E-3	-17.3639E-3
-217.609E-6	-469.214E-15	25.5891E-3	-18.8817E-3	-512.628E-15	42.7273E-3	-6.77892E-3
-222.611E-6	-514.964E-15	38.4190E-3	-11.3467E-3	-501.580E-15	35.8288E-3	-11.7630E-3
-227.614E-6	-479.826E-15	40.9824E-3	-11.5502E-3	-420.848E-15	36.6344E-3	-21.5103E-3
-232.616E-6	-420.351E-15	30.6360E-3	-16.1378E-3	-446.439E-15	45.8247E-3	-20.1179E-3
-237.619E-6	-501.833E-15	31.2708E-3	-16.8105E-3	-531.121E-15	52.3085E-3	-12.2340E-3
-242.621E-6	-551.516E-15	38.7354E-3	-15.8725E-3	-628.629E-15	61.7341E-3	-9.92284E-3
-247.624E-6	-528.706E-15	42.5712E-3	-12.9971E-3	-519.917E-15	66.5795E-3	-10.9300E-3
-252.626E-6	-531.583E-15	49.2842E-3	-11.1370E-3	-514.023E-15	59.9618E-3	-17.5502E-3
-257.629E-6	-625.813E-15	50.0054E-3	-17.3444E-3	-605.898E-15	65.6547E-3	-25.0984E-3
-262.631E-6	-629.649E-15	40.1472E-3	-29.0039E-3	-662.172E-15	71.5535E-3	-18.6656E-3
-267.634E-6	-560.994E-15	29.9233E-3	-29.3740E-3	-575.843E-15	61.9619E-3	-6.11615E-3
-272.636E-6	-645.126E-15	29.3306E-3	-16.7434E-3	-613.187E-15	55.7044E-3	2.97262E-3
-277.639E-6	-674.798E-15	38.3236E-3	-8.64866E-3	-704.601E-15	70.0371E-3	4.78925E-3
-282.641E-6	-685.540E-15	47.2755E-3	-12.3720E-3	-684.485E-15	87.4422E-3	4.18208E-3
-287.644E-6	-664.413E-15	55.1977E-3	-14.9045E-3	-677.824E-15	87.3512E-3	650.565E-6
-292.646E-6	-735.040E-15	66.7798E-3	-9.26620E-3	-734.177E-15	81.8150E-3	-2.77732E-3
-297.649E-6	-829.513E-15	72.8817E-3	-9.21933E-3	-793.006E-15	76.0151E-3	-8.81241E-3
-302.651E-6	-709.143E-15	75.6228E-3	-18.0684E-3	-767.938E-15	69.0364E-3	-26.8240E-3
-307.654E-6	-714.741E-15	80.6263E-3	-30.4415E-3	-811.369E-15	69.2820E-3	-37.6835E-3
-312.656E-6	-861.496E-15	77.4912E-3	-30.2437E-3	-926.934E-15	76.4194E-3	-32.5491E-3
-317.659E-6	-942.533E-15	69.4896E-3	-16.7426E-3	-888.500E-15	78.4396E-3	-32.1905E-3
-322.661E-6	-842.331E-15	67.6301E-3	-11.8025E-3	-886.991E-15	83.2240E-3	-35.7839E-3
-327.664E-6	-835.259E-15	72.0720E-3	-12.2567E-3	-917.422E-15	95.6111E-3	-31.1051E-3
-332.666E-6	-1.00232E-12	71.8385E-3	-8.16612E-3	-981.413E-15	107.642E-3	-20.0841E-3
-337.669E-6	-1.08986E-12	73.3082E-3	-15.4195E-3	-1.04501E-12	112.532E-3	-18.4009E-3
-342.671E-6	-1.01702E-12	83.0531E-3	-29.3619E-3	-985.563E-15	110.238E-3	-23.1862E-3
-347.674E-6	-995.111E-15	95.0895E-3	-25.5075E-3	-1.02798E-12	105.773E-3	-21.5485E-3
-352.676E-6	-1.11886E-12	104.531E-3	-20.0571E-3	-1.15224E-12	108.403E-3	-33.8406E-3
-357.679E-6	-1.23766E-12	104.158E-3	-26.4415E-3	-1.23274E-12	127.514E-3	-40.0032E-3
-362.681E-6	-1.20704E-12	104.213E-3	-29.9664E-3	-1.15661E-12	144.777E-3	-18.6250E-3
-367.684E-6	-1.19423E-12	121.789E-3	-28.4536E-3	-1.19733E-12	139.002E-3	58.3319E-6
-372.686E-6	-1.29223E-12	135.543E-3	-22.1310E-3	-1.30731E-12	131.770E-3	-15.3275E-3
-377.689E-6	-1.36822E-12	133.742E-3	-15.8587E-3	-1.34265E-12	142.963E-3	-39.7516E-3
-382.691E-6	-1.31048E-12	139.927E-3	-25.9057E-3	-1.32957E-12	154.826E-3	-32.0025E-3
-387.694E-6	-1.40292E-12	142.270E-3	-35.1251E-3	-1.44673E-12	161.430E-3	-11.6280E-3
-392.696E-6	-1.48002E-12	133.233E-3	-23.1722E-3	-1.49877E-12	162.758E-3	-9.18114E-3
-397.699E-6	-1.53540E-12	140.082E-3	-12.4877E-3	-1.53907E-12	167.586E-3	-24.5802E-3
-402.701E-6	-1.55020E-12	169.669E-3	-19.9070E-3	-1.57593E-12	175.479E-3	-38.9234E-3
-407.704E-6	-1.62460E-12	182.607E-3	-25.5131E-3	-1.73610E-12	189.324E-3	-40.7899E-3
-412.706E-6	-1.72234E-12	170.399E-3	-21.6453E-3	-1.81069E-12	198.237E-3	-36.6134E-3
-417.709E-6	-1.73696E-12	164.181E-3	-22.0892E-3	-1.78954E-12	191.676E-3	-36.2246E-3
-422.711E-6	-1.81572E-12	161.706E-3	-20.2557E-3	-1.83318E-12	192.340E-3	-27.5717E-3
-427.714E-6	-1.89840E-12	162.077E-3	-15.2625E-3	-1.97897E-12	199.180E-3	-19.1745E-3
-432.716E-6	-2.01005E-12	179.449E-3	-19.2223E-3	-2.03627E-12	215.610E-3	-22.5608E-3
-437.719E-6	-1.96557E-12	194.019E-3	-31.0180E-3	-1.93175E-12	232.678E-3	-21.7820E-3
-442.721E-6	-2.00298E-12	195.332E-3	-30.5305E-3	-2.04651E-12	233.942E-3	-4.93652E-3
-447.724E-6	-2.16578E-12	201.660E-3	-19.7724E-3	-2.21928E-12	228.128E-3	-149.955E-6
-452.726E-6	-2.28566E-12	206.234E-3	-12.2906E-3	-2.32172E-12	231.189E-3	-20.6541E-3
-457.729E-6	-2.22982E-12	210.184E-3	-9.55497E-3	-2.27152E-12	235.749E-3	-25.7751E-3
-462.731E-6	-2.26079E-12	217.094E-3	-13.3052E-3	-2.28239E-12	243.489E-3	-14.1354E-3
-467.734E-6	-2.47965E-12	222.416E-3	-20.1252E-3	-2.45828E-12	251.420E-3	-11.2655E-3
-472.736E-6	-2.60160E-12	222.965E-3	-16.1973E-3	-2.57920E-12	248.215E-3	-22.6244E-3
-477.739E-6	-2.51675E-12	225.684E-3	-1.38633E-3	-2.57069E-12	250.606E-3	-28.3990E-3
-482.741E-6	-2.52562E-12	238.957E-3	-1.80024E-3	-2.59182E-12	267.455E-3	-24.4768E-3
-487.744E-6	-2.79952E-12	248.016E-3	-13.6872E-3	-2.83275E-12	284.946E-3	-20.3918E-3
-492.746E-6	-2.95207E-12	256.452E-3	-19.8631E-3	-2.85895E-12	298.977E-3	-22.4501E-3
-497.749E-6	-2.82295E-12	274.926E-3	-20.7360E-3	-3.00335E-12	315.421E-3	-27.9479E-3
-502.751E-6	-2.91755E-12	279.064E-3	-17.1211E-3	-3.05910E-12	312.245E-3	-26.1880E-3
-507.754E-6	-3.13833E-12	269.559E-3	-10.5138E-3	-3.27490E-12	299.663E-3	-21.1109E-3
-512.756E-6	-3.37995E-12	268.675E-3	-8.22366E-3	-3.43306E-12	297.150E-3	-11.1870E-3
-517.759E-6	-3.29347E-12	275.371E-3	-17.5552E-3	-3.40963E-12	297.689E-3	65.7783E-6
-522.761E-6	-3.28280E-12	287.491E-3	-29.2993E-3	-3.54246E-12	292.835E-3	1.21266E-3
-527.764E-6	-3.46554E-12	299.442E-3	-27.0326E-3	-3.58112E-12	294.141E-3	-12.8255E-3
-532.766E-6	-3.59018E-12	310.944E-3	-19.6147E-3	-3.74247E-12	305.126E-3	-17.1751E-3
-537.769E-6	-3.73142E-12	317.636E-3	-17.3835E-3	-3.67404E-12	312.883E-3	-7.72664E-3
-542.771E-6	-3.80235E-12	309.850E-3	-18.6175E-3	-4.03493E-12	316.709E-3	-4.94442E-3
-547.774E-6	-3.89346E-12	302.956E-3	-21.3462E-3	-4.19463E-12	319.150E-3	-13.9168E-3
-552.776E-6	-3.90317E-12	308.935E-3	-20.3276E-3	-4.11483E-12	335.608E-3	-21.2081E-3
-557.779E-6	-3.96955E-12	307.677E-3	-22.1796E-3	-4.09360E-12	347.136E-3	-23.1007E-3
-562.781E-6	-4.10377E-12	303.422E-3	-22.7257E-3	-4.35244E-12	349.334E-3	-24.4175E-3
-567.784E-6	-4.29912E-12	309.746E-3	-26.2823E-3	-4.76792E-12	352.823E-3	-18.0886E-3
-572.786E-6	-4.39666E-12	318.171E-3	-22.0775E-3	-4.70539E-12	351.942E-3	-14.3604E-3
-577.789E-6	-4.48111E-12	328.074E-3	-2.81850E-3	-4.77339E-12	345.828E-3	-15.4881E-3
-582.791E-6	-4.74768E-12	324.573E-3	-1.68740E-3	-4.85090E-12	340.432E-3	-19.3875E-3
-587.794E-6	-4.82255E-12	322.397E-3	-10.1997E-3	-5.08706E-12	348.013E-3	-14.5163E-3
-592.796E-6	-4.79156E-12	340.530E-3	-11.0790E-3	-5.25712E-12	358.755E-3	-6.96290E-3
-597.799E-6	-4.85161E-12	345.995E-3	-10.9145E-3	-5.24597E-12	366.504E-3	-566.136E-6
-602.801E-6	-5.10679E-12	338.637E-3	-9.78911E-3	-5.32105E-12	372.435E-3	-5.87245E-3
-607.804E-6	-5.27769E-12	345.051E-3	-9.57866E-3	-5.25783E-12	374.901E-3	-24.9756E-3
-612.806E-6	-5.39882E-12	346.120E-3	-12.9893E-3	-5.58107E-12	382.633E-3	-30.6811E-3
-617.809E-6	-5.26542E-12	333.494E-3	-25.2994E-3	-5.77224E-12	401.006E-3	-25.8020E-3
-622.811E-6	-5.46706E-12	335.430E-3	-34.8679E-3	-5.87872E-12	404.371E-3	-12.8497E-3
-627.814E-6	-5.83427E-12	346.112E-3	-20.7350E-3	-5.91685E-12	393.308E-3	-4.59133E-3
-632.816E-6	-5.76662E-12	351.173E-3	-922.677E-6	-6.12266E-12	386.604E-3	-14.2762E-3
-637.819E-6	-5.71485E-12	348.914E-3	771.580E-6	-6.32940E-12	376.123E-3	-20.8985E-3
-642.821E-6	-5.91060E-12	333.923E-3	-14.2306E-3	-6.32043E-12	372.168E-3	-9.33939E-3
-647.824E-6	-6.13439E-12	323.470E-3	-25.3384E-3	-6.25818E-12	369.460E-3	-10.5233E-3
-652.826E-6	-6.19401E-12	329.843E-3	-20.7406E-3	-6.25384E-12	353.725E-3	-27.0585E-3
-657.829E-6	-6.13383E-12	339.260E-3	-19.0110E-3	-6.83651E-12	357.304E-3	-32.4862E-3
-662.831E-6	-6.45748E-12	342.577E-3	-27.2836E-3	-6.68757E-12	390.413E-3	-27.4709E-3
-667.834E-6	-6.63900E-12	342.902E-3	-31.8486E-3	-6.81437E-12	399.847E-3	-24.2903E-3
-672.836E-6	-6.58393E-12	348.099E-3	-31.4150E-3	-7.15064E-12	371.037E-3	-16.8053E-3
-677.839E-6	-6.66236E-12	353.691E-3	-32.4773E-3	-7.50671E-12	352.981E-3	-6.13806E-3
-682.841E-6	-7.05424E-12	347.933E-3	-34.9990E-3	-7.51005E-12	355.914E-3	-12.5595E-3
-687.844E-6	-7.17509E-12	345.128E-3	-33.5616E-3	-7.22193E-12	362.415E-3	-23.9828E-3
-692.846E-6	-7.32766E-12	347.450E-3	-23.2625E-3	-7.28428E-12	374.145E-3	-25.0328E-3
-697.849E-6	-7.13393E-12	346.385E-3	-17.5926E-3	-7.63735E-12	373.038E-3	-12.1198E-3
-702.851E-6	-7.34949E-12	346.914E-3	-16.2905E-3	-8.08940E-12	366.466E-3	586.661E-6
-707.854E-6	-7.57610E-12	345.634E-3	-9.10364E-3	-7.78580E-12	374.514E-3	-6.85134E-3
-712.856E-6	-7.81284E-12	341.870E-3	-13.4587E-3	-7.97009E-12	372.992E-3	-20.8590E-3
-717.859E-6	-7.87179E-12	341.597E-3	-27.5169E-3	-8.40148E-12	357.842E-3	-19.9491E-3
-722.861E-6	-7.79372E-12	341.566E-3	-34.0302E-3	-8.75712E-12	354.387E-3	-16.5925E-3
-727.864E-6	-8.10943E-12	334.373E-3	-28.4851E-3	-8.66896E-12	360.273E-3	-22.1998E-3
-732.866E-6	-8.41293E-12	326.671E-3	-17.1162E-3	-8.46492E-12	358.480E-3	-25.9628E-3
-737.869E-6	-8.98796E-12	331.040E-3	-16.1160E-3	-8.63299E-12	356.822E-3	-22.4445E-3
-742.871E-6	-8.58535E-12	351.137E-3	-18.9851E-3	-8.74003E-12	355.091E-3	-12.8398E-3
-747.874E-6	-8.23808E-12	367.961E-3	-14.4984E-3	-8.97991E-12	335.179E-3	-5.60548E-3
-752.876E-6	-8.67913E-12	360.246E-3	-12.5199E-3	-9.23848E-12	305.448E-3	-4.30947E-3
-757.879E-6	-9.16055E-12	338.772E-3	-10.6730E-3	-9.11467E-12	302.738E-3	-8.10656E-3
-762.881E-6	-9.39520E-12	334.590E-3	-20.2980E-3	-8.91066E-12	319.876E-3	-16.4551E-3
-767.884E-6	-8.96911E-12	346.323E-3	-39.3939E-3	-9.11361E-12	325.811E-3	-12.9882E-3
-772.886E-6	-9.18157E-12	343.934E-3	-42.9977E-3	-9.14846E-12	330.235E-3	-21.6584E-6
-777.889E-6	-9.53791E-12	329.680E-3	-33.1524E-3	-9.65814E-12	334.661E-3	-1.39082E-3
-782.891E-6	-10.0921E-12	329.542E-3	-15.3552E-3	-9.44810E-12	322.628E-3	-7.78145E-3
-787.894E-6	-9.63913E-12	344.992E-3	-2.60480E-3	-9.88578E-12	310.656E-3	-11.6000E-3
-792.896E-6	-9.67146E-12	353.682E-3	1.46222E-3	-9.99825E-12	312.242E-3	-15.1960E-3
-797.899E-6	-9.78620E-12	339.911E-3	-4.23766E-3	-10.0442E-12	312.181E-3	-8.45421E-3
-802.901E-6	-9.95668E-12	315.542E-3	-18.4111E-3	-9.74695E-12	306.359E-3	2.59863E-3
-807.904E-6	-10.3532E-12	307.638E-3	-22.2338E-3	-9.92725E-12	296.971E-3	-43.5878E-6
-812.906E-6	-9.96505E-12	300.927E-3	-10.7812E-3	-10.6204E-12	296.279E-3	-10.5606E-3
-817.909E-6	-9.99229E-12	284.825E-3	-5.38486E-3	-10.5400E-12	294.903E-3	-10.1752E-3
-822.911E-6	-10.3861E-12	279.799E-3	-11.9624E-3	-10.6761E-12	287.065E-3	-14.1702E-3
-827.914E-6	-10.7953E-12	284.391E-3	-6.10600E-3	-10.5585E-12	282.499E-3	-16.2915E-3
-832.916E-6	-10.6564E-12	282.239E-3	3.41990E-3	-11.1159E-12	277.835E-3	-15.9479E-3
-837.919E-6	-10.2847E-12	279.041E-3	-6.51719E-3	-11.1295E-12	279.158E-3	-35.9022E-3
-842.921E-6	-10.2284E-12	274.052E-3	-16.4009E-3	-10.9956E-12	280.726E-3	-41.6723E-3
-847.924E-6	-10.6151E-12	256.093E-3	-16.5683E-3	-11.0765E-12	269.991E-3	-17.2150E-3
-852.926E-6	-11.1329E-12	246.801E-3	-19.1918E-3	-11.3076E-12	261.519E-3	-7.48372E-3
-857.929E-6	-10.7969E-12	257.566E-3	-22.3559E-3	-11.6018E-12	266.367E-3	-14.5667E-3
-862.931E-6	-10.7295E-12	264.113E-3	-19.4071E-3	-11.3580E-12	260.981E-3	-16.3534E-3
-867.934E-6	-11.0808E-12	255.435E-3	-18.7917E-3	-11.4237E-12	253.058E-3	-25.5452E-3
-872.936E-6	-11.9497E-12	252.880E-3	-31.3386E-3	-11.6047E-12	242.658E-3	-31.5434E-3
-877.939E-6	-11.8036E-12	254.886E-3	-29.3592E-3	-12.0958E-12	225.615E-3	-24.8234E-3
-882.941E-6	-11.5501E-12	254.349E-3	-17.7292E-3	-11.9534E-12	222.953E-3	-13.2305E-3
-887.944E-6	-11.5080E-12	251.585E-3	-19.5954E-3	-11.9079E-12	222.375E-3	-6.12820E-3
-892.946E-6	-12.0214E-12	239.767E-3	-19.9918E-3	-11.9892E-12	224.668E-3	-4.20927E-3
-897.949E-6	-12.2506E-12	228.735E-3	-18.5692E-3	-11.8310E-12	231.082E-3	-2.88130E-3
-902.951E-6	-11.8707E-12	232.571E-3	-13.8586E-3	-12.0560E-12	218.725E-3	134.155E-6
-907.954E-6	-11.8422E-12	238.380E-3	-13.3172E-3	-12.5919E-12	210.513E-3	-4.32637E-3
-912.956E-6	-12.1346E-12	229.298E-3	-24.8197E-3	-12.6465E-12	220.867E-3	-23.0625E-3
-917.959E-6	-12.0746E-12	216.435E-3	-25.2065E-3	-12.0992E-12	215.474E-3	-31.9684E-3
-922.961E-6	-11.7376E-12	208.590E-3	-12.7575E-3	-12.1753E-12	212.543E-3	-21.7728E-3
-927.964E-6	-12.0550E-12	215.185E-3	1.96034E-3	-12.3959E-12	213.154E-3	-10.7172E-3
-932.966E-6	-12.7742E-12	228.711E-3	8.98462E-3	-12.4772E-12	202.842E-3	-16.0386E-3
-937.969E-6	-12.7507E-12	227.352E-3	3.01218E-3	-12.1109E-12	201.750E-3	-30.3807E-3
-942.971E-6	-12.0475E-12	213.494E-3	-1.08690E-3	-12.4985E-12	203.253E-3	-35.3583E-3
-947.974E-6	-11.7991E-12	194.360E-3	2.64178E-3	-13.1011E-12	200.199E-3	-24.0458E-3
-952.976E-6	-12.5801E-12	181.444E-3	2.10929E-3	-13.0552E-12	195.292E-3	-20.7103E-3
-957.979E-6	-13.0623E-12	183.313E-3	-9.98132E-3	-12.4766E-12	189.391E-3	-28.8051E-3
-962.981E-6	-12.4811E-12	193.414E-3	-24.1329E-3	-11.8957E-12	183.622E-3	-26.8217E-3
-967.984E-6	-12.3522E-12	197.105E-3	-23.8991E-3	-12.3649E-12	187.900E-3	-14.7450E-3
-972.986E-6	-12.9378E-12	187.270E-3	-10.3839E-3	-12.5856E-12	205.039E-3	-13.6699E-3
-977.989E-6	-13.7897E-12	183.479E-3	-8.76163E-3	-12.5966E-12	214.677E-3	-21.6123E-3
-982.991E-6	-13.3946E-12	194.088E-3	-8.87307E-3	-12.6201E-12	202.845E-3	-19.2289E-3
-987.994E-6	-13.2261E-12	196.019E-3	-1.19217E-3	-13.2326E-12	201.464E-3	-24.4216E-3
-992.997E-6	-13.1799E-12	192.745E-3	-3.87398E-3	-13.4967E-12	206.808E-3	-37.7795E-3
-997.999E-6	-13.2456E-12	197.518E-3	-12.7281E-3	-12.9028E-12	197.686E-3	-34.5724E-3
-1.00300E-3	-13.3876E-12	201.785E-3	-19.8945E-3	-13.6454E-12	181.044E-3	-12.8625E-3
-1.00800E-3	-13.5459E-12	203.766E-3	-26.4193E-3	-13.9706E-12	171.347E-3	2.58597E-3
-1.01301E-3	-13.4343E-12	206.517E-3	-21.5427E-3	-13.8556E-12	194.349E-3	8.74762E-3
-1.01801E-3	-12.9600E-12	203.405E-3	-14.7869E-3	-13.8337E-12	234.104E-3	340.367E-6
-1.02301E-3	-13.8996E-12	204.298E-3	-21.2991E-3	-14.0680E-12	253.273E-3	-17.2331E-3
-1.02801E-3	-13.7525E-12	206.496E-3	-25.6590E-3	-15.3055E-12	244.951E-3	-15.5463E-3
-1.03302E-3	-13.7516E-12	207.446E-3	-14.1077E-3	-14.7994E-12	236.010E-3	-450.317E-6
-1.03802E-3	-13.1208E-12	219.641E-3	-56.0475E-6	-14.3670E-12	226.662E-3	410.680E-6
-1.04302E-3	-13.4130E-12	230.405E-3	-1.96378E-3	-14.7353E-12	222.410E-3	-8.38599E-3
-1.04802E-3	-14.2692E-12	227.942E-3	-22.6462E-3	-15.1057E-12	230.779E-3	-12.8927E-3
-1.05303E-3	-14.2592E-12	225.117E-3	-44.3077E-3	-14.3689E-12	234.977E-3	-24.9048E-3
-1.05803E-3	-13.8509E-12	235.896E-3	-46.9787E-3	-14.1525E-12	233.137E-3	-28.2811E-3
-1.06303E-3	-13.4800E-12	247.639E-3	-31.1348E-3	-14.4172E-12	240.714E-3	-22.7339E-3
-1.06803E-3	-14.3215E-12	253.608E-3	-15.3797E-3	-14.3646E-12	259.546E-3	-22.2375E-3
-1.07304E-3	-14.4227E-12	248.482E-3	-9.88010E-3	-14.3422E-12	262.962E-3	-21.6214E-3
-1.07804E-3	-14.1293E-12	238.072E-3	-6.90002E-3	-14.7077E-12	267.897E-3	-22.9790E-3
-1.08304E-3	-13.4940E-12	243.377E-3	-13.1760E-3	-14.7361E-12	287.181E-3	-24.4954E-3
-1.08804E-3	-14.0472E-12	255.891E-3	-20.8468E-3	-14.1655E-12	292.395E-3	-12.5084E-3
-1.09305E-3	-14.6001E-12	258.910E-3	-16.7440E-3	-14.5990E-12	289.650E-3	-1.91840E-3
-1.09805E-3	-15.0144E-12	263.795E-3	-12.6509E-3	-15.0836E-12	301.574E-3	-5.57724E-3
-1.10305E-3	-14.3381E-12	280.923E-3	-15.1985E-3	-15.0792E-12	319.335E-3	-8.18699E-3
-1.10805E-3	-14.2278E-12	289.645E-3	-18.5496E-3	-14.9343E-12	340.528E-3	-13.3467E-3
-1.11306E-3	-15.0045E-12	287.978E-3	-23.3801E-3	-14.7243E-12	349.758E-3	-25.0818E-3
-1.11806E-3	-15.9055E-12	295.177E-3	-31.9323E-3	-15.1922E-12	342.628E-3	-36.5694E-3
-1.12306E-3	-15.6813E-12	301.027E-3	-36.5554E-3	-15.1986E-12	351.685E-3	-23.9759E-3
-1.12806E-3	-15.3724E-12	311.239E-3	-31.7047E-3	-15.4466E-12	366.841E-3	-1.83105E-3
-1.13307E-3	-15.5505E-12	340.600E-3	-17.8714E-3	-15.1513E-12	361.063E-3	4.77871E-3
-1.13807E-3	-16.0103E-12	357.493E-3	-11.4867E-3	-15.5587E-12	362.375E-3	-5.43440E-3
-1.14307E-3	-16.2317E-12	357.729E-3	-18.7260E-3	-15.3021E-12	389.039E-3	-18.4029E-3
-1.14807E-3	-15.6724E-12	368.020E-3	-26.9496E-3	-15.7761E-12	407.331E-3	-13.6864E-3
-1.15308E-3	-15.3732E-12	377.064E-3	-27.1821E-3	-15.9806E-12	418.162E-3	-9.97020E-3
-1.15808E-3	-16.3310E-12	375.861E-3	-26.6599E-3	-16.2727E-12	427.955E-3	-18.7944E-3
-1.16308E-3	-16.6849E-12	386.087E-3	-31.6000E-3	-15.8058E-12	425.485E-3	-33.1044E-3
-1.16808E-3	-15.9096E-12	403.967E-3	-30.0817E-3	-15.7483E-12	433.680E-3	-34.8407E-3
-1.17309E-3	-15.5793E-12	419.053E-3	-27.3638E-3	-15.9778E-12	460.045E-3	-22.7098E-3
-1.17809E-3	-15.8386E-12	432.302E-3	-32.2750E-3	-16.0181E-12	481.719E-3	-14.6015E-3
-1.18309E-3	-16.6688E-12	430.728E-3	-26.1434E-3	-16.5413E-12	491.207E-3	-14.0018E-3
-1.18809E-3	-16.9179E-12	428.184E-3	-7.47794E-3	-16.3821E-12	503.008E-3	-14.9889E-3
-1.19310E-3	-16.3400E-12	449.493E-3	-3.84535E-3	-16.1773E-12	521.308E-3	-22.9878E-3
-1.19810E-3	-16.6748E-12	478.839E-3	-6.23108E-3	-16.8006E-12	533.586E-3	-26.3167E-3
-1.20310E-3	-17.2245E-12	486.714E-3	-3.44278E-3	-17.2217E-12	543.798E-3	-26.8208E-3
-1.20810E-3	-18.0671E-12	493.081E-3	-4.33819E-3	-17.3289E-12	566.292E-3	-35.9892E-3
-1.21311E-3	-17.7415E-12	519.153E-3	-443.455E-6	-17.0145E-12	591.377E-3	-36.2109E-3
-1.21811E-3	-18.0813E-12	541.031E-3	-1.59937E-3	-17.3058E-12	603.886E-3	-32.3546E-3
-1.22311E-3	-18.1149E-12	563.549E-3	-15.9841E-3	-18.7410E-12	601.485E-3	-31.4694E-3
-1.22811E-3	-19.0002E-12	587.428E-3	-13.2491E-3	-18.5445E-12	615.804E-3	-26.6755E-3
-1.23312E-3	-19.1699E-12	599.226E-3	-2.53101E-3	-17.9517E-12	646.826E-3	-16.3082E-3
-1.23812E-3	-19.6535E-12	617.330E-3	-7.05605E-3	-17.9702E-12	656.305E-3	-14.3243E-3
-1.24312E-3	-19.3718E-12	629.422E-3	-12.1294E-3	-18.9098E-12	658.593E-3	-16.4241E-3
-1.24812E-3	-19.7462E-12	623.951E-3	-18.1079E-3	-18.9361E-12	672.744E-3	-10.9277E-3
-1.25313E-3	-20.1641E-12	631.390E-3	-18.3334E-3	-19.2035E-12	697.455E-3	-5.72321E-3
-1.25813E-3	-19.9720E-12	659.602E-3	-12.4074E-3	-19.1060E-12	723.948E-3	-11.7644E-3
-1.26313E-3	-19.9703E-12	692.297E-3	-10.2487E-3	-19.4503E-12	739.249E-3	-23.9550E-3
-1.26813E-3	-19.6942E-12	713.127E-3	-11.4984E-3	-19.8618E-12	747.900E-3	-30.1084E-3
-1.27314E-3	-20.7599E-12	723.330E-3	-10.1823E-3	-20.0289E-12	764.169E-3	-30.2575E-3
-1.27814E-3	-20.8823E-12	720.529E-3	-5.66541E-3	-20.4637E-12	786.343E-3	-22.0131E-3
-1.28314E-3	-21.0143E-12	721.184E-3	-18.7178E-3	-20.2442E-12	799.217E-3	-18.4394E-3
-1.28814E-3	-20.8068E-12	748.056E-3	-35.4533E-3	-20.4566E-12	797.380E-3	-11.0198E-3
-1.29315E-3	-21.4686E-12	769.504E-3	-35.8639E-3	-21.0822E-12	804.925E-3	-1.13075E-3
-1.29815E-3	-22.8612E-12	772.881E-3	-33.6649E-3	-21.3838E-12	821.501E-3	-5.78684E-3
-1.30315E-3	-22.9247E-12	786.791E-3	-22.8112E-3	-21.0571E-12	828.451E-3	-9.94785E-3
-1.30815E-3	-22.4772E-12	808.551E-3	-3.37301E-3	-21.6742E-12	846.385E-3	-2.43982E-3
-1.31316E-3	-22.7205E-12	822.182E-3	-5.12988E-3	-22.2097E-12	873.689E-3	-11.6109E-3
-1.31816E-3	-24.9359E-12	841.671E-3	-24.6458E-3	-22.4282E-12	891.791E-3	-27.4350E-3
-1.32316E-3	-24.6173E-12	862.764E-3	-34.7347E-3	-22.3817E-12	910.716E-3	-18.3646E-3
-1.32816E-3	-23.4676E-12	874.104E-3	-26.4584E-3	-22.6105E-12	931.730E-3	-8.08417E-3
-1.33317E-3	-24.0973E-12	883.993E-3	-16.5854E-3	-23.2807E-12	938.868E-3	-2.02611E-3
-1.33817E-3	-25.3240E-12	893.939E-3	-13.5907E-3	-23.8213E-12	943.318E-3	8.81521E-3
-1.34317E-3	-25.7100E-12	911.295E-3	-23.2253E-3	-24.4523E-12	958.066E-3	3.19202E-3
-1.34817E-3	-24.5536E-12	937.789E-3	-31.1463E-3	-24.3701E-12	971.086E-3	-26.3525E-3
-1.35318E-3	-24.5188E-12	951.273E-3	-16.7446E-3	-24.5312E-12	976.029E-3	-33.5208E-3
-1.35818E-3	-25.3924E-12	946.915E-3	-10.4138E-3	-24.8744E-12	984.145E-3	-14.1501E-3
-1.36318E-3	-26.0706E-12	950.762E-3	-20.3802E-3	-25.5478E-12	991.767E-3	-2.68626E-3
-1.36818E-3	-26.4538E-12	959.857E-3	-20.5688E-3	-26.1699E-12	997.813E-3	638.934E-6
-1.37319E-3	-25.8504E-12	958.034E-3	-16.3960E-3	-26.9966E-12	1.01527E+0	4.88844E-3
-1.37819E-3	-25.9673E-12	959.572E-3	-16.8661E-3	-26.9630E-12	1.03013E+0	3.10796E-3
-1.38319E-3	-26.6196E-12	971.860E-3	-11.2144E-3	-26.4816E-12	1.04242E+0	1.51594E-3
-1.38819E-3	-27.0633E-12	981.921E-3	-10.5146E-3	-27.2181E-12	1.04784E+0	-2.15081E-3
-1.39320E-3	-26.9908E-12	983.477E-3	-20.5873E-3	-27.6868E-12	1.03191E+0	-20.4643E-3
-1.39820E-3	-27.2876E-12	984.886E-3	-23.5392E-3	-28.6807E-12	1.01259E+0	-24.7590E-3
-1.40320E-3	-28.3500E-12	996.718E-3	-3.99496E-3	-27.6200E-12	1.01503E+0	-9.01658E-3
-1.40820E-3	-29.4105E-12	1.01985E+0	5.97320E-3	-28.0218E-12	1.03658E+0	-639.082E-6
-1.41321E-3	-29.0287E-12	1.03668E+0	-10.3203E-3	-28.3623E-12	1.05016E+0	-3.30085E-3
-1.41821E-3	-28.5771E-12	1.04047E+0	-20.9147E-3	-29.6668E-12	1.05691E+0	-4.59468E-3
-1.42321E-3	-29.8339E-12	1.04947E+0	-23.0998E-3	-29.6251E-12	1.06652E+0	-18.5567E-3
-1.42821E-3	-31.1337E-12	1.06323E+0	-18.4144E-3	-29.6586E-12	1.07146E+0	-27.7498E-3
-1.43322E-3	-31.1782E-12	1.06838E+0	-9.49604E-3	-30.1003E-12	1.08277E+0	-18.3382E-3
-1.43822E-3	-30.2691E-12	1.07223E+0	-13.6103E-3	-30.3295E-12	1.09522E+0	-19.6902E-3
-1.44322E-3	-30.8077E-12	1.07060E+0	-14.5811E-3	-31.8662E-12	1.09099E+0	-21.9906E-3
-1.44822E-3	-32.7993E-12	1.06399E+0	179.670E-6	-31.4202E-12	1.09662E+0	-18.9464E-3
-1.45323E-3	-33.1569E-12	1.07422E+0	-570.557E-6	-31.4064E-12	1.10436E+0	-22.0327E-3
-1.45823E-3	-32.2133E-12	1.10365E+0	-7.86834E-3	-31.4481E-12	1.09790E+0	-25.0562E-3
-1.46323E-3	-31.7296E-12	1.11805E+0	-5.46447E-3	-33.1235E-12	1.09219E+0	-30.6093E-3
-1.46823E-3	-32.8941E-12	1.10340E+0	-3.80537E-3	-34.1104E-12	1.08790E+0	-39.4426E-3
-1.47324E-3	-34.1911E-12	1.09344E+0	822.039E-6	-33.3121E-12	1.09419E+0	-42.8133E-3
-1.47824E-3	-33.3240E-12	1.09613E+0	4.86917E-3	-32.7983E-12	1.10199E+0	-37.5431E-3
-1.48324E-3	-33.0014E-12	1.09720E+0	5.36074E-3	-33.7384E-12	1.08803E+0	-22.6218E-3
-1.48824E-3	-34.0922E-12	1.07982E+0	7.07964E-3	-35.8696E-12	1.07100E+0	-14.4032E-3
-1.49325E-3	-35.7064E-12	1.05847E+0	7.75839E-3	-35.0039E-12	1.07162E+0	-13.4606E-3
-1.49825E-3	-35.0595E-12	1.06104E+0	-4.84719E-3	-33.9309E-12	1.07463E+0	-25.8138E-3
-1.50325E-3	-34.8226E-12	1.07547E+0	-24.5649E-3	-33.9840E-12	1.07886E+0	-38.7003E-3
-1.50825E-3	-36.0449E-12	1.08614E+0	-38.4399E-3	-35.6880E-12	1.08069E+0	-22.2077E-3
-1.51326E-3	-37.1015E-12	1.08248E+0	-46.6021E-3	-36.0752E-12	1.07551E+0	-11.9242E-3
-1.51826E-3	-37.0791E-12	1.07860E+0	-38.8902E-3	-35.4304E-12	1.06986E+0	-21.8223E-3
-1.52326E-3	-36.5540E-12	1.08749E+0	-18.3020E-3	-35.7806E-12	1.06718E+0	-22.1483E-3
-1.52826E-3	-37.1737E-12	1.08374E+0	-13.9103E-3	-36.9173E-12	1.06646E+0	-25.5988E-3
-1.53327E-3	-37.7246E-12	1.07820E+0	-23.4851E-3	-39.0287E-12	1.06690E+0	-42.8606E-3
-1.53827E-3	-38.9112E-12	1.08747E+0	-29.8283E-3	-37.9766E-12	1.07506E+0	-34.5477E-3
-1.54327E-3	-39.3860E-12	1.09148E+0	-36.8541E-3	-37.4152E-12	1.09285E+0	-22.7340E-3
-1.54827E-3	-38.8972E-12	1.08671E+0	-24.6889E-3	-37.7074E-12	1.09408E+0	-28.9800E-3
-1.55328E-3	-39.0734E-12	1.07582E+0	6.70465E-3	-39.5419E-12	1.06928E+0	-27.7053E-3
-1.55828E-3	-39.4897E-12	1.06454E+0	8.76867E-3	-40.2774E-12	1.06086E+0	-21.9950E-3
-1.56328E-3	-40.6510E-12	1.06086E+0	-19.6272E-3	-39.6857E-12	1.05866E+0	-22.9274E-3
-1.56828E-3	-39.4970E-12	1.06144E+0	-22.7714E-3	-39.5387E-12	1.04000E+0	-17.1544E-3
-1.57329E-3	-39.6151E-12	1.04699E+0	-6.82173E-3	-39.8819E-12	1.02228E+0	817.976E-6
-1.57829E-3	-40.1377E-12	1.02623E+0	-2.45347E-3	-40.8994E-12	1.00582E+0	-5.84685E-3
-1.58329E-3	-41.2231E-12	1.02350E+0	-2.24759E-3	-40.8431E-12	995.257E-3	-22.9668E-3
-1.58829E-3	-41.1415E-12	1.02684E+0	-5.41425E-3	-40.4954E-12	1.00385E+0	-27.7466E-3
-1.59330E-3	-40.2615E-12	1.03036E+0	-19.8125E-3	-40.4837E-12	1.00861E+0	-23.1688E-3
-1.59830E-3	-40.9950E-12	1.01991E+0	-23.2253E-3	-41.7516E-12	998.564E-3	-2.14802E-3
-1.60330E-3	-42.2963E-12	995.984E-3	-14.3662E-3	-42.8428E-12	1.00458E+0	8.33288E-3
-1.60830E-3	-43.1873E-12	989.589E-3	-17.3798E-3	-42.0436E-12	1.00923E+0	-1.50221E-3
-1.61331E-3	-42.3844E-12	1.01077E+0	-15.3486E-3	-42.1788E-12	996.550E-3	-4.00479E-3
-1.61831E-3	-42.9780E-12	1.02346E+0	-1.73504E-3	-43.2030E-12	979.667E-3	-8.53130E-3
-1.62331E-3	-43.7767E-12	1.00918E+0	1.83442E-3	-44.3819E-12	971.310E-3	-25.9235E-3
-1.62831E-3	-44.7997E-12	1.00782E+0	-11.8701E-3	-43.7561E-12	978.659E-3	-37.3904E-3
-1.63332E-3	-43.7576E-12	1.02528E+0	-29.2496E-3	-43.6358E-12	987.199E-3	-39.2004E-3
-1.63832E-3	-43.9106E-12	1.02769E+0	-44.5585E-3	-44.4266E-12	982.430E-3	-37.5484E-3
-1.64332E-3	-44.4678E-12	1.01155E+0	-31.4539E-3	-46.1219E-12	965.364E-3	-42.6590E-3
-1.64832E-3	-45.5729E-12	996.316E-3	2.11196E-3	-46.0996E-12	950.125E-3	-40.1209E-3
-1.65333E-3	-45.6096E-12	986.678E-3	-59.7533E-6	-45.2649E-12	954.911E-3	-25.1379E-3
-1.65833E-3	-45.1110E-12	986.068E-3	-23.4644E-3	-45.7689E-12	963.646E-3	-17.2115E-3
-1.66333E-3	-45.5050E-12	977.292E-3	-28.1932E-3	-46.6482E-12	960.728E-3	-1.10849E-3
-1.66833E-3	-45.7727E-12	954.924E-3	-32.0937E-3	-47.4887E-12	967.421E-3	-2.94455E-3
-1.67334E-3	-46.8532E-12	950.558E-3	-37.7862E-3	-47.8699E-12	963.831E-3	-29.2953E-3
-1.67834E-3	-46.9572E-12	954.332E-3	-15.0394E-3	-47.4214E-12	948.692E-3	-22.4082E-3
-1.68334E-3	-46.7162E-12	947.104E-3	-141.043E-6	-47.4357E-12	957.093E-3	-8.84640E-3
-1.68834E-3	-46.4244E-12	939.553E-3	-6.46547E-3	-49.2493E-12	956.638E-3	-2.05961E-3
-1.69335E-3	-48.2150E-12	932.330E-3	-6.07369E-3	-49.9504E-12	936.581E-3	11.7985E-3
-1.69835E-3	-48.9141E-12	926.732E-3	-5.10509E-3	-49.6884E-12	932.487E-3	6.22732E-3
-1.70335E-3	-47.8965E-12	935.579E-3	-2.85753E-3	-48.6924E-12	917.971E-3	-10.7044E-3
-1.70835E-3	-47.3915E-12	938.542E-3	7.17101E-3	-49.1242E-12	897.839E-3	-14.8481E-3
-1.71336E-3	-48.9553E-12	924.417E-3	3.84331E-3	-51.0347E-12	894.366E-3	-10.3984E-3
-1.71836E-3	-50.4469E-12	915.507E-3	-24.0921E-3	-51.0420E-12	899.988E-3	-11.1279E-3
-1.72336E-3	-49.6188E-12	922.200E-3	-35.3436E-3	-51.1901E-12	917.420E-3	-11.2888E-3
-1.72836E-3	-49.1546E-12	915.180E-3	-30.2758E-3	-50.2283E-12	918.795E-3	-17.8893E-3
-1.73337E-3	-49.9200E-12	896.184E-3	-29.4834E-3	-52.1781E-12	893.876E-3	-26.4624E-3
-1.73837E-3	-51.8077E-12	901.002E-3	-19.5845E-3	-53.6855E-12	878.787E-3	-28.6453E-3
-1.74337E-3	-51.4950E-12	905.086E-3	-11.0414E-3	-52.3865E-12	896.632E-3	-34.4382E-3
-1.74837E-3	-50.6544E-12	894.255E-3	-22.8353E-3	-51.5466E-12	903.303E-3	-39.3946E-3
-1.75338E-3	-50.9952E-12	892.013E-3	-28.9565E-3	-52.1288E-12	880.808E-3	-30.8602E-3
-1.75838E-3	-52.6814E-12	891.566E-3	-14.9765E-3	-53.8196E-12	885.274E-3	-15.4091E-3
-1.76338E-3	-53.4301E-12	886.783E-3	-17.9071E-3	-53.9894E-12	900.390E-3	-13.8608E-3
-1.76838E-3	-52.5402E-12	897.549E-3	-27.6103E-3	-54.5616E-12	887.292E-3	-7.05845E-3
-1.77339E-3	-51.6411E-12	903.578E-3	-13.8412E-3	-54.2155E-12	881.936E-3	-4.29013E-3
-1.77839E-3	-52.7942E-12	888.217E-3	-7.52314E-3	-55.3630E-12	880.763E-3	-21.3200E-3
-1.78339E-3	-53.9662E-12	864.686E-3	1.65868E-3	-55.5196E-12	864.680E-3	-17.0889E-3
-1.78839E-3	-53.2216E-12	842.260E-3	17.2316E-3	-55.8292E-12	855.717E-3	1.24668E-3
-1.79340E-3	-52.4053E-12	842.929E-3	-1.95994E-3	-56.2724E-12	837.597E-3	7.69752E-3
-1.79840E-3	-52.6251E-12	851.909E-3	-24.7569E-3	-56.0442E-12	816.832E-3	7.86741E-3
-1.80340E-3	-54.1858E-12	837.981E-3	-28.4385E-3	-56.3928E-12	813.812E-3	3.41174E-3
-1.80840E-3	-55.0154E-12	827.193E-3	-34.4397E-3	-56.1928E-12	816.318E-3	3.35393E-3
-1.81341E-3	-54.0082E-12	836.358E-3	-37.0003E-3	-55.3200E-12	819.238E-3	3.80689E-3
-1.81841E-3	-53.6656E-12	833.012E-3	-19.3065E-3	-54.4454E-12	817.809E-3	555.211E-6
-1.82341E-3	-54.5216E-12	827.081E-3	-6.98154E-3	-54.9438E-12	810.541E-3	-3.95228E-3
-1.82841E-3	-55.7310E-12	828.379E-3	-2.99227E-3	-55.9210E-12	795.524E-3	-15.0207E-3
-1.83342E-3	-56.1843E-12	823.538E-3	13.9067E-3	-55.8776E-12	788.904E-3	-11.8402E-3
-1.83842E-3	-55.5586E-12	820.703E-3	22.9512E-3	-55.3902E-12	802.698E-3	-2.25526E-3
-1.84342E-3	-56.1139E-12	830.155E-3	20.5620E-3	-55.4700E-12	810.111E-3	-14.4304E-3
-1.84842E-3	-57.0146E-12	827.703E-3	11.4686E-3	-57.0156E-12	804.093E-3	-30.5887E-3
-1.85343E-3	-58.7516E-12	808.084E-3	-9.15360E-3	-57.7303E-12	806.462E-3	-33.9781E-3
-1.85843E-3	-58.5113E-12	811.291E-3	-31.0221E-3	-58.1778E-12	810.881E-3	-29.4161E-3
-1.86343E-3	-58.1029E-12	831.873E-3	-37.5033E-3	-57.7852E-12	821.808E-3	-305.629E-6
-1.86843E-3	-57.8961E-12	835.998E-3	-38.3130E-3	-58.9708E-12	834.516E-3	28.2508E-3
-1.87344E-3	-59.8427E-12	824.369E-3	-44.5053E-3	-60.5208E-12	818.199E-3	15.1241E-3
-1.87844E-3	-60.3096E-12	813.808E-3	-40.6836E-3	-60.7537E-12	797.367E-3	-3.55644E-3
-1.88344E-3	-59.9644E-12	802.446E-3	-18.8705E-3	-60.3064E-12	808.695E-3	-13.8688E-3
-1.88844E-3	-59.7350E-12	800.375E-3	321.350E-6	-60.9592E-12	823.767E-3	-12.4402E-3
-1.89345E-3	-60.8654E-12	805.323E-3	4.07016E-3	-62.4136E-12	824.650E-3	-4.00287E-3
-1.89845E-3	-61.8589E-12	803.142E-3	-1.34665E-3	-61.5038E-12	816.891E-3	-12.6562E-3
-1.90345E-3	-60.6528E-12	803.383E-3	-7.10912E-3	-61.2310E-12	791.739E-3	-17.8393E-3
-1.90845E-3	-59.5170E-12	807.505E-3	-6.02584E-3	-60.9373E-12	773.040E-3	-11.2118E-3
-1.91346E-3	-60.4019E-12	792.496E-3	-14.2609E-3	-62.8748E-12	772.869E-3	-7.22494E-3
-1.91846E-3	-61.2662E-12	772.866E-3	-24.0428E-3	-62.3108E-12	776.265E-3	-12.3330E-3
-1.92346E-3	-61.1972E-12	786.855E-3	-20.9420E-3	-62.0992E-12	772.251E-3	-9.19543E-3
-1.92846E-3	-60.9632E-12	799.285E-3	-11.3242E-3	-61.2405E-12	777.452E-3	7.04667E-3
-1.93347E-3	-62.4938E-12	788.941E-3	-4.18750E-3	-62.1037E-12	790.888E-3	-2.83136E-3
-1.93847E-3	-63.1228E-12	771.688E-3	-9.32991E-3	-63.2240E-12	787.374E-3	-26.6640E-3
-1.94347E-3	-63.6749E-12	748.451E-3	-24.4350E-3	-64.0601E-12	787.665E-3	-25.9643E-3
-1.94847E-3	-64.2638E-12	738.878E-3	-34.7529E-3	-64.6632E-12	785.910E-3	-25.1662E-3
-1.95348E-3	-63.4398E-12	766.529E-3	-20.4864E-3	-63.6851E-12	769.997E-3	-25.5553E-3
-1.95848E-3	-64.6883E-12	795.980E-3	-3.47621E-3	-65.0231E-12	788.140E-3	-21.9469E-3
-1.96348E-3	-65.0393E-12	793.680E-3	-8.02715E-3	-66.3638E-12	816.669E-3	-30.1722E-3
-1.96848E-3	-65.8066E-12	782.047E-3	-12.0459E-3	-67.5877E-12	793.837E-3	-27.5572E-3
-1.97349E-3	-64.7474E-12	759.941E-3	-4.32593E-3	-66.9811E-12	781.003E-3	-18.8194E-3
-1.97849E-3	-64.0920E-12	739.490E-3	-5.56190E-3	-65.8823E-12	790.902E-3	-25.0520E-3
-1.98349E-3	-64.8937E-12	749.220E-3	-9.72147E-3	-66.5437E-12	768.251E-3	-16.3330E-3
-1.98849E-3	-65.2052E-12	767.107E-3	-11.2716E-3	-68.3816E-12	748.923E-3	4.40911E-3
-1.99350E-3	-64.7152E-12	768.719E-3	-19.5792E-3	-69.1437E-12	745.923E-3	-185.390E-6
-1.99850E-3	-64.0414E-12	769.520E-3	-21.1663E-3	-66.9935E-12	741.455E-3	-7.22164E-3
-2.00350E-3	-65.2801E-12	757.037E-3	-21.5092E-3	-66.0664E-12	763.808E-3	-5.37611E-3
-2.00850E-3	-65.7676E-12	729.081E-3	-35.5392E-3	-67.8204E-12	795.924E-3	-11.3746E-3
-2.01351E-3	-65.2492E-12	731.008E-3	-39.7914E-3	-70.2464E-12	788.247E-3	-6.86656E-3
-2.01851E-3	-65.1774E-12	749.234E-3	-19.9338E-3	-69.4176E-12	758.664E-3	4.55824E-3
-2.02351E-3	-65.4898E-12	753.104E-3	-15.3090E-3	-68.4830E-12	750.184E-3	-3.88654E-3
-2.02851E-3	-66.6109E-12	749.278E-3	-27.3085E-3	-67.9155E-12	755.766E-3	-9.71904E-3
-2.03352E-3	-66.6344E-12	744.288E-3	-30.1697E-3	-69.8052E-12	760.899E-3	2.39728E-3
-2.03852E-3	-67.5859E-12	745.220E-3	-14.6999E-3	-70.5148E-12	760.906E-3	3.78424E-3
-2.04352E-3	-67.2465E-12	747.564E-3	-1.08017E-3	-70.3299E-12	745.096E-3	-12.1482E-3
-2.04852E-3	-68.6361E-12	754.195E-3	-9.66412E-3	-69.1095E-12	742.075E-3	-15.3476E-3
-2.05353E-3	-69.0878E-12	774.116E-3	-16.3158E-3	-69.8761E-12	768.453E-3	-12.8666E-3
-2.05853E-3	-69.0037E-12	777.813E-3	-7.52299E-3	-70.0734E-12	772.422E-3	-23.8002E-3
-2.06353E-3	-68.5493E-12	762.675E-3	10.3202E-3	-70.6423E-12	747.684E-3	-16.4997E-3
-2.06853E-3	-69.1691E-12	743.739E-3	16.0363E-3	-71.4736E-12	741.008E-3	-5.04006E-3
-2.07354E-3	-69.3383E-12	726.618E-3	-109.532E-6	-71.0490E-12	724.755E-3	-19.0013E-3
-2.07854E-3	-69.3231E-12	729.952E-3	-16.5528E-3	-69.8885E-12	704.762E-3	-24.8563E-3
-2.08354E-3	-69.6478E-12	738.589E-3	-14.4357E-3	-70.3042E-12	727.717E-3	-15.5655E-3
-2.08854E-3	-70.1962E-12	735.564E-3	-8.88329E-3	-70.4361E-12	739.388E-3	-14.3459E-3
-2.09355E-3	-70.2835E-12	736.338E-3	-577.096E-6	-71.0454E-12	724.840E-3	-16.3718E-3
-2.09855E-3	-70.2128E-12	737.187E-3	-9.61809E-3	-71.1542E-12	721.565E-3	-19.0654E-3
-2.10355E-3	-69.8547E-12	727.544E-3	-27.4055E-3	-70.8732E-12	723.160E-3	-25.1654E-3
-2.10855E-3	-70.1481E-12	720.028E-3	-25.6114E-3	-71.0813E-12	728.373E-3	-29.5008E-3
-2.11356E-3	-70.7182E-12	710.634E-3	-28.7132E-3	-70.7903E-12	731.187E-3	-32.2758E-3
-2.11856E-3	-71.1491E-12	707.431E-3	-39.9636E-3	-71.8168E-12	709.998E-3	-29.5866E-3
-2.12356E-3	-71.6297E-12	706.279E-3	-45.7154E-3	-72.9031E-12	696.708E-3	-27.1107E-3
-2.12856E-3	-72.1301E-12	701.118E-3	-38.6460E-3	-71.8442E-12	714.889E-3	-14.3238E-3
-2.13357E-3	-71.4096E-12	706.753E-3	-32.3281E-3	-70.8426E-12	716.090E-3	-7.31685E-3
-2.13857E-3	-71.4778E-12	720.521E-3	-23.9124E-3	-72.2012E-12	693.419E-3	-19.1323E-3
-2.14357E-3	-72.0143E-12	718.098E-3	-22.9796E-3	-74.0159E-12	693.301E-3	-24.4219E-3
-2.14857E-3	-73.3105E-12	714.905E-3	-24.3690E-3	-72.2694E-12	711.971E-3	-31.1793E-3
-2.15358E-3	-72.9399E-12	733.002E-3	-16.4237E-3	-71.3085E-12	711.276E-3	-32.6003E-3
-2.15858E-3	-73.6233E-12	733.931E-3	-20.2338E-3	-71.3707E-12	703.541E-3	-14.8825E-3
-2.16358E-3	-73.9036E-12	712.929E-3	-34.8499E-3	-72.9811E-12	699.478E-3	-11.7241E-3
-2.16858E-3	-74.3749E-12	700.303E-3	-42.7776E-3	-73.2686E-12	695.273E-3	-21.5551E-3
-2.17359E-3	-74.0276E-12	703.585E-3	-39.8396E-3	-72.4554E-12	713.374E-3	-7.73282E-3
-2.17859E-3	-74.7871E-12	714.586E-3	-35.6378E-3	-72.2454E-12	736.785E-3	-13.7696E-3
-2.18359E-3	-75.5563E-12	729.513E-3	-24.9254E-3	-72.8689E-12	726.606E-3	-46.7083E-3
-2.18859E-3	-74.2731E-12	728.218E-3	921.831E-6	-74.4594E-12	707.165E-3	-47.8988E-3
-2.19360E-3	-75.1506E-12	710.811E-3	17.6155E-3	-74.9191E-12	699.470E-3	-28.1101E-3
-2.19860E-3	-76.1373E-12	707.943E-3	2.94146E-3	-73.9135E-12	687.004E-3	-24.7567E-3
-2.20360E-3	-76.3757E-12	715.186E-3	-10.8616E-3	-74.3431E-12	684.785E-3	-16.8697E-3
-2.20860E-3	-75.4754E-12	715.268E-3	-26.9825E-3	-74.9339E-12	698.750E-3	-6.91518E-3
-2.21361E-3	-74.4336E-12	718.786E-3	-58.5431E-3	-76.1012E-12	703.083E-3	-32.6715E-3
-2.21861E-3	-75.7133E-12	710.760E-3	-63.0809E-3	-75.4048E-12	711.073E-3	-52.9051E-3
-2.22361E-3	-77.4164E-12	684.411E-3	-32.7896E-3	-75.0224E-12	727.864E-3	-45.7551E-3
-2.22861E-3	-77.3431E-12	681.840E-3	-15.3832E-3	-75.3865E-12	706.931E-3	-35.0880E-3
-2.23362E-3	-75.7420E-12	690.655E-3	-15.9747E-3	-76.8904E-12	684.456E-3	-16.9538E-3
-2.23862E-3	-75.8533E-12	690.866E-3	-21.2372E-3	-76.4739E-12	698.418E-3	-7.88381E-3
-2.24362E-3	-76.7102E-12	693.840E-3	-34.1914E-3	-75.2602E-12	698.598E-3	-20.1218E-3
-2.24862E-3	-76.9849E-12	691.958E-3	-34.7912E-3	-74.5921E-12	675.942E-3	-13.1511E-3
-2.25363E-3	-77.5013E-12	689.077E-3	-27.2821E-3	-76.0261E-12	671.952E-3	5.81179E-3
-2.25863E-3	-79.3790E-12	702.481E-3	-23.2247E-3	-77.1493E-12	680.231E-3	1.66328E-3
-2.26363E-3	-78.4940E-12	704.786E-3	-18.8329E-3	-76.9137E-12	675.699E-3	-2.93894E-3
-2.26863E-3	-77.9343E-12	687.797E-3	-18.5054E-3	-76.6220E-12	679.451E-3	-10.6432E-3
-2.27364E-3	-77.9430E-12	690.828E-3	-26.9366E-3	-77.8086E-12	679.733E-3	-30.5857E-3
-2.27864E-3	-79.9036E-12	702.175E-3	-19.4706E-3	-79.0801E-12	664.372E-3	-34.6594E-3
-2.28364E-3	-80.6461E-12	703.096E-3	5.37647E-3	-79.8021E-12	667.880E-3	-14.8820E-3
-2.28864E-3	-79.0962E-12	706.846E-3	20.4395E-3	-80.4517E-12	676.002E-3	2.78282E-3
-2.29365E-3	-79.3597E-12	709.144E-3	16.1986E-3	-80.0932E-12	675.376E-3	2.79335E-3
-2.29865E-3	-79.7319E-12	691.029E-3	-3.16163E-3	-80.2301E-12	689.523E-3	-4.79304E-3
-2.30365E-3	-81.7515E-12	680.631E-3	-26.1923E-3	-80.5986E-12	696.836E-3	-5.40814E-3
-2.30865E-3	-80.5961E-12	685.094E-3	-43.4539E-3	-82.2183E-12	686.927E-3	-8.10853E-3
-2.31366E-3	-78.4814E-12	685.548E-3	-38.4043E-3	-82.8018E-12	685.210E-3	-22.8680E-3
-2.31866E-3	-78.7318E-12	700.355E-3	-27.6121E-3	-81.3804E-12	688.057E-3	-35.0489E-3
-2.32366E-3	-80.1985E-12	711.137E-3	-28.9789E-3	-80.7505E-12	684.015E-3	-37.5872E-3
-2.32866E-3	-80.5704E-12	700.330E-3	-35.5202E-3	-80.9928E-12	683.351E-3	-34.7664E-3
-2.33367E-3	-79.0017E-12	686.983E-3	-44.8748E-3	-81.3863E-12	681.869E-3	-29.3983E-3
-2.33867E-3	-79.3824E-12	689.391E-3	-50.2125E-3	-80.4916E-12	671.395E-3	-12.3861E-3
-2.34367E-3	-80.6951E-12	694.008E-3	-36.8527E-3	-80.1491E-12	675.967E-3	-1.78660E-3
-2.34867E-3	-81.4159E-12	693.915E-3	-24.0273E-3	-80.4934E-12	688.785E-3	-13.5032E-3
-2.35368E-3	-80.3261E-12	696.268E-3	-25.5008E-3	-82.4553E-12	697.137E-3	-14.8246E-3
-2.35868E-3	-80.3257E-12	685.767E-3	-23.7000E-3	-83.3510E-12	708.713E-3	-11.7855E-3
-2.36368E-3	-82.3245E-12	665.444E-3	-24.3354E-3	-81.6379E-12	703.195E-3	-20.8973E-3
-2.36868E-3	-83.4993E-12	663.673E-3	-24.0693E-3	-82.5602E-12	679.435E-3	-27.1599E-3
-2.37369E-3	-82.7929E-12	678.940E-3	-22.6591E-3	-83.3397E-12	683.167E-3	-36.1567E-3
-2.37869E-3	-82.1318E-12	686.963E-3	-22.3436E-3	-84.2043E-12	703.701E-3	-39.9066E-3
-2.38369E-3	-83.1986E-12	683.342E-3	-19.7475E-3	-83.5857E-12	695.685E-3	-21.5685E-3
-2.38869E-3	-84.9670E-12	679.924E-3	-12.4689E-3	-83.7337E-12	681.755E-3	-8.24445E-3
-2.39370E-3	-84.7903E-12	684.253E-3	-26.7271E-3	-84.5026E-12	685.997E-3	-21.6578E-3
-2.39870E-3	-84.4017E-12	706.203E-3	-48.6077E-3	-85.2225E-12	696.612E-3	-29.8570E-3
-2.40370E-3	-83.4211E-12	725.200E-3	-27.5593E-3	-84.6120E-12	702.725E-3	-6.11948E-3
-2.40870E-3	-84.1312E-12	701.732E-3	-527.788E-6	-84.5762E-12	694.702E-3	5.60915E-3
-2.41371E-3	-84.4433E-12	676.827E-3	-12.0456E-3	-85.3165E-12	663.299E-3	-16.3937E-3
-2.41871E-3	-85.1499E-12	660.501E-3	-24.2037E-3	-85.8170E-12	638.723E-3	-29.5041E-3
-2.42371E-3	-83.5224E-12	645.171E-3	-21.0523E-3	-85.8040E-12	644.169E-3	-23.0096E-3
-2.42871E-3	-83.1672E-12	658.416E-3	-22.7431E-3	-84.7884E-12	645.386E-3	-24.4240E-3
-2.43372E-3	-83.4976E-12	669.958E-3	-27.9416E-3	-84.4126E-12	645.822E-3	-19.8033E-3
-2.43872E-3	-84.9793E-12	651.898E-3	-33.0709E-3	-84.4234E-12	670.194E-3	-8.94845E-3
-2.44372E-3	-84.7714E-12	630.285E-3	-30.6317E-3	-86.0709E-12	684.292E-3	-16.6240E-3
-2.44872E-3	-83.6416E-12	639.452E-3	-19.3866E-3	-85.4561E-12	664.111E-3	-24.1858E-3
-2.45373E-3	-84.8794E-12	655.944E-3	4.23695E-3	-84.8744E-12	669.163E-3	-14.1346E-3
-2.45873E-3	-86.1477E-12	650.372E-3	4.65099E-3	-85.0949E-12	685.023E-3	-4.49766E-3
-2.46373E-3	-88.2620E-12	646.779E-3	-15.7785E-3	-86.5722E-12	658.179E-3	-8.83820E-3
-2.46873E-3	-87.5968E-12	660.677E-3	-10.5435E-3	-87.0069E-12	653.122E-3	-10.1823E-3
-2.47374E-3	-87.2270E-12	672.038E-3	-13.4684E-3	-87.1368E-12	686.992E-3	-6.27110E-3
-2.47874E-3	-87.5379E-12	681.439E-3	-36.1073E-3	-87.0227E-12	679.379E-3	2.01406E-3
-2.48374E-3	-88.5715E-12	692.073E-3	-30.5494E-3	-87.1388E-12	653.288E-3	4.04906E-3
-2.48874E-3	-89.2218E-12	693.755E-3	-14.6756E-3	-89.2813E-12	650.289E-3	-7.97055E-3
-2.49375E-3	-88.1674E-12	694.408E-3	-19.1864E-3	-89.5773E-12	644.127E-3	-14.4642E-3
-2.49875E-3	-89.1554E-12	681.452E-3	-15.6382E-3	-87.3842E-12	646.950E-3	-2.68526E-3
-2.50375E-3	-90.2313E-12	651.547E-3	-17.7923E-3	-87.3674E-12	653.684E-3	7.13686E-3
-2.50875E-3	-90.3425E-12	655.948E-3	-35.9900E-3	-88.6112E-12	651.563E-3	-660.095E-6
-2.51376E-3	-88.7675E-12	678.019E-3	-30.8442E-3	-89.8780E-12	648.345E-3	-6.37758E-3
-2.51876E-3	-88.6324E-12	662.347E-3	-12.1979E-3	-88.0705E-12	645.022E-3	-6.30257E-3
-2.52376E-3	-91.2047E-12	638.937E-3	-10.6167E-3	-87.5107E-12	646.881E-3	-4.68181E-3
-2.52876E-3	-91.4683E-12	631.173E-3	-5.60184E-3	-88.3351E-12	658.635E-3	-12.5282E-3
-2.53377E-3	-90.8121E-12	639.972E-3	6.46366E-3	-91.3994E-12	671.016E-3	-21.8893E-3
-2.53877E-3	-89.7098E-12	656.761E-3	-2.94791E-3	-90.9265E-12	670.253E-3	-30.6389E-3
-2.54377E-3	-91.2444E-12	656.975E-3	-22.7683E-3	-89.6207E-12	660.024E-3	-29.2822E-3
-2.54877E-3	-91.8752E-12	651.970E-3	-31.4059E-3	-90.1721E-12	660.209E-3	-4.95314E-3
-2.55378E-3	-92.0892E-12	674.180E-3	-29.8365E-3	-92.8769E-12	668.357E-3	9.23737E-3
-2.55878E-3	-92.1029E-12	677.466E-3	-26.4185E-3	-92.5762E-12	665.142E-3	12.1928E-3
-2.56378E-3	-91.9088E-12	647.569E-3	-21.8703E-3	-90.8483E-12	674.627E-3	10.0330E-3
-2.56878E-3	-93.1139E-12	653.165E-3	-15.3894E-3	-90.5523E-12	677.264E-3	-13.2395E-3
-2.57379E-3	-93.2511E-12	666.260E-3	-2.07076E-3	-91.9777E-12	644.932E-3	-37.7671E-3
-2.57879E-3	-93.9141E-12	666.204E-3	-5.68919E-3	-92.9755E-12	624.177E-3	-24.0555E-3
-2.58379E-3	-93.6597E-12	682.050E-3	-33.1664E-3	-92.3966E-12	635.506E-3	3.66067E-3
-2.58879E-3	-94.5935E-12	695.061E-3	-38.2558E-3	-91.3447E-12	659.225E-3	6.20732E-3
-2.59380E-3	-94.3068E-12	684.566E-3	-26.9883E-3	-91.2644E-12	657.971E-3	-15.1219E-3
-2.59880E-3	-94.6981E-12	675.371E-3	-19.4865E-3	-93.6588E-12	628.859E-3	-28.8028E-3
-2.60380E-3	-93.8283E-12	681.672E-3	-7.42800E-3	-93.7670E-12	604.344E-3	-17.2525E-3
-2.60880E-3	-95.4146E-12	681.006E-3	-7.37228E-3	-93.0435E-12	604.974E-3	-6.84010E-3
-2.61381E-3	-96.0875E-12	673.704E-3	-20.1406E-3	-92.0931E-12	627.519E-3	-4.09255E-3
-2.61881E-3	-95.5557E-12	678.853E-3	-20.1640E-3	-93.6539E-12	639.273E-3	-6.49986E-3
-2.62381E-3	-94.2909E-12	669.221E-3	-24.1164E-3	-95.0999E-12	643.174E-3	-16.6883E-3
-2.62881E-3	-95.0251E-12	646.090E-3	-26.6795E-3	-95.3686E-12	655.082E-3	-25.7033E-3
-2.63382E-3	-97.1133E-12	651.870E-3	-19.0531E-3	-93.6238E-12	644.730E-3	-28.8947E-3
-2.63882E-3	-95.4307E-12	661.538E-3	-21.9195E-3	-93.9895E-12	624.260E-3	-17.1835E-3
-2.64382E-3	-94.9732E-12	673.172E-3	-28.5766E-3	-96.4559E-12	634.900E-3	-18.2472E-3
-2.64882E-3	-95.4568E-12	685.015E-3	-21.6224E-3	-96.7241E-12	647.604E-3	-32.5641E-3
-2.65383E-3	-96.8081E-12	673.895E-3	-21.8108E-3	-96.5094E-12	648.261E-3	-21.8837E-3
-2.65883E-3	-96.3947E-12	661.182E-3	-39.4293E-3	-95.8889E-12	665.975E-3	-19.7594E-3
-2.66383E-3	-95.6699E-12	670.152E-3	-29.6919E-3	-96.5135E-12	677.731E-3	-22.7871E-3
-2.66883E-3	-95.7563E-12	665.531E-3	-12.2079E-3	-97.3272E-12	664.617E-3	-12.1817E-3
-2.67384E-3	-95.3596E-12	638.976E-3	-10.9088E-3	-97.1796E-12	638.470E-3	-12.8082E-3
-2.67884E-3	-96.2626E-12	636.296E-3	-12.8912E-3	-96.0612E-12	630.825E-3	-2.79134E-3
-2.68384E-3	-96.5180E-12	655.406E-3	-23.1618E-3	-96.5182E-12	648.415E-3	14.8423E-3
-2.68884E-3	-99.2555E-12	657.706E-3	-27.4933E-3	-99.1056E-12	643.640E-3	11.8321E-3
-2.69385E-3	-96.9283E-12	648.040E-3	-15.9096E-3	-100.537E-12	645.830E-3	4.29612E-3
-2.69885E-3	-96.9030E-12	663.840E-3	-10.4648E-3	-98.3091E-12	672.978E-3	7.34600E-3
-2.70385E-3	-98.6423E-12	651.788E-3	-10.9077E-3	-96.9357E-12	680.605E-3	14.9296E-3
-2.70885E-3	-100.202E-12	616.710E-3	-19.8241E-3	-99.5600E-12	673.551E-3	5.43816E-3
-2.71386E-3	-99.6931E-12	619.369E-3	-30.8830E-3	-101.901E-12	669.535E-3	-19.6843E-3
-2.71886E-3	-97.9106E-12	634.221E-3	-17.5473E-3	-100.706E-12	673.871E-3	-16.4678E-3
-2.72386E-3	-99.4371E-12	642.750E-3	-12.4085E-3	-97.9237E-12	688.165E-3	-3.61677E-3
-2.72886E-3	-98.6171E-12	659.635E-3	-12.0243E-3	-99.6467E-12	703.207E-3	-21.1821E-3
-2.73387E-3	-98.6642E-12	665.922E-3	-4.91003E-3	-102.474E-12	708.468E-3	-44.1098E-3
-2.73887E-3	-97.8112E-12	668.458E-3	-16.0308E-3	-103.547E-12	691.479E-3	-38.8366E-3
-2.74387E-3	-97.9148E-12	661.638E-3	-19.5262E-3	-101.702E-12	663.452E-3	-13.8763E-3
-2.74887E-3	-99.6540E-12	618.804E-3	-14.3812E-3	-100.503E-12	665.274E-3	-2.74526E-3
-2.75388E-3	-98.2604E-12	609.380E-3	-21.1636E-3	-102.556E-12	656.067E-3	-18.4022E-3
-2.75888E-3	-98.6106E-12	627.938E-3	-11.9933E-3	-103.716E-12	629.464E-3	-21.9798E-3
-2.76388E-3	-98.1564E-12	623.886E-3	-7.98148E-3	-101.814E-12	644.664E-3	-1.15236E-3
-2.76888E-3	-100.455E-12	619.351E-3	-16.2226E-3	-100.481E-12	646.818E-3	-5.48619E-3
-2.77389E-3	-100.212E-12	620.291E-3	-13.2537E-3	-100.952E-12	621.026E-3	1.01212E-3
-2.77889E-3	-101.105E-12	621.846E-3	-18.0411E-3	-102.932E-12	626.598E-3	6.88646E-3
-2.78389E-3	-100.855E-12	643.004E-3	-6.48532E-3	-101.287E-12	638.424E-3	-25.7680E-3
-2.78889E-3	-100.306E-12	649.993E-3	15.4927E-3	-100.200E-12	641.383E-3	-45.1287E-3
-2.79390E-3	-103.502E-12	632.582E-3	10.1118E-3	-101.154E-12	642.866E-3	-51.2002E-3
-2.79890E-3	-103.548E-12	628.140E-3	-22.2286E-3	-102.958E-12	634.505E-3	-56.8143E-3
-2.80390E-3	-104.565E-12	639.672E-3	-32.6315E-3	-103.151E-12	633.172E-3	-38.4582E-3
-2.80890E-3	-102.541E-12	652.405E-3	-14.1410E-3	-102.467E-12	645.600E-3	-7.83410E-3
-2.81391E-3	-104.396E-12	646.629E-3	-19.9570E-3	-103.755E-12	652.550E-3	37.2399E-6
-2.81891E-3	-105.186E-12	641.307E-3	-31.3909E-3	-105.183E-12	652.317E-3	-8.69300E-3
-2.82391E-3	-105.168E-12	638.299E-3	-23.7689E-3	-102.216E-12	657.402E-3	-6.72304E-3
-2.82891E-3	-105.178E-12	642.616E-3	-27.6825E-3	-102.716E-12	649.397E-3	-6.13216E-3
-2.83392E-3	-105.063E-12	669.710E-3	-32.6637E-3	-105.538E-12	640.956E-3	-13.2112E-3
-2.83892E-3	-106.283E-12	677.012E-3	-23.9520E-3	-105.632E-12	651.307E-3	-13.8878E-3
-2.84392E-3	-105.170E-12	657.955E-3	-43.5735E-3	-104.035E-12	654.241E-3	-20.5084E-3
-2.84892E-3	-105.398E-12	662.539E-3	-42.0516E-3	-103.259E-12	644.562E-3	-24.6360E-3
-2.85393E-3	-103.844E-12	655.504E-3	11.8727E-3	-104.609E-12	639.495E-3	-28.7420E-3
-2.85893E-3	-105.265E-12	616.211E-3	30.0300E-3	-105.274E-12	641.813E-3	-29.3931E-3
-2.86393E-3	-105.651E-12	615.949E-3	5.05674E-3	-104.073E-12	641.480E-3	-13.3728E-3
-2.86893E-3	-104.655E-12	640.359E-3	-12.0437E-3	-103.549E-12	627.892E-3	-4.17250E-3
-2.87394E-3	-105.549E-12	650.487E-3	-22.5506E-3	-105.860E-12	613.503E-3	-11.1907E-3
-2.87894E-3	-105.457E-12	649.051E-3	-33.5239E-3	-105.666E-12	613.874E-3	-19.1499E-3
-2.88394E-3	-106.811E-12	658.830E-3	-20.9243E-3	-106.635E-12	627.147E-3	-9.19775E-3
-2.88894E-3	-106.307E-12	678.819E-3	920.602E-6	-107.965E-12	648.060E-3	-7.39223E-3
-2.89395E-3	-107.886E-12	690.494E-3	-4.20221E-3	-108.267E-12	649.550E-3	-33.7299E-3
-2.89895E-3	-107.498E-12	694.881E-3	-15.6672E-3	-108.652E-12	642.073E-3	-45.5582E-3
-2.90395E-3	-108.309E-12	668.902E-3	-5.46923E-3	-108.747E-12	660.073E-3	-25.7267E-3
-2.90895E-3	-109.622E-12	632.005E-3	-4.75937E-3	-108.522E-12	671.643E-3	-13.3492E-3
-2.91396E-3	-109.786E-12	633.182E-3	-26.3150E-3	-109.236E-12	655.212E-3	-3.42004E-3
-2.91896E-3	-109.355E-12	632.758E-3	-34.6696E-3	-109.270E-12	642.319E-3	5.47773E-3
-2.92396E-3	-109.552E-12	613.255E-3	-31.9365E-3	-109.543E-12	648.652E-3	497.306E-6
-2.92896E-3	-110.278E-12	627.967E-3	-14.3234E-3	-111.514E-12	667.510E-3	1.89887E-3
-2.93397E-3	-109.063E-12	638.742E-3	13.1256E-3	-111.281E-12	687.922E-3	3.04092E-3
-2.93897E-3	-107.441E-12	638.311E-3	10.7040E-3	-110.469E-12	693.462E-3	17.4505E-3
-2.94397E-3	-106.219E-12	659.958E-3	-7.68213E-3	-109.890E-12	698.926E-3	44.0287E-3
-2.94897E-3	-107.119E-12	671.419E-3	-7.98169E-3	-109.640E-12	693.601E-3	45.2275E-3
-2.95398E-3	-109.024E-12	661.980E-3	2.97919E-3	-112.135E-12	657.777E-3	22.4273E-3
-2.95898E-3	-107.556E-12	655.097E-3	-6.31266E-3	-112.397E-12	634.667E-3	7.04258E-3
-2.96398E-3	-105.787E-12	659.205E-3	-34.4725E-3	-110.854E-12	630.838E-3	-31.3554E-6
-2.96898E-3	-106.252E-12	658.777E-3	-34.6149E-3	-111.429E-12	630.878E-3	-1.66378E-3
-2.97399E-3	-108.693E-12	647.218E-3	-26.6994E-3	-112.143E-12	644.070E-3	4.92862E-3
-2.97899E-3	-109.682E-12	615.982E-3	-27.8786E-3	-114.376E-12	657.918E-3	-5.12354E-3
-2.98399E-3	-109.408E-12	585.263E-3	-25.5506E-3	-112.265E-12	657.841E-3	-33.4135E-3
-2.98899E-3	-108.963E-12	588.181E-3	-32.9113E-3	-111.334E-12	654.684E-3	-49.0934E-3
-2.99400E-3	-111.180E-12	603.999E-3	-33.4871E-3	-111.554E-12	655.428E-3	-23.0371E-3
-2.99900E-3	-112.828E-12	611.833E-3	-22.9191E-3	-112.806E-12	652.295E-3	-13.0539E-3
-3.00400E-3	-111.611E-12	625.903E-3	-6.37929E-3	-112.446E-12	644.322E-3	-39.2120E-3
-3.00900E-3	-110.798E-12	629.927E-3	-284.747E-6	-112.251E-12	639.669E-3	-28.8413E-3
-3.01401E-3	-112.301E-12	629.177E-3	-23.8488E-3	-111.603E-12	627.271E-3	-6.00412E-3
-3.01901E-3	-113.834E-12	646.901E-3	-48.6942E-3	-111.386E-12	606.445E-3	-15.9125E-3
-3.02401E-3	-113.044E-12	653.440E-3	-40.1602E-3	-112.660E-12	599.651E-3	-31.3478E-3
-3.02901E-3	-110.813E-12	650.358E-3	-21.0599E-3	-113.040E-12	599.617E-3	-28.5556E-3
-3.03402E-3	-110.885E-12	660.973E-3	-17.8401E-3	-111.553E-12	606.381E-3	-22.5467E-3
-3.03902E-3	-112.224E-12	664.355E-3	-28.3786E-3	-110.454E-12	631.721E-3	-31.3356E-3
-3.04402E-3	-112.425E-12	640.744E-3	-43.8378E-3	-110.424E-12	653.265E-3	-43.1014E-3
-3.04902E-3	-111.245E-12	634.218E-3	-54.4256E-3	-112.655E-12	641.223E-3	-34.6235E-3
-3.05403E-3	-109.447E-12	645.563E-3	-24.7980E-3	-113.132E-12	636.217E-3	-15.9753E-3
-3.05903E-3	-111.895E-12	636.440E-3	18.8425E-3	-112.166E-12	654.575E-3	-3.75951E-3
-3.06403E-3	-112.930E-12	628.093E-3	13.9571E-3	-110.906E-12	665.156E-3	8.92344E-3
-3.06903E-3	-111.161E-12	637.664E-3	-13.6156E-3	-113.108E-12	660.867E-3	12.0217E-3
-3.07404E-3	-110.624E-12	636.089E-3	-34.1064E-3	-115.295E-12	642.915E-3	-5.42546E-3
-3.07904E-3	-111.801E-12	626.876E-3	-33.4612E-3	-114.524E-12	640.619E-3	-23.5033E-3
-3.08404E-3	-114.225E-12	626.107E-3	-31.6654E-3	-113.341E-12	644.439E-3	-23.3729E-3
-3.08904E-3	-113.834E-12	623.627E-3	-47.9408E-3	-113.797E-12	627.407E-3	-13.8577E-3
-3.09405E-3	-113.297E-12	625.762E-3	-48.6684E-3	-114.874E-12	620.381E-3	-13.6948E-3
-3.09905E-3	-113.258E-12	619.232E-3	-10.5167E-3	-113.905E-12	622.483E-3	4.00492E-3
-3.10405E-3	-114.877E-12	605.850E-3	11.8262E-3	-113.492E-12	625.882E-3	10.9183E-3
-3.10905E-3	-115.541E-12	611.605E-3	-9.03197E-3	-113.735E-12	643.592E-3	-26.4081E-3
-3.11406E-3	-113.676E-12	638.140E-3	-21.3629E-3	-114.878E-12	647.084E-3	-27.5228E-3
-3.11906E-3	-115.347E-12	649.733E-3	-27.3812E-3	-114.682E-12	644.767E-3	711.818E-6
-3.12406E-3	-116.145E-12	647.216E-3	-41.7808E-3	-113.776E-12	647.870E-3	-1.86655E-3
-3.12906E-3	-115.672E-12	653.534E-3	-43.0113E-3	-115.188E-12	635.751E-3	-8.40068E-3
-3.13407E-3	-114.046E-12	649.986E-3	-21.3318E-3	-115.781E-12	631.528E-3	-20.9216E-3
-3.13907E-3	-114.628E-12	640.053E-3	-4.58436E-3	-115.775E-12	616.268E-3	-49.5995E-3
-3.14407E-3	-115.843E-12	627.114E-3	-15.5880E-3	-115.791E-12	607.011E-3	-45.8366E-3
-3.14907E-3	-115.647E-12	605.959E-3	-35.5800E-3	-116.591E-12	641.903E-3	-18.2922E-3
-3.15408E-3	-115.504E-12	604.984E-3	-43.2749E-3	-117.583E-12	661.716E-3	-2.83884E-3
-3.15908E-3	-115.170E-12	622.422E-3	-41.2829E-3	-117.823E-12	647.393E-3	7.01292E-3
-3.16408E-3	-116.077E-12	628.060E-3	-23.3337E-3	-119.925E-12	639.426E-3	-1.93596E-3
-3.16908E-3	-117.281E-12	623.788E-3	3.68006E-3	-119.648E-12	647.926E-3	-26.8852E-3
-3.17409E-3	-117.376E-12	622.938E-3	20.3578E-3	-121.470E-12	648.675E-3	-33.2735E-3
-3.17909E-3	-116.825E-12	619.803E-3	26.4778E-3	-120.531E-12	643.220E-3	-20.5369E-3
-3.18409E-3	-116.124E-12	603.619E-3	34.8673E-3	-120.369E-12	653.679E-3	-25.2345E-3
-3.18909E-3	-116.700E-12	592.315E-3	33.4484E-3	-119.347E-12	652.343E-3	-24.1912E-3
-3.19410E-3	-118.035E-12	598.486E-3	15.3935E-3	-119.018E-12	638.880E-3	-635.534E-6
-3.19910E-3	-118.275E-12	610.648E-3	46.5869E-6	-119.997E-12	648.338E-3	-524.449E-6
-3.20410E-3	-119.263E-12	600.610E-3	-15.2140E-3	-118.593E-12	651.139E-3	3.33480E-3
-3.20910E-3	-120.188E-12	579.190E-3	-26.0149E-3	-117.861E-12	644.525E-3	43.4660E-3
-3.21411E-3	-119.815E-12	600.644E-3	-17.1855E-3	-118.923E-12	634.644E-3	58.6956E-3
-3.21911E-3	-120.270E-12	661.285E-3	-5.70613E-3	-118.776E-12	610.182E-3	7.09251E-3
-3.22411E-3	-121.567E-12	679.464E-3	288.583E-6	-118.374E-12	611.540E-3	-20.1920E-3
-3.22911E-3	-121.794E-12	623.173E-3	12.8660E-3	-118.942E-12	643.821E-3	3.18370E-3
-3.23412E-3	-121.471E-12	591.380E-3	4.58494E-3	-120.161E-12	659.372E-3	1.82202E-3
-3.23912E-3	-120.791E-12	609.792E-3	-12.6390E-3	-120.957E-12	651.901E-3	-11.7337E-3
-3.24412E-3	-121.490E-12	617.821E-3	-16.7855E-3	-121.283E-12	637.068E-3	-7.15106E-3
-3.24912E-3	-122.014E-12	620.305E-3	-24.4790E-3	-121.012E-12	609.752E-3	-5.71926E-3
-3.25413E-3	-120.676E-12	629.588E-3	-6.99722E-3	-122.806E-12	582.920E-3	-12.6417E-3
-3.25913E-3	-120.262E-12	625.885E-3	7.13586E-3	-122.529E-12	586.465E-3	-13.3133E-3
-3.26413E-3	-120.890E-12	633.401E-3	-6.51942E-3	-120.555E-12	626.335E-3	-24.1738E-3
-3.26913E-3	-120.862E-12	650.332E-3	-1.52826E-3	-121.614E-12	645.089E-3	-45.8685E-3
-3.27414E-3	-120.537E-12	635.121E-3	8.65516E-3	-122.710E-12	638.819E-3	-42.4692E-3
-3.27914E-3	-119.463E-12	617.479E-3	-9.06450E-3	-122.990E-12	649.574E-3	-22.3925E-3
-3.28414E-3	-119.935E-12	606.549E-3	-26.7922E-3	-121.447E-12	644.900E-3	-10.9446E-3
-3.28914E-3	-120.756E-12	597.652E-3	-17.2308E-3	-121.649E-12	629.005E-3	-2.14257E-3
-3.29415E-3	-120.722E-12	616.982E-3	6.62326E-3	-122.727E-12	621.558E-3	-13.7107E-3
-3.29915E-3	-121.259E-12	630.863E-3	14.1010E-3	-122.991E-12	609.626E-3	-33.8640E-3
-3.30415E-3	-120.690E-12	617.216E-3	8.52896E-3	-121.800E-12	605.076E-3	-19.1762E-3
-3.30915E-3	-121.569E-12	609.059E-3	21.3395E-3	-121.491E-12	611.137E-3	-9.52510E-3
-3.31416E-3	-121.880E-12	602.307E-3	19.8921E-3	-122.490E-12	608.652E-3	-26.2665E-3
-3.31916E-3	-123.405E-12	603.066E-3	-15.8870E-3	-124.026E-12	611.785E-3	-32.9665E-3
-3.32416E-3	-124.322E-12	631.534E-3	-43.2652E-3	-123.807E-12	647.150E-3	-41.1061E-3
-3.32916E-3	-124.077E-12	663.391E-3	-31.7242E-3	-122.583E-12	672.396E-3	-52.9114E-3
-3.33417E-3	-124.533E-12	663.609E-3	-18.2840E-3	-123.279E-12	651.035E-3	-61.4294E-3
-3.33917E-3	-124.778E-12	646.981E-3	-24.9408E-3	-125.029E-12	621.218E-3	-54.9014E-3
-3.34417E-3	-125.016E-12	638.375E-3	-20.8829E-3	-126.794E-12	601.870E-3	-23.5681E-3
-3.34917E-3	-125.134E-12	616.836E-3	-7.29677E-3	-125.678E-12	606.537E-3	523.203E-6
-3.35418E-3	-124.042E-12	608.573E-3	-8.50512E-3	-123.924E-12	616.682E-3	1.90667E-3
-3.35918E-3	-123.405E-12	627.613E-3	-2.95870E-3	-125.255E-12	599.262E-3	-16.1778E-3
-3.36418E-3	-123.838E-12	636.811E-3	22.8435E-3	-127.471E-12	579.499E-3	-39.6795E-3
-3.36918E-3	-123.751E-12	631.051E-3	20.4555E-3	-127.485E-12	589.212E-3	-34.7699E-3
-3.37419E-3	-122.906E-12	619.148E-3	-8.25231E-3	-125.131E-12	647.138E-3	-9.49870E-3
-3.37919E-3	-121.441E-12	588.476E-3	-17.9252E-3	-125.169E-12	697.970E-3	6.55374E-3
-3.38419E-3	-122.084E-12	570.874E-3	-11.1338E-3	-127.023E-12	701.133E-3	-1.15662E-3
-3.38919E-3	-122.929E-12	600.570E-3	5.58035E-6	-128.646E-12	673.572E-3	-20.7924E-3
-3.39420E-3	-123.035E-12	615.404E-3	18.2935E-3	-125.720E-12	632.364E-3	-15.5642E-3
-3.39920E-3	-121.852E-12	594.458E-3	13.6338E-3	-124.864E-12	605.571E-3	-380.030E-6
-3.40420E-3	-123.146E-12	580.217E-3	-12.8342E-3	-125.216E-12	590.389E-3	-407.445E-6
-3.40920E-3	-125.033E-12	586.134E-3	-22.3067E-3	-127.573E-12	606.519E-3	-695.007E-6
-3.41421E-3	-124.999E-12	603.069E-3	-17.6486E-3	-127.484E-12	644.210E-3	-17.4687E-3
-3.41921E-3	-124.599E-12	628.349E-3	-28.0591E-3	-125.568E-12	640.004E-3	-46.3152E-3
-3.42421E-3	-125.646E-12	638.029E-3	-42.2474E-3	-125.454E-12	626.300E-3	-46.3482E-3
-3.42921E-3	-127.328E-12	614.095E-3	-24.4513E-3	-126.073E-12	621.691E-3	-35.7463E-3
-3.43422E-3	-128.623E-12	597.785E-3	-2.07425E-3	-127.512E-12	602.579E-3	-42.0248E-3
-3.43922E-3	-128.333E-12	608.971E-3	-7.47224E-3	-125.922E-12	602.048E-3	-41.6821E-3
-3.44422E-3	-127.351E-12	627.381E-3	-31.8691E-3	-126.197E-12	600.771E-3	-32.2892E-3
-3.44922E-3	-128.179E-12	645.947E-3	-40.4468E-3	-127.097E-12	579.576E-3	-22.2441E-3
-3.45423E-3	-128.059E-12	642.866E-3	-22.0630E-3	-128.684E-12	580.740E-3	-16.4114E-3
-3.45923E-3	-128.073E-12	630.666E-3	-19.6010E-3	-127.377E-12	595.158E-3	-38.6567E-3
-3.46423E-3	-127.593E-12	637.792E-3	-34.7120E-3	-126.316E-12	592.676E-3	-57.3606E-3
-3.46923E-3	-127.230E-12	628.253E-3	-17.3927E-3	-128.409E-12	567.224E-3	-48.3150E-3
-3.47424E-3	-126.970E-12	621.353E-3	323.085E-6	-128.356E-12	546.563E-3	-21.3016E-3
-3.47924E-3	-126.178E-12	644.472E-3	-21.5170E-3	-128.695E-12	558.960E-3	295.078E-6
-3.48424E-3	-127.020E-12	639.444E-3	-27.1917E-3	-128.525E-12	588.601E-3	5.76401E-3
-3.48924E-3	-127.040E-12	593.411E-3	-9.16007E-3	-129.900E-12	596.251E-3	20.5597E-3
-3.49425E-3	-127.017E-12	578.269E-3	-3.48349E-3	-130.642E-12	583.590E-3	14.4592E-3
-3.49925E-3	-126.647E-12	593.109E-3	-17.1371E-3	-130.888E-12	588.036E-3	5.93187E-3
-3.50425E-3	-127.643E-12	590.158E-3	-45.7192E-3	-129.702E-12	597.170E-3	16.7909E-3
-3.50925E-3	-129.163E-12	590.285E-3	-69.1174E-3	-130.773E-12	597.298E-3	1.90636E-3
-3.51426E-3	-130.857E-12	606.388E-3	-43.5403E-3	-130.838E-12	597.748E-3	-5.21411E-3
-3.51926E-3	-130.708E-12	612.438E-3	-7.18114E-3	-130.499E-12	609.567E-3	-1.90985E-3
-3.52426E-3	-131.510E-12	612.985E-3	-2.03111E-3	-131.916E-12	623.978E-3	-25.4187E-3
-3.52926E-3	-135.333E-12	630.079E-3	4.84460E-3	-132.101E-12	636.072E-3	-32.4520E-3
-3.53427E-3	-136.422E-12	639.011E-3	4.22224E-3	-131.446E-12	644.860E-3	-22.4062E-3
-3.53927E-3	-135.824E-12	629.813E-3	-16.8563E-3	-131.456E-12	627.993E-3	-27.1534E-3
-3.54427E-3	-135.171E-12	638.620E-3	-27.5037E-3	-132.565E-12	611.424E-3	-16.0694E-3
-3.54927E-3	-135.659E-12	648.638E-3	-21.7706E-3	-133.259E-12	632.706E-3	-2.50153E-3
-3.55428E-3	-137.985E-12	632.350E-3	-31.0404E-3	-133.446E-12	654.558E-3	-16.5372E-3
-3.55928E-3	-136.446E-12	620.970E-3	-24.6128E-3	-133.951E-12	638.112E-3	-38.0158E-3
-3.56428E-3	-134.969E-12	614.954E-3	4.48873E-3	-134.649E-12	614.569E-3	-44.3358E-3
-3.56928E-3	-134.150E-12	612.861E-3	8.01962E-3	-135.096E-12	617.166E-3	-16.3905E-3
-3.57429E-3	-134.208E-12	626.261E-3	-7.85264E-3	-134.780E-12	620.502E-3	9.88269E-3
-3.57929E-3	-135.425E-12	639.200E-3	-27.7455E-3	-134.278E-12	610.134E-3	3.30679E-3
-3.58429E-3	-133.922E-12	648.784E-3	-32.2848E-3	-135.015E-12	628.235E-3	-13.5180E-3
-3.58929E-3	-134.325E-12	637.948E-3	-9.30069E-3	-134.508E-12	634.527E-3	-22.1277E-3
-3.59430E-3	-134.426E-12	617.373E-3	8.72403E-3	-136.268E-12	599.979E-3	-27.0038E-3
-3.59930E-3	-136.077E-12	604.251E-3	13.9089E-3	-135.813E-12	606.643E-3	-25.4965E-3
-3.60430E-3	-135.250E-12	610.808E-3	860.117E-6	-136.474E-12	626.443E-3	-23.3196E-3
-3.60930E-3	-135.739E-12	628.092E-3	-22.8386E-3	-138.123E-12	611.795E-3	-30.7492E-3
-3.61431E-3	-135.067E-12	607.417E-3	-26.2854E-3	-138.406E-12	622.778E-3	-40.3266E-3
-3.61931E-3	-137.572E-12	585.749E-3	-11.3887E-3	-138.121E-12	632.156E-3	-39.3498E-3
-3.62431E-3	-136.876E-12	588.794E-3	20.1176E-3	-137.226E-12	613.117E-3	-25.8367E-3
-3.62931E-3	-136.660E-12	588.546E-3	19.1873E-3	-135.210E-12	615.226E-3	-30.1427E-3
-3.63432E-3	-137.085E-12	602.351E-3	-12.7032E-3	-134.865E-12	615.058E-3	-28.6944E-3
-3.63932E-3	-137.359E-12	627.748E-3	-21.7003E-3	-135.832E-12	614.127E-3	-21.8317E-3
-3.64432E-3	-138.051E-12	634.097E-3	-16.4360E-3	-136.578E-12	620.525E-3	-46.8370E-3
-3.64932E-3	-136.806E-12	622.813E-3	-8.75446E-3	-137.413E-12	616.784E-3	-46.7076E-3
-3.65433E-3	-136.114E-12	603.857E-3	-9.10875E-3	-136.951E-12	630.962E-3	-65.7097E-6
-3.65933E-3	-137.344E-12	591.158E-3	-7.09805E-3	-136.180E-12	623.300E-3	41.9143E-3
-3.66433E-3	-139.301E-12	609.418E-3	-6.26259E-3	-137.275E-12	585.175E-3	58.2009E-3
-3.66933E-3	-138.547E-12	634.701E-3	-7.49124E-3	-137.195E-12	590.249E-3	40.4040E-3
-3.67434E-3	-136.002E-12	624.175E-3	9.28638E-3	-137.370E-12	613.577E-3	10.4268E-3
-3.67934E-3	-135.862E-12	598.734E-3	16.9851E-3	-135.961E-12	621.628E-3	2.35212E-3
-3.68434E-3	-136.778E-12	589.163E-3	-15.9604E-3	-137.685E-12	628.007E-3	-7.23451E-3
-3.68934E-3	-137.426E-12	603.085E-3	-28.5007E-3	-138.562E-12	627.916E-3	-36.9143E-3
-3.69435E-3	-136.123E-12	636.259E-3	-19.6644E-3	-139.378E-12	625.137E-3	-51.2934E-3
-3.69935E-3	-136.012E-12	650.829E-3	-26.7084E-3	-137.973E-12	616.395E-3	-38.0605E-3
-3.70435E-3	-134.979E-12	644.917E-3	-9.72186E-3	-137.898E-12	607.223E-3	-31.5754E-3
-3.70935E-3	-136.553E-12	614.744E-3	151.986E-6	-138.120E-12	601.825E-3	-35.1986E-3
-3.71436E-3	-136.406E-12	598.435E-3	-17.5522E-3	-137.714E-12	595.239E-3	-20.2422E-3
-3.71936E-3	-136.886E-12	606.542E-3	-10.3871E-3	-138.403E-12	605.265E-3	8.64375E-3
-3.72436E-3	-139.057E-12	605.931E-3	181.109E-6	-137.994E-12	617.852E-3	2.35834E-3
-3.72936E-3	-138.993E-12	612.439E-3	-10.1855E-3	-137.722E-12	614.244E-3	-39.1431E-3
-3.73437E-3	-140.231E-12	609.210E-3	-14.7458E-3	-137.612E-12	608.369E-3	-47.5492E-3
-3.73937E-3	-140.978E-12	589.221E-3	-21.0635E-3	-138.519E-12	601.287E-3	-19.6248E-3
-3.74437E-3	-143.376E-12	567.874E-3	-27.2122E-3	-138.137E-12	604.558E-3	2.94749E-3
-3.74937E-3	-143.163E-12	564.299E-3	-33.8471E-3	-137.948E-12	600.724E-3	-3.26600E-3
-3.75438E-3	-143.532E-12	567.100E-3	-32.4320E-3	-139.158E-12	602.753E-3	-26.2841E-3
-3.75938E-3	-143.718E-12	580.247E-3	-35.3005E-3	-139.417E-12	610.029E-3	-38.9875E-3
-3.76438E-3	-144.998E-12	624.045E-3	-43.4330E-3	-140.399E-12	601.127E-3	-33.5466E-3
-3.76938E-3	-145.943E-12	657.606E-3	-7.87687E-3	-139.605E-12	612.471E-3	-25.8882E-3
-3.77439E-3	-144.686E-12	645.147E-3	41.8080E-3	-143.758E-12	616.929E-3	-22.0997E-3
-3.77939E-3	-143.057E-12	630.519E-3	51.4015E-3	-142.900E-12	586.018E-3	-15.4918E-3
-3.78439E-3	-143.838E-12	624.395E-3	32.8369E-3	-142.978E-12	580.088E-3	-9.06433E-3
-3.78939E-3	-144.012E-12	609.017E-3	2.19910E-3	-141.269E-12	603.293E-3	7.36098E-3
-3.79440E-3	-144.361E-12	624.200E-3	-39.9970E-3	-143.403E-12	620.301E-3	-4.70327E-3
-3.79940E-3	-141.425E-12	643.586E-3	-56.0743E-3	-145.444E-12	632.883E-3	-39.7301E-3
-3.80440E-3	-140.528E-12	626.539E-3	-40.0169E-3	-144.770E-12	633.980E-3	-33.7544E-3
-3.80940E-3	-140.278E-12	602.133E-3	-38.4928E-3	-144.820E-12	648.545E-3	-13.9587E-3
-3.81441E-3	-141.398E-12	582.452E-3	-54.2260E-3	-142.342E-12	652.200E-3	-26.0458E-3
-3.81941E-3	-142.062E-12	576.552E-3	-64.6984E-3	-142.873E-12	620.647E-3	-22.8379E-3
-3.82441E-3	-140.631E-12	587.175E-3	-59.6312E-3	-143.410E-12	613.017E-3	3.54643E-3
-3.82941E-3	-140.374E-12	590.261E-3	-39.3433E-3	-142.949E-12	621.443E-3	17.3203E-3
-3.83442E-3	-142.683E-12	597.861E-3	-26.5904E-3	-142.420E-12	612.471E-3	19.6441E-3
-3.83942E-3	-145.907E-12	610.845E-3	-26.7259E-3	-142.426E-12	598.896E-3	-57.1989E-6
-3.84442E-3	-145.419E-12	607.016E-3	-30.5741E-3	-143.567E-12	596.382E-3	-23.8853E-3
-3.84942E-3	-144.422E-12	603.920E-3	-32.8839E-3	-143.523E-12	590.742E-3	-25.1245E-3
-3.85443E-3	-146.441E-12	632.622E-3	-9.76863E-3	-143.712E-12	577.529E-3	-18.3649E-3
-3.85943E-3	-149.457E-12	642.551E-3	7.53789E-3	-142.516E-12	587.852E-3	-10.3764E-3
-3.86443E-3	-150.543E-12	603.450E-3	-10.6912E-3	-145.135E-12	586.244E-3	-14.0640E-3
-3.86943E-3	-149.066E-12	594.301E-3	-42.4578E-3	-145.349E-12	569.299E-3	-36.2994E-3
-3.87444E-3	-149.765E-12	623.641E-3	-45.7396E-3	-144.937E-12	598.346E-3	-42.9777E-3
-3.87944E-3	-150.185E-12	644.001E-3	-8.24773E-3	-144.107E-12	633.374E-3	-35.7760E-3
-3.88444E-3	-152.304E-12	644.759E-3	28.0086E-3	-147.687E-12	621.104E-3	-23.4214E-3
-3.88944E-3	-148.341E-12	634.921E-3	21.9025E-3	-150.844E-12	595.750E-3	-8.18609E-3
-3.89445E-3	-146.697E-12	624.021E-3	366.568E-6	-148.272E-12	596.728E-3	-6.57828E-3
-3.89945E-3	-146.389E-12	623.892E-3	6.19670E-3	-147.994E-12	616.693E-3	-7.55030E-3
-3.90445E-3	-147.046E-12	620.823E-3	7.62948E-3	-151.574E-12	625.916E-3	-6.20489E-3
-3.90945E-3	-148.027E-12	597.446E-3	-24.3424E-3	-154.736E-12	599.070E-3	1.88297E-3
-3.91446E-3	-147.580E-12	595.628E-3	-42.0530E-3	-151.497E-12	565.282E-3	10.8055E-3
-3.91946E-3	-147.408E-12	601.665E-3	-11.0036E-3	-148.589E-12	579.057E-3	4.60392E-3
-3.92446E-3	-147.647E-12	587.581E-3	-13.5177E-3	-149.766E-12	608.236E-3	3.05568E-3
-3.92946E-3	-149.698E-12	602.569E-3	-35.5010E-3	-151.973E-12	610.801E-3	10.1202E-3
-3.93447E-3	-149.344E-12	623.025E-3	-16.6608E-3	-153.071E-12	616.980E-3	6.59928E-3
-3.93947E-3	-149.487E-12	632.803E-3	-21.2844E-3	-150.541E-12	640.221E-3	1.92549E-3
-3.94447E-3	-151.147E-12	656.871E-3	-42.4463E-3	-148.918E-12	632.796E-3	-4.44795E-3
-3.94947E-3	-151.980E-12	646.659E-3	-42.8561E-3	-150.508E-12	588.280E-3	-22.5091E-3
-3.95448E-3	-152.216E-12	616.346E-3	-37.6753E-3	-151.006E-12	567.706E-3	-32.0892E-3
-3.95948E-3	-152.280E-12	599.678E-3	-29.7208E-3	-150.122E-12	599.051E-3	-3.36339E-3
-3.96448E-3	-153.598E-12	586.312E-3	-19.8787E-3	-148.323E-12	610.141E-3	31.1297E-3
-3.96948E-3	-153.444E-12	588.320E-3	-252.102E-6	-150.265E-12	587.507E-3	19.9643E-3
-3.97449E-3	-152.912E-12	607.929E-3	31.9516E-3	-152.906E-12	596.349E-3	-9.41393E-3
-3.97949E-3	-151.754E-12	634.931E-3	41.6064E-3	-151.904E-12	618.751E-3	-15.0678E-3
-3.98449E-3	-151.662E-12	646.604E-3	2.80892E-3	-149.226E-12	634.065E-3	-10.5411E-3
-3.98949E-3	-151.990E-12	646.494E-3	-40.3859E-3	-150.596E-12	642.111E-3	-22.6654E-3
-3.99450E-3	-150.544E-12	632.263E-3	-34.2459E-3	-154.086E-12	634.007E-3	-32.2262E-3
-3.99950E-3	-149.804E-12	588.788E-3	-21.3205E-3	-154.099E-12	619.191E-3	-39.1395E-3
-4.00450E-3	-147.858E-12	570.781E-3	-40.4973E-3	-150.489E-12	600.012E-3	-47.9816E-3
-4.00950E-3	-148.335E-12	593.038E-3	-30.9436E-3	-151.067E-12	587.644E-3	-38.9092E-3
-4.01451E-3	-150.343E-12	589.796E-3	7.47249E-3	-154.874E-12	591.884E-3	-31.6686E-3
-4.01951E-3	-151.399E-12	581.442E-3	-2.51056E-3	-155.099E-12	607.808E-3	-21.0479E-3
-4.02451E-3	-149.072E-12	587.539E-3	-32.8993E-3	-152.581E-12	620.371E-3	-12.5557E-3
-4.02951E-3	-147.347E-12	577.455E-3	-37.0617E-3	-151.690E-12	612.845E-3	-29.9140E-3
-4.03452E-3	-149.738E-12	585.174E-3	-51.7830E-3	-154.206E-12	598.644E-3	-24.3702E-3
-4.03952E-3	-153.629E-12	609.164E-3	-51.6944E-3	-154.271E-12	603.971E-3	-1.58468E-3
-4.04452E-3	-152.489E-12	606.509E-3	-30.9455E-3	-151.629E-12	608.166E-3	-20.3348E-3
-4.04952E-3	-150.260E-12	600.548E-3	-26.7595E-3	-150.342E-12	590.444E-3	-46.7209E-3
-4.05453E-3	-151.392E-12	620.798E-3	-21.8654E-3	-153.430E-12	592.686E-3	-34.8658E-3
-4.05953E-3	-155.912E-12	627.113E-3	-2.84092E-3	-154.393E-12	607.542E-3	-29.8571E-3
-4.06453E-3	-157.576E-12	611.046E-3	-3.90001E-3	-154.266E-12	602.153E-3	-34.2169E-3
-4.06953E-3	-154.695E-12	610.908E-3	-33.7578E-3	-152.324E-12	612.638E-3	-13.1439E-3
-4.07454E-3	-151.881E-12	607.729E-3	-51.1444E-3	-152.491E-12	612.084E-3	-6.06306E-3
-4.07954E-3	-153.823E-12	581.316E-3	-54.8796E-3	-155.076E-12	586.775E-3	-14.5554E-3
-4.08454E-3	-157.841E-12	591.308E-3	-50.5827E-3	-155.789E-12	599.726E-3	-6.85426E-3
-4.08954E-3	-156.020E-12	625.495E-3	-35.0891E-3	-153.674E-12	631.789E-3	-18.6705E-3
-4.09455E-3	-152.353E-12	614.853E-3	-30.4007E-3	-152.013E-12	620.277E-3	-39.0467E-3
-4.09955E-3	-154.014E-12	589.438E-3	-42.6933E-3	-155.218E-12	594.009E-3	-26.3904E-3
-4.10455E-3	-156.037E-12	575.224E-3	-32.8324E-3	-157.815E-12	586.690E-3	-10.4257E-3
-4.10955E-3	-154.199E-12	577.450E-3	-1.98257E-3	-157.579E-12	576.826E-3	-24.1653E-3
-4.11456E-3	-152.202E-12	601.384E-3	701.207E-6	-155.749E-12	578.955E-3	-23.9465E-3
-4.11956E-3	-152.596E-12	620.038E-3	-14.6047E-3	-155.323E-12	606.282E-3	-3.96124E-3
-4.12456E-3	-154.369E-12	608.966E-3	-11.2882E-3	-156.452E-12	616.443E-3	9.98371E-3
-4.12956E-3	-154.403E-12	584.463E-3	13.4631E-6	-157.234E-12	617.736E-3	15.5258E-3
-4.13457E-3	-152.779E-12	582.275E-3	3.29879E-3	-157.146E-12	638.196E-3	7.31423E-3
-4.13957E-3	-153.215E-12	611.473E-3	-4.15306E-3	-156.958E-12	630.987E-3	-9.23925E-3
-4.14457E-3	-156.093E-12	616.222E-3	-14.1913E-3	-156.388E-12	610.074E-3	-31.0210E-3
-4.14957E-3	-158.142E-12	590.046E-3	-1.81898E-3	-155.941E-12	608.694E-3	-18.3013E-3
-4.15458E-3	-157.823E-12	600.638E-3	12.2699E-3	-156.051E-12	603.046E-3	5.02531E-3
-4.15958E-3	-156.941E-12	620.464E-3	-2.89703E-3	-156.817E-12	600.419E-3	-7.15645E-3
-4.16458E-3	-157.811E-12	615.470E-3	-31.8820E-3	-158.072E-12	618.131E-3	-20.4269E-3
-4.16958E-3	-159.605E-12	606.256E-3	-37.3132E-3	-157.323E-12	627.113E-3	-27.2126E-3
-4.17459E-3	-158.218E-12	610.285E-3	-21.8597E-3	-157.522E-12	632.754E-3	-20.0232E-3
-4.17959E-3	-158.142E-12	611.240E-3	-23.8924E-3	-156.754E-12	663.717E-3	19.0236E-3
-4.18459E-3	-160.213E-12	607.981E-3	-21.2248E-3	-158.968E-12	672.155E-3	26.0169E-3
-4.18959E-3	-161.739E-12	609.740E-3	-7.63641E-3	-160.380E-12	638.382E-3	-1.08983E-3
-4.19460E-3	-161.083E-12	607.426E-3	-23.1140E-3	-160.989E-12	635.864E-3	762.687E-6
-4.19960E-3	-160.994E-12	613.336E-3	-17.5761E-3	-161.336E-12	667.784E-3	4.82641E-3
-4.20460E-3	-160.772E-12	608.676E-3	-4.28248E-3	-160.764E-12	648.699E-3	4.99615E-3
-4.20960E-3	-160.255E-12	594.087E-3	-56.8940E-3	-163.333E-12	624.531E-3	14.8561E-3
-4.21461E-3	-159.212E-12	605.768E-3	-91.7150E-3	-163.638E-12	644.471E-3	2.54776E-3
-4.21961E-3	-159.117E-12	624.151E-3	-79.0346E-3	-163.686E-12	650.395E-3	-14.0056E-3
-4.22461E-3	-158.814E-12	623.999E-3	-56.1829E-3	-162.681E-12	646.682E-3	-1.23662E-3
-4.22961E-3	-157.679E-12	605.060E-3	-17.2932E-3	-162.485E-12	647.608E-3	7.73294E-3
-4.23462E-3	-157.771E-12	569.037E-3	-468.664E-6	-165.708E-12	619.697E-3	-7.36744E-3
-4.23962E-3	-158.013E-12	570.062E-3	-19.2656E-3	-167.096E-12	592.047E-3	-8.76220E-3
-4.24462E-3	-158.635E-12	605.004E-3	-18.8496E-3	-164.758E-12	628.447E-3	2.04615E-3
-4.24962E-3	-156.433E-12	613.939E-3	-760.839E-6	-158.843E-12	689.010E-3	-10.9274E-3
-4.25463E-3	-157.667E-12	604.510E-3	-6.34436E-3	-161.494E-12	676.580E-3	-12.4491E-3
-4.25963E-3	-159.630E-12	596.730E-3	-23.0769E-3	-163.169E-12	616.903E-3	17.3149E-3
-4.26463E-3	-160.769E-12	585.935E-3	-21.6238E-3	-165.147E-12	607.592E-3	24.8460E-3
-4.26963E-3	-161.136E-12	571.973E-3	-6.97558E-3	-160.791E-12	621.250E-3	-1.57337E-3
-4.27464E-3	-161.522E-12	577.859E-3	-10.5535E-3	-160.588E-12	631.262E-3	-21.9447E-3
-4.27964E-3	-165.169E-12	598.728E-3	-18.3834E-3	-165.084E-12	648.914E-3	-40.0082E-3
-4.28464E-3	-165.564E-12	608.076E-3	-29.8997E-3	-166.602E-12	633.535E-3	-46.6813E-3
-4.28964E-3	-165.117E-12	608.960E-3	-43.2732E-3	-164.499E-12	618.892E-3	-28.2573E-3
-4.29465E-3	-166.757E-12	601.356E-3	-44.3670E-3	-161.504E-12	629.939E-3	-18.5958E-3
-4.29965E-3	-167.319E-12	596.494E-3	-34.2464E-3	-163.859E-12	624.757E-3	-17.9087E-3
-4.30465E-3	-166.106E-12	596.787E-3	926.208E-6	-166.956E-12	620.554E-3	-4.44427E-3
-4.30965E-3	-165.828E-12	591.039E-3	32.3629E-3	-167.556E-12	630.335E-3	409.581E-6
-4.31466E-3	-168.174E-12	607.538E-3	26.3688E-3	-164.461E-12	617.886E-3	-4.57286E-3
-4.31966E-3	-167.058E-12	639.925E-3	-9.70602E-3	-163.862E-12	595.466E-3	6.69320E-3
-4.32466E-3	-165.036E-12	629.217E-3	-37.3125E-3	-167.607E-12	607.168E-3	920.829E-6
-4.32966E-3	-162.776E-12	595.582E-3	-47.8884E-3	-169.967E-12	613.704E-3	-29.4429E-3
-4.33467E-3	-163.725E-12	580.031E-3	-50.9929E-3	-169.254E-12	591.863E-3	-8.70894E-3
-4.33967E-3	-163.871E-12	577.582E-3	-43.2998E-3	-164.809E-12	592.827E-3	45.4466E-3
-4.34467E-3	-163.902E-12	588.186E-3	-42.1920E-3	-166.079E-12	597.585E-3	37.0563E-3
-4.34967E-3	-162.333E-12	582.679E-3	-47.2037E-3	-167.824E-12	595.531E-3	-154.192E-6
-4.35468E-3	-162.694E-12	542.873E-3	-38.7971E-3	-170.015E-12	602.495E-3	-28.7956E-3
-4.35968E-3	-165.030E-12	527.191E-3	-23.4438E-3	-165.560E-12	613.335E-3	-50.1732E-3
-4.36468E-3	-164.850E-12	572.651E-3	-22.2665E-3	-164.412E-12	619.124E-3	-20.1746E-3
-4.36968E-3	-165.790E-12	624.309E-3	-24.0091E-3	-165.375E-12	614.296E-3	3.81043E-3
-4.37469E-3	-164.908E-12	627.581E-3	1.92904E-3	-168.465E-12	601.967E-3	-15.2149E-3
-4.37969E-3	-166.711E-12	615.910E-3	48.5378E-3	-169.714E-12	612.132E-3	-30.1442E-3
-4.38469E-3	-168.557E-12	610.364E-3	58.4067E-3	-166.012E-12	648.457E-3	-33.8780E-3
-4.38969E-3	-168.618E-12	601.565E-3	-4.72121E-3	-166.252E-12	633.263E-3	-13.8569E-3
-4.39470E-3	-167.019E-12	616.567E-3	-65.1915E-3	-170.138E-12	594.527E-3	14.2081E-3
-4.39970E-3	-166.290E-12	626.539E-3	-48.3195E-3	-174.365E-12	581.476E-3	24.1032E-3
-4.40470E-3	-167.536E-12	613.507E-3	-4.89882E-3	-173.216E-12	589.874E-3	3.33717E-3
-4.40970E-3	-169.099E-12	626.932E-3	28.8071E-3	-169.407E-12	608.342E-3	-35.7409E-3
-4.41471E-3	-169.584E-12	644.421E-3	41.1524E-3	-172.365E-12	627.719E-3	-46.0281E-3
-4.41971E-3	-167.206E-12	637.127E-3	24.3971E-3	-174.902E-12	628.699E-3	-48.5948E-3
-4.42471E-3	-167.500E-12	646.612E-3	20.8598E-3	-174.161E-12	604.168E-3	-72.9453E-3
-4.42971E-3	-167.264E-12	647.010E-3	26.2892E-3	-171.049E-12	617.639E-3	-57.9287E-3
-4.43472E-3	-167.480E-12	619.523E-3	30.0233E-3	-170.657E-12	648.061E-3	-9.23081E-3
-4.43972E-3	-166.527E-12	607.316E-3	22.7981E-3	-172.999E-12	639.024E-3	-2.01961E-3
-4.44472E-3	-166.614E-12	595.673E-3	-4.09743E-3	-174.944E-12	604.690E-3	-29.4377E-3
-4.44972E-3	-168.513E-12	585.551E-3	-26.0300E-3	-174.538E-12	601.120E-3	-40.6523E-3
-4.45473E-3	-168.804E-12	610.939E-3	-46.7910E-3	-170.345E-12	624.025E-3	-41.1717E-3
-4.45973E-3	-169.738E-12	628.292E-3	-36.9899E-3	-172.948E-12	640.853E-3	-52.0481E-3
-4.46473E-3	-169.075E-12	624.259E-3	-17.2376E-3	-177.053E-12	647.917E-3	-48.0999E-3
-4.46973E-3	-169.858E-12	635.624E-3	-34.3992E-3	-176.190E-12	634.640E-3	-19.2991E-3
-4.47474E-3	-172.056E-12	617.119E-3	-33.5017E-3	-170.964E-12	621.781E-3	-9.05953E-3
-4.47974E-3	-173.191E-12	597.847E-3	-21.2896E-3	-170.629E-12	607.729E-3	-31.4232E-3
-4.48474E-3	-174.117E-12	625.242E-3	-18.5856E-3	-175.790E-12	591.596E-3	-26.0278E-3
-4.48974E-3	-173.323E-12	633.414E-3	5.65164E-3	-177.067E-12	603.968E-3	8.73774E-3
-4.49475E-3	-174.414E-12	607.112E-3	8.91733E-3	-171.680E-12	624.757E-3	17.2820E-3
-4.49975E-3	-175.372E-12	613.120E-3	-26.0441E-3	-168.850E-12	639.489E-3	2.31274E-3
-4.50475E-3	-175.634E-12	655.594E-3	-25.6830E-3	-172.208E-12	645.389E-3	-24.6247E-3
-4.50975E-3	-173.979E-12	661.164E-3	21.3581E-3	-175.522E-12	603.897E-3	-24.5058E-3
-4.51476E-3	-171.958E-12	644.481E-3	27.1458E-3	-173.223E-12	581.441E-3	11.1621E-3
-4.51976E-3	-173.028E-12	640.401E-3	-6.70901E-3	-171.770E-12	608.932E-3	9.90919E-3
-4.52476E-3	-172.082E-12	606.506E-3	-20.8002E-3	-173.424E-12	613.457E-3	-8.38563E-3
-4.52976E-3	-173.034E-12	577.019E-3	-17.4662E-3	-176.305E-12	607.136E-3	8.46174E-3
-4.53477E-3	-169.271E-12	593.783E-3	4.20073E-3	-177.331E-12	626.864E-3	26.8221E-3
-4.53977E-3	-169.700E-12	595.837E-3	19.9295E-3	-173.843E-12	652.132E-3	19.3590E-3
-4.54477E-3	-170.251E-12	579.304E-3	3.90739E-3	-172.507E-12	632.977E-3	9.75519E-3
-4.54977E-3	-174.771E-12	584.059E-3	-28.7751E-3	-176.164E-12	587.538E-3	10.3993E-3
-4.55478E-3	-175.304E-12	586.170E-3	-59.8443E-3	-180.418E-12	576.595E-3	-5.64976E-3
-4.55978E-3	-171.486E-12	582.196E-3	-59.4529E-3	-178.175E-12	593.387E-3	-14.9273E-3
-4.56478E-3	-173.885E-12	591.059E-3	-8.22152E-3	-175.693E-12	608.173E-3	6.28595E-3
-4.56978E-3	-173.384E-12	591.929E-3	36.5005E-3	-177.042E-12	614.474E-3	7.57764E-3
-4.57479E-3	-178.138E-12	581.174E-3	25.9691E-3	-179.958E-12	607.439E-3	-14.6343E-3
-4.57979E-3	-174.556E-12	601.093E-3	2.88826E-3	-178.854E-12	604.257E-3	-22.6453E-3
-4.58479E-3	-173.115E-12	627.610E-3	11.0786E-3	-174.366E-12	607.801E-3	-36.8092E-3
-4.58979E-3	-173.984E-12	616.188E-3	16.5100E-3	-173.912E-12	592.957E-3	-48.3263E-3
-4.59480E-3	-176.496E-12	615.177E-3	-9.44642E-3	-178.059E-12	575.999E-3	-37.9511E-3
-4.59980E-3	-176.627E-12	656.085E-3	-31.2634E-3	-179.270E-12	591.273E-3	-24.0727E-3
-4.60480E-3	-173.507E-12	672.389E-3	-16.9943E-3	-175.593E-12	628.364E-3	-10.5175E-3
-4.60980E-3	-175.021E-12	671.427E-3	-6.73318E-3	-172.583E-12	667.157E-3	-15.9221E-3
-4.61481E-3	-178.444E-12	681.740E-3	-18.1045E-3	-176.780E-12	664.795E-3	-31.5306E-3
-4.61981E-3	-179.121E-12	655.518E-3	-31.7834E-3	-179.146E-12	610.344E-3	-32.2831E-3
-4.62481E-3	-175.187E-12	632.428E-3	-43.2293E-3	-177.033E-12	578.672E-3	-24.8838E-3
-4.62981E-3	-174.730E-12	636.153E-3	-23.7146E-3	-175.369E-12	587.912E-3	-27.5826E-3
-4.63482E-3	-177.102E-12	614.293E-3	-13.3127E-3	-177.809E-12	610.616E-3	-25.3501E-3
-4.63982E-3	-177.073E-12	603.589E-3	-18.7203E-3	-184.445E-12	626.713E-3	-7.22814E-3
-4.64482E-3	-177.244E-12	627.567E-3	6.31686E-3	-183.344E-12	626.855E-3	-6.88409E-3
-4.64982E-3	-175.314E-12	616.029E-3	-4.21851E-3	-181.562E-12	613.817E-3	-14.5041E-3
-4.65483E-3	-175.594E-12	593.187E-3	-62.6123E-3	-178.787E-12	609.978E-3	-27.5061E-3
-4.65983E-3	-176.868E-12	590.942E-3	-59.3433E-3	-184.666E-12	628.502E-3	-27.6733E-3
-4.66483E-3	-176.334E-12	583.667E-3	-10.4009E-3	-185.385E-12	624.721E-3	1.38427E-3
-4.66983E-3	-175.720E-12	602.503E-3	2.92864E-3	-183.065E-12	622.186E-3	28.3512E-3
-4.67484E-3	-174.705E-12	628.565E-3	1.62964E-3	-179.817E-12	643.200E-3	21.1701E-3
-4.67984E-3	-176.658E-12	628.245E-3	15.7259E-3	-181.676E-12	615.857E-3	-8.26043E-3
-4.68484E-3	-178.869E-12	606.593E-3	19.6859E-3	-186.949E-12	585.394E-3	-13.7942E-3
-4.68984E-3	-179.952E-12	601.815E-3	-1.86922E-3	-185.627E-12	622.692E-3	-23.4497E-3
-4.69485E-3	-176.432E-12	629.608E-3	-10.6003E-3	-180.999E-12	618.160E-3	-35.9312E-3
-4.69985E-3	-176.644E-12	639.976E-3	-16.6095E-3	-178.692E-12	590.049E-3	-25.8545E-3
-4.70485E-3	-180.098E-12	619.281E-3	-24.1098E-3	-180.069E-12	614.467E-3	-40.0882E-3
-4.70985E-3	-182.906E-12	598.693E-3	-13.6721E-3	-181.565E-12	621.772E-3	-53.3402E-3
-4.71486E-3	-180.381E-12	592.780E-3	-17.6215E-3	-181.489E-12	612.829E-3	-14.3455E-3
-4.71986E-3	-179.401E-12	607.283E-3	-45.0059E-3	-178.197E-12	588.474E-3	12.7608E-3
-4.72486E-3	-181.258E-12	612.883E-3	-58.7746E-3	-177.711E-12	559.905E-3	-3.32480E-3
-4.72986E-3	-183.078E-12	590.142E-3	-45.6557E-3	-182.321E-12	576.890E-3	-24.5986E-3
-4.73487E-3	-182.955E-12	579.832E-3	-26.0889E-3	-186.268E-12	609.709E-3	-26.4971E-3
-4.73987E-3	-181.945E-12	591.082E-3	-9.87610E-3	-182.554E-12	635.588E-3	-33.0370E-3
-4.74487E-3	-181.324E-12	605.264E-3	-19.5386E-3	-178.857E-12	641.151E-3	-33.3908E-3
-4.74988E-3	-182.159E-12	632.288E-3	-34.8272E-3	-183.479E-12	638.996E-3	-14.3979E-3
-4.75488E-3	-182.617E-12	645.526E-3	-40.4459E-3	-188.832E-12	643.330E-3	-15.4877E-3
-4.75988E-3	-180.486E-12	607.391E-3	-58.5421E-3	-187.997E-12	615.886E-3	-9.28729E-3
-4.76488E-3	-181.017E-12	580.230E-3	-44.5306E-3	-181.836E-12	610.571E-3	2.42050E-3
-4.76988E-3	-182.128E-12	597.585E-3	-17.3945E-3	-181.386E-12	645.015E-3	-12.5944E-3
-4.77489E-3	-182.084E-12	608.918E-3	-41.3190E-3	-187.393E-12	613.973E-3	4.48521E-3
-4.77989E-3	-181.322E-12	599.522E-3	-67.0210E-3	-186.553E-12	580.310E-3	42.5674E-3
-4.78489E-3	-181.139E-12	599.005E-3	-43.5775E-3	-181.292E-12	618.200E-3	4.54255E-3
-4.78989E-3	-184.085E-12	605.938E-3	-3.96027E-3	-180.987E-12	629.203E-3	-27.1722E-3
-4.79490E-3	-185.017E-12	613.534E-3	-4.62810E-3	-185.521E-12	634.231E-3	17.1938E-3
-4.79990E-3	-184.315E-12	624.422E-3	-14.0098E-3	-187.181E-12	661.844E-3	30.8072E-3
-4.80490E-3	-184.572E-12	611.362E-3	3.01339E-3	-183.288E-12	658.394E-3	-109.305E-6
-4.80990E-3	-188.705E-12	607.292E-3	11.7962E-3	-182.025E-12	659.325E-3	-3.66424E-3
-4.81491E-3	-187.983E-12	622.047E-3	38.5048E-3	-184.028E-12	656.472E-3	-9.02509E-3
-4.81991E-3	-185.608E-12	614.129E-3	55.1625E-3	-187.927E-12	628.465E-3	-22.9545E-3
-4.82491E-3	-185.533E-12	623.856E-3	7.88644E-3	-187.736E-12	596.759E-3	3.97413E-3
-4.82991E-3	-185.126E-12	641.264E-3	-30.5193E-3	-184.163E-12	605.888E-3	31.3937E-3
-4.83492E-3	-186.151E-12	603.223E-3	-41.0258E-3	-185.658E-12	621.429E-3	11.4352E-3
-4.83992E-3	-183.617E-12	559.881E-3	-48.7135E-3	-188.271E-12	582.060E-3	-10.5092E-3
-4.84492E-3	-183.122E-12	559.858E-3	-36.5370E-3	-188.676E-12	562.144E-3	7.16919E-3
-4.84992E-3	-184.098E-12	573.906E-3	-9.86335E-3	-188.509E-12	568.753E-3	21.7629E-3
-4.85493E-3	-186.938E-12	582.092E-3	1.23643E-3	-187.668E-12	559.116E-3	-460.450E-6
-4.85993E-3	-185.516E-12	580.659E-3	-8.41295E-3	-189.622E-12	569.817E-3	-42.7490E-3
-4.86493E-3	-183.601E-12	596.207E-3	-24.6186E-3	-190.734E-12	596.572E-3	-60.8489E-3
-4.86993E-3	-182.946E-12	633.545E-3	-26.6594E-3	-187.458E-12	595.025E-3	-38.4531E-3
-4.87494E-3	-186.215E-12	643.147E-3	-22.2929E-3	-187.456E-12	588.000E-3	-25.9917E-3
-4.87994E-3	-188.065E-12	629.491E-3	-9.76546E-3	-188.375E-12	620.654E-3	-49.5611E-3
-4.88494E-3	-185.817E-12	637.742E-3	2.05185E-3	-190.337E-12	639.622E-3	-61.7415E-3
-4.88995E-3	-186.023E-12	650.452E-3	-6.26977E-3	-187.388E-12	616.624E-3	-30.5140E-3
-4.89495E-3	-189.428E-12	619.269E-3	2.70552E-3	-188.390E-12	614.358E-3	-23.5781E-3
-4.89995E-3	-194.846E-12	591.639E-3	-8.97051E-3	-189.475E-12	613.152E-3	-45.0349E-3
-4.90495E-3	-194.423E-12	615.004E-3	-44.4325E-3	-190.999E-12	615.787E-3	-26.2402E-3
-4.90995E-3	-190.330E-12	631.049E-3	-39.0666E-3	-189.802E-12	644.138E-3	-17.6831E-3
-4.91496E-3	-190.788E-12	614.973E-3	-16.7608E-3	-187.078E-12	642.353E-3	-33.0455E-3
-4.91996E-3	-195.549E-12	602.228E-3	4.39694E-3	-188.925E-12	620.619E-3	-24.3527E-3
-4.92496E-3	-198.388E-12	603.416E-3	-4.19529E-3	-191.492E-12	600.005E-3	-15.9773E-3
-4.92996E-3	-192.555E-12	622.164E-3	-46.9229E-3	-190.675E-12	587.012E-3	-20.9866E-3
-4.93497E-3	-190.513E-12	656.037E-3	-58.3606E-3	-189.231E-12	609.597E-3	-15.3957E-3
-4.93997E-3	-191.790E-12	667.645E-3	-32.5035E-3	-189.594E-12	628.216E-3	-15.0874E-3
-4.94497E-3	-195.343E-12	622.424E-3	5.91507E-3	-193.110E-12	623.939E-3	-21.3382E-3
-4.94997E-3	-192.844E-12	581.912E-3	8.59533E-3	-193.687E-12	634.526E-3	-23.4142E-3
-4.95498E-3	-189.819E-12	596.438E-3	-23.1855E-3	-191.697E-12	628.899E-3	-22.5913E-3
-4.95998E-3	-188.575E-12	604.368E-3	-33.2808E-3	-190.981E-12	597.349E-3	-21.9602E-3
-4.96498E-3	-190.231E-12	585.138E-3	-39.4044E-3	-194.288E-12	592.655E-3	-39.4515E-3
-4.96998E-3	-193.898E-12	605.744E-3	-32.5157E-3	-196.266E-12	598.867E-3	-37.9724E-3
-4.97499E-3	-190.544E-12	645.000E-3	-18.3674E-3	-195.052E-12	606.134E-3	-22.8680E-3
-4.97999E-3	-188.404E-12	647.291E-3	-37.6101E-3	-191.835E-12	601.227E-3	-32.2277E-3
-4.98499E-3	-190.313E-12	631.107E-3	-32.9433E-3	-194.210E-12	580.317E-3	-41.9277E-3
-4.98999E-3	-196.701E-12	615.080E-3	9.60545E-3	-199.800E-12	598.487E-3	-48.5203E-3
-4.99500E-3	-196.155E-12	623.629E-3	8.96213E-3	-196.259E-12	639.897E-3	-37.3728E-3
-5.00000E-3	-190.547E-12	649.198E-3	-7.50931E-3	-190.554E-12	659.084E-3	-12.9254E-3
