Experiment	bias spectroscopy	
Date	19.01.2016 20:26:43	
User		
X (m)	49.7432E-9	
Y (m)	256.713E-9	
Z (m)	-132.566E-9	
Z offset (m)	0E+0	
Settling time (s)	200E-6	
Integration time (s)	5E-3	
Z-Ctrl hold	TRUE	
Final Z (m)	N/A	
Filter type	None	
Order		
Cutoff frq		
Comment01	MnPc/Pb(111)	
Comment02	dz =00pm	
Comment03	7 Sweeps	
Comment04	MagField =0.T	
Comment05	Divider 1:10	
Comment06	Setpoint:5mV,200 pA	
Comment07	Lockin: 50uVrms,5ms,5mV	
Comment08	Gain:9; 912Hz modulation	
Comment09	T=1.06K	
Bias>Bias (V)	5E-3	
Bias>Calibration (V/V)	81.475E-3	
Bias>Offset (V)	1.046E-3	
Bias Spectroscopy>Sweep Start (V)	5E-3	
Bias Spectroscopy>Sweep End (V)	-5E-3	
Bias Spectroscopy>Num Pixel	2000	
Bias Spectroscopy>Z Avg time (s)	500E-3	
Bias Spectroscopy>Z offset (m)	0E+0	
Bias Spectroscopy>1st Settling time (s)	500E-3	
Bias Spectroscopy>Settling time (s)	200E-6	
Bias Spectroscopy>Integration time (s)	5E-3	
Bias Spectroscopy>End Settling time (s)	500E-3	
Bias Spectroscopy>Z control time (s)	500E-3	
Bias Spectroscopy>Max Slew rate (V/s)	Inf	
Bias Spectroscopy>backward sweep	TRUE	
Bias Spectroscopy>Z-controller hold	TRUE	
Bias Spectroscopy>Number of sweeps	7	
Bias Spectroscopy>Channels	Current (A);X% LockIn (V);Y% LockIn (V)	
Bias Spectroscopy>Reset Bias	TRUE	
Bias Spectroscopy>Record final Z	FALSE	
Bias Spectroscopy>Lock-In run	FALSE	
Bias Spectroscopy>Sweep mode	Linear	
Bias Spectroscopy>MultiLine Settings : Segment Start (V), Segment End (V), Settling (s), Integration (s), Steps (xn)	100E-3,3.3E-3,100E-6,10E-3,2500;3.3E-3,-3.3E-3,100E-6,10E-3,10;-3.3E-3,-100E-3,100E-6,10E-3,2500	
Current>Current (A)	200.055E-12	
Current>Calibration (A/V)	999.99900E-12	
Current>Offset (A)	-455.429E-15	
Current>Gain	LN 10^9	
Z-Controller>Z (m)	-132.567E-9	
Z-Controller>Controller name	log Current	
Z-Controller>Controller status	ON	
Z-Controller>Setpoint	200E-12	
Z-Controller>Setpoint unit	A	
Z-Controller>P gain	2.96994E-12	
Z-Controller>I gain	67.0321E-9	
Z-Controller>Time const (s)	44.3062E-6	
Z-Controller>TipLift (m)	0E+0	
Z-Controller>Switch off delay (s)	50E-3	
Current (A)	199.873E-12	
Z (m)	-132.567E-9	

[DATA]
Bias calc (V)	Current (A)	X% LockIn (V)	Y% LockIn (V)	Current [bwd] (A)	X% LockIn [bwd] (V)	Y% LockIn [bwd] (V)
5.00000E-3	205.429E-12	634.764E-3	36.6620E-3	201.799E-12	572.674E-3	-5.89134E-3
4.99500E-3	203.844E-12	631.260E-3	13.9722E-3	200.147E-12	558.946E-3	-36.9517E-3
4.98999E-3	203.757E-12	641.525E-3	-27.0748E-3	198.812E-12	561.999E-3	-42.3132E-3
4.98499E-3	202.238E-12	618.062E-3	-12.2002E-3	199.855E-12	582.338E-3	-20.1084E-3
4.97999E-3	200.425E-12	585.372E-3	24.7501E-3	199.160E-12	598.307E-3	-5.55504E-3
4.97499E-3	196.749E-12	575.454E-3	35.4631E-3	198.617E-12	575.510E-3	10.0987E-3
4.96998E-3	196.476E-12	566.052E-3	7.64352E-3	197.100E-12	551.542E-3	15.3063E-3
4.96498E-3	195.554E-12	565.049E-3	-37.9961E-3	197.242E-12	576.516E-3	-8.69145E-3
4.95998E-3	194.419E-12	571.226E-3	-53.6759E-3	197.817E-12	601.277E-3	-30.2718E-3
4.95498E-3	192.342E-12	565.477E-3	-41.3429E-3	198.509E-12	597.371E-3	-37.0933E-3
4.94997E-3	191.807E-12	560.190E-3	-47.3276E-3	196.059E-12	584.325E-3	-20.6806E-3
4.94497E-3	192.671E-12	569.876E-3	-60.6091E-3	195.143E-12	578.396E-3	-26.5517E-6
4.93997E-3	194.237E-12	567.991E-3	-63.4603E-3	197.116E-12	594.679E-3	2.23973E-3
4.93497E-3	196.481E-12	565.841E-3	-80.3086E-3	196.384E-12	600.041E-3	-8.69398E-3
4.92996E-3	196.479E-12	592.206E-3	-68.7219E-3	196.816E-12	570.850E-3	-19.3549E-3
4.92496E-3	198.635E-12	623.472E-3	-19.5985E-3	195.688E-12	564.321E-3	-7.30467E-3
4.91996E-3	200.664E-12	608.329E-3	-1.54162E-3	195.939E-12	571.059E-3	-577.794E-6
4.91496E-3	202.053E-12	591.823E-3	-565.665E-6	197.512E-12	550.995E-3	-10.2908E-3
4.90995E-3	201.402E-12	599.942E-3	2.00440E-3	197.787E-12	539.182E-3	-10.6972E-3
4.90495E-3	200.033E-12	578.996E-3	-39.9806E-3	197.171E-12	558.898E-3	-28.0877E-3
4.89995E-3	199.928E-12	577.099E-3	-74.3921E-3	198.399E-12	584.337E-3	-44.1030E-3
4.89495E-3	198.516E-12	608.383E-3	-24.6874E-3	198.919E-12	590.281E-3	-16.1145E-3
4.88995E-3	199.057E-12	603.429E-3	7.14529E-3	197.484E-12	581.655E-3	-5.76333E-3
4.88494E-3	196.532E-12	580.162E-3	-32.5722E-3	197.190E-12	568.920E-3	-23.0142E-3
4.87994E-3	194.961E-12	574.263E-3	-34.5912E-3	196.818E-12	569.278E-3	-212.115E-6
4.87494E-3	193.224E-12	564.906E-3	-13.5298E-3	195.563E-12	585.671E-3	9.96041E-3
4.86993E-3	195.060E-12	572.761E-3	-38.3728E-3	196.131E-12	573.049E-3	-27.4028E-3
4.86493E-3	193.712E-12	606.458E-3	-60.8423E-3	195.382E-12	567.986E-3	-21.2007E-3
4.85993E-3	192.542E-12	610.714E-3	-62.2783E-3	195.405E-12	623.571E-3	3.81341E-3
4.85493E-3	192.562E-12	580.043E-3	-59.6742E-3	195.655E-12	633.146E-3	-8.74965E-3
4.84992E-3	193.456E-12	572.346E-3	-31.8537E-3	196.035E-12	566.931E-3	-844.517E-6
4.84492E-3	195.030E-12	560.548E-3	-2.79089E-3	194.605E-12	539.325E-3	10.6007E-3
4.83992E-3	193.772E-12	555.937E-3	3.17977E-3	194.599E-12	555.492E-3	-12.5060E-3
4.83492E-3	195.051E-12	591.189E-3	12.8522E-3	195.662E-12	577.273E-3	-15.6705E-3
4.82991E-3	195.257E-12	586.544E-3	28.4451E-3	196.213E-12	586.060E-3	-13.9221E-3
4.82491E-3	195.987E-12	563.678E-3	7.43903E-3	193.897E-12	566.287E-3	-25.3831E-3
4.81991E-3	194.404E-12	582.322E-3	-24.3291E-3	194.789E-12	559.164E-3	-14.4081E-3
4.81491E-3	193.678E-12	604.793E-3	-27.8155E-3	193.897E-12	587.903E-3	-19.8348E-3
4.80990E-3	193.107E-12	608.429E-3	-25.2664E-3	194.837E-12	608.961E-3	-34.6134E-3
4.80490E-3	193.110E-12	607.652E-3	-27.2401E-3	194.609E-12	589.682E-3	-17.2170E-3
4.79990E-3	192.218E-12	589.526E-3	-27.9298E-3	193.493E-12	560.830E-3	-9.33134E-3
4.79490E-3	191.119E-12	564.173E-3	-13.9349E-3	191.365E-12	550.526E-3	-21.0661E-3
4.78989E-3	190.677E-12	574.187E-3	-1.10206E-3	192.260E-12	545.066E-3	-16.7249E-3
4.78489E-3	190.674E-12	589.993E-3	-4.82498E-3	192.680E-12	558.466E-3	2.43871E-3
4.77989E-3	191.408E-12	574.975E-3	-19.7619E-3	190.960E-12	593.328E-3	-8.18753E-3
4.77489E-3	192.690E-12	581.780E-3	-23.1598E-3	191.027E-12	600.569E-3	-34.8576E-3
4.76988E-3	192.362E-12	611.800E-3	-897.514E-6	191.797E-12	589.389E-3	-535.261E-6
4.76488E-3	192.066E-12	608.593E-3	1.31083E-3	193.300E-12	599.021E-3	23.1099E-3
4.75988E-3	192.422E-12	577.532E-3	-40.2502E-3	192.867E-12	596.895E-3	-8.80309E-3
4.75488E-3	194.407E-12	563.568E-3	-50.7115E-3	192.460E-12	586.293E-3	-14.3994E-3
4.74988E-3	193.979E-12	572.217E-3	-22.4417E-3	193.172E-12	590.002E-3	-31.5931E-3
4.74487E-3	193.078E-12	573.092E-3	-20.4068E-3	193.890E-12	574.735E-3	-59.7296E-3
4.73987E-3	191.431E-12	587.541E-3	-25.1239E-3	193.516E-12	559.958E-3	-28.2536E-3
4.73487E-3	190.960E-12	608.003E-3	-18.6528E-3	191.783E-12	572.436E-3	7.88726E-3
4.72986E-3	190.466E-12	611.527E-3	-25.0563E-3	192.197E-12	580.887E-3	-11.8621E-3
4.72486E-3	190.446E-12	587.941E-3	-31.9031E-3	192.261E-12	575.494E-3	-44.1641E-3
4.71986E-3	189.074E-12	552.261E-3	-28.7812E-3	191.968E-12	561.985E-3	-49.8128E-3
4.71486E-3	186.664E-12	563.052E-3	-38.9723E-3	190.195E-12	557.313E-3	-35.7743E-3
4.70985E-3	185.911E-12	591.711E-3	-46.4265E-3	188.008E-12	570.682E-3	-24.5994E-3
4.70485E-3	186.702E-12	588.840E-3	-46.6226E-3	186.838E-12	584.368E-3	-42.8109E-3
4.69985E-3	187.581E-12	600.299E-3	-44.3216E-3	187.111E-12	576.290E-3	-50.6681E-3
4.69485E-3	186.365E-12	623.606E-3	-19.8962E-3	186.487E-12	539.644E-3	-13.5727E-3
4.68984E-3	187.929E-12	599.733E-3	13.5709E-3	184.297E-12	524.406E-3	5.23479E-3
4.68484E-3	187.990E-12	560.055E-3	11.7571E-3	184.761E-12	553.463E-3	-8.51197E-3
4.67984E-3	190.461E-12	554.709E-3	-10.2980E-3	184.845E-12	585.216E-3	-7.12837E-3
4.67484E-3	191.588E-12	568.957E-3	-11.5607E-3	184.961E-12	593.543E-3	-5.24543E-3
4.66983E-3	189.842E-12	575.187E-3	-25.0290E-3	185.224E-12	588.238E-3	-31.9401E-3
4.66483E-3	189.379E-12	573.293E-3	-39.7647E-3	184.176E-12	561.815E-3	-58.4652E-3
4.65983E-3	190.516E-12	575.974E-3	-11.9506E-3	185.111E-12	536.749E-3	-55.4823E-3
4.65483E-3	190.552E-12	571.389E-3	15.2012E-3	186.731E-12	547.331E-3	-31.4305E-3
4.64982E-3	187.085E-12	578.337E-3	9.26034E-3	186.812E-12	577.015E-3	-6.69167E-3
4.64482E-3	186.848E-12	607.689E-3	7.34723E-3	186.430E-12	594.382E-3	4.13797E-3
4.63982E-3	185.016E-12	609.149E-3	1.33625E-3	187.084E-12	575.457E-3	14.4124E-3
4.63482E-3	184.897E-12	592.567E-3	-15.3863E-3	187.357E-12	556.528E-3	28.9037E-3
4.62981E-3	182.460E-12	584.599E-3	-15.5809E-3	187.095E-12	563.998E-3	26.1405E-3
4.62481E-3	180.713E-12	591.668E-3	-29.6642E-3	185.806E-12	566.354E-3	-484.269E-6
4.61981E-3	179.970E-12	615.784E-3	-55.6520E-3	185.296E-12	556.836E-3	-6.03942E-3
4.61481E-3	181.610E-12	613.379E-3	-58.7722E-3	184.381E-12	554.256E-3	6.10270E-3
4.60980E-3	182.491E-12	572.932E-3	-43.1163E-3	182.712E-12	555.790E-3	-2.06702E-3
4.60480E-3	180.825E-12	568.685E-3	-17.0352E-3	181.630E-12	545.717E-3	-5.44998E-3
4.59980E-3	181.952E-12	597.696E-3	-513.201E-6	181.039E-12	543.831E-3	11.0440E-3
4.59480E-3	184.779E-12	593.006E-3	-14.8842E-3	180.349E-12	569.123E-3	35.4857E-3
4.58979E-3	187.815E-12	581.023E-3	-29.3476E-3	180.266E-12	588.401E-3	32.4683E-3
4.58479E-3	187.786E-12	590.935E-3	-21.4970E-3	179.905E-12	585.835E-3	8.52252E-3
4.57979E-3	187.288E-12	595.270E-3	-20.8407E-3	180.935E-12	573.708E-3	-4.40147E-3
4.57479E-3	188.457E-12	604.124E-3	-30.4249E-3	180.574E-12	570.523E-3	-18.0421E-3
4.56978E-3	188.972E-12	618.529E-3	-22.3274E-3	181.306E-12	586.704E-3	-4.22724E-3
4.56478E-3	188.266E-12	617.332E-3	-9.80414E-3	180.531E-12	600.980E-3	18.4739E-3
4.55978E-3	185.433E-12	619.973E-3	-23.5622E-3	181.777E-12	606.185E-3	8.86677E-3
4.55478E-3	184.000E-12	622.138E-3	-30.3398E-3	183.087E-12	608.808E-3	3.86053E-3
4.54977E-3	183.281E-12	593.854E-3	-21.0891E-3	183.646E-12	610.085E-3	2.55777E-3
4.54477E-3	181.772E-12	557.205E-3	-19.2436E-3	183.542E-12	607.627E-3	-13.7276E-3
4.53977E-3	179.387E-12	555.444E-3	-18.9748E-3	184.112E-12	579.134E-3	-23.3552E-3
4.53477E-3	176.250E-12	578.272E-3	-6.46286E-3	184.430E-12	544.843E-3	-41.2656E-3
4.52976E-3	175.839E-12	593.023E-3	-17.0283E-3	184.566E-12	553.256E-3	-36.0577E-3
4.52476E-3	176.434E-12	589.598E-3	-47.3166E-3	183.173E-12	583.777E-3	-4.98340E-3
4.51976E-3	175.281E-12	578.689E-3	-35.9270E-3	182.430E-12	592.593E-3	-14.1633E-3
4.51476E-3	175.486E-12	568.799E-3	-12.4211E-3	182.500E-12	580.151E-3	-34.4124E-3
4.50975E-3	176.281E-12	561.402E-3	-18.5160E-3	181.588E-12	561.312E-3	-36.4230E-3
4.50475E-3	178.808E-12	558.750E-3	-17.6401E-3	179.540E-12	569.877E-3	-15.2791E-3
4.49975E-3	180.083E-12	574.869E-3	-15.3277E-3	178.551E-12	592.558E-3	651.603E-6
4.49475E-3	183.005E-12	605.599E-3	-28.6881E-3	179.955E-12	584.066E-3	-11.7153E-3
4.48974E-3	182.201E-12	619.807E-3	-26.0117E-3	180.272E-12	576.692E-3	-28.5560E-3
4.48474E-3	182.651E-12	600.184E-3	-7.49944E-3	178.249E-12	588.524E-3	-23.1821E-3
4.47974E-3	184.056E-12	579.179E-3	23.4398E-3	177.381E-12	593.026E-3	-12.0413E-3
4.47474E-3	183.496E-12	569.885E-3	27.8492E-3	179.572E-12	584.438E-3	-20.1222E-3
4.46973E-3	183.021E-12	572.681E-3	-14.9207E-3	181.033E-12	583.462E-3	-22.8635E-3
4.46473E-3	181.795E-12	609.755E-3	-48.5782E-3	180.001E-12	606.634E-3	-19.9896E-3
4.45973E-3	181.919E-12	621.164E-3	-38.5772E-3	179.244E-12	626.719E-3	-42.7551E-3
4.45473E-3	180.531E-12	604.876E-3	-27.3658E-3	178.731E-12	629.708E-3	-82.2325E-3
4.44972E-3	179.067E-12	608.363E-3	-53.7031E-3	180.694E-12	628.343E-3	-85.9855E-3
4.44472E-3	177.390E-12	606.113E-3	-56.6457E-3	181.478E-12	623.550E-3	-54.3253E-3
4.43972E-3	175.707E-12	597.071E-3	-30.8277E-3	180.795E-12	611.754E-3	-19.4908E-3
4.43472E-3	175.285E-12	597.347E-3	-31.2413E-3	178.916E-12	602.879E-3	15.0042E-3
4.42971E-3	175.254E-12	581.362E-3	-30.9933E-3	180.091E-12	603.242E-3	25.5780E-3
4.42471E-3	174.894E-12	554.016E-3	-11.3443E-3	181.388E-12	613.983E-3	6.97449E-3
4.41971E-3	174.865E-12	552.194E-3	-10.7953E-3	179.995E-12	625.472E-3	10.7251E-3
4.41471E-3	176.016E-12	579.751E-3	-14.0031E-3	179.491E-12	617.900E-3	24.9165E-3
4.40970E-3	176.677E-12	602.011E-3	-18.3326E-3	179.016E-12	597.729E-3	201.930E-6
4.40470E-3	177.001E-12	594.954E-3	-34.7748E-3	178.969E-12	594.136E-3	-16.9649E-3
4.39970E-3	176.762E-12	595.702E-3	-25.3204E-3	178.338E-12	594.861E-3	4.32141E-3
4.39470E-3	178.218E-12	596.562E-3	-5.67281E-3	176.746E-12	584.125E-3	15.9494E-3
4.38969E-3	179.136E-12	568.506E-3	-13.0034E-3	176.169E-12	574.472E-3	4.44429E-3
4.38469E-3	178.119E-12	563.558E-3	-12.8196E-3	175.895E-12	563.468E-3	-1.20149E-3
4.37969E-3	177.067E-12	586.629E-3	-2.54449E-3	174.815E-12	571.160E-3	-17.5342E-3
4.37469E-3	176.766E-12	599.878E-3	-14.3477E-3	174.438E-12	590.552E-3	-37.4092E-3
4.36968E-3	178.514E-12	603.735E-3	-14.4173E-3	173.909E-12	595.029E-3	-26.3822E-3
4.36468E-3	176.542E-12	591.525E-3	3.98480E-3	174.568E-12	596.018E-3	-19.3301E-3
4.35968E-3	175.345E-12	581.639E-3	15.8594E-3	174.039E-12	599.833E-3	-43.4031E-3
4.35468E-3	175.045E-12	588.054E-3	3.83372E-3	174.369E-12	595.744E-3	-52.9523E-3
4.34967E-3	176.510E-12	575.705E-3	-21.4202E-3	174.024E-12	598.898E-3	-31.9910E-3
4.34467E-3	175.376E-12	570.507E-3	-30.0799E-3	174.449E-12	611.470E-3	-23.3769E-3
4.33967E-3	174.708E-12	594.969E-3	-24.7057E-3	173.805E-12	595.053E-3	-16.4857E-3
4.33467E-3	175.689E-12	603.462E-3	-15.6361E-3	175.043E-12	586.559E-3	-14.9511E-3
4.32966E-3	175.250E-12	602.763E-3	-14.3110E-3	176.162E-12	595.679E-3	-36.6061E-3
4.32466E-3	175.245E-12	601.948E-3	-7.40800E-3	174.868E-12	585.914E-3	-53.4975E-3
4.31966E-3	175.603E-12	588.130E-3	-5.44949E-3	174.798E-12	595.142E-3	-46.6163E-3
4.31466E-3	175.123E-12	588.092E-3	-14.9774E-3	175.584E-12	624.929E-3	-37.9250E-3
4.30965E-3	173.924E-12	599.269E-3	3.01456E-3	175.736E-12	639.157E-3	-31.3013E-3
4.30465E-3	172.733E-12	610.825E-3	7.86400E-3	175.562E-12	614.689E-3	-12.9967E-3
4.29965E-3	172.864E-12	628.144E-3	-16.1281E-3	174.807E-12	586.533E-3	-37.0503E-3
4.29465E-3	172.078E-12	646.139E-3	-11.1499E-3	174.191E-12	584.493E-3	-65.4359E-3
4.28964E-3	172.710E-12	640.296E-3	-2.05205E-3	173.353E-12	578.766E-3	-26.2304E-3
4.28464E-3	171.999E-12	619.493E-3	-15.5038E-3	173.039E-12	585.800E-3	3.93249E-3
4.27964E-3	171.690E-12	616.572E-3	-16.0190E-3	171.228E-12	593.203E-3	-10.0283E-3
4.27464E-3	170.657E-12	596.489E-3	-3.49062E-3	169.959E-12	581.009E-3	-3.16905E-3
4.26963E-3	172.985E-12	574.853E-3	-2.48456E-3	168.656E-12	565.714E-3	18.7281E-3
4.26463E-3	172.262E-12	566.286E-3	-11.5238E-3	168.638E-12	542.422E-3	-3.48518E-3
4.25963E-3	171.037E-12	569.856E-3	-13.2542E-3	167.625E-12	543.580E-3	-33.8841E-3
4.25463E-3	172.589E-12	587.400E-3	2.31683E-3	165.901E-12	583.006E-3	-32.9766E-3
4.24962E-3	172.715E-12	600.618E-3	2.05981E-3	167.069E-12	598.887E-3	-26.5807E-3
4.24462E-3	174.226E-12	615.023E-3	-22.2867E-3	166.837E-12	579.512E-3	-18.8361E-3
4.23962E-3	173.219E-12	620.563E-3	-17.7712E-3	167.856E-12	584.427E-3	-12.0814E-3
4.23462E-3	173.500E-12	609.289E-3	-2.77612E-3	166.794E-12	589.248E-3	-14.0724E-3
4.22961E-3	172.715E-12	596.631E-3	-23.9242E-3	167.852E-12	563.833E-3	-12.8742E-3
4.22461E-3	172.663E-12	605.005E-3	-49.7337E-3	170.440E-12	556.902E-3	-27.9948E-3
4.21961E-3	170.268E-12	612.640E-3	-39.6154E-3	171.033E-12	583.318E-3	-49.5842E-3
4.21461E-3	168.844E-12	600.898E-3	-12.6551E-3	171.703E-12	616.219E-3	-34.8666E-3
4.20960E-3	167.900E-12	586.554E-3	-6.33449E-3	171.909E-12	630.414E-3	-24.3010E-3
4.20460E-3	166.227E-12	592.634E-3	-20.4263E-3	172.948E-12	615.454E-3	-30.3722E-3
4.19960E-3	165.323E-12	600.238E-3	-18.5194E-3	172.638E-12	596.547E-3	-26.7037E-3
4.19460E-3	165.720E-12	585.729E-3	2.34079E-3	171.518E-12	615.139E-3	-36.8856E-3
4.18959E-3	165.248E-12	567.982E-3	5.62380E-3	170.767E-12	629.356E-3	-62.1638E-3
4.18459E-3	164.353E-12	585.660E-3	2.40353E-3	170.031E-12	605.667E-3	-59.9168E-3
4.17959E-3	165.394E-12	597.772E-3	6.38605E-3	170.439E-12	588.905E-3	-17.0109E-3
4.17459E-3	166.214E-12	570.650E-3	16.4352E-3	168.545E-12	576.468E-3	12.2869E-3
4.16958E-3	166.864E-12	575.690E-3	33.6507E-3	166.416E-12	568.277E-3	1.96634E-3
4.16458E-3	168.415E-12	597.833E-3	23.9565E-3	165.363E-12	572.040E-3	-7.32550E-3
4.15958E-3	170.033E-12	612.617E-3	-8.71669E-3	164.504E-12	571.731E-3	-11.3742E-3
4.15458E-3	171.753E-12	625.958E-3	-11.1818E-3	163.728E-12	575.203E-3	-27.0604E-3
4.14957E-3	172.114E-12	612.987E-3	4.47906E-3	163.792E-12	586.837E-3	-40.9042E-3
4.14457E-3	171.920E-12	602.033E-3	1.87544E-3	163.767E-12	594.119E-3	-52.7703E-3
4.13957E-3	170.899E-12	593.674E-3	-7.10957E-3	163.080E-12	583.125E-3	-39.7762E-3
4.13457E-3	171.254E-12	562.373E-3	-2.18230E-3	164.254E-12	561.101E-3	331.778E-6
4.12956E-3	170.386E-12	561.423E-3	9.15848E-3	165.638E-12	562.062E-3	-4.38534E-3
4.12456E-3	167.776E-12	593.928E-3	10.9824E-3	165.250E-12	592.091E-3	-34.3781E-3
4.11956E-3	164.773E-12	594.189E-3	6.41508E-3	164.494E-12	600.352E-3	-24.7038E-3
4.11456E-3	164.937E-12	588.182E-3	-8.06847E-3	165.379E-12	601.416E-3	-10.0820E-3
4.10955E-3	163.587E-12	592.593E-3	-23.1765E-3	166.640E-12	633.824E-3	-9.28966E-3
4.10455E-3	162.368E-12	587.772E-3	-15.2589E-3	166.508E-12	647.704E-3	414.875E-6
4.09955E-3	159.567E-12	573.623E-3	-1.22934E-3	166.733E-12	629.099E-3	-2.57708E-3
4.09455E-3	159.348E-12	556.722E-3	-28.0524E-3	165.298E-12	598.557E-3	-20.1983E-3
4.08954E-3	159.510E-12	544.228E-3	-52.8253E-3	165.537E-12	567.411E-3	-11.9747E-3
4.08454E-3	160.921E-12	542.303E-3	-37.6359E-3	164.868E-12	565.758E-3	3.37444E-3
4.07954E-3	161.545E-12	569.776E-3	-32.6425E-3	165.235E-12	568.006E-3	-12.5569E-3
4.07454E-3	161.954E-12	589.068E-3	-23.4403E-3	162.855E-12	553.380E-3	-42.3837E-3
4.06953E-3	162.668E-12	569.844E-3	-5.66530E-3	162.063E-12	576.332E-3	-47.7379E-3
4.06453E-3	163.259E-12	568.428E-3	-5.27638E-3	162.210E-12	611.911E-3	-30.8725E-3
4.05953E-3	164.554E-12	584.338E-3	-8.43311E-3	162.618E-12	619.780E-3	-31.4498E-3
4.05453E-3	164.603E-12	572.815E-3	-22.2622E-3	162.058E-12	616.340E-3	-55.5156E-3
4.04952E-3	164.640E-12	579.913E-3	-42.2277E-3	162.028E-12	583.647E-3	-67.8536E-3
4.04452E-3	163.693E-12	617.590E-3	-35.9384E-3	161.384E-12	559.165E-3	-53.6974E-3
4.03952E-3	163.231E-12	614.279E-3	-22.9717E-3	162.082E-12	573.772E-3	-39.6444E-3
4.03452E-3	163.255E-12	584.229E-3	-32.5709E-3	161.717E-12	575.507E-3	-25.2500E-3
4.02951E-3	161.727E-12	570.363E-3	-24.9682E-3	162.502E-12	569.528E-3	1.25325E-3
4.02451E-3	160.851E-12	553.687E-3	-2.62869E-3	161.861E-12	601.128E-3	-5.46159E-3
4.01951E-3	159.725E-12	564.983E-3	-2.05172E-3	162.061E-12	623.581E-3	-29.7822E-3
4.01451E-3	160.424E-12	601.679E-3	-15.4848E-3	161.810E-12	605.150E-3	-7.14040E-3
4.00950E-3	158.958E-12	599.990E-3	-27.3696E-3	161.291E-12	610.725E-3	8.15217E-3
4.00450E-3	159.762E-12	575.210E-3	-27.6421E-3	160.832E-12	633.883E-3	-22.5312E-3
3.99950E-3	160.650E-12	574.784E-3	-17.3014E-3	161.230E-12	613.793E-3	-42.0675E-3
3.99450E-3	160.407E-12	579.526E-3	-22.1676E-3	160.226E-12	578.655E-3	-45.8771E-3
3.98949E-3	160.762E-12	568.157E-3	-55.7899E-3	160.762E-12	560.247E-3	-35.0772E-3
3.98449E-3	161.145E-12	568.557E-3	-62.9318E-3	160.796E-12	559.195E-3	971.618E-6
3.97949E-3	161.376E-12	581.975E-3	-19.9456E-3	160.882E-12	587.338E-3	9.16504E-3
3.97449E-3	160.906E-12	593.705E-3	-1.58507E-3	160.732E-12	616.220E-3	-19.9172E-3
3.96948E-3	161.971E-12	600.015E-3	-9.92518E-3	161.036E-12	620.662E-3	-28.8380E-3
3.96448E-3	161.635E-12	605.440E-3	-2.61192E-3	161.669E-12	618.584E-3	-10.1439E-3
3.95948E-3	161.984E-12	610.222E-3	-17.0805E-3	162.882E-12	609.977E-3	4.59599E-3
3.95448E-3	162.109E-12	617.760E-3	-24.1597E-3	161.284E-12	589.214E-3	1.58221E-3
3.94947E-3	160.307E-12	624.094E-3	-7.05141E-3	160.410E-12	573.525E-3	-11.4916E-3
3.94447E-3	159.205E-12	610.878E-3	-11.5184E-3	159.780E-12	583.676E-3	-15.6856E-3
3.93947E-3	158.553E-12	592.633E-3	-24.5522E-3	160.261E-12	606.440E-3	-8.10211E-3
3.93447E-3	158.325E-12	583.654E-3	-24.0101E-3	158.536E-12	616.352E-3	-3.66234E-3
3.92946E-3	157.547E-12	582.591E-3	-8.21272E-3	157.323E-12	599.916E-3	-20.5211E-3
3.92446E-3	157.714E-12	596.450E-3	451.172E-6	156.472E-12	570.780E-3	-34.4672E-3
3.91946E-3	157.171E-12	598.715E-3	-7.30208E-3	157.917E-12	578.997E-3	-11.1733E-3
3.91446E-3	157.424E-12	583.788E-3	-16.7186E-3	156.588E-12	607.520E-3	6.41413E-3
3.90945E-3	157.108E-12	590.763E-3	-24.9171E-3	155.042E-12	607.744E-3	-15.4998E-3
3.90445E-3	156.678E-12	601.285E-3	-17.5318E-3	155.314E-12	591.704E-3	-29.4966E-3
3.89945E-3	157.694E-12	597.605E-3	-8.71887E-3	156.113E-12	587.036E-3	-24.6318E-3
3.89445E-3	157.250E-12	602.732E-3	-2.76539E-3	157.877E-12	586.190E-3	-8.16809E-3
3.88944E-3	157.601E-12	621.383E-3	14.8437E-3	156.533E-12	589.350E-3	4.25438E-3
3.88444E-3	158.205E-12	608.621E-3	7.16193E-3	157.265E-12	605.819E-3	-19.1713E-3
3.87944E-3	159.356E-12	579.180E-3	-18.9470E-3	158.607E-12	601.005E-3	-24.8595E-3
3.87444E-3	158.400E-12	587.848E-3	-18.4421E-3	158.842E-12	592.741E-3	7.53106E-3
3.86943E-3	157.238E-12	579.394E-3	-16.3350E-3	158.799E-12	618.656E-3	4.38566E-3
3.86443E-3	156.791E-12	555.950E-3	-23.3369E-3	158.032E-12	627.045E-3	-36.9200E-3
3.85943E-3	157.023E-12	562.221E-3	-8.38337E-3	159.287E-12	602.760E-3	-44.5311E-3
3.85443E-3	156.982E-12	570.372E-3	17.8031E-3	157.300E-12	596.691E-3	-26.5080E-3
3.84942E-3	156.106E-12	574.172E-3	15.3286E-3	156.820E-12	594.029E-3	-21.2014E-3
3.84442E-3	154.979E-12	589.114E-3	-13.0844E-3	155.381E-12	580.003E-3	-14.7772E-3
3.83942E-3	154.451E-12	614.701E-3	-25.4565E-3	153.933E-12	589.704E-3	-2.07483E-3
3.83442E-3	156.130E-12	620.270E-3	-28.2695E-3	152.400E-12	595.440E-3	4.34413E-3
3.82941E-3	156.719E-12	606.345E-3	-42.6713E-3	151.173E-12	579.207E-3	-6.22230E-3
3.82441E-3	154.774E-12	609.041E-3	-47.1487E-3	151.841E-12	581.598E-3	-32.1242E-3
3.81941E-3	153.460E-12	636.182E-3	-51.6941E-3	150.963E-12	595.394E-3	-57.1463E-3
3.81441E-3	154.173E-12	641.009E-3	-44.0112E-3	150.676E-12	603.999E-3	-47.0505E-3
3.80940E-3	155.891E-12	611.748E-3	-15.6009E-3	150.269E-12	611.012E-3	-23.3244E-3
3.80440E-3	153.913E-12	606.637E-3	-13.7299E-3	151.995E-12	597.146E-3	-24.0520E-3
3.79940E-3	152.925E-12	626.079E-3	-10.4789E-3	152.429E-12	569.506E-3	-31.0719E-3
3.79440E-3	152.605E-12	621.919E-3	7.52729E-3	151.958E-12	566.367E-3	-31.7384E-3
3.78939E-3	153.725E-12	596.883E-3	1.11695E-3	152.747E-12	571.149E-3	-39.7126E-3
3.78439E-3	153.389E-12	590.870E-3	-3.03421E-3	154.473E-12	580.070E-3	-38.0931E-3
3.77939E-3	150.849E-12	596.615E-3	13.0167E-3	154.723E-12	607.508E-3	-25.4317E-3
3.77439E-3	149.660E-12	578.962E-3	3.87823E-3	153.316E-12	625.443E-3	-33.2909E-3
3.76938E-3	150.681E-12	558.033E-3	-21.7190E-3	153.884E-12	624.145E-3	-25.1311E-3
3.76438E-3	150.534E-12	561.368E-3	-26.7469E-3	154.355E-12	616.249E-3	11.2592E-3
3.75938E-3	150.074E-12	578.618E-3	-34.5319E-3	154.041E-12	608.732E-3	9.50084E-3
3.75438E-3	149.762E-12	604.115E-3	-48.0442E-3	152.399E-12	597.263E-3	-20.5080E-3
3.74937E-3	150.311E-12	612.467E-3	-20.4024E-3	151.645E-12	580.483E-3	-15.6692E-3
3.74437E-3	151.116E-12	602.239E-3	5.49017E-3	151.458E-12	592.433E-3	-13.2520E-3
3.73937E-3	152.085E-12	611.895E-3	-17.1948E-3	150.397E-12	614.873E-3	-40.9081E-3
3.73437E-3	150.674E-12	618.909E-3	-23.5667E-3	150.048E-12	612.720E-3	-44.3198E-3
3.72936E-3	150.619E-12	588.394E-3	984.837E-6	149.510E-12	618.072E-3	-27.0186E-3
3.72436E-3	152.240E-12	569.946E-3	9.66073E-3	149.628E-12	619.970E-3	-29.3228E-3
3.71936E-3	152.502E-12	594.594E-3	1.33007E-3	149.402E-12	606.071E-3	-33.0371E-3
3.71436E-3	152.424E-12	610.268E-3	-19.6865E-3	150.284E-12	616.348E-3	-23.4869E-3
3.70935E-3	150.822E-12	615.035E-3	-45.7362E-3	149.846E-12	639.370E-3	-31.8583E-3
3.70435E-3	151.856E-12	616.512E-3	-42.9902E-3	149.999E-12	635.744E-3	-44.8280E-3
3.69935E-3	150.754E-12	601.335E-3	-20.2792E-3	150.768E-12	629.169E-3	-23.9825E-3
3.69435E-3	149.225E-12	600.495E-3	4.64833E-3	150.451E-12	624.867E-3	-3.98277E-3
3.68934E-3	147.742E-12	612.643E-3	33.8181E-3	149.633E-12	606.899E-3	-12.2449E-3
3.68434E-3	146.966E-12	607.340E-3	28.7360E-3	148.611E-12	595.609E-3	-24.6095E-3
3.67934E-3	147.997E-12	593.353E-3	-6.40786E-3	149.621E-12	597.060E-3	-29.9042E-3
3.67434E-3	147.002E-12	580.879E-3	-2.27724E-3	149.240E-12	597.142E-3	-30.1394E-3
3.66933E-3	145.870E-12	575.092E-3	16.6021E-3	147.380E-12	602.519E-3	-28.5921E-3
3.66433E-3	147.008E-12	586.011E-3	1.17890E-3	146.841E-12	613.732E-3	-26.9039E-3
3.65933E-3	148.592E-12	597.461E-3	2.36904E-3	147.159E-12	611.447E-3	-10.5018E-3
3.65433E-3	148.934E-12	587.507E-3	9.76525E-3	147.937E-12	600.674E-3	19.9799E-3
3.64932E-3	147.440E-12	592.547E-3	-23.5453E-3	146.353E-12	591.582E-3	33.0757E-3
3.64432E-3	148.825E-12	629.298E-3	-46.0244E-3	145.701E-12	570.851E-3	22.3757E-3
3.63932E-3	150.153E-12	622.424E-3	-33.6420E-3	146.493E-12	569.460E-3	12.5944E-3
3.63432E-3	150.974E-12	591.267E-3	-12.9211E-3	148.448E-12	586.766E-3	3.61416E-3
3.62931E-3	149.301E-12	602.161E-3	9.84513E-3	147.081E-12	567.361E-3	3.81778E-3
3.62431E-3	149.315E-12	612.477E-3	12.0340E-3	146.918E-12	558.584E-3	25.6820E-3
3.61931E-3	149.670E-12	593.688E-3	-20.6569E-3	147.356E-12	602.980E-3	18.7815E-3
3.61431E-3	149.086E-12	582.832E-3	-39.4297E-3	147.568E-12	615.412E-3	-13.2670E-3
3.60930E-3	147.671E-12	599.960E-3	-26.9260E-3	147.005E-12	583.128E-3	-28.7535E-3
3.60430E-3	145.359E-12	610.545E-3	-32.7298E-3	146.576E-12	584.027E-3	-35.6761E-3
3.59930E-3	144.524E-12	615.122E-3	-42.3718E-3	146.689E-12	587.007E-3	-27.6604E-3
3.59430E-3	145.491E-12	622.863E-3	-27.3993E-3	146.405E-12	578.975E-3	-538.888E-6
3.58929E-3	145.251E-12	612.441E-3	-29.2825E-3	145.727E-12	606.031E-3	8.53054E-3
3.58429E-3	143.830E-12	603.065E-3	-40.5466E-3	144.872E-12	623.473E-3	-16.4287E-3
3.57929E-3	142.944E-12	604.596E-3	-18.0475E-3	144.663E-12	617.979E-3	-22.6068E-3
3.57429E-3	142.862E-12	590.331E-3	10.3895E-3	143.683E-12	622.349E-3	-8.76330E-3
3.56928E-3	143.940E-12	573.271E-3	-6.31671E-3	144.566E-12	625.895E-3	-16.6090E-3
3.56428E-3	144.117E-12	578.400E-3	-28.7898E-3	144.633E-12	619.159E-3	-40.0800E-3
3.55928E-3	144.348E-12	596.017E-3	-18.4062E-3	143.495E-12	608.904E-3	-51.0954E-3
3.55428E-3	144.754E-12	606.222E-3	-10.9676E-3	143.119E-12	616.268E-3	-41.5485E-3
3.54927E-3	145.859E-12	604.818E-3	-1.07322E-3	143.556E-12	625.162E-3	-28.6903E-3
3.54427E-3	146.898E-12	615.027E-3	6.68880E-3	144.511E-12	621.050E-3	-14.9349E-3
3.53927E-3	146.776E-12	624.327E-3	-4.95864E-3	143.838E-12	631.895E-3	-16.6761E-3
3.53427E-3	146.471E-12	612.989E-3	-26.1414E-3	143.745E-12	649.424E-3	-24.2498E-3
3.52926E-3	145.408E-12	593.004E-3	-19.1046E-3	142.424E-12	649.816E-3	-15.8137E-3
3.52426E-3	144.795E-12	602.487E-3	-13.1194E-3	143.806E-12	627.267E-3	-17.8948E-3
3.51926E-3	144.510E-12	624.210E-3	-44.1631E-3	143.487E-12	608.901E-3	-23.7385E-3
3.51426E-3	144.324E-12	611.733E-3	-42.9486E-3	141.800E-12	616.950E-3	-3.85346E-3
3.50925E-3	141.610E-12	599.503E-3	-39.5464E-3	141.553E-12	624.488E-3	16.9660E-3
3.50425E-3	139.814E-12	607.879E-3	-47.2315E-3	142.160E-12	625.592E-3	5.62081E-3
3.49925E-3	139.830E-12	601.933E-3	-21.7888E-3	142.337E-12	620.902E-3	-18.7459E-3
3.49425E-3	140.725E-12	586.136E-3	-15.2447E-3	140.989E-12	605.465E-3	-24.1269E-3
3.48924E-3	138.250E-12	605.991E-3	-31.9958E-3	140.527E-12	597.537E-3	-20.1961E-3
3.48424E-3	137.723E-12	621.575E-3	-33.5719E-3	140.866E-12	604.254E-3	-26.0203E-3
3.47924E-3	138.058E-12	588.565E-3	-39.5597E-3	141.204E-12	605.740E-3	-33.2530E-3
3.47424E-3	139.455E-12	572.012E-3	-32.4619E-3	140.645E-12	584.314E-3	-25.6218E-3
3.46923E-3	139.108E-12	580.243E-3	-3.52620E-3	139.073E-12	570.443E-3	-28.1059E-3
3.46423E-3	138.593E-12	574.211E-3	-9.63890E-3	139.644E-12	583.872E-3	-40.1756E-3
3.45923E-3	139.045E-12	581.349E-3	-32.8582E-3	140.107E-12	602.638E-3	-41.3022E-3
3.45423E-3	140.592E-12	587.371E-3	-22.9016E-3	140.537E-12	602.183E-3	-45.1111E-3
3.44922E-3	141.217E-12	587.768E-3	-11.8100E-3	139.481E-12	590.357E-3	-28.0711E-3
3.44422E-3	139.310E-12	601.434E-3	-9.21516E-3	138.381E-12	581.420E-3	-12.1866E-3
3.43922E-3	139.342E-12	589.301E-3	-11.6072E-3	139.099E-12	578.545E-3	-31.0577E-3
3.43422E-3	141.543E-12	562.644E-3	-31.5399E-3	138.521E-12	589.951E-3	-38.1139E-3
3.42921E-3	142.492E-12	568.374E-3	-24.8787E-3	137.639E-12	600.290E-3	-31.1948E-3
3.42421E-3	139.074E-12	586.634E-3	12.7584E-3	136.075E-12	604.465E-3	-29.1008E-3
3.41921E-3	138.355E-12	586.223E-3	17.0607E-3	136.905E-12	612.059E-3	-24.5740E-3
3.41421E-3	140.335E-12	590.509E-3	-24.2765E-3	136.602E-12	616.614E-3	-17.0580E-3
3.40920E-3	141.353E-12	609.416E-3	-42.8540E-3	135.726E-12	617.289E-3	-4.40279E-3
3.40420E-3	139.439E-12	633.677E-3	-48.3783E-3	134.132E-12	623.421E-3	4.96444E-3
3.39920E-3	137.601E-12	648.215E-3	-69.3042E-3	135.311E-12	630.558E-3	-351.031E-6
3.39420E-3	138.808E-12	617.204E-3	-52.6229E-3	136.178E-12	625.008E-3	2.67562E-3
3.38919E-3	140.756E-12	586.483E-3	-6.84740E-3	136.746E-12	607.340E-3	15.8712E-3
3.38419E-3	138.955E-12	610.975E-3	20.7108E-3	135.798E-12	604.387E-3	-9.80469E-3
3.37919E-3	136.166E-12	630.100E-3	8.29246E-3	135.757E-12	611.880E-3	-36.5606E-3
3.37419E-3	135.235E-12	612.089E-3	-20.3363E-3	137.084E-12	612.173E-3	-29.1429E-3
3.36918E-3	136.944E-12	597.998E-3	-17.6597E-3	139.108E-12	606.822E-3	-30.7069E-3
3.36418E-3	136.030E-12	588.499E-3	6.39395E-3	139.020E-12	599.461E-3	-31.7026E-3
3.35918E-3	135.465E-12	573.749E-3	-1.60832E-3	137.540E-12	594.959E-3	-26.9057E-3
3.35418E-3	133.544E-12	582.518E-3	-32.1552E-3	137.636E-12	606.516E-3	-37.2191E-3
3.34917E-3	133.659E-12	604.948E-3	-27.0824E-3	139.755E-12	614.841E-3	-39.3771E-3
3.34417E-3	134.563E-12	600.733E-3	2.29417E-3	138.053E-12	604.074E-3	-44.0170E-3
3.33917E-3	134.045E-12	592.786E-3	10.6938E-3	136.258E-12	614.101E-3	-70.1756E-3
3.33417E-3	132.933E-12	611.021E-3	-2.45873E-3	135.069E-12	636.180E-3	-68.0970E-3
3.32916E-3	133.168E-12	621.611E-3	-24.9737E-3	136.534E-12	630.365E-3	-25.9176E-3
3.32416E-3	134.697E-12	598.599E-3	-51.0119E-3	135.321E-12	612.681E-3	586.888E-6
3.31916E-3	134.740E-12	581.957E-3	-44.9077E-3	132.920E-12	604.864E-3	-1.17900E-3
3.31416E-3	135.166E-12	575.941E-3	-29.4247E-3	131.158E-12	601.889E-3	-13.1965E-3
3.30915E-3	135.274E-12	573.568E-3	-45.5189E-3	131.178E-12	603.548E-3	-25.7067E-3
3.30415E-3	135.952E-12	587.943E-3	-36.4723E-3	132.254E-12	600.035E-3	-25.5243E-3
3.29915E-3	137.116E-12	597.039E-3	-2.85264E-3	132.601E-12	603.586E-3	-19.9564E-3
3.29415E-3	135.230E-12	608.629E-3	-9.26219E-3	131.816E-12	622.610E-3	-12.0231E-3
3.28914E-3	134.883E-12	629.324E-3	-31.4993E-3	130.846E-12	631.962E-3	-13.1273E-3
3.28414E-3	134.008E-12	630.434E-3	-25.1973E-3	132.744E-12	631.548E-3	-16.3212E-3
3.27914E-3	133.454E-12	617.118E-3	-8.76894E-3	134.369E-12	622.725E-3	-10.6393E-3
3.27414E-3	132.282E-12	606.953E-3	-8.50234E-3	133.583E-12	625.975E-3	-10.2543E-3
3.26913E-3	131.961E-12	598.204E-3	-18.6350E-3	133.398E-12	640.844E-3	-13.8136E-3
3.26413E-3	130.552E-12	602.223E-3	-35.5427E-3	134.090E-12	636.354E-3	-19.6870E-3
3.25913E-3	129.757E-12	623.492E-3	-38.4195E-3	135.313E-12	620.068E-3	-12.6928E-3
3.25413E-3	128.610E-12	628.592E-3	-24.2020E-3	134.979E-12	612.940E-3	-3.93095E-3
3.24912E-3	128.088E-12	611.012E-3	-28.6258E-3	133.799E-12	607.955E-3	-13.3915E-3
3.24412E-3	128.062E-12	618.858E-3	-30.4386E-3	132.787E-12	600.299E-3	-19.5706E-3
3.23912E-3	128.282E-12	633.548E-3	-7.27913E-3	133.218E-12	595.520E-3	-22.5416E-3
3.23412E-3	127.438E-12	606.362E-3	2.60420E-3	131.777E-12	591.305E-3	-16.1725E-3
3.22911E-3	127.925E-12	586.396E-3	-15.6401E-3	129.884E-12	606.394E-3	-237.566E-6
3.22411E-3	129.863E-12	587.713E-3	-21.0452E-3	127.829E-12	623.142E-3	7.88360E-3
3.21911E-3	130.380E-12	579.237E-3	-16.8600E-3	127.478E-12	607.504E-3	-2.47923E-3
3.21411E-3	129.707E-12	580.545E-3	-30.2961E-3	127.054E-12	584.292E-3	-15.7389E-3
3.20910E-3	130.137E-12	588.260E-3	-27.8340E-3	126.344E-12	582.186E-3	-8.61084E-3
3.20410E-3	130.006E-12	585.219E-3	-17.0961E-3	125.230E-12	596.529E-3	-12.0614E-3
3.19910E-3	130.566E-12	589.783E-3	-26.6966E-3	125.343E-12	597.558E-3	-29.9158E-3
3.19410E-3	129.963E-12	607.812E-3	-22.2177E-3	126.306E-12	594.385E-3	-24.3133E-3
3.18909E-3	128.518E-12	621.384E-3	-9.31475E-3	127.046E-12	605.309E-3	-15.5765E-3
3.18409E-3	128.256E-12	628.077E-3	-14.9474E-3	127.680E-12	615.691E-3	-21.1233E-3
3.17909E-3	128.081E-12	628.862E-3	-12.2329E-3	127.316E-12	624.232E-3	-8.26105E-3
3.17409E-3	128.444E-12	617.723E-3	2.90581E-3	128.176E-12	629.796E-3	4.26360E-3
3.16908E-3	126.463E-12	614.612E-3	4.88445E-3	130.000E-12	625.694E-3	-3.02284E-3
3.16408E-3	124.847E-12	619.115E-3	-8.92474E-3	129.418E-12	621.322E-3	-4.03087E-3
3.15908E-3	125.224E-12	613.713E-3	-17.0600E-3	128.624E-12	627.139E-3	-3.90989E-3
3.15408E-3	126.597E-12	607.902E-3	-19.8819E-3	127.775E-12	633.961E-3	-8.44611E-3
3.14907E-3	126.026E-12	604.408E-3	-30.5513E-3	129.863E-12	619.821E-3	-10.9427E-3
3.14407E-3	123.992E-12	600.123E-3	-30.1493E-3	129.005E-12	605.387E-3	-14.9760E-3
3.13907E-3	125.500E-12	588.593E-3	-21.9850E-3	127.581E-12	607.308E-3	-29.9721E-3
3.13407E-3	126.684E-12	582.088E-3	-14.1032E-3	126.754E-12	595.258E-3	-34.8486E-3
3.12906E-3	126.209E-12	586.880E-3	2.95499E-3	126.961E-12	578.811E-3	-21.6418E-3
3.12406E-3	126.220E-12	585.950E-3	645.708E-6	127.597E-12	576.765E-3	-23.1749E-3
3.11906E-3	126.824E-12	592.249E-3	-20.4062E-3	125.724E-12	578.371E-3	-23.9326E-3
3.11406E-3	128.282E-12	604.153E-3	-14.7533E-3	124.988E-12	592.990E-3	-17.0836E-3
3.10905E-3	127.267E-12	596.050E-3	-9.79296E-3	124.387E-12	609.883E-3	-42.4925E-3
3.10405E-3	127.723E-12	597.058E-3	-14.6074E-3	126.266E-12	606.194E-3	-67.9929E-3
3.09905E-3	126.135E-12	616.876E-3	-5.56424E-3	125.393E-12	610.256E-3	-45.8222E-3
3.09405E-3	125.998E-12	623.599E-3	-11.9421E-3	123.930E-12	626.469E-3	-15.6070E-3
3.08904E-3	126.135E-12	621.454E-3	-13.6388E-3	123.274E-12	615.376E-3	-15.7744E-3
3.08404E-3	125.685E-12	616.278E-3	10.5122E-3	123.469E-12	587.050E-3	-24.1988E-3
3.07904E-3	123.790E-12	593.785E-3	19.7761E-3	124.577E-12	596.017E-3	-20.4530E-3
3.07404E-3	123.328E-12	577.673E-3	-1.12174E-3	123.214E-12	614.293E-3	-10.8924E-3
3.06903E-3	123.929E-12	584.838E-3	-25.1280E-3	122.975E-12	606.907E-3	-12.3192E-3
3.06403E-3	123.866E-12	583.401E-3	-25.4616E-3	122.434E-12	615.983E-3	-15.8454E-3
3.05903E-3	122.927E-12	590.684E-3	-10.8890E-3	123.424E-12	639.445E-3	-10.8334E-3
3.05403E-3	122.373E-12	616.049E-3	5.61614E-6	123.360E-12	642.729E-3	-7.73051E-3
3.04902E-3	122.968E-12	629.815E-3	-8.76941E-3	123.341E-12	641.901E-3	-13.8721E-3
3.04402E-3	123.827E-12	628.561E-3	-34.2106E-3	123.562E-12	651.357E-3	-40.2954E-3
3.03902E-3	124.222E-12	624.203E-3	-19.3648E-3	124.316E-12	644.328E-3	-47.7319E-3
3.03402E-3	123.068E-12	635.607E-3	2.92294E-3	125.791E-12	638.644E-3	-21.0278E-3
3.02901E-3	122.026E-12	653.990E-3	-10.9576E-3	123.988E-12	644.172E-3	-4.03126E-3
3.02401E-3	124.086E-12	650.797E-3	-2.35951E-3	124.769E-12	630.622E-3	-1.98736E-3
3.01901E-3	124.463E-12	636.090E-3	1.97815E-3	123.431E-12	612.659E-3	-660.827E-6
3.01401E-3	123.041E-12	634.019E-3	-25.8542E-3	124.828E-12	599.555E-3	-9.62007E-3
3.00900E-3	121.171E-12	621.889E-3	-24.9560E-3	123.234E-12	587.426E-3	-25.1468E-3
3.00400E-3	121.917E-12	600.031E-3	-6.19268E-3	122.885E-12	590.536E-3	-30.8906E-3
2.99900E-3	123.664E-12	608.954E-3	-18.5663E-3	121.206E-12	608.063E-3	-30.4760E-3
2.99400E-3	122.941E-12	621.765E-3	-24.2586E-3	121.465E-12	610.316E-3	-31.8583E-3
2.98899E-3	121.234E-12	598.230E-3	-12.6525E-3	120.809E-12	594.947E-3	-29.1835E-3
2.98399E-3	120.664E-12	579.758E-3	-19.7863E-3	118.702E-12	597.218E-3	-25.4441E-3
2.97899E-3	122.551E-12	600.673E-3	-28.4106E-3	117.319E-12	604.218E-3	-22.5655E-3
2.97399E-3	121.881E-12	606.619E-3	-11.8796E-3	117.035E-12	605.498E-3	-7.99311E-3
2.96898E-3	120.118E-12	603.475E-3	-2.69286E-3	118.546E-12	610.980E-3	-7.38975E-3
2.96398E-3	119.368E-12	635.431E-3	376.962E-6	116.420E-12	598.393E-3	-20.2844E-3
2.95898E-3	120.559E-12	659.659E-3	15.3343E-3	115.844E-12	578.615E-3	-20.6371E-3
2.95398E-3	121.088E-12	660.646E-3	-6.00555E-3	117.233E-12	581.225E-3	-27.0861E-3
2.94897E-3	119.911E-12	666.814E-3	-24.4535E-3	118.880E-12	605.178E-3	-37.9508E-3
2.94397E-3	118.303E-12	662.129E-3	-5.34113E-3	119.280E-12	641.253E-3	-34.3420E-3
2.93897E-3	118.744E-12	634.560E-3	-11.6020E-3	118.645E-12	664.205E-3	-31.9835E-3
2.93397E-3	120.458E-12	627.617E-3	-38.7934E-3	119.748E-12	646.825E-3	-41.1045E-3
2.92896E-3	118.999E-12	637.226E-3	-38.8801E-3	121.722E-12	613.335E-3	-32.4986E-3
2.92396E-3	116.301E-12	604.719E-3	-29.4149E-3	121.820E-12	601.830E-3	-3.14953E-3
2.91896E-3	117.033E-12	576.428E-3	-44.9596E-3	120.128E-12	600.697E-3	15.4433E-3
2.91396E-3	118.675E-12	592.377E-3	-48.4513E-3	118.531E-12	603.435E-3	-8.20109E-3
2.90895E-3	118.878E-12	596.188E-3	-22.4079E-3	118.819E-12	606.047E-3	-39.4252E-3
2.90395E-3	118.249E-12	605.153E-3	-3.70541E-3	120.139E-12	602.792E-3	-33.8324E-3
2.89895E-3	118.891E-12	630.000E-3	16.2085E-3	117.654E-12	606.912E-3	-30.9599E-3
2.89395E-3	118.312E-12	618.402E-3	27.6759E-3	114.827E-12	617.600E-3	-45.3522E-3
2.88894E-3	119.564E-12	596.045E-3	-4.94789E-3	114.589E-12	615.650E-3	-37.5062E-3
2.88394E-3	118.890E-12	614.305E-3	-22.2038E-3	115.153E-12	596.974E-3	7.64363E-3
2.87894E-3	118.029E-12	626.074E-3	329.608E-6	115.111E-12	582.629E-3	39.2808E-3
2.87394E-3	117.750E-12	612.267E-3	10.0459E-3	113.439E-12	577.809E-3	26.8496E-3
2.86893E-3	118.763E-12	618.845E-3	2.57222E-3	112.713E-12	573.788E-3	4.74033E-3
2.86393E-3	118.549E-12	633.342E-3	-2.59411E-3	113.477E-12	581.540E-3	-10.0686E-3
2.85893E-3	117.024E-12	635.563E-3	-5.76699E-3	114.415E-12	600.160E-3	-19.4778E-3
2.85393E-3	116.308E-12	631.725E-3	-1.19898E-3	114.314E-12	615.553E-3	-12.8597E-3
2.84892E-3	116.686E-12	620.011E-3	-6.52128E-3	114.217E-12	626.286E-3	3.59024E-3
2.84392E-3	116.667E-12	600.518E-3	-27.6373E-3	114.894E-12	632.708E-3	3.88252E-3
2.83892E-3	115.036E-12	590.736E-3	-30.1630E-3	116.225E-12	629.684E-3	-6.72825E-3
2.83392E-3	114.585E-12	598.425E-3	-23.5556E-3	117.655E-12	636.007E-3	-23.5869E-3
2.82891E-3	114.749E-12	614.959E-3	-25.2812E-3	116.177E-12	653.610E-3	-35.6929E-3
2.82391E-3	116.160E-12	620.990E-3	-24.7614E-3	115.317E-12	643.300E-3	-21.6674E-3
2.81891E-3	116.315E-12	608.592E-3	-15.6751E-3	115.673E-12	619.762E-3	-5.70478E-3
2.81391E-3	115.417E-12	596.900E-3	-22.8357E-3	116.040E-12	619.654E-3	-6.77382E-3
2.80890E-3	115.212E-12	597.071E-3	-34.7682E-3	114.642E-12	620.558E-3	-6.92319E-3
2.80390E-3	116.700E-12	609.178E-3	-18.6369E-3	111.954E-12	612.220E-3	-11.1813E-3
2.79890E-3	117.071E-12	626.121E-3	-23.8485E-3	111.626E-12	606.823E-3	-40.1862E-3
2.79390E-3	115.837E-12	651.572E-3	-33.8737E-3	111.780E-12	595.247E-3	-59.0648E-3
2.78889E-3	115.593E-12	657.350E-3	-6.77222E-3	111.612E-12	593.870E-3	-34.2479E-3
2.78389E-3	116.234E-12	639.286E-3	4.20423E-3	109.746E-12	615.084E-3	-7.08781E-3
2.77889E-3	117.404E-12	637.716E-3	-8.01194E-3	109.415E-12	620.019E-3	-2.72126E-3
2.77389E-3	115.649E-12	650.761E-3	-18.0933E-3	110.591E-12	606.574E-3	-10.2089E-3
2.76888E-3	113.932E-12	662.858E-3	-17.6997E-3	110.807E-12	605.326E-3	-32.3444E-3
2.76388E-3	113.143E-12	666.644E-3	-5.42580E-3	111.214E-12	605.508E-3	-50.1194E-3
2.75888E-3	112.930E-12	639.975E-3	-2.11623E-3	109.422E-12	613.949E-3	-42.5877E-3
2.75388E-3	112.714E-12	591.232E-3	-14.7020E-3	110.921E-12	625.636E-3	-22.6836E-3
2.74887E-3	110.587E-12	574.119E-3	-21.6549E-3	111.179E-12	622.984E-3	-16.3613E-3
2.74387E-3	108.266E-12	590.791E-3	-13.3794E-3	110.795E-12	621.723E-3	-24.2817E-3
2.73887E-3	108.161E-12	586.704E-3	-12.6773E-3	110.732E-12	627.146E-3	-24.5098E-3
2.73387E-3	109.327E-12	585.057E-3	-18.3681E-3	110.645E-12	626.511E-3	-18.3984E-3
2.72886E-3	108.669E-12	608.317E-3	-8.86558E-3	111.501E-12	615.068E-3	-8.52702E-3
2.72386E-3	108.427E-12	601.368E-3	3.83952E-3	110.030E-12	617.591E-3	-5.04950E-3
2.71886E-3	107.999E-12	583.769E-3	-8.96307E-3	110.268E-12	629.873E-3	-23.5279E-3
2.71386E-3	108.410E-12	591.818E-3	-36.2547E-3	109.060E-12	624.294E-3	-44.1088E-3
2.70885E-3	109.356E-12	592.479E-3	-34.1169E-3	109.623E-12	621.282E-3	-60.0528E-3
2.70385E-3	109.014E-12	598.123E-3	-23.0791E-3	110.282E-12	632.587E-3	-48.8242E-3
2.69885E-3	109.421E-12	622.908E-3	-21.1802E-3	109.829E-12	649.350E-3	-11.3798E-3
2.69385E-3	109.788E-12	632.323E-3	-16.3372E-3	108.186E-12	662.206E-3	-13.7091E-3
2.68884E-3	110.635E-12	628.484E-3	-30.2433E-3	108.132E-12	644.609E-3	-35.9826E-3
2.68384E-3	109.783E-12	635.682E-3	-36.5396E-3	109.872E-12	605.441E-3	-25.4062E-3
2.67884E-3	109.811E-12	645.127E-3	-22.6475E-3	109.337E-12	591.456E-3	-13.7139E-3
2.67384E-3	110.082E-12	646.763E-3	-18.6247E-3	108.490E-12	608.050E-3	-23.4918E-3
2.66883E-3	108.935E-12	648.513E-3	-8.68269E-3	107.498E-12	623.553E-3	-31.7676E-3
2.66383E-3	108.326E-12	646.879E-3	10.4836E-3	107.105E-12	633.768E-3	-31.0844E-3
2.65883E-3	107.190E-12	637.994E-3	12.3909E-3	107.575E-12	638.563E-3	-38.6247E-3
2.65383E-3	107.206E-12	626.413E-3	6.18170E-3	106.433E-12	628.393E-3	-43.3510E-3
2.64882E-3	105.919E-12	618.797E-3	3.21156E-3	105.651E-12	626.395E-3	-20.4578E-3
2.64382E-3	104.962E-12	629.304E-3	-16.1851E-3	105.075E-12	636.017E-3	-2.74547E-3
2.63882E-3	103.572E-12	633.086E-3	-20.7034E-3	105.107E-12	634.117E-3	312.474E-6
2.63382E-3	104.009E-12	605.059E-3	11.6292E-3	104.600E-12	640.720E-3	-5.48657E-3
2.62881E-3	103.503E-12	591.908E-3	15.4607E-3	104.278E-12	649.756E-3	-20.8656E-3
2.62381E-3	103.387E-12	610.269E-3	-12.2249E-3	104.227E-12	627.143E-3	-13.8350E-3
2.61881E-3	103.281E-12	621.118E-3	-33.0762E-3	104.615E-12	600.919E-3	-3.71419E-3
2.61381E-3	103.135E-12	616.570E-3	-40.1206E-3	104.558E-12	597.615E-3	-8.51127E-3
2.60880E-3	103.813E-12	619.140E-3	-21.8946E-3	103.835E-12	606.104E-3	-13.9972E-3
2.60380E-3	104.052E-12	618.505E-3	8.17167E-3	104.443E-12	615.856E-3	-18.8775E-3
2.59880E-3	103.811E-12	622.836E-3	7.38691E-3	105.514E-12	626.447E-3	-14.3507E-3
2.59380E-3	103.996E-12	650.543E-3	-16.7012E-3	105.118E-12	646.028E-3	-11.9614E-3
2.58879E-3	104.884E-12	657.046E-3	-15.3109E-3	104.661E-12	648.540E-3	-16.0173E-3
2.58379E-3	105.238E-12	637.308E-3	-13.1154E-3	104.402E-12	630.099E-3	-20.2006E-3
2.57879E-3	103.776E-12	637.624E-3	-22.6747E-3	104.733E-12	628.428E-3	-20.0195E-3
2.57379E-3	103.722E-12	643.646E-3	-11.9913E-3	104.452E-12	621.230E-3	-4.39192E-3
2.56878E-3	103.959E-12	631.144E-3	-5.08456E-3	103.865E-12	608.209E-3	-6.78106E-3
2.56378E-3	104.600E-12	638.442E-3	-23.5147E-3	102.548E-12	612.538E-3	-44.5626E-3
2.55878E-3	103.623E-12	659.058E-3	-32.4227E-3	102.719E-12	610.002E-3	-66.4132E-3
2.55378E-3	102.728E-12	648.645E-3	-30.3184E-3	102.647E-12	620.852E-3	-36.2709E-3
2.54877E-3	102.865E-12	637.379E-3	-40.2700E-3	101.911E-12	636.947E-3	-11.2252E-3
2.54377E-3	102.191E-12	639.259E-3	-30.9227E-3	100.415E-12	624.166E-3	-24.2670E-3
2.53877E-3	102.021E-12	620.013E-3	-6.98768E-3	100.548E-12	630.184E-3	-31.1298E-3
2.53377E-3	101.492E-12	599.967E-3	-11.5225E-3	100.835E-12	657.505E-3	-26.5044E-3
2.52876E-3	100.437E-12	605.510E-3	-24.7487E-3	101.886E-12	650.956E-3	-18.4777E-3
2.52376E-3	100.161E-12	617.238E-3	-20.3765E-3	102.115E-12	633.340E-3	-1.09099E-3
2.51876E-3	100.224E-12	627.996E-3	-13.1761E-3	102.132E-12	633.662E-3	9.80707E-3
2.51376E-3	100.209E-12	646.717E-3	-6.36825E-3	101.413E-12	634.149E-3	3.32606E-3
2.50875E-3	99.2111E-12	655.532E-3	4.75385E-3	102.815E-12	640.550E-3	-4.36928E-3
2.50375E-3	100.157E-12	644.974E-3	-7.04994E-3	104.329E-12	649.162E-3	-453.291E-6
2.49875E-3	99.9670E-12	655.761E-3	-20.3491E-3	103.999E-12	637.353E-3	1.82896E-3
2.49375E-3	100.070E-12	664.430E-3	-10.7310E-3	102.741E-12	623.135E-3	884.765E-6
2.48874E-3	99.1569E-12	643.337E-3	-15.5940E-3	102.211E-12	626.169E-3	2.19228E-3
2.48374E-3	99.2185E-12	637.475E-3	-17.0146E-3	102.518E-12	614.038E-3	739.336E-6
2.47874E-3	99.9228E-12	639.728E-3	2.98789E-3	101.404E-12	589.645E-3	-4.43992E-3
2.47374E-3	99.8673E-12	631.323E-3	2.67283E-3	100.295E-12	598.048E-3	-9.08288E-3
2.46873E-3	100.240E-12	643.279E-3	-5.92861E-3	99.3147E-12	620.606E-3	-16.0198E-3
2.46373E-3	99.4756E-12	652.566E-3	2.66844E-3	99.9377E-12	628.226E-3	-17.2158E-3
2.45873E-3	100.393E-12	631.376E-3	-1.88481E-3	99.8135E-12	635.039E-3	-12.7605E-3
2.45373E-3	99.9626E-12	632.888E-3	-8.34795E-3	98.3605E-12	638.870E-3	-23.3396E-3
2.44872E-3	99.3063E-12	656.722E-3	4.31899E-3	97.8725E-12	631.274E-3	-20.2234E-3
2.44372E-3	97.9855E-12	661.595E-3	-1.73593E-3	98.9376E-12	633.805E-3	2.91223E-3
2.43872E-3	98.0060E-12	662.698E-3	-18.5682E-3	99.0237E-12	637.081E-3	5.14828E-3
2.43372E-3	97.8317E-12	648.366E-3	-11.9089E-3	97.7885E-12	645.243E-3	-7.54701E-3
2.42871E-3	97.1778E-12	609.346E-3	-4.83271E-3	97.9954E-12	666.734E-3	-9.61223E-3
2.42371E-3	96.3057E-12	605.036E-3	-5.68300E-3	98.5225E-12	681.079E-3	-4.66428E-3
2.41871E-3	95.1091E-12	631.029E-3	3.43992E-3	100.532E-12	674.610E-3	2.64928E-3
2.41371E-3	95.3185E-12	627.817E-3	4.51781E-3	100.558E-12	653.111E-3	7.21723E-3
2.40870E-3	94.8483E-12	613.423E-3	-14.9853E-3	98.8822E-12	640.879E-3	-6.85250E-3
2.40370E-3	94.2413E-12	613.177E-3	-19.8916E-3	98.1826E-12	627.785E-3	-19.9248E-3
2.39870E-3	94.5317E-12	612.793E-3	-12.3156E-3	98.6060E-12	607.867E-3	-10.1467E-3
2.39370E-3	95.1253E-12	612.375E-3	-19.9603E-3	98.3695E-12	607.661E-3	5.77340E-3
2.38869E-3	94.8007E-12	609.721E-3	-30.6437E-3	95.6734E-12	613.748E-3	13.0501E-3
2.38369E-3	94.8234E-12	603.276E-3	-36.1484E-3	94.6727E-12	617.208E-3	13.4879E-3
2.37869E-3	95.2218E-12	613.764E-3	-36.6774E-3	94.4662E-12	632.974E-3	7.61272E-3
2.37369E-3	96.1579E-12	623.652E-3	-33.3138E-3	94.3360E-12	637.199E-3	-3.54189E-3
2.36868E-3	96.1902E-12	621.422E-3	-24.8760E-3	92.5588E-12	631.445E-3	-14.0111E-3
2.36368E-3	95.9975E-12	637.190E-3	-7.19364E-3	91.7105E-12	636.002E-3	-25.0936E-3
2.35868E-3	95.5472E-12	656.113E-3	11.2238E-3	92.2463E-12	647.670E-3	-31.8526E-3
2.35368E-3	95.1733E-12	646.804E-3	3.86146E-3	92.5898E-12	659.439E-3	-28.1616E-3
2.34867E-3	95.1880E-12	635.626E-3	-24.6137E-3	92.6670E-12	670.139E-3	-23.0260E-3
2.34367E-3	94.3886E-12	642.911E-3	-37.6393E-3	92.4537E-12	669.847E-3	-5.75413E-3
2.33867E-3	93.8368E-12	643.683E-3	-28.0754E-3	93.6407E-12	660.710E-3	10.4616E-3
2.33367E-3	92.5629E-12	644.528E-3	-16.3322E-3	93.9981E-12	655.862E-3	-21.1332E-3
2.32866E-3	91.9584E-12	649.576E-3	-11.3105E-3	93.7573E-12	652.082E-3	-52.9613E-3
2.32366E-3	91.7048E-12	641.672E-3	-21.2286E-3	94.4289E-12	643.750E-3	-43.3897E-3
2.31866E-3	91.2485E-12	650.148E-3	-31.4449E-3	94.2440E-12	633.389E-3	-21.8994E-3
2.31366E-3	90.5529E-12	667.433E-3	-24.3977E-3	94.3990E-12	638.921E-3	-7.28606E-3
2.30865E-3	89.4957E-12	648.953E-3	-23.1848E-3	94.6833E-12	663.336E-3	-13.5562E-3
2.30365E-3	90.0440E-12	625.067E-3	-30.3385E-3	95.0971E-12	662.471E-3	-18.9805E-3
2.29865E-3	90.4276E-12	631.433E-3	-20.4273E-3	93.7774E-12	646.855E-3	-11.5144E-3
2.29365E-3	90.2147E-12	641.664E-3	3.98217E-3	92.6779E-12	648.760E-3	-8.38375E-3
2.28864E-3	90.7622E-12	629.035E-3	-602.391E-6	92.4817E-12	642.304E-3	-9.35324E-3
2.28364E-3	90.7727E-12	610.014E-3	-24.7151E-3	92.8035E-12	646.545E-3	-14.9237E-3
2.27864E-3	91.2892E-12	600.098E-3	-13.1633E-3	91.8675E-12	662.249E-3	-14.6902E-3
2.27364E-3	91.7576E-12	613.550E-3	4.91666E-3	90.9973E-12	656.532E-3	-8.98664E-3
2.26863E-3	92.0878E-12	648.531E-3	-8.75254E-3	90.8034E-12	649.878E-3	-16.5081E-3
2.26363E-3	91.5062E-12	657.086E-3	-10.3487E-3	90.9347E-12	648.229E-3	-26.6309E-3
2.25863E-3	90.9651E-12	639.633E-3	7.45444E-3	91.1665E-12	644.181E-3	-33.1341E-3
2.25363E-3	90.8991E-12	650.663E-3	14.8580E-3	91.3355E-12	653.538E-3	-27.2002E-3
2.24862E-3	90.7272E-12	668.974E-3	15.0597E-3	90.2166E-12	679.441E-3	-5.48893E-3
2.24362E-3	90.0556E-12	657.224E-3	1.31639E-3	89.8565E-12	684.609E-3	-669.451E-6
2.23862E-3	89.1542E-12	651.510E-3	-32.4281E-3	90.4208E-12	659.052E-3	-14.6626E-3
2.23362E-3	89.3829E-12	659.479E-3	-51.4344E-3	90.5820E-12	648.463E-3	-19.8933E-3
2.22861E-3	88.6114E-12	662.833E-3	-40.0467E-3	89.8449E-12	661.811E-3	-15.1905E-3
2.22361E-3	88.3491E-12	661.531E-3	-27.9943E-3	88.9199E-12	666.001E-3	-22.6717E-3
2.21861E-3	86.9931E-12	659.566E-3	-12.1704E-3	88.9317E-12	668.472E-3	-34.5084E-3
2.21361E-3	86.8660E-12	649.002E-3	1.20408E-3	89.0098E-12	675.121E-3	-28.0290E-3
2.20860E-3	87.3419E-12	633.948E-3	-14.2092E-3	89.7436E-12	668.920E-3	-23.6198E-3
2.20360E-3	86.8692E-12	640.908E-3	-22.7374E-3	89.0864E-12	657.063E-3	-17.8512E-3
2.19860E-3	86.3094E-12	658.576E-3	-9.21391E-3	88.7002E-12	650.914E-3	12.8406E-3
2.19360E-3	86.6908E-12	664.437E-3	-5.51085E-3	88.4911E-12	652.527E-3	26.0175E-3
2.18859E-3	86.7451E-12	663.752E-3	-7.20787E-3	89.2108E-12	660.091E-3	4.88400E-3
2.18359E-3	85.8057E-12	647.936E-3	-14.9336E-3	88.0695E-12	666.132E-3	-399.972E-6
2.17859E-3	85.8368E-12	636.313E-3	-39.5494E-3	87.3329E-12	669.077E-3	6.79361E-3
2.17359E-3	86.4227E-12	645.458E-3	-47.5167E-3	88.0758E-12	666.984E-3	-502.834E-6
2.16858E-3	87.2409E-12	649.455E-3	-31.9542E-3	88.2538E-12	655.787E-3	1.87329E-3
2.16358E-3	85.8571E-12	660.714E-3	-20.6193E-3	87.8872E-12	644.187E-3	5.90665E-3
2.15858E-3	85.9850E-12	677.151E-3	-3.46137E-3	86.5508E-12	640.919E-3	-1.91491E-3
2.15358E-3	86.6627E-12	669.006E-3	17.9494E-3	85.9307E-12	646.569E-3	-829.136E-6
2.14857E-3	86.8235E-12	660.541E-3	15.1486E-3	85.3624E-12	653.477E-3	-1.92717E-3
2.14357E-3	86.2760E-12	665.799E-3	-364.084E-6	85.8645E-12	653.020E-3	-2.17094E-3
2.13857E-3	86.1700E-12	655.222E-3	1.37108E-3	84.2383E-12	650.634E-3	-4.46863E-3
2.13357E-3	85.9421E-12	638.164E-3	-931.231E-6	82.7099E-12	652.874E-3	-17.3763E-3
2.12856E-3	86.0614E-12	638.049E-3	-8.47628E-3	82.9399E-12	664.077E-3	-15.7048E-3
2.12356E-3	85.6947E-12	649.377E-3	6.26427E-3	82.9311E-12	676.495E-3	-11.0763E-3
2.11856E-3	84.7585E-12	650.670E-3	12.0317E-3	83.1152E-12	666.210E-3	-16.8220E-3
2.11356E-3	84.4894E-12	648.218E-3	-4.66937E-3	81.9727E-12	640.798E-3	-18.3528E-3
2.10855E-3	85.2863E-12	655.131E-3	-9.29320E-3	82.6650E-12	639.056E-3	-16.8845E-3
2.10355E-3	84.1840E-12	657.223E-3	-7.03126E-3	82.9390E-12	675.539E-3	-12.1898E-3
2.09855E-3	82.2057E-12	657.139E-3	1.52980E-3	83.6385E-12	705.658E-3	-1.87726E-3
2.09355E-3	82.2300E-12	660.604E-3	11.3535E-3	83.8940E-12	691.992E-3	-5.67435E-3
2.08854E-3	83.7545E-12	665.543E-3	-6.44937E-3	83.4761E-12	658.303E-3	-12.6175E-3
2.08354E-3	83.1462E-12	685.170E-3	-29.2057E-3	83.5364E-12	651.788E-3	-8.40116E-3
2.07854E-3	82.0123E-12	692.782E-3	-25.3124E-3	84.0097E-12	664.995E-3	-3.56492E-3
2.07354E-3	81.4446E-12	670.087E-3	-12.5703E-3	83.7363E-12	660.359E-3	-6.31390E-3
2.06853E-3	81.8025E-12	656.639E-3	-12.0328E-3	83.0013E-12	655.865E-3	-12.6427E-3
2.06353E-3	82.4430E-12	658.616E-3	-15.5470E-3	82.3187E-12	657.902E-3	-13.4421E-3
2.05853E-3	82.5979E-12	655.520E-3	-18.2476E-3	81.5629E-12	657.322E-3	-24.6701E-3
2.05353E-3	81.2634E-12	651.532E-3	-24.1453E-3	81.0901E-12	657.828E-3	-41.3963E-3
2.04852E-3	81.3310E-12	655.523E-3	-15.1240E-3	79.8903E-12	645.656E-3	-32.5573E-3
2.04352E-3	82.0780E-12	658.340E-3	-5.59461E-3	78.7503E-12	629.809E-3	6.84100E-3
2.03852E-3	82.3636E-12	669.524E-3	-23.9704E-3	78.1521E-12	619.211E-3	18.6075E-3
2.03352E-3	81.5277E-12	684.614E-3	-43.1922E-3	77.9861E-12	613.451E-3	-10.9560E-3
2.02851E-3	81.9226E-12	679.967E-3	-34.5534E-3	77.6413E-12	626.519E-3	-16.6753E-3
2.02351E-3	81.7963E-12	671.258E-3	-21.9158E-3	76.7748E-12	655.706E-3	-11.7963E-3
2.01851E-3	81.1383E-12	675.703E-3	-23.2364E-3	76.7756E-12	664.576E-3	-29.5671E-3
2.01351E-3	81.5949E-12	675.500E-3	-23.8775E-3	77.1455E-12	647.327E-3	-37.2288E-3
2.00850E-3	80.2501E-12	679.606E-3	-22.5341E-3	77.8314E-12	650.745E-3	-25.7824E-3
2.00350E-3	79.2938E-12	694.933E-3	-30.2316E-3	78.2030E-12	673.926E-3	-22.9552E-3
1.99850E-3	78.5327E-12	683.770E-3	-35.4459E-3	79.1170E-12	688.666E-3	-27.2248E-3
1.99350E-3	78.4673E-12	663.366E-3	-20.3915E-3	79.4783E-12	698.950E-3	-25.7908E-3
1.98849E-3	77.4005E-12	667.036E-3	295.881E-6	79.5358E-12	696.622E-3	-32.5306E-3
1.98349E-3	76.3866E-12	669.058E-3	3.32783E-3	79.6929E-12	678.545E-3	-41.1588E-3
1.97849E-3	77.0730E-12	663.981E-3	-4.82485E-3	80.0136E-12	675.281E-3	-38.1775E-3
1.97349E-3	77.7216E-12	670.942E-3	-3.45363E-3	78.8699E-12	691.734E-3	-35.5616E-3
1.96848E-3	77.2906E-12	668.728E-3	6.22488E-3	78.1454E-12	691.397E-3	-32.6601E-3
1.96348E-3	76.3590E-12	665.238E-3	2.81560E-3	77.9050E-12	679.528E-3	-29.0649E-3
1.95848E-3	77.5839E-12	669.796E-3	-8.27736E-3	77.8381E-12	672.674E-3	-24.3072E-3
1.95348E-3	78.0677E-12	670.820E-3	-16.7498E-3	76.4057E-12	658.801E-3	-9.84000E-3
1.94847E-3	77.3881E-12	675.843E-3	-34.4989E-3	75.4469E-12	646.704E-3	4.19489E-3
1.94347E-3	76.4530E-12	681.717E-3	-42.3789E-3	74.6980E-12	645.764E-3	6.30253E-3
1.93847E-3	77.3346E-12	687.679E-3	-27.5056E-3	74.1841E-12	651.783E-3	4.25661E-3
1.93347E-3	78.4933E-12	690.001E-3	-13.4972E-3	73.9673E-12	657.429E-3	4.78326E-3
1.92846E-3	77.1034E-12	689.133E-3	-2.13446E-3	73.7578E-12	668.031E-3	1.08212E-3
1.92346E-3	76.0978E-12	682.918E-3	7.98080E-3	73.0366E-12	677.772E-3	-16.7611E-3
1.91846E-3	75.3931E-12	670.232E-3	-3.48596E-3	73.0412E-12	673.113E-3	-30.7900E-3
1.91346E-3	75.7733E-12	669.840E-3	-13.3937E-3	73.3769E-12	672.589E-3	-19.7447E-3
1.90845E-3	74.5250E-12	681.523E-3	1.98566E-3	73.4485E-12	685.863E-3	-7.06067E-3
1.90345E-3	73.5782E-12	683.438E-3	1.17345E-3	73.7031E-12	694.116E-3	-11.4261E-3
1.89845E-3	72.8915E-12	677.889E-3	-24.7512E-3	73.7018E-12	692.223E-3	-21.9542E-3
1.89345E-3	73.0693E-12	672.318E-3	-33.4577E-3	74.3039E-12	700.422E-3	-25.9709E-3
1.88844E-3	72.6829E-12	659.926E-3	-40.0177E-3	74.4744E-12	704.243E-3	-27.3307E-3
1.88344E-3	72.3420E-12	654.124E-3	-60.9006E-3	73.8481E-12	692.566E-3	-21.4413E-3
1.87844E-3	72.1723E-12	669.390E-3	-53.2484E-3	73.8137E-12	689.139E-3	-8.66947E-3
1.87344E-3	72.2229E-12	682.878E-3	-25.6159E-3	73.8513E-12	695.876E-3	-7.00007E-3
1.86843E-3	72.3954E-12	691.130E-3	-17.4304E-3	74.0078E-12	698.940E-3	-17.4280E-3
1.86343E-3	72.3209E-12	700.634E-3	-13.4807E-3	73.2642E-12	700.210E-3	-28.6592E-3
1.85843E-3	72.7166E-12	689.769E-3	-8.95545E-3	73.1436E-12	701.544E-3	-17.8129E-3
1.85343E-3	72.6896E-12	673.729E-3	-20.1626E-3	73.1643E-12	695.404E-3	6.51006E-3
1.84842E-3	72.9595E-12	682.917E-3	-25.2547E-3	72.8519E-12	697.773E-3	18.0274E-3
1.84342E-3	72.6512E-12	694.828E-3	-16.4880E-3	71.6602E-12	703.685E-3	5.27006E-3
1.83842E-3	72.0824E-12	699.557E-3	-15.2725E-3	70.8023E-12	694.255E-3	-17.6752E-3
1.83342E-3	72.0239E-12	716.517E-3	-10.3102E-3	71.1082E-12	680.316E-3	-27.5799E-3
1.82841E-3	71.7508E-12	721.635E-3	4.65574E-3	71.1494E-12	674.879E-3	-33.9254E-3
1.82341E-3	71.1485E-12	713.864E-3	2.35059E-3	70.5804E-12	685.164E-3	-37.6484E-3
1.81841E-3	70.7370E-12	718.120E-3	-9.96578E-3	69.5548E-12	702.932E-3	-26.7399E-3
1.81341E-3	70.1771E-12	720.648E-3	-323.024E-6	69.5336E-12	697.607E-3	-19.3954E-3
1.80840E-3	69.5156E-12	711.731E-3	5.20555E-3	69.8546E-12	671.780E-3	-18.7722E-3
1.80340E-3	69.2124E-12	701.616E-3	-12.9139E-3	69.0799E-12	670.333E-3	-14.8074E-3
1.79840E-3	68.6715E-12	701.525E-3	-12.9827E-3	68.2593E-12	696.185E-3	-23.6766E-3
1.79340E-3	68.4723E-12	693.462E-3	2.59656E-3	68.1177E-12	714.885E-3	-35.9658E-3
1.78839E-3	68.6273E-12	685.145E-3	3.51357E-3	67.5253E-12	721.097E-3	-29.6845E-3
1.78339E-3	68.0242E-12	692.844E-3	-4.05603E-3	68.2290E-12	726.131E-3	-20.8296E-3
1.77839E-3	67.7879E-12	702.021E-3	-19.3175E-3	67.9509E-12	720.483E-3	-27.4568E-3
1.77339E-3	68.0298E-12	712.260E-3	-30.0991E-3	66.9865E-12	716.365E-3	-29.6320E-3
1.76838E-3	68.0659E-12	710.994E-3	-8.16541E-3	66.7774E-12	736.071E-3	-22.1838E-3
1.76338E-3	67.4009E-12	693.852E-3	2.58257E-3	67.3633E-12	745.574E-3	-15.6182E-3
1.75838E-3	67.3472E-12	685.233E-3	-17.3994E-3	67.6656E-12	733.776E-3	-1.12423E-3
1.75338E-3	67.2627E-12	697.625E-3	-17.5191E-3	66.9991E-12	728.139E-3	-1.54179E-3
1.74837E-3	67.0028E-12	713.746E-3	-11.4304E-3	66.7943E-12	727.136E-3	-20.6415E-3
1.74337E-3	66.8839E-12	721.343E-3	-25.2941E-3	66.3895E-12	731.867E-3	-23.4061E-3
1.73837E-3	66.6867E-12	724.999E-3	-31.2251E-3	66.5064E-12	735.312E-3	-29.8493E-3
1.73337E-3	66.1109E-12	729.303E-3	-9.30586E-3	66.5215E-12	722.779E-3	-35.0083E-3
1.72836E-3	66.3880E-12	735.052E-3	2.12182E-3	65.5673E-12	709.124E-3	-10.3125E-3
1.72336E-3	66.7876E-12	739.063E-3	-6.44168E-3	65.2800E-12	716.117E-3	7.89751E-3
1.71836E-3	66.2184E-12	729.055E-3	-9.66111E-3	64.5152E-12	741.534E-3	3.01738E-3
1.71336E-3	65.5120E-12	722.926E-3	-18.3723E-3	64.4849E-12	752.124E-3	-6.07037E-3
1.70835E-3	65.3213E-12	735.117E-3	-5.38888E-3	63.8898E-12	739.296E-3	-15.7412E-3
1.70335E-3	65.4140E-12	736.105E-3	17.8486E-3	63.5892E-12	740.251E-3	-21.9859E-3
1.69835E-3	65.3022E-12	736.563E-3	-9.58058E-3	63.4379E-12	747.059E-3	-21.9247E-3
1.69335E-3	64.7099E-12	756.674E-3	-32.1563E-3	62.5377E-12	736.299E-3	-20.4644E-3
1.68834E-3	64.4359E-12	750.754E-3	-9.76902E-3	62.7148E-12	730.942E-3	-11.9179E-3
1.68334E-3	64.3691E-12	728.297E-3	646.920E-6	62.8626E-12	748.036E-3	-10.6237E-3
1.67834E-3	64.3314E-12	734.862E-3	-4.19842E-3	63.0440E-12	762.657E-3	-23.8172E-3
1.67334E-3	63.6053E-12	734.482E-3	-682.853E-6	62.9180E-12	751.474E-3	-30.7409E-3
1.66833E-3	63.0640E-12	725.906E-3	-6.97933E-3	63.4840E-12	754.253E-3	-25.2500E-3
1.66333E-3	63.6128E-12	736.593E-3	-16.2236E-3	63.1281E-12	775.935E-3	-15.6883E-3
1.65833E-3	62.5542E-12	741.233E-3	-14.5978E-3	63.1777E-12	781.765E-3	-16.3717E-3
1.65333E-3	62.8471E-12	740.676E-3	-23.1160E-3	63.0183E-12	771.239E-3	-21.0180E-3
1.64832E-3	62.5489E-12	746.306E-3	-26.8393E-3	63.7047E-12	759.322E-3	-7.12903E-3
1.64332E-3	62.2453E-12	742.577E-3	-11.8841E-3	63.8300E-12	768.650E-3	8.93147E-3
1.63832E-3	61.5297E-12	737.511E-3	-20.0710E-3	62.4487E-12	784.068E-3	6.35599E-3
1.63332E-3	62.0881E-12	753.257E-3	-39.9107E-3	61.9021E-12	777.970E-3	-6.35285E-3
1.62831E-3	62.7637E-12	766.312E-3	-26.1474E-3	61.6027E-12	764.219E-3	-13.8713E-3
1.62331E-3	61.8844E-12	756.398E-3	-3.00256E-3	60.7306E-12	745.141E-3	-9.55354E-3
1.61831E-3	61.7006E-12	750.599E-3	5.64108E-3	59.5521E-12	732.376E-3	-7.59389E-3
1.61331E-3	61.5025E-12	759.800E-3	6.29536E-3	59.3572E-12	753.020E-3	-16.1856E-3
1.60830E-3	62.4308E-12	760.321E-3	-3.02657E-3	59.1741E-12	767.492E-3	-21.1077E-3
1.60330E-3	61.3309E-12	770.251E-3	-12.7975E-3	58.8021E-12	757.110E-3	-7.12377E-3
1.59830E-3	60.2288E-12	789.130E-3	-1.16743E-3	58.5924E-12	764.402E-3	3.31921E-3
1.59330E-3	60.2440E-12	775.871E-3	6.40824E-3	58.1200E-12	788.571E-3	-4.66219E-3
1.58829E-3	60.6505E-12	762.890E-3	-8.44578E-3	58.2911E-12	799.036E-3	-12.3402E-3
1.58329E-3	59.7913E-12	775.431E-3	-5.64001E-3	58.4195E-12	797.767E-3	-20.6084E-3
1.57829E-3	58.5519E-12	781.952E-3	-4.44012E-3	58.3796E-12	799.044E-3	-27.4562E-3
1.57329E-3	58.7727E-12	782.365E-3	-19.5763E-3	58.8817E-12	799.619E-3	-28.3278E-3
1.56828E-3	58.3925E-12	791.237E-3	-18.9153E-3	58.8860E-12	800.713E-3	-27.3968E-3
1.56328E-3	57.9636E-12	784.091E-3	-24.2001E-3	59.0065E-12	804.555E-3	-23.2869E-3
1.55828E-3	57.3794E-12	767.291E-3	-32.2521E-3	58.5453E-12	797.589E-3	-29.0482E-3
1.55328E-3	57.1236E-12	773.297E-3	-6.32270E-3	59.0170E-12	791.086E-3	-34.5567E-3
1.54827E-3	57.5820E-12	773.969E-3	7.25747E-3	58.4097E-12	798.316E-3	-21.8268E-3
1.54327E-3	57.2782E-12	762.932E-3	-18.0652E-3	57.2346E-12	799.554E-3	-9.11609E-3
1.53827E-3	57.4559E-12	771.577E-3	-28.6239E-3	56.6739E-12	788.779E-3	-10.8726E-3
1.53327E-3	56.2225E-12	780.931E-3	-24.6257E-3	56.4021E-12	774.226E-3	-17.5856E-3
1.52826E-3	56.8968E-12	789.820E-3	-32.0392E-3	56.3448E-12	768.414E-3	-16.8038E-3
1.52326E-3	57.0529E-12	808.422E-3	-33.4591E-3	54.8821E-12	777.695E-3	-17.0176E-3
1.51826E-3	57.1550E-12	810.346E-3	-26.9685E-3	54.6476E-12	792.021E-3	-22.2236E-3
1.51326E-3	56.3082E-12	805.198E-3	-31.5122E-3	53.7738E-12	799.066E-3	-22.1031E-3
1.50825E-3	56.0064E-12	806.967E-3	-34.5835E-3	54.1960E-12	791.006E-3	-16.0571E-3
1.50325E-3	55.6413E-12	800.245E-3	-23.1872E-3	53.9670E-12	779.199E-3	-19.4981E-3
1.49825E-3	54.8028E-12	795.282E-3	-26.0899E-3	53.3418E-12	780.727E-3	-27.2591E-3
1.49325E-3	54.7328E-12	802.359E-3	-40.2223E-3	53.1729E-12	788.267E-3	-21.4771E-3
1.48824E-3	54.5103E-12	794.325E-3	-29.3620E-3	53.7063E-12	789.961E-3	-19.1616E-3
1.48324E-3	53.1922E-12	782.041E-3	-20.3649E-3	54.8446E-12	786.186E-3	-28.9421E-3
1.47824E-3	52.5333E-12	787.088E-3	-23.4550E-3	53.4214E-12	785.189E-3	-23.0905E-3
1.47324E-3	52.5268E-12	787.305E-3	-4.32921E-3	52.7869E-12	790.308E-3	-9.68614E-3
1.46823E-3	52.4533E-12	789.116E-3	11.8508E-3	52.7492E-12	792.039E-3	-10.3211E-3
1.46323E-3	51.1477E-12	797.806E-3	-55.2194E-6	53.3186E-12	784.041E-3	-10.6255E-3
1.45823E-3	50.6076E-12	792.553E-3	-16.3476E-3	53.0489E-12	779.490E-3	-10.9899E-3
1.45323E-3	51.1514E-12	777.560E-3	-18.7614E-3	52.3862E-12	785.672E-3	-9.40067E-3
1.44822E-3	51.8738E-12	774.500E-3	-12.7429E-3	51.6630E-12	789.212E-3	-1.64192E-3
1.44322E-3	50.8961E-12	769.960E-3	-10.3596E-3	51.5991E-12	782.809E-3	-12.3259E-3
1.43822E-3	50.5667E-12	757.258E-3	-13.2991E-3	52.1622E-12	774.704E-3	-35.0388E-3
1.43322E-3	51.0427E-12	772.312E-3	-8.95415E-3	51.4302E-12	765.649E-3	-38.7122E-3
1.42821E-3	51.7647E-12	796.251E-3	4.95026E-3	50.7766E-12	760.874E-3	-19.9377E-3
1.42321E-3	51.6266E-12	785.942E-3	-7.31783E-3	50.5560E-12	749.315E-3	327.418E-6
1.41821E-3	50.6447E-12	778.875E-3	-36.2645E-3	50.4859E-12	733.619E-3	7.35688E-3
1.41321E-3	50.3058E-12	782.494E-3	-31.2749E-3	50.6515E-12	740.186E-3	9.12644E-3
1.40820E-3	50.8398E-12	771.059E-3	-19.1860E-3	49.9744E-12	747.294E-3	1.42086E-3
1.40320E-3	50.7057E-12	773.256E-3	-31.8581E-3	49.4770E-12	739.853E-3	-14.3304E-3
1.39820E-3	49.4849E-12	772.913E-3	-30.0584E-3	49.3982E-12	730.709E-3	-19.9453E-3
1.39320E-3	48.7905E-12	747.882E-3	-5.67174E-3	49.6519E-12	725.565E-3	-15.0220E-3
1.38819E-3	49.4886E-12	736.735E-3	4.34024E-3	49.2287E-12	728.589E-3	-10.7728E-3
1.38319E-3	48.9807E-12	740.178E-3	-390.031E-6	49.4586E-12	734.992E-3	-14.3316E-3
1.37819E-3	48.3667E-12	729.751E-3	5.77108E-3	48.6516E-12	724.471E-3	-18.2724E-3
1.37319E-3	46.9908E-12	725.308E-3	-1.44986E-3	48.7429E-12	707.242E-3	-18.6544E-3
1.36818E-3	47.0397E-12	726.663E-3	-20.9379E-3	48.3424E-12	697.091E-3	-26.5171E-3
1.36318E-3	47.1910E-12	708.356E-3	-19.5692E-3	47.5637E-12	684.679E-3	-27.3548E-3
1.35818E-3	46.8755E-12	700.058E-3	-18.9047E-3	47.2306E-12	672.862E-3	-12.3989E-3
1.35318E-3	45.9578E-12	711.879E-3	-10.9986E-3	46.6707E-12	662.532E-3	-9.60815E-3
1.34817E-3	45.8499E-12	697.308E-3	-3.46817E-3	47.1905E-12	655.146E-3	-32.9091E-3
1.34317E-3	46.5094E-12	677.226E-3	-25.9290E-3	46.3980E-12	651.228E-3	-44.1562E-3
1.33817E-3	46.2795E-12	690.341E-3	-39.7256E-3	46.6739E-12	650.403E-3	-32.2409E-3
1.33317E-3	46.0672E-12	684.275E-3	-25.1474E-3	45.9343E-12	642.118E-3	-27.2651E-3
1.32816E-3	45.4288E-12	665.244E-3	-20.5312E-3	45.9821E-12	628.178E-3	-23.8314E-3
1.32316E-3	45.4407E-12	666.776E-3	-29.6454E-3	45.8809E-12	627.087E-3	-16.7452E-3
1.31816E-3	45.9267E-12	658.872E-3	-35.7799E-3	45.4783E-12	631.906E-3	-17.2501E-3
1.31316E-3	45.5444E-12	652.110E-3	-44.3831E-3	45.6177E-12	629.071E-3	-12.5953E-3
1.30815E-3	44.9835E-12	658.246E-3	-42.2166E-3	44.6319E-12	619.502E-3	1.27288E-3
1.30315E-3	44.5707E-12	648.116E-3	-31.3853E-3	45.0702E-12	601.562E-3	9.19802E-3
1.29815E-3	45.2616E-12	632.549E-3	-33.8237E-3	44.9488E-12	583.543E-3	7.12144E-3
1.29315E-3	44.6324E-12	635.218E-3	-38.5076E-3	45.1468E-12	569.722E-3	-5.08555E-3
1.28814E-3	43.9225E-12	625.430E-3	-31.7901E-3	44.3810E-12	548.992E-3	-12.9411E-3
1.28314E-3	43.6036E-12	592.818E-3	-36.8565E-3	43.9031E-12	536.703E-3	-10.4608E-3
1.27814E-3	43.9588E-12	571.894E-3	-39.5854E-3	44.7127E-12	535.416E-3	-11.8729E-3
1.27314E-3	43.6698E-12	564.848E-3	-18.5076E-3	44.4153E-12	529.208E-3	-18.9625E-3
1.26813E-3	43.0927E-12	553.870E-3	-8.72398E-3	43.6047E-12	524.009E-3	-23.1129E-3
1.26313E-3	43.1736E-12	548.599E-3	-15.6478E-3	42.6776E-12	520.804E-3	-15.3150E-3
1.25813E-3	43.1404E-12	537.242E-3	-12.7271E-3	42.8333E-12	505.591E-3	-7.01784E-3
1.25313E-3	42.9170E-12	514.921E-3	-12.2519E-3	42.9502E-12	489.895E-3	-10.4987E-3
1.24812E-3	42.5739E-12	519.960E-3	-22.4586E-3	42.9330E-12	488.589E-3	-14.5126E-3
1.24312E-3	42.1176E-12	535.699E-3	-14.5558E-3	42.6820E-12	482.835E-3	-17.9406E-3
1.23812E-3	42.1125E-12	520.563E-3	-3.31642E-3	41.7071E-12	458.538E-3	-14.5195E-3
1.23312E-3	41.7478E-12	499.622E-3	-14.4593E-3	42.6146E-12	430.338E-3	6.26559E-3
1.22811E-3	41.9989E-12	487.854E-3	-23.3304E-3	42.5246E-12	418.656E-3	14.4668E-3
1.22311E-3	42.1492E-12	469.590E-3	-22.8187E-3	42.5433E-12	404.470E-3	-9.95266E-3
1.21811E-3	41.8015E-12	460.503E-3	-29.6521E-3	41.1887E-12	395.487E-3	-28.7974E-3
1.21311E-3	41.8750E-12	452.145E-3	-28.5890E-3	40.8826E-12	404.380E-3	-34.3520E-3
1.20810E-3	41.4727E-12	426.737E-3	-21.1504E-3	40.8380E-12	401.803E-3	-43.3886E-3
1.20310E-3	41.8214E-12	405.840E-3	-18.8539E-3	40.9334E-12	389.700E-3	-37.0799E-3
1.19810E-3	41.8115E-12	411.766E-3	-8.38375E-3	40.1762E-12	378.345E-3	-19.5435E-3
1.19310E-3	41.9666E-12	414.890E-3	-204.110E-6	39.8592E-12	364.484E-3	-14.6947E-3
1.18809E-3	41.4001E-12	395.995E-3	-12.2693E-3	39.9056E-12	344.609E-3	-20.4990E-3
1.18309E-3	41.6308E-12	390.122E-3	-18.9410E-3	40.1046E-12	327.687E-3	-23.5628E-3
1.17809E-3	41.5025E-12	382.436E-3	-9.59576E-3	39.9436E-12	327.827E-3	-14.5211E-3
1.17309E-3	41.4248E-12	360.646E-3	-16.1873E-3	39.8245E-12	326.061E-3	-1.10846E-3
1.16808E-3	40.8164E-12	357.632E-3	-26.8608E-3	39.8287E-12	307.287E-3	-9.50927E-3
1.16308E-3	40.8470E-12	354.764E-3	-17.8701E-3	40.1603E-12	291.705E-3	-31.1681E-3
1.15808E-3	40.6848E-12	335.879E-3	-15.6102E-3	40.3215E-12	294.357E-3	-35.3837E-3
1.15308E-3	39.8739E-12	324.692E-3	-19.1108E-3	40.1334E-12	297.924E-3	-17.5562E-3
1.14807E-3	39.4216E-12	317.241E-3	-10.2410E-3	40.3772E-12	285.702E-3	-4.27623E-3
1.14307E-3	39.5048E-12	310.651E-3	-16.1395E-3	40.8745E-12	277.050E-3	-11.2253E-3
1.13807E-3	40.0408E-12	317.437E-3	-23.2539E-3	40.7143E-12	275.679E-3	-16.3972E-3
1.13307E-3	38.9525E-12	311.296E-3	-5.24282E-3	40.1411E-12	273.456E-3	-14.7197E-3
1.12806E-3	38.7200E-12	288.560E-3	1.00091E-3	40.0621E-12	265.645E-3	-13.3208E-3
1.12306E-3	38.8923E-12	285.331E-3	-13.2277E-3	40.2319E-12	245.866E-3	-11.9491E-3
1.11806E-3	39.0532E-12	274.749E-3	-9.84212E-3	40.2521E-12	230.756E-3	-9.21544E-3
1.11306E-3	39.0629E-12	244.276E-3	-2.54013E-3	39.5504E-12	226.442E-3	-6.91704E-3
1.10805E-3	38.9341E-12	243.441E-3	-14.6584E-3	38.9759E-12	218.175E-3	-17.0336E-3
1.10305E-3	39.2746E-12	250.586E-3	-12.6348E-3	38.5050E-12	205.205E-3	-27.2418E-3
1.09805E-3	39.1558E-12	231.237E-3	-13.3541E-3	39.0179E-12	190.908E-3	-30.4311E-3
1.09305E-3	39.5506E-12	216.897E-3	-36.2320E-3	38.4694E-12	177.815E-3	-28.1203E-3
1.08804E-3	39.1234E-12	219.453E-3	-32.1359E-3	37.9261E-12	184.019E-3	-16.2724E-3
1.08304E-3	39.6006E-12	215.239E-3	-11.2123E-3	37.6042E-12	198.723E-3	-6.90270E-3
1.07804E-3	40.3249E-12	208.154E-3	-7.53219E-3	38.1416E-12	202.817E-3	-3.11868E-3
1.07304E-3	39.6800E-12	199.435E-3	-5.22193E-3	38.2633E-12	193.731E-3	-7.66204E-3
1.06803E-3	38.5182E-12	181.452E-3	-17.7787E-3	38.2269E-12	181.757E-3	-18.1132E-3
1.06303E-3	38.5090E-12	184.964E-3	-42.8025E-3	38.2712E-12	186.108E-3	-17.0507E-3
1.05803E-3	38.9647E-12	199.881E-3	-40.5267E-3	38.6936E-12	186.865E-3	-15.5994E-3
1.05303E-3	38.4350E-12	180.808E-3	-27.1751E-3	39.5255E-12	167.042E-3	-27.6722E-3
1.04802E-3	38.0924E-12	153.537E-3	-22.6984E-3	38.8217E-12	155.909E-3	-37.1442E-3
1.04302E-3	36.9974E-12	159.751E-3	-7.06140E-3	39.0936E-12	158.529E-3	-27.1990E-3
1.03802E-3	37.1785E-12	171.169E-3	12.9651E-3	38.6790E-12	155.501E-3	-12.5271E-3
1.03302E-3	37.3474E-12	163.016E-3	3.89638E-3	39.0213E-12	150.162E-3	-11.3573E-3
1.02801E-3	37.1918E-12	146.084E-3	-13.6512E-3	38.7103E-12	152.406E-3	-16.0258E-3
1.02301E-3	36.6607E-12	125.891E-3	-13.7325E-3	38.4622E-12	157.388E-3	-18.1069E-3
1.01801E-3	36.9161E-12	123.639E-3	-21.8579E-3	37.6520E-12	156.084E-3	-14.9576E-3
1.01301E-3	37.6899E-12	138.447E-3	-24.5425E-3	37.3814E-12	139.739E-3	-14.8907E-3
1.00800E-3	37.4304E-12	137.681E-3	-17.7257E-3	37.9836E-12	115.739E-3	-17.2447E-3
1.00300E-3	37.8185E-12	141.676E-3	-23.6166E-3	37.7976E-12	103.432E-3	-12.0641E-3
997.999E-6	37.6518E-12	161.972E-3	-20.7437E-3	36.7433E-12	112.229E-3	-6.00881E-3
992.997E-6	38.0291E-12	154.501E-3	-7.66675E-3	36.6264E-12	138.707E-3	-8.91748E-3
987.994E-6	37.9540E-12	132.539E-3	-15.0415E-3	36.7515E-12	166.946E-3	-11.7191E-3
982.991E-6	38.3673E-12	137.714E-3	-25.1779E-3	36.8177E-12	170.473E-3	552.185E-6
977.989E-6	37.7958E-12	143.033E-3	-14.0006E-3	36.5259E-12	151.772E-3	4.85993E-3
972.986E-6	37.4618E-12	127.083E-3	-13.2440E-3	36.5294E-12	137.701E-3	-13.8463E-3
967.984E-6	38.2915E-12	122.242E-3	-23.5763E-3	36.6825E-12	126.870E-3	-27.8324E-3
962.981E-6	38.2554E-12	135.606E-3	-16.6362E-3	36.8554E-12	118.475E-3	-28.5331E-3
957.979E-6	37.6024E-12	147.891E-3	-9.92749E-3	37.1028E-12	123.402E-3	-23.3331E-3
952.976E-6	36.8055E-12	154.076E-3	-11.5745E-3	36.7845E-12	128.863E-3	-19.5504E-3
947.974E-6	37.2897E-12	137.800E-3	-5.06639E-3	36.7317E-12	134.731E-3	-26.6556E-3
942.971E-6	37.5743E-12	110.897E-3	-5.89664E-3	37.7547E-12	144.769E-3	-29.0333E-3
937.969E-6	37.2082E-12	121.400E-3	-21.6587E-3	37.9324E-12	147.043E-3	-22.7940E-3
932.966E-6	36.4967E-12	145.814E-3	-22.8028E-3	37.2280E-12	145.711E-3	-16.4175E-3
927.964E-6	36.6987E-12	140.351E-3	-11.2997E-3	36.5587E-12	149.952E-3	-4.38843E-3
922.961E-6	37.3288E-12	141.812E-3	-6.35023E-3	36.5742E-12	158.134E-3	2.28773E-3
917.959E-6	37.0262E-12	165.677E-3	5.20967E-3	37.1031E-12	168.505E-3	-1.12993E-3
912.956E-6	37.0885E-12	176.834E-3	15.2626E-3	36.5231E-12	182.929E-3	-2.41806E-3
907.954E-6	37.2394E-12	174.466E-3	4.15254E-3	36.3063E-12	188.390E-3	-16.3563E-3
902.951E-6	36.8529E-12	167.711E-3	-7.55116E-3	35.6007E-12	182.552E-3	-36.3634E-3
897.949E-6	37.0962E-12	160.495E-3	-10.5594E-3	35.8600E-12	170.890E-3	-29.3555E-3
892.946E-6	37.0172E-12	160.409E-3	-16.6187E-3	36.1722E-12	165.972E-3	-14.5600E-3
887.944E-6	36.5606E-12	165.812E-3	-14.9205E-3	35.8367E-12	178.799E-3	-4.83053E-3
882.941E-6	36.8114E-12	166.490E-3	-10.8240E-3	35.4098E-12	190.001E-3	2.85537E-3
877.939E-6	37.2679E-12	163.816E-3	-19.7201E-3	35.1486E-12	187.474E-3	1.17940E-3
872.936E-6	37.6770E-12	170.019E-3	-19.7889E-3	36.1826E-12	183.727E-3	-2.91888E-3
867.934E-6	36.7384E-12	180.996E-3	-5.38536E-3	36.5243E-12	192.168E-3	2.77209E-3
862.931E-6	36.3728E-12	194.923E-3	239.354E-6	35.9398E-12	204.393E-3	4.97062E-3
857.929E-6	36.5791E-12	210.677E-3	-4.19859E-3	35.3387E-12	211.180E-3	-3.70919E-3
852.926E-6	36.8472E-12	212.742E-3	-11.5361E-3	36.1583E-12	211.843E-3	-4.05689E-3
847.924E-6	36.8835E-12	209.511E-3	-33.1678E-3	36.5547E-12	217.019E-3	-2.56744E-3
842.921E-6	36.5059E-12	220.163E-3	-41.8743E-3	35.7984E-12	235.496E-3	-4.84724E-3
837.919E-6	36.2418E-12	227.001E-3	-24.4373E-3	35.7186E-12	259.209E-3	-8.70755E-3
832.916E-6	36.2229E-12	232.585E-3	-24.4129E-3	35.6118E-12	273.509E-3	-11.7646E-3
827.914E-6	36.5831E-12	250.831E-3	-20.0068E-3	36.1590E-12	273.359E-3	-1.71607E-3
822.911E-6	36.6575E-12	257.108E-3	7.40696E-3	36.2987E-12	279.482E-3	3.35953E-3
817.909E-6	36.2637E-12	256.247E-3	6.65247E-3	36.2223E-12	298.031E-3	-4.18475E-3
812.906E-6	35.7540E-12	274.628E-3	-10.3014E-3	35.7355E-12	322.302E-3	-1.12062E-3
807.904E-6	35.9934E-12	298.742E-3	-4.26740E-3	35.6505E-12	338.838E-3	7.86001E-3
802.901E-6	36.6508E-12	300.579E-3	-8.21042E-3	36.6864E-12	336.831E-3	9.13908E-3
797.899E-6	35.3621E-12	292.821E-3	-23.2884E-3	36.1655E-12	340.701E-3	-1.83379E-3
792.896E-6	35.3031E-12	294.341E-3	-7.96000E-3	35.2520E-12	354.893E-3	-17.2473E-3
787.894E-6	35.9476E-12	298.190E-3	8.39309E-3	35.3998E-12	352.360E-3	-14.9924E-3
782.891E-6	35.7682E-12	309.284E-3	-8.98556E-3	35.5571E-12	345.393E-3	-748.553E-6
777.889E-6	34.9789E-12	317.479E-3	-24.0708E-3	34.9476E-12	357.881E-3	-663.975E-6
772.886E-6	34.9842E-12	321.002E-3	-25.3422E-3	34.1732E-12	380.233E-3	-6.05956E-3
767.884E-6	34.6688E-12	339.031E-3	-28.4110E-3	33.9897E-12	398.934E-3	-2.51603E-3
762.881E-6	34.5391E-12	359.430E-3	-20.7213E-3	34.1548E-12	407.562E-3	1.18213E-3
757.879E-6	34.8086E-12	366.692E-3	-13.1431E-3	33.6017E-12	403.375E-3	-7.90887E-3
752.876E-6	34.8205E-12	384.216E-3	-21.3274E-3	33.1636E-12	403.657E-3	-9.58670E-3
747.874E-6	34.1978E-12	413.577E-3	-21.8254E-3	32.9341E-12	421.651E-3	-716.003E-6
742.871E-6	33.3458E-12	420.448E-3	-15.9861E-3	33.2190E-12	446.404E-3	-11.4650E-3
737.869E-6	33.9452E-12	422.767E-3	-17.5903E-3	33.0236E-12	467.505E-3	-29.5767E-3
732.866E-6	34.1852E-12	444.021E-3	-6.74881E-3	33.5157E-12	485.601E-3	-35.3867E-3
727.864E-6	33.3466E-12	464.936E-3	4.46374E-3	33.0963E-12	506.530E-3	-34.1111E-3
722.861E-6	32.3898E-12	481.594E-3	-10.9722E-3	33.0067E-12	527.464E-3	-24.0364E-3
717.859E-6	32.0363E-12	485.476E-3	-26.3440E-3	32.9434E-12	551.017E-3	-7.46424E-3
712.856E-6	33.1816E-12	474.534E-3	-28.2974E-3	33.3073E-12	573.278E-3	-6.60146E-3
707.854E-6	32.3414E-12	480.878E-3	-35.2491E-3	33.5631E-12	576.764E-3	-15.8223E-3
702.851E-6	31.5523E-12	507.547E-3	-30.8408E-3	33.5992E-12	579.175E-3	-15.7866E-3
697.849E-6	31.6532E-12	517.362E-3	-9.06901E-3	32.7630E-12	595.220E-3	-18.2795E-3
692.846E-6	31.7574E-12	515.953E-3	-3.53369E-3	32.6593E-12	607.697E-3	-20.2832E-3
687.844E-6	32.1601E-12	542.516E-3	-14.2536E-3	32.2582E-12	621.332E-3	-15.0518E-3
682.841E-6	31.6935E-12	575.877E-3	-15.0697E-3	32.2699E-12	651.013E-3	-15.6632E-3
677.839E-6	31.3976E-12	590.729E-3	-12.6438E-3	31.0309E-12	671.262E-3	-14.7513E-3
672.836E-6	31.2232E-12	610.624E-3	-10.5257E-3	30.4604E-12	667.645E-3	-9.37617E-3
667.834E-6	31.7235E-12	635.359E-3	-1.52550E-3	30.5352E-12	667.151E-3	-13.7929E-3
662.831E-6	31.3418E-12	644.340E-3	-8.53887E-3	30.5469E-12	681.279E-3	-16.5016E-3
657.829E-6	30.7130E-12	652.127E-3	-21.6035E-3	29.5669E-12	701.914E-3	-5.59467E-3
652.826E-6	30.3907E-12	666.504E-3	-17.4076E-3	29.2092E-12	717.464E-3	-2.16476E-3
647.824E-6	30.4588E-12	675.483E-3	-21.1296E-3	28.7367E-12	719.053E-3	-18.3827E-3
642.821E-6	30.2626E-12	697.542E-3	-23.8610E-3	28.9082E-12	717.964E-3	-29.8792E-3
637.819E-6	29.8210E-12	721.791E-3	-7.11696E-3	29.0794E-12	746.781E-3	-24.4065E-3
632.816E-6	29.3107E-12	731.837E-3	-16.6972E-3	28.6910E-12	800.720E-3	-22.5130E-3
627.814E-6	29.2138E-12	751.988E-3	-34.5614E-3	28.4511E-12	830.967E-3	-22.6728E-3
622.811E-6	28.9117E-12	768.858E-3	-14.5548E-3	28.7997E-12	827.155E-3	-18.5877E-3
617.809E-6	28.7592E-12	777.762E-3	-8.68788E-3	28.9403E-12	826.551E-3	-27.3399E-3
612.806E-6	28.6387E-12	805.373E-3	-33.2126E-3	28.5391E-12	850.116E-3	-26.5070E-3
607.804E-6	27.7858E-12	834.155E-3	-30.6528E-3	28.0091E-12	880.966E-3	-5.03165E-3
602.801E-6	27.5626E-12	838.155E-3	-20.4971E-3	27.6376E-12	894.966E-3	-2.25072E-3
597.799E-6	28.0442E-12	847.738E-3	-25.8784E-3	27.8983E-12	903.466E-3	-8.90569E-3
592.796E-6	27.3043E-12	872.209E-3	-6.96054E-3	27.7713E-12	924.883E-3	4.10900E-3
587.794E-6	27.1601E-12	888.743E-3	5.49710E-3	27.2363E-12	942.412E-3	8.01730E-3
582.791E-6	27.2490E-12	907.345E-3	-10.3784E-3	26.4798E-12	938.838E-3	-7.00126E-3
577.789E-6	26.8981E-12	922.408E-3	-12.3936E-3	26.2950E-12	923.572E-3	-4.88563E-3
572.786E-6	26.5174E-12	916.638E-3	-11.0335E-3	26.3581E-12	924.001E-3	-778.381E-6
567.784E-6	25.8155E-12	915.188E-3	-23.7616E-3	25.9543E-12	940.830E-3	-8.89141E-3
562.781E-6	26.0219E-12	923.394E-3	-15.4772E-3	24.9592E-12	960.193E-3	-11.0702E-3
557.779E-6	25.5947E-12	933.860E-3	-422.869E-6	24.4078E-12	974.755E-3	-5.27976E-3
552.776E-6	24.9212E-12	968.186E-3	-9.89065E-3	24.3997E-12	974.809E-3	-7.29999E-3
547.774E-6	24.2058E-12	994.833E-3	-9.51739E-3	24.4181E-12	977.225E-3	-18.6847E-3
542.771E-6	24.3217E-12	986.761E-3	439.183E-6	24.0887E-12	1.00160E+0	-17.2269E-3
537.769E-6	24.2805E-12	981.205E-3	-9.18358E-3	23.5540E-12	1.03619E+0	-14.1914E-3
532.766E-6	23.6406E-12	988.655E-3	-18.5898E-3	23.3933E-12	1.05405E+0	-17.9575E-3
527.764E-6	22.8743E-12	989.310E-3	-20.8798E-3	23.4219E-12	1.05211E+0	-17.3072E-3
522.761E-6	22.5902E-12	989.432E-3	-24.7983E-3	23.1707E-12	1.04852E+0	-18.1268E-3
517.759E-6	22.9039E-12	1.00610E+0	-18.6853E-3	22.6648E-12	1.05026E+0	-17.6479E-3
512.756E-6	22.2197E-12	1.02813E+0	-13.8107E-3	22.2692E-12	1.06388E+0	-9.46187E-3
507.754E-6	21.7023E-12	1.04188E+0	-24.4534E-3	21.9768E-12	1.07246E+0	-3.07866E-3
502.751E-6	21.1071E-12	1.03895E+0	-22.4328E-3	22.0288E-12	1.06761E+0	-9.95842E-3
497.749E-6	21.0865E-12	1.02266E+0	-10.5437E-3	21.6138E-12	1.06373E+0	-17.7785E-3
492.746E-6	20.8852E-12	1.01957E+0	-19.7632E-3	20.9823E-12	1.05561E+0	-25.0849E-3
487.744E-6	20.3840E-12	1.03598E+0	-26.8403E-3	20.6156E-12	1.04980E+0	-32.9576E-3
482.741E-6	20.0060E-12	1.04226E+0	-13.4903E-3	20.0989E-12	1.05028E+0	-22.3721E-3
477.739E-6	19.7775E-12	1.03210E+0	-20.7634E-3	19.4580E-12	1.04474E+0	-12.6193E-3
472.736E-6	19.6002E-12	1.03715E+0	-40.4582E-3	18.9991E-12	1.04038E+0	-19.0439E-3
467.734E-6	18.8322E-12	1.05061E+0	-34.4287E-3	18.6897E-12	1.04625E+0	-16.9627E-3
462.731E-6	18.5563E-12	1.04710E+0	-29.5587E-3	17.9622E-12	1.05198E+0	-9.92421E-3
457.729E-6	18.0278E-12	1.04768E+0	-27.8565E-3	17.8647E-12	1.04835E+0	-15.2962E-3
452.726E-6	17.7857E-12	1.05140E+0	-16.0831E-3	17.8060E-12	1.03792E+0	-21.2367E-3
447.724E-6	17.3204E-12	1.04194E+0	-13.9943E-3	17.4977E-12	1.04271E+0	-16.9142E-3
442.721E-6	16.8790E-12	1.03861E+0	-16.0772E-3	16.9376E-12	1.06886E+0	-7.30360E-3
437.719E-6	16.7353E-12	1.03559E+0	-8.67009E-3	16.5746E-12	1.08149E+0	-7.25504E-3
432.716E-6	16.3709E-12	1.01758E+0	-7.74586E-3	16.6077E-12	1.06758E+0	-15.8028E-3
427.714E-6	15.9726E-12	1.01458E+0	-14.6838E-3	16.6275E-12	1.05981E+0	-18.5216E-3
422.711E-6	15.4138E-12	1.02585E+0	-6.60485E-3	15.9188E-12	1.06372E+0	-27.5197E-3
417.709E-6	15.1459E-12	1.02221E+0	-9.81359E-3	15.2950E-12	1.05442E+0	-39.0472E-3
412.706E-6	14.9371E-12	1.01674E+0	-33.8751E-3	15.4449E-12	1.03540E+0	-28.0422E-3
407.704E-6	14.7769E-12	1.01579E+0	-32.6081E-3	15.4243E-12	1.02845E+0	-4.66496E-3
402.701E-6	14.4625E-12	1.01210E+0	-17.8039E-3	14.6718E-12	1.03083E+0	-2.70789E-3
397.699E-6	13.9977E-12	1.01287E+0	-17.9187E-3	13.9869E-12	1.01803E+0	-14.0016E-3
392.696E-6	13.7748E-12	1.01524E+0	-11.3810E-3	13.9222E-12	994.991E-3	-13.9947E-3
387.694E-6	13.5254E-12	1.00537E+0	-4.10474E-3	13.8878E-12	978.693E-3	-12.6252E-3
382.691E-6	13.2655E-12	1.00116E+0	-12.7084E-3	13.2819E-12	964.839E-3	-18.7423E-3
377.689E-6	12.7857E-12	1.01295E+0	-18.4112E-3	12.6063E-12	955.662E-3	-25.8151E-3
372.686E-6	12.5499E-12	1.01116E+0	-23.7438E-3	12.3179E-12	949.966E-3	-25.5010E-3
367.684E-6	12.1914E-12	998.985E-3	-24.6323E-3	12.1193E-12	935.639E-3	-26.6674E-3
362.681E-6	12.0534E-12	993.180E-3	-2.14031E-3	11.7987E-12	913.545E-3	-31.2360E-3
357.679E-6	11.8561E-12	978.477E-3	7.80328E-3	11.2993E-12	900.220E-3	-27.2993E-3
352.676E-6	11.3310E-12	963.059E-3	-17.7069E-3	10.8628E-12	892.070E-3	-21.1548E-3
347.674E-6	11.0349E-12	960.752E-3	-29.6402E-3	10.5939E-12	876.957E-3	-16.2771E-3
342.671E-6	10.8112E-12	956.799E-3	-14.7689E-3	10.2763E-12	858.464E-3	-5.58847E-3
337.669E-6	10.5584E-12	947.541E-3	-10.3454E-3	9.99401E-12	842.166E-3	-5.34012E-3
332.666E-6	10.1129E-12	945.679E-3	-7.20803E-3	9.66314E-12	834.499E-3	-19.1017E-3
327.664E-6	9.89819E-12	932.524E-3	-1.76251E-3	9.32109E-12	830.421E-3	-21.0469E-3
322.661E-6	9.58840E-12	902.745E-3	-19.9987E-3	9.11276E-12	813.280E-3	-9.43543E-3
317.659E-6	9.14398E-12	887.181E-3	-29.5635E-3	9.04862E-12	794.726E-3	-4.67196E-3
312.656E-6	8.81801E-12	863.639E-3	-10.5548E-3	8.77130E-12	793.348E-3	-10.8311E-3
307.654E-6	8.48009E-12	837.260E-3	-7.73952E-3	8.43496E-12	790.591E-3	-18.1157E-3
302.651E-6	8.25879E-12	833.601E-3	-15.8026E-3	8.22012E-12	779.656E-3	-27.0382E-3
297.649E-6	7.92417E-12	814.259E-3	-9.80103E-3	8.18080E-12	763.607E-3	-32.9654E-3
292.646E-6	7.69961E-12	779.240E-3	-16.2591E-3	8.09080E-12	743.075E-3	-30.0145E-3
287.644E-6	7.47346E-12	766.432E-3	-25.1276E-3	7.65036E-12	733.179E-3	-20.2080E-3
282.641E-6	7.23508E-12	758.204E-3	-9.69917E-3	7.40188E-12	731.691E-3	-13.5914E-3
277.639E-6	6.92785E-12	737.260E-3	2.38724E-3	7.29889E-12	714.860E-3	-15.8076E-3
272.636E-6	6.84741E-12	729.305E-3	-4.96618E-3	7.15497E-12	682.704E-3	-19.3806E-3
267.634E-6	6.57392E-12	717.350E-3	-10.4476E-3	6.75500E-12	662.096E-3	-13.1641E-3
262.631E-6	6.34322E-12	685.944E-3	-11.5259E-3	6.40976E-12	648.048E-3	-6.06144E-3
257.629E-6	6.17902E-12	671.770E-3	-8.72818E-3	6.27878E-12	621.807E-3	-6.53989E-3
252.626E-6	6.00737E-12	673.023E-3	-3.53568E-3	5.98603E-12	590.153E-3	371.486E-6
247.624E-6	5.97418E-12	658.859E-3	-9.92930E-3	5.80709E-12	570.441E-3	726.397E-6
242.621E-6	5.69194E-12	642.458E-3	-14.2682E-3	5.57196E-12	561.939E-3	-10.5541E-3
237.619E-6	5.52358E-12	632.697E-3	4.03378E-3	5.41634E-12	550.244E-3	-13.0301E-3
232.616E-6	5.21737E-12	614.401E-3	12.8767E-3	5.09237E-12	529.310E-3	-10.4600E-3
227.614E-6	4.99302E-12	593.770E-3	-12.2212E-3	4.91069E-12	500.251E-3	-15.1713E-3
222.611E-6	4.80040E-12	571.056E-3	-30.2841E-3	4.74045E-12	483.399E-3	-22.2723E-3
217.609E-6	4.44833E-12	544.928E-3	-33.4382E-3	4.66684E-12	490.499E-3	-24.9138E-3
212.606E-6	4.30668E-12	536.029E-3	-39.8925E-3	4.40648E-12	503.251E-3	-23.6658E-3
207.604E-6	4.13936E-12	542.203E-3	-23.3002E-3	4.19657E-12	496.489E-3	-14.9735E-3
202.601E-6	4.02882E-12	527.596E-3	-651.611E-6	4.09382E-12	469.439E-3	-10.8169E-3
197.599E-6	3.79547E-12	498.884E-3	-917.070E-6	4.05928E-12	442.321E-3	-16.9253E-3
192.596E-6	3.60795E-12	481.688E-3	1.21045E-3	3.76461E-12	424.098E-3	-28.7073E-3
187.594E-6	3.52111E-12	456.579E-3	3.13420E-3	3.60169E-12	408.718E-3	-44.0006E-3
182.591E-6	3.40089E-12	437.677E-3	-13.6025E-3	3.52320E-12	387.668E-3	-46.1880E-3
177.589E-6	3.22181E-12	443.048E-3	-20.2471E-3	3.46898E-12	374.298E-3	-28.3874E-3
172.586E-6	3.10336E-12	430.036E-3	-8.69480E-3	3.22796E-12	375.066E-3	-14.9409E-3
167.584E-6	3.03500E-12	408.783E-3	-12.7459E-3	2.95338E-12	364.326E-3	-21.0300E-3
162.581E-6	2.87190E-12	411.013E-3	-17.5615E-3	2.82901E-12	342.103E-3	-22.6487E-3
157.579E-6	2.69726E-12	403.876E-3	-5.20517E-3	2.78593E-12	325.829E-3	-7.46940E-3
152.576E-6	2.63990E-12	385.535E-3	-7.17789E-3	2.61875E-12	313.373E-3	-2.54410E-3
147.574E-6	2.58191E-12	384.202E-3	-15.3269E-3	2.42756E-12	305.120E-3	-13.7538E-3
142.571E-6	2.46590E-12	381.380E-3	-10.1361E-3	2.25026E-12	302.045E-3	-11.0659E-3
137.569E-6	2.26754E-12	361.993E-3	-13.2506E-3	2.21164E-12	295.765E-3	-11.8316E-3
132.566E-6	2.22826E-12	348.644E-3	-12.4894E-3	2.06324E-12	280.776E-3	-22.8178E-3
127.564E-6	2.07478E-12	340.406E-3	3.79781E-3	1.97925E-12	266.383E-3	-17.7865E-3
122.561E-6	1.98108E-12	327.189E-3	-1.96050E-3	1.87000E-12	264.478E-3	-11.8439E-3
117.559E-6	1.81544E-12	322.795E-3	-19.1832E-3	1.78006E-12	268.034E-3	-16.6929E-3
112.556E-6	1.73180E-12	304.174E-3	-14.7782E-3	1.66845E-12	268.314E-3	-14.7841E-3
107.554E-6	1.59837E-12	275.239E-3	-8.80055E-3	1.59932E-12	261.387E-3	-5.54335E-3
102.551E-6	1.48381E-12	282.092E-3	-10.3708E-3	1.53984E-12	251.730E-3	-9.04017E-3
97.5488E-6	1.40565E-12	290.092E-3	-10.3653E-3	1.43029E-12	248.716E-3	-23.6391E-3
92.5463E-6	1.34545E-12	266.691E-3	-23.4168E-3	1.32991E-12	241.422E-3	-35.8661E-3
87.5438E-6	1.24115E-12	252.594E-3	-35.4507E-3	1.28208E-12	230.792E-3	-31.5661E-3
82.5413E-6	1.16375E-12	250.766E-3	-21.3335E-3	1.24035E-12	231.765E-3	-15.7265E-3
77.5388E-6	1.10680E-12	234.130E-3	-8.91100E-3	1.08637E-12	234.452E-3	-5.04505E-3
72.5363E-6	1.02859E-12	230.014E-3	-9.60593E-3	974.014E-15	229.754E-3	-3.57390E-3
67.5338E-6	928.386E-15	246.709E-3	-4.70136E-3	909.143E-15	229.910E-3	-4.40457E-3
62.5313E-6	896.465E-15	243.964E-3	-7.99810E-3	852.319E-15	236.885E-3	-3.91539E-3
57.5288E-6	765.483E-15	234.898E-3	-27.2043E-3	786.078E-15	234.049E-3	-3.59848E-3
52.5263E-6	676.747E-15	235.112E-3	-30.7220E-3	583.189E-15	215.668E-3	1.13464E-3
47.5238E-6	635.365E-15	227.432E-3	-23.3723E-3	524.020E-15	205.172E-3	1.48198E-3
42.5213E-6	574.478E-15	232.984E-3	-34.5212E-3	546.664E-15	208.214E-3	-12.1136E-3
37.5188E-6	494.243E-15	246.946E-3	-40.2021E-3	438.832E-15	203.712E-3	-24.1891E-3
32.5163E-6	391.347E-15	232.722E-3	-29.8796E-3	331.654E-15	203.336E-3	-22.4404E-3
27.5138E-6	331.349E-15	216.148E-3	-27.8563E-3	222.811E-15	212.327E-3	-20.1656E-3
22.5113E-6	240.180E-15	230.358E-3	-23.3507E-3	246.624E-15	210.375E-3	-21.1963E-3
17.5088E-6	187.167E-15	238.492E-3	-16.9984E-3	165.429E-15	206.915E-3	-31.6047E-3
12.5063E-6	90.4258E-15	223.498E-3	-20.2639E-3	23.3220E-15	215.408E-3	-43.4183E-3
7.50375E-6	-12.8456E-15	216.413E-3	-5.20768E-3	-31.8276E-15	228.385E-3	-30.5891E-3
2.50125E-6	-64.3419E-15	208.028E-3	18.0369E-3	-50.0248E-15	240.123E-3	-13.7392E-3
-2.50125E-6	-142.842E-15	201.555E-3	9.78656E-3	-168.084E-15	251.261E-3	-13.4516E-3
-7.50375E-6	-231.072E-15	215.379E-3	-684.501E-6	-284.025E-15	261.761E-3	-12.8797E-3
-12.5063E-6	-270.885E-15	222.833E-3	5.01821E-3	-349.507E-15	264.469E-3	-8.60168E-3
-17.5088E-6	-415.198E-15	218.359E-3	-8.07383E-3	-426.804E-15	264.760E-3	-16.5517E-3
-22.5113E-6	-494.648E-15	226.121E-3	-23.4827E-3	-545.587E-15	267.986E-3	-25.5982E-3
-27.5138E-6	-517.458E-15	231.781E-3	-17.2226E-3	-629.161E-15	267.271E-3	-19.7843E-3
-32.5163E-6	-637.314E-15	225.205E-3	-19.2942E-3	-684.895E-15	275.167E-3	-12.8154E-3
-37.5188E-6	-763.151E-15	236.812E-3	-23.0954E-3	-762.357E-15	283.808E-3	-9.66793E-3
-42.5213E-6	-887.375E-15	253.956E-3	-16.7604E-3	-932.061E-15	283.694E-3	-17.3288E-3
-47.5238E-6	-908.789E-15	251.442E-3	-25.8878E-3	-981.308E-15	293.236E-3	-34.6104E-3
-52.5263E-6	-1.04710E-12	250.830E-3	-38.0368E-3	-1.02692E-12	305.616E-3	-36.9753E-3
-57.5288E-6	-1.14319E-12	261.186E-3	-27.0932E-3	-1.18834E-12	308.643E-3	-27.3169E-3
-62.5313E-6	-1.24785E-12	274.918E-3	-12.1296E-3	-1.30644E-12	320.718E-3	-19.2750E-3
-67.5338E-6	-1.33754E-12	295.187E-3	-2.65457E-3	-1.37042E-12	343.370E-3	-10.0737E-3
-72.5363E-6	-1.43286E-12	312.547E-3	11.6928E-3	-1.43316E-12	354.711E-3	8.47246E-3
-77.5388E-6	-1.61525E-12	312.181E-3	5.30423E-3	-1.56840E-12	357.255E-3	18.9887E-3
-82.5413E-6	-1.71286E-12	317.465E-3	-15.8491E-3	-1.77301E-12	371.591E-3	2.90142E-3
-87.5438E-6	-1.84936E-12	338.063E-3	-4.34734E-3	-1.85205E-12	393.364E-3	-18.9684E-3
-92.5463E-6	-1.86955E-12	344.660E-3	9.93808E-3	-1.91231E-12	411.222E-3	-27.7446E-3
-97.5488E-6	-2.04308E-12	348.002E-3	-3.40458E-3	-2.04759E-12	422.560E-3	-19.4342E-3
-102.551E-6	-2.19437E-12	364.728E-3	-2.84048E-3	-2.30655E-12	431.208E-3	-9.49191E-3
-107.554E-6	-2.30159E-12	372.984E-3	7.17961E-3	-2.40390E-12	447.369E-3	-21.3215E-3
-112.556E-6	-2.44237E-12	381.587E-3	-14.0309E-3	-2.50970E-12	462.138E-3	-36.2909E-3
-117.559E-6	-2.53940E-12	407.252E-3	-35.0498E-3	-2.68217E-12	481.751E-3	-27.5507E-3
-122.561E-6	-2.76509E-12	418.630E-3	-26.3704E-3	-2.87683E-12	509.227E-3	-13.7850E-3
-127.564E-6	-2.86235E-12	429.116E-3	-21.3910E-3	-2.99690E-12	524.119E-3	-19.6919E-3
-132.566E-6	-3.02632E-12	458.141E-3	-17.9402E-3	-3.15408E-12	533.424E-3	-29.5830E-3
-137.569E-6	-3.19505E-12	469.813E-3	-13.2581E-3	-3.35263E-12	558.322E-3	-30.4827E-3
-142.571E-6	-3.40189E-12	483.560E-3	-26.3388E-3	-3.61781E-12	586.275E-3	-20.2847E-3
-147.574E-6	-3.58513E-12	514.011E-3	-33.8193E-3	-3.76167E-12	603.530E-3	-1.09544E-3
-152.576E-6	-3.79634E-12	531.182E-3	-24.8381E-3	-3.84805E-12	624.253E-3	5.39945E-3
-157.579E-6	-3.95235E-12	547.047E-3	-25.7630E-3	-4.04283E-12	655.596E-3	-4.78905E-3
-162.581E-6	-4.20218E-12	577.912E-3	-30.5260E-3	-4.23183E-12	689.752E-3	-9.25452E-3
-167.584E-6	-4.58127E-12	600.509E-3	-30.2038E-3	-4.50511E-12	721.553E-3	-7.24444E-3
-172.586E-6	-4.78632E-12	619.494E-3	-43.5335E-3	-4.69869E-12	742.024E-3	-10.5069E-3
-177.589E-6	-5.03488E-12	659.938E-3	-46.2138E-3	-5.03375E-12	752.404E-3	-12.1574E-3
-182.591E-6	-5.25096E-12	696.053E-3	-24.9024E-3	-5.24842E-12	780.779E-3	-10.8628E-3
-187.594E-6	-5.53200E-12	713.645E-3	-18.1092E-3	-5.38311E-12	821.612E-3	-12.5507E-3
-192.596E-6	-5.77238E-12	739.449E-3	-19.8602E-3	-5.60232E-12	856.451E-3	-10.1934E-3
-197.599E-6	-6.01300E-12	769.765E-3	-14.2171E-3	-6.07543E-12	890.856E-3	92.9995E-6
-202.601E-6	-6.25377E-12	788.315E-3	-23.6540E-3	-6.33064E-12	918.644E-3	-572.257E-6
-207.604E-6	-6.45930E-12	812.051E-3	-32.6938E-3	-6.45736E-12	931.304E-3	-14.0142E-3
-212.606E-6	-6.86538E-12	839.198E-3	-20.6407E-3	-6.77473E-12	959.235E-3	-19.4388E-3
-217.609E-6	-7.15333E-12	854.686E-3	-25.9195E-3	-7.30040E-12	1.01889E+0	-29.1050E-3
-222.611E-6	-7.37523E-12	878.967E-3	-39.0589E-3	-7.71328E-12	1.06659E+0	-41.8947E-3
-227.614E-6	-7.76121E-12	914.653E-3	-14.2429E-3	-7.96074E-12	1.09437E+0	-29.4890E-3
-232.616E-6	-8.17619E-12	939.662E-3	6.60856E-3	-8.36007E-12	1.13512E+0	-11.9420E-3
-237.619E-6	-8.40074E-12	966.108E-3	-485.858E-6	-8.76157E-12	1.17511E+0	-4.96409E-3
-242.621E-6	-8.74242E-12	1.00009E+0	1.06958E-3	-9.17379E-12	1.19698E+0	-3.09564E-3
-247.624E-6	-9.17182E-12	1.02604E+0	-1.87427E-3	-9.58686E-12	1.21511E+0	-16.5834E-3
-252.626E-6	-9.58503E-12	1.06128E+0	-15.6290E-3	-9.87743E-12	1.23999E+0	-23.1127E-3
-257.629E-6	-10.0752E-12	1.11005E+0	-14.2492E-3	-10.1510E-12	1.27264E+0	-7.75386E-3
-262.631E-6	-10.3323E-12	1.15273E+0	-14.0607E-3	-10.5178E-12	1.30379E+0	-2.25614E-3
-267.634E-6	-10.7118E-12	1.18880E+0	-22.6839E-3	-10.8983E-12	1.32506E+0	-15.0178E-3
-272.636E-6	-11.2622E-12	1.21319E+0	-10.1574E-3	-11.3126E-12	1.34690E+0	-21.1370E-3
-277.639E-6	-11.7309E-12	1.23407E+0	-941.223E-6	-11.8290E-12	1.37616E+0	-19.6961E-3
-282.641E-6	-12.1294E-12	1.27883E+0	-21.7187E-3	-12.1038E-12	1.40688E+0	-20.3916E-3
-287.644E-6	-12.6216E-12	1.32617E+0	-27.2736E-3	-12.3178E-12	1.44376E+0	-16.8905E-3
-292.646E-6	-12.9444E-12	1.35124E+0	-16.4422E-3	-12.8965E-12	1.49249E+0	-10.0934E-3
-297.649E-6	-13.3634E-12	1.38435E+0	-21.9429E-3	-13.4827E-12	1.53659E+0	-9.93985E-3
-302.651E-6	-13.8724E-12	1.41942E+0	-19.6381E-3	-13.9867E-12	1.56359E+0	-8.70446E-3
-307.654E-6	-14.3683E-12	1.43569E+0	-14.6030E-3	-14.4470E-12	1.59649E+0	-3.08863E-3
-312.656E-6	-15.0233E-12	1.46155E+0	-26.3915E-3	-15.0413E-12	1.64775E+0	-15.7650E-3
-317.659E-6	-15.3782E-12	1.50675E+0	-25.3674E-3	-15.8436E-12	1.70145E+0	-30.1919E-3
-322.661E-6	-16.0473E-12	1.54719E+0	-21.3612E-3	-16.5694E-12	1.74884E+0	-29.3709E-3
-327.664E-6	-16.6582E-12	1.58332E+0	-26.7461E-3	-17.0887E-12	1.79364E+0	-30.0840E-3
-332.666E-6	-17.1817E-12	1.62612E+0	-13.4632E-3	-17.7915E-12	1.82989E+0	-27.6403E-3
-337.669E-6	-17.7211E-12	1.66214E+0	3.13450E-3	-18.5656E-12	1.84034E+0	-26.3108E-3
-342.671E-6	-18.3476E-12	1.68399E+0	-10.3599E-3	-19.0366E-12	1.82784E+0	-34.5699E-3
-347.674E-6	-18.9123E-12	1.71411E+0	-19.6813E-3	-19.7763E-12	1.81504E+0	-33.7921E-3
-352.676E-6	-19.2960E-12	1.74898E+0	-8.53394E-3	-20.0131E-12	1.81920E+0	-25.9111E-3
-357.679E-6	-20.0922E-12	1.76321E+0	-21.9783E-3	-20.2743E-12	1.83308E+0	-23.7323E-3
-362.681E-6	-20.7861E-12	1.78842E+0	-36.1469E-3	-20.4510E-12	1.83405E+0	-16.2487E-3
-367.684E-6	-21.3702E-12	1.82906E+0	-18.1354E-3	-20.9630E-12	1.83534E+0	-6.83216E-3
-372.686E-6	-21.6337E-12	1.84771E+0	-5.98378E-3	-21.5356E-12	1.84666E+0	-6.64986E-3
-377.689E-6	-22.3990E-12	1.86367E+0	-5.92523E-3	-21.8229E-12	1.85479E+0	-11.1085E-3
-382.691E-6	-23.1152E-12	1.87785E+0	-2.86931E-3	-22.2169E-12	1.87494E+0	-10.7057E-3
-387.694E-6	-23.8421E-12	1.88109E+0	-10.8182E-3	-22.5283E-12	1.91051E+0	-17.0209E-3
-392.696E-6	-24.2449E-12	1.91847E+0	-22.3287E-3	-23.4630E-12	1.93513E+0	-26.4167E-3
-397.699E-6	-24.5435E-12	1.96693E+0	-19.7514E-3	-24.1991E-12	1.96276E+0	-20.0235E-3
-402.701E-6	-25.5462E-12	1.97534E+0	-21.1051E-3	-24.6580E-12	2.01504E+0	-15.4638E-3
-407.704E-6	-26.2913E-12	1.98127E+0	-28.7389E-3	-25.3068E-12	2.05364E+0	-15.7214E-3
-412.706E-6	-26.7151E-12	2.00643E+0	-19.1185E-3	-26.8454E-12	2.06207E+0	-13.1953E-3
-417.709E-6	-27.1893E-12	2.01651E+0	-9.47205E-3	-28.1125E-12	2.07657E+0	-22.0494E-3
-422.711E-6	-27.7387E-12	2.01692E+0	-21.0427E-3	-28.4836E-12	2.11196E+0	-30.7468E-3
-427.714E-6	-28.6877E-12	2.01763E+0	-30.2145E-3	-29.2381E-12	2.13801E+0	-26.2944E-3
-432.716E-6	-29.4133E-12	2.00779E+0	-32.1956E-3	-30.3941E-12	2.13091E+0	-22.2295E-3
-437.719E-6	-29.6702E-12	2.01799E+0	-33.4465E-3	-31.3013E-12	2.11341E+0	-23.3075E-3
-442.721E-6	-30.0968E-12	2.04969E+0	-9.52114E-3	-31.6864E-12	2.11630E+0	-27.8282E-3
-447.724E-6	-31.1137E-12	2.05962E+0	11.0400E-3	-32.0772E-12	2.13177E+0	-29.2415E-3
-452.726E-6	-32.2084E-12	2.05094E+0	-7.05065E-3	-32.7952E-12	2.12878E+0	-20.6196E-3
-457.729E-6	-32.7057E-12	2.06155E+0	-21.9378E-3	-33.5059E-12	2.09696E+0	-9.73812E-3
-462.731E-6	-33.2077E-12	2.08495E+0	-16.9208E-3	-34.2825E-12	2.07235E+0	-7.76538E-3
-467.734E-6	-33.9320E-12	2.09294E+0	-11.2043E-3	-34.3728E-12	2.07581E+0	-14.4335E-3
-472.736E-6	-34.7365E-12	2.08343E+0	641.907E-6	-34.8290E-12	2.07337E+0	-21.9254E-3
-477.739E-6	-35.5956E-12	2.05914E+0	445.731E-6	-35.3307E-12	2.04928E+0	-17.5662E-3
-482.741E-6	-36.4685E-12	2.05301E+0	-28.4688E-3	-35.9001E-12	2.02120E+0	-8.33936E-3
-487.744E-6	-36.9761E-12	2.07555E+0	-28.3826E-3	-36.5124E-12	2.00976E+0	-1.55354E-3
-492.746E-6	-38.0591E-12	2.08151E+0	3.37081E-3	-36.5624E-12	2.03238E+0	-4.32704E-3
-497.749E-6	-38.9750E-12	2.08102E+0	-797.869E-6	-37.2011E-12	2.05269E+0	-17.7568E-3
-502.751E-6	-40.3460E-12	2.10399E+0	-20.2548E-3	-38.5852E-12	2.03863E+0	-16.8073E-3
-507.754E-6	-40.8072E-12	2.12358E+0	-18.7186E-3	-40.2697E-12	2.02526E+0	-7.17689E-3
-512.756E-6	-40.6159E-12	2.13749E+0	-17.2547E-3	-40.3550E-12	2.02331E+0	-14.3235E-3
-517.759E-6	-41.5521E-12	2.13529E+0	-11.8910E-3	-40.7057E-12	2.01302E+0	-25.0149E-3
-522.761E-6	-42.4207E-12	2.08757E+0	4.30623E-3	-41.8978E-12	1.99239E+0	-20.3118E-3
-527.764E-6	-42.8389E-12	2.04271E+0	-7.31524E-3	-43.3292E-12	1.96608E+0	-6.40643E-3
-532.766E-6	-42.3559E-12	2.04044E+0	-27.3900E-3	-43.9380E-12	1.94790E+0	-16.2004E-6
-537.769E-6	-43.3803E-12	2.02726E+0	-11.2751E-3	-43.8113E-12	1.95289E+0	-9.26222E-3
-542.771E-6	-44.2157E-12	1.97823E+0	-134.225E-6	-43.9216E-12	1.95546E+0	-27.6578E-3
-547.774E-6	-44.7885E-12	1.94798E+0	-10.6083E-3	-45.2568E-12	1.92463E+0	-34.6236E-3
-552.776E-6	-44.6761E-12	1.94251E+0	-16.9325E-3	-46.6670E-12	1.88678E+0	-28.5531E-3
-557.779E-6	-44.7483E-12	1.92801E+0	-25.8660E-3	-45.9129E-12	1.86315E+0	-29.0480E-3
-562.781E-6	-46.0154E-12	1.91177E+0	-27.8105E-3	-46.1518E-12	1.83766E+0	-28.4773E-3
-567.784E-6	-47.0462E-12	1.89416E+0	-6.32431E-3	-47.4936E-12	1.81421E+0	-17.0918E-3
-572.786E-6	-47.8334E-12	1.86979E+0	7.07828E-3	-49.0355E-12	1.78750E+0	-18.3472E-3
-577.789E-6	-48.5833E-12	1.85221E+0	-4.94052E-3	-49.4590E-12	1.75271E+0	-17.6967E-3
-582.791E-6	-49.6270E-12	1.83731E+0	-12.7983E-3	-49.6760E-12	1.73857E+0	-2.82901E-3
-587.794E-6	-50.9702E-12	1.82344E+0	-8.88792E-3	-49.9990E-12	1.73245E+0	-3.93757E-3
-592.796E-6	-51.2190E-12	1.81925E+0	-11.8532E-3	-50.9847E-12	1.68669E+0	-20.8605E-3
-597.799E-6	-52.1325E-12	1.81039E+0	-18.3763E-3	-52.3329E-12	1.64385E+0	-28.7555E-3
-602.801E-6	-52.8813E-12	1.78747E+0	-12.5547E-3	-52.2668E-12	1.65631E+0	-20.9040E-3
-607.804E-6	-53.6033E-12	1.76865E+0	4.37355E-3	-52.3178E-12	1.66132E+0	-9.83671E-3
-612.806E-6	-53.6084E-12	1.76000E+0	10.2193E-3	-52.8460E-12	1.61522E+0	4.44118E-3
-617.809E-6	-54.4846E-12	1.73007E+0	-534.624E-6	-54.5182E-12	1.56047E+0	10.8064E-3
-622.811E-6	-55.1311E-12	1.69067E+0	-11.9399E-3	-55.2293E-12	1.52417E+0	9.08099E-3
-627.814E-6	-56.3635E-12	1.67810E+0	-12.0594E-3	-54.3281E-12	1.50811E+0	6.59698E-3
-632.816E-6	-55.6157E-12	1.67108E+0	-1.35382E-3	-54.6906E-12	1.50428E+0	-4.71363E-3
-637.819E-6	-55.4495E-12	1.64076E+0	-7.80236E-3	-56.1525E-12	1.47985E+0	-6.98756E-3
-642.821E-6	-56.0507E-12	1.59185E+0	-23.4643E-3	-57.7860E-12	1.43947E+0	-3.58429E-3
-647.824E-6	-57.5523E-12	1.54142E+0	-27.4655E-3	-57.2608E-12	1.41149E+0	-14.7372E-3
-652.826E-6	-58.0897E-12	1.51701E+0	-40.6011E-3	-57.2009E-12	1.39106E+0	-16.4200E-3
-657.829E-6	-57.8807E-12	1.51496E+0	-38.2911E-3	-58.3883E-12	1.35112E+0	-991.054E-6
-662.831E-6	-57.9875E-12	1.48514E+0	-28.1354E-3	-60.1893E-12	1.31089E+0	8.26598E-3
-667.834E-6	-59.0404E-12	1.44335E+0	-31.6722E-3	-59.9189E-12	1.28798E+0	-2.49377E-3
-672.836E-6	-61.3204E-12	1.41314E+0	-16.7683E-3	-59.4196E-12	1.25585E+0	-23.2478E-3
-677.839E-6	-62.0359E-12	1.37980E+0	-4.31006E-3	-59.9779E-12	1.21762E+0	-18.6530E-3
-682.841E-6	-61.6003E-12	1.36237E+0	-16.4189E-3	-60.6120E-12	1.18193E+0	-3.26516E-3
-687.844E-6	-61.4334E-12	1.34898E+0	-22.7732E-3	-60.7259E-12	1.13767E+0	-2.57686E-3
-692.846E-6	-62.9152E-12	1.31072E+0	-16.4643E-3	-60.1989E-12	1.09897E+0	-3.64609E-3
-697.849E-6	-64.1284E-12	1.28326E+0	-26.1576E-3	-60.1042E-12	1.07399E+0	-18.5770E-3
-702.851E-6	-63.0972E-12	1.27025E+0	-34.8532E-3	-60.8311E-12	1.03563E+0	-39.2307E-3
-707.854E-6	-62.6803E-12	1.22903E+0	-19.0001E-3	-61.1160E-12	1.00218E+0	-38.7091E-3
-712.856E-6	-62.2514E-12	1.17631E+0	-17.8943E-3	-59.8094E-12	981.064E-3	-27.7092E-3
-717.859E-6	-63.1495E-12	1.14015E+0	-28.7277E-3	-59.8584E-12	945.789E-3	-11.8678E-3
-722.861E-6	-63.3277E-12	1.11042E+0	-16.8845E-3	-60.4474E-12	915.659E-3	4.42451E-3
-727.864E-6	-62.6623E-12	1.07937E+0	-16.9752E-3	-61.6402E-12	893.822E-3	9.36884E-3
-732.866E-6	-62.9131E-12	1.05777E+0	-32.3204E-3	-61.9690E-12	860.688E-3	-420.106E-6
-737.869E-6	-63.3652E-12	1.01163E+0	-23.1685E-3	-62.0414E-12	835.814E-3	-18.5219E-3
-742.871E-6	-64.0413E-12	948.344E-3	-18.9668E-3	-62.9460E-12	832.200E-3	-30.2422E-3
-747.874E-6	-63.8085E-12	938.264E-3	-27.6594E-3	-64.0447E-12	813.874E-3	-35.3091E-3
-752.876E-6	-64.0571E-12	935.735E-3	-8.23892E-3	-64.9321E-12	778.926E-3	-28.1842E-3
-757.879E-6	-64.7541E-12	893.303E-3	3.27413E-3	-65.6180E-12	770.478E-3	-7.74190E-3
-762.881E-6	-66.7330E-12	864.122E-3	-7.91847E-3	-65.9158E-12	752.700E-3	-1.95728E-3
-767.884E-6	-66.7991E-12	844.526E-3	4.85337E-3	-65.9408E-12	700.124E-3	-19.4615E-3
-772.886E-6	-65.9141E-12	814.108E-3	-3.10843E-3	-66.5473E-12	669.552E-3	-32.3674E-3
-777.889E-6	-66.5253E-12	798.587E-3	-36.6656E-3	-66.7327E-12	655.754E-3	-27.9485E-3
-782.891E-6	-68.9227E-12	778.515E-3	-20.4657E-3	-66.5220E-12	623.856E-3	-15.7202E-3
-787.894E-6	-70.5261E-12	740.314E-3	-577.619E-6	-65.6004E-12	604.418E-3	-10.8097E-3
-792.896E-6	-68.8324E-12	733.501E-3	-32.0931E-3	-65.4928E-12	590.883E-3	-28.6407E-3
-797.899E-6	-67.5851E-12	742.156E-3	-58.4616E-3	-65.7271E-12	556.039E-3	-41.3447E-3
-802.901E-6	-67.7709E-12	696.130E-3	-44.7523E-3	-64.9558E-12	532.872E-3	-30.1989E-3
-807.904E-6	-68.8797E-12	639.596E-3	-36.4597E-3	-64.9052E-12	523.357E-3	-19.3495E-3
-812.906E-6	-68.3894E-12	626.935E-3	-43.9471E-3	-64.9987E-12	505.291E-3	-8.52091E-3
-817.909E-6	-67.4705E-12	616.306E-3	-29.2293E-3	-65.5373E-12	487.652E-3	5.75855E-3
-822.911E-6	-68.2277E-12	602.387E-3	-18.1098E-3	-66.1001E-12	473.647E-3	-796.535E-6
-827.914E-6	-69.0951E-12	605.372E-3	-16.4911E-3	-66.5614E-12	459.673E-3	-26.4493E-3
-832.916E-6	-69.0627E-12	578.469E-3	1.76719E-3	-66.9202E-12	446.892E-3	-45.5333E-3
-837.919E-6	-68.6886E-12	526.803E-3	-1.04925E-3	-67.8298E-12	435.030E-3	-56.8525E-3
-842.921E-6	-68.7885E-12	501.150E-3	-14.5801E-3	-68.6724E-12	413.427E-3	-53.8785E-3
-847.924E-6	-69.8038E-12	473.694E-3	-6.47360E-3	-69.7743E-12	394.858E-3	-31.1232E-3
-852.926E-6	-70.7910E-12	450.085E-3	-8.56094E-3	-70.7105E-12	393.852E-3	-14.4612E-3
-857.929E-6	-69.2697E-12	463.247E-3	-10.2366E-3	-69.7979E-12	387.555E-3	-11.0630E-3
-862.931E-6	-68.4975E-12	460.383E-3	-8.74540E-3	-70.3543E-12	376.778E-3	-9.93448E-3
-867.934E-6	-68.2355E-12	424.414E-3	-26.2965E-3	-70.9622E-12	367.905E-3	-7.84378E-3
-872.936E-6	-69.4102E-12	399.400E-3	-22.7739E-3	-71.6325E-12	351.215E-3	-4.69644E-3
-877.939E-6	-70.3988E-12	374.167E-3	-1.67048E-3	-70.6552E-12	333.235E-3	5.08799E-3
-882.941E-6	-69.2815E-12	357.477E-3	-11.2668E-3	-70.1530E-12	324.582E-3	6.54864E-3
-887.944E-6	-69.0754E-12	373.554E-3	-33.5878E-3	-70.0281E-12	322.684E-3	-834.874E-6
-892.946E-6	-70.1893E-12	361.380E-3	-23.5457E-3	-70.6252E-12	314.513E-3	2.53538E-3
-897.949E-6	-71.8062E-12	310.261E-3	-20.0928E-3	-70.4205E-12	299.766E-3	-3.46912E-3
-902.951E-6	-70.2303E-12	298.015E-3	-43.9496E-3	-69.7397E-12	284.482E-3	-21.4380E-3
-907.954E-6	-69.6370E-12	311.717E-3	-27.7798E-3	-70.4089E-12	272.951E-3	-26.9964E-3
-912.956E-6	-70.5634E-12	295.265E-3	-2.20401E-3	-70.2388E-12	271.747E-3	-22.5088E-3
-917.959E-6	-73.5752E-12	298.078E-3	-20.1821E-3	-70.0077E-12	253.817E-3	-21.0360E-3
-922.961E-6	-72.8171E-12	320.019E-3	-16.9443E-3	-70.7920E-12	219.929E-3	-16.6043E-3
-927.964E-6	-71.6083E-12	297.921E-3	-4.87194E-3	-71.4867E-12	216.766E-3	-19.8203E-3
-932.966E-6	-71.6520E-12	280.985E-3	-13.8592E-3	-70.3549E-12	230.130E-3	-34.1573E-3
-937.969E-6	-72.7002E-12	290.685E-3	8.91908E-3	-70.2502E-12	232.619E-3	-33.4945E-3
-942.971E-6	-73.6204E-12	268.392E-3	20.5392E-3	-71.3671E-12	235.990E-3	-21.7205E-3
-947.974E-6	-71.5363E-12	257.032E-3	-5.15978E-3	-71.3626E-12	227.699E-3	-20.4590E-3
-952.976E-6	-70.7697E-12	272.569E-3	-11.8802E-3	-70.7740E-12	211.852E-3	-22.0706E-3
-957.979E-6	-70.8764E-12	239.312E-3	-12.4956E-3	-71.0594E-12	212.619E-3	-11.8362E-3
-962.981E-6	-71.6001E-12	197.797E-3	-22.4629E-3	-71.2371E-12	209.986E-3	-5.73023E-3
-967.984E-6	-71.1074E-12	211.581E-3	-14.6650E-3	-71.1986E-12	201.258E-3	-4.42773E-3
-972.986E-6	-70.2564E-12	220.361E-3	-15.2733E-3	-70.8537E-12	210.594E-3	-2.34997E-3
-977.989E-6	-70.0475E-12	203.024E-3	-35.1592E-3	-70.7134E-12	224.499E-3	-9.29136E-3
-982.991E-6	-70.7028E-12	215.603E-3	-28.8808E-3	-70.7272E-12	226.680E-3	-13.5891E-3
-987.994E-6	-71.4117E-12	224.537E-3	-16.8314E-3	-70.6292E-12	223.844E-3	-8.07909E-3
-992.997E-6	-72.3236E-12	210.886E-3	-31.8293E-3	-70.7832E-12	219.719E-3	-4.31056E-3
-997.999E-6	-72.5947E-12	232.789E-3	-40.8508E-3	-70.5738E-12	212.443E-3	-9.67360E-3
-1.00300E-3	-72.9364E-12	239.559E-3	-31.2641E-3	-70.3152E-12	204.510E-3	-10.9877E-3
-1.00800E-3	-73.6658E-12	211.170E-3	-30.2772E-3	-70.8285E-12	203.230E-3	-12.1049E-3
-1.01301E-3	-74.4624E-12	210.460E-3	-43.2351E-3	-71.2206E-12	204.171E-3	-12.1979E-3
-1.01801E-3	-74.3433E-12	205.749E-3	-24.1418E-3	-71.3621E-12	198.310E-3	-9.68562E-3
-1.02301E-3	-74.4739E-12	181.209E-3	-565.264E-6	-71.3329E-12	182.692E-3	-16.1861E-3
-1.02801E-3	-73.9163E-12	194.991E-3	-19.4140E-3	-72.0074E-12	172.455E-3	-13.1722E-3
-1.03302E-3	-75.6430E-12	222.064E-3	-13.8123E-3	-72.6488E-12	197.235E-3	-753.941E-6
-1.03802E-3	-74.3988E-12	201.996E-3	37.3187E-6	-72.4248E-12	216.336E-3	2.61582E-3
-1.04302E-3	-73.5838E-12	179.152E-3	-24.2386E-3	-72.1128E-12	187.147E-3	3.13470E-3
-1.04802E-3	-73.0931E-12	190.992E-3	-22.1953E-3	-73.4023E-12	168.712E-3	5.66860E-3
-1.05303E-3	-74.3154E-12	196.891E-3	-6.82622E-3	-73.4073E-12	190.871E-3	-6.99595E-3
-1.05803E-3	-72.8903E-12	204.492E-3	-27.0014E-3	-72.6905E-12	215.542E-3	-30.9187E-3
-1.06303E-3	-70.6747E-12	216.556E-3	-27.0489E-3	-72.3748E-12	224.272E-3	-37.8137E-3
-1.06803E-3	-71.7755E-12	208.146E-3	-14.1204E-3	-72.7181E-12	222.218E-3	-22.7039E-3
-1.07304E-3	-72.6393E-12	210.711E-3	-37.3168E-3	-73.3196E-12	229.055E-3	-5.48057E-3
-1.07804E-3	-72.8482E-12	223.407E-3	-38.1741E-3	-73.0156E-12	243.173E-3	-5.75691E-3
-1.08304E-3	-71.5554E-12	230.231E-3	-11.5459E-3	-73.2289E-12	241.159E-3	-18.8149E-3
-1.08804E-3	-72.8200E-12	230.121E-3	-4.17717E-3	-73.7027E-12	237.700E-3	-19.8689E-3
-1.09305E-3	-73.4696E-12	226.398E-3	2.24393E-3	-73.7575E-12	242.713E-3	-16.7194E-3
-1.09805E-3	-73.9453E-12	230.929E-3	5.15402E-3	-74.7549E-12	243.150E-3	-26.0302E-3
-1.10305E-3	-74.8515E-12	232.425E-3	-1.41592E-3	-74.2908E-12	235.048E-3	-36.1548E-3
-1.10805E-3	-75.5190E-12	236.425E-3	9.92597E-3	-74.1512E-12	230.098E-3	-38.9906E-3
-1.11306E-3	-75.9292E-12	240.829E-3	26.3327E-3	-73.5648E-12	257.462E-3	-38.0471E-3
-1.11806E-3	-74.9935E-12	244.021E-3	9.18141E-3	-74.0627E-12	293.456E-3	-32.6172E-3
-1.12306E-3	-75.6840E-12	253.367E-3	-25.0967E-3	-73.6146E-12	300.722E-3	-26.9423E-3
-1.12806E-3	-76.6315E-12	252.831E-3	-29.9593E-3	-73.1584E-12	294.387E-3	-30.0843E-3
-1.13307E-3	-75.4949E-12	261.435E-3	-23.2129E-3	-72.8780E-12	287.731E-3	-39.8284E-3
-1.13807E-3	-74.9641E-12	283.828E-3	-13.7780E-3	-73.5659E-12	280.806E-3	-32.3962E-3
-1.14307E-3	-74.3019E-12	303.864E-3	4.09288E-3	-73.8418E-12	288.248E-3	-12.2492E-3
-1.14807E-3	-74.1453E-12	305.232E-3	2.10926E-3	-73.7458E-12	313.037E-3	-8.94032E-3
-1.15308E-3	-73.1929E-12	282.947E-3	-7.51235E-3	-74.8299E-12	336.261E-3	-15.1106E-3
-1.15808E-3	-72.9508E-12	282.380E-3	-17.4072E-3	-75.3090E-12	356.278E-3	-29.8689E-3
-1.16308E-3	-72.9417E-12	307.175E-3	-29.4954E-3	-75.8687E-12	369.401E-3	-47.7172E-3
-1.16808E-3	-72.6478E-12	317.956E-3	-28.0161E-3	-76.7662E-12	374.908E-3	-36.8987E-3
-1.17309E-3	-73.2147E-12	316.159E-3	-22.5474E-3	-78.5726E-12	387.507E-3	-11.8542E-3
-1.17809E-3	-73.2446E-12	319.329E-3	-19.5424E-3	-77.7732E-12	399.681E-3	-10.0298E-3
-1.18309E-3	-73.9176E-12	325.377E-3	-18.5535E-3	-77.2426E-12	403.298E-3	-16.2508E-3
-1.18809E-3	-74.4280E-12	339.981E-3	-22.2914E-3	-77.9347E-12	410.456E-3	-6.51467E-3
-1.19310E-3	-76.2677E-12	364.310E-3	-20.5252E-3	-79.2770E-12	413.554E-3	1.84823E-3
-1.19810E-3	-75.9059E-12	373.406E-3	-26.4580E-3	-79.0542E-12	416.273E-3	-3.58561E-3
-1.20310E-3	-76.4198E-12	372.715E-3	-30.3589E-3	-77.4227E-12	433.946E-3	-3.54071E-3
-1.20810E-3	-76.5187E-12	384.465E-3	-26.8197E-3	-77.3654E-12	445.001E-3	4.50310E-3
-1.21311E-3	-77.1137E-12	415.011E-3	-32.4239E-3	-78.0359E-12	444.075E-3	-5.35457E-3
-1.21811E-3	-77.6376E-12	440.344E-3	-24.0748E-3	-78.3651E-12	440.386E-3	-19.8749E-3
-1.22311E-3	-77.6172E-12	443.649E-3	-19.3620E-3	-75.3263E-12	449.087E-3	-13.9479E-3
-1.22811E-3	-77.8531E-12	456.845E-3	-21.2208E-3	-75.8055E-12	462.953E-3	-14.5994E-3
-1.23312E-3	-77.4207E-12	468.325E-3	-12.4492E-3	-77.5505E-12	474.867E-3	-19.5808E-3
-1.23812E-3	-77.8091E-12	469.523E-3	-19.6981E-3	-76.9099E-12	500.993E-3	-19.0866E-3
-1.24312E-3	-77.6687E-12	487.123E-3	-25.4436E-3	-74.8169E-12	513.672E-3	-27.7835E-3
-1.24812E-3	-77.8021E-12	495.510E-3	-10.5163E-3	-74.4480E-12	509.739E-3	-22.8348E-3
-1.25313E-3	-77.7360E-12	495.368E-3	-19.4732E-3	-77.5891E-12	530.893E-3	-7.76767E-3
-1.25813E-3	-77.7837E-12	507.481E-3	-31.4498E-3	-77.0446E-12	555.735E-3	-12.4354E-3
-1.26313E-3	-78.6327E-12	515.719E-3	-5.73847E-3	-76.5477E-12	570.554E-3	-3.86917E-3
-1.26813E-3	-77.8820E-12	517.676E-3	6.11058E-3	-77.1075E-12	599.965E-3	14.0801E-3
-1.27314E-3	-78.9603E-12	533.369E-3	-4.16675E-3	-78.9156E-12	617.478E-3	-4.22786E-3
-1.27814E-3	-78.8768E-12	547.378E-3	-16.7157E-3	-79.5944E-12	621.663E-3	-29.7348E-3
-1.28314E-3	-81.4052E-12	543.014E-3	-40.7994E-3	-79.0774E-12	632.520E-3	-32.2708E-3
-1.28814E-3	-80.5203E-12	559.170E-3	-51.3859E-3	-79.0691E-12	632.628E-3	-17.6655E-3
-1.29315E-3	-79.6766E-12	591.303E-3	-30.6895E-3	-79.5312E-12	622.689E-3	302.150E-6
-1.29815E-3	-80.0221E-12	592.286E-3	-13.8072E-3	-79.8357E-12	617.216E-3	-9.71734E-3
-1.30315E-3	-80.1327E-12	584.341E-3	-16.7144E-3	-78.9715E-12	624.375E-3	-34.6106E-3
-1.30815E-3	-79.9980E-12	589.909E-3	-8.45804E-3	-79.0305E-12	644.206E-3	-40.8908E-3
-1.31316E-3	-79.6814E-12	597.075E-3	3.52216E-3	-79.1847E-12	670.531E-3	-35.6872E-3
-1.31816E-3	-80.1759E-12	620.664E-3	-1.64984E-3	-79.2269E-12	689.656E-3	-24.4432E-3
-1.32316E-3	-79.7491E-12	648.220E-3	-8.11577E-3	-79.7181E-12	694.936E-3	241.237E-6
-1.32816E-3	-80.0955E-12	647.694E-3	-21.0623E-3	-78.7994E-12	697.326E-3	12.7187E-3
-1.33317E-3	-80.7961E-12	643.441E-3	-35.0067E-3	-79.3332E-12	707.886E-3	-1.85133E-3
-1.33817E-3	-82.2208E-12	658.421E-3	-21.4070E-3	-79.3591E-12	710.967E-3	-9.53590E-3
-1.34317E-3	-81.8205E-12	679.845E-3	-4.04055E-3	-79.8555E-12	713.987E-3	-2.96300E-3
-1.34817E-3	-81.7503E-12	707.218E-3	-17.2797E-3	-80.0431E-12	736.490E-3	-12.7081E-3
-1.35318E-3	-82.6392E-12	714.205E-3	-34.6989E-3	-81.0297E-12	755.445E-3	-26.7428E-3
-1.35818E-3	-83.3155E-12	697.330E-3	-34.3999E-3	-81.3442E-12	756.919E-3	-10.7850E-3
-1.36318E-3	-82.2566E-12	708.416E-3	-41.6393E-3	-81.2765E-12	759.987E-3	2.82880E-3
-1.36818E-3	-82.7814E-12	739.944E-3	-42.2618E-3	-83.1736E-12	778.023E-3	-6.07239E-3
-1.37319E-3	-83.0533E-12	748.307E-3	-23.1793E-3	-83.6737E-12	795.580E-3	-17.2544E-3
-1.37819E-3	-83.8294E-12	749.648E-3	-26.2354E-3	-83.7768E-12	803.690E-3	-31.9736E-3
-1.38319E-3	-81.9256E-12	768.957E-3	-32.4741E-3	-83.5817E-12	790.690E-3	-46.6666E-3
-1.38819E-3	-81.7416E-12	782.731E-3	-4.18393E-3	-85.3230E-12	779.133E-3	-45.9116E-3
-1.39320E-3	-82.8633E-12	770.923E-3	9.13498E-3	-84.6559E-12	803.695E-3	-31.4648E-3
-1.39820E-3	-83.0250E-12	764.586E-3	-5.75328E-3	-85.1210E-12	828.445E-3	-7.40755E-3
-1.40320E-3	-82.1319E-12	776.922E-3	-155.091E-6	-84.7903E-12	834.771E-3	4.78423E-3
-1.40820E-3	-81.1413E-12	774.443E-3	-2.10665E-3	-85.0224E-12	842.018E-3	-21.0767E-3
-1.41321E-3	-83.2486E-12	771.102E-3	-23.8197E-3	-84.3514E-12	846.289E-3	-46.3391E-3
-1.41821E-3	-83.7341E-12	783.373E-3	-19.5938E-3	-84.4276E-12	839.800E-3	-41.9564E-3
-1.42321E-3	-83.3279E-12	786.258E-3	-19.2702E-3	-85.8441E-12	837.353E-3	-28.1204E-3
-1.42821E-3	-84.1705E-12	801.630E-3	-34.2744E-3	-85.9005E-12	839.837E-3	-23.1446E-3
-1.43322E-3	-85.4818E-12	830.164E-3	-18.2609E-3	-85.0064E-12	825.822E-3	-29.2679E-3
-1.43822E-3	-87.5697E-12	832.958E-3	-6.15223E-3	-85.1262E-12	832.191E-3	-27.6880E-3
-1.44322E-3	-87.0782E-12	838.227E-3	-25.7665E-3	-85.9640E-12	861.650E-3	-24.4866E-3
-1.44822E-3	-88.0434E-12	862.149E-3	-23.1541E-3	-86.3467E-12	868.612E-3	-28.5390E-3
-1.45323E-3	-87.8538E-12	869.590E-3	-3.86810E-3	-86.4602E-12	869.898E-3	-22.5901E-3
-1.45823E-3	-88.1826E-12	875.091E-3	-2.09294E-3	-88.0139E-12	883.416E-3	-18.3694E-3
-1.46323E-3	-88.6200E-12	882.285E-3	1.62102E-3	-87.8982E-12	894.294E-3	-27.6628E-3
-1.46823E-3	-87.4801E-12	864.304E-3	9.00714E-3	-89.5828E-12	900.752E-3	-36.1234E-3
-1.47324E-3	-88.1735E-12	848.706E-3	-2.58759E-3	-90.0372E-12	903.621E-3	-37.7563E-3
-1.47824E-3	-87.0479E-12	855.703E-3	-4.69115E-3	-89.9246E-12	888.545E-3	-29.1476E-3
-1.48324E-3	-86.3123E-12	859.231E-3	6.73572E-3	-90.7349E-12	875.010E-3	-15.9344E-3
-1.48824E-3	-86.3141E-12	857.577E-3	-5.83976E-3	-91.2200E-12	891.709E-3	-8.89232E-3
-1.49325E-3	-87.4385E-12	873.084E-3	-16.5935E-3	-91.4828E-12	908.991E-3	-12.1147E-3
-1.49825E-3	-87.3618E-12	871.394E-3	-19.6523E-3	-91.2523E-12	894.552E-3	-25.2513E-3
-1.50325E-3	-86.9600E-12	859.052E-3	-33.1384E-3	-92.3268E-12	884.695E-3	-38.9344E-3
-1.50825E-3	-87.8321E-12	873.220E-3	-33.7160E-3	-91.7981E-12	881.624E-3	-36.5270E-3
-1.51326E-3	-89.4234E-12	871.103E-3	-18.9304E-3	-92.2366E-12	865.462E-3	-13.5679E-3
-1.51826E-3	-90.3675E-12	856.206E-3	-8.65019E-3	-91.5732E-12	864.687E-3	3.18086E-3
-1.52326E-3	-91.1453E-12	867.120E-3	-3.36635E-3	-91.0048E-12	867.649E-3	-432.574E-6
-1.52826E-3	-91.9662E-12	878.742E-3	-10.9342E-3	-90.7227E-12	847.437E-3	-3.20646E-3
-1.53327E-3	-93.2524E-12	884.656E-3	-34.9220E-3	-91.1543E-12	831.198E-3	-3.23026E-3
-1.53827E-3	-95.0914E-12	896.450E-3	-36.4469E-3	-91.6570E-12	839.117E-3	-16.7648E-3
-1.54327E-3	-94.7915E-12	892.032E-3	-12.7271E-3	-90.4327E-12	860.367E-3	-30.7667E-3
-1.54827E-3	-94.5775E-12	880.105E-3	-5.51708E-3	-90.4167E-12	876.587E-3	-28.1259E-3
-1.55328E-3	-95.1046E-12	891.158E-3	-14.6114E-3	-91.2260E-12	874.440E-3	-16.6414E-3
-1.55828E-3	-95.5073E-12	904.930E-3	-17.3977E-3	-91.2643E-12	869.018E-3	-15.6018E-3
-1.56328E-3	-95.8739E-12	895.062E-3	-31.8542E-3	-91.6470E-12	874.490E-3	-23.1300E-3
-1.56828E-3	-94.5990E-12	890.070E-3	-47.4089E-3	-92.1567E-12	878.002E-3	-16.5838E-3
-1.57329E-3	-93.4520E-12	891.598E-3	-32.3584E-3	-93.2720E-12	878.386E-3	-5.97634E-3
-1.57829E-3	-92.9833E-12	879.495E-3	-28.9367E-3	-93.4471E-12	872.679E-3	-5.96665E-3
-1.58329E-3	-93.6693E-12	873.785E-3	-47.0868E-3	-93.4164E-12	861.418E-3	-4.37789E-3
-1.58829E-3	-94.6106E-12	868.634E-3	-31.7187E-3	-95.6744E-12	865.030E-3	-4.97415E-3
-1.59330E-3	-93.0555E-12	859.383E-3	-8.89188E-3	-96.9739E-12	867.961E-3	-27.7870E-3
-1.59830E-3	-92.8121E-12	851.979E-3	-20.5933E-3	-96.8074E-12	854.114E-3	-49.4521E-3
-1.60330E-3	-93.7461E-12	825.088E-3	-26.0253E-3	-96.0041E-12	845.238E-3	-20.4561E-3
-1.60830E-3	-95.6788E-12	816.261E-3	-8.62850E-3	-97.9293E-12	855.902E-3	16.3073E-3
-1.61331E-3	-96.4425E-12	850.722E-3	-1.06299E-3	-98.6193E-12	867.350E-3	7.89264E-3
-1.61831E-3	-95.7152E-12	857.881E-3	-10.4330E-3	-96.9050E-12	861.442E-3	-6.94827E-3
-1.62331E-3	-96.4926E-12	830.926E-3	-21.3593E-3	-96.6223E-12	843.500E-3	-10.7932E-3
-1.62831E-3	-98.8517E-12	823.089E-3	-20.7390E-3	-97.5839E-12	818.964E-3	-19.4257E-3
-1.63332E-3	-100.473E-12	832.577E-3	-9.98968E-3	-98.8595E-12	816.037E-3	-21.0801E-3
-1.63832E-3	-100.373E-12	834.843E-3	3.71239E-3	-97.0800E-12	832.116E-3	-19.5630E-3
-1.64332E-3	-98.8047E-12	842.639E-3	1.24351E-3	-95.6074E-12	824.701E-3	-22.1903E-3
-1.64832E-3	-98.1412E-12	853.947E-3	-10.4458E-3	-96.6043E-12	824.994E-3	-16.3675E-3
-1.65333E-3	-98.9634E-12	828.303E-3	-17.3472E-3	-98.1762E-12	843.446E-3	-6.66902E-3
-1.65833E-3	-99.9120E-12	800.148E-3	-24.6036E-3	-97.1720E-12	826.423E-3	-6.78443E-3
-1.66333E-3	-99.1872E-12	804.726E-3	-22.3171E-3	-96.6262E-12	794.409E-3	-7.65316E-3
-1.66833E-3	-98.9128E-12	799.234E-3	-20.8622E-3	-97.1829E-12	805.585E-3	-5.10756E-3
-1.67334E-3	-97.8793E-12	803.477E-3	-27.4182E-3	-97.9217E-12	829.788E-3	-19.3158E-3
-1.67834E-3	-98.5408E-12	840.637E-3	-19.3695E-3	-97.7616E-12	818.478E-3	-33.6500E-3
-1.68334E-3	-99.8778E-12	842.813E-3	-4.32710E-3	-99.2563E-12	809.535E-3	-25.7240E-3
-1.68834E-3	-99.6326E-12	820.345E-3	-7.24582E-3	-100.007E-12	817.431E-3	-27.6639E-3
-1.69335E-3	-98.2439E-12	823.204E-3	-83.7922E-6	-100.908E-12	809.511E-3	-35.4573E-3
-1.69835E-3	-98.4255E-12	815.434E-3	12.7527E-3	-102.275E-12	816.273E-3	-28.0542E-3
-1.70335E-3	-100.697E-12	804.670E-3	-8.85606E-3	-103.354E-12	831.755E-3	-32.8948E-3
-1.70835E-3	-101.137E-12	823.469E-3	-26.5863E-3	-102.518E-12	809.370E-3	-43.6600E-3
-1.71336E-3	-101.467E-12	829.694E-3	-16.4748E-3	-103.424E-12	797.820E-3	-43.5799E-3
-1.71836E-3	-100.733E-12	818.298E-3	-15.8210E-3	-103.763E-12	811.295E-3	-45.6332E-3
-1.72336E-3	-101.107E-12	821.786E-3	-12.0368E-3	-103.685E-12	810.910E-3	-45.8867E-3
-1.72836E-3	-101.849E-12	825.761E-3	3.00957E-3	-103.455E-12	813.881E-3	-34.6236E-3
-1.73337E-3	-101.978E-12	825.412E-3	3.05840E-3	-103.073E-12	804.210E-3	-23.7360E-3
-1.73837E-3	-101.528E-12	832.389E-3	869.742E-6	-103.695E-12	770.157E-3	-20.2362E-3
-1.74337E-3	-101.227E-12	834.735E-3	5.94618E-3	-103.298E-12	767.508E-3	170.175E-6
-1.74837E-3	-102.639E-12	825.078E-3	-10.0928E-3	-103.328E-12	795.913E-3	21.4857E-3
-1.75338E-3	-102.620E-12	817.022E-3	-37.5572E-3	-102.582E-12	798.583E-3	-1.84699E-3
-1.75838E-3	-102.796E-12	803.642E-3	-18.6874E-3	-103.547E-12	770.107E-3	-33.9171E-3
-1.76338E-3	-102.892E-12	777.569E-3	-570.966E-6	-102.832E-12	744.894E-3	-24.4400E-3
-1.76838E-3	-103.130E-12	771.770E-3	-29.3835E-3	-102.731E-12	740.621E-3	-4.04095E-3
-1.77339E-3	-104.671E-12	784.052E-3	-35.0603E-3	-104.030E-12	752.515E-3	-11.6828E-3
-1.77839E-3	-105.541E-12	777.572E-3	-30.5953E-3	-104.078E-12	770.854E-3	-23.1192E-3
-1.78339E-3	-105.554E-12	765.477E-3	-38.6362E-3	-105.003E-12	764.635E-3	-24.5841E-3
-1.78839E-3	-104.608E-12	762.954E-3	-16.3751E-3	-104.928E-12	742.599E-3	-28.4123E-3
-1.79340E-3	-105.372E-12	765.906E-3	5.06493E-3	-107.460E-12	752.664E-3	-23.2038E-3
-1.79840E-3	-105.565E-12	784.444E-3	-3.45540E-3	-107.199E-12	780.973E-3	-21.1744E-3
-1.80340E-3	-106.724E-12	798.490E-3	-12.6744E-3	-108.173E-12	797.309E-3	-26.5138E-3
-1.80840E-3	-106.183E-12	785.040E-3	-20.8164E-3	-108.554E-12	796.864E-3	-19.0999E-3
-1.81341E-3	-105.909E-12	774.558E-3	-26.5558E-3	-107.853E-12	790.832E-3	-632.786E-6
-1.81841E-3	-105.723E-12	776.513E-3	-18.1307E-3	-109.042E-12	785.427E-3	10.0356E-3
-1.82341E-3	-106.600E-12	768.439E-3	-9.46107E-3	-108.722E-12	772.529E-3	-5.18272E-3
-1.82841E-3	-107.152E-12	756.589E-3	-14.3313E-3	-107.903E-12	755.719E-3	-21.1447E-3
-1.83342E-3	-107.071E-12	764.551E-3	-10.2097E-3	-107.780E-12	756.437E-3	-23.6206E-3
-1.83842E-3	-108.029E-12	770.637E-3	6.93307E-3	-108.569E-12	767.348E-3	-29.9047E-3
-1.84342E-3	-108.138E-12	751.169E-3	4.67163E-3	-107.145E-12	754.936E-3	-39.1577E-3
-1.84842E-3	-109.561E-12	741.158E-3	-2.74520E-3	-107.333E-12	733.538E-3	-37.9576E-3
-1.85343E-3	-110.313E-12	748.501E-3	10.0034E-3	-106.587E-12	730.385E-3	-26.1513E-3
-1.85843E-3	-112.048E-12	761.573E-3	14.6871E-3	-106.316E-12	728.884E-3	-26.8523E-3
-1.86343E-3	-111.895E-12	779.216E-3	-3.71838E-3	-107.027E-12	721.022E-3	-29.0378E-3
-1.86843E-3	-112.695E-12	783.523E-3	-12.2072E-3	-107.374E-12	717.078E-3	-4.23140E-3
-1.87344E-3	-114.425E-12	775.084E-3	-15.2114E-3	-107.519E-12	720.784E-3	10.6824E-3
-1.87844E-3	-113.425E-12	780.180E-3	-19.9027E-3	-107.811E-12	727.743E-3	-6.15749E-3
-1.88344E-3	-112.503E-12	787.977E-3	-9.15000E-3	-108.822E-12	733.565E-3	-20.0912E-3
-1.88844E-3	-112.112E-12	770.915E-3	-10.0861E-3	-109.597E-12	730.106E-3	-23.5814E-3
-1.89345E-3	-113.661E-12	760.125E-3	-34.2919E-3	-110.386E-12	717.393E-3	-25.9837E-3
-1.89845E-3	-111.749E-12	767.954E-3	-40.5173E-3	-110.363E-12	732.171E-3	-21.0502E-3
-1.90345E-3	-111.209E-12	757.956E-3	-26.5176E-3	-111.588E-12	754.268E-3	-11.4768E-3
-1.90845E-3	-110.267E-12	745.834E-3	-21.8313E-3	-113.000E-12	745.282E-3	-13.2556E-3
-1.91346E-3	-110.876E-12	744.571E-3	-16.7333E-3	-113.364E-12	741.805E-3	-23.2419E-3
-1.91846E-3	-111.570E-12	740.083E-3	-12.0989E-3	-112.887E-12	753.077E-3	-39.4495E-3
-1.92346E-3	-110.266E-12	734.718E-3	-13.5958E-3	-113.702E-12	760.469E-3	-52.5251E-3
-1.92846E-3	-110.670E-12	728.795E-3	1.70333E-3	-115.565E-12	754.852E-3	-43.2607E-3
-1.93347E-3	-110.826E-12	711.076E-3	6.15114E-3	-115.501E-12	746.934E-3	-24.6716E-3
-1.93847E-3	-111.659E-12	686.965E-3	-19.8892E-3	-114.573E-12	753.039E-3	-14.0227E-3
-1.94347E-3	-112.340E-12	679.452E-3	-30.7417E-3	-113.703E-12	751.143E-3	-11.4047E-3
-1.94847E-3	-115.138E-12	690.028E-3	-17.9015E-3	-114.718E-12	743.542E-3	-9.52515E-3
-1.95348E-3	-116.400E-12	719.842E-3	-7.90079E-3	-114.201E-12	736.097E-3	-3.88974E-3
-1.95848E-3	-117.001E-12	744.432E-3	-9.72070E-3	-113.807E-12	721.236E-3	4.36363E-3
-1.96348E-3	-116.999E-12	743.381E-3	-20.2483E-3	-114.380E-12	726.935E-3	20.6562E-3
-1.96848E-3	-119.326E-12	760.414E-3	-38.3956E-3	-113.368E-12	746.193E-3	28.4136E-3
-1.97349E-3	-119.944E-12	778.124E-3	-56.6267E-3	-113.349E-12	749.279E-3	9.25616E-3
-1.97849E-3	-118.602E-12	757.602E-3	-48.3358E-3	-113.912E-12	738.579E-3	-10.2075E-3
-1.98349E-3	-117.788E-12	746.535E-3	-31.8172E-3	-115.607E-12	728.725E-3	-20.5505E-3
-1.98849E-3	-117.092E-12	755.836E-3	-28.8135E-3	-115.101E-12	734.085E-3	-26.8434E-3
-1.99350E-3	-116.419E-12	748.158E-3	-13.0217E-3	-113.812E-12	742.327E-3	-40.5940E-3
-1.99850E-3	-115.621E-12	731.546E-3	-10.8582E-3	-116.303E-12	729.727E-3	-58.8073E-3
-2.00350E-3	-114.406E-12	729.438E-3	-31.9576E-3	-116.663E-12	708.560E-3	-47.3832E-3
-2.00850E-3	-113.202E-12	728.991E-3	-47.2901E-3	-118.111E-12	715.165E-3	-29.1686E-3
-2.01351E-3	-113.821E-12	720.980E-3	-56.6560E-3	-117.472E-12	752.794E-3	-18.7306E-3
-2.01851E-3	-113.926E-12	709.576E-3	-36.1406E-3	-118.527E-12	770.231E-3	-9.94470E-3
-2.02351E-3	-114.435E-12	683.338E-3	-1.19494E-3	-119.020E-12	754.501E-3	-933.550E-6
-2.02851E-3	-114.867E-12	680.424E-3	-9.35961E-3	-119.705E-12	753.696E-3	7.80229E-3
-2.03352E-3	-115.013E-12	702.460E-3	-24.9673E-3	-118.929E-12	753.769E-3	-3.80605E-3
-2.03852E-3	-117.753E-12	704.264E-3	-8.22031E-3	-119.713E-12	736.946E-3	-6.29303E-3
-2.04352E-3	-119.604E-12	711.023E-3	-792.288E-6	-120.972E-12	727.768E-3	-9.19039E-3
-2.04852E-3	-119.411E-12	730.235E-3	3.77788E-3	-120.685E-12	713.976E-3	-36.2392E-3
-2.05353E-3	-119.417E-12	743.651E-3	13.9052E-3	-120.309E-12	709.824E-3	-36.3534E-3
-2.05853E-3	-120.364E-12	756.366E-3	-15.1496E-3	-120.202E-12	727.787E-3	-21.0499E-3
-2.06353E-3	-122.539E-12	752.253E-3	-43.0288E-3	-120.932E-12	720.348E-3	-18.7583E-3
-2.06853E-3	-123.602E-12	732.300E-3	-28.8478E-3	-120.961E-12	709.663E-3	-2.07989E-3
-2.07354E-3	-122.220E-12	719.746E-3	-24.9611E-3	-119.291E-12	737.683E-3	10.9263E-3
-2.07854E-3	-121.870E-12	728.519E-3	-23.9103E-3	-119.156E-12	741.602E-3	6.28877E-3
-2.08354E-3	-121.241E-12	739.243E-3	12.0755E-3	-121.288E-12	715.106E-3	8.18885E-3
-2.08854E-3	-123.028E-12	725.859E-3	15.3392E-3	-122.149E-12	726.690E-3	-8.49926E-3
-2.09355E-3	-122.773E-12	731.443E-3	-23.3511E-3	-119.475E-12	750.765E-3	-38.1725E-3
-2.09855E-3	-121.640E-12	760.295E-3	-25.7762E-3	-120.327E-12	743.469E-3	-30.0398E-3
-2.10355E-3	-120.091E-12	762.875E-3	-20.9147E-3	-122.681E-12	746.221E-3	5.92381E-3
-2.10855E-3	-121.216E-12	755.423E-3	-34.9917E-3	-122.127E-12	755.822E-3	16.9952E-3
-2.11356E-3	-124.522E-12	755.037E-3	-27.7425E-3	-121.444E-12	729.027E-3	-7.52270E-3
-2.11856E-3	-124.815E-12	743.692E-3	-16.3745E-3	-122.085E-12	697.857E-3	-27.2037E-3
-2.12356E-3	-122.956E-12	735.638E-3	-15.9586E-3	-122.255E-12	705.009E-3	-26.7374E-3
-2.12856E-3	-121.902E-12	728.436E-3	6.49781E-3	-122.879E-12	731.962E-3	-16.2483E-3
-2.13357E-3	-125.616E-12	720.716E-3	32.3990E-3	-123.553E-12	748.702E-3	-10.0545E-3
-2.13857E-3	-129.266E-12	740.236E-3	24.4264E-3	-123.402E-12	750.820E-3	-8.99909E-3
-2.14357E-3	-126.811E-12	765.390E-3	8.82955E-3	-121.915E-12	721.112E-3	-8.48342E-3
-2.14857E-3	-124.787E-12	752.525E-3	7.73174E-3	-122.382E-12	692.657E-3	-15.9490E-3
-2.15358E-3	-127.319E-12	723.372E-3	-214.077E-6	-122.783E-12	703.625E-3	-21.5205E-3
-2.15858E-3	-131.049E-12	725.184E-3	-16.1527E-3	-123.844E-12	703.384E-3	-7.00983E-3
-2.16358E-3	-128.941E-12	737.969E-3	-24.1464E-3	-123.722E-12	693.238E-3	13.2418E-3
-2.16858E-3	-125.092E-12	754.340E-3	-44.4214E-3	-122.031E-12	709.580E-3	15.8150E-3
-2.17359E-3	-125.975E-12	758.593E-3	-53.5624E-3	-122.886E-12	731.667E-3	10.3224E-3
-2.17859E-3	-128.141E-12	721.406E-3	-30.5008E-3	-124.591E-12	740.360E-3	1.60916E-3
-2.18359E-3	-128.258E-12	715.789E-3	-31.6246E-3	-124.720E-12	740.303E-3	-22.7860E-3
-2.18859E-3	-126.839E-12	766.476E-3	-30.3012E-3	-124.120E-12	730.938E-3	-38.5357E-3
-2.19360E-3	-126.179E-12	783.056E-3	-3.62422E-3	-125.499E-12	724.688E-3	-25.5391E-3
-2.19860E-3	-127.366E-12	754.216E-3	-1.89703E-3	-128.862E-12	742.004E-3	-21.9563E-3
-2.20360E-3	-128.969E-12	740.632E-3	-2.52083E-3	-129.789E-12	757.633E-3	-31.7874E-3
-2.20860E-3	-127.447E-12	721.924E-3	2.98466E-3	-127.997E-12	750.330E-3	-27.1685E-3
-2.21361E-3	-126.367E-12	693.996E-3	-12.4271E-3	-127.218E-12	744.276E-3	-31.4464E-3
-2.21861E-3	-129.420E-12	696.741E-3	-15.3514E-3	-129.262E-12	747.894E-3	-46.1433E-3
-2.22361E-3	-130.617E-12	708.239E-3	-531.747E-6	-132.501E-12	735.402E-3	-36.9436E-3
-2.22861E-3	-130.040E-12	708.585E-3	-7.02887E-3	-131.999E-12	720.215E-3	-11.9764E-3
-2.23362E-3	-127.743E-12	717.523E-3	-20.4779E-3	-129.153E-12	722.233E-3	-5.38668E-3
-2.23862E-3	-128.409E-12	718.510E-3	-2.94250E-3	-130.006E-12	711.726E-3	-6.61924E-3
-2.24362E-3	-130.483E-12	711.339E-3	-2.01030E-3	-131.376E-12	702.739E-3	-1.47597E-3
-2.24862E-3	-130.254E-12	727.173E-3	-31.2173E-3	-132.067E-12	723.732E-3	-18.3384E-3
-2.25363E-3	-128.890E-12	732.646E-3	-23.2794E-3	-131.161E-12	733.166E-3	-34.4757E-3
-2.25863E-3	-128.819E-12	708.244E-3	-7.25635E-3	-130.025E-12	711.559E-3	-5.84796E-3
-2.26363E-3	-130.211E-12	700.202E-3	-21.1184E-3	-130.638E-12	694.430E-3	6.09957E-3
-2.26863E-3	-129.101E-12	709.194E-3	-28.5071E-3	-131.589E-12	702.906E-3	-18.9523E-3
-2.27364E-3	-128.952E-12	709.256E-3	-24.9245E-3	-131.441E-12	717.234E-3	-28.9608E-3
-2.27864E-3	-129.944E-12	726.643E-3	-23.5332E-3	-129.720E-12	718.586E-3	-16.7313E-3
-2.28364E-3	-133.222E-12	751.974E-3	-26.7561E-3	-129.772E-12	721.706E-3	-4.00788E-3
-2.28864E-3	-132.329E-12	742.312E-3	-41.4816E-3	-131.443E-12	719.860E-3	-13.0422E-3
-2.29365E-3	-131.139E-12	731.966E-3	-57.2901E-3	-132.977E-12	704.534E-3	-21.4651E-3
-2.29865E-3	-131.700E-12	730.529E-3	-34.2513E-3	-133.008E-12	705.075E-3	-23.7463E-3
-2.30365E-3	-132.719E-12	714.179E-3	-15.8663E-3	-132.336E-12	717.985E-3	-33.1367E-3
-2.30865E-3	-132.574E-12	709.034E-3	-39.5719E-3	-132.985E-12	710.119E-3	-33.6430E-3
-2.31366E-3	-130.811E-12	719.160E-3	-37.0728E-3	-134.630E-12	709.267E-3	-21.1850E-3
-2.31866E-3	-130.690E-12	709.113E-3	-2.80128E-3	-136.331E-12	717.120E-3	-20.8401E-3
-2.32366E-3	-130.899E-12	694.144E-3	2.55681E-3	-134.833E-12	712.140E-3	-29.2837E-3
-2.32866E-3	-130.146E-12	705.366E-3	-4.03092E-3	-134.506E-12	732.635E-3	-11.3311E-3
-2.33367E-3	-129.761E-12	704.795E-3	-6.97468E-3	-136.274E-12	744.071E-3	-6.66579E-3
-2.33867E-3	-130.065E-12	689.236E-3	-28.1295E-3	-138.363E-12	719.320E-3	-26.0803E-3
-2.34367E-3	-129.881E-12	702.040E-3	-26.7393E-3	-136.745E-12	709.342E-3	-36.1046E-3
-2.34867E-3	-129.546E-12	708.773E-3	-8.09515E-3	-135.409E-12	717.103E-3	-57.7853E-3
-2.35368E-3	-130.332E-12	690.201E-3	-23.9227E-3	-135.027E-12	715.345E-3	-59.0253E-3
-2.35868E-3	-130.593E-12	683.754E-3	-50.2149E-3	-135.886E-12	697.222E-3	-6.06279E-3
-2.36368E-3	-132.074E-12	659.079E-3	-43.2008E-3	-135.193E-12	692.943E-3	15.1394E-3
-2.36868E-3	-132.218E-12	646.237E-3	-38.9022E-3	-134.917E-12	699.981E-3	-17.7035E-3
-2.37369E-3	-135.087E-12	684.887E-3	-46.2854E-3	-134.440E-12	689.317E-3	-25.3817E-3
-2.37869E-3	-136.821E-12	700.073E-3	-23.0118E-3	-133.535E-12	687.626E-3	-5.46190E-3
-2.38369E-3	-138.265E-12	693.775E-3	-5.86707E-3	-133.664E-12	688.645E-3	-6.44242E-3
-2.38869E-3	-137.482E-12	717.197E-3	-18.1782E-3	-132.800E-12	670.802E-3	-21.3399E-3
-2.39370E-3	-137.115E-12	741.173E-3	-26.3885E-3	-132.816E-12	668.830E-3	-15.7625E-3
-2.39870E-3	-140.200E-12	737.485E-3	-27.1463E-3	-132.779E-12	690.481E-3	-11.3268E-3
-2.40370E-3	-141.697E-12	733.684E-3	-25.8322E-3	-132.641E-12	705.467E-3	-15.5748E-3
-2.40870E-3	-139.592E-12	732.393E-3	-19.7230E-3	-133.248E-12	714.444E-3	-14.5393E-3
-2.41371E-3	-137.007E-12	715.075E-3	-29.1215E-3	-135.009E-12	724.904E-3	-19.4452E-3
-2.41871E-3	-137.971E-12	712.420E-3	-41.6933E-3	-134.593E-12	729.150E-3	-17.6951E-3
-2.42371E-3	-139.644E-12	724.710E-3	-7.27824E-3	-133.119E-12	727.429E-3	-12.0561E-3
-2.42871E-3	-139.351E-12	709.091E-3	15.0631E-3	-134.968E-12	710.035E-3	444.920E-6
-2.43372E-3	-135.604E-12	698.763E-3	-19.2792E-3	-136.488E-12	684.314E-3	18.0532E-3
-2.43872E-3	-135.011E-12	718.133E-3	-39.2821E-3	-137.889E-12	685.875E-3	3.04122E-3
-2.44372E-3	-136.454E-12	709.118E-3	-26.0045E-3	-137.061E-12	697.856E-3	-24.8301E-3
-2.44872E-3	-138.709E-12	679.132E-3	-24.5648E-3	-137.433E-12	702.675E-3	-24.4151E-3
-2.45373E-3	-137.795E-12	663.076E-3	-24.8102E-3	-138.314E-12	705.408E-3	-16.2069E-3
-2.45873E-3	-136.445E-12	653.950E-3	-26.3448E-3	-139.296E-12	703.806E-3	-18.1062E-3
-2.46373E-3	-137.400E-12	680.848E-3	-49.0521E-3	-140.150E-12	692.230E-3	-24.5794E-3
-2.46873E-3	-140.242E-12	724.398E-3	-42.9108E-3	-139.558E-12	677.995E-3	-32.4211E-3
-2.47374E-3	-143.606E-12	725.512E-3	-16.6242E-3	-139.092E-12	688.203E-3	-33.9168E-3
-2.47874E-3	-141.877E-12	715.061E-3	-16.7744E-3	-138.278E-12	698.618E-3	-36.3477E-3
-2.48374E-3	-141.321E-12	718.622E-3	-17.3343E-3	-139.149E-12	692.043E-3	-35.6921E-3
-2.48874E-3	-140.977E-12	710.013E-3	3.22797E-3	-138.526E-12	702.565E-3	-16.6685E-3
-2.49375E-3	-142.355E-12	707.662E-3	10.2333E-3	-139.034E-12	711.362E-3	-4.38440E-3
-2.49875E-3	-143.330E-12	726.439E-3	-21.5483E-3	-139.119E-12	705.742E-3	-24.0006E-3
-2.50375E-3	-142.038E-12	727.444E-3	-54.6508E-3	-139.548E-12	705.733E-3	-42.1894E-3
-2.50875E-3	-140.564E-12	704.196E-3	-47.1177E-3	-141.649E-12	701.729E-3	-43.8866E-3
-2.51376E-3	-139.323E-12	693.642E-3	-10.7575E-3	-142.211E-12	702.228E-3	-38.5303E-3
-2.51876E-3	-140.725E-12	681.332E-3	6.44530E-3	-141.979E-12	701.174E-3	-23.8524E-3
-2.52376E-3	-140.279E-12	672.933E-3	-5.40309E-3	-143.371E-12	695.627E-3	-10.6089E-3
-2.52876E-3	-139.098E-12	678.433E-3	-14.4432E-3	-146.740E-12	705.244E-3	-12.2292E-3
-2.53377E-3	-138.295E-12	676.965E-3	-15.0899E-3	-147.047E-12	707.461E-3	-21.0891E-3
-2.53877E-3	-140.163E-12	682.181E-3	-18.9056E-3	-145.432E-12	697.850E-3	-21.8203E-3
-2.54377E-3	-142.923E-12	683.535E-3	-20.3275E-3	-146.590E-12	696.370E-3	-27.2343E-3
-2.54877E-3	-140.824E-12	675.867E-3	-13.9088E-3	-148.434E-12	711.129E-3	-38.2838E-3
-2.55378E-3	-139.521E-12	683.898E-3	-3.93617E-3	-149.412E-12	724.714E-3	-36.4396E-3
-2.55878E-3	-140.698E-12	699.338E-3	4.62633E-3	-146.416E-12	700.997E-3	-18.1924E-3
-2.56378E-3	-144.024E-12	698.474E-3	18.8820E-3	-146.259E-12	668.901E-3	9.64866E-3
-2.56878E-3	-144.654E-12	677.186E-3	31.1663E-3	-145.598E-12	672.507E-3	11.6274E-3
-2.57379E-3	-143.813E-12	665.361E-3	14.9344E-3	-145.515E-12	682.251E-3	-15.2417E-3
-2.57879E-3	-142.910E-12	674.243E-3	-19.7364E-3	-144.626E-12	672.563E-3	-26.1638E-3
-2.58379E-3	-144.420E-12	670.597E-3	-45.4518E-3	-143.949E-12	652.565E-3	-14.1022E-3
-2.58879E-3	-146.828E-12	681.765E-3	-48.5071E-3	-141.919E-12	657.559E-3	-3.62644E-3
-2.59380E-3	-144.730E-12	713.762E-3	-31.9505E-3	-142.972E-12	691.896E-3	-2.30581E-3
-2.59880E-3	-143.050E-12	712.201E-3	-31.8059E-3	-142.695E-12	711.236E-3	-14.0193E-3
-2.60380E-3	-144.067E-12	687.334E-3	-36.0224E-3	-142.285E-12	715.762E-3	-11.6297E-3
-2.60880E-3	-145.302E-12	677.400E-3	-10.5447E-3	-142.169E-12	731.782E-3	6.11564E-3
-2.61381E-3	-144.451E-12	690.410E-3	-2.77989E-3	-144.220E-12	752.787E-3	4.46454E-3
-2.61881E-3	-142.644E-12	703.057E-3	-24.8058E-3	-145.706E-12	746.742E-3	-9.22618E-3
-2.62381E-3	-143.223E-12	694.864E-3	-34.1078E-3	-145.908E-12	722.317E-3	-14.5266E-3
-2.62881E-3	-143.238E-12	669.898E-3	-37.7991E-3	-146.885E-12	707.701E-3	-7.17158E-3
-2.63382E-3	-143.899E-12	660.111E-3	-45.8250E-3	-148.706E-12	703.431E-3	-2.06704E-3
-2.63882E-3	-143.866E-12	677.530E-3	-28.0885E-3	-149.334E-12	705.094E-3	-12.8289E-3
-2.64382E-3	-145.003E-12	687.417E-3	-9.32560E-3	-149.962E-12	709.344E-3	-1.77999E-3
-2.64882E-3	-144.223E-12	698.218E-3	-20.1448E-3	-149.700E-12	703.245E-3	8.70097E-3
-2.65383E-3	-145.597E-12	704.017E-3	-20.0757E-3	-149.251E-12	694.382E-3	-31.5674E-3
-2.65883E-3	-145.553E-12	684.238E-3	-22.4604E-3	-149.017E-12	695.120E-3	-64.0518E-3
-2.66383E-3	-146.810E-12	689.490E-3	-38.5682E-3	-149.961E-12	701.405E-3	-52.5690E-3
-2.66883E-3	-146.880E-12	720.915E-3	-37.3980E-3	-149.175E-12	690.007E-3	-6.36680E-3
-2.67384E-3	-147.176E-12	727.812E-3	-28.3753E-3	-147.473E-12	663.067E-3	25.6077E-3
-2.67884E-3	-146.910E-12	729.291E-3	-23.4959E-3	-146.379E-12	658.426E-3	2.63917E-3
-2.68384E-3	-148.275E-12	742.510E-3	-12.6147E-3	-148.206E-12	665.624E-3	-32.1500E-3
-2.68884E-3	-150.718E-12	738.925E-3	-9.31798E-3	-147.651E-12	669.457E-3	-24.9431E-3
-2.69385E-3	-149.829E-12	724.844E-3	-27.7880E-3	-146.146E-12	682.438E-3	13.0245E-3
-2.69885E-3	-150.330E-12	721.943E-3	-20.5982E-3	-145.103E-12	708.432E-3	15.1045E-3
-2.70385E-3	-152.144E-12	708.273E-3	-1.15671E-3	-146.228E-12	714.474E-3	-4.49098E-3
-2.70885E-3	-152.601E-12	693.611E-3	-21.2870E-3	-148.775E-12	674.493E-3	1.69726E-3
-2.71386E-3	-152.250E-12	701.294E-3	-33.5781E-3	-148.922E-12	647.321E-3	6.34395E-3
-2.71886E-3	-151.801E-12	688.536E-3	-2.02319E-3	-147.430E-12	679.527E-3	-5.94467E-3
-2.72386E-3	-151.758E-12	665.497E-3	4.77200E-3	-147.207E-12	704.872E-3	-22.2560E-3
-2.72886E-3	-151.377E-12	673.944E-3	-20.0688E-3	-150.486E-12	685.949E-3	-13.5061E-3
-2.73387E-3	-152.137E-12	696.751E-3	-14.9582E-3	-151.173E-12	681.379E-3	10.8346E-3
-2.73887E-3	-152.151E-12	705.095E-3	-8.49481E-3	-150.462E-12	698.785E-3	3.98094E-3
-2.74387E-3	-151.624E-12	715.401E-3	-13.1380E-3	-150.933E-12	688.810E-3	-16.1542E-3
-2.74887E-3	-151.033E-12	737.071E-3	-17.5098E-3	-151.943E-12	665.338E-3	-18.8400E-3
-2.75388E-3	-149.924E-12	730.301E-3	-36.2625E-3	-155.008E-12	675.716E-3	-18.6367E-3
-2.75888E-3	-149.991E-12	698.724E-3	-34.3579E-3	-155.203E-12	704.675E-3	-18.6381E-3
-2.76388E-3	-149.950E-12	663.818E-3	3.05827E-3	-154.661E-12	703.219E-3	-10.7441E-3
-2.76888E-3	-149.667E-12	649.725E-3	881.627E-6	-153.817E-12	693.601E-3	2.56526E-3
-2.77389E-3	-150.634E-12	670.070E-3	-26.4622E-3	-156.189E-12	702.377E-3	16.9890E-3
-2.77889E-3	-151.895E-12	690.583E-3	-16.5671E-3	-156.382E-12	713.657E-3	12.9041E-3
-2.78389E-3	-152.424E-12	702.321E-3	-11.3808E-3	-157.406E-12	714.479E-3	-7.68331E-3
-2.78889E-3	-151.592E-12	704.451E-3	-23.3550E-3	-155.292E-12	707.398E-3	-12.8599E-3
-2.79390E-3	-151.644E-12	698.199E-3	-35.3389E-3	-154.978E-12	695.871E-3	-7.46547E-3
-2.79890E-3	-153.041E-12	693.603E-3	-35.0341E-3	-156.196E-12	666.788E-3	-34.6909E-3
-2.80390E-3	-156.001E-12	685.009E-3	-29.8472E-3	-157.870E-12	652.736E-3	-54.2747E-3
-2.80890E-3	-155.259E-12	673.406E-3	-33.9158E-3	-154.848E-12	676.734E-3	-29.8580E-3
-2.81391E-3	-155.474E-12	670.223E-3	-39.5325E-3	-153.328E-12	698.970E-3	-22.0630E-3
-2.81891E-3	-157.118E-12	679.160E-3	-36.0570E-3	-153.724E-12	705.213E-3	-21.6243E-3
-2.82391E-3	-158.167E-12	691.414E-3	-2.21430E-3	-155.872E-12	712.492E-3	-16.7562E-3
-2.82891E-3	-156.923E-12	690.417E-3	10.2335E-3	-154.362E-12	703.467E-3	-25.2891E-3
-2.83392E-3	-156.681E-12	686.966E-3	-20.1100E-3	-152.688E-12	686.411E-3	-22.8029E-3
-2.83892E-3	-156.494E-12	697.502E-3	-28.8680E-3	-153.125E-12	701.371E-3	-27.0422E-3
-2.84392E-3	-157.336E-12	693.069E-3	-9.14119E-3	-154.764E-12	714.811E-3	-36.7260E-3
-2.84892E-3	-156.880E-12	685.817E-3	-5.08402E-3	-155.894E-12	700.652E-3	-18.6418E-3
-2.85393E-3	-154.468E-12	680.399E-3	-20.2309E-3	-155.778E-12	696.218E-3	5.92173E-3
-2.85893E-3	-154.566E-12	659.790E-3	-17.9157E-3	-156.928E-12	710.229E-3	3.82305E-3
-2.86393E-3	-155.337E-12	662.642E-3	3.18021E-3	-158.718E-12	704.212E-3	-16.3007E-3
-2.86893E-3	-155.973E-12	689.582E-3	21.0811E-3	-160.012E-12	693.464E-3	-18.2439E-3
-2.87394E-3	-155.717E-12	691.747E-3	12.6815E-3	-161.014E-12	717.722E-3	-25.6509E-3
-2.87894E-3	-155.321E-12	682.554E-3	-21.3044E-3	-160.903E-12	715.622E-3	-50.2091E-3
-2.88394E-3	-155.474E-12	682.615E-3	-38.9551E-3	-163.701E-12	678.435E-3	-48.0496E-3
-2.88894E-3	-155.602E-12	680.082E-3	-23.5904E-3	-160.337E-12	678.978E-3	-22.9849E-3
-2.89395E-3	-157.063E-12	688.105E-3	-13.6401E-3	-160.299E-12	704.002E-3	6.61374E-3
-2.89895E-3	-158.172E-12	705.069E-3	-22.5006E-3	-160.002E-12	711.881E-3	24.1437E-3
-2.90395E-3	-157.924E-12	723.945E-3	-30.1846E-3	-161.319E-12	713.757E-3	20.3070E-3
-2.90895E-3	-158.080E-12	742.289E-3	-38.2960E-3	-160.298E-12	687.557E-3	-12.0101E-3
-2.91396E-3	-159.084E-12	753.383E-3	-19.0034E-3	-159.103E-12	654.734E-3	-43.4894E-3
-2.91896E-3	-160.609E-12	728.050E-3	26.7833E-3	-157.909E-12	672.413E-3	-32.6374E-3
-2.92396E-3	-160.613E-12	689.010E-3	33.2565E-3	-156.629E-12	689.914E-3	-16.4004E-3
-2.92896E-3	-161.161E-12	692.534E-3	-5.20605E-3	-158.211E-12	674.130E-3	-12.8347E-3
-2.93397E-3	-160.777E-12	701.918E-3	-40.6990E-3	-157.237E-12	663.882E-3	-16.8159E-3
-2.93897E-3	-160.242E-12	698.186E-3	-56.3884E-3	-156.304E-12	678.247E-3	-36.8299E-3
-2.94397E-3	-159.637E-12	710.022E-3	-49.0077E-3	-157.389E-12	680.484E-3	-54.9174E-3
-2.94897E-3	-160.375E-12	721.156E-3	-22.6573E-3	-158.830E-12	687.469E-3	-43.5764E-3
-2.95398E-3	-161.889E-12	695.593E-3	-10.7464E-3	-161.171E-12	716.424E-3	-22.1993E-3
-2.95898E-3	-161.170E-12	672.897E-3	-26.6791E-3	-162.510E-12	700.153E-3	-16.7936E-3
-2.96398E-3	-160.638E-12	679.101E-3	-36.3978E-3	-164.191E-12	665.730E-3	-9.13833E-3
-2.96898E-3	-161.660E-12	681.062E-3	-30.4211E-3	-163.362E-12	671.684E-3	-18.1829E-3
-2.97399E-3	-162.655E-12	689.543E-3	-14.2879E-3	-164.767E-12	687.753E-3	-38.1199E-3
-2.97899E-3	-161.676E-12	717.502E-3	13.2419E-3	-165.035E-12	698.762E-3	-30.2579E-3
-2.98399E-3	-162.052E-12	725.230E-3	27.7324E-3	-166.540E-12	704.949E-3	-14.8649E-3
-2.98899E-3	-161.706E-12	714.360E-3	11.9047E-3	-165.656E-12	696.129E-3	-26.8558E-3
-2.99400E-3	-163.899E-12	707.551E-3	4.45289E-3	-164.618E-12	676.131E-3	-59.8591E-3
-2.99900E-3	-165.152E-12	685.056E-3	8.33523E-3	-163.826E-12	648.317E-3	-72.3760E-3
-3.00400E-3	-165.703E-12	683.293E-3	-23.9232E-3	-163.294E-12	627.045E-3	-53.3996E-3
-3.00900E-3	-165.074E-12	705.569E-3	-40.9380E-3	-162.494E-12	621.075E-3	-22.4406E-3
-3.01401E-3	-165.054E-12	712.744E-3	-15.4838E-3	-160.657E-12	639.568E-3	-11.1725E-3
-3.01901E-3	-165.676E-12	712.255E-3	726.980E-6	-160.517E-12	653.190E-3	-27.5079E-3
-3.02401E-3	-165.400E-12	698.967E-3	3.65532E-3	-159.764E-12	660.499E-3	-28.5657E-3
-3.02901E-3	-165.031E-12	684.609E-3	2.02740E-3	-159.655E-12	679.973E-3	-13.2431E-3
-3.03402E-3	-163.852E-12	688.184E-3	-2.93968E-3	-160.351E-12	684.970E-3	-6.42667E-3
-3.03902E-3	-164.217E-12	697.653E-3	-4.14284E-3	-161.916E-12	689.115E-3	-5.31098E-3
-3.04402E-3	-164.112E-12	689.377E-3	-16.3446E-3	-164.931E-12	697.112E-3	-558.795E-6
-3.04902E-3	-164.668E-12	671.413E-3	-34.2491E-3	-165.117E-12	698.123E-3	7.24312E-3
-3.05403E-3	-164.096E-12	684.864E-3	-25.7028E-3	-167.785E-12	704.592E-3	12.7413E-3
-3.05903E-3	-163.562E-12	706.193E-3	-11.8444E-3	-171.072E-12	718.166E-3	762.137E-6
-3.06403E-3	-164.056E-12	703.684E-3	-13.0437E-3	-172.593E-12	713.961E-3	-21.6739E-3
-3.06903E-3	-162.594E-12	702.266E-3	-8.84870E-3	-171.657E-12	692.092E-3	-14.8227E-3
-3.07404E-3	-162.218E-12	686.912E-3	-8.93746E-3	-173.867E-12	703.859E-3	15.7584E-3
-3.07904E-3	-162.835E-12	653.525E-3	-9.85520E-3	-177.208E-12	736.352E-3	12.2411E-3
-3.08404E-3	-163.462E-12	646.821E-3	-359.061E-6	-174.967E-12	728.818E-3	-29.2909E-3
-3.08904E-3	-164.250E-12	651.492E-3	-8.94324E-3	-174.072E-12	706.134E-3	-45.7808E-3
-3.09405E-3	-163.906E-12	653.109E-3	-35.6460E-3	-172.031E-12	701.808E-3	-36.0646E-3
-3.09905E-3	-164.812E-12	668.506E-3	-41.9542E-3	-171.677E-12	696.084E-3	-37.7207E-3
-3.10405E-3	-165.326E-12	678.374E-3	-32.3909E-3	-169.837E-12	693.951E-3	-30.4252E-3
-3.10905E-3	-167.018E-12	683.324E-3	-27.9587E-3	-170.398E-12	705.073E-3	-9.36588E-3
-3.11406E-3	-167.575E-12	693.745E-3	-19.6200E-3	-169.729E-12	690.204E-3	-5.75266E-3
-3.11906E-3	-167.722E-12	696.596E-3	-13.0117E-3	-169.072E-12	658.485E-3	-2.17068E-3
-3.12406E-3	-168.228E-12	682.996E-3	-11.3232E-3	-168.559E-12	656.469E-3	12.1574E-3
-3.12906E-3	-170.066E-12	677.526E-3	-25.2992E-3	-167.226E-12	664.722E-3	-3.58259E-3
-3.13407E-3	-170.240E-12	686.664E-3	-23.7366E-3	-168.300E-12	666.746E-3	-24.4406E-3
-3.13907E-3	-169.406E-12	687.115E-3	1.53283E-3	-169.499E-12	679.365E-3	2.39164E-3
-3.14407E-3	-168.441E-12	687.115E-3	-12.1477E-3	-169.270E-12	688.804E-3	39.7463E-3
-3.14907E-3	-170.611E-12	689.960E-3	-33.5932E-3	-169.007E-12	683.797E-3	50.0704E-3
-3.15408E-3	-171.447E-12	674.683E-3	-35.9271E-3	-170.445E-12	689.331E-3	39.3574E-3
-3.15908E-3	-169.010E-12	663.352E-3	-36.6204E-3	-172.483E-12	704.087E-3	11.5184E-3
-3.16408E-3	-167.827E-12	682.343E-3	-25.0184E-3	-172.345E-12	689.868E-3	-15.7814E-3
-3.16908E-3	-168.247E-12	679.152E-3	-38.4206E-3	-171.922E-12	654.211E-3	-25.0794E-3
-3.17409E-3	-170.426E-12	652.018E-3	-49.8798E-3	-172.062E-12	641.774E-3	-25.3083E-3
-3.17909E-3	-170.238E-12	663.853E-3	-16.3131E-3	-173.357E-12	670.783E-3	-27.6994E-3
-3.18409E-3	-169.842E-12	677.568E-3	4.99798E-3	-172.809E-12	698.432E-3	-28.3667E-3
-3.18909E-3	-170.107E-12	647.630E-3	-2.99594E-3	-173.155E-12	682.534E-3	-14.0335E-3
-3.19410E-3	-171.495E-12	643.973E-3	-9.44958E-3	-172.877E-12	651.400E-3	13.3656E-3
-3.19910E-3	-173.141E-12	680.332E-3	-1.90500E-3	-172.427E-12	641.535E-3	22.7332E-3
-3.20410E-3	-172.134E-12	689.770E-3	-9.71064E-3	-173.561E-12	660.370E-3	-1.07695E-3
-3.20910E-3	-172.098E-12	676.779E-3	-39.9982E-3	-173.449E-12	690.739E-3	-25.4651E-3
-3.21411E-3	-173.895E-12	667.448E-3	-37.2791E-3	-173.589E-12	699.864E-3	-22.3308E-3
-3.21911E-3	-175.832E-12	654.187E-3	-18.3417E-3	-174.488E-12	682.476E-3	-15.8532E-3
-3.22411E-3	-175.616E-12	675.937E-3	-17.3417E-3	-174.134E-12	679.612E-3	-19.7789E-3
-3.22911E-3	-176.218E-12	709.684E-3	-799.359E-6	-174.813E-12	697.930E-3	-29.8766E-3
-3.23412E-3	-176.428E-12	696.012E-3	9.50696E-3	-175.386E-12	692.775E-3	-53.3521E-3
-3.23912E-3	-177.444E-12	687.160E-3	-16.6773E-3	-174.375E-12	686.020E-3	-63.6484E-3
-3.24412E-3	-178.544E-12	700.168E-3	-33.9608E-3	-173.501E-12	694.873E-3	-41.9896E-3
-3.24912E-3	-176.496E-12	704.043E-3	-25.4586E-3	-173.565E-12	668.010E-3	-20.9144E-3
-3.25413E-3	-176.231E-12	700.300E-3	-12.7241E-3	-173.856E-12	632.692E-3	-2.50385E-3
-3.25913E-3	-175.974E-12	705.922E-3	-14.7957E-3	-172.039E-12	630.752E-3	27.9869E-3
-3.26413E-3	-177.307E-12	716.599E-3	-22.5293E-3	-172.903E-12	648.706E-3	43.7985E-3
-3.26913E-3	-178.894E-12	711.159E-3	-20.7408E-3	-171.778E-12	668.843E-3	35.3725E-3
-3.27414E-3	-176.194E-12	706.298E-3	-16.0355E-3	-171.638E-12	685.501E-3	22.7918E-3
-3.27914E-3	-176.635E-12	715.398E-3	-11.7464E-3	-172.084E-12	713.417E-3	-380.354E-6
-3.28414E-3	-176.894E-12	714.467E-3	-18.0351E-3	-173.797E-12	716.922E-3	-29.3127E-3
-3.28914E-3	-179.194E-12	695.025E-3	-40.1354E-3	-174.421E-12	680.365E-3	-27.1953E-3
-3.29415E-3	-175.780E-12	663.277E-3	-30.5002E-3	-175.701E-12	647.434E-3	-11.6985E-3
-3.29915E-3	-177.306E-12	655.856E-3	24.1055E-3	-174.778E-12	638.012E-3	-19.8412E-3
-3.30415E-3	-177.614E-12	673.064E-3	55.0864E-3	-176.252E-12	651.601E-3	-26.4968E-3
-3.30915E-3	-178.364E-12	674.023E-3	36.7274E-3	-177.824E-12	662.000E-3	-12.5710E-3
-3.31416E-3	-181.794E-12	680.187E-3	8.30861E-3	-178.709E-12	670.546E-3	-2.85262E-3
-3.31916E-3	-181.579E-12	699.719E-3	12.1519E-3	-177.996E-12	707.933E-3	-9.83562E-3
-3.32416E-3	-181.621E-12	699.959E-3	34.2662E-3	-179.675E-12	727.217E-3	-30.1023E-3
-3.32916E-3	-180.191E-12	690.587E-3	25.8270E-3	-181.508E-12	691.176E-3	-28.7613E-3
-3.33417E-3	-181.604E-12	695.083E-3	-7.94419E-3	-180.892E-12	670.257E-3	1.12973E-3
-3.33917E-3	-182.919E-12	712.837E-3	-25.6160E-3	-179.316E-12	703.616E-3	-6.69892E-3
-3.34417E-3	-183.865E-12	741.398E-3	-17.8908E-3	-178.537E-12	718.788E-3	-24.3494E-3
-3.34917E-3	-181.616E-12	723.405E-3	-8.30673E-3	-180.266E-12	702.980E-3	-18.5810E-3
-3.35418E-3	-180.692E-12	690.456E-3	-19.7675E-3	-182.058E-12	695.143E-3	-31.8677E-3
-3.35918E-3	-181.099E-12	714.920E-3	-35.9221E-3	-180.154E-12	683.447E-3	-28.4348E-3
-3.36418E-3	-179.895E-12	711.837E-3	-38.2314E-3	-178.114E-12	673.302E-3	-3.59588E-3
-3.36918E-3	-179.830E-12	663.862E-3	-49.8990E-3	-180.327E-12	684.054E-3	-9.84292E-3
-3.37419E-3	-178.696E-12	657.964E-3	-53.2727E-3	-183.936E-12	701.760E-3	-25.8967E-3
-3.37919E-3	-178.923E-12	684.992E-3	-33.9844E-3	-183.492E-12	700.962E-3	-29.1936E-3
-3.38419E-3	-176.733E-12	703.366E-3	-39.0654E-3	-182.141E-12	691.558E-3	-26.6870E-3
-3.38919E-3	-177.416E-12	709.175E-3	-41.7729E-3	-184.663E-12	695.053E-3	-15.5005E-3
-3.39420E-3	-180.210E-12	682.663E-3	2.13669E-3	-189.241E-12	716.037E-3	-17.2035E-3
-3.39920E-3	-179.804E-12	649.234E-3	27.3368E-3	-188.597E-12	736.750E-3	-36.0409E-3
-3.40420E-3	-180.691E-12	658.238E-3	8.69947E-3	-186.031E-12	726.071E-3	-34.5652E-3
-3.40920E-3	-181.932E-12	677.421E-3	-9.09348E-3	-187.474E-12	690.420E-3	-8.37646E-3
-3.41421E-3	-185.583E-12	674.758E-3	-30.5311E-3	-187.957E-12	664.872E-3	15.4010E-3
-3.41921E-3	-184.464E-12	683.829E-3	-54.2731E-3	-188.006E-12	666.599E-3	9.73170E-3
-3.42421E-3	-186.276E-12	719.510E-3	-34.3621E-3	-185.541E-12	686.382E-3	-28.4540E-3
-3.42921E-3	-187.915E-12	723.648E-3	-635.115E-6	-184.296E-12	688.221E-3	-57.4773E-3
-3.43422E-3	-189.757E-12	698.439E-3	-5.21953E-3	-183.240E-12	676.531E-3	-53.9490E-3
-3.43922E-3	-188.172E-12	694.776E-3	-7.12513E-3	-184.956E-12	676.275E-3	-47.3153E-3
-3.44422E-3	-187.693E-12	695.848E-3	-9.02299E-3	-182.884E-12	671.757E-3	-44.5651E-3
-3.44922E-3	-189.398E-12	695.221E-3	-42.9804E-3	-178.317E-12	673.953E-3	-42.6372E-3
-3.45423E-3	-190.024E-12	722.151E-3	-51.0098E-3	-179.652E-12	679.265E-3	-24.9189E-3
-3.45923E-3	-190.914E-12	743.466E-3	-21.6277E-3	-181.722E-12	668.189E-3	21.4980E-3
-3.46423E-3	-189.707E-12	724.503E-3	-10.8423E-3	-183.728E-12	657.562E-3	23.4547E-3
-3.46923E-3	-188.195E-12	712.798E-3	-17.8071E-3	-182.211E-12	662.401E-3	-23.3184E-3
-3.47424E-3	-185.814E-12	704.941E-3	-16.1294E-3	-183.893E-12	673.469E-3	-32.6428E-3
-3.47924E-3	-187.240E-12	681.668E-3	-43.7917E-3	-186.492E-12	688.226E-3	-22.7017E-3
-3.48424E-3	-186.302E-12	695.366E-3	-51.4799E-3	-189.394E-12	707.433E-3	-23.3685E-3
-3.48924E-3	-183.684E-12	709.817E-3	9.96304E-3	-189.445E-12	702.871E-3	-21.7402E-3
-3.49425E-3	-184.691E-12	692.318E-3	15.4667E-3	-188.803E-12	677.357E-3	-22.6947E-3
-3.49925E-3	-183.831E-12	703.368E-3	-41.1793E-3	-192.360E-12	698.139E-3	-27.0271E-3
-3.50425E-3	-185.309E-12	713.160E-3	-49.5848E-3	-194.212E-12	739.134E-3	-31.4830E-3
-3.50925E-3	-184.824E-12	693.986E-3	-21.5598E-3	-193.468E-12	715.381E-3	-18.9416E-3
-3.51426E-3	-184.952E-12	689.198E-3	-13.9845E-3	-191.033E-12	664.598E-3	-10.7532E-3
-3.51926E-3	-186.763E-12	676.853E-3	-21.4326E-3	-192.208E-12	653.427E-3	-26.7708E-3
-3.52426E-3	-190.163E-12	642.664E-3	-22.2146E-3	-190.674E-12	667.199E-3	-39.2336E-3
-3.52926E-3	-191.929E-12	651.178E-3	-31.3562E-3	-189.405E-12	674.872E-3	-22.9744E-3
-3.53427E-3	-191.041E-12	704.761E-3	-29.7302E-3	-186.129E-12	692.885E-3	-9.82453E-3
-3.53927E-3	-192.186E-12	721.339E-3	-16.6930E-3	-184.723E-12	710.526E-3	-26.3047E-3
-3.54427E-3	-193.966E-12	705.994E-3	-37.3370E-3	-185.907E-12	699.716E-3	-28.6282E-3
-3.54927E-3	-197.101E-12	718.315E-3	-61.3798E-3	-187.257E-12	680.298E-3	-15.8632E-3
-3.55428E-3	-194.267E-12	731.874E-3	-35.8829E-3	-185.391E-12	665.764E-3	-7.05507E-3
-3.55928E-3	-192.948E-12	720.706E-3	-24.1644E-3	-184.473E-12	667.959E-3	9.48607E-3
-3.56428E-3	-194.081E-12	731.072E-3	-58.7372E-3	-186.413E-12	679.264E-3	18.3077E-3
-3.56928E-3	-195.632E-12	737.157E-3	-31.7979E-3	-188.624E-12	693.790E-3	20.2767E-3
-3.57429E-3	-192.879E-12	701.816E-3	23.9937E-3	-188.750E-12	709.180E-3	35.3504E-3
-3.57929E-3	-190.729E-12	688.155E-3	12.6925E-3	-188.644E-12	711.195E-3	29.7175E-3
-3.58429E-3	-190.923E-12	691.752E-3	-5.99298E-3	-192.329E-12	708.304E-3	6.08476E-3
-3.58929E-3	-191.273E-12	676.214E-3	-7.87784E-3	-195.057E-12	717.410E-3	4.36421E-3
-3.59430E-3	-190.119E-12	678.335E-3	-38.5493E-3	-191.866E-12	727.139E-3	7.86670E-3
-3.59930E-3	-187.416E-12	699.681E-3	-42.9413E-3	-192.526E-12	697.043E-3	-5.19069E-3
-3.60430E-3	-189.229E-12	695.703E-3	-1.80300E-3	-193.808E-12	683.970E-3	-36.6559E-3
-3.60930E-3	-190.267E-12	673.595E-3	-9.29767E-3	-195.644E-12	718.955E-3	-60.6745E-3
-3.61431E-3	-190.893E-12	676.864E-3	-23.7705E-3	-193.270E-12	717.033E-3	-55.4445E-3
-3.61931E-3	-191.444E-12	682.385E-3	1.99430E-3	-191.979E-12	688.436E-3	-32.8558E-3
-3.62431E-3	-190.253E-12	670.312E-3	125.339E-6	-191.584E-12	689.099E-3	-9.42168E-3
-3.62931E-3	-192.195E-12	673.676E-3	-12.0614E-3	-193.789E-12	695.161E-3	1.77539E-3
-3.63432E-3	-193.320E-12	675.088E-3	-29.0038E-3	-193.441E-12	693.526E-3	-7.46794E-3
-3.63932E-3	-195.343E-12	679.026E-3	-63.3967E-3	-193.685E-12	696.323E-3	-31.6454E-3
-3.64432E-3	-194.582E-12	712.578E-3	-58.8748E-3	-194.740E-12	698.493E-3	-60.8309E-3
-3.64932E-3	-195.616E-12	725.017E-3	-36.1801E-3	-193.258E-12	681.996E-3	-53.2762E-3
-3.65433E-3	-195.358E-12	695.814E-3	-39.7933E-3	-194.136E-12	648.826E-3	-8.88133E-3
-3.65933E-3	-195.459E-12	689.181E-3	-42.8832E-3	-196.539E-12	659.139E-3	8.32323E-3
-3.66433E-3	-195.976E-12	684.509E-3	-16.4297E-3	-196.357E-12	692.996E-3	1.15651E-3
-3.66933E-3	-193.357E-12	666.935E-3	-2.84188E-3	-197.026E-12	691.945E-3	3.07601E-3
-3.67434E-3	-193.754E-12	681.746E-3	-25.0624E-3	-197.733E-12	670.899E-3	2.07610E-3
-3.67934E-3	-193.600E-12	680.181E-3	-35.7309E-3	-198.942E-12	657.978E-3	-5.57509E-3
-3.68434E-3	-194.383E-12	654.631E-3	-50.0271E-3	-198.174E-12	660.094E-3	-18.8054E-3
-3.68934E-3	-191.091E-12	673.795E-3	-49.4540E-3	-197.983E-12	667.300E-3	-34.8550E-3
-3.69435E-3	-190.402E-12	708.099E-3	-14.4454E-3	-197.232E-12	665.616E-3	-36.8279E-3
-3.69935E-3	-191.673E-12	700.976E-3	-8.80415E-3	-197.710E-12	678.970E-3	-44.9091E-3
-3.70435E-3	-193.800E-12	681.366E-3	-30.5864E-3	-197.450E-12	706.370E-3	-45.8838E-3
-3.70935E-3	-194.434E-12	680.276E-3	-47.7892E-3	-195.327E-12	697.871E-3	-19.9809E-3
-3.71436E-3	-192.654E-12	685.095E-3	-39.9569E-3	-194.743E-12	668.936E-3	-7.33898E-3
-3.71936E-3	-191.927E-12	690.731E-3	-16.0639E-3	-194.729E-12	656.925E-3	-5.76612E-3
-3.72436E-3	-195.534E-12	692.697E-3	-7.89431E-3	-196.116E-12	667.062E-3	-1.43182E-3
-3.72936E-3	-201.259E-12	676.848E-3	-18.7136E-3	-195.695E-12	683.629E-3	-4.57869E-3
-3.73437E-3	-197.416E-12	663.206E-3	-18.0128E-3	-194.915E-12	699.099E-3	-7.82517E-3
-3.73937E-3	-196.445E-12	672.970E-3	-5.56315E-3	-194.932E-12	728.981E-3	-6.01974E-3
-3.74437E-3	-199.163E-12	686.235E-3	-12.5303E-3	-195.155E-12	728.500E-3	-178.353E-6
-3.74937E-3	-203.507E-12	694.569E-3	-9.32243E-3	-196.807E-12	690.646E-3	-6.44374E-3
-3.75438E-3	-203.059E-12	688.763E-3	-598.599E-6	-195.824E-12	683.637E-3	-22.2796E-3
-3.75938E-3	-199.027E-12	663.706E-3	-6.11968E-3	-195.700E-12	703.329E-3	-32.1931E-3
-3.76438E-3	-200.083E-12	674.306E-3	-3.11993E-3	-196.316E-12	710.270E-3	-34.9533E-3
-3.76938E-3	-200.847E-12	728.263E-3	-1.93971E-3	-198.009E-12	710.645E-3	-24.9805E-3
-3.77439E-3	-202.571E-12	744.678E-3	-4.49185E-3	-197.200E-12	693.932E-3	-25.1144E-3
-3.77939E-3	-200.735E-12	725.210E-3	6.51065E-3	-196.597E-12	649.964E-3	-10.1320E-3
-3.78439E-3	-198.721E-12	700.527E-3	5.88802E-3	-198.003E-12	629.982E-3	27.0395E-3
-3.78939E-3	-199.128E-12	672.883E-3	-24.4515E-3	-197.623E-12	639.302E-3	39.6446E-3
-3.79440E-3	-199.139E-12	677.844E-3	-42.5513E-3	-198.517E-12	630.497E-3	22.6169E-3
-3.79940E-3	-199.886E-12	683.230E-3	-28.1213E-3	-197.668E-12	639.088E-3	-7.95771E-3
-3.80440E-3	-197.103E-12	677.524E-3	-13.6514E-3	-199.428E-12	678.486E-3	-37.0360E-3
-3.80940E-3	-198.155E-12	690.020E-3	-8.10538E-3	-202.223E-12	684.024E-3	-50.8517E-3
-3.81441E-3	-198.307E-12	674.953E-3	-6.72967E-3	-205.352E-12	679.126E-3	-24.9767E-3
-3.81941E-3	-201.669E-12	629.184E-3	-27.4100E-3	-204.043E-12	710.305E-3	11.1458E-3
-3.82441E-3	-198.941E-12	620.614E-3	-61.7437E-3	-202.449E-12	742.867E-3	8.00208E-3
-3.82941E-3	-198.839E-12	655.475E-3	-67.6444E-3	-205.795E-12	745.742E-3	-2.53577E-3
-3.83442E-3	-200.894E-12	680.883E-3	-54.8077E-3	-206.497E-12	716.387E-3	17.6343E-3
-3.83942E-3	-203.149E-12	688.861E-3	-35.9413E-3	-205.830E-12	682.780E-3	17.8566E-3
-3.84442E-3	-203.045E-12	679.305E-3	-10.9520E-3	-203.102E-12	681.364E-3	9.18842E-3
-3.84942E-3	-201.113E-12	662.292E-3	-8.87365E-3	-202.794E-12	691.670E-3	36.9985E-3
-3.85443E-3	-203.330E-12	682.146E-3	-23.6535E-3	-202.585E-12	681.615E-3	16.1517E-3
-3.85943E-3	-206.166E-12	726.315E-3	-18.3660E-3	-202.053E-12	652.722E-3	-29.0318E-3
-3.86443E-3	-207.697E-12	741.211E-3	4.65065E-3	-199.884E-12	641.009E-3	-20.5898E-3
-3.86943E-3	-203.901E-12	715.104E-3	16.8426E-3	-195.440E-12	658.877E-3	-9.02261E-3
-3.87444E-3	-204.934E-12	670.411E-3	-756.670E-6	-196.847E-12	669.075E-3	-1.60365E-3
-3.87944E-3	-205.531E-12	638.080E-3	-23.6758E-3	-199.282E-12	675.075E-3	921.144E-6
-3.88444E-3	-205.891E-12	642.904E-3	-37.5682E-3	-198.975E-12	679.224E-3	-9.82212E-3
-3.88944E-3	-204.838E-12	667.063E-3	-43.6117E-3	-196.710E-12	672.295E-3	-22.7807E-3
-3.89445E-3	-203.259E-12	685.199E-3	-41.3168E-3	-199.835E-12	660.943E-3	-61.6147E-3
-3.89945E-3	-204.472E-12	690.507E-3	-34.3227E-3	-204.235E-12	660.834E-3	-78.4265E-3
-3.90445E-3	-205.078E-12	693.936E-3	-17.7656E-3	-206.846E-12	698.483E-3	-45.6548E-3
-3.90945E-3	-202.746E-12	688.197E-3	-5.37889E-3	-205.753E-12	759.646E-3	-37.9365E-3
-3.91446E-3	-199.615E-12	691.728E-3	-5.53477E-3	-207.936E-12	792.959E-3	-59.0550E-3
-3.91946E-3	-200.494E-12	712.500E-3	2.27946E-3	-211.285E-12	764.600E-3	-69.1940E-3
-3.92446E-3	-201.744E-12	699.066E-3	17.3996E-3	-213.600E-12	707.120E-3	-64.9946E-3
-3.92946E-3	-202.165E-12	669.885E-3	-240.086E-6	-212.944E-12	692.661E-3	-33.4472E-3
-3.93447E-3	-201.768E-12	664.920E-3	-21.7928E-3	-212.242E-12	722.230E-3	-12.2925E-3
-3.93947E-3	-200.649E-12	663.712E-3	-20.4534E-3	-211.839E-12	728.913E-3	-20.6446E-3
-3.94447E-3	-203.899E-12	670.457E-3	-38.5228E-3	-211.808E-12	704.080E-3	-12.1956E-3
-3.94947E-3	-203.700E-12	688.385E-3	-55.5603E-3	-211.549E-12	681.127E-3	7.91888E-3
-3.95448E-3	-204.951E-12	676.295E-3	-25.1173E-3	-209.117E-12	679.392E-3	23.1763E-3
-3.95948E-3	-203.676E-12	659.087E-3	6.21926E-3	-207.554E-12	692.222E-3	15.6144E-3
-3.96448E-3	-205.213E-12	680.460E-3	4.08963E-3	-204.729E-12	695.965E-3	-5.35264E-3
-3.96948E-3	-207.737E-12	710.310E-3	-3.55741E-3	-204.905E-12	689.547E-3	-12.2566E-3
-3.97449E-3	-208.451E-12	706.255E-3	-15.8057E-3	-204.758E-12	669.144E-3	-36.4014E-3
-3.97949E-3	-206.699E-12	675.494E-3	-19.4477E-3	-203.923E-12	641.675E-3	-69.8107E-3
-3.98449E-3	-208.639E-12	655.575E-3	8.05717E-3	-204.769E-12	638.285E-3	-71.7170E-3
-3.98949E-3	-211.023E-12	654.083E-3	37.0115E-3	-206.644E-12	662.802E-3	-61.0571E-3
-3.99450E-3	-209.928E-12	676.146E-3	45.3161E-3	-208.121E-12	675.390E-3	-58.0317E-3
-3.99950E-3	-209.648E-12	695.428E-3	47.1876E-3	-208.229E-12	667.480E-3	-49.4884E-3
-4.00450E-3	-208.259E-12	677.804E-3	23.4973E-3	-211.875E-12	668.819E-3	-36.6443E-3
-4.00950E-3	-208.544E-12	643.041E-3	-19.6880E-3	-216.119E-12	674.665E-3	-41.1421E-3
-4.01451E-3	-208.510E-12	637.004E-3	-35.0769E-3	-214.254E-12	681.360E-3	-39.8685E-3
-4.01951E-3	-209.589E-12	669.947E-3	-36.5890E-3	-213.588E-12	696.882E-3	-16.9221E-3
-4.02451E-3	-207.631E-12	693.721E-3	-33.7914E-3	-215.027E-12	690.810E-3	-12.3376E-3
-4.02951E-3	-206.580E-12	698.112E-3	-11.9237E-3	-216.995E-12	671.283E-3	-23.2456E-3
-4.03452E-3	-208.982E-12	698.183E-3	-634.792E-6	-214.017E-12	668.874E-3	-26.3809E-3
-4.03952E-3	-209.143E-12	703.745E-3	-8.45988E-3	-214.279E-12	677.948E-3	-31.4733E-3
-4.04452E-3	-210.971E-12	729.743E-3	-5.04369E-3	-212.232E-12	681.936E-3	-35.1151E-3
-4.04952E-3	-211.133E-12	739.504E-3	-7.29279E-3	-212.993E-12	671.365E-3	-29.9192E-3
-4.05453E-3	-212.279E-12	709.340E-3	-31.8474E-3	-209.169E-12	658.376E-3	-30.3672E-3
-4.05953E-3	-211.641E-12	700.131E-3	-47.9444E-3	-209.809E-12	652.575E-3	-28.1339E-3
-4.06453E-3	-212.862E-12	690.305E-3	-44.2108E-3	-209.192E-12	648.419E-3	-9.10437E-3
-4.06953E-3	-214.844E-12	667.565E-3	-50.9085E-3	-209.156E-12	638.374E-3	21.0766E-3
-4.07454E-3	-213.648E-12	693.544E-3	-52.6194E-3	-207.896E-12	635.382E-3	37.6077E-3
-4.07954E-3	-213.093E-12	709.076E-3	-19.5897E-3	-209.535E-12	663.581E-3	24.3616E-3
-4.08454E-3	-214.190E-12	691.510E-3	-9.90714E-3	-210.207E-12	688.862E-3	-5.70068E-3
-4.08954E-3	-214.670E-12	693.918E-3	-19.8104E-3	-211.835E-12	699.758E-3	-24.5843E-3
-4.09455E-3	-213.099E-12	699.961E-3	-2.25968E-3	-212.862E-12	720.627E-3	-18.6655E-3
-4.09955E-3	-211.309E-12	678.209E-3	-7.90142E-3	-212.551E-12	696.665E-3	-14.6609E-3
-4.10455E-3	-212.177E-12	663.184E-3	-27.7528E-3	-214.005E-12	655.578E-3	-24.8363E-3
-4.10955E-3	-211.319E-12	673.226E-3	-18.2671E-3	-214.169E-12	653.280E-3	-24.7128E-3
-4.11456E-3	-211.779E-12	668.846E-3	-17.0920E-3	-215.882E-12	659.193E-3	-22.2297E-3
-4.11956E-3	-209.666E-12	666.477E-3	-26.9448E-3	-215.031E-12	659.374E-3	-18.8701E-3
-4.12456E-3	-210.784E-12	672.084E-3	-663.827E-6	-214.025E-12	648.787E-3	-5.85530E-3
-4.12956E-3	-210.179E-12	670.032E-3	42.6863E-3	-215.417E-12	656.183E-3	-17.9346E-3
-4.13457E-3	-213.503E-12	672.954E-3	28.6105E-3	-216.196E-12	669.669E-3	-34.4931E-3
-4.13957E-3	-212.954E-12	672.835E-3	-14.1477E-3	-215.619E-12	649.826E-3	-3.45475E-3
-4.14457E-3	-214.840E-12	669.563E-3	-24.5936E-3	-213.204E-12	628.090E-3	22.8341E-3
-4.14957E-3	-215.712E-12	674.159E-3	-37.2071E-3	-213.235E-12	615.638E-3	432.434E-6
-4.15458E-3	-216.499E-12	684.245E-3	-47.9236E-3	-214.331E-12	646.319E-3	-18.2067E-3
-4.15958E-3	-217.960E-12	679.996E-3	-46.4933E-3	-213.710E-12	711.348E-3	-29.7296E-3
-4.16458E-3	-217.962E-12	652.661E-3	-48.6906E-3	-212.846E-12	724.153E-3	-36.6418E-3
-4.16958E-3	-219.611E-12	650.918E-3	-27.5969E-3	-212.564E-12	714.633E-3	-20.9966E-3
-4.17459E-3	-218.374E-12	677.174E-3	1.72756E-3	-214.084E-12	722.620E-3	-5.29562E-3
-4.17959E-3	-219.035E-12	685.171E-3	-20.0236E-3	-214.045E-12	708.922E-3	-4.52837E-3
-4.18459E-3	-217.896E-12	679.760E-3	-66.6678E-3	-216.597E-12	677.838E-3	-5.94564E-3
-4.18959E-3	-216.246E-12	675.466E-3	-68.7551E-3	-216.074E-12	663.572E-3	-3.25044E-3
-4.19460E-3	-216.320E-12	670.605E-3	-40.6438E-3	-214.715E-12	662.102E-3	-3.64606E-3
-4.19960E-3	-216.558E-12	675.562E-3	-37.6519E-3	-213.905E-12	656.266E-3	-13.6697E-3
-4.20460E-3	-214.832E-12	695.950E-3	-75.4368E-3	-215.716E-12	660.297E-3	-32.8382E-3
-4.20960E-3	-213.084E-12	702.977E-3	-100.046E-3	-218.787E-12	688.445E-3	-18.8741E-3
-4.21461E-3	-215.233E-12	672.774E-3	-60.1325E-3	-217.952E-12	713.378E-3	28.7437E-3
-4.21961E-3	-215.124E-12	668.484E-3	-30.4002E-3	-218.711E-12	708.205E-3	37.3389E-3
-4.22461E-3	-213.635E-12	704.277E-3	-33.5952E-3	-218.541E-12	692.500E-3	14.0054E-3
-4.22961E-3	-213.490E-12	710.337E-3	-30.7663E-3	-221.366E-12	690.425E-3	474.462E-6
-4.23462E-3	-215.288E-12	698.457E-3	-32.7707E-3	-222.522E-12	685.797E-3	-3.74464E-3
-4.23962E-3	-217.517E-12	676.439E-3	-18.1616E-3	-223.371E-12	683.379E-3	-993.826E-6
-4.24462E-3	-215.727E-12	641.571E-3	-14.9154E-3	-225.247E-12	708.167E-3	-8.68192E-3
-4.24962E-3	-217.836E-12	633.122E-3	-40.2303E-3	-225.625E-12	718.430E-3	-22.0077E-3
-4.25463E-3	-219.533E-12	667.052E-3	-24.1859E-3	-226.561E-12	694.448E-3	-20.1129E-3
-4.25963E-3	-221.913E-12	691.218E-3	9.20776E-3	-225.589E-12	669.331E-3	-8.23836E-3
-4.26463E-3	-219.675E-12	678.920E-3	20.6537E-3	-225.430E-12	667.134E-3	-10.8037E-3
-4.26963E-3	-222.459E-12	676.616E-3	30.9040E-3	-224.521E-12	681.430E-3	-18.9123E-3
-4.27464E-3	-222.843E-12	680.706E-3	32.4399E-3	-224.993E-12	679.055E-3	-7.56607E-3
-4.27964E-3	-222.328E-12	682.624E-3	9.26235E-3	-222.199E-12	665.393E-3	19.2341E-3
-4.28464E-3	-224.184E-12	689.476E-3	-19.5811E-3	-221.322E-12	652.797E-3	25.5870E-3
-4.28964E-3	-224.543E-12	678.393E-3	-8.47853E-3	-222.408E-12	644.642E-3	14.6556E-3
-4.29465E-3	-225.445E-12	654.882E-3	1.39701E-3	-221.093E-12	641.214E-3	42.4937E-3
-4.29965E-3	-224.136E-12	664.850E-3	-48.3153E-3	-218.541E-12	658.036E-3	67.9538E-3
-4.30465E-3	-223.964E-12	681.199E-3	-81.7431E-3	-215.378E-12	681.315E-3	34.5198E-3
-4.30965E-3	-223.473E-12	663.675E-3	-64.6269E-3	-218.292E-12	673.421E-3	-1.11398E-3
-4.31466E-3	-224.409E-12	677.070E-3	-65.7357E-3	-221.378E-12	671.663E-3	396.170E-6
-4.31966E-3	-226.318E-12	723.080E-3	-43.1089E-3	-219.921E-12	691.682E-3	2.50704E-3
-4.32466E-3	-223.890E-12	729.415E-3	-2.35404E-3	-219.312E-12	697.856E-3	-20.9235E-3
-4.32966E-3	-222.666E-12	704.633E-3	-26.9127E-3	-218.895E-12	703.574E-3	-44.3685E-3
-4.33467E-3	-223.369E-12	693.739E-3	-54.6390E-3	-222.740E-12	721.803E-3	-60.1858E-3
-4.33967E-3	-226.297E-12	695.551E-3	-26.5340E-3	-224.743E-12	726.599E-3	-73.9776E-3
-4.34467E-3	-227.008E-12	664.711E-3	4.15634E-3	-227.146E-12	712.298E-3	-59.0184E-3
-4.34967E-3	-224.106E-12	639.053E-3	9.85898E-3	-228.286E-12	714.618E-3	-29.4715E-3
-4.35468E-3	-222.978E-12	649.187E-3	1.22971E-3	-230.042E-12	741.275E-3	-24.1076E-3
-4.35968E-3	-226.560E-12	651.807E-3	-12.1611E-3	-231.603E-12	735.254E-3	-27.8210E-3
-4.36468E-3	-228.734E-12	644.782E-3	-28.6313E-3	-230.233E-12	706.206E-3	-19.5795E-3
-4.36968E-3	-225.501E-12	638.057E-3	-35.8429E-3	-231.610E-12	691.306E-3	428.790E-6
-4.37469E-3	-225.264E-12	637.303E-3	-21.3795E-3	-228.905E-12	661.693E-3	11.3049E-3
-4.37969E-3	-226.982E-12	634.709E-3	-4.37965E-3	-227.977E-12	636.955E-3	-16.1523E-3
-4.38469E-3	-229.394E-12	642.396E-3	-16.9767E-3	-228.421E-12	648.578E-3	-39.6110E-3
-4.38969E-3	-227.653E-12	656.435E-3	-30.3672E-3	-227.865E-12	648.494E-3	-4.16549E-3
-4.39470E-3	-226.996E-12	645.347E-3	-6.74791E-3	-225.729E-12	632.394E-3	32.6196E-3
-4.39970E-3	-228.208E-12	648.994E-3	3.39753E-3	-224.881E-12	659.716E-3	303.187E-6
-4.40470E-3	-231.336E-12	679.025E-3	-418.273E-6	-224.638E-12	683.838E-3	-40.1111E-3
-4.40970E-3	-227.582E-12	671.916E-3	1.58596E-3	-224.568E-12	676.244E-3	-34.7961E-3
-4.41471E-3	-226.250E-12	663.894E-3	-17.0593E-3	-225.030E-12	683.412E-3	-27.6318E-3
-4.41971E-3	-226.088E-12	687.930E-3	-37.8506E-3	-224.682E-12	671.297E-3	-32.0307E-3
-4.42471E-3	-226.816E-12	685.404E-3	-34.0107E-3	-229.277E-12	660.162E-3	6.61739E-3
-4.42971E-3	-227.165E-12	661.827E-3	-26.8026E-3	-229.443E-12	687.415E-3	54.3404E-3
-4.43472E-3	-226.374E-12	655.060E-3	-20.0597E-3	-231.280E-12	679.107E-3	47.8019E-3
-4.43972E-3	-224.475E-12	666.480E-3	-11.1799E-3	-230.875E-12	667.025E-3	11.7231E-3
-4.44472E-3	-224.196E-12	687.811E-3	-1.36428E-3	-235.246E-12	702.409E-3	-15.2725E-3
-4.44972E-3	-227.017E-12	691.621E-3	16.9336E-3	-236.067E-12	701.774E-3	-16.1788E-3
-4.45473E-3	-228.306E-12	673.507E-3	14.3848E-3	-234.472E-12	670.908E-3	11.2390E-3
-4.45973E-3	-228.345E-12	667.233E-3	-18.9136E-3	-236.452E-12	679.317E-3	1.02077E-3
-4.46473E-3	-228.244E-12	683.368E-3	-53.5016E-3	-232.417E-12	676.016E-3	-41.3241E-3
-4.46973E-3	-231.202E-12	696.448E-3	-60.6807E-3	-232.536E-12	659.960E-3	-27.9001E-3
-4.47474E-3	-232.028E-12	691.085E-3	-38.8538E-3	-232.290E-12	682.416E-3	-8.56814E-3
-4.47974E-3	-234.109E-12	701.198E-3	-15.5411E-3	-232.021E-12	691.111E-3	-28.9969E-3
-4.48474E-3	-231.505E-12	712.598E-3	-2.17128E-3	-228.657E-12	649.005E-3	-50.8914E-3
-4.48974E-3	-232.090E-12	711.443E-3	-3.39798E-3	-227.718E-12	622.106E-3	-36.9035E-3
-4.49475E-3	-235.129E-12	721.811E-3	-19.9132E-3	-228.929E-12	635.124E-3	-28.0497E-3
-4.49975E-3	-234.884E-12	704.969E-3	-17.8535E-3	-228.736E-12	605.193E-3	-59.4606E-3
-4.50475E-3	-232.226E-12	676.247E-3	-23.3826E-3	-228.659E-12	584.503E-3	-42.3022E-3
-4.50975E-3	-229.919E-12	688.381E-3	-69.2849E-3	-227.713E-12	639.012E-3	6.49389E-3
-4.51476E-3	-232.337E-12	708.556E-3	-82.3184E-3	-228.886E-12	670.172E-3	-17.2547E-3
-4.51976E-3	-231.390E-12	707.406E-3	-49.1237E-3	-230.716E-12	680.175E-3	-66.5628E-3
-4.52476E-3	-228.259E-12	703.490E-3	-25.6329E-3	-233.299E-12	708.684E-3	-74.6151E-3
-4.52976E-3	-226.737E-12	696.322E-3	-7.99899E-3	-236.419E-12	682.913E-3	-75.5698E-3
-4.53477E-3	-224.986E-12	669.276E-3	-5.38546E-3	-235.632E-12	622.015E-3	-63.1724E-3
-4.53977E-3	-226.906E-12	614.672E-3	-6.79432E-3	-235.548E-12	632.520E-3	-36.2875E-3
-4.54477E-3	-225.012E-12	583.594E-3	-339.869E-6	-237.355E-12	675.350E-3	-42.4468E-3
-4.54977E-3	-225.445E-12	604.208E-3	-20.7745E-3	-240.697E-12	672.434E-3	-29.5938E-3
-4.55478E-3	-226.355E-12	635.411E-3	-37.3842E-3	-238.842E-12	672.689E-3	16.3594E-3
-4.55978E-3	-230.312E-12	650.772E-3	-17.4770E-3	-237.651E-12	685.239E-3	7.44086E-3
-4.56478E-3	-231.670E-12	626.359E-3	-5.62741E-3	-235.290E-12	676.078E-3	-50.6884E-3
-4.56978E-3	-230.486E-12	593.960E-3	-19.6217E-3	-236.578E-12	675.545E-3	-81.2036E-3
-4.57479E-3	-232.395E-12	600.511E-3	-33.9822E-3	-235.673E-12	687.237E-3	-60.5446E-3
-4.57979E-3	-236.047E-12	619.115E-3	-26.2925E-3	-233.578E-12	687.672E-3	-27.0095E-3
-4.58479E-3	-239.676E-12	633.997E-3	-6.90370E-3	-231.487E-12	671.436E-3	-14.2692E-3
-4.58979E-3	-239.821E-12	633.862E-3	-3.66495E-3	-231.418E-12	659.888E-3	-19.7195E-3
-4.59480E-3	-240.817E-12	621.095E-3	-7.66316E-3	-234.042E-12	657.457E-3	-25.0978E-3
-4.59980E-3	-240.634E-12	619.006E-3	-8.62487E-3	-231.239E-12	653.599E-3	-23.6860E-3
-4.60480E-3	-242.583E-12	625.413E-3	-9.36526E-3	-229.594E-12	664.793E-3	-37.9490E-3
-4.60980E-3	-243.255E-12	669.750E-3	-12.4871E-3	-230.049E-12	675.418E-3	-55.9413E-3
-4.61481E-3	-239.724E-12	732.898E-3	-27.1962E-3	-233.787E-12	670.148E-3	-49.0349E-3
-4.61981E-3	-238.982E-12	733.888E-3	-51.5571E-3	-235.109E-12	683.995E-3	-26.1289E-3
-4.62481E-3	-236.885E-12	688.503E-3	-53.4525E-3	-234.740E-12	679.365E-3	-19.1656E-3
-4.62981E-3	-236.074E-12	656.368E-3	-19.7271E-3	-234.980E-12	654.285E-3	-20.1372E-3
-4.63482E-3	-235.123E-12	659.814E-3	13.3754E-3	-235.931E-12	678.016E-3	-23.4114E-3
-4.63982E-3	-234.392E-12	665.534E-3	10.0759E-3	-238.527E-12	704.877E-3	-30.4092E-3
-4.64482E-3	-233.443E-12	665.978E-3	-23.9686E-3	-238.931E-12	691.595E-3	-17.0199E-3
-4.64982E-3	-235.604E-12	675.766E-3	-36.4732E-3	-239.642E-12	671.262E-3	-5.77684E-3
-4.65483E-3	-235.470E-12	660.581E-3	-22.7579E-3	-238.901E-12	653.289E-3	-11.8150E-3
-4.65983E-3	-234.936E-12	646.197E-3	-21.7295E-3	-239.268E-12	636.575E-3	-851.275E-6
-4.66483E-3	-236.976E-12	688.371E-3	-7.32082E-3	-238.711E-12	623.930E-3	4.74749E-3
-4.66983E-3	-237.422E-12	732.089E-3	21.3910E-3	-238.306E-12	630.527E-3	-37.5370E-3
-4.67484E-3	-239.067E-12	718.996E-3	20.9219E-3	-241.182E-12	653.993E-3	-65.3350E-3
-4.67984E-3	-239.624E-12	678.347E-3	12.8661E-3	-240.211E-12	679.180E-3	-35.3829E-3
-4.68484E-3	-242.508E-12	640.618E-3	9.97525E-3	-240.286E-12	690.947E-3	-10.5006E-3
-4.68984E-3	-242.976E-12	649.827E-3	-8.02344E-3	-239.178E-12	672.685E-3	-30.7334E-3
-4.69485E-3	-244.249E-12	691.633E-3	-17.2195E-3	-239.933E-12	658.000E-3	-45.4332E-3
-4.69985E-3	-245.749E-12	693.719E-3	-22.1495E-3	-238.675E-12	660.151E-3	-27.1673E-3
-4.70485E-3	-245.635E-12	682.103E-3	-52.2046E-3	-239.565E-12	661.177E-3	-33.5960E-3
-4.70985E-3	-246.041E-12	698.174E-3	-50.5400E-3	-241.509E-12	665.483E-3	-59.5061E-3
-4.71486E-3	-245.262E-12	690.727E-3	-2.08081E-3	-239.297E-12	668.443E-3	-76.6897E-3
-4.71986E-3	-246.140E-12	667.252E-3	2.55710E-3	-238.638E-12	665.467E-3	-89.4070E-3
-4.72486E-3	-244.086E-12	698.885E-3	-33.1594E-3	-238.152E-12	658.428E-3	-83.9181E-3
-4.72986E-3	-242.954E-12	735.437E-3	-37.8927E-3	-240.066E-12	647.208E-3	-65.9417E-3
-4.73487E-3	-241.307E-12	708.164E-3	-32.7569E-3	-238.963E-12	637.935E-3	-51.6520E-3
-4.73987E-3	-242.664E-12	671.255E-3	-22.6467E-3	-238.154E-12	634.293E-3	-28.7699E-3
-4.74487E-3	-242.183E-12	662.117E-3	-15.0367E-3	-237.819E-12	644.487E-3	741.596E-6
-4.74988E-3	-241.153E-12	662.920E-3	-31.7742E-3	-240.640E-12	703.819E-3	-15.8911E-3
-4.75488E-3	-241.723E-12	670.692E-3	-30.2951E-3	-241.076E-12	755.733E-3	-39.7630E-3
-4.75988E-3	-241.373E-12	688.970E-3	-28.6999E-3	-242.447E-12	737.530E-3	-5.46721E-3
-4.76488E-3	-241.698E-12	702.438E-3	-38.6185E-3	-243.554E-12	709.647E-3	6.87278E-3
-4.76988E-3	-240.512E-12	704.780E-3	-39.6854E-3	-243.804E-12	698.783E-3	-22.6940E-3
-4.77489E-3	-243.588E-12	694.603E-3	-38.1741E-3	-245.798E-12	693.879E-3	-27.7184E-3
-4.77989E-3	-242.232E-12	665.135E-3	-30.8283E-3	-246.501E-12	686.377E-3	-22.5375E-3
-4.78489E-3	-243.717E-12	636.111E-3	-22.1853E-3	-246.337E-12	667.971E-3	-29.7905E-3
-4.78989E-3	-244.258E-12	618.664E-3	-15.7403E-3	-245.669E-12	673.128E-3	-36.9623E-3
-4.79490E-3	-243.775E-12	609.440E-3	-32.5913E-3	-247.153E-12	692.827E-3	-40.0111E-3
-4.79990E-3	-244.251E-12	613.310E-3	-70.2662E-3	-248.770E-12	695.578E-3	-40.5353E-3
-4.80490E-3	-242.761E-12	635.756E-3	-58.1475E-3	-247.558E-12	700.872E-3	-51.0296E-3
-4.80990E-3	-245.232E-12	665.772E-3	-23.5041E-3	-245.353E-12	686.714E-3	-58.8127E-3
-4.81491E-3	-245.497E-12	699.143E-3	-43.3273E-3	-244.845E-12	657.005E-3	-50.4221E-3
-4.81991E-3	-245.005E-12	726.119E-3	-46.2113E-3	-248.407E-12	663.736E-3	-17.1279E-3
-4.82491E-3	-245.180E-12	721.908E-3	-13.2719E-3	-247.048E-12	700.142E-3	16.5603E-3
-4.82991E-3	-248.030E-12	709.551E-3	-15.3412E-3	-243.911E-12	705.292E-3	16.1246E-3
-4.83492E-3	-248.548E-12	705.441E-3	-16.1601E-3	-243.065E-12	677.847E-3	14.0024E-3
-4.83992E-3	-246.800E-12	694.339E-3	-7.85832E-3	-247.276E-12	677.039E-3	11.4347E-3
-4.84492E-3	-245.522E-12	656.324E-3	-30.7966E-3	-247.597E-12	684.947E-3	-23.4261E-3
-4.84992E-3	-248.341E-12	615.746E-3	-37.8154E-3	-246.812E-12	656.415E-3	-36.8202E-3
-4.85493E-3	-250.038E-12	621.541E-3	-24.9928E-3	-247.580E-12	622.063E-3	10.2368E-3
-4.85993E-3	-245.809E-12	665.079E-3	-39.4460E-3	-248.485E-12	645.201E-3	37.5329E-3
-4.86493E-3	-244.867E-12	692.193E-3	-54.3468E-3	-252.641E-12	673.931E-3	32.5166E-3
-4.86993E-3	-246.441E-12	666.386E-3	-69.4059E-3	-251.245E-12	667.528E-3	46.5268E-3
-4.87494E-3	-248.870E-12	642.205E-3	-67.7642E-3	-249.461E-12	676.453E-3	54.9301E-3
-4.87994E-3	-248.654E-12	657.407E-3	-39.2646E-3	-248.709E-12	684.821E-3	21.6618E-3
-4.88494E-3	-247.321E-12	670.615E-3	-34.4857E-3	-251.105E-12	671.417E-3	-6.61153E-3
-4.88995E-3	-248.335E-12	675.534E-3	-33.3420E-3	-249.111E-12	657.906E-3	-6.95280E-3
-4.89495E-3	-250.359E-12	686.910E-3	-5.16932E-3	-247.363E-12	663.452E-3	6.67736E-3
-4.89995E-3	-251.632E-12	678.541E-3	13.2669E-3	-245.208E-12	670.512E-3	27.0630E-3
-4.90495E-3	-253.233E-12	675.565E-3	-2.16622E-3	-243.405E-12	663.758E-3	29.9522E-3
-4.90995E-3	-252.626E-12	687.708E-3	-26.8706E-3	-245.736E-12	658.385E-3	28.2460E-3
-4.91496E-3	-254.137E-12	693.676E-3	-18.5784E-3	-243.450E-12	678.762E-3	24.8770E-3
-4.91996E-3	-255.448E-12	713.675E-3	8.00917E-3	-240.321E-12	701.123E-3	4.58705E-3
-4.92496E-3	-255.695E-12	721.210E-3	10.2498E-3	-240.107E-12	683.262E-3	-9.67210E-3
-4.92996E-3	-255.571E-12	699.576E-3	17.3551E-3	-243.475E-12	655.836E-3	-2.07344E-3
-4.93497E-3	-256.471E-12	688.186E-3	30.4168E-3	-245.489E-12	631.630E-3	7.97155E-3
-4.93997E-3	-256.118E-12	713.173E-3	-307.155E-6	-244.069E-12	616.642E-3	10.2348E-3
-4.94497E-3	-254.298E-12	726.092E-3	-24.7874E-3	-244.898E-12	625.195E-3	12.8722E-3
-4.94997E-3	-253.540E-12	715.538E-3	-13.4973E-3	-248.462E-12	653.967E-3	4.55305E-3
-4.95498E-3	-251.050E-12	721.693E-3	-7.12828E-3	-251.542E-12	693.393E-3	-21.2680E-3
-4.95998E-3	-250.474E-12	723.695E-3	16.6680E-3	-251.921E-12	709.329E-3	-17.4493E-3
-4.96498E-3	-248.109E-12	717.475E-3	24.4352E-3	-253.594E-12	702.787E-3	28.0469E-3
-4.96998E-3	-249.426E-12	692.339E-3	-10.8311E-3	-255.396E-12	689.246E-3	45.4277E-3
-4.97499E-3	-246.060E-12	645.319E-3	-34.1690E-3	-257.924E-12	657.511E-3	20.6050E-3
-4.97999E-3	-250.807E-12	636.592E-3	-48.3484E-3	-258.258E-12	646.706E-3	931.920E-6
-4.98499E-3	-250.001E-12	682.798E-3	-56.7838E-3	-255.982E-12	655.610E-3	-12.1920E-3
-4.98999E-3	-247.142E-12	705.865E-3	-27.5445E-3	-254.858E-12	652.323E-3	-23.4932E-3
-4.99500E-3	-249.715E-12	670.876E-3	-13.7979E-3	-253.808E-12	677.086E-3	-31.3117E-3
-5.00000E-3	-253.563E-12	667.396E-3	-38.2368E-3	-255.525E-12	695.824E-3	-43.7193E-3
