Experiment	bias spectroscopy	
Date	19.01.2016 19:42:44	
User		
X (m)	50.5322E-9	
Y (m)	256.872E-9	
Z (m)	-132.571E-9	
Z offset (m)	0E+0	
Settling time (s)	200E-6	
Integration time (s)	5E-3	
Z-Ctrl hold	TRUE	
Final Z (m)	N/A	
Filter type	None	
Order		
Cutoff frq		
Comment01	MnPc/Pb(111)	
Comment02	dz =00pm	
Comment03	7 Sweeps	
Comment04	MagField =0.T	
Comment05	Divider 1:10	
Comment06	Setpoint:5mV,200 pA	
Comment07	Lockin: 50uVrms,5ms,5mV	
Comment08	Gain:9; 912Hz modulation	
Comment09	T=1.06K	
Bias>Bias (V)	5E-3	
Bias>Calibration (V/V)	81.475E-3	
Bias>Offset (V)	1.046E-3	
Bias Spectroscopy>Sweep Start (V)	5E-3	
Bias Spectroscopy>Sweep End (V)	-5E-3	
Bias Spectroscopy>Num Pixel	2000	
Bias Spectroscopy>Z Avg time (s)	500E-3	
Bias Spectroscopy>Z offset (m)	0E+0	
Bias Spectroscopy>1st Settling time (s)	500E-3	
Bias Spectroscopy>Settling time (s)	200E-6	
Bias Spectroscopy>Integration time (s)	5E-3	
Bias Spectroscopy>End Settling time (s)	500E-3	
Bias Spectroscopy>Z control time (s)	500E-3	
Bias Spectroscopy>Max Slew rate (V/s)	Inf	
Bias Spectroscopy>backward sweep	TRUE	
Bias Spectroscopy>Z-controller hold	TRUE	
Bias Spectroscopy>Number of sweeps	7	
Bias Spectroscopy>Channels	Current (A);X% LockIn (V);Y% LockIn (V)	
Bias Spectroscopy>Reset Bias	TRUE	
Bias Spectroscopy>Record final Z	FALSE	
Bias Spectroscopy>Lock-In run	FALSE	
Bias Spectroscopy>Sweep mode	Linear	
Bias Spectroscopy>MultiLine Settings : Segment Start (V), Segment End (V), Settling (s), Integration (s), Steps (xn)	100E-3,3.3E-3,100E-6,10E-3,2500;3.3E-3,-3.3E-3,100E-6,10E-3,10;-3.3E-3,-100E-3,100E-6,10E-3,2500	
Current>Current (A)	200.595E-12	
Current>Calibration (A/V)	999.99900E-12	
Current>Offset (A)	-455.429E-15	
Current>Gain	LN 10^9	
Z-Controller>Z (m)	-132.571E-9	
Z-Controller>Controller name	log Current	
Z-Controller>Controller status	ON	
Z-Controller>Setpoint	200E-12	
Z-Controller>Setpoint unit	A	
Z-Controller>P gain	2.96994E-12	
Z-Controller>I gain	67.0321E-9	
Z-Controller>Time const (s)	44.3062E-6	
Z-Controller>TipLift (m)	0E+0	
Z-Controller>Switch off delay (s)	50E-3	
Current (A)	200.288E-12	
Z (m)	-132.571E-9	

[DATA]
Bias calc (V)	Current (A)	X% LockIn (V)	Y% LockIn (V)	Current [bwd] (A)	X% LockIn [bwd] (V)	Y% LockIn [bwd] (V)
5.00000E-3	195.707E-12	538.091E-3	1.42357E-3	196.078E-12	565.389E-3	-17.1904E-3
4.99500E-3	197.901E-12	582.459E-3	24.2371E-3	196.572E-12	574.072E-3	-37.9497E-3
4.98999E-3	199.239E-12	604.536E-3	27.3046E-3	195.572E-12	593.740E-3	-38.6161E-3
4.98499E-3	199.349E-12	606.389E-3	2.24684E-3	195.608E-12	586.865E-3	-37.6046E-3
4.97999E-3	198.087E-12	612.414E-3	-23.9838E-3	197.145E-12	570.647E-3	-49.1182E-3
4.97499E-3	198.175E-12	593.083E-3	-34.5837E-3	198.771E-12	578.373E-3	-51.9093E-3
4.96998E-3	200.523E-12	567.263E-3	-22.2965E-3	197.626E-12	574.849E-3	-33.6645E-3
4.96498E-3	199.853E-12	584.418E-3	-1.20686E-3	197.508E-12	577.825E-3	-37.8255E-3
4.95998E-3	198.452E-12	600.663E-3	-888.071E-6	196.425E-12	594.518E-3	-61.4132E-3
4.95498E-3	196.339E-12	596.382E-3	-10.8224E-3	196.355E-12	599.017E-3	-51.6332E-3
4.94997E-3	195.571E-12	576.854E-3	-18.3421E-3	196.342E-12	580.705E-3	-39.0993E-3
4.94497E-3	194.145E-12	552.675E-3	-33.5591E-3	195.907E-12	552.128E-3	-29.1886E-3
4.93997E-3	193.794E-12	562.169E-3	-46.8727E-3	195.135E-12	553.358E-3	-1.41175E-3
4.93497E-3	192.490E-12	596.846E-3	-56.2941E-3	194.080E-12	570.093E-3	-9.27611E-3
4.92996E-3	191.892E-12	600.077E-3	-66.5039E-3	194.286E-12	561.414E-3	-37.7301E-3
4.92496E-3	191.582E-12	572.008E-3	-66.7420E-3	193.371E-12	547.618E-3	-29.2342E-3
4.91996E-3	190.956E-12	553.058E-3	-51.6248E-3	192.617E-12	546.504E-3	4.74710E-3
4.91496E-3	190.461E-12	564.446E-3	-22.3344E-3	190.572E-12	554.197E-3	8.02828E-3
4.90995E-3	191.635E-12	600.405E-3	2.53461E-3	189.542E-12	556.535E-3	-4.61221E-3
4.90495E-3	191.582E-12	611.766E-3	15.2772E-3	190.040E-12	560.329E-3	-3.85686E-3
4.89995E-3	190.546E-12	577.447E-3	10.9398E-3	190.320E-12	577.665E-3	-13.3245E-3
4.89495E-3	191.681E-12	547.195E-3	-6.63946E-3	189.269E-12	587.267E-3	-17.6760E-3
4.88995E-3	190.720E-12	545.299E-3	-14.1038E-3	189.528E-12	568.434E-3	-30.8500E-3
4.88494E-3	193.246E-12	554.583E-3	-5.38811E-3	190.783E-12	539.275E-3	-50.8551E-3
4.87994E-3	194.090E-12	574.053E-3	3.29244E-3	189.947E-12	547.448E-3	-26.3825E-3
4.87494E-3	194.706E-12	582.071E-3	-18.5380E-3	189.063E-12	578.183E-3	-4.57256E-3
4.86993E-3	193.426E-12	573.910E-3	-49.6179E-3	188.983E-12	582.200E-3	-3.87330E-3
4.86493E-3	192.872E-12	545.337E-3	-39.0949E-3	189.932E-12	551.734E-3	13.1591E-3
4.85993E-3	192.148E-12	526.935E-3	-2.73888E-3	189.080E-12	550.758E-3	15.8065E-3
4.85493E-3	191.946E-12	536.316E-3	-2.37394E-3	188.087E-12	574.846E-3	-5.06784E-3
4.84992E-3	191.482E-12	549.705E-3	-13.2345E-3	188.657E-12	558.154E-3	-19.1513E-3
4.84492E-3	189.758E-12	558.935E-3	6.90366E-3	189.033E-12	557.207E-3	-22.7158E-3
4.83992E-3	188.018E-12	566.133E-3	16.3388E-3	187.059E-12	567.122E-3	-14.3025E-3
4.83492E-3	187.309E-12	596.006E-3	4.23053E-3	186.080E-12	528.393E-3	21.6858E-3
4.82991E-3	187.209E-12	605.315E-3	-1.44113E-3	185.918E-12	506.138E-3	51.4840E-3
4.82491E-3	186.396E-12	556.566E-3	-20.3570E-3	185.766E-12	543.089E-3	39.0580E-3
4.81991E-3	184.768E-12	524.798E-3	-46.7757E-3	184.765E-12	578.000E-3	2.95646E-3
4.81491E-3	185.003E-12	547.801E-3	-47.6309E-3	184.797E-12	561.076E-3	-23.7400E-3
4.80990E-3	184.945E-12	562.270E-3	-45.9124E-3	184.651E-12	538.260E-3	-30.4710E-3
4.80490E-3	184.840E-12	554.223E-3	-61.9241E-3	185.923E-12	536.428E-3	-25.8847E-3
4.79990E-3	185.243E-12	540.717E-3	-67.7821E-3	186.228E-12	520.243E-3	-13.1919E-3
4.79490E-3	186.092E-12	536.364E-3	-46.4948E-3	186.686E-12	516.008E-3	11.5095E-3
4.78989E-3	186.690E-12	562.511E-3	-30.6028E-3	186.671E-12	547.012E-3	15.4148E-3
4.78489E-3	187.164E-12	590.962E-3	-23.0059E-3	187.588E-12	568.594E-3	-6.15896E-3
4.77989E-3	188.027E-12	612.281E-3	-29.5408E-3	186.169E-12	564.751E-3	-7.28329E-3
4.77489E-3	188.803E-12	603.222E-3	-40.2786E-3	185.886E-12	556.803E-3	-9.72006E-3
4.76988E-3	189.308E-12	563.956E-3	-9.70311E-3	186.381E-12	549.263E-3	-19.8901E-3
4.76488E-3	188.819E-12	546.649E-3	29.3858E-3	188.156E-12	548.337E-3	-1.93445E-3
4.75988E-3	188.550E-12	554.588E-3	19.6705E-3	187.857E-12	556.071E-3	23.1672E-3
4.75488E-3	187.226E-12	563.691E-3	-12.5753E-3	186.464E-12	567.397E-3	17.3920E-3
4.74988E-3	186.282E-12	549.213E-3	-24.1856E-3	185.810E-12	573.080E-3	-17.1874E-3
4.74487E-3	185.394E-12	545.706E-3	-21.5683E-3	185.913E-12	574.203E-3	-39.4602E-3
4.73987E-3	184.637E-12	585.172E-3	-19.0056E-3	186.471E-12	565.823E-3	-29.2107E-3
4.73487E-3	183.299E-12	592.793E-3	-18.7556E-3	185.366E-12	520.537E-3	-27.5567E-3
4.72986E-3	181.145E-12	554.780E-3	-29.0180E-3	183.922E-12	493.237E-3	-41.3687E-3
4.72486E-3	180.901E-12	542.853E-3	-39.9615E-3	184.598E-12	521.366E-3	-36.3320E-3
4.71986E-3	181.566E-12	549.165E-3	-24.2377E-3	184.748E-12	556.927E-3	-9.83972E-3
4.71486E-3	181.422E-12	572.510E-3	-18.5956E-3	185.149E-12	569.194E-3	12.3569E-3
4.70985E-3	180.130E-12	614.987E-3	-31.8509E-3	183.562E-12	564.937E-3	-615.801E-6
4.70485E-3	180.328E-12	614.109E-3	-20.6174E-3	183.186E-12	560.828E-3	-11.4954E-3
4.69985E-3	181.495E-12	564.318E-3	-24.5385E-3	183.439E-12	560.669E-3	-25.6007E-3
4.69485E-3	182.493E-12	539.527E-3	-50.7917E-3	184.868E-12	560.271E-3	-44.4924E-3
4.68984E-3	183.066E-12	545.523E-3	-56.9559E-3	184.553E-12	570.037E-3	-22.4329E-3
4.68484E-3	183.534E-12	565.028E-3	-44.6737E-3	183.659E-12	581.856E-3	-13.0204E-3
4.67984E-3	183.796E-12	598.074E-3	-38.4580E-3	184.671E-12	579.430E-3	-29.4031E-3
4.67484E-3	184.118E-12	599.945E-3	-49.2679E-3	185.056E-12	581.980E-3	-24.0714E-3
4.66983E-3	186.039E-12	589.028E-3	-46.8831E-3	185.639E-12	586.512E-3	-10.3950E-3
4.66483E-3	186.641E-12	589.960E-3	-10.6435E-3	183.999E-12	575.838E-3	-7.45275E-3
4.65983E-3	185.330E-12	584.529E-3	14.3786E-3	182.940E-12	574.184E-3	7.10958E-3
4.65483E-3	184.044E-12	575.233E-3	-198.617E-6	183.538E-12	570.991E-3	13.4334E-3
4.64982E-3	184.542E-12	555.621E-3	-28.0851E-3	184.247E-12	552.241E-3	-11.8248E-3
4.64482E-3	184.757E-12	534.532E-3	-41.4261E-3	182.986E-12	553.400E-3	-30.6808E-3
4.63982E-3	182.536E-12	550.679E-3	-32.3921E-3	182.454E-12	565.784E-3	-23.3629E-3
4.63482E-3	180.543E-12	591.655E-3	-14.0997E-3	182.662E-12	556.465E-3	5.77992E-3
4.62981E-3	179.659E-12	604.197E-3	-19.7729E-3	182.831E-12	546.252E-3	26.3551E-3
4.62481E-3	181.510E-12	583.656E-3	-42.7409E-3	182.279E-12	558.224E-3	5.66685E-3
4.61981E-3	179.556E-12	550.053E-3	-36.7801E-3	181.159E-12	570.692E-3	-17.1409E-3
4.61481E-3	177.203E-12	532.632E-3	-8.64903E-3	180.619E-12	580.518E-3	-10.6308E-3
4.60980E-3	176.300E-12	544.497E-3	6.47428E-3	180.053E-12	567.904E-3	3.25099E-3
4.60480E-3	176.890E-12	576.535E-3	-14.2324E-3	180.272E-12	539.364E-3	24.8713E-3
4.59980E-3	177.917E-12	589.434E-3	-37.6404E-3	179.906E-12	534.151E-3	26.7341E-3
4.59480E-3	177.139E-12	561.685E-3	-22.9090E-3	179.308E-12	558.008E-3	4.17761E-3
4.58979E-3	177.035E-12	539.523E-3	-3.70803E-3	178.114E-12	570.057E-3	4.67354E-3
4.58479E-3	176.814E-12	534.790E-3	-9.61955E-3	178.190E-12	545.661E-3	18.3685E-3
4.57979E-3	177.648E-12	541.839E-3	-1.95442E-3	178.449E-12	543.154E-3	5.35018E-3
4.57479E-3	178.050E-12	559.475E-3	-276.202E-6	177.175E-12	565.645E-3	-9.40745E-3
4.56978E-3	178.183E-12	567.151E-3	-44.2147E-3	177.084E-12	586.167E-3	-123.256E-6
4.56478E-3	177.837E-12	563.464E-3	-54.3477E-3	177.474E-12	613.033E-3	10.3597E-3
4.55978E-3	178.566E-12	577.386E-3	-29.6087E-3	177.443E-12	610.574E-3	23.7730E-3
4.55478E-3	180.011E-12	597.589E-3	-36.7637E-3	177.574E-12	572.041E-3	29.4188E-3
4.54977E-3	180.222E-12	592.340E-3	-49.0818E-3	177.527E-12	542.693E-3	19.6656E-3
4.54477E-3	179.487E-12	576.756E-3	-38.8278E-3	178.636E-12	545.033E-3	-3.73685E-3
4.53977E-3	178.337E-12	563.104E-3	-19.2422E-3	177.830E-12	546.866E-3	-45.0802E-3
4.53477E-3	177.823E-12	551.526E-3	-8.30700E-3	177.593E-12	535.160E-3	-50.7768E-3
4.52976E-3	178.337E-12	544.041E-3	-21.9393E-3	177.357E-12	565.805E-3	-5.62037E-3
4.52476E-3	177.858E-12	534.696E-3	-31.0193E-3	178.459E-12	602.889E-3	33.8895E-3
4.51976E-3	177.568E-12	534.361E-3	-11.0919E-3	177.448E-12	586.159E-3	37.5002E-3
4.51476E-3	176.355E-12	548.245E-3	960.606E-6	176.114E-12	569.374E-3	14.4465E-3
4.50975E-3	176.656E-12	571.841E-3	-2.12769E-3	175.214E-12	578.932E-3	-14.9759E-3
4.50475E-3	175.516E-12	601.765E-3	7.12908E-3	175.321E-12	580.069E-3	-16.6539E-3
4.49975E-3	175.700E-12	602.547E-3	7.22931E-3	175.017E-12	586.810E-3	6.21883E-3
4.49475E-3	174.984E-12	562.912E-3	-24.9359E-3	174.694E-12	593.454E-3	3.65642E-3
4.48974E-3	175.305E-12	511.756E-3	-30.5499E-3	173.860E-12	576.969E-3	-23.7298E-3
4.48474E-3	175.821E-12	499.793E-3	6.94843E-3	173.332E-12	566.421E-3	-39.4210E-3
4.47974E-3	174.467E-12	531.173E-3	686.366E-6	173.456E-12	555.341E-3	-53.2207E-3
4.47474E-3	174.324E-12	555.581E-3	-35.9634E-3	174.723E-12	545.897E-3	-66.0520E-3
4.46973E-3	175.422E-12	557.831E-3	-25.3177E-3	173.854E-12	550.678E-3	-60.3167E-3
4.46473E-3	176.685E-12	569.114E-3	-12.3193E-3	173.718E-12	549.294E-3	-42.1194E-3
4.45973E-3	175.442E-12	596.859E-3	-35.5029E-3	174.336E-12	547.045E-3	-31.6247E-3
4.45473E-3	174.959E-12	605.519E-3	-49.8560E-3	175.392E-12	553.544E-3	-40.8164E-3
4.44972E-3	175.165E-12	582.082E-3	-38.4801E-3	174.870E-12	572.065E-3	-30.9086E-3
4.44472E-3	176.478E-12	554.803E-3	-12.1407E-3	174.791E-12	598.932E-3	1.00562E-3
4.43972E-3	176.194E-12	556.625E-3	13.3681E-3	176.136E-12	612.659E-3	19.5687E-3
4.43472E-3	174.578E-12	593.398E-3	1.66422E-3	176.571E-12	583.204E-3	24.7336E-3
4.42971E-3	175.255E-12	615.868E-3	-43.9289E-3	175.044E-12	542.261E-3	26.8684E-3
4.42471E-3	173.475E-12	610.266E-3	-65.5556E-3	173.469E-12	551.659E-3	16.2429E-3
4.41971E-3	172.751E-12	606.753E-3	-45.0147E-3	174.561E-12	576.702E-3	-23.0906E-3
4.41471E-3	171.913E-12	588.217E-3	-1.84477E-3	173.757E-12	575.085E-3	-54.8275E-3
4.40970E-3	170.500E-12	565.981E-3	28.1208E-3	172.248E-12	566.380E-3	-48.3869E-3
4.40470E-3	169.270E-12	570.910E-3	8.98948E-3	172.077E-12	549.444E-3	-45.1499E-3
4.39970E-3	169.277E-12	591.057E-3	-28.9673E-3	172.605E-12	550.312E-3	-39.4874E-3
4.39470E-3	169.505E-12	587.429E-3	-45.5257E-3	171.725E-12	586.723E-3	-8.69546E-3
4.38969E-3	168.053E-12	544.841E-3	-57.6962E-3	170.783E-12	577.623E-3	3.77032E-3
4.38469E-3	167.315E-12	528.447E-3	-57.8717E-3	170.815E-12	535.996E-3	-7.63287E-3
4.37969E-3	166.714E-12	553.542E-3	-29.1629E-3	170.856E-12	552.439E-3	-25.2364E-3
4.37469E-3	167.927E-12	561.624E-3	-9.57580E-3	170.904E-12	584.120E-3	-44.2769E-3
4.36968E-3	168.675E-12	539.744E-3	7.15551E-3	171.066E-12	591.154E-3	-43.8016E-3
4.36468E-3	169.561E-12	512.907E-3	34.5705E-3	171.411E-12	591.783E-3	-24.8478E-3
4.35968E-3	169.680E-12	513.031E-3	26.5183E-3	171.897E-12	593.953E-3	-11.8905E-3
4.35468E-3	170.961E-12	535.282E-3	-26.4907E-3	172.613E-12	606.286E-3	-17.2601E-3
4.34967E-3	172.025E-12	557.992E-3	-49.2682E-3	172.480E-12	606.661E-3	-15.8828E-3
4.34467E-3	171.793E-12	562.798E-3	-21.8588E-3	172.025E-12	601.495E-3	38.0159E-6
4.33967E-3	171.952E-12	564.692E-3	274.702E-6	171.998E-12	595.769E-3	27.8305E-3
4.33467E-3	171.578E-12	603.506E-3	7.59083E-3	171.470E-12	591.108E-3	41.1869E-3
4.32966E-3	171.849E-12	635.633E-3	-9.51458E-3	171.836E-12	597.515E-3	19.8839E-3
4.32466E-3	170.903E-12	634.941E-3	-48.6284E-3	171.734E-12	589.236E-3	-5.96464E-3
4.31966E-3	170.333E-12	607.509E-3	-57.8729E-3	170.269E-12	565.705E-3	-14.3813E-3
4.31466E-3	168.402E-12	568.276E-3	-29.5684E-3	169.556E-12	548.594E-3	-5.09088E-3
4.30965E-3	167.123E-12	551.467E-3	-24.1932E-3	169.313E-12	548.212E-3	-6.12115E-3
4.30465E-3	167.710E-12	548.114E-3	-42.9223E-3	168.776E-12	553.640E-3	-16.0986E-3
4.29965E-3	165.979E-12	551.847E-3	-38.6241E-3	166.699E-12	565.901E-3	-10.0640E-3
4.29465E-3	164.307E-12	562.420E-3	-32.2950E-3	166.333E-12	577.184E-3	-94.9618E-6
4.28964E-3	163.378E-12	567.549E-3	-32.4560E-3	165.786E-12	575.437E-3	-10.7440E-3
4.28464E-3	164.501E-12	561.385E-3	-22.6968E-3	165.860E-12	583.411E-3	-26.0687E-3
4.27964E-3	164.453E-12	562.401E-3	-23.8202E-3	165.418E-12	589.144E-3	-34.4347E-3
4.27464E-3	164.337E-12	563.507E-3	-40.3934E-3	165.951E-12	585.887E-3	-25.2643E-3
4.26963E-3	165.072E-12	563.666E-3	-39.4746E-3	165.565E-12	581.512E-3	-5.83160E-3
4.26463E-3	166.481E-12	555.315E-3	-24.5105E-3	165.816E-12	564.258E-3	-10.6800E-3
4.25963E-3	166.700E-12	552.586E-3	-26.4935E-3	165.961E-12	530.171E-3	-16.0400E-3
4.25463E-3	167.432E-12	573.422E-3	-20.8698E-3	166.222E-12	512.758E-3	-9.24326E-3
4.24962E-3	168.329E-12	577.171E-3	-7.59969E-3	166.887E-12	537.491E-3	-2.75476E-3
4.24462E-3	168.568E-12	572.062E-3	-7.26382E-3	165.905E-12	571.054E-3	5.28228E-3
4.23962E-3	168.785E-12	560.038E-3	8.41649E-3	166.080E-12	581.945E-3	-14.5430E-3
4.23462E-3	168.890E-12	548.672E-3	11.8295E-3	166.657E-12	576.610E-3	-25.5873E-3
4.22961E-3	168.179E-12	556.663E-3	3.75836E-3	166.108E-12	563.251E-3	-13.4097E-3
4.22461E-3	167.746E-12	556.671E-3	2.26135E-3	165.440E-12	572.072E-3	-39.7065E-3
4.21961E-3	167.154E-12	551.118E-3	-12.9012E-3	165.025E-12	601.724E-3	-59.2268E-3
4.21461E-3	167.116E-12	560.758E-3	-19.3714E-3	165.376E-12	599.154E-3	-35.1725E-3
4.20960E-3	165.481E-12	564.323E-3	-5.14609E-3	163.971E-12	587.285E-3	-3.64014E-3
4.20460E-3	163.981E-12	555.136E-3	4.81267E-3	163.101E-12	588.435E-3	5.88441E-3
4.19960E-3	163.475E-12	565.411E-3	-19.0519E-3	162.557E-12	588.739E-3	-8.18736E-3
4.19460E-3	163.236E-12	584.275E-3	-34.7001E-3	162.905E-12	585.109E-3	-21.3561E-3
4.18959E-3	162.642E-12	568.293E-3	-34.3829E-3	162.007E-12	571.913E-3	-26.3567E-3
4.18459E-3	162.134E-12	561.446E-3	-51.9559E-3	162.139E-12	556.108E-3	-11.7424E-3
4.17959E-3	161.381E-12	576.402E-3	-51.9012E-3	163.218E-12	555.235E-3	6.95462E-3
4.17459E-3	161.943E-12	559.309E-3	-43.4527E-3	161.868E-12	557.478E-3	2.26851E-3
4.16958E-3	161.935E-12	563.061E-3	-48.9760E-3	161.187E-12	559.961E-3	1.12023E-3
4.16458E-3	161.473E-12	593.933E-3	-32.0079E-3	160.849E-12	563.781E-3	7.50238E-3
4.15958E-3	162.100E-12	584.314E-3	-24.8537E-3	162.633E-12	554.701E-3	4.26068E-3
4.15458E-3	162.913E-12	567.195E-3	-43.3196E-3	162.249E-12	556.504E-3	23.0940E-3
4.14957E-3	163.371E-12	575.783E-3	-41.7813E-3	161.886E-12	577.409E-3	45.2776E-3
4.14457E-3	163.484E-12	569.901E-3	-24.6205E-3	161.264E-12	580.783E-3	26.0914E-3
4.13957E-3	163.444E-12	548.477E-3	-17.2209E-3	162.361E-12	558.724E-3	-24.4776E-3
4.13457E-3	163.215E-12	544.155E-3	-19.3968E-3	162.589E-12	565.335E-3	-64.3444E-3
4.12956E-3	163.637E-12	552.871E-3	-6.18597E-3	162.375E-12	601.120E-3	-57.7029E-3
4.12456E-3	163.631E-12	567.392E-3	3.91061E-3	162.907E-12	604.549E-3	-18.0497E-3
4.11956E-3	163.133E-12	580.269E-3	-767.614E-6	162.768E-12	575.917E-3	29.9411E-3
4.11456E-3	162.473E-12	565.214E-3	-17.2805E-3	162.948E-12	578.323E-3	38.3440E-3
4.10955E-3	162.441E-12	536.045E-3	-48.4341E-3	163.324E-12	605.324E-3	-14.6166E-3
4.10455E-3	161.972E-12	546.624E-3	-41.6677E-3	162.728E-12	600.181E-3	-39.4522E-3
4.09955E-3	161.534E-12	584.011E-3	-11.2503E-3	161.858E-12	582.859E-3	-13.4441E-3
4.09455E-3	160.971E-12	601.393E-3	-6.32763E-3	161.916E-12	576.016E-3	-5.76970E-3
4.08954E-3	160.737E-12	586.806E-3	8.74434E-3	162.251E-12	568.838E-3	-17.5325E-3
4.08454E-3	160.111E-12	570.289E-3	36.2610E-3	161.136E-12	575.547E-3	-33.6933E-3
4.07954E-3	159.674E-12	586.290E-3	39.3559E-3	160.694E-12	571.001E-3	-45.8256E-3
4.07454E-3	159.184E-12	598.638E-3	10.5864E-3	160.198E-12	548.380E-3	-46.8260E-3
4.06953E-3	158.507E-12	578.810E-3	-23.8317E-3	161.106E-12	564.193E-3	-38.3203E-3
4.06453E-3	156.745E-12	549.335E-3	-37.3138E-3	160.623E-12	587.154E-3	-19.4158E-3
4.05953E-3	157.309E-12	538.950E-3	-23.1807E-3	159.667E-12	586.398E-3	-4.84524E-3
4.05453E-3	156.531E-12	556.680E-3	2.06032E-3	159.036E-12	584.739E-3	-20.1206E-3
4.04952E-3	157.132E-12	576.381E-3	349.278E-6	159.653E-12	581.139E-3	-54.8265E-3
4.04452E-3	156.644E-12	582.619E-3	-23.2727E-3	161.163E-12	563.782E-3	-83.6428E-3
4.03952E-3	158.132E-12	593.574E-3	-30.2491E-3	160.374E-12	552.030E-3	-81.2874E-3
4.03452E-3	158.582E-12	584.916E-3	-35.4980E-3	159.920E-12	582.452E-3	-46.9111E-3
4.02951E-3	158.109E-12	566.599E-3	-39.2639E-3	160.703E-12	600.185E-3	-23.3380E-3
4.02451E-3	158.637E-12	569.306E-3	-16.5566E-3	161.118E-12	578.536E-3	-16.3789E-3
4.01951E-3	159.048E-12	571.477E-3	-8.14260E-3	161.303E-12	563.729E-3	-24.3623E-3
4.01451E-3	160.165E-12	580.045E-3	-27.0204E-3	160.727E-12	580.200E-3	-48.0347E-3
4.00950E-3	158.984E-12	592.014E-3	-38.4346E-3	159.408E-12	594.037E-3	-48.1167E-3
4.00450E-3	158.191E-12	603.886E-3	-30.6636E-3	158.934E-12	564.812E-3	-28.5645E-3
3.99950E-3	157.721E-12	614.627E-3	-25.8864E-3	160.074E-12	537.902E-3	-19.5758E-3
3.99450E-3	158.399E-12	624.766E-3	-20.6094E-3	158.425E-12	537.768E-3	-20.4244E-3
3.98949E-3	156.702E-12	613.468E-3	-10.5858E-3	156.451E-12	541.536E-3	-31.7819E-3
3.98449E-3	154.506E-12	577.467E-3	-14.0362E-3	155.357E-12	551.393E-3	-40.5981E-3
3.97949E-3	153.157E-12	554.104E-3	2.46517E-3	154.862E-12	579.351E-3	-42.2970E-3
3.97449E-3	153.413E-12	556.121E-3	11.2228E-3	155.047E-12	588.999E-3	-43.4943E-3
3.96948E-3	153.223E-12	567.781E-3	-23.0453E-3	152.856E-12	568.270E-3	-37.0354E-3
3.96448E-3	152.331E-12	577.498E-3	-29.4738E-3	151.718E-12	558.734E-3	-29.3594E-3
3.95948E-3	151.718E-12	570.524E-3	-17.3093E-3	152.206E-12	558.492E-3	-18.3847E-3
3.95448E-3	151.280E-12	547.924E-3	-17.6870E-3	153.326E-12	565.646E-3	-4.31826E-3
3.94947E-3	153.350E-12	558.194E-3	-5.52221E-3	152.763E-12	581.582E-3	-7.86998E-3
3.94447E-3	153.972E-12	579.657E-3	17.4071E-3	152.492E-12	585.290E-3	-27.4360E-3
3.93947E-3	153.017E-12	591.142E-3	17.2195E-3	152.887E-12	596.600E-3	-49.9588E-3
3.93447E-3	152.875E-12	615.855E-3	-10.7093E-3	153.445E-12	605.621E-3	-45.1464E-3
3.92946E-3	154.074E-12	621.441E-3	-30.0221E-3	154.035E-12	582.873E-3	-19.2417E-3
3.92446E-3	156.139E-12	584.671E-3	-53.2053E-3	154.455E-12	552.054E-3	-23.1160E-3
3.91946E-3	155.824E-12	569.960E-3	-80.3333E-3	155.383E-12	535.582E-3	-37.9305E-3
3.91446E-3	154.943E-12	610.052E-3	-71.0433E-3	154.733E-12	535.560E-3	-29.9339E-3
3.90945E-3	155.080E-12	642.350E-3	-33.0718E-3	154.554E-12	552.612E-3	-33.4521E-3
3.90445E-3	156.192E-12	638.115E-3	9.08035E-3	154.752E-12	582.372E-3	-44.2230E-3
3.89945E-3	156.838E-12	633.708E-3	37.1518E-3	154.060E-12	601.116E-3	-45.7635E-3
3.89445E-3	154.134E-12	628.993E-3	29.2886E-3	153.197E-12	619.310E-3	-39.1002E-3
3.88944E-3	152.109E-12	597.380E-3	8.48485E-3	151.874E-12	610.399E-3	-18.7066E-3
3.88444E-3	152.271E-12	572.984E-3	-6.09773E-3	151.642E-12	559.887E-3	-2.79515E-3
3.87944E-3	152.811E-12	562.961E-3	-27.8954E-3	150.702E-12	523.755E-3	5.40919E-3
3.87444E-3	150.557E-12	566.066E-3	-39.5520E-3	149.400E-12	522.091E-3	354.213E-6
3.86943E-3	148.667E-12	574.618E-3	-14.5712E-3	148.990E-12	532.919E-3	-8.28882E-3
3.86443E-3	148.048E-12	558.704E-3	-5.07203E-3	148.829E-12	560.176E-3	-8.78015E-3
3.85943E-3	148.736E-12	544.307E-3	-21.4131E-3	148.417E-12	603.174E-3	-4.70716E-3
3.85443E-3	148.921E-12	539.086E-3	-10.5200E-3	148.023E-12	607.778E-3	834.316E-6
3.84942E-3	147.498E-12	528.329E-3	13.0167E-3	148.555E-12	582.835E-3	-7.12544E-3
3.84442E-3	147.628E-12	525.761E-3	24.3067E-3	148.184E-12	572.075E-3	-14.2252E-3
3.83942E-3	148.276E-12	531.401E-3	26.8137E-3	148.405E-12	579.545E-3	5.58905E-3
3.83442E-3	150.584E-12	526.468E-3	25.8619E-3	149.185E-12	570.427E-3	15.6189E-3
3.82941E-3	150.813E-12	516.778E-3	12.4468E-3	149.026E-12	540.365E-3	-21.1485E-3
3.82441E-3	150.950E-12	534.395E-3	-2.65270E-3	149.867E-12	538.215E-3	-62.8067E-3
3.81941E-3	151.627E-12	578.269E-3	-14.2007E-3	150.683E-12	571.221E-3	-55.4959E-3
3.81441E-3	153.287E-12	591.443E-3	-21.9428E-3	151.706E-12	591.457E-3	-26.5288E-3
3.80940E-3	153.753E-12	575.157E-3	-15.0801E-3	150.641E-12	580.509E-3	-27.0346E-3
3.80440E-3	152.105E-12	566.505E-3	-21.1709E-3	151.065E-12	572.742E-3	-27.9505E-3
3.79940E-3	150.732E-12	563.680E-3	-37.7942E-3	149.774E-12	584.135E-3	-9.37414E-3
3.79440E-3	150.571E-12	563.065E-3	-20.0310E-3	149.607E-12	593.725E-3	-8.86865E-3
3.78939E-3	151.625E-12	574.312E-3	79.7817E-6	149.357E-12	582.676E-3	-23.4203E-3
3.78439E-3	151.646E-12	595.719E-3	-5.76236E-3	148.591E-12	547.690E-3	-36.2797E-3
3.77939E-3	148.117E-12	602.054E-3	-1.65108E-3	147.953E-12	514.290E-3	-40.7970E-3
3.77439E-3	147.384E-12	579.222E-3	4.14462E-3	147.682E-12	525.768E-3	-24.9145E-3
3.76938E-3	147.269E-12	572.429E-3	-8.70522E-3	147.102E-12	572.393E-3	-9.78188E-3
3.76438E-3	147.710E-12	601.397E-3	-14.4764E-3	147.618E-12	607.621E-3	-16.9181E-3
3.75938E-3	145.943E-12	604.141E-3	-6.03410E-3	147.664E-12	595.092E-3	-26.5928E-3
3.75438E-3	145.018E-12	594.796E-3	-7.11983E-3	147.207E-12	546.935E-3	-23.2869E-3
3.74937E-3	145.604E-12	607.994E-3	-6.73961E-3	146.455E-12	534.299E-3	-23.3031E-3
3.74437E-3	146.189E-12	609.107E-3	-5.52557E-3	147.176E-12	574.107E-3	-13.5574E-3
3.73937E-3	146.774E-12	576.015E-3	-27.5707E-3	146.988E-12	607.136E-3	12.7163E-3
3.73437E-3	146.463E-12	546.878E-3	-29.5514E-3	147.757E-12	608.775E-3	21.2012E-3
3.72936E-3	147.006E-12	542.359E-3	-13.6027E-3	147.298E-12	591.959E-3	3.38327E-3
3.72436E-3	146.223E-12	537.963E-3	-28.7797E-3	147.906E-12	566.319E-3	-20.6189E-3
3.71936E-3	146.568E-12	551.923E-3	-43.2882E-3	147.864E-12	562.043E-3	-26.7367E-3
3.71436E-3	147.235E-12	562.774E-3	-19.9327E-3	148.852E-12	575.195E-3	-26.5567E-3
3.70935E-3	148.007E-12	550.376E-3	-3.46313E-3	147.510E-12	593.331E-3	-41.4843E-3
3.70435E-3	147.043E-12	549.331E-3	-14.4608E-3	147.776E-12	614.437E-3	-35.6670E-3
3.69935E-3	147.033E-12	564.704E-3	-4.33812E-3	147.228E-12	613.459E-3	-7.14473E-3
3.69435E-3	147.181E-12	579.835E-3	9.38614E-3	148.356E-12	596.264E-3	9.74423E-3
3.68934E-3	146.434E-12	594.182E-3	-10.1007E-3	148.639E-12	573.276E-3	2.89109E-3
3.68434E-3	146.624E-12	590.930E-3	-34.0792E-3	147.305E-12	559.223E-3	-15.0987E-3
3.67934E-3	145.699E-12	572.227E-3	-26.3972E-3	145.236E-12	571.705E-3	-17.6267E-3
3.67434E-3	145.550E-12	567.302E-3	-4.53427E-3	145.122E-12	592.746E-3	-11.0640E-3
3.66933E-3	144.126E-12	583.080E-3	-6.22852E-3	146.532E-12	595.450E-3	-2.36642E-3
3.66433E-3	143.896E-12	598.348E-3	-32.0953E-3	145.539E-12	584.341E-3	7.59560E-3
3.65933E-3	142.722E-12	586.170E-3	-39.3043E-3	143.903E-12	576.517E-3	4.31552E-3
3.65433E-3	142.282E-12	572.326E-3	-4.77131E-3	143.035E-12	583.728E-3	-8.18163E-3
3.64932E-3	142.580E-12	575.045E-3	23.2496E-3	143.863E-12	584.966E-3	-17.5128E-3
3.64432E-3	142.330E-12	570.531E-3	15.5952E-3	143.816E-12	572.153E-3	-21.7001E-3
3.63932E-3	141.945E-12	572.731E-3	1.88324E-3	142.795E-12	574.649E-3	-12.3353E-3
3.63432E-3	141.459E-12	580.206E-3	-18.5743E-3	141.946E-12	573.669E-3	7.82360E-3
3.62931E-3	142.187E-12	570.552E-3	-42.6479E-3	142.691E-12	551.216E-3	22.7933E-3
3.62431E-3	142.427E-12	554.336E-3	-39.6025E-3	143.451E-12	541.920E-3	17.2982E-3
3.61931E-3	142.056E-12	550.582E-3	-19.9118E-3	143.422E-12	542.257E-3	-2.61159E-3
3.61431E-3	141.226E-12	559.257E-3	-20.9689E-3	142.445E-12	547.529E-3	-24.1845E-3
3.60930E-3	142.866E-12	545.881E-3	-39.8384E-3	142.974E-12	581.206E-3	-36.4443E-3
3.60430E-3	143.165E-12	541.807E-3	-41.7823E-3	144.102E-12	611.020E-3	-35.9451E-3
3.59930E-3	141.905E-12	556.681E-3	-18.4689E-3	144.118E-12	604.311E-3	-24.4331E-3
3.59430E-3	141.270E-12	575.616E-3	2.92529E-3	143.627E-12	597.305E-3	-5.02854E-3
3.58929E-3	141.236E-12	605.260E-3	4.09638E-3	143.023E-12	593.385E-3	10.9814E-3
3.58429E-3	141.338E-12	601.933E-3	9.73195E-3	143.027E-12	576.587E-3	21.2094E-3
3.57929E-3	140.658E-12	579.251E-3	21.1144E-3	142.639E-12	570.008E-3	3.55218E-3
3.57429E-3	139.915E-12	575.021E-3	31.0550E-3	142.434E-12	578.194E-3	-31.5769E-3
3.56928E-3	139.591E-12	579.769E-3	24.0985E-3	140.892E-12	591.953E-3	-32.8082E-3
3.56428E-3	138.905E-12	584.765E-3	-4.41575E-3	139.521E-12	592.034E-3	-4.36368E-3
3.55928E-3	139.171E-12	578.694E-3	-17.7811E-3	138.861E-12	578.780E-3	20.6036E-6
3.55428E-3	138.577E-12	554.798E-3	-20.5149E-3	138.375E-12	571.392E-3	-19.4606E-3
3.54927E-3	138.933E-12	573.934E-3	-22.2469E-3	137.609E-12	566.005E-3	-25.7432E-3
3.54427E-3	137.092E-12	621.541E-3	-23.7878E-3	136.631E-12	574.384E-3	-14.0706E-3
3.53927E-3	135.950E-12	613.211E-3	-47.2619E-3	135.761E-12	579.748E-3	-9.46641E-3
3.53427E-3	136.024E-12	578.964E-3	-76.9439E-3	136.566E-12	564.007E-3	978.568E-6
3.52926E-3	137.941E-12	579.996E-3	-74.7621E-3	136.693E-12	567.579E-3	18.5608E-3
3.52426E-3	136.328E-12	591.712E-3	-45.3174E-3	135.652E-12	584.429E-3	13.9784E-3
3.51926E-3	135.614E-12	580.147E-3	-11.4383E-3	135.801E-12	576.041E-3	5.49976E-3
3.51426E-3	136.012E-12	562.256E-3	8.30458E-3	137.206E-12	568.197E-3	10.4509E-3
3.50925E-3	137.166E-12	540.318E-3	4.36367E-3	137.524E-12	576.826E-3	11.1373E-3
3.50425E-3	138.331E-12	546.733E-3	-22.8405E-3	136.405E-12	591.021E-3	4.97357E-3
3.49925E-3	137.499E-12	585.689E-3	-37.9169E-3	136.696E-12	600.052E-3	-3.58344E-3
3.49425E-3	138.076E-12	580.233E-3	-13.4671E-3	137.803E-12	604.185E-3	-21.3298E-3
3.48924E-3	139.184E-12	540.534E-3	15.0949E-3	138.937E-12	597.719E-3	-28.0277E-3
3.48424E-3	139.727E-12	530.042E-3	20.5481E-3	138.704E-12	579.292E-3	-48.3838E-3
3.47924E-3	139.031E-12	552.031E-3	7.99705E-3	137.277E-12	583.371E-3	-65.2949E-3
3.47424E-3	138.059E-12	576.775E-3	-3.63551E-3	137.143E-12	603.780E-3	-55.2215E-3
3.46923E-3	138.121E-12	592.719E-3	-10.2845E-3	137.962E-12	601.537E-3	-52.8724E-3
3.46423E-3	138.125E-12	599.522E-3	-17.7445E-3	138.449E-12	583.139E-3	-35.0811E-3
3.45923E-3	137.783E-12	594.675E-3	-26.1970E-3	136.046E-12	575.162E-3	-17.7165E-3
3.45423E-3	135.824E-12	590.837E-3	-44.0790E-3	135.422E-12	564.088E-3	-25.8757E-3
3.44922E-3	135.370E-12	587.516E-3	-50.1558E-3	136.761E-12	549.804E-3	-32.8062E-3
3.44422E-3	134.944E-12	586.765E-3	-16.1121E-3	136.597E-12	542.948E-3	-36.8087E-3
3.43922E-3	134.904E-12	591.276E-3	12.0840E-3	135.509E-12	542.902E-3	-31.3885E-3
3.43422E-3	133.495E-12	590.218E-3	7.71901E-3	133.143E-12	567.458E-3	-31.3971E-3
3.42921E-3	132.914E-12	586.942E-3	7.54145E-3	135.069E-12	588.154E-3	-37.4726E-3
3.42421E-3	133.536E-12	585.042E-3	6.35281E-3	135.711E-12	561.830E-3	-12.8944E-3
3.41921E-3	133.447E-12	570.298E-3	3.20301E-3	135.648E-12	546.141E-3	-1.13673E-3
3.41421E-3	133.334E-12	538.360E-3	-6.78575E-3	134.629E-12	571.994E-3	-29.9939E-3
3.40920E-3	132.746E-12	527.372E-3	-26.5531E-3	134.912E-12	585.176E-3	-37.8192E-3
3.40420E-3	133.972E-12	541.592E-3	-26.2484E-3	136.028E-12	591.450E-3	-20.6966E-3
3.39920E-3	135.003E-12	554.515E-3	-28.1314E-3	137.220E-12	602.039E-3	-15.7918E-3
3.39420E-3	134.973E-12	580.384E-3	-45.9299E-3	136.777E-12	598.726E-3	-7.74249E-3
3.38919E-3	134.658E-12	608.668E-3	-38.3563E-3	135.394E-12	585.380E-3	5.22818E-3
3.38419E-3	135.515E-12	608.470E-3	-10.7351E-3	136.100E-12	567.984E-3	-118.574E-6
3.37919E-3	136.362E-12	588.767E-3	-9.38767E-3	136.457E-12	572.349E-3	-20.0681E-3
3.37419E-3	136.176E-12	575.123E-3	-16.5780E-3	135.440E-12	593.019E-3	-31.1689E-3
3.36918E-3	136.197E-12	577.255E-3	-4.88368E-3	134.236E-12	598.180E-3	-29.5630E-3
3.36418E-3	135.720E-12	588.325E-3	6.04233E-3	133.792E-12	589.284E-3	-26.1096E-3
3.35918E-3	134.013E-12	594.427E-3	-15.3598E-3	133.589E-12	587.077E-3	-24.7904E-3
3.35418E-3	133.169E-12	582.332E-3	-43.3314E-3	132.557E-12	599.286E-3	-21.0034E-3
3.34917E-3	132.862E-12	578.563E-3	-32.7926E-3	132.372E-12	598.813E-3	-21.6155E-3
3.34417E-3	132.114E-12	590.146E-3	-19.1314E-3	131.592E-12	582.716E-3	-26.7705E-3
3.33917E-3	130.841E-12	595.954E-3	-24.3903E-3	131.541E-12	562.738E-3	-15.5134E-3
3.33417E-3	129.924E-12	599.070E-3	-30.5033E-3	131.128E-12	556.535E-3	-8.29905E-3
3.32916E-3	128.927E-12	593.184E-3	-31.2919E-3	131.036E-12	565.869E-3	-15.9109E-3
3.32416E-3	129.092E-12	582.631E-3	-35.6371E-3	129.783E-12	557.133E-3	-19.0015E-3
3.31916E-3	129.255E-12	580.220E-3	-39.2436E-3	130.113E-12	541.110E-3	-30.3349E-3
3.31416E-3	129.613E-12	575.679E-3	-33.6268E-3	130.128E-12	551.059E-3	-46.6560E-3
3.30915E-3	128.674E-12	567.245E-3	-29.0973E-3	131.187E-12	571.034E-3	-44.9930E-3
3.30415E-3	129.339E-12	561.661E-3	-26.1781E-3	130.872E-12	584.251E-3	-36.8671E-3
3.29915E-3	129.457E-12	563.217E-3	-9.48045E-3	130.181E-12	613.201E-3	-33.6137E-3
3.29415E-3	129.732E-12	582.177E-3	9.70375E-3	130.216E-12	628.094E-3	-18.4471E-3
3.28914E-3	129.253E-12	598.491E-3	12.6494E-3	131.063E-12	609.827E-3	2.80203E-3
3.28414E-3	129.311E-12	604.352E-3	-12.9458E-3	132.220E-12	601.575E-3	5.02234E-3
3.27914E-3	130.715E-12	607.319E-3	-40.8046E-3	131.610E-12	599.830E-3	-18.4640E-3
3.27414E-3	130.465E-12	582.120E-3	-32.5720E-3	130.123E-12	587.415E-3	-38.0064E-3
3.26913E-3	130.268E-12	550.431E-3	-15.8294E-3	129.754E-12	564.561E-3	-24.2810E-3
3.26413E-3	129.314E-12	546.569E-3	-856.062E-6	130.043E-12	556.702E-3	-9.10915E-3
3.25913E-3	129.401E-12	539.046E-3	1.35616E-3	128.651E-12	583.985E-3	-13.0826E-3
3.25413E-3	129.186E-12	536.112E-3	-11.5167E-3	127.753E-12	602.129E-3	-16.3849E-3
3.24912E-3	128.073E-12	552.058E-3	-6.28990E-3	127.500E-12	587.889E-3	-6.88447E-3
3.24412E-3	127.321E-12	570.892E-3	1.44066E-3	126.419E-12	572.819E-3	9.12771E-3
3.23912E-3	127.612E-12	595.324E-3	-330.567E-6	126.421E-12	576.379E-3	6.05083E-3
3.23412E-3	126.774E-12	604.743E-3	386.797E-6	125.621E-12	570.704E-3	-23.7568E-3
3.22911E-3	126.262E-12	600.124E-3	-2.29456E-3	124.149E-12	550.381E-3	-36.0628E-3
3.22411E-3	126.101E-12	571.125E-3	-9.89881E-3	124.332E-12	556.759E-3	-15.8248E-3
3.21911E-3	126.104E-12	538.512E-3	-21.1381E-3	125.103E-12	567.948E-3	1.45799E-3
3.21411E-3	125.735E-12	559.433E-3	-24.6817E-3	125.529E-12	557.032E-3	13.9095E-3
3.20910E-3	125.706E-12	590.102E-3	-22.7667E-3	125.087E-12	563.328E-3	7.98380E-3
3.20410E-3	125.931E-12	596.191E-3	-36.6353E-3	125.142E-12	594.114E-3	-15.6145E-3
3.19910E-3	126.236E-12	593.737E-3	-37.7762E-3	125.326E-12	621.090E-3	-22.6204E-3
3.19410E-3	126.554E-12	599.634E-3	-12.5499E-3	125.952E-12	609.491E-3	-23.4709E-3
3.18909E-3	126.823E-12	627.502E-3	1.85470E-3	126.025E-12	582.898E-3	-34.2035E-3
3.18409E-3	127.725E-12	630.641E-3	-14.1695E-3	126.621E-12	599.299E-3	-32.5112E-3
3.17909E-3	127.452E-12	605.856E-3	-32.0004E-3	126.101E-12	608.188E-3	-21.6578E-3
3.17409E-3	127.139E-12	604.973E-3	-25.7751E-3	126.222E-12	576.804E-3	-14.8151E-3
3.16908E-3	127.188E-12	600.815E-3	-17.6254E-3	126.859E-12	560.421E-3	-4.73748E-3
3.16408E-3	126.317E-12	584.850E-3	-27.1093E-3	125.928E-12	570.686E-3	6.15867E-3
3.15908E-3	126.088E-12	593.881E-3	-40.1880E-3	125.271E-12	588.613E-3	14.4699E-3
3.15408E-3	124.481E-12	594.902E-3	-32.8252E-3	125.792E-12	586.279E-3	10.3634E-3
3.14907E-3	124.645E-12	566.776E-3	-15.2366E-3	125.445E-12	568.813E-3	11.0059E-3
3.14407E-3	124.970E-12	569.822E-3	-6.96384E-3	123.381E-12	562.144E-3	16.4125E-3
3.13907E-3	123.824E-12	594.423E-3	-15.6506E-3	123.787E-12	564.124E-3	6.15662E-3
3.13407E-3	123.393E-12	599.691E-3	-23.9702E-3	123.714E-12	585.149E-3	2.12024E-3
3.12906E-3	122.988E-12	587.387E-3	-11.9861E-3	123.246E-12	606.450E-3	5.06979E-3
3.12406E-3	123.437E-12	572.569E-3	2.85217E-3	122.239E-12	592.142E-3	-597.229E-6
3.11906E-3	122.088E-12	584.262E-3	15.0025E-3	122.376E-12	572.667E-3	-3.99406E-3
3.11406E-3	121.791E-12	591.233E-3	23.2856E-3	122.420E-12	570.677E-3	-9.87143E-3
3.10905E-3	121.313E-12	581.148E-3	13.6229E-3	122.514E-12	576.463E-3	-18.0197E-3
3.10405E-3	121.732E-12	571.150E-3	-919.992E-6	122.062E-12	588.414E-3	-17.1596E-3
3.09905E-3	121.485E-12	563.761E-3	-18.6541E-3	122.031E-12	603.286E-3	-7.46138E-3
3.09405E-3	120.889E-12	572.382E-3	-35.0498E-3	123.906E-12	603.486E-3	759.338E-6
3.08904E-3	121.405E-12	587.351E-3	-15.9893E-3	123.757E-12	589.734E-3	-207.946E-6
3.08404E-3	121.343E-12	587.846E-3	7.21916E-3	123.886E-12	587.750E-3	-4.86171E-3
3.07904E-3	122.016E-12	575.421E-3	-536.664E-6	123.276E-12	594.232E-3	-13.5457E-3
3.07404E-3	122.109E-12	580.070E-3	-11.2794E-3	123.259E-12	589.832E-3	-8.10205E-3
3.06903E-3	122.857E-12	591.952E-3	316.336E-6	123.787E-12	585.762E-3	12.1050E-3
3.06403E-3	122.344E-12	590.624E-3	20.4761E-3	123.958E-12	607.787E-3	11.2915E-3
3.05903E-3	123.154E-12	585.785E-3	22.4982E-3	123.443E-12	615.652E-3	-6.89736E-3
3.05403E-3	123.441E-12	577.375E-3	-2.85954E-3	123.084E-12	605.158E-3	-15.8598E-3
3.04902E-3	123.956E-12	572.143E-3	-40.9734E-3	122.220E-12	609.027E-3	-15.7267E-3
3.04402E-3	124.134E-12	581.660E-3	-35.1101E-3	123.011E-12	600.951E-3	-12.8255E-3
3.03902E-3	123.165E-12	592.820E-3	7.23523E-3	121.583E-12	581.790E-3	-13.4840E-3
3.03402E-3	122.595E-12	601.999E-3	28.3344E-3	119.634E-12	565.276E-3	-25.5002E-3
3.02901E-3	122.066E-12	613.516E-3	31.5084E-3	119.059E-12	565.233E-3	-37.7584E-3
3.02401E-3	121.609E-12	611.916E-3	17.4072E-3	119.285E-12	577.263E-3	-33.0483E-3
3.01901E-3	119.892E-12	593.763E-3	-2.67753E-3	119.273E-12	564.119E-3	-14.2191E-3
3.01401E-3	118.893E-12	586.714E-3	3.96218E-3	118.078E-12	556.009E-3	4.78707E-3
3.00900E-3	118.268E-12	603.872E-3	27.4732E-3	117.389E-12	585.112E-3	10.4575E-3
3.00400E-3	117.272E-12	615.288E-3	26.6260E-3	117.668E-12	620.629E-3	2.31993E-3
2.99900E-3	116.717E-12	594.070E-3	5.18521E-3	117.946E-12	627.663E-3	-3.31351E-3
2.99400E-3	116.673E-12	562.559E-3	-6.68758E-3	117.301E-12	610.341E-3	10.0611E-3
2.98899E-3	116.409E-12	563.970E-3	-5.31463E-3	117.418E-12	602.186E-3	24.1053E-3
2.98399E-3	115.751E-12	580.831E-3	12.3606E-3	117.920E-12	606.759E-3	7.29033E-3
2.97899E-3	116.302E-12	585.749E-3	30.3283E-3	118.484E-12	611.313E-3	-20.8067E-3
2.97399E-3	116.883E-12	583.222E-3	21.9570E-3	118.026E-12	608.767E-3	-27.8152E-3
2.96898E-3	117.652E-12	573.683E-3	-12.5516E-3	117.840E-12	603.560E-3	-22.8595E-3
2.96398E-3	117.521E-12	566.249E-3	-29.5116E-3	118.462E-12	606.236E-3	-30.6950E-3
2.95898E-3	118.073E-12	574.408E-3	-22.6608E-3	118.595E-12	598.780E-3	-34.5097E-3
2.95398E-3	118.389E-12	591.792E-3	-29.0727E-3	117.816E-12	589.320E-3	-13.8748E-3
2.94897E-3	118.740E-12	593.771E-3	-34.7928E-3	116.962E-12	587.707E-3	-3.41118E-3
2.94397E-3	117.246E-12	580.758E-3	-26.3913E-3	115.903E-12	582.065E-3	-16.7555E-3
2.93897E-3	116.713E-12	583.474E-3	-13.1014E-3	115.525E-12	584.091E-3	-28.6228E-3
2.93397E-3	116.824E-12	603.179E-3	-8.15289E-3	115.678E-12	598.889E-3	-42.6245E-3
2.92896E-3	116.166E-12	612.639E-3	-30.0651E-3	114.068E-12	606.837E-3	-44.2320E-3
2.92396E-3	113.873E-12	613.344E-3	-47.3186E-3	113.857E-12	596.667E-3	-26.5725E-3
2.91896E-3	113.258E-12	611.370E-3	-16.1893E-3	114.569E-12	585.463E-3	-20.6449E-3
2.91396E-3	113.652E-12	589.604E-3	18.6013E-3	114.058E-12	584.345E-3	-19.3018E-3
2.90895E-3	113.038E-12	564.226E-3	7.43170E-3	113.389E-12	594.723E-3	-9.11925E-3
2.90395E-3	110.983E-12	568.466E-3	-17.7037E-3	113.198E-12	605.447E-3	-5.71188E-3
2.89895E-3	110.458E-12	582.076E-3	-29.8781E-3	113.646E-12	598.926E-3	-8.39433E-3
2.89395E-3	111.819E-12	585.155E-3	-16.9170E-3	113.574E-12	586.505E-3	-7.10094E-3
2.88894E-3	113.011E-12	585.833E-3	8.39314E-3	113.451E-12	581.081E-3	7.31273E-3
2.88394E-3	111.662E-12	580.408E-3	19.2010E-3	113.512E-12	580.783E-3	11.6279E-3
2.87894E-3	110.716E-12	574.681E-3	13.5222E-3	114.354E-12	594.271E-3	-6.17644E-3
2.87394E-3	111.918E-12	578.127E-3	-8.62040E-3	115.224E-12	606.235E-3	-15.1222E-3
2.86893E-3	112.917E-12	581.170E-3	-23.7896E-3	115.684E-12	598.940E-3	-26.6108E-3
2.86393E-3	112.390E-12	580.214E-3	-21.7907E-3	115.715E-12	589.962E-3	-27.3435E-3
2.85893E-3	111.834E-12	571.688E-3	-14.0712E-3	115.002E-12	593.592E-3	-5.13737E-3
2.85393E-3	112.697E-12	546.161E-3	-14.9637E-3	114.964E-12	609.099E-3	-4.75648E-3
2.84892E-3	113.825E-12	544.557E-3	-38.4979E-3	114.486E-12	615.083E-3	-28.0909E-3
2.84392E-3	113.632E-12	578.325E-3	-45.7519E-3	114.066E-12	605.974E-3	-39.6977E-3
2.83892E-3	112.102E-12	601.215E-3	-13.4522E-3	112.706E-12	596.776E-3	-36.9170E-3
2.83392E-3	110.718E-12	603.246E-3	4.59093E-3	112.422E-12	582.383E-3	-32.8551E-3
2.82891E-3	110.712E-12	593.548E-3	-8.91519E-3	112.784E-12	578.787E-3	-25.5941E-3
2.82391E-3	111.461E-12	577.386E-3	-12.9212E-3	112.112E-12	594.238E-3	-23.3333E-3
2.81891E-3	110.219E-12	580.049E-3	2.08378E-3	110.653E-12	599.665E-3	-16.3003E-3
2.81391E-3	108.816E-12	595.654E-3	5.48150E-3	110.611E-12	599.793E-3	-5.38614E-3
2.80890E-3	109.136E-12	598.040E-3	-8.99734E-3	111.456E-12	610.170E-3	-10.8459E-3
2.80390E-3	109.785E-12	593.378E-3	-11.5988E-3	111.285E-12	621.475E-3	-14.9351E-3
2.79890E-3	109.967E-12	589.136E-3	-10.5846E-3	110.130E-12	620.748E-3	-18.5942E-3
2.79390E-3	108.734E-12	597.038E-3	-17.6157E-3	109.757E-12	608.333E-3	-35.9373E-3
2.78889E-3	108.318E-12	619.788E-3	-23.4207E-3	110.184E-12	590.884E-3	-56.1025E-3
2.78389E-3	109.376E-12	638.642E-3	-22.0426E-3	111.114E-12	576.712E-3	-49.9895E-3
2.77889E-3	110.285E-12	628.515E-3	-15.4733E-3	111.310E-12	587.967E-3	-21.3360E-3
2.77389E-3	109.705E-12	598.694E-3	-24.8023E-3	111.002E-12	599.758E-3	-9.58803E-3
2.76888E-3	108.950E-12	578.857E-3	-39.1019E-3	110.624E-12	590.428E-3	-13.8424E-3
2.76388E-3	109.409E-12	573.095E-3	-36.5005E-3	110.923E-12	594.019E-3	-14.1472E-3
2.75888E-3	109.879E-12	586.619E-3	-39.7433E-3	110.651E-12	603.355E-3	-17.3417E-3
2.75388E-3	109.653E-12	608.078E-3	-48.9452E-3	110.656E-12	602.352E-3	-21.6861E-3
2.74887E-3	108.972E-12	618.280E-3	-49.6473E-3	110.195E-12	614.032E-3	-19.6147E-3
2.74387E-3	108.347E-12	602.602E-3	-35.7674E-3	109.424E-12	631.497E-3	-17.6014E-3
2.73887E-3	108.914E-12	586.029E-3	-7.65244E-3	109.454E-12	619.675E-3	-20.7587E-3
2.73387E-3	109.576E-12	613.810E-3	8.90708E-3	109.410E-12	602.918E-3	-18.6955E-3
2.72886E-3	108.630E-12	647.499E-3	11.1237E-3	107.881E-12	593.598E-3	-22.3032E-3
2.72386E-3	108.058E-12	644.896E-3	-1.94506E-3	106.709E-12	581.935E-3	-36.3606E-3
2.71886E-3	108.651E-12	639.722E-3	-11.5573E-3	106.807E-12	576.987E-3	-20.1404E-3
2.71386E-3	109.166E-12	649.129E-3	4.93706E-3	106.441E-12	569.267E-3	3.60533E-3
2.70885E-3	108.133E-12	649.125E-3	7.90941E-3	105.254E-12	565.622E-3	928.990E-6
2.70385E-3	107.535E-12	636.447E-3	-8.89403E-3	104.787E-12	578.256E-3	-3.92905E-3
2.69885E-3	107.383E-12	630.849E-3	-2.22322E-3	104.556E-12	593.270E-3	-255.597E-6
2.69385E-3	107.373E-12	630.759E-3	19.8276E-3	104.341E-12	595.833E-3	-581.203E-6
2.68884E-3	106.846E-12	608.892E-3	27.6119E-3	103.704E-12	591.577E-3	2.64297E-3
2.68384E-3	106.509E-12	582.721E-3	18.0961E-3	103.825E-12	580.799E-3	15.0968E-3
2.67884E-3	106.208E-12	585.325E-3	-3.99271E-3	104.227E-12	574.376E-3	-690.944E-6
2.67384E-3	106.166E-12	604.160E-3	-16.3963E-3	104.167E-12	591.284E-3	-22.7364E-3
2.66883E-3	106.099E-12	602.714E-3	-16.2867E-3	104.465E-12	601.253E-3	-12.4161E-3
2.66383E-3	104.928E-12	589.217E-3	-16.0770E-3	104.293E-12	584.865E-3	-16.2323E-3
2.65883E-3	105.146E-12	589.672E-3	-23.8230E-3	104.064E-12	579.520E-3	-31.3664E-3
2.65383E-3	105.215E-12	608.895E-3	-28.2779E-3	104.313E-12	591.995E-3	-27.1835E-3
2.64882E-3	105.363E-12	633.473E-3	-15.7392E-3	104.697E-12	602.035E-3	-19.8344E-3
2.64382E-3	104.801E-12	626.617E-3	-10.2546E-3	104.855E-12	593.884E-3	-9.79416E-3
2.63882E-3	105.525E-12	609.704E-3	-8.49769E-3	104.015E-12	569.706E-3	-5.71117E-3
2.63382E-3	105.956E-12	597.682E-3	1.34610E-3	103.990E-12	570.228E-3	-19.6899E-3
2.62881E-3	105.389E-12	583.431E-3	-3.06734E-3	103.800E-12	592.248E-3	-23.8192E-3
2.62381E-3	105.178E-12	603.120E-3	-23.3740E-3	102.641E-12	600.373E-3	-15.2542E-3
2.61881E-3	104.390E-12	624.687E-3	-26.2378E-3	102.104E-12	598.783E-3	-17.3637E-3
2.61381E-3	104.143E-12	618.090E-3	-21.8557E-3	101.907E-12	604.399E-3	-24.7172E-3
2.60880E-3	102.958E-12	616.697E-3	-26.1873E-3	101.570E-12	611.852E-3	-29.6227E-3
2.60380E-3	102.623E-12	614.868E-3	-24.9547E-3	100.654E-12	607.443E-3	-37.8255E-3
2.59880E-3	101.845E-12	599.215E-3	-25.4671E-3	100.499E-12	596.488E-3	-38.2741E-3
2.59380E-3	101.758E-12	594.266E-3	-16.3395E-3	100.128E-12	590.293E-3	-22.9968E-3
2.58879E-3	101.133E-12	604.152E-3	-3.72395E-3	100.501E-12	587.517E-3	-2.67209E-3
2.58379E-3	100.828E-12	611.533E-3	-13.3894E-3	99.8849E-12	587.903E-3	-3.03878E-3
2.57879E-3	99.5354E-12	599.707E-3	-22.9686E-3	99.7064E-12	603.555E-3	-15.9402E-3
2.57379E-3	99.5179E-12	577.405E-3	-21.6652E-3	100.440E-12	627.220E-3	-8.33071E-3
2.56878E-3	99.4861E-12	576.162E-3	-18.4726E-3	101.272E-12	629.815E-3	-2.15903E-3
2.56378E-3	98.7472E-12	590.788E-3	-16.1976E-3	100.902E-12	628.499E-3	-15.8924E-3
2.55878E-3	98.8343E-12	600.097E-3	-15.5373E-3	100.540E-12	634.529E-3	-27.7390E-3
2.55378E-3	98.6663E-12	588.043E-3	-9.14957E-3	101.721E-12	619.706E-3	-27.3507E-3
2.54877E-3	100.252E-12	582.713E-3	-4.24918E-3	102.830E-12	600.383E-3	-19.1642E-3
2.54377E-3	101.160E-12	598.960E-3	2.45092E-3	102.294E-12	600.821E-3	-12.7580E-3
2.53877E-3	101.134E-12	603.224E-3	6.91290E-3	101.605E-12	618.286E-3	-14.4625E-3
2.53377E-3	100.753E-12	606.025E-3	-11.0138E-3	101.369E-12	635.267E-3	-23.3513E-3
2.52876E-3	101.190E-12	622.424E-3	-23.1977E-3	101.897E-12	629.127E-3	-22.9431E-3
2.52376E-3	101.416E-12	629.327E-3	-10.2355E-3	101.461E-12	613.643E-3	-20.2600E-3
2.51876E-3	100.977E-12	614.226E-3	-4.04977E-3	101.065E-12	607.979E-3	-26.6954E-3
2.51376E-3	100.313E-12	605.534E-3	-15.0666E-3	99.8709E-12	610.257E-3	-20.6210E-3
2.50875E-3	99.5260E-12	619.991E-3	-21.7623E-3	98.9185E-12	620.251E-3	-4.86795E-3
2.50375E-3	98.6635E-12	626.730E-3	-23.1503E-3	98.9952E-12	621.918E-3	6.40097E-3
2.49875E-3	97.7883E-12	610.065E-3	-25.3571E-3	98.7358E-12	604.005E-3	-1.45380E-3
2.49375E-3	96.9456E-12	594.320E-3	-22.2778E-3	97.8765E-12	594.902E-3	-26.6706E-3
2.48874E-3	96.1930E-12	594.402E-3	-16.9371E-3	96.6554E-12	601.251E-3	-37.9444E-3
2.48374E-3	95.1452E-12	598.617E-3	-12.9101E-3	96.8850E-12	602.873E-3	-19.2425E-3
2.47874E-3	94.5113E-12	594.142E-3	-9.31779E-3	97.1861E-12	608.299E-3	3.59699E-3
2.47374E-3	94.2617E-12	578.084E-3	-22.0947E-3	96.8713E-12	619.491E-3	7.43169E-3
2.46873E-3	94.7562E-12	561.043E-3	-33.4500E-3	96.6002E-12	614.906E-3	-1.71027E-3
2.46373E-3	94.7872E-12	557.977E-3	-18.8002E-3	97.1329E-12	595.206E-3	-7.01073E-3
2.45873E-3	94.8667E-12	568.025E-3	-10.9995E-3	97.8309E-12	589.616E-3	8.04631E-3
2.45373E-3	95.7783E-12	592.575E-3	-15.6808E-3	97.3662E-12	606.628E-3	15.8423E-3
2.44872E-3	96.0704E-12	607.594E-3	-19.8297E-3	97.1715E-12	620.227E-3	-206.081E-6
2.44372E-3	95.9514E-12	607.374E-3	-16.4291E-3	97.9442E-12	623.281E-3	-10.8307E-3
2.43872E-3	96.4772E-12	604.388E-3	-4.13020E-3	97.8726E-12	627.032E-3	-3.61918E-3
2.43372E-3	97.4221E-12	607.929E-3	-3.28756E-3	97.6165E-12	621.730E-3	-119.115E-6
2.42871E-3	97.0865E-12	615.574E-3	-14.4849E-3	97.5964E-12	611.445E-3	-14.5795E-3
2.42371E-3	96.5284E-12	616.578E-3	-20.1423E-3	96.7897E-12	614.511E-3	-21.2824E-3
2.41871E-3	96.6779E-12	627.339E-3	-25.2998E-3	95.7954E-12	625.452E-3	-14.6629E-3
2.41371E-3	96.0148E-12	640.281E-3	-31.3660E-3	95.0814E-12	623.355E-3	-13.7894E-3
2.40870E-3	95.5730E-12	635.371E-3	-17.1171E-3	94.8008E-12	609.922E-3	-8.98397E-3
2.40370E-3	95.5635E-12	614.385E-3	-407.810E-6	94.0353E-12	603.088E-3	-10.8325E-3
2.39870E-3	94.7549E-12	609.385E-3	-2.10290E-3	93.0161E-12	595.444E-3	-18.9119E-3
2.39370E-3	93.9581E-12	627.421E-3	-18.6787E-3	92.1411E-12	581.675E-3	2.71123E-3
2.38869E-3	92.7782E-12	635.109E-3	-27.3925E-3	92.0435E-12	578.380E-3	28.9755E-3
2.38369E-3	93.4814E-12	619.822E-3	-13.5851E-3	91.9660E-12	580.153E-3	18.0499E-3
2.37869E-3	92.7118E-12	611.051E-3	-7.78956E-3	91.0516E-12	578.593E-3	-11.1111E-3
2.37369E-3	92.6743E-12	623.608E-3	-8.38956E-3	90.4708E-12	576.738E-3	-30.8395E-3
2.36868E-3	91.8509E-12	628.168E-3	-11.3980E-3	90.5254E-12	585.716E-3	-29.2365E-3
2.36368E-3	92.3442E-12	626.689E-3	-23.7020E-3	91.6210E-12	596.937E-3	-13.4688E-3
2.35868E-3	92.7915E-12	631.257E-3	-11.9322E-3	92.2954E-12	595.873E-3	-6.25054E-3
2.35368E-3	92.6369E-12	620.556E-3	-221.706E-6	91.4795E-12	600.798E-3	-15.0828E-3
2.34867E-3	92.0098E-12	604.008E-3	-5.25201E-3	91.5446E-12	613.150E-3	-34.1018E-3
2.34367E-3	92.6937E-12	608.080E-3	-1.30008E-3	92.1780E-12	622.283E-3	-29.8311E-3
2.33867E-3	93.5127E-12	614.959E-3	-8.78646E-3	93.0337E-12	634.598E-3	-6.09025E-3
2.33367E-3	92.1453E-12	601.629E-3	-25.7214E-3	92.6606E-12	637.664E-3	-11.7479E-3
2.32866E-3	92.0265E-12	581.531E-3	-28.5991E-3	91.2047E-12	618.634E-3	-38.3267E-3
2.32366E-3	92.3850E-12	576.252E-3	-25.0597E-3	90.9826E-12	607.750E-3	-55.8272E-3
2.31866E-3	92.3138E-12	587.710E-3	-23.7495E-3	91.3026E-12	618.312E-3	-53.7506E-3
2.31366E-3	91.5211E-12	603.854E-3	-17.0127E-3	91.2439E-12	635.547E-3	-36.2558E-3
2.30865E-3	90.9083E-12	607.533E-3	-15.5024E-3	89.9889E-12	636.664E-3	-14.5359E-3
2.30365E-3	90.0685E-12	603.940E-3	-22.7418E-3	89.0250E-12	615.926E-3	-429.487E-6
2.29865E-3	89.4768E-12	619.033E-3	-19.4065E-3	89.0906E-12	596.200E-3	-7.40978E-3
2.29365E-3	89.7907E-12	624.397E-3	-8.86360E-3	88.8087E-12	593.188E-3	-26.4312E-3
2.28864E-3	88.8190E-12	603.853E-3	-12.1659E-3	88.1439E-12	592.124E-3	-21.1659E-3
2.28364E-3	88.3746E-12	590.178E-3	-27.5448E-3	87.9075E-12	574.977E-3	-1.74598E-3
2.27864E-3	88.0336E-12	582.262E-3	-35.2022E-3	87.9708E-12	561.640E-3	-2.18715E-3
2.27364E-3	88.6860E-12	585.827E-3	-39.8938E-3	87.4863E-12	563.599E-3	-19.8932E-3
2.26863E-3	87.8231E-12	612.561E-3	-37.7202E-3	88.0849E-12	587.021E-3	-33.9660E-3
2.26363E-3	87.6840E-12	623.282E-3	-15.6964E-3	88.6351E-12	626.090E-3	-27.1722E-3
2.25863E-3	87.1476E-12	603.628E-3	2.20204E-3	88.5818E-12	636.080E-3	-10.5969E-3
2.25363E-3	87.1742E-12	596.681E-3	-1.83112E-3	88.1926E-12	620.528E-3	-2.47240E-3
2.24862E-3	86.7688E-12	609.104E-3	-6.92354E-3	88.4687E-12	628.082E-3	-12.5031E-3
2.24362E-3	85.7732E-12	623.984E-3	-4.96034E-3	89.2175E-12	651.244E-3	-33.2444E-3
2.23862E-3	85.8541E-12	632.961E-3	-1.12673E-3	89.6529E-12	648.372E-3	-45.5717E-3
2.23362E-3	85.8377E-12	624.530E-3	1.15750E-3	88.6301E-12	637.446E-3	-41.9369E-3
2.22861E-3	86.6631E-12	604.956E-3	-8.21945E-3	88.4440E-12	626.615E-3	-24.3116E-3
2.22361E-3	86.4584E-12	597.845E-3	-18.5912E-3	89.1844E-12	607.701E-3	-15.9488E-3
2.21861E-3	86.2409E-12	599.113E-3	-10.6734E-3	89.2175E-12	615.158E-3	-27.0036E-3
2.21361E-3	86.4148E-12	594.902E-3	-15.7188E-3	88.1656E-12	632.578E-3	-41.2864E-3
2.20860E-3	86.8532E-12	604.908E-3	-40.7236E-3	86.9637E-12	613.096E-3	-39.5799E-3
2.20360E-3	87.1273E-12	622.245E-3	-30.3869E-3	86.7380E-12	595.415E-3	-20.1556E-3
2.19860E-3	86.7885E-12	623.186E-3	-9.44686E-3	85.7845E-12	610.829E-3	-2.07247E-3
2.19360E-3	86.2023E-12	630.502E-3	-16.2863E-3	85.6993E-12	621.204E-3	-3.97064E-3
2.18859E-3	86.0333E-12	650.980E-3	-25.2717E-3	85.2262E-12	624.551E-3	-12.9588E-3
2.18359E-3	86.5933E-12	644.836E-3	-26.3315E-3	85.0078E-12	619.820E-3	-20.4013E-3
2.17859E-3	86.5293E-12	615.595E-3	-31.5373E-3	84.3016E-12	613.168E-3	-24.1132E-3
2.17359E-3	84.7258E-12	599.992E-3	-28.5498E-3	84.0329E-12	618.718E-3	-12.9374E-3
2.16858E-3	84.1387E-12	606.530E-3	-18.8954E-3	84.2835E-12	620.411E-3	-13.1684E-3
2.16358E-3	84.0649E-12	618.298E-3	-22.8359E-3	83.6867E-12	612.090E-3	-26.5229E-3
2.15858E-3	83.7495E-12	618.339E-3	-25.1855E-3	83.6158E-12	602.484E-3	-17.7596E-3
2.15358E-3	82.5567E-12	599.314E-3	-15.9685E-3	83.8543E-12	606.277E-3	-2.69818E-3
2.14857E-3	81.5263E-12	584.083E-3	-11.1584E-3	85.0077E-12	625.457E-3	-10.7888E-3
2.14357E-3	82.2252E-12	595.280E-3	-16.6720E-3	85.3009E-12	646.813E-3	-16.9336E-3
2.13857E-3	82.8150E-12	599.202E-3	-23.4257E-3	84.7927E-12	659.901E-3	-2.06100E-3
2.13357E-3	82.2691E-12	590.042E-3	-36.4185E-3	84.3195E-12	646.384E-3	1.27012E-3
2.12856E-3	82.5616E-12	591.952E-3	-29.2805E-3	84.1321E-12	611.172E-3	-2.81015E-3
2.12356E-3	82.8063E-12	593.278E-3	-4.36208E-3	84.1820E-12	588.424E-3	-7.83648E-3
2.11856E-3	83.6710E-12	587.922E-3	-1.30593E-3	83.6089E-12	587.449E-3	-30.3500E-3
2.11356E-3	83.7603E-12	589.376E-3	-5.50296E-3	83.1524E-12	601.442E-3	-38.7194E-3
2.10855E-3	83.7871E-12	602.126E-3	-6.78918E-3	82.5167E-12	611.570E-3	-23.7281E-3
2.10355E-3	83.7266E-12	617.688E-3	-14.4610E-3	81.9599E-12	606.519E-3	-19.6734E-3
2.09855E-3	83.8035E-12	630.864E-3	-19.3232E-3	81.7571E-12	605.643E-3	-42.9078E-3
2.09355E-3	84.6533E-12	642.878E-3	-18.7514E-3	80.7705E-12	622.274E-3	-65.0936E-3
2.08854E-3	83.7907E-12	646.001E-3	-10.3371E-3	80.0297E-12	634.099E-3	-57.8783E-3
2.08354E-3	82.4900E-12	643.519E-3	156.049E-6	80.0335E-12	633.034E-3	-35.6091E-3
2.07854E-3	81.6905E-12	648.238E-3	1.43770E-3	79.9275E-12	625.712E-3	-11.8278E-3
2.07354E-3	82.5723E-12	647.866E-3	-4.44509E-3	79.4975E-12	626.525E-3	2.09541E-3
2.06853E-3	81.8915E-12	644.921E-3	-18.1600E-3	78.8447E-12	630.619E-3	3.72662E-3
2.06353E-3	80.2859E-12	648.831E-3	-21.5708E-3	78.8736E-12	614.972E-3	4.75291E-3
2.05853E-3	78.9920E-12	637.724E-3	-11.2129E-3	78.6489E-12	601.985E-3	-1.95617E-3
2.05353E-3	79.9130E-12	624.878E-3	-11.8486E-3	79.1905E-12	606.249E-3	-17.8216E-3
2.04852E-3	80.4141E-12	630.055E-3	-6.67106E-3	79.2497E-12	624.775E-3	-24.2034E-3
2.04352E-3	79.3817E-12	633.221E-3	-2.08095E-3	78.6579E-12	652.481E-3	-7.77255E-3
2.03852E-3	78.4553E-12	623.461E-3	-24.7640E-3	78.6518E-12	658.219E-3	12.5660E-3
2.03352E-3	79.7424E-12	609.364E-3	-30.8709E-3	79.3277E-12	626.073E-3	16.5204E-3
2.02851E-3	80.9490E-12	601.824E-3	-15.1755E-3	80.2036E-12	591.889E-3	6.24768E-3
2.02351E-3	80.4731E-12	613.400E-3	-11.3082E-3	79.6226E-12	597.617E-3	-8.29318E-3
2.01851E-3	78.9897E-12	636.733E-3	-14.1981E-3	79.6984E-12	625.232E-3	-12.1263E-3
2.01351E-3	79.5463E-12	649.967E-3	-14.7689E-3	79.3459E-12	642.193E-3	-5.68751E-3
2.00850E-3	79.7162E-12	654.122E-3	-238.220E-6	80.0366E-12	641.390E-3	-7.88677E-3
2.00350E-3	80.0622E-12	652.463E-3	19.9151E-3	78.7154E-12	649.649E-3	-20.1682E-3
1.99850E-3	78.9512E-12	649.117E-3	14.8417E-3	78.1642E-12	665.104E-3	-22.8953E-3
1.99350E-3	78.0973E-12	650.231E-3	-16.1469E-3	77.2169E-12	655.017E-3	-23.0075E-3
1.98849E-3	77.7384E-12	650.622E-3	-33.8402E-3	77.4432E-12	634.773E-3	-25.7007E-3
1.98349E-3	77.8203E-12	642.557E-3	-22.4526E-3	76.6523E-12	636.462E-3	-15.2333E-3
1.97849E-3	77.6117E-12	632.244E-3	-8.25222E-3	75.9823E-12	640.088E-3	-2.39413E-3
1.97349E-3	75.7822E-12	645.251E-3	-8.92066E-3	75.7167E-12	620.725E-3	1.09930E-3
1.96848E-3	74.9211E-12	659.578E-3	-10.1147E-3	75.4489E-12	616.471E-3	-4.45778E-3
1.96348E-3	75.2396E-12	633.060E-3	-22.4372E-3	74.7524E-12	631.037E-3	-15.9476E-3
1.95848E-3	75.6543E-12	601.680E-3	-41.3307E-3	74.6714E-12	628.587E-3	-9.72369E-3
1.95348E-3	74.6329E-12	601.467E-3	-19.1629E-3	74.5651E-12	622.851E-3	-6.46170E-3
1.94847E-3	73.6912E-12	615.529E-3	1.55809E-3	74.3066E-12	632.078E-3	-25.6999E-3
1.94347E-3	73.7555E-12	627.198E-3	-11.7778E-3	74.2731E-12	640.387E-3	-25.7935E-3
1.93847E-3	74.7684E-12	630.888E-3	-19.0500E-3	74.7849E-12	645.458E-3	-15.0825E-3
1.93347E-3	74.6609E-12	630.262E-3	-17.4998E-3	75.0684E-12	650.870E-3	-32.2931E-3
1.92846E-3	73.6986E-12	641.574E-3	-17.3517E-3	75.0408E-12	666.864E-3	-51.2498E-3
1.92346E-3	73.7453E-12	650.666E-3	-5.02480E-3	75.6525E-12	688.366E-3	-42.8435E-3
1.91846E-3	73.6904E-12	644.358E-3	3.93666E-3	75.5452E-12	685.869E-3	-39.8887E-3
1.91346E-3	74.0614E-12	642.118E-3	-4.28784E-3	75.3129E-12	663.605E-3	-43.8037E-3
1.90845E-3	73.6059E-12	640.122E-3	-14.4352E-3	76.0366E-12	645.247E-3	-28.1625E-3
1.90345E-3	73.0060E-12	631.563E-3	-20.1979E-3	75.7124E-12	632.211E-3	-10.9331E-3
1.89845E-3	73.0607E-12	640.404E-3	-14.0101E-3	74.8524E-12	617.523E-3	-4.48950E-3
1.89345E-3	73.6141E-12	654.431E-3	-7.26065E-3	74.1838E-12	619.158E-3	-866.900E-6
1.88844E-3	74.2347E-12	650.258E-3	-12.1490E-3	74.3975E-12	634.702E-3	-1.83397E-3
1.88344E-3	72.5967E-12	649.374E-3	-21.4565E-3	73.4922E-12	636.942E-3	-3.53348E-3
1.87844E-3	71.5481E-12	658.144E-3	-17.5212E-3	72.7273E-12	640.334E-3	-1.84456E-3
1.87344E-3	71.2264E-12	656.231E-3	-8.49686E-3	72.6701E-12	659.053E-3	-10.1002E-3
1.86843E-3	72.4737E-12	644.712E-3	-16.6660E-3	72.5383E-12	679.288E-3	-12.4805E-3
1.86343E-3	71.7955E-12	649.927E-3	-21.7454E-3	72.5257E-12	683.175E-3	-1.81841E-3
1.85843E-3	71.1838E-12	655.265E-3	-6.96081E-3	71.8317E-12	667.998E-3	-4.37249E-3
1.85343E-3	70.5790E-12	651.012E-3	668.309E-6	71.1830E-12	655.525E-3	-6.53529E-3
1.84842E-3	70.8584E-12	665.629E-3	-3.46391E-3	71.7131E-12	658.318E-3	-2.72890E-3
1.84342E-3	70.6408E-12	675.717E-3	2.06931E-3	72.4177E-12	672.770E-3	-12.1630E-3
1.83842E-3	70.7858E-12	658.324E-3	-604.501E-6	71.4339E-12	694.523E-3	-30.7693E-3
1.83342E-3	70.0884E-12	650.832E-3	-26.8733E-3	71.3080E-12	701.333E-3	-49.4432E-3
1.82841E-3	69.7618E-12	667.969E-3	-44.8115E-3	71.7980E-12	693.559E-3	-50.0201E-3
1.82341E-3	70.0610E-12	672.232E-3	-43.5206E-3	72.1630E-12	688.067E-3	-45.3657E-3
1.81841E-3	70.6826E-12	669.055E-3	-42.9558E-3	72.3818E-12	688.997E-3	-48.3065E-3
1.81341E-3	70.3148E-12	678.950E-3	-40.1647E-3	71.2621E-12	691.657E-3	-34.9422E-3
1.80840E-3	69.3819E-12	679.578E-3	-34.8565E-3	71.3875E-12	684.838E-3	-20.8911E-3
1.80340E-3	69.7644E-12	684.764E-3	-33.4439E-3	71.1456E-12	681.657E-3	-23.0137E-3
1.79840E-3	70.4208E-12	712.889E-3	-25.3795E-3	70.3886E-12	685.154E-3	-31.2351E-3
1.79340E-3	70.5296E-12	725.628E-3	-15.4269E-3	69.1285E-12	673.406E-3	-22.8436E-3
1.78839E-3	69.5837E-12	717.966E-3	-10.4254E-3	69.5386E-12	665.361E-3	-6.00623E-3
1.78339E-3	69.0679E-12	704.590E-3	-11.5726E-3	68.8864E-12	677.276E-3	-18.7256E-3
1.77839E-3	69.4228E-12	666.122E-3	-22.8806E-3	67.5350E-12	676.836E-3	-37.4704E-3
1.77339E-3	69.5534E-12	645.823E-3	-26.2610E-3	66.2643E-12	662.218E-3	-36.2483E-3
1.76838E-3	69.1549E-12	667.710E-3	-11.9198E-3	66.2650E-12	650.223E-3	-32.1230E-3
1.76338E-3	68.0221E-12	680.469E-3	-9.37926E-3	66.2276E-12	645.597E-3	-21.8362E-3
1.75838E-3	68.1007E-12	685.608E-3	-38.8352E-3	64.9477E-12	653.795E-3	-4.00063E-3
1.75338E-3	67.7534E-12	689.961E-3	-58.4895E-3	64.6303E-12	670.525E-3	536.420E-6
1.74837E-3	67.6508E-12	677.104E-3	-51.8152E-3	64.8994E-12	679.373E-3	-1.06697E-3
1.74337E-3	66.6596E-12	666.354E-3	-50.6061E-3	65.4923E-12	672.464E-3	-4.54081E-3
1.73837E-3	66.0336E-12	675.983E-3	-39.8540E-3	64.7993E-12	668.046E-3	-16.0915E-3
1.73337E-3	65.7263E-12	680.596E-3	-17.5680E-3	64.8936E-12	680.966E-3	-19.0315E-3
1.72836E-3	65.6509E-12	671.094E-3	-15.3647E-3	65.8811E-12	694.401E-3	-3.39073E-3
1.72336E-3	65.0449E-12	669.598E-3	-20.0936E-3	66.7374E-12	709.258E-3	10.2070E-3
1.71836E-3	64.6264E-12	665.577E-3	-23.4048E-3	66.5033E-12	719.712E-3	85.0217E-6
1.71336E-3	64.4914E-12	661.637E-3	-34.7568E-3	65.5508E-12	723.243E-3	-11.8499E-3
1.70835E-3	64.7222E-12	669.606E-3	-29.3606E-3	65.6303E-12	733.310E-3	-14.3918E-3
1.70335E-3	64.3039E-12	670.313E-3	1.31342E-3	66.3020E-12	728.038E-3	-18.6341E-3
1.69835E-3	64.0844E-12	674.774E-3	26.9174E-3	66.3481E-12	713.774E-3	-15.1837E-3
1.69335E-3	64.4616E-12	691.520E-3	19.2388E-3	65.8330E-12	707.236E-3	-9.23614E-3
1.68834E-3	65.5456E-12	693.989E-3	-1.36498E-3	65.4783E-12	700.446E-3	-8.46661E-3
1.68334E-3	65.3989E-12	691.952E-3	-13.9968E-3	65.4665E-12	703.521E-3	-9.71730E-3
1.67834E-3	64.3457E-12	700.226E-3	-22.4939E-3	65.2348E-12	704.741E-3	-13.2057E-3
1.67334E-3	63.6231E-12	706.655E-3	-13.0025E-3	64.7911E-12	689.424E-3	-19.7230E-3
1.66833E-3	64.0457E-12	704.124E-3	-3.01979E-3	63.9099E-12	685.683E-3	-33.1089E-3
1.66333E-3	63.6696E-12	701.603E-3	-5.12953E-3	63.6393E-12	693.216E-3	-45.7815E-3
1.65833E-3	62.9955E-12	716.393E-3	111.302E-6	63.3146E-12	695.337E-3	-44.7170E-3
1.65333E-3	61.6490E-12	724.541E-3	-7.66213E-3	63.9226E-12	696.515E-3	-36.2287E-3
1.64832E-3	61.7933E-12	711.117E-3	-29.3305E-3	62.9320E-12	701.060E-3	-30.4243E-3
1.64332E-3	61.1119E-12	697.727E-3	-29.5329E-3	62.0737E-12	711.113E-3	-27.6886E-3
1.63832E-3	60.4512E-12	688.468E-3	-21.5971E-3	62.7525E-12	710.623E-3	-28.1429E-3
1.63332E-3	59.7597E-12	693.782E-3	-21.0731E-3	63.0346E-12	704.484E-3	-25.0048E-3
1.62831E-3	59.7495E-12	709.493E-3	-11.2220E-3	62.0701E-12	712.667E-3	-21.9580E-3
1.62331E-3	59.1469E-12	714.383E-3	-6.76675E-3	61.3877E-12	727.012E-3	-23.6398E-3
1.61831E-3	58.8142E-12	711.769E-3	-13.2984E-3	61.6338E-12	729.657E-3	-21.2929E-3
1.61331E-3	59.2913E-12	724.345E-3	-14.1497E-3	62.1142E-12	733.358E-3	-27.0774E-3
1.60830E-3	59.0949E-12	731.208E-3	-14.9726E-3	61.5945E-12	749.727E-3	-37.1225E-3
1.60330E-3	58.8113E-12	710.635E-3	-12.6921E-3	61.3449E-12	759.417E-3	-29.5403E-3
1.59830E-3	58.8022E-12	701.007E-3	-104.727E-6	60.8776E-12	751.551E-3	-22.0577E-3
1.59330E-3	59.1032E-12	716.102E-3	12.0152E-3	61.3289E-12	743.283E-3	-21.6325E-3
1.58829E-3	58.8844E-12	729.886E-3	-2.05328E-3	61.7517E-12	737.969E-3	-15.9286E-3
1.58329E-3	59.1390E-12	732.265E-3	-16.1177E-3	60.8200E-12	725.504E-3	-13.4838E-3
1.57829E-3	58.5839E-12	731.202E-3	-6.80542E-3	59.6587E-12	730.509E-3	-25.3028E-3
1.57329E-3	58.2920E-12	733.626E-3	-2.92543E-3	59.3316E-12	745.224E-3	-49.2213E-3
1.56828E-3	58.0458E-12	737.992E-3	-5.51070E-3	59.8488E-12	737.892E-3	-45.3247E-3
1.56328E-3	57.8010E-12	735.915E-3	-1.47474E-3	59.0997E-12	732.134E-3	-17.9142E-3
1.55828E-3	57.2055E-12	726.031E-3	-3.69356E-3	57.9081E-12	742.630E-3	-8.25132E-3
1.55328E-3	56.7935E-12	729.600E-3	-9.96249E-3	56.9489E-12	743.316E-3	-8.41898E-3
1.54827E-3	56.2879E-12	736.257E-3	-7.93502E-3	57.5179E-12	724.893E-3	-13.1334E-3
1.54327E-3	55.6786E-12	724.455E-3	-9.92488E-3	57.3212E-12	702.405E-3	-15.2498E-3
1.53827E-3	55.7590E-12	723.487E-3	-10.0681E-3	56.3306E-12	699.920E-3	-8.30103E-3
1.53327E-3	55.8005E-12	723.593E-3	-13.0374E-3	55.6435E-12	715.115E-3	-8.21802E-3
1.52826E-3	55.3581E-12	707.068E-3	-30.3838E-3	55.8484E-12	726.410E-3	-13.1316E-3
1.52326E-3	55.0834E-12	702.812E-3	-36.3984E-3	55.5011E-12	733.892E-3	-9.18044E-3
1.51826E-3	55.3002E-12	716.229E-3	-34.9776E-3	54.7471E-12	744.018E-3	1.56961E-3
1.51326E-3	55.2288E-12	728.658E-3	-34.2743E-3	54.9163E-12	748.087E-3	-3.62193E-3
1.50825E-3	55.1607E-12	734.820E-3	-24.2504E-3	54.5481E-12	737.864E-3	-22.7852E-3
1.50325E-3	54.6300E-12	729.477E-3	-17.7140E-3	54.5056E-12	727.717E-3	-25.4972E-3
1.49825E-3	55.0904E-12	717.164E-3	-19.5828E-3	55.2015E-12	729.765E-3	-9.10374E-3
1.49325E-3	55.0590E-12	715.894E-3	-26.0745E-3	54.8873E-12	732.029E-3	-13.3824E-3
1.48824E-3	54.9670E-12	726.158E-3	-31.0254E-3	54.1336E-12	730.259E-3	-33.6988E-3
1.48324E-3	54.6987E-12	743.385E-3	-27.1217E-3	54.4130E-12	730.182E-3	-41.4272E-3
1.47824E-3	54.2849E-12	751.728E-3	-29.4170E-3	54.8461E-12	726.122E-3	-42.5101E-3
1.47324E-3	54.7260E-12	741.567E-3	-30.6709E-3	54.0209E-12	725.111E-3	-33.6458E-3
1.46823E-3	54.3999E-12	728.869E-3	-17.5251E-3	52.9872E-12	737.815E-3	-24.5119E-3
1.46323E-3	53.1039E-12	733.432E-3	-5.61374E-3	52.3704E-12	742.973E-3	-23.4858E-3
1.45823E-3	52.9016E-12	738.688E-3	932.155E-6	52.5462E-12	727.957E-3	-22.0360E-3
1.45323E-3	53.7899E-12	714.766E-3	-6.32170E-3	52.2360E-12	710.798E-3	-17.8927E-3
1.44822E-3	53.6690E-12	690.222E-3	-26.0599E-3	51.2964E-12	707.663E-3	-8.93015E-3
1.44322E-3	52.5418E-12	695.872E-3	-29.3796E-3	50.8182E-12	709.688E-3	-7.94069E-3
1.43822E-3	52.0556E-12	708.296E-3	-12.1160E-3	50.8367E-12	696.151E-3	-13.7442E-3
1.43322E-3	52.0510E-12	702.910E-3	-2.61111E-3	50.8857E-12	682.299E-3	-5.85924E-3
1.42821E-3	51.8712E-12	703.133E-3	-4.53063E-3	50.9173E-12	691.407E-3	-5.23640E-3
1.42321E-3	51.7561E-12	708.721E-3	-9.46178E-3	50.1476E-12	711.631E-3	-15.3615E-3
1.41821E-3	51.5017E-12	703.447E-3	-20.4478E-3	49.9669E-12	719.456E-3	-15.0725E-3
1.41321E-3	51.2080E-12	702.801E-3	-15.2084E-3	50.3332E-12	711.438E-3	-16.1048E-3
1.40820E-3	51.0119E-12	701.115E-3	-6.36886E-3	50.8384E-12	704.440E-3	-28.3794E-3
1.40320E-3	51.3698E-12	695.317E-3	-28.1929E-3	50.2140E-12	707.136E-3	-39.9787E-3
1.39820E-3	51.5754E-12	697.892E-3	-34.6462E-3	50.0962E-12	700.274E-3	-37.0035E-3
1.39320E-3	50.8273E-12	687.590E-3	-12.8423E-3	50.3771E-12	687.825E-3	-28.1944E-3
1.38819E-3	49.8513E-12	673.556E-3	-8.18139E-3	51.0431E-12	683.809E-3	-26.4887E-3
1.38319E-3	50.1497E-12	685.491E-3	-11.1799E-3	50.5044E-12	680.435E-3	-25.6687E-3
1.37819E-3	50.4708E-12	690.284E-3	-2.05042E-3	49.9688E-12	680.911E-3	-21.7873E-3
1.37319E-3	49.4732E-12	675.184E-3	5.12977E-3	49.5364E-12	674.107E-3	-21.0505E-3
1.36818E-3	49.1398E-12	664.731E-3	-4.23812E-3	49.0878E-12	653.902E-3	-15.3709E-3
1.36318E-3	48.9752E-12	664.914E-3	-24.4355E-3	48.9394E-12	647.507E-3	-5.22993E-3
1.35818E-3	49.3109E-12	656.042E-3	-31.1067E-3	48.3996E-12	646.865E-3	-9.11575E-3
1.35318E-3	48.3854E-12	646.991E-3	-20.7105E-3	47.3744E-12	628.004E-3	-11.1723E-3
1.34817E-3	47.7080E-12	653.529E-3	-10.8013E-3	46.7599E-12	606.562E-3	1.07294E-3
1.34317E-3	47.5831E-12	655.725E-3	-6.33023E-3	46.7420E-12	593.745E-3	-928.143E-6
1.33817E-3	47.5734E-12	654.653E-3	-13.1908E-3	47.2590E-12	590.617E-3	-12.8389E-3
1.33317E-3	47.4911E-12	651.816E-3	-16.6909E-3	46.2907E-12	579.592E-3	-14.6447E-3
1.32816E-3	46.2536E-12	636.593E-3	-18.5662E-3	45.0712E-12	554.592E-3	-2.65640E-3
1.32316E-3	45.8773E-12	621.891E-3	-33.7498E-3	45.3515E-12	543.393E-3	6.40964E-3
1.31816E-3	45.9420E-12	615.442E-3	-22.9219E-3	46.4784E-12	548.801E-3	6.47525E-3
1.31316E-3	46.1272E-12	593.415E-3	-1.25997E-3	46.2687E-12	548.640E-3	8.07012E-3
1.30815E-3	45.3259E-12	576.400E-3	-10.1682E-3	45.3383E-12	551.459E-3	-1.05988E-3
1.30315E-3	44.9608E-12	575.741E-3	-15.7346E-3	45.5175E-12	559.935E-3	-14.4528E-3
1.29815E-3	44.7673E-12	560.200E-3	-9.35126E-3	45.9756E-12	547.183E-3	-17.8129E-3
1.29315E-3	45.3910E-12	538.795E-3	-18.7286E-3	46.4692E-12	527.026E-3	-17.2595E-3
1.28814E-3	45.1799E-12	517.462E-3	-11.5546E-3	45.6012E-12	513.075E-3	-14.5298E-3
1.28314E-3	45.3177E-12	507.925E-3	7.74820E-3	45.3573E-12	506.598E-3	-13.5334E-3
1.27814E-3	44.6238E-12	523.651E-3	-3.49451E-3	45.0103E-12	504.199E-3	-19.2416E-3
1.27314E-3	44.1242E-12	534.228E-3	-12.5209E-3	45.2887E-12	498.464E-3	-32.1832E-3
1.26813E-3	44.4250E-12	526.627E-3	-1.61695E-3	45.1746E-12	487.512E-3	-41.0434E-3
1.26313E-3	45.3951E-12	512.922E-3	2.69154E-3	44.3458E-12	462.230E-3	-32.5780E-3
1.25813E-3	44.4617E-12	498.748E-3	-2.53911E-3	43.7293E-12	443.698E-3	-12.1931E-3
1.25313E-3	43.8979E-12	490.963E-3	-6.39466E-3	43.6111E-12	440.224E-3	-7.53400E-3
1.24812E-3	44.0049E-12	481.956E-3	-13.5369E-3	43.9941E-12	430.163E-3	-13.6409E-3
1.24312E-3	44.9462E-12	468.737E-3	-12.2982E-3	43.4574E-12	414.916E-3	-16.9576E-3
1.23812E-3	44.2359E-12	462.914E-3	-2.32924E-3	42.6082E-12	403.318E-3	-29.4423E-3
1.23312E-3	43.0147E-12	462.276E-3	-14.9404E-3	42.2965E-12	400.882E-3	-34.0835E-3
1.22811E-3	43.1696E-12	461.969E-3	-33.8635E-3	42.8692E-12	410.816E-3	-28.2704E-3
1.22311E-3	43.4744E-12	451.656E-3	-27.4416E-3	42.9116E-12	415.752E-3	-28.2172E-3
1.21811E-3	43.2158E-12	434.445E-3	-25.8962E-3	42.2442E-12	409.198E-3	-29.6268E-3
1.21311E-3	42.1653E-12	426.147E-3	-33.7368E-3	42.0884E-12	395.426E-3	-18.9423E-3
1.20810E-3	42.5656E-12	415.805E-3	-23.3931E-3	42.1174E-12	382.338E-3	-12.0722E-3
1.20310E-3	42.9183E-12	390.087E-3	-20.8262E-3	42.7996E-12	383.047E-3	-18.9692E-3
1.19810E-3	42.7986E-12	368.294E-3	-24.9913E-3	42.8100E-12	382.981E-3	-16.0109E-3
1.19310E-3	42.1310E-12	360.494E-3	-11.6254E-3	41.7884E-12	377.557E-3	-5.20892E-3
1.18809E-3	42.4626E-12	365.059E-3	815.830E-6	42.0413E-12	369.470E-3	-8.90616E-3
1.18309E-3	43.2503E-12	386.582E-3	-4.64355E-3	42.4270E-12	339.614E-3	-16.7244E-3
1.17809E-3	43.3970E-12	397.339E-3	-13.2031E-3	42.7706E-12	304.795E-3	-12.4357E-3
1.17309E-3	42.5455E-12	374.572E-3	-8.62928E-3	41.7097E-12	297.545E-3	-12.9708E-3
1.16808E-3	42.4361E-12	347.685E-3	-6.63905E-3	41.7194E-12	304.214E-3	-16.8608E-3
1.16308E-3	42.8603E-12	341.999E-3	-8.52136E-3	41.9356E-12	308.619E-3	-15.2383E-3
1.15808E-3	43.7395E-12	331.861E-3	-12.3704E-3	41.9174E-12	311.824E-3	-18.6067E-3
1.15308E-3	43.7996E-12	317.471E-3	-32.6162E-3	41.2567E-12	305.000E-3	-9.90370E-3
1.14807E-3	43.1811E-12	318.716E-3	-35.9629E-3	40.9605E-12	293.436E-3	-1.33309E-3
1.14307E-3	43.1398E-12	310.565E-3	-17.7461E-3	41.1652E-12	286.289E-3	-15.0345E-3
1.13807E-3	43.1180E-12	297.470E-3	-22.0741E-3	41.3746E-12	276.164E-3	-18.1127E-3
1.13307E-3	42.7940E-12	301.222E-3	-25.4568E-3	41.2464E-12	270.053E-3	-16.1298E-3
1.12806E-3	42.6676E-12	304.263E-3	-10.6500E-3	40.6340E-12	268.908E-3	-16.4694E-3
1.12306E-3	42.4254E-12	299.110E-3	-17.4784E-3	40.6090E-12	261.073E-3	-8.30641E-3
1.11806E-3	42.7388E-12	286.995E-3	-29.1943E-3	40.7607E-12	255.182E-3	-13.8168E-3
1.11306E-3	42.7487E-12	266.450E-3	-25.8395E-3	40.4092E-12	254.173E-3	-22.9902E-3
1.10805E-3	42.0320E-12	254.158E-3	-30.5355E-3	40.5193E-12	249.369E-3	-16.5416E-3
1.10305E-3	41.3000E-12	264.481E-3	-19.8985E-3	40.4225E-12	238.211E-3	-13.3905E-3
1.09805E-3	40.9339E-12	276.043E-3	8.42187E-3	40.5398E-12	227.154E-3	-18.7529E-3
1.09305E-3	41.0373E-12	267.072E-3	10.1246E-3	40.5509E-12	227.736E-3	-20.0132E-3
1.08804E-3	40.9141E-12	251.056E-3	-5.52097E-3	40.9778E-12	234.408E-3	-17.5078E-3
1.08304E-3	40.9328E-12	238.986E-3	-8.66879E-3	41.0331E-12	230.844E-3	-20.6574E-3
1.07804E-3	41.0898E-12	236.783E-3	-16.0931E-3	41.1675E-12	225.125E-3	-21.6670E-3
1.07304E-3	41.6557E-12	255.245E-3	-26.0077E-3	41.1271E-12	225.737E-3	-12.1222E-3
1.06803E-3	41.4837E-12	264.336E-3	-19.7497E-3	41.1054E-12	222.183E-3	-6.99008E-3
1.06303E-3	40.6360E-12	238.108E-3	-19.4988E-3	40.1160E-12	219.640E-3	-13.9892E-3
1.05803E-3	40.5293E-12	236.658E-3	-20.3563E-3	39.7389E-12	229.211E-3	-28.3311E-3
1.05303E-3	40.4955E-12	248.732E-3	-6.57147E-3	40.0993E-12	237.775E-3	-29.6038E-3
1.04802E-3	40.3429E-12	222.447E-3	-5.71549E-3	40.0053E-12	230.440E-3	-10.9871E-3
1.04302E-3	40.2505E-12	216.515E-3	-18.8769E-3	39.8868E-12	222.711E-3	-437.431E-6
1.03802E-3	40.4476E-12	239.476E-3	-11.0692E-3	39.3420E-12	223.901E-3	-9.78931E-3
1.03302E-3	40.2207E-12	236.904E-3	-2.53057E-3	38.7894E-12	212.153E-3	-20.1810E-3
1.02801E-3	39.1620E-12	228.375E-3	-18.2874E-3	38.7231E-12	195.159E-3	-18.6366E-3
1.02301E-3	38.6636E-12	240.208E-3	-19.7377E-3	38.3204E-12	199.551E-3	-13.0627E-3
1.01801E-3	38.8829E-12	232.930E-3	-10.0843E-3	37.7557E-12	221.443E-3	-11.9676E-3
1.01301E-3	39.2162E-12	207.590E-3	-10.9881E-3	37.8812E-12	240.175E-3	-14.1885E-3
1.00800E-3	38.4280E-12	192.376E-3	-1.61357E-3	38.4975E-12	240.542E-3	-21.6816E-3
1.00300E-3	37.9283E-12	186.428E-3	-3.30050E-3	38.4563E-12	227.489E-3	-31.7863E-3
997.999E-6	37.9304E-12	192.783E-3	-24.8424E-3	38.1920E-12	224.745E-3	-33.3787E-3
992.997E-6	37.9604E-12	203.854E-3	-21.8714E-3	37.8173E-12	234.453E-3	-23.9328E-3
987.994E-6	37.9489E-12	216.401E-3	-7.38532E-3	38.0871E-12	243.492E-3	-18.6261E-3
982.991E-6	37.6912E-12	230.375E-3	-14.6412E-3	38.3610E-12	254.513E-3	-20.2669E-3
977.989E-6	37.3347E-12	244.834E-3	-15.7085E-3	38.4689E-12	266.823E-3	-24.5184E-3
972.986E-6	37.4032E-12	248.589E-3	-2.40386E-3	38.0871E-12	265.540E-3	-33.3576E-3
967.984E-6	37.5150E-12	239.218E-3	-4.82372E-3	38.2388E-12	251.864E-3	-36.0508E-3
962.981E-6	37.2851E-12	244.732E-3	-7.77808E-3	38.4552E-12	257.324E-3	-31.1267E-3
957.979E-6	36.9709E-12	259.158E-3	-405.099E-6	38.2438E-12	273.822E-3	-36.5676E-3
952.976E-6	37.3391E-12	261.946E-3	-13.5374E-3	37.6387E-12	273.063E-3	-42.4446E-3
947.974E-6	37.1406E-12	266.282E-3	-27.9131E-3	37.7047E-12	271.183E-3	-39.3546E-3
942.971E-6	37.4395E-12	266.132E-3	-26.1440E-3	37.2888E-12	271.227E-3	-31.5044E-3
937.969E-6	37.2362E-12	255.615E-3	-27.1286E-3	37.0850E-12	279.314E-3	-6.96170E-3
932.966E-6	36.9451E-12	270.141E-3	-17.6962E-3	36.7220E-12	307.368E-3	9.86704E-3
927.964E-6	36.7854E-12	296.000E-3	-4.20757E-3	36.4536E-12	323.472E-3	-4.96353E-3
922.961E-6	36.6600E-12	305.184E-3	-9.22423E-3	36.3185E-12	331.691E-3	-20.0476E-3
917.959E-6	37.4208E-12	313.980E-3	-19.4143E-3	35.7586E-12	353.303E-3	-17.4393E-3
912.956E-6	36.6843E-12	314.921E-3	-12.6849E-3	35.6109E-12	357.453E-3	-20.4480E-3
907.954E-6	36.0793E-12	322.526E-3	-14.2192E-3	35.5140E-12	347.973E-3	-19.5567E-3
902.951E-6	35.7415E-12	353.499E-3	-28.6225E-3	35.5375E-12	365.534E-3	-5.30492E-3
897.949E-6	36.2501E-12	361.715E-3	-18.5780E-3	35.4794E-12	395.651E-3	-5.69757E-3
892.946E-6	36.4032E-12	345.161E-3	2.19727E-3	35.9258E-12	403.217E-3	-17.3948E-3
887.944E-6	35.6550E-12	350.094E-3	4.85195E-3	35.9812E-12	414.959E-3	-19.5092E-3
882.941E-6	35.6710E-12	366.907E-3	-3.41583E-3	35.7287E-12	436.553E-3	-9.68129E-3
877.939E-6	36.0530E-12	375.683E-3	-11.4385E-3	36.0757E-12	431.400E-3	-5.61895E-3
872.936E-6	35.9840E-12	394.807E-3	-25.3209E-3	36.1373E-12	427.602E-3	-20.3541E-3
867.934E-6	35.6164E-12	423.782E-3	-29.1026E-3	35.9313E-12	454.671E-3	-33.7415E-3
862.931E-6	36.0443E-12	428.849E-3	-25.2645E-3	35.6988E-12	471.315E-3	-25.4161E-3
857.929E-6	36.1132E-12	439.904E-3	-37.3537E-3	35.8891E-12	467.549E-3	-8.57241E-3
852.926E-6	35.5700E-12	477.508E-3	-40.2117E-3	35.8386E-12	485.095E-3	-16.6432E-3
847.924E-6	35.3160E-12	493.476E-3	-22.1580E-3	35.5186E-12	523.060E-3	-33.3651E-3
842.921E-6	35.2848E-12	495.524E-3	-14.0039E-3	35.0213E-12	555.608E-3	-24.5541E-3
837.919E-6	35.4949E-12	504.240E-3	-14.7006E-3	35.5381E-12	577.859E-3	-9.88778E-3
832.916E-6	35.2758E-12	508.787E-3	-16.3805E-3	35.0744E-12	584.623E-3	-11.2126E-3
827.914E-6	35.1771E-12	515.195E-3	-29.1427E-3	34.8006E-12	586.953E-3	-16.8460E-3
822.911E-6	35.0901E-12	529.824E-3	-30.9520E-3	34.4585E-12	600.377E-3	-14.1083E-3
817.909E-6	34.3600E-12	548.580E-3	-20.4833E-3	34.4971E-12	614.376E-3	-18.2949E-3
812.906E-6	34.2064E-12	563.319E-3	-18.0758E-3	34.3454E-12	630.948E-3	-21.8738E-3
807.904E-6	34.5716E-12	581.148E-3	-10.7772E-3	34.4670E-12	662.744E-3	-13.3527E-3
802.901E-6	34.0027E-12	599.410E-3	3.45808E-3	34.0506E-12	690.175E-3	-14.8618E-3
797.899E-6	33.3462E-12	616.904E-3	1.32669E-3	33.4080E-12	689.941E-3	-20.9524E-3
792.896E-6	33.0253E-12	642.488E-3	-11.0012E-3	33.6297E-12	684.863E-3	-16.0693E-3
787.894E-6	33.0769E-12	642.648E-3	-14.9776E-3	34.0184E-12	701.143E-3	-12.0903E-3
782.891E-6	32.8107E-12	636.508E-3	-19.1170E-3	33.9926E-12	721.054E-3	-13.6005E-3
777.889E-6	32.7145E-12	668.243E-3	-17.2149E-3	32.8434E-12	739.394E-3	-6.63138E-3
772.886E-6	32.1774E-12	698.319E-3	-12.6303E-3	32.6670E-12	765.242E-3	-7.67717E-3
767.884E-6	31.9746E-12	710.382E-3	-22.0337E-3	32.9824E-12	790.304E-3	-19.9533E-3
762.881E-6	32.3275E-12	727.130E-3	-18.9269E-3	33.3394E-12	815.644E-3	-14.8698E-3
757.879E-6	31.9450E-12	744.143E-3	-6.62743E-3	31.9074E-12	838.630E-3	-6.23062E-3
752.876E-6	31.0418E-12	755.211E-3	-14.7511E-3	30.8932E-12	844.853E-3	-12.9259E-3
747.874E-6	30.8416E-12	764.399E-3	-23.4067E-3	31.2718E-12	852.370E-3	-17.3762E-3
742.871E-6	31.1003E-12	775.278E-3	-17.6035E-3	31.6399E-12	878.531E-3	-17.1123E-3
737.869E-6	30.8453E-12	789.416E-3	-20.8304E-3	30.9015E-12	901.052E-3	-23.7589E-3
732.866E-6	30.1584E-12	814.171E-3	-29.5373E-3	30.0226E-12	905.067E-3	-24.1692E-3
727.864E-6	29.9762E-12	835.377E-3	-17.7440E-3	29.9216E-12	901.632E-3	-19.6708E-3
722.861E-6	29.7504E-12	843.032E-3	-9.51084E-3	30.1302E-12	909.272E-3	-24.3404E-3
717.859E-6	29.6402E-12	858.464E-3	-18.7313E-3	29.2683E-12	926.161E-3	-31.8897E-3
712.856E-6	28.9046E-12	879.974E-3	-19.3408E-3	28.4998E-12	933.448E-3	-30.7813E-3
707.854E-6	28.5819E-12	896.139E-3	-12.3593E-3	28.1623E-12	927.037E-3	-29.7263E-3
702.851E-6	28.1852E-12	915.996E-3	-16.1911E-3	28.4926E-12	932.759E-3	-28.9856E-3
697.849E-6	27.6826E-12	937.018E-3	-24.0721E-3	27.6868E-12	959.519E-3	-27.6790E-3
692.846E-6	27.3175E-12	942.393E-3	-25.3909E-3	27.1860E-12	998.685E-3	-38.7955E-3
687.844E-6	27.0085E-12	950.586E-3	-24.4503E-3	27.2204E-12	1.03053E+0	-44.6374E-3
682.841E-6	26.7739E-12	966.760E-3	-21.2250E-3	27.2645E-12	1.03309E+0	-29.3355E-3
677.839E-6	26.0972E-12	958.564E-3	-9.45775E-3	27.0381E-12	1.02303E+0	-8.91447E-3
672.836E-6	25.8016E-12	951.025E-3	-4.47246E-3	26.7856E-12	1.02341E+0	-621.704E-6
667.834E-6	25.4666E-12	970.310E-3	-12.7023E-3	26.0225E-12	1.04020E+0	4.30023E-3
662.831E-6	25.2981E-12	985.974E-3	-11.3623E-3	25.6306E-12	1.06255E+0	8.79912E-3
657.829E-6	24.7561E-12	989.236E-3	-6.28883E-3	25.6782E-12	1.07085E+0	8.69087E-3
652.826E-6	24.4079E-12	1.00748E+0	-10.9475E-3	26.0208E-12	1.08012E+0	6.75443E-3
647.824E-6	24.2579E-12	1.02321E+0	-21.4707E-3	25.2735E-12	1.09926E+0	1.82911E-3
642.821E-6	24.0698E-12	1.02546E+0	-36.5039E-3	24.5011E-12	1.10135E+0	-4.83333E-3
637.819E-6	23.5776E-12	1.04132E+0	-38.5902E-3	24.4473E-12	1.09022E+0	-10.2690E-3
632.816E-6	23.2870E-12	1.04785E+0	-22.6726E-3	24.4010E-12	1.08302E+0	-14.5882E-3
627.814E-6	22.9918E-12	1.04231E+0	-24.0747E-3	23.7021E-12	1.08485E+0	-11.8377E-3
622.811E-6	22.5167E-12	1.05535E+0	-26.8767E-3	22.5528E-12	1.10019E+0	-3.58886E-3
617.809E-6	21.9824E-12	1.06308E+0	-12.4569E-3	22.1883E-12	1.11510E+0	-13.1762E-3
612.806E-6	21.9459E-12	1.06264E+0	-12.4530E-3	22.4899E-12	1.11546E+0	-20.3104E-3
607.804E-6	21.7592E-12	1.08769E+0	-13.9563E-3	22.1958E-12	1.11612E+0	-15.0926E-3
602.801E-6	21.1692E-12	1.11048E+0	-6.17673E-3	20.9989E-12	1.11861E+0	-20.5223E-3
597.799E-6	20.5719E-12	1.10328E+0	-10.5774E-3	20.4648E-12	1.10822E+0	-24.8786E-3
592.796E-6	20.2142E-12	1.09976E+0	-22.1611E-3	20.6495E-12	1.09316E+0	-21.3840E-3
587.794E-6	19.9122E-12	1.09560E+0	-22.8889E-3	20.6175E-12	1.09488E+0	-26.6013E-3
582.791E-6	19.4664E-12	1.08008E+0	-23.9583E-3	19.9346E-12	1.10725E+0	-29.0044E-3
577.789E-6	18.8199E-12	1.08149E+0	-26.0470E-3	19.0035E-12	1.11972E+0	-10.9032E-3
572.786E-6	18.5422E-12	1.08546E+0	-15.2106E-3	19.2518E-12	1.13367E+0	-5.01376E-3
567.784E-6	18.5873E-12	1.08281E+0	-7.51086E-3	19.2395E-12	1.14252E+0	-18.1937E-3
562.781E-6	18.0369E-12	1.09607E+0	-11.9739E-3	18.7420E-12	1.14427E+0	-21.6430E-3
557.779E-6	17.6026E-12	1.10790E+0	-11.5741E-3	18.0571E-12	1.14617E+0	-21.2849E-3
552.776E-6	17.3313E-12	1.09356E+0	-5.65201E-3	18.0553E-12	1.14918E+0	-25.4622E-3
547.774E-6	17.4182E-12	1.08475E+0	-9.28941E-3	18.1914E-12	1.14748E+0	-27.2056E-3
542.771E-6	16.8288E-12	1.10259E+0	-12.5647E-3	17.6360E-12	1.13772E+0	-31.3949E-3
537.769E-6	16.2299E-12	1.11175E+0	-10.8994E-3	17.1119E-12	1.12498E+0	-38.3286E-3
532.766E-6	16.1571E-12	1.10587E+0	-15.8205E-3	16.9411E-12	1.11873E+0	-32.7957E-3
527.764E-6	16.0640E-12	1.10970E+0	-10.8895E-3	16.4813E-12	1.10943E+0	-28.3000E-3
522.761E-6	15.5161E-12	1.10990E+0	-11.7135E-3	15.7435E-12	1.08902E+0	-30.9838E-3
517.759E-6	14.8443E-12	1.09932E+0	-34.3647E-3	15.5014E-12	1.07547E+0	-22.2907E-3
512.756E-6	14.7520E-12	1.08962E+0	-33.2846E-3	15.1181E-12	1.06960E+0	-13.5050E-3
507.754E-6	14.5421E-12	1.07117E+0	-15.9808E-3	14.4968E-12	1.05318E+0	-22.1851E-3
502.751E-6	14.0730E-12	1.06234E+0	-18.6914E-3	13.8279E-12	1.02300E+0	-29.4847E-3
497.749E-6	13.5437E-12	1.08014E+0	-19.2297E-3	13.7267E-12	1.00065E+0	-16.6015E-3
492.746E-6	13.3641E-12	1.08323E+0	-6.75194E-3	13.6491E-12	1.00539E+0	-4.83415E-3
487.744E-6	13.2755E-12	1.06368E+0	-6.95324E-3	12.8038E-12	1.00928E+0	-10.1854E-3
482.741E-6	12.5388E-12	1.05359E+0	-15.2345E-3	12.1283E-12	995.120E-3	-20.6699E-3
477.739E-6	12.2600E-12	1.03744E+0	-12.6133E-3	12.2342E-12	978.048E-3	-29.1419E-3
472.736E-6	12.0129E-12	1.00705E+0	-12.5274E-3	12.1831E-12	963.425E-3	-32.4684E-3
467.734E-6	11.8135E-12	994.658E-3	-16.5612E-3	11.5412E-12	959.756E-3	-24.0251E-3
462.731E-6	11.2915E-12	990.826E-3	-9.97203E-3	10.9964E-12	959.767E-3	-22.9158E-3
457.729E-6	11.0719E-12	971.092E-3	-5.77067E-3	11.0547E-12	956.148E-3	-24.9827E-3
452.726E-6	10.8907E-12	962.064E-3	-11.2197E-3	11.0895E-12	951.541E-3	-7.19818E-3
447.724E-6	10.6067E-12	965.835E-3	-11.7240E-3	10.5361E-12	938.658E-3	3.89743E-3
442.721E-6	10.2886E-12	960.160E-3	-16.6692E-3	10.2155E-12	920.799E-3	-4.90683E-3
437.719E-6	10.0067E-12	956.198E-3	-22.9852E-3	10.3283E-12	901.494E-3	-16.6676E-3
432.716E-6	9.89851E-12	948.636E-3	-13.9677E-3	10.0390E-12	881.223E-3	-25.9493E-3
427.714E-6	9.43268E-12	929.337E-3	-16.5471E-3	9.31708E-12	857.697E-3	-25.1945E-3
422.711E-6	9.08130E-12	923.127E-3	-28.4675E-3	8.86134E-12	821.743E-3	-24.2580E-3
417.709E-6	8.80691E-12	922.077E-3	-19.4617E-3	8.83527E-12	792.428E-3	-28.9665E-3
412.706E-6	8.75492E-12	902.452E-3	-7.44079E-3	8.70692E-12	782.084E-3	-26.9983E-3
407.704E-6	8.10863E-12	875.419E-3	-11.6556E-3	8.15327E-12	775.065E-3	-17.3886E-3
402.701E-6	7.75251E-12	848.270E-3	-20.2834E-3	7.77704E-12	765.902E-3	-12.5754E-3
397.699E-6	7.68904E-12	817.966E-3	-24.7707E-3	7.71505E-12	750.231E-3	-26.0372E-3
392.696E-6	7.55312E-12	794.233E-3	-21.5573E-3	7.42810E-12	725.202E-3	-33.8481E-3
387.694E-6	7.03848E-12	785.731E-3	-7.83768E-3	6.96354E-12	703.843E-3	-19.7575E-3
382.691E-6	6.64287E-12	776.233E-3	2.22038E-3	6.74920E-12	687.258E-3	-8.43567E-3
377.689E-6	6.69412E-12	760.929E-3	-2.64943E-3	6.84119E-12	662.204E-3	-4.62615E-3
372.686E-6	6.49167E-12	742.496E-3	-9.98479E-3	6.43504E-12	639.659E-3	-4.62419E-3
367.684E-6	6.01840E-12	713.800E-3	-18.5941E-3	5.95978E-12	632.908E-3	-16.0434E-3
362.681E-6	5.74216E-12	690.452E-3	-38.4680E-3	5.80227E-12	627.001E-3	-27.3692E-3
357.679E-6	5.83723E-12	675.614E-3	-38.1462E-3	5.87545E-12	610.971E-3	-20.5025E-3
352.676E-6	5.62165E-12	648.501E-3	-20.3685E-3	5.60367E-12	592.076E-3	-6.14001E-3
347.674E-6	5.11239E-12	632.378E-3	-28.9611E-3	5.08785E-12	571.458E-3	-2.85790E-3
342.671E-6	5.04577E-12	638.108E-3	-36.6152E-3	5.00725E-12	559.398E-3	-8.51807E-3
337.669E-6	5.01981E-12	620.486E-3	-20.0610E-3	5.11641E-12	554.106E-3	-16.8402E-3
332.666E-6	4.80394E-12	585.890E-3	-11.9222E-3	4.71998E-12	534.395E-3	-23.2432E-3
327.664E-6	4.38618E-12	571.533E-3	-14.8198E-3	4.36475E-12	499.360E-3	-28.1945E-3
322.661E-6	4.35299E-12	565.207E-3	-15.7098E-3	4.25634E-12	465.940E-3	-35.1827E-3
317.659E-6	4.33422E-12	549.823E-3	-18.5304E-3	4.28782E-12	445.990E-3	-37.3442E-3
312.656E-6	4.04413E-12	538.178E-3	-18.9492E-3	3.95528E-12	438.233E-3	-33.7646E-3
307.654E-6	3.74792E-12	519.922E-3	-18.3302E-3	3.67878E-12	431.979E-3	-30.8295E-3
302.651E-6	3.69810E-12	486.364E-3	-20.9105E-3	3.65881E-12	413.022E-3	-26.6303E-3
297.649E-6	3.69903E-12	458.774E-3	-15.3620E-3	3.52652E-12	396.916E-3	-20.1410E-3
292.646E-6	3.33639E-12	440.737E-3	-3.14105E-3	3.23663E-12	382.251E-3	-13.5198E-3
287.644E-6	3.15408E-12	424.293E-3	-10.1316E-3	3.08152E-12	362.072E-3	-12.6849E-3
282.641E-6	3.15906E-12	416.506E-3	-26.4055E-3	3.15898E-12	363.106E-3	-7.83750E-3
277.639E-6	3.08600E-12	405.063E-3	-17.2054E-3	2.96396E-12	369.488E-3	-1.37402E-3
272.636E-6	2.72843E-12	373.805E-3	-12.9941E-3	2.68144E-12	357.090E-3	-15.1237E-3
267.634E-6	2.57792E-12	360.958E-3	-31.3718E-3	2.50800E-12	344.538E-3	-24.3836E-3
262.631E-6	2.59213E-12	364.666E-3	-25.2985E-3	2.70425E-12	329.641E-3	-11.6470E-3
257.629E-6	2.54012E-12	353.214E-3	-12.4718E-3	2.55109E-12	303.231E-3	-2.55765E-3
252.626E-6	2.33118E-12	335.722E-3	-21.2899E-3	2.32798E-12	287.748E-3	-5.47152E-3
247.624E-6	2.18541E-12	312.542E-3	-28.0099E-3	2.21822E-12	286.691E-3	-20.3945E-3
242.621E-6	2.26492E-12	288.479E-3	-35.2303E-3	2.32325E-12	276.909E-3	-32.2318E-3
237.619E-6	2.13313E-12	280.387E-3	-36.4373E-3	2.21122E-12	258.814E-3	-18.5385E-3
232.616E-6	1.82394E-12	281.086E-3	-8.63250E-3	1.91960E-12	252.272E-3	772.208E-6
227.614E-6	1.81795E-12	270.312E-3	10.3747E-3	1.75874E-12	245.987E-3	1.27951E-3
222.611E-6	1.87838E-12	256.143E-3	-4.24639E-3	1.95375E-12	236.922E-3	-4.71726E-3
217.609E-6	1.62550E-12	247.317E-3	-9.62187E-3	1.78842E-12	230.812E-3	-9.99705E-3
212.606E-6	1.50117E-12	233.439E-3	-3.39424E-3	1.44964E-12	218.233E-3	-18.0331E-3
207.604E-6	1.55960E-12	216.304E-3	-16.1057E-3	1.43794E-12	210.887E-3	-12.0009E-3
202.601E-6	1.62645E-12	208.518E-3	-22.4114E-3	1.54669E-12	207.913E-3	-6.70847E-3
197.599E-6	1.35189E-12	204.215E-3	-12.0252E-3	1.43321E-12	191.940E-3	-16.5438E-3
192.596E-6	1.21157E-12	200.053E-3	-13.6100E-3	1.17084E-12	171.277E-3	-22.2495E-3
187.594E-6	1.31767E-12	203.077E-3	-14.0754E-3	1.20542E-12	167.292E-3	-19.7481E-3
182.591E-6	1.27724E-12	195.525E-3	-3.50289E-3	1.26681E-12	170.219E-3	-17.3636E-3
177.589E-6	1.03093E-12	179.141E-3	-6.18931E-3	1.14609E-12	164.842E-3	-20.5414E-3
172.586E-6	922.666E-15	178.240E-3	-20.6614E-3	944.700E-15	151.708E-3	-22.8289E-3
167.584E-6	1.07325E-12	172.860E-3	-21.3656E-3	989.107E-15	128.278E-3	-24.7056E-3
162.581E-6	1.06675E-12	153.406E-3	-20.9221E-3	1.06727E-12	107.210E-3	-26.5579E-3
157.579E-6	852.990E-15	152.842E-3	-24.9674E-3	861.187E-15	108.591E-3	-19.7998E-3
152.576E-6	748.550E-15	157.655E-3	-23.3680E-3	677.558E-15	117.826E-3	-12.3410E-3
147.574E-6	863.358E-15	148.631E-3	-26.3771E-3	816.369E-15	119.881E-3	-12.5750E-3
142.571E-6	815.741E-15	145.122E-3	-20.8158E-3	852.755E-15	123.894E-3	-15.5376E-3
137.569E-6	565.619E-15	143.611E-3	-6.29590E-3	636.359E-15	129.756E-3	-22.9649E-3
132.566E-6	593.826E-15	134.062E-3	-11.4952E-3	552.994E-15	129.104E-3	-28.2257E-3
127.564E-6	670.295E-15	126.085E-3	-25.5987E-3	686.713E-15	119.534E-3	-16.1586E-3
122.561E-6	621.894E-15	118.841E-3	-27.8711E-3	690.114E-15	100.426E-3	-2.66326E-3
117.559E-6	464.327E-15	102.727E-3	-28.1508E-3	447.481E-15	77.1549E-3	-10.3441E-3
112.556E-6	462.845E-15	100.598E-3	-24.6552E-3	400.563E-15	72.1697E-3	-25.4614E-3
107.554E-6	562.149E-15	107.301E-3	-10.8294E-3	560.074E-15	84.3480E-3	-32.5260E-3
102.551E-6	404.739E-15	103.861E-3	-9.16216E-3	519.302E-15	87.5969E-3	-29.2263E-3
97.5488E-6	245.891E-15	107.250E-3	-16.1869E-3	260.592E-15	83.2290E-3	-19.0701E-3
92.5463E-6	416.109E-15	105.944E-3	-7.71813E-3	252.483E-15	83.6885E-3	-8.40664E-3
87.5438E-6	455.006E-15	92.9401E-3	-3.75669E-3	447.543E-15	84.6496E-3	-6.35793E-3
82.5413E-6	262.972E-15	96.6807E-3	-17.8241E-3	389.812E-15	84.1483E-3	-16.5366E-3
77.5388E-6	128.582E-15	107.229E-3	-11.5633E-3	141.163E-15	87.9556E-3	-19.3995E-3
72.5363E-6	285.948E-15	89.1029E-3	6.86626E-3	96.6340E-15	84.6693E-3	-10.5578E-3
67.5338E-6	342.719E-15	64.3694E-3	208.400E-6	303.988E-15	72.2255E-3	-6.06588E-3
62.5313E-6	63.7796E-15	68.8981E-3	-4.56812E-3	222.863E-15	79.6629E-3	-14.9829E-3
57.5288E-6	34.4915E-15	72.2920E-3	1.29325E-3	-9.81132E-15	97.2328E-3	-30.3791E-3
52.5263E-6	198.598E-15	69.5017E-3	-6.54928E-3	83.2586E-15	90.6298E-3	-33.1763E-3
47.5238E-6	212.871E-15	79.4677E-3	-11.5953E-3	188.727E-15	74.0948E-3	-22.8440E-3
42.5213E-6	8.23764E-15	79.2757E-3	-8.17953E-3	83.9997E-15	60.2795E-3	-21.4239E-3
37.5188E-6	-78.0312E-15	76.4313E-3	-19.4507E-3	-85.1287E-15	56.2884E-3	-16.9434E-3
32.5163E-6	77.8613E-15	81.5144E-3	-29.3036E-3	30.5765E-15	75.2741E-3	-5.79681E-3
27.5138E-6	67.4766E-15	78.2736E-3	-22.4201E-3	89.6760E-15	96.7244E-3	-7.76398E-3
22.5113E-6	-137.375E-15	71.2003E-3	-31.4856E-3	-107.843E-15	98.6741E-3	-8.40023E-3
17.5088E-6	-166.297E-15	68.7703E-3	-39.0142E-3	-248.973E-15	84.6837E-3	-12.1674E-3
12.5063E-6	-2.46095E-15	69.6831E-3	-15.0038E-3	-43.2324E-15	72.8878E-3	-31.1269E-3
7.50375E-6	-82.9750E-15	69.9364E-3	-7.16275E-3	2.98862E-15	71.5309E-3	-46.0659E-3
2.50125E-6	-250.142E-15	73.7544E-3	-27.1479E-3	-261.712E-15	79.3685E-3	-33.0059E-3
-2.50125E-6	-229.023E-15	78.4504E-3	-32.8543E-3	-285.464E-15	83.9790E-3	-11.6404E-3
-7.50375E-6	-108.139E-15	72.3083E-3	-27.5437E-3	-127.173E-15	81.3225E-3	-13.4983E-3
-12.5063E-6	-234.185E-15	69.9871E-3	-24.7370E-3	-127.888E-15	80.1123E-3	-21.0386E-3
-17.5088E-6	-369.003E-15	77.9638E-3	-10.2650E-3	-392.816E-15	76.4803E-3	-15.0736E-3
-22.5113E-6	-246.044E-15	78.3028E-3	1.82232E-3	-431.765E-15	71.5363E-3	-8.19142E-3
-27.5138E-6	-165.146E-15	84.1079E-3	-4.98940E-3	-190.441E-15	75.7421E-3	-7.93704E-3
-32.5163E-6	-350.536E-15	92.5773E-3	-8.23506E-3	-261.363E-15	77.8865E-3	-10.6987E-3
-37.5188E-6	-521.757E-15	83.7556E-3	-8.19591E-3	-532.429E-15	76.6240E-3	-18.5645E-3
-42.5213E-6	-360.328E-15	81.6805E-3	-12.0816E-3	-528.854E-15	85.9472E-3	-17.9399E-3
-47.5238E-6	-298.107E-15	90.6827E-3	-13.4913E-3	-330.185E-15	100.962E-3	-14.1189E-3
-52.5263E-6	-563.383E-15	87.1175E-3	-20.2012E-3	-417.709E-15	110.726E-3	-19.2939E-3
-57.5288E-6	-643.827E-15	80.6759E-3	-23.4595E-3	-663.219E-15	108.760E-3	-17.8441E-3
-62.5313E-6	-455.385E-15	90.4809E-3	-11.1408E-3	-647.306E-15	103.692E-3	-14.9621E-3
-67.5338E-6	-476.704E-15	106.250E-3	-2.50653E-3	-486.400E-15	111.765E-3	-18.6442E-3
-72.5363E-6	-716.904E-15	108.502E-3	-9.40873E-3	-603.675E-15	131.708E-3	-16.3248E-3
-77.5388E-6	-811.238E-15	98.3760E-3	-11.1692E-3	-799.223E-15	143.388E-3	-16.5231E-3
-82.5413E-6	-620.241E-15	92.3430E-3	-7.70605E-3	-789.082E-15	140.177E-3	-24.3164E-3
-87.5438E-6	-666.820E-15	105.781E-3	-9.53758E-3	-699.578E-15	132.826E-3	-25.0205E-3
-92.5463E-6	-900.628E-15	126.808E-3	-4.78168E-3	-848.914E-15	138.427E-3	-20.1541E-3
-97.5488E-6	-944.669E-15	132.630E-3	-1.55600E-3	-984.918E-15	144.172E-3	-19.4799E-3
-102.551E-6	-779.840E-15	139.037E-3	-6.87184E-3	-881.594E-15	134.128E-3	-25.2944E-3
-107.554E-6	-861.810E-15	155.637E-3	-11.5090E-3	-815.720E-15	139.459E-3	-30.3414E-3
-112.556E-6	-1.14246E-12	148.748E-3	-24.2499E-3	-1.07163E-12	159.338E-3	-24.9698E-3
-117.559E-6	-1.11430E-12	135.256E-3	-41.7514E-3	-1.13196E-12	165.561E-3	-14.0227E-3
-122.561E-6	-1.01168E-12	142.004E-3	-37.2693E-3	-1.02438E-12	171.117E-3	-9.68294E-3
-127.564E-6	-1.14764E-12	140.351E-3	-16.3749E-3	-1.05357E-12	182.638E-3	-13.4284E-3
-132.566E-6	-1.31753E-12	139.378E-3	-10.4633E-3	-1.35396E-12	190.846E-3	-18.5351E-3
-137.569E-6	-1.33300E-12	163.867E-3	-12.4888E-3	-1.38203E-12	202.827E-3	-14.7258E-3
-142.571E-6	-1.25677E-12	193.988E-3	-9.02415E-3	-1.19586E-12	213.691E-3	-5.96161E-3
-147.574E-6	-1.47916E-12	205.219E-3	-18.6637E-3	-1.28822E-12	212.077E-3	-4.46945E-3
-152.576E-6	-1.61424E-12	204.198E-3	-26.0731E-3	-1.59836E-12	222.795E-3	-16.9308E-3
-157.579E-6	-1.54486E-12	205.595E-3	-11.5920E-3	-1.61069E-12	251.227E-3	-36.3877E-3
-162.581E-6	-1.56290E-12	212.297E-3	-13.7781E-3	-1.46540E-12	267.529E-3	-46.6542E-3
-167.584E-6	-1.71491E-12	221.708E-3	-37.9112E-3	-1.65784E-12	281.845E-3	-39.6849E-3
-172.586E-6	-2.00776E-12	224.068E-3	-34.6371E-3	-1.99057E-12	306.076E-3	-22.4189E-3
-177.589E-6	-1.91300E-12	231.542E-3	-11.6657E-3	-2.00266E-12	314.143E-3	-16.8035E-3
-182.591E-6	-1.98714E-12	251.817E-3	-7.55739E-3	-1.90549E-12	316.084E-3	-14.7789E-3
-187.594E-6	-2.18600E-12	266.183E-3	-12.5234E-3	-2.11690E-12	334.035E-3	-8.81616E-3
-192.596E-6	-2.33086E-12	270.587E-3	-20.6569E-3	-2.41174E-12	350.384E-3	-20.2945E-3
-197.599E-6	-2.31327E-12	281.012E-3	-26.2690E-3	-2.40123E-12	367.518E-3	-33.0075E-3
-202.601E-6	-2.37928E-12	295.954E-3	-21.2748E-3	-2.35130E-12	381.164E-3	-29.0088E-3
-207.604E-6	-2.72880E-12	305.210E-3	-27.8496E-3	-2.62196E-12	382.276E-3	-24.4562E-3
-212.606E-6	-2.82683E-12	331.388E-3	-39.8396E-3	-2.86704E-12	391.176E-3	-21.7844E-3
-217.609E-6	-2.77461E-12	370.276E-3	-33.9345E-3	-2.82657E-12	411.541E-3	-18.3247E-3
-222.611E-6	-2.88354E-12	389.824E-3	-22.4867E-3	-2.87947E-12	434.396E-3	-22.0350E-3
-227.614E-6	-3.26775E-12	397.281E-3	-17.7339E-3	-3.19552E-12	450.556E-3	-19.8244E-3
-232.616E-6	-3.42520E-12	410.289E-3	-17.1377E-3	-3.39500E-12	465.003E-3	-19.2242E-3
-237.619E-6	-3.29133E-12	420.986E-3	-27.9862E-3	-3.27164E-12	479.820E-3	-26.2060E-3
-242.621E-6	-3.48102E-12	424.720E-3	-44.0036E-3	-3.42774E-12	489.658E-3	-22.8039E-3
-247.624E-6	-3.87647E-12	440.756E-3	-36.4994E-3	-3.88433E-12	513.592E-3	-15.6400E-3
-252.626E-6	-3.97527E-12	463.497E-3	-13.7160E-3	-3.96370E-12	546.910E-3	-8.83041E-3
-257.629E-6	-3.95583E-12	487.733E-3	-8.57718E-3	-3.82419E-12	570.071E-3	-5.88123E-3
-262.631E-6	-4.13560E-12	515.744E-3	-12.3372E-3	-4.13637E-12	588.333E-3	-12.5238E-3
-267.634E-6	-4.59905E-12	518.314E-3	-6.09479E-3	-4.61730E-12	618.266E-3	-22.5941E-3
-272.636E-6	-4.70915E-12	523.015E-3	-7.66357E-3	-4.76187E-12	652.093E-3	-22.2951E-3
-277.639E-6	-4.68551E-12	564.400E-3	-23.6916E-3	-4.66905E-12	676.798E-3	-17.4448E-3
-282.641E-6	-5.07798E-12	599.408E-3	-19.8595E-3	-5.01507E-12	702.668E-3	-17.5678E-3
-287.644E-6	-5.53854E-12	618.044E-3	-7.67607E-3	-5.54853E-12	736.805E-3	-17.0321E-3
-292.646E-6	-5.75172E-12	646.954E-3	-14.8969E-3	-5.65980E-12	780.577E-3	-14.3542E-3
-297.649E-6	-5.69172E-12	682.329E-3	-22.8073E-3	-5.68251E-12	814.724E-3	-12.5273E-3
-302.651E-6	-6.05029E-12	711.324E-3	-34.6513E-3	-6.08509E-12	835.619E-3	-13.3704E-3
-307.654E-6	-6.42667E-12	731.711E-3	-45.9958E-3	-6.54540E-12	865.017E-3	-15.9512E-3
-312.656E-6	-6.60233E-12	744.910E-3	-36.1658E-3	-6.64602E-12	900.302E-3	-20.6227E-3
-317.659E-6	-6.87314E-12	765.741E-3	-24.6870E-3	-6.72650E-12	920.713E-3	-25.2737E-3
-322.661E-6	-7.18875E-12	809.863E-3	-14.7019E-3	-7.22105E-12	931.616E-3	-24.2428E-3
-327.664E-6	-7.51231E-12	854.048E-3	-146.345E-6	-7.70369E-12	960.258E-3	-21.5411E-3
-332.666E-6	-7.57739E-12	873.865E-3	-12.9918E-3	-7.72792E-12	1.00376E+0	-18.2114E-3
-337.669E-6	-7.97706E-12	890.249E-3	-40.8281E-3	-7.89396E-12	1.04282E+0	-16.2262E-3
-342.671E-6	-8.28069E-12	917.946E-3	-34.7430E-3	-8.51870E-12	1.07708E+0	-16.8142E-3
-347.674E-6	-8.61632E-12	947.138E-3	-26.0073E-3	-8.91585E-12	1.10145E+0	-10.2607E-3
-352.676E-6	-8.81977E-12	980.152E-3	-29.1994E-3	-8.93156E-12	1.12777E+0	-2.71182E-3
-357.679E-6	-9.22230E-12	1.01752E+0	-18.5957E-3	-9.14626E-12	1.17014E+0	-6.89716E-3
-362.681E-6	-9.72350E-12	1.04356E+0	-17.4028E-3	-9.76694E-12	1.20698E+0	-22.3409E-3
-367.684E-6	-10.0381E-12	1.06743E+0	-20.2106E-3	-10.3410E-12	1.24133E+0	-29.0080E-3
-372.686E-6	-10.2785E-12	1.10004E+0	-16.1989E-3	-10.5796E-12	1.27798E+0	-15.2865E-3
-377.689E-6	-11.0108E-12	1.12430E+0	-24.3332E-3	-11.0533E-12	1.31047E+0	-1.56060E-3
-382.691E-6	-11.7396E-12	1.16210E+0	-30.9662E-3	-11.6807E-12	1.35705E+0	1.27772E-3
-387.694E-6	-11.8890E-12	1.22658E+0	-15.7786E-3	-12.0398E-12	1.40269E+0	-3.89874E-3
-392.696E-6	-12.0201E-12	1.27374E+0	-1.80781E-3	-12.3100E-12	1.42748E+0	-16.4926E-3
-397.699E-6	-12.8106E-12	1.29613E+0	-1.25317E-3	-12.9049E-12	1.46399E+0	-24.1659E-3
-402.701E-6	-13.7433E-12	1.32301E+0	6.75029E-3	-13.5245E-12	1.53297E+0	-17.9901E-3
-407.704E-6	-14.0995E-12	1.37322E+0	11.1026E-3	-13.8491E-12	1.58337E+0	-9.05579E-3
-412.706E-6	-14.2062E-12	1.44257E+0	-11.5356E-3	-14.2314E-12	1.58201E+0	-1.45047E-3
-417.709E-6	-14.8788E-12	1.49189E+0	-34.8938E-3	-15.0183E-12	1.58762E+0	-1.07213E-3
-422.711E-6	-15.8214E-12	1.50103E+0	-26.2672E-3	-15.7702E-12	1.63923E+0	-9.03450E-3
-427.714E-6	-16.3314E-12	1.51730E+0	-19.3762E-3	-15.9448E-12	1.68020E+0	-8.39859E-3
-432.716E-6	-16.4206E-12	1.57782E+0	-20.1121E-3	-16.2569E-12	1.68524E+0	-1.05988E-3
-437.719E-6	-16.8335E-12	1.63878E+0	-11.2284E-3	-16.9691E-12	1.69933E+0	-4.42060E-3
-442.721E-6	-17.6556E-12	1.66182E+0	-14.2803E-3	-17.5347E-12	1.73638E+0	-16.5326E-3
-447.724E-6	-18.5115E-12	1.67186E+0	-16.8973E-3	-17.8157E-12	1.77511E+0	-18.4383E-3
-452.726E-6	-18.4617E-12	1.70131E+0	-9.38790E-3	-18.2929E-12	1.79792E+0	-8.07437E-3
-457.729E-6	-19.3122E-12	1.74831E+0	-11.5225E-3	-19.2074E-12	1.81824E+0	-8.84290E-3
-462.731E-6	-20.1375E-12	1.78242E+0	-24.2566E-3	-19.5332E-12	1.85186E+0	-24.1072E-3
-467.734E-6	-20.4433E-12	1.80412E+0	-25.3106E-3	-20.1377E-12	1.88357E+0	-33.3199E-3
-472.736E-6	-20.8349E-12	1.83262E+0	-17.3395E-3	-20.8621E-12	1.90670E+0	-35.0554E-3
-477.739E-6	-21.8458E-12	1.86398E+0	-19.7801E-3	-21.8503E-12	1.93830E+0	-30.6833E-3
-482.741E-6	-22.5355E-12	1.88762E+0	-20.0393E-3	-22.3908E-12	1.98340E+0	-28.8366E-3
-487.744E-6	-22.7058E-12	1.90507E+0	-19.9037E-3	-22.5475E-12	2.01834E+0	-26.7927E-3
-492.746E-6	-23.3281E-12	1.93902E+0	-20.5794E-3	-23.4171E-12	2.03198E+0	-17.7500E-3
-497.749E-6	-24.0595E-12	1.97090E+0	-11.5826E-3	-24.6885E-12	2.03817E+0	-22.1136E-3
-502.751E-6	-24.9023E-12	1.97794E+0	-18.5805E-3	-25.3427E-12	2.03779E+0	-24.1461E-3
-507.754E-6	-25.3065E-12	1.99819E+0	-34.6293E-3	-25.5413E-12	2.04339E+0	-13.6076E-3
-512.756E-6	-25.8770E-12	2.02997E+0	-28.5123E-3	-25.8480E-12	2.06613E+0	-13.6853E-3
-517.759E-6	-26.5621E-12	2.03993E+0	-15.2635E-3	-26.8735E-12	2.08225E+0	-22.1864E-3
-522.761E-6	-27.2931E-12	2.05372E+0	-12.7392E-3	-27.8390E-12	2.09142E+0	-26.0281E-3
-527.764E-6	-27.3838E-12	2.07403E+0	-7.99522E-3	-28.2624E-12	2.11055E+0	-25.3622E-3
-532.766E-6	-28.4176E-12	2.07163E+0	-4.13681E-3	-28.5459E-12	2.12750E+0	-17.5799E-3
-537.769E-6	-29.5874E-12	2.06788E+0	1.01726E-3	-29.6045E-12	2.12253E+0	-6.84433E-3
-542.771E-6	-30.2006E-12	2.08348E+0	8.22730E-3	-30.3029E-12	2.11036E+0	-8.13894E-3
-547.774E-6	-30.3091E-12	2.10546E+0	-10.6484E-3	-30.9043E-12	2.11407E+0	-22.1590E-3
-552.776E-6	-30.8746E-12	2.13818E+0	-26.8079E-3	-31.0752E-12	2.12872E+0	-25.7622E-3
-557.779E-6	-31.6184E-12	2.16260E+0	-5.45106E-3	-31.3834E-12	2.13939E+0	-17.3152E-3
-562.781E-6	-32.3058E-12	2.14441E+0	3.23621E-3	-32.0579E-12	2.13454E+0	-17.2386E-3
-567.784E-6	-33.2411E-12	2.12447E+0	-13.4929E-3	-33.3931E-12	2.13026E+0	-22.3693E-3
-572.786E-6	-34.0825E-12	2.13176E+0	-13.3272E-3	-34.1917E-12	2.14061E+0	-23.0461E-3
-577.789E-6	-35.0742E-12	2.13532E+0	-1.21957E-3	-34.9184E-12	2.14949E+0	-16.9422E-3
-582.791E-6	-35.2468E-12	2.14226E+0	-7.29109E-3	-35.3496E-12	2.14712E+0	-17.9587E-3
-587.794E-6	-35.9324E-12	2.15743E+0	-18.8770E-3	-36.3374E-12	2.14354E+0	-25.5751E-3
-592.796E-6	-37.2587E-12	2.14883E+0	-12.7093E-3	-37.7957E-12	2.14799E+0	-21.0318E-3
-597.799E-6	-37.9594E-12	2.14427E+0	-9.33216E-3	-38.1511E-12	2.15839E+0	-8.15941E-3
-602.801E-6	-38.4158E-12	2.15390E+0	-11.2176E-3	-38.2265E-12	2.15841E+0	-1.56818E-3
-607.804E-6	-39.0054E-12	2.14309E+0	-8.06356E-3	-39.2046E-12	2.13852E+0	-6.71059E-3
-612.806E-6	-40.4389E-12	2.12671E+0	-14.9100E-3	-41.0095E-12	2.11625E+0	-16.3461E-3
-617.809E-6	-40.9304E-12	2.13418E+0	-26.3566E-3	-41.3295E-12	2.10765E+0	-25.4147E-3
-622.811E-6	-41.1498E-12	2.15014E+0	-35.7077E-3	-41.1711E-12	2.11182E+0	-29.3200E-3
-627.814E-6	-41.7098E-12	2.13347E+0	-48.2433E-3	-42.3681E-12	2.10300E+0	-28.0811E-3
-632.816E-6	-42.8495E-12	2.10378E+0	-50.9747E-3	-44.0981E-12	2.07487E+0	-22.9377E-3
-637.819E-6	-43.7124E-12	2.10315E+0	-39.7293E-3	-44.0111E-12	2.05074E+0	-12.8722E-3
-642.821E-6	-43.8025E-12	2.11381E+0	-39.1914E-3	-43.8254E-12	2.03681E+0	-16.1371E-3
-647.824E-6	-45.0261E-12	2.11201E+0	-43.0724E-3	-44.7837E-12	2.01895E+0	-30.2267E-3
-652.826E-6	-45.5080E-12	2.10402E+0	-30.0839E-3	-46.0751E-12	2.00019E+0	-29.8109E-3
-657.829E-6	-46.1508E-12	2.09001E+0	-28.6106E-3	-46.3269E-12	1.98793E+0	-19.1722E-3
-662.831E-6	-45.7913E-12	2.06394E+0	-43.4431E-3	-46.2849E-12	1.96750E+0	-18.5786E-3
-667.834E-6	-47.0328E-12	2.02830E+0	-37.0231E-3	-47.1271E-12	1.93917E+0	-19.7309E-3
-672.836E-6	-48.1310E-12	1.98827E+0	-18.4043E-3	-48.0751E-12	1.90440E+0	-15.5989E-3
-677.839E-6	-48.2980E-12	1.97284E+0	-7.89229E-3	-48.4331E-12	1.87257E+0	-9.37862E-3
-682.841E-6	-48.7150E-12	1.98395E+0	-592.931E-6	-49.0623E-12	1.86026E+0	-13.0062E-3
-687.844E-6	-49.3385E-12	1.96505E+0	-1.26614E-3	-49.4427E-12	1.84970E+0	-32.3998E-3
-692.846E-6	-50.5384E-12	1.92622E+0	-9.57443E-3	-50.3805E-12	1.82320E+0	-31.1457E-3
-697.849E-6	-50.1703E-12	1.90708E+0	-12.7758E-3	-50.6910E-12	1.79389E+0	-11.7653E-3
-702.851E-6	-50.9627E-12	1.88208E+0	-21.2061E-3	-51.7086E-12	1.76898E+0	-15.9929E-3
-707.854E-6	-52.0122E-12	1.84245E+0	-30.2292E-3	-52.0538E-12	1.75304E+0	-22.2324E-3
-712.856E-6	-53.3288E-12	1.82534E+0	-16.5888E-3	-53.0512E-12	1.74700E+0	-10.4286E-3
-717.859E-6	-53.6062E-12	1.82645E+0	-16.2655E-3	-53.7044E-12	1.72175E+0	-5.21398E-3
-722.861E-6	-54.2981E-12	1.80114E+0	-27.9757E-3	-54.5241E-12	1.68445E+0	-7.77618E-3
-727.864E-6	-55.8089E-12	1.76448E+0	-13.6416E-3	-55.2974E-12	1.65862E+0	-9.16648E-3
-732.866E-6	-56.4872E-12	1.75213E+0	-1.81360E-3	-55.5960E-12	1.64217E+0	-5.14442E-3
-737.869E-6	-56.5792E-12	1.73997E+0	-10.3952E-3	-56.3668E-12	1.61631E+0	-4.71998E-3
-742.871E-6	-57.5885E-12	1.70642E+0	-20.1547E-3	-57.3547E-12	1.58648E+0	-8.42211E-3
-747.874E-6	-59.8050E-12	1.67047E+0	-23.0073E-3	-58.2618E-12	1.55789E+0	-18.1588E-3
-752.876E-6	-59.4816E-12	1.65775E+0	-17.6813E-3	-57.6222E-12	1.51189E+0	-28.0378E-3
-757.879E-6	-58.9683E-12	1.66003E+0	-18.2321E-3	-57.8062E-12	1.46879E+0	-13.3583E-3
-762.881E-6	-59.5396E-12	1.62901E+0	-36.1732E-3	-58.8419E-12	1.43657E+0	3.56526E-3
-767.884E-6	-60.8608E-12	1.58017E+0	-49.8857E-3	-60.2081E-12	1.40089E+0	-5.17538E-3
-772.886E-6	-61.8166E-12	1.54939E+0	-30.8439E-3	-60.1195E-12	1.37676E+0	-21.2613E-3
-777.889E-6	-61.0678E-12	1.51454E+0	3.51691E-3	-60.0095E-12	1.37482E+0	-21.3453E-3
-782.891E-6	-61.8578E-12	1.49074E+0	1.49678E-3	-60.2966E-12	1.36284E+0	-14.9967E-3
-787.894E-6	-62.1899E-12	1.48728E+0	-18.0552E-3	-61.5270E-12	1.31675E+0	-14.6600E-3
-792.896E-6	-62.8806E-12	1.45928E+0	-20.2040E-3	-62.6072E-12	1.27177E+0	-4.92825E-3
-797.899E-6	-62.8942E-12	1.40667E+0	-18.9863E-3	-63.1145E-12	1.24967E+0	16.2938E-3
-802.901E-6	-63.3114E-12	1.36995E+0	-22.5650E-3	-63.3091E-12	1.23090E+0	20.3001E-3
-807.904E-6	-63.4304E-12	1.34040E+0	-22.3438E-3	-63.7730E-12	1.21065E+0	2.75807E-3
-812.906E-6	-63.8431E-12	1.30045E+0	-17.8247E-3	-65.2424E-12	1.18522E+0	-14.1296E-3
-817.909E-6	-64.0222E-12	1.26346E+0	-18.4794E-3	-65.5586E-12	1.14778E+0	-14.3838E-3
-822.911E-6	-64.8170E-12	1.23201E+0	-20.8475E-3	-65.6619E-12	1.12336E+0	-4.84733E-3
-827.914E-6	-66.5174E-12	1.20288E+0	-24.3725E-3	-66.0592E-12	1.10747E+0	7.30414E-3
-832.916E-6	-66.4858E-12	1.19304E+0	-29.6505E-3	-66.7961E-12	1.06831E+0	13.4153E-3
-837.919E-6	-66.0236E-12	1.19430E+0	-28.9093E-3	-67.3729E-12	1.02290E+0	2.85557E-3
-842.921E-6	-66.0219E-12	1.16867E+0	-13.0367E-3	-67.8342E-12	987.197E-3	-18.2594E-3
-847.924E-6	-67.3992E-12	1.12521E+0	2.48328E-3	-68.1099E-12	958.659E-3	-32.9862E-3
-852.926E-6	-67.3987E-12	1.08513E+0	-113.307E-6	-68.3720E-12	943.463E-3	-23.1356E-3
-857.929E-6	-67.3579E-12	1.04596E+0	-5.19601E-3	-68.6575E-12	923.123E-3	-3.21648E-3
-862.931E-6	-67.5467E-12	1.01355E+0	-11.8939E-3	-68.2032E-12	893.565E-3	-7.02276E-3
-867.934E-6	-68.4944E-12	983.989E-3	-13.1870E-3	-68.1088E-12	873.018E-3	-26.6099E-3
-872.936E-6	-69.2224E-12	948.296E-3	-10.8908E-3	-68.3444E-12	847.026E-3	-27.0523E-3
-877.939E-6	-69.3599E-12	925.301E-3	-12.7666E-3	-70.0542E-12	805.567E-3	-7.01295E-3
-882.941E-6	-68.3238E-12	917.558E-3	-13.5230E-3	-69.2156E-12	761.340E-3	-289.194E-6
-887.944E-6	-68.3317E-12	890.691E-3	-24.8070E-3	-69.2203E-12	732.470E-3	-15.5483E-3
-892.946E-6	-67.9978E-12	849.567E-3	-33.1396E-3	-69.4972E-12	716.900E-3	-27.6339E-3
-897.949E-6	-69.2438E-12	825.747E-3	-25.6213E-3	-69.4656E-12	703.901E-3	-23.6821E-3
-902.951E-6	-69.2963E-12	808.238E-3	-21.6287E-3	-69.4048E-12	688.434E-3	-17.7051E-3
-907.954E-6	-69.7381E-12	778.994E-3	-24.8916E-3	-69.7297E-12	653.804E-3	-21.4944E-3
-912.956E-6	-68.8859E-12	741.655E-3	-22.0666E-3	-70.0687E-12	618.093E-3	-23.5296E-3
-917.959E-6	-69.7104E-12	701.471E-3	-27.1422E-3	-70.4229E-12	609.416E-3	-10.4645E-3
-922.961E-6	-70.7600E-12	677.774E-3	-35.8014E-3	-70.4928E-12	595.048E-3	-6.61092E-3
-927.964E-6	-70.4212E-12	674.092E-3	-19.7700E-3	-70.2400E-12	563.754E-3	-16.6398E-3
-932.966E-6	-69.3243E-12	644.747E-3	-5.83750E-3	-70.5105E-12	550.849E-3	-18.0723E-3
-937.969E-6	-69.9806E-12	599.426E-3	-13.3233E-3	-71.2603E-12	544.680E-3	-30.5835E-3
-942.971E-6	-71.8572E-12	579.095E-3	-15.7791E-3	-71.1155E-12	524.339E-3	-46.8105E-3
-947.974E-6	-72.3664E-12	570.174E-3	-20.9248E-3	-70.3036E-12	516.455E-3	-36.3576E-3
-952.976E-6	-70.6672E-12	562.463E-3	-32.5976E-3	-70.5497E-12	515.117E-3	-21.6328E-3
-957.979E-6	-69.9715E-12	564.557E-3	-16.7020E-3	-71.3304E-12	487.593E-3	-19.4077E-3
-962.981E-6	-71.8973E-12	563.941E-3	6.58176E-3	-71.8662E-12	456.795E-3	-21.7201E-3
-967.984E-6	-73.6589E-12	545.793E-3	-10.7449E-3	-71.5515E-12	443.920E-3	-13.7095E-3
-972.986E-6	-72.2485E-12	511.542E-3	-22.7604E-3	-71.3583E-12	432.572E-3	5.86047E-3
-977.989E-6	-71.5425E-12	482.025E-3	1.11876E-3	-71.9765E-12	411.514E-3	5.22071E-3
-982.991E-6	-72.5923E-12	473.424E-3	2.38994E-3	-72.8503E-12	392.194E-3	-11.8021E-3
-987.994E-6	-74.6221E-12	485.654E-3	-16.5144E-3	-72.7366E-12	390.032E-3	-24.5050E-3
-992.997E-6	-74.8204E-12	492.701E-3	-24.3273E-3	-71.8474E-12	390.573E-3	-25.8337E-3
-997.999E-6	-73.8158E-12	460.881E-3	-36.0463E-3	-72.2987E-12	378.544E-3	-17.6309E-3
-1.00300E-3	-72.4818E-12	429.389E-3	-36.7138E-3	-73.3828E-12	364.339E-3	-6.79135E-3
-1.00800E-3	-73.1403E-12	421.505E-3	-14.5446E-3	-74.6970E-12	359.121E-3	3.35509E-3
-1.01301E-3	-74.3964E-12	411.177E-3	-12.8747E-3	-74.2779E-12	371.913E-3	-938.581E-6
-1.01801E-3	-73.8527E-12	404.500E-3	-34.5370E-3	-73.7441E-12	371.700E-3	-2.08276E-3
-1.02301E-3	-73.0803E-12	399.872E-3	-24.7703E-3	-74.7106E-12	359.109E-3	7.57952E-3
-1.02801E-3	-73.3240E-12	373.494E-3	-1.70130E-3	-76.6973E-12	372.240E-3	6.93184E-3
-1.03302E-3	-75.6197E-12	355.738E-3	-17.1508E-3	-75.3878E-12	379.578E-3	-5.23116E-3
-1.03802E-3	-75.6777E-12	363.203E-3	-21.8937E-3	-74.3380E-12	357.571E-3	-12.5457E-3
-1.04302E-3	-75.0125E-12	354.456E-3	5.01436E-3	-74.9949E-12	335.865E-3	-7.55739E-3
-1.04802E-3	-74.6664E-12	341.661E-3	12.5370E-3	-76.6097E-12	342.928E-3	317.531E-6
-1.05303E-3	-76.1415E-12	350.329E-3	6.92362E-3	-76.7837E-12	365.851E-3	1.55797E-3
-1.05803E-3	-77.2059E-12	351.532E-3	-1.32819E-3	-75.7586E-12	370.626E-3	-16.4419E-3
-1.06303E-3	-77.0299E-12	335.755E-3	-12.9309E-3	-74.6829E-12	362.381E-3	-46.9472E-3
-1.06803E-3	-75.9371E-12	331.137E-3	-12.0137E-3	-75.1020E-12	348.005E-3	-61.9572E-3
-1.07304E-3	-75.7669E-12	327.022E-3	-9.03025E-3	-76.9244E-12	323.760E-3	-55.4071E-3
-1.07804E-3	-77.0727E-12	325.975E-3	-16.7618E-3	-76.6928E-12	310.814E-3	-29.9092E-3
-1.08304E-3	-76.9658E-12	351.894E-3	-24.1433E-3	-75.1374E-12	310.585E-3	4.34358E-3
-1.08804E-3	-76.6257E-12	361.368E-3	-23.5190E-3	-75.0238E-12	320.074E-3	15.4556E-3
-1.09305E-3	-76.4581E-12	336.882E-3	-12.5171E-3	-76.7753E-12	323.380E-3	-3.88913E-3
-1.09805E-3	-77.2325E-12	324.115E-3	4.11386E-3	-76.3628E-12	310.387E-3	-10.5218E-3
-1.10305E-3	-77.6235E-12	337.391E-3	8.31153E-3	-75.7049E-12	315.517E-3	-8.26079E-3
-1.10805E-3	-77.4160E-12	356.571E-3	1.12955E-3	-75.0337E-12	342.108E-3	-35.4790E-3
-1.11306E-3	-77.4406E-12	354.571E-3	-134.539E-6	-76.2306E-12	350.485E-3	-47.1991E-3
-1.11806E-3	-77.1282E-12	344.690E-3	1.58872E-3	-76.9289E-12	332.197E-3	-31.1760E-3
-1.12306E-3	-77.2289E-12	353.013E-3	-20.5891E-3	-76.7018E-12	322.599E-3	-37.0218E-3
-1.12806E-3	-77.1955E-12	349.812E-3	-49.3213E-3	-76.8148E-12	347.909E-3	-41.9863E-3
-1.13307E-3	-76.9752E-12	334.282E-3	-49.2657E-3	-77.9614E-12	382.155E-3	-28.2960E-3
-1.13807E-3	-75.9824E-12	341.136E-3	-39.1875E-3	-79.0471E-12	383.714E-3	-17.5323E-3
-1.14307E-3	-76.9820E-12	356.598E-3	-32.3856E-3	-77.9088E-12	374.946E-3	-9.03475E-3
-1.14807E-3	-78.0240E-12	343.906E-3	-23.9506E-3	-77.6058E-12	369.703E-3	-12.8545E-3
-1.15308E-3	-78.3186E-12	316.199E-3	-12.9049E-3	-77.7243E-12	354.930E-3	-20.8644E-3
-1.15808E-3	-77.5116E-12	311.064E-3	-12.8301E-3	-78.4795E-12	350.268E-3	-25.0668E-3
-1.16308E-3	-77.8632E-12	328.816E-3	-26.1563E-3	-78.7026E-12	356.234E-3	-29.1732E-3
-1.16808E-3	-79.0045E-12	341.907E-3	-36.1317E-3	-78.1673E-12	355.032E-3	-20.5565E-3
-1.17309E-3	-78.8899E-12	338.594E-3	-36.6608E-3	-77.4565E-12	359.867E-3	-24.1090E-3
-1.17809E-3	-78.0182E-12	330.586E-3	-20.2978E-3	-77.3239E-12	382.361E-3	-28.8603E-3
-1.18309E-3	-77.4502E-12	337.612E-3	-2.21940E-3	-78.1496E-12	401.907E-3	-13.2320E-3
-1.18809E-3	-78.5932E-12	365.135E-3	-1.83116E-3	-78.1742E-12	406.373E-3	-9.16775E-3
-1.19310E-3	-77.9911E-12	378.333E-3	-4.23081E-3	-79.5845E-12	410.807E-3	-7.73533E-3
-1.19810E-3	-78.0879E-12	364.740E-3	-6.91248E-3	-77.9403E-12	422.687E-3	-9.47290E-3
-1.20310E-3	-77.4880E-12	367.273E-3	-14.1639E-3	-77.1519E-12	426.387E-3	-27.1468E-3
-1.20810E-3	-78.3501E-12	389.786E-3	-11.4953E-3	-77.5565E-12	431.821E-3	-42.3710E-3
-1.21311E-3	-78.2458E-12	406.746E-3	-15.3289E-3	-79.2208E-12	455.527E-3	-51.6745E-3
-1.21811E-3	-77.6264E-12	411.166E-3	-42.3745E-3	-79.2277E-12	473.686E-3	-51.7474E-3
-1.22311E-3	-77.8532E-12	413.278E-3	-54.4699E-3	-78.4993E-12	476.249E-3	-47.2764E-3
-1.22811E-3	-79.0203E-12	428.201E-3	-26.6589E-3	-78.1864E-12	481.336E-3	-40.4373E-3
-1.23312E-3	-79.5422E-12	439.546E-3	13.1943E-3	-79.4218E-12	501.447E-3	-25.0636E-3
-1.23812E-3	-78.4215E-12	454.028E-3	18.2234E-3	-80.7644E-12	525.370E-3	-21.5569E-3
-1.24312E-3	-79.3935E-12	466.336E-3	-14.9419E-3	-80.3028E-12	539.217E-3	-27.4320E-3
-1.24812E-3	-80.7883E-12	460.164E-3	-49.4955E-3	-79.8923E-12	549.894E-3	-30.6726E-3
-1.25313E-3	-81.5070E-12	466.597E-3	-59.3366E-3	-79.8103E-12	550.195E-3	-38.5161E-3
-1.25813E-3	-80.4521E-12	481.446E-3	-27.5867E-3	-81.0764E-12	544.131E-3	-45.3365E-3
-1.26313E-3	-81.4913E-12	482.126E-3	-8.72824E-3	-81.2537E-12	550.734E-3	-47.9408E-3
-1.26813E-3	-81.3403E-12	496.848E-3	-26.9982E-3	-80.5161E-12	551.087E-3	-48.0902E-3
-1.27314E-3	-81.0598E-12	523.798E-3	-20.1807E-3	-80.3728E-12	560.304E-3	-44.0361E-3
-1.27814E-3	-80.9712E-12	525.796E-3	-3.81261E-3	-80.0030E-12	583.749E-3	-42.2510E-3
-1.28314E-3	-82.2718E-12	523.582E-3	-1.24388E-3	-80.2215E-12	590.468E-3	-19.4510E-3
-1.28814E-3	-82.6342E-12	524.672E-3	8.36979E-3	-80.2922E-12	600.661E-3	26.1478E-3
-1.29315E-3	-81.5410E-12	529.813E-3	366.630E-6	-80.1326E-12	611.165E-3	26.7894E-3
-1.29815E-3	-81.6589E-12	565.228E-3	-21.5593E-3	-80.8590E-12	609.445E-3	-3.67552E-3
-1.30315E-3	-82.6776E-12	592.840E-3	-24.7664E-3	-81.4621E-12	620.609E-3	-18.3780E-3
-1.30815E-3	-82.9190E-12	604.383E-3	-23.6393E-3	-81.1204E-12	634.489E-3	-31.3108E-3
-1.31316E-3	-82.2815E-12	625.920E-3	-19.3585E-3	-80.6288E-12	645.396E-3	-26.5200E-3
-1.31816E-3	-82.0397E-12	621.906E-3	4.12418E-3	-81.6701E-12	652.104E-3	-9.96960E-3
-1.32316E-3	-82.8059E-12	601.261E-3	19.7669E-3	-82.7454E-12	655.570E-3	-26.2891E-3
-1.32816E-3	-83.8176E-12	611.219E-3	19.4949E-3	-82.0530E-12	684.545E-3	-39.6149E-3
-1.33317E-3	-84.0838E-12	643.124E-3	14.1240E-3	-81.5326E-12	708.798E-3	-24.7968E-3
-1.33817E-3	-83.0130E-12	667.393E-3	-8.30729E-3	-82.6060E-12	700.795E-3	-30.8945E-3
-1.34317E-3	-82.9185E-12	667.708E-3	-30.3372E-3	-85.1290E-12	705.762E-3	-42.5520E-3
-1.34817E-3	-83.6906E-12	663.675E-3	-36.5468E-3	-83.7919E-12	729.194E-3	-33.5962E-3
-1.35318E-3	-84.4629E-12	671.829E-3	-38.4850E-3	-82.7455E-12	742.155E-3	-11.0206E-3
-1.35818E-3	-84.1345E-12	674.931E-3	-32.5285E-3	-82.8847E-12	754.281E-3	1.00755E-3
-1.36318E-3	-84.0347E-12	680.478E-3	-16.7282E-3	-85.5103E-12	772.856E-3	-4.35817E-3
-1.36818E-3	-84.4145E-12	685.899E-3	-4.85675E-3	-85.5952E-12	771.327E-3	552.011E-6
-1.37319E-3	-84.9864E-12	701.804E-3	-10.3227E-3	-83.8360E-12	757.583E-3	2.65704E-3
-1.37819E-3	-85.7583E-12	731.200E-3	-21.2903E-3	-84.0951E-12	761.781E-3	122.785E-6
-1.38319E-3	-86.1694E-12	728.254E-3	-11.0154E-3	-86.6866E-12	771.461E-3	20.8046E-3
-1.38819E-3	-85.8790E-12	711.116E-3	-7.68894E-3	-87.8620E-12	763.740E-3	37.1222E-3
-1.39320E-3	-86.6411E-12	710.813E-3	-16.8275E-3	-86.3813E-12	765.478E-3	19.1141E-3
-1.39820E-3	-87.8840E-12	715.462E-3	-9.96967E-3	-85.1688E-12	787.955E-3	-5.41080E-3
-1.40320E-3	-87.6080E-12	726.851E-3	-8.93888E-3	-86.3664E-12	801.068E-3	-9.67053E-3
-1.40820E-3	-87.8586E-12	762.877E-3	-7.08993E-3	-87.9063E-12	791.186E-3	-7.03339E-3
-1.41321E-3	-88.2831E-12	783.920E-3	-6.11040E-3	-88.4193E-12	772.965E-3	-12.8876E-3
-1.41821E-3	-88.8364E-12	773.734E-3	-38.7883E-3	-87.1332E-12	768.847E-3	-16.5130E-3
-1.42321E-3	-88.3229E-12	780.643E-3	-60.0113E-3	-87.6944E-12	787.468E-3	-14.9523E-3
-1.42821E-3	-87.9529E-12	791.134E-3	-45.2234E-3	-89.2864E-12	814.430E-3	-10.5111E-3
-1.43322E-3	-87.2713E-12	779.645E-3	-37.2245E-3	-90.6823E-12	829.694E-3	-922.581E-6
-1.43822E-3	-88.3174E-12	784.898E-3	-29.9927E-3	-90.0072E-12	839.657E-3	10.5883E-3
-1.44322E-3	-89.4301E-12	807.461E-3	-17.8627E-3	-89.9442E-12	848.836E-3	16.9873E-3
-1.44822E-3	-87.1345E-12	814.719E-3	-15.8153E-3	-90.8548E-12	853.676E-3	19.6264E-3
-1.45323E-3	-87.2863E-12	822.158E-3	-9.92531E-3	-93.0322E-12	850.714E-3	12.5595E-3
-1.45823E-3	-88.1955E-12	816.949E-3	2.14437E-3	-92.9288E-12	838.978E-3	-4.68309E-3
-1.46323E-3	-88.6970E-12	794.503E-3	-3.66861E-3	-91.0142E-12	838.125E-3	-17.2946E-3
-1.46823E-3	-87.5280E-12	794.125E-3	-26.9377E-3	-90.7726E-12	848.545E-3	-20.5089E-3
-1.47324E-3	-87.7636E-12	799.570E-3	-41.2437E-3	-91.3738E-12	840.415E-3	-20.6403E-3
-1.47824E-3	-88.7244E-12	793.114E-3	-37.1620E-3	-92.6143E-12	819.765E-3	-25.5781E-3
-1.48324E-3	-89.5788E-12	806.936E-3	-19.1609E-3	-91.1535E-12	817.945E-3	-40.5743E-3
-1.48824E-3	-89.8523E-12	823.806E-3	-3.89231E-3	-90.9611E-12	823.814E-3	-61.3882E-3
-1.49325E-3	-89.3239E-12	824.709E-3	-7.61381E-3	-91.1145E-12	816.459E-3	-59.1268E-3
-1.49825E-3	-90.1003E-12	838.043E-3	-12.7111E-3	-92.2829E-12	808.992E-3	-29.0616E-3
-1.50325E-3	-90.5731E-12	849.610E-3	-6.17419E-3	-91.6065E-12	804.165E-3	-9.75751E-3
-1.50825E-3	-91.5242E-12	832.326E-3	-8.12444E-3	-91.2510E-12	810.336E-3	-12.5656E-3
-1.51326E-3	-91.4739E-12	808.679E-3	-21.1634E-3	-90.9258E-12	822.446E-3	-9.67285E-3
-1.51826E-3	-91.2262E-12	809.192E-3	-38.9585E-3	-92.2210E-12	818.011E-3	3.37431E-3
-1.52326E-3	-91.5564E-12	828.164E-3	-52.3337E-3	-93.1313E-12	817.217E-3	12.9764E-3
-1.52826E-3	-92.6813E-12	836.613E-3	-47.1351E-3	-92.2894E-12	823.211E-3	10.9649E-3
-1.53327E-3	-92.9630E-12	836.975E-3	-28.6834E-3	-91.9051E-12	824.373E-3	-6.66649E-3
-1.53827E-3	-92.0377E-12	840.377E-3	-9.03685E-3	-92.6134E-12	831.681E-3	-20.5643E-3
-1.54327E-3	-91.9578E-12	845.319E-3	-3.91673E-3	-93.8005E-12	828.391E-3	-6.74971E-3
-1.54827E-3	-92.4982E-12	847.756E-3	-6.12850E-3	-93.7695E-12	810.695E-3	12.7578E-3
-1.55328E-3	-93.2162E-12	822.256E-3	-5.90827E-3	-93.0385E-12	809.181E-3	17.5106E-3
-1.55828E-3	-93.1801E-12	799.634E-3	-28.1253E-3	-93.8512E-12	821.481E-3	15.6964E-3
-1.56328E-3	-93.0523E-12	816.594E-3	-54.2450E-3	-94.9546E-12	828.485E-3	102.862E-6
-1.56828E-3	-94.0774E-12	830.333E-3	-55.6890E-3	-95.7095E-12	824.471E-3	-13.8058E-3
-1.57329E-3	-95.0119E-12	830.029E-3	-49.9802E-3	-94.8988E-12	816.139E-3	-15.7320E-3
-1.57829E-3	-94.6736E-12	842.059E-3	-36.0049E-3	-95.1018E-12	796.143E-3	-11.9559E-3
-1.58329E-3	-94.5691E-12	841.285E-3	-12.4619E-3	-96.0465E-12	775.371E-3	-8.61769E-3
-1.58829E-3	-95.3473E-12	824.837E-3	-4.35230E-3	-96.4844E-12	777.447E-3	-18.7698E-3
-1.59330E-3	-96.3608E-12	832.078E-3	-16.6185E-3	-96.4515E-12	782.196E-3	-20.5965E-3
-1.59830E-3	-96.5614E-12	838.779E-3	-20.1609E-3	-95.1588E-12	786.487E-3	-5.67678E-3
-1.60330E-3	-96.7268E-12	816.961E-3	-14.1261E-3	-95.9763E-12	798.983E-3	-8.26074E-3
-1.60830E-3	-97.1490E-12	799.517E-3	-9.53152E-3	-96.0773E-12	804.889E-3	-22.2950E-3
-1.61331E-3	-97.8223E-12	808.978E-3	-7.11306E-3	-96.0929E-12	802.562E-3	-19.3032E-3
-1.61831E-3	-96.8434E-12	818.550E-3	-15.8542E-3	-96.1786E-12	804.118E-3	-11.5741E-3
-1.62331E-3	-97.3433E-12	819.226E-3	-19.3150E-3	-96.0983E-12	795.338E-3	-2.63891E-3
-1.62831E-3	-98.2498E-12	816.330E-3	-12.9740E-3	-97.4891E-12	781.656E-3	-72.8324E-6
-1.63332E-3	-98.5490E-12	808.721E-3	-1.57920E-3	-98.6498E-12	788.324E-3	-3.78364E-3
-1.63832E-3	-98.1913E-12	800.952E-3	10.1231E-3	-99.3380E-12	793.699E-3	-5.69511E-3
-1.64332E-3	-97.9307E-12	788.722E-3	1.37409E-3	-98.6983E-12	799.741E-3	-30.9022E-3
-1.64832E-3	-98.7303E-12	773.385E-3	-19.5268E-3	-99.5566E-12	822.668E-3	-59.2569E-3
-1.65333E-3	-99.9473E-12	771.646E-3	-20.0682E-3	-101.115E-12	832.260E-3	-52.7322E-3
-1.65833E-3	-100.027E-12	788.748E-3	-5.40212E-3	-101.677E-12	824.604E-3	-28.9644E-3
-1.66333E-3	-100.064E-12	798.694E-3	2.03489E-3	-100.415E-12	816.346E-3	-14.7710E-3
-1.66833E-3	-100.501E-12	790.656E-3	1.23936E-3	-101.782E-12	799.544E-3	-22.4637E-3
-1.67334E-3	-102.282E-12	779.022E-3	-4.57629E-3	-102.517E-12	781.224E-3	-35.9131E-3
-1.67834E-3	-103.001E-12	768.537E-3	-6.65988E-3	-102.666E-12	766.825E-3	-34.5042E-3
-1.68334E-3	-101.290E-12	775.626E-3	8.25746E-3	-102.282E-12	759.418E-3	-30.5220E-3
-1.68834E-3	-100.789E-12	794.270E-3	20.0909E-3	-101.699E-12	766.964E-3	-14.9361E-3
-1.69335E-3	-102.842E-12	789.919E-3	1.88537E-3	-102.583E-12	783.173E-3	15.9727E-3
-1.69835E-3	-103.957E-12	780.862E-3	-25.2878E-3	-102.623E-12	771.461E-3	24.1157E-3
-1.70335E-3	-102.705E-12	772.725E-3	-33.8823E-3	-102.320E-12	738.287E-3	12.7450E-3
-1.70835E-3	-102.330E-12	755.372E-3	-21.5890E-3	-102.119E-12	740.968E-3	12.1013E-3
-1.71336E-3	-103.850E-12	761.165E-3	-13.5782E-3	-101.475E-12	778.452E-3	8.28632E-3
-1.71836E-3	-104.581E-12	785.866E-3	-17.1019E-3	-103.414E-12	793.264E-3	-10.6871E-3
-1.72336E-3	-103.761E-12	811.079E-3	-19.8396E-3	-103.409E-12	766.673E-3	-26.1698E-3
-1.72836E-3	-103.441E-12	821.552E-3	-25.5889E-3	-104.223E-12	749.009E-3	-19.9877E-3
-1.73337E-3	-103.926E-12	799.202E-3	-15.8353E-3	-103.330E-12	756.010E-3	3.27985E-3
-1.73837E-3	-104.465E-12	769.257E-3	6.48676E-3	-104.569E-12	771.728E-3	15.8784E-3
-1.74337E-3	-105.023E-12	772.432E-3	4.04664E-3	-105.192E-12	792.804E-3	952.304E-6
-1.74837E-3	-106.173E-12	794.551E-3	-5.37826E-3	-105.458E-12	787.019E-3	-10.6956E-3
-1.75338E-3	-105.247E-12	780.730E-3	3.04656E-3	-105.140E-12	772.982E-3	3.52081E-3
-1.75838E-3	-104.902E-12	738.434E-3	12.4348E-3	-104.866E-12	785.304E-3	6.87514E-3
-1.76338E-3	-106.092E-12	724.698E-3	15.6453E-3	-106.939E-12	790.093E-3	-3.89898E-3
-1.76838E-3	-106.702E-12	741.370E-3	14.3688E-3	-107.035E-12	786.198E-3	-15.0614E-3
-1.77339E-3	-105.447E-12	750.373E-3	-74.9257E-6	-106.485E-12	787.545E-3	-27.8316E-3
-1.77839E-3	-104.000E-12	743.758E-3	-16.9033E-3	-105.928E-12	784.433E-3	-27.8586E-3
-1.78339E-3	-105.197E-12	739.720E-3	-14.8672E-3	-107.031E-12	765.989E-3	-19.4607E-3
-1.78839E-3	-105.897E-12	733.309E-3	-5.67132E-3	-108.198E-12	746.039E-3	-8.65883E-3
-1.79340E-3	-106.010E-12	736.011E-3	-2.14229E-3	-107.425E-12	742.617E-3	-5.07162E-3
-1.79840E-3	-105.561E-12	746.760E-3	5.82601E-3	-106.323E-12	748.559E-3	-5.72824E-3
-1.80340E-3	-105.936E-12	731.736E-3	3.66028E-3	-106.695E-12	763.642E-3	-2.11543E-3
-1.80840E-3	-106.838E-12	714.965E-3	-16.6373E-3	-107.514E-12	763.029E-3	1.71803E-3
-1.81341E-3	-108.132E-12	714.623E-3	-21.4417E-3	-107.410E-12	743.300E-3	17.0372E-3
-1.81841E-3	-108.560E-12	717.439E-3	-3.98928E-3	-106.720E-12	741.041E-3	16.2504E-3
-1.82341E-3	-107.829E-12	732.076E-3	10.6712E-3	-107.308E-12	751.830E-3	-19.4140E-3
-1.82841E-3	-107.888E-12	749.760E-3	1.69318E-3	-108.576E-12	748.658E-3	-39.5973E-3
-1.83342E-3	-107.835E-12	752.999E-3	-31.0282E-3	-109.110E-12	745.436E-3	-35.6596E-3
-1.83842E-3	-109.372E-12	748.707E-3	-48.2314E-3	-109.140E-12	749.660E-3	-31.0304E-3
-1.84342E-3	-109.719E-12	747.337E-3	-24.4461E-3	-108.660E-12	749.156E-3	-5.80438E-3
-1.84842E-3	-109.902E-12	740.879E-3	-7.16500E-3	-109.966E-12	757.727E-3	26.6924E-3
-1.85343E-3	-108.026E-12	731.047E-3	-10.9048E-3	-110.205E-12	763.235E-3	15.7518E-3
-1.85843E-3	-108.658E-12	734.008E-3	-36.7865E-6	-110.657E-12	744.284E-3	-23.0413E-3
-1.86343E-3	-109.724E-12	746.498E-3	-1.68535E-3	-109.938E-12	729.605E-3	-46.6658E-3
-1.86843E-3	-109.967E-12	745.280E-3	-22.6903E-3	-111.406E-12	728.118E-3	-43.0060E-3
-1.87344E-3	-109.220E-12	727.734E-3	-27.6363E-3	-112.415E-12	705.207E-3	-19.5083E-3
-1.87844E-3	-108.880E-12	714.887E-3	-30.6980E-3	-112.881E-12	684.264E-3	4.12347E-3
-1.88344E-3	-111.254E-12	712.195E-3	-37.5062E-3	-111.869E-12	690.985E-3	6.26836E-3
-1.88844E-3	-111.283E-12	702.908E-3	-27.6442E-3	-111.564E-12	701.218E-3	-5.93255E-3
-1.89345E-3	-111.512E-12	691.427E-3	-9.98138E-3	-112.866E-12	715.356E-3	-4.31532E-3
-1.89845E-3	-111.131E-12	689.361E-3	-1.97248E-3	-112.628E-12	728.233E-3	646.336E-6
-1.90345E-3	-111.529E-12	691.442E-3	1.95540E-3	-112.580E-12	720.522E-3	242.676E-6
-1.90845E-3	-113.051E-12	695.576E-3	7.39376E-3	-112.022E-12	710.179E-3	305.813E-6
-1.91346E-3	-113.638E-12	718.616E-3	-517.822E-6	-111.759E-12	712.610E-3	-3.43222E-3
-1.91846E-3	-114.161E-12	752.194E-3	-7.62308E-3	-113.302E-12	726.260E-3	-1.44294E-3
-1.92346E-3	-112.719E-12	749.908E-3	-345.058E-6	-113.555E-12	733.862E-3	3.34561E-3
-1.92846E-3	-115.156E-12	718.016E-3	201.103E-6	-112.982E-12	722.702E-3	3.62078E-3
-1.93347E-3	-115.877E-12	703.814E-3	-4.41085E-3	-112.258E-12	706.820E-3	-4.90712E-3
-1.93847E-3	-116.265E-12	711.609E-3	-6.85560E-3	-114.079E-12	704.079E-3	-16.0550E-3
-1.94347E-3	-115.650E-12	716.234E-3	-28.8553E-3	-113.536E-12	727.026E-3	-729.169E-6
-1.94847E-3	-114.581E-12	731.385E-3	-52.7889E-3	-114.474E-12	752.297E-3	12.1367E-3
-1.95348E-3	-115.637E-12	746.834E-3	-47.3307E-3	-113.099E-12	753.117E-3	4.16377E-3
-1.95848E-3	-116.108E-12	726.061E-3	-38.4171E-3	-115.285E-12	756.249E-3	3.89558E-3
-1.96348E-3	-115.422E-12	714.538E-3	-22.8983E-3	-116.123E-12	765.578E-3	6.54056E-3
-1.96848E-3	-114.506E-12	723.018E-3	-12.2049E-3	-115.077E-12	743.336E-3	-9.23731E-3
-1.97349E-3	-115.829E-12	713.021E-3	-18.8477E-3	-114.829E-12	698.440E-3	-23.9843E-3
-1.97849E-3	-116.633E-12	701.172E-3	-8.37952E-3	-115.768E-12	684.244E-3	-18.7787E-3
-1.98349E-3	-117.174E-12	688.449E-3	-597.761E-6	-117.204E-12	701.442E-3	-34.3897E-3
-1.98849E-3	-117.017E-12	677.319E-3	-10.3049E-3	-116.084E-12	718.355E-3	-67.6172E-3
-1.99350E-3	-118.036E-12	694.762E-3	-22.0750E-3	-116.284E-12	738.195E-3	-69.4916E-3
-1.99850E-3	-119.660E-12	713.545E-3	-24.6175E-3	-117.411E-12	736.853E-3	-37.3418E-3
-2.00350E-3	-119.579E-12	719.752E-3	-18.0313E-3	-117.312E-12	710.147E-3	-5.33372E-3
-2.00850E-3	-120.183E-12	739.001E-3	-34.6972E-3	-117.588E-12	704.395E-3	-10.2129E-3
-2.01351E-3	-120.254E-12	747.030E-3	-52.6530E-3	-117.764E-12	718.110E-3	-34.6140E-3
-2.01851E-3	-120.178E-12	737.366E-3	-35.9574E-3	-118.821E-12	724.540E-3	-39.8197E-3
-2.02351E-3	-120.877E-12	736.959E-3	-17.1708E-3	-117.411E-12	720.238E-3	-42.4604E-3
-2.02851E-3	-121.803E-12	743.555E-3	-17.8740E-3	-117.395E-12	702.227E-3	-50.8775E-3
-2.03352E-3	-121.695E-12	734.629E-3	-27.7884E-3	-118.508E-12	687.629E-3	-30.2124E-3
-2.03852E-3	-121.660E-12	720.885E-3	-32.5907E-3	-119.556E-12	687.534E-3	-7.76065E-3
-2.04352E-3	-121.467E-12	734.343E-3	-31.7408E-3	-118.683E-12	688.385E-3	-18.8535E-3
-2.04852E-3	-120.923E-12	743.337E-3	-35.8148E-3	-119.020E-12	698.750E-3	-44.6348E-3
-2.05353E-3	-120.645E-12	733.336E-3	-38.8062E-3	-121.187E-12	714.874E-3	-58.8723E-3
-2.05853E-3	-120.830E-12	733.789E-3	-19.7791E-3	-121.561E-12	716.986E-3	-47.1285E-3
-2.06353E-3	-121.313E-12	736.061E-3	-4.41639E-3	-121.565E-12	715.386E-3	-33.6648E-3
-2.06853E-3	-120.617E-12	734.838E-3	-13.0554E-3	-121.406E-12	737.656E-3	-37.9681E-3
-2.07354E-3	-121.759E-12	733.408E-3	-12.8821E-3	-122.503E-12	766.052E-3	-38.9191E-3
-2.07854E-3	-121.795E-12	717.891E-3	-13.9793E-3	-123.510E-12	753.228E-3	-23.7092E-3
-2.08354E-3	-121.085E-12	706.632E-3	-30.4768E-3	-123.502E-12	722.305E-3	-2.32232E-3
-2.08854E-3	-120.642E-12	707.420E-3	-26.9361E-3	-123.414E-12	712.274E-3	2.45197E-3
-2.09355E-3	-122.738E-12	704.073E-3	-12.5555E-3	-123.431E-12	708.912E-3	-25.9238E-3
-2.09855E-3	-124.168E-12	704.866E-3	-8.13764E-3	-123.465E-12	696.313E-3	-43.6190E-3
-2.10355E-3	-122.892E-12	718.304E-3	2.20114E-3	-123.023E-12	684.707E-3	-34.3165E-3
-2.10855E-3	-122.358E-12	721.300E-3	4.32887E-3	-122.454E-12	689.096E-3	-12.9424E-3
-2.11356E-3	-122.862E-12	715.451E-3	-502.921E-6	-121.913E-12	715.330E-3	16.2822E-3
-2.11856E-3	-123.942E-12	719.842E-3	-4.65068E-3	-122.946E-12	730.837E-3	20.6288E-3
-2.12356E-3	-123.775E-12	706.539E-3	-2.15257E-3	-123.114E-12	715.629E-3	9.34682E-3
-2.12856E-3	-122.719E-12	698.567E-3	989.789E-6	-122.754E-12	702.088E-3	-4.53159E-3
-2.13357E-3	-122.486E-12	720.489E-3	-10.0183E-3	-123.048E-12	700.895E-3	-31.9478E-3
-2.13857E-3	-122.894E-12	722.991E-3	-22.8999E-3	-122.773E-12	692.249E-3	-35.7593E-3
-2.14357E-3	-122.412E-12	700.543E-3	-35.2235E-3	-122.706E-12	692.419E-3	-919.190E-6
-2.14857E-3	-123.114E-12	699.199E-3	-40.0206E-3	-122.492E-12	715.262E-3	15.4739E-3
-2.15358E-3	-122.705E-12	721.530E-3	-23.8812E-3	-123.086E-12	740.995E-3	-3.78939E-3
-2.15858E-3	-122.637E-12	720.097E-3	-2.60377E-3	-124.440E-12	744.588E-3	-28.8582E-3
-2.16358E-3	-122.282E-12	697.991E-3	-1.29617E-3	-124.541E-12	712.759E-3	-52.0512E-3
-2.16858E-3	-123.945E-12	682.985E-3	226.066E-6	-125.083E-12	687.910E-3	-63.2074E-3
-2.17359E-3	-124.934E-12	676.939E-3	-396.197E-6	-125.409E-12	697.757E-3	-31.9491E-3
-2.17859E-3	-123.864E-12	687.168E-3	-16.1782E-3	-125.647E-12	713.811E-3	23.3942E-3
-2.18359E-3	-124.133E-12	698.140E-3	-19.7779E-3	-126.164E-12	721.167E-3	22.8283E-3
-2.18859E-3	-125.306E-12	680.766E-3	-21.2889E-3	-127.023E-12	728.650E-3	-10.1967E-3
-2.19360E-3	-125.139E-12	660.794E-3	-33.5004E-3	-126.208E-12	727.485E-3	-21.1640E-3
-2.19860E-3	-124.316E-12	671.321E-3	-33.2990E-3	-126.131E-12	708.133E-3	-25.1926E-3
-2.20360E-3	-124.068E-12	692.953E-3	-27.0972E-3	-127.067E-12	694.335E-3	-17.3656E-3
-2.20860E-3	-124.718E-12	700.168E-3	-29.5208E-3	-128.391E-12	705.209E-3	-11.5288E-3
-2.21361E-3	-125.386E-12	703.417E-3	-44.4207E-3	-127.103E-12	724.669E-3	-19.4099E-3
-2.21861E-3	-124.616E-12	708.671E-3	-54.0821E-3	-126.328E-12	732.086E-3	-9.00043E-3
-2.22361E-3	-123.893E-12	714.374E-3	-33.6229E-3	-126.220E-12	730.362E-3	2.73163E-3
-2.22861E-3	-124.504E-12	728.724E-3	-17.4664E-3	-128.160E-12	703.153E-3	-3.54753E-3
-2.23362E-3	-125.354E-12	732.314E-3	-30.6663E-3	-128.514E-12	658.794E-3	-4.21732E-3
-2.23862E-3	-126.019E-12	714.903E-3	-37.8012E-3	-127.906E-12	649.176E-3	-25.3558E-6
-2.24362E-3	-125.926E-12	696.132E-3	-14.0502E-3	-127.601E-12	675.414E-3	-15.6116E-3
-2.24862E-3	-127.444E-12	682.014E-3	11.9077E-3	-129.998E-12	694.737E-3	-37.0361E-3
-2.25363E-3	-128.327E-12	677.892E-3	18.8155E-3	-129.762E-12	704.247E-3	-28.9883E-3
-2.25863E-3	-128.144E-12	689.077E-3	6.50958E-3	-129.014E-12	722.342E-3	-24.5355E-3
-2.26363E-3	-128.807E-12	704.787E-3	-7.42964E-3	-128.478E-12	719.684E-3	-20.7779E-3
-2.26863E-3	-129.043E-12	719.387E-3	-12.8766E-3	-130.541E-12	705.359E-3	1.17017E-3
-2.27364E-3	-128.739E-12	725.168E-3	-17.8099E-3	-130.659E-12	712.884E-3	-5.91999E-3
-2.27864E-3	-129.528E-12	716.858E-3	-25.0510E-3	-130.199E-12	716.468E-3	-28.9227E-3
-2.28364E-3	-129.991E-12	713.263E-3	-44.2481E-3	-130.771E-12	709.159E-3	-30.4711E-3
-2.28864E-3	-129.927E-12	702.069E-3	-59.1262E-3	-132.259E-12	717.582E-3	-19.0426E-3
-2.29365E-3	-129.256E-12	670.518E-3	-52.9651E-3	-131.877E-12	712.251E-3	-4.63387E-3
-2.29865E-3	-128.347E-12	673.995E-3	-47.6533E-3	-132.203E-12	692.667E-3	-11.3796E-3
-2.30365E-3	-129.681E-12	713.290E-3	-29.6162E-3	-133.613E-12	696.304E-3	-26.0172E-3
-2.30865E-3	-130.401E-12	725.913E-3	-3.86697E-3	-134.069E-12	694.986E-3	-24.7713E-3
-2.31366E-3	-129.395E-12	712.154E-3	-11.0768E-3	-132.161E-12	686.644E-3	-14.1634E-3
-2.31866E-3	-129.104E-12	693.480E-3	-21.7083E-3	-131.100E-12	690.914E-3	-7.71659E-3
-2.32366E-3	-130.839E-12	669.766E-3	-791.435E-6	-132.794E-12	688.621E-3	-26.6740E-3
-2.32866E-3	-132.003E-12	668.500E-3	21.6385E-3	-134.608E-12	680.943E-3	-21.4432E-3
-2.33367E-3	-131.664E-12	694.523E-3	14.2106E-3	-132.462E-12	694.407E-3	4.92241E-3
-2.33867E-3	-132.311E-12	699.725E-3	-4.76570E-3	-130.534E-12	714.497E-3	-3.79027E-3
-2.34367E-3	-133.222E-12	691.102E-3	-12.0359E-3	-131.603E-12	709.422E-3	-26.6430E-3
-2.34867E-3	-134.703E-12	704.938E-3	93.0087E-6	-134.157E-12	705.866E-3	-38.2343E-3
-2.35368E-3	-134.811E-12	732.177E-3	12.4727E-3	-133.696E-12	714.301E-3	-38.9188E-3
-2.35868E-3	-135.262E-12	736.929E-3	-9.99663E-3	-131.411E-12	697.133E-3	-36.3104E-3
-2.36368E-3	-135.493E-12	714.396E-3	-47.1056E-3	-132.645E-12	668.061E-3	-35.9073E-3
-2.36868E-3	-135.712E-12	710.472E-3	-50.9979E-3	-133.941E-12	658.790E-3	-42.0920E-3
-2.37369E-3	-135.156E-12	730.062E-3	-37.4016E-3	-134.401E-12	640.857E-3	-41.2661E-3
-2.37869E-3	-135.313E-12	737.614E-3	-38.0403E-3	-134.771E-12	633.665E-3	-24.7694E-3
-2.38369E-3	-136.308E-12	743.131E-3	-24.9223E-3	-134.661E-12	685.351E-3	-4.76192E-3
-2.38869E-3	-136.190E-12	740.166E-3	4.89864E-3	-134.237E-12	729.254E-3	3.60801E-3
-2.39370E-3	-135.294E-12	715.460E-3	10.0826E-3	-135.384E-12	701.208E-3	-14.8069E-3
-2.39870E-3	-134.878E-12	696.827E-3	-8.18552E-3	-136.786E-12	668.218E-3	-35.8947E-3
-2.40370E-3	-135.672E-12	676.451E-3	-38.3645E-3	-136.147E-12	660.480E-3	-43.5626E-3
-2.40870E-3	-135.568E-12	658.657E-3	-77.8663E-3	-136.095E-12	657.396E-3	-53.4828E-3
-2.41371E-3	-134.912E-12	663.031E-3	-82.5807E-3	-136.308E-12	685.555E-3	-49.7035E-3
-2.41871E-3	-135.182E-12	667.727E-3	-47.5084E-3	-138.436E-12	710.550E-3	-15.2941E-3
-2.42371E-3	-136.623E-12	678.677E-3	-35.9824E-3	-138.679E-12	709.223E-3	7.48195E-3
-2.42871E-3	-137.620E-12	703.908E-3	-35.2316E-3	-136.895E-12	709.452E-3	-19.7868E-3
-2.43372E-3	-137.711E-12	705.649E-3	-14.4364E-3	-136.590E-12	705.199E-3	-37.8598E-3
-2.43872E-3	-138.072E-12	681.354E-3	-15.6932E-3	-137.623E-12	697.783E-3	-29.1939E-3
-2.44372E-3	-138.910E-12	681.637E-3	-25.5934E-3	-138.761E-12	682.800E-3	-42.3823E-3
-2.44872E-3	-139.943E-12	701.232E-3	2.16457E-3	-137.522E-12	657.774E-3	-50.4908E-3
-2.45373E-3	-139.246E-12	704.696E-3	14.8050E-3	-138.033E-12	648.349E-3	-26.7276E-3
-2.45873E-3	-138.913E-12	701.114E-3	-3.57812E-3	-138.595E-12	663.112E-3	14.3872E-3
-2.46373E-3	-138.477E-12	693.307E-3	-7.11376E-3	-140.745E-12	687.087E-3	35.4787E-3
-2.46873E-3	-140.051E-12	678.769E-3	-5.03601E-3	-139.225E-12	698.336E-3	15.5479E-3
-2.47374E-3	-139.096E-12	677.407E-3	-3.09294E-3	-139.744E-12	698.638E-3	-19.1338E-3
-2.47874E-3	-138.343E-12	686.903E-3	7.99345E-3	-141.113E-12	704.892E-3	-37.0590E-3
-2.48374E-3	-137.489E-12	689.041E-3	5.72406E-3	-142.491E-12	706.840E-3	-24.7200E-3
-2.48874E-3	-138.850E-12	696.114E-3	-31.2232E-3	-142.283E-12	702.417E-3	-23.2646E-3
-2.49375E-3	-138.608E-12	693.994E-3	-48.6865E-3	-141.833E-12	692.996E-3	-35.3749E-3
-2.49875E-3	-138.397E-12	680.781E-3	-28.7591E-3	-142.993E-12	678.643E-3	-28.4521E-3
-2.50375E-3	-139.361E-12	690.780E-3	-20.9296E-3	-143.099E-12	677.080E-3	-39.4864E-3
-2.50875E-3	-138.728E-12	685.921E-3	-18.5045E-3	-142.171E-12	674.056E-3	-71.1241E-3
-2.51376E-3	-140.688E-12	649.169E-3	-11.6058E-3	-141.622E-12	669.658E-3	-70.7118E-3
-2.51876E-3	-141.201E-12	650.000E-3	-19.2634E-3	-142.325E-12	675.435E-3	-45.3390E-3
-2.52376E-3	-140.397E-12	697.029E-3	-19.5677E-3	-142.192E-12	659.038E-3	-38.4029E-3
-2.52876E-3	-139.960E-12	720.519E-3	-19.0920E-3	-142.662E-12	639.432E-3	-41.4927E-3
-2.53377E-3	-141.208E-12	695.559E-3	-52.3130E-3	-142.243E-12	660.360E-3	-34.5008E-3
-2.53877E-3	-141.777E-12	672.736E-3	-76.1076E-3	-141.965E-12	685.666E-3	-17.3038E-3
-2.54377E-3	-141.686E-12	667.184E-3	-52.6751E-3	-142.515E-12	684.514E-3	3.38304E-3
-2.54877E-3	-141.257E-12	675.819E-3	-13.8464E-3	-141.501E-12	676.911E-3	2.13826E-3
-2.55378E-3	-141.910E-12	701.484E-3	10.0491E-3	-141.106E-12	675.852E-3	-16.6758E-3
-2.55878E-3	-142.794E-12	706.549E-3	5.35047E-3	-142.177E-12	680.156E-3	-36.5307E-3
-2.56378E-3	-141.569E-12	688.286E-3	-17.8961E-3	-142.586E-12	675.295E-3	-46.6677E-3
-2.56878E-3	-141.649E-12	682.306E-3	-34.1094E-3	-141.096E-12	663.173E-3	-27.3491E-3
-2.57379E-3	-141.876E-12	681.360E-3	-25.3618E-3	-142.887E-12	683.845E-3	-243.235E-6
-2.57879E-3	-143.368E-12	673.832E-3	-17.6153E-3	-143.980E-12	708.619E-3	-381.200E-6
-2.58379E-3	-142.502E-12	680.103E-3	-33.3537E-3	-144.212E-12	694.817E-3	-14.9012E-3
-2.58879E-3	-142.560E-12	693.985E-3	-32.3344E-3	-143.978E-12	683.490E-3	-8.40786E-3
-2.59380E-3	-143.756E-12	697.934E-3	-9.82386E-3	-144.294E-12	672.769E-3	2.60831E-3
-2.59880E-3	-144.844E-12	692.306E-3	-5.48734E-3	-144.873E-12	664.831E-3	-8.00631E-3
-2.60380E-3	-145.212E-12	685.686E-3	-10.9068E-3	-144.502E-12	680.257E-3	-24.2481E-3
-2.60880E-3	-145.291E-12	704.274E-3	-12.6264E-3	-144.181E-12	715.335E-3	-29.8569E-3
-2.61381E-3	-145.415E-12	728.199E-3	-7.37224E-3	-144.573E-12	726.224E-3	-20.5591E-3
-2.61881E-3	-145.334E-12	716.662E-3	2.72443E-3	-144.725E-12	684.767E-3	-19.8696E-3
-2.62381E-3	-145.865E-12	689.843E-3	-1.82849E-3	-144.901E-12	680.690E-3	-31.6397E-3
-2.62881E-3	-146.121E-12	684.059E-3	5.74283E-3	-145.186E-12	717.133E-3	-45.6180E-3
-2.63382E-3	-145.128E-12	688.068E-3	18.4924E-3	-145.308E-12	715.200E-3	-46.5610E-3
-2.63882E-3	-143.956E-12	687.951E-3	-19.8632E-6	-145.733E-12	688.905E-3	-13.8219E-3
-2.64382E-3	-144.951E-12	684.303E-3	-6.86682E-3	-145.777E-12	668.283E-3	13.5121E-3
-2.64882E-3	-145.640E-12	675.084E-3	17.3293E-3	-145.091E-12	660.634E-3	768.772E-6
-2.65383E-3	-146.570E-12	670.946E-3	35.5587E-3	-147.830E-12	668.703E-3	-6.82802E-3
-2.65883E-3	-146.729E-12	672.434E-3	30.7707E-3	-146.954E-12	663.598E-3	354.178E-6
-2.66383E-3	-146.145E-12	679.100E-3	18.8144E-3	-147.260E-12	643.687E-3	-2.98500E-3
-2.66883E-3	-146.901E-12	683.597E-3	16.5792E-3	-146.687E-12	638.327E-3	2.09522E-3
-2.67384E-3	-148.470E-12	676.807E-3	5.40934E-3	-149.508E-12	651.982E-3	7.16414E-3
-2.67884E-3	-149.840E-12	690.702E-3	-12.2479E-3	-148.525E-12	668.237E-3	698.557E-6
-2.68384E-3	-148.531E-12	705.344E-3	-23.1014E-3	-148.256E-12	668.412E-3	7.40908E-3
-2.68884E-3	-148.143E-12	697.769E-3	-22.4997E-3	-148.428E-12	695.430E-3	20.1772E-3
-2.69385E-3	-150.288E-12	681.124E-3	8.14051E-3	-150.445E-12	730.594E-3	2.65334E-3
-2.69885E-3	-150.319E-12	638.066E-3	20.6754E-3	-150.692E-12	701.091E-3	-21.1030E-3
-2.70385E-3	-149.909E-12	641.220E-3	-15.2364E-3	-150.658E-12	674.097E-3	-45.8742E-3
-2.70885E-3	-149.611E-12	687.809E-3	-47.7669E-3	-150.729E-12	683.151E-3	-60.3615E-3
-2.71386E-3	-150.199E-12	684.751E-3	-66.0117E-3	-150.891E-12	670.681E-3	-36.1080E-3
-2.71886E-3	-150.479E-12	678.723E-3	-71.8837E-3	-149.909E-12	669.145E-3	-26.7414E-3
-2.72386E-3	-150.611E-12	700.104E-3	-52.1865E-3	-150.618E-12	683.701E-3	-39.1926E-3
-2.72886E-3	-149.660E-12	690.885E-3	-33.7881E-3	-150.519E-12	696.109E-3	-24.3924E-3
-2.73387E-3	-148.289E-12	682.047E-3	-45.1277E-3	-151.325E-12	719.419E-3	7.92988E-3
-2.73887E-3	-149.385E-12	709.403E-3	-53.7373E-3	-150.791E-12	707.382E-3	8.55046E-3
-2.74387E-3	-149.675E-12	709.073E-3	-41.5631E-3	-150.691E-12	665.599E-3	-7.79244E-3
-2.74887E-3	-149.316E-12	679.216E-3	-24.0872E-3	-151.411E-12	658.091E-3	-9.17834E-3
-2.75388E-3	-148.992E-12	680.535E-3	19.0149E-3	-150.694E-12	668.290E-3	-21.6802E-3
-2.75888E-3	-149.336E-12	687.643E-3	56.8421E-3	-150.691E-12	655.608E-3	-36.4862E-3
-2.76388E-3	-151.792E-12	674.397E-3	52.4905E-3	-150.291E-12	652.639E-3	-30.9043E-3
-2.76888E-3	-151.952E-12	669.474E-3	41.6636E-3	-150.135E-12	679.545E-3	-27.8948E-3
-2.77389E-3	-151.306E-12	656.696E-3	32.1189E-3	-150.539E-12	683.934E-3	-40.6515E-3
-2.77889E-3	-152.672E-12	653.136E-3	7.63033E-3	-151.032E-12	671.307E-3	-50.2444E-3
-2.78389E-3	-153.398E-12	668.574E-3	-20.7311E-3	-152.371E-12	678.989E-3	-40.9150E-3
-2.78889E-3	-153.027E-12	660.389E-3	-26.2150E-3	-152.455E-12	686.969E-3	-25.8128E-3
-2.79390E-3	-152.475E-12	665.749E-3	-15.4069E-3	-153.286E-12	675.403E-3	-25.9084E-3
-2.79890E-3	-152.896E-12	710.150E-3	-18.4145E-3	-153.329E-12	671.490E-3	-26.3893E-3
-2.80390E-3	-154.495E-12	721.855E-3	-23.4890E-3	-154.013E-12	670.930E-3	-18.4798E-3
-2.80890E-3	-154.611E-12	700.205E-3	-31.8030E-3	-155.259E-12	646.235E-3	-13.2047E-3
-2.81391E-3	-152.228E-12	688.368E-3	-40.4570E-3	-156.655E-12	655.632E-3	-21.8292E-3
-2.81891E-3	-150.721E-12	680.663E-3	-30.5236E-3	-157.224E-12	674.962E-3	-49.9795E-3
-2.82391E-3	-151.667E-12	670.297E-3	-30.5579E-3	-156.399E-12	660.224E-3	-51.1624E-3
-2.82891E-3	-153.119E-12	680.773E-3	-38.1802E-3	-156.954E-12	669.777E-3	-15.3739E-3
-2.83392E-3	-152.301E-12	705.100E-3	-29.8388E-3	-157.090E-12	697.742E-3	-3.66507E-3
-2.83892E-3	-152.531E-12	682.076E-3	-29.5198E-3	-156.021E-12	700.360E-3	-4.61979E-3
-2.84392E-3	-153.263E-12	644.546E-3	-24.3072E-3	-155.909E-12	699.531E-3	7.13693E-3
-2.84892E-3	-155.030E-12	637.609E-3	-12.0516E-3	-156.585E-12	708.139E-3	-14.0317E-3
-2.85393E-3	-155.249E-12	640.423E-3	-19.9923E-3	-157.845E-12	694.501E-3	-20.5416E-3
-2.85893E-3	-154.860E-12	669.683E-3	-28.2967E-3	-156.591E-12	677.629E-3	9.32411E-3
-2.86393E-3	-156.968E-12	680.295E-3	-12.5318E-3	-156.098E-12	674.393E-3	1.96807E-3
-2.86893E-3	-158.715E-12	642.303E-3	-14.3091E-3	-156.317E-12	664.387E-3	-21.5818E-3
-2.87394E-3	-157.697E-12	644.979E-3	-26.9229E-3	-157.803E-12	656.433E-3	-26.6853E-3
-2.87894E-3	-156.633E-12	686.159E-3	-11.1709E-3	-158.956E-12	665.922E-3	-52.4274E-3
-2.88394E-3	-158.311E-12	701.888E-3	-13.6700E-3	-157.096E-12	677.374E-3	-68.4446E-3
-2.88894E-3	-158.878E-12	697.217E-3	-23.5256E-3	-156.740E-12	683.945E-3	-48.6803E-3
-2.89395E-3	-157.686E-12	699.117E-3	-11.6718E-3	-158.239E-12	700.822E-3	-47.4249E-3
-2.89895E-3	-155.882E-12	691.183E-3	-2.77973E-3	-160.532E-12	699.270E-3	-43.9365E-3
-2.90395E-3	-156.956E-12	666.883E-3	-3.55832E-3	-159.500E-12	670.503E-3	-26.7893E-3
-2.90895E-3	-158.317E-12	664.499E-3	-5.17530E-3	-158.458E-12	658.867E-3	-29.4155E-3
-2.91396E-3	-156.704E-12	674.889E-3	-3.94235E-3	-159.057E-12	656.454E-3	-23.7505E-3
-2.91896E-3	-155.783E-12	664.120E-3	-22.1031E-3	-161.514E-12	654.528E-3	6.48545E-3
-2.92396E-3	-156.885E-12	659.075E-3	-55.9374E-3	-162.099E-12	670.852E-3	7.84999E-3
-2.92896E-3	-158.240E-12	652.676E-3	-51.0599E-3	-160.372E-12	673.704E-3	-17.2115E-3
-2.93397E-3	-158.793E-12	638.397E-3	-24.0801E-3	-158.282E-12	666.815E-3	-31.9584E-3
-2.93897E-3	-158.242E-12	661.472E-3	-30.2934E-3	-159.704E-12	686.700E-3	-31.2515E-3
-2.94397E-3	-158.933E-12	684.316E-3	-48.6301E-3	-161.671E-12	691.003E-3	-23.7534E-3
-2.94897E-3	-159.433E-12	681.179E-3	-57.0050E-3	-161.146E-12	669.521E-3	-30.1737E-3
-2.95398E-3	-161.564E-12	702.643E-3	-34.4232E-3	-158.784E-12	671.495E-3	-39.8490E-3
-2.95898E-3	-162.161E-12	720.923E-3	14.3140E-3	-159.142E-12	676.002E-3	-34.7767E-3
-2.96398E-3	-161.505E-12	711.763E-3	24.6664E-3	-159.891E-12	666.103E-3	-8.92752E-3
-2.96898E-3	-162.072E-12	709.497E-3	-575.396E-6	-159.835E-12	665.920E-3	8.11443E-3
-2.97399E-3	-162.744E-12	698.948E-3	-6.16625E-3	-159.299E-12	664.732E-3	14.6600E-3
-2.97899E-3	-163.877E-12	684.532E-3	18.4773E-3	-158.881E-12	661.479E-3	-6.84733E-3
-2.98399E-3	-162.567E-12	698.778E-3	19.3443E-3	-160.372E-12	670.015E-3	-45.3484E-3
-2.98899E-3	-162.188E-12	704.763E-3	-9.15241E-3	-161.239E-12	694.150E-3	-51.3247E-3
-2.99400E-3	-162.472E-12	673.447E-3	-22.5721E-3	-161.707E-12	695.888E-3	-51.6882E-3
-2.99900E-3	-165.815E-12	664.237E-3	-35.3677E-3	-162.362E-12	683.257E-3	-42.2061E-3
-3.00400E-3	-164.118E-12	684.647E-3	-54.7558E-3	-163.289E-12	703.177E-3	-26.2768E-3
-3.00900E-3	-162.947E-12	684.317E-3	-41.0836E-3	-164.324E-12	718.084E-3	-32.4992E-3
-3.01401E-3	-164.215E-12	686.988E-3	-2.28157E-3	-165.119E-12	717.385E-3	-31.7784E-3
-3.01901E-3	-166.017E-12	690.483E-3	23.3353E-3	-166.223E-12	706.455E-3	5.30380E-3
-3.02401E-3	-167.070E-12	659.035E-3	30.0216E-3	-166.405E-12	676.226E-3	33.0218E-3
-3.02901E-3	-165.840E-12	644.100E-3	-19.9557E-3	-166.284E-12	662.603E-3	10.4234E-3
-3.03402E-3	-165.987E-12	679.420E-3	-65.4336E-3	-166.623E-12	693.971E-3	-34.2553E-3
-3.03902E-3	-167.586E-12	684.330E-3	-36.7997E-3	-167.713E-12	720.108E-3	-33.8537E-3
-3.04402E-3	-168.582E-12	654.609E-3	-21.9425E-3	-166.485E-12	704.517E-3	7.36870E-3
-3.04902E-3	-166.959E-12	652.524E-3	-37.2134E-3	-165.963E-12	686.325E-3	6.57764E-3
-3.05403E-3	-165.918E-12	637.810E-3	-46.4294E-3	-167.502E-12	687.134E-3	-18.4794E-3
-3.05903E-3	-167.539E-12	631.400E-3	-57.2966E-3	-167.601E-12	708.333E-3	-31.2746E-3
-3.06403E-3	-168.211E-12	678.952E-3	-40.8260E-3	-166.462E-12	704.565E-3	-48.9474E-3
-3.06903E-3	-167.752E-12	697.327E-3	-9.43473E-3	-166.744E-12	653.221E-3	-39.0649E-3
-3.07404E-3	-166.659E-12	660.942E-3	-494.979E-6	-168.377E-12	621.226E-3	-2.84163E-3
-3.07904E-3	-166.930E-12	641.936E-3	8.83657E-3	-169.359E-12	643.657E-3	-609.297E-6
-3.08404E-3	-166.929E-12	666.552E-3	19.3859E-3	-169.299E-12	677.204E-3	-20.0887E-3
-3.08904E-3	-166.799E-12	709.278E-3	-14.6132E-3	-169.305E-12	685.041E-3	-20.4169E-3
-3.09405E-3	-166.634E-12	720.264E-3	-52.2414E-3	-170.555E-12	676.901E-3	-9.33727E-3
-3.09905E-3	-166.189E-12	708.070E-3	-33.1050E-3	-171.869E-12	652.769E-3	7.84616E-3
-3.10405E-3	-166.344E-12	709.036E-3	-11.2820E-3	-171.411E-12	643.901E-3	9.01952E-3
-3.10905E-3	-168.209E-12	712.444E-3	-21.9858E-3	-170.539E-12	684.224E-3	-15.6204E-3
-3.11406E-3	-168.842E-12	703.893E-3	-16.5368E-3	-170.877E-12	710.495E-3	-30.5012E-3
-3.11906E-3	-169.090E-12	673.181E-3	-15.6119E-3	-171.060E-12	700.325E-3	-24.4463E-3
-3.12406E-3	-168.074E-12	661.126E-3	-39.8775E-3	-172.483E-12	700.314E-3	-1.93699E-3
-3.12906E-3	-169.746E-12	664.362E-3	-24.2412E-3	-171.451E-12	691.631E-3	11.6065E-3
-3.13407E-3	-169.639E-12	646.654E-3	-24.6845E-3	-170.328E-12	658.621E-3	-1.20172E-3
-3.13907E-3	-171.561E-12	645.385E-3	-64.0995E-3	-170.573E-12	638.809E-3	-3.22624E-3
-3.14407E-3	-169.725E-12	669.366E-3	-48.2530E-3	-170.668E-12	630.325E-3	285.976E-6
-3.14907E-3	-169.625E-12	670.932E-3	-14.5907E-3	-170.937E-12	622.632E-3	-18.8866E-3
-3.15408E-3	-169.433E-12	652.072E-3	-6.93340E-3	-169.981E-12	657.189E-3	-41.3099E-3
-3.15908E-3	-169.282E-12	651.083E-3	2.68392E-3	-170.695E-12	699.708E-3	-47.8329E-3
-3.16408E-3	-168.733E-12	657.604E-3	-20.9568E-3	-170.633E-12	679.995E-3	-28.9337E-3
-3.16908E-3	-169.685E-12	662.147E-3	-62.2512E-3	-170.628E-12	642.497E-3	-6.21878E-3
-3.17409E-3	-170.248E-12	663.501E-3	-56.9227E-3	-170.640E-12	633.723E-3	-26.0798E-3
-3.17909E-3	-168.799E-12	665.130E-3	-37.9348E-3	-170.158E-12	650.741E-3	-39.6946E-3
-3.18409E-3	-168.651E-12	672.030E-3	-28.5034E-3	-170.157E-12	676.866E-3	-2.25723E-3
-3.18909E-3	-170.610E-12	659.774E-3	-14.3587E-3	-170.744E-12	690.465E-3	4.84568E-3
-3.19410E-3	-171.846E-12	646.790E-3	13.2025E-3	-171.599E-12	683.995E-3	-24.8140E-3
-3.19910E-3	-172.082E-12	661.026E-3	20.0195E-3	-169.612E-12	651.972E-3	-33.6374E-3
-3.20410E-3	-171.000E-12	671.736E-3	-10.8967E-3	-170.149E-12	645.242E-3	-52.3751E-3
-3.20910E-3	-172.244E-12	666.882E-3	-13.2839E-3	-169.923E-12	690.989E-3	-75.2025E-3
-3.21411E-3	-172.639E-12	661.782E-3	-479.535E-6	-170.433E-12	706.766E-3	-49.7085E-3
-3.21911E-3	-173.572E-12	656.758E-3	-2.43442E-3	-170.553E-12	677.959E-3	-24.3982E-3
-3.22411E-3	-173.198E-12	645.138E-3	16.3212E-3	-171.348E-12	638.267E-3	-14.2671E-3
-3.22911E-3	-173.974E-12	641.449E-3	19.8180E-3	-173.227E-12	622.135E-3	4.46147E-3
-3.23412E-3	-174.873E-12	669.603E-3	-26.5368E-3	-171.960E-12	660.156E-3	-12.0786E-3
-3.23912E-3	-174.197E-12	689.940E-3	-53.2554E-3	-172.775E-12	694.165E-3	-31.6757E-3
-3.24412E-3	-172.850E-12	696.072E-3	-33.1743E-3	-173.468E-12	691.877E-3	-10.3683E-3
-3.24912E-3	-173.475E-12	717.967E-3	-5.68435E-3	-176.704E-12	681.379E-3	-10.8800E-3
-3.25413E-3	-174.833E-12	707.127E-3	2.28867E-3	-175.961E-12	679.868E-3	-41.9116E-3
-3.25913E-3	-175.711E-12	658.842E-3	-12.9772E-3	-174.990E-12	678.990E-3	-50.7585E-3
-3.26413E-3	-175.457E-12	631.941E-3	-23.1568E-3	-175.563E-12	689.916E-3	-34.0709E-3
-3.26913E-3	-175.088E-12	638.588E-3	-13.8941E-3	-176.290E-12	706.633E-3	-23.0600E-3
-3.27414E-3	-176.278E-12	663.997E-3	-8.96073E-3	-176.122E-12	713.344E-3	-19.3357E-3
-3.27914E-3	-177.637E-12	699.695E-3	-8.10434E-3	-176.057E-12	725.292E-3	-20.4271E-3
-3.28414E-3	-178.509E-12	715.338E-3	-15.2304E-3	-178.149E-12	725.957E-3	-29.6748E-3
-3.28914E-3	-177.407E-12	699.383E-3	-27.2072E-3	-177.047E-12	715.105E-3	-35.8115E-3
-3.29415E-3	-177.574E-12	696.788E-3	-9.26254E-3	-177.160E-12	711.037E-3	-27.7398E-3
-3.29915E-3	-178.972E-12	687.984E-3	12.1932E-3	-176.500E-12	696.265E-3	-6.53310E-3
-3.30415E-3	-180.293E-12	656.114E-3	10.8212E-3	-177.390E-12	689.080E-3	370.701E-6
-3.30915E-3	-179.178E-12	652.847E-3	2.15633E-3	-177.220E-12	707.839E-3	4.49155E-3
-3.31416E-3	-177.101E-12	671.602E-3	9.30825E-3	-177.802E-12	712.741E-3	14.3151E-3
-3.31916E-3	-177.608E-12	689.732E-3	6.98016E-3	-179.540E-12	690.524E-3	-4.03324E-3
-3.32416E-3	-178.852E-12	703.504E-3	-27.9168E-3	-180.237E-12	698.308E-3	-25.9138E-3
-3.32916E-3	-178.118E-12	692.309E-3	-33.7403E-3	-181.058E-12	724.173E-3	-34.4966E-3
-3.33417E-3	-176.383E-12	666.162E-3	-13.8837E-3	-180.730E-12	698.756E-3	-38.5059E-3
-3.33917E-3	-176.600E-12	661.628E-3	-32.4705E-3	-183.621E-12	685.603E-3	-13.3346E-3
-3.34417E-3	-178.469E-12	670.933E-3	-45.9904E-3	-183.008E-12	715.773E-3	-3.47765E-3
-3.34917E-3	-178.059E-12	655.570E-3	-22.0868E-3	-181.533E-12	720.903E-3	-25.1054E-3
-3.35418E-3	-176.821E-12	639.483E-3	-3.38316E-3	-181.311E-12	684.424E-3	-32.6919E-3
-3.35918E-3	-178.141E-12	647.342E-3	3.36373E-3	-182.901E-12	651.944E-3	-30.8432E-3
-3.36418E-3	-179.731E-12	642.711E-3	5.22535E-3	-181.226E-12	663.483E-3	-34.0399E-3
-3.36918E-3	-179.822E-12	631.679E-3	-3.03158E-3	-178.865E-12	693.473E-3	-36.7304E-3
-3.37419E-3	-180.272E-12	643.943E-3	-1.77772E-3	-178.680E-12	694.633E-3	-32.9006E-3
-3.37919E-3	-179.769E-12	651.925E-3	8.43252E-3	-178.494E-12	677.607E-3	-26.8432E-3
-3.38419E-3	-179.878E-12	650.430E-3	-24.0939E-3	-179.863E-12	674.025E-3	-23.2431E-3
-3.38919E-3	-180.388E-12	661.308E-3	-51.1671E-3	-179.208E-12	673.083E-3	-21.4689E-3
-3.39420E-3	-180.489E-12	660.066E-3	-21.4448E-3	-178.294E-12	667.858E-3	-12.7370E-3
-3.39920E-3	-180.446E-12	626.906E-3	11.2446E-3	-178.407E-12	652.542E-3	-4.87822E-3
-3.40420E-3	-180.102E-12	611.763E-3	26.7618E-3	-179.534E-12	649.298E-3	-21.2300E-3
-3.40920E-3	-180.392E-12	632.671E-3	29.4026E-3	-181.356E-12	662.875E-3	-52.8299E-3
-3.41421E-3	-178.895E-12	653.655E-3	12.5998E-3	-179.821E-12	668.157E-3	-57.2593E-3
-3.41921E-3	-178.397E-12	676.350E-3	-1.67442E-3	-180.049E-12	675.824E-3	-33.4991E-3
-3.42421E-3	-177.797E-12	675.037E-3	-6.85999E-3	-181.124E-12	675.226E-3	-18.7861E-3
-3.42921E-3	-179.157E-12	653.158E-3	-13.1657E-3	-183.756E-12	666.490E-3	-11.2359E-3
-3.43422E-3	-178.723E-12	659.934E-3	-3.79192E-3	-182.267E-12	673.267E-3	-5.21996E-3
-3.43922E-3	-179.808E-12	669.295E-3	18.9736E-3	-181.094E-12	680.488E-3	-14.5968E-3
-3.44422E-3	-179.326E-12	647.892E-3	19.3545E-3	-181.283E-12	656.917E-3	-13.7226E-3
-3.44922E-3	-179.442E-12	640.703E-3	5.97073E-3	-181.584E-12	635.976E-3	-4.69937E-3
-3.45423E-3	-182.148E-12	649.378E-3	10.2919E-3	-181.202E-12	631.416E-3	-1.64188E-3
-3.45923E-3	-182.197E-12	629.993E-3	15.2878E-3	-181.565E-12	624.281E-3	-13.0305E-3
-3.46423E-3	-182.808E-12	633.197E-3	24.7995E-3	-180.922E-12	635.534E-3	-34.0968E-3
-3.46923E-3	-182.840E-12	661.819E-3	33.1629E-3	-181.179E-12	655.976E-3	-12.1960E-3
-3.47424E-3	-184.497E-12	663.806E-3	17.2265E-3	-181.645E-12	656.544E-3	7.15281E-3
-3.47924E-3	-184.326E-12	679.673E-3	-14.3514E-3	-183.096E-12	641.861E-3	-23.3095E-3
-3.48424E-3	-183.723E-12	710.849E-3	-14.6665E-3	-182.047E-12	655.308E-3	-35.4156E-3
-3.48924E-3	-182.710E-12	709.099E-3	17.7886E-3	-181.826E-12	673.602E-3	-17.5594E-3
-3.49425E-3	-183.302E-12	703.715E-3	7.95319E-3	-182.610E-12	675.663E-3	5.70334E-3
-3.49925E-3	-184.314E-12	703.256E-3	-15.4933E-3	-184.148E-12	679.934E-3	23.9531E-3
-3.50425E-3	-183.965E-12	675.214E-3	-13.0486E-3	-184.559E-12	678.530E-3	14.2878E-3
-3.50925E-3	-182.534E-12	645.692E-3	-37.1288E-3	-184.519E-12	678.832E-3	-8.09443E-3
-3.51426E-3	-181.681E-12	639.801E-3	-42.4224E-3	-186.162E-12	671.394E-3	-15.5433E-3
-3.51926E-3	-183.579E-12	628.892E-3	11.9367E-3	-188.379E-12	650.463E-3	-9.51382E-3
-3.52426E-3	-183.456E-12	620.976E-3	28.3912E-3	-188.409E-12	628.653E-3	-1.96118E-3
-3.52926E-3	-182.982E-12	639.220E-3	-1.63255E-3	-187.015E-12	634.804E-3	-1.37750E-3
-3.53427E-3	-183.695E-12	643.498E-3	3.23628E-3	-187.117E-12	660.571E-3	-6.28108E-3
-3.53927E-3	-184.894E-12	622.578E-3	25.2042E-3	-187.036E-12	652.458E-3	-13.3851E-3
-3.54427E-3	-187.391E-12	627.804E-3	22.5800E-3	-187.703E-12	622.747E-3	-26.2774E-3
-3.54927E-3	-186.890E-12	646.956E-3	16.9172E-3	-187.697E-12	612.891E-3	-32.1545E-3
-3.55428E-3	-189.535E-12	652.584E-3	2.87350E-3	-188.275E-12	625.471E-3	-17.9055E-3
-3.55928E-3	-191.440E-12	674.613E-3	-29.2586E-3	-186.915E-12	650.055E-3	-15.5563E-3
-3.56428E-3	-191.979E-12	700.922E-3	-36.2043E-3	-187.018E-12	649.858E-3	-28.1261E-3
-3.56928E-3	-191.261E-12	700.106E-3	-33.7003E-3	-187.215E-12	638.492E-3	-20.4594E-3
-3.57429E-3	-191.669E-12	703.411E-3	-45.5106E-3	-188.855E-12	647.296E-3	-10.5888E-3
-3.57929E-3	-192.395E-12	717.362E-3	-23.9451E-3	-188.364E-12	653.547E-3	-1.08710E-3
-3.58429E-3	-192.545E-12	690.000E-3	7.57055E-3	-186.567E-12	663.563E-3	24.7262E-3
-3.58929E-3	-192.514E-12	662.127E-3	-6.51705E-3	-187.278E-12	663.102E-3	21.1329E-3
-3.59430E-3	-192.310E-12	678.496E-3	-8.66138E-3	-188.906E-12	646.155E-3	-1.17332E-3
-3.59930E-3	-191.262E-12	691.077E-3	27.9343E-3	-190.990E-12	655.825E-3	-237.854E-6
-3.60430E-3	-189.822E-12	690.858E-3	48.3445E-3	-190.170E-12	678.455E-3	-3.62826E-3
-3.60930E-3	-189.811E-12	685.099E-3	43.5161E-3	-189.331E-12	700.291E-3	-14.2947E-3
-3.61431E-3	-191.817E-12	678.050E-3	20.3612E-3	-190.572E-12	714.483E-3	-6.71905E-3
-3.61931E-3	-190.070E-12	695.015E-3	-12.7774E-3	-192.249E-12	721.173E-3	5.55385E-3
-3.62431E-3	-189.685E-12	709.258E-3	-36.7168E-3	-192.143E-12	738.481E-3	-1.59296E-3
-3.62931E-3	-191.138E-12	685.080E-3	-54.3344E-3	-190.752E-12	713.923E-3	-11.6099E-3
-3.63432E-3	-194.029E-12	673.191E-3	-54.0524E-3	-190.998E-12	645.180E-3	-10.9493E-3
-3.63932E-3	-192.366E-12	692.155E-3	-43.5328E-3	-192.554E-12	622.384E-3	-14.5721E-3
-3.64432E-3	-190.991E-12	693.549E-3	-49.3970E-3	-193.406E-12	649.009E-3	622.278E-6
-3.64932E-3	-191.756E-12	685.717E-3	-50.8263E-3	-193.538E-12	663.737E-3	23.5771E-3
-3.65433E-3	-193.882E-12	700.762E-3	-30.9742E-3	-194.157E-12	659.822E-3	29.4532E-3
-3.65933E-3	-193.530E-12	694.174E-3	-3.46911E-3	-195.427E-12	657.385E-3	43.3840E-3
-3.66433E-3	-191.144E-12	671.915E-3	-3.15390E-3	-196.859E-12	684.118E-3	53.3247E-3
-3.66933E-3	-193.619E-12	689.171E-3	-22.9310E-3	-196.036E-12	706.030E-3	64.8148E-3
-3.67434E-3	-194.212E-12	697.670E-3	-12.0489E-3	-195.687E-12	703.484E-3	81.6395E-3
-3.67934E-3	-193.843E-12	678.908E-3	-11.2669E-3	-196.436E-12	702.920E-3	50.6337E-3
-3.68434E-3	-191.452E-12	684.761E-3	-41.8483E-3	-198.435E-12	698.824E-3	-4.82297E-3
-3.68934E-3	-193.418E-12	705.898E-3	-34.4780E-3	-198.020E-12	721.342E-3	-25.0319E-3
-3.69435E-3	-195.528E-12	708.702E-3	-5.19653E-3	-196.833E-12	737.891E-3	-23.5668E-3
-3.69935E-3	-194.726E-12	707.506E-3	-948.163E-6	-198.087E-12	705.611E-3	-9.82043E-3
-3.70435E-3	-194.124E-12	693.307E-3	11.1662E-3	-199.457E-12	675.491E-3	-7.73773E-3
-3.70935E-3	-193.617E-12	651.667E-3	33.4087E-3	-198.080E-12	661.577E-3	-7.90765E-3
-3.71436E-3	-196.027E-12	641.050E-3	27.2466E-3	-197.519E-12	678.265E-3	7.87567E-3
-3.71936E-3	-196.575E-12	685.424E-3	-1.32817E-3	-196.303E-12	701.646E-3	-533.901E-6
-3.72436E-3	-197.023E-12	711.452E-3	-42.7830E-3	-196.732E-12	697.558E-3	-17.0787E-3
-3.72936E-3	-194.797E-12	688.302E-3	-57.8211E-3	-197.842E-12	691.877E-3	-13.3812E-3
-3.73437E-3	-195.816E-12	651.990E-3	-26.5057E-3	-198.154E-12	673.145E-3	-12.8608E-3
-3.73937E-3	-195.988E-12	639.570E-3	-6.60489E-3	-198.281E-12	663.193E-3	-11.2916E-3
-3.74437E-3	-195.739E-12	664.961E-3	-2.66460E-3	-197.562E-12	678.999E-3	-4.13576E-3
-3.74937E-3	-194.048E-12	679.374E-3	-5.12897E-3	-199.134E-12	675.895E-3	-6.98543E-3
-3.75438E-3	-194.279E-12	675.186E-3	-14.6184E-3	-200.057E-12	683.033E-3	-2.88947E-3
-3.75938E-3	-195.252E-12	686.753E-3	-11.2892E-3	-198.636E-12	718.960E-3	-17.7995E-3
-3.76438E-3	-195.430E-12	683.420E-3	-8.23080E-3	-198.147E-12	734.837E-3	-29.6597E-3
-3.76938E-3	-195.581E-12	649.280E-3	-8.68418E-3	-200.477E-12	728.227E-3	-10.3558E-3
-3.77439E-3	-194.909E-12	646.189E-3	-8.41145E-3	-200.453E-12	712.108E-3	-29.6685E-3
-3.77939E-3	-198.227E-12	675.903E-3	-3.24505E-3	-199.177E-12	684.573E-3	-52.1018E-3
-3.78439E-3	-200.150E-12	672.575E-3	-10.6324E-3	-197.619E-12	670.246E-3	-29.7990E-3
-3.78939E-3	-198.960E-12	667.589E-3	-39.2447E-3	-198.934E-12	674.773E-3	-31.6688E-3
-3.79440E-3	-198.167E-12	704.656E-3	-32.5737E-3	-199.226E-12	661.993E-3	-41.5465E-3
-3.79940E-3	-199.413E-12	710.397E-3	-14.0877E-3	-198.856E-12	652.215E-3	-14.7077E-3
-3.80440E-3	-203.219E-12	675.713E-3	-26.5157E-3	-199.526E-12	653.736E-3	12.3527E-3
-3.80940E-3	-202.579E-12	673.238E-3	-42.6522E-3	-198.546E-12	648.711E-3	3.33562E-3
-3.81441E-3	-201.358E-12	693.661E-3	-49.6146E-3	-196.431E-12	662.957E-3	-32.7619E-3
-3.81941E-3	-200.944E-12	697.019E-3	-51.6731E-3	-195.137E-12	691.501E-3	-57.5624E-3
-3.82441E-3	-203.984E-12	691.183E-3	-28.2829E-3	-197.313E-12	680.054E-3	-40.5236E-3
-3.82941E-3	-204.684E-12	697.795E-3	11.6448E-3	-198.489E-12	653.179E-3	3.94761E-3
-3.83442E-3	-201.016E-12	700.697E-3	834.124E-6	-198.522E-12	665.205E-3	25.4477E-3
-3.83942E-3	-199.824E-12	674.644E-3	-36.8327E-3	-198.704E-12	684.141E-3	23.1469E-3
-3.84442E-3	-199.120E-12	641.365E-3	-43.0975E-3	-202.204E-12	681.865E-3	35.7485E-3
-3.84942E-3	-201.076E-12	647.309E-3	-45.8854E-3	-203.411E-12	667.861E-3	32.2714E-3
-3.85443E-3	-199.729E-12	677.736E-3	-34.8056E-3	-201.692E-12	687.016E-3	6.29876E-3
-3.85943E-3	-198.572E-12	680.117E-3	-752.224E-6	-201.420E-12	721.999E-3	848.973E-6
-3.86443E-3	-198.315E-12	671.688E-3	-9.66868E-3	-204.130E-12	712.917E-3	20.5134E-3
-3.86943E-3	-201.044E-12	668.843E-3	-22.8072E-3	-204.563E-12	690.262E-3	44.0274E-3
-3.87444E-3	-201.698E-12	656.611E-3	552.029E-6	-203.434E-12	673.112E-3	35.6878E-3
-3.87944E-3	-201.240E-12	648.275E-3	2.99035E-3	-201.641E-12	670.973E-3	-1.23157E-3
-3.88444E-3	-201.402E-12	649.642E-3	-10.5036E-3	-201.776E-12	685.980E-3	-41.7264E-3
-3.88944E-3	-203.006E-12	653.751E-3	-116.699E-6	-202.248E-12	690.666E-3	-48.5766E-3
-3.89445E-3	-204.090E-12	639.738E-3	6.01315E-3	-201.745E-12	692.249E-3	-213.361E-6
-3.89945E-3	-204.510E-12	640.949E-3	-3.83969E-3	-200.832E-12	700.687E-3	24.7975E-3
-3.90445E-3	-205.523E-12	679.361E-3	13.2362E-3	-201.066E-12	667.534E-3	239.363E-6
-3.90945E-3	-205.916E-12	702.769E-3	47.5721E-3	-201.595E-12	628.659E-3	-25.2904E-3
-3.91446E-3	-205.801E-12	712.862E-3	43.7750E-3	-201.874E-12	654.810E-3	-38.3316E-3
-3.91946E-3	-205.980E-12	694.829E-3	26.5472E-3	-203.542E-12	674.516E-3	-18.5905E-3
-3.92446E-3	-205.635E-12	653.512E-3	28.7864E-3	-203.900E-12	658.416E-3	8.60990E-3
-3.92946E-3	-206.100E-12	653.629E-3	20.1423E-3	-204.920E-12	649.480E-3	-7.26096E-3
-3.93447E-3	-204.578E-12	655.358E-3	2.60778E-3	-205.876E-12	654.446E-3	-26.2070E-3
-3.93947E-3	-205.467E-12	630.314E-3	-8.77356E-3	-208.529E-12	660.689E-3	-16.1817E-3
-3.94447E-3	-204.493E-12	646.759E-3	-14.6241E-3	-209.254E-12	656.416E-3	-2.58082E-3
-3.94947E-3	-205.108E-12	681.973E-3	-9.48641E-3	-208.489E-12	651.739E-3	21.9466E-3
-3.95448E-3	-204.238E-12	670.538E-3	-8.96759E-3	-209.061E-12	639.769E-3	33.1436E-3
-3.95948E-3	-203.113E-12	653.320E-3	-16.7042E-3	-210.569E-12	641.670E-3	3.48295E-3
-3.96448E-3	-204.081E-12	675.519E-3	-10.3374E-3	-211.473E-12	656.621E-3	-27.4314E-3
-3.96948E-3	-206.709E-12	674.242E-3	-4.86237E-3	-208.956E-12	637.809E-3	-24.5821E-3
-3.97449E-3	-206.770E-12	633.651E-3	-17.6825E-3	-208.144E-12	622.681E-3	-9.11297E-3
-3.97949E-3	-207.122E-12	628.163E-3	-26.9799E-3	-207.921E-12	630.901E-3	-9.09395E-3
-3.98449E-3	-207.060E-12	654.064E-3	-3.14977E-3	-208.662E-12	638.454E-3	5.77994E-3
-3.98949E-3	-208.660E-12	649.979E-3	1.59490E-3	-207.761E-12	664.237E-3	4.62457E-3
-3.99450E-3	-210.585E-12	638.965E-3	-27.4301E-3	-207.475E-12	695.647E-3	-38.6300E-3
-3.99950E-3	-210.684E-12	650.970E-3	-32.2675E-3	-208.349E-12	706.428E-3	-54.6999E-3
-4.00450E-3	-209.605E-12	674.539E-3	-37.2504E-3	-208.741E-12	714.433E-3	-32.1771E-3
-4.00950E-3	-209.786E-12	704.352E-3	-40.4434E-3	-209.249E-12	699.019E-3	-22.3243E-3
-4.01451E-3	-212.043E-12	680.425E-3	-2.64893E-3	-209.540E-12	656.630E-3	-39.8285E-3
-4.01951E-3	-212.609E-12	624.344E-3	3.91875E-3	-209.360E-12	661.441E-3	-52.4313E-3
-4.02451E-3	-210.431E-12	628.869E-3	-37.3208E-3	-208.853E-12	680.126E-3	-43.9020E-3
-4.02951E-3	-210.007E-12	668.115E-3	-52.7911E-3	-209.877E-12	658.872E-3	-42.1595E-3
-4.03452E-3	-210.125E-12	680.377E-3	-45.6889E-3	-210.006E-12	631.083E-3	-56.2742E-3
-4.03952E-3	-210.840E-12	682.479E-3	-40.4965E-3	-208.860E-12	621.185E-3	-55.8797E-3
-4.04452E-3	-209.827E-12	669.887E-3	-5.42004E-3	-209.036E-12	646.704E-3	-37.3031E-3
-4.04952E-3	-209.885E-12	647.386E-3	22.1989E-3	-208.997E-12	686.288E-3	-32.6117E-3
-4.05453E-3	-210.835E-12	641.388E-3	-10.0238E-3	-210.731E-12	679.753E-3	-29.9588E-3
-4.05953E-3	-211.189E-12	644.444E-3	-4.32461E-3	-208.942E-12	638.358E-3	-22.2276E-3
-4.06453E-3	-210.490E-12	665.723E-3	8.51300E-3	-209.604E-12	642.776E-3	-34.6907E-3
-4.06953E-3	-209.393E-12	693.746E-3	-24.3601E-3	-209.507E-12	681.928E-3	-41.4918E-3
-4.07454E-3	-210.948E-12	687.857E-3	-39.5750E-3	-210.183E-12	681.609E-3	-12.3805E-3
-4.07954E-3	-211.328E-12	643.629E-3	-34.0210E-3	-210.671E-12	654.899E-3	25.8331E-3
-4.08454E-3	-212.175E-12	645.713E-3	-12.9057E-3	-210.214E-12	635.945E-3	18.6981E-3
-4.08954E-3	-211.052E-12	670.510E-3	15.5144E-3	-210.990E-12	636.295E-3	-18.4584E-3
-4.09455E-3	-211.767E-12	652.431E-3	37.3969E-3	-211.049E-12	659.394E-3	-30.2414E-3
-4.09955E-3	-213.244E-12	669.727E-3	44.8872E-3	-212.260E-12	668.545E-3	-40.6605E-3
-4.10455E-3	-213.934E-12	704.899E-3	53.3270E-3	-211.788E-12	636.570E-3	-40.6864E-3
-4.10955E-3	-213.166E-12	693.956E-3	44.5509E-3	-212.956E-12	591.461E-3	-1.88077E-3
-4.11456E-3	-211.317E-12	687.566E-3	-7.48696E-3	-213.805E-12	591.853E-3	13.1789E-3
-4.11956E-3	-212.618E-12	694.669E-3	-43.2091E-3	-216.069E-12	657.942E-3	3.66197E-3
-4.12456E-3	-213.841E-12	676.491E-3	-33.5490E-3	-215.322E-12	716.538E-3	3.70011E-3
-4.12956E-3	-214.558E-12	650.233E-3	-36.5582E-3	-214.449E-12	695.698E-3	8.20305E-3
-4.13457E-3	-213.019E-12	659.511E-3	-38.4344E-3	-215.944E-12	639.880E-3	-3.00996E-3
-4.13957E-3	-214.847E-12	657.909E-3	-10.8075E-3	-215.916E-12	624.861E-3	-1.72364E-3
-4.14457E-3	-216.040E-12	628.481E-3	8.19312E-3	-213.313E-12	644.256E-3	33.6474E-3
-4.14957E-3	-216.385E-12	644.270E-3	22.2997E-3	-212.767E-12	671.268E-3	22.5640E-3
-4.15458E-3	-217.058E-12	664.970E-3	43.6846E-3	-214.597E-12	686.734E-3	-38.1089E-3
-4.15958E-3	-215.127E-12	640.113E-3	38.0721E-3	-215.156E-12	692.355E-3	-64.8974E-3
-4.16458E-3	-216.303E-12	632.995E-3	6.46472E-3	-214.431E-12	688.874E-3	-35.1823E-3
-4.16958E-3	-216.953E-12	637.933E-3	5.39246E-3	-215.208E-12	654.919E-3	15.8725E-3
-4.17459E-3	-217.641E-12	656.003E-3	13.1281E-3	-215.744E-12	646.999E-3	31.5328E-3
-4.17959E-3	-215.441E-12	702.053E-3	-23.7426E-3	-217.397E-12	674.098E-3	24.4130E-3
-4.18459E-3	-213.519E-12	689.372E-3	-52.6741E-3	-216.612E-12	690.204E-3	7.24714E-3
-4.18959E-3	-213.534E-12	629.279E-3	-47.8997E-3	-217.642E-12	706.651E-3	-41.7610E-3
-4.19460E-3	-214.773E-12	624.522E-3	-39.5945E-3	-217.392E-12	691.361E-3	-59.6368E-3
-4.19960E-3	-216.424E-12	648.408E-3	-11.7631E-3	-217.442E-12	634.173E-3	-30.3113E-3
-4.20460E-3	-212.593E-12	646.259E-3	8.14385E-3	-218.366E-12	614.384E-3	-6.06083E-3
-4.20960E-3	-214.083E-12	664.894E-3	-7.10541E-3	-218.210E-12	640.254E-3	-7.63392E-3
-4.21461E-3	-215.270E-12	686.168E-3	-29.3107E-3	-217.452E-12	673.210E-3	-14.2443E-3
-4.21961E-3	-218.731E-12	662.776E-3	-46.2331E-3	-216.444E-12	698.061E-3	-847.647E-6
-4.22461E-3	-217.521E-12	660.660E-3	-38.0693E-3	-217.800E-12	700.911E-3	22.2843E-3
-4.22961E-3	-216.839E-12	689.965E-3	-5.14697E-3	-218.145E-12	696.977E-3	41.7270E-3
-4.23462E-3	-219.426E-12	702.733E-3	25.1163E-3	-216.293E-12	706.647E-3	40.1791E-3
-4.23962E-3	-219.289E-12	681.126E-3	13.4514E-3	-214.708E-12	706.088E-3	21.4544E-3
-4.24462E-3	-221.471E-12	645.007E-3	-9.73650E-3	-216.772E-12	706.838E-3	9.17875E-3
-4.24962E-3	-219.710E-12	645.404E-3	1.23030E-3	-218.817E-12	718.343E-3	-1.62454E-3
-4.25463E-3	-223.137E-12	680.189E-3	26.2248E-3	-219.861E-12	701.040E-3	-16.8947E-3
-4.25963E-3	-219.751E-12	705.749E-3	40.1559E-3	-219.509E-12	664.694E-3	-17.7206E-3
-4.26463E-3	-218.766E-12	675.268E-3	16.6553E-3	-219.699E-12	661.842E-3	812.545E-6
-4.26963E-3	-219.765E-12	637.377E-3	-28.5524E-3	-219.894E-12	680.815E-3	9.27803E-3
-4.27464E-3	-220.806E-12	660.133E-3	-46.7250E-3	-222.210E-12	672.528E-3	-2.68163E-3
-4.27964E-3	-219.079E-12	674.992E-3	-21.7234E-3	-223.024E-12	652.908E-3	-23.5771E-3
-4.28464E-3	-216.630E-12	668.064E-3	1.37754E-3	-223.557E-12	638.825E-3	-60.5569E-3
-4.28964E-3	-216.622E-12	677.707E-3	-13.9054E-3	-224.063E-12	633.639E-3	-77.0186E-3
-4.29465E-3	-218.043E-12	645.317E-3	-39.8865E-3	-223.826E-12	661.857E-3	-68.9528E-3
-4.29965E-3	-219.012E-12	620.674E-3	-43.0642E-3	-223.439E-12	704.328E-3	-78.7119E-3
-4.30465E-3	-218.360E-12	663.432E-3	-13.8667E-3	-223.321E-12	709.966E-3	-62.4178E-3
-4.30965E-3	-218.735E-12	692.174E-3	-399.475E-6	-222.704E-12	685.641E-3	-5.11065E-3
-4.31466E-3	-221.379E-12	668.120E-3	-32.0736E-3	-221.310E-12	687.259E-3	36.1581E-3
-4.31966E-3	-223.288E-12	629.666E-3	-57.7877E-3	-220.276E-12	683.554E-3	31.8307E-3
-4.32466E-3	-224.772E-12	591.199E-3	-47.2597E-3	-221.876E-12	653.890E-3	13.0537E-3
-4.32966E-3	-223.510E-12	589.441E-3	-12.4778E-3	-222.345E-12	639.160E-3	21.7040E-3
-4.33467E-3	-224.072E-12	674.697E-3	15.7872E-3	-222.068E-12	622.476E-3	19.5399E-3
-4.33967E-3	-225.591E-12	731.362E-3	14.9912E-3	-221.308E-12	606.394E-3	-7.97053E-3
-4.34467E-3	-228.812E-12	686.537E-3	15.1609E-3	-222.350E-12	642.321E-3	3.31643E-3
-4.34967E-3	-226.607E-12	642.769E-3	36.4071E-3	-223.558E-12	685.632E-3	29.5074E-3
-4.35468E-3	-224.747E-12	633.109E-3	38.5028E-3	-223.004E-12	665.501E-3	28.8771E-3
-4.35968E-3	-223.904E-12	639.710E-3	-10.3263E-3	-223.800E-12	655.142E-3	17.6598E-3
-4.36468E-3	-226.486E-12	653.318E-3	-54.9605E-3	-226.927E-12	673.045E-3	-1.27080E-3
-4.36968E-3	-226.227E-12	657.296E-3	-51.5493E-3	-228.431E-12	644.720E-3	-26.2132E-3
-4.37469E-3	-223.334E-12	653.548E-3	-28.6075E-3	-227.468E-12	637.360E-3	-28.3589E-3
-4.37969E-3	-222.224E-12	659.870E-3	-30.7945E-3	-228.104E-12	686.216E-3	3.13680E-3
-4.38469E-3	-223.825E-12	662.439E-3	-60.2062E-3	-228.648E-12	716.716E-3	-7.46777E-3
-4.38969E-3	-226.741E-12	635.485E-3	-80.1505E-3	-229.858E-12	695.802E-3	-51.5419E-3
-4.39470E-3	-223.264E-12	627.294E-3	-66.3740E-3	-229.309E-12	673.117E-3	-51.4702E-3
-4.39970E-3	-222.820E-12	655.037E-3	-30.7339E-3	-226.962E-12	663.431E-3	-17.8336E-3
-4.40470E-3	-225.011E-12	655.210E-3	-17.7607E-3	-225.652E-12	653.525E-3	8.29760E-3
-4.40970E-3	-227.842E-12	651.336E-3	-37.2312E-3	-226.639E-12	656.519E-3	226.623E-6
-4.41471E-3	-228.153E-12	679.644E-3	-36.7860E-3	-225.845E-12	651.510E-3	-11.9384E-3
-4.41971E-3	-228.149E-12	689.594E-3	-38.0898E-3	-224.261E-12	664.156E-3	15.7016E-3
-4.42471E-3	-229.339E-12	663.850E-3	-40.7501E-3	-223.446E-12	670.238E-3	54.5228E-3
-4.42971E-3	-230.136E-12	643.567E-3	-6.81165E-3	-224.726E-12	639.792E-3	36.0049E-3
-4.43472E-3	-229.623E-12	641.142E-3	-13.7804E-3	-225.186E-12	618.289E-3	-17.2251E-3
-4.43972E-3	-230.070E-12	643.351E-3	-53.4410E-3	-226.136E-12	627.432E-3	-52.1591E-3
-4.44472E-3	-230.979E-12	675.615E-3	-52.7162E-3	-225.218E-12	656.210E-3	-53.8980E-3
-4.44972E-3	-230.855E-12	708.869E-3	-56.0498E-3	-226.185E-12	661.237E-3	5.26513E-3
-4.45473E-3	-229.010E-12	713.792E-3	-55.1304E-3	-226.726E-12	645.510E-3	59.3921E-3
-4.45973E-3	-228.716E-12	715.141E-3	-15.9838E-3	-229.774E-12	624.637E-3	37.5351E-3
-4.46473E-3	-228.546E-12	699.449E-3	23.6565E-3	-229.951E-12	626.355E-3	5.62837E-3
-4.46973E-3	-228.650E-12	672.877E-3	7.48260E-3	-229.977E-12	666.691E-3	-1.76541E-3
-4.47474E-3	-228.909E-12	652.975E-3	-35.7819E-3	-230.267E-12	665.617E-3	-21.1053E-3
-4.47974E-3	-226.964E-12	626.731E-3	-35.2232E-3	-232.913E-12	631.082E-3	-45.9713E-3
-4.48474E-3	-226.720E-12	601.830E-3	-33.9505E-3	-233.522E-12	634.334E-3	-50.7993E-3
-4.48974E-3	-226.397E-12	616.088E-3	-28.6122E-3	-231.257E-12	659.067E-3	-18.4750E-3
-4.49475E-3	-228.135E-12	641.200E-3	-11.0199E-3	-229.573E-12	657.939E-3	25.5689E-3
-4.49975E-3	-228.008E-12	645.582E-3	-26.4867E-3	-230.118E-12	636.223E-3	8.26439E-3
-4.50475E-3	-228.776E-12	644.791E-3	-49.7865E-3	-232.447E-12	639.770E-3	-61.0141E-3
-4.50975E-3	-229.820E-12	626.558E-3	-45.9968E-3	-230.780E-12	656.422E-3	-66.9773E-3
-4.51476E-3	-229.521E-12	623.354E-3	-15.5179E-3	-228.436E-12	652.494E-3	6.65354E-3
-4.51976E-3	-229.455E-12	636.865E-3	6.28202E-3	-232.525E-12	655.324E-3	47.1154E-3
-4.52476E-3	-230.361E-12	617.086E-3	-4.65922E-3	-235.369E-12	663.290E-3	26.7598E-3
-4.52976E-3	-232.196E-12	616.765E-3	-34.4006E-3	-233.108E-12	652.745E-3	-3.24650E-3
-4.53477E-3	-230.503E-12	647.664E-3	-50.8686E-3	-231.151E-12	624.748E-3	-8.74520E-3
-4.53977E-3	-230.483E-12	659.598E-3	-57.5751E-3	-234.477E-12	628.958E-3	2.32256E-3
-4.54477E-3	-230.988E-12	667.430E-3	-63.5735E-3	-235.351E-12	701.526E-3	2.05089E-3
-4.54977E-3	-232.276E-12	682.516E-3	-43.2682E-3	-233.549E-12	762.496E-3	-26.1838E-3
-4.55478E-3	-232.096E-12	695.972E-3	-29.0244E-3	-233.557E-12	759.563E-3	-34.2693E-3
-4.55978E-3	-233.329E-12	673.122E-3	-15.3770E-3	-234.485E-12	719.889E-3	6.98412E-3
-4.56478E-3	-233.142E-12	631.799E-3	-5.86123E-3	-235.469E-12	681.762E-3	19.1781E-3
-4.56978E-3	-232.931E-12	635.938E-3	-24.0411E-3	-236.037E-12	690.290E-3	-8.00357E-3
-4.57479E-3	-234.078E-12	657.455E-3	-36.9056E-3	-237.470E-12	708.370E-3	-27.6734E-3
-4.57979E-3	-233.933E-12	668.656E-3	-55.7762E-3	-237.115E-12	682.841E-3	-7.43724E-3
-4.58479E-3	-233.043E-12	681.128E-3	-39.5504E-3	-237.772E-12	651.907E-3	50.0825E-3
-4.58979E-3	-232.715E-12	662.970E-3	-3.72130E-3	-238.702E-12	664.740E-3	82.9926E-3
-4.59480E-3	-234.009E-12	636.515E-3	-25.4454E-3	-238.923E-12	722.183E-3	59.3506E-3
-4.59980E-3	-234.238E-12	641.324E-3	-35.9308E-3	-237.161E-12	763.428E-3	435.285E-6
-4.60480E-3	-233.753E-12	644.965E-3	-9.90731E-3	-236.546E-12	734.896E-3	-39.5209E-3
-4.60980E-3	-233.100E-12	648.485E-3	22.0598E-3	-237.814E-12	671.707E-3	-12.1246E-3
-4.61481E-3	-232.475E-12	668.289E-3	58.6746E-3	-240.084E-12	649.942E-3	19.5079E-3
-4.61981E-3	-232.737E-12	687.352E-3	37.5511E-3	-240.125E-12	649.165E-3	-14.7104E-3
-4.62481E-3	-232.049E-12	687.843E-3	-20.3034E-3	-237.419E-12	656.077E-3	-32.0754E-3
-4.62981E-3	-233.530E-12	673.125E-3	-25.5974E-3	-237.553E-12	705.546E-3	571.386E-6
-4.63482E-3	-233.347E-12	681.819E-3	6.89667E-3	-239.783E-12	733.297E-3	17.4853E-3
-4.63982E-3	-233.865E-12	710.466E-3	8.30528E-3	-238.626E-12	704.808E-3	-5.73221E-3
-4.64482E-3	-235.187E-12	720.782E-3	-12.0576E-3	-235.923E-12	661.644E-3	-46.8295E-3
-4.64982E-3	-237.765E-12	711.127E-3	-17.5795E-3	-233.771E-12	648.726E-3	-64.4971E-3
-4.65483E-3	-239.023E-12	680.781E-3	-24.5210E-3	-236.043E-12	676.904E-3	-35.2572E-3
-4.65983E-3	-239.001E-12	678.526E-3	-42.7048E-3	-235.938E-12	690.630E-3	-8.15098E-3
-4.66483E-3	-239.027E-12	697.998E-3	-55.2778E-3	-233.265E-12	681.909E-3	-29.2344E-3
-4.66983E-3	-239.544E-12	687.648E-3	-42.7396E-3	-233.335E-12	671.545E-3	-28.5396E-3
-4.67484E-3	-241.791E-12	696.553E-3	-22.9079E-3	-234.655E-12	662.036E-3	-1.24125E-3
-4.67984E-3	-242.011E-12	705.468E-3	-11.7420E-3	-237.139E-12	666.985E-3	4.21501E-3
-4.68484E-3	-239.143E-12	682.569E-3	11.5851E-3	-234.159E-12	659.821E-3	-9.32156E-3
-4.68984E-3	-237.898E-12	672.096E-3	43.5029E-3	-234.807E-12	628.459E-3	-38.6106E-3
-4.69485E-3	-238.392E-12	666.748E-3	45.4878E-3	-238.450E-12	624.294E-3	-59.4696E-3
-4.69985E-3	-240.057E-12	675.808E-3	25.9336E-3	-241.154E-12	656.922E-3	-71.1872E-3
-4.70485E-3	-237.895E-12	704.792E-3	38.7759E-3	-240.823E-12	687.099E-3	-67.9162E-3
-4.70985E-3	-236.305E-12	699.950E-3	46.0109E-3	-240.589E-12	711.459E-3	-54.2374E-3
-4.71486E-3	-236.886E-12	678.235E-3	17.5739E-3	-240.807E-12	732.993E-3	-39.8640E-3
-4.71986E-3	-238.441E-12	663.518E-3	-11.9099E-3	-241.850E-12	717.988E-3	-12.5756E-3
-4.72486E-3	-237.482E-12	665.961E-3	-30.4849E-3	-240.684E-12	678.989E-3	-4.23008E-3
-4.72986E-3	-237.265E-12	671.920E-3	-30.3228E-3	-240.577E-12	675.346E-3	-20.8131E-3
-4.73487E-3	-238.192E-12	675.117E-3	-50.6236E-3	-241.014E-12	676.555E-3	-17.3355E-3
-4.73987E-3	-239.859E-12	688.704E-3	-64.6061E-3	-238.281E-12	634.296E-3	-9.73610E-3
-4.74487E-3	-243.179E-12	697.859E-3	-11.8611E-3	-236.381E-12	623.248E-3	-26.8289E-3
-4.74988E-3	-244.050E-12	709.955E-3	31.1936E-3	-237.380E-12	659.600E-3	-33.1416E-3
-4.75488E-3	-243.686E-12	715.805E-3	31.9223E-3	-238.061E-12	657.000E-3	-8.34913E-3
-4.75988E-3	-244.315E-12	689.582E-3	22.4589E-3	-236.566E-12	634.272E-3	3.64083E-3
-4.76488E-3	-246.617E-12	682.302E-3	-3.55449E-3	-236.464E-12	639.361E-3	-11.0948E-3
-4.76988E-3	-247.590E-12	701.779E-3	-4.32084E-3	-237.426E-12	645.689E-3	-22.0653E-3
-4.77489E-3	-247.013E-12	688.335E-3	-1.77935E-3	-239.044E-12	664.628E-3	10.2151E-3
-4.77989E-3	-244.671E-12	668.665E-3	-33.4184E-3	-239.404E-12	691.906E-3	52.7332E-3
-4.78489E-3	-244.459E-12	661.542E-3	-30.1905E-3	-240.272E-12	703.440E-3	41.5161E-3
-4.78989E-3	-245.842E-12	652.321E-3	2.52110E-3	-243.905E-12	705.341E-3	6.41382E-3
-4.79490E-3	-244.832E-12	671.260E-3	-633.467E-6	-244.101E-12	690.045E-3	1.14739E-3
-4.79990E-3	-241.965E-12	703.439E-3	-22.6618E-3	-244.366E-12	675.722E-3	20.4867E-3
-4.80490E-3	-239.762E-12	679.800E-3	-19.9579E-3	-246.509E-12	667.293E-3	23.1090E-3
-4.80990E-3	-240.225E-12	647.704E-3	-9.54712E-3	-249.773E-12	667.520E-3	-10.7868E-3
-4.81491E-3	-240.852E-12	650.493E-3	-11.1951E-3	-249.910E-12	685.862E-3	-21.1179E-3
-4.81991E-3	-242.385E-12	636.811E-3	-20.4515E-3	-246.369E-12	695.121E-3	11.4695E-3
-4.82491E-3	-240.950E-12	618.887E-3	-33.3472E-3	-245.521E-12	672.359E-3	2.49227E-3
-4.82991E-3	-240.093E-12	629.467E-3	-43.7812E-3	-246.572E-12	633.271E-3	-53.4249E-3
-4.83492E-3	-240.462E-12	644.108E-3	-21.7290E-3	-247.413E-12	607.150E-3	-69.5773E-3
-4.83992E-3	-244.787E-12	634.208E-3	15.9501E-3	-242.717E-12	600.668E-3	-29.9382E-3
-4.84492E-3	-245.472E-12	627.155E-3	-6.83675E-3	-242.109E-12	620.908E-3	-1.62647E-3
-4.84992E-3	-245.312E-12	629.096E-3	-36.6000E-3	-243.630E-12	660.029E-3	-8.97459E-3
-4.85493E-3	-245.753E-12	618.574E-3	-38.2465E-3	-242.408E-12	676.803E-3	-12.5050E-3
-4.85993E-3	-248.389E-12	613.935E-3	-53.5925E-3	-242.207E-12	656.048E-3	7.82981E-3
-4.86493E-3	-249.850E-12	637.285E-3	-43.1572E-3	-244.201E-12	620.545E-3	-1.64452E-3
-4.86993E-3	-247.244E-12	672.709E-3	-38.1801E-3	-246.155E-12	613.300E-3	-30.1562E-3
-4.87494E-3	-245.787E-12	687.802E-3	-34.1180E-3	-245.497E-12	650.119E-3	-19.5252E-3
-4.87994E-3	-247.033E-12	686.684E-3	9.62758E-3	-244.810E-12	696.997E-3	5.12019E-3
-4.88494E-3	-248.671E-12	664.345E-3	6.60044E-3	-247.041E-12	730.774E-3	27.7546E-3
-4.88995E-3	-245.790E-12	654.983E-3	-46.4183E-3	-249.071E-12	719.672E-3	19.5875E-3
-4.89495E-3	-242.709E-12	688.279E-3	-61.2121E-3	-249.967E-12	678.199E-3	-22.1856E-3
-4.89995E-3	-242.039E-12	709.031E-3	-20.1711E-3	-248.510E-12	672.719E-3	-48.0196E-3
-4.90495E-3	-243.358E-12	706.058E-3	3.38199E-3	-250.539E-12	674.840E-3	-59.7972E-3
-4.90995E-3	-244.334E-12	670.967E-3	318.875E-6	-249.672E-12	677.286E-3	-52.8850E-3
-4.91496E-3	-243.104E-12	614.875E-3	8.97482E-3	-247.722E-12	686.066E-3	-1.10012E-3
-4.91996E-3	-242.787E-12	613.568E-3	-20.5011E-3	-245.994E-12	671.507E-3	28.5264E-3
-4.92496E-3	-244.163E-12	626.245E-3	-62.8422E-3	-245.724E-12	659.077E-3	16.2797E-3
-4.92996E-3	-245.916E-12	611.230E-3	-61.9692E-3	-245.650E-12	640.966E-3	19.6202E-3
-4.93497E-3	-247.607E-12	634.966E-3	-24.1952E-3	-246.470E-12	638.694E-3	18.5340E-3
-4.93997E-3	-247.108E-12	657.810E-3	36.5885E-3	-247.263E-12	677.078E-3	-27.3904E-3
-4.94497E-3	-247.043E-12	625.211E-3	52.9063E-3	-247.172E-12	660.554E-3	-55.6369E-3
-4.94997E-3	-248.135E-12	610.690E-3	3.06561E-3	-247.641E-12	601.741E-3	-20.5088E-3
-4.95498E-3	-249.736E-12	646.216E-3	-49.4620E-3	-246.216E-12	599.227E-3	-3.63201E-3
-4.95998E-3	-250.129E-12	674.123E-3	-55.9049E-3	-247.829E-12	606.983E-3	-27.7728E-3
-4.96498E-3	-249.114E-12	674.032E-3	-39.4738E-3	-247.687E-12	611.677E-3	-24.8488E-3
-4.96998E-3	-249.572E-12	652.155E-3	-55.7607E-3	-249.945E-12	654.415E-3	1.11608E-3
-4.97499E-3	-249.185E-12	623.923E-3	-66.4690E-3	-249.159E-12	681.065E-3	24.5969E-3
-4.97999E-3	-251.056E-12	627.287E-3	-63.1921E-3	-250.335E-12	659.700E-3	6.37610E-3
-4.98499E-3	-251.048E-12	645.378E-3	-77.5237E-3	-251.267E-12	625.909E-3	-36.7616E-3
-4.98999E-3	-251.160E-12	673.682E-3	-69.4888E-3	-250.907E-12	610.619E-3	-33.2660E-3
-4.99500E-3	-250.649E-12	677.427E-3	-48.6039E-3	-251.338E-12	617.000E-3	-15.7348E-3
-5.00000E-3	-252.304E-12	644.180E-3	-37.1116E-3	-251.783E-12	627.312E-3	-23.1331E-3
