Experiment	bias spectroscopy	
Date	19.01.2016 20:04:44	
User		
X (m)	50.1377E-9	
Y (m)	256.793E-9	
Z (m)	-132.503E-9	
Z offset (m)	0E+0	
Settling time (s)	200E-6	
Integration time (s)	5E-3	
Z-Ctrl hold	TRUE	
Final Z (m)	N/A	
Filter type	None	
Order		
Cutoff frq		
Comment01	MnPc/Pb(111)	
Comment02	dz =00pm	
Comment03	7 Sweeps	
Comment04	MagField =0.T	
Comment05	Divider 1:10	
Comment06	Setpoint:5mV,200 pA	
Comment07	Lockin: 50uVrms,5ms,5mV	
Comment08	Gain:9; 912Hz modulation	
Comment09	T=1.06K	
Bias>Bias (V)	5E-3	
Bias>Calibration (V/V)	81.475E-3	
Bias>Offset (V)	1.046E-3	
Bias Spectroscopy>Sweep Start (V)	5E-3	
Bias Spectroscopy>Sweep End (V)	-5E-3	
Bias Spectroscopy>Num Pixel	2000	
Bias Spectroscopy>Z Avg time (s)	500E-3	
Bias Spectroscopy>Z offset (m)	0E+0	
Bias Spectroscopy>1st Settling time (s)	500E-3	
Bias Spectroscopy>Settling time (s)	200E-6	
Bias Spectroscopy>Integration time (s)	5E-3	
Bias Spectroscopy>End Settling time (s)	500E-3	
Bias Spectroscopy>Z control time (s)	500E-3	
Bias Spectroscopy>Max Slew rate (V/s)	Inf	
Bias Spectroscopy>backward sweep	TRUE	
Bias Spectroscopy>Z-controller hold	TRUE	
Bias Spectroscopy>Number of sweeps	7	
Bias Spectroscopy>Channels	Current (A);X% LockIn (V);Y% LockIn (V)	
Bias Spectroscopy>Reset Bias	TRUE	
Bias Spectroscopy>Record final Z	FALSE	
Bias Spectroscopy>Lock-In run	FALSE	
Bias Spectroscopy>Sweep mode	Linear	
Bias Spectroscopy>MultiLine Settings : Segment Start (V), Segment End (V), Settling (s), Integration (s), Steps (xn)	100E-3,3.3E-3,100E-6,10E-3,2500;3.3E-3,-3.3E-3,100E-6,10E-3,10;-3.3E-3,-100E-3,100E-6,10E-3,2500	
Current>Current (A)	200.099E-12	
Current>Calibration (A/V)	999.99900E-12	
Current>Offset (A)	-455.429E-15	
Current>Gain	LN 10^9	
Z-Controller>Z (m)	-132.501E-9	
Z-Controller>Controller name	log Current	
Z-Controller>Controller status	ON	
Z-Controller>Setpoint	200E-12	
Z-Controller>Setpoint unit	A	
Z-Controller>P gain	2.96994E-12	
Z-Controller>I gain	67.0321E-9	
Z-Controller>Time const (s)	44.3062E-6	
Z-Controller>TipLift (m)	0E+0	
Z-Controller>Switch off delay (s)	50E-3	
Current (A)	199.805E-12	
Z (m)	-132.504E-9	

[DATA]
Bias calc (V)	Current (A)	X% LockIn (V)	Y% LockIn (V)	Current [bwd] (A)	X% LockIn [bwd] (V)	Y% LockIn [bwd] (V)
5.00000E-3	203.923E-12	526.797E-3	-47.5661E-3	196.552E-12	475.355E-3	9.61386E-3
4.99500E-3	202.428E-12	525.298E-3	-11.0766E-3	196.807E-12	488.629E-3	5.27814E-3
4.98999E-3	201.878E-12	511.651E-3	9.74673E-3	198.493E-12	481.474E-3	-7.28742E-3
4.98499E-3	201.145E-12	503.317E-3	15.8060E-3	201.131E-12	469.937E-3	-31.2156E-3
4.97999E-3	202.131E-12	499.553E-3	-8.58679E-3	198.158E-12	473.529E-3	-37.3667E-3
4.97499E-3	200.877E-12	490.128E-3	-57.7342E-3	196.728E-12	487.894E-3	-23.7113E-3
4.96998E-3	199.311E-12	477.876E-3	-78.1172E-3	198.396E-12	511.522E-3	-898.010E-6
4.96498E-3	198.099E-12	484.238E-3	-61.4902E-3	201.691E-12	520.440E-3	4.03297E-3
4.95998E-3	198.794E-12	515.947E-3	-25.3880E-3	200.328E-12	505.275E-3	-8.02719E-3
4.95498E-3	198.998E-12	525.451E-3	5.09279E-3	197.100E-12	506.174E-3	-6.06711E-3
4.94997E-3	198.577E-12	526.278E-3	8.65586E-3	196.309E-12	515.766E-3	-10.0594E-3
4.94497E-3	197.527E-12	524.987E-3	-4.72816E-3	198.365E-12	504.602E-3	-42.0446E-3
4.93997E-3	197.476E-12	490.113E-3	-40.4791E-3	200.341E-12	502.973E-3	-55.7364E-3
4.93497E-3	199.530E-12	498.499E-3	-68.7557E-3	197.211E-12	509.647E-3	-42.2320E-3
4.92996E-3	199.780E-12	514.536E-3	-39.9566E-3	195.715E-12	507.629E-3	-32.4687E-3
4.92496E-3	199.117E-12	489.562E-3	-10.6970E-3	198.199E-12	513.188E-3	-28.9807E-3
4.91996E-3	197.432E-12	502.004E-3	-16.4865E-3	200.070E-12	511.997E-3	-10.7189E-3
4.91496E-3	197.824E-12	548.049E-3	-22.2510E-3	198.829E-12	497.428E-3	15.1709E-3
4.90995E-3	197.055E-12	578.576E-3	-20.5769E-3	195.409E-12	497.887E-3	3.99947E-3
4.90495E-3	195.913E-12	561.026E-3	-9.90132E-3	197.576E-12	515.231E-3	-15.9206E-3
4.89995E-3	194.267E-12	527.254E-3	-15.3102E-3	199.048E-12	522.570E-3	-17.3102E-3
4.89495E-3	193.710E-12	531.425E-3	-41.2565E-3	198.785E-12	511.513E-3	-13.0530E-3
4.88995E-3	194.174E-12	532.396E-3	-58.6784E-3	197.451E-12	495.771E-3	-380.336E-6
4.88494E-3	194.590E-12	509.227E-3	-55.3144E-3	195.992E-12	487.350E-3	-2.97041E-3
4.87994E-3	195.063E-12	524.657E-3	-45.3913E-3	196.173E-12	489.513E-3	-8.24500E-3
4.87494E-3	193.926E-12	562.653E-3	-31.1282E-3	197.470E-12	507.990E-3	-4.86338E-3
4.86993E-3	194.116E-12	557.587E-3	-534.798E-6	197.212E-12	542.893E-3	-22.3983E-3
4.86493E-3	196.896E-12	523.936E-3	17.0406E-3	194.695E-12	551.291E-3	-20.6134E-3
4.85993E-3	198.321E-12	521.881E-3	-2.12753E-3	194.211E-12	530.330E-3	11.8896E-3
4.85493E-3	198.926E-12	543.415E-3	-19.0748E-3	195.168E-12	511.417E-3	26.6235E-3
4.84992E-3	197.557E-12	536.547E-3	-23.9087E-3	195.766E-12	483.537E-3	14.3812E-3
4.84492E-3	198.876E-12	520.883E-3	-29.6887E-3	194.303E-12	486.386E-3	11.2579E-3
4.83992E-3	199.235E-12	524.433E-3	7.31505E-3	194.009E-12	529.739E-3	10.1476E-3
4.83492E-3	199.887E-12	523.389E-3	25.9841E-3	194.907E-12	541.493E-3	-10.5859E-3
4.82991E-3	196.630E-12	521.330E-3	-19.4884E-3	195.482E-12	534.762E-3	-29.0773E-3
4.82491E-3	196.639E-12	536.718E-3	-44.2072E-3	194.515E-12	521.600E-3	-41.1939E-3
4.81991E-3	196.549E-12	534.582E-3	-29.1554E-3	193.284E-12	493.441E-3	-45.4235E-3
4.81491E-3	196.872E-12	535.318E-3	-15.8792E-3	195.460E-12	482.699E-3	-25.8381E-3
4.80990E-3	194.456E-12	556.370E-3	-8.09040E-3	195.471E-12	494.082E-3	-2.72271E-3
4.80490E-3	192.445E-12	538.103E-3	-12.1328E-3	195.113E-12	501.599E-3	-8.64482E-3
4.79990E-3	192.294E-12	504.155E-3	-43.9435E-3	193.080E-12	494.516E-3	-14.6237E-3
4.79490E-3	191.995E-12	512.856E-3	-47.6439E-3	193.341E-12	509.432E-3	-17.5709E-3
4.78989E-3	194.350E-12	540.656E-3	-34.5963E-3	193.580E-12	530.297E-3	-46.3320E-3
4.78489E-3	193.711E-12	547.300E-3	-53.9387E-3	192.344E-12	531.110E-3	-49.5344E-3
4.77989E-3	194.363E-12	522.369E-3	-51.4716E-3	191.485E-12	545.224E-3	-17.9056E-3
4.77489E-3	196.011E-12	499.301E-3	-7.72859E-3	190.092E-12	541.852E-3	-8.99095E-3
4.76988E-3	197.469E-12	492.042E-3	993.669E-6	191.001E-12	514.734E-3	-12.4131E-3
4.76488E-3	196.813E-12	512.465E-3	-26.6318E-3	190.625E-12	531.322E-3	-18.6842E-3
4.75988E-3	196.671E-12	549.209E-3	-33.5244E-3	192.037E-12	560.786E-3	-30.6793E-3
4.75488E-3	197.224E-12	541.138E-3	-28.4693E-3	191.032E-12	555.245E-3	-17.0720E-3
4.74988E-3	197.318E-12	536.796E-3	-16.3223E-3	192.158E-12	539.301E-3	-21.0011E-3
4.74487E-3	195.977E-12	543.003E-3	-2.52060E-3	190.351E-12	502.301E-3	-65.9556E-3
4.73987E-3	193.353E-12	520.927E-3	-19.1610E-3	191.579E-12	466.545E-3	-67.1426E-3
4.73487E-3	193.252E-12	506.930E-3	-26.7077E-3	192.628E-12	495.701E-3	-39.8565E-3
4.72986E-3	193.854E-12	505.177E-3	-1.90927E-3	191.983E-12	526.034E-3	-38.4513E-3
4.72486E-3	191.374E-12	507.432E-3	-14.6428E-3	191.443E-12	509.574E-3	-22.0660E-3
4.71986E-3	189.300E-12	519.065E-3	-31.7430E-3	189.417E-12	507.709E-3	-6.87162E-3
4.71486E-3	187.112E-12	514.431E-3	-8.06996E-3	190.868E-12	527.905E-3	-32.3328E-3
4.70985E-3	188.474E-12	494.128E-3	6.00921E-3	191.253E-12	547.642E-3	-62.3811E-3
4.70485E-3	187.837E-12	501.787E-3	2.23425E-3	191.364E-12	555.785E-3	-57.9589E-3
4.69985E-3	186.952E-12	520.705E-3	8.25455E-3	190.002E-12	533.244E-3	-27.5945E-3
4.69485E-3	186.834E-12	514.095E-3	5.50542E-3	188.889E-12	499.523E-3	4.41681E-3
4.68984E-3	188.699E-12	489.324E-3	-29.5329E-3	190.597E-12	498.804E-3	17.2789E-3
4.68484E-3	190.075E-12	486.404E-3	-51.1926E-3	189.920E-12	528.763E-3	2.25126E-3
4.67984E-3	190.218E-12	481.914E-3	-37.1822E-3	189.583E-12	546.188E-3	-8.27091E-3
4.67484E-3	190.876E-12	474.806E-3	-39.8488E-3	188.230E-12	556.155E-3	4.33165E-3
4.66983E-3	190.814E-12	497.571E-3	-48.5026E-3	191.105E-12	562.705E-3	5.21224E-3
4.66483E-3	191.837E-12	511.879E-3	-41.6052E-3	192.534E-12	536.618E-3	-14.5570E-3
4.65983E-3	192.584E-12	502.649E-3	-40.6084E-3	192.141E-12	528.044E-3	-6.88224E-3
4.65483E-3	192.782E-12	493.430E-3	-39.6595E-3	190.988E-12	539.212E-3	6.23748E-3
4.64982E-3	190.335E-12	500.841E-3	-29.7570E-3	191.825E-12	519.971E-3	-10.4119E-3
4.64482E-3	188.585E-12	527.480E-3	-21.8470E-3	193.070E-12	519.406E-3	-4.32956E-3
4.63982E-3	189.028E-12	559.181E-3	-23.2166E-3	193.168E-12	541.883E-3	7.44124E-3
4.63482E-3	188.973E-12	562.472E-3	-27.9786E-3	192.143E-12	531.015E-3	-10.6910E-3
4.62981E-3	187.353E-12	553.538E-3	-15.0255E-3	191.403E-12	503.252E-3	-30.8479E-3
4.62481E-3	184.193E-12	543.746E-3	10.5012E-3	191.278E-12	497.073E-3	-54.8684E-3
4.61981E-3	185.015E-12	525.096E-3	-870.876E-6	189.913E-12	511.381E-3	-54.7095E-3
4.61481E-3	186.132E-12	512.345E-3	-48.6071E-3	187.106E-12	513.047E-3	-30.6983E-3
4.60980E-3	185.986E-12	492.140E-3	-72.9153E-3	186.299E-12	505.297E-3	-34.3050E-3
4.60480E-3	182.568E-12	468.286E-3	-66.1987E-3	185.943E-12	512.042E-3	-44.2183E-3
4.59980E-3	184.860E-12	468.846E-3	-46.9615E-3	186.412E-12	519.926E-3	-31.9079E-3
4.59480E-3	186.471E-12	487.994E-3	-29.9990E-3	185.581E-12	515.620E-3	-17.9977E-3
4.58979E-3	186.687E-12	488.726E-3	-30.9297E-3	184.686E-12	512.012E-3	-21.3177E-3
4.58479E-3	185.845E-12	489.910E-3	-41.1821E-3	184.796E-12	537.126E-3	-37.4648E-3
4.57979E-3	186.310E-12	504.718E-3	-29.8371E-3	185.529E-12	561.198E-3	-33.9511E-3
4.57479E-3	188.231E-12	498.464E-3	-17.6964E-3	186.706E-12	560.976E-3	-11.5684E-3
4.56978E-3	189.873E-12	513.387E-3	-33.3761E-3	187.420E-12	541.136E-3	-3.56026E-3
4.56478E-3	190.150E-12	540.562E-3	-39.7725E-3	187.047E-12	507.940E-3	5.71873E-3
4.55978E-3	188.185E-12	526.674E-3	-47.8739E-3	187.491E-12	519.439E-3	8.68177E-3
4.55478E-3	186.462E-12	524.324E-3	-38.3193E-3	189.327E-12	547.454E-3	-10.5338E-3
4.54977E-3	186.322E-12	523.157E-3	13.1706E-3	189.083E-12	535.100E-3	-30.1446E-3
4.54477E-3	187.391E-12	508.335E-3	41.7507E-3	186.452E-12	522.560E-3	-25.6980E-3
4.53977E-3	184.875E-12	521.292E-3	29.2816E-3	185.545E-12	544.508E-3	4.17411E-3
4.53477E-3	182.821E-12	521.818E-3	20.4061E-3	186.137E-12	566.641E-3	10.4324E-3
4.52976E-3	181.822E-12	494.838E-3	7.05462E-3	185.247E-12	533.969E-3	-15.4692E-3
4.52476E-3	183.809E-12	486.795E-3	-10.6682E-3	183.576E-12	498.654E-3	-17.6224E-3
4.51976E-3	183.070E-12	503.487E-3	-16.8991E-3	182.630E-12	502.000E-3	-7.42627E-3
4.51476E-3	181.701E-12	517.227E-3	-29.3473E-3	182.000E-12	506.795E-3	-10.2837E-3
4.50975E-3	181.342E-12	526.359E-3	-16.7353E-3	181.807E-12	526.919E-3	1.91753E-3
4.50475E-3	183.804E-12	531.460E-3	5.34109E-3	179.341E-12	541.772E-3	-4.42839E-3
4.49975E-3	184.214E-12	513.835E-3	12.9614E-3	182.030E-12	530.089E-3	-23.4197E-3
4.49475E-3	184.287E-12	494.955E-3	44.3810E-6	180.842E-12	528.042E-3	-22.9801E-3
4.48974E-3	184.214E-12	514.212E-3	-34.2993E-3	182.103E-12	522.079E-3	-33.5228E-3
4.48474E-3	184.333E-12	534.016E-3	-33.0389E-3	181.096E-12	502.173E-3	-17.1179E-3
4.47974E-3	185.161E-12	524.329E-3	-16.5838E-3	181.266E-12	499.091E-3	4.57899E-3
4.47474E-3	184.628E-12	510.393E-3	-30.2841E-3	181.715E-12	505.189E-3	-30.7262E-3
4.46973E-3	182.792E-12	501.507E-3	-33.1448E-3	183.013E-12	499.776E-3	-55.6211E-3
4.46473E-3	182.427E-12	504.993E-3	-5.50738E-3	182.985E-12	501.046E-3	-47.5750E-3
4.45973E-3	181.739E-12	509.717E-3	7.06503E-3	181.524E-12	509.092E-3	-31.8391E-3
4.45473E-3	181.488E-12	511.210E-3	-27.1802E-3	181.764E-12	494.751E-3	-14.8645E-3
4.44972E-3	180.083E-12	513.820E-3	-59.9159E-3	179.631E-12	484.305E-3	-6.60073E-3
4.44472E-3	179.554E-12	501.736E-3	-48.0396E-3	179.289E-12	518.120E-3	-16.0222E-3
4.43972E-3	179.289E-12	482.489E-3	-26.6297E-3	177.582E-12	526.855E-3	-51.3476E-3
4.43472E-3	180.273E-12	483.482E-3	-22.7307E-3	176.826E-12	482.537E-3	-54.2646E-3
4.42971E-3	179.441E-12	499.839E-3	-17.0749E-3	177.489E-12	463.370E-3	-32.5918E-3
4.42471E-3	180.076E-12	505.349E-3	-5.65774E-3	176.382E-12	448.955E-3	-40.8651E-3
4.41971E-3	181.152E-12	512.701E-3	-12.7849E-3	176.011E-12	448.067E-3	-13.2824E-3
4.41471E-3	181.608E-12	526.480E-3	-16.8909E-3	174.785E-12	484.571E-3	27.1215E-3
4.40970E-3	180.193E-12	525.360E-3	-17.4830E-3	176.228E-12	478.594E-3	3.49509E-3
4.40470E-3	180.983E-12	519.401E-3	-28.2482E-3	174.896E-12	471.091E-3	-25.5983E-3
4.39970E-3	180.935E-12	525.906E-3	-22.9998E-3	176.181E-12	511.935E-3	-22.5083E-3
4.39470E-3	179.193E-12	526.075E-3	-15.0883E-3	176.842E-12	523.744E-3	-12.5536E-3
4.38969E-3	177.185E-12	524.877E-3	-14.5182E-3	177.847E-12	510.467E-3	-8.99959E-3
4.38469E-3	178.833E-12	525.341E-3	-9.85002E-3	177.977E-12	523.004E-3	-4.96213E-3
4.37969E-3	177.954E-12	506.454E-3	-21.2327E-3	177.012E-12	542.077E-3	-13.1365E-3
4.37469E-3	177.409E-12	493.341E-3	-49.7208E-3	179.405E-12	538.334E-3	-36.7510E-3
4.36968E-3	177.027E-12	511.472E-3	-63.6871E-3	178.096E-12	516.954E-3	-45.8145E-3
4.36468E-3	176.788E-12	518.498E-3	-59.2714E-3	179.790E-12	510.012E-3	-27.4447E-3
4.35968E-3	175.761E-12	507.869E-3	-31.1128E-3	177.290E-12	501.225E-3	-17.3165E-3
4.35468E-3	176.346E-12	512.832E-3	-10.4695E-3	178.514E-12	494.824E-3	-13.3257E-3
4.34967E-3	178.207E-12	515.275E-3	-16.0517E-3	177.933E-12	517.307E-3	6.06799E-3
4.34467E-3	177.974E-12	512.945E-3	-29.3190E-3	177.708E-12	508.997E-3	22.2243E-3
4.33967E-3	177.484E-12	524.492E-3	-46.4685E-3	176.650E-12	481.324E-3	27.8388E-3
4.33467E-3	177.233E-12	524.478E-3	-36.4213E-3	176.059E-12	488.046E-3	-5.95424E-3
4.32966E-3	179.545E-12	507.770E-3	251.438E-6	176.243E-12	483.027E-3	-42.2995E-3
4.32466E-3	179.058E-12	508.380E-3	19.2889E-3	175.916E-12	485.727E-3	-31.0223E-3
4.31966E-3	177.852E-12	525.334E-3	-16.3298E-3	176.933E-12	524.398E-3	-27.9380E-3
4.31466E-3	177.280E-12	550.038E-3	-50.3858E-3	175.949E-12	535.973E-3	-32.5203E-3
4.30965E-3	177.663E-12	555.578E-3	-31.3327E-3	176.887E-12	530.961E-3	-7.42773E-3
4.30465E-3	176.546E-12	512.345E-3	941.981E-6	177.516E-12	551.305E-3	-1.56662E-3
4.29965E-3	175.990E-12	471.736E-3	-11.8393E-3	178.101E-12	562.484E-3	-33.4739E-3
4.29465E-3	174.417E-12	500.496E-3	-34.9452E-3	179.173E-12	553.420E-3	-38.3345E-3
4.28964E-3	173.787E-12	546.084E-3	510.114E-6	179.032E-12	545.722E-3	-12.7516E-3
4.28464E-3	173.788E-12	537.993E-3	25.2191E-3	178.044E-12	527.115E-3	-8.14121E-3
4.27964E-3	173.710E-12	511.621E-3	-5.39349E-3	176.858E-12	508.689E-3	-21.5681E-3
4.27464E-3	173.796E-12	481.689E-3	-23.8723E-3	176.383E-12	500.916E-3	-45.7079E-3
4.26963E-3	173.638E-12	470.584E-3	-31.8484E-3	176.519E-12	494.836E-3	-60.3294E-3
4.26463E-3	174.241E-12	492.041E-3	-42.8692E-3	175.149E-12	503.781E-3	-47.4849E-3
4.25963E-3	176.555E-12	499.525E-3	-18.3026E-3	173.027E-12	518.217E-3	-23.5070E-3
4.25463E-3	176.032E-12	496.623E-3	16.9093E-3	171.832E-12	526.566E-3	-4.73205E-3
4.24962E-3	176.852E-12	508.405E-3	20.2979E-3	173.681E-12	534.227E-3	-12.3954E-3
4.24462E-3	176.648E-12	529.569E-3	4.86982E-3	173.641E-12	535.278E-3	-25.4269E-3
4.23962E-3	178.941E-12	525.419E-3	-2.68022E-3	172.112E-12	528.476E-3	-25.6824E-3
4.23462E-3	178.914E-12	500.097E-3	-13.9215E-3	171.299E-12	517.149E-3	-21.0087E-3
4.22961E-3	179.546E-12	495.101E-3	-25.3741E-3	174.430E-12	512.981E-3	-18.1705E-3
4.22461E-3	178.821E-12	500.708E-3	-27.0947E-3	176.208E-12	506.972E-3	-16.7013E-3
4.21961E-3	178.821E-12	487.119E-3	-26.6462E-3	175.883E-12	505.192E-3	-8.31369E-3
4.21461E-3	178.177E-12	489.432E-3	-4.45729E-3	173.605E-12	522.024E-3	-6.53826E-3
4.20960E-3	177.514E-12	515.397E-3	4.15653E-3	175.152E-12	516.118E-3	-16.0383E-3
4.20460E-3	175.971E-12	523.067E-3	-2.47168E-3	176.605E-12	485.778E-3	-18.7288E-3
4.19960E-3	174.832E-12	520.268E-3	-6.70115E-3	175.605E-12	483.510E-3	-18.3180E-3
4.19460E-3	173.146E-12	520.867E-3	-33.7207E-3	173.170E-12	501.212E-3	-19.2504E-3
4.18959E-3	172.926E-12	522.642E-3	-41.0481E-3	171.614E-12	503.843E-3	-9.57105E-3
4.18459E-3	172.763E-12	512.493E-3	-11.5509E-3	172.075E-12	495.594E-3	14.2635E-3
4.17959E-3	172.450E-12	496.485E-3	-7.31425E-3	171.983E-12	475.834E-3	32.1836E-3
4.17459E-3	171.824E-12	494.905E-3	-37.8288E-3	169.890E-12	472.910E-3	15.1083E-3
4.16958E-3	172.558E-12	483.614E-3	-35.2416E-3	166.860E-12	494.095E-3	-18.1628E-3
4.16458E-3	172.483E-12	455.579E-3	-1.12688E-3	166.529E-12	507.279E-3	-16.0059E-3
4.15958E-3	172.833E-12	439.650E-3	6.34429E-3	168.187E-12	509.254E-3	-3.40904E-3
4.15458E-3	174.609E-12	450.410E-3	-11.5485E-3	167.489E-12	517.155E-3	-14.7191E-3
4.14957E-3	174.568E-12	474.787E-3	-21.5721E-3	166.059E-12	540.661E-3	-42.8815E-3
4.14457E-3	174.117E-12	494.558E-3	-27.6965E-3	166.138E-12	552.411E-3	-59.8843E-3
4.13957E-3	172.494E-12	515.848E-3	-26.9104E-3	169.996E-12	545.615E-3	-30.9145E-3
4.13457E-3	173.763E-12	532.038E-3	-19.8841E-3	171.398E-12	539.556E-3	6.53097E-3
4.12956E-3	173.301E-12	525.546E-3	-22.5346E-3	171.382E-12	547.343E-3	10.1895E-3
4.12456E-3	173.079E-12	509.076E-3	-26.3186E-3	171.552E-12	547.198E-3	-5.78897E-3
4.11956E-3	169.964E-12	509.946E-3	-25.3426E-3	173.114E-12	525.570E-3	-11.1803E-3
4.11456E-3	169.480E-12	521.250E-3	-30.8460E-3	173.616E-12	511.047E-3	-14.3237E-3
4.10955E-3	170.157E-12	520.293E-3	-42.6007E-3	172.739E-12	509.988E-3	-30.2910E-3
4.10455E-3	168.898E-12	511.952E-3	-46.8847E-3	171.301E-12	512.485E-3	-33.1139E-3
4.09955E-3	167.616E-12	506.733E-3	-33.4520E-3	170.761E-12	528.093E-3	-24.4859E-3
4.09455E-3	165.490E-12	512.101E-3	-12.3016E-3	170.262E-12	551.525E-3	-30.0444E-3
4.08954E-3	167.000E-12	504.747E-3	-9.26439E-3	169.783E-12	536.361E-3	-30.8559E-3
4.08454E-3	166.529E-12	488.382E-3	-17.2470E-3	168.845E-12	505.574E-3	-15.2929E-3
4.07954E-3	165.954E-12	493.555E-3	-25.1544E-3	167.257E-12	516.645E-3	-21.8811E-3
4.07454E-3	164.760E-12	499.507E-3	-35.9440E-3	167.085E-12	530.828E-3	-43.6338E-3
4.06953E-3	165.555E-12	502.121E-3	-37.3808E-3	166.785E-12	536.227E-3	-33.5176E-3
4.06453E-3	166.747E-12	510.703E-3	-23.1788E-3	167.217E-12	557.407E-3	-34.9547E-3
4.05953E-3	168.123E-12	501.593E-3	-20.4423E-3	167.712E-12	555.015E-3	-46.8709E-3
4.05453E-3	168.010E-12	499.828E-3	-20.6096E-3	167.175E-12	533.697E-3	-23.8297E-3
4.04952E-3	166.715E-12	524.806E-3	-5.44932E-3	167.964E-12	547.432E-3	-31.9764E-3
4.04452E-3	168.355E-12	524.417E-3	-11.3870E-3	169.269E-12	557.904E-3	-39.7968E-3
4.03952E-3	169.421E-12	505.182E-3	-34.5095E-3	169.388E-12	537.914E-3	-5.10029E-3
4.03452E-3	169.727E-12	502.519E-3	-30.1720E-3	169.506E-12	539.646E-3	1.29405E-3
4.02951E-3	168.183E-12	503.480E-3	-16.9486E-3	169.526E-12	547.099E-3	-6.72094E-3
4.02451E-3	167.584E-12	502.935E-3	-15.5567E-3	169.633E-12	538.708E-3	2.87325E-3
4.01951E-3	168.663E-12	508.845E-3	-19.2943E-3	168.198E-12	520.543E-3	-3.91824E-3
4.01451E-3	169.166E-12	509.411E-3	-32.6227E-3	167.463E-12	502.029E-3	-13.6378E-3
4.00950E-3	167.273E-12	519.572E-3	-35.4067E-3	166.589E-12	516.148E-3	6.70557E-3
4.00450E-3	166.340E-12	535.225E-3	-16.8315E-3	166.612E-12	527.713E-3	-2.43313E-3
3.99950E-3	166.804E-12	516.340E-3	9.25090E-3	165.364E-12	504.621E-3	-34.2872E-3
3.99450E-3	166.978E-12	506.739E-3	26.7627E-3	164.147E-12	480.296E-3	-14.3424E-3
3.98949E-3	166.461E-12	530.040E-3	33.0994E-3	162.882E-12	476.373E-3	-11.5391E-3
3.98449E-3	165.648E-12	547.044E-3	21.1119E-3	161.981E-12	492.727E-3	-66.0954E-3
3.97949E-3	165.942E-12	553.676E-3	5.08291E-3	163.024E-12	510.388E-3	-79.2777E-3
3.97449E-3	166.425E-12	553.089E-3	18.1294E-3	163.988E-12	529.512E-3	-31.7850E-3
3.96948E-3	166.494E-12	543.159E-3	29.6201E-3	163.569E-12	549.902E-3	6.15749E-3
3.96448E-3	164.873E-12	544.575E-3	20.3477E-3	162.881E-12	547.483E-3	6.89491E-3
3.95948E-3	165.540E-12	548.736E-3	20.4435E-3	164.280E-12	536.624E-3	-17.5583E-3
3.95448E-3	165.165E-12	521.831E-3	21.4441E-3	165.968E-12	532.622E-3	-42.0286E-3
3.94947E-3	164.661E-12	499.456E-3	7.73341E-3	165.753E-12	518.054E-3	-53.4582E-3
3.94447E-3	165.086E-12	504.177E-3	-6.26917E-3	164.942E-12	502.262E-3	-49.8068E-3
3.93947E-3	164.598E-12	509.304E-3	-12.1829E-3	166.039E-12	490.171E-3	-23.1023E-3
3.93447E-3	164.088E-12	522.353E-3	-19.1556E-3	166.033E-12	495.190E-3	-1.12323E-3
3.92946E-3	163.251E-12	551.910E-3	-36.0777E-3	165.495E-12	530.549E-3	-3.42889E-3
3.92446E-3	164.738E-12	551.806E-3	-47.3928E-3	163.896E-12	560.519E-3	-16.8313E-3
3.91946E-3	165.117E-12	529.451E-3	-58.8591E-3	162.723E-12	557.377E-3	-13.0217E-3
3.91446E-3	163.857E-12	529.146E-3	-43.5706E-3	162.464E-12	548.248E-3	-999.834E-6
3.90945E-3	162.449E-12	522.839E-3	753.375E-6	163.439E-12	531.599E-3	-9.51725E-3
3.90445E-3	163.168E-12	516.613E-3	-6.86720E-3	162.679E-12	508.214E-3	-32.9027E-3
3.89945E-3	164.262E-12	531.548E-3	-32.6643E-3	161.831E-12	509.425E-3	-58.4890E-3
3.89445E-3	163.279E-12	541.192E-3	-28.4563E-3	162.021E-12	511.091E-3	-53.1512E-3
3.88944E-3	161.331E-12	540.059E-3	-36.3062E-3	163.203E-12	515.368E-3	-27.3325E-3
3.88444E-3	161.618E-12	533.470E-3	-32.7838E-3	162.624E-12	517.700E-3	-34.5852E-3
3.87944E-3	162.406E-12	523.452E-3	-1.87570E-3	162.619E-12	502.304E-3	-64.2318E-3
3.87444E-3	162.472E-12	537.743E-3	-1.58427E-3	162.472E-12	513.734E-3	-76.8207E-3
3.86943E-3	160.199E-12	549.815E-3	-27.0456E-3	162.829E-12	551.335E-3	-66.7979E-3
3.86443E-3	159.661E-12	513.688E-3	-30.6590E-3	163.251E-12	559.150E-3	-53.0459E-3
3.85943E-3	160.086E-12	482.783E-3	-17.7384E-3	163.182E-12	552.277E-3	-51.0288E-3
3.85443E-3	160.087E-12	498.400E-3	-12.4119E-3	162.153E-12	558.597E-3	-53.1805E-3
3.84942E-3	158.450E-12	516.432E-3	-10.0793E-3	161.008E-12	563.186E-3	-45.3008E-3
3.84442E-3	158.351E-12	509.960E-3	-13.0426E-3	160.236E-12	564.977E-3	-29.6862E-3
3.83942E-3	157.902E-12	507.564E-3	-20.7341E-3	160.635E-12	558.787E-3	-13.9967E-3
3.83442E-3	158.614E-12	498.341E-3	-17.1846E-3	160.354E-12	547.500E-3	3.13613E-3
3.82941E-3	159.106E-12	495.405E-3	-23.6361E-3	158.365E-12	535.991E-3	14.2886E-3
3.82441E-3	159.608E-12	530.236E-3	-42.8061E-3	157.306E-12	527.297E-3	9.65113E-3
3.81941E-3	159.177E-12	539.753E-3	-49.4616E-3	157.697E-12	532.357E-3	-6.56084E-3
3.81441E-3	160.401E-12	514.587E-3	-41.6614E-3	158.381E-12	530.183E-3	-10.3735E-3
3.80940E-3	160.825E-12	518.680E-3	-29.6467E-3	157.842E-12	524.155E-3	3.87489E-3
3.80440E-3	162.456E-12	531.673E-3	-16.5011E-3	157.346E-12	529.438E-3	5.11816E-3
3.79940E-3	162.368E-12	524.473E-3	-9.23989E-3	159.169E-12	533.650E-3	5.60242E-3
3.79440E-3	162.736E-12	514.732E-3	-7.82057E-3	159.647E-12	548.394E-3	13.6798E-3
3.78939E-3	161.441E-12	507.904E-3	-438.093E-6	160.040E-12	555.512E-3	-18.2454E-3
3.78439E-3	162.611E-12	504.510E-3	3.75403E-3	159.438E-12	558.642E-3	-63.1691E-3
3.77939E-3	162.215E-12	514.753E-3	11.4840E-3	160.579E-12	567.401E-3	-51.9977E-3
3.77439E-3	161.569E-12	524.473E-3	11.3274E-3	161.076E-12	567.826E-3	-17.3290E-3
3.76938E-3	159.764E-12	521.402E-3	-9.30639E-3	160.115E-12	560.500E-3	6.72153E-3
3.76438E-3	158.767E-12	528.772E-3	-25.2300E-3	160.193E-12	536.571E-3	11.4015E-3
3.75938E-3	158.175E-12	529.733E-3	-14.8986E-3	159.538E-12	523.748E-3	-23.0954E-3
3.75438E-3	157.921E-12	520.804E-3	2.30306E-3	159.101E-12	525.339E-3	-45.8137E-3
3.74937E-3	155.641E-12	525.424E-3	-15.0604E-3	157.776E-12	527.036E-3	-15.7708E-3
3.74437E-3	154.190E-12	522.967E-3	-39.2385E-3	156.097E-12	523.689E-3	15.1809E-3
3.73937E-3	154.354E-12	510.423E-3	-32.6694E-3	155.014E-12	508.797E-3	15.9176E-3
3.73437E-3	155.139E-12	525.959E-3	-15.4126E-3	154.804E-12	504.894E-3	14.0530E-3
3.72936E-3	155.204E-12	546.932E-3	2.90410E-3	153.319E-12	506.639E-3	1.72940E-3
3.72436E-3	154.233E-12	542.741E-3	17.5609E-3	152.188E-12	492.489E-3	-26.9495E-3
3.71936E-3	155.400E-12	543.869E-3	9.08927E-3	153.244E-12	491.895E-3	-24.0091E-3
3.71436E-3	157.087E-12	545.992E-3	-12.3076E-3	153.712E-12	529.275E-3	-2.55035E-3
3.70935E-3	158.578E-12	534.247E-3	-11.7358E-3	154.947E-12	557.690E-3	9.98240E-3
3.70435E-3	157.492E-12	535.989E-3	6.92379E-3	153.551E-12	555.743E-3	20.2125E-3
3.69935E-3	156.825E-12	545.443E-3	16.8837E-3	154.983E-12	542.930E-3	4.47354E-3
3.69435E-3	157.059E-12	536.848E-3	14.6430E-3	156.323E-12	509.435E-3	-2.67223E-3
3.68934E-3	157.500E-12	544.450E-3	3.29875E-3	156.659E-12	492.722E-3	12.9819E-3
3.68434E-3	158.043E-12	557.829E-3	-15.9162E-3	155.585E-12	529.907E-3	740.523E-6
3.67934E-3	155.423E-12	536.771E-3	-19.6323E-3	155.211E-12	552.927E-3	-20.1011E-3
3.67434E-3	154.847E-12	514.832E-3	-15.4824E-3	155.507E-12	536.737E-3	-11.2477E-3
3.66933E-3	154.239E-12	509.224E-3	-12.4481E-3	154.522E-12	529.036E-3	1.03793E-3
3.66433E-3	154.179E-12	509.392E-3	1.35004E-3	154.226E-12	531.953E-3	-219.988E-6
3.65933E-3	153.393E-12	510.027E-3	13.1641E-3	153.142E-12	532.924E-3	-137.862E-6
3.65433E-3	151.885E-12	505.360E-3	18.8845E-3	152.924E-12	530.747E-3	917.184E-6
3.64932E-3	151.886E-12	492.269E-3	19.0923E-3	152.104E-12	521.954E-3	414.926E-6
3.64432E-3	152.272E-12	480.297E-3	1.69209E-3	152.219E-12	526.842E-3	5.24090E-3
3.63932E-3	153.731E-12	484.205E-3	-18.2212E-3	151.779E-12	540.434E-3	-1.88516E-3
3.63432E-3	152.278E-12	513.236E-3	-14.2993E-3	151.394E-12	535.225E-3	-34.4859E-3
3.62931E-3	151.588E-12	548.819E-3	-8.63291E-3	151.482E-12	519.355E-3	-54.6312E-3
3.62431E-3	152.800E-12	567.317E-3	1.22819E-3	151.801E-12	522.201E-3	-44.9219E-3
3.61931E-3	155.386E-12	566.218E-3	5.21435E-3	152.205E-12	548.732E-3	-31.2273E-3
3.61431E-3	154.859E-12	561.478E-3	-20.9248E-3	153.131E-12	566.932E-3	-27.3980E-3
3.60930E-3	153.730E-12	554.837E-3	-28.0489E-3	154.427E-12	567.173E-3	-32.3245E-3
3.60430E-3	153.758E-12	538.476E-3	-16.7109E-3	155.050E-12	553.523E-3	-35.0135E-3
3.59930E-3	154.480E-12	539.375E-3	-19.6794E-3	154.474E-12	543.082E-3	-15.2007E-3
3.59430E-3	153.792E-12	550.272E-3	-5.17478E-3	153.408E-12	554.960E-3	-6.51807E-3
3.58929E-3	152.352E-12	537.075E-3	6.53931E-3	154.288E-12	559.844E-3	-20.5787E-3
3.58429E-3	150.891E-12	521.935E-3	-4.76072E-3	153.775E-12	548.872E-3	-8.62302E-3
3.57929E-3	151.616E-12	530.385E-3	6.04394E-3	153.198E-12	543.103E-3	-1.87565E-3
3.57429E-3	152.056E-12	524.930E-3	9.03868E-3	151.843E-12	529.121E-3	-28.1317E-3
3.56928E-3	151.185E-12	512.487E-3	-17.2149E-3	150.733E-12	525.886E-3	-29.6110E-3
3.56428E-3	149.752E-12	529.011E-3	-21.7482E-3	150.233E-12	533.643E-3	-9.71252E-3
3.55928E-3	149.113E-12	541.919E-3	-23.2012E-3	150.793E-12	505.913E-3	497.218E-6
3.55428E-3	150.190E-12	528.147E-3	-47.2594E-3	149.690E-12	483.056E-3	11.8755E-3
3.54927E-3	151.069E-12	501.688E-3	-39.6672E-3	148.271E-12	510.029E-3	9.07125E-3
3.54427E-3	150.032E-12	498.627E-3	-6.55296E-3	147.985E-12	534.854E-3	-981.803E-6
3.53927E-3	149.119E-12	519.602E-3	-13.1114E-3	149.869E-12	544.171E-3	-680.934E-6
3.53427E-3	149.873E-12	540.852E-3	-44.8746E-3	149.232E-12	554.280E-3	-2.33271E-3
3.52926E-3	151.944E-12	560.912E-3	-44.7679E-3	148.497E-12	546.475E-3	3.25230E-3
3.52426E-3	149.947E-12	547.073E-3	-18.2680E-3	148.842E-12	549.520E-3	19.1762E-3
3.51926E-3	148.226E-12	520.467E-3	-1.89153E-3	151.092E-12	569.840E-3	12.0048E-3
3.51426E-3	147.980E-12	524.225E-3	-8.71640E-3	151.702E-12	553.999E-3	-8.78728E-3
3.50925E-3	148.653E-12	530.421E-3	-29.2089E-3	150.953E-12	522.002E-3	-19.2197E-3
3.50425E-3	148.308E-12	529.694E-3	-29.9871E-3	150.330E-12	524.972E-3	-26.3254E-3
3.49925E-3	147.112E-12	537.083E-3	-16.5168E-3	151.397E-12	539.031E-3	-20.8256E-3
3.49425E-3	146.255E-12	542.820E-3	-13.7759E-3	150.718E-12	536.601E-3	-7.75238E-3
3.48924E-3	146.374E-12	534.337E-3	-10.9090E-3	150.468E-12	546.113E-3	1.09208E-3
3.48424E-3	147.226E-12	520.265E-3	2.37350E-3	148.584E-12	564.201E-3	2.43690E-3
3.47924E-3	148.140E-12	527.196E-3	8.28394E-3	148.039E-12	557.379E-3	1.00495E-3
3.47424E-3	146.716E-12	548.238E-3	13.6574E-3	147.857E-12	537.883E-3	7.97980E-3
3.46923E-3	147.348E-12	535.697E-3	20.5853E-3	148.471E-12	535.467E-3	18.7646E-3
3.46423E-3	146.754E-12	494.825E-3	-1.20966E-3	147.978E-12	546.067E-3	28.4735E-3
3.45923E-3	147.950E-12	489.545E-3	-10.6980E-3	146.869E-12	565.604E-3	18.6016E-3
3.45423E-3	147.141E-12	513.541E-3	-3.31901E-3	147.130E-12	574.295E-3	-17.0367E-3
3.44922E-3	146.315E-12	519.958E-3	-16.6552E-3	147.743E-12	550.670E-3	-31.5165E-3
3.44422E-3	146.909E-12	526.507E-3	-14.8087E-3	148.406E-12	530.771E-3	-30.2046E-3
3.43922E-3	146.924E-12	545.978E-3	-486.703E-6	147.332E-12	523.229E-3	-44.4735E-3
3.43422E-3	147.066E-12	544.174E-3	-8.42834E-3	147.243E-12	522.555E-3	-49.1401E-3
3.42921E-3	144.590E-12	526.153E-3	-22.8679E-3	148.696E-12	544.064E-3	-30.5192E-3
3.42421E-3	145.451E-12	534.118E-3	-24.6094E-3	148.786E-12	545.545E-3	-3.57175E-3
3.41921E-3	144.393E-12	553.054E-3	-29.0794E-3	147.324E-12	520.794E-3	10.6266E-3
3.41421E-3	144.126E-12	541.447E-3	-41.1522E-3	145.623E-12	522.645E-3	3.27114E-3
3.40920E-3	142.613E-12	529.816E-3	-39.1178E-3	145.639E-12	533.814E-3	-16.9339E-3
3.40420E-3	143.394E-12	543.698E-3	-28.2882E-3	145.594E-12	524.481E-3	-15.0328E-3
3.39920E-3	143.833E-12	547.898E-3	-16.6545E-3	144.660E-12	519.569E-3	4.65363E-3
3.39420E-3	144.077E-12	525.118E-3	-5.54518E-3	142.405E-12	535.486E-3	5.25231E-3
3.38919E-3	145.153E-12	514.884E-3	-8.59305E-3	141.703E-12	545.053E-3	5.89125E-3
3.38419E-3	144.448E-12	540.206E-3	-26.4417E-3	142.460E-12	536.025E-3	7.72735E-3
3.37919E-3	145.403E-12	537.501E-3	-30.0205E-3	141.983E-12	543.158E-3	-13.9165E-3
3.37419E-3	146.657E-12	505.302E-3	-20.6058E-3	141.650E-12	555.332E-3	-44.0461E-3
3.36918E-3	147.257E-12	511.020E-3	-21.7014E-3	140.921E-12	542.148E-3	-49.9133E-3
3.36418E-3	145.706E-12	520.252E-3	-29.7820E-3	142.606E-12	529.044E-3	-27.6604E-3
3.35918E-3	145.692E-12	520.906E-3	-55.2128E-3	143.545E-12	514.210E-3	-3.79278E-3
3.35418E-3	147.135E-12	542.814E-3	-67.8297E-3	144.004E-12	498.230E-3	1.47579E-3
3.34917E-3	147.221E-12	547.278E-3	-49.5184E-3	143.704E-12	505.168E-3	-21.6397E-3
3.34417E-3	145.181E-12	535.843E-3	-26.2391E-3	144.056E-12	519.917E-3	-46.4151E-3
3.33917E-3	142.604E-12	539.427E-3	-3.87661E-3	144.803E-12	531.705E-3	-37.7439E-3
3.33417E-3	144.597E-12	539.654E-3	4.22974E-3	144.526E-12	541.302E-3	-30.3694E-3
3.32916E-3	143.400E-12	533.273E-3	-7.38830E-3	144.365E-12	536.865E-3	-38.7503E-3
3.32416E-3	141.831E-12	530.591E-3	-9.85873E-3	144.087E-12	534.006E-3	-26.8691E-3
3.31916E-3	139.290E-12	529.633E-3	5.00827E-3	143.204E-12	539.342E-3	-14.7593E-3
3.31416E-3	140.490E-12	534.389E-3	-1.53202E-3	142.148E-12	525.869E-3	-9.58614E-3
3.30915E-3	140.902E-12	539.027E-3	-21.0227E-3	141.575E-12	517.321E-3	-10.7844E-3
3.30415E-3	139.720E-12	523.940E-3	-12.7472E-3	140.647E-12	526.044E-3	-22.9801E-3
3.29915E-3	138.659E-12	499.095E-3	371.809E-6	139.440E-12	529.676E-3	-24.9935E-3
3.29415E-3	139.481E-12	497.926E-3	-11.7998E-3	140.250E-12	547.860E-3	-17.3930E-3
3.28914E-3	142.185E-12	510.598E-3	-9.18644E-3	140.046E-12	569.878E-3	-9.41847E-3
3.28414E-3	141.462E-12	520.061E-3	13.8251E-3	140.362E-12	566.813E-3	-8.03484E-3
3.27914E-3	140.380E-12	517.030E-3	11.4569E-3	139.761E-12	549.240E-3	-10.0581E-3
3.27414E-3	139.617E-12	496.787E-3	6.50729E-3	140.287E-12	533.635E-3	-9.20031E-3
3.26913E-3	141.126E-12	481.357E-3	10.8039E-3	141.272E-12	530.378E-3	-2.24502E-3
3.26413E-3	141.751E-12	499.752E-3	-1.00337E-3	141.346E-12	538.433E-3	-3.35116E-3
3.25913E-3	140.917E-12	542.374E-3	-2.21236E-3	142.054E-12	540.975E-3	-10.3538E-3
3.25413E-3	138.396E-12	555.823E-3	1.06648E-3	142.189E-12	519.031E-3	4.86900E-3
3.24912E-3	137.476E-12	536.411E-3	-4.24811E-3	143.220E-12	522.890E-3	17.2022E-3
3.24412E-3	138.263E-12	523.140E-3	310.687E-6	142.074E-12	554.814E-3	-7.94182E-3
3.23912E-3	138.703E-12	508.939E-3	-16.9491E-3	142.901E-12	547.286E-3	-25.1714E-3
3.23412E-3	136.668E-12	499.012E-3	-41.5499E-3	142.475E-12	535.816E-3	-16.2128E-3
3.22911E-3	135.413E-12	517.005E-3	-34.1071E-3	141.413E-12	542.800E-3	-15.4246E-3
3.22411E-3	136.411E-12	546.127E-3	-13.5559E-3	139.593E-12	538.602E-3	-17.2297E-3
3.21911E-3	137.826E-12	553.719E-3	-3.60273E-3	139.709E-12	526.557E-3	-9.47006E-3
3.21411E-3	137.558E-12	554.353E-3	-1.66219E-3	139.736E-12	520.226E-3	-6.61776E-3
3.20910E-3	136.541E-12	551.314E-3	-5.55245E-3	138.066E-12	529.505E-3	-25.1798E-3
3.20410E-3	137.315E-12	543.512E-3	-18.2615E-3	137.367E-12	542.378E-3	-29.0533E-3
3.19910E-3	139.498E-12	546.177E-3	-21.7220E-3	137.644E-12	547.443E-3	-2.02786E-3
3.19410E-3	140.428E-12	523.555E-3	-8.76258E-3	137.959E-12	544.352E-3	7.49538E-3
3.18909E-3	139.081E-12	501.497E-3	-6.45548E-3	137.236E-12	544.951E-3	-6.13866E-3
3.18409E-3	138.386E-12	513.001E-3	-17.1159E-3	137.198E-12	561.148E-3	-38.9017E-3
3.17909E-3	139.718E-12	518.447E-3	-26.3343E-3	138.570E-12	550.740E-3	-67.2090E-3
3.17409E-3	139.715E-12	520.733E-3	-37.5447E-3	138.503E-12	511.683E-3	-41.6717E-3
3.16908E-3	137.859E-12	530.976E-3	-34.3943E-3	137.393E-12	506.374E-3	-5.29839E-3
3.16408E-3	135.980E-12	518.134E-3	-9.52930E-3	137.308E-12	526.929E-3	1.23520E-3
3.15908E-3	135.331E-12	498.491E-3	5.48890E-3	137.949E-12	529.188E-3	11.1257E-3
3.15408E-3	135.426E-12	509.365E-3	19.9000E-3	136.777E-12	507.652E-3	17.3920E-3
3.14907E-3	134.697E-12	520.670E-3	21.8930E-3	135.311E-12	490.341E-3	691.554E-6
3.14407E-3	133.656E-12	522.774E-3	-16.8403E-3	134.790E-12	480.885E-3	-13.2230E-3
3.13907E-3	133.005E-12	527.992E-3	-47.0383E-3	134.943E-12	476.201E-3	-18.2459E-3
3.13407E-3	133.908E-12	538.419E-3	-42.8432E-3	133.265E-12	501.064E-3	-25.8269E-3
3.12906E-3	134.017E-12	562.894E-3	-27.0253E-3	132.846E-12	525.469E-3	-27.4044E-3
3.12406E-3	134.238E-12	566.721E-3	-11.1594E-3	132.612E-12	525.274E-3	-29.8412E-3
3.11906E-3	133.857E-12	542.961E-3	-366.883E-6	132.822E-12	538.227E-3	-37.1081E-3
3.11406E-3	134.251E-12	535.592E-3	-8.61945E-3	131.002E-12	558.857E-3	-47.0194E-3
3.10905E-3	134.238E-12	534.379E-3	-34.3677E-3	131.947E-12	560.302E-3	-41.3256E-3
3.10405E-3	135.016E-12	513.971E-3	-36.8904E-3	132.368E-12	543.289E-3	-23.5660E-3
3.09905E-3	134.870E-12	505.234E-3	-7.62734E-3	132.447E-12	526.368E-3	-31.8395E-3
3.09405E-3	135.744E-12	525.552E-3	7.82540E-3	132.583E-12	540.688E-3	-54.4685E-3
3.08904E-3	135.794E-12	545.177E-3	7.83894E-3	132.470E-12	550.784E-3	-55.5990E-3
3.08404E-3	135.622E-12	548.810E-3	10.6067E-3	132.347E-12	542.801E-3	-28.7794E-3
3.07904E-3	135.404E-12	551.122E-3	7.35483E-3	133.139E-12	544.721E-3	-5.19508E-3
3.07404E-3	135.137E-12	543.169E-3	-1.33119E-3	134.250E-12	538.842E-3	9.80547E-3
3.06903E-3	134.343E-12	528.602E-3	11.7554E-3	133.838E-12	532.034E-3	25.2974E-3
3.06403E-3	132.886E-12	532.869E-3	22.6238E-3	132.486E-12	533.785E-3	17.2021E-3
3.05903E-3	132.046E-12	541.107E-3	13.7257E-3	131.206E-12	526.629E-3	-3.91007E-3
3.05403E-3	130.545E-12	541.528E-3	-6.30253E-3	132.460E-12	513.793E-3	-15.4908E-3
3.04902E-3	131.245E-12	539.155E-3	-24.1676E-3	133.324E-12	530.132E-3	-21.8585E-3
3.04402E-3	132.404E-12	534.494E-3	-25.4425E-3	131.241E-12	556.727E-3	-29.9374E-3
3.03902E-3	133.004E-12	541.473E-3	-27.5649E-3	131.066E-12	562.144E-3	-24.9158E-3
3.03402E-3	130.665E-12	560.212E-3	-11.7266E-3	131.991E-12	565.894E-3	-5.91819E-3
3.02901E-3	130.648E-12	556.327E-3	-486.712E-6	133.195E-12	564.937E-3	-13.5504E-3
3.02401E-3	132.852E-12	534.559E-3	-24.3924E-3	133.069E-12	551.905E-3	-37.5873E-3
3.01901E-3	133.256E-12	513.724E-3	-34.1457E-3	132.799E-12	541.775E-3	-42.5262E-3
3.01401E-3	131.775E-12	503.765E-3	-27.7565E-3	132.975E-12	545.421E-3	-36.3595E-3
3.00900E-3	130.173E-12	521.196E-3	-29.3918E-3	133.579E-12	544.910E-3	-16.0601E-3
3.00400E-3	131.839E-12	540.457E-3	-18.0216E-3	133.534E-12	544.380E-3	-1.44271E-3
2.99900E-3	131.771E-12	543.092E-3	435.355E-6	133.449E-12	553.306E-3	-10.1488E-3
2.99400E-3	130.785E-12	554.156E-3	-2.15907E-3	132.729E-12	541.558E-3	-10.8451E-3
2.98899E-3	128.717E-12	575.915E-3	-18.3247E-3	133.218E-12	536.045E-3	-20.8533E-3
2.98399E-3	129.676E-12	573.139E-3	-25.4486E-3	132.722E-12	547.220E-3	-43.7004E-3
2.97899E-3	130.279E-12	552.471E-3	-14.7370E-3	130.842E-12	545.586E-3	-35.4815E-3
2.97399E-3	129.629E-12	547.451E-3	2.04512E-3	129.810E-12	547.465E-3	-18.5868E-3
2.96898E-3	127.676E-12	553.800E-3	4.26958E-3	128.741E-12	549.536E-3	-20.0996E-3
2.96398E-3	127.817E-12	549.184E-3	-10.2434E-3	128.638E-12	548.233E-3	-15.0048E-3
2.95898E-3	129.245E-12	547.456E-3	-22.9008E-3	127.475E-12	558.511E-3	-5.02707E-3
2.95398E-3	129.426E-12	552.030E-3	-11.2563E-3	126.616E-12	562.780E-3	-13.4176E-3
2.94897E-3	129.333E-12	541.925E-3	4.51876E-3	127.194E-12	539.683E-3	-22.1320E-3
2.94397E-3	129.162E-12	536.696E-3	-7.17902E-3	127.832E-12	516.964E-3	-5.14277E-3
2.93897E-3	129.875E-12	550.171E-3	-28.5323E-3	127.725E-12	517.819E-3	19.2546E-3
2.93397E-3	130.025E-12	552.371E-3	-42.7792E-3	127.480E-12	522.900E-3	21.0749E-3
2.92896E-3	129.582E-12	549.607E-3	-37.7779E-3	128.616E-12	540.727E-3	7.69854E-3
2.92396E-3	129.020E-12	553.856E-3	-23.0751E-3	129.983E-12	563.156E-3	-12.1295E-3
2.91896E-3	129.077E-12	546.242E-3	-32.4379E-3	130.813E-12	569.264E-3	-14.7704E-3
2.91396E-3	129.241E-12	547.663E-3	-40.7240E-3	130.536E-12	576.788E-3	4.00425E-3
2.90895E-3	128.119E-12	559.246E-3	-23.4874E-3	130.658E-12	571.464E-3	-9.31201E-3
2.90395E-3	126.900E-12	562.729E-3	-19.1982E-3	130.922E-12	553.569E-3	-27.1507E-3
2.89895E-3	127.230E-12	556.077E-3	-27.7271E-3	131.516E-12	548.184E-3	-15.5066E-3
2.89395E-3	127.669E-12	547.250E-3	-17.8559E-3	130.997E-12	554.254E-3	-15.6173E-3
2.88894E-3	127.453E-12	542.663E-3	-21.8246E-3	129.455E-12	551.784E-3	-18.7976E-3
2.88394E-3	126.659E-12	533.549E-3	-33.9690E-3	127.356E-12	537.930E-3	-11.5423E-3
2.87894E-3	126.434E-12	520.324E-3	-21.0459E-3	126.376E-12	537.237E-3	-9.56471E-3
2.87394E-3	126.887E-12	512.477E-3	-12.5227E-3	125.934E-12	536.970E-3	-9.32440E-3
2.86893E-3	128.028E-12	526.231E-3	-9.02866E-3	125.307E-12	533.784E-3	-12.7838E-3
2.86393E-3	128.326E-12	556.302E-3	-6.33779E-3	124.488E-12	537.411E-3	-23.4664E-3
2.85893E-3	127.941E-12	562.189E-3	-16.7853E-3	122.877E-12	529.428E-3	-34.1043E-3
2.85393E-3	127.831E-12	558.366E-3	-20.5666E-3	123.970E-12	524.776E-3	-36.6172E-3
2.84892E-3	127.898E-12	568.204E-3	-13.9778E-3	123.526E-12	538.646E-3	-31.9455E-3
2.84392E-3	128.670E-12	564.199E-3	-13.7758E-3	124.137E-12	543.930E-3	-29.5095E-3
2.83892E-3	128.042E-12	550.960E-3	-24.7700E-3	123.251E-12	538.502E-3	-22.6666E-3
2.83392E-3	126.489E-12	549.807E-3	-28.9202E-3	123.965E-12	537.029E-3	-15.5818E-3
2.82891E-3	126.129E-12	554.223E-3	-20.5744E-3	125.188E-12	532.051E-3	-22.9210E-3
2.82391E-3	126.073E-12	557.149E-3	-28.2137E-3	125.539E-12	531.583E-3	-14.5640E-3
2.81891E-3	126.143E-12	564.086E-3	-29.5847E-3	125.250E-12	534.445E-3	2.64859E-3
2.81391E-3	124.601E-12	550.682E-3	-10.3794E-3	124.777E-12	526.920E-3	-9.98485E-3
2.80890E-3	124.119E-12	535.378E-3	-10.1831E-3	125.607E-12	538.058E-3	-16.2756E-3
2.80390E-3	124.008E-12	548.637E-3	-19.0664E-3	125.370E-12	551.354E-3	-10.3998E-3
2.79890E-3	122.905E-12	556.940E-3	-19.4532E-3	124.564E-12	542.639E-3	-12.3571E-3
2.79390E-3	122.210E-12	546.101E-3	-20.8099E-3	121.987E-12	542.567E-3	-4.55099E-3
2.78889E-3	121.948E-12	529.867E-3	-2.09906E-3	121.606E-12	537.212E-3	2.52249E-3
2.78389E-3	123.229E-12	507.334E-3	16.1315E-3	122.018E-12	509.774E-3	-8.14692E-3
2.77889E-3	122.224E-12	500.841E-3	1.02822E-3	121.721E-12	509.362E-3	-28.1815E-3
2.77389E-3	123.817E-12	532.258E-3	6.79603E-3	120.255E-12	546.841E-3	-41.3569E-3
2.76888E-3	123.613E-12	557.256E-3	18.7655E-3	118.883E-12	560.473E-3	-31.8709E-3
2.76388E-3	124.602E-12	554.598E-3	-1.95154E-3	120.164E-12	530.867E-3	-14.3678E-3
2.75888E-3	124.352E-12	554.331E-3	-4.16924E-3	120.132E-12	523.125E-3	-21.0307E-3
2.75388E-3	124.433E-12	547.135E-3	10.1620E-3	120.082E-12	548.312E-3	-37.1870E-3
2.74887E-3	123.462E-12	536.115E-3	5.68543E-3	119.745E-12	563.723E-3	-39.7157E-3
2.74387E-3	122.303E-12	559.005E-3	2.68817E-3	120.720E-12	563.201E-3	-28.1729E-3
2.73887E-3	121.765E-12	573.639E-3	5.40845E-3	121.478E-12	547.592E-3	-28.3101E-3
2.73387E-3	121.343E-12	549.812E-3	-3.91191E-3	120.705E-12	534.422E-3	-40.9439E-3
2.72886E-3	121.127E-12	536.277E-3	-13.5784E-3	120.684E-12	543.560E-3	-29.2166E-3
2.72386E-3	119.977E-12	543.592E-3	-16.8554E-3	120.610E-12	551.300E-3	-13.6432E-3
2.71886E-3	119.514E-12	539.479E-3	-16.8104E-3	121.084E-12	546.057E-3	-8.19943E-3
2.71386E-3	119.285E-12	531.396E-3	-8.12245E-3	120.014E-12	558.541E-3	-6.35316E-3
2.70885E-3	118.269E-12	534.724E-3	-5.17531E-3	119.115E-12	566.399E-3	-18.3800E-3
2.70385E-3	117.621E-12	537.732E-3	-17.1620E-3	118.686E-12	551.596E-3	-19.0426E-3
2.69885E-3	117.429E-12	529.092E-3	-14.8236E-3	118.791E-12	547.992E-3	-16.0682E-3
2.69385E-3	118.153E-12	520.387E-3	-7.61172E-3	119.152E-12	537.067E-3	-25.8301E-3
2.68884E-3	118.095E-12	524.420E-3	-18.1456E-3	119.144E-12	514.682E-3	-24.5088E-3
2.68384E-3	118.616E-12	537.806E-3	-24.6716E-3	118.196E-12	527.171E-3	-16.9172E-3
2.67884E-3	118.083E-12	538.090E-3	-7.38499E-3	117.688E-12	547.617E-3	-9.07972E-3
2.67384E-3	119.120E-12	516.691E-3	2.83170E-3	118.644E-12	559.023E-3	747.410E-6
2.66883E-3	118.625E-12	502.335E-3	-12.0957E-3	119.587E-12	559.943E-3	6.69222E-3
2.66383E-3	119.059E-12	512.060E-3	-16.4288E-3	119.417E-12	540.549E-3	13.4562E-3
2.65883E-3	118.655E-12	530.837E-3	1.94928E-3	118.267E-12	538.495E-3	23.6557E-3
2.65383E-3	118.171E-12	538.889E-3	8.99911E-3	119.090E-12	563.789E-3	31.6835E-3
2.64882E-3	118.503E-12	524.458E-3	-262.225E-6	119.750E-12	581.164E-3	14.9257E-3
2.64382E-3	117.955E-12	520.649E-3	-5.85921E-3	119.694E-12	569.157E-3	3.37890E-3
2.63882E-3	118.108E-12	549.431E-3	-14.0015E-3	119.225E-12	552.618E-3	17.5505E-3
2.63382E-3	117.162E-12	563.121E-3	-21.2459E-3	118.928E-12	549.254E-3	17.1968E-3
2.62881E-3	117.730E-12	551.058E-3	-26.4904E-3	118.383E-12	544.038E-3	6.09319E-3
2.62381E-3	117.034E-12	539.774E-3	-18.9317E-3	117.572E-12	536.795E-3	-3.14721E-3
2.61881E-3	117.099E-12	535.351E-3	-11.6655E-3	116.198E-12	532.127E-3	-2.76658E-3
2.61381E-3	117.562E-12	537.130E-3	-23.9423E-3	115.825E-12	535.265E-3	1.42902E-3
2.60880E-3	117.841E-12	549.719E-3	-28.2627E-3	116.590E-12	555.881E-3	-4.09372E-3
2.60380E-3	118.318E-12	568.067E-3	-11.1228E-3	116.863E-12	558.858E-3	-17.8077E-3
2.59880E-3	117.802E-12	579.641E-3	13.6258E-3	116.041E-12	536.006E-3	-20.8747E-3
2.59380E-3	118.732E-12	570.959E-3	23.9279E-3	114.917E-12	535.200E-3	-2.27343E-3
2.58879E-3	117.935E-12	549.671E-3	18.3914E-3	115.974E-12	552.203E-3	4.31695E-3
2.58379E-3	117.883E-12	539.172E-3	4.78591E-3	117.335E-12	544.087E-3	1.57581E-3
2.57879E-3	117.300E-12	541.232E-3	-16.7925E-3	117.069E-12	528.841E-3	-4.19561E-3
2.57379E-3	116.993E-12	554.575E-3	-27.8162E-3	115.883E-12	541.086E-3	-25.7626E-3
2.56878E-3	115.450E-12	561.673E-3	-29.2622E-3	116.471E-12	552.417E-3	-17.9901E-3
2.56378E-3	115.472E-12	559.759E-3	-25.2716E-3	118.042E-12	554.180E-3	13.7178E-3
2.55878E-3	115.628E-12	557.875E-3	-16.6910E-3	117.148E-12	545.079E-3	6.60408E-3
2.55378E-3	115.288E-12	548.397E-3	-22.0315E-3	115.622E-12	517.216E-3	-19.5306E-3
2.54877E-3	113.891E-12	539.188E-3	-25.7434E-3	114.693E-12	509.008E-3	-25.8161E-3
2.54377E-3	112.997E-12	540.761E-3	-15.0827E-3	114.239E-12	518.645E-3	-28.1886E-3
2.53877E-3	113.836E-12	552.025E-3	-6.71588E-3	113.859E-12	515.360E-3	-32.3013E-3
2.53377E-3	114.452E-12	563.735E-3	1.39219E-3	112.274E-12	518.774E-3	-26.6757E-3
2.52876E-3	112.988E-12	567.190E-3	12.9761E-3	110.257E-12	547.636E-3	-26.4325E-3
2.52376E-3	112.163E-12	559.270E-3	11.7971E-3	109.259E-12	553.594E-3	-35.0183E-3
2.51876E-3	113.508E-12	556.380E-3	-1.73738E-3	110.387E-12	524.205E-3	-33.9142E-3
2.51376E-3	114.814E-12	565.730E-3	-10.4982E-3	110.374E-12	516.604E-3	-18.3363E-3
2.50875E-3	114.424E-12	563.025E-3	-8.28925E-3	110.314E-12	532.126E-3	1.66438E-3
2.50375E-3	113.591E-12	549.448E-3	1.12382E-3	109.900E-12	543.658E-3	8.72334E-3
2.49875E-3	113.349E-12	542.027E-3	16.7666E-3	111.167E-12	550.425E-3	-12.6028E-3
2.49375E-3	113.775E-12	529.752E-3	17.6424E-3	112.508E-12	551.187E-3	-47.0149E-3
2.48874E-3	113.162E-12	535.420E-3	-2.72411E-3	112.649E-12	548.951E-3	-48.3013E-3
2.48374E-3	112.274E-12	569.540E-3	-8.75089E-3	113.080E-12	545.129E-3	-31.6642E-3
2.47874E-3	111.547E-12	577.169E-3	-5.40322E-3	112.874E-12	537.731E-3	-21.3693E-3
2.47374E-3	111.509E-12	566.511E-3	-11.5482E-3	113.605E-12	540.998E-3	-6.16854E-3
2.46873E-3	111.510E-12	567.555E-3	-1.33806E-3	113.176E-12	557.568E-3	-7.49961E-3
2.46373E-3	111.389E-12	567.185E-3	10.7373E-3	112.742E-12	562.236E-3	-11.9560E-3
2.45873E-3	110.586E-12	572.035E-3	10.8440E-3	112.618E-12	561.867E-3	-2.50673E-3
2.45373E-3	110.502E-12	579.239E-3	13.0433E-3	111.522E-12	567.378E-3	-13.1135E-3
2.44872E-3	109.996E-12	568.449E-3	4.23471E-3	111.151E-12	563.053E-3	-39.5697E-3
2.44372E-3	110.223E-12	552.583E-3	-9.85749E-3	110.828E-12	562.632E-3	-38.1578E-3
2.43872E-3	109.599E-12	554.906E-3	-17.8966E-3	110.080E-12	565.271E-3	-16.8824E-3
2.43372E-3	109.367E-12	557.752E-3	-23.2476E-3	109.373E-12	552.281E-3	-19.3408E-3
2.42871E-3	109.207E-12	549.260E-3	-17.5603E-3	108.865E-12	542.510E-3	-34.6586E-3
2.42371E-3	109.918E-12	536.048E-3	-6.26442E-3	108.565E-12	538.391E-3	-32.8350E-3
2.41871E-3	109.518E-12	522.398E-3	-14.8640E-3	108.649E-12	528.853E-3	-24.4138E-3
2.41371E-3	110.020E-12	518.375E-3	-30.9042E-3	108.808E-12	529.786E-3	-18.9736E-3
2.40870E-3	110.013E-12	519.068E-3	-25.2385E-3	108.638E-12	538.646E-3	-13.8683E-3
2.40370E-3	109.752E-12	508.902E-3	-17.0514E-3	109.567E-12	526.185E-3	-12.7685E-3
2.39870E-3	109.457E-12	502.474E-3	-17.4509E-3	109.856E-12	521.842E-3	-12.3652E-3
2.39370E-3	108.812E-12	522.507E-3	-10.6524E-3	110.021E-12	549.770E-3	-19.0667E-3
2.38869E-3	108.923E-12	550.351E-3	-11.1422E-3	109.335E-12	545.394E-3	-15.1392E-3
2.38369E-3	108.708E-12	555.686E-3	-17.8130E-3	110.109E-12	523.618E-3	9.59371E-3
2.37869E-3	108.680E-12	551.561E-3	-16.6239E-3	110.329E-12	535.716E-3	8.06693E-3
2.37369E-3	108.034E-12	543.121E-3	-8.02556E-3	110.478E-12	544.587E-3	-12.8962E-3
2.36868E-3	107.922E-12	526.615E-3	-9.00215E-3	109.264E-12	539.463E-3	-19.4717E-3
2.36368E-3	107.584E-12	513.628E-3	-17.9941E-3	108.003E-12	535.615E-3	-25.5009E-3
2.35868E-3	107.675E-12	507.234E-3	-17.1977E-3	108.408E-12	524.301E-3	-30.7841E-3
2.35368E-3	106.835E-12	522.910E-3	-26.8759E-3	107.670E-12	522.513E-3	-24.4058E-3
2.34867E-3	106.711E-12	545.545E-3	-40.8903E-3	107.125E-12	537.502E-3	-29.9374E-3
2.34367E-3	107.694E-12	533.819E-3	-46.7426E-3	106.360E-12	538.186E-3	-48.3426E-3
2.33867E-3	107.945E-12	517.913E-3	-50.8817E-3	106.877E-12	527.535E-3	-40.7913E-3
2.33367E-3	107.234E-12	535.083E-3	-23.1325E-3	106.799E-12	539.840E-3	-14.4011E-3
2.32866E-3	107.000E-12	546.489E-3	3.03760E-3	107.197E-12	559.744E-3	-4.41289E-3
2.32366E-3	107.637E-12	553.283E-3	-9.25074E-3	107.230E-12	557.202E-3	-9.59159E-3
2.31866E-3	108.736E-12	561.714E-3	-17.5688E-3	107.492E-12	546.072E-3	-19.0397E-3
2.31366E-3	108.425E-12	562.259E-3	-13.3703E-3	107.381E-12	537.892E-3	-25.1981E-3
2.30865E-3	107.534E-12	559.316E-3	-11.9362E-3	107.364E-12	532.504E-3	-19.3271E-3
2.30365E-3	107.585E-12	553.985E-3	-14.0296E-3	106.758E-12	545.484E-3	-12.9101E-3
2.29865E-3	107.658E-12	558.917E-3	-22.4016E-3	106.900E-12	557.814E-3	-10.8999E-3
2.29365E-3	107.508E-12	554.682E-3	-37.3133E-3	107.056E-12	543.122E-3	-3.59112E-3
2.28864E-3	106.324E-12	537.328E-3	-33.9258E-3	105.903E-12	524.902E-3	1.27316E-3
2.28364E-3	106.157E-12	534.359E-3	-13.1448E-3	105.050E-12	509.935E-3	-5.62711E-3
2.27864E-3	106.285E-12	532.806E-3	-8.16300E-3	104.604E-12	499.179E-3	243.304E-6
2.27364E-3	106.260E-12	524.813E-3	-22.4312E-3	104.893E-12	520.787E-3	4.61762E-3
2.26863E-3	105.134E-12	523.625E-3	-28.3799E-3	103.796E-12	545.076E-3	-12.9694E-3
2.26363E-3	105.045E-12	524.536E-3	-25.0847E-3	102.130E-12	537.261E-3	-19.1966E-3
2.25863E-3	104.937E-12	528.926E-3	-24.3365E-3	102.973E-12	531.345E-3	-16.9878E-3
2.25363E-3	104.743E-12	540.072E-3	-21.1292E-3	103.372E-12	529.304E-3	-16.3151E-3
2.24862E-3	104.359E-12	544.566E-3	-17.9347E-3	103.707E-12	529.237E-3	-3.34439E-3
2.24362E-3	104.103E-12	538.109E-3	-17.3087E-3	102.526E-12	556.260E-3	-1.98209E-3
2.23862E-3	103.624E-12	522.054E-3	-14.9338E-3	102.777E-12	565.659E-3	-28.0771E-3
2.23362E-3	103.460E-12	506.491E-3	-10.6949E-3	103.521E-12	544.923E-3	-26.2694E-3
2.22861E-3	103.307E-12	515.975E-3	-8.39741E-3	104.012E-12	545.329E-3	1.14960E-3
2.22361E-3	102.690E-12	533.843E-3	-19.0059E-3	103.456E-12	548.434E-3	-955.453E-6
2.21861E-3	101.870E-12	543.648E-3	-31.2023E-3	102.646E-12	522.823E-3	-14.5947E-3
2.21361E-3	102.006E-12	548.930E-3	-19.2446E-3	103.138E-12	500.759E-3	-19.0955E-3
2.20860E-3	101.987E-12	542.651E-3	7.52870E-3	103.384E-12	506.903E-3	-22.4909E-3
2.20360E-3	101.512E-12	544.145E-3	19.1642E-3	102.847E-12	518.305E-3	-21.3517E-3
2.19860E-3	100.866E-12	552.801E-3	8.94979E-3	100.983E-12	528.518E-3	-16.9151E-3
2.19360E-3	101.857E-12	540.945E-3	657.915E-6	100.505E-12	532.407E-3	-24.0056E-3
2.18859E-3	102.227E-12	506.122E-3	390.328E-6	101.231E-12	514.195E-3	-23.6263E-3
2.18359E-3	101.683E-12	495.228E-3	8.36623E-3	100.777E-12	504.113E-3	1.95646E-3
2.17859E-3	101.366E-12	522.216E-3	20.0980E-3	100.126E-12	512.751E-3	6.74705E-3
2.17359E-3	101.422E-12	543.264E-3	16.9197E-3	100.354E-12	513.826E-3	-17.0309E-3
2.16858E-3	101.764E-12	552.983E-3	-3.48716E-3	100.512E-12	510.103E-3	-19.6747E-3
2.16358E-3	101.727E-12	561.861E-3	-14.3053E-3	100.936E-12	524.046E-3	-8.80279E-3
2.15858E-3	101.775E-12	551.883E-3	-20.0418E-3	101.290E-12	538.721E-3	-8.60867E-3
2.15358E-3	101.724E-12	537.114E-3	-35.2839E-3	101.670E-12	542.192E-3	3.12293E-3
2.14857E-3	101.505E-12	545.569E-3	-35.6447E-3	101.445E-12	554.576E-3	10.0735E-3
2.14357E-3	100.429E-12	549.156E-3	-21.9714E-3	101.068E-12	553.163E-3	-1.55362E-3
2.13857E-3	99.9693E-12	545.708E-3	-11.8254E-3	100.564E-12	539.210E-3	-16.7702E-3
2.13357E-3	99.9135E-12	554.424E-3	-11.0560E-3	101.400E-12	543.118E-3	-45.4249E-3
2.12856E-3	99.5354E-12	560.092E-3	-9.99865E-3	100.661E-12	542.938E-3	-61.2700E-3
2.12356E-3	98.5124E-12	546.048E-3	-6.22612E-3	99.6720E-12	540.019E-3	-46.5758E-3
2.11856E-3	97.8919E-12	522.788E-3	-18.9793E-3	98.8249E-12	526.128E-3	-38.7148E-3
2.11356E-3	98.0254E-12	506.339E-3	-33.6577E-3	98.5040E-12	478.337E-3	-35.1909E-3
2.10855E-3	97.2423E-12	502.834E-3	-28.6295E-3	98.0253E-12	462.242E-3	-12.5146E-3
2.10355E-3	96.7420E-12	507.948E-3	-23.5160E-3	96.2793E-12	491.079E-3	-255.615E-6
2.09855E-3	96.8447E-12	508.862E-3	-32.2523E-3	95.5757E-12	501.271E-3	-15.4831E-3
2.09355E-3	97.3161E-12	515.598E-3	-40.6022E-3	95.3212E-12	504.225E-3	-22.0028E-3
2.08854E-3	96.7357E-12	518.793E-3	-28.6690E-3	96.4371E-12	521.253E-3	-18.7217E-3
2.08354E-3	96.3988E-12	503.536E-3	-8.14501E-3	96.7721E-12	518.203E-3	-12.7798E-3
2.07854E-3	96.9613E-12	494.766E-3	-9.34897E-3	96.2684E-12	521.775E-3	-5.38062E-3
2.07354E-3	97.2922E-12	515.473E-3	-25.3297E-3	96.3235E-12	541.219E-3	-14.6383E-3
2.06853E-3	97.2453E-12	534.241E-3	-24.6600E-3	97.4505E-12	519.143E-3	-23.8402E-3
2.06353E-3	96.7516E-12	533.584E-3	-12.3413E-3	97.8999E-12	507.222E-3	-13.4796E-3
2.05853E-3	97.7910E-12	539.834E-3	-7.11772E-3	97.8832E-12	531.471E-3	-5.53090E-3
2.05353E-3	97.8904E-12	538.560E-3	-10.0903E-3	98.1740E-12	526.788E-3	-14.6936E-3
2.04852E-3	96.9946E-12	522.218E-3	-25.2662E-3	97.6626E-12	515.796E-3	-28.2698E-3
2.04352E-3	96.0851E-12	522.110E-3	-25.0915E-3	97.6440E-12	517.168E-3	-46.3899E-3
2.03852E-3	96.6182E-12	531.706E-3	-9.99453E-3	97.5993E-12	504.044E-3	-48.0420E-3
2.03352E-3	97.1525E-12	538.190E-3	-11.6825E-3	97.0591E-12	496.755E-3	-22.0778E-3
2.02851E-3	96.4643E-12	546.572E-3	-19.5446E-3	96.5217E-12	508.339E-3	-11.3686E-3
2.02351E-3	96.1229E-12	544.920E-3	-15.7136E-3	95.6192E-12	512.477E-3	-17.3792E-3
2.01851E-3	96.3264E-12	539.413E-3	-1.30784E-3	96.0063E-12	519.886E-3	-14.7184E-3
2.01351E-3	96.5334E-12	534.707E-3	-881.357E-6	95.2388E-12	535.171E-3	-20.0089E-3
2.00850E-3	95.4901E-12	535.876E-3	-17.5460E-3	94.7331E-12	519.836E-3	-29.5973E-3
2.00350E-3	94.6505E-12	545.015E-3	-31.1694E-3	94.3500E-12	507.868E-3	-18.2444E-3
1.99850E-3	95.8111E-12	534.385E-3	-33.3813E-3	94.0733E-12	536.007E-3	-3.45004E-3
1.99350E-3	95.4341E-12	505.109E-3	-24.2139E-3	93.5067E-12	533.537E-3	-14.7018E-3
1.98849E-3	94.0455E-12	497.312E-3	-14.1581E-3	93.9769E-12	512.478E-3	-21.4875E-3
1.98349E-3	93.0930E-12	502.193E-3	-11.6185E-3	94.4874E-12	539.170E-3	-13.6139E-3
1.97849E-3	93.8723E-12	501.293E-3	-12.8572E-3	94.0404E-12	558.561E-3	-16.0824E-3
1.97349E-3	93.7764E-12	508.024E-3	-17.4353E-3	94.0849E-12	547.210E-3	-10.2524E-3
1.96848E-3	93.5486E-12	516.418E-3	-24.1392E-3	94.6858E-12	528.664E-3	-9.22620E-3
1.96348E-3	92.7578E-12	524.708E-3	-13.2914E-3	95.3379E-12	505.296E-3	-21.0503E-3
1.95848E-3	93.7139E-12	516.557E-3	1.86338E-3	94.3875E-12	499.707E-3	-24.3931E-3
1.95348E-3	93.6025E-12	498.174E-3	6.28205E-3	93.5141E-12	507.556E-3	-22.7550E-3
1.94847E-3	92.7183E-12	501.506E-3	3.80389E-3	93.5789E-12	501.535E-3	-24.1821E-3
1.94347E-3	91.9846E-12	517.258E-3	-11.8917E-3	94.4417E-12	497.944E-3	-12.7772E-3
1.93847E-3	92.1627E-12	525.086E-3	-22.3527E-3	92.9761E-12	517.955E-3	4.18168E-3
1.93347E-3	92.7770E-12	523.454E-3	-21.1771E-3	92.4233E-12	524.710E-3	-8.55607E-3
1.92846E-3	92.9714E-12	520.129E-3	-23.0094E-3	92.0210E-12	509.535E-3	-18.3848E-3
1.92346E-3	92.9761E-12	515.279E-3	-20.3489E-3	91.7793E-12	514.977E-3	-18.0507E-3
1.91846E-3	92.7410E-12	513.796E-3	-9.74334E-3	90.9045E-12	521.716E-3	-41.3960E-3
1.91346E-3	92.5589E-12	522.712E-3	-9.10497E-3	89.8772E-12	503.137E-3	-41.4278E-3
1.90845E-3	91.6906E-12	527.753E-3	-10.1137E-3	89.8668E-12	488.204E-3	-8.20469E-3
1.90345E-3	90.8861E-12	524.948E-3	-17.2345E-3	90.2031E-12	476.060E-3	-11.4329E-3
1.89845E-3	91.0901E-12	516.482E-3	-37.2803E-3	90.1654E-12	474.103E-3	-35.1394E-3
1.89345E-3	90.9499E-12	501.061E-3	-38.2118E-3	90.3292E-12	508.831E-3	-39.3153E-3
1.88844E-3	90.4352E-12	496.320E-3	-25.7675E-3	90.2396E-12	530.453E-3	-34.2520E-3
1.88344E-3	89.5497E-12	498.765E-3	-12.2791E-3	91.0091E-12	510.231E-3	-22.8717E-3
1.87844E-3	90.1556E-12	483.884E-3	11.8035E-3	91.8417E-12	506.196E-3	-11.8012E-3
1.87344E-3	89.8790E-12	477.797E-3	13.4901E-3	91.3114E-12	517.122E-3	-23.4095E-3
1.86843E-3	89.0941E-12	493.313E-3	-6.99205E-3	90.1289E-12	511.952E-3	-40.6289E-3
1.86343E-3	88.6219E-12	497.412E-3	-13.4266E-3	90.2604E-12	517.994E-3	-33.4197E-3
1.85843E-3	89.0852E-12	492.174E-3	-16.8909E-3	91.5336E-12	524.663E-3	-29.6688E-3
1.85343E-3	88.9719E-12	496.445E-3	-12.5869E-3	91.2748E-12	503.735E-3	-30.9285E-3
1.84842E-3	89.1876E-12	511.885E-3	376.918E-6	90.1622E-12	496.174E-3	-14.2578E-3
1.84342E-3	89.3460E-12	518.344E-3	3.62260E-3	89.9770E-12	497.842E-3	-10.0150E-3
1.83842E-3	89.7562E-12	508.058E-3	-3.48791E-3	90.1537E-12	474.730E-3	-6.72001E-3
1.83342E-3	89.5944E-12	502.257E-3	-4.93965E-3	90.3511E-12	476.379E-3	17.0547E-3
1.82841E-3	89.4331E-12	501.946E-3	9.60705E-3	89.1926E-12	501.616E-3	17.5099E-3
1.82341E-3	89.3796E-12	502.569E-3	8.42521E-3	88.4755E-12	498.679E-3	-8.70357E-3
1.81841E-3	89.0562E-12	496.255E-3	-11.1615E-3	88.5696E-12	499.335E-3	-18.1608E-3
1.81341E-3	88.4814E-12	494.778E-3	-12.2767E-3	88.7494E-12	512.166E-3	-14.2094E-3
1.80840E-3	87.9789E-12	508.992E-3	4.04449E-3	88.3477E-12	505.316E-3	-12.9546E-3
1.80340E-3	88.3130E-12	507.807E-3	-3.46636E-3	87.5155E-12	512.519E-3	-15.6308E-3
1.79840E-3	87.8212E-12	492.485E-3	-30.9616E-3	88.1018E-12	521.663E-3	-29.8838E-3
1.79340E-3	87.7624E-12	477.538E-3	-36.0747E-3	88.1099E-12	499.765E-3	-33.9703E-3
1.78839E-3	87.2628E-12	471.106E-3	-19.3121E-3	87.3495E-12	483.449E-3	-15.8940E-3
1.78339E-3	87.1243E-12	482.953E-3	-10.0510E-3	86.9544E-12	483.550E-3	-17.2266E-3
1.77839E-3	86.7461E-12	495.767E-3	-13.5965E-3	86.9217E-12	482.363E-3	-38.9061E-3
1.77339E-3	86.3420E-12	490.456E-3	-11.9108E-3	86.9335E-12	480.801E-3	-41.7659E-3
1.76838E-3	86.1600E-12	473.584E-3	-2.90960E-3	86.4382E-12	480.884E-3	-40.3215E-3
1.76338E-3	86.4134E-12	480.729E-3	-5.03190E-3	86.1787E-12	481.692E-3	-32.7989E-3
1.75838E-3	86.4654E-12	498.082E-3	-15.7812E-3	86.1385E-12	495.389E-3	-20.5294E-3
1.75338E-3	86.2921E-12	492.556E-3	-16.2026E-3	86.5194E-12	507.650E-3	-24.1744E-3
1.74837E-3	86.6794E-12	481.719E-3	-15.1501E-3	85.5428E-12	498.297E-3	-21.4244E-3
1.74337E-3	86.9353E-12	482.999E-3	-18.2801E-3	85.7675E-12	497.589E-3	-4.74494E-3
1.73837E-3	87.1477E-12	484.270E-3	-23.5195E-3	85.5006E-12	501.911E-3	-3.57547E-3
1.73337E-3	86.7455E-12	478.169E-3	-30.1959E-3	85.9415E-12	480.548E-3	-8.76773E-3
1.72836E-3	86.7515E-12	483.371E-3	-23.1940E-3	85.7479E-12	467.249E-3	-2.80646E-3
1.72336E-3	86.6229E-12	488.693E-3	-15.0375E-3	85.5390E-12	492.306E-3	-2.75351E-3
1.71836E-3	86.2018E-12	484.895E-3	-17.2772E-3	86.0832E-12	501.990E-3	-7.69327E-3
1.71336E-3	85.6006E-12	496.064E-3	-22.0190E-3	86.3017E-12	478.688E-3	-5.48801E-3
1.70835E-3	85.5601E-12	496.825E-3	-14.9051E-3	86.2393E-12	473.888E-3	-2.48791E-3
1.70335E-3	85.7759E-12	473.527E-3	-1.94344E-3	85.6074E-12	477.269E-3	-1.65149E-3
1.69835E-3	85.6472E-12	473.834E-3	-8.14047E-3	85.4899E-12	480.673E-3	4.67634E-3
1.69335E-3	84.6260E-12	491.754E-3	-17.4692E-3	84.6417E-12	484.923E-3	-5.53164E-3
1.68834E-3	84.5607E-12	489.389E-3	-21.8065E-3	83.4954E-12	465.748E-3	-21.7267E-3
1.68334E-3	85.0417E-12	470.417E-3	-24.0332E-3	82.6610E-12	452.347E-3	-6.91739E-3
1.67834E-3	85.1876E-12	464.392E-3	-15.7587E-3	82.3223E-12	466.928E-3	-189.810E-6
1.67334E-3	84.2135E-12	475.589E-3	-7.57104E-3	81.9196E-12	480.341E-3	-20.6247E-3
1.66833E-3	83.8339E-12	477.239E-3	-11.0860E-3	81.4571E-12	485.742E-3	-33.4958E-3
1.66333E-3	83.2861E-12	462.134E-3	-3.29160E-3	80.9813E-12	488.803E-3	-31.7562E-3
1.65833E-3	83.0151E-12	450.842E-3	7.51186E-3	80.4957E-12	478.070E-3	-12.9393E-3
1.65333E-3	82.6489E-12	452.454E-3	-2.69604E-3	81.2069E-12	462.218E-3	8.76894E-3
1.64832E-3	82.2317E-12	460.934E-3	-7.56107E-3	81.3044E-12	451.830E-3	5.87216E-3
1.64332E-3	81.8700E-12	469.466E-3	-11.1189E-3	81.7018E-12	457.206E-3	-11.0011E-3
1.63832E-3	81.7001E-12	471.689E-3	-20.6286E-3	81.3957E-12	476.159E-3	-23.3872E-3
1.63332E-3	81.8729E-12	478.298E-3	-26.9635E-3	82.6355E-12	479.420E-3	-30.5169E-3
1.62831E-3	81.7266E-12	502.978E-3	-25.4536E-3	83.4688E-12	468.875E-3	-31.4085E-3
1.62331E-3	81.1190E-12	511.328E-3	-7.81219E-3	83.8129E-12	464.230E-3	-27.5278E-3
1.61831E-3	81.0350E-12	483.096E-3	4.04190E-3	83.5465E-12	465.863E-3	-25.4743E-3
1.61331E-3	81.6434E-12	454.812E-3	3.46514E-3	83.2303E-12	459.196E-3	-25.4279E-3
1.60830E-3	81.9542E-12	449.324E-3	5.75098E-3	83.1066E-12	452.316E-3	-15.0626E-3
1.60330E-3	80.5916E-12	454.337E-3	-773.986E-6	82.8511E-12	451.326E-3	-13.3570E-3
1.59830E-3	80.4122E-12	460.806E-3	-16.5379E-3	82.1939E-12	436.964E-3	-27.0335E-3
1.59330E-3	81.9314E-12	467.748E-3	-18.6738E-3	81.2361E-12	419.630E-3	-22.5272E-3
1.58829E-3	82.9393E-12	462.290E-3	-7.68186E-3	80.1333E-12	425.767E-3	-17.5790E-3
1.58329E-3	81.7430E-12	457.846E-3	-4.12128E-3	80.2339E-12	429.865E-3	-25.7342E-3
1.57829E-3	80.8716E-12	463.237E-3	-9.37110E-3	79.8452E-12	431.708E-3	-17.4316E-3
1.57329E-3	81.7809E-12	463.034E-3	-14.3391E-3	79.2422E-12	440.140E-3	-16.7062E-3
1.56828E-3	82.0027E-12	454.961E-3	-16.8222E-3	78.8308E-12	417.914E-3	-38.9108E-3
1.56328E-3	81.2726E-12	443.825E-3	-15.2481E-3	78.8982E-12	403.623E-3	-42.4661E-3
1.55828E-3	79.8988E-12	441.342E-3	-8.46931E-3	79.5141E-12	426.839E-3	-32.4423E-3
1.55328E-3	79.9875E-12	443.466E-3	-6.41534E-3	79.0779E-12	428.741E-3	-29.8155E-3
1.54827E-3	80.4669E-12	429.931E-3	-12.9762E-3	79.7757E-12	416.125E-3	-12.4005E-3
1.54327E-3	79.6838E-12	417.013E-3	-12.7497E-3	80.3610E-12	423.214E-3	-1.18340E-3
1.53827E-3	78.6020E-12	421.183E-3	-14.2525E-3	80.5749E-12	430.090E-3	-23.2529E-3
1.53327E-3	78.1292E-12	429.574E-3	-24.3721E-3	80.8360E-12	432.492E-3	-36.1171E-3
1.52826E-3	78.9238E-12	422.295E-3	-24.6751E-3	81.2003E-12	427.518E-3	-28.1063E-3
1.52326E-3	79.0694E-12	407.744E-3	-21.7383E-3	81.2464E-12	413.346E-3	-17.6220E-3
1.51826E-3	79.0107E-12	408.836E-3	-25.2135E-3	80.5109E-12	406.762E-3	-9.95500E-3
1.51326E-3	78.6946E-12	412.859E-3	-21.1838E-3	80.0560E-12	404.701E-3	-14.9850E-3
1.50825E-3	78.8666E-12	421.762E-3	-11.5712E-3	80.2493E-12	401.414E-3	-20.8788E-3
1.50325E-3	80.0070E-12	431.334E-3	-9.60629E-3	79.8602E-12	400.704E-3	-9.71109E-3
1.49825E-3	79.9066E-12	425.694E-3	-9.80702E-3	78.9643E-12	411.945E-3	-1.71109E-3
1.49325E-3	79.1047E-12	412.986E-3	-15.2943E-3	78.3115E-12	416.483E-3	791.913E-6
1.48824E-3	78.3735E-12	394.527E-3	-16.5898E-3	77.9151E-12	406.868E-3	17.2586E-3
1.48324E-3	79.5307E-12	386.837E-3	-3.22777E-3	77.6261E-12	404.262E-3	22.5385E-3
1.47824E-3	79.1115E-12	390.703E-3	-3.89256E-3	77.5308E-12	387.044E-3	-1.17415E-3
1.47324E-3	78.5697E-12	392.925E-3	-11.1816E-3	77.1230E-12	361.083E-3	-8.13918E-3
1.46823E-3	77.5069E-12	389.265E-3	-9.82796E-3	76.9854E-12	367.142E-3	-14.6309E-6
1.46323E-3	77.2269E-12	385.827E-3	-19.3283E-3	76.8908E-12	382.232E-3	-6.13559E-3
1.45823E-3	77.5162E-12	410.534E-3	-27.7740E-3	77.3518E-12	379.615E-3	-3.00830E-3
1.45323E-3	77.2679E-12	433.042E-3	-17.1638E-3	77.2462E-12	385.715E-3	-2.25649E-3
1.44822E-3	77.0023E-12	409.969E-3	-10.2668E-3	77.2783E-12	383.287E-3	-13.8336E-3
1.44322E-3	76.9121E-12	382.346E-3	-16.9424E-3	76.8151E-12	360.091E-3	-25.3534E-3
1.43822E-3	76.7789E-12	384.665E-3	-25.7566E-3	76.9883E-12	359.013E-3	-26.3510E-3
1.43322E-3	76.8254E-12	394.844E-3	-26.9131E-3	77.7242E-12	367.399E-3	-21.8016E-3
1.42821E-3	77.0897E-12	410.458E-3	-23.3401E-3	77.3447E-12	353.688E-3	-19.5917E-3
1.42321E-3	77.1156E-12	416.303E-3	-22.3418E-3	76.3692E-12	346.262E-3	-9.16752E-3
1.41821E-3	77.1845E-12	386.149E-3	-23.3658E-3	76.1641E-12	346.301E-3	-10.6852E-3
1.41321E-3	77.7498E-12	359.958E-3	-29.4979E-3	77.3853E-12	339.238E-3	-29.5417E-3
1.40820E-3	77.7196E-12	358.092E-3	-34.7339E-3	77.4270E-12	347.857E-3	-32.4317E-3
1.40320E-3	77.3543E-12	355.483E-3	-28.6800E-3	76.0830E-12	355.232E-3	-28.2623E-3
1.39820E-3	76.9506E-12	345.448E-3	-17.6462E-3	75.4919E-12	341.205E-3	-28.5735E-3
1.39320E-3	76.7839E-12	336.936E-3	-13.0322E-3	76.3186E-12	325.074E-3	-28.6509E-3
1.38819E-3	76.7794E-12	333.056E-3	-16.1798E-3	76.3223E-12	324.115E-3	-33.4503E-3
1.38319E-3	76.3852E-12	334.717E-3	-25.3972E-3	75.7231E-12	330.631E-3	-32.5681E-3
1.37819E-3	75.8097E-12	341.830E-3	-33.3604E-3	75.1127E-12	332.827E-3	-27.1724E-3
1.37319E-3	75.3755E-12	350.065E-3	-36.0948E-3	75.4352E-12	331.223E-3	-41.1813E-3
1.36818E-3	75.4786E-12	344.418E-3	-37.8674E-3	75.8230E-12	317.647E-3	-48.4609E-3
1.36318E-3	75.2931E-12	313.026E-3	-20.9985E-3	74.9854E-12	311.035E-3	-14.7714E-3
1.35818E-3	75.2286E-12	292.377E-3	1.97364E-3	74.1752E-12	318.095E-3	6.38694E-3
1.35318E-3	74.8431E-12	307.271E-3	1.03142E-3	73.7754E-12	300.292E-3	-4.92957E-3
1.34817E-3	75.3189E-12	312.692E-3	-5.08896E-3	74.1299E-12	276.905E-3	-7.18642E-3
1.34317E-3	75.1307E-12	296.771E-3	-4.76928E-3	73.8618E-12	288.335E-3	-5.79612E-3
1.33817E-3	75.1572E-12	292.534E-3	-5.17004E-3	72.8753E-12	300.306E-3	-9.06130E-3
1.33317E-3	74.7789E-12	286.586E-3	-5.05139E-3	72.5655E-12	293.795E-3	-6.29569E-3
1.32816E-3	75.3676E-12	280.870E-3	-6.42445E-3	72.9869E-12	297.412E-3	-11.6018E-3
1.32316E-3	75.7101E-12	288.950E-3	-4.16659E-3	73.6363E-12	292.280E-3	-14.8260E-3
1.31816E-3	75.1728E-12	295.103E-3	-5.41575E-3	73.7494E-12	276.369E-3	-10.1161E-3
1.31316E-3	74.4023E-12	292.087E-3	-3.73557E-3	73.6439E-12	271.797E-3	-12.9248E-3
1.30815E-3	74.5227E-12	282.806E-3	11.0055E-3	74.0651E-12	264.003E-3	-9.57041E-3
1.30315E-3	74.6982E-12	276.115E-3	8.79696E-3	74.9900E-12	270.211E-3	1.90676E-3
1.29815E-3	74.4161E-12	278.171E-3	-11.6009E-3	75.3683E-12	284.849E-3	-2.57217E-3
1.29315E-3	74.1562E-12	271.043E-3	-19.6074E-3	75.1882E-12	277.736E-3	-12.9756E-3
1.28814E-3	74.1888E-12	253.647E-3	-6.12445E-3	76.1099E-12	262.470E-3	-7.86094E-3
1.28314E-3	73.8438E-12	253.003E-3	3.38580E-3	76.3974E-12	247.834E-3	-13.3484E-3
1.27814E-3	73.6234E-12	266.794E-3	-15.9298E-3	76.1823E-12	223.544E-3	-20.2025E-3
1.27314E-3	73.3992E-12	265.289E-3	-31.3499E-3	74.9977E-12	208.936E-3	-7.19734E-3
1.26813E-3	73.4177E-12	246.520E-3	-24.0957E-3	74.4514E-12	221.905E-3	-1.46958E-3
1.26313E-3	72.9994E-12	242.842E-3	-13.2699E-3	74.3588E-12	226.677E-3	-1.23420E-3
1.25813E-3	73.1540E-12	245.014E-3	-2.83843E-3	73.2315E-12	211.238E-3	11.4480E-3
1.25313E-3	73.1562E-12	233.209E-3	1.28317E-3	72.4581E-12	199.524E-3	14.2788E-3
1.24812E-3	73.6082E-12	232.929E-3	-2.56576E-3	71.8013E-12	193.133E-3	-1.91792E-3
1.24312E-3	73.2614E-12	247.178E-3	-46.2557E-6	71.7446E-12	201.450E-3	-11.9215E-3
1.23812E-3	73.4084E-12	239.340E-3	5.21446E-3	71.8062E-12	213.570E-3	-14.9799E-3
1.23312E-3	73.5727E-12	213.638E-3	-5.20627E-3	72.0348E-12	206.192E-3	-17.7804E-3
1.22811E-3	73.4549E-12	202.786E-3	-23.7564E-3	71.6298E-12	208.896E-3	-21.9942E-3
1.22311E-3	72.6164E-12	198.219E-3	-33.2228E-3	71.6644E-12	224.044E-3	-27.6722E-3
1.21811E-3	72.2161E-12	199.492E-3	-34.0770E-3	72.5922E-12	212.886E-3	-8.50996E-3
1.21311E-3	72.5938E-12	211.871E-3	-39.8888E-3	73.2287E-12	191.127E-3	21.6608E-3
1.20810E-3	72.7175E-12	209.450E-3	-45.8456E-3	73.8872E-12	195.929E-3	11.8350E-3
1.20310E-3	72.7198E-12	190.210E-3	-37.3588E-3	73.2582E-12	201.464E-3	-17.3718E-3
1.19810E-3	72.1443E-12	174.816E-3	-20.7337E-3	73.1276E-12	193.657E-3	-17.9938E-3
1.19310E-3	71.8191E-12	174.790E-3	-12.0082E-3	73.8214E-12	196.013E-3	427.334E-6
1.18809E-3	72.2655E-12	182.914E-3	-16.2185E-3	74.8764E-12	190.072E-3	4.41101E-3
1.18309E-3	72.5584E-12	191.218E-3	-19.6539E-3	74.4345E-12	167.512E-3	5.51007E-3
1.17809E-3	72.8336E-12	202.985E-3	-6.83378E-3	73.2121E-12	163.223E-3	10.6177E-3
1.17309E-3	72.7273E-12	210.641E-3	6.00561E-3	73.0001E-12	169.006E-3	-5.44622E-3
1.16808E-3	72.9139E-12	214.389E-3	14.4104E-3	72.7014E-12	170.361E-3	-8.20515E-3
1.16308E-3	72.7784E-12	214.658E-3	14.9335E-3	72.1625E-12	185.439E-3	4.80048E-3
1.15808E-3	73.2128E-12	202.340E-3	-7.17107E-3	70.9898E-12	190.658E-3	-2.77649E-3
1.15308E-3	73.2251E-12	188.139E-3	-18.5652E-3	70.1719E-12	165.988E-3	-7.69527E-3
1.14807E-3	73.0264E-12	165.768E-3	-16.9109E-3	70.7211E-12	147.888E-3	-13.9556E-3
1.14307E-3	72.6433E-12	147.231E-3	-31.5719E-3	70.6329E-12	143.881E-3	-33.3218E-3
1.13807E-3	72.8107E-12	165.680E-3	-34.0159E-3	70.4226E-12	145.968E-3	-28.4522E-3
1.13307E-3	72.7380E-12	189.240E-3	-16.2849E-3	69.5055E-12	167.984E-3	19.3746E-6
1.12806E-3	71.7702E-12	183.596E-3	-19.9587E-3	70.4198E-12	193.496E-3	3.87972E-3
1.12306E-3	71.3566E-12	162.531E-3	-24.8616E-3	70.8490E-12	190.250E-3	-4.29902E-3
1.11806E-3	71.3537E-12	147.856E-3	-9.06953E-3	71.1757E-12	170.679E-3	-2.93366E-3
1.11306E-3	71.8916E-12	159.217E-3	-13.7607E-3	70.9177E-12	163.421E-3	-10.0220E-3
1.10805E-3	71.1073E-12	180.697E-3	-36.2386E-3	71.1916E-12	155.378E-3	-7.92411E-3
1.10305E-3	70.6871E-12	177.087E-3	-40.0130E-3	71.7929E-12	149.597E-3	-1.84897E-3
1.09805E-3	70.4759E-12	156.867E-3	-35.6646E-3	71.8623E-12	160.867E-3	-13.2188E-3
1.09305E-3	71.1542E-12	152.109E-3	-33.0304E-3	72.0110E-12	171.545E-3	-21.9591E-3
1.08804E-3	71.0665E-12	165.447E-3	-21.8835E-3	72.0575E-12	175.497E-3	-16.6490E-3
1.08304E-3	70.9693E-12	171.584E-3	-10.0160E-3	71.8749E-12	167.448E-3	-10.4873E-3
1.07804E-3	71.0889E-12	159.116E-3	-5.76842E-3	71.2137E-12	154.770E-3	-7.76878E-3
1.07304E-3	71.1451E-12	140.821E-3	-9.37292E-3	71.1807E-12	152.793E-3	-4.68518E-3
1.06803E-3	71.6408E-12	131.706E-3	-6.39735E-3	70.6375E-12	154.292E-3	-12.9186E-3
1.06303E-3	70.7632E-12	139.705E-3	1.57104E-3	70.0123E-12	161.418E-3	-17.7746E-3
1.05803E-3	70.6277E-12	161.268E-3	-9.61993E-3	69.2595E-12	179.861E-3	-15.2166E-3
1.05303E-3	70.9039E-12	175.817E-3	-33.3633E-3	69.2779E-12	184.966E-3	-40.8050E-3
1.04802E-3	70.7466E-12	177.369E-3	-48.8245E-3	69.6176E-12	168.056E-3	-56.5274E-3
1.04302E-3	70.4863E-12	169.440E-3	-40.9483E-3	69.4952E-12	175.349E-3	-39.1279E-3
1.03802E-3	69.1704E-12	166.978E-3	-12.1869E-3	69.2573E-12	200.837E-3	-24.5314E-3
1.03302E-3	69.4319E-12	181.817E-3	5.42455E-3	69.2570E-12	198.776E-3	-13.4635E-3
1.02801E-3	69.7837E-12	190.713E-3	1.14967E-3	69.5768E-12	199.549E-3	-15.3034E-3
1.02301E-3	70.2762E-12	177.275E-3	-13.4522E-3	70.0300E-12	213.541E-3	-20.8112E-3
1.01801E-3	69.0409E-12	165.176E-3	-29.0222E-3	69.7407E-12	205.263E-3	-7.12705E-3
1.01301E-3	69.1576E-12	175.961E-3	-27.7184E-3	70.0183E-12	211.430E-3	924.683E-6
1.00800E-3	69.2187E-12	189.446E-3	-9.71356E-3	70.2051E-12	242.171E-3	-14.7442E-3
1.00300E-3	69.7959E-12	201.600E-3	6.94500E-3	70.5420E-12	250.095E-3	-28.5181E-3
997.999E-6	69.6932E-12	223.527E-3	8.72652E-3	70.1300E-12	255.166E-3	-18.1451E-3
992.997E-6	69.7442E-12	239.422E-3	-11.0777E-3	70.7207E-12	266.999E-3	-16.8868E-3
987.994E-6	70.2911E-12	236.070E-3	-31.6542E-3	71.0821E-12	268.996E-3	-29.4324E-3
982.991E-6	70.3475E-12	224.409E-3	-28.9196E-3	71.2195E-12	277.792E-3	-32.6927E-3
977.989E-6	69.8668E-12	221.109E-3	-20.0447E-3	70.8219E-12	284.380E-3	-33.7406E-3
972.986E-6	69.7088E-12	229.553E-3	-24.1766E-3	70.5013E-12	279.816E-3	-25.5612E-3
967.984E-6	69.3450E-12	236.413E-3	-24.1398E-3	70.7258E-12	286.628E-3	-15.3585E-3
962.981E-6	69.1936E-12	248.447E-3	-20.8384E-3	70.4113E-12	306.032E-3	-25.1265E-3
957.979E-6	68.7057E-12	277.591E-3	-23.6095E-3	70.1723E-12	316.436E-3	-39.6977E-3
952.976E-6	68.3849E-12	307.321E-3	-24.1685E-3	69.8671E-12	317.914E-3	-44.7768E-3
947.974E-6	67.6756E-12	321.129E-3	-28.6161E-3	69.7480E-12	330.957E-3	-48.9585E-3
942.971E-6	68.0458E-12	312.447E-3	-38.3204E-3	69.2079E-12	353.627E-3	-50.4439E-3
937.969E-6	67.7411E-12	298.171E-3	-30.1492E-3	69.0823E-12	381.661E-3	-44.4746E-3
932.966E-6	67.5645E-12	310.741E-3	-19.1874E-3	69.2124E-12	395.516E-3	-35.4046E-3
927.964E-6	67.3350E-12	343.308E-3	-26.1809E-3	68.7621E-12	380.377E-3	-22.3479E-3
922.961E-6	67.8873E-12	363.273E-3	-36.6949E-3	68.4555E-12	378.895E-3	-8.38088E-3
917.959E-6	67.5338E-12	372.776E-3	-40.0015E-3	68.2217E-12	408.866E-3	-16.4039E-3
912.956E-6	67.5188E-12	380.424E-3	-33.1339E-3	68.0357E-12	422.030E-3	-26.5047E-3
907.954E-6	68.3002E-12	377.721E-3	-22.0507E-3	67.6749E-12	416.982E-3	-14.0808E-3
902.951E-6	69.0859E-12	386.469E-3	-3.75216E-3	67.7899E-12	434.105E-3	-9.84651E-3
897.949E-6	68.6418E-12	422.109E-3	8.25631E-3	67.5562E-12	460.610E-3	-25.3900E-3
892.946E-6	68.2211E-12	451.582E-3	1.29333E-3	68.0410E-12	499.735E-3	-31.2816E-3
887.944E-6	68.4752E-12	457.637E-3	-9.20771E-3	68.1703E-12	548.255E-3	-14.6291E-3
882.941E-6	68.7454E-12	461.752E-3	-17.9484E-3	68.2286E-12	568.682E-3	-11.2194E-3
877.939E-6	68.2356E-12	473.737E-3	-10.4719E-3	68.4918E-12	575.813E-3	-24.1632E-3
872.936E-6	67.4403E-12	490.819E-3	-2.57496E-3	68.0219E-12	589.807E-3	-28.7234E-3
867.934E-6	67.6175E-12	520.094E-3	-22.0692E-3	67.9207E-12	602.193E-3	-30.5548E-3
862.931E-6	67.6120E-12	550.747E-3	-37.5537E-3	67.3728E-12	621.055E-3	-27.2325E-3
857.929E-6	67.1474E-12	551.381E-3	-31.7307E-3	67.8962E-12	645.568E-3	-27.5290E-3
852.926E-6	66.4611E-12	551.913E-3	-22.5030E-3	67.8492E-12	656.001E-3	-34.0467E-3
847.924E-6	66.0924E-12	578.867E-3	-6.75616E-3	67.3101E-12	674.238E-3	-20.6544E-3
842.921E-6	65.9501E-12	599.000E-3	3.03523E-3	65.8074E-12	708.694E-3	-4.87759E-3
837.919E-6	65.6488E-12	621.778E-3	-6.57590E-3	65.1128E-12	719.343E-3	-12.0153E-3
832.916E-6	65.3272E-12	655.596E-3	-17.4474E-3	65.1979E-12	720.864E-3	-21.6255E-3
827.914E-6	65.2274E-12	674.085E-3	-17.2075E-3	64.3387E-12	745.694E-3	-24.3636E-3
822.911E-6	65.0224E-12	692.169E-3	-12.4534E-3	63.0731E-12	778.708E-3	-23.4625E-3
817.909E-6	65.0861E-12	717.750E-3	-20.0378E-3	61.9487E-12	811.269E-3	-19.8990E-3
812.906E-6	64.7019E-12	739.315E-3	-31.9833E-3	62.5419E-12	839.604E-3	-19.3138E-3
807.904E-6	64.5346E-12	768.244E-3	-27.5322E-3	62.4928E-12	850.742E-3	-24.5442E-3
802.901E-6	63.8971E-12	799.785E-3	-17.1728E-3	61.8243E-12	866.065E-3	-25.2431E-3
797.899E-6	63.7353E-12	823.529E-3	-28.6654E-3	60.7725E-12	908.471E-3	-19.4381E-3
792.896E-6	62.6568E-12	837.101E-3	-40.3020E-3	61.9383E-12	954.716E-3	-28.9825E-3
787.894E-6	61.7753E-12	858.229E-3	-29.4276E-3	62.8200E-12	991.144E-3	-46.1908E-3
782.891E-6	61.1933E-12	890.323E-3	-15.8242E-3	63.0280E-12	1.03033E+0	-53.4953E-3
777.889E-6	61.0700E-12	903.758E-3	-8.19727E-3	61.6868E-12	1.06711E+0	-39.9345E-3
772.886E-6	61.2763E-12	914.397E-3	-14.6377E-3	62.2599E-12	1.09157E+0	-9.24896E-3
767.884E-6	60.2670E-12	952.565E-3	-30.4101E-3	62.6637E-12	1.11171E+0	2.15879E-3
762.881E-6	59.5791E-12	984.644E-3	-28.9658E-3	62.3129E-12	1.13726E+0	-2.28129E-3
757.879E-6	59.6881E-12	999.178E-3	-11.7077E-3	60.9849E-12	1.15535E+0	-4.65540E-3
752.876E-6	60.1284E-12	1.03250E+0	5.00005E-3	59.8855E-12	1.16365E+0	-8.72940E-3
747.874E-6	59.8153E-12	1.06504E+0	-2.99760E-3	60.1521E-12	1.17708E+0	-8.75402E-3
742.871E-6	58.6527E-12	1.09257E+0	-20.6859E-3	59.6367E-12	1.20692E+0	-12.4184E-3
737.869E-6	59.0196E-12	1.13064E+0	-18.1520E-3	58.5868E-12	1.25328E+0	-26.1659E-3
732.866E-6	59.2989E-12	1.15926E+0	-27.1258E-3	56.9539E-12	1.29386E+0	-36.2672E-3
727.864E-6	59.1003E-12	1.19848E+0	-45.9836E-3	56.5765E-12	1.31565E+0	-25.2878E-3
722.861E-6	57.7403E-12	1.24475E+0	-45.0917E-3	56.8388E-12	1.34160E+0	-18.5823E-3
717.859E-6	57.3906E-12	1.26800E+0	-37.5115E-3	56.3786E-12	1.37560E+0	-31.5689E-3
712.856E-6	57.1030E-12	1.29359E+0	-30.6681E-3	55.6384E-12	1.40345E+0	-28.6494E-3
707.854E-6	56.7631E-12	1.32466E+0	-22.0916E-3	54.9970E-12	1.43904E+0	-16.4407E-3
702.851E-6	56.0685E-12	1.34288E+0	-11.4229E-3	55.6451E-12	1.47465E+0	-19.1218E-3
697.849E-6	55.1548E-12	1.35955E+0	8.14501E-3	55.6703E-12	1.51436E+0	-21.6701E-3
692.846E-6	55.0183E-12	1.36812E+0	21.4525E-3	55.3117E-12	1.56953E+0	-16.9578E-3
687.844E-6	54.7597E-12	1.37266E+0	9.98920E-3	54.9303E-12	1.61785E+0	-11.4287E-3
682.841E-6	54.2014E-12	1.40458E+0	-7.95359E-3	55.3129E-12	1.65705E+0	-3.86441E-3
677.839E-6	53.2516E-12	1.45228E+0	-10.0329E-3	55.3552E-12	1.69746E+0	-6.32007E-3
672.836E-6	53.0885E-12	1.48828E+0	-10.5184E-3	54.8460E-12	1.72985E+0	-20.2062E-3
667.834E-6	52.6755E-12	1.52482E+0	-19.1286E-3	54.3219E-12	1.73779E+0	-19.9799E-3
662.831E-6	52.6539E-12	1.57438E+0	-17.2242E-3	53.9276E-12	1.72945E+0	-11.3820E-3
657.829E-6	51.8760E-12	1.61963E+0	-13.0222E-3	53.3466E-12	1.72846E+0	-4.71128E-3
652.826E-6	51.2831E-12	1.64820E+0	-20.2879E-3	51.6140E-12	1.73755E+0	2.95952E-3
647.824E-6	51.3428E-12	1.66847E+0	-27.5154E-3	50.7931E-12	1.74765E+0	4.05773E-3
642.821E-6	50.9587E-12	1.68409E+0	-34.9914E-3	50.1529E-12	1.74937E+0	252.860E-6
637.819E-6	50.5374E-12	1.70812E+0	-35.7609E-3	49.3948E-12	1.74637E+0	4.18728E-3
632.816E-6	49.3616E-12	1.74081E+0	-24.5899E-3	48.0169E-12	1.76507E+0	16.0158E-3
627.814E-6	48.6568E-12	1.75643E+0	-13.6456E-3	47.0677E-12	1.80268E+0	9.83194E-3
622.811E-6	48.0203E-12	1.76695E+0	-8.98020E-3	46.7417E-12	1.83773E+0	-3.71149E-3
617.809E-6	47.2684E-12	1.79716E+0	-8.30858E-3	46.2326E-12	1.86244E+0	-7.02863E-3
612.806E-6	46.4943E-12	1.82338E+0	-6.21695E-3	45.3618E-12	1.87009E+0	-23.2033E-3
607.804E-6	45.3441E-12	1.83274E+0	-6.63379E-3	44.7425E-12	1.87505E+0	-34.9966E-3
602.801E-6	44.7533E-12	1.85404E+0	-11.4420E-3	44.5982E-12	1.90881E+0	-30.3945E-3
597.799E-6	44.1898E-12	1.87336E+0	-13.5537E-3	43.9940E-12	1.95331E+0	-38.1462E-3
592.796E-6	43.4237E-12	1.87735E+0	-6.05341E-3	43.5222E-12	1.97336E+0	-37.9871E-3
587.794E-6	42.8526E-12	1.88411E+0	6.12862E-3	43.1957E-12	1.99390E+0	-12.8019E-3
582.791E-6	42.6740E-12	1.88862E+0	9.92537E-3	43.2837E-12	2.02244E+0	-5.08514E-3
577.789E-6	42.2576E-12	1.90741E+0	3.03680E-3	42.4347E-12	2.03089E+0	-14.7763E-3
572.786E-6	41.7149E-12	1.94343E+0	-5.15989E-3	42.0020E-12	2.04089E+0	-16.9141E-3
567.784E-6	41.1781E-12	1.95988E+0	-6.54750E-3	41.4637E-12	2.05709E+0	-14.3315E-3
562.781E-6	40.5555E-12	1.96691E+0	-345.895E-6	41.0740E-12	2.05004E+0	-7.74720E-3
557.779E-6	40.1632E-12	1.98916E+0	1.37307E-3	40.3751E-12	2.04479E+0	-12.1373E-3
552.776E-6	39.5021E-12	2.01758E+0	-11.6151E-3	39.2953E-12	2.05619E+0	-31.4446E-3
547.774E-6	38.9224E-12	2.04286E+0	-26.2425E-3	38.4969E-12	2.04765E+0	-37.7245E-3
542.771E-6	38.2568E-12	2.05363E+0	-24.0337E-3	37.9817E-12	2.02757E+0	-33.5653E-3
537.769E-6	37.4053E-12	2.05210E+0	-16.0268E-3	36.8732E-12	2.01744E+0	-31.3146E-3
532.766E-6	36.7682E-12	2.05292E+0	-14.7475E-3	35.9326E-12	2.00969E+0	-14.8660E-3
527.764E-6	35.9497E-12	2.05209E+0	-17.5276E-3	34.9425E-12	2.01051E+0	-2.02992E-3
522.761E-6	35.0120E-12	2.04572E+0	-29.5825E-3	34.5773E-12	2.00274E+0	-21.4730E-3
517.759E-6	34.1605E-12	2.04482E+0	-38.2971E-3	33.5387E-12	1.98346E+0	-40.3336E-3
512.756E-6	33.2277E-12	2.04351E+0	-23.1571E-3	32.7296E-12	1.98148E+0	-35.4774E-3
507.754E-6	32.6013E-12	2.01247E+0	1.99826E-3	31.7359E-12	1.98126E+0	-27.9743E-3
502.751E-6	31.9397E-12	1.98280E+0	-2.36024E-3	31.1973E-12	1.97660E+0	-24.7846E-3
497.749E-6	31.3078E-12	1.99387E+0	-26.1938E-3	30.6403E-12	1.97733E+0	-25.6701E-3
492.746E-6	30.6136E-12	1.99554E+0	-29.3371E-3	29.9793E-12	1.96986E+0	-25.7721E-3
487.744E-6	29.9888E-12	1.97563E+0	-27.1711E-3	29.4469E-12	1.95435E+0	-15.3560E-3
482.741E-6	29.5832E-12	1.98747E+0	-24.4804E-3	28.5730E-12	1.94556E+0	-5.15253E-3
477.739E-6	28.8278E-12	2.01699E+0	-10.5922E-3	27.9887E-12	1.93931E+0	-12.3898E-3
472.736E-6	28.2986E-12	2.02106E+0	-13.1217E-3	27.7826E-12	1.93203E+0	-27.3654E-3
467.734E-6	27.4621E-12	2.01191E+0	-22.1628E-3	27.4030E-12	1.94192E+0	-32.2380E-3
462.731E-6	27.0327E-12	2.00104E+0	-15.9173E-3	26.8986E-12	1.96086E+0	-28.1364E-3
457.729E-6	26.4444E-12	1.98194E+0	-10.3173E-3	26.2001E-12	1.95011E+0	-19.5946E-3
452.726E-6	25.8539E-12	1.95974E+0	-3.65770E-3	25.7128E-12	1.91889E+0	-11.6716E-3
447.724E-6	24.9621E-12	1.95104E+0	4.36529E-3	25.3964E-12	1.89481E+0	-16.6641E-3
442.721E-6	24.2959E-12	1.95681E+0	-3.97263E-3	24.7511E-12	1.87659E+0	-27.6556E-3
437.719E-6	23.6478E-12	1.94608E+0	-7.11848E-3	24.0886E-12	1.85929E+0	-28.6488E-3
432.716E-6	23.1017E-12	1.90924E+0	-1.07761E-3	23.3439E-12	1.82804E+0	-21.4584E-3
427.714E-6	22.2684E-12	1.87177E+0	-6.72605E-3	22.8500E-12	1.78204E+0	-24.1436E-3
422.711E-6	21.6141E-12	1.85283E+0	-10.9922E-3	21.9521E-12	1.74682E+0	-29.0749E-3
417.709E-6	20.8717E-12	1.83202E+0	-16.5414E-3	21.0161E-12	1.72505E+0	-31.0602E-3
412.706E-6	20.6021E-12	1.79853E+0	-22.5812E-3	20.3150E-12	1.68944E+0	-32.1126E-3
407.704E-6	20.1529E-12	1.77902E+0	-10.4965E-3	19.8626E-12	1.64949E+0	-22.3209E-3
402.701E-6	19.5235E-12	1.77631E+0	1.40623E-3	19.2538E-12	1.63038E+0	-15.0122E-3
397.699E-6	18.6956E-12	1.76611E+0	-10.9756E-3	18.4389E-12	1.61666E+0	-15.4546E-3
392.696E-6	18.2769E-12	1.73104E+0	-33.6543E-3	17.8708E-12	1.60262E+0	-11.3947E-3
387.694E-6	17.9793E-12	1.67963E+0	-32.0374E-3	17.3127E-12	1.58635E+0	-7.99155E-3
382.691E-6	17.3681E-12	1.64829E+0	-17.3143E-3	17.0143E-12	1.55129E+0	-6.98715E-3
377.689E-6	16.5449E-12	1.64025E+0	-18.1498E-3	16.5044E-12	1.52100E+0	6.75555E-3
372.686E-6	16.0651E-12	1.62336E+0	-6.63053E-3	16.1042E-12	1.51717E+0	6.50071E-3
367.684E-6	15.7660E-12	1.58410E+0	8.42582E-3	15.8110E-12	1.51220E+0	-9.21283E-3
362.681E-6	15.1746E-12	1.54801E+0	1.28524E-3	15.4053E-12	1.48416E+0	-6.30579E-3
357.679E-6	14.3892E-12	1.52417E+0	-724.522E-6	15.0661E-12	1.44187E+0	-3.22884E-3
352.676E-6	13.9154E-12	1.47965E+0	78.4997E-6	14.7146E-12	1.39611E+0	-10.4608E-3
347.674E-6	13.6886E-12	1.44054E+0	-21.0181E-3	14.4140E-12	1.36074E+0	-11.1981E-3
342.671E-6	13.3805E-12	1.42331E+0	-32.1854E-3	13.6955E-12	1.33614E+0	-15.1951E-3
337.669E-6	12.7873E-12	1.40275E+0	-16.8196E-3	13.2313E-12	1.29665E+0	-20.3241E-3
332.666E-6	12.2328E-12	1.38199E+0	-8.85439E-3	12.9079E-12	1.25055E+0	-12.1091E-3
327.664E-6	11.9847E-12	1.35108E+0	-14.1003E-3	12.4509E-12	1.22576E+0	-3.72503E-3
322.661E-6	11.7984E-12	1.30885E+0	-22.6133E-3	11.7432E-12	1.19474E+0	1.60982E-3
317.659E-6	11.3200E-12	1.27842E+0	-26.9551E-3	11.0589E-12	1.13832E+0	-1.96545E-3
312.656E-6	10.8086E-12	1.25335E+0	-10.8905E-3	10.7977E-12	1.09072E+0	-16.5578E-3
307.654E-6	10.4865E-12	1.22189E+0	4.94937E-3	10.2759E-12	1.06147E+0	-18.1778E-3
302.651E-6	10.2739E-12	1.20255E+0	-3.46129E-3	9.74131E-12	1.03659E+0	-6.32440E-3
297.649E-6	9.85471E-12	1.18621E+0	-8.43563E-3	9.36660E-12	1.01151E+0	-9.83988E-3
292.646E-6	9.39521E-12	1.15725E+0	-8.61112E-3	9.09815E-12	985.603E-3	-24.9231E-3
287.644E-6	9.04633E-12	1.12849E+0	-12.6928E-3	8.75859E-12	959.174E-3	-19.1670E-3
282.641E-6	8.73122E-12	1.08413E+0	-13.1657E-3	8.31205E-12	935.076E-3	-2.19657E-3
277.639E-6	8.41821E-12	1.02655E+0	-19.0584E-3	8.08230E-12	907.940E-3	-355.547E-6
272.636E-6	8.01251E-12	997.998E-3	-26.1396E-3	7.92869E-12	878.167E-3	-4.46955E-3
267.634E-6	7.73200E-12	989.766E-3	-26.3437E-3	7.71708E-12	852.758E-3	-12.8603E-3
262.631E-6	7.24083E-12	960.392E-3	-23.7129E-3	7.39509E-12	828.428E-3	-27.1518E-3
257.629E-6	7.01726E-12	914.960E-3	-29.8743E-3	7.15043E-12	813.815E-3	-26.6858E-3
252.626E-6	6.84190E-12	882.238E-3	-26.1852E-3	6.97927E-12	807.617E-3	-15.8499E-3
247.624E-6	6.62243E-12	859.274E-3	-10.5941E-3	6.73078E-12	779.757E-3	-12.8293E-3
242.621E-6	6.31392E-12	834.687E-3	-8.17186E-3	6.46417E-12	730.001E-3	-11.8048E-3
237.619E-6	6.02848E-12	809.588E-3	-3.27993E-3	6.23204E-12	690.981E-3	-16.2817E-3
232.616E-6	5.91051E-12	785.007E-3	-2.25404E-3	5.93036E-12	658.874E-3	-28.2062E-3
227.614E-6	5.64782E-12	762.504E-3	-13.9358E-3	5.56493E-12	631.047E-3	-21.3206E-3
222.611E-6	5.35940E-12	739.740E-3	-19.6507E-3	5.23211E-12	610.570E-3	-10.3402E-3
217.609E-6	4.92629E-12	711.010E-3	-23.9016E-3	4.99881E-12	579.758E-3	-25.9077E-3
212.606E-6	4.86072E-12	675.731E-3	-29.0641E-3	4.74380E-12	546.211E-3	-30.9284E-3
207.604E-6	4.75330E-12	643.597E-3	-23.5546E-3	4.42540E-12	522.864E-3	-15.7578E-3
202.601E-6	4.45341E-12	619.337E-3	-13.5071E-3	4.21141E-12	506.836E-3	-14.9536E-3
197.599E-6	4.14900E-12	601.681E-3	-9.58611E-3	4.10999E-12	486.017E-3	-8.42933E-3
192.596E-6	3.98368E-12	582.616E-3	-1.54037E-3	3.94188E-12	473.923E-3	-3.49475E-3
187.594E-6	3.91613E-12	549.980E-3	523.377E-6	3.67750E-12	466.875E-3	-22.5753E-3
182.591E-6	3.69491E-12	525.845E-3	-10.8278E-3	3.48548E-12	445.902E-3	-25.7311E-3
177.589E-6	3.44956E-12	517.183E-3	-15.5433E-3	3.40130E-12	433.539E-3	-17.1448E-3
172.586E-6	3.25676E-12	490.721E-3	-11.9957E-3	3.28313E-12	418.737E-3	-15.9004E-3
167.584E-6	3.22973E-12	464.098E-3	-12.8270E-3	3.12630E-12	390.700E-3	-8.54086E-3
162.581E-6	3.06486E-12	456.551E-3	-14.9757E-3	2.87398E-12	382.676E-3	-11.8271E-3
157.579E-6	2.89888E-12	440.330E-3	-10.7387E-3	2.90467E-12	388.122E-3	-23.0767E-3
152.576E-6	2.74578E-12	427.599E-3	-7.00582E-3	2.81274E-12	381.204E-3	-17.8378E-3
147.574E-6	2.65876E-12	424.306E-3	-14.9646E-3	2.63270E-12	360.805E-3	-8.78534E-3
142.571E-6	2.50657E-12	401.172E-3	-26.1223E-3	2.46443E-12	338.347E-3	-9.22267E-3
137.569E-6	2.41759E-12	384.653E-3	-26.3166E-3	2.38211E-12	321.293E-3	-5.20348E-3
132.566E-6	2.30115E-12	388.022E-3	-22.0106E-3	2.33372E-12	316.608E-3	439.829E-6
127.564E-6	2.13170E-12	375.575E-3	-17.1222E-3	2.15169E-12	316.737E-3	-5.25870E-3
122.561E-6	1.97743E-12	355.018E-3	-16.9763E-3	2.02654E-12	299.998E-3	-15.1832E-3
117.559E-6	1.90511E-12	343.863E-3	-22.2216E-3	1.88086E-12	289.096E-3	-23.4338E-3
112.556E-6	1.88741E-12	326.664E-3	-24.3307E-3	1.78718E-12	281.520E-3	-34.7604E-3
107.554E-6	1.72287E-12	309.427E-3	-30.7942E-3	1.64920E-12	261.514E-3	-29.6803E-3
102.551E-6	1.56766E-12	305.924E-3	-32.7808E-3	1.55947E-12	255.668E-3	-7.55026E-3
97.5488E-6	1.47329E-12	301.548E-3	-28.1435E-3	1.46776E-12	258.457E-3	-5.97602E-3
92.5463E-6	1.45768E-12	296.593E-3	-29.1484E-3	1.33546E-12	248.517E-3	-18.5019E-3
87.5438E-6	1.35204E-12	293.764E-3	-27.7068E-3	1.22664E-12	234.436E-3	-17.6170E-3
82.5413E-6	1.17841E-12	282.638E-3	-21.4824E-3	1.16019E-12	228.811E-3	-22.0660E-3
77.5388E-6	1.10789E-12	266.819E-3	-22.4555E-3	1.12923E-12	223.682E-3	-31.1111E-3
72.5363E-6	1.07748E-12	254.857E-3	-20.7765E-3	969.411E-15	219.743E-3	-18.4113E-3
67.5338E-6	1.00714E-12	246.314E-3	-5.05396E-3	853.322E-15	218.235E-3	-5.66388E-3
62.5313E-6	853.156E-15	240.449E-3	3.92053E-3	866.497E-15	216.929E-3	-16.7136E-3
57.5288E-6	761.865E-15	239.694E-3	-2.24742E-3	791.746E-15	226.868E-3	-22.5464E-3
52.5263E-6	730.379E-15	229.185E-3	-15.8527E-3	649.987E-15	233.583E-3	-16.4306E-3
47.5238E-6	686.164E-15	220.067E-3	-38.8483E-3	599.320E-15	229.879E-3	-16.2991E-3
42.5213E-6	534.666E-15	234.351E-3	-53.7047E-3	535.703E-15	235.428E-3	-13.2250E-3
37.5188E-6	471.041E-15	239.847E-3	-35.0062E-3	545.635E-15	236.750E-3	-13.8747E-3
32.5163E-6	414.488E-15	219.356E-3	-18.3954E-3	402.063E-15	218.919E-3	-15.6453E-3
27.5138E-6	334.410E-15	211.472E-3	-31.8478E-3	282.817E-15	216.782E-3	-14.4384E-3
22.5113E-6	193.994E-15	212.562E-3	-37.8564E-3	250.844E-15	226.687E-3	-25.3913E-3
17.5088E-6	203.018E-15	207.827E-3	-28.2338E-3	167.600E-15	216.761E-3	-36.3836E-3
12.5063E-6	116.348E-15	218.582E-3	-19.9391E-3	90.0945E-15	213.606E-3	-23.0961E-3
7.50375E-6	4.68016E-15	227.981E-3	-16.2870E-3	-2.69637E-15	218.846E-3	-7.37152E-3
2.50125E-6	-99.7771E-15	224.392E-3	-18.6281E-3	-102.219E-15	204.225E-3	-12.7089E-3
-2.50125E-6	-105.715E-15	225.920E-3	-21.6729E-3	-154.055E-15	201.017E-3	-14.0358E-3
-7.50375E-6	-185.392E-15	226.258E-3	-25.1484E-3	-238.484E-15	223.590E-3	-16.2959E-3
-12.5063E-6	-317.934E-15	217.477E-3	-28.9382E-3	-339.384E-15	231.583E-3	-25.7760E-3
-17.5088E-6	-362.760E-15	218.956E-3	-23.4995E-3	-320.716E-15	236.146E-3	-25.9283E-3
-22.5113E-6	-426.010E-15	224.683E-3	-9.68825E-3	-477.872E-15	251.233E-3	-28.2456E-3
-27.5138E-6	-495.869E-15	220.662E-3	-12.8691E-3	-590.160E-15	251.874E-3	-25.2959E-3
-32.5163E-6	-626.572E-15	235.641E-3	-28.3352E-3	-600.065E-15	255.929E-3	-14.1979E-3
-37.5188E-6	-715.195E-15	255.343E-3	-29.3096E-3	-687.598E-15	270.187E-3	-24.7316E-3
-42.5213E-6	-734.063E-15	248.883E-3	-26.8565E-3	-848.783E-15	271.350E-3	-33.7083E-3
-47.5238E-6	-841.668E-15	250.293E-3	-27.9662E-3	-923.708E-15	281.118E-3	-14.5776E-3
-52.5263E-6	-1.02095E-12	260.103E-3	-25.5239E-3	-982.345E-15	309.524E-3	-13.3187E-3
-57.5288E-6	-1.07648E-12	256.718E-3	-29.2649E-3	-1.01458E-12	319.982E-3	-30.8743E-3
-62.5313E-6	-1.12046E-12	260.319E-3	-30.5505E-3	-1.21887E-12	313.216E-3	-31.5963E-3
-67.5338E-6	-1.24198E-12	272.253E-3	-15.9330E-3	-1.36191E-12	319.787E-3	-22.4366E-3
-72.5363E-6	-1.41951E-12	280.654E-3	-6.05291E-3	-1.41636E-12	334.651E-3	-18.7152E-3
-77.5388E-6	-1.49370E-12	293.300E-3	-18.0782E-3	-1.52007E-12	353.554E-3	-24.3506E-3
-82.5413E-6	-1.54693E-12	312.917E-3	-36.4538E-3	-1.66820E-12	372.458E-3	-28.6272E-3
-87.5438E-6	-1.71466E-12	329.977E-3	-36.0184E-3	-1.89311E-12	377.843E-3	-27.9887E-3
-92.5463E-6	-1.86837E-12	344.399E-3	-23.6604E-3	-1.91427E-12	385.194E-3	-24.9537E-3
-97.5488E-6	-1.99008E-12	362.468E-3	-14.3660E-3	-2.00632E-12	410.463E-3	-24.4345E-3
-102.551E-6	-2.04844E-12	376.752E-3	-17.9800E-3	-2.15624E-12	437.343E-3	-24.9270E-3
-107.554E-6	-2.20398E-12	388.261E-3	-27.3716E-3	-2.31139E-12	456.122E-3	-19.4877E-3
-112.556E-6	-2.38218E-12	396.284E-3	-14.1475E-3	-2.41870E-12	471.426E-3	-21.6973E-3
-117.559E-6	-2.50973E-12	393.534E-3	-1.29430E-3	-2.50077E-12	472.553E-3	-23.0541E-3
-122.561E-6	-2.62831E-12	407.084E-3	-9.73240E-3	-2.68078E-12	482.272E-3	-4.45681E-3
-127.564E-6	-2.87245E-12	434.804E-3	-16.8531E-3	-2.87710E-12	518.553E-3	4.87652E-3
-132.566E-6	-3.08863E-12	445.777E-3	-21.7289E-3	-3.05409E-12	550.329E-3	-7.59672E-3
-137.569E-6	-3.15715E-12	463.039E-3	-25.5744E-3	-3.16818E-12	572.585E-3	-3.32922E-3
-142.571E-6	-3.36434E-12	503.245E-3	-18.1388E-3	-3.38676E-12	598.495E-3	10.9233E-3
-147.574E-6	-3.59884E-12	534.753E-3	-17.1630E-3	-3.62768E-12	621.430E-3	6.59430E-3
-152.576E-6	-3.83676E-12	548.386E-3	-28.0911E-3	-3.73475E-12	650.945E-3	-3.68235E-3
-157.579E-6	-3.89329E-12	561.909E-3	-25.6634E-3	-3.97930E-12	701.030E-3	-12.5137E-3
-162.581E-6	-4.09554E-12	576.381E-3	-11.4092E-3	-4.20225E-12	745.330E-3	-20.5229E-3
-167.584E-6	-4.44921E-12	599.059E-3	-8.89294E-3	-4.47849E-12	776.283E-3	-26.4242E-3
-172.586E-6	-4.76009E-12	629.103E-3	-17.7392E-3	-4.82860E-12	812.824E-3	-26.1813E-3
-177.589E-6	-4.89273E-12	658.020E-3	-18.5782E-3	-5.08019E-12	837.772E-3	-17.7044E-3
-182.591E-6	-5.15818E-12	689.774E-3	-18.8999E-3	-5.38140E-12	854.097E-3	-5.98215E-3
-187.594E-6	-5.57207E-12	720.732E-3	-16.4868E-3	-5.56704E-12	885.040E-3	-3.29256E-3
-192.596E-6	-5.78227E-12	753.175E-3	-2.44843E-3	-5.83763E-12	913.204E-3	-12.6105E-3
-197.599E-6	-5.94356E-12	793.863E-3	5.12391E-3	-6.07501E-12	939.294E-3	-15.0386E-3
-202.601E-6	-6.28233E-12	835.696E-3	2.44299E-3	-6.34545E-12	987.367E-3	-13.8441E-3
-207.604E-6	-6.71229E-12	868.554E-3	-6.11538E-3	-6.62229E-12	1.03156E+0	-18.8247E-3
-212.606E-6	-7.00085E-12	897.191E-3	-19.9511E-3	-6.85760E-12	1.05172E+0	-13.9374E-3
-217.609E-6	-7.18572E-12	930.220E-3	-27.2266E-3	-7.23092E-12	1.08121E+0	-8.13821E-3
-222.611E-6	-7.59244E-12	966.680E-3	-25.2911E-3	-7.53370E-12	1.12108E+0	-11.0355E-3
-227.614E-6	-8.09328E-12	1.01136E+0	-23.0846E-3	-7.91284E-12	1.16571E+0	-5.47659E-3
-232.616E-6	-8.43408E-12	1.06139E+0	-12.1865E-3	-8.18470E-12	1.22367E+0	-2.74869E-3
-237.619E-6	-8.67700E-12	1.09992E+0	1.13264E-3	-8.57078E-12	1.26943E+0	-18.3151E-3
-242.621E-6	-9.14888E-12	1.13704E+0	-5.19611E-3	-8.98327E-12	1.30900E+0	-22.5818E-3
-247.624E-6	-9.70262E-12	1.18982E+0	-14.8839E-3	-9.51933E-12	1.37281E+0	-7.25725E-3
-252.626E-6	-9.98998E-12	1.23408E+0	-5.59290E-3	-9.97511E-12	1.43701E+0	-9.00529E-3
-257.629E-6	-10.4158E-12	1.26924E+0	8.48785E-3	-10.3137E-12	1.48550E+0	-22.1480E-3
-262.631E-6	-10.9688E-12	1.32361E+0	14.6074E-3	-10.9958E-12	1.54762E+0	-23.6835E-3
-267.634E-6	-11.5802E-12	1.37620E+0	4.23943E-3	-11.5192E-12	1.60737E+0	-25.9301E-3
-272.636E-6	-11.9954E-12	1.42442E+0	-23.3682E-3	-12.0577E-12	1.64119E+0	-33.1010E-3
-277.639E-6	-12.5156E-12	1.49193E+0	-34.4087E-3	-12.5137E-12	1.68695E+0	-33.5483E-3
-282.641E-6	-13.1122E-12	1.54806E+0	-20.8264E-3	-13.1305E-12	1.74976E+0	-27.2311E-3
-287.644E-6	-13.6769E-12	1.58938E+0	-19.7791E-3	-13.7113E-12	1.80028E+0	-24.5659E-3
-292.646E-6	-14.2062E-12	1.64420E+0	-32.5450E-3	-14.1849E-12	1.86457E+0	-17.4924E-3
-297.649E-6	-14.8482E-12	1.69306E+0	-37.3610E-3	-14.8682E-12	1.94777E+0	-8.87054E-3
-302.651E-6	-15.5061E-12	1.73561E+0	-36.8091E-3	-15.4543E-12	2.01052E+0	-7.13545E-3
-307.654E-6	-16.2118E-12	1.80405E+0	-23.5602E-3	-16.1441E-12	2.06307E+0	-14.7156E-3
-312.656E-6	-16.6166E-12	1.87712E+0	-6.85138E-3	-16.7077E-12	2.11319E+0	-24.4017E-3
-317.659E-6	-17.2973E-12	1.93247E+0	-17.3404E-3	-17.3898E-12	2.16298E+0	-17.5031E-3
-322.661E-6	-18.3008E-12	1.99314E+0	-30.4393E-3	-18.1279E-12	2.22820E+0	-5.72838E-3
-327.664E-6	-18.8508E-12	2.04734E+0	-19.6218E-3	-18.7937E-12	2.29180E+0	-7.68031E-3
-332.666E-6	-19.3243E-12	2.09406E+0	-19.3824E-3	-19.2434E-12	2.35442E+0	-13.4572E-3
-337.669E-6	-20.0093E-12	2.15447E+0	-33.1955E-3	-20.0798E-12	2.42934E+0	-15.2485E-3
-342.671E-6	-21.0116E-12	2.20375E+0	-31.8907E-3	-21.1100E-12	2.49596E+0	-21.9900E-3
-347.674E-6	-21.8775E-12	2.23884E+0	-26.2420E-3	-21.9137E-12	2.54994E+0	-24.6405E-3
-352.676E-6	-22.3395E-12	2.30621E+0	-19.9772E-3	-22.5495E-12	2.61965E+0	-10.1911E-3
-357.679E-6	-22.9897E-12	2.40133E+0	-16.8020E-3	-23.3036E-12	2.70337E+0	-10.0101E-3
-362.681E-6	-24.1395E-12	2.47000E+0	-28.4941E-3	-24.3813E-12	2.76461E+0	-24.7581E-3
-367.684E-6	-25.1318E-12	2.50971E+0	-26.7993E-3	-25.5476E-12	2.81581E+0	-17.4277E-3
-372.686E-6	-25.8190E-12	2.55821E+0	-827.672E-6	-26.4910E-12	2.89377E+0	-9.03046E-3
-377.689E-6	-26.6973E-12	2.62547E+0	-4.44252E-3	-27.2948E-12	2.97300E+0	-6.71143E-3
-382.691E-6	-27.7309E-12	2.69684E+0	-28.9761E-3	-28.2568E-12	3.02677E+0	2.64057E-3
-387.694E-6	-28.6319E-12	2.75290E+0	-27.0564E-3	-29.6383E-12	3.06052E+0	-5.34421E-3
-392.696E-6	-29.2968E-12	2.80203E+0	-34.0574E-3	-30.4476E-12	3.09596E+0	-25.3200E-3
-397.699E-6	-30.4146E-12	2.86626E+0	-49.9516E-3	-31.2448E-12	3.15981E+0	-33.4075E-3
-402.701E-6	-31.4519E-12	2.92602E+0	-38.4938E-3	-32.2480E-12	3.22322E+0	-36.5994E-3
-407.704E-6	-32.5413E-12	2.96791E+0	-23.8167E-3	-33.3574E-12	3.24978E+0	-29.1976E-3
-412.706E-6	-33.1998E-12	3.01653E+0	-18.4520E-3	-34.3665E-12	3.28376E+0	-9.93769E-3
-417.709E-6	-34.5744E-12	3.07474E+0	-4.41122E-3	-35.1658E-12	3.34580E+0	-303.519E-6
-422.711E-6	-35.9052E-12	3.12905E+0	940.465E-6	-36.1193E-12	3.37189E+0	1.49211E-3
-427.714E-6	-36.9295E-12	3.18397E+0	-6.16512E-3	-37.2825E-12	3.37707E+0	1.49966E-3
-432.716E-6	-38.0093E-12	3.23641E+0	1.69271E-3	-38.3132E-12	3.41623E+0	-11.9050E-3
-437.719E-6	-39.3629E-12	3.28395E+0	-225.551E-6	-38.9674E-12	3.45008E+0	-32.7993E-3
-442.721E-6	-40.6430E-12	3.34320E+0	-10.0906E-3	-39.9694E-12	3.47154E+0	-29.4961E-3
-447.724E-6	-41.5466E-12	3.40467E+0	-1.57944E-3	-40.9421E-12	3.51408E+0	-16.7467E-3
-452.726E-6	-42.3574E-12	3.45277E+0	-6.84156E-3	-42.0608E-12	3.56297E+0	-22.6367E-3
-457.729E-6	-44.1830E-12	3.49442E+0	-23.0991E-3	-43.3161E-12	3.61263E+0	-23.4491E-3
-462.731E-6	-45.6239E-12	3.53513E+0	-22.3392E-3	-44.6707E-12	3.66161E+0	-21.9158E-3
-467.734E-6	-46.3740E-12	3.57826E+0	-27.3443E-3	-46.1735E-12	3.69879E+0	-27.1918E-3
-472.736E-6	-47.1282E-12	3.62647E+0	-38.7188E-3	-47.7160E-12	3.74337E+0	-15.9054E-3
-477.739E-6	-48.8054E-12	3.65250E+0	-23.6416E-3	-49.2169E-12	3.80439E+0	-8.57278E-3
-482.741E-6	-50.0146E-12	3.65941E+0	-9.19380E-3	-50.8150E-12	3.83832E+0	-20.2536E-3
-487.744E-6	-50.9863E-12	3.69273E+0	-11.5394E-3	-52.0245E-12	3.84469E+0	-15.6020E-3
-492.746E-6	-51.5737E-12	3.72875E+0	-2.04560E-3	-53.4648E-12	3.86253E+0	-7.38354E-3
-497.749E-6	-53.2532E-12	3.71963E+0	-1.93100E-3	-54.9285E-12	3.87232E+0	-16.6093E-3
-502.751E-6	-54.8174E-12	3.70242E+0	-16.8994E-3	-56.5250E-12	3.85163E+0	-15.3859E-3
-507.754E-6	-55.7868E-12	3.72670E+0	-14.8290E-3	-57.0074E-12	3.82223E+0	-16.3594E-3
-512.756E-6	-57.3021E-12	3.76558E+0	-16.6714E-3	-58.0850E-12	3.78246E+0	-24.0513E-3
-517.759E-6	-58.5412E-12	3.78814E+0	-27.8674E-3	-58.6922E-12	3.72240E+0	-11.4682E-3
-522.761E-6	-59.4538E-12	3.79009E+0	-17.4985E-3	-59.8936E-12	3.67935E+0	-6.48003E-3
-527.764E-6	-60.5855E-12	3.76700E+0	-14.5491E-3	-60.4746E-12	3.66172E+0	-23.0293E-3
-532.766E-6	-62.0297E-12	3.76201E+0	-35.9960E-3	-60.6977E-12	3.64529E+0	-28.7628E-3
-537.769E-6	-63.3208E-12	3.79384E+0	-30.1862E-3	-61.6768E-12	3.64183E+0	-29.7793E-3
-542.771E-6	-64.3492E-12	3.80475E+0	-7.28428E-3	-62.1630E-12	3.63271E+0	-31.3246E-3
-547.774E-6	-65.3930E-12	3.78601E+0	-7.42671E-3	-63.4583E-12	3.61243E+0	-23.6107E-3
-552.776E-6	-66.9179E-12	3.77555E+0	-4.63895E-3	-64.1564E-12	3.62568E+0	-13.0400E-3
-557.779E-6	-68.0819E-12	3.78317E+0	-18.5205E-6	-64.9290E-12	3.65818E+0	-10.8519E-3
-562.781E-6	-69.3623E-12	3.80385E+0	-13.5694E-3	-66.6507E-12	3.68355E+0	-16.8091E-3
-567.784E-6	-70.9687E-12	3.81693E+0	-12.2769E-3	-69.5067E-12	3.69705E+0	-17.6750E-3
-572.786E-6	-72.7774E-12	3.78960E+0	-10.3103E-3	-72.0459E-12	3.69438E+0	-16.5241E-3
-577.789E-6	-74.3692E-12	3.75349E+0	-31.2433E-3	-73.7330E-12	3.70283E+0	-10.3322E-3
-582.791E-6	-75.2822E-12	3.74910E+0	-36.3300E-3	-74.9607E-12	3.70548E+0	-5.56722E-3
-587.794E-6	-75.9834E-12	3.73159E+0	-26.2791E-3	-76.9271E-12	3.66744E+0	-17.3067E-3
-592.796E-6	-77.7609E-12	3.70000E+0	-31.5586E-3	-78.8959E-12	3.62991E+0	-30.1732E-3
-597.799E-6	-79.3733E-12	3.68613E+0	-39.6915E-3	-79.9855E-12	3.60779E+0	-37.8875E-3
-602.801E-6	-80.2666E-12	3.66312E+0	-40.1729E-3	-80.8453E-12	3.55983E+0	-46.8167E-3
-607.804E-6	-81.3745E-12	3.63411E+0	-46.7674E-3	-82.2134E-12	3.48976E+0	-39.4992E-3
-612.806E-6	-82.6793E-12	3.61425E+0	-52.7990E-3	-83.6585E-12	3.42897E+0	-21.1458E-3
-617.809E-6	-83.6700E-12	3.58205E+0	-51.1978E-3	-84.2892E-12	3.36841E+0	-13.5471E-3
-622.811E-6	-85.0998E-12	3.53609E+0	-51.3633E-3	-84.0457E-12	3.30483E+0	-3.64031E-3
-627.814E-6	-85.3314E-12	3.50778E+0	-42.6243E-3	-84.7741E-12	3.24313E+0	1.83381E-3
-632.816E-6	-86.5894E-12	3.48447E+0	-26.8771E-3	-86.1691E-12	3.16929E+0	-13.8410E-3
-637.819E-6	-87.2749E-12	3.44745E+0	-17.1879E-3	-86.8407E-12	3.11670E+0	-13.8563E-3
-642.821E-6	-88.0213E-12	3.40501E+0	3.17882E-3	-86.0333E-12	3.11376E+0	-467.634E-6
-647.824E-6	-88.3738E-12	3.34294E+0	12.4415E-3	-86.3138E-12	3.09929E+0	-9.54286E-3
-652.826E-6	-89.5256E-12	3.28239E+0	-8.80539E-3	-88.3871E-12	3.03774E+0	-13.9227E-3
-657.829E-6	-91.5962E-12	3.22963E+0	-12.4871E-3	-90.1438E-12	3.00007E+0	-3.00390E-3
-662.831E-6	-91.8743E-12	3.17608E+0	9.63177E-3	-90.9524E-12	3.00429E+0	-1.50461E-3
-667.834E-6	-92.3536E-12	3.13795E+0	13.9822E-3	-90.9935E-12	2.99250E+0	-8.06685E-3
-672.836E-6	-93.9954E-12	3.09744E+0	-2.61387E-3	-93.6525E-12	2.95630E+0	-15.1224E-3
-677.839E-6	-95.2919E-12	3.03683E+0	-19.2706E-3	-95.9398E-12	2.90481E+0	-21.9786E-3
-682.841E-6	-95.8840E-12	2.98512E+0	-32.0903E-3	-97.6314E-12	2.86097E+0	-21.5478E-3
-687.844E-6	-96.2837E-12	2.96364E+0	-30.6184E-3	-97.7900E-12	2.84730E+0	-10.8638E-3
-692.846E-6	-98.0806E-12	2.93764E+0	-13.2034E-3	-99.5565E-12	2.81908E+0	-18.6758E-3
-697.849E-6	-99.4517E-12	2.89007E+0	-12.4709E-3	-102.352E-12	2.74532E+0	-46.9219E-3
-702.851E-6	-100.039E-12	2.83527E+0	-16.8555E-3	-104.038E-12	2.67851E+0	-64.4371E-3
-707.854E-6	-99.7487E-12	2.78553E+0	-10.1612E-3	-104.434E-12	2.62889E+0	-72.1991E-3
-712.856E-6	-101.215E-12	2.73742E+0	-18.8050E-3	-104.808E-12	2.56422E+0	-51.1441E-3
-717.859E-6	-102.374E-12	2.67896E+0	-22.9462E-3	-106.571E-12	2.49468E+0	-13.6105E-3
-722.861E-6	-103.664E-12	2.61810E+0	-5.30970E-3	-107.087E-12	2.42850E+0	-12.5253E-3
-727.864E-6	-104.170E-12	2.56542E+0	-673.933E-6	-106.065E-12	2.36736E+0	-22.3837E-3
-732.866E-6	-104.799E-12	2.53383E+0	-15.6201E-3	-105.308E-12	2.30515E+0	-28.7177E-3
-737.869E-6	-105.794E-12	2.48407E+0	-30.4385E-3	-106.430E-12	2.21764E+0	-51.7728E-3
-742.871E-6	-107.219E-12	2.40965E+0	-32.2635E-3	-107.564E-12	2.12095E+0	-48.3876E-3
-747.874E-6	-108.969E-12	2.36946E+0	-14.4915E-3	-106.947E-12	2.08205E+0	-12.5691E-3
-752.876E-6	-109.277E-12	2.34475E+0	-3.78926E-3	-106.035E-12	2.07441E+0	5.68588E-3
-757.879E-6	-109.724E-12	2.30157E+0	-27.4658E-3	-106.875E-12	2.02208E+0	-5.95263E-3
-762.881E-6	-111.008E-12	2.24781E+0	-57.5796E-3	-109.664E-12	1.96009E+0	-14.2704E-3
-767.884E-6	-113.439E-12	2.17800E+0	-42.6808E-3	-110.401E-12	1.91329E+0	-13.7347E-3
-772.886E-6	-113.621E-12	2.11072E+0	-15.9144E-3	-110.223E-12	1.85937E+0	-15.5402E-3
-777.889E-6	-113.472E-12	2.06930E+0	-16.2869E-3	-110.052E-12	1.80468E+0	-1.03008E-3
-782.891E-6	-113.947E-12	2.01761E+0	-18.7408E-3	-112.152E-12	1.76103E+0	-6.71294E-3
-787.894E-6	-115.115E-12	1.94666E+0	-18.7880E-3	-114.537E-12	1.71572E+0	-35.9705E-3
-792.896E-6	-115.166E-12	1.89633E+0	-10.7674E-3	-115.063E-12	1.66713E+0	-36.9409E-3
-797.899E-6	-115.066E-12	1.84723E+0	16.2919E-3	-115.398E-12	1.63908E+0	-22.9124E-3
-802.901E-6	-115.303E-12	1.78683E+0	28.0924E-3	-116.092E-12	1.60780E+0	-22.5083E-3
-807.904E-6	-115.963E-12	1.75105E+0	3.71076E-3	-118.405E-12	1.55373E+0	-24.4553E-3
-812.906E-6	-116.405E-12	1.71365E+0	-18.2283E-3	-120.224E-12	1.50107E+0	-28.8370E-3
-817.909E-6	-116.778E-12	1.65216E+0	-38.4156E-3	-119.401E-12	1.44755E+0	-28.4730E-3
-822.911E-6	-117.596E-12	1.60383E+0	-56.9817E-3	-118.568E-12	1.38487E+0	-5.84819E-3
-827.914E-6	-117.897E-12	1.56127E+0	-44.6528E-3	-118.438E-12	1.33462E+0	10.9874E-3
-832.916E-6	-118.685E-12	1.49339E+0	-35.8312E-3	-120.142E-12	1.29509E+0	5.28380E-3
-837.919E-6	-119.016E-12	1.44107E+0	-41.2189E-3	-119.017E-12	1.25346E+0	4.70735E-3
-842.921E-6	-120.169E-12	1.41276E+0	-31.5134E-3	-118.695E-12	1.20405E+0	18.9024E-3
-847.924E-6	-120.985E-12	1.36877E+0	-18.9686E-3	-117.980E-12	1.13682E+0	15.8660E-3
-852.926E-6	-120.590E-12	1.31910E+0	-21.9932E-3	-117.294E-12	1.08076E+0	-314.505E-6
-857.929E-6	-121.544E-12	1.26645E+0	-31.6388E-3	-117.407E-12	1.04661E+0	-19.7593E-3
-862.931E-6	-122.893E-12	1.22397E+0	-34.4391E-3	-116.738E-12	1.01212E+0	-42.8942E-3
-867.934E-6	-123.474E-12	1.20621E+0	-24.6871E-3	-117.230E-12	989.121E-3	-46.9786E-3
-872.936E-6	-123.269E-12	1.17081E+0	-11.6894E-3	-116.276E-12	976.194E-3	-42.1221E-3
-877.939E-6	-122.602E-12	1.11245E+0	-11.2088E-3	-117.688E-12	936.172E-3	-43.4146E-3
-882.941E-6	-122.016E-12	1.07878E+0	-24.6604E-3	-118.410E-12	897.940E-3	-38.3175E-3
-887.944E-6	-122.225E-12	1.05500E+0	-32.2522E-3	-119.739E-12	891.151E-3	-40.0184E-3
-892.946E-6	-122.989E-12	1.00955E+0	-27.6521E-3	-120.220E-12	866.028E-3	-35.9707E-3
-897.949E-6	-122.328E-12	967.822E-3	-26.4156E-3	-120.770E-12	825.294E-3	-12.3454E-3
-902.951E-6	-121.432E-12	934.432E-3	-19.5318E-3	-123.381E-12	797.389E-3	-12.2447E-3
-907.954E-6	-122.896E-12	882.733E-3	-536.045E-6	-124.720E-12	764.021E-3	-20.8651E-3
-912.956E-6	-122.913E-12	824.722E-3	11.7979E-3	-125.849E-12	729.839E-3	-12.8726E-3
-917.959E-6	-123.496E-12	794.729E-3	20.4438E-3	-125.763E-12	719.180E-3	-15.6489E-3
-922.961E-6	-122.193E-12	785.740E-3	19.7087E-3	-126.919E-12	713.637E-3	-17.8069E-3
-927.964E-6	-122.911E-12	778.063E-3	-6.23033E-3	-128.306E-12	684.629E-3	4.62394E-3
-932.966E-6	-123.571E-12	748.380E-3	-21.3370E-3	-128.666E-12	652.813E-3	11.3151E-3
-937.969E-6	-124.497E-12	695.136E-3	-16.7379E-3	-127.625E-12	640.962E-3	-11.5662E-3
-942.971E-6	-125.140E-12	665.425E-3	-11.1157E-3	-126.347E-12	621.324E-3	-14.2193E-3
-947.974E-6	-123.826E-12	652.008E-3	3.95622E-3	-127.263E-12	593.293E-3	-2.95544E-3
-952.976E-6	-123.887E-12	628.723E-3	10.0202E-3	-126.536E-12	565.141E-3	2.34216E-3
-957.979E-6	-123.981E-12	616.463E-3	-2.83082E-3	-124.550E-12	521.348E-3	14.2974E-3
-962.981E-6	-125.695E-12	615.284E-3	-14.5304E-3	-121.591E-12	484.045E-3	22.6534E-3
-967.984E-6	-124.716E-12	607.638E-3	-26.9001E-3	-122.722E-12	463.365E-3	13.2733E-3
-972.986E-6	-124.409E-12	588.606E-3	-32.6617E-3	-123.194E-12	441.101E-3	4.90574E-3
-977.989E-6	-124.674E-12	564.431E-3	-30.3181E-3	-123.058E-12	430.877E-3	4.31651E-3
-982.991E-6	-125.648E-12	525.351E-3	-27.3202E-3	-122.683E-12	424.859E-3	-13.8605E-3
-987.994E-6	-125.388E-12	492.941E-3	-11.5447E-3	-123.071E-12	400.634E-3	-26.9171E-3
-992.997E-6	-123.884E-12	487.570E-3	1.17280E-3	-124.800E-12	382.034E-3	-16.5952E-3
-997.999E-6	-125.205E-12	471.733E-3	-9.00931E-3	-126.197E-12	378.260E-3	-18.7287E-3
-1.00300E-3	-127.013E-12	440.521E-3	-28.6401E-3	-127.818E-12	379.238E-3	-25.0660E-3
-1.00800E-3	-127.032E-12	425.240E-3	-30.9539E-3	-128.015E-12	380.788E-3	-35.6436E-3
-1.01301E-3	-125.756E-12	418.863E-3	-23.6767E-3	-129.214E-12	365.058E-3	-57.0447E-3
-1.01801E-3	-125.809E-12	409.138E-3	-27.1365E-3	-130.499E-12	353.641E-3	-58.7130E-3
-1.02301E-3	-128.820E-12	397.722E-3	-22.4737E-3	-132.168E-12	368.957E-3	-32.1665E-3
-1.02801E-3	-130.141E-12	372.282E-3	-9.83190E-3	-131.845E-12	371.161E-3	431.117E-6
-1.03302E-3	-129.476E-12	352.077E-3	-14.3047E-3	-131.181E-12	351.834E-3	19.4055E-3
-1.03802E-3	-127.544E-12	353.369E-3	-15.0048E-3	-131.180E-12	336.924E-3	17.0896E-3
-1.04302E-3	-127.961E-12	347.395E-3	-11.6389E-3	-131.434E-12	327.205E-3	-12.8977E-3
-1.04802E-3	-129.248E-12	340.863E-3	-21.6376E-3	-131.400E-12	304.267E-3	-33.3511E-3
-1.05303E-3	-130.139E-12	352.114E-3	-18.1232E-3	-129.517E-12	283.425E-3	-14.1207E-3
-1.05803E-3	-127.535E-12	354.757E-3	-6.28295E-3	-128.098E-12	282.929E-3	-359.383E-6
-1.06303E-3	-126.709E-12	329.941E-3	-7.05686E-3	-128.210E-12	278.973E-3	-9.27581E-3
-1.06803E-3	-127.390E-12	309.919E-3	-12.3151E-3	-127.562E-12	274.650E-3	-19.1441E-3
-1.07304E-3	-129.255E-12	307.665E-3	-4.73391E-3	-126.874E-12	277.840E-3	-36.5181E-3
-1.07804E-3	-128.298E-12	296.348E-3	-7.34058E-3	-126.270E-12	262.089E-3	-38.5244E-3
-1.08304E-3	-127.918E-12	290.941E-3	-37.0619E-3	-127.153E-12	249.183E-3	-24.3849E-3
-1.08804E-3	-127.292E-12	284.447E-3	-53.0390E-3	-128.233E-12	272.740E-3	-41.6165E-3
-1.09305E-3	-129.580E-12	266.665E-3	-45.0783E-3	-127.864E-12	283.904E-3	-56.6529E-3
-1.09805E-3	-129.330E-12	260.814E-3	-41.4112E-3	-128.377E-12	270.501E-3	-32.1023E-3
-1.10305E-3	-129.185E-12	247.211E-3	-44.6345E-3	-129.751E-12	272.601E-3	-8.71444E-3
-1.10805E-3	-130.001E-12	240.124E-3	-34.9411E-3	-131.325E-12	275.660E-3	2.03773E-3
-1.11306E-3	-130.713E-12	250.795E-3	-19.4923E-3	-131.347E-12	267.563E-3	9.94391E-3
-1.11806E-3	-131.548E-12	236.993E-3	-9.12558E-3	-131.444E-12	260.559E-3	7.73070E-3
-1.12306E-3	-130.802E-12	222.900E-3	-26.3029E-3	-131.917E-12	251.624E-3	-9.85406E-3
-1.12806E-3	-130.577E-12	241.883E-3	-48.9141E-3	-133.415E-12	238.567E-3	-27.5306E-3
-1.13307E-3	-130.685E-12	249.724E-3	-32.8923E-3	-133.826E-12	232.857E-3	-20.3742E-3
-1.13807E-3	-131.293E-12	238.039E-3	-12.4190E-3	-132.875E-12	233.474E-3	-7.13112E-3
-1.14307E-3	-130.915E-12	244.597E-3	-8.52545E-3	-132.271E-12	237.705E-3	-7.95533E-3
-1.14807E-3	-130.142E-12	251.163E-3	-11.7012E-3	-131.474E-12	242.852E-3	-22.0404E-3
-1.15308E-3	-129.598E-12	241.695E-3	-20.8659E-3	-131.948E-12	241.796E-3	-33.7662E-3
-1.15808E-3	-129.847E-12	238.422E-3	-16.1622E-3	-130.661E-12	244.170E-3	-25.0746E-3
-1.16308E-3	-129.369E-12	252.040E-3	1.18931E-3	-129.991E-12	233.636E-3	-16.3885E-3
-1.16808E-3	-129.907E-12	265.350E-3	-11.2501E-3	-128.738E-12	209.918E-3	-33.7540E-3
-1.17309E-3	-130.256E-12	262.083E-3	-37.7951E-3	-129.601E-12	222.123E-3	-42.2524E-3
-1.17809E-3	-130.053E-12	247.514E-3	-28.7874E-3	-129.301E-12	256.208E-3	-17.2931E-3
-1.18309E-3	-130.737E-12	235.782E-3	-15.3927E-3	-129.337E-12	263.485E-3	-4.72778E-3
-1.18809E-3	-130.259E-12	244.049E-3	-17.9058E-3	-129.652E-12	258.928E-3	-10.9567E-3
-1.19310E-3	-131.504E-12	263.805E-3	-1.99879E-3	-130.079E-12	266.674E-3	-16.5898E-3
-1.19810E-3	-131.522E-12	254.869E-3	3.29049E-3	-131.168E-12	263.374E-3	-29.4746E-3
-1.20310E-3	-131.749E-12	241.030E-3	-9.90925E-3	-130.854E-12	264.848E-3	-35.5539E-3
-1.20810E-3	-130.843E-12	259.707E-3	-13.8257E-3	-131.836E-12	281.809E-3	-30.7982E-3
-1.21311E-3	-131.471E-12	280.933E-3	-25.2919E-3	-132.784E-12	282.006E-3	-11.9955E-3
-1.21811E-3	-132.009E-12	276.821E-3	-42.6396E-3	-133.917E-12	281.102E-3	6.47321E-3
-1.22311E-3	-130.950E-12	263.490E-3	-40.1618E-3	-133.507E-12	293.013E-3	-3.62504E-3
-1.22811E-3	-131.335E-12	261.491E-3	-22.5655E-3	-133.969E-12	295.105E-3	-16.7666E-3
-1.23312E-3	-131.386E-12	267.880E-3	-15.3539E-3	-134.341E-12	291.680E-3	-15.8111E-3
-1.23812E-3	-132.678E-12	272.429E-3	-13.6458E-3	-134.088E-12	300.274E-3	-8.22356E-3
-1.24312E-3	-130.430E-12	273.010E-3	-17.7497E-3	-134.940E-12	311.339E-3	-7.61669E-3
-1.24812E-3	-129.651E-12	286.988E-3	-26.3727E-3	-134.925E-12	325.030E-3	-14.2232E-3
-1.25313E-3	-130.130E-12	287.996E-3	-14.7383E-3	-134.466E-12	334.273E-3	-15.4753E-3
-1.25813E-3	-131.790E-12	268.622E-3	-1.44331E-3	-132.237E-12	315.805E-3	-10.9338E-3
-1.26313E-3	-132.376E-12	280.163E-3	-2.59137E-3	-132.267E-12	303.623E-3	-3.23011E-3
-1.26813E-3	-131.689E-12	309.870E-3	-6.13664E-3	-131.910E-12	317.236E-3	-13.1564E-3
-1.27314E-3	-131.721E-12	326.364E-3	-25.9080E-3	-131.594E-12	315.839E-3	-36.9066E-3
-1.27814E-3	-132.303E-12	335.229E-3	-36.1949E-3	-128.956E-12	315.847E-3	-28.4165E-3
-1.28314E-3	-133.916E-12	322.026E-3	-14.8953E-3	-128.426E-12	343.985E-3	-16.0537E-3
-1.28814E-3	-133.347E-12	302.786E-3	-3.09636E-3	-130.053E-12	344.344E-3	-25.1872E-3
-1.29315E-3	-133.483E-12	306.255E-3	-11.9127E-3	-130.941E-12	318.103E-3	-17.8131E-3
-1.29815E-3	-133.840E-12	308.989E-3	-19.0186E-3	-130.002E-12	327.541E-3	-10.3346E-3
-1.30315E-3	-135.226E-12	307.263E-3	-29.9757E-3	-128.801E-12	341.701E-3	-18.7403E-3
-1.30815E-3	-134.941E-12	332.760E-3	-38.6642E-3	-131.042E-12	341.168E-3	-19.6619E-3
-1.31316E-3	-133.824E-12	362.706E-3	-22.9037E-3	-133.424E-12	339.853E-3	-8.70141E-3
-1.31816E-3	-133.464E-12	359.791E-3	-5.02066E-3	-134.571E-12	338.814E-3	-8.49439E-3
-1.32316E-3	-133.942E-12	351.045E-3	-3.49457E-3	-134.162E-12	368.475E-3	-17.6133E-3
-1.32816E-3	-134.368E-12	358.216E-3	-3.44776E-3	-135.629E-12	402.687E-3	-28.0156E-3
-1.33317E-3	-133.049E-12	364.405E-3	-6.61442E-3	-138.205E-12	402.291E-3	-32.0828E-3
-1.33817E-3	-132.659E-12	365.511E-3	-12.5953E-3	-138.832E-12	393.765E-3	-30.2926E-3
-1.34317E-3	-133.465E-12	354.931E-3	-9.01344E-3	-137.639E-12	404.350E-3	-29.4636E-3
-1.34817E-3	-133.152E-12	347.589E-3	-16.8388E-3	-135.702E-12	400.246E-3	-18.9502E-3
-1.35318E-3	-133.696E-12	379.794E-3	-25.4413E-3	-137.715E-12	383.224E-3	-5.95530E-3
-1.35818E-3	-134.006E-12	407.582E-3	-7.43937E-3	-138.763E-12	403.772E-3	-10.9196E-3
-1.36318E-3	-134.630E-12	390.576E-3	153.094E-6	-137.079E-12	445.162E-3	-31.8790E-3
-1.36818E-3	-133.837E-12	387.314E-3	-8.70884E-3	-134.498E-12	459.214E-3	-30.5287E-3
-1.37319E-3	-134.282E-12	405.251E-3	-6.94767E-3	-134.262E-12	450.568E-3	-6.78601E-3
-1.37819E-3	-135.063E-12	411.978E-3	-3.46670E-3	-133.585E-12	439.484E-3	-11.1640E-3
-1.38319E-3	-134.679E-12	415.458E-3	-4.94714E-3	-133.949E-12	423.085E-3	-23.2712E-3
-1.38819E-3	-133.752E-12	410.976E-3	-10.4264E-3	-132.808E-12	426.142E-3	-12.0863E-3
-1.39320E-3	-134.213E-12	403.028E-3	-19.5466E-3	-132.302E-12	440.169E-3	-9.27168E-3
-1.39820E-3	-135.386E-12	414.598E-3	-30.5490E-3	-132.735E-12	429.076E-3	-8.80205E-3
-1.40320E-3	-134.390E-12	431.214E-3	-28.8155E-3	-133.956E-12	434.756E-3	-6.85512E-3
-1.40820E-3	-133.759E-12	429.988E-3	-189.609E-6	-135.001E-12	459.276E-3	-19.5460E-3
-1.41321E-3	-133.817E-12	426.851E-3	23.8686E-3	-134.843E-12	459.492E-3	-36.1613E-3
-1.41821E-3	-135.239E-12	424.938E-3	25.7357E-3	-134.137E-12	463.888E-3	-39.1651E-3
-1.42321E-3	-135.770E-12	434.528E-3	14.6181E-3	-136.185E-12	478.114E-3	-35.9928E-3
-1.42821E-3	-135.772E-12	463.283E-3	-8.56193E-3	-138.679E-12	482.638E-3	-34.8958E-3
-1.43322E-3	-135.916E-12	479.475E-3	-15.8795E-3	-138.681E-12	484.162E-3	-20.9698E-3
-1.43822E-3	-136.778E-12	476.737E-3	3.57960E-3	-138.269E-12	497.629E-3	-3.96561E-3
-1.44322E-3	-137.702E-12	476.602E-3	6.87542E-3	-138.882E-12	505.710E-3	-13.4459E-3
-1.44822E-3	-139.540E-12	473.405E-3	-24.5203E-3	-140.870E-12	490.352E-3	-30.2619E-3
-1.45323E-3	-139.015E-12	473.886E-3	-51.0985E-3	-140.549E-12	489.375E-3	-22.1893E-3
-1.45823E-3	-139.251E-12	506.674E-3	-51.6503E-3	-139.149E-12	498.923E-3	-10.4037E-3
-1.46323E-3	-140.128E-12	530.011E-3	-35.4062E-3	-137.477E-12	497.449E-3	-3.72262E-3
-1.46823E-3	-141.422E-12	515.016E-3	-12.6931E-3	-138.075E-12	486.970E-3	-4.06820E-3
-1.47324E-3	-140.213E-12	497.412E-3	-4.72183E-3	-137.687E-12	474.584E-3	-14.9296E-3
-1.47824E-3	-139.341E-12	493.080E-3	-7.70345E-3	-136.905E-12	495.154E-3	-10.0134E-3
-1.48324E-3	-139.049E-12	499.393E-3	-8.06248E-3	-135.736E-12	531.482E-3	227.783E-6
-1.48824E-3	-139.972E-12	512.416E-3	-14.2407E-3	-134.976E-12	532.186E-3	-5.97294E-3
-1.49325E-3	-139.078E-12	519.237E-3	-15.8208E-3	-136.457E-12	519.708E-3	-11.4667E-3
-1.49825E-3	-138.029E-12	509.715E-3	-6.96936E-3	-136.760E-12	521.652E-3	-4.76705E-3
-1.50325E-3	-137.199E-12	507.287E-3	2.03838E-3	-136.579E-12	524.848E-3	-4.06101E-3
-1.50825E-3	-138.003E-12	528.794E-3	592.320E-6	-135.648E-12	528.316E-3	-13.8734E-3
-1.51326E-3	-138.149E-12	530.959E-3	-1.21698E-3	-137.602E-12	532.345E-3	-20.1906E-3
-1.51826E-3	-137.769E-12	514.950E-3	-3.13531E-3	-139.849E-12	538.172E-3	-9.98442E-3
-1.52326E-3	-136.902E-12	526.509E-3	-7.71870E-3	-139.649E-12	533.420E-3	7.74956E-3
-1.52826E-3	-138.301E-12	540.482E-3	-6.44542E-3	-139.419E-12	532.757E-3	4.54810E-3
-1.53327E-3	-139.531E-12	534.471E-3	-14.5444E-3	-140.743E-12	542.427E-3	-15.7805E-3
-1.53827E-3	-140.642E-12	527.446E-3	-29.8063E-3	-143.355E-12	544.819E-3	-24.0516E-3
-1.54327E-3	-140.090E-12	518.596E-3	-26.4343E-3	-142.820E-12	555.507E-3	-17.1374E-3
-1.54827E-3	-139.893E-12	517.545E-3	-19.1936E-3	-141.357E-12	558.817E-3	-10.4785E-3
-1.55328E-3	-140.953E-12	546.640E-3	-24.6757E-3	-141.282E-12	544.770E-3	-3.55902E-3
-1.55828E-3	-141.982E-12	569.230E-3	-21.2967E-3	-142.817E-12	535.349E-3	-3.32535E-3
-1.56328E-3	-140.973E-12	561.377E-3	-18.8608E-3	-143.216E-12	534.674E-3	-13.6543E-3
-1.56828E-3	-140.174E-12	546.914E-3	-21.3535E-3	-142.359E-12	533.834E-3	-6.18691E-3
-1.57329E-3	-139.429E-12	530.140E-3	-16.4424E-3	-140.584E-12	539.438E-3	10.9137E-3
-1.57829E-3	-140.907E-12	513.141E-3	-32.1074E-3	-140.409E-12	547.001E-3	-2.48102E-3
-1.58329E-3	-141.158E-12	512.267E-3	-47.8600E-3	-140.143E-12	545.329E-3	-11.4916E-3
-1.58829E-3	-140.313E-12	530.945E-3	-30.0307E-3	-140.487E-12	547.446E-3	10.7845E-3
-1.59330E-3	-139.421E-12	547.176E-3	-14.5220E-3	-139.026E-12	549.792E-3	-3.65601E-3
-1.59830E-3	-140.436E-12	550.442E-3	-21.4130E-3	-138.726E-12	552.059E-3	-37.9579E-3
-1.60330E-3	-141.977E-12	535.358E-3	-20.2794E-3	-140.021E-12	553.670E-3	-24.9763E-3
-1.60830E-3	-141.926E-12	518.899E-3	-3.62542E-3	-140.795E-12	538.766E-3	-7.05243E-3
-1.61331E-3	-141.984E-12	543.228E-3	1.57104E-3	-140.876E-12	528.136E-3	-12.7156E-3
-1.61831E-3	-142.784E-12	566.185E-3	-13.1139E-3	-140.241E-12	539.429E-3	-15.0560E-3
-1.62331E-3	-144.360E-12	555.514E-3	-29.0833E-3	-142.351E-12	553.169E-3	-10.1729E-3
-1.62831E-3	-144.654E-12	543.154E-3	-19.3227E-3	-143.982E-12	572.284E-3	-7.18147E-3
-1.63332E-3	-144.589E-12	520.813E-3	-6.06184E-3	-144.491E-12	586.398E-3	-18.6852E-3
-1.63832E-3	-144.648E-12	515.122E-3	-28.9631E-3	-144.770E-12	583.983E-3	-31.9107E-3
-1.64332E-3	-145.280E-12	539.872E-3	-47.6672E-3	-145.963E-12	583.390E-3	-27.8935E-3
-1.64832E-3	-145.665E-12	543.740E-3	-33.3976E-3	-147.861E-12	583.496E-3	-13.2989E-3
-1.65333E-3	-144.547E-12	534.206E-3	-20.0935E-3	-146.990E-12	570.383E-3	-2.41953E-3
-1.65833E-3	-143.625E-12	552.439E-3	-7.66317E-3	-147.118E-12	558.051E-3	-2.21920E-3
-1.66333E-3	-143.748E-12	572.652E-3	-6.86967E-3	-145.941E-12	563.478E-3	-6.12348E-3
-1.66833E-3	-144.620E-12	574.618E-3	-26.5431E-3	-145.828E-12	559.389E-3	-22.1932E-3
-1.67334E-3	-144.635E-12	591.792E-3	-31.7483E-3	-145.537E-12	547.358E-3	-40.9078E-3
-1.67834E-3	-143.272E-12	597.459E-3	-22.6898E-3	-145.155E-12	559.798E-3	-38.1229E-3
-1.68334E-3	-142.466E-12	588.014E-3	-18.8091E-3	-142.995E-12	570.603E-3	-40.4569E-3
-1.68834E-3	-143.781E-12	603.997E-3	-13.9483E-3	-142.216E-12	559.573E-3	-53.2201E-3
-1.69335E-3	-145.069E-12	600.344E-3	-17.1098E-3	-142.679E-12	565.882E-3	-43.8665E-3
-1.69835E-3	-145.004E-12	572.870E-3	-31.2050E-3	-141.910E-12	580.027E-3	-28.1909E-3
-1.70335E-3	-145.107E-12	589.037E-3	-26.2947E-3	-141.895E-12	571.797E-3	-21.1434E-3
-1.70835E-3	-145.981E-12	604.504E-3	1.95176E-3	-141.785E-12	577.974E-3	-17.4825E-3
-1.71336E-3	-146.903E-12	578.883E-3	12.7436E-3	-142.828E-12	599.519E-3	-29.6152E-3
-1.71836E-3	-147.841E-12	581.620E-3	-5.44477E-3	-144.005E-12	602.305E-3	-39.0321E-3
-1.72336E-3	-147.463E-12	591.596E-3	-20.8304E-3	-145.160E-12	595.628E-3	-31.9720E-3
-1.72836E-3	-147.533E-12	568.209E-3	-29.3964E-3	-145.313E-12	575.824E-3	-13.3219E-3
-1.73337E-3	-149.473E-12	561.089E-3	-30.8935E-3	-146.301E-12	559.389E-3	1.00095E-3
-1.73837E-3	-150.095E-12	571.371E-3	-9.63636E-3	-148.025E-12	579.351E-3	7.27712E-3
-1.74337E-3	-149.670E-12	567.919E-3	12.5948E-3	-149.414E-12	608.058E-3	13.5796E-3
-1.74837E-3	-149.047E-12	575.224E-3	6.94693E-3	-150.336E-12	624.809E-3	-2.90201E-3
-1.75338E-3	-149.042E-12	600.249E-3	-9.12341E-3	-150.441E-12	626.035E-3	-34.0311E-3
-1.75838E-3	-149.104E-12	602.336E-3	-24.9636E-3	-151.276E-12	624.644E-3	-50.6033E-3
-1.76338E-3	-149.254E-12	584.592E-3	-28.6110E-3	-151.511E-12	621.544E-3	-43.4777E-3
-1.76838E-3	-148.115E-12	568.816E-3	-13.5368E-3	-151.040E-12	599.585E-3	-23.0200E-3
-1.77339E-3	-148.639E-12	558.286E-3	-12.3550E-3	-150.243E-12	599.879E-3	-4.13782E-3
-1.77839E-3	-149.619E-12	559.557E-3	-26.9424E-3	-150.965E-12	612.542E-3	1.24098E-3
-1.78339E-3	-148.935E-12	558.575E-3	-25.1185E-3	-151.680E-12	602.029E-3	-5.96241E-3
-1.78839E-3	-148.038E-12	557.802E-3	-22.2456E-3	-150.265E-12	588.659E-3	-8.67434E-3
-1.79340E-3	-150.081E-12	579.200E-3	-31.1594E-3	-148.558E-12	575.690E-3	1.62233E-3
-1.79840E-3	-151.517E-12	586.181E-3	-19.1156E-3	-148.049E-12	566.838E-3	13.1334E-3
-1.80340E-3	-150.895E-12	574.583E-3	-18.6516E-3	-149.266E-12	579.375E-3	11.8467E-3
-1.80840E-3	-149.300E-12	598.352E-3	-38.3334E-3	-149.201E-12	588.128E-3	3.26483E-3
-1.81341E-3	-149.529E-12	634.999E-3	-24.1237E-3	-148.018E-12	573.869E-3	-12.0135E-3
-1.81841E-3	-151.319E-12	636.826E-3	-4.49648E-3	-147.637E-12	571.046E-3	-17.7763E-3
-1.82341E-3	-151.869E-12	619.317E-3	-4.61488E-3	-148.963E-12	583.033E-3	-4.31354E-3
-1.82841E-3	-151.480E-12	604.791E-3	-852.583E-6	-150.146E-12	595.692E-3	-438.782E-6
-1.83342E-3	-150.017E-12	606.367E-3	-1.55228E-3	-150.105E-12	610.741E-3	-15.8431E-3
-1.83842E-3	-151.422E-12	621.445E-3	-11.7725E-3	-150.889E-12	616.403E-3	-16.5619E-3
-1.84342E-3	-151.851E-12	619.031E-3	-12.1688E-3	-152.539E-12	619.137E-3	5.23104E-3
-1.84842E-3	-152.127E-12	598.509E-3	-14.5187E-3	-154.004E-12	624.542E-3	15.1070E-3
-1.85343E-3	-151.422E-12	599.510E-3	-34.7442E-3	-154.351E-12	630.990E-3	11.2134E-3
-1.85843E-3	-151.913E-12	612.877E-3	-40.3632E-3	-155.109E-12	638.571E-3	4.17396E-3
-1.86343E-3	-153.581E-12	613.305E-3	-28.0450E-3	-155.979E-12	639.072E-3	-12.9735E-3
-1.86843E-3	-153.633E-12	627.337E-3	-27.3056E-3	-156.758E-12	634.718E-3	-20.6544E-3
-1.87344E-3	-153.574E-12	640.058E-3	-18.8757E-3	-156.867E-12	626.804E-3	-15.8562E-3
-1.87844E-3	-152.521E-12	635.771E-3	-686.175E-6	-155.598E-12	615.886E-3	-11.5028E-3
-1.88344E-3	-154.576E-12	634.535E-3	-5.39955E-3	-155.397E-12	617.670E-3	-8.94382E-3
-1.88844E-3	-155.292E-12	639.044E-3	-19.9624E-3	-155.272E-12	635.146E-3	-10.4104E-3
-1.89345E-3	-155.805E-12	630.518E-3	-19.9267E-3	-155.372E-12	628.161E-3	-5.32984E-3
-1.89845E-3	-153.908E-12	598.464E-3	-11.3472E-3	-154.110E-12	602.580E-3	-4.26977E-3
-1.90345E-3	-155.060E-12	587.069E-3	-14.9408E-3	-152.275E-12	603.993E-3	-20.8586E-3
-1.90845E-3	-157.097E-12	609.344E-3	-32.8569E-3	-151.362E-12	606.683E-3	-27.8897E-3
-1.91346E-3	-156.847E-12	637.594E-3	-31.7256E-3	-152.711E-12	590.283E-3	-16.0989E-3
-1.91846E-3	-155.486E-12	648.083E-3	-3.77396E-3	-152.464E-12	584.234E-3	-19.2481E-3
-1.92346E-3	-154.618E-12	648.305E-3	22.1586E-3	-151.960E-12	603.343E-3	-22.0091E-3
-1.92846E-3	-156.047E-12	652.298E-3	21.4385E-3	-151.984E-12	636.236E-3	-5.33013E-3
-1.93347E-3	-156.639E-12	645.877E-3	-430.167E-6	-153.527E-12	652.320E-3	4.37421E-3
-1.93847E-3	-156.557E-12	638.046E-3	-33.2464E-3	-155.076E-12	659.700E-3	-895.019E-6
-1.94347E-3	-154.875E-12	636.446E-3	-49.4580E-3	-155.852E-12	674.102E-3	-28.3936E-3
-1.94847E-3	-155.234E-12	631.741E-3	-27.7275E-3	-154.848E-12	659.386E-3	-45.6227E-3
-1.95348E-3	-157.371E-12	633.804E-3	-13.5645E-3	-157.532E-12	624.051E-3	-16.6995E-3
-1.95848E-3	-158.233E-12	646.063E-3	-26.7666E-3	-159.515E-12	624.047E-3	20.8417E-3
-1.96348E-3	-157.986E-12	644.700E-3	-26.1512E-3	-159.977E-12	645.579E-3	21.7443E-3
-1.96848E-3	-156.411E-12	617.940E-3	-10.7768E-3	-159.544E-12	638.788E-3	-11.2679E-3
-1.97349E-3	-158.109E-12	592.626E-3	-10.7883E-3	-160.422E-12	606.521E-3	-32.0387E-3
-1.97849E-3	-159.145E-12	606.735E-3	-14.9880E-3	-160.221E-12	605.338E-3	-17.8423E-3
-1.98349E-3	-158.238E-12	634.853E-3	-5.60473E-3	-159.881E-12	645.196E-3	865.278E-6
-1.98849E-3	-157.622E-12	655.086E-3	-660.680E-6	-158.706E-12	638.164E-3	3.60659E-3
-1.99350E-3	-157.811E-12	657.509E-3	-17.2597E-3	-159.544E-12	591.219E-3	-4.66553E-3
-1.99850E-3	-158.349E-12	635.055E-3	-27.2725E-3	-159.352E-12	595.329E-3	-8.80123E-3
-2.00350E-3	-158.941E-12	626.408E-3	-10.8012E-3	-156.967E-12	633.654E-3	-12.4304E-3
-2.00850E-3	-158.360E-12	630.175E-3	1.83869E-3	-154.672E-12	642.531E-3	-30.9522E-3
-2.01351E-3	-158.228E-12	623.074E-3	2.75275E-3	-153.935E-12	632.879E-3	-32.8188E-3
-2.01851E-3	-158.601E-12	633.059E-3	-1.40867E-3	-155.310E-12	644.695E-3	-8.19666E-3
-2.02351E-3	-158.792E-12	654.863E-3	644.923E-6	-155.625E-12	664.171E-3	3.72482E-3
-2.02851E-3	-159.913E-12	642.465E-3	4.38241E-3	-155.092E-12	668.294E-3	4.32025E-3
-2.03352E-3	-161.141E-12	620.509E-3	-12.2459E-3	-156.396E-12	662.071E-3	1.21630E-3
-2.03852E-3	-160.039E-12	636.472E-3	-30.4817E-3	-158.357E-12	640.142E-3	-15.8319E-3
-2.04352E-3	-161.094E-12	659.195E-3	-42.9600E-3	-159.498E-12	622.278E-3	-26.0908E-3
-2.04852E-3	-163.034E-12	663.082E-3	-43.8674E-3	-159.021E-12	637.205E-3	-12.1095E-3
-2.05353E-3	-164.336E-12	677.487E-3	-13.9248E-3	-159.964E-12	644.950E-3	-2.56586E-3
-2.05853E-3	-163.100E-12	686.167E-3	2.65712E-3	-162.091E-12	635.090E-3	20.1176E-3
-2.06353E-3	-162.319E-12	672.544E-3	-17.3446E-3	-164.384E-12	640.393E-3	30.3365E-3
-2.06853E-3	-164.344E-12	660.453E-3	-20.2754E-3	-165.211E-12	648.670E-3	-3.92340E-3
-2.07354E-3	-165.056E-12	643.023E-3	-7.62081E-3	-164.375E-12	636.879E-3	-9.08588E-3
-2.07854E-3	-163.875E-12	639.551E-3	-15.7998E-3	-165.767E-12	619.349E-3	6.34484E-3
-2.08354E-3	-162.367E-12	665.048E-3	-6.87433E-3	-166.556E-12	624.677E-3	12.5597E-3
-2.08854E-3	-162.801E-12	668.354E-3	-4.89682E-3	-167.425E-12	645.516E-3	13.0763E-3
-2.09355E-3	-163.106E-12	652.334E-3	-42.7968E-3	-165.352E-12	653.624E-3	-4.26834E-3
-2.09855E-3	-162.171E-12	652.605E-3	-45.2720E-3	-163.382E-12	641.710E-3	-24.9202E-3
-2.10355E-3	-160.438E-12	647.594E-3	-21.3447E-3	-162.309E-12	634.137E-3	-37.6996E-3
-2.10855E-3	-160.094E-12	633.381E-3	-31.2199E-3	-163.066E-12	627.157E-3	-35.3793E-3
-2.11356E-3	-161.138E-12	630.802E-3	-35.9488E-3	-163.180E-12	626.397E-3	-17.7754E-3
-2.11856E-3	-161.755E-12	625.922E-3	-6.32368E-3	-162.672E-12	644.380E-3	-1.76329E-3
-2.12356E-3	-162.379E-12	625.423E-3	1.31806E-3	-161.711E-12	655.920E-3	1.34830E-3
-2.12856E-3	-161.474E-12	648.116E-3	-15.2157E-3	-162.435E-12	669.995E-3	-11.6014E-3
-2.13357E-3	-162.555E-12	649.593E-3	3.42590E-3	-163.380E-12	671.359E-3	-22.9153E-3
-2.13857E-3	-164.578E-12	640.423E-3	9.03358E-3	-163.849E-12	656.264E-3	-14.1845E-3
-2.14357E-3	-166.345E-12	661.750E-3	-15.5298E-3	-162.858E-12	652.286E-3	-7.22730E-3
-2.14857E-3	-166.597E-12	665.184E-3	-5.42520E-3	-162.907E-12	638.741E-3	-10.6461E-3
-2.15358E-3	-165.476E-12	625.799E-3	-5.99854E-3	-164.722E-12	641.312E-3	-17.7543E-3
-2.15858E-3	-166.969E-12	612.612E-3	-18.6696E-3	-166.036E-12	668.342E-3	-49.7150E-3
-2.16358E-3	-168.147E-12	638.718E-3	-5.17864E-3	-167.170E-12	680.218E-3	-63.5136E-3
-2.16858E-3	-169.393E-12	654.920E-3	-7.72232E-3	-167.649E-12	688.946E-3	-20.5226E-3
-2.17359E-3	-167.984E-12	665.614E-3	-13.4103E-3	-168.189E-12	693.956E-3	5.06849E-3
-2.17859E-3	-168.298E-12	664.137E-3	-1.54364E-3	-168.138E-12	680.548E-3	-14.6836E-3
-2.18359E-3	-168.511E-12	644.700E-3	-9.80708E-3	-168.473E-12	662.903E-3	-28.2993E-3
-2.18859E-3	-167.871E-12	646.262E-3	-24.1860E-3	-167.734E-12	668.793E-3	-19.2261E-3
-2.19360E-3	-166.994E-12	661.481E-3	-21.4510E-3	-167.309E-12	680.081E-3	-10.6963E-3
-2.19860E-3	-165.621E-12	659.677E-3	-30.8501E-3	-167.351E-12	675.125E-3	-22.1850E-3
-2.20360E-3	-165.617E-12	663.234E-3	-47.1683E-3	-167.750E-12	680.947E-3	-33.9313E-3
-2.20860E-3	-165.907E-12	673.382E-3	-40.0869E-3	-167.660E-12	680.892E-3	-24.5642E-3
-2.21361E-3	-166.111E-12	660.074E-3	-28.2056E-3	-167.631E-12	664.016E-3	-5.90012E-3
-2.21861E-3	-166.129E-12	630.604E-3	-21.1407E-3	-167.118E-12	645.392E-3	-4.92126E-3
-2.22361E-3	-167.876E-12	638.952E-3	-17.4505E-3	-167.941E-12	620.820E-3	-9.99514E-3
-2.22861E-3	-169.093E-12	674.123E-3	-20.4971E-3	-167.254E-12	617.527E-3	-4.79689E-3
-2.23362E-3	-168.825E-12	674.323E-3	-17.7438E-3	-166.469E-12	632.302E-3	-4.42948E-3
-2.23862E-3	-168.803E-12	656.139E-3	-11.0670E-3	-165.660E-12	636.355E-3	-13.5953E-3
-2.24362E-3	-169.873E-12	654.946E-3	-8.79393E-3	-167.068E-12	653.994E-3	-21.9029E-3
-2.24862E-3	-171.664E-12	668.293E-3	-11.7755E-3	-167.222E-12	679.060E-3	-19.8371E-3
-2.25363E-3	-170.614E-12	675.050E-3	-6.52268E-3	-166.786E-12	676.787E-3	-10.6009E-3
-2.25863E-3	-170.581E-12	660.611E-3	-5.98001E-3	-166.382E-12	646.000E-3	-2.76435E-3
-2.26363E-3	-171.027E-12	638.472E-3	-16.4704E-3	-167.184E-12	617.220E-3	-1.72866E-3
-2.26863E-3	-171.759E-12	629.458E-3	-5.44554E-3	-167.859E-12	627.400E-3	-10.1593E-3
-2.27364E-3	-170.933E-12	635.547E-3	7.95438E-3	-168.539E-12	664.566E-3	-33.0231E-3
-2.27864E-3	-171.251E-12	645.191E-3	-4.97398E-3	-168.787E-12	686.066E-3	-48.7427E-3
-2.28364E-3	-169.497E-12	664.903E-3	-5.03626E-3	-168.840E-12	673.932E-3	-43.4144E-3
-2.28864E-3	-169.290E-12	684.565E-3	7.61727E-3	-170.090E-12	641.379E-3	-26.9371E-3
-2.29365E-3	-169.616E-12	690.411E-3	-8.21393E-3	-170.703E-12	636.208E-3	-506.208E-6
-2.29865E-3	-170.237E-12	692.544E-3	-31.0915E-3	-172.618E-12	671.484E-3	3.18956E-3
-2.30365E-3	-170.699E-12	688.843E-3	-30.4678E-3	-170.730E-12	672.131E-3	-7.78789E-3
-2.30865E-3	-171.004E-12	679.024E-3	-28.4421E-3	-170.574E-12	643.931E-3	10.8215E-3
-2.31366E-3	-172.033E-12	666.565E-3	-30.8557E-3	-171.250E-12	646.041E-3	24.0387E-3
-2.31866E-3	-172.302E-12	659.206E-3	-23.4776E-3	-172.709E-12	670.850E-3	16.6738E-3
-2.32366E-3	-173.616E-12	662.628E-3	-14.0571E-3	-170.736E-12	688.909E-3	4.85001E-3
-2.32866E-3	-173.456E-12	673.003E-3	2.05793E-3	-169.405E-12	685.267E-3	-19.3388E-3
-2.33367E-3	-174.875E-12	661.514E-3	473.929E-6	-169.841E-12	679.072E-3	-41.1833E-3
-2.33867E-3	-173.462E-12	645.581E-3	-30.0326E-3	-170.124E-12	678.290E-3	-39.4560E-3
-2.34367E-3	-173.942E-12	654.804E-3	-28.1527E-3	-169.983E-12	671.439E-3	-6.53365E-3
-2.34867E-3	-174.314E-12	653.079E-3	-3.86975E-3	-170.018E-12	666.711E-3	10.5899E-3
-2.35368E-3	-175.217E-12	654.569E-3	6.52624E-3	-171.775E-12	668.450E-3	-5.30944E-3
-2.35868E-3	-175.199E-12	665.767E-3	11.6297E-3	-172.450E-12	677.105E-3	-24.4694E-3
-2.36368E-3	-174.513E-12	662.650E-3	13.6233E-3	-173.323E-12	686.212E-3	-31.7999E-3
-2.36868E-3	-175.576E-12	665.406E-3	9.25717E-3	-172.933E-12	694.148E-3	-17.4336E-3
-2.37369E-3	-176.576E-12	684.094E-3	947.666E-6	-175.148E-12	704.800E-3	-20.8068E-3
-2.37869E-3	-176.930E-12	692.412E-3	2.57899E-3	-176.401E-12	699.896E-3	-42.5950E-3
-2.38369E-3	-174.963E-12	683.860E-3	4.99948E-3	-177.557E-12	697.277E-3	-50.7727E-3
-2.38869E-3	-175.209E-12	687.842E-3	7.59443E-3	-177.906E-12	706.564E-3	-54.0328E-3
-2.39370E-3	-175.613E-12	672.372E-3	606.497E-6	-178.567E-12	694.942E-3	-40.9786E-3
-2.39870E-3	-177.322E-12	635.606E-3	-18.2746E-3	-179.924E-12	679.521E-3	-12.2350E-3
-2.40370E-3	-176.966E-12	648.356E-3	-14.5594E-3	-179.672E-12	680.176E-3	4.45689E-3
-2.40870E-3	-174.824E-12	670.344E-3	2.15419E-3	-180.039E-12	668.423E-3	-1.40809E-3
-2.41371E-3	-176.113E-12	678.779E-3	4.22692E-3	-178.753E-12	646.516E-3	-29.9751E-3
-2.41871E-3	-177.787E-12	688.014E-3	3.88981E-3	-178.993E-12	645.426E-3	-65.4149E-3
-2.42371E-3	-177.387E-12	674.450E-3	-10.9017E-3	-178.320E-12	654.171E-3	-66.3120E-3
-2.42871E-3	-174.799E-12	676.418E-3	-24.9246E-3	-177.704E-12	658.824E-3	-27.0191E-3
-2.43372E-3	-175.473E-12	684.742E-3	4.01135E-3	-175.286E-12	657.649E-3	-5.50326E-3
-2.43872E-3	-177.603E-12	660.152E-3	21.3056E-3	-174.237E-12	652.876E-3	-16.3961E-3
-2.44372E-3	-178.960E-12	632.701E-3	13.1632E-3	-175.051E-12	668.992E-3	-38.6274E-3
-2.44872E-3	-178.126E-12	628.735E-3	12.0266E-3	-174.825E-12	682.267E-3	-56.5393E-3
-2.45373E-3	-176.054E-12	629.504E-3	2.37035E-3	-174.259E-12	666.489E-3	-39.7268E-3
-2.45873E-3	-178.804E-12	612.304E-3	-13.1794E-3	-173.787E-12	666.922E-3	-7.64498E-3
-2.46373E-3	-180.458E-12	620.310E-3	-9.21933E-3	-176.494E-12	690.696E-3	-12.2734E-3
-2.46873E-3	-181.624E-12	667.824E-3	12.9233E-3	-177.668E-12	690.709E-3	-10.3221E-3
-2.47374E-3	-180.256E-12	695.570E-3	23.1911E-3	-179.494E-12	667.651E-3	28.7527E-3
-2.47874E-3	-181.494E-12	688.444E-3	20.9818E-3	-179.341E-12	655.172E-3	28.0493E-3
-2.48374E-3	-183.526E-12	668.834E-3	10.4150E-3	-180.791E-12	645.926E-3	-12.8823E-3
-2.48874E-3	-184.743E-12	655.213E-3	-11.4434E-3	-182.508E-12	645.108E-3	-29.0116E-3
-2.49375E-3	-184.796E-12	664.999E-3	-34.1886E-3	-183.512E-12	679.967E-3	-26.3989E-3
-2.49875E-3	-183.779E-12	692.611E-3	-41.9944E-3	-182.834E-12	704.110E-3	-23.8096E-3
-2.50375E-3	-184.270E-12	716.165E-3	-35.9195E-3	-181.150E-12	698.096E-3	-8.04787E-3
-2.50875E-3	-184.018E-12	708.094E-3	-24.5652E-3	-183.832E-12	696.419E-3	3.60830E-3
-2.51376E-3	-184.050E-12	677.816E-3	-10.6238E-3	-184.014E-12	684.887E-3	-4.29844E-3
-2.51876E-3	-181.279E-12	673.118E-3	-5.02854E-3	-183.985E-12	656.878E-3	-9.71726E-3
-2.52376E-3	-180.057E-12	682.128E-3	-8.07902E-3	-180.782E-12	652.527E-3	609.149E-6
-2.52876E-3	-181.197E-12	658.692E-3	-18.6769E-3	-181.571E-12	671.677E-3	9.78037E-3
-2.53377E-3	-181.519E-12	648.296E-3	-33.5827E-3	-182.825E-12	685.336E-3	8.88921E-3
-2.53877E-3	-179.128E-12	684.581E-3	-30.0278E-3	-182.014E-12	694.478E-3	2.11235E-3
-2.54377E-3	-178.580E-12	683.744E-3	-26.1160E-3	-179.323E-12	684.275E-3	-14.2694E-3
-2.54877E-3	-179.400E-12	645.929E-3	-58.8507E-3	-178.628E-12	660.810E-3	-15.3209E-3
-2.55378E-3	-180.465E-12	644.618E-3	-65.8881E-3	-180.016E-12	660.411E-3	-8.47130E-3
-2.55878E-3	-180.646E-12	645.447E-3	-22.0482E-3	-182.407E-12	660.144E-3	-7.16889E-3
-2.56378E-3	-181.149E-12	619.261E-3	9.85316E-3	-182.519E-12	654.559E-3	6.45595E-3
-2.56878E-3	-181.941E-12	621.630E-3	15.3321E-3	-180.612E-12	675.114E-3	7.87051E-3
-2.57379E-3	-182.634E-12	653.379E-3	5.80045E-3	-182.058E-12	686.677E-3	-14.4578E-3
-2.57879E-3	-183.803E-12	669.890E-3	-8.37823E-3	-184.275E-12	680.692E-3	-25.4485E-3
-2.58379E-3	-184.708E-12	683.936E-3	-13.5118E-3	-184.982E-12	669.230E-3	-5.12872E-3
-2.58879E-3	-186.364E-12	698.483E-3	-6.82215E-3	-183.534E-12	645.782E-3	10.0618E-3
-2.59380E-3	-186.698E-12	694.643E-3	-23.7834E-3	-183.866E-12	636.868E-3	5.07278E-3
-2.59880E-3	-187.308E-12	683.513E-3	-58.5573E-3	-184.465E-12	666.091E-3	8.50006E-3
-2.60380E-3	-186.364E-12	670.122E-3	-56.1009E-3	-184.744E-12	699.251E-3	-2.65699E-3
-2.60880E-3	-186.327E-12	663.190E-3	-42.6412E-3	-185.657E-12	681.471E-3	-32.6322E-3
-2.61381E-3	-186.917E-12	662.338E-3	-37.2673E-3	-185.012E-12	663.386E-3	-43.9625E-3
-2.61881E-3	-185.648E-12	658.964E-3	-23.5057E-3	-185.873E-12	671.785E-3	-41.7204E-3
-2.62381E-3	-184.558E-12	671.384E-3	-1.76707E-3	-185.640E-12	663.127E-3	-22.3341E-3
-2.62881E-3	-184.386E-12	691.466E-3	8.35643E-3	-186.484E-12	679.639E-3	-3.58964E-3
-2.63382E-3	-184.871E-12	682.973E-3	6.61885E-3	-186.404E-12	705.177E-3	-20.0645E-3
-2.63882E-3	-185.328E-12	641.629E-3	-954.136E-6	-186.017E-12	687.952E-3	-27.1204E-3
-2.64382E-3	-186.072E-12	626.293E-3	-19.5615E-3	-186.024E-12	665.010E-3	-8.74813E-3
-2.64882E-3	-186.010E-12	654.982E-3	-29.7366E-3	-187.437E-12	646.589E-3	-8.33250E-3
-2.65383E-3	-185.585E-12	672.799E-3	-38.3551E-3	-188.213E-12	643.001E-3	-21.4352E-3
-2.65883E-3	-187.075E-12	675.084E-3	-43.4018E-3	-186.146E-12	663.999E-3	-25.4751E-3
-2.66383E-3	-188.916E-12	678.061E-3	-22.2494E-3	-182.963E-12	674.237E-3	-24.0424E-3
-2.66883E-3	-188.022E-12	671.694E-3	3.55380E-3	-185.718E-12	670.461E-3	-27.9002E-3
-2.67384E-3	-188.276E-12	657.818E-3	11.8141E-3	-188.723E-12	659.173E-3	-35.9264E-3
-2.67884E-3	-188.641E-12	647.550E-3	-4.22362E-3	-186.915E-12	650.179E-3	-28.8518E-3
-2.68384E-3	-189.942E-12	659.478E-3	-29.0023E-3	-184.517E-12	653.184E-3	-14.8359E-3
-2.68884E-3	-189.686E-12	686.663E-3	-28.8901E-3	-185.268E-12	639.702E-3	-8.93358E-3
-2.69385E-3	-189.434E-12	679.778E-3	336.382E-6	-189.031E-12	640.042E-3	-13.9779E-3
-2.69885E-3	-190.121E-12	649.643E-3	19.2685E-3	-189.805E-12	666.076E-3	-29.5707E-3
-2.70385E-3	-190.607E-12	655.789E-3	-2.38543E-3	-187.765E-12	669.712E-3	-23.1951E-3
-2.70885E-3	-189.792E-12	681.970E-3	-19.9182E-3	-186.807E-12	670.259E-3	-11.2167E-3
-2.71386E-3	-189.386E-12	683.191E-3	-17.1248E-3	-189.851E-12	667.458E-3	-17.3878E-3
-2.71886E-3	-190.076E-12	664.664E-3	-16.7172E-3	-192.326E-12	651.068E-3	-27.7676E-3
-2.72386E-3	-190.711E-12	665.159E-3	-9.85668E-3	-191.677E-12	647.542E-3	-41.0915E-3
-2.72886E-3	-192.256E-12	680.762E-3	-16.5435E-3	-190.422E-12	654.936E-3	-40.8311E-3
-2.73387E-3	-192.071E-12	677.402E-3	-40.6230E-3	-190.350E-12	668.188E-3	-20.5367E-3
-2.73887E-3	-192.399E-12	676.252E-3	-23.2854E-3	-193.551E-12	684.203E-3	-8.14355E-3
-2.74387E-3	-194.007E-12	676.962E-3	9.55382E-3	-192.978E-12	679.191E-3	-13.6428E-3
-2.74887E-3	-194.909E-12	674.667E-3	-3.32716E-3	-192.534E-12	671.753E-3	-22.6187E-3
-2.75388E-3	-195.538E-12	680.578E-3	-21.5920E-3	-191.892E-12	662.426E-3	-29.1953E-3
-2.75888E-3	-194.690E-12	668.573E-3	-20.7870E-3	-192.699E-12	629.616E-3	-34.8795E-3
-2.76388E-3	-195.529E-12	651.092E-3	-20.5379E-3	-192.306E-12	614.720E-3	-21.6586E-3
-2.76888E-3	-195.218E-12	656.415E-3	-12.1149E-3	-191.319E-12	632.609E-3	-7.50769E-3
-2.77389E-3	-194.819E-12	656.209E-3	-3.15530E-3	-189.292E-12	664.909E-3	-634.286E-6
-2.77889E-3	-195.328E-12	653.259E-3	-17.7128E-3	-187.745E-12	684.451E-3	-225.194E-6
-2.78389E-3	-195.115E-12	669.769E-3	-29.0509E-3	-191.206E-12	682.417E-3	-23.8010E-3
-2.78889E-3	-194.010E-12	670.291E-3	-38.7070E-3	-192.747E-12	684.709E-3	-22.3573E-3
-2.79390E-3	-193.622E-12	666.463E-3	-53.5682E-3	-192.617E-12	704.138E-3	-1.59126E-3
-2.79890E-3	-192.700E-12	677.807E-3	-20.0512E-3	-192.182E-12	705.931E-3	-8.78088E-3
-2.80390E-3	-192.290E-12	677.082E-3	28.4908E-3	-194.200E-12	682.898E-3	-15.3354E-3
-2.80890E-3	-192.932E-12	674.097E-3	6.12272E-3	-196.740E-12	678.724E-3	1.30007E-3
-2.81391E-3	-194.486E-12	672.314E-3	-42.9617E-3	-197.698E-12	690.635E-3	2.77211E-3
-2.81891E-3	-194.022E-12	651.225E-3	-61.2698E-3	-198.849E-12	704.607E-3	-10.4373E-3
-2.82391E-3	-195.042E-12	640.936E-3	-59.6996E-3	-198.263E-12	707.241E-3	10.5083E-3
-2.82891E-3	-194.912E-12	657.045E-3	-40.2121E-3	-199.076E-12	687.046E-3	33.4895E-3
-2.83392E-3	-195.607E-12	671.545E-3	-23.6471E-3	-198.872E-12	667.565E-3	17.4666E-3
-2.83892E-3	-196.177E-12	677.438E-3	-16.1152E-3	-200.391E-12	675.526E-3	-9.03969E-3
-2.84392E-3	-196.243E-12	679.948E-3	-9.88784E-3	-197.624E-12	692.836E-3	-8.29000E-3
-2.84892E-3	-197.665E-12	678.807E-3	-12.2601E-3	-196.163E-12	682.308E-3	3.55725E-3
-2.85393E-3	-197.373E-12	682.636E-3	-10.4134E-3	-196.590E-12	671.923E-3	2.19581E-3
-2.85893E-3	-197.571E-12	702.423E-3	-24.5569E-3	-197.731E-12	682.415E-3	-6.39838E-3
-2.86393E-3	-198.236E-12	707.104E-3	-47.1712E-3	-196.980E-12	665.150E-3	-19.4673E-3
-2.86893E-3	-199.527E-12	683.464E-3	-23.9635E-3	-194.324E-12	651.676E-3	-19.7317E-3
-2.87394E-3	-199.799E-12	677.870E-3	10.1118E-3	-194.197E-12	678.865E-3	-7.65494E-3
-2.87894E-3	-198.795E-12	695.486E-3	9.38059E-3	-196.009E-12	685.661E-3	-11.2303E-3
-2.88394E-3	-197.884E-12	701.422E-3	-3.15833E-3	-196.150E-12	677.768E-3	-25.5955E-3
-2.88894E-3	-198.501E-12	718.229E-3	-18.5937E-3	-194.491E-12	673.956E-3	-32.7403E-3
-2.89395E-3	-199.937E-12	733.420E-3	-41.0447E-3	-195.026E-12	664.153E-3	-32.7952E-3
-2.89895E-3	-199.612E-12	702.933E-3	-42.1681E-3	-198.311E-12	684.352E-3	-31.6814E-3
-2.90395E-3	-199.695E-12	686.874E-3	-20.7803E-3	-199.607E-12	691.038E-3	-35.5403E-3
-2.90895E-3	-199.612E-12	701.839E-3	-19.3993E-3	-199.820E-12	657.045E-3	-39.5061E-3
-2.91396E-3	-201.693E-12	701.396E-3	-43.0942E-3	-200.959E-12	653.277E-3	-30.6766E-3
-2.91896E-3	-202.636E-12	702.580E-3	-37.0030E-3	-202.493E-12	688.450E-3	-21.9747E-3
-2.92396E-3	-202.235E-12	703.638E-3	7.83720E-3	-201.133E-12	694.412E-3	-25.4265E-3
-2.92896E-3	-202.661E-12	679.852E-3	20.5668E-3	-200.704E-12	675.087E-3	-10.3151E-3
-2.93397E-3	-203.032E-12	663.735E-3	764.012E-6	-199.105E-12	688.451E-3	-275.434E-6
-2.93897E-3	-203.633E-12	669.718E-3	-24.7445E-3	-199.494E-12	701.266E-3	-19.9143E-3
-2.94397E-3	-202.984E-12	683.421E-3	-60.1998E-3	-198.948E-12	696.597E-3	-40.4123E-3
-2.94897E-3	-202.968E-12	697.417E-3	-63.3039E-3	-199.253E-12	698.393E-3	-38.5440E-3
-2.95398E-3	-203.328E-12	699.440E-3	-41.2336E-3	-199.164E-12	673.794E-3	-29.1060E-3
-2.95898E-3	-204.293E-12	685.853E-3	-28.7699E-3	-199.483E-12	638.984E-3	-25.5437E-3
-2.96398E-3	-204.068E-12	672.612E-3	-16.4056E-3	-199.871E-12	648.611E-3	-11.2382E-3
-2.96898E-3	-202.415E-12	678.965E-3	-86.7476E-6	-199.179E-12	675.405E-3	-1.92738E-3
-2.97399E-3	-202.897E-12	683.179E-3	-850.177E-6	-199.047E-12	688.663E-3	5.75288E-3
-2.97899E-3	-203.364E-12	701.871E-3	-22.5365E-3	-200.270E-12	709.169E-3	28.4569E-3
-2.98399E-3	-202.951E-12	724.663E-3	-14.5718E-3	-201.613E-12	717.752E-3	30.6365E-3
-2.98899E-3	-201.990E-12	715.058E-3	18.9728E-3	-201.748E-12	690.959E-3	6.24659E-3
-2.99400E-3	-202.992E-12	705.586E-3	32.0218E-3	-201.854E-12	692.216E-3	-11.0482E-3
-2.99900E-3	-203.609E-12	699.337E-3	26.1856E-3	-203.200E-12	699.393E-3	-23.4896E-3
-3.00400E-3	-203.423E-12	665.838E-3	5.29266E-3	-204.528E-12	663.310E-3	-22.5803E-3
-3.00900E-3	-204.433E-12	644.167E-3	-16.7225E-3	-204.252E-12	651.491E-3	-4.17628E-3
-3.01401E-3	-204.593E-12	654.157E-3	-31.4359E-3	-202.396E-12	675.951E-3	-8.67257E-3
-3.01901E-3	-205.376E-12	656.901E-3	-43.2890E-3	-203.373E-12	713.141E-3	-17.9165E-3
-3.02401E-3	-203.909E-12	668.480E-3	-46.5125E-3	-205.115E-12	736.120E-3	-8.73430E-3
-3.02901E-3	-205.348E-12	692.790E-3	-33.4718E-3	-204.638E-12	716.148E-3	-1.56648E-3
-3.03402E-3	-206.668E-12	702.279E-3	1.37267E-3	-203.129E-12	702.882E-3	-286.856E-6
-3.03902E-3	-206.804E-12	688.175E-3	20.8176E-3	-202.657E-12	709.604E-3	-23.1817E-3
-3.04402E-3	-205.554E-12	677.619E-3	-17.2453E-3	-203.791E-12	705.861E-3	-49.5842E-3
-3.04902E-3	-205.651E-12	689.885E-3	-58.0856E-3	-204.015E-12	711.598E-3	-43.4477E-3
-3.05403E-3	-206.745E-12	710.467E-3	-55.8834E-3	-201.464E-12	731.976E-3	-16.7087E-3
-3.05903E-3	-206.970E-12	710.709E-3	-24.1348E-3	-202.435E-12	733.315E-3	7.59798E-3
-3.06403E-3	-207.323E-12	682.792E-3	8.92015E-3	-203.854E-12	696.255E-3	6.25111E-3
-3.06903E-3	-206.405E-12	683.814E-3	-2.32657E-3	-204.350E-12	662.039E-3	-9.63814E-3
-3.07404E-3	-208.672E-12	707.956E-3	-28.5086E-3	-203.308E-12	674.801E-3	-5.71551E-3
-3.07904E-3	-209.732E-12	688.142E-3	-27.8593E-3	-203.729E-12	706.809E-3	13.4214E-3
-3.08404E-3	-210.576E-12	658.468E-3	-17.3754E-3	-205.015E-12	716.506E-3	33.4371E-3
-3.08904E-3	-209.424E-12	671.799E-3	-15.2152E-3	-206.950E-12	698.761E-3	28.7848E-3
-3.09405E-3	-209.808E-12	697.564E-3	-21.9091E-3	-206.284E-12	684.906E-3	-22.3276E-3
-3.09905E-3	-210.404E-12	703.899E-3	-18.0017E-3	-206.439E-12	703.105E-3	-48.4244E-3
-3.10405E-3	-209.942E-12	695.203E-3	-12.2096E-3	-206.276E-12	709.152E-3	-29.5996E-3
-3.10905E-3	-208.516E-12	676.985E-3	-10.9929E-3	-207.631E-12	670.963E-3	-31.4207E-3
-3.11406E-3	-208.132E-12	672.256E-3	-2.22049E-3	-208.154E-12	667.669E-3	-47.7555E-3
-3.11906E-3	-207.699E-12	694.324E-3	10.3541E-3	-208.347E-12	700.865E-3	-50.4683E-3
-3.12406E-3	-206.085E-12	698.574E-3	16.1396E-3	-209.253E-12	707.335E-3	-36.7239E-3
-3.12906E-3	-206.371E-12	668.090E-3	3.44918E-3	-208.173E-12	691.080E-3	-27.4401E-3
-3.13407E-3	-205.939E-12	656.133E-3	-20.7233E-3	-209.756E-12	663.654E-3	-13.1645E-3
-3.13907E-3	-206.178E-12	665.511E-3	-48.7047E-3	-209.194E-12	650.566E-3	26.7771E-3
-3.14407E-3	-206.032E-12	676.687E-3	-50.7953E-3	-211.486E-12	683.624E-3	44.8768E-3
-3.14907E-3	-206.018E-12	698.320E-3	-19.7479E-3	-210.356E-12	721.308E-3	18.7992E-3
-3.15408E-3	-208.087E-12	703.651E-3	13.1912E-3	-210.473E-12	719.374E-3	922.433E-6
-3.15908E-3	-208.645E-12	702.263E-3	23.9367E-3	-210.808E-12	698.755E-3	20.9173E-3
-3.16408E-3	-209.434E-12	712.789E-3	16.7775E-3	-212.540E-12	701.971E-3	27.6229E-3
-3.16908E-3	-210.328E-12	695.891E-3	13.9416E-3	-211.896E-12	699.091E-3	-13.3101E-3
-3.17409E-3	-212.887E-12	672.042E-3	-14.7912E-3	-209.529E-12	679.801E-3	-62.5511E-3
-3.17909E-3	-214.711E-12	674.775E-3	-54.9067E-3	-210.116E-12	692.313E-3	-93.7836E-3
-3.18409E-3	-215.469E-12	678.365E-3	-52.7937E-3	-211.491E-12	709.860E-3	-73.4919E-3
-3.18909E-3	-216.848E-12	683.897E-3	-43.8831E-3	-211.078E-12	733.940E-3	-11.7950E-3
-3.19410E-3	-216.636E-12	690.290E-3	-35.5022E-3	-209.624E-12	751.966E-3	5.63084E-3
-3.19910E-3	-217.384E-12	692.860E-3	-3.81656E-3	-209.320E-12	723.056E-3	-10.2822E-3
-3.20410E-3	-216.875E-12	696.629E-3	11.0341E-3	-211.027E-12	702.966E-3	6.27409E-3
-3.20910E-3	-216.315E-12	705.359E-3	-10.1403E-3	-210.779E-12	712.645E-3	12.9408E-3
-3.21411E-3	-214.956E-12	732.681E-3	-19.8497E-3	-211.731E-12	698.883E-3	-7.49679E-3
-3.21911E-3	-214.792E-12	739.922E-3	5.49772E-3	-210.684E-12	676.043E-3	-6.00448E-3
-3.22411E-3	-211.972E-12	729.696E-3	30.8514E-3	-211.826E-12	684.417E-3	6.73469E-3
-3.22911E-3	-211.345E-12	720.960E-3	23.1627E-3	-213.241E-12	711.904E-3	-1.65490E-3
-3.23412E-3	-209.779E-12	703.977E-3	-5.73406E-3	-214.961E-12	728.602E-3	-19.5992E-3
-3.23912E-3	-209.861E-12	705.934E-3	-17.3159E-3	-215.459E-12	719.208E-3	-5.53389E-3
-3.24412E-3	-209.987E-12	692.557E-3	4.40572E-3	-215.749E-12	695.096E-3	14.4024E-3
-3.24912E-3	-210.971E-12	672.582E-3	20.1766E-3	-217.416E-12	679.780E-3	855.591E-6
-3.25413E-3	-212.800E-12	692.303E-3	-575.919E-6	-217.881E-12	685.405E-3	-16.8150E-3
-3.25913E-3	-213.767E-12	714.373E-3	-11.5170E-3	-217.395E-12	684.028E-3	-21.9075E-3
-3.26413E-3	-215.253E-12	710.427E-3	-159.711E-6	-216.441E-12	678.855E-3	-10.8317E-3
-3.26913E-3	-216.317E-12	697.860E-3	7.63455E-3	-217.095E-12	676.636E-3	4.65366E-3
-3.27414E-3	-217.511E-12	702.387E-3	-3.08102E-3	-217.233E-12	653.957E-3	3.93672E-3
-3.27914E-3	-219.058E-12	727.612E-3	-28.3048E-3	-215.559E-12	642.346E-3	-1.93575E-3
-3.28414E-3	-218.815E-12	726.979E-3	-37.8756E-3	-214.013E-12	658.842E-3	-4.45418E-3
-3.28914E-3	-220.646E-12	707.081E-3	-30.1241E-3	-213.660E-12	655.781E-3	-10.0405E-3
-3.29415E-3	-219.948E-12	717.998E-3	-21.6705E-3	-214.499E-12	637.566E-3	-30.7635E-3
-3.29915E-3	-221.170E-12	726.285E-3	-22.7175E-3	-214.484E-12	642.572E-3	-60.2080E-3
-3.30415E-3	-219.886E-12	707.416E-3	-21.2982E-3	-214.046E-12	649.108E-3	-54.8059E-3
-3.30915E-3	-220.649E-12	679.136E-3	9.39299E-3	-213.335E-12	656.278E-3	-13.3456E-3
-3.31416E-3	-220.658E-12	654.869E-3	28.8198E-3	-215.895E-12	681.630E-3	20.5486E-3
-3.31916E-3	-220.873E-12	666.022E-3	-583.573E-6	-216.978E-12	695.486E-3	26.9100E-3
-3.32416E-3	-220.779E-12	697.764E-3	-1.23479E-3	-217.591E-12	681.085E-3	-14.8968E-3
-3.32916E-3	-220.118E-12	689.143E-3	18.7063E-3	-218.585E-12	662.171E-3	-45.1147E-3
-3.33417E-3	-219.411E-12	669.623E-3	-4.10070E-3	-220.456E-12	677.313E-3	-13.6456E-3
-3.33917E-3	-219.156E-12	677.041E-3	-18.1978E-3	-221.693E-12	710.313E-3	5.42395E-3
-3.34417E-3	-219.344E-12	674.885E-3	-13.5156E-3	-221.443E-12	711.172E-3	-11.5967E-3
-3.34917E-3	-219.570E-12	666.742E-3	-30.6962E-3	-220.854E-12	692.295E-3	-22.0118E-3
-3.35418E-3	-219.237E-12	682.329E-3	-41.1563E-3	-220.091E-12	688.811E-3	-21.7535E-3
-3.35918E-3	-218.249E-12	712.483E-3	-29.4202E-3	-220.965E-12	681.060E-3	-30.0039E-3
-3.36418E-3	-219.033E-12	703.509E-3	-22.5959E-3	-221.283E-12	680.100E-3	-40.1424E-3
-3.36918E-3	-219.837E-12	668.145E-3	-14.3717E-3	-220.914E-12	709.712E-3	-43.9429E-3
-3.37419E-3	-220.369E-12	657.180E-3	11.5835E-3	-219.810E-12	722.412E-3	-39.5484E-3
-3.37919E-3	-219.715E-12	656.753E-3	18.6258E-3	-220.053E-12	700.664E-3	-41.2218E-3
-3.38419E-3	-220.136E-12	672.088E-3	-11.7554E-3	-220.715E-12	671.741E-3	-56.0950E-3
-3.38919E-3	-221.936E-12	694.741E-3	-42.7744E-3	-220.032E-12	662.483E-3	-47.4400E-3
-3.39420E-3	-222.417E-12	685.826E-3	-70.0164E-3	-220.628E-12	673.579E-3	-25.9377E-3
-3.39920E-3	-221.331E-12	667.076E-3	-73.9258E-3	-219.836E-12	676.926E-3	-12.2986E-3
-3.40420E-3	-222.907E-12	660.219E-3	-23.4393E-3	-220.801E-12	670.099E-3	12.9663E-3
-3.40920E-3	-223.596E-12	673.784E-3	8.57696E-3	-222.841E-12	676.438E-3	36.4826E-3
-3.41421E-3	-223.609E-12	682.313E-3	-24.7588E-3	-223.477E-12	699.455E-3	26.4526E-3
-3.41921E-3	-222.642E-12	662.230E-3	-50.9043E-3	-223.877E-12	724.112E-3	-1.47163E-3
-3.42421E-3	-223.933E-12	665.378E-3	-32.2595E-3	-225.495E-12	729.523E-3	-9.04550E-3
-3.42921E-3	-224.929E-12	706.570E-3	-2.95555E-3	-227.117E-12	712.422E-3	2.53909E-3
-3.43422E-3	-223.593E-12	741.393E-3	-14.4648E-3	-227.880E-12	693.388E-3	-12.4626E-3
-3.43922E-3	-221.327E-12	748.920E-3	-52.6413E-3	-227.869E-12	685.308E-3	-45.3492E-3
-3.44422E-3	-222.552E-12	731.900E-3	-58.0296E-3	-226.475E-12	684.568E-3	-51.2890E-3
-3.44922E-3	-224.365E-12	703.743E-3	-37.8691E-3	-227.813E-12	684.331E-3	-32.3282E-3
-3.45423E-3	-222.612E-12	687.919E-3	-11.9072E-3	-226.721E-12	683.970E-3	-18.7390E-3
-3.45923E-3	-220.501E-12	674.965E-3	9.08718E-3	-225.623E-12	674.808E-3	-11.6970E-3
-3.46423E-3	-220.464E-12	667.925E-3	8.35435E-3	-223.957E-12	653.897E-3	-74.8632E-6
-3.46923E-3	-222.795E-12	674.513E-3	17.5637E-3	-226.443E-12	643.103E-3	-14.7206E-3
-3.47424E-3	-221.979E-12	681.763E-3	20.5292E-3	-225.945E-12	656.606E-3	-36.3589E-3
-3.47924E-3	-221.259E-12	674.610E-3	-24.4351E-3	-223.560E-12	669.886E-3	-25.8322E-3
-3.48424E-3	-221.770E-12	667.106E-3	-60.8604E-3	-222.258E-12	677.527E-3	-755.267E-6
-3.48924E-3	-222.430E-12	673.695E-3	-53.5004E-3	-224.799E-12	683.455E-3	17.6888E-3
-3.49425E-3	-224.116E-12	685.418E-3	-16.7087E-3	-226.672E-12	666.765E-3	12.2256E-3
-3.49925E-3	-225.713E-12	704.656E-3	17.7495E-3	-225.058E-12	644.109E-3	-11.6019E-3
-3.50425E-3	-227.933E-12	706.047E-3	-4.49358E-3	-225.560E-12	639.744E-3	-9.54433E-3
-3.50925E-3	-227.945E-12	674.161E-3	-35.5717E-3	-226.191E-12	653.919E-3	16.1864E-3
-3.51426E-3	-229.667E-12	654.753E-3	-25.4524E-3	-227.660E-12	650.633E-3	21.8841E-3
-3.51926E-3	-228.525E-12	673.434E-3	-26.9585E-3	-226.890E-12	649.873E-3	-3.46553E-3
-3.52426E-3	-229.613E-12	683.414E-3	-26.5984E-3	-226.714E-12	680.179E-3	-21.2764E-3
-3.52926E-3	-229.325E-12	668.242E-3	-6.48266E-3	-227.383E-12	688.222E-3	-6.01268E-3
-3.53427E-3	-229.883E-12	655.264E-3	-5.86727E-3	-227.043E-12	670.501E-3	-6.64595E-3
-3.53927E-3	-229.067E-12	655.106E-3	-24.9256E-3	-228.315E-12	657.788E-3	-26.2007E-3
-3.54427E-3	-228.934E-12	674.736E-3	-38.2727E-3	-228.017E-12	649.380E-3	-20.9752E-3
-3.54927E-3	-227.083E-12	680.593E-3	-3.10514E-3	-229.508E-12	660.526E-3	-19.5953E-3
-3.55428E-3	-226.363E-12	656.189E-3	37.8881E-3	-227.577E-12	700.707E-3	-33.3109E-3
-3.55928E-3	-226.165E-12	658.060E-3	4.17789E-3	-228.732E-12	715.555E-3	-31.8717E-3
-3.56428E-3	-226.201E-12	669.241E-3	-24.0949E-3	-229.974E-12	672.332E-3	-19.8439E-3
-3.56928E-3	-224.367E-12	644.980E-3	-9.92247E-3	-231.871E-12	632.646E-3	-16.2146E-3
-3.57429E-3	-224.486E-12	641.563E-3	-11.3034E-3	-229.895E-12	642.829E-3	-18.8678E-3
-3.57929E-3	-227.102E-12	654.620E-3	-7.29852E-3	-230.157E-12	664.738E-3	4.29044E-3
-3.58429E-3	-230.056E-12	639.747E-3	9.73158E-3	-231.991E-12	682.750E-3	30.4305E-3
-3.58929E-3	-228.981E-12	635.765E-3	4.14933E-3	-232.893E-12	694.205E-3	12.5434E-3
-3.59430E-3	-228.811E-12	657.200E-3	12.2255E-3	-231.409E-12	657.757E-3	-15.4800E-3
-3.59930E-3	-229.908E-12	665.700E-3	33.2986E-3	-229.777E-12	632.801E-3	-36.4931E-3
-3.60430E-3	-233.436E-12	637.888E-3	8.51029E-3	-230.856E-12	664.064E-3	-40.5657E-3
-3.60930E-3	-233.015E-12	631.374E-3	-5.79931E-3	-231.348E-12	676.974E-3	-13.7937E-3
-3.61431E-3	-233.516E-12	666.602E-3	31.7953E-3	-230.795E-12	664.811E-3	-6.52845E-3
-3.61931E-3	-234.251E-12	672.747E-3	41.0389E-3	-228.515E-12	664.964E-3	-9.73988E-3
-3.62431E-3	-235.608E-12	677.822E-3	6.22741E-3	-228.128E-12	658.064E-3	2.98510E-3
-3.62931E-3	-234.600E-12	721.125E-3	-5.52788E-3	-229.716E-12	641.358E-3	-3.79193E-3
-3.63432E-3	-233.526E-12	728.246E-3	-4.65812E-3	-230.417E-12	650.410E-3	-35.7512E-3
-3.63932E-3	-233.601E-12	690.763E-3	-6.30180E-3	-228.709E-12	669.941E-3	-19.7873E-3
-3.64432E-3	-235.981E-12	677.550E-3	-2.94461E-3	-227.683E-12	668.719E-3	23.9392E-3
-3.64932E-3	-233.777E-12	670.176E-3	-10.6119E-3	-230.380E-12	669.021E-3	8.03593E-3
-3.65433E-3	-232.734E-12	677.366E-3	-25.1578E-3	-232.220E-12	674.075E-3	-34.3304E-3
-3.65933E-3	-233.647E-12	733.770E-3	-40.3845E-3	-233.222E-12	675.091E-3	-56.3906E-3
-3.66433E-3	-235.787E-12	738.836E-3	-32.0803E-3	-232.438E-12	680.788E-3	-58.2519E-3
-3.66933E-3	-234.610E-12	702.927E-3	-19.0298E-3	-233.463E-12	676.973E-3	-51.0496E-3
-3.67434E-3	-232.776E-12	713.805E-3	-29.2562E-3	-235.052E-12	670.789E-3	-43.7151E-3
-3.67934E-3	-232.550E-12	703.083E-3	-36.1677E-3	-236.916E-12	689.087E-3	-30.5181E-3
-3.68434E-3	-236.524E-12	644.966E-3	-28.9032E-3	-237.526E-12	698.125E-3	-9.43799E-3
-3.68934E-3	-236.382E-12	633.559E-3	-7.83780E-3	-235.858E-12	687.924E-3	27.6212E-3
-3.69435E-3	-234.641E-12	685.137E-3	-2.44319E-3	-235.944E-12	691.757E-3	50.5740E-3
-3.69935E-3	-233.527E-12	701.494E-3	-29.7444E-3	-236.260E-12	705.240E-3	22.3718E-3
-3.70435E-3	-236.875E-12	668.967E-3	-45.4315E-3	-238.198E-12	694.422E-3	-19.1397E-3
-3.70935E-3	-237.831E-12	665.562E-3	-18.3113E-3	-236.772E-12	683.020E-3	-36.5117E-3
-3.71436E-3	-236.713E-12	686.491E-3	14.1538E-3	-235.116E-12	695.390E-3	-36.2085E-3
-3.71936E-3	-235.644E-12	706.849E-3	8.95111E-3	-235.268E-12	688.577E-3	-22.8779E-3
-3.72436E-3	-236.743E-12	711.843E-3	4.27424E-3	-236.623E-12	689.694E-3	-3.76393E-3
-3.72936E-3	-238.411E-12	695.898E-3	-4.76833E-3	-236.441E-12	703.800E-3	2.09425E-3
-3.73437E-3	-237.287E-12	687.880E-3	-32.1395E-3	-235.949E-12	683.397E-3	-9.36106E-3
-3.73937E-3	-237.266E-12	686.200E-3	-28.8201E-3	-235.582E-12	648.782E-3	-18.9688E-3
-3.74437E-3	-236.370E-12	684.413E-3	-24.1848E-3	-236.016E-12	644.340E-3	-30.0638E-3
-3.74937E-3	-239.802E-12	695.339E-3	-44.9839E-3	-236.548E-12	655.221E-3	-44.0485E-3
-3.75438E-3	-241.734E-12	698.172E-3	-34.2662E-3	-238.243E-12	645.784E-3	-25.9618E-3
-3.75938E-3	-240.713E-12	671.060E-3	-130.468E-6	-238.667E-12	658.070E-3	-6.63687E-3
-3.76438E-3	-238.562E-12	659.941E-3	799.665E-6	-238.510E-12	683.176E-3	-10.8137E-3
-3.76938E-3	-239.312E-12	673.948E-3	-13.0569E-3	-239.385E-12	676.747E-3	-7.30412E-3
-3.77439E-3	-241.634E-12	693.850E-3	-17.5935E-3	-241.329E-12	673.791E-3	2.22754E-3
-3.77939E-3	-240.997E-12	716.284E-3	-27.0786E-3	-240.788E-12	705.169E-3	8.66555E-3
-3.78439E-3	-238.727E-12	730.225E-3	-22.0777E-3	-240.660E-12	724.303E-3	8.07124E-3
-3.78939E-3	-239.032E-12	732.846E-3	-15.1304E-3	-239.348E-12	692.075E-3	-7.01992E-3
-3.79440E-3	-241.080E-12	727.853E-3	-39.3790E-3	-240.005E-12	662.222E-3	-35.5236E-3
-3.79940E-3	-241.325E-12	716.412E-3	-58.1118E-3	-241.539E-12	667.837E-3	-38.0045E-3
-3.80440E-3	-238.755E-12	691.895E-3	-54.7200E-3	-241.267E-12	671.986E-3	-13.7629E-3
-3.80940E-3	-238.967E-12	680.244E-3	-44.5590E-3	-239.691E-12	675.703E-3	-15.5111E-3
-3.81441E-3	-239.338E-12	683.859E-3	-3.16004E-3	-240.154E-12	711.294E-3	-31.2809E-3
-3.81941E-3	-242.046E-12	686.807E-3	28.8766E-3	-241.358E-12	730.746E-3	-37.0042E-3
-3.82441E-3	-239.955E-12	688.057E-3	20.2660E-3	-241.295E-12	719.730E-3	-31.5232E-3
-3.82941E-3	-240.138E-12	697.365E-3	8.06802E-3	-239.654E-12	694.340E-3	-12.6989E-3
-3.83442E-3	-239.225E-12	712.208E-3	-7.75092E-3	-240.124E-12	668.562E-3	-15.4576E-3
-3.83942E-3	-241.886E-12	701.862E-3	-5.79748E-3	-242.349E-12	683.693E-3	-31.4105E-3
-3.84442E-3	-242.450E-12	672.374E-3	11.6464E-3	-243.761E-12	716.146E-3	-40.6472E-3
-3.84942E-3	-243.758E-12	665.558E-3	18.7031E-3	-243.719E-12	716.694E-3	-56.0066E-3
-3.85443E-3	-244.001E-12	675.446E-3	18.6738E-3	-243.166E-12	682.761E-3	-44.3536E-3
-3.85943E-3	-243.485E-12	680.882E-3	10.1685E-3	-242.668E-12	680.955E-3	-6.27828E-3
-3.86443E-3	-244.262E-12	697.690E-3	3.97286E-3	-244.320E-12	690.975E-3	2.33811E-3
-3.86943E-3	-243.065E-12	715.719E-3	-888.009E-6	-244.383E-12	663.512E-3	-25.8105E-3
-3.87444E-3	-243.005E-12	713.861E-3	-3.92504E-3	-244.391E-12	660.951E-3	-55.9566E-3
-3.87944E-3	-241.854E-12	726.471E-3	-22.1261E-3	-244.741E-12	667.305E-3	-51.9143E-3
-3.88444E-3	-241.847E-12	742.329E-3	-55.2856E-3	-246.646E-12	667.050E-3	-12.4993E-3
-3.88944E-3	-241.143E-12	703.703E-3	-64.1894E-3	-246.221E-12	688.104E-3	-1.03782E-3
-3.89445E-3	-242.281E-12	661.854E-3	-50.9878E-3	-245.402E-12	699.219E-3	-25.2475E-3
-3.89945E-3	-242.277E-12	678.748E-3	-23.0333E-3	-245.866E-12	702.651E-3	-25.2877E-3
-3.90445E-3	-241.440E-12	702.436E-3	6.76868E-3	-245.893E-12	696.988E-3	-20.4596E-3
-3.90945E-3	-243.539E-12	709.650E-3	-12.7164E-3	-246.315E-12	701.602E-3	-39.9359E-3
-3.91446E-3	-246.186E-12	706.051E-3	-44.6529E-3	-246.137E-12	699.596E-3	-45.4330E-3
-3.91946E-3	-247.762E-12	693.209E-3	-13.3438E-3	-245.831E-12	679.516E-3	-31.4801E-3
-3.92446E-3	-246.159E-12	698.264E-3	27.5205E-3	-247.355E-12	694.720E-3	-35.0405E-3
-3.92946E-3	-248.021E-12	708.156E-3	13.6057E-3	-247.368E-12	722.073E-3	-46.8544E-3
-3.93447E-3	-248.244E-12	718.833E-3	-18.0399E-3	-246.326E-12	715.166E-3	-41.8141E-3
-3.93947E-3	-249.421E-12	718.334E-3	-29.8175E-3	-245.533E-12	678.330E-3	-37.1609E-3
-3.94447E-3	-248.302E-12	683.044E-3	-43.3619E-3	-247.448E-12	653.898E-3	-53.0264E-3
-3.94947E-3	-246.664E-12	664.517E-3	-53.0787E-3	-247.304E-12	666.365E-3	-61.7473E-3
-3.95448E-3	-246.594E-12	711.955E-3	-37.3348E-3	-246.046E-12	712.674E-3	-49.7802E-3
-3.95948E-3	-246.780E-12	757.307E-3	-33.4673E-3	-244.166E-12	743.823E-3	-43.2413E-3
-3.96448E-3	-246.895E-12	725.543E-3	-47.9507E-3	-243.995E-12	723.408E-3	-47.1591E-3
-3.96948E-3	-245.537E-12	673.843E-3	-81.1449E-3	-246.531E-12	691.973E-3	-68.9942E-3
-3.97449E-3	-246.185E-12	664.838E-3	-93.0599E-3	-246.339E-12	711.146E-3	-79.4148E-3
-3.97949E-3	-245.563E-12	671.962E-3	-40.5731E-3	-245.337E-12	743.125E-3	-54.2472E-3
-3.98449E-3	-246.620E-12	662.597E-3	19.7711E-3	-245.554E-12	687.682E-3	-34.0032E-3
-3.98949E-3	-245.543E-12	658.647E-3	32.6105E-3	-247.471E-12	627.792E-3	-17.2492E-3
-3.99450E-3	-245.954E-12	685.538E-3	-3.37045E-3	-248.125E-12	643.426E-3	-9.77521E-3
-3.99950E-3	-247.367E-12	705.997E-3	-16.8898E-3	-248.302E-12	680.398E-3	-25.4253E-3
-4.00450E-3	-249.360E-12	681.657E-3	-19.2929E-3	-249.756E-12	723.860E-3	-24.1856E-3
-4.00950E-3	-249.394E-12	686.283E-3	-55.4057E-3	-249.481E-12	744.611E-3	3.40938E-3
-4.01451E-3	-249.110E-12	732.012E-3	-58.7847E-3	-251.852E-12	711.571E-3	14.8765E-3
-4.01951E-3	-249.779E-12	737.478E-3	-38.7455E-3	-253.102E-12	682.632E-3	-302.307E-6
-4.02451E-3	-251.007E-12	727.367E-3	-16.0345E-3	-253.382E-12	688.373E-3	-28.1809E-3
-4.02951E-3	-252.214E-12	705.330E-3	18.7185E-3	-253.257E-12	715.312E-3	-27.4100E-3
-4.03452E-3	-251.818E-12	672.588E-3	726.624E-6	-253.836E-12	724.598E-3	1.67484E-3
-4.03952E-3	-252.951E-12	685.521E-3	-32.3144E-3	-253.711E-12	678.497E-3	-14.2981E-3
-4.04452E-3	-252.983E-12	707.064E-3	-19.0657E-3	-252.561E-12	650.743E-3	-37.4978E-3
-4.04952E-3	-253.264E-12	707.950E-3	-14.4367E-3	-250.770E-12	668.711E-3	-2.49360E-3
-4.05453E-3	-251.185E-12	708.177E-3	-12.7012E-3	-251.031E-12	685.170E-3	5.51694E-3
-4.05953E-3	-253.107E-12	712.187E-3	1.38993E-3	-249.938E-12	696.752E-3	-22.7147E-3
-4.06453E-3	-254.364E-12	728.256E-3	15.2332E-3	-249.407E-12	715.054E-3	-18.0946E-3
-4.06953E-3	-253.285E-12	723.246E-3	4.66374E-3	-249.739E-12	722.981E-3	-20.2668E-3
-4.07454E-3	-252.139E-12	695.578E-3	-24.2986E-3	-251.153E-12	714.474E-3	-34.7171E-3
-4.07954E-3	-253.341E-12	678.731E-3	-11.2610E-3	-251.917E-12	736.479E-3	-23.5500E-3
-4.08454E-3	-254.898E-12	693.512E-3	8.91354E-3	-252.296E-12	745.970E-3	-935.574E-6
-4.08954E-3	-255.338E-12	737.091E-3	5.81723E-3	-253.362E-12	725.973E-3	15.4403E-3
-4.09455E-3	-254.700E-12	756.670E-3	13.1654E-3	-254.269E-12	743.308E-3	32.5969E-3
-4.09955E-3	-255.229E-12	744.245E-3	21.8786E-3	-254.864E-12	754.227E-3	28.4494E-3
-4.10455E-3	-256.365E-12	732.290E-3	11.4026E-3	-255.976E-12	748.970E-3	594.108E-6
-4.10955E-3	-257.179E-12	719.662E-3	-9.46874E-3	-257.876E-12	755.016E-3	-25.0654E-3
-4.11456E-3	-257.919E-12	703.164E-3	-37.2798E-3	-258.222E-12	738.854E-3	-45.4644E-3
-4.11956E-3	-256.233E-12	711.168E-3	-72.3723E-3	-255.782E-12	716.714E-3	-56.3493E-3
-4.12456E-3	-256.601E-12	737.091E-3	-107.958E-3	-256.541E-12	694.695E-3	-37.0730E-3
-4.12956E-3	-255.862E-12	743.441E-3	-115.352E-3	-257.234E-12	688.927E-3	4.24356E-3
-4.13457E-3	-257.517E-12	711.090E-3	-67.4574E-3	-258.422E-12	702.743E-3	18.4169E-3
-4.13957E-3	-255.411E-12	678.641E-3	-13.7096E-3	-256.900E-12	697.044E-3	9.55642E-3
-4.14457E-3	-255.142E-12	690.385E-3	15.4769E-3	-255.865E-12	707.751E-3	250.664E-6
-4.14957E-3	-254.457E-12	693.312E-3	29.4379E-3	-256.431E-12	718.317E-3	-22.3394E-3
-4.15458E-3	-255.386E-12	694.057E-3	32.2059E-3	-257.008E-12	696.045E-3	-39.8872E-3
-4.15958E-3	-254.577E-12	739.319E-3	35.6682E-3	-256.610E-12	703.337E-3	-17.6581E-3
-4.16458E-3	-255.972E-12	737.544E-3	-14.5949E-3	-255.772E-12	720.379E-3	11.1043E-3
-4.16958E-3	-257.885E-12	725.962E-3	-89.0723E-3	-257.161E-12	682.013E-3	1.29366E-3
-4.17459E-3	-258.773E-12	749.988E-3	-71.7210E-3	-257.341E-12	664.022E-3	-23.1283E-3
-4.17959E-3	-259.872E-12	715.269E-3	-14.1650E-3	-258.391E-12	726.816E-3	-29.8445E-3
-4.18459E-3	-258.414E-12	666.389E-3	-9.73916E-3	-256.598E-12	768.010E-3	-33.8702E-3
-4.18959E-3	-259.745E-12	663.477E-3	-25.6768E-3	-257.741E-12	749.777E-3	-40.7655E-3
-4.19460E-3	-258.643E-12	674.464E-3	-17.9153E-3	-259.632E-12	726.518E-3	-28.1928E-3
-4.19960E-3	-259.976E-12	680.669E-3	-13.0951E-3	-260.964E-12	705.417E-3	-28.3192E-3
-4.20460E-3	-259.770E-12	685.821E-3	-14.8757E-3	-259.429E-12	685.166E-3	-40.8641E-3
-4.20960E-3	-258.381E-12	681.793E-3	10.2563E-3	-259.265E-12	686.466E-3	-20.3168E-3
-4.21461E-3	-259.200E-12	700.692E-3	28.0783E-3	-260.708E-12	725.350E-3	3.64148E-3
-4.21961E-3	-258.733E-12	755.194E-3	15.8789E-3	-259.504E-12	760.092E-3	7.82552E-3
-4.22461E-3	-259.655E-12	752.142E-3	-9.58065E-3	-259.640E-12	766.915E-3	-12.8052E-3
-4.22961E-3	-257.958E-12	700.046E-3	-39.6177E-3	-259.924E-12	740.273E-3	-36.1846E-3
-4.23462E-3	-260.019E-12	687.650E-3	-32.5366E-3	-260.063E-12	713.667E-3	-6.69448E-3
-4.23962E-3	-260.803E-12	664.870E-3	16.0540E-3	-259.416E-12	741.421E-3	33.4007E-3
-4.24462E-3	-261.062E-12	640.031E-3	40.8340E-3	-257.607E-12	761.887E-3	32.1079E-3
-4.24962E-3	-259.771E-12	674.783E-3	26.3065E-3	-259.845E-12	742.304E-3	27.2852E-3
-4.25463E-3	-261.646E-12	689.798E-3	18.3256E-3	-260.029E-12	724.389E-3	13.8418E-3
-4.25963E-3	-263.077E-12	646.888E-3	-2.09125E-3	-261.064E-12	692.127E-3	-25.4949E-3
-4.26463E-3	-263.303E-12	640.054E-3	-33.0844E-3	-257.854E-12	665.341E-3	-37.1857E-3
-4.26963E-3	-264.871E-12	691.816E-3	-29.2939E-3	-258.276E-12	696.423E-3	-17.7809E-3
-4.27464E-3	-265.715E-12	693.576E-3	-14.7785E-3	-258.424E-12	712.759E-3	-3.25814E-3
-4.27964E-3	-266.649E-12	664.743E-3	-30.9640E-3	-259.277E-12	685.086E-3	-5.97590E-3
-4.28464E-3	-265.273E-12	656.727E-3	-60.5222E-3	-258.346E-12	680.768E-3	-21.5892E-3
-4.28964E-3	-261.962E-12	632.185E-3	-49.1381E-3	-257.711E-12	696.938E-3	-7.27722E-3
-4.29465E-3	-260.197E-12	644.173E-3	-16.0082E-3	-257.725E-12	700.464E-3	14.3684E-3
-4.29965E-3	-260.481E-12	679.917E-3	-21.6772E-3	-260.075E-12	695.933E-3	-1.56567E-3
-4.30465E-3	-262.096E-12	687.702E-3	-35.6638E-3	-260.769E-12	681.279E-3	-17.6043E-3
-4.30965E-3	-260.454E-12	702.426E-3	-20.5324E-3	-260.407E-12	651.633E-3	-30.3715E-3
-4.31466E-3	-259.154E-12	716.808E-3	10.9462E-3	-260.077E-12	642.580E-3	-39.2282E-3
-4.31966E-3	-259.445E-12	703.416E-3	21.5517E-3	-260.733E-12	649.254E-3	-42.7033E-3
-4.32466E-3	-260.897E-12	665.740E-3	-13.9633E-3	-263.456E-12	656.117E-3	-36.3538E-3
-4.32966E-3	-261.445E-12	647.416E-3	-36.0351E-3	-262.284E-12	680.064E-3	-16.8078E-3
-4.33467E-3	-261.389E-12	674.562E-3	-16.7167E-3	-260.691E-12	679.260E-3	-39.1199E-3
-4.33967E-3	-262.644E-12	704.086E-3	-5.34579E-3	-263.076E-12	654.388E-3	-60.9964E-3
-4.34467E-3	-265.162E-12	715.006E-3	5.61856E-3	-265.732E-12	672.198E-3	-28.1459E-3
-4.34967E-3	-268.269E-12	707.106E-3	11.3016E-3	-264.995E-12	698.435E-3	-308.200E-6
-4.35468E-3	-268.867E-12	695.638E-3	2.59028E-3	-263.098E-12	695.730E-3	2.23446E-3
-4.35968E-3	-268.827E-12	695.869E-3	3.21591E-3	-264.411E-12	705.631E-3	-1.90129E-3
-4.36468E-3	-270.900E-12	679.771E-3	297.956E-6	-265.768E-12	707.330E-3	-12.2298E-3
-4.36968E-3	-271.879E-12	675.709E-3	-14.4260E-3	-266.235E-12	692.665E-3	-14.2513E-3
-4.37469E-3	-270.920E-12	686.052E-3	-7.64416E-3	-263.324E-12	715.848E-3	-8.83009E-3
-4.37969E-3	-270.617E-12	681.329E-3	4.50333E-3	-264.616E-12	720.926E-3	-14.2198E-3
-4.38469E-3	-270.934E-12	697.343E-3	-8.94774E-3	-264.395E-12	694.727E-3	-6.23778E-3
-4.38969E-3	-269.985E-12	726.656E-3	-9.69222E-3	-264.707E-12	693.105E-3	10.4715E-3
-4.39470E-3	-269.735E-12	735.673E-3	541.408E-6	-265.036E-12	688.972E-3	2.60977E-3
-4.39970E-3	-268.490E-12	720.318E-3	-17.1995E-3	-264.521E-12	673.719E-3	-7.53593E-3
-4.40470E-3	-267.541E-12	702.853E-3	-42.8507E-3	-265.321E-12	681.905E-3	-11.2916E-3
-4.40970E-3	-265.555E-12	689.755E-3	-43.7347E-3	-265.340E-12	718.422E-3	-12.5994E-3
-4.41471E-3	-263.956E-12	665.319E-3	-20.0405E-3	-267.669E-12	715.331E-3	-3.37476E-3
-4.41971E-3	-263.735E-12	656.146E-3	121.251E-6	-268.383E-12	685.870E-3	7.59762E-3
-4.42471E-3	-265.304E-12	662.008E-3	-9.50239E-3	-268.012E-12	679.458E-3	-7.02639E-3
-4.42971E-3	-265.657E-12	648.699E-3	-24.3714E-3	-270.382E-12	657.820E-3	-24.9436E-3
-4.43472E-3	-266.184E-12	620.951E-3	-33.6438E-3	-272.285E-12	665.321E-3	-11.0042E-3
-4.43972E-3	-267.400E-12	613.102E-3	-44.7200E-3	-273.128E-12	688.438E-3	-9.32288E-3
-4.44472E-3	-269.684E-12	638.751E-3	-54.1325E-3	-273.112E-12	660.551E-3	-28.5215E-3
-4.44972E-3	-269.920E-12	670.635E-3	-48.1271E-3	-274.804E-12	661.532E-3	-8.75192E-3
-4.45473E-3	-270.547E-12	684.070E-3	-21.8327E-3	-275.196E-12	689.366E-3	10.2673E-3
-4.45973E-3	-271.709E-12	687.370E-3	-17.0619E-3	-274.946E-12	659.901E-3	-1.51561E-3
-4.46473E-3	-272.256E-12	688.221E-3	-16.5842E-3	-275.597E-12	618.664E-3	-1.00477E-3
-4.46973E-3	-272.741E-12	667.238E-3	4.15307E-3	-275.016E-12	634.263E-3	-5.82347E-3
-4.47474E-3	-273.831E-12	636.276E-3	-2.22654E-3	-274.757E-12	650.557E-3	-9.47570E-3
-4.47974E-3	-272.153E-12	639.801E-3	-24.9488E-3	-272.025E-12	642.011E-3	1.24929E-3
-4.48474E-3	-271.210E-12	652.662E-3	-20.1085E-3	-272.655E-12	651.529E-3	-8.16367E-3
-4.48974E-3	-269.357E-12	630.193E-3	-7.90660E-3	-271.777E-12	671.524E-3	-39.4848E-3
-4.49475E-3	-270.133E-12	627.019E-3	-16.4181E-3	-272.288E-12	669.132E-3	-63.6627E-3
-4.49975E-3	-272.010E-12	660.129E-3	-11.7385E-3	-269.488E-12	644.824E-3	-47.5038E-3
-4.50475E-3	-270.380E-12	670.143E-3	-473.347E-6	-271.727E-12	641.234E-3	-20.7515E-3
-4.50975E-3	-267.899E-12	665.429E-3	-32.3204E-3	-273.058E-12	646.587E-3	-25.9449E-3
-4.51476E-3	-268.588E-12	680.695E-3	-49.3561E-3	-273.917E-12	642.313E-3	-51.6733E-3
-4.51976E-3	-272.514E-12	677.479E-3	-17.6770E-3	-270.572E-12	660.301E-3	-67.1635E-3
-4.52476E-3	-273.956E-12	656.251E-3	4.29977E-3	-270.177E-12	675.696E-3	-43.9437E-3
-4.52976E-3	-272.442E-12	648.790E-3	8.86137E-3	-274.654E-12	671.681E-3	-13.0128E-3
-4.53477E-3	-272.219E-12	640.259E-3	28.0701E-3	-275.188E-12	675.201E-3	8.87679E-3
-4.53977E-3	-273.262E-12	646.700E-3	33.6683E-3	-273.708E-12	656.552E-3	15.1528E-3
-4.54477E-3	-275.259E-12	662.447E-3	-5.60488E-3	-270.734E-12	637.087E-3	-12.2386E-3
-4.54977E-3	-275.758E-12	660.103E-3	-27.4644E-3	-272.473E-12	646.283E-3	-43.2728E-3
-4.55478E-3	-275.687E-12	647.775E-3	-4.37953E-3	-275.863E-12	639.153E-3	-36.6850E-3
-4.55978E-3	-274.467E-12	656.486E-3	10.7057E-3	-275.741E-12	623.340E-3	-834.368E-6
-4.56478E-3	-274.062E-12	673.610E-3	17.0243E-3	-274.778E-12	625.961E-3	4.80992E-3
-4.56978E-3	-276.045E-12	672.985E-3	33.0277E-3	-273.800E-12	636.560E-3	-8.74051E-3
-4.57479E-3	-275.950E-12	659.345E-3	22.7788E-3	-277.613E-12	671.390E-3	-18.5574E-3
-4.57979E-3	-275.580E-12	649.089E-3	-11.9158E-3	-275.797E-12	700.431E-3	-35.2780E-3
-4.58479E-3	-275.840E-12	657.846E-3	-34.2221E-3	-275.732E-12	673.117E-3	-32.5147E-3
-4.58979E-3	-276.562E-12	664.875E-3	-39.2856E-3	-273.744E-12	651.713E-3	-33.6360E-3
-4.59480E-3	-278.344E-12	672.846E-3	-26.5753E-3	-275.581E-12	637.432E-3	-44.7229E-3
-4.59980E-3	-277.208E-12	667.390E-3	-27.7114E-3	-276.856E-12	608.830E-3	-45.7676E-3
-4.60480E-3	-278.360E-12	642.628E-3	-24.5573E-3	-277.716E-12	622.246E-3	-55.8079E-3
-4.60980E-3	-280.165E-12	635.775E-3	2.91723E-3	-278.094E-12	621.818E-3	-41.9555E-3
-4.61481E-3	-280.160E-12	643.389E-3	3.55875E-3	-279.209E-12	623.956E-3	-6.37673E-3
-4.61981E-3	-277.918E-12	653.812E-3	-14.5524E-3	-280.276E-12	681.447E-3	-2.75997E-3
-4.62481E-3	-277.478E-12	678.288E-3	-12.7228E-3	-278.882E-12	698.626E-3	-22.4024E-3
-4.62981E-3	-278.440E-12	709.397E-3	13.5568E-3	-278.196E-12	674.778E-3	-14.6349E-3
-4.63482E-3	-278.330E-12	722.384E-3	10.4379E-3	-279.129E-12	659.780E-3	161.369E-6
-4.63982E-3	-277.231E-12	712.734E-3	-23.3205E-3	-279.561E-12	649.637E-3	-15.6325E-3
-4.64482E-3	-274.345E-12	690.386E-3	-16.4883E-3	-277.927E-12	653.099E-3	-42.7960E-3
-4.64982E-3	-275.751E-12	661.139E-3	15.6793E-3	-278.304E-12	697.349E-3	-72.1348E-3
-4.65483E-3	-278.316E-12	637.741E-3	18.1010E-3	-278.630E-12	750.398E-3	-61.6381E-3
-4.65983E-3	-279.709E-12	656.574E-3	-7.63291E-3	-277.698E-12	751.657E-3	-12.7001E-3
-4.66483E-3	-279.435E-12	691.544E-3	-20.8625E-3	-277.052E-12	722.344E-3	16.4693E-3
-4.66983E-3	-280.199E-12	688.516E-3	-33.6925E-3	-279.215E-12	703.081E-3	15.0713E-3
-4.67484E-3	-283.518E-12	689.274E-3	-57.5570E-3	-279.997E-12	706.508E-3	-1.94568E-3
-4.67984E-3	-284.373E-12	708.646E-3	-39.8188E-3	-278.463E-12	706.603E-3	-5.20735E-3
-4.68484E-3	-286.092E-12	699.834E-3	-331.395E-6	-279.300E-12	670.105E-3	-17.3952E-3
-4.68984E-3	-285.023E-12	655.048E-3	12.0725E-3	-280.258E-12	638.836E-3	-22.3072E-3
-4.69485E-3	-288.585E-12	634.840E-3	27.5718E-3	-280.822E-12	640.216E-3	18.3116E-3
-4.69985E-3	-288.480E-12	672.837E-3	26.5967E-3	-280.461E-12	631.738E-3	15.4289E-3
-4.70485E-3	-288.609E-12	706.391E-3	-24.6887E-3	-280.266E-12	627.063E-3	-35.4324E-3
-4.70985E-3	-287.073E-12	694.714E-3	-60.1713E-3	-281.093E-12	635.951E-3	-55.4405E-3
-4.71486E-3	-285.773E-12	665.157E-3	-54.4985E-3	-279.769E-12	617.690E-3	-52.9785E-3
-4.71986E-3	-284.182E-12	671.921E-3	-50.9605E-3	-280.359E-12	594.431E-3	-36.0932E-3
-4.72486E-3	-283.814E-12	689.739E-3	-50.3387E-3	-282.069E-12	595.649E-3	-13.1341E-3
-4.72986E-3	-280.796E-12	677.601E-3	-30.0395E-3	-282.111E-12	598.517E-3	-18.9078E-3
-4.73487E-3	-277.601E-12	653.165E-3	-21.8029E-3	-281.444E-12	597.931E-3	-29.5433E-3
-4.73987E-3	-276.484E-12	646.833E-3	-34.3507E-3	-280.565E-12	621.330E-3	7.72849E-3
-4.74487E-3	-277.498E-12	669.536E-3	-22.2240E-3	-282.690E-12	645.311E-3	34.1999E-3
-4.74988E-3	-278.691E-12	683.076E-3	-11.9932E-3	-283.861E-12	637.523E-3	13.3361E-3
-4.75488E-3	-278.001E-12	653.864E-3	-20.7989E-3	-285.887E-12	618.696E-3	23.2255E-3
-4.75988E-3	-276.927E-12	619.654E-3	-24.9830E-3	-284.432E-12	628.652E-3	30.6606E-3
-4.76488E-3	-280.227E-12	617.183E-3	-13.9363E-3	-286.831E-12	666.303E-3	-3.29959E-3
-4.76988E-3	-282.318E-12	620.209E-3	-6.92448E-3	-286.415E-12	678.812E-3	-2.98267E-3
-4.77489E-3	-284.526E-12	610.610E-3	-32.1657E-3	-287.318E-12	656.520E-3	13.9342E-3
-4.77989E-3	-283.943E-12	629.567E-3	-43.7967E-3	-287.511E-12	640.044E-3	-1.79804E-3
-4.78489E-3	-284.907E-12	679.177E-3	-32.1195E-3	-286.345E-12	650.859E-3	-37.7002E-3
-4.78989E-3	-288.084E-12	686.120E-3	-24.8861E-3	-287.735E-12	678.159E-3	-33.7803E-3
-4.79490E-3	-289.645E-12	640.540E-3	-23.6671E-3	-286.610E-12	691.887E-3	-7.84794E-3
-4.79990E-3	-288.821E-12	627.599E-3	-16.9003E-3	-286.153E-12	675.920E-3	-14.8124E-3
-4.80490E-3	-288.108E-12	669.631E-3	-860.116E-6	-284.107E-12	633.791E-3	-29.6457E-3
-4.80990E-3	-287.769E-12	707.909E-3	-17.6758E-3	-285.227E-12	604.415E-3	-45.2763E-3
-4.81491E-3	-288.013E-12	744.956E-3	-43.1433E-3	-285.463E-12	631.933E-3	-35.5975E-3
-4.81991E-3	-286.293E-12	746.320E-3	-25.6179E-3	-284.827E-12	668.609E-3	-28.7650E-3
-4.82491E-3	-283.696E-12	696.126E-3	-8.86332E-3	-283.513E-12	674.299E-3	-21.1799E-3
-4.82991E-3	-282.743E-12	666.816E-3	-24.2714E-3	-283.311E-12	658.407E-3	25.0233E-3
-4.83492E-3	-282.765E-12	649.131E-3	-48.3698E-3	-286.711E-12	633.321E-3	19.8003E-3
-4.83992E-3	-281.771E-12	624.554E-3	-58.8769E-3	-287.442E-12	603.830E-3	-22.2420E-3
-4.84492E-3	-281.075E-12	642.587E-3	-37.8792E-3	-287.582E-12	608.767E-3	-19.9695E-3
-4.84992E-3	-281.234E-12	685.994E-3	10.7449E-3	-286.915E-12	668.850E-3	-28.7873E-3
-4.85493E-3	-281.668E-12	693.523E-3	36.7848E-3	-288.278E-12	704.933E-3	-75.9986E-3
-4.85993E-3	-285.600E-12	664.519E-3	3.49337E-3	-290.741E-12	703.860E-3	-80.2734E-3
-4.86493E-3	-288.283E-12	637.210E-3	-40.6673E-3	-292.644E-12	697.342E-3	-27.5435E-3
-4.86993E-3	-288.365E-12	616.067E-3	-43.7465E-3	-292.915E-12	674.186E-3	781.006E-6
-4.87494E-3	-286.402E-12	605.548E-3	-26.5912E-3	-291.452E-12	651.437E-3	-1.92588E-3
-4.87994E-3	-288.439E-12	630.371E-3	-20.1543E-3	-293.069E-12	649.750E-3	4.42336E-3
-4.88494E-3	-292.428E-12	649.891E-3	-1.12043E-3	-292.862E-12	665.053E-3	3.87031E-3
-4.88995E-3	-290.941E-12	646.507E-3	30.1118E-3	-294.310E-12	680.029E-3	-13.2639E-3
-4.89495E-3	-290.736E-12	656.043E-3	27.5325E-3	-291.162E-12	699.336E-3	-24.5722E-3
-4.89995E-3	-291.253E-12	662.141E-3	22.6241E-3	-290.813E-12	707.562E-3	-46.8676E-3
-4.90495E-3	-292.147E-12	652.220E-3	17.4114E-3	-288.227E-12	663.261E-3	-69.3910E-3
-4.90995E-3	-292.314E-12	657.905E-3	-9.78904E-3	-289.179E-12	614.076E-3	-58.9445E-3
-4.91496E-3	-291.103E-12	696.234E-3	-18.8827E-3	-287.615E-12	627.827E-3	-30.6637E-3
-4.91996E-3	-290.540E-12	721.697E-3	-17.8060E-3	-289.298E-12	663.207E-3	2.50988E-3
-4.92496E-3	-290.188E-12	699.304E-3	6.29930E-3	-286.898E-12	682.230E-3	24.6205E-3
-4.92996E-3	-290.810E-12	673.601E-3	36.4097E-3	-287.308E-12	673.642E-3	-9.67629E-3
-4.93497E-3	-291.504E-12	668.534E-3	-2.87060E-3	-287.569E-12	651.696E-3	-34.0379E-3
-4.93997E-3	-290.840E-12	679.690E-3	-62.4608E-3	-290.661E-12	661.982E-3	-3.15246E-3
-4.94497E-3	-289.269E-12	696.051E-3	-65.0256E-3	-290.657E-12	679.717E-3	-10.7552E-3
-4.94997E-3	-288.551E-12	704.210E-3	-42.2417E-3	-288.721E-12	667.307E-3	-52.5327E-3
-4.95498E-3	-290.099E-12	693.401E-3	-16.3080E-3	-289.298E-12	649.177E-3	-73.2738E-3
-4.95998E-3	-291.087E-12	668.045E-3	-3.86722E-3	-291.644E-12	635.888E-3	-62.5447E-3
-4.96498E-3	-290.068E-12	686.430E-3	-729.012E-6	-294.129E-12	634.698E-3	-13.1429E-3
-4.96998E-3	-289.717E-12	696.851E-3	2.37831E-3	-292.919E-12	664.698E-3	36.7910E-3
-4.97499E-3	-289.217E-12	665.640E-3	-20.3376E-3	-292.053E-12	678.849E-3	58.0488E-3
-4.97999E-3	-289.358E-12	654.363E-3	-37.7191E-3	-292.122E-12	647.146E-3	40.0988E-3
-4.98499E-3	-288.687E-12	627.220E-3	-25.9678E-3	-292.598E-12	613.001E-3	1.88176E-3
-4.98999E-3	-289.717E-12	615.070E-3	5.20313E-3	-292.827E-12	615.949E-3	-4.88050E-3
-4.99500E-3	-290.942E-12	630.968E-3	31.8795E-3	-291.602E-12	614.184E-3	-27.9292E-3
-5.00000E-3	-290.335E-12	598.242E-3	-8.81567E-3	-291.418E-12	583.307E-3	-55.9413E-3
