Experiment	bias spectroscopy	
Date	19.01.2016 21:40:57	
User		
X (m)	50.5145E-9	
Y (m)	257.772E-9	
Z (m)	-132.625E-9	
Z offset (m)	0E+0	
Settling time (s)	200E-6	
Integration time (s)	5E-3	
Z-Ctrl hold	TRUE	
Final Z (m)	N/A	
Filter type	None	
Order		
Cutoff frq		
Comment01	MnPc/Pb(111)	
Comment02	dz =00pm	
Comment03	7 Sweeps	
Comment04	MagField =0.T	
Comment05	Divider 1:10	
Comment06	Setpoint:5mV,200 pA	
Comment07	Lockin: 50uVrms,5ms,5mV	
Comment08	Gain:9; 912Hz modulation	
Comment09	T=1.06K	
Bias>Bias (V)	5E-3	
Bias>Calibration (V/V)	81.475E-3	
Bias>Offset (V)	1.046E-3	
Bias Spectroscopy>Sweep Start (V)	5E-3	
Bias Spectroscopy>Sweep End (V)	-5E-3	
Bias Spectroscopy>Num Pixel	2000	
Bias Spectroscopy>Z Avg time (s)	500E-3	
Bias Spectroscopy>Z offset (m)	0E+0	
Bias Spectroscopy>1st Settling time (s)	500E-3	
Bias Spectroscopy>Settling time (s)	200E-6	
Bias Spectroscopy>Integration time (s)	5E-3	
Bias Spectroscopy>End Settling time (s)	500E-3	
Bias Spectroscopy>Z control time (s)	500E-3	
Bias Spectroscopy>Max Slew rate (V/s)	Inf	
Bias Spectroscopy>backward sweep	TRUE	
Bias Spectroscopy>Z-controller hold	TRUE	
Bias Spectroscopy>Number of sweeps	7	
Bias Spectroscopy>Channels	Current (A);X% LockIn (V);Y% LockIn (V)	
Bias Spectroscopy>Reset Bias	TRUE	
Bias Spectroscopy>Record final Z	FALSE	
Bias Spectroscopy>Lock-In run	FALSE	
Bias Spectroscopy>Sweep mode	Linear	
Bias Spectroscopy>MultiLine Settings : Segment Start (V), Segment End (V), Settling (s), Integration (s), Steps (xn)	100E-3,3.3E-3,100E-6,10E-3,2500;3.3E-3,-3.3E-3,100E-6,10E-3,10;-3.3E-3,-100E-3,100E-6,10E-3,2500	
Current>Current (A)	200.237E-12	
Current>Calibration (A/V)	999.99900E-12	
Current>Offset (A)	-455.429E-15	
Current>Gain	LN 10^9	
Z-Controller>Z (m)	-132.626E-9	
Z-Controller>Controller name	log Current	
Z-Controller>Controller status	ON	
Z-Controller>Setpoint	200E-12	
Z-Controller>Setpoint unit	A	
Z-Controller>P gain	2.96994E-12	
Z-Controller>I gain	67.0321E-9	
Z-Controller>Time const (s)	44.3062E-6	
Z-Controller>TipLift (m)	0E+0	
Z-Controller>Switch off delay (s)	50E-3	
Current (A)	200.358E-12	
Z (m)	-132.626E-9	

[DATA]
Bias calc (V)	Current (A)	X% LockIn (V)	Y% LockIn (V)	Current [bwd] (A)	X% LockIn [bwd] (V)	Y% LockIn [bwd] (V)
5.00000E-3	201.201E-12	700.356E-3	-39.8318E-3	199.533E-12	633.796E-3	-14.1475E-3
4.99500E-3	200.971E-12	733.853E-3	-23.3997E-3	197.339E-12	637.807E-3	-23.9210E-3
4.98999E-3	201.789E-12	726.269E-3	2.33825E-3	195.975E-12	644.975E-3	-17.5158E-3
4.98499E-3	200.407E-12	716.605E-3	1.93796E-3	196.480E-12	671.601E-3	-23.0237E-3
4.97999E-3	200.337E-12	716.902E-3	-18.4134E-3	196.108E-12	675.678E-3	-5.96176E-3
4.97499E-3	200.028E-12	696.148E-3	-36.8269E-3	195.500E-12	662.060E-3	14.2799E-3
4.96998E-3	199.129E-12	686.847E-3	-49.8970E-3	197.235E-12	659.582E-3	-2.98554E-3
4.96498E-3	199.203E-12	683.533E-3	-42.1164E-3	197.972E-12	653.002E-3	-33.6744E-3
4.95998E-3	199.303E-12	664.779E-3	-8.69049E-3	197.448E-12	625.911E-3	-37.2482E-3
4.95498E-3	198.203E-12	653.033E-3	-5.90583E-3	199.373E-12	605.344E-3	-21.5308E-3
4.94997E-3	197.461E-12	659.388E-3	-38.9123E-3	200.172E-12	615.608E-3	-20.6491E-3
4.94497E-3	197.276E-12	694.673E-3	-57.1357E-3	200.028E-12	665.199E-3	-17.5512E-3
4.93997E-3	196.312E-12	732.665E-3	-51.1764E-3	199.955E-12	730.626E-3	-17.9072E-3
4.93497E-3	195.189E-12	708.677E-3	-29.7296E-3	199.793E-12	733.613E-3	-46.3839E-3
4.92996E-3	195.518E-12	649.985E-3	949.000E-6	199.941E-12	697.010E-3	-41.8730E-3
4.92496E-3	195.010E-12	626.096E-3	4.89884E-3	199.335E-12	683.167E-3	-5.37946E-3
4.91996E-3	194.967E-12	643.857E-3	-25.2572E-3	197.578E-12	666.547E-3	-2.66656E-3
4.91496E-3	195.011E-12	656.041E-3	-37.4615E-3	196.741E-12	643.547E-3	-26.2230E-3
4.90995E-3	195.634E-12	646.989E-3	-5.28488E-3	196.785E-12	631.411E-3	-36.7737E-3
4.90495E-3	195.366E-12	627.657E-3	4.72679E-3	194.893E-12	634.691E-3	-32.0085E-3
4.89995E-3	195.942E-12	624.652E-3	-19.2310E-3	193.548E-12	635.922E-3	-30.3578E-3
4.89495E-3	195.546E-12	653.107E-3	-22.8377E-3	192.611E-12	633.377E-3	-17.6754E-3
4.88995E-3	196.194E-12	670.988E-3	-8.77117E-3	192.558E-12	635.269E-3	-20.2697E-3
4.88494E-3	196.130E-12	658.849E-3	-6.85803E-3	192.355E-12	638.908E-3	-42.4978E-3
4.87994E-3	195.516E-12	642.666E-3	3.73746E-3	192.557E-12	656.733E-3	-56.2536E-3
4.87494E-3	195.993E-12	667.343E-3	26.7088E-3	192.670E-12	661.926E-3	-57.1434E-3
4.86993E-3	195.818E-12	696.289E-3	11.6290E-3	193.427E-12	655.465E-3	-26.7313E-3
4.86493E-3	195.617E-12	686.439E-3	-29.4627E-3	194.285E-12	671.287E-3	-16.1611E-3
4.85993E-3	194.704E-12	664.441E-3	-58.2514E-3	193.818E-12	671.672E-3	-52.6874E-3
4.85493E-3	194.331E-12	634.013E-3	-49.4043E-3	194.653E-12	649.209E-3	-71.7375E-3
4.84992E-3	192.558E-12	616.468E-3	-29.4300E-3	195.013E-12	658.543E-3	-55.4390E-3
4.84492E-3	192.198E-12	628.543E-3	-26.4824E-3	195.007E-12	683.811E-3	-31.6115E-3
4.83992E-3	191.235E-12	648.076E-3	-23.8334E-3	194.830E-12	698.948E-3	-25.7688E-3
4.83492E-3	190.067E-12	651.579E-3	-19.9508E-3	195.306E-12	715.308E-3	-35.0117E-3
4.82991E-3	189.208E-12	643.008E-3	-7.86504E-3	194.744E-12	700.536E-3	-34.2833E-3
4.82491E-3	189.483E-12	624.976E-3	-5.27434E-3	193.174E-12	671.398E-3	-10.2446E-3
4.81991E-3	189.524E-12	638.512E-3	-35.5188E-3	193.634E-12	670.870E-3	22.5326E-3
4.81491E-3	189.002E-12	679.187E-3	-50.7128E-3	192.766E-12	681.181E-3	23.5888E-3
4.80990E-3	189.170E-12	680.682E-3	-28.0475E-3	192.358E-12	671.018E-3	10.9835E-3
4.80490E-3	189.126E-12	665.807E-3	-18.6797E-3	190.990E-12	667.695E-3	-3.13569E-3
4.79990E-3	189.505E-12	680.000E-3	-35.8969E-3	190.356E-12	695.899E-3	-28.1236E-3
4.79490E-3	190.148E-12	688.749E-3	-56.0747E-3	190.064E-12	692.111E-3	-37.2450E-3
4.78989E-3	190.251E-12	652.824E-3	-56.3419E-3	189.689E-12	665.522E-3	-34.5864E-3
4.78489E-3	190.718E-12	631.059E-3	-43.8564E-3	188.677E-12	674.924E-3	-26.4235E-3
4.77989E-3	190.175E-12	643.012E-3	-16.6101E-3	188.501E-12	689.782E-3	-25.9475E-3
4.77489E-3	190.857E-12	655.625E-3	15.5449E-3	188.442E-12	680.555E-3	-29.1991E-3
4.76988E-3	190.860E-12	654.439E-3	-802.830E-6	189.044E-12	646.022E-3	-14.6440E-3
4.76488E-3	190.920E-12	659.174E-3	-14.4662E-3	188.446E-12	607.741E-3	1.62904E-3
4.75988E-3	189.944E-12	678.605E-3	11.7392E-3	188.542E-12	599.979E-3	-8.26918E-3
4.75488E-3	190.724E-12	683.726E-3	19.7744E-3	189.230E-12	621.633E-3	-22.7119E-3
4.74988E-3	189.628E-12	673.366E-3	4.51044E-3	188.991E-12	645.113E-3	-6.34728E-3
4.74487E-3	189.121E-12	669.584E-3	-14.8282E-3	189.018E-12	648.233E-3	4.99266E-3
4.73987E-3	188.910E-12	681.744E-3	-34.7816E-3	189.117E-12	648.212E-3	-8.22726E-3
4.73487E-3	188.543E-12	692.865E-3	-56.8012E-3	188.628E-12	669.899E-3	-22.2454E-3
4.72986E-3	188.092E-12	692.293E-3	-52.8135E-3	189.036E-12	690.817E-3	-8.80702E-3
4.72486E-3	187.512E-12	672.016E-3	-16.5385E-3	189.960E-12	674.198E-3	21.9160E-3
4.71986E-3	187.652E-12	647.833E-3	-8.16800E-3	188.771E-12	655.815E-3	42.4000E-3
4.71486E-3	187.595E-12	635.950E-3	-12.4403E-3	188.378E-12	672.513E-3	34.5931E-3
4.70985E-3	187.792E-12	632.013E-3	-8.38825E-3	188.608E-12	702.720E-3	-12.8657E-3
4.70485E-3	188.811E-12	645.963E-3	-14.9489E-3	188.804E-12	719.404E-3	-42.4231E-3
4.69985E-3	189.192E-12	671.984E-3	-20.1730E-3	188.317E-12	715.276E-3	-27.9038E-3
4.69485E-3	189.092E-12	662.995E-3	-22.1066E-3	188.043E-12	701.000E-3	-6.18920E-3
4.68984E-3	188.542E-12	638.902E-3	-29.1449E-3	187.612E-12	666.033E-3	16.1183E-3
4.68484E-3	188.973E-12	635.897E-3	-31.4658E-3	187.153E-12	629.445E-3	7.11938E-3
4.67984E-3	189.197E-12	657.072E-3	-8.40539E-3	186.809E-12	648.445E-3	-37.4053E-3
4.67484E-3	188.266E-12	701.387E-3	21.2680E-3	185.721E-12	697.744E-3	-64.7017E-3
4.66983E-3	187.327E-12	726.957E-3	16.9628E-3	184.420E-12	694.230E-3	-50.8477E-3
4.66483E-3	186.909E-12	731.325E-3	-15.6072E-3	185.035E-12	668.792E-3	-20.4266E-3
4.65983E-3	186.483E-12	720.798E-3	-34.4724E-3	185.053E-12	650.254E-3	-10.3389E-3
4.65483E-3	185.981E-12	680.649E-3	-38.4980E-3	184.510E-12	614.401E-3	-17.1555E-3
4.64982E-3	184.899E-12	657.770E-3	-37.1226E-3	184.139E-12	603.017E-3	-16.1869E-3
4.64482E-3	184.242E-12	679.110E-3	-24.8672E-3	184.774E-12	614.990E-3	-3.15235E-3
4.63982E-3	182.773E-12	682.193E-3	-9.25848E-3	184.881E-12	623.887E-3	-11.2472E-3
4.63482E-3	183.867E-12	655.018E-3	-9.22773E-3	184.279E-12	641.602E-3	-13.8247E-3
4.62981E-3	181.692E-12	658.616E-3	-20.6483E-3	184.671E-12	658.419E-3	-1.66500E-3
4.62481E-3	182.073E-12	675.704E-3	-13.3058E-3	184.676E-12	654.399E-3	-16.7405E-3
4.61981E-3	181.812E-12	670.184E-3	-23.2224E-3	185.242E-12	646.801E-3	-38.0687E-3
4.61481E-3	181.853E-12	664.460E-3	-57.9715E-3	186.114E-12	648.890E-3	-25.3411E-3
4.60980E-3	181.070E-12	657.246E-3	-44.0147E-3	185.558E-12	638.517E-3	13.8674E-3
4.60480E-3	181.435E-12	652.289E-3	5.04966E-3	184.521E-12	619.038E-3	7.06626E-3
4.59980E-3	181.713E-12	672.170E-3	31.0888E-3	184.923E-12	601.331E-3	-31.0746E-3
4.59480E-3	180.481E-12	694.921E-3	28.6164E-3	184.235E-12	600.140E-3	-39.9715E-3
4.58979E-3	180.280E-12	695.987E-3	-2.63276E-3	183.141E-12	631.364E-3	-33.8865E-3
4.58479E-3	180.025E-12	697.057E-3	-39.5714E-3	182.157E-12	663.412E-3	-26.7499E-3
4.57979E-3	179.583E-12	703.640E-3	-35.2582E-3	180.935E-12	667.154E-3	-36.1211E-3
4.57479E-3	179.093E-12	677.590E-3	-5.77105E-3	179.622E-12	669.586E-3	-46.2437E-3
4.56978E-3	180.096E-12	653.028E-3	22.9165E-3	179.740E-12	691.205E-3	-30.6741E-3
4.56478E-3	179.813E-12	666.717E-3	31.2271E-3	178.883E-12	699.297E-3	-17.9496E-3
4.55978E-3	179.247E-12	662.764E-3	16.2494E-3	177.785E-12	677.344E-3	-22.6865E-3
4.55478E-3	179.076E-12	656.554E-3	-6.06077E-3	178.237E-12	673.713E-3	-22.2472E-3
4.54977E-3	179.439E-12	671.332E-3	-8.86816E-3	178.154E-12	692.513E-3	-2.15689E-3
4.54477E-3	179.792E-12	652.737E-3	4.29928E-3	178.507E-12	678.066E-3	-9.72233E-3
4.53977E-3	179.119E-12	611.838E-3	-14.4870E-3	178.932E-12	650.829E-3	-24.7037E-3
4.53477E-3	179.607E-12	602.628E-3	-49.7714E-3	179.126E-12	661.496E-3	-15.5702E-3
4.52976E-3	179.475E-12	619.974E-3	-43.6747E-3	179.220E-12	688.320E-3	-29.6154E-3
4.52476E-3	178.786E-12	630.883E-3	-3.67511E-3	181.136E-12	686.700E-3	-50.4097E-3
4.51976E-3	178.906E-12	627.764E-3	7.63711E-3	181.121E-12	676.021E-3	-25.8864E-3
4.51476E-3	178.209E-12	629.243E-3	4.82697E-3	180.763E-12	671.542E-3	24.5747E-3
4.50975E-3	177.482E-12	627.424E-3	23.4245E-3	180.932E-12	654.269E-3	40.2548E-3
4.50475E-3	177.910E-12	631.270E-3	11.0617E-3	180.359E-12	640.181E-3	17.2622E-3
4.49975E-3	177.266E-12	655.329E-3	-18.2300E-3	180.010E-12	653.939E-3	-7.99000E-3
4.49475E-3	176.459E-12	660.530E-3	-20.0596E-3	179.049E-12	674.100E-3	-24.8248E-3
4.48974E-3	176.510E-12	638.703E-3	-24.5618E-3	179.159E-12	687.438E-3	-46.6791E-3
4.48474E-3	175.824E-12	632.757E-3	-26.7376E-3	177.323E-12	696.271E-3	-49.9289E-3
4.47974E-3	176.520E-12	654.248E-3	-15.0520E-3	176.766E-12	687.552E-3	-40.7772E-3
4.47474E-3	176.433E-12	687.421E-3	-6.71296E-3	175.668E-12	676.183E-3	-50.8974E-3
4.46973E-3	176.415E-12	704.137E-3	-824.856E-6	175.876E-12	676.894E-3	-49.3598E-3
4.46473E-3	177.009E-12	674.996E-3	-3.12998E-3	173.475E-12	668.668E-3	-22.4029E-3
4.45973E-3	177.140E-12	656.788E-3	-20.0677E-3	173.409E-12	662.312E-3	-3.94756E-3
4.45473E-3	177.482E-12	669.313E-3	-27.7787E-3	173.722E-12	669.281E-3	4.70033E-3
4.44972E-3	177.161E-12	684.891E-3	-17.2058E-3	173.871E-12	656.388E-3	1.63555E-3
4.44472E-3	177.435E-12	701.916E-3	-23.4174E-3	174.257E-12	645.878E-3	-8.05343E-3
4.43972E-3	177.323E-12	690.001E-3	-35.1237E-3	174.655E-12	664.685E-3	-628.670E-6
4.43472E-3	177.031E-12	675.773E-3	-33.8801E-3	175.876E-12	670.979E-3	4.27840E-3
4.42971E-3	176.541E-12	681.170E-3	-35.9154E-3	176.628E-12	671.628E-3	-4.26960E-3
4.42471E-3	176.429E-12	679.768E-3	-32.4738E-3	176.046E-12	677.741E-3	-37.5622E-3
4.41971E-3	174.547E-12	668.636E-3	-36.1606E-3	176.349E-12	669.695E-3	-70.3645E-3
4.41471E-3	174.100E-12	660.461E-3	-53.9979E-3	176.720E-12	673.556E-3	-63.6160E-3
4.40970E-3	173.468E-12	673.591E-3	-47.0793E-3	177.213E-12	679.174E-3	-38.4072E-3
4.40470E-3	172.797E-12	696.350E-3	-27.2721E-3	176.255E-12	672.094E-3	-27.2755E-3
4.39970E-3	171.534E-12	688.914E-3	-15.4141E-3	176.687E-12	678.509E-3	-33.0366E-3
4.39470E-3	171.888E-12	669.439E-3	10.2967E-3	175.294E-12	679.186E-3	-39.1536E-3
4.38969E-3	171.796E-12	666.294E-3	7.31798E-3	174.515E-12	671.328E-3	-52.8848E-3
4.38469E-3	171.748E-12	667.839E-3	-12.4925E-3	173.596E-12	684.331E-3	-52.9277E-3
4.37969E-3	172.251E-12	679.825E-3	6.77242E-3	173.232E-12	666.588E-3	-40.4547E-3
4.37469E-3	171.977E-12	671.215E-3	28.1440E-3	171.641E-12	608.249E-3	-31.3334E-3
4.36968E-3	172.747E-12	643.946E-3	1.37053E-3	170.216E-12	597.085E-3	-4.06949E-3
4.36468E-3	172.548E-12	652.717E-3	-28.1461E-3	170.591E-12	611.911E-3	17.8632E-3
4.35968E-3	172.206E-12	673.505E-3	-12.6152E-3	170.073E-12	620.045E-3	-672.992E-6
4.35468E-3	172.217E-12	664.859E-3	9.81108E-3	168.919E-12	637.970E-3	-39.1773E-3
4.34967E-3	173.246E-12	650.418E-3	6.47533E-3	169.470E-12	653.170E-3	-43.5644E-3
4.34467E-3	172.402E-12	667.135E-3	-22.5989E-3	170.318E-12	682.693E-3	-10.0321E-3
4.33967E-3	171.938E-12	692.798E-3	-49.1831E-3	170.109E-12	697.683E-3	3.66862E-3
4.33467E-3	171.366E-12	699.067E-3	-45.2191E-3	170.883E-12	654.946E-3	-19.1052E-3
4.32966E-3	171.020E-12	679.227E-3	-33.4663E-3	171.550E-12	615.005E-3	-23.2989E-3
4.32466E-3	169.946E-12	651.200E-3	-40.7194E-3	170.578E-12	617.016E-3	-8.48415E-3
4.31966E-3	169.615E-12	647.895E-3	-46.5831E-3	170.801E-12	630.784E-3	-26.8648E-3
4.31466E-3	168.316E-12	658.167E-3	-31.1943E-3	171.162E-12	641.624E-3	-46.9261E-3
4.30965E-3	167.769E-12	670.545E-3	6.48749E-3	170.200E-12	647.575E-3	-32.8836E-3
4.30465E-3	167.302E-12	652.607E-3	30.1753E-3	170.652E-12	655.400E-3	-12.5702E-3
4.29965E-3	167.616E-12	623.689E-3	28.6656E-3	170.838E-12	659.694E-3	-1.31962E-3
4.29465E-3	167.425E-12	660.775E-3	27.2456E-3	169.976E-12	646.327E-3	-13.7526E-3
4.28964E-3	167.600E-12	709.321E-3	20.2031E-3	170.235E-12	645.001E-3	-31.0986E-3
4.28464E-3	167.651E-12	706.536E-3	10.1893E-3	169.646E-12	651.187E-3	-43.7874E-3
4.27964E-3	167.745E-12	669.550E-3	-3.69569E-3	168.394E-12	651.448E-3	-53.4898E-3
4.27464E-3	168.777E-12	609.448E-3	-24.0939E-3	168.595E-12	651.760E-3	-47.1710E-3
4.26963E-3	168.813E-12	568.957E-3	-29.4816E-3	168.212E-12	657.487E-3	-34.2165E-3
4.26463E-3	168.435E-12	580.076E-3	-21.1800E-3	167.114E-12	676.769E-3	-16.6997E-3
4.25963E-3	168.386E-12	612.770E-3	-38.0820E-3	166.527E-12	681.183E-3	-9.78730E-3
4.25463E-3	168.119E-12	655.319E-3	-77.1835E-3	166.882E-12	670.317E-3	-18.5236E-3
4.24962E-3	168.088E-12	694.890E-3	-84.9542E-3	166.936E-12	668.442E-3	-10.5734E-3
4.24462E-3	167.668E-12	668.597E-3	-54.9988E-3	166.621E-12	672.713E-3	4.21668E-3
4.23962E-3	166.460E-12	627.643E-3	-29.2736E-3	166.021E-12	664.604E-3	-1.34791E-3
4.23462E-3	165.750E-12	637.954E-3	-6.62647E-3	166.001E-12	652.176E-3	-20.0654E-3
4.22961E-3	165.365E-12	658.166E-3	26.0289E-3	166.052E-12	653.519E-3	-31.8339E-3
4.22461E-3	164.550E-12	674.944E-3	36.6787E-3	165.936E-12	671.967E-3	-28.8352E-3
4.21961E-3	163.622E-12	672.569E-3	17.1400E-3	165.792E-12	685.493E-3	-23.5320E-3
4.21461E-3	163.283E-12	639.570E-3	3.96545E-3	165.710E-12	688.051E-3	-1.57813E-3
4.20960E-3	163.494E-12	625.145E-3	16.2052E-3	166.154E-12	679.196E-3	26.4201E-3
4.20460E-3	162.854E-12	639.604E-3	23.1346E-3	166.345E-12	667.779E-3	33.6692E-3
4.19960E-3	162.667E-12	659.284E-3	21.5848E-3	166.106E-12	670.474E-3	21.1936E-3
4.19460E-3	162.836E-12	677.807E-3	23.9427E-3	166.004E-12	657.528E-3	-9.05635E-3
4.18959E-3	162.797E-12	653.552E-3	26.2851E-3	165.411E-12	637.468E-3	-21.1517E-3
4.18459E-3	162.603E-12	619.171E-3	39.6506E-3	165.358E-12	638.585E-3	-18.1629E-3
4.17959E-3	162.682E-12	619.529E-3	50.2402E-3	164.868E-12	651.374E-3	-36.2424E-3
4.17459E-3	163.567E-12	630.960E-3	36.8260E-3	164.070E-12	669.627E-3	-52.9891E-3
4.16958E-3	162.928E-12	646.431E-3	-427.776E-6	162.999E-12	677.573E-3	-51.4818E-3
4.16458E-3	162.765E-12	678.751E-3	-28.5557E-3	162.770E-12	672.076E-3	-38.0426E-3
4.15958E-3	162.174E-12	695.414E-3	-36.9737E-3	162.139E-12	662.604E-3	-12.6823E-3
4.15458E-3	162.840E-12	672.407E-3	-31.0073E-3	161.525E-12	657.249E-3	8.77151E-3
4.14957E-3	162.070E-12	672.439E-3	-30.1188E-3	160.876E-12	688.098E-3	-1.46923E-3
4.14457E-3	161.983E-12	698.018E-3	-37.5470E-3	160.378E-12	711.141E-3	-13.6140E-3
4.13957E-3	161.599E-12	693.569E-3	-40.3690E-3	160.091E-12	681.400E-3	29.2129E-3
4.13457E-3	162.364E-12	659.126E-3	-32.4713E-3	159.749E-12	659.156E-3	53.8520E-3
4.12956E-3	161.596E-12	649.472E-3	-20.6922E-3	160.119E-12	669.204E-3	11.2566E-3
4.12456E-3	161.185E-12	671.811E-3	-9.78882E-3	159.737E-12	670.967E-3	4.69283E-3
4.11956E-3	161.340E-12	685.576E-3	8.43301E-3	160.042E-12	654.745E-3	34.1068E-3
4.11456E-3	161.208E-12	670.554E-3	999.233E-6	159.949E-12	649.988E-3	34.4379E-3
4.10955E-3	160.946E-12	646.803E-3	-24.3377E-3	160.094E-12	659.311E-3	2.66820E-3
4.10455E-3	161.475E-12	635.031E-3	-31.9405E-3	160.419E-12	673.701E-3	-19.4624E-3
4.09955E-3	160.573E-12	646.422E-3	-30.6331E-3	159.794E-12	691.026E-3	-17.6154E-3
4.09455E-3	160.707E-12	679.290E-3	-15.3551E-3	160.292E-12	707.692E-3	-23.1066E-3
4.08954E-3	160.183E-12	709.891E-3	-9.10405E-3	160.729E-12	698.163E-3	-24.9631E-3
4.08454E-3	160.021E-12	715.541E-3	-18.3836E-3	160.017E-12	659.833E-3	-32.2952E-3
4.07954E-3	159.194E-12	676.427E-3	-1.11494E-3	160.166E-12	653.850E-3	-41.8945E-3
4.07454E-3	159.231E-12	650.776E-3	8.23332E-3	159.985E-12	684.945E-3	-40.4549E-3
4.06953E-3	158.843E-12	676.245E-3	-6.00507E-3	159.273E-12	698.639E-3	-32.7058E-3
4.06453E-3	158.415E-12	684.153E-3	-35.5937E-3	158.789E-12	685.358E-3	-8.34095E-3
4.05953E-3	157.481E-12	657.720E-3	-62.8693E-3	157.791E-12	668.850E-3	-3.09871E-3
4.05453E-3	157.652E-12	642.954E-3	-51.7563E-3	156.709E-12	656.745E-3	-25.8379E-3
4.04952E-3	157.727E-12	656.984E-3	-36.0281E-3	156.953E-12	645.677E-3	-36.0379E-3
4.04452E-3	157.117E-12	675.273E-3	-23.6155E-3	156.785E-12	657.308E-3	-29.2752E-3
4.03952E-3	157.527E-12	680.744E-3	-9.76675E-3	155.362E-12	685.655E-3	-22.2684E-3
4.03452E-3	157.741E-12	666.827E-3	-4.47307E-3	155.844E-12	699.936E-3	-20.0103E-3
4.02951E-3	157.370E-12	652.434E-3	-18.3566E-3	156.140E-12	688.631E-3	-29.4133E-3
4.02451E-3	157.363E-12	654.387E-3	-31.9891E-3	155.697E-12	664.557E-3	-35.2085E-3
4.01951E-3	157.941E-12	662.850E-3	-24.9661E-3	156.046E-12	654.473E-3	-30.0632E-3
4.01451E-3	157.655E-12	688.743E-3	-38.3651E-3	156.375E-12	658.432E-3	-21.6909E-3
4.00950E-3	157.246E-12	694.268E-3	-66.2728E-3	156.621E-12	651.041E-3	938.651E-6
4.00450E-3	156.481E-12	654.606E-3	-63.5537E-3	157.016E-12	631.209E-3	20.5078E-3
3.99950E-3	156.448E-12	652.243E-3	-44.4010E-3	157.382E-12	643.948E-3	25.6925E-3
3.99450E-3	155.596E-12	672.320E-3	-27.2903E-3	157.318E-12	671.768E-3	23.6353E-3
3.98949E-3	154.996E-12	653.864E-3	2.21939E-3	157.634E-12	680.406E-3	7.80581E-3
3.98449E-3	153.877E-12	644.392E-3	11.9830E-3	157.063E-12	682.690E-3	-5.10142E-3
3.97949E-3	153.432E-12	660.611E-3	-13.6041E-3	157.686E-12	672.168E-3	740.296E-6
3.97449E-3	152.559E-12	669.256E-3	-18.3335E-3	157.142E-12	667.420E-3	2.01210E-3
3.96948E-3	152.383E-12	664.594E-3	-2.77900E-3	156.566E-12	675.054E-3	-20.3228E-3
3.96448E-3	152.220E-12	673.819E-3	-16.1504E-3	155.451E-12	667.351E-3	-51.2130E-3
3.95948E-3	151.516E-12	691.589E-3	-31.3541E-3	155.205E-12	672.445E-3	-53.5993E-3
3.95448E-3	152.041E-12	675.154E-3	-32.0322E-3	154.178E-12	689.359E-3	-34.4429E-3
3.94947E-3	152.503E-12	632.906E-3	-37.6734E-3	153.160E-12	694.169E-3	-24.2301E-3
3.94447E-3	152.883E-12	605.082E-3	-49.7097E-3	152.428E-12	709.003E-3	-32.8843E-3
3.93947E-3	152.880E-12	603.999E-3	-44.1227E-3	151.863E-12	708.640E-3	-39.3148E-3
3.93447E-3	153.590E-12	632.678E-3	-16.4605E-3	151.241E-12	662.153E-3	-28.8659E-3
3.92946E-3	153.511E-12	659.887E-3	10.1516E-3	151.441E-12	633.346E-3	-26.4617E-3
3.92446E-3	153.114E-12	655.603E-3	32.3717E-3	151.399E-12	667.653E-3	-22.4327E-3
3.91946E-3	153.824E-12	642.416E-3	3.96894E-3	150.694E-12	692.979E-3	-18.8662E-3
3.91446E-3	153.185E-12	643.636E-3	-42.1805E-3	150.934E-12	680.345E-3	-26.3974E-3
3.90945E-3	152.289E-12	652.740E-3	-38.9011E-3	151.356E-12	683.139E-3	-34.4590E-3
3.90445E-3	152.019E-12	653.146E-3	-30.6851E-3	152.232E-12	687.247E-3	-34.9310E-3
3.89945E-3	151.690E-12	669.091E-3	-42.7914E-3	151.808E-12	669.779E-3	-12.5684E-3
3.89445E-3	149.872E-12	695.590E-3	-38.9691E-3	151.612E-12	673.294E-3	9.77654E-3
3.88944E-3	150.009E-12	694.126E-3	-16.6878E-3	151.593E-12	680.175E-3	-800.362E-6
3.88444E-3	149.514E-12	670.904E-3	-19.5281E-3	151.842E-12	665.090E-3	-26.7948E-3
3.87944E-3	149.111E-12	658.881E-3	-27.6978E-3	151.830E-12	661.946E-3	-46.5953E-3
3.87444E-3	148.654E-12	657.958E-3	-6.88130E-3	151.489E-12	668.043E-3	-63.7452E-3
3.86943E-3	148.401E-12	643.597E-3	1.15990E-3	150.742E-12	681.060E-3	-56.9422E-3
3.86443E-3	148.688E-12	629.401E-3	-3.50119E-3	150.678E-12	684.684E-3	-23.3812E-3
3.85943E-3	149.380E-12	637.463E-3	-1.36741E-3	150.564E-12	654.921E-3	-2.12847E-3
3.85443E-3	149.608E-12	653.695E-3	-8.03450E-3	150.120E-12	651.311E-3	-7.02769E-3
3.84942E-3	149.830E-12	673.693E-3	-8.24122E-3	148.962E-12	683.941E-3	-15.4471E-3
3.84442E-3	150.131E-12	690.609E-3	-2.06072E-3	148.350E-12	687.546E-3	-14.8102E-3
3.83942E-3	150.414E-12	671.690E-3	-2.78734E-3	148.142E-12	663.744E-3	-17.8784E-3
3.83442E-3	150.948E-12	650.099E-3	-12.9137E-3	147.636E-12	655.937E-3	-22.5868E-3
3.82941E-3	150.441E-12	653.547E-3	-28.4773E-3	147.470E-12	661.944E-3	-14.4500E-3
3.82441E-3	150.053E-12	650.191E-3	-34.9458E-3	146.835E-12	669.504E-3	1.67033E-3
3.81941E-3	149.518E-12	650.141E-3	-35.4112E-3	147.212E-12	680.287E-3	6.90344E-3
3.81441E-3	149.489E-12	653.498E-3	-27.3748E-3	146.814E-12	668.939E-3	4.09517E-3
3.80940E-3	148.473E-12	641.798E-3	-20.6573E-3	146.789E-12	644.989E-3	-11.3917E-3
3.80440E-3	147.631E-12	651.602E-3	-24.3154E-3	146.332E-12	649.613E-3	-47.4335E-3
3.79940E-3	146.595E-12	687.320E-3	-31.7906E-3	146.864E-12	672.946E-3	-55.5572E-3
3.79440E-3	145.996E-12	700.691E-3	-28.6932E-3	146.975E-12	669.012E-3	-35.1203E-3
3.78939E-3	145.133E-12	679.022E-3	-17.7388E-3	146.825E-12	634.543E-3	-31.9760E-3
3.78439E-3	144.424E-12	649.288E-3	-20.2337E-3	146.446E-12	623.497E-3	-43.5632E-3
3.77939E-3	143.850E-12	643.446E-3	-36.4807E-3	147.260E-12	649.528E-3	-31.5142E-3
3.77439E-3	143.611E-12	658.758E-3	-29.0356E-3	146.927E-12	681.961E-3	-14.1855E-3
3.76938E-3	143.680E-12	686.680E-3	-600.455E-6	146.798E-12	691.679E-3	-34.0814E-3
3.76438E-3	143.349E-12	713.513E-3	4.27952E-3	146.421E-12	672.444E-3	-53.6127E-3
3.75938E-3	143.258E-12	700.472E-3	-9.15889E-3	146.127E-12	653.736E-3	-40.3738E-3
3.75438E-3	144.452E-12	667.432E-3	-10.9756E-3	145.612E-12	638.567E-3	-25.1582E-3
3.74937E-3	144.444E-12	665.082E-3	-4.64713E-3	145.244E-12	626.021E-3	-23.4947E-3
3.74437E-3	144.284E-12	675.268E-3	-22.8897E-3	144.442E-12	638.358E-3	-42.5849E-3
3.73937E-3	144.543E-12	675.170E-3	-45.4266E-3	143.550E-12	662.872E-3	-71.3026E-3
3.73437E-3	144.446E-12	672.597E-3	-33.2111E-3	143.026E-12	648.082E-3	-65.1309E-3
3.72936E-3	144.097E-12	673.034E-3	-12.4143E-3	142.784E-12	619.284E-3	-36.8774E-3
3.72436E-3	143.411E-12	670.497E-3	-4.39753E-3	142.715E-12	627.131E-3	-12.5260E-3
3.71936E-3	144.150E-12	657.234E-3	3.30105E-3	142.194E-12	645.236E-3	-6.79707E-3
3.71436E-3	143.694E-12	653.749E-3	-4.96326E-3	141.744E-12	659.403E-3	-16.1587E-3
3.70935E-3	143.538E-12	661.099E-3	-21.7767E-3	141.905E-12	668.945E-3	-11.6213E-3
3.70435E-3	142.750E-12	643.559E-3	-26.5124E-3	141.413E-12	668.952E-3	-3.56274E-3
3.69935E-3	142.858E-12	621.219E-3	-24.7614E-3	141.483E-12	655.373E-3	-10.6948E-3
3.69435E-3	142.430E-12	632.589E-3	-19.1565E-3	141.205E-12	652.089E-3	-31.1377E-3
3.68934E-3	142.305E-12	652.938E-3	-8.56658E-3	140.928E-12	677.159E-3	-25.7096E-3
3.68434E-3	142.435E-12	658.538E-3	-10.4650E-3	141.350E-12	698.651E-3	17.2155E-3
3.67934E-3	141.454E-12	672.291E-3	-32.7403E-3	142.102E-12	701.976E-3	37.0401E-3
3.67434E-3	141.808E-12	690.609E-3	-33.9437E-3	141.620E-12	697.977E-3	5.20692E-3
3.66933E-3	141.857E-12	671.701E-3	-15.4667E-3	142.065E-12	686.150E-3	-44.1240E-3
3.66433E-3	141.172E-12	653.796E-3	-23.0343E-3	141.944E-12	682.021E-3	-46.2360E-3
3.65933E-3	140.928E-12	673.141E-3	-36.2868E-3	141.667E-12	689.880E-3	-17.3284E-3
3.65433E-3	140.957E-12	669.086E-3	-21.0364E-3	140.994E-12	679.963E-3	-10.1469E-3
3.64932E-3	140.101E-12	661.469E-3	-1.54000E-3	140.960E-12	657.467E-3	-13.9470E-3
3.64432E-3	139.453E-12	690.847E-3	-1.08868E-3	139.951E-12	661.142E-3	-15.5484E-3
3.63932E-3	139.863E-12	695.940E-3	-1.44016E-3	139.205E-12	674.549E-3	720.529E-6
3.63432E-3	139.181E-12	663.986E-3	-2.29598E-3	139.480E-12	666.771E-3	20.6631E-3
3.62931E-3	138.347E-12	656.980E-3	-13.4253E-3	138.696E-12	655.938E-3	2.85538E-3
3.62431E-3	138.302E-12	682.306E-3	-23.9567E-3	137.859E-12	661.266E-3	-20.0030E-3
3.61931E-3	138.171E-12	697.266E-3	-42.3018E-3	137.771E-12	675.900E-3	-4.91428E-3
3.61431E-3	137.573E-12	692.746E-3	-59.0486E-3	137.912E-12	677.071E-3	7.17214E-3
3.60930E-3	138.136E-12	679.023E-3	-52.3884E-3	137.280E-12	662.429E-3	-336.276E-6
3.60430E-3	138.134E-12	676.071E-3	-42.7384E-3	137.665E-12	657.327E-3	-6.66112E-3
3.59930E-3	137.599E-12	673.007E-3	-33.5934E-3	137.332E-12	665.029E-3	-22.2469E-3
3.59430E-3	137.820E-12	667.769E-3	-12.6876E-3	137.103E-12	673.431E-3	-41.6291E-3
3.58929E-3	137.663E-12	688.111E-3	-2.44672E-3	138.016E-12	684.319E-3	-36.8230E-3
3.58429E-3	137.456E-12	709.633E-3	-14.9016E-3	138.011E-12	700.611E-3	-17.2142E-3
3.57929E-3	137.124E-12	708.691E-3	-22.6107E-3	138.069E-12	707.241E-3	-8.99345E-3
3.57429E-3	137.367E-12	680.499E-3	-30.6377E-3	138.015E-12	698.711E-3	-16.2652E-3
3.56928E-3	136.750E-12	654.562E-3	-32.2938E-3	139.062E-12	703.338E-3	-26.1232E-3
3.56428E-3	135.644E-12	660.644E-3	-15.9170E-3	137.957E-12	714.639E-3	-21.7035E-3
3.55928E-3	135.472E-12	676.211E-3	-7.97637E-3	137.634E-12	702.519E-3	-17.1174E-3
3.55428E-3	134.539E-12	694.339E-3	-4.48922E-3	137.244E-12	690.841E-3	-30.4214E-3
3.54927E-3	134.665E-12	688.581E-3	8.40387E-3	137.254E-12	692.105E-3	-35.5357E-3
3.54427E-3	133.491E-12	667.974E-3	9.02610E-3	136.706E-12	684.157E-3	-18.0173E-3
3.53927E-3	134.297E-12	674.554E-3	-16.1061E-3	135.959E-12	678.016E-3	-9.12931E-3
3.53427E-3	133.266E-12	668.694E-3	-32.5814E-3	135.291E-12	680.305E-3	-25.4469E-3
3.52926E-3	133.129E-12	664.845E-3	-26.5901E-3	134.722E-12	686.477E-3	-45.4168E-3
3.52426E-3	133.476E-12	679.032E-3	-24.0188E-3	134.105E-12	699.013E-3	-34.5973E-3
3.51926E-3	133.588E-12	675.727E-3	-33.1089E-3	134.036E-12	695.994E-3	-4.04994E-3
3.51426E-3	133.521E-12	662.176E-3	-43.2407E-3	133.566E-12	685.175E-3	-3.04111E-3
3.50925E-3	134.324E-12	651.765E-3	-42.3035E-3	132.308E-12	676.405E-3	-11.9206E-3
3.50425E-3	134.812E-12	648.138E-3	-40.2096E-3	132.729E-12	665.233E-3	-12.2193E-3
3.49925E-3	134.981E-12	659.868E-3	-40.3691E-3	132.486E-12	673.366E-3	-29.2341E-3
3.49425E-3	134.927E-12	677.141E-3	-24.9196E-3	131.975E-12	688.326E-3	-54.0150E-3
3.48924E-3	134.926E-12	674.079E-3	-6.04538E-3	131.466E-12	662.713E-3	-52.4862E-3
3.48424E-3	134.641E-12	667.835E-3	-9.90475E-3	132.219E-12	626.376E-3	-16.7283E-3
3.47924E-3	133.753E-12	672.641E-3	-24.6799E-3	131.894E-12	647.145E-3	10.6551E-3
3.47424E-3	133.085E-12	678.575E-3	-31.1581E-3	131.893E-12	684.579E-3	-2.70866E-3
3.46923E-3	132.750E-12	680.006E-3	-30.2895E-3	131.823E-12	688.081E-3	-34.0577E-3
3.46423E-3	131.129E-12	679.228E-3	-26.2676E-3	131.729E-12	701.029E-3	-37.0259E-3
3.45923E-3	130.645E-12	664.455E-3	-14.6855E-3	132.252E-12	711.857E-3	-19.9274E-3
3.45423E-3	130.524E-12	644.120E-3	4.09316E-3	131.793E-12	691.189E-3	-12.3822E-3
3.44922E-3	129.810E-12	660.036E-3	-7.61252E-3	131.831E-12	681.675E-3	-7.51650E-3
3.44422E-3	128.659E-12	674.457E-3	-27.1617E-3	131.256E-12	680.051E-3	671.361E-6
3.43922E-3	128.953E-12	650.905E-3	-20.5825E-3	131.123E-12	664.146E-3	14.7088E-3
3.43422E-3	129.000E-12	637.662E-3	-23.4909E-3	131.131E-12	651.495E-3	17.4477E-3
3.42921E-3	129.101E-12	642.875E-3	-30.0826E-3	131.011E-12	639.394E-3	-9.68651E-3
3.42421E-3	129.609E-12	639.688E-3	-19.9885E-3	130.224E-12	629.903E-3	-27.2833E-3
3.41921E-3	130.288E-12	640.581E-3	-25.4288E-3	129.879E-12	645.332E-3	-9.17065E-3
3.41421E-3	130.451E-12	653.484E-3	-33.9943E-3	129.621E-12	662.711E-3	-1.03123E-3
3.40920E-3	131.010E-12	666.750E-3	-23.2188E-3	128.850E-12	664.448E-3	-21.5978E-3
3.40420E-3	131.408E-12	660.102E-3	-15.7804E-3	129.100E-12	656.470E-3	-30.4306E-3
3.39920E-3	130.742E-12	663.018E-3	-5.27480E-3	127.825E-12	658.816E-3	-22.6924E-3
3.39420E-3	130.903E-12	686.298E-3	-7.61667E-3	127.727E-12	673.574E-3	-8.22532E-3
3.38919E-3	131.083E-12	702.181E-3	-32.1078E-3	127.921E-12	674.420E-3	16.0120E-3
3.38419E-3	129.552E-12	712.488E-3	-36.3715E-3	128.673E-12	675.330E-3	3.65533E-3
3.37919E-3	128.636E-12	706.304E-3	-21.7427E-3	128.669E-12	670.963E-3	-41.9334E-3
3.37419E-3	128.252E-12	690.633E-3	-18.0628E-3	128.978E-12	656.068E-3	-55.4671E-3
3.36918E-3	126.643E-12	679.926E-3	-4.70599E-3	128.660E-12	652.283E-3	-46.2790E-3
3.36418E-3	125.983E-12	684.612E-3	-5.69888E-3	128.975E-12	649.799E-3	-32.7153E-3
3.35918E-3	125.445E-12	676.510E-3	-25.2721E-3	129.107E-12	660.973E-3	-6.56002E-3
3.35418E-3	125.036E-12	662.225E-3	-27.8852E-3	128.902E-12	697.862E-3	-19.7920E-3
3.34917E-3	124.589E-12	670.800E-3	-31.2898E-3	128.522E-12	728.867E-3	-52.9768E-3
3.34417E-3	125.157E-12	667.913E-3	-27.3668E-3	128.127E-12	736.797E-3	-33.2102E-3
3.33917E-3	124.139E-12	663.563E-3	-12.1626E-3	127.903E-12	724.398E-3	-1.01386E-3
3.33417E-3	124.048E-12	668.405E-3	-9.46417E-3	126.969E-12	693.191E-3	2.17826E-3
3.32916E-3	124.488E-12	654.198E-3	-10.9692E-3	126.615E-12	657.122E-3	-10.1369E-3
3.32416E-3	125.123E-12	648.386E-3	1.39263E-3	125.629E-12	645.571E-3	-23.7086E-3
3.31916E-3	125.425E-12	665.071E-3	4.60710E-3	125.900E-12	651.099E-3	-33.1252E-3
3.31416E-3	125.562E-12	675.897E-3	-11.9553E-3	124.998E-12	652.973E-3	-41.4686E-3
3.30915E-3	125.897E-12	691.250E-3	-15.6791E-3	123.824E-12	655.232E-3	-41.9174E-3
3.30415E-3	125.082E-12	710.489E-3	1.66127E-3	123.233E-12	639.445E-3	-31.2722E-3
3.29915E-3	124.989E-12	727.797E-3	5.90852E-3	123.047E-12	621.450E-3	-18.4255E-3
3.29415E-3	124.201E-12	726.084E-3	-19.8469E-3	122.744E-12	639.830E-3	-8.15636E-3
3.28914E-3	124.436E-12	697.971E-3	-51.2718E-3	122.775E-12	657.830E-3	-16.3992E-3
3.28414E-3	123.465E-12	683.249E-3	-59.9417E-3	122.712E-12	658.823E-3	-23.1033E-3
3.27914E-3	122.818E-12	682.002E-3	-50.4662E-3	122.652E-12	676.439E-3	-2.37501E-3
3.27414E-3	122.295E-12	687.796E-3	-40.5780E-3	122.108E-12	686.863E-3	6.28164E-3
3.26913E-3	122.201E-12	693.341E-3	-43.7412E-3	123.066E-12	680.555E-3	-8.14257E-3
3.26413E-3	121.806E-12	694.559E-3	-48.1576E-3	122.873E-12	694.033E-3	-16.8043E-3
3.25913E-3	121.394E-12	690.780E-3	-33.1088E-3	122.311E-12	706.748E-3	-17.3966E-3
3.25413E-3	121.742E-12	664.234E-3	-20.3496E-3	122.556E-12	693.342E-3	-18.9076E-3
3.24912E-3	121.838E-12	651.002E-3	-17.5344E-3	123.253E-12	686.590E-3	-29.5834E-3
3.24412E-3	121.939E-12	668.035E-3	-127.973E-6	122.606E-12	688.007E-3	-38.1024E-3
3.23912E-3	121.587E-12	686.240E-3	14.4758E-3	122.286E-12	663.938E-3	-23.5520E-3
3.23412E-3	121.778E-12	689.490E-3	2.41637E-3	122.107E-12	641.335E-3	6.87442E-3
3.22911E-3	121.293E-12	670.308E-3	-15.0787E-3	121.919E-12	660.453E-3	14.6431E-3
3.22411E-3	121.652E-12	646.467E-3	-10.2570E-3	120.971E-12	679.167E-3	-17.6133E-3
3.21911E-3	121.475E-12	643.236E-3	1.60856E-3	120.614E-12	665.302E-3	-29.5989E-3
3.21411E-3	120.645E-12	668.976E-3	-5.38586E-3	119.625E-12	640.024E-3	-6.61495E-3
3.20910E-3	120.873E-12	687.229E-3	-10.4259E-3	119.481E-12	633.908E-3	8.44440E-3
3.20410E-3	119.897E-12	684.397E-3	-13.7456E-3	119.102E-12	659.068E-3	9.59561E-3
3.19910E-3	119.503E-12	693.319E-3	-16.5921E-3	119.069E-12	684.588E-3	3.03649E-3
3.19410E-3	119.393E-12	702.496E-3	-8.65396E-3	118.500E-12	699.286E-3	-5.45005E-3
3.18909E-3	119.121E-12	690.992E-3	-25.8838E-3	118.624E-12	712.713E-3	-3.54409E-3
3.18409E-3	118.251E-12	681.218E-3	-53.1139E-3	118.763E-12	716.537E-3	4.55085E-3
3.17909E-3	118.750E-12	678.014E-3	-62.6968E-3	118.709E-12	707.901E-3	-1.20181E-3
3.17409E-3	118.097E-12	661.723E-3	-59.8209E-3	118.820E-12	702.847E-3	-7.14419E-3
3.16908E-3	117.864E-12	672.587E-3	-36.0596E-3	118.328E-12	699.656E-3	-16.4496E-3
3.16408E-3	118.148E-12	713.296E-3	-22.4319E-3	118.328E-12	685.123E-3	-35.6195E-3
3.15908E-3	118.346E-12	723.527E-3	-36.5537E-3	118.745E-12	678.429E-3	-39.2247E-3
3.15408E-3	117.548E-12	686.750E-3	-46.0244E-3	119.280E-12	683.866E-3	-39.6791E-3
3.14907E-3	117.406E-12	652.594E-3	-40.4268E-3	118.520E-12	691.040E-3	-54.6283E-3
3.14407E-3	117.984E-12	665.846E-3	-31.1032E-3	118.340E-12	684.853E-3	-54.2523E-3
3.13907E-3	117.007E-12	674.120E-3	-30.2621E-3	118.665E-12	661.144E-3	-21.8279E-3
3.13407E-3	116.359E-12	660.306E-3	-32.0870E-3	118.046E-12	645.109E-3	-14.1054E-3
3.12906E-3	116.000E-12	646.944E-3	-13.1676E-3	117.846E-12	653.091E-3	-32.3722E-3
3.12406E-3	115.745E-12	646.215E-3	4.51116E-3	117.077E-12	679.914E-3	-22.5723E-3
3.11906E-3	114.480E-12	657.872E-3	2.60137E-3	116.548E-12	703.856E-3	-7.68711E-3
3.11406E-3	114.314E-12	663.531E-3	-3.91626E-3	116.076E-12	715.948E-3	-14.8665E-3
3.10905E-3	114.546E-12	673.039E-3	-17.0656E-3	115.583E-12	717.675E-3	-27.8905E-3
3.10405E-3	114.018E-12	685.939E-3	-22.6299E-3	115.227E-12	715.018E-3	-34.5960E-3
3.09905E-3	113.740E-12	683.736E-3	-19.3914E-3	114.390E-12	710.434E-3	-27.2634E-3
3.09405E-3	113.999E-12	665.773E-3	-19.8709E-3	113.949E-12	688.027E-3	-15.8515E-3
3.08904E-3	114.201E-12	664.889E-3	-13.7411E-3	113.847E-12	661.709E-3	-20.8517E-3
3.08404E-3	114.384E-12	675.882E-3	1.96011E-3	113.478E-12	650.237E-3	-31.4089E-3
3.07904E-3	114.795E-12	667.791E-3	14.3094E-3	112.854E-12	643.089E-3	-21.3141E-3
3.07404E-3	114.980E-12	664.987E-3	2.19533E-3	112.607E-12	659.011E-3	-9.96175E-3
3.06903E-3	115.340E-12	673.038E-3	-10.4971E-3	112.526E-12	683.937E-3	-19.4855E-3
3.06403E-3	115.296E-12	673.926E-3	-6.52121E-3	112.598E-12	685.594E-3	-19.5601E-3
3.05903E-3	115.057E-12	681.973E-3	-1.90324E-3	112.680E-12	684.970E-3	-11.4165E-3
3.05403E-3	114.304E-12	693.271E-3	4.58673E-3	112.649E-12	679.768E-3	-23.9194E-3
3.04902E-3	113.455E-12	699.711E-3	2.97024E-3	112.806E-12	672.252E-3	-42.6583E-3
3.04402E-3	112.686E-12	702.390E-3	-8.89643E-3	113.024E-12	681.706E-3	-42.4133E-3
3.03902E-3	112.280E-12	692.463E-3	-16.4741E-3	112.874E-12	684.717E-3	-33.6514E-3
3.03402E-3	111.570E-12	667.150E-3	-23.1828E-3	112.386E-12	671.309E-3	-28.8622E-3
3.02901E-3	110.739E-12	658.498E-3	-36.6454E-3	112.543E-12	658.099E-3	-28.1831E-3
3.02401E-3	110.496E-12	655.455E-3	-44.0422E-3	112.547E-12	649.965E-3	-39.0394E-3
3.01901E-3	109.807E-12	641.964E-3	-43.0927E-3	112.085E-12	649.761E-3	-42.3982E-3
3.01401E-3	109.435E-12	660.947E-3	-46.1266E-3	111.810E-12	652.534E-3	-35.6488E-3
3.00900E-3	109.347E-12	679.051E-3	-40.6742E-3	111.445E-12	656.722E-3	-16.2072E-3
3.00400E-3	110.015E-12	675.481E-3	-24.7053E-3	111.221E-12	664.726E-3	13.6573E-3
2.99900E-3	110.051E-12	678.332E-3	-19.6452E-3	110.868E-12	678.742E-3	16.1830E-3
2.99400E-3	110.718E-12	689.069E-3	-17.0392E-3	110.866E-12	701.230E-3	1.61918E-3
2.98899E-3	111.474E-12	695.956E-3	-2.48305E-3	110.473E-12	711.067E-3	-3.92657E-3
2.98399E-3	111.263E-12	680.659E-3	3.76103E-3	110.062E-12	707.937E-3	-5.64574E-3
2.97899E-3	111.294E-12	657.767E-3	3.06922E-3	110.018E-12	706.265E-3	-7.36836E-3
2.97399E-3	111.684E-12	658.502E-3	-3.51263E-3	109.755E-12	697.366E-3	-8.33482E-3
2.96898E-3	111.857E-12	688.892E-3	-28.8328E-3	109.373E-12	698.800E-3	-13.2566E-3
2.96398E-3	110.781E-12	722.487E-3	-42.1518E-3	109.116E-12	708.439E-3	-15.0905E-3
2.95898E-3	110.522E-12	726.729E-3	-25.1975E-3	109.366E-12	710.375E-3	-18.9763E-3
2.95398E-3	109.664E-12	717.543E-3	-14.7149E-3	109.167E-12	699.619E-3	-37.0611E-3
2.94897E-3	108.733E-12	716.714E-3	-22.9711E-3	109.749E-12	671.261E-3	-38.7843E-3
2.94397E-3	107.670E-12	712.995E-3	-21.2037E-3	109.637E-12	668.053E-3	-24.5127E-3
2.93897E-3	106.913E-12	699.928E-3	-15.8277E-3	109.227E-12	698.574E-3	-23.8804E-3
2.93397E-3	106.085E-12	680.216E-3	-19.7937E-3	108.767E-12	703.959E-3	-29.2852E-3
2.92896E-3	105.651E-12	669.336E-3	-7.03087E-3	109.219E-12	682.905E-3	-41.5001E-3
2.92396E-3	105.230E-12	670.560E-3	12.4836E-3	108.261E-12	675.993E-3	-45.5525E-3
2.91896E-3	105.080E-12	674.529E-3	9.70278E-3	107.733E-12	691.195E-3	-31.8147E-3
2.91396E-3	105.005E-12	679.274E-3	-449.175E-6	107.403E-12	711.728E-3	-19.9095E-3
2.90895E-3	105.369E-12	676.177E-3	-20.6905E-3	107.453E-12	721.515E-3	-264.928E-6
2.90395E-3	105.898E-12	674.902E-3	-47.9281E-3	105.938E-12	710.832E-3	7.25010E-3
2.89895E-3	105.786E-12	699.841E-3	-59.3610E-3	106.300E-12	685.145E-3	-9.85317E-3
2.89395E-3	105.952E-12	718.822E-3	-63.9824E-3	105.110E-12	672.720E-3	-5.01473E-3
2.88894E-3	106.645E-12	707.493E-3	-57.0205E-3	104.902E-12	677.702E-3	8.61500E-3
2.88394E-3	107.026E-12	689.882E-3	-32.2408E-3	104.681E-12	688.396E-3	-866.019E-6
2.87894E-3	106.167E-12	680.689E-3	-20.4119E-3	104.360E-12	698.226E-3	-20.5344E-3
2.87394E-3	106.058E-12	684.380E-3	-35.4850E-3	103.257E-12	704.821E-3	-37.4458E-3
2.86893E-3	106.024E-12	694.674E-3	-39.5988E-3	103.514E-12	703.962E-3	-53.4180E-3
2.86393E-3	104.828E-12	701.346E-3	-16.5885E-3	103.845E-12	691.233E-3	-59.0242E-3
2.85893E-3	104.431E-12	703.092E-3	8.77602E-3	103.776E-12	679.864E-3	-38.1958E-3
2.85393E-3	104.205E-12	694.935E-3	5.54377E-3	102.906E-12	672.032E-3	-30.5751E-3
2.84892E-3	103.456E-12	686.475E-3	-32.0500E-3	103.064E-12	676.207E-3	-44.7629E-3
2.84392E-3	102.560E-12	691.829E-3	-54.2468E-3	103.484E-12	703.617E-3	-33.6411E-3
2.83892E-3	103.143E-12	688.646E-3	-40.0058E-3	103.366E-12	713.852E-3	-23.0506E-3
2.83392E-3	102.679E-12	681.676E-3	-13.7986E-3	103.221E-12	703.516E-3	-29.6994E-3
2.82891E-3	102.323E-12	696.559E-3	7.79537E-3	103.311E-12	711.645E-3	-7.12714E-3
2.82391E-3	102.837E-12	713.115E-3	3.63293E-3	102.853E-12	723.540E-3	21.0275E-3
2.81891E-3	102.914E-12	712.317E-3	-18.4189E-3	103.072E-12	721.246E-3	4.14639E-3
2.81391E-3	102.867E-12	712.325E-3	-33.3064E-3	102.873E-12	701.931E-3	-20.1605E-3
2.80890E-3	102.691E-12	716.500E-3	-27.5580E-3	102.380E-12	691.963E-3	-15.2350E-3
2.80390E-3	102.574E-12	699.630E-3	-7.52564E-3	101.734E-12	704.361E-3	-13.5888E-3
2.79890E-3	102.575E-12	674.437E-3	3.10324E-3	101.462E-12	713.018E-3	-5.26383E-3
2.79390E-3	102.418E-12	672.882E-3	12.2555E-3	101.581E-12	714.545E-3	14.8566E-3
2.78889E-3	101.964E-12	691.298E-3	15.7224E-3	100.535E-12	712.177E-3	11.6798E-3
2.78389E-3	101.697E-12	708.528E-3	3.29135E-3	99.9909E-12	703.985E-3	-5.88820E-3
2.77889E-3	100.844E-12	712.169E-3	-1.85838E-3	99.5263E-12	689.472E-3	-32.0902E-3
2.77389E-3	100.139E-12	706.810E-3	3.50423E-3	99.6820E-12	686.760E-3	-39.0615E-3
2.76888E-3	99.8590E-12	700.784E-3	-4.22859E-3	99.1416E-12	705.013E-3	-15.5158E-3
2.76388E-3	99.0787E-12	702.266E-3	-25.5552E-3	99.1410E-12	723.299E-3	-6.76881E-3
2.75888E-3	98.6329E-12	702.455E-3	-37.0128E-3	98.9465E-12	722.453E-3	-15.1510E-3
2.75388E-3	98.3258E-12	697.882E-3	-37.0975E-3	99.0638E-12	711.937E-3	-17.7280E-3
2.74887E-3	97.8988E-12	702.129E-3	-19.7284E-3	99.2136E-12	716.022E-3	-7.09604E-3
2.74387E-3	97.5123E-12	703.376E-3	2.57397E-3	99.1952E-12	719.466E-3	-4.17644E-3
2.73887E-3	98.0399E-12	694.331E-3	-1.77433E-3	99.0723E-12	699.676E-3	-13.4171E-3
2.73387E-3	97.8487E-12	686.993E-3	-8.76351E-3	99.0204E-12	680.790E-3	-8.82989E-3
2.72886E-3	97.2143E-12	678.896E-3	3.87634E-3	99.0103E-12	679.957E-3	-7.81491E-3
2.72386E-3	97.2834E-12	676.828E-3	16.1903E-3	98.6716E-12	685.374E-3	-25.6500E-3
2.71886E-3	97.3656E-12	688.997E-3	2.26402E-3	98.3949E-12	693.511E-3	-39.4500E-3
2.71386E-3	96.6827E-12	700.782E-3	-18.8984E-3	97.9188E-12	701.772E-3	-30.9984E-3
2.70885E-3	96.1146E-12	699.094E-3	-18.1539E-3	97.1455E-12	706.838E-3	-13.2412E-3
2.70385E-3	95.9352E-12	691.738E-3	-18.0896E-3	96.9533E-12	714.059E-3	-1.35045E-3
2.69885E-3	95.5076E-12	703.153E-3	-22.7628E-3	96.4578E-12	719.229E-3	4.07019E-3
2.69385E-3	94.9061E-12	709.487E-3	-15.6556E-3	95.9068E-12	708.408E-3	628.392E-6
2.68884E-3	94.7514E-12	684.838E-3	-8.27425E-3	95.0790E-12	687.940E-3	8.85728E-3
2.68384E-3	94.3928E-12	671.987E-3	-9.12690E-3	95.3913E-12	668.412E-3	20.8634E-3
2.67884E-3	94.4892E-12	684.099E-3	-10.6011E-3	94.9571E-12	665.323E-3	10.4814E-3
2.67384E-3	94.2976E-12	682.829E-3	-11.2887E-3	94.5787E-12	690.112E-3	-2.46863E-3
2.66883E-3	94.7869E-12	673.404E-3	-16.1730E-3	94.0030E-12	713.903E-3	-8.60538E-3
2.66383E-3	94.2542E-12	675.514E-3	-19.9011E-3	94.0358E-12	711.233E-3	-11.4602E-3
2.65883E-3	94.4870E-12	688.898E-3	-11.4034E-3	93.8286E-12	701.069E-3	-16.4150E-3
2.65383E-3	94.8535E-12	709.956E-3	5.64462E-3	93.9202E-12	706.462E-3	-19.1134E-3
2.64882E-3	94.8250E-12	716.400E-3	16.2453E-3	93.6691E-12	710.628E-3	-11.9305E-3
2.64382E-3	95.0638E-12	703.040E-3	10.9125E-3	93.8331E-12	700.582E-3	-15.7900E-3
2.63882E-3	95.0454E-12	702.401E-3	-6.56247E-3	93.8688E-12	704.656E-3	-31.8916E-3
2.63382E-3	95.0267E-12	711.292E-3	-20.3246E-3	93.8211E-12	720.360E-3	-36.8152E-3
2.62881E-3	94.9688E-12	710.539E-3	-21.7678E-3	93.9455E-12	713.165E-3	-26.8393E-3
2.62381E-3	94.4277E-12	715.571E-3	-19.2503E-3	93.7952E-12	698.613E-3	-16.5576E-3
2.61881E-3	93.7548E-12	725.027E-3	-17.4915E-3	93.3578E-12	699.496E-3	-13.3688E-3
2.61381E-3	93.0391E-12	723.404E-3	-13.0133E-3	92.7898E-12	701.948E-3	-13.3609E-3
2.60880E-3	91.9939E-12	715.302E-3	-20.1450E-3	92.7844E-12	695.193E-3	-13.8002E-3
2.60380E-3	91.4245E-12	720.279E-3	-21.1372E-3	92.3340E-12	685.871E-3	-9.28261E-3
2.59880E-3	90.8117E-12	716.102E-3	-447.815E-6	92.0895E-12	702.135E-3	-10.5820E-3
2.59380E-3	90.9827E-12	694.687E-3	17.6258E-3	91.7267E-12	723.050E-3	-13.3948E-3
2.58879E-3	90.3319E-12	689.973E-3	14.7358E-3	91.9532E-12	711.945E-3	-10.6499E-3
2.58379E-3	90.5377E-12	699.990E-3	-12.0216E-3	91.8355E-12	694.107E-3	-20.4455E-3
2.57879E-3	90.2834E-12	711.548E-3	-29.8615E-3	91.3667E-12	696.455E-3	-43.0164E-3
2.57379E-3	90.5132E-12	724.525E-3	-15.8222E-3	91.4300E-12	722.846E-3	-39.7105E-3
2.56878E-3	90.8412E-12	723.021E-3	-1.11864E-3	90.8999E-12	748.680E-3	-10.1192E-3
2.56378E-3	90.6250E-12	704.596E-3	-6.68452E-3	91.0540E-12	746.365E-3	12.8531E-3
2.55878E-3	90.8881E-12	702.390E-3	-15.3147E-3	90.4873E-12	730.650E-3	6.61937E-3
2.55378E-3	90.9561E-12	701.764E-3	-19.4254E-3	90.5402E-12	728.504E-3	-20.8279E-3
2.54877E-3	91.0138E-12	693.276E-3	-26.5574E-3	90.1999E-12	735.395E-3	-25.2718E-3
2.54377E-3	90.7735E-12	702.248E-3	-30.8224E-3	89.9639E-12	737.194E-3	-19.1301E-3
2.53877E-3	90.4117E-12	718.277E-3	-26.9252E-3	89.8994E-12	725.744E-3	-24.6346E-3
2.53377E-3	90.2226E-12	731.403E-3	-21.8313E-3	89.6018E-12	720.168E-3	-22.0387E-3
2.52876E-3	89.1693E-12	730.612E-3	-10.9233E-3	89.7280E-12	737.385E-3	-21.8216E-3
2.52376E-3	88.9956E-12	721.108E-3	-4.35559E-3	88.9783E-12	744.477E-3	-33.7146E-3
2.51876E-3	88.0476E-12	717.944E-3	-12.9973E-3	88.8230E-12	735.947E-3	-34.5946E-3
2.51376E-3	86.9488E-12	717.072E-3	-22.1530E-3	88.6556E-12	718.972E-3	-24.6165E-3
2.50875E-3	86.2028E-12	711.811E-3	-25.4270E-3	88.0912E-12	694.932E-3	-15.7532E-3
2.50375E-3	85.7704E-12	706.846E-3	-23.0296E-3	87.6306E-12	697.421E-3	-10.5850E-3
2.49875E-3	85.7853E-12	712.087E-3	-13.5234E-3	87.6882E-12	725.214E-3	-24.0938E-3
2.49375E-3	85.2932E-12	714.031E-3	-5.82619E-3	87.3961E-12	738.643E-3	-49.6100E-3
2.48874E-3	85.6735E-12	699.855E-3	-14.3736E-3	86.7227E-12	730.226E-3	-44.3534E-3
2.48374E-3	85.6797E-12	686.049E-3	-23.4238E-3	86.8228E-12	715.310E-3	-26.7689E-3
2.47874E-3	85.9276E-12	697.108E-3	-18.4416E-3	86.3458E-12	711.334E-3	-35.7019E-3
2.47374E-3	86.1508E-12	721.855E-3	-19.9998E-3	85.5696E-12	724.411E-3	-41.9148E-3
2.46873E-3	86.4620E-12	739.029E-3	-36.9267E-3	85.2487E-12	728.873E-3	-25.5897E-3
2.46373E-3	86.0210E-12	751.046E-3	-42.7567E-3	84.8153E-12	711.832E-3	6.08936E-3
2.45873E-3	86.4793E-12	749.322E-3	-33.4877E-3	84.0827E-12	698.623E-3	19.8081E-3
2.45373E-3	86.3822E-12	733.767E-3	-26.8848E-3	83.8022E-12	709.543E-3	-7.59396E-3
2.44872E-3	85.5976E-12	721.697E-3	-20.7570E-3	83.7292E-12	726.920E-3	-35.7616E-3
2.44372E-3	85.1801E-12	715.599E-3	-27.2949E-3	83.4071E-12	731.767E-3	-24.0295E-3
2.43872E-3	84.8420E-12	721.894E-3	-29.6391E-3	82.6149E-12	723.300E-3	5.93552E-3
2.43372E-3	84.0164E-12	734.345E-3	-9.12861E-3	82.8247E-12	711.103E-3	11.2370E-3
2.42871E-3	83.7953E-12	732.982E-3	-220.197E-6	83.1919E-12	708.418E-3	-7.02703E-3
2.42371E-3	83.4143E-12	723.940E-3	-13.9814E-3	83.1105E-12	724.343E-3	-24.8806E-3
2.41871E-3	82.5094E-12	730.981E-3	-23.5285E-3	82.9524E-12	733.411E-3	-29.8288E-3
2.41371E-3	82.3457E-12	751.121E-3	-25.6480E-3	82.6064E-12	715.779E-3	-14.6677E-3
2.40870E-3	82.0279E-12	754.268E-3	-30.9058E-3	82.9265E-12	692.379E-3	11.7052E-3
2.40370E-3	81.7385E-12	736.465E-3	-22.0682E-3	83.1322E-12	688.148E-3	11.1475E-3
2.39870E-3	81.5614E-12	730.914E-3	79.0233E-6	82.5511E-12	706.872E-3	-6.07129E-3
2.39370E-3	81.4703E-12	743.057E-3	14.7235E-3	82.1528E-12	723.655E-3	-3.08576E-3
2.38869E-3	81.3901E-12	748.635E-3	12.9243E-3	82.3185E-12	716.666E-3	-2.66509E-3
2.38369E-3	81.7348E-12	747.409E-3	-1.85642E-3	82.1754E-12	704.297E-3	-22.3485E-3
2.37869E-3	81.4302E-12	740.692E-3	-13.2395E-3	81.6121E-12	718.710E-3	-26.7000E-3
2.37369E-3	81.4406E-12	730.816E-3	-17.9002E-3	80.7468E-12	742.229E-3	-11.0220E-3
2.36868E-3	81.4563E-12	739.287E-3	-20.3389E-3	80.7020E-12	751.417E-3	-20.5220E-3
2.36368E-3	81.2144E-12	756.920E-3	-18.0994E-3	80.5173E-12	749.901E-3	-35.4510E-3
2.35868E-3	80.7866E-12	749.372E-3	-2.25317E-3	79.8406E-12	741.247E-3	-27.4209E-3
2.35368E-3	80.2044E-12	728.358E-3	7.74804E-3	79.5891E-12	735.377E-3	-17.7614E-3
2.34867E-3	79.8193E-12	726.341E-3	-7.07107E-3	79.4165E-12	743.437E-3	-18.1115E-3
2.34367E-3	79.1007E-12	740.316E-3	-20.0203E-3	79.0693E-12	765.281E-3	-17.9630E-3
2.33867E-3	79.0568E-12	745.787E-3	-20.7047E-3	78.6761E-12	772.556E-3	-9.48218E-3
2.33367E-3	78.0445E-12	741.531E-3	-24.0484E-3	79.1744E-12	749.264E-3	-7.84955E-3
2.32866E-3	77.9011E-12	741.186E-3	-26.9103E-3	78.8937E-12	728.929E-3	-5.25535E-3
2.32366E-3	77.5800E-12	733.096E-3	-4.32513E-3	78.5529E-12	730.550E-3	6.49192E-3
2.31866E-3	77.5702E-12	722.765E-3	17.7040E-3	79.0290E-12	732.981E-3	12.6469E-3
2.31366E-3	77.2866E-12	727.981E-3	1.05961E-3	79.0194E-12	741.129E-3	11.3701E-3
2.30865E-3	77.2375E-12	737.359E-3	-12.8149E-3	78.7823E-12	744.850E-3	7.85701E-3
2.30365E-3	76.9874E-12	739.014E-3	-9.87884E-3	78.2365E-12	733.001E-3	-7.51440E-3
2.29865E-3	76.4930E-12	743.643E-3	-19.7641E-3	78.0427E-12	742.395E-3	-34.4965E-3
2.29365E-3	76.3716E-12	752.974E-3	-30.3597E-3	77.8049E-12	762.462E-3	-47.2267E-3
2.28864E-3	76.4391E-12	740.610E-3	-31.5329E-3	77.4701E-12	764.957E-3	-29.5831E-3
2.28364E-3	76.1443E-12	721.263E-3	-27.5135E-3	76.6842E-12	756.444E-3	-8.29888E-3
2.27864E-3	75.5403E-12	731.209E-3	-8.74663E-3	76.3302E-12	742.888E-3	-6.00521E-3
2.27364E-3	75.5384E-12	759.117E-3	3.96471E-3	75.6977E-12	733.467E-3	-12.1757E-3
2.26863E-3	75.5681E-12	771.296E-3	-20.1786E-3	75.0969E-12	732.884E-3	-12.5394E-3
2.26363E-3	75.3913E-12	752.562E-3	-45.4495E-3	74.7477E-12	731.875E-3	-2.87259E-3
2.25863E-3	74.8203E-12	732.270E-3	-38.3457E-3	74.0738E-12	729.916E-3	3.14536E-3
2.25363E-3	74.4869E-12	734.394E-3	-18.6973E-3	73.5788E-12	723.188E-3	6.47083E-3
2.24862E-3	74.7321E-12	747.600E-3	-7.10053E-3	73.5261E-12	725.221E-3	-5.52880E-3
2.24362E-3	74.6737E-12	746.294E-3	-7.28389E-3	73.5962E-12	738.977E-3	-31.5992E-3
2.23862E-3	74.4951E-12	734.732E-3	-21.1538E-3	73.1424E-12	745.669E-3	-22.4941E-3
2.23362E-3	74.6062E-12	742.843E-3	-30.1191E-3	73.2211E-12	756.827E-3	-6.56440E-3
2.22861E-3	74.7922E-12	755.268E-3	-22.0886E-3	73.8219E-12	774.181E-3	-32.1382E-3
2.22361E-3	74.4670E-12	752.258E-3	-15.7812E-3	73.6407E-12	783.482E-3	-49.5203E-3
2.21861E-3	74.3897E-12	747.416E-3	-21.6223E-3	73.4209E-12	785.062E-3	-39.3625E-3
2.21361E-3	74.5096E-12	745.129E-3	-19.2721E-3	73.2766E-12	777.935E-3	-38.3199E-3
2.20860E-3	74.0634E-12	761.305E-3	-8.59602E-3	73.3026E-12	768.440E-3	-37.3035E-3
2.20360E-3	73.5284E-12	788.826E-3	-13.6112E-3	72.8337E-12	760.154E-3	-26.6894E-3
2.19860E-3	73.5073E-12	791.310E-3	-23.3190E-3	72.6553E-12	749.813E-3	-33.6099E-3
2.19360E-3	72.8331E-12	770.181E-3	-25.6044E-3	72.2594E-12	747.874E-3	-44.6908E-3
2.18859E-3	71.9702E-12	759.300E-3	-32.1972E-3	71.9436E-12	765.556E-3	-28.2231E-3
2.18359E-3	71.3069E-12	767.621E-3	-31.7675E-3	71.4960E-12	773.087E-3	-11.5391E-3
2.17859E-3	71.0795E-12	769.399E-3	-18.0454E-3	71.3527E-12	746.540E-3	-19.5679E-3
2.17359E-3	70.5399E-12	755.172E-3	-21.9710E-3	71.0503E-12	730.208E-3	-27.4519E-3
2.16858E-3	70.0419E-12	743.714E-3	-27.9882E-3	70.6041E-12	744.631E-3	-23.9169E-3
2.16358E-3	69.7362E-12	735.981E-3	-20.1638E-3	70.3735E-12	763.151E-3	-24.3416E-3
2.15858E-3	69.2575E-12	731.698E-3	-20.2528E-3	70.4273E-12	772.818E-3	-23.3342E-3
2.15358E-3	69.3547E-12	753.062E-3	-17.3905E-3	69.6139E-12	769.088E-3	-22.3140E-3
2.14857E-3	69.2407E-12	771.825E-3	-3.99098E-3	69.7148E-12	775.392E-3	-22.8155E-3
2.14357E-3	68.9981E-12	765.030E-3	-3.23729E-3	69.3509E-12	804.708E-3	-13.0220E-3
2.13857E-3	69.0441E-12	756.204E-3	-29.0061E-3	68.9329E-12	812.656E-3	-11.6894E-3
2.13357E-3	69.2119E-12	749.569E-3	-49.3440E-3	69.2394E-12	791.938E-3	-23.9423E-3
2.12856E-3	69.0609E-12	745.477E-3	-41.5941E-3	69.2067E-12	786.326E-3	-38.7215E-3
2.12356E-3	69.1458E-12	744.051E-3	-21.9303E-3	68.5349E-12	804.026E-3	-43.9866E-3
2.11856E-3	68.7971E-12	756.175E-3	-10.0688E-3	68.1736E-12	808.332E-3	-27.5466E-3
2.11356E-3	68.2110E-12	779.001E-3	-15.3188E-3	68.4320E-12	792.190E-3	-3.13793E-3
2.10855E-3	68.3558E-12	783.179E-3	-24.9485E-3	67.7777E-12	789.602E-3	7.25473E-3
2.10355E-3	67.6486E-12	776.886E-3	-25.4325E-3	67.3881E-12	805.658E-3	-4.76296E-3
2.09855E-3	67.1863E-12	779.922E-3	-20.8902E-3	67.1032E-12	810.615E-3	-24.8777E-3
2.09355E-3	66.5775E-12	787.974E-3	-17.1821E-3	66.8514E-12	798.989E-3	-26.2743E-3
2.08854E-3	66.0880E-12	793.286E-3	-4.62463E-3	66.8034E-12	793.927E-3	-2.65918E-3
2.08354E-3	65.5720E-12	785.837E-3	-4.47065E-3	66.3834E-12	795.993E-3	14.4685E-3
2.07854E-3	65.3976E-12	777.183E-3	-21.9587E-3	66.2103E-12	790.988E-3	-3.06669E-3
2.07354E-3	64.7077E-12	776.271E-3	-13.6774E-3	65.7821E-12	781.035E-3	-28.5272E-3
2.06853E-3	64.4013E-12	773.708E-3	11.4608E-3	65.3155E-12	783.478E-3	-25.8086E-3
2.06353E-3	64.5545E-12	769.681E-3	11.4440E-3	65.0068E-12	793.176E-3	-14.8185E-3
2.05853E-3	64.3543E-12	770.760E-3	-1.78147E-3	64.7584E-12	797.737E-3	-25.1995E-3
2.05353E-3	64.1367E-12	777.828E-3	-4.55657E-3	64.3386E-12	792.287E-3	-38.0710E-3
2.04852E-3	64.1193E-12	772.277E-3	-8.65112E-3	63.7996E-12	783.136E-3	-36.2829E-3
2.04352E-3	63.9396E-12	765.394E-3	-12.4118E-3	63.3478E-12	795.829E-3	-24.9293E-3
2.03852E-3	63.9591E-12	771.018E-3	-14.1430E-3	63.4414E-12	815.347E-3	-7.33016E-3
2.03352E-3	64.1638E-12	773.534E-3	-11.3233E-3	63.1847E-12	825.910E-3	-2.15778E-3
2.02851E-3	63.8314E-12	780.836E-3	686.698E-6	62.7388E-12	823.872E-3	-17.4075E-3
2.02351E-3	63.5230E-12	801.998E-3	7.52862E-3	62.6088E-12	800.888E-3	-26.6823E-3
2.01851E-3	63.2464E-12	818.335E-3	-371.155E-6	62.6001E-12	792.849E-3	-10.2220E-3
2.01351E-3	63.0541E-12	812.920E-3	-11.1318E-3	62.2212E-12	810.625E-3	13.0183E-3
2.00850E-3	62.5706E-12	800.206E-3	-12.6120E-3	62.0310E-12	823.759E-3	10.6339E-3
2.00350E-3	61.9711E-12	803.169E-3	-15.0192E-3	61.9752E-12	821.767E-3	-10.3466E-3
1.99850E-3	61.7842E-12	826.556E-3	-17.1461E-3	62.1333E-12	820.753E-3	-15.4577E-3
1.99350E-3	61.3362E-12	831.047E-3	-19.7227E-3	62.1079E-12	832.916E-3	845.520E-6
1.98849E-3	60.9065E-12	800.822E-3	-26.0539E-3	61.8497E-12	846.142E-3	18.3835E-3
1.98349E-3	60.4845E-12	794.417E-3	-16.2808E-3	61.8438E-12	853.041E-3	11.5720E-3
1.97849E-3	60.3480E-12	810.457E-3	-6.97829E-3	61.6606E-12	859.656E-3	-10.9574E-3
1.97349E-3	60.0790E-12	812.171E-3	-10.1626E-3	61.2697E-12	859.793E-3	-18.1183E-3
1.96848E-3	59.8978E-12	808.292E-3	4.73131E-3	61.0838E-12	852.281E-3	-24.5427E-3
1.96348E-3	59.7974E-12	808.740E-3	11.6559E-3	60.3342E-12	844.456E-3	-22.4174E-3
1.95848E-3	59.7044E-12	818.262E-3	-15.1562E-3	59.8245E-12	835.443E-3	2.13675E-3
1.95348E-3	59.6727E-12	829.739E-3	-37.8430E-3	59.8347E-12	821.232E-3	10.6826E-3
1.94847E-3	59.6006E-12	830.478E-3	-33.0973E-3	59.0593E-12	811.406E-3	4.85672E-3
1.94347E-3	59.0838E-12	839.654E-3	-23.9516E-3	58.5522E-12	809.250E-3	288.731E-6
1.93847E-3	59.0599E-12	855.034E-3	-24.3348E-3	58.3626E-12	807.186E-3	-12.6957E-3
1.93347E-3	58.6807E-12	856.343E-3	-23.1630E-3	57.9943E-12	810.408E-3	-30.9171E-3
1.92846E-3	58.3182E-12	852.424E-3	-12.3621E-3	57.4157E-12	821.497E-3	-35.6108E-3
1.92346E-3	57.6746E-12	855.466E-3	6.16601E-3	57.4484E-12	847.179E-3	-31.5102E-3
1.91846E-3	57.5738E-12	856.418E-3	11.3424E-3	57.2394E-12	877.271E-3	-35.5711E-3
1.91346E-3	57.2383E-12	846.532E-3	-11.5406E-3	56.8848E-12	874.811E-3	-36.1929E-3
1.90845E-3	56.9964E-12	841.141E-3	-29.5155E-3	56.6853E-12	859.327E-3	-29.1089E-3
1.90345E-3	56.6709E-12	845.055E-3	-20.9341E-3	56.5476E-12	863.606E-3	-19.3274E-3
1.89845E-3	56.4763E-12	850.229E-3	-20.2981E-3	56.4133E-12	872.853E-3	-1.44639E-3
1.89345E-3	55.9383E-12	851.989E-3	-27.4568E-3	56.3488E-12	880.504E-3	4.95650E-3
1.88844E-3	55.6989E-12	857.245E-3	-23.7118E-3	56.1114E-12	877.570E-3	-8.54746E-3
1.88344E-3	55.5872E-12	860.458E-3	-24.9227E-3	56.1989E-12	867.351E-3	-17.5616E-3
1.87844E-3	55.1336E-12	857.502E-3	-21.8000E-3	55.9040E-12	863.452E-3	-16.0984E-3
1.87344E-3	54.9008E-12	860.176E-3	-13.8365E-3	55.3557E-12	859.321E-3	-12.9815E-3
1.86843E-3	54.8475E-12	869.927E-3	-22.9196E-3	54.6318E-12	866.350E-3	-11.1791E-3
1.86343E-3	54.3150E-12	888.314E-3	-31.0532E-3	54.3844E-12	885.054E-3	-7.19731E-3
1.85843E-3	53.9806E-12	899.746E-3	-20.6810E-3	54.1414E-12	883.575E-3	-10.7709E-3
1.85343E-3	53.7597E-12	890.486E-3	-9.97945E-3	53.3397E-12	866.715E-3	-20.2004E-3
1.84842E-3	53.1190E-12	885.434E-3	-19.7838E-3	52.5124E-12	859.664E-3	-20.2953E-3
1.84342E-3	52.7493E-12	889.461E-3	-36.8502E-3	52.2490E-12	870.518E-3	-16.0211E-3
1.83842E-3	52.6042E-12	882.033E-3	-36.0195E-3	52.1260E-12	879.685E-3	-10.5621E-3
1.83342E-3	52.2137E-12	877.035E-3	-26.9961E-3	51.6590E-12	875.493E-3	-5.48110E-3
1.82841E-3	51.9459E-12	884.809E-3	-17.9770E-3	51.4842E-12	879.283E-3	-6.72983E-3
1.82341E-3	51.8733E-12	896.463E-3	-20.5122E-3	51.0692E-12	886.538E-3	-23.9782E-3
1.81841E-3	51.4926E-12	899.195E-3	-37.0442E-3	50.7394E-12	896.620E-3	-44.7555E-3
1.81341E-3	51.3112E-12	885.105E-3	-37.6553E-3	50.9340E-12	921.583E-3	-40.5984E-3
1.80840E-3	51.1657E-12	872.065E-3	-23.3383E-3	50.5377E-12	926.751E-3	-24.3702E-3
1.80340E-3	51.0521E-12	879.125E-3	-14.7784E-3	50.3451E-12	918.691E-3	-15.3191E-3
1.79840E-3	50.6682E-12	909.847E-3	-11.8492E-3	50.4977E-12	926.485E-3	-7.56034E-3
1.79340E-3	50.4224E-12	934.942E-3	-19.4504E-3	50.1631E-12	925.404E-3	-16.2180E-3
1.78839E-3	49.9551E-12	928.639E-3	-27.3876E-3	49.9922E-12	923.891E-3	-31.3747E-3
1.78339E-3	49.8849E-12	915.899E-3	-19.7014E-3	49.8565E-12	922.363E-3	-28.9185E-3
1.77839E-3	49.3537E-12	918.743E-3	-9.76632E-3	49.2603E-12	908.524E-3	-32.0391E-3
1.77339E-3	48.9535E-12	924.528E-3	-7.41379E-3	48.8376E-12	907.387E-3	-38.0275E-3
1.76838E-3	48.6670E-12	919.112E-3	-13.5141E-3	48.4926E-12	920.059E-3	-29.5832E-3
1.76338E-3	48.1862E-12	908.967E-3	-17.8194E-3	48.3573E-12	930.530E-3	-22.3722E-3
1.75838E-3	47.4593E-12	902.348E-3	-22.4745E-3	47.6804E-12	938.669E-3	-19.4200E-3
1.75338E-3	47.0933E-12	903.608E-3	-33.9529E-3	47.1821E-12	950.589E-3	-14.2579E-3
1.74837E-3	46.6008E-12	913.192E-3	-38.2418E-3	47.0553E-12	961.855E-3	-14.0751E-3
1.74337E-3	46.2549E-12	920.978E-3	-37.9552E-3	46.9782E-12	973.768E-3	-11.1770E-3
1.73837E-3	46.0999E-12	930.730E-3	-42.9852E-3	46.4836E-12	983.921E-3	-728.751E-6
1.73337E-3	45.5721E-12	947.411E-3	-45.7367E-3	45.9935E-12	967.441E-3	-4.91990E-3
1.72836E-3	45.2323E-12	957.251E-3	-32.6189E-3	45.9058E-12	941.302E-3	-20.9775E-3
1.72336E-3	45.3955E-12	956.654E-3	-16.9302E-3	45.6965E-12	948.328E-3	-29.2150E-3
1.71836E-3	44.9460E-12	957.818E-3	-13.4504E-3	45.2991E-12	971.809E-3	-40.9608E-3
1.71336E-3	44.7222E-12	960.120E-3	-14.9019E-3	44.8182E-12	980.157E-3	-45.5175E-3
1.70835E-3	44.4099E-12	959.178E-3	-17.1918E-3	44.5767E-12	985.462E-3	-18.9621E-3
1.70335E-3	44.5620E-12	962.007E-3	-9.41408E-3	44.5276E-12	1.00737E+0	773.743E-6
1.69835E-3	44.0177E-12	971.597E-3	8.66827E-3	44.3477E-12	1.02920E+0	-7.55042E-3
1.69335E-3	43.5607E-12	983.799E-3	15.5058E-3	43.8740E-12	1.03309E+0	-14.8622E-3
1.68834E-3	43.3283E-12	993.460E-3	7.48488E-3	43.6158E-12	1.03038E+0	-19.9492E-3
1.68334E-3	43.0146E-12	1.00229E+0	-4.33626E-3	43.1754E-12	1.02098E+0	-25.1851E-3
1.67834E-3	42.6611E-12	1.00746E+0	-23.2804E-3	42.8918E-12	1.00751E+0	-30.7275E-3
1.67334E-3	42.2304E-12	1.00732E+0	-26.9448E-3	42.5203E-12	1.00918E+0	-42.9678E-3
1.66833E-3	41.9212E-12	1.01220E+0	-9.46502E-3	42.0840E-12	1.03284E+0	-41.8732E-3
1.66333E-3	41.5486E-12	1.00566E+0	-13.4552E-3	41.6076E-12	1.05247E+0	-16.5057E-3
1.65833E-3	41.0701E-12	989.390E-3	-27.3880E-3	41.2741E-12	1.04435E+0	-2.94279E-3
1.65333E-3	40.6323E-12	989.250E-3	-18.7975E-3	41.1051E-12	1.03112E+0	-19.0277E-3
1.64832E-3	40.3518E-12	1.00568E+0	-5.15516E-3	40.5273E-12	1.03238E+0	-39.7972E-3
1.64332E-3	40.2259E-12	1.03521E+0	-7.54784E-3	40.1508E-12	1.04446E+0	-43.0617E-3
1.63832E-3	40.0298E-12	1.04788E+0	-12.1691E-3	39.8792E-12	1.05340E+0	-30.9656E-3
1.63332E-3	39.5920E-12	1.03504E+0	-7.96151E-3	39.4935E-12	1.04254E+0	-22.5905E-3
1.62831E-3	39.5263E-12	1.03159E+0	-2.64174E-3	39.2161E-12	1.02955E+0	-20.6625E-3
1.62331E-3	39.5159E-12	1.04722E+0	507.464E-6	38.7821E-12	1.04033E+0	-25.6903E-3
1.61831E-3	38.8203E-12	1.06271E+0	1.02307E-3	38.1052E-12	1.05733E+0	-32.6959E-3
1.61331E-3	38.5197E-12	1.06971E+0	-5.75182E-3	37.8018E-12	1.06446E+0	-21.1325E-3
1.60830E-3	38.2515E-12	1.07980E+0	-11.3456E-3	37.5855E-12	1.07146E+0	-7.94178E-3
1.60330E-3	37.8877E-12	1.08458E+0	-4.90810E-3	37.2291E-12	1.07862E+0	-12.1681E-3
1.59830E-3	37.4144E-12	1.07862E+0	-6.49404E-3	36.8145E-12	1.09387E+0	-17.3882E-3
1.59330E-3	37.0558E-12	1.07664E+0	-15.8521E-3	36.4957E-12	1.11000E+0	-22.5014E-3
1.58829E-3	36.7226E-12	1.07518E+0	-7.88742E-3	36.2659E-12	1.10587E+0	-27.8181E-3
1.58329E-3	36.1868E-12	1.06930E+0	-185.416E-6	36.1087E-12	1.10493E+0	-22.6618E-3
1.57829E-3	35.8955E-12	1.07953E+0	-3.36411E-3	35.4899E-12	1.11845E+0	-19.1543E-3
1.57329E-3	35.2335E-12	1.10062E+0	-12.2936E-3	35.1514E-12	1.11872E+0	-31.2122E-3
1.56828E-3	34.8731E-12	1.10817E+0	-17.6165E-3	35.1853E-12	1.12220E+0	-35.3315E-3
1.56328E-3	34.5244E-12	1.10305E+0	-15.1245E-3	34.8533E-12	1.14628E+0	-20.9324E-3
1.55828E-3	34.0799E-12	1.08868E+0	-23.6167E-3	34.4682E-12	1.16014E+0	-16.4995E-3
1.55328E-3	33.6724E-12	1.08593E+0	-41.2888E-3	34.0764E-12	1.15759E+0	-20.1716E-3
1.54827E-3	33.5260E-12	1.10779E+0	-39.3594E-3	33.8108E-12	1.15393E+0	-19.9899E-3
1.54327E-3	33.0954E-12	1.12938E+0	-11.3444E-3	33.4865E-12	1.15950E+0	-17.2000E-3
1.53827E-3	32.7017E-12	1.14208E+0	5.25194E-3	33.1035E-12	1.16995E+0	-2.75323E-3
1.53327E-3	32.5963E-12	1.13972E+0	-11.1409E-3	32.5349E-12	1.17199E+0	8.63838E-3
1.52826E-3	32.2359E-12	1.13911E+0	-38.7230E-3	32.0397E-12	1.16799E+0	-2.32820E-3
1.52326E-3	31.6186E-12	1.15576E+0	-47.9413E-3	31.6823E-12	1.16396E+0	-20.9692E-3
1.51826E-3	31.4254E-12	1.16271E+0	-29.4192E-3	31.1016E-12	1.16380E+0	-21.6275E-3
1.51326E-3	30.9430E-12	1.16649E+0	-4.58058E-3	30.5754E-12	1.16240E+0	-5.63692E-3
1.50825E-3	30.5145E-12	1.17550E+0	-1.47472E-3	30.0628E-12	1.15672E+0	807.591E-6
1.50325E-3	30.0883E-12	1.17373E+0	-10.1879E-3	29.6452E-12	1.15707E+0	-5.09944E-3
1.49825E-3	29.6654E-12	1.17563E+0	-20.8099E-3	29.2521E-12	1.17326E+0	-16.1440E-3
1.49325E-3	29.2476E-12	1.18408E+0	-41.3102E-3	29.0722E-12	1.19206E+0	-19.2264E-3
1.48824E-3	28.8601E-12	1.18246E+0	-45.7738E-3	28.6917E-12	1.19890E+0	-12.1846E-3
1.48324E-3	28.3793E-12	1.17535E+0	-27.5920E-3	27.9868E-12	1.19521E+0	-12.2037E-3
1.47824E-3	27.8442E-12	1.16542E+0	-21.6846E-3	27.7942E-12	1.18519E+0	-7.34517E-3
1.47324E-3	27.5003E-12	1.16597E+0	-18.3814E-3	27.6251E-12	1.18519E+0	-6.74701E-3
1.46823E-3	27.1148E-12	1.17826E+0	-871.826E-6	27.1963E-12	1.19892E+0	-14.9074E-3
1.46323E-3	26.5686E-12	1.17824E+0	-2.63829E-3	26.7049E-12	1.20169E+0	2.48983E-3
1.45823E-3	26.1631E-12	1.17389E+0	-21.5480E-3	26.4562E-12	1.18687E+0	23.1599E-3
1.45323E-3	25.8655E-12	1.17575E+0	-26.5843E-3	26.2146E-12	1.17906E+0	9.73159E-3
1.44822E-3	25.4578E-12	1.17553E+0	-26.0629E-3	25.7308E-12	1.17880E+0	-14.4578E-3
1.44322E-3	24.9539E-12	1.17451E+0	-31.7998E-3	25.1253E-12	1.18576E+0	-22.3971E-3
1.43822E-3	24.5551E-12	1.17836E+0	-23.7190E-3	24.7342E-12	1.19067E+0	-13.2150E-3
1.43322E-3	24.3936E-12	1.18041E+0	-5.83683E-3	24.4896E-12	1.17427E+0	-679.836E-6
1.42821E-3	23.9318E-12	1.17380E+0	-15.1733E-3	23.9352E-12	1.16095E+0	-3.14409E-3
1.42321E-3	23.4304E-12	1.17089E+0	-23.8496E-3	23.3521E-12	1.16449E+0	-22.9694E-3
1.41821E-3	23.0109E-12	1.16291E+0	-8.09875E-3	22.8903E-12	1.17050E+0	-35.7289E-3
1.41321E-3	22.7499E-12	1.14553E+0	-1.74780E-3	22.5694E-12	1.17235E+0	-18.3967E-3
1.40820E-3	22.3282E-12	1.14915E+0	-7.24899E-3	22.1509E-12	1.16711E+0	-1.73827E-3
1.40320E-3	21.8799E-12	1.16821E+0	-6.85593E-3	21.8358E-12	1.15897E+0	-15.7831E-3
1.39820E-3	21.5550E-12	1.17202E+0	-6.57687E-3	21.4185E-12	1.15140E+0	-38.1121E-3
1.39320E-3	21.2979E-12	1.15997E+0	-12.0007E-3	21.1153E-12	1.15075E+0	-40.9854E-3
1.38819E-3	20.9975E-12	1.14393E+0	-18.0646E-3	20.8069E-12	1.16051E+0	-26.4991E-3
1.38319E-3	20.5612E-12	1.13721E+0	-19.4295E-3	20.5331E-12	1.15724E+0	-14.4219E-3
1.37819E-3	20.3052E-12	1.14318E+0	-5.23111E-3	20.2577E-12	1.14532E+0	-18.8501E-3
1.37319E-3	19.9971E-12	1.14451E+0	2.35221E-3	19.8383E-12	1.15085E+0	-31.9714E-3
1.36818E-3	19.5775E-12	1.14169E+0	-15.0910E-3	19.4246E-12	1.15951E+0	-30.7739E-3
1.36318E-3	19.0965E-12	1.14264E+0	-26.4571E-3	19.1647E-12	1.14324E+0	-21.6162E-3
1.35818E-3	18.8895E-12	1.14340E+0	-17.1808E-3	18.9237E-12	1.10467E+0	-22.3106E-3
1.35318E-3	18.4661E-12	1.13519E+0	-7.63749E-3	18.4434E-12	1.07766E+0	-17.5727E-3
1.34817E-3	17.9683E-12	1.11687E+0	3.14530E-3	17.9865E-12	1.07413E+0	-7.28606E-3
1.34317E-3	17.5604E-12	1.09893E+0	6.79066E-3	17.6027E-12	1.06959E+0	-12.4034E-3
1.33817E-3	17.3110E-12	1.09510E+0	-15.4574E-3	17.3258E-12	1.05383E+0	-19.2454E-3
1.33317E-3	16.9489E-12	1.09066E+0	-26.0319E-3	16.9917E-12	1.03307E+0	-12.7971E-3
1.32816E-3	16.5161E-12	1.07424E+0	-17.1633E-3	16.3718E-12	1.01439E+0	-16.0845E-3
1.32316E-3	15.9711E-12	1.06716E+0	-21.2797E-3	15.9175E-12	1.00957E+0	-33.5453E-3
1.31816E-3	15.7248E-12	1.06307E+0	-19.5286E-3	15.7397E-12	1.01112E+0	-31.6153E-3
1.31316E-3	15.4616E-12	1.05530E+0	-13.4897E-3	15.3819E-12	994.059E-3	-11.2851E-3
1.30815E-3	15.0626E-12	1.04536E+0	-26.2358E-3	14.9515E-12	961.787E-3	-5.41717E-3
1.30315E-3	14.7473E-12	1.02889E+0	-32.6312E-3	14.6216E-12	948.460E-3	-15.8526E-3
1.29815E-3	14.4739E-12	1.02024E+0	-23.5415E-3	14.3253E-12	957.182E-3	-33.2303E-3
1.29315E-3	14.1807E-12	1.01403E+0	-30.5514E-3	14.1127E-12	956.318E-3	-44.5337E-3
1.28814E-3	13.7593E-12	994.552E-3	-47.6149E-3	13.7156E-12	941.844E-3	-27.3925E-3
1.28314E-3	13.5578E-12	970.110E-3	-39.3631E-3	13.4288E-12	921.904E-3	-10.5273E-3
1.27814E-3	13.2950E-12	960.007E-3	-22.0855E-3	13.1904E-12	902.534E-3	-23.9630E-3
1.27314E-3	12.9590E-12	956.534E-3	-23.8329E-3	12.8532E-12	893.167E-3	-34.0983E-3
1.26813E-3	12.6167E-12	940.115E-3	-28.7660E-3	12.5071E-12	878.089E-3	-24.5877E-3
1.26313E-3	12.3541E-12	920.686E-3	-24.8361E-3	12.3254E-12	851.432E-3	-11.9795E-3
1.25813E-3	12.0375E-12	905.698E-3	-18.5873E-3	11.9628E-12	829.936E-3	-7.10158E-3
1.25313E-3	11.6839E-12	901.067E-3	-16.5740E-3	11.6003E-12	816.545E-3	-11.7877E-3
1.24812E-3	11.3891E-12	898.855E-3	-14.5677E-3	11.3004E-12	801.755E-3	-23.3384E-3
1.24312E-3	11.0880E-12	875.755E-3	-19.2882E-3	11.1485E-12	790.774E-3	-25.0171E-3
1.23812E-3	10.9156E-12	844.428E-3	-29.7569E-3	10.8680E-12	783.618E-3	-5.69211E-3
1.23312E-3	10.6477E-12	816.691E-3	-30.1115E-3	10.5537E-12	754.814E-3	3.73111E-3
1.22811E-3	10.3147E-12	796.525E-3	-30.9355E-3	10.2432E-12	717.259E-3	-8.42065E-3
1.22311E-3	10.1039E-12	780.339E-3	-33.9406E-3	10.0517E-12	708.598E-3	-17.2311E-3
1.21811E-3	9.96059E-12	762.982E-3	-33.9796E-3	9.77741E-12	713.889E-3	-18.0205E-3
1.21311E-3	9.62693E-12	756.761E-3	-28.4818E-3	9.53555E-12	699.847E-3	-11.4606E-3
1.20810E-3	9.35958E-12	748.223E-3	-17.6177E-3	9.17507E-12	673.108E-3	-3.21080E-3
1.20310E-3	9.32807E-12	733.724E-3	-19.8847E-3	9.02051E-12	653.386E-3	-12.2934E-3
1.19810E-3	9.04671E-12	716.082E-3	-25.0817E-3	8.89019E-12	637.371E-3	-23.3499E-3
1.19310E-3	8.76120E-12	690.375E-3	-23.0315E-3	8.55030E-12	615.896E-3	-22.7681E-3
1.18809E-3	8.61053E-12	667.221E-3	-18.2733E-3	8.30003E-12	587.752E-3	-16.4706E-3
1.18309E-3	8.41407E-12	652.939E-3	-4.86256E-3	8.17456E-12	565.608E-3	-509.007E-6
1.17809E-3	8.21062E-12	638.040E-3	3.82893E-3	8.03026E-12	552.006E-3	4.14875E-3
1.17309E-3	7.96539E-12	616.588E-3	-45.3407E-6	7.80334E-12	538.922E-3	-11.1653E-3
1.16808E-3	7.64070E-12	611.934E-3	-6.32992E-3	7.53512E-12	530.778E-3	-19.2829E-3
1.16308E-3	7.49676E-12	621.551E-3	-8.35243E-3	7.39943E-12	522.053E-3	-13.5724E-3
1.15808E-3	7.31085E-12	603.685E-3	-11.7533E-3	7.27636E-12	505.336E-3	-16.5399E-3
1.15308E-3	7.05862E-12	562.402E-3	-15.9594E-3	7.08888E-12	481.623E-3	-25.5507E-3
1.14807E-3	6.78667E-12	541.961E-3	-12.5373E-3	6.81638E-12	464.304E-3	-22.1026E-3
1.14307E-3	6.69827E-12	535.607E-3	-19.2135E-3	6.74207E-12	464.612E-3	-14.5921E-3
1.13807E-3	6.54401E-12	522.338E-3	-35.4780E-3	6.60547E-12	451.425E-3	-6.96002E-3
1.13307E-3	6.33457E-12	508.428E-3	-35.6638E-3	6.48027E-12	418.731E-3	4.92464E-3
1.12806E-3	6.21028E-12	484.836E-3	-26.4367E-3	6.32618E-12	397.285E-3	-292.847E-6
1.12306E-3	6.11091E-12	452.861E-3	-31.7058E-3	6.15904E-12	386.476E-3	-23.3116E-3
1.11806E-3	5.95113E-12	433.481E-3	-37.7150E-3	5.96564E-12	381.808E-3	-27.6388E-3
1.11306E-3	5.80943E-12	425.895E-3	-26.1776E-3	5.85903E-12	380.092E-3	-11.7520E-3
1.10805E-3	5.67983E-12	412.491E-3	-15.9361E-3	5.74628E-12	360.786E-3	2.91957E-3
1.10305E-3	5.63530E-12	395.760E-3	-23.0026E-3	5.58274E-12	330.191E-3	3.93304E-3
1.09805E-3	5.39971E-12	379.793E-3	-28.6776E-3	5.35146E-12	313.898E-3	-8.85264E-3
1.09305E-3	5.28334E-12	364.413E-3	-21.4174E-3	5.25788E-12	311.679E-3	-28.3400E-3
1.08804E-3	5.21039E-12	354.166E-3	-13.7396E-3	5.19120E-12	312.014E-3	-35.1566E-3
1.08304E-3	5.12389E-12	344.844E-3	-10.9896E-3	5.07270E-12	301.091E-3	-22.3120E-3
1.07804E-3	5.00626E-12	338.113E-3	-8.08751E-3	4.93693E-12	278.628E-3	-15.6153E-3
1.07304E-3	4.83316E-12	330.450E-3	-12.9719E-3	4.78892E-12	254.061E-3	-15.4147E-3
1.06803E-3	4.77303E-12	315.562E-3	-25.7562E-3	4.77596E-12	246.359E-3	-17.4882E-3
1.06303E-3	4.67914E-12	303.074E-3	-24.0602E-3	4.69678E-12	250.728E-3	-26.6955E-3
1.05803E-3	4.63993E-12	292.673E-3	-14.5260E-3	4.57574E-12	242.870E-3	-20.8073E-3
1.05303E-3	4.48249E-12	275.078E-3	-15.9071E-3	4.42645E-12	231.906E-3	-7.19687E-3
1.04802E-3	4.41491E-12	257.846E-3	-27.7546E-3	4.42724E-12	223.600E-3	-18.3197E-3
1.04302E-3	4.43433E-12	256.757E-3	-33.2300E-3	4.56246E-12	208.778E-3	-29.0649E-3
1.03802E-3	4.30997E-12	257.001E-3	-20.7466E-3	4.33527E-12	199.073E-3	-11.1657E-3
1.03302E-3	4.17267E-12	243.111E-3	-9.57975E-3	4.19183E-12	193.896E-3	947.885E-6
1.02801E-3	4.04999E-12	220.114E-3	-3.80166E-3	4.01945E-12	179.343E-3	-17.0156E-3
1.02301E-3	3.87108E-12	196.495E-3	6.98540E-3	3.95290E-12	171.471E-3	-34.2963E-3
1.01801E-3	3.82838E-12	181.101E-3	7.70996E-3	3.86596E-12	175.392E-3	-34.0890E-3
1.01301E-3	3.75873E-12	172.424E-3	-3.76397E-3	3.74623E-12	177.210E-3	-22.1516E-3
1.00800E-3	3.73201E-12	167.682E-3	-9.38702E-3	3.67048E-12	167.274E-3	-7.67474E-3
1.00300E-3	3.59618E-12	161.243E-3	-8.87440E-3	3.61698E-12	144.502E-3	-12.7208E-3
997.999E-6	3.54025E-12	153.422E-3	-14.0172E-3	3.64242E-12	123.661E-3	-36.1758E-3
992.997E-6	3.58820E-12	158.107E-3	-17.8475E-3	3.53751E-12	118.199E-3	-42.9228E-3
987.994E-6	3.46521E-12	161.900E-3	-9.63002E-3	3.47176E-12	119.802E-3	-32.8094E-3
982.991E-6	3.41695E-12	141.163E-3	-5.82213E-3	3.40147E-12	106.875E-3	-27.0249E-3
977.989E-6	3.39911E-12	124.493E-3	-14.0840E-3	3.38119E-12	91.6660E-3	-22.3751E-3
972.986E-6	3.40431E-12	131.871E-3	-22.3551E-3	3.38530E-12	92.0370E-3	-24.8971E-3
967.984E-6	3.41848E-12	127.829E-3	-21.5220E-3	3.33671E-12	86.7644E-3	-30.7743E-3
962.981E-6	3.28295E-12	113.892E-3	-17.3152E-3	3.22696E-12	77.7146E-3	-26.9819E-3
957.979E-6	3.23308E-12	113.389E-3	-13.8584E-3	3.21377E-12	77.6170E-3	-23.0223E-3
952.976E-6	3.29717E-12	108.709E-3	-5.44592E-3	3.23924E-12	78.0754E-3	-25.0302E-3
947.974E-6	3.26352E-12	98.5049E-3	-6.39194E-3	3.24599E-12	82.1005E-3	-21.9913E-3
942.971E-6	3.20220E-12	93.6961E-3	-16.6197E-3	3.19081E-12	91.3957E-3	-21.5208E-3
937.969E-6	3.19194E-12	88.6684E-3	-20.9131E-3	3.05711E-12	92.8505E-3	-26.9310E-3
932.966E-6	3.11389E-12	80.8186E-3	-21.9977E-3	3.14186E-12	76.6488E-3	-19.5153E-3
927.964E-6	3.10595E-12	78.8132E-3	-15.8172E-3	3.13625E-12	63.3439E-3	-15.7267E-3
922.961E-6	3.05102E-12	79.2918E-3	-1.78367E-3	3.08164E-12	71.6544E-3	-30.7721E-3
917.959E-6	3.05163E-12	77.1469E-3	-5.02677E-3	2.98912E-12	80.1707E-3	-34.0700E-3
912.956E-6	3.02227E-12	71.6405E-3	-18.6773E-3	2.93437E-12	75.7340E-3	-22.6539E-3
907.954E-6	2.91495E-12	58.9115E-3	-23.4644E-3	2.96750E-12	65.5322E-3	-13.7064E-3
902.951E-6	2.92701E-12	50.0043E-3	-34.3974E-3	2.95631E-12	47.5850E-3	-7.27570E-3
897.949E-6	2.94241E-12	54.5989E-3	-43.4823E-3	2.85603E-12	31.7736E-3	-4.13307E-3
892.946E-6	2.86456E-12	59.7605E-3	-40.6634E-3	2.78186E-12	37.5921E-3	-13.3758E-3
887.944E-6	2.85887E-12	53.7402E-3	-31.7635E-3	2.84213E-12	51.5094E-3	-26.2728E-3
882.941E-6	2.80900E-12	51.1099E-3	-20.1475E-3	2.85324E-12	57.4813E-3	-25.5900E-3
877.939E-6	2.87176E-12	51.3086E-3	-9.86169E-3	2.82229E-12	55.5760E-3	-19.3380E-3
872.936E-6	2.86377E-12	46.8185E-3	-4.15601E-3	2.73002E-12	47.5508E-3	-14.1196E-3
867.934E-6	2.72297E-12	48.3788E-3	-10.2129E-3	2.72131E-12	53.6842E-3	-13.1533E-3
862.931E-6	2.75904E-12	53.4424E-3	-10.6443E-3	2.77582E-12	61.7088E-3	-17.0668E-3
857.929E-6	2.82824E-12	49.1738E-3	2.83189E-3	2.77524E-12	46.0022E-3	-8.69420E-3
852.926E-6	2.81851E-12	46.0242E-3	6.54980E-3	2.74231E-12	27.1255E-3	290.885E-6
847.924E-6	2.68618E-12	50.6635E-3	1.44772E-3	2.67114E-12	26.5594E-3	-16.5427E-3
842.921E-6	2.67487E-12	52.6228E-3	-6.82025E-3	2.70615E-12	38.0164E-3	-32.5954E-3
837.919E-6	2.65688E-12	40.9512E-3	-25.7488E-3	2.75410E-12	42.7495E-3	-28.3239E-3
832.916E-6	2.67665E-12	23.5738E-3	-35.9438E-3	2.76107E-12	40.4947E-3	-21.5894E-3
827.914E-6	2.66409E-12	24.4270E-3	-30.4297E-3	2.67630E-12	34.1852E-3	-14.7800E-3
822.911E-6	2.59577E-12	38.7581E-3	-27.5098E-3	2.59745E-12	23.2653E-3	-14.4492E-3
817.909E-6	2.58411E-12	56.7253E-3	-27.6927E-3	2.65287E-12	26.4487E-3	-23.2753E-3
812.906E-6	2.57166E-12	57.7823E-3	-27.9636E-3	2.68554E-12	39.3469E-3	-18.2292E-3
807.904E-6	2.59515E-12	37.8002E-3	-26.8937E-3	2.59153E-12	41.4305E-3	3.43852E-3
802.901E-6	2.54747E-12	32.7236E-3	-27.9011E-3	2.57550E-12	35.8138E-3	10.8632E-3
797.899E-6	2.62865E-12	34.7238E-3	-26.8038E-3	2.55466E-12	31.0882E-3	-13.9785E-3
792.896E-6	2.56727E-12	28.8722E-3	-27.3299E-3	2.60786E-12	34.6151E-3	-33.8498E-3
787.894E-6	2.52085E-12	25.7243E-3	-31.5495E-3	2.57761E-12	44.8095E-3	-23.8929E-3
782.891E-6	2.61996E-12	24.0208E-3	-24.2199E-3	2.48476E-12	39.3919E-3	-15.8503E-3
777.889E-6	2.55400E-12	20.5512E-3	-17.3026E-3	2.45072E-12	20.7287E-3	-17.6987E-3
772.886E-6	2.50983E-12	12.2794E-3	-17.3869E-3	2.50377E-12	17.7889E-3	-23.1342E-3
767.884E-6	2.59173E-12	7.90962E-3	-15.1575E-3	2.52757E-12	32.8764E-3	-35.6839E-3
762.881E-6	2.55986E-12	21.9505E-3	-17.5160E-3	2.43758E-12	42.6882E-3	-40.5783E-3
757.879E-6	2.52378E-12	43.1368E-3	-24.3839E-3	2.39326E-12	38.9023E-3	-25.1744E-3
752.876E-6	2.48892E-12	50.6855E-3	-24.6748E-3	2.41081E-12	36.4169E-3	-11.0769E-3
747.874E-6	2.46011E-12	41.2578E-3	-24.1507E-3	2.49533E-12	31.1913E-3	-23.3564E-3
742.871E-6	2.47941E-12	30.4343E-3	-21.0882E-3	2.45794E-12	27.2599E-3	-35.6569E-3
737.869E-6	2.40733E-12	27.6269E-3	-15.9732E-3	2.40118E-12	38.7360E-3	-28.6200E-3
732.866E-6	2.33067E-12	24.2438E-3	-25.9286E-3	2.32894E-12	48.0772E-3	-14.6927E-3
727.864E-6	2.34828E-12	25.1137E-3	-32.7002E-3	2.39714E-12	48.3457E-3	-3.66112E-3
722.861E-6	2.33836E-12	31.5904E-3	-16.7594E-3	2.41261E-12	47.3011E-3	-15.3812E-3
717.859E-6	2.35568E-12	37.5875E-3	-4.92928E-3	2.38599E-12	41.9040E-3	-38.4720E-3
712.856E-6	2.30405E-12	40.0299E-3	-4.98256E-3	2.32973E-12	37.3935E-3	-34.9358E-3
707.854E-6	2.26033E-12	35.4870E-3	-7.15517E-3	2.32933E-12	47.2777E-3	-20.2291E-3
702.851E-6	2.28331E-12	34.6881E-3	-19.7177E-3	2.37503E-12	53.8380E-3	-25.4848E-3
697.849E-6	2.28842E-12	48.9985E-3	-29.8891E-3	2.34581E-12	46.5778E-3	-36.7185E-3
692.846E-6	2.24630E-12	60.7210E-3	-20.4037E-3	2.28791E-12	49.1538E-3	-41.5352E-3
687.844E-6	2.25791E-12	55.1808E-3	-16.3276E-3	2.20507E-12	54.2004E-3	-34.6178E-3
682.841E-6	2.24218E-12	46.0603E-3	-26.3524E-3	2.29304E-12	42.5276E-3	-11.8431E-3
677.839E-6	2.22047E-12	41.2826E-3	-22.5706E-3	2.21401E-12	35.0339E-3	-2.15322E-3
672.836E-6	2.17039E-12	32.7100E-3	-11.3474E-3	2.21331E-12	50.6814E-3	-21.8668E-3
667.834E-6	2.20371E-12	30.4490E-3	-12.3332E-3	2.09895E-12	60.8474E-3	-31.8784E-3
662.831E-6	2.18183E-12	41.2009E-3	-18.2381E-3	2.12845E-12	56.2330E-3	-24.3328E-3
657.829E-6	2.12183E-12	36.4955E-3	-19.7449E-3	2.19370E-12	60.7088E-3	-30.3947E-3
652.826E-6	2.13053E-12	30.3414E-3	-11.6509E-3	2.15631E-12	61.5032E-3	-32.0547E-3
647.824E-6	2.15905E-12	45.7331E-3	136.640E-6	2.06388E-12	47.2174E-3	-25.7325E-3
642.821E-6	2.13158E-12	57.2387E-3	-9.39571E-3	2.07053E-12	39.4586E-3	-31.4218E-3
637.819E-6	2.10508E-12	54.1970E-3	-30.0901E-3	2.04308E-12	41.4673E-3	-18.8921E-3
632.816E-6	2.05618E-12	54.1368E-3	-33.4563E-3	2.08795E-12	43.0057E-3	7.85998E-3
627.814E-6	2.06997E-12	56.9852E-3	-23.2417E-3	2.08157E-12	44.9989E-3	3.57435E-3
622.811E-6	2.09809E-12	52.4624E-3	-14.8116E-3	1.98206E-12	51.3208E-3	-16.7571E-3
617.809E-6	2.01829E-12	51.1829E-3	-7.95329E-3	1.94120E-12	65.1375E-3	-22.9044E-3
612.806E-6	2.05585E-12	61.2108E-3	-731.759E-6	1.98752E-12	79.2416E-3	-24.8289E-3
607.804E-6	2.03985E-12	65.1494E-3	5.41904E-3	1.98630E-12	80.4585E-3	-27.8167E-3
602.801E-6	1.97724E-12	58.4918E-3	10.9903E-3	1.94521E-12	69.2805E-3	-30.1092E-3
597.799E-6	1.91137E-12	58.9216E-3	5.12495E-3	1.91780E-12	61.1092E-3	-37.8197E-3
592.796E-6	1.90417E-12	64.1194E-3	-14.2388E-3	1.86580E-12	62.9173E-3	-36.2411E-3
587.794E-6	1.88993E-12	61.7623E-3	-27.0362E-3	1.86152E-12	64.8602E-3	-18.2796E-3
582.791E-6	1.81587E-12	55.7231E-3	-28.3461E-3	1.82659E-12	64.2885E-3	-6.54506E-3
577.789E-6	1.82021E-12	57.6982E-3	-29.9881E-3	1.83553E-12	52.7330E-3	-13.8688E-3
572.786E-6	1.81649E-12	65.2549E-3	-31.6746E-3	1.71136E-12	36.5436E-3	-29.8616E-3
567.784E-6	1.76694E-12	67.3314E-3	-25.2908E-3	1.71152E-12	47.2204E-3	-39.9963E-3
562.781E-6	1.72229E-12	67.5971E-3	-18.1065E-3	1.76687E-12	73.0094E-3	-34.3309E-3
557.779E-6	1.71790E-12	71.8997E-3	-17.5341E-3	1.65704E-12	78.5444E-3	-11.7362E-3
552.776E-6	1.72841E-12	77.3147E-3	-7.46865E-3	1.60254E-12	73.9366E-3	3.82626E-3
547.774E-6	1.71925E-12	75.5426E-3	356.297E-6	1.61105E-12	67.9322E-3	-9.10168E-3
542.771E-6	1.66219E-12	68.7292E-3	-10.0467E-3	1.62969E-12	57.4986E-3	-26.9765E-3
537.769E-6	1.61144E-12	65.8114E-3	-20.6569E-3	1.66779E-12	62.8834E-3	-25.6711E-3
532.766E-6	1.64881E-12	65.1985E-3	-19.6485E-3	1.55492E-12	78.0510E-3	-18.1944E-3
527.764E-6	1.61355E-12	78.9399E-3	-9.18483E-3	1.56669E-12	72.1921E-3	-9.15070E-3
522.761E-6	1.52845E-12	94.1159E-3	-1.52429E-3	1.52317E-12	69.1460E-3	-5.84206E-3
517.759E-6	1.55146E-12	83.9028E-3	-11.5197E-3	1.54471E-12	86.3173E-3	-15.1541E-3
512.756E-6	1.50317E-12	68.6758E-3	-27.7573E-3	1.50554E-12	95.9909E-3	-18.0509E-3
507.754E-6	1.49684E-12	72.5937E-3	-24.3416E-3	1.39809E-12	96.2864E-3	-8.04952E-3
502.751E-6	1.40785E-12	81.0759E-3	-9.11672E-3	1.43640E-12	89.4601E-3	677.351E-6
497.749E-6	1.36013E-12	77.0201E-3	-8.37897E-3	1.44249E-12	72.5631E-3	-3.46399E-3
492.746E-6	1.43983E-12	77.7092E-3	-12.6526E-3	1.42075E-12	59.1401E-3	-16.1115E-3
487.744E-6	1.38787E-12	79.2205E-3	-9.79985E-3	1.34010E-12	60.0975E-3	-19.4348E-3
482.741E-6	1.29613E-12	64.9360E-3	-11.4506E-3	1.28645E-12	65.0339E-3	-9.74344E-3
477.739E-6	1.30481E-12	58.0451E-3	-15.7864E-3	1.30628E-12	61.5376E-3	-14.3089E-3
472.736E-6	1.24350E-12	61.3388E-3	-13.3082E-3	1.31079E-12	57.1983E-3	-31.6031E-3
467.734E-6	1.26988E-12	60.3509E-3	-13.0778E-3	1.24908E-12	65.6006E-3	-32.8021E-3
462.731E-6	1.25517E-12	63.3752E-3	-19.5203E-3	1.15281E-12	80.2557E-3	-22.9805E-3
457.729E-6	1.19912E-12	62.4727E-3	-25.9880E-3	1.18218E-12	73.4274E-3	-10.5262E-3
452.726E-6	1.17929E-12	55.7790E-3	-24.7688E-3	1.16746E-12	49.3137E-3	2.14744E-3
447.724E-6	1.17964E-12	63.3926E-3	-10.5283E-3	1.17096E-12	47.6549E-3	-2.95619E-3
442.721E-6	1.13903E-12	72.0116E-3	6.83217E-3	1.12223E-12	64.4851E-3	-18.9563E-3
437.719E-6	1.17067E-12	69.8108E-3	3.35058E-3	1.05251E-12	63.3699E-3	-22.9026E-3
432.716E-6	1.14318E-12	73.8040E-3	-12.5914E-3	1.07960E-12	47.9877E-3	-14.6441E-3
427.714E-6	1.09091E-12	82.0614E-3	-11.3207E-3	1.05355E-12	43.9823E-3	-11.7243E-3
422.711E-6	1.03162E-12	85.0873E-3	-1.71292E-3	1.07840E-12	50.6059E-3	-20.6807E-3
417.709E-6	1.03824E-12	87.1000E-3	-3.91871E-3	995.194E-15	62.0803E-3	-28.5577E-3
412.706E-6	981.740E-15	85.8412E-3	-11.3897E-3	927.314E-15	81.7152E-3	-26.7310E-3
407.704E-6	893.823E-15	77.0044E-3	-18.5403E-3	974.825E-15	91.4329E-3	-22.4712E-3
402.701E-6	915.360E-15	63.0712E-3	-25.0354E-3	977.084E-15	75.6451E-3	-16.1167E-3
397.699E-6	940.175E-15	51.4814E-3	-16.6511E-3	883.464E-15	66.4359E-3	-2.53788E-3
392.696E-6	879.218E-15	53.2274E-3	-1.64390E-3	821.958E-15	76.3988E-3	-1.39280E-3
387.694E-6	809.865E-15	72.9003E-3	-6.92930E-3	838.220E-15	80.5524E-3	-13.2285E-3
382.691E-6	828.358E-15	92.0155E-3	-14.3614E-3	885.949E-15	80.3875E-3	-15.9716E-3
377.689E-6	839.781E-15	93.5651E-3	-1.81707E-3	826.963E-15	81.3039E-3	-10.9343E-3
372.686E-6	811.539E-15	90.9880E-3	6.94304E-3	736.352E-15	73.7190E-3	-7.27935E-3
367.684E-6	738.236E-15	90.8497E-3	-2.97930E-3	680.252E-15	69.3489E-3	-10.9362E-3
362.681E-6	750.512E-15	80.7875E-3	-20.9304E-3	716.664E-15	70.4882E-3	-16.3848E-3
357.679E-6	751.541E-15	64.8288E-3	-30.4075E-3	753.590E-15	59.8483E-3	-2.09581E-3
352.676E-6	758.185E-15	68.4538E-3	-23.5870E-3	712.592E-15	49.2447E-3	12.0262E-3
347.674E-6	662.726E-15	72.8933E-3	-17.5669E-3	641.041E-15	55.0553E-3	-4.47412E-3
342.671E-6	674.864E-15	66.7214E-3	-21.9451E-3	570.642E-15	71.1721E-3	-21.6976E-3
337.669E-6	687.524E-15	78.0996E-3	-23.3693E-3	603.147E-15	75.7391E-3	-23.8621E-3
332.666E-6	689.460E-15	83.1358E-3	-18.5133E-3	621.536E-15	72.2902E-3	-19.9577E-3
327.664E-6	644.154E-15	70.2944E-3	-16.3713E-3	542.940E-15	76.2179E-3	-5.67866E-3
322.661E-6	568.226E-15	63.4695E-3	-21.2762E-3	457.081E-15	69.3027E-3	2.43000E-3
317.659E-6	561.216E-15	55.3360E-3	-27.0096E-3	508.604E-15	54.1415E-3	-10.3884E-3
312.656E-6	527.952E-15	42.1369E-3	-26.0839E-3	524.142E-15	52.8077E-3	-27.9886E-3
307.654E-6	471.015E-15	46.6105E-3	-21.0736E-3	548.102E-15	57.8553E-3	-25.0453E-3
302.651E-6	471.965E-15	56.7987E-3	-10.8301E-3	417.260E-15	62.9773E-3	-7.50632E-3
297.649E-6	474.337E-15	50.0103E-3	-7.92356E-3	376.044E-15	61.2424E-3	-4.60129E-3
292.646E-6	434.961E-15	48.2419E-3	-13.3347E-3	457.561E-15	47.8201E-3	-10.5390E-3
287.644E-6	447.952E-15	56.9311E-3	-8.16270E-3	451.388E-15	43.3279E-3	-3.96950E-3
282.641E-6	428.125E-15	57.3944E-3	-2.23093E-3	342.205E-15	45.7076E-3	5.73947E-3
277.639E-6	421.045E-15	53.4261E-3	-4.43058E-3	359.975E-15	36.9746E-3	-703.378E-6
272.636E-6	293.106E-15	51.9405E-3	-8.58405E-3	348.482E-15	29.5146E-3	-17.7392E-3
267.634E-6	350.706E-15	44.7509E-3	-12.1857E-3	405.036E-15	35.1135E-3	-25.6713E-3
262.631E-6	342.876E-15	41.7074E-3	-17.5948E-3	296.140E-15	39.7492E-3	-14.9599E-3
257.629E-6	336.040E-15	46.6546E-3	-26.3818E-3	235.890E-15	42.5757E-3	-2.83261E-3
252.626E-6	268.343E-15	41.0267E-3	-37.2378E-3	232.437E-15	40.1676E-3	-7.43858E-3
247.624E-6	275.877E-15	36.6710E-3	-41.6356E-3	358.109E-15	32.4269E-3	-12.4729E-3
242.621E-6	310.135E-15	41.4231E-3	-26.1739E-3	327.975E-15	33.0584E-3	-6.43856E-3
237.619E-6	290.011E-15	38.8232E-3	-7.23419E-3	212.034E-15	39.0914E-3	-2.19666E-3
232.616E-6	230.318E-15	37.0783E-3	-4.88224E-3	223.953E-15	44.8064E-3	-3.98448E-3
227.614E-6	196.610E-15	41.9708E-3	-6.75292E-3	205.364E-15	41.4100E-3	-4.83096E-3
222.611E-6	264.141E-15	41.0075E-3	-11.6315E-3	198.824E-15	33.1055E-3	-10.6389E-3
217.609E-6	209.148E-15	39.0711E-3	-23.5500E-3	216.088E-15	32.7146E-3	-18.1332E-3
212.606E-6	179.807E-15	44.6497E-3	-30.3684E-3	148.383E-15	41.7466E-3	-20.6162E-3
207.604E-6	163.023E-15	43.3057E-3	-31.2227E-3	136.350E-15	51.6836E-3	-23.0555E-3
202.601E-6	232.864E-15	39.8471E-3	-31.4575E-3	162.090E-15	43.8266E-3	-14.1510E-3
197.599E-6	158.925E-15	48.6966E-3	-28.7633E-3	217.518E-15	23.5250E-3	3.48667E-3
192.596E-6	147.215E-15	52.4155E-3	-18.1042E-3	117.630E-15	17.4321E-3	808.236E-6
187.594E-6	168.124E-15	45.5425E-3	-14.8860E-3	102.999E-15	27.0805E-3	-16.5732E-3
182.591E-6	150.031E-15	38.5599E-3	-25.0771E-3	119.601E-15	31.4905E-3	-14.2108E-3
177.589E-6	115.808E-15	31.8426E-3	-25.9427E-3	99.8427E-15	24.7940E-3	2.75402E-3
172.586E-6	77.7741E-15	24.5503E-3	-19.5726E-3	129.113E-15	26.1825E-3	5.12829E-3
167.584E-6	93.9920E-15	26.9816E-3	-21.4052E-3	35.1890E-15	32.6663E-3	-7.63502E-3
162.581E-6	79.7098E-15	31.5300E-3	-18.6440E-3	30.6114E-15	36.4314E-3	-15.2786E-3
157.579E-6	59.2630E-15	23.9964E-3	-16.2810E-3	88.8215E-15	39.4213E-3	-6.10876E-3
152.576E-6	68.0172E-15	23.9556E-3	-30.3556E-3	80.1196E-15	30.4636E-3	-353.908E-6
147.574E-6	59.4461E-15	34.9919E-3	-29.2967E-3	17.5586E-15	20.3621E-3	-13.1220E-3
142.571E-6	44.6059E-15	31.2308E-3	-14.9252E-3	-23.1780E-15	21.8883E-3	-23.6777E-3
137.569E-6	-29.7262E-15	18.4267E-3	-16.3180E-3	-22.7769E-15	27.4026E-3	-19.1041E-3
132.566E-6	1.37554E-15	15.1302E-3	-21.2595E-3	40.6473E-15	33.7409E-3	-8.85643E-3
127.564E-6	26.6092E-15	15.6354E-3	-25.5269E-3	3.48562E-15	26.8893E-3	-4.82289E-3
122.561E-6	-3.26313E-15	19.3546E-3	-22.2606E-3	-38.5240E-15	11.3116E-3	-6.82818E-3
117.559E-6	-52.4662E-15	24.8416E-3	-2.92000E-3	-54.7855E-15	8.07015E-3	-10.6312E-3
112.556E-6	-6.73341E-15	26.8855E-3	8.13660E-3	2.59625E-15	18.1345E-3	-12.1067E-3
107.554E-6	11.8910E-15	28.4617E-3	1.87748E-3	15.8932E-15	23.0279E-3	-4.26058E-3
102.551E-6	-5.73941E-15	22.3755E-3	-2.22187E-3	-65.9114E-15	14.8120E-3	1.18326E-3
97.5488E-6	-82.7135E-15	8.70385E-3	-7.08777E-3	-75.6683E-15	13.5160E-3	-4.09882E-3
92.5463E-6	-43.0057E-15	9.10388E-3	-16.0439E-3	-78.8334E-15	17.2411E-3	-13.4741E-3
87.5438E-6	-55.4220E-15	22.2039E-3	-16.4142E-3	-62.6416E-15	24.3990E-3	-21.9170E-3
82.5413E-6	-67.1233E-15	23.0726E-3	-10.4794E-3	-50.7572E-15	33.4432E-3	-15.8374E-3
77.5388E-6	-86.1750E-15	25.1528E-3	-11.4434E-3	-83.8993E-15	27.1606E-3	4.01317E-3
72.5363E-6	-83.6639E-15	39.0945E-3	-16.0024E-3	-149.974E-15	15.0449E-3	18.7033E-3
67.5338E-6	-85.2682E-15	27.0459E-3	-14.3518E-3	-89.8633E-15	12.5221E-3	10.8227E-3
62.5313E-6	-99.3586E-15	2.29281E-3	-19.1219E-3	-76.4443E-15	18.4179E-3	-9.61585E-3
57.5288E-6	-80.1761E-15	5.70650E-3	-21.1864E-3	-94.9641E-15	19.8338E-3	-13.1055E-3
52.5263E-6	-126.824E-15	11.1683E-3	-17.3318E-3	-159.461E-15	16.9623E-3	-11.0485E-3
47.5238E-6	-102.375E-15	5.08918E-3	-19.8377E-3	-181.041E-15	12.4986E-3	-15.3737E-3
42.5213E-6	-126.598E-15	11.2691E-3	-18.1507E-3	-67.0449E-15	7.78266E-3	-18.3435E-3
37.5188E-6	-114.373E-15	20.1003E-3	-13.6412E-3	-96.1848E-15	13.8884E-3	-22.4573E-3
32.5163E-6	-95.3129E-15	16.7733E-3	-19.2588E-3	-147.123E-15	15.7738E-3	-14.4066E-3
27.5138E-6	-118.384E-15	13.4213E-3	-26.9636E-3	-188.714E-15	3.74254E-3	6.64642E-3
22.5113E-6	-201.662E-15	15.3449E-3	-17.7975E-3	-146.373E-15	8.50242E-3	4.67077E-3
17.5088E-6	-167.622E-15	15.7816E-3	-9.60462E-3	-74.8922E-15	25.7033E-3	-17.9663E-3
12.5063E-6	-139.685E-15	12.6062E-3	-9.64236E-3	-163.341E-15	22.8774E-3	-28.6925E-3
7.50375E-6	-147.603E-15	12.2712E-3	-2.10508E-3	-241.510E-15	12.1517E-3	-31.5122E-3
2.50125E-6	-183.064E-15	12.7762E-3	-1.93509E-3	-239.399E-15	14.0207E-3	-31.4065E-3
-2.50125E-6	-175.609E-15	12.3885E-3	-10.4433E-3	-158.833E-15	17.0827E-3	-32.3883E-3
-7.50375E-6	-168.511E-15	12.4563E-3	-10.6821E-3	-190.449E-15	4.42555E-3	-35.8021E-3
-12.5063E-6	-178.373E-15	16.5821E-3	-11.6567E-3	-195.977E-15	372.236E-6	-34.4004E-3
-17.5088E-6	-221.342E-15	29.7147E-3	-18.5194E-3	-246.262E-15	21.3552E-3	-25.2701E-3
-22.5113E-6	-244.021E-15	33.2829E-3	-14.0852E-3	-241.065E-15	30.8538E-3	-16.1613E-3
-27.5138E-6	-192.751E-15	18.8099E-3	-5.68744E-3	-196.213E-15	20.2220E-3	-20.8317E-3
-32.5163E-6	-198.218E-15	7.16181E-3	-11.5874E-3	-204.505E-15	13.4235E-3	-26.4743E-3
-37.5188E-6	-212.396E-15	3.05455E-3	-16.4377E-3	-249.688E-15	16.7499E-3	-24.9268E-3
-42.5213E-6	-272.742E-15	3.74145E-3	-11.2721E-3	-289.692E-15	21.0403E-3	-21.7702E-3
-47.5238E-6	-261.302E-15	9.94392E-3	-9.16408E-3	-296.180E-15	19.1266E-3	-16.7445E-3
-52.5263E-6	-267.833E-15	12.8608E-3	-5.40210E-3	-195.672E-15	20.6051E-3	-17.2665E-3
-57.5288E-6	-279.857E-15	4.13882E-3	4.95388E-3	-278.436E-15	25.9318E-3	-23.8157E-3
-62.5313E-6	-265.339E-15	-7.07954E-3	-2.45831E-3	-325.816E-15	28.8312E-3	-21.1427E-3
-67.5338E-6	-260.265E-15	4.42948E-3	-15.7964E-3	-321.971E-15	31.1414E-3	-9.11158E-3
-72.5363E-6	-299.554E-15	22.8804E-3	-14.6697E-3	-259.471E-15	34.1975E-3	-891.871E-6
-77.5388E-6	-303.617E-15	24.3495E-3	-13.6570E-3	-237.307E-15	33.8689E-3	-3.22757E-3
-82.5413E-6	-271.748E-15	36.7328E-3	-11.2134E-3	-387.924E-15	32.7951E-3	-9.28110E-3
-87.5438E-6	-328.223E-15	50.5784E-3	-4.54494E-3	-388.465E-15	37.4969E-3	-10.0976E-3
-92.5463E-6	-408.929E-15	35.1067E-3	-2.51242E-3	-344.354E-15	38.9283E-3	-11.8514E-3
-97.5488E-6	-338.712E-15	19.1984E-3	-9.13967E-3	-303.390E-15	32.6821E-3	-12.9268E-3
-102.551E-6	-328.441E-15	21.6966E-3	-16.5701E-3	-362.786E-15	29.6318E-3	-8.94355E-3
-107.554E-6	-364.870E-15	23.9527E-3	-22.4329E-3	-434.843E-15	26.9360E-3	-11.9995E-3
-112.556E-6	-406.069E-15	24.8542E-3	-27.2158E-3	-397.376E-15	19.6177E-3	-22.4568E-3
-117.559E-6	-424.816E-15	27.3130E-3	-31.4292E-3	-318.693E-15	19.9918E-3	-15.2202E-3
-122.561E-6	-367.556E-15	23.9224E-3	-39.8308E-3	-313.801E-15	26.3456E-3	2.71047E-3
-127.564E-6	-442.821E-15	28.5216E-3	-37.4639E-3	-463.137E-15	30.4953E-3	-1.93276E-3
-132.566E-6	-442.158E-15	41.6832E-3	-14.5679E-3	-462.047E-15	35.8855E-3	-9.44308E-3
-137.569E-6	-428.608E-15	47.3599E-3	-212.760E-6	-453.145E-15	42.0921E-3	-5.07743E-3
-142.571E-6	-428.059E-15	47.4552E-3	-8.29844E-3	-435.593E-15	46.9746E-3	-5.81969E-3
-147.574E-6	-414.483E-15	50.2089E-3	-16.9465E-3	-517.327E-15	51.5630E-3	-7.56756E-3
-152.576E-6	-529.752E-15	51.0381E-3	-16.1525E-3	-541.035E-15	46.2508E-3	-8.49578E-3
-157.579E-6	-521.373E-15	46.8833E-3	-9.97110E-3	-479.599E-15	41.5567E-3	-16.1421E-3
-162.581E-6	-538.533E-15	49.0447E-3	-7.74334E-3	-492.861E-15	49.2600E-3	-23.6736E-3
-167.584E-6	-518.958E-15	48.7414E-3	-6.44046E-3	-523.945E-15	50.6186E-3	-20.5790E-3
-172.586E-6	-608.732E-15	43.8841E-3	-7.34299E-3	-572.861E-15	43.7977E-3	-13.0790E-3
-177.589E-6	-606.195E-15	50.3403E-3	-15.7278E-3	-665.460E-15	49.7467E-3	-9.72228E-3
-182.591E-6	-615.420E-15	54.0620E-3	-21.5073E-3	-610.266E-15	63.9787E-3	-16.2028E-3
-187.594E-6	-616.414E-15	44.1745E-3	-24.5172E-3	-602.314E-15	64.5020E-3	-23.3420E-3
-192.596E-6	-655.188E-15	44.5751E-3	-20.7840E-3	-633.530E-15	59.8861E-3	-8.50592E-3
-197.599E-6	-678.983E-15	49.4915E-3	-17.1885E-3	-690.092E-15	61.9413E-3	6.39499E-3
-202.601E-6	-634.053E-15	49.4187E-3	-23.6967E-3	-739.565E-15	61.5034E-3	-7.59145E-3
-207.604E-6	-766.778E-15	61.0846E-3	-13.7253E-3	-706.667E-15	60.6475E-3	-28.4954E-3
-212.606E-6	-771.582E-15	60.2879E-3	5.61843E-3	-685.593E-15	68.8243E-3	-32.1630E-3
-217.609E-6	-720.426E-15	46.4712E-3	-4.69234E-3	-770.405E-15	76.5677E-3	-29.9102E-3
-222.611E-6	-741.143E-15	46.3996E-3	-24.0549E-3	-878.438E-15	74.5988E-3	-29.9597E-3
-227.614E-6	-860.580E-15	49.5454E-3	-20.3302E-3	-857.023E-15	73.1564E-3	-25.0202E-3
-232.616E-6	-841.128E-15	53.7585E-3	-19.8153E-3	-829.112E-15	85.1603E-3	-24.7396E-3
-237.619E-6	-825.206E-15	67.6001E-3	-31.2094E-3	-874.113E-15	103.769E-3	-29.4667E-3
-242.621E-6	-879.946E-15	80.7022E-3	-26.7758E-3	-1.00298E-12	106.876E-3	-29.1526E-3
-247.624E-6	-996.680E-15	78.2797E-3	-11.4295E-3	-961.131E-15	103.348E-3	-28.5583E-3
-252.626E-6	-974.428E-15	83.9837E-3	-5.70040E-3	-896.670E-15	101.970E-3	-24.5850E-3
-257.629E-6	-967.008E-15	110.130E-3	-1.89474E-3	-980.471E-15	96.8239E-3	-14.3901E-3
-262.631E-6	-1.02206E-12	120.444E-3	-4.86486E-3	-1.04192E-12	98.5070E-3	-13.9724E-3
-267.634E-6	-1.10663E-12	110.345E-3	-19.9363E-3	-1.10176E-12	99.8165E-3	-20.0628E-3
-272.636E-6	-1.09745E-12	99.1994E-3	-26.6581E-3	-1.11234E-12	100.208E-3	-11.2197E-3
-277.639E-6	-1.09618E-12	91.6273E-3	-24.2853E-3	-1.06018E-12	106.150E-3	-1.43950E-3
-282.641E-6	-1.17250E-12	87.8812E-3	-23.1862E-3	-1.15621E-12	102.622E-3	-11.9835E-3
-287.644E-6	-1.18405E-12	94.7829E-3	-25.5498E-3	-1.21759E-12	105.854E-3	-21.4186E-3
-292.646E-6	-1.29184E-12	103.329E-3	-27.5478E-3	-1.29458E-12	125.074E-3	-20.5575E-3
-297.649E-6	-1.23743E-12	105.330E-3	-33.7803E-3	-1.31421E-12	135.205E-3	-20.2064E-3
-302.651E-6	-1.28559E-12	107.451E-3	-40.3912E-3	-1.26315E-12	132.588E-3	-19.8860E-3
-307.654E-6	-1.35887E-12	108.428E-3	-36.9592E-3	-1.33479E-12	127.838E-3	-24.4787E-3
-312.656E-6	-1.34786E-12	115.578E-3	-28.1737E-3	-1.44054E-12	133.371E-3	-29.6267E-3
-317.659E-6	-1.40416E-12	126.934E-3	-7.27965E-3	-1.41931E-12	138.943E-3	-25.6848E-3
-322.661E-6	-1.44048E-12	120.274E-3	13.9572E-3	-1.48045E-12	130.360E-3	-19.7643E-3
-327.664E-6	-1.54772E-12	112.410E-3	4.48294E-3	-1.45684E-12	127.223E-3	-21.6291E-3
-332.666E-6	-1.53556E-12	127.251E-3	-6.12681E-3	-1.59056E-12	126.539E-3	-22.9477E-3
-337.669E-6	-1.57419E-12	129.648E-3	6.65289E-3	-1.68673E-12	122.799E-3	-20.8587E-3
-342.671E-6	-1.68789E-12	122.699E-3	806.649E-6	-1.68429E-12	133.774E-3	-22.0213E-3
-347.674E-6	-1.70433E-12	138.996E-3	-22.0428E-3	-1.63213E-12	149.196E-3	-15.7684E-3
-352.676E-6	-1.62375E-12	146.677E-3	-28.5411E-3	-1.75065E-12	156.167E-3	-11.4904E-3
-357.679E-6	-1.74552E-12	131.655E-3	-23.8547E-3	-1.87459E-12	164.067E-3	-21.1062E-3
-362.681E-6	-1.82028E-12	129.672E-3	-18.5510E-3	-1.90724E-12	167.188E-3	-23.6469E-3
-367.684E-6	-1.88609E-12	133.952E-3	-13.4043E-3	-1.85562E-12	152.873E-3	-14.8452E-3
-372.686E-6	-1.87650E-12	127.879E-3	-13.1549E-3	-1.87622E-12	137.437E-3	-14.9135E-3
-377.689E-6	-1.91035E-12	131.930E-3	-9.87180E-3	-2.00516E-12	131.754E-3	-28.8835E-3
-382.691E-6	-2.04192E-12	145.626E-3	2.10656E-3	-2.09231E-12	127.099E-3	-36.3692E-3
-387.694E-6	-2.04789E-12	155.908E-3	2.70016E-3	-2.04834E-12	128.902E-3	-31.2136E-3
-392.696E-6	-2.08359E-12	156.553E-3	-17.7514E-3	-2.08999E-12	148.213E-3	-21.7008E-3
-397.699E-6	-2.15605E-12	148.117E-3	-30.3301E-3	-2.16229E-12	165.990E-3	-15.9917E-3
-402.701E-6	-2.24428E-12	140.746E-3	-21.8070E-3	-2.24359E-12	163.993E-3	-16.3210E-3
-407.704E-6	-2.28952E-12	137.330E-3	-13.6203E-3	-2.32768E-12	157.179E-3	-15.2980E-3
-412.706E-6	-2.30194E-12	137.186E-3	-12.7572E-3	-2.32787E-12	155.034E-3	-14.9946E-3
-417.709E-6	-2.35612E-12	141.352E-3	-15.4239E-3	-2.33346E-12	158.542E-3	-13.2198E-3
-422.711E-6	-2.49267E-12	154.201E-3	-13.1626E-3	-2.44035E-12	161.671E-3	-7.59991E-3
-427.714E-6	-2.55145E-12	166.624E-3	-3.52721E-3	-2.57471E-12	165.169E-3	-5.51812E-3
-432.716E-6	-2.56602E-12	164.467E-3	-2.95288E-3	-2.62737E-12	172.824E-3	-3.26044E-3
-437.719E-6	-2.61973E-12	157.146E-3	-14.0572E-3	-2.63654E-12	170.356E-3	-6.35970E-3
-442.721E-6	-2.72507E-12	163.966E-3	-24.3732E-3	-2.67693E-12	160.575E-3	-12.4149E-3
-447.724E-6	-2.68140E-12	173.989E-3	-38.1471E-3	-2.80469E-12	151.980E-3	-15.6690E-3
-452.726E-6	-2.74331E-12	173.279E-3	-48.4314E-3	-2.90739E-12	145.551E-3	-19.7350E-3
-457.729E-6	-2.85667E-12	173.023E-3	-37.2182E-3	-2.90095E-12	154.532E-3	-19.9843E-3
-462.731E-6	-2.86756E-12	171.104E-3	-11.4292E-3	-2.88396E-12	171.682E-3	-25.3194E-3
-467.734E-6	-2.87712E-12	151.371E-3	-1.79823E-3	-3.00731E-12	178.918E-3	-26.2400E-3
-472.736E-6	-2.94595E-12	129.876E-3	-7.57026E-3	-3.16478E-12	175.075E-3	-22.2177E-3
-477.739E-6	-3.02574E-12	133.142E-3	-4.92136E-3	-3.15003E-12	166.383E-3	-21.1417E-3
-482.741E-6	-3.07364E-12	154.321E-3	-6.20219E-3	-3.07882E-12	158.899E-3	-20.4391E-3
-487.744E-6	-3.08575E-12	173.012E-3	-10.3424E-3	-3.14436E-12	149.305E-3	-25.1454E-3
-492.746E-6	-3.13852E-12	175.066E-3	-5.10856E-3	-3.33678E-12	144.891E-3	-22.5205E-3
-497.749E-6	-3.29536E-12	164.869E-3	-4.30713E-3	-3.45265E-12	154.762E-3	-8.11556E-3
-502.751E-6	-3.29562E-12	156.620E-3	-7.34024E-3	-3.37090E-12	161.786E-3	-2.56113E-3
-507.754E-6	-3.35988E-12	156.323E-3	-5.15898E-3	-3.34259E-12	161.536E-3	-4.56210E-3
-512.756E-6	-3.45270E-12	150.391E-3	-10.3071E-3	-3.47268E-12	161.358E-3	-3.73118E-3
-517.759E-6	-3.60393E-12	151.905E-3	-17.8642E-3	-3.66516E-12	153.596E-3	-7.97519E-3
-522.761E-6	-3.58188E-12	168.315E-3	-12.2077E-3	-3.64703E-12	150.143E-3	-11.8673E-3
-527.764E-6	-3.58548E-12	165.116E-3	-9.97818E-3	-3.60442E-12	158.081E-3	-11.7826E-3
-532.766E-6	-3.60629E-12	159.753E-3	-19.7732E-3	-3.61493E-12	162.063E-3	-19.2410E-3
-537.769E-6	-3.77864E-12	165.564E-3	-28.6123E-3	-3.81251E-12	162.079E-3	-26.5743E-3
-542.771E-6	-3.77017E-12	155.742E-3	-30.4075E-3	-3.92934E-12	162.695E-3	-22.6122E-3
-547.774E-6	-3.72186E-12	144.595E-3	-25.4850E-3	-3.82382E-12	162.713E-3	-10.8368E-3
-552.776E-6	-3.77510E-12	153.379E-3	-12.2889E-3	-3.78293E-12	148.269E-3	1.27944E-3
-557.779E-6	-3.80462E-12	164.500E-3	-3.15807E-3	-3.89191E-12	123.121E-3	-8.18794E-3
-562.781E-6	-3.89164E-12	163.507E-3	-16.6180E-3	-4.00611E-12	115.159E-3	-28.9894E-3
-567.784E-6	-3.90848E-12	150.341E-3	-28.1515E-3	-3.99554E-12	120.096E-3	-24.7455E-3
-572.786E-6	-3.95253E-12	129.838E-3	-19.5090E-3	-4.04865E-12	132.287E-3	-14.8990E-3
-577.789E-6	-4.04748E-12	121.230E-3	-16.6040E-3	-4.02202E-12	141.970E-3	-23.3513E-3
-582.791E-6	-4.08172E-12	130.827E-3	-16.6077E-3	-4.13128E-12	129.756E-3	-27.0431E-3
-587.794E-6	-4.16047E-12	134.687E-3	-11.4358E-3	-4.21468E-12	125.599E-3	-19.1801E-3
-592.796E-6	-4.25568E-12	138.006E-3	-17.2027E-3	-4.17164E-12	143.059E-3	-28.4509E-3
-597.799E-6	-4.27813E-12	146.650E-3	-22.4591E-3	-4.20426E-12	137.815E-3	-49.1650E-3
-602.801E-6	-4.30504E-12	134.486E-3	-11.3170E-3	-4.23662E-12	112.782E-3	-43.5428E-3
-607.804E-6	-4.40542E-12	118.801E-3	-7.96371E-3	-4.37816E-12	105.259E-3	-22.6383E-3
-612.806E-6	-4.47679E-12	123.147E-3	-23.4804E-3	-4.40315E-12	103.921E-3	-14.0931E-3
-617.809E-6	-4.44938E-12	125.896E-3	-36.6044E-3	-4.40245E-12	101.118E-3	-20.8282E-3
-622.811E-6	-4.39199E-12	112.331E-3	-39.5931E-3	-4.39838E-12	100.519E-3	-32.4798E-3
-627.814E-6	-4.50612E-12	107.707E-3	-40.7152E-3	-4.57854E-12	102.253E-3	-34.9417E-3
-632.816E-6	-4.54273E-12	113.665E-3	-35.2756E-3	-4.59494E-12	114.967E-3	-26.0977E-3
-637.819E-6	-4.54698E-12	107.053E-3	-22.2198E-3	-4.55499E-12	126.960E-3	-15.4685E-3
-642.821E-6	-4.47596E-12	102.473E-3	-15.9011E-3	-4.57531E-12	116.727E-3	-14.1694E-3
-647.824E-6	-4.52603E-12	103.803E-3	-12.5240E-3	-4.69695E-12	97.4745E-3	-16.2160E-3
-652.826E-6	-4.68255E-12	98.2689E-3	-14.0176E-3	-4.78038E-12	94.6432E-3	-13.2572E-3
-657.829E-6	-4.67826E-12	96.6110E-3	-20.7533E-3	-4.76295E-12	92.2494E-3	-3.89255E-3
-662.831E-6	-4.69988E-12	100.603E-3	-14.5123E-3	-4.73641E-12	83.8721E-3	1.64525E-3
-667.834E-6	-4.74397E-12	96.7624E-3	-11.3742E-3	-4.75200E-12	86.0126E-3	-3.71184E-3
-672.836E-6	-4.84432E-12	88.2361E-3	-25.5234E-3	-4.83077E-12	80.1388E-3	-7.59086E-3
-677.839E-6	-4.91231E-12	87.7391E-3	-27.9477E-3	-4.90671E-12	64.4261E-3	-14.1788E-3
-682.841E-6	-4.92622E-12	88.3375E-3	-15.9589E-3	-4.86461E-12	69.6759E-3	-25.0799E-3
-687.844E-6	-5.00986E-12	86.9740E-3	-8.48679E-3	-4.83891E-12	77.9127E-3	-26.8431E-3
-692.846E-6	-4.99535E-12	92.7733E-3	-682.504E-6	-4.91071E-12	71.5953E-3	-20.9534E-3
-697.849E-6	-5.07262E-12	91.7879E-3	3.18216E-3	-4.98286E-12	81.0410E-3	-13.3883E-3
-702.851E-6	-5.09898E-12	81.6091E-3	-9.98365E-3	-4.97841E-12	92.0732E-3	-10.6403E-3
-707.854E-6	-5.16052E-12	84.5766E-3	-19.9364E-3	-4.96727E-12	76.1185E-3	-6.82363E-3
-712.856E-6	-5.06460E-12	90.4397E-3	-3.81595E-3	-4.95700E-12	67.1306E-3	-2.41983E-3
-717.859E-6	-5.03751E-12	89.6464E-3	12.0293E-3	-5.02689E-12	74.2023E-3	-16.9578E-3
-722.861E-6	-5.14055E-12	90.8951E-3	8.57224E-3	-5.12553E-12	65.3210E-3	-31.3520E-3
-727.864E-6	-5.23202E-12	76.2930E-3	-1.42311E-3	-5.10844E-12	45.0156E-3	-26.0922E-3
-732.866E-6	-5.13092E-12	59.7391E-3	-17.4560E-3	-5.11627E-12	44.0108E-3	-22.3698E-3
-737.869E-6	-5.11578E-12	66.9550E-3	-29.7369E-3	-5.14499E-12	50.2465E-3	-26.1945E-3
-742.871E-6	-5.16456E-12	76.5370E-3	-27.3234E-3	-5.21662E-12	53.5161E-3	-29.9152E-3
-747.874E-6	-5.34119E-12	77.4638E-3	-25.9081E-3	-5.23918E-12	62.6428E-3	-25.1588E-3
-752.876E-6	-5.25562E-12	70.9997E-3	-22.7042E-3	-5.20162E-12	64.8346E-3	-9.72820E-3
-757.879E-6	-5.22979E-12	63.0893E-3	-12.8647E-3	-5.29169E-12	63.6847E-3	276.385E-6
-762.881E-6	-5.29774E-12	61.0544E-3	-11.6973E-3	-5.31044E-12	63.4903E-3	-14.9807E-3
-767.884E-6	-5.38627E-12	69.2776E-3	-13.0404E-3	-5.40650E-12	57.0040E-3	-36.4649E-3
-772.886E-6	-5.46062E-12	74.1456E-3	-12.0470E-3	-5.36377E-12	45.6156E-3	-30.8008E-3
-777.889E-6	-5.39110E-12	68.1874E-3	-20.5963E-3	-5.35879E-12	41.5402E-3	-15.8221E-3
-782.891E-6	-5.37968E-12	65.5381E-3	-23.4932E-3	-5.39003E-12	41.3009E-3	-15.6287E-3
-787.894E-6	-5.48004E-12	63.0857E-3	-11.6392E-3	-5.40909E-12	35.5636E-3	-25.5447E-3
-792.896E-6	-5.53788E-12	58.4398E-3	-16.6749E-3	-5.49246E-12	39.3696E-3	-31.6659E-3
-797.899E-6	-5.47682E-12	57.2747E-3	-31.9678E-3	-5.46050E-12	50.9077E-3	-27.8658E-3
-802.901E-6	-5.44073E-12	52.9486E-3	-23.1238E-3	-5.42514E-12	55.2784E-3	-15.7402E-3
-807.904E-6	-5.49170E-12	46.8551E-3	-15.4049E-3	-5.51725E-12	56.5455E-3	-8.81321E-3
-812.906E-6	-5.53876E-12	58.1484E-3	-17.8690E-3	-5.53342E-12	56.2803E-3	-13.5306E-3
-817.909E-6	-5.56668E-12	70.3978E-3	-10.5499E-3	-5.57552E-12	53.4876E-3	-4.83859E-3
-822.911E-6	-5.55943E-12	61.6288E-3	-9.71209E-3	-5.50188E-12	56.9027E-3	4.44092E-3
-827.914E-6	-5.52779E-12	53.4088E-3	-18.0213E-3	-5.57060E-12	61.2879E-3	-9.02104E-3
-832.916E-6	-5.57387E-12	51.8008E-3	-16.7232E-3	-5.63853E-12	52.5013E-3	-13.1166E-3
-837.919E-6	-5.61572E-12	44.7954E-3	-8.89069E-3	-5.63448E-12	50.5474E-3	-4.98655E-3
-842.921E-6	-5.67175E-12	49.4012E-3	-12.5182E-3	-5.64686E-12	59.9840E-3	-11.6432E-3
-847.924E-6	-5.62356E-12	63.6736E-3	-15.3323E-3	-5.65900E-12	58.6059E-3	-16.2880E-3
-852.926E-6	-5.66558E-12	66.2269E-3	-3.67563E-3	-5.72923E-12	55.5131E-3	-12.7484E-3
-857.929E-6	-5.70774E-12	58.7351E-3	2.06469E-3	-5.80330E-12	62.3396E-3	-21.1535E-3
-862.931E-6	-5.77497E-12	49.6720E-3	-8.22076E-3	-5.78920E-12	61.9242E-3	-27.3684E-3
-867.934E-6	-5.79361E-12	50.1008E-3	-14.4967E-3	-5.79398E-12	55.1277E-3	-23.0725E-3
-872.936E-6	-5.72694E-12	61.4655E-3	-8.10461E-3	-5.82821E-12	48.4815E-3	-26.9071E-3
-877.939E-6	-5.83555E-12	65.5135E-3	-6.02936E-3	-5.86435E-12	46.0795E-3	-28.8035E-3
-882.941E-6	-5.91022E-12	52.6167E-3	-2.93499E-3	-5.89496E-12	62.3482E-3	-12.9591E-3
-887.944E-6	-5.82114E-12	44.7450E-3	74.4362E-6	-5.84796E-12	78.2620E-3	-870.780E-6
-892.946E-6	-5.80924E-12	52.6562E-3	-10.9115E-3	-5.89732E-12	75.6940E-3	-8.61649E-3
-897.949E-6	-5.77200E-12	57.7887E-3	-23.7220E-3	-5.93266E-12	71.5969E-3	-16.5238E-3
-902.951E-6	-5.90155E-12	54.6083E-3	-37.1560E-3	-5.94141E-12	75.5738E-3	-16.4103E-3
-907.954E-6	-5.89540E-12	63.5663E-3	-42.3664E-3	-5.98675E-12	76.6599E-3	-15.7354E-3
-912.956E-6	-5.86084E-12	83.6653E-3	-29.5639E-3	-5.95814E-12	69.5806E-3	-9.36380E-3
-917.959E-6	-5.91315E-12	86.7170E-3	-18.0272E-3	-6.04503E-12	66.5694E-3	-8.24625E-3
-922.961E-6	-5.99209E-12	78.7223E-3	-15.9177E-3	-5.99573E-12	67.5299E-3	-19.5563E-3
-927.964E-6	-5.99465E-12	77.2391E-3	-10.1284E-3	-6.06310E-12	67.3935E-3	-11.3093E-3
-932.966E-6	-6.03392E-12	73.5990E-3	-828.465E-6	-6.06728E-12	73.1274E-3	7.09256E-3
-937.969E-6	-6.09802E-12	72.1156E-3	-464.042E-6	-6.11219E-12	77.7392E-3	-6.55108E-3
-942.971E-6	-6.17657E-12	66.7098E-3	-7.54039E-3	-6.12321E-12	75.6200E-3	-24.0750E-3
-947.974E-6	-6.22661E-12	59.7267E-3	-13.1631E-3	-6.21867E-12	77.2328E-3	-18.3481E-3
-952.976E-6	-6.16177E-12	63.1586E-3	-12.4149E-3	-6.22675E-12	85.2088E-3	-10.4741E-3
-957.979E-6	-6.25797E-12	74.7916E-3	-4.37189E-3	-6.20530E-12	84.1948E-3	-9.61027E-3
-962.981E-6	-6.19811E-12	89.4656E-3	3.57549E-3	-6.25715E-12	85.8178E-3	-17.6460E-3
-967.984E-6	-6.30032E-12	98.3756E-3	-2.56446E-3	-6.34284E-12	98.5457E-3	-31.3937E-3
-972.986E-6	-6.24840E-12	100.585E-3	-16.2021E-3	-6.39241E-12	109.430E-3	-21.5808E-3
-977.989E-6	-6.26883E-12	93.5277E-3	-18.9539E-3	-6.27313E-12	125.382E-3	-1.94563E-3
-982.991E-6	-6.28464E-12	90.3636E-3	-16.8131E-3	-6.32063E-12	136.617E-3	-12.9860E-3
-987.994E-6	-6.24223E-12	103.834E-3	-15.0411E-3	-6.34471E-12	126.329E-3	-29.8553E-3
-992.997E-6	-6.32671E-12	117.149E-3	-15.1302E-3	-6.41962E-12	123.394E-3	-30.9717E-3
-997.999E-6	-6.32694E-12	118.252E-3	-22.5611E-3	-6.42189E-12	142.350E-3	-29.6149E-3
-1.00300E-3	-6.41736E-12	118.408E-3	-32.2344E-3	-6.44636E-12	144.049E-3	-23.4223E-3
-1.00800E-3	-6.42413E-12	126.238E-3	-35.5177E-3	-6.49929E-12	133.306E-3	-10.4119E-3
-1.01301E-3	-6.57122E-12	129.872E-3	-32.2990E-3	-6.56307E-12	136.335E-3	-4.92957E-3
-1.01801E-3	-6.66444E-12	140.666E-3	-22.1317E-3	-6.65809E-12	140.942E-3	-12.8633E-3
-1.02301E-3	-6.73761E-12	157.828E-3	-12.9141E-3	-6.68823E-12	152.533E-3	-20.9554E-3
-1.02801E-3	-6.76044E-12	152.443E-3	-18.7888E-3	-6.73435E-12	171.642E-3	-21.1258E-3
-1.03302E-3	-6.79996E-12	153.156E-3	-24.2653E-3	-6.77088E-12	181.725E-3	-20.9012E-3
-1.03802E-3	-6.97765E-12	165.885E-3	-23.1638E-3	-6.90203E-12	189.824E-3	-20.4982E-3
-1.04302E-3	-6.96312E-12	164.756E-3	-29.6961E-3	-7.03568E-12	199.043E-3	-25.9817E-3
-1.04802E-3	-7.05720E-12	166.756E-3	-33.7819E-3	-7.01103E-12	196.037E-3	-40.2524E-3
-1.05303E-3	-7.06313E-12	184.490E-3	-30.9778E-3	-7.13859E-12	195.817E-3	-34.4522E-3
-1.05803E-3	-7.16827E-12	194.994E-3	-38.5274E-3	-7.20534E-12	225.935E-3	-19.9787E-3
-1.06303E-3	-7.25726E-12	195.896E-3	-37.8309E-3	-7.33440E-12	251.802E-3	-21.3440E-3
-1.06803E-3	-7.26138E-12	206.051E-3	-10.9263E-3	-7.38263E-12	249.738E-3	-21.6468E-3
-1.07304E-3	-7.31318E-12	214.349E-3	6.88841E-3	-7.51832E-12	257.443E-3	-13.1578E-3
-1.07804E-3	-7.41866E-12	215.880E-3	3.17547E-3	-7.59678E-12	272.961E-3	-8.11014E-3
-1.08304E-3	-7.49355E-12	219.357E-3	2.74970E-3	-7.73233E-12	281.298E-3	-9.00496E-3
-1.08804E-3	-7.58767E-12	223.906E-3	-654.105E-6	-7.80612E-12	293.375E-3	-8.89428E-3
-1.09305E-3	-7.74545E-12	235.165E-3	-19.2380E-3	-7.82303E-12	298.901E-3	-11.1702E-3
-1.09805E-3	-7.88828E-12	251.158E-3	-31.6247E-3	-7.93378E-12	300.757E-3	-14.5437E-3
-1.10305E-3	-8.03574E-12	255.179E-3	-23.9317E-3	-8.05478E-12	320.042E-3	-16.3805E-3
-1.10805E-3	-8.09619E-12	254.764E-3	-15.0119E-3	-8.15641E-12	340.927E-3	-25.1507E-3
-1.11306E-3	-8.25007E-12	266.719E-3	-11.9453E-3	-8.17022E-12	338.782E-3	-25.1939E-3
-1.11806E-3	-8.43757E-12	283.028E-3	-8.56352E-3	-8.30439E-12	339.216E-3	-19.0708E-3
-1.12306E-3	-8.49944E-12	303.887E-3	-14.0855E-3	-8.39281E-12	355.294E-3	-27.9684E-3
-1.12806E-3	-8.63706E-12	319.381E-3	-20.1943E-3	-8.48915E-12	373.665E-3	-28.4688E-3
-1.13307E-3	-8.69658E-12	324.980E-3	-17.3497E-3	-8.67044E-12	394.315E-3	-16.8774E-3
-1.13807E-3	-8.85882E-12	350.089E-3	-13.0615E-3	-8.82000E-12	407.324E-3	-22.7377E-3
-1.14307E-3	-8.91200E-12	384.956E-3	-6.63359E-3	-8.88636E-12	418.483E-3	-29.0754E-3
-1.14807E-3	-8.98368E-12	393.555E-3	-3.53727E-3	-9.06127E-12	437.418E-3	-13.1746E-3
-1.15308E-3	-9.12177E-12	393.477E-3	-17.7945E-3	-9.23025E-12	452.841E-3	-7.34283E-3
-1.15808E-3	-9.20744E-12	410.133E-3	-28.5884E-3	-9.41985E-12	466.321E-3	-22.6036E-3
-1.16308E-3	-9.34543E-12	419.724E-3	-19.8043E-3	-9.57446E-12	486.046E-3	-23.4988E-3
-1.16808E-3	-9.46487E-12	420.698E-3	-10.0929E-3	-9.60020E-12	504.336E-3	-15.9636E-3
-1.17309E-3	-9.60762E-12	437.424E-3	-9.15629E-3	-9.83159E-12	511.743E-3	-23.6454E-3
-1.17809E-3	-9.72654E-12	454.277E-3	-20.7124E-3	-10.1067E-12	521.627E-3	-21.8615E-3
-1.18309E-3	-9.94566E-12	458.039E-3	-34.0481E-3	-10.1767E-12	549.264E-3	-13.4209E-3
-1.18809E-3	-10.1123E-12	473.105E-3	-33.5361E-3	-10.2474E-12	570.456E-3	-18.0837E-3
-1.19310E-3	-10.4000E-12	498.907E-3	-22.6460E-3	-10.4323E-12	584.031E-3	-20.6971E-3
-1.19810E-3	-10.6119E-12	513.503E-3	-15.1881E-3	-10.7526E-12	611.939E-3	-21.3940E-3
-1.20310E-3	-10.7801E-12	531.890E-3	-13.6012E-3	-10.8836E-12	629.634E-3	-34.2941E-3
-1.20810E-3	-11.0624E-12	560.314E-3	-14.3498E-3	-10.9375E-12	636.357E-3	-26.7920E-3
-1.21311E-3	-11.2830E-12	582.743E-3	-26.0971E-3	-11.1480E-12	664.643E-3	-1.32131E-3
-1.21811E-3	-11.3942E-12	603.229E-3	-38.4107E-3	-11.4805E-12	689.693E-3	-7.12260E-3
-1.22311E-3	-11.6691E-12	620.487E-3	-31.2382E-3	-11.6394E-12	694.066E-3	-16.5071E-3
-1.22811E-3	-11.8639E-12	636.813E-3	-13.3528E-3	-11.8588E-12	718.856E-3	-6.45771E-3
-1.23312E-3	-12.1711E-12	664.672E-3	-8.80589E-3	-12.0209E-12	751.808E-3	-7.02082E-3
-1.23812E-3	-12.3258E-12	690.307E-3	-16.5542E-3	-12.3379E-12	759.046E-3	-5.71059E-3
-1.24312E-3	-12.5492E-12	703.064E-3	-19.9112E-3	-12.6526E-12	772.538E-3	7.67106E-3
-1.24812E-3	-12.6612E-12	719.217E-3	-15.2915E-3	-12.9082E-12	806.858E-3	-6.37380E-3
-1.25313E-3	-13.0303E-12	735.623E-3	-10.6866E-3	-13.0770E-12	830.360E-3	-26.3832E-3
-1.25813E-3	-13.3106E-12	743.894E-3	-9.34337E-3	-13.4404E-12	839.380E-3	-13.5015E-3
-1.26313E-3	-13.4797E-12	756.492E-3	-17.2645E-3	-13.7609E-12	847.283E-3	-9.14662E-3
-1.26813E-3	-13.8094E-12	780.759E-3	-25.9285E-3	-14.0161E-12	856.958E-3	-14.2531E-3
-1.27314E-3	-14.2025E-12	808.863E-3	-18.4417E-3	-14.3212E-12	883.308E-3	-6.77229E-3
-1.27814E-3	-14.4852E-12	817.160E-3	-9.49821E-3	-14.5273E-12	913.093E-3	-12.6938E-3
-1.28314E-3	-14.7885E-12	816.791E-3	-7.19017E-3	-14.7714E-12	921.386E-3	-19.3235E-3
-1.28814E-3	-15.1854E-12	832.993E-3	-12.4893E-3	-15.1196E-12	933.166E-3	-15.9379E-3
-1.29315E-3	-15.4806E-12	864.788E-3	-20.5678E-3	-15.4531E-12	951.570E-3	-21.2878E-3
-1.29815E-3	-15.8517E-12	899.262E-3	-14.3349E-3	-15.7079E-12	950.864E-3	-22.2315E-3
-1.30315E-3	-16.0415E-12	916.733E-3	-3.82939E-3	-15.9000E-12	953.345E-3	-14.5923E-3
-1.30815E-3	-16.2864E-12	923.980E-3	-10.1239E-3	-16.1823E-12	978.791E-3	-23.8041E-3
-1.31316E-3	-16.6602E-12	944.552E-3	-26.1999E-3	-16.6047E-12	995.845E-3	-39.2632E-3
-1.31816E-3	-16.8703E-12	969.802E-3	-20.9760E-3	-16.9637E-12	1.00711E+0	-29.5385E-3
-1.32316E-3	-17.0483E-12	992.150E-3	-2.32875E-3	-17.1249E-12	1.03203E+0	-20.2827E-3
-1.32816E-3	-17.3969E-12	1.00447E+0	-4.38783E-3	-17.3833E-12	1.04001E+0	-22.7966E-3
-1.33317E-3	-17.8398E-12	998.948E-3	-14.4936E-3	-17.9100E-12	1.04197E+0	-8.06988E-3
-1.33817E-3	-18.0244E-12	1.00111E+0	-5.41796E-3	-18.2335E-12	1.07456E+0	-1.89004E-3
-1.34317E-3	-18.3224E-12	1.02136E+0	7.67335E-3	-18.4492E-12	1.09396E+0	-17.1327E-3
-1.34817E-3	-18.6297E-12	1.04339E+0	-2.62704E-3	-18.7566E-12	1.08426E+0	-19.3827E-3
-1.35318E-3	-18.9995E-12	1.05093E+0	-20.7754E-3	-19.1702E-12	1.09380E+0	-14.3498E-3
-1.35818E-3	-19.4857E-12	1.05468E+0	-29.1531E-3	-19.6357E-12	1.11575E+0	-23.0499E-3
-1.36318E-3	-19.9100E-12	1.06183E+0	-27.3016E-3	-20.0674E-12	1.12902E+0	-24.5793E-3
-1.36818E-3	-20.4261E-12	1.06572E+0	-26.2377E-3	-20.4414E-12	1.14071E+0	-13.8350E-3
-1.37319E-3	-20.8692E-12	1.08792E+0	-28.8376E-3	-20.9502E-12	1.14298E+0	-11.7482E-3
-1.37819E-3	-21.2197E-12	1.12348E+0	-24.8265E-3	-21.2123E-12	1.14244E+0	-11.5026E-3
-1.38319E-3	-21.5028E-12	1.13948E+0	-19.7780E-3	-21.5916E-12	1.16469E+0	-7.29459E-3
-1.38819E-3	-21.9610E-12	1.14523E+0	-22.8549E-3	-22.0472E-12	1.19276E+0	-15.2619E-3
-1.39320E-3	-22.3229E-12	1.15613E+0	-26.8706E-3	-22.5001E-12	1.19876E+0	-20.0060E-3
-1.39820E-3	-22.6602E-12	1.16631E+0	-25.4936E-3	-22.8016E-12	1.20045E+0	-6.94434E-3
-1.40320E-3	-22.8005E-12	1.17124E+0	-32.6706E-3	-23.1481E-12	1.21027E+0	-8.94662E-3
-1.40820E-3	-23.1969E-12	1.16870E+0	-43.4356E-3	-23.7435E-12	1.21122E+0	-13.2464E-3
-1.41321E-3	-23.6534E-12	1.16432E+0	-34.7778E-3	-24.1031E-12	1.20620E+0	6.04574E-3
-1.41821E-3	-23.8466E-12	1.17166E+0	-20.0105E-3	-24.1098E-12	1.20826E+0	10.8032E-3
-1.42321E-3	-24.2648E-12	1.19132E+0	-14.8173E-3	-24.5545E-12	1.20921E+0	-6.11151E-3
-1.42821E-3	-24.7216E-12	1.19925E+0	-10.9579E-3	-25.1570E-12	1.21016E+0	-16.0043E-3
-1.43322E-3	-25.2710E-12	1.19102E+0	-14.0595E-3	-25.2751E-12	1.22231E+0	-21.6215E-3
-1.43822E-3	-25.6605E-12	1.19019E+0	-18.1978E-3	-25.4777E-12	1.23246E+0	-21.8922E-3
-1.44322E-3	-26.1597E-12	1.20490E+0	-10.1338E-3	-25.9862E-12	1.23033E+0	-8.87877E-3
-1.44822E-3	-26.6148E-12	1.22561E+0	-2.33736E-3	-26.5582E-12	1.22897E+0	-1.97757E-3
-1.45323E-3	-27.1920E-12	1.23835E+0	-6.17362E-3	-26.8294E-12	1.23354E+0	-12.3787E-3
-1.45823E-3	-27.6280E-12	1.23851E+0	-14.0868E-3	-27.1846E-12	1.24133E+0	-12.6978E-3
-1.46323E-3	-28.0649E-12	1.23878E+0	-13.8500E-3	-27.8280E-12	1.25573E+0	-16.0755E-3
-1.46823E-3	-28.5162E-12	1.25227E+0	-3.03218E-3	-28.5458E-12	1.25918E+0	-30.5271E-3
-1.47324E-3	-28.9772E-12	1.26722E+0	-700.439E-6	-28.8737E-12	1.24133E+0	-19.6424E-3
-1.47824E-3	-29.3399E-12	1.26018E+0	-18.0058E-3	-29.2728E-12	1.23625E+0	-10.3791E-3
-1.48324E-3	-29.5857E-12	1.24434E+0	-29.2110E-3	-30.0133E-12	1.24931E+0	-30.9472E-3
-1.48824E-3	-29.9472E-12	1.24269E+0	-24.6804E-3	-30.3690E-12	1.25365E+0	-27.3503E-3
-1.49325E-3	-30.2700E-12	1.24172E+0	-11.7271E-3	-30.9363E-12	1.25632E+0	-1.65357E-3
-1.49825E-3	-30.5360E-12	1.23408E+0	-2.52605E-3	-31.3852E-12	1.26430E+0	-3.85572E-3
-1.50325E-3	-30.9030E-12	1.23325E+0	-12.3849E-3	-31.9147E-12	1.26477E+0	-6.09028E-3
-1.50825E-3	-31.2550E-12	1.22941E+0	-17.2983E-3	-32.2532E-12	1.26085E+0	-2.73921E-3
-1.51326E-3	-31.5694E-12	1.22132E+0	-4.25811E-3	-32.5169E-12	1.25680E+0	-11.3385E-3
-1.51826E-3	-32.0398E-12	1.22166E+0	-484.950E-6	-32.9279E-12	1.24322E+0	-12.2626E-3
-1.52326E-3	-32.6232E-12	1.22350E+0	-7.20500E-3	-33.1969E-12	1.22976E+0	-7.73589E-3
-1.52826E-3	-33.0592E-12	1.21723E+0	-8.47855E-3	-33.4946E-12	1.22529E+0	-13.9218E-3
-1.53327E-3	-33.6701E-12	1.20286E+0	-7.60777E-3	-33.6731E-12	1.21980E+0	-15.6824E-3
-1.53827E-3	-34.0658E-12	1.18956E+0	-6.16103E-3	-34.0496E-12	1.21313E+0	-4.22842E-3
-1.54327E-3	-34.6126E-12	1.19841E+0	-3.59989E-3	-34.5215E-12	1.20484E+0	-10.1231E-3
-1.54827E-3	-35.1357E-12	1.21629E+0	3.65649E-3	-34.8726E-12	1.18792E+0	-21.2720E-3
-1.55328E-3	-35.7168E-12	1.21895E+0	12.6304E-3	-35.1760E-12	1.18511E+0	-7.33445E-3
-1.55828E-3	-35.9043E-12	1.21791E+0	7.07643E-3	-35.7516E-12	1.20208E+0	-11.9347E-3
-1.56328E-3	-36.2659E-12	1.21912E+0	-7.03791E-3	-36.3833E-12	1.20495E+0	-38.6581E-3
-1.56828E-3	-36.7776E-12	1.21412E+0	-15.0543E-3	-36.7285E-12	1.19681E+0	-45.1366E-3
-1.57329E-3	-36.8013E-12	1.21239E+0	-20.4090E-3	-37.1872E-12	1.19309E+0	-42.2103E-3
-1.57829E-3	-37.0385E-12	1.21100E+0	-17.8954E-3	-37.8134E-12	1.18678E+0	-41.1470E-3
-1.58329E-3	-37.2083E-12	1.19347E+0	-8.98935E-3	-38.2915E-12	1.18305E+0	-33.1028E-3
-1.58829E-3	-37.6866E-12	1.16750E+0	-9.71218E-3	-38.5957E-12	1.18163E+0	-27.9434E-3
-1.59330E-3	-37.7824E-12	1.14870E+0	-13.4729E-3	-38.9473E-12	1.16912E+0	-28.3520E-3
-1.59830E-3	-38.0769E-12	1.14450E+0	-13.2198E-3	-39.3271E-12	1.15929E+0	-19.5297E-3
-1.60330E-3	-38.3194E-12	1.14333E+0	-13.4698E-3	-39.5929E-12	1.16004E+0	-23.3524E-3
-1.60830E-3	-38.7908E-12	1.13527E+0	-11.4235E-3	-39.9922E-12	1.15010E+0	-44.7469E-3
-1.61331E-3	-39.2189E-12	1.11930E+0	-3.51664E-3	-40.0340E-12	1.13209E+0	-38.0437E-3
-1.61831E-3	-39.8444E-12	1.10465E+0	-3.27030E-3	-40.2290E-12	1.12987E+0	-16.4851E-3
-1.62331E-3	-40.1606E-12	1.11191E+0	-14.9496E-3	-40.6104E-12	1.11489E+0	-22.4443E-3
-1.62831E-3	-40.8211E-12	1.12754E+0	-19.7811E-3	-40.8444E-12	1.08268E+0	-24.9381E-3
-1.63332E-3	-41.4209E-12	1.11963E+0	-24.0707E-3	-40.8895E-12	1.09474E+0	-14.5658E-3
-1.63832E-3	-41.8059E-12	1.11037E+0	-37.8589E-3	-41.2105E-12	1.12096E+0	-24.2365E-3
-1.64332E-3	-42.2568E-12	1.11810E+0	-38.5303E-3	-41.5152E-12	1.10081E+0	-27.5124E-3
-1.64832E-3	-42.6618E-12	1.11997E+0	-25.7273E-3	-41.7997E-12	1.07523E+0	-19.3994E-3
-1.65333E-3	-43.1579E-12	1.10776E+0	-21.7125E-3	-42.1912E-12	1.07736E+0	-36.7480E-3
-1.65833E-3	-43.3271E-12	1.09276E+0	-21.1793E-3	-42.7407E-12	1.08075E+0	-46.1312E-3
-1.66333E-3	-43.8667E-12	1.08391E+0	-16.7684E-3	-43.1821E-12	1.08006E+0	-23.7806E-3
-1.66833E-3	-43.9989E-12	1.07832E+0	-11.8765E-3	-43.7834E-12	1.07750E+0	-8.13044E-3
-1.67334E-3	-44.4800E-12	1.07903E+0	-14.6362E-3	-44.0889E-12	1.05650E+0	-6.75895E-3
-1.67834E-3	-44.7134E-12	1.08078E+0	-30.2420E-3	-44.7910E-12	1.04438E+0	-4.40239E-3
-1.68334E-3	-45.1165E-12	1.06760E+0	-33.8825E-3	-45.0142E-12	1.04710E+0	-7.61584E-3
-1.68834E-3	-45.5429E-12	1.05168E+0	-10.8562E-3	-45.3859E-12	1.04013E+0	-8.66254E-3
-1.69335E-3	-45.8424E-12	1.04789E+0	6.60090E-3	-45.6400E-12	1.03887E+0	-3.15077E-3
-1.69835E-3	-46.1183E-12	1.04252E+0	4.26943E-3	-46.1537E-12	1.03332E+0	-16.1706E-3
-1.70335E-3	-46.6477E-12	1.03950E+0	-5.32459E-3	-46.4661E-12	1.01520E+0	-31.2557E-3
-1.70835E-3	-47.3227E-12	1.04846E+0	-22.3677E-3	-46.6980E-12	1.01746E+0	-29.5874E-3
-1.71336E-3	-47.5346E-12	1.04339E+0	-36.1777E-3	-47.1750E-12	1.03243E+0	-31.1600E-3
-1.71836E-3	-47.8013E-12	1.02991E+0	-28.8169E-3	-47.5294E-12	1.01726E+0	-23.1320E-3
-1.72336E-3	-48.3838E-12	1.03785E+0	-5.52373E-3	-47.8224E-12	1.00228E+0	-730.181E-6
-1.72836E-3	-48.9550E-12	1.05181E+0	4.75952E-3	-48.0878E-12	1.00909E+0	-5.10147E-3
-1.73337E-3	-48.7693E-12	1.04208E+0	-10.2061E-3	-48.4454E-12	986.897E-3	-25.3847E-3
-1.73837E-3	-49.1239E-12	1.01348E+0	-25.0941E-3	-48.7214E-12	953.218E-3	-14.2626E-3
-1.74337E-3	-49.4983E-12	992.332E-3	-21.4628E-3	-48.9809E-12	962.309E-3	2.10593E-3
-1.74837E-3	-49.5035E-12	994.338E-3	-12.9287E-3	-49.3584E-12	978.812E-3	-15.7659E-3
-1.75338E-3	-49.4341E-12	1.00046E+0	-3.12455E-3	-49.6951E-12	966.386E-3	-34.6288E-3
-1.75838E-3	-49.9491E-12	988.996E-3	-642.797E-6	-50.2509E-12	966.200E-3	-27.7492E-3
-1.76338E-3	-50.2023E-12	975.359E-3	-5.57584E-3	-50.6128E-12	968.887E-3	-20.5270E-3
-1.76838E-3	-50.2015E-12	978.283E-3	4.29974E-3	-50.7923E-12	947.500E-3	-17.4763E-3
-1.77339E-3	-50.5717E-12	986.780E-3	6.30844E-3	-51.2996E-12	936.415E-3	-12.8279E-3
-1.77839E-3	-50.8948E-12	981.265E-3	-19.7106E-3	-51.6803E-12	945.257E-3	-16.7790E-3
-1.78339E-3	-51.1519E-12	962.612E-3	-44.6732E-3	-51.8463E-12	950.220E-3	-23.3972E-3
-1.78839E-3	-51.3480E-12	947.360E-3	-56.5940E-3	-52.0828E-12	941.296E-3	-29.2996E-3
-1.79340E-3	-52.0707E-12	940.632E-3	-49.8401E-3	-52.5737E-12	942.716E-3	-35.0841E-3
-1.79840E-3	-52.4452E-12	949.741E-3	-29.3576E-3	-53.0307E-12	943.302E-3	-36.2468E-3
-1.80340E-3	-52.7682E-12	968.915E-3	-19.2335E-3	-53.2299E-12	942.358E-3	-32.9899E-3
-1.80840E-3	-53.1859E-12	971.904E-3	-12.5462E-3	-53.5905E-12	958.383E-3	-29.3543E-3
-1.81341E-3	-53.4206E-12	959.569E-3	-2.71417E-3	-54.2362E-12	957.387E-3	-25.3785E-3
-1.81841E-3	-53.6632E-12	944.152E-3	-5.44373E-3	-54.6646E-12	943.043E-3	-19.6806E-3
-1.82341E-3	-53.9158E-12	939.114E-3	-15.2372E-3	-54.7807E-12	933.067E-3	-27.6949E-3
-1.82841E-3	-54.0191E-12	938.569E-3	-20.2735E-3	-55.1561E-12	920.657E-3	-37.0158E-3
-1.83342E-3	-54.2476E-12	923.100E-3	-22.8993E-3	-55.4713E-12	916.418E-3	-13.7566E-3
-1.83842E-3	-54.3196E-12	904.794E-3	-21.2922E-3	-55.5913E-12	915.654E-3	5.07969E-3
-1.84342E-3	-54.8735E-12	906.327E-3	-8.17126E-3	-55.6748E-12	898.673E-3	-2.70243E-3
-1.84842E-3	-55.1497E-12	916.611E-3	-5.02235E-3	-56.0020E-12	889.929E-3	-6.12624E-3
-1.85343E-3	-55.2454E-12	921.961E-3	-19.6773E-3	-56.2782E-12	908.583E-3	-19.9504E-3
-1.85843E-3	-55.4133E-12	916.454E-3	-21.4144E-3	-56.5570E-12	915.439E-3	-37.2574E-3
-1.86343E-3	-56.1550E-12	897.247E-3	-8.57512E-3	-56.7070E-12	905.648E-3	-23.4941E-3
-1.86843E-3	-56.3094E-12	887.517E-3	5.07356E-3	-56.7658E-12	899.796E-3	-2.29998E-3
-1.87344E-3	-56.9809E-12	888.705E-3	2.04290E-3	-57.0660E-12	880.479E-3	-4.96071E-3
-1.87844E-3	-57.4995E-12	888.658E-3	-13.3424E-3	-57.4724E-12	873.203E-3	-12.4002E-3
-1.88344E-3	-58.1737E-12	884.749E-3	-14.3821E-3	-57.6208E-12	897.650E-3	-19.2966E-3
-1.88844E-3	-58.8683E-12	882.887E-3	-11.2648E-3	-58.0176E-12	903.057E-3	-26.0291E-3
-1.89345E-3	-59.0629E-12	884.857E-3	-13.3947E-3	-58.3606E-12	892.852E-3	-7.31814E-3
-1.89845E-3	-59.4826E-12	881.041E-3	-13.5600E-3	-58.5389E-12	895.717E-3	-155.151E-6
-1.90345E-3	-59.7269E-12	882.198E-3	-16.5583E-3	-59.1276E-12	891.917E-3	-17.5844E-3
-1.90845E-3	-60.1552E-12	887.963E-3	-27.2619E-3	-59.5396E-12	888.818E-3	-4.63106E-3
-1.91346E-3	-60.0792E-12	875.628E-3	-37.9949E-3	-59.9807E-12	893.403E-3	16.2478E-3
-1.91846E-3	-60.2402E-12	859.025E-3	-23.0018E-3	-60.2536E-12	875.524E-3	1.10289E-3
-1.92346E-3	-60.3585E-12	858.078E-3	-2.82336E-3	-60.6453E-12	848.680E-3	-14.0852E-3
-1.92846E-3	-60.3209E-12	858.551E-3	-7.35236E-3	-60.8896E-12	856.179E-3	-10.1256E-3
-1.93347E-3	-60.4807E-12	851.920E-3	-11.7833E-3	-61.2606E-12	874.840E-3	-15.7350E-3
-1.93847E-3	-60.8085E-12	843.741E-3	-2.81233E-3	-61.4917E-12	870.397E-3	-9.40068E-3
-1.94347E-3	-60.9293E-12	836.618E-3	15.6511E-3	-61.4209E-12	860.676E-3	9.22682E-3
-1.94847E-3	-61.2159E-12	838.096E-3	26.7452E-3	-61.3496E-12	856.548E-3	-845.372E-6
-1.95348E-3	-61.6270E-12	850.621E-3	7.46680E-3	-61.7585E-12	853.888E-3	-12.7915E-3
-1.95848E-3	-62.1211E-12	849.545E-3	-16.4632E-3	-62.0767E-12	859.433E-3	-5.38153E-3
-1.96348E-3	-62.4406E-12	835.926E-3	-20.5652E-3	-62.1630E-12	866.351E-3	-12.2597E-3
-1.96848E-3	-63.4711E-12	848.386E-3	-9.67165E-3	-62.4495E-12	857.413E-3	-17.0466E-3
-1.97349E-3	-63.8342E-12	858.408E-3	2.51421E-3	-62.9420E-12	844.510E-3	2.96386E-3
-1.97849E-3	-64.1662E-12	842.446E-3	-10.4151E-3	-63.3881E-12	846.384E-3	12.7150E-3
-1.98349E-3	-64.5377E-12	837.116E-3	-34.5762E-3	-63.5655E-12	842.905E-3	6.88031E-3
-1.98849E-3	-64.9967E-12	848.531E-3	-29.4686E-3	-63.5718E-12	843.114E-3	8.49374E-3
-1.99350E-3	-64.9663E-12	863.674E-3	-8.98577E-3	-64.5876E-12	855.358E-3	3.32066E-3
-1.99850E-3	-65.0490E-12	862.942E-3	-8.07680E-3	-64.7078E-12	844.453E-3	-8.56951E-3
-2.00350E-3	-65.2148E-12	855.347E-3	-16.0581E-3	-65.0628E-12	826.264E-3	-9.66691E-3
-2.00850E-3	-64.9212E-12	843.116E-3	-26.6710E-3	-65.1154E-12	820.671E-3	-8.91381E-3
-2.01351E-3	-65.0964E-12	816.684E-3	-39.3420E-3	-66.0834E-12	813.550E-3	-17.2858E-3
-2.01851E-3	-65.0274E-12	802.869E-3	-35.9327E-3	-66.1795E-12	804.323E-3	-19.6146E-3
-2.02351E-3	-64.9614E-12	814.464E-3	-27.4071E-3	-65.9936E-12	809.891E-3	-14.6382E-3
-2.02851E-3	-64.9980E-12	823.603E-3	-31.0356E-3	-66.3685E-12	825.327E-3	-25.6563E-3
-2.03352E-3	-65.1901E-12	806.399E-3	-34.1653E-3	-66.5814E-12	820.085E-3	-26.5243E-3
-2.03852E-3	-65.2536E-12	782.669E-3	-14.1206E-3	-66.3357E-12	804.881E-3	-14.4075E-3
-2.04352E-3	-65.6749E-12	764.891E-3	12.8633E-3	-66.3056E-12	799.446E-3	-24.1527E-3
-2.04852E-3	-66.1797E-12	766.105E-3	13.4322E-3	-66.6708E-12	800.514E-3	-28.1583E-3
-2.05353E-3	-66.6637E-12	782.299E-3	7.92688E-3	-66.5219E-12	807.469E-3	-17.9734E-3
-2.05853E-3	-67.4831E-12	778.665E-3	7.70605E-3	-66.6468E-12	807.855E-3	-20.0729E-3
-2.06353E-3	-67.7699E-12	771.086E-3	-4.36183E-3	-66.8379E-12	806.842E-3	-7.32268E-3
-2.06853E-3	-68.3085E-12	788.161E-3	-3.00714E-3	-67.7828E-12	822.585E-3	13.5587E-3
-2.07354E-3	-68.9990E-12	819.261E-3	10.9085E-3	-67.8579E-12	823.793E-3	-10.1202E-3
-2.07854E-3	-69.3188E-12	821.942E-3	2.49435E-3	-68.1012E-12	785.791E-3	-33.4733E-3
-2.08354E-3	-69.3488E-12	803.885E-3	-17.6915E-3	-68.7645E-12	765.785E-3	-13.5280E-3
-2.08854E-3	-69.5936E-12	797.380E-3	-29.4963E-3	-69.5311E-12	781.660E-3	-4.11400E-3
-2.09355E-3	-69.9039E-12	790.557E-3	-29.7202E-3	-69.7670E-12	790.887E-3	1.48205E-3
-2.09855E-3	-70.1183E-12	784.647E-3	-22.2075E-3	-69.9946E-12	799.178E-3	16.2378E-3
-2.10355E-3	-70.0425E-12	793.033E-3	-11.6514E-3	-70.4871E-12	814.768E-3	-4.47715E-3
-2.10855E-3	-70.4998E-12	796.296E-3	-13.7482E-3	-70.9952E-12	812.884E-3	-29.3075E-3
-2.11356E-3	-70.5671E-12	785.493E-3	-21.9215E-3	-71.4922E-12	808.301E-3	-21.6319E-3
-2.11856E-3	-71.0520E-12	780.894E-3	-17.4214E-3	-71.6366E-12	818.924E-3	-20.8586E-3
-2.12356E-3	-70.9633E-12	791.336E-3	-4.94322E-3	-72.4045E-12	813.848E-3	-31.8905E-3
-2.12856E-3	-71.0430E-12	815.905E-3	728.367E-6	-72.3127E-12	794.977E-3	-31.6232E-3
-2.13357E-3	-71.1970E-12	834.465E-3	-17.1421E-3	-72.2835E-12	800.770E-3	-30.4824E-3
-2.13857E-3	-71.7645E-12	825.842E-3	-33.2134E-3	-72.3543E-12	802.516E-3	-32.3739E-3
-2.14357E-3	-71.7521E-12	802.703E-3	-22.1857E-3	-72.4507E-12	773.558E-3	-25.7170E-3
-2.14857E-3	-72.0182E-12	786.862E-3	-7.82381E-3	-72.3845E-12	763.145E-3	-25.5407E-3
-2.15358E-3	-72.8651E-12	787.837E-3	-8.42885E-3	-72.6941E-12	770.573E-3	-40.4958E-3
-2.15858E-3	-73.0384E-12	793.837E-3	-15.9517E-3	-73.3467E-12	778.370E-3	-43.7323E-3
-2.16358E-3	-73.5836E-12	781.750E-3	-20.3887E-3	-73.7434E-12	798.332E-3	-30.3963E-3
-2.16858E-3	-74.1062E-12	764.662E-3	-22.2203E-3	-73.6893E-12	789.763E-3	-27.3418E-3
-2.17359E-3	-74.1998E-12	774.005E-3	-22.4139E-3	-74.2857E-12	759.854E-3	-26.9144E-3
-2.17859E-3	-74.0747E-12	792.083E-3	-24.9794E-3	-74.8986E-12	760.679E-3	-14.7749E-3
-2.18359E-3	-73.9426E-12	788.825E-3	-40.3921E-3	-74.6298E-12	769.398E-3	-11.1230E-3
-2.18859E-3	-74.3048E-12	775.234E-3	-50.8237E-3	-75.0113E-12	764.531E-3	-5.48336E-3
-2.19360E-3	-74.3722E-12	760.083E-3	-31.9985E-3	-75.8802E-12	775.010E-3	6.68500E-3
-2.19860E-3	-74.4248E-12	751.313E-3	-5.59243E-3	-75.7143E-12	788.326E-3	-4.25364E-3
-2.20360E-3	-74.6516E-12	770.271E-3	-4.62300E-3	-75.6793E-12	777.829E-3	-33.1590E-3
-2.20860E-3	-74.7122E-12	779.777E-3	-22.5920E-3	-76.2564E-12	764.801E-3	-41.5946E-3
-2.21361E-3	-75.4401E-12	751.506E-3	-35.4502E-3	-76.6758E-12	767.602E-3	-28.4590E-3
-2.21861E-3	-75.5386E-12	738.840E-3	-34.0954E-3	-76.5828E-12	779.697E-3	-19.1768E-3
-2.22361E-3	-75.6163E-12	766.420E-3	-19.2586E-3	-77.0816E-12	781.670E-3	-8.80959E-3
-2.22861E-3	-76.0576E-12	788.871E-3	-2.21094E-3	-77.0052E-12	765.764E-3	-7.02137E-3
-2.23362E-3	-76.5738E-12	780.399E-3	-8.84982E-3	-77.1061E-12	744.547E-3	-11.0436E-3
-2.23862E-3	-76.9454E-12	764.037E-3	-24.4955E-3	-77.2841E-12	743.958E-3	-10.4546E-3
-2.24362E-3	-77.1658E-12	761.626E-3	-15.7400E-3	-77.4462E-12	764.564E-3	-25.4865E-3
-2.24862E-3	-77.6452E-12	776.903E-3	-1.09510E-3	-77.4630E-12	767.734E-3	-23.6987E-3
-2.25363E-3	-77.8099E-12	789.320E-3	-6.26173E-3	-78.0997E-12	762.383E-3	5.52750E-3
-2.25863E-3	-78.2071E-12	786.933E-3	-22.3436E-3	-78.0780E-12	778.416E-3	7.63134E-3
-2.26363E-3	-78.2125E-12	776.448E-3	-18.7713E-3	-78.3680E-12	782.877E-3	-14.7228E-3
-2.26863E-3	-78.5005E-12	766.033E-3	-4.96296E-3	-78.1489E-12	770.957E-3	-19.7732E-3
-2.27364E-3	-78.7509E-12	771.367E-3	-8.77597E-3	-78.3719E-12	764.544E-3	-12.6825E-3
-2.27864E-3	-78.7594E-12	775.607E-3	-25.6443E-3	-78.7291E-12	738.034E-3	-21.3852E-3
-2.28364E-3	-79.3728E-12	760.531E-3	-37.6539E-3	-78.7601E-12	718.821E-3	-35.8353E-3
-2.28864E-3	-79.6638E-12	737.541E-3	-30.0053E-3	-79.1284E-12	741.247E-3	-30.3031E-3
-2.29365E-3	-79.8297E-12	717.145E-3	-9.46051E-3	-79.3003E-12	755.250E-3	-16.0480E-3
-2.29865E-3	-79.8843E-12	720.450E-3	-7.56735E-3	-79.3943E-12	742.388E-3	3.67048E-3
-2.30365E-3	-81.0959E-12	751.896E-3	-29.2999E-3	-79.7827E-12	745.278E-3	15.5309E-3
-2.30865E-3	-81.2261E-12	761.441E-3	-36.8300E-3	-80.0049E-12	756.704E-3	-4.34837E-3
-2.31366E-3	-81.6324E-12	742.315E-3	-30.1889E-3	-80.2963E-12	759.446E-3	-22.4728E-3
-2.31866E-3	-82.0887E-12	743.367E-3	-15.7248E-3	-80.7428E-12	777.936E-3	-14.3781E-3
-2.32366E-3	-82.2818E-12	756.028E-3	7.96853E-3	-81.3059E-12	785.379E-3	-12.8086E-3
-2.32866E-3	-82.8816E-12	765.529E-3	3.92373E-3	-81.2902E-12	754.342E-3	-15.4288E-3
-2.33367E-3	-82.7206E-12	775.570E-3	-29.7325E-3	-82.2563E-12	735.370E-3	-12.8735E-3
-2.33867E-3	-82.6631E-12	761.026E-3	-53.2848E-3	-82.6523E-12	747.458E-3	-20.3611E-3
-2.34367E-3	-82.8437E-12	747.383E-3	-51.7243E-3	-82.9552E-12	759.123E-3	-16.8799E-3
-2.34867E-3	-82.9322E-12	757.873E-3	-40.0963E-3	-83.1580E-12	757.788E-3	-5.62077E-3
-2.35368E-3	-82.4755E-12	755.435E-3	-31.0111E-3	-83.7901E-12	750.488E-3	-16.7859E-3
-2.35868E-3	-82.6929E-12	733.843E-3	-29.8060E-3	-83.6639E-12	737.723E-3	-21.1616E-3
-2.36368E-3	-83.3019E-12	712.053E-3	-43.6268E-3	-83.6188E-12	739.171E-3	1.45939E-3
-2.36868E-3	-83.1913E-12	701.809E-3	-42.1566E-3	-83.9874E-12	756.913E-3	4.57898E-3
-2.37369E-3	-83.2792E-12	708.147E-3	-24.8727E-3	-83.9596E-12	748.453E-3	-15.7525E-3
-2.37869E-3	-83.6044E-12	731.107E-3	-29.5893E-3	-83.7682E-12	727.500E-3	-20.7919E-3
-2.38369E-3	-83.7995E-12	747.779E-3	-36.8038E-3	-84.3012E-12	739.945E-3	-23.4360E-3
-2.38869E-3	-83.7951E-12	740.676E-3	-40.9581E-3	-84.4796E-12	751.925E-3	-31.1845E-3
-2.39370E-3	-84.3509E-12	729.021E-3	-46.1841E-3	-84.3251E-12	734.546E-3	-26.7873E-3
-2.39870E-3	-84.6879E-12	724.965E-3	-19.0130E-3	-84.7880E-12	726.502E-3	-12.5337E-3
-2.40370E-3	-84.9390E-12	720.471E-3	3.99107E-3	-85.4064E-12	723.636E-3	-2.48908E-3
-2.40870E-3	-85.7648E-12	724.512E-3	-13.3582E-3	-85.7043E-12	723.713E-3	-7.14933E-3
-2.41371E-3	-86.0535E-12	742.129E-3	-25.0281E-3	-85.7861E-12	749.027E-3	-14.0791E-3
-2.41871E-3	-86.1482E-12	739.671E-3	-19.7230E-3	-86.6809E-12	759.080E-3	-6.44991E-3
-2.42371E-3	-86.4365E-12	722.764E-3	-13.1085E-3	-87.1014E-12	748.841E-3	4.67099E-3
-2.42871E-3	-86.4733E-12	728.015E-3	-6.61945E-3	-87.6121E-12	758.488E-3	1.54741E-3
-2.43372E-3	-85.7405E-12	738.396E-3	-6.66140E-3	-88.2891E-12	760.862E-3	-5.49009E-3
-2.43872E-3	-86.2480E-12	735.396E-3	-11.5105E-3	-88.5037E-12	733.786E-3	-5.52514E-3
-2.44372E-3	-86.6455E-12	720.135E-3	-14.3195E-3	-88.6834E-12	729.611E-3	-8.27527E-3
-2.44872E-3	-85.9669E-12	719.965E-3	-10.8015E-3	-88.8206E-12	733.835E-3	-18.9533E-3
-2.45373E-3	-86.2737E-12	733.696E-3	-11.9757E-3	-88.8609E-12	720.238E-3	-20.6841E-3
-2.45873E-3	-86.7146E-12	727.255E-3	-28.5588E-3	-88.6013E-12	731.405E-3	-20.0089E-3
-2.46373E-3	-86.5464E-12	719.759E-3	-37.3142E-3	-88.1920E-12	734.491E-3	-29.2015E-3
-2.46873E-3	-86.8798E-12	716.242E-3	-31.0985E-3	-88.3255E-12	710.767E-3	-24.1399E-3
-2.47374E-3	-87.5584E-12	706.208E-3	-18.4845E-3	-88.7668E-12	701.389E-3	-26.2305E-3
-2.47874E-3	-87.5558E-12	693.471E-3	2.38679E-3	-88.3830E-12	703.119E-3	-47.3870E-3
-2.48374E-3	-88.3036E-12	684.307E-3	6.45073E-3	-88.3236E-12	705.401E-3	-45.2476E-3
-2.48874E-3	-89.0840E-12	687.142E-3	-13.0545E-3	-88.7741E-12	727.706E-3	-20.1583E-3
-2.49375E-3	-89.1910E-12	682.795E-3	-20.4014E-3	-88.6218E-12	741.028E-3	-6.95804E-3
-2.49875E-3	-89.6343E-12	688.669E-3	-2.63539E-3	-88.7575E-12	712.603E-3	-10.1595E-3
-2.50375E-3	-90.2427E-12	719.813E-3	3.80933E-3	-89.4569E-12	702.151E-3	-4.49778E-3
-2.50875E-3	-90.9728E-12	717.598E-3	-15.1299E-3	-89.8354E-12	731.503E-3	-19.5997E-3
-2.51376E-3	-91.5796E-12	685.393E-3	-34.8772E-3	-90.0740E-12	755.683E-3	-44.3852E-3
-2.51876E-3	-91.6609E-12	679.295E-3	-36.4918E-3	-91.4038E-12	763.777E-3	-27.7418E-3
-2.52376E-3	-91.7668E-12	695.937E-3	-17.9751E-3	-91.4847E-12	755.091E-3	-21.9505E-3
-2.52876E-3	-91.9729E-12	720.991E-3	-4.08807E-3	-91.3797E-12	723.275E-3	-43.9526E-3
-2.53377E-3	-91.9255E-12	736.939E-3	-20.8764E-3	-92.1045E-12	711.214E-3	-35.9241E-3
-2.53877E-3	-91.8241E-12	714.266E-3	-32.7918E-3	-92.8456E-12	744.099E-3	-18.1256E-3
-2.54377E-3	-92.1111E-12	690.885E-3	-16.4789E-3	-92.7595E-12	750.826E-3	-25.1651E-3
-2.54877E-3	-92.1139E-12	705.972E-3	-8.74653E-3	-93.0243E-12	725.846E-3	-24.0671E-3
-2.55378E-3	-92.4637E-12	726.105E-3	-19.0796E-3	-93.0836E-12	724.645E-3	-19.4480E-3
-2.55878E-3	-93.0673E-12	730.668E-3	-41.4621E-3	-93.4364E-12	714.854E-3	-37.7483E-3
-2.56378E-3	-93.1306E-12	732.569E-3	-56.0024E-3	-93.2013E-12	694.076E-3	-41.9540E-3
-2.56878E-3	-93.0826E-12	740.021E-3	-36.6356E-3	-93.4611E-12	700.514E-3	-21.9348E-3
-2.57379E-3	-93.7398E-12	732.894E-3	-7.97701E-3	-92.9394E-12	717.392E-3	-9.13402E-3
-2.57879E-3	-94.2415E-12	719.444E-3	-3.39267E-3	-93.3581E-12	712.531E-3	-9.35948E-3
-2.58379E-3	-94.4691E-12	726.777E-3	-15.5221E-3	-93.4213E-12	710.737E-3	-25.5215E-3
-2.58879E-3	-94.5590E-12	730.475E-3	-30.2777E-3	-93.7514E-12	715.637E-3	-43.1859E-3
-2.59380E-3	-95.1381E-12	725.198E-3	-36.1420E-3	-93.8047E-12	706.786E-3	-27.7109E-3
-2.59880E-3	-95.7427E-12	723.225E-3	-26.9517E-3	-94.2105E-12	717.469E-3	-4.12062E-3
-2.60380E-3	-95.7118E-12	721.297E-3	-17.2697E-3	-94.4098E-12	728.599E-3	-13.2659E-3
-2.60880E-3	-95.7470E-12	720.056E-3	-17.6851E-3	-95.0676E-12	716.461E-3	-30.8427E-3
-2.61381E-3	-96.1316E-12	715.556E-3	-22.0282E-3	-95.1931E-12	726.841E-3	-28.5918E-3
-2.61881E-3	-95.9389E-12	709.004E-3	-12.6964E-3	-95.7648E-12	747.334E-3	-24.0061E-3
-2.62381E-3	-95.7864E-12	709.639E-3	6.51313E-3	-95.9818E-12	717.019E-3	-25.3461E-3
-2.62881E-3	-95.7197E-12	721.396E-3	7.59110E-3	-96.2006E-12	693.398E-3	-7.08192E-3
-2.63382E-3	-95.8520E-12	729.256E-3	-6.40840E-3	-96.7175E-12	722.207E-3	-787.745E-6
-2.63882E-3	-95.5422E-12	705.208E-3	-19.0109E-3	-97.1807E-12	732.775E-3	-12.1801E-3
-2.64382E-3	-95.4953E-12	675.657E-3	-31.4829E-3	-96.9800E-12	723.447E-3	-1.77441E-3
-2.64882E-3	-95.8529E-12	691.115E-3	-21.8526E-3	-98.0174E-12	725.591E-3	-8.54725E-3
-2.65383E-3	-96.6982E-12	715.910E-3	-16.1367E-3	-97.8807E-12	711.734E-3	-26.6074E-3
-2.65883E-3	-96.5799E-12	709.197E-3	-30.1709E-3	-97.6746E-12	688.174E-3	-9.92133E-3
-2.66383E-3	-96.8481E-12	696.823E-3	-29.0158E-3	-98.1488E-12	697.951E-3	17.7701E-3
-2.66883E-3	-97.3192E-12	699.505E-3	-22.6196E-3	-98.1968E-12	724.412E-3	21.2343E-3
-2.67384E-3	-98.2266E-12	715.404E-3	-2.99916E-3	-98.1602E-12	724.688E-3	5.90859E-3
-2.67884E-3	-98.7484E-12	723.167E-3	27.6407E-3	-98.1017E-12	717.736E-3	617.545E-6
-2.68384E-3	-98.4733E-12	708.539E-3	24.9785E-3	-98.3488E-12	722.072E-3	-4.66675E-3
-2.68884E-3	-99.4557E-12	697.389E-3	-1.85587E-3	-98.8077E-12	731.920E-3	-10.3347E-3
-2.69385E-3	-100.076E-12	700.699E-3	-9.50728E-3	-98.7274E-12	734.129E-3	12.2118E-3
-2.69885E-3	-100.024E-12	708.710E-3	4.55515E-3	-98.8308E-12	708.690E-3	34.4422E-3
-2.70385E-3	-100.338E-12	723.232E-3	12.4389E-3	-99.0425E-12	685.629E-3	28.5790E-3
-2.70885E-3	-100.490E-12	736.674E-3	1.53172E-3	-99.3515E-12	691.630E-3	7.26163E-3
-2.71386E-3	-100.776E-12	726.043E-3	-17.1733E-3	-99.5942E-12	704.607E-3	-21.9384E-3
-2.71886E-3	-100.646E-12	712.392E-3	-24.0508E-3	-99.6405E-12	711.618E-3	-34.0670E-3
-2.72386E-3	-100.922E-12	725.506E-3	-12.3451E-3	-100.129E-12	705.405E-3	-6.59984E-3
-2.72886E-3	-101.023E-12	741.303E-3	-3.19221E-3	-100.357E-12	690.131E-3	4.99946E-3
-2.73387E-3	-101.303E-12	741.990E-3	-20.9571E-3	-100.734E-12	689.867E-3	-16.6279E-3
-2.73887E-3	-101.242E-12	731.838E-3	-41.3668E-3	-101.025E-12	711.189E-3	-21.4218E-3
-2.74387E-3	-101.696E-12	724.097E-3	-32.2045E-3	-101.683E-12	719.527E-3	-17.1539E-3
-2.74887E-3	-101.034E-12	728.889E-3	-11.7822E-3	-102.068E-12	705.279E-3	-20.2983E-3
-2.75388E-3	-101.547E-12	740.977E-3	-5.62324E-3	-102.597E-12	701.310E-3	-25.5236E-3
-2.75888E-3	-101.994E-12	737.003E-3	-19.4549E-3	-103.322E-12	707.469E-3	-20.3425E-3
-2.76388E-3	-102.444E-12	709.786E-3	-32.8171E-3	-103.545E-12	711.202E-3	-14.5732E-3
-2.76888E-3	-102.390E-12	691.734E-3	-26.9134E-3	-103.713E-12	716.384E-3	-17.7416E-3
-2.77389E-3	-102.845E-12	693.941E-3	-13.5958E-3	-104.056E-12	713.470E-3	-22.0367E-3
-2.77889E-3	-102.859E-12	693.121E-3	-6.04729E-3	-104.207E-12	693.884E-3	-26.6466E-3
-2.78389E-3	-103.401E-12	692.373E-3	-12.5660E-3	-104.533E-12	686.605E-3	-26.8758E-3
-2.78889E-3	-103.450E-12	683.888E-3	-22.4624E-3	-104.280E-12	698.533E-3	-27.5351E-3
-2.79390E-3	-103.315E-12	668.931E-3	-20.8982E-3	-104.599E-12	692.296E-3	-22.0835E-3
-2.79890E-3	-103.517E-12	687.384E-3	-11.8915E-3	-104.840E-12	673.615E-3	697.187E-6
-2.80390E-3	-103.879E-12	704.539E-3	-12.8603E-3	-104.865E-12	671.517E-3	3.03984E-3
-2.80890E-3	-103.996E-12	699.491E-3	-28.7239E-3	-104.420E-12	688.130E-3	-10.7340E-3
-2.81391E-3	-103.849E-12	715.846E-3	-35.2534E-3	-104.869E-12	712.251E-3	-670.593E-6
-2.81891E-3	-104.313E-12	722.873E-3	-25.2380E-3	-104.670E-12	718.937E-3	6.67613E-3
-2.82391E-3	-104.518E-12	698.084E-3	-7.20615E-3	-104.850E-12	703.139E-3	3.33240E-3
-2.82891E-3	-104.532E-12	690.268E-3	3.03551E-3	-105.291E-12	687.381E-3	630.588E-6
-2.83392E-3	-104.965E-12	702.251E-3	1.92086E-3	-105.862E-12	683.096E-3	-2.37400E-3
-2.83892E-3	-105.322E-12	697.983E-3	-6.55307E-3	-105.539E-12	680.784E-3	-3.46786E-3
-2.84392E-3	-105.508E-12	685.088E-3	-13.9762E-3	-106.917E-12	681.278E-3	3.17068E-3
-2.84892E-3	-105.938E-12	687.424E-3	-5.59168E-3	-107.159E-12	699.116E-3	20.8916E-3
-2.85393E-3	-106.453E-12	700.434E-3	43.4487E-6	-107.044E-12	714.481E-3	27.0375E-3
-2.85893E-3	-106.297E-12	711.241E-3	-9.14694E-3	-107.907E-12	706.322E-3	24.4351E-3
-2.86393E-3	-106.149E-12	701.846E-3	-16.0940E-3	-108.203E-12	700.799E-3	20.6182E-3
-2.86893E-3	-106.529E-12	672.391E-3	-17.5092E-3	-108.050E-12	699.310E-3	4.79198E-3
-2.87394E-3	-107.019E-12	659.880E-3	-17.8498E-3	-108.446E-12	681.159E-3	-15.8397E-3
-2.87894E-3	-106.980E-12	678.551E-3	-13.6081E-3	-108.521E-12	670.067E-3	-45.8841E-3
-2.88394E-3	-107.439E-12	690.390E-3	-14.7415E-3	-107.919E-12	672.397E-3	-62.3487E-3
-2.88894E-3	-108.062E-12	686.122E-3	-24.9627E-3	-108.144E-12	677.788E-3	-34.4105E-3
-2.89395E-3	-108.450E-12	689.943E-3	-27.6361E-3	-107.933E-12	701.517E-3	-1.02755E-3
-2.89895E-3	-108.317E-12	698.524E-3	-17.2303E-3	-107.914E-12	714.256E-3	7.71735E-3
-2.90395E-3	-108.964E-12	688.921E-3	-18.1394E-3	-108.043E-12	693.181E-3	9.28847E-3
-2.90895E-3	-109.210E-12	669.829E-3	-36.4661E-3	-108.425E-12	686.459E-3	9.27151E-3
-2.91396E-3	-109.899E-12	670.686E-3	-37.8966E-3	-108.320E-12	695.895E-3	-11.6995E-3
-2.91896E-3	-110.469E-12	674.373E-3	-19.8917E-3	-108.343E-12	679.962E-3	-32.3586E-3
-2.92396E-3	-110.863E-12	676.737E-3	3.09532E-3	-108.597E-12	686.146E-3	-20.6871E-3
-2.92896E-3	-111.169E-12	686.076E-3	14.4160E-3	-108.967E-12	708.903E-3	-7.38693E-3
-2.93397E-3	-111.556E-12	698.310E-3	-3.53759E-3	-109.611E-12	680.645E-3	-14.7482E-3
-2.93897E-3	-111.756E-12	715.087E-3	-19.4245E-3	-110.031E-12	658.362E-3	-17.1008E-3
-2.94397E-3	-112.318E-12	714.312E-3	-11.8522E-3	-110.633E-12	689.723E-3	-1.69941E-3
-2.94897E-3	-112.378E-12	704.058E-3	-12.0309E-3	-111.236E-12	719.644E-3	13.2628E-3
-2.95398E-3	-112.533E-12	710.441E-3	-24.3917E-3	-111.551E-12	718.355E-3	5.69155E-3
-2.95898E-3	-112.460E-12	711.067E-3	-25.3194E-3	-112.492E-12	712.251E-3	-42.2479E-3
-2.96398E-3	-112.617E-12	692.818E-3	-13.6950E-3	-112.798E-12	702.303E-3	-70.2587E-3
-2.96898E-3	-112.558E-12	695.091E-3	-16.6825E-3	-113.105E-12	702.521E-3	-26.6524E-3
-2.97399E-3	-112.750E-12	721.534E-3	-16.1852E-3	-113.472E-12	716.077E-3	-127.730E-6
-2.97899E-3	-112.232E-12	724.339E-3	9.71757E-3	-113.863E-12	703.277E-3	-12.7748E-3
-2.98399E-3	-112.700E-12	716.478E-3	4.84784E-3	-113.617E-12	676.726E-3	-23.1362E-3
-2.98899E-3	-113.321E-12	712.527E-3	-23.8895E-3	-113.909E-12	684.082E-3	-39.3177E-3
-2.99400E-3	-113.568E-12	693.607E-3	-26.1487E-3	-113.778E-12	702.095E-3	-46.2850E-3
-2.99900E-3	-113.088E-12	684.559E-3	-22.8381E-3	-113.516E-12	683.266E-3	-30.2528E-3
-3.00400E-3	-113.672E-12	695.472E-3	-6.28989E-3	-113.863E-12	664.336E-3	-19.5696E-3
-3.00900E-3	-114.149E-12	700.508E-3	29.1948E-3	-113.577E-12	666.656E-3	-31.7591E-3
-3.01401E-3	-113.785E-12	697.539E-3	25.5081E-3	-113.789E-12	666.140E-3	-43.4077E-3
-3.01901E-3	-114.166E-12	690.226E-3	-7.11705E-3	-114.443E-12	670.184E-3	-61.7402E-3
-3.02401E-3	-114.961E-12	669.075E-3	-3.98536E-3	-114.449E-12	672.105E-3	-78.5801E-3
-3.02901E-3	-115.033E-12	663.818E-3	-1.55032E-3	-114.261E-12	668.008E-3	-47.5223E-3
-3.03402E-3	-115.181E-12	697.847E-3	-34.9104E-3	-114.890E-12	688.243E-3	-6.08657E-3
-3.03902E-3	-115.391E-12	715.303E-3	-45.6156E-3	-115.413E-12	696.079E-3	-4.52563E-3
-3.04402E-3	-115.079E-12	691.482E-3	-26.5330E-3	-115.572E-12	671.833E-3	-2.10338E-3
-3.04902E-3	-114.939E-12	679.906E-3	-2.58072E-3	-115.595E-12	674.712E-3	7.86143E-3
-3.05403E-3	-115.167E-12	686.842E-3	206.029E-6	-116.052E-12	684.043E-3	-6.43823E-3
-3.05903E-3	-115.233E-12	686.553E-3	-33.9357E-3	-116.552E-12	674.844E-3	4.68311E-3
-3.06403E-3	-114.719E-12	678.158E-3	-45.9900E-3	-116.757E-12	687.847E-3	44.6705E-3
-3.06903E-3	-114.886E-12	663.894E-3	-23.8978E-3	-117.076E-12	700.559E-3	35.3575E-3
-3.07404E-3	-114.906E-12	655.155E-3	-10.3818E-3	-117.453E-12	691.957E-3	-9.34717E-3
-3.07904E-3	-114.970E-12	675.677E-3	-14.8524E-3	-117.904E-12	683.546E-3	-28.1994E-3
-3.08404E-3	-115.322E-12	689.158E-3	-12.4748E-3	-117.766E-12	684.977E-3	-19.1779E-3
-3.08904E-3	-115.765E-12	673.079E-3	5.10565E-3	-118.097E-12	689.244E-3	-28.4013E-3
-3.09405E-3	-116.572E-12	684.105E-3	7.99744E-3	-118.029E-12	694.379E-3	-49.7606E-3
-3.09905E-3	-116.569E-12	697.477E-3	-7.54775E-3	-118.421E-12	707.188E-3	-54.5846E-3
-3.10405E-3	-117.783E-12	677.432E-3	-21.0952E-3	-118.384E-12	708.358E-3	-40.3729E-3
-3.10905E-3	-118.395E-12	673.601E-3	-40.6018E-3	-118.284E-12	704.596E-3	-14.8058E-3
-3.11406E-3	-119.000E-12	695.681E-3	-51.9290E-3	-118.740E-12	711.819E-3	-8.84685E-3
-3.11906E-3	-119.311E-12	699.827E-3	-38.3773E-3	-119.234E-12	712.171E-3	-15.4299E-3
-3.12406E-3	-120.055E-12	692.217E-3	-17.0459E-3	-119.657E-12	706.766E-3	-8.49895E-3
-3.12906E-3	-120.072E-12	695.621E-3	3.82083E-3	-119.162E-12	710.898E-3	12.2026E-3
-3.13407E-3	-121.204E-12	695.555E-3	-1.63787E-3	-119.234E-12	708.236E-3	17.0997E-3
-3.13907E-3	-121.756E-12	685.995E-3	-19.0283E-3	-119.338E-12	695.570E-3	4.08811E-3
-3.14407E-3	-121.802E-12	678.032E-3	-22.8013E-3	-119.761E-12	688.984E-3	6.12440E-3
-3.14907E-3	-120.968E-12	685.171E-3	-4.29354E-3	-119.818E-12	682.643E-3	-4.45576E-3
-3.15408E-3	-121.637E-12	705.955E-3	17.7401E-3	-120.191E-12	676.609E-3	-37.3909E-3
-3.15908E-3	-121.949E-12	733.905E-3	14.2020E-3	-120.174E-12	687.289E-3	-39.2114E-3
-3.16408E-3	-120.913E-12	740.529E-3	-5.60505E-3	-121.319E-12	693.228E-3	-16.7287E-3
-3.16908E-3	-120.650E-12	714.499E-3	-22.1020E-3	-121.643E-12	695.727E-3	-2.98915E-3
-3.17409E-3	-121.169E-12	696.250E-3	-11.1837E-3	-121.766E-12	715.568E-3	16.2659E-3
-3.17909E-3	-120.785E-12	689.215E-3	-6.47345E-3	-122.136E-12	707.166E-3	22.8417E-3
-3.18409E-3	-120.964E-12	678.161E-3	-24.1613E-3	-123.140E-12	672.400E-3	3.67481E-3
-3.18909E-3	-121.883E-12	679.518E-3	-31.6833E-3	-122.273E-12	645.500E-3	-10.5436E-3
-3.19410E-3	-122.129E-12	689.896E-3	-16.1432E-3	-122.629E-12	629.538E-3	-6.41750E-3
-3.19910E-3	-121.942E-12	686.785E-3	2.94871E-3	-122.849E-12	642.796E-3	4.45186E-3
-3.20410E-3	-122.930E-12	692.451E-3	-1.92886E-3	-122.968E-12	683.085E-3	-6.60386E-3
-3.20910E-3	-123.405E-12	709.780E-3	-14.0562E-3	-123.688E-12	711.532E-3	-23.4661E-3
-3.21411E-3	-123.578E-12	695.889E-3	-14.8873E-3	-123.740E-12	712.898E-3	-18.9552E-3
-3.21911E-3	-123.784E-12	676.213E-3	-23.8595E-3	-123.427E-12	700.638E-3	-17.6150E-3
-3.22411E-3	-124.350E-12	672.606E-3	-30.2548E-3	-123.610E-12	671.809E-3	-15.4544E-3
-3.22911E-3	-124.491E-12	666.660E-3	-17.4357E-3	-123.636E-12	632.317E-3	1.19419E-3
-3.23412E-3	-124.558E-12	668.653E-3	-25.7403E-3	-124.234E-12	636.183E-3	3.51767E-3
-3.23912E-3	-125.101E-12	677.635E-3	-34.2288E-3	-123.560E-12	670.780E-3	-19.2040E-3
-3.24412E-3	-124.752E-12	674.339E-3	-14.9388E-3	-123.954E-12	678.688E-3	-40.4564E-3
-3.24912E-3	-125.274E-12	661.584E-3	-9.78549E-3	-124.239E-12	679.342E-3	-29.0023E-3
-3.25413E-3	-125.009E-12	673.538E-3	-22.7511E-3	-124.742E-12	670.341E-3	-15.0690E-3
-3.25913E-3	-124.819E-12	681.306E-3	-30.8807E-3	-125.588E-12	647.618E-3	-23.8779E-3
-3.26413E-3	-124.577E-12	668.310E-3	-33.2298E-3	-125.909E-12	654.646E-3	-17.1170E-3
-3.26913E-3	-124.907E-12	659.664E-3	-46.0104E-3	-126.384E-12	682.623E-3	-9.33867E-3
-3.27414E-3	-125.465E-12	656.507E-3	-52.7614E-3	-127.408E-12	683.858E-3	-28.4851E-3
-3.27914E-3	-125.703E-12	654.129E-3	-39.4099E-3	-127.364E-12	673.151E-3	-32.8486E-3
-3.28414E-3	-125.887E-12	654.912E-3	-34.1042E-3	-127.256E-12	691.955E-3	-37.0358E-3
-3.28914E-3	-126.327E-12	651.753E-3	-36.5072E-3	-127.929E-12	698.001E-3	-47.7007E-3
-3.29415E-3	-127.232E-12	644.721E-3	-31.1804E-3	-128.216E-12	681.638E-3	-20.0766E-3
-3.29915E-3	-127.267E-12	660.625E-3	-20.2707E-3	-128.243E-12	693.400E-3	-4.39803E-3
-3.30415E-3	-128.286E-12	674.036E-3	-15.1662E-3	-128.364E-12	707.626E-3	-16.8050E-3
-3.30915E-3	-128.721E-12	665.981E-3	-18.9104E-3	-128.636E-12	703.525E-3	-3.06454E-3
-3.31416E-3	-128.514E-12	676.699E-3	-15.3083E-3	-128.687E-12	719.820E-3	16.0323E-3
-3.31916E-3	-129.093E-12	693.807E-3	-5.15977E-3	-128.390E-12	732.253E-3	8.77093E-3
-3.32416E-3	-129.359E-12	677.725E-3	-1.27437E-3	-128.457E-12	706.245E-3	5.96490E-3
-3.32916E-3	-129.250E-12	677.223E-3	-8.02025E-3	-128.670E-12	696.623E-3	22.8894E-3
-3.33417E-3	-129.256E-12	699.777E-3	-23.3874E-3	-128.798E-12	707.899E-3	11.9205E-3
-3.33917E-3	-129.240E-12	675.208E-3	-56.7389E-3	-128.517E-12	684.314E-3	-24.0075E-3
-3.34417E-3	-129.210E-12	636.159E-3	-77.9016E-3	-128.852E-12	670.072E-3	-25.6656E-3
-3.34917E-3	-129.634E-12	635.841E-3	-37.7541E-3	-129.354E-12	695.155E-3	-17.8797E-3
-3.35418E-3	-129.716E-12	641.618E-3	7.82813E-3	-129.266E-12	704.472E-3	-28.0005E-3
-3.35918E-3	-129.826E-12	644.113E-3	9.71212E-3	-129.920E-12	682.535E-3	-17.0759E-3
-3.36418E-3	-130.445E-12	650.056E-3	9.31319E-3	-130.180E-12	673.786E-3	-8.91720E-3
-3.36918E-3	-130.770E-12	650.335E-3	23.4758E-3	-131.138E-12	694.203E-3	-21.1543E-3
-3.37419E-3	-130.810E-12	646.660E-3	21.5731E-3	-131.832E-12	713.300E-3	-17.5036E-3
-3.37919E-3	-131.508E-12	651.597E-3	8.66931E-3	-131.688E-12	710.688E-3	-16.4832E-3
-3.38419E-3	-132.442E-12	665.354E-3	4.24831E-3	-131.547E-12	678.226E-3	-37.6526E-3
-3.38919E-3	-132.324E-12	660.236E-3	-11.1567E-3	-132.872E-12	666.472E-3	-37.3742E-3
-3.39420E-3	-132.404E-12	638.452E-3	-35.2620E-3	-132.827E-12	692.447E-3	-7.83748E-3
-3.39920E-3	-132.326E-12	644.019E-3	-46.8454E-3	-132.924E-12	713.400E-3	3.75131E-3
-3.40420E-3	-132.604E-12	688.919E-3	-43.3714E-3	-133.431E-12	702.538E-3	8.99319E-3
-3.40920E-3	-132.374E-12	711.071E-3	-32.3718E-3	-133.986E-12	670.122E-3	12.5188E-3
-3.41421E-3	-131.759E-12	687.010E-3	-28.9305E-3	-133.854E-12	663.372E-3	-2.28757E-3
-3.41921E-3	-131.871E-12	672.719E-3	-38.4358E-3	-133.511E-12	683.186E-3	-7.97111E-3
-3.42421E-3	-131.730E-12	671.775E-3	-38.9174E-3	-133.823E-12	695.199E-3	-9.19934E-3
-3.42921E-3	-131.564E-12	658.082E-3	-23.9615E-3	-133.982E-12	683.376E-3	-17.6991E-3
-3.43422E-3	-131.911E-12	662.228E-3	-29.1667E-3	-134.198E-12	668.197E-3	-14.7145E-3
-3.43922E-3	-131.952E-12	683.890E-3	-44.9211E-3	-134.018E-12	672.463E-3	-2.49365E-3
-3.44422E-3	-132.519E-12	673.363E-3	-36.0114E-3	-134.168E-12	670.732E-3	-2.84630E-3
-3.44922E-3	-132.481E-12	648.612E-3	-18.1475E-3	-134.096E-12	663.532E-3	-4.74984E-3
-3.45423E-3	-133.091E-12	648.601E-3	-2.19394E-3	-134.089E-12	682.512E-3	-14.1600E-3
-3.45923E-3	-133.890E-12	665.885E-3	-63.5200E-6	-134.522E-12	701.192E-3	-35.5492E-3
-3.46423E-3	-133.858E-12	694.774E-3	-23.6760E-3	-134.082E-12	694.065E-3	-29.8554E-3
-3.46923E-3	-134.672E-12	704.612E-3	-29.1241E-3	-134.716E-12	701.475E-3	-19.8470E-3
-3.47424E-3	-135.212E-12	670.514E-3	558.279E-6	-134.838E-12	716.361E-3	-30.0764E-3
-3.47924E-3	-135.588E-12	652.712E-3	15.2558E-3	-135.419E-12	695.609E-3	-12.7924E-3
-3.48424E-3	-135.830E-12	672.189E-3	14.5380E-3	-135.147E-12	668.274E-3	22.6184E-3
-3.48924E-3	-135.906E-12	686.622E-3	7.43229E-3	-135.521E-12	665.845E-3	30.3425E-3
-3.49425E-3	-136.108E-12	683.328E-3	-19.6218E-3	-136.027E-12	676.947E-3	18.1455E-3
-3.49925E-3	-136.100E-12	681.125E-3	-25.9415E-3	-136.341E-12	692.040E-3	-4.81584E-3
-3.50425E-3	-135.446E-12	704.877E-3	5.41365E-3	-136.533E-12	706.150E-3	-28.4621E-3
-3.50925E-3	-135.931E-12	718.035E-3	21.7748E-3	-137.216E-12	696.241E-3	-33.7566E-3
-3.51426E-3	-135.856E-12	694.921E-3	-2.87853E-3	-137.433E-12	682.390E-3	-11.3006E-3
-3.51926E-3	-135.768E-12	671.730E-3	-25.7929E-3	-137.721E-12	690.021E-3	2.83648E-3
-3.52426E-3	-136.080E-12	666.024E-3	-25.6102E-3	-137.303E-12	681.241E-3	-8.82073E-3
-3.52926E-3	-136.937E-12	664.280E-3	-8.58175E-3	-137.496E-12	659.058E-3	-3.80446E-3
-3.53427E-3	-137.995E-12	665.699E-3	716.727E-6	-137.278E-12	671.175E-3	12.9852E-3
-3.53927E-3	-138.257E-12	677.058E-3	-24.1660E-3	-137.841E-12	700.558E-3	13.3002E-3
-3.54427E-3	-138.872E-12	690.893E-3	-53.4436E-3	-137.737E-12	696.539E-3	7.01820E-3
-3.54927E-3	-139.628E-12	698.334E-3	-43.1105E-3	-137.696E-12	680.555E-3	-7.54621E-3
-3.55428E-3	-140.425E-12	699.868E-3	-18.6277E-3	-137.857E-12	682.285E-3	-17.5984E-3
-3.55928E-3	-141.339E-12	709.982E-3	-22.9455E-3	-138.256E-12	681.661E-3	-3.33353E-3
-3.56428E-3	-141.075E-12	710.823E-3	-19.6340E-3	-138.502E-12	677.317E-3	3.81320E-3
-3.56928E-3	-141.438E-12	693.223E-3	-17.4080E-3	-139.001E-12	684.601E-3	-19.7427E-3
-3.57429E-3	-141.997E-12	684.698E-3	-41.8148E-3	-138.964E-12	692.378E-3	-47.1646E-3
-3.57929E-3	-141.663E-12	699.057E-3	-29.5348E-3	-139.184E-12	692.566E-3	-33.7325E-3
-3.58429E-3	-140.910E-12	701.842E-3	14.9527E-3	-140.455E-12	701.351E-3	4.30615E-3
-3.58929E-3	-140.657E-12	670.071E-3	19.1766E-3	-140.758E-12	699.943E-3	25.1595E-3
-3.59430E-3	-140.370E-12	647.366E-3	10.2065E-3	-140.759E-12	684.560E-3	28.4174E-3
-3.59930E-3	-139.938E-12	656.898E-3	2.81318E-3	-141.305E-12	688.937E-3	14.9440E-3
-3.60430E-3	-139.625E-12	684.886E-3	-29.1399E-3	-142.313E-12	698.819E-3	-8.58680E-3
-3.60930E-3	-139.434E-12	714.577E-3	-38.4780E-3	-142.104E-12	695.873E-3	-9.93309E-3
-3.61431E-3	-139.576E-12	705.685E-3	-11.5176E-3	-142.752E-12	701.318E-3	-2.82166E-3
-3.61931E-3	-139.225E-12	661.718E-3	1.63386E-3	-143.250E-12	715.911E-3	-14.1967E-3
-3.62431E-3	-139.936E-12	637.242E-3	-1.97185E-3	-143.105E-12	722.850E-3	-24.1085E-3
-3.62931E-3	-140.959E-12	638.603E-3	7.62497E-3	-143.170E-12	710.516E-3	-28.3325E-3
-3.63432E-3	-141.224E-12	655.317E-3	-3.86641E-3	-144.077E-12	685.677E-3	-18.6759E-3
-3.63932E-3	-142.426E-12	691.108E-3	-39.4079E-3	-143.075E-12	679.545E-3	-5.64671E-3
-3.64432E-3	-142.378E-12	706.782E-3	-36.0813E-3	-143.042E-12	695.099E-3	-32.8703E-3
-3.64932E-3	-143.037E-12	678.453E-3	-404.053E-6	-143.247E-12	703.335E-3	-48.5270E-3
-3.65433E-3	-142.777E-12	646.154E-3	25.9517E-3	-143.425E-12	676.313E-3	-18.6607E-3
-3.65933E-3	-142.761E-12	645.244E-3	25.6880E-3	-143.589E-12	664.827E-3	-3.27907E-3
-3.66433E-3	-142.876E-12	670.058E-3	-148.970E-6	-143.827E-12	693.747E-3	4.54208E-3
-3.66933E-3	-142.618E-12	682.262E-3	-18.3234E-3	-144.290E-12	689.774E-3	15.4799E-3
-3.67434E-3	-142.536E-12	663.138E-3	2.31582E-3	-144.016E-12	656.258E-3	2.25027E-3
-3.67934E-3	-142.894E-12	644.216E-3	11.9586E-3	-144.212E-12	650.695E-3	-12.2308E-3
-3.68434E-3	-142.308E-12	660.042E-3	-20.0784E-3	-144.975E-12	671.971E-3	-4.23037E-3
-3.68934E-3	-142.349E-12	674.740E-3	-24.2868E-3	-145.496E-12	692.949E-3	-1.96877E-3
-3.69435E-3	-143.303E-12	656.917E-3	10.0515E-3	-146.192E-12	703.481E-3	-19.4577E-3
-3.69935E-3	-143.075E-12	652.752E-3	23.3847E-3	-146.453E-12	703.829E-3	-40.5163E-3
-3.70435E-3	-143.680E-12	667.058E-3	7.16404E-3	-147.020E-12	706.042E-3	-39.5867E-3
-3.70935E-3	-145.108E-12	678.389E-3	-6.77792E-3	-147.237E-12	708.857E-3	-17.4128E-3
-3.71436E-3	-145.467E-12	689.323E-3	-16.0869E-3	-147.739E-12	697.977E-3	7.58670E-3
-3.71936E-3	-145.891E-12	696.130E-3	-33.2488E-3	-147.662E-12	683.750E-3	25.1614E-3
-3.72436E-3	-146.873E-12	684.434E-3	-36.8244E-3	-147.292E-12	664.276E-3	14.4825E-3
-3.72936E-3	-147.593E-12	672.100E-3	-25.5753E-3	-147.239E-12	652.748E-3	-17.9684E-3
-3.73437E-3	-147.792E-12	689.544E-3	-15.2761E-3	-146.918E-12	665.933E-3	-39.4607E-3
-3.73937E-3	-147.870E-12	690.959E-3	-2.22309E-3	-146.794E-12	686.062E-3	-34.5946E-3
-3.74437E-3	-148.132E-12	649.851E-3	-8.76148E-3	-146.830E-12	695.334E-3	-14.9402E-3
-3.74937E-3	-148.569E-12	645.455E-3	-29.5622E-3	-146.880E-12	684.837E-3	-3.13731E-3
-3.75438E-3	-149.277E-12	675.830E-3	-5.52255E-3	-147.493E-12	678.110E-3	-6.20350E-3
-3.75938E-3	-148.733E-12	677.284E-3	33.7651E-3	-147.508E-12	688.786E-3	-14.9717E-3
-3.76438E-3	-148.864E-12	689.693E-3	20.2321E-3	-147.407E-12	683.974E-3	-31.7562E-3
-3.76938E-3	-148.608E-12	697.724E-3	1.61364E-3	-147.498E-12	667.203E-3	-46.8781E-3
-3.77439E-3	-149.139E-12	654.806E-3	9.75626E-3	-148.160E-12	652.037E-3	-51.3925E-3
-3.77939E-3	-149.284E-12	632.167E-3	9.36733E-3	-147.941E-12	644.549E-3	-50.8812E-3
-3.78439E-3	-149.627E-12	654.556E-3	10.3401E-3	-148.757E-12	660.274E-3	-46.8295E-3
-3.78939E-3	-149.713E-12	666.926E-3	10.4416E-3	-148.975E-12	663.805E-3	-29.8677E-3
-3.79440E-3	-149.943E-12	672.193E-3	-5.36946E-3	-149.448E-12	665.920E-3	10.4063E-3
-3.79940E-3	-150.093E-12	672.399E-3	2.76912E-3	-149.787E-12	681.400E-3	20.1899E-3
-3.80440E-3	-150.899E-12	654.581E-3	2.65908E-3	-150.523E-12	675.335E-3	-13.5743E-3
-3.80940E-3	-151.359E-12	644.848E-3	-54.3000E-3	-150.991E-12	656.321E-3	-22.8048E-3
-3.81441E-3	-151.651E-12	654.617E-3	-69.3423E-3	-150.427E-12	663.157E-3	-11.4816E-3
-3.81941E-3	-152.153E-12	653.091E-3	-15.9032E-3	-150.242E-12	686.027E-3	1.77027E-3
-3.82441E-3	-152.205E-12	647.880E-3	18.5342E-3	-151.272E-12	702.330E-3	20.8365E-3
-3.82941E-3	-152.328E-12	657.322E-3	40.8918E-3	-151.542E-12	715.474E-3	5.30017E-3
-3.83442E-3	-152.190E-12	648.185E-3	30.1324E-3	-151.039E-12	696.966E-3	-24.4114E-3
-3.83942E-3	-152.599E-12	616.281E-3	-41.2307E-3	-151.620E-12	669.827E-3	-22.6792E-3
-3.84442E-3	-151.352E-12	617.345E-3	-76.2125E-3	-151.936E-12	673.374E-3	-19.4998E-3
-3.84942E-3	-151.788E-12	658.062E-3	-35.8461E-3	-151.902E-12	668.186E-3	-31.8171E-3
-3.85443E-3	-151.510E-12	688.235E-3	-7.75244E-3	-151.887E-12	662.258E-3	-35.4278E-3
-3.85943E-3	-151.963E-12	694.379E-3	-17.9706E-3	-152.499E-12	675.580E-3	-27.9425E-3
-3.86443E-3	-151.711E-12	692.239E-3	-19.0962E-3	-152.459E-12	671.845E-3	-13.7025E-3
-3.86943E-3	-151.559E-12	698.563E-3	-34.6184E-3	-152.898E-12	657.338E-3	9.22951E-3
-3.87444E-3	-152.248E-12	701.894E-3	-51.2320E-3	-153.169E-12	664.182E-3	-1.52944E-3
-3.87944E-3	-153.119E-12	693.879E-3	-25.8109E-3	-153.671E-12	687.845E-3	-49.9807E-3
-3.88444E-3	-153.198E-12	671.140E-3	-2.48574E-3	-153.462E-12	704.487E-3	-77.3026E-3
-3.88944E-3	-154.084E-12	649.782E-3	-19.9053E-3	-153.706E-12	714.233E-3	-66.6468E-3
-3.89445E-3	-154.700E-12	658.511E-3	-47.9317E-3	-154.252E-12	702.123E-3	-43.0745E-3
-3.89945E-3	-155.333E-12	676.027E-3	-45.3837E-3	-154.552E-12	666.030E-3	-42.3765E-3
-3.90445E-3	-155.000E-12	682.237E-3	-16.6370E-3	-153.985E-12	664.571E-3	-58.0073E-3
-3.90945E-3	-155.533E-12	680.331E-3	15.5413E-3	-154.393E-12	685.688E-3	-64.4867E-3
-3.91446E-3	-154.980E-12	665.780E-3	19.5661E-3	-155.867E-12	666.667E-3	-53.2117E-3
-3.91946E-3	-155.362E-12	644.258E-3	-11.1528E-3	-155.670E-12	644.204E-3	-58.0302E-3
-3.92446E-3	-155.426E-12	640.159E-3	-10.0294E-3	-155.851E-12	654.715E-3	-71.5986E-3
-3.92946E-3	-155.101E-12	653.719E-3	12.5726E-3	-156.743E-12	663.990E-3	-51.6149E-3
-3.93447E-3	-154.391E-12	655.886E-3	-5.46656E-3	-157.716E-12	665.494E-3	-17.7670E-3
-3.93947E-3	-154.455E-12	645.199E-3	-22.6206E-3	-157.777E-12	663.978E-3	23.5168E-3
-3.94447E-3	-154.720E-12	625.757E-3	-19.1086E-3	-158.038E-12	657.926E-3	41.8366E-3
-3.94947E-3	-155.166E-12	614.800E-3	-14.0945E-3	-158.166E-12	659.047E-3	9.48121E-3
-3.95448E-3	-155.651E-12	638.477E-3	-2.09703E-3	-158.237E-12	656.875E-3	-18.8267E-3
-3.95948E-3	-156.681E-12	667.267E-3	-2.77863E-3	-158.783E-12	649.695E-3	-27.6308E-3
-3.96448E-3	-157.573E-12	696.009E-3	-16.1421E-3	-158.596E-12	664.255E-3	-28.6218E-3
-3.96948E-3	-157.556E-12	715.493E-3	-21.2934E-3	-158.295E-12	686.156E-3	-16.9197E-3
-3.97449E-3	-158.534E-12	685.193E-3	-36.8495E-3	-158.836E-12	695.727E-3	-27.4301E-3
-3.97949E-3	-158.958E-12	665.410E-3	-65.6993E-3	-158.449E-12	709.430E-3	-40.2696E-3
-3.98449E-3	-159.981E-12	693.998E-3	-75.9794E-3	-158.878E-12	714.888E-3	-34.0740E-3
-3.98949E-3	-160.229E-12	696.096E-3	-68.7946E-3	-158.691E-12	705.066E-3	-29.6006E-3
-3.99450E-3	-160.364E-12	660.697E-3	-52.7246E-3	-159.356E-12	677.750E-3	-22.4250E-3
-3.99950E-3	-160.201E-12	651.852E-3	-16.9695E-3	-159.343E-12	658.955E-3	-13.3430E-3
-4.00450E-3	-160.647E-12	675.295E-3	4.51929E-3	-159.629E-12	667.349E-3	-13.4372E-3
-4.00950E-3	-159.760E-12	695.024E-3	-3.13519E-3	-159.866E-12	668.351E-3	-29.1046E-3
-4.01451E-3	-159.274E-12	695.056E-3	-2.31762E-3	-160.429E-12	662.424E-3	-41.5524E-3
-4.01951E-3	-158.769E-12	687.566E-3	-4.53360E-3	-160.883E-12	676.750E-3	-37.0258E-3
-4.02451E-3	-157.829E-12	677.816E-3	-27.5714E-3	-161.350E-12	689.886E-3	-14.0443E-3
-4.02951E-3	-157.520E-12	651.244E-3	-29.4203E-3	-162.127E-12	674.296E-3	418.629E-9
-4.03452E-3	-157.262E-12	631.452E-3	-2.02069E-3	-162.613E-12	664.770E-3	-33.1338E-3
-4.03952E-3	-157.488E-12	641.017E-3	-277.422E-6	-162.285E-12	664.385E-3	-64.0581E-3
-4.04452E-3	-157.209E-12	661.304E-3	-35.1395E-3	-162.271E-12	662.192E-3	-34.6196E-3
-4.04952E-3	-157.509E-12	672.561E-3	-58.3241E-3	-162.208E-12	660.900E-3	9.91010E-3
-4.05453E-3	-158.714E-12	670.140E-3	-52.9848E-3	-162.139E-12	646.840E-3	9.42916E-3
-4.05953E-3	-160.147E-12	656.570E-3	-39.1828E-3	-162.138E-12	640.859E-3	-11.7015E-3
-4.06453E-3	-160.961E-12	654.471E-3	-35.5808E-3	-162.844E-12	662.184E-3	-3.67599E-3
-4.06953E-3	-161.521E-12	674.627E-3	-39.4662E-3	-161.904E-12	685.248E-3	12.5217E-3
-4.07454E-3	-162.710E-12	695.379E-3	-35.9754E-3	-162.060E-12	704.786E-3	5.43584E-3
-4.07954E-3	-163.519E-12	692.562E-3	-26.1191E-3	-162.012E-12	701.729E-3	-34.2366E-3
-4.08454E-3	-163.156E-12	662.985E-3	-24.1336E-3	-161.876E-12	682.710E-3	-73.7372E-3
-4.08954E-3	-163.610E-12	652.879E-3	-39.9647E-3	-162.018E-12	680.924E-3	-54.2867E-3
-4.09455E-3	-163.975E-12	672.423E-3	-33.9717E-3	-161.824E-12	674.173E-3	-23.4459E-3
-4.09955E-3	-163.764E-12	656.223E-3	-10.3781E-3	-162.409E-12	671.681E-3	-30.6823E-3
-4.10455E-3	-163.371E-12	641.904E-3	-8.18318E-3	-162.763E-12	667.084E-3	-34.3551E-3
-4.10955E-3	-163.610E-12	698.141E-3	7.61321E-3	-163.866E-12	655.014E-3	-10.4935E-3
-4.11456E-3	-163.173E-12	746.512E-3	33.9864E-3	-163.628E-12	656.034E-3	-2.63562E-3
-4.11956E-3	-163.040E-12	731.244E-3	14.1416E-3	-164.449E-12	649.133E-3	-20.2496E-3
-4.12456E-3	-162.554E-12	698.907E-3	-26.1502E-3	-164.992E-12	645.039E-3	-19.0276E-3
-4.12956E-3	-163.300E-12	665.534E-3	-26.9137E-3	-165.289E-12	651.476E-3	-27.0532E-3
-4.13457E-3	-164.282E-12	650.273E-3	-18.7773E-3	-165.164E-12	656.861E-3	-34.4876E-3
-4.13957E-3	-164.805E-12	658.016E-3	-16.2285E-3	-165.767E-12	682.933E-3	-6.90488E-3
-4.14457E-3	-165.151E-12	658.969E-3	-8.50434E-3	-165.005E-12	716.315E-3	11.9421E-3
-4.14957E-3	-166.221E-12	659.908E-3	-13.6881E-3	-164.994E-12	699.949E-3	5.53956E-3
-4.15458E-3	-167.479E-12	660.498E-3	-19.9770E-3	-165.138E-12	663.430E-3	467.573E-6
-4.15958E-3	-167.785E-12	655.378E-3	-17.1745E-3	-164.750E-12	670.404E-3	-8.12393E-3
-4.16458E-3	-168.652E-12	672.614E-3	-21.9870E-3	-164.636E-12	678.522E-3	-19.3064E-3
-4.16958E-3	-169.485E-12	696.877E-3	-42.4570E-3	-164.900E-12	661.065E-3	-2.08412E-3
-4.17459E-3	-169.648E-12	684.225E-3	-54.3163E-3	-165.221E-12	656.555E-3	16.5492E-3
-4.17959E-3	-168.983E-12	672.382E-3	-61.1913E-3	-165.419E-12	670.352E-3	5.21315E-3
-4.18459E-3	-169.289E-12	697.890E-3	-55.5749E-3	-166.207E-12	699.803E-3	-10.6381E-3
-4.18959E-3	-168.533E-12	702.731E-3	-4.38137E-3	-166.509E-12	716.255E-3	-16.0751E-3
-4.19460E-3	-167.978E-12	651.804E-3	26.6819E-3	-167.357E-12	681.220E-3	-17.5584E-3
-4.19960E-3	-167.046E-12	625.906E-3	14.6629E-3	-168.276E-12	662.825E-3	-17.1410E-3
-4.20460E-3	-168.019E-12	659.874E-3	6.00767E-3	-168.354E-12	692.768E-3	-27.0055E-3
-4.20960E-3	-167.238E-12	672.922E-3	-3.67995E-3	-169.175E-12	712.674E-3	-53.6185E-3
-4.21461E-3	-167.614E-12	649.728E-3	-25.6217E-3	-170.081E-12	715.344E-3	-58.1919E-3
-4.21961E-3	-167.903E-12	640.461E-3	-48.1715E-3	-170.214E-12	700.796E-3	-42.4111E-3
-4.22461E-3	-167.758E-12	651.466E-3	-63.9125E-3	-170.655E-12	650.572E-3	-46.3908E-3
-4.22961E-3	-167.894E-12	667.627E-3	-80.0005E-3	-170.856E-12	614.670E-3	-44.5063E-3
-4.23462E-3	-168.909E-12	683.468E-3	-75.8637E-3	-171.071E-12	634.140E-3	-39.1899E-3
-4.23962E-3	-169.883E-12	673.217E-3	-54.4060E-3	-170.690E-12	655.321E-3	-50.1604E-3
-4.24462E-3	-169.657E-12	631.007E-3	-42.5065E-3	-171.498E-12	657.704E-3	-44.8895E-3
-4.24962E-3	-170.389E-12	620.369E-3	-39.0464E-3	-170.211E-12	663.323E-3	-40.4961E-3
-4.25463E-3	-170.719E-12	642.894E-3	-10.0058E-3	-170.746E-12	663.614E-3	-32.9610E-3
-4.25963E-3	-171.202E-12	646.406E-3	48.4010E-3	-170.919E-12	657.566E-3	302.752E-6
-4.26463E-3	-171.152E-12	640.212E-3	58.2227E-3	-171.219E-12	675.008E-3	10.2105E-3
-4.26963E-3	-170.826E-12	643.232E-3	25.3401E-3	-171.609E-12	689.852E-3	-7.72082E-3
-4.27464E-3	-170.342E-12	659.804E-3	-2.42523E-3	-171.643E-12	660.686E-3	-25.1552E-3
-4.27964E-3	-170.195E-12	671.078E-3	-15.7522E-3	-172.300E-12	652.112E-3	-34.7252E-3
-4.28464E-3	-170.156E-12	658.061E-3	-2.05261E-3	-172.774E-12	682.454E-3	-29.6966E-3
-4.28964E-3	-170.163E-12	644.543E-3	2.62570E-3	-173.610E-12	681.270E-3	-5.84684E-3
-4.29465E-3	-169.561E-12	638.760E-3	-7.67194E-3	-173.885E-12	654.904E-3	20.1089E-3
-4.29965E-3	-170.168E-12	622.397E-3	-5.91254E-3	-173.979E-12	649.668E-3	139.518E-6
-4.30465E-3	-170.859E-12	604.612E-3	-17.1471E-3	-174.312E-12	668.632E-3	-52.3221E-3
-4.30965E-3	-171.532E-12	614.200E-3	-31.4726E-3	-174.352E-12	702.287E-3	-78.8382E-3
-4.31466E-3	-171.792E-12	639.014E-3	-29.9422E-3	-173.956E-12	696.507E-3	-79.2718E-3
-4.31966E-3	-172.904E-12	646.139E-3	-27.8406E-3	-174.135E-12	640.101E-3	-49.1633E-3
-4.32466E-3	-173.116E-12	658.902E-3	-25.5486E-3	-174.612E-12	611.068E-3	-5.22532E-3
-4.32966E-3	-174.422E-12	658.703E-3	-11.4227E-3	-174.776E-12	637.430E-3	-8.18912E-3
-4.33467E-3	-174.162E-12	637.841E-3	4.35025E-3	-174.961E-12	668.472E-3	-33.3412E-3
-4.33967E-3	-174.594E-12	633.366E-3	-8.88916E-3	-174.395E-12	676.335E-3	-44.7790E-3
-4.34467E-3	-175.192E-12	632.103E-3	-27.4951E-3	-175.102E-12	679.987E-3	-49.8488E-3
-4.34967E-3	-175.156E-12	636.085E-3	-26.7699E-3	-174.770E-12	670.566E-3	-24.2218E-3
-4.35468E-3	-174.399E-12	663.027E-3	-24.6097E-3	-175.350E-12	650.376E-3	-8.63749E-3
-4.35968E-3	-174.838E-12	671.917E-3	-23.9102E-3	-176.054E-12	661.028E-3	-28.2555E-3
-4.36468E-3	-174.457E-12	647.341E-3	-24.7587E-3	-175.993E-12	682.004E-3	-34.7726E-3
-4.36968E-3	-173.950E-12	662.607E-3	-32.6467E-3	-176.802E-12	666.276E-3	-35.2001E-3
-4.37469E-3	-174.072E-12	695.866E-3	-23.7062E-3	-177.560E-12	648.775E-3	-25.1771E-3
-4.37969E-3	-173.920E-12	689.397E-3	3.21146E-3	-176.678E-12	670.394E-3	516.550E-6
-4.38469E-3	-173.994E-12	660.484E-3	-6.28671E-3	-177.471E-12	693.724E-3	-9.19850E-3
-4.38969E-3	-174.663E-12	645.155E-3	-23.6110E-3	-177.706E-12	691.830E-3	-39.8646E-3
-4.39470E-3	-175.735E-12	657.921E-3	-17.0729E-3	-177.728E-12	696.137E-3	-20.4835E-3
-4.39970E-3	-176.783E-12	680.143E-3	-22.5521E-3	-177.195E-12	713.048E-3	-7.37313E-3
-4.40470E-3	-178.491E-12	690.951E-3	-31.1551E-3	-177.560E-12	703.660E-3	-37.1206E-3
-4.40970E-3	-179.337E-12	669.810E-3	-25.8523E-3	-176.841E-12	657.063E-3	-39.4424E-3
-4.41471E-3	-179.999E-12	653.394E-3	-36.1296E-3	-176.604E-12	633.397E-3	-18.1345E-3
-4.41971E-3	-180.187E-12	670.237E-3	-63.7515E-3	-176.312E-12	657.777E-3	-21.8862E-3
-4.42471E-3	-180.733E-12	672.521E-3	-42.2669E-3	-176.468E-12	667.156E-3	-28.9960E-3
-4.42971E-3	-180.708E-12	657.789E-3	-902.484E-6	-177.370E-12	663.890E-3	-10.9792E-3
-4.43472E-3	-179.821E-12	680.363E-3	-1.01189E-3	-177.297E-12	671.662E-3	14.9390E-3
-4.43972E-3	-179.886E-12	703.284E-3	-2.35849E-3	-177.265E-12	647.828E-3	26.2162E-3
-4.44472E-3	-179.765E-12	682.083E-3	-6.22662E-3	-178.218E-12	626.720E-3	8.12426E-3
-4.44972E-3	-178.410E-12	665.332E-3	-15.5372E-3	-179.201E-12	655.379E-3	-26.7178E-3
-4.45473E-3	-177.845E-12	654.216E-3	6.88203E-3	-179.024E-12	673.055E-3	-49.4179E-3
-4.45973E-3	-177.631E-12	646.044E-3	25.9538E-3	-179.601E-12	655.941E-3	-52.5607E-3
-4.46473E-3	-177.697E-12	650.487E-3	5.34585E-3	-180.164E-12	649.013E-3	-37.6893E-3
-4.46973E-3	-177.226E-12	642.175E-3	-16.6857E-3	-180.777E-12	653.583E-3	-18.7475E-3
-4.47474E-3	-178.380E-12	633.639E-3	-27.2442E-3	-180.600E-12	660.592E-3	-24.4674E-3
-4.47974E-3	-179.119E-12	649.998E-3	-27.5800E-3	-180.222E-12	669.950E-3	-36.5317E-3
-4.48474E-3	-179.846E-12	677.112E-3	14.7812E-3	-180.408E-12	666.056E-3	-45.7405E-3
-4.48974E-3	-181.066E-12	674.620E-3	49.3772E-3	-179.574E-12	660.183E-3	-49.7064E-3
-4.49475E-3	-182.785E-12	667.869E-3	9.60052E-3	-179.140E-12	650.626E-3	-31.0234E-3
-4.49975E-3	-182.962E-12	680.776E-3	-24.2751E-3	-179.811E-12	625.701E-3	-25.3998E-3
-4.50475E-3	-183.596E-12	671.216E-3	3.97682E-3	-179.408E-12	612.794E-3	-33.1410E-3
-4.50975E-3	-184.145E-12	655.984E-3	9.75180E-3	-178.092E-12	610.576E-3	-21.1548E-3
-4.51476E-3	-184.192E-12	649.000E-3	-28.0140E-3	-179.793E-12	616.508E-3	-19.7342E-3
-4.51976E-3	-183.303E-12	629.193E-3	-51.8979E-3	-181.380E-12	648.580E-3	-30.6734E-3
-4.52476E-3	-183.287E-12	619.016E-3	-43.0606E-3	-180.977E-12	673.832E-3	-23.5320E-3
-4.52976E-3	-183.132E-12	625.487E-3	-2.70734E-3	-181.839E-12	669.124E-3	185.712E-6
-4.53477E-3	-181.672E-12	643.084E-3	21.6876E-3	-183.464E-12	665.867E-3	7.70391E-3
-4.53977E-3	-182.124E-12	659.271E-3	3.02921E-3	-184.641E-12	668.760E-3	-9.79013E-3
-4.54477E-3	-181.196E-12	648.592E-3	-24.5023E-3	-184.764E-12	671.385E-3	-11.8122E-3
-4.54977E-3	-181.037E-12	616.120E-3	-40.8427E-3	-185.846E-12	681.912E-3	-960.450E-6
-4.55478E-3	-180.498E-12	598.078E-3	-47.3279E-3	-185.919E-12	663.612E-3	9.74797E-3
-4.55978E-3	-181.221E-12	623.565E-3	-48.2469E-3	-186.398E-12	635.929E-3	16.3518E-3
-4.56478E-3	-181.784E-12	665.685E-3	-31.2750E-3	-186.649E-12	639.894E-3	-607.857E-6
-4.56978E-3	-183.663E-12	662.997E-3	-23.8225E-3	-185.909E-12	646.660E-3	-23.8639E-3
-4.57479E-3	-183.587E-12	646.275E-3	-26.7127E-3	-185.056E-12	649.229E-3	-35.4372E-3
-4.57979E-3	-184.788E-12	661.186E-3	1.85069E-3	-186.003E-12	656.614E-3	-36.7646E-3
-4.58479E-3	-185.923E-12	666.629E-3	11.9880E-3	-185.160E-12	663.317E-3	-48.3374E-3
-4.58979E-3	-186.039E-12	660.500E-3	-17.8842E-3	-184.266E-12	658.565E-3	-65.6388E-3
-4.59480E-3	-186.477E-12	655.044E-3	-25.4603E-3	-184.616E-12	665.233E-3	-45.6087E-3
-4.59980E-3	-186.402E-12	662.205E-3	-13.9089E-3	-184.750E-12	677.597E-3	-19.4562E-3
-4.60480E-3	-186.194E-12	692.997E-3	-20.0393E-3	-184.214E-12	667.871E-3	-24.3705E-3
-4.60980E-3	-185.981E-12	681.753E-3	-12.3690E-3	-185.005E-12	682.268E-3	-35.1502E-3
-4.61481E-3	-185.828E-12	639.313E-3	-8.64534E-3	-187.369E-12	714.436E-3	-38.0636E-3
-4.61981E-3	-184.986E-12	637.049E-3	-48.9996E-3	-186.866E-12	704.211E-3	-31.6229E-3
-4.62481E-3	-184.809E-12	645.822E-3	-63.7332E-3	-188.047E-12	684.159E-3	-18.6950E-3
-4.62981E-3	-184.358E-12	639.538E-3	-45.9401E-3	-190.198E-12	698.032E-3	-12.1542E-3
-4.63482E-3	-183.455E-12	648.645E-3	-34.9397E-3	-190.590E-12	699.900E-3	-4.21498E-3
-4.63982E-3	-183.882E-12	662.868E-3	1.35987E-3	-190.412E-12	677.480E-3	-7.04074E-3
-4.64482E-3	-183.870E-12	665.054E-3	27.7408E-3	-191.145E-12	675.656E-3	-24.5946E-3
-4.64982E-3	-184.919E-12	668.755E-3	9.38923E-3	-192.540E-12	684.349E-3	-30.3950E-3
-4.65483E-3	-185.828E-12	684.661E-3	-12.4314E-3	-190.858E-12	671.836E-3	-49.0063E-3
-4.65983E-3	-186.193E-12	687.742E-3	-5.46154E-3	-191.379E-12	648.554E-3	-62.1728E-3
-4.66483E-3	-187.915E-12	670.421E-3	-1.48383E-3	-190.482E-12	653.913E-3	-26.9706E-3
-4.66983E-3	-189.354E-12	673.041E-3	-1.53686E-3	-190.433E-12	661.307E-3	5.91632E-3
-4.67484E-3	-189.500E-12	677.176E-3	22.2092E-3	-188.913E-12	647.578E-3	-2.91679E-3
-4.67984E-3	-189.952E-12	669.190E-3	18.2984E-3	-189.328E-12	654.402E-3	-30.8375E-3
-4.68484E-3	-191.689E-12	683.138E-3	-9.20278E-3	-188.720E-12	680.445E-3	-31.3982E-3
-4.68984E-3	-190.897E-12	703.375E-3	-12.5782E-3	-188.501E-12	688.522E-3	3.32335E-3
-4.69485E-3	-191.394E-12	684.815E-3	-13.3898E-3	-189.665E-12	674.628E-3	14.6415E-3
-4.69985E-3	-191.213E-12	657.690E-3	-11.6588E-3	-190.013E-12	658.197E-3	-4.07099E-3
-4.70485E-3	-190.397E-12	670.533E-3	11.0308E-3	-190.894E-12	650.854E-3	-14.8314E-3
-4.70985E-3	-189.845E-12	689.127E-3	10.9548E-3	-190.978E-12	651.807E-3	-21.8926E-3
-4.71486E-3	-190.049E-12	685.012E-3	-25.9421E-3	-191.696E-12	665.599E-3	-15.7715E-3
-4.71986E-3	-189.852E-12	669.475E-3	-62.7543E-3	-191.731E-12	690.506E-3	-20.1642E-3
-4.72486E-3	-190.374E-12	659.279E-3	-68.8148E-3	-191.442E-12	697.324E-3	-48.9659E-3
-4.72986E-3	-191.737E-12	674.782E-3	-54.4467E-3	-192.511E-12	686.840E-3	-54.0327E-3
-4.73487E-3	-191.659E-12	713.493E-3	-48.4008E-3	-192.674E-12	671.890E-3	-46.9139E-3
-4.73987E-3	-192.420E-12	722.553E-3	-48.9169E-3	-192.164E-12	648.249E-3	-44.2225E-3
-4.74487E-3	-193.529E-12	687.807E-3	-32.8421E-3	-191.861E-12	626.559E-3	-44.7116E-3
-4.74988E-3	-194.556E-12	651.583E-3	-4.41680E-3	-192.829E-12	616.688E-3	-52.4241E-3
-4.75488E-3	-194.956E-12	650.068E-3	-17.4438E-3	-193.111E-12	619.584E-3	-53.9100E-3
-4.75988E-3	-196.380E-12	680.183E-3	-44.4500E-3	-192.250E-12	644.228E-3	-55.4400E-3
-4.76488E-3	-195.481E-12	706.617E-3	-41.3977E-3	-191.801E-12	678.898E-3	-57.5834E-3
-4.76988E-3	-196.338E-12	704.909E-3	-27.3614E-3	-192.008E-12	696.052E-3	-28.0611E-3
-4.77489E-3	-196.423E-12	704.312E-3	-8.35194E-3	-192.565E-12	681.158E-3	5.64586E-3
-4.77989E-3	-195.280E-12	698.742E-3	-10.1898E-3	-192.295E-12	677.727E-3	2.65923E-3
-4.78489E-3	-194.580E-12	654.869E-3	-34.2073E-3	-193.071E-12	697.084E-3	-10.6542E-3
-4.78989E-3	-195.491E-12	628.946E-3	-44.8612E-3	-194.105E-12	675.364E-3	-8.47308E-3
-4.79490E-3	-194.988E-12	640.798E-3	-67.3113E-3	-195.109E-12	659.950E-3	7.24513E-3
-4.79990E-3	-193.705E-12	648.729E-3	-75.0203E-3	-195.914E-12	665.695E-3	23.5308E-3
-4.80490E-3	-194.533E-12	671.233E-3	-51.8662E-3	-195.983E-12	644.029E-3	30.5242E-3
-4.80990E-3	-194.809E-12	708.958E-3	-47.1918E-3	-196.530E-12	649.860E-3	6.18383E-3
-4.81491E-3	-194.293E-12	695.749E-3	-27.7482E-3	-196.065E-12	669.934E-3	-30.8305E-3
-4.81991E-3	-195.195E-12	651.894E-3	1.18842E-3	-196.138E-12	656.472E-3	-23.4282E-3
-4.82491E-3	-196.401E-12	640.202E-3	-8.02495E-3	-196.025E-12	645.643E-3	-5.78790E-3
-4.82991E-3	-196.185E-12	635.660E-3	-22.0711E-3	-195.830E-12	658.038E-3	-9.69875E-3
-4.83492E-3	-197.232E-12	630.386E-3	-23.4506E-3	-196.151E-12	666.348E-3	-13.9311E-3
-4.83992E-3	-198.462E-12	649.450E-3	-20.3471E-3	-195.148E-12	659.920E-3	-41.5779E-3
-4.84492E-3	-197.945E-12	669.674E-3	-12.4744E-3	-194.964E-12	671.333E-3	-77.7388E-3
-4.84992E-3	-199.081E-12	654.337E-3	-10.7422E-3	-195.420E-12	698.459E-3	-81.6751E-3
-4.85493E-3	-198.793E-12	663.589E-3	424.263E-6	-195.759E-12	684.980E-3	-68.4697E-3
-4.85993E-3	-198.715E-12	711.362E-3	14.4667E-3	-196.282E-12	659.107E-3	-52.5227E-3
-4.86493E-3	-198.023E-12	701.497E-3	16.0558E-3	-196.386E-12	664.940E-3	-40.1669E-3
-4.86993E-3	-197.854E-12	680.453E-3	35.4827E-3	-198.089E-12	674.779E-3	-20.6360E-3
-4.87494E-3	-196.903E-12	685.899E-3	56.5631E-3	-198.875E-12	693.924E-3	-1.25856E-3
-4.87994E-3	-196.882E-12	650.032E-3	34.0241E-3	-200.156E-12	702.648E-3	-6.20673E-3
-4.88494E-3	-196.915E-12	607.233E-3	-21.2615E-3	-199.641E-12	685.675E-3	3.18665E-3
-4.88995E-3	-196.747E-12	624.028E-3	-40.4559E-3	-201.336E-12	675.216E-3	34.5620E-3
-4.89495E-3	-197.374E-12	663.374E-3	-10.3299E-3	-201.034E-12	676.098E-3	30.4424E-3
-4.89995E-3	-197.765E-12	694.019E-3	-9.28268E-3	-201.103E-12	660.157E-3	-13.4030E-3
-4.90495E-3	-197.435E-12	712.162E-3	-32.6990E-3	-201.073E-12	652.097E-3	-43.2123E-3
-4.90995E-3	-198.185E-12	707.619E-3	-44.6541E-3	-200.141E-12	670.895E-3	-56.9493E-3
-4.91496E-3	-199.333E-12	711.188E-3	-54.0380E-3	-199.177E-12	685.070E-3	-56.1540E-3
-4.91996E-3	-200.491E-12	719.873E-3	-34.8817E-3	-199.575E-12	699.828E-3	-9.18844E-3
-4.92496E-3	-200.809E-12	689.239E-3	3.98880E-3	-199.410E-12	709.200E-3	29.7552E-3
-4.92996E-3	-201.959E-12	653.990E-3	12.3125E-3	-198.534E-12	690.195E-3	24.3571E-3
-4.93497E-3	-201.736E-12	651.888E-3	6.04808E-3	-198.871E-12	672.300E-3	8.44843E-3
-4.93997E-3	-202.268E-12	644.237E-3	9.45414E-3	-199.343E-12	681.944E-3	-4.45042E-3
-4.94497E-3	-203.195E-12	645.049E-3	10.0570E-3	-200.882E-12	682.486E-3	-4.52508E-3
-4.94997E-3	-201.692E-12	667.376E-3	-9.76250E-3	-201.122E-12	676.985E-3	-1.17772E-3
-4.95498E-3	-200.469E-12	680.432E-3	-45.5505E-3	-201.954E-12	679.612E-3	-11.2581E-3
-4.95998E-3	-199.831E-12	683.291E-3	-50.6831E-3	-203.583E-12	659.676E-3	-41.9014E-3
-4.96498E-3	-199.541E-12	690.208E-3	-7.33058E-3	-204.877E-12	644.564E-3	-59.5755E-3
-4.96998E-3	-198.986E-12	678.921E-3	21.1379E-3	-205.045E-12	659.525E-3	-23.9718E-3
-4.97499E-3	-199.289E-12	645.946E-3	-7.10241E-3	-205.852E-12	664.963E-3	42.0395E-3
-4.97999E-3	-200.611E-12	665.119E-3	-41.2599E-3	-206.787E-12	660.596E-3	54.0744E-3
-4.98499E-3	-200.691E-12	703.178E-3	-33.8361E-3	-206.427E-12	692.892E-3	15.2527E-3
-4.98999E-3	-201.185E-12	700.354E-3	12.7546E-3	-206.551E-12	719.798E-3	5.65815E-3
-4.99500E-3	-203.026E-12	692.054E-3	30.2201E-3	-205.018E-12	680.385E-3	26.6660E-3
-5.00000E-3	-204.148E-12	664.514E-3	21.4764E-3	-204.647E-12	641.849E-3	31.9703E-3
