Experiment	bias spectroscopy	
Date	19.01.2016 22:00:11	
User		
X (m)	49.9781E-9	
Y (m)	257.582E-9	
Z (m)	-132.613E-9	
Z offset (m)	0E+0	
Settling time (s)	200E-6	
Integration time (s)	5E-3	
Z-Ctrl hold	TRUE	
Final Z (m)	N/A	
Filter type	None	
Order		
Cutoff frq		
Comment01	MnPc/Pb(111)	
Comment02	dz =00pm	
Comment03	7 Sweeps	
Comment04	MagField =0.T	
Comment05	Divider 1:10	
Comment06	Setpoint:5mV,200 pA	
Comment07	Lockin: 50uVrms,5ms,5mV	
Comment08	Gain:9; 912Hz modulation	
Comment09	T=1.06K	
Bias>Bias (V)	5E-3	
Bias>Calibration (V/V)	81.475E-3	
Bias>Offset (V)	1.046E-3	
Bias Spectroscopy>Sweep Start (V)	5E-3	
Bias Spectroscopy>Sweep End (V)	-5E-3	
Bias Spectroscopy>Num Pixel	2000	
Bias Spectroscopy>Z Avg time (s)	500E-3	
Bias Spectroscopy>Z offset (m)	0E+0	
Bias Spectroscopy>1st Settling time (s)	500E-3	
Bias Spectroscopy>Settling time (s)	200E-6	
Bias Spectroscopy>Integration time (s)	5E-3	
Bias Spectroscopy>End Settling time (s)	500E-3	
Bias Spectroscopy>Z control time (s)	500E-3	
Bias Spectroscopy>Max Slew rate (V/s)	Inf	
Bias Spectroscopy>backward sweep	TRUE	
Bias Spectroscopy>Z-controller hold	TRUE	
Bias Spectroscopy>Number of sweeps	7	
Bias Spectroscopy>Channels	Current (A);X% LockIn (V);Y% LockIn (V)	
Bias Spectroscopy>Reset Bias	TRUE	
Bias Spectroscopy>Record final Z	FALSE	
Bias Spectroscopy>Lock-In run	FALSE	
Bias Spectroscopy>Sweep mode	Linear	
Bias Spectroscopy>MultiLine Settings : Segment Start (V), Segment End (V), Settling (s), Integration (s), Steps (xn)	100E-3,3.3E-3,100E-6,10E-3,2500;3.3E-3,-3.3E-3,100E-6,10E-3,10;-3.3E-3,-100E-3,100E-6,10E-3,2500	
Current>Current (A)	200.036E-12	
Current>Calibration (A/V)	999.99900E-12	
Current>Offset (A)	-455.429E-15	
Current>Gain	LN 10^9	
Z-Controller>Z (m)	-132.613E-9	
Z-Controller>Controller name	log Current	
Z-Controller>Controller status	ON	
Z-Controller>Setpoint	200E-12	
Z-Controller>Setpoint unit	A	
Z-Controller>P gain	2.96994E-12	
Z-Controller>I gain	67.0321E-9	
Z-Controller>Time const (s)	44.3062E-6	
Z-Controller>TipLift (m)	0E+0	
Z-Controller>Switch off delay (s)	50E-3	
Current (A)	200.248E-12	
Z (m)	-132.613E-9	

[DATA]
Bias calc (V)	Current (A)	X% LockIn (V)	Y% LockIn (V)	Current [bwd] (A)	X% LockIn [bwd] (V)	Y% LockIn [bwd] (V)
5.00000E-3	200.724E-12	623.716E-3	-10.2533E-3	199.997E-12	644.920E-3	-23.0108E-3
4.99500E-3	202.053E-12	623.460E-3	-30.3172E-3	199.885E-12	637.649E-3	-26.7655E-3
4.98999E-3	201.095E-12	644.004E-3	-52.8112E-3	199.253E-12	642.220E-3	-41.5463E-3
4.98499E-3	202.296E-12	668.448E-3	-37.5712E-3	200.126E-12	651.464E-3	-47.6110E-3
4.97999E-3	200.679E-12	697.207E-3	-8.53513E-3	198.777E-12	639.477E-3	-32.3896E-3
4.97499E-3	202.036E-12	699.835E-3	2.06852E-3	198.966E-12	633.938E-3	-8.92659E-3
4.96998E-3	199.392E-12	659.790E-3	-12.5440E-3	199.253E-12	637.932E-3	12.7639E-3
4.96498E-3	198.760E-12	622.798E-3	-24.6021E-3	199.542E-12	624.885E-3	20.6072E-3
4.95998E-3	197.154E-12	620.522E-3	-12.5499E-3	199.910E-12	631.613E-3	2.47849E-3
4.95498E-3	197.801E-12	619.771E-3	-20.9680E-3	201.126E-12	666.053E-3	-31.9296E-3
4.94997E-3	197.248E-12	615.854E-3	-31.1174E-3	200.800E-12	685.110E-3	-30.7308E-3
4.94497E-3	195.616E-12	637.564E-3	-16.4740E-3	201.418E-12	678.376E-3	-2.94904E-3
4.93997E-3	195.078E-12	651.809E-3	-3.94035E-3	201.700E-12	655.943E-3	-3.38467E-3
4.93497E-3	195.394E-12	650.842E-3	-7.81120E-3	201.028E-12	635.776E-3	2.37367E-3
4.92996E-3	196.469E-12	641.642E-3	-23.7424E-3	200.427E-12	621.086E-3	32.3413E-3
4.92496E-3	196.215E-12	628.685E-3	-37.3186E-3	200.049E-12	613.087E-3	41.9843E-3
4.91996E-3	195.251E-12	630.626E-3	-21.6078E-3	198.617E-12	614.431E-3	22.9386E-3
4.91496E-3	194.946E-12	641.447E-3	2.10339E-3	196.055E-12	613.991E-3	-3.76996E-3
4.90995E-3	194.745E-12	645.380E-3	9.48638E-3	195.386E-12	610.744E-3	-10.2352E-3
4.90495E-3	196.012E-12	646.968E-3	13.9683E-3	194.468E-12	612.130E-3	-2.07206E-3
4.89995E-3	194.757E-12	639.886E-3	-3.14438E-3	193.661E-12	612.579E-3	-2.65285E-3
4.89495E-3	194.703E-12	642.859E-3	-38.4926E-3	191.830E-12	608.686E-3	-12.7390E-3
4.88995E-3	195.358E-12	649.688E-3	-60.4746E-3	190.849E-12	599.568E-3	-29.6727E-3
4.88494E-3	195.667E-12	632.935E-3	-56.4873E-3	190.098E-12	611.948E-3	-24.9493E-3
4.87994E-3	195.073E-12	644.731E-3	-47.4387E-3	190.056E-12	649.343E-3	5.28646E-3
4.87494E-3	194.673E-12	672.848E-3	-38.3811E-3	191.180E-12	652.593E-3	-1.17610E-3
4.86993E-3	194.663E-12	670.444E-3	-33.2512E-3	192.365E-12	633.987E-3	-34.9428E-3
4.86493E-3	194.899E-12	658.778E-3	-23.1869E-3	192.811E-12	631.691E-3	-46.7062E-3
4.85993E-3	194.261E-12	646.136E-3	368.905E-6	194.040E-12	628.077E-3	-46.0312E-3
4.85493E-3	194.467E-12	628.651E-3	2.19362E-3	194.607E-12	622.413E-3	-41.1747E-3
4.84992E-3	194.143E-12	640.595E-3	-15.5646E-3	194.118E-12	632.853E-3	-32.3426E-3
4.84492E-3	195.166E-12	668.159E-3	-28.0893E-3	194.575E-12	651.619E-3	-13.5469E-3
4.83992E-3	193.816E-12	661.516E-3	-40.7080E-3	194.359E-12	642.537E-3	2.47124E-3
4.83492E-3	194.256E-12	637.556E-3	-61.1665E-3	194.230E-12	629.701E-3	-15.3188E-3
4.82991E-3	193.021E-12	631.704E-3	-48.4742E-3	192.700E-12	628.867E-3	-47.2824E-3
4.82491E-3	193.688E-12	632.109E-3	-22.2624E-3	191.813E-12	608.970E-3	-49.4811E-3
4.81991E-3	193.170E-12	634.353E-3	-18.6655E-3	190.629E-12	592.540E-3	-15.1473E-3
4.81491E-3	192.623E-12	651.884E-3	-15.5918E-3	189.687E-12	594.039E-3	-1.75650E-3
4.80990E-3	191.426E-12	657.633E-3	-8.79079E-3	188.208E-12	604.158E-3	-30.1272E-3
4.80490E-3	190.685E-12	638.887E-3	-18.8785E-3	186.992E-12	620.061E-3	-30.7880E-3
4.79990E-3	191.153E-12	630.268E-3	-51.2880E-3	186.633E-12	649.495E-3	-11.1237E-3
4.79490E-3	191.032E-12	633.022E-3	-46.2878E-3	187.264E-12	673.161E-3	-21.5502E-3
4.78989E-3	189.938E-12	621.299E-3	-18.4284E-3	187.290E-12	653.482E-3	-51.1199E-3
4.78489E-3	189.316E-12	624.576E-3	-19.6155E-3	186.665E-12	626.650E-3	-63.3772E-3
4.77989E-3	190.245E-12	646.359E-3	-9.69972E-3	187.633E-12	628.430E-3	-47.6331E-3
4.77489E-3	190.442E-12	646.864E-3	25.8073E-3	189.643E-12	630.300E-3	-25.3443E-3
4.76988E-3	191.330E-12	627.863E-3	28.8307E-3	192.225E-12	638.013E-3	-3.30638E-3
4.76488E-3	191.218E-12	614.029E-3	8.91951E-3	192.260E-12	661.686E-3	-13.1599E-3
4.75988E-3	190.616E-12	623.065E-3	363.055E-6	192.611E-12	652.410E-3	-50.5404E-3
4.75488E-3	191.657E-12	651.829E-3	11.0990E-3	193.199E-12	624.484E-3	-65.7035E-3
4.74988E-3	190.866E-12	675.021E-3	8.02934E-3	194.264E-12	639.598E-3	-56.1281E-3
4.74487E-3	191.120E-12	672.207E-3	-41.5136E-3	193.808E-12	671.395E-3	-31.1749E-3
4.73987E-3	189.276E-12	651.065E-3	-71.7342E-3	193.042E-12	680.705E-3	-16.0070E-3
4.73487E-3	189.660E-12	640.234E-3	-50.8700E-3	192.458E-12	677.942E-3	-8.28956E-3
4.72986E-3	188.592E-12	638.862E-3	-18.2302E-3	191.262E-12	675.985E-3	1.60036E-3
4.72486E-3	188.765E-12	630.329E-3	-6.05786E-3	190.510E-12	674.263E-3	10.7136E-3
4.71986E-3	186.603E-12	627.951E-3	7.87687E-3	187.915E-12	663.495E-3	5.06445E-3
4.71486E-3	186.709E-12	616.546E-3	26.3149E-3	186.772E-12	640.688E-3	-29.4852E-3
4.70985E-3	186.703E-12	610.206E-3	22.7129E-3	184.998E-12	621.247E-3	-39.6867E-3
4.70485E-3	185.916E-12	655.164E-3	11.1583E-3	185.502E-12	617.734E-3	-7.91177E-3
4.69985E-3	185.988E-12	683.241E-3	17.0538E-3	184.988E-12	646.656E-3	6.87108E-3
4.69485E-3	184.131E-12	663.165E-3	8.62272E-3	184.233E-12	674.599E-3	-15.7304E-3
4.68984E-3	184.953E-12	655.836E-3	-31.2865E-3	184.297E-12	659.608E-3	-34.2428E-3
4.68484E-3	185.023E-12	662.036E-3	-52.9431E-3	185.477E-12	644.779E-3	-11.4784E-3
4.67984E-3	185.368E-12	654.400E-3	-52.7056E-3	184.875E-12	648.931E-3	23.5337E-3
4.67484E-3	185.517E-12	649.210E-3	-46.5762E-3	185.616E-12	659.900E-3	20.7373E-3
4.66983E-3	186.924E-12	650.668E-3	-41.4810E-3	185.994E-12	668.048E-3	8.21824E-3
4.66483E-3	186.363E-12	652.650E-3	-40.2168E-3	186.864E-12	649.656E-3	17.4608E-3
4.65983E-3	187.413E-12	668.883E-3	-33.9113E-3	186.665E-12	636.353E-3	14.9788E-3
4.65483E-3	187.919E-12	677.709E-3	-32.2021E-3	186.078E-12	667.239E-3	-6.37568E-3
4.64982E-3	187.115E-12	657.759E-3	-32.1605E-3	184.873E-12	686.369E-3	-11.8270E-3
4.64482E-3	186.663E-12	636.487E-3	-17.1706E-3	184.531E-12	655.279E-3	4.94337E-3
4.63982E-3	186.119E-12	644.585E-3	-8.10557E-3	184.652E-12	620.873E-3	24.5175E-3
4.63482E-3	185.977E-12	642.258E-3	-22.7809E-3	182.498E-12	612.959E-3	24.9199E-3
4.62981E-3	184.352E-12	621.972E-3	-41.5225E-3	181.743E-12	618.870E-3	8.10335E-3
4.62481E-3	183.010E-12	617.662E-3	-38.2681E-3	181.707E-12	636.588E-3	6.12379E-3
4.61981E-3	181.822E-12	614.777E-3	-19.2729E-3	181.860E-12	649.529E-3	20.0913E-3
4.61481E-3	181.809E-12	612.765E-3	-20.7391E-3	181.219E-12	637.210E-3	19.9174E-3
4.60980E-3	181.279E-12	634.701E-3	-24.6764E-3	181.057E-12	626.826E-3	-3.31673E-3
4.60480E-3	179.985E-12	657.810E-3	-11.0536E-3	181.714E-12	629.539E-3	-14.0591E-3
4.59980E-3	178.483E-12	666.901E-3	569.265E-6	181.967E-12	633.572E-3	-1.25450E-3
4.59480E-3	179.491E-12	674.191E-3	4.75894E-3	182.681E-12	637.042E-3	1.34507E-3
4.58979E-3	179.730E-12	675.827E-3	6.80997E-3	181.631E-12	622.119E-3	-4.94062E-3
4.58479E-3	179.839E-12	669.179E-3	15.3263E-3	181.239E-12	600.251E-3	-6.06506E-3
4.57979E-3	180.028E-12	656.109E-3	25.2143E-3	181.114E-12	605.488E-3	-20.2351E-3
4.57479E-3	181.388E-12	630.452E-3	8.88069E-3	182.146E-12	636.878E-3	-37.6892E-3
4.56978E-3	182.183E-12	610.428E-3	-23.9399E-3	180.861E-12	670.427E-3	-29.9356E-3
4.56478E-3	182.911E-12	627.917E-3	-30.5091E-3	179.404E-12	677.357E-3	-1.94947E-3
4.55978E-3	182.526E-12	638.893E-3	-17.1709E-3	180.345E-12	652.190E-3	5.02203E-3
4.55478E-3	182.330E-12	616.179E-3	-20.4981E-3	180.681E-12	620.090E-3	-4.22742E-3
4.54977E-3	182.684E-12	599.513E-3	-22.9086E-3	180.619E-12	608.414E-3	3.22152E-3
4.54477E-3	181.547E-12	616.605E-3	-10.6326E-3	178.927E-12	625.877E-3	10.8435E-3
4.53977E-3	180.922E-12	642.322E-3	-24.7334E-3	179.067E-12	660.951E-3	-1.08719E-3
4.53477E-3	179.649E-12	634.595E-3	-45.7909E-3	178.832E-12	671.567E-3	-23.5941E-3
4.52976E-3	179.524E-12	614.616E-3	-46.0796E-3	180.542E-12	650.431E-3	-15.8163E-3
4.52476E-3	178.757E-12	617.972E-3	-50.0368E-3	179.929E-12	632.480E-3	20.9781E-3
4.51976E-3	176.873E-12	643.079E-3	-61.0144E-3	180.838E-12	621.007E-3	32.5872E-3
4.51476E-3	176.537E-12	656.451E-3	-51.3087E-3	180.096E-12	618.169E-3	10.3883E-3
4.50975E-3	176.509E-12	645.750E-3	-29.7917E-3	181.666E-12	617.689E-3	-12.0975E-3
4.50475E-3	176.599E-12	638.076E-3	-35.0397E-3	181.904E-12	619.631E-3	-20.6845E-3
4.49975E-3	175.526E-12	651.778E-3	-38.7647E-3	181.622E-12	631.202E-3	-15.9648E-3
4.49475E-3	176.619E-12	653.613E-3	-27.1978E-3	180.353E-12	632.663E-3	-6.78119E-3
4.48974E-3	177.532E-12	626.535E-3	-18.7528E-3	178.717E-12	624.268E-3	-38.0159E-6
4.48474E-3	178.571E-12	618.509E-3	-16.3688E-3	178.872E-12	623.894E-3	-4.92284E-3
4.47974E-3	178.061E-12	616.457E-3	-32.8443E-3	178.383E-12	633.409E-3	-22.0228E-3
4.47474E-3	178.807E-12	599.716E-3	-43.8766E-3	177.040E-12	652.740E-3	-18.0396E-3
4.46973E-3	178.783E-12	620.198E-3	-28.4988E-3	175.381E-12	658.494E-3	-6.56270E-3
4.46473E-3	179.242E-12	664.839E-3	-31.0093E-3	175.306E-12	635.973E-3	-8.09393E-3
4.45973E-3	179.035E-12	681.363E-3	-43.5594E-3	176.099E-12	623.942E-3	-3.26677E-3
4.45473E-3	179.373E-12	673.764E-3	-26.4231E-3	175.978E-12	634.947E-3	-56.4324E-6
4.44972E-3	178.242E-12	655.078E-3	-8.36433E-3	175.208E-12	650.265E-3	-3.22531E-3
4.44472E-3	177.762E-12	653.186E-3	-17.8664E-3	174.779E-12	666.337E-3	-5.98830E-3
4.43972E-3	177.484E-12	659.004E-3	-32.2926E-3	176.321E-12	676.506E-3	-21.5968E-3
4.43472E-3	177.048E-12	655.454E-3	-19.5728E-3	177.108E-12	681.277E-3	-45.6610E-3
4.42971E-3	175.163E-12	638.597E-3	12.4120E-3	178.014E-12	679.108E-3	-44.6961E-3
4.42471E-3	175.326E-12	632.662E-3	31.0036E-3	178.047E-12	666.386E-3	-20.3550E-3
4.41971E-3	175.443E-12	654.343E-3	20.6108E-3	178.707E-12	657.312E-3	-4.76475E-3
4.41471E-3	174.838E-12	661.187E-3	-203.030E-6	178.861E-12	647.104E-3	-11.5846E-3
4.40970E-3	174.414E-12	656.316E-3	-14.2128E-3	178.870E-12	648.337E-3	-30.6441E-3
4.40470E-3	174.351E-12	655.496E-3	-15.3853E-3	177.682E-12	682.396E-3	-43.8437E-3
4.39970E-3	174.982E-12	642.519E-3	-7.32444E-3	176.136E-12	694.662E-3	-38.4621E-3
4.39470E-3	174.396E-12	635.336E-3	723.354E-6	175.938E-12	652.137E-3	-22.6492E-3
4.38969E-3	174.637E-12	652.348E-3	-4.94114E-3	173.967E-12	617.238E-3	-22.2872E-3
4.38469E-3	173.777E-12	649.435E-3	-20.2679E-3	172.807E-12	614.692E-3	-19.7255E-3
4.37969E-3	173.279E-12	630.871E-3	-25.0670E-3	171.717E-12	621.584E-3	-15.0724E-3
4.37469E-3	173.012E-12	630.169E-3	-13.7692E-3	171.493E-12	635.200E-3	-34.6776E-3
4.36968E-3	173.808E-12	638.166E-3	-1.06194E-3	170.999E-12	642.908E-3	-51.7933E-3
4.36468E-3	172.643E-12	650.426E-3	4.24273E-3	170.676E-12	628.384E-3	-55.1572E-3
4.35968E-3	172.381E-12	666.827E-3	9.64285E-3	170.598E-12	611.749E-3	-31.0839E-3
4.35468E-3	170.893E-12	666.338E-3	-5.72088E-3	171.224E-12	629.586E-3	1.13136E-3
4.34967E-3	171.625E-12	640.422E-3	-26.4298E-3	171.728E-12	675.418E-3	3.48968E-3
4.34467E-3	171.599E-12	617.720E-3	-24.5354E-3	172.409E-12	687.494E-3	-18.0998E-3
4.33967E-3	170.495E-12	624.190E-3	-18.0538E-3	173.304E-12	672.498E-3	-38.2329E-3
4.33467E-3	169.795E-12	635.541E-3	-19.3087E-3	174.134E-12	683.963E-3	-40.4353E-3
4.32966E-3	170.636E-12	632.331E-3	-24.5676E-3	174.498E-12	698.023E-3	-47.7611E-3
4.32466E-3	171.503E-12	641.761E-3	-36.9802E-3	174.962E-12	674.272E-3	-54.3487E-3
4.31966E-3	171.235E-12	652.920E-3	-35.7289E-3	173.629E-12	631.197E-3	-38.7568E-3
4.31466E-3	170.991E-12	656.238E-3	-34.1967E-3	174.305E-12	602.556E-3	-18.0860E-3
4.30965E-3	170.892E-12	653.949E-3	-56.9800E-3	174.317E-12	595.176E-3	-23.7715E-3
4.30465E-3	172.117E-12	648.846E-3	-57.2953E-3	170.961E-12	600.121E-3	-44.8803E-3
4.29965E-3	171.345E-12	640.954E-3	-26.1192E-3	169.680E-12	614.878E-3	-52.6765E-3
4.29465E-3	170.809E-12	628.271E-3	2.53485E-3	168.697E-12	638.418E-3	-46.0768E-3
4.28964E-3	170.126E-12	644.787E-3	-5.41516E-3	167.625E-12	641.615E-3	-18.3013E-3
4.28464E-3	169.758E-12	680.222E-3	-19.5899E-3	165.772E-12	627.839E-3	4.31948E-3
4.27964E-3	169.299E-12	674.683E-3	-24.1590E-3	165.841E-12	633.374E-3	-7.16624E-3
4.27464E-3	167.782E-12	643.563E-3	-44.5322E-3	165.026E-12	652.018E-3	-11.5632E-3
4.26963E-3	167.448E-12	638.167E-3	-66.1789E-3	164.556E-12	659.715E-3	8.68951E-3
4.26463E-3	165.914E-12	650.143E-3	-58.7156E-3	164.626E-12	658.979E-3	-1.73270E-3
4.25963E-3	166.614E-12	646.050E-3	-37.8295E-3	165.633E-12	654.203E-3	-45.0924E-3
4.25463E-3	167.114E-12	612.022E-3	-36.2301E-3	165.399E-12	638.744E-3	-49.4940E-3
4.24962E-3	168.108E-12	603.301E-3	-24.5017E-3	165.386E-12	623.721E-3	-25.8081E-3
4.24462E-3	166.957E-12	638.317E-3	-13.6322E-3	166.476E-12	625.168E-3	-33.3539E-3
4.23962E-3	166.724E-12	648.157E-3	-19.6326E-3	167.022E-12	632.254E-3	-33.8072E-3
4.23462E-3	168.195E-12	647.370E-3	-30.5278E-3	167.448E-12	626.655E-3	-15.4162E-3
4.22961E-3	168.383E-12	670.660E-3	-36.4145E-3	167.275E-12	623.865E-3	-18.5877E-3
4.22461E-3	167.810E-12	668.620E-3	-39.2584E-3	166.041E-12	644.987E-3	-23.1565E-3
4.21961E-3	168.028E-12	652.064E-3	-37.6342E-3	165.723E-12	655.984E-3	-26.3352E-3
4.21461E-3	169.451E-12	654.692E-3	-15.8720E-3	166.445E-12	625.811E-3	-35.8399E-3
4.20960E-3	169.327E-12	658.768E-3	18.3678E-3	165.585E-12	609.152E-3	-28.2824E-3
4.20460E-3	167.928E-12	664.076E-3	27.9819E-3	164.872E-12	617.917E-3	-12.3991E-3
4.19960E-3	166.399E-12	662.985E-3	-4.20553E-3	163.608E-12	613.972E-3	-3.50593E-3
4.19460E-3	166.044E-12	648.592E-3	-29.7079E-3	164.460E-12	620.614E-3	-3.67447E-3
4.18959E-3	165.027E-12	639.496E-3	-25.8431E-3	163.931E-12	637.242E-3	-3.43645E-3
4.18459E-3	164.108E-12	651.410E-3	-15.7602E-3	163.581E-12	632.554E-3	-429.173E-6
4.17959E-3	162.916E-12	667.346E-3	-5.06157E-3	162.921E-12	636.513E-3	-27.6876E-3
4.17459E-3	162.751E-12	657.469E-3	1.29402E-3	163.441E-12	661.698E-3	-57.4174E-3
4.16958E-3	163.256E-12	642.411E-3	-11.3343E-3	164.605E-12	659.610E-3	-41.3764E-3
4.16458E-3	163.144E-12	634.832E-3	-29.0814E-3	164.570E-12	634.391E-3	-24.4045E-3
4.15958E-3	163.398E-12	629.857E-3	-35.3402E-3	164.957E-12	613.675E-3	-37.0962E-3
4.15458E-3	163.626E-12	638.704E-3	-31.7343E-3	164.339E-12	611.769E-3	-51.9738E-3
4.14957E-3	163.549E-12	656.415E-3	-29.5389E-3	164.188E-12	620.071E-3	-54.8927E-3
4.14457E-3	165.067E-12	650.817E-3	-17.8900E-3	164.173E-12	617.403E-3	-38.7333E-3
4.13957E-3	165.286E-12	630.920E-3	-4.90617E-3	162.848E-12	604.307E-3	-22.6770E-3
4.13457E-3	164.535E-12	629.554E-3	-8.03869E-3	162.093E-12	596.605E-3	-25.7325E-3
4.12956E-3	164.196E-12	635.940E-3	-3.85482E-3	161.953E-12	606.574E-3	-24.5188E-3
4.12456E-3	164.724E-12	642.006E-3	-834.455E-6	161.587E-12	617.479E-3	-25.9518E-3
4.11956E-3	164.953E-12	649.942E-3	-12.6721E-3	161.902E-12	612.740E-3	-38.5605E-3
4.11456E-3	162.672E-12	661.046E-3	-33.4884E-3	161.683E-12	602.619E-3	-37.5677E-3
4.10955E-3	162.345E-12	664.911E-3	-45.4188E-3	161.302E-12	615.041E-3	-32.5585E-3
4.10455E-3	161.464E-12	651.261E-3	-30.4614E-3	161.449E-12	646.492E-3	-36.4972E-3
4.09955E-3	161.210E-12	637.829E-3	-14.3005E-3	161.599E-12	675.030E-3	-36.9305E-3
4.09455E-3	160.393E-12	631.062E-3	-7.44858E-3	161.393E-12	673.977E-3	-34.4211E-3
4.08954E-3	158.463E-12	622.620E-3	-3.03641E-3	160.808E-12	641.016E-3	-35.6468E-3
4.08454E-3	157.783E-12	633.065E-3	-11.9076E-3	161.210E-12	627.352E-3	-32.1643E-3
4.07954E-3	157.778E-12	648.142E-3	-31.5228E-3	161.192E-12	641.172E-3	-24.6127E-3
4.07454E-3	158.608E-12	638.754E-3	-36.9432E-3	161.065E-12	644.875E-3	-26.0982E-3
4.06953E-3	158.502E-12	632.212E-3	-28.7245E-3	160.756E-12	636.958E-3	-20.6548E-3
4.06453E-3	158.149E-12	647.744E-3	-19.4551E-3	160.217E-12	646.097E-3	-6.71960E-3
4.05953E-3	159.069E-12	651.162E-3	-19.3664E-3	159.655E-12	653.259E-3	-17.2484E-3
4.05453E-3	160.977E-12	642.793E-3	-32.8214E-3	158.345E-12	635.298E-3	-49.3020E-3
4.04952E-3	161.333E-12	661.008E-3	-52.5288E-3	158.053E-12	624.737E-3	-61.2165E-3
4.04452E-3	160.082E-12	670.354E-3	-55.9064E-3	157.479E-12	619.498E-3	-61.4694E-3
4.03952E-3	160.080E-12	656.244E-3	-42.3790E-3	156.626E-12	617.107E-3	-55.6274E-3
4.03452E-3	160.636E-12	647.219E-3	-31.4660E-3	155.869E-12	630.411E-3	-30.9072E-3
4.02951E-3	159.834E-12	639.547E-3	-27.8854E-3	155.935E-12	633.284E-3	-18.4520E-3
4.02451E-3	158.237E-12	635.341E-3	-21.7960E-3	156.224E-12	625.864E-3	-9.23485E-3
4.01951E-3	157.703E-12	641.623E-3	-14.2484E-3	156.026E-12	638.936E-3	-1.28094E-3
4.01451E-3	157.591E-12	642.635E-3	-26.4352E-3	156.827E-12	662.880E-3	-7.90077E-3
4.00950E-3	155.829E-12	630.818E-3	-46.7102E-3	156.671E-12	664.089E-3	-14.2087E-3
4.00450E-3	154.425E-12	624.394E-3	-37.4334E-3	156.769E-12	650.388E-3	-14.3429E-3
3.99950E-3	153.965E-12	612.058E-3	-6.75136E-3	157.376E-12	645.775E-3	-18.4889E-3
3.99450E-3	154.086E-12	603.661E-3	-5.15193E-3	157.546E-12	629.859E-3	-39.0335E-3
3.98949E-3	153.977E-12	622.546E-3	-19.0716E-3	157.852E-12	622.612E-3	-58.4853E-3
3.98449E-3	153.519E-12	653.715E-3	-22.3920E-3	157.290E-12	643.277E-3	-59.5543E-3
3.97949E-3	153.860E-12	667.114E-3	-19.8044E-3	157.559E-12	641.777E-3	-35.6861E-3
3.97449E-3	153.901E-12	657.015E-3	-11.2956E-3	156.527E-12	639.135E-3	-2.93636E-3
3.96948E-3	155.455E-12	640.131E-3	-13.9785E-3	156.193E-12	659.359E-3	-5.68042E-3
3.96448E-3	155.564E-12	620.958E-3	-24.9501E-3	154.441E-12	652.767E-3	-28.1787E-3
3.95948E-3	156.201E-12	614.174E-3	-25.5348E-3	153.790E-12	631.534E-3	-25.9813E-3
3.95448E-3	155.922E-12	631.107E-3	-23.4618E-3	152.576E-12	629.814E-3	-4.46470E-3
3.94947E-3	156.257E-12	660.298E-3	-32.1484E-3	152.185E-12	623.231E-3	3.41246E-3
3.94447E-3	156.381E-12	668.797E-3	-44.7036E-3	151.631E-12	608.352E-3	-13.8049E-3
3.93947E-3	155.733E-12	663.186E-3	-38.8714E-3	151.105E-12	610.867E-3	-34.2529E-3
3.93447E-3	155.717E-12	664.759E-3	-19.3645E-3	151.944E-12	615.551E-3	-42.0864E-3
3.92946E-3	154.709E-12	665.180E-3	-18.7098E-3	151.231E-12	612.817E-3	-35.1236E-3
3.92446E-3	154.379E-12	665.910E-3	-18.1757E-3	151.296E-12	626.907E-3	-21.7772E-3
3.91946E-3	153.570E-12	655.254E-3	-12.2998E-3	151.380E-12	647.190E-3	-24.7459E-3
3.91446E-3	152.520E-12	625.002E-3	-11.8803E-3	152.983E-12	659.145E-3	-38.0785E-3
3.90945E-3	151.445E-12	611.297E-3	-6.92196E-3	153.671E-12	670.608E-3	-29.8080E-3
3.90445E-3	152.345E-12	624.760E-3	-10.3159E-3	153.929E-12	674.618E-3	-13.6631E-3
3.89945E-3	152.601E-12	636.707E-3	-19.8014E-3	154.158E-12	652.727E-3	-16.7570E-3
3.89445E-3	151.618E-12	641.543E-3	-23.4029E-3	154.745E-12	623.931E-3	-27.3177E-3
3.88944E-3	151.480E-12	638.324E-3	-22.1568E-3	154.586E-12	626.207E-3	-25.0886E-3
3.88444E-3	151.315E-12	626.945E-3	-25.8561E-3	153.891E-12	647.523E-3	-6.83427E-3
3.87944E-3	152.524E-12	628.106E-3	-27.7972E-3	153.795E-12	667.979E-3	8.78923E-3
3.87444E-3	152.379E-12	631.781E-3	-21.1466E-3	152.603E-12	667.762E-3	-4.25613E-3
3.86943E-3	151.931E-12	638.227E-3	-22.1528E-3	151.252E-12	630.291E-3	-23.0742E-3
3.86443E-3	151.331E-12	664.843E-3	-18.3678E-3	150.891E-12	598.057E-3	-3.89859E-3
3.85943E-3	151.595E-12	671.923E-3	-8.80415E-3	150.004E-12	616.117E-3	-10.1429E-3
3.85443E-3	151.841E-12	659.713E-3	3.43631E-3	149.399E-12	650.089E-3	-49.2075E-3
3.84942E-3	151.198E-12	660.399E-3	10.5836E-3	148.503E-12	639.160E-3	-46.9483E-3
3.84442E-3	150.397E-12	671.172E-3	-7.21726E-3	148.515E-12	611.085E-3	-36.8949E-3
3.83942E-3	149.479E-12	671.759E-3	-28.9114E-3	149.882E-12	613.398E-3	-55.7731E-3
3.83442E-3	148.991E-12	673.606E-3	-34.4818E-3	149.836E-12	626.107E-3	-70.7771E-3
3.82941E-3	148.436E-12	683.554E-3	-19.3661E-3	149.668E-12	629.433E-3	-56.3148E-3
3.82441E-3	148.062E-12	663.427E-3	-9.53043E-3	150.053E-12	632.206E-3	-40.9826E-3
3.81941E-3	147.634E-12	642.880E-3	-27.5827E-3	151.002E-12	645.486E-3	-33.8629E-3
3.81441E-3	148.390E-12	640.603E-3	-34.9867E-3	150.807E-12	661.410E-3	-18.6267E-3
3.80940E-3	149.199E-12	627.680E-3	-25.7471E-3	151.188E-12	665.154E-3	-5.06793E-3
3.80440E-3	149.400E-12	620.173E-3	-20.6176E-3	150.948E-12	658.629E-3	-870.300E-6
3.79940E-3	148.865E-12	626.787E-3	-21.7983E-3	150.977E-12	652.451E-3	-1.52472E-3
3.79440E-3	148.385E-12	635.304E-3	-27.4170E-3	151.404E-12	648.677E-3	673.332E-6
3.78939E-3	148.727E-12	635.128E-3	-29.6967E-3	150.311E-12	635.346E-3	-8.64403E-3
3.78439E-3	148.931E-12	638.117E-3	-28.8688E-3	149.278E-12	627.492E-3	-7.74698E-3
3.77939E-3	148.898E-12	647.704E-3	-23.8069E-3	147.939E-12	640.724E-3	8.42940E-3
3.77439E-3	147.890E-12	649.494E-3	-27.4827E-3	147.797E-12	648.401E-3	22.2593E-3
3.76938E-3	147.020E-12	652.711E-3	-35.5930E-3	146.958E-12	647.581E-3	27.9429E-3
3.76438E-3	147.379E-12	656.262E-3	-21.4086E-3	146.052E-12	654.686E-3	-2.20672E-3
3.75938E-3	146.998E-12	664.828E-3	-7.12097E-3	144.884E-12	654.432E-3	-35.7831E-3
3.75438E-3	145.864E-12	680.274E-3	-11.9240E-3	145.932E-12	630.957E-3	-34.4910E-3
3.74937E-3	144.135E-12	671.200E-3	-12.6541E-3	146.044E-12	610.000E-3	-11.3755E-3
3.74437E-3	144.962E-12	654.564E-3	-17.6218E-3	145.782E-12	615.985E-3	7.06662E-3
3.73937E-3	144.584E-12	658.836E-3	-23.5247E-3	144.901E-12	631.248E-3	-5.66539E-3
3.73437E-3	143.801E-12	654.328E-3	-19.3661E-3	145.163E-12	641.270E-3	-26.9545E-3
3.72936E-3	143.597E-12	634.937E-3	-34.8129E-3	145.500E-12	654.476E-3	-15.2759E-3
3.72436E-3	144.694E-12	626.782E-3	-51.0113E-3	145.713E-12	677.675E-3	-3.96268E-3
3.71936E-3	144.981E-12	613.397E-3	-38.7753E-3	145.749E-12	676.270E-3	-16.1240E-3
3.71436E-3	144.951E-12	609.241E-3	-18.2020E-3	144.539E-12	643.687E-3	-18.4275E-3
3.70935E-3	146.143E-12	634.775E-3	2.35709E-3	144.651E-12	621.272E-3	-10.7989E-3
3.70435E-3	147.161E-12	648.625E-3	15.0175E-3	144.770E-12	618.152E-3	7.35683E-3
3.69935E-3	146.186E-12	640.448E-3	-1.32787E-3	145.061E-12	627.705E-3	16.1194E-3
3.69435E-3	145.995E-12	643.612E-3	-23.9132E-3	144.145E-12	635.015E-3	1.76399E-3
3.68934E-3	146.050E-12	662.463E-3	-28.9499E-3	143.622E-12	636.769E-3	3.53956E-3
3.68434E-3	145.018E-12	665.295E-3	-23.0446E-3	143.467E-12	637.841E-3	7.11570E-3
3.67934E-3	144.238E-12	655.010E-3	-26.1657E-3	143.286E-12	635.479E-3	-1.59111E-3
3.67434E-3	142.465E-12	650.802E-3	-25.8943E-3	143.329E-12	640.889E-3	5.02604E-3
3.66933E-3	142.355E-12	653.849E-3	-9.03022E-3	142.585E-12	646.125E-3	14.4194E-3
3.66433E-3	141.141E-12	655.340E-3	-9.94225E-3	142.536E-12	647.000E-3	-1.61042E-3
3.65933E-3	140.688E-12	645.331E-3	-24.1226E-3	142.183E-12	646.320E-3	-17.3846E-3
3.65433E-3	139.821E-12	642.024E-3	-28.6539E-3	142.012E-12	643.630E-3	-13.5313E-3
3.64932E-3	139.797E-12	652.745E-3	-18.9699E-3	142.187E-12	651.167E-3	-7.21460E-3
3.64432E-3	139.718E-12	644.550E-3	-4.24033E-3	141.989E-12	661.636E-3	-7.09196E-3
3.63932E-3	140.216E-12	626.188E-3	-227.783E-6	140.550E-12	662.571E-3	-11.8849E-3
3.63432E-3	140.138E-12	621.656E-3	-10.2146E-3	139.780E-12	654.216E-3	-17.4475E-3
3.62931E-3	140.873E-12	618.305E-3	-13.5528E-3	140.078E-12	637.062E-3	-18.4310E-3
3.62431E-3	140.907E-12	614.081E-3	-14.0159E-3	140.511E-12	627.406E-3	-4.95247E-3
3.61931E-3	142.086E-12	621.643E-3	-32.0420E-3	139.256E-12	628.542E-3	6.01807E-3
3.61431E-3	142.254E-12	650.724E-3	-59.0031E-3	139.037E-12	636.773E-3	-1.83323E-3
3.60930E-3	141.695E-12	674.251E-3	-81.4140E-3	139.685E-12	653.895E-3	-18.1660E-3
3.60430E-3	142.172E-12	666.599E-3	-68.2747E-3	139.743E-12	661.349E-3	-28.9332E-3
3.59930E-3	141.925E-12	654.386E-3	-27.7355E-3	139.647E-12	661.002E-3	-23.6135E-3
3.59430E-3	141.872E-12	667.208E-3	-6.88224E-3	139.036E-12	649.237E-3	-7.51251E-3
3.58929E-3	140.675E-12	694.254E-3	-17.1573E-3	139.165E-12	631.772E-3	259.652E-6
3.58429E-3	139.779E-12	713.741E-3	-22.0204E-3	139.340E-12	634.679E-3	-12.9501E-3
3.57929E-3	138.455E-12	697.904E-3	-5.99084E-3	139.111E-12	643.606E-3	-32.8079E-3
3.57429E-3	137.303E-12	660.547E-3	5.21128E-3	138.564E-12	649.763E-3	-32.9006E-3
3.56928E-3	136.630E-12	646.623E-3	9.01771E-3	138.907E-12	650.129E-3	-6.84371E-3
3.56428E-3	136.065E-12	647.518E-3	16.9769E-3	138.647E-12	646.274E-3	10.1837E-3
3.55928E-3	135.863E-12	641.746E-3	20.9372E-3	138.723E-12	648.758E-3	-1.32268E-3
3.55428E-3	135.470E-12	635.535E-3	-3.68976E-3	138.159E-12	649.758E-3	-2.84439E-3
3.54927E-3	136.571E-12	638.390E-3	-38.4704E-3	137.008E-12	647.811E-3	11.4393E-3
3.54427E-3	136.107E-12	640.231E-3	-43.8212E-3	136.852E-12	631.854E-3	22.9022E-3
3.53927E-3	136.971E-12	634.770E-3	-22.0343E-3	137.352E-12	616.693E-3	12.3748E-3
3.53427E-3	137.500E-12	638.799E-3	3.31551E-3	136.720E-12	621.260E-3	-21.5741E-3
3.52926E-3	137.876E-12	654.734E-3	2.40675E-3	135.832E-12	643.072E-3	-34.2811E-3
3.52426E-3	138.400E-12	664.890E-3	-9.09296E-3	134.977E-12	669.313E-3	-22.5443E-3
3.51926E-3	138.959E-12	667.219E-3	-10.4885E-3	135.196E-12	672.314E-3	-14.2269E-3
3.51426E-3	138.762E-12	659.508E-3	-17.2409E-3	134.685E-12	663.470E-3	-11.7263E-3
3.50925E-3	137.439E-12	639.947E-3	-17.9440E-3	134.171E-12	661.397E-3	-21.9612E-3
3.50425E-3	137.639E-12	635.953E-3	-9.75185E-3	133.959E-12	662.807E-3	-41.9368E-3
3.49925E-3	136.402E-12	644.793E-3	2.52917E-3	134.278E-12	661.677E-3	-47.2642E-3
3.49425E-3	136.064E-12	654.807E-3	6.34780E-3	134.625E-12	657.600E-3	-37.2248E-3
3.48924E-3	134.860E-12	659.847E-3	-15.5918E-3	134.724E-12	660.924E-3	-31.5738E-3
3.48424E-3	133.679E-12	647.303E-3	-41.2985E-3	136.123E-12	663.828E-3	-21.2922E-3
3.47924E-3	133.501E-12	641.397E-3	-46.7164E-3	136.407E-12	664.291E-3	-6.59528E-3
3.47424E-3	132.563E-12	641.126E-3	-26.7437E-3	136.098E-12	656.724E-3	-3.15536E-3
3.46923E-3	132.480E-12	628.085E-3	-9.22277E-3	135.499E-12	633.980E-3	-5.83469E-3
3.46423E-3	131.391E-12	618.017E-3	-22.2789E-3	136.181E-12	632.326E-3	-19.9296E-3
3.45923E-3	132.446E-12	617.348E-3	-43.4760E-3	135.834E-12	650.457E-3	-34.0176E-3
3.45423E-3	132.232E-12	617.679E-3	-46.2296E-3	134.054E-12	666.971E-3	-26.9718E-3
3.44922E-3	131.890E-12	626.127E-3	-30.7149E-3	133.651E-12	671.168E-3	-11.4980E-3
3.44422E-3	132.255E-12	641.970E-3	-4.99358E-3	133.830E-12	651.910E-3	-6.99105E-3
3.43922E-3	132.756E-12	644.938E-3	9.75575E-3	132.790E-12	638.863E-3	1.16764E-3
3.43422E-3	133.765E-12	629.673E-3	2.25555E-3	131.600E-12	639.373E-3	10.0452E-3
3.42921E-3	134.138E-12	632.047E-3	-6.21100E-3	130.626E-12	633.482E-3	-10.6041E-3
3.42421E-3	133.399E-12	641.600E-3	1.56159E-3	130.962E-12	624.690E-3	-30.5958E-3
3.41921E-3	133.398E-12	635.370E-3	5.01105E-3	130.762E-12	630.077E-3	-22.9774E-3
3.41421E-3	133.304E-12	644.788E-3	-15.1215E-3	129.853E-12	651.915E-3	-25.2696E-3
3.40920E-3	133.075E-12	670.121E-3	-34.2038E-3	129.501E-12	661.456E-3	-34.5154E-3
3.40420E-3	131.187E-12	673.355E-3	-39.6418E-3	130.077E-12	650.404E-3	-20.8956E-3
3.39920E-3	130.519E-12	662.368E-3	-25.1675E-3	129.927E-12	653.436E-3	-16.6678E-3
3.39420E-3	130.139E-12	666.815E-3	-6.28229E-3	131.197E-12	678.153E-3	-40.3396E-3
3.38919E-3	130.816E-12	658.358E-3	-10.2142E-3	130.917E-12	685.221E-3	-57.2797E-3
3.38419E-3	129.759E-12	640.402E-3	-15.8076E-3	131.588E-12	674.624E-3	-55.6796E-3
3.37919E-3	129.626E-12	637.918E-3	-12.5076E-3	131.570E-12	673.741E-3	-39.0434E-3
3.37419E-3	129.654E-12	646.547E-3	-20.2500E-3	132.132E-12	671.818E-3	-11.6852E-3
3.36918E-3	130.234E-12	659.151E-3	-32.3767E-3	131.406E-12	667.593E-3	3.75078E-3
3.36418E-3	130.583E-12	671.099E-3	-22.7971E-3	131.016E-12	665.838E-3	14.1594E-3
3.35918E-3	130.257E-12	683.286E-3	-6.11193E-3	130.343E-12	661.641E-3	12.0462E-3
3.35418E-3	129.787E-12	682.800E-3	-12.5363E-3	129.346E-12	654.485E-3	-20.0523E-3
3.34917E-3	129.792E-12	665.405E-3	-31.2793E-3	128.855E-12	643.268E-3	-33.5983E-3
3.34417E-3	129.968E-12	651.606E-3	-28.1395E-3	127.959E-12	640.038E-3	-17.5166E-3
3.33917E-3	130.156E-12	648.313E-3	-21.7993E-3	127.201E-12	631.835E-3	-1.65492E-3
3.33417E-3	129.419E-12	650.148E-3	-33.0499E-3	126.813E-12	614.206E-3	-7.08148E-3
3.32916E-3	128.423E-12	653.924E-3	-29.2546E-3	126.657E-12	607.365E-3	-21.5007E-3
3.32416E-3	127.387E-12	655.847E-3	-31.1682E-3	126.286E-12	610.398E-3	-13.6627E-3
3.31916E-3	127.597E-12	661.156E-3	-48.9786E-3	125.481E-12	613.155E-3	-4.71226E-3
3.31416E-3	126.225E-12	667.406E-3	-39.4637E-3	126.018E-12	611.615E-3	-9.38869E-3
3.30915E-3	125.338E-12	660.740E-3	-24.2593E-3	126.227E-12	622.815E-3	-12.8692E-3
3.30415E-3	125.067E-12	647.670E-3	-24.9343E-3	126.125E-12	655.158E-3	-11.4319E-3
3.29915E-3	125.190E-12	638.342E-3	-21.3105E-3	126.609E-12	677.555E-3	-2.43381E-3
3.29415E-3	125.661E-12	630.913E-3	-19.9511E-3	127.442E-12	674.676E-3	-4.79288E-3
3.28914E-3	125.701E-12	646.597E-3	-22.2060E-3	127.830E-12	670.933E-3	-21.0244E-3
3.28414E-3	126.190E-12	672.995E-3	-17.2708E-3	128.234E-12	662.763E-3	-15.7300E-3
3.27914E-3	126.853E-12	686.713E-3	-23.9909E-3	129.159E-12	659.810E-3	1.85604E-3
3.27414E-3	127.557E-12	692.796E-3	-31.2968E-3	128.489E-12	670.721E-3	-3.82218E-3
3.26913E-3	127.100E-12	673.644E-3	-15.6599E-3	128.664E-12	669.754E-3	-20.9456E-3
3.26413E-3	126.792E-12	635.648E-3	-639.012E-6	127.243E-12	672.614E-3	-22.5416E-3
3.25913E-3	127.303E-12	637.815E-3	-11.4657E-3	126.686E-12	685.509E-3	-27.1592E-3
3.25413E-3	126.539E-12	682.337E-3	-39.6208E-3	126.015E-12	683.609E-3	-43.7085E-3
3.24912E-3	124.999E-12	685.711E-3	-60.4211E-3	125.062E-12	668.779E-3	-43.3842E-3
3.24412E-3	124.367E-12	659.442E-3	-57.0628E-3	125.141E-12	655.721E-3	-32.6183E-3
3.23912E-3	123.599E-12	659.676E-3	-35.5328E-3	123.766E-12	639.672E-3	-35.1796E-3
3.23412E-3	122.810E-12	663.260E-3	-19.1967E-3	123.220E-12	627.124E-3	-38.6130E-3
3.22911E-3	122.298E-12	656.629E-3	-20.0566E-3	122.916E-12	635.408E-3	-23.3754E-3
3.22411E-3	121.760E-12	643.249E-3	-22.5321E-3	122.429E-12	631.309E-3	-8.23969E-3
3.21911E-3	120.818E-12	624.921E-3	-20.4936E-3	122.057E-12	625.553E-3	-4.07332E-3
3.21411E-3	121.292E-12	622.081E-3	-23.6031E-3	122.301E-12	649.164E-3	-8.88047E-3
3.20910E-3	121.669E-12	634.824E-3	-35.2141E-3	122.662E-12	659.856E-3	-27.0675E-3
3.20410E-3	122.067E-12	646.631E-3	-43.4587E-3	121.875E-12	652.632E-3	-41.3651E-3
3.19910E-3	122.382E-12	662.547E-3	-28.0791E-3	121.937E-12	655.102E-3	-43.6155E-3
3.19410E-3	123.224E-12	673.555E-3	-6.47184E-3	121.868E-12	649.871E-3	-38.1238E-3
3.18909E-3	123.577E-12	674.891E-3	-2.38919E-3	123.123E-12	635.847E-3	-15.6686E-3
3.18409E-3	123.321E-12	670.439E-3	-9.58289E-3	122.198E-12	640.285E-3	1.48151E-3
3.17909E-3	124.500E-12	669.116E-3	-18.9058E-3	122.378E-12	653.567E-3	-12.5074E-3
3.17409E-3	124.199E-12	673.598E-3	-26.9809E-3	121.683E-12	655.103E-3	-18.5408E-3
3.16908E-3	124.027E-12	664.479E-3	-22.6830E-3	122.093E-12	651.513E-3	-8.98685E-3
3.16408E-3	123.205E-12	648.787E-3	-10.4452E-3	121.457E-12	648.100E-3	-19.9596E-3
3.15908E-3	122.533E-12	653.525E-3	-12.2299E-3	122.259E-12	641.467E-3	-32.1718E-3
3.15408E-3	121.536E-12	669.115E-3	-23.2117E-3	122.064E-12	637.918E-3	-38.2583E-3
3.14907E-3	120.727E-12	666.930E-3	-18.5776E-3	121.657E-12	639.467E-3	-44.1866E-3
3.14407E-3	119.991E-12	657.035E-3	-8.03170E-3	121.366E-12	641.619E-3	-34.5580E-3
3.13907E-3	118.572E-12	650.293E-3	-11.8940E-3	120.588E-12	659.245E-3	-18.0825E-3
3.13407E-3	117.663E-12	656.953E-3	-14.1108E-3	120.513E-12	681.100E-3	-20.5035E-3
3.12906E-3	117.279E-12	662.475E-3	-6.22832E-3	120.313E-12	675.841E-3	-31.2555E-3
3.12406E-3	117.541E-12	656.903E-3	-5.78360E-3	119.880E-12	662.565E-3	-16.2299E-3
3.11906E-3	117.777E-12	650.663E-3	-15.7162E-3	118.725E-12	657.039E-3	-1.46831E-3
3.11406E-3	118.001E-12	640.084E-3	-6.92340E-3	118.192E-12	648.031E-3	-13.0469E-3
3.10905E-3	118.244E-12	638.664E-3	1.38902E-3	118.381E-12	649.785E-3	-18.6608E-3
3.10405E-3	118.823E-12	646.092E-3	-20.5193E-3	117.974E-12	655.242E-3	-17.0270E-3
3.09905E-3	119.250E-12	657.041E-3	-34.0587E-3	117.412E-12	639.762E-3	-4.96681E-3
3.09405E-3	119.504E-12	669.208E-3	-25.2071E-3	117.706E-12	617.821E-3	15.8074E-3
3.08904E-3	119.336E-12	684.982E-3	-25.3431E-3	117.147E-12	621.112E-3	13.0045E-3
3.08404E-3	119.331E-12	709.273E-3	-29.6959E-3	117.532E-12	642.301E-3	-5.60299E-3
3.07904E-3	118.680E-12	720.504E-3	-30.3387E-3	117.729E-12	669.687E-3	-18.5897E-3
3.07404E-3	117.908E-12	696.173E-3	-44.0335E-3	118.040E-12	686.851E-3	-27.7783E-3
3.06903E-3	117.541E-12	660.684E-3	-39.6497E-3	117.757E-12	660.981E-3	-27.9833E-3
3.06403E-3	116.664E-12	637.343E-3	-17.9189E-3	117.892E-12	632.365E-3	-21.9211E-3
3.05903E-3	115.707E-12	623.401E-3	-14.8625E-3	118.350E-12	639.938E-3	-24.8493E-3
3.05403E-3	114.646E-12	638.556E-3	-17.6560E-3	117.682E-12	646.085E-3	-24.5815E-3
3.04902E-3	113.436E-12	652.740E-3	-17.8529E-3	117.293E-12	648.195E-3	-11.7777E-3
3.04402E-3	113.845E-12	642.599E-3	-22.3195E-3	116.973E-12	669.531E-3	-1.97585E-3
3.03902E-3	113.363E-12	644.470E-3	-14.4892E-3	117.081E-12	688.663E-3	-3.29626E-3
3.03402E-3	112.928E-12	649.071E-3	-7.07072E-3	116.650E-12	688.893E-3	-1.13831E-3
3.02901E-3	112.590E-12	644.697E-3	-18.8720E-3	115.618E-12	678.272E-3	-8.35242E-3
3.02401E-3	113.536E-12	646.226E-3	-18.7565E-3	115.609E-12	662.876E-3	-26.4857E-3
3.01901E-3	113.976E-12	654.144E-3	-9.96868E-3	114.625E-12	651.243E-3	-27.3370E-3
3.01401E-3	114.234E-12	676.298E-3	-17.7286E-3	113.751E-12	642.600E-3	-12.6627E-3
3.00900E-3	114.505E-12	687.095E-3	-25.9928E-3	113.145E-12	633.606E-3	-122.732E-6
3.00400E-3	114.709E-12	677.223E-3	-20.2458E-3	113.147E-12	640.811E-3	-6.97716E-3
2.99900E-3	114.514E-12	681.164E-3	-16.1294E-3	112.139E-12	652.673E-3	-20.0898E-3
2.99400E-3	114.232E-12	692.933E-3	-13.6393E-3	112.335E-12	655.878E-3	-22.6975E-3
2.98899E-3	113.933E-12	689.594E-3	-8.72497E-3	112.130E-12	661.701E-3	-12.3002E-3
2.98399E-3	112.772E-12	682.652E-3	-17.9036E-3	111.437E-12	662.927E-3	-15.5034E-3
2.97899E-3	111.768E-12	680.579E-3	-39.3265E-3	111.381E-12	656.379E-3	-35.2414E-3
2.97399E-3	111.727E-12	665.667E-3	-42.9580E-3	112.149E-12	658.636E-3	-17.0860E-3
2.96898E-3	111.169E-12	647.796E-3	-41.5618E-3	112.780E-12	672.218E-3	3.82697E-3
2.96398E-3	110.631E-12	648.752E-3	-49.5765E-3	112.261E-12	679.138E-3	-13.3377E-3
2.95898E-3	109.828E-12	665.441E-3	-39.1773E-3	111.802E-12	671.436E-3	-28.8210E-3
2.95398E-3	110.485E-12	680.134E-3	-31.3900E-3	111.799E-12	677.427E-3	-28.4129E-3
2.94897E-3	110.085E-12	673.469E-3	-30.0067E-3	112.103E-12	683.522E-3	-30.8107E-3
2.94397E-3	110.109E-12	648.798E-3	-15.1297E-3	111.675E-12	660.626E-3	-30.8267E-3
2.93897E-3	109.866E-12	630.934E-3	-13.0406E-3	111.174E-12	653.605E-3	-14.7491E-3
2.93397E-3	110.507E-12	638.331E-3	-16.7061E-3	110.734E-12	662.305E-3	-5.21386E-3
2.92896E-3	111.086E-12	660.380E-3	-8.48968E-3	110.064E-12	666.782E-3	-9.95020E-3
2.92396E-3	111.200E-12	662.859E-3	-1.33703E-3	109.505E-12	670.572E-3	-2.44764E-3
2.91896E-3	111.289E-12	652.918E-3	10.3418E-3	108.922E-12	663.520E-3	4.37387E-3
2.91396E-3	110.916E-12	669.558E-3	10.1276E-3	107.927E-12	657.410E-3	-2.18163E-3
2.90895E-3	110.736E-12	682.892E-3	-599.016E-6	107.664E-12	661.368E-3	565.029E-6
2.90395E-3	109.979E-12	669.424E-3	-2.19550E-3	107.460E-12	661.522E-3	4.93680E-3
2.89895E-3	109.721E-12	656.378E-3	-5.95123E-3	107.402E-12	650.444E-3	-2.67708E-3
2.89395E-3	108.451E-12	653.130E-3	-5.66731E-3	106.991E-12	650.539E-3	-7.17404E-3
2.88894E-3	108.370E-12	665.776E-3	-7.11639E-3	106.993E-12	667.286E-3	-4.89330E-3
2.88394E-3	107.666E-12	684.142E-3	-18.0683E-3	106.547E-12	679.672E-3	-4.82985E-3
2.87894E-3	106.582E-12	679.945E-3	-22.1558E-3	107.224E-12	686.887E-3	-6.16565E-3
2.87394E-3	105.909E-12	659.830E-3	-23.5906E-3	107.195E-12	695.978E-3	-14.6372E-3
2.86893E-3	105.732E-12	648.775E-3	-29.0793E-3	107.350E-12	695.568E-3	-27.5823E-3
2.86393E-3	105.909E-12	645.576E-3	-20.0489E-3	107.688E-12	685.999E-3	-29.3635E-3
2.85893E-3	105.661E-12	658.675E-3	-6.46405E-3	108.105E-12	676.242E-3	-30.1147E-3
2.85393E-3	105.868E-12	678.644E-3	-8.32390E-3	108.420E-12	657.136E-3	-40.6204E-3
2.84892E-3	106.103E-12	682.008E-3	-12.5450E-3	107.657E-12	655.558E-3	-41.0764E-3
2.84392E-3	106.701E-12	668.653E-3	-17.9232E-3	107.231E-12	691.097E-3	-16.0923E-3
2.83892E-3	106.629E-12	655.710E-3	-19.7513E-3	107.112E-12	706.406E-3	-4.25637E-3
2.83392E-3	106.463E-12	668.070E-3	-14.3336E-3	106.740E-12	684.457E-3	-23.4818E-3
2.82891E-3	105.838E-12	698.415E-3	-18.6281E-3	106.278E-12	667.295E-3	-36.4997E-3
2.82391E-3	106.274E-12	703.221E-3	-36.2199E-3	105.465E-12	660.914E-3	-22.3897E-3
2.81891E-3	105.723E-12	675.644E-3	-35.9604E-3	105.223E-12	647.138E-3	-4.88598E-3
2.81391E-3	105.221E-12	665.387E-3	-24.0012E-3	104.605E-12	644.743E-3	-8.90941E-3
2.80890E-3	104.337E-12	680.194E-3	-34.9707E-3	104.771E-12	667.472E-3	-22.9145E-3
2.80390E-3	104.051E-12	687.351E-3	-37.1756E-3	104.364E-12	688.737E-3	-26.1541E-3
2.79890E-3	103.092E-12	673.734E-3	-15.6592E-3	104.074E-12	693.387E-3	-14.7895E-3
2.79390E-3	103.105E-12	658.871E-3	-5.66236E-3	103.594E-12	675.352E-3	-11.1889E-3
2.78889E-3	102.356E-12	660.143E-3	-5.17877E-3	103.207E-12	649.710E-3	-13.6331E-3
2.78389E-3	102.544E-12	666.078E-3	-2.92841E-3	103.166E-12	660.241E-3	-10.2999E-3
2.77889E-3	102.493E-12	657.973E-3	-3.49193E-3	102.506E-12	697.273E-3	-12.1503E-3
2.77389E-3	102.217E-12	648.243E-3	-8.21497E-3	102.503E-12	711.243E-3	-11.6247E-3
2.76888E-3	102.657E-12	657.759E-3	-22.7247E-3	103.003E-12	698.571E-3	4.14094E-3
2.76388E-3	102.934E-12	679.465E-3	-35.2758E-3	103.632E-12	682.736E-3	7.08957E-3
2.75888E-3	102.874E-12	682.023E-3	-35.8830E-3	103.292E-12	682.721E-3	-10.4112E-3
2.75388E-3	103.341E-12	659.065E-3	-38.5563E-3	102.936E-12	696.355E-3	-19.3286E-3
2.74887E-3	103.334E-12	655.005E-3	-45.7132E-3	103.160E-12	701.455E-3	-23.0171E-3
2.74387E-3	103.254E-12	667.243E-3	-38.3651E-3	103.546E-12	693.258E-3	-25.0737E-3
2.73887E-3	102.796E-12	677.169E-3	-22.1926E-3	102.807E-12	683.942E-3	-20.1998E-3
2.73387E-3	102.101E-12	682.655E-3	-10.5708E-3	102.787E-12	675.212E-3	-15.5116E-3
2.72886E-3	101.729E-12	687.936E-3	-518.773E-6	102.490E-12	673.214E-3	-9.18440E-3
2.72386E-3	100.848E-12	697.956E-3	5.57378E-3	102.127E-12	686.145E-3	-4.87283E-3
2.71886E-3	100.336E-12	695.399E-3	-2.46286E-3	101.560E-12	686.624E-3	-13.7811E-3
2.71386E-3	99.5073E-12	689.914E-3	-15.9569E-3	101.144E-12	670.116E-3	-24.6525E-3
2.70885E-3	99.1752E-12	686.555E-3	-16.9473E-3	100.139E-12	666.566E-3	-24.5557E-3
2.70385E-3	98.7587E-12	680.542E-3	-11.3691E-3	99.5666E-12	678.424E-3	-26.3708E-3
2.69885E-3	98.4992E-12	675.897E-3	4.01685E-3	98.6075E-12	686.468E-3	-29.6228E-3
2.69385E-3	98.2957E-12	672.777E-3	10.0894E-3	98.4652E-12	679.490E-3	-23.9350E-3
2.68884E-3	97.6406E-12	679.420E-3	-6.86394E-3	97.6993E-12	672.943E-3	-17.2191E-3
2.68384E-3	97.8368E-12	682.487E-3	-20.3013E-3	97.4096E-12	674.026E-3	-18.8047E-3
2.67884E-3	98.1730E-12	664.108E-3	-25.6006E-3	97.0764E-12	680.388E-3	-21.8487E-3
2.67384E-3	98.5888E-12	656.725E-3	-28.2709E-3	97.6319E-12	692.034E-3	-13.8121E-3
2.66883E-3	98.5164E-12	668.706E-3	-23.2607E-3	97.3538E-12	694.797E-3	-7.36150E-3
2.66383E-3	98.5481E-12	663.931E-3	-12.5818E-3	97.7618E-12	681.550E-3	-12.5921E-3
2.65883E-3	99.2225E-12	652.755E-3	-12.6706E-3	97.6310E-12	667.945E-3	-23.9106E-3
2.65383E-3	99.1470E-12	669.197E-3	-22.8714E-3	97.9855E-12	673.018E-3	-31.5721E-3
2.64882E-3	98.4122E-12	692.754E-3	-36.9348E-3	98.2848E-12	673.362E-3	-23.2320E-3
2.64382E-3	97.4815E-12	701.769E-3	-39.5056E-3	98.3920E-12	671.907E-3	-10.6855E-3
2.63882E-3	97.9486E-12	701.867E-3	-22.7154E-3	97.8799E-12	675.813E-3	-16.6443E-3
2.63382E-3	96.8544E-12	694.867E-3	-9.55815E-3	97.6702E-12	672.515E-3	-23.8586E-3
2.62881E-3	95.8763E-12	685.408E-3	-5.13663E-3	97.4540E-12	682.395E-3	-12.0029E-3
2.62381E-3	95.3373E-12	680.478E-3	-5.16971E-3	96.8265E-12	695.813E-3	1.80616E-3
2.61881E-3	94.9886E-12	667.523E-3	-16.6050E-3	96.4497E-12	688.879E-3	1.11421E-3
2.61381E-3	94.4273E-12	650.696E-3	-20.8916E-3	94.9737E-12	672.194E-3	-16.3973E-3
2.60880E-3	94.0414E-12	655.454E-3	-10.4793E-3	94.5783E-12	671.400E-3	-31.2959E-3
2.60380E-3	94.1706E-12	663.009E-3	-1.37332E-3	94.3126E-12	675.714E-3	-40.4379E-3
2.59880E-3	93.9201E-12	658.291E-3	-2.24855E-3	93.8012E-12	670.386E-3	-46.1489E-3
2.59380E-3	94.1825E-12	653.129E-3	-18.1125E-3	92.5343E-12	668.196E-3	-32.2316E-3
2.58879E-3	94.7340E-12	657.565E-3	-31.7263E-3	92.3794E-12	679.744E-3	-22.6735E-3
2.58379E-3	95.4657E-12	661.377E-3	-23.6880E-3	92.5956E-12	696.214E-3	-20.5287E-3
2.57879E-3	95.2345E-12	664.177E-3	-2.16064E-3	93.0696E-12	696.232E-3	-18.8341E-3
2.57379E-3	95.5224E-12	676.419E-3	7.88429E-3	92.7211E-12	679.153E-3	-30.0152E-3
2.56878E-3	96.0816E-12	680.124E-3	640.939E-6	92.6293E-12	673.313E-3	-28.1471E-3
2.56378E-3	95.7012E-12	685.042E-3	-13.8675E-3	93.0617E-12	693.828E-3	-15.7992E-3
2.55878E-3	95.3840E-12	707.353E-3	-34.6694E-3	93.9971E-12	693.181E-3	-26.1387E-3
2.55378E-3	94.5680E-12	712.873E-3	-43.7051E-3	94.2779E-12	674.202E-3	-38.9885E-3
2.54877E-3	94.1297E-12	697.437E-3	-27.9349E-3	93.6222E-12	683.710E-3	-44.3223E-3
2.54377E-3	93.7422E-12	692.101E-3	-9.78956E-3	93.7360E-12	696.658E-3	-48.1381E-3
2.53877E-3	93.0395E-12	688.409E-3	-7.97518E-3	94.0407E-12	695.002E-3	-35.9963E-3
2.53377E-3	92.1613E-12	683.003E-3	-16.5094E-3	93.7080E-12	692.098E-3	-23.7063E-3
2.52876E-3	91.5410E-12	682.960E-3	-20.6274E-3	93.2130E-12	692.506E-3	-24.6734E-3
2.52376E-3	91.6709E-12	687.113E-3	-7.13556E-3	92.6436E-12	694.115E-3	-27.7190E-3
2.51876E-3	91.3561E-12	687.728E-3	10.1979E-3	91.9847E-12	691.509E-3	-23.2928E-3
2.51376E-3	91.4449E-12	675.151E-3	7.50055E-3	91.7398E-12	688.483E-3	-19.3854E-3
2.50875E-3	90.9348E-12	679.322E-3	-4.06205E-3	91.3082E-12	688.198E-3	-23.5326E-3
2.50375E-3	90.4188E-12	709.392E-3	-10.6941E-3	90.8403E-12	695.325E-3	-18.7241E-3
2.49875E-3	91.0836E-12	720.573E-3	-19.6001E-3	90.2944E-12	710.595E-3	-4.35672E-3
2.49375E-3	91.4406E-12	708.763E-3	-28.7463E-3	90.6501E-12	712.513E-3	-2.70540E-3
2.48874E-3	90.9342E-12	700.823E-3	-23.7818E-3	90.1493E-12	694.393E-3	-7.97042E-3
2.48374E-3	90.8967E-12	696.146E-3	-10.7900E-3	89.9085E-12	679.425E-3	-10.8926E-3
2.47874E-3	90.9875E-12	705.139E-3	-7.95874E-3	90.0327E-12	685.179E-3	-13.3252E-3
2.47374E-3	91.4296E-12	718.022E-3	-11.0341E-3	90.5324E-12	697.134E-3	-9.27035E-3
2.46873E-3	90.2089E-12	712.088E-3	-10.0373E-3	89.8177E-12	709.022E-3	-19.0796E-3
2.46373E-3	89.9254E-12	709.932E-3	-5.77342E-3	90.0019E-12	712.811E-3	-35.2903E-3
2.45873E-3	88.9585E-12	722.208E-3	-1.87933E-3	89.5807E-12	696.286E-3	-19.7851E-3
2.45373E-3	88.6766E-12	715.744E-3	-2.91563E-3	89.6803E-12	690.629E-3	-20.9154E-3
2.44872E-3	88.1036E-12	685.889E-3	-3.86098E-3	89.4338E-12	696.761E-3	-54.8435E-3
2.44372E-3	87.3143E-12	672.187E-3	-9.45852E-3	89.5817E-12	694.732E-3	-51.9697E-3
2.43872E-3	86.4983E-12	689.992E-3	-29.2280E-3	89.6011E-12	707.032E-3	-21.9304E-3
2.43372E-3	86.3809E-12	707.113E-3	-33.0598E-3	88.8443E-12	726.564E-3	-9.27045E-3
2.42871E-3	86.5473E-12	702.100E-3	-8.88644E-3	88.3121E-12	719.828E-3	-12.5928E-3
2.42371E-3	86.0895E-12	693.240E-3	-3.01277E-3	88.7894E-12	708.418E-3	-17.8747E-3
2.41871E-3	85.5674E-12	690.295E-3	-12.5795E-3	88.4607E-12	718.449E-3	-8.27562E-3
2.41371E-3	85.4585E-12	692.252E-3	-7.98506E-3	87.8836E-12	729.083E-3	2.93601E-3
2.40870E-3	85.4048E-12	705.266E-3	-5.20212E-3	87.1238E-12	731.654E-3	1.47880E-3
2.40370E-3	85.6331E-12	724.670E-3	-14.3229E-3	87.3435E-12	726.277E-3	-6.76485E-3
2.39870E-3	85.7356E-12	716.665E-3	-17.7820E-3	87.2809E-12	710.989E-3	-14.2415E-3
2.39370E-3	85.6438E-12	691.602E-3	-12.0356E-3	86.8537E-12	699.251E-3	-4.61374E-3
2.38869E-3	85.7748E-12	695.106E-3	-6.07907E-3	85.7293E-12	698.886E-3	-421.474E-6
2.38369E-3	85.7760E-12	712.258E-3	-5.07307E-3	84.9877E-12	696.920E-3	-16.1982E-3
2.37869E-3	85.0410E-12	714.183E-3	-12.4756E-3	84.6990E-12	693.314E-3	-23.2400E-3
2.37369E-3	84.6028E-12	710.438E-3	-8.96699E-3	85.0998E-12	702.292E-3	-18.8540E-3
2.36868E-3	83.8083E-12	721.303E-3	182.077E-6	84.3491E-12	713.762E-3	-9.30653E-3
2.36368E-3	83.8959E-12	728.709E-3	-7.59467E-3	83.9181E-12	719.061E-3	-7.21231E-3
2.35868E-3	83.7416E-12	715.315E-3	-12.1780E-3	83.8504E-12	719.240E-3	-26.0563E-3
2.35368E-3	83.5823E-12	708.993E-3	-7.74237E-3	83.1501E-12	709.578E-3	-43.9994E-3
2.34867E-3	82.6608E-12	710.699E-3	-15.7126E-3	83.2871E-12	698.775E-3	-34.0724E-3
2.34367E-3	82.4888E-12	696.144E-3	-27.5018E-3	83.3376E-12	709.620E-3	-18.4754E-3
2.33867E-3	82.8143E-12	680.061E-3	-25.7596E-3	83.4193E-12	719.952E-3	-18.5048E-3
2.33367E-3	82.6985E-12	688.119E-3	-14.6530E-3	83.3369E-12	704.981E-3	-18.7936E-3
2.32866E-3	82.7176E-12	698.246E-3	-14.4723E-3	83.7507E-12	700.840E-3	-19.4617E-3
2.32366E-3	82.3909E-12	696.318E-3	-31.0183E-3	83.7635E-12	709.642E-3	-19.3955E-3
2.31866E-3	82.9223E-12	703.411E-3	-29.9497E-3	83.2276E-12	706.725E-3	-9.51862E-3
2.31366E-3	83.0912E-12	719.595E-3	-11.4926E-3	83.5296E-12	701.561E-3	-4.98633E-3
2.30865E-3	82.5647E-12	734.533E-3	-6.13900E-3	83.4514E-12	712.832E-3	-16.8303E-3
2.30365E-3	82.1522E-12	743.626E-3	-3.59983E-3	82.8804E-12	734.899E-3	-21.8284E-3
2.29865E-3	81.9344E-12	739.471E-3	-5.40450E-3	82.1152E-12	734.237E-3	-12.4182E-3
2.29365E-3	81.8130E-12	726.764E-3	-5.14430E-3	81.7605E-12	717.348E-3	-10.4615E-3
2.28864E-3	81.0982E-12	717.223E-3	2.42544E-3	81.2005E-12	709.833E-3	-15.6015E-3
2.28364E-3	80.2793E-12	713.275E-3	1.46714E-3	80.3188E-12	718.226E-3	-6.94243E-3
2.27864E-3	79.9740E-12	709.174E-3	949.018E-6	79.7478E-12	739.076E-3	8.25325E-3
2.27364E-3	79.7226E-12	706.729E-3	-10.5465E-3	79.2318E-12	743.888E-3	9.61990E-3
2.26863E-3	79.7469E-12	708.097E-3	-25.5480E-3	78.3370E-12	735.953E-3	-1.75827E-3
2.26363E-3	78.8603E-12	703.211E-3	-19.0098E-3	78.1476E-12	732.596E-3	-18.3289E-3
2.25863E-3	78.3426E-12	702.021E-3	-11.3696E-3	78.5769E-12	724.050E-3	-33.5395E-3
2.25363E-3	78.6461E-12	707.142E-3	-21.5529E-3	77.9401E-12	717.333E-3	-24.5720E-3
2.24862E-3	79.4722E-12	704.634E-3	-34.1691E-3	77.7843E-12	721.630E-3	4.24423E-3
2.24362E-3	78.9913E-12	709.752E-3	-25.0679E-3	78.1682E-12	724.107E-3	3.73695E-3
2.23862E-3	78.6612E-12	713.668E-3	-4.03106E-3	79.1242E-12	724.192E-3	-21.9344E-3
2.23362E-3	78.9051E-12	714.034E-3	3.72397E-3	79.0929E-12	736.472E-3	-33.5661E-3
2.22861E-3	79.1903E-12	729.721E-3	-5.57724E-3	79.0643E-12	749.116E-3	-28.4056E-3
2.22361E-3	79.2843E-12	739.736E-3	-20.4208E-3	79.3570E-12	744.082E-3	-18.5192E-3
2.21861E-3	78.5174E-12	731.818E-3	-22.9227E-3	79.3734E-12	743.444E-3	-23.7975E-3
2.21361E-3	78.0423E-12	722.813E-3	-6.56618E-3	79.7708E-12	750.922E-3	-34.3960E-3
2.20860E-3	77.4964E-12	731.909E-3	8.15697E-3	79.1005E-12	758.169E-3	-29.4795E-3
2.20360E-3	77.8023E-12	746.889E-3	-7.75696E-3	78.1520E-12	767.248E-3	-22.0626E-3
2.19860E-3	76.9668E-12	740.195E-3	-31.3552E-3	77.7309E-12	756.368E-3	-28.8295E-3
2.19360E-3	75.6162E-12	731.347E-3	-24.3636E-3	78.2116E-12	737.787E-3	-36.3919E-3
2.18859E-3	74.9706E-12	731.290E-3	-6.67856E-3	77.3100E-12	739.974E-3	-23.3039E-3
2.18359E-3	74.8796E-12	726.822E-3	7.93565E-3	75.5521E-12	744.062E-3	-17.7721E-3
2.17859E-3	74.7571E-12	718.774E-3	11.6286E-3	75.1886E-12	732.788E-3	-22.7220E-3
2.17359E-3	73.8655E-12	723.402E-3	-14.3618E-3	75.0447E-12	724.668E-3	-14.3952E-3
2.16858E-3	74.0402E-12	730.488E-3	-34.8581E-3	74.8911E-12	733.381E-3	-7.69602E-3
2.16358E-3	73.8138E-12	722.530E-3	-26.9369E-3	74.1250E-12	745.434E-3	-11.8399E-3
2.15858E-3	74.2621E-12	720.714E-3	-15.4349E-3	73.6298E-12	752.469E-3	-15.7614E-3
2.15358E-3	74.0173E-12	725.566E-3	-4.46000E-3	73.2966E-12	755.291E-3	-22.9827E-3
2.14857E-3	74.2286E-12	733.436E-3	-18.7467E-6	74.6164E-12	758.634E-3	-29.6241E-3
2.14357E-3	74.0513E-12	740.300E-3	-18.3477E-3	74.5836E-12	763.662E-3	-19.2796E-3
2.13857E-3	74.3862E-12	749.334E-3	-30.5946E-3	73.7567E-12	766.591E-3	-17.8637E-3
2.13357E-3	74.3458E-12	751.809E-3	-24.8132E-3	73.7999E-12	763.915E-3	-43.8359E-3
2.12856E-3	74.1495E-12	738.203E-3	-20.3792E-3	74.5061E-12	767.538E-3	-55.2029E-3
2.12356E-3	73.6144E-12	735.240E-3	-20.4568E-3	74.9582E-12	771.117E-3	-33.7450E-3
2.11856E-3	72.8540E-12	735.116E-3	-21.2202E-3	73.7708E-12	754.656E-3	-10.6107E-3
2.11356E-3	72.5958E-12	714.992E-3	-17.1104E-3	72.8441E-12	739.828E-3	-13.2019E-3
2.10855E-3	72.2376E-12	710.428E-3	-9.98438E-3	73.2433E-12	741.241E-3	-30.3045E-3
2.10355E-3	71.4735E-12	731.837E-3	-10.5660E-3	73.1681E-12	746.818E-3	-31.2891E-3
2.09855E-3	70.5472E-12	744.201E-3	-21.0700E-3	72.0980E-12	750.525E-3	-14.1455E-3
2.09355E-3	70.4208E-12	740.163E-3	-30.7180E-3	71.1775E-12	755.967E-3	-12.2319E-3
2.08854E-3	70.1348E-12	723.152E-3	-20.9250E-3	70.6079E-12	749.619E-3	-28.2487E-3
2.08354E-3	69.6036E-12	725.613E-3	-9.92259E-3	70.2225E-12	730.396E-3	-26.9812E-3
2.07854E-3	69.2575E-12	757.679E-3	-16.4522E-3	70.4216E-12	728.094E-3	-22.4551E-3
2.07354E-3	69.2811E-12	770.869E-3	-20.4022E-3	69.4186E-12	737.123E-3	-29.0130E-3
2.06853E-3	69.6797E-12	752.051E-3	-30.2781E-3	68.5875E-12	737.815E-3	-28.9932E-3
2.06353E-3	69.3457E-12	737.594E-3	-39.0368E-3	68.7063E-12	748.319E-3	-27.0343E-3
2.05853E-3	69.7319E-12	739.199E-3	-32.6197E-3	68.7080E-12	766.704E-3	-34.8203E-3
2.05353E-3	69.5385E-12	749.561E-3	-23.4419E-3	68.3764E-12	780.091E-3	-36.2494E-3
2.04852E-3	69.8098E-12	765.874E-3	-19.1862E-3	67.8293E-12	779.544E-3	-27.4737E-3
2.04352E-3	69.1612E-12	772.315E-3	-6.26555E-3	67.6003E-12	765.567E-3	-27.6772E-3
2.03852E-3	69.4364E-12	772.715E-3	6.46354E-3	67.8219E-12	753.499E-3	-30.4495E-3
2.03352E-3	69.1716E-12	772.817E-3	1.41019E-3	68.0332E-12	762.884E-3	-34.5236E-3
2.02851E-3	68.2748E-12	776.024E-3	-2.19203E-3	67.7558E-12	780.601E-3	-28.3793E-3
2.02351E-3	67.9635E-12	774.602E-3	-7.66276E-3	67.2271E-12	778.023E-3	-13.7645E-3
2.01851E-3	67.4414E-12	759.429E-3	-18.3001E-3	67.2169E-12	779.198E-3	-19.7092E-3
2.01351E-3	67.1515E-12	752.591E-3	-20.7255E-3	67.1687E-12	779.633E-3	-33.1309E-3
2.00850E-3	66.0288E-12	752.913E-3	-15.0221E-3	67.0174E-12	768.968E-3	-39.0790E-3
2.00350E-3	66.1165E-12	744.859E-3	-12.1145E-3	66.1458E-12	781.385E-3	-32.3099E-3
1.99850E-3	65.9092E-12	747.377E-3	-15.3856E-3	65.9162E-12	798.925E-3	-28.5924E-3
1.99350E-3	66.1653E-12	765.347E-3	-12.0905E-3	65.8756E-12	782.948E-3	-31.9074E-3
1.98849E-3	65.6225E-12	775.911E-3	-14.9468E-3	66.0495E-12	767.832E-3	-16.7821E-3
1.98349E-3	65.5584E-12	776.889E-3	-26.6756E-3	65.8392E-12	778.613E-3	-14.1885E-3
1.97849E-3	65.7006E-12	775.231E-3	-21.8928E-3	65.0656E-12	783.206E-3	-25.2194E-3
1.97349E-3	65.7452E-12	783.191E-3	-8.69659E-3	64.7179E-12	775.657E-3	-10.6949E-3
1.96848E-3	65.5597E-12	800.398E-3	-9.58793E-3	65.0978E-12	783.129E-3	-4.18481E-3
1.96348E-3	65.1662E-12	800.946E-3	-14.7973E-3	64.7657E-12	794.018E-3	-22.9048E-3
1.95848E-3	65.0411E-12	787.005E-3	-18.3635E-3	63.8423E-12	791.299E-3	-31.2597E-3
1.95348E-3	65.0525E-12	788.285E-3	-19.0987E-3	63.6748E-12	805.394E-3	-23.1129E-3
1.94847E-3	64.5646E-12	803.002E-3	-11.7409E-3	63.7579E-12	821.575E-3	-11.9911E-3
1.94347E-3	64.0027E-12	805.731E-3	-15.3425E-3	63.9088E-12	801.592E-3	-2.55702E-3
1.93847E-3	63.4209E-12	802.041E-3	-26.2913E-3	63.2705E-12	783.467E-3	-4.54951E-3
1.93347E-3	62.9923E-12	803.193E-3	-19.0895E-3	63.0260E-12	794.859E-3	-17.8570E-3
1.92846E-3	62.8419E-12	810.831E-3	-7.55083E-3	62.5643E-12	795.166E-3	-16.4611E-3
1.92346E-3	62.6201E-12	817.627E-3	-4.01304E-3	62.9804E-12	792.490E-3	-8.61111E-3
1.91846E-3	61.8603E-12	806.089E-3	3.67998E-3	62.5150E-12	813.278E-3	-19.4479E-3
1.91346E-3	61.5693E-12	789.657E-3	5.47620E-3	61.6002E-12	817.781E-3	-25.1678E-3
1.90845E-3	61.2359E-12	791.439E-3	2.51883E-3	61.4202E-12	809.437E-3	-7.93236E-3
1.90345E-3	61.0925E-12	806.734E-3	1.29365E-3	61.9038E-12	824.862E-3	-254.543E-6
1.89845E-3	60.6601E-12	812.789E-3	-10.1825E-3	61.9122E-12	843.410E-3	-5.99404E-3
1.89345E-3	60.5258E-12	789.131E-3	-16.5710E-3	61.3672E-12	837.886E-3	-7.80733E-3
1.88844E-3	60.6705E-12	765.660E-3	-8.42876E-3	61.1007E-12	820.065E-3	-7.50710E-3
1.88344E-3	60.7262E-12	779.220E-3	-10.7986E-3	61.0356E-12	818.125E-3	-4.64593E-3
1.87844E-3	60.3477E-12	803.822E-3	-20.6788E-3	60.6312E-12	833.767E-3	-6.38361E-3
1.87344E-3	59.9422E-12	817.667E-3	-19.7982E-3	60.1944E-12	843.868E-3	-19.7532E-3
1.86843E-3	59.9320E-12	827.280E-3	-15.4887E-3	59.4179E-12	833.936E-3	-31.2442E-3
1.86343E-3	60.0295E-12	830.856E-3	-18.1957E-3	59.1293E-12	811.630E-3	-26.1769E-3
1.85843E-3	59.7744E-12	834.902E-3	-12.0790E-3	58.8567E-12	797.665E-3	-19.2712E-3
1.85343E-3	58.8717E-12	847.879E-3	6.38907E-3	58.4001E-12	798.043E-3	-27.9615E-3
1.84842E-3	58.0261E-12	862.906E-3	-645.220E-6	57.4956E-12	805.043E-3	-37.2802E-3
1.84342E-3	57.8685E-12	859.149E-3	-26.1682E-3	57.0361E-12	820.593E-3	-24.5568E-3
1.83842E-3	57.6268E-12	837.906E-3	-34.7735E-3	56.9411E-12	834.369E-3	-12.6143E-3
1.83342E-3	56.9272E-12	829.568E-3	-27.5363E-3	56.6397E-12	840.733E-3	-13.9258E-3
1.82841E-3	56.5328E-12	838.026E-3	-10.9437E-3	56.4050E-12	848.963E-3	-12.2372E-3
1.82341E-3	56.5306E-12	841.145E-3	7.70202E-3	55.8881E-12	852.536E-3	-8.54955E-3
1.81841E-3	56.3970E-12	827.430E-3	7.78975E-3	55.9490E-12	843.271E-3	-9.15260E-3
1.81341E-3	56.1046E-12	822.194E-3	-4.01821E-3	55.9807E-12	841.080E-3	-17.9014E-3
1.80840E-3	55.9417E-12	834.783E-3	-7.29140E-3	55.9559E-12	855.407E-3	-23.2441E-3
1.80340E-3	56.0439E-12	849.191E-3	-7.33714E-3	55.6150E-12	866.521E-3	-10.9879E-3
1.79840E-3	55.6874E-12	868.078E-3	-12.8829E-3	55.5503E-12	881.323E-3	15.4123E-3
1.79340E-3	55.5763E-12	878.047E-3	-22.9980E-3	55.7727E-12	900.892E-3	26.1911E-3
1.78839E-3	55.4975E-12	864.881E-3	-25.7285E-3	55.7133E-12	904.269E-3	11.1226E-3
1.78339E-3	55.4591E-12	856.086E-3	-8.87967E-3	55.2991E-12	897.764E-3	-5.69526E-3
1.77839E-3	55.0870E-12	862.383E-3	8.73410E-3	55.0068E-12	898.668E-3	-14.2537E-3
1.77339E-3	54.3661E-12	867.250E-3	3.26815E-3	54.5255E-12	896.873E-3	-16.0801E-3
1.76838E-3	54.3605E-12	874.925E-3	-24.4721E-3	54.0747E-12	885.948E-3	-20.3387E-3
1.76338E-3	53.8612E-12	880.139E-3	-40.4097E-3	53.8600E-12	880.213E-3	-30.9226E-3
1.75838E-3	53.2486E-12	883.334E-3	-22.6835E-3	53.3305E-12	888.938E-3	-26.1204E-3
1.75338E-3	52.5440E-12	889.143E-3	-6.61063E-3	52.5468E-12	903.072E-3	-10.6390E-3
1.74837E-3	52.0204E-12	888.839E-3	-17.3004E-3	52.1240E-12	910.197E-3	-7.30476E-3
1.74337E-3	51.7186E-12	887.224E-3	-33.7393E-3	51.9965E-12	905.748E-3	-11.7447E-3
1.73837E-3	51.4451E-12	888.140E-3	-28.5787E-3	51.4571E-12	902.857E-3	-19.5413E-3
1.73337E-3	50.9228E-12	886.190E-3	-13.4955E-3	50.9402E-12	913.275E-3	-24.5468E-3
1.72836E-3	50.7960E-12	878.936E-3	-12.1977E-3	50.8505E-12	926.592E-3	-25.3746E-3
1.72336E-3	50.7815E-12	889.260E-3	-12.5375E-3	50.6985E-12	942.501E-3	-23.3773E-3
1.71836E-3	50.6484E-12	915.606E-3	-11.5433E-3	50.6950E-12	952.249E-3	-21.8631E-3
1.71336E-3	50.3924E-12	920.808E-3	-19.1175E-3	50.3051E-12	940.643E-3	-22.2802E-3
1.70835E-3	50.5026E-12	915.829E-3	-19.0393E-3	50.2903E-12	922.745E-3	-21.1579E-3
1.70335E-3	50.6476E-12	928.832E-3	-10.8416E-3	50.1041E-12	928.207E-3	-24.1805E-3
1.69835E-3	50.1855E-12	947.038E-3	-10.0516E-3	50.1236E-12	947.731E-3	-26.3819E-3
1.69335E-3	49.8350E-12	952.540E-3	-13.8648E-3	49.9231E-12	953.546E-3	-19.4757E-3
1.68834E-3	49.7122E-12	956.165E-3	-24.8483E-3	49.6278E-12	956.542E-3	-11.4846E-3
1.68334E-3	49.1045E-12	962.403E-3	-36.6902E-3	49.1553E-12	963.554E-3	-13.1546E-3
1.67834E-3	48.5218E-12	959.498E-3	-33.0608E-3	49.0151E-12	966.873E-3	-13.1731E-3
1.67334E-3	48.0834E-12	956.343E-3	-16.7121E-3	48.4321E-12	966.858E-3	-13.4435E-3
1.66833E-3	47.7597E-12	960.921E-3	-921.596E-6	48.0312E-12	961.523E-3	-23.0397E-3
1.66333E-3	47.3443E-12	952.950E-3	2.58722E-3	47.2369E-12	958.670E-3	-23.9052E-3
1.65833E-3	46.5639E-12	942.423E-3	-7.64625E-3	46.4418E-12	959.805E-3	-17.6599E-3
1.65333E-3	45.9812E-12	946.826E-3	-7.98615E-3	46.1565E-12	956.333E-3	-22.2367E-3
1.64832E-3	45.7207E-12	952.012E-3	-198.722E-6	45.7725E-12	952.452E-3	-21.9783E-3
1.64332E-3	45.5835E-12	954.612E-3	-12.8755E-3	45.2215E-12	959.485E-3	-7.55784E-3
1.63832E-3	45.4246E-12	960.118E-3	-35.3447E-3	44.7677E-12	983.122E-3	-7.97482E-3
1.63332E-3	45.1686E-12	974.805E-3	-42.4176E-3	44.8085E-12	1.00850E+0	-21.7744E-3
1.62831E-3	45.1212E-12	986.524E-3	-31.3783E-3	44.6936E-12	1.02358E+0	-29.3774E-3
1.62331E-3	44.8335E-12	978.854E-3	-19.8518E-3	44.5038E-12	1.03636E+0	-40.1646E-3
1.61831E-3	44.6573E-12	973.960E-3	-21.9596E-3	44.2265E-12	1.03816E+0	-39.4183E-3
1.61331E-3	44.6252E-12	987.381E-3	-26.7855E-3	44.1990E-12	1.02815E+0	-23.1867E-3
1.60830E-3	44.5711E-12	996.246E-3	-22.9198E-3	44.2658E-12	1.03041E+0	-24.1713E-3
1.60330E-3	44.1081E-12	1.00063E+0	-17.6183E-3	43.7715E-12	1.04043E+0	-26.9546E-3
1.59830E-3	43.6609E-12	1.01891E+0	-19.8675E-3	43.5677E-12	1.04077E+0	-17.2670E-3
1.59330E-3	43.3981E-12	1.03805E+0	-19.7102E-3	43.0629E-12	1.04090E+0	-15.9870E-3
1.58829E-3	43.0797E-12	1.03825E+0	-18.5910E-3	42.9912E-12	1.04410E+0	-21.3471E-3
1.58329E-3	42.4151E-12	1.02696E+0	-22.7502E-3	42.6484E-12	1.04759E+0	-27.1065E-3
1.57829E-3	41.6825E-12	1.02245E+0	-12.3515E-3	42.0969E-12	1.05072E+0	-31.3273E-3
1.57329E-3	41.2032E-12	1.02626E+0	-553.406E-6	41.5683E-12	1.04223E+0	-24.9605E-3
1.56828E-3	40.8284E-12	1.03156E+0	-11.1646E-3	41.1772E-12	1.03562E+0	-14.9753E-3
1.56328E-3	40.4171E-12	1.03275E+0	-18.4080E-3	40.7202E-12	1.04801E+0	-11.2259E-3
1.55828E-3	39.9267E-12	1.03018E+0	-6.85896E-3	40.3502E-12	1.05975E+0	-14.4935E-3
1.55328E-3	39.8726E-12	1.03998E+0	4.75133E-3	39.7244E-12	1.06154E+0	-16.8157E-3
1.54827E-3	39.5845E-12	1.04803E+0	2.08357E-3	39.4756E-12	1.06343E+0	-14.5905E-3
1.54327E-3	39.3100E-12	1.04170E+0	994.812E-6	39.1198E-12	1.07051E+0	-22.9351E-3
1.53827E-3	39.2211E-12	1.04793E+0	1.81206E-3	38.7605E-12	1.08641E+0	-36.7161E-3
1.53327E-3	38.9890E-12	1.05773E+0	-7.50787E-3	38.4093E-12	1.09932E+0	-39.6925E-3
1.52826E-3	38.8022E-12	1.06113E+0	-15.2026E-3	38.2825E-12	1.09474E+0	-37.4394E-3
1.52326E-3	38.2488E-12	1.06536E+0	-20.7943E-3	37.9874E-12	1.07594E+0	-29.6253E-3
1.51826E-3	37.9548E-12	1.06883E+0	-19.3219E-3	37.5219E-12	1.06364E+0	-21.5993E-3
1.51326E-3	37.7788E-12	1.07924E+0	-15.1644E-3	37.2764E-12	1.06645E+0	-19.8014E-3
1.50825E-3	37.4493E-12	1.09270E+0	-18.9738E-3	37.0278E-12	1.07152E+0	-15.9079E-3
1.50325E-3	36.7722E-12	1.10847E+0	-13.0830E-3	36.5765E-12	1.08251E+0	-11.9577E-3
1.49825E-3	36.2678E-12	1.12216E+0	-5.02430E-3	36.1777E-12	1.10477E+0	-20.3737E-3
1.49325E-3	36.0954E-12	1.11733E+0	-15.8490E-3	35.9472E-12	1.11351E+0	-40.2611E-3
1.48824E-3	35.6385E-12	1.09866E+0	-26.7370E-3	35.6673E-12	1.10392E+0	-43.3988E-3
1.48324E-3	34.8755E-12	1.09057E+0	-22.3834E-3	35.1816E-12	1.09276E+0	-21.2822E-3
1.47824E-3	34.4944E-12	1.08870E+0	-10.1663E-3	34.5521E-12	1.08577E+0	-13.3844E-3
1.47324E-3	34.2597E-12	1.08401E+0	-6.61458E-3	34.2419E-12	1.08225E+0	-23.4499E-3
1.46823E-3	33.9743E-12	1.07958E+0	-12.0381E-3	34.1074E-12	1.08266E+0	-20.1183E-3
1.46323E-3	33.5200E-12	1.07393E+0	-10.0712E-3	33.5214E-12	1.08196E+0	-8.30278E-3
1.45823E-3	33.4006E-12	1.08154E+0	-924.412E-6	33.1590E-12	1.07609E+0	-10.3074E-3
1.45323E-3	33.2106E-12	1.09806E+0	1.84018E-3	32.8223E-12	1.07087E+0	-20.0886E-3
1.44822E-3	32.8474E-12	1.09572E+0	5.77268E-3	32.6131E-12	1.05969E+0	-13.9435E-3
1.44322E-3	32.3520E-12	1.08444E+0	12.4518E-3	32.1137E-12	1.05691E+0	2.48689E-3
1.43822E-3	32.2641E-12	1.08967E+0	5.06697E-3	31.8019E-12	1.06869E+0	539.630E-6
1.43322E-3	31.8866E-12	1.09232E+0	-4.55437E-3	31.5211E-12	1.06739E+0	-19.1150E-3
1.42821E-3	31.3937E-12	1.07876E+0	-6.73318E-3	31.1048E-12	1.05932E+0	-21.7338E-3
1.42321E-3	30.8920E-12	1.06848E+0	-3.89049E-3	30.6196E-12	1.05205E+0	-9.49739E-3
1.41821E-3	30.5388E-12	1.07151E+0	-4.59382E-3	30.1193E-12	1.04242E+0	-9.28868E-3
1.41321E-3	30.0858E-12	1.07446E+0	-9.97049E-3	29.7387E-12	1.04183E+0	-18.0760E-3
1.40820E-3	29.3238E-12	1.06880E+0	-5.97071E-3	29.0365E-12	1.04968E+0	-22.5983E-3
1.40320E-3	28.8072E-12	1.06990E+0	-4.31478E-3	28.7913E-12	1.04532E+0	-24.3334E-3
1.39820E-3	28.5231E-12	1.06408E+0	-11.1181E-3	28.4900E-12	1.02533E+0	-22.8370E-3
1.39320E-3	28.3146E-12	1.04413E+0	-21.9918E-3	28.3034E-12	1.01905E+0	-22.2886E-3
1.38819E-3	27.8292E-12	1.03538E+0	-34.1396E-3	27.7356E-12	1.02876E+0	-35.5851E-3
1.38319E-3	27.6108E-12	1.03067E+0	-29.2063E-3	27.5288E-12	1.02985E+0	-45.3506E-3
1.37819E-3	27.6342E-12	1.02020E+0	-16.4480E-3	27.3851E-12	1.01440E+0	-43.6228E-3
1.37319E-3	27.2515E-12	1.00598E+0	-16.2325E-3	27.3289E-12	1.00070E+0	-41.0670E-3
1.36818E-3	26.8343E-12	999.973E-3	-17.2360E-3	26.9482E-12	1.00058E+0	-28.6353E-3
1.36318E-3	26.6722E-12	1.01283E+0	-6.94526E-3	26.6313E-12	996.341E-3	-16.1740E-3
1.35818E-3	26.6184E-12	1.02918E+0	-2.91870E-3	26.5486E-12	983.862E-3	-22.7706E-3
1.35318E-3	26.1468E-12	1.02050E+0	-1.98904E-3	26.4515E-12	963.543E-3	-35.3344E-3
1.34817E-3	25.7910E-12	994.079E-3	12.4246E-3	25.8507E-12	937.859E-3	-31.3976E-3
1.34317E-3	25.5842E-12	982.290E-3	16.8593E-3	25.4947E-12	929.183E-3	-31.2949E-3
1.33817E-3	25.3292E-12	983.102E-3	4.33064E-3	25.1286E-12	923.372E-3	-42.8694E-3
1.33317E-3	24.8555E-12	975.509E-3	-4.07543E-3	24.7859E-12	907.887E-3	-27.7056E-3
1.32816E-3	24.4177E-12	947.832E-3	-15.1438E-3	24.2867E-12	902.240E-3	3.25032E-3
1.32316E-3	23.9723E-12	924.403E-3	-34.6906E-3	23.8309E-12	890.200E-3	10.7590E-3
1.31816E-3	23.6353E-12	921.700E-3	-39.8394E-3	23.4638E-12	864.712E-3	7.61244E-3
1.31316E-3	23.3632E-12	908.220E-3	-30.1086E-3	23.1254E-12	858.826E-3	4.53179E-3
1.30815E-3	22.8435E-12	876.522E-3	-32.3255E-3	22.7991E-12	854.529E-3	-4.80013E-3
1.30315E-3	22.6275E-12	854.932E-3	-36.6862E-3	22.4361E-12	830.097E-3	-7.62242E-3
1.29815E-3	22.4641E-12	853.985E-3	-20.3214E-3	22.1866E-12	817.214E-3	-10.6685E-3
1.29315E-3	22.2308E-12	861.742E-3	-8.37195E-3	21.9178E-12	818.577E-3	-19.2733E-3
1.28814E-3	21.8723E-12	859.907E-3	-16.9839E-3	21.9656E-12	817.311E-3	-14.8972E-3
1.28314E-3	21.8939E-12	843.855E-3	-18.7695E-3	21.6906E-12	815.438E-3	-4.23571E-3
1.27814E-3	21.7442E-12	830.720E-3	-9.29939E-3	21.5536E-12	802.193E-3	-7.50019E-3
1.27314E-3	21.4900E-12	827.242E-3	-7.38459E-3	21.3140E-12	775.358E-3	-17.1460E-3
1.26813E-3	21.4412E-12	827.287E-3	-12.6120E-3	21.0720E-12	752.463E-3	-17.6875E-3
1.26313E-3	21.1292E-12	823.241E-3	-20.1610E-3	20.8548E-12	733.468E-3	-12.4968E-3
1.25813E-3	20.9013E-12	805.438E-3	-18.3235E-3	20.6482E-12	719.122E-3	-8.30152E-3
1.25313E-3	20.3935E-12	780.576E-3	-17.4092E-3	20.3701E-12	717.251E-3	-4.54194E-3
1.24812E-3	20.1833E-12	759.571E-3	-24.6022E-3	19.9520E-12	706.252E-3	-9.88709E-3
1.24312E-3	19.7703E-12	743.894E-3	-19.4186E-3	19.7706E-12	669.759E-3	-25.5909E-3
1.23812E-3	19.4381E-12	727.347E-3	-8.91946E-3	19.4468E-12	645.055E-3	-27.4224E-3
1.23312E-3	19.1331E-12	713.723E-3	-8.44507E-3	19.1106E-12	645.057E-3	-22.4163E-3
1.22811E-3	18.8914E-12	708.737E-3	-11.6817E-3	18.5884E-12	631.671E-3	-18.1367E-3
1.22311E-3	18.5695E-12	691.373E-3	-7.44048E-3	18.4218E-12	612.486E-3	-9.86235E-3
1.21811E-3	18.3731E-12	659.243E-3	-5.40659E-3	18.1502E-12	612.369E-3	-16.9476E-3
1.21311E-3	18.0713E-12	635.497E-3	-21.2481E-3	17.9652E-12	600.489E-3	-27.9896E-3
1.20810E-3	17.8091E-12	614.695E-3	-31.4002E-3	17.5965E-12	569.702E-3	-20.3777E-3
1.20310E-3	17.8157E-12	593.150E-3	-22.7398E-3	17.5034E-12	550.422E-3	-14.1283E-3
1.19810E-3	17.5244E-12	587.857E-3	-19.2006E-3	17.4760E-12	534.338E-3	-21.4201E-3
1.19310E-3	17.5331E-12	592.841E-3	-27.8476E-3	17.3420E-12	511.937E-3	-16.5884E-3
1.18809E-3	17.4435E-12	587.820E-3	-38.8789E-3	17.1531E-12	502.322E-3	-7.32813E-3
1.18309E-3	17.3955E-12	567.169E-3	-35.5717E-3	17.0229E-12	498.205E-3	-20.7002E-3
1.17809E-3	17.2862E-12	539.312E-3	-17.1831E-3	17.0939E-12	495.649E-3	-28.6970E-3
1.17309E-3	17.0972E-12	526.030E-3	-13.6102E-3	16.9876E-12	501.574E-3	-9.61936E-3
1.16808E-3	16.9188E-12	527.796E-3	-26.4165E-3	16.7778E-12	480.833E-3	-4.09506E-3
1.16308E-3	16.7401E-12	519.108E-3	-29.5746E-3	16.6014E-12	441.687E-3	-18.5707E-3
1.15808E-3	16.5362E-12	500.653E-3	-26.0357E-3	16.3969E-12	426.920E-3	-21.1974E-3
1.15308E-3	16.1742E-12	489.029E-3	-21.7926E-3	16.3206E-12	420.154E-3	-21.7150E-3
1.14807E-3	15.9715E-12	485.667E-3	-10.7612E-3	16.0481E-12	409.678E-3	-18.4590E-3
1.14307E-3	15.7444E-12	464.643E-3	-10.3618E-3	15.8959E-12	408.195E-3	-6.49593E-3
1.13807E-3	15.7550E-12	430.550E-3	-24.7719E-3	15.7026E-12	405.308E-3	-842.154E-6
1.13307E-3	15.4787E-12	418.819E-3	-27.5787E-3	15.4910E-12	382.367E-3	-3.34518E-3
1.12806E-3	15.4943E-12	420.434E-3	-30.0083E-3	15.3569E-12	356.335E-3	-8.91119E-3
1.12306E-3	15.1976E-12	411.626E-3	-43.5003E-3	15.2303E-12	339.611E-3	-9.63048E-3
1.11806E-3	15.1425E-12	393.501E-3	-34.9986E-3	15.0284E-12	314.718E-3	-3.14389E-3
1.11306E-3	15.0888E-12	369.009E-3	-11.8071E-3	14.8961E-12	302.106E-3	773.856E-6
1.10805E-3	15.1144E-12	346.820E-3	-7.73708E-3	14.9269E-12	304.795E-3	-10.0997E-3
1.10305E-3	15.2061E-12	336.770E-3	-13.6716E-3	14.8777E-12	292.447E-3	-15.9855E-3
1.09805E-3	14.9107E-12	335.927E-3	-24.2577E-3	14.8333E-12	279.800E-3	-6.91789E-3
1.09305E-3	14.9544E-12	340.758E-3	-45.5316E-3	14.6748E-12	279.636E-3	-3.06241E-3
1.08804E-3	14.7552E-12	339.112E-3	-56.1074E-3	14.5827E-12	269.289E-3	-10.2104E-3
1.08304E-3	14.6976E-12	319.031E-3	-36.3949E-3	14.6503E-12	258.452E-3	-14.1504E-3
1.07804E-3	14.4050E-12	296.780E-3	-7.83788E-3	14.3840E-12	253.313E-3	-19.2104E-3
1.07304E-3	14.4783E-12	295.103E-3	-629.543E-6	14.2548E-12	232.947E-3	-30.5189E-3
1.06803E-3	14.2403E-12	291.394E-3	-10.7151E-3	14.1172E-12	218.541E-3	-30.4732E-3
1.06303E-3	14.1310E-12	269.851E-3	-19.0025E-3	14.1216E-12	226.374E-3	-23.2548E-3
1.05803E-3	13.9917E-12	256.395E-3	-23.7160E-3	13.9953E-12	224.982E-3	-16.9070E-3
1.05303E-3	13.8804E-12	244.210E-3	-22.5547E-3	13.7683E-12	212.754E-3	-1.39839E-3
1.04802E-3	13.6861E-12	223.338E-3	-11.7699E-3	13.6706E-12	206.368E-3	1.75962E-3
1.04302E-3	13.6926E-12	216.989E-3	-1.81759E-3	13.7458E-12	190.243E-3	-9.58962E-3
1.03802E-3	13.5638E-12	214.783E-3	-4.56042E-3	13.5766E-12	169.459E-3	-67.9839E-6
1.03302E-3	13.6051E-12	199.187E-3	-17.7813E-3	13.4063E-12	165.519E-3	6.29305E-3
1.02801E-3	13.4389E-12	190.590E-3	-21.6566E-3	13.2942E-12	165.092E-3	-20.7424E-3
1.02301E-3	13.4730E-12	195.810E-3	-13.7616E-3	13.1846E-12	157.254E-3	-37.3573E-3
1.01801E-3	13.4168E-12	203.709E-3	-18.0590E-3	13.1090E-12	153.144E-3	-24.4355E-3
1.01301E-3	13.4498E-12	204.937E-3	-33.4745E-3	13.1305E-12	148.372E-3	-16.7804E-3
1.00800E-3	13.3221E-12	189.042E-3	-33.3746E-3	13.0802E-12	139.271E-3	-18.4482E-3
1.00300E-3	13.2626E-12	161.632E-3	-12.3145E-3	12.9934E-12	140.542E-3	-18.9320E-3
997.999E-6	13.3466E-12	148.014E-3	10.5381E-3	13.0163E-12	144.640E-3	-20.4110E-3
992.997E-6	13.2010E-12	152.353E-3	7.45194E-3	13.0472E-12	139.146E-3	-7.24003E-3
987.994E-6	13.1697E-12	146.387E-3	-15.5878E-3	12.8919E-12	129.698E-3	6.29791E-3
982.991E-6	12.9839E-12	131.247E-3	-23.3122E-3	12.8838E-12	122.205E-3	-7.58223E-3
977.989E-6	13.0744E-12	126.789E-3	-14.6612E-3	12.6541E-12	117.982E-3	-16.0228E-3
972.986E-6	12.7635E-12	123.468E-3	-6.73078E-3	12.6241E-12	109.946E-3	-10.6592E-3
967.984E-6	12.7501E-12	119.749E-3	-8.93579E-3	12.6300E-12	98.7161E-3	-22.4594E-3
962.981E-6	12.5795E-12	123.371E-3	-20.2905E-3	12.6002E-12	94.1018E-3	-35.8369E-3
957.979E-6	12.5307E-12	119.381E-3	-20.8227E-3	12.4976E-12	105.266E-3	-31.1167E-3
952.976E-6	12.5434E-12	100.796E-3	-13.2622E-3	12.5301E-12	117.498E-3	-27.9395E-3
947.974E-6	12.3054E-12	96.4999E-3	-16.0908E-3	12.6607E-12	107.093E-3	-25.4265E-3
942.971E-6	12.3843E-12	107.216E-3	-12.4321E-3	12.6148E-12	94.4804E-3	-12.7965E-3
937.969E-6	12.4154E-12	106.556E-3	-550.206E-6	12.5652E-12	100.764E-3	-8.20050E-3
932.966E-6	12.4214E-12	93.8233E-3	-2.21885E-3	12.5257E-12	103.045E-3	-21.9241E-3
927.964E-6	12.3565E-12	84.2162E-3	-8.78455E-3	12.5622E-12	88.4938E-3	-27.6690E-3
922.961E-6	12.3919E-12	81.2210E-3	-8.36528E-3	12.5798E-12	75.4040E-3	-26.2978E-3
917.959E-6	12.4400E-12	80.6884E-3	-9.43704E-3	12.5139E-12	71.2258E-3	-30.6685E-3
912.956E-6	12.4428E-12	91.4778E-3	-14.5406E-3	12.3928E-12	68.5904E-3	-16.9290E-3
907.954E-6	12.3774E-12	103.122E-3	-13.3842E-3	12.2964E-12	75.7497E-3	-7.71023E-3
902.951E-6	12.2756E-12	91.5738E-3	-4.46429E-3	12.2519E-12	80.4917E-3	-18.8906E-3
897.949E-6	12.2721E-12	82.7301E-3	1.78893E-3	12.1983E-12	70.7869E-3	-17.0654E-3
892.946E-6	12.1380E-12	91.3086E-3	2.05194E-3	12.0472E-12	76.3007E-3	-14.8909E-3
887.944E-6	12.0939E-12	89.3768E-3	4.26519E-3	12.0033E-12	85.3100E-3	-27.4031E-3
882.941E-6	12.0752E-12	77.5244E-3	6.80542E-3	11.9668E-12	72.5078E-3	-31.8788E-3
877.939E-6	11.9802E-12	69.5181E-3	-2.96878E-3	11.9068E-12	61.0487E-3	-28.0604E-3
872.936E-6	12.0112E-12	66.3305E-3	-16.5653E-3	11.8812E-12	61.5168E-3	-25.5679E-3
867.934E-6	11.8451E-12	66.3692E-3	-12.6088E-3	11.8061E-12	61.2188E-3	-17.4513E-3
862.931E-6	11.9136E-12	66.2908E-3	-8.30443E-3	11.9058E-12	72.6916E-3	-9.20823E-3
857.929E-6	11.9291E-12	61.8217E-3	-19.7640E-3	11.9031E-12	85.6603E-3	-10.6052E-3
852.926E-6	11.9096E-12	51.2130E-3	-19.5131E-3	11.9463E-12	76.5463E-3	-15.7704E-3
847.924E-6	12.0375E-12	43.8236E-3	-1.22505E-3	12.0841E-12	68.4467E-3	-16.7861E-3
842.921E-6	12.0522E-12	51.8067E-3	6.99988E-3	12.0547E-12	67.2302E-3	-18.4715E-3
837.919E-6	12.1837E-12	56.2470E-3	-8.34249E-3	11.9506E-12	64.0653E-3	-23.5368E-3
832.916E-6	12.1136E-12	48.6060E-3	-29.3363E-3	12.0251E-12	72.0820E-3	-24.8596E-3
827.914E-6	12.2629E-12	56.9091E-3	-36.3841E-3	12.0082E-12	82.7603E-3	-23.3861E-3
822.911E-6	12.1833E-12	76.3835E-3	-31.9910E-3	11.9331E-12	74.8609E-3	-13.6439E-3
817.909E-6	11.9756E-12	89.5837E-3	-23.6064E-3	11.8015E-12	59.4656E-3	179.687E-6
812.906E-6	11.9070E-12	94.3740E-3	-16.0708E-3	11.7689E-12	55.1195E-3	-3.51482E-3
807.904E-6	11.8372E-12	85.1323E-3	-12.2489E-3	11.6566E-12	58.2512E-3	-14.2421E-3
802.901E-6	11.7802E-12	69.8725E-3	-10.7846E-3	11.5219E-12	63.4464E-3	-14.3466E-3
797.899E-6	11.5881E-12	64.6911E-3	-8.16702E-3	11.5190E-12	64.6863E-3	-16.6847E-3
792.896E-6	11.5652E-12	70.9009E-3	-5.69936E-3	11.4953E-12	60.3635E-3	-24.2758E-3
787.894E-6	11.4758E-12	77.0635E-3	-18.0584E-3	11.5367E-12	66.1671E-3	-24.7539E-3
782.891E-6	11.3577E-12	75.0919E-3	-42.1185E-3	11.4550E-12	81.3016E-3	-21.2256E-3
777.889E-6	11.3777E-12	66.9584E-3	-47.8897E-3	11.3891E-12	82.4094E-3	-22.6212E-3
772.886E-6	11.3208E-12	68.9889E-3	-29.6445E-3	11.4229E-12	76.1315E-3	-19.5169E-3
767.884E-6	11.4747E-12	75.4532E-3	-22.4021E-3	11.4003E-12	83.3365E-3	-17.3035E-3
762.881E-6	11.4892E-12	67.4168E-3	-33.8720E-3	11.4481E-12	96.5041E-3	-25.8302E-3
757.879E-6	11.4862E-12	63.2556E-3	-40.3766E-3	11.5166E-12	94.1702E-3	-27.0190E-3
752.876E-6	11.5071E-12	73.4473E-3	-28.1960E-3	11.5614E-12	80.8030E-3	-27.5925E-3
747.874E-6	11.5676E-12	78.3291E-3	-10.0699E-3	11.5202E-12	72.6201E-3	-35.8506E-3
742.871E-6	11.6906E-12	80.9289E-3	-6.17017E-3	11.6675E-12	75.8171E-3	-28.6678E-3
737.869E-6	11.5976E-12	90.3815E-3	-12.4359E-3	11.6049E-12	88.2463E-3	-12.1108E-3
732.866E-6	11.5211E-12	90.3540E-3	-19.5189E-3	11.5484E-12	98.3342E-3	-5.54967E-3
727.864E-6	11.4549E-12	79.0202E-3	-17.6587E-3	11.4053E-12	102.789E-3	-928.797E-6
722.861E-6	11.3573E-12	73.9835E-3	-3.19299E-3	11.4377E-12	94.0435E-3	-2.10051E-3
717.859E-6	11.2004E-12	83.7381E-3	5.04721E-3	11.4348E-12	77.6240E-3	-19.1916E-3
712.856E-6	11.0355E-12	95.0775E-3	-8.51408E-3	11.3230E-12	75.7781E-3	-30.8117E-3
707.854E-6	11.0643E-12	88.0022E-3	-19.7367E-3	11.1261E-12	88.6335E-3	-25.5073E-3
702.851E-6	10.9685E-12	75.3491E-3	-13.4305E-3	10.9622E-12	97.3923E-3	-23.2966E-3
697.849E-6	10.9182E-12	77.4778E-3	-1.89673E-3	11.0374E-12	91.9129E-3	-16.1197E-3
692.846E-6	10.8795E-12	86.2111E-3	6.74638E-3	11.0324E-12	89.9184E-3	-2.02165E-3
687.844E-6	10.8605E-12	93.0480E-3	-437.858E-6	10.8616E-12	103.012E-3	-4.39805E-3
682.841E-6	10.7567E-12	97.7294E-3	-14.3449E-3	10.8184E-12	112.178E-3	-18.1632E-3
677.839E-6	10.8299E-12	93.1621E-3	-13.5304E-3	10.9007E-12	114.644E-3	-26.2645E-3
672.836E-6	10.9435E-12	85.7347E-3	-10.1218E-3	11.0723E-12	123.488E-3	-21.9251E-3
667.834E-6	10.9880E-12	99.9061E-3	-20.3866E-3	10.8864E-12	136.137E-3	-18.0869E-3
662.831E-6	10.9975E-12	124.042E-3	-28.7787E-3	10.8523E-12	141.039E-3	-17.1017E-3
657.829E-6	10.8776E-12	131.203E-3	-29.2358E-3	10.7944E-12	144.752E-3	-18.8701E-3
652.826E-6	11.0023E-12	126.487E-3	-24.4820E-3	10.9512E-12	147.911E-3	-23.8162E-3
647.824E-6	11.0421E-12	121.262E-3	-13.5933E-3	10.9312E-12	139.867E-3	-14.0443E-3
642.821E-6	10.9038E-12	120.589E-3	-18.4316E-3	10.7842E-12	140.285E-3	-12.2200E-3
637.819E-6	10.7533E-12	123.574E-3	-34.4741E-3	10.7471E-12	156.581E-3	-26.9210E-3
632.816E-6	10.8211E-12	129.819E-3	-35.3090E-3	10.7722E-12	166.419E-3	-25.4450E-3
627.814E-6	10.6534E-12	132.328E-3	-25.9226E-3	10.6598E-12	164.205E-3	-8.20861E-3
622.811E-6	10.5247E-12	132.104E-3	-14.2562E-3	10.5173E-12	150.991E-3	434.344E-6
617.809E-6	10.2635E-12	150.095E-3	-87.3939E-6	10.3437E-12	143.870E-3	-10.5754E-3
612.806E-6	10.2620E-12	160.984E-3	3.07848E-3	10.2737E-12	162.662E-3	-16.8456E-3
607.804E-6	10.3030E-12	145.443E-3	-9.21190E-3	10.2544E-12	177.945E-3	-9.45447E-3
602.801E-6	10.1782E-12	147.772E-3	-10.1699E-3	10.2774E-12	180.279E-3	-9.32224E-3
597.799E-6	10.1668E-12	162.115E-3	510.167E-6	10.1885E-12	198.282E-3	-7.28200E-3
592.796E-6	10.0438E-12	157.430E-3	-6.00805E-3	10.1465E-12	203.629E-3	-4.88487E-3
587.794E-6	10.0162E-12	158.500E-3	-21.1313E-3	10.1044E-12	189.906E-3	-11.0818E-3
582.791E-6	9.93608E-12	172.112E-3	-19.0681E-3	10.1362E-12	194.638E-3	-15.5113E-3
577.789E-6	9.95668E-12	168.082E-3	-7.90828E-3	10.0337E-12	200.566E-3	-14.9061E-3
572.786E-6	9.97891E-12	152.567E-3	-2.22326E-3	9.91796E-12	198.418E-3	-3.54385E-3
567.784E-6	9.93457E-12	165.159E-3	-2.65824E-3	9.72227E-12	206.774E-3	3.25175E-3
562.781E-6	9.77388E-12	189.425E-3	-15.3221E-3	9.78611E-12	216.011E-3	-5.67257E-3
557.779E-6	9.74165E-12	196.998E-3	-32.5970E-3	9.73808E-12	216.938E-3	-20.6917E-3
552.776E-6	9.73692E-12	196.221E-3	-35.9488E-3	9.60528E-12	220.261E-3	-30.1063E-3
547.774E-6	9.55112E-12	195.801E-3	-32.2406E-3	9.40054E-12	223.742E-3	-26.6467E-3
542.771E-6	9.48193E-12	209.469E-3	-31.8753E-3	9.46110E-12	226.142E-3	-21.9755E-3
537.769E-6	9.32901E-12	226.127E-3	-30.6244E-3	9.41239E-12	232.898E-3	-26.4708E-3
532.766E-6	9.26211E-12	232.233E-3	-32.8371E-3	9.25676E-12	243.134E-3	-36.6910E-3
527.764E-6	9.07325E-12	226.802E-3	-32.1497E-3	9.21043E-12	251.321E-3	-31.8163E-3
522.761E-6	8.95330E-12	218.247E-3	-16.2148E-3	9.00896E-12	250.317E-3	-5.73002E-3
517.759E-6	8.98507E-12	224.816E-3	-4.62385E-3	9.00835E-12	245.308E-3	6.67482E-3
512.756E-6	8.89911E-12	241.487E-3	-16.0007E-3	8.92607E-12	250.876E-3	-3.15669E-3
507.754E-6	8.82484E-12	250.746E-3	-26.3448E-3	8.78125E-12	268.286E-3	-9.76583E-3
502.751E-6	8.73329E-12	245.225E-3	-20.0983E-3	8.70244E-12	284.253E-3	-8.70639E-3
497.749E-6	8.72326E-12	247.102E-3	-13.9169E-3	8.65604E-12	293.195E-3	-7.12326E-3
492.746E-6	8.68387E-12	259.457E-3	-8.43311E-3	8.61131E-12	294.592E-3	-14.7417E-3
487.744E-6	8.58568E-12	269.682E-3	-2.09535E-3	8.51017E-12	291.151E-3	-25.0119E-3
482.741E-6	8.47115E-12	283.509E-3	-4.71179E-3	8.45249E-12	293.298E-3	-26.4390E-3
477.739E-6	8.40008E-12	291.332E-3	-11.1126E-3	8.21750E-12	302.872E-3	-17.6076E-3
472.736E-6	8.30020E-12	288.260E-3	-14.9033E-3	8.18160E-12	306.610E-3	-4.61639E-3
467.734E-6	8.11930E-12	287.231E-3	-18.4143E-3	8.19439E-12	297.975E-3	-9.10061E-3
462.731E-6	8.05382E-12	291.869E-3	-20.2655E-3	8.12794E-12	297.890E-3	-16.6158E-3
457.729E-6	7.91668E-12	294.463E-3	-12.9709E-3	7.84827E-12	319.975E-3	-20.2104E-3
452.726E-6	7.78090E-12	293.418E-3	-8.87901E-3	7.72456E-12	332.113E-3	-22.7193E-3
447.724E-6	7.59647E-12	297.722E-3	-16.8376E-3	7.79347E-12	319.779E-3	-12.7874E-3
442.721E-6	7.50122E-12	302.638E-3	-20.2808E-3	7.74167E-12	315.850E-3	-13.7725E-3
437.719E-6	7.53266E-12	296.173E-3	-20.0699E-3	7.54631E-12	316.492E-3	-20.3619E-3
432.716E-6	7.32570E-12	298.382E-3	-21.5395E-3	7.35584E-12	310.236E-3	-14.9387E-3
427.714E-6	7.31892E-12	320.451E-3	-15.6949E-3	7.34170E-12	323.766E-3	-14.2853E-3
422.711E-6	7.18214E-12	328.570E-3	-9.59153E-3	7.39611E-12	343.243E-3	-20.5261E-3
417.709E-6	7.12360E-12	328.006E-3	-10.9870E-3	7.20137E-12	342.728E-3	-20.1691E-3
412.706E-6	7.05980E-12	335.539E-3	-4.37048E-3	7.03693E-12	338.456E-3	-21.9659E-3
407.704E-6	6.94145E-12	336.627E-3	-4.06134E-3	6.96546E-12	346.236E-3	-31.5515E-3
402.701E-6	6.95202E-12	340.306E-3	-20.1742E-3	6.92339E-12	359.225E-3	-30.0154E-3
397.699E-6	6.81204E-12	343.197E-3	-24.8791E-3	6.75503E-12	362.956E-3	-12.7278E-3
392.696E-6	6.66476E-12	336.962E-3	-13.5797E-3	6.64054E-12	355.131E-3	-1.75792E-3
387.694E-6	6.54910E-12	337.693E-3	-7.22434E-3	6.51830E-12	342.416E-3	-9.25773E-3
382.691E-6	6.42579E-12	344.601E-3	-3.77517E-3	6.34445E-12	341.348E-3	-21.8590E-3
377.689E-6	6.28167E-12	344.974E-3	1.50476E-3	6.27408E-12	354.143E-3	-23.7339E-3
372.686E-6	6.01543E-12	340.265E-3	-11.1149E-3	6.07127E-12	350.214E-3	-17.4863E-3
367.684E-6	5.87929E-12	347.660E-3	-27.1211E-3	5.99661E-12	326.503E-3	-5.27341E-3
362.681E-6	5.77008E-12	357.654E-3	-22.8615E-3	5.73922E-12	313.463E-3	4.76315E-3
357.679E-6	5.66671E-12	350.033E-3	-23.4564E-3	5.76714E-12	331.429E-3	-3.51433E-3
352.676E-6	5.51110E-12	332.181E-3	-34.8722E-3	5.61436E-12	352.766E-3	-13.3562E-3
347.674E-6	5.38959E-12	315.531E-3	-32.5004E-3	5.42132E-12	342.330E-3	-15.4443E-3
342.671E-6	5.35629E-12	314.907E-3	-26.9145E-3	5.35604E-12	325.740E-3	-16.0528E-3
337.669E-6	5.22032E-12	327.813E-3	-24.7953E-3	5.29353E-12	327.229E-3	-20.6643E-3
332.666E-6	5.11181E-12	333.401E-3	-15.9996E-3	5.29221E-12	331.613E-3	-32.7142E-3
327.664E-6	5.02109E-12	336.511E-3	-12.5640E-3	5.12184E-12	335.013E-3	-29.7267E-3
322.661E-6	5.05292E-12	347.382E-3	-13.2605E-3	4.95932E-12	331.501E-3	-14.0653E-3
317.659E-6	4.90930E-12	358.182E-3	-5.74665E-3	4.90666E-12	318.057E-3	-8.31656E-3
312.656E-6	4.79766E-12	357.770E-3	-5.35227E-3	4.84018E-12	319.393E-3	-16.7518E-3
307.654E-6	4.78001E-12	346.690E-3	-14.7859E-3	4.73834E-12	329.621E-3	-21.5133E-3
302.651E-6	4.64497E-12	332.807E-3	-9.90598E-3	4.53204E-12	329.607E-3	-20.4322E-3
297.649E-6	4.53807E-12	329.040E-3	366.647E-6	4.42607E-12	330.895E-3	-27.4692E-3
292.646E-6	4.34064E-12	339.972E-3	-4.99314E-3	4.34569E-12	325.349E-3	-25.4081E-3
287.644E-6	4.25796E-12	339.716E-3	-7.52104E-3	4.27986E-12	309.489E-3	-10.1620E-3
282.641E-6	4.10222E-12	321.746E-3	3.17805E-3	4.03928E-12	307.054E-3	-6.51533E-3
277.639E-6	3.95175E-12	317.422E-3	6.59119E-3	3.93355E-12	317.800E-3	-15.6505E-3
272.636E-6	3.77779E-12	333.241E-3	-1.51179E-3	3.76396E-12	321.567E-3	-12.5980E-3
267.634E-6	3.72593E-12	339.990E-3	-14.4700E-3	3.71220E-12	311.352E-3	-857.875E-6
262.631E-6	3.63257E-12	326.883E-3	-26.4082E-3	3.64117E-12	302.842E-3	-861.084E-6
257.629E-6	3.48716E-12	316.085E-3	-24.4282E-3	3.49911E-12	307.664E-3	-11.5046E-3
252.626E-6	3.32941E-12	307.519E-3	-11.2830E-3	3.41368E-12	314.033E-3	-17.5314E-3
247.624E-6	3.34526E-12	299.097E-3	-7.63974E-3	3.36811E-12	310.325E-3	-13.2330E-3
242.621E-6	3.36935E-12	304.849E-3	-9.51936E-3	3.27439E-12	294.587E-3	-5.51405E-3
237.619E-6	3.18300E-12	314.820E-3	-10.6649E-3	3.22635E-12	282.623E-3	-4.32888E-3
232.616E-6	3.18418E-12	314.973E-3	-22.2793E-3	3.14069E-12	282.389E-3	-15.5061E-3
227.614E-6	3.05470E-12	304.596E-3	-24.6287E-3	3.01401E-12	281.311E-3	-20.8074E-3
222.611E-6	2.93246E-12	284.686E-3	-9.81586E-3	2.88045E-12	278.892E-3	-12.5172E-3
217.609E-6	2.80737E-12	274.082E-3	-5.42827E-3	2.85098E-12	273.474E-3	-13.4738E-3
212.606E-6	2.69734E-12	282.615E-3	-6.33023E-3	2.75681E-12	268.299E-3	-21.4044E-3
207.604E-6	2.66369E-12	280.572E-3	1.67258E-3	2.62666E-12	261.286E-3	-14.3921E-3
202.601E-6	2.48769E-12	260.714E-3	2.95584E-3	2.46735E-12	245.225E-3	-4.39768E-3
197.599E-6	2.31446E-12	248.171E-3	-3.66264E-3	2.42104E-12	228.266E-3	-6.47396E-3
192.596E-6	2.27876E-12	247.538E-3	-12.6590E-3	2.34527E-12	225.884E-3	-8.23496E-3
187.594E-6	2.24254E-12	253.807E-3	-33.6246E-3	2.21196E-12	225.737E-3	-10.3441E-3
182.591E-6	2.08049E-12	266.121E-3	-51.2249E-3	2.06394E-12	209.351E-3	-14.0845E-3
177.589E-6	2.03589E-12	264.147E-3	-44.3882E-3	2.05419E-12	198.395E-3	-9.00469E-3
172.586E-6	1.91655E-12	247.152E-3	-27.8045E-3	1.96665E-12	202.912E-3	-6.74016E-3
167.584E-6	1.88986E-12	238.521E-3	-7.71186E-3	1.85582E-12	209.460E-3	-9.35312E-3
162.581E-6	1.76623E-12	238.093E-3	9.34365E-3	1.74247E-12	209.840E-3	-10.3394E-3
157.579E-6	1.67637E-12	232.199E-3	-4.89982E-3	1.69746E-12	208.736E-3	-18.6399E-3
152.576E-6	1.65403E-12	228.078E-3	-27.7857E-3	1.68302E-12	212.842E-3	-28.1237E-3
147.574E-6	1.66547E-12	228.583E-3	-20.1129E-3	1.60808E-12	212.661E-3	-25.3886E-3
142.571E-6	1.48153E-12	228.003E-3	-8.97027E-3	1.49728E-12	200.066E-3	-9.68824E-3
137.569E-6	1.42448E-12	230.182E-3	-14.3381E-3	1.46727E-12	186.851E-3	4.36657E-3
132.566E-6	1.41947E-12	216.907E-3	-14.9611E-3	1.41860E-12	179.202E-3	-2.01129E-3
127.564E-6	1.42681E-12	186.836E-3	-7.59133E-3	1.35255E-12	172.939E-3	-19.5626E-3
122.561E-6	1.21999E-12	176.496E-3	-8.28431E-3	1.24219E-12	163.644E-3	-25.3292E-3
117.559E-6	1.16911E-12	190.533E-3	-20.9821E-3	1.21523E-12	157.142E-3	-16.6272E-3
112.556E-6	1.12738E-12	193.998E-3	-21.7166E-3	1.16483E-12	161.924E-3	-12.6173E-3
107.554E-6	1.06647E-12	186.064E-3	-6.91075E-3	1.07228E-12	166.412E-3	-21.0106E-3
102.551E-6	986.727E-15	180.570E-3	-850.682E-6	1.01751E-12	163.703E-3	-26.1758E-3
97.5488E-6	933.313E-15	179.153E-3	1.46443E-3	968.399E-15	157.157E-3	-12.5222E-3
92.5463E-6	892.698E-15	189.799E-3	2.12031E-3	822.952E-15	154.120E-3	6.20096E-3
87.5438E-6	865.642E-15	198.446E-3	-10.0880E-3	818.680E-15	159.852E-3	-1.58597E-3
82.5413E-6	757.793E-15	193.056E-3	-20.4207E-3	815.637E-15	168.079E-3	-27.7586E-3
77.5388E-6	678.953E-15	170.347E-3	-20.7342E-3	760.383E-15	167.478E-3	-33.9286E-3
72.5363E-6	749.989E-15	144.086E-3	-17.1414E-3	644.363E-15	163.404E-3	-21.2433E-3
67.5338E-6	597.070E-15	141.462E-3	-6.84835E-3	547.745E-15	164.738E-3	-15.3313E-3
62.5313E-6	494.592E-15	147.880E-3	-6.82090E-3	596.782E-15	159.600E-3	-16.7702E-3
57.5288E-6	532.878E-15	146.008E-3	-10.8387E-3	509.764E-15	149.191E-3	-15.4434E-3
52.5263E-6	501.428E-15	145.509E-3	-2.63241E-3	434.629E-15	153.087E-3	-14.1363E-3
47.5238E-6	411.044E-15	144.212E-3	-6.23179E-3	332.343E-15	167.563E-3	-15.8376E-3
42.5213E-6	309.455E-15	140.022E-3	-16.7866E-3	383.534E-15	166.020E-3	-14.2367E-3
37.5188E-6	303.238E-15	140.041E-3	-24.8359E-3	318.410E-15	149.889E-3	-18.5957E-3
32.5163E-6	274.621E-15	137.838E-3	-37.4832E-3	251.288E-15	145.505E-3	-28.3332E-3
27.5138E-6	135.635E-15	136.233E-3	-36.4783E-3	161.976E-15	155.072E-3	-24.2108E-3
22.5113E-6	77.8090E-15	138.140E-3	-15.5442E-3	109.094E-15	159.366E-3	-12.1692E-3
17.5088E-6	60.1786E-15	142.069E-3	-1.71911E-3	100.889E-15	160.454E-3	-9.36455E-3
12.5063E-6	78.1316E-15	154.722E-3	-13.7304E-3	53.5780E-15	163.430E-3	-13.8338E-3
7.50375E-6	-37.5387E-15	160.520E-3	-24.1586E-3	-8.65166E-15	159.623E-3	-17.6856E-3
2.50125E-6	-114.216E-15	147.734E-3	-22.2151E-3	-87.4655E-15	153.068E-3	-23.2182E-3
-2.50125E-6	-110.293E-15	140.991E-3	-23.6764E-3	-99.8992E-15	152.964E-3	-28.8643E-3
-7.50375E-6	-177.614E-15	156.515E-3	-14.1641E-3	-186.944E-15	163.648E-3	-24.1648E-3
-12.5063E-6	-278.976E-15	174.508E-3	-3.07581E-3	-226.852E-15	168.842E-3	-20.6060E-3
-17.5088E-6	-286.292E-15	174.115E-3	-17.2668E-3	-302.841E-15	161.434E-3	-23.1463E-3
-22.5113E-6	-325.363E-15	159.494E-3	-34.3350E-3	-342.523E-15	162.570E-3	-18.3443E-3
-27.5138E-6	-390.348E-15	146.179E-3	-33.9821E-3	-412.120E-15	175.057E-3	-19.8028E-3
-32.5163E-6	-489.286E-15	144.865E-3	-20.7592E-3	-409.182E-15	172.961E-3	-25.2330E-3
-37.5188E-6	-561.613E-15	162.354E-3	-9.70643E-3	-518.435E-15	160.383E-3	-24.1031E-3
-42.5213E-6	-518.147E-15	181.083E-3	-19.0931E-3	-589.837E-15	167.780E-3	-28.8305E-3
-47.5238E-6	-591.999E-15	175.668E-3	-26.4323E-3	-691.844E-15	179.015E-3	-26.9982E-3
-52.5263E-6	-788.132E-15	162.615E-3	-10.0774E-3	-689.656E-15	180.785E-3	-16.9893E-3
-57.5288E-6	-772.541E-15	168.187E-3	-4.29610E-3	-706.964E-15	184.892E-3	-12.1656E-3
-62.5313E-6	-790.652E-15	179.136E-3	-22.4264E-3	-842.427E-15	191.478E-3	-3.87404E-3
-67.5338E-6	-864.007E-15	179.270E-3	-26.7061E-3	-871.654E-15	196.457E-3	-6.33953E-3
-72.5363E-6	-1.00370E-12	179.548E-3	-13.4656E-3	-961.986E-15	203.346E-3	-23.0128E-3
-77.5388E-6	-1.02066E-12	188.518E-3	-2.77388E-3	-989.286E-15	211.825E-3	-24.3156E-3
-82.5413E-6	-1.01249E-12	200.482E-3	5.27971E-3	-1.07920E-12	214.926E-3	-17.3366E-3
-87.5438E-6	-1.14482E-12	203.706E-3	4.72472E-3	-1.20250E-12	217.037E-3	-17.1061E-3
-92.5463E-6	-1.26226E-12	205.008E-3	-14.5882E-3	-1.26852E-12	221.394E-3	-16.6855E-3
-97.5488E-6	-1.33866E-12	218.727E-3	-24.2844E-3	-1.32143E-12	234.820E-3	-15.4211E-3
-102.551E-6	-1.34196E-12	229.718E-3	-10.5912E-3	-1.42475E-12	254.479E-3	-16.2842E-3
-107.554E-6	-1.51927E-12	228.113E-3	-11.5242E-3	-1.47462E-12	261.135E-3	-14.9764E-3
-112.556E-6	-1.66348E-12	223.689E-3	-30.1338E-3	-1.62820E-12	262.381E-3	-5.46521E-3
-117.559E-6	-1.68121E-12	217.410E-3	-36.2549E-3	-1.70846E-12	270.466E-3	-1.17766E-3
-122.561E-6	-1.73531E-12	215.777E-3	-31.6557E-3	-1.71837E-12	270.709E-3	-11.9453E-3
-127.564E-6	-1.87389E-12	233.366E-3	-18.6903E-3	-1.85202E-12	263.963E-3	-11.6632E-3
-132.566E-6	-1.95718E-12	254.953E-3	-5.45193E-3	-1.96528E-12	273.703E-3	-786.202E-6
-137.569E-6	-1.99718E-12	265.329E-3	-17.8199E-3	-2.03401E-12	287.832E-3	-2.82350E-3
-142.571E-6	-2.05486E-12	276.180E-3	-36.0686E-3	-2.13115E-12	285.241E-3	-14.8270E-3
-147.574E-6	-2.17359E-12	283.354E-3	-29.3743E-3	-2.17734E-12	290.780E-3	-26.9314E-3
-152.576E-6	-2.30122E-12	285.525E-3	-20.4262E-3	-2.30177E-12	312.441E-3	-27.8231E-3
-157.579E-6	-2.28887E-12	291.879E-3	-22.2044E-3	-2.38251E-12	320.768E-3	-18.7299E-3
-162.581E-6	-2.35186E-12	297.335E-3	-21.9784E-3	-2.47150E-12	319.534E-3	-16.2463E-3
-167.584E-6	-2.58289E-12	303.888E-3	-30.7130E-3	-2.54662E-12	330.510E-3	-19.6071E-3
-172.586E-6	-2.70206E-12	308.969E-3	-37.2490E-3	-2.69963E-12	345.465E-3	-17.9273E-3
-177.589E-6	-2.72603E-12	314.665E-3	-23.8479E-3	-2.88215E-12	362.520E-3	-11.8659E-3
-182.591E-6	-2.92756E-12	327.214E-3	-13.3731E-3	-2.98197E-12	378.091E-3	-3.95259E-3
-187.594E-6	-3.12084E-12	340.509E-3	-14.7579E-3	-3.09088E-12	386.680E-3	-3.72108E-3
-192.596E-6	-3.19831E-12	346.135E-3	-17.0777E-3	-3.23846E-12	404.186E-3	-13.2016E-3
-197.599E-6	-3.27780E-12	347.919E-3	-18.2595E-3	-3.34341E-12	428.612E-3	-15.7187E-3
-202.601E-6	-3.44686E-12	357.533E-3	-19.8929E-3	-3.56491E-12	442.273E-3	-4.28115E-3
-207.604E-6	-3.72272E-12	374.053E-3	-26.7248E-3	-3.68220E-12	441.660E-3	1.89056E-3
-212.606E-6	-3.81878E-12	390.178E-3	-31.4112E-3	-3.75353E-12	436.899E-3	-15.5119E-3
-217.609E-6	-3.84891E-12	396.335E-3	-30.6244E-3	-3.93412E-12	441.485E-3	-32.9618E-3
-222.611E-6	-4.08367E-12	398.122E-3	-32.0193E-3	-4.08726E-12	452.909E-3	-30.3476E-3
-227.614E-6	-4.29246E-12	409.566E-3	-24.4383E-3	-4.26680E-12	458.169E-3	-18.2484E-3
-232.616E-6	-4.30918E-12	427.753E-3	-10.8238E-3	-4.37777E-12	454.014E-3	-11.4710E-3
-237.619E-6	-4.34746E-12	447.157E-3	-3.89576E-3	-4.46948E-12	454.319E-3	-16.1446E-3
-242.621E-6	-4.54572E-12	451.927E-3	-9.33619E-3	-4.62248E-12	472.013E-3	-30.2934E-3
-247.624E-6	-4.78796E-12	442.619E-3	-23.2317E-3	-4.78050E-12	483.051E-3	-34.5795E-3
-252.626E-6	-4.85085E-12	444.482E-3	-28.2647E-3	-4.95337E-12	476.046E-3	-20.7853E-3
-257.629E-6	-4.92972E-12	454.940E-3	-26.5209E-3	-4.95115E-12	479.557E-3	-17.1947E-3
-262.631E-6	-5.12720E-12	465.993E-3	-20.2582E-3	-5.19227E-12	487.874E-3	-26.8235E-3
-267.634E-6	-5.30981E-12	472.013E-3	-17.3467E-3	-5.30337E-12	485.631E-3	-30.5520E-3
-272.636E-6	-5.47756E-12	469.217E-3	-29.6113E-3	-5.55200E-12	489.176E-3	-26.5676E-3
-277.639E-6	-5.59070E-12	469.563E-3	-38.8237E-3	-5.61936E-12	504.685E-3	-11.9845E-3
-282.641E-6	-5.87754E-12	478.367E-3	-25.2258E-3	-5.79138E-12	521.963E-3	3.81515E-3
-287.644E-6	-6.05589E-12	498.997E-3	-6.35355E-3	-6.05846E-12	527.608E-3	-251.055E-6
-292.646E-6	-6.20954E-12	518.647E-3	-10.1987E-3	-6.25239E-12	529.721E-3	-11.0503E-3
-297.649E-6	-6.41368E-12	528.547E-3	-25.7698E-3	-6.44169E-12	543.123E-3	-9.33614E-3
-302.651E-6	-6.70847E-12	535.631E-3	-34.3560E-3	-6.62000E-12	558.548E-3	-7.63296E-3
-307.654E-6	-6.84577E-12	536.526E-3	-28.1581E-3	-6.84016E-12	560.348E-3	-14.2040E-3
-312.656E-6	-6.94943E-12	532.928E-3	-15.1155E-3	-7.02347E-12	550.441E-3	-19.4315E-3
-317.659E-6	-7.19214E-12	532.686E-3	-15.3825E-3	-7.21744E-12	551.293E-3	-23.0791E-3
-322.661E-6	-7.42347E-12	531.877E-3	-19.1150E-3	-7.39062E-12	570.773E-3	-20.1284E-3
-327.664E-6	-7.58086E-12	521.240E-3	-14.9323E-3	-7.48969E-12	582.954E-3	-19.5013E-3
-332.666E-6	-7.56187E-12	521.802E-3	-4.48891E-3	-7.70827E-12	573.736E-3	-31.7914E-3
-337.669E-6	-7.84230E-12	547.837E-3	2.24846E-3	-7.78720E-12	568.917E-3	-33.8889E-3
-342.671E-6	-8.02606E-12	566.238E-3	-6.98315E-3	-8.05044E-12	575.174E-3	-19.7560E-3
-347.674E-6	-8.20972E-12	570.975E-3	-15.4160E-3	-8.25039E-12	574.156E-3	-16.2328E-3
-352.676E-6	-8.19385E-12	575.088E-3	-4.72571E-3	-8.33080E-12	575.230E-3	-24.9856E-3
-357.679E-6	-8.45568E-12	568.814E-3	4.08942E-3	-8.57400E-12	579.326E-3	-19.3774E-3
-362.681E-6	-8.81391E-12	567.029E-3	-10.0985E-3	-8.74927E-12	566.371E-3	-13.2749E-3
-367.684E-6	-8.91938E-12	575.849E-3	-28.5948E-3	-9.10912E-12	555.847E-3	-25.1853E-3
-372.686E-6	-9.04322E-12	576.627E-3	-38.9868E-3	-9.17390E-12	565.449E-3	-24.3727E-3
-377.689E-6	-9.31141E-12	562.039E-3	-43.2774E-3	-9.47592E-12	580.146E-3	-8.40162E-3
-382.691E-6	-9.74246E-12	550.185E-3	-29.8803E-3	-9.65199E-12	584.911E-3	-13.0632E-3
-387.694E-6	-9.84560E-12	555.534E-3	-11.1109E-3	-10.0129E-12	572.848E-3	-24.8493E-3
-392.696E-6	-10.0430E-12	568.750E-3	-9.41094E-3	-10.1625E-12	566.922E-3	-23.3120E-3
-397.699E-6	-10.1398E-12	583.185E-3	-21.6490E-3	-10.3309E-12	574.035E-3	-22.0056E-3
-402.701E-6	-10.4777E-12	583.186E-3	-19.6385E-3	-10.6403E-12	572.333E-3	-19.3158E-3
-407.704E-6	-10.6531E-12	577.791E-3	-4.73556E-3	-10.7410E-12	570.835E-3	-5.60120E-3
-412.706E-6	-10.8281E-12	584.611E-3	-9.99669E-3	-10.9526E-12	572.405E-3	3.83986E-3
-417.709E-6	-10.9445E-12	587.427E-3	-24.2728E-3	-11.2430E-12	564.504E-3	-4.25910E-3
-422.711E-6	-11.0588E-12	575.482E-3	-27.8269E-3	-11.4039E-12	560.052E-3	-5.11176E-3
-427.714E-6	-11.1841E-12	565.776E-3	-23.0223E-3	-11.5540E-12	565.164E-3	3.47446E-3
-432.716E-6	-11.3066E-12	560.517E-3	-17.7491E-3	-11.6425E-12	560.727E-3	-4.14482E-3
-437.719E-6	-11.5824E-12	548.526E-3	-19.4096E-3	-11.8054E-12	546.577E-3	-26.4083E-3
-442.721E-6	-11.7025E-12	541.176E-3	-23.0100E-3	-11.8195E-12	535.375E-3	-47.0515E-3
-447.724E-6	-11.9621E-12	542.651E-3	-20.5720E-3	-12.1244E-12	532.159E-3	-47.0999E-3
-452.726E-6	-12.1250E-12	550.520E-3	-17.2079E-3	-12.2685E-12	539.670E-3	-22.5585E-3
-457.729E-6	-12.4420E-12	564.041E-3	-13.4497E-3	-12.4931E-12	542.883E-3	-5.49168E-3
-462.731E-6	-12.6218E-12	570.154E-3	-14.5720E-3	-12.6157E-12	525.659E-3	-8.04143E-3
-467.734E-6	-12.8149E-12	550.707E-3	-25.7181E-3	-12.8494E-12	506.332E-3	-10.9599E-3
-472.736E-6	-13.0788E-12	528.181E-3	-31.9653E-3	-12.9660E-12	503.544E-3	-17.5818E-3
-477.739E-6	-13.2506E-12	526.636E-3	-29.5965E-3	-13.0326E-12	504.641E-3	-25.0466E-3
-482.741E-6	-13.4029E-12	521.216E-3	-24.8603E-3	-13.2701E-12	501.332E-3	-19.6519E-3
-487.744E-6	-13.3257E-12	513.965E-3	-18.8832E-3	-13.4884E-12	491.503E-3	-13.7463E-3
-492.746E-6	-13.4729E-12	517.028E-3	-18.4333E-3	-13.7420E-12	474.718E-3	-15.8125E-3
-497.749E-6	-13.8592E-12	499.203E-3	-22.1435E-3	-13.7852E-12	462.947E-3	-20.7246E-3
-502.751E-6	-13.7840E-12	466.625E-3	-19.2416E-3	-14.1987E-12	462.410E-3	-26.0511E-3
-507.754E-6	-14.0049E-12	455.589E-3	-5.66313E-3	-14.1487E-12	467.107E-3	-25.4398E-3
-512.756E-6	-13.9940E-12	458.673E-3	2.13008E-3	-14.3643E-12	457.821E-3	-10.3337E-3
-517.759E-6	-14.3064E-12	456.826E-3	-5.31455E-3	-14.5026E-12	435.573E-3	789.001E-6
-522.761E-6	-14.2715E-12	449.291E-3	-7.49951E-3	-14.7048E-12	428.955E-3	-3.96513E-3
-527.764E-6	-14.3899E-12	446.203E-3	-2.49323E-3	-14.8745E-12	437.360E-3	-5.38391E-3
-532.766E-6	-14.5732E-12	449.217E-3	-12.8743E-3	-14.9448E-12	429.903E-3	-764.980E-6
-537.769E-6	-14.9176E-12	447.962E-3	-31.7442E-3	-15.1594E-12	399.392E-3	-2.75664E-3
-542.771E-6	-14.9228E-12	431.900E-3	-32.3715E-3	-15.2553E-12	383.257E-3	-9.21668E-3
-547.774E-6	-14.9963E-12	404.754E-3	-24.4544E-3	-15.5266E-12	392.687E-3	-8.81849E-3
-552.776E-6	-15.2580E-12	398.278E-3	-22.4388E-3	-15.4214E-12	396.879E-3	-7.26967E-3
-557.779E-6	-15.3804E-12	409.285E-3	-17.3422E-3	-15.7293E-12	381.099E-3	-10.0114E-3
-562.781E-6	-15.4926E-12	398.348E-3	-22.2646E-3	-15.9008E-12	365.898E-3	-24.0732E-3
-567.784E-6	-15.7195E-12	383.929E-3	-36.6129E-3	-15.9559E-12	359.043E-3	-41.9956E-3
-572.786E-6	-15.9494E-12	371.383E-3	-30.3280E-3	-16.0933E-12	343.227E-3	-31.9750E-3
-577.789E-6	-15.8681E-12	355.341E-3	-22.4064E-3	-16.1962E-12	326.394E-3	-2.22313E-3
-582.791E-6	-15.9532E-12	358.967E-3	-29.1198E-3	-16.3106E-12	310.826E-3	8.36487E-3
-587.794E-6	-16.0677E-12	363.528E-3	-28.8017E-3	-16.2928E-12	294.976E-3	-534.180E-6
-592.796E-6	-16.2408E-12	347.012E-3	-20.9056E-3	-16.3234E-12	295.155E-3	-8.45179E-3
-597.799E-6	-16.1904E-12	330.340E-3	-9.92337E-3	-16.4365E-12	300.778E-3	-16.0836E-3
-602.801E-6	-16.2464E-12	326.541E-3	7.64855E-3	-16.5685E-12	296.017E-3	-20.5613E-3
-607.804E-6	-16.6708E-12	324.741E-3	6.34566E-3	-16.5111E-12	287.208E-3	-12.8215E-3
-612.806E-6	-16.6825E-12	323.309E-3	-23.8664E-3	-16.7434E-12	270.411E-3	-5.51522E-3
-617.809E-6	-16.8520E-12	314.912E-3	-38.7515E-3	-16.9333E-12	249.150E-3	-7.18281E-3
-622.811E-6	-16.8949E-12	296.593E-3	-25.6801E-3	-17.0737E-12	251.678E-3	-6.34651E-3
-627.814E-6	-17.3741E-12	293.432E-3	-13.1013E-3	-17.1465E-12	264.385E-3	-5.75643E-3
-632.816E-6	-17.5854E-12	301.858E-3	-10.5568E-3	-17.3561E-12	254.390E-3	-8.65026E-3
-637.819E-6	-17.5738E-12	285.483E-3	-11.6014E-3	-17.4432E-12	237.073E-3	-12.6446E-3
-642.821E-6	-17.8537E-12	264.243E-3	-19.3518E-3	-17.7419E-12	231.374E-3	-27.6168E-3
-647.824E-6	-17.8748E-12	260.091E-3	-29.1097E-3	-17.8680E-12	228.216E-3	-36.8923E-3
-652.826E-6	-18.1676E-12	251.044E-3	-22.5908E-3	-17.9984E-12	227.203E-3	-32.9428E-3
-657.829E-6	-17.9123E-12	244.753E-3	-10.6094E-3	-18.2629E-12	234.510E-3	-35.8162E-3
-662.831E-6	-17.9361E-12	246.910E-3	-6.07862E-3	-18.2336E-12	230.050E-3	-33.3431E-3
-667.834E-6	-17.9153E-12	241.347E-3	-2.97393E-3	-18.2227E-12	211.638E-3	-21.5711E-3
-672.836E-6	-17.8742E-12	236.537E-3	-893.128E-6	-18.1126E-12	205.880E-3	-20.5962E-3
-677.839E-6	-17.9532E-12	235.735E-3	8.39271E-3	-18.2850E-12	205.845E-3	-27.1109E-3
-682.841E-6	-17.9113E-12	229.671E-3	19.9247E-3	-18.0903E-12	196.579E-3	-31.3465E-3
-687.844E-6	-18.1379E-12	213.533E-3	6.83707E-3	-18.1117E-12	184.023E-3	-27.3388E-3
-692.846E-6	-17.9734E-12	199.283E-3	-13.8074E-3	-17.9686E-12	163.941E-3	-12.2646E-3
-697.849E-6	-18.0589E-12	199.240E-3	-20.1092E-3	-17.9610E-12	148.815E-3	-7.55096E-3
-702.851E-6	-18.2589E-12	194.254E-3	-26.6144E-3	-18.0297E-12	153.836E-3	-28.8937E-3
-707.854E-6	-18.4488E-12	184.216E-3	-28.5103E-3	-18.0106E-12	158.873E-3	-47.7866E-3
-712.856E-6	-18.5572E-12	184.730E-3	-22.5558E-3	-18.2366E-12	153.907E-3	-38.1763E-3
-717.859E-6	-18.5004E-12	188.815E-3	-19.7130E-3	-18.3523E-12	151.992E-3	-21.5755E-3
-722.861E-6	-18.9276E-12	179.634E-3	-13.4861E-3	-18.7434E-12	151.979E-3	-20.0568E-3
-727.864E-6	-18.9364E-12	153.955E-3	-2.24739E-3	-18.6899E-12	147.567E-3	-13.1086E-3
-732.866E-6	-18.8956E-12	139.992E-3	-1.55968E-3	-18.8355E-12	142.514E-3	-6.42775E-3
-737.869E-6	-18.9140E-12	154.676E-3	-5.02726E-3	-18.7763E-12	135.362E-3	-22.1066E-3
-742.871E-6	-19.0184E-12	166.877E-3	-2.89012E-3	-18.8220E-12	127.644E-3	-36.3518E-3
-747.874E-6	-19.1852E-12	156.096E-3	-13.7130E-3	-18.8896E-12	119.517E-3	-32.8832E-3
-752.876E-6	-18.8436E-12	140.423E-3	-16.8060E-3	-19.0149E-12	108.648E-3	-31.7231E-3
-757.879E-6	-18.9166E-12	129.362E-3	12.2553E-3	-19.1386E-12	103.211E-3	-32.4415E-3
-762.881E-6	-18.8640E-12	120.971E-3	31.5001E-3	-19.0126E-12	103.621E-3	-26.0711E-3
-767.884E-6	-18.9766E-12	122.056E-3	13.4547E-3	-18.8804E-12	102.712E-3	-13.9376E-3
-772.886E-6	-18.7661E-12	134.023E-3	-7.30834E-3	-18.8642E-12	105.280E-3	-799.552E-6
-777.889E-6	-19.0945E-12	136.727E-3	-11.5435E-3	-18.8672E-12	114.490E-3	-3.56672E-3
-782.891E-6	-19.0336E-12	123.099E-3	-22.2385E-3	-18.9627E-12	116.553E-3	-10.9786E-3
-787.894E-6	-19.0800E-12	114.307E-3	-34.6351E-3	-18.8437E-12	104.447E-3	-10.0345E-3
-792.896E-6	-19.1140E-12	106.771E-3	-34.1498E-3	-19.0330E-12	100.730E-3	-12.6034E-3
-797.899E-6	-19.2213E-12	100.472E-3	-27.4701E-3	-19.0435E-12	113.701E-3	-30.7023E-3
-802.901E-6	-19.5586E-12	107.679E-3	-7.30191E-3	-19.0621E-12	117.443E-3	-46.0743E-3
-807.904E-6	-19.3488E-12	107.901E-3	8.72510E-3	-19.0790E-12	106.421E-3	-31.9060E-3
-812.906E-6	-19.4420E-12	107.453E-3	-3.45591E-3	-19.3682E-12	102.718E-3	-17.3647E-3
-817.909E-6	-19.4029E-12	117.214E-3	-10.6790E-3	-19.6016E-12	107.616E-3	-29.8489E-3
-822.911E-6	-19.6566E-12	106.366E-3	379.229E-6	-19.4977E-12	108.114E-3	-36.3239E-3
-827.914E-6	-19.5691E-12	82.1619E-3	3.41732E-3	-19.6194E-12	108.937E-3	-21.1534E-3
-832.916E-6	-19.5885E-12	84.3992E-3	-5.84979E-3	-19.7163E-12	107.423E-3	-8.68051E-3
-837.919E-6	-19.6574E-12	99.9024E-3	-15.0353E-3	-20.0113E-12	108.774E-3	-6.75213E-3
-842.921E-6	-19.5314E-12	103.336E-3	-25.2279E-3	-19.6941E-12	122.235E-3	-19.2474E-3
-847.924E-6	-19.6977E-12	98.5352E-3	-27.0853E-3	-19.6118E-12	119.197E-3	-38.0099E-3
-852.926E-6	-19.4883E-12	90.7054E-3	-16.8251E-3	-19.7416E-12	108.915E-3	-29.0010E-3
-857.929E-6	-19.6502E-12	86.5882E-3	-14.5334E-3	-19.8404E-12	115.813E-3	-13.9222E-3
-862.931E-6	-19.5197E-12	95.6849E-3	-20.4471E-3	-19.8728E-12	115.011E-3	-24.2483E-3
-867.934E-6	-19.5371E-12	105.935E-3	-23.5746E-3	-19.6265E-12	99.9939E-3	-27.1539E-3
-872.936E-6	-19.4688E-12	101.903E-3	-29.2291E-3	-19.7902E-12	99.1102E-3	-18.0147E-3
-877.939E-6	-19.4608E-12	104.909E-3	-32.0650E-3	-19.6059E-12	114.816E-3	-16.1362E-3
-882.941E-6	-19.5392E-12	108.827E-3	-12.9165E-3	-19.6926E-12	119.336E-3	-10.5767E-3
-887.944E-6	-19.5132E-12	89.8972E-3	3.85396E-3	-19.7834E-12	111.912E-3	-11.4314E-3
-892.946E-6	-19.7932E-12	85.4009E-3	-7.90648E-3	-19.7926E-12	108.453E-3	-28.0116E-3
-897.949E-6	-19.7368E-12	99.1902E-3	-22.7671E-3	-19.9093E-12	102.597E-3	-30.1351E-3
-902.951E-6	-20.0688E-12	88.4972E-3	-27.2422E-3	-19.8875E-12	98.2775E-3	-21.2418E-3
-907.954E-6	-19.9574E-12	89.5343E-3	-27.4229E-3	-20.0825E-12	114.757E-3	-23.1316E-3
-912.956E-6	-20.3378E-12	120.497E-3	-20.1844E-3	-20.1339E-12	133.095E-3	-18.0716E-3
-917.959E-6	-20.4645E-12	127.094E-3	-23.0939E-3	-20.2716E-12	136.037E-3	-5.78463E-3
-922.961E-6	-20.4411E-12	107.666E-3	-34.7958E-3	-20.3382E-12	130.365E-3	-10.7941E-3
-927.964E-6	-20.3220E-12	101.036E-3	-25.0109E-3	-20.4041E-12	121.534E-3	-24.2746E-3
-932.966E-6	-20.2497E-12	102.955E-3	-14.6445E-3	-20.4921E-12	124.570E-3	-27.9141E-3
-937.969E-6	-20.4596E-12	109.209E-3	-26.9947E-3	-20.1672E-12	142.589E-3	-27.2506E-3
-942.971E-6	-20.2503E-12	122.278E-3	-33.4206E-3	-20.3375E-12	146.708E-3	-17.8029E-3
-947.974E-6	-20.3249E-12	113.185E-3	-19.0880E-3	-20.2741E-12	126.670E-3	-10.0159E-3
-952.976E-6	-20.2467E-12	95.1002E-3	-4.25469E-3	-20.2018E-12	120.655E-3	-15.7350E-3
-957.979E-6	-20.2857E-12	97.0541E-3	138.158E-6	-20.1280E-12	135.516E-3	-11.3419E-3
-962.981E-6	-20.4466E-12	105.935E-3	-4.85518E-3	-20.2110E-12	140.340E-3	2.12005E-3
-967.984E-6	-20.3881E-12	115.409E-3	-19.6150E-3	-20.3845E-12	144.127E-3	7.32192E-3
-972.986E-6	-20.5964E-12	123.360E-3	-29.4956E-3	-20.4308E-12	161.882E-3	10.6209E-3
-977.989E-6	-20.5957E-12	114.885E-3	-20.0805E-3	-20.6986E-12	175.822E-3	7.58728E-3
-982.991E-6	-20.7504E-12	107.008E-3	-7.43483E-3	-20.5563E-12	180.577E-3	-8.98548E-3
-987.994E-6	-20.6940E-12	123.065E-3	-4.17401E-3	-20.7607E-12	175.354E-3	-27.1966E-3
-992.997E-6	-20.9819E-12	136.840E-3	-8.94791E-3	-20.7258E-12	160.643E-3	-33.6754E-3
-997.999E-6	-21.0488E-12	137.249E-3	-16.1789E-3	-20.6337E-12	154.695E-3	-28.2390E-3
-1.00300E-3	-20.8826E-12	140.224E-3	-7.39258E-3	-20.7397E-12	159.572E-3	-25.0483E-3
-1.00800E-3	-21.1006E-12	141.921E-3	4.09998E-3	-20.7641E-12	173.697E-3	-28.8816E-3
-1.01301E-3	-21.1941E-12	147.933E-3	-10.8245E-3	-20.9158E-12	184.266E-3	-28.8488E-3
-1.01801E-3	-21.1850E-12	172.396E-3	-35.1747E-3	-20.9119E-12	181.293E-3	-21.6517E-3
-1.02301E-3	-21.2003E-12	191.327E-3	-35.9458E-3	-20.9405E-12	185.138E-3	-12.6499E-3
-1.02801E-3	-21.1692E-12	184.962E-3	-19.4219E-3	-20.7559E-12	196.067E-3	-7.55297E-3
-1.03302E-3	-21.4330E-12	188.836E-3	-10.7113E-3	-20.7896E-12	208.738E-3	-7.89621E-3
-1.03802E-3	-21.2714E-12	214.352E-3	-10.2235E-3	-20.9274E-12	222.926E-3	-8.85322E-3
-1.04302E-3	-21.3796E-12	216.379E-3	-10.5461E-3	-21.0809E-12	230.346E-3	-14.9223E-3
-1.04802E-3	-21.4407E-12	187.970E-3	-9.86154E-3	-21.1122E-12	226.922E-3	-36.0515E-3
-1.05303E-3	-21.6042E-12	166.227E-3	-3.11825E-3	-21.1937E-12	224.331E-3	-52.7366E-3
-1.05803E-3	-21.6854E-12	171.906E-3	1.93779E-3	-21.5181E-12	230.943E-3	-40.3837E-3
-1.06303E-3	-21.7084E-12	202.845E-3	-7.61487E-3	-21.7775E-12	238.939E-3	-30.0561E-3
-1.06803E-3	-21.9131E-12	219.500E-3	-19.0529E-3	-21.6452E-12	249.162E-3	-25.0898E-3
-1.07304E-3	-22.0354E-12	200.038E-3	-9.14145E-3	-21.6923E-12	257.537E-3	1.93800E-3
-1.07804E-3	-21.9371E-12	188.596E-3	3.82191E-3	-21.7211E-12	253.852E-3	14.8800E-3
-1.08304E-3	-21.9883E-12	210.713E-3	9.52336E-3	-22.0776E-12	255.877E-3	-1.98923E-3
-1.08804E-3	-22.0318E-12	237.593E-3	9.29141E-3	-22.0887E-12	277.939E-3	-10.9372E-3
-1.09305E-3	-22.1519E-12	250.944E-3	-8.64460E-3	-21.9744E-12	288.632E-3	-9.34945E-3
-1.09805E-3	-21.9824E-12	258.590E-3	-16.6204E-3	-21.9898E-12	280.805E-3	-7.06449E-3
-1.10305E-3	-22.1283E-12	256.553E-3	503.052E-6	-22.1396E-12	281.722E-3	-2.23040E-3
-1.10805E-3	-21.9520E-12	262.692E-3	1.73350E-3	-22.2359E-12	293.382E-3	-1.91187E-3
-1.11306E-3	-22.2035E-12	297.944E-3	-20.1195E-3	-22.1484E-12	310.280E-3	-3.16982E-3
-1.11806E-3	-22.2273E-12	326.531E-3	-34.4471E-3	-22.1958E-12	324.154E-3	-7.94389E-3
-1.12306E-3	-22.2493E-12	321.446E-3	-44.0380E-3	-22.3353E-12	330.521E-3	-19.3630E-3
-1.12806E-3	-22.4042E-12	308.396E-3	-39.4365E-3	-22.3336E-12	338.737E-3	-22.1635E-3
-1.13307E-3	-22.7178E-12	308.608E-3	-15.9772E-3	-22.5700E-12	351.701E-3	-11.6357E-3
-1.13807E-3	-22.8575E-12	314.558E-3	-6.23301E-3	-22.6439E-12	373.885E-3	-2.49479E-3
-1.14307E-3	-22.9322E-12	325.557E-3	-13.1490E-3	-23.0767E-12	401.824E-3	-2.06741E-3
-1.14807E-3	-23.2005E-12	340.050E-3	-17.4780E-3	-23.0196E-12	413.286E-3	-11.9532E-3
-1.15308E-3	-23.4232E-12	338.505E-3	-19.5063E-3	-23.3044E-12	416.222E-3	-23.1616E-3
-1.15808E-3	-23.4492E-12	340.832E-3	-19.3420E-3	-23.6549E-12	431.728E-3	-24.9151E-3
-1.16308E-3	-23.7558E-12	371.712E-3	-13.6177E-3	-23.7961E-12	449.693E-3	-18.3120E-3
-1.16808E-3	-23.9437E-12	400.012E-3	-13.8058E-3	-24.3363E-12	465.964E-3	-8.26557E-3
-1.17309E-3	-23.9622E-12	407.373E-3	-17.5721E-3	-24.2439E-12	482.161E-3	-9.49837E-3
-1.17809E-3	-24.3507E-12	405.325E-3	-13.1584E-3	-24.9057E-12	488.599E-3	-17.8190E-3
-1.18309E-3	-24.4046E-12	413.391E-3	-5.09807E-3	-24.7942E-12	499.968E-3	-21.6363E-3
-1.18809E-3	-24.3955E-12	444.481E-3	3.84603E-3	-25.0494E-12	516.617E-3	-27.1222E-3
-1.19310E-3	-24.4077E-12	477.651E-3	7.81886E-3	-24.7880E-12	523.129E-3	-33.9082E-3
-1.19810E-3	-24.5444E-12	489.374E-3	1.07383E-3	-25.0301E-12	532.216E-3	-31.9843E-3
-1.20310E-3	-24.6760E-12	485.281E-3	-20.7201E-3	-24.8029E-12	542.948E-3	-26.5974E-3
-1.20810E-3	-24.7697E-12	485.640E-3	-31.2546E-3	-24.8252E-12	555.000E-3	-15.9378E-3
-1.21311E-3	-24.8676E-12	496.413E-3	-19.1562E-3	-25.1546E-12	583.979E-3	-2.63740E-3
-1.21811E-3	-25.1021E-12	513.474E-3	-30.2719E-3	-25.1898E-12	610.943E-3	-1.96707E-3
-1.22311E-3	-25.3070E-12	531.083E-3	-46.9597E-3	-25.4478E-12	619.600E-3	-9.41754E-3
-1.22811E-3	-25.7429E-12	540.663E-3	-32.9577E-3	-25.5479E-12	633.630E-3	-22.7440E-3
-1.23312E-3	-25.8134E-12	547.428E-3	-16.2665E-3	-26.0213E-12	658.541E-3	-31.2205E-3
-1.23812E-3	-26.1994E-12	573.432E-3	-12.3865E-3	-26.0020E-12	672.327E-3	-27.5332E-3
-1.24312E-3	-26.5420E-12	605.574E-3	-16.0541E-3	-26.5982E-12	688.977E-3	-20.9256E-3
-1.24812E-3	-26.8403E-12	615.295E-3	-27.0446E-3	-26.8030E-12	709.296E-3	-19.7868E-3
-1.25313E-3	-27.0904E-12	618.706E-3	-29.2896E-3	-27.2869E-12	716.027E-3	-27.4883E-3
-1.25813E-3	-27.3136E-12	635.594E-3	-10.0025E-3	-27.8462E-12	724.141E-3	-36.7966E-3
-1.26313E-3	-27.7268E-12	660.621E-3	-193.429E-6	-27.8344E-12	735.190E-3	-35.9589E-3
-1.26813E-3	-27.7618E-12	693.014E-3	-18.6882E-3	-28.2073E-12	749.468E-3	-24.3516E-3
-1.27314E-3	-28.3223E-12	719.048E-3	-31.1462E-3	-28.3677E-12	776.501E-3	-22.9299E-3
-1.27814E-3	-28.1547E-12	726.752E-3	-25.1697E-3	-28.7329E-12	799.522E-3	-34.1818E-3
-1.28314E-3	-28.5399E-12	742.447E-3	-27.7442E-3	-28.5462E-12	805.618E-3	-28.4366E-3
-1.28814E-3	-28.6192E-12	764.351E-3	-33.2065E-3	-28.7669E-12	799.937E-3	-8.33798E-3
-1.29315E-3	-28.8139E-12	773.040E-3	-29.5305E-3	-28.7855E-12	798.027E-3	-1.52754E-3
-1.29815E-3	-28.9515E-12	778.214E-3	-30.2008E-3	-28.9807E-12	815.345E-3	-536.394E-6
-1.30315E-3	-29.2465E-12	800.319E-3	-25.1467E-3	-28.7481E-12	847.611E-3	-5.60720E-3
-1.30815E-3	-29.7368E-12	829.839E-3	-8.10608E-3	-29.1359E-12	873.854E-3	-18.8158E-3
-1.31316E-3	-29.6911E-12	838.973E-3	-1.66575E-3	-29.1788E-12	877.246E-3	-23.6368E-3
-1.31816E-3	-30.1778E-12	835.359E-3	-12.3862E-3	-29.4577E-12	885.376E-3	-16.2384E-3
-1.32316E-3	-30.7007E-12	838.728E-3	-25.8635E-3	-29.7561E-12	910.506E-3	-5.96302E-3
-1.32816E-3	-31.1365E-12	856.455E-3	-38.2126E-3	-30.2805E-12	929.697E-3	-4.83498E-3
-1.33317E-3	-31.5420E-12	881.889E-3	-32.2318E-3	-30.9287E-12	941.939E-3	-5.65905E-3
-1.33817E-3	-31.9020E-12	904.127E-3	-4.89815E-3	-31.3239E-12	949.497E-3	-3.39963E-3
-1.34317E-3	-32.3260E-12	924.514E-3	2.30297E-3	-31.7194E-12	954.732E-3	-948.914E-6
-1.34817E-3	-32.3337E-12	934.685E-3	-8.31119E-3	-32.1277E-12	969.611E-3	1.86706E-3
-1.35318E-3	-32.9521E-12	937.112E-3	-9.52168E-3	-32.5691E-12	985.856E-3	-2.68430E-3
-1.35818E-3	-32.7855E-12	956.949E-3	-12.1949E-3	-32.6867E-12	994.112E-3	-14.2888E-3
-1.36318E-3	-33.3776E-12	988.252E-3	-15.9701E-3	-33.3368E-12	997.888E-3	-23.7041E-3
-1.36818E-3	-33.5645E-12	1.00656E+0	-15.8721E-3	-33.5174E-12	1.00110E+0	-26.2638E-3
-1.37319E-3	-33.6717E-12	1.00874E+0	-21.5469E-3	-34.0946E-12	1.01599E+0	-30.9071E-3
-1.37819E-3	-34.0391E-12	1.01522E+0	-22.4149E-3	-34.1044E-12	1.03246E+0	-32.0479E-3
-1.38319E-3	-34.4637E-12	1.02375E+0	-16.8032E-3	-34.3002E-12	1.03480E+0	-13.8008E-3
-1.38819E-3	-35.0364E-12	1.02475E+0	-19.5429E-3	-34.5461E-12	1.04065E+0	-2.44207E-3
-1.39320E-3	-34.8966E-12	1.04029E+0	-32.3024E-3	-34.7765E-12	1.05420E+0	-10.0722E-3
-1.39820E-3	-35.6775E-12	1.05961E+0	-38.9642E-3	-35.0758E-12	1.06704E+0	-13.6161E-3
-1.40320E-3	-35.6491E-12	1.05521E+0	-30.4803E-3	-35.3963E-12	1.08918E+0	-9.07117E-3
-1.40820E-3	-35.9255E-12	1.05123E+0	-13.2435E-3	-35.7217E-12	1.11737E+0	-15.3999E-3
-1.41321E-3	-36.4647E-12	1.06360E+0	3.28870E-3	-36.3008E-12	1.12970E+0	-26.8259E-3
-1.41821E-3	-37.0122E-12	1.07075E+0	-986.023E-6	-36.5475E-12	1.12661E+0	-16.9786E-3
-1.42321E-3	-37.4484E-12	1.07775E+0	-22.7291E-3	-37.0530E-12	1.11764E+0	-614.659E-6
-1.42821E-3	-37.8066E-12	1.09451E+0	-30.8184E-3	-37.6366E-12	1.10646E+0	358.991E-6
-1.43322E-3	-38.2450E-12	1.09624E+0	-22.1029E-3	-38.1585E-12	1.10787E+0	-17.1922E-3
-1.43822E-3	-38.5038E-12	1.09274E+0	-14.9691E-3	-38.3743E-12	1.11735E+0	-38.3806E-3
-1.44322E-3	-38.7397E-12	1.11335E+0	-10.4856E-3	-38.6584E-12	1.12303E+0	-34.7134E-3
-1.44822E-3	-38.9408E-12	1.12831E+0	-13.7904E-3	-39.0600E-12	1.13259E+0	-14.3618E-3
-1.45323E-3	-39.1368E-12	1.12040E+0	-29.9076E-3	-39.2017E-12	1.14009E+0	-11.0551E-3
-1.45823E-3	-39.3223E-12	1.11487E+0	-34.5913E-3	-39.6232E-12	1.13058E+0	-22.4152E-3
-1.46323E-3	-39.7274E-12	1.10375E+0	-20.4964E-3	-39.8783E-12	1.11551E+0	-23.7778E-3
-1.46823E-3	-39.9682E-12	1.09607E+0	-16.8092E-3	-40.3682E-12	1.11242E+0	-16.4712E-3
-1.47324E-3	-40.5313E-12	1.10638E+0	-22.4899E-3	-40.6984E-12	1.11746E+0	-12.1829E-3
-1.47824E-3	-40.8598E-12	1.09749E+0	-9.61177E-3	-40.8248E-12	1.12658E+0	-10.2393E-3
-1.48324E-3	-41.4995E-12	1.08251E+0	6.51021E-3	-41.2223E-12	1.13978E+0	-9.00188E-3
-1.48824E-3	-41.9386E-12	1.10416E+0	-885.088E-6	-41.7791E-12	1.13924E+0	-15.8691E-3
-1.49325E-3	-42.7445E-12	1.12791E+0	-25.4662E-3	-42.2266E-12	1.12270E+0	-26.4117E-3
-1.49825E-3	-43.0007E-12	1.12592E+0	-44.3707E-3	-42.5700E-12	1.11600E+0	-27.8597E-3
-1.50325E-3	-43.4409E-12	1.14162E+0	-41.1257E-3	-42.8331E-12	1.12340E+0	-16.6018E-3
-1.50825E-3	-44.1257E-12	1.15791E+0	-21.7323E-3	-43.3553E-12	1.12557E+0	-265.407E-6
-1.51326E-3	-44.0401E-12	1.14155E+0	-9.75767E-3	-44.0387E-12	1.11530E+0	2.74534E-3
-1.51826E-3	-44.7912E-12	1.14084E+0	-15.4171E-3	-44.1826E-12	1.10994E+0	-11.7521E-3
-1.52326E-3	-44.9601E-12	1.14089E+0	-22.5292E-3	-44.2972E-12	1.10846E+0	-22.3346E-3
-1.52826E-3	-45.5033E-12	1.11940E+0	-24.3258E-3	-44.9336E-12	1.10877E+0	-21.3567E-3
-1.53327E-3	-45.4286E-12	1.12999E+0	-25.4115E-3	-45.4437E-12	1.10703E+0	-23.8611E-3
-1.53827E-3	-45.7387E-12	1.14889E+0	-13.9596E-3	-45.3575E-12	1.09609E+0	-19.3343E-3
-1.54327E-3	-45.7489E-12	1.12979E+0	-11.8506E-3	-45.6314E-12	1.09680E+0	-6.04820E-3
-1.54827E-3	-46.0551E-12	1.10677E+0	-32.2854E-3	-45.9768E-12	1.10429E+0	-12.8365E-3
-1.55328E-3	-46.4383E-12	1.10640E+0	-33.0386E-3	-46.2856E-12	1.09878E+0	-30.6038E-3
-1.55828E-3	-46.5655E-12	1.11011E+0	-18.8985E-3	-46.3412E-12	1.09458E+0	-35.3614E-3
-1.56328E-3	-47.2900E-12	1.10339E+0	-17.0754E-3	-46.8366E-12	1.09636E+0	-33.1751E-3
-1.56828E-3	-47.9311E-12	1.10320E+0	-2.89773E-3	-47.4450E-12	1.08986E+0	-14.1979E-3
-1.57329E-3	-48.4825E-12	1.10726E+0	12.7755E-3	-47.9972E-12	1.07733E+0	13.7239E-3
-1.57829E-3	-49.1927E-12	1.09553E+0	-3.59244E-3	-48.4425E-12	1.07869E+0	4.60415E-3
-1.58329E-3	-49.6432E-12	1.08933E+0	-15.1538E-3	-48.9968E-12	1.09758E+0	-32.3979E-3
-1.58829E-3	-49.8894E-12	1.10599E+0	628.296E-6	-49.5217E-12	1.11257E+0	-42.3558E-3
-1.59330E-3	-50.5718E-12	1.11827E+0	-4.95848E-3	-50.2215E-12	1.11079E+0	-26.9988E-3
-1.59830E-3	-50.8548E-12	1.11064E+0	-24.3872E-3	-50.8150E-12	1.09830E+0	-23.3569E-3
-1.60330E-3	-51.1880E-12	1.09425E+0	-18.9471E-3	-51.1519E-12	1.08900E+0	-21.9390E-3
-1.60830E-3	-51.5447E-12	1.09135E+0	-17.8735E-3	-51.2925E-12	1.08440E+0	-18.6618E-3
-1.61331E-3	-52.0088E-12	1.11048E+0	-21.9748E-3	-51.7743E-12	1.07763E+0	-23.8873E-3
-1.61831E-3	-51.8456E-12	1.10940E+0	-13.4509E-3	-51.8233E-12	1.06836E+0	-26.6963E-3
-1.62331E-3	-52.1219E-12	1.08711E+0	-26.4664E-3	-52.0023E-12	1.05291E+0	-21.9995E-3
-1.62831E-3	-52.1985E-12	1.08420E+0	-40.8448E-3	-51.9668E-12	1.03378E+0	-15.1832E-3
-1.63332E-3	-52.5283E-12	1.06733E+0	-20.2318E-3	-51.8658E-12	1.01716E+0	-12.4232E-3
-1.63832E-3	-52.7733E-12	1.03561E+0	-10.5778E-3	-52.3091E-12	1.01529E+0	-13.9202E-3
-1.64332E-3	-52.7490E-12	1.04201E+0	-11.5888E-3	-52.4912E-12	1.01514E+0	-14.7272E-3
-1.64832E-3	-53.4281E-12	1.06052E+0	7.14964E-3	-52.3446E-12	1.00136E+0	-7.39291E-3
-1.65333E-3	-53.7130E-12	1.05058E+0	5.52958E-3	-52.5492E-12	1.00126E+0	-2.20654E-3
-1.65833E-3	-54.3446E-12	1.04277E+0	-18.2375E-3	-53.1513E-12	1.00973E+0	-12.2408E-3
-1.66333E-3	-54.5514E-12	1.05055E+0	-22.3812E-3	-53.8244E-12	1.00606E+0	-16.2506E-3
-1.66833E-3	-55.3626E-12	1.04993E+0	-18.6784E-3	-54.4995E-12	1.00992E+0	-900.896E-6
-1.67334E-3	-55.8095E-12	1.04171E+0	-22.3531E-3	-55.0233E-12	1.01204E+0	12.1903E-3
-1.67834E-3	-56.1165E-12	1.02861E+0	-14.7514E-3	-55.6073E-12	1.00068E+0	6.47532E-3
-1.68334E-3	-56.4005E-12	1.00636E+0	-6.23390E-3	-56.7439E-12	1.00171E+0	-16.0662E-3
-1.68834E-3	-56.9684E-12	994.367E-3	-7.27716E-3	-57.3163E-12	1.00759E+0	-36.5821E-3
-1.69335E-3	-57.3168E-12	1.00221E+0	9.91926E-3	-57.6166E-12	999.337E-3	-34.3508E-3
-1.69835E-3	-57.3294E-12	1.00313E+0	30.9447E-3	-57.9757E-12	986.040E-3	-17.8055E-3
-1.70335E-3	-57.5755E-12	987.259E-3	11.3799E-3	-58.3934E-12	973.612E-3	-10.4834E-3
-1.70835E-3	-57.7164E-12	973.826E-3	-4.54615E-3	-58.8400E-12	952.844E-3	-20.4253E-3
-1.71336E-3	-57.6669E-12	970.222E-3	3.49838E-3	-58.5396E-12	944.518E-3	-28.2853E-3
-1.71836E-3	-57.6817E-12	980.691E-3	-9.19480E-3	-58.7952E-12	961.529E-3	-21.7342E-3
-1.72336E-3	-57.8458E-12	987.066E-3	-18.2021E-3	-58.3325E-12	960.724E-3	-7.68689E-3
-1.72836E-3	-58.1155E-12	950.019E-3	-15.2018E-3	-58.7238E-12	931.062E-3	7.77053E-3
-1.73337E-3	-58.2886E-12	912.617E-3	-23.6240E-3	-58.9671E-12	914.995E-3	3.42586E-3
-1.73837E-3	-58.3244E-12	917.118E-3	-12.0321E-3	-58.7450E-12	915.852E-3	-20.1521E-3
-1.74337E-3	-58.9489E-12	920.448E-3	1.13348E-3	-58.6188E-12	917.918E-3	-33.4897E-3
-1.74837E-3	-59.2952E-12	917.026E-3	-21.3194E-3	-58.9667E-12	925.539E-3	-25.6671E-3
-1.75338E-3	-59.8486E-12	933.176E-3	-26.1576E-3	-59.6550E-12	925.492E-3	-10.4270E-3
-1.75838E-3	-60.1108E-12	940.990E-3	-2.79844E-3	-59.9246E-12	917.833E-3	-14.4144E-3
-1.76338E-3	-60.6775E-12	936.632E-3	-1.49894E-3	-60.6431E-12	922.453E-3	-26.1183E-3
-1.76838E-3	-61.5116E-12	952.422E-3	-10.7671E-3	-61.1397E-12	927.597E-3	-12.1683E-3
-1.77339E-3	-61.8340E-12	958.628E-3	-7.46593E-3	-62.0869E-12	916.673E-3	4.73965E-3
-1.77839E-3	-62.5417E-12	935.175E-3	-13.6923E-3	-62.6790E-12	906.132E-3	241.725E-6
-1.78339E-3	-62.6536E-12	920.748E-3	-22.2067E-3	-63.2085E-12	900.312E-3	-9.69109E-3
-1.78839E-3	-63.1475E-12	925.297E-3	-1.34714E-3	-63.6439E-12	900.312E-3	-20.8634E-3
-1.79340E-3	-62.9258E-12	923.834E-3	10.1529E-3	-63.9789E-12	911.769E-3	-36.5538E-3
-1.79840E-3	-63.5310E-12	910.361E-3	-5.55273E-3	-64.2121E-12	910.509E-3	-34.7519E-3
-1.80340E-3	-63.5650E-12	901.386E-3	-14.2284E-3	-64.1736E-12	895.476E-3	-9.96332E-3
-1.80840E-3	-64.0015E-12	888.316E-3	-15.2433E-3	-64.0819E-12	894.900E-3	-2.01393E-3
-1.81341E-3	-64.1498E-12	880.113E-3	-5.13863E-3	-64.2518E-12	897.910E-3	-17.7585E-3
-1.81841E-3	-64.4395E-12	897.136E-3	6.98199E-3	-64.4411E-12	888.475E-3	-31.4290E-3
-1.82341E-3	-64.8685E-12	904.382E-3	-3.23075E-3	-64.5578E-12	878.681E-3	-23.5166E-3
-1.82841E-3	-65.2552E-12	892.197E-3	-26.0464E-3	-64.4294E-12	870.588E-3	-2.59570E-3
-1.83342E-3	-65.4074E-12	883.215E-3	-37.5474E-3	-64.6215E-12	861.323E-3	-7.90438E-3
-1.83842E-3	-65.6684E-12	875.641E-3	-30.6074E-3	-65.1632E-12	859.219E-3	-33.0190E-3
-1.84342E-3	-66.0547E-12	882.935E-3	-17.6364E-3	-65.8082E-12	867.095E-3	-32.8188E-3
-1.84842E-3	-66.5399E-12	900.759E-3	-6.56546E-3	-66.0068E-12	874.769E-3	-13.4645E-3
-1.85343E-3	-66.9608E-12	893.716E-3	-7.67085E-3	-66.4420E-12	882.507E-3	-5.27082E-3
-1.85843E-3	-67.7716E-12	889.329E-3	-22.2641E-3	-67.3478E-12	884.090E-3	-11.7894E-3
-1.86343E-3	-68.0979E-12	903.503E-3	-29.1973E-3	-67.7058E-12	868.553E-3	-25.0657E-3
-1.86843E-3	-67.9952E-12	892.710E-3	-23.0690E-3	-67.9850E-12	856.579E-3	-34.9041E-3
-1.87344E-3	-68.5741E-12	869.284E-3	-24.2151E-3	-68.4552E-12	856.596E-3	-30.8526E-3
-1.87844E-3	-68.5351E-12	869.657E-3	-28.9312E-3	-68.7469E-12	856.379E-3	-12.4393E-3
-1.88344E-3	-68.6790E-12	875.615E-3	-18.4231E-3	-68.9967E-12	856.337E-3	-2.38833E-3
-1.88844E-3	-68.6984E-12	877.315E-3	-20.4337E-3	-69.3668E-12	853.539E-3	-5.05834E-3
-1.89345E-3	-69.3865E-12	889.183E-3	-24.1810E-3	-69.1024E-12	846.669E-3	-8.19160E-3
-1.89845E-3	-69.3639E-12	883.002E-3	-1.80028E-3	-69.1719E-12	841.863E-3	-7.27257E-3
-1.90345E-3	-69.4832E-12	849.330E-3	3.92376E-3	-69.3315E-12	836.875E-3	-11.2929E-3
-1.90845E-3	-69.3425E-12	833.558E-3	-11.1550E-3	-69.7075E-12	826.695E-3	-28.0965E-3
-1.91346E-3	-70.3658E-12	844.227E-3	-19.2975E-3	-69.5874E-12	820.624E-3	-39.4621E-3
-1.91846E-3	-71.0135E-12	849.269E-3	-29.3761E-3	-69.7251E-12	820.554E-3	-32.0998E-3
-1.92346E-3	-71.1839E-12	839.502E-3	-32.7091E-3	-69.9086E-12	819.648E-3	-11.2064E-3
-1.92846E-3	-70.9990E-12	823.760E-3	-13.5438E-3	-70.6944E-12	825.067E-3	10.2697E-3
-1.93347E-3	-71.6989E-12	806.834E-3	-7.33766E-3	-71.1242E-12	829.722E-3	10.4315E-3
-1.93847E-3	-72.4631E-12	816.148E-3	-15.2153E-3	-71.1065E-12	831.888E-3	-5.02830E-3
-1.94347E-3	-72.4503E-12	839.377E-3	-1.11139E-3	-71.5388E-12	836.855E-3	-18.8060E-3
-1.94847E-3	-72.4333E-12	835.499E-3	-5.66500E-3	-72.0522E-12	833.069E-3	-34.5617E-3
-1.95348E-3	-72.3437E-12	836.786E-3	-36.1185E-3	-72.7747E-12	811.973E-3	-40.4888E-3
-1.95848E-3	-73.1626E-12	841.077E-3	-32.5709E-3	-72.4481E-12	792.942E-3	-33.2360E-3
-1.96348E-3	-73.6660E-12	829.729E-3	-6.86693E-3	-72.3603E-12	790.242E-3	-24.5348E-3
-1.96848E-3	-73.3672E-12	831.900E-3	330.270E-6	-72.5902E-12	787.338E-3	-15.9198E-3
-1.97349E-3	-73.2195E-12	834.387E-3	-6.90146E-3	-73.0261E-12	782.346E-3	-12.6022E-3
-1.97849E-3	-73.3573E-12	814.706E-3	-17.6657E-3	-72.7361E-12	781.795E-3	-17.8821E-3
-1.98349E-3	-73.9629E-12	810.453E-3	-23.5362E-3	-72.4370E-12	777.281E-3	-33.6762E-3
-1.98849E-3	-74.2021E-12	817.605E-3	-15.4973E-3	-72.6536E-12	773.080E-3	-43.0428E-3
-1.99350E-3	-74.0708E-12	792.765E-3	-10.1499E-3	-73.2738E-12	791.534E-3	-33.8865E-3
-1.99850E-3	-73.9242E-12	783.971E-3	-19.3645E-3	-73.8121E-12	822.067E-3	-14.7863E-3
-2.00350E-3	-74.5805E-12	802.844E-3	-20.0122E-3	-73.6340E-12	821.034E-3	-3.93751E-3
-2.00850E-3	-74.9693E-12	800.602E-3	-9.45503E-3	-74.2244E-12	792.395E-3	-13.1873E-3
-2.01351E-3	-75.4548E-12	796.947E-3	-16.4723E-3	-75.0107E-12	775.146E-3	-18.2878E-3
-2.01851E-3	-75.5925E-12	806.429E-3	-37.4035E-3	-75.7989E-12	770.482E-3	-16.4825E-3
-2.02351E-3	-75.7865E-12	800.744E-3	-37.3495E-3	-75.8879E-12	783.094E-3	-23.8790E-3
-2.02851E-3	-76.3809E-12	787.075E-3	-24.2757E-3	-76.3767E-12	805.762E-3	-39.8004E-3
-2.03352E-3	-76.8580E-12	784.695E-3	-19.1499E-3	-77.0450E-12	803.206E-3	-47.5067E-3
-2.03852E-3	-76.7549E-12	780.575E-3	-18.2228E-3	-77.2989E-12	789.179E-3	-41.3004E-3
-2.04352E-3	-76.8988E-12	777.168E-3	-32.8172E-3	-77.6644E-12	785.655E-3	-34.8787E-3
-2.04852E-3	-76.7256E-12	789.138E-3	-42.7576E-3	-77.6190E-12	783.385E-3	-16.3178E-3
-2.05353E-3	-77.2376E-12	793.274E-3	-33.1500E-3	-77.6156E-12	785.739E-3	-1.64774E-3
-2.05853E-3	-77.3116E-12	777.698E-3	-37.9890E-3	-77.4611E-12	782.370E-3	-6.56291E-3
-2.06353E-3	-77.3473E-12	773.677E-3	-48.0727E-3	-77.6589E-12	762.982E-3	-13.2211E-3
-2.06853E-3	-77.4000E-12	777.804E-3	-41.8549E-3	-77.3338E-12	760.328E-3	-13.2241E-3
-2.07354E-3	-77.6715E-12	777.408E-3	-38.2719E-3	-77.3870E-12	783.096E-3	890.303E-6
-2.07854E-3	-77.8680E-12	781.191E-3	-29.7314E-3	-77.4339E-12	785.781E-3	4.59805E-3
-2.08354E-3	-77.7100E-12	772.493E-3	-5.87557E-3	-77.8437E-12	759.035E-3	-9.75126E-3
-2.08854E-3	-77.9118E-12	755.824E-3	2.35596E-3	-78.3652E-12	736.522E-3	-21.0246E-3
-2.09355E-3	-78.1719E-12	757.926E-3	-7.46844E-3	-79.0059E-12	738.584E-3	-20.3758E-3
-2.09855E-3	-78.4864E-12	771.139E-3	-8.13721E-3	-79.6815E-12	760.353E-3	-8.60784E-3
-2.10355E-3	-79.0230E-12	762.460E-3	-11.0311E-3	-80.4992E-12	756.779E-3	-8.22750E-3
-2.10855E-3	-79.4968E-12	749.599E-3	-19.8293E-3	-80.5876E-12	737.224E-3	-18.3658E-3
-2.11356E-3	-79.7835E-12	760.261E-3	-17.3864E-3	-81.3872E-12	746.103E-3	-10.7163E-3
-2.11856E-3	-80.2532E-12	756.904E-3	-7.44872E-3	-81.7478E-12	769.042E-3	-5.75115E-3
-2.12356E-3	-80.8875E-12	746.552E-3	-11.6805E-3	-82.6376E-12	781.238E-3	-18.9895E-3
-2.12856E-3	-81.4173E-12	757.497E-3	-26.7512E-3	-82.4520E-12	772.887E-3	-15.3994E-3
-2.13357E-3	-81.4156E-12	757.936E-3	-26.9818E-3	-82.6313E-12	759.417E-3	-3.23190E-3
-2.13857E-3	-81.3444E-12	757.293E-3	-16.8406E-3	-82.4428E-12	755.852E-3	-6.23726E-3
-2.14357E-3	-81.4395E-12	768.439E-3	-435.303E-6	-82.5759E-12	755.586E-3	-13.8757E-3
-2.14857E-3	-81.7173E-12	766.040E-3	-1.60646E-3	-81.9775E-12	761.845E-3	-17.6295E-3
-2.15358E-3	-81.3099E-12	757.326E-3	-28.2460E-3	-81.7340E-12	757.539E-3	-15.5842E-3
-2.15858E-3	-81.5727E-12	745.438E-3	-32.2872E-3	-81.4905E-12	743.573E-3	-16.5663E-3
-2.16358E-3	-81.5577E-12	733.213E-3	-15.2341E-3	-81.7410E-12	741.384E-3	-19.5694E-3
-2.16858E-3	-82.2158E-12	731.559E-3	-6.54806E-3	-82.1726E-12	734.394E-3	-11.8580E-3
-2.17359E-3	-82.2092E-12	736.336E-3	3.45298E-3	-82.4055E-12	735.427E-3	8.45024E-3
-2.17859E-3	-82.8004E-12	740.128E-3	6.92366E-3	-82.0456E-12	753.184E-3	20.6218E-3
-2.18359E-3	-83.2416E-12	740.318E-3	5.82555E-3	-82.9723E-12	760.045E-3	17.0886E-3
-2.18859E-3	-83.3985E-12	740.141E-3	5.63136E-3	-83.6451E-12	766.573E-3	8.67780E-3
-2.19360E-3	-83.9682E-12	739.370E-3	-4.70799E-3	-84.5893E-12	774.630E-3	-5.85138E-3
-2.19860E-3	-84.6080E-12	749.392E-3	-10.8476E-3	-84.4443E-12	780.340E-3	-19.2129E-3
-2.20360E-3	-85.3241E-12	760.897E-3	-6.25367E-3	-85.3731E-12	783.244E-3	-21.7972E-3
-2.20860E-3	-85.8569E-12	747.288E-3	3.73517E-3	-85.9763E-12	777.938E-3	-25.8107E-3
-2.21361E-3	-85.4482E-12	742.481E-3	6.59931E-3	-86.3646E-12	766.949E-3	-37.5388E-3
-2.21861E-3	-86.5913E-12	772.636E-3	-5.16059E-3	-86.7385E-12	751.602E-3	-37.7846E-3
-2.22361E-3	-86.5800E-12	789.837E-3	-14.5207E-3	-86.5739E-12	745.207E-3	-22.9791E-3
-2.22861E-3	-87.0281E-12	773.706E-3	-27.7949E-3	-86.9168E-12	732.078E-3	-18.8645E-3
-2.23362E-3	-86.6678E-12	771.917E-3	-35.6291E-3	-86.8858E-12	706.439E-3	-27.3230E-3
-2.23862E-3	-86.8995E-12	792.114E-3	-10.8682E-3	-86.8229E-12	697.296E-3	-28.8253E-3
-2.24362E-3	-87.4294E-12	794.321E-3	11.9228E-3	-86.2755E-12	717.289E-3	-26.1139E-3
-2.24862E-3	-87.5584E-12	781.282E-3	5.07049E-3	-86.6670E-12	732.442E-3	-12.4053E-3
-2.25363E-3	-87.3745E-12	766.274E-3	-3.63375E-3	-86.1911E-12	727.510E-3	3.26553E-3
-2.25863E-3	-87.6239E-12	747.957E-3	-6.10739E-3	-86.0519E-12	723.195E-3	35.3136E-6
-2.26363E-3	-88.2223E-12	751.948E-3	-10.5240E-3	-86.5267E-12	729.349E-3	-5.79851E-3
-2.26863E-3	-88.8655E-12	765.261E-3	-10.6635E-3	-86.6536E-12	738.152E-3	-9.66794E-3
-2.27364E-3	-88.9671E-12	753.387E-3	-15.7866E-3	-87.2648E-12	733.763E-3	-26.9559E-3
-2.27864E-3	-88.8108E-12	742.439E-3	-25.7296E-3	-87.9541E-12	734.961E-3	-40.3760E-3
-2.28364E-3	-89.5351E-12	737.305E-3	-21.7957E-3	-89.1544E-12	753.830E-3	-36.3207E-3
-2.28864E-3	-90.0684E-12	719.616E-3	-13.6594E-3	-89.4690E-12	754.914E-3	-37.5351E-3
-2.29365E-3	-90.1804E-12	713.990E-3	-12.9961E-3	-90.4602E-12	736.468E-3	-40.7470E-3
-2.29865E-3	-90.5492E-12	736.134E-3	-18.8647E-3	-90.8393E-12	740.486E-3	-26.8040E-3
-2.30365E-3	-90.7921E-12	751.761E-3	-39.4852E-3	-91.1848E-12	743.144E-3	-10.6874E-3
-2.30865E-3	-91.0382E-12	741.329E-3	-55.6347E-3	-91.7425E-12	721.383E-3	-10.7464E-3
-2.31366E-3	-90.9015E-12	737.555E-3	-38.2262E-3	-91.2774E-12	713.606E-3	-15.8588E-3
-2.31866E-3	-91.0523E-12	734.537E-3	-18.6983E-3	-91.6731E-12	722.620E-3	-16.3262E-3
-2.32366E-3	-91.6290E-12	718.881E-3	-21.9946E-3	-91.4052E-12	728.764E-3	-10.9163E-3
-2.32866E-3	-91.3658E-12	725.531E-3	-20.6856E-3	-91.4765E-12	726.456E-3	-10.2820E-3
-2.33367E-3	-91.0704E-12	747.652E-3	-7.60151E-3	-91.0987E-12	717.949E-3	-19.9397E-3
-2.33867E-3	-90.6758E-12	742.317E-3	-13.0030E-3	-90.6447E-12	713.425E-3	-27.5417E-3
-2.34367E-3	-91.4746E-12	723.936E-3	-31.5207E-3	-90.8805E-12	719.967E-3	-24.5162E-3
-2.34867E-3	-91.1038E-12	719.798E-3	-21.7475E-3	-91.1530E-12	727.541E-3	-17.3052E-3
-2.35368E-3	-91.1028E-12	719.679E-3	-2.85012E-3	-91.5087E-12	723.466E-3	-20.3853E-3
-2.35868E-3	-91.3307E-12	722.922E-3	-10.5948E-3	-91.4141E-12	723.410E-3	-22.6416E-3
-2.36368E-3	-92.1193E-12	708.563E-3	-19.2807E-3	-92.2291E-12	744.604E-3	-11.3257E-3
-2.36868E-3	-92.3452E-12	683.281E-3	-15.3459E-3	-92.4373E-12	748.829E-3	-134.217E-6
-2.37369E-3	-92.6515E-12	689.379E-3	-19.0737E-3	-93.1060E-12	727.052E-3	-83.6964E-6
-2.37869E-3	-92.5082E-12	707.895E-3	-11.8508E-3	-93.1401E-12	725.795E-3	-15.4456E-3
-2.38369E-3	-93.1389E-12	709.351E-3	10.6266E-3	-93.1983E-12	728.642E-3	-35.9115E-3
-2.38869E-3	-93.8425E-12	705.427E-3	12.4702E-3	-93.9761E-12	712.623E-3	-31.9919E-3
-2.39370E-3	-94.1368E-12	707.920E-3	1.25054E-3	-94.7364E-12	710.125E-3	-16.0624E-3
-2.39870E-3	-93.9500E-12	708.975E-3	-5.14418E-3	-94.7792E-12	716.415E-3	-13.1327E-3
-2.40370E-3	-93.7385E-12	723.106E-3	-21.8612E-3	-94.2448E-12	709.182E-3	-7.37744E-3
-2.40870E-3	-93.8608E-12	748.031E-3	-31.5354E-3	-94.4056E-12	698.269E-3	-7.18210E-3
-2.41371E-3	-94.1388E-12	733.806E-3	-25.5111E-3	-95.0907E-12	695.807E-3	-16.0833E-3
-2.41871E-3	-94.6766E-12	701.026E-3	-30.4179E-3	-95.3880E-12	704.153E-3	-6.88044E-3
-2.42371E-3	-94.3695E-12	708.037E-3	-39.4654E-3	-94.9528E-12	715.814E-3	606.663E-6
-2.42871E-3	-94.6035E-12	722.739E-3	-38.9389E-3	-95.7187E-12	729.350E-3	-2.54721E-3
-2.43372E-3	-94.9361E-12	714.585E-3	-31.4285E-3	-96.3549E-12	727.574E-3	6.27138E-3
-2.43872E-3	-95.4700E-12	718.124E-3	-24.8065E-3	-97.9131E-12	722.623E-3	-2.96729E-3
-2.44372E-3	-95.3680E-12	724.387E-3	-25.0705E-3	-98.0013E-12	731.985E-3	-39.9117E-3
-2.44872E-3	-95.5458E-12	718.684E-3	-22.0626E-3	-97.8938E-12	734.627E-3	-47.6833E-3
-2.45373E-3	-96.0865E-12	714.016E-3	-5.88325E-3	-98.1252E-12	735.772E-3	-24.3895E-3
-2.45873E-3	-97.2039E-12	700.190E-3	-3.37356E-3	-99.7813E-12	724.820E-3	-20.6437E-3
-2.46373E-3	-97.7949E-12	688.524E-3	-26.6659E-3	-99.6318E-12	703.912E-3	-36.0087E-3
-2.46873E-3	-97.8357E-12	697.752E-3	-30.5689E-3	-99.5555E-12	703.730E-3	-45.1471E-3
-2.47374E-3	-98.3875E-12	719.635E-3	-6.26181E-3	-99.7442E-12	715.911E-3	-41.0699E-3
-2.47874E-3	-99.1017E-12	726.342E-3	-6.00716E-3	-100.514E-12	724.242E-3	-32.6719E-3
-2.48374E-3	-99.4145E-12	714.968E-3	-26.6566E-3	-99.9757E-12	719.892E-3	-34.8998E-3
-2.48874E-3	-99.1254E-12	705.023E-3	-26.3328E-3	-99.2865E-12	702.506E-3	-45.1266E-3
-2.49375E-3	-99.7430E-12	697.865E-3	-18.6862E-3	-99.1488E-12	689.144E-3	-52.0538E-3
-2.49875E-3	-99.9192E-12	705.552E-3	-13.8520E-3	-99.8122E-12	704.839E-3	-35.9084E-3
-2.50375E-3	-100.311E-12	720.848E-3	-3.30935E-3	-99.6489E-12	725.284E-3	-10.8786E-3
-2.50875E-3	-99.7081E-12	719.642E-3	-5.93625E-3	-99.0431E-12	725.488E-3	-9.74896E-3
-2.51376E-3	-100.226E-12	718.593E-3	-12.8971E-3	-99.7926E-12	730.777E-3	-21.1055E-3
-2.51876E-3	-100.495E-12	718.114E-3	-5.41556E-3	-99.9623E-12	737.103E-3	-28.6962E-3
-2.52376E-3	-100.628E-12	700.901E-3	-1.33929E-3	-100.758E-12	726.730E-3	-30.3154E-3
-2.52876E-3	-100.460E-12	694.505E-3	-6.03140E-3	-101.071E-12	711.738E-3	-28.5579E-3
-2.53377E-3	-100.843E-12	708.425E-3	-4.52182E-3	-101.862E-12	706.746E-3	-16.3939E-3
-2.53877E-3	-101.436E-12	702.642E-3	28.9309E-6	-102.266E-12	703.568E-3	-661.752E-6
-2.54377E-3	-101.744E-12	703.752E-3	-12.1965E-3	-102.361E-12	695.175E-3	11.7856E-3
-2.54877E-3	-102.250E-12	718.968E-3	-24.6390E-3	-102.892E-12	691.376E-3	19.0084E-3
-2.55378E-3	-102.046E-12	711.794E-3	-16.5520E-3	-102.884E-12	691.842E-3	3.27205E-3
-2.55878E-3	-103.065E-12	699.925E-3	-10.0561E-3	-103.182E-12	687.679E-3	-17.4663E-3
-2.56378E-3	-103.331E-12	691.138E-3	-1.07492E-3	-102.815E-12	679.508E-3	-16.3133E-3
-2.56878E-3	-103.571E-12	677.329E-3	3.36939E-3	-102.800E-12	667.802E-3	-4.40757E-3
-2.57379E-3	-104.010E-12	682.334E-3	-13.3376E-3	-102.421E-12	666.261E-3	9.17703E-3
-2.57879E-3	-104.399E-12	697.429E-3	-13.4981E-3	-102.246E-12	673.424E-3	17.4431E-3
-2.58379E-3	-104.028E-12	695.738E-3	5.43958E-3	-101.490E-12	677.399E-3	8.66106E-3
-2.58879E-3	-104.043E-12	702.766E-3	3.72893E-3	-100.982E-12	683.969E-3	-10.4107E-3
-2.59380E-3	-103.706E-12	729.726E-3	-17.8246E-3	-101.026E-12	678.606E-3	-15.5706E-3
-2.59880E-3	-103.258E-12	734.872E-3	-22.8406E-3	-101.382E-12	665.140E-3	-8.85550E-3
-2.60380E-3	-103.605E-12	704.393E-3	-22.6906E-3	-101.109E-12	662.326E-3	-3.60395E-3
-2.60880E-3	-104.021E-12	685.811E-3	-38.9643E-3	-101.699E-12	659.583E-3	179.357E-6
-2.61381E-3	-103.575E-12	693.964E-3	-36.3685E-3	-102.392E-12	673.848E-3	1.37107E-3
-2.61881E-3	-103.826E-12	688.616E-3	-25.4519E-3	-102.727E-12	695.782E-3	-2.68171E-3
-2.62381E-3	-103.809E-12	673.625E-3	-14.9244E-3	-104.217E-12	701.333E-3	-11.3284E-3
-2.62881E-3	-104.165E-12	679.673E-3	6.48748E-3	-104.407E-12	703.671E-3	-14.5324E-3
-2.63382E-3	-104.148E-12	680.716E-3	10.4111E-3	-104.748E-12	693.344E-3	-8.19027E-3
-2.63882E-3	-104.871E-12	671.990E-3	-7.43968E-3	-105.426E-12	681.652E-3	-6.81034E-3
-2.64382E-3	-105.228E-12	684.509E-3	-24.4909E-3	-106.073E-12	694.820E-3	-15.4432E-3
-2.64882E-3	-105.624E-12	694.088E-3	-30.5804E-3	-106.270E-12	716.510E-3	-10.0072E-3
-2.65383E-3	-106.314E-12	684.450E-3	-39.6723E-3	-106.416E-12	712.525E-3	11.1016E-3
-2.65883E-3	-106.779E-12	676.800E-3	-44.9019E-3	-106.415E-12	690.543E-3	8.09235E-3
-2.66383E-3	-107.356E-12	680.412E-3	-28.2002E-3	-106.616E-12	675.971E-3	-10.7849E-3
-2.66883E-3	-107.539E-12	687.518E-3	-16.2995E-3	-106.571E-12	678.511E-3	-20.7845E-3
-2.67384E-3	-108.413E-12	688.653E-3	-18.8036E-3	-106.472E-12	685.944E-3	-22.5728E-3
-2.67884E-3	-108.080E-12	680.352E-3	-20.6788E-3	-106.223E-12	666.951E-3	-13.1959E-3
-2.68384E-3	-107.822E-12	684.188E-3	-24.2268E-3	-106.162E-12	645.933E-3	-1.41116E-3
-2.68884E-3	-107.984E-12	713.635E-3	-14.8913E-3	-106.054E-12	660.110E-3	-2.71267E-3
-2.69385E-3	-108.415E-12	718.981E-3	813.189E-6	-106.666E-12	677.233E-3	-13.7449E-3
-2.69885E-3	-108.245E-12	698.701E-3	-16.0101E-3	-106.918E-12	682.436E-3	-6.68562E-3
-2.70385E-3	-107.589E-12	693.635E-3	-43.7136E-3	-107.966E-12	701.028E-3	1.94890E-3
-2.70885E-3	-108.970E-12	683.721E-3	-38.3568E-3	-108.933E-12	703.380E-3	-12.7771E-3
-2.71386E-3	-109.484E-12	673.334E-3	-17.3401E-3	-109.759E-12	672.004E-3	-21.6606E-3
-2.71886E-3	-109.573E-12	691.986E-3	-4.54203E-3	-110.603E-12	659.883E-3	-21.8353E-3
-2.72386E-3	-109.797E-12	706.811E-3	-6.30857E-3	-111.206E-12	674.724E-3	-28.0283E-3
-2.72886E-3	-109.871E-12	697.264E-3	-12.2964E-3	-111.286E-12	680.961E-3	-23.7050E-3
-2.73387E-3	-110.243E-12	696.779E-3	-13.0127E-3	-111.632E-12	683.507E-3	-25.9139E-3
-2.73887E-3	-111.011E-12	699.512E-3	-4.83283E-3	-112.135E-12	690.994E-3	-38.9308E-3
-2.74387E-3	-111.409E-12	693.291E-3	-6.32098E-3	-112.470E-12	702.816E-3	-30.7216E-3
-2.74887E-3	-111.309E-12	695.073E-3	-30.2494E-3	-111.974E-12	719.423E-3	-17.4003E-3
-2.75388E-3	-111.810E-12	688.576E-3	-39.0048E-3	-111.796E-12	717.605E-3	-18.2747E-3
-2.75888E-3	-111.515E-12	678.189E-3	-35.6810E-3	-111.819E-12	697.101E-3	-24.1000E-3
-2.76388E-3	-112.013E-12	693.227E-3	-36.5983E-3	-111.712E-12	687.232E-3	-40.1147E-3
-2.76888E-3	-111.705E-12	704.986E-3	-20.6909E-3	-111.440E-12	691.001E-3	-54.9846E-3
-2.77389E-3	-111.289E-12	692.027E-3	-7.48770E-3	-111.345E-12	679.857E-3	-43.6932E-3
-2.77889E-3	-111.393E-12	689.557E-3	-10.9328E-3	-111.643E-12	657.664E-3	-7.37887E-3
-2.78389E-3	-111.490E-12	698.791E-3	-9.26780E-3	-111.220E-12	653.229E-3	19.9593E-3
-2.78889E-3	-112.077E-12	693.625E-3	-19.3247E-3	-111.310E-12	666.550E-3	6.50690E-3
-2.79390E-3	-111.619E-12	694.844E-3	-34.1145E-3	-111.180E-12	687.012E-3	-17.8874E-3
-2.79890E-3	-111.745E-12	702.427E-3	-23.1065E-3	-112.043E-12	694.769E-3	-24.9326E-3
-2.80390E-3	-112.577E-12	685.284E-3	-19.2915E-3	-112.579E-12	693.904E-3	-29.6625E-3
-2.80890E-3	-112.850E-12	668.581E-3	-25.9956E-3	-113.198E-12	700.137E-3	-39.1584E-3
-2.81391E-3	-113.403E-12	674.065E-3	-19.2863E-3	-113.490E-12	701.397E-3	-47.7540E-3
-2.81891E-3	-114.037E-12	681.711E-3	-29.6777E-3	-113.103E-12	699.249E-3	-52.2508E-3
-2.82391E-3	-115.017E-12	692.237E-3	-38.2045E-3	-113.543E-12	693.638E-3	-44.7816E-3
-2.82891E-3	-114.581E-12	703.013E-3	-12.3668E-3	-113.806E-12	678.127E-3	-37.2241E-3
-2.83392E-3	-114.683E-12	690.322E-3	1.61114E-3	-113.576E-12	663.670E-3	-39.0438E-3
-2.83892E-3	-115.220E-12	685.280E-3	-24.4161E-3	-113.263E-12	662.667E-3	-42.6709E-3
-2.84392E-3	-115.534E-12	705.336E-3	-34.2322E-3	-114.026E-12	685.194E-3	-39.0695E-3
-2.84892E-3	-115.133E-12	701.972E-3	-9.30357E-3	-114.100E-12	710.807E-3	-28.2125E-3
-2.85393E-3	-114.313E-12	676.723E-3	-16.6826E-3	-114.178E-12	708.631E-3	-17.8683E-3
-2.85893E-3	-115.094E-12	660.004E-3	-35.3598E-3	-114.771E-12	681.776E-3	-8.59973E-3
-2.86393E-3	-116.034E-12	655.119E-3	-24.3053E-3	-115.757E-12	645.542E-3	-9.82937E-3
-2.86893E-3	-115.829E-12	666.836E-3	-16.4982E-3	-115.930E-12	626.577E-3	-30.4133E-3
-2.87394E-3	-116.065E-12	680.057E-3	-17.6637E-3	-115.678E-12	630.275E-3	-53.4406E-3
-2.87894E-3	-116.514E-12	671.348E-3	-4.64514E-3	-116.341E-12	642.294E-3	-42.7916E-3
-2.88394E-3	-117.929E-12	660.117E-3	6.59684E-3	-117.241E-12	666.271E-3	-13.2502E-3
-2.88894E-3	-118.180E-12	668.851E-3	-9.53983E-3	-117.916E-12	682.200E-3	-12.2585E-3
-2.89395E-3	-118.641E-12	677.216E-3	-16.9377E-3	-117.662E-12	670.214E-3	-26.0779E-3
-2.89895E-3	-118.767E-12	676.226E-3	-20.4341E-3	-117.623E-12	659.897E-3	-23.9734E-3
-2.90395E-3	-119.375E-12	701.734E-3	-32.0688E-3	-118.073E-12	673.996E-3	-13.6128E-3
-2.90895E-3	-119.291E-12	731.231E-3	-26.3576E-3	-118.494E-12	690.963E-3	-11.9678E-3
-2.91396E-3	-119.536E-12	721.068E-3	-20.3215E-3	-118.438E-12	691.914E-3	-31.3497E-3
-2.91896E-3	-120.387E-12	704.673E-3	-22.8184E-3	-118.328E-12	677.544E-3	-42.9430E-3
-2.92396E-3	-119.948E-12	695.059E-3	-30.2400E-3	-118.646E-12	672.969E-3	-21.7260E-3
-2.92896E-3	-120.115E-12	685.425E-3	-40.2066E-3	-118.540E-12	687.759E-3	-6.72410E-3
-2.93397E-3	-119.439E-12	687.541E-3	-32.2203E-3	-118.976E-12	687.741E-3	-9.34245E-3
-2.93897E-3	-119.425E-12	696.940E-3	-10.2714E-3	-118.422E-12	666.438E-3	-13.7689E-3
-2.94397E-3	-119.021E-12	695.809E-3	-7.79265E-3	-119.154E-12	653.317E-3	-19.0284E-3
-2.94897E-3	-119.058E-12	689.307E-3	-28.4714E-3	-119.256E-12	670.315E-3	-7.88372E-3
-2.95398E-3	-118.801E-12	692.317E-3	-33.6859E-3	-119.579E-12	692.733E-3	-5.11405E-3
-2.95898E-3	-119.041E-12	681.789E-3	-23.2383E-3	-120.145E-12	697.403E-3	-23.7395E-3
-2.96398E-3	-119.710E-12	670.281E-3	-24.5719E-3	-120.308E-12	697.097E-3	-23.4480E-3
-2.96898E-3	-120.381E-12	692.670E-3	-20.3152E-3	-120.983E-12	700.673E-3	-6.49347E-3
-2.97399E-3	-120.574E-12	701.444E-3	-16.6981E-3	-121.448E-12	702.732E-3	-9.28099E-3
-2.97899E-3	-120.121E-12	691.357E-3	-32.9171E-3	-121.258E-12	696.151E-3	-38.7097E-3
-2.98399E-3	-120.965E-12	684.274E-3	-35.8823E-3	-121.853E-12	680.318E-3	-64.4397E-3
-2.98899E-3	-121.999E-12	667.083E-3	-16.2674E-3	-122.218E-12	667.502E-3	-61.5319E-3
-2.99400E-3	-122.107E-12	667.889E-3	-10.9862E-3	-121.910E-12	665.661E-3	-46.1705E-3
-2.99900E-3	-122.200E-12	686.656E-3	-18.3243E-3	-121.626E-12	674.846E-3	-35.8902E-3
-3.00400E-3	-122.501E-12	676.026E-3	-7.71301E-3	-121.744E-12	685.936E-3	-27.6029E-3
-3.00900E-3	-123.153E-12	650.055E-3	8.24061E-3	-122.002E-12	684.509E-3	-23.7537E-3
-3.01401E-3	-122.706E-12	662.335E-3	5.46210E-3	-121.584E-12	677.465E-3	-20.3865E-3
-3.01901E-3	-122.895E-12	693.642E-3	-9.10926E-3	-121.559E-12	666.815E-3	-9.93113E-3
-3.02401E-3	-121.852E-12	697.005E-3	-19.6508E-3	-121.398E-12	663.187E-3	4.93328E-3
-3.02901E-3	-122.184E-12	675.078E-3	-20.5878E-3	-121.530E-12	676.568E-3	19.7297E-3
-3.03402E-3	-122.494E-12	658.537E-3	-13.2404E-3	-121.937E-12	684.989E-3	21.5645E-3
-3.03902E-3	-122.179E-12	676.013E-3	-9.45791E-3	-121.940E-12	688.310E-3	638.898E-6
-3.04402E-3	-121.884E-12	706.149E-3	-10.1537E-3	-123.014E-12	697.807E-3	-13.6176E-3
-3.04902E-3	-121.948E-12	687.893E-3	-24.1549E-3	-123.212E-12	701.138E-3	-13.2259E-3
-3.05403E-3	-122.202E-12	645.473E-3	-48.7729E-3	-123.584E-12	684.587E-3	-22.1171E-3
-3.05903E-3	-122.769E-12	646.236E-3	-39.2108E-3	-124.638E-12	669.131E-3	-40.0000E-3
-3.06403E-3	-123.597E-12	673.097E-3	-10.2745E-3	-125.982E-12	666.933E-3	-40.5985E-3
-3.06903E-3	-124.434E-12	685.358E-3	-21.3457E-3	-126.144E-12	675.592E-3	-5.56005E-3
-3.07404E-3	-125.670E-12	710.737E-3	-38.8180E-3	-126.068E-12	703.910E-3	26.2310E-3
-3.07904E-3	-127.049E-12	737.677E-3	-16.7030E-3	-126.635E-12	713.710E-3	20.6639E-3
-3.08404E-3	-127.112E-12	717.914E-3	-1.04175E-3	-127.126E-12	680.147E-3	-3.12098E-3
-3.08904E-3	-127.658E-12	680.931E-3	-19.9312E-3	-126.943E-12	651.464E-3	-23.6515E-3
-3.09405E-3	-127.734E-12	678.038E-3	-24.6422E-3	-126.343E-12	673.135E-3	-35.5829E-3
-3.09905E-3	-128.459E-12	688.914E-3	-3.92773E-3	-127.021E-12	709.175E-3	-30.3186E-3
-3.10405E-3	-128.025E-12	679.202E-3	-12.2402E-3	-127.026E-12	706.494E-3	-13.0912E-3
-3.10905E-3	-128.115E-12	676.499E-3	-33.0293E-3	-126.838E-12	682.451E-3	144.531E-6
-3.11406E-3	-128.130E-12	678.785E-3	-29.5051E-3	-126.470E-12	670.834E-3	-3.32002E-3
-3.11906E-3	-127.852E-12	675.622E-3	-30.8208E-3	-126.473E-12	669.813E-3	-13.3808E-3
-3.12406E-3	-127.543E-12	683.716E-3	-34.0138E-3	-127.401E-12	676.057E-3	-11.9218E-3
-3.12906E-3	-127.860E-12	692.289E-3	-19.7634E-3	-127.356E-12	681.382E-3	-15.0393E-3
-3.13407E-3	-127.621E-12	687.698E-3	-25.7581E-3	-127.886E-12	676.005E-3	-21.2658E-3
-3.13907E-3	-127.796E-12	680.612E-3	-50.5131E-3	-128.418E-12	680.734E-3	-23.1421E-3
-3.14407E-3	-128.471E-12	678.466E-3	-43.9168E-3	-128.733E-12	690.407E-3	-21.9555E-3
-3.14907E-3	-129.184E-12	675.095E-3	-19.1626E-3	-129.451E-12	687.285E-3	-24.1886E-3
-3.15408E-3	-129.030E-12	673.700E-3	-9.56694E-3	-130.130E-12	696.731E-3	-27.8476E-3
-3.15908E-3	-129.269E-12	677.010E-3	-11.1262E-3	-130.440E-12	704.049E-3	-15.1551E-3
-3.16408E-3	-130.300E-12	680.750E-3	-21.4306E-3	-130.275E-12	677.771E-3	897.103E-6
-3.16908E-3	-131.129E-12	695.724E-3	-32.3080E-3	-131.406E-12	655.616E-3	1.16778E-3
-3.17409E-3	-131.436E-12	709.047E-3	-34.2568E-3	-131.503E-12	659.499E-3	-17.8596E-3
-3.17909E-3	-131.212E-12	704.993E-3	-36.4991E-3	-131.068E-12	665.024E-3	-31.1949E-3
-3.18409E-3	-130.996E-12	695.317E-3	-23.4843E-3	-130.847E-12	661.205E-3	-21.1540E-3
-3.18909E-3	-131.806E-12	676.088E-3	3.29906E-3	-130.447E-12	657.824E-3	-17.0804E-3
-3.19410E-3	-131.094E-12	667.595E-3	-4.89473E-3	-130.673E-12	672.007E-3	-31.0235E-3
-3.19910E-3	-131.218E-12	686.198E-3	-32.7759E-3	-129.744E-12	692.406E-3	-25.4485E-3
-3.20410E-3	-131.568E-12	693.425E-3	-38.7902E-3	-129.247E-12	681.735E-3	-16.7903E-3
-3.20910E-3	-132.081E-12	683.455E-3	-24.4592E-3	-129.523E-12	648.842E-3	-32.7418E-3
-3.21411E-3	-131.533E-12	679.414E-3	-3.74544E-3	-130.343E-12	642.741E-3	-40.2320E-3
-3.21911E-3	-131.994E-12	672.464E-3	-918.491E-6	-129.942E-12	663.650E-3	-24.7404E-3
-3.22411E-3	-132.680E-12	662.464E-3	-1.30727E-3	-130.098E-12	659.703E-3	1.83050E-3
-3.22911E-3	-132.421E-12	668.458E-3	2.47862E-3	-130.980E-12	635.200E-3	6.72849E-3
-3.23412E-3	-133.344E-12	689.240E-3	-9.48737E-3	-131.931E-12	641.354E-3	-7.74308E-3
-3.23912E-3	-133.501E-12	707.469E-3	-28.2253E-3	-131.934E-12	660.918E-3	-13.0755E-3
-3.24412E-3	-133.696E-12	712.392E-3	-36.6505E-3	-132.169E-12	654.139E-3	-10.9277E-3
-3.24912E-3	-133.366E-12	703.180E-3	-29.8114E-3	-132.452E-12	649.346E-3	-17.9667E-3
-3.25413E-3	-134.392E-12	680.098E-3	-24.2952E-3	-133.643E-12	643.000E-3	-26.4390E-3
-3.25913E-3	-133.615E-12	665.044E-3	-6.62271E-3	-134.494E-12	634.822E-3	-9.60964E-3
-3.26413E-3	-134.107E-12	674.824E-3	25.8944E-3	-134.949E-12	662.399E-3	7.17457E-3
-3.26913E-3	-134.563E-12	675.799E-3	17.7736E-3	-134.364E-12	685.933E-3	-5.77025E-3
-3.27414E-3	-134.205E-12	672.402E-3	-20.8440E-3	-134.321E-12	670.702E-3	-14.5303E-3
-3.27914E-3	-135.044E-12	671.590E-3	-31.6462E-3	-134.987E-12	645.538E-3	-235.037E-6
-3.28414E-3	-135.520E-12	652.362E-3	-28.2671E-3	-135.144E-12	641.197E-3	-3.25710E-3
-3.28914E-3	-135.275E-12	661.100E-3	-31.7832E-3	-134.700E-12	646.842E-3	-33.9656E-3
-3.29415E-3	-135.700E-12	695.440E-3	-19.2030E-3	-135.140E-12	655.361E-3	-46.6313E-3
-3.29915E-3	-136.495E-12	686.625E-3	2.50105E-3	-135.381E-12	663.710E-3	-28.9057E-3
-3.30415E-3	-136.856E-12	657.707E-3	5.29435E-3	-135.762E-12	656.893E-3	-15.3358E-3
-3.30915E-3	-136.830E-12	665.340E-3	-7.91110E-3	-136.043E-12	652.078E-3	-10.6040E-3
-3.31416E-3	-137.462E-12	678.934E-3	2.60423E-3	-136.243E-12	669.275E-3	-13.0127E-3
-3.31916E-3	-137.726E-12	676.813E-3	17.3567E-3	-137.386E-12	672.792E-3	-21.6388E-3
-3.32416E-3	-138.392E-12	677.101E-3	-3.99942E-3	-137.467E-12	632.998E-3	-13.9088E-3
-3.32916E-3	-139.162E-12	675.326E-3	-21.6325E-3	-138.040E-12	619.696E-3	7.35581E-3
-3.33417E-3	-139.002E-12	679.716E-3	-20.2796E-3	-138.304E-12	644.915E-3	5.93057E-3
-3.33917E-3	-138.979E-12	685.612E-3	-11.5584E-3	-138.830E-12	657.649E-3	-25.0741E-3
-3.34417E-3	-139.564E-12	682.595E-3	3.84056E-3	-139.066E-12	671.977E-3	-43.3663E-3
-3.34917E-3	-140.286E-12	679.316E-3	5.30990E-3	-139.470E-12	680.206E-3	-49.0792E-3
-3.35418E-3	-139.230E-12	667.547E-3	-3.36399E-3	-139.765E-12	666.050E-3	-52.9593E-3
-3.35918E-3	-138.914E-12	657.090E-3	-6.78112E-3	-139.493E-12	668.810E-3	-39.3429E-3
-3.36418E-3	-138.710E-12	670.946E-3	-15.3496E-3	-139.444E-12	681.427E-3	-29.8156E-3
-3.36918E-3	-138.818E-12	680.500E-3	-36.1343E-3	-140.072E-12	678.876E-3	-42.0865E-3
-3.37419E-3	-138.719E-12	671.892E-3	-41.4334E-3	-139.853E-12	689.332E-3	-62.2670E-3
-3.37919E-3	-138.246E-12	664.790E-3	-23.1208E-3	-139.609E-12	691.752E-3	-68.5119E-3
-3.38419E-3	-137.469E-12	658.325E-3	-8.76380E-3	-139.841E-12	669.140E-3	-46.4316E-3
-3.38919E-3	-137.961E-12	665.506E-3	-11.1149E-3	-140.779E-12	668.730E-3	-32.9864E-3
-3.39420E-3	-138.993E-12	670.079E-3	-15.7339E-3	-140.337E-12	678.744E-3	-23.5328E-3
-3.39920E-3	-138.780E-12	651.397E-3	-3.49037E-3	-140.145E-12	672.018E-3	6.88004E-3
-3.40420E-3	-139.023E-12	635.007E-3	18.4291E-3	-140.249E-12	674.054E-3	12.4485E-3
-3.40920E-3	-140.384E-12	625.075E-3	38.2868E-3	-140.332E-12	671.540E-3	-6.04566E-3
-3.41421E-3	-140.905E-12	624.815E-3	36.2597E-3	-140.103E-12	668.734E-3	-20.0733E-3
-3.41921E-3	-141.568E-12	633.997E-3	14.4885E-3	-139.922E-12	680.483E-3	-25.2021E-3
-3.42421E-3	-141.537E-12	647.342E-3	-12.5338E-3	-140.460E-12	672.623E-3	-27.9304E-3
-3.42921E-3	-141.415E-12	678.111E-3	-29.8236E-3	-140.497E-12	648.023E-3	-25.3238E-3
-3.43422E-3	-142.436E-12	698.304E-3	-7.20618E-3	-140.897E-12	641.910E-3	-18.9763E-3
-3.43922E-3	-143.027E-12	682.013E-3	28.6357E-3	-140.717E-12	644.965E-3	-37.5910E-3
-3.44422E-3	-142.045E-12	659.440E-3	36.4807E-3	-141.226E-12	641.544E-3	-53.3503E-3
-3.44922E-3	-142.713E-12	652.369E-3	23.4788E-3	-141.446E-12	651.368E-3	-32.8233E-3
-3.45423E-3	-143.023E-12	651.044E-3	976.441E-6	-141.440E-12	660.136E-3	-10.3016E-3
-3.45923E-3	-142.352E-12	653.178E-3	-12.5805E-3	-140.833E-12	656.235E-3	-19.3506E-3
-3.46423E-3	-141.670E-12	665.841E-3	-7.37660E-3	-141.508E-12	666.553E-3	-45.2109E-3
-3.46923E-3	-142.524E-12	675.497E-3	-6.25743E-3	-142.266E-12	674.683E-3	-46.4655E-3
-3.47424E-3	-143.055E-12	677.590E-3	-11.5546E-3	-142.549E-12	669.241E-3	-29.5764E-3
-3.47924E-3	-142.703E-12	681.622E-3	-8.21565E-3	-142.792E-12	675.362E-3	-9.95685E-3
-3.48424E-3	-143.137E-12	664.922E-3	3.62684E-3	-142.415E-12	680.812E-3	4.97100E-3
-3.48924E-3	-143.912E-12	644.491E-3	14.0413E-3	-143.790E-12	670.873E-3	189.548E-6
-3.49425E-3	-144.012E-12	650.723E-3	2.30901E-3	-143.933E-12	656.632E-3	-8.14161E-3
-3.49925E-3	-144.406E-12	647.729E-3	-24.0282E-3	-144.594E-12	642.897E-3	-15.2300E-3
-3.50425E-3	-146.149E-12	636.250E-3	-40.5108E-3	-143.870E-12	644.699E-3	-20.4271E-3
-3.50925E-3	-146.790E-12	627.716E-3	-29.3728E-3	-145.454E-12	656.283E-3	-6.57780E-3
-3.51426E-3	-147.506E-12	634.822E-3	-14.3542E-3	-145.746E-12	655.106E-3	10.4582E-3
-3.51926E-3	-147.746E-12	662.555E-3	-31.7628E-3	-146.196E-12	654.874E-3	5.63416E-3
-3.52426E-3	-147.939E-12	662.897E-3	-55.9999E-3	-145.696E-12	660.786E-3	5.09910E-3
-3.52926E-3	-148.460E-12	662.937E-3	-53.4415E-3	-146.789E-12	664.862E-3	19.0942E-3
-3.53427E-3	-149.263E-12	674.324E-3	-37.1237E-3	-146.912E-12	672.228E-3	10.0484E-3
-3.53927E-3	-148.054E-12	673.289E-3	-27.3901E-3	-146.713E-12	687.068E-3	-19.8149E-3
-3.54427E-3	-147.646E-12	683.759E-3	-35.7684E-3	-147.061E-12	703.301E-3	-26.6064E-3
-3.54927E-3	-148.327E-12	679.450E-3	-60.1302E-3	-146.682E-12	697.852E-3	-13.4688E-3
-3.55428E-3	-148.405E-12	649.681E-3	-68.8354E-3	-147.121E-12	667.709E-3	-5.32996E-3
-3.55928E-3	-148.109E-12	643.674E-3	-41.4556E-3	-147.014E-12	650.336E-3	-2.07344E-3
-3.56428E-3	-147.259E-12	642.646E-3	-7.66785E-3	-147.124E-12	660.832E-3	-5.71831E-3
-3.56928E-3	-147.433E-12	630.220E-3	-5.23254E-3	-147.564E-12	678.002E-3	-1.69818E-3
-3.57429E-3	-148.037E-12	647.404E-3	-13.7640E-3	-147.653E-12	692.723E-3	14.7887E-3
-3.57929E-3	-148.060E-12	679.632E-3	-3.99943E-3	-148.645E-12	689.051E-3	2.64009E-3
-3.58429E-3	-148.604E-12	683.641E-3	4.12241E-3	-148.529E-12	673.376E-3	-13.0421E-3
-3.58929E-3	-148.768E-12	662.921E-3	2.95169E-3	-149.577E-12	676.599E-3	-8.49233E-3
-3.59430E-3	-150.063E-12	654.677E-3	13.4791E-3	-149.017E-12	681.360E-3	-20.7104E-3
-3.59930E-3	-149.957E-12	657.299E-3	11.3298E-3	-149.621E-12	680.375E-3	-12.1721E-3
-3.60430E-3	-150.162E-12	661.497E-3	1.10149E-3	-149.465E-12	685.614E-3	12.5418E-3
-3.60930E-3	-150.484E-12	662.775E-3	242.510E-6	-150.039E-12	675.065E-3	-5.44304E-3
-3.61431E-3	-150.617E-12	658.988E-3	-11.2711E-3	-149.584E-12	658.760E-3	-29.2892E-3
-3.61931E-3	-150.578E-12	660.380E-3	-12.4266E-3	-149.239E-12	658.903E-3	-22.7424E-3
-3.62431E-3	-150.595E-12	656.476E-3	-3.74360E-3	-149.586E-12	661.680E-3	-21.4803E-3
-3.62931E-3	-150.930E-12	650.377E-3	-14.4323E-3	-150.146E-12	654.268E-3	-30.6841E-3
-3.63432E-3	-150.112E-12	641.978E-3	-24.7664E-3	-149.151E-12	659.314E-3	-26.7210E-3
-3.63932E-3	-150.037E-12	637.493E-3	-3.17459E-3	-148.652E-12	681.170E-3	-24.3665E-3
-3.64432E-3	-150.140E-12	642.678E-3	22.2944E-3	-148.455E-12	661.416E-3	-30.9983E-3
-3.64932E-3	-150.260E-12	631.426E-3	5.19596E-3	-149.227E-12	619.095E-3	-26.5521E-3
-3.65433E-3	-149.947E-12	621.804E-3	-34.9568E-3	-149.537E-12	608.713E-3	-18.4217E-3
-3.65933E-3	-149.728E-12	639.595E-3	-35.6308E-3	-148.827E-12	610.433E-3	-23.8249E-3
-3.66433E-3	-149.539E-12	654.595E-3	-8.10222E-3	-149.385E-12	622.929E-3	-24.6235E-3
-3.66933E-3	-150.198E-12	657.606E-3	-8.17735E-3	-150.084E-12	648.281E-3	-8.01878E-3
-3.67434E-3	-151.489E-12	649.650E-3	-12.6072E-3	-151.731E-12	660.838E-3	2.06417E-3
-3.67934E-3	-151.775E-12	644.541E-3	-1.08711E-3	-152.090E-12	664.600E-3	-1.09026E-3
-3.68434E-3	-152.136E-12	667.200E-3	-4.56608E-3	-152.371E-12	672.913E-3	-14.2047E-3
-3.68934E-3	-153.052E-12	680.584E-3	-20.9826E-3	-153.433E-12	654.929E-3	-34.6218E-3
-3.69435E-3	-152.690E-12	687.729E-3	-13.9118E-3	-154.201E-12	628.084E-3	-44.9495E-3
-3.69935E-3	-154.508E-12	693.116E-3	3.32736E-3	-154.910E-12	638.239E-3	-31.5935E-3
-3.70435E-3	-154.310E-12	671.596E-3	3.67391E-3	-154.445E-12	662.789E-3	-12.6084E-3
-3.70935E-3	-153.668E-12	651.756E-3	-628.226E-6	-154.927E-12	666.678E-3	-9.28497E-3
-3.71436E-3	-153.478E-12	655.951E-3	-308.385E-6	-155.168E-12	662.282E-3	-8.96735E-3
-3.71936E-3	-154.566E-12	666.500E-3	-1.78179E-3	-156.699E-12	666.807E-3	-4.44250E-3
-3.72436E-3	-154.384E-12	664.244E-3	-15.2355E-3	-155.646E-12	669.090E-3	3.19964E-3
-3.72936E-3	-154.168E-12	656.435E-3	-30.1808E-3	-155.474E-12	677.421E-3	2.93640E-3
-3.73437E-3	-154.631E-12	651.077E-3	-25.0765E-3	-155.719E-12	675.750E-3	-19.1730E-3
-3.73937E-3	-154.349E-12	645.466E-3	-9.40668E-3	-155.768E-12	645.956E-3	-30.6433E-3
-3.74437E-3	-154.778E-12	647.736E-3	-20.0974E-3	-156.012E-12	628.762E-3	-23.1688E-3
-3.74937E-3	-155.297E-12	664.572E-3	-33.3281E-3	-155.333E-12	643.158E-3	-23.7338E-3
-3.75438E-3	-156.963E-12	683.033E-3	-18.1635E-3	-156.481E-12	665.668E-3	-27.9944E-3
-3.75938E-3	-156.769E-12	682.832E-3	-19.3683E-3	-157.017E-12	675.783E-3	-11.0852E-3
-3.76438E-3	-156.878E-12	664.291E-3	-41.9992E-3	-158.276E-12	656.665E-3	-3.64125E-3
-3.76938E-3	-157.443E-12	646.886E-3	-43.4765E-3	-157.144E-12	641.098E-3	-27.3659E-3
-3.77439E-3	-158.769E-12	666.603E-3	-26.0707E-3	-159.240E-12	661.972E-3	-39.4436E-3
-3.77939E-3	-159.845E-12	684.818E-3	-17.4653E-3	-159.625E-12	689.243E-3	-40.8495E-3
-3.78439E-3	-158.466E-12	662.112E-3	-23.6033E-3	-160.455E-12	698.096E-3	-26.0045E-3
-3.78939E-3	-157.919E-12	654.749E-3	-37.6268E-3	-161.114E-12	688.275E-3	-8.58388E-3
-3.79440E-3	-157.876E-12	668.118E-3	-36.6258E-3	-160.734E-12	673.364E-3	-12.2474E-3
-3.79940E-3	-159.450E-12	669.429E-3	-8.99241E-3	-160.885E-12	667.305E-3	-8.37218E-3
-3.80440E-3	-158.476E-12	661.833E-3	5.34545E-3	-160.946E-12	668.740E-3	-10.0180E-3
-3.80940E-3	-157.580E-12	659.384E-3	-3.42599E-3	-160.851E-12	669.704E-3	-29.8249E-3
-3.81441E-3	-157.074E-12	651.246E-3	3.65615E-3	-159.859E-12	662.112E-3	-41.2865E-3
-3.81941E-3	-158.166E-12	630.288E-3	6.23691E-3	-159.882E-12	655.542E-3	-33.1596E-3
-3.82441E-3	-158.747E-12	629.025E-3	-25.2084E-3	-160.539E-12	668.362E-3	-25.7512E-3
-3.82941E-3	-158.189E-12	637.940E-3	-44.6127E-3	-159.352E-12	669.627E-3	-30.0716E-3
-3.83442E-3	-158.317E-12	627.704E-3	-34.3063E-3	-159.339E-12	651.896E-3	-20.5639E-3
-3.83942E-3	-159.018E-12	627.817E-3	-20.5356E-3	-159.804E-12	646.362E-3	-9.33692E-3
-3.84442E-3	-160.710E-12	648.613E-3	-1.06484E-3	-161.227E-12	660.498E-3	-21.5333E-3
-3.84942E-3	-160.218E-12	667.952E-3	9.74321E-3	-159.393E-12	673.892E-3	-31.7969E-3
-3.85443E-3	-160.524E-12	666.970E-3	-86.3477E-6	-159.815E-12	656.683E-3	-34.8642E-3
-3.85943E-3	-160.520E-12	644.792E-3	-3.26705E-3	-160.334E-12	642.304E-3	-32.2892E-3
-3.86443E-3	-161.722E-12	617.945E-3	11.6890E-3	-160.661E-12	667.592E-3	-29.0244E-3
-3.86943E-3	-162.530E-12	605.570E-3	5.03168E-3	-161.011E-12	695.502E-3	-44.8406E-3
-3.87444E-3	-161.599E-12	628.050E-3	-16.7646E-3	-161.539E-12	690.525E-3	-52.8285E-3
-3.87944E-3	-161.996E-12	641.037E-3	-7.37281E-3	-162.425E-12	674.305E-3	-30.7975E-3
-3.88444E-3	-162.685E-12	627.060E-3	1.97750E-3	-162.814E-12	686.798E-3	2.15544E-3
-3.88944E-3	-163.521E-12	635.663E-3	-25.9931E-3	-162.841E-12	698.070E-3	16.9159E-3
-3.89445E-3	-161.907E-12	645.144E-3	-43.0227E-3	-163.402E-12	666.114E-3	2.40625E-3
-3.89945E-3	-162.543E-12	636.672E-3	-33.0479E-3	-162.493E-12	645.206E-3	-15.2810E-3
-3.90445E-3	-162.831E-12	648.449E-3	-41.8842E-3	-162.488E-12	657.022E-3	-15.2314E-3
-3.90945E-3	-162.686E-12	658.014E-3	-50.0591E-3	-163.059E-12	652.519E-3	-18.7533E-3
-3.91446E-3	-163.081E-12	644.132E-3	-48.0815E-3	-163.331E-12	638.577E-3	-22.7367E-3
-3.91946E-3	-163.624E-12	639.499E-3	-37.0505E-3	-162.946E-12	641.317E-3	-18.5378E-3
-3.92446E-3	-163.347E-12	651.904E-3	-10.3091E-3	-163.528E-12	653.471E-3	-14.2746E-3
-3.92946E-3	-163.537E-12	675.536E-3	-1.18739E-3	-164.574E-12	670.792E-3	-23.1206E-3
-3.93447E-3	-164.639E-12	680.529E-3	-21.6220E-3	-164.887E-12	668.017E-3	-45.9256E-3
-3.93947E-3	-165.581E-12	655.898E-3	-35.3574E-3	-165.599E-12	648.281E-3	-36.8431E-3
-3.94447E-3	-164.826E-12	650.842E-3	-34.4579E-3	-165.191E-12	654.525E-3	-20.9058E-3
-3.94947E-3	-165.692E-12	666.542E-3	-36.2103E-3	-166.083E-12	663.659E-3	-28.0211E-3
-3.95448E-3	-166.027E-12	656.534E-3	-33.6695E-3	-166.242E-12	684.313E-3	-9.48948E-3
-3.95948E-3	-165.430E-12	627.334E-3	-27.2291E-3	-167.093E-12	711.855E-3	29.6982E-3
-3.96448E-3	-165.594E-12	631.395E-3	-15.1034E-3	-167.203E-12	682.428E-3	21.9133E-3
-3.96948E-3	-166.158E-12	664.480E-3	-12.3312E-3	-167.534E-12	649.547E-3	-9.22453E-3
-3.97449E-3	-166.874E-12	676.019E-3	-22.1575E-3	-166.915E-12	660.353E-3	-4.61846E-3
-3.97949E-3	-165.319E-12	663.252E-3	-26.9473E-3	-166.863E-12	669.204E-3	3.07421E-3
-3.98449E-3	-164.385E-12	636.522E-3	-33.9315E-3	-167.530E-12	662.022E-3	504.918E-6
-3.98949E-3	-163.766E-12	614.509E-3	-24.7027E-3	-167.664E-12	652.176E-3	10.7520E-3
-3.99450E-3	-165.315E-12	630.504E-3	-4.84194E-3	-167.322E-12	645.048E-3	26.4933E-3
-3.99950E-3	-164.634E-12	667.347E-3	-7.43114E-3	-166.421E-12	637.828E-3	22.1575E-3
-4.00450E-3	-163.671E-12	687.729E-3	-14.7508E-3	-166.987E-12	630.207E-3	10.7732E-3
-4.00950E-3	-163.751E-12	700.232E-3	-6.75915E-3	-166.624E-12	657.009E-3	8.92803E-3
-4.01451E-3	-164.880E-12	691.675E-3	-5.47878E-3	-166.590E-12	692.244E-3	-4.68139E-3
-4.01951E-3	-165.758E-12	654.361E-3	-8.55249E-3	-167.157E-12	672.879E-3	-11.8161E-3
-4.02451E-3	-165.523E-12	633.483E-3	-5.28128E-3	-167.852E-12	640.074E-3	-7.89440E-3
-4.02951E-3	-165.177E-12	622.332E-3	-8.24612E-3	-168.548E-12	642.969E-3	-1.28956E-3
-4.03452E-3	-166.439E-12	611.550E-3	-5.60305E-3	-168.318E-12	650.107E-3	7.93744E-3
-4.03952E-3	-166.658E-12	621.216E-3	-4.46351E-3	-169.078E-12	653.270E-3	408.002E-6
-4.04452E-3	-167.944E-12	648.972E-3	-6.47075E-3	-168.099E-12	675.290E-3	-4.91443E-3
-4.04952E-3	-167.294E-12	664.269E-3	-1.89014E-3	-168.873E-12	679.155E-3	1.37683E-3
-4.05453E-3	-167.976E-12	657.620E-3	-5.12740E-3	-168.646E-12	671.656E-3	-997.750E-6
-4.05953E-3	-167.725E-12	658.266E-3	-16.6317E-3	-168.446E-12	681.480E-3	-17.0243E-3
-4.06453E-3	-167.552E-12	643.154E-3	-23.4624E-3	-168.652E-12	673.759E-3	-37.7690E-3
-4.06953E-3	-167.408E-12	622.260E-3	-20.8143E-3	-168.678E-12	630.722E-3	-47.1734E-3
-4.07454E-3	-167.682E-12	628.100E-3	-28.2306E-3	-168.648E-12	597.842E-3	-36.0531E-3
-4.07954E-3	-167.168E-12	619.568E-3	-34.9680E-3	-168.676E-12	596.595E-3	-27.3510E-3
-4.08454E-3	-166.815E-12	601.166E-3	-38.6654E-3	-168.487E-12	596.355E-3	-25.7235E-3
-4.08954E-3	-167.303E-12	619.374E-3	-27.0584E-3	-168.866E-12	616.812E-3	-10.7352E-3
-4.09455E-3	-167.972E-12	647.628E-3	2.33730E-3	-167.745E-12	643.195E-3	-3.81228E-3
-4.09955E-3	-169.082E-12	643.185E-3	-18.8104E-3	-169.145E-12	660.697E-3	-25.1648E-3
-4.10455E-3	-170.726E-12	644.927E-3	-49.4348E-3	-170.446E-12	676.546E-3	-49.1294E-3
-4.10955E-3	-170.947E-12	650.010E-3	-30.4762E-3	-171.746E-12	671.041E-3	-33.6278E-3
-4.11456E-3	-170.882E-12	636.492E-3	-15.9930E-3	-172.336E-12	670.234E-3	6.56908E-3
-4.11956E-3	-172.506E-12	649.062E-3	-22.6954E-3	-172.884E-12	669.036E-3	22.7842E-3
-4.12456E-3	-174.061E-12	668.517E-3	-16.8812E-3	-173.204E-12	647.026E-3	13.2948E-3
-4.12956E-3	-173.619E-12	662.161E-3	-8.48800E-3	-174.457E-12	636.720E-3	1.59851E-3
-4.13457E-3	-173.439E-12	665.237E-3	-22.2992E-3	-174.696E-12	638.208E-3	5.72315E-3
-4.13957E-3	-174.163E-12	670.164E-3	-33.2595E-3	-175.170E-12	644.908E-3	8.12354E-3
-4.14457E-3	-174.391E-12	643.498E-3	-19.7824E-3	-174.654E-12	651.976E-3	-8.81679E-3
-4.14957E-3	-175.553E-12	617.313E-3	-7.05704E-3	-175.604E-12	651.237E-3	-21.7426E-3
-4.15458E-3	-174.641E-12	621.730E-3	-4.19221E-3	-174.960E-12	650.431E-3	-31.1502E-3
-4.15958E-3	-174.896E-12	641.060E-3	-6.70894E-3	-175.755E-12	649.464E-3	-39.3623E-3
-4.16458E-3	-174.561E-12	651.517E-3	-16.0357E-3	-174.777E-12	646.378E-3	-37.4616E-3
-4.16958E-3	-175.391E-12	643.038E-3	-27.0501E-3	-174.518E-12	638.454E-3	-44.9940E-3
-4.17459E-3	-174.920E-12	636.737E-3	-44.7016E-3	-174.630E-12	648.008E-3	-50.6927E-3
-4.17959E-3	-175.466E-12	635.750E-3	-51.0003E-3	-175.061E-12	670.358E-3	-34.5496E-3
-4.18459E-3	-175.295E-12	623.382E-3	-33.8334E-3	-174.944E-12	676.302E-3	-15.5458E-3
-4.18959E-3	-175.933E-12	612.047E-3	-11.8347E-3	-175.496E-12	675.395E-3	-1.13892E-3
-4.19460E-3	-176.624E-12	630.642E-3	5.17802E-3	-176.692E-12	683.296E-3	7.94032E-3
-4.19960E-3	-176.943E-12	663.759E-3	18.3396E-3	-176.120E-12	687.259E-3	-7.76325E-3
-4.20460E-3	-177.512E-12	667.579E-3	21.6579E-3	-177.580E-12	676.891E-3	-29.7905E-3
-4.20960E-3	-176.913E-12	646.060E-3	4.31278E-3	-177.838E-12	679.451E-3	-23.5388E-3
-4.21461E-3	-177.104E-12	626.827E-3	-11.6391E-3	-178.136E-12	687.837E-3	334.003E-6
-4.21961E-3	-176.924E-12	625.732E-3	-4.42579E-3	-177.497E-12	685.341E-3	21.3987E-3
-4.22461E-3	-176.976E-12	643.611E-3	-3.00500E-3	-178.064E-12	694.106E-3	13.9895E-3
-4.22961E-3	-176.462E-12	671.864E-3	-22.9596E-3	-177.785E-12	688.716E-3	-3.22869E-3
-4.23462E-3	-175.629E-12	678.752E-3	-24.2356E-3	-177.785E-12	653.185E-3	3.88452E-3
-4.23962E-3	-176.538E-12	653.619E-3	-8.48631E-3	-177.382E-12	621.737E-3	-4.73147E-3
-4.24462E-3	-175.301E-12	636.465E-3	-14.4709E-3	-177.032E-12	615.917E-3	-34.8766E-3
-4.24962E-3	-175.146E-12	648.386E-3	-37.7238E-3	-176.759E-12	630.753E-3	-47.5031E-3
-4.25463E-3	-176.149E-12	658.208E-3	-42.8232E-3	-176.302E-12	644.551E-3	-46.8712E-3
-4.25963E-3	-175.317E-12	653.012E-3	-22.1208E-3	-175.903E-12	643.127E-3	-35.9941E-3
-4.26463E-3	-175.685E-12	660.952E-3	-15.3183E-3	-174.919E-12	642.012E-3	-30.5465E-3
-4.26963E-3	-176.481E-12	681.577E-3	-21.3153E-3	-176.443E-12	670.014E-3	-39.5606E-3
-4.27464E-3	-177.176E-12	701.096E-3	-19.1481E-3	-176.278E-12	694.491E-3	-35.3856E-3
-4.27964E-3	-176.955E-12	694.629E-3	-13.6683E-3	-175.701E-12	667.428E-3	-3.28222E-3
-4.28464E-3	-178.683E-12	663.821E-3	-7.76732E-3	-177.422E-12	631.854E-3	25.7613E-3
-4.28964E-3	-178.245E-12	642.176E-3	-2.30402E-3	-179.103E-12	637.448E-3	14.9110E-3
-4.29465E-3	-178.951E-12	635.450E-3	-171.561E-6	-180.080E-12	650.743E-3	-8.34813E-3
-4.29965E-3	-179.204E-12	626.891E-3	-10.8421E-3	-179.408E-12	654.482E-3	-21.6488E-3
-4.30465E-3	-180.784E-12	603.157E-3	-13.2112E-3	-180.318E-12	665.559E-3	-29.6877E-3
-4.30965E-3	-179.824E-12	587.405E-3	-11.7091E-3	-181.214E-12	669.842E-3	-14.5107E-3
-4.31466E-3	-179.460E-12	618.540E-3	-36.6905E-3	-182.122E-12	677.366E-3	-266.237E-6
-4.31966E-3	-179.161E-12	672.265E-3	-63.7049E-3	-181.222E-12	696.335E-3	-14.7812E-3
-4.32466E-3	-181.116E-12	675.939E-3	-63.4678E-3	-180.704E-12	688.356E-3	-26.2036E-3
-4.32966E-3	-181.122E-12	645.818E-3	-40.4042E-3	-181.898E-12	685.554E-3	-17.3231E-3
-4.33467E-3	-180.144E-12	632.178E-3	-24.1378E-3	-181.035E-12	701.016E-3	-2.78621E-3
-4.33967E-3	-179.768E-12	629.857E-3	-24.0735E-3	-181.625E-12	681.184E-3	-10.6588E-3
-4.34467E-3	-181.600E-12	643.914E-3	-8.40950E-3	-181.484E-12	644.398E-3	-19.3859E-3
-4.34967E-3	-183.139E-12	677.753E-3	6.69253E-3	-182.431E-12	619.057E-3	-11.0277E-3
-4.35468E-3	-182.130E-12	700.270E-3	-6.82596E-3	-182.362E-12	617.756E-3	-21.1442E-3
-4.35968E-3	-182.908E-12	688.022E-3	-26.3208E-3	-182.354E-12	643.757E-3	-40.6082E-3
-4.36468E-3	-183.077E-12	665.615E-3	-18.3642E-3	-182.285E-12	658.085E-3	-42.6298E-3
-4.36968E-3	-184.659E-12	658.820E-3	5.50829E-3	-182.455E-12	659.425E-3	-29.5820E-3
-4.37469E-3	-184.873E-12	659.191E-3	7.57194E-3	-184.231E-12	672.415E-3	-15.8911E-3
-4.37969E-3	-185.176E-12	658.837E-3	7.83445E-3	-184.938E-12	681.225E-3	-16.7014E-3
-4.38469E-3	-184.206E-12	669.342E-3	8.43066E-3	-185.914E-12	680.122E-3	-18.0689E-3
-4.38969E-3	-185.430E-12	684.406E-3	-2.37854E-3	-185.896E-12	681.791E-3	-14.4660E-3
-4.39470E-3	-186.843E-12	681.216E-3	-8.81834E-3	-186.096E-12	688.710E-3	-13.3649E-3
-4.39970E-3	-185.302E-12	674.053E-3	-5.35391E-3	-187.130E-12	685.658E-3	-11.9518E-3
-4.40470E-3	-185.094E-12	681.768E-3	-201.311E-6	-187.189E-12	663.063E-3	-14.8043E-3
-4.40970E-3	-185.807E-12	655.833E-3	-1.31562E-3	-187.387E-12	644.289E-3	-20.1142E-3
-4.41471E-3	-185.920E-12	613.214E-3	3.09901E-3	-186.238E-12	657.561E-3	-16.7272E-3
-4.41971E-3	-185.537E-12	617.011E-3	5.07141E-3	-186.132E-12	672.668E-3	-17.0956E-3
-4.42471E-3	-183.078E-12	636.301E-3	-10.6200E-3	-186.658E-12	655.118E-3	-22.7182E-3
-4.42971E-3	-183.057E-12	644.883E-3	-30.9709E-3	-186.829E-12	636.446E-3	-12.6418E-3
-4.43472E-3	-183.809E-12	647.911E-3	-40.1309E-3	-185.771E-12	650.668E-3	-6.65108E-3
-4.43972E-3	-186.331E-12	641.509E-3	-28.0474E-3	-185.689E-12	667.990E-3	-9.95176E-3
-4.44472E-3	-184.197E-12	637.569E-3	-18.0693E-3	-185.943E-12	676.748E-3	-9.02098E-3
-4.44972E-3	-184.331E-12	637.184E-3	-43.4849E-3	-186.653E-12	688.869E-3	-26.6235E-3
-4.45473E-3	-185.841E-12	622.010E-3	-59.5494E-3	-185.870E-12	680.886E-3	-51.8192E-3
-4.45973E-3	-186.214E-12	621.411E-3	-38.1117E-3	-186.481E-12	668.685E-3	-37.6919E-3
-4.46473E-3	-186.279E-12	651.971E-3	-4.72405E-3	-185.467E-12	662.846E-3	-25.9706E-3
-4.46973E-3	-186.993E-12	670.414E-3	14.5350E-3	-186.949E-12	643.945E-3	-46.7053E-3
-4.47474E-3	-188.194E-12	644.763E-3	5.94126E-3	-187.136E-12	626.787E-3	-55.7250E-3
-4.47974E-3	-188.178E-12	612.768E-3	-23.5284E-3	-187.113E-12	633.265E-3	-42.4542E-3
-4.48474E-3	-187.982E-12	602.236E-3	-44.0820E-3	-185.684E-12	649.128E-3	-29.2618E-3
-4.48974E-3	-187.547E-12	612.610E-3	-35.7926E-3	-186.102E-12	640.972E-3	-40.6731E-3
-4.49475E-3	-187.446E-12	638.806E-3	-20.9033E-3	-186.321E-12	617.713E-3	-50.1206E-3
-4.49975E-3	-187.322E-12	655.439E-3	-15.8494E-3	-185.969E-12	616.644E-3	-41.8055E-3
-4.50475E-3	-185.814E-12	653.747E-3	-1.32305E-3	-185.643E-12	652.783E-3	-51.9395E-3
-4.50975E-3	-185.818E-12	639.336E-3	16.9168E-3	-185.009E-12	692.806E-3	-60.2624E-3
-4.51476E-3	-185.711E-12	626.966E-3	7.55115E-3	-185.639E-12	686.427E-3	-54.8790E-3
-4.51976E-3	-186.565E-12	625.695E-3	-9.30599E-3	-186.467E-12	647.472E-3	-43.0166E-3
-4.52476E-3	-187.824E-12	630.003E-3	-22.2747E-3	-186.334E-12	617.150E-3	-23.3423E-3
-4.52976E-3	-188.288E-12	636.867E-3	-34.0398E-3	-185.332E-12	621.999E-3	-26.3531E-3
-4.53477E-3	-187.669E-12	651.293E-3	-23.0631E-3	-185.677E-12	642.311E-3	-33.0085E-3
-4.53977E-3	-188.474E-12	660.541E-3	225.010E-6	-188.146E-12	648.033E-3	-22.3795E-3
-4.54477E-3	-189.848E-12	661.679E-3	-756.775E-6	-188.726E-12	652.379E-3	-22.0936E-3
-4.54977E-3	-190.369E-12	654.801E-3	-22.3946E-3	-187.873E-12	642.871E-3	-30.9293E-3
-4.55478E-3	-190.661E-12	647.455E-3	-20.8872E-3	-188.242E-12	633.171E-3	-38.0343E-3
-4.55978E-3	-191.726E-12	642.339E-3	-2.40823E-3	-189.444E-12	644.992E-3	-33.0744E-3
-4.56478E-3	-191.349E-12	622.242E-3	-2.61292E-3	-192.079E-12	635.898E-3	-12.2390E-3
-4.56978E-3	-193.356E-12	607.711E-3	201.398E-6	-191.442E-12	628.335E-3	12.0703E-3
-4.57479E-3	-192.723E-12	627.182E-3	10.7190E-3	-190.939E-12	656.995E-3	22.5645E-3
-4.57979E-3	-193.188E-12	665.029E-3	-12.2112E-3	-191.885E-12	681.379E-3	7.83318E-3
-4.58479E-3	-191.598E-12	679.565E-3	-41.1506E-3	-193.210E-12	679.518E-3	-12.8756E-3
-4.58979E-3	-191.807E-12	662.827E-3	-45.8520E-3	-193.003E-12	668.918E-3	-16.0220E-3
-4.59480E-3	-192.089E-12	644.027E-3	-29.2646E-3	-192.593E-12	666.018E-3	-2.54849E-3
-4.59980E-3	-191.745E-12	645.870E-3	786.002E-6	-191.871E-12	673.774E-3	9.85515E-3
-4.60480E-3	-190.959E-12	663.420E-3	7.84543E-3	-192.759E-12	672.499E-3	-6.70458E-3
-4.60980E-3	-191.134E-12	674.920E-3	8.53581E-3	-193.044E-12	654.132E-3	-31.0772E-3
-4.61481E-3	-192.704E-12	655.129E-3	20.1686E-3	-194.548E-12	636.091E-3	-24.8105E-3
-4.61981E-3	-193.405E-12	622.750E-3	26.9975E-3	-194.028E-12	643.255E-3	-8.28332E-3
-4.62481E-3	-193.281E-12	616.946E-3	23.9696E-3	-193.858E-12	661.353E-3	4.66799E-3
-4.62981E-3	-193.418E-12	641.343E-3	8.83271E-3	-194.469E-12	660.100E-3	9.81562E-3
-4.63482E-3	-194.089E-12	653.154E-3	-5.71196E-3	-196.774E-12	657.851E-3	1.58068E-3
-4.63982E-3	-194.163E-12	641.706E-3	-12.3493E-3	-196.592E-12	663.765E-3	-26.4272E-3
-4.64482E-3	-193.741E-12	653.537E-3	13.2868E-3	-195.220E-12	671.343E-3	-49.9164E-3
-4.64982E-3	-194.741E-12	685.948E-3	41.7747E-3	-196.968E-12	692.225E-3	-37.0736E-3
-4.65483E-3	-193.799E-12	690.528E-3	26.4453E-3	-197.949E-12	700.332E-3	-19.0368E-3
-4.65983E-3	-193.488E-12	660.149E-3	5.61873E-3	-198.999E-12	666.519E-3	-13.7273E-3
-4.66483E-3	-193.613E-12	630.110E-3	-5.88034E-3	-196.633E-12	641.713E-3	-7.96769E-3
-4.66983E-3	-195.070E-12	622.125E-3	-24.5341E-3	-196.203E-12	652.029E-3	-15.5374E-3
-4.67484E-3	-193.866E-12	632.921E-3	-34.1684E-3	-196.298E-12	643.763E-3	-19.9470E-3
-4.67984E-3	-192.402E-12	648.396E-3	-31.8076E-3	-196.898E-12	628.460E-3	17.1390E-3
-4.68484E-3	-193.170E-12	669.811E-3	-29.7961E-3	-195.600E-12	629.619E-3	38.9015E-3
-4.68984E-3	-193.433E-12	681.307E-3	-27.0481E-3	-194.327E-12	621.544E-3	9.70820E-3
-4.69485E-3	-193.236E-12	655.207E-3	-36.7376E-3	-194.676E-12	623.577E-3	-19.2947E-3
-4.69985E-3	-193.283E-12	614.091E-3	-51.5810E-3	-194.639E-12	642.355E-3	-21.7329E-3
-4.70485E-3	-193.604E-12	586.673E-3	-58.7827E-3	-196.065E-12	635.686E-3	-19.8673E-3
-4.70985E-3	-195.052E-12	595.111E-3	-53.3673E-3	-195.869E-12	627.338E-3	-50.1174E-3
-4.71486E-3	-195.740E-12	639.293E-3	-37.8601E-3	-195.756E-12	650.655E-3	-79.1853E-3
-4.71986E-3	-196.503E-12	670.581E-3	-29.7673E-3	-196.456E-12	662.359E-3	-66.3040E-3
-4.72486E-3	-197.470E-12	656.799E-3	-23.1962E-3	-198.228E-12	649.224E-3	-47.5421E-3
-4.72986E-3	-200.029E-12	640.922E-3	-7.67139E-3	-198.784E-12	647.212E-3	-36.1737E-3
-4.73487E-3	-198.944E-12	650.680E-3	-1.67541E-3	-198.713E-12	659.496E-3	-2.23560E-3
-4.73987E-3	-199.767E-12	654.291E-3	-15.5601E-3	-199.981E-12	670.471E-3	22.7607E-3
-4.74487E-3	-200.755E-12	661.428E-3	-14.3780E-3	-199.744E-12	671.379E-3	5.86141E-3
-4.74988E-3	-200.055E-12	663.433E-3	3.54997E-3	-200.945E-12	659.461E-3	-4.20149E-3
-4.75488E-3	-199.716E-12	649.335E-3	-3.65943E-3	-201.147E-12	648.677E-3	11.1515E-3
-4.75988E-3	-199.520E-12	657.454E-3	-28.6277E-3	-201.789E-12	652.780E-3	6.35938E-3
-4.76488E-3	-201.083E-12	669.699E-3	-29.5498E-3	-202.431E-12	649.382E-3	-15.5256E-3
-4.76988E-3	-200.979E-12	650.078E-3	-22.2189E-3	-201.249E-12	648.856E-3	-21.6667E-3
-4.77489E-3	-200.435E-12	640.864E-3	-29.9615E-3	-201.211E-12	674.359E-3	-6.96371E-3
-4.77989E-3	-199.230E-12	669.126E-3	-35.1030E-3	-201.462E-12	693.513E-3	5.11005E-3
-4.78489E-3	-200.548E-12	666.928E-3	-17.4421E-3	-201.689E-12	683.408E-3	-2.58601E-3
-4.78989E-3	-202.065E-12	618.944E-3	-5.59971E-3	-201.578E-12	648.010E-3	-18.8718E-3
-4.79490E-3	-201.959E-12	593.215E-3	-12.3354E-3	-201.113E-12	627.953E-3	-32.8601E-3
-4.79990E-3	-201.840E-12	608.880E-3	-11.7667E-3	-201.588E-12	637.756E-3	-32.3485E-3
-4.80490E-3	-202.391E-12	628.794E-3	-12.1643E-3	-202.790E-12	650.498E-3	-21.1659E-3
-4.80990E-3	-204.089E-12	635.856E-3	-2.77311E-3	-204.123E-12	652.479E-3	-17.9396E-3
-4.81491E-3	-204.000E-12	632.373E-3	-8.68646E-3	-204.101E-12	646.271E-3	-6.93224E-3
-4.81991E-3	-205.190E-12	614.018E-3	-34.0913E-3	-204.100E-12	651.645E-3	1.75823E-3
-4.82491E-3	-203.809E-12	616.728E-3	-31.9203E-3	-203.776E-12	659.806E-3	-4.18570E-3
-4.82991E-3	-203.633E-12	643.431E-3	-17.0700E-3	-204.894E-12	660.770E-3	-10.5032E-3
-4.83492E-3	-204.026E-12	644.803E-3	-13.1032E-3	-204.430E-12	671.265E-3	1.27614E-3
-4.83992E-3	-203.602E-12	640.107E-3	-9.12411E-3	-203.780E-12	666.664E-3	17.4399E-3
-4.84492E-3	-202.095E-12	646.319E-3	7.96517E-3	-203.490E-12	651.915E-3	14.6207E-3
-4.84992E-3	-202.048E-12	649.167E-3	14.0973E-3	-202.847E-12	658.947E-3	5.85267E-3
-4.85493E-3	-201.863E-12	656.133E-3	-9.01421E-3	-202.795E-12	653.096E-3	-2.97723E-3
-4.85993E-3	-201.399E-12	662.075E-3	-17.2758E-3	-201.579E-12	636.292E-3	-3.14648E-3
-4.86493E-3	-201.591E-12	673.571E-3	-11.5898E-3	-201.963E-12	640.789E-3	-5.86796E-3
-4.86993E-3	-201.386E-12	673.943E-3	-24.2882E-3	-201.950E-12	647.329E-3	-495.493E-6
-4.87494E-3	-202.260E-12	642.405E-3	-25.9573E-3	-202.289E-12	650.614E-3	21.5711E-3
-4.87994E-3	-204.207E-12	628.781E-3	-26.4158E-3	-201.300E-12	667.072E-3	14.5906E-3
-4.88494E-3	-203.171E-12	647.337E-3	-36.9612E-3	-200.944E-12	672.778E-3	-9.09819E-3
-4.88995E-3	-202.789E-12	649.053E-3	-32.1735E-3	-201.236E-12	671.681E-3	-6.89907E-3
-4.89495E-3	-203.748E-12	652.315E-3	-298.104E-6	-203.058E-12	698.087E-3	-11.8541E-3
-4.89995E-3	-206.377E-12	673.871E-3	31.6300E-3	-204.092E-12	687.806E-3	-44.5282E-3
-4.90495E-3	-206.094E-12	671.553E-3	37.0677E-3	-203.520E-12	637.960E-3	-58.4694E-3
-4.90995E-3	-206.620E-12	643.182E-3	37.7620E-3	-204.359E-12	627.817E-3	-39.0339E-3
-4.91496E-3	-207.004E-12	621.971E-3	29.9569E-3	-205.332E-12	660.492E-3	-36.5264E-3
-4.91996E-3	-207.094E-12	617.415E-3	14.7722E-3	-205.592E-12	693.237E-3	-54.7437E-3
-4.92496E-3	-207.771E-12	612.072E-3	-1.09756E-3	-206.472E-12	684.747E-3	-48.9177E-3
-4.92996E-3	-207.292E-12	619.691E-3	-23.7832E-3	-205.794E-12	654.138E-3	-38.3311E-3
-4.93497E-3	-206.126E-12	644.686E-3	-7.76246E-3	-205.722E-12	639.912E-3	-23.7518E-3
-4.93997E-3	-205.869E-12	654.250E-3	42.7960E-3	-204.705E-12	645.869E-3	-5.36079E-3
-4.94497E-3	-207.123E-12	651.590E-3	55.7576E-3	-206.535E-12	663.665E-3	-16.5349E-3
-4.94997E-3	-207.226E-12	650.921E-3	30.7296E-3	-205.335E-12	647.654E-3	-39.1355E-3
-4.95498E-3	-208.148E-12	638.767E-3	6.46474E-3	-205.782E-12	609.641E-3	-38.9606E-3
-4.95998E-3	-208.702E-12	633.347E-3	-12.1441E-3	-206.253E-12	606.066E-3	-22.7223E-3
-4.96498E-3	-208.398E-12	665.457E-3	-22.6307E-3	-206.622E-12	615.826E-3	-22.2051E-3
-4.96998E-3	-209.814E-12	682.712E-3	-23.6428E-3	-206.507E-12	625.154E-3	-21.9985E-3
-4.97499E-3	-210.402E-12	649.179E-3	-21.5453E-3	-207.031E-12	632.830E-3	-17.3338E-3
-4.97999E-3	-211.592E-12	619.420E-3	-11.9056E-3	-208.676E-12	631.052E-3	-40.3390E-3
-4.98499E-3	-211.140E-12	626.201E-3	-11.6505E-3	-209.456E-12	632.493E-3	-53.7480E-3
-4.98999E-3	-211.715E-12	652.630E-3	-25.3274E-3	-209.927E-12	643.458E-3	-16.4615E-3
-4.99500E-3	-212.825E-12	653.084E-3	-12.0871E-3	-210.535E-12	648.216E-3	15.3148E-3
-5.00000E-3	-213.023E-12	633.038E-3	5.12786E-3	-211.656E-12	636.398E-3	10.2943E-3
