Experiment	bias spectroscopy	
Date	19.01.2016 18:34:00	
User		
X (m)	50.0446E-9	
Y (m)	256.035E-9	
Z (m)	-132.643E-9	
Z offset (m)	0E+0	
Settling time (s)	200E-6	
Integration time (s)	5E-3	
Z-Ctrl hold	TRUE	
Final Z (m)	N/A	
Filter type	None	
Order		
Cutoff frq		
Comment01	MnPc/Pb(111)	
Comment02	dz =00pm	
Comment03	7 Sweeps	
Comment04	MagField =0.T	
Comment05	Divider 1:10	
Comment06	Setpoint:5mV,200 pA	
Comment07	Lockin: 50uVrms,5ms,5mV	
Comment08	Gain:9; 912Hz modulation	
Comment09	T=1.06K	
Bias>Bias (V)	5E-3	
Bias>Calibration (V/V)	81.475E-3	
Bias>Offset (V)	1.046E-3	
Bias Spectroscopy>Sweep Start (V)	5E-3	
Bias Spectroscopy>Sweep End (V)	-5E-3	
Bias Spectroscopy>Num Pixel	2000	
Bias Spectroscopy>Z Avg time (s)	500E-3	
Bias Spectroscopy>Z offset (m)	0E+0	
Bias Spectroscopy>1st Settling time (s)	500E-3	
Bias Spectroscopy>Settling time (s)	200E-6	
Bias Spectroscopy>Integration time (s)	5E-3	
Bias Spectroscopy>End Settling time (s)	500E-3	
Bias Spectroscopy>Z control time (s)	500E-3	
Bias Spectroscopy>Max Slew rate (V/s)	Inf	
Bias Spectroscopy>backward sweep	TRUE	
Bias Spectroscopy>Z-controller hold	TRUE	
Bias Spectroscopy>Number of sweeps	7	
Bias Spectroscopy>Channels	Current (A);X% LockIn (V);Y% LockIn (V)	
Bias Spectroscopy>Reset Bias	TRUE	
Bias Spectroscopy>Record final Z	FALSE	
Bias Spectroscopy>Lock-In run	FALSE	
Bias Spectroscopy>Sweep mode	Linear	
Bias Spectroscopy>MultiLine Settings : Segment Start (V), Segment End (V), Settling (s), Integration (s), Steps (xn)	100E-3,3.3E-3,100E-6,10E-3,2500;3.3E-3,-3.3E-3,100E-6,10E-3,10;-3.3E-3,-100E-3,100E-6,10E-3,2500	
Current>Current (A)	200.037E-12	
Current>Calibration (A/V)	999.99900E-12	
Current>Offset (A)	-455.429E-15	
Current>Gain	LN 10^9	
Z-Controller>Z (m)	-132.643E-9	
Z-Controller>Controller name	log Current	
Z-Controller>Controller status	ON	
Z-Controller>Setpoint	200E-12	
Z-Controller>Setpoint unit	A	
Z-Controller>P gain	2.96994E-12	
Z-Controller>I gain	67.0321E-9	
Z-Controller>Time const (s)	44.3062E-6	
Z-Controller>TipLift (m)	0E+0	
Z-Controller>Switch off delay (s)	50E-3	
Current (A)	200.321E-12	
Z (m)	-132.643E-9	

[DATA]
Bias calc (V)	Current (A)	X% LockIn (V)	Y% LockIn (V)	Current [bwd] (A)	X% LockIn [bwd] (V)	Y% LockIn [bwd] (V)
5.00000E-3	200.487E-12	678.337E-3	-15.5228E-3	196.336E-12	642.655E-3	-52.3412E-3
4.99500E-3	200.323E-12	646.628E-3	-17.5625E-3	196.207E-12	652.818E-3	-56.0751E-3
4.98999E-3	201.047E-12	609.608E-3	-24.3490E-3	197.327E-12	656.118E-3	-9.56605E-3
4.98499E-3	201.039E-12	613.053E-3	-11.4023E-3	199.142E-12	662.856E-3	30.4922E-3
4.97999E-3	199.997E-12	629.509E-3	-8.43299E-3	198.863E-12	673.961E-3	15.5273E-3
4.97499E-3	199.214E-12	649.262E-3	-22.2168E-3	197.185E-12	693.552E-3	-15.8576E-3
4.96998E-3	200.234E-12	673.513E-3	-31.7645E-3	198.064E-12	705.137E-3	-8.68167E-3
4.96498E-3	197.708E-12	655.695E-3	-16.4584E-3	198.671E-12	675.983E-3	-578.980E-6
4.95998E-3	196.996E-12	615.935E-3	13.2473E-3	199.133E-12	629.417E-3	-11.7318E-3
4.95498E-3	196.643E-12	616.497E-3	1.44176E-3	197.635E-12	625.678E-3	-13.6050E-3
4.94997E-3	197.106E-12	629.178E-3	-29.4552E-3	197.524E-12	646.067E-3	-2.55614E-3
4.94497E-3	195.425E-12	641.512E-3	-27.5337E-3	196.806E-12	663.818E-3	7.44540E-3
4.93997E-3	196.384E-12	652.229E-3	-15.1153E-3	197.388E-12	688.588E-3	-118.085E-6
4.93497E-3	197.477E-12	641.799E-3	-12.5846E-3	196.102E-12	691.299E-3	-35.1105E-3
4.92996E-3	196.929E-12	641.078E-3	-5.40884E-3	195.674E-12	668.742E-3	-61.0581E-3
4.92496E-3	197.505E-12	652.318E-3	-10.3655E-3	195.019E-12	644.383E-3	-28.9449E-3
4.91996E-3	198.564E-12	650.470E-3	-35.9519E-3	196.411E-12	630.509E-3	15.7318E-3
4.91496E-3	198.429E-12	658.424E-3	-56.2217E-3	195.478E-12	637.450E-3	10.9858E-3
4.90995E-3	197.454E-12	653.202E-3	-44.5302E-3	195.317E-12	638.528E-3	-16.3542E-3
4.90495E-3	198.374E-12	647.846E-3	-5.32043E-3	195.414E-12	631.419E-3	-31.6816E-3
4.89995E-3	199.419E-12	666.003E-3	9.99027E-3	196.963E-12	625.447E-3	-30.2718E-3
4.89495E-3	198.025E-12	682.513E-3	-5.26633E-3	197.263E-12	616.824E-3	-29.3636E-3
4.88995E-3	196.927E-12	690.415E-3	-20.5252E-3	197.356E-12	628.292E-3	-41.2338E-3
4.88494E-3	198.133E-12	691.748E-3	-17.1504E-3	196.298E-12	646.408E-3	-48.6219E-3
4.87994E-3	197.935E-12	709.176E-3	-8.34368E-3	196.884E-12	651.728E-3	-39.4405E-3
4.87494E-3	196.756E-12	734.631E-3	-9.93619E-3	197.361E-12	661.750E-3	-32.8008E-3
4.86993E-3	194.318E-12	737.360E-3	-13.4041E-3	197.033E-12	673.809E-3	-38.9455E-3
4.86493E-3	193.730E-12	715.269E-3	-33.0111E-3	196.042E-12	685.446E-3	-26.7611E-3
4.85993E-3	193.156E-12	695.558E-3	-39.5801E-3	195.562E-12	690.379E-3	-17.2544E-3
4.85493E-3	192.616E-12	677.327E-3	-9.36460E-3	196.066E-12	690.822E-3	-35.9510E-3
4.84992E-3	191.744E-12	670.219E-3	14.2666E-3	195.115E-12	682.753E-3	-38.3094E-3
4.84492E-3	191.614E-12	682.292E-3	6.13513E-3	193.443E-12	671.464E-3	-17.6277E-3
4.83992E-3	191.713E-12	663.604E-3	-17.4862E-3	193.056E-12	669.136E-3	-3.33169E-3
4.83492E-3	192.100E-12	632.590E-3	-29.4088E-3	192.297E-12	637.079E-3	-13.9812E-3
4.82991E-3	190.936E-12	643.458E-3	-12.2121E-3	192.118E-12	610.383E-3	-21.6656E-3
4.82491E-3	191.097E-12	666.886E-3	-1.30516E-3	191.199E-12	636.581E-3	4.11636E-3
4.81991E-3	191.872E-12	668.430E-3	-37.3324E-3	190.736E-12	660.827E-3	11.7124E-3
4.81491E-3	190.475E-12	656.865E-3	-69.9088E-3	191.333E-12	663.632E-3	-5.70727E-3
4.80990E-3	189.532E-12	642.053E-3	-52.9231E-3	191.712E-12	638.463E-3	-2.08577E-3
4.80490E-3	189.882E-12	645.015E-3	-22.5249E-3	191.368E-12	620.723E-3	5.88472E-3
4.79990E-3	189.840E-12	655.991E-3	282.620E-6	191.051E-12	651.234E-3	-13.5136E-3
4.79490E-3	189.630E-12	661.352E-3	16.3462E-3	191.206E-12	661.030E-3	-26.9793E-3
4.78989E-3	190.247E-12	659.408E-3	14.3035E-3	192.084E-12	648.191E-3	-11.5601E-3
4.78489E-3	190.329E-12	651.808E-3	7.05999E-3	192.093E-12	658.044E-3	-20.3180E-3
4.77989E-3	189.120E-12	650.972E-3	13.7241E-3	191.886E-12	667.503E-3	-39.4663E-3
4.77489E-3	189.911E-12	646.890E-3	19.4482E-3	191.672E-12	667.084E-3	-34.5910E-3
4.76988E-3	190.077E-12	640.938E-3	1.67197E-3	191.219E-12	666.849E-3	-43.8312E-3
4.76488E-3	189.780E-12	621.831E-3	-4.31524E-3	190.404E-12	667.748E-3	-62.5369E-3
4.75988E-3	190.320E-12	601.148E-3	6.28761E-3	190.027E-12	672.801E-3	-52.7704E-3
4.75488E-3	190.088E-12	614.263E-3	-5.23325E-3	188.931E-12	658.447E-3	-24.5703E-3
4.74988E-3	188.619E-12	645.409E-3	-32.7664E-3	187.571E-12	637.815E-3	-12.3656E-3
4.74487E-3	189.840E-12	661.495E-3	-46.2061E-3	187.690E-12	655.933E-3	-14.6995E-3
4.73987E-3	190.026E-12	648.570E-3	-24.2856E-3	187.251E-12	671.500E-3	-3.79834E-3
4.73487E-3	186.869E-12	624.922E-3	-3.23365E-3	185.382E-12	651.906E-3	-2.07668E-3
4.72986E-3	187.381E-12	626.662E-3	-13.5589E-3	185.123E-12	638.124E-3	-19.4739E-3
4.72486E-3	187.415E-12	641.753E-3	-26.8140E-3	185.821E-12	641.454E-3	-21.5967E-3
4.71986E-3	186.369E-12	639.390E-3	-28.3508E-3	184.906E-12	646.751E-3	-12.3465E-3
4.71486E-3	184.613E-12	635.467E-3	-14.4414E-3	184.213E-12	657.438E-3	-10.1560E-3
4.70985E-3	185.602E-12	635.354E-3	-517.612E-6	184.935E-12	661.522E-3	-13.4563E-3
4.70485E-3	185.171E-12	630.345E-3	-1.41786E-3	184.953E-12	656.672E-3	-23.5896E-3
4.69985E-3	185.872E-12	648.604E-3	1.05164E-3	185.835E-12	662.956E-3	-35.1397E-3
4.69485E-3	186.518E-12	665.577E-3	-15.7713E-3	186.366E-12	660.458E-3	-33.8082E-3
4.68984E-3	186.241E-12	648.380E-3	-47.7379E-3	186.000E-12	644.008E-3	-8.04830E-3
4.68484E-3	186.600E-12	644.439E-3	-60.5554E-3	185.483E-12	646.354E-3	16.1731E-3
4.67984E-3	187.404E-12	665.843E-3	-58.3116E-3	186.747E-12	661.610E-3	-7.99922E-3
4.67484E-3	188.223E-12	676.304E-3	-37.1945E-3	186.580E-12	677.654E-3	-30.7539E-3
4.66983E-3	188.070E-12	678.449E-3	-24.8756E-3	185.939E-12	693.264E-3	-24.2961E-3
4.66483E-3	188.806E-12	679.980E-3	-23.3795E-3	184.605E-12	685.754E-3	-29.7350E-3
4.65983E-3	188.660E-12	678.856E-3	-15.3543E-3	185.492E-12	670.974E-3	-25.4354E-3
4.65483E-3	188.576E-12	673.397E-3	-9.21248E-3	184.937E-12	671.364E-3	-18.1634E-3
4.64982E-3	188.612E-12	675.421E-3	-6.62939E-3	184.354E-12	675.245E-3	-21.0604E-3
4.64482E-3	187.041E-12	688.459E-3	-310.355E-6	182.873E-12	685.070E-3	-21.7081E-3
4.63982E-3	185.501E-12	683.123E-3	-1.96423E-3	183.890E-12	681.826E-3	-25.4886E-3
4.63482E-3	184.827E-12	665.271E-3	-24.3455E-3	183.333E-12	659.892E-3	-18.7145E-3
4.62981E-3	183.669E-12	655.893E-3	-36.2441E-3	182.141E-12	658.548E-3	-9.51746E-3
4.62481E-3	182.727E-12	647.915E-3	-22.4526E-3	182.756E-12	653.289E-3	-13.9766E-3
4.61981E-3	181.896E-12	648.932E-3	-3.97102E-3	181.653E-12	624.405E-3	-12.2950E-3
4.61481E-3	181.928E-12	655.437E-3	-6.58377E-3	181.932E-12	633.893E-3	-11.5889E-3
4.60980E-3	182.383E-12	648.231E-3	-25.4657E-3	183.039E-12	664.005E-3	-33.3448E-3
4.60480E-3	182.228E-12	638.954E-3	-31.2014E-3	181.771E-12	657.691E-3	-51.4292E-3
4.59980E-3	180.694E-12	644.419E-3	-24.6550E-3	181.344E-12	649.559E-3	-47.0686E-3
4.59480E-3	181.192E-12	648.768E-3	-17.0210E-3	182.400E-12	657.197E-3	-24.7143E-3
4.58979E-3	181.885E-12	647.911E-3	-10.7051E-3	182.902E-12	670.299E-3	-6.82186E-3
4.58479E-3	183.263E-12	639.896E-3	-18.7844E-3	182.447E-12	671.694E-3	-6.21015E-3
4.57979E-3	182.737E-12	632.614E-3	-23.1558E-3	182.470E-12	654.434E-3	-6.06689E-3
4.57479E-3	182.194E-12	650.926E-3	6.24487E-3	182.693E-12	643.226E-3	-4.63729E-3
4.56978E-3	183.163E-12	670.167E-3	28.2715E-3	182.590E-12	624.726E-3	-14.1390E-3
4.56478E-3	183.880E-12	675.618E-3	8.68355E-3	181.999E-12	604.052E-3	-26.8789E-3
4.55978E-3	183.355E-12	668.387E-3	-20.1651E-3	182.653E-12	615.213E-3	-36.1567E-3
4.55478E-3	182.201E-12	676.290E-3	-39.8812E-3	181.702E-12	633.523E-3	-42.4443E-3
4.54977E-3	180.994E-12	696.155E-3	-43.4022E-3	181.531E-12	643.890E-3	-41.8376E-3
4.54477E-3	180.370E-12	691.678E-3	-22.6992E-3	180.761E-12	656.078E-3	-40.2712E-3
4.53977E-3	179.351E-12	701.972E-3	-27.6846E-3	180.066E-12	663.290E-3	-38.3921E-3
4.53477E-3	178.762E-12	709.024E-3	-50.2320E-3	179.457E-12	667.110E-3	-34.2193E-3
4.52976E-3	178.459E-12	669.763E-3	-37.1573E-3	178.421E-12	666.509E-3	-35.3763E-3
4.52476E-3	177.425E-12	636.255E-3	-9.75163E-3	177.780E-12	643.294E-3	-33.8307E-3
4.51976E-3	177.183E-12	649.072E-3	-9.93012E-3	177.711E-12	624.399E-3	-22.2961E-3
4.51476E-3	178.257E-12	668.753E-3	-18.2512E-3	177.602E-12	640.484E-3	-34.9456E-3
4.50975E-3	176.411E-12	658.358E-3	-7.62091E-3	177.168E-12	651.359E-3	-43.7506E-3
4.50475E-3	175.993E-12	639.039E-3	-7.26336E-3	177.034E-12	655.903E-3	-26.5304E-3
4.49975E-3	176.856E-12	626.715E-3	-30.5403E-3	176.904E-12	656.352E-3	-24.0279E-3
4.49475E-3	175.966E-12	615.485E-3	-42.7998E-3	177.798E-12	651.543E-3	-28.3745E-3
4.48974E-3	176.094E-12	617.661E-3	-30.0806E-3	178.358E-12	666.478E-3	-32.6501E-3
4.48474E-3	176.137E-12	621.699E-3	-23.4738E-3	178.615E-12	671.121E-3	-34.1671E-3
4.47974E-3	175.876E-12	619.536E-3	-23.8419E-3	178.622E-12	663.187E-3	-37.2376E-3
4.47474E-3	175.686E-12	631.785E-3	-20.5003E-3	178.931E-12	669.316E-3	-32.8051E-3
4.46973E-3	175.880E-12	646.131E-3	-15.2692E-3	179.528E-12	659.376E-3	-13.0378E-3
4.46473E-3	174.855E-12	643.229E-3	-28.1409E-3	178.294E-12	644.112E-3	-11.8404E-3
4.45973E-3	173.934E-12	624.127E-3	-44.4845E-3	177.934E-12	665.837E-3	-30.3453E-3
4.45473E-3	173.862E-12	613.336E-3	-31.1148E-3	177.381E-12	680.708E-3	-40.9235E-3
4.44972E-3	173.599E-12	623.165E-3	-9.83411E-3	176.766E-12	661.006E-3	-40.2189E-3
4.44472E-3	172.951E-12	654.584E-3	-17.8697E-3	176.282E-12	649.836E-3	-35.3610E-3
4.43972E-3	173.243E-12	672.042E-3	-43.8131E-3	175.114E-12	652.375E-3	-17.5441E-3
4.43472E-3	173.142E-12	639.360E-3	-49.6462E-3	173.890E-12	644.969E-3	-21.7935E-3
4.42971E-3	171.634E-12	599.913E-3	-35.6083E-3	173.796E-12	629.749E-3	-50.5617E-3
4.42471E-3	172.433E-12	605.348E-3	-21.1789E-3	173.197E-12	636.465E-3	-47.8401E-3
4.41971E-3	172.707E-12	629.756E-3	-24.2262E-3	171.619E-12	652.784E-3	-20.2329E-3
4.41471E-3	172.194E-12	651.636E-3	-22.0424E-3	170.677E-12	647.821E-3	-14.6062E-3
4.40970E-3	172.769E-12	668.380E-3	-9.02794E-3	170.251E-12	637.304E-3	-27.3262E-3
4.40470E-3	171.820E-12	646.135E-3	-4.19693E-3	170.648E-12	633.539E-3	-26.2031E-3
4.39970E-3	171.719E-12	627.290E-3	8.71363E-3	171.555E-12	644.869E-3	-19.4152E-3
4.39470E-3	173.438E-12	641.953E-3	23.7676E-3	170.266E-12	652.064E-3	-21.0402E-3
4.38969E-3	172.298E-12	641.017E-3	15.4441E-3	170.000E-12	650.121E-3	-16.1334E-3
4.38469E-3	171.263E-12	625.821E-3	-4.83754E-3	172.138E-12	658.277E-3	-12.5123E-3
4.37969E-3	171.714E-12	637.050E-3	-23.2163E-3	173.512E-12	672.441E-3	-15.3704E-3
4.37469E-3	171.246E-12	657.630E-3	-34.1513E-3	171.879E-12	676.266E-3	-9.51749E-3
4.36968E-3	171.535E-12	664.873E-3	-21.4869E-3	172.255E-12	670.162E-3	-16.1967E-3
4.36468E-3	171.865E-12	668.020E-3	-8.61949E-3	173.542E-12	667.702E-3	-30.7927E-3
4.35968E-3	173.301E-12	661.326E-3	-13.1623E-3	175.130E-12	665.032E-3	-18.4455E-3
4.35468E-3	173.145E-12	632.141E-3	-27.6771E-3	174.338E-12	662.484E-3	-6.34994E-3
4.34967E-3	173.164E-12	612.386E-3	-32.5106E-3	174.137E-12	648.020E-3	-10.8609E-3
4.34467E-3	173.816E-12	631.172E-3	-14.4111E-3	174.289E-12	625.640E-3	7.72444E-3
4.33967E-3	174.945E-12	654.715E-3	-9.88185E-3	174.273E-12	631.620E-3	26.4675E-3
4.33467E-3	174.335E-12	662.546E-3	-24.7632E-3	172.161E-12	651.456E-3	4.82770E-3
4.32966E-3	174.280E-12	658.497E-3	-29.5400E-3	171.827E-12	653.993E-3	-15.1106E-3
4.32466E-3	175.512E-12	661.612E-3	-20.1259E-3	170.539E-12	660.939E-3	-19.8274E-3
4.31966E-3	174.356E-12	664.531E-3	-5.55423E-3	168.766E-12	670.971E-3	-27.6533E-3
4.31466E-3	173.215E-12	648.907E-3	6.79728E-3	167.839E-12	650.367E-3	-31.6952E-3
4.30965E-3	172.389E-12	650.534E-3	2.93243E-3	167.837E-12	631.943E-3	-31.3164E-3
4.30465E-3	172.423E-12	667.441E-3	-34.5667E-3	167.015E-12	640.430E-3	-21.6410E-3
4.29965E-3	171.242E-12	670.908E-3	-54.0257E-3	166.012E-12	651.462E-3	1.61386E-3
4.29465E-3	169.381E-12	664.399E-3	-25.4642E-3	166.306E-12	666.645E-3	7.23682E-3
4.28964E-3	168.898E-12	664.219E-3	-18.4670E-3	166.930E-12	672.362E-3	166.382E-6
4.28464E-3	168.191E-12	659.484E-3	-24.1120E-3	167.501E-12	660.340E-3	11.0449E-3
4.27964E-3	168.204E-12	640.523E-3	-11.1753E-3	167.865E-12	657.403E-3	20.7559E-3
4.27464E-3	167.314E-12	614.131E-3	-7.43220E-3	168.148E-12	660.776E-3	19.8044E-3
4.26963E-3	167.267E-12	624.733E-3	-3.34209E-3	168.895E-12	648.300E-3	-8.21308E-3
4.26463E-3	166.292E-12	654.073E-3	-7.24828E-3	169.320E-12	644.828E-3	-31.7521E-3
4.25963E-3	167.372E-12	642.543E-3	-36.8159E-3	169.249E-12	656.615E-3	-15.4795E-3
4.25463E-3	167.845E-12	620.772E-3	-42.9386E-3	168.959E-12	656.275E-3	-7.72297E-3
4.24962E-3	167.017E-12	623.940E-3	-10.5531E-3	168.324E-12	655.335E-3	-10.4416E-3
4.24462E-3	167.463E-12	645.024E-3	1.46040E-3	168.115E-12	669.015E-3	-8.92917E-3
4.23962E-3	168.138E-12	671.661E-3	-9.60537E-3	167.722E-12	666.994E-3	-20.9645E-3
4.23462E-3	167.837E-12	679.695E-3	-9.46809E-3	166.363E-12	649.985E-3	-32.9638E-3
4.22961E-3	167.103E-12	670.275E-3	-1.60074E-3	164.712E-12	642.035E-3	-20.0910E-3
4.22461E-3	167.492E-12	678.286E-3	-332.955E-6	164.501E-12	637.588E-3	-1.46331E-3
4.21961E-3	166.365E-12	675.627E-3	-7.73133E-3	164.831E-12	635.613E-3	2.32322E-3
4.21461E-3	166.536E-12	656.143E-3	-23.0489E-3	163.866E-12	633.074E-3	-10.8658E-3
4.20960E-3	164.724E-12	655.132E-3	-31.2306E-3	162.085E-12	628.791E-3	-26.6785E-3
4.20460E-3	162.961E-12	676.465E-3	-24.0676E-3	161.989E-12	633.824E-3	-25.1919E-3
4.19960E-3	162.200E-12	697.309E-3	-23.6508E-3	162.769E-12	655.684E-3	-15.3821E-3
4.19460E-3	161.526E-12	682.927E-3	-28.1290E-3	162.045E-12	675.724E-3	-2.46654E-3
4.18959E-3	160.429E-12	651.077E-3	-25.5499E-3	162.100E-12	676.436E-3	-4.68555E-3
4.18459E-3	159.977E-12	638.174E-3	-10.2020E-3	163.090E-12	661.584E-3	-25.4598E-3
4.17959E-3	159.867E-12	641.455E-3	-302.769E-6	162.504E-12	646.170E-3	-34.7165E-3
4.17459E-3	159.948E-12	635.502E-3	-12.1213E-3	163.585E-12	651.530E-3	-39.8303E-3
4.16958E-3	159.709E-12	630.847E-3	-25.1599E-3	163.393E-12	668.076E-3	-50.7352E-3
4.16458E-3	160.087E-12	647.249E-3	-22.9074E-3	162.596E-12	660.748E-3	-45.8763E-3
4.15958E-3	159.801E-12	657.230E-3	-21.7214E-3	162.256E-12	635.382E-3	-31.1119E-3
4.15458E-3	160.060E-12	645.992E-3	-38.6743E-3	163.071E-12	620.350E-3	-30.1609E-3
4.14957E-3	159.908E-12	651.656E-3	-45.5762E-3	162.492E-12	626.502E-3	-20.1058E-3
4.14457E-3	160.676E-12	668.243E-3	-25.4033E-3	161.627E-12	636.797E-3	-2.62338E-3
4.13957E-3	160.758E-12	674.478E-3	4.54099E-3	161.635E-12	628.075E-3	-10.5168E-3
4.13457E-3	161.165E-12	686.174E-3	10.7974E-3	161.879E-12	618.670E-3	-22.6416E-3
4.12956E-3	161.054E-12	687.190E-3	-5.73976E-3	161.196E-12	622.728E-3	-31.1035E-3
4.12456E-3	160.619E-12	672.776E-3	-11.9815E-3	160.163E-12	633.118E-3	-42.6957E-3
4.11956E-3	160.777E-12	665.739E-3	-4.28109E-3	159.768E-12	649.646E-3	-34.2151E-3
4.11456E-3	160.955E-12	678.480E-3	9.57321E-3	159.015E-12	663.529E-3	-27.6794E-3
4.10955E-3	159.811E-12	683.879E-3	6.05415E-3	158.931E-12	662.864E-3	-27.7596E-3
4.10455E-3	158.962E-12	673.082E-3	-11.7656E-3	158.511E-12	652.401E-3	-19.3566E-3
4.09955E-3	159.920E-12	670.084E-3	-23.4857E-3	157.998E-12	635.924E-3	-33.4265E-3
4.09455E-3	160.473E-12	663.468E-3	-19.8359E-3	157.924E-12	635.760E-3	-42.0139E-3
4.08954E-3	159.743E-12	637.919E-3	-9.87342E-3	158.677E-12	653.402E-3	-26.0387E-3
4.08454E-3	161.462E-12	617.920E-3	-17.4937E-3	158.268E-12	667.818E-3	-13.4107E-3
4.07954E-3	160.636E-12	616.416E-3	-26.8733E-3	157.983E-12	688.074E-3	2.90214E-3
4.07454E-3	161.367E-12	633.240E-3	-26.4768E-3	159.259E-12	705.409E-3	5.09010E-3
4.06953E-3	160.710E-12	652.521E-3	-33.6079E-3	159.308E-12	702.572E-3	-21.4731E-3
4.06453E-3	160.829E-12	658.371E-3	-39.3586E-3	159.752E-12	687.550E-3	-45.3382E-3
4.05953E-3	159.091E-12	660.813E-3	-36.5444E-3	160.059E-12	667.093E-3	-35.4125E-3
4.05453E-3	159.980E-12	656.222E-3	-32.0104E-3	160.462E-12	662.852E-3	676.931E-6
4.04952E-3	159.350E-12	646.402E-3	-18.2542E-3	159.247E-12	666.618E-3	24.1800E-3
4.04452E-3	158.923E-12	645.273E-3	-7.05139E-3	160.081E-12	649.859E-3	13.8202E-3
4.03952E-3	158.441E-12	659.790E-3	-16.1763E-3	160.992E-12	636.501E-3	534.485E-6
4.03452E-3	158.065E-12	658.337E-3	-19.9477E-3	159.913E-12	637.807E-3	-9.12634E-3
4.02951E-3	157.664E-12	641.846E-3	-16.9810E-3	158.709E-12	646.063E-3	-21.9516E-3
4.02451E-3	156.700E-12	656.136E-3	-16.1486E-3	158.941E-12	657.892E-3	-22.2298E-3
4.01951E-3	157.205E-12	672.637E-3	-7.16983E-3	158.812E-12	655.508E-3	-14.0092E-3
4.01451E-3	156.211E-12	665.339E-3	-1.29865E-3	158.090E-12	643.190E-3	-5.24395E-3
4.00950E-3	156.333E-12	653.180E-3	4.43496E-3	156.990E-12	631.982E-3	-852.827E-6
4.00450E-3	156.496E-12	627.093E-3	9.38040E-3	156.217E-12	635.124E-3	-1.39577E-3
3.99950E-3	155.791E-12	596.774E-3	8.53863E-3	156.027E-12	648.753E-3	-634.976E-6
3.99450E-3	155.149E-12	602.566E-3	-312.544E-6	154.726E-12	646.830E-3	3.15329E-3
3.98949E-3	155.575E-12	636.295E-3	-9.21657E-3	153.421E-12	648.871E-3	-3.15684E-3
3.98449E-3	155.507E-12	657.418E-3	-6.96291E-3	153.246E-12	644.047E-3	-16.9546E-3
3.97949E-3	154.579E-12	661.151E-3	-19.1506E-3	153.089E-12	632.495E-3	-28.6819E-3
3.97449E-3	154.010E-12	668.618E-3	-35.4040E-3	153.521E-12	642.220E-3	-28.3195E-3
3.96948E-3	154.667E-12	672.638E-3	-30.3094E-3	153.243E-12	643.789E-3	-27.1606E-3
3.96448E-3	154.038E-12	655.269E-3	-22.1475E-3	153.128E-12	638.142E-3	-40.2953E-3
3.95948E-3	153.002E-12	640.422E-3	-18.3963E-3	153.397E-12	650.635E-3	-37.6882E-3
3.95448E-3	152.819E-12	633.513E-3	-16.6064E-3	154.414E-12	667.026E-3	-19.3039E-3
3.94947E-3	153.648E-12	624.826E-3	-33.4835E-3	154.619E-12	675.022E-3	-15.7251E-3
3.94447E-3	151.644E-12	624.187E-3	-38.9692E-3	154.948E-12	676.388E-3	-12.8419E-3
3.93947E-3	152.255E-12	628.799E-3	-19.3415E-3	154.032E-12	667.624E-3	9.83954E-3
3.93447E-3	151.942E-12	633.386E-3	-11.7715E-3	154.498E-12	651.145E-3	17.6279E-3
3.92946E-3	151.625E-12	624.329E-3	-18.4363E-3	154.646E-12	645.260E-3	-5.07197E-3
3.92446E-3	151.536E-12	616.957E-3	-16.6072E-3	154.473E-12	667.529E-3	-27.3189E-3
3.91946E-3	152.295E-12	640.105E-3	-4.25769E-3	153.081E-12	700.655E-3	-46.8663E-3
3.91446E-3	150.984E-12	661.965E-3	-3.75338E-3	153.225E-12	702.619E-3	-44.3527E-3
3.90945E-3	151.536E-12	671.670E-3	-13.1034E-3	152.471E-12	657.900E-3	-18.0369E-3
3.90445E-3	151.242E-12	667.780E-3	-22.2795E-3	151.490E-12	613.612E-3	-11.2583E-3
3.89945E-3	151.238E-12	651.929E-3	-22.2007E-3	150.457E-12	608.966E-3	-28.9753E-3
3.89445E-3	151.070E-12	656.637E-3	-11.7703E-3	150.321E-12	630.193E-3	-38.5478E-3
3.88944E-3	150.732E-12	663.517E-3	-6.04565E-3	148.542E-12	638.777E-3	-27.7179E-3
3.88444E-3	149.655E-12	663.674E-3	-5.51513E-3	148.758E-12	626.826E-3	-17.8188E-3
3.87944E-3	150.157E-12	670.472E-3	-8.22097E-3	148.393E-12	635.253E-3	-10.9828E-3
3.87444E-3	149.366E-12	673.883E-3	-6.26631E-3	147.963E-12	661.486E-3	-2.08664E-3
3.86943E-3	147.860E-12	674.286E-3	-266.462E-6	148.583E-12	664.079E-3	8.40307E-3
3.86443E-3	147.457E-12	671.262E-3	-11.5802E-3	149.094E-12	645.299E-3	21.2319E-3
3.85943E-3	147.893E-12	674.522E-3	-38.0882E-3	149.460E-12	633.144E-3	15.0854E-3
3.85443E-3	147.656E-12	686.755E-3	-50.1919E-3	149.311E-12	643.427E-3	-22.0056E-3
3.84942E-3	147.197E-12	668.422E-3	-36.9154E-3	149.372E-12	660.201E-3	-41.5401E-3
3.84442E-3	147.602E-12	628.379E-3	-21.0381E-3	149.607E-12	669.190E-3	-20.7651E-3
3.83942E-3	148.220E-12	623.509E-3	-23.1758E-3	150.327E-12	678.920E-3	-11.3841E-3
3.83442E-3	147.909E-12	647.759E-3	-29.8733E-3	150.380E-12	663.510E-3	-26.1632E-3
3.82941E-3	148.189E-12	668.315E-3	-30.5021E-3	148.902E-12	623.393E-3	-30.6761E-3
3.82441E-3	148.792E-12	675.992E-3	-36.5471E-3	149.305E-12	611.650E-3	-16.3479E-3
3.81941E-3	149.281E-12	682.852E-3	-48.3352E-3	149.127E-12	637.871E-3	-5.85085E-3
3.81441E-3	149.501E-12	682.481E-3	-50.7016E-3	148.361E-12	656.188E-3	-7.73608E-3
3.80940E-3	149.646E-12	662.155E-3	-49.4343E-3	146.734E-12	646.274E-3	3.62303E-3
3.80440E-3	149.495E-12	654.477E-3	-35.7636E-3	147.281E-12	638.655E-3	13.7325E-3
3.79940E-3	148.176E-12	669.585E-3	-7.38266E-3	146.589E-12	649.150E-3	11.4216E-3
3.79440E-3	149.243E-12	687.830E-3	-11.2178E-3	146.186E-12	669.077E-3	28.7710E-3
3.78939E-3	148.259E-12	695.658E-3	-32.3983E-3	145.665E-12	689.920E-3	31.6201E-3
3.78439E-3	146.917E-12	684.602E-3	-37.8038E-3	145.407E-12	703.220E-3	4.96919E-3
3.77939E-3	146.524E-12	667.056E-3	-32.6066E-3	146.038E-12	703.392E-3	-8.61555E-3
3.77439E-3	146.562E-12	657.828E-3	-35.0557E-3	146.712E-12	687.159E-3	-16.2135E-3
3.76938E-3	144.721E-12	665.566E-3	-42.1294E-3	146.232E-12	673.345E-3	-29.5780E-3
3.76438E-3	144.661E-12	674.504E-3	-34.8342E-3	145.966E-12	675.743E-3	-23.1482E-3
3.75938E-3	145.156E-12	667.469E-3	-20.1178E-3	146.317E-12	667.380E-3	-442.400E-6
3.75438E-3	144.071E-12	658.420E-3	-6.59499E-3	146.445E-12	646.199E-3	2.69809E-3
3.74937E-3	143.662E-12	660.064E-3	4.71215E-3	146.713E-12	650.753E-3	-4.07932E-3
3.74437E-3	143.882E-12	660.673E-3	6.83897E-3	145.442E-12	666.110E-3	-4.96769E-3
3.73937E-3	144.343E-12	663.267E-3	-10.6455E-3	145.433E-12	664.181E-3	-13.8409E-3
3.73437E-3	144.311E-12	672.258E-3	-26.0273E-3	145.694E-12	669.503E-3	-14.2853E-3
3.72936E-3	144.017E-12	664.821E-3	-19.2580E-3	145.056E-12	670.164E-3	-4.71267E-3
3.72436E-3	144.783E-12	657.384E-3	-10.5350E-3	145.110E-12	665.147E-3	-2.65270E-3
3.71936E-3	144.831E-12	651.996E-3	-16.1634E-3	144.573E-12	672.835E-3	-9.91255E-3
3.71436E-3	144.413E-12	639.731E-3	-20.9757E-3	143.321E-12	673.493E-3	-18.5840E-3
3.70935E-3	144.412E-12	638.023E-3	-18.5961E-3	143.458E-12	665.705E-3	-23.1549E-3
3.70435E-3	145.116E-12	647.004E-3	-24.9618E-3	143.200E-12	665.598E-3	-16.7231E-3
3.69935E-3	143.747E-12	654.930E-3	-33.7169E-3	142.502E-12	676.729E-3	-5.25480E-3
3.69435E-3	143.232E-12	657.119E-3	-24.0186E-3	141.805E-12	685.690E-3	-9.83812E-3
3.68934E-3	142.876E-12	661.871E-3	-6.97390E-3	141.333E-12	678.297E-3	-23.6570E-3
3.68434E-3	141.965E-12	654.026E-3	-3.34967E-3	141.842E-12	649.919E-3	-22.2550E-3
3.67934E-3	140.886E-12	648.172E-3	-5.42957E-3	141.572E-12	631.167E-3	-22.6717E-3
3.67434E-3	140.960E-12	658.561E-3	-3.00957E-3	140.660E-12	657.618E-3	-44.2443E-3
3.66933E-3	140.133E-12	662.230E-3	4.20332E-3	140.574E-12	687.211E-3	-48.8007E-3
3.66433E-3	139.287E-12	651.100E-3	6.74642E-3	140.084E-12	672.036E-3	-13.8976E-3
3.65933E-3	139.102E-12	647.116E-3	-6.79836E-3	139.717E-12	641.842E-3	22.3155E-3
3.65433E-3	139.425E-12	654.920E-3	-30.8611E-3	139.767E-12	633.475E-3	15.7910E-3
3.64932E-3	138.889E-12	660.276E-3	-32.6733E-3	140.135E-12	644.488E-3	-27.2734E-3
3.64432E-3	138.996E-12	673.390E-3	-24.3173E-3	139.546E-12	652.705E-3	-40.9374E-3
3.63932E-3	139.014E-12	681.799E-3	-30.8929E-3	139.121E-12	649.128E-3	-19.9432E-3
3.63432E-3	138.432E-12	685.904E-3	-32.5685E-3	139.686E-12	646.921E-3	-3.11080E-3
3.62931E-3	138.206E-12	687.010E-3	-34.6599E-3	139.563E-12	653.429E-3	3.76242E-3
3.62431E-3	138.568E-12	669.840E-3	-38.3674E-3	138.851E-12	657.992E-3	-6.53557E-3
3.61931E-3	138.045E-12	640.739E-3	-33.3963E-3	139.037E-12	655.560E-3	-18.2469E-3
3.61431E-3	137.490E-12	637.418E-3	-18.8652E-3	138.649E-12	648.487E-3	-24.3212E-3
3.60930E-3	137.294E-12	664.685E-3	-8.49556E-3	139.008E-12	646.451E-3	-26.2013E-3
3.60430E-3	136.846E-12	678.325E-3	-21.3984E-3	139.075E-12	661.835E-3	-14.7263E-3
3.59930E-3	136.109E-12	667.360E-3	-46.9580E-3	138.495E-12	688.620E-3	-6.86741E-3
3.59430E-3	136.334E-12	648.864E-3	-44.1557E-3	137.562E-12	704.201E-3	-11.2010E-3
3.58929E-3	135.737E-12	644.578E-3	-16.8538E-3	137.784E-12	693.170E-3	-6.42659E-3
3.58429E-3	135.545E-12	654.471E-3	-5.78938E-3	137.310E-12	663.343E-3	8.22030E-3
3.57929E-3	135.388E-12	654.819E-3	9.70626E-3	136.109E-12	648.510E-3	527.099E-6
3.57429E-3	135.260E-12	646.574E-3	26.5310E-3	135.752E-12	657.272E-3	-18.6873E-3
3.56928E-3	135.149E-12	649.195E-3	20.2856E-3	135.875E-12	666.689E-3	-22.0153E-3
3.56428E-3	135.973E-12	649.276E-3	15.5998E-3	134.623E-12	674.055E-3	-23.3619E-3
3.55928E-3	135.454E-12	654.982E-3	10.3426E-3	134.504E-12	673.458E-3	-20.0083E-3
3.55428E-3	135.208E-12	670.437E-3	-8.05571E-3	134.123E-12	651.356E-3	-998.980E-6
3.54927E-3	135.099E-12	670.144E-3	-13.4279E-3	133.276E-12	626.704E-3	8.29099E-3
3.54427E-3	135.166E-12	664.415E-3	-15.3627E-3	133.976E-12	635.691E-3	1.60901E-3
3.53927E-3	134.994E-12	652.391E-3	-35.2661E-3	135.172E-12	659.496E-3	192.131E-6
3.53427E-3	134.351E-12	646.652E-3	-53.1626E-3	134.294E-12	652.951E-3	-10.5158E-3
3.52926E-3	134.953E-12	657.487E-3	-53.5429E-3	133.886E-12	634.016E-3	-24.1103E-3
3.52426E-3	134.143E-12	653.613E-3	-39.2116E-3	135.096E-12	633.308E-3	-27.2968E-3
3.51926E-3	133.944E-12	641.316E-3	-35.7516E-3	135.320E-12	659.597E-3	-45.3806E-3
3.51426E-3	134.218E-12	647.621E-3	-35.3223E-3	135.881E-12	689.030E-3	-48.7469E-3
3.50925E-3	134.670E-12	654.547E-3	-25.6147E-3	136.039E-12	690.554E-3	-9.30594E-3
3.50425E-3	134.315E-12	651.507E-3	-27.6895E-3	136.159E-12	678.195E-3	13.5653E-3
3.49925E-3	133.922E-12	662.631E-3	-27.7299E-3	136.215E-12	655.043E-3	-2.30806E-3
3.49425E-3	135.024E-12	685.962E-3	-28.8768E-3	136.829E-12	650.068E-3	-16.9049E-3
3.48924E-3	135.277E-12	689.719E-3	-44.3714E-3	136.004E-12	682.098E-3	-21.9948E-3
3.48424E-3	134.913E-12	688.822E-3	-52.7516E-3	134.818E-12	689.787E-3	-10.0909E-3
3.47924E-3	134.633E-12	700.566E-3	-29.8107E-3	134.584E-12	676.901E-3	9.55458E-3
3.47424E-3	134.686E-12	696.616E-3	10.0474E-3	134.197E-12	690.339E-3	-531.329E-6
3.46923E-3	134.408E-12	684.090E-3	23.8997E-3	132.835E-12	710.815E-3	-26.5534E-3
3.46423E-3	134.326E-12	684.868E-3	1.60866E-3	132.285E-12	713.853E-3	-39.9063E-3
3.45923E-3	133.555E-12	681.198E-3	-18.4571E-3	132.461E-12	702.164E-3	-23.6233E-3
3.45423E-3	132.662E-12	661.683E-3	-22.4705E-3	132.157E-12	689.311E-3	7.38780E-3
3.44922E-3	132.409E-12	650.951E-3	-27.1504E-3	131.740E-12	678.945E-3	3.74301E-3
3.44422E-3	132.313E-12	654.017E-3	-20.1944E-3	131.784E-12	667.943E-3	-17.7659E-3
3.43922E-3	131.232E-12	658.026E-3	-4.02413E-3	131.274E-12	663.909E-3	-13.3643E-3
3.43422E-3	130.692E-12	665.410E-3	862.165E-6	131.965E-12	666.316E-3	7.60593E-3
3.42921E-3	130.171E-12	672.067E-3	-5.10283E-3	131.365E-12	678.793E-3	8.20977E-3
3.42421E-3	130.167E-12	664.600E-3	-5.33380E-3	131.411E-12	694.165E-3	-11.7351E-3
3.41921E-3	129.341E-12	653.787E-3	-1.70712E-3	131.797E-12	696.881E-3	-28.7527E-3
3.41421E-3	129.260E-12	651.000E-3	-12.1405E-3	131.552E-12	699.841E-3	-32.2849E-3
3.40920E-3	129.170E-12	663.386E-3	-21.0714E-3	130.944E-12	701.760E-3	-19.5500E-3
3.40420E-3	128.755E-12	677.658E-3	-20.2456E-3	131.076E-12	689.058E-3	5.82169E-3
3.39920E-3	129.414E-12	676.231E-3	-35.4133E-3	131.100E-12	679.259E-3	14.2882E-3
3.39420E-3	130.208E-12	675.449E-3	-50.5091E-3	130.279E-12	678.775E-3	-24.4022E-3
3.38919E-3	129.745E-12	666.485E-3	-33.7258E-3	129.709E-12	676.393E-3	-48.8831E-3
3.38419E-3	130.115E-12	666.112E-3	-174.788E-6	129.430E-12	671.276E-3	-19.5234E-3
3.37919E-3	130.746E-12	676.962E-3	12.7108E-3	129.131E-12	664.217E-3	10.0885E-3
3.37419E-3	130.218E-12	671.825E-3	6.53151E-3	128.171E-12	663.482E-3	7.48046E-3
3.36918E-3	129.560E-12	659.952E-3	1.52320E-3	126.908E-12	672.205E-3	3.69161E-3
3.36418E-3	129.353E-12	651.482E-3	-3.02394E-3	126.709E-12	669.923E-3	11.3759E-3
3.35918E-3	129.331E-12	656.362E-3	-7.97715E-3	127.164E-12	657.228E-3	8.93439E-3
3.35418E-3	128.882E-12	679.354E-3	-8.51403E-3	126.891E-12	659.753E-3	3.59232E-3
3.34917E-3	127.827E-12	685.326E-3	-15.4750E-3	125.967E-12	676.445E-3	-21.0292E-3
3.34417E-3	127.048E-12	674.591E-3	-35.3905E-3	126.489E-12	678.442E-3	-45.0610E-3
3.33917E-3	126.416E-12	678.832E-3	-43.4158E-3	126.614E-12	670.982E-3	-31.1041E-3
3.33417E-3	126.410E-12	671.400E-3	-28.7207E-3	125.735E-12	664.471E-3	-4.86223E-3
3.32916E-3	126.094E-12	651.881E-3	-12.1027E-3	126.406E-12	651.893E-3	7.97684E-3
3.32416E-3	124.640E-12	641.088E-3	-8.03528E-3	126.553E-12	657.627E-3	-4.88790E-3
3.31916E-3	123.689E-12	645.321E-3	-1.88676E-3	125.873E-12	684.176E-3	-22.5050E-3
3.31416E-3	124.443E-12	663.580E-3	-1.73426E-3	126.293E-12	696.277E-3	-22.4348E-3
3.30915E-3	125.275E-12	667.875E-3	-23.5898E-3	126.240E-12	688.808E-3	-12.3483E-3
3.30415E-3	124.867E-12	663.894E-3	-36.0313E-3	125.150E-12	690.389E-3	-4.49529E-3
3.29915E-3	124.977E-12	683.378E-3	-29.8191E-3	124.379E-12	689.510E-3	-7.61228E-3
3.29415E-3	125.024E-12	698.960E-3	-23.6554E-3	125.045E-12	672.904E-3	-20.7830E-3
3.28914E-3	125.143E-12	680.545E-3	-12.6738E-3	124.155E-12	668.232E-3	-22.2447E-3
3.28414E-3	125.259E-12	660.464E-3	-7.31853E-3	123.069E-12	678.091E-3	-10.1859E-3
3.27914E-3	124.754E-12	662.465E-3	-11.8603E-3	122.540E-12	677.156E-3	-3.72310E-3
3.27414E-3	124.261E-12	667.041E-3	-25.5379E-3	123.473E-12	665.410E-3	-5.30406E-3
3.26913E-3	124.197E-12	653.454E-3	-42.2068E-3	123.292E-12	661.986E-3	-20.6353E-3
3.26413E-3	124.820E-12	647.364E-3	-39.6969E-3	122.442E-12	671.252E-3	-31.6145E-3
3.25913E-3	124.748E-12	659.703E-3	-28.4074E-3	122.734E-12	680.746E-3	-27.1842E-3
3.25413E-3	123.119E-12	669.019E-3	-18.7054E-3	122.715E-12	670.536E-3	-19.8817E-3
3.24912E-3	122.824E-12	674.224E-3	-13.5767E-3	123.179E-12	652.767E-3	-4.09016E-3
3.24412E-3	123.136E-12	676.924E-3	-18.6883E-3	123.480E-12	650.052E-3	-3.76463E-3
3.23912E-3	122.320E-12	673.791E-3	-27.3508E-3	122.719E-12	666.167E-3	-16.0570E-3
3.23412E-3	121.546E-12	667.083E-3	-33.5492E-3	122.000E-12	677.856E-3	-4.23804E-3
3.22911E-3	120.944E-12	671.688E-3	-28.9436E-3	122.757E-12	662.868E-3	4.49928E-3
3.22411E-3	121.247E-12	677.325E-3	-21.7015E-3	122.828E-12	653.654E-3	-4.00733E-3
3.21911E-3	121.454E-12	666.100E-3	-26.5874E-3	121.822E-12	665.577E-3	-4.77643E-3
3.21411E-3	120.744E-12	665.489E-3	-25.3871E-3	120.860E-12	678.988E-3	-5.51969E-3
3.20910E-3	120.238E-12	682.868E-3	-8.54383E-3	121.091E-12	698.366E-3	-13.9915E-3
3.20410E-3	120.213E-12	684.943E-3	3.02801E-3	121.678E-12	698.354E-3	-17.7979E-3
3.19910E-3	120.813E-12	677.395E-3	4.12603E-3	120.356E-12	672.598E-3	-13.3268E-3
3.19410E-3	120.896E-12	670.634E-3	-3.46739E-3	120.099E-12	662.321E-3	-8.02270E-3
3.18909E-3	119.850E-12	667.785E-3	-19.1677E-3	120.969E-12	665.147E-3	-9.53880E-3
3.18409E-3	119.018E-12	675.180E-3	-20.3456E-3	121.103E-12	681.309E-3	-4.72185E-3
3.17909E-3	119.288E-12	678.728E-3	-6.20773E-3	120.456E-12	698.732E-3	10.5058E-3
3.17409E-3	119.025E-12	678.710E-3	4.16360E-3	120.894E-12	696.182E-3	7.33316E-3
3.16908E-3	118.077E-12	678.621E-3	9.57117E-3	120.704E-12	689.542E-3	-14.0389E-3
3.16408E-3	116.926E-12	678.607E-3	-3.46102E-3	119.876E-12	702.651E-3	-25.6081E-3
3.15908E-3	116.763E-12	680.762E-3	-20.2697E-3	119.686E-12	705.653E-3	-24.7242E-3
3.15408E-3	116.767E-12	677.310E-3	-12.7272E-3	118.712E-12	682.486E-3	-24.2168E-3
3.14907E-3	116.685E-12	664.807E-3	-7.93865E-3	118.421E-12	666.069E-3	-29.2934E-3
3.14407E-3	116.441E-12	653.509E-3	-10.6546E-3	117.809E-12	644.065E-3	-32.0808E-3
3.13907E-3	116.306E-12	651.500E-3	-9.00669E-3	117.347E-12	616.309E-3	-18.6808E-3
3.13407E-3	115.984E-12	656.630E-3	-14.7068E-3	116.767E-12	627.950E-3	-1.14093E-3
3.12906E-3	116.455E-12	661.309E-3	-29.1273E-3	116.319E-12	673.228E-3	-15.7920E-3
3.12406E-3	116.114E-12	663.463E-3	-39.1114E-3	115.619E-12	692.178E-3	-33.3840E-3
3.11906E-3	116.242E-12	669.643E-3	-23.6647E-3	115.793E-12	672.482E-3	-23.2567E-3
3.11406E-3	116.606E-12	670.608E-3	-584.237E-6	116.473E-12	662.754E-3	-22.4783E-3
3.10905E-3	116.356E-12	673.504E-3	-6.04732E-3	115.562E-12	669.778E-3	-31.1298E-3
3.10405E-3	115.357E-12	675.992E-3	-12.5982E-3	115.942E-12	673.763E-3	-23.3307E-3
3.09905E-3	115.194E-12	665.507E-3	-14.2007E-3	116.217E-12	676.405E-3	-10.0080E-3
3.09405E-3	114.755E-12	658.541E-3	-25.4531E-3	116.053E-12	675.707E-3	2.94826E-3
3.08904E-3	114.431E-12	669.925E-3	-26.5481E-3	116.447E-12	679.886E-3	6.37347E-3
3.08404E-3	114.568E-12	688.581E-3	-23.7732E-3	116.776E-12	696.152E-3	-11.8945E-3
3.07904E-3	114.495E-12	685.744E-3	-12.6444E-3	116.176E-12	698.529E-3	-18.5314E-3
3.07404E-3	113.513E-12	661.991E-3	-4.43551E-3	115.467E-12	680.877E-3	-6.08663E-3
3.06903E-3	113.878E-12	653.278E-3	-13.4367E-3	115.824E-12	675.235E-3	-9.73289E-3
3.06403E-3	113.548E-12	669.752E-3	-24.5012E-3	115.474E-12	667.751E-3	-24.8437E-3
3.05903E-3	113.901E-12	679.161E-3	-22.2588E-3	114.155E-12	652.197E-3	-14.6236E-3
3.05403E-3	113.949E-12	672.589E-3	-8.89846E-3	113.681E-12	657.622E-3	-1.90424E-3
3.04902E-3	113.704E-12	678.588E-3	3.55074E-3	113.235E-12	665.123E-3	-16.8907E-3
3.04402E-3	113.712E-12	689.484E-3	8.85891E-3	112.196E-12	656.522E-3	-21.7414E-3
3.03902E-3	114.213E-12	679.376E-3	8.45936E-3	111.941E-12	652.812E-3	-13.4905E-3
3.03402E-3	114.289E-12	662.949E-3	-6.10999E-3	111.474E-12	668.352E-3	-20.5580E-3
3.02901E-3	114.273E-12	655.451E-3	-28.2561E-3	110.912E-12	689.143E-3	-18.4911E-3
3.02401E-3	113.867E-12	660.225E-3	-29.7451E-3	110.537E-12	695.421E-3	-9.66044E-3
3.01901E-3	113.792E-12	677.908E-3	-19.3379E-3	110.746E-12	691.269E-3	-8.64357E-3
3.01401E-3	113.579E-12	681.984E-3	-16.5204E-3	110.992E-12	693.670E-3	9.03467E-3
3.00900E-3	113.013E-12	669.227E-3	-16.9473E-3	110.926E-12	702.247E-3	24.6742E-3
3.00400E-3	112.424E-12	675.045E-3	-20.3286E-3	110.976E-12	698.551E-3	7.91662E-3
2.99900E-3	111.901E-12	687.487E-3	-32.3827E-3	111.569E-12	679.967E-3	-17.6119E-3
2.99400E-3	111.392E-12	692.134E-3	-42.1365E-3	112.250E-12	676.797E-3	-29.5481E-3
2.98899E-3	111.368E-12	692.488E-3	-41.6285E-3	111.820E-12	678.970E-3	-30.3020E-3
2.98399E-3	111.366E-12	683.899E-3	-33.7665E-3	111.185E-12	675.622E-3	-29.1904E-3
2.97899E-3	110.716E-12	682.057E-3	-21.8979E-3	111.104E-12	689.159E-3	-23.6855E-3
2.97399E-3	110.782E-12	690.497E-3	-1.64678E-3	110.889E-12	701.127E-3	-15.3746E-3
2.96898E-3	111.551E-12	708.533E-3	2.15487E-3	110.353E-12	689.037E-3	-27.6416E-3
2.96398E-3	111.122E-12	732.050E-3	-25.0116E-3	109.512E-12	676.510E-3	-41.1822E-3
2.95898E-3	110.365E-12	738.897E-3	-43.3641E-3	108.687E-12	675.401E-3	-28.5355E-3
2.95398E-3	110.531E-12	722.561E-3	-44.1455E-3	107.939E-12	672.751E-3	-6.22471E-3
2.94897E-3	110.125E-12	715.877E-3	-40.8374E-3	107.885E-12	683.769E-3	13.3550E-3
2.94397E-3	109.855E-12	717.185E-3	-35.7714E-3	106.780E-12	702.982E-3	33.5969E-3
2.93897E-3	110.066E-12	698.456E-3	-28.4601E-3	106.481E-12	684.962E-3	32.8759E-3
2.93397E-3	109.378E-12	683.636E-3	-28.8939E-3	106.669E-12	668.555E-3	381.661E-6
2.92896E-3	108.589E-12	677.577E-3	-30.7800E-3	106.933E-12	699.771E-3	-29.7922E-3
2.92396E-3	108.722E-12	673.498E-3	-15.4512E-3	107.388E-12	719.329E-3	-29.4451E-3
2.91896E-3	108.803E-12	688.587E-3	-8.54888E-3	107.090E-12	706.473E-3	-9.95022E-3
2.91396E-3	107.832E-12	703.997E-3	-13.5377E-3	107.853E-12	689.362E-3	-5.43853E-3
2.90895E-3	107.656E-12	694.891E-3	-15.7897E-3	108.162E-12	667.446E-3	-17.0873E-3
2.90395E-3	108.119E-12	673.584E-3	-23.8287E-3	108.496E-12	658.366E-3	-16.8198E-3
2.89895E-3	107.301E-12	647.684E-3	-22.0060E-3	108.300E-12	686.443E-3	-1.76054E-3
2.89395E-3	106.999E-12	642.141E-3	-5.63943E-3	108.279E-12	714.119E-3	8.96732E-3
2.88894E-3	107.113E-12	666.859E-3	-4.67649E-3	108.226E-12	704.003E-3	6.62778E-3
2.88394E-3	106.807E-12	687.513E-3	-19.5853E-3	107.720E-12	686.015E-3	-13.2246E-3
2.87894E-3	106.067E-12	683.711E-3	-34.7611E-3	107.301E-12	683.320E-3	-29.8750E-3
2.87394E-3	106.546E-12	675.611E-3	-39.8644E-3	106.560E-12	690.202E-3	-22.2520E-3
2.86893E-3	106.276E-12	685.932E-3	-34.9507E-3	105.588E-12	684.550E-3	-16.1229E-3
2.86393E-3	105.459E-12	691.631E-3	-18.6310E-3	104.439E-12	662.597E-3	-26.6959E-3
2.85893E-3	104.605E-12	683.010E-3	-3.15870E-3	104.399E-12	663.660E-3	-42.3836E-3
2.85393E-3	104.305E-12	660.087E-3	-9.51764E-3	104.232E-12	684.633E-3	-43.8035E-3
2.84892E-3	103.473E-12	647.016E-3	-10.1864E-3	103.269E-12	684.261E-3	-28.8325E-3
2.84392E-3	102.905E-12	677.082E-3	-2.40154E-3	103.242E-12	668.814E-3	-17.1353E-3
2.83892E-3	102.080E-12	710.584E-3	-10.5533E-3	103.360E-12	677.975E-3	-24.2041E-3
2.83392E-3	102.078E-12	700.927E-3	-19.7369E-3	103.512E-12	695.557E-3	-42.4548E-3
2.82891E-3	101.092E-12	674.947E-3	-18.7244E-3	102.958E-12	696.756E-3	-42.1579E-3
2.82391E-3	101.072E-12	675.060E-3	-7.22212E-3	103.612E-12	698.435E-3	-28.9054E-3
2.81891E-3	101.284E-12	679.899E-3	-186.916E-6	103.556E-12	697.898E-3	-20.4892E-3
2.81391E-3	100.651E-12	670.807E-3	-12.3749E-3	103.725E-12	692.267E-3	-20.1998E-3
2.80890E-3	100.458E-12	671.649E-3	-20.5120E-3	103.761E-12	699.369E-3	-19.6777E-3
2.80390E-3	101.449E-12	682.456E-3	-11.6178E-3	103.454E-12	711.244E-3	-22.3295E-3
2.79890E-3	101.473E-12	683.011E-3	6.06181E-3	102.887E-12	704.184E-3	-39.9655E-3
2.79390E-3	101.031E-12	676.361E-3	10.3503E-3	102.456E-12	692.462E-3	-39.8676E-3
2.78889E-3	101.490E-12	673.374E-3	-4.50504E-3	102.133E-12	695.304E-3	-23.5546E-3
2.78389E-3	101.945E-12	684.895E-3	-16.2109E-3	101.598E-12	700.884E-3	-23.5170E-3
2.77889E-3	101.591E-12	702.902E-3	-6.31238E-3	101.212E-12	706.344E-3	-28.7622E-3
2.77389E-3	102.275E-12	704.665E-3	12.4396E-3	100.680E-12	710.318E-3	-21.4314E-3
2.76888E-3	101.297E-12	691.248E-3	20.3234E-3	100.630E-12	696.109E-3	-11.3122E-3
2.76388E-3	101.039E-12	688.839E-3	12.8535E-3	100.564E-12	678.913E-3	1.91702E-3
2.75888E-3	100.706E-12	697.913E-3	-16.8265E-3	99.9058E-12	683.472E-3	2.10025E-3
2.75388E-3	100.109E-12	688.584E-3	-33.1516E-3	99.5730E-12	689.495E-3	-20.2320E-3
2.74887E-3	99.0396E-12	670.566E-3	-21.6010E-3	99.6303E-12	686.266E-3	-29.5647E-3
2.74387E-3	98.8234E-12	669.697E-3	-16.4458E-3	99.4659E-12	699.921E-3	-19.3839E-3
2.73887E-3	98.0679E-12	686.275E-3	-18.9703E-3	99.2652E-12	712.659E-3	-22.1550E-3
2.73387E-3	96.8990E-12	693.750E-3	-24.4836E-3	98.7896E-12	688.670E-3	-33.2700E-3
2.72886E-3	97.1661E-12	680.797E-3	-23.5198E-3	98.3140E-12	674.769E-3	-20.7600E-3
2.72386E-3	97.0501E-12	676.788E-3	-20.8822E-3	98.3182E-12	686.908E-3	-13.5633E-3
2.71886E-3	96.4287E-12	692.760E-3	-31.1650E-3	98.1390E-12	684.394E-3	-25.9044E-3
2.71386E-3	96.6478E-12	704.671E-3	-36.1507E-3	97.2528E-12	675.870E-3	-25.8424E-3
2.70885E-3	96.9042E-12	700.258E-3	-27.5131E-3	97.1841E-12	674.434E-3	-15.0348E-3
2.70385E-3	97.3765E-12	693.481E-3	-16.8399E-3	97.0176E-12	672.320E-3	-4.11321E-3
2.69885E-3	98.0613E-12	689.141E-3	-12.4901E-3	96.7009E-12	675.453E-3	6.55624E-3
2.69385E-3	98.6832E-12	690.842E-3	-19.1826E-3	96.2634E-12	681.395E-3	8.25439E-3
2.68884E-3	98.3551E-12	714.389E-3	-26.5199E-3	96.2417E-12	683.837E-3	-1.74521E-3
2.68384E-3	98.4486E-12	730.462E-3	-20.7459E-3	96.3839E-12	686.695E-3	-15.5184E-3
2.67884E-3	98.8790E-12	723.061E-3	-14.3411E-3	96.5632E-12	694.786E-3	-35.8869E-3
2.67384E-3	98.7513E-12	714.659E-3	-3.05384E-3	96.5204E-12	707.472E-3	-41.7828E-3
2.66883E-3	98.5086E-12	715.668E-3	4.32820E-3	96.5296E-12	721.677E-3	-23.9264E-3
2.66383E-3	98.2921E-12	726.484E-3	-12.3824E-3	96.7218E-12	725.146E-3	-19.0626E-3
2.65883E-3	97.8548E-12	720.306E-3	-32.9471E-3	96.5907E-12	708.244E-3	-23.2593E-3
2.65383E-3	96.5996E-12	697.116E-3	-38.4404E-3	96.7881E-12	692.145E-3	-24.6311E-3
2.64882E-3	96.5845E-12	682.758E-3	-28.2525E-3	97.1593E-12	698.154E-3	-20.5249E-3
2.64382E-3	95.7328E-12	676.151E-3	-19.1407E-3	95.9510E-12	701.782E-3	-6.71342E-3
2.63882E-3	94.7748E-12	693.787E-3	-15.2627E-3	95.3148E-12	693.181E-3	7.97626E-3
2.63382E-3	94.8710E-12	720.047E-3	-9.94204E-3	95.4519E-12	697.354E-3	11.7267E-3
2.62881E-3	94.8950E-12	713.001E-3	-5.47906E-3	95.5130E-12	701.410E-3	-4.75449E-3
2.62381E-3	94.4923E-12	698.108E-3	198.085E-6	94.2732E-12	699.445E-3	-13.8568E-3
2.61881E-3	94.5876E-12	697.739E-3	11.0416E-3	93.4690E-12	704.452E-3	-5.67150E-3
2.61381E-3	94.6818E-12	701.735E-3	12.2367E-3	92.8822E-12	710.236E-3	-2.01681E-3
2.60880E-3	93.6655E-12	707.231E-3	-1.56052E-3	92.4776E-12	711.132E-3	2.65438E-3
2.60380E-3	93.7443E-12	707.854E-3	-8.63854E-3	92.6629E-12	706.913E-3	8.48993E-3
2.59880E-3	93.9509E-12	712.541E-3	-9.65681E-3	91.7767E-12	699.717E-3	-241.718E-6
2.59380E-3	93.4808E-12	723.495E-3	-10.6310E-3	91.4294E-12	700.407E-3	-17.8339E-3
2.58879E-3	92.9699E-12	728.617E-3	-5.20718E-3	91.6733E-12	720.795E-3	-26.6263E-3
2.58379E-3	92.4805E-12	729.820E-3	-7.39218E-3	91.7268E-12	735.159E-3	-21.0221E-3
2.57879E-3	92.3067E-12	726.215E-3	-15.6508E-3	91.4452E-12	725.280E-3	-24.1794E-3
2.57379E-3	92.0695E-12	717.102E-3	-21.5949E-3	91.6173E-12	718.339E-3	-34.9967E-3
2.56878E-3	91.2997E-12	713.977E-3	-18.1682E-3	91.9669E-12	725.184E-3	-22.1044E-3
2.56378E-3	90.1806E-12	728.089E-3	-10.6652E-3	91.9716E-12	730.476E-3	-257.848E-6
2.55878E-3	89.9655E-12	738.643E-3	-9.51925E-3	91.8921E-12	722.986E-3	227.085E-6
2.55378E-3	89.9170E-12	722.211E-3	-4.69298E-3	91.6030E-12	710.222E-3	-1.78083E-3
2.54877E-3	89.4204E-12	700.463E-3	-15.8409E-3	91.0533E-12	699.574E-3	2.89985E-3
2.54377E-3	88.8304E-12	695.294E-3	-25.0976E-3	90.8924E-12	689.862E-3	-5.44637E-3
2.53877E-3	88.6919E-12	699.329E-3	-32.8577E-3	90.5897E-12	697.986E-3	-15.7102E-3
2.53377E-3	88.5960E-12	698.455E-3	-52.2550E-3	89.8206E-12	712.066E-3	-20.0241E-3
2.52876E-3	88.2970E-12	694.158E-3	-42.6297E-3	89.1723E-12	708.775E-3	-23.1874E-3
2.52376E-3	87.9506E-12	701.348E-3	-21.7006E-3	88.2301E-12	700.602E-3	-24.1433E-3
2.51876E-3	87.7020E-12	712.642E-3	-15.6025E-3	87.5488E-12	699.188E-3	-20.5633E-3
2.51376E-3	87.5527E-12	718.780E-3	-16.0872E-3	87.0845E-12	699.133E-3	-20.6756E-3
2.50875E-3	86.9070E-12	722.525E-3	-22.3191E-3	86.9518E-12	694.704E-3	-21.3242E-3
2.50375E-3	86.5192E-12	712.628E-3	-32.7125E-3	86.7584E-12	704.618E-3	-13.6950E-3
2.49875E-3	86.4968E-12	690.464E-3	-38.3588E-3	86.7281E-12	720.355E-3	-14.6895E-3
2.49375E-3	86.1628E-12	683.401E-3	-24.3416E-3	86.8516E-12	721.320E-3	-23.2084E-3
2.48874E-3	86.5414E-12	700.074E-3	-608.599E-6	86.7363E-12	718.235E-3	-29.7031E-3
2.48374E-3	86.1155E-12	719.403E-3	3.32441E-3	86.6551E-12	714.253E-3	-17.8002E-3
2.47874E-3	86.2152E-12	720.300E-3	-11.8946E-3	87.3304E-12	720.218E-3	-1.36557E-3
2.47374E-3	85.9544E-12	703.024E-3	-17.7783E-3	87.7094E-12	740.427E-3	-12.1925E-3
2.46873E-3	86.3966E-12	698.185E-3	-4.00041E-3	87.8870E-12	750.719E-3	-16.3732E-3
2.46373E-3	86.5924E-12	713.913E-3	6.63915E-3	87.4351E-12	749.404E-3	-7.09863E-3
2.45873E-3	86.4096E-12	728.574E-3	-3.07145E-3	87.6085E-12	747.104E-3	-7.31800E-3
2.45373E-3	86.3004E-12	735.515E-3	-14.3031E-3	87.4841E-12	737.782E-3	-6.86058E-3
2.44872E-3	86.7123E-12	732.593E-3	-13.9379E-3	87.0092E-12	723.544E-3	-10.5110E-3
2.44372E-3	86.2573E-12	731.465E-3	-19.7995E-3	86.5648E-12	719.194E-3	-14.7464E-3
2.43872E-3	86.0517E-12	743.315E-3	-27.2954E-3	85.3713E-12	722.279E-3	-562.038E-6
2.43372E-3	86.0429E-12	742.170E-3	-19.1809E-3	85.2168E-12	719.352E-3	-2.29625E-3
2.42871E-3	85.3735E-12	725.327E-3	-15.2917E-3	84.6206E-12	716.288E-3	-22.2126E-3
2.42371E-3	85.2572E-12	726.513E-3	-19.1302E-3	84.4182E-12	715.766E-3	-21.4619E-3
2.41871E-3	84.5943E-12	737.723E-3	-12.0713E-3	83.5759E-12	714.098E-3	-16.6126E-3
2.41371E-3	84.2031E-12	735.762E-3	-7.08322E-3	83.0020E-12	707.922E-3	-7.65045E-3
2.40870E-3	83.4959E-12	736.075E-3	-23.1953E-3	83.3944E-12	706.501E-3	8.25709E-3
2.40370E-3	82.9293E-12	737.145E-3	-47.8611E-3	83.6219E-12	718.160E-3	1.56927E-3
2.39870E-3	82.7894E-12	726.237E-3	-57.3054E-3	82.9759E-12	728.749E-3	-17.5868E-3
2.39370E-3	82.7159E-12	724.960E-3	-42.1644E-3	83.4293E-12	731.688E-3	-17.5421E-3
2.38869E-3	82.1990E-12	733.653E-3	-21.5611E-3	83.4716E-12	737.230E-3	-8.45931E-3
2.38369E-3	81.8994E-12	736.772E-3	-9.94471E-3	82.9489E-12	743.084E-3	-18.5760E-3
2.37869E-3	82.2926E-12	729.231E-3	-8.56220E-3	82.7869E-12	737.026E-3	-29.5183E-3
2.37369E-3	82.2279E-12	715.929E-3	-12.2365E-3	82.5820E-12	730.112E-3	-24.2810E-3
2.36868E-3	82.4175E-12	711.661E-3	-10.4520E-3	82.6065E-12	733.987E-3	-25.8960E-3
2.36368E-3	82.2659E-12	718.219E-3	-10.1570E-3	81.8535E-12	741.065E-3	-33.4567E-3
2.35868E-3	81.8579E-12	738.056E-3	-11.1564E-3	81.9107E-12	749.499E-3	-32.6639E-3
2.35368E-3	82.5305E-12	742.771E-3	-18.3525E-3	81.8175E-12	745.192E-3	-26.8247E-3
2.34867E-3	82.3642E-12	730.459E-3	-36.1302E-3	80.9733E-12	732.144E-3	-20.3580E-3
2.34367E-3	81.7635E-12	729.282E-3	-48.9827E-3	80.8386E-12	727.638E-3	-12.8269E-3
2.33867E-3	81.7395E-12	730.162E-3	-40.9851E-3	80.7125E-12	722.809E-3	1.68578E-3
2.33367E-3	80.9314E-12	734.889E-3	-29.3209E-3	80.4909E-12	722.334E-3	11.4859E-3
2.32866E-3	80.0728E-12	744.488E-3	-38.7524E-3	79.8986E-12	734.534E-3	-5.11007E-3
2.32366E-3	80.1182E-12	740.101E-3	-50.7454E-3	79.7406E-12	747.577E-3	-26.3737E-3
2.31866E-3	79.1200E-12	732.911E-3	-40.0543E-3	79.4188E-12	749.427E-3	-28.7680E-3
2.31366E-3	77.9497E-12	734.987E-3	-14.8755E-3	79.5157E-12	751.277E-3	-22.1991E-3
2.30865E-3	77.5406E-12	728.472E-3	-1.01224E-3	79.3201E-12	749.858E-3	-10.6330E-3
2.30365E-3	77.0209E-12	709.338E-3	-12.2126E-3	79.3482E-12	742.634E-3	-6.18377E-3
2.29865E-3	76.5191E-12	698.577E-3	-32.6480E-3	79.0067E-12	747.804E-3	-13.9892E-3
2.29365E-3	75.8888E-12	703.072E-3	-35.0573E-3	79.0313E-12	757.026E-3	-11.5317E-3
2.28864E-3	75.8938E-12	705.682E-3	-19.5019E-3	78.5316E-12	748.214E-3	4.33978E-3
2.28364E-3	75.4981E-12	708.434E-3	-8.87746E-3	77.8636E-12	727.565E-3	7.17154E-3
2.27864E-3	75.4354E-12	714.906E-3	-14.2109E-3	77.4213E-12	722.839E-3	-5.13479E-3
2.27364E-3	75.4090E-12	715.396E-3	-12.8905E-3	77.3130E-12	735.161E-3	-9.52384E-3
2.26863E-3	75.3597E-12	719.193E-3	-9.45028E-3	76.4713E-12	744.465E-3	-194.711E-6
2.26363E-3	75.2967E-12	732.322E-3	-10.0395E-3	75.7476E-12	736.721E-3	9.10162E-3
2.25863E-3	75.5081E-12	746.385E-3	-8.67712E-3	75.7311E-12	723.606E-3	5.60894E-3
2.25363E-3	75.4680E-12	752.496E-3	-22.1399E-3	75.6374E-12	720.608E-3	-4.65724E-3
2.24862E-3	75.0895E-12	740.344E-3	-34.1821E-3	75.2698E-12	723.062E-3	-22.1580E-3
2.24362E-3	75.1599E-12	714.796E-3	-29.2906E-3	74.9905E-12	726.749E-3	-28.9744E-3
2.23862E-3	75.1262E-12	708.398E-3	-15.4768E-3	75.2267E-12	732.752E-3	-6.31349E-3
2.23362E-3	74.5232E-12	724.491E-3	-3.80425E-3	75.3400E-12	743.500E-3	13.8827E-3
2.22861E-3	74.2835E-12	728.505E-3	-11.6232E-3	75.4107E-12	753.608E-3	11.0364E-3
2.22361E-3	74.0529E-12	720.452E-3	-28.5414E-3	75.7370E-12	757.904E-3	5.98148E-3
2.21861E-3	73.4415E-12	723.291E-3	-35.1559E-3	75.6226E-12	761.143E-3	-1.35617E-3
2.21361E-3	72.8586E-12	731.688E-3	-27.8738E-3	74.9981E-12	768.369E-3	-18.0950E-3
2.20860E-3	73.0355E-12	726.852E-3	-20.4017E-3	74.9468E-12	769.851E-3	-20.6250E-3
2.20360E-3	72.7531E-12	732.786E-3	-18.8987E-3	74.8839E-12	755.676E-3	-14.6523E-3
2.19860E-3	72.6116E-12	751.863E-3	-8.38900E-3	74.0631E-12	745.574E-3	-26.2504E-3
2.19360E-3	72.6266E-12	756.377E-3	1.99322E-3	73.3290E-12	752.379E-3	-43.1078E-3
2.18859E-3	73.0887E-12	754.442E-3	650.269E-6	72.9878E-12	763.377E-3	-39.0423E-3
2.18359E-3	72.2591E-12	755.934E-3	-3.69358E-3	72.4969E-12	769.196E-3	-15.7698E-3
2.17859E-3	72.3356E-12	764.972E-3	-11.2645E-3	71.7780E-12	767.528E-3	-5.31657E-3
2.17359E-3	72.4941E-12	771.759E-3	-13.2884E-3	71.5501E-12	766.218E-3	-14.8833E-3
2.16858E-3	72.5012E-12	764.691E-3	-2.91961E-3	70.7265E-12	770.949E-3	-20.7660E-3
2.16358E-3	72.2153E-12	750.416E-3	4.25983E-3	70.5522E-12	774.417E-3	-21.4319E-3
2.15858E-3	71.8986E-12	747.609E-3	5.16207E-3	70.7614E-12	768.951E-3	-23.9440E-3
2.15358E-3	71.7333E-12	747.419E-3	4.54683E-3	70.8296E-12	762.561E-3	-23.1390E-3
2.14857E-3	71.8203E-12	737.755E-3	-3.20228E-3	70.8216E-12	773.247E-3	-27.8239E-3
2.14357E-3	71.5261E-12	738.635E-3	-12.0171E-3	70.3624E-12	783.936E-3	-29.4097E-3
2.13857E-3	71.0218E-12	754.420E-3	-8.36326E-3	70.7209E-12	778.134E-3	-8.71660E-3
2.13357E-3	71.1087E-12	774.291E-3	-5.65445E-3	71.1332E-12	774.369E-3	3.57298E-3
2.12856E-3	71.0555E-12	790.527E-3	-14.1547E-3	70.7683E-12	770.944E-3	-5.75841E-3
2.12356E-3	70.3946E-12	786.926E-3	-20.4501E-3	70.5321E-12	765.391E-3	-3.48553E-3
2.11856E-3	70.1451E-12	770.673E-3	-15.6255E-3	70.2427E-12	768.126E-3	4.66146E-3
2.11356E-3	69.9069E-12	766.330E-3	-11.8368E-3	70.0937E-12	767.171E-3	-5.52679E-3
2.10855E-3	69.7244E-12	775.566E-3	-9.95638E-3	69.4307E-12	757.034E-3	-13.3275E-3
2.10355E-3	69.5985E-12	790.267E-3	-10.4284E-3	68.8005E-12	745.082E-3	-1.45367E-3
2.09855E-3	69.1517E-12	793.208E-3	-19.4734E-3	68.1962E-12	749.396E-3	10.3784E-3
2.09355E-3	68.4185E-12	783.382E-3	-31.0037E-3	67.6334E-12	770.994E-3	9.09803E-3
2.08854E-3	68.4972E-12	780.878E-3	-37.5847E-3	67.3874E-12	787.219E-3	8.76574E-3
2.08354E-3	68.0022E-12	793.146E-3	-35.8767E-3	67.0633E-12	788.476E-3	10.9267E-3
2.07854E-3	67.7183E-12	798.756E-3	-29.4610E-3	66.8871E-12	779.362E-3	-431.309E-6
2.07354E-3	67.0560E-12	787.336E-3	-27.7218E-3	66.5234E-12	774.717E-3	-17.2620E-3
2.06853E-3	66.6071E-12	782.617E-3	-35.8431E-3	66.5219E-12	777.876E-3	-14.3372E-3
2.06353E-3	66.2617E-12	786.137E-3	-34.6141E-3	66.2919E-12	784.378E-3	6.95592E-3
2.05853E-3	66.4555E-12	785.597E-3	-21.9513E-3	66.3560E-12	792.662E-3	4.87186E-3
2.05353E-3	65.7642E-12	790.357E-3	-16.1921E-3	66.1801E-12	792.913E-3	-22.5363E-3
2.04852E-3	65.7739E-12	792.120E-3	-22.1143E-3	66.0020E-12	797.313E-3	-33.3661E-3
2.04352E-3	65.4569E-12	787.333E-3	-27.5334E-3	66.1252E-12	820.204E-3	-32.8165E-3
2.03852E-3	65.4355E-12	789.346E-3	-25.8331E-3	65.8161E-12	829.984E-3	-32.9005E-3
2.03352E-3	65.3301E-12	795.937E-3	-23.9267E-3	65.4593E-12	811.327E-3	-21.6977E-3
2.02851E-3	65.1903E-12	805.575E-3	-22.9081E-3	65.1037E-12	794.820E-3	-11.0723E-3
2.02351E-3	64.8072E-12	802.657E-3	-23.6153E-3	64.6747E-12	797.113E-3	-11.1844E-3
2.01851E-3	64.6134E-12	799.667E-3	-24.0185E-3	64.1674E-12	806.315E-3	-17.6713E-3
2.01351E-3	64.7045E-12	805.194E-3	-26.6747E-3	63.6492E-12	813.744E-3	-27.4372E-3
2.00850E-3	64.4790E-12	803.176E-3	-32.3046E-3	63.2620E-12	810.196E-3	-28.4501E-3
2.00350E-3	63.6992E-12	811.024E-3	-26.8967E-3	63.0463E-12	795.256E-3	-17.8955E-3
1.99850E-3	63.1310E-12	813.262E-3	-6.92644E-3	62.5263E-12	795.813E-3	-3.43854E-3
1.99350E-3	62.9649E-12	801.937E-3	2.80582E-3	62.1198E-12	809.891E-3	5.79279E-3
1.98849E-3	62.6748E-12	804.220E-3	-5.85665E-3	62.2281E-12	809.167E-3	7.65367E-3
1.98349E-3	61.4163E-12	813.893E-3	-18.5038E-3	62.2693E-12	806.277E-3	12.7219E-3
1.97849E-3	60.8269E-12	808.821E-3	-36.0038E-3	61.9916E-12	815.052E-3	13.1780E-3
1.97349E-3	60.5925E-12	798.012E-3	-40.9798E-3	62.1682E-12	815.790E-3	-16.5318E-6
1.96848E-3	60.0053E-12	794.542E-3	-22.0898E-3	62.1699E-12	808.469E-3	-8.30728E-3
1.96348E-3	59.3812E-12	793.156E-3	-4.03568E-3	61.6403E-12	811.271E-3	-10.1126E-3
1.95848E-3	59.2410E-12	800.725E-3	2.33937E-3	61.3387E-12	822.158E-3	-17.9688E-3
1.95348E-3	58.8435E-12	809.434E-3	-2.61302E-3	61.0886E-12	829.455E-3	-12.8540E-3
1.94847E-3	58.7170E-12	806.015E-3	-9.18995E-3	60.7065E-12	833.133E-3	-3.87129E-3
1.94347E-3	58.9991E-12	805.739E-3	-9.72954E-3	60.1486E-12	833.505E-3	-20.0372E-3
1.93847E-3	58.8774E-12	811.057E-3	-4.79654E-3	60.2985E-12	821.934E-3	-32.9810E-3
1.93347E-3	58.8184E-12	820.402E-3	8.16708E-3	59.6824E-12	814.400E-3	-19.2131E-3
1.92846E-3	58.9279E-12	834.112E-3	7.46764E-3	58.9570E-12	819.391E-3	-4.08803E-3
1.92346E-3	59.2409E-12	832.841E-3	-4.87538E-3	58.5313E-12	819.736E-3	-7.00656E-3
1.91846E-3	59.2020E-12	823.357E-3	-16.0056E-3	58.2955E-12	826.062E-3	-15.7258E-3
1.91346E-3	58.9647E-12	812.278E-3	-31.5916E-3	57.3315E-12	827.645E-3	-24.9737E-3
1.90845E-3	58.2936E-12	814.274E-3	-34.2315E-3	57.0324E-12	810.920E-3	-29.9108E-3
1.90345E-3	58.1813E-12	836.455E-3	-22.8457E-3	56.9376E-12	814.639E-3	-19.3370E-3
1.89845E-3	57.9245E-12	848.318E-3	-28.4816E-3	57.0567E-12	838.946E-3	-8.89140E-3
1.89345E-3	57.3797E-12	843.671E-3	-50.1705E-3	57.1344E-12	855.857E-3	-16.6600E-3
1.88844E-3	56.4286E-12	844.012E-3	-44.0679E-3	56.8869E-12	863.325E-3	-16.4889E-3
1.88344E-3	56.3129E-12	849.269E-3	-12.3792E-3	56.8421E-12	863.082E-3	-4.79904E-3
1.87844E-3	56.0627E-12	853.312E-3	5.08829E-3	57.0422E-12	858.461E-3	-16.3030E-3
1.87344E-3	55.5976E-12	856.993E-3	2.70989E-3	57.1692E-12	854.412E-3	-30.4347E-3
1.86843E-3	54.8508E-12	847.936E-3	-7.22258E-3	56.8495E-12	865.535E-3	-22.2104E-3
1.86343E-3	54.5403E-12	828.202E-3	-9.59408E-3	56.7097E-12	891.322E-3	-17.5242E-3
1.85843E-3	54.6019E-12	823.930E-3	-4.50518E-3	56.6640E-12	895.541E-3	-19.8389E-3
1.85343E-3	54.6850E-12	839.591E-3	-14.1171E-3	56.0667E-12	876.751E-3	-13.6733E-3
1.84842E-3	54.0075E-12	850.425E-3	-35.8954E-3	55.6818E-12	873.455E-3	-13.6095E-3
1.84342E-3	54.0001E-12	850.202E-3	-44.1647E-3	55.0120E-12	882.012E-3	-11.6047E-3
1.83842E-3	54.3672E-12	847.797E-3	-32.6241E-3	54.5010E-12	885.763E-3	208.618E-6
1.83342E-3	54.3877E-12	850.228E-3	-16.2423E-3	54.4606E-12	883.052E-3	-1.19907E-3
1.82841E-3	54.2260E-12	860.332E-3	-4.11748E-3	53.8837E-12	869.154E-3	-13.4875E-3
1.82341E-3	54.1482E-12	877.921E-3	1.98499E-3	52.8888E-12	853.720E-3	-19.5876E-3
1.81841E-3	53.7817E-12	893.547E-3	-7.38309E-3	52.4105E-12	845.382E-3	-15.4591E-3
1.81341E-3	53.5757E-12	892.226E-3	-13.4740E-3	52.1644E-12	849.770E-3	-6.78128E-3
1.80840E-3	53.5595E-12	874.174E-3	-1.85017E-3	51.6679E-12	867.951E-3	-1.53071E-3
1.80340E-3	53.1706E-12	876.991E-3	-2.48588E-3	51.3029E-12	884.957E-3	-5.39876E-3
1.79840E-3	52.2965E-12	902.010E-3	-14.2633E-3	51.2483E-12	890.492E-3	-13.7799E-3
1.79340E-3	51.9454E-12	909.708E-3	-17.2302E-3	51.0819E-12	892.574E-3	-23.4359E-3
1.78839E-3	51.7519E-12	905.881E-3	-17.1466E-3	51.1677E-12	904.009E-3	-22.9893E-3
1.78339E-3	51.4809E-12	908.918E-3	-14.4545E-3	51.0327E-12	917.499E-3	-10.0556E-3
1.77839E-3	50.7677E-12	923.002E-3	-5.12805E-3	50.8056E-12	921.673E-3	-2.16251E-3
1.77339E-3	50.2631E-12	933.331E-3	-4.68330E-3	50.3649E-12	917.071E-3	-808.759E-6
1.76838E-3	49.6275E-12	919.329E-3	-18.8459E-3	50.6616E-12	912.872E-3	3.77892E-3
1.76338E-3	49.3798E-12	894.760E-3	-24.3160E-3	50.0092E-12	925.647E-3	5.36851E-3
1.75838E-3	48.8606E-12	884.992E-3	-22.1738E-3	49.4907E-12	936.047E-3	-429.556E-6
1.75338E-3	48.5370E-12	889.457E-3	-23.9775E-3	49.1443E-12	927.617E-3	203.666E-6
1.74837E-3	48.4704E-12	885.847E-3	-19.1959E-3	49.2540E-12	924.694E-3	4.27021E-3
1.74337E-3	48.0829E-12	879.651E-3	-17.3898E-3	48.3931E-12	929.906E-3	-6.15182E-3
1.73837E-3	48.0063E-12	884.056E-3	-20.7142E-3	48.2348E-12	935.739E-3	-20.2177E-3
1.73337E-3	47.6703E-12	899.033E-3	-17.6143E-3	48.1780E-12	943.243E-3	-17.5137E-3
1.72836E-3	47.5679E-12	923.267E-3	-15.1228E-3	47.5871E-12	943.633E-3	-13.7436E-3
1.72336E-3	47.1522E-12	943.127E-3	-13.2591E-3	47.4220E-12	930.873E-3	-22.0116E-3
1.71836E-3	46.9329E-12	947.154E-3	-17.1458E-3	47.5061E-12	928.204E-3	-30.2248E-3
1.71336E-3	46.3677E-12	948.786E-3	-22.9726E-3	46.9283E-12	939.933E-3	-32.7906E-3
1.70835E-3	46.3452E-12	951.885E-3	-22.2373E-3	46.4463E-12	945.256E-3	-28.6745E-3
1.70335E-3	46.1123E-12	949.243E-3	-7.36110E-3	46.5240E-12	954.700E-3	-13.9552E-3
1.69835E-3	45.5359E-12	951.119E-3	10.7153E-3	45.8574E-12	966.960E-3	-6.12556E-3
1.69335E-3	45.1427E-12	956.331E-3	5.48928E-3	45.3551E-12	969.165E-3	-11.8642E-3
1.68834E-3	44.7647E-12	963.996E-3	-20.9625E-3	45.0275E-12	973.285E-3	-11.0862E-3
1.68334E-3	44.4003E-12	971.592E-3	-37.5593E-3	44.8629E-12	981.212E-3	3.04637E-3
1.67834E-3	43.7881E-12	973.625E-3	-29.5526E-3	44.3005E-12	978.916E-3	7.51590E-3
1.67334E-3	43.3441E-12	973.468E-3	-20.1893E-3	43.7722E-12	978.829E-3	-12.7651E-3
1.66833E-3	42.8733E-12	971.854E-3	-24.8370E-3	43.3647E-12	992.214E-3	-28.4717E-3
1.66333E-3	42.6630E-12	976.028E-3	-32.1742E-3	42.9859E-12	1.00802E+0	-25.7192E-3
1.65833E-3	42.3479E-12	980.403E-3	-29.3838E-3	42.7575E-12	1.01406E+0	-16.1713E-3
1.65333E-3	41.8254E-12	975.425E-3	-23.9104E-3	42.4443E-12	1.01730E+0	-10.7492E-3
1.64832E-3	41.6590E-12	978.147E-3	-14.8341E-3	42.0610E-12	1.02973E+0	-14.6417E-3
1.64332E-3	41.5017E-12	986.946E-3	-9.98390E-3	41.7899E-12	1.03432E+0	-19.4290E-3
1.63832E-3	41.2433E-12	988.318E-3	-18.6011E-3	41.5654E-12	1.03601E+0	-20.8550E-3
1.63332E-3	40.8827E-12	993.821E-3	-16.1304E-3	41.6465E-12	1.04008E+0	-15.4870E-3
1.62831E-3	40.8540E-12	1.02020E+0	6.93917E-3	41.2372E-12	1.03408E+0	-9.72096E-3
1.62331E-3	40.4916E-12	1.04318E+0	21.7160E-3	41.0334E-12	1.03469E+0	-12.5030E-3
1.61831E-3	40.1695E-12	1.04146E+0	22.2920E-3	40.4535E-12	1.04602E+0	-16.5653E-3
1.61331E-3	39.9138E-12	1.03067E+0	17.1852E-3	40.3593E-12	1.05247E+0	-17.7248E-3
1.60830E-3	39.8421E-12	1.02237E+0	5.71923E-3	40.0469E-12	1.05489E+0	-15.9462E-3
1.60330E-3	39.6103E-12	1.03504E+0	-9.60592E-3	39.4833E-12	1.05093E+0	-14.0972E-3
1.59830E-3	39.2640E-12	1.05591E+0	-21.7797E-3	38.9444E-12	1.04251E+0	-13.1069E-3
1.59330E-3	39.2421E-12	1.05593E+0	-25.7191E-3	38.8004E-12	1.04331E+0	-11.0139E-3
1.58829E-3	38.8846E-12	1.05293E+0	-25.2113E-3	38.5546E-12	1.04735E+0	-21.4773E-3
1.58329E-3	38.4961E-12	1.07550E+0	-28.1439E-3	37.8573E-12	1.04967E+0	-27.0338E-3
1.57829E-3	38.1499E-12	1.10190E+0	-32.3551E-3	37.2373E-12	1.05817E+0	-13.2515E-3
1.57329E-3	37.7245E-12	1.09850E+0	-27.8663E-3	36.9902E-12	1.06795E+0	-14.4946E-3
1.56828E-3	37.2949E-12	1.08900E+0	-24.1517E-3	36.7625E-12	1.07100E+0	-31.2734E-3
1.56328E-3	36.9014E-12	1.09518E+0	-15.5502E-3	36.2164E-12	1.07565E+0	-31.6590E-3
1.55828E-3	36.2622E-12	1.08906E+0	-13.6758E-3	35.8764E-12	1.09012E+0	-21.7687E-3
1.55328E-3	36.0687E-12	1.08108E+0	-27.1301E-3	35.4359E-12	1.11284E+0	-21.6407E-3
1.54827E-3	35.4352E-12	1.09531E+0	-18.8572E-3	35.2150E-12	1.12580E+0	-19.2502E-3
1.54327E-3	34.9295E-12	1.10378E+0	3.89806E-3	35.1434E-12	1.12811E+0	-10.2151E-3
1.53827E-3	34.3492E-12	1.09799E+0	2.34103E-3	34.7972E-12	1.13459E+0	-6.01048E-3
1.53327E-3	34.2145E-12	1.09305E+0	-15.7084E-3	34.6833E-12	1.14285E+0	-10.4867E-3
1.52826E-3	33.9198E-12	1.09366E+0	-35.1857E-3	34.4715E-12	1.15700E+0	-17.5766E-3
1.52326E-3	33.3790E-12	1.10232E+0	-52.0261E-3	34.0927E-12	1.16685E+0	-20.6775E-3
1.51826E-3	33.1478E-12	1.10883E+0	-44.9350E-3	33.9589E-12	1.15598E+0	-25.6725E-3
1.51326E-3	32.9997E-12	1.10600E+0	-25.2553E-3	33.5974E-12	1.14746E+0	-35.2466E-3
1.50825E-3	32.7778E-12	1.10621E+0	-10.4266E-3	32.9197E-12	1.15597E+0	-33.9335E-3
1.50325E-3	32.4617E-12	1.11577E+0	-1.87370E-3	32.4822E-12	1.15047E+0	-19.4936E-3
1.49825E-3	32.0859E-12	1.12127E+0	-10.0247E-3	32.0885E-12	1.12271E+0	-11.4092E-3
1.49325E-3	31.7300E-12	1.12581E+0	-26.9751E-3	31.6242E-12	1.10129E+0	-12.6360E-3
1.48824E-3	31.5124E-12	1.13814E+0	-29.1420E-3	30.8567E-12	1.09564E+0	-14.0194E-3
1.48324E-3	31.1436E-12	1.14462E+0	-28.6761E-3	30.3161E-12	1.10960E+0	-3.40277E-3
1.47824E-3	30.5497E-12	1.14345E+0	-40.9350E-3	29.8652E-12	1.12835E+0	11.3617E-3
1.47324E-3	30.1773E-12	1.14425E+0	-38.5083E-3	29.5819E-12	1.12681E+0	4.41424E-3
1.46823E-3	29.8393E-12	1.15376E+0	-29.4082E-3	29.0607E-12	1.12436E+0	-14.6320E-3
1.46323E-3	29.1609E-12	1.16544E+0	-30.6153E-3	28.4690E-12	1.13167E+0	-33.4332E-3
1.45823E-3	28.5320E-12	1.16614E+0	-34.2725E-3	28.2059E-12	1.13475E+0	-46.3260E-3
1.45323E-3	27.9883E-12	1.15182E+0	-37.1781E-3	28.2261E-12	1.14032E+0	-45.1593E-3
1.44822E-3	27.4647E-12	1.13920E+0	-28.5639E-3	27.7300E-12	1.14858E+0	-40.9745E-3
1.44322E-3	26.9016E-12	1.13042E+0	-13.3406E-3	27.2716E-12	1.14921E+0	-24.8235E-3
1.43822E-3	26.5737E-12	1.10687E+0	-8.26732E-3	27.2736E-12	1.14389E+0	747.681E-6
1.43322E-3	26.0919E-12	1.09269E+0	-9.14676E-3	27.2138E-12	1.14201E+0	-1.54449E-3
1.42821E-3	25.6591E-12	1.09174E+0	-6.70257E-3	26.6696E-12	1.13943E+0	-19.6196E-3
1.42321E-3	25.3888E-12	1.08248E+0	-4.19406E-3	26.3523E-12	1.12936E+0	-20.0522E-3
1.41821E-3	25.0055E-12	1.08426E+0	-3.89969E-3	25.9076E-12	1.12017E+0	-20.7931E-3
1.41321E-3	24.7592E-12	1.08992E+0	-8.25573E-3	25.4816E-12	1.11456E+0	-34.7969E-3
1.40820E-3	24.4644E-12	1.08551E+0	-17.8229E-3	25.0425E-12	1.11391E+0	-34.5792E-3
1.40320E-3	24.2038E-12	1.08314E+0	-26.9016E-3	24.6520E-12	1.10724E+0	-25.5270E-3
1.39820E-3	24.0624E-12	1.08307E+0	-32.5145E-3	24.2597E-12	1.08822E+0	-27.5864E-3
1.39320E-3	23.8021E-12	1.09109E+0	-33.3521E-3	23.9166E-12	1.06802E+0	-26.9085E-3
1.38819E-3	23.3837E-12	1.10327E+0	-29.8006E-3	23.4067E-12	1.05985E+0	-20.5229E-3
1.38319E-3	23.1802E-12	1.10715E+0	-23.1797E-3	23.2182E-12	1.06311E+0	-15.8017E-3
1.37819E-3	22.8964E-12	1.09587E+0	-17.3460E-3	22.9289E-12	1.06587E+0	-10.3718E-3
1.37319E-3	22.5024E-12	1.08367E+0	-22.8216E-3	22.3966E-12	1.06740E+0	-11.8033E-3
1.36818E-3	21.9154E-12	1.07821E+0	-24.7050E-3	21.7839E-12	1.06291E+0	-18.7207E-3
1.36318E-3	21.3854E-12	1.07198E+0	-19.3715E-3	21.5408E-12	1.05508E+0	-17.1753E-3
1.35818E-3	21.0237E-12	1.07150E+0	-20.9758E-3	21.4150E-12	1.05979E+0	-20.1852E-3
1.35318E-3	20.6179E-12	1.07199E+0	-19.3194E-3	20.7991E-12	1.06986E+0	-31.2656E-3
1.34817E-3	20.0815E-12	1.06255E+0	-11.1376E-3	20.3340E-12	1.06095E+0	-30.2107E-3
1.34317E-3	19.8024E-12	1.04377E+0	-6.90624E-3	20.2246E-12	1.03511E+0	-26.6006E-3
1.33817E-3	19.5832E-12	1.02849E+0	-14.6219E-3	20.1504E-12	1.01150E+0	-30.4407E-3
1.33317E-3	19.4333E-12	1.02030E+0	-20.9122E-3	19.6680E-12	995.774E-3	-19.7004E-3
1.32816E-3	19.0550E-12	1.01152E+0	-19.8616E-3	19.2087E-12	990.673E-3	-7.00425E-3
1.32316E-3	18.6794E-12	1.00587E+0	-23.0092E-3	18.9482E-12	980.819E-3	-10.4715E-3
1.31816E-3	18.4520E-12	1.00229E+0	-28.8018E-3	18.7004E-12	960.233E-3	-13.5936E-3
1.31316E-3	18.3183E-12	1.00202E+0	-24.8651E-3	18.4937E-12	955.778E-3	-16.0527E-3
1.30815E-3	18.0960E-12	1.00931E+0	-17.1793E-3	17.9994E-12	951.458E-3	-21.2866E-3
1.30315E-3	17.7583E-12	1.00246E+0	-11.3849E-3	17.6556E-12	935.416E-3	-17.2643E-3
1.29815E-3	17.6068E-12	981.611E-3	-8.61377E-3	17.5908E-12	919.290E-3	-8.62786E-3
1.29315E-3	17.3287E-12	973.997E-3	-17.9661E-3	17.2000E-12	903.814E-3	-17.2464E-3
1.28814E-3	17.0721E-12	965.338E-3	-17.7010E-3	16.9047E-12	902.179E-3	-34.3238E-3
1.28314E-3	16.8485E-12	943.017E-3	-10.9576E-3	16.6162E-12	894.560E-3	-31.1604E-3
1.27814E-3	16.5708E-12	927.540E-3	-13.1605E-3	16.3671E-12	865.946E-3	-18.0553E-3
1.27314E-3	16.0218E-12	921.560E-3	-15.7053E-3	15.9228E-12	836.886E-3	-12.4056E-3
1.26813E-3	15.7990E-12	912.763E-3	-23.2856E-3	15.6359E-12	812.624E-3	-7.68248E-3
1.26313E-3	15.5437E-12	905.093E-3	-27.1764E-3	15.3868E-12	799.003E-3	-7.80790E-3
1.25813E-3	15.1155E-12	893.592E-3	-18.5729E-3	15.0221E-12	794.827E-3	-7.52618E-3
1.25313E-3	14.6345E-12	872.780E-3	-8.41396E-3	14.6271E-12	782.519E-3	-3.29300E-3
1.24812E-3	14.3831E-12	850.154E-3	-3.88849E-3	14.3007E-12	755.877E-3	-11.1036E-3
1.24312E-3	14.0111E-12	821.175E-3	-12.0061E-3	14.1993E-12	725.825E-3	-29.0599E-3
1.23812E-3	13.7343E-12	790.448E-3	-18.7864E-3	13.8358E-12	704.349E-3	-33.8441E-3
1.23312E-3	13.4510E-12	764.587E-3	-11.2551E-3	13.4554E-12	691.714E-3	-24.2329E-3
1.22811E-3	13.2056E-12	741.536E-3	-5.16542E-3	13.2884E-12	688.913E-3	-17.8749E-3
1.22311E-3	12.9984E-12	729.184E-3	-4.99793E-3	13.1943E-12	684.331E-3	-15.8987E-3
1.21811E-3	12.7767E-12	723.384E-3	-12.5531E-3	12.8199E-12	666.006E-3	-19.6230E-3
1.21311E-3	12.5496E-12	710.910E-3	-21.0755E-3	12.5148E-12	642.447E-3	-23.3083E-3
1.20810E-3	12.3419E-12	694.560E-3	-17.6106E-3	12.4430E-12	629.485E-3	-15.1796E-3
1.20310E-3	12.1645E-12	682.281E-3	-6.99474E-3	12.2109E-12	627.679E-3	-7.06465E-3
1.19810E-3	11.9463E-12	671.912E-3	-4.52902E-3	12.0892E-12	616.798E-3	-10.6558E-3
1.19310E-3	11.8344E-12	661.751E-3	-15.4150E-3	11.8082E-12	595.915E-3	-11.2407E-3
1.18809E-3	11.6540E-12	653.242E-3	-28.2458E-3	11.6290E-12	580.647E-3	-3.41140E-3
1.18309E-3	11.3243E-12	647.726E-3	-35.2441E-3	11.6262E-12	570.705E-3	-2.49214E-3
1.17809E-3	11.2305E-12	636.423E-3	-29.0246E-3	11.4481E-12	553.720E-3	-6.36191E-3
1.17309E-3	11.0744E-12	608.666E-3	-15.1050E-3	10.9862E-12	531.788E-3	-4.24241E-3
1.16808E-3	10.9399E-12	586.524E-3	-12.4314E-3	10.8381E-12	511.602E-3	-1.89995E-3
1.16308E-3	10.6156E-12	574.778E-3	-14.1233E-3	10.7131E-12	489.091E-3	-15.3705E-3
1.15808E-3	10.3710E-12	565.052E-3	-3.80444E-3	10.4386E-12	472.721E-3	-35.3461E-3
1.15308E-3	10.2549E-12	564.690E-3	-1.26124E-3	10.0416E-12	462.846E-3	-31.1743E-3
1.14807E-3	9.99836E-12	554.840E-3	-13.3373E-3	9.91845E-12	448.034E-3	-8.27250E-3
1.14307E-3	9.73156E-12	522.354E-3	-16.5272E-3	9.80085E-12	428.452E-3	-5.79944E-3
1.13807E-3	9.43037E-12	494.854E-3	-16.8210E-3	9.52425E-12	418.899E-3	-29.6621E-3
1.13307E-3	9.30343E-12	480.389E-3	-18.5952E-3	9.41554E-12	418.059E-3	-44.9907E-3
1.12806E-3	9.24173E-12	463.866E-3	-9.31749E-3	9.27734E-12	406.638E-3	-34.6087E-3
1.12306E-3	8.99154E-12	452.554E-3	-3.94723E-3	9.09533E-12	387.333E-3	-18.3136E-3
1.11806E-3	8.71966E-12	444.272E-3	-9.51316E-3	8.97903E-12	366.807E-3	-18.0899E-3
1.11306E-3	8.65877E-12	426.457E-3	-4.28605E-3	8.87886E-12	353.111E-3	-23.9701E-3
1.10805E-3	8.54793E-12	405.095E-3	-1.04617E-3	8.77704E-12	351.014E-3	-27.2643E-3
1.10305E-3	8.40149E-12	387.839E-3	-8.86904E-3	8.62963E-12	350.070E-3	-26.4393E-3
1.09805E-3	8.34280E-12	374.376E-3	-12.3353E-3	8.47062E-12	338.735E-3	-15.3161E-3
1.09305E-3	8.29804E-12	366.245E-3	-16.2638E-3	8.43291E-12	320.784E-3	-7.74173E-3
1.08804E-3	8.26159E-12	360.580E-3	-11.2096E-3	8.43117E-12	306.172E-3	-11.1196E-3
1.08304E-3	8.19096E-12	347.960E-3	2.95393E-3	8.29243E-12	293.910E-3	-14.2425E-3
1.07804E-3	8.15276E-12	335.004E-3	5.68360E-3	8.09234E-12	291.467E-3	-17.1035E-3
1.07304E-3	8.02689E-12	330.865E-3	2.67063E-3	7.91618E-12	282.078E-3	-21.9300E-3
1.06803E-3	7.93892E-12	325.910E-3	-5.24910E-3	7.95590E-12	259.839E-3	-17.3169E-3
1.06303E-3	7.92165E-12	319.025E-3	-28.8804E-3	7.81131E-12	252.779E-3	-17.8343E-3
1.05803E-3	7.90650E-12	312.032E-3	-41.3419E-3	7.58147E-12	252.980E-3	-26.5639E-3
1.05303E-3	7.83995E-12	291.825E-3	-30.7594E-3	7.42483E-12	248.469E-3	-20.7020E-3
1.04802E-3	7.74425E-12	266.340E-3	-26.5561E-3	7.54491E-12	232.360E-3	-16.3256E-3
1.04302E-3	7.56761E-12	260.767E-3	-32.9083E-3	7.51431E-12	200.068E-3	-21.9486E-3
1.03802E-3	7.48054E-12	265.260E-3	-25.6673E-3	7.28785E-12	173.385E-3	-22.2814E-3
1.03302E-3	7.37633E-12	257.536E-3	-7.51087E-3	7.13871E-12	166.087E-3	-22.4403E-3
1.02801E-3	7.11851E-12	239.167E-3	-1.97968E-3	7.05675E-12	169.343E-3	-19.4558E-3
1.02301E-3	6.79267E-12	224.945E-3	-13.5151E-3	6.97906E-12	168.258E-3	-12.5097E-3
1.01801E-3	6.76838E-12	214.191E-3	-25.5723E-3	6.78217E-12	164.521E-3	-9.28757E-3
1.01301E-3	6.80634E-12	194.161E-3	-31.9015E-3	6.79418E-12	160.225E-3	-14.4715E-3
1.00800E-3	6.64322E-12	176.593E-3	-32.5645E-3	6.78250E-12	153.399E-3	-30.3378E-3
1.00300E-3	6.51479E-12	174.376E-3	-19.7134E-3	6.69908E-12	155.262E-3	-32.4627E-3
997.999E-6	6.53736E-12	181.230E-3	-10.0979E-3	6.69086E-12	161.235E-3	-18.3215E-3
992.997E-6	6.59033E-12	183.821E-3	-14.6066E-3	6.69617E-12	162.458E-3	-11.8881E-3
987.994E-6	6.52154E-12	168.048E-3	-22.5801E-3	6.64410E-12	158.732E-3	-11.7234E-3
982.991E-6	6.56524E-12	149.371E-3	-27.6667E-3	6.46562E-12	153.096E-3	-14.9571E-3
977.989E-6	6.55864E-12	147.696E-3	-26.4964E-3	6.44320E-12	154.019E-3	-26.7615E-3
972.986E-6	6.50832E-12	152.118E-3	-21.8976E-3	6.47034E-12	152.687E-3	-35.5971E-3
967.984E-6	6.60243E-12	144.058E-3	-19.7359E-3	6.28573E-12	139.949E-3	-26.8082E-3
962.981E-6	6.53141E-12	132.258E-3	-21.4995E-3	6.13222E-12	121.465E-3	-21.8696E-3
957.979E-6	6.46358E-12	131.412E-3	-24.2101E-3	6.11445E-12	117.488E-3	-31.8507E-3
952.976E-6	6.41988E-12	131.131E-3	-19.8293E-3	6.08635E-12	131.375E-3	-33.2658E-3
947.974E-6	6.32599E-12	128.875E-3	-11.8976E-3	6.07214E-12	139.920E-3	-19.7380E-3
942.971E-6	6.32196E-12	125.796E-3	-16.7847E-3	5.89943E-12	138.752E-3	-3.50892E-3
937.969E-6	6.22165E-12	119.699E-3	-18.5968E-3	5.86235E-12	131.890E-3	-927.019E-6
932.966E-6	5.99553E-12	119.125E-3	-11.0250E-3	5.97823E-12	121.849E-3	-9.08376E-3
927.964E-6	5.85180E-12	122.053E-3	-13.7711E-3	5.99057E-12	118.832E-3	-2.49745E-3
922.961E-6	5.83621E-12	134.410E-3	-15.8349E-3	5.77167E-12	114.777E-3	14.4278E-3
917.959E-6	5.91838E-12	143.367E-3	-10.6746E-3	5.74328E-12	100.407E-3	13.7260E-3
912.956E-6	5.65929E-12	127.369E-3	-12.6304E-3	5.80835E-12	95.3913E-3	-4.04524E-3
907.954E-6	5.53029E-12	107.195E-3	-14.6370E-3	5.72183E-12	114.811E-3	-21.5479E-3
902.951E-6	5.61396E-12	105.818E-3	-11.8166E-3	5.70304E-12	128.629E-3	-27.6172E-3
897.949E-6	5.62432E-12	118.483E-3	-13.7391E-3	5.67694E-12	117.889E-3	-15.6725E-3
892.946E-6	5.50778E-12	122.248E-3	-25.9284E-3	5.71802E-12	102.461E-3	-1.63448E-3
887.944E-6	5.35424E-12	110.015E-3	-33.4521E-3	5.60956E-12	96.2655E-3	-7.83259E-3
882.941E-6	5.45662E-12	92.2706E-3	-20.0983E-3	5.59241E-12	96.1770E-3	-19.9426E-3
877.939E-6	5.54763E-12	90.9163E-3	-12.8177E-3	5.54345E-12	98.3618E-3	-19.0389E-3
872.936E-6	5.48926E-12	108.928E-3	-12.4739E-3	5.51563E-12	104.306E-3	-15.5345E-3
867.934E-6	5.40372E-12	121.239E-3	-6.06718E-3	5.46698E-12	106.577E-3	-7.50548E-3
862.931E-6	5.45729E-12	120.500E-3	-15.1995E-3	5.37962E-12	107.031E-3	7.62673E-3
857.929E-6	5.45482E-12	118.565E-3	-26.0450E-3	5.40060E-12	100.861E-3	3.94014E-3
852.926E-6	5.45630E-12	118.796E-3	-14.4593E-3	5.34120E-12	86.7371E-3	-12.5717E-3
847.924E-6	5.36192E-12	114.933E-3	-3.12670E-3	5.19551E-12	84.8469E-3	-13.7199E-3
842.921E-6	5.30898E-12	106.338E-3	-17.3204E-3	5.21386E-12	95.1440E-3	-15.1458E-3
837.919E-6	5.27961E-12	92.4433E-3	-32.8033E-3	5.29205E-12	101.015E-3	-19.7964E-3
832.916E-6	5.23206E-12	81.7905E-3	-24.1061E-3	5.15560E-12	107.737E-3	-16.1958E-3
827.914E-6	5.20256E-12	93.1796E-3	-6.54552E-3	5.13157E-12	119.355E-3	-16.2268E-3
822.911E-6	5.08139E-12	115.194E-3	-3.98361E-3	5.04932E-12	119.406E-3	-14.5810E-3
817.909E-6	4.95960E-12	126.673E-3	-9.27011E-3	5.16757E-12	116.283E-3	-10.0498E-3
812.906E-6	4.85697E-12	119.043E-3	-10.4431E-3	5.13393E-12	118.610E-3	-14.4965E-3
807.904E-6	4.95519E-12	101.022E-3	-7.49997E-3	5.01057E-12	118.102E-3	-25.3069E-3
802.901E-6	4.86000E-12	91.6424E-3	-5.11427E-3	4.91031E-12	128.451E-3	-26.7578E-3
797.899E-6	4.81534E-12	93.3779E-3	-8.05602E-3	5.04498E-12	142.171E-3	-21.0837E-3
792.896E-6	4.64949E-12	103.291E-3	-13.9821E-3	4.99433E-12	135.666E-3	-20.0879E-3
787.894E-6	4.79277E-12	107.777E-3	-19.4966E-3	4.90897E-12	123.971E-3	-15.6766E-3
782.891E-6	4.84933E-12	104.956E-3	-17.0475E-3	4.77041E-12	123.554E-3	-17.9321E-3
777.889E-6	4.72825E-12	106.338E-3	-11.1003E-3	4.85959E-12	130.937E-3	-29.9000E-3
772.886E-6	4.68905E-12	110.060E-3	-12.0326E-3	4.83623E-12	134.255E-3	-22.7283E-3
767.884E-6	4.80759E-12	113.163E-3	-20.2573E-3	4.65524E-12	127.261E-3	-10.5522E-3
762.881E-6	4.88757E-12	115.640E-3	-18.6297E-3	4.70050E-12	116.809E-3	-16.3667E-3
757.879E-6	4.73393E-12	116.285E-3	-7.39209E-3	4.62921E-12	114.914E-3	-23.9962E-3
752.876E-6	4.67400E-12	116.161E-3	-5.82570E-3	4.62679E-12	128.912E-3	-24.0365E-3
747.874E-6	4.68602E-12	118.754E-3	-7.36721E-3	4.48814E-12	137.827E-3	-21.4026E-3
742.871E-6	4.71269E-12	130.305E-3	-11.1582E-3	4.47656E-12	137.996E-3	-18.3718E-3
737.869E-6	4.67932E-12	150.204E-3	-26.6219E-3	4.45992E-12	143.326E-3	-19.4992E-3
732.866E-6	4.55660E-12	156.609E-3	-34.2831E-3	4.26405E-12	142.632E-3	-29.2013E-3
727.864E-6	4.54689E-12	143.832E-3	-19.5347E-3	4.30821E-12	138.167E-3	-37.2030E-3
722.861E-6	4.41641E-12	138.794E-3	-8.39349E-3	4.29005E-12	139.814E-3	-30.5004E-3
717.859E-6	4.38600E-12	143.512E-3	-17.8414E-3	4.27576E-12	144.712E-3	-17.9163E-3
712.856E-6	4.29381E-12	143.535E-3	-34.7801E-3	4.11551E-12	154.258E-3	-14.3747E-3
707.854E-6	4.20399E-12	140.908E-3	-39.3286E-3	4.11964E-12	162.645E-3	-18.8545E-3
702.851E-6	4.16175E-12	139.862E-3	-20.5846E-3	4.17716E-12	163.460E-3	-24.1521E-3
697.849E-6	4.03059E-12	138.275E-3	1.52102E-3	4.18468E-12	162.464E-3	-16.4390E-3
692.846E-6	4.01786E-12	136.382E-3	1.44535E-3	3.98566E-12	164.102E-3	-434.858E-6
687.844E-6	4.05517E-12	137.397E-3	-6.66793E-3	3.94058E-12	158.983E-3	-4.84955E-3
682.841E-6	3.90820E-12	144.611E-3	-8.72226E-3	4.06362E-12	148.596E-3	-20.6655E-3
677.839E-6	3.73558E-12	154.202E-3	-11.6810E-3	3.99637E-12	152.806E-3	-22.7997E-3
672.836E-6	3.84463E-12	152.911E-3	-14.7518E-3	3.83515E-12	162.833E-3	-17.5931E-3
667.834E-6	3.88794E-12	146.295E-3	-24.3376E-3	3.72921E-12	162.465E-3	-9.11191E-3
662.831E-6	3.74800E-12	143.043E-3	-31.3540E-3	3.75977E-12	157.633E-3	-1.46259E-3
657.829E-6	3.63731E-12	138.193E-3	-21.7491E-3	3.75607E-12	155.229E-3	-8.44831E-3
652.826E-6	3.76185E-12	139.383E-3	-5.17241E-3	3.54697E-12	158.885E-3	-17.1333E-3
647.824E-6	3.77563E-12	148.789E-3	6.40839E-3	3.47137E-12	165.466E-3	-12.6186E-3
642.821E-6	3.67000E-12	160.292E-3	3.39357E-3	3.46808E-12	165.260E-3	-4.08834E-3
637.819E-6	3.57074E-12	168.693E-3	-10.8433E-3	3.44344E-12	154.011E-3	-4.15221E-3
632.816E-6	3.58805E-12	168.052E-3	-16.0612E-3	3.31059E-12	143.102E-3	-12.4452E-3
627.814E-6	3.61309E-12	162.759E-3	-7.57560E-3	3.23054E-12	145.813E-3	-22.3868E-3
622.811E-6	3.46613E-12	157.447E-3	-2.93885E-3	3.23412E-12	157.061E-3	-27.9165E-3
617.809E-6	3.31124E-12	156.779E-3	-12.9605E-3	3.15499E-12	167.254E-3	-18.6605E-3
612.806E-6	3.28012E-12	158.857E-3	-28.2688E-3	3.08330E-12	167.555E-3	-6.61167E-3
607.804E-6	3.23705E-12	158.298E-3	-35.3432E-3	3.06766E-12	160.160E-3	-10.3954E-3
602.801E-6	3.10391E-12	155.899E-3	-30.4675E-3	3.09000E-12	155.899E-3	-21.8615E-3
597.799E-6	3.03443E-12	162.626E-3	-19.7474E-3	2.94470E-12	152.846E-3	-28.6266E-3
592.796E-6	2.97145E-12	175.593E-3	-18.7090E-3	2.93993E-12	152.746E-3	-25.2904E-3
587.794E-6	2.87974E-12	174.298E-3	-24.0232E-3	2.98826E-12	161.063E-3	-20.7503E-3
582.791E-6	2.80420E-12	167.800E-3	-24.7768E-3	2.88206E-12	166.646E-3	-18.8973E-3
577.789E-6	2.75304E-12	169.171E-3	-19.0478E-3	2.77590E-12	158.943E-3	-7.97445E-3
572.786E-6	2.71452E-12	168.564E-3	-13.1272E-3	2.72126E-12	152.972E-3	-634.365E-6
567.784E-6	2.57916E-12	158.749E-3	-16.2967E-3	2.75646E-12	163.340E-3	-8.46372E-3
562.781E-6	2.50752E-12	148.147E-3	-18.8155E-3	2.75046E-12	167.138E-3	-19.6715E-3
557.779E-6	2.56088E-12	148.389E-3	-19.3959E-3	2.54808E-12	149.615E-3	-22.6598E-3
552.776E-6	2.58771E-12	154.723E-3	-16.8311E-3	2.48195E-12	130.718E-3	-21.4528E-3
547.774E-6	2.43307E-12	165.112E-3	-9.85868E-3	2.55967E-12	131.602E-3	-30.1774E-3
542.771E-6	2.33708E-12	173.690E-3	-12.1044E-3	2.51302E-12	148.775E-3	-39.9441E-3
537.769E-6	2.43134E-12	164.387E-3	-16.9890E-3	2.32739E-12	161.841E-3	-32.9708E-3
532.766E-6	2.46508E-12	148.841E-3	-11.1430E-3	2.26250E-12	165.879E-3	-22.0803E-3
527.764E-6	2.26900E-12	148.976E-3	2.84707E-3	2.28466E-12	167.621E-3	-23.4513E-3
522.761E-6	2.16475E-12	167.541E-3	10.0269E-3	2.24203E-12	164.071E-3	-25.2473E-3
517.759E-6	2.23389E-12	182.154E-3	1.87843E-3	2.10098E-12	154.630E-3	-23.2452E-3
512.756E-6	2.21078E-12	180.313E-3	-5.64017E-3	2.07458E-12	146.590E-3	-21.1392E-3
507.754E-6	2.06238E-12	168.120E-3	-4.90376E-3	1.98415E-12	142.442E-3	-22.2100E-3
502.751E-6	1.92364E-12	154.765E-3	-7.66150E-3	2.01173E-12	137.619E-3	-31.8096E-3
497.749E-6	1.91724E-12	159.392E-3	-15.1045E-3	1.95061E-12	134.917E-3	-35.5454E-3
492.746E-6	1.98020E-12	161.513E-3	-19.5571E-3	1.94337E-12	140.042E-3	-26.8183E-3
487.744E-6	1.82825E-12	147.438E-3	-14.4652E-3	1.93964E-12	137.493E-3	-25.0476E-3
482.741E-6	1.78550E-12	132.906E-3	-6.80398E-3	1.84202E-12	128.162E-3	-32.3279E-3
477.739E-6	1.75241E-12	127.919E-3	-12.0688E-3	1.73251E-12	132.219E-3	-36.3527E-3
472.736E-6	1.71516E-12	134.216E-3	-19.9812E-3	1.77323E-12	137.610E-3	-29.1287E-3
467.734E-6	1.66574E-12	140.118E-3	-19.7296E-3	1.70674E-12	134.036E-3	-14.1933E-3
462.731E-6	1.55646E-12	136.415E-3	-18.2316E-3	1.56267E-12	137.851E-3	-5.24090E-3
457.729E-6	1.58778E-12	127.831E-3	-17.8225E-3	1.61049E-12	140.035E-3	-11.4378E-3
452.726E-6	1.51860E-12	126.089E-3	-8.28863E-3	1.57663E-12	126.927E-3	-20.1107E-3
447.724E-6	1.45560E-12	129.586E-3	797.747E-6	1.55022E-12	121.127E-3	-17.4908E-3
442.721E-6	1.48655E-12	148.081E-3	-14.5611E-3	1.40842E-12	133.515E-3	-18.5216E-3
437.719E-6	1.47782E-12	164.636E-3	-37.3193E-3	1.31210E-12	144.405E-3	-19.2467E-3
432.716E-6	1.33413E-12	150.971E-3	-37.6543E-3	1.43153E-12	138.041E-3	-8.63580E-3
427.714E-6	1.29111E-12	135.209E-3	-15.9910E-3	1.39097E-12	125.372E-3	-6.71177E-3
422.711E-6	1.34152E-12	134.874E-3	9.27658E-3	1.22650E-12	124.206E-3	-6.74061E-3
417.709E-6	1.34448E-12	128.054E-3	15.6003E-3	1.13884E-12	124.971E-3	-2.07769E-3
412.706E-6	1.17853E-12	120.795E-3	3.18390E-3	1.19178E-12	120.307E-3	-4.95076E-3
407.704E-6	1.02677E-12	125.210E-3	-7.98989E-3	1.16907E-12	112.974E-3	-7.18689E-3
402.701E-6	1.13422E-12	130.080E-3	-6.41714E-3	1.01932E-12	106.429E-3	-7.87962E-3
397.699E-6	1.13617E-12	129.125E-3	804.548E-6	981.426E-15	106.618E-3	-8.38523E-3
392.696E-6	994.653E-15	130.755E-3	-3.21707E-3	1.00235E-12	106.905E-3	-7.48342E-3
387.694E-6	903.929E-15	133.079E-3	-15.7918E-3	972.689E-15	101.536E-3	-11.3376E-3
382.691E-6	917.618E-15	120.903E-3	-23.0198E-3	889.158E-15	87.5487E-3	-23.7558E-3
377.689E-6	988.576E-15	104.994E-3	-18.2137E-3	862.050E-15	75.0862E-3	-35.3489E-3
372.686E-6	845.527E-15	98.6260E-3	-9.65540E-3	848.718E-15	78.9329E-3	-32.8495E-3
367.684E-6	746.083E-15	97.9049E-3	-8.33910E-3	779.687E-15	82.7801E-3	-23.2215E-3
362.681E-6	772.302E-15	105.335E-3	-12.9491E-3	733.946E-15	78.9682E-3	-18.5750E-3
357.679E-6	784.448E-15	114.704E-3	-21.4474E-3	739.020E-15	80.1194E-3	-16.1576E-3
352.676E-6	709.453E-15	121.010E-3	-25.2121E-3	750.207E-15	81.2770E-3	-8.80808E-3
347.674E-6	661.279E-15	120.164E-3	-24.6754E-3	615.285E-15	74.0224E-3	-225.202E-6
342.671E-6	660.128E-15	101.980E-3	-25.5715E-3	604.874E-15	63.2036E-3	-287.493E-6
337.669E-6	622.818E-15	86.2767E-3	-21.0808E-3	696.644E-15	57.4816E-3	-12.1870E-3
332.666E-6	607.202E-15	83.3462E-3	-21.6902E-3	623.795E-15	64.2978E-3	-25.1298E-3
327.664E-6	597.907E-15	76.0197E-3	-25.2481E-3	474.642E-15	74.7704E-3	-25.5695E-3
322.661E-6	552.096E-15	70.5372E-3	-16.5156E-3	421.969E-15	74.0472E-3	-21.8470E-3
317.659E-6	494.513E-15	79.9329E-3	-7.24217E-3	539.435E-15	62.8357E-3	-23.1476E-3
312.656E-6	423.181E-15	87.6841E-3	-11.2037E-3	544.902E-15	55.0127E-3	-21.1139E-3
307.654E-6	507.401E-15	86.3299E-3	-20.5166E-3	379.907E-15	60.8214E-3	-16.0407E-3
302.651E-6	530.899E-15	84.2927E-3	-26.8351E-3	345.579E-15	68.1268E-3	-12.0578E-3
297.649E-6	391.303E-15	77.3510E-3	-21.1423E-3	455.303E-15	62.6384E-3	-6.83472E-3
292.646E-6	290.377E-15	66.2111E-3	-5.55508E-3	427.270E-15	60.9044E-3	-1.56295E-3
287.644E-6	390.571E-15	61.9252E-3	-7.35212E-3	331.802E-15	67.3949E-3	-1.24143E-3
282.641E-6	440.898E-15	63.7254E-3	-18.0011E-3	309.629E-15	67.0581E-3	-10.0780E-3
277.639E-6	287.151E-15	67.0065E-3	-16.1065E-3	326.152E-15	64.1198E-3	-14.2857E-3
272.636E-6	165.830E-15	65.3703E-3	-7.52196E-3	338.848E-15	58.4730E-3	-12.6230E-3
267.634E-6	309.900E-15	56.5094E-3	735.343E-6	281.998E-15	41.0695E-3	-23.1755E-3
262.631E-6	332.299E-15	42.6827E-3	-4.43120E-3	247.121E-15	32.2898E-3	-27.8749E-3
257.629E-6	262.283E-15	26.2307E-3	-16.6700E-3	246.022E-15	41.7681E-3	-19.5027E-3
252.626E-6	136.725E-15	25.8856E-3	-13.9861E-3	219.193E-15	45.7336E-3	-27.3768E-3
247.624E-6	186.783E-15	44.4510E-3	-5.66738E-3	210.909E-15	39.8946E-3	-36.2804E-3
242.621E-6	285.991E-15	59.0158E-3	-9.00589E-3	242.107E-15	30.4969E-3	-32.9611E-3
237.619E-6	182.920E-15	60.3959E-3	-11.8005E-3	214.676E-15	22.8282E-3	-32.7752E-3
232.616E-6	127.832E-15	52.3607E-3	-12.3520E-3	152.403E-15	24.6828E-3	-26.5881E-3
227.614E-6	152.865E-15	46.2420E-3	-15.2579E-3	119.880E-15	34.2051E-3	-25.6521E-3
222.611E-6	163.607E-15	52.2526E-3	-11.9068E-3	182.214E-15	37.2271E-3	-35.1358E-3
217.609E-6	135.679E-15	57.0274E-3	-2.89515E-3	195.895E-15	32.9494E-3	-30.5272E-3
212.606E-6	120.743E-15	55.4543E-3	-8.77502E-3	58.0685E-15	38.3522E-3	-26.3193E-3
207.604E-6	106.644E-15	54.9212E-3	-26.7627E-3	42.4348E-15	49.1360E-3	-35.0619E-3
202.601E-6	101.970E-15	46.5041E-3	-22.6633E-3	118.345E-15	49.5159E-3	-40.1517E-3
197.599E-6	40.2288E-15	32.8854E-3	-8.96913E-3	150.973E-15	37.6606E-3	-33.0678E-3
192.596E-6	138.068E-15	33.4400E-3	-9.18769E-3	20.6627E-15	23.2365E-3	-26.1986E-3
187.594E-6	130.788E-15	42.5808E-3	-15.5180E-3	-45.0373E-15	18.7408E-3	-22.0016E-3
182.591E-6	19.4594E-15	41.6063E-3	-20.2910E-3	135.609E-15	25.4824E-3	-17.1976E-3
177.589E-6	-19.3415E-15	32.6099E-3	-18.6613E-3	103.575E-15	30.8818E-3	-13.7626E-3
172.586E-6	67.7905E-15	23.3295E-3	-18.5713E-3	-12.8631E-15	27.2836E-3	-5.54161E-3
167.584E-6	121.946E-15	21.3699E-3	-25.5747E-3	-44.3747E-15	18.3100E-3	-6.81460E-3
162.581E-6	-24.0238E-15	20.1736E-3	-29.8825E-3	81.7414E-15	14.7329E-3	-18.0353E-3
157.579E-6	-88.2328E-15	20.4341E-3	-29.1848E-3	61.6870E-15	16.6211E-3	-19.1743E-3
152.576E-6	46.1230E-15	27.1159E-3	-27.7198E-3	-66.1119E-15	20.9395E-3	-16.9901E-3
147.574E-6	65.8112E-15	20.3188E-3	-24.4262E-3	-85.1374E-15	30.1752E-3	-17.5185E-3
142.571E-6	-30.5982E-15	10.2178E-3	-16.8399E-3	20.2005E-15	34.8979E-3	-7.14001E-3
137.569E-6	-139.903E-15	10.0028E-3	-7.23424E-3	-18.4522E-15	26.5188E-3	5.49220E-3
132.566E-6	-64.7517E-15	12.6633E-3	-4.79445E-3	-40.7910E-15	16.6370E-3	-4.33926E-3
127.564E-6	36.6103E-15	14.9532E-3	-5.14579E-3	-73.0699E-15	10.3127E-3	-15.0307E-3
122.561E-6	-23.3873E-15	7.77100E-3	-2.74892E-3	-59.7991E-15	12.2715E-3	-6.67955E-3
117.559E-6	-128.124E-15	-465.628E-6	-9.53696E-3	-78.5805E-15	20.4441E-3	-7.40586E-3
112.556E-6	-17.4233E-15	12.9365E-3	-18.2108E-3	-110.423E-15	19.6113E-3	-13.8956E-3
107.554E-6	1.09653E-15	26.9738E-3	-17.7399E-3	-53.4951E-15	19.9166E-3	-16.6379E-3
102.551E-6	-90.2905E-15	19.1436E-3	-13.3293E-3	-59.6770E-15	25.1676E-3	-28.0345E-3
97.5488E-6	-128.673E-15	10.6665E-3	-5.23572E-3	-138.534E-15	20.1643E-3	-28.7075E-3
92.5463E-6	-70.9511E-15	12.5503E-3	-3.94832E-3	-133.137E-15	9.88557E-3	-16.6452E-3
87.5438E-6	-115.045E-15	15.0081E-3	-14.6670E-3	-44.5578E-15	11.6328E-3	-18.0657E-3
82.5413E-6	-78.4584E-15	11.7451E-3	-24.5891E-3	-66.2252E-15	18.3401E-3	-23.1340E-3
77.5388E-6	-77.8306E-15	11.3997E-3	-26.8641E-3	-171.956E-15	21.0904E-3	-16.3662E-3
72.5363E-6	-48.1850E-15	20.7122E-3	-22.8189E-3	-161.519E-15	23.2822E-3	-19.1959E-3
67.5338E-6	-127.627E-15	26.0423E-3	-16.2151E-3	-86.1576E-15	17.0014E-3	-34.7628E-3
62.5313E-6	-167.648E-15	23.1381E-3	-14.4884E-3	-42.5610E-15	5.69207E-3	-43.6439E-3
57.5288E-6	-68.4138E-15	24.3736E-3	-24.9523E-3	-169.628E-15	7.89376E-3	-48.2998E-3
52.5263E-6	-55.7534E-15	19.6928E-3	-31.1291E-3	-207.182E-15	15.7347E-3	-42.5312E-3
47.5238E-6	-165.704E-15	2.50114E-3	-17.4272E-3	-69.3206E-15	16.7581E-3	-26.9289E-3
42.5213E-6	-235.101E-15	4.49254E-3	-3.64574E-3	-100.257E-15	21.7234E-3	-18.5276E-3
37.5188E-6	-133.992E-15	20.6373E-3	-6.28432E-3	-209.283E-15	18.9800E-3	-18.3578E-3
32.5163E-6	-33.8853E-15	9.15628E-3	-16.0698E-3	-205.534E-15	-1.37117E-3	-18.3383E-3
27.5138E-6	-150.114E-15	-14.6673E-3	-24.2950E-3	-120.738E-15	-6.16582E-3	-13.9569E-3
22.5113E-6	-270.213E-15	-15.4782E-3	-27.2530E-3	-124.270E-15	6.35620E-3	-11.1490E-3
17.5088E-6	-154.822E-15	765.895E-6	-23.8878E-3	-191.033E-15	7.70816E-3	-7.59330E-3
12.5063E-6	-86.7854E-15	16.0918E-3	-22.3217E-3	-193.780E-15	597.970E-6	-885.899E-6
7.50375E-6	-151.404E-15	26.1875E-3	-24.3450E-3	-170.560E-15	-5.86983E-3	-6.10361E-3
2.50125E-6	-294.244E-15	27.0837E-3	-20.5267E-3	-190.519E-15	-4.62435E-3	-16.0604E-3
-2.50125E-6	-164.666E-15	12.4570E-3	-9.97709E-3	-183.273E-15	12.3083E-3	-11.1923E-3
-7.50375E-6	-104.686E-15	2.32485E-3	-8.14163E-3	-200.712E-15	26.9936E-3	-11.3917E-3
-12.5063E-6	-153.540E-15	6.73481E-3	-14.1913E-3	-198.619E-15	28.6988E-3	-22.0305E-3
-17.5088E-6	-200.163E-15	11.2521E-3	-18.5177E-3	-223.016E-15	24.6679E-3	-21.8969E-3
-22.5113E-6	-143.644E-15	14.3243E-3	-18.2644E-3	-256.053E-15	14.2794E-3	-27.8316E-3
-27.5138E-6	-179.637E-15	4.42589E-3	-14.9906E-3	-175.810E-15	4.01119E-3	-36.2228E-3
-32.5163E-6	-182.053E-15	-10.3992E-3	-16.6683E-3	-178.826E-15	1.80772E-3	-19.0106E-3
-37.5188E-6	-226.887E-15	-396.641E-6	-24.1441E-3	-259.314E-15	3.59754E-3	-2.73546E-3
-42.5213E-6	-213.119E-15	8.86877E-3	-30.9800E-3	-272.367E-15	4.54056E-3	-10.4860E-3
-47.5238E-6	-239.957E-15	2.00710E-3	-35.6228E-3	-210.565E-15	7.91044E-3	-13.4213E-3
-52.5263E-6	-235.624E-15	-1.93850E-3	-29.5660E-3	-196.884E-15	15.0878E-3	-6.02139E-3
-57.5288E-6	-198.985E-15	130.284E-6	-3.99123E-3	-291.018E-15	13.3936E-3	-6.97676E-3
-62.5313E-6	-145.989E-15	8.39641E-3	12.2356E-3	-305.893E-15	11.6055E-3	-21.5494E-3
-67.5338E-6	-283.885E-15	17.2047E-3	-4.05457E-3	-164.483E-15	18.4491E-3	-39.9663E-3
-72.5363E-6	-357.206E-15	20.4925E-3	-18.0898E-3	-188.618E-15	23.3723E-3	-32.4839E-3
-77.5388E-6	-236.278E-15	21.9590E-3	-16.2302E-3	-317.926E-15	28.3254E-3	-9.86066E-3
-82.5413E-6	-193.902E-15	27.1872E-3	-19.9236E-3	-330.682E-15	29.8682E-3	-9.56427E-3
-87.5438E-6	-309.119E-15	33.5344E-3	-19.2440E-3	-244.413E-15	25.2299E-3	-18.1078E-3
-92.5463E-6	-417.971E-15	25.6175E-3	-16.0593E-3	-238.153E-15	24.0168E-3	-12.2865E-3
-97.5488E-6	-261.294E-15	5.90364E-3	-24.6424E-3	-331.624E-15	20.5398E-3	-10.1792E-3
-102.551E-6	-222.362E-15	3.31849E-3	-24.7379E-3	-358.313E-15	8.12636E-3	-15.3984E-3
-107.554E-6	-329.531E-15	20.0042E-3	-11.4758E-3	-303.033E-15	-419.085E-6	-14.3201E-3
-112.556E-6	-410.001E-15	31.7206E-3	-10.6506E-3	-283.406E-15	6.84530E-3	-22.2165E-3
-117.559E-6	-362.638E-15	30.7494E-3	-22.7898E-3	-346.577E-15	22.5909E-3	-31.6701E-3
-122.561E-6	-241.684E-15	24.9587E-3	-28.8908E-3	-352.375E-15	33.3594E-3	-22.6154E-3
-127.564E-6	-327.482E-15	23.7614E-3	-23.0861E-3	-332.661E-15	39.5200E-3	-9.63388E-3
-132.566E-6	-449.439E-15	23.1607E-3	-11.4810E-3	-376.301E-15	35.8776E-3	-12.2287E-3
-137.569E-6	-333.254E-15	15.9672E-3	-8.17525E-3	-400.637E-15	32.5602E-3	-17.9163E-3
-142.571E-6	-297.854E-15	17.1243E-3	-20.5090E-3	-351.504E-15	36.6575E-3	-17.8801E-3
-147.574E-6	-427.318E-15	29.1589E-3	-30.3466E-3	-382.004E-15	38.4867E-3	-26.1815E-3
-152.576E-6	-380.190E-15	28.7866E-3	-23.4032E-3	-460.277E-15	41.3506E-3	-27.7607E-3
-157.579E-6	-415.233E-15	28.8329E-3	-11.8020E-3	-438.487E-15	47.6003E-3	-14.8960E-3
-162.581E-6	-369.064E-15	36.0536E-3	-6.17541E-3	-397.132E-15	44.7005E-3	-7.18800E-3
-167.584E-6	-440.876E-15	36.2335E-3	-7.29512E-3	-403.514E-15	32.5132E-3	-547.267E-6
-172.586E-6	-464.471E-15	36.3249E-3	-14.0717E-3	-537.949E-15	35.6091E-3	1.94711E-3
-177.589E-6	-472.868E-15	32.9377E-3	-18.3427E-3	-540.434E-15	51.0880E-3	-14.5793E-3
-182.591E-6	-517.467E-15	27.6806E-3	-20.1334E-3	-450.921E-15	50.6253E-3	-26.0660E-3
-187.594E-6	-571.902E-15	35.4774E-3	-19.5916E-3	-469.502E-15	42.2165E-3	-21.1839E-3
-192.596E-6	-476.521E-15	54.0578E-3	-25.1557E-3	-565.284E-15	42.9478E-3	-25.9565E-3
-197.599E-6	-477.253E-15	59.7709E-3	-35.8925E-3	-594.737E-15	54.6523E-3	-26.8445E-3
-202.601E-6	-591.572E-15	53.4045E-3	-32.0040E-3	-574.831E-15	70.2220E-3	-12.3982E-3
-207.604E-6	-700.119E-15	48.5781E-3	-27.0773E-3	-538.105E-15	70.8147E-3	-9.84538E-3
-212.606E-6	-591.703E-15	50.5152E-3	-21.6521E-3	-633.948E-15	60.7480E-3	-15.5143E-3
-217.609E-6	-546.293E-15	53.0157E-3	-9.33128E-3	-674.371E-15	62.9126E-3	-17.7158E-3
-222.611E-6	-678.879E-15	48.3994E-3	-7.07162E-3	-642.920E-15	73.3996E-3	-28.9491E-3
-227.614E-6	-764.528E-15	47.1124E-3	-15.2832E-3	-622.718E-15	79.4391E-3	-33.9718E-3
-232.616E-6	-656.732E-15	51.6559E-3	-23.8753E-3	-716.407E-15	84.1919E-3	-15.7802E-3
-237.619E-6	-627.348E-15	58.3180E-3	-20.1471E-3	-728.771E-15	77.6815E-3	-584.046E-6
-242.621E-6	-723.094E-15	60.9197E-3	-11.4243E-3	-761.067E-15	62.8939E-3	-3.87848E-3
-247.624E-6	-853.901E-15	56.6637E-3	-19.5019E-3	-801.559E-15	70.3750E-3	-13.2620E-3
-252.626E-6	-772.847E-15	57.2288E-3	-35.4860E-3	-829.688E-15	95.3710E-3	-26.6279E-3
-257.629E-6	-737.978E-15	64.8191E-3	-30.8976E-3	-805.152E-15	96.1393E-3	-36.1531E-3
-262.631E-6	-823.523E-15	65.4892E-3	-9.98548E-3	-860.223E-15	84.8917E-3	-29.9161E-3
-267.634E-6	-943.806E-15	66.6347E-3	-10.6658E-3	-953.301E-15	87.6007E-3	-18.2199E-3
-272.636E-6	-925.809E-15	74.6033E-3	-24.2892E-3	-988.990E-15	92.8301E-3	-11.9820E-3
-277.639E-6	-919.959E-15	79.7962E-3	-17.2572E-3	-941.339E-15	108.592E-3	-11.7952E-3
-282.641E-6	-985.170E-15	94.5232E-3	-9.44668E-3	-980.070E-15	123.487E-3	-21.2774E-3
-287.644E-6	-1.05990E-12	115.104E-3	-9.98490E-3	-1.10526E-12	119.753E-3	-31.1378E-3
-292.646E-6	-1.10953E-12	115.231E-3	-7.15738E-3	-1.14282E-12	114.584E-3	-17.9000E-3
-297.649E-6	-1.11633E-12	106.414E-3	-7.55585E-3	-1.04551E-12	117.892E-3	-843.916E-6
-302.651E-6	-1.21914E-12	112.152E-3	-5.90131E-3	-1.12437E-12	122.715E-3	-4.55112E-3
-307.654E-6	-1.16859E-12	123.579E-3	2.17561E-3	-1.28594E-12	124.010E-3	-8.52572E-3
-312.656E-6	-1.17792E-12	128.325E-3	1.79814E-3	-1.34513E-12	121.064E-3	-10.4560E-3
-317.659E-6	-1.31765E-12	132.233E-3	-13.2016E-3	-1.23654E-12	125.698E-3	-16.4291E-3
-322.661E-6	-1.45229E-12	131.622E-3	-23.9947E-3	-1.27483E-12	146.907E-3	-22.3352E-3
-327.664E-6	-1.37031E-12	123.554E-3	-20.5627E-3	-1.43138E-12	162.103E-3	-34.0301E-3
-332.666E-6	-1.31070E-12	132.347E-3	-12.8338E-3	-1.52558E-12	158.688E-3	-40.4836E-3
-337.669E-6	-1.51143E-12	147.987E-3	-15.1842E-3	-1.48498E-12	152.631E-3	-26.4268E-3
-342.671E-6	-1.62395E-12	147.484E-3	-22.0565E-3	-1.55314E-12	159.274E-3	-18.8426E-3
-347.674E-6	-1.51252E-12	150.160E-3	-28.2122E-3	-1.64849E-12	169.426E-3	-35.8170E-3
-352.676E-6	-1.51260E-12	155.933E-3	-29.1852E-3	-1.73395E-12	176.425E-3	-42.0695E-3
-357.679E-6	-1.66257E-12	149.862E-3	-16.8227E-3	-1.66428E-12	194.516E-3	-29.3148E-3
-362.681E-6	-1.86659E-12	147.298E-3	-5.59256E-3	-1.74577E-12	206.501E-3	-19.2745E-3
-367.684E-6	-1.81034E-12	154.788E-3	-743.216E-6	-1.89501E-12	198.690E-3	-12.4544E-3
-372.686E-6	-1.79933E-12	157.502E-3	-5.42477E-3	-1.90842E-12	194.575E-3	-2.96236E-3
-377.689E-6	-1.92410E-12	166.752E-3	-23.3415E-3	-1.98498E-12	201.323E-3	3.47889E-3
-382.691E-6	-2.09160E-12	190.292E-3	-31.5557E-3	-2.07331E-12	205.293E-3	-3.84486E-3
-387.694E-6	-2.13110E-12	207.336E-3	-15.0453E-3	-2.12566E-12	217.712E-3	-12.9851E-3
-392.696E-6	-2.12427E-12	216.853E-3	-8.18269E-3	-2.12562E-12	232.969E-3	-14.6830E-3
-397.699E-6	-2.28329E-12	227.221E-3	-16.3688E-3	-2.23480E-12	223.551E-3	-16.8497E-3
-402.701E-6	-2.39799E-12	236.166E-3	-14.1134E-3	-2.32446E-12	222.169E-3	-15.3952E-3
-407.704E-6	-2.45397E-12	231.651E-3	-14.3811E-3	-2.40709E-12	240.107E-3	-15.0724E-3
-412.706E-6	-2.52250E-12	221.001E-3	-17.4321E-3	-2.33583E-12	236.776E-3	-14.5746E-3
-417.709E-6	-2.61609E-12	225.871E-3	-16.8123E-3	-2.43041E-12	228.893E-3	-7.82001E-3
-422.711E-6	-2.68940E-12	235.438E-3	-17.6746E-3	-2.63599E-12	239.412E-3	-20.4307E-3
-427.714E-6	-2.75313E-12	236.913E-3	-11.2742E-3	-2.64802E-12	249.034E-3	-41.5908E-3
-432.716E-6	-2.84181E-12	239.424E-3	-4.51606E-3	-2.62612E-12	254.993E-3	-38.3836E-3
-437.719E-6	-2.94576E-12	242.170E-3	-13.4871E-3	-2.73962E-12	265.331E-3	-26.7488E-3
-442.721E-6	-2.95774E-12	245.698E-3	-26.5652E-3	-2.94885E-12	274.074E-3	-16.1023E-3
-447.724E-6	-2.98169E-12	254.736E-3	-34.1668E-3	-2.98573E-12	276.456E-3	-5.77821E-3
-452.726E-6	-3.13332E-12	257.028E-3	-42.4121E-3	-3.01393E-12	273.150E-3	-10.3210E-3
-457.729E-6	-3.27396E-12	259.907E-3	-42.5994E-3	-3.09407E-12	265.651E-3	-15.7214E-3
-462.731E-6	-3.18677E-12	276.073E-3	-22.7871E-3	-3.30965E-12	257.094E-3	-9.25780E-3
-467.734E-6	-3.20304E-12	283.934E-3	-8.86608E-3	-3.34403E-12	261.119E-3	-9.56389E-3
-472.736E-6	-3.40004E-12	277.939E-3	-16.5965E-3	-3.37963E-12	269.805E-3	-13.8365E-3
-477.739E-6	-3.60197E-12	266.936E-3	-22.7622E-3	-3.48198E-12	268.969E-3	-10.9989E-3
-482.741E-6	-3.54498E-12	255.653E-3	-10.5703E-3	-3.67705E-12	275.232E-3	-9.53105E-3
-487.744E-6	-3.57910E-12	268.678E-3	1.84987E-3	-3.72114E-12	286.834E-3	-16.9975E-3
-492.746E-6	-3.73848E-12	296.995E-3	-1.62934E-3	-3.81623E-12	292.316E-3	-17.5479E-3
-497.749E-6	-3.98715E-12	302.612E-3	-10.7040E-3	-3.95643E-12	303.479E-3	-9.13726E-3
-502.751E-6	-3.95835E-12	298.694E-3	-15.1244E-3	-4.04670E-12	307.514E-3	-11.0975E-3
-507.754E-6	-4.01563E-12	301.806E-3	-10.6650E-3	-4.09308E-12	293.515E-3	-16.6794E-3
-512.756E-6	-4.14711E-12	293.258E-3	-3.79044E-3	-4.19396E-12	291.921E-3	-22.0741E-3
-517.759E-6	-4.34494E-12	282.034E-3	-2.71747E-3	-4.36997E-12	300.150E-3	-27.4208E-3
-522.761E-6	-4.40379E-12	285.012E-3	-7.05340E-3	-4.45920E-12	299.037E-3	-23.7994E-3
-527.764E-6	-4.46009E-12	286.386E-3	-18.4051E-3	-4.48345E-12	302.553E-3	-15.2210E-3
-532.766E-6	-4.55406E-12	287.075E-3	-24.4225E-3	-4.55578E-12	310.413E-3	-11.1277E-3
-537.769E-6	-4.75846E-12	300.092E-3	-15.0713E-3	-4.80194E-12	311.599E-3	-6.13843E-3
-542.771E-6	-4.84335E-12	307.381E-3	-6.10913E-3	-4.83772E-12	320.224E-3	-1.69594E-3
-547.774E-6	-4.87683E-12	306.388E-3	-2.89038E-3	-4.79730E-12	327.634E-3	-11.9952E-3
-552.776E-6	-4.95849E-12	315.041E-3	-11.6169E-3	-4.94443E-12	314.275E-3	-23.5784E-3
-557.779E-6	-4.91506E-12	318.469E-3	-30.0366E-3	-5.07521E-12	306.159E-3	-24.5275E-3
-562.781E-6	-5.03486E-12	308.461E-3	-32.3237E-3	-5.23117E-12	314.056E-3	-20.8083E-3
-567.784E-6	-5.27841E-12	301.173E-3	-15.4607E-3	-5.29397E-12	315.536E-3	-4.59126E-3
-572.786E-6	-5.36668E-12	299.772E-3	-2.76262E-3	-5.50310E-12	312.142E-3	5.30456E-3
-577.789E-6	-5.36755E-12	297.083E-3	-3.51413E-3	-5.73133E-12	320.448E-3	-10.2546E-3
-582.791E-6	-5.46424E-12	293.759E-3	-6.66021E-3	-5.85296E-12	327.384E-3	-21.4311E-3
-587.794E-6	-5.67563E-12	292.845E-3	-4.94087E-3	-5.89712E-12	326.500E-3	-17.8780E-3
-592.796E-6	-5.87131E-12	295.201E-3	1.43517E-3	-6.13094E-12	327.295E-3	-20.4538E-3
-597.799E-6	-5.85432E-12	305.293E-3	-107.997E-6	-6.28899E-12	316.344E-3	-28.2444E-3
-602.801E-6	-6.00473E-12	309.059E-3	-13.7332E-3	-6.37542E-12	305.464E-3	-24.2594E-3
-607.804E-6	-6.19170E-12	304.003E-3	-28.1878E-3	-6.46085E-12	307.049E-3	-15.6427E-3
-612.806E-6	-6.45109E-12	308.458E-3	-25.2637E-3	-6.52254E-12	310.799E-3	-18.4533E-3
-617.809E-6	-6.54488E-12	314.022E-3	-12.1723E-3	-6.65622E-12	318.998E-3	-20.4203E-3
-622.811E-6	-6.55631E-12	311.849E-3	-14.5451E-3	-6.64460E-12	315.411E-3	-24.7276E-3
-627.814E-6	-6.72255E-12	317.800E-3	-16.8427E-3	-6.80345E-12	299.272E-3	-41.0752E-3
-632.816E-6	-7.04207E-12	326.615E-3	-8.54946E-3	-6.90991E-12	299.133E-3	-44.9582E-3
-637.819E-6	-7.06248E-12	315.886E-3	-14.1731E-3	-6.97679E-12	303.311E-3	-31.7829E-3
-642.821E-6	-7.02764E-12	308.558E-3	-23.4124E-3	-6.97847E-12	292.004E-3	-17.4547E-3
-647.824E-6	-7.19836E-12	317.897E-3	-12.3092E-3	-7.09606E-12	289.980E-3	-1.05326E-3
-652.826E-6	-7.30246E-12	319.928E-3	-10.2717E-3	-7.20212E-12	311.299E-3	4.81640E-3
-657.829E-6	-7.35655E-12	313.922E-3	-24.8899E-3	-7.25550E-12	321.618E-3	-4.60740E-3
-662.831E-6	-7.33745E-12	306.299E-3	-24.3180E-3	-7.25094E-12	309.870E-3	-2.35016E-3
-667.834E-6	-7.52017E-12	295.919E-3	-13.0042E-3	-7.41006E-12	295.354E-3	4.35651E-3
-672.836E-6	-7.59182E-12	293.284E-3	-11.1529E-3	-7.59730E-12	271.661E-3	-1.54204E-3
-677.839E-6	-7.70138E-12	284.709E-3	-11.8733E-3	-7.70976E-12	253.293E-3	-5.34851E-3
-682.841E-6	-7.76827E-12	269.881E-3	-7.53751E-3	-7.70767E-12	265.062E-3	-9.49653E-3
-687.844E-6	-7.83751E-12	279.767E-3	-5.23603E-3	-7.80607E-12	282.995E-3	-16.6215E-3
-692.846E-6	-7.94238E-12	295.056E-3	-2.49657E-3	-7.99461E-12	284.273E-3	-9.92125E-3
-697.849E-6	-7.99442E-12	294.587E-3	-4.93122E-3	-8.16616E-12	277.912E-3	451.451E-6
-702.851E-6	-8.24425E-12	292.272E-3	-7.66075E-3	-8.11502E-12	281.284E-3	-6.76636E-3
-707.854E-6	-8.38587E-12	286.755E-3	-2.59016E-3	-8.14611E-12	288.047E-3	-17.2323E-3
-712.856E-6	-8.43015E-12	270.521E-3	-2.95522E-3	-8.48664E-12	282.352E-3	-14.0569E-3
-717.859E-6	-8.47651E-12	257.972E-3	-3.61925E-3	-8.47899E-12	273.913E-3	-10.9520E-3
-722.861E-6	-8.75590E-12	262.636E-3	1.83342E-3	-8.43189E-12	266.138E-3	-13.9437E-3
-727.864E-6	-8.93642E-12	269.093E-3	-1.43523E-3	-8.54723E-12	257.836E-3	-9.05743E-3
-732.866E-6	-8.82523E-12	272.746E-3	-13.7088E-3	-8.76118E-12	257.202E-3	-4.17977E-3
-737.869E-6	-8.96433E-12	267.446E-3	-17.5357E-3	-8.71446E-12	251.229E-3	-9.64443E-3
-742.871E-6	-8.99734E-12	246.845E-3	-17.2178E-3	-8.77627E-12	244.082E-3	-18.1157E-3
-747.874E-6	-9.18609E-12	247.628E-3	-25.8035E-3	-8.86347E-12	239.156E-3	-24.8037E-3
-752.876E-6	-9.08672E-12	268.191E-3	-29.4706E-3	-8.93330E-12	223.019E-3	-24.1996E-3
-757.879E-6	-9.03641E-12	257.814E-3	-21.1618E-3	-9.00231E-12	209.366E-3	-20.7866E-3
-762.881E-6	-9.08164E-12	236.169E-3	-17.4424E-3	-9.03280E-12	211.462E-3	-24.8191E-3
-767.884E-6	-9.22826E-12	247.651E-3	-17.0119E-3	-9.25318E-12	215.307E-3	-25.7202E-3
-772.886E-6	-9.12446E-12	255.342E-3	-20.3747E-3	-9.22260E-12	211.936E-3	-16.7759E-3
-777.889E-6	-9.04383E-12	227.542E-3	-31.7467E-3	-9.25232E-12	211.352E-3	-15.6235E-3
-782.891E-6	-9.28556E-12	204.467E-3	-38.7719E-3	-9.31367E-12	208.041E-3	-27.4906E-3
-787.894E-6	-9.34731E-12	207.923E-3	-33.1193E-3	-9.53958E-12	204.849E-3	-34.3232E-3
-792.896E-6	-9.40304E-12	219.660E-3	-19.0858E-3	-9.62974E-12	207.479E-3	-33.4289E-3
-797.899E-6	-9.43902E-12	228.308E-3	-12.9623E-3	-9.55521E-12	202.999E-3	-30.3698E-3
-802.901E-6	-9.64553E-12	225.137E-3	-18.1516E-3	-9.67463E-12	202.436E-3	-23.2254E-3
-807.904E-6	-9.65093E-12	222.585E-3	-21.0319E-3	-9.83055E-12	208.698E-3	-14.3521E-3
-812.906E-6	-9.70897E-12	232.189E-3	-25.6540E-3	-9.87036E-12	197.411E-3	-11.8284E-3
-817.909E-6	-9.91542E-12	229.663E-3	-31.5539E-3	-9.80577E-12	180.334E-3	-14.2049E-3
-822.911E-6	-9.95006E-12	213.223E-3	-25.2781E-3	-9.84027E-12	177.633E-3	-7.93495E-3
-827.914E-6	-10.0217E-12	209.010E-3	-18.2172E-3	-9.99859E-12	175.705E-3	963.649E-6
-832.916E-6	-9.99746E-12	208.834E-3	-15.0946E-3	-10.0226E-12	170.112E-3	931.161E-6
-837.919E-6	-10.1201E-12	199.389E-3	-10.3338E-3	-10.0075E-12	169.064E-3	-7.87076E-3
-842.921E-6	-10.2907E-12	189.594E-3	-14.3588E-3	-10.0868E-12	166.602E-3	-15.3409E-3
-847.924E-6	-10.2033E-12	184.676E-3	-20.3187E-3	-10.1735E-12	160.046E-3	-14.9069E-3
-852.926E-6	-10.2809E-12	185.915E-3	-24.4617E-3	-10.2353E-12	157.082E-3	-13.6264E-3
-857.929E-6	-10.4622E-12	188.105E-3	-26.4120E-3	-10.3259E-12	155.862E-3	-16.5285E-3
-862.931E-6	-10.6127E-12	183.103E-3	-14.6731E-3	-10.4469E-12	155.032E-3	-24.4497E-3
-867.934E-6	-10.5033E-12	176.674E-3	-1.61910E-3	-10.5118E-12	160.072E-3	-23.3133E-3
-872.936E-6	-10.5378E-12	176.426E-3	-629.604E-6	-10.5827E-12	168.937E-3	-10.1204E-3
-877.939E-6	-10.6113E-12	176.039E-3	-1.64368E-3	-10.6271E-12	172.552E-3	-9.69306E-3
-882.941E-6	-10.6035E-12	169.147E-3	-5.82987E-3	-10.7283E-12	171.329E-3	-17.9180E-3
-887.944E-6	-10.6024E-12	156.484E-3	-15.7955E-3	-10.7800E-12	169.532E-3	-19.3134E-3
-892.946E-6	-10.6272E-12	143.181E-3	-14.2487E-3	-10.8233E-12	169.149E-3	-22.3735E-3
-897.949E-6	-10.8319E-12	140.740E-3	537.964E-6	-11.0141E-12	167.106E-3	-17.0777E-3
-902.951E-6	-10.7879E-12	156.958E-3	4.31129E-3	-11.1565E-12	161.938E-3	-7.21231E-3
-907.954E-6	-10.9265E-12	173.274E-3	-670.532E-6	-11.4161E-12	159.404E-3	-9.37197E-3
-912.956E-6	-10.9607E-12	167.811E-3	-1.69883E-3	-11.3107E-12	158.147E-3	-14.0229E-3
-917.959E-6	-11.0293E-12	156.435E-3	-10.4519E-3	-11.2933E-12	163.233E-3	-12.8184E-3
-922.961E-6	-11.1088E-12	154.572E-3	-16.1506E-3	-11.5271E-12	164.094E-3	-547.023E-6
-927.964E-6	-11.2291E-12	148.399E-3	-10.0651E-3	-11.4728E-12	149.021E-3	1.80252E-3
-932.966E-6	-11.3122E-12	137.690E-3	-10.5301E-3	-11.3536E-12	140.773E-3	-19.8001E-3
-937.969E-6	-11.5475E-12	137.660E-3	-16.6320E-3	-11.3753E-12	146.721E-3	-36.1509E-3
-942.971E-6	-11.6394E-12	142.001E-3	-13.2887E-3	-11.6837E-12	151.892E-3	-36.4692E-3
-947.974E-6	-11.5049E-12	144.219E-3	1.07981E-3	-11.6072E-12	157.720E-3	-24.8115E-3
-952.976E-6	-11.6891E-12	140.691E-3	12.4777E-3	-11.4509E-12	160.748E-3	-10.1566E-3
-957.979E-6	-11.8534E-12	130.805E-3	11.9874E-3	-11.5118E-12	156.606E-3	-1.52077E-3
-962.981E-6	-11.7294E-12	140.124E-3	-3.10810E-3	-11.6323E-12	161.683E-3	-6.55490E-3
-967.984E-6	-11.8724E-12	163.564E-3	-19.7349E-3	-11.6986E-12	171.580E-3	-25.3594E-3
-972.986E-6	-11.8447E-12	170.362E-3	-17.0676E-3	-11.5877E-12	171.465E-3	-28.3044E-3
-977.989E-6	-12.1540E-12	165.121E-3	-10.1286E-3	-11.7066E-12	174.246E-3	-15.3523E-3
-982.991E-6	-11.9308E-12	163.688E-3	-9.51172E-3	-11.7294E-12	179.662E-3	-11.0768E-3
-987.994E-6	-11.8681E-12	165.788E-3	-12.0163E-3	-11.8252E-12	175.789E-3	-18.2066E-3
-992.997E-6	-12.1084E-12	157.314E-3	-25.0449E-3	-11.8075E-12	177.053E-3	-28.4606E-3
-997.999E-6	-12.1796E-12	147.186E-3	-40.2696E-3	-11.7158E-12	175.541E-3	-28.8823E-3
-1.00300E-3	-12.0604E-12	157.945E-3	-43.3833E-3	-12.0647E-12	167.970E-3	-15.6306E-3
-1.00800E-3	-11.9035E-12	168.990E-3	-37.3449E-3	-12.0846E-12	187.324E-3	-883.841E-6
-1.01301E-3	-12.0914E-12	167.278E-3	-26.6222E-3	-12.2639E-12	214.648E-3	-7.41347E-3
-1.01801E-3	-12.2560E-12	168.401E-3	-15.4894E-3	-12.3530E-12	223.386E-3	-26.3451E-3
-1.02301E-3	-12.2398E-12	170.553E-3	-5.73553E-3	-12.4326E-12	225.130E-3	-26.2339E-3
-1.02801E-3	-12.2143E-12	173.960E-3	3.75579E-3	-12.4843E-12	219.420E-3	-22.7512E-3
-1.03302E-3	-12.4634E-12	188.716E-3	207.580E-6	-12.4416E-12	215.447E-3	-20.9604E-3
-1.03802E-3	-12.6712E-12	196.246E-3	-16.9904E-3	-12.6389E-12	224.306E-3	-10.9134E-3
-1.04302E-3	-12.7789E-12	191.382E-3	-27.6061E-3	-12.6909E-12	228.075E-3	-9.08192E-3
-1.04802E-3	-12.8094E-12	195.729E-3	-27.3606E-3	-12.6714E-12	227.499E-3	-16.1424E-3
-1.05303E-3	-12.9282E-12	207.395E-3	-32.6846E-3	-12.5927E-12	238.553E-3	-15.7394E-3
-1.05803E-3	-13.0593E-12	215.048E-3	-38.1256E-3	-12.7896E-12	247.706E-3	-9.63733E-3
-1.06303E-3	-13.0706E-12	218.682E-3	-34.3518E-3	-12.9221E-12	253.117E-3	-2.99611E-3
-1.06803E-3	-13.1438E-12	222.643E-3	-31.2789E-3	-12.7926E-12	267.195E-3	-2.51540E-3
-1.07304E-3	-13.2618E-12	232.822E-3	-20.5881E-3	-12.8613E-12	281.229E-3	-15.5793E-3
-1.07804E-3	-13.0256E-12	253.375E-3	-12.8765E-3	-13.1416E-12	291.344E-3	-16.9629E-3
-1.08304E-3	-13.0795E-12	269.429E-3	-26.2141E-3	-13.1824E-12	308.279E-3	-1.43888E-3
-1.08804E-3	-13.1347E-12	267.182E-3	-32.2456E-3	-13.0501E-12	319.495E-3	-4.40477E-3
-1.09305E-3	-13.2740E-12	261.119E-3	-24.6992E-3	-13.1561E-12	311.124E-3	-13.6904E-3
-1.09805E-3	-13.2233E-12	267.240E-3	-25.6250E-3	-13.5075E-12	314.967E-3	-10.4237E-3
-1.10305E-3	-13.1519E-12	272.670E-3	-30.0844E-3	-13.4733E-12	348.020E-3	-16.9113E-3
-1.10805E-3	-13.6297E-12	274.031E-3	-28.2577E-3	-13.5994E-12	361.739E-3	-28.1316E-3
-1.11306E-3	-13.7436E-12	284.764E-3	-20.4410E-3	-13.7173E-12	351.391E-3	-34.2127E-3
-1.11806E-3	-13.6488E-12	298.245E-3	-11.2281E-3	-13.9826E-12	366.720E-3	-38.5708E-3
-1.12306E-3	-13.7695E-12	307.106E-3	-8.90078E-3	-14.0148E-12	395.150E-3	-32.2887E-3
-1.12806E-3	-14.1161E-12	319.028E-3	-14.3724E-3	-14.1063E-12	410.643E-3	-13.7846E-3
-1.13307E-3	-14.3194E-12	341.119E-3	-20.7638E-3	-14.3664E-12	424.719E-3	-8.44800E-3
-1.13807E-3	-14.3758E-12	363.729E-3	-24.1778E-3	-14.5065E-12	438.356E-3	-23.8306E-3
-1.14307E-3	-14.5983E-12	377.754E-3	-19.7312E-3	-14.6260E-12	450.694E-3	-28.9286E-3
-1.14807E-3	-14.9265E-12	391.011E-3	-8.58469E-3	-14.7116E-12	468.453E-3	-16.0376E-3
-1.15308E-3	-15.0765E-12	412.046E-3	-803.737E-6	-15.0059E-12	470.451E-3	-6.51581E-3
-1.15808E-3	-15.2537E-12	429.872E-3	-4.18725E-3	-15.1927E-12	462.603E-3	-9.94480E-3
-1.16308E-3	-15.3930E-12	433.524E-3	-9.67464E-3	-15.2757E-12	468.717E-3	-18.3698E-3
-1.16808E-3	-15.5359E-12	432.529E-3	-12.7763E-3	-15.2896E-12	484.314E-3	-23.4873E-3
-1.17309E-3	-15.4702E-12	438.434E-3	-21.2927E-3	-15.6060E-12	511.118E-3	-19.1166E-3
-1.17809E-3	-15.5278E-12	453.677E-3	-22.3669E-3	-15.7186E-12	541.766E-3	-5.75549E-3
-1.18309E-3	-15.8000E-12	475.920E-3	-17.2398E-3	-15.6887E-12	557.069E-3	3.03273E-3
-1.18809E-3	-15.8017E-12	502.080E-3	-22.3832E-3	-16.0268E-12	569.067E-3	-1.88372E-3
-1.19310E-3	-15.9752E-12	518.068E-3	-25.9086E-3	-16.3294E-12	592.859E-3	-13.6130E-3
-1.19810E-3	-16.0836E-12	522.823E-3	-23.6203E-3	-16.4753E-12	609.087E-3	-23.9410E-3
-1.20310E-3	-16.4149E-12	529.046E-3	-20.4705E-3	-16.5618E-12	623.421E-3	-31.6996E-3
-1.20810E-3	-16.6688E-12	541.022E-3	-13.6580E-3	-16.8085E-12	642.497E-3	-29.1767E-3
-1.21311E-3	-16.7186E-12	563.229E-3	-11.8573E-3	-17.1582E-12	655.409E-3	-14.1256E-3
-1.21811E-3	-17.1432E-12	594.427E-3	-15.3229E-3	-17.3969E-12	668.850E-3	-4.98862E-3
-1.22311E-3	-17.3257E-12	617.547E-3	-16.8182E-3	-17.5162E-12	690.043E-3	-11.7311E-3
-1.22811E-3	-17.7638E-12	617.888E-3	-21.7937E-3	-17.6018E-12	716.574E-3	-13.9488E-3
-1.23312E-3	-18.0366E-12	617.183E-3	-26.0358E-3	-17.8588E-12	734.184E-3	-3.85522E-3
-1.23812E-3	-18.4016E-12	638.727E-3	-27.7344E-3	-18.1250E-12	743.327E-3	-363.988E-6
-1.24312E-3	-18.7921E-12	671.513E-3	-24.2830E-3	-18.1919E-12	754.847E-3	-4.78555E-3
-1.24812E-3	-18.9890E-12	697.063E-3	-17.4187E-3	-18.3032E-12	765.066E-3	-9.84449E-3
-1.25313E-3	-19.3084E-12	712.890E-3	-19.1412E-3	-18.6710E-12	776.476E-3	-16.5841E-3
-1.25813E-3	-19.4251E-12	730.266E-3	-16.1983E-3	-18.7708E-12	787.119E-3	-20.7343E-3
-1.26313E-3	-19.8857E-12	752.449E-3	-6.76480E-3	-18.8689E-12	798.999E-3	-13.4541E-3
-1.26813E-3	-20.0060E-12	773.506E-3	-15.5083E-3	-19.2035E-12	821.150E-3	240.915E-6
-1.27314E-3	-20.2459E-12	798.886E-3	-28.2109E-3	-19.5264E-12	845.061E-3	-122.882E-6
-1.27814E-3	-20.4366E-12	824.693E-3	-17.7180E-3	-19.6660E-12	860.340E-3	-12.3138E-3
-1.28314E-3	-20.6444E-12	833.655E-3	-11.8238E-3	-19.9685E-12	875.003E-3	-22.8033E-3
-1.28814E-3	-20.8487E-12	841.551E-3	-19.6871E-3	-20.3733E-12	892.549E-3	-28.4731E-3
-1.29315E-3	-21.0843E-12	851.962E-3	-20.5062E-3	-20.8263E-12	909.161E-3	-28.3793E-3
-1.29815E-3	-21.3924E-12	849.275E-3	-16.3791E-3	-20.9556E-12	938.078E-3	-24.2920E-3
-1.30315E-3	-21.4052E-12	855.111E-3	-12.8149E-3	-21.2964E-12	961.672E-3	-15.0032E-3
-1.30815E-3	-21.7200E-12	882.364E-3	-13.9383E-3	-21.6970E-12	957.989E-3	-5.55032E-3
-1.31316E-3	-21.9521E-12	903.883E-3	-16.2992E-3	-22.1164E-12	961.360E-3	-1.38620E-3
-1.31816E-3	-22.2629E-12	907.356E-3	-10.5196E-3	-22.2600E-12	983.741E-3	-6.17757E-3
-1.32316E-3	-22.4072E-12	920.335E-3	-3.87780E-3	-22.4763E-12	1.00499E+0	-16.4200E-3
-1.32816E-3	-22.7282E-12	948.281E-3	-9.47582E-3	-23.0259E-12	1.02044E+0	-17.4919E-3
-1.33317E-3	-23.1065E-12	971.651E-3	-26.2724E-3	-23.4146E-12	1.04178E+0	-21.3894E-3
-1.33817E-3	-23.4056E-12	990.866E-3	-35.6765E-3	-23.6757E-12	1.05967E+0	-23.6156E-3
-1.34317E-3	-24.0144E-12	1.00149E+0	-26.3893E-3	-24.0902E-12	1.05747E+0	-12.8164E-3
-1.34817E-3	-24.1773E-12	1.00504E+0	-19.3230E-3	-24.6329E-12	1.06292E+0	-10.7847E-3
-1.35318E-3	-24.2433E-12	1.01683E+0	-26.9545E-3	-24.8482E-12	1.08572E+0	-20.0355E-3
-1.35818E-3	-24.9189E-12	1.03267E+0	-30.9633E-3	-25.1854E-12	1.10380E+0	-26.3277E-3
-1.36318E-3	-25.6780E-12	1.04737E+0	-20.9358E-3	-25.8394E-12	1.11013E+0	-16.9308E-3
-1.36818E-3	-25.7909E-12	1.06188E+0	-11.6217E-3	-26.5061E-12	1.11191E+0	-7.31702E-3
-1.37319E-3	-26.0577E-12	1.07969E+0	-11.9983E-3	-26.6835E-12	1.11566E+0	-9.63450E-3
-1.37819E-3	-26.7163E-12	1.09208E+0	-14.7194E-3	-26.7559E-12	1.13309E+0	-9.52893E-3
-1.38319E-3	-27.0891E-12	1.08968E+0	-13.8785E-3	-27.2118E-12	1.14983E+0	-7.45554E-3
-1.38819E-3	-27.2767E-12	1.08833E+0	-14.9338E-3	-27.7197E-12	1.15690E+0	-2.14577E-3
-1.39320E-3	-27.6082E-12	1.10655E+0	-20.8321E-3	-27.8720E-12	1.16392E+0	695.330E-6
-1.39820E-3	-28.0453E-12	1.12538E+0	-17.9344E-3	-27.9456E-12	1.16291E+0	-13.5841E-3
-1.40320E-3	-28.2478E-12	1.12776E+0	-12.9510E-3	-28.6673E-12	1.16302E+0	-35.3775E-3
-1.40820E-3	-28.4746E-12	1.13518E+0	-20.3318E-3	-29.1488E-12	1.17308E+0	-38.4695E-3
-1.41321E-3	-28.9617E-12	1.13977E+0	-23.5140E-3	-29.0639E-12	1.17839E+0	-24.3651E-3
-1.41821E-3	-29.0322E-12	1.13375E+0	-12.8649E-3	-29.4214E-12	1.17132E+0	-18.2303E-3
-1.42321E-3	-29.4679E-12	1.13034E+0	-2.76186E-3	-30.3752E-12	1.17097E+0	-16.3329E-3
-1.42821E-3	-29.6622E-12	1.13261E+0	4.05825E-3	-30.6648E-12	1.18277E+0	-12.5223E-3
-1.43322E-3	-30.0653E-12	1.14186E+0	1.76952E-3	-30.8105E-12	1.19684E+0	-10.3200E-3
-1.43822E-3	-30.5315E-12	1.14504E+0	-19.4869E-3	-31.5219E-12	1.20126E+0	-5.62393E-3
-1.44322E-3	-30.8849E-12	1.14659E+0	-33.2824E-3	-32.2168E-12	1.19006E+0	-5.73206E-3
-1.44822E-3	-31.3383E-12	1.15120E+0	-32.9139E-3	-32.4044E-12	1.18480E+0	-13.0457E-3
-1.45323E-3	-32.0060E-12	1.14782E+0	-28.2339E-3	-32.8519E-12	1.18653E+0	-16.2695E-3
-1.45823E-3	-32.8965E-12	1.14362E+0	-17.1862E-3	-33.3344E-12	1.18577E+0	-17.0806E-3
-1.46323E-3	-33.3366E-12	1.15232E+0	-10.9075E-3	-33.8655E-12	1.19197E+0	-15.6692E-3
-1.46823E-3	-33.8469E-12	1.17244E+0	-15.9593E-3	-34.2727E-12	1.20361E+0	-9.95315E-3
-1.47324E-3	-34.5497E-12	1.19712E+0	-23.2215E-3	-34.3100E-12	1.20303E+0	-13.5435E-3
-1.47824E-3	-35.2917E-12	1.22124E+0	-23.0637E-3	-34.7227E-12	1.18925E+0	-19.6180E-3
-1.48324E-3	-35.4004E-12	1.22733E+0	-18.9429E-3	-35.2406E-12	1.18257E+0	-11.0441E-3
-1.48824E-3	-35.8585E-12	1.22405E+0	-18.1032E-3	-35.2551E-12	1.18486E+0	-3.40764E-3
-1.49325E-3	-36.3088E-12	1.23151E+0	-15.9165E-3	-35.4424E-12	1.17535E+0	-12.9265E-3
-1.49825E-3	-36.5828E-12	1.23388E+0	-7.07068E-3	-35.6500E-12	1.16276E+0	-24.4958E-3
-1.50325E-3	-36.5032E-12	1.22899E+0	4.42393E-3	-36.0486E-12	1.16393E+0	-29.3485E-3
-1.50825E-3	-36.7495E-12	1.22687E+0	62.4742E-6	-36.4925E-12	1.16435E+0	-21.6954E-3
-1.51326E-3	-37.1005E-12	1.21908E+0	-16.6287E-3	-36.7746E-12	1.16845E+0	-6.58414E-3
-1.51826E-3	-37.2553E-12	1.20216E+0	-17.4871E-3	-37.2136E-12	1.17246E+0	-17.2343E-3
-1.52326E-3	-37.2794E-12	1.18100E+0	-9.23423E-3	-37.6408E-12	1.17144E+0	-39.7614E-3
-1.52826E-3	-37.6268E-12	1.17026E+0	-10.3665E-3	-38.0673E-12	1.18539E+0	-34.6092E-3
-1.53327E-3	-38.2085E-12	1.16889E+0	-22.5815E-3	-38.5821E-12	1.20089E+0	-18.6707E-3
-1.53827E-3	-38.4400E-12	1.16019E+0	-30.8003E-3	-39.3379E-12	1.19563E+0	-14.3967E-3
-1.54327E-3	-39.0109E-12	1.15122E+0	-24.5190E-3	-39.9811E-12	1.17874E+0	-16.9085E-3
-1.54827E-3	-39.6007E-12	1.15545E+0	-15.4830E-3	-40.2692E-12	1.16430E+0	-23.8160E-3
-1.55328E-3	-40.1783E-12	1.16240E+0	-12.0923E-3	-40.4001E-12	1.16042E+0	-22.1833E-3
-1.55828E-3	-40.7922E-12	1.15800E+0	-12.7518E-3	-41.0826E-12	1.15646E+0	-17.7911E-3
-1.56328E-3	-41.5343E-12	1.15082E+0	-9.40754E-3	-41.3396E-12	1.14990E+0	-17.1877E-3
-1.56828E-3	-42.3775E-12	1.14724E+0	3.60910E-3	-41.5557E-12	1.14979E+0	-19.1471E-3
-1.57329E-3	-42.8726E-12	1.15085E+0	6.55048E-3	-41.6721E-12	1.14216E+0	-30.4872E-3
-1.57829E-3	-43.0767E-12	1.16258E+0	-6.29592E-3	-42.1924E-12	1.12816E+0	-43.6663E-3
-1.58329E-3	-43.6807E-12	1.16813E+0	-13.6949E-3	-42.4538E-12	1.11586E+0	-52.0843E-3
-1.58829E-3	-44.1472E-12	1.16780E+0	-13.7337E-3	-42.4170E-12	1.10763E+0	-40.4781E-3
-1.59330E-3	-44.3373E-12	1.17104E+0	-13.4386E-3	-42.6299E-12	1.10976E+0	-14.9855E-3
-1.59830E-3	-44.3236E-12	1.17575E+0	-13.1629E-3	-43.1461E-12	1.10778E+0	-91.9364E-6
-1.60330E-3	-44.4933E-12	1.16566E+0	-16.0341E-3	-43.4330E-12	1.09299E+0	3.09564E-3
-1.60830E-3	-44.4964E-12	1.14454E+0	-19.6044E-3	-43.5544E-12	1.07504E+0	-7.98160E-3
-1.61331E-3	-44.6986E-12	1.14212E+0	-16.5776E-3	-44.3847E-12	1.06630E+0	-19.9371E-3
-1.61831E-3	-44.4319E-12	1.14264E+0	-12.3093E-3	-44.6878E-12	1.06351E+0	-13.0818E-3
-1.62331E-3	-44.7194E-12	1.12731E+0	-15.2196E-3	-45.2978E-12	1.06951E+0	-6.14023E-3
-1.62831E-3	-45.0500E-12	1.11399E+0	-19.7012E-3	-45.7370E-12	1.09442E+0	-7.06047E-3
-1.63332E-3	-45.1611E-12	1.10345E+0	-10.5818E-3	-46.3249E-12	1.11263E+0	-1.38222E-3
-1.63832E-3	-45.8059E-12	1.08463E+0	5.42725E-3	-47.0020E-12	1.10798E+0	8.51550E-3
-1.64332E-3	-46.1938E-12	1.06602E+0	9.26140E-3	-47.6310E-12	1.09671E+0	4.84685E-3
-1.64832E-3	-46.3296E-12	1.06151E+0	3.68306E-3	-48.1721E-12	1.09471E+0	-7.59072E-3
-1.65333E-3	-47.1882E-12	1.06457E+0	-1.64614E-3	-48.1820E-12	1.08659E+0	-10.6454E-3
-1.65833E-3	-47.6488E-12	1.06190E+0	-9.43992E-3	-48.6780E-12	1.06489E+0	-9.57562E-3
-1.66333E-3	-47.9138E-12	1.06086E+0	-14.4841E-3	-48.7562E-12	1.05620E+0	-12.8941E-3
-1.66833E-3	-49.0195E-12	1.06623E+0	-6.69545E-3	-48.9289E-12	1.05804E+0	-21.0336E-3
-1.67334E-3	-49.6809E-12	1.06666E+0	-2.64766E-3	-49.3457E-12	1.05151E+0	-25.8812E-3
-1.67834E-3	-49.5662E-12	1.06795E+0	-13.5367E-3	-49.4950E-12	1.03646E+0	-28.6338E-3
-1.68334E-3	-50.0941E-12	1.07204E+0	-29.8291E-3	-49.3032E-12	1.02207E+0	-32.3801E-3
-1.68834E-3	-50.5999E-12	1.06713E+0	-38.9033E-3	-49.6125E-12	1.02270E+0	-31.2300E-3
-1.69335E-3	-50.7762E-12	1.05938E+0	-27.4042E-3	-50.1028E-12	1.02154E+0	-21.1710E-3
-1.69835E-3	-50.8641E-12	1.05690E+0	-19.0649E-3	-50.1960E-12	1.00365E+0	-8.42424E-3
-1.70335E-3	-51.3134E-12	1.05138E+0	-33.0374E-3	-50.2589E-12	994.191E-3	-5.99383E-3
-1.70835E-3	-51.4124E-12	1.03701E+0	-36.7159E-3	-50.6549E-12	1.00193E+0	-14.0672E-3
-1.71336E-3	-51.1889E-12	1.02968E+0	-15.3393E-3	-51.4663E-12	1.01277E+0	-17.5095E-3
-1.71836E-3	-51.3600E-12	1.03246E+0	-5.51376E-3	-52.1896E-12	1.00900E+0	-18.4073E-3
-1.72336E-3	-51.7471E-12	1.02038E+0	-12.8464E-3	-52.1427E-12	1.00414E+0	-26.6948E-3
-1.72836E-3	-52.1758E-12	991.919E-3	-8.24584E-3	-53.0218E-12	1.01286E+0	-29.9588E-3
-1.73337E-3	-52.4756E-12	965.910E-3	493.059E-6	-53.8006E-12	1.00885E+0	-22.4717E-3
-1.73837E-3	-52.9427E-12	956.307E-3	1.50289E-3	-54.1354E-12	995.929E-3	-7.24870E-3
-1.74337E-3	-53.6309E-12	962.832E-3	-7.66231E-3	-54.6156E-12	986.160E-3	2.11621E-3
-1.74837E-3	-53.9697E-12	981.393E-3	-17.3911E-3	-55.2277E-12	974.552E-3	-9.46459E-3
-1.75338E-3	-54.4367E-12	988.227E-3	-17.5346E-3	-55.5795E-12	971.606E-3	-21.0595E-3
-1.75838E-3	-54.9251E-12	968.834E-3	-18.4899E-3	-55.9382E-12	979.388E-3	-12.6286E-3
-1.76338E-3	-55.4114E-12	954.775E-3	-23.6516E-3	-56.4235E-12	984.137E-3	-3.45273E-3
-1.76838E-3	-55.7258E-12	955.990E-3	-19.6004E-3	-56.5727E-12	981.075E-3	-2.92173E-3
-1.77339E-3	-56.0270E-12	959.532E-3	-4.45199E-3	-56.6982E-12	963.538E-3	-4.90159E-3
-1.77839E-3	-56.3392E-12	950.654E-3	1.13537E-3	-57.0110E-12	945.791E-3	-3.33638E-3
-1.78339E-3	-56.7466E-12	928.705E-3	-10.7724E-3	-57.5583E-12	947.592E-3	2.95046E-3
-1.78839E-3	-57.1627E-12	926.305E-3	-13.6005E-3	-57.2133E-12	946.282E-3	5.45505E-3
-1.79340E-3	-57.3362E-12	947.607E-3	-7.63454E-3	-57.4810E-12	931.473E-3	6.17798E-3
-1.79840E-3	-57.4013E-12	950.946E-3	-21.4527E-3	-57.9463E-12	923.706E-3	-3.05636E-3
-1.80340E-3	-57.9618E-12	927.954E-3	-36.3454E-3	-57.7948E-12	932.857E-3	-21.1392E-3
-1.80840E-3	-58.2376E-12	915.293E-3	-27.3903E-3	-58.0650E-12	942.427E-3	-26.8805E-3
-1.81341E-3	-58.0338E-12	916.011E-3	-12.4500E-3	-58.4391E-12	932.034E-3	-25.1377E-3
-1.81841E-3	-58.6085E-12	918.704E-3	-7.22844E-3	-58.6087E-12	913.943E-3	-18.0701E-3
-1.82341E-3	-59.1400E-12	924.378E-3	-6.38349E-3	-58.9514E-12	907.289E-3	-17.6546E-3
-1.82841E-3	-59.3173E-12	930.777E-3	723.319E-6	-59.2663E-12	903.494E-3	-29.2247E-3
-1.83342E-3	-59.4053E-12	934.433E-3	12.7772E-3	-59.4046E-12	902.332E-3	-28.0377E-3
-1.83842E-3	-59.7682E-12	926.481E-3	8.16729E-3	-59.9174E-12	901.021E-3	-17.9099E-3
-1.84342E-3	-60.4778E-12	914.685E-3	-12.3725E-3	-60.2037E-12	889.880E-3	-14.6726E-3
-1.84842E-3	-60.1395E-12	908.508E-3	-18.3689E-3	-60.5445E-12	880.058E-3	-7.03401E-3
-1.85343E-3	-60.3070E-12	902.312E-3	-4.17410E-3	-61.0782E-12	877.026E-3	-690.221E-6
-1.85843E-3	-60.7371E-12	902.133E-3	-645.281E-6	-61.5063E-12	882.954E-3	-10.0864E-3
-1.86343E-3	-61.3886E-12	902.896E-3	-12.4862E-3	-61.6389E-12	886.181E-3	-13.9557E-3
-1.86843E-3	-61.4760E-12	891.568E-3	-12.0127E-3	-61.7834E-12	883.641E-3	-12.1054E-3
-1.87344E-3	-61.5040E-12	890.703E-3	-5.73531E-3	-62.6810E-12	890.038E-3	-10.2682E-3
-1.87844E-3	-61.7194E-12	902.307E-3	-7.66482E-3	-62.9233E-12	888.350E-3	-1.13790E-3
-1.88344E-3	-62.4869E-12	898.280E-3	-10.0197E-3	-62.7765E-12	873.644E-3	2.04239E-3
-1.88844E-3	-63.0272E-12	887.912E-3	-13.9713E-3	-63.1762E-12	875.235E-3	-8.86728E-3
-1.89345E-3	-62.8668E-12	894.794E-3	-21.0624E-3	-63.4366E-12	879.006E-3	-22.4205E-3
-1.89845E-3	-63.2488E-12	897.934E-3	-29.4089E-3	-63.4596E-12	862.645E-3	-30.3814E-3
-1.90345E-3	-63.8633E-12	887.337E-3	-30.5157E-3	-63.6660E-12	846.950E-3	-32.3417E-3
-1.90845E-3	-63.8786E-12	878.661E-3	-26.1369E-3	-63.9491E-12	840.408E-3	-29.8263E-3
-1.91346E-3	-64.2224E-12	865.787E-3	-23.2050E-3	-63.6770E-12	838.457E-3	-19.4898E-3
-1.91846E-3	-64.8042E-12	857.772E-3	-20.4869E-3	-63.6395E-12	842.486E-3	3.12429E-3
-1.92346E-3	-65.0133E-12	867.214E-3	-15.9077E-3	-64.1986E-12	854.019E-3	16.1096E-3
-1.92846E-3	-65.1995E-12	869.206E-3	-15.9053E-3	-64.0670E-12	859.914E-3	6.00262E-3
-1.93347E-3	-65.3804E-12	856.213E-3	-22.4115E-3	-64.0643E-12	851.892E-3	-16.6851E-3
-1.93847E-3	-65.5933E-12	856.573E-3	-18.4246E-3	-64.4028E-12	838.627E-3	-30.9615E-3
-1.94347E-3	-65.6327E-12	854.095E-3	-13.6051E-3	-64.9562E-12	829.326E-3	-20.5409E-3
-1.94847E-3	-65.4885E-12	841.956E-3	-12.9984E-3	-65.1398E-12	831.478E-3	-11.7922E-3
-1.95348E-3	-65.7431E-12	843.356E-3	-8.87302E-3	-65.9492E-12	836.321E-3	-24.1213E-3
-1.95848E-3	-66.5604E-12	849.212E-3	-14.8534E-3	-66.3904E-12	846.019E-3	-28.5207E-3
-1.96348E-3	-67.0305E-12	847.458E-3	-26.2154E-3	-66.6221E-12	861.872E-3	-16.2917E-3
-1.96848E-3	-66.9324E-12	842.640E-3	-18.9100E-3	-67.7817E-12	859.101E-3	-14.6986E-3
-1.97349E-3	-67.6127E-12	842.990E-3	-7.25795E-3	-68.5037E-12	843.794E-3	-18.1180E-3
-1.97849E-3	-68.4821E-12	841.813E-3	-20.6622E-3	-68.7970E-12	833.814E-3	-12.8732E-3
-1.98349E-3	-69.2317E-12	844.040E-3	-30.0661E-3	-69.4649E-12	830.662E-3	-24.4240E-3
-1.98849E-3	-69.1896E-12	853.192E-3	-15.3490E-3	-69.8956E-12	831.850E-3	-42.0273E-3
-1.99350E-3	-69.6440E-12	849.540E-3	-7.65855E-3	-69.5923E-12	825.946E-3	-33.4818E-3
-1.99850E-3	-70.0427E-12	837.114E-3	-3.82622E-3	-69.8496E-12	818.820E-3	-22.2823E-3
-2.00350E-3	-70.8476E-12	831.299E-3	9.15197E-3	-70.3282E-12	816.468E-3	-22.0374E-3
-2.00850E-3	-70.7333E-12	844.533E-3	1.28321E-3	-69.6679E-12	810.593E-3	-22.6615E-3
-2.01351E-3	-70.7575E-12	864.689E-3	-18.3682E-3	-69.2716E-12	806.896E-3	-17.9048E-3
-2.01851E-3	-71.0488E-12	850.622E-3	-14.9448E-3	-69.4310E-12	803.833E-3	-15.6636E-3
-2.02351E-3	-70.9614E-12	820.026E-3	-6.58130E-3	-69.5659E-12	806.522E-3	-25.6443E-3
-2.02851E-3	-70.6883E-12	815.632E-3	-7.61975E-3	-69.5256E-12	816.871E-3	-31.6910E-3
-2.03352E-3	-70.9469E-12	823.716E-3	-17.1652E-3	-69.5581E-12	813.762E-3	-36.8223E-3
-2.03852E-3	-70.9483E-12	818.388E-3	-34.5241E-3	-70.0755E-12	804.697E-3	-42.4705E-3
-2.04352E-3	-70.5227E-12	805.300E-3	-45.4436E-3	-70.2856E-12	806.892E-3	-36.1443E-3
-2.04852E-3	-70.6714E-12	787.649E-3	-42.3025E-3	-70.7858E-12	808.782E-3	-17.1595E-3
-2.05353E-3	-71.2756E-12	774.080E-3	-34.1348E-3	-71.6264E-12	805.502E-3	-3.73184E-3
-2.05853E-3	-71.4540E-12	783.894E-3	-30.3994E-3	-72.6662E-12	808.288E-3	-3.19042E-3
-2.06353E-3	-72.0152E-12	793.582E-3	-21.2825E-3	-73.1143E-12	818.745E-3	-3.59378E-3
-2.06853E-3	-72.8228E-12	786.585E-3	-11.2584E-3	-73.5991E-12	827.550E-3	-17.3994E-3
-2.07354E-3	-73.0992E-12	787.683E-3	-16.3375E-3	-74.0956E-12	832.551E-3	-26.4518E-3
-2.07854E-3	-73.8181E-12	800.000E-3	-19.5429E-3	-74.7435E-12	827.840E-3	-10.3250E-3
-2.08354E-3	-74.1313E-12	813.423E-3	-15.2426E-3	-75.3410E-12	811.041E-3	3.47171E-3
-2.08854E-3	-74.5273E-12	818.396E-3	-18.5165E-3	-75.0173E-12	808.317E-3	-831.656E-6
-2.09355E-3	-75.4852E-12	814.034E-3	-21.5099E-3	-75.2006E-12	816.356E-3	-14.4639E-3
-2.09855E-3	-75.5881E-12	817.983E-3	-11.6673E-3	-75.0378E-12	815.887E-3	-22.4042E-3
-2.10355E-3	-75.0582E-12	822.661E-3	-170.959E-6	-75.0806E-12	808.521E-3	-15.9367E-3
-2.10855E-3	-75.7103E-12	815.195E-3	-6.14259E-3	-74.8089E-12	792.666E-3	-16.1765E-3
-2.11356E-3	-75.8721E-12	806.084E-3	-18.2074E-3	-74.8812E-12	779.714E-3	-20.4257E-3
-2.11856E-3	-74.8360E-12	798.864E-3	-27.2442E-3	-74.5961E-12	772.983E-3	-15.1376E-3
-2.12356E-3	-74.8006E-12	791.361E-3	-29.3048E-3	-74.6827E-12	764.872E-3	-12.1243E-3
-2.12856E-3	-74.7879E-12	789.131E-3	-18.0796E-3	-75.1787E-12	746.864E-3	-7.27307E-3
-2.13357E-3	-74.3904E-12	784.138E-3	-7.78836E-3	-75.0250E-12	732.915E-3	-13.9087E-3
-2.13857E-3	-74.5383E-12	770.903E-3	-8.05050E-3	-74.9787E-12	740.883E-3	-27.2925E-3
-2.14357E-3	-74.5661E-12	764.486E-3	-7.00713E-3	-75.1807E-12	754.963E-3	-20.9029E-3
-2.14857E-3	-74.4334E-12	763.728E-3	-1.81122E-3	-75.6191E-12	768.548E-3	-14.1707E-3
-2.15358E-3	-75.0464E-12	761.842E-3	1.48594E-3	-76.0362E-12	779.563E-3	-10.6086E-3
-2.15858E-3	-75.7121E-12	767.204E-3	8.81353E-3	-76.7910E-12	775.803E-3	-231.811E-6
-2.16358E-3	-76.5846E-12	774.869E-3	10.5086E-3	-77.4752E-12	772.957E-3	-3.00071E-3
-2.16858E-3	-77.3510E-12	773.874E-3	4.72334E-3	-78.0566E-12	778.486E-3	-15.5645E-3
-2.17359E-3	-78.1982E-12	765.553E-3	2.23200E-3	-78.9469E-12	782.330E-3	-24.7202E-3
-2.17859E-3	-78.8910E-12	757.881E-3	-7.86210E-3	-79.0617E-12	782.793E-3	-21.8563E-3
-2.18359E-3	-79.1179E-12	767.260E-3	-19.9783E-3	-79.3392E-12	776.216E-3	-15.1982E-3
-2.18859E-3	-79.7152E-12	788.300E-3	-23.9955E-3	-79.7795E-12	755.402E-3	-18.3497E-3
-2.19360E-3	-80.2119E-12	792.155E-3	-26.5365E-3	-79.7802E-12	735.951E-3	-21.6638E-3
-2.19860E-3	-79.9903E-12	779.600E-3	-29.4550E-3	-79.3164E-12	738.671E-3	-22.6867E-3
-2.20360E-3	-79.7452E-12	766.477E-3	-21.7474E-3	-79.5647E-12	753.107E-3	-26.4964E-3
-2.20860E-3	-80.1829E-12	763.886E-3	-11.0833E-3	-79.6980E-12	761.389E-3	-28.9171E-3
-2.21361E-3	-80.1035E-12	764.350E-3	-13.2010E-3	-79.9055E-12	762.823E-3	-24.3275E-3
-2.21861E-3	-79.4817E-12	772.155E-3	-12.7647E-3	-80.2431E-12	763.647E-3	-19.0357E-3
-2.22361E-3	-79.5722E-12	774.219E-3	-10.3901E-3	-80.5730E-12	761.151E-3	-16.6781E-3
-2.22861E-3	-80.1499E-12	745.569E-3	-16.9135E-3	-80.7125E-12	759.730E-3	-14.6882E-3
-2.23362E-3	-80.1934E-12	730.313E-3	-15.3064E-3	-80.9043E-12	760.563E-3	-12.4332E-3
-2.23862E-3	-80.3440E-12	740.001E-3	-4.70081E-3	-81.4272E-12	760.221E-3	-10.0648E-3
-2.24362E-3	-80.8900E-12	744.202E-3	-8.40090E-3	-81.8044E-12	758.891E-3	-9.38852E-3
-2.24862E-3	-81.3278E-12	745.061E-3	-6.98397E-3	-81.4954E-12	758.820E-3	-17.0046E-3
-2.25363E-3	-82.0524E-12	744.979E-3	7.41758E-3	-82.3045E-12	763.109E-3	-25.3445E-3
-2.25863E-3	-82.6325E-12	751.722E-3	1.15255E-3	-82.7714E-12	775.628E-3	-18.4191E-3
-2.26363E-3	-82.6650E-12	759.882E-3	-10.2975E-3	-82.6459E-12	782.852E-3	-16.5597E-3
-2.26863E-3	-83.4222E-12	759.406E-3	627.328E-6	-83.1786E-12	765.227E-3	-20.7149E-3
-2.27364E-3	-83.8990E-12	760.933E-3	13.7883E-3	-83.6506E-12	755.762E-3	-12.0791E-3
-2.27864E-3	-83.9929E-12	775.958E-3	14.8200E-3	-83.4069E-12	764.434E-3	-15.3504E-3
-2.28364E-3	-84.3845E-12	794.339E-3	8.73254E-3	-84.2555E-12	757.570E-3	-24.8163E-3
-2.28864E-3	-85.0660E-12	791.656E-3	-2.00700E-3	-84.8304E-12	757.334E-3	-21.7525E-3
-2.29365E-3	-84.7411E-12	787.222E-3	-11.3986E-3	-85.0879E-12	759.892E-3	-18.3800E-3
-2.29865E-3	-84.7185E-12	783.582E-3	-23.5728E-3	-84.8652E-12	742.917E-3	-16.6948E-3
-2.30365E-3	-85.3072E-12	747.292E-3	-37.9526E-3	-86.0015E-12	740.614E-3	-15.2872E-3
-2.30865E-3	-85.5720E-12	722.167E-3	-34.2213E-3	-85.9479E-12	751.595E-3	-5.82425E-3
-2.31366E-3	-85.5102E-12	740.250E-3	-19.2565E-3	-86.3912E-12	754.480E-3	7.06903E-3
-2.31866E-3	-86.0001E-12	750.106E-3	-14.8358E-3	-86.9511E-12	762.360E-3	5.74557E-3
-2.32366E-3	-86.4212E-12	737.407E-3	-22.6335E-3	-86.4534E-12	769.011E-3	-9.79532E-3
-2.32866E-3	-86.9698E-12	729.623E-3	-29.4169E-3	-86.6525E-12	762.172E-3	-20.3398E-3
-2.33367E-3	-86.7607E-12	736.238E-3	-29.7213E-3	-87.6177E-12	758.742E-3	-13.3492E-3
-2.33867E-3	-86.7271E-12	747.071E-3	-32.9820E-3	-87.1084E-12	757.237E-3	-15.6792E-3
-2.34367E-3	-87.8468E-12	753.606E-3	-39.0916E-3	-87.2982E-12	746.013E-3	-28.3390E-3
-2.34867E-3	-87.6671E-12	757.535E-3	-43.0466E-3	-87.4194E-12	739.352E-3	-23.3897E-3
-2.35368E-3	-87.3255E-12	754.059E-3	-49.2691E-3	-87.4809E-12	735.942E-3	-20.3217E-3
-2.35868E-3	-88.3489E-12	743.137E-3	-46.1260E-3	-87.8208E-12	723.293E-3	-35.0140E-3
-2.36368E-3	-88.0159E-12	740.878E-3	-25.3420E-3	-88.4477E-12	716.613E-3	-31.7401E-3
-2.36868E-3	-87.5521E-12	743.671E-3	-3.40832E-3	-88.0682E-12	723.455E-3	-11.6654E-3
-2.37369E-3	-88.1789E-12	741.448E-3	-4.02584E-3	-88.2026E-12	726.744E-3	-15.2215E-3
-2.37869E-3	-88.6149E-12	732.751E-3	-21.8374E-3	-88.9091E-12	728.392E-3	-20.4044E-3
-2.38369E-3	-88.2785E-12	731.855E-3	-22.2974E-3	-89.6289E-12	738.085E-3	-14.2606E-3
-2.38869E-3	-88.5301E-12	736.940E-3	-12.6272E-3	-89.6533E-12	733.122E-3	-25.5889E-3
-2.39370E-3	-89.0816E-12	722.583E-3	-16.2998E-3	-89.6216E-12	729.946E-3	-37.0015E-3
-2.39870E-3	-89.5832E-12	715.702E-3	-21.5999E-3	-90.1327E-12	741.486E-3	-33.3116E-3
-2.40370E-3	-90.1126E-12	734.013E-3	-7.16679E-3	-91.2465E-12	748.882E-3	-27.2727E-3
-2.40870E-3	-90.8132E-12	749.776E-3	4.18651E-3	-91.7111E-12	754.216E-3	-23.3382E-3
-2.41371E-3	-91.0262E-12	751.779E-3	-13.8376E-3	-91.0782E-12	756.236E-3	-26.7614E-3
-2.41871E-3	-91.4845E-12	747.316E-3	-21.6306E-3	-91.4513E-12	752.648E-3	-29.8361E-3
-2.42371E-3	-91.9407E-12	742.549E-3	-13.1103E-3	-92.1557E-12	738.531E-3	-33.1610E-3
-2.42871E-3	-91.7229E-12	735.512E-3	-4.82516E-3	-91.8701E-12	734.481E-3	-30.1696E-3
-2.43372E-3	-92.3992E-12	726.351E-3	2.29076E-3	-91.3616E-12	743.351E-3	-25.1316E-3
-2.43872E-3	-92.5773E-12	721.595E-3	-14.3401E-3	-91.3998E-12	728.086E-3	-22.1757E-3
-2.44372E-3	-92.2350E-12	727.811E-3	-30.2978E-3	-91.1538E-12	712.436E-3	-4.38581E-3
-2.44872E-3	-91.4990E-12	739.822E-3	-19.1690E-3	-91.5323E-12	717.851E-3	-2.31867E-3
-2.45373E-3	-91.3546E-12	733.716E-3	4.80118E-3	-91.5646E-12	721.340E-3	-12.9847E-3
-2.45873E-3	-91.3781E-12	714.225E-3	15.0452E-3	-91.2150E-12	718.405E-3	-8.36889E-3
-2.46373E-3	-90.8865E-12	718.452E-3	-13.4737E-3	-91.4750E-12	720.029E-3	-6.69541E-3
-2.46873E-3	-90.3023E-12	736.651E-3	-34.7750E-3	-91.6452E-12	725.504E-3	-13.2227E-3
-2.47374E-3	-90.7101E-12	733.825E-3	-20.3154E-3	-92.4701E-12	722.185E-3	-14.2891E-3
-2.47874E-3	-91.0380E-12	718.319E-3	-3.49384E-3	-93.4530E-12	729.550E-3	-7.55487E-3
-2.48374E-3	-91.1256E-12	707.984E-3	6.37303E-3	-93.6441E-12	746.836E-3	-12.4307E-3
-2.48874E-3	-92.1976E-12	702.166E-3	-4.85518E-3	-94.2559E-12	750.977E-3	-25.4864E-3
-2.49375E-3	-93.2880E-12	705.110E-3	-34.9578E-3	-95.0536E-12	749.814E-3	-22.6368E-3
-2.49875E-3	-93.8202E-12	712.114E-3	-39.5653E-3	-95.9779E-12	755.476E-3	-16.9203E-3
-2.50375E-3	-94.5547E-12	716.932E-3	-16.2193E-3	-95.7934E-12	750.669E-3	-16.1312E-3
-2.50875E-3	-95.5746E-12	723.560E-3	-5.40836E-3	-95.8304E-12	735.033E-3	-16.0038E-3
-2.51376E-3	-95.9491E-12	730.735E-3	-2.77715E-3	-96.1861E-12	729.125E-3	-14.0403E-3
-2.51876E-3	-96.5111E-12	726.797E-3	3.13082E-3	-96.1179E-12	722.829E-3	-6.07569E-3
-2.52376E-3	-96.7483E-12	710.124E-3	4.37745E-3	-96.1677E-12	722.629E-3	-4.02523E-3
-2.52876E-3	-96.6474E-12	703.459E-3	4.14120E-3	-96.1582E-12	714.124E-3	-10.0356E-3
-2.53377E-3	-96.6022E-12	713.279E-3	-5.05206E-3	-95.6918E-12	691.700E-3	-10.2632E-3
-2.53877E-3	-96.8335E-12	721.327E-3	-19.3388E-3	-95.4730E-12	690.757E-3	-8.24108E-3
-2.54377E-3	-96.3666E-12	734.756E-3	-19.6915E-3	-95.6607E-12	698.045E-3	-20.5510E-3
-2.54877E-3	-96.7672E-12	748.076E-3	-1.20150E-3	-95.5284E-12	699.774E-3	-25.4338E-3
-2.55378E-3	-96.2697E-12	735.334E-3	-1.17255E-3	-95.1703E-12	718.281E-3	-19.1993E-3
-2.55878E-3	-96.4378E-12	718.714E-3	-25.2951E-3	-96.0242E-12	738.094E-3	-22.5768E-3
-2.56378E-3	-96.4322E-12	718.011E-3	-36.4659E-3	-96.6259E-12	737.992E-3	-19.8607E-3
-2.56878E-3	-97.2731E-12	723.356E-3	-31.4259E-3	-96.8843E-12	721.552E-3	-11.7263E-3
-2.57379E-3	-97.2959E-12	728.517E-3	-16.2962E-3	-97.0738E-12	701.572E-3	-1.96004E-3
-2.57879E-3	-97.4692E-12	718.406E-3	-11.6075E-3	-98.5062E-12	700.518E-3	7.54115E-3
-2.58379E-3	-98.4359E-12	696.162E-3	-17.0259E-3	-99.3913E-12	716.147E-3	-1.92562E-3
-2.58879E-3	-98.7252E-12	688.190E-3	-9.41860E-3	-99.9217E-12	727.870E-3	-15.6044E-3
-2.59380E-3	-99.8367E-12	694.541E-3	10.9527E-3	-100.067E-12	732.092E-3	-19.3495E-3
-2.59880E-3	-100.156E-12	697.776E-3	23.2648E-3	-101.186E-12	730.276E-3	-16.5568E-3
-2.60380E-3	-100.654E-12	707.212E-3	7.98103E-3	-101.219E-12	720.601E-3	-9.82513E-3
-2.60880E-3	-101.294E-12	733.641E-3	-9.98041E-3	-101.313E-12	715.150E-3	-13.6160E-3
-2.61381E-3	-101.806E-12	741.988E-3	-6.46620E-3	-101.738E-12	713.760E-3	-29.5775E-3
-2.61881E-3	-101.861E-12	728.132E-3	-6.72513E-3	-101.971E-12	711.590E-3	-40.6573E-3
-2.62381E-3	-101.625E-12	727.413E-3	-19.6004E-3	-101.743E-12	721.313E-3	-35.6142E-3
-2.62881E-3	-102.153E-12	735.249E-3	-22.8548E-3	-101.676E-12	739.959E-3	-24.0200E-3
-2.63382E-3	-102.477E-12	744.168E-3	-27.5462E-3	-101.304E-12	754.421E-3	-23.2800E-3
-2.63882E-3	-102.397E-12	749.822E-3	-36.2189E-3	-101.274E-12	758.801E-3	-18.7991E-3
-2.64382E-3	-102.406E-12	742.142E-3	-20.7241E-3	-100.780E-12	742.602E-3	551.688E-6
-2.64882E-3	-102.755E-12	731.989E-3	4.33008E-3	-101.258E-12	716.438E-3	11.0716E-3
-2.65383E-3	-103.448E-12	720.126E-3	4.70475E-3	-101.593E-12	696.400E-3	-11.6727E-3
-2.65883E-3	-103.652E-12	713.489E-3	-6.70461E-3	-101.329E-12	691.781E-3	-36.9801E-3
-2.66383E-3	-103.298E-12	717.070E-3	-9.44041E-3	-101.184E-12	700.839E-3	-28.6411E-3
-2.66883E-3	-103.292E-12	715.796E-3	-10.9835E-3	-102.181E-12	700.357E-3	-9.62976E-3
-2.67384E-3	-104.199E-12	710.127E-3	-13.1345E-3	-103.564E-12	703.241E-3	-740.426E-6
-2.67884E-3	-104.341E-12	719.355E-3	-21.0530E-3	-103.574E-12	710.795E-3	-17.9561E-3
-2.68384E-3	-103.617E-12	743.009E-3	-34.7533E-3	-104.169E-12	698.987E-3	-45.9871E-3
-2.68884E-3	-104.439E-12	746.139E-3	-39.6002E-3	-105.079E-12	688.790E-3	-36.4316E-3
-2.69385E-3	-105.035E-12	729.898E-3	-30.3059E-3	-105.129E-12	696.292E-3	-3.76691E-3
-2.69885E-3	-104.266E-12	714.377E-3	-3.86840E-3	-105.477E-12	704.458E-3	1.64079E-3
-2.70385E-3	-104.647E-12	704.495E-3	3.42535E-3	-105.981E-12	704.549E-3	-12.2709E-3
-2.70885E-3	-104.608E-12	707.881E-3	-27.5444E-3	-105.742E-12	700.999E-3	-14.9777E-3
-2.71386E-3	-103.605E-12	711.626E-3	-38.3159E-3	-105.905E-12	706.108E-3	-13.6335E-3
-2.71886E-3	-103.819E-12	696.652E-3	-20.9325E-3	-106.057E-12	711.661E-3	-17.9345E-3
-2.72386E-3	-105.067E-12	677.274E-3	-20.7786E-3	-105.301E-12	698.997E-3	-19.8663E-3
-2.72886E-3	-104.344E-12	679.890E-3	-29.7604E-3	-105.639E-12	697.073E-3	-16.3375E-3
-2.73387E-3	-104.130E-12	683.365E-3	-23.0461E-3	-105.760E-12	709.854E-3	-16.8971E-3
-2.73887E-3	-105.357E-12	668.486E-3	-13.1253E-3	-105.134E-12	703.561E-3	-26.3899E-3
-2.74387E-3	-106.169E-12	665.230E-3	-8.37615E-3	-105.198E-12	700.720E-3	-24.8523E-3
-2.74887E-3	-105.713E-12	684.923E-3	-20.5205E-3	-105.081E-12	712.333E-3	-7.28285E-3
-2.75388E-3	-106.172E-12	694.180E-3	-42.6976E-3	-104.809E-12	714.052E-3	8.73782E-3
-2.75888E-3	-106.755E-12	680.437E-3	-37.5536E-3	-104.947E-12	701.056E-3	9.86232E-3
-2.76388E-3	-106.958E-12	675.324E-3	-6.54910E-3	-105.786E-12	694.136E-3	-9.94231E-3
-2.76888E-3	-107.497E-12	677.724E-3	7.90956E-3	-105.594E-12	702.933E-3	-30.0803E-3
-2.77389E-3	-107.645E-12	674.195E-3	4.51441E-3	-105.690E-12	705.505E-3	-30.4850E-3
-2.77889E-3	-107.288E-12	674.134E-3	5.70952E-3	-106.199E-12	695.896E-3	-19.0483E-3
-2.78389E-3	-107.383E-12	683.235E-3	-3.85682E-3	-106.736E-12	687.633E-3	-19.1091E-3
-2.78889E-3	-107.601E-12	700.573E-3	-15.2396E-3	-107.116E-12	685.718E-3	-32.6123E-3
-2.79390E-3	-107.581E-12	696.539E-3	-9.56094E-3	-107.395E-12	689.578E-3	-40.2315E-3
-2.79890E-3	-107.338E-12	679.782E-3	-22.4092E-3	-108.207E-12	698.460E-3	-37.2888E-3
-2.80390E-3	-107.013E-12	687.120E-3	-46.0847E-3	-108.412E-12	694.490E-3	-31.3762E-3
-2.80890E-3	-107.246E-12	696.016E-3	-38.6821E-3	-109.203E-12	686.130E-3	-24.8770E-3
-2.81391E-3	-108.298E-12	680.255E-3	-22.3641E-3	-109.825E-12	699.474E-3	-19.0288E-3
-2.81891E-3	-108.439E-12	676.604E-3	-18.8178E-3	-109.987E-12	708.070E-3	-9.56060E-3
-2.82391E-3	-108.514E-12	696.401E-3	-15.9833E-3	-110.374E-12	694.067E-3	-7.98343E-3
-2.82891E-3	-109.667E-12	701.137E-3	-11.9322E-3	-110.930E-12	686.992E-3	-22.5894E-3
-2.83392E-3	-110.781E-12	699.093E-3	-18.9406E-3	-110.985E-12	691.968E-3	-27.5930E-3
-2.83892E-3	-111.046E-12	700.174E-3	-25.1746E-3	-110.910E-12	689.324E-3	-21.6293E-3
-2.84392E-3	-111.951E-12	706.493E-3	-16.6819E-3	-111.959E-12	672.971E-3	-5.85599E-3
-2.84892E-3	-112.628E-12	738.011E-3	-217.931E-6	-111.512E-12	662.940E-3	15.2268E-3
-2.85393E-3	-113.606E-12	752.635E-3	16.0637E-3	-110.645E-12	668.916E-3	18.8218E-3
-2.85893E-3	-114.357E-12	714.836E-3	18.6906E-3	-110.601E-12	677.729E-3	-1.81338E-3
-2.86393E-3	-114.925E-12	698.352E-3	14.5287E-3	-110.913E-12	693.380E-3	-16.0822E-3
-2.86893E-3	-114.393E-12	726.431E-3	5.87496E-3	-110.650E-12	705.129E-3	-3.30531E-3
-2.87394E-3	-114.489E-12	733.377E-3	-16.2245E-3	-110.842E-12	700.578E-3	-10.3295E-3
-2.87894E-3	-114.488E-12	721.690E-3	-26.5915E-3	-111.282E-12	687.617E-3	-38.3909E-3
-2.88394E-3	-114.816E-12	716.479E-3	-13.3823E-3	-111.141E-12	676.033E-3	-37.4320E-3
-2.88894E-3	-114.801E-12	712.230E-3	-5.92432E-3	-112.785E-12	674.825E-3	-19.0663E-3
-2.89395E-3	-114.138E-12	705.662E-3	-9.45001E-3	-113.298E-12	691.767E-3	-3.06698E-3
-2.89895E-3	-114.097E-12	697.597E-3	591.640E-6	-113.343E-12	713.942E-3	2.99598E-3
-2.90395E-3	-114.788E-12	695.762E-3	4.83229E-3	-113.972E-12	708.856E-3	-1.21101E-3
-2.90895E-3	-114.429E-12	701.068E-3	-19.1206E-3	-115.342E-12	700.521E-3	-5.82493E-3
-2.91396E-3	-114.042E-12	705.387E-3	-32.7567E-3	-115.685E-12	715.883E-3	-17.8227E-3
-2.91896E-3	-115.348E-12	703.420E-3	-13.1888E-3	-115.821E-12	723.830E-3	-32.0427E-3
-2.92396E-3	-115.547E-12	699.182E-3	4.17841E-3	-116.713E-12	720.018E-3	-30.8825E-3
-2.92896E-3	-115.175E-12	696.575E-3	-2.26115E-3	-117.159E-12	706.788E-3	-26.5343E-3
-2.93397E-3	-115.800E-12	695.041E-3	-14.7049E-3	-117.445E-12	689.478E-3	-30.2879E-3
-2.93897E-3	-117.529E-12	695.021E-3	-29.7525E-3	-116.647E-12	691.724E-3	-20.0404E-3
-2.94397E-3	-117.257E-12	690.516E-3	-33.6313E-3	-116.777E-12	690.968E-3	-680.254E-6
-2.94897E-3	-117.226E-12	694.215E-3	-14.8823E-3	-116.549E-12	678.225E-3	223.650E-6
-2.95398E-3	-118.470E-12	704.431E-3	2.22593E-3	-116.117E-12	678.785E-3	-3.99025E-3
-2.95898E-3	-118.447E-12	701.894E-3	6.66260E-3	-115.972E-12	675.406E-3	4.58400E-3
-2.96398E-3	-118.507E-12	698.797E-3	-3.33760E-3	-115.998E-12	677.529E-3	5.50305E-3
-2.96898E-3	-118.285E-12	693.145E-3	-26.8649E-3	-115.570E-12	696.258E-3	-14.6715E-3
-2.97399E-3	-118.482E-12	688.011E-3	-37.7035E-3	-114.933E-12	695.666E-3	-36.4289E-3
-2.97899E-3	-117.335E-12	702.914E-3	-12.3917E-3	-115.484E-12	686.281E-3	-29.4288E-3
-2.98399E-3	-117.304E-12	717.906E-3	18.4719E-3	-115.601E-12	696.627E-3	-5.54782E-3
-2.98899E-3	-117.030E-12	712.768E-3	21.0020E-3	-115.109E-12	709.239E-3	-6.32529E-3
-2.99400E-3	-116.466E-12	693.052E-3	2.96729E-3	-115.609E-12	703.886E-3	-21.6044E-3
-2.99900E-3	-116.803E-12	677.465E-3	-20.0061E-3	-116.646E-12	690.045E-3	-26.4827E-3
-3.00400E-3	-118.236E-12	672.484E-3	-35.8721E-3	-117.151E-12	692.003E-3	-21.1514E-3
-3.00900E-3	-118.534E-12	682.668E-3	-33.0812E-3	-117.378E-12	707.569E-3	-10.9404E-3
-3.01401E-3	-117.853E-12	692.659E-3	-23.3369E-3	-118.602E-12	715.482E-3	-7.16371E-3
-3.01901E-3	-118.326E-12	673.863E-3	-23.2628E-3	-119.853E-12	722.880E-3	-6.10313E-3
-3.02401E-3	-119.196E-12	664.543E-3	-27.6265E-3	-119.696E-12	724.781E-3	3.24043E-3
-3.02901E-3	-118.911E-12	669.661E-3	-31.1891E-3	-119.625E-12	701.687E-3	5.54843E-3
-3.03402E-3	-119.670E-12	667.133E-3	-32.0824E-3	-120.285E-12	682.660E-3	-12.4196E-3
-3.03902E-3	-119.946E-12	681.664E-3	-22.3657E-3	-120.679E-12	688.056E-3	-30.5526E-3
-3.04402E-3	-120.430E-12	710.899E-3	-2.36172E-3	-120.998E-12	694.147E-3	-22.7143E-3
-3.04902E-3	-120.787E-12	727.846E-3	9.10534E-3	-120.129E-12	696.121E-3	-9.15758E-3
-3.05403E-3	-121.018E-12	722.076E-3	5.40188E-3	-120.066E-12	699.280E-3	-14.6454E-3
-3.05903E-3	-120.532E-12	703.346E-3	9.86149E-3	-120.505E-12	695.001E-3	-27.9601E-3
-3.06403E-3	-120.800E-12	683.341E-3	6.09093E-3	-120.056E-12	689.634E-3	-29.7339E-3
-3.06903E-3	-121.919E-12	666.583E-3	-16.4852E-3	-119.510E-12	689.504E-3	-18.9173E-3
-3.07404E-3	-121.048E-12	669.262E-3	-11.3452E-3	-120.280E-12	682.445E-3	-2.29966E-3
-3.07904E-3	-121.047E-12	683.086E-3	15.4717E-3	-120.039E-12	667.223E-3	19.7284E-3
-3.08404E-3	-122.109E-12	688.586E-3	15.4557E-3	-119.927E-12	657.700E-3	22.4761E-3
-3.08904E-3	-122.144E-12	680.158E-3	4.74418E-3	-120.907E-12	660.573E-3	-3.54791E-3
-3.09405E-3	-121.707E-12	679.613E-3	-1.14399E-3	-121.476E-12	663.385E-3	-19.0082E-3
-3.09905E-3	-122.682E-12	705.148E-3	-27.7458E-3	-120.857E-12	666.170E-3	-18.5677E-3
-3.10405E-3	-122.811E-12	711.199E-3	-45.0080E-3	-122.549E-12	669.525E-3	-21.2491E-3
-3.10905E-3	-122.843E-12	687.341E-3	-33.8352E-3	-123.518E-12	672.976E-3	-12.8480E-3
-3.11406E-3	-123.073E-12	678.991E-3	-37.0086E-3	-123.446E-12	692.268E-3	-9.17277E-3
-3.11906E-3	-123.706E-12	686.407E-3	-43.6656E-3	-124.306E-12	720.479E-3	-29.8557E-3
-3.12406E-3	-123.865E-12	681.905E-3	-36.7467E-3	-125.965E-12	731.997E-3	-37.9869E-3
-3.12906E-3	-123.834E-12	682.406E-3	-30.2826E-3	-126.309E-12	719.271E-3	-19.8095E-3
-3.13407E-3	-124.517E-12	693.131E-3	-15.7659E-3	-126.194E-12	705.986E-3	-5.77536E-3
-3.13907E-3	-125.228E-12	685.818E-3	-14.0227E-3	-127.799E-12	713.279E-3	-8.30244E-3
-3.14407E-3	-125.601E-12	679.736E-3	-23.8647E-3	-127.838E-12	709.998E-3	-19.2284E-3
-3.14907E-3	-125.452E-12	695.171E-3	-28.7194E-3	-126.776E-12	685.318E-3	-21.4842E-3
-3.15408E-3	-125.857E-12	696.386E-3	-33.1337E-3	-128.009E-12	687.666E-3	-20.2259E-3
-3.15908E-3	-126.730E-12	673.946E-3	-24.9597E-3	-127.573E-12	688.139E-3	-20.9750E-3
-3.16408E-3	-126.746E-12	669.409E-3	-4.42083E-3	-126.491E-12	667.960E-3	-16.8129E-3
-3.16908E-3	-127.249E-12	685.350E-3	8.18867E-3	-126.322E-12	666.795E-3	-23.4056E-3
-3.17409E-3	-127.312E-12	687.163E-3	-10.6914E-3	-126.294E-12	675.942E-3	-37.4214E-3
-3.17909E-3	-128.267E-12	691.001E-3	-39.6466E-3	-125.522E-12	676.279E-3	-26.6910E-3
-3.18409E-3	-128.266E-12	695.469E-3	-38.7921E-3	-125.937E-12	670.677E-3	-21.0498E-3
-3.18909E-3	-128.610E-12	684.795E-3	-19.3060E-3	-125.689E-12	665.713E-3	-29.4492E-3
-3.19410E-3	-129.386E-12	679.353E-3	4.07994E-3	-125.290E-12	687.554E-3	-24.5520E-3
-3.19910E-3	-129.358E-12	663.204E-3	19.0731E-3	-125.780E-12	716.523E-3	-27.9609E-3
-3.20410E-3	-128.941E-12	662.946E-3	6.17388E-3	-126.063E-12	696.207E-3	-31.5504E-3
-3.20910E-3	-128.928E-12	698.159E-3	-10.3901E-3	-126.593E-12	656.527E-3	-32.9904E-3
-3.21411E-3	-129.035E-12	706.273E-3	-16.7344E-3	-127.971E-12	651.619E-3	-33.3960E-3
-3.21911E-3	-128.775E-12	696.522E-3	-26.1981E-3	-128.250E-12	678.117E-3	-32.5484E-3
-3.22411E-3	-129.182E-12	696.243E-3	-31.8555E-3	-128.080E-12	682.885E-3	-36.1540E-3
-3.22911E-3	-128.672E-12	699.708E-3	-34.4194E-3	-128.455E-12	669.423E-3	-18.2164E-3
-3.23412E-3	-128.878E-12	709.691E-3	-43.7459E-3	-129.094E-12	680.485E-3	-4.59648E-3
-3.23912E-3	-128.919E-12	702.884E-3	-39.1817E-3	-129.196E-12	683.935E-3	-25.1612E-3
-3.24412E-3	-128.840E-12	680.440E-3	-15.5930E-3	-129.329E-12	678.639E-3	-41.3095E-3
-3.24912E-3	-129.621E-12	667.348E-3	-8.47831E-3	-129.430E-12	684.486E-3	-44.2353E-3
-3.25413E-3	-129.595E-12	665.069E-3	-4.96972E-3	-130.129E-12	671.667E-3	-34.7755E-3
-3.25913E-3	-129.846E-12	670.304E-3	8.55990E-3	-130.378E-12	661.461E-3	-17.4779E-3
-3.26413E-3	-130.267E-12	677.935E-3	9.12274E-3	-130.319E-12	667.763E-3	-26.9675E-3
-3.26913E-3	-131.152E-12	682.715E-3	-10.3468E-3	-130.236E-12	676.946E-3	-38.1423E-3
-3.27414E-3	-131.972E-12	687.520E-3	-30.5926E-3	-129.638E-12	695.100E-3	-27.1437E-3
-3.27914E-3	-131.911E-12	688.028E-3	-30.9490E-3	-129.600E-12	698.666E-3	-8.86271E-3
-3.28414E-3	-131.238E-12	684.488E-3	-25.2676E-3	-129.744E-12	680.141E-3	-3.29627E-3
-3.28914E-3	-131.925E-12	685.772E-3	-11.1201E-3	-129.432E-12	666.818E-3	-18.7458E-3
-3.29415E-3	-132.076E-12	676.133E-3	4.29707E-3	-129.895E-12	676.126E-3	-23.3839E-3
-3.29915E-3	-131.621E-12	658.096E-3	-8.00369E-3	-129.614E-12	685.072E-3	-16.7183E-3
-3.30415E-3	-132.142E-12	660.033E-3	-9.72638E-3	-129.873E-12	674.883E-3	-21.3240E-3
-3.30915E-3	-132.303E-12	675.520E-3	10.0637E-3	-131.413E-12	678.844E-3	-22.6078E-3
-3.31416E-3	-131.756E-12	691.337E-3	11.1640E-3	-131.075E-12	691.245E-3	-11.1384E-3
-3.31916E-3	-132.124E-12	703.205E-3	6.14612E-3	-131.163E-12	689.067E-3	2.15167E-3
-3.32416E-3	-133.071E-12	694.847E-3	10.9499E-3	-132.597E-12	685.196E-3	15.3602E-3
-3.32916E-3	-131.967E-12	686.859E-3	6.83565E-3	-133.462E-12	680.497E-3	14.9040E-3
-3.33417E-3	-131.281E-12	689.727E-3	-4.59882E-3	-133.159E-12	684.913E-3	5.93831E-3
-3.33917E-3	-132.922E-12	668.618E-3	-12.6826E-3	-133.788E-12	705.243E-3	-2.45394E-3
-3.34417E-3	-132.771E-12	641.918E-3	-26.6995E-3	-134.948E-12	711.308E-3	-11.9311E-3
-3.34917E-3	-132.122E-12	651.661E-3	-37.4347E-3	-135.448E-12	699.549E-3	-13.4807E-3
-3.35418E-3	-133.195E-12	669.832E-3	-25.4131E-3	-136.133E-12	693.117E-3	-8.67091E-3
-3.35918E-3	-134.355E-12	670.288E-3	-9.92829E-3	-136.344E-12	683.801E-3	-8.30053E-3
-3.36418E-3	-133.976E-12	681.678E-3	-9.04128E-3	-135.056E-12	676.534E-3	-17.8559E-3
-3.36918E-3	-134.119E-12	701.401E-3	-12.3461E-3	-135.960E-12	688.176E-3	-25.5078E-3
-3.37419E-3	-134.617E-12	703.118E-3	-18.2161E-3	-135.811E-12	694.336E-3	-25.9225E-3
-3.37919E-3	-134.636E-12	686.596E-3	-25.4815E-3	-135.539E-12	687.106E-3	-14.6567E-3
-3.38419E-3	-135.416E-12	664.609E-3	-28.6533E-3	-135.407E-12	680.992E-3	-7.36196E-3
-3.38919E-3	-135.220E-12	649.787E-3	-17.9930E-3	-136.102E-12	674.021E-3	-4.51873E-3
-3.39420E-3	-135.646E-12	647.330E-3	14.2650E-3	-135.578E-12	672.882E-3	17.2809E-3
-3.39920E-3	-136.095E-12	656.899E-3	23.9250E-3	-135.271E-12	677.905E-3	22.7793E-3
-3.40420E-3	-137.059E-12	674.773E-3	-11.6394E-3	-136.718E-12	679.155E-3	-6.15625E-3
-3.40920E-3	-136.657E-12	698.195E-3	-29.5280E-3	-136.579E-12	676.535E-3	-34.5887E-3
-3.41421E-3	-137.032E-12	708.855E-3	-7.49950E-3	-135.966E-12	676.144E-3	-49.7283E-3
-3.41921E-3	-137.545E-12	687.209E-3	1.62456E-3	-137.099E-12	689.209E-3	-47.4907E-3
-3.42421E-3	-137.480E-12	667.846E-3	-19.0333E-3	-138.046E-12	700.097E-3	-27.3415E-3
-3.42921E-3	-137.499E-12	659.166E-3	-32.0603E-3	-138.464E-12	695.192E-3	-3.81855E-3
-3.43422E-3	-137.571E-12	662.719E-3	-22.2203E-3	-138.853E-12	698.414E-3	3.18462E-3
-3.43922E-3	-138.290E-12	680.194E-3	-15.8880E-3	-139.689E-12	708.697E-3	-16.1537E-3
-3.44422E-3	-138.720E-12	674.937E-3	-16.6421E-3	-139.811E-12	705.993E-3	-37.2185E-3
-3.44922E-3	-138.601E-12	652.115E-3	-15.5832E-3	-140.587E-12	689.469E-3	-50.0491E-3
-3.45423E-3	-139.177E-12	645.763E-3	-33.9218E-3	-140.863E-12	673.155E-3	-51.5257E-3
-3.45923E-3	-139.709E-12	667.167E-3	-46.9713E-3	-140.933E-12	655.811E-3	-30.0616E-3
-3.46423E-3	-139.787E-12	681.941E-3	-27.1074E-3	-141.223E-12	643.705E-3	-14.8345E-3
-3.46923E-3	-140.152E-12	670.374E-3	-21.6002E-3	-141.940E-12	644.019E-3	-12.5563E-3
-3.47424E-3	-140.559E-12	667.447E-3	-28.1881E-3	-141.016E-12	650.419E-3	5.77075E-3
-3.47924E-3	-140.442E-12	675.368E-3	-5.69144E-3	-140.521E-12	661.762E-3	22.4966E-3
-3.48424E-3	-141.051E-12	675.683E-3	2.41855E-3	-140.567E-12	666.213E-3	6.28508E-3
-3.48924E-3	-141.492E-12	679.208E-3	-4.34179E-3	-140.676E-12	650.990E-3	-13.1410E-3
-3.49425E-3	-141.206E-12	689.648E-3	-1.61973E-3	-140.038E-12	634.584E-3	-2.78494E-3
-3.49925E-3	-141.108E-12	692.444E-3	-18.3664E-3	-140.217E-12	647.782E-3	1.00286E-3
-3.50425E-3	-141.652E-12	687.303E-3	-27.4682E-3	-140.333E-12	665.745E-3	-9.19416E-3
-3.50925E-3	-141.503E-12	684.508E-3	-19.3509E-3	-140.804E-12	670.476E-3	-11.6890E-3
-3.51426E-3	-141.093E-12	681.905E-3	-23.3735E-3	-140.308E-12	671.872E-3	-19.9464E-3
-3.51926E-3	-141.703E-12	683.651E-3	-37.2116E-3	-140.880E-12	672.164E-3	-27.8821E-3
-3.52426E-3	-142.150E-12	671.813E-3	-58.3524E-3	-142.065E-12	686.332E-3	-21.6918E-3
-3.52926E-3	-141.745E-12	654.048E-3	-64.6669E-3	-143.037E-12	701.129E-3	-17.3875E-3
-3.53427E-3	-142.405E-12	654.484E-3	-47.5075E-3	-142.136E-12	695.171E-3	-17.4555E-3
-3.53927E-3	-143.022E-12	657.153E-3	-30.0274E-3	-143.171E-12	686.449E-3	-16.3451E-3
-3.54427E-3	-142.391E-12	662.574E-3	-25.5575E-3	-144.199E-12	684.638E-3	-17.3273E-3
-3.54927E-3	-142.999E-12	673.016E-3	-40.5691E-3	-144.360E-12	695.827E-3	-4.98068E-3
-3.55428E-3	-144.402E-12	670.676E-3	-59.2837E-3	-144.754E-12	705.423E-3	17.2846E-3
-3.55928E-3	-144.236E-12	655.725E-3	-57.8730E-3	-145.614E-12	685.345E-3	2.84916E-3
-3.56428E-3	-143.290E-12	648.136E-3	-47.1353E-3	-145.599E-12	667.023E-3	-31.3708E-3
-3.56928E-3	-143.949E-12	658.305E-3	-36.6277E-3	-144.314E-12	668.268E-3	-31.9298E-3
-3.57429E-3	-144.295E-12	665.666E-3	-17.6488E-3	-144.456E-12	668.395E-3	-18.2627E-3
-3.57929E-3	-143.909E-12	664.007E-3	-21.5450E-3	-144.376E-12	654.221E-3	-14.2796E-3
-3.58429E-3	-143.932E-12	653.267E-3	-37.1212E-3	-144.227E-12	643.577E-3	-19.7336E-3
-3.58929E-3	-144.380E-12	642.989E-3	-33.7726E-3	-143.134E-12	655.806E-3	-30.3593E-3
-3.59430E-3	-144.670E-12	655.015E-3	-39.5377E-3	-142.278E-12	660.904E-3	-38.7825E-3
-3.59930E-3	-144.825E-12	661.780E-3	-34.1408E-3	-142.143E-12	670.301E-3	-32.5031E-3
-3.60430E-3	-145.092E-12	652.628E-3	-6.27137E-3	-142.465E-12	698.623E-3	-8.99977E-3
-3.60930E-3	-146.110E-12	642.509E-3	662.598E-6	-142.287E-12	701.867E-3	2.67805E-3
-3.61431E-3	-146.678E-12	647.012E-3	-4.00551E-3	-142.370E-12	671.523E-3	84.5243E-6
-3.61931E-3	-146.510E-12	654.748E-3	4.51207E-3	-142.706E-12	643.466E-3	8.50860E-3
-3.62431E-3	-146.756E-12	655.820E-3	12.3416E-3	-143.514E-12	651.760E-3	16.8901E-3
-3.62931E-3	-147.577E-12	667.734E-3	14.1337E-3	-144.333E-12	671.183E-3	3.60117E-3
-3.63432E-3	-147.802E-12	679.062E-3	4.53666E-3	-144.899E-12	674.479E-3	-10.1005E-3
-3.63932E-3	-148.533E-12	689.458E-3	-27.1876E-3	-146.040E-12	673.140E-3	6.07272E-3
-3.64432E-3	-147.898E-12	688.717E-3	-45.2655E-3	-146.882E-12	679.234E-3	18.2131E-3
-3.64932E-3	-148.139E-12	680.316E-3	-34.0689E-3	-147.195E-12	692.608E-3	-6.08832E-3
-3.65433E-3	-148.475E-12	679.502E-3	-25.9050E-3	-148.642E-12	694.010E-3	-31.3398E-3
-3.65933E-3	-148.432E-12	672.374E-3	-17.5170E-3	-148.559E-12	684.659E-3	-29.2272E-3
-3.66433E-3	-147.111E-12	674.469E-3	-12.7183E-3	-148.896E-12	684.103E-3	-16.0570E-3
-3.66933E-3	-147.987E-12	683.387E-3	-30.8462E-3	-149.665E-12	687.933E-3	-19.2746E-3
-3.67434E-3	-148.806E-12	674.240E-3	-30.7494E-3	-149.885E-12	675.148E-3	-23.5060E-3
-3.67934E-3	-148.421E-12	664.747E-3	-13.3751E-3	-149.461E-12	664.243E-3	-10.0958E-3
-3.68434E-3	-148.239E-12	666.735E-3	-24.0589E-3	-148.961E-12	665.565E-3	-3.74015E-3
-3.68934E-3	-149.556E-12	667.654E-3	-42.3055E-3	-148.071E-12	675.225E-3	-11.6616E-3
-3.69435E-3	-149.140E-12	666.161E-3	-45.8322E-3	-147.990E-12	672.415E-3	-17.6258E-3
-3.69935E-3	-149.583E-12	674.295E-3	-45.8948E-3	-148.230E-12	644.783E-3	-10.6229E-3
-3.70435E-3	-150.427E-12	684.989E-3	-49.4073E-3	-147.617E-12	640.046E-3	-12.2108E-3
-3.70935E-3	-150.388E-12	680.878E-3	-44.7864E-3	-147.335E-12	652.070E-3	-22.5883E-3
-3.71436E-3	-151.202E-12	674.361E-3	-30.2527E-3	-147.474E-12	654.534E-3	-20.0545E-3
-3.71936E-3	-152.315E-12	676.082E-3	-24.5819E-3	-148.046E-12	651.329E-3	-15.4801E-3
-3.72436E-3	-153.133E-12	675.229E-3	-31.5060E-3	-148.574E-12	653.721E-3	-25.4618E-3
-3.72936E-3	-152.159E-12	659.553E-3	-43.7580E-3	-149.520E-12	656.961E-3	-38.2568E-3
-3.73437E-3	-152.905E-12	654.992E-3	-42.9490E-3	-150.194E-12	653.026E-3	-30.7009E-3
-3.73937E-3	-153.238E-12	674.210E-3	-19.8645E-3	-151.048E-12	651.991E-3	-11.5591E-3
-3.74437E-3	-152.739E-12	698.741E-3	5.17600E-3	-152.336E-12	645.166E-3	4.40410E-3
-3.74937E-3	-152.595E-12	706.352E-3	6.46768E-3	-153.478E-12	645.790E-3	-7.73073E-3
-3.75438E-3	-152.058E-12	684.959E-3	-3.70581E-3	-153.705E-12	662.633E-3	-29.8495E-3
-3.75938E-3	-152.253E-12	666.044E-3	-10.8613E-3	-154.089E-12	676.462E-3	-12.4073E-3
-3.76438E-3	-152.898E-12	675.893E-3	-14.5390E-3	-155.272E-12	678.485E-3	9.02733E-3
-3.76938E-3	-152.439E-12	684.796E-3	504.342E-6	-155.076E-12	678.324E-3	-327.261E-6
-3.77439E-3	-151.508E-12	670.395E-3	8.04878E-3	-155.035E-12	665.619E-3	-7.61000E-3
-3.77939E-3	-151.674E-12	641.052E-3	-10.4236E-3	-154.776E-12	643.804E-3	-5.47389E-3
-3.78439E-3	-153.625E-12	615.756E-3	-18.8591E-3	-153.725E-12	644.873E-3	-13.6528E-3
-3.78939E-3	-153.277E-12	612.602E-3	-12.5807E-3	-152.864E-12	650.949E-3	-14.9826E-3
-3.79440E-3	-152.974E-12	625.701E-3	-15.1199E-3	-153.442E-12	658.803E-3	-16.1321E-3
-3.79940E-3	-153.217E-12	646.745E-3	-1.80031E-3	-152.508E-12	660.401E-3	-20.5657E-3
-3.80440E-3	-154.614E-12	679.884E-3	21.7521E-3	-151.556E-12	645.704E-3	-15.1356E-3
-3.80940E-3	-154.875E-12	695.343E-3	3.66704E-3	-152.914E-12	648.690E-3	-15.2177E-3
-3.81441E-3	-155.996E-12	668.850E-3	-28.8574E-3	-153.872E-12	656.326E-3	-28.1994E-3
-3.81941E-3	-155.301E-12	643.698E-3	-30.1796E-3	-153.200E-12	644.870E-3	-40.0688E-3
-3.82441E-3	-155.942E-12	659.391E-3	-19.2964E-3	-153.881E-12	659.249E-3	-38.8689E-3
-3.82941E-3	-156.487E-12	685.647E-3	-16.7153E-3	-155.064E-12	697.040E-3	-32.7068E-3
-3.83442E-3	-157.212E-12	687.202E-3	-10.5427E-3	-155.683E-12	707.665E-3	-25.3414E-3
-3.83942E-3	-156.964E-12	691.356E-3	-3.00057E-3	-156.643E-12	688.247E-3	-20.6319E-3
-3.84442E-3	-156.078E-12	701.167E-3	-3.31758E-3	-155.767E-12	664.751E-3	-11.7798E-3
-3.84942E-3	-155.806E-12	688.713E-3	-13.8845E-3	-156.879E-12	657.538E-3	11.3888E-3
-3.85443E-3	-155.807E-12	672.318E-3	-16.4988E-3	-157.982E-12	673.065E-3	15.2692E-3
-3.85943E-3	-155.242E-12	673.576E-3	17.7928E-3	-157.862E-12	686.166E-3	-12.2903E-3
-3.86443E-3	-154.873E-12	665.456E-3	45.6185E-3	-156.783E-12	681.660E-3	-31.4966E-3
-3.86943E-3	-154.603E-12	636.227E-3	23.7975E-3	-157.950E-12	674.699E-3	-21.6788E-3
-3.87444E-3	-155.237E-12	631.970E-3	-9.84493E-3	-157.667E-12	658.614E-3	-11.4224E-3
-3.87944E-3	-155.541E-12	647.867E-3	-20.6603E-3	-157.374E-12	636.963E-3	-22.5834E-3
-3.88444E-3	-155.950E-12	658.452E-3	-18.2934E-3	-157.506E-12	634.091E-3	-27.8236E-3
-3.88944E-3	-155.100E-12	674.103E-3	-8.66114E-3	-157.651E-12	648.436E-3	-8.16798E-3
-3.89445E-3	-157.309E-12	670.015E-3	11.3362E-3	-157.391E-12	657.175E-3	17.3551E-3
-3.89945E-3	-159.519E-12	651.181E-3	4.95083E-3	-157.356E-12	660.937E-3	17.8396E-3
-3.90445E-3	-158.948E-12	643.969E-3	-22.5460E-3	-158.453E-12	666.432E-3	-6.74029E-3
-3.90945E-3	-158.480E-12	631.630E-3	-16.4625E-3	-157.996E-12	660.753E-3	-20.5206E-3
-3.91446E-3	-159.452E-12	616.624E-3	6.33764E-3	-158.291E-12	657.739E-3	-8.73111E-3
-3.91946E-3	-161.591E-12	626.486E-3	17.8458E-3	-158.503E-12	664.916E-3	3.08760E-3
-3.92446E-3	-161.811E-12	659.412E-3	9.40781E-3	-159.293E-12	670.102E-3	-257.421E-6
-3.92946E-3	-161.117E-12	686.136E-3	-10.3980E-3	-159.156E-12	663.841E-3	4.18497E-3
-3.93447E-3	-162.046E-12	690.148E-3	-17.8804E-3	-159.716E-12	645.650E-3	11.6619E-3
-3.93947E-3	-162.807E-12	675.570E-3	-15.3962E-3	-159.817E-12	637.083E-3	-4.09846E-3
-3.94447E-3	-162.459E-12	656.802E-3	-20.6981E-3	-160.077E-12	648.899E-3	-24.8940E-3
-3.94947E-3	-161.995E-12	664.881E-3	-25.3061E-3	-160.445E-12	679.817E-3	-25.9310E-3
-3.95448E-3	-161.742E-12	676.163E-3	-16.9908E-3	-161.643E-12	703.632E-3	-12.6033E-3
-3.95948E-3	-161.851E-12	658.752E-3	-19.7883E-3	-162.232E-12	706.782E-3	-10.3564E-3
-3.96448E-3	-162.328E-12	658.177E-3	-30.9264E-3	-163.535E-12	695.070E-3	-14.3046E-3
-3.96948E-3	-162.070E-12	675.880E-3	-30.5394E-3	-163.721E-12	684.238E-3	545.733E-6
-3.97449E-3	-161.506E-12	668.247E-3	-18.0584E-3	-163.886E-12	680.089E-3	16.8409E-3
-3.97949E-3	-161.350E-12	649.235E-3	-957.737E-6	-164.999E-12	659.538E-3	1.69495E-3
-3.98449E-3	-162.108E-12	652.584E-3	2.93763E-3	-164.363E-12	653.478E-3	-29.8649E-3
-3.98949E-3	-162.485E-12	665.330E-3	-9.41288E-3	-165.556E-12	668.103E-3	-38.5167E-3
-3.99450E-3	-161.798E-12	669.438E-3	-34.0993E-3	-164.886E-12	675.440E-3	-38.1649E-3
-3.99950E-3	-162.705E-12	680.501E-3	-39.9869E-3	-165.325E-12	652.393E-3	-51.6377E-3
-4.00450E-3	-164.105E-12	696.469E-3	-12.4445E-3	-164.935E-12	633.980E-3	-51.3515E-3
-4.00950E-3	-165.043E-12	705.292E-3	-11.4002E-3	-164.496E-12	657.450E-3	-24.5808E-3
-4.01451E-3	-165.368E-12	699.446E-3	-20.3594E-3	-163.663E-12	670.093E-3	-13.4419E-3
-4.01951E-3	-165.776E-12	681.791E-3	-15.0459E-3	-164.612E-12	666.628E-3	-19.5696E-3
-4.02451E-3	-165.904E-12	669.775E-3	-41.2781E-3	-163.649E-12	662.346E-3	-16.7136E-3
-4.02951E-3	-166.364E-12	667.682E-3	-60.8183E-3	-161.921E-12	653.927E-3	-8.42038E-3
-4.03452E-3	-167.267E-12	671.073E-3	-44.3735E-3	-162.548E-12	646.808E-3	-5.06172E-3
-4.03952E-3	-166.816E-12	680.834E-3	-20.2317E-3	-163.134E-12	655.113E-3	-24.2074E-3
-4.04452E-3	-166.640E-12	677.984E-3	-12.8052E-3	-162.920E-12	666.508E-3	-44.3748E-3
-4.04952E-3	-168.001E-12	658.569E-3	-28.4305E-3	-163.649E-12	664.547E-3	-25.0640E-3
-4.05453E-3	-167.918E-12	657.072E-3	-24.6053E-3	-164.718E-12	676.532E-3	-2.70075E-3
-4.05953E-3	-166.925E-12	668.458E-3	418.379E-6	-165.274E-12	680.852E-3	-23.6877E-3
-4.06453E-3	-166.969E-12	672.531E-3	1.72445E-3	-166.455E-12	658.915E-3	-37.1955E-3
-4.06953E-3	-167.640E-12	672.267E-3	-21.1861E-3	-167.941E-12	649.546E-3	-22.7715E-3
-4.07454E-3	-166.984E-12	677.456E-3	-35.4042E-3	-168.115E-12	654.064E-3	-10.5054E-3
-4.07954E-3	-166.619E-12	686.569E-3	-23.0350E-3	-168.696E-12	650.937E-3	-4.97327E-3
-4.08454E-3	-166.096E-12	676.880E-3	-16.1520E-3	-169.624E-12	653.343E-3	-19.6450E-3
-4.08954E-3	-166.691E-12	663.993E-3	-24.1122E-3	-169.616E-12	658.260E-3	-34.8933E-3
-4.09455E-3	-167.231E-12	667.806E-3	-8.97502E-3	-168.765E-12	659.148E-3	-25.9307E-3
-4.09955E-3	-166.313E-12	664.499E-3	10.2950E-3	-169.296E-12	666.914E-3	-14.3615E-3
-4.10455E-3	-165.617E-12	651.330E-3	11.7672E-3	-168.834E-12	655.376E-3	-21.3636E-3
-4.10955E-3	-166.626E-12	656.889E-3	-831.456E-6	-167.909E-12	637.025E-3	-37.7438E-3
-4.11456E-3	-167.890E-12	675.178E-3	-31.3503E-3	-167.103E-12	636.331E-3	-30.2934E-3
-4.11956E-3	-167.857E-12	688.766E-3	-48.9398E-3	-166.734E-12	631.786E-3	-3.14319E-3
-4.12456E-3	-168.046E-12	687.412E-3	-44.4788E-3	-165.822E-12	637.389E-3	1.90589E-3
-4.12956E-3	-169.106E-12	677.309E-3	-40.4320E-3	-165.419E-12	664.684E-3	-9.84717E-3
-4.13457E-3	-169.224E-12	672.884E-3	-33.0429E-3	-165.368E-12	676.956E-3	-17.4930E-3
-4.13957E-3	-169.940E-12	679.621E-3	-11.2311E-3	-165.838E-12	660.546E-3	-9.04980E-3
-4.14457E-3	-170.778E-12	696.446E-3	-4.39893E-3	-166.970E-12	649.923E-3	15.3070E-3
-4.14957E-3	-170.621E-12	675.070E-3	-6.63655E-3	-167.739E-12	663.852E-3	36.6208E-3
-4.15458E-3	-171.247E-12	640.534E-3	-7.41593E-3	-167.891E-12	669.138E-3	37.7093E-3
-4.15958E-3	-171.042E-12	661.475E-3	-11.3680E-3	-169.405E-12	652.294E-3	11.0218E-3
-4.16458E-3	-170.810E-12	695.296E-3	-11.5952E-3	-171.265E-12	647.759E-3	-7.60903E-3
-4.16958E-3	-170.473E-12	673.852E-3	-18.6265E-3	-170.747E-12	668.138E-3	-8.67413E-3
-4.17459E-3	-171.065E-12	626.431E-3	-10.0951E-3	-172.062E-12	677.436E-3	-23.3612E-3
-4.17959E-3	-169.953E-12	622.222E-3	8.85493E-3	-173.719E-12	656.817E-3	-44.8252E-3
-4.18459E-3	-169.256E-12	646.197E-3	-1.46676E-3	-173.554E-12	636.061E-3	-44.7498E-3
-4.18959E-3	-169.452E-12	654.909E-3	-29.4826E-3	-173.857E-12	630.336E-3	-37.7121E-3
-4.19460E-3	-168.879E-12	653.272E-3	-46.7681E-3	-175.106E-12	628.016E-3	-48.9860E-3
-4.19960E-3	-168.656E-12	660.287E-3	-46.2731E-3	-174.027E-12	629.906E-3	-50.7037E-3
-4.20460E-3	-168.428E-12	655.044E-3	-26.8195E-3	-173.502E-12	648.812E-3	-28.7806E-3
-4.20960E-3	-169.103E-12	639.502E-3	-9.43990E-3	-173.141E-12	670.893E-3	-22.8756E-3
-4.21461E-3	-169.458E-12	646.974E-3	-10.1084E-3	-173.519E-12	673.326E-3	-29.3237E-3
-4.21961E-3	-170.138E-12	656.968E-3	-17.9823E-3	-172.918E-12	671.024E-3	-7.49629E-3
-4.22461E-3	-171.128E-12	652.281E-3	-15.0912E-3	-171.706E-12	690.722E-3	25.8757E-3
-4.22961E-3	-171.937E-12	651.799E-3	-4.05960E-3	-171.619E-12	707.730E-3	29.3501E-3
-4.23462E-3	-172.296E-12	651.336E-3	-11.8403E-3	-171.845E-12	690.711E-3	1.82048E-3
-4.23962E-3	-173.614E-12	640.704E-3	-34.0429E-3	-172.091E-12	668.370E-3	-21.9661E-3
-4.24462E-3	-175.527E-12	635.184E-3	-52.7675E-3	-172.114E-12	658.657E-3	-25.8301E-3
-4.24962E-3	-175.799E-12	645.391E-3	-57.4909E-3	-173.408E-12	652.513E-3	-12.0265E-3
-4.25463E-3	-176.179E-12	657.112E-3	-43.4451E-3	-173.383E-12	651.556E-3	-468.332E-6
-4.25963E-3	-176.388E-12	647.947E-3	-33.4575E-3	-174.551E-12	651.464E-3	-456.412E-6
-4.26463E-3	-176.924E-12	630.132E-3	-39.3293E-3	-175.113E-12	652.811E-3	-5.11887E-3
-4.26963E-3	-177.126E-12	628.476E-3	-18.4559E-3	-175.298E-12	663.104E-3	-25.0353E-3
-4.27464E-3	-175.577E-12	642.083E-3	21.3003E-3	-176.108E-12	673.131E-3	-25.8632E-3
-4.27964E-3	-175.224E-12	661.143E-3	11.7190E-3	-177.041E-12	677.033E-3	-2.95198E-3
-4.28464E-3	-175.094E-12	665.505E-3	-21.2606E-3	-177.670E-12	670.727E-3	-553.309E-6
-4.28964E-3	-175.304E-12	661.860E-3	-24.3573E-3	-177.835E-12	655.569E-3	-8.49972E-3
-4.29465E-3	-173.709E-12	669.318E-3	-10.1143E-3	-177.524E-12	653.003E-3	-18.9898E-3
-4.29965E-3	-173.319E-12	653.737E-3	-1.64541E-3	-177.947E-12	673.709E-3	-23.0762E-3
-4.30465E-3	-174.095E-12	630.146E-3	-1.98694E-3	-178.625E-12	705.360E-3	-12.6965E-3
-4.30965E-3	-173.865E-12	656.414E-3	-6.26017E-3	-179.002E-12	712.567E-3	1.05443E-3
-4.31466E-3	-175.041E-12	687.174E-3	-17.8224E-3	-177.835E-12	694.944E-3	10.7716E-3
-4.31966E-3	-175.347E-12	675.341E-3	-15.4750E-3	-178.798E-12	691.835E-3	1.14948E-3
-4.32466E-3	-177.188E-12	645.320E-3	4.30177E-3	-178.917E-12	682.624E-3	-6.94930E-3
-4.32966E-3	-177.713E-12	635.014E-3	2.51302E-3	-179.219E-12	651.930E-3	5.47635E-3
-4.33467E-3	-179.706E-12	658.282E-3	-19.7437E-3	-178.255E-12	638.963E-3	9.72753E-3
-4.33967E-3	-179.823E-12	671.507E-3	-33.9309E-3	-178.189E-12	636.915E-3	-1.67836E-3
-4.34467E-3	-180.862E-12	666.629E-3	-28.7984E-3	-178.731E-12	634.058E-3	-10.8147E-3
-4.34967E-3	-181.109E-12	668.340E-3	-5.40525E-3	-179.201E-12	641.564E-3	-12.4935E-3
-4.35468E-3	-183.222E-12	675.504E-3	12.4309E-3	-178.914E-12	653.089E-3	-9.58731E-3
-4.35968E-3	-183.328E-12	671.294E-3	21.8163E-3	-179.395E-12	665.097E-3	-9.19919E-3
-4.36468E-3	-181.712E-12	654.109E-3	22.9096E-3	-179.123E-12	673.351E-3	-12.0595E-3
-4.36968E-3	-181.646E-12	660.302E-3	-1.61223E-3	-179.896E-12	676.277E-3	-32.0026E-3
-4.37469E-3	-181.761E-12	692.475E-3	-24.3304E-3	-179.493E-12	673.838E-3	-60.2575E-3
-4.37969E-3	-180.973E-12	714.769E-3	-10.0285E-3	-180.412E-12	666.076E-3	-53.3443E-3
-4.38469E-3	-180.082E-12	703.887E-3	15.5723E-3	-180.982E-12	658.971E-3	-29.8933E-3
-4.38969E-3	-179.682E-12	675.105E-3	12.8642E-3	-181.626E-12	653.890E-3	-27.2094E-3
-4.39470E-3	-178.551E-12	660.115E-3	4.12293E-3	-181.527E-12	647.060E-3	-13.4196E-3
-4.39970E-3	-177.462E-12	656.906E-3	-11.1198E-3	-182.646E-12	645.208E-3	23.2190E-3
-4.40470E-3	-177.644E-12	646.388E-3	-28.6625E-3	-182.457E-12	672.855E-3	29.5783E-3
-4.40970E-3	-177.823E-12	630.021E-3	-33.1318E-3	-182.899E-12	696.253E-3	-18.2999E-3
-4.41471E-3	-179.114E-12	625.218E-3	-39.3306E-3	-183.832E-12	680.025E-3	-57.6239E-3
-4.41971E-3	-179.346E-12	628.612E-3	-36.6070E-3	-183.416E-12	667.677E-3	-40.7208E-3
-4.42471E-3	-180.633E-12	626.467E-3	-37.7513E-3	-183.492E-12	666.616E-3	-15.6895E-3
-4.42971E-3	-180.646E-12	631.197E-3	-36.0332E-3	-184.169E-12	667.423E-3	-15.5649E-3
-4.43472E-3	-181.047E-12	633.904E-3	-23.2071E-3	-183.646E-12	674.066E-3	-3.26064E-3
-4.43972E-3	-182.567E-12	612.462E-3	-27.0696E-3	-183.082E-12	667.888E-3	24.3030E-3
-4.44472E-3	-183.028E-12	608.245E-3	-36.0366E-3	-183.469E-12	651.551E-3	19.4692E-3
-4.44972E-3	-182.301E-12	631.457E-3	-33.8295E-3	-183.205E-12	651.341E-3	-2.91167E-3
-4.45473E-3	-182.544E-12	652.928E-3	-27.0686E-3	-182.465E-12	665.689E-3	-6.02106E-3
-4.45973E-3	-183.907E-12	664.993E-3	-27.3522E-3	-180.713E-12	650.420E-3	-705.828E-6
-4.46473E-3	-183.985E-12	649.842E-3	-34.4663E-3	-180.121E-12	626.828E-3	4.88736E-3
-4.46973E-3	-183.908E-12	629.769E-3	-40.9771E-3	-181.332E-12	633.875E-3	-6.48813E-3
-4.47474E-3	-183.664E-12	634.650E-3	-44.2815E-3	-181.325E-12	627.809E-3	-19.7651E-3
-4.47974E-3	-184.239E-12	657.252E-3	-30.3825E-3	-180.746E-12	621.830E-3	-5.15012E-3
-4.48474E-3	-184.177E-12	677.004E-3	-6.77000E-3	-182.190E-12	647.275E-3	3.43447E-3
-4.48974E-3	-183.828E-12	669.716E-3	2.18978E-3	-182.742E-12	674.228E-3	-15.6415E-3
-4.49475E-3	-183.718E-12	646.678E-3	8.18631E-3	-183.489E-12	681.053E-3	-29.1746E-3
-4.49975E-3	-184.193E-12	651.397E-3	10.4165E-3	-185.498E-12	682.588E-3	2.34510E-3
-4.50475E-3	-184.163E-12	675.998E-3	-9.54235E-3	-186.861E-12	689.084E-3	40.8205E-3
-4.50975E-3	-183.994E-12	674.350E-3	-32.5491E-3	-185.446E-12	676.907E-3	32.6552E-3
-4.51476E-3	-183.650E-12	672.044E-3	-38.6835E-3	-187.248E-12	665.158E-3	365.949E-6
-4.51976E-3	-183.856E-12	699.154E-3	-23.6497E-3	-188.161E-12	660.877E-3	-25.2621E-3
-4.52476E-3	-184.811E-12	685.311E-3	814.244E-6	-187.650E-12	662.065E-3	-33.1243E-3
-4.52976E-3	-185.203E-12	630.735E-3	3.98456E-3	-187.221E-12	698.891E-3	-4.99109E-3
-4.53477E-3	-185.311E-12	618.603E-3	-9.40489E-3	-188.477E-12	729.279E-3	11.5277E-3
-4.53977E-3	-185.919E-12	648.611E-3	-15.6060E-3	-188.715E-12	703.405E-3	-18.9053E-3
-4.54477E-3	-186.301E-12	677.346E-3	-20.8492E-3	-187.535E-12	665.053E-3	-26.4380E-3
-4.54977E-3	-187.392E-12	691.086E-3	-18.7888E-3	-187.368E-12	657.362E-3	-10.7894E-3
-4.55478E-3	-189.042E-12	689.487E-3	-7.45717E-3	-187.648E-12	648.191E-3	-21.6101E-3
-4.55978E-3	-189.486E-12	674.610E-3	-12.7551E-3	-187.428E-12	635.109E-3	-30.2898E-3
-4.56478E-3	-188.033E-12	669.285E-3	-24.5058E-3	-187.836E-12	648.569E-3	-10.0364E-3
-4.56978E-3	-190.063E-12	676.725E-3	-24.4259E-3	-188.799E-12	675.841E-3	-6.81946E-3
-4.57479E-3	-191.599E-12	685.737E-3	-23.0816E-3	-189.048E-12	687.968E-3	-17.5432E-3
-4.57979E-3	-190.594E-12	697.070E-3	-28.4906E-3	-189.592E-12	677.087E-3	-12.5812E-3
-4.58479E-3	-189.553E-12	695.764E-3	-22.2258E-3	-190.959E-12	669.847E-3	-20.9640E-3
-4.58979E-3	-191.065E-12	669.941E-3	-2.81867E-3	-190.612E-12	668.134E-3	-26.3482E-3
-4.59480E-3	-190.999E-12	663.420E-3	-5.87646E-3	-191.500E-12	661.570E-3	-15.1154E-3
-4.59980E-3	-191.016E-12	687.494E-3	-4.42540E-3	-192.343E-12	651.379E-3	-18.8142E-3
-4.60480E-3	-190.336E-12	681.312E-3	17.2502E-3	-192.786E-12	641.635E-3	-31.9363E-3
-4.60980E-3	-190.243E-12	664.608E-3	9.87340E-3	-192.480E-12	663.421E-3	-29.9648E-3
-4.61481E-3	-189.945E-12	679.761E-3	-10.3974E-3	-192.874E-12	672.986E-3	-26.4847E-3
-4.61981E-3	-191.138E-12	682.613E-3	221.680E-6	-192.249E-12	639.823E-3	-28.2103E-3
-4.62481E-3	-191.326E-12	669.392E-3	6.69474E-3	-191.402E-12	619.052E-3	-25.9939E-3
-4.62981E-3	-190.099E-12	675.406E-3	-26.4519E-3	-190.765E-12	614.238E-3	-8.86253E-3
-4.63482E-3	-189.856E-12	690.514E-3	-50.1759E-3	-191.172E-12	634.355E-3	-9.64251E-3
-4.63982E-3	-190.974E-12	694.847E-3	-26.0043E-3	-189.220E-12	675.718E-3	-41.4274E-3
-4.64482E-3	-192.281E-12	668.204E-3	1.16765E-3	-189.472E-12	697.051E-3	-51.1311E-3
-4.64982E-3	-192.689E-12	640.824E-3	-6.31179E-3	-190.006E-12	680.412E-3	-25.7837E-3
-4.65483E-3	-193.066E-12	662.555E-3	-32.4649E-3	-190.193E-12	652.616E-3	9.19728E-3
-4.65983E-3	-194.302E-12	696.910E-3	-31.5492E-3	-189.453E-12	650.896E-3	7.87870E-3
-4.66483E-3	-196.163E-12	695.114E-3	-5.38947E-3	-189.523E-12	651.604E-3	1.33028E-3
-4.66983E-3	-196.098E-12	676.595E-3	-4.91650E-3	-190.341E-12	652.259E-3	10.9203E-3
-4.67484E-3	-195.278E-12	678.630E-3	-906.598E-6	-191.262E-12	663.891E-3	6.60227E-3
-4.67984E-3	-196.054E-12	683.387E-3	9.25824E-3	-192.142E-12	662.273E-3	13.7222E-3
-4.68484E-3	-196.069E-12	670.219E-3	-9.84562E-3	-192.923E-12	662.332E-3	14.1277E-3
-4.68984E-3	-195.932E-12	668.810E-3	-16.2996E-3	-193.719E-12	673.196E-3	-1.30070E-3
-4.69485E-3	-195.754E-12	680.778E-3	2.30229E-3	-193.976E-12	668.983E-3	-20.1395E-3
-4.69985E-3	-193.986E-12	684.772E-3	-2.39873E-3	-195.936E-12	665.830E-3	-34.1776E-3
-4.70485E-3	-193.263E-12	677.920E-3	-26.5756E-3	-196.054E-12	673.992E-3	-27.1640E-3
-4.70985E-3	-193.835E-12	666.844E-3	-10.5193E-3	-194.686E-12	674.550E-3	-11.7851E-3
-4.71486E-3	-193.464E-12	656.980E-3	18.6738E-3	-193.870E-12	663.227E-3	-10.8421E-3
-4.71986E-3	-192.297E-12	657.147E-3	19.3587E-3	-194.380E-12	638.143E-3	-29.9834E-3
-4.72486E-3	-192.670E-12	680.390E-3	10.7549E-3	-194.248E-12	623.738E-3	-35.4223E-3
-4.72986E-3	-192.659E-12	691.415E-3	-6.48684E-3	-193.544E-12	628.275E-3	-25.3869E-3
-4.73487E-3	-194.022E-12	697.189E-3	-12.1877E-3	-193.870E-12	643.776E-3	-6.59264E-3
-4.73987E-3	-193.653E-12	707.412E-3	2.69375E-3	-193.482E-12	657.427E-3	-1.27053E-3
-4.74487E-3	-193.305E-12	683.890E-3	-274.379E-6	-194.718E-12	645.856E-3	-18.3584E-3
-4.74988E-3	-194.748E-12	666.578E-3	-24.1810E-3	-194.214E-12	641.317E-3	-25.9663E-3
-4.75488E-3	-196.058E-12	670.362E-3	-26.0387E-3	-194.189E-12	651.658E-3	-33.5809E-3
-4.75988E-3	-196.321E-12	661.604E-3	-7.55989E-3	-195.842E-12	634.619E-3	-42.5338E-3
-4.76488E-3	-196.547E-12	660.797E-3	-17.3522E-3	-195.131E-12	608.596E-3	-40.1289E-3
-4.76988E-3	-197.558E-12	679.907E-3	-33.4277E-3	-196.139E-12	608.646E-3	-39.5282E-3
-4.77489E-3	-197.678E-12	686.360E-3	-11.9048E-3	-196.740E-12	627.877E-3	-25.2949E-3
-4.77989E-3	-198.612E-12	660.052E-3	65.8136E-6	-197.667E-12	640.304E-3	-16.5734E-3
-4.78489E-3	-198.631E-12	627.257E-3	-21.4833E-3	-199.019E-12	646.601E-3	-42.9175E-3
-4.78989E-3	-198.530E-12	621.712E-3	-24.4939E-3	-199.643E-12	650.453E-3	-61.6534E-3
-4.79490E-3	-198.346E-12	646.674E-3	-19.8201E-3	-199.840E-12	654.260E-3	-41.7929E-3
-4.79990E-3	-198.822E-12	681.487E-3	-20.7318E-3	-199.488E-12	658.931E-3	-12.8807E-3
-4.80490E-3	-198.149E-12	686.435E-3	-5.58231E-3	-199.843E-12	653.361E-3	-1.16847E-3
-4.80990E-3	-198.613E-12	667.496E-3	-3.91195E-3	-200.937E-12	665.076E-3	-7.54200E-3
-4.81491E-3	-197.821E-12	663.596E-3	-9.31257E-3	-200.820E-12	692.757E-3	-34.5271E-3
-4.81991E-3	-196.993E-12	681.810E-3	-6.91546E-3	-199.857E-12	688.282E-3	-56.3035E-3
-4.82491E-3	-198.699E-12	677.729E-3	-11.0984E-3	-199.558E-12	654.475E-3	-40.3644E-3
-4.82991E-3	-198.772E-12	636.420E-3	-18.4314E-3	-200.311E-12	640.574E-3	-6.39975E-3
-4.83492E-3	-198.300E-12	619.492E-3	-21.4743E-3	-201.199E-12	639.449E-3	12.6723E-3
-4.83992E-3	-199.331E-12	638.358E-3	-32.0817E-3	-199.285E-12	626.704E-3	19.3683E-3
-4.84492E-3	-201.681E-12	660.601E-3	-37.0139E-3	-198.743E-12	638.437E-3	14.0862E-3
-4.84992E-3	-200.993E-12	673.433E-3	-18.3902E-3	-200.525E-12	656.467E-3	6.19198E-3
-4.85493E-3	-201.762E-12	677.515E-3	-5.63588E-3	-199.856E-12	655.632E-3	8.94049E-3
-4.85993E-3	-202.827E-12	690.898E-3	3.39988E-3	-199.348E-12	660.844E-3	-1.92264E-3
-4.86493E-3	-203.391E-12	697.924E-3	13.7603E-3	-200.781E-12	655.652E-3	-22.8414E-3
-4.86993E-3	-205.490E-12	665.379E-3	-13.0663E-3	-200.613E-12	644.635E-3	-20.2404E-3
-4.87494E-3	-204.904E-12	625.088E-3	-62.8989E-3	-201.169E-12	647.234E-3	-14.3920E-3
-4.87994E-3	-204.047E-12	620.962E-3	-55.6423E-3	-201.476E-12	645.620E-3	-10.7290E-3
-4.88494E-3	-204.032E-12	634.439E-3	-5.11264E-3	-202.234E-12	645.275E-3	9.39056E-3
-4.88995E-3	-204.708E-12	644.478E-3	11.4586E-3	-202.016E-12	660.778E-3	10.4366E-3
-4.89495E-3	-203.505E-12	638.524E-3	-3.88134E-3	-202.743E-12	655.252E-3	-16.3123E-3
-4.89995E-3	-202.609E-12	643.102E-3	-9.95475E-3	-203.730E-12	639.892E-3	-20.9727E-3
-4.90495E-3	-202.882E-12	657.597E-3	7.99568E-3	-203.809E-12	659.890E-3	955.638E-6
-4.90995E-3	-202.408E-12	637.767E-3	23.6608E-3	-203.528E-12	669.535E-3	3.75069E-3
-4.91496E-3	-201.960E-12	631.278E-3	7.38527E-3	-203.130E-12	657.143E-3	17.1102E-3
-4.91996E-3	-201.163E-12	665.916E-3	-14.4033E-3	-204.158E-12	666.840E-3	38.1718E-3
-4.92496E-3	-200.655E-12	686.072E-3	-15.4180E-3	-203.238E-12	669.993E-3	3.56421E-3
-4.92996E-3	-200.296E-12	653.223E-3	-10.2129E-3	-203.171E-12	648.081E-3	-34.9977E-3
-4.93497E-3	-202.449E-12	613.014E-3	-24.3720E-3	-203.481E-12	641.567E-3	-47.4295E-3
-4.93997E-3	-203.860E-12	623.461E-3	-41.8751E-3	-203.592E-12	647.681E-3	-62.5109E-3
-4.94497E-3	-202.169E-12	654.853E-3	-45.5036E-3	-203.258E-12	649.948E-3	-49.3338E-3
-4.94997E-3	-202.307E-12	653.406E-3	-47.7576E-3	-202.903E-12	652.302E-3	-10.4535E-3
-4.95498E-3	-205.456E-12	640.031E-3	-31.2654E-3	-203.809E-12	654.249E-3	5.95641E-3
-4.95998E-3	-205.556E-12	649.830E-3	-7.38091E-3	-204.394E-12	651.808E-3	-5.51207E-3
-4.96498E-3	-205.619E-12	671.670E-3	-4.60421E-3	-203.743E-12	651.206E-3	2.50177E-3
-4.96998E-3	-206.902E-12	697.277E-3	-17.1628E-3	-204.689E-12	666.484E-3	34.9408E-3
-4.97499E-3	-208.100E-12	694.478E-3	-33.8441E-3	-205.206E-12	665.093E-3	36.1553E-3
-4.97999E-3	-208.155E-12	664.390E-3	-39.4818E-3	-205.581E-12	648.576E-3	-616.761E-6
-4.98499E-3	-209.444E-12	641.814E-3	-18.9195E-3	-206.973E-12	649.334E-3	-17.7423E-3
-4.98999E-3	-209.187E-12	629.357E-3	2.13600E-3	-206.906E-12	646.821E-3	-5.46106E-3
-4.99500E-3	-208.206E-12	638.370E-3	-14.6517E-3	-207.603E-12	639.298E-3	-14.2156E-3
-5.00000E-3	-208.559E-12	649.952E-3	-43.2485E-3	-208.628E-12	643.975E-3	-40.3336E-3
