Experiment	bias spectroscopy	
Date	19.01.2016 21:10:42	
User		
X (m)	50.4834E-9	
Y (m)	257.52E-9	
Z (m)	-132.592E-9	
Z offset (m)	0E+0	
Settling time (s)	200E-6	
Integration time (s)	5E-3	
Z-Ctrl hold	TRUE	
Final Z (m)	N/A	
Filter type	None	
Order		
Cutoff frq		
Comment01	MnPc/Pb(111)	
Comment02	dz =00pm	
Comment03	7 Sweeps	
Comment04	MagField =0.T	
Comment05	Divider 1:10	
Comment06	Setpoint:5mV,200 pA	
Comment07	Lockin: 50uVrms,5ms,5mV	
Comment08	Gain:9; 912Hz modulation	
Comment09	T=1.06K	
Bias>Bias (V)	5E-3	
Bias>Calibration (V/V)	81.475E-3	
Bias>Offset (V)	1.046E-3	
Bias Spectroscopy>Sweep Start (V)	5E-3	
Bias Spectroscopy>Sweep End (V)	-5E-3	
Bias Spectroscopy>Num Pixel	2000	
Bias Spectroscopy>Z Avg time (s)	500E-3	
Bias Spectroscopy>Z offset (m)	0E+0	
Bias Spectroscopy>1st Settling time (s)	500E-3	
Bias Spectroscopy>Settling time (s)	200E-6	
Bias Spectroscopy>Integration time (s)	5E-3	
Bias Spectroscopy>End Settling time (s)	500E-3	
Bias Spectroscopy>Z control time (s)	500E-3	
Bias Spectroscopy>Max Slew rate (V/s)	Inf	
Bias Spectroscopy>backward sweep	TRUE	
Bias Spectroscopy>Z-controller hold	TRUE	
Bias Spectroscopy>Number of sweeps	7	
Bias Spectroscopy>Channels	Current (A);X% LockIn (V);Y% LockIn (V)	
Bias Spectroscopy>Reset Bias	TRUE	
Bias Spectroscopy>Record final Z	FALSE	
Bias Spectroscopy>Lock-In run	FALSE	
Bias Spectroscopy>Sweep mode	Linear	
Bias Spectroscopy>MultiLine Settings : Segment Start (V), Segment End (V), Settling (s), Integration (s), Steps (xn)	100E-3,3.3E-3,100E-6,10E-3,2500;3.3E-3,-3.3E-3,100E-6,10E-3,10;-3.3E-3,-100E-3,100E-6,10E-3,2500	
Current>Current (A)	200.072E-12	
Current>Calibration (A/V)	999.99900E-12	
Current>Offset (A)	-455.429E-15	
Current>Gain	LN 10^9	
Z-Controller>Z (m)	-132.591E-9	
Z-Controller>Controller name	log Current	
Z-Controller>Controller status	ON	
Z-Controller>Setpoint	200E-12	
Z-Controller>Setpoint unit	A	
Z-Controller>P gain	2.96994E-12	
Z-Controller>I gain	67.0321E-9	
Z-Controller>Time const (s)	44.3062E-6	
Z-Controller>TipLift (m)	0E+0	
Z-Controller>Switch off delay (s)	50E-3	
Current (A)	199.892E-12	
Z (m)	-132.591E-9	

[DATA]
Bias calc (V)	Current (A)	X% LockIn (V)	Y% LockIn (V)	Current [bwd] (A)	X% LockIn [bwd] (V)	Y% LockIn [bwd] (V)
5.00000E-3	199.237E-12	700.944E-3	-49.2866E-3	201.269E-12	624.784E-3	2.27500E-3
4.99500E-3	198.884E-12	677.812E-3	-18.3124E-3	200.949E-12	649.031E-3	-28.4195E-3
4.98999E-3	199.830E-12	657.695E-3	-7.82738E-3	199.901E-12	663.144E-3	-48.0676E-3
4.98499E-3	199.714E-12	637.639E-3	-26.2081E-3	199.871E-12	643.062E-3	-29.3238E-3
4.97999E-3	199.754E-12	645.486E-3	-43.2073E-3	199.753E-12	644.327E-3	-27.4744E-3
4.97499E-3	200.173E-12	673.820E-3	-27.0030E-3	199.456E-12	656.817E-3	-49.7895E-3
4.96998E-3	201.836E-12	699.192E-3	-11.6348E-3	198.813E-12	646.442E-3	-33.9556E-3
4.96498E-3	202.388E-12	700.134E-3	-21.6658E-3	198.934E-12	632.299E-3	-10.2120E-3
4.95998E-3	201.019E-12	686.706E-3	-17.8698E-3	198.969E-12	650.606E-3	-3.11199E-3
4.95498E-3	200.937E-12	675.721E-3	-25.6823E-3	198.631E-12	686.355E-3	-91.4995E-6
4.94997E-3	201.485E-12	657.431E-3	-33.9738E-3	198.986E-12	691.542E-3	-17.6859E-3
4.94497E-3	202.069E-12	638.960E-3	216.240E-6	198.297E-12	671.817E-3	-35.3678E-3
4.93997E-3	200.844E-12	626.494E-3	43.3200E-3	198.120E-12	657.688E-3	-30.6305E-3
4.93497E-3	198.260E-12	633.672E-3	48.9528E-3	197.823E-12	653.707E-3	-27.1070E-3
4.92996E-3	197.485E-12	650.391E-3	16.9872E-3	198.350E-12	655.090E-3	-24.0095E-3
4.92496E-3	198.423E-12	645.086E-3	-25.7438E-3	197.697E-12	675.661E-3	-3.33659E-3
4.91996E-3	198.170E-12	642.086E-3	-53.9217E-3	197.494E-12	695.428E-3	15.0506E-3
4.91496E-3	194.915E-12	668.889E-3	-53.2928E-3	197.077E-12	688.641E-3	12.7631E-3
4.90995E-3	193.400E-12	680.865E-3	-36.3403E-3	197.034E-12	670.094E-3	1.09452E-3
4.90495E-3	194.020E-12	651.292E-3	-35.0114E-3	196.792E-12	649.004E-3	-20.4954E-3
4.89995E-3	194.943E-12	620.182E-3	-29.1219E-3	197.351E-12	631.443E-3	-38.1071E-3
4.89495E-3	194.330E-12	620.526E-3	-2.50105E-3	196.397E-12	638.400E-3	-23.2579E-3
4.88995E-3	193.566E-12	650.411E-3	11.3907E-3	195.982E-12	668.557E-3	-4.15403E-3
4.88494E-3	194.285E-12	692.970E-3	17.8559E-3	196.247E-12	671.907E-3	-22.3261E-3
4.87994E-3	195.257E-12	700.340E-3	-1.89267E-3	196.604E-12	653.709E-3	-55.8685E-3
4.87494E-3	196.140E-12	679.887E-3	-44.7767E-3	195.766E-12	651.116E-3	-71.9221E-3
4.86993E-3	195.297E-12	673.726E-3	-38.2335E-3	196.543E-12	662.444E-3	-70.2148E-3
4.86493E-3	195.216E-12	652.811E-3	4.69584E-3	196.689E-12	679.366E-3	-44.3361E-3
4.85993E-3	196.248E-12	642.111E-3	25.0449E-3	197.360E-12	679.303E-3	-13.7365E-3
4.85493E-3	197.721E-12	653.973E-3	4.74490E-3	197.929E-12	673.675E-3	695.993E-6
4.84992E-3	196.664E-12	647.049E-3	-48.4600E-3	198.186E-12	672.708E-3	-2.29497E-3
4.84492E-3	194.981E-12	629.384E-3	-84.5986E-3	197.351E-12	654.673E-3	-23.1453E-3
4.83992E-3	195.107E-12	636.120E-3	-73.3058E-3	197.380E-12	646.418E-3	-34.2075E-3
4.83492E-3	195.812E-12	678.001E-3	-30.2217E-3	197.407E-12	656.465E-3	-35.9393E-3
4.82991E-3	195.255E-12	712.022E-3	14.0395E-3	196.672E-12	656.305E-3	-27.6203E-3
4.82491E-3	192.844E-12	710.582E-3	5.90232E-3	195.768E-12	672.792E-3	-26.2468E-3
4.81991E-3	191.105E-12	685.074E-3	-17.6904E-3	195.588E-12	712.933E-3	-33.9604E-3
4.81491E-3	191.746E-12	658.527E-3	-6.44099E-3	195.611E-12	713.332E-3	-19.9699E-3
4.80990E-3	191.560E-12	649.347E-3	-3.65281E-3	194.901E-12	674.057E-3	4.22195E-3
4.80490E-3	190.856E-12	652.244E-3	-22.0940E-3	193.389E-12	651.156E-3	10.5314E-3
4.79990E-3	189.086E-12	662.300E-3	-29.4142E-3	193.085E-12	639.899E-3	-6.84745E-3
4.79490E-3	189.011E-12	661.107E-3	-11.9303E-3	192.785E-12	625.311E-3	-12.3001E-3
4.78989E-3	189.863E-12	636.051E-3	5.18354E-3	192.462E-12	625.787E-3	5.12676E-3
4.78489E-3	190.027E-12	632.781E-3	1.29541E-3	192.037E-12	646.475E-3	14.5229E-3
4.77989E-3	189.005E-12	651.347E-3	10.2730E-3	192.024E-12	657.124E-3	-5.27100E-3
4.77489E-3	188.959E-12	648.960E-3	25.1166E-3	191.904E-12	644.152E-3	-45.6410E-3
4.76988E-3	190.836E-12	631.710E-3	5.05450E-3	191.705E-12	626.426E-3	-48.6309E-3
4.76488E-3	191.515E-12	636.935E-3	-12.6848E-3	191.515E-12	629.969E-3	-5.35099E-3
4.75988E-3	191.473E-12	679.263E-3	-5.58221E-3	191.217E-12	662.599E-3	12.2478E-3
4.75488E-3	190.653E-12	711.512E-3	-4.44096E-3	190.910E-12	698.478E-3	-15.3478E-3
4.74988E-3	191.981E-12	695.001E-3	-12.2097E-3	191.076E-12	712.202E-3	-51.2320E-3
4.74487E-3	193.089E-12	666.999E-3	-27.0177E-3	190.846E-12	706.271E-3	-53.9510E-3
4.73987E-3	191.147E-12	650.953E-3	-35.3426E-3	190.265E-12	687.676E-3	-24.9670E-3
4.73487E-3	189.578E-12	653.289E-3	-20.4869E-3	190.329E-12	667.659E-3	4.50857E-3
4.72986E-3	189.276E-12	687.925E-3	-17.6250E-3	190.050E-12	657.298E-3	20.4408E-3
4.72486E-3	189.369E-12	705.319E-3	-23.7651E-3	189.322E-12	646.011E-3	6.27794E-3
4.71986E-3	189.018E-12	691.253E-3	-15.5985E-3	189.859E-12	633.053E-3	-5.78117E-3
4.71486E-3	187.616E-12	666.712E-3	-13.2981E-3	189.267E-12	632.669E-3	2.35764E-3
4.70985E-3	186.978E-12	647.278E-3	-16.9830E-3	189.222E-12	644.725E-3	-7.54263E-3
4.70485E-3	187.007E-12	649.748E-3	-15.8776E-3	188.782E-12	654.379E-3	-32.4589E-3
4.69985E-3	186.844E-12	656.920E-3	-12.9465E-3	188.299E-12	659.564E-3	-44.8143E-3
4.69485E-3	185.640E-12	672.318E-3	-26.7745E-3	187.483E-12	656.383E-3	-25.9388E-3
4.68984E-3	185.642E-12	695.237E-3	-42.6383E-3	187.480E-12	644.377E-3	19.9577E-6
4.68484E-3	185.368E-12	704.952E-3	-24.8702E-3	187.515E-12	640.604E-3	-11.4954E-3
4.67984E-3	186.056E-12	691.158E-3	2.68654E-3	186.972E-12	655.923E-3	-27.3720E-3
4.67484E-3	186.212E-12	682.198E-3	-4.65967E-3	186.404E-12	673.540E-3	-10.6556E-3
4.66983E-3	186.560E-12	692.073E-3	-22.1656E-3	186.326E-12	685.395E-3	2.82706E-3
4.66483E-3	186.545E-12	684.903E-3	-31.3997E-3	186.629E-12	696.662E-3	2.83838E-3
4.65983E-3	187.144E-12	674.946E-3	-44.5389E-3	185.284E-12	705.558E-3	10.6496E-3
4.65483E-3	187.196E-12	694.478E-3	-32.7117E-3	185.194E-12	706.224E-3	11.6899E-3
4.64982E-3	186.982E-12	714.943E-3	-4.76912E-3	185.896E-12	696.722E-3	4.38211E-3
4.64482E-3	186.900E-12	704.257E-3	3.05957E-3	184.999E-12	673.743E-3	5.42770E-3
4.63982E-3	186.908E-12	682.397E-3	9.94938E-3	185.117E-12	634.229E-3	4.06642E-3
4.63482E-3	186.765E-12	679.958E-3	9.00764E-3	184.790E-12	617.349E-3	-7.67891E-3
4.62981E-3	186.248E-12	673.932E-3	-17.4244E-3	184.939E-12	637.655E-3	-18.8325E-3
4.62481E-3	185.085E-12	668.876E-3	-15.7308E-3	184.441E-12	649.618E-3	-19.4337E-3
4.61981E-3	184.955E-12	680.243E-3	-6.04903E-3	184.946E-12	645.095E-3	-14.1660E-3
4.61481E-3	184.775E-12	669.584E-3	-17.5929E-3	183.740E-12	647.456E-3	-14.4951E-3
4.60980E-3	184.356E-12	657.915E-3	-3.38358E-3	184.108E-12	650.157E-3	-8.75773E-3
4.60480E-3	183.505E-12	653.147E-3	4.73028E-3	184.369E-12	647.287E-3	6.94889E-3
4.59980E-3	183.037E-12	650.290E-3	-17.0266E-3	183.564E-12	671.388E-3	6.41548E-3
4.59480E-3	182.575E-12	657.111E-3	-21.4544E-3	183.165E-12	704.214E-3	-14.2111E-3
4.58979E-3	181.578E-12	658.609E-3	-11.5957E-3	183.155E-12	693.832E-3	-21.0426E-3
4.58479E-3	181.847E-12	654.167E-3	-23.5980E-3	183.814E-12	660.660E-3	-24.7475E-3
4.57979E-3	181.185E-12	658.407E-3	-41.3795E-3	183.622E-12	642.892E-3	-34.1862E-3
4.57479E-3	180.632E-12	677.833E-3	-42.9558E-3	182.940E-12	650.069E-3	-13.1576E-3
4.56978E-3	180.730E-12	664.350E-3	-24.1587E-3	182.103E-12	674.902E-3	16.0694E-3
4.56478E-3	181.605E-12	629.383E-3	10.5876E-3	181.523E-12	687.462E-3	15.7653E-3
4.55978E-3	181.360E-12	625.258E-3	28.8850E-3	182.004E-12	672.235E-3	5.16367E-3
4.55478E-3	181.363E-12	632.936E-3	17.7414E-3	180.937E-12	661.743E-3	-8.31352E-3
4.54977E-3	181.150E-12	627.957E-3	7.90698E-3	179.708E-12	677.636E-3	-25.0473E-3
4.54477E-3	180.692E-12	635.803E-3	3.44103E-3	179.878E-12	685.053E-3	-32.2146E-3
4.53977E-3	180.950E-12	651.719E-3	-25.9554E-3	180.953E-12	672.830E-3	-44.1116E-3
4.53477E-3	181.563E-12	647.709E-3	-30.4643E-3	180.610E-12	668.131E-3	-50.5441E-3
4.52976E-3	180.981E-12	637.740E-3	6.28766E-3	180.193E-12	670.242E-3	-32.9102E-3
4.52476E-3	180.284E-12	643.079E-3	11.8264E-3	179.569E-12	656.244E-3	-23.3956E-3
4.51976E-3	180.796E-12	658.272E-3	-15.6302E-3	180.003E-12	652.333E-3	-22.7841E-3
4.51476E-3	180.978E-12	651.854E-3	-32.9077E-3	180.097E-12	673.292E-3	-8.57916E-3
4.50975E-3	179.794E-12	635.537E-3	-30.1519E-3	179.808E-12	672.997E-3	-19.9529E-3
4.50475E-3	178.362E-12	639.620E-3	-20.9467E-3	179.419E-12	646.480E-3	-43.8172E-3
4.49975E-3	178.513E-12	652.179E-3	-12.8252E-3	179.626E-12	642.797E-3	-31.4628E-3
4.49475E-3	178.503E-12	669.853E-3	14.0332E-3	180.178E-12	676.399E-3	-15.5499E-3
4.48974E-3	177.887E-12	675.320E-3	32.8172E-3	179.825E-12	703.220E-3	-22.7031E-3
4.48474E-3	177.018E-12	660.916E-3	8.46503E-3	179.284E-12	684.886E-3	-25.7721E-3
4.47974E-3	175.890E-12	656.794E-3	-19.2343E-3	178.658E-12	666.967E-3	-2.70409E-3
4.47474E-3	175.994E-12	650.734E-3	-13.5919E-3	179.060E-12	668.659E-3	10.3536E-3
4.46973E-3	175.955E-12	622.970E-3	-8.07403E-3	179.023E-12	652.415E-3	-7.80607E-3
4.46473E-3	175.746E-12	621.197E-3	-34.0133E-3	178.330E-12	638.940E-3	-20.1759E-3
4.45973E-3	175.182E-12	662.732E-3	-48.7725E-3	177.997E-12	627.375E-3	-16.6884E-3
4.45473E-3	175.691E-12	668.455E-3	-34.6000E-3	177.504E-12	629.897E-3	-10.0005E-3
4.44972E-3	175.951E-12	636.864E-3	3.69967E-3	177.295E-12	672.079E-3	-7.87969E-3
4.44472E-3	177.373E-12	617.942E-3	16.1360E-3	176.646E-12	691.752E-3	-2.22840E-3
4.43972E-3	176.888E-12	614.568E-3	-3.76372E-3	176.705E-12	681.575E-3	11.9071E-3
4.43472E-3	175.845E-12	628.521E-3	-4.96329E-3	176.487E-12	694.319E-3	10.6064E-3
4.42971E-3	176.847E-12	635.606E-3	5.21857E-3	176.494E-12	692.897E-3	-7.68413E-3
4.42471E-3	177.666E-12	643.073E-3	7.77347E-3	176.347E-12	663.010E-3	-1.18108E-3
4.41971E-3	177.148E-12	675.262E-3	-3.65995E-3	175.828E-12	654.640E-3	22.0593E-3
4.41471E-3	176.770E-12	685.470E-3	-28.7359E-3	176.319E-12	666.320E-3	19.0020E-3
4.40970E-3	176.851E-12	653.371E-3	-54.4364E-3	175.684E-12	666.010E-3	-12.6682E-3
4.40470E-3	176.501E-12	643.230E-3	-49.2854E-3	175.612E-12	657.646E-3	-48.9474E-3
4.39970E-3	176.222E-12	666.184E-3	-17.9427E-3	174.810E-12	660.293E-3	-52.7903E-3
4.39470E-3	175.619E-12	661.189E-3	3.71327E-3	175.009E-12	666.962E-3	-26.8475E-3
4.38969E-3	174.311E-12	629.823E-3	-15.0757E-3	174.169E-12	666.752E-3	-14.5054E-3
4.38469E-3	173.879E-12	633.770E-3	-46.2502E-3	174.559E-12	662.504E-3	-24.3144E-3
4.37969E-3	173.346E-12	652.862E-3	-56.2478E-3	173.874E-12	651.364E-3	-33.8528E-3
4.37469E-3	172.185E-12	639.001E-3	-37.7781E-3	173.679E-12	642.939E-3	-39.9173E-3
4.36968E-3	171.397E-12	636.307E-3	-12.1075E-3	172.624E-12	652.300E-3	-44.6689E-3
4.36468E-3	171.464E-12	653.774E-3	-25.3694E-3	173.017E-12	654.152E-3	-44.4402E-3
4.35968E-3	172.190E-12	666.736E-3	-45.5507E-3	172.647E-12	645.707E-3	-29.3414E-3
4.35468E-3	171.744E-12	678.891E-3	-33.8492E-3	172.711E-12	648.505E-3	-4.03173E-3
4.34967E-3	171.896E-12	694.877E-3	-1.68141E-3	171.671E-12	665.240E-3	6.62642E-3
4.34467E-3	172.585E-12	692.098E-3	17.8890E-3	171.311E-12	681.175E-3	9.47319E-3
4.33967E-3	172.645E-12	669.850E-3	-1.39058E-3	170.948E-12	666.158E-3	19.0538E-3
4.33467E-3	172.657E-12	664.326E-3	-35.8409E-3	171.111E-12	628.840E-3	12.8962E-3
4.32966E-3	172.754E-12	687.558E-3	-37.4946E-3	170.084E-12	609.696E-3	-14.4644E-3
4.32466E-3	172.591E-12	699.760E-3	-31.2560E-3	169.284E-12	627.297E-3	-18.7929E-3
4.31966E-3	173.270E-12	685.554E-3	-49.1173E-3	169.778E-12	646.931E-3	3.60828E-3
4.31466E-3	173.256E-12	672.164E-3	-60.3717E-3	169.671E-12	650.371E-3	16.1379E-3
4.30965E-3	173.072E-12	656.237E-3	-45.1816E-3	169.640E-12	677.450E-3	5.83135E-3
4.30465E-3	172.381E-12	643.523E-3	-18.2377E-3	169.611E-12	698.910E-3	-8.78842E-3
4.29965E-3	171.552E-12	642.285E-3	-7.25065E-3	169.571E-12	696.366E-3	-13.9401E-3
4.29465E-3	170.786E-12	649.214E-3	281.895E-6	169.652E-12	701.222E-3	-15.4322E-3
4.28964E-3	170.257E-12	652.506E-3	-4.48314E-3	169.872E-12	695.767E-3	-17.3453E-3
4.28464E-3	169.073E-12	655.271E-3	-13.6823E-3	170.547E-12	685.912E-3	-23.1283E-3
4.27964E-3	168.092E-12	664.550E-3	-5.54213E-3	170.504E-12	677.567E-3	-28.7717E-3
4.27464E-3	167.911E-12	672.588E-3	-12.4295E-3	170.487E-12	654.442E-3	-25.4854E-3
4.26963E-3	167.277E-12	675.750E-3	-22.6069E-3	170.102E-12	642.778E-3	-10.5275E-3
4.26463E-3	166.718E-12	668.679E-3	1.18311E-3	170.978E-12	639.350E-3	-2.45769E-3
4.25963E-3	166.126E-12	665.314E-3	14.6574E-3	171.051E-12	625.883E-3	-13.4554E-3
4.25463E-3	166.751E-12	677.970E-3	-15.5293E-3	170.461E-12	617.390E-3	-26.6740E-3
4.24962E-3	166.930E-12	671.551E-3	-44.8346E-3	169.535E-12	620.605E-3	-18.9414E-3
4.24462E-3	167.155E-12	642.580E-3	-36.7484E-3	169.162E-12	646.300E-3	-1.03116E-3
4.23962E-3	166.753E-12	651.751E-3	-17.1583E-3	169.176E-12	670.818E-3	-11.2571E-3
4.23462E-3	167.186E-12	661.540E-3	-10.4660E-3	169.370E-12	674.319E-3	-24.9280E-3
4.22961E-3	167.891E-12	634.589E-3	-10.9835E-3	169.294E-12	681.660E-3	-24.0741E-3
4.22461E-3	167.924E-12	622.386E-3	-11.8563E-3	167.796E-12	684.107E-3	-20.1107E-3
4.21961E-3	167.784E-12	625.547E-3	-12.8693E-3	167.785E-12	674.462E-3	-9.11494E-3
4.21461E-3	167.307E-12	628.299E-3	-16.1359E-3	168.546E-12	675.533E-3	4.24812E-3
4.20960E-3	166.773E-12	644.447E-3	-11.3416E-3	168.267E-12	682.698E-3	7.31572E-3
4.20460E-3	166.175E-12	660.305E-3	-4.43726E-3	166.831E-12	667.304E-3	-4.19395E-3
4.19960E-3	165.829E-12	666.592E-3	108.808E-6	167.004E-12	646.765E-3	-14.2074E-3
4.19460E-3	165.401E-12	680.153E-3	-11.9550E-3	167.024E-12	652.902E-3	-28.7255E-3
4.18959E-3	164.471E-12	685.571E-3	-23.1952E-3	166.550E-12	663.947E-3	-31.9939E-3
4.18459E-3	164.099E-12	672.989E-3	-9.54565E-3	165.958E-12	653.426E-3	-22.4161E-3
4.17959E-3	164.422E-12	661.251E-3	-12.5132E-3	165.630E-12	642.349E-3	-16.5167E-3
4.17459E-3	164.692E-12	663.448E-3	-34.1246E-3	165.149E-12	639.120E-3	-12.3760E-3
4.16958E-3	163.856E-12	672.258E-3	-25.5303E-3	165.229E-12	639.065E-3	-14.0456E-3
4.16458E-3	163.356E-12	681.819E-3	227.669E-6	165.106E-12	643.494E-3	-25.2599E-3
4.15958E-3	163.637E-12	686.179E-3	859.166E-6	164.418E-12	643.192E-3	-49.5404E-3
4.15458E-3	164.158E-12	667.941E-3	-3.27337E-3	163.702E-12	646.307E-3	-52.8138E-3
4.14957E-3	163.977E-12	634.588E-3	-12.2207E-3	162.994E-12	643.113E-3	-21.1296E-3
4.14457E-3	163.394E-12	620.244E-3	-35.9888E-3	163.141E-12	632.500E-3	-7.80936E-3
4.13957E-3	163.330E-12	639.062E-3	-50.8905E-3	162.696E-12	642.638E-3	-17.9944E-3
4.13457E-3	162.971E-12	656.047E-3	-42.5967E-3	162.644E-12	658.181E-3	-13.7841E-3
4.12956E-3	163.046E-12	664.169E-3	-16.6636E-3	162.610E-12	665.572E-3	-516.496E-6
4.12456E-3	162.622E-12	669.845E-3	-5.89535E-3	162.596E-12	669.744E-3	1.05347E-3
4.11956E-3	162.426E-12	668.327E-3	-22.2061E-3	162.332E-12	652.553E-3	-23.5993E-3
4.11456E-3	161.985E-12	657.483E-3	-48.4988E-3	161.831E-12	638.303E-3	-50.7833E-3
4.10955E-3	161.489E-12	643.624E-3	-51.9909E-3	161.910E-12	648.592E-3	-43.6698E-3
4.10455E-3	161.241E-12	632.703E-3	-23.9348E-3	161.550E-12	665.259E-3	-19.5240E-3
4.09955E-3	161.217E-12	641.235E-3	1.71552E-3	161.321E-12	680.270E-3	-9.65879E-3
4.09455E-3	161.155E-12	669.237E-3	10.9731E-3	161.178E-12	686.857E-3	-15.6632E-3
4.08954E-3	161.335E-12	675.188E-3	21.6447E-3	160.677E-12	669.038E-3	-9.67205E-3
4.08454E-3	161.429E-12	673.167E-3	25.7474E-3	160.631E-12	642.870E-3	10.0138E-3
4.07954E-3	161.275E-12	667.028E-3	26.9186E-3	159.430E-12	629.677E-3	9.00787E-3
4.07454E-3	161.368E-12	648.172E-3	31.8790E-3	159.187E-12	607.129E-3	-12.2430E-3
4.06953E-3	161.322E-12	640.968E-3	27.7533E-3	158.677E-12	595.535E-3	-28.8594E-3
4.06453E-3	161.198E-12	651.270E-3	29.0789E-3	159.369E-12	625.788E-3	-25.8297E-3
4.05953E-3	160.854E-12	658.923E-3	14.7456E-3	158.183E-12	674.120E-3	-4.10502E-3
4.05453E-3	160.808E-12	643.218E-3	-24.6803E-3	157.986E-12	694.253E-3	-1.74985E-3
4.04952E-3	159.879E-12	628.201E-3	-47.7213E-3	158.511E-12	682.801E-3	-17.7832E-3
4.04452E-3	159.191E-12	653.760E-3	-37.4402E-3	158.820E-12	672.782E-3	-13.4757E-3
4.03952E-3	159.428E-12	672.552E-3	-19.1317E-3	158.353E-12	675.837E-3	-9.48534E-3
4.03452E-3	158.299E-12	664.148E-3	-1.59844E-3	158.127E-12	691.470E-3	-8.12097E-3
4.02951E-3	158.406E-12	677.280E-3	-4.86079E-3	159.248E-12	695.428E-3	8.13838E-3
4.02451E-3	158.144E-12	682.485E-3	-38.5324E-3	159.302E-12	677.518E-3	3.85750E-3
4.01951E-3	157.805E-12	660.133E-3	-56.2064E-3	159.965E-12	665.923E-3	-24.5748E-3
4.01451E-3	157.806E-12	639.143E-3	-46.2079E-3	159.686E-12	675.502E-3	-39.0829E-3
4.00950E-3	157.719E-12	639.337E-3	-22.6097E-3	159.322E-12	677.125E-3	-31.7101E-3
4.00450E-3	157.337E-12	657.305E-3	-11.3428E-3	159.427E-12	648.812E-3	-17.6118E-3
3.99950E-3	157.170E-12	671.441E-3	-24.6178E-3	159.689E-12	632.920E-3	-7.26515E-3
3.99450E-3	157.645E-12	664.365E-3	-39.5489E-3	158.152E-12	656.437E-3	-1.48573E-3
3.98949E-3	157.160E-12	647.157E-3	-36.8993E-3	157.161E-12	683.080E-3	-3.23280E-3
3.98449E-3	157.380E-12	667.867E-3	-21.1804E-3	156.755E-12	681.909E-3	-15.2075E-3
3.97949E-3	156.901E-12	693.850E-3	-3.27506E-3	156.310E-12	669.058E-3	-14.8034E-3
3.97449E-3	156.675E-12	674.447E-3	-3.96008E-3	155.268E-12	662.724E-3	-4.81731E-3
3.96948E-3	157.234E-12	662.406E-3	-15.7487E-3	155.251E-12	672.133E-3	-18.4510E-3
3.96448E-3	157.073E-12	662.614E-3	-13.1210E-3	155.077E-12	696.542E-3	-41.6144E-3
3.95948E-3	156.276E-12	641.708E-3	-16.4119E-3	155.113E-12	706.489E-3	-33.4232E-3
3.95448E-3	155.448E-12	645.794E-3	-18.0760E-3	155.345E-12	702.139E-3	-14.7407E-3
3.94947E-3	154.847E-12	672.685E-3	10.0489E-3	155.344E-12	695.109E-3	-2.87795E-3
3.94447E-3	154.237E-12	675.072E-3	26.8445E-3	155.409E-12	681.784E-3	6.25920E-3
3.93947E-3	153.592E-12	657.074E-3	2.51113E-3	155.509E-12	666.859E-3	-8.05108E-3
3.93447E-3	153.247E-12	635.432E-3	-19.1708E-3	155.830E-12	657.721E-3	-25.0688E-3
3.92946E-3	153.317E-12	628.861E-3	-36.6849E-3	156.005E-12	656.199E-3	-20.8056E-3
3.92446E-3	153.566E-12	637.143E-3	-54.0126E-3	155.668E-12	651.171E-3	-8.14760E-3
3.91946E-3	153.636E-12	647.483E-3	-35.1903E-3	155.189E-12	636.044E-3	3.17158E-3
3.91446E-3	153.088E-12	661.522E-3	-11.3915E-3	155.075E-12	618.989E-3	-4.96505E-3
3.90945E-3	153.122E-12	672.391E-3	-17.7758E-3	154.771E-12	614.860E-3	-16.3227E-3
3.90445E-3	153.820E-12	671.465E-3	-15.7388E-3	153.672E-12	637.947E-3	-26.0563E-3
3.89945E-3	154.088E-12	666.785E-3	1.18457E-3	153.014E-12	669.592E-3	-53.8604E-3
3.89445E-3	153.971E-12	670.020E-3	1.01930E-3	151.845E-12	673.037E-3	-52.2584E-3
3.88944E-3	153.141E-12	665.082E-3	-12.8558E-3	152.232E-12	668.379E-3	-27.6681E-3
3.88444E-3	152.748E-12	648.746E-3	-28.5759E-3	151.856E-12	676.914E-3	-27.5189E-3
3.87944E-3	152.081E-12	658.012E-3	-29.0448E-3	151.513E-12	686.736E-3	-28.0825E-3
3.87444E-3	151.526E-12	662.115E-3	-11.6978E-3	150.638E-12	696.879E-3	-28.7040E-3
3.86943E-3	150.992E-12	640.730E-3	1.99302E-3	151.248E-12	707.632E-3	-34.6567E-3
3.86443E-3	150.509E-12	637.045E-3	8.61918E-3	151.599E-12	711.255E-3	-32.5008E-3
3.85943E-3	149.742E-12	650.551E-3	12.8228E-3	151.093E-12	700.754E-3	-35.9960E-3
3.85443E-3	149.234E-12	650.084E-3	10.0661E-3	150.893E-12	699.926E-3	-25.6628E-3
3.84942E-3	148.702E-12	637.314E-3	-725.098E-6	151.380E-12	699.432E-3	-2.71434E-3
3.84442E-3	148.581E-12	632.758E-3	-24.0088E-3	151.687E-12	676.973E-3	-3.50531E-3
3.83942E-3	148.357E-12	626.322E-3	-44.7118E-3	150.718E-12	669.283E-3	-1.98797E-3
3.83442E-3	149.077E-12	626.425E-3	-47.8238E-3	151.296E-12	675.071E-3	1.58430E-3
3.82941E-3	148.718E-12	646.197E-3	-44.8537E-3	150.613E-12	664.006E-3	-14.3888E-3
3.82441E-3	148.986E-12	657.818E-3	-41.5076E-3	150.268E-12	658.195E-3	-35.3539E-3
3.81941E-3	149.301E-12	653.071E-3	-24.3262E-3	149.565E-12	669.922E-3	-44.5457E-3
3.81441E-3	150.191E-12	666.031E-3	-7.39615E-3	149.545E-12	667.926E-3	-30.8817E-3
3.80940E-3	151.021E-12	679.290E-3	-13.1097E-3	148.821E-12	655.939E-3	-11.8646E-3
3.80440E-3	150.427E-12	667.446E-3	-23.4871E-3	148.986E-12	639.494E-3	-1.95529E-3
3.79940E-3	150.386E-12	661.712E-3	-22.8853E-3	148.040E-12	629.698E-3	2.27634E-3
3.79440E-3	150.202E-12	660.114E-3	-11.5953E-3	147.038E-12	646.898E-3	8.91200E-3
3.78939E-3	150.370E-12	649.966E-3	-2.66554E-3	146.749E-12	666.911E-3	10.5676E-3
3.78439E-3	148.850E-12	662.934E-3	-5.87054E-3	146.485E-12	660.173E-3	-8.54681E-3
3.77939E-3	148.213E-12	688.881E-3	-16.7047E-3	146.957E-12	645.779E-3	-17.8974E-3
3.77439E-3	147.125E-12	693.373E-3	-21.7425E-3	146.306E-12	659.617E-3	-13.1288E-3
3.76938E-3	146.643E-12	677.138E-3	-10.5952E-3	146.243E-12	678.777E-3	-14.1551E-3
3.76438E-3	145.697E-12	655.028E-3	-351.319E-6	146.183E-12	684.471E-3	-13.4072E-3
3.75938E-3	145.126E-12	658.140E-3	4.31929E-3	146.679E-12	687.968E-3	-17.8208E-3
3.75438E-3	144.973E-12	678.251E-3	14.7616E-3	146.068E-12	678.256E-3	-35.7320E-3
3.74937E-3	144.738E-12	683.513E-3	5.61153E-3	145.489E-12	673.179E-3	-47.7236E-3
3.74437E-3	144.812E-12	677.385E-3	-19.7146E-3	144.420E-12	684.461E-3	-44.8669E-3
3.73937E-3	145.157E-12	668.760E-3	-17.3762E-3	144.882E-12	673.760E-3	-33.3002E-3
3.73437E-3	145.509E-12	662.935E-3	-1.16622E-3	144.756E-12	647.138E-3	-8.93715E-3
3.72936E-3	146.249E-12	664.859E-3	-2.86924E-3	143.937E-12	639.359E-3	4.19274E-3
3.72436E-3	145.952E-12	670.660E-3	-12.4141E-3	143.710E-12	644.218E-3	-6.74926E-3
3.71936E-3	145.772E-12	675.565E-3	-14.9136E-3	143.815E-12	644.058E-3	-20.7247E-3
3.71436E-3	145.379E-12	679.427E-3	-26.2294E-3	143.793E-12	640.351E-3	-25.6294E-3
3.70935E-3	145.737E-12	672.452E-3	-31.4752E-3	144.161E-12	651.887E-3	-17.2446E-3
3.70435E-3	145.391E-12	648.161E-3	-1.52748E-3	144.111E-12	659.127E-3	-10.2593E-3
3.69935E-3	144.584E-12	637.429E-3	12.2650E-3	144.103E-12	647.067E-3	-12.6888E-3
3.69435E-3	143.060E-12	656.287E-3	-14.2491E-3	144.613E-12	647.455E-3	-17.8921E-3
3.68934E-3	142.991E-12	674.574E-3	-41.3425E-3	144.652E-12	674.353E-3	-20.4165E-3
3.68434E-3	143.237E-12	672.789E-3	-35.1020E-3	144.504E-12	695.855E-3	-25.9664E-3
3.67934E-3	142.954E-12	653.112E-3	-13.5605E-3	143.861E-12	689.607E-3	-29.8300E-3
3.67434E-3	141.915E-12	641.839E-3	-22.8908E-3	143.970E-12	682.710E-3	-18.1457E-3
3.66933E-3	141.152E-12	642.905E-3	-44.5238E-3	143.731E-12	676.311E-3	-15.6325E-3
3.66433E-3	141.385E-12	644.635E-3	-33.6495E-3	143.258E-12	663.212E-3	-25.4538E-3
3.65933E-3	141.411E-12	658.655E-3	-13.9750E-3	143.077E-12	668.477E-3	-19.9373E-3
3.65433E-3	141.497E-12	665.473E-3	-16.4645E-3	142.415E-12	666.816E-3	220.929E-6
3.64932E-3	141.652E-12	666.307E-3	-19.4058E-3	141.550E-12	659.392E-3	10.3258E-3
3.64432E-3	141.287E-12	667.878E-3	-8.48453E-3	141.537E-12	682.416E-3	3.11098E-3
3.63932E-3	141.727E-12	655.703E-3	-14.9380E-3	141.297E-12	698.909E-3	-6.34866E-3
3.63432E-3	141.393E-12	646.968E-3	-43.9774E-3	140.866E-12	693.700E-3	-11.2093E-3
3.62931E-3	141.145E-12	653.613E-3	-44.5429E-3	141.181E-12	686.958E-3	-15.4692E-3
3.62431E-3	140.654E-12	662.228E-3	-30.1942E-3	141.313E-12	683.039E-3	-22.7598E-3
3.61931E-3	140.415E-12	659.365E-3	-22.7743E-3	141.369E-12	687.444E-3	-19.1850E-3
3.61431E-3	140.138E-12	654.186E-3	-13.8557E-3	141.735E-12	694.425E-3	-2.75807E-3
3.60930E-3	140.337E-12	657.946E-3	-9.88844E-3	141.591E-12	695.421E-3	1.82627E-3
3.60430E-3	140.084E-12	670.591E-3	-4.78280E-3	141.402E-12	697.474E-3	-2.39325E-3
3.59930E-3	139.626E-12	667.522E-3	2.29606E-3	141.811E-12	691.768E-3	1.32047E-3
3.59430E-3	139.640E-12	657.711E-3	-11.8033E-3	142.033E-12	686.593E-3	-2.85570E-3
3.58929E-3	139.561E-12	677.824E-3	-29.6618E-3	141.597E-12	690.310E-3	-26.8242E-3
3.58429E-3	139.497E-12	703.186E-3	-10.9571E-3	141.241E-12	667.164E-3	-39.7740E-3
3.57929E-3	139.163E-12	707.200E-3	6.81442E-3	140.374E-12	633.915E-3	-48.1971E-3
3.57429E-3	140.183E-12	700.137E-3	4.13360E-3	139.807E-12	630.417E-3	-51.4372E-3
3.56928E-3	140.245E-12	692.058E-3	-11.4000E-3	139.300E-12	642.934E-3	-38.1855E-3
3.56428E-3	139.899E-12	689.857E-3	-27.1684E-3	137.932E-12	649.245E-3	-34.2256E-3
3.55928E-3	138.917E-12	700.232E-3	-22.5337E-3	136.646E-12	649.831E-3	-6.94924E-3
3.55428E-3	138.937E-12	692.053E-3	-12.8913E-3	135.783E-12	649.581E-3	15.5362E-3
3.54927E-3	138.619E-12	684.565E-3	-14.2964E-3	135.699E-12	653.495E-3	-1.80232E-3
3.54427E-3	138.237E-12	705.306E-3	-19.8452E-3	135.008E-12	665.335E-3	-7.07467E-3
3.53927E-3	137.326E-12	702.943E-3	-11.6975E-3	134.187E-12	669.184E-3	-3.21214E-3
3.53427E-3	135.860E-12	680.743E-3	217.398E-6	134.322E-12	669.251E-3	-4.67483E-3
3.52926E-3	135.072E-12	680.002E-3	2.32548E-3	134.482E-12	674.566E-3	-6.97409E-3
3.52426E-3	134.474E-12	676.967E-3	201.582E-6	134.938E-12	659.411E-3	-10.7228E-3
3.51926E-3	134.150E-12	657.657E-3	-7.46232E-3	134.923E-12	648.216E-3	-14.4410E-3
3.51426E-3	133.430E-12	660.261E-3	-22.6265E-3	134.940E-12	667.056E-3	-11.9107E-3
3.50925E-3	132.796E-12	656.169E-3	-19.6266E-3	135.261E-12	682.165E-3	-6.14700E-3
3.50425E-3	133.157E-12	643.746E-3	-8.64965E-3	135.437E-12	690.302E-3	-3.12128E-3
3.49925E-3	133.735E-12	658.590E-3	-10.2478E-3	135.147E-12	694.931E-3	-11.7559E-3
3.49425E-3	134.156E-12	668.686E-3	-6.15372E-3	134.658E-12	684.851E-3	-33.9989E-3
3.48924E-3	134.125E-12	668.264E-3	-6.74023E-3	134.622E-12	686.042E-3	-45.7193E-3
3.48424E-3	134.316E-12	661.755E-3	-21.0562E-3	134.816E-12	700.705E-3	-42.9185E-3
3.47924E-3	135.056E-12	659.521E-3	-23.2435E-3	134.353E-12	694.888E-3	-33.4824E-3
3.47424E-3	135.507E-12	674.698E-3	-3.52910E-3	132.808E-12	674.550E-3	-25.3813E-3
3.46923E-3	135.234E-12	685.943E-3	-3.92027E-3	132.288E-12	663.911E-3	-12.5830E-3
3.46423E-3	134.808E-12	692.819E-3	-25.4775E-3	132.080E-12	665.936E-3	-3.17142E-3
3.45923E-3	134.670E-12	703.831E-3	-27.1614E-3	131.529E-12	673.877E-3	-14.3700E-3
3.45423E-3	134.275E-12	711.926E-3	-11.8117E-3	131.502E-12	676.370E-3	-25.5987E-3
3.44922E-3	133.643E-12	699.079E-3	-7.87470E-3	131.310E-12	663.700E-3	-39.1601E-3
3.44422E-3	132.608E-12	653.260E-3	-14.3063E-3	131.169E-12	651.813E-3	-52.1942E-3
3.43922E-3	131.528E-12	617.924E-3	-18.3700E-3	131.697E-12	665.482E-3	-45.0447E-3
3.43422E-3	130.597E-12	618.627E-3	-15.4863E-3	132.195E-12	688.158E-3	-36.7386E-3
3.42921E-3	130.411E-12	634.536E-3	-6.18894E-3	132.736E-12	689.751E-3	-32.9696E-3
3.42421E-3	130.194E-12	652.802E-3	5.56923E-3	132.713E-12	677.513E-3	-3.88376E-3
3.41921E-3	129.766E-12	660.215E-3	27.9784E-3	133.130E-12	676.414E-3	19.5280E-3
3.41421E-3	129.687E-12	649.276E-3	38.1897E-3	133.016E-12	689.279E-3	-1.51708E-3
3.40920E-3	129.696E-12	644.345E-3	13.7658E-3	132.979E-12	693.799E-3	-22.2070E-3
3.40420E-3	130.424E-12	650.233E-3	-12.7482E-3	132.456E-12	693.540E-3	-11.1511E-3
3.39920E-3	130.151E-12	644.877E-3	-13.7093E-3	132.309E-12	696.962E-3	-1.15987E-3
3.39420E-3	130.873E-12	652.774E-3	-14.2407E-3	132.234E-12	686.864E-3	-11.1589E-3
3.38919E-3	130.821E-12	684.376E-3	-27.2020E-3	131.928E-12	690.361E-3	-8.95898E-3
3.38419E-3	131.468E-12	689.347E-3	-29.2314E-3	131.107E-12	709.683E-3	13.0244E-3
3.37919E-3	132.162E-12	673.412E-3	-27.2089E-3	130.433E-12	712.258E-3	19.9883E-3
3.37419E-3	132.048E-12	687.003E-3	-33.5397E-3	130.100E-12	705.657E-3	2.95318E-3
3.36918E-3	131.790E-12	700.780E-3	-20.0091E-3	129.690E-12	693.320E-3	-14.3354E-3
3.36418E-3	132.035E-12	685.819E-3	9.66308E-3	129.458E-12	683.870E-3	-21.3394E-3
3.35918E-3	131.598E-12	675.850E-3	13.2744E-3	128.641E-12	684.180E-3	-29.6231E-3
3.35418E-3	130.575E-12	685.470E-3	-9.38477E-3	128.568E-12	672.519E-3	-43.1872E-3
3.34917E-3	129.584E-12	679.066E-3	-19.5429E-3	129.256E-12	666.120E-3	-43.5860E-3
3.34417E-3	129.241E-12	665.650E-3	-1.69258E-3	128.887E-12	690.293E-3	-32.1143E-3
3.33917E-3	128.161E-12	667.240E-3	12.0882E-3	128.207E-12	693.894E-3	-28.5715E-3
3.33417E-3	127.699E-12	666.115E-3	2.58936E-3	127.859E-12	657.503E-3	-17.8503E-3
3.32916E-3	126.987E-12	661.450E-3	-25.4247E-3	127.754E-12	639.852E-3	-11.8098E-3
3.32416E-3	126.798E-12	658.834E-3	-35.5100E-3	127.280E-12	645.774E-3	-14.0575E-3
3.31916E-3	126.157E-12	672.201E-3	-4.03557E-3	127.459E-12	647.596E-3	4.29119E-3
3.31416E-3	125.772E-12	697.169E-3	33.5220E-3	126.139E-12	659.079E-3	11.8648E-3
3.30915E-3	125.490E-12	692.963E-3	36.3386E-3	125.624E-12	671.403E-3	-12.3472E-3
3.30415E-3	125.398E-12	664.215E-3	-3.25183E-3	125.349E-12	672.695E-3	-26.5529E-3
3.29915E-3	125.117E-12	662.927E-3	-38.5388E-3	125.373E-12	682.263E-3	-23.8478E-3
3.29415E-3	125.128E-12	683.883E-3	-31.2523E-3	124.588E-12	688.113E-3	-25.3912E-3
3.28914E-3	124.999E-12	687.956E-3	-27.9893E-3	124.047E-12	672.506E-3	-21.9819E-3
3.28414E-3	125.151E-12	684.629E-3	-45.5540E-3	124.348E-12	661.570E-3	-9.11661E-3
3.27914E-3	125.518E-12	685.686E-3	-42.4811E-3	124.071E-12	666.809E-3	-7.09865E-3
3.27414E-3	125.626E-12	666.332E-3	-34.9653E-3	123.836E-12	670.568E-3	-18.4326E-3
3.26913E-3	125.666E-12	647.685E-3	-38.3504E-3	123.361E-12	674.698E-3	-19.7745E-3
3.26413E-3	125.459E-12	671.464E-3	-35.2866E-3	123.355E-12	673.519E-3	-16.2982E-3
3.25913E-3	125.209E-12	695.645E-3	-15.8922E-3	123.657E-12	659.236E-3	-21.6363E-3
3.25413E-3	124.802E-12	687.810E-3	-2.97743E-3	123.930E-12	661.937E-3	-19.3960E-3
3.24912E-3	124.569E-12	676.576E-3	-12.4814E-3	123.580E-12	678.422E-3	-8.60723E-3
3.24412E-3	124.103E-12	660.605E-3	-12.1212E-3	123.615E-12	679.195E-3	-3.23523E-3
3.23912E-3	123.921E-12	645.446E-3	709.341E-6	123.704E-12	669.026E-3	-5.77217E-3
3.23412E-3	123.551E-12	665.551E-3	-4.63490E-3	124.050E-12	674.653E-3	-10.7386E-3
3.22911E-3	123.196E-12	694.953E-3	-15.1041E-3	123.664E-12	689.767E-3	237.584E-6
3.22411E-3	122.929E-12	697.434E-3	-19.5260E-3	122.121E-12	697.987E-3	10.5470E-3
3.21911E-3	122.283E-12	686.050E-3	-30.3011E-3	122.148E-12	707.912E-3	-10.8188E-3
3.21411E-3	121.808E-12	674.670E-3	-27.8729E-3	121.893E-12	710.147E-3	-25.5258E-3
3.20910E-3	121.610E-12	681.084E-3	-10.6125E-3	122.231E-12	690.211E-3	-9.45799E-3
3.20410E-3	121.449E-12	703.902E-3	-8.87281E-3	120.868E-12	667.109E-3	-4.04976E-3
3.19910E-3	120.753E-12	701.796E-3	-15.4639E-3	120.951E-12	674.170E-3	-12.2971E-3
3.19410E-3	119.756E-12	678.222E-3	-7.40880E-3	121.058E-12	691.297E-3	-15.2151E-3
3.18909E-3	119.788E-12	670.208E-3	221.409E-6	121.986E-12	683.319E-3	-17.5982E-3
3.18409E-3	119.761E-12	674.494E-3	5.68225E-3	121.889E-12	668.741E-3	-17.8281E-3
3.17909E-3	119.413E-12	675.646E-3	5.05156E-3	121.607E-12	665.930E-3	-15.7191E-3
3.17409E-3	119.007E-12	668.780E-3	-12.0531E-3	121.884E-12	683.551E-3	-28.7179E-3
3.16908E-3	118.907E-12	649.136E-3	-27.8690E-3	122.382E-12	695.320E-3	-42.8227E-3
3.16408E-3	119.313E-12	637.274E-3	-30.6620E-3	122.611E-12	683.550E-3	-26.5919E-3
3.15908E-3	119.345E-12	665.045E-3	-36.7188E-3	121.673E-12	680.676E-3	-2.15360E-3
3.15408E-3	119.305E-12	706.103E-3	-54.5048E-3	121.207E-12	681.371E-3	5.31036E-3
3.14907E-3	118.356E-12	711.813E-3	-53.2060E-3	121.109E-12	683.510E-3	939.915E-6
3.14407E-3	118.528E-12	676.436E-3	-43.0526E-3	120.623E-12	691.594E-3	-22.9511E-3
3.13907E-3	118.964E-12	637.704E-3	-33.6268E-3	119.946E-12	689.687E-3	-55.6326E-3
3.13407E-3	118.740E-12	649.444E-3	-20.5376E-3	119.024E-12	685.970E-3	-67.8815E-3
3.12906E-3	117.619E-12	682.567E-3	-16.1197E-3	118.062E-12	678.685E-3	-50.7190E-3
3.12406E-3	117.612E-12	681.519E-3	-13.8924E-3	117.877E-12	668.656E-3	-13.9320E-3
3.11906E-3	117.671E-12	664.610E-3	-13.1470E-3	117.469E-12	664.826E-3	4.36601E-3
3.11406E-3	117.155E-12	664.472E-3	-11.4497E-3	116.830E-12	656.876E-3	-15.0760E-3
3.10905E-3	116.903E-12	667.334E-3	-8.70941E-3	116.366E-12	659.971E-3	-44.2661E-3
3.10405E-3	116.252E-12	669.577E-3	-11.5757E-3	116.532E-12	684.519E-3	-50.3365E-3
3.09905E-3	115.241E-12	676.112E-3	-19.3617E-3	117.358E-12	712.693E-3	-23.1933E-3
3.09405E-3	115.170E-12	653.982E-3	-30.7537E-3	117.236E-12	723.384E-3	1.92308E-3
3.08904E-3	114.842E-12	637.025E-3	-23.5967E-3	117.181E-12	705.996E-3	-12.6322E-3
3.08404E-3	114.276E-12	656.203E-3	7.45073E-3	117.330E-12	692.608E-3	-32.6846E-3
3.07904E-3	113.670E-12	663.521E-3	8.71011E-3	117.580E-12	702.840E-3	-42.7267E-3
3.07404E-3	113.954E-12	650.665E-3	-8.90929E-3	117.811E-12	695.132E-3	-44.8593E-3
3.06903E-3	114.169E-12	646.419E-3	-7.72988E-3	117.349E-12	674.487E-3	-15.2592E-3
3.06403E-3	114.350E-12	639.418E-3	-13.5166E-3	116.864E-12	675.158E-3	3.19504E-3
3.05903E-3	113.880E-12	634.839E-3	-28.0146E-3	116.618E-12	673.701E-3	-9.09195E-3
3.05403E-3	114.363E-12	657.722E-3	-31.0802E-3	116.446E-12	666.380E-3	-18.5400E-3
3.04902E-3	114.562E-12	678.736E-3	-35.8072E-3	115.260E-12	672.731E-3	-14.6511E-3
3.04402E-3	114.873E-12	692.786E-3	-47.1639E-3	114.778E-12	675.863E-3	-2.09441E-3
3.03902E-3	114.923E-12	716.794E-3	-49.9091E-3	113.919E-12	673.205E-3	-9.21623E-3
3.03402E-3	114.878E-12	714.074E-3	-40.6332E-3	113.594E-12	683.742E-3	-27.4871E-3
3.02901E-3	115.023E-12	687.642E-3	-28.4953E-3	112.940E-12	697.215E-3	-40.0829E-3
3.02401E-3	115.371E-12	685.325E-3	-24.0338E-3	112.869E-12	697.796E-3	-39.4082E-3
3.01901E-3	115.166E-12	703.984E-3	-17.1217E-3	112.699E-12	681.677E-3	-7.92458E-3
3.01401E-3	114.238E-12	703.619E-3	-6.08204E-3	112.804E-12	677.338E-3	12.1760E-3
3.00900E-3	113.869E-12	687.066E-3	-12.6516E-3	112.559E-12	699.350E-3	1.59808E-3
3.00400E-3	113.642E-12	684.427E-3	-25.0195E-3	112.680E-12	705.355E-3	-931.737E-6
2.99900E-3	113.488E-12	689.011E-3	-27.9866E-3	113.022E-12	690.342E-3	-7.04960E-3
2.99400E-3	112.487E-12	691.334E-3	-35.3262E-3	112.961E-12	692.063E-3	-19.8641E-3
2.98899E-3	112.539E-12	685.730E-3	-37.1748E-3	112.723E-12	705.177E-3	-10.2700E-3
2.98399E-3	112.067E-12	675.073E-3	-16.0680E-3	112.725E-12	705.999E-3	13.3600E-3
2.97899E-3	111.731E-12	692.218E-3	13.7465E-3	112.367E-12	696.041E-3	19.0646E-3
2.97399E-3	111.689E-12	714.670E-3	21.3642E-3	112.234E-12	681.339E-3	-3.94270E-3
2.96898E-3	111.962E-12	702.543E-3	-1.13572E-3	111.664E-12	672.565E-3	-15.8306E-3
2.96398E-3	111.517E-12	695.214E-3	-30.5603E-3	111.396E-12	671.463E-3	-8.21912E-3
2.95898E-3	111.711E-12	709.872E-3	-41.5249E-3	110.587E-12	677.464E-3	-16.4808E-3
2.95398E-3	111.928E-12	709.470E-3	-43.5846E-3	110.209E-12	680.740E-3	-31.4646E-3
2.94897E-3	111.948E-12	708.105E-3	-50.5485E-3	109.570E-12	682.098E-3	-21.2981E-3
2.94397E-3	111.470E-12	724.445E-3	-53.1877E-3	109.269E-12	683.090E-3	-5.37212E-3
2.93897E-3	111.381E-12	743.658E-3	-41.5885E-3	108.913E-12	685.587E-3	-13.2793E-3
2.93397E-3	111.178E-12	739.905E-3	-13.1739E-3	108.565E-12	709.789E-3	-28.2092E-3
2.92896E-3	110.729E-12	704.118E-3	10.4804E-3	108.517E-12	724.968E-3	-29.5764E-3
2.92396E-3	110.011E-12	683.714E-3	23.9906E-3	108.425E-12	706.285E-3	-23.6314E-3
2.91896E-3	109.449E-12	695.916E-3	24.5358E-3	108.312E-12	675.925E-3	-17.7511E-3
2.91396E-3	108.291E-12	706.498E-3	3.78516E-3	107.874E-12	664.106E-3	-7.90594E-3
2.90895E-3	107.904E-12	702.155E-3	-7.53735E-3	108.343E-12	670.116E-3	-10.5931E-3
2.90395E-3	107.656E-12	685.579E-3	-4.62780E-3	108.106E-12	675.051E-3	-29.2336E-3
2.89895E-3	107.039E-12	678.843E-3	-8.78111E-3	107.824E-12	689.804E-3	-31.4643E-3
2.89395E-3	106.674E-12	683.794E-3	-16.4948E-3	107.156E-12	703.443E-3	-22.2868E-3
2.88894E-3	106.337E-12	675.682E-3	-19.5836E-3	107.481E-12	693.997E-3	-19.8951E-3
2.88394E-3	106.354E-12	673.988E-3	-8.74581E-3	106.775E-12	679.225E-3	-21.4708E-3
2.87894E-3	106.073E-12	674.281E-3	8.61435E-3	106.724E-12	680.060E-3	-31.6533E-3
2.87394E-3	105.985E-12	677.907E-3	4.28518E-3	106.256E-12	677.671E-3	-42.4689E-3
2.86893E-3	105.645E-12	702.935E-3	-16.0123E-3	106.255E-12	678.626E-3	-35.7101E-3
2.86393E-3	106.172E-12	718.326E-3	-21.4193E-3	105.848E-12	692.078E-3	-16.1390E-3
2.85893E-3	106.128E-12	712.130E-3	-23.1632E-3	105.667E-12	694.323E-3	-12.3258E-3
2.85393E-3	106.115E-12	699.683E-3	-19.9098E-3	105.499E-12	707.118E-3	-30.1056E-3
2.84892E-3	105.691E-12	692.397E-3	-8.18320E-3	105.773E-12	731.420E-3	-45.8073E-3
2.84392E-3	105.584E-12	694.418E-3	-8.48308E-3	105.731E-12	722.349E-3	-44.9494E-3
2.83892E-3	105.361E-12	705.148E-3	-34.3473E-3	105.579E-12	691.073E-3	-24.2466E-3
2.83392E-3	105.139E-12	720.282E-3	-65.7038E-3	105.774E-12	694.746E-3	-5.83457E-3
2.82891E-3	104.518E-12	722.127E-3	-62.9467E-3	105.760E-12	720.104E-3	-12.8002E-3
2.82391E-3	103.933E-12	707.553E-3	-40.7152E-3	105.607E-12	719.713E-3	-18.1818E-3
2.81891E-3	104.035E-12	702.660E-3	-18.0215E-3	105.386E-12	708.888E-3	-15.9014E-3
2.81391E-3	103.603E-12	705.954E-3	-8.29374E-3	105.023E-12	698.914E-3	-33.9254E-3
2.80890E-3	103.441E-12	707.736E-3	-19.3711E-3	104.805E-12	690.954E-3	-44.7977E-3
2.80390E-3	102.980E-12	703.637E-3	-21.7304E-3	104.524E-12	695.058E-3	-42.1909E-3
2.79890E-3	102.702E-12	688.991E-3	-13.2525E-3	104.264E-12	704.652E-3	-39.3305E-3
2.79390E-3	102.327E-12	684.571E-3	-16.0410E-3	103.735E-12	704.713E-3	-22.7224E-3
2.78889E-3	102.660E-12	686.709E-3	-16.1389E-3	103.638E-12	698.818E-3	-10.2333E-3
2.78389E-3	102.374E-12	677.051E-3	-14.8481E-3	103.516E-12	694.867E-3	-31.5992E-3
2.77889E-3	102.119E-12	672.467E-3	-25.3280E-3	103.115E-12	699.374E-3	-52.8959E-3
2.77389E-3	102.252E-12	687.679E-3	-29.1830E-3	102.565E-12	712.019E-3	-34.4061E-3
2.76888E-3	102.182E-12	691.670E-3	-18.7566E-3	102.548E-12	713.880E-3	-19.4780E-3
2.76388E-3	101.725E-12	696.541E-3	-17.1225E-3	102.692E-12	715.599E-3	-28.7730E-3
2.75888E-3	101.340E-12	714.424E-3	-12.5956E-3	102.460E-12	721.749E-3	-35.2124E-3
2.75388E-3	101.425E-12	700.199E-3	7.83291E-3	102.445E-12	719.087E-3	-36.7649E-3
2.74887E-3	101.079E-12	670.671E-3	4.37419E-3	102.268E-12	718.333E-3	-35.1162E-3
2.74387E-3	100.943E-12	669.884E-3	-13.5849E-3	101.735E-12	719.553E-3	-17.9978E-3
2.73887E-3	100.846E-12	692.813E-3	-7.18565E-3	101.472E-12	721.913E-3	9.46846E-3
2.73387E-3	100.397E-12	713.423E-3	-2.45758E-3	101.417E-12	720.898E-3	21.2075E-3
2.72886E-3	99.8576E-12	710.697E-3	-16.2712E-3	100.912E-12	712.319E-3	7.65504E-3
2.72386E-3	100.029E-12	707.327E-3	-17.8016E-3	99.8829E-12	715.316E-3	-22.5350E-3
2.71886E-3	99.9682E-12	717.392E-3	-13.5970E-3	99.8682E-12	719.021E-3	-39.5570E-3
2.71386E-3	99.5613E-12	726.594E-3	-23.2347E-3	99.3847E-12	705.805E-3	-40.8836E-3
2.70885E-3	99.1856E-12	718.271E-3	-38.6137E-3	98.7995E-12	686.054E-3	-41.8262E-3
2.70385E-3	99.0098E-12	695.191E-3	-44.0840E-3	97.8315E-12	679.262E-3	-34.4021E-3
2.69885E-3	99.0238E-12	690.589E-3	-41.1487E-3	97.1560E-12	692.083E-3	-27.0050E-3
2.69385E-3	98.6663E-12	701.750E-3	-30.2899E-3	96.8999E-12	702.733E-3	-18.6832E-3
2.68884E-3	97.9199E-12	718.640E-3	-15.6207E-3	97.3649E-12	700.797E-3	-9.84244E-3
2.68384E-3	97.7592E-12	732.860E-3	-24.6463E-3	96.9801E-12	702.738E-3	-11.6902E-3
2.67884E-3	97.6243E-12	728.616E-3	-32.2171E-3	96.5835E-12	706.961E-3	-17.6751E-3
2.67384E-3	97.5657E-12	717.878E-3	-30.3731E-3	97.0434E-12	710.507E-3	-26.8393E-3
2.66883E-3	97.2889E-12	708.277E-3	-25.5401E-3	96.9427E-12	716.643E-3	-34.1219E-3
2.66383E-3	96.5392E-12	706.698E-3	-11.0415E-3	96.8950E-12	711.160E-3	-38.3504E-3
2.65883E-3	96.0782E-12	712.621E-3	-13.0370E-3	96.7163E-12	704.060E-3	-41.3652E-3
2.65383E-3	96.0861E-12	700.714E-3	-18.8059E-3	96.7039E-12	701.788E-3	-24.5001E-3
2.64882E-3	95.9093E-12	685.102E-3	-7.78789E-3	96.5450E-12	702.859E-3	-2.78781E-3
2.64382E-3	95.3811E-12	691.726E-3	-2.58480E-3	96.4606E-12	715.092E-3	-1.93062E-3
2.63882E-3	95.4700E-12	709.500E-3	-3.98335E-3	96.1964E-12	721.992E-3	-8.38804E-3
2.63382E-3	95.5792E-12	713.467E-3	-4.57997E-3	96.0704E-12	710.910E-3	-15.4295E-3
2.62881E-3	95.8708E-12	709.144E-3	-10.1353E-3	95.6434E-12	696.607E-3	-15.9470E-3
2.62381E-3	95.8908E-12	711.595E-3	-11.3604E-3	95.1242E-12	697.547E-3	-13.8752E-3
2.61881E-3	95.3167E-12	713.421E-3	-14.2882E-3	94.8602E-12	709.585E-3	-29.4135E-3
2.61381E-3	95.0345E-12	713.649E-3	-12.6985E-3	94.0566E-12	711.741E-3	-39.5204E-3
2.60880E-3	94.9520E-12	713.880E-3	-1.61675E-3	93.5617E-12	709.885E-3	-25.6704E-3
2.60380E-3	94.5879E-12	707.786E-3	409.397E-6	93.2880E-12	710.686E-3	-14.1955E-3
2.59880E-3	94.0111E-12	692.569E-3	-8.38153E-3	93.5888E-12	713.166E-3	-13.4805E-3
2.59380E-3	93.7885E-12	683.229E-3	-14.7432E-3	93.1036E-12	717.421E-3	-11.9796E-3
2.58879E-3	93.7012E-12	703.928E-3	-5.93168E-3	92.6797E-12	704.881E-3	-16.3815E-3
2.58379E-3	93.1586E-12	735.643E-3	-664.969E-6	92.5603E-12	692.905E-3	-18.8491E-3
2.57879E-3	92.5741E-12	734.632E-3	-16.5955E-3	93.1308E-12	708.707E-3	-14.7279E-3
2.57379E-3	91.9414E-12	711.168E-3	-24.7799E-3	93.0369E-12	728.226E-3	-19.4706E-3
2.56878E-3	91.4497E-12	706.410E-3	-15.2570E-3	92.9787E-12	731.357E-3	-23.2213E-3
2.56378E-3	91.3800E-12	720.958E-3	-18.4381E-3	92.8251E-12	739.186E-3	-23.9614E-3
2.55878E-3	90.8495E-12	730.649E-3	-31.9993E-3	92.6702E-12	737.343E-3	-24.0838E-3
2.55378E-3	90.6096E-12	723.053E-3	-34.7691E-3	92.7958E-12	712.785E-3	-16.0072E-3
2.54877E-3	90.6588E-12	694.914E-3	-23.0461E-3	92.3766E-12	707.840E-3	-5.40335E-3
2.54377E-3	90.6587E-12	680.309E-3	-11.7376E-3	92.1810E-12	718.099E-3	-2.59515E-3
2.53877E-3	90.6662E-12	691.067E-3	-3.41935E-3	91.9198E-12	719.941E-3	-16.1364E-3
2.53377E-3	90.2175E-12	699.271E-3	1.30095E-3	91.7968E-12	723.695E-3	-37.4517E-3
2.52876E-3	90.5686E-12	698.799E-3	-11.9131E-3	91.2799E-12	721.879E-3	-37.5147E-3
2.52376E-3	90.5897E-12	690.916E-3	-21.9481E-3	90.6703E-12	710.388E-3	-19.1718E-3
2.51876E-3	90.2900E-12	691.062E-3	-15.9825E-3	90.1546E-12	706.435E-3	-8.33220E-3
2.51376E-3	89.5790E-12	705.084E-3	-10.0072E-3	90.0083E-12	720.968E-3	-15.6877E-3
2.50875E-3	89.4218E-12	711.629E-3	-9.93921E-3	89.5498E-12	738.805E-3	-22.4416E-3
2.50375E-3	89.2284E-12	712.423E-3	-8.78330E-3	89.2540E-12	730.596E-3	-15.6201E-3
2.49875E-3	88.7534E-12	717.701E-3	-8.20054E-3	88.9101E-12	719.247E-3	-5.56604E-3
2.49375E-3	88.0481E-12	708.716E-3	-5.91673E-3	88.7856E-12	718.032E-3	-1.68535E-3
2.48874E-3	87.5565E-12	697.532E-3	4.08786E-3	88.5854E-12	709.101E-3	-14.5362E-3
2.48374E-3	87.3020E-12	711.660E-3	15.9993E-3	88.1390E-12	713.233E-3	-30.7131E-3
2.47874E-3	86.7220E-12	713.808E-3	22.9594E-3	87.7686E-12	724.182E-3	-41.5801E-3
2.47374E-3	85.8856E-12	694.213E-3	8.11100E-3	87.7574E-12	726.269E-3	-34.5666E-3
2.46873E-3	85.5403E-12	692.833E-3	-18.9497E-3	87.7797E-12	717.520E-3	-14.9071E-3
2.46373E-3	85.3920E-12	703.459E-3	-26.5413E-3	86.9490E-12	690.257E-3	621.679E-6
2.45873E-3	85.2146E-12	708.432E-3	-19.4407E-3	86.6408E-12	670.930E-3	5.15280E-3
2.45373E-3	85.4058E-12	709.462E-3	-25.8712E-3	86.5215E-12	681.249E-3	-12.8308E-3
2.44872E-3	85.3869E-12	711.416E-3	-32.1187E-3	85.9536E-12	700.844E-3	-32.1831E-3
2.44372E-3	85.6969E-12	716.733E-3	-22.6427E-3	85.6568E-12	710.880E-3	-34.9480E-3
2.43872E-3	85.5228E-12	715.224E-3	-14.2965E-3	85.1700E-12	714.388E-3	-35.3663E-3
2.43372E-3	85.7753E-12	709.413E-3	-2.90514E-3	85.0758E-12	718.401E-3	-30.9329E-3
2.42871E-3	85.6692E-12	717.808E-3	9.63641E-3	84.8428E-12	718.720E-3	-15.7546E-3
2.42371E-3	86.0475E-12	731.452E-3	-549.647E-6	84.7003E-12	720.651E-3	-5.55496E-3
2.41871E-3	85.8260E-12	732.952E-3	-22.4754E-3	84.2551E-12	726.963E-3	-4.84034E-3
2.41371E-3	85.5661E-12	735.240E-3	-28.1548E-3	84.2360E-12	725.294E-3	-11.4753E-3
2.40870E-3	85.3562E-12	740.248E-3	-19.0262E-3	83.8482E-12	726.515E-3	-15.9898E-3
2.40370E-3	85.4879E-12	744.361E-3	-22.5060E-3	83.8642E-12	729.671E-3	-14.0533E-3
2.39870E-3	84.7519E-12	751.077E-3	-37.1070E-3	83.7071E-12	722.854E-3	-8.44613E-3
2.39370E-3	84.4648E-12	750.242E-3	-23.6190E-3	83.5636E-12	736.177E-3	-6.10540E-3
2.38869E-3	84.4826E-12	736.154E-3	1.21046E-3	83.2414E-12	758.336E-3	-21.1723E-3
2.38369E-3	83.7563E-12	724.468E-3	-297.190E-6	82.9270E-12	749.572E-3	-20.8580E-3
2.37869E-3	83.0327E-12	727.631E-3	-22.2209E-3	83.0456E-12	723.894E-3	-5.71774E-3
2.37369E-3	82.8732E-12	737.444E-3	-35.7798E-3	82.6180E-12	717.838E-3	-15.9739E-3
2.36868E-3	82.4502E-12	738.769E-3	-39.2157E-3	82.2390E-12	748.179E-3	-29.2916E-3
2.36368E-3	82.0898E-12	732.945E-3	-46.5083E-3	82.3804E-12	777.760E-3	-22.8438E-3
2.35868E-3	81.7885E-12	737.435E-3	-42.4864E-3	82.3907E-12	757.030E-3	-25.7862E-3
2.35368E-3	81.6433E-12	739.688E-3	-28.6408E-3	81.5438E-12	720.715E-3	-45.9544E-3
2.34867E-3	81.1647E-12	738.911E-3	-18.0670E-3	81.4860E-12	719.254E-3	-50.9279E-3
2.34367E-3	81.0779E-12	747.339E-3	-15.2858E-3	81.7716E-12	729.954E-3	-36.4059E-3
2.33867E-3	80.9896E-12	748.695E-3	-15.6585E-3	81.0643E-12	726.596E-3	-22.3315E-3
2.33367E-3	80.8162E-12	739.832E-3	-20.3359E-3	80.8157E-12	728.145E-3	-17.2875E-3
2.32866E-3	81.0961E-12	730.648E-3	-22.5886E-3	80.8470E-12	742.779E-3	-22.1881E-3
2.32366E-3	81.1028E-12	736.483E-3	-22.6539E-3	80.9983E-12	752.088E-3	-25.4953E-3
2.31866E-3	80.8985E-12	754.740E-3	-32.8739E-3	80.8021E-12	753.807E-3	-15.8804E-3
2.31366E-3	80.7777E-12	755.288E-3	-36.9757E-3	80.7267E-12	760.647E-3	-11.9458E-3
2.30865E-3	80.7825E-12	746.343E-3	-25.1987E-3	80.5869E-12	774.878E-3	-23.6939E-3
2.30365E-3	79.8936E-12	753.380E-3	-10.2966E-3	80.2681E-12	780.940E-3	-12.2296E-3
2.29865E-3	79.5249E-12	758.519E-3	336.766E-6	80.2379E-12	761.462E-3	7.12476E-3
2.29365E-3	79.5378E-12	755.873E-3	7.81712E-3	79.7783E-12	732.781E-3	863.744E-6
2.28864E-3	78.9234E-12	755.197E-3	-2.85093E-3	79.5551E-12	740.268E-3	-3.98425E-3
2.28364E-3	78.0789E-12	754.377E-3	-28.2303E-3	78.9734E-12	756.451E-3	-4.36749E-3
2.27864E-3	77.9906E-12	748.434E-3	-34.2611E-3	78.6745E-12	740.312E-3	-13.0745E-3
2.27364E-3	77.7222E-12	748.578E-3	-24.2338E-3	78.2791E-12	729.390E-3	-24.8080E-3
2.26863E-3	77.2049E-12	759.636E-3	-10.0637E-3	78.1033E-12	743.356E-3	-30.6727E-3
2.26363E-3	76.5119E-12	757.636E-3	-4.25714E-3	77.6842E-12	753.449E-3	-19.6257E-3
2.25863E-3	76.1591E-12	737.862E-3	-11.4641E-3	77.7231E-12	758.347E-3	-4.66003E-3
2.25363E-3	75.8936E-12	727.105E-3	-4.70109E-3	77.1296E-12	758.657E-3	-9.95082E-3
2.24862E-3	75.6570E-12	737.224E-3	10.5229E-3	76.9725E-12	746.559E-3	-26.2843E-3
2.24362E-3	75.4021E-12	745.605E-3	9.43486E-3	76.8006E-12	748.702E-3	-33.2026E-3
2.23862E-3	75.0731E-12	748.088E-3	-13.5547E-3	76.4999E-12	769.700E-3	-29.4344E-3
2.23362E-3	75.1503E-12	751.096E-3	-29.9280E-3	76.4383E-12	777.076E-3	-28.2650E-3
2.22861E-3	75.1248E-12	751.495E-3	-31.5514E-3	76.2392E-12	765.534E-3	-26.7112E-3
2.22361E-3	75.1355E-12	755.054E-3	-37.3850E-3	75.9963E-12	766.893E-3	-21.4902E-3
2.21861E-3	74.9647E-12	764.049E-3	-38.4228E-3	75.7765E-12	779.341E-3	-12.4946E-3
2.21361E-3	74.8337E-12	755.033E-3	-26.7672E-3	75.4378E-12	772.414E-3	3.41589E-3
2.20860E-3	74.6216E-12	739.640E-3	-19.0146E-3	75.2743E-12	761.432E-3	7.61668E-3
2.20360E-3	74.2469E-12	736.549E-3	-10.6932E-3	74.8722E-12	762.528E-3	-1.86361E-3
2.19860E-3	74.5315E-12	722.619E-3	1.83017E-3	74.2588E-12	768.018E-3	-10.6271E-3
2.19360E-3	74.1196E-12	724.937E-3	8.73890E-3	74.1621E-12	775.343E-3	-17.8338E-3
2.18859E-3	73.7037E-12	754.086E-3	12.9078E-3	73.9706E-12	768.849E-3	-26.7108E-3
2.18359E-3	73.3323E-12	776.681E-3	5.64233E-3	73.4062E-12	753.853E-3	-25.5008E-3
2.17859E-3	73.3797E-12	779.886E-3	-11.5739E-3	72.8132E-12	765.784E-3	-13.0108E-3
2.17359E-3	73.1424E-12	760.093E-3	-22.1073E-3	72.6431E-12	778.783E-3	-11.7587E-3
2.16858E-3	72.5124E-12	745.302E-3	-21.8164E-3	72.8031E-12	769.421E-3	-11.6322E-3
2.16358E-3	72.0655E-12	763.512E-3	-16.7357E-3	72.6206E-12	770.730E-3	6.16754E-3
2.15858E-3	71.9193E-12	781.927E-3	-12.1076E-3	72.2680E-12	772.119E-3	1.70427E-3
2.15358E-3	71.5845E-12	782.999E-3	-16.1343E-3	72.0148E-12	770.542E-3	-23.3055E-3
2.14857E-3	70.7340E-12	776.869E-3	-26.2149E-3	72.2538E-12	778.031E-3	-29.7117E-3
2.14357E-3	70.3659E-12	760.812E-3	-18.8042E-3	71.8518E-12	775.683E-3	-23.8176E-3
2.13857E-3	70.2191E-12	753.023E-3	-3.91614E-3	71.3941E-12	761.771E-3	-14.6647E-3
2.13357E-3	70.2495E-12	768.103E-3	-1.84241E-3	71.1053E-12	751.415E-3	-10.8665E-3
2.12856E-3	69.9741E-12	782.925E-3	-1.54831E-3	71.1202E-12	765.461E-3	-19.0253E-3
2.12356E-3	69.3764E-12	772.512E-3	3.77566E-3	70.6252E-12	803.449E-3	-33.5162E-3
2.11856E-3	69.3115E-12	763.682E-3	473.633E-6	70.1927E-12	828.880E-3	-34.4725E-3
2.11356E-3	69.5129E-12	771.779E-3	-10.5617E-3	69.9052E-12	810.385E-3	-19.3785E-3
2.10855E-3	69.1937E-12	770.106E-3	-15.9546E-3	69.5115E-12	781.592E-3	-18.5336E-3
2.10355E-3	69.0729E-12	768.783E-3	-18.3947E-3	68.9674E-12	781.610E-3	-22.2946E-3
2.09855E-3	69.0016E-12	778.642E-3	-18.6283E-3	68.2382E-12	786.415E-3	-1.99532E-3
2.09355E-3	69.0532E-12	785.120E-3	-16.5655E-3	68.3797E-12	786.534E-3	14.4808E-3
2.08854E-3	68.9540E-12	799.307E-3	-21.1293E-3	67.9728E-12	793.176E-3	3.70717E-3
2.08354E-3	68.7038E-12	810.221E-3	-23.2429E-3	67.7040E-12	796.132E-3	-12.4846E-3
2.07854E-3	68.3924E-12	790.773E-3	-18.5773E-3	67.1862E-12	787.939E-3	-19.6689E-3
2.07354E-3	67.9559E-12	766.558E-3	-13.9745E-3	67.3476E-12	783.500E-3	-20.6948E-3
2.06853E-3	67.8161E-12	766.126E-3	-6.90318E-3	67.2346E-12	794.155E-3	-16.1471E-3
2.06353E-3	67.6616E-12	783.668E-3	-11.4233E-3	66.9952E-12	789.875E-3	-2.70242E-3
2.05853E-3	67.1044E-12	802.498E-3	-27.4878E-3	66.9155E-12	771.574E-3	2.09111E-3
2.05353E-3	66.2385E-12	807.749E-3	-30.1370E-3	66.8076E-12	767.017E-3	-9.98043E-3
2.04852E-3	65.8276E-12	794.240E-3	-25.8571E-3	66.5737E-12	764.976E-3	-20.3738E-3
2.04352E-3	65.5715E-12	769.793E-3	-28.7878E-3	66.2604E-12	780.420E-3	-8.19760E-3
2.03852E-3	65.2376E-12	762.932E-3	-26.2744E-3	66.0077E-12	812.964E-3	10.7851E-3
2.03352E-3	64.6684E-12	778.061E-3	-18.7512E-3	66.0034E-12	817.139E-3	6.47410E-3
2.02851E-3	64.4298E-12	780.866E-3	-18.1760E-3	65.6687E-12	804.750E-3	-9.04080E-3
2.02351E-3	64.4718E-12	779.535E-3	-13.9538E-3	65.5012E-12	812.303E-3	-17.4840E-3
2.01851E-3	64.4788E-12	786.237E-3	-554.382E-6	64.9670E-12	828.604E-3	-26.7685E-3
2.01351E-3	64.0619E-12	783.042E-3	-587.202E-6	64.5071E-12	837.903E-3	-29.5391E-3
2.00850E-3	63.7823E-12	787.360E-3	-13.4648E-3	64.0015E-12	831.305E-3	-16.2861E-3
2.00350E-3	64.0280E-12	795.936E-3	-26.5871E-3	63.8234E-12	810.307E-3	-5.58576E-3
1.99850E-3	64.2021E-12	790.720E-3	-40.0082E-3	63.3249E-12	804.283E-3	-12.0464E-3
1.99350E-3	64.0159E-12	787.252E-3	-35.3156E-3	63.1426E-12	813.006E-3	-36.2496E-3
1.98849E-3	63.7386E-12	791.450E-3	-12.3177E-3	62.8384E-12	815.582E-3	-34.1735E-3
1.98349E-3	63.8139E-12	808.672E-3	257.987E-6	62.5158E-12	813.996E-3	-775.617E-6
1.97849E-3	63.9658E-12	828.636E-3	2.82062E-3	62.6887E-12	822.105E-3	1.53422E-3
1.97349E-3	63.6080E-12	829.075E-3	-4.20208E-3	62.4678E-12	838.275E-3	-22.5101E-3
1.96848E-3	63.1366E-12	825.698E-3	-15.5924E-3	62.3466E-12	848.934E-3	-29.7985E-3
1.96348E-3	62.7660E-12	834.655E-3	-4.43068E-3	62.2109E-12	851.823E-3	-24.6841E-3
1.95848E-3	62.3136E-12	839.076E-3	4.24607E-3	62.4861E-12	853.559E-3	-19.8895E-3
1.95348E-3	61.9066E-12	835.399E-3	-6.05396E-3	61.9859E-12	857.082E-3	-10.9458E-3
1.94847E-3	61.3498E-12	833.896E-3	-2.97674E-3	61.7962E-12	853.362E-3	-10.3617E-3
1.94347E-3	60.6254E-12	832.010E-3	2.58194E-3	61.4460E-12	843.467E-3	-25.1171E-3
1.93847E-3	60.1375E-12	829.147E-3	-4.60943E-3	61.3267E-12	841.275E-3	-30.7378E-3
1.93347E-3	59.8417E-12	832.873E-3	-10.4298E-3	60.4743E-12	839.832E-3	-18.7890E-3
1.92846E-3	59.6133E-12	839.379E-3	-10.7812E-3	60.4006E-12	830.085E-3	-1.84762E-3
1.92346E-3	59.4441E-12	835.544E-3	-13.1843E-3	60.0923E-12	836.445E-3	1.74126E-3
1.91846E-3	58.9003E-12	830.817E-3	-18.1070E-3	59.6621E-12	858.296E-3	-11.6072E-3
1.91346E-3	58.5934E-12	833.500E-3	-20.3083E-3	59.3672E-12	873.416E-3	-24.6492E-3
1.90845E-3	58.7116E-12	838.124E-3	-21.6735E-3	59.1812E-12	880.927E-3	-15.8099E-3
1.90345E-3	58.5038E-12	832.679E-3	-21.4249E-3	58.8319E-12	870.210E-3	1.01004E-3
1.89845E-3	58.0093E-12	821.476E-3	-20.3652E-3	58.6923E-12	844.536E-3	-4.60670E-3
1.89345E-3	57.6560E-12	818.925E-3	-20.7801E-3	58.2542E-12	825.533E-3	-11.0437E-3
1.88844E-3	57.8462E-12	832.788E-3	-24.2257E-3	57.5967E-12	827.794E-3	-9.48574E-3
1.88344E-3	57.6687E-12	858.884E-3	-17.4235E-3	57.3014E-12	852.095E-3	-9.32684E-3
1.87844E-3	57.3624E-12	878.087E-3	-5.95323E-3	57.2582E-12	871.033E-3	74.7249E-6
1.87344E-3	56.8627E-12	880.472E-3	-5.97511E-3	56.6937E-12	876.548E-3	-1.61029E-3
1.86843E-3	56.7627E-12	870.912E-3	-9.07744E-3	56.2989E-12	883.074E-3	-22.0294E-3
1.86343E-3	56.4661E-12	854.404E-3	-22.5074E-3	56.1965E-12	877.164E-3	-30.9561E-3
1.85843E-3	55.8851E-12	843.622E-3	-32.5072E-3	55.9424E-12	867.191E-3	-29.8738E-3
1.85343E-3	55.3637E-12	851.038E-3	-20.8224E-3	55.5568E-12	863.202E-3	-30.4202E-3
1.84842E-3	54.9434E-12	861.643E-3	-14.7037E-3	55.1025E-12	857.284E-3	-25.7743E-3
1.84342E-3	54.7424E-12	869.619E-3	-27.7344E-3	54.6164E-12	864.530E-3	-28.3368E-3
1.83842E-3	54.4198E-12	880.812E-3	-31.1456E-3	54.2038E-12	879.981E-3	-33.3584E-3
1.83342E-3	54.0527E-12	879.788E-3	-20.6606E-3	54.0809E-12	882.252E-3	-26.0850E-3
1.82841E-3	53.8204E-12	877.958E-3	-22.2232E-3	53.8019E-12	883.629E-3	-15.7983E-3
1.82341E-3	53.4619E-12	878.967E-3	-24.9333E-3	53.5057E-12	897.834E-3	-14.2926E-3
1.81841E-3	53.0899E-12	867.883E-3	-26.2883E-3	53.2608E-12	905.075E-3	-16.3110E-3
1.81341E-3	52.9014E-12	864.559E-3	-30.2235E-3	53.0163E-12	902.369E-3	-12.2799E-3
1.80840E-3	52.7378E-12	880.016E-3	-21.5045E-3	52.7625E-12	903.621E-3	-8.40943E-3
1.80340E-3	52.3125E-12	894.550E-3	-11.1378E-3	52.6083E-12	904.947E-3	-1.32843E-3
1.79840E-3	52.0634E-12	903.750E-3	-17.7762E-3	52.4925E-12	900.986E-3	4.01981E-3
1.79340E-3	51.8539E-12	906.606E-3	-29.7770E-3	52.0637E-12	896.140E-3	-6.45683E-3
1.78839E-3	51.8241E-12	906.343E-3	-26.0305E-3	51.9123E-12	901.644E-3	-21.8990E-3
1.78339E-3	51.4270E-12	912.803E-3	-18.8606E-3	51.6600E-12	922.718E-3	-20.0160E-3
1.77839E-3	51.0614E-12	912.364E-3	-12.8241E-3	51.3277E-12	941.783E-3	-11.9882E-3
1.77339E-3	51.0267E-12	901.393E-3	-5.47077E-3	50.9461E-12	937.742E-3	-12.1917E-3
1.76838E-3	50.8821E-12	895.632E-3	-22.4445E-3	50.2989E-12	939.000E-3	-13.9479E-3
1.76338E-3	50.3632E-12	899.703E-3	-39.5277E-3	50.1816E-12	955.282E-3	-31.0063E-3
1.75838E-3	49.7470E-12	915.920E-3	-28.5201E-3	49.9734E-12	957.076E-3	-50.8436E-3
1.75338E-3	49.6225E-12	928.245E-3	-23.7012E-3	49.3506E-12	961.601E-3	-32.0963E-3
1.74837E-3	49.4162E-12	932.231E-3	-33.1817E-3	49.0818E-12	973.493E-3	-5.26871E-3
1.74337E-3	48.9445E-12	945.376E-3	-32.1437E-3	49.0557E-12	978.510E-3	-11.4968E-3
1.73837E-3	48.5792E-12	956.619E-3	-19.5133E-3	48.6784E-12	986.227E-3	-25.3762E-3
1.73337E-3	48.4470E-12	957.448E-3	-12.2600E-3	48.5893E-12	988.715E-3	-26.1935E-3
1.72836E-3	48.2288E-12	955.860E-3	-2.71054E-3	48.3756E-12	984.201E-3	-24.1944E-3
1.72336E-3	47.7358E-12	948.097E-3	6.67251E-3	48.2056E-12	984.201E-3	-25.0930E-3
1.71836E-3	47.2028E-12	943.965E-3	1.59972E-3	47.9944E-12	997.565E-3	-22.7166E-3
1.71336E-3	46.8389E-12	955.272E-3	-10.4673E-3	47.7182E-12	1.01166E+0	-24.5536E-3
1.70835E-3	46.6966E-12	964.850E-3	-22.2746E-3	47.4738E-12	1.00374E+0	-24.5727E-3
1.70335E-3	46.2972E-12	962.366E-3	-19.7037E-3	47.1446E-12	998.016E-3	-17.8138E-3
1.69835E-3	45.6897E-12	953.191E-3	-12.7338E-3	46.7863E-12	1.00554E+0	-12.6840E-3
1.69335E-3	45.4289E-12	956.601E-3	-19.1124E-3	46.6125E-12	1.01155E+0	-5.39654E-3
1.68834E-3	45.2550E-12	980.590E-3	-21.3634E-3	46.1822E-12	1.02138E+0	-5.96669E-3
1.68334E-3	44.7523E-12	996.160E-3	-9.13437E-3	45.6675E-12	1.03139E+0	-20.3306E-3
1.67834E-3	44.6600E-12	991.975E-3	414.124E-6	45.1772E-12	1.03453E+0	-19.3006E-3
1.67334E-3	44.3606E-12	985.638E-3	-2.63504E-3	44.6505E-12	1.03327E+0	-2.77783E-3
1.66833E-3	43.8569E-12	986.448E-3	-2.19416E-3	44.3985E-12	1.02576E+0	-4.82834E-3
1.66333E-3	43.6107E-12	994.489E-3	2.25446E-3	43.8162E-12	1.01671E+0	-16.2527E-3
1.65833E-3	43.4486E-12	997.824E-3	-9.89182E-3	43.2546E-12	1.02078E+0	-21.1579E-3
1.65333E-3	43.0212E-12	996.890E-3	-31.6939E-3	42.8979E-12	1.02861E+0	-18.5850E-3
1.64832E-3	42.6424E-12	1.00178E+0	-39.3876E-3	42.8382E-12	1.03566E+0	-10.7036E-3
1.64332E-3	42.2210E-12	1.01289E+0	-34.6974E-3	42.6564E-12	1.05948E+0	-10.9076E-3
1.63832E-3	42.0363E-12	1.03003E+0	-33.3676E-3	42.2007E-12	1.07716E+0	-15.2088E-3
1.63332E-3	41.9591E-12	1.04164E+0	-36.5419E-3	41.8990E-12	1.07101E+0	295.742E-6
1.62831E-3	41.4432E-12	1.05018E+0	-37.2461E-3	41.7195E-12	1.06969E+0	18.4830E-3
1.62331E-3	40.8715E-12	1.06843E+0	-32.1881E-3	41.4997E-12	1.07852E+0	14.8575E-3
1.61831E-3	40.6198E-12	1.07779E+0	-18.1656E-3	40.9645E-12	1.08137E+0	2.73540E-3
1.61331E-3	40.4683E-12	1.07567E+0	1.16259E-3	40.6289E-12	1.07975E+0	-4.66136E-3
1.60830E-3	39.9029E-12	1.07225E+0	10.6546E-3	40.1086E-12	1.07718E+0	-7.77419E-3
1.60330E-3	39.2353E-12	1.06403E+0	213.858E-6	39.9479E-12	1.08365E+0	-10.7300E-3
1.59830E-3	39.0277E-12	1.06078E+0	-15.5913E-3	39.3893E-12	1.09572E+0	-8.42380E-3
1.59330E-3	38.9167E-12	1.07049E+0	-23.3765E-3	38.7862E-12	1.08910E+0	-6.02713E-3
1.58829E-3	38.3539E-12	1.07532E+0	-23.3194E-3	38.3433E-12	1.07522E+0	-10.4195E-3
1.58329E-3	37.9085E-12	1.07912E+0	-18.6687E-3	37.9807E-12	1.08390E+0	-8.76153E-3
1.57829E-3	37.7142E-12	1.09339E+0	-20.7207E-3	37.4365E-12	1.09788E+0	-16.0142E-3
1.57329E-3	37.5114E-12	1.09742E+0	-14.0706E-3	36.9372E-12	1.10156E+0	-29.6221E-3
1.56828E-3	37.1210E-12	1.10017E+0	3.57806E-3	36.5821E-12	1.12322E+0	-20.0698E-3
1.56328E-3	36.6614E-12	1.11601E+0	-795.594E-6	36.2117E-12	1.14380E+0	-18.8499E-3
1.55828E-3	36.3944E-12	1.12031E+0	-14.4271E-3	35.8841E-12	1.13487E+0	-25.6347E-3
1.55328E-3	36.0348E-12	1.11065E+0	-9.61407E-3	35.6533E-12	1.13014E+0	-20.3789E-3
1.54827E-3	35.5367E-12	1.10831E+0	-6.65773E-3	35.2779E-12	1.14429E+0	-23.3582E-3
1.54327E-3	35.0444E-12	1.12018E+0	-8.93489E-3	35.0448E-12	1.15111E+0	-19.0903E-3
1.53827E-3	34.9420E-12	1.13939E+0	-9.62425E-3	34.7517E-12	1.14323E+0	-8.17133E-3
1.53327E-3	34.4233E-12	1.14833E+0	-15.3599E-3	34.6315E-12	1.14035E+0	-21.8391E-3
1.52826E-3	33.9567E-12	1.15485E+0	-7.93386E-3	34.2257E-12	1.14574E+0	-33.6182E-3
1.52326E-3	33.5715E-12	1.17046E+0	2.40948E-3	33.6158E-12	1.16225E+0	-18.8033E-3
1.51826E-3	33.1763E-12	1.17909E+0	-3.03687E-3	33.2232E-12	1.18205E+0	-7.70155E-3
1.51326E-3	32.5700E-12	1.17389E+0	-7.61970E-3	33.0040E-12	1.18358E+0	-13.1481E-3
1.50825E-3	32.1711E-12	1.15996E+0	-9.29460E-3	32.5864E-12	1.18364E+0	-19.5163E-3
1.50325E-3	31.9501E-12	1.14686E+0	-18.7492E-3	32.0455E-12	1.18458E+0	-27.5749E-3
1.49825E-3	31.6541E-12	1.15047E+0	-16.6117E-3	31.5858E-12	1.16934E+0	-31.1386E-3
1.49325E-3	31.1501E-12	1.16193E+0	-887.905E-6	31.2121E-12	1.16633E+0	-24.3459E-3
1.48824E-3	30.7120E-12	1.17632E+0	786.133E-6	30.8852E-12	1.18155E+0	-18.4672E-3
1.48324E-3	30.5034E-12	1.19586E+0	-6.78532E-3	30.3258E-12	1.18211E+0	-17.2033E-3
1.47824E-3	30.2679E-12	1.19247E+0	-4.37791E-3	29.9572E-12	1.17893E+0	-18.2752E-3
1.47324E-3	29.7174E-12	1.17305E+0	-3.43158E-3	29.6408E-12	1.18377E+0	-19.1628E-3
1.46823E-3	29.1489E-12	1.17412E+0	-5.46143E-3	29.4156E-12	1.17687E+0	-13.1815E-3
1.46323E-3	28.8410E-12	1.17813E+0	-4.72510E-3	29.0433E-12	1.17102E+0	-9.08119E-3
1.45823E-3	28.6800E-12	1.17546E+0	-20.3541E-3	28.6576E-12	1.18327E+0	-18.1958E-3
1.45323E-3	28.1851E-12	1.18986E+0	-35.6064E-3	28.2405E-12	1.19001E+0	-25.4304E-3
1.44822E-3	27.6034E-12	1.19789E+0	-20.1238E-3	27.8865E-12	1.18634E+0	-16.9166E-3
1.44322E-3	27.2029E-12	1.17749E+0	-4.83044E-3	27.4734E-12	1.18091E+0	-9.27346E-3
1.43822E-3	27.0178E-12	1.15878E+0	-14.0184E-3	27.0933E-12	1.15630E+0	-18.3128E-3
1.43322E-3	26.6617E-12	1.16550E+0	-22.7397E-3	26.7311E-12	1.13436E+0	-19.6351E-3
1.42821E-3	26.1583E-12	1.17848E+0	-28.5203E-3	26.2050E-12	1.14511E+0	-8.51602E-3
1.42321E-3	25.6899E-12	1.17790E+0	-34.9924E-3	25.6785E-12	1.15298E+0	-10.2685E-3
1.41821E-3	25.2734E-12	1.17622E+0	-23.3434E-3	25.3365E-12	1.14876E+0	-20.7360E-3
1.41321E-3	24.8814E-12	1.17836E+0	-3.34212E-3	24.9235E-12	1.15296E+0	-15.1459E-3
1.40820E-3	24.5456E-12	1.17632E+0	2.41491E-3	24.4549E-12	1.14842E+0	-2.17847E-3
1.40320E-3	24.1943E-12	1.16437E+0	-3.02908E-3	23.9949E-12	1.13880E+0	-2.51914E-3
1.39820E-3	23.6930E-12	1.14947E+0	-11.0244E-3	23.8881E-12	1.14682E+0	-11.6576E-3
1.39320E-3	23.3755E-12	1.14758E+0	-13.1405E-3	23.5715E-12	1.15424E+0	-28.2468E-3
1.38819E-3	23.0210E-12	1.15973E+0	-5.21068E-3	23.1567E-12	1.13811E+0	-37.3337E-3
1.38319E-3	22.8755E-12	1.16629E+0	2.84519E-3	22.8638E-12	1.12276E+0	-29.7716E-3
1.37819E-3	22.4545E-12	1.15491E+0	6.57864E-3	22.5921E-12	1.11566E+0	-29.8614E-3
1.37319E-3	22.0174E-12	1.14180E+0	3.07002E-3	22.1748E-12	1.11075E+0	-31.7333E-3
1.36818E-3	21.6901E-12	1.13088E+0	-10.0131E-3	21.8763E-12	1.11448E+0	-21.1204E-3
1.36318E-3	21.5748E-12	1.12353E+0	-14.4026E-3	21.4293E-12	1.09806E+0	-15.6867E-3
1.35818E-3	21.0019E-12	1.12398E+0	-12.2155E-3	21.0259E-12	1.05610E+0	-15.7438E-3
1.35318E-3	20.4745E-12	1.11185E+0	-16.9641E-3	20.6836E-12	1.03186E+0	-20.1375E-3
1.34817E-3	20.2114E-12	1.09039E+0	-22.8789E-3	20.3608E-12	1.03464E+0	-37.1434E-3
1.34317E-3	20.0064E-12	1.08448E+0	-26.4444E-3	19.7579E-12	1.03344E+0	-42.6464E-3
1.33817E-3	19.5799E-12	1.08450E+0	-34.4400E-3	19.5230E-12	1.02716E+0	-26.1929E-3
1.33317E-3	19.0404E-12	1.06963E+0	-31.2754E-3	19.1896E-12	1.02196E+0	-15.6681E-3
1.32816E-3	18.8548E-12	1.04729E+0	-12.2742E-3	18.7699E-12	1.01086E+0	-18.6168E-3
1.32316E-3	18.4594E-12	1.03172E+0	-2.41337E-3	18.3968E-12	1.00421E+0	-22.7064E-3
1.31816E-3	18.1378E-12	1.02367E+0	407.881E-6	17.9552E-12	993.713E-3	-32.4284E-3
1.31316E-3	17.8357E-12	1.02344E+0	4.67358E-3	17.7286E-12	975.110E-3	-35.1861E-3
1.30815E-3	17.2316E-12	1.02262E+0	1.83979E-3	17.3749E-12	966.444E-3	-22.6103E-3
1.30315E-3	17.0481E-12	1.01514E+0	-9.38806E-3	17.3510E-12	956.262E-3	-24.7305E-3
1.29815E-3	16.8210E-12	1.00518E+0	-14.6653E-3	16.9451E-12	942.428E-3	-35.2170E-3
1.29315E-3	16.4692E-12	992.829E-3	-9.55192E-3	16.6244E-12	935.329E-3	-24.8978E-3
1.28814E-3	16.0206E-12	978.311E-3	-3.26649E-3	16.4532E-12	917.040E-3	-12.7955E-3
1.28314E-3	15.7764E-12	965.277E-3	-5.80213E-3	16.2461E-12	888.381E-3	-19.2484E-3
1.27814E-3	15.5886E-12	952.926E-3	-14.9644E-3	15.7868E-12	868.576E-3	-31.7374E-3
1.27314E-3	15.3012E-12	936.142E-3	-20.1880E-3	15.4080E-12	855.967E-3	-43.6689E-3
1.26813E-3	14.9916E-12	915.560E-3	-14.5062E-3	15.1619E-12	841.488E-3	-34.3045E-3
1.26313E-3	14.5732E-12	904.221E-3	-303.537E-6	14.8115E-12	827.421E-3	1.69934E-3
1.25813E-3	14.2777E-12	895.663E-3	-1.42858E-3	14.5058E-12	801.179E-3	14.1369E-3
1.25313E-3	14.1067E-12	873.156E-3	-17.1028E-3	14.0026E-12	760.277E-3	-916.042E-6
1.24812E-3	13.8995E-12	845.497E-3	-19.2715E-3	13.7354E-12	744.305E-3	-6.13516E-3
1.24312E-3	13.3873E-12	828.548E-3	-14.0199E-3	13.4815E-12	758.440E-3	-11.1040E-3
1.23812E-3	13.0893E-12	815.903E-3	-16.7965E-3	13.3054E-12	749.654E-3	-26.4689E-3
1.23312E-3	12.9979E-12	799.425E-3	-11.6995E-3	13.0689E-12	718.517E-3	-26.0036E-3
1.22811E-3	12.8039E-12	784.494E-3	-7.46565E-3	12.7766E-12	704.231E-3	-12.5320E-3
1.22311E-3	12.4281E-12	772.280E-3	-23.7062E-3	12.4700E-12	683.534E-3	-14.7847E-3
1.21811E-3	12.0308E-12	751.974E-3	-36.7172E-3	12.2667E-12	654.488E-3	-25.6232E-3
1.21311E-3	11.9127E-12	728.937E-3	-33.6183E-3	12.1585E-12	656.235E-3	-26.4692E-3
1.20810E-3	11.7747E-12	714.928E-3	-31.9253E-3	11.9075E-12	655.451E-3	-18.1087E-3
1.20310E-3	11.5403E-12	705.399E-3	-26.5338E-3	11.6682E-12	628.851E-3	-8.74833E-3
1.19810E-3	11.2509E-12	692.168E-3	-17.8834E-3	11.5012E-12	611.309E-3	-9.23511E-3
1.19310E-3	11.0625E-12	669.368E-3	-20.0452E-3	11.3169E-12	595.152E-3	-16.1898E-3
1.18809E-3	10.9359E-12	645.813E-3	-19.0999E-3	11.0590E-12	582.075E-3	-17.3885E-3
1.18309E-3	10.8529E-12	627.005E-3	-12.9437E-3	10.8918E-12	574.573E-3	-17.0678E-3
1.17809E-3	10.5542E-12	608.136E-3	-15.0848E-3	10.6527E-12	549.296E-3	-15.3383E-3
1.17309E-3	10.2111E-12	588.145E-3	-15.2829E-3	10.3234E-12	521.256E-3	-11.6314E-3
1.16808E-3	10.0276E-12	573.257E-3	-9.28904E-3	10.2208E-12	506.901E-3	-13.6781E-3
1.16308E-3	9.96553E-12	572.532E-3	-4.78952E-3	10.0647E-12	492.761E-3	-14.6896E-3
1.15808E-3	9.77821E-12	567.174E-3	-2.32412E-3	9.63885E-12	472.664E-3	-10.6702E-3
1.15308E-3	9.53038E-12	546.277E-3	-2.00334E-3	9.56790E-12	463.608E-3	-14.5152E-3
1.14807E-3	9.28650E-12	519.291E-3	-5.48827E-3	9.44520E-12	455.757E-3	-26.0623E-3
1.14307E-3	9.20131E-12	489.407E-3	-15.3788E-3	9.26937E-12	440.155E-3	-31.1697E-3
1.13807E-3	9.11160E-12	472.073E-3	-23.5919E-3	9.02323E-12	434.564E-3	-32.5071E-3
1.13307E-3	9.04480E-12	472.294E-3	-25.6449E-3	8.98694E-12	416.959E-3	-28.7190E-3
1.12806E-3	8.63766E-12	465.954E-3	-13.3667E-3	8.97430E-12	389.465E-3	-10.2081E-3
1.12306E-3	8.53980E-12	445.965E-3	4.36258E-3	8.77214E-12	379.996E-3	2.46808E-3
1.11806E-3	8.57429E-12	426.030E-3	777.510E-6	8.72940E-12	370.697E-3	-8.80847E-3
1.11306E-3	8.41090E-12	410.913E-3	-10.9202E-3	8.51200E-12	354.184E-3	-23.0932E-3
1.10805E-3	8.12834E-12	395.867E-3	-14.2030E-3	8.36218E-12	344.180E-3	-23.3499E-3
1.10305E-3	8.14000E-12	382.324E-3	-18.0881E-3	8.40463E-12	338.943E-3	-15.0736E-3
1.09805E-3	8.10343E-12	380.728E-3	-16.4984E-3	8.45139E-12	328.503E-3	-8.49120E-3
1.09305E-3	7.90657E-12	372.230E-3	-9.19699E-3	8.02594E-12	315.432E-3	-16.4696E-3
1.08804E-3	7.81261E-12	349.344E-3	-18.1188E-3	7.84700E-12	300.357E-3	-27.1704E-3
1.08304E-3	7.62767E-12	335.960E-3	-28.1883E-3	7.82872E-12	278.213E-3	-21.1889E-3
1.07804E-3	7.56830E-12	327.718E-3	-21.7435E-3	7.74409E-12	256.599E-3	-13.4025E-3
1.07304E-3	7.37954E-12	310.607E-3	-19.4315E-3	7.54196E-12	242.644E-3	-16.4384E-3
1.06803E-3	7.27044E-12	297.376E-3	-28.6977E-3	7.36463E-12	235.971E-3	-15.5713E-3
1.06303E-3	7.28079E-12	285.411E-3	-37.4203E-3	7.38574E-12	234.677E-3	-10.1942E-3
1.05803E-3	7.06594E-12	265.224E-3	-38.8322E-3	7.39328E-12	229.936E-3	-12.4859E-3
1.05303E-3	6.96500E-12	255.190E-3	-30.6737E-3	7.33067E-12	212.641E-3	-12.6374E-3
1.04802E-3	6.92009E-12	251.991E-3	-18.4579E-3	7.14382E-12	200.041E-3	-7.49964E-3
1.04302E-3	7.07087E-12	239.257E-3	-14.9442E-3	7.20332E-12	199.599E-3	-15.2417E-3
1.03802E-3	6.91078E-12	229.758E-3	-18.5397E-3	7.06080E-12	187.320E-3	-29.4274E-3
1.03302E-3	6.74769E-12	227.897E-3	-17.9552E-3	7.09164E-12	169.744E-3	-30.3287E-3
1.02801E-3	6.55932E-12	216.006E-3	-11.3762E-3	6.88652E-12	161.771E-3	-27.4670E-3
1.02301E-3	6.61609E-12	200.299E-3	537.729E-6	6.61762E-12	151.408E-3	-23.2288E-3
1.01801E-3	6.54788E-12	189.237E-3	11.7338E-3	6.47511E-12	143.048E-3	-13.6543E-3
1.01301E-3	6.36844E-12	174.339E-3	10.6415E-3	6.64917E-12	136.800E-3	-20.5396E-3
1.00800E-3	6.30111E-12	165.766E-3	3.99044E-3	6.57775E-12	128.451E-3	-33.1674E-3
1.00300E-3	6.33391E-12	164.454E-3	2.90399E-3	6.16906E-12	133.473E-3	-31.2141E-3
997.999E-6	6.36964E-12	155.618E-3	-866.490E-6	6.21652E-12	138.296E-3	-26.8722E-3
992.997E-6	6.18810E-12	144.891E-3	-10.3912E-3	6.25440E-12	121.610E-3	-16.5086E-3
987.994E-6	6.03373E-12	137.250E-3	-12.4870E-3	6.17552E-12	106.208E-3	-7.40015E-3
982.991E-6	6.09113E-12	130.429E-3	-7.66518E-3	5.99947E-12	106.979E-3	-18.0424E-3
977.989E-6	6.08333E-12	123.603E-3	-7.88399E-3	6.00108E-12	95.9193E-3	-28.2919E-3
972.986E-6	5.95899E-12	120.042E-3	-11.6820E-3	6.04821E-12	78.7889E-3	-25.1599E-3
967.984E-6	5.88093E-12	126.517E-3	-21.4385E-3	6.02616E-12	84.2633E-3	-27.3785E-3
962.981E-6	5.84785E-12	132.885E-3	-27.6175E-3	5.92368E-12	98.0015E-3	-32.1692E-3
957.979E-6	5.78415E-12	123.883E-3	-17.3337E-3	5.83354E-12	103.623E-3	-21.1797E-3
952.976E-6	5.98683E-12	107.338E-3	-5.88622E-3	5.88072E-12	96.5122E-3	-11.3750E-3
947.974E-6	5.83909E-12	110.015E-3	-9.77247E-3	5.92111E-12	84.5136E-3	-15.1963E-3
942.971E-6	5.75471E-12	122.754E-3	-15.1014E-3	5.81226E-12	81.1600E-3	-17.6918E-3
937.969E-6	5.72653E-12	124.096E-3	-13.8635E-3	5.69242E-12	78.5084E-3	-21.6226E-3
932.966E-6	5.73483E-12	116.147E-3	-15.6549E-3	5.65218E-12	73.8940E-3	-19.5034E-3
927.964E-6	5.73406E-12	105.014E-3	-16.6218E-3	5.73610E-12	83.4297E-3	-4.21269E-3
922.961E-6	5.64529E-12	92.0698E-3	-21.3654E-3	5.69538E-12	96.0221E-3	4.09663E-3
917.959E-6	5.47857E-12	84.1486E-3	-28.1796E-3	5.57459E-12	94.0218E-3	7.15887E-3
912.956E-6	5.45239E-12	94.5948E-3	-17.7640E-3	5.49746E-12	85.0964E-3	6.72757E-3
907.954E-6	5.57341E-12	98.8680E-3	-5.98497E-3	5.51755E-12	76.9928E-3	-14.3062E-3
902.951E-6	5.53946E-12	83.8885E-3	-14.2505E-3	5.49520E-12	67.7331E-3	-39.3579E-3
897.949E-6	5.34164E-12	72.9062E-3	-15.7607E-3	5.50022E-12	61.9190E-3	-36.2939E-3
892.946E-6	5.31960E-12	69.0608E-3	-8.10225E-3	5.41267E-12	71.2313E-3	-23.7579E-3
887.944E-6	5.54066E-12	67.7761E-3	-12.5855E-3	5.35096E-12	74.7965E-3	-29.4517E-3
882.941E-6	5.50705E-12	57.2731E-3	-19.0499E-3	5.31247E-12	56.7167E-3	-32.3151E-3
877.939E-6	5.17226E-12	44.8267E-3	-22.1567E-3	5.43758E-12	48.5362E-3	-29.9010E-3
872.936E-6	5.16871E-12	61.5049E-3	-28.4454E-3	5.42727E-12	60.5877E-3	-35.3614E-3
867.934E-6	5.29837E-12	87.2495E-3	-18.8187E-3	5.19282E-12	66.4000E-3	-27.1159E-3
862.931E-6	5.29727E-12	86.0223E-3	24.2050E-6	5.27008E-12	63.7120E-3	-13.7182E-3
857.929E-6	5.16847E-12	69.3673E-3	-13.5611E-3	5.33489E-12	62.7369E-3	-21.8462E-3
852.926E-6	5.12536E-12	61.0406E-3	-38.6376E-3	5.37346E-12	64.6954E-3	-24.9234E-3
847.924E-6	5.16809E-12	56.9443E-3	-44.5860E-3	5.21340E-12	70.1865E-3	-18.6976E-3
842.921E-6	5.15477E-12	57.6672E-3	-40.5311E-3	5.22125E-12	67.7449E-3	-28.1782E-3
837.919E-6	5.14796E-12	62.5970E-3	-34.2089E-3	5.20937E-12	53.8464E-3	-36.9671E-3
832.916E-6	5.05578E-12	57.7233E-3	-26.6449E-3	5.15296E-12	49.5665E-3	-31.2091E-3
827.914E-6	5.05653E-12	52.9980E-3	-22.5147E-3	5.12025E-12	52.9439E-3	-23.6402E-3
822.911E-6	5.03815E-12	62.0820E-3	-23.4230E-3	5.06892E-12	55.2675E-3	-20.4175E-3
817.909E-6	4.96096E-12	67.2558E-3	-15.3786E-3	5.04461E-12	69.9835E-3	-19.1522E-3
812.906E-6	4.94146E-12	59.5357E-3	-10.5581E-3	5.15062E-12	81.5075E-3	-11.3436E-3
807.904E-6	4.87486E-12	60.3435E-3	-14.5748E-3	5.02232E-12	66.9858E-3	-607.396E-6
802.901E-6	4.81236E-12	61.2736E-3	-7.77873E-3	4.95043E-12	60.4395E-3	-11.0763E-3
797.899E-6	4.86072E-12	55.2156E-3	-1.20858E-3	4.91258E-12	69.7982E-3	-28.0710E-3
792.896E-6	4.81674E-12	62.1664E-3	-2.46786E-3	4.93772E-12	73.1083E-3	-13.2370E-3
787.894E-6	4.77451E-12	68.8572E-3	1.27265E-3	4.95617E-12	88.7240E-3	2.46590E-3
782.891E-6	4.75148E-12	66.7864E-3	-6.72409E-3	4.98378E-12	100.224E-3	-14.0384E-3
777.889E-6	4.88213E-12	67.6735E-3	-15.8801E-3	5.01397E-12	84.3267E-3	-22.4429E-3
772.886E-6	5.00589E-12	65.2482E-3	-7.61472E-3	4.91581E-12	82.6422E-3	-10.7276E-3
767.884E-6	4.78241E-12	56.1453E-3	-8.30538E-3	5.00811E-12	96.0646E-3	-5.21811E-3
762.881E-6	4.61782E-12	58.3235E-3	-11.7380E-3	5.07644E-12	96.6033E-3	-9.67025E-3
757.879E-6	4.64724E-12	77.4460E-3	-12.6530E-3	4.87193E-12	100.526E-3	-14.0890E-3
752.876E-6	4.84374E-12	91.0147E-3	-29.0764E-3	4.72956E-12	99.6542E-3	-13.0414E-3
747.874E-6	4.73118E-12	88.4608E-3	-40.9236E-3	4.89131E-12	89.3216E-3	-9.55947E-3
742.871E-6	4.59382E-12	74.8113E-3	-26.8565E-3	4.81849E-12	93.2506E-3	-9.49254E-3
737.869E-6	4.49921E-12	66.3273E-3	-14.4140E-3	4.69310E-12	98.0034E-3	-20.6717E-3
732.866E-6	4.65876E-12	83.3421E-3	-18.7409E-3	4.57280E-12	87.2756E-3	-24.3575E-3
727.864E-6	4.56420E-12	97.9378E-3	-23.7439E-3	4.66236E-12	81.7824E-3	-18.3883E-3
722.861E-6	4.37495E-12	82.2158E-3	-25.9253E-3	4.74301E-12	82.4021E-3	-13.3126E-3
717.859E-6	4.26425E-12	70.8700E-3	-25.8830E-3	4.48579E-12	79.3791E-3	-346.052E-6
712.856E-6	4.34406E-12	75.8675E-3	-20.3457E-3	4.36100E-12	84.2954E-3	2.17175E-3
707.854E-6	4.50229E-12	78.4362E-3	-20.5936E-3	4.49401E-12	104.888E-3	-6.97524E-3
702.851E-6	4.37478E-12	87.0152E-3	-32.7197E-3	4.74460E-12	114.524E-3	-8.76382E-3
697.849E-6	4.26761E-12	90.9781E-3	-35.5596E-3	4.50358E-12	114.188E-3	-5.27904E-3
692.846E-6	4.32345E-12	77.4425E-3	-24.5569E-3	4.30789E-12	122.412E-3	-9.34861E-3
687.844E-6	4.31075E-12	81.3082E-3	-16.5289E-3	4.41247E-12	125.965E-3	-22.5961E-3
682.841E-6	4.28596E-12	106.792E-3	-16.7628E-3	4.50623E-12	130.576E-3	-19.7899E-3
677.839E-6	4.24628E-12	116.190E-3	-23.1760E-3	4.30971E-12	134.926E-3	-1.93153E-3
672.836E-6	4.17039E-12	112.915E-3	-20.2987E-3	4.18554E-12	130.754E-3	3.15952E-3
667.834E-6	4.00554E-12	112.516E-3	-5.20769E-3	4.20143E-12	126.175E-3	-772.705E-6
662.831E-6	4.11017E-12	110.524E-3	-3.97313E-3	4.18692E-12	123.126E-3	-7.24749E-3
657.829E-6	4.11728E-12	112.478E-3	-18.5803E-3	4.25104E-12	119.478E-3	-14.7582E-3
652.826E-6	3.95369E-12	117.234E-3	-24.8421E-3	4.12973E-12	114.870E-3	-8.86410E-3
647.824E-6	3.80741E-12	118.027E-3	-19.1723E-3	3.99523E-12	111.382E-3	-3.03263E-3
642.821E-6	3.84954E-12	123.831E-3	-20.9772E-3	4.09125E-12	114.349E-3	-11.9907E-3
637.819E-6	4.03023E-12	135.474E-3	-18.4832E-3	3.99589E-12	126.112E-3	-14.7690E-3
632.816E-6	3.83473E-12	142.536E-3	-7.04075E-3	3.92999E-12	141.407E-3	-12.9178E-3
627.814E-6	3.61355E-12	135.401E-3	-15.8528E-3	3.86653E-12	144.146E-3	-19.7116E-3
622.811E-6	3.60062E-12	117.689E-3	-26.7645E-3	3.86698E-12	146.298E-3	-23.3245E-3
617.809E-6	3.82130E-12	108.012E-3	-18.2437E-3	3.64950E-12	155.178E-3	-22.3822E-3
612.806E-6	3.70216E-12	107.806E-3	-12.5486E-3	3.71108E-12	145.243E-3	-22.3842E-3
607.804E-6	3.51728E-12	112.942E-3	-9.12032E-3	3.74682E-12	134.341E-3	-16.2416E-3
602.801E-6	3.44099E-12	116.210E-3	-3.11506E-3	3.63930E-12	147.768E-3	-6.66936E-3
597.799E-6	3.51531E-12	113.414E-3	-12.9751E-3	3.55177E-12	161.993E-3	-9.62159E-3
592.796E-6	3.54694E-12	120.183E-3	-23.5746E-3	3.50001E-12	159.471E-3	-10.3491E-3
587.794E-6	3.37971E-12	127.176E-3	-14.5409E-3	3.55931E-12	160.103E-3	-88.9982E-6
582.791E-6	3.30889E-12	137.404E-3	-4.03837E-3	3.40221E-12	163.042E-3	-1.17194E-3
577.789E-6	3.25584E-12	159.056E-3	-10.5155E-3	3.30487E-12	151.793E-3	2.94101E-3
572.786E-6	3.29594E-12	159.626E-3	-18.8887E-3	3.27770E-12	145.364E-3	2.41169E-3
567.784E-6	3.25151E-12	143.555E-3	-17.8052E-3	3.36625E-12	140.523E-3	-22.0952E-3
562.781E-6	3.15286E-12	143.403E-3	-16.7116E-3	3.17513E-12	132.484E-3	-28.9950E-3
557.779E-6	3.08373E-12	146.602E-3	-12.6532E-3	3.14616E-12	144.353E-3	-4.45622E-3
552.776E-6	2.95555E-12	147.221E-3	-13.8036E-3	3.08951E-12	150.708E-3	8.75895E-3
547.774E-6	3.02369E-12	159.555E-3	-19.7444E-3	3.11868E-12	144.702E-3	-8.42940E-3
542.771E-6	2.97562E-12	156.360E-3	-15.5898E-3	2.94785E-12	155.265E-3	-19.8100E-3
537.769E-6	2.88751E-12	139.403E-3	-16.7463E-3	2.90313E-12	161.027E-3	-9.43837E-3
532.766E-6	2.72612E-12	147.999E-3	-25.6248E-3	2.99049E-12	153.055E-3	1.96975E-3
527.764E-6	2.79820E-12	159.999E-3	-21.0179E-3	3.02125E-12	157.287E-3	3.15390E-3
522.761E-6	2.81975E-12	149.504E-3	-21.9589E-3	2.87115E-12	168.260E-3	-10.9289E-3
517.759E-6	2.69303E-12	146.290E-3	-31.9171E-3	2.76719E-12	157.877E-3	-21.7472E-3
512.756E-6	2.51938E-12	145.876E-3	-17.2994E-3	2.80510E-12	142.871E-3	-22.6573E-3
507.754E-6	2.58914E-12	138.946E-3	-4.88493E-3	2.69845E-12	148.330E-3	-38.5774E-3
502.751E-6	2.66827E-12	157.052E-3	-21.7111E-3	2.62073E-12	154.098E-3	-47.7478E-3
497.749E-6	2.59645E-12	174.324E-3	-29.2899E-3	2.63008E-12	159.908E-3	-28.4034E-3
492.746E-6	2.38948E-12	156.550E-3	-19.0587E-3	2.54862E-12	169.374E-3	-19.1450E-3
487.744E-6	2.36427E-12	139.002E-3	-9.87328E-3	2.41834E-12	161.552E-3	-28.1850E-3
482.741E-6	2.39241E-12	141.617E-3	-8.67287E-3	2.35188E-12	152.377E-3	-29.5637E-3
477.739E-6	2.38564E-12	154.788E-3	-22.6683E-3	2.39676E-12	152.910E-3	-23.9914E-3
472.736E-6	2.13382E-12	170.193E-3	-37.2414E-3	2.36651E-12	138.908E-3	-17.3635E-3
467.734E-6	2.06523E-12	166.853E-3	-33.3094E-3	2.22876E-12	128.628E-3	-14.1686E-3
462.731E-6	2.23266E-12	143.767E-3	-22.4806E-3	2.10919E-12	134.685E-3	-19.8036E-3
457.729E-6	2.18716E-12	133.211E-3	-16.6154E-3	2.17228E-12	133.799E-3	-22.4705E-3
452.726E-6	1.97428E-12	142.052E-3	-11.6521E-3	2.16032E-12	148.114E-3	-17.4754E-3
447.724E-6	1.91551E-12	153.579E-3	-18.6978E-3	2.09920E-12	174.643E-3	-16.9037E-3
442.721E-6	2.01639E-12	159.092E-3	-31.1885E-3	1.95870E-12	168.153E-3	-17.9823E-3
437.719E-6	1.98806E-12	149.710E-3	-27.3456E-3	2.01956E-12	147.803E-3	-10.2385E-3
432.716E-6	1.95970E-12	136.513E-3	-18.0355E-3	2.00293E-12	138.971E-3	-2.12625E-3
427.714E-6	1.81427E-12	138.524E-3	-15.9880E-3	1.83991E-12	122.974E-3	-2.44337E-3
422.711E-6	1.76438E-12	144.031E-3	-15.3867E-3	1.70793E-12	106.221E-3	342.494E-6
417.709E-6	1.67831E-12	136.573E-3	-17.0026E-3	1.73714E-12	113.822E-3	-2.37065E-3
412.706E-6	1.80338E-12	136.383E-3	-20.7654E-3	1.67675E-12	127.074E-3	-11.2190E-3
407.704E-6	1.70003E-12	146.470E-3	-19.1909E-3	1.56309E-12	126.459E-3	-6.27911E-3
402.701E-6	1.53528E-12	138.781E-3	-17.9361E-3	1.50535E-12	123.107E-3	-11.9308E-3
397.699E-6	1.44384E-12	129.796E-3	-27.9709E-3	1.53823E-12	113.690E-3	-30.3227E-3
392.696E-6	1.49444E-12	129.965E-3	-34.3625E-3	1.49328E-12	104.632E-3	-27.8545E-3
387.694E-6	1.59438E-12	124.324E-3	-33.1733E-3	1.33886E-12	116.998E-3	-17.8887E-3
382.691E-6	1.34960E-12	120.357E-3	-39.3410E-3	1.35324E-12	129.886E-3	-16.7096E-3
377.689E-6	1.20002E-12	117.821E-3	-39.7182E-3	1.40024E-12	122.734E-3	-16.0770E-3
372.686E-6	1.29764E-12	120.328E-3	-29.7308E-3	1.28816E-12	117.131E-3	-9.18395E-3
367.684E-6	1.35285E-12	138.716E-3	-26.7108E-3	1.14183E-12	107.932E-3	-6.25484E-3
362.681E-6	1.18300E-12	148.457E-3	-20.5032E-3	1.10098E-12	92.0499E-3	-8.75910E-3
357.679E-6	1.03100E-12	136.542E-3	-9.66460E-3	1.16407E-12	96.1680E-3	-10.8445E-3
352.676E-6	1.05072E-12	125.791E-3	-12.3914E-3	1.15905E-12	106.681E-3	-13.8228E-3
347.674E-6	1.14164E-12	120.843E-3	-14.8765E-3	974.041E-15	99.4874E-3	-3.16414E-3
342.671E-6	1.13151E-12	113.215E-3	-14.1940E-3	979.289E-15	91.1876E-3	11.2637E-3
337.669E-6	889.019E-15	107.657E-3	-29.8914E-3	1.06540E-12	91.4497E-3	10.0594E-3
332.666E-6	926.834E-15	105.476E-3	-38.7625E-3	942.555E-15	89.6433E-3	7.23233E-3
327.664E-6	1.00286E-12	98.8003E-3	-22.9809E-3	876.088E-15	97.8800E-3	2.31010E-3
322.661E-6	921.847E-15	94.3708E-3	-15.0855E-3	875.966E-15	105.490E-3	-10.6962E-3
317.659E-6	814.625E-15	104.606E-3	-18.3875E-3	883.342E-15	86.9839E-3	-16.0764E-3
312.656E-6	764.254E-15	111.997E-3	-19.2652E-3	790.011E-15	76.9954E-3	-15.4885E-3
307.654E-6	762.876E-15	102.813E-3	-28.9024E-3	762.362E-15	83.5713E-3	-15.0221E-3
302.651E-6	733.885E-15	97.4606E-3	-41.5691E-3	752.221E-15	79.8612E-3	-12.2221E-3
297.649E-6	712.383E-15	97.0659E-3	-34.1519E-3	716.368E-15	85.9358E-3	-22.5746E-3
292.646E-6	691.430E-15	95.2165E-3	-28.2928E-3	685.510E-15	92.2609E-3	-39.2060E-3
287.644E-6	688.719E-15	99.5886E-3	-36.4581E-3	669.772E-15	75.2819E-3	-35.1735E-3
282.641E-6	577.722E-15	95.9125E-3	-28.6257E-3	674.916E-15	69.3967E-3	-31.2686E-3
277.639E-6	612.730E-15	82.3491E-3	-25.6966E-3	654.914E-15	86.6065E-3	-42.9047E-3
272.636E-6	584.296E-15	85.1767E-3	-27.6516E-3	521.116E-15	84.9591E-3	-41.2351E-3
267.634E-6	563.849E-15	97.7442E-3	-13.5983E-3	520.898E-15	67.5429E-3	-26.1360E-3
262.631E-6	415.796E-15	93.4689E-3	-8.81228E-3	593.268E-15	66.1843E-3	-16.1362E-3
257.629E-6	433.417E-15	83.3853E-3	-12.0023E-3	547.614E-15	68.2888E-3	-11.0697E-3
252.626E-6	556.612E-15	78.2021E-3	-15.6812E-3	384.092E-15	64.1856E-3	-9.88479E-3
247.624E-6	463.377E-15	76.6317E-3	-24.0776E-3	414.679E-15	59.9412E-3	-15.7755E-3
242.621E-6	286.052E-15	86.6383E-3	-25.8847E-3	510.897E-15	50.1376E-3	-19.8008E-3
237.619E-6	368.589E-15	83.7227E-3	-20.6062E-3	453.629E-15	48.7483E-3	-20.9459E-3
232.616E-6	494.426E-15	69.1897E-3	-16.3270E-3	329.675E-15	56.5968E-3	-31.9036E-3
227.614E-6	341.272E-15	76.6858E-3	-14.0460E-3	274.639E-15	52.7985E-3	-27.1147E-3
222.611E-6	272.032E-15	87.5964E-3	-4.61334E-3	384.205E-15	56.0995E-3	-3.87745E-3
217.609E-6	225.532E-15	76.8177E-3	6.47018E-3	370.647E-15	65.1449E-3	-5.54839E-3
212.606E-6	328.463E-15	62.8699E-3	1.86141E-3	217.431E-15	55.6883E-3	-15.5913E-3
207.604E-6	346.172E-15	54.1184E-3	3.39160E-3	233.213E-15	45.3831E-3	-15.8299E-3
202.601E-6	186.591E-15	40.6480E-3	8.25358E-3	281.597E-15	46.4040E-3	-22.4490E-3
197.599E-6	204.370E-15	35.1853E-3	-2.26121E-3	269.930E-15	41.2804E-3	-22.9784E-3
192.596E-6	238.419E-15	45.7833E-3	-8.61606E-3	183.234E-15	41.5650E-3	-14.9139E-3
187.594E-6	216.620E-15	54.0602E-3	-10.3503E-3	147.476E-15	51.9264E-3	-17.6770E-3
182.591E-6	163.127E-15	53.3309E-3	-10.5771E-3	234.251E-15	40.8969E-3	-30.8966E-3
177.589E-6	190.628E-15	46.1845E-3	-2.96915E-3	221.041E-15	24.5625E-3	-33.1114E-3
172.586E-6	170.696E-15	34.3712E-3	-3.72110E-3	130.927E-15	32.9770E-3	-21.8585E-3
167.584E-6	134.729E-15	33.9359E-3	-12.5368E-3	139.550E-15	38.3825E-3	-11.8366E-3
162.581E-6	154.984E-15	35.0914E-3	-9.54270E-3	161.924E-15	27.4066E-3	-7.44239E-3
157.579E-6	156.928E-15	14.1697E-3	-10.1764E-3	92.2656E-15	24.9817E-3	-20.9333E-3
152.576E-6	140.353E-15	-2.85870E-3	-25.3817E-3	99.5288E-15	24.8340E-3	-38.7782E-3
147.574E-6	45.9661E-15	15.5774E-3	-27.0269E-3	91.2803E-15	22.9800E-3	-24.7993E-3
142.571E-6	79.8580E-15	39.9301E-3	-17.1285E-3	105.266E-15	22.9296E-3	-8.26801E-3
137.569E-6	107.088E-15	39.5651E-3	-11.3302E-3	28.3531E-15	22.3930E-3	-12.2440E-3
132.566E-6	61.2336E-15	29.1898E-3	-1.54177E-3	25.2665E-15	28.1567E-3	-7.24288E-3
127.564E-6	-23.9453E-15	20.2060E-3	1.92082E-3	118.476E-15	28.8732E-3	-1.49479E-3
122.561E-6	8.15917E-15	20.2676E-3	-10.9407E-3	33.7591E-15	18.8959E-3	-7.37261E-3
117.559E-6	109.137E-15	26.8198E-3	-17.7367E-3	-38.9338E-15	9.99459E-3	-4.90548E-3
112.556E-6	45.4952E-15	26.3759E-3	-10.1399E-3	-12.5056E-15	10.7004E-3	-9.98837E-3
107.554E-6	-108.505E-15	33.0761E-3	-4.28611E-3	54.2320E-15	12.2965E-3	-34.3610E-3
102.551E-6	-30.9731E-15	42.8466E-3	-13.8646E-3	28.4228E-15	4.31911E-3	-40.2017E-3
97.5488E-6	29.1378E-15	33.6301E-3	-29.0285E-3	-109.168E-15	7.01875E-3	-25.9299E-3
92.5463E-6	61.3208E-15	26.5692E-3	-31.6609E-3	-87.5527E-15	20.6750E-3	-22.3638E-3
87.5438E-6	-92.2001E-15	42.9152E-3	-21.8746E-3	32.6517E-15	24.2574E-3	-23.6695E-3
82.5413E-6	-107.084E-15	43.4544E-3	-17.8948E-3	-6.40208E-15	28.8991E-3	-21.4609E-3
77.5388E-6	13.8703E-15	19.1041E-3	-22.8528E-3	-134.733E-15	29.6390E-3	-23.3511E-3
72.5363E-6	23.1651E-15	14.9782E-3	-18.2666E-3	-80.0018E-15	17.5186E-3	-21.8528E-3
67.5338E-6	-89.0960E-15	15.6876E-3	-15.6230E-3	-60.9501E-15	19.1226E-3	-16.0932E-3
62.5313E-6	-99.3150E-15	2.34892E-3	-30.0085E-3	-71.9626E-15	30.3697E-3	-20.8727E-3
57.5288E-6	-100.797E-15	1.09396E-3	-33.3424E-3	-129.745E-15	20.6371E-3	-20.8259E-3
52.5263E-6	-105.218E-15	3.98179E-3	-25.1902E-3	-130.129E-15	8.37031E-3	-6.35436E-3
47.5238E-6	-106.229E-15	6.74408E-3	-27.4508E-3	-118.715E-15	9.38192E-3	-5.90491E-3
42.5213E-6	-120.887E-15	20.8277E-3	-25.8545E-3	-138.299E-15	13.7389E-3	-18.9816E-3
37.5188E-6	-155.398E-15	24.7206E-3	-19.2517E-3	-167.666E-15	22.2282E-3	-20.6679E-3
32.5163E-6	-154.351E-15	15.2535E-3	-24.9094E-3	-83.0012E-15	21.3960E-3	-16.5485E-3
27.5138E-6	-139.145E-15	16.7800E-3	-29.8436E-3	-125.002E-15	15.0402E-3	-23.8957E-3
22.5113E-6	-107.093E-15	18.0994E-3	-24.5683E-3	-135.029E-15	19.7061E-3	-32.6539E-3
17.5088E-6	-147.515E-15	2.51571E-3	-18.7105E-3	-174.118E-15	25.0894E-3	-31.1322E-3
12.5063E-6	-216.564E-15	-460.406E-6	-2.27958E-3	-113.606E-15	24.7640E-3	-18.7447E-3
7.50375E-6	-171.746E-15	11.4598E-3	9.71316E-3	-167.003E-15	21.5220E-3	-6.30504E-3
2.50125E-6	-109.961E-15	9.85063E-3	-6.47622E-3	-238.196E-15	19.1815E-3	-16.8208E-3
-2.50125E-6	-159.984E-15	3.12038E-3	-23.2368E-3	-249.017E-15	23.4394E-3	-24.1228E-3
-7.50375E-6	-287.687E-15	-1.08193E-3	-20.4248E-3	-113.310E-15	22.9372E-3	-7.14032E-3
-12.5063E-6	-277.991E-15	-1.88369E-3	-18.4296E-3	-174.667E-15	10.7194E-3	-4.87725E-3
-17.5088E-6	-126.938E-15	7.86445E-3	-22.7701E-3	-284.949E-15	4.15862E-6	-16.3175E-3
-22.5113E-6	-184.756E-15	16.2231E-3	-24.8087E-3	-219.354E-15	1.35951E-3	-13.3186E-3
-27.5138E-6	-299.257E-15	15.7498E-3	-26.9137E-3	-161.649E-15	13.2073E-3	-15.0069E-3
-32.5163E-6	-295.752E-15	18.1975E-3	-20.1380E-3	-193.449E-15	27.9268E-3	-24.7837E-3
-37.5188E-6	-196.160E-15	15.4616E-3	-4.88981E-3	-325.363E-15	34.7855E-3	-18.3927E-3
-42.5213E-6	-169.601E-15	4.40311E-3	-5.98617E-3	-307.401E-15	32.8742E-3	-20.6302E-3
-47.5238E-6	-291.419E-15	2.84175E-3	-15.7571E-3	-199.884E-15	29.7350E-3	-35.5178E-3
-52.5263E-6	-339.802E-15	2.93027E-3	-12.3557E-3	-210.347E-15	33.1315E-3	-25.1394E-3
-57.5288E-6	-279.177E-15	-8.75607E-3	-6.15281E-3	-299.981E-15	40.0360E-3	-14.6499E-3
-62.5313E-6	-229.643E-15	-6.32749E-3	-10.3353E-3	-264.145E-15	29.3873E-3	-23.4488E-3
-67.5338E-6	-319.425E-15	13.9158E-3	-24.5913E-3	-277.738E-15	14.5668E-3	-25.1215E-3
-72.5363E-6	-363.998E-15	24.0434E-3	-44.5083E-3	-267.868E-15	23.2376E-3	-24.6724E-3
-77.5388E-6	-349.681E-15	26.1716E-3	-57.0875E-3	-336.541E-15	28.8358E-3	-26.7235E-3
-82.5413E-6	-317.115E-15	24.4459E-3	-39.6775E-3	-340.596E-15	16.1964E-3	-24.8626E-3
-87.5438E-6	-349.533E-15	21.7077E-3	-12.3870E-3	-351.948E-15	15.1136E-3	-22.0870E-3
-92.5463E-6	-344.171E-15	35.2695E-3	-12.9113E-3	-352.698E-15	30.0211E-3	-25.6880E-3
-97.5488E-6	-389.886E-15	50.3117E-3	-14.0289E-3	-406.557E-15	39.5659E-3	-22.0398E-3
-102.551E-6	-442.655E-15	33.3225E-3	-8.20830E-3	-395.981E-15	46.0683E-3	-10.3576E-3
-107.554E-6	-443.667E-15	11.0548E-3	-18.3658E-3	-372.142E-15	42.9710E-3	-4.41464E-3
-112.556E-6	-345.156E-15	18.2203E-3	-22.1457E-3	-463.494E-15	28.9255E-3	-110.814E-6
-117.559E-6	-408.589E-15	32.6808E-3	-13.8310E-3	-477.654E-15	35.1684E-3	-3.98720E-3
-122.561E-6	-521.486E-15	39.6780E-3	-19.2630E-3	-379.606E-15	51.7206E-3	-9.67724E-3
-127.564E-6	-493.175E-15	44.1770E-3	-27.6400E-3	-440.641E-15	54.6664E-3	-7.30425E-3
-132.566E-6	-382.536E-15	36.8501E-3	-16.9623E-3	-548.525E-15	54.0614E-3	-6.61652E-3
-137.569E-6	-485.851E-15	30.2787E-3	-12.2934E-3	-535.978E-15	48.0589E-3	-17.6767E-3
-142.571E-6	-601.425E-15	38.7731E-3	-17.7724E-3	-445.044E-15	41.7081E-3	-26.4335E-3
-147.574E-6	-607.747E-15	48.0250E-3	-18.0259E-3	-508.713E-15	49.7904E-3	-19.6626E-3
-152.576E-6	-448.532E-15	53.9799E-3	-26.6726E-3	-646.330E-15	58.8192E-3	-14.4855E-3
-157.579E-6	-487.926E-15	64.7807E-3	-27.0508E-3	-604.215E-15	60.0985E-3	-11.2737E-3
-162.581E-6	-661.344E-15	64.7208E-3	-4.38901E-3	-508.625E-15	64.3098E-3	-6.33980E-3
-167.584E-6	-679.044E-15	59.6742E-3	-1.45701E-3	-558.578E-15	65.5621E-3	-11.6463E-3
-172.586E-6	-563.854E-15	65.4056E-3	-21.4837E-3	-749.156E-15	63.1264E-3	-16.1411E-3
-177.589E-6	-592.558E-15	63.3073E-3	-29.6618E-3	-681.739E-15	78.8905E-3	-10.7369E-3
-182.591E-6	-756.446E-15	54.2878E-3	-34.5929E-3	-625.691E-15	89.7879E-3	-3.40526E-3
-187.594E-6	-796.851E-15	62.7980E-3	-33.7675E-3	-720.949E-15	75.4256E-3	2.09704E-3
-192.596E-6	-696.570E-15	79.9751E-3	-22.4344E-3	-813.043E-15	77.0044E-3	-3.60643E-3
-197.599E-6	-725.091E-15	83.2979E-3	-21.8878E-3	-808.369E-15	100.080E-3	-20.4333E-3
-202.601E-6	-790.861E-15	78.7359E-3	-29.4807E-3	-767.083E-15	108.813E-3	-24.3348E-3
-207.604E-6	-836.358E-15	66.1300E-3	-31.5276E-3	-828.232E-15	105.306E-3	-17.6980E-3
-212.606E-6	-834.170E-15	56.7679E-3	-27.5548E-3	-890.854E-15	101.213E-3	-26.9406E-3
-217.609E-6	-897.533E-15	71.8126E-3	-19.7847E-3	-905.110E-15	90.9597E-3	-37.8372E-3
-222.611E-6	-929.053E-15	87.8479E-3	-12.8047E-3	-914.919E-15	89.5019E-3	-29.0247E-3
-227.614E-6	-927.405E-15	87.3702E-3	-19.2012E-3	-976.050E-15	102.141E-3	-28.5315E-3
-232.616E-6	-1.02785E-12	89.9428E-3	-27.4396E-3	-1.02496E-12	111.853E-3	-31.1473E-3
-237.619E-6	-1.09836E-12	100.125E-3	-18.9563E-3	-1.06588E-12	118.337E-3	-9.35329E-3
-242.621E-6	-1.08086E-12	101.880E-3	-14.6856E-3	-991.989E-15	122.766E-3	1.99164E-3
-247.624E-6	-1.01380E-12	97.1881E-3	-29.5975E-3	-1.13176E-12	123.860E-3	-1.78609E-3
-252.626E-6	-1.13105E-12	97.8234E-3	-34.3334E-3	-1.15550E-12	132.876E-3	2.31328E-3
-257.629E-6	-1.29455E-12	104.693E-3	-30.2575E-3	-1.10860E-12	140.727E-3	-7.85362E-3
-262.631E-6	-1.31189E-12	108.083E-3	-33.9666E-3	-1.18204E-12	136.921E-3	-28.8423E-3
-267.634E-6	-1.18495E-12	104.877E-3	-30.5266E-3	-1.33617E-12	145.150E-3	-34.1933E-3
-272.636E-6	-1.30637E-12	110.570E-3	-22.9094E-3	-1.31385E-12	161.243E-3	-30.7748E-3
-277.639E-6	-1.49299E-12	130.229E-3	-22.0756E-3	-1.31676E-12	162.647E-3	-26.4977E-3
-282.641E-6	-1.51156E-12	145.605E-3	-18.5988E-3	-1.37433E-12	162.364E-3	-17.0654E-3
-287.644E-6	-1.43925E-12	144.005E-3	-10.2829E-3	-1.52674E-12	163.906E-3	-13.0394E-3
-292.646E-6	-1.45601E-12	152.449E-3	-7.48620E-3	-1.59017E-12	158.972E-3	-17.0728E-3
-297.649E-6	-1.67361E-12	176.086E-3	-1.29808E-3	-1.48754E-12	167.016E-3	-13.2981E-3
-302.651E-6	-1.75102E-12	182.937E-3	5.26290E-3	-1.55877E-12	186.593E-3	-9.12161E-3
-307.654E-6	-1.63293E-12	179.236E-3	-4.42275E-3	-1.75766E-12	185.388E-3	-10.9818E-3
-312.656E-6	-1.75193E-12	179.031E-3	-9.44009E-3	-1.82726E-12	178.571E-3	-2.86787E-3
-317.659E-6	-1.84406E-12	179.345E-3	-4.54120E-3	-1.78583E-12	186.283E-3	-2.53505E-3
-322.661E-6	-1.89851E-12	183.704E-3	-12.3718E-3	-1.88976E-12	188.256E-3	-22.9844E-3
-327.664E-6	-1.89910E-12	184.057E-3	-21.7569E-3	-1.95341E-12	190.638E-3	-31.4045E-3
-332.666E-6	-2.01919E-12	173.927E-3	-16.6749E-3	-2.11400E-12	201.612E-3	-21.7575E-3
-337.669E-6	-2.07027E-12	172.448E-3	-16.3317E-3	-2.08085E-12	205.045E-3	-16.4787E-3
-342.671E-6	-2.10287E-12	179.011E-3	-19.5584E-3	-2.15506E-12	204.190E-3	-10.9318E-3
-347.674E-6	-2.15017E-12	177.565E-3	-14.1362E-3	-2.27527E-12	215.803E-3	-8.02884E-3
-352.676E-6	-2.31064E-12	185.349E-3	-17.1530E-3	-2.25238E-12	233.165E-3	-11.8577E-3
-357.679E-6	-2.37398E-12	200.693E-3	-17.2571E-3	-2.30626E-12	248.708E-3	-3.86706E-3
-362.681E-6	-2.29628E-12	205.284E-3	-6.67840E-3	-2.44253E-12	258.686E-3	4.84732E-3
-367.684E-6	-2.38435E-12	210.578E-3	-7.30087E-3	-2.60276E-12	245.710E-3	-6.81423E-3
-372.686E-6	-2.57753E-12	219.954E-3	-7.10178E-3	-2.59937E-12	224.700E-3	-19.4860E-3
-377.689E-6	-2.68010E-12	223.048E-3	-8.68069E-3	-2.58143E-12	230.423E-3	-28.0699E-3
-382.691E-6	-2.57765E-12	223.756E-3	-28.0010E-3	-2.81889E-12	242.885E-3	-37.9736E-3
-387.694E-6	-2.69240E-12	228.744E-3	-29.5784E-3	-2.92793E-12	248.017E-3	-38.0377E-3
-392.696E-6	-2.90501E-12	229.639E-3	-6.76516E-3	-2.88697E-12	257.145E-3	-29.6189E-3
-397.699E-6	-2.93129E-12	231.961E-3	-4.77469E-3	-3.00631E-12	256.142E-3	-19.7166E-3
-402.701E-6	-2.90905E-12	239.095E-3	-18.3083E-3	-3.15943E-12	258.185E-3	-15.5616E-3
-407.704E-6	-2.96761E-12	237.469E-3	-22.1400E-3	-3.15148E-12	271.976E-3	-13.9830E-3
-412.706E-6	-3.19706E-12	234.238E-3	-25.9666E-3	-3.07193E-12	272.946E-3	-14.9518E-3
-417.709E-6	-3.33844E-12	232.396E-3	-18.0906E-3	-3.25393E-12	259.007E-3	-8.34433E-3
-422.711E-6	-3.32692E-12	233.289E-3	81.1857E-6	-3.51519E-12	252.563E-3	2.54458E-3
-427.714E-6	-3.41660E-12	244.284E-3	4.13177E-3	-3.57137E-12	260.279E-3	3.14464E-3
-432.716E-6	-3.76609E-12	270.463E-3	-3.32435E-3	-3.51128E-12	274.583E-3	5.33525E-3
-437.719E-6	-3.73807E-12	292.743E-3	-8.02234E-3	-3.72479E-12	293.724E-3	4.27861E-3
-442.721E-6	-3.68504E-12	299.145E-3	-7.62049E-3	-3.86777E-12	298.529E-3	-12.9826E-3
-447.724E-6	-3.87023E-12	302.722E-3	-5.44158E-3	-3.87558E-12	284.358E-3	-22.3584E-3
-452.726E-6	-4.07145E-12	298.389E-3	-1.10304E-3	-3.95721E-12	280.227E-3	-20.4478E-3
-457.729E-6	-4.07630E-12	290.608E-3	-8.79280E-3	-4.00136E-12	292.304E-3	-19.4558E-3
-462.731E-6	-4.05869E-12	297.663E-3	-22.5886E-3	-4.26812E-12	301.212E-3	-10.3784E-3
-467.734E-6	-4.32721E-12	305.753E-3	-19.0187E-3	-4.34364E-12	306.889E-3	-4.24195E-3
-472.736E-6	-4.49899E-12	297.771E-3	-16.7686E-3	-4.30969E-12	308.075E-3	-14.5165E-3
-477.739E-6	-4.43204E-12	292.491E-3	-20.7679E-3	-4.34189E-12	296.903E-3	-26.2282E-3
-482.741E-6	-4.41699E-12	300.684E-3	-11.7542E-3	-4.61600E-12	298.549E-3	-29.6157E-3
-487.744E-6	-4.65099E-12	306.592E-3	-15.0828E-3	-4.55811E-12	307.578E-3	-36.7092E-3
-492.746E-6	-4.72225E-12	307.200E-3	-32.3102E-3	-4.58316E-12	294.076E-3	-37.1242E-3
-497.749E-6	-4.75293E-12	300.801E-3	-28.3933E-3	-4.76064E-12	287.333E-3	-22.7294E-3
-502.751E-6	-4.93639E-12	286.280E-3	-15.1967E-3	-4.93069E-12	303.828E-3	-14.8489E-3
-507.754E-6	-5.02701E-12	282.678E-3	-7.33822E-3	-4.84111E-12	312.234E-3	-15.4055E-3
-512.756E-6	-5.19505E-12	295.218E-3	-301.008E-6	-4.96943E-12	314.566E-3	-12.5453E-3
-517.759E-6	-5.31652E-12	304.627E-3	-9.89664E-3	-5.19578E-12	311.936E-3	-6.08683E-3
-522.761E-6	-5.30820E-12	306.375E-3	-26.8630E-3	-5.32126E-12	292.491E-3	-5.62622E-3
-527.764E-6	-5.47130E-12	303.825E-3	-24.4790E-3	-5.40024E-12	283.823E-3	-18.0709E-3
-532.766E-6	-5.50708E-12	297.683E-3	-15.1643E-3	-5.50121E-12	294.028E-3	-31.6127E-3
-537.769E-6	-5.57487E-12	298.356E-3	-9.67351E-3	-5.61772E-12	303.146E-3	-31.0279E-3
-542.771E-6	-5.66441E-12	296.499E-3	-6.72787E-3	-5.76880E-12	308.303E-3	-17.3218E-3
-547.774E-6	-5.96139E-12	282.517E-3	-2.80718E-3	-5.77858E-12	301.883E-3	-14.0145E-3
-552.776E-6	-5.92673E-12	284.265E-3	-262.957E-6	-5.69641E-12	283.787E-3	-22.6258E-3
-557.779E-6	-6.00667E-12	306.883E-3	-8.22498E-3	-5.99134E-12	279.223E-3	-25.8376E-3
-562.781E-6	-6.08025E-12	316.162E-3	-13.9407E-3	-6.12334E-12	291.367E-3	-23.0102E-3
-567.784E-6	-6.34944E-12	310.231E-3	-16.2234E-3	-6.22056E-12	286.350E-3	-14.1739E-3
-572.786E-6	-6.33979E-12	301.849E-3	-28.3360E-3	-6.34953E-12	264.586E-3	-4.41939E-3
-577.789E-6	-6.36456E-12	292.070E-3	-29.6608E-3	-6.63579E-12	255.718E-3	-13.8402E-3
-582.791E-6	-6.75368E-12	291.158E-3	-16.7174E-3	-6.62664E-12	258.710E-3	-36.2468E-3
-587.794E-6	-6.88712E-12	307.675E-3	-8.14939E-3	-6.60153E-12	266.559E-3	-38.9998E-3
-592.796E-6	-6.79047E-12	313.409E-3	-4.03850E-3	-6.85913E-12	280.418E-3	-24.1827E-3
-597.799E-6	-6.73551E-12	302.906E-3	-11.6967E-3	-6.98875E-12	281.040E-3	-14.6401E-3
-602.801E-6	-7.23555E-12	290.318E-3	-19.7015E-3	-7.15476E-12	268.270E-3	-2.35422E-3
-607.804E-6	-7.35337E-12	273.994E-3	-14.6286E-3	-6.91897E-12	265.577E-3	100.743E-6
-612.806E-6	-7.13131E-12	277.797E-3	-10.6309E-3	-7.17243E-12	264.231E-3	-15.9807E-3
-617.809E-6	-7.35595E-12	290.585E-3	-10.3494E-3	-7.32979E-12	259.328E-3	-13.1234E-3
-622.811E-6	-7.37571E-12	277.765E-3	-21.3885E-3	-7.45945E-12	264.605E-3	-1.56249E-3
-627.814E-6	-7.63649E-12	257.750E-3	-42.0293E-3	-7.54376E-12	267.433E-3	-13.1767E-3
-632.816E-6	-7.47454E-12	261.641E-3	-44.5838E-3	-7.53348E-12	261.261E-3	-23.7737E-3
-637.819E-6	-7.50036E-12	271.439E-3	-34.6089E-3	-7.67182E-12	256.603E-3	-27.7958E-3
-642.821E-6	-7.64352E-12	262.753E-3	-33.2869E-3	-7.82993E-12	248.989E-3	-35.7201E-3
-647.824E-6	-7.86318E-12	253.883E-3	-31.4800E-3	-8.16533E-12	234.642E-3	-18.3425E-3
-652.826E-6	-7.73147E-12	252.009E-3	-17.7145E-3	-7.91754E-12	226.256E-3	2.94958E-3
-657.829E-6	-7.62491E-12	250.938E-3	-5.62735E-3	-7.95128E-12	223.354E-3	-4.69318E-3
-662.831E-6	-8.13226E-12	250.397E-3	-4.61369E-3	-7.84395E-12	219.685E-3	-13.7709E-3
-667.834E-6	-8.07582E-12	246.560E-3	-12.0585E-3	-8.18503E-12	231.964E-3	-12.0367E-3
-672.836E-6	-8.00781E-12	238.772E-3	-25.3657E-3	-8.38547E-12	241.104E-3	-17.7399E-3
-677.839E-6	-7.91675E-12	235.443E-3	-32.7855E-3	-8.12832E-12	221.291E-3	-22.3010E-3
-682.841E-6	-8.41044E-12	238.167E-3	-24.8209E-3	-8.04143E-12	198.522E-3	-15.0355E-3
-687.844E-6	-8.38785E-12	235.151E-3	-21.4247E-3	-8.35239E-12	189.603E-3	-8.59964E-3
-692.846E-6	-8.46060E-12	221.912E-3	-28.4262E-3	-8.75839E-12	187.599E-3	-4.18644E-3
-697.849E-6	-8.41295E-12	212.198E-3	-24.7829E-3	-8.41998E-12	190.565E-3	-3.02335E-3
-702.851E-6	-8.51097E-12	213.415E-3	-16.2192E-3	-8.38619E-12	188.010E-3	-700.832E-6
-707.854E-6	-8.88346E-12	217.303E-3	-16.4153E-3	-8.66173E-12	182.333E-3	5.00165E-3
-712.856E-6	-8.81772E-12	216.674E-3	-25.4688E-3	-9.08171E-12	181.639E-3	-2.07884E-3
-717.859E-6	-8.81554E-12	210.428E-3	-26.2970E-3	-8.97997E-12	182.525E-3	-22.3312E-3
-722.861E-6	-8.64106E-12	213.514E-3	-9.25241E-3	-8.68374E-12	182.011E-3	-26.2495E-3
-727.864E-6	-8.73787E-12	213.765E-3	6.10881E-3	-8.93397E-12	167.754E-3	-11.3679E-3
-732.866E-6	-8.97125E-12	197.489E-3	3.13392E-3	-9.24855E-12	149.647E-3	-4.39630E-3
-737.869E-6	-9.18801E-12	189.096E-3	-12.4929E-3	-9.22554E-12	147.483E-3	-6.15724E-3
-742.871E-6	-8.94633E-12	194.386E-3	-25.0386E-3	-9.06427E-12	162.119E-3	-5.88635E-3
-747.874E-6	-8.95845E-12	190.878E-3	-17.2558E-3	-9.10206E-12	177.591E-3	-6.50296E-3
-752.876E-6	-9.32684E-12	177.019E-3	-2.83069E-3	-9.23242E-12	178.021E-3	-3.02016E-3
-757.879E-6	-9.64487E-12	162.756E-3	-4.41426E-3	-9.38032E-12	165.199E-3	6.85209E-3
-762.881E-6	-9.43327E-12	151.147E-3	-14.4497E-3	-9.38588E-12	153.536E-3	-1.34775E-3
-767.884E-6	-9.23294E-12	155.252E-3	-24.4141E-3	-9.60712E-12	144.408E-3	-20.6160E-3
-772.886E-6	-9.48711E-12	156.427E-3	-29.7920E-3	-9.58956E-12	135.945E-3	-31.9238E-3
-777.889E-6	-9.83412E-12	144.650E-3	-35.6010E-3	-9.49797E-12	135.513E-3	-36.4674E-3
-782.891E-6	-9.86968E-12	147.293E-3	-39.5144E-3	-9.94527E-12	127.438E-3	-28.4518E-3
-787.894E-6	-9.36009E-12	152.495E-3	-30.2054E-3	-9.71470E-12	122.562E-3	-12.5657E-3
-792.896E-6	-9.38554E-12	151.538E-3	-17.9710E-3	-9.73192E-12	137.819E-3	-16.4739E-3
-797.899E-6	-10.0663E-12	158.413E-3	-17.5942E-3	-9.82042E-12	139.930E-3	-35.6372E-3
-802.901E-6	-10.0280E-12	162.368E-3	-19.9083E-3	-10.1450E-12	126.512E-3	-25.7346E-3
-807.904E-6	-9.54307E-12	151.498E-3	-20.2311E-3	-10.0531E-12	122.666E-3	-6.18567E-3
-812.906E-6	-9.60020E-12	141.438E-3	-26.1281E-3	-9.97713E-12	114.888E-3	-12.7345E-3
-817.909E-6	-9.97638E-12	136.778E-3	-28.1360E-3	-9.73881E-12	102.568E-3	-18.6733E-3
-822.911E-6	-9.84162E-12	128.370E-3	-23.8080E-3	-9.93503E-12	104.557E-3	-22.0434E-3
-827.914E-6	-9.85927E-12	125.594E-3	-21.9427E-3	-10.2490E-12	103.940E-3	-34.7167E-3
-832.916E-6	-9.70822E-12	131.139E-3	-17.2552E-3	-10.0732E-12	95.1341E-3	-23.6115E-3
-837.919E-6	-9.90112E-12	126.599E-3	-10.5507E-3	-10.1163E-12	93.5343E-3	-8.69129E-3
-842.921E-6	-10.0698E-12	114.015E-3	-6.36620E-3	-10.0058E-12	96.9432E-3	-28.7464E-3
-847.924E-6	-10.3289E-12	108.296E-3	-7.26449E-3	-10.2452E-12	98.6320E-3	-39.5516E-3
-852.926E-6	-10.2252E-12	104.658E-3	-22.2654E-3	-10.3771E-12	106.426E-3	-23.1337E-3
-857.929E-6	-10.0373E-12	104.702E-3	-34.2574E-3	-10.2815E-12	110.771E-3	-11.1701E-3
-862.931E-6	-10.3617E-12	101.542E-3	-29.8557E-3	-10.2728E-12	97.7695E-3	-1.28533E-3
-867.934E-6	-10.3845E-12	89.1986E-3	-24.2331E-3	-10.2600E-12	101.248E-3	-8.54798E-3
-872.936E-6	-10.4871E-12	92.4503E-3	-25.9898E-3	-10.6951E-12	112.366E-3	-43.0947E-3
-877.939E-6	-10.4151E-12	106.611E-3	-22.3421E-3	-11.0119E-12	96.2511E-3	-45.2268E-3
-882.941E-6	-10.4937E-12	104.679E-3	-16.3434E-3	-10.9716E-12	83.8574E-3	-12.7151E-3
-887.944E-6	-10.7323E-12	106.155E-3	-23.4754E-3	-10.7575E-12	86.0851E-3	-4.87254E-3
-892.946E-6	-10.7427E-12	122.584E-3	-34.4711E-3	-10.6069E-12	82.5382E-3	-17.3424E-3
-897.949E-6	-10.6032E-12	123.918E-3	-31.2031E-3	-10.7545E-12	88.7175E-3	-21.7053E-3
-902.951E-6	-10.3074E-12	115.113E-3	-21.9627E-3	-10.9664E-12	104.936E-3	-17.1296E-3
-907.954E-6	-10.6827E-12	118.120E-3	-15.9041E-3	-10.8377E-12	101.156E-3	-7.04408E-3
-912.956E-6	-10.8032E-12	115.929E-3	-6.08391E-3	-10.5840E-12	86.5733E-3	-4.83367E-3
-917.959E-6	-10.7710E-12	100.825E-3	-3.33622E-3	-10.7538E-12	82.0588E-3	-21.4029E-3
-922.961E-6	-10.4340E-12	88.7847E-3	-8.87360E-3	-10.9083E-12	89.5747E-3	-34.3210E-3
-927.964E-6	-10.6207E-12	79.6950E-3	-3.56542E-3	-10.7639E-12	106.395E-3	-23.9590E-3
-932.966E-6	-10.7808E-12	69.8355E-3	-3.72325E-3	-10.6028E-12	114.147E-3	-15.4522E-3
-937.969E-6	-10.8719E-12	78.3529E-3	-19.5316E-3	-10.7934E-12	101.684E-3	-8.27219E-3
-942.971E-6	-10.5760E-12	93.9116E-3	-30.1197E-3	-10.9546E-12	84.1992E-3	706.429E-6
-947.974E-6	-10.7389E-12	93.9786E-3	-19.3558E-3	-10.9527E-12	86.2178E-3	-19.1193E-3
-952.976E-6	-11.1136E-12	93.2861E-3	6.62161E-3	-10.8001E-12	106.331E-3	-37.1160E-3
-957.979E-6	-10.9894E-12	96.7519E-3	18.8691E-3	-10.7819E-12	123.464E-3	-23.7944E-3
-962.981E-6	-10.8903E-12	103.540E-3	10.8227E-3	-11.0539E-12	123.889E-3	-12.1009E-3
-967.984E-6	-10.9317E-12	109.809E-3	-3.21395E-3	-11.0855E-12	110.400E-3	-15.9321E-3
-972.986E-6	-11.2141E-12	105.625E-3	-12.2666E-3	-11.1282E-12	114.090E-3	-17.2743E-3
-977.989E-6	-11.0955E-12	101.346E-3	-19.8569E-3	-11.2614E-12	137.733E-3	-20.9270E-3
-982.991E-6	-11.0340E-12	111.657E-3	-28.1741E-3	-11.2249E-12	144.444E-3	-30.3989E-3
-987.994E-6	-11.1243E-12	127.012E-3	-31.4804E-3	-11.3536E-12	134.049E-3	-30.1448E-3
-992.997E-6	-11.1368E-12	129.402E-3	-39.8716E-3	-11.3269E-12	133.694E-3	-28.1358E-3
-997.999E-6	-11.1719E-12	119.542E-3	-44.5405E-3	-11.3561E-12	140.500E-3	-31.1741E-3
-1.00300E-3	-11.4844E-12	112.099E-3	-26.4066E-3	-11.4585E-12	147.043E-3	-30.6262E-3
-1.00800E-3	-11.5776E-12	113.292E-3	-13.3981E-3	-11.5779E-12	149.638E-3	-19.6121E-3
-1.01301E-3	-11.0975E-12	121.077E-3	-24.9262E-3	-11.4228E-12	141.503E-3	-338.911E-6
-1.01801E-3	-11.3891E-12	138.751E-3	-26.2236E-3	-11.7245E-12	144.495E-3	5.06515E-3
-1.02301E-3	-11.6785E-12	163.477E-3	-20.5013E-3	-11.7568E-12	164.728E-3	-7.67526E-3
-1.02801E-3	-11.5906E-12	180.134E-3	-32.4102E-3	-11.5023E-12	171.079E-3	-15.0793E-3
-1.03302E-3	-11.5462E-12	184.341E-3	-33.6278E-3	-11.5991E-12	172.315E-3	-11.9111E-3
-1.03802E-3	-11.6096E-12	185.161E-3	-25.6125E-3	-12.1191E-12	186.719E-3	-13.6581E-3
-1.04302E-3	-11.9210E-12	188.753E-3	-30.0581E-3	-12.3232E-12	196.571E-3	-13.2797E-3
-1.04802E-3	-11.9609E-12	189.064E-3	-19.7902E-3	-12.0518E-12	208.828E-3	-9.68815E-3
-1.05303E-3	-11.8175E-12	181.702E-3	-5.32410E-3	-12.0988E-12	230.047E-3	-19.4863E-3
-1.05803E-3	-11.5694E-12	173.418E-3	-12.0142E-3	-12.4082E-12	240.889E-3	-36.2620E-3
-1.06303E-3	-12.0496E-12	171.076E-3	-19.7180E-3	-12.3226E-12	244.700E-3	-33.1329E-3
-1.06803E-3	-12.3295E-12	185.715E-3	-22.9540E-3	-12.3715E-12	248.503E-3	-15.0647E-3
-1.07304E-3	-12.0526E-12	204.461E-3	-17.0819E-3	-12.4622E-12	240.151E-3	-15.1873E-3
-1.07804E-3	-12.1975E-12	213.338E-3	298.401E-6	-12.2288E-12	237.649E-3	-19.6879E-3
-1.08304E-3	-12.3021E-12	218.017E-3	6.43434E-3	-12.4588E-12	262.342E-3	-21.2578E-3
-1.08804E-3	-12.4991E-12	223.075E-3	-4.05344E-3	-12.7397E-12	283.570E-3	-22.6747E-3
-1.09305E-3	-12.5311E-12	235.913E-3	-13.0788E-3	-12.6159E-12	291.603E-3	-5.59782E-3
-1.09805E-3	-12.7708E-12	245.705E-3	-12.1708E-3	-12.4667E-12	299.583E-3	7.94543E-3
-1.10305E-3	-12.5871E-12	249.636E-3	-18.0238E-3	-12.6566E-12	295.053E-3	-3.98988E-3
-1.10805E-3	-12.9785E-12	258.516E-3	-24.8592E-3	-12.8592E-12	297.427E-3	-9.41848E-3
-1.11306E-3	-13.0221E-12	275.310E-3	-13.2394E-3	-12.8279E-12	323.663E-3	-5.20333E-3
-1.11806E-3	-13.1003E-12	294.271E-3	-8.79344E-3	-12.7356E-12	329.681E-3	-12.8100E-3
-1.12306E-3	-13.2915E-12	305.803E-3	-15.7596E-3	-12.9100E-12	318.748E-3	-10.9857E-3
-1.12806E-3	-13.3814E-12	317.911E-3	-21.1238E-3	-13.1274E-12	342.139E-3	-5.76361E-3
-1.13307E-3	-13.4480E-12	334.779E-3	-29.4549E-3	-13.4617E-12	379.697E-3	-19.3690E-3
-1.13807E-3	-13.5125E-12	347.697E-3	-32.1674E-3	-13.5133E-12	392.898E-3	-24.1698E-3
-1.14307E-3	-13.7314E-12	348.545E-3	-29.6501E-3	-13.5519E-12	405.576E-3	-20.3186E-3
-1.14807E-3	-13.5083E-12	349.219E-3	-32.8947E-3	-13.9689E-12	419.019E-3	-26.0903E-3
-1.15308E-3	-13.7264E-12	355.299E-3	-34.5673E-3	-14.0896E-12	412.176E-3	-31.9151E-3
-1.15808E-3	-14.1735E-12	367.195E-3	-25.2046E-3	-14.0736E-12	422.028E-3	-32.4120E-3
-1.16308E-3	-14.0934E-12	389.403E-3	-20.9672E-3	-13.9818E-12	455.098E-3	-26.4608E-3
-1.16808E-3	-14.1128E-12	407.627E-3	-22.9970E-3	-14.3407E-12	469.912E-3	-12.4255E-3
-1.17309E-3	-14.3358E-12	421.628E-3	-22.7651E-3	-14.6809E-12	478.462E-3	57.5390E-6
-1.17809E-3	-14.6912E-12	444.191E-3	-21.1632E-3	-14.5770E-12	497.117E-3	-12.1398E-3
-1.18309E-3	-14.9544E-12	472.151E-3	-14.6350E-3	-14.6232E-12	514.939E-3	-30.7801E-3
-1.18809E-3	-15.0641E-12	489.258E-3	-11.0999E-3	-14.8064E-12	539.679E-3	-27.1379E-3
-1.19310E-3	-15.0556E-12	498.419E-3	-12.6825E-3	-15.4253E-12	569.903E-3	-17.4199E-3
-1.19810E-3	-15.3409E-12	518.506E-3	-9.93129E-3	-15.3584E-12	585.715E-3	-13.4044E-3
-1.20310E-3	-15.7206E-12	537.797E-3	-7.93232E-3	-15.3148E-12	592.098E-3	-16.1427E-3
-1.20810E-3	-15.9309E-12	543.920E-3	-10.8230E-3	-15.6565E-12	605.205E-3	-19.1859E-3
-1.21311E-3	-15.9523E-12	556.268E-3	-4.88014E-3	-15.9869E-12	622.811E-3	-16.7506E-3
-1.21811E-3	-16.1706E-12	579.200E-3	4.48129E-3	-16.4448E-12	651.033E-3	-7.48201E-3
-1.22311E-3	-16.5332E-12	599.534E-3	-4.32629E-3	-16.2388E-12	668.024E-3	2.27707E-3
-1.22811E-3	-16.7499E-12	614.121E-3	-14.3978E-3	-16.5433E-12	665.541E-3	-5.59484E-3
-1.23312E-3	-16.7004E-12	622.878E-3	-12.1835E-3	-16.9039E-12	686.416E-3	-18.1217E-3
-1.23812E-3	-17.0733E-12	635.456E-3	-9.83107E-3	-17.1602E-12	722.580E-3	-27.2667E-3
-1.24312E-3	-16.9876E-12	658.670E-3	-14.4094E-3	-17.2826E-12	742.346E-3	-33.3393E-3
-1.24812E-3	-17.2769E-12	680.054E-3	-20.5962E-3	-17.2403E-12	748.496E-3	-21.6533E-3
-1.25313E-3	-17.4903E-12	694.358E-3	-15.3646E-3	-17.6426E-12	763.222E-3	-17.9604E-3
-1.25813E-3	-17.6818E-12	705.679E-3	-10.4105E-3	-17.6458E-12	791.635E-3	-35.2146E-3
-1.26313E-3	-17.8939E-12	720.645E-3	-16.6715E-3	-18.0513E-12	808.991E-3	-36.4504E-3
-1.26813E-3	-18.1041E-12	744.652E-3	-30.0398E-3	-18.2254E-12	807.803E-3	-24.6061E-3
-1.27314E-3	-18.5167E-12	762.043E-3	-42.5441E-3	-18.4815E-12	803.788E-3	-22.7355E-3
-1.27814E-3	-18.9276E-12	772.437E-3	-35.5895E-3	-18.7299E-12	817.234E-3	-23.3643E-3
-1.28314E-3	-19.1613E-12	791.633E-3	-12.6558E-3	-19.1382E-12	850.901E-3	-23.1342E-3
-1.28814E-3	-19.3106E-12	803.833E-3	4.03626E-3	-19.8198E-12	883.889E-3	-14.6280E-3
-1.29315E-3	-19.8280E-12	816.011E-3	15.1480E-3	-19.6422E-12	900.426E-3	-6.17014E-3
-1.29815E-3	-20.0622E-12	845.206E-3	20.4823E-3	-19.7814E-12	907.428E-3	-9.44617E-3
-1.30315E-3	-20.3981E-12	869.779E-3	5.68427E-3	-20.2104E-12	923.408E-3	-9.86269E-3
-1.30815E-3	-20.8241E-12	883.619E-3	-19.2156E-3	-21.0762E-12	948.052E-3	-14.0260E-3
-1.31316E-3	-20.8241E-12	898.001E-3	-29.7399E-3	-21.6105E-12	971.368E-3	-36.2278E-3
-1.31816E-3	-21.2941E-12	913.586E-3	-29.2830E-3	-21.1825E-12	988.674E-3	-41.7084E-3
-1.32316E-3	-21.4739E-12	930.757E-3	-23.6533E-3	-21.6426E-12	998.038E-3	-9.56989E-3
-1.32816E-3	-21.7921E-12	943.606E-3	-21.7542E-3	-22.4054E-12	997.723E-3	3.57758E-3
-1.33317E-3	-21.8399E-12	952.732E-3	-24.9123E-3	-22.6443E-12	997.685E-3	-21.1144E-3
-1.33817E-3	-22.3083E-12	959.871E-3	-20.7175E-3	-22.6482E-12	1.01246E+0	-40.3385E-3
-1.34317E-3	-22.7145E-12	962.332E-3	-10.0125E-3	-23.0277E-12	1.02990E+0	-35.5736E-3
-1.34817E-3	-22.7266E-12	974.161E-3	-6.55585E-3	-23.2195E-12	1.03525E+0	-21.6371E-3
-1.35318E-3	-22.8380E-12	985.224E-3	-11.9873E-3	-23.2152E-12	1.04324E+0	-9.51280E-3
-1.35818E-3	-23.4050E-12	989.093E-3	-17.4566E-3	-23.8602E-12	1.05936E+0	-20.5416E-3
-1.36318E-3	-23.8265E-12	1.00433E+0	-23.1752E-3	-24.2884E-12	1.07452E+0	-48.6742E-3
-1.36818E-3	-24.0114E-12	1.03118E+0	-20.7011E-3	-24.6566E-12	1.09843E+0	-49.3934E-3
-1.37319E-3	-24.8843E-12	1.04934E+0	-16.6465E-3	-25.0970E-12	1.12416E+0	-30.4121E-3
-1.37819E-3	-25.1366E-12	1.05602E+0	-16.6196E-3	-25.6071E-12	1.12302E+0	-23.8223E-3
-1.38319E-3	-25.5085E-12	1.06896E+0	-12.3076E-3	-25.9520E-12	1.11846E+0	-27.6578E-3
-1.38819E-3	-26.0202E-12	1.08566E+0	-8.82165E-3	-26.3663E-12	1.14659E+0	-32.2192E-3
-1.39320E-3	-26.3928E-12	1.09327E+0	-7.62266E-3	-26.9572E-12	1.16323E+0	-28.3589E-3
-1.39820E-3	-26.7545E-12	1.10340E+0	2.50126E-3	-27.1621E-12	1.15032E+0	-16.8917E-3
-1.40320E-3	-27.0202E-12	1.11683E+0	10.7856E-3	-27.4474E-12	1.14888E+0	-15.4691E-3
-1.40820E-3	-27.5456E-12	1.12300E+0	-2.03456E-3	-27.8532E-12	1.15205E+0	-20.1969E-3
-1.41321E-3	-27.8535E-12	1.13657E+0	-18.6940E-3	-28.2676E-12	1.15431E+0	-26.7102E-3
-1.41821E-3	-28.2190E-12	1.15209E+0	-19.3013E-3	-28.5716E-12	1.17447E+0	-35.1861E-3
-1.42321E-3	-28.4875E-12	1.15806E+0	-10.9653E-3	-28.9791E-12	1.19112E+0	-33.3154E-3
-1.42821E-3	-28.8811E-12	1.16463E+0	893.241E-6	-29.2807E-12	1.18664E+0	-22.4608E-3
-1.43322E-3	-29.3109E-12	1.17007E+0	4.07601E-3	-29.4743E-12	1.18436E+0	-14.0952E-3
-1.43822E-3	-29.7307E-12	1.16590E+0	-12.0554E-3	-30.0684E-12	1.18657E+0	-18.3669E-3
-1.44322E-3	-30.0049E-12	1.16493E+0	-27.5176E-3	-30.2987E-12	1.19062E+0	-28.4093E-3
-1.44822E-3	-30.2729E-12	1.17759E+0	-33.9953E-3	-30.4106E-12	1.20425E+0	-24.7930E-3
-1.45323E-3	-30.6435E-12	1.18751E+0	-35.6157E-3	-30.7933E-12	1.21331E+0	-17.8743E-3
-1.45823E-3	-31.3878E-12	1.18933E+0	-24.0600E-3	-31.5028E-12	1.20645E+0	-14.9982E-3
-1.46323E-3	-31.9089E-12	1.19697E+0	-10.3971E-3	-31.9813E-12	1.20484E+0	-11.9054E-3
-1.46823E-3	-32.2066E-12	1.20380E+0	-11.0414E-3	-32.2741E-12	1.22159E+0	-26.6312E-3
-1.47324E-3	-32.7574E-12	1.19649E+0	-20.9646E-3	-32.7762E-12	1.22494E+0	-32.1452E-3
-1.47824E-3	-33.2759E-12	1.19952E+0	-26.1147E-3	-33.4091E-12	1.21180E+0	-510.166E-6
-1.48324E-3	-33.9670E-12	1.22709E+0	-18.3754E-3	-33.7673E-12	1.20796E+0	7.82848E-3
-1.48824E-3	-34.2213E-12	1.23555E+0	-14.8615E-3	-34.1144E-12	1.20992E+0	-24.8773E-3
-1.49325E-3	-34.5432E-12	1.21450E+0	-23.8366E-3	-34.6243E-12	1.21074E+0	-39.7626E-3
-1.49825E-3	-34.8463E-12	1.20294E+0	-19.6600E-3	-34.9073E-12	1.21131E+0	-32.4190E-3
-1.50325E-3	-35.3202E-12	1.21105E+0	-9.39668E-3	-35.0065E-12	1.19536E+0	-22.2004E-3
-1.50825E-3	-35.6680E-12	1.22742E+0	-12.3070E-3	-35.2098E-12	1.16857E+0	-7.86503E-3
-1.51326E-3	-35.8876E-12	1.23947E+0	-23.6503E-3	-35.8248E-12	1.16030E+0	-6.82879E-3
-1.51826E-3	-36.3096E-12	1.23482E+0	-33.8835E-3	-36.0789E-12	1.16154E+0	-18.9163E-3
-1.52326E-3	-36.7838E-12	1.21894E+0	-36.0596E-3	-36.2637E-12	1.16645E+0	-19.9393E-3
-1.52826E-3	-37.2698E-12	1.21237E+0	-21.9026E-3	-36.5575E-12	1.17665E+0	-18.7810E-3
-1.53327E-3	-37.4670E-12	1.22157E+0	1.41714E-3	-37.0124E-12	1.17568E+0	-27.2607E-3
-1.53827E-3	-37.7350E-12	1.23565E+0	81.0721E-6	-37.7147E-12	1.16604E+0	-30.5205E-3
-1.54327E-3	-38.2848E-12	1.23286E+0	-17.3062E-3	-37.7506E-12	1.16933E+0	-28.7632E-3
-1.54827E-3	-38.6963E-12	1.21276E+0	-19.2663E-3	-38.1747E-12	1.18464E+0	-27.4878E-3
-1.55328E-3	-38.8148E-12	1.19533E+0	-16.5535E-3	-39.1060E-12	1.19664E+0	-21.5363E-3
-1.55828E-3	-39.2768E-12	1.18860E+0	-9.84725E-3	-39.6505E-12	1.20021E+0	-17.4088E-3
-1.56328E-3	-39.8022E-12	1.19010E+0	1.01739E-3	-40.1045E-12	1.18350E+0	-29.9392E-3
-1.56828E-3	-39.8983E-12	1.18483E+0	-9.04601E-3	-40.4696E-12	1.15512E+0	-42.9503E-3
-1.57329E-3	-40.3482E-12	1.16780E+0	-23.1584E-3	-41.1097E-12	1.15355E+0	-40.0798E-3
-1.57829E-3	-40.5757E-12	1.15439E+0	-24.0169E-3	-41.3687E-12	1.17474E+0	-32.6219E-3
-1.58329E-3	-40.9326E-12	1.16039E+0	-20.4287E-3	-41.8909E-12	1.17860E+0	-24.8363E-3
-1.58829E-3	-41.2265E-12	1.17179E+0	-20.8984E-3	-42.0011E-12	1.15740E+0	-25.2278E-3
-1.59330E-3	-41.7238E-12	1.16220E+0	-29.8021E-3	-42.5104E-12	1.12438E+0	-30.9643E-3
-1.59830E-3	-41.9154E-12	1.15037E+0	-29.3850E-3	-42.8002E-12	1.09962E+0	-32.5837E-3
-1.60330E-3	-42.5476E-12	1.14534E+0	-25.8072E-3	-42.8537E-12	1.09744E+0	-24.2925E-3
-1.60830E-3	-42.8434E-12	1.13921E+0	-25.5259E-3	-43.0641E-12	1.09925E+0	-10.9290E-3
-1.61331E-3	-43.2710E-12	1.13987E+0	-21.7994E-3	-43.4700E-12	1.09271E+0	-4.10420E-3
-1.61831E-3	-43.7217E-12	1.12500E+0	-22.6862E-3	-43.7542E-12	1.09909E+0	-6.09709E-3
-1.62331E-3	-44.3613E-12	1.09947E+0	-26.3008E-3	-43.7232E-12	1.11101E+0	-15.6627E-3
-1.62831E-3	-44.6615E-12	1.09595E+0	-19.2949E-3	-44.2100E-12	1.11194E+0	-23.6457E-3
-1.63332E-3	-45.2231E-12	1.09974E+0	-4.38609E-3	-44.7557E-12	1.10594E+0	-20.4899E-3
-1.63832E-3	-45.7240E-12	1.09758E+0	-9.59848E-3	-45.2920E-12	1.08478E+0	-13.4447E-3
-1.64332E-3	-46.1547E-12	1.10370E+0	-35.2086E-3	-45.7025E-12	1.06329E+0	-8.31027E-3
-1.64832E-3	-46.2746E-12	1.11367E+0	-39.7743E-3	-46.4174E-12	1.07201E+0	-6.35904E-3
-1.65333E-3	-46.4019E-12	1.10215E+0	-21.4343E-3	-46.9890E-12	1.09503E+0	-13.6177E-3
-1.65833E-3	-46.7446E-12	1.08203E+0	-14.3836E-3	-47.4427E-12	1.09361E+0	-16.9930E-3
-1.66333E-3	-47.1129E-12	1.07987E+0	-8.73000E-3	-47.7552E-12	1.08242E+0	-8.48414E-3
-1.66833E-3	-47.1488E-12	1.07726E+0	4.64610E-3	-48.2765E-12	1.07748E+0	-7.95147E-3
-1.67334E-3	-47.2793E-12	1.06854E+0	13.3574E-3	-48.6360E-12	1.05860E+0	-16.5876E-3
-1.67834E-3	-47.3039E-12	1.06310E+0	11.9426E-3	-48.6511E-12	1.03945E+0	-18.3976E-3
-1.68334E-3	-47.8915E-12	1.05780E+0	-2.28173E-3	-48.8578E-12	1.03406E+0	-18.9436E-3
-1.68834E-3	-48.1056E-12	1.04073E+0	-18.5079E-3	-49.0784E-12	1.01320E+0	-10.5861E-3
-1.69335E-3	-48.1694E-12	1.01774E+0	-14.2866E-3	-49.1162E-12	989.467E-3	2.98561E-3
-1.69835E-3	-48.6101E-12	1.00887E+0	1.25993E-3	-49.2059E-12	993.220E-3	1.47595E-3
-1.70335E-3	-49.3118E-12	1.01328E+0	2.06986E-3	-49.4562E-12	995.619E-3	-5.76232E-3
-1.70835E-3	-49.6217E-12	1.02182E+0	-9.38831E-3	-49.9028E-12	996.416E-3	-10.1356E-3
-1.71336E-3	-50.1866E-12	1.02582E+0	-20.1163E-3	-50.2440E-12	1.00867E+0	-10.0975E-3
-1.71836E-3	-50.8902E-12	1.02405E+0	-19.1830E-3	-50.2801E-12	1.00396E+0	-12.9608E-3
-1.72336E-3	-51.4647E-12	1.01738E+0	-4.64485E-3	-50.6397E-12	990.829E-3	-25.3809E-3
-1.72836E-3	-52.0394E-12	1.00863E+0	8.10026E-3	-51.3967E-12	993.099E-3	-36.3847E-3
-1.73337E-3	-52.5843E-12	1.00941E+0	979.283E-6	-51.7746E-12	1.00066E+0	-20.0557E-3
-1.73837E-3	-53.0984E-12	1.01319E+0	-10.3514E-3	-52.1590E-12	1.00769E+0	4.09663E-3
-1.74337E-3	-53.3299E-12	1.01208E+0	-13.5893E-3	-52.6755E-12	1.00897E+0	-1.51853E-3
-1.74837E-3	-53.7252E-12	1.01399E+0	-11.0476E-3	-53.3257E-12	994.262E-3	-15.9754E-3
-1.75338E-3	-53.7901E-12	1.01191E+0	-6.02943E-3	-53.5966E-12	981.532E-3	-24.2928E-3
-1.75838E-3	-53.8915E-12	994.122E-3	-10.0191E-3	-53.9155E-12	989.754E-3	-20.8640E-3
-1.76338E-3	-54.2837E-12	982.311E-3	-12.1848E-3	-54.5069E-12	986.955E-3	-7.08936E-3
-1.76838E-3	-54.0967E-12	985.608E-3	-13.2064E-3	-54.7022E-12	961.335E-3	-2.83826E-3
-1.77339E-3	-54.2559E-12	972.567E-3	-19.9075E-3	-54.7551E-12	947.074E-3	-9.93110E-3
-1.77839E-3	-54.5450E-12	949.518E-3	-23.2153E-3	-54.9851E-12	947.426E-3	-18.3094E-3
-1.78339E-3	-54.9305E-12	941.026E-3	-22.5679E-3	-55.3752E-12	947.725E-3	-16.5851E-3
-1.78839E-3	-54.9692E-12	939.953E-3	-15.6541E-3	-55.6732E-12	930.003E-3	-10.5856E-3
-1.79340E-3	-55.3978E-12	942.017E-3	-5.39475E-3	-55.7536E-12	900.632E-3	-15.2463E-3
-1.79840E-3	-56.0645E-12	942.750E-3	-852.906E-6	-56.0249E-12	907.279E-3	-20.2403E-3
-1.80340E-3	-56.4007E-12	932.574E-3	-7.99356E-3	-56.5260E-12	943.635E-3	-28.5008E-3
-1.80840E-3	-56.8147E-12	915.600E-3	-15.7699E-3	-57.0103E-12	953.749E-3	-33.2200E-3
-1.81341E-3	-57.4508E-12	908.829E-3	-5.96990E-3	-57.2899E-12	933.885E-3	-11.2405E-3
-1.81841E-3	-58.1309E-12	914.647E-3	10.6381E-3	-57.7303E-12	919.778E-3	9.37834E-3
-1.82341E-3	-58.8353E-12	925.316E-3	11.2640E-3	-58.2141E-12	916.150E-3	-5.94751E-3
-1.82841E-3	-59.0290E-12	920.151E-3	-8.07385E-3	-58.5755E-12	912.656E-3	-25.8470E-3
-1.83342E-3	-59.3871E-12	907.581E-3	-28.4483E-3	-58.8365E-12	908.688E-3	-24.4071E-3
-1.83842E-3	-60.0692E-12	919.212E-3	-32.1488E-3	-59.0660E-12	904.216E-3	-32.6449E-3
-1.84342E-3	-60.1219E-12	936.828E-3	-25.2459E-3	-59.5260E-12	896.321E-3	-35.9207E-3
-1.84842E-3	-59.9646E-12	935.594E-3	-17.7719E-3	-59.7322E-12	890.613E-3	-26.2267E-3
-1.85343E-3	-60.2152E-12	927.050E-3	-10.5513E-3	-59.6446E-12	879.563E-3	-35.2487E-3
-1.85843E-3	-60.5408E-12	916.474E-3	-4.26209E-3	-59.9876E-12	868.626E-3	-39.5011E-3
-1.86343E-3	-60.3386E-12	901.270E-3	8.72302E-3	-60.5398E-12	885.321E-3	-12.8066E-3
-1.86843E-3	-60.4178E-12	887.198E-3	11.8699E-3	-60.3007E-12	889.931E-3	11.2213E-3
-1.87344E-3	-60.7878E-12	880.788E-3	-6.20303E-3	-60.4051E-12	858.343E-3	7.64989E-3
-1.87844E-3	-60.9572E-12	877.867E-3	-20.3123E-3	-60.9027E-12	842.864E-3	-3.50761E-3
-1.88344E-3	-60.9621E-12	867.759E-3	-25.4592E-3	-61.1742E-12	858.636E-3	-7.67472E-3
-1.88844E-3	-61.1750E-12	860.888E-3	-25.6554E-3	-61.5419E-12	873.848E-3	-8.84085E-3
-1.89345E-3	-61.7940E-12	868.000E-3	-25.4679E-3	-61.8752E-12	884.404E-3	-10.6073E-3
-1.89845E-3	-62.0606E-12	879.429E-3	-26.0675E-3	-62.3775E-12	884.847E-3	-19.9747E-3
-1.90345E-3	-62.4819E-12	885.299E-3	-18.7112E-3	-62.7012E-12	867.589E-3	-36.8651E-3
-1.90845E-3	-62.7990E-12	882.434E-3	-13.4002E-3	-63.3179E-12	856.407E-3	-36.9576E-3
-1.91346E-3	-63.2651E-12	872.713E-3	-17.5158E-3	-63.6828E-12	860.883E-3	-11.1680E-3
-1.91846E-3	-63.4697E-12	871.806E-3	-10.9416E-3	-63.6939E-12	865.407E-3	8.21871E-3
-1.92346E-3	-63.7624E-12	880.032E-3	-9.41089E-3	-64.1839E-12	860.418E-3	-1.01912E-3
-1.92846E-3	-63.6468E-12	872.726E-3	-23.6214E-3	-64.4422E-12	848.770E-3	-27.6424E-3
-1.93347E-3	-64.1477E-12	857.158E-3	-18.8098E-3	-64.4523E-12	819.492E-3	-49.8597E-3
-1.93847E-3	-64.2190E-12	857.203E-3	-7.19253E-3	-64.5055E-12	805.961E-3	-48.6547E-3
-1.94347E-3	-64.3233E-12	861.654E-3	-6.80229E-3	-64.7598E-12	827.184E-3	-38.1313E-3
-1.94847E-3	-64.3314E-12	868.538E-3	-3.36394E-3	-64.7296E-12	826.006E-3	-27.9176E-3
-1.95348E-3	-64.9291E-12	867.645E-3	14.7010E-6	-64.6441E-12	801.032E-3	-10.9141E-3
-1.95848E-3	-65.3716E-12	841.429E-3	-1.26505E-3	-65.1342E-12	794.810E-3	-8.81658E-3
-1.96348E-3	-65.5443E-12	824.152E-3	-117.240E-6	-65.2920E-12	806.621E-3	-26.3244E-3
-1.96848E-3	-65.8419E-12	825.689E-3	4.03788E-3	-65.1708E-12	821.542E-3	-38.2658E-3
-1.97349E-3	-66.4638E-12	810.487E-3	124.791E-6	-65.4918E-12	823.255E-3	-31.6837E-3
-1.97849E-3	-66.5511E-12	793.179E-3	-15.9541E-3	-65.9622E-12	800.175E-3	-10.7992E-3
-1.98349E-3	-66.8602E-12	798.487E-3	-30.7963E-3	-66.7681E-12	782.426E-3	2.49425E-3
-1.98849E-3	-67.1050E-12	810.690E-3	-31.0630E-3	-67.0611E-12	798.430E-3	-9.25273E-3
-1.99350E-3	-67.5432E-12	817.139E-3	-13.2473E-3	-67.8237E-12	828.876E-3	-23.1871E-3
-1.99850E-3	-67.7072E-12	826.001E-3	4.07112E-3	-68.5142E-12	849.806E-3	-14.3897E-3
-2.00350E-3	-68.0239E-12	832.334E-3	3.93476E-3	-69.1601E-12	846.356E-3	-52.7081E-6
-2.00850E-3	-68.1545E-12	830.130E-3	-2.74406E-3	-69.6137E-12	831.101E-3	272.862E-6
-2.01351E-3	-68.3415E-12	828.871E-3	-10.3960E-3	-70.0262E-12	824.589E-3	-11.0637E-3
-2.01851E-3	-68.4777E-12	813.054E-3	-22.8285E-3	-70.1735E-12	824.079E-3	-21.3469E-3
-2.02351E-3	-68.1978E-12	791.685E-3	-30.2419E-3	-70.5344E-12	817.847E-3	-18.1155E-3
-2.02851E-3	-68.6658E-12	797.164E-3	-38.6137E-3	-70.4718E-12	807.062E-3	-7.61107E-3
-2.03352E-3	-68.9271E-12	810.453E-3	-44.0107E-3	-70.2937E-12	811.884E-3	-8.64740E-3
-2.03852E-3	-69.0480E-12	800.232E-3	-29.9103E-3	-70.6096E-12	815.321E-3	-22.1139E-3
-2.04352E-3	-69.7257E-12	790.691E-3	-19.4099E-3	-70.4034E-12	812.379E-3	-19.9883E-3
-2.04852E-3	-70.4181E-12	797.541E-3	-14.0628E-3	-69.9705E-12	826.735E-3	-1.43662E-3
-2.05353E-3	-71.1891E-12	795.104E-3	513.933E-6	-69.9860E-12	818.020E-3	729.440E-6
-2.05853E-3	-71.3714E-12	788.682E-3	4.53252E-3	-70.4769E-12	784.244E-3	-11.0566E-3
-2.06353E-3	-72.2970E-12	790.176E-3	-5.59310E-3	-70.4782E-12	780.653E-3	-15.6074E-3
-2.06853E-3	-72.7314E-12	793.930E-3	-8.06383E-3	-70.5099E-12	794.397E-3	-22.9874E-3
-2.07354E-3	-73.1294E-12	801.503E-3	-1.22449E-3	-71.1598E-12	800.136E-3	-17.6146E-3
-2.07854E-3	-73.2225E-12	813.795E-3	-1.20537E-3	-71.8655E-12	808.370E-3	4.09457E-3
-2.08354E-3	-73.6896E-12	822.016E-3	-7.68468E-3	-72.3487E-12	809.954E-3	10.0849E-3
-2.08854E-3	-73.7320E-12	817.140E-3	-14.2129E-3	-72.8132E-12	796.918E-3	3.51815E-3
-2.09355E-3	-73.9406E-12	810.293E-3	-17.0176E-3	-73.7012E-12	799.215E-3	-14.6306E-3
-2.09855E-3	-73.9020E-12	819.020E-3	-16.2342E-3	-74.4314E-12	802.181E-3	-19.1359E-3
-2.10355E-3	-73.8404E-12	821.603E-3	-26.1015E-3	-74.7215E-12	785.120E-3	-4.20536E-3
-2.10855E-3	-73.8753E-12	809.325E-3	-39.8670E-3	-75.0683E-12	781.042E-3	-4.21810E-3
-2.11356E-3	-73.8273E-12	796.874E-3	-38.0402E-3	-75.1809E-12	784.828E-3	-15.1927E-3
-2.11856E-3	-73.5884E-12	777.359E-3	-24.4642E-3	-75.3945E-12	779.337E-3	-27.8574E-3
-2.12356E-3	-73.7594E-12	770.635E-3	-12.6562E-3	-75.1555E-12	783.384E-3	-38.2410E-3
-2.12856E-3	-74.1561E-12	787.399E-3	-21.4115E-3	-75.1690E-12	781.029E-3	-42.7761E-3
-2.13357E-3	-74.1068E-12	794.686E-3	-40.9171E-3	-75.1398E-12	758.374E-3	-43.3190E-3
-2.13857E-3	-74.4888E-12	776.046E-3	-34.7619E-3	-75.1308E-12	752.250E-3	-39.5156E-3
-2.14357E-3	-75.1580E-12	754.857E-3	-11.3087E-3	-74.6928E-12	768.018E-3	-37.8087E-3
-2.14857E-3	-75.5822E-12	760.699E-3	7.10894E-3	-74.6941E-12	776.671E-3	-32.7651E-3
-2.15358E-3	-75.9888E-12	779.616E-3	14.8626E-3	-75.1518E-12	775.860E-3	-17.0807E-3
-2.15858E-3	-76.7820E-12	780.071E-3	6.56109E-3	-75.7364E-12	771.727E-3	-7.66151E-3
-2.16358E-3	-77.4712E-12	784.168E-3	-4.44564E-3	-75.9403E-12	753.931E-3	-3.12391E-3
-2.16858E-3	-77.9174E-12	795.150E-3	-17.9232E-3	-76.4751E-12	738.210E-3	2.36212E-3
-2.17359E-3	-78.0148E-12	786.368E-3	-25.5208E-3	-77.4680E-12	750.639E-3	-6.18716E-3
-2.17859E-3	-78.1077E-12	783.471E-3	-20.7050E-3	-77.8752E-12	763.390E-3	-17.4504E-3
-2.18359E-3	-78.3941E-12	802.034E-3	-17.5808E-3	-78.2641E-12	769.746E-3	-12.3765E-3
-2.18859E-3	-78.5296E-12	800.967E-3	-13.5938E-3	-78.9268E-12	789.090E-3	-2.17935E-3
-2.19360E-3	-77.8687E-12	772.092E-3	-8.42490E-3	-79.3088E-12	783.482E-3	-1.49864E-3
-2.19860E-3	-77.8820E-12	746.065E-3	-3.71730E-3	-79.5115E-12	754.935E-3	-3.73478E-3
-2.20360E-3	-77.9916E-12	735.995E-3	389.117E-6	-79.8059E-12	758.177E-3	-188.642E-6
-2.20860E-3	-78.2038E-12	750.252E-3	-4.53707E-3	-79.8202E-12	779.653E-3	3.02524E-3
-2.21361E-3	-77.8058E-12	769.987E-3	-16.9121E-3	-80.2657E-12	773.727E-3	2.15825E-3
-2.21861E-3	-78.4140E-12	771.380E-3	-29.7763E-3	-79.9822E-12	756.266E-3	-12.3842E-3
-2.22361E-3	-78.8759E-12	751.660E-3	-40.3092E-3	-79.9717E-12	752.147E-3	-30.3379E-3
-2.22861E-3	-78.9323E-12	734.761E-3	-38.0464E-3	-80.2405E-12	756.620E-3	-24.5975E-3
-2.23362E-3	-79.2857E-12	748.555E-3	-29.5230E-3	-80.5832E-12	760.466E-3	-15.0895E-3
-2.23862E-3	-79.9781E-12	761.224E-3	-29.4582E-3	-80.4304E-12	756.161E-3	-12.7023E-3
-2.24362E-3	-80.5846E-12	758.440E-3	-32.7990E-3	-80.6849E-12	756.056E-3	-3.42025E-3
-2.24862E-3	-81.2762E-12	763.995E-3	-28.5311E-3	-81.1473E-12	760.263E-3	-4.46974E-3
-2.25363E-3	-81.7069E-12	765.223E-3	-17.9362E-3	-81.6135E-12	767.119E-3	-24.5289E-3
-2.25863E-3	-81.9937E-12	765.281E-3	-6.50633E-3	-81.5334E-12	771.668E-3	-27.2044E-3
-2.26363E-3	-82.5370E-12	775.785E-3	-2.76151E-3	-81.9236E-12	757.366E-3	-14.6096E-3
-2.26863E-3	-82.4652E-12	781.536E-3	-228.585E-6	-82.3159E-12	736.872E-3	-18.5637E-3
-2.27364E-3	-82.4360E-12	779.814E-3	6.42112E-3	-82.6441E-12	734.128E-3	-20.6768E-3
-2.27864E-3	-82.6526E-12	770.082E-3	2.20383E-3	-82.5151E-12	739.782E-3	-21.7714E-3
-2.28364E-3	-82.8267E-12	759.018E-3	2.81720E-3	-82.9074E-12	736.384E-3	-34.0001E-3
-2.28864E-3	-82.5762E-12	750.419E-3	18.3464E-3	-83.3125E-12	739.860E-3	-26.6525E-3
-2.29365E-3	-82.5377E-12	740.793E-3	14.0924E-3	-83.0539E-12	745.350E-3	-6.62033E-3
-2.29865E-3	-82.8127E-12	733.248E-3	-9.97857E-3	-82.9738E-12	740.009E-3	-4.99732E-3
-2.30365E-3	-82.8677E-12	725.026E-3	-23.7618E-3	-83.3619E-12	738.023E-3	-6.71367E-3
-2.30865E-3	-82.9303E-12	722.864E-3	-30.0477E-3	-83.3306E-12	737.540E-3	903.905E-6
-2.31366E-3	-83.4528E-12	726.934E-3	-34.8066E-3	-83.4722E-12	735.432E-3	7.96906E-3
-2.31866E-3	-83.9232E-12	727.493E-3	-23.5640E-3	-83.3782E-12	736.116E-3	4.31635E-3
-2.32366E-3	-84.2232E-12	731.673E-3	508.170E-6	-83.9834E-12	737.342E-3	402.475E-6
-2.32866E-3	-84.7678E-12	738.289E-3	24.1031E-3	-84.5311E-12	743.380E-3	-807.173E-6
-2.33367E-3	-84.8304E-12	745.001E-3	26.4649E-3	-84.6179E-12	742.731E-3	3.02059E-3
-2.33867E-3	-85.5617E-12	750.374E-3	-4.04500E-3	-84.9094E-12	732.266E-3	16.4304E-3
-2.34367E-3	-86.2952E-12	744.367E-3	-32.1144E-3	-85.6507E-12	726.995E-3	1.31845E-3
-2.34867E-3	-86.3671E-12	738.845E-3	-33.0980E-3	-86.2691E-12	730.269E-3	-32.2042E-3
-2.35368E-3	-86.6094E-12	736.675E-3	-21.9388E-3	-86.7421E-12	749.822E-3	-32.5721E-3
-2.35868E-3	-87.1933E-12	730.673E-3	-12.0749E-3	-87.3064E-12	751.884E-3	-8.90872E-3
-2.36368E-3	-87.2465E-12	736.592E-3	-12.6068E-3	-87.8556E-12	722.775E-3	6.05012E-3
-2.36868E-3	-87.0818E-12	750.996E-3	-21.9338E-3	-88.1378E-12	714.289E-3	6.36217E-3
-2.37369E-3	-87.3204E-12	747.698E-3	-19.0830E-3	-87.7117E-12	734.718E-3	-13.1893E-3
-2.37869E-3	-87.2201E-12	733.515E-3	-22.9251E-3	-87.5136E-12	749.716E-3	-40.5796E-3
-2.38369E-3	-87.3842E-12	733.505E-3	-47.9014E-3	-87.4493E-12	748.820E-3	-39.6011E-3
-2.38869E-3	-87.2936E-12	733.611E-3	-48.6579E-3	-87.5329E-12	740.240E-3	-26.4977E-3
-2.39370E-3	-87.6945E-12	721.372E-3	-24.7200E-3	-87.2002E-12	731.762E-3	-19.8755E-3
-2.39870E-3	-88.0651E-12	727.704E-3	-11.9832E-3	-87.1640E-12	733.109E-3	-13.9913E-3
-2.40370E-3	-88.5965E-12	743.921E-3	1.46061E-3	-87.6692E-12	739.312E-3	-16.9791E-3
-2.40870E-3	-88.3423E-12	739.007E-3	16.6614E-3	-88.0957E-12	734.741E-3	-11.1592E-3
-2.41371E-3	-89.2454E-12	727.070E-3	14.9389E-3	-88.5188E-12	735.695E-3	9.26455E-3
-2.41871E-3	-89.7486E-12	729.117E-3	2.10202E-3	-88.9738E-12	748.429E-3	16.5712E-3
-2.42371E-3	-89.8145E-12	743.089E-3	-12.0803E-3	-89.9705E-12	751.257E-3	4.69387E-3
-2.42871E-3	-90.3406E-12	759.662E-3	-18.3887E-3	-90.8755E-12	745.335E-3	-10.7101E-3
-2.43372E-3	-91.2273E-12	761.939E-3	-17.6473E-3	-91.2804E-12	739.045E-3	-24.3173E-3
-2.43872E-3	-91.4207E-12	746.078E-3	-23.4221E-3	-91.7956E-12	733.581E-3	-31.8386E-3
-2.44372E-3	-91.5188E-12	743.869E-3	-35.9360E-3	-92.4345E-12	744.579E-3	-29.2784E-3
-2.44872E-3	-91.3938E-12	754.096E-3	-27.5595E-3	-92.7383E-12	750.536E-3	-20.7202E-3
-2.45373E-3	-91.7934E-12	755.628E-3	3.26294E-3	-92.8250E-12	731.706E-3	-7.14112E-3
-2.45873E-3	-91.9088E-12	752.948E-3	11.1485E-3	-92.8844E-12	724.251E-3	10.1822E-3
-2.46373E-3	-92.1541E-12	744.925E-3	-4.23738E-3	-93.0901E-12	732.839E-3	5.92650E-3
-2.46873E-3	-92.2092E-12	740.932E-3	-18.6663E-3	-92.5018E-12	715.135E-3	-14.9729E-3
-2.47374E-3	-92.5563E-12	741.937E-3	-39.5821E-3	-91.9757E-12	682.942E-3	-14.4308E-3
-2.47874E-3	-92.7648E-12	738.256E-3	-48.0748E-3	-92.0543E-12	690.439E-3	-7.25661E-3
-2.48374E-3	-92.7352E-12	724.952E-3	-30.9634E-3	-91.6805E-12	719.379E-3	-12.3000E-3
-2.48874E-3	-92.9945E-12	714.869E-3	-26.3487E-3	-91.4399E-12	726.773E-3	-11.0804E-3
-2.49375E-3	-93.4910E-12	729.984E-3	-24.8771E-3	-91.3324E-12	725.692E-3	-10.7621E-3
-2.49875E-3	-93.7830E-12	743.298E-3	-13.0225E-3	-91.7963E-12	720.871E-3	-28.7904E-3
-2.50375E-3	-93.8154E-12	737.184E-3	-4.07556E-3	-92.6134E-12	712.077E-3	-42.6316E-3
-2.50875E-3	-94.3850E-12	742.565E-3	10.9348E-3	-93.0936E-12	712.358E-3	-37.0899E-3
-2.51376E-3	-94.7374E-12	753.506E-3	10.3789E-3	-93.7842E-12	714.854E-3	-28.5700E-3
-2.51876E-3	-94.7785E-12	746.090E-3	-10.4606E-3	-94.3735E-12	722.138E-3	-4.05584E-3
-2.52376E-3	-94.5299E-12	744.061E-3	-32.1711E-3	-95.1879E-12	716.452E-3	14.2555E-3
-2.52876E-3	-94.9155E-12	742.989E-3	-48.4290E-3	-95.7846E-12	690.564E-3	-11.4513E-3
-2.53377E-3	-95.1531E-12	731.741E-3	-40.5618E-3	-95.9784E-12	686.677E-3	-33.3336E-3
-2.53877E-3	-94.9519E-12	734.677E-3	-11.5510E-3	-96.1548E-12	712.073E-3	-28.9579E-3
-2.54377E-3	-94.5764E-12	745.084E-3	5.89638E-3	-96.6712E-12	713.223E-3	-23.3778E-3
-2.54877E-3	-94.8722E-12	748.537E-3	-6.83474E-3	-96.4648E-12	695.037E-3	-19.4836E-3
-2.55378E-3	-95.3220E-12	744.711E-3	-30.9494E-3	-96.2201E-12	692.862E-3	-17.0623E-3
-2.55878E-3	-95.1068E-12	737.097E-3	-35.3733E-3	-95.7695E-12	687.873E-3	-20.7307E-3
-2.56378E-3	-95.5289E-12	733.775E-3	-22.0216E-3	-95.6677E-12	681.585E-3	-10.1735E-3
-2.56878E-3	-96.1983E-12	728.350E-3	-11.4717E-3	-95.1174E-12	682.295E-3	13.9802E-3
-2.57379E-3	-96.6321E-12	712.741E-3	-3.49666E-3	-95.4126E-12	673.136E-3	15.7550E-3
-2.57879E-3	-97.1285E-12	700.352E-3	-1.60987E-3	-95.5787E-12	662.034E-3	5.08700E-3
-2.58379E-3	-97.4891E-12	708.416E-3	-12.2556E-3	-95.4809E-12	684.319E-3	-3.76279E-3
-2.58879E-3	-98.0220E-12	720.977E-3	-18.8648E-3	-95.6821E-12	720.157E-3	-13.2857E-3
-2.59380E-3	-98.1987E-12	722.039E-3	-16.7423E-3	-96.7474E-12	729.415E-3	-4.67185E-3
-2.59880E-3	-98.2020E-12	722.785E-3	-13.3248E-3	-97.3344E-12	727.993E-3	7.69275E-3
-2.60380E-3	-98.5039E-12	728.760E-3	-12.9943E-3	-98.5297E-12	728.192E-3	-2.84049E-3
-2.60880E-3	-98.6650E-12	737.200E-3	-17.9018E-3	-99.1515E-12	721.602E-3	-19.7709E-3
-2.61381E-3	-98.7475E-12	739.044E-3	-19.6588E-3	-100.334E-12	714.018E-3	-14.9777E-3
-2.61881E-3	-98.6800E-12	723.943E-3	-18.7672E-3	-100.971E-12	706.116E-3	-13.7339E-3
-2.62381E-3	-98.6452E-12	700.997E-3	-19.4766E-3	-101.229E-12	700.469E-3	-27.2317E-3
-2.62881E-3	-98.4855E-12	682.825E-3	-10.7000E-3	-100.935E-12	703.126E-3	-18.3640E-3
-2.63382E-3	-98.3100E-12	682.214E-3	-6.33014E-3	-101.378E-12	708.138E-3	-3.08159E-3
-2.63882E-3	-98.3114E-12	687.507E-3	-24.4656E-3	-101.385E-12	710.715E-3	-7.29302E-3
-2.64382E-3	-98.4253E-12	693.164E-3	-32.8345E-3	-100.872E-12	718.044E-3	-7.99683E-3
-2.64882E-3	-99.0303E-12	694.908E-3	-11.9577E-3	-100.744E-12	722.732E-3	-6.29362E-3
-2.65383E-3	-99.0049E-12	677.061E-3	3.76079E-3	-100.647E-12	705.808E-3	-6.29624E-3
-2.65883E-3	-99.6899E-12	668.105E-3	-14.1219E-3	-100.256E-12	683.669E-3	398.386E-6
-2.66383E-3	-100.524E-12	674.377E-3	-34.0683E-3	-100.096E-12	676.636E-3	-7.28770E-3
-2.66883E-3	-101.668E-12	677.254E-3	-32.6596E-3	-100.310E-12	678.254E-3	-19.1122E-3
-2.67384E-3	-102.373E-12	690.142E-3	-33.5788E-3	-100.251E-12	682.870E-3	-10.6979E-3
-2.67884E-3	-103.159E-12	713.416E-3	-42.0651E-3	-100.929E-12	699.613E-3	256.776E-6
-2.68384E-3	-103.826E-12	720.036E-3	-51.7040E-3	-101.415E-12	711.922E-3	9.19445E-3
-2.68884E-3	-104.394E-12	707.211E-3	-53.9697E-3	-101.993E-12	710.840E-3	24.5724E-3
-2.69385E-3	-104.310E-12	698.803E-3	-46.5077E-3	-102.667E-12	722.868E-3	21.8419E-3
-2.69885E-3	-104.466E-12	711.820E-3	-36.8287E-3	-103.724E-12	728.691E-3	-954.031E-6
-2.70385E-3	-104.664E-12	736.682E-3	-22.8076E-3	-103.745E-12	716.810E-3	-13.3565E-3
-2.70885E-3	-104.763E-12	741.192E-3	-16.3927E-3	-104.672E-12	714.872E-3	-3.01692E-3
-2.71386E-3	-104.128E-12	727.950E-3	-24.8841E-3	-105.506E-12	711.117E-3	13.6915E-3
-2.71886E-3	-103.997E-12	720.450E-3	-35.3567E-3	-105.110E-12	706.784E-3	17.3244E-3
-2.72386E-3	-103.582E-12	718.173E-3	-39.4054E-3	-104.978E-12	711.367E-3	10.7119E-3
-2.72886E-3	-103.430E-12	715.029E-3	-34.0213E-3	-105.145E-12	694.771E-3	-7.99475E-3
-2.73387E-3	-103.049E-12	707.065E-3	-20.3876E-3	-104.827E-12	672.752E-3	-16.6644E-3
-2.73887E-3	-102.797E-12	703.562E-3	-15.5406E-3	-104.131E-12	695.268E-3	-746.408E-6
-2.74387E-3	-103.045E-12	699.167E-3	-22.9561E-3	-103.984E-12	724.644E-3	1.59371E-3
-2.74887E-3	-103.828E-12	678.259E-3	-19.5560E-3	-104.074E-12	713.259E-3	-6.70871E-3
-2.75388E-3	-104.152E-12	664.859E-3	-13.3312E-3	-104.144E-12	687.246E-3	-2.70908E-3
-2.75888E-3	-104.732E-12	674.181E-3	-15.5188E-3	-104.461E-12	680.889E-3	5.85352E-3
-2.76388E-3	-105.918E-12	691.195E-3	-21.2533E-3	-104.425E-12	699.343E-3	5.33191E-3
-2.76888E-3	-106.602E-12	701.658E-3	-25.7361E-3	-105.121E-12	717.291E-3	-6.20484E-3
-2.77389E-3	-106.888E-12	701.527E-3	-26.2852E-3	-105.848E-12	719.963E-3	-14.1573E-3
-2.77889E-3	-107.759E-12	696.834E-3	-20.8605E-3	-106.798E-12	727.622E-3	-20.4673E-3
-2.78389E-3	-108.303E-12	701.067E-3	-12.0478E-3	-107.160E-12	732.070E-3	-31.5386E-3
-2.78889E-3	-108.176E-12	722.849E-3	-17.8181E-3	-107.931E-12	708.024E-3	-35.3684E-3
-2.79390E-3	-108.585E-12	735.185E-3	-31.1218E-3	-108.295E-12	685.098E-3	-33.1838E-3
-2.79890E-3	-108.751E-12	733.467E-3	-32.0337E-3	-108.887E-12	689.209E-3	-28.9310E-3
-2.80390E-3	-108.460E-12	734.326E-3	-16.9340E-3	-108.631E-12	705.911E-3	-13.4893E-3
-2.80890E-3	-108.287E-12	724.257E-3	-8.97803E-3	-108.823E-12	712.096E-3	-7.00176E-3
-2.81391E-3	-107.806E-12	712.312E-3	-16.2522E-3	-108.550E-12	705.532E-3	-20.7408E-3
-2.81891E-3	-108.034E-12	710.901E-3	-18.3696E-3	-108.792E-12	697.515E-3	-29.5884E-3
-2.82391E-3	-107.845E-12	711.502E-3	-28.3017E-3	-108.263E-12	694.010E-3	-18.8010E-3
-2.82891E-3	-107.477E-12	715.125E-3	-30.2258E-3	-108.582E-12	708.922E-3	-6.66534E-3
-2.83392E-3	-107.649E-12	713.984E-3	-2.56669E-3	-108.492E-12	718.564E-3	-19.0331E-3
-2.83892E-3	-108.010E-12	700.053E-3	13.6497E-3	-108.300E-12	703.058E-3	-34.5879E-3
-2.84392E-3	-108.192E-12	695.015E-3	817.260E-6	-108.836E-12	693.223E-3	-30.1816E-3
-2.84892E-3	-108.591E-12	698.637E-3	-13.7491E-3	-109.230E-12	707.569E-3	-18.3774E-3
-2.85393E-3	-109.303E-12	695.986E-3	-23.3718E-3	-109.971E-12	723.875E-3	-10.8538E-3
-2.85893E-3	-110.071E-12	704.539E-3	-34.8379E-3	-110.890E-12	713.542E-3	-12.3494E-3
-2.86393E-3	-110.962E-12	721.811E-3	-27.7966E-3	-111.800E-12	691.885E-3	-9.19874E-3
-2.86893E-3	-111.552E-12	722.457E-3	-12.0499E-3	-112.401E-12	693.359E-3	-10.2560E-3
-2.87394E-3	-112.073E-12	706.295E-3	-4.61770E-3	-112.853E-12	703.926E-3	-13.5970E-3
-2.87894E-3	-112.032E-12	696.859E-3	-2.90315E-3	-112.759E-12	702.716E-3	-6.55620E-3
-2.88394E-3	-112.415E-12	693.987E-3	-9.87677E-3	-113.315E-12	686.396E-3	-824.847E-6
-2.88894E-3	-112.508E-12	700.845E-3	-7.53802E-3	-113.297E-12	661.388E-3	1.78789E-3
-2.89395E-3	-112.339E-12	722.423E-3	1.42678E-3	-112.827E-12	663.783E-3	-5.90439E-3
-2.89895E-3	-112.683E-12	722.377E-3	-8.55873E-3	-112.252E-12	689.546E-3	-11.3414E-3
-2.90395E-3	-112.183E-12	701.731E-3	-25.0663E-3	-112.152E-12	689.850E-3	1.39255E-3
-2.90895E-3	-112.267E-12	688.837E-3	-21.6317E-3	-111.623E-12	676.163E-3	23.3872E-3
-2.91396E-3	-112.424E-12	688.728E-3	-7.31126E-3	-111.254E-12	667.815E-3	32.4979E-3
-2.91896E-3	-112.598E-12	701.439E-3	-9.61789E-3	-111.011E-12	648.835E-3	25.2964E-3
-2.92396E-3	-111.937E-12	708.957E-3	-12.9597E-3	-111.122E-12	643.840E-3	14.4198E-3
-2.92896E-3	-112.628E-12	695.878E-3	-12.3666E-3	-111.726E-12	663.503E-3	-1.82887E-3
-2.93397E-3	-113.105E-12	682.069E-3	-16.7683E-3	-112.510E-12	680.558E-3	-12.1220E-3
-2.93897E-3	-113.238E-12	675.624E-3	-6.05471E-3	-113.091E-12	695.244E-3	-21.0083E-3
-2.94397E-3	-113.216E-12	670.806E-3	3.19594E-3	-114.268E-12	706.532E-3	-36.0621E-3
-2.94897E-3	-114.106E-12	669.125E-3	-16.6214E-3	-115.231E-12	704.500E-3	-50.0490E-3
-2.95398E-3	-114.552E-12	683.724E-3	-46.3852E-3	-116.202E-12	715.367E-3	-47.1895E-3
-2.95898E-3	-114.865E-12	709.423E-3	-51.2717E-3	-117.175E-12	726.799E-3	-23.6308E-3
-2.96398E-3	-115.065E-12	713.261E-3	-50.1864E-3	-118.129E-12	721.352E-3	-11.6708E-3
-2.96898E-3	-115.008E-12	705.946E-3	-58.5104E-3	-118.154E-12	716.661E-3	-23.9438E-3
-2.97399E-3	-115.019E-12	701.717E-3	-43.2112E-3	-117.770E-12	699.581E-3	-39.8474E-3
-2.97899E-3	-115.667E-12	686.491E-3	-21.6548E-3	-117.909E-12	689.717E-3	-37.2221E-3
-2.98399E-3	-115.342E-12	685.434E-3	-14.0696E-3	-117.582E-12	715.803E-3	-25.6740E-3
-2.98899E-3	-115.250E-12	695.777E-3	-5.43342E-3	-116.344E-12	725.258E-3	-28.5961E-3
-2.99400E-3	-115.788E-12	675.143E-3	-13.9033E-3	-115.594E-12	698.231E-3	-34.7345E-3
-2.99900E-3	-116.291E-12	647.383E-3	-35.9831E-3	-114.969E-12	684.457E-3	-31.6259E-3
-3.00400E-3	-116.518E-12	652.867E-3	-43.4986E-3	-114.916E-12	700.981E-3	-26.6323E-3
-3.00900E-3	-117.144E-12	672.318E-3	-38.8358E-3	-114.687E-12	710.776E-3	-11.8382E-3
-3.01401E-3	-117.637E-12	682.508E-3	-32.8897E-3	-114.537E-12	696.760E-3	3.42494E-3
-3.01901E-3	-118.385E-12	691.116E-3	-15.0169E-3	-115.216E-12	683.548E-3	2.04180E-3
-3.02401E-3	-118.682E-12	704.470E-3	-2.76770E-3	-116.239E-12	676.909E-3	-17.8131E-3
-3.02901E-3	-119.292E-12	703.794E-3	-7.79590E-3	-117.214E-12	687.971E-3	-30.9398E-3
-3.03402E-3	-119.632E-12	684.269E-3	-2.90498E-3	-118.305E-12	708.374E-3	-15.4281E-3
-3.03902E-3	-120.069E-12	666.915E-3	4.73105E-3	-119.395E-12	703.632E-3	-4.83344E-3
-3.04402E-3	-119.903E-12	666.503E-3	9.33249E-3	-120.797E-12	678.337E-3	-13.9360E-3
-3.04902E-3	-120.242E-12	688.256E-3	10.4844E-3	-121.650E-12	663.750E-3	-16.4625E-3
-3.05403E-3	-120.064E-12	701.692E-3	3.24569E-3	-122.179E-12	671.021E-3	-10.3967E-3
-3.05903E-3	-119.740E-12	685.066E-3	-9.74897E-3	-122.514E-12	694.523E-3	-25.3428E-3
-3.06403E-3	-119.252E-12	662.872E-3	-14.0746E-3	-122.782E-12	718.941E-3	-52.8210E-3
-3.06903E-3	-119.655E-12	648.390E-3	3.09126E-3	-122.380E-12	710.684E-3	-50.1741E-3
-3.07404E-3	-119.752E-12	656.171E-3	15.3271E-3	-121.856E-12	687.073E-3	-28.8429E-3
-3.07904E-3	-119.436E-12	673.099E-3	8.87202E-3	-121.397E-12	680.967E-3	-18.2852E-3
-3.08404E-3	-119.286E-12	670.335E-3	-11.6746E-3	-120.480E-12	666.418E-3	-19.1528E-3
-3.08904E-3	-120.156E-12	673.287E-3	-33.6135E-3	-119.674E-12	659.707E-3	-28.0634E-3
-3.09405E-3	-120.434E-12	686.870E-3	-37.3444E-3	-119.099E-12	674.418E-3	-22.6097E-3
-3.09905E-3	-121.157E-12	688.491E-3	-35.6901E-3	-118.731E-12	679.502E-3	-3.11296E-3
-3.10405E-3	-121.673E-12	679.833E-3	-34.0892E-3	-118.928E-12	685.380E-3	5.23388E-3
-3.10905E-3	-123.192E-12	672.015E-3	-23.3235E-3	-118.629E-12	700.503E-3	2.48506E-3
-3.11406E-3	-124.159E-12	676.295E-3	-12.4772E-3	-119.515E-12	695.077E-3	-10.4204E-3
-3.11906E-3	-124.558E-12	693.323E-3	-17.5261E-3	-120.759E-12	673.438E-3	-25.8517E-3
-3.12406E-3	-124.515E-12	704.569E-3	-28.8907E-3	-121.441E-12	667.859E-3	-21.0010E-3
-3.12906E-3	-125.666E-12	691.308E-3	-24.0727E-3	-121.673E-12	669.033E-3	-14.9353E-3
-3.13407E-3	-125.322E-12	675.442E-3	-11.0659E-3	-123.096E-12	678.335E-3	-18.8807E-3
-3.13907E-3	-124.726E-12	679.628E-3	-5.95153E-3	-124.176E-12	699.847E-3	-21.8989E-3
-3.14407E-3	-124.356E-12	681.124E-3	-11.1972E-3	-124.930E-12	714.470E-3	-21.4699E-3
-3.14907E-3	-124.170E-12	678.519E-3	-24.9956E-3	-125.003E-12	724.152E-3	-8.32217E-3
-3.15408E-3	-123.564E-12	705.363E-3	-22.7014E-3	-125.579E-12	714.307E-3	6.48298E-3
-3.15908E-3	-122.664E-12	724.525E-3	-1.19333E-3	-125.632E-12	679.357E-3	10.5453E-3
-3.16408E-3	-122.634E-12	697.749E-3	347.700E-6	-125.325E-12	669.029E-3	2.32955E-3
-3.16908E-3	-121.810E-12	674.737E-3	-12.6865E-3	-124.703E-12	680.437E-3	-8.89040E-3
-3.17409E-3	-121.845E-12	684.065E-3	-17.8619E-3	-124.822E-12	680.173E-3	-15.3724E-3
-3.17909E-3	-122.204E-12	695.137E-3	-8.72863E-3	-124.565E-12	670.042E-3	-20.2414E-3
-3.18409E-3	-122.665E-12	678.402E-3	3.60957E-3	-124.721E-12	672.457E-3	-21.2309E-3
-3.18909E-3	-123.396E-12	657.798E-3	-11.5815E-3	-124.411E-12	682.913E-3	-18.6484E-3
-3.19410E-3	-124.396E-12	661.975E-3	-28.4102E-3	-125.017E-12	665.806E-3	-25.8271E-3
-3.19910E-3	-125.206E-12	678.174E-3	-24.0805E-3	-125.334E-12	662.353E-3	-35.1036E-3
-3.20410E-3	-126.559E-12	697.591E-3	-9.50352E-3	-125.539E-12	691.436E-3	-13.2559E-3
-3.20910E-3	-127.062E-12	706.987E-3	1.41903E-3	-125.888E-12	705.081E-3	14.5998E-3
-3.21411E-3	-127.387E-12	688.070E-3	-4.48923E-3	-127.125E-12	701.883E-3	15.5876E-3
-3.21911E-3	-127.972E-12	663.953E-3	-7.34256E-3	-127.679E-12	698.552E-3	16.3978E-3
-3.22411E-3	-128.428E-12	657.056E-3	-4.23063E-3	-127.943E-12	694.909E-3	17.3275E-3
-3.22911E-3	-128.184E-12	654.203E-3	-3.17780E-3	-128.320E-12	690.790E-3	5.19509E-3
-3.23412E-3	-127.631E-12	645.915E-3	2.99603E-3	-128.733E-12	687.024E-3	-9.30777E-3
-3.23912E-3	-127.506E-12	654.836E-3	-1.14997E-3	-128.513E-12	684.521E-3	-20.4641E-3
-3.24412E-3	-127.000E-12	669.889E-3	-8.14234E-3	-128.409E-12	688.810E-3	-26.3182E-3
-3.24912E-3	-126.814E-12	671.982E-3	-3.95277E-3	-128.514E-12	691.799E-3	-27.0942E-3
-3.25413E-3	-126.238E-12	676.892E-3	-4.22941E-3	-128.226E-12	678.136E-3	-18.5011E-3
-3.25913E-3	-126.273E-12	674.971E-3	-11.0370E-3	-128.262E-12	667.949E-3	-14.7440E-3
-3.26413E-3	-126.767E-12	673.283E-3	-21.2276E-3	-128.385E-12	675.827E-3	-39.4250E-3
-3.26913E-3	-126.981E-12	677.182E-3	-34.9443E-3	-128.515E-12	687.505E-3	-53.0668E-3
-3.27414E-3	-127.261E-12	671.246E-3	-29.5755E-3	-128.665E-12	692.623E-3	-18.8951E-3
-3.27914E-3	-128.253E-12	656.489E-3	-2.21130E-3	-129.278E-12	690.110E-3	1.59844E-3
-3.28414E-3	-129.542E-12	631.813E-3	-5.34429E-3	-129.399E-12	686.935E-3	-16.3451E-3
-3.28914E-3	-130.123E-12	619.990E-3	-35.1674E-3	-130.463E-12	685.881E-3	-28.0482E-3
-3.29415E-3	-130.779E-12	641.201E-3	-43.4850E-3	-131.278E-12	684.544E-3	-11.5447E-3
-3.29915E-3	-131.945E-12	669.798E-3	-39.5334E-3	-132.003E-12	682.193E-3	12.3710E-3
-3.30415E-3	-131.945E-12	686.955E-3	-31.4129E-3	-131.711E-12	674.004E-3	15.5413E-3
-3.30915E-3	-132.157E-12	686.161E-3	-12.0262E-3	-132.147E-12	672.427E-3	5.26234E-3
-3.31416E-3	-132.228E-12	677.943E-3	-18.5606E-3	-132.596E-12	682.938E-3	-4.32855E-3
-3.31916E-3	-131.612E-12	691.377E-3	-41.9741E-3	-132.160E-12	676.877E-3	-3.02101E-3
-3.32416E-3	-131.767E-12	701.397E-3	-30.3015E-3	-131.844E-12	651.956E-3	-1.50770E-3
-3.32916E-3	-131.427E-12	693.122E-3	8.06316E-3	-132.106E-12	656.743E-3	-10.8037E-3
-3.33417E-3	-130.912E-12	703.048E-3	28.6195E-3	-131.255E-12	681.692E-3	-4.10482E-3
-3.33917E-3	-130.537E-12	713.546E-3	9.00885E-3	-130.752E-12	673.246E-3	17.3585E-3
-3.34417E-3	-131.064E-12	685.553E-3	-13.7138E-3	-130.073E-12	647.577E-3	12.3151E-3
-3.34917E-3	-131.444E-12	652.958E-3	-15.3902E-3	-130.349E-12	642.503E-3	-7.57455E-3
-3.35418E-3	-131.045E-12	651.615E-3	-17.1262E-3	-130.253E-12	654.577E-3	-23.0558E-3
-3.35918E-3	-131.735E-12	660.418E-3	-18.0179E-3	-131.265E-12	665.093E-3	-51.1897E-3
-3.36418E-3	-133.520E-12	670.774E-3	-29.2119E-3	-131.806E-12	669.572E-3	-65.1153E-3
-3.36918E-3	-134.090E-12	686.535E-3	-37.7519E-3	-132.899E-12	691.267E-3	-26.3326E-3
-3.37419E-3	-134.902E-12	695.885E-3	-20.3659E-3	-134.035E-12	724.457E-3	19.6879E-3
-3.37919E-3	-135.638E-12	675.597E-3	-3.51716E-3	-135.194E-12	732.889E-3	23.4013E-3
-3.38419E-3	-135.940E-12	655.446E-3	8.52037E-3	-135.713E-12	724.607E-3	-2.07673E-3
-3.38919E-3	-135.928E-12	673.478E-3	4.20639E-3	-137.392E-12	722.705E-3	-21.9896E-3
-3.39420E-3	-136.676E-12	693.368E-3	-13.5053E-3	-138.173E-12	717.348E-3	-12.4329E-3
-3.39920E-3	-135.959E-12	708.307E-3	-12.3648E-3	-138.311E-12	697.969E-3	-8.52837E-3
-3.40420E-3	-135.471E-12	706.005E-3	-1.66675E-3	-138.379E-12	671.156E-3	-24.3670E-3
-3.40920E-3	-134.991E-12	672.014E-3	757.211E-6	-138.548E-12	664.501E-3	-17.2727E-3
-3.41421E-3	-134.955E-12	660.276E-3	-1.10179E-3	-137.141E-12	688.843E-3	-5.82798E-3
-3.41921E-3	-134.258E-12	669.407E-3	-5.53490E-3	-136.009E-12	688.933E-3	-21.3885E-3
-3.42421E-3	-134.032E-12	660.152E-3	-18.3420E-3	-135.327E-12	656.242E-3	-37.4936E-3
-3.42921E-3	-133.956E-12	640.988E-3	-20.2624E-3	-134.636E-12	639.694E-3	-35.3796E-3
-3.43422E-3	-134.781E-12	635.759E-3	-2.53273E-3	-133.795E-12	632.400E-3	-33.3352E-3
-3.43922E-3	-135.517E-12	646.964E-3	2.05767E-3	-133.384E-12	620.521E-3	-39.7705E-3
-3.44422E-3	-135.592E-12	672.189E-3	-10.1254E-3	-133.670E-12	622.603E-3	-47.5280E-3
-3.44922E-3	-136.157E-12	695.043E-3	-16.5709E-3	-134.313E-12	644.216E-3	-63.1118E-3
-3.45423E-3	-137.261E-12	687.689E-3	-15.2447E-3	-134.667E-12	667.571E-3	-62.9369E-3
-3.45923E-3	-138.613E-12	665.133E-3	-21.3463E-3	-135.456E-12	664.564E-3	-32.7394E-3
-3.46423E-3	-138.940E-12	667.942E-3	-25.3398E-3	-137.354E-12	642.353E-3	-9.00411E-3
-3.46923E-3	-139.763E-12	699.349E-3	-29.6818E-3	-138.650E-12	634.562E-3	-17.1631E-3
-3.47424E-3	-140.041E-12	701.107E-3	-35.1479E-3	-140.064E-12	643.530E-3	-37.5274E-3
-3.47924E-3	-140.333E-12	665.801E-3	-18.6205E-3	-141.426E-12	664.984E-3	-49.4420E-3
-3.48424E-3	-139.527E-12	652.339E-3	11.2941E-3	-142.298E-12	684.129E-3	-49.9782E-3
-3.48924E-3	-139.274E-12	665.362E-3	10.3619E-3	-142.628E-12	679.449E-3	-31.6011E-3
-3.49425E-3	-139.154E-12	681.646E-3	-25.9792E-3	-143.106E-12	660.215E-3	-15.4077E-3
-3.49925E-3	-139.115E-12	684.929E-3	-48.0620E-3	-143.008E-12	649.320E-3	-18.3370E-3
-3.50425E-3	-138.784E-12	680.622E-3	-52.0730E-3	-142.125E-12	663.444E-3	-18.2043E-3
-3.50925E-3	-138.299E-12	676.035E-3	-39.9278E-3	-141.417E-12	682.842E-3	-8.57237E-3
-3.51426E-3	-138.190E-12	652.776E-3	-13.8240E-3	-140.366E-12	682.519E-3	-2.55170E-3
-3.51926E-3	-138.466E-12	636.364E-3	-6.94465E-3	-139.878E-12	672.472E-3	-6.99949E-3
-3.52426E-3	-138.839E-12	637.379E-3	-14.2501E-3	-138.967E-12	682.033E-3	-31.3456E-3
-3.52926E-3	-139.354E-12	627.656E-3	-19.3780E-3	-138.123E-12	678.848E-3	-48.8194E-3
-3.53427E-3	-140.587E-12	626.506E-3	-36.8930E-3	-137.976E-12	645.939E-3	-29.8773E-3
-3.53927E-3	-141.348E-12	639.412E-3	-46.0438E-3	-138.652E-12	640.543E-3	-3.94177E-3
-3.54427E-3	-142.098E-12	639.455E-3	-43.4180E-3	-139.047E-12	649.453E-3	-5.30648E-3
-3.54927E-3	-142.706E-12	647.964E-3	-60.8587E-3	-139.490E-12	649.323E-3	-14.3462E-3
-3.55428E-3	-143.459E-12	669.476E-3	-55.8613E-3	-140.702E-12	662.068E-3	-9.90738E-3
-3.55928E-3	-143.196E-12	677.286E-3	-32.3406E-3	-141.545E-12	672.385E-3	-9.68323E-3
-3.56428E-3	-143.212E-12	664.363E-3	-47.7240E-3	-142.715E-12	659.162E-3	-7.09917E-3
-3.56928E-3	-143.638E-12	646.431E-3	-62.8168E-3	-143.164E-12	640.576E-3	2.24104E-3
-3.57429E-3	-142.828E-12	661.350E-3	-43.5948E-3	-144.397E-12	653.100E-3	-9.97376E-3
-3.57929E-3	-142.582E-12	702.929E-3	-28.2375E-3	-144.558E-12	664.817E-3	-20.0669E-3
-3.58429E-3	-142.318E-12	715.469E-3	-30.8134E-3	-145.470E-12	648.690E-3	-21.4240E-3
-3.58929E-3	-142.311E-12	692.167E-3	-38.8771E-3	-144.984E-12	637.836E-3	-29.6163E-3
-3.59430E-3	-141.425E-12	670.618E-3	-57.9059E-3	-144.922E-12	654.328E-3	-19.3593E-3
-3.59930E-3	-141.630E-12	660.292E-3	-65.8007E-3	-144.226E-12	682.084E-3	-1.61889E-3
-3.60430E-3	-141.997E-12	659.581E-3	-51.5154E-3	-143.603E-12	684.229E-3	-372.960E-6
-3.60930E-3	-142.168E-12	660.747E-3	-46.1592E-3	-143.648E-12	667.744E-3	-6.90165E-3
-3.61431E-3	-143.219E-12	662.245E-3	-32.6683E-3	-143.520E-12	660.219E-3	-15.3785E-3
-3.61931E-3	-143.787E-12	659.400E-3	-9.85662E-3	-142.811E-12	656.904E-3	-18.9657E-3
-3.62431E-3	-144.422E-12	637.878E-3	-13.1238E-3	-142.988E-12	651.232E-3	-16.2260E-3
-3.62931E-3	-145.323E-12	625.498E-3	-30.7672E-3	-143.223E-12	655.696E-3	-10.0861E-3
-3.63432E-3	-146.502E-12	631.235E-3	-44.5900E-3	-143.731E-12	672.532E-3	-3.02834E-3
-3.63932E-3	-146.199E-12	625.858E-3	-45.2638E-3	-144.394E-12	692.329E-3	-6.42767E-3
-3.64432E-3	-147.013E-12	636.734E-3	-34.3935E-3	-145.342E-12	705.971E-3	-14.6505E-3
-3.64932E-3	-147.360E-12	669.741E-3	-20.2988E-3	-145.534E-12	702.663E-3	-16.0802E-3
-3.65433E-3	-147.305E-12	684.487E-3	-16.5124E-3	-146.658E-12	682.899E-3	-18.2838E-3
-3.65933E-3	-147.038E-12	680.531E-3	-29.5729E-3	-147.267E-12	660.852E-3	-33.9894E-3
-3.66433E-3	-146.972E-12	652.730E-3	-32.3769E-3	-147.173E-12	659.082E-3	-42.4561E-3
-3.66933E-3	-146.387E-12	632.579E-3	-11.7469E-3	-147.047E-12	682.378E-3	-32.2426E-3
-3.67434E-3	-146.291E-12	654.201E-3	-2.97561E-3	-147.715E-12	699.312E-3	-28.6455E-3
-3.67934E-3	-145.651E-12	668.750E-3	-14.0197E-3	-147.346E-12	701.468E-3	-27.9611E-3
-3.68434E-3	-146.138E-12	658.094E-3	-26.3369E-3	-146.604E-12	686.114E-3	-24.1101E-3
-3.68934E-3	-146.769E-12	655.105E-3	-36.0516E-3	-146.589E-12	648.266E-3	-32.4706E-3
-3.69435E-3	-146.677E-12	660.230E-3	-21.4575E-3	-146.989E-12	635.743E-3	-31.6514E-3
-3.69935E-3	-146.760E-12	659.600E-3	-2.61404E-3	-146.742E-12	646.799E-3	-9.83643E-3
-3.70435E-3	-148.648E-12	673.324E-3	-17.9270E-3	-147.239E-12	641.144E-3	-10.6373E-3
-3.70935E-3	-149.238E-12	686.850E-3	-38.9137E-3	-147.886E-12	649.439E-3	-34.4512E-3
-3.71436E-3	-150.118E-12	678.458E-3	-31.3631E-3	-149.038E-12	671.147E-3	-41.7421E-3
-3.71936E-3	-151.213E-12	681.303E-3	-20.5025E-3	-149.736E-12	668.593E-3	-35.2588E-3
-3.72436E-3	-153.166E-12	695.998E-3	-7.93497E-3	-150.411E-12	669.143E-3	-24.7985E-3
-3.72936E-3	-152.566E-12	698.791E-3	5.50588E-3	-151.369E-12	681.953E-3	-13.4868E-3
-3.73437E-3	-153.051E-12	699.155E-3	13.7499E-3	-152.076E-12	671.687E-3	-8.53195E-3
-3.73937E-3	-153.458E-12	699.493E-3	18.5556E-3	-152.452E-12	650.488E-3	-6.61670E-3
-3.74437E-3	-153.054E-12	689.294E-3	-180.577E-6	-152.456E-12	645.907E-3	6.77576E-3
-3.74937E-3	-152.173E-12	691.607E-3	-13.3479E-3	-152.563E-12	649.854E-3	21.9727E-3
-3.75438E-3	-152.068E-12	697.322E-3	-20.6976E-3	-152.637E-12	636.239E-3	5.18926E-3
-3.75938E-3	-151.424E-12	684.051E-3	-46.2438E-3	-151.835E-12	621.725E-3	-19.9632E-3
-3.76438E-3	-150.545E-12	670.504E-3	-59.6115E-3	-151.155E-12	642.172E-3	-25.6934E-3
-3.76938E-3	-150.192E-12	671.083E-3	-38.0252E-3	-150.003E-12	665.957E-3	-35.4048E-3
-3.77439E-3	-149.896E-12	677.708E-3	-12.2472E-3	-149.845E-12	677.895E-3	-53.0924E-3
-3.77939E-3	-149.926E-12	690.391E-3	-12.8847E-3	-149.871E-12	692.225E-3	-52.3819E-3
-3.78439E-3	-150.025E-12	704.161E-3	-23.9729E-3	-149.936E-12	691.384E-3	-38.8058E-3
-3.78939E-3	-150.729E-12	689.692E-3	-19.3415E-3	-149.961E-12	677.620E-3	-22.3097E-3
-3.79440E-3	-151.229E-12	668.709E-3	-4.70577E-3	-150.904E-12	684.206E-3	-29.3486E-6
-3.79940E-3	-152.506E-12	677.926E-3	-5.15730E-3	-151.717E-12	708.822E-3	8.26333E-3
-3.80440E-3	-152.790E-12	685.158E-3	-23.4920E-3	-153.197E-12	714.024E-3	-12.5183E-3
-3.80940E-3	-153.985E-12	681.262E-3	-30.7406E-3	-154.919E-12	687.917E-3	-48.6522E-3
-3.81441E-3	-154.388E-12	686.378E-3	-20.3067E-3	-155.879E-12	659.285E-3	-60.8597E-3
-3.81941E-3	-155.262E-12	667.663E-3	-30.4127E-3	-157.008E-12	661.381E-3	-47.3190E-3
-3.82441E-3	-155.387E-12	650.655E-3	-52.0705E-3	-157.832E-12	688.043E-3	-38.8356E-3
-3.82941E-3	-155.770E-12	669.631E-3	-37.1572E-3	-158.680E-12	701.526E-3	-36.6300E-3
-3.83442E-3	-155.201E-12	673.017E-3	-2.05881E-3	-158.486E-12	690.975E-3	-35.5937E-3
-3.83942E-3	-155.834E-12	660.874E-3	-9.33872E-3	-158.080E-12	673.341E-3	-29.4231E-3
-3.84442E-3	-155.532E-12	667.028E-3	-32.0729E-3	-156.790E-12	653.021E-3	-19.9576E-3
-3.84942E-3	-155.023E-12	676.213E-3	-18.3273E-3	-156.386E-12	646.589E-3	-15.2760E-3
-3.85443E-3	-154.362E-12	678.321E-3	-1.27663E-3	-155.469E-12	663.629E-3	-13.8137E-3
-3.85943E-3	-154.582E-12	679.498E-3	-3.05262E-3	-154.146E-12	677.736E-3	-17.6097E-3
-3.86443E-3	-154.792E-12	669.190E-3	-13.3739E-3	-153.506E-12	671.203E-3	-29.1982E-3
-3.86943E-3	-154.593E-12	654.064E-3	-14.1703E-3	-153.309E-12	635.896E-3	-45.1398E-3
-3.87444E-3	-154.171E-12	658.459E-3	-2.40268E-3	-153.695E-12	600.517E-3	-61.8974E-3
-3.87944E-3	-155.117E-12	657.155E-3	5.16223E-3	-153.539E-12	602.746E-3	-63.4925E-3
-3.88444E-3	-155.300E-12	642.638E-3	6.75046E-3	-154.353E-12	628.204E-3	-30.5969E-3
-3.88944E-3	-155.600E-12	653.285E-3	-8.25242E-3	-154.658E-12	663.054E-3	10.4376E-3
-3.89445E-3	-155.918E-12	681.111E-3	-34.2648E-3	-156.646E-12	709.293E-3	31.4206E-3
-3.89945E-3	-157.115E-12	676.023E-3	-48.6388E-3	-157.655E-12	720.290E-3	41.7236E-3
-3.90445E-3	-157.364E-12	661.271E-3	-45.5933E-3	-159.804E-12	683.687E-3	39.6597E-3
-3.90945E-3	-158.616E-12	680.253E-3	-30.7442E-3	-160.329E-12	663.965E-3	15.2352E-3
-3.91446E-3	-158.053E-12	689.364E-3	-19.9929E-3	-160.919E-12	676.733E-3	-9.01452E-3
-3.91946E-3	-158.607E-12	678.497E-3	-6.75002E-3	-161.745E-12	685.405E-3	-17.9660E-3
-3.92446E-3	-158.509E-12	673.289E-3	25.6785E-3	-162.212E-12	670.257E-3	-26.1780E-3
-3.92946E-3	-158.664E-12	667.199E-3	40.5088E-3	-161.009E-12	654.330E-3	-26.9449E-3
-3.93447E-3	-158.657E-12	670.962E-3	8.60055E-3	-160.367E-12	667.670E-3	-10.4252E-3
-3.93947E-3	-158.788E-12	679.796E-3	-30.4859E-3	-160.089E-12	691.900E-3	-14.8557E-3
-3.94447E-3	-158.155E-12	675.796E-3	-50.6170E-3	-158.541E-12	700.826E-3	-44.7478E-3
-3.94947E-3	-158.431E-12	681.998E-3	-54.3285E-3	-157.645E-12	702.370E-3	-45.6970E-3
-3.95448E-3	-159.528E-12	691.310E-3	-35.3672E-3	-157.046E-12	702.957E-3	-18.9147E-3
-3.95948E-3	-160.266E-12	679.239E-3	-20.1664E-3	-156.630E-12	690.254E-3	-11.1478E-3
-3.96448E-3	-160.546E-12	665.552E-3	-12.0553E-3	-156.676E-12	665.517E-3	-35.2592E-3
-3.96948E-3	-160.684E-12	649.602E-3	-6.31591E-3	-157.689E-12	654.144E-3	-42.1171E-3
-3.97449E-3	-162.705E-12	622.865E-3	-20.1622E-3	-157.868E-12	660.261E-3	-15.2437E-3
-3.97949E-3	-162.984E-12	616.257E-3	-35.8034E-3	-159.031E-12	660.102E-3	3.55311E-3
-3.98449E-3	-162.741E-12	644.702E-3	-31.8691E-3	-160.107E-12	650.714E-3	4.54027E-3
-3.98949E-3	-162.487E-12	680.384E-3	-25.1419E-3	-161.725E-12	644.434E-3	-18.3182E-3
-3.99450E-3	-162.742E-12	691.426E-3	-38.6356E-3	-162.546E-12	648.455E-3	-41.8192E-3
-3.99950E-3	-162.368E-12	673.446E-3	-37.2563E-3	-162.960E-12	669.611E-3	-40.0365E-3
-4.00450E-3	-161.604E-12	644.009E-3	-13.1578E-3	-163.957E-12	690.153E-3	-28.4004E-3
-4.00950E-3	-161.184E-12	643.329E-3	-10.5198E-3	-164.810E-12	682.354E-3	-15.0668E-3
-4.01451E-3	-160.697E-12	663.878E-3	-28.2126E-3	-165.073E-12	653.273E-3	-8.38688E-3
-4.01951E-3	-160.945E-12	663.808E-3	-34.5666E-3	-163.881E-12	641.849E-3	-5.79593E-3
-4.02451E-3	-160.033E-12	652.947E-3	-31.8890E-3	-163.271E-12	661.086E-3	-2.83982E-3
-4.02951E-3	-160.707E-12	650.391E-3	-18.8957E-3	-163.419E-12	688.209E-3	-9.76196E-3
-4.03452E-3	-160.702E-12	648.535E-3	-5.92206E-3	-162.535E-12	690.392E-3	-24.9499E-3
-4.03952E-3	-161.347E-12	635.792E-3	-12.0379E-3	-161.755E-12	663.472E-3	-29.9884E-3
-4.04452E-3	-162.451E-12	625.394E-3	-8.69228E-3	-161.770E-12	637.610E-3	-22.1367E-3
-4.04952E-3	-163.584E-12	618.848E-3	-4.35814E-3	-161.702E-12	634.587E-3	-6.14699E-3
-4.05453E-3	-164.631E-12	618.065E-3	-12.9684E-3	-161.485E-12	636.707E-3	3.97457E-3
-4.05953E-3	-165.726E-12	636.753E-3	-11.2702E-3	-162.401E-12	641.652E-3	-1.74440E-3
-4.06453E-3	-166.548E-12	656.038E-3	2.31643E-3	-162.192E-12	653.428E-3	-22.1111E-3
-4.06953E-3	-167.745E-12	676.996E-3	-5.60338E-3	-163.004E-12	643.291E-3	-39.1781E-3
-4.07454E-3	-168.488E-12	699.233E-3	-32.8348E-3	-163.881E-12	632.090E-3	-19.8323E-3
-4.07954E-3	-168.287E-12	688.141E-3	-48.4844E-3	-165.929E-12	643.930E-3	9.81845E-3
-4.08454E-3	-169.293E-12	661.152E-3	-50.6099E-3	-166.313E-12	666.153E-3	10.3538E-3
-4.08954E-3	-169.203E-12	676.300E-3	-31.5585E-3	-166.885E-12	675.728E-3	-8.34248E-3
-4.09455E-3	-168.387E-12	719.950E-3	-10.6482E-3	-167.294E-12	664.191E-3	-5.35278E-3
-4.09955E-3	-167.513E-12	712.900E-3	-18.2247E-3	-167.895E-12	650.068E-3	6.59697E-3
-4.10455E-3	-166.265E-12	671.337E-3	-26.6926E-3	-167.644E-12	650.550E-3	-13.1782E-3
-4.10955E-3	-165.672E-12	660.981E-3	-9.40167E-3	-167.837E-12	668.424E-3	-36.3770E-3
-4.11456E-3	-164.932E-12	682.056E-3	11.7782E-3	-167.067E-12	681.067E-3	-23.5221E-3
-4.11956E-3	-164.642E-12	696.072E-3	14.4410E-3	-166.993E-12	676.821E-3	2.25051E-3
-4.12456E-3	-163.772E-12	682.044E-3	3.74703E-3	-167.143E-12	662.486E-3	-1.25919E-3
-4.12956E-3	-164.815E-12	656.083E-3	-6.33996E-3	-166.535E-12	648.908E-3	-19.4048E-3
-4.13457E-3	-165.022E-12	623.162E-3	-13.4126E-3	-166.051E-12	639.643E-3	-25.0870E-3
-4.13957E-3	-165.818E-12	620.540E-3	-18.8093E-3	-166.774E-12	640.342E-3	-27.0907E-3
-4.14457E-3	-167.004E-12	653.647E-3	-16.1926E-3	-167.264E-12	650.420E-3	-44.7909E-3
-4.14957E-3	-168.641E-12	666.349E-3	-19.3828E-3	-167.498E-12	646.579E-3	-71.3790E-3
-4.15458E-3	-169.602E-12	644.915E-3	-36.3107E-3	-168.230E-12	649.720E-3	-71.4118E-3
-4.15958E-3	-170.630E-12	624.325E-3	-43.4119E-3	-169.919E-12	667.096E-3	-42.2477E-3
-4.16458E-3	-172.455E-12	626.925E-3	-19.9794E-3	-169.506E-12	690.742E-3	-27.6170E-3
-4.16958E-3	-173.105E-12	630.472E-3	6.51962E-3	-170.078E-12	694.611E-3	-31.8593E-3
-4.17459E-3	-173.304E-12	635.476E-3	-57.5732E-6	-171.200E-12	677.910E-3	-28.8784E-3
-4.17959E-3	-173.169E-12	654.976E-3	-13.7571E-3	-171.620E-12	678.957E-3	-16.3032E-3
-4.18459E-3	-172.943E-12	671.667E-3	-14.5778E-3	-170.564E-12	690.850E-3	1.71356E-3
-4.18959E-3	-171.964E-12	691.689E-3	-3.74423E-3	-170.726E-12	693.322E-3	14.9478E-3
-4.19460E-3	-171.048E-12	713.927E-3	11.0733E-3	-170.663E-12	675.402E-3	32.0054E-3
-4.19960E-3	-170.318E-12	704.825E-3	-3.84514E-3	-170.924E-12	666.687E-3	34.9787E-3
-4.20460E-3	-168.746E-12	675.288E-3	-37.5914E-3	-169.874E-12	669.567E-3	4.16408E-3
-4.20960E-3	-168.351E-12	646.972E-3	-24.5628E-3	-169.756E-12	650.363E-3	-12.9957E-3
-4.21461E-3	-167.591E-12	639.077E-3	7.46263E-3	-170.067E-12	632.503E-3	-9.48392E-3
-4.21961E-3	-168.077E-12	663.041E-3	-3.13855E-3	-171.015E-12	643.097E-3	-14.1224E-3
-4.22461E-3	-168.078E-12	678.502E-3	-21.9448E-3	-171.546E-12	657.235E-3	-10.2851E-3
-4.22961E-3	-168.410E-12	668.237E-3	-24.7842E-3	-171.823E-12	673.677E-3	-5.89728E-3
-4.23462E-3	-169.172E-12	646.881E-3	-26.6526E-3	-173.079E-12	687.083E-3	-20.2508E-3
-4.23962E-3	-170.256E-12	648.001E-3	-27.8251E-3	-173.623E-12	679.039E-3	-18.6971E-3
-4.24462E-3	-171.198E-12	672.781E-3	-17.1328E-3	-174.716E-12	666.033E-3	-2.66581E-3
-4.24962E-3	-172.279E-12	672.135E-3	-3.26791E-3	-174.533E-12	660.175E-3	388.419E-6
-4.25463E-3	-173.009E-12	654.202E-3	-885.428E-6	-175.127E-12	661.676E-3	-4.59784E-3
-4.25963E-3	-174.290E-12	647.329E-3	-6.69415E-3	-175.871E-12	673.252E-3	-11.2164E-3
-4.26463E-3	-175.812E-12	648.901E-3	-14.3537E-3	-175.747E-12	687.904E-3	-5.76048E-3
-4.26963E-3	-175.522E-12	661.619E-3	-16.3256E-3	-175.113E-12	689.433E-3	-2.62220E-3
-4.27464E-3	-175.607E-12	685.587E-3	-22.9350E-3	-174.312E-12	676.057E-3	-21.5850E-3
-4.27964E-3	-175.606E-12	699.546E-3	-49.4817E-3	-173.824E-12	655.787E-3	-39.1247E-3
-4.28464E-3	-175.455E-12	675.000E-3	-54.9857E-3	-172.127E-12	634.275E-3	-40.2705E-3
-4.28964E-3	-174.599E-12	635.683E-3	-22.4876E-3	-172.385E-12	627.714E-3	-27.0125E-3
-4.29465E-3	-174.306E-12	628.381E-3	-6.97253E-3	-171.799E-12	633.354E-3	329.564E-6
-4.29965E-3	-174.077E-12	649.709E-3	-8.18353E-3	-171.618E-12	629.746E-3	20.1955E-3
-4.30465E-3	-174.976E-12	674.952E-3	-14.3205E-3	-172.661E-12	610.323E-3	23.7238E-3
-4.30965E-3	-174.881E-12	655.998E-3	-35.8525E-3	-173.694E-12	614.041E-3	18.7688E-3
-4.31466E-3	-175.034E-12	628.057E-3	-38.2939E-3	-174.200E-12	649.306E-3	22.1706E-3
-4.31966E-3	-175.667E-12	660.837E-3	-17.6766E-3	-175.098E-12	674.590E-3	38.6909E-3
-4.32466E-3	-176.397E-12	696.631E-3	-6.73178E-3	-176.486E-12	682.530E-3	22.6952E-3
-4.32966E-3	-176.289E-12	689.943E-3	-12.6530E-3	-177.670E-12	671.311E-3	-12.6953E-3
-4.33467E-3	-176.756E-12	657.227E-3	-23.7911E-3	-178.880E-12	654.523E-3	-28.9786E-3
-4.33967E-3	-177.710E-12	629.394E-3	-29.8722E-3	-180.041E-12	653.867E-3	-24.2274E-3
-4.34467E-3	-177.670E-12	636.834E-3	-31.7637E-3	-180.458E-12	644.871E-3	2.42923E-3
-4.34967E-3	-177.700E-12	641.007E-3	-23.4304E-3	-179.975E-12	619.662E-3	11.1540E-3
-4.35468E-3	-177.912E-12	618.278E-3	-19.9173E-3	-180.784E-12	621.717E-3	-12.2062E-3
-4.35968E-3	-178.499E-12	617.899E-3	-37.4380E-3	-179.336E-12	646.396E-3	-28.2450E-3
-4.36468E-3	-177.515E-12	657.074E-3	-60.1121E-3	-178.559E-12	637.193E-3	-25.2617E-3
-4.36968E-3	-177.019E-12	694.116E-3	-61.7626E-3	-177.813E-12	602.833E-3	-12.7718E-3
-4.37469E-3	-177.268E-12	705.558E-3	-45.8268E-3	-177.306E-12	622.815E-3	4.75812E-3
-4.37969E-3	-177.191E-12	702.231E-3	-33.4785E-3	-175.526E-12	677.149E-3	18.5745E-3
-4.38469E-3	-177.061E-12	684.152E-3	-14.3432E-3	-175.688E-12	679.275E-3	6.37069E-3
-4.38969E-3	-177.413E-12	659.659E-3	5.46386E-3	-175.697E-12	647.483E-3	-23.7724E-3
-4.39470E-3	-179.044E-12	659.191E-3	22.2084E-3	-175.853E-12	631.554E-3	-24.6737E-3
-4.39970E-3	-179.890E-12	688.195E-3	20.0871E-3	-175.869E-12	657.232E-3	993.749E-6
-4.40470E-3	-180.731E-12	709.987E-3	-8.51890E-3	-177.173E-12	684.821E-3	9.31902E-3
-4.40970E-3	-181.588E-12	701.517E-3	-23.3979E-3	-179.062E-12	666.259E-3	-7.94714E-3
-4.41471E-3	-182.927E-12	683.280E-3	-12.7348E-3	-180.108E-12	651.195E-3	-27.1239E-3
-4.41971E-3	-182.958E-12	683.465E-3	4.14190E-3	-181.002E-12	656.897E-3	-34.6870E-3
-4.42471E-3	-182.752E-12	692.543E-3	12.1778E-3	-182.230E-12	655.932E-3	-23.5446E-3
-4.42971E-3	-182.776E-12	690.748E-3	-3.60386E-3	-183.570E-12	674.928E-3	-402.902E-6
-4.43472E-3	-182.446E-12	682.019E-3	-35.0212E-3	-184.061E-12	694.010E-3	53.1608E-6
-4.43972E-3	-182.296E-12	668.505E-3	-52.0029E-3	-184.681E-12	674.056E-3	-9.74541E-3
-4.44472E-3	-181.197E-12	666.324E-3	-33.7275E-3	-185.330E-12	651.843E-3	-21.1989E-3
-4.44972E-3	-180.381E-12	676.637E-3	-2.16455E-3	-184.997E-12	644.287E-3	-32.6474E-3
-4.45473E-3	-180.112E-12	679.985E-3	-6.23171E-3	-183.883E-12	644.308E-3	-24.6171E-3
-4.45973E-3	-179.601E-12	672.362E-3	-35.9003E-3	-182.673E-12	649.004E-3	-24.6548E-3
-4.46473E-3	-178.479E-12	654.208E-3	-35.2937E-3	-182.563E-12	652.732E-3	-17.7920E-3
-4.46973E-3	-179.247E-12	636.492E-3	-9.11960E-3	-180.806E-12	663.013E-3	3.78733E-3
-4.47474E-3	-179.682E-12	619.752E-3	627.738E-6	-180.750E-12	663.617E-3	20.8407E-3
-4.47974E-3	-180.534E-12	602.782E-3	8.12266E-3	-179.829E-12	645.983E-3	36.8082E-3
-4.48474E-3	-181.809E-12	609.042E-3	20.3622E-3	-179.883E-12	659.587E-3	27.8079E-3
-4.48974E-3	-183.116E-12	639.489E-3	-1.84792E-3	-179.778E-12	696.040E-3	1.17000E-3
-4.49475E-3	-184.079E-12	652.102E-3	-40.0450E-3	-180.264E-12	692.769E-3	-33.8910E-3
-4.49975E-3	-185.734E-12	644.347E-3	-37.7984E-3	-180.719E-12	667.581E-3	-49.3028E-3
-4.50475E-3	-187.064E-12	654.915E-3	-26.1977E-3	-182.038E-12	678.358E-3	-26.1258E-3
-4.50975E-3	-187.333E-12	656.670E-3	-50.3054E-3	-183.697E-12	710.197E-3	-5.47900E-3
-4.51476E-3	-187.821E-12	639.649E-3	-75.2115E-3	-184.298E-12	691.694E-3	13.9890E-3
-4.51976E-3	-188.460E-12	635.527E-3	-61.2969E-3	-185.951E-12	632.236E-3	33.7823E-3
-4.52476E-3	-187.741E-12	633.387E-3	-18.4115E-3	-187.376E-12	610.946E-3	25.9142E-3
-4.52976E-3	-187.693E-12	645.923E-3	27.7731E-3	-188.084E-12	638.939E-3	-2.16460E-3
-4.53477E-3	-187.029E-12	661.839E-3	20.4789E-3	-187.260E-12	660.194E-3	-15.7080E-3
-4.53977E-3	-186.132E-12	658.985E-3	-35.2004E-3	-188.452E-12	677.202E-3	-6.70987E-3
-4.54477E-3	-185.072E-12	657.216E-3	-44.8961E-3	-188.674E-12	694.480E-3	16.1122E-3
-4.54977E-3	-185.144E-12	643.000E-3	-8.00972E-3	-188.717E-12	681.451E-3	21.9570E-3
-4.55478E-3	-184.110E-12	640.435E-3	-10.5382E-3	-187.711E-12	667.710E-3	9.86854E-3
-4.55978E-3	-184.179E-12	676.485E-3	-42.9840E-3	-187.415E-12	657.010E-3	-1.90145E-3
-4.56478E-3	-184.174E-12	704.599E-3	-42.6237E-3	-186.361E-12	636.407E-3	-19.8997E-3
-4.56978E-3	-184.423E-12	697.185E-3	-20.8879E-3	-186.463E-12	625.725E-3	-25.1886E-3
-4.57479E-3	-185.611E-12	672.690E-3	4.68853E-3	-186.668E-12	639.774E-3	-12.0656E-3
-4.57979E-3	-187.194E-12	660.084E-3	19.2624E-3	-186.444E-12	664.936E-3	3.99797E-3
-4.58479E-3	-188.299E-12	654.578E-3	17.8850E-3	-187.154E-12	659.871E-3	5.57197E-3
-4.58979E-3	-189.307E-12	656.329E-3	8.89220E-3	-188.204E-12	642.436E-3	-241.830E-6
-4.59480E-3	-190.953E-12	655.430E-3	-3.30450E-3	-188.317E-12	643.480E-3	-2.30817E-3
-4.59980E-3	-191.717E-12	627.361E-3	-3.95533E-3	-188.428E-12	647.780E-3	-15.6041E-3
-4.60480E-3	-191.954E-12	619.257E-3	160.252E-6	-188.831E-12	655.603E-3	-37.7221E-3
-4.60980E-3	-192.431E-12	645.399E-3	3.75939E-3	-189.169E-12	663.450E-3	-43.2574E-3
-4.61481E-3	-191.998E-12	666.124E-3	3.06909E-3	-188.452E-12	659.132E-3	-36.3169E-3
-4.61981E-3	-191.137E-12	678.669E-3	-8.60650E-3	-189.742E-12	636.364E-3	-22.6007E-3
-4.62481E-3	-190.012E-12	676.380E-3	-125.122E-6	-190.347E-12	608.512E-3	-1.49574E-3
-4.62981E-3	-190.134E-12	648.194E-3	23.5153E-3	-189.649E-12	617.667E-3	-4.99695E-3
-4.63482E-3	-188.735E-12	646.016E-3	81.0982E-6	-190.147E-12	655.515E-3	-23.3498E-3
-4.63982E-3	-187.052E-12	691.250E-3	-54.5678E-3	-191.250E-12	666.468E-3	-32.6748E-3
-4.64482E-3	-186.250E-12	708.478E-3	-74.8520E-3	-189.655E-12	655.541E-3	-54.8298E-3
-4.64982E-3	-186.703E-12	675.127E-3	-43.4261E-3	-189.865E-12	645.751E-3	-48.3672E-3
-4.65483E-3	-186.721E-12	643.173E-3	9.38896E-3	-190.477E-12	637.815E-3	-1.25149E-3
-4.65983E-3	-187.183E-12	634.272E-3	22.5296E-3	-191.043E-12	653.311E-3	5.14230E-3
-4.66483E-3	-188.280E-12	646.641E-3	-1.53213E-3	-190.318E-12	677.465E-3	-4.68936E-3
-4.66983E-3	-188.802E-12	662.931E-3	-5.93025E-3	-191.099E-12	687.942E-3	5.39034E-3
-4.67484E-3	-189.341E-12	660.062E-3	15.6562E-3	-192.115E-12	675.045E-3	-645.473E-6
-4.67984E-3	-190.625E-12	656.950E-3	23.1756E-3	-192.626E-12	638.408E-3	-10.4914E-3
-4.68484E-3	-191.657E-12	670.229E-3	7.45048E-3	-192.174E-12	621.373E-3	-2.48198E-3
-4.68984E-3	-193.164E-12	659.962E-3	-2.42708E-3	-193.200E-12	630.520E-3	5.18197E-3
-4.69485E-3	-193.604E-12	640.008E-3	-16.6245E-3	-194.032E-12	625.611E-3	8.76759E-3
-4.69985E-3	-193.440E-12	659.451E-3	-35.4068E-3	-193.557E-12	622.636E-3	3.59214E-3
-4.70485E-3	-193.550E-12	670.947E-3	-24.7241E-3	-192.464E-12	643.385E-3	-22.3461E-3
-4.70985E-3	-193.987E-12	658.632E-3	-11.4867E-3	-192.774E-12	666.961E-3	-34.2131E-3
-4.71486E-3	-192.557E-12	653.635E-3	-24.9392E-3	-192.826E-12	671.828E-3	-22.5339E-3
-4.71986E-3	-192.244E-12	645.542E-3	-35.0439E-3	-192.903E-12	649.632E-3	-13.7774E-3
-4.72486E-3	-191.926E-12	625.060E-3	-26.7477E-3	-192.047E-12	637.204E-3	-8.04576E-3
-4.72986E-3	-192.135E-12	613.660E-3	-15.7931E-3	-192.430E-12	653.017E-3	-1.29009E-3
-4.73487E-3	-191.496E-12	624.026E-3	-19.2694E-3	-193.189E-12	655.146E-3	7.06114E-3
-4.73987E-3	-192.053E-12	646.812E-3	-26.6696E-3	-193.377E-12	624.706E-3	-7.48612E-3
-4.74487E-3	-192.635E-12	684.380E-3	-17.4487E-3	-193.522E-12	620.499E-3	-38.6639E-3
-4.74988E-3	-193.767E-12	696.653E-3	-3.07147E-3	-194.072E-12	647.969E-3	-30.7316E-3
-4.75488E-3	-194.030E-12	662.666E-3	-9.51473E-3	-194.750E-12	646.256E-3	-1.04831E-3
-4.75988E-3	-194.956E-12	654.561E-3	-29.6418E-3	-195.795E-12	646.501E-3	14.0252E-3
-4.76488E-3	-196.200E-12	689.478E-3	-21.6741E-3	-196.518E-12	674.487E-3	24.2637E-3
-4.76988E-3	-196.523E-12	707.614E-3	-12.3561E-3	-197.341E-12	691.730E-3	21.0759E-3
-4.77489E-3	-197.489E-12	684.616E-3	-45.6997E-3	-198.023E-12	669.317E-3	10.2264E-3
-4.77989E-3	-197.808E-12	651.000E-3	-68.9529E-3	-198.568E-12	659.778E-3	1.24595E-3
-4.78489E-3	-198.144E-12	635.092E-3	-44.2372E-3	-198.997E-12	695.593E-3	-19.0770E-3
-4.78989E-3	-197.417E-12	643.237E-3	-13.2002E-3	-198.214E-12	705.077E-3	-34.1338E-3
-4.79490E-3	-197.875E-12	667.106E-3	-23.7005E-3	-198.133E-12	690.237E-3	-31.2521E-3
-4.79990E-3	-197.582E-12	678.843E-3	-54.1871E-3	-197.596E-12	675.217E-3	-12.1190E-3
-4.80490E-3	-197.593E-12	657.056E-3	-54.8937E-3	-197.098E-12	651.445E-3	-3.75714E-3
-4.80990E-3	-196.782E-12	645.120E-3	-27.1405E-3	-196.238E-12	656.060E-3	-18.0545E-3
-4.81491E-3	-196.733E-12	666.988E-3	-30.5631E-3	-196.094E-12	683.175E-3	-30.9540E-3
-4.81991E-3	-196.733E-12	672.719E-3	-36.9809E-3	-195.617E-12	690.361E-3	-21.9185E-3
-4.82491E-3	-197.537E-12	656.200E-3	-13.0122E-3	-196.077E-12	648.430E-3	-11.9640E-3
-4.82991E-3	-197.919E-12	654.022E-3	-13.6906E-3	-196.054E-12	596.918E-3	-30.6215E-3
-4.83492E-3	-198.015E-12	665.865E-3	-29.4981E-3	-196.836E-12	608.488E-3	-29.1773E-3
-4.83992E-3	-199.391E-12	677.845E-3	-23.4608E-3	-197.430E-12	653.330E-3	-3.01147E-3
-4.84492E-3	-200.759E-12	696.728E-3	-12.1803E-3	-198.325E-12	668.075E-3	-5.53550E-3
-4.84992E-3	-201.233E-12	709.760E-3	-5.74344E-3	-199.072E-12	641.473E-3	-16.0660E-3
-4.85493E-3	-200.872E-12	681.472E-3	-1.81657E-3	-200.932E-12	614.778E-3	-7.14123E-3
-4.85993E-3	-201.564E-12	623.868E-3	-16.9871E-3	-201.298E-12	617.309E-3	-13.5786E-3
-4.86493E-3	-201.708E-12	613.562E-3	-26.2101E-3	-201.972E-12	637.995E-3	-29.5872E-3
-4.86993E-3	-201.217E-12	648.160E-3	-14.9355E-3	-202.725E-12	665.564E-3	-16.0665E-3
-4.87494E-3	-200.914E-12	665.551E-3	-20.7902E-3	-203.948E-12	675.681E-3	24.6419E-3
-4.87994E-3	-200.784E-12	665.863E-3	-28.9580E-3	-203.230E-12	672.337E-3	41.9644E-3
-4.88494E-3	-200.736E-12	659.390E-3	-16.1362E-3	-203.076E-12	685.818E-3	19.7754E-3
-4.88995E-3	-200.423E-12	651.912E-3	-2.32403E-3	-201.767E-12	705.833E-3	-1.76801E-3
-4.89495E-3	-200.792E-12	654.589E-3	5.22116E-3	-200.934E-12	702.217E-3	-10.1234E-3
-4.89995E-3	-200.000E-12	639.974E-3	-10.7219E-3	-200.230E-12	666.832E-3	-4.96150E-3
-4.90495E-3	-199.661E-12	613.079E-3	-27.2994E-3	-199.441E-12	641.968E-3	-906.511E-6
-4.90995E-3	-200.076E-12	612.149E-3	-15.9212E-3	-198.977E-12	631.785E-3	-23.6112E-3
-4.91496E-3	-201.571E-12	637.253E-3	-790.126E-6	-198.953E-12	624.573E-3	-34.9892E-3
-4.91996E-3	-202.517E-12	637.946E-3	2.21006E-3	-199.067E-12	638.264E-3	-8.98609E-3
-4.92496E-3	-202.418E-12	604.737E-3	-10.9228E-3	-199.181E-12	657.588E-3	1.84678E-3
-4.92996E-3	-203.505E-12	595.446E-3	-27.3022E-3	-199.858E-12	657.470E-3	-4.08613E-3
-4.93497E-3	-204.470E-12	615.382E-3	-26.6336E-3	-201.294E-12	632.667E-3	-129.002E-6
-4.93997E-3	-205.864E-12	641.233E-3	-24.8996E-3	-201.812E-12	622.308E-3	-11.3593E-3
-4.94497E-3	-206.154E-12	670.054E-3	-36.2423E-3	-203.194E-12	637.245E-3	-25.3930E-3
-4.94997E-3	-205.068E-12	689.825E-3	-58.7717E-3	-204.447E-12	636.121E-3	-23.8894E-3
-4.95498E-3	-205.306E-12	664.552E-3	-63.8845E-3	-205.895E-12	625.934E-3	-17.8887E-3
-4.95998E-3	-206.163E-12	628.913E-3	-30.5802E-3	-205.958E-12	630.272E-3	-13.5927E-3
-4.96498E-3	-205.324E-12	632.322E-3	432.208E-6	-206.894E-12	641.185E-3	-37.4252E-3
-4.96998E-3	-203.975E-12	645.185E-3	17.7698E-3	-207.467E-12	634.941E-3	-68.5132E-3
-4.97499E-3	-203.727E-12	653.489E-3	31.0765E-3	-207.198E-12	628.632E-3	-64.0768E-3
-4.97999E-3	-203.833E-12	663.897E-3	22.3740E-3	-205.828E-12	643.410E-3	-35.3433E-3
-4.98499E-3	-202.839E-12	666.032E-3	-2.72314E-3	-205.753E-12	646.482E-3	-1.26284E-3
-4.98999E-3	-202.071E-12	659.399E-3	-13.1018E-3	-205.379E-12	665.217E-3	20.4129E-3
-4.99500E-3	-202.730E-12	665.549E-3	-24.4760E-3	-204.610E-12	703.360E-3	21.6142E-3
-5.00000E-3	-203.594E-12	683.562E-3	-35.1831E-3	-203.454E-12	703.516E-3	-8.11982E-3
