Experiment	bias spectroscopy	
Date	19.01.2016 22:22:11	
User		
X (m)	49.5836E-9	
Y (m)	257.502E-9	
Z (m)	-132.577E-9	
Z offset (m)	0E+0	
Settling time (s)	200E-6	
Integration time (s)	5E-3	
Z-Ctrl hold	TRUE	
Final Z (m)	N/A	
Filter type	None	
Order		
Cutoff frq		
Comment01	MnPc/Pb(111)	
Comment02	dz =00pm	
Comment03	7 Sweeps	
Comment04	MagField =0.T	
Comment05	Divider 1:10	
Comment06	Setpoint:5mV,200 pA	
Comment07	Lockin: 50uVrms,5ms,5mV	
Comment08	Gain:9; 912Hz modulation	
Comment09	T=1.06K	
Bias>Bias (V)	5E-3	
Bias>Calibration (V/V)	81.475E-3	
Bias>Offset (V)	1.046E-3	
Bias Spectroscopy>Sweep Start (V)	5E-3	
Bias Spectroscopy>Sweep End (V)	-5E-3	
Bias Spectroscopy>Num Pixel	2000	
Bias Spectroscopy>Z Avg time (s)	500E-3	
Bias Spectroscopy>Z offset (m)	0E+0	
Bias Spectroscopy>1st Settling time (s)	500E-3	
Bias Spectroscopy>Settling time (s)	200E-6	
Bias Spectroscopy>Integration time (s)	5E-3	
Bias Spectroscopy>End Settling time (s)	500E-3	
Bias Spectroscopy>Z control time (s)	500E-3	
Bias Spectroscopy>Max Slew rate (V/s)	Inf	
Bias Spectroscopy>backward sweep	TRUE	
Bias Spectroscopy>Z-controller hold	TRUE	
Bias Spectroscopy>Number of sweeps	7	
Bias Spectroscopy>Channels	Current (A);X% LockIn (V);Y% LockIn (V)	
Bias Spectroscopy>Reset Bias	TRUE	
Bias Spectroscopy>Record final Z	FALSE	
Bias Spectroscopy>Lock-In run	FALSE	
Bias Spectroscopy>Sweep mode	Linear	
Bias Spectroscopy>MultiLine Settings : Segment Start (V), Segment End (V), Settling (s), Integration (s), Steps (xn)	100E-3,3.3E-3,100E-6,10E-3,2500;3.3E-3,-3.3E-3,100E-6,10E-3,10;-3.3E-3,-100E-3,100E-6,10E-3,2500	
Current>Current (A)	200.061E-12	
Current>Calibration (A/V)	999.99900E-12	
Current>Offset (A)	-455.429E-15	
Current>Gain	LN 10^9	
Z-Controller>Z (m)	-132.575E-9	
Z-Controller>Controller name	log Current	
Z-Controller>Controller status	ON	
Z-Controller>Setpoint	200E-12	
Z-Controller>Setpoint unit	A	
Z-Controller>P gain	2.96994E-12	
Z-Controller>I gain	67.0321E-9	
Z-Controller>Time const (s)	44.3062E-6	
Z-Controller>TipLift (m)	0E+0	
Z-Controller>Switch off delay (s)	50E-3	
Current (A)	200.332E-12	
Z (m)	-132.575E-9	

[DATA]
Bias calc (V)	Current (A)	X% LockIn (V)	Y% LockIn (V)	Current [bwd] (A)	X% LockIn [bwd] (V)	Y% LockIn [bwd] (V)
5.00000E-3	203.841E-12	645.970E-3	-5.28954E-3	202.333E-12	670.864E-3	-38.9286E-3
4.99500E-3	203.257E-12	639.713E-3	-14.9634E-3	201.113E-12	641.045E-3	-33.8025E-3
4.98999E-3	202.285E-12	636.400E-3	-4.88830E-3	199.862E-12	614.728E-3	-34.5562E-3
4.98499E-3	201.099E-12	641.613E-3	-7.65668E-3	197.974E-12	606.568E-3	-47.7924E-3
4.97999E-3	199.882E-12	668.035E-3	-23.4113E-3	196.694E-12	612.440E-3	-38.4012E-3
4.97499E-3	199.980E-12	687.502E-3	-20.9302E-3	194.906E-12	618.633E-3	-6.59989E-3
4.96998E-3	199.019E-12	675.047E-3	-15.1535E-3	194.222E-12	639.137E-3	61.8455E-6
4.96498E-3	198.896E-12	653.775E-3	-11.6969E-3	193.363E-12	653.993E-3	-6.00395E-3
4.95998E-3	198.764E-12	656.111E-3	-13.5539E-3	194.167E-12	636.352E-3	-15.3564E-3
4.95498E-3	199.168E-12	652.977E-3	-13.0203E-3	194.898E-12	631.117E-3	-20.0260E-3
4.94997E-3	199.713E-12	640.614E-3	263.070E-6	196.321E-12	650.502E-3	11.5676E-3
4.94497E-3	200.232E-12	643.588E-3	-575.221E-6	195.921E-12	658.553E-3	21.6439E-3
4.93997E-3	200.188E-12	642.588E-3	-27.7988E-3	198.073E-12	685.112E-3	-5.62054E-3
4.93497E-3	200.574E-12	631.943E-3	-52.1310E-3	199.272E-12	727.025E-3	-5.30228E-3
4.92996E-3	200.640E-12	641.709E-3	-45.8102E-3	200.922E-12	729.566E-3	6.21621E-3
4.92496E-3	200.119E-12	652.403E-3	-31.1988E-3	200.448E-12	687.441E-3	134.626E-6
4.91996E-3	199.640E-12	635.686E-3	-25.2608E-3	201.181E-12	638.846E-3	-8.73534E-3
4.91496E-3	198.871E-12	650.951E-3	-30.3509E-3	199.809E-12	635.886E-3	-16.3365E-3
4.90995E-3	197.556E-12	711.212E-3	-23.8384E-3	200.500E-12	651.544E-3	-16.6791E-3
4.90495E-3	196.723E-12	733.002E-3	-2.30341E-3	199.559E-12	650.795E-3	-7.64492E-3
4.89995E-3	196.562E-12	707.889E-3	1.51796E-3	198.550E-12	663.572E-3	2.70130E-3
4.89495E-3	195.845E-12	660.194E-3	-6.95851E-3	196.409E-12	677.813E-3	-5.45008E-3
4.88995E-3	193.743E-12	617.256E-3	-11.5087E-3	195.193E-12	684.761E-3	-20.1805E-3
4.88494E-3	193.111E-12	608.287E-3	-14.1312E-3	195.143E-12	673.476E-3	-9.22994E-3
4.87994E-3	192.942E-12	621.744E-3	-24.7141E-3	194.535E-12	629.674E-3	-900.407E-6
4.87494E-3	193.035E-12	651.646E-3	-26.9267E-3	193.863E-12	616.915E-3	704.215E-6
4.86993E-3	192.360E-12	659.142E-3	-13.1851E-3	193.333E-12	646.965E-3	6.38669E-3
4.86493E-3	191.948E-12	635.791E-3	-11.8447E-3	194.234E-12	676.612E-3	899.205E-6
4.85993E-3	191.455E-12	640.469E-3	-16.4141E-3	195.204E-12	695.901E-3	-17.2502E-3
4.85493E-3	191.738E-12	670.959E-3	-20.1323E-3	195.020E-12	695.464E-3	-28.7438E-3
4.84992E-3	191.906E-12	658.999E-3	-44.7812E-3	194.879E-12	685.049E-3	-20.9596E-3
4.84492E-3	191.847E-12	627.877E-3	-62.9219E-3	195.731E-12	674.019E-3	-13.2034E-3
4.83992E-3	191.810E-12	630.105E-3	-47.7346E-3	196.179E-12	670.277E-3	-19.0883E-3
4.83492E-3	191.939E-12	644.934E-3	-19.5380E-3	195.857E-12	682.289E-3	-47.7781E-3
4.82991E-3	191.718E-12	638.679E-3	-9.61078E-3	195.016E-12	677.396E-3	-77.7187E-3
4.82491E-3	191.718E-12	632.013E-3	-38.5934E-3	194.110E-12	653.558E-3	-74.4587E-3
4.81991E-3	191.213E-12	652.465E-3	-57.0834E-3	193.592E-12	660.053E-3	-51.6066E-3
4.81491E-3	191.624E-12	671.792E-3	-20.4127E-3	192.987E-12	696.734E-3	-30.8796E-3
4.80990E-3	192.601E-12	681.472E-3	15.3372E-3	191.371E-12	701.925E-3	-10.6823E-3
4.80490E-3	192.541E-12	685.865E-3	-5.47587E-3	189.510E-12	671.361E-3	-2.25381E-3
4.79990E-3	192.050E-12	671.991E-3	-16.9561E-3	188.594E-12	633.377E-3	-18.3578E-3
4.79490E-3	192.617E-12	653.686E-3	7.50227E-3	188.562E-12	615.731E-3	-34.4451E-3
4.78989E-3	193.464E-12	655.202E-3	7.62369E-3	188.359E-12	651.580E-3	-39.5284E-3
4.78489E-3	194.183E-12	680.638E-3	-25.0325E-3	187.588E-12	681.094E-3	-43.4036E-3
4.77989E-3	193.336E-12	689.233E-3	-41.7077E-3	187.010E-12	654.956E-3	-25.6202E-3
4.77489E-3	193.139E-12	657.874E-3	-27.0040E-3	187.931E-12	620.478E-3	9.66395E-3
4.76988E-3	193.060E-12	642.717E-3	-29.6166E-3	188.405E-12	619.286E-3	27.8167E-3
4.76488E-3	192.830E-12	659.581E-3	-55.3446E-3	188.929E-12	646.111E-3	19.0375E-3
4.75988E-3	191.562E-12	670.458E-3	-47.7671E-3	188.965E-12	663.756E-3	-19.5900E-3
4.75488E-3	192.414E-12	670.991E-3	-8.64238E-3	189.088E-12	649.376E-3	-41.2747E-3
4.74988E-3	191.320E-12	662.876E-3	8.17198E-3	188.910E-12	640.469E-3	-17.7961E-3
4.74487E-3	190.634E-12	665.105E-3	11.0775E-3	189.072E-12	648.836E-3	-1.76304E-3
4.73987E-3	189.409E-12	680.791E-3	19.1808E-3	188.593E-12	642.226E-3	938.242E-6
4.73487E-3	188.468E-12	670.919E-3	21.7940E-3	188.216E-12	650.452E-3	12.9173E-3
4.72986E-3	188.482E-12	641.492E-3	2.00377E-3	187.282E-12	671.316E-3	15.5239E-3
4.72486E-3	188.006E-12	627.076E-3	-34.1205E-3	187.002E-12	646.959E-3	-10.6091E-3
4.71986E-3	187.773E-12	638.309E-3	-57.0661E-3	186.440E-12	608.288E-3	-29.8628E-3
4.71486E-3	188.001E-12	659.489E-3	-55.4678E-3	186.040E-12	603.611E-3	-30.8500E-3
4.70985E-3	187.688E-12	675.672E-3	-42.9916E-3	185.427E-12	626.797E-3	-34.1652E-3
4.70485E-3	187.591E-12	687.714E-3	-32.4907E-3	185.885E-12	649.974E-3	-32.6820E-3
4.69985E-3	188.452E-12	684.339E-3	-18.5404E-3	186.475E-12	656.395E-3	-39.3114E-3
4.69485E-3	188.471E-12	648.772E-3	-7.09111E-3	186.908E-12	666.373E-3	-39.2417E-3
4.68984E-3	187.754E-12	629.695E-3	3.57551E-3	187.555E-12	677.988E-3	-26.8044E-3
4.68484E-3	187.340E-12	650.946E-3	21.3626E-3	187.669E-12	682.374E-3	-38.4418E-3
4.67984E-3	187.929E-12	663.277E-3	17.8073E-3	188.947E-12	680.368E-3	-48.0416E-3
4.67484E-3	186.850E-12	661.173E-3	-878.889E-6	188.741E-12	674.533E-3	-44.8575E-3
4.66983E-3	186.131E-12	660.614E-3	22.2285E-3	189.458E-12	688.695E-3	-39.2973E-3
4.66483E-3	184.285E-12	664.419E-3	41.2488E-3	188.986E-12	696.487E-3	-27.9024E-3
4.65983E-3	184.465E-12	678.096E-3	3.99969E-3	188.163E-12	678.956E-3	-35.8135E-3
4.65483E-3	183.565E-12	692.527E-3	-33.5287E-3	187.240E-12	667.111E-3	-46.9573E-3
4.64982E-3	181.855E-12	685.225E-3	-36.0458E-3	186.838E-12	660.580E-3	-26.8513E-3
4.64482E-3	180.690E-12	655.173E-3	-18.8723E-3	185.692E-12	654.065E-3	-15.3087E-3
4.63982E-3	179.862E-12	635.653E-3	6.07159E-3	183.966E-12	647.007E-3	-37.7576E-3
4.63482E-3	179.857E-12	636.829E-3	5.01374E-3	181.963E-12	645.226E-3	-47.0604E-3
4.62981E-3	180.026E-12	634.125E-3	-23.9436E-3	182.006E-12	651.226E-3	-31.6819E-3
4.62481E-3	180.451E-12	649.106E-3	-31.6319E-3	181.840E-12	636.026E-3	-40.2746E-3
4.61981E-3	181.032E-12	669.883E-3	-27.7613E-3	181.597E-12	622.783E-3	-60.7797E-3
4.61481E-3	182.011E-12	678.448E-3	-35.4835E-3	180.774E-12	631.241E-3	-46.1377E-3
4.60980E-3	182.648E-12	695.304E-3	-33.2814E-3	181.440E-12	637.520E-3	-26.5317E-3
4.60480E-3	182.769E-12	705.870E-3	-18.7632E-3	182.233E-12	656.264E-3	-22.4508E-3
4.59980E-3	182.977E-12	698.281E-3	-19.7712E-3	183.451E-12	667.971E-3	-23.2274E-3
4.59480E-3	183.348E-12	671.674E-3	-25.4690E-3	183.362E-12	644.592E-3	-11.2940E-3
4.58979E-3	184.227E-12	658.157E-3	-9.58300E-3	182.930E-12	626.798E-3	11.0397E-3
4.58479E-3	184.168E-12	653.508E-3	878.277E-6	183.261E-12	633.579E-3	10.7392E-3
4.57979E-3	184.087E-12	646.730E-3	-17.7729E-3	183.714E-12	642.192E-3	7.80814E-3
4.57479E-3	183.957E-12	653.384E-3	-35.8748E-3	182.866E-12	636.854E-3	-9.82088E-3
4.56978E-3	184.278E-12	668.347E-3	-29.9386E-3	181.121E-12	635.585E-3	-38.6727E-3
4.56478E-3	183.232E-12	679.968E-3	-9.27811E-3	179.809E-12	640.266E-3	-29.4927E-3
4.55978E-3	181.748E-12	679.518E-3	13.5479E-3	178.669E-12	631.670E-3	-6.18323E-3
4.55478E-3	180.562E-12	676.766E-3	5.78886E-3	177.978E-12	629.156E-3	-7.35687E-3
4.54977E-3	180.490E-12	673.434E-3	-26.1074E-3	175.863E-12	632.644E-3	-27.1179E-3
4.54477E-3	180.877E-12	668.493E-3	-36.8729E-3	175.599E-12	641.115E-3	-23.4892E-3
4.53977E-3	179.877E-12	677.747E-3	-32.2593E-3	174.388E-12	645.505E-3	-8.91447E-3
4.53477E-3	179.485E-12	695.660E-3	-42.0317E-3	174.704E-12	635.283E-3	-20.1280E-3
4.52976E-3	179.679E-12	685.173E-3	-51.5658E-3	174.550E-12	644.931E-3	-23.0940E-3
4.52476E-3	180.600E-12	663.915E-3	-31.5792E-3	175.788E-12	671.952E-3	-3.29365E-3
4.51976E-3	181.074E-12	645.864E-3	21.2929E-6	176.879E-12	677.435E-3	-2.68829E-3
4.51476E-3	181.206E-12	628.862E-3	7.68965E-3	177.978E-12	677.720E-3	-23.7970E-3
4.50975E-3	180.300E-12	637.676E-3	1.65792E-3	179.048E-12	673.493E-3	-21.3655E-3
4.50475E-3	180.921E-12	655.017E-3	-967.337E-6	179.583E-12	632.591E-3	6.33585E-3
4.49975E-3	181.544E-12	665.627E-3	-16.5660E-3	180.539E-12	628.916E-3	16.8741E-3
4.49475E-3	181.144E-12	662.223E-3	-39.8096E-3	180.914E-12	687.520E-3	-4.06114E-3
4.48974E-3	180.155E-12	664.005E-3	-47.4362E-3	181.334E-12	712.180E-3	-21.1278E-3
4.48474E-3	179.613E-12	687.265E-3	-29.7504E-3	180.885E-12	669.262E-3	-7.28788E-3
4.47974E-3	179.661E-12	695.750E-3	-10.5781E-3	179.989E-12	636.012E-3	-2.43837E-3
4.47474E-3	178.464E-12	679.749E-3	-12.7528E-3	178.214E-12	642.847E-3	-14.4572E-3
4.46973E-3	176.865E-12	649.099E-3	-29.3956E-3	177.795E-12	639.851E-3	-11.5912E-3
4.46473E-3	175.802E-12	636.122E-3	-50.6688E-3	176.920E-12	644.660E-3	-12.3287E-3
4.45973E-3	175.509E-12	663.631E-3	-65.2366E-3	175.662E-12	658.470E-3	-23.0243E-3
4.45473E-3	174.256E-12	668.895E-3	-53.8072E-3	174.024E-12	638.814E-3	-21.5245E-3
4.44972E-3	173.893E-12	639.952E-3	-32.6503E-3	173.637E-12	628.350E-3	-21.2372E-3
4.44472E-3	174.138E-12	614.398E-3	-41.0815E-3	173.721E-12	644.644E-3	-31.1019E-3
4.43972E-3	173.930E-12	608.660E-3	-57.7604E-3	173.851E-12	658.641E-3	-46.5768E-3
4.43472E-3	173.973E-12	621.723E-3	-55.6148E-3	174.444E-12	684.918E-3	-43.9907E-3
4.42971E-3	173.357E-12	628.317E-3	-51.9816E-3	175.518E-12	708.074E-3	-17.4045E-3
4.42471E-3	173.332E-12	642.227E-3	-45.9554E-3	176.407E-12	695.893E-3	-30.2478E-3
4.41971E-3	173.752E-12	660.592E-3	-24.9286E-3	176.986E-12	665.036E-3	-55.3662E-3
4.41471E-3	173.848E-12	662.747E-3	1.05259E-3	177.546E-12	639.681E-3	-37.7427E-3
4.40970E-3	174.419E-12	659.612E-3	23.4452E-3	177.905E-12	624.694E-3	-12.4851E-3
4.40470E-3	174.293E-12	663.183E-3	14.5661E-3	178.006E-12	619.661E-3	-10.5562E-3
4.39970E-3	173.827E-12	653.223E-3	-28.3839E-3	176.490E-12	640.439E-3	-27.8694E-3
4.39470E-3	173.615E-12	623.889E-3	-34.8791E-3	176.190E-12	670.826E-3	-45.9485E-3
4.38969E-3	173.718E-12	624.371E-3	10.1403E-3	175.481E-12	677.547E-3	-45.1217E-3
4.38469E-3	173.619E-12	660.011E-3	43.8720E-3	174.047E-12	661.416E-3	-13.9767E-3
4.37969E-3	172.656E-12	673.930E-3	20.0433E-3	172.638E-12	657.096E-3	14.7032E-3
4.37469E-3	172.336E-12	665.586E-3	-26.3979E-3	171.809E-12	682.867E-3	9.19055E-3
4.36968E-3	172.163E-12	660.036E-3	-36.2923E-3	171.705E-12	690.442E-3	-30.7761E-3
4.36468E-3	171.800E-12	665.972E-3	-14.7536E-3	170.294E-12	674.896E-3	-69.2146E-3
4.35968E-3	171.573E-12	672.701E-3	541.399E-6	169.680E-12	676.773E-3	-51.1048E-3
4.35468E-3	172.167E-12	661.416E-3	-11.7192E-3	169.390E-12	676.354E-3	-5.74202E-3
4.34967E-3	171.816E-12	653.786E-3	-34.9132E-3	170.049E-12	663.480E-3	8.86446E-3
4.34467E-3	172.114E-12	643.470E-3	-24.9406E-3	169.885E-12	670.400E-3	-8.78074E-3
4.33967E-3	171.776E-12	640.561E-3	-868.748E-6	169.858E-12	683.206E-3	-16.7482E-3
4.33467E-3	171.922E-12	661.286E-3	-2.21608E-3	171.089E-12	680.017E-3	2.83823E-3
4.32966E-3	171.142E-12	674.499E-3	-5.74950E-3	171.709E-12	663.080E-3	13.0825E-3
4.32466E-3	171.310E-12	673.234E-3	-14.3985E-3	172.111E-12	640.272E-3	5.16568E-3
4.31966E-3	171.494E-12	670.859E-3	-3.70089E-3	171.751E-12	627.925E-3	-14.3817E-3
4.31466E-3	171.500E-12	671.956E-3	47.2658E-3	172.637E-12	625.560E-3	-43.3371E-3
4.30965E-3	170.922E-12	664.532E-3	76.1298E-3	171.731E-12	631.576E-3	-64.3294E-3
4.30465E-3	170.222E-12	665.293E-3	34.2306E-3	170.422E-12	647.339E-3	-63.7966E-3
4.29965E-3	170.120E-12	675.605E-3	-20.1134E-3	169.612E-12	659.332E-3	-45.3744E-3
4.29465E-3	169.941E-12	677.289E-3	-32.3695E-3	169.635E-12	654.097E-3	-8.64097E-3
4.28964E-3	169.172E-12	684.072E-3	-45.7006E-3	168.787E-12	646.705E-3	2.34837E-3
4.28464E-3	168.221E-12	686.869E-3	-47.2976E-3	168.237E-12	663.116E-3	-27.3183E-3
4.27964E-3	168.696E-12	662.389E-3	-25.5815E-3	167.660E-12	670.202E-3	-46.0292E-3
4.27464E-3	168.943E-12	631.217E-3	-18.1785E-3	167.856E-12	641.509E-3	-46.6481E-3
4.26963E-3	168.842E-12	617.110E-3	-24.6079E-3	168.459E-12	616.949E-3	-41.3299E-3
4.26463E-3	168.139E-12	620.781E-3	-25.7275E-3	168.214E-12	622.530E-3	-41.9468E-3
4.25963E-3	168.434E-12	648.013E-3	-11.7943E-3	168.284E-12	633.127E-3	-49.6520E-3
4.25463E-3	168.903E-12	678.828E-3	93.1659E-6	168.600E-12	633.890E-3	-50.9702E-3
4.24962E-3	168.962E-12	695.571E-3	-3.81577E-3	169.503E-12	631.473E-3	-51.0605E-3
4.24462E-3	168.431E-12	701.556E-3	-18.6793E-3	169.530E-12	639.974E-3	-46.9008E-3
4.23962E-3	167.640E-12	692.549E-3	-23.2592E-3	168.548E-12	653.216E-3	-53.4908E-3
4.23462E-3	167.100E-12	678.193E-3	-16.3968E-3	168.597E-12	660.358E-3	-56.3572E-3
4.22961E-3	167.106E-12	675.681E-3	-8.26302E-3	168.297E-12	665.106E-3	-28.4465E-3
4.22461E-3	166.643E-12	660.898E-3	-5.73221E-3	167.779E-12	658.740E-3	-9.82398E-3
4.21961E-3	166.102E-12	636.499E-3	-6.14685E-3	166.381E-12	652.407E-3	-6.74545E-3
4.21461E-3	165.608E-12	618.012E-3	-3.95637E-3	165.565E-12	648.025E-3	2.68072E-3
4.20960E-3	165.975E-12	612.524E-3	-12.4160E-3	164.908E-12	637.658E-3	16.9223E-3
4.20460E-3	165.414E-12	631.112E-3	-23.0732E-3	164.208E-12	649.833E-3	16.2130E-3
4.19960E-3	165.082E-12	642.725E-3	-27.2443E-3	163.464E-12	662.984E-3	-10.8101E-3
4.19460E-3	164.741E-12	627.344E-3	-30.2993E-3	162.774E-12	645.551E-3	-32.0052E-3
4.18959E-3	165.058E-12	616.692E-3	-20.7996E-3	163.223E-12	638.694E-3	-18.7508E-3
4.18459E-3	165.284E-12	645.230E-3	-9.83424E-3	163.090E-12	649.179E-3	6.46014E-3
4.17959E-3	165.238E-12	685.316E-3	-15.2716E-3	162.821E-12	655.516E-3	11.3619E-3
4.17459E-3	165.824E-12	701.736E-3	-31.8114E-3	163.294E-12	656.027E-3	-2.17077E-3
4.16958E-3	165.530E-12	711.888E-3	-46.9314E-3	163.631E-12	656.786E-3	-8.37289E-3
4.16458E-3	165.387E-12	708.598E-3	-45.1984E-3	164.332E-12	664.569E-3	-6.31724E-3
4.15958E-3	165.294E-12	667.028E-3	-31.9407E-3	164.333E-12	671.207E-3	-14.7665E-3
4.15458E-3	165.615E-12	621.370E-3	-28.3896E-3	164.017E-12	668.172E-3	-14.8663E-3
4.14957E-3	164.507E-12	610.614E-3	-37.8292E-3	162.922E-12	656.019E-3	-13.2950E-3
4.14457E-3	164.109E-12	635.151E-3	-46.3591E-3	162.466E-12	643.072E-3	-24.3323E-3
4.13957E-3	163.218E-12	667.707E-3	-35.9894E-3	162.409E-12	640.996E-3	-24.1526E-3
4.13457E-3	162.588E-12	682.696E-3	-11.1691E-3	161.454E-12	663.000E-3	-33.0943E-3
4.12956E-3	161.796E-12	682.727E-3	2.96558E-3	160.177E-12	676.932E-3	-47.7513E-3
4.12456E-3	161.294E-12	669.943E-3	-1.23827E-3	158.981E-12	653.694E-3	-41.1283E-3
4.11956E-3	160.404E-12	649.175E-3	-28.9543E-3	159.310E-12	644.039E-3	-33.4281E-3
4.11456E-3	160.134E-12	623.954E-3	-52.5329E-3	159.047E-12	650.383E-3	-33.2848E-3
4.10955E-3	160.186E-12	622.025E-3	-43.5859E-3	158.231E-12	644.924E-3	-31.3497E-3
4.10455E-3	160.011E-12	639.018E-3	-26.5725E-3	157.569E-12	664.560E-3	-24.0102E-3
4.09955E-3	160.087E-12	653.350E-3	-23.1890E-3	158.918E-12	691.165E-3	-17.2978E-3
4.09455E-3	160.121E-12	664.406E-3	-35.6090E-3	160.057E-12	668.094E-3	-20.7475E-3
4.08954E-3	160.565E-12	667.636E-3	-32.8030E-3	161.059E-12	641.219E-3	-32.3389E-3
4.08454E-3	160.496E-12	672.596E-3	444.188E-6	160.771E-12	655.987E-3	-15.3568E-3
4.07954E-3	160.923E-12	679.685E-3	18.5848E-3	161.066E-12	678.033E-3	-1.99079E-3
4.07454E-3	160.495E-12	687.657E-3	-14.5010E-3	162.742E-12	685.322E-3	-34.4964E-3
4.06953E-3	159.982E-12	668.961E-3	-47.7364E-3	163.275E-12	687.179E-3	-54.0777E-3
4.06453E-3	159.574E-12	620.460E-3	-34.6820E-3	163.065E-12	673.783E-3	-21.6362E-3
4.05953E-3	159.682E-12	592.646E-3	-20.9586E-3	161.583E-12	656.444E-3	19.3867E-3
4.05453E-3	158.826E-12	601.088E-3	-26.3985E-3	162.293E-12	655.768E-3	10.9544E-3
4.04952E-3	157.674E-12	614.775E-3	-18.3455E-3	161.883E-12	644.478E-3	-14.0976E-3
4.04452E-3	157.295E-12	623.767E-3	533.944E-6	160.851E-12	632.985E-3	-10.6205E-3
4.03952E-3	156.991E-12	639.937E-3	-11.6110E-3	158.808E-12	635.721E-3	-8.67688E-3
4.03452E-3	156.543E-12	649.879E-3	-30.6020E-3	157.314E-12	628.295E-3	-11.9195E-3
4.02951E-3	155.233E-12	642.965E-3	-11.8885E-3	157.866E-12	620.927E-3	-26.1071E-3
4.02451E-3	154.480E-12	653.867E-3	4.91079E-3	157.444E-12	645.275E-3	-52.7475E-3
4.01951E-3	154.377E-12	672.898E-3	-3.47161E-3	156.529E-12	665.188E-3	-41.6048E-3
4.01451E-3	154.614E-12	657.266E-3	-1.81977E-3	155.367E-12	655.194E-3	-13.3195E-3
4.00950E-3	154.942E-12	644.071E-3	-7.50473E-3	156.069E-12	655.477E-3	-34.1128E-3
4.00450E-3	155.011E-12	660.930E-3	-36.7773E-3	156.343E-12	660.862E-3	-60.2225E-3
3.99950E-3	155.563E-12	659.472E-3	-52.1426E-3	156.231E-12	655.623E-3	-46.0771E-3
3.99450E-3	156.333E-12	638.312E-3	-45.1943E-3	155.916E-12	664.697E-3	-20.5387E-3
3.98949E-3	157.228E-12	633.999E-3	-22.6454E-3	157.020E-12	687.716E-3	-7.70852E-3
3.98449E-3	157.073E-12	632.541E-3	-20.4902E-3	157.953E-12	689.710E-3	-3.56828E-3
3.97949E-3	157.103E-12	635.365E-3	-32.5806E-3	157.985E-12	669.549E-3	-6.03143E-3
3.97449E-3	157.501E-12	655.717E-3	-26.3086E-3	157.907E-12	663.472E-3	-9.06388E-3
3.96948E-3	157.727E-12	674.535E-3	-35.0407E-3	157.000E-12	668.141E-3	7.23410E-3
3.96448E-3	157.303E-12	668.715E-3	-37.9153E-3	156.641E-12	659.640E-3	-493.111E-6
3.95948E-3	156.578E-12	661.535E-3	-10.7392E-3	156.391E-12	655.134E-3	-29.3817E-3
3.95448E-3	156.278E-12	685.758E-3	-4.88936E-3	155.754E-12	666.087E-3	-35.7346E-3
3.94947E-3	155.657E-12	699.951E-3	-19.3128E-3	154.014E-12	670.025E-3	-41.0611E-3
3.94447E-3	154.899E-12	682.576E-3	-19.2121E-3	152.685E-12	662.601E-3	-30.4051E-3
3.93947E-3	154.656E-12	675.422E-3	-5.47238E-3	152.168E-12	642.991E-3	-7.71832E-3
3.93447E-3	154.393E-12	686.446E-3	-12.4250E-3	151.903E-12	618.674E-3	-10.7023E-3
3.92946E-3	153.817E-12	683.294E-3	-18.9912E-3	150.445E-12	618.280E-3	-22.7354E-3
3.92446E-3	153.462E-12	667.735E-3	-2.82281E-3	149.699E-12	638.314E-3	-22.6032E-3
3.91946E-3	153.323E-12	667.021E-3	-19.2511E-3	150.371E-12	664.825E-3	-31.8780E-3
3.91446E-3	153.567E-12	671.202E-3	-43.8929E-3	151.394E-12	680.935E-3	-64.1083E-3
3.90945E-3	153.279E-12	665.099E-3	-24.3586E-3	150.924E-12	673.232E-3	-81.4262E-3
3.90445E-3	152.765E-12	675.392E-3	11.8415E-3	151.152E-12	657.326E-3	-61.3377E-3
3.89945E-3	152.610E-12	686.381E-3	20.7824E-3	151.747E-12	649.138E-3	-34.6694E-3
3.89445E-3	153.039E-12	673.726E-3	-4.39131E-3	152.284E-12	653.672E-3	-24.6225E-3
3.88944E-3	153.640E-12	664.401E-3	-35.3561E-3	151.882E-12	657.582E-3	-19.2355E-3
3.88444E-3	152.975E-12	659.094E-3	-36.0094E-3	152.351E-12	665.095E-3	-20.8251E-3
3.87944E-3	152.687E-12	658.251E-3	-6.83316E-3	152.553E-12	683.986E-3	-35.3866E-3
3.87444E-3	152.522E-12	661.557E-3	8.91829E-3	152.434E-12	675.509E-3	-28.7490E-3
3.86943E-3	152.517E-12	659.270E-3	8.28662E-3	151.412E-12	660.286E-3	-11.0900E-3
3.86443E-3	151.972E-12	659.695E-3	4.81314E-3	151.528E-12	672.588E-3	-12.6949E-3
3.85943E-3	150.765E-12	661.121E-3	-13.3967E-3	151.802E-12	681.875E-3	-9.32256E-3
3.85443E-3	150.194E-12	652.122E-3	-24.6954E-3	150.877E-12	689.703E-3	-18.0240E-3
3.84942E-3	150.345E-12	650.402E-3	-10.4373E-3	150.503E-12	697.915E-3	-42.0363E-3
3.84442E-3	149.916E-12	656.163E-3	-11.9018E-3	149.550E-12	700.605E-3	-24.9022E-3
3.83942E-3	149.197E-12	661.108E-3	-28.4227E-3	149.938E-12	701.025E-3	-11.3373E-3
3.83442E-3	148.356E-12	671.718E-3	-24.1541E-3	149.714E-12	684.556E-3	-20.8449E-3
3.82941E-3	148.365E-12	678.421E-3	-11.7195E-3	149.569E-12	665.294E-3	10.2213E-3
3.82441E-3	147.734E-12	685.394E-3	-19.7206E-3	148.578E-12	664.948E-3	34.0455E-3
3.81941E-3	147.516E-12	687.797E-3	-42.0730E-3	148.692E-12	664.433E-3	11.6930E-3
3.81441E-3	146.500E-12	668.137E-3	-42.7841E-3	149.129E-12	659.543E-3	-5.82847E-3
3.80940E-3	146.894E-12	653.822E-3	-32.8326E-3	149.318E-12	666.510E-3	-8.45719E-3
3.80440E-3	146.445E-12	668.569E-3	-25.9691E-3	148.990E-12	677.743E-3	-13.5897E-3
3.79940E-3	146.528E-12	678.873E-3	-21.2649E-3	148.112E-12	666.029E-3	-7.00660E-3
3.79440E-3	145.940E-12	675.786E-3	-42.5255E-3	147.990E-12	642.354E-3	-447.082E-6
3.78939E-3	146.047E-12	676.493E-3	-49.7184E-3	147.739E-12	645.500E-3	-19.7723E-3
3.78439E-3	146.027E-12	674.976E-3	-19.1284E-3	147.355E-12	653.204E-3	-26.7578E-3
3.77939E-3	145.976E-12	672.362E-3	-13.6201E-3	145.955E-12	658.162E-3	-11.9633E-3
3.77439E-3	145.454E-12	674.429E-3	-34.6818E-3	145.499E-12	675.125E-3	-24.1371E-3
3.76938E-3	145.258E-12	670.137E-3	-34.9989E-3	145.106E-12	685.693E-3	-33.8315E-3
3.76438E-3	145.426E-12	668.978E-3	-20.1162E-3	144.632E-12	678.620E-3	-4.79704E-3
3.75938E-3	145.663E-12	675.347E-3	-5.50882E-3	144.187E-12	674.622E-3	-3.83916E-3
3.75438E-3	145.527E-12	673.220E-3	8.72171E-3	144.250E-12	679.478E-3	-37.3611E-3
3.74937E-3	145.362E-12	680.163E-3	7.28550E-3	144.282E-12	674.891E-3	-35.7676E-3
3.74437E-3	145.385E-12	683.715E-3	2.23345E-3	145.166E-12	661.568E-3	-9.26740E-3
3.73937E-3	145.954E-12	660.009E-3	-6.76036E-3	145.304E-12	646.124E-3	9.02539E-3
3.73437E-3	145.678E-12	640.464E-3	-38.5735E-3	145.534E-12	641.181E-3	16.6917E-3
3.72936E-3	145.654E-12	650.701E-3	-50.8105E-3	145.178E-12	650.518E-3	9.23888E-3
3.72436E-3	145.325E-12	661.773E-3	-36.5087E-3	145.069E-12	667.609E-3	-11.2739E-3
3.71936E-3	145.027E-12	644.785E-3	-29.8750E-3	144.527E-12	684.223E-3	-33.8078E-3
3.71436E-3	144.356E-12	643.027E-3	-41.6589E-3	144.174E-12	697.137E-3	-39.4642E-3
3.70935E-3	143.515E-12	664.634E-3	-47.1122E-3	143.523E-12	692.324E-3	-40.4278E-3
3.70435E-3	143.153E-12	670.700E-3	-31.5164E-3	143.205E-12	663.859E-3	-43.7983E-3
3.69935E-3	142.488E-12	660.718E-3	-23.2977E-3	142.745E-12	652.229E-3	-25.8002E-3
3.69435E-3	142.539E-12	651.524E-3	-31.5632E-3	142.330E-12	661.823E-3	-4.37456E-3
3.68934E-3	141.828E-12	649.449E-3	-38.0661E-3	141.220E-12	646.946E-3	-120.327E-6
3.68434E-3	142.255E-12	648.720E-3	-32.8347E-3	141.011E-12	625.192E-3	-16.4702E-3
3.67934E-3	142.023E-12	643.882E-3	-27.1803E-3	140.447E-12	623.980E-3	-36.3046E-3
3.67434E-3	141.945E-12	646.249E-3	-27.8755E-3	140.968E-12	623.697E-3	-35.2486E-3
3.66933E-3	141.163E-12	657.340E-3	-22.9416E-3	140.535E-12	631.981E-3	-23.1520E-3
3.66433E-3	141.613E-12	656.561E-3	-415.335E-6	141.237E-12	639.591E-3	-21.3422E-3
3.65933E-3	141.960E-12	657.755E-3	15.9018E-3	141.621E-12	656.444E-3	-24.9757E-3
3.65433E-3	142.428E-12	664.317E-3	12.5667E-3	142.675E-12	688.328E-3	-20.0475E-3
3.64932E-3	142.827E-12	658.399E-3	1.33252E-3	142.817E-12	682.316E-3	-15.6530E-3
3.64432E-3	142.518E-12	649.858E-3	-6.43096E-3	142.603E-12	657.329E-3	-5.14158E-3
3.63932E-3	141.964E-12	663.024E-3	-5.93354E-3	142.645E-12	650.694E-3	-1.61250E-3
3.63432E-3	141.897E-12	680.713E-3	-14.4413E-3	143.029E-12	648.488E-3	-7.96022E-3
3.62931E-3	141.419E-12	683.903E-3	-31.7386E-3	143.194E-12	651.271E-3	218.540E-6
3.62431E-3	140.300E-12	686.370E-3	-29.4227E-3	142.785E-12	669.557E-3	-7.26182E-3
3.61931E-3	139.212E-12	671.403E-3	-15.5574E-3	141.968E-12	682.384E-3	-26.4325E-3
3.61431E-3	138.660E-12	635.893E-3	-12.2838E-3	140.684E-12	666.172E-3	-17.4542E-3
3.60930E-3	138.320E-12	632.184E-3	-15.6401E-3	140.185E-12	650.679E-3	-1.51161E-3
3.60430E-3	137.681E-12	660.172E-3	-17.4994E-3	139.593E-12	658.958E-3	-1.56466E-3
3.59930E-3	136.422E-12	672.704E-3	-15.7498E-3	138.350E-12	675.094E-3	-17.4521E-3
3.59430E-3	136.684E-12	679.014E-3	-16.1977E-3	137.236E-12	674.669E-3	-27.9351E-3
3.58929E-3	136.330E-12	693.584E-3	-20.9428E-3	136.807E-12	657.740E-3	-29.9830E-3
3.58429E-3	136.745E-12	694.266E-3	-28.9888E-3	137.045E-12	656.561E-3	-42.1532E-3
3.57929E-3	136.066E-12	681.271E-3	-18.0658E-3	136.215E-12	672.330E-3	-42.6006E-3
3.57429E-3	136.710E-12	683.860E-3	6.50398E-3	135.952E-12	680.610E-3	-22.8197E-3
3.56928E-3	136.786E-12	680.643E-3	6.32668E-3	135.799E-12	683.804E-3	-5.55182E-3
3.56428E-3	137.239E-12	673.551E-3	-19.8083E-3	136.861E-12	686.532E-3	-2.03730E-3
3.55928E-3	137.175E-12	687.346E-3	-36.2823E-3	136.887E-12	684.496E-3	-9.16501E-3
3.55428E-3	137.274E-12	691.477E-3	-16.6453E-3	136.876E-12	674.594E-3	-24.9972E-3
3.54927E-3	136.935E-12	682.854E-3	6.53524E-3	136.940E-12	671.349E-3	-18.6400E-3
3.54427E-3	136.746E-12	680.584E-3	11.3387E-3	136.931E-12	687.295E-3	9.35145E-3
3.53927E-3	136.880E-12	675.042E-3	6.29656E-3	136.962E-12	691.871E-3	19.2698E-3
3.53427E-3	136.626E-12	647.539E-3	-14.9648E-3	136.225E-12	665.986E-3	7.50526E-3
3.52926E-3	135.999E-12	628.258E-3	-26.0407E-3	135.854E-12	645.571E-3	-18.4478E-3
3.52426E-3	135.300E-12	639.463E-3	-13.4872E-3	135.556E-12	655.840E-3	-43.1408E-3
3.51926E-3	135.035E-12	647.314E-3	-13.0311E-3	135.038E-12	654.889E-3	-38.3521E-3
3.51426E-3	134.776E-12	647.533E-3	-25.9331E-3	134.549E-12	639.721E-3	-10.6461E-3
3.50925E-3	133.434E-12	647.182E-3	-29.7893E-3	133.670E-12	647.676E-3	4.82496E-3
3.50425E-3	133.164E-12	633.637E-3	-14.4835E-3	133.200E-12	663.545E-3	-12.7691E-3
3.49925E-3	132.742E-12	638.299E-3	-1.30006E-3	132.916E-12	683.054E-3	-38.8471E-3
3.49425E-3	132.962E-12	659.617E-3	-10.2455E-3	133.056E-12	696.907E-3	-32.9869E-3
3.48924E-3	132.030E-12	653.611E-3	-14.4377E-3	132.455E-12	680.472E-3	-15.1647E-3
3.48424E-3	132.171E-12	636.064E-3	-11.9838E-3	132.403E-12	657.219E-3	-10.3738E-3
3.47924E-3	132.292E-12	632.830E-3	-6.49734E-3	132.572E-12	656.302E-3	-17.4056E-3
3.47424E-3	133.025E-12	648.504E-3	-4.95055E-3	132.869E-12	660.560E-3	-34.8976E-3
3.46923E-3	132.957E-12	671.220E-3	-18.9062E-3	132.834E-12	657.077E-3	-43.6086E-3
3.46423E-3	132.938E-12	671.016E-3	-15.6860E-3	132.463E-12	671.649E-3	-39.6179E-3
3.45923E-3	132.311E-12	659.296E-3	-12.6381E-3	132.808E-12	693.336E-3	-43.2223E-3
3.45423E-3	132.543E-12	668.923E-3	-35.1570E-3	132.980E-12	695.189E-3	-49.0266E-3
3.44922E-3	132.865E-12	675.143E-3	-33.2307E-3	132.899E-12	684.610E-3	-46.2733E-3
3.44422E-3	132.678E-12	668.315E-3	-13.3765E-3	132.438E-12	668.843E-3	-30.2608E-3
3.43922E-3	131.831E-12	672.657E-3	-11.2729E-3	132.428E-12	663.437E-3	944.685E-6
3.43422E-3	131.337E-12	692.062E-3	-22.4265E-3	132.119E-12	676.340E-3	17.0103E-3
3.42921E-3	131.537E-12	698.755E-3	-39.1187E-3	131.749E-12	684.939E-3	7.32957E-3
3.42421E-3	131.641E-12	671.231E-3	-48.2488E-3	131.511E-12	679.043E-3	-11.1664E-3
3.41921E-3	130.732E-12	662.847E-3	-43.7080E-3	130.895E-12	676.188E-3	-28.9402E-3
3.41421E-3	130.136E-12	685.717E-3	-35.1726E-3	130.966E-12	675.686E-3	-30.2746E-3
3.40920E-3	129.622E-12	688.073E-3	-46.3913E-3	130.573E-12	672.938E-3	-23.2224E-3
3.40420E-3	129.689E-12	667.886E-3	-57.0268E-3	130.662E-12	681.510E-3	-28.8114E-3
3.39920E-3	129.284E-12	658.167E-3	-45.8049E-3	130.213E-12	687.382E-3	-29.2716E-3
3.39420E-3	129.268E-12	668.110E-3	-41.1990E-3	130.025E-12	676.535E-3	-24.0163E-3
3.38919E-3	128.888E-12	679.942E-3	-37.1097E-3	129.584E-12	666.654E-3	-26.5746E-3
3.38419E-3	128.681E-12	682.491E-3	-12.6908E-3	129.375E-12	666.290E-3	-19.4634E-3
3.37919E-3	128.872E-12	686.294E-3	-8.25331E-3	129.410E-12	657.192E-3	-13.6939E-3
3.37419E-3	128.960E-12	679.677E-3	-24.3479E-3	129.387E-12	648.183E-3	-15.2241E-3
3.36918E-3	128.457E-12	658.883E-3	-12.3621E-3	129.507E-12	649.020E-3	-11.6045E-3
3.36418E-3	128.035E-12	668.043E-3	-17.5051E-3	128.469E-12	648.135E-3	-19.2349E-3
3.35918E-3	128.239E-12	701.222E-3	-48.6380E-3	128.268E-12	657.331E-3	-27.6165E-3
3.35418E-3	127.805E-12	708.955E-3	-37.3348E-3	128.399E-12	674.186E-3	-24.6363E-3
3.34917E-3	127.999E-12	685.821E-3	-7.54211E-3	128.337E-12	679.001E-3	-26.8786E-3
3.34417E-3	127.490E-12	668.417E-3	5.46835E-3	127.587E-12	654.879E-3	-20.8220E-3
3.33917E-3	127.622E-12	676.394E-3	27.9664E-3	127.219E-12	639.905E-3	-9.58893E-3
3.33417E-3	127.152E-12	682.382E-3	29.7992E-3	127.371E-12	661.644E-3	-25.2386E-3
3.32916E-3	126.959E-12	681.634E-3	-3.44784E-3	127.167E-12	681.832E-3	-39.6556E-3
3.32416E-3	127.577E-12	687.901E-3	-26.1940E-3	126.683E-12	694.567E-3	-28.8027E-3
3.31916E-3	127.460E-12	684.213E-3	-31.5823E-3	126.656E-12	702.540E-3	-27.0259E-3
3.31416E-3	127.084E-12	674.275E-3	-33.5129E-3	126.367E-12	700.588E-3	-24.9338E-3
3.30915E-3	126.577E-12	673.529E-3	-30.5029E-3	126.188E-12	696.586E-3	-4.99493E-3
3.30415E-3	126.825E-12	661.286E-3	-23.8758E-3	126.264E-12	691.739E-3	-4.19095E-3
3.29915E-3	126.467E-12	651.930E-3	-19.5026E-3	126.550E-12	681.818E-3	-26.8647E-3
3.29415E-3	126.011E-12	675.386E-3	-12.9784E-3	126.261E-12	681.376E-3	-44.2050E-3
3.28914E-3	125.641E-12	684.642E-3	-17.3378E-3	126.332E-12	689.199E-3	-32.3384E-3
3.28414E-3	125.086E-12	665.241E-3	-29.8848E-3	126.028E-12	692.219E-3	-8.22042E-3
3.27914E-3	124.963E-12	671.132E-3	-26.2259E-3	125.517E-12	681.029E-3	-10.2936E-3
3.27414E-3	124.195E-12	689.843E-3	-15.7368E-3	124.942E-12	659.619E-3	-25.2887E-3
3.26913E-3	123.691E-12	678.004E-3	-12.6336E-3	124.816E-12	664.488E-3	-27.4554E-3
3.26413E-3	123.261E-12	657.200E-3	-12.7460E-3	124.482E-12	687.289E-3	-19.1356E-3
3.25913E-3	122.869E-12	648.564E-3	-11.5707E-3	124.093E-12	691.618E-3	-8.34787E-3
3.25413E-3	122.707E-12	652.088E-3	-12.9925E-3	123.333E-12	690.409E-3	1.88192E-3
3.24912E-3	122.415E-12	669.037E-3	-17.9007E-3	123.431E-12	696.315E-3	-3.35284E-3
3.24412E-3	122.424E-12	665.009E-3	-20.7594E-3	123.099E-12	683.687E-3	-22.4799E-3
3.23912E-3	122.281E-12	641.651E-3	-18.2073E-3	122.997E-12	656.201E-3	-25.9900E-3
3.23412E-3	122.111E-12	646.076E-3	-14.8736E-3	122.484E-12	653.024E-3	-10.4382E-3
3.22911E-3	121.580E-12	655.719E-3	-21.6757E-3	122.592E-12	670.661E-3	-13.1467E-3
3.22411E-3	121.763E-12	670.294E-3	-27.5593E-3	122.462E-12	685.696E-3	-28.8206E-3
3.21911E-3	121.634E-12	688.182E-3	-24.2177E-3	122.533E-12	694.957E-3	-29.2373E-3
3.21411E-3	121.955E-12	671.684E-3	-16.4688E-3	122.023E-12	691.614E-3	-35.2120E-3
3.20910E-3	121.516E-12	657.155E-3	216.239E-6	121.612E-12	676.318E-3	-33.4561E-3
3.20410E-3	120.739E-12	668.737E-3	18.7783E-3	121.220E-12	676.090E-3	-10.0333E-3
3.19910E-3	120.320E-12	673.771E-3	25.0664E-3	121.118E-12	700.453E-3	7.88327E-3
3.19410E-3	119.741E-12	661.797E-3	9.15050E-3	120.628E-12	701.745E-3	6.97510E-3
3.18909E-3	118.920E-12	657.232E-3	-14.0037E-3	119.990E-12	663.822E-3	-7.18094E-3
3.18409E-3	118.319E-12	663.688E-3	-19.7628E-3	119.936E-12	635.144E-3	-12.2599E-3
3.17909E-3	118.195E-12	670.921E-3	-23.4433E-3	119.255E-12	625.400E-3	-3.75022E-3
3.17409E-3	117.617E-12	673.199E-3	-32.0736E-3	118.479E-12	622.348E-3	5.71625E-3
3.16908E-3	117.663E-12	667.651E-3	-31.9685E-3	117.955E-12	644.577E-3	2.09719E-3
3.16408E-3	117.904E-12	665.480E-3	-24.5753E-3	117.718E-12	670.745E-3	-10.1139E-3
3.15908E-3	118.183E-12	668.458E-3	-35.5169E-3	116.803E-12	670.333E-3	-7.57798E-3
3.15408E-3	117.986E-12	666.583E-3	-50.9870E-3	116.859E-12	675.127E-3	2.00766E-3
3.14907E-3	118.191E-12	655.760E-3	-44.1107E-3	117.226E-12	681.318E-3	-3.77277E-3
3.14407E-3	118.691E-12	656.812E-3	-30.9701E-3	117.123E-12	673.437E-3	-13.4683E-3
3.13907E-3	118.639E-12	670.108E-3	-6.18774E-3	116.781E-12	672.123E-3	-639.631E-6
3.13407E-3	118.261E-12	680.283E-3	17.0636E-3	116.976E-12	662.648E-3	16.3931E-3
3.12906E-3	118.467E-12	688.982E-3	26.9129E-3	117.157E-12	663.169E-3	1.69304E-3
3.12406E-3	118.927E-12	684.803E-3	25.8843E-3	117.540E-12	680.836E-3	-31.7734E-3
3.11906E-3	118.698E-12	676.380E-3	7.77349E-3	116.940E-12	666.712E-3	-49.0859E-3
3.11406E-3	117.978E-12	682.997E-3	-20.9409E-3	116.579E-12	637.871E-3	-39.3082E-3
3.10905E-3	117.948E-12	691.189E-3	-33.9217E-3	116.832E-12	630.895E-3	-30.4700E-3
3.10405E-3	118.077E-12	697.289E-3	-18.2096E-3	116.718E-12	639.504E-3	-31.4229E-3
3.09905E-3	117.739E-12	700.798E-3	-4.41833E-3	116.273E-12	648.409E-3	-14.9069E-3
3.09405E-3	116.495E-12	698.171E-3	-3.81161E-3	115.826E-12	654.520E-3	13.5593E-3
3.08904E-3	116.037E-12	701.116E-3	3.49937E-3	115.849E-12	660.527E-3	19.3100E-3
3.08404E-3	116.002E-12	706.587E-3	7.41104E-3	116.105E-12	644.734E-3	-8.32716E-3
3.07904E-3	116.002E-12	702.158E-3	10.2405E-3	115.672E-12	637.354E-3	-34.5300E-3
3.07404E-3	115.538E-12	686.079E-3	24.3731E-3	114.982E-12	662.635E-3	-34.6100E-3
3.06903E-3	115.458E-12	684.662E-3	27.3730E-3	114.716E-12	666.517E-3	-16.9807E-3
3.06403E-3	115.169E-12	695.031E-3	18.4733E-3	114.801E-12	666.558E-3	-5.35172E-3
3.05903E-3	115.085E-12	698.843E-3	7.24885E-3	114.638E-12	687.633E-3	-12.1178E-3
3.05403E-3	114.664E-12	701.245E-3	3.52346E-3	114.293E-12	691.534E-3	-22.5118E-3
3.04902E-3	114.443E-12	698.510E-3	625.741E-6	114.009E-12	696.683E-3	-20.6934E-3
3.04402E-3	114.278E-12	684.167E-3	-15.8399E-3	114.042E-12	723.158E-3	-17.5815E-3
3.03902E-3	114.059E-12	675.692E-3	-31.5695E-3	114.180E-12	726.336E-3	-20.9370E-3
3.03402E-3	114.471E-12	676.448E-3	-32.9086E-3	114.165E-12	699.701E-3	-17.4381E-3
3.02901E-3	114.183E-12	676.020E-3	-28.4585E-3	114.395E-12	680.247E-3	-22.5949E-3
3.02401E-3	113.903E-12	686.046E-3	-34.0231E-3	114.217E-12	680.560E-3	-34.7811E-3
3.01901E-3	113.505E-12	699.750E-3	-32.7048E-3	114.165E-12	693.645E-3	-23.4061E-3
3.01401E-3	113.523E-12	699.116E-3	-32.6055E-3	113.866E-12	701.007E-3	-10.9102E-3
3.00900E-3	113.090E-12	691.771E-3	-38.1217E-3	113.662E-12	692.362E-3	-11.2572E-3
3.00400E-3	112.446E-12	688.107E-3	-15.6320E-3	113.270E-12	688.440E-3	-8.14219E-3
2.99900E-3	111.954E-12	679.779E-3	-3.15661E-3	112.681E-12	704.750E-3	-5.01219E-3
2.99400E-3	111.607E-12	666.764E-3	-14.0330E-3	112.423E-12	723.270E-3	-3.61825E-3
2.98899E-3	111.571E-12	653.953E-3	-12.7787E-3	112.290E-12	727.812E-3	2.08849E-3
2.98399E-3	110.957E-12	655.849E-3	3.20455E-3	111.784E-12	712.523E-3	3.05063E-3
2.97899E-3	110.529E-12	665.070E-3	12.8054E-3	110.953E-12	697.868E-3	-8.48936E-3
2.97399E-3	110.418E-12	670.749E-3	-14.5212E-3	110.925E-12	697.077E-3	-12.5569E-3
2.96898E-3	110.406E-12	678.771E-3	-42.7328E-3	110.619E-12	700.159E-3	-790.755E-6
2.96398E-3	110.118E-12	688.115E-3	-25.5198E-3	110.495E-12	701.796E-3	-2.77139E-3
2.95898E-3	109.885E-12	697.037E-3	-1.36236E-3	110.275E-12	690.831E-3	-19.2475E-3
2.95398E-3	109.293E-12	700.095E-3	1.26982E-3	109.921E-12	680.324E-3	-22.7483E-3
2.94897E-3	108.914E-12	697.339E-3	1.91348E-3	109.297E-12	688.253E-3	-20.9762E-3
2.94397E-3	109.289E-12	697.827E-3	-6.08079E-3	109.171E-12	695.335E-3	-24.1938E-3
2.93897E-3	108.773E-12	707.951E-3	-25.2984E-3	108.802E-12	688.631E-3	-17.0918E-3
2.93397E-3	108.865E-12	708.321E-3	-36.2159E-3	108.917E-12	681.496E-3	183.829E-6
2.92896E-3	108.657E-12	688.133E-3	-38.7410E-3	108.572E-12	666.840E-3	1.62280E-3
2.92396E-3	108.857E-12	673.615E-3	-41.1470E-3	108.141E-12	667.500E-3	-10.6573E-3
2.91896E-3	108.986E-12	667.386E-3	-48.1280E-3	108.458E-12	683.772E-3	-7.94564E-3
2.91396E-3	109.016E-12	665.466E-3	-46.3220E-3	108.395E-12	675.711E-3	3.34120E-3
2.90895E-3	108.976E-12	683.155E-3	-32.1503E-3	107.913E-12	667.582E-3	3.70428E-3
2.90395E-3	109.079E-12	698.382E-3	-31.8665E-3	107.629E-12	677.290E-3	-8.77988E-3
2.89895E-3	108.959E-12	696.445E-3	-37.1392E-3	108.043E-12	684.839E-3	-22.0695E-3
2.89395E-3	108.453E-12	704.060E-3	-39.0030E-3	107.983E-12	677.362E-3	-29.2171E-3
2.88894E-3	108.204E-12	707.852E-3	-35.1117E-3	107.167E-12	670.747E-3	-26.0359E-3
2.88394E-3	107.640E-12	698.776E-3	-28.9307E-3	106.700E-12	680.161E-3	-19.2774E-3
2.87894E-3	107.106E-12	688.404E-3	-31.1766E-3	106.750E-12	693.471E-3	-20.6701E-3
2.87394E-3	106.542E-12	685.919E-3	-34.3324E-3	106.774E-12	709.762E-3	-27.4570E-3
2.86893E-3	106.597E-12	703.035E-3	-39.8161E-3	106.138E-12	708.183E-3	-31.7447E-3
2.86393E-3	106.326E-12	713.182E-3	-37.9697E-3	105.348E-12	690.639E-3	-16.5429E-3
2.85893E-3	105.808E-12	706.772E-3	-23.1399E-3	104.821E-12	688.282E-3	-6.26038E-3
2.85393E-3	105.436E-12	700.185E-3	-12.2350E-3	104.810E-12	681.441E-3	-21.9558E-3
2.84892E-3	104.912E-12	700.499E-3	-13.1057E-3	104.448E-12	675.638E-3	-34.4856E-3
2.84392E-3	104.559E-12	692.828E-3	-15.7175E-3	103.591E-12	693.193E-3	-36.1063E-3
2.83892E-3	103.894E-12	674.098E-3	-12.9401E-3	103.699E-12	704.031E-3	-35.0111E-3
2.83392E-3	103.819E-12	691.455E-3	-6.25552E-3	103.847E-12	705.060E-3	-17.6701E-3
2.82891E-3	103.669E-12	730.056E-3	-10.2220E-3	103.542E-12	715.133E-3	8.84440E-3
2.82391E-3	103.453E-12	724.794E-3	-14.2034E-3	103.442E-12	709.826E-3	5.92325E-3
2.81891E-3	103.515E-12	702.638E-3	-1.67927E-3	103.772E-12	692.196E-3	-7.23560E-3
2.81391E-3	103.700E-12	691.953E-3	-3.74982E-3	103.565E-12	694.440E-3	2.22368E-3
2.80890E-3	103.837E-12	689.771E-3	-24.8380E-3	103.397E-12	707.497E-3	17.6147E-3
2.80390E-3	103.461E-12	708.978E-3	-43.3669E-3	103.098E-12	713.485E-3	5.84113E-3
2.79890E-3	103.333E-12	712.456E-3	-52.4742E-3	103.301E-12	723.458E-3	-24.1245E-3
2.79390E-3	103.067E-12	683.178E-3	-59.0909E-3	103.205E-12	724.001E-3	-32.3005E-3
2.78889E-3	102.448E-12	673.241E-3	-56.7216E-3	103.177E-12	693.608E-3	-22.5016E-3
2.78389E-3	101.790E-12	702.396E-3	-28.2195E-3	102.580E-12	673.040E-3	-12.6908E-3
2.77889E-3	101.096E-12	719.628E-3	-49.4913E-6	102.479E-12	679.802E-3	-6.89578E-3
2.77389E-3	100.714E-12	708.414E-3	634.487E-6	102.320E-12	685.973E-3	-3.04502E-3
2.76888E-3	100.068E-12	698.160E-3	-5.40405E-3	101.775E-12	700.370E-3	7.65315E-3
2.76388E-3	99.9325E-12	704.486E-3	-2.42368E-3	101.282E-12	723.204E-3	9.33871E-3
2.75888E-3	99.6624E-12	709.113E-3	-7.98975E-3	100.847E-12	714.072E-3	-6.74098E-3
2.75388E-3	99.0635E-12	701.146E-3	-7.64695E-3	100.599E-12	690.747E-3	-12.4312E-3
2.74887E-3	98.4744E-12	700.628E-3	-4.13938E-3	100.146E-12	692.015E-3	-1.98093E-3
2.74387E-3	98.5240E-12	705.908E-3	-24.5057E-3	99.4532E-12	698.222E-3	2.68439E-3
2.73887E-3	98.9025E-12	703.909E-3	-37.7779E-3	99.2615E-12	688.778E-3	-2.20715E-3
2.73387E-3	98.2604E-12	694.218E-3	-29.6432E-3	99.2867E-12	680.246E-3	-12.9905E-3
2.72886E-3	98.0404E-12	696.877E-3	-28.7886E-3	98.8332E-12	684.166E-3	-32.1835E-3
2.72386E-3	98.5151E-12	713.287E-3	-41.5315E-3	98.5330E-12	684.567E-3	-45.8586E-3
2.71886E-3	99.1776E-12	717.559E-3	-49.1103E-3	98.4004E-12	684.510E-3	-42.6588E-3
2.71386E-3	99.0206E-12	707.308E-3	-35.4494E-3	98.3974E-12	697.792E-3	-36.7885E-3
2.70885E-3	98.8005E-12	700.063E-3	-19.8106E-3	97.7916E-12	708.253E-3	-26.7652E-3
2.70385E-3	98.8236E-12	705.550E-3	-16.9995E-3	97.7193E-12	701.652E-3	-19.4341E-3
2.69885E-3	99.1295E-12	710.246E-3	-24.5776E-3	97.7450E-12	693.458E-3	-31.4884E-3
2.69385E-3	99.0709E-12	692.863E-3	-40.6762E-3	97.5410E-12	704.334E-3	-30.5876E-3
2.68884E-3	97.9268E-12	672.295E-3	-46.3032E-3	97.5836E-12	724.162E-3	-14.2675E-3
2.68384E-3	97.1178E-12	678.654E-3	-40.3050E-3	97.3190E-12	724.458E-3	-19.2439E-3
2.67884E-3	96.8769E-12	706.809E-3	-41.0810E-3	97.0067E-12	706.468E-3	-30.5985E-3
2.67384E-3	96.9426E-12	719.289E-3	-45.0200E-3	97.0212E-12	693.073E-3	-25.2250E-3
2.66883E-3	96.1688E-12	706.897E-3	-38.9953E-3	96.9117E-12	699.933E-3	-17.8947E-3
2.66383E-3	95.3305E-12	692.047E-3	-17.6675E-3	96.5030E-12	706.370E-3	-21.3502E-3
2.65883E-3	95.1236E-12	671.806E-3	10.5799E-3	96.2012E-12	694.704E-3	-22.1468E-3
2.65383E-3	94.8927E-12	660.653E-3	17.2732E-3	95.7898E-12	692.947E-3	-15.1199E-3
2.64882E-3	95.1010E-12	683.910E-3	3.97795E-3	95.8892E-12	694.618E-3	-16.0565E-3
2.64382E-3	94.3753E-12	710.327E-3	-6.42434E-3	95.5533E-12	693.664E-3	-9.62306E-3
2.63882E-3	94.1766E-12	703.743E-3	-10.2996E-3	95.1644E-12	714.573E-3	-1.90867E-3
2.63382E-3	94.3596E-12	697.957E-3	-9.44993E-3	94.9132E-12	732.488E-3	-7.91974E-3
2.62881E-3	95.0201E-12	706.149E-3	520.944E-6	94.9894E-12	718.795E-3	-12.0802E-3
2.62381E-3	94.5482E-12	698.187E-3	7.19715E-3	94.7842E-12	698.036E-3	-25.2292E-3
2.61881E-3	93.8895E-12	698.896E-3	-15.4945E-3	94.4190E-12	691.806E-3	-43.3642E-3
2.61381E-3	94.0471E-12	712.688E-3	-21.2500E-3	94.2190E-12	697.692E-3	-36.1036E-3
2.60880E-3	94.1926E-12	698.460E-3	5.73258E-3	93.7183E-12	718.501E-3	-17.2014E-3
2.60380E-3	94.0184E-12	683.764E-3	8.04215E-3	93.5678E-12	736.071E-3	-14.9459E-3
2.59880E-3	93.2334E-12	702.822E-3	-11.6613E-3	93.3385E-12	722.784E-3	-20.3984E-3
2.59380E-3	92.6352E-12	725.873E-3	-14.4979E-3	92.9827E-12	706.607E-3	-15.3151E-3
2.58879E-3	92.3220E-12	726.198E-3	2.18304E-3	92.9187E-12	704.969E-3	-5.65973E-3
2.58379E-3	92.5110E-12	717.122E-3	4.60847E-3	92.8155E-12	700.756E-3	-8.56341E-3
2.57879E-3	92.2992E-12	701.038E-3	-13.5262E-3	92.9517E-12	697.201E-3	-16.3060E-3
2.57379E-3	91.7442E-12	692.327E-3	-35.9253E-3	92.8144E-12	696.002E-3	-25.8087E-3
2.56878E-3	91.1301E-12	717.915E-3	-50.3693E-3	92.3453E-12	698.837E-3	-33.6174E-3
2.56378E-3	91.1411E-12	725.031E-3	-42.6313E-3	91.8628E-12	712.193E-3	-32.0201E-3
2.55878E-3	90.7459E-12	709.510E-3	-28.9333E-3	91.7535E-12	712.990E-3	-28.2761E-3
2.55378E-3	90.8943E-12	714.278E-3	-15.0210E-3	91.3220E-12	704.995E-3	-11.9646E-3
2.54877E-3	90.0423E-12	712.194E-3	-2.57363E-3	91.0996E-12	715.169E-3	-2.90642E-3
2.54377E-3	90.3570E-12	701.909E-3	-10.7592E-3	90.7995E-12	723.572E-3	-13.9595E-3
2.53877E-3	89.6498E-12	709.510E-3	-27.2884E-3	90.6112E-12	723.609E-3	-1.98321E-3
2.53377E-3	89.2458E-12	715.450E-3	-29.2562E-3	89.9934E-12	728.808E-3	16.8910E-3
2.52876E-3	88.9772E-12	705.047E-3	-20.0605E-3	89.6661E-12	718.499E-3	-2.89568E-3
2.52376E-3	88.8429E-12	711.807E-3	-16.5545E-3	89.3468E-12	694.735E-3	-21.0681E-3
2.51876E-3	89.0584E-12	724.553E-3	-25.0589E-3	89.0037E-12	689.112E-3	-17.2501E-3
2.51376E-3	88.5808E-12	714.989E-3	-29.3899E-3	88.6957E-12	706.026E-3	-21.6764E-3
2.50875E-3	88.8380E-12	722.225E-3	-16.1619E-3	88.3336E-12	723.188E-3	-25.0385E-3
2.50375E-3	88.9868E-12	736.469E-3	3.63457E-3	88.3220E-12	719.590E-3	-20.7873E-3
2.49875E-3	89.1482E-12	734.894E-3	13.4487E-3	88.0680E-12	713.019E-3	-19.1985E-3
2.49375E-3	88.7043E-12	739.238E-3	9.78149E-3	87.7570E-12	708.862E-3	-22.9779E-3
2.48874E-3	88.8731E-12	729.119E-3	-8.26888E-3	87.4971E-12	702.498E-3	-19.9837E-3
2.48374E-3	88.9555E-12	711.532E-3	-23.6215E-3	87.5825E-12	709.715E-3	-2.85323E-3
2.47874E-3	88.8091E-12	720.673E-3	-15.4887E-3	87.7542E-12	717.615E-3	2.30718E-3
2.47374E-3	88.5466E-12	732.451E-3	3.57875E-3	87.5920E-12	718.400E-3	-12.0018E-3
2.46873E-3	88.1268E-12	730.463E-3	7.72164E-3	87.6708E-12	729.232E-3	-16.8931E-3
2.46373E-3	87.9809E-12	722.609E-3	-5.70421E-3	87.3650E-12	737.243E-3	-19.0269E-3
2.45873E-3	87.3137E-12	728.039E-3	-23.4176E-3	87.2490E-12	727.734E-3	-23.2505E-3
2.45373E-3	86.5816E-12	747.496E-3	-33.5670E-3	86.6301E-12	725.595E-3	-15.5751E-3
2.44872E-3	85.9867E-12	754.721E-3	-32.9731E-3	86.0227E-12	729.802E-3	-14.6115E-3
2.44372E-3	85.8273E-12	742.705E-3	-23.0744E-3	85.6731E-12	726.192E-3	-20.9925E-3
2.43872E-3	85.2891E-12	723.165E-3	-17.3401E-3	85.5203E-12	728.884E-3	-22.3014E-3
2.43372E-3	84.5587E-12	720.527E-3	-20.1768E-3	85.1880E-12	721.265E-3	-12.7502E-3
2.42871E-3	84.0524E-12	733.072E-3	-11.6382E-3	84.7639E-12	701.384E-3	815.037E-6
2.42371E-3	83.7947E-12	733.257E-3	-9.90370E-3	84.4094E-12	699.871E-3	-4.70107E-3
2.41871E-3	83.7289E-12	718.106E-3	-17.1287E-3	84.0715E-12	706.014E-3	-23.7376E-3
2.41371E-3	83.2201E-12	701.218E-3	-14.3697E-3	83.7985E-12	715.241E-3	-27.0522E-3
2.40870E-3	83.2061E-12	693.907E-3	-15.4789E-3	83.3813E-12	735.301E-3	-8.83415E-3
2.40370E-3	83.0026E-12	699.039E-3	-23.2801E-3	83.1719E-12	741.581E-3	4.24043E-3
2.39870E-3	83.1965E-12	706.358E-3	-30.4504E-3	83.3811E-12	733.272E-3	653.337E-6
2.39370E-3	83.3062E-12	709.942E-3	-28.4504E-3	83.3213E-12	734.459E-3	-10.3515E-3
2.38869E-3	83.2220E-12	709.493E-3	-11.9455E-3	83.4081E-12	738.865E-3	-12.0047E-3
2.38369E-3	82.9408E-12	724.205E-3	-364.092E-6	83.2780E-12	733.337E-3	3.62055E-3
2.37869E-3	82.8116E-12	750.767E-3	2.26803E-3	83.2475E-12	716.225E-3	7.47124E-3
2.37369E-3	82.7584E-12	761.039E-3	9.21054E-3	83.1942E-12	706.671E-3	-11.9378E-3
2.36868E-3	82.3165E-12	761.395E-3	6.75043E-3	82.8812E-12	701.336E-3	-33.5587E-3
2.36368E-3	81.6608E-12	752.029E-3	5.77633E-3	82.4699E-12	703.936E-3	-29.9518E-3
2.35868E-3	81.2045E-12	726.673E-3	16.2913E-3	82.3153E-12	731.334E-3	-12.4060E-3
2.35368E-3	81.0606E-12	715.172E-3	17.7762E-3	81.7724E-12	741.412E-3	-17.7761E-3
2.34867E-3	80.6277E-12	725.630E-3	9.63742E-3	81.5056E-12	732.002E-3	-25.9804E-3
2.34367E-3	80.0519E-12	727.066E-3	177.351E-6	80.8808E-12	737.151E-3	-27.9822E-3
2.33867E-3	79.3514E-12	721.906E-3	-21.6656E-3	80.6278E-12	736.926E-3	-34.0556E-3
2.33367E-3	79.3485E-12	718.129E-3	-39.4806E-3	80.2522E-12	727.268E-3	-26.2073E-3
2.32866E-3	79.2404E-12	708.241E-3	-25.6503E-3	79.8227E-12	730.790E-3	-17.4925E-3
2.32366E-3	78.8987E-12	718.385E-3	-8.80007E-3	79.5839E-12	741.781E-3	-19.4989E-3
2.31866E-3	78.4188E-12	749.390E-3	-4.67504E-3	79.1764E-12	745.682E-3	-19.6045E-3
2.31366E-3	78.5833E-12	756.375E-3	-925.712E-6	78.9394E-12	745.753E-3	-22.4133E-3
2.30865E-3	79.2260E-12	737.935E-3	2.15264E-3	78.8602E-12	749.198E-3	-22.2695E-3
2.30365E-3	79.3560E-12	727.036E-3	5.12454E-3	78.8115E-12	748.573E-3	-6.18420E-3
2.29865E-3	79.3533E-12	729.962E-3	889.247E-6	78.6095E-12	738.899E-3	-707.624E-6
2.29365E-3	79.0505E-12	737.306E-3	-21.3937E-3	78.5526E-12	740.198E-3	-18.7481E-3
2.28864E-3	79.0809E-12	745.555E-3	-41.4889E-3	78.5165E-12	754.934E-3	-29.0268E-3
2.28364E-3	79.3280E-12	748.263E-3	-38.0988E-3	78.3238E-12	762.729E-3	-31.4602E-3
2.27864E-3	79.3187E-12	748.777E-3	-16.1308E-3	77.9739E-12	752.859E-3	-35.5236E-3
2.27364E-3	78.9288E-12	753.767E-3	6.20633E-3	77.6580E-12	736.627E-3	-21.7086E-3
2.26863E-3	78.3493E-12	751.563E-3	4.25747E-3	77.4931E-12	736.536E-3	6.87775E-3
2.26363E-3	77.9003E-12	760.733E-3	-15.5744E-3	76.7592E-12	735.025E-3	20.3749E-3
2.25863E-3	77.6718E-12	773.197E-3	-20.9765E-3	76.5233E-12	735.021E-3	16.5647E-3
2.25363E-3	77.4601E-12	755.834E-3	-15.2103E-3	76.1598E-12	743.085E-3	1.16440E-3
2.24862E-3	76.7416E-12	747.334E-3	-16.6567E-3	75.9838E-12	728.648E-3	-15.9071E-3
2.24362E-3	75.8867E-12	760.462E-3	-18.3456E-3	75.7192E-12	716.125E-3	-14.4623E-3
2.23862E-3	75.7079E-12	766.461E-3	-16.2579E-3	75.2873E-12	729.873E-3	-3.53297E-3
2.23362E-3	75.7246E-12	769.100E-3	-17.9858E-3	75.1049E-12	740.494E-3	-5.95029E-3
2.22861E-3	75.4422E-12	765.549E-3	-18.0725E-3	75.0313E-12	739.531E-3	-16.7074E-3
2.22361E-3	74.7269E-12	763.500E-3	-10.7055E-3	74.7802E-12	738.532E-3	-16.4352E-3
2.21861E-3	74.7613E-12	766.312E-3	-18.9351E-3	74.5836E-12	745.576E-3	-22.7486E-3
2.21361E-3	74.9713E-12	765.477E-3	-33.7195E-3	74.4630E-12	759.646E-3	-34.5990E-3
2.20860E-3	74.9296E-12	763.598E-3	-29.4841E-3	74.3813E-12	762.511E-3	-15.2581E-3
2.20360E-3	74.2513E-12	754.748E-3	-24.6957E-3	74.3333E-12	760.147E-3	5.35212E-3
2.19860E-3	73.7887E-12	744.602E-3	-20.8344E-3	74.0757E-12	752.734E-3	-3.96234E-3
2.19360E-3	73.6668E-12	729.063E-3	-12.5264E-3	73.7610E-12	739.329E-3	-13.2350E-3
2.18859E-3	73.6358E-12	715.710E-3	-15.4715E-3	73.5534E-12	751.757E-3	-17.0671E-3
2.18359E-3	73.1530E-12	729.092E-3	-28.7805E-3	73.3186E-12	762.483E-3	-26.7701E-3
2.17859E-3	72.8400E-12	752.390E-3	-26.2589E-3	73.0716E-12	743.661E-3	-31.3431E-3
2.17359E-3	72.3942E-12	760.231E-3	-14.1078E-3	72.7382E-12	738.936E-3	-28.0817E-3
2.16858E-3	72.0154E-12	765.146E-3	-19.3696E-3	72.2965E-12	745.054E-3	-24.0294E-3
2.16358E-3	71.8294E-12	772.757E-3	-23.8100E-3	72.0066E-12	750.708E-3	-20.0756E-3
2.15858E-3	71.5070E-12	765.782E-3	-17.2362E-3	71.6840E-12	779.421E-3	-10.4078E-3
2.15358E-3	71.1013E-12	748.263E-3	-6.86775E-3	71.5428E-12	792.477E-3	-10.1649E-3
2.14857E-3	70.7573E-12	746.431E-3	-1.61899E-3	70.9487E-12	768.706E-3	-25.0620E-3
2.14357E-3	70.5841E-12	754.851E-3	-12.0920E-3	70.7855E-12	762.042E-3	-27.7888E-3
2.13857E-3	70.4220E-12	754.574E-3	-15.7418E-3	70.7299E-12	776.471E-3	-17.3375E-3
2.13357E-3	70.2599E-12	751.509E-3	-439.810E-6	70.7707E-12	789.292E-3	-11.8062E-3
2.12856E-3	69.9362E-12	748.814E-3	1.20044E-3	70.3724E-12	794.107E-3	-13.7063E-3
2.12356E-3	69.6633E-12	748.853E-3	-24.7448E-3	70.1249E-12	779.685E-3	-22.3371E-3
2.11856E-3	69.3800E-12	768.481E-3	-47.2065E-3	69.9581E-12	758.950E-3	-28.5982E-3
2.11356E-3	69.0430E-12	788.496E-3	-34.6749E-3	69.8276E-12	751.887E-3	-22.5613E-3
2.10855E-3	68.9236E-12	770.348E-3	-16.6889E-3	69.3268E-12	767.641E-3	-14.0771E-3
2.10355E-3	68.4503E-12	741.560E-3	-12.8574E-3	68.8023E-12	775.810E-3	-7.30282E-3
2.09855E-3	68.3076E-12	745.025E-3	-4.09545E-3	68.5195E-12	761.274E-3	-2.57211E-3
2.09355E-3	67.8887E-12	772.134E-3	730.756E-6	68.1864E-12	757.956E-3	-8.10863E-3
2.08854E-3	67.7828E-12	783.489E-3	-7.22804E-3	67.6062E-12	766.286E-3	-19.3856E-3
2.08354E-3	67.5196E-12	755.174E-3	-13.6065E-3	67.1742E-12	771.265E-3	-28.7684E-3
2.07854E-3	67.4715E-12	732.086E-3	-16.6979E-3	66.7981E-12	781.244E-3	-33.1478E-3
2.07354E-3	67.2018E-12	755.253E-3	-19.1877E-3	66.7499E-12	795.872E-3	-35.1266E-3
2.06853E-3	67.1342E-12	779.308E-3	-20.4006E-3	66.3784E-12	797.822E-3	-40.8190E-3
2.06353E-3	67.1550E-12	780.846E-3	-23.3222E-3	66.0215E-12	786.107E-3	-33.1655E-3
2.05853E-3	66.9146E-12	779.439E-3	-19.1886E-3	65.7482E-12	777.509E-3	-15.3432E-3
2.05353E-3	66.9413E-12	779.885E-3	-8.07387E-3	65.7720E-12	773.931E-3	-14.1595E-3
2.04852E-3	66.8098E-12	786.377E-3	-1.84099E-3	65.5577E-12	766.661E-3	-24.1600E-3
2.04352E-3	66.7263E-12	805.127E-3	-10.3710E-3	65.4432E-12	767.112E-3	-33.4137E-3
2.03852E-3	66.6108E-12	826.128E-3	-31.6690E-3	65.0718E-12	783.520E-3	-24.8408E-3
2.03352E-3	66.2837E-12	826.483E-3	-55.1353E-3	65.1956E-12	795.177E-3	-4.18985E-3
2.02851E-3	65.8402E-12	809.101E-3	-63.5012E-3	64.9679E-12	794.381E-3	-8.17969E-3
2.02351E-3	65.3254E-12	795.569E-3	-43.4312E-3	64.6186E-12	787.671E-3	-22.3831E-3
2.01851E-3	64.7244E-12	790.267E-3	-20.9262E-3	64.3995E-12	783.391E-3	-29.6807E-3
2.01351E-3	64.4074E-12	797.068E-3	-6.14780E-3	64.2307E-12	787.094E-3	-38.3829E-3
2.00850E-3	63.9540E-12	807.687E-3	1.93015E-3	63.5693E-12	784.330E-3	-33.8338E-3
2.00350E-3	63.5477E-12	802.837E-3	-2.59872E-3	63.1089E-12	775.290E-3	-10.6854E-3
1.99850E-3	62.9824E-12	798.917E-3	-11.3571E-3	62.8087E-12	775.544E-3	-5.63929E-3
1.99350E-3	62.7242E-12	810.278E-3	-18.6736E-3	62.6410E-12	792.192E-3	-17.0504E-3
1.98849E-3	62.2802E-12	814.783E-3	-20.8299E-3	62.3376E-12	817.718E-3	-22.9154E-3
1.98349E-3	62.2317E-12	803.304E-3	-25.2009E-3	62.2774E-12	828.090E-3	-31.8049E-3
1.97849E-3	62.0599E-12	787.233E-3	-25.6506E-3	62.1826E-12	819.910E-3	-31.1323E-3
1.97349E-3	61.9641E-12	782.816E-3	-11.5170E-3	62.0765E-12	815.057E-3	-24.7921E-3
1.96848E-3	61.7986E-12	815.948E-3	-6.38078E-3	61.9660E-12	816.302E-3	-34.0309E-3
1.96348E-3	61.9010E-12	850.948E-3	-12.0599E-3	61.8304E-12	812.506E-3	-34.4685E-3
1.95848E-3	61.8642E-12	840.459E-3	-13.1381E-3	61.3485E-12	816.470E-3	-12.8224E-3
1.95348E-3	61.6782E-12	819.456E-3	-19.4701E-3	61.2377E-12	824.883E-3	388.314E-6
1.94847E-3	61.3399E-12	821.341E-3	-12.5581E-3	61.1241E-12	820.894E-3	-3.43406E-3
1.94347E-3	61.1286E-12	832.820E-3	2.15061E-3	60.9320E-12	820.135E-3	-6.54186E-3
1.93847E-3	60.8527E-12	838.992E-3	2.18514E-3	60.5075E-12	823.709E-3	-10.3518E-3
1.93347E-3	59.9908E-12	836.903E-3	-4.08922E-3	60.0981E-12	824.400E-3	-7.44654E-3
1.92846E-3	59.3963E-12	828.195E-3	-14.1269E-3	59.6955E-12	829.310E-3	6.45765E-3
1.92346E-3	58.9582E-12	826.659E-3	-15.9940E-3	59.3119E-12	834.265E-3	-3.47587E-3
1.91846E-3	58.4262E-12	841.204E-3	-8.50959E-3	58.9311E-12	830.919E-3	-22.6185E-3
1.91346E-3	57.7291E-12	851.666E-3	-596.017E-6	58.3829E-12	835.374E-3	-20.3651E-3
1.90845E-3	57.3278E-12	841.455E-3	-5.11141E-3	57.7917E-12	848.915E-3	-16.8342E-3
1.90345E-3	57.2297E-12	832.581E-3	-24.4051E-3	57.5181E-12	845.709E-3	-17.8300E-3
1.89845E-3	56.8393E-12	837.604E-3	-37.9731E-3	57.2342E-12	834.834E-3	-9.69575E-3
1.89345E-3	56.8278E-12	834.521E-3	-37.6037E-3	56.8238E-12	841.498E-3	-2.37331E-3
1.88844E-3	56.5610E-12	825.888E-3	-23.1109E-3	56.4115E-12	846.807E-3	-15.8661E-3
1.88344E-3	56.5747E-12	827.379E-3	-7.77396E-3	56.4006E-12	849.150E-3	-24.7195E-3
1.87844E-3	56.4973E-12	838.337E-3	-11.7058E-3	56.3121E-12	876.451E-3	-17.6992E-3
1.87344E-3	56.6180E-12	847.120E-3	-23.4868E-3	55.9439E-12	889.474E-3	-10.3790E-3
1.86843E-3	56.4690E-12	843.252E-3	-24.9743E-3	55.8506E-12	864.877E-3	10.0960E-3
1.86343E-3	56.3576E-12	843.560E-3	-26.9319E-3	55.7869E-12	852.102E-3	16.6016E-3
1.85843E-3	56.1184E-12	857.755E-3	-45.1697E-3	55.7868E-12	867.969E-3	-9.51506E-3
1.85343E-3	55.8392E-12	862.709E-3	-63.5917E-3	55.5959E-12	875.130E-3	-30.1553E-3
1.84842E-3	55.5053E-12	853.902E-3	-56.2124E-3	55.2478E-12	868.271E-3	-26.0694E-3
1.84342E-3	54.8679E-12	865.593E-3	-36.6877E-3	54.9216E-12	869.256E-3	-28.4185E-3
1.83842E-3	54.5171E-12	886.857E-3	-25.0992E-3	54.6062E-12	874.417E-3	-33.0462E-3
1.83342E-3	54.2769E-12	880.036E-3	-20.3860E-3	54.3641E-12	879.017E-3	-19.3027E-3
1.82841E-3	54.0944E-12	868.221E-3	-20.7054E-3	54.0068E-12	879.999E-3	-11.8675E-3
1.82341E-3	53.3864E-12	870.763E-3	-19.4362E-3	53.4391E-12	875.426E-3	-6.22279E-3
1.81841E-3	52.9900E-12	875.120E-3	-6.06099E-3	52.9310E-12	881.610E-3	7.55227E-3
1.81341E-3	52.7052E-12	885.161E-3	-5.58411E-3	52.4861E-12	901.868E-3	-5.60080E-3
1.80840E-3	52.3309E-12	898.723E-3	-32.1023E-3	52.2643E-12	913.384E-3	-30.6002E-3
1.80340E-3	51.9769E-12	895.629E-3	-41.1680E-3	51.9701E-12	911.168E-3	-22.8047E-3
1.79840E-3	51.7666E-12	886.692E-3	-26.7149E-3	51.6906E-12	912.252E-3	479.736E-6
1.79340E-3	51.5140E-12	891.901E-3	-12.3134E-3	51.3921E-12	911.467E-3	7.80041E-3
1.78839E-3	51.3739E-12	895.831E-3	-8.62867E-3	51.0929E-12	912.030E-3	-9.48683E-3
1.78339E-3	51.3735E-12	890.449E-3	-14.4581E-3	51.0167E-12	926.384E-3	-29.3947E-3
1.77839E-3	51.0863E-12	889.955E-3	-14.4303E-3	50.8779E-12	929.884E-3	-31.1432E-3
1.77339E-3	50.6582E-12	894.639E-3	-6.30014E-3	50.6079E-12	917.400E-3	-19.8189E-3
1.76838E-3	50.2767E-12	905.694E-3	-7.12997E-3	50.5742E-12	919.723E-3	-16.1438E-3
1.76338E-3	49.9350E-12	927.810E-3	-19.4743E-3	50.3309E-12	929.935E-3	-25.5350E-3
1.75838E-3	49.6720E-12	941.517E-3	-24.5094E-3	50.1021E-12	941.507E-3	-35.8366E-3
1.75338E-3	49.1278E-12	924.477E-3	-27.0776E-3	49.4937E-12	965.405E-3	-33.3067E-3
1.74837E-3	48.8158E-12	914.856E-3	-26.5301E-3	49.1545E-12	980.808E-3	-22.2888E-3
1.74337E-3	48.3218E-12	935.292E-3	-12.6433E-3	48.7916E-12	977.412E-3	-20.8274E-3
1.73837E-3	47.9421E-12	946.944E-3	-10.5185E-3	48.5055E-12	963.504E-3	-20.7228E-3
1.73337E-3	47.6588E-12	945.104E-3	-27.4632E-3	48.1571E-12	940.994E-3	-17.6275E-3
1.72836E-3	47.4760E-12	932.727E-3	-29.8394E-3	47.7212E-12	931.885E-3	-7.62782E-3
1.72336E-3	47.2884E-12	916.984E-3	-12.0233E-3	47.3631E-12	946.956E-3	11.1503E-3
1.71836E-3	46.8295E-12	929.862E-3	1.26372E-3	46.8774E-12	962.580E-3	10.0555E-3
1.71336E-3	46.6772E-12	961.140E-3	4.71068E-3	46.6390E-12	977.483E-3	-10.8080E-3
1.70835E-3	46.3938E-12	974.534E-3	-4.87933E-3	46.3937E-12	985.460E-3	-28.7444E-3
1.70335E-3	45.9677E-12	970.840E-3	-24.0954E-3	45.9132E-12	974.639E-3	-33.4487E-3
1.69835E-3	45.6662E-12	962.648E-3	-24.4672E-3	45.3535E-12	966.169E-3	-32.7507E-3
1.69335E-3	45.5902E-12	959.283E-3	-9.91728E-3	45.2219E-12	980.372E-3	-34.9705E-3
1.68834E-3	45.3022E-12	964.506E-3	-4.10004E-3	45.0735E-12	1.00268E+0	-34.0480E-3
1.68334E-3	44.9294E-12	974.719E-3	-9.95086E-3	44.6818E-12	1.01670E+0	-25.3970E-3
1.67834E-3	44.4691E-12	986.295E-3	-17.7068E-3	44.2456E-12	1.02840E+0	-19.2434E-3
1.67334E-3	44.2472E-12	988.690E-3	-19.3246E-3	44.0845E-12	1.02899E+0	-28.3033E-3
1.66833E-3	43.8246E-12	998.247E-3	-7.13296E-3	43.9103E-12	1.02078E+0	-32.1292E-3
1.66333E-3	43.3705E-12	1.02410E+0	5.29442E-3	43.4434E-12	1.02357E+0	-18.2199E-3
1.65833E-3	42.7936E-12	1.03045E+0	-6.58400E-3	42.8442E-12	1.02683E+0	-11.2224E-3
1.65333E-3	42.5524E-12	1.01424E+0	-19.2351E-3	42.3007E-12	1.01742E+0	-10.9982E-3
1.64832E-3	42.3302E-12	1.00768E+0	-20.7394E-3	42.1868E-12	1.01672E+0	1.23055E-3
1.64332E-3	41.7971E-12	1.01407E+0	-29.0463E-3	41.7341E-12	1.03360E+0	7.41359E-3
1.63832E-3	41.4265E-12	1.03065E+0	-23.7965E-3	41.4297E-12	1.04593E+0	-5.60155E-3
1.63332E-3	41.4807E-12	1.03969E+0	-752.136E-6	41.2074E-12	1.04692E+0	-11.0120E-3
1.62831E-3	41.3522E-12	1.02372E+0	1.77794E-3	41.0616E-12	1.04751E+0	-3.88586E-3
1.62331E-3	40.9710E-12	1.01961E+0	-8.81511E-3	40.8127E-12	1.05133E+0	-663.146E-6
1.61831E-3	40.4678E-12	1.02973E+0	-5.10067E-3	40.2490E-12	1.05905E+0	1.74908E-3
1.61331E-3	40.2765E-12	1.04044E+0	-3.98449E-3	39.9711E-12	1.07898E+0	-1.58307E-3
1.60830E-3	40.0833E-12	1.06428E+0	-13.9235E-3	39.9165E-12	1.09246E+0	-4.48912E-3
1.60330E-3	39.6498E-12	1.07589E+0	-19.4305E-3	39.4737E-12	1.08606E+0	2.31328E-3
1.59830E-3	39.1825E-12	1.06320E+0	-18.0858E-3	39.0241E-12	1.08148E+0	8.69276E-3
1.59330E-3	38.9044E-12	1.06271E+0	-25.5559E-3	38.4107E-12	1.08289E+0	4.83292E-3
1.58829E-3	38.4264E-12	1.07653E+0	-27.4818E-3	38.2129E-12	1.07563E+0	-4.25250E-3
1.58329E-3	38.0764E-12	1.08912E+0	-18.3835E-3	37.7354E-12	1.06844E+0	-4.30654E-3
1.57829E-3	37.5575E-12	1.10005E+0	-19.6906E-3	37.2474E-12	1.06985E+0	449.210E-6
1.57329E-3	37.0949E-12	1.08789E+0	-26.1160E-3	36.6638E-12	1.08364E+0	2.82333E-3
1.56828E-3	36.6059E-12	1.07622E+0	-25.0765E-3	36.3339E-12	1.11400E+0	-4.78902E-3
1.56328E-3	36.2112E-12	1.08910E+0	-17.1261E-3	35.9113E-12	1.12914E+0	-23.3766E-3
1.55828E-3	35.7726E-12	1.09588E+0	-9.78222E-3	35.5908E-12	1.11893E+0	-28.9631E-3
1.55328E-3	35.4740E-12	1.09200E+0	-10.4483E-3	35.2784E-12	1.12247E+0	-11.3505E-3
1.54827E-3	35.2625E-12	1.09382E+0	-16.4244E-3	34.8824E-12	1.13894E+0	1.09304E-3
1.54327E-3	34.8974E-12	1.10393E+0	-7.85968E-3	34.7326E-12	1.14019E+0	-9.73515E-3
1.53827E-3	34.5078E-12	1.11565E+0	-1.06188E-3	34.4175E-12	1.13933E+0	-24.1920E-3
1.53327E-3	34.3183E-12	1.12972E+0	-11.9440E-3	34.3363E-12	1.15376E+0	-32.9299E-3
1.52826E-3	34.1368E-12	1.13220E+0	-12.5517E-3	34.0500E-12	1.17757E+0	-28.4105E-3
1.52326E-3	33.6829E-12	1.12346E+0	-5.44350E-3	33.5762E-12	1.19473E+0	-11.1990E-3
1.51826E-3	33.2408E-12	1.13229E+0	-5.97643E-3	33.3478E-12	1.18667E+0	-10.3499E-3
1.51326E-3	32.8539E-12	1.14997E+0	-7.88438E-3	33.1417E-12	1.16705E+0	-22.6359E-3
1.50825E-3	32.4759E-12	1.14880E+0	-19.2655E-3	32.7408E-12	1.17259E+0	-19.6307E-3
1.50325E-3	32.0793E-12	1.13917E+0	-31.3857E-3	32.0997E-12	1.18862E+0	-8.57897E-3
1.49825E-3	31.4377E-12	1.14266E+0	-28.0460E-3	31.5589E-12	1.18007E+0	-12.5091E-3
1.49325E-3	31.1164E-12	1.15208E+0	-22.5308E-3	31.1974E-12	1.16194E+0	-17.4616E-3
1.48824E-3	30.6414E-12	1.16532E+0	-21.1402E-3	30.7508E-12	1.15552E+0	-11.6269E-3
1.48324E-3	30.1937E-12	1.17745E+0	-13.1047E-3	30.0101E-12	1.14829E+0	-7.33423E-3
1.47824E-3	29.7547E-12	1.16853E+0	-5.80135E-3	29.5333E-12	1.13770E+0	-7.07198E-3
1.47324E-3	29.4186E-12	1.15158E+0	-15.6783E-3	29.1366E-12	1.14268E+0	-12.3436E-3
1.46823E-3	29.0692E-12	1.14460E+0	-18.1835E-3	28.7282E-12	1.15232E+0	-23.4295E-3
1.46323E-3	28.6132E-12	1.14464E+0	-8.80008E-3	28.2876E-12	1.15040E+0	-25.9496E-3
1.45823E-3	28.2567E-12	1.16042E+0	-16.2268E-3	27.9608E-12	1.14719E+0	-25.9570E-3
1.45323E-3	27.9340E-12	1.18306E+0	-36.4571E-3	27.7134E-12	1.16068E+0	-33.8697E-3
1.44822E-3	27.6545E-12	1.17867E+0	-41.4865E-3	27.4528E-12	1.17908E+0	-32.0853E-3
1.44322E-3	27.2021E-12	1.16222E+0	-29.5507E-3	27.0534E-12	1.17673E+0	-24.9387E-3
1.43822E-3	27.0139E-12	1.16479E+0	-17.5246E-3	26.9023E-12	1.17087E+0	-28.1418E-3
1.43322E-3	26.7568E-12	1.17296E+0	-15.5974E-3	26.7082E-12	1.17448E+0	-23.1350E-3
1.42821E-3	26.3206E-12	1.17451E+0	-31.0410E-3	26.3058E-12	1.17849E+0	-11.8238E-3
1.42321E-3	25.7760E-12	1.17590E+0	-31.1245E-3	25.8739E-12	1.18080E+0	-13.2220E-3
1.41821E-3	25.4692E-12	1.18212E+0	-7.42575E-3	25.5273E-12	1.16952E+0	-17.2063E-3
1.41321E-3	25.0231E-12	1.17986E+0	-4.65414E-3	25.1961E-12	1.15433E+0	-7.83370E-3
1.40820E-3	24.4912E-12	1.16712E+0	-16.8882E-3	24.6979E-12	1.14775E+0	5.16931E-3
1.40320E-3	24.0198E-12	1.15261E+0	-17.6786E-3	24.1210E-12	1.13541E+0	2.64501E-3
1.39820E-3	23.6566E-12	1.13213E+0	-11.1245E-3	23.8744E-12	1.12407E+0	-10.8571E-3
1.39320E-3	23.2887E-12	1.12332E+0	-938.189E-6	23.4618E-12	1.11777E+0	-15.7786E-3
1.38819E-3	22.8318E-12	1.13162E+0	7.93552E-3	22.8455E-12	1.10482E+0	-9.56447E-3
1.38319E-3	22.4501E-12	1.12707E+0	1.50339E-3	22.3217E-12	1.09923E+0	-9.66475E-3
1.37819E-3	22.0826E-12	1.11574E+0	-10.6209E-3	22.0296E-12	1.10542E+0	-14.9950E-3
1.37319E-3	21.7272E-12	1.11790E+0	-11.9709E-3	21.6811E-12	1.10404E+0	-11.0625E-3
1.36818E-3	21.4109E-12	1.11512E+0	-11.2052E-3	21.1089E-12	1.09614E+0	-4.93201E-3
1.36318E-3	21.0408E-12	1.11001E+0	-8.49802E-3	20.7696E-12	1.08678E+0	-11.9699E-3
1.35818E-3	20.7750E-12	1.11506E+0	-5.66423E-3	20.5156E-12	1.07528E+0	-27.6119E-3
1.35318E-3	20.5189E-12	1.11649E+0	-11.3909E-3	20.2300E-12	1.07676E+0	-30.2658E-3
1.34817E-3	20.1962E-12	1.11141E+0	-19.6241E-3	19.8852E-12	1.07584E+0	-22.3344E-3
1.34317E-3	19.8079E-12	1.09552E+0	-14.3531E-3	19.5431E-12	1.05512E+0	-28.7941E-3
1.33817E-3	19.4401E-12	1.07766E+0	733.408E-6	19.3520E-12	1.03387E+0	-32.8045E-3
1.33317E-3	19.0843E-12	1.07660E+0	1.36519E-3	19.0485E-12	1.01793E+0	-21.2380E-3
1.32816E-3	18.7224E-12	1.07265E+0	-9.32400E-3	18.6466E-12	1.00385E+0	-7.76334E-3
1.32316E-3	18.3486E-12	1.05786E+0	-15.9420E-3	18.2993E-12	997.898E-3	-153.782E-6
1.31816E-3	17.9345E-12	1.04290E+0	-12.2255E-3	17.9301E-12	995.771E-3	-3.30559E-3
1.31316E-3	17.4665E-12	1.02733E+0	9.99641E-3	17.5977E-12	976.185E-3	-7.41662E-3
1.30815E-3	17.0990E-12	1.01129E+0	22.7571E-3	17.1660E-12	948.607E-3	-2.65799E-3
1.30315E-3	16.7856E-12	989.726E-3	4.36627E-3	16.8661E-12	943.509E-3	-2.63425E-3
1.29815E-3	16.5124E-12	970.532E-3	-11.6894E-3	16.5915E-12	939.696E-3	-18.1301E-3
1.29315E-3	16.1309E-12	957.923E-3	-12.9336E-3	16.2172E-12	911.685E-3	-25.8543E-3
1.28814E-3	15.7775E-12	956.784E-3	-15.3290E-3	15.7502E-12	895.488E-3	-28.4336E-3
1.28314E-3	15.6750E-12	965.532E-3	-15.1413E-3	15.5452E-12	897.479E-3	-37.1144E-3
1.27814E-3	15.3214E-12	952.885E-3	-12.0487E-3	15.2545E-12	882.596E-3	-30.6773E-3
1.27314E-3	15.0013E-12	913.683E-3	-20.5042E-3	14.9290E-12	857.218E-3	-11.6273E-3
1.26813E-3	14.6959E-12	886.473E-3	-35.0962E-3	14.5730E-12	835.785E-3	-7.07281E-3
1.26313E-3	14.5534E-12	884.024E-3	-23.3748E-3	14.4038E-12	820.790E-3	-14.6320E-3
1.25813E-3	14.3311E-12	881.146E-3	4.10223E-3	14.1862E-12	815.777E-3	-12.1128E-3
1.25313E-3	14.0334E-12	879.025E-3	-708.496E-6	13.8528E-12	809.614E-3	-13.4544E-3
1.24812E-3	13.6125E-12	870.381E-3	-23.6607E-3	13.5529E-12	788.226E-3	-22.0067E-3
1.24312E-3	13.3949E-12	848.193E-3	-23.8795E-3	13.3280E-12	763.510E-3	-20.3059E-3
1.23812E-3	13.2808E-12	833.688E-3	-6.83364E-3	13.2446E-12	754.297E-3	-18.7994E-3
1.23312E-3	12.9645E-12	831.982E-3	-1.91659E-3	12.9077E-12	747.570E-3	-20.5924E-3
1.22811E-3	12.5168E-12	827.959E-3	-15.7311E-3	12.5456E-12	738.817E-3	-16.9895E-3
1.22311E-3	12.3684E-12	806.471E-3	-19.9395E-3	12.3055E-12	728.233E-3	-25.9444E-3
1.21811E-3	12.1718E-12	771.876E-3	-2.28342E-3	12.0998E-12	703.634E-3	-46.7264E-3
1.21311E-3	11.8219E-12	743.729E-3	9.17073E-3	11.8588E-12	679.799E-3	-42.0103E-3
1.20810E-3	11.6160E-12	725.156E-3	-5.33022E-3	11.6390E-12	669.964E-3	-14.7765E-3
1.20310E-3	11.3915E-12	714.875E-3	-21.3441E-3	11.4147E-12	657.456E-3	791.373E-6
1.19810E-3	11.2395E-12	706.182E-3	-27.8503E-3	11.2239E-12	637.049E-3	6.04348E-3
1.19310E-3	11.0037E-12	684.974E-3	-27.8184E-3	11.0180E-12	627.393E-3	5.83016E-3
1.18809E-3	10.8659E-12	660.200E-3	-20.1202E-3	10.8053E-12	616.024E-3	-8.00388E-3
1.18309E-3	10.6808E-12	642.548E-3	-20.3232E-3	10.5992E-12	583.264E-3	-13.5854E-3
1.17809E-3	10.4835E-12	642.939E-3	-31.5823E-3	10.4574E-12	561.585E-3	-8.39841E-3
1.17309E-3	10.2172E-12	647.490E-3	-33.9834E-3	10.2392E-12	554.596E-3	-20.0554E-3
1.16808E-3	9.97366E-12	617.403E-3	-22.5810E-3	10.0287E-12	533.721E-3	-35.5815E-3
1.16308E-3	9.82430E-12	582.550E-3	-14.2121E-3	9.80856E-12	515.649E-3	-28.2142E-3
1.15808E-3	9.63420E-12	583.741E-3	-15.0675E-3	9.51012E-12	506.298E-3	-13.0568E-3
1.15308E-3	9.33744E-12	585.285E-3	-25.8196E-3	9.34097E-12	498.464E-3	-11.6879E-3
1.14807E-3	9.14427E-12	566.847E-3	-42.6614E-3	9.14354E-12	495.829E-3	-19.8492E-3
1.14307E-3	9.04775E-12	543.707E-3	-41.8409E-3	8.93803E-12	483.238E-3	-33.3233E-3
1.13807E-3	8.80925E-12	521.609E-3	-17.5957E-3	8.76512E-12	459.674E-3	-38.3181E-3
1.13307E-3	8.59336E-12	506.868E-3	-2.97178E-3	8.51176E-12	439.615E-3	-28.7726E-3
1.12806E-3	8.44280E-12	503.685E-3	-4.49303E-3	8.43125E-12	429.239E-3	-22.5408E-3
1.12306E-3	8.39473E-12	490.752E-3	-4.72349E-3	8.26256E-12	419.571E-3	-21.2113E-3
1.11806E-3	8.22061E-12	458.868E-3	-7.04435E-3	8.05448E-12	400.862E-3	-15.6353E-3
1.11306E-3	8.02850E-12	446.958E-3	-1.71257E-3	7.85913E-12	382.079E-3	-14.8028E-3
1.10805E-3	7.81356E-12	451.304E-3	9.12137E-3	7.87123E-12	367.682E-3	-22.0225E-3
1.10305E-3	7.80841E-12	436.871E-3	-6.24119E-3	7.77603E-12	369.192E-3	-26.6822E-3
1.09805E-3	7.68948E-12	418.442E-3	-32.1523E-3	7.59378E-12	376.452E-3	-27.5251E-3
1.09305E-3	7.42768E-12	405.330E-3	-26.4912E-3	7.44342E-12	352.054E-3	-24.5388E-3
1.08804E-3	7.33516E-12	393.338E-3	-4.32510E-3	7.37199E-12	327.106E-3	-19.8383E-3
1.08304E-3	7.25024E-12	390.490E-3	-11.9409E-3	7.28331E-12	336.466E-3	-20.1801E-3
1.07804E-3	7.17676E-12	385.022E-3	-36.5949E-3	7.14457E-12	342.685E-3	-20.9327E-3
1.07304E-3	6.94278E-12	362.324E-3	-45.4541E-3	6.96225E-12	332.698E-3	-6.50428E-3
1.06803E-3	6.82492E-12	340.748E-3	-47.1562E-3	6.82127E-12	314.248E-3	3.43355E-3
1.06303E-3	6.64711E-12	335.981E-3	-32.1543E-3	6.69721E-12	288.480E-3	-18.4496E-3
1.05803E-3	6.49289E-12	324.170E-3	-12.9366E-3	6.59917E-12	283.391E-3	-43.6331E-3
1.05303E-3	6.48028E-12	302.648E-3	-20.0676E-3	6.41056E-12	297.171E-3	-42.2777E-3
1.04802E-3	6.27351E-12	291.941E-3	-34.3490E-3	6.32960E-12	293.555E-3	-29.5767E-3
1.04302E-3	6.32375E-12	275.119E-3	-39.7641E-3	6.44466E-12	269.525E-3	-20.1751E-3
1.03802E-3	6.19304E-12	267.819E-3	-36.8661E-3	6.16944E-12	248.876E-3	-14.0481E-3
1.03302E-3	6.02547E-12	290.259E-3	-21.7009E-3	5.99005E-12	233.760E-3	-22.9174E-3
1.02801E-3	5.81434E-12	291.798E-3	-17.1969E-3	5.87002E-12	224.631E-3	-35.4156E-3
1.02301E-3	5.69521E-12	267.907E-3	-29.6378E-3	5.65579E-12	227.727E-3	-35.6341E-3
1.01801E-3	5.57802E-12	248.954E-3	-24.3136E-3	5.58156E-12	225.810E-3	-36.1725E-3
1.01301E-3	5.57447E-12	229.637E-3	-8.58772E-3	5.53123E-12	210.981E-3	-35.1621E-3
1.00800E-3	5.53077E-12	222.000E-3	-5.68609E-3	5.55165E-12	209.696E-3	-34.3301E-3
1.00300E-3	5.45454E-12	226.925E-3	-4.71352E-3	5.41679E-12	215.800E-3	-46.0973E-3
997.999E-6	5.26806E-12	216.019E-3	-5.60175E-3	5.36957E-12	197.837E-3	-43.6057E-3
992.997E-6	5.25296E-12	200.228E-3	-14.8070E-3	5.32817E-12	185.738E-3	-22.2243E-3
987.994E-6	5.19698E-12	208.681E-3	-18.9002E-3	5.27182E-12	191.316E-3	-15.3994E-3
982.991E-6	5.14291E-12	219.803E-3	-24.8505E-3	5.12535E-12	182.480E-3	-16.0332E-3
977.989E-6	4.98682E-12	211.176E-3	-37.2363E-3	5.06986E-12	169.225E-3	-11.7652E-3
972.986E-6	4.90946E-12	193.190E-3	-40.8586E-3	4.98978E-12	171.558E-3	-10.5373E-3
967.984E-6	4.89065E-12	167.990E-3	-33.4061E-3	4.91718E-12	168.344E-3	-20.7547E-3
962.981E-6	4.87849E-12	150.426E-3	-24.3614E-3	4.80550E-12	152.858E-3	-29.8055E-3
957.979E-6	4.75335E-12	156.398E-3	-15.2433E-3	4.74991E-12	157.458E-3	-23.7151E-3
952.976E-6	4.67829E-12	170.187E-3	-13.0873E-3	4.72612E-12	167.360E-3	-15.3562E-3
947.974E-6	4.62574E-12	164.203E-3	-25.9132E-3	4.58406E-12	155.975E-3	-8.31589E-3
942.971E-6	4.66654E-12	150.345E-3	-29.6747E-3	4.57621E-12	148.220E-3	-3.16675E-3
937.969E-6	4.58621E-12	149.527E-3	-22.7074E-3	4.52393E-12	146.098E-3	-9.47966E-3
932.966E-6	4.56084E-12	156.846E-3	-20.8379E-3	4.53343E-12	143.600E-3	-23.6093E-3
927.964E-6	4.45700E-12	170.468E-3	-18.3156E-3	4.44182E-12	150.435E-3	-25.3637E-3
922.961E-6	4.47672E-12	165.367E-3	-20.8154E-3	4.39422E-12	153.428E-3	-18.0618E-3
917.959E-6	4.48351E-12	143.161E-3	-26.9203E-3	4.37306E-12	151.648E-3	-12.2892E-3
912.956E-6	4.41083E-12	143.208E-3	-21.3574E-3	4.40157E-12	152.375E-3	-6.67149E-3
907.954E-6	4.35375E-12	159.406E-3	-9.02810E-3	4.26052E-12	136.903E-3	-12.0271E-3
902.951E-6	4.40830E-12	163.235E-3	-6.89262E-3	4.23585E-12	121.296E-3	-19.7970E-3
897.949E-6	4.25492E-12	157.104E-3	-22.2787E-3	4.31686E-12	128.886E-3	-21.1994E-3
892.946E-6	4.23073E-12	153.548E-3	-34.7486E-3	4.26391E-12	131.801E-3	-27.6627E-3
887.944E-6	4.12868E-12	143.027E-3	-28.6298E-3	4.12995E-12	122.360E-3	-30.2486E-3
882.941E-6	4.05789E-12	127.016E-3	-28.0393E-3	4.11255E-12	115.626E-3	-21.0660E-3
877.939E-6	3.96967E-12	116.902E-3	-32.3263E-3	4.09822E-12	115.591E-3	-21.3670E-3
872.936E-6	4.01395E-12	103.021E-3	-25.2206E-3	4.01832E-12	116.557E-3	-27.5237E-3
867.934E-6	3.96781E-12	93.3682E-3	-23.2832E-3	3.87202E-12	112.002E-3	-16.8440E-3
862.931E-6	3.85963E-12	94.2932E-3	-19.4461E-3	3.83921E-12	106.146E-3	-4.75065E-3
857.929E-6	3.85587E-12	92.3887E-3	-6.50055E-3	3.83663E-12	101.258E-3	-8.92530E-3
852.926E-6	3.81992E-12	106.167E-3	-7.75435E-3	3.81686E-12	105.155E-3	-19.9080E-3
847.924E-6	3.82790E-12	131.340E-3	-17.3673E-3	3.79075E-12	107.811E-3	-27.8903E-3
842.921E-6	3.72903E-12	124.801E-3	-16.5480E-3	3.72658E-12	87.5145E-3	-28.0870E-3
837.919E-6	3.72361E-12	99.3527E-3	-12.5891E-3	3.74029E-12	74.2144E-3	-23.3217E-3
832.916E-6	3.67920E-12	101.323E-3	-13.8417E-3	3.70701E-12	80.2560E-3	-20.5156E-3
827.914E-6	3.71471E-12	112.917E-3	-15.4061E-3	3.69694E-12	77.9637E-3	-19.6220E-3
822.911E-6	3.66785E-12	111.438E-3	-13.4822E-3	3.63804E-12	74.1050E-3	-21.8640E-3
817.909E-6	3.58872E-12	104.737E-3	-14.6516E-3	3.63933E-12	78.5122E-3	-35.4661E-3
812.906E-6	3.55510E-12	96.9180E-3	-21.1142E-3	3.59404E-12	74.3533E-3	-45.4412E-3
807.904E-6	3.55903E-12	97.1592E-3	-24.5816E-3	3.59874E-12	70.3082E-3	-27.3213E-3
802.901E-6	3.53083E-12	91.2511E-3	-20.5476E-3	3.55293E-12	84.6082E-3	-7.52977E-3
797.899E-6	3.50330E-12	73.9631E-3	-10.1750E-3	3.49856E-12	95.7871E-3	-20.1613E-3
792.896E-6	3.43214E-12	68.9769E-3	-6.02592E-3	3.49632E-12	95.8539E-3	-39.2239E-3
787.894E-6	3.43794E-12	75.9220E-3	-5.83342E-3	3.39563E-12	91.9186E-3	-42.4112E-3
782.891E-6	3.43292E-12	75.9389E-3	2.58997E-3	3.38612E-12	75.4506E-3	-38.8249E-3
777.889E-6	3.33258E-12	71.1352E-3	-1.64968E-3	3.35476E-12	67.9242E-3	-33.0125E-3
772.886E-6	3.35687E-12	74.1383E-3	-19.0442E-3	3.30973E-12	79.7403E-3	-27.2905E-3
767.884E-6	3.28730E-12	71.4689E-3	-18.5976E-3	3.32905E-12	77.0235E-3	-21.0694E-3
762.881E-6	3.33317E-12	51.9798E-3	-12.8109E-3	3.30019E-12	53.0560E-3	-12.6688E-3
757.879E-6	3.32729E-12	43.7294E-3	-14.9675E-3	3.26724E-12	43.5750E-3	-12.6072E-3
752.876E-6	3.21313E-12	62.5506E-3	-12.8940E-3	3.20292E-12	57.1422E-3	-21.8676E-3
747.874E-6	3.18016E-12	78.8944E-3	-12.4948E-3	3.16429E-12	65.0423E-3	-16.7494E-3
742.871E-6	3.20007E-12	77.4611E-3	-15.4208E-3	3.19573E-12	61.3345E-3	-7.38247E-3
737.869E-6	3.22215E-12	68.6672E-3	-7.31265E-3	3.12263E-12	53.9022E-3	-6.75759E-3
732.866E-6	3.19521E-12	52.8296E-3	591.335E-6	3.14413E-12	47.2939E-3	-3.41625E-3
727.864E-6	3.10803E-12	44.3753E-3	-9.92367E-3	3.07713E-12	57.4638E-3	-145.656E-6
722.861E-6	3.08543E-12	47.8535E-3	-21.2240E-3	2.99573E-12	72.3610E-3	4.45818E-3
717.859E-6	3.10403E-12	48.9585E-3	-20.2727E-3	3.03429E-12	76.7260E-3	1.60857E-3
712.856E-6	3.06759E-12	49.4552E-3	-22.1242E-3	2.97857E-12	77.5957E-3	-11.4564E-3
707.854E-6	3.00376E-12	55.0560E-3	-30.6577E-3	2.94477E-12	67.7795E-3	-18.2725E-3
702.851E-6	2.90769E-12	57.5946E-3	-30.4212E-3	2.91721E-12	59.0371E-3	-10.5867E-3
697.849E-6	2.95617E-12	56.9447E-3	-27.7716E-3	2.96652E-12	66.0297E-3	357.404E-6
692.846E-6	3.00337E-12	53.2761E-3	-25.4041E-3	2.92792E-12	63.1097E-3	-7.07772E-3
687.844E-6	3.00336E-12	47.7576E-3	-19.6212E-3	2.92835E-12	43.8974E-3	-20.6613E-3
682.841E-6	2.93172E-12	54.2992E-3	-21.5889E-3	2.90131E-12	32.9700E-3	-22.0489E-3
677.839E-6	2.90503E-12	68.3050E-3	-19.2721E-3	2.89612E-12	38.8540E-3	-23.6092E-3
672.836E-6	2.88078E-12	73.1348E-3	-13.5245E-3	2.88286E-12	47.3610E-3	-27.5987E-3
667.834E-6	2.90080E-12	73.9882E-3	-21.0091E-3	2.83454E-12	53.6063E-3	-26.8312E-3
662.831E-6	2.84304E-12	80.7156E-3	-22.1128E-3	2.85967E-12	66.7057E-3	-29.1947E-3
657.829E-6	2.78811E-12	78.5841E-3	-10.4306E-3	2.78916E-12	70.4127E-3	-31.6570E-3
652.826E-6	2.85282E-12	60.2369E-3	-15.3620E-3	2.76916E-12	57.2268E-3	-27.3842E-3
647.824E-6	2.79143E-12	54.2761E-3	-26.1176E-3	2.80492E-12	53.9320E-3	-21.8221E-3
642.821E-6	2.73391E-12	57.6949E-3	-25.2866E-3	2.71103E-12	56.1794E-3	-18.7624E-3
637.819E-6	2.73679E-12	52.0787E-3	-24.3631E-3	2.68415E-12	49.1322E-3	-13.5564E-3
632.816E-6	2.65859E-12	61.7481E-3	-22.1837E-3	2.68776E-12	46.7382E-3	-9.14328E-3
627.814E-6	2.66588E-12	80.5475E-3	-18.3763E-3	2.66390E-12	48.2653E-3	-17.6868E-3
622.811E-6	2.68555E-12	80.2706E-3	-25.1959E-3	2.63161E-12	52.2242E-3	-27.3347E-3
617.809E-6	2.63355E-12	69.4962E-3	-34.7552E-3	2.51836E-12	67.0256E-3	-29.7066E-3
612.806E-6	2.55924E-12	69.6648E-3	-25.1144E-3	2.56877E-12	69.8140E-3	-21.4084E-3
607.804E-6	2.53419E-12	73.4477E-3	-18.6525E-3	2.60308E-12	51.5312E-3	-3.26649E-3
602.801E-6	2.56749E-12	72.9431E-3	-31.5686E-3	2.55624E-12	47.1262E-3	-456.769E-6
597.799E-6	2.61520E-12	69.2890E-3	-33.5320E-3	2.53586E-12	59.7705E-3	-12.8053E-3
592.796E-6	2.55968E-12	50.7789E-3	-22.9161E-3	2.49076E-12	70.4550E-3	-15.3315E-3
587.794E-6	2.50520E-12	46.3029E-3	-16.7863E-3	2.49376E-12	78.1453E-3	-7.26116E-3
582.791E-6	2.48810E-12	66.0598E-3	-4.60876E-3	2.53174E-12	77.9262E-3	-9.68492E-3
577.789E-6	2.54502E-12	70.9164E-3	4.34943E-3	2.47800E-12	72.2163E-3	-25.5942E-3
572.786E-6	2.51330E-12	63.1932E-3	-7.95556E-3	2.51291E-12	71.7933E-3	-31.3555E-3
567.784E-6	2.40111E-12	61.0314E-3	-20.5713E-3	2.44140E-12	71.8433E-3	-22.0428E-3
562.781E-6	2.36467E-12	58.1886E-3	-17.0729E-3	2.44585E-12	68.5575E-3	-19.5359E-3
557.779E-6	2.42933E-12	65.4312E-3	-5.93202E-3	2.42840E-12	69.3280E-3	-29.2754E-3
552.776E-6	2.36310E-12	85.2042E-3	7.67712E-3	2.36327E-12	65.7028E-3	-32.6789E-3
547.774E-6	2.33345E-12	80.9009E-3	6.23552E-3	2.34724E-12	54.0452E-3	-28.2622E-3
542.771E-6	2.27535E-12	57.6838E-3	-14.8942E-3	2.31297E-12	52.8579E-3	-32.2596E-3
537.769E-6	2.27918E-12	56.1877E-3	-17.9682E-3	2.23622E-12	58.8209E-3	-33.4417E-3
532.766E-6	2.22908E-12	57.1255E-3	-1.53107E-3	2.20456E-12	58.6281E-3	-25.3283E-3
527.764E-6	2.20668E-12	50.0406E-3	-358.015E-6	2.19893E-12	65.3114E-3	-15.0626E-3
522.761E-6	2.20127E-12	60.1924E-3	-5.33667E-3	2.13029E-12	77.1155E-3	-2.90658E-3
517.759E-6	2.16471E-12	62.3384E-3	-3.19359E-3	2.12059E-12	76.1574E-3	1.51267E-3
512.756E-6	2.14714E-12	51.8134E-3	-6.77949E-3	2.10587E-12	73.4449E-3	6.68175E-3
507.754E-6	2.15825E-12	56.6321E-3	-6.85365E-3	2.06794E-12	81.3677E-3	11.7083E-3
502.751E-6	2.12512E-12	72.2902E-3	3.27213E-3	2.02688E-12	82.8311E-3	-2.06458E-3
497.749E-6	2.04281E-12	85.0941E-3	-7.09151E-3	2.03256E-12	70.9999E-3	-19.2325E-3
492.746E-6	2.02378E-12	87.2602E-3	-31.6951E-3	2.00908E-12	72.3528E-3	-32.2800E-3
487.744E-6	2.05349E-12	74.7628E-3	-26.4852E-3	2.02498E-12	81.3236E-3	-39.9230E-3
482.741E-6	2.04574E-12	56.8453E-3	-3.99860E-3	2.01071E-12	76.9121E-3	-29.5054E-3
477.739E-6	1.98589E-12	62.5883E-3	-3.27852E-3	1.97047E-12	75.5506E-3	-16.1236E-3
472.736E-6	1.92061E-12	74.3167E-3	-17.2136E-3	1.94047E-12	79.7807E-3	-22.3828E-3
467.734E-6	1.90445E-12	64.0962E-3	-24.0747E-3	1.92560E-12	81.8061E-3	-35.0648E-3
462.731E-6	1.91839E-12	63.1970E-3	-20.9440E-3	1.93666E-12	85.3389E-3	-23.8302E-3
457.729E-6	1.87718E-12	88.0787E-3	-4.40104E-3	1.85566E-12	85.0984E-3	-7.64132E-3
452.726E-6	1.72109E-12	105.226E-3	11.2739E-3	1.81886E-12	81.7244E-3	-9.97793E-3
447.724E-6	1.77501E-12	101.688E-3	7.21075E-3	1.75911E-12	80.6963E-3	-12.0997E-3
442.721E-6	1.78806E-12	86.8886E-3	3.52906E-3	1.73208E-12	72.9862E-3	-8.70672E-3
437.719E-6	1.73427E-12	73.9653E-3	3.76993E-3	1.73780E-12	61.3559E-3	-8.09540E-3
432.716E-6	1.69649E-12	81.2637E-3	-1.92325E-3	1.60035E-12	69.0503E-3	-7.87339E-3
427.714E-6	1.65580E-12	96.4667E-3	7.13165E-3	1.63329E-12	89.1224E-3	-9.58038E-3
422.711E-6	1.63107E-12	96.4031E-3	8.15385E-3	1.59095E-12	90.9605E-3	-10.0007E-3
417.709E-6	1.61297E-12	94.2649E-3	-19.9155E-3	1.59652E-12	79.4604E-3	-11.7000E-3
412.706E-6	1.58601E-12	94.9258E-3	-31.1777E-3	1.54798E-12	79.6392E-3	-26.0494E-3
407.704E-6	1.57704E-12	86.5147E-3	-18.1338E-3	1.46888E-12	80.1043E-3	-28.5509E-3
402.701E-6	1.52736E-12	84.8274E-3	-16.3001E-3	1.50712E-12	79.3186E-3	-11.1994E-3
397.699E-6	1.47604E-12	98.5207E-3	-17.5393E-3	1.51515E-12	88.8558E-3	-3.65317E-3
392.696E-6	1.47396E-12	101.137E-3	-17.2383E-3	1.45220E-12	91.5389E-3	-3.56949E-3
387.694E-6	1.43929E-12	91.5516E-3	-35.4725E-3	1.42450E-12	85.3392E-3	2.45072E-3
382.691E-6	1.37901E-12	94.1561E-3	-38.4038E-3	1.36901E-12	83.1642E-3	7.78402E-3
377.689E-6	1.36708E-12	90.7703E-3	-18.2028E-3	1.40581E-12	81.8791E-3	1.69681E-3
372.686E-6	1.36142E-12	72.0723E-3	-22.5216E-3	1.37735E-12	80.3882E-3	-8.76515E-3
367.684E-6	1.33430E-12	64.5164E-3	-34.5838E-3	1.29781E-12	81.9933E-3	-23.5428E-3
362.681E-6	1.29254E-12	60.0317E-3	-26.3759E-3	1.28128E-12	86.0344E-3	-39.1282E-3
357.679E-6	1.20131E-12	57.1650E-3	-26.0417E-3	1.24890E-12	84.6206E-3	-32.7857E-3
352.676E-6	1.24783E-12	75.3918E-3	-28.4516E-3	1.24032E-12	84.7870E-3	-17.2085E-3
347.674E-6	1.21609E-12	89.2381E-3	-8.70973E-3	1.24080E-12	94.6014E-3	-15.7865E-3
342.671E-6	1.18586E-12	86.4453E-3	1.18980E-3	1.13720E-12	95.4612E-3	-17.2954E-3
337.669E-6	1.08596E-12	89.6025E-3	-9.37955E-3	1.12263E-12	89.9301E-3	-11.1803E-3
332.666E-6	1.09846E-12	92.8880E-3	-10.8256E-3	1.08040E-12	80.6455E-3	-14.3714E-3
327.664E-6	1.19375E-12	85.0489E-3	-18.3269E-3	1.05258E-12	69.7426E-3	-25.3199E-3
322.661E-6	1.09363E-12	85.1374E-3	-30.5486E-3	1.06579E-12	74.9627E-3	-22.9706E-3
317.659E-6	1.04200E-12	85.3183E-3	-17.2858E-3	966.786E-15	87.3173E-3	-18.3100E-3
312.656E-6	967.213E-15	63.0968E-3	-160.731E-6	939.094E-15	82.7574E-3	-18.5769E-3
307.654E-6	984.111E-15	48.5821E-3	-10.3103E-3	968.861E-15	70.5432E-3	-21.8585E-3
302.651E-6	988.759E-15	62.5177E-3	-21.3914E-3	894.050E-15	73.0165E-3	-37.9176E-3
297.649E-6	928.561E-15	76.4745E-3	-17.7530E-3	887.092E-15	78.4860E-3	-42.8138E-3
292.646E-6	908.166E-15	86.3607E-3	-21.6798E-3	898.688E-15	78.2290E-3	-24.6571E-3
287.644E-6	903.083E-15	97.9316E-3	-25.6921E-3	843.521E-15	78.9270E-3	-18.6930E-3
282.641E-6	878.695E-15	87.0842E-3	-22.9841E-3	839.231E-15	68.5050E-3	-25.5040E-3
277.639E-6	832.857E-15	68.6807E-3	-18.6450E-3	797.161E-15	53.3982E-3	-27.3460E-3
272.636E-6	785.834E-15	72.9968E-3	-12.3231E-3	760.522E-15	60.8546E-3	-22.7663E-3
267.634E-6	758.456E-15	74.6038E-3	-17.8891E-3	721.538E-15	69.3894E-3	-8.67604E-3
262.631E-6	745.098E-15	63.8609E-3	-23.2830E-3	748.585E-15	57.2050E-3	-424.674E-6
257.629E-6	733.178E-15	63.3557E-3	-7.83872E-3	685.614E-15	54.7849E-3	-10.3822E-3
252.626E-6	680.583E-15	68.1050E-3	1.12522E-3	643.753E-15	60.5967E-3	-17.2736E-3
247.624E-6	662.752E-15	72.7245E-3	-10.9462E-3	667.461E-15	58.3974E-3	-11.4671E-3
242.621E-6	621.798E-15	81.6049E-3	-10.3123E-3	665.586E-15	59.6307E-3	-11.8051E-3
237.619E-6	647.328E-15	77.7443E-3	-2.07907E-3	686.338E-15	63.1741E-3	-16.7157E-3
232.616E-6	646.229E-15	64.0508E-3	-21.9152E-3	615.564E-15	67.0504E-3	-9.59754E-3
227.614E-6	555.392E-15	62.8675E-3	-36.4813E-3	577.652E-15	72.5061E-3	19.4268E-6
222.611E-6	538.354E-15	64.9088E-3	-25.0048E-3	520.427E-15	70.4931E-3	-2.70726E-3
217.609E-6	526.417E-15	67.9389E-3	-19.1225E-3	538.860E-15	59.2483E-3	-9.37108E-3
212.606E-6	541.214E-15	75.6080E-3	-14.2860E-3	483.056E-15	50.7433E-3	-17.7239E-3
207.604E-6	519.791E-15	68.1445E-3	-79.2933E-6	504.314E-15	45.5253E-3	-32.3191E-3
202.601E-6	417.975E-15	54.7398E-3	-755.223E-6	425.204E-15	38.8263E-3	-28.6643E-3
197.599E-6	394.102E-15	58.4987E-3	-14.6893E-3	430.383E-15	41.0308E-3	-10.2245E-3
192.596E-6	460.020E-15	63.1775E-3	-18.4036E-3	431.455E-15	45.9255E-3	-3.55454E-3
187.594E-6	426.424E-15	55.7879E-3	-19.4094E-3	382.723E-15	45.4441E-3	1.49339E-3
182.591E-6	428.299E-15	49.6258E-3	-22.5405E-3	348.404E-15	50.1529E-3	10.4090E-3
177.589E-6	339.135E-15	55.1841E-3	-19.6018E-3	383.639E-15	57.2793E-3	2.42088E-3
172.586E-6	350.322E-15	61.4077E-3	-18.9109E-3	329.012E-15	54.1581E-3	-21.6222E-3
167.584E-6	365.241E-15	62.1770E-3	-18.2854E-3	309.725E-15	55.4164E-3	-31.4351E-3
162.581E-6	326.955E-15	55.8616E-3	-17.5637E-3	323.388E-15	70.0369E-3	-24.5357E-3
157.579E-6	262.449E-15	46.1604E-3	-31.4310E-3	259.005E-15	73.2697E-3	-20.5910E-3
152.576E-6	278.501E-15	53.8710E-3	-40.9046E-3	265.745E-15	59.8011E-3	-17.1987E-3
147.574E-6	286.288E-15	65.2265E-3	-27.4765E-3	281.152E-15	49.7306E-3	-21.3461E-3
142.571E-6	281.230E-15	54.0848E-3	-17.7998E-3	259.546E-15	54.9269E-3	-31.4735E-3
137.569E-6	227.642E-15	42.2317E-3	-19.8572E-3	204.457E-15	65.5452E-3	-27.4003E-3
132.566E-6	175.526E-15	41.8597E-3	-16.9697E-3	233.902E-15	65.3647E-3	-25.4368E-3
127.564E-6	165.647E-15	30.0760E-3	-19.8476E-3	218.905E-15	48.6805E-3	-34.8462E-3
122.561E-6	207.657E-15	24.6171E-3	-31.9085E-3	192.607E-15	33.6597E-3	-27.2756E-3
117.559E-6	203.463E-15	46.3519E-3	-37.3097E-3	151.853E-15	32.8395E-3	-9.26011E-3
112.556E-6	122.897E-15	53.6689E-3	-32.8065E-3	139.908E-15	30.0800E-3	-306.449E-6
107.554E-6	104.603E-15	44.2096E-3	-30.3433E-3	115.895E-15	26.9587E-3	2.92312E-3
102.551E-6	140.056E-15	54.0587E-3	-26.1665E-3	143.265E-15	26.5514E-3	-8.37043E-3
97.5488E-6	110.934E-15	59.3483E-3	-18.2355E-3	100.261E-15	24.1785E-3	-30.5706E-3
92.5463E-6	85.2727E-15	41.4350E-3	-20.7787E-3	69.8919E-15	33.4352E-3	-38.9564E-3
87.5438E-6	62.5676E-15	32.8874E-3	-17.9083E-3	64.0238E-15	44.4118E-3	-27.2413E-3
82.5413E-6	74.4085E-15	39.2655E-3	-2.91583E-3	45.4865E-15	39.7821E-3	-14.7983E-3
77.5388E-6	135.540E-15	47.8823E-3	-1.56007E-3	66.7180E-15	27.5248E-3	-11.9308E-3
72.5363E-6	99.1626E-15	50.7440E-3	-15.4580E-3	36.3487E-15	24.8609E-3	-15.0990E-3
67.5338E-6	-2.94052E-15	36.1970E-3	-21.7869E-3	3.25892E-15	38.5871E-3	-19.9272E-3
62.5313E-6	-27.0930E-15	21.7695E-3	-22.0636E-3	12.8589E-15	44.7567E-3	-18.8997E-3
57.5288E-6	-18.4522E-15	26.3093E-3	-22.6136E-3	-3.35032E-15	43.0247E-3	-16.8109E-3
52.5263E-6	23.8103E-15	34.1570E-3	-17.1021E-3	18.9711E-15	42.1840E-3	-20.0196E-3
47.5238E-6	-46.1796E-15	29.1504E-3	-19.0339E-3	-51.4111E-15	32.5128E-3	-25.0999E-3
42.5213E-6	-41.4363E-15	27.4776E-3	-24.8291E-3	-107.677E-15	32.5383E-3	-23.7220E-3
37.5188E-6	-5.97483E-15	37.3021E-3	-19.1670E-3	-81.5364E-15	46.8186E-3	-17.0738E-3
32.5163E-6	-47.8798E-15	50.5009E-3	-21.5869E-3	-68.6492E-15	55.1517E-3	-13.2840E-3
27.5138E-6	-80.6295E-15	56.2212E-3	-30.3372E-3	-47.4700E-15	49.0682E-3	-12.3005E-3
22.5113E-6	-120.023E-15	43.0440E-3	-23.0573E-3	-126.694E-15	36.8504E-3	-19.4207E-3
17.5088E-6	-160.368E-15	29.7540E-3	-14.9849E-3	-102.437E-15	31.6108E-3	-22.2141E-3
12.5063E-6	-124.226E-15	40.7505E-3	-15.5388E-3	-95.9668E-15	34.0657E-3	-12.6124E-3
7.50375E-6	-86.4802E-15	46.4988E-3	-12.9406E-3	-140.828E-15	34.8551E-3	-4.70671E-3
2.50125E-6	-91.2061E-15	28.2345E-3	-12.2493E-3	-181.477E-15	34.0926E-3	-11.3421E-3
-2.50125E-6	-163.507E-15	28.9087E-3	-23.0657E-3	-134.402E-15	39.2307E-3	-30.2843E-3
-7.50375E-6	-219.694E-15	44.5638E-3	-32.1728E-3	-167.640E-15	38.4668E-3	-30.6582E-3
-12.5063E-6	-180.902E-15	36.7350E-3	-37.0637E-3	-145.344E-15	28.8832E-3	-16.0705E-3
-17.5088E-6	-150.977E-15	34.2362E-3	-34.8392E-3	-216.162E-15	36.9957E-3	-15.7013E-3
-22.5113E-6	-247.909E-15	50.0350E-3	-8.01705E-3	-230.724E-15	56.0055E-3	-19.9781E-3
-27.5138E-6	-295.473E-15	52.1514E-3	7.49583E-3	-260.038E-15	55.7685E-3	-19.8836E-3
-32.5163E-6	-263.168E-15	48.6813E-3	-11.6070E-3	-252.095E-15	47.7092E-3	-12.4110E-3
-37.5188E-6	-269.664E-15	51.5933E-3	-20.3690E-3	-249.610E-15	48.0711E-3	-5.18167E-3
-42.5213E-6	-268.086E-15	48.3676E-3	-13.5829E-3	-302.728E-15	45.9879E-3	-13.6837E-3
-47.5238E-6	-334.074E-15	45.1444E-3	-17.7038E-3	-340.046E-15	40.8490E-3	-14.1245E-3
-52.5263E-6	-374.828E-15	49.8997E-3	-12.2333E-3	-367.939E-15	44.7540E-3	-3.56424E-3
-57.5288E-6	-327.203E-15	54.0348E-3	693.281E-6	-332.443E-15	54.7732E-3	-7.98648E-3
-62.5313E-6	-345.243E-15	55.5280E-3	-5.64204E-3	-370.738E-15	57.3368E-3	-18.4188E-3
-67.5338E-6	-374.026E-15	62.3678E-3	-17.4118E-3	-371.445E-15	51.8923E-3	-19.3868E-3
-72.5363E-6	-401.430E-15	64.9963E-3	-17.2953E-3	-437.799E-15	45.8557E-3	-14.2858E-3
-77.5388E-6	-387.540E-15	60.1451E-3	-13.4967E-3	-444.355E-15	53.0802E-3	-10.3601E-3
-82.5413E-6	-401.640E-15	64.5022E-3	-6.49813E-3	-400.271E-15	74.1123E-3	-4.58453E-3
-87.5438E-6	-441.286E-15	57.9864E-3	2.48900E-3	-416.959E-15	85.4731E-3	1.57708E-3
-92.5463E-6	-516.909E-15	43.7239E-3	-5.36995E-3	-485.327E-15	79.3334E-3	1.33044E-3
-97.5488E-6	-523.169E-15	59.7784E-3	-16.6373E-3	-493.288E-15	72.1875E-3	-5.71309E-3
-102.551E-6	-520.196E-15	81.1122E-3	-14.9208E-3	-474.019E-15	75.0335E-3	-19.9756E-3
-107.554E-6	-537.530E-15	81.0623E-3	-12.7279E-3	-544.889E-15	79.7519E-3	-28.3441E-3
-112.556E-6	-575.101E-15	80.2160E-3	-13.0590E-3	-603.056E-15	85.3269E-3	-24.5244E-3
-117.559E-6	-653.078E-15	78.3222E-3	-9.22198E-3	-568.701E-15	90.2494E-3	-23.2383E-3
-122.561E-6	-637.200E-15	67.2418E-3	-6.55953E-3	-576.898E-15	84.3140E-3	-25.5209E-3
-127.564E-6	-660.089E-15	70.0096E-3	-11.7757E-3	-645.475E-15	94.8243E-3	-18.8471E-3
-132.566E-6	-631.376E-15	79.0433E-3	-14.2194E-3	-680.474E-15	117.972E-3	-14.1357E-3
-137.569E-6	-689.377E-15	75.4296E-3	-12.5930E-3	-700.965E-15	114.328E-3	-19.4810E-3
-142.571E-6	-763.700E-15	76.4766E-3	-13.8867E-3	-727.838E-15	93.6183E-3	-18.9009E-3
-147.574E-6	-727.489E-15	79.4912E-3	-3.50121E-3	-728.282E-15	82.9865E-3	-14.0591E-3
-152.576E-6	-768.016E-15	77.0283E-3	4.55151E-3	-774.730E-15	84.7831E-3	-21.4177E-3
-157.579E-6	-789.823E-15	74.0502E-3	-9.57617E-3	-815.249E-15	89.6106E-3	-22.5060E-3
-162.581E-6	-906.217E-15	73.1675E-3	-13.4670E-3	-821.684E-15	96.3456E-3	-9.81112E-3
-167.584E-6	-895.152E-15	70.5054E-3	-5.33692E-3	-931.268E-15	107.020E-3	-6.54029E-3
-172.586E-6	-904.456E-15	73.3725E-3	-13.7643E-3	-928.443E-15	110.880E-3	-12.3709E-3
-177.589E-6	-912.966E-15	87.1045E-3	-23.0744E-3	-924.327E-15	104.478E-3	-23.9919E-3
-182.591E-6	-989.269E-15	94.4293E-3	-22.6837E-3	-1.01546E-12	100.248E-3	-28.0154E-3
-187.594E-6	-1.07108E-12	96.6281E-3	-24.2707E-3	-1.06847E-12	102.525E-3	-18.2194E-3
-192.596E-6	-1.04219E-12	98.2433E-3	-16.6343E-3	-1.07004E-12	115.274E-3	-14.2511E-3
-197.599E-6	-1.10396E-12	95.2329E-3	-12.0389E-3	-1.09217E-12	125.523E-3	-11.0997E-3
-202.601E-6	-1.11207E-12	100.643E-3	-30.1076E-3	-1.14334E-12	126.719E-3	1.84658E-3
-207.604E-6	-1.18783E-12	119.473E-3	-37.7536E-3	-1.20154E-12	131.663E-3	9.22682E-3
-212.606E-6	-1.20718E-12	120.653E-3	-20.0328E-3	-1.27276E-12	126.607E-3	1.76037E-3
-217.609E-6	-1.24346E-12	101.459E-3	-7.88079E-3	-1.26688E-12	117.309E-3	-8.88499E-3
-222.611E-6	-1.28015E-12	109.356E-3	-8.75159E-3	-1.25273E-12	129.836E-3	-8.47505E-3
-227.614E-6	-1.33095E-12	122.536E-3	-18.3808E-3	-1.38001E-12	145.130E-3	-11.0769E-3
-232.616E-6	-1.39500E-12	110.005E-3	-40.0212E-3	-1.38006E-12	141.622E-3	-22.8672E-3
-237.619E-6	-1.39194E-12	110.318E-3	-46.4962E-3	-1.41220E-12	140.796E-3	-30.3529E-3
-242.621E-6	-1.43325E-12	125.959E-3	-22.9268E-3	-1.46129E-12	143.374E-3	-36.2738E-3
-247.624E-6	-1.49710E-12	130.119E-3	-9.29712E-3	-1.55470E-12	130.926E-3	-35.1735E-3
-252.626E-6	-1.55331E-12	128.142E-3	-9.66492E-3	-1.55258E-12	131.046E-3	-25.6353E-3
-257.629E-6	-1.65746E-12	122.471E-3	6.43932E-3	-1.54355E-12	142.826E-3	-21.4715E-3
-262.631E-6	-1.62927E-12	120.402E-3	10.7598E-3	-1.65601E-12	134.329E-3	-19.3892E-3
-267.634E-6	-1.63646E-12	134.311E-3	-18.8124E-3	-1.73713E-12	129.630E-3	-15.1058E-3
-272.636E-6	-1.75994E-12	144.137E-3	-36.7288E-3	-1.77678E-12	145.627E-3	-18.0952E-3
-277.639E-6	-1.80077E-12	143.027E-3	-28.3931E-3	-1.83168E-12	159.008E-3	-20.1566E-3
-282.641E-6	-1.85898E-12	143.244E-3	-22.6445E-3	-1.82425E-12	157.912E-3	-22.5516E-3
-287.644E-6	-1.86111E-12	140.213E-3	-14.9908E-3	-1.92233E-12	149.513E-3	-27.4921E-3
-292.646E-6	-1.91284E-12	131.928E-3	-10.3937E-3	-1.97438E-12	140.560E-3	-17.4652E-3
-297.649E-6	-2.00829E-12	139.775E-3	-21.0640E-3	-1.98849E-12	143.147E-3	-4.42851E-3
-302.651E-6	-2.06768E-12	151.481E-3	-21.7555E-3	-2.06262E-12	154.932E-3	54.3388E-6
-307.654E-6	-2.10270E-12	141.627E-3	-14.9075E-3	-2.06113E-12	164.471E-3	812.012E-6
-312.656E-6	-2.15412E-12	128.266E-3	-15.2632E-3	-2.11640E-12	166.616E-3	-2.46119E-3
-317.659E-6	-2.14782E-12	133.998E-3	-10.2656E-3	-2.16455E-12	164.492E-3	-2.24178E-3
-322.661E-6	-2.25025E-12	145.585E-3	-10.6800E-3	-2.20330E-12	165.862E-3	-3.25370E-3
-327.664E-6	-2.30896E-12	153.102E-3	-27.9518E-3	-2.27649E-12	163.194E-3	-10.6753E-3
-332.666E-6	-2.33595E-12	160.938E-3	-34.5738E-3	-2.31377E-12	156.685E-3	-15.3158E-3
-337.669E-6	-2.43517E-12	158.982E-3	-16.6604E-3	-2.35088E-12	154.354E-3	-20.0984E-3
-342.671E-6	-2.49713E-12	155.678E-3	-5.57233E-3	-2.45934E-12	147.904E-3	-19.5019E-3
-347.674E-6	-2.52669E-12	165.539E-3	-10.7232E-3	-2.49739E-12	146.800E-3	-8.30946E-3
-352.676E-6	-2.54094E-12	169.491E-3	-17.0893E-3	-2.52905E-12	160.330E-3	-1.86473E-3
-357.679E-6	-2.60470E-12	160.924E-3	-29.3966E-3	-2.63493E-12	174.236E-3	-3.71274E-3
-362.681E-6	-2.72998E-12	162.198E-3	-25.2616E-3	-2.73179E-12	184.121E-3	-8.58867E-3
-367.684E-6	-2.78129E-12	164.850E-3	1.40274E-3	-2.76872E-12	176.934E-3	-16.3107E-3
-372.686E-6	-2.83249E-12	158.265E-3	2.47731E-3	-2.76553E-12	156.952E-3	-18.1522E-3
-377.689E-6	-2.79811E-12	159.977E-3	-12.2474E-3	-2.89312E-12	156.974E-3	-11.7642E-3
-382.691E-6	-2.90317E-12	155.818E-3	-6.46379E-3	-3.02208E-12	161.314E-3	-6.03851E-3
-387.694E-6	-2.98793E-12	147.165E-3	-7.01030E-3	-3.10284E-12	152.841E-3	-5.89713E-3
-392.696E-6	-3.03280E-12	160.255E-3	-19.7773E-3	-3.05910E-12	156.977E-3	-11.3157E-3
-397.699E-6	-3.00567E-12	164.436E-3	-9.87112E-3	-3.11313E-12	164.990E-3	-15.3255E-3
-402.701E-6	-3.06384E-12	150.720E-3	595.110E-6	-3.17432E-12	154.199E-3	-25.9563E-3
-407.704E-6	-3.18197E-12	163.029E-3	-12.4017E-3	-3.21065E-12	146.210E-3	-35.3061E-3
-412.706E-6	-3.24631E-12	188.161E-3	-16.3976E-3	-3.21706E-12	161.402E-3	-22.7384E-3
-417.709E-6	-3.28498E-12	182.187E-3	-13.8183E-3	-3.31138E-12	169.422E-3	-14.6511E-3
-422.711E-6	-3.30076E-12	174.174E-3	-15.1407E-3	-3.38016E-12	159.089E-3	-21.9500E-3
-427.714E-6	-3.39695E-12	176.104E-3	-2.06860E-3	-3.37520E-12	156.711E-3	-28.7493E-3
-432.716E-6	-3.50372E-12	161.913E-3	211.391E-6	-3.48827E-12	160.391E-3	-28.7191E-3
-437.719E-6	-3.56994E-12	157.034E-3	-14.4691E-3	-3.51632E-12	160.005E-3	-18.4129E-3
-442.721E-6	-3.58140E-12	166.249E-3	-3.58793E-3	-3.54888E-12	167.010E-3	-11.9526E-3
-447.724E-6	-3.60340E-12	163.305E-3	9.71237E-3	-3.65730E-12	177.006E-3	-17.2217E-3
-452.726E-6	-3.69769E-12	162.770E-3	-3.72380E-3	-3.68115E-12	177.558E-3	-17.2989E-3
-457.729E-6	-3.76643E-12	169.565E-3	-10.3447E-3	-3.78967E-12	183.637E-3	-9.06313E-3
-462.731E-6	-3.75472E-12	152.117E-3	-8.99444E-3	-3.81349E-12	185.666E-3	-3.55625E-3
-467.734E-6	-3.77906E-12	134.568E-3	-19.3645E-3	-3.91175E-12	169.275E-3	2.97306E-3
-472.736E-6	-3.86893E-12	143.563E-3	-23.1092E-3	-3.94565E-12	158.605E-3	1.05153E-3
-477.739E-6	-3.95035E-12	144.042E-3	-18.5713E-3	-4.00730E-12	150.686E-3	-14.7588E-3
-482.741E-6	-3.94922E-12	140.341E-3	-16.6522E-3	-4.06769E-12	139.854E-3	-16.8881E-3
-487.744E-6	-3.98880E-12	145.176E-3	-9.99459E-3	-4.08218E-12	139.831E-3	-10.5335E-3
-492.746E-6	-4.03979E-12	133.934E-3	-7.85549E-3	-4.15741E-12	140.656E-3	-19.1868E-3
-497.749E-6	-4.09783E-12	121.356E-3	-21.1771E-3	-4.15154E-12	130.167E-3	-25.8303E-3
-502.751E-6	-4.18761E-12	131.934E-3	-26.8831E-3	-4.20395E-12	127.144E-3	-23.6995E-3
-507.754E-6	-4.24063E-12	141.623E-3	-15.7808E-3	-4.18317E-12	140.996E-3	-25.3765E-3
-512.756E-6	-4.28838E-12	138.639E-3	-8.64720E-3	-4.21877E-12	144.688E-3	-19.6831E-3
-517.759E-6	-4.29266E-12	149.037E-3	-6.63260E-3	-4.28549E-12	143.318E-3	-5.43634E-3
-522.761E-6	-4.38926E-12	155.331E-3	-3.94224E-3	-4.33372E-12	144.291E-3	-3.59289E-3
-527.764E-6	-4.46463E-12	138.775E-3	-14.3131E-3	-4.33133E-12	138.201E-3	-13.5929E-3
-532.766E-6	-4.52114E-12	134.616E-3	-21.9994E-3	-4.36572E-12	135.846E-3	-17.1989E-3
-537.769E-6	-4.48163E-12	133.320E-3	-12.0895E-3	-4.45778E-12	136.597E-3	-7.75589E-3
-542.771E-6	-4.53225E-12	117.533E-3	-7.75837E-3	-4.46754E-12	127.364E-3	-2.96605E-3
-547.774E-6	-4.58873E-12	118.781E-3	-11.2473E-3	-4.50602E-12	114.417E-3	-9.28673E-3
-552.776E-6	-4.62287E-12	129.336E-3	-12.1786E-3	-4.56047E-12	111.331E-3	-15.2354E-3
-557.779E-6	-4.62638E-12	130.929E-3	-17.3025E-3	-4.63125E-12	111.339E-3	-15.3312E-3
-562.781E-6	-4.63394E-12	128.219E-3	-29.3710E-3	-4.61330E-12	113.082E-3	-8.87829E-3
-567.784E-6	-4.71939E-12	115.568E-3	-26.1435E-3	-4.76293E-12	118.025E-3	-11.5566E-3
-572.786E-6	-4.84806E-12	100.495E-3	-10.9506E-3	-4.77768E-12	110.544E-3	-32.1160E-3
-577.789E-6	-4.84604E-12	107.603E-3	-12.0774E-3	-4.87962E-12	94.3822E-3	-40.0136E-3
-582.791E-6	-4.84966E-12	126.697E-3	-12.4843E-3	-4.94291E-12	94.1110E-3	-25.5961E-3
-587.794E-6	-4.90314E-12	123.784E-3	-8.02074E-3	-4.94568E-12	99.4710E-3	-15.8251E-3
-592.796E-6	-5.01996E-12	114.206E-3	-14.6988E-3	-4.95853E-12	102.293E-3	-12.3016E-3
-597.799E-6	-5.01916E-12	114.356E-3	-12.4903E-3	-5.00447E-12	109.431E-3	-14.3049E-3
-602.801E-6	-5.04751E-12	105.106E-3	-11.0764E-3	-5.06598E-12	103.069E-3	-24.8977E-3
-607.804E-6	-5.06712E-12	92.6062E-3	-31.4061E-3	-5.05235E-12	91.8982E-3	-25.1396E-3
-612.806E-6	-5.14139E-12	87.1704E-3	-43.5939E-3	-5.09577E-12	91.1617E-3	-10.8511E-3
-617.809E-6	-5.19577E-12	79.0972E-3	-32.2262E-3	-5.06002E-12	88.3116E-3	1.58150E-3
-622.811E-6	-5.22752E-12	80.1874E-3	-22.1059E-3	-5.10244E-12	76.5455E-3	3.13430E-3
-627.814E-6	-5.18285E-12	98.7435E-3	-15.3486E-3	-5.15373E-12	81.6817E-3	-324.550E-6
-632.816E-6	-5.16591E-12	105.202E-3	-9.00116E-3	-5.21726E-12	102.575E-3	-3.65655E-3
-637.819E-6	-5.29610E-12	97.9134E-3	-13.0625E-3	-5.22980E-12	108.655E-3	-9.72859E-3
-642.821E-6	-5.31307E-12	103.393E-3	-11.3359E-3	-5.30502E-12	112.067E-3	-13.4297E-3
-647.824E-6	-5.27077E-12	101.026E-3	-3.82494E-3	-5.27340E-12	108.521E-3	-17.1659E-3
-652.826E-6	-5.30410E-12	88.2574E-3	-16.3879E-3	-5.32586E-12	94.3695E-3	-14.7867E-3
-657.829E-6	-5.35091E-12	84.7235E-3	-30.8365E-3	-5.35406E-12	89.2235E-3	-4.50222E-3
-662.831E-6	-5.42362E-12	81.0154E-3	-34.7925E-3	-5.37789E-12	89.7602E-3	-11.1647E-3
-667.834E-6	-5.44163E-12	81.1744E-3	-41.5118E-3	-5.48095E-12	80.0629E-3	-21.0698E-3
-672.836E-6	-5.38717E-12	94.6564E-3	-33.9953E-3	-5.58361E-12	75.4443E-3	-12.3584E-3
-677.839E-6	-5.43827E-12	106.495E-3	-19.5895E-3	-5.57805E-12	82.5475E-3	-11.2288E-3
-682.841E-6	-5.50298E-12	98.3029E-3	-23.1175E-3	-5.64410E-12	74.9581E-3	-25.1507E-3
-687.844E-6	-5.54521E-12	83.0983E-3	-28.5949E-3	-5.62348E-12	76.9737E-3	-23.0347E-3
-692.846E-6	-5.57975E-12	80.6636E-3	-23.4916E-3	-5.62740E-12	97.2351E-3	-16.9359E-3
-697.849E-6	-5.62163E-12	80.5602E-3	-19.9393E-3	-5.69061E-12	98.4328E-3	-26.1657E-3
-702.851E-6	-5.66429E-12	85.5696E-3	-17.4023E-3	-5.74420E-12	92.5633E-3	-28.2221E-3
-707.854E-6	-5.67721E-12	94.6492E-3	4.24642E-6	-5.76764E-12	95.3736E-3	-19.7657E-3
-712.856E-6	-5.73149E-12	92.8426E-3	7.93913E-3	-5.79733E-12	86.6166E-3	-17.6372E-3
-717.859E-6	-5.77260E-12	85.2961E-3	-14.4275E-3	-5.77800E-12	81.1915E-3	-17.3364E-3
-722.861E-6	-5.83194E-12	76.9666E-3	-30.6064E-3	-5.81223E-12	92.0825E-3	-18.7370E-3
-727.864E-6	-5.85122E-12	71.5182E-3	-31.1406E-3	-5.80637E-12	92.4201E-3	-24.0865E-3
-732.866E-6	-5.87296E-12	66.3629E-3	-33.2734E-3	-5.81230E-12	78.6093E-3	-14.5368E-3
-737.869E-6	-5.95114E-12	64.7066E-3	-32.1035E-3	-5.79032E-12	77.9080E-3	-1.60123E-3
-742.871E-6	-5.91749E-12	64.6085E-3	-26.7032E-3	-5.84324E-12	92.0717E-3	-8.00568E-3
-747.874E-6	-5.96105E-12	75.5703E-3	-23.0233E-3	-5.92749E-12	100.162E-3	-11.8207E-3
-752.876E-6	-6.05095E-12	107.422E-3	-25.7736E-3	-5.89201E-12	103.298E-3	-4.86985E-3
-757.879E-6	-6.13007E-12	112.393E-3	-34.2518E-3	-5.95759E-12	108.885E-3	-7.01604E-3
-762.881E-6	-6.07916E-12	97.1356E-3	-39.4610E-3	-6.01148E-12	103.762E-3	-9.35715E-3
-767.884E-6	-6.15246E-12	97.2622E-3	-27.3127E-3	-6.07562E-12	88.3020E-3	-2.43016E-3
-772.886E-6	-6.21497E-12	88.7289E-3	-8.74364E-3	-6.10235E-12	88.0389E-3	-7.93890E-3
-777.889E-6	-6.26883E-12	86.0178E-3	-19.7800E-3	-6.22797E-12	97.0238E-3	-22.5875E-3
-782.891E-6	-6.29454E-12	103.751E-3	-37.2584E-3	-6.30014E-12	101.543E-3	-14.2543E-3
-787.894E-6	-6.21572E-12	106.096E-3	-28.5452E-3	-6.33658E-12	107.420E-3	-5.24983E-3
-792.896E-6	-6.30623E-12	96.6203E-3	-15.5950E-3	-6.30745E-12	112.907E-3	-15.4455E-3
-797.899E-6	-6.32351E-12	103.679E-3	-9.06968E-3	-6.43367E-12	117.480E-3	-16.6490E-3
-802.901E-6	-6.37236E-12	109.531E-3	-6.17351E-3	-6.51774E-12	113.826E-3	-13.5320E-3
-807.904E-6	-6.39942E-12	109.714E-3	-5.97595E-3	-6.47932E-12	103.238E-3	-16.2891E-3
-812.906E-6	-6.41244E-12	124.754E-3	-10.2851E-3	-6.50888E-12	105.661E-3	-16.7289E-3
-817.909E-6	-6.40240E-12	128.086E-3	-5.15265E-3	-6.59129E-12	122.059E-3	-21.8069E-3
-822.911E-6	-6.52447E-12	119.268E-3	-2.91112E-3	-6.65388E-12	133.430E-3	-24.8554E-3
-827.914E-6	-6.55629E-12	139.079E-3	-19.4064E-3	-6.58721E-12	132.967E-3	-10.9084E-3
-832.916E-6	-6.59035E-12	152.379E-3	-25.3437E-3	-6.62375E-12	131.434E-3	8.47721E-3
-837.919E-6	-6.67041E-12	134.133E-3	-24.0916E-3	-6.61463E-12	133.565E-3	10.9354E-3
-842.921E-6	-6.70932E-12	128.371E-3	-27.9977E-3	-6.69251E-12	132.910E-3	327.305E-6
-847.924E-6	-6.84332E-12	131.541E-3	-17.5524E-3	-6.71306E-12	132.159E-3	-8.80391E-3
-852.926E-6	-6.88308E-12	127.525E-3	-4.76120E-3	-6.72641E-12	132.683E-3	-16.4161E-3
-857.929E-6	-6.91195E-12	140.000E-3	-14.6168E-3	-6.72580E-12	133.387E-3	-11.7207E-3
-862.931E-6	-6.93313E-12	153.993E-3	-24.5010E-3	-6.90777E-12	140.026E-3	-6.62646E-3
-867.934E-6	-7.08900E-12	137.180E-3	-19.4812E-3	-6.95757E-12	141.052E-3	-23.6759E-3
-872.936E-6	-7.07683E-12	115.262E-3	-5.49105E-3	-6.97997E-12	139.206E-3	-37.0676E-3
-877.939E-6	-7.01040E-12	120.269E-3	12.6912E-3	-7.00177E-12	151.581E-3	-32.9798E-3
-882.941E-6	-7.03430E-12	121.457E-3	2.98035E-3	-7.08256E-12	161.338E-3	-21.0263E-3
-887.944E-6	-7.16305E-12	115.124E-3	-33.2374E-3	-7.24192E-12	160.713E-3	-4.80899E-3
-892.946E-6	-7.18619E-12	130.519E-3	-41.2869E-3	-7.24638E-12	167.788E-3	-1.56248E-3
-897.949E-6	-7.18301E-12	140.383E-3	-19.9402E-3	-7.25638E-12	177.634E-3	-10.6963E-3
-902.951E-6	-7.19024E-12	144.515E-3	-17.0102E-3	-7.33856E-12	181.207E-3	-14.0842E-3
-907.954E-6	-7.25759E-12	164.094E-3	-26.5750E-3	-7.43122E-12	186.571E-3	-10.9312E-3
-912.956E-6	-7.30239E-12	168.379E-3	-22.6618E-3	-7.46976E-12	183.740E-3	-13.6711E-3
-917.959E-6	-7.41249E-12	158.308E-3	-22.5213E-3	-7.48811E-12	174.453E-3	-25.2437E-3
-922.961E-6	-7.42564E-12	165.085E-3	-20.9584E-3	-7.52457E-12	178.709E-3	-33.2496E-3
-927.964E-6	-7.53953E-12	168.102E-3	-6.66401E-3	-7.54662E-12	182.806E-3	-33.6334E-3
-932.966E-6	-7.59530E-12	163.413E-3	-6.74442E-3	-7.55700E-12	176.557E-3	-33.9808E-3
-937.969E-6	-7.77417E-12	172.464E-3	-13.1353E-3	-7.55540E-12	179.036E-3	-30.5706E-3
-942.971E-6	-7.77911E-12	176.187E-3	-9.15481E-3	-7.62842E-12	183.999E-3	-24.1515E-3
-947.974E-6	-7.86214E-12	175.457E-3	-21.7777E-3	-7.62360E-12	177.088E-3	-16.9443E-3
-952.976E-6	-7.94809E-12	191.973E-3	-34.4204E-3	-7.68117E-12	173.716E-3	-5.13672E-3
-957.979E-6	-8.04263E-12	203.252E-3	-27.5424E-3	-7.74399E-12	184.846E-3	-1.09665E-3
-962.981E-6	-8.08631E-12	194.722E-3	-28.0459E-3	-7.84126E-12	194.045E-3	-6.66827E-3
-967.984E-6	-8.11097E-12	190.456E-3	-37.6209E-3	-7.89636E-12	196.551E-3	-11.9561E-3
-972.986E-6	-8.11620E-12	191.842E-3	-35.7185E-3	-7.99522E-12	208.199E-3	-17.3406E-3
-977.989E-6	-8.26802E-12	186.455E-3	-24.6623E-3	-8.16146E-12	225.573E-3	-16.6840E-3
-982.991E-6	-8.37198E-12	192.263E-3	-18.8163E-3	-8.26376E-12	240.589E-3	-13.9003E-3
-987.994E-6	-8.33061E-12	207.023E-3	-20.2821E-3	-8.36587E-12	249.634E-3	-16.2024E-3
-992.997E-6	-8.34207E-12	199.278E-3	-28.3634E-3	-8.47468E-12	245.718E-3	-17.0350E-3
-997.999E-6	-8.41681E-12	196.452E-3	-33.0867E-3	-8.64472E-12	237.238E-3	-18.5081E-3
-1.00300E-3	-8.58778E-12	223.751E-3	-28.6150E-3	-8.67911E-12	245.489E-3	-18.5899E-3
-1.00800E-3	-8.61629E-12	235.467E-3	-30.2567E-3	-8.84383E-12	259.203E-3	-12.1694E-3
-1.01301E-3	-8.61851E-12	231.693E-3	-37.2457E-3	-8.94019E-12	259.246E-3	-2.26721E-3
-1.01801E-3	-8.69610E-12	243.607E-3	-33.6508E-3	-8.97277E-12	264.458E-3	-3.40297E-3
-1.02301E-3	-8.93625E-12	250.412E-3	-28.8065E-3	-9.04455E-12	267.904E-3	-21.6334E-3
-1.02801E-3	-8.98943E-12	248.316E-3	-31.2220E-3	-9.09338E-12	270.411E-3	-27.3283E-3
-1.03302E-3	-8.95981E-12	247.885E-3	-21.5565E-3	-9.18250E-12	285.479E-3	-20.8033E-3
-1.03802E-3	-9.05013E-12	235.951E-3	1.86785E-3	-9.20343E-12	292.841E-3	-26.2975E-3
-1.04302E-3	-9.16448E-12	232.034E-3	12.1837E-3	-9.30132E-12	291.821E-3	-28.3592E-3
-1.04802E-3	-9.37695E-12	253.877E-3	3.83148E-3	-9.42620E-12	293.920E-3	-17.2250E-3
-1.05303E-3	-9.39433E-12	269.215E-3	-7.52447E-3	-9.50822E-12	301.844E-3	-14.9111E-3
-1.05803E-3	-9.48140E-12	276.802E-3	-18.5290E-3	-9.50722E-12	310.559E-3	-14.3070E-3
-1.06303E-3	-9.68826E-12	293.346E-3	-19.5301E-3	-9.57256E-12	313.705E-3	-1.42432E-3
-1.06803E-3	-9.76373E-12	296.143E-3	-9.49724E-3	-9.77581E-12	310.210E-3	-13.9828E-3
-1.07304E-3	-9.81071E-12	289.651E-3	-12.7628E-3	-9.88781E-12	319.464E-3	-37.4660E-3
-1.07804E-3	-9.82818E-12	296.593E-3	-20.8307E-3	-10.0270E-12	345.362E-3	-26.4507E-3
-1.08304E-3	-10.0329E-12	300.434E-3	-9.36668E-3	-10.1402E-12	355.430E-3	-7.94245E-3
-1.08804E-3	-10.1379E-12	299.202E-3	-44.3554E-6	-10.1704E-12	355.459E-3	-2.70636E-3
-1.09305E-3	-10.2403E-12	315.807E-3	-11.2750E-3	-10.3258E-12	371.777E-3	-1.12037E-3
-1.09805E-3	-10.4621E-12	334.359E-3	-11.5718E-3	-10.5021E-12	391.752E-3	-3.46126E-3
-1.10305E-3	-10.5826E-12	338.921E-3	-297.215E-6	-10.6074E-12	398.327E-3	-2.63880E-3
-1.10805E-3	-10.6933E-12	346.029E-3	-1.78947E-3	-10.6613E-12	397.580E-3	-182.286E-6
-1.11306E-3	-10.8476E-12	358.215E-3	-3.51821E-3	-10.8031E-12	396.074E-3	-7.69699E-3
-1.11806E-3	-11.0010E-12	369.975E-3	-8.00849E-3	-11.0398E-12	391.280E-3	-21.6638E-3
-1.12306E-3	-11.1475E-12	389.869E-3	-11.9191E-3	-11.0355E-12	407.342E-3	-16.2380E-3
-1.12806E-3	-11.1636E-12	413.293E-3	-4.30981E-3	-11.1622E-12	450.304E-3	5.07824E-3
-1.13307E-3	-11.3164E-12	416.425E-3	-494.524E-6	-11.2141E-12	469.947E-3	7.33071E-3
-1.13807E-3	-11.4715E-12	408.593E-3	-511.466E-6	-11.4562E-12	464.962E-3	-5.30726E-3
-1.14307E-3	-11.6184E-12	409.182E-3	3.99338E-6	-11.5202E-12	474.513E-3	-12.1542E-3
-1.14807E-3	-11.7271E-12	411.932E-3	-11.2707E-3	-11.5846E-12	490.644E-3	-18.8685E-3
-1.15308E-3	-11.9016E-12	427.989E-3	-18.5969E-3	-11.7896E-12	495.470E-3	-27.4286E-3
-1.15808E-3	-12.1409E-12	453.884E-3	-18.4388E-3	-11.9306E-12	505.228E-3	-29.8230E-3
-1.16308E-3	-12.3631E-12	464.730E-3	-28.8162E-3	-12.0919E-12	526.014E-3	-23.2729E-3
-1.16808E-3	-12.5117E-12	476.133E-3	-42.0416E-3	-12.2963E-12	534.828E-3	-7.02242E-3
-1.17309E-3	-12.6456E-12	500.162E-3	-39.5382E-3	-12.5001E-12	534.117E-3	-4.94877E-3
-1.17809E-3	-12.7528E-12	516.732E-3	-18.9978E-3	-12.6145E-12	549.776E-3	-20.2062E-3
-1.18309E-3	-13.0831E-12	527.661E-3	-1.47099E-3	-12.8952E-12	573.018E-3	-22.8796E-3
-1.18809E-3	-13.2299E-12	536.526E-3	4.17414E-3	-13.0438E-12	589.709E-3	-17.4897E-3
-1.19310E-3	-13.4621E-12	540.376E-3	-8.74651E-3	-13.2231E-12	601.578E-3	-25.4184E-3
-1.19810E-3	-13.7337E-12	553.459E-3	-32.3806E-3	-13.4264E-12	610.548E-3	-30.4019E-3
-1.20310E-3	-13.9104E-12	575.318E-3	-25.7508E-3	-13.5917E-12	631.753E-3	-19.7017E-3
-1.20810E-3	-14.0356E-12	588.526E-3	4.17116E-3	-13.9039E-12	665.984E-3	-16.1510E-3
-1.21311E-3	-14.2540E-12	595.539E-3	9.81228E-3	-14.2259E-12	693.573E-3	-23.3516E-3
-1.21811E-3	-14.4795E-12	608.070E-3	-6.06891E-3	-14.4584E-12	713.784E-3	-17.8013E-3
-1.22311E-3	-14.5228E-12	619.192E-3	-12.3190E-3	-14.6876E-12	729.381E-3	-7.98462E-3
-1.22811E-3	-14.7068E-12	640.525E-3	-10.2367E-3	-14.9295E-12	737.841E-3	-13.2328E-3
-1.23312E-3	-14.9561E-12	676.657E-3	-5.29472E-3	-15.1648E-12	741.642E-3	-11.3083E-3
-1.23812E-3	-15.2346E-12	694.285E-3	4.38501E-3	-15.4524E-12	752.339E-3	-2.39922E-3
-1.24312E-3	-15.2719E-12	694.855E-3	7.38079E-3	-15.6378E-12	769.755E-3	-5.13044E-3
-1.24812E-3	-15.4452E-12	705.481E-3	5.79819E-3	-15.8853E-12	786.906E-3	-5.05974E-3
-1.25313E-3	-15.8369E-12	724.153E-3	8.40532E-3	-16.1362E-12	812.844E-3	-2.53259E-3
-1.25813E-3	-16.1509E-12	747.278E-3	6.06694E-3	-16.3798E-12	833.086E-3	-13.5526E-3
-1.26313E-3	-16.4221E-12	769.564E-3	-3.76648E-3	-16.6296E-12	837.759E-3	-24.4425E-3
-1.26813E-3	-16.6890E-12	775.522E-3	-10.8498E-3	-16.8459E-12	844.596E-3	-19.1358E-3
-1.27314E-3	-17.0688E-12	775.730E-3	-19.5546E-3	-17.1849E-12	851.781E-3	-11.3833E-3
-1.27814E-3	-17.4492E-12	786.232E-3	-25.1045E-3	-17.3781E-12	858.108E-3	-7.83097E-3
-1.28314E-3	-17.7538E-12	805.538E-3	-17.9396E-3	-17.6817E-12	876.464E-3	-1.99427E-3
-1.28814E-3	-17.9404E-12	826.883E-3	-12.9709E-3	-17.9637E-12	892.653E-3	-3.75243E-3
-1.29315E-3	-18.3366E-12	850.477E-3	-19.9580E-3	-18.3212E-12	901.469E-3	-16.0569E-3
-1.29815E-3	-18.7936E-12	870.750E-3	-20.0832E-3	-18.6973E-12	921.627E-3	-20.9638E-3
-1.30315E-3	-18.9591E-12	886.863E-3	-14.8406E-3	-19.0225E-12	951.529E-3	-16.5133E-3
-1.30815E-3	-19.1455E-12	906.089E-3	-19.7793E-3	-19.2187E-12	978.272E-3	-11.2906E-3
-1.31316E-3	-19.4556E-12	920.342E-3	-18.5395E-3	-19.6379E-12	993.692E-3	-11.9334E-3
-1.31816E-3	-19.8233E-12	922.299E-3	-11.6466E-3	-20.0749E-12	992.561E-3	-21.1095E-3
-1.32316E-3	-20.0455E-12	937.918E-3	-13.5982E-3	-20.2542E-12	991.559E-3	-26.6289E-3
-1.32816E-3	-20.1716E-12	970.392E-3	-16.6754E-3	-20.5439E-12	1.01224E+0	-29.3426E-3
-1.33317E-3	-20.5951E-12	976.611E-3	-19.4273E-3	-20.7584E-12	1.03348E+0	-39.8551E-3
-1.33817E-3	-20.9254E-12	972.101E-3	-28.8584E-3	-21.0916E-12	1.03530E+0	-38.5481E-3
-1.34317E-3	-21.1369E-12	982.806E-3	-31.9118E-3	-21.3090E-12	1.03877E+0	-22.5797E-3
-1.34817E-3	-21.3058E-12	988.371E-3	-29.6761E-3	-21.5264E-12	1.04384E+0	-19.9321E-3
-1.35318E-3	-21.7246E-12	998.611E-3	-35.7875E-3	-21.7975E-12	1.03349E+0	-20.6290E-3
-1.35818E-3	-22.3112E-12	1.02465E+0	-33.1066E-3	-22.1544E-12	1.03530E+0	-20.8491E-3
-1.36318E-3	-22.6868E-12	1.04787E+0	-15.8430E-3	-22.5336E-12	1.06576E+0	-22.4748E-3
-1.36818E-3	-23.1457E-12	1.05829E+0	-9.81950E-3	-22.8907E-12	1.08842E+0	-10.6628E-3
-1.37319E-3	-23.7611E-12	1.06402E+0	-21.1153E-3	-23.2017E-12	1.10488E+0	1.23295E-3
-1.37819E-3	-24.1879E-12	1.07437E+0	-22.1953E-3	-23.5949E-12	1.12798E+0	-2.63457E-3
-1.38319E-3	-24.4047E-12	1.09704E+0	-19.0621E-3	-24.0924E-12	1.12805E+0	-17.1212E-3
-1.38819E-3	-24.8669E-12	1.12577E+0	-21.9996E-3	-24.5652E-12	1.12332E+0	-30.1936E-3
-1.39320E-3	-25.3803E-12	1.13432E+0	-13.8062E-3	-24.9390E-12	1.14786E+0	-36.2721E-3
-1.39820E-3	-25.6860E-12	1.13198E+0	-4.80643E-3	-25.3191E-12	1.17295E+0	-26.4328E-3
-1.40320E-3	-25.8790E-12	1.14846E+0	-3.24985E-3	-25.8442E-12	1.17385E+0	-11.5124E-3
-1.40820E-3	-26.2498E-12	1.16287E+0	-6.49666E-3	-26.3191E-12	1.17274E+0	-6.25313E-3
-1.41321E-3	-26.7178E-12	1.16131E+0	-15.2828E-3	-26.8242E-12	1.17340E+0	-3.36131E-3
-1.41821E-3	-27.1598E-12	1.16831E+0	-20.9144E-3	-27.1093E-12	1.17202E+0	-6.74940E-3
-1.42321E-3	-27.3500E-12	1.17167E+0	-14.1680E-3	-27.5253E-12	1.19272E+0	-13.2042E-3
-1.42821E-3	-27.9112E-12	1.16310E+0	-10.6983E-3	-28.0143E-12	1.21692E+0	-18.9282E-3
-1.43322E-3	-28.1644E-12	1.16737E+0	-17.6608E-3	-28.4368E-12	1.21945E+0	-26.7987E-3
-1.43822E-3	-28.4846E-12	1.16661E+0	-10.2635E-3	-28.5868E-12	1.21930E+0	-23.3051E-3
-1.44322E-3	-28.8830E-12	1.15784E+0	-9.03676E-3	-29.0575E-12	1.22473E+0	-6.86762E-3
-1.44822E-3	-29.4922E-12	1.17078E+0	-34.7904E-3	-29.2977E-12	1.22122E+0	6.44580E-3
-1.45323E-3	-29.7396E-12	1.18795E+0	-44.5537E-3	-29.7729E-12	1.21157E+0	7.01277E-3
-1.45823E-3	-29.9893E-12	1.18617E+0	-29.2519E-3	-30.0356E-12	1.20922E+0	-8.09306E-3
-1.46323E-3	-30.5238E-12	1.18727E+0	-18.7972E-3	-30.5516E-12	1.21631E+0	-23.1654E-3
-1.46823E-3	-31.0979E-12	1.20373E+0	-12.8778E-3	-30.9220E-12	1.22240E+0	-25.6998E-3
-1.47324E-3	-31.2595E-12	1.21328E+0	-11.8139E-3	-31.4363E-12	1.20751E+0	-25.2049E-3
-1.47824E-3	-31.5705E-12	1.21031E+0	-13.8845E-3	-31.6697E-12	1.19383E+0	-20.1018E-3
-1.48324E-3	-32.0110E-12	1.20583E+0	-3.66486E-3	-32.1111E-12	1.21059E+0	-9.51624E-3
-1.48824E-3	-32.4318E-12	1.19875E+0	5.23703E-3	-32.6580E-12	1.23030E+0	-7.02076E-3
-1.49325E-3	-32.7247E-12	1.19695E+0	-5.35549E-3	-33.1162E-12	1.22044E+0	-14.7959E-3
-1.49825E-3	-32.9308E-12	1.20053E+0	-14.1336E-3	-33.4743E-12	1.20293E+0	-24.2842E-3
-1.50325E-3	-33.2840E-12	1.19105E+0	-14.2078E-3	-33.7601E-12	1.20264E+0	-26.9122E-3
-1.50825E-3	-33.8818E-12	1.17716E+0	-21.2711E-3	-34.3138E-12	1.19694E+0	-24.9013E-3
-1.51326E-3	-34.2546E-12	1.18004E+0	-23.3141E-3	-34.5876E-12	1.18625E+0	-17.9148E-3
-1.51826E-3	-34.7138E-12	1.18583E+0	-14.5825E-3	-34.9401E-12	1.18812E+0	-7.73986E-3
-1.52326E-3	-35.1102E-12	1.18584E+0	-16.8941E-3	-35.3130E-12	1.18722E+0	-10.4506E-3
-1.52826E-3	-35.5355E-12	1.18811E+0	-21.0136E-3	-35.6657E-12	1.18294E+0	-19.6176E-3
-1.53327E-3	-35.9947E-12	1.18456E+0	-10.4433E-3	-36.0153E-12	1.18032E+0	-19.9543E-3
-1.53827E-3	-36.4144E-12	1.18445E+0	-8.72323E-3	-36.1729E-12	1.17050E+0	-15.8890E-3
-1.54327E-3	-36.7661E-12	1.19938E+0	-16.0723E-3	-36.4878E-12	1.16217E+0	-9.51555E-3
-1.54827E-3	-37.1818E-12	1.20360E+0	-15.3160E-3	-36.8682E-12	1.15483E+0	-3.01489E-3
-1.55328E-3	-37.5681E-12	1.19070E+0	-20.9817E-3	-37.1348E-12	1.14541E+0	-1.78830E-3
-1.55828E-3	-37.9838E-12	1.19023E+0	-24.1698E-3	-37.3738E-12	1.13893E+0	1.26049E-3
-1.56328E-3	-38.3792E-12	1.19832E+0	-20.1022E-3	-37.9605E-12	1.13945E+0	-1.54482E-3
-1.56828E-3	-38.8126E-12	1.19441E+0	-23.3541E-3	-38.3881E-12	1.14790E+0	-16.6298E-3
-1.57329E-3	-38.9334E-12	1.19121E+0	-22.2295E-3	-38.5525E-12	1.14701E+0	-28.6216E-3
-1.57829E-3	-39.3883E-12	1.18519E+0	-14.9110E-3	-39.1059E-12	1.14636E+0	-27.1666E-3
-1.58329E-3	-39.7965E-12	1.16144E+0	-17.7232E-3	-39.3981E-12	1.15269E+0	-19.5106E-3
-1.58829E-3	-40.1540E-12	1.13841E+0	-31.5911E-3	-40.0211E-12	1.13762E+0	-10.6551E-3
-1.59330E-3	-40.5763E-12	1.12483E+0	-42.7718E-3	-40.1914E-12	1.12020E+0	-7.63594E-3
-1.59830E-3	-41.0120E-12	1.11634E+0	-43.0320E-3	-40.7235E-12	1.12331E+0	-26.3958E-3
-1.60330E-3	-41.3570E-12	1.12005E+0	-37.4157E-3	-41.1380E-12	1.12599E+0	-42.3879E-3
-1.60830E-3	-41.9707E-12	1.12874E+0	-26.5602E-3	-41.7866E-12	1.12520E+0	-28.2324E-3
-1.61331E-3	-42.4628E-12	1.13614E+0	-12.1348E-3	-42.1427E-12	1.11685E+0	-9.56018E-3
-1.61831E-3	-42.8132E-12	1.14244E+0	-10.8109E-3	-42.5786E-12	1.10027E+0	-13.1326E-3
-1.62331E-3	-43.4233E-12	1.13754E+0	-14.5042E-3	-43.1389E-12	1.08356E+0	-26.1780E-3
-1.62831E-3	-43.7432E-12	1.12118E+0	-11.5821E-3	-43.6963E-12	1.07116E+0	-37.2731E-3
-1.63332E-3	-44.1787E-12	1.11642E+0	-14.0534E-3	-44.1249E-12	1.06593E+0	-32.7622E-3
-1.63832E-3	-44.3249E-12	1.12585E+0	-23.4066E-3	-44.6129E-12	1.06291E+0	-4.78427E-3
-1.64332E-3	-44.8643E-12	1.11412E+0	-30.4462E-3	-45.1439E-12	1.07089E+0	12.7865E-3
-1.64832E-3	-44.9311E-12	1.08877E+0	-27.0990E-3	-45.3673E-12	1.07567E+0	5.86275E-3
-1.65333E-3	-45.1170E-12	1.08047E+0	-17.6983E-3	-45.7784E-12	1.06701E+0	1.19062E-3
-1.65833E-3	-45.4259E-12	1.07979E+0	-12.4412E-3	-45.9803E-12	1.06634E+0	-3.77238E-3
-1.66333E-3	-45.9273E-12	1.07545E+0	-15.2543E-3	-46.3874E-12	1.06430E+0	-19.0246E-3
-1.66833E-3	-46.0784E-12	1.08246E+0	-20.7276E-3	-46.6077E-12	1.05586E+0	-24.8271E-3
-1.67334E-3	-46.2445E-12	1.08903E+0	-20.9683E-3	-46.7263E-12	1.05601E+0	-19.8377E-3
-1.67834E-3	-46.6053E-12	1.06726E+0	-12.9975E-3	-47.1529E-12	1.05088E+0	-26.5301E-3
-1.68334E-3	-47.0200E-12	1.05017E+0	-1.85318E-3	-47.4962E-12	1.03479E+0	-29.3939E-3
-1.68834E-3	-47.4634E-12	1.05025E+0	-12.3953E-3	-47.6029E-12	1.03302E+0	-19.2006E-3
-1.69335E-3	-47.7036E-12	1.03549E+0	-36.4428E-3	-48.0606E-12	1.03902E+0	-26.4759E-3
-1.69835E-3	-48.2463E-12	1.02340E+0	-42.6830E-3	-48.4398E-12	1.03345E+0	-31.7098E-3
-1.70335E-3	-48.8293E-12	1.02723E+0	-27.3824E-3	-48.8960E-12	1.03396E+0	-10.6223E-3
-1.70835E-3	-48.9936E-12	1.02739E+0	-12.3842E-3	-49.4116E-12	1.02792E+0	5.36172E-3
-1.71336E-3	-49.3451E-12	1.03202E+0	-8.51358E-3	-49.8103E-12	1.00319E+0	-3.90178E-3
-1.71836E-3	-49.8601E-12	1.03553E+0	-829.730E-6	-50.1505E-12	993.541E-3	-22.8412E-3
-1.72336E-3	-50.2739E-12	1.01447E+0	2.17875E-3	-50.5112E-12	998.446E-3	-26.5192E-3
-1.72836E-3	-50.3088E-12	997.577E-3	-3.43990E-3	-50.8938E-12	992.897E-3	-13.1217E-3
-1.73337E-3	-50.4766E-12	1.00451E+0	-4.27218E-3	-50.9880E-12	976.599E-3	-12.8294E-3
-1.73837E-3	-50.8865E-12	1.00762E+0	281.390E-6	-51.3765E-12	962.083E-3	-23.2318E-3
-1.74337E-3	-51.2060E-12	998.157E-3	-4.10338E-3	-51.4559E-12	950.783E-3	-15.9844E-3
-1.74837E-3	-51.0612E-12	988.400E-3	-18.7130E-3	-51.5766E-12	948.663E-3	-5.19127E-3
-1.75338E-3	-51.2139E-12	983.544E-3	-29.4275E-3	-51.6445E-12	962.122E-3	-9.12012E-3
-1.75838E-3	-51.5692E-12	970.881E-3	-33.2307E-3	-51.7299E-12	963.851E-3	-21.2921E-3
-1.76338E-3	-52.0401E-12	951.659E-3	-33.3954E-3	-51.9150E-12	947.373E-3	-30.0035E-3
-1.76838E-3	-52.2599E-12	941.277E-3	-30.9832E-3	-51.8928E-12	937.458E-3	-32.6983E-3
-1.77339E-3	-52.5778E-12	941.423E-3	-32.5295E-3	-52.0072E-12	922.716E-3	-30.7906E-3
-1.77839E-3	-53.1392E-12	950.932E-3	-27.7717E-3	-52.3063E-12	910.479E-3	-27.2513E-3
-1.78339E-3	-53.7285E-12	959.871E-3	-13.5752E-3	-52.7642E-12	924.750E-3	-24.4559E-3
-1.78839E-3	-54.3182E-12	960.645E-3	-10.3640E-3	-52.8618E-12	929.805E-3	-24.6124E-3
-1.79340E-3	-54.7301E-12	959.861E-3	-16.0753E-3	-53.2029E-12	918.809E-3	-23.0939E-3
-1.79840E-3	-55.1186E-12	950.114E-3	-18.9317E-3	-53.5619E-12	915.843E-3	-22.4549E-3
-1.80340E-3	-55.6346E-12	933.494E-3	-19.7702E-3	-54.0760E-12	917.438E-3	-24.4368E-3
-1.80840E-3	-56.0260E-12	937.243E-3	-20.8295E-3	-54.6399E-12	918.325E-3	-14.1903E-3
-1.81341E-3	-56.2809E-12	940.483E-3	-15.6925E-3	-55.2225E-12	923.262E-3	-13.1091E-3
-1.81841E-3	-56.4310E-12	927.840E-3	-4.86190E-3	-55.6635E-12	919.941E-3	-28.6195E-3
-1.82341E-3	-56.8269E-12	933.598E-3	4.84279E-3	-55.9250E-12	900.788E-3	-35.5007E-3
-1.82841E-3	-56.9843E-12	943.719E-3	1.15578E-3	-56.6507E-12	901.860E-3	-34.7051E-3
-1.83342E-3	-57.2503E-12	932.054E-3	-18.3434E-3	-57.1424E-12	913.380E-3	-29.0886E-3
-1.83842E-3	-57.4654E-12	917.723E-3	-31.4379E-3	-57.7255E-12	901.825E-3	-16.5977E-3
-1.84342E-3	-57.8090E-12	907.569E-3	-23.6983E-3	-58.0081E-12	894.301E-3	-12.7078E-3
-1.84842E-3	-57.9426E-12	892.645E-3	-5.56651E-3	-58.2073E-12	899.055E-3	-17.2833E-3
-1.85343E-3	-58.0801E-12	888.031E-3	4.26184E-3	-58.6491E-12	894.070E-3	-9.74779E-3
-1.85843E-3	-58.4164E-12	894.931E-3	6.69658E-3	-59.0356E-12	878.979E-3	-6.10787E-3
-1.86343E-3	-58.9090E-12	887.533E-3	3.68154E-3	-59.3920E-12	871.323E-3	-6.87587E-3
-1.86843E-3	-59.0381E-12	880.975E-3	-2.45959E-3	-59.4270E-12	874.152E-3	2.55556E-3
-1.87344E-3	-59.3677E-12	883.010E-3	1.26006E-3	-59.6083E-12	879.656E-3	-3.56560E-3
-1.87844E-3	-59.7512E-12	865.307E-3	3.34341E-3	-60.0600E-12	876.517E-3	-19.6590E-3
-1.88344E-3	-60.0983E-12	857.759E-3	-7.34966E-3	-60.5044E-12	859.239E-3	-14.3761E-3
-1.88844E-3	-60.4298E-12	884.160E-3	-9.37653E-3	-60.5078E-12	856.784E-3	-5.72123E-3
-1.89345E-3	-60.7492E-12	888.451E-3	1.86794E-3	-60.6537E-12	864.223E-3	-6.39576E-3
-1.89845E-3	-60.9985E-12	863.191E-3	5.28666E-3	-61.2340E-12	864.862E-3	-4.06267E-3
-1.90345E-3	-61.0778E-12	854.340E-3	-2.61952E-3	-61.5973E-12	873.504E-3	-5.84586E-3
-1.90845E-3	-61.3464E-12	851.482E-3	-18.2848E-3	-61.8890E-12	867.170E-3	-14.9363E-3
-1.91346E-3	-61.4771E-12	847.030E-3	-30.6337E-3	-61.9498E-12	846.375E-3	-20.5345E-3
-1.91846E-3	-61.7696E-12	864.431E-3	-25.3651E-3	-62.4686E-12	847.332E-3	-16.3518E-3
-1.92346E-3	-61.6874E-12	876.310E-3	-19.4265E-3	-62.4515E-12	857.411E-3	-26.3182E-3
-1.92846E-3	-61.7546E-12	855.538E-3	-27.0138E-3	-62.9950E-12	844.173E-3	-44.2261E-3
-1.93347E-3	-62.1681E-12	841.817E-3	-25.3601E-3	-63.1353E-12	833.086E-3	-30.1950E-3
-1.93847E-3	-62.3775E-12	858.011E-3	-1.64034E-3	-63.3458E-12	844.809E-3	-1.58472E-3
-1.94347E-3	-62.7167E-12	871.505E-3	12.9153E-3	-63.2773E-12	841.991E-3	4.41691E-3
-1.94847E-3	-62.8471E-12	863.131E-3	-7.93999E-3	-63.6392E-12	826.692E-3	9.01442E-3
-1.95348E-3	-63.2630E-12	848.610E-3	-30.2119E-3	-64.1289E-12	819.465E-3	21.2126E-3
-1.95848E-3	-63.6228E-12	841.204E-3	-25.0531E-3	-64.2679E-12	819.190E-3	14.3534E-3
-1.96348E-3	-63.9442E-12	844.739E-3	-15.7150E-3	-64.3239E-12	819.088E-3	-4.98696E-3
-1.96848E-3	-64.2324E-12	850.854E-3	-14.5305E-3	-64.2880E-12	821.375E-3	-17.7384E-3
-1.97349E-3	-64.8086E-12	839.056E-3	-16.1972E-3	-64.6514E-12	829.444E-3	-28.8716E-3
-1.97849E-3	-65.0052E-12	825.758E-3	-17.3233E-3	-64.8891E-12	822.050E-3	-33.8216E-3
-1.98349E-3	-65.2260E-12	821.776E-3	-9.09494E-3	-64.9412E-12	803.619E-3	-32.3707E-3
-1.98849E-3	-65.5963E-12	819.562E-3	-8.69467E-3	-65.1848E-12	795.599E-3	-30.0027E-3
-1.99350E-3	-65.9665E-12	828.935E-3	-21.1956E-3	-65.4148E-12	795.788E-3	-18.8036E-3
-1.99850E-3	-66.1724E-12	826.388E-3	-29.1875E-3	-65.6831E-12	798.660E-3	-9.67818E-3
-2.00350E-3	-66.5639E-12	804.475E-3	-40.2811E-3	-65.6521E-12	802.274E-3	-15.2236E-3
-2.00850E-3	-66.8322E-12	794.671E-3	-47.1704E-3	-65.9972E-12	796.573E-3	-18.1379E-3
-2.01351E-3	-67.2456E-12	788.190E-3	-38.3405E-3	-65.9640E-12	793.466E-3	-16.2475E-3
-2.01851E-3	-67.6665E-12	779.270E-3	-28.1498E-3	-66.2520E-12	792.487E-3	-21.9480E-3
-2.02351E-3	-68.1073E-12	799.589E-3	-27.5052E-3	-66.3595E-12	786.786E-3	-21.0476E-3
-2.02851E-3	-68.3367E-12	823.280E-3	-19.9207E-3	-67.0187E-12	806.139E-3	-13.6430E-3
-2.03352E-3	-68.8103E-12	812.047E-3	-3.18986E-3	-67.6389E-12	832.690E-3	-8.46665E-3
-2.03852E-3	-69.1084E-12	812.109E-3	8.16492E-3	-68.2800E-12	837.678E-3	-8.15643E-3
-2.04352E-3	-69.5602E-12	831.060E-3	9.83940E-3	-68.6349E-12	828.712E-3	-8.64250E-3
-2.04852E-3	-69.6568E-12	822.345E-3	36.1415E-6	-69.4236E-12	820.624E-3	-15.2071E-3
-2.05353E-3	-69.7928E-12	806.422E-3	-9.14909E-3	-69.9785E-12	824.577E-3	-21.4274E-3
-2.05853E-3	-70.1159E-12	810.829E-3	-2.98449E-3	-70.4431E-12	825.283E-3	-1.45341E-3
-2.06353E-3	-70.2999E-12	812.917E-3	-2.65797E-3	-70.6638E-12	813.976E-3	5.61380E-3
-2.06853E-3	-70.1413E-12	814.150E-3	-24.5589E-3	-71.1624E-12	790.123E-3	-21.8098E-3
-2.07354E-3	-70.0588E-12	826.380E-3	-32.7194E-3	-71.4582E-12	772.989E-3	-33.7687E-3
-2.07854E-3	-70.1613E-12	822.118E-3	-16.1654E-3	-71.6806E-12	784.731E-3	-27.4657E-3
-2.08354E-3	-70.5259E-12	797.047E-3	-18.3554E-3	-71.5598E-12	789.478E-3	-25.1925E-3
-2.08854E-3	-70.7462E-12	781.870E-3	-35.1145E-3	-71.5015E-12	784.071E-3	-13.1498E-3
-2.09355E-3	-70.6507E-12	777.283E-3	-38.2573E-3	-71.6977E-12	787.834E-3	-8.21893E-3
-2.09855E-3	-70.9854E-12	767.152E-3	-39.9643E-3	-71.5945E-12	780.274E-3	-24.3903E-3
-2.10355E-3	-71.4858E-12	766.565E-3	-32.0004E-3	-71.7414E-12	774.680E-3	-23.1022E-3
-2.10855E-3	-71.8088E-12	778.634E-3	-19.2895E-3	-71.6178E-12	784.346E-3	-4.17041E-3
-2.11356E-3	-72.1381E-12	775.575E-3	-25.9517E-3	-71.9312E-12	782.944E-3	-2.99093E-3
-2.11856E-3	-72.5710E-12	763.474E-3	-37.1938E-3	-72.1884E-12	773.648E-3	-5.96115E-3
-2.12356E-3	-73.0431E-12	776.035E-3	-34.2428E-3	-72.6925E-12	785.176E-3	3.61687E-3
-2.12856E-3	-73.5409E-12	795.783E-3	-27.2940E-3	-72.6655E-12	798.444E-3	-6.14743E-3
-2.13357E-3	-74.0295E-12	795.918E-3	-30.1340E-3	-73.2095E-12	792.421E-3	-36.3712E-3
-2.13857E-3	-74.3307E-12	782.569E-3	-33.0177E-3	-73.5772E-12	780.489E-3	-43.1273E-3
-2.14357E-3	-74.2756E-12	774.581E-3	-26.0093E-3	-73.9652E-12	765.905E-3	-35.0134E-3
-2.14857E-3	-74.2176E-12	781.810E-3	-20.7583E-3	-74.2640E-12	760.610E-3	-33.6558E-3
-2.15358E-3	-74.7490E-12	782.874E-3	-13.7486E-3	-74.7789E-12	776.878E-3	-32.8788E-3
-2.15858E-3	-74.4828E-12	772.143E-3	-14.3368E-3	-75.2056E-12	781.985E-3	-27.2919E-3
-2.16358E-3	-74.2311E-12	775.892E-3	-28.2493E-3	-75.6244E-12	766.977E-3	-6.31688E-3
-2.16858E-3	-74.4745E-12	789.955E-3	-24.0782E-3	-75.8655E-12	754.723E-3	10.9864E-3
-2.17359E-3	-74.6709E-12	781.781E-3	-5.27536E-3	-76.0704E-12	745.791E-3	-2.46524E-3
-2.17859E-3	-74.3264E-12	760.775E-3	-6.05383E-3	-75.9543E-12	743.985E-3	-26.2705E-3
-2.18359E-3	-74.6655E-12	759.927E-3	-18.0736E-3	-75.9034E-12	752.711E-3	-27.1629E-3
-2.18859E-3	-75.2269E-12	760.973E-3	-21.8068E-3	-76.0349E-12	755.079E-3	-15.3656E-3
-2.19360E-3	-75.6092E-12	755.111E-3	-14.9790E-3	-76.1015E-12	751.128E-3	-13.2960E-3
-2.19860E-3	-75.9226E-12	754.339E-3	-5.66568E-3	-76.0079E-12	761.971E-3	-16.5281E-3
-2.20360E-3	-76.2749E-12	748.670E-3	-11.0930E-3	-76.1743E-12	777.445E-3	-11.1577E-3
-2.20860E-3	-76.7960E-12	748.006E-3	-11.0160E-3	-76.9146E-12	774.198E-3	23.7080E-6
-2.21361E-3	-77.4102E-12	754.863E-3	5.53305E-3	-77.1671E-12	757.284E-3	7.46154E-3
-2.21861E-3	-77.6690E-12	754.899E-3	9.28723E-3	-77.5310E-12	750.758E-3	6.21085E-3
-2.22361E-3	-78.5274E-12	757.893E-3	-6.46730E-3	-77.9096E-12	758.165E-3	-8.40867E-3
-2.22861E-3	-79.1766E-12	765.730E-3	-22.0132E-3	-78.4960E-12	769.126E-3	-17.8568E-3
-2.23362E-3	-79.6192E-12	762.162E-3	-27.2578E-3	-78.8146E-12	783.887E-3	-12.7449E-3
-2.23862E-3	-79.9102E-12	765.269E-3	-26.2376E-3	-79.0339E-12	782.167E-3	-13.5987E-3
-2.24362E-3	-80.2966E-12	775.344E-3	-27.7118E-3	-79.2608E-12	760.250E-3	-11.0850E-3
-2.24862E-3	-80.3459E-12	764.921E-3	-18.3598E-3	-79.7499E-12	759.545E-3	-5.57865E-3
-2.25363E-3	-80.2038E-12	756.670E-3	-2.49539E-3	-80.2281E-12	777.755E-3	-15.6675E-3
-2.25863E-3	-80.2181E-12	762.967E-3	836.548E-6	-80.5087E-12	773.042E-3	-16.8008E-3
-2.26363E-3	-80.1194E-12	763.312E-3	-5.46656E-3	-80.7040E-12	761.288E-3	-10.7964E-3
-2.26863E-3	-80.1185E-12	749.066E-3	-25.9509E-3	-81.0301E-12	759.755E-3	-22.6173E-3
-2.27364E-3	-80.2214E-12	740.058E-3	-26.7907E-3	-81.2421E-12	756.478E-3	-30.4555E-3
-2.27864E-3	-80.3233E-12	742.549E-3	-7.41629E-3	-81.6892E-12	759.062E-3	-14.3079E-3
-2.28364E-3	-80.6764E-12	743.250E-3	-1.09717E-3	-81.5655E-12	759.717E-3	-506.391E-6
-2.28864E-3	-80.9404E-12	750.164E-3	4.79831E-3	-82.2886E-12	742.575E-3	-7.83761E-3
-2.29365E-3	-81.4740E-12	749.809E-3	10.8051E-3	-82.4740E-12	725.829E-3	-21.4037E-3
-2.29865E-3	-81.6236E-12	732.438E-3	8.54355E-3	-83.1990E-12	723.102E-3	-26.0982E-3
-2.30365E-3	-81.9625E-12	719.882E-3	-5.21021E-3	-82.9100E-12	723.522E-3	-22.8828E-3
-2.30865E-3	-82.2384E-12	727.337E-3	-11.2820E-3	-83.1519E-12	727.364E-3	-17.7243E-3
-2.31366E-3	-82.9615E-12	732.444E-3	-5.06183E-3	-83.2793E-12	735.952E-3	-11.9553E-3
-2.31866E-3	-83.3605E-12	721.075E-3	-12.2591E-3	-83.7590E-12	745.279E-3	-10.0059E-3
-2.32366E-3	-83.2819E-12	724.361E-3	-20.3165E-3	-83.6379E-12	759.454E-3	-19.8064E-3
-2.32866E-3	-83.3792E-12	738.890E-3	-9.57425E-3	-83.6590E-12	769.140E-3	-32.9803E-3
-2.33367E-3	-84.1766E-12	741.445E-3	-3.17800E-3	-83.6558E-12	759.336E-3	-23.5796E-3
-2.33867E-3	-84.5966E-12	742.746E-3	-8.56131E-3	-84.1851E-12	740.583E-3	-1.72368E-3
-2.34367E-3	-84.0795E-12	749.321E-3	-7.58416E-3	-84.0707E-12	734.025E-3	-5.96626E-3
-2.34867E-3	-84.1398E-12	749.350E-3	-1.80025E-3	-83.8921E-12	731.062E-3	-26.8112E-3
-2.35368E-3	-84.4008E-12	736.465E-3	-3.69544E-3	-83.8606E-12	715.935E-3	-24.9316E-3
-2.35868E-3	-84.6448E-12	720.336E-3	-13.5611E-3	-84.1748E-12	702.618E-3	-8.59542E-3
-2.36368E-3	-84.3552E-12	710.673E-3	-28.0034E-3	-84.6569E-12	703.429E-3	-4.05769E-3
-2.36868E-3	-84.6611E-12	713.163E-3	-41.6147E-3	-84.4574E-12	712.952E-3	-5.44003E-3
-2.37369E-3	-85.1052E-12	716.452E-3	-41.6961E-3	-84.6142E-12	727.430E-3	-12.9957E-3
-2.37869E-3	-85.5572E-12	715.798E-3	-24.6931E-3	-84.9507E-12	732.247E-3	-25.2764E-3
-2.38369E-3	-85.7799E-12	718.093E-3	-19.3449E-3	-85.7322E-12	730.955E-3	-19.3129E-3
-2.38869E-3	-85.8828E-12	720.673E-3	-38.4149E-3	-86.2317E-12	739.975E-3	-8.24205E-3
-2.39370E-3	-86.2595E-12	731.131E-3	-41.2258E-3	-86.2518E-12	742.928E-3	-29.9711E-3
-2.39870E-3	-86.4072E-12	751.401E-3	-27.8184E-3	-86.5089E-12	733.458E-3	-47.7132E-3
-2.40370E-3	-86.9246E-12	749.065E-3	-20.4664E-3	-87.2419E-12	726.247E-3	-26.6022E-3
-2.40870E-3	-87.0730E-12	728.150E-3	-20.1707E-3	-87.1493E-12	718.863E-3	-17.8622E-3
-2.41371E-3	-86.8928E-12	723.051E-3	-34.8873E-3	-86.6379E-12	728.023E-3	-20.4803E-3
-2.41871E-3	-87.3062E-12	721.609E-3	-31.9238E-3	-87.0398E-12	748.952E-3	-2.54961E-3
-2.42371E-3	-87.7708E-12	719.572E-3	-700.213E-6	-87.1586E-12	747.591E-3	1.51134E-3
-2.42871E-3	-87.9844E-12	739.494E-3	8.78543E-3	-87.7945E-12	737.334E-3	-16.1187E-3
-2.43372E-3	-88.1360E-12	762.498E-3	-2.68058E-3	-87.5065E-12	728.341E-3	-23.1160E-3
-2.43872E-3	-88.6055E-12	756.358E-3	-10.1388E-3	-87.5089E-12	706.419E-3	-18.2740E-3
-2.44372E-3	-89.1515E-12	737.589E-3	-14.3603E-3	-88.0282E-12	682.214E-3	-8.67323E-3
-2.44872E-3	-89.4124E-12	732.178E-3	-10.6281E-3	-88.5502E-12	682.584E-3	-6.51753E-3
-2.45373E-3	-89.6793E-12	735.107E-3	-15.4205E-3	-88.8738E-12	701.820E-3	-22.9569E-3
-2.45873E-3	-90.2537E-12	732.453E-3	-26.3946E-3	-89.5201E-12	723.564E-3	-28.8582E-3
-2.46373E-3	-90.6149E-12	733.767E-3	-23.0473E-3	-90.1981E-12	734.685E-3	-13.7263E-3
-2.46873E-3	-91.2146E-12	743.138E-3	-17.5746E-3	-91.0435E-12	738.462E-3	-15.9721E-3
-2.47374E-3	-91.3975E-12	750.460E-3	-24.7034E-3	-91.8378E-12	739.660E-3	-39.4862E-3
-2.47874E-3	-91.9176E-12	750.933E-3	-25.0941E-3	-92.3765E-12	726.613E-3	-35.7113E-3
-2.48374E-3	-91.7416E-12	734.671E-3	-12.7204E-3	-92.7001E-12	720.110E-3	-13.5053E-3
-2.48874E-3	-91.6479E-12	724.096E-3	-15.3891E-3	-93.2147E-12	733.408E-3	-11.8651E-3
-2.49375E-3	-91.9388E-12	736.637E-3	-13.2149E-3	-93.6239E-12	739.482E-3	-7.82241E-3
-2.49875E-3	-91.5712E-12	737.564E-3	4.30944E-3	-93.5484E-12	734.597E-3	-4.08107E-3
-2.50375E-3	-91.4482E-12	727.618E-3	10.7508E-3	-93.5789E-12	726.654E-3	-16.6569E-3
-2.50875E-3	-91.3150E-12	725.109E-3	-518.887E-6	-93.3279E-12	719.837E-3	-12.4361E-3
-2.51376E-3	-91.7115E-12	718.413E-3	-18.6229E-3	-93.9263E-12	723.734E-3	-1.80041E-3
-2.51876E-3	-91.9452E-12	707.763E-3	-23.9371E-3	-93.2352E-12	724.082E-3	-6.48952E-3
-2.52376E-3	-91.9961E-12	698.203E-3	-6.57167E-3	-93.2843E-12	719.412E-3	-18.6306E-3
-2.52876E-3	-91.9735E-12	691.813E-3	8.11088E-3	-93.4881E-12	722.550E-3	-32.2549E-3
-2.53377E-3	-92.6089E-12	691.814E-3	-11.7487E-3	-93.9659E-12	719.473E-3	-27.2291E-3
-2.53877E-3	-93.0588E-12	695.287E-3	-26.4585E-3	-93.7476E-12	705.770E-3	-14.3445E-3
-2.54377E-3	-93.1332E-12	699.632E-3	-15.6898E-3	-93.8023E-12	699.141E-3	-15.2408E-3
-2.54877E-3	-93.4173E-12	699.220E-3	-22.6631E-3	-94.1998E-12	701.255E-3	-23.0066E-3
-2.55378E-3	-94.4107E-12	691.604E-3	-43.9470E-3	-94.7965E-12	695.825E-3	-28.3745E-3
-2.55878E-3	-94.5461E-12	693.732E-3	-52.5553E-3	-95.2323E-12	697.683E-3	-28.1611E-3
-2.56378E-3	-95.1909E-12	706.258E-3	-50.3499E-3	-95.3118E-12	711.104E-3	-27.5019E-3
-2.56878E-3	-95.4255E-12	718.373E-3	-41.7428E-3	-95.6151E-12	706.510E-3	-29.5109E-3
-2.57379E-3	-95.4514E-12	726.782E-3	-26.9936E-3	-95.7385E-12	704.201E-3	-25.6460E-3
-2.57879E-3	-95.3937E-12	721.234E-3	-16.8569E-3	-96.0262E-12	720.334E-3	-20.1132E-3
-2.58379E-3	-95.4560E-12	708.873E-3	-15.1853E-3	-96.1038E-12	721.861E-3	-14.2808E-3
-2.58879E-3	-95.7753E-12	712.206E-3	-7.19736E-3	-95.6927E-12	712.647E-3	-11.6064E-3
-2.59380E-3	-95.7586E-12	713.663E-3	-273.760E-6	-95.6006E-12	708.843E-3	-26.1155E-3
-2.59880E-3	-95.5371E-12	698.397E-3	-3.94921E-3	-95.3729E-12	705.962E-3	-28.6763E-3
-2.60380E-3	-95.7912E-12	684.463E-3	-9.18283E-3	-95.3962E-12	717.919E-3	-20.7181E-3
-2.60880E-3	-96.2667E-12	684.217E-3	-18.9633E-3	-94.7836E-12	725.412E-3	-40.5372E-3
-2.61381E-3	-96.2452E-12	696.939E-3	-31.1608E-3	-94.8518E-12	703.252E-3	-48.2166E-3
-2.61881E-3	-96.6728E-12	705.906E-3	-34.1685E-3	-94.6657E-12	687.583E-3	-21.9206E-3
-2.62381E-3	-97.1790E-12	701.996E-3	-31.1857E-3	-95.2297E-12	693.343E-3	-14.6838E-3
-2.62881E-3	-97.7243E-12	703.871E-3	-25.7872E-3	-95.5491E-12	700.647E-3	-25.1626E-3
-2.63382E-3	-98.1268E-12	715.626E-3	-13.1820E-3	-96.1929E-12	708.913E-3	-21.8145E-3
-2.63882E-3	-98.4809E-12	707.090E-3	-10.7249E-3	-96.7591E-12	713.039E-3	-14.5917E-3
-2.64382E-3	-99.0774E-12	693.719E-3	-26.0285E-3	-97.3617E-12	709.152E-3	-15.0338E-3
-2.64882E-3	-99.6997E-12	698.373E-3	-39.9121E-3	-98.3200E-12	693.531E-3	-11.3320E-3
-2.65383E-3	-100.019E-12	695.188E-3	-26.6459E-3	-98.8335E-12	683.464E-3	-5.44845E-3
-2.65883E-3	-100.184E-12	693.062E-3	-15.6027E-3	-99.2615E-12	697.524E-3	-9.28012E-3
-2.66383E-3	-99.9869E-12	708.202E-3	-38.7822E-3	-99.4930E-12	708.752E-3	-494.891E-6
-2.66883E-3	-100.316E-12	712.417E-3	-38.3733E-3	-100.029E-12	711.629E-3	10.3232E-3
-2.67384E-3	-100.578E-12	709.330E-3	-18.3799E-3	-100.482E-12	713.235E-3	-5.47043E-3
-2.67884E-3	-100.613E-12	728.436E-3	-24.6290E-3	-100.667E-12	713.286E-3	-16.1539E-3
-2.68384E-3	-100.320E-12	745.816E-3	-25.0881E-3	-100.921E-12	727.229E-3	-8.92480E-3
-2.68884E-3	-100.524E-12	727.292E-3	-17.8085E-3	-101.181E-12	725.967E-3	-17.5904E-3
-2.69385E-3	-101.116E-12	704.564E-3	-21.8393E-3	-101.538E-12	693.891E-3	-27.0928E-3
-2.69885E-3	-101.608E-12	703.671E-3	-18.0758E-3	-101.609E-12	687.551E-3	-19.9816E-3
-2.70385E-3	-101.192E-12	703.529E-3	-11.2662E-3	-101.722E-12	702.223E-3	-17.7107E-3
-2.70885E-3	-101.521E-12	711.109E-3	-17.9389E-3	-101.880E-12	691.020E-3	-29.4144E-3
-2.71386E-3	-102.017E-12	713.059E-3	-21.5662E-3	-102.478E-12	676.092E-3	-24.7388E-3
-2.71886E-3	-102.368E-12	689.985E-3	-20.6220E-3	-102.421E-12	684.257E-3	-1.71283E-3
-2.72386E-3	-102.036E-12	684.432E-3	-25.4508E-3	-102.952E-12	695.516E-3	444.161E-6
-2.72886E-3	-102.382E-12	698.982E-3	-30.5259E-3	-103.519E-12	708.545E-3	-8.19887E-3
-2.73387E-3	-102.999E-12	694.846E-3	-34.0126E-3	-103.971E-12	729.852E-3	-14.1458E-3
-2.73887E-3	-103.175E-12	687.495E-3	-42.7480E-3	-104.267E-12	720.629E-3	-22.6733E-3
-2.74387E-3	-102.984E-12	698.280E-3	-43.9109E-3	-104.348E-12	691.338E-3	-22.1080E-3
-2.74887E-3	-103.369E-12	701.223E-3	-29.8152E-3	-104.526E-12	685.136E-3	-23.9750E-3
-2.75388E-3	-103.811E-12	689.307E-3	-18.8525E-3	-104.902E-12	689.219E-3	-24.9839E-3
-2.75888E-3	-103.652E-12	690.343E-3	-19.1019E-3	-105.146E-12	704.146E-3	-8.96153E-3
-2.76388E-3	-103.498E-12	694.871E-3	-30.2333E-3	-105.262E-12	737.169E-3	-2.24765E-3
-2.76888E-3	-103.619E-12	697.328E-3	-42.0928E-3	-105.394E-12	735.236E-3	-22.8999E-3
-2.77389E-3	-103.814E-12	703.766E-3	-30.4692E-3	-105.431E-12	697.025E-3	-35.4440E-3
-2.77889E-3	-103.884E-12	693.468E-3	-16.3159E-3	-105.550E-12	689.265E-3	-14.4467E-3
-2.78389E-3	-104.352E-12	678.865E-3	-22.0525E-3	-105.805E-12	701.874E-3	2.96418E-3
-2.78889E-3	-104.835E-12	684.208E-3	-14.1259E-3	-106.064E-12	699.882E-3	6.84526E-3
-2.79390E-3	-105.128E-12	689.949E-3	-4.60609E-3	-106.164E-12	700.336E-3	-663.591E-6
-2.79890E-3	-105.560E-12	686.938E-3	-17.9381E-3	-105.984E-12	708.089E-3	-31.0619E-3
-2.80390E-3	-106.162E-12	687.834E-3	-20.7574E-3	-106.130E-12	696.778E-3	-43.9044E-3
-2.80890E-3	-106.646E-12	695.843E-3	-3.04040E-3	-106.444E-12	682.479E-3	-28.3628E-3
-2.81391E-3	-106.742E-12	690.082E-3	10.7140E-3	-106.456E-12	682.396E-3	-3.98232E-3
-2.81891E-3	-106.535E-12	681.978E-3	3.99366E-3	-106.619E-12	679.272E-3	22.4612E-3
-2.82391E-3	-107.128E-12	692.697E-3	-11.4021E-3	-107.098E-12	676.619E-3	17.2170E-3
-2.82891E-3	-107.450E-12	690.863E-3	-13.7388E-3	-107.267E-12	678.633E-3	-18.9344E-3
-2.83392E-3	-107.143E-12	688.421E-3	-16.5664E-3	-107.297E-12	680.441E-3	-37.7207E-3
-2.83892E-3	-107.024E-12	703.319E-3	-18.6278E-3	-107.079E-12	691.769E-3	-22.5245E-3
-2.84392E-3	-107.565E-12	703.851E-3	-15.0430E-3	-107.250E-12	709.492E-3	-22.3109E-3
-2.84892E-3	-107.811E-12	689.768E-3	-23.9105E-3	-107.468E-12	713.742E-3	-60.1723E-3
-2.85393E-3	-107.728E-12	683.584E-3	-28.0645E-3	-107.573E-12	714.469E-3	-62.8018E-3
-2.85893E-3	-108.119E-12	686.069E-3	-25.4212E-3	-107.919E-12	716.752E-3	-9.98816E-3
-2.86393E-3	-108.400E-12	689.009E-3	-32.3236E-3	-108.729E-12	714.338E-3	19.8557E-3
-2.86893E-3	-108.845E-12	688.549E-3	-30.0288E-3	-109.233E-12	699.896E-3	6.57468E-3
-2.87394E-3	-109.211E-12	700.365E-3	-20.8927E-3	-109.388E-12	683.195E-3	-17.0002E-3
-2.87894E-3	-109.673E-12	717.734E-3	-39.2763E-3	-109.992E-12	680.255E-3	-32.0586E-3
-2.88394E-3	-110.602E-12	718.310E-3	-55.7480E-3	-110.529E-12	687.990E-3	-26.3238E-3
-2.88894E-3	-110.737E-12	709.691E-3	-28.7510E-3	-111.166E-12	707.581E-3	-16.2547E-3
-2.89395E-3	-111.275E-12	693.134E-3	-10.7439E-3	-111.373E-12	713.683E-3	-19.3994E-3
-2.89895E-3	-111.544E-12	688.132E-3	-14.5901E-3	-112.072E-12	694.727E-3	-18.1727E-3
-2.90395E-3	-111.531E-12	701.610E-3	-4.73997E-3	-112.313E-12	683.746E-3	-12.8861E-3
-2.90895E-3	-111.613E-12	702.796E-3	278.486E-6	-113.016E-12	681.606E-3	-27.3611E-3
-2.91396E-3	-111.881E-12	690.415E-3	-6.60691E-3	-113.284E-12	677.210E-3	-34.5726E-3
-2.91896E-3	-112.404E-12	674.358E-3	-9.97092E-3	-113.727E-12	678.572E-3	-17.5559E-3
-2.92396E-3	-111.750E-12	663.007E-3	-21.0595E-3	-113.102E-12	680.456E-3	-19.7077E-3
-2.92896E-3	-111.504E-12	674.496E-3	-22.2878E-3	-112.777E-12	667.691E-3	-35.9688E-3
-2.93397E-3	-111.515E-12	696.166E-3	-5.17670E-3	-112.668E-12	652.024E-3	-44.7886E-3
-2.93897E-3	-112.112E-12	701.059E-3	-11.2584E-3	-112.191E-12	642.084E-3	-44.4415E-3
-2.94397E-3	-112.086E-12	698.374E-3	-27.9897E-3	-111.493E-12	638.645E-3	-25.5178E-3
-2.94897E-3	-112.438E-12	704.463E-3	-23.0797E-3	-111.379E-12	662.689E-3	-14.0337E-3
-2.95398E-3	-112.981E-12	711.509E-3	-13.1557E-3	-111.726E-12	684.770E-3	-25.2744E-3
-2.95898E-3	-113.813E-12	703.050E-3	-10.9235E-3	-111.985E-12	675.671E-3	-23.5959E-3
-2.96398E-3	-114.221E-12	682.575E-3	-10.0083E-3	-112.478E-12	680.847E-3	-777.283E-6
-2.96898E-3	-114.530E-12	664.755E-3	-20.5183E-3	-112.414E-12	699.585E-3	5.09207E-3
-2.97399E-3	-114.425E-12	657.849E-3	-32.9105E-3	-112.922E-12	694.153E-3	-13.9399E-3
-2.97899E-3	-114.852E-12	660.061E-3	-14.3063E-3	-113.592E-12	687.372E-3	-32.3797E-3
-2.98399E-3	-115.372E-12	662.557E-3	13.1425E-3	-114.501E-12	700.799E-3	-40.8354E-3
-2.98899E-3	-115.402E-12	667.925E-3	7.09882E-3	-114.653E-12	704.928E-3	-27.3552E-3
-2.99400E-3	-114.975E-12	676.062E-3	-8.15308E-3	-115.181E-12	692.383E-3	-4.83106E-3
-2.99900E-3	-115.151E-12	677.366E-3	-8.46385E-3	-116.074E-12	687.658E-3	-3.24954E-3
-3.00400E-3	-115.627E-12	682.695E-3	-6.76049E-3	-116.495E-12	676.623E-3	3.19243E-3
-3.00900E-3	-115.779E-12	691.529E-3	-10.2055E-3	-116.395E-12	661.116E-3	23.5105E-3
-3.01401E-3	-115.136E-12	684.348E-3	-19.2614E-3	-115.894E-12	676.618E-3	21.7127E-3
-3.01901E-3	-115.339E-12	666.070E-3	-11.0676E-3	-115.955E-12	691.499E-3	-1.54081E-3
-3.02401E-3	-115.791E-12	653.142E-3	7.59473E-3	-115.789E-12	670.249E-3	-17.8459E-3
-3.02901E-3	-115.898E-12	648.146E-3	2.33759E-3	-115.248E-12	646.900E-3	-33.2110E-3
-3.03402E-3	-115.353E-12	661.069E-3	-14.3518E-3	-114.676E-12	640.816E-3	-39.5527E-3
-3.03902E-3	-115.590E-12	680.286E-3	-27.0876E-3	-114.485E-12	644.587E-3	-15.6502E-3
-3.04402E-3	-116.492E-12	681.573E-3	-21.5433E-3	-114.821E-12	660.398E-3	-2.54772E-3
-3.04902E-3	-117.176E-12	689.110E-3	-6.44067E-3	-114.735E-12	675.816E-3	-6.23692E-3
-3.05403E-3	-117.697E-12	700.888E-3	-15.6800E-3	-114.896E-12	667.971E-3	-7.96644E-3
-3.05903E-3	-118.127E-12	697.452E-3	-18.9250E-3	-115.301E-12	660.736E-3	-17.7678E-3
-3.06403E-3	-118.638E-12	694.807E-3	-19.8884E-3	-116.269E-12	671.819E-3	-26.0484E-3
-3.06903E-3	-119.054E-12	699.993E-3	-34.6425E-3	-116.861E-12	681.606E-3	-16.3438E-3
-3.07404E-3	-118.956E-12	682.371E-3	-24.3515E-3	-117.882E-12	683.321E-3	-12.5198E-3
-3.07904E-3	-119.199E-12	659.889E-3	-6.52801E-3	-119.161E-12	683.531E-3	-37.4632E-3
-3.08404E-3	-119.543E-12	668.102E-3	4.14490E-3	-120.251E-12	694.920E-3	-50.3008E-3
-3.08904E-3	-119.885E-12	672.254E-3	19.8720E-3	-120.661E-12	708.166E-3	-40.4221E-3
-3.09405E-3	-119.959E-12	675.062E-3	13.5341E-3	-121.205E-12	700.825E-3	-18.0031E-3
-3.09905E-3	-119.728E-12	690.839E-3	-13.3159E-3	-121.924E-12	690.724E-3	10.5775E-3
-3.10405E-3	-119.693E-12	693.772E-3	-20.7505E-3	-122.730E-12	691.188E-3	15.7710E-3
-3.10905E-3	-119.526E-12	680.510E-3	-18.6649E-3	-122.496E-12	687.558E-3	260.751E-6
-3.11406E-3	-119.977E-12	681.991E-3	-25.4050E-3	-122.289E-12	687.465E-3	-6.45743E-3
-3.11906E-3	-120.093E-12	697.157E-3	-19.2293E-3	-121.991E-12	704.286E-3	-8.42195E-3
-3.12406E-3	-120.149E-12	690.470E-3	-14.8517E-3	-121.971E-12	710.636E-3	-18.6564E-3
-3.12906E-3	-120.495E-12	678.493E-3	-16.0411E-3	-122.039E-12	696.152E-3	-18.6544E-3
-3.13407E-3	-121.231E-12	677.993E-3	-7.92884E-3	-121.666E-12	688.458E-3	-6.79399E-3
-3.13907E-3	-121.481E-12	670.061E-3	-10.7608E-3	-121.441E-12	696.324E-3	-749.224E-6
-3.14407E-3	-121.448E-12	673.714E-3	-23.9318E-3	-121.579E-12	700.924E-3	-8.58172E-3
-3.14907E-3	-122.000E-12	692.691E-3	-24.2337E-3	-121.888E-12	692.050E-3	-12.3700E-3
-3.15408E-3	-122.423E-12	691.760E-3	-11.3323E-3	-121.857E-12	686.630E-3	-12.0768E-3
-3.15908E-3	-123.023E-12	678.509E-3	-16.6772E-3	-121.839E-12	684.143E-3	-29.1640E-3
-3.16408E-3	-122.801E-12	681.659E-3	-27.2469E-3	-122.510E-12	685.862E-3	-37.8029E-3
-3.16908E-3	-122.880E-12	687.098E-3	-5.92977E-3	-123.095E-12	698.483E-3	-25.1162E-3
-3.17409E-3	-123.428E-12	686.312E-3	19.0446E-3	-123.570E-12	696.384E-3	-16.1617E-3
-3.17909E-3	-123.406E-12	692.250E-3	26.9147E-3	-123.274E-12	677.515E-3	-9.88823E-3
-3.18409E-3	-123.389E-12	693.315E-3	6.73133E-3	-123.795E-12	667.999E-3	-10.9275E-3
-3.18909E-3	-122.806E-12	680.967E-3	-36.1028E-3	-124.230E-12	651.540E-3	-17.9336E-3
-3.19410E-3	-123.135E-12	675.120E-3	-53.1718E-3	-124.369E-12	636.357E-3	-3.98957E-3
-3.19910E-3	-123.292E-12	691.472E-3	-41.4603E-3	-124.025E-12	650.771E-3	6.29121E-3
-3.20410E-3	-123.888E-12	705.802E-3	-23.3044E-3	-123.797E-12	674.582E-3	-3.86113E-3
-3.20910E-3	-123.691E-12	700.711E-3	-17.2949E-3	-123.939E-12	691.495E-3	-7.96999E-3
-3.21411E-3	-124.005E-12	687.546E-3	-21.1572E-3	-124.311E-12	701.234E-3	-8.42125E-3
-3.21911E-3	-124.497E-12	672.530E-3	-16.8230E-3	-124.555E-12	692.854E-3	-11.3364E-3
-3.22411E-3	-125.559E-12	670.238E-3	-22.5878E-3	-124.400E-12	660.198E-3	-15.2505E-3
-3.22911E-3	-125.571E-12	677.429E-3	-26.6533E-3	-124.808E-12	632.361E-3	-11.5944E-3
-3.23412E-3	-125.293E-12	670.843E-3	-8.99547E-3	-124.744E-12	638.959E-3	-14.4568E-3
-3.23912E-3	-126.092E-12	663.022E-3	6.90494E-3	-125.338E-12	662.596E-3	-41.2315E-3
-3.24412E-3	-126.298E-12	676.046E-3	11.5012E-3	-125.362E-12	672.357E-3	-49.1186E-3
-3.24912E-3	-126.047E-12	695.484E-3	6.89323E-3	-125.455E-12	678.727E-3	-29.1887E-3
-3.25413E-3	-125.707E-12	691.799E-3	6.87765E-3	-125.551E-12	681.371E-3	-19.5878E-3
-3.25913E-3	-125.970E-12	670.137E-3	2.19989E-3	-126.048E-12	660.597E-3	-25.3101E-3
-3.26413E-3	-126.604E-12	663.290E-3	-12.4423E-3	-126.736E-12	647.176E-3	-27.6565E-3
-3.26913E-3	-127.030E-12	678.919E-3	-13.1031E-3	-126.171E-12	667.951E-3	-17.2221E-3
-3.27414E-3	-127.292E-12	685.700E-3	-10.1824E-3	-126.382E-12	680.257E-3	-6.15800E-3
-3.27914E-3	-127.566E-12	687.167E-3	-19.4801E-3	-126.607E-12	665.079E-3	-9.37415E-3
-3.28414E-3	-128.107E-12	704.175E-3	-31.1260E-3	-127.521E-12	666.438E-3	-5.76501E-3
-3.28914E-3	-128.342E-12	712.723E-3	-38.6149E-3	-127.917E-12	687.461E-3	17.3181E-3
-3.29415E-3	-129.081E-12	692.874E-3	-38.2874E-3	-128.257E-12	698.924E-3	23.3285E-3
-3.29915E-3	-129.847E-12	674.743E-3	-29.4089E-3	-128.552E-12	687.034E-3	1.17860E-3
-3.30415E-3	-129.974E-12	692.662E-3	-26.0894E-3	-129.085E-12	670.878E-3	-8.58071E-3
-3.30915E-3	-131.109E-12	710.946E-3	-27.2830E-3	-130.097E-12	692.574E-3	-8.32324E-3
-3.31416E-3	-131.816E-12	687.433E-3	-24.6198E-3	-131.053E-12	725.591E-3	-22.2585E-3
-3.31916E-3	-132.168E-12	671.307E-3	-23.3643E-3	-131.619E-12	714.634E-3	-18.6257E-3
-3.32416E-3	-131.783E-12	687.560E-3	-20.2712E-3	-132.513E-12	692.712E-3	-1.71592E-3
-3.32916E-3	-131.872E-12	696.073E-3	-21.9098E-3	-133.094E-12	692.706E-3	-16.1523E-3
-3.33417E-3	-131.992E-12	690.200E-3	-27.2206E-3	-133.418E-12	692.879E-3	-41.4197E-3
-3.33917E-3	-131.528E-12	680.666E-3	-22.6154E-3	-132.857E-12	696.867E-3	-41.0910E-3
-3.34417E-3	-130.709E-12	670.644E-3	-18.0759E-3	-132.761E-12	703.015E-3	-27.2276E-3
-3.34917E-3	-131.007E-12	662.617E-3	-16.9558E-3	-132.969E-12	698.881E-3	-14.9915E-3
-3.35418E-3	-131.223E-12	679.278E-3	-24.7898E-3	-132.845E-12	685.999E-3	-24.7897E-3
-3.35918E-3	-130.356E-12	716.362E-3	-41.3968E-3	-132.848E-12	665.859E-3	-40.2430E-3
-3.36418E-3	-130.109E-12	728.533E-3	-31.7574E-3	-132.426E-12	645.511E-3	-27.1570E-3
-3.36918E-3	-130.727E-12	716.151E-3	-8.34065E-3	-132.374E-12	643.861E-3	-9.97623E-3
-3.37419E-3	-131.495E-12	694.842E-3	-11.0920E-3	-131.718E-12	668.065E-3	-7.08613E-3
-3.37919E-3	-131.478E-12	684.238E-3	-27.1896E-3	-131.995E-12	687.798E-3	-6.26386E-3
-3.38419E-3	-131.857E-12	691.936E-3	-29.5012E-3	-131.716E-12	688.232E-3	-9.64446E-3
-3.38919E-3	-132.567E-12	690.716E-3	-19.1187E-3	-132.161E-12	691.860E-3	-13.6209E-3
-3.39420E-3	-133.487E-12	696.819E-3	-11.3806E-3	-132.301E-12	687.880E-3	-14.0255E-3
-3.39920E-3	-133.685E-12	702.797E-3	-2.10733E-3	-133.054E-12	669.614E-3	-17.6617E-3
-3.40420E-3	-134.183E-12	677.986E-3	11.3636E-3	-133.553E-12	656.837E-3	-19.6425E-3
-3.40920E-3	-134.379E-12	663.450E-3	5.98279E-3	-134.122E-12	643.269E-3	-16.8105E-3
-3.41421E-3	-134.544E-12	676.110E-3	-21.5129E-3	-134.765E-12	637.929E-3	-3.75201E-3
-3.41921E-3	-134.961E-12	695.021E-3	-39.1665E-3	-135.250E-12	659.585E-3	8.04573E-3
-3.42421E-3	-134.698E-12	700.569E-3	-38.8271E-3	-135.536E-12	673.568E-3	4.55204E-3
-3.42921E-3	-133.526E-12	684.510E-3	-30.0491E-3	-136.073E-12	661.910E-3	-4.26307E-3
-3.43422E-3	-133.071E-12	668.233E-3	-17.1347E-3	-136.574E-12	659.827E-3	-20.4394E-3
-3.43922E-3	-133.809E-12	670.143E-3	-21.0695E-3	-136.500E-12	665.457E-3	-31.4519E-3
-3.44422E-3	-133.432E-12	679.454E-3	-38.1412E-3	-136.410E-12	654.909E-3	-14.6379E-3
-3.44922E-3	-133.261E-12	687.493E-3	-41.1385E-3	-136.501E-12	661.482E-3	-2.13667E-3
-3.45423E-3	-132.123E-12	696.941E-3	-32.5757E-3	-136.227E-12	693.678E-3	-15.2603E-3
-3.45923E-3	-133.192E-12	687.935E-3	-23.8764E-3	-135.548E-12	701.188E-3	-23.3074E-3
-3.46423E-3	-133.750E-12	672.447E-3	-20.4773E-3	-135.462E-12	685.520E-3	-14.8926E-3
-3.46923E-3	-134.255E-12	676.315E-3	-24.5159E-3	-134.892E-12	660.956E-3	-6.70877E-3
-3.47424E-3	-134.226E-12	672.275E-3	-22.4514E-3	-135.009E-12	631.153E-3	-11.5148E-3
-3.47924E-3	-134.862E-12	652.521E-3	-8.68171E-3	-135.296E-12	629.749E-3	-35.0969E-3
-3.48424E-3	-136.294E-12	652.934E-3	-3.26621E-3	-135.609E-12	642.219E-3	-58.3904E-3
-3.48924E-3	-136.691E-12	671.499E-3	-4.95252E-3	-136.469E-12	643.015E-3	-43.5136E-3
-3.49425E-3	-137.202E-12	669.264E-3	-4.35346E-3	-137.394E-12	648.034E-3	-12.6154E-3
-3.49925E-3	-137.098E-12	652.542E-3	-21.4716E-3	-137.962E-12	656.192E-3	-7.03797E-3
-3.50425E-3	-138.145E-12	659.251E-3	-40.6062E-3	-138.696E-12	672.217E-3	-9.38948E-3
-3.50925E-3	-138.436E-12	655.187E-3	-30.6096E-3	-139.546E-12	691.286E-3	-19.6350E-3
-3.51426E-3	-138.279E-12	638.473E-3	-10.8066E-3	-140.361E-12	680.634E-3	-28.8158E-3
-3.51926E-3	-138.145E-12	646.304E-3	-1.81566E-3	-141.169E-12	658.405E-3	-10.4202E-3
-3.52426E-3	-138.577E-12	656.189E-3	-4.98528E-3	-141.285E-12	652.743E-3	6.51882E-3
-3.52926E-3	-138.919E-12	654.727E-3	-19.4065E-3	-142.083E-12	656.456E-3	-376.560E-6
-3.53427E-3	-139.132E-12	666.215E-3	-26.7115E-3	-142.494E-12	650.737E-3	-23.6116E-3
-3.53927E-3	-138.928E-12	674.715E-3	-9.67591E-3	-142.121E-12	632.897E-3	-20.4011E-3
-3.54427E-3	-138.833E-12	666.502E-3	-2.62496E-3	-142.108E-12	642.618E-3	1.47995E-3
-3.54927E-3	-139.278E-12	668.902E-3	-24.3951E-3	-141.967E-12	658.490E-3	8.45540E-3
-3.55428E-3	-139.548E-12	674.952E-3	-38.4436E-3	-141.586E-12	642.800E-3	15.0944E-3
-3.55928E-3	-140.129E-12	674.098E-3	-32.5479E-3	-141.152E-12	641.954E-3	-3.38877E-3
-3.56428E-3	-140.110E-12	676.092E-3	-24.0613E-3	-140.863E-12	668.804E-3	-29.6411E-3
-3.56928E-3	-140.636E-12	680.356E-3	-16.2229E-3	-139.812E-12	683.361E-3	-18.6143E-3
-3.57429E-3	-141.022E-12	683.800E-3	-15.1499E-3	-140.331E-12	674.286E-3	-2.40508E-3
-3.57929E-3	-141.452E-12	688.981E-3	-35.0830E-3	-140.539E-12	655.023E-3	-16.1099E-3
-3.58429E-3	-142.131E-12	689.364E-3	-49.7817E-3	-141.329E-12	643.551E-3	-29.5391E-3
-3.58929E-3	-142.577E-12	682.012E-3	-37.1616E-3	-141.322E-12	641.175E-3	-23.1656E-3
-3.59430E-3	-142.530E-12	671.289E-3	-31.7399E-3	-141.290E-12	634.415E-3	-22.6711E-3
-3.59930E-3	-141.983E-12	665.598E-3	-39.8728E-3	-142.105E-12	631.532E-3	-6.84643E-3
-3.60430E-3	-142.571E-12	665.249E-3	-34.6665E-3	-142.491E-12	647.265E-3	14.6158E-3
-3.60930E-3	-142.206E-12	673.178E-3	-23.1680E-3	-142.925E-12	667.177E-3	7.37245E-3
-3.61431E-3	-142.246E-12	699.230E-3	-33.9778E-3	-142.702E-12	675.532E-3	-10.4245E-3
-3.61931E-3	-141.688E-12	709.244E-3	-56.8900E-3	-142.906E-12	675.047E-3	-12.9893E-3
-3.62431E-3	-142.795E-12	688.178E-3	-66.8452E-3	-143.415E-12	662.729E-3	-4.62937E-3
-3.62931E-3	-143.081E-12	679.846E-3	-63.2590E-3	-143.651E-12	656.709E-3	-4.76799E-3
-3.63432E-3	-143.174E-12	693.871E-3	-47.2138E-3	-143.216E-12	672.722E-3	-13.0094E-3
-3.63932E-3	-143.105E-12	708.028E-3	-27.7836E-3	-142.984E-12	670.665E-3	-26.3365E-3
-3.64432E-3	-143.459E-12	709.923E-3	-19.7971E-3	-143.193E-12	652.675E-3	-38.6720E-3
-3.64932E-3	-143.788E-12	682.157E-3	-22.9774E-3	-143.295E-12	649.143E-3	-42.3016E-3
-3.65433E-3	-143.949E-12	652.305E-3	-22.6167E-3	-143.095E-12	657.645E-3	-48.6098E-3
-3.65933E-3	-144.037E-12	653.031E-3	-5.56573E-3	-142.756E-12	665.509E-3	-46.7563E-3
-3.66433E-3	-143.987E-12	657.261E-3	16.9366E-3	-143.242E-12	659.416E-3	-18.7176E-3
-3.66933E-3	-144.393E-12	650.081E-3	5.52857E-3	-143.632E-12	655.079E-3	861.746E-6
-3.67434E-3	-144.575E-12	651.324E-3	-25.5828E-3	-144.309E-12	655.641E-3	10.3720E-3
-3.67934E-3	-144.556E-12	657.294E-3	-28.7088E-3	-144.991E-12	667.039E-3	26.3450E-3
-3.68434E-3	-144.661E-12	646.041E-3	-17.7342E-3	-145.375E-12	677.888E-3	14.8519E-3
-3.68934E-3	-144.333E-12	638.260E-3	-22.6246E-3	-145.515E-12	668.193E-3	-5.71489E-3
-3.69435E-3	-144.729E-12	653.593E-3	-28.1472E-3	-146.383E-12	671.670E-3	1.27958E-3
-3.69935E-3	-145.544E-12	659.360E-3	-19.1187E-3	-146.661E-12	672.053E-3	-2.44656E-3
-3.70435E-3	-145.861E-12	642.827E-3	-6.19195E-3	-146.508E-12	656.941E-3	-26.5357E-3
-3.70935E-3	-146.177E-12	637.871E-3	-15.9148E-3	-146.734E-12	672.344E-3	-25.0411E-3
-3.71436E-3	-146.726E-12	656.764E-3	-47.1162E-3	-146.934E-12	704.591E-3	-3.44732E-3
-3.71936E-3	-147.457E-12	674.414E-3	-52.6748E-3	-148.191E-12	700.105E-3	9.88606E-3
-3.72436E-3	-147.875E-12	667.371E-3	-30.3213E-3	-148.479E-12	660.801E-3	20.0269E-3
-3.72936E-3	-148.685E-12	653.513E-3	-16.2006E-3	-148.603E-12	646.231E-3	1.00178E-3
-3.73437E-3	-149.614E-12	653.379E-3	-26.5860E-3	-149.007E-12	680.603E-3	-36.4082E-3
-3.73937E-3	-149.804E-12	670.268E-3	-26.7867E-3	-149.605E-12	710.529E-3	-36.5093E-3
-3.74437E-3	-150.139E-12	690.914E-3	-465.324E-6	-150.437E-12	712.456E-3	-12.8291E-3
-3.74937E-3	-150.864E-12	693.814E-3	-672.477E-6	-150.556E-12	701.470E-3	-9.66597E-3
-3.75438E-3	-151.279E-12	681.276E-3	-25.6042E-3	-151.085E-12	676.746E-3	-12.4098E-3
-3.75938E-3	-150.888E-12	671.819E-3	-35.1667E-3	-151.245E-12	674.275E-3	-2.75750E-3
-3.76438E-3	-150.620E-12	681.881E-3	-27.8212E-3	-152.323E-12	703.736E-3	7.97442E-3
-3.76938E-3	-151.042E-12	694.974E-3	5.03136E-3	-152.141E-12	709.412E-3	13.4282E-3
-3.77439E-3	-151.036E-12	690.401E-3	36.5894E-3	-152.240E-12	680.117E-3	7.68332E-3
-3.77939E-3	-150.964E-12	671.814E-3	34.1485E-3	-152.216E-12	656.915E-3	-3.92322E-3
-3.78439E-3	-150.707E-12	666.173E-3	14.3598E-3	-152.458E-12	641.288E-3	851.162E-6
-3.78939E-3	-150.709E-12	672.226E-3	-9.21814E-3	-152.077E-12	633.865E-3	3.08291E-3
-3.79440E-3	-150.097E-12	674.666E-3	853.812E-6	-152.055E-12	659.584E-3	-23.5486E-3
-3.79940E-3	-149.720E-12	685.790E-3	15.7042E-3	-151.641E-12	680.929E-3	-19.4923E-3
-3.80440E-3	-150.207E-12	675.733E-3	-3.23745E-3	-151.083E-12	680.384E-3	7.35427E-3
-3.80940E-3	-150.760E-12	647.781E-3	-15.5870E-3	-151.231E-12	680.216E-3	4.74861E-3
-3.81441E-3	-151.299E-12	641.829E-3	-19.0214E-3	-151.325E-12	686.669E-3	-11.4919E-3
-3.81941E-3	-151.582E-12	644.011E-3	-16.5447E-3	-151.749E-12	695.325E-3	-17.0351E-3
-3.82441E-3	-151.802E-12	648.129E-3	-2.52764E-3	-151.642E-12	699.319E-3	-14.5909E-3
-3.82941E-3	-152.522E-12	652.466E-3	-6.01995E-3	-151.797E-12	679.196E-3	-22.1688E-3
-3.83442E-3	-152.857E-12	650.881E-3	-28.2926E-3	-152.802E-12	657.412E-3	-33.5426E-3
-3.83942E-3	-153.204E-12	669.097E-3	-35.1827E-3	-153.592E-12	684.202E-3	-17.9614E-3
-3.84442E-3	-153.501E-12	697.690E-3	-17.1749E-3	-153.440E-12	711.753E-3	103.542E-6
-3.84942E-3	-153.488E-12	695.206E-3	-1.22992E-3	-154.311E-12	694.114E-3	-11.7177E-3
-3.85443E-3	-153.410E-12	679.700E-3	-10.6691E-3	-154.672E-12	656.515E-3	-12.2745E-3
-3.85943E-3	-152.228E-12	680.887E-3	-38.2924E-3	-155.436E-12	638.502E-3	-10.5401E-3
-3.86443E-3	-152.450E-12	680.797E-3	-47.8281E-3	-155.259E-12	645.221E-3	-30.8945E-3
-3.86943E-3	-152.328E-12	666.376E-3	-35.2193E-3	-155.155E-12	665.079E-3	-42.2537E-3
-3.87444E-3	-152.791E-12	644.116E-3	-40.1594E-3	-155.672E-12	669.045E-3	-37.2804E-3
-3.87944E-3	-153.119E-12	639.579E-3	-48.2241E-3	-155.535E-12	643.619E-3	-17.2471E-3
-3.88444E-3	-153.502E-12	649.561E-3	-26.3862E-3	-155.058E-12	644.179E-3	-7.21529E-3
-3.88944E-3	-153.937E-12	638.644E-3	2.36971E-3	-154.586E-12	663.625E-3	-16.9802E-3
-3.89445E-3	-154.721E-12	631.289E-3	1.34626E-3	-154.769E-12	660.610E-3	-10.1486E-3
-3.89945E-3	-154.881E-12	641.314E-3	-14.3814E-3	-154.755E-12	665.209E-3	-3.21150E-3
-3.90445E-3	-155.372E-12	635.294E-3	-32.2974E-3	-155.244E-12	668.242E-3	-13.7838E-3
-3.90945E-3	-156.168E-12	634.452E-3	-46.5134E-3	-155.518E-12	667.014E-3	-26.6860E-3
-3.91446E-3	-157.285E-12	650.635E-3	-29.2636E-3	-156.142E-12	693.503E-3	-20.3579E-3
-3.91946E-3	-157.420E-12	659.324E-3	-4.38583E-3	-157.000E-12	707.691E-3	1.25873E-3
-3.92446E-3	-158.352E-12	661.224E-3	-8.53961E-3	-157.077E-12	704.855E-3	7.76915E-3
-3.92946E-3	-158.618E-12	657.484E-3	-17.1338E-3	-159.057E-12	703.458E-3	-1.44939E-3
-3.93447E-3	-159.355E-12	659.867E-3	-7.05229E-3	-159.710E-12	685.817E-3	-29.0582E-3
-3.93947E-3	-158.945E-12	668.949E-3	10.2633E-3	-160.998E-12	683.180E-3	-60.2648E-3
-3.94447E-3	-159.214E-12	663.024E-3	20.2150E-3	-160.950E-12	694.500E-3	-54.4103E-3
-3.94947E-3	-159.497E-12	653.404E-3	4.32898E-3	-161.457E-12	684.119E-3	-23.7807E-3
-3.95448E-3	-159.452E-12	663.578E-3	-20.1584E-3	-161.473E-12	667.668E-3	-9.82600E-3
-3.95948E-3	-158.348E-12	677.043E-3	-16.6926E-3	-161.207E-12	661.108E-3	-21.5483E-3
-3.96448E-3	-158.504E-12	666.709E-3	-11.5931E-3	-160.617E-12	664.109E-3	-29.9174E-3
-3.96948E-3	-158.583E-12	668.974E-3	-23.5297E-3	-160.223E-12	664.263E-3	-24.7098E-3
-3.97449E-3	-158.448E-12	701.619E-3	-22.9530E-3	-159.779E-12	646.499E-3	-14.6970E-3
-3.97949E-3	-159.453E-12	700.719E-3	-23.8703E-3	-159.279E-12	642.519E-3	-6.31514E-3
-3.98449E-3	-159.712E-12	668.188E-3	-33.6536E-3	-158.511E-12	645.856E-3	-15.7473E-3
-3.98949E-3	-160.634E-12	649.502E-3	-14.3841E-3	-158.578E-12	632.498E-3	-33.2990E-3
-3.99450E-3	-160.336E-12	644.599E-3	22.6986E-3	-158.559E-12	637.032E-3	-42.4170E-3
-3.99950E-3	-161.331E-12	662.676E-3	23.9824E-3	-158.575E-12	649.753E-3	-28.5729E-3
-4.00450E-3	-161.910E-12	683.438E-3	-3.68896E-3	-158.729E-12	658.649E-3	-3.05712E-3
-4.00950E-3	-162.233E-12	677.721E-3	-17.1459E-3	-159.505E-12	666.895E-3	3.15704E-3
-4.01451E-3	-162.855E-12	680.701E-3	-9.95885E-3	-160.274E-12	660.681E-3	-10.5042E-3
-4.01951E-3	-162.823E-12	695.999E-3	-6.74573E-3	-161.128E-12	663.333E-3	-25.8260E-3
-4.02451E-3	-163.607E-12	696.005E-3	-20.5982E-3	-161.785E-12	673.751E-3	-17.2732E-3
-4.02951E-3	-162.898E-12	698.143E-3	-36.7843E-3	-161.787E-12	653.369E-3	-4.25254E-3
-4.03452E-3	-162.947E-12	694.858E-3	-27.8327E-3	-162.764E-12	641.668E-3	-1.64196E-3
-4.03952E-3	-162.154E-12	667.536E-3	-8.11955E-3	-163.161E-12	674.123E-3	-10.9427E-3
-4.04452E-3	-162.059E-12	644.308E-3	-5.59570E-3	-163.499E-12	697.196E-3	-29.0447E-3
-4.04952E-3	-160.956E-12	631.976E-3	-16.0484E-3	-163.136E-12	679.967E-3	-20.2134E-3
-4.05453E-3	-161.246E-12	625.578E-3	-42.3361E-3	-163.560E-12	658.547E-3	-8.41793E-3
-4.05953E-3	-161.375E-12	628.073E-3	-56.1364E-3	-163.861E-12	664.428E-3	-27.9936E-3
-4.06453E-3	-161.463E-12	645.239E-3	-42.4142E-3	-162.991E-12	670.518E-3	-25.7506E-3
-4.06953E-3	-160.808E-12	653.710E-3	-28.5260E-3	-162.830E-12	661.918E-3	-1.98166E-3
-4.07454E-3	-161.204E-12	634.705E-3	-10.0917E-3	-162.988E-12	667.849E-3	-14.0180E-3
-4.07954E-3	-162.031E-12	627.747E-3	16.3924E-3	-162.585E-12	682.780E-3	-32.1180E-3
-4.08454E-3	-162.241E-12	649.208E-3	22.9730E-3	-162.625E-12	688.243E-3	-34.5099E-3
-4.08954E-3	-162.971E-12	670.749E-3	401.263E-6	-163.305E-12	675.243E-3	-29.5109E-3
-4.09455E-3	-163.221E-12	668.177E-3	-33.4277E-3	-163.778E-12	663.159E-3	-14.6180E-3
-4.09955E-3	-164.286E-12	661.511E-3	-52.7823E-3	-163.852E-12	673.761E-3	-12.1958E-3
-4.10455E-3	-164.752E-12	666.661E-3	-50.8113E-3	-164.589E-12	682.888E-3	-12.2188E-3
-4.10955E-3	-164.812E-12	651.833E-3	-51.3995E-3	-165.328E-12	679.742E-3	1.71506E-3
-4.11456E-3	-165.021E-12	621.979E-3	-55.7598E-3	-166.717E-12	670.169E-3	15.1207E-3
-4.11956E-3	-165.794E-12	609.957E-3	-49.3010E-3	-166.740E-12	666.444E-3	8.75308E-3
-4.12456E-3	-166.420E-12	617.455E-3	-35.3596E-3	-166.865E-12	675.904E-3	-5.12115E-3
-4.12956E-3	-166.822E-12	632.042E-3	-19.5764E-3	-167.897E-12	687.030E-3	-5.02541E-3
-4.13457E-3	-166.171E-12	650.760E-3	-16.2229E-3	-168.050E-12	696.985E-3	-15.3860E-3
-4.13957E-3	-167.057E-12	655.920E-3	-14.3030E-3	-168.723E-12	688.028E-3	-46.4206E-3
-4.14457E-3	-166.989E-12	646.778E-3	1.89069E-3	-168.779E-12	676.785E-3	-49.8569E-3
-4.14957E-3	-168.065E-12	650.611E-3	2.02907E-3	-169.564E-12	689.413E-3	-25.5511E-3
-4.15458E-3	-167.099E-12	664.476E-3	-20.9912E-3	-169.694E-12	689.045E-3	-16.7095E-3
-4.15958E-3	-167.809E-12	683.418E-3	-36.4636E-3	-170.094E-12	670.010E-3	-14.0910E-3
-4.16458E-3	-168.529E-12	698.596E-3	-31.6977E-3	-169.940E-12	666.252E-3	-14.9275E-3
-4.16958E-3	-168.909E-12	683.586E-3	-28.6881E-3	-170.006E-12	672.529E-3	-22.0650E-3
-4.17459E-3	-168.608E-12	659.015E-3	-30.3545E-3	-169.669E-12	676.789E-3	-21.2267E-3
-4.17959E-3	-168.912E-12	645.476E-3	-27.1004E-3	-169.767E-12	679.678E-3	-22.3793E-3
-4.18459E-3	-169.343E-12	641.415E-3	-22.8109E-3	-170.165E-12	665.577E-3	-26.3477E-3
-4.18959E-3	-169.353E-12	655.984E-3	-14.1599E-3	-169.325E-12	656.335E-3	-32.6037E-3
-4.19460E-3	-168.067E-12	664.760E-3	-1.82635E-3	-168.802E-12	664.899E-3	-44.3198E-3
-4.19960E-3	-168.609E-12	646.169E-3	-13.5515E-3	-168.392E-12	655.006E-3	-51.6611E-3
-4.20460E-3	-169.526E-12	631.291E-3	-52.9690E-3	-167.749E-12	642.587E-3	-40.1570E-3
-4.20960E-3	-169.637E-12	642.703E-3	-66.9892E-3	-167.234E-12	645.174E-3	-15.8605E-3
-4.21461E-3	-168.781E-12	669.267E-3	-43.4151E-3	-167.151E-12	646.707E-3	-11.6452E-3
-4.21961E-3	-168.796E-12	694.843E-3	-19.9874E-3	-167.683E-12	641.245E-3	-29.7957E-3
-4.22461E-3	-168.979E-12	687.371E-3	-12.2434E-3	-167.084E-12	632.473E-3	-34.2744E-3
-4.22961E-3	-169.669E-12	645.048E-3	-11.5678E-3	-167.519E-12	633.037E-3	-18.7388E-3
-4.23462E-3	-170.136E-12	623.401E-3	-30.2750E-3	-167.686E-12	637.106E-3	-18.7981E-3
-4.23962E-3	-170.793E-12	633.165E-3	-49.7457E-3	-168.703E-12	653.757E-3	-17.0310E-3
-4.24462E-3	-171.219E-12	630.548E-3	-40.5324E-3	-169.397E-12	682.225E-3	-5.88086E-3
-4.24962E-3	-172.229E-12	624.152E-3	-43.5694E-3	-170.157E-12	691.264E-3	-21.9816E-3
-4.25463E-3	-172.277E-12	629.834E-3	-45.2751E-3	-170.924E-12	689.842E-3	-33.0717E-3
-4.25963E-3	-172.608E-12	634.845E-3	-12.3260E-3	-171.135E-12	687.094E-3	-20.9350E-3
-4.26463E-3	-172.349E-12	647.257E-3	14.4403E-3	-172.474E-12	670.861E-3	-21.3073E-3
-4.26963E-3	-172.632E-12	665.917E-3	12.0508E-3	-172.863E-12	663.252E-3	-21.6372E-3
-4.27464E-3	-172.677E-12	663.972E-3	-8.54231E-3	-173.596E-12	678.956E-3	-1.01408E-3
-4.27964E-3	-171.643E-12	655.763E-3	-17.3863E-3	-173.257E-12	696.854E-3	10.4646E-3
-4.28464E-3	-172.003E-12	653.333E-3	-4.22958E-3	-172.933E-12	699.419E-3	4.33906E-3
-4.28964E-3	-171.486E-12	625.155E-3	18.8912E-3	-172.258E-12	685.550E-3	-26.3607E-3
-4.29465E-3	-171.635E-12	607.007E-3	32.9953E-3	-172.651E-12	658.556E-3	-56.0603E-3
-4.29965E-3	-170.787E-12	636.575E-3	17.8061E-3	-171.991E-12	640.847E-3	-51.7097E-3
-4.30465E-3	-170.954E-12	674.644E-3	-19.5976E-3	-171.615E-12	660.353E-3	-46.4834E-3
-4.30965E-3	-171.191E-12	687.358E-3	-58.5154E-3	-171.375E-12	689.806E-3	-45.2439E-3
-4.31466E-3	-172.243E-12	677.040E-3	-66.9913E-3	-171.640E-12	693.439E-3	-39.8811E-3
-4.31966E-3	-172.387E-12	655.519E-3	-43.5829E-3	-171.572E-12	670.214E-3	-39.5166E-3
-4.32466E-3	-172.782E-12	638.808E-3	-34.5390E-3	-172.403E-12	657.769E-3	-46.2043E-3
-4.32966E-3	-174.449E-12	633.033E-3	-36.0584E-3	-172.377E-12	664.377E-3	-45.8695E-3
-4.33467E-3	-175.932E-12	649.802E-3	-19.0230E-3	-173.657E-12	666.657E-3	-52.0023E-3
-4.33967E-3	-177.392E-12	672.434E-3	-9.75686E-3	-174.754E-12	669.349E-3	-66.0604E-3
-4.34467E-3	-178.012E-12	680.728E-3	-27.4352E-3	-175.968E-12	663.572E-3	-34.5026E-3
-4.34967E-3	-178.884E-12	676.957E-3	-44.9031E-3	-176.889E-12	659.921E-3	11.7365E-3
-4.35468E-3	-179.909E-12	655.368E-3	-40.6524E-3	-177.412E-12	669.893E-3	10.4398E-3
-4.35968E-3	-179.569E-12	644.593E-3	-36.7587E-3	-178.822E-12	673.050E-3	-19.4733E-3
-4.36468E-3	-178.704E-12	656.202E-3	-38.0737E-3	-179.790E-12	680.326E-3	-32.7405E-3
-4.36968E-3	-177.948E-12	674.146E-3	-12.6293E-3	-181.549E-12	706.843E-3	-16.2479E-3
-4.37469E-3	-178.384E-12	668.809E-3	18.9251E-3	-181.053E-12	713.306E-3	1.43453E-3
-4.37969E-3	-178.161E-12	643.192E-3	21.4328E-3	-181.737E-12	697.474E-3	-6.04647E-3
-4.38469E-3	-178.403E-12	649.402E-3	1.89491E-3	-181.192E-12	697.355E-3	-38.0071E-3
-4.38969E-3	-177.032E-12	668.636E-3	-22.6748E-3	-180.969E-12	695.799E-3	-44.7775E-3
-4.39470E-3	-176.547E-12	669.869E-3	-45.0842E-3	-180.166E-12	666.178E-3	-14.0427E-3
-4.39970E-3	-176.761E-12	676.071E-3	-57.1836E-3	-179.822E-12	627.429E-3	4.98200E-3
-4.40470E-3	-176.924E-12	680.822E-3	-45.4789E-3	-179.388E-12	611.079E-3	19.0237E-3
-4.40970E-3	-176.474E-12	663.181E-3	-28.2285E-3	-178.384E-12	631.204E-3	19.1810E-3
-4.41471E-3	-177.317E-12	649.924E-3	-32.7460E-3	-177.530E-12	655.751E-3	-13.7811E-3
-4.41971E-3	-178.591E-12	656.550E-3	-32.3626E-3	-177.324E-12	649.302E-3	-18.8720E-3
-4.42471E-3	-179.987E-12	661.106E-3	-10.6594E-3	-177.863E-12	649.546E-3	9.16118E-3
-4.42971E-3	-179.786E-12	652.283E-3	-2.95805E-3	-178.190E-12	665.078E-3	2.73723E-3
-4.43472E-3	-180.144E-12	635.818E-3	-13.1718E-3	-178.262E-12	663.789E-3	-15.6206E-3
-4.43972E-3	-181.036E-12	625.067E-3	-18.1363E-3	-178.756E-12	674.236E-3	-6.19710E-3
-4.44472E-3	-181.357E-12	621.067E-3	-12.5864E-3	-179.859E-12	690.936E-3	-447.248E-6
-4.44972E-3	-181.918E-12	629.948E-3	-10.2412E-3	-180.208E-12	672.774E-3	-11.2322E-3
-4.45473E-3	-181.830E-12	649.097E-3	-14.5992E-3	-180.640E-12	650.249E-3	-18.0753E-3
-4.45973E-3	-181.330E-12	659.717E-3	-20.8405E-3	-180.907E-12	655.720E-3	-4.23713E-3
-4.46473E-3	-180.739E-12	660.646E-3	-13.6834E-3	-181.053E-12	663.619E-3	-6.31645E-3
-4.46973E-3	-181.451E-12	667.984E-3	98.1439E-6	-181.872E-12	658.994E-3	-25.5819E-3
-4.47474E-3	-180.573E-12	678.282E-3	-10.1539E-3	-183.059E-12	660.507E-3	-243.226E-6
-4.47974E-3	-180.140E-12	666.428E-3	-19.9845E-3	-182.996E-12	667.039E-3	6.91659E-3
-4.48474E-3	-179.703E-12	634.441E-3	-3.67571E-3	-182.926E-12	675.976E-3	-32.2667E-3
-4.48974E-3	-180.555E-12	618.803E-3	11.2921E-3	-182.694E-12	690.450E-3	-32.5576E-3
-4.49475E-3	-180.310E-12	631.333E-3	3.83883E-3	-183.837E-12	693.148E-3	-23.8657E-3
-4.49975E-3	-180.010E-12	647.125E-3	-9.26706E-3	-183.754E-12	689.671E-3	-38.2872E-3
-4.50475E-3	-179.751E-12	646.106E-3	-4.23273E-3	-183.122E-12	680.067E-3	-37.4952E-3
-4.50975E-3	-180.935E-12	637.591E-3	12.7280E-3	-182.208E-12	665.336E-3	-14.0681E-3
-4.51476E-3	-181.156E-12	638.940E-3	-2.74210E-3	-183.228E-12	661.919E-3	11.1457E-3
-4.51976E-3	-181.692E-12	650.943E-3	-45.8621E-3	-183.177E-12	667.822E-3	30.1088E-3
-4.52476E-3	-181.916E-12	668.325E-3	-57.4677E-3	-182.994E-12	681.437E-3	34.8920E-3
-4.52976E-3	-182.474E-12	683.122E-3	-38.5346E-3	-182.860E-12	678.186E-3	5.57418E-3
-4.53477E-3	-182.919E-12	673.983E-3	-32.0988E-3	-183.144E-12	655.876E-3	-38.4099E-3
-4.53977E-3	-183.396E-12	666.384E-3	-42.1072E-3	-183.480E-12	654.151E-3	-44.8664E-3
-4.54477E-3	-183.098E-12	671.042E-3	-28.4169E-3	-183.930E-12	668.276E-3	-8.86060E-3
-4.54977E-3	-184.005E-12	657.115E-3	-4.10898E-3	-183.439E-12	663.046E-3	26.2675E-3
-4.55478E-3	-184.164E-12	644.897E-3	-6.24136E-3	-184.086E-12	645.172E-3	33.5437E-3
-4.55978E-3	-185.462E-12	640.003E-3	-18.3121E-3	-184.871E-12	631.616E-3	10.5694E-3
-4.56478E-3	-185.624E-12	642.004E-3	-21.4424E-3	-186.007E-12	642.864E-3	-24.8627E-3
-4.56978E-3	-186.395E-12	647.513E-3	-24.9793E-3	-185.206E-12	674.857E-3	-43.7292E-3
-4.57479E-3	-186.169E-12	644.644E-3	-36.3237E-3	-185.378E-12	680.278E-3	-39.3641E-3
-4.57979E-3	-187.755E-12	645.763E-3	-21.7292E-3	-186.817E-12	674.226E-3	-30.1038E-3
-4.58479E-3	-187.437E-12	661.108E-3	6.94077E-3	-187.687E-12	693.245E-3	-19.3861E-3
-4.58979E-3	-188.150E-12	669.311E-3	6.75396E-3	-187.216E-12	708.971E-3	-3.68422E-3
-4.59480E-3	-188.241E-12	653.040E-3	-6.46630E-3	-187.519E-12	696.271E-3	-3.71051E-3
-4.59980E-3	-189.808E-12	626.230E-3	-11.1172E-3	-187.624E-12	682.446E-3	-15.2812E-3
-4.60480E-3	-189.349E-12	609.891E-3	2.03123E-3	-188.619E-12	693.547E-3	-25.5809E-3
-4.60980E-3	-189.091E-12	639.952E-3	21.4899E-3	-188.255E-12	695.208E-3	-29.1600E-3
-4.61481E-3	-188.590E-12	678.438E-3	4.26780E-3	-188.275E-12	675.835E-3	-11.1073E-3
-4.61981E-3	-188.729E-12	659.529E-3	-14.5681E-3	-187.609E-12	662.564E-3	16.7930E-3
-4.62481E-3	-188.470E-12	622.155E-3	-9.35590E-3	-187.684E-12	641.031E-3	33.6352E-3
-4.62981E-3	-187.419E-12	618.076E-3	-29.4229E-3	-187.006E-12	627.806E-3	10.1142E-3
-4.63482E-3	-187.699E-12	636.668E-3	-48.0039E-3	-186.006E-12	638.652E-3	-14.5837E-3
-4.63982E-3	-187.573E-12	648.943E-3	-41.9155E-3	-186.042E-12	644.342E-3	-672.503E-6
-4.64482E-3	-187.822E-12	658.626E-3	-34.1413E-3	-186.014E-12	653.780E-3	10.9986E-3
-4.64982E-3	-187.162E-12	667.697E-3	-24.5383E-3	-186.834E-12	675.110E-3	15.6349E-3
-4.65483E-3	-187.858E-12	664.319E-3	-26.2160E-3	-186.642E-12	680.494E-3	9.62201E-3
-4.65983E-3	-188.148E-12	654.088E-3	-36.1477E-3	-187.212E-12	678.944E-3	-13.1210E-3
-4.66483E-3	-188.702E-12	650.275E-3	-26.9835E-3	-187.117E-12	664.816E-3	-34.1477E-3
-4.66983E-3	-189.595E-12	663.975E-3	-3.14839E-3	-188.020E-12	624.810E-3	-45.2332E-3
-4.67484E-3	-190.186E-12	676.914E-3	3.26901E-3	-189.077E-12	619.460E-3	-35.2202E-3
-4.67984E-3	-190.743E-12	685.867E-3	-13.8173E-3	-189.359E-12	657.343E-3	-10.3636E-3
-4.68484E-3	-190.700E-12	695.618E-3	-19.0892E-3	-189.553E-12	686.914E-3	-2.37934E-3
-4.68984E-3	-192.074E-12	686.988E-3	148.812E-6	-190.680E-12	668.206E-3	-14.9930E-3
-4.69485E-3	-191.995E-12	671.585E-3	16.3627E-3	-191.751E-12	633.507E-3	-22.4369E-3
-4.69985E-3	-192.399E-12	666.543E-3	10.3583E-3	-192.124E-12	642.082E-3	-17.5628E-3
-4.70485E-3	-192.219E-12	662.182E-3	5.70807E-3	-192.472E-12	648.528E-3	-19.5744E-3
-4.70985E-3	-192.617E-12	650.722E-3	-5.22255E-3	-192.462E-12	663.098E-3	-37.4705E-3
-4.71486E-3	-191.737E-12	653.385E-3	-30.1880E-3	-193.403E-12	687.315E-3	-38.9716E-3
-4.71986E-3	-191.233E-12	672.993E-3	-32.5197E-3	-192.951E-12	670.618E-3	-11.9505E-3
-4.72486E-3	-190.922E-12	672.377E-3	-22.6786E-3	-193.054E-12	663.789E-3	-516.340E-6
-4.72986E-3	-191.065E-12	655.205E-3	-17.9509E-3	-192.764E-12	687.840E-3	-12.8740E-3
-4.73487E-3	-190.751E-12	649.007E-3	-5.81659E-3	-192.499E-12	703.021E-3	-21.3739E-3
-4.73987E-3	-191.048E-12	646.680E-3	9.04374E-3	-192.586E-12	700.358E-3	-22.4385E-3
-4.74487E-3	-191.817E-12	634.649E-3	21.7822E-3	-193.041E-12	688.179E-3	-19.9617E-3
-4.74988E-3	-193.007E-12	637.201E-3	20.3135E-3	-193.786E-12	680.219E-3	-18.1531E-3
-4.75488E-3	-192.843E-12	655.901E-3	-2.38031E-3	-193.450E-12	689.851E-3	-27.5218E-3
-4.75988E-3	-193.857E-12	671.164E-3	-30.2519E-3	-194.452E-12	690.740E-3	-39.4589E-3
-4.76488E-3	-194.255E-12	671.503E-3	-39.5214E-3	-194.515E-12	685.977E-3	-35.0636E-3
-4.76988E-3	-195.814E-12	653.977E-3	-40.6993E-3	-195.564E-12	681.771E-3	-28.7929E-3
-4.77489E-3	-195.811E-12	634.935E-3	-29.9136E-3	-195.305E-12	664.383E-3	-24.8922E-3
-4.77989E-3	-196.696E-12	641.007E-3	1.47786E-3	-196.219E-12	652.454E-3	-21.8007E-3
-4.78489E-3	-197.719E-12	671.361E-3	8.41641E-3	-196.978E-12	669.171E-3	-26.7464E-3
-4.78989E-3	-198.103E-12	701.436E-3	-1.32941E-3	-196.872E-12	676.958E-3	-25.9928E-3
-4.79490E-3	-198.720E-12	722.179E-3	-5.12323E-3	-196.865E-12	652.707E-3	-30.7849E-3
-4.79990E-3	-197.951E-12	698.945E-3	-10.6116E-3	-197.189E-12	642.827E-3	-39.5105E-3
-4.80490E-3	-197.675E-12	659.944E-3	-14.0270E-3	-197.212E-12	651.190E-3	-33.0225E-3
-4.80990E-3	-197.567E-12	655.103E-3	-11.0351E-3	-196.646E-12	671.170E-3	-15.8504E-3
-4.81491E-3	-198.137E-12	668.473E-3	-14.9164E-3	-195.951E-12	700.737E-3	611.084E-6
-4.81991E-3	-196.811E-12	688.605E-3	-23.9462E-3	-195.855E-12	721.490E-3	-323.504E-6
-4.82491E-3	-196.622E-12	689.547E-3	-29.5126E-3	-195.789E-12	711.881E-3	-2.17024E-3
-4.82991E-3	-196.577E-12	672.834E-3	-32.6659E-3	-195.319E-12	675.527E-3	-3.34373E-3
-4.83492E-3	-197.037E-12	686.074E-3	-19.7652E-3	-195.441E-12	652.551E-3	-11.3791E-3
-4.83992E-3	-197.118E-12	710.258E-3	-13.3401E-3	-195.446E-12	655.486E-3	-9.69253E-3
-4.84492E-3	-196.673E-12	676.907E-3	-21.2595E-3	-195.223E-12	674.314E-3	-10.3284E-3
-4.84992E-3	-197.451E-12	625.720E-3	-23.3994E-3	-195.835E-12	699.881E-3	-29.2611E-3
-4.85493E-3	-198.228E-12	624.109E-3	-30.1504E-3	-196.499E-12	710.063E-3	-42.1860E-3
-4.85993E-3	-198.604E-12	638.022E-3	-29.8421E-3	-196.784E-12	682.642E-3	-26.4352E-3
-4.86493E-3	-198.819E-12	639.170E-3	-24.9848E-3	-197.250E-12	634.976E-3	-8.35971E-3
-4.86993E-3	-199.243E-12	644.499E-3	-29.7021E-3	-197.696E-12	607.540E-3	-4.04676E-3
-4.87494E-3	-199.620E-12	657.698E-3	-44.7467E-3	-198.697E-12	619.551E-3	-12.1477E-3
-4.87994E-3	-198.750E-12	665.019E-3	-63.6234E-3	-198.707E-12	646.955E-3	-31.5425E-3
-4.88494E-3	-199.315E-12	663.969E-3	-62.2625E-3	-199.081E-12	663.463E-3	-32.3514E-3
-4.88995E-3	-198.939E-12	646.708E-3	-26.7969E-3	-199.109E-12	668.082E-3	-13.0590E-3
-4.89495E-3	-198.998E-12	641.179E-3	-1.03285E-3	-200.043E-12	663.088E-3	-8.92427E-3
-4.89995E-3	-198.763E-12	664.671E-3	-25.0853E-3	-200.308E-12	650.330E-3	409.851E-6
-4.90495E-3	-199.039E-12	663.462E-3	-38.4333E-3	-200.102E-12	639.941E-3	20.0490E-3
-4.90995E-3	-199.184E-12	649.707E-3	-20.9108E-3	-199.646E-12	645.190E-3	9.09945E-3
-4.91496E-3	-198.509E-12	650.061E-3	-29.4531E-3	-199.977E-12	644.431E-3	-5.45862E-3
-4.91996E-3	-199.424E-12	656.550E-3	-61.7259E-3	-199.899E-12	645.663E-3	891.873E-6
-4.92496E-3	-200.239E-12	659.099E-3	-62.4780E-3	-200.718E-12	672.269E-3	-8.01677E-3
-4.92996E-3	-200.164E-12	644.154E-3	-23.5178E-3	-199.761E-12	684.694E-3	-27.9928E-3
-4.93497E-3	-199.524E-12	649.619E-3	4.39001E-3	-200.311E-12	649.176E-3	-20.8842E-3
-4.93997E-3	-200.253E-12	672.577E-3	5.98546E-3	-201.207E-12	618.786E-3	-2.14817E-3
-4.94497E-3	-201.563E-12	666.724E-3	-15.2674E-3	-202.932E-12	623.719E-3	5.35038E-3
-4.94997E-3	-201.704E-12	650.268E-3	-47.7960E-3	-202.533E-12	639.526E-3	10.5430E-3
-4.95498E-3	-201.711E-12	642.590E-3	-49.1817E-3	-203.042E-12	660.593E-3	-5.08466E-3
-4.95998E-3	-201.972E-12	635.968E-3	-40.3360E-3	-203.164E-12	670.761E-3	-38.9598E-3
-4.96498E-3	-203.028E-12	631.827E-3	-34.9235E-3	-204.753E-12	658.848E-3	-53.4921E-3
-4.96998E-3	-203.533E-12	633.195E-3	-26.9002E-3	-205.098E-12	655.659E-3	-53.4767E-3
-4.97499E-3	-203.572E-12	652.771E-3	-27.5211E-3	-204.102E-12	668.815E-3	-48.8491E-3
-4.97999E-3	-203.020E-12	677.512E-3	-12.6476E-3	-204.025E-12	675.124E-3	-49.3676E-3
-4.98499E-3	-204.024E-12	680.412E-3	6.89400E-3	-205.304E-12	663.623E-3	-43.6543E-3
-4.98999E-3	-204.734E-12	667.748E-3	6.90261E-3	-205.447E-12	641.807E-3	-34.8086E-3
-4.99500E-3	-205.312E-12	662.212E-3	-357.178E-6	-205.150E-12	670.580E-3	-57.3877E-3
-5.00000E-3	-205.155E-12	699.776E-3	-27.3220E-3	-204.947E-12	720.476E-3	-63.0730E-3
