Experiment	bias spectroscopy	
Date	19.01.2016 19:53:44	
User		
X (m)	49.5703E-9	
Y (m)	256.349E-9	
Z (m)	-132.588E-9	
Z offset (m)	0E+0	
Settling time (s)	200E-6	
Integration time (s)	5E-3	
Z-Ctrl hold	TRUE	
Final Z (m)	N/A	
Filter type	None	
Order		
Cutoff frq		
Comment01	MnPc/Pb(111)	
Comment02	dz =00pm	
Comment03	7 Sweeps	
Comment04	MagField =0.T	
Comment05	Divider 1:10	
Comment06	Setpoint:5mV,200 pA	
Comment07	Lockin: 50uVrms,5ms,5mV	
Comment08	Gain:9; 912Hz modulation	
Comment09	T=1.06K	
Bias>Bias (V)	5E-3	
Bias>Calibration (V/V)	81.475E-3	
Bias>Offset (V)	1.046E-3	
Bias Spectroscopy>Sweep Start (V)	5E-3	
Bias Spectroscopy>Sweep End (V)	-5E-3	
Bias Spectroscopy>Num Pixel	2000	
Bias Spectroscopy>Z Avg time (s)	500E-3	
Bias Spectroscopy>Z offset (m)	0E+0	
Bias Spectroscopy>1st Settling time (s)	500E-3	
Bias Spectroscopy>Settling time (s)	200E-6	
Bias Spectroscopy>Integration time (s)	5E-3	
Bias Spectroscopy>End Settling time (s)	500E-3	
Bias Spectroscopy>Z control time (s)	500E-3	
Bias Spectroscopy>Max Slew rate (V/s)	Inf	
Bias Spectroscopy>backward sweep	TRUE	
Bias Spectroscopy>Z-controller hold	TRUE	
Bias Spectroscopy>Number of sweeps	7	
Bias Spectroscopy>Channels	Current (A);X% LockIn (V);Y% LockIn (V)	
Bias Spectroscopy>Reset Bias	TRUE	
Bias Spectroscopy>Record final Z	FALSE	
Bias Spectroscopy>Lock-In run	FALSE	
Bias Spectroscopy>Sweep mode	Linear	
Bias Spectroscopy>MultiLine Settings : Segment Start (V), Segment End (V), Settling (s), Integration (s), Steps (xn)	100E-3,3.3E-3,100E-6,10E-3,2500;3.3E-3,-3.3E-3,100E-6,10E-3,10;-3.3E-3,-100E-3,100E-6,10E-3,2500	
Current>Current (A)	200.126E-12	
Current>Calibration (A/V)	999.99900E-12	
Current>Offset (A)	-455.429E-15	
Current>Gain	LN 10^9	
Z-Controller>Z (m)	-132.589E-9	
Z-Controller>Controller name	log Current	
Z-Controller>Controller status	ON	
Z-Controller>Setpoint	200E-12	
Z-Controller>Setpoint unit	A	
Z-Controller>P gain	2.96994E-12	
Z-Controller>I gain	67.0321E-9	
Z-Controller>Time const (s)	44.3062E-6	
Z-Controller>TipLift (m)	0E+0	
Z-Controller>Switch off delay (s)	50E-3	
Current (A)	200.348E-12	
Z (m)	-132.589E-9	

[DATA]
Bias calc (V)	Current (A)	X% LockIn (V)	Y% LockIn (V)	Current [bwd] (A)	X% LockIn [bwd] (V)	Y% LockIn [bwd] (V)
5.00000E-3	201.781E-12	622.358E-3	-24.1626E-3	196.089E-12	628.266E-3	18.4619E-3
4.99500E-3	203.778E-12	614.874E-3	-29.4355E-3	196.406E-12	615.896E-3	-7.07540E-3
4.98999E-3	205.424E-12	600.357E-3	-991.508E-6	196.199E-12	622.039E-3	-12.1441E-3
4.98499E-3	205.837E-12	613.125E-3	26.2942E-3	196.872E-12	648.910E-3	-16.1017E-3
4.97999E-3	205.525E-12	645.141E-3	18.1125E-3	196.432E-12	621.415E-3	-17.6808E-3
4.97499E-3	205.292E-12	666.480E-3	11.4356E-3	196.950E-12	561.659E-3	3.35835E-3
4.96998E-3	204.711E-12	660.023E-3	-17.5429E-3	197.206E-12	556.332E-3	11.2296E-3
4.96498E-3	202.990E-12	628.317E-3	-39.8673E-3	198.146E-12	585.747E-3	-2.97838E-3
4.95998E-3	201.145E-12	600.547E-3	-26.6847E-3	198.489E-12	593.884E-3	-19.7124E-3
4.95498E-3	199.941E-12	595.305E-3	-26.8971E-3	199.433E-12	594.194E-3	-33.1875E-3
4.94997E-3	198.430E-12	624.364E-3	-36.6287E-3	200.601E-12	624.145E-3	-42.8415E-3
4.94497E-3	197.662E-12	658.376E-3	-24.7273E-3	201.603E-12	661.134E-3	-49.4348E-3
4.93997E-3	195.595E-12	652.911E-3	-25.9999E-3	201.302E-12	670.168E-3	-59.6857E-3
4.93497E-3	195.311E-12	633.177E-3	-33.7393E-3	200.159E-12	664.316E-3	-51.0688E-3
4.92996E-3	194.990E-12	613.397E-3	-26.6720E-3	198.665E-12	638.944E-3	-17.0176E-3
4.92496E-3	194.484E-12	604.462E-3	-26.6315E-3	197.200E-12	600.551E-3	1.15506E-3
4.91996E-3	194.273E-12	627.686E-3	-37.2926E-3	195.375E-12	580.177E-3	3.90530E-3
4.91496E-3	194.567E-12	655.832E-3	-35.2601E-3	193.106E-12	577.195E-3	13.0707E-3
4.90995E-3	195.062E-12	644.645E-3	-7.27417E-3	190.264E-12	596.758E-3	15.1999E-3
4.90495E-3	196.423E-12	607.071E-3	-2.08393E-3	188.952E-12	622.617E-3	2.04106E-3
4.89995E-3	197.106E-12	607.078E-3	-18.9492E-3	187.838E-12	608.392E-3	-21.0241E-3
4.89495E-3	196.954E-12	615.270E-3	-37.2065E-3	186.736E-12	582.035E-3	-38.7880E-3
4.88995E-3	197.528E-12	611.139E-3	-50.1281E-3	185.957E-12	582.256E-3	-49.1420E-3
4.88494E-3	198.501E-12	622.787E-3	-35.2279E-3	186.510E-12	614.623E-3	-31.7504E-3
4.87994E-3	198.670E-12	628.843E-3	-2.12278E-3	187.810E-12	658.402E-3	-4.73075E-3
4.87494E-3	198.195E-12	627.009E-3	-2.16460E-3	188.870E-12	651.139E-3	-9.62500E-3
4.86993E-3	197.009E-12	619.579E-3	-28.9600E-3	190.137E-12	610.690E-3	-20.4398E-3
4.86493E-3	196.750E-12	615.494E-3	-21.1570E-3	191.751E-12	609.425E-3	-46.7201E-3
4.85993E-3	196.753E-12	637.502E-3	-9.93076E-3	193.832E-12	630.286E-3	-66.2344E-3
4.85493E-3	195.208E-12	655.266E-3	-7.08489E-3	195.803E-12	625.905E-3	-32.5948E-3
4.84992E-3	193.274E-12	634.849E-3	-784.249E-6	197.366E-12	608.467E-3	-12.8048E-3
4.84492E-3	192.506E-12	615.762E-3	-19.5145E-3	197.905E-12	618.904E-3	-33.5700E-3
4.83992E-3	192.008E-12	627.852E-3	-35.6662E-3	198.283E-12	646.856E-3	-31.4316E-3
4.83492E-3	191.098E-12	637.688E-3	-24.1946E-3	198.283E-12	648.485E-3	1.79002E-3
4.82991E-3	189.690E-12	621.252E-3	-25.6711E-3	196.705E-12	625.053E-3	29.2268E-3
4.82491E-3	189.038E-12	611.588E-3	-42.4336E-3	195.172E-12	622.385E-3	14.5249E-3
4.81991E-3	188.947E-12	620.477E-3	-46.4413E-3	193.263E-12	634.734E-3	-24.3668E-3
4.81491E-3	189.493E-12	617.677E-3	-35.0750E-3	190.220E-12	619.914E-3	-39.4033E-3
4.80990E-3	188.988E-12	609.653E-3	-15.2127E-3	187.716E-12	591.480E-3	-28.3788E-3
4.80490E-3	189.218E-12	591.773E-3	-17.3176E-3	185.780E-12	578.893E-3	-7.11729E-3
4.79990E-3	189.617E-12	585.260E-3	-53.0570E-3	184.160E-12	580.457E-3	-5.63273E-3
4.79490E-3	190.517E-12	607.578E-3	-66.1945E-3	182.798E-12	572.563E-3	-20.9607E-3
4.78989E-3	190.418E-12	603.930E-3	-39.5614E-3	183.144E-12	575.988E-3	-24.2100E-3
4.78489E-3	190.594E-12	574.481E-3	-16.7898E-3	183.819E-12	613.593E-3	-25.3288E-3
4.77989E-3	190.691E-12	575.263E-3	-8.35540E-3	184.688E-12	634.312E-3	-34.6166E-3
4.77489E-3	191.557E-12	614.939E-3	9.12729E-3	185.904E-12	634.533E-3	-38.7761E-3
4.76988E-3	192.736E-12	636.332E-3	26.3436E-3	187.494E-12	656.014E-3	-35.9776E-3
4.76488E-3	192.273E-12	627.286E-3	5.22400E-3	189.873E-12	674.707E-3	-18.8263E-3
4.75988E-3	191.911E-12	618.174E-3	-16.9996E-3	191.580E-12	658.648E-3	14.1901E-3
4.75488E-3	191.860E-12	599.929E-3	-5.26466E-3	193.436E-12	653.374E-3	11.8732E-3
4.74988E-3	192.045E-12	602.069E-3	10.1329E-3	194.501E-12	661.133E-3	-33.6321E-3
4.74487E-3	191.260E-12	629.602E-3	4.61689E-3	195.493E-12	637.135E-3	-62.7151E-3
4.73987E-3	191.555E-12	631.967E-3	-13.9546E-3	195.311E-12	638.807E-3	-53.1965E-3
4.73487E-3	190.205E-12	618.570E-3	-29.4061E-3	194.825E-12	655.811E-3	-38.5597E-3
4.72986E-3	189.726E-12	612.656E-3	-19.7446E-3	193.245E-12	629.249E-3	-22.9195E-3
4.72486E-3	189.840E-12	629.330E-3	10.3122E-3	191.427E-12	607.633E-3	12.4489E-3
4.71986E-3	189.281E-12	647.769E-3	6.04223E-3	189.517E-12	579.774E-3	6.53537E-3
4.71486E-3	189.043E-12	641.270E-3	-11.1180E-3	187.218E-12	540.176E-3	-27.5710E-3
4.70985E-3	188.249E-12	611.969E-3	15.1978E-3	185.559E-12	550.686E-3	-11.1039E-3
4.70485E-3	188.525E-12	589.659E-3	33.9684E-3	183.141E-12	571.668E-3	3.07126E-3
4.69985E-3	187.698E-12	613.718E-3	-18.9923E-3	182.404E-12	567.158E-3	-13.9507E-3
4.69485E-3	187.878E-12	642.926E-3	-73.2477E-3	181.482E-12	580.939E-3	-16.1625E-3
4.68984E-3	187.134E-12	636.076E-3	-78.4825E-3	181.376E-12	606.551E-3	-12.9022E-3
4.68484E-3	188.487E-12	631.025E-3	-65.6858E-3	181.094E-12	619.007E-3	-18.1406E-3
4.67984E-3	187.724E-12	638.208E-3	-35.8155E-3	181.842E-12	625.478E-3	-3.95562E-3
4.67484E-3	187.995E-12	629.679E-3	-8.99559E-3	183.472E-12	616.719E-3	9.00448E-3
4.66983E-3	187.839E-12	639.428E-3	-8.60646E-3	184.872E-12	587.426E-3	-11.6943E-3
4.66483E-3	188.257E-12	665.681E-3	-15.0965E-3	185.448E-12	582.643E-3	-11.5819E-3
4.65983E-3	188.356E-12	657.634E-3	-12.4317E-3	186.619E-12	611.641E-3	9.09622E-3
4.65483E-3	188.223E-12	639.186E-3	-18.1230E-3	187.732E-12	615.355E-3	2.43826E-3
4.64982E-3	187.157E-12	642.017E-3	-19.0909E-3	188.526E-12	611.244E-3	-9.32691E-3
4.64482E-3	186.572E-12	644.877E-3	-17.8074E-3	188.794E-12	625.340E-3	-14.7281E-3
4.63982E-3	185.586E-12	626.398E-3	-22.4301E-3	188.527E-12	626.258E-3	-13.6819E-3
4.63482E-3	184.855E-12	611.975E-3	-12.3971E-3	188.106E-12	610.020E-3	2.67454E-3
4.62981E-3	183.818E-12	602.086E-3	-17.9706E-3	187.810E-12	610.321E-3	20.6403E-3
4.62481E-3	183.245E-12	594.090E-3	-42.3891E-3	186.936E-12	628.446E-3	32.8342E-3
4.61981E-3	181.817E-12	615.622E-3	-35.7744E-3	185.335E-12	641.682E-3	25.4222E-3
4.61481E-3	180.949E-12	630.264E-3	-19.5291E-3	183.966E-12	644.053E-3	9.22203E-3
4.60980E-3	179.536E-12	608.775E-3	-31.8202E-3	182.567E-12	635.121E-3	8.28562E-3
4.60480E-3	179.579E-12	602.425E-3	-42.0894E-3	181.583E-12	633.629E-3	8.71731E-3
4.59980E-3	178.929E-12	601.210E-3	-27.5177E-3	180.292E-12	636.537E-3	-5.96054E-3
4.59480E-3	179.018E-12	579.119E-3	-12.8837E-3	179.595E-12	620.763E-3	-13.6472E-3
4.58979E-3	179.115E-12	586.747E-3	-19.0432E-3	179.010E-12	597.074E-3	-10.2720E-3
4.58479E-3	179.964E-12	610.904E-3	-33.7103E-3	179.171E-12	581.237E-3	-3.83084E-3
4.57979E-3	181.048E-12	624.896E-3	-57.6160E-3	178.548E-12	575.847E-3	7.50861E-3
4.57479E-3	181.971E-12	624.243E-3	-63.3329E-3	178.240E-12	590.137E-3	-47.0239E-6
4.56978E-3	182.845E-12	600.563E-3	-39.6594E-3	178.286E-12	624.539E-3	-13.9832E-3
4.56478E-3	183.331E-12	589.887E-3	-23.1218E-3	179.004E-12	653.035E-3	-19.0508E-3
4.55978E-3	183.836E-12	608.652E-3	-2.68740E-3	178.840E-12	647.962E-3	-24.1923E-3
4.55478E-3	183.676E-12	615.429E-3	35.5943E-3	179.756E-12	631.834E-3	-6.00743E-3
4.54977E-3	183.854E-12	613.161E-3	42.9803E-3	180.278E-12	611.302E-3	15.0312E-3
4.54477E-3	182.755E-12	615.880E-3	-1.66792E-3	180.619E-12	591.929E-3	4.64459E-3
4.53977E-3	181.695E-12	606.972E-3	-13.6442E-3	181.781E-12	621.027E-3	2.47572E-3
4.53477E-3	180.971E-12	593.030E-3	8.47749E-3	182.386E-12	660.837E-3	4.73441E-3
4.52976E-3	179.207E-12	595.872E-3	266.009E-6	182.941E-12	656.291E-3	-13.0064E-3
4.52476E-3	177.290E-12	627.377E-3	-23.0035E-3	183.943E-12	649.958E-3	-27.3695E-3
4.51976E-3	176.083E-12	634.289E-3	-35.1367E-3	184.398E-12	659.477E-3	-38.2588E-3
4.51476E-3	175.554E-12	608.432E-3	-39.0511E-3	183.889E-12	640.965E-3	-38.7890E-3
4.50975E-3	175.204E-12	589.005E-3	-39.4574E-3	183.400E-12	610.362E-3	-19.8698E-3
4.50475E-3	174.649E-12	581.252E-3	-37.0997E-3	182.340E-12	607.963E-3	-9.34166E-3
4.49975E-3	174.928E-12	600.891E-3	-26.4854E-3	181.890E-12	617.162E-3	-19.0689E-3
4.49475E-3	175.733E-12	625.013E-3	-17.1843E-3	180.067E-12	618.065E-3	-22.1762E-3
4.48974E-3	176.966E-12	612.982E-3	-15.1225E-3	177.658E-12	605.015E-3	-28.6589E-3
4.48474E-3	178.016E-12	579.534E-3	-10.1794E-3	175.929E-12	576.189E-3	-43.6119E-3
4.47974E-3	179.160E-12	561.227E-3	-12.9526E-3	174.528E-12	577.332E-3	-32.3700E-3
4.47474E-3	179.918E-12	584.160E-3	-29.7374E-3	173.161E-12	608.159E-3	-30.6104E-3
4.46973E-3	181.259E-12	619.210E-3	-54.4549E-3	171.404E-12	618.622E-3	-57.0557E-3
4.46473E-3	181.792E-12	636.307E-3	-52.8967E-3	170.896E-12	615.579E-3	-58.9356E-3
4.45973E-3	182.390E-12	643.331E-3	-30.8386E-3	171.278E-12	629.610E-3	-28.6475E-3
4.45473E-3	181.350E-12	640.584E-3	-23.3920E-3	172.031E-12	646.352E-3	-8.51925E-3
4.44972E-3	181.085E-12	654.575E-3	-31.9433E-3	172.540E-12	642.424E-3	-13.9316E-3
4.44472E-3	179.871E-12	656.910E-3	-35.7813E-3	173.435E-12	657.624E-3	-28.8129E-3
4.43972E-3	179.260E-12	638.241E-3	-35.6468E-3	175.262E-12	688.446E-3	-37.1694E-3
4.43472E-3	176.734E-12	650.658E-3	-35.0002E-3	177.320E-12	684.498E-3	-22.0214E-3
4.42971E-3	175.450E-12	656.815E-3	-11.1308E-3	179.566E-12	657.973E-3	-6.00727E-3
4.42471E-3	174.495E-12	628.395E-3	4.24671E-3	180.521E-12	656.241E-3	-20.8653E-3
4.41971E-3	173.953E-12	602.891E-3	-12.5629E-3	181.873E-12	666.039E-3	-23.9061E-3
4.41471E-3	173.248E-12	593.429E-3	-22.4292E-3	182.594E-12	659.394E-3	6.31875E-3
4.40970E-3	173.183E-12	603.887E-3	-20.0502E-3	182.883E-12	653.280E-3	18.9454E-3
4.40470E-3	173.592E-12	629.602E-3	-18.5172E-3	181.213E-12	641.384E-3	-5.31125E-3
4.39970E-3	174.131E-12	638.937E-3	-675.441E-6	178.823E-12	615.806E-3	-27.8121E-3
4.39470E-3	174.918E-12	621.456E-3	10.9941E-3	176.759E-12	597.434E-3	-33.3243E-3
4.38969E-3	175.654E-12	613.361E-3	3.32479E-3	174.451E-12	599.580E-3	-46.1676E-3
4.38469E-3	176.761E-12	621.867E-3	4.93741E-3	171.660E-12	609.736E-3	-56.4858E-3
4.37969E-3	176.946E-12	620.886E-3	7.55001E-3	168.929E-12	598.559E-3	-38.8045E-3
4.37469E-3	177.928E-12	621.370E-3	-23.8593E-3	166.834E-12	564.940E-3	-18.2300E-3
4.36968E-3	178.323E-12	640.343E-3	-59.7553E-3	165.883E-12	543.689E-3	-24.0649E-3
4.36468E-3	178.080E-12	645.165E-3	-44.2399E-3	165.020E-12	562.538E-3	-33.3309E-3
4.35968E-3	177.296E-12	623.784E-3	-17.2483E-3	164.806E-12	600.133E-3	-33.2616E-3
4.35468E-3	176.555E-12	620.461E-3	6.29095E-3	164.567E-12	625.632E-3	-31.1101E-3
4.34967E-3	175.476E-12	634.457E-3	11.7195E-3	165.599E-12	647.030E-3	-25.9821E-3
4.34467E-3	173.923E-12	643.102E-3	-16.4756E-3	168.109E-12	650.089E-3	-24.3736E-3
4.33967E-3	172.790E-12	652.938E-3	-47.5756E-3	169.946E-12	636.593E-3	-23.2043E-3
4.33467E-3	171.387E-12	643.829E-3	-61.5304E-3	171.726E-12	645.585E-3	-26.3486E-3
4.32966E-3	170.559E-12	629.998E-3	-44.6859E-3	173.566E-12	639.423E-3	-38.6049E-3
4.32466E-3	169.862E-12	636.026E-3	-27.7235E-3	175.870E-12	605.292E-3	-45.2670E-3
4.31966E-3	169.699E-12	614.204E-3	-16.7620E-3	176.490E-12	601.631E-3	-45.8109E-3
4.31466E-3	169.396E-12	572.720E-3	-5.19465E-3	176.739E-12	615.438E-3	-39.6555E-3
4.30965E-3	169.881E-12	583.177E-3	-18.2928E-3	175.968E-12	628.520E-3	-24.5788E-3
4.30465E-3	169.496E-12	608.269E-3	-43.3681E-3	174.577E-12	637.909E-3	-18.8107E-3
4.29965E-3	170.256E-12	601.573E-3	-38.4558E-3	172.335E-12	627.937E-3	-19.1116E-3
4.29465E-3	170.266E-12	609.599E-3	-11.6407E-3	170.721E-12	617.598E-3	-4.41215E-3
4.28964E-3	170.369E-12	633.131E-3	1.88782E-3	168.331E-12	620.624E-3	-1.69090E-3
4.28464E-3	170.509E-12	644.422E-3	-8.64341E-3	166.871E-12	638.798E-3	-21.9742E-3
4.27964E-3	171.022E-12	656.325E-3	-13.0969E-3	165.619E-12	637.181E-3	-24.7858E-3
4.27464E-3	171.284E-12	666.239E-3	-7.20333E-3	164.304E-12	615.618E-3	-18.4142E-3
4.26963E-3	171.364E-12	658.629E-3	-6.71045E-3	163.278E-12	617.898E-3	-25.0467E-3
4.26463E-3	171.275E-12	641.067E-3	-4.51270E-3	163.088E-12	617.483E-3	-24.6210E-3
4.25963E-3	171.008E-12	622.100E-3	12.7562E-3	163.253E-12	612.327E-3	-1.12293E-3
4.25463E-3	170.474E-12	612.642E-3	13.7290E-3	163.766E-12	623.617E-3	2.28672E-3
4.24962E-3	170.176E-12	632.945E-3	-15.0992E-3	164.352E-12	624.026E-3	-20.0184E-3
4.24462E-3	169.597E-12	660.961E-3	-17.2053E-3	165.960E-12	623.272E-3	-25.9253E-3
4.23962E-3	169.427E-12	657.327E-3	-6.02651E-3	167.465E-12	635.244E-3	-19.1239E-3
4.23462E-3	169.387E-12	648.969E-3	-25.9382E-3	168.986E-12	633.094E-3	-16.0945E-3
4.22961E-3	168.589E-12	647.636E-3	-46.5720E-3	169.912E-12	622.588E-3	-10.5390E-3
4.22461E-3	168.253E-12	625.485E-3	-35.8401E-3	170.960E-12	620.477E-3	-820.530E-6
4.21961E-3	168.187E-12	611.874E-3	-27.7693E-3	171.299E-12	623.317E-3	3.71902E-3
4.21461E-3	167.444E-12	618.290E-3	-21.4182E-3	171.766E-12	620.073E-3	1.29435E-3
4.20960E-3	166.839E-12	616.909E-3	-4.73574E-3	170.969E-12	615.432E-3	-11.5830E-3
4.20460E-3	165.798E-12	613.521E-3	-8.59698E-3	170.120E-12	615.981E-3	-27.0262E-3
4.19960E-3	165.144E-12	617.649E-3	-22.4134E-3	169.083E-12	615.847E-3	-18.4676E-3
4.19460E-3	164.411E-12	609.205E-3	-30.6078E-3	168.254E-12	622.946E-3	2.28024E-3
4.18959E-3	164.070E-12	597.376E-3	-42.0623E-3	167.488E-12	622.597E-3	-10.6008E-3
4.18459E-3	163.463E-12	601.262E-3	-36.0367E-3	166.138E-12	612.622E-3	-20.6110E-3
4.17959E-3	163.254E-12	607.299E-3	-6.32078E-3	164.877E-12	610.929E-3	-518.423E-6
4.17459E-3	163.347E-12	611.307E-3	-6.12973E-3	164.138E-12	611.422E-3	-1.25464E-3
4.16958E-3	163.209E-12	628.131E-3	-23.7317E-3	163.727E-12	608.016E-3	-34.7118E-3
4.16458E-3	163.799E-12	632.970E-3	-15.2859E-3	162.312E-12	598.638E-3	-75.2731E-3
4.15958E-3	164.120E-12	614.574E-3	4.22020E-3	162.493E-12	596.052E-3	-85.3034E-3
4.15458E-3	164.873E-12	620.304E-3	17.6453E-3	161.958E-12	599.240E-3	-55.4353E-3
4.14957E-3	166.237E-12	627.751E-3	12.6328E-3	162.696E-12	600.682E-3	-22.3897E-3
4.14457E-3	167.571E-12	616.160E-3	4.62854E-3	162.173E-12	609.687E-3	-23.8416E-3
4.13957E-3	168.384E-12	623.877E-3	8.33871E-3	162.900E-12	614.534E-3	-30.3414E-3
4.13457E-3	168.348E-12	636.954E-3	13.8446E-3	162.619E-12	613.724E-3	-725.900E-6
4.12956E-3	168.444E-12	636.145E-3	-1.50301E-3	163.588E-12	607.256E-3	17.3944E-3
4.12456E-3	168.460E-12	651.924E-3	-27.1068E-3	163.871E-12	604.683E-3	8.92640E-3
4.11956E-3	167.814E-12	650.436E-3	-18.1411E-3	164.548E-12	622.485E-3	-86.1544E-6
4.11456E-3	166.553E-12	626.060E-3	4.81899E-3	164.480E-12	638.578E-3	-16.0921E-3
4.10955E-3	164.531E-12	631.231E-3	-2.00810E-3	164.847E-12	647.464E-3	-30.0272E-3
4.10455E-3	163.275E-12	637.429E-3	-24.7273E-3	165.050E-12	663.633E-3	-22.1839E-3
4.09955E-3	161.949E-12	635.112E-3	-35.0691E-3	165.278E-12	669.100E-3	-16.9846E-3
4.09455E-3	160.510E-12	638.718E-3	-35.5944E-3	164.960E-12	649.967E-3	-30.5668E-3
4.08954E-3	158.527E-12	641.554E-3	-31.1305E-3	164.644E-12	619.974E-3	-23.4691E-3
4.08454E-3	158.002E-12	640.777E-3	-16.5745E-3	163.510E-12	617.669E-3	-6.98023E-3
4.07954E-3	157.392E-12	638.286E-3	-15.5471E-3	162.913E-12	641.996E-3	-20.9527E-3
4.07454E-3	157.999E-12	634.075E-3	-20.3081E-3	161.763E-12	634.132E-3	-23.1474E-3
4.06953E-3	157.732E-12	613.292E-3	-22.1069E-3	159.986E-12	600.425E-3	-6.91297E-3
4.06453E-3	158.826E-12	588.252E-3	-41.9505E-3	158.680E-12	580.451E-3	-11.0050E-3
4.05953E-3	159.879E-12	595.245E-3	-42.7955E-3	157.816E-12	572.134E-3	-17.1257E-3
4.05453E-3	162.310E-12	630.306E-3	-32.0435E-3	156.486E-12	580.006E-3	-24.0010E-3
4.04952E-3	163.422E-12	646.716E-3	-35.1476E-3	155.694E-12	598.860E-3	-51.3910E-3
4.04452E-3	164.565E-12	646.871E-3	-27.0394E-3	154.665E-12	597.801E-3	-65.8996E-3
4.03952E-3	165.357E-12	646.675E-3	-15.2747E-3	154.835E-12	588.290E-3	-51.9030E-3
4.03452E-3	166.055E-12	641.372E-3	-24.7458E-3	155.237E-12	586.878E-3	-29.9424E-3
4.02951E-3	165.269E-12	622.612E-3	-27.8134E-3	155.348E-12	591.713E-3	5.81285E-3
4.02451E-3	164.415E-12	619.521E-3	-14.2902E-3	155.701E-12	605.013E-3	42.7676E-3
4.01951E-3	162.549E-12	644.517E-3	-19.8947E-3	156.901E-12	618.777E-3	43.8293E-3
4.01451E-3	160.974E-12	660.037E-3	-22.6845E-3	158.801E-12	628.517E-3	18.1469E-3
4.00950E-3	159.062E-12	654.496E-3	-25.8047E-3	160.437E-12	630.118E-3	-12.4246E-3
4.00450E-3	156.824E-12	634.904E-3	-46.3332E-3	160.916E-12	632.948E-3	-26.4910E-3
3.99950E-3	155.286E-12	626.308E-3	-52.5894E-3	161.393E-12	644.394E-3	-13.3705E-3
3.99450E-3	153.385E-12	627.932E-3	-40.7961E-3	161.839E-12	655.185E-3	-15.8472E-3
3.98949E-3	152.824E-12	622.252E-3	-33.0630E-3	162.214E-12	631.826E-3	-45.5326E-3
3.98449E-3	152.849E-12	605.694E-3	-34.6176E-3	161.787E-12	594.723E-3	-48.6368E-3
3.97949E-3	152.554E-12	596.362E-3	-28.9512E-3	159.806E-12	586.587E-3	-13.3636E-3
3.97449E-3	153.416E-12	614.271E-3	-22.4945E-3	157.854E-12	587.137E-3	14.1370E-3
3.96948E-3	154.650E-12	636.207E-3	-35.0394E-3	156.749E-12	588.750E-3	9.39050E-3
3.96448E-3	156.221E-12	650.474E-3	-31.1921E-3	154.791E-12	588.876E-3	-11.9553E-3
3.95948E-3	156.996E-12	646.349E-3	-19.8941E-3	152.661E-12	578.547E-3	-24.6876E-3
3.95448E-3	158.362E-12	642.636E-3	-40.2997E-3	151.209E-12	573.405E-3	-25.8951E-3
3.94947E-3	159.186E-12	659.352E-3	-48.6229E-3	150.150E-12	591.234E-3	-17.3778E-3
3.94447E-3	159.654E-12	650.759E-3	-44.9885E-3	149.785E-12	620.134E-3	-15.7923E-3
3.93947E-3	159.840E-12	644.612E-3	-48.4996E-3	149.461E-12	610.774E-3	-32.5769E-3
3.93447E-3	159.718E-12	661.965E-3	-28.4061E-3	150.083E-12	588.871E-3	-47.4930E-3
3.92946E-3	158.760E-12	661.872E-3	-9.37812E-3	151.029E-12	600.551E-3	-45.4213E-3
3.92446E-3	157.790E-12	663.933E-3	-23.4619E-3	151.540E-12	626.653E-3	-30.2253E-3
3.91946E-3	156.364E-12	672.007E-3	-29.6266E-3	153.473E-12	644.032E-3	-25.2437E-3
3.91446E-3	155.157E-12	658.582E-3	-17.6904E-3	154.875E-12	638.056E-3	-40.8689E-3
3.90945E-3	153.325E-12	644.641E-3	-19.6662E-3	156.908E-12	635.493E-3	-48.0378E-3
3.90445E-3	152.591E-12	649.912E-3	-15.9803E-3	157.726E-12	638.649E-3	-18.3982E-3
3.89945E-3	152.105E-12	656.299E-3	-7.17473E-3	158.683E-12	633.562E-3	7.59453E-3
3.89445E-3	151.894E-12	653.317E-3	-14.9493E-3	159.143E-12	628.349E-3	1.42229E-3
3.88944E-3	151.616E-12	647.507E-3	-11.2299E-3	158.986E-12	616.247E-3	12.6371E-3
3.88444E-3	152.153E-12	642.819E-3	6.55929E-3	158.442E-12	626.205E-3	30.5074E-3
3.87944E-3	152.633E-12	625.355E-3	2.71047E-3	156.779E-12	647.743E-3	11.3457E-3
3.87444E-3	153.666E-12	609.381E-3	-1.21755E-3	155.540E-12	641.260E-3	-9.30279E-3
3.86943E-3	153.689E-12	621.291E-3	-7.28609E-3	152.675E-12	626.483E-3	-8.65901E-3
3.86443E-3	154.746E-12	641.645E-3	-26.8185E-3	150.722E-12	620.080E-3	-9.29292E-3
3.85943E-3	154.651E-12	654.772E-3	-22.5527E-3	148.751E-12	616.322E-3	-21.0497E-3
3.85443E-3	155.405E-12	650.945E-3	-11.7380E-3	147.776E-12	618.325E-3	-35.2423E-3
3.84942E-3	155.337E-12	631.108E-3	-25.0026E-3	146.482E-12	631.649E-3	-52.9490E-3
3.84442E-3	155.533E-12	620.234E-3	-29.7673E-3	145.314E-12	631.471E-3	-54.7272E-3
3.83942E-3	155.242E-12	623.065E-3	-8.61454E-3	144.898E-12	621.417E-3	-26.0484E-3
3.83442E-3	154.691E-12	627.544E-3	87.3836E-6	145.069E-12	632.552E-3	-16.8012E-3
3.82941E-3	153.855E-12	639.869E-3	-12.4358E-3	145.321E-12	642.314E-3	-13.4970E-3
3.82441E-3	153.117E-12	656.631E-3	-27.6563E-3	146.050E-12	639.256E-3	9.46023E-3
3.81941E-3	153.208E-12	652.737E-3	-32.3518E-3	147.748E-12	647.200E-3	-2.83165E-3
3.81441E-3	151.786E-12	643.908E-3	-33.7624E-3	148.977E-12	643.251E-3	-44.3942E-3
3.80940E-3	151.762E-12	646.313E-3	-25.2124E-3	150.363E-12	628.444E-3	-65.8339E-3
3.80440E-3	151.341E-12	641.965E-3	-3.19425E-3	152.081E-12	638.295E-3	-66.0609E-3
3.79940E-3	151.498E-12	621.834E-3	3.23214E-3	152.997E-12	653.640E-3	-53.5753E-3
3.79440E-3	151.268E-12	602.280E-3	707.529E-6	153.860E-12	651.389E-3	-27.1028E-3
3.78939E-3	151.095E-12	611.523E-3	442.697E-6	153.733E-12	632.471E-3	-25.5071E-3
3.78439E-3	150.448E-12	638.816E-3	-15.8132E-3	153.680E-12	615.638E-3	-39.6065E-3
3.77939E-3	150.464E-12	651.160E-3	-38.5341E-3	152.445E-12	622.564E-3	-22.0519E-3
3.77439E-3	149.292E-12	649.836E-3	-36.7289E-3	150.932E-12	638.936E-3	-17.9793E-3
3.76938E-3	148.588E-12	638.951E-3	-24.9914E-3	149.383E-12	634.703E-3	-35.8064E-3
3.76438E-3	147.254E-12	631.268E-3	-17.5155E-3	147.669E-12	617.724E-3	-23.0409E-3
3.75938E-3	146.898E-12	638.485E-3	-6.03876E-3	146.349E-12	613.906E-3	-8.79698E-3
3.75438E-3	145.881E-12	633.744E-3	7.22645E-3	144.457E-12	612.710E-3	-8.24444E-3
3.74937E-3	145.486E-12	606.915E-3	8.94487E-3	143.214E-12	600.488E-3	3.61156E-3
3.74437E-3	144.449E-12	589.295E-3	5.43811E-3	142.189E-12	590.328E-3	1.24956E-3
3.73937E-3	144.717E-12	596.017E-3	347.185E-6	141.681E-12	585.248E-3	-21.4267E-3
3.73437E-3	145.404E-12	603.601E-3	-14.2952E-3	140.779E-12	586.639E-3	-24.7787E-3
3.72936E-3	145.920E-12	604.004E-3	-11.8357E-3	140.937E-12	613.804E-3	-14.8416E-3
3.72436E-3	146.029E-12	612.720E-3	-6.96776E-3	141.435E-12	658.573E-3	-25.4438E-3
3.71936E-3	147.015E-12	635.436E-3	-20.7394E-3	142.404E-12	667.880E-3	-36.1711E-3
3.71436E-3	147.345E-12	650.144E-3	-15.7947E-3	142.691E-12	641.157E-3	-27.4147E-3
3.70935E-3	148.071E-12	642.854E-3	415.432E-6	144.104E-12	633.950E-3	-25.3868E-3
3.70435E-3	148.355E-12	634.091E-3	-3.25835E-3	145.500E-12	645.162E-3	-39.7601E-3
3.69935E-3	147.760E-12	626.584E-3	-9.21333E-3	146.865E-12	638.209E-3	-41.2268E-3
3.69435E-3	147.639E-12	625.388E-3	-11.1000E-3	147.520E-12	625.203E-3	-26.3041E-3
3.68934E-3	147.391E-12	634.769E-3	-28.4587E-3	148.284E-12	622.587E-3	-21.8338E-3
3.68434E-3	146.103E-12	644.654E-3	-48.5852E-3	148.886E-12	616.291E-3	-23.0007E-3
3.67934E-3	144.935E-12	648.662E-3	-44.0353E-3	148.843E-12	613.276E-3	-20.4111E-3
3.67434E-3	143.817E-12	644.164E-3	-23.8237E-3	148.526E-12	624.780E-3	-21.9873E-3
3.66933E-3	142.701E-12	639.229E-3	-2.65829E-3	148.526E-12	641.819E-3	-12.5542E-3
3.66433E-3	141.634E-12	626.583E-3	5.28314E-3	147.175E-12	655.662E-3	1.66966E-3
3.65933E-3	140.837E-12	608.231E-3	-15.6940E-3	146.295E-12	661.838E-3	-10.6071E-3
3.65433E-3	140.126E-12	608.732E-3	-34.2478E-3	144.960E-12	651.458E-3	-32.9939E-3
3.64932E-3	139.956E-12	606.338E-3	-38.1924E-3	143.648E-12	619.367E-3	-34.1642E-3
3.64432E-3	140.283E-12	594.995E-3	-47.1189E-3	142.164E-12	576.419E-3	-22.0092E-3
3.63932E-3	140.979E-12	599.110E-3	-37.4915E-3	141.076E-12	551.535E-3	-7.53258E-3
3.63432E-3	141.851E-12	605.307E-3	-12.5817E-3	139.878E-12	574.839E-3	1.43182E-3
3.62931E-3	143.101E-12	605.558E-3	-8.72111E-3	139.212E-12	602.189E-3	-1.51124E-3
3.62431E-3	143.989E-12	606.705E-3	-17.5097E-3	138.811E-12	595.209E-3	-12.9271E-3
3.61931E-3	144.517E-12	612.606E-3	-27.3507E-3	138.281E-12	607.314E-3	-22.0103E-3
3.61431E-3	145.159E-12	614.088E-3	-40.8552E-3	138.545E-12	629.405E-3	-13.0544E-3
3.60930E-3	144.999E-12	619.899E-3	-51.2950E-3	138.936E-12	623.459E-3	4.94820E-3
3.60430E-3	144.862E-12	636.264E-3	-45.6888E-3	139.347E-12	627.374E-3	9.98209E-3
3.59930E-3	144.030E-12	651.355E-3	-33.3544E-3	139.846E-12	640.887E-3	-16.8100E-3
3.59430E-3	142.997E-12	654.836E-3	-33.9983E-3	140.794E-12	649.285E-3	-44.3964E-3
3.58929E-3	142.182E-12	649.326E-3	-33.3785E-3	141.719E-12	681.156E-3	-24.8912E-3
3.58429E-3	140.523E-12	650.090E-3	-34.3167E-3	143.429E-12	698.223E-3	-6.24638E-3
3.57929E-3	139.548E-12	660.239E-3	-38.9930E-3	144.415E-12	673.568E-3	-18.7859E-3
3.57429E-3	138.913E-12	667.479E-3	-28.1916E-3	144.701E-12	647.575E-3	-16.7082E-3
3.56928E-3	138.437E-12	659.656E-3	-12.6550E-3	144.474E-12	631.132E-3	-9.10249E-3
3.56428E-3	137.961E-12	655.559E-3	-11.6363E-3	144.176E-12	633.370E-3	-21.5960E-3
3.55928E-3	138.051E-12	650.803E-3	-10.6828E-3	143.489E-12	655.021E-3	-28.4354E-3
3.55428E-3	138.354E-12	638.430E-3	-4.84521E-3	142.270E-12	653.167E-3	-25.9664E-3
3.54927E-3	139.007E-12	632.538E-3	-1.31845E-3	140.130E-12	619.750E-3	-34.4904E-3
3.54427E-3	139.475E-12	623.866E-3	10.6481E-3	139.148E-12	597.048E-3	-43.3073E-3
3.53927E-3	139.918E-12	606.220E-3	21.5794E-3	137.744E-12	598.709E-3	-33.5599E-3
3.53427E-3	140.795E-12	608.070E-3	3.55675E-3	135.886E-12	617.746E-3	-18.3522E-3
3.52926E-3	141.410E-12	623.535E-3	-19.6205E-3	133.859E-12	620.995E-3	-6.83740E-3
3.52426E-3	142.160E-12	618.292E-3	-24.0771E-3	133.196E-12	610.839E-3	-8.12292E-3
3.51926E-3	141.763E-12	610.766E-3	-32.7352E-3	132.703E-12	600.443E-3	-16.6398E-3
3.51426E-3	141.910E-12	614.111E-3	-24.4908E-3	132.259E-12	582.344E-3	-17.0147E-3
3.50925E-3	141.078E-12	620.703E-3	2.35738E-3	131.864E-12	581.771E-3	-29.3055E-3
3.50425E-3	140.034E-12	624.255E-3	11.2729E-3	132.486E-12	591.692E-3	-44.1147E-3
3.49925E-3	138.443E-12	635.496E-3	-5.07778E-3	133.491E-12	585.582E-3	-32.6862E-3
3.49425E-3	137.436E-12	647.338E-3	-27.3623E-3	134.971E-12	589.426E-3	-20.7277E-3
3.48924E-3	136.023E-12	641.902E-3	-30.5059E-3	136.100E-12	613.193E-3	-26.8220E-3
3.48424E-3	135.075E-12	632.239E-3	-24.3758E-3	137.947E-12	628.029E-3	-16.4043E-3
3.47924E-3	134.099E-12	618.674E-3	-8.99125E-3	138.863E-12	637.896E-3	3.01985E-3
3.47424E-3	133.404E-12	613.248E-3	-1.53654E-3	140.327E-12	648.824E-3	2.89572E-3
3.46923E-3	133.492E-12	623.373E-3	-13.1900E-3	140.077E-12	645.065E-3	2.92143E-3
3.46423E-3	133.038E-12	624.535E-3	-30.2521E-3	139.856E-12	641.912E-3	2.49140E-3
3.45923E-3	133.886E-12	615.725E-3	-47.3864E-3	139.033E-12	652.730E-3	-10.9253E-3
3.45423E-3	133.992E-12	630.788E-3	-40.0347E-3	138.174E-12	661.545E-3	-8.85026E-3
3.44922E-3	134.787E-12	664.071E-3	-23.6285E-3	136.890E-12	661.362E-3	10.8387E-3
3.44422E-3	135.218E-12	673.830E-3	-12.2007E-3	134.950E-12	639.950E-3	9.53934E-3
3.43922E-3	136.304E-12	659.540E-3	11.5524E-3	132.912E-12	604.701E-3	-5.09096E-3
3.43422E-3	136.522E-12	646.698E-3	20.4652E-3	131.559E-12	593.460E-3	-3.77250E-3
3.42921E-3	136.276E-12	633.576E-3	-6.14973E-3	130.049E-12	606.629E-3	-739.257E-6
3.42421E-3	136.159E-12	619.825E-3	-34.9449E-3	128.797E-12	614.660E-3	-4.76130E-3
3.41921E-3	136.430E-12	627.271E-3	-26.5519E-3	127.935E-12	612.560E-3	-9.79566E-3
3.41421E-3	135.677E-12	645.849E-3	841.213E-6	127.825E-12	607.357E-3	-22.7428E-3
3.40920E-3	134.676E-12	644.996E-3	2.20709E-3	127.902E-12	603.317E-3	-36.1822E-3
3.40420E-3	133.460E-12	631.844E-3	-16.1520E-3	128.606E-12	625.058E-3	-33.0966E-3
3.39920E-3	132.529E-12	627.731E-3	-21.0590E-3	129.467E-12	660.587E-3	-30.9494E-3
3.39420E-3	131.391E-12	636.699E-3	-6.68918E-3	131.613E-12	665.983E-3	-18.6758E-3
3.38919E-3	130.750E-12	646.824E-3	5.21266E-3	132.911E-12	651.176E-3	9.27605E-3
3.38419E-3	130.200E-12	644.264E-3	3.05570E-3	134.052E-12	650.021E-3	5.07095E-3
3.37919E-3	130.292E-12	636.382E-3	-14.7404E-3	135.741E-12	655.464E-3	-20.5769E-3
3.37419E-3	129.891E-12	637.509E-3	-25.6556E-3	136.516E-12	658.729E-3	-37.3551E-3
3.36918E-3	130.386E-12	637.133E-3	-20.6639E-3	137.105E-12	660.497E-3	-51.5688E-3
3.36418E-3	130.188E-12	631.756E-3	-26.2600E-3	137.257E-12	647.878E-3	-55.1593E-3
3.35918E-3	130.481E-12	637.686E-3	-30.7092E-3	136.962E-12	635.268E-3	-43.7098E-3
3.35418E-3	130.339E-12	636.574E-3	-18.0942E-3	136.325E-12	638.573E-3	-44.3939E-3
3.34917E-3	130.769E-12	639.533E-3	-21.8789E-3	134.790E-12	649.630E-3	-51.2490E-3
3.34417E-3	130.821E-12	655.634E-3	-25.7087E-3	133.148E-12	648.032E-3	-33.0571E-3
3.33917E-3	130.680E-12	658.080E-3	5.14752E-3	131.857E-12	637.038E-3	-10.6342E-3
3.33417E-3	130.591E-12	656.904E-3	12.6578E-3	129.809E-12	629.932E-3	-20.9090E-3
3.32916E-3	130.594E-12	659.781E-3	-7.59706E-3	127.697E-12	631.564E-3	-37.5545E-3
3.32416E-3	130.277E-12	661.197E-3	-8.06406E-3	126.331E-12	645.594E-3	-28.9353E-3
3.31916E-3	129.820E-12	648.455E-3	8.24202E-3	125.546E-12	641.859E-3	-20.5196E-3
3.31416E-3	129.624E-12	622.079E-3	15.9013E-3	125.320E-12	615.386E-3	-15.8286E-3
3.30915E-3	129.258E-12	614.342E-3	15.0407E-3	124.338E-12	609.763E-3	-8.68056E-3
3.30415E-3	129.012E-12	635.213E-3	21.2672E-3	124.396E-12	615.984E-3	-21.3635E-3
3.29915E-3	128.667E-12	653.326E-3	12.0616E-3	124.645E-12	608.702E-3	-30.5281E-3
3.29415E-3	128.545E-12	652.911E-3	-15.6750E-3	125.573E-12	610.530E-3	-22.6569E-3
3.28914E-3	128.798E-12	641.034E-3	-24.3149E-3	126.247E-12	629.111E-3	-22.9667E-3
3.28414E-3	129.122E-12	634.600E-3	-2.02383E-3	126.701E-12	634.074E-3	-22.8161E-3
3.27914E-3	129.080E-12	636.395E-3	-3.29333E-3	127.786E-12	638.498E-3	-18.8467E-3
3.27414E-3	128.956E-12	632.219E-3	-27.8336E-3	128.484E-12	658.051E-3	-28.8192E-3
3.26913E-3	129.155E-12	635.341E-3	-22.6231E-3	129.750E-12	652.165E-3	-34.9299E-3
3.26413E-3	129.375E-12	632.197E-3	-8.50398E-3	129.405E-12	628.210E-3	-29.7658E-3
3.25913E-3	129.108E-12	607.555E-3	-13.7576E-3	129.845E-12	639.434E-3	-37.7158E-3
3.25413E-3	128.693E-12	600.070E-3	-31.4812E-3	129.096E-12	660.994E-3	-50.2095E-3
3.24912E-3	127.915E-12	621.609E-3	-47.7564E-3	129.032E-12	659.253E-3	-31.7810E-3
3.24412E-3	127.685E-12	634.122E-3	-57.9508E-3	127.871E-12	655.889E-3	-7.57703E-3
3.23912E-3	127.030E-12	625.635E-3	-53.4622E-3	127.026E-12	642.660E-3	-12.5276E-3
3.23412E-3	126.618E-12	621.340E-3	-39.6228E-3	126.234E-12	625.076E-3	-12.6509E-3
3.22911E-3	126.009E-12	638.453E-3	-32.1811E-3	125.319E-12	625.980E-3	-9.89538E-3
3.22411E-3	125.865E-12	655.801E-3	-29.9278E-3	123.995E-12	632.227E-3	-22.5926E-3
3.21911E-3	125.516E-12	656.158E-3	-27.5074E-3	122.894E-12	633.321E-3	-23.2932E-3
3.21411E-3	125.656E-12	646.914E-3	-9.83017E-3	122.356E-12	633.159E-3	-24.1859E-3
3.20910E-3	125.833E-12	630.904E-3	5.97451E-3	121.473E-12	627.234E-3	-33.5004E-3
3.20410E-3	125.820E-12	635.728E-3	-1.47552E-3	120.740E-12	625.353E-3	-18.6673E-3
3.19910E-3	125.464E-12	649.148E-3	-6.14218E-3	120.679E-12	643.826E-3	5.73083E-3
3.19410E-3	125.851E-12	646.621E-3	5.82550E-3	120.629E-12	659.112E-3	15.4193E-3
3.18909E-3	125.922E-12	633.462E-3	6.44507E-3	120.929E-12	652.605E-3	10.3101E-3
3.18409E-3	126.246E-12	624.870E-3	-8.63881E-3	121.097E-12	650.109E-3	-2.40930E-3
3.17909E-3	125.064E-12	639.326E-3	-21.3510E-3	121.851E-12	656.992E-3	-11.2604E-3
3.17409E-3	124.439E-12	654.013E-3	-25.3278E-3	122.751E-12	650.317E-3	-15.4866E-3
3.16908E-3	123.111E-12	651.421E-3	-9.31963E-3	123.328E-12	649.205E-3	-13.8537E-3
3.16408E-3	122.712E-12	633.674E-3	11.6221E-3	124.146E-12	664.831E-3	-19.4655E-3
3.15908E-3	121.353E-12	620.839E-3	3.00695E-3	124.489E-12	661.256E-3	-23.5964E-3
3.15408E-3	120.510E-12	625.220E-3	-30.4677E-3	125.023E-12	654.894E-3	-3.60485E-3
3.14907E-3	119.524E-12	626.519E-3	-47.2734E-3	125.094E-12	666.737E-3	7.59297E-3
3.14407E-3	119.435E-12	613.508E-3	-32.9529E-3	124.970E-12	663.318E-3	-749.799E-6
3.13907E-3	119.064E-12	610.196E-3	-21.8264E-3	124.595E-12	645.175E-3	-8.03434E-3
3.13407E-3	118.923E-12	623.375E-3	-22.3021E-3	123.819E-12	627.429E-3	-23.0276E-3
3.12906E-3	118.941E-12	633.383E-3	-20.5124E-3	123.134E-12	616.428E-3	-31.7703E-3
3.12406E-3	119.535E-12	645.345E-3	-25.2347E-3	122.190E-12	625.516E-3	-20.8101E-3
3.11906E-3	120.547E-12	661.319E-3	-27.9649E-3	121.182E-12	640.983E-3	-22.8726E-3
3.11406E-3	121.055E-12	669.927E-3	-17.7707E-3	119.682E-12	636.353E-3	-39.2262E-3
3.10905E-3	121.920E-12	653.897E-3	-5.66361E-3	118.602E-12	619.344E-3	-39.2452E-3
3.10405E-3	122.672E-12	621.853E-3	209.316E-6	117.940E-12	628.943E-3	-29.9386E-3
3.09905E-3	123.144E-12	627.690E-3	1.08723E-3	117.507E-12	655.415E-3	-13.0072E-3
3.09405E-3	123.360E-12	664.126E-3	-3.91404E-3	116.746E-12	665.857E-3	4.14015E-3
3.08904E-3	123.447E-12	675.510E-3	-14.9888E-3	116.381E-12	661.130E-3	-10.7739E-3
3.08404E-3	122.708E-12	666.871E-3	-30.5619E-3	116.864E-12	638.603E-3	-36.5083E-3
3.07904E-3	122.036E-12	657.979E-3	-40.7062E-3	117.277E-12	614.599E-3	-38.3797E-3
3.07404E-3	121.039E-12	662.933E-3	-32.5918E-3	117.686E-12	625.142E-3	-28.3722E-3
3.06903E-3	120.130E-12	667.662E-3	-13.3983E-3	118.173E-12	651.817E-3	-18.1111E-3
3.06403E-3	118.447E-12	666.973E-3	1.49320E-3	119.535E-12	652.233E-3	-13.2379E-3
3.05903E-3	117.207E-12	681.828E-3	12.7970E-3	120.530E-12	646.376E-3	-17.2991E-3
3.05403E-3	116.485E-12	695.464E-3	23.4601E-3	121.481E-12	658.793E-3	-20.9558E-3
3.04902E-3	116.005E-12	695.712E-3	15.8989E-3	121.757E-12	663.169E-3	-14.9355E-3
3.04402E-3	115.527E-12	682.219E-3	-12.4968E-3	122.014E-12	642.062E-3	-6.87192E-3
3.03902E-3	115.601E-12	655.253E-3	-33.6058E-3	121.546E-12	609.078E-3	-8.65770E-3
3.03402E-3	116.116E-12	635.241E-3	-34.3710E-3	120.843E-12	589.492E-3	-17.0487E-3
3.02901E-3	116.932E-12	641.098E-3	-20.8542E-3	119.446E-12	609.737E-3	-14.7917E-3
3.02401E-3	117.702E-12	651.046E-3	-6.90750E-3	118.145E-12	644.854E-3	-14.3528E-3
3.01901E-3	118.317E-12	646.885E-3	-4.99316E-3	116.919E-12	641.823E-3	-30.3421E-3
3.01401E-3	118.841E-12	634.180E-3	-9.03262E-3	115.658E-12	611.206E-3	-33.7035E-3
3.00900E-3	119.832E-12	618.387E-3	-16.9706E-3	114.302E-12	607.420E-3	-22.6287E-3
3.00400E-3	120.100E-12	610.213E-3	-19.7716E-3	113.360E-12	630.069E-3	-26.3258E-3
2.99900E-3	120.226E-12	617.251E-3	-6.73353E-3	112.786E-12	631.674E-3	-34.1989E-3
2.99400E-3	119.584E-12	630.272E-3	4.18882E-3	112.243E-12	616.725E-3	-36.1892E-3
2.98899E-3	119.052E-12	637.731E-3	5.76419E-3	111.448E-12	612.227E-3	-37.1687E-3
2.98399E-3	117.664E-12	647.502E-3	4.72239E-3	111.665E-12	621.124E-3	-36.1255E-3
2.97899E-3	116.741E-12	669.148E-3	8.32193E-3	112.125E-12	643.953E-3	-46.7577E-3
2.97399E-3	115.982E-12	681.606E-3	-53.1440E-6	112.965E-12	663.925E-3	-53.2095E-3
2.96898E-3	114.697E-12	669.146E-3	-12.8795E-3	113.333E-12	662.847E-3	-32.2615E-3
2.96398E-3	113.447E-12	658.318E-3	-627.703E-6	114.624E-12	658.395E-3	-12.8962E-3
2.95898E-3	113.306E-12	661.731E-3	5.21260E-3	115.561E-12	656.610E-3	-9.01127E-3
2.95398E-3	112.702E-12	662.877E-3	-371.731E-6	116.216E-12	661.733E-3	-3.47384E-3
2.94897E-3	112.244E-12	659.536E-3	1.68248E-3	116.405E-12	677.908E-3	7.89027E-3
2.94397E-3	111.899E-12	658.068E-3	-9.14051E-3	116.887E-12	674.738E-3	12.1755E-3
2.93897E-3	112.261E-12	649.538E-3	-21.3146E-3	116.583E-12	652.975E-3	-446.568E-6
2.93397E-3	112.346E-12	633.279E-3	-14.5655E-3	115.885E-12	646.573E-3	-19.5241E-3
2.92896E-3	112.796E-12	634.987E-3	-8.07696E-3	114.808E-12	639.405E-3	-26.4293E-3
2.92396E-3	112.634E-12	648.673E-3	-13.8050E-3	113.962E-12	638.077E-3	-19.8986E-3
2.91896E-3	112.793E-12	634.487E-3	-28.9348E-3	113.035E-12	656.236E-3	-18.2196E-3
2.91396E-3	112.598E-12	602.016E-3	-41.3537E-3	111.551E-12	659.177E-3	-23.5209E-3
2.90895E-3	113.293E-12	609.356E-3	-46.3468E-3	110.610E-12	644.037E-3	-9.78472E-3
2.90395E-3	112.961E-12	652.298E-3	-40.2431E-3	110.044E-12	624.883E-3	5.18645E-3
2.89895E-3	112.435E-12	669.215E-3	-26.7346E-3	109.122E-12	614.061E-3	-14.3073E-3
2.89395E-3	111.770E-12	648.452E-3	-30.0717E-3	108.052E-12	615.258E-3	-27.4078E-3
2.88894E-3	111.963E-12	628.861E-3	-33.2225E-3	107.685E-12	629.066E-3	-15.6581E-3
2.88394E-3	111.477E-12	629.877E-3	-22.1416E-3	107.472E-12	642.101E-3	-4.48299E-3
2.87894E-3	110.719E-12	640.477E-3	-14.0238E-3	107.620E-12	627.883E-3	-1.67611E-3
2.87394E-3	110.109E-12	661.515E-3	-11.0058E-3	108.051E-12	620.675E-3	-5.49252E-3
2.86893E-3	109.828E-12	670.092E-3	-8.81677E-3	108.811E-12	640.838E-3	-1.52077E-3
2.86393E-3	109.615E-12	654.411E-3	-16.8227E-3	109.567E-12	654.274E-3	14.8634E-3
2.85893E-3	109.656E-12	641.653E-3	-24.8287E-3	110.233E-12	666.001E-3	20.2592E-3
2.85393E-3	109.461E-12	645.991E-3	-21.8680E-3	110.465E-12	674.591E-3	8.99419E-3
2.84892E-3	109.342E-12	661.072E-3	-19.7264E-3	111.084E-12	666.647E-3	-1.51683E-3
2.84392E-3	109.056E-12	663.816E-3	-17.6794E-3	111.266E-12	671.036E-3	403.564E-6
2.83892E-3	109.231E-12	665.299E-3	-7.05797E-3	111.646E-12	670.887E-3	2.32089E-3
2.83392E-3	109.198E-12	674.803E-3	10.2312E-3	111.356E-12	658.296E-3	-13.4736E-3
2.82891E-3	108.488E-12	667.662E-3	13.6028E-3	111.321E-12	666.492E-3	-32.3937E-3
2.82391E-3	108.032E-12	655.803E-3	-644.400E-6	110.708E-12	670.295E-3	-36.1238E-3
2.81891E-3	108.059E-12	641.788E-3	-9.75517E-3	109.928E-12	658.958E-3	-32.9730E-3
2.81391E-3	107.805E-12	623.481E-3	-15.1938E-3	108.966E-12	655.359E-3	-29.7047E-3
2.80890E-3	107.703E-12	620.549E-3	-18.3087E-3	108.070E-12	654.265E-3	-25.1259E-3
2.80390E-3	107.310E-12	638.035E-3	-19.0193E-3	107.338E-12	647.066E-3	-30.2237E-3
2.79890E-3	107.554E-12	666.325E-3	-23.3642E-3	106.560E-12	643.630E-3	-39.0016E-3
2.79390E-3	107.462E-12	668.981E-3	-16.9661E-3	106.002E-12	640.670E-3	-43.5497E-3
2.78889E-3	107.529E-12	636.081E-3	-10.1961E-3	105.057E-12	632.410E-3	-44.8488E-3
2.78389E-3	107.628E-12	625.645E-3	-4.31408E-3	104.790E-12	621.525E-3	-32.6596E-3
2.77889E-3	107.497E-12	655.115E-3	5.86988E-3	104.849E-12	623.851E-3	-23.7949E-3
2.77389E-3	107.844E-12	668.043E-3	-626.038E-6	104.949E-12	634.923E-3	-25.6590E-3
2.76888E-3	107.944E-12	655.615E-3	-16.2091E-3	105.006E-12	639.733E-3	-11.1557E-3
2.76388E-3	107.532E-12	652.924E-3	-23.1615E-3	104.887E-12	640.160E-3	8.46365E-3
2.75888E-3	107.365E-12	662.343E-3	-20.1022E-3	105.677E-12	631.065E-3	-3.62699E-3
2.75388E-3	107.283E-12	673.391E-3	-17.9270E-3	105.789E-12	635.620E-3	-33.1734E-3
2.74887E-3	106.504E-12	675.218E-3	-26.4004E-3	106.135E-12	655.538E-3	-39.6802E-3
2.74387E-3	106.064E-12	669.389E-3	-30.7245E-3	106.181E-12	662.852E-3	-18.7311E-3
2.73887E-3	105.282E-12	665.728E-3	-13.2791E-3	106.579E-12	655.441E-3	-4.16699E-3
2.73387E-3	104.561E-12	653.496E-3	16.4626E-3	106.367E-12	644.796E-3	-19.8555E-3
2.72886E-3	104.225E-12	643.729E-3	32.9885E-3	106.520E-12	641.034E-3	-32.7566E-3
2.72386E-3	103.774E-12	660.992E-3	23.9262E-3	106.012E-12	649.816E-3	-19.1392E-3
2.71886E-3	103.009E-12	670.805E-3	-805.559E-6	105.381E-12	666.612E-3	-16.4970E-3
2.71386E-3	102.592E-12	668.522E-3	-16.3370E-3	104.302E-12	671.995E-3	-22.1755E-3
2.70885E-3	102.516E-12	674.676E-3	-15.3171E-3	103.089E-12	653.419E-3	-14.5431E-3
2.70385E-3	102.760E-12	681.479E-3	-6.25488E-3	102.535E-12	639.652E-3	-13.1867E-3
2.69885E-3	102.421E-12	681.773E-3	5.92255E-3	101.720E-12	644.866E-3	-25.1307E-3
2.69385E-3	102.422E-12	654.346E-3	1.08090E-3	100.799E-12	640.462E-3	-28.9287E-3
2.68884E-3	103.033E-12	631.726E-3	-16.5740E-3	100.297E-12	632.098E-3	-9.96765E-3
2.68384E-3	103.614E-12	645.087E-3	-17.7275E-3	99.5220E-12	627.042E-3	-2.44278E-3
2.67884E-3	103.668E-12	656.662E-3	-13.3373E-3	99.1465E-12	617.580E-3	-12.5228E-3
2.67384E-3	103.933E-12	668.463E-3	-19.0980E-3	99.0107E-12	627.200E-3	-10.5989E-3
2.66883E-3	104.019E-12	688.353E-3	-29.3081E-3	98.8787E-12	652.048E-3	354.335E-6
2.66383E-3	104.117E-12	687.036E-3	-47.3474E-3	98.7419E-12	648.549E-3	6.89663E-3
2.65883E-3	103.765E-12	674.855E-3	-53.2581E-3	98.8830E-12	629.327E-3	16.6392E-3
2.65383E-3	103.221E-12	685.508E-3	-30.5984E-3	99.1447E-12	637.080E-3	28.3135E-3
2.64882E-3	102.663E-12	688.416E-3	-15.0090E-3	99.9012E-12	660.936E-3	18.7971E-3
2.64382E-3	101.808E-12	670.126E-3	-30.3936E-3	99.9040E-12	672.350E-3	9.46549E-3
2.63882E-3	100.900E-12	672.126E-3	-42.7623E-3	100.052E-12	664.668E-3	14.1340E-3
2.63382E-3	99.9634E-12	677.590E-3	-26.2753E-3	100.722E-12	649.599E-3	7.41155E-3
2.62881E-3	99.1272E-12	665.867E-3	-3.91544E-3	101.061E-12	650.571E-3	-3.38889E-3
2.62381E-3	98.8286E-12	668.270E-3	-15.4303E-3	100.827E-12	676.337E-3	3.70805E-3
2.61881E-3	98.0811E-12	678.085E-3	-34.7367E-3	100.517E-12	696.207E-3	10.3606E-3
2.61381E-3	97.4568E-12	672.087E-3	-39.4723E-3	100.022E-12	682.148E-3	-4.48691E-3
2.60880E-3	97.2395E-12	667.592E-3	-37.1026E-3	99.6973E-12	659.897E-3	-23.0616E-3
2.60380E-3	97.3878E-12	663.140E-3	-27.2931E-3	99.0984E-12	656.878E-3	-24.5972E-3
2.59880E-3	97.4806E-12	653.591E-3	-29.6821E-3	98.2361E-12	660.636E-3	-8.18367E-3
2.59380E-3	97.2969E-12	646.766E-3	-39.5589E-3	97.4264E-12	665.288E-3	-5.96159E-3
2.58879E-3	97.3898E-12	642.134E-3	-37.6577E-3	96.8149E-12	670.366E-3	-22.4576E-3
2.58379E-3	97.8121E-12	648.511E-3	-24.9729E-3	96.0140E-12	656.615E-3	-25.7906E-3
2.57879E-3	97.9706E-12	660.242E-3	-18.9294E-3	95.3147E-12	641.033E-3	-9.83436E-3
2.57379E-3	97.9943E-12	672.791E-3	-22.0460E-3	94.8819E-12	652.986E-3	8.92753E-3
2.56878E-3	97.9685E-12	676.082E-3	-16.7148E-3	94.3899E-12	667.269E-3	14.4777E-3
2.56378E-3	97.8107E-12	664.358E-3	-8.75575E-3	94.0895E-12	670.223E-3	10.2004E-3
2.55878E-3	97.7069E-12	664.492E-3	-20.6564E-3	94.3708E-12	661.534E-3	-4.07241E-3
2.55378E-3	96.9711E-12	668.478E-3	-29.3690E-3	94.6968E-12	648.845E-3	-15.2988E-3
2.54877E-3	96.1888E-12	661.404E-3	-11.0643E-3	94.7021E-12	654.894E-3	-12.9370E-3
2.54377E-3	95.6577E-12	659.420E-3	9.59894E-3	94.9824E-12	666.462E-3	-10.4132E-3
2.53877E-3	95.1472E-12	666.327E-3	8.98784E-3	95.7519E-12	680.566E-3	179.609E-6
2.53377E-3	94.6812E-12	666.963E-3	-9.28575E-3	96.3293E-12	701.671E-3	8.59310E-3
2.52876E-3	94.1608E-12	667.738E-3	-22.5338E-3	96.7410E-12	716.845E-3	5.08934E-3
2.52376E-3	94.0644E-12	670.944E-3	-20.5053E-3	96.8983E-12	716.823E-3	-10.5556E-3
2.51876E-3	94.1231E-12	659.246E-3	-16.0293E-3	97.0390E-12	711.494E-3	-21.3613E-3
2.51376E-3	94.2799E-12	646.736E-3	-9.39132E-3	97.1384E-12	699.342E-3	-13.8569E-3
2.50875E-3	94.2198E-12	642.998E-3	-5.58977E-3	96.5437E-12	678.901E-3	-10.7938E-3
2.50375E-3	94.5867E-12	643.638E-3	-15.3626E-3	96.3415E-12	676.751E-3	-1.30106E-3
2.49875E-3	94.4684E-12	654.157E-3	-16.1243E-3	95.4661E-12	683.040E-3	3.36300E-3
2.49375E-3	94.6463E-12	662.994E-3	-1.36885E-3	94.5062E-12	676.028E-3	-16.9394E-3
2.48874E-3	94.5922E-12	665.581E-3	2.61868E-3	93.6839E-12	667.389E-3	-26.2828E-3
2.48374E-3	94.4876E-12	678.699E-3	-5.98312E-3	92.5000E-12	666.160E-3	-22.3644E-3
2.47874E-3	93.7579E-12	688.108E-3	-12.2387E-3	91.1339E-12	667.420E-3	-27.8665E-3
2.47374E-3	93.8693E-12	673.602E-3	-14.9694E-3	90.6160E-12	663.307E-3	-30.9572E-3
2.46873E-3	93.6268E-12	663.979E-3	-10.3158E-3	89.9901E-12	653.392E-3	-22.6821E-3
2.46373E-3	93.1743E-12	676.316E-3	-4.92339E-3	89.8408E-12	647.034E-3	-15.9286E-3
2.45873E-3	92.3771E-12	671.841E-3	149.318E-6	89.6265E-12	638.086E-3	-7.97511E-3
2.45373E-3	92.2901E-12	650.982E-3	12.5982E-3	89.7877E-12	636.599E-3	-1.64943E-3
2.44872E-3	92.2295E-12	653.195E-3	13.7077E-3	90.4022E-12	660.620E-3	-21.6756E-3
2.44372E-3	91.2225E-12	668.066E-3	433.593E-6	90.8134E-12	691.483E-3	-38.6218E-3
2.43872E-3	91.0800E-12	686.953E-3	-17.4979E-3	91.1952E-12	705.715E-3	-27.2823E-3
2.43372E-3	90.9046E-12	694.360E-3	-28.0128E-3	91.4784E-12	695.169E-3	-8.85939E-3
2.42871E-3	90.9828E-12	672.798E-3	-29.3547E-3	91.8705E-12	671.493E-3	-2.98579E-3
2.42371E-3	90.4603E-12	660.762E-3	-33.6499E-3	92.0216E-12	662.269E-3	-16.4983E-3
2.41871E-3	90.8501E-12	671.435E-3	-29.0927E-3	92.0002E-12	679.755E-3	-32.7300E-3
2.41371E-3	90.7679E-12	678.227E-3	-32.5604E-3	91.5372E-12	697.812E-3	-41.9340E-3
2.40870E-3	91.2426E-12	680.412E-3	-47.0836E-3	91.1068E-12	687.660E-3	-38.9834E-3
2.40370E-3	90.8856E-12	691.084E-3	-34.0288E-3	90.6312E-12	667.791E-3	-32.6654E-3
2.39870E-3	90.7704E-12	690.306E-3	-11.6816E-3	89.9789E-12	667.114E-3	-34.6235E-3
2.39370E-3	90.6568E-12	685.724E-3	-11.5141E-3	88.9078E-12	688.355E-3	-24.7503E-3
2.38869E-3	90.6430E-12	703.721E-3	-15.0573E-3	88.0489E-12	693.269E-3	-11.0254E-3
2.38369E-3	90.0227E-12	713.896E-3	-10.3376E-3	87.5075E-12	665.211E-3	-15.5924E-3
2.37869E-3	89.4444E-12	698.383E-3	-8.49744E-3	87.1258E-12	650.687E-3	-24.4680E-3
2.37369E-3	89.2195E-12	693.310E-3	-22.7169E-3	86.4291E-12	663.498E-3	-29.8319E-3
2.36868E-3	88.5474E-12	700.877E-3	-43.0861E-3	86.0057E-12	677.754E-3	-31.3657E-3
2.36368E-3	87.9748E-12	697.209E-3	-40.7980E-3	86.1014E-12	680.995E-3	-22.2031E-3
2.35868E-3	87.4982E-12	693.131E-3	-18.1569E-3	86.1999E-12	686.921E-3	-16.5339E-3
2.35368E-3	87.1949E-12	695.800E-3	3.31049E-3	86.3431E-12	693.666E-3	-23.8075E-3
2.34867E-3	86.8610E-12	702.603E-3	4.35228E-3	86.5102E-12	696.026E-3	-20.2251E-3
2.34367E-3	86.5872E-12	706.349E-3	-11.1200E-3	86.7973E-12	708.892E-3	1.11453E-3
2.33867E-3	86.4420E-12	693.983E-3	-16.8377E-3	86.7753E-12	715.856E-3	5.29381E-3
2.33367E-3	86.0723E-12	686.239E-3	-10.3573E-3	87.1878E-12	707.830E-3	-15.0934E-3
2.32866E-3	86.0842E-12	685.061E-3	-10.5162E-3	87.1604E-12	698.820E-3	-18.5572E-3
2.32366E-3	85.9742E-12	675.621E-3	-15.8713E-3	87.2186E-12	685.273E-3	-24.5733E-3
2.31866E-3	85.9673E-12	680.474E-3	-18.8619E-3	86.8200E-12	670.155E-3	-45.5036E-3
2.31366E-3	85.7559E-12	686.683E-3	-16.9103E-3	86.8129E-12	666.645E-3	-44.1453E-3
2.30865E-3	85.3635E-12	683.934E-3	-8.65780E-3	86.2483E-12	662.183E-3	-34.0525E-3
2.30365E-3	84.9286E-12	684.256E-3	-4.28882E-3	86.1318E-12	657.183E-3	-21.2595E-3
2.29865E-3	84.6919E-12	682.677E-3	-8.57563E-3	85.4965E-12	679.195E-3	-11.2193E-3
2.29365E-3	84.2152E-12	683.583E-3	-16.7940E-3	84.7923E-12	700.297E-3	-13.0268E-3
2.28864E-3	83.7740E-12	675.226E-3	-15.7178E-3	84.2351E-12	692.530E-3	-7.65632E-3
2.28364E-3	83.5687E-12	666.008E-3	-5.60109E-3	83.7898E-12	679.707E-3	3.61795E-3
2.27864E-3	83.2473E-12	671.661E-3	8.95871E-3	83.0613E-12	670.888E-3	4.50730E-3
2.27364E-3	83.2581E-12	671.256E-3	24.5586E-3	82.5590E-12	666.183E-3	-10.3372E-3
2.26863E-3	83.0622E-12	670.589E-3	24.7769E-3	81.9240E-12	668.733E-3	-16.6632E-3
2.26363E-3	82.9182E-12	682.217E-3	11.0306E-3	81.6468E-12	684.964E-3	-8.71643E-3
2.25863E-3	82.7693E-12	698.843E-3	11.0141E-3	81.3122E-12	702.343E-3	-8.25659E-3
2.25363E-3	83.0730E-12	697.968E-3	14.3178E-3	80.8574E-12	697.681E-3	-4.32959E-3
2.24862E-3	82.5969E-12	683.221E-3	2.23437E-3	80.8095E-12	699.265E-3	-2.99620E-3
2.24362E-3	82.3588E-12	685.786E-3	-17.8999E-3	80.9805E-12	705.886E-3	-18.5097E-3
2.23862E-3	82.1167E-12	698.780E-3	-34.7445E-3	80.7761E-12	699.262E-3	-10.5667E-3
2.23362E-3	82.3293E-12	714.414E-3	-26.8046E-3	80.9616E-12	697.041E-3	12.5972E-3
2.22861E-3	81.9777E-12	713.506E-3	-12.4615E-3	81.2239E-12	688.290E-3	2.57119E-3
2.22361E-3	81.9786E-12	688.501E-3	-14.4109E-3	81.5587E-12	679.495E-3	-16.9461E-3
2.21861E-3	81.6468E-12	683.072E-3	-14.4882E-3	81.5923E-12	690.661E-3	-28.6482E-3
2.21361E-3	81.2305E-12	700.729E-3	-56.4143E-6	81.4845E-12	708.752E-3	-42.5488E-3
2.20860E-3	80.7524E-12	713.432E-3	10.2024E-3	81.6232E-12	707.808E-3	-38.1319E-3
2.20360E-3	80.3574E-12	716.675E-3	1.80205E-3	81.5929E-12	690.829E-3	-16.0204E-3
2.19860E-3	80.1115E-12	706.009E-3	-13.9999E-3	81.6556E-12	694.165E-3	-9.89262E-3
2.19360E-3	79.7403E-12	686.613E-3	-23.6700E-3	81.3125E-12	706.394E-3	-14.2324E-3
2.18859E-3	79.7448E-12	685.867E-3	-29.1463E-3	81.2771E-12	711.344E-3	-10.2946E-3
2.18359E-3	79.3628E-12	700.618E-3	-22.7914E-3	80.8204E-12	711.793E-3	-14.5470E-3
2.17859E-3	79.4972E-12	698.899E-3	-6.00409E-3	80.2926E-12	704.305E-3	-13.4845E-3
2.17359E-3	79.4191E-12	694.495E-3	-4.57783E-3	79.4093E-12	697.909E-3	-9.39859E-3
2.16858E-3	79.4744E-12	704.554E-3	-6.15551E-3	78.7458E-12	695.073E-3	-33.6847E-3
2.16358E-3	79.4489E-12	704.533E-3	-11.9964E-3	78.0800E-12	696.312E-3	-46.9669E-3
2.15858E-3	79.3148E-12	702.099E-3	-30.0486E-3	77.3515E-12	695.464E-3	-27.4087E-3
2.15358E-3	79.0391E-12	711.383E-3	-34.9476E-3	76.7589E-12	692.165E-3	-21.2299E-3
2.14857E-3	78.7519E-12	714.553E-3	-27.4093E-3	76.3397E-12	699.139E-3	-29.0783E-3
2.14357E-3	78.3078E-12	714.707E-3	-22.2264E-3	75.9684E-12	715.786E-3	-14.0250E-3
2.13857E-3	77.9452E-12	719.251E-3	-15.3781E-3	75.7913E-12	721.122E-3	1.10999E-3
2.13357E-3	77.6131E-12	717.725E-3	-5.87852E-3	75.9770E-12	715.472E-3	-874.180E-6
2.12856E-3	77.0483E-12	720.963E-3	-1.98778E-3	75.7797E-12	717.815E-3	-7.38503E-3
2.12356E-3	76.6067E-12	729.070E-3	-4.11266E-3	75.9039E-12	722.071E-3	-19.8697E-3
2.11856E-3	76.4306E-12	722.726E-3	-4.19298E-3	76.0371E-12	716.629E-3	-25.3692E-3
2.11356E-3	75.6439E-12	713.412E-3	-8.73571E-3	76.2653E-12	714.988E-3	-12.5691E-3
2.10855E-3	75.2078E-12	716.728E-3	-16.4005E-3	76.2995E-12	717.454E-3	-739.328E-6
2.10355E-3	74.9138E-12	716.063E-3	-10.0538E-3	76.4288E-12	707.348E-3	-6.56656E-3
2.09855E-3	74.7803E-12	709.628E-3	-10.4609E-3	76.3620E-12	707.363E-3	-17.0211E-3
2.09355E-3	74.5590E-12	714.109E-3	-27.8595E-3	76.3235E-12	726.960E-3	-24.1157E-3
2.08854E-3	74.5981E-12	716.504E-3	-27.7814E-3	76.0435E-12	732.586E-3	-24.9618E-3
2.08354E-3	74.5482E-12	707.402E-3	-20.0071E-3	75.5965E-12	725.173E-3	-21.1976E-3
2.07854E-3	74.7398E-12	711.981E-3	-40.2196E-3	74.9147E-12	719.221E-3	-17.3240E-3
2.07354E-3	74.5858E-12	722.058E-3	-62.3985E-3	74.6313E-12	709.260E-3	-20.8983E-3
2.06853E-3	74.7116E-12	713.157E-3	-58.7747E-3	73.8707E-12	701.280E-3	-17.6934E-3
2.06353E-3	74.4281E-12	702.421E-3	-34.0427E-3	73.0401E-12	703.122E-3	2.05550E-3
2.05853E-3	74.0299E-12	705.449E-3	-9.30131E-3	72.0774E-12	713.078E-3	3.73558E-3
2.05353E-3	73.7386E-12	710.722E-3	480.443E-6	71.6000E-12	704.904E-3	-13.6391E-3
2.04852E-3	73.6295E-12	719.293E-3	-1.01440E-3	70.9819E-12	684.159E-3	-18.5320E-3
2.04352E-3	72.9539E-12	731.638E-3	-7.82253E-3	70.5176E-12	692.170E-3	-17.8822E-3
2.03852E-3	72.4070E-12	737.984E-3	-16.2850E-3	70.2532E-12	709.597E-3	-11.1826E-3
2.03352E-3	71.7972E-12	739.124E-3	-26.2161E-3	70.4633E-12	719.428E-3	-829.721E-6
2.02851E-3	71.4740E-12	733.208E-3	-29.5582E-3	70.9170E-12	728.645E-3	-10.3218E-3
2.02351E-3	71.0606E-12	733.033E-3	-25.0894E-3	70.9431E-12	729.794E-3	-19.4045E-3
2.01851E-3	70.3810E-12	745.237E-3	-19.5637E-3	71.1518E-12	735.587E-3	-15.0215E-3
2.01351E-3	70.1287E-12	745.547E-3	-16.0637E-3	71.4980E-12	736.144E-3	-28.0711E-3
2.00850E-3	69.9872E-12	727.064E-3	-1.90430E-3	71.6177E-12	722.856E-3	-34.9017E-3
2.00350E-3	69.8115E-12	713.459E-3	7.74737E-3	71.7759E-12	722.154E-3	-7.66551E-3
1.99850E-3	69.5673E-12	715.512E-3	-9.00310E-3	71.7565E-12	727.382E-3	568.447E-6
1.99350E-3	69.6528E-12	715.913E-3	-13.6059E-3	71.4947E-12	732.923E-3	-14.5854E-3
1.98849E-3	69.7757E-12	718.432E-3	-6.52866E-3	71.2795E-12	745.318E-3	-8.71036E-3
1.98349E-3	69.8032E-12	738.284E-3	-14.9196E-3	70.9942E-12	748.306E-3	1.34912E-3
1.97849E-3	69.6525E-12	743.374E-3	-22.4151E-3	70.4330E-12	737.676E-3	-8.25324E-3
1.97349E-3	69.8221E-12	728.926E-3	-21.4003E-3	69.8516E-12	729.907E-3	-9.58158E-3
1.96848E-3	69.7614E-12	724.797E-3	-15.0190E-3	69.1145E-12	738.890E-3	-2.22643E-3
1.96348E-3	69.6903E-12	724.150E-3	-12.1305E-3	68.5091E-12	742.429E-3	-7.11370E-3
1.95848E-3	69.4641E-12	725.411E-3	-12.7175E-3	67.8628E-12	730.833E-3	-6.22667E-3
1.95348E-3	69.4270E-12	739.791E-3	-17.3654E-3	67.2796E-12	739.138E-3	-3.96658E-3
1.94847E-3	69.0646E-12	760.003E-3	-27.9274E-3	66.7835E-12	757.589E-3	-21.8929E-3
1.94347E-3	68.9418E-12	771.250E-3	-24.2726E-3	66.6729E-12	767.238E-3	-34.1223E-3
1.93847E-3	68.4835E-12	782.327E-3	-17.1006E-3	66.6902E-12	771.554E-3	-23.6212E-3
1.93347E-3	68.2165E-12	784.267E-3	-27.8918E-3	66.6175E-12	765.317E-3	-14.1825E-3
1.92846E-3	67.8331E-12	775.150E-3	-30.3216E-3	66.7102E-12	763.916E-3	-9.35292E-3
1.92346E-3	67.2361E-12	778.381E-3	-14.6071E-3	66.9793E-12	777.209E-3	-5.91732E-3
1.91846E-3	67.0073E-12	774.540E-3	-9.36268E-3	67.0752E-12	782.363E-3	-17.2610E-3
1.91346E-3	66.6103E-12	761.707E-3	-18.6412E-3	67.2399E-12	767.628E-3	-17.0071E-3
1.90845E-3	66.4450E-12	767.646E-3	-19.2810E-3	67.3488E-12	767.371E-3	-6.39073E-3
1.90345E-3	66.0391E-12	779.732E-3	-10.8858E-3	67.2917E-12	791.751E-3	-18.7896E-3
1.89845E-3	65.6082E-12	767.997E-3	-15.1718E-3	67.0366E-12	808.798E-3	-26.0833E-3
1.89345E-3	65.0230E-12	753.866E-3	-20.5881E-3	67.0674E-12	805.479E-3	-12.0811E-3
1.88844E-3	65.0972E-12	757.995E-3	-21.4400E-3	66.4277E-12	785.289E-3	-8.10295E-3
1.88344E-3	64.9312E-12	761.636E-3	-34.3437E-3	65.9195E-12	767.685E-3	-14.8723E-3
1.87844E-3	64.3677E-12	767.709E-3	-38.3738E-3	65.4053E-12	763.971E-3	-12.3106E-3
1.87344E-3	64.1436E-12	783.964E-3	-20.9878E-3	64.7496E-12	771.868E-3	-10.3384E-3
1.86843E-3	64.1434E-12	784.271E-3	-12.2593E-3	63.9643E-12	777.777E-3	-13.5677E-3
1.86343E-3	64.3045E-12	773.043E-3	-19.9781E-3	63.2287E-12	770.758E-3	-13.1740E-3
1.85843E-3	63.8354E-12	786.349E-3	-26.5964E-3	62.5644E-12	766.495E-3	-19.2299E-3
1.85343E-3	63.7189E-12	794.198E-3	-23.4451E-3	62.0993E-12	761.017E-3	-25.2058E-3
1.84842E-3	63.4658E-12	783.075E-3	-31.2902E-3	61.5872E-12	753.362E-3	-8.82224E-3
1.84342E-3	63.6750E-12	788.632E-3	-48.4110E-3	61.1284E-12	753.153E-3	1.52218E-3
1.83842E-3	63.5044E-12	798.447E-3	-46.3803E-3	60.7803E-12	757.324E-3	-12.9676E-3
1.83342E-3	63.3946E-12	804.451E-3	-38.0838E-3	60.8722E-12	766.015E-3	-25.5690E-3
1.82841E-3	63.1366E-12	815.404E-3	-26.1953E-3	60.6431E-12	768.546E-3	-37.5472E-3
1.82341E-3	62.8155E-12	810.013E-3	-13.8037E-3	60.5124E-12	756.194E-3	-43.9181E-3
1.81841E-3	62.5815E-12	794.996E-3	-17.1475E-3	60.1943E-12	756.592E-3	-33.9698E-3
1.81341E-3	62.3144E-12	805.750E-3	-24.0645E-3	60.4223E-12	780.464E-3	-17.0575E-3
1.80840E-3	61.6125E-12	815.393E-3	-18.2890E-3	60.2270E-12	808.893E-3	-5.70840E-3
1.80340E-3	60.9233E-12	799.162E-3	1.69001E-3	60.2477E-12	821.104E-3	-13.3709E-3
1.79840E-3	60.5544E-12	791.115E-3	11.0905E-3	60.0583E-12	810.260E-3	-20.8310E-3
1.79340E-3	60.1281E-12	795.851E-3	293.457E-6	60.0806E-12	800.954E-3	-11.4662E-3
1.78839E-3	59.6332E-12	803.239E-3	-15.5644E-3	59.9889E-12	804.440E-3	1.43530E-3
1.78339E-3	58.9740E-12	805.552E-3	-30.4226E-3	59.7560E-12	818.872E-3	2.41153E-3
1.77839E-3	58.5506E-12	791.964E-3	-27.0657E-3	59.8077E-12	831.214E-3	-11.8566E-3
1.77339E-3	58.3673E-12	778.402E-3	-25.0015E-3	59.5851E-12	833.297E-3	-22.3288E-3
1.76838E-3	58.0954E-12	786.434E-3	-35.8627E-3	59.3525E-12	842.307E-3	-22.9517E-3
1.76338E-3	57.8787E-12	801.020E-3	-31.0352E-3	58.9128E-12	844.030E-3	-31.7687E-3
1.75838E-3	57.6823E-12	789.034E-3	-19.5443E-3	58.8690E-12	833.036E-3	-30.4736E-3
1.75338E-3	57.7923E-12	778.768E-3	-23.1716E-3	58.1061E-12	830.337E-3	-17.1078E-3
1.74837E-3	57.7494E-12	801.692E-3	-25.1442E-3	57.5238E-12	832.439E-3	-19.5719E-3
1.74337E-3	57.4492E-12	823.183E-3	-8.82770E-3	57.2525E-12	828.219E-3	-15.7668E-3
1.73837E-3	57.3668E-12	837.870E-3	-5.05502E-3	56.7267E-12	829.602E-3	-2.73666E-3
1.73337E-3	57.3221E-12	850.284E-3	-16.2975E-3	56.2215E-12	841.642E-3	-10.1007E-3
1.72836E-3	57.3488E-12	839.447E-3	-13.8665E-3	55.8188E-12	840.153E-3	-24.6655E-3
1.72336E-3	56.9503E-12	828.295E-3	-11.9604E-3	55.5777E-12	829.656E-3	-24.1534E-3
1.71836E-3	56.6449E-12	844.753E-3	-21.3597E-3	55.1968E-12	832.355E-3	-22.9125E-3
1.71336E-3	56.3971E-12	859.009E-3	-26.4288E-3	55.0513E-12	850.514E-3	-23.0476E-3
1.70835E-3	56.0285E-12	859.817E-3	-29.7490E-3	54.7172E-12	870.596E-3	-14.8840E-3
1.70335E-3	55.5643E-12	872.141E-3	-33.5594E-3	54.6548E-12	879.402E-3	-18.2873E-3
1.69835E-3	55.0330E-12	877.609E-3	-29.0537E-3	54.4723E-12	877.221E-3	-30.7831E-3
1.69335E-3	54.3297E-12	870.660E-3	-22.4535E-3	54.5470E-12	879.714E-3	-27.7115E-3
1.68834E-3	53.9592E-12	873.457E-3	-23.1026E-3	54.4818E-12	892.904E-3	-19.9745E-3
1.68334E-3	53.5344E-12	869.567E-3	-18.6228E-3	54.3747E-12	895.654E-3	-17.6175E-3
1.67834E-3	52.9882E-12	856.270E-3	-7.95385E-3	54.2620E-12	893.766E-3	-20.9669E-3
1.67334E-3	52.6646E-12	863.200E-3	-8.40515E-3	54.2254E-12	901.600E-3	-29.6058E-3
1.66833E-3	52.6278E-12	867.361E-3	-5.77712E-3	53.7430E-12	895.542E-3	-24.0159E-3
1.66333E-3	52.4993E-12	856.476E-3	-7.76058E-3	53.5139E-12	883.830E-3	-1.38171E-3
1.65833E-3	52.0755E-12	855.998E-3	-25.6513E-3	52.8867E-12	888.062E-3	1.44965E-3
1.65333E-3	51.8584E-12	858.085E-3	-30.9997E-3	52.3955E-12	890.901E-3	-15.9609E-3
1.64832E-3	51.9627E-12	853.803E-3	-24.4470E-3	51.7466E-12	881.190E-3	-12.8275E-3
1.64332E-3	51.7964E-12	855.926E-3	-15.0609E-3	51.1768E-12	873.733E-3	-6.41643E-3
1.63832E-3	51.4594E-12	880.106E-3	4.56396E-3	50.5437E-12	876.779E-3	-23.0665E-3
1.63332E-3	51.4043E-12	897.473E-3	10.5699E-3	50.0090E-12	887.216E-3	-32.3838E-3
1.62831E-3	50.9780E-12	889.951E-3	-3.36923E-3	49.4839E-12	894.257E-3	-28.7247E-3
1.62331E-3	50.8993E-12	897.295E-3	-13.2747E-3	49.0480E-12	896.152E-3	-30.3878E-3
1.61831E-3	50.5737E-12	913.026E-3	-19.2319E-3	48.6607E-12	908.249E-3	-28.6508E-3
1.61331E-3	50.2221E-12	923.123E-3	-30.3710E-3	48.5801E-12	918.586E-3	-12.7108E-3
1.60830E-3	49.8035E-12	933.930E-3	-40.2273E-3	48.4911E-12	915.147E-3	-5.50114E-3
1.60330E-3	49.5797E-12	927.404E-3	-40.6262E-3	48.5086E-12	918.876E-3	-18.5680E-3
1.59830E-3	49.1256E-12	918.965E-3	-39.9035E-3	48.4896E-12	934.054E-3	-23.0721E-3
1.59330E-3	48.5708E-12	922.016E-3	-37.6885E-3	48.5907E-12	945.111E-3	-14.9315E-3
1.58829E-3	48.1527E-12	922.483E-3	-22.8339E-3	48.6183E-12	943.202E-3	-9.16520E-3
1.58329E-3	47.7502E-12	923.595E-3	-6.30062E-3	48.6362E-12	938.977E-3	5.41396E-3
1.57829E-3	47.2374E-12	920.261E-3	1.47070E-3	48.5609E-12	956.495E-3	12.3078E-3
1.57329E-3	46.9061E-12	916.098E-3	-1.59715E-3	48.2983E-12	971.429E-3	-3.46476E-3
1.56828E-3	46.7057E-12	920.393E-3	-8.31995E-3	48.0368E-12	963.050E-3	-4.85321E-3
1.56328E-3	46.2560E-12	928.828E-3	-9.53852E-3	47.6298E-12	944.018E-3	10.4111E-3
1.55828E-3	45.7712E-12	940.027E-3	-8.38437E-3	46.9758E-12	929.869E-3	15.3140E-3
1.55328E-3	45.6378E-12	943.942E-3	-14.6251E-3	46.3775E-12	937.563E-3	8.84724E-3
1.54827E-3	45.3168E-12	942.254E-3	-31.6588E-3	45.5530E-12	949.668E-3	-4.97147E-3
1.54327E-3	44.9174E-12	932.263E-3	-39.2988E-3	44.7502E-12	940.467E-3	-16.6503E-3
1.53827E-3	44.8309E-12	915.211E-3	-22.4876E-3	44.0660E-12	927.818E-3	-15.7204E-3
1.53327E-3	44.7639E-12	920.623E-3	-2.10102E-3	43.4558E-12	930.816E-3	-10.4662E-3
1.52826E-3	44.4730E-12	939.645E-3	-1.29956E-3	42.8036E-12	933.387E-3	-13.1524E-3
1.52326E-3	44.2271E-12	944.846E-3	-11.8814E-3	42.4965E-12	936.770E-3	-15.6901E-3
1.51826E-3	44.1192E-12	951.940E-3	-14.5061E-3	42.2132E-12	952.094E-3	-14.0813E-3
1.51326E-3	43.9744E-12	962.236E-3	-6.59472E-3	42.1836E-12	958.290E-3	-15.4395E-3
1.50825E-3	43.6895E-12	953.249E-3	-11.2086E-3	42.1306E-12	955.059E-3	-5.35801E-3
1.50325E-3	43.4958E-12	958.709E-3	-27.3516E-3	42.0415E-12	969.297E-3	5.40464E-3
1.49825E-3	43.1971E-12	988.099E-3	-28.3668E-3	42.1159E-12	988.611E-3	2.07153E-3
1.49325E-3	42.7795E-12	1.00209E+0	-19.8274E-3	42.1046E-12	995.376E-3	-6.27098E-3
1.48824E-3	42.3785E-12	995.014E-3	-18.2527E-3	42.1941E-12	1.00454E+0	-18.9862E-3
1.48324E-3	41.9444E-12	977.807E-3	-16.4369E-3	41.8533E-12	1.01307E+0	-29.5148E-3
1.47824E-3	41.4965E-12	966.662E-3	-12.7658E-3	41.8437E-12	1.00435E+0	-36.9606E-3
1.47324E-3	40.9332E-12	968.567E-3	-20.5744E-3	41.7172E-12	993.739E-3	-36.8847E-3
1.46823E-3	40.5457E-12	975.618E-3	-32.8926E-3	41.2608E-12	990.811E-3	-29.9634E-3
1.46323E-3	39.7798E-12	970.609E-3	-39.3281E-3	40.8473E-12	981.843E-3	-26.2356E-3
1.45823E-3	39.7486E-12	970.942E-3	-40.2905E-3	40.4467E-12	967.931E-3	-20.1945E-3
1.45323E-3	39.0571E-12	987.043E-3	-30.2854E-3	39.7807E-12	945.769E-3	-22.5353E-3
1.44822E-3	38.7812E-12	976.515E-3	-19.3896E-3	39.1580E-12	928.455E-3	-25.9547E-3
1.44322E-3	38.3850E-12	948.803E-3	-17.6716E-3	38.5813E-12	938.479E-3	-17.9660E-3
1.43822E-3	38.3201E-12	949.818E-3	-11.8430E-3	38.0599E-12	950.295E-3	-15.9670E-3
1.43322E-3	38.1797E-12	962.373E-3	-5.68536E-3	37.3951E-12	935.294E-3	-15.4903E-3
1.42821E-3	38.2063E-12	965.871E-3	-15.3054E-3	37.1013E-12	915.603E-3	-15.6853E-3
1.42321E-3	37.8430E-12	971.105E-3	-20.1556E-3	36.6509E-12	915.762E-3	-15.2961E-3
1.41821E-3	37.8023E-12	974.877E-3	-6.83082E-3	36.2451E-12	921.643E-3	-10.3328E-3
1.41321E-3	37.5988E-12	979.382E-3	-9.11681E-3	36.0140E-12	924.278E-3	-4.60272E-3
1.40820E-3	37.2803E-12	983.267E-3	-19.9936E-3	36.0281E-12	931.143E-3	-4.87387E-3
1.40320E-3	37.0592E-12	972.324E-3	-11.7233E-3	35.6963E-12	936.563E-3	-16.9663E-3
1.39820E-3	36.9331E-12	959.908E-3	-13.1557E-3	35.5167E-12	923.202E-3	-16.4749E-3
1.39320E-3	36.5825E-12	962.939E-3	-16.1223E-3	35.3686E-12	916.494E-3	-11.9496E-3
1.38819E-3	36.2243E-12	964.985E-3	40.2571E-6	35.2369E-12	922.899E-3	-25.2336E-3
1.38319E-3	35.8335E-12	960.824E-3	6.57465E-3	35.0015E-12	913.687E-3	-23.6951E-3
1.37819E-3	35.5775E-12	953.562E-3	-4.23811E-3	34.8824E-12	895.607E-3	-10.4686E-3
1.37319E-3	35.1063E-12	936.687E-3	-5.29700E-3	34.5874E-12	878.146E-3	-21.9173E-3
1.36818E-3	34.7159E-12	919.971E-3	-4.20493E-3	34.3327E-12	877.080E-3	-35.4595E-3
1.36318E-3	34.2137E-12	917.210E-3	-19.4792E-3	34.1543E-12	892.228E-3	-18.4503E-3
1.35818E-3	33.9124E-12	923.768E-3	-25.0864E-3	33.8343E-12	889.374E-3	-2.03037E-3
1.35318E-3	33.5918E-12	923.276E-3	-22.2653E-3	33.5336E-12	866.332E-3	-8.56077E-3
1.34817E-3	33.3713E-12	913.195E-3	-27.6345E-3	33.2928E-12	859.589E-3	-24.5316E-3
1.34317E-3	32.9290E-12	908.320E-3	-28.3884E-3	33.1433E-12	860.620E-3	-33.7518E-3
1.33817E-3	32.8115E-12	902.829E-3	-24.9381E-3	32.7430E-12	846.134E-3	-23.3595E-3
1.33317E-3	32.4949E-12	883.138E-3	-29.6267E-3	32.3985E-12	831.723E-3	-5.03574E-3
1.32816E-3	32.1992E-12	862.777E-3	-20.5246E-3	32.2810E-12	824.059E-3	7.73545E-3
1.32316E-3	32.1107E-12	853.658E-3	-9.74568E-3	31.9673E-12	814.172E-3	5.14834E-3
1.31816E-3	31.6989E-12	850.201E-3	-17.7866E-3	31.4897E-12	802.234E-3	-6.11263E-3
1.31316E-3	31.2959E-12	844.512E-3	-16.0497E-3	31.0624E-12	790.491E-3	-9.61824E-3
1.30815E-3	31.0846E-12	828.740E-3	-15.2591E-3	30.8468E-12	766.721E-3	-22.4283E-3
1.30315E-3	30.9784E-12	808.972E-3	-30.9312E-3	30.4371E-12	740.150E-3	-32.9190E-3
1.29815E-3	30.5772E-12	804.791E-3	-32.0565E-3	30.1094E-12	737.793E-3	-24.9473E-3
1.29315E-3	30.1770E-12	808.067E-3	-13.7263E-3	29.8540E-12	741.068E-3	-24.4360E-3
1.28814E-3	29.7128E-12	803.229E-3	-11.4274E-3	29.6092E-12	731.290E-3	-24.7143E-3
1.28314E-3	29.5603E-12	800.129E-3	-25.0809E-3	29.5046E-12	717.852E-3	-16.2848E-3
1.27814E-3	29.1440E-12	783.714E-3	-33.1293E-3	29.2568E-12	702.413E-3	-14.7316E-3
1.27314E-3	28.9780E-12	751.365E-3	-31.5516E-3	28.9022E-12	692.718E-3	-17.1055E-3
1.26813E-3	28.4322E-12	730.977E-3	-19.0198E-3	28.7294E-12	696.119E-3	-18.3635E-3
1.26313E-3	28.2852E-12	715.656E-3	-10.6283E-3	28.5677E-12	689.310E-3	-17.1352E-3
1.25813E-3	28.1493E-12	700.715E-3	-15.8318E-3	28.5198E-12	665.583E-3	-7.90094E-3
1.25313E-3	27.9781E-12	705.621E-3	-15.6836E-3	28.2075E-12	655.944E-3	-1.51950E-3
1.24812E-3	27.5019E-12	708.159E-3	-6.59624E-3	28.0352E-12	658.395E-3	-9.33734E-3
1.24312E-3	27.6809E-12	679.750E-3	-8.26695E-3	27.9171E-12	643.554E-3	-12.8909E-3
1.23812E-3	27.3691E-12	650.999E-3	-21.0634E-3	27.7751E-12	609.340E-3	-2.16777E-3
1.23312E-3	27.1011E-12	641.173E-3	-21.1460E-3	27.4236E-12	584.849E-3	4.83840E-3
1.22811E-3	26.8826E-12	630.321E-3	-13.8216E-3	27.1084E-12	582.210E-3	7.40618E-3
1.22311E-3	26.9246E-12	625.094E-3	-15.9811E-3	26.6189E-12	573.277E-3	7.54938E-3
1.21811E-3	26.5977E-12	628.658E-3	-11.9558E-3	26.3173E-12	544.823E-3	-8.02172E-3
1.21311E-3	26.3195E-12	616.806E-3	-18.1121E-3	26.0508E-12	522.032E-3	-27.7924E-3
1.20810E-3	26.1075E-12	601.658E-3	-36.0764E-3	25.7114E-12	515.935E-3	-32.0855E-3
1.20310E-3	25.9548E-12	593.027E-3	-23.7837E-3	25.4194E-12	510.164E-3	-33.7089E-3
1.19810E-3	25.7717E-12	574.863E-3	-2.15609E-3	25.1298E-12	496.692E-3	-34.7862E-3
1.19310E-3	25.5426E-12	558.021E-3	-6.38124E-3	25.0437E-12	485.474E-3	-22.7310E-3
1.18809E-3	25.3970E-12	550.262E-3	-11.9352E-3	24.9652E-12	475.789E-3	-11.9560E-3
1.18309E-3	25.2554E-12	538.934E-3	-13.6591E-3	24.7689E-12	459.978E-3	-14.6945E-3
1.17809E-3	25.1207E-12	526.211E-3	-19.5112E-3	24.7286E-12	450.182E-3	-17.5300E-3
1.17309E-3	24.9555E-12	512.560E-3	-14.6312E-3	24.8639E-12	451.899E-3	-15.5361E-3
1.16808E-3	24.7771E-12	490.053E-3	-7.25142E-3	24.8979E-12	442.837E-3	-18.5457E-3
1.16308E-3	24.7095E-12	474.185E-3	-5.65045E-3	25.0396E-12	422.165E-3	-14.3018E-3
1.15808E-3	24.5719E-12	468.359E-3	-489.362E-6	24.9933E-12	405.678E-3	-2.15165E-3
1.15308E-3	24.4060E-12	452.978E-3	-2.15453E-3	24.9846E-12	389.586E-3	-136.448E-6
1.14807E-3	24.4506E-12	443.352E-3	-20.8253E-3	24.8511E-12	377.125E-3	-7.62768E-3
1.14307E-3	24.3185E-12	437.564E-3	-30.4545E-3	24.7524E-12	365.510E-3	-20.2614E-3
1.13807E-3	24.1624E-12	412.582E-3	-22.3730E-3	24.5511E-12	355.011E-3	-30.5019E-3
1.13307E-3	24.0795E-12	397.590E-3	-24.1989E-3	24.3008E-12	351.234E-3	-26.5721E-3
1.12806E-3	24.1334E-12	397.910E-3	-32.0114E-3	23.8845E-12	348.818E-3	-14.6937E-3
1.12306E-3	23.8246E-12	386.307E-3	-29.9169E-3	23.6985E-12	344.459E-3	-12.5483E-3
1.11806E-3	23.7766E-12	374.384E-3	-27.5521E-3	23.3390E-12	337.991E-3	-15.1891E-3
1.11306E-3	23.6166E-12	372.784E-3	-14.5083E-3	23.0024E-12	332.922E-3	-12.9896E-3
1.10805E-3	23.5030E-12	366.202E-3	4.97518E-3	22.7952E-12	324.916E-3	-12.6062E-3
1.10305E-3	23.2309E-12	350.174E-3	4.14744E-3	22.5651E-12	313.373E-3	-4.49376E-3
1.09805E-3	23.2132E-12	339.835E-3	-5.71305E-3	22.4837E-12	298.964E-3	-607.457E-6
1.09305E-3	23.2506E-12	325.314E-3	-10.1625E-3	22.3718E-12	281.196E-3	-10.8853E-3
1.08804E-3	22.9831E-12	306.057E-3	-17.0383E-3	22.3037E-12	272.331E-3	-5.88172E-3
1.08304E-3	22.8633E-12	306.928E-3	-20.9596E-3	22.2978E-12	271.087E-3	900.208E-6
1.07804E-3	22.7961E-12	310.747E-3	-15.0748E-3	22.4737E-12	264.540E-3	-15.2944E-3
1.07304E-3	22.8299E-12	298.287E-3	-15.4096E-3	22.4452E-12	260.933E-3	-33.2245E-3
1.06803E-3	22.7178E-12	285.870E-3	-20.7139E-3	22.5709E-12	263.102E-3	-35.8986E-3
1.06303E-3	22.4449E-12	283.985E-3	-22.9732E-3	22.6034E-12	260.576E-3	-29.8185E-3
1.05803E-3	22.3889E-12	272.356E-3	-30.1488E-3	22.6390E-12	254.371E-3	-25.7321E-3
1.05303E-3	22.2983E-12	251.657E-3	-29.7378E-3	22.6012E-12	242.831E-3	-24.0407E-3
1.04802E-3	22.2772E-12	253.475E-3	-17.9736E-3	22.5247E-12	232.058E-3	-24.3394E-3
1.04302E-3	22.1853E-12	257.364E-3	-15.0169E-3	22.4715E-12	231.021E-3	-22.2311E-3
1.03802E-3	21.9996E-12	248.602E-3	-19.6616E-3	22.1248E-12	227.216E-3	-12.2188E-3
1.03302E-3	21.8755E-12	244.442E-3	-16.3803E-3	22.0327E-12	219.980E-3	-9.51177E-3
1.02801E-3	21.9035E-12	235.385E-3	-8.21177E-3	21.6954E-12	203.996E-3	-14.3559E-3
1.02301E-3	21.5713E-12	228.544E-3	-8.58190E-3	21.4682E-12	184.173E-3	-12.2377E-3
1.01801E-3	21.4985E-12	226.503E-3	-11.6642E-3	21.1896E-12	179.421E-3	-7.58942E-3
1.01301E-3	21.5896E-12	205.246E-3	-8.50747E-3	21.0582E-12	171.966E-3	-4.65078E-3
1.00800E-3	21.5132E-12	184.476E-3	-2.80376E-3	20.9083E-12	159.961E-3	-561.794E-6
1.00300E-3	21.4183E-12	191.210E-3	-4.02183E-3	20.8445E-12	159.429E-3	1.41931E-3
997.999E-6	21.2364E-12	200.405E-3	-16.8001E-3	20.6521E-12	158.379E-3	-10.7801E-3
992.997E-6	21.2332E-12	199.043E-3	-31.0148E-3	20.6225E-12	155.827E-3	-27.6117E-3
987.994E-6	21.2827E-12	192.220E-3	-41.4199E-3	20.6953E-12	158.152E-3	-22.8180E-3
982.991E-6	21.1958E-12	179.818E-3	-47.6243E-3	20.6803E-12	163.628E-3	-2.68256E-3
977.989E-6	20.9303E-12	170.072E-3	-40.6250E-3	20.6844E-12	175.453E-3	8.99888E-3
972.986E-6	20.8611E-12	172.866E-3	-22.5565E-3	20.6692E-12	184.584E-3	7.32044E-3
967.984E-6	20.7525E-12	174.626E-3	-7.42440E-3	20.6561E-12	177.037E-3	9.13233E-3
962.981E-6	20.5768E-12	162.849E-3	-7.32304E-3	20.6582E-12	155.545E-3	10.2577E-3
957.979E-6	20.3812E-12	157.032E-3	-15.2757E-3	20.5988E-12	139.982E-3	-7.39006E-3
952.976E-6	20.1709E-12	162.377E-3	-7.69165E-3	20.4914E-12	137.756E-3	-21.5074E-3
947.974E-6	20.1858E-12	161.493E-3	2.09049E-3	20.4685E-12	144.293E-3	-17.6588E-3
942.971E-6	20.1610E-12	156.872E-3	-12.5198E-3	20.3902E-12	154.755E-3	-16.0042E-3
937.969E-6	20.0980E-12	161.987E-3	-22.5594E-3	20.3489E-12	164.952E-3	-21.5160E-3
932.966E-6	20.0499E-12	163.813E-3	-8.76199E-3	20.3339E-12	172.522E-3	-25.7358E-3
927.964E-6	20.0824E-12	157.574E-3	-3.52372E-3	20.2413E-12	176.062E-3	-21.3450E-3
922.961E-6	20.1348E-12	159.674E-3	-4.39304E-3	20.3301E-12	179.449E-3	-6.80585E-3
917.959E-6	20.2553E-12	158.205E-3	-947.763E-6	20.2809E-12	181.441E-3	5.72691E-3
912.956E-6	20.2556E-12	153.910E-3	-7.78682E-3	20.1805E-12	177.442E-3	-125.000E-6
907.954E-6	20.2566E-12	158.916E-3	-13.3787E-3	20.1467E-12	171.963E-3	-11.2037E-3
902.951E-6	20.2337E-12	155.747E-3	-14.4178E-3	20.1402E-12	168.706E-3	-7.19831E-3
897.949E-6	20.3483E-12	146.449E-3	-24.7837E-3	20.0417E-12	169.636E-3	-5.88773E-3
892.946E-6	20.3715E-12	149.051E-3	-24.9520E-3	20.0474E-12	173.644E-3	-11.8423E-3
887.944E-6	20.1940E-12	156.208E-3	-9.65226E-3	19.9393E-12	181.576E-3	-15.8403E-3
882.941E-6	19.9772E-12	162.076E-3	-7.70235E-3	19.9016E-12	184.767E-3	-16.1612E-3
877.939E-6	19.9167E-12	170.586E-3	-7.65740E-3	19.8666E-12	172.203E-3	-19.1561E-3
872.936E-6	19.8393E-12	167.435E-3	-2.70314E-3	19.8102E-12	162.997E-3	-22.3205E-3
867.934E-6	19.6618E-12	161.426E-3	-10.6700E-3	19.6365E-12	172.286E-3	-11.2144E-3
862.931E-6	19.4212E-12	170.702E-3	-18.9772E-3	19.5604E-12	183.629E-3	-6.78169E-3
857.929E-6	19.3970E-12	170.526E-3	-11.4465E-3	19.5200E-12	176.196E-3	-11.6026E-3
852.926E-6	19.2391E-12	162.400E-3	-8.21156E-3	19.4477E-12	167.426E-3	-8.32176E-3
847.924E-6	19.0812E-12	176.496E-3	-20.6068E-3	19.4489E-12	184.407E-3	-8.05431E-3
842.921E-6	19.0611E-12	194.026E-3	-22.4483E-3	19.4229E-12	206.511E-3	-15.4328E-3
837.919E-6	19.0286E-12	195.376E-3	-13.7760E-3	19.4709E-12	206.538E-3	-20.2967E-3
832.916E-6	19.0854E-12	198.943E-3	-11.4611E-3	19.4750E-12	203.595E-3	-18.8160E-3
827.914E-6	19.1288E-12	207.497E-3	-12.5874E-3	19.3713E-12	215.372E-3	-18.4949E-3
822.911E-6	19.0422E-12	209.224E-3	-22.4996E-3	19.1622E-12	226.434E-3	-17.5057E-3
817.909E-6	19.1945E-12	201.722E-3	-25.3683E-3	19.2088E-12	228.107E-3	-22.6107E-3
812.906E-6	19.1365E-12	198.942E-3	-9.28267E-3	19.0351E-12	231.274E-3	-28.9900E-3
807.904E-6	19.0952E-12	202.282E-3	-1.41606E-3	19.0280E-12	233.838E-3	-20.8281E-3
802.901E-6	19.0247E-12	207.940E-3	-9.63301E-3	18.8382E-12	230.475E-3	-12.9644E-3
797.899E-6	19.0941E-12	222.675E-3	-14.8551E-3	18.6815E-12	233.809E-3	-12.5653E-3
792.896E-6	18.8495E-12	235.160E-3	-1.54661E-3	18.4578E-12	249.621E-3	-8.59147E-3
787.894E-6	18.8067E-12	244.671E-3	14.3175E-3	18.3443E-12	261.467E-3	-7.58248E-3
782.891E-6	18.7834E-12	251.995E-3	15.9453E-3	18.0609E-12	264.636E-3	-17.9890E-3
777.889E-6	18.5865E-12	253.232E-3	8.66349E-3	17.9371E-12	275.955E-3	-22.0680E-3
772.886E-6	18.3537E-12	259.243E-3	-1.63402E-3	17.7573E-12	292.467E-3	-20.0701E-3
767.884E-6	18.3190E-12	261.068E-3	-3.81044E-3	17.7451E-12	301.345E-3	-27.6253E-3
762.881E-6	18.1838E-12	254.244E-3	1.53724E-3	17.7332E-12	302.767E-3	-38.9398E-3
757.879E-6	18.0189E-12	263.564E-3	-3.84733E-3	17.6319E-12	302.415E-3	-38.5459E-3
752.876E-6	17.9684E-12	281.619E-3	-16.9894E-3	17.6359E-12	305.704E-3	-29.9372E-3
747.874E-6	17.7461E-12	276.416E-3	-14.4510E-3	17.7290E-12	309.634E-3	-36.7596E-3
742.871E-6	17.6672E-12	267.272E-3	-10.1900E-3	17.7409E-12	312.057E-3	-40.8361E-3
737.869E-6	17.7555E-12	286.149E-3	-11.7696E-3	17.7796E-12	323.650E-3	-17.3958E-3
732.866E-6	17.6388E-12	311.907E-3	2.25078E-3	17.7431E-12	342.227E-3	763.611E-6
727.864E-6	17.5251E-12	320.970E-3	12.5233E-3	17.7264E-12	356.208E-3	-7.15226E-3
722.861E-6	17.5035E-12	332.462E-3	5.71240E-3	17.6395E-12	370.855E-3	-21.2766E-3
717.859E-6	17.4689E-12	348.200E-3	-5.53736E-3	17.5496E-12	384.290E-3	-23.4937E-3
712.856E-6	17.2234E-12	354.027E-3	-18.6582E-3	17.3471E-12	376.362E-3	-21.0891E-3
707.854E-6	17.1537E-12	367.662E-3	-28.1896E-3	17.1972E-12	366.458E-3	-25.1398E-3
702.851E-6	16.9789E-12	375.553E-3	-27.6192E-3	16.9062E-12	380.281E-3	-23.2311E-3
697.849E-6	16.8941E-12	365.518E-3	-21.4243E-3	16.5264E-12	394.727E-3	-12.9638E-3
692.846E-6	16.6080E-12	354.446E-3	-14.6468E-3	16.3699E-12	398.350E-3	-9.80518E-3
687.844E-6	16.5057E-12	350.621E-3	-5.54778E-3	16.0656E-12	403.213E-3	-13.9521E-3
682.841E-6	16.3470E-12	367.387E-3	-3.12544E-3	15.8007E-12	406.190E-3	-16.7385E-3
677.839E-6	16.1168E-12	397.978E-3	-10.7918E-3	15.6273E-12	401.320E-3	-19.9480E-3
672.836E-6	15.9379E-12	408.604E-3	-5.90735E-3	15.4889E-12	407.043E-3	-21.0383E-3
667.834E-6	15.8706E-12	394.230E-3	-541.861E-6	15.3667E-12	426.214E-3	-16.8802E-3
662.831E-6	15.6899E-12	388.447E-3	-15.8413E-3	15.2029E-12	445.139E-3	-11.3492E-3
657.829E-6	15.4437E-12	403.227E-3	-23.1223E-3	15.0883E-12	464.303E-3	-3.54308E-3
652.826E-6	15.2648E-12	422.660E-3	-8.07409E-3	15.0701E-12	476.107E-3	-2.60161E-3
647.824E-6	15.1963E-12	436.092E-3	4.79430E-3	15.0674E-12	480.467E-3	-7.40097E-3
642.821E-6	15.1493E-12	453.658E-3	-2.40361E-3	14.9481E-12	484.532E-3	-10.6858E-3
637.819E-6	14.8506E-12	462.993E-3	-8.41023E-3	14.8555E-12	493.261E-3	-16.6631E-3
632.816E-6	14.6801E-12	461.445E-3	-4.20092E-3	14.8224E-12	490.681E-3	-15.0890E-3
627.814E-6	14.4940E-12	465.830E-3	-13.8262E-3	14.7414E-12	474.803E-3	-18.6516E-3
622.811E-6	14.4404E-12	457.958E-3	-25.4100E-3	14.5142E-12	482.411E-3	-26.5095E-3
617.809E-6	14.2454E-12	448.756E-3	-21.5928E-3	14.3876E-12	499.764E-3	-21.5125E-3
612.806E-6	14.0566E-12	459.985E-3	-14.1191E-3	14.2405E-12	503.567E-3	-23.9722E-3
607.804E-6	13.9768E-12	464.232E-3	-6.86717E-3	13.9811E-12	502.358E-3	-31.5974E-3
602.801E-6	13.8787E-12	457.958E-3	-2.63288E-3	13.7320E-12	496.220E-3	-31.1696E-3
597.799E-6	13.6833E-12	473.469E-3	-7.57009E-3	13.5887E-12	496.048E-3	-37.3952E-3
592.796E-6	13.3820E-12	499.420E-3	-9.50553E-3	13.4059E-12	506.976E-3	-38.1410E-3
587.794E-6	13.4031E-12	514.190E-3	-5.29237E-3	13.1176E-12	517.567E-3	-15.3364E-3
582.791E-6	13.2904E-12	530.236E-3	-11.4697E-3	12.9221E-12	524.431E-3	-845.878E-6
577.789E-6	13.0041E-12	535.049E-3	-17.3200E-3	12.8206E-12	525.562E-3	-11.8730E-3
572.786E-6	12.8076E-12	522.307E-3	-16.4989E-3	12.7001E-12	528.777E-3	-25.9867E-3
567.784E-6	12.7346E-12	516.914E-3	-19.7616E-3	12.4653E-12	544.641E-3	-20.3832E-3
562.781E-6	12.5513E-12	516.582E-3	-18.1287E-3	12.2985E-12	561.820E-3	-8.17582E-3
557.779E-6	12.2326E-12	515.768E-3	-25.1132E-3	12.1389E-12	564.591E-3	-22.4501E-3
552.776E-6	12.0503E-12	522.402E-3	-38.2384E-3	12.0984E-12	554.374E-3	-39.7231E-3
547.774E-6	11.9379E-12	529.095E-3	-23.7850E-3	11.8892E-12	548.804E-3	-29.2088E-3
542.771E-6	11.6080E-12	533.099E-3	-10.7128E-3	11.6684E-12	558.023E-3	-12.8159E-3
537.769E-6	11.3761E-12	539.966E-3	-30.7130E-3	11.5362E-12	568.597E-3	-13.9733E-3
532.766E-6	11.2216E-12	544.363E-3	-48.2710E-3	11.5242E-12	572.192E-3	-17.7007E-3
527.764E-6	11.1025E-12	540.654E-3	-42.1469E-3	11.2972E-12	576.151E-3	-9.71256E-3
522.761E-6	10.8314E-12	538.181E-3	-29.8171E-3	11.0013E-12	580.278E-3	-9.51874E-3
517.759E-6	10.5809E-12	545.588E-3	-22.4846E-3	10.8510E-12	575.889E-3	-16.0909E-3
512.756E-6	10.4147E-12	546.044E-3	-15.8091E-3	10.6798E-12	558.181E-3	-19.1561E-3
507.754E-6	10.3430E-12	537.748E-3	-16.1349E-3	10.4731E-12	547.511E-3	-20.9148E-3
502.751E-6	10.2128E-12	541.491E-3	-10.3578E-3	10.2025E-12	555.882E-3	-21.5391E-3
497.749E-6	9.92856E-12	549.075E-3	5.39054E-3	9.95408E-12	565.001E-3	-19.0171E-3
492.746E-6	9.89482E-12	552.229E-3	830.898E-6	9.81864E-12	571.669E-3	-19.2581E-3
487.744E-6	9.78977E-12	553.153E-3	-10.2355E-3	9.59774E-12	570.974E-3	-20.8013E-3
482.741E-6	9.58409E-12	554.554E-3	-8.04689E-3	9.37956E-12	558.242E-3	-17.1199E-3
477.739E-6	9.39040E-12	559.951E-3	-3.21382E-3	9.28247E-12	549.953E-3	-21.5523E-3
472.736E-6	9.21876E-12	563.191E-3	1.50194E-3	9.02436E-12	547.717E-3	-30.9590E-3
467.734E-6	9.12404E-12	572.021E-3	-7.85061E-3	8.76398E-12	541.639E-3	-30.8899E-3
462.731E-6	8.90343E-12	582.240E-3	-28.5221E-3	8.65728E-12	544.352E-3	-23.1321E-3
457.729E-6	8.64726E-12	581.072E-3	-33.8067E-3	8.50883E-12	552.608E-3	-16.0347E-3
452.726E-6	8.48143E-12	577.326E-3	-23.6162E-3	8.31363E-12	549.138E-3	-13.2040E-3
447.724E-6	8.34616E-12	566.310E-3	-15.7119E-3	8.03759E-12	541.285E-3	-6.96916E-3
442.721E-6	8.04852E-12	551.341E-3	-16.9620E-3	7.96144E-12	535.429E-3	-11.7784E-3
437.719E-6	7.82446E-12	551.138E-3	-18.4099E-3	7.90999E-12	533.810E-3	-26.4329E-3
432.716E-6	7.71016E-12	559.597E-3	-17.3532E-3	7.69549E-12	533.644E-3	-27.2064E-3
427.714E-6	7.47959E-12	558.930E-3	-18.1339E-3	7.45246E-12	534.849E-3	-26.0414E-3
422.711E-6	7.17161E-12	541.362E-3	-18.6231E-3	7.24610E-12	530.833E-3	-26.3841E-3
417.709E-6	7.01940E-12	521.411E-3	-19.3731E-3	7.18663E-12	523.150E-3	-19.3652E-3
412.706E-6	6.90749E-12	532.238E-3	-26.3608E-3	6.96927E-12	516.973E-3	-15.0114E-3
407.704E-6	6.72651E-12	554.166E-3	-27.7264E-3	6.83175E-12	511.863E-3	-14.2100E-3
402.701E-6	6.47377E-12	537.820E-3	-21.1993E-3	6.65633E-12	510.179E-3	-5.62519E-3
397.699E-6	6.30454E-12	516.801E-3	-26.8855E-3	6.51384E-12	503.210E-3	2.58024E-3
392.696E-6	6.22333E-12	524.204E-3	-27.7956E-3	6.31283E-12	486.477E-3	4.75486E-3
387.694E-6	6.07066E-12	529.334E-3	-19.4890E-3	6.03068E-12	478.814E-3	841.082E-6
382.691E-6	5.81757E-12	515.160E-3	-21.2459E-3	5.86973E-12	480.515E-3	-9.63766E-3
377.689E-6	5.65268E-12	500.133E-3	-21.7647E-3	5.69578E-12	469.903E-3	-10.1927E-3
372.686E-6	5.58200E-12	494.767E-3	-20.3352E-3	5.47145E-12	451.323E-3	-10.1922E-3
367.684E-6	5.42573E-12	490.594E-3	-22.6651E-3	5.22484E-12	441.702E-3	-17.3736E-3
362.681E-6	5.17703E-12	490.816E-3	-12.6478E-3	5.13332E-12	436.953E-3	-18.9336E-3
357.679E-6	5.09410E-12	483.370E-3	7.79906E-3	4.93827E-12	427.954E-3	-18.8467E-3
352.676E-6	4.94436E-12	454.654E-3	14.4528E-3	4.71129E-12	419.681E-3	-24.0969E-3
347.674E-6	4.75733E-12	442.175E-3	7.26975E-3	4.58907E-12	411.800E-3	-23.6067E-3
342.671E-6	4.56042E-12	449.532E-3	397.295E-6	4.53043E-12	406.878E-3	-14.7652E-3
337.669E-6	4.46456E-12	446.436E-3	-2.36782E-3	4.37299E-12	402.652E-3	-13.6114E-3
332.666E-6	4.39352E-12	444.016E-3	-11.5275E-3	4.19292E-12	397.604E-3	-12.7602E-3
327.664E-6	4.24940E-12	434.680E-3	-25.3829E-3	4.10503E-12	405.290E-3	-6.84989E-3
322.661E-6	4.05293E-12	411.444E-3	-28.6493E-3	4.06266E-12	420.272E-3	-14.1554E-3
317.659E-6	3.97387E-12	401.435E-3	-18.7527E-3	3.96594E-12	424.636E-3	-30.0595E-3
312.656E-6	3.89707E-12	402.489E-3	-6.44663E-3	3.79454E-12	411.334E-3	-31.5366E-3
307.654E-6	3.72699E-12	398.920E-3	-17.3281E-3	3.76347E-12	382.444E-3	-24.7857E-3
302.651E-6	3.51839E-12	400.109E-3	-32.4982E-3	3.65329E-12	357.977E-3	-24.3524E-3
297.649E-6	3.52889E-12	396.882E-3	-20.0830E-3	3.60580E-12	349.074E-3	-16.8150E-3
292.646E-6	3.39034E-12	379.723E-3	-12.1880E-3	3.40951E-12	344.071E-3	-8.92464E-3
287.644E-6	3.20535E-12	370.730E-3	-20.1287E-3	3.30059E-12	335.714E-3	-18.2188E-3
282.641E-6	3.09649E-12	369.059E-3	-28.3540E-3	3.20588E-12	323.086E-3	-24.0402E-3
277.639E-6	3.00466E-12	346.423E-3	-35.2244E-3	3.06616E-12	308.306E-3	-25.2740E-3
272.636E-6	2.86710E-12	314.972E-3	-39.2230E-3	2.87432E-12	294.092E-3	-26.3671E-3
267.634E-6	2.67512E-12	303.995E-3	-39.4412E-3	2.72326E-12	274.336E-3	-16.0840E-3
262.631E-6	2.57580E-12	303.824E-3	-40.5417E-3	2.65754E-12	255.915E-3	-8.16429E-3
257.629E-6	2.53325E-12	300.708E-3	-40.5170E-3	2.56258E-12	253.303E-3	-8.89771E-3
252.626E-6	2.43122E-12	297.794E-3	-29.3707E-3	2.39633E-12	256.159E-3	-6.31581E-3
247.624E-6	2.28935E-12	293.427E-3	-17.2409E-3	2.27446E-12	251.581E-3	-12.0595E-3
242.621E-6	2.23136E-12	286.777E-3	-14.2847E-3	2.28885E-12	242.352E-3	-22.8046E-3
237.619E-6	2.26153E-12	272.276E-3	-10.6537E-3	2.17888E-12	234.968E-3	-14.4232E-3
232.616E-6	2.04184E-12	251.622E-3	-5.68369E-3	1.98726E-12	236.144E-3	-5.42972E-3
227.614E-6	1.92913E-12	246.050E-3	-2.86295E-3	1.95528E-12	235.196E-3	-13.8312E-3
222.611E-6	1.88633E-12	247.682E-3	-3.69988E-3	1.83281E-12	217.881E-3	-17.9878E-3
217.609E-6	1.84407E-12	239.538E-3	-4.37708E-3	1.77233E-12	209.190E-3	-4.01811E-3
212.606E-6	1.73328E-12	237.790E-3	-3.65032E-3	1.70794E-12	213.461E-3	248.247E-6
207.604E-6	1.65852E-12	243.595E-3	-9.54657E-3	1.66321E-12	205.289E-3	-10.9819E-3
202.601E-6	1.61857E-12	232.921E-3	-4.53728E-3	1.62497E-12	194.967E-3	-11.0251E-3
197.599E-6	1.55830E-12	218.013E-3	-5.42312E-3	1.53651E-12	185.909E-3	-10.7282E-3
192.596E-6	1.45356E-12	210.721E-3	-19.7021E-3	1.43280E-12	175.959E-3	-16.5252E-3
187.594E-6	1.36366E-12	202.488E-3	-10.8359E-3	1.43201E-12	175.316E-3	-10.2881E-3
182.591E-6	1.34803E-12	189.773E-3	-6.27669E-3	1.35453E-12	176.077E-3	-1.19085E-3
177.589E-6	1.27195E-12	175.765E-3	-19.1550E-3	1.21485E-12	166.948E-3	-8.44611E-3
172.586E-6	1.12594E-12	173.137E-3	-17.6283E-3	1.16226E-12	155.826E-3	-20.5535E-3
167.584E-6	1.12846E-12	184.008E-3	-8.50498E-3	1.13277E-12	151.502E-3	-20.7095E-3
162.581E-6	1.09166E-12	188.726E-3	-6.42137E-3	1.03474E-12	146.850E-3	-11.8458E-3
157.579E-6	1.02851E-12	174.397E-3	-8.09123E-3	983.414E-15	144.234E-3	-10.5963E-3
152.576E-6	905.873E-15	156.637E-3	-5.44687E-3	909.439E-15	145.819E-3	-20.9909E-3
147.574E-6	872.182E-15	154.575E-3	-4.11289E-3	900.293E-15	143.517E-3	-29.5897E-3
142.571E-6	874.300E-15	159.190E-3	-13.4581E-3	825.027E-15	136.156E-3	-23.5068E-3
137.569E-6	812.733E-15	160.044E-3	-15.8437E-3	793.629E-15	123.832E-3	-22.4138E-3
132.566E-6	696.932E-15	157.728E-3	-7.40958E-3	777.368E-15	112.283E-3	-35.3269E-3
127.564E-6	678.848E-15	142.318E-3	-15.2333E-3	722.985E-15	113.118E-3	-38.5148E-3
122.561E-6	715.548E-15	122.750E-3	-33.7883E-3	736.204E-15	115.948E-3	-32.1339E-3
117.559E-6	626.079E-15	118.766E-3	-39.0994E-3	624.405E-15	109.765E-3	-26.4973E-3
112.556E-6	561.085E-15	126.363E-3	-36.2510E-3	579.736E-15	107.120E-3	-29.2862E-3
107.554E-6	564.931E-15	120.197E-3	-30.5438E-3	593.887E-15	111.953E-3	-26.1737E-3
102.551E-6	540.543E-15	104.900E-3	-28.9444E-3	523.470E-15	122.380E-3	-17.0790E-3
97.5488E-6	477.642E-15	99.2308E-3	-27.6049E-3	455.582E-15	122.892E-3	-19.9482E-3
92.5463E-6	410.529E-15	95.2381E-3	-19.9291E-3	469.515E-15	105.591E-3	-25.3439E-3
87.5438E-6	372.530E-15	97.0663E-3	-16.1669E-3	391.617E-15	86.6253E-3	-23.0244E-3
82.5413E-6	372.033E-15	103.097E-3	-17.0936E-3	359.233E-15	78.9884E-3	-14.1877E-3
77.5388E-6	311.652E-15	101.384E-3	-20.0443E-3	287.282E-15	81.5754E-3	-7.59865E-3
72.5363E-6	293.272E-15	89.6715E-3	-20.5571E-3	312.646E-15	73.0181E-3	-6.99709E-3
67.5338E-6	311.094E-15	82.7299E-3	-19.6692E-3	283.986E-15	67.5513E-3	-2.37287E-3
62.5313E-6	238.331E-15	85.3865E-3	-27.3214E-3	228.697E-15	85.7819E-3	-219.168E-6
57.5288E-6	224.808E-15	80.5079E-3	-30.6084E-3	168.429E-15	95.1427E-3	-8.01697E-3
52.5263E-6	156.832E-15	77.4181E-3	-21.6052E-3	194.595E-15	83.3714E-3	-16.9177E-3
47.5238E-6	199.600E-15	80.7294E-3	-13.4060E-3	153.641E-15	79.1851E-3	-23.2140E-3
42.5213E-6	133.055E-15	83.6372E-3	-14.9717E-3	72.1763E-15	85.2225E-3	-25.4246E-3
37.5188E-6	76.5883E-15	90.0422E-3	-23.0925E-3	48.8522E-15	86.2910E-3	-23.1158E-3
32.5163E-6	92.5010E-15	99.5274E-3	-19.8867E-3	129.602E-15	86.2465E-3	-12.6851E-3
27.5138E-6	45.1378E-15	98.2888E-3	-8.21534E-3	34.7356E-15	85.8223E-3	-7.01480E-3
22.5113E-6	-18.8707E-15	86.8477E-3	-11.8001E-3	1.93358E-15	74.6510E-3	-15.1013E-3
17.5088E-6	-57.2008E-15	81.3509E-3	-20.6411E-3	-90.6044E-15	67.8970E-3	-15.6619E-3
12.5063E-6	-38.9774E-15	71.6829E-3	-16.7141E-3	-54.6809E-15	72.3397E-3	-16.3760E-3
7.50375E-6	-20.0478E-15	58.6091E-3	-20.3234E-3	-101.634E-15	77.5314E-3	-27.2871E-3
2.50125E-6	-100.605E-15	69.9749E-3	-30.6281E-3	-151.029E-15	87.0982E-3	-26.0360E-3
-2.50125E-6	-202.586E-15	88.6331E-3	-23.7928E-3	-173.726E-15	92.2028E-3	-19.1761E-3
-7.50375E-6	-189.176E-15	86.7398E-3	-12.1365E-3	-191.051E-15	96.9995E-3	-22.9612E-3
-12.5063E-6	-197.651E-15	79.7875E-3	-7.64932E-3	-238.501E-15	107.373E-3	-24.6138E-3
-17.5088E-6	-295.011E-15	79.3823E-3	-4.87987E-3	-236.304E-15	111.599E-3	-15.3500E-3
-22.5113E-6	-320.158E-15	74.0672E-3	-6.45997E-3	-313.025E-15	101.214E-3	-7.29164E-3
-27.5138E-6	-287.207E-15	69.0487E-3	-1.38776E-3	-340.988E-15	92.4496E-3	-11.2091E-3
-32.5163E-6	-318.266E-15	78.6036E-3	6.04146E-3	-388.055E-15	104.831E-3	-11.8189E-3
-37.5188E-6	-387.811E-15	93.9590E-3	59.2041E-6	-450.764E-15	116.096E-3	-11.9063E-3
-42.5213E-6	-446.544E-15	107.757E-3	-5.37314E-3	-412.024E-15	114.947E-3	-19.5845E-3
-47.5238E-6	-449.709E-15	109.201E-3	-10.2559E-3	-456.624E-15	120.486E-3	-28.2341E-3
-52.5263E-6	-478.457E-15	94.4239E-3	-32.4120E-3	-540.224E-15	131.049E-3	-35.8986E-3
-57.5288E-6	-558.631E-15	94.0090E-3	-46.9603E-3	-581.284E-15	136.784E-3	-21.0675E-3
-62.5313E-6	-548.699E-15	107.450E-3	-33.2789E-3	-580.516E-15	140.731E-3	4.37360E-3
-67.5338E-6	-603.718E-15	106.418E-3	-20.8460E-3	-620.250E-15	140.250E-3	13.7021E-3
-72.5363E-6	-654.107E-15	107.628E-3	-25.3139E-3	-677.379E-15	128.641E-3	7.54236E-3
-77.5388E-6	-759.742E-15	114.729E-3	-20.6442E-3	-770.440E-15	119.520E-3	871.538E-6
-82.5413E-6	-753.961E-15	109.096E-3	522.741E-6	-710.425E-15	123.316E-3	5.87351E-3
-87.5438E-6	-794.610E-15	106.062E-3	4.96885E-3	-796.241E-15	133.321E-3	6.57216E-3
-92.5463E-6	-873.049E-15	121.335E-3	-12.4785E-3	-900.689E-15	144.104E-3	-8.75702E-3
-97.5488E-6	-941.818E-15	132.922E-3	-29.7820E-3	-941.635E-15	148.166E-3	-30.3391E-3
-102.551E-6	-955.324E-15	136.547E-3	-28.2800E-3	-946.814E-15	157.178E-3	-38.1427E-3
-107.554E-6	-1.00938E-12	147.302E-3	-12.1547E-3	-1.00008E-12	182.714E-3	-36.2079E-3
-112.556E-6	-1.05703E-12	159.770E-3	-6.46393E-3	-1.08810E-12	207.806E-3	-41.1192E-3
-117.559E-6	-1.20375E-12	175.147E-3	-20.3556E-3	-1.17434E-12	213.159E-3	-42.6685E-3
-122.561E-6	-1.20286E-12	188.287E-3	-33.4044E-3	-1.23255E-12	203.675E-3	-30.8563E-3
-127.564E-6	-1.20593E-12	188.755E-3	-26.7377E-3	-1.31178E-12	204.029E-3	-16.4473E-3
-132.566E-6	-1.37314E-12	186.506E-3	-16.4605E-3	-1.39108E-12	207.829E-3	-13.3723E-3
-137.569E-6	-1.43566E-12	192.995E-3	-7.78150E-3	-1.45557E-12	208.190E-3	-19.0760E-3
-142.571E-6	-1.47711E-12	193.894E-3	2.51520E-3	-1.49591E-12	216.930E-3	-26.4704E-3
-147.574E-6	-1.52354E-12	188.396E-3	559.178E-6	-1.59217E-12	230.847E-3	-30.8986E-3
-152.576E-6	-1.60354E-12	198.529E-3	-8.45979E-3	-1.64585E-12	244.981E-3	-18.6122E-3
-157.579E-6	-1.65950E-12	215.090E-3	-11.1539E-3	-1.71656E-12	264.441E-3	3.65268E-3
-162.581E-6	-1.70532E-12	224.844E-3	-11.4984E-3	-1.75807E-12	286.772E-3	7.11190E-3
-167.584E-6	-1.79954E-12	238.809E-3	-17.8480E-3	-1.87383E-12	293.779E-3	-1.21157E-3
-172.586E-6	-1.90804E-12	252.846E-3	-27.9174E-3	-2.02778E-12	289.401E-3	-10.0873E-3
-177.589E-6	-2.00460E-12	257.119E-3	-23.7530E-3	-2.05302E-12	295.710E-3	-21.4956E-3
-182.591E-6	-2.12889E-12	256.795E-3	-4.79958E-3	-2.14792E-12	317.742E-3	-20.6652E-3
-187.594E-6	-2.15180E-12	262.371E-3	-3.40890E-3	-2.26053E-12	341.079E-3	-14.8235E-3
-192.596E-6	-2.27339E-12	277.390E-3	-22.1433E-3	-2.39642E-12	344.488E-3	-5.67464E-3
-197.599E-6	-2.40089E-12	293.677E-3	-32.2642E-3	-2.42885E-12	335.126E-3	8.26273E-3
-202.601E-6	-2.51062E-12	306.660E-3	-22.4072E-3	-2.53464E-12	349.294E-3	6.19295E-3
-207.604E-6	-2.66000E-12	322.662E-3	-4.52719E-3	-2.72685E-12	382.512E-3	-7.68480E-3
-212.606E-6	-2.82662E-12	342.543E-3	-716.683E-6	-2.83802E-12	405.754E-3	-14.4367E-3
-217.609E-6	-2.94420E-12	360.621E-3	-5.58280E-3	-2.95013E-12	420.360E-3	-14.1200E-3
-222.611E-6	-3.08293E-12	370.782E-3	-11.9093E-3	-3.08048E-12	420.730E-3	-17.3274E-3
-227.614E-6	-3.31012E-12	376.816E-3	-17.6030E-3	-3.25094E-12	413.147E-3	-19.2768E-3
-232.616E-6	-3.39647E-12	386.198E-3	-16.0379E-3	-3.39929E-12	432.818E-3	-13.1102E-3
-237.619E-6	-3.51511E-12	399.019E-3	-13.5300E-3	-3.48565E-12	474.908E-3	-9.77545E-3
-242.621E-6	-3.62855E-12	413.639E-3	-12.3877E-3	-3.63167E-12	495.681E-3	-6.91182E-3
-247.624E-6	-3.80801E-12	433.444E-3	-13.1575E-3	-3.78566E-12	499.884E-3	1.17448E-3
-252.626E-6	-3.98305E-12	450.575E-3	-20.8855E-3	-3.94497E-12	512.129E-3	-5.32108E-3
-257.629E-6	-4.06704E-12	458.896E-3	-19.7629E-3	-4.07227E-12	518.182E-3	-12.8053E-3
-262.631E-6	-4.21962E-12	467.352E-3	-10.7637E-3	-4.20312E-12	528.117E-3	-1.68509E-3
-267.634E-6	-4.46457E-12	479.067E-3	-16.5474E-3	-4.43604E-12	551.581E-3	-8.50375E-3
-272.636E-6	-4.68013E-12	490.832E-3	-25.9807E-3	-4.68059E-12	568.463E-3	-24.4543E-3
-277.639E-6	-4.83413E-12	509.376E-3	-28.6231E-3	-4.79429E-12	588.137E-3	-10.7865E-3
-282.641E-6	-4.97829E-12	535.247E-3	-26.0678E-3	-5.01794E-12	614.503E-3	757.228E-6
-287.644E-6	-5.18790E-12	555.179E-3	-21.1975E-3	-5.26375E-12	627.171E-3	-10.2699E-3
-292.646E-6	-5.40198E-12	579.157E-3	-13.3275E-3	-5.46194E-12	644.682E-3	-16.7702E-3
-297.649E-6	-5.62473E-12	611.694E-3	-4.57955E-3	-5.69632E-12	677.222E-3	-17.9977E-3
-302.651E-6	-5.83907E-12	635.184E-3	-3.39167E-3	-5.95686E-12	705.583E-3	-17.0993E-3
-307.654E-6	-6.09844E-12	641.508E-3	-11.7119E-3	-6.17693E-12	730.173E-3	-12.8547E-3
-312.656E-6	-6.28637E-12	641.092E-3	-22.5709E-3	-6.42673E-12	746.496E-3	-22.2689E-3
-317.659E-6	-6.55424E-12	649.840E-3	-36.3783E-3	-6.61809E-12	755.449E-3	-28.2985E-3
-322.661E-6	-6.80234E-12	679.374E-3	-41.6488E-3	-6.95746E-12	765.703E-3	-19.0692E-3
-327.664E-6	-7.07126E-12	709.162E-3	-26.6946E-3	-7.18926E-12	778.685E-3	-17.5595E-3
-332.666E-6	-7.28035E-12	720.492E-3	-13.9489E-3	-7.35681E-12	802.307E-3	-23.6740E-3
-337.669E-6	-7.54312E-12	740.725E-3	-14.7910E-3	-7.60151E-12	826.173E-3	-18.9890E-3
-342.671E-6	-7.84012E-12	761.188E-3	-12.7461E-3	-7.88397E-12	845.792E-3	-6.77336E-3
-347.674E-6	-8.05559E-12	769.307E-3	-5.00192E-3	-8.19870E-12	858.595E-3	-5.12638E-3
-352.676E-6	-8.28489E-12	788.429E-3	-10.3291E-3	-8.34214E-12	855.086E-3	-20.2699E-3
-357.679E-6	-8.54267E-12	809.908E-3	-13.9319E-3	-8.51352E-12	861.640E-3	-34.3914E-3
-362.681E-6	-8.87865E-12	829.887E-3	-8.57617E-3	-8.82133E-12	886.548E-3	-30.0936E-3
-367.684E-6	-9.14166E-12	847.126E-3	-14.2608E-3	-9.22845E-12	898.739E-3	-20.3536E-3
-372.686E-6	-9.44758E-12	854.656E-3	-18.7952E-3	-9.48897E-12	916.448E-3	-12.8008E-3
-377.689E-6	-9.73703E-12	865.840E-3	-11.2809E-3	-9.75660E-12	942.259E-3	-17.5683E-3
-382.691E-6	-10.0293E-12	878.224E-3	-9.72698E-3	-10.0222E-12	945.453E-3	-32.4218E-3
-387.694E-6	-10.2427E-12	892.548E-3	-15.0708E-3	-10.3386E-12	945.231E-3	-20.9234E-3
-392.696E-6	-10.6372E-12	914.772E-3	-15.5591E-3	-10.6117E-12	950.347E-3	1.13830E-3
-397.699E-6	-10.8925E-12	934.208E-3	-16.5240E-3	-10.8383E-12	947.122E-3	-3.30467E-3
-402.701E-6	-11.1011E-12	946.751E-3	-19.4491E-3	-11.1427E-12	959.232E-3	-13.2057E-3
-407.704E-6	-11.3743E-12	959.761E-3	-17.5915E-3	-11.5232E-12	996.540E-3	-9.97560E-3
-412.706E-6	-11.8076E-12	972.453E-3	-25.2003E-3	-11.8143E-12	1.01740E+0	-3.21725E-3
-417.709E-6	-12.1446E-12	981.564E-3	-40.3152E-3	-12.1702E-12	1.01503E+0	3.17031E-3
-422.711E-6	-12.3822E-12	987.802E-3	-29.7765E-3	-12.6053E-12	1.01417E+0	3.75856E-3
-427.714E-6	-12.8301E-12	992.806E-3	-15.4926E-3	-12.9598E-12	1.02054E+0	-8.53560E-3
-432.716E-6	-13.1350E-12	998.578E-3	-19.0643E-3	-13.2514E-12	1.03649E+0	-11.2642E-3
-437.719E-6	-13.5330E-12	1.00084E+0	-9.57580E-3	-13.5937E-12	1.05817E+0	-178.467E-6
-442.721E-6	-14.0041E-12	1.01209E+0	3.67211E-3	-14.0595E-12	1.06902E+0	-8.85628E-3
-447.724E-6	-14.2629E-12	1.04257E+0	-5.68048E-3	-14.3978E-12	1.06686E+0	-29.8159E-3
-452.726E-6	-14.6273E-12	1.05713E+0	-11.9862E-3	-14.7127E-12	1.06710E+0	-39.5066E-3
-457.729E-6	-15.0678E-12	1.04876E+0	-5.32412E-3	-15.1339E-12	1.07638E+0	-36.8160E-3
-462.731E-6	-15.4172E-12	1.05634E+0	-13.5376E-3	-15.4821E-12	1.07599E+0	-21.8348E-3
-467.734E-6	-15.7651E-12	1.08936E+0	-18.6996E-3	-15.9073E-12	1.06605E+0	-10.2393E-3
-472.736E-6	-16.1865E-12	1.10835E+0	-6.16471E-3	-16.1885E-12	1.06641E+0	-9.77397E-3
-477.739E-6	-16.4272E-12	1.09993E+0	594.596E-6	-16.4758E-12	1.07198E+0	-10.7170E-3
-482.741E-6	-16.7499E-12	1.08860E+0	-3.28766E-3	-16.7483E-12	1.07921E+0	-11.8650E-3
-487.744E-6	-16.9447E-12	1.08164E+0	-9.24248E-3	-17.1153E-12	1.08696E+0	-12.3355E-3
-492.746E-6	-17.2776E-12	1.08651E+0	-11.9784E-3	-17.3297E-12	1.08577E+0	-6.84930E-3
-497.749E-6	-17.6203E-12	1.09742E+0	-9.42146E-3	-17.6113E-12	1.08595E+0	-6.74658E-3
-502.751E-6	-17.9147E-12	1.09491E+0	-5.43040E-3	-17.9663E-12	1.09648E+0	-20.8556E-3
-507.754E-6	-18.1761E-12	1.08099E+0	-9.94709E-3	-18.4079E-12	1.09154E+0	-22.0839E-3
-512.756E-6	-18.4823E-12	1.06990E+0	-18.0789E-3	-18.6588E-12	1.07291E+0	-7.00426E-3
-517.759E-6	-18.8801E-12	1.06065E+0	-16.6363E-3	-19.1618E-12	1.06937E+0	-9.99748E-3
-522.761E-6	-19.2635E-12	1.05194E+0	-13.7112E-3	-19.6318E-12	1.06417E+0	-22.9752E-3
-527.764E-6	-19.7110E-12	1.05753E+0	-17.9388E-3	-20.0271E-12	1.06096E+0	-22.5918E-3
-532.766E-6	-20.1817E-12	1.07403E+0	-22.4333E-3	-20.3723E-12	1.07244E+0	-23.3445E-3
-537.769E-6	-20.6940E-12	1.08227E+0	-29.8616E-3	-20.9066E-12	1.06700E+0	-17.8213E-3
-542.771E-6	-21.1548E-12	1.07949E+0	-29.6947E-3	-21.2660E-12	1.05832E+0	-5.62560E-3
-547.774E-6	-21.5076E-12	1.08225E+0	-16.3519E-3	-21.6336E-12	1.06790E+0	-12.2333E-3
-552.776E-6	-22.0123E-12	1.09577E+0	-19.7599E-3	-21.9839E-12	1.06619E+0	-25.2009E-3
-557.779E-6	-22.3110E-12	1.11260E+0	-30.4318E-3	-22.3131E-12	1.05803E+0	-29.2832E-3
-562.781E-6	-22.8879E-12	1.11784E+0	-28.0238E-3	-22.8839E-12	1.04544E+0	-34.0450E-3
-567.784E-6	-23.3671E-12	1.10103E+0	-27.4632E-3	-23.2374E-12	1.01434E+0	-29.3985E-3
-572.786E-6	-23.8637E-12	1.07774E+0	-29.1375E-3	-23.6566E-12	993.248E-3	-15.1391E-3
-577.789E-6	-24.1491E-12	1.06748E+0	-23.8649E-3	-23.9976E-12	998.825E-3	-10.0626E-3
-582.791E-6	-24.3795E-12	1.06714E+0	-23.8439E-3	-24.2850E-12	998.565E-3	-7.76025E-3
-587.794E-6	-24.4545E-12	1.06103E+0	-27.1342E-3	-24.4415E-12	981.799E-3	-2.73340E-3
-592.796E-6	-24.8295E-12	1.04427E+0	-21.2104E-3	-24.6392E-12	977.565E-3	-3.85944E-3
-597.799E-6	-25.0312E-12	1.01684E+0	-19.8002E-3	-24.9219E-12	980.827E-3	-6.46461E-3
-602.801E-6	-25.1535E-12	991.688E-3	-23.2635E-3	-25.2638E-12	983.029E-3	25.4953E-6
-607.804E-6	-25.3114E-12	979.548E-3	-18.8164E-3	-25.5416E-12	986.583E-3	7.95842E-3
-612.806E-6	-25.8681E-12	970.066E-3	-4.21942E-3	-25.8666E-12	973.799E-3	5.41393E-3
-617.809E-6	-26.1341E-12	963.408E-3	9.45212E-3	-26.2764E-12	937.763E-3	-11.3687E-3
-622.811E-6	-26.3308E-12	966.569E-3	6.46275E-3	-26.6395E-12	908.221E-3	-22.8771E-3
-627.814E-6	-26.8468E-12	963.365E-3	-9.24994E-3	-26.8835E-12	901.961E-3	-13.7064E-3
-632.816E-6	-27.2496E-12	941.199E-3	-17.5661E-3	-27.3569E-12	898.337E-3	-3.91370E-3
-637.819E-6	-27.5845E-12	925.751E-3	-4.96368E-3	-27.6372E-12	884.739E-3	-7.44957E-3
-642.821E-6	-27.9527E-12	928.310E-3	3.14006E-3	-28.0177E-12	859.225E-3	-19.6517E-3
-647.824E-6	-28.2897E-12	921.532E-3	-13.2473E-3	-28.2649E-12	841.763E-3	-27.7402E-3
-652.826E-6	-28.5745E-12	907.097E-3	-22.8373E-3	-28.5715E-12	847.119E-3	-32.1108E-3
-657.829E-6	-28.9332E-12	901.907E-3	-19.8156E-3	-28.7956E-12	842.166E-3	-47.8212E-3
-662.831E-6	-29.1641E-12	891.143E-3	-17.8255E-3	-29.0466E-12	815.126E-3	-49.6822E-3
-667.834E-6	-29.3028E-12	868.545E-3	-12.0945E-3	-29.3182E-12	790.422E-3	-30.0187E-3
-672.836E-6	-29.5329E-12	848.713E-3	-15.3012E-3	-29.6192E-12	777.562E-3	-12.8735E-3
-677.839E-6	-29.7278E-12	837.682E-3	-27.5445E-3	-29.7303E-12	755.920E-3	-4.24646E-3
-682.841E-6	-29.7469E-12	828.413E-3	-23.0337E-3	-29.7148E-12	730.687E-3	-2.97986E-3
-687.844E-6	-29.9810E-12	810.183E-3	-9.83942E-3	-29.8647E-12	724.382E-3	-7.59787E-3
-692.846E-6	-30.2705E-12	792.428E-3	-9.08103E-3	-30.2278E-12	716.593E-3	-15.8048E-3
-697.849E-6	-30.3603E-12	784.508E-3	-12.4494E-3	-30.3045E-12	702.631E-3	-18.3063E-3
-702.851E-6	-30.7641E-12	770.181E-3	-19.9165E-3	-30.3759E-12	695.707E-3	-30.7035E-3
-707.854E-6	-31.0978E-12	749.620E-3	-29.7030E-3	-30.6856E-12	680.204E-3	-42.2310E-3
-712.856E-6	-31.4326E-12	729.235E-3	-23.3908E-3	-31.0150E-12	651.218E-3	-21.7577E-3
-717.859E-6	-31.6823E-12	708.467E-3	-8.02080E-3	-31.3013E-12	633.179E-3	-1.63396E-3
-722.861E-6	-32.0365E-12	691.067E-3	-8.52184E-3	-31.6949E-12	630.205E-3	-3.97884E-3
-727.864E-6	-32.4617E-12	691.966E-3	-19.0503E-3	-31.8383E-12	629.147E-3	1.51027E-3
-732.866E-6	-32.7689E-12	694.043E-3	-23.7035E-3	-32.2269E-12	622.354E-3	5.04160E-3
-737.869E-6	-32.9532E-12	669.386E-3	-34.1959E-3	-32.6803E-12	600.224E-3	-7.32043E-3
-742.871E-6	-33.1548E-12	641.540E-3	-46.7413E-3	-33.1111E-12	588.091E-3	-6.59773E-3
-747.874E-6	-33.3907E-12	629.209E-3	-40.6501E-3	-33.1992E-12	601.549E-3	-10.3021E-3
-752.876E-6	-33.6407E-12	616.424E-3	-27.1571E-3	-33.4211E-12	591.568E-3	-30.3156E-3
-757.879E-6	-33.5872E-12	604.806E-3	-27.5100E-3	-33.7491E-12	546.201E-3	-26.4918E-3
-762.881E-6	-33.7507E-12	602.379E-3	-29.8006E-3	-33.9688E-12	513.423E-3	-12.2823E-3
-767.884E-6	-33.9020E-12	596.289E-3	-24.5046E-3	-34.1752E-12	504.197E-3	-23.1948E-3
-772.886E-6	-34.0731E-12	588.986E-3	-18.9826E-3	-34.4170E-12	497.469E-3	-36.0307E-3
-777.889E-6	-34.0813E-12	574.754E-3	-12.6971E-3	-34.5745E-12	489.546E-3	-24.8702E-3
-782.891E-6	-34.0956E-12	545.684E-3	-15.2196E-3	-34.7556E-12	471.006E-3	-18.0038E-3
-787.894E-6	-34.4095E-12	522.571E-3	-22.7470E-3	-34.9432E-12	450.455E-3	-16.4049E-3
-792.896E-6	-34.6737E-12	507.495E-3	-20.3606E-3	-34.9970E-12	449.339E-3	-9.84183E-3
-797.899E-6	-34.6249E-12	489.700E-3	-22.2457E-3	-34.8564E-12	444.974E-3	-25.6161E-3
-802.901E-6	-34.9308E-12	476.409E-3	-23.9211E-3	-34.9994E-12	425.012E-3	-43.9850E-3
-807.904E-6	-35.0663E-12	471.085E-3	-7.49205E-3	-34.9544E-12	409.909E-3	-34.0669E-3
-812.906E-6	-35.2048E-12	463.855E-3	8.52942E-3	-34.9815E-12	397.808E-3	-21.7979E-3
-817.909E-6	-35.3168E-12	457.469E-3	-3.76439E-3	-35.0801E-12	378.058E-3	-21.1688E-3
-822.911E-6	-35.4228E-12	448.421E-3	-23.8825E-3	-35.1274E-12	369.826E-3	-11.1998E-3
-827.914E-6	-35.6798E-12	426.430E-3	-20.4521E-3	-35.0035E-12	375.497E-3	-7.86032E-3
-832.916E-6	-35.8216E-12	411.776E-3	-11.9160E-3	-35.1310E-12	361.920E-3	-11.7326E-3
-837.919E-6	-36.0698E-12	407.896E-3	-11.7393E-3	-35.3809E-12	345.953E-3	-5.75586E-3
-842.921E-6	-36.0302E-12	397.065E-3	-15.0173E-3	-35.3848E-12	349.524E-3	-13.8225E-3
-847.924E-6	-36.3226E-12	382.887E-3	-30.1193E-3	-35.4522E-12	336.536E-3	-27.4303E-3
-852.926E-6	-36.5351E-12	379.098E-3	-29.9310E-3	-35.7986E-12	307.944E-3	-19.2325E-3
-857.929E-6	-37.0210E-12	387.234E-3	-1.73158E-3	-36.0769E-12	297.160E-3	-9.02746E-3
-862.931E-6	-37.0968E-12	380.550E-3	12.2408E-3	-36.3627E-12	294.171E-3	-15.4475E-3
-867.934E-6	-37.3420E-12	358.368E-3	5.51968E-3	-36.6744E-12	289.902E-3	-19.4025E-3
-872.936E-6	-37.3503E-12	348.304E-3	-1.22460E-3	-36.9599E-12	294.262E-3	-17.0150E-3
-877.939E-6	-37.5468E-12	335.667E-3	-4.03950E-3	-37.2348E-12	289.891E-3	-27.1748E-3
-882.941E-6	-37.7604E-12	314.691E-3	-14.1199E-3	-37.4604E-12	278.793E-3	-31.4508E-3
-887.944E-6	-37.8659E-12	306.765E-3	-29.8645E-3	-37.5263E-12	280.759E-3	-31.2307E-3
-892.946E-6	-37.6906E-12	308.631E-3	-30.9521E-3	-37.7088E-12	271.801E-3	-43.8458E-3
-897.949E-6	-37.7195E-12	313.157E-3	-18.6752E-3	-37.7395E-12	255.830E-3	-37.9915E-3
-902.951E-6	-37.6357E-12	314.074E-3	-7.76896E-3	-37.7119E-12	257.314E-3	-14.0220E-3
-907.954E-6	-37.5782E-12	297.339E-3	-5.73342E-3	-37.9080E-12	261.375E-3	-6.16627E-3
-912.956E-6	-37.3858E-12	275.606E-3	-14.9294E-3	-37.6989E-12	256.996E-3	-11.7186E-3
-917.959E-6	-37.2882E-12	269.851E-3	-22.3728E-3	-37.6599E-12	243.553E-3	-15.6393E-3
-922.961E-6	-37.3631E-12	270.940E-3	-15.1693E-3	-37.7617E-12	223.717E-3	-16.7646E-3
-927.964E-6	-37.3552E-12	274.266E-3	-6.88259E-3	-37.5068E-12	214.807E-3	-21.7242E-3
-932.966E-6	-37.2353E-12	272.003E-3	-8.86524E-3	-37.3930E-12	223.008E-3	-24.8316E-3
-937.969E-6	-37.2722E-12	248.046E-3	-12.9638E-3	-37.5564E-12	219.932E-3	-19.0263E-3
-942.971E-6	-37.7080E-12	227.091E-3	-13.0999E-3	-37.6472E-12	208.431E-3	-15.1562E-3
-947.974E-6	-38.0608E-12	235.192E-3	-11.9289E-3	-37.4746E-12	218.883E-3	-15.5000E-3
-952.976E-6	-38.3333E-12	242.179E-3	-16.8389E-3	-37.9634E-12	235.592E-3	-12.4659E-3
-957.979E-6	-38.5060E-12	237.839E-3	-23.7098E-3	-37.9798E-12	230.430E-3	-12.4643E-3
-962.981E-6	-39.0290E-12	242.245E-3	-18.5482E-3	-38.0767E-12	215.751E-3	-17.2104E-3
-967.984E-6	-39.2001E-12	245.301E-3	-7.36245E-3	-38.4105E-12	211.588E-3	-19.9611E-3
-972.986E-6	-39.6628E-12	237.327E-3	-7.12001E-3	-38.6144E-12	220.700E-3	-21.0310E-3
-977.989E-6	-39.7879E-12	227.139E-3	-9.80278E-3	-38.7110E-12	239.600E-3	-24.6000E-3
-982.991E-6	-39.8111E-12	220.388E-3	-10.9422E-3	-38.5993E-12	248.638E-3	-28.8483E-3
-987.994E-6	-39.7245E-12	217.801E-3	-22.1229E-3	-38.8486E-12	233.159E-3	-21.9622E-3
-992.997E-6	-39.8579E-12	231.146E-3	-30.9169E-3	-39.0639E-12	216.239E-3	-2.22975E-3
-997.999E-6	-39.6928E-12	244.843E-3	-28.7137E-3	-39.2338E-12	219.003E-3	8.03566E-3
-1.00300E-3	-39.1839E-12	239.113E-3	-25.8720E-3	-39.1715E-12	222.640E-3	246.887E-6
-1.00800E-3	-38.9161E-12	234.753E-3	-23.3366E-3	-39.4910E-12	225.308E-3	-6.72815E-3
-1.01301E-3	-38.8766E-12	234.355E-3	-20.6268E-3	-39.6392E-12	236.642E-3	-8.57562E-3
-1.01801E-3	-38.6556E-12	231.412E-3	-18.9995E-3	-39.5901E-12	239.446E-3	-10.7542E-3
-1.02301E-3	-38.5140E-12	238.595E-3	-19.1022E-3	-39.6322E-12	231.953E-3	-9.62290E-3
-1.02801E-3	-38.4580E-12	247.012E-3	-8.20816E-3	-39.7121E-12	230.150E-3	-9.02951E-3
-1.03302E-3	-38.4903E-12	244.714E-3	4.66722E-3	-39.8515E-12	236.026E-3	-15.5247E-3
-1.03802E-3	-38.8506E-12	241.494E-3	-6.55732E-3	-39.6015E-12	244.876E-3	-8.30150E-3
-1.04302E-3	-39.2254E-12	245.945E-3	-6.74585E-3	-39.6238E-12	255.100E-3	10.5322E-3
-1.04802E-3	-39.3116E-12	250.535E-3	5.32186E-3	-39.8445E-12	258.712E-3	8.86294E-3
-1.05303E-3	-39.6949E-12	255.166E-3	-4.94953E-3	-40.0346E-12	263.939E-3	-6.39349E-3
-1.05803E-3	-40.1161E-12	265.758E-3	-16.8170E-3	-39.8954E-12	278.586E-3	-13.2816E-3
-1.06303E-3	-40.4289E-12	269.144E-3	-20.8341E-3	-39.9368E-12	278.665E-3	-18.2769E-3
-1.06803E-3	-40.3944E-12	267.613E-3	-30.2013E-3	-39.9674E-12	272.605E-3	-21.1464E-3
-1.07304E-3	-40.7453E-12	273.853E-3	-37.2174E-3	-40.1863E-12	281.770E-3	-13.2123E-3
-1.07804E-3	-41.0699E-12	281.314E-3	-28.1958E-3	-40.3532E-12	289.302E-3	-16.1931E-3
-1.08304E-3	-41.0902E-12	288.068E-3	-11.7906E-3	-40.2031E-12	289.062E-3	-28.9379E-3
-1.08804E-3	-41.1567E-12	290.093E-3	977.591E-6	-40.3123E-12	295.295E-3	-21.8238E-3
-1.09305E-3	-41.1352E-12	285.600E-3	5.06933E-3	-40.5753E-12	300.664E-3	-12.0068E-3
-1.09805E-3	-41.1215E-12	293.333E-3	-6.78441E-3	-41.1126E-12	303.134E-3	-2.22526E-3
-1.10305E-3	-40.9050E-12	307.189E-3	-13.9536E-3	-41.0807E-12	315.857E-3	8.82199E-3
-1.10805E-3	-40.7406E-12	311.564E-3	-9.29992E-3	-40.9928E-12	327.089E-3	-10.9202E-3
-1.11306E-3	-40.5878E-12	315.951E-3	-9.69550E-3	-41.1502E-12	336.063E-3	-34.2530E-3
-1.11806E-3	-40.4586E-12	318.734E-3	-12.8877E-3	-41.5529E-12	357.240E-3	-26.2493E-3
-1.12306E-3	-40.5842E-12	312.764E-3	-20.9447E-3	-41.7415E-12	378.026E-3	-2.04566E-3
-1.12806E-3	-40.8382E-12	308.247E-3	-28.5908E-3	-41.5078E-12	383.140E-3	9.49435E-3
-1.13307E-3	-41.0507E-12	311.314E-3	-27.4223E-3	-41.5290E-12	382.628E-3	-1.93200E-3
-1.13807E-3	-40.9614E-12	317.949E-3	-30.8484E-3	-41.7522E-12	373.522E-3	-14.5788E-3
-1.14307E-3	-41.0915E-12	325.853E-3	-35.6704E-3	-42.0792E-12	359.149E-3	-17.5510E-3
-1.14807E-3	-41.4926E-12	338.021E-3	-30.7279E-3	-41.9643E-12	375.244E-3	-19.7634E-3
-1.15308E-3	-42.1417E-12	354.310E-3	-22.5142E-3	-41.9678E-12	411.233E-3	-23.5948E-3
-1.15808E-3	-42.3508E-12	368.661E-3	-14.7024E-3	-41.9648E-12	433.422E-3	-22.4325E-3
-1.16308E-3	-42.4400E-12	386.619E-3	-9.69352E-3	-42.2932E-12	453.450E-3	-17.6790E-3
-1.16808E-3	-42.8269E-12	404.830E-3	-9.81894E-3	-42.4476E-12	470.840E-3	-13.6280E-3
-1.17309E-3	-43.4357E-12	410.412E-3	-10.6969E-3	-42.4196E-12	474.761E-3	-15.3930E-3
-1.17809E-3	-43.7674E-12	427.539E-3	-14.7709E-3	-42.4008E-12	482.471E-3	-13.8523E-3
-1.18309E-3	-43.6176E-12	461.257E-3	-12.2716E-3	-42.6971E-12	501.609E-3	-12.0016E-3
-1.18809E-3	-43.7746E-12	477.161E-3	-6.26176E-3	-43.0705E-12	516.612E-3	-21.8398E-3
-1.19310E-3	-44.0057E-12	476.492E-3	-11.4952E-3	-43.1216E-12	522.682E-3	-18.0842E-3
-1.19810E-3	-44.1919E-12	483.002E-3	-10.8031E-3	-43.2744E-12	527.912E-3	-7.85397E-3
-1.20310E-3	-43.8298E-12	495.583E-3	-1.12442E-3	-43.4614E-12	538.287E-3	-9.67158E-3
-1.20810E-3	-44.1103E-12	506.084E-3	-5.81218E-3	-43.9916E-12	555.381E-3	-3.51436E-3
-1.21311E-3	-44.1413E-12	514.233E-3	-16.8904E-3	-44.1776E-12	574.178E-3	4.31370E-3
-1.21811E-3	-44.4683E-12	511.980E-3	-17.5837E-3	-44.2603E-12	581.950E-3	-13.3903E-3
-1.22311E-3	-44.4722E-12	510.020E-3	-14.3229E-3	-44.5032E-12	587.607E-3	-33.4401E-3
-1.22811E-3	-44.4242E-12	525.981E-3	-12.2162E-3	-44.9154E-12	609.931E-3	-32.3109E-3
-1.23312E-3	-44.6110E-12	537.070E-3	-10.5596E-3	-45.0381E-12	629.447E-3	-40.0934E-3
-1.23812E-3	-44.6609E-12	539.224E-3	-7.61679E-3	-45.1061E-12	626.633E-3	-49.5937E-3
-1.24312E-3	-44.7845E-12	562.594E-3	-12.6979E-3	-45.3864E-12	620.456E-3	-36.4851E-3
-1.24812E-3	-44.7088E-12	585.233E-3	-12.6827E-3	-45.0919E-12	633.567E-3	-31.7411E-3
-1.25313E-3	-44.8188E-12	590.869E-3	15.0232E-6	-45.1815E-12	653.452E-3	-39.8174E-3
-1.25813E-3	-45.0242E-12	607.555E-3	1.39729E-3	-45.1682E-12	672.138E-3	-41.7020E-3
-1.26313E-3	-45.6492E-12	630.465E-3	-6.58385E-3	-45.2014E-12	693.007E-3	-47.5740E-3
-1.26813E-3	-45.9011E-12	639.920E-3	-9.86706E-3	-45.0869E-12	706.326E-3	-46.9221E-3
-1.27314E-3	-46.1486E-12	643.178E-3	-14.7892E-3	-45.5372E-12	718.004E-3	-28.8283E-3
-1.27814E-3	-46.7926E-12	659.533E-3	-12.8164E-3	-45.6797E-12	730.226E-3	-10.3156E-3
-1.28314E-3	-47.0542E-12	691.234E-3	-4.14871E-3	-45.9412E-12	729.808E-3	-8.06492E-3
-1.28814E-3	-47.4509E-12	719.480E-3	-12.9591E-3	-46.1234E-12	727.590E-3	-13.4756E-3
-1.29315E-3	-47.7292E-12	720.440E-3	-32.5763E-3	-46.4382E-12	747.762E-3	-14.6310E-3
-1.29815E-3	-48.1726E-12	714.082E-3	-33.1856E-3	-46.8228E-12	773.707E-3	-12.5463E-3
-1.30315E-3	-48.4184E-12	732.077E-3	-22.0183E-3	-47.2579E-12	793.966E-3	-4.06004E-3
-1.30815E-3	-48.9008E-12	759.989E-3	-12.6082E-3	-47.8378E-12	822.481E-3	-1.09701E-3
-1.31316E-3	-49.0958E-12	780.296E-3	893.607E-6	-48.1982E-12	842.536E-3	-7.93035E-3
-1.31816E-3	-48.9682E-12	798.403E-3	6.95676E-3	-48.7834E-12	848.683E-3	-13.1673E-3
-1.32316E-3	-48.9990E-12	807.230E-3	2.45129E-3	-49.3406E-12	854.365E-3	-12.7477E-3
-1.32816E-3	-49.3449E-12	801.526E-3	-3.30220E-3	-49.9002E-12	856.252E-3	-8.89002E-3
-1.33317E-3	-49.1727E-12	806.841E-3	-9.84146E-3	-50.0443E-12	861.264E-3	-758.641E-6
-1.33817E-3	-48.9413E-12	833.942E-3	-27.9790E-3	-50.6515E-12	873.825E-3	-514.448E-6
-1.34317E-3	-48.8060E-12	861.214E-3	-49.7322E-3	-51.0560E-12	871.142E-3	-9.58169E-3
-1.34817E-3	-49.1214E-12	864.745E-3	-48.3604E-3	-51.0613E-12	865.909E-3	-7.53843E-3
-1.35318E-3	-49.3422E-12	854.626E-3	-22.7465E-3	-51.0148E-12	889.200E-3	1.93605E-3
-1.35818E-3	-49.4488E-12	860.443E-3	-8.99493E-3	-51.3369E-12	909.942E-3	7.64431E-3
-1.36318E-3	-50.0427E-12	874.904E-3	-25.6663E-3	-51.6652E-12	903.751E-3	13.6566E-3
-1.36818E-3	-50.7528E-12	875.232E-3	-45.1515E-3	-51.7340E-12	902.657E-3	13.7110E-3
-1.37319E-3	-51.4448E-12	870.522E-3	-37.2858E-3	-52.0164E-12	924.269E-3	768.119E-6
-1.37819E-3	-52.0103E-12	881.546E-3	-16.5923E-3	-51.8786E-12	940.588E-3	-10.6979E-3
-1.38319E-3	-52.7019E-12	910.047E-3	-16.9307E-3	-52.2853E-12	945.571E-3	-15.0274E-3
-1.38819E-3	-53.6095E-12	930.064E-3	-29.3565E-3	-52.3541E-12	954.928E-3	-20.0980E-3
-1.39320E-3	-54.1464E-12	932.709E-3	-25.9619E-3	-52.6784E-12	958.215E-3	-19.6828E-3
-1.39820E-3	-54.7456E-12	943.524E-3	-21.7030E-3	-52.7471E-12	964.574E-3	-4.24096E-3
-1.40320E-3	-55.2250E-12	965.014E-3	-32.6189E-3	-53.1539E-12	985.777E-3	-2.42678E-3
-1.40820E-3	-55.6296E-12	987.270E-3	-32.2517E-3	-53.3792E-12	998.751E-3	-19.1644E-3
-1.41321E-3	-55.6917E-12	1.00867E+0	-16.4159E-3	-53.9145E-12	1.00099E+0	-20.5939E-3
-1.41821E-3	-56.0367E-12	1.01097E+0	-7.47608E-3	-54.3341E-12	1.00811E+0	-17.7942E-3
-1.42321E-3	-56.1858E-12	987.144E-3	-6.82835E-3	-54.7896E-12	1.02001E+0	-21.4809E-3
-1.42821E-3	-56.0321E-12	977.227E-3	-3.84371E-3	-55.0727E-12	1.03484E+0	-19.1895E-3
-1.43322E-3	-55.7551E-12	997.796E-3	3.34022E-3	-55.5073E-12	1.04415E+0	-10.8669E-3
-1.43822E-3	-55.5235E-12	1.01010E+0	-724.225E-6	-56.1260E-12	1.03301E+0	-689.427E-6
-1.44322E-3	-55.6391E-12	1.00743E+0	-12.2880E-3	-56.6810E-12	1.01274E+0	470.607E-6
-1.44822E-3	-55.7870E-12	1.00512E+0	-16.8305E-3	-57.3240E-12	1.01432E+0	3.82958E-3
-1.45323E-3	-55.5147E-12	1.00513E+0	-19.7679E-3	-57.8710E-12	1.02579E+0	14.5305E-3
-1.45823E-3	-55.7380E-12	1.00444E+0	-9.42788E-3	-58.2156E-12	1.02334E+0	2.91673E-3
-1.46323E-3	-56.4503E-12	999.254E-3	4.92695E-3	-58.6327E-12	1.02562E+0	-18.4306E-3
-1.46823E-3	-56.9725E-12	992.439E-3	-7.12529E-3	-58.9042E-12	1.03774E+0	-18.4327E-3
-1.47324E-3	-57.1535E-12	995.965E-3	-29.1720E-3	-59.2457E-12	1.05043E+0	-7.02445E-3
-1.47824E-3	-57.9135E-12	1.00894E+0	-30.6469E-3	-59.2496E-12	1.05276E+0	-7.82349E-3
-1.48324E-3	-58.7775E-12	1.01125E+0	-15.0128E-3	-59.6209E-12	1.03998E+0	-16.4056E-3
-1.48824E-3	-59.3757E-12	1.01618E+0	-13.5855E-3	-59.5500E-12	1.02366E+0	-25.2725E-3
-1.49325E-3	-59.8267E-12	1.04602E+0	-20.9646E-3	-59.6704E-12	1.00431E+0	-33.5700E-3
-1.49825E-3	-60.6821E-12	1.06675E+0	-14.3747E-3	-59.6434E-12	981.425E-3	-32.6545E-3
-1.50325E-3	-61.3231E-12	1.06878E+0	-9.76659E-3	-59.9144E-12	983.804E-3	-20.7653E-3
-1.50825E-3	-61.6893E-12	1.07851E+0	-13.1127E-3	-59.8150E-12	1.02111E+0	-239.301E-6
-1.51326E-3	-61.9868E-12	1.07131E+0	-13.3535E-3	-60.3244E-12	1.03745E+0	9.74600E-3
-1.51826E-3	-62.2279E-12	1.05447E+0	-9.48526E-3	-60.4273E-12	1.00544E+0	8.04933E-3
-1.52326E-3	-62.3261E-12	1.05167E+0	-7.07280E-3	-60.4989E-12	998.289E-3	2.73788E-3
-1.52826E-3	-62.4500E-12	1.03328E+0	-12.6822E-3	-60.8289E-12	1.02778E+0	-18.5986E-3
-1.53327E-3	-62.5860E-12	1.01872E+0	-21.4301E-3	-61.4986E-12	1.02099E+0	-35.3503E-3
-1.53827E-3	-62.5827E-12	1.02312E+0	-22.5259E-3	-62.1717E-12	999.775E-3	-27.4064E-3
-1.54327E-3	-62.6086E-12	1.01747E+0	-19.2239E-3	-62.7113E-12	1.00768E+0	-20.9497E-3
-1.54827E-3	-62.8297E-12	1.00825E+0	-18.5099E-3	-63.3215E-12	1.01038E+0	-19.5036E-3
-1.55328E-3	-62.9880E-12	1.00649E+0	-21.5117E-3	-63.9011E-12	1.00287E+0	-8.74854E-3
-1.55828E-3	-63.4156E-12	997.836E-3	-21.1852E-3	-64.7942E-12	1.00818E+0	-6.10375E-3
-1.56328E-3	-63.6260E-12	994.547E-3	-18.0404E-3	-65.0500E-12	1.01717E+0	-12.7326E-3
-1.56828E-3	-63.7487E-12	1.01488E+0	-20.0161E-3	-65.5584E-12	1.01574E+0	-11.1980E-3
-1.57329E-3	-64.4452E-12	1.02543E+0	-19.7972E-3	-65.8147E-12	1.01056E+0	-11.3806E-3
-1.57829E-3	-65.4046E-12	1.00998E+0	-16.8800E-3	-66.1919E-12	1.00680E+0	-18.5773E-3
-1.58329E-3	-65.5395E-12	1.00545E+0	-17.7210E-3	-66.1847E-12	1.01121E+0	-20.2534E-3
-1.58829E-3	-65.8857E-12	1.00529E+0	-3.58502E-3	-66.3701E-12	1.02257E+0	-19.9201E-3
-1.59330E-3	-66.6351E-12	988.638E-3	10.2310E-3	-66.5861E-12	1.00853E+0	-19.9916E-3
-1.59830E-3	-67.4170E-12	983.064E-3	-2.22218E-3	-67.0892E-12	976.690E-3	-15.2208E-3
-1.60330E-3	-67.5447E-12	992.737E-3	-15.3095E-3	-67.1132E-12	966.323E-3	-14.2415E-3
-1.60830E-3	-67.8194E-12	1.00069E+0	-29.2271E-3	-66.9929E-12	966.294E-3	-12.6938E-3
-1.61331E-3	-68.0109E-12	1.00030E+0	-41.0588E-3	-67.4438E-12	957.477E-3	-1.71149E-3
-1.61831E-3	-68.7362E-12	990.011E-3	-39.2729E-3	-67.6807E-12	956.477E-3	1.06063E-3
-1.62331E-3	-68.8137E-12	970.021E-3	-33.8337E-3	-67.6554E-12	958.362E-3	-16.5063E-3
-1.62831E-3	-68.8459E-12	964.932E-3	-25.0779E-3	-68.0821E-12	960.947E-3	-29.0970E-3
-1.63332E-3	-69.0081E-12	975.587E-3	-11.4493E-3	-68.4944E-12	978.415E-3	-31.5335E-3
-1.63832E-3	-69.4904E-12	972.134E-3	-2.44679E-3	-69.0322E-12	979.909E-3	-35.2125E-3
-1.64332E-3	-69.8380E-12	963.330E-3	-7.65196E-3	-69.6311E-12	962.164E-3	-29.3027E-3
-1.64832E-3	-69.7647E-12	952.968E-3	-10.9431E-3	-70.2764E-12	958.588E-3	-24.4968E-3
-1.65333E-3	-69.7797E-12	935.877E-3	-6.91008E-3	-70.4640E-12	962.094E-3	-23.4900E-3
-1.65833E-3	-70.0781E-12	936.590E-3	-13.6352E-3	-70.7615E-12	951.560E-3	-20.8596E-3
-1.66333E-3	-70.6743E-12	955.617E-3	-18.2053E-3	-71.2116E-12	928.456E-3	-19.7550E-3
-1.66833E-3	-70.6415E-12	960.596E-3	-14.1065E-3	-71.5862E-12	905.908E-3	-27.5790E-3
-1.67334E-3	-71.1242E-12	949.635E-3	-11.6154E-3	-71.6857E-12	898.535E-3	-37.3810E-3
-1.67834E-3	-71.3588E-12	949.046E-3	-6.18991E-3	-71.7479E-12	899.120E-3	-27.7210E-3
-1.68334E-3	-72.2514E-12	954.230E-3	-8.93481E-3	-71.8684E-12	904.300E-3	-13.9986E-3
-1.68834E-3	-72.3025E-12	948.551E-3	-18.6309E-3	-72.2943E-12	910.872E-3	-7.00588E-3
-1.69335E-3	-73.0580E-12	943.177E-3	-12.8497E-3	-72.7556E-12	911.347E-3	9.59441E-3
-1.69835E-3	-73.0895E-12	933.402E-3	3.33892E-3	-72.8524E-12	910.629E-3	13.1268E-3
-1.70335E-3	-73.5156E-12	919.533E-3	-2.51811E-3	-72.9745E-12	902.725E-3	-7.34978E-3
-1.70835E-3	-73.7449E-12	920.325E-3	-23.9390E-3	-73.2144E-12	881.354E-3	-15.2867E-3
-1.71336E-3	-74.0367E-12	921.576E-3	-27.5662E-3	-73.6189E-12	873.853E-3	-13.6212E-3
-1.71836E-3	-73.9526E-12	905.464E-3	-26.7964E-3	-73.5224E-12	881.961E-3	-20.2570E-3
-1.72336E-3	-74.5294E-12	891.933E-3	-25.5862E-3	-73.5570E-12	881.683E-3	-22.0527E-3
-1.72836E-3	-74.6921E-12	888.650E-3	-9.83194E-3	-73.7254E-12	888.459E-3	-26.3918E-3
-1.73337E-3	-75.2313E-12	895.356E-3	-17.4433E-3	-73.9536E-12	890.916E-3	-42.9594E-3
-1.73837E-3	-75.5234E-12	908.488E-3	-40.6761E-3	-74.4499E-12	878.825E-3	-40.5569E-3
-1.74337E-3	-75.4117E-12	908.002E-3	-26.0045E-3	-74.8831E-12	873.828E-3	-19.7632E-3
-1.74837E-3	-76.0298E-12	899.426E-3	2.83729E-3	-75.4149E-12	865.592E-3	-11.8145E-3
-1.75338E-3	-76.3696E-12	904.665E-3	9.42457E-3	-76.0663E-12	857.234E-3	-6.06906E-3
-1.75838E-3	-76.3369E-12	909.140E-3	6.87721E-3	-76.5666E-12	869.946E-3	1.33646E-3
-1.76338E-3	-76.3892E-12	897.410E-3	-4.25274E-3	-77.5603E-12	880.405E-3	-7.95948E-3
-1.76838E-3	-76.7884E-12	884.500E-3	-28.9075E-3	-77.7574E-12	869.052E-3	-15.3929E-3
-1.77339E-3	-77.2165E-12	872.779E-3	-35.9605E-3	-78.3860E-12	864.033E-3	-10.4204E-3
-1.77839E-3	-77.5344E-12	869.915E-3	-28.2440E-3	-78.4418E-12	873.838E-3	-5.80539E-3
-1.78339E-3	-77.7319E-12	874.688E-3	-30.6009E-3	-79.2179E-12	874.222E-3	1.44979E-3
-1.78839E-3	-78.2241E-12	858.384E-3	-23.3074E-3	-79.4999E-12	862.117E-3	2.25154E-3
-1.79340E-3	-78.7161E-12	838.396E-3	-7.94758E-3	-79.8693E-12	847.415E-3	-14.0466E-3
-1.79840E-3	-79.1775E-12	841.687E-3	-5.75503E-3	-79.7265E-12	842.101E-3	-24.0629E-3
-1.80340E-3	-79.5467E-12	847.481E-3	-13.4490E-3	-79.9649E-12	849.669E-3	-8.72691E-3
-1.80840E-3	-79.9929E-12	845.652E-3	-19.7231E-3	-79.7094E-12	850.357E-3	163.164E-6
-1.81341E-3	-80.2445E-12	843.931E-3	-22.7204E-3	-80.0358E-12	843.448E-3	-6.83817E-3
-1.81841E-3	-80.6212E-12	841.078E-3	-18.3650E-3	-80.1040E-12	838.835E-3	-16.0890E-3
-1.82341E-3	-80.9349E-12	833.809E-3	-10.1624E-3	-80.0220E-12	833.093E-3	-24.0238E-3
-1.82841E-3	-81.5736E-12	833.254E-3	-12.6763E-3	-79.7802E-12	827.989E-3	-25.3662E-3
-1.83342E-3	-81.7771E-12	844.592E-3	-15.4506E-3	-79.9300E-12	834.837E-3	-17.7328E-3
-1.83842E-3	-81.8909E-12	849.269E-3	-22.1883E-3	-79.8977E-12	836.223E-3	-2.45197E-3
-1.84342E-3	-81.6657E-12	843.572E-3	-36.2155E-3	-80.2540E-12	816.815E-3	-10.1997E-3
-1.84842E-3	-81.6997E-12	848.968E-3	-32.9416E-3	-80.4798E-12	809.608E-3	-22.7121E-3
-1.85343E-3	-81.2015E-12	859.789E-3	-18.5429E-3	-81.0913E-12	830.018E-3	-22.7870E-3
-1.85843E-3	-81.2333E-12	853.803E-3	-24.1837E-3	-81.8446E-12	845.511E-3	-36.5155E-3
-1.86343E-3	-81.0595E-12	825.097E-3	-33.1956E-3	-82.7765E-12	838.000E-3	-43.8729E-3
-1.86843E-3	-81.2330E-12	801.263E-3	-23.7839E-3	-83.3222E-12	830.695E-3	-37.6347E-3
-1.87344E-3	-81.3696E-12	806.003E-3	-20.3710E-3	-83.7204E-12	830.173E-3	-26.9595E-3
-1.87844E-3	-81.8414E-12	813.350E-3	-20.9548E-3	-84.5317E-12	818.327E-3	-16.8103E-3
-1.88344E-3	-82.1052E-12	806.123E-3	-18.5023E-3	-85.3493E-12	802.066E-3	-15.6243E-3
-1.88844E-3	-82.8688E-12	798.284E-3	-30.1544E-3	-85.5824E-12	793.888E-3	-20.9159E-3
-1.89345E-3	-83.4753E-12	799.295E-3	-36.4196E-3	-85.4636E-12	790.057E-3	-24.0079E-3
-1.89845E-3	-84.5503E-12	810.475E-3	-26.5525E-3	-85.7506E-12	783.349E-3	-23.1259E-3
-1.90345E-3	-85.4632E-12	821.501E-3	-16.2619E-3	-86.2014E-12	773.710E-3	-24.2921E-3
-1.90845E-3	-85.9822E-12	822.614E-3	-16.3440E-3	-86.1387E-12	772.905E-3	-21.9630E-3
-1.91346E-3	-86.6248E-12	812.573E-3	-16.7818E-3	-86.2212E-12	778.888E-3	-11.0740E-3
-1.91846E-3	-87.0589E-12	808.557E-3	-11.3300E-3	-85.6720E-12	781.509E-3	-1.47492E-3
-1.92346E-3	-87.5326E-12	826.335E-3	-15.1330E-3	-86.0348E-12	789.785E-3	-7.51780E-3
-1.92846E-3	-87.7436E-12	824.330E-3	-26.2115E-3	-85.4452E-12	799.643E-3	-18.2766E-3
-1.93347E-3	-87.1768E-12	806.274E-3	-31.6480E-3	-85.5669E-12	793.574E-3	-13.5360E-3
-1.93847E-3	-87.0618E-12	815.583E-3	-30.6897E-3	-85.2130E-12	772.142E-3	1.33173E-3
-1.94347E-3	-86.9589E-12	828.344E-3	-29.5498E-3	-85.1912E-12	764.712E-3	8.74430E-3
-1.94847E-3	-86.8736E-12	822.851E-3	-33.5818E-3	-85.1782E-12	776.075E-3	-15.5800E-3
-1.95348E-3	-86.0701E-12	814.201E-3	-43.3199E-3	-85.7470E-12	776.698E-3	-39.3596E-3
-1.95848E-3	-85.8199E-12	799.550E-3	-36.1807E-3	-86.3440E-12	775.467E-3	-26.6035E-3
-1.96348E-3	-85.8488E-12	778.540E-3	-20.0121E-3	-87.2696E-12	783.957E-3	-20.7723E-3
-1.96848E-3	-86.0404E-12	773.866E-3	-24.6998E-3	-87.7635E-12	778.966E-3	-29.9388E-3
-1.97349E-3	-86.0275E-12	777.103E-3	-37.6120E-3	-88.5519E-12	775.917E-3	-28.6296E-3
-1.97849E-3	-86.4685E-12	758.850E-3	-34.2878E-3	-89.5451E-12	787.406E-3	-19.8630E-3
-1.98349E-3	-87.2379E-12	749.293E-3	-23.4300E-3	-89.8965E-12	776.450E-3	-19.8698E-3
-1.98849E-3	-88.1477E-12	778.665E-3	-20.0733E-3	-90.4820E-12	759.543E-3	-23.8614E-3
-1.99350E-3	-89.2114E-12	799.642E-3	-18.7932E-3	-90.8727E-12	764.531E-3	-23.2139E-3
-1.99850E-3	-90.1228E-12	789.718E-3	-15.2325E-3	-91.0468E-12	766.129E-3	-27.7901E-3
-2.00350E-3	-91.0662E-12	777.064E-3	-4.22334E-3	-91.0327E-12	759.413E-3	-29.7635E-3
-2.00850E-3	-91.7114E-12	765.740E-3	1.73488E-3	-90.9508E-12	757.737E-3	-11.2116E-3
-2.01351E-3	-92.6202E-12	777.572E-3	-9.52033E-3	-91.0860E-12	751.425E-3	15.3490E-3
-2.01851E-3	-92.8791E-12	806.899E-3	-8.54176E-3	-90.8763E-12	739.042E-3	27.7072E-3
-2.02351E-3	-93.2780E-12	787.397E-3	7.72066E-3	-90.8808E-12	742.684E-3	12.2996E-3
-2.02851E-3	-93.0392E-12	761.458E-3	4.76344E-3	-90.1127E-12	756.902E-3	-22.5658E-3
-2.03352E-3	-93.1350E-12	782.972E-3	-11.9560E-3	-90.4626E-12	752.703E-3	-37.8505E-3
-2.03852E-3	-93.2202E-12	801.731E-3	-9.96715E-3	-90.3102E-12	741.493E-3	-23.5707E-3
-2.04352E-3	-92.4533E-12	792.546E-3	1.15073E-3	-90.3780E-12	732.441E-3	-8.33647E-3
-2.04852E-3	-92.6392E-12	767.435E-3	-8.35243E-3	-90.3279E-12	725.013E-3	-5.14285E-3
-2.05353E-3	-92.2056E-12	745.026E-3	-22.6460E-3	-90.3569E-12	723.713E-3	-6.00393E-3
-2.05853E-3	-92.1208E-12	730.788E-3	-21.4868E-3	-90.6915E-12	728.134E-3	-16.7905E-3
-2.06353E-3	-91.7243E-12	733.205E-3	-15.6437E-3	-91.0497E-12	744.254E-3	-30.5412E-3
-2.06853E-3	-91.8106E-12	746.505E-3	-14.0783E-3	-91.8147E-12	761.438E-3	-30.3162E-3
-2.07354E-3	-91.9479E-12	747.746E-3	-19.2235E-3	-92.4163E-12	770.099E-3	-17.5885E-3
-2.07854E-3	-92.1293E-12	752.399E-3	-20.5738E-3	-93.0656E-12	762.544E-3	-3.98652E-3
-2.08354E-3	-92.7702E-12	753.750E-3	-15.3589E-3	-93.7371E-12	745.551E-3	1.50684E-3
-2.08854E-3	-93.2815E-12	738.075E-3	-21.7526E-3	-94.8186E-12	742.675E-3	-5.54023E-3
-2.09355E-3	-94.2045E-12	736.627E-3	-29.7151E-3	-95.5838E-12	736.267E-3	-14.2552E-3
-2.09855E-3	-94.6165E-12	749.808E-3	-22.1886E-3	-96.1884E-12	730.345E-3	-16.5692E-3
-2.10355E-3	-95.5613E-12	744.082E-3	-5.31406E-3	-96.5842E-12	747.710E-3	-20.5431E-3
-2.10855E-3	-95.8729E-12	732.868E-3	11.8288E-3	-97.0765E-12	756.427E-3	-33.4007E-3
-2.11356E-3	-96.4808E-12	742.822E-3	14.4064E-3	-97.6326E-12	745.081E-3	-40.8009E-3
-2.11856E-3	-96.6383E-12	751.535E-3	-1.83820E-3	-97.3165E-12	743.232E-3	-34.1554E-3
-2.12356E-3	-97.1411E-12	748.698E-3	-16.2045E-3	-97.2956E-12	743.546E-3	-20.1780E-3
-2.12856E-3	-97.3042E-12	759.402E-3	-8.67923E-3	-96.9870E-12	743.341E-3	3.55257E-3
-2.13357E-3	-97.6602E-12	776.301E-3	2.12306E-3	-96.7413E-12	750.239E-3	7.96416E-3
-2.13857E-3	-97.2647E-12	769.613E-3	-2.57377E-3	-96.2812E-12	738.161E-3	-6.35403E-3
-2.14357E-3	-97.4473E-12	751.327E-3	-1.28228E-3	-95.2685E-12	719.134E-3	-10.5842E-3
-2.14857E-3	-97.5565E-12	748.878E-3	-1.91032E-3	-95.0884E-12	713.462E-3	-21.9063E-3
-2.15358E-3	-97.4632E-12	759.891E-3	-24.3961E-3	-94.9735E-12	710.232E-3	-37.5566E-3
-2.15858E-3	-97.2915E-12	771.450E-3	-39.7588E-3	-95.4270E-12	712.040E-3	-30.9878E-3
-2.16358E-3	-97.7539E-12	766.104E-3	-36.0654E-3	-95.3807E-12	732.208E-3	-14.2201E-3
-2.16858E-3	-97.7075E-12	749.993E-3	-35.9320E-3	-96.0438E-12	743.680E-3	-12.7297E-3
-2.17359E-3	-97.5728E-12	750.763E-3	-34.3627E-3	-96.4339E-12	729.442E-3	-20.3467E-3
-2.17859E-3	-97.3050E-12	753.390E-3	-26.8906E-3	-97.5551E-12	730.890E-3	-24.0104E-3
-2.18359E-3	-97.5519E-12	743.817E-3	-35.4411E-3	-98.6430E-12	748.305E-3	-24.6171E-3
-2.18859E-3	-97.7145E-12	741.043E-3	-47.1801E-3	-99.8969E-12	747.788E-3	-23.9086E-3
-2.19360E-3	-98.0657E-12	737.912E-3	-31.1516E-3	-101.551E-12	746.703E-3	-25.1778E-3
-2.19860E-3	-97.9475E-12	724.673E-3	-15.6503E-3	-102.253E-12	750.814E-3	-31.8520E-3
-2.20360E-3	-98.8113E-12	722.726E-3	-14.4460E-3	-103.059E-12	749.446E-3	-32.7909E-3
-2.20860E-3	-99.2534E-12	726.621E-3	-4.83853E-3	-103.757E-12	752.195E-3	-13.6513E-3
-2.21361E-3	-99.8989E-12	717.640E-3	-4.55096E-3	-104.527E-12	745.807E-3	6.36781E-3
-2.21861E-3	-100.526E-12	704.553E-3	-15.8765E-3	-104.100E-12	736.419E-3	533.805E-6
-2.22361E-3	-101.575E-12	693.806E-3	-16.8029E-3	-103.707E-12	742.151E-3	-18.5765E-3
-2.22861E-3	-102.682E-12	703.870E-3	-14.6123E-3	-103.420E-12	745.854E-3	-30.2699E-3
-2.23362E-3	-103.148E-12	733.634E-3	-22.8074E-3	-102.930E-12	731.923E-3	-28.7450E-3
-2.23862E-3	-103.755E-12	748.362E-3	-30.4521E-3	-101.946E-12	720.144E-3	-8.60036E-3
-2.24362E-3	-104.030E-12	737.588E-3	-37.0692E-3	-101.147E-12	714.841E-3	-678.179E-6
-2.24862E-3	-104.238E-12	727.897E-3	-33.6185E-3	-101.081E-12	698.093E-3	-26.2552E-3
-2.25363E-3	-103.961E-12	735.077E-3	-2.36600E-3	-100.572E-12	679.096E-3	-41.9285E-3
-2.25863E-3	-103.803E-12	743.603E-3	23.5874E-3	-100.018E-12	683.849E-3	-38.5224E-3
-2.26363E-3	-103.390E-12	733.794E-3	14.4345E-3	-99.7211E-12	697.688E-3	-30.2023E-3
-2.26863E-3	-103.243E-12	711.473E-3	-9.83016E-3	-99.9967E-12	705.108E-3	-8.01304E-3
-2.27364E-3	-102.737E-12	695.187E-3	-23.8606E-3	-100.418E-12	717.748E-3	7.53008E-3
-2.27864E-3	-102.187E-12	686.584E-3	-19.1725E-3	-101.311E-12	726.105E-3	-8.40615E-3
-2.28364E-3	-102.081E-12	697.295E-3	217.460E-6	-101.963E-12	731.463E-3	-33.6067E-3
-2.28864E-3	-101.821E-12	724.411E-3	18.5473E-3	-103.423E-12	742.994E-3	-38.6809E-3
-2.29365E-3	-102.277E-12	736.180E-3	17.0669E-3	-104.775E-12	742.540E-3	-20.8169E-3
-2.29865E-3	-102.321E-12	729.970E-3	568.421E-6	-105.574E-12	727.004E-3	-5.85084E-3
-2.30365E-3	-102.668E-12	718.870E-3	-11.9383E-3	-106.401E-12	727.245E-3	-10.8573E-3
-2.30865E-3	-103.446E-12	710.712E-3	-14.8526E-3	-107.069E-12	731.834E-3	-17.1846E-3
-2.31366E-3	-104.864E-12	709.408E-3	-8.15914E-3	-108.230E-12	717.868E-3	1.82265E-3
-2.31866E-3	-105.397E-12	689.940E-3	3.42512E-3	-108.225E-12	716.533E-3	16.5412E-3
-2.32366E-3	-106.419E-12	668.477E-3	7.37653E-3	-108.378E-12	720.892E-3	-9.09449E-3
-2.32866E-3	-106.869E-12	676.049E-3	-3.01735E-6	-107.591E-12	709.601E-3	-19.9810E-3
-2.33367E-3	-107.649E-12	692.526E-3	1.11749E-3	-107.590E-12	718.735E-3	6.54858E-3
-2.33867E-3	-108.222E-12	705.373E-3	9.90330E-3	-107.291E-12	726.334E-3	990.051E-6
-2.34367E-3	-108.944E-12	713.889E-3	5.07901E-3	-106.599E-12	694.533E-3	-27.6116E-3
-2.34867E-3	-108.910E-12	720.668E-3	-13.2082E-3	-105.848E-12	679.603E-3	-14.1134E-3
-2.35368E-3	-109.143E-12	713.868E-3	-27.6909E-3	-105.251E-12	695.309E-3	11.7437E-3
-2.35868E-3	-109.167E-12	711.281E-3	-21.4791E-3	-105.043E-12	699.365E-3	12.5045E-3
-2.36368E-3	-109.232E-12	729.508E-3	-7.11973E-3	-104.489E-12	694.693E-3	7.57772E-3
-2.36868E-3	-108.879E-12	728.248E-3	-8.17129E-3	-104.349E-12	687.028E-3	726.171E-6
-2.37369E-3	-107.895E-12	714.401E-3	-18.5062E-3	-104.265E-12	668.060E-3	-21.0875E-3
-2.37869E-3	-107.715E-12	706.870E-3	-11.0769E-3	-105.029E-12	664.564E-3	-35.0877E-3
-2.38369E-3	-107.306E-12	692.691E-3	-1.68601E-3	-105.824E-12	693.381E-3	-34.1631E-3
-2.38869E-3	-107.166E-12	691.193E-3	-13.2043E-3	-106.736E-12	708.275E-3	-27.2900E-3
-2.39370E-3	-106.921E-12	707.453E-3	-22.3270E-3	-107.615E-12	712.243E-3	-8.49814E-3
-2.39870E-3	-107.360E-12	704.589E-3	-26.2437E-3	-108.934E-12	729.544E-3	-16.5455E-3
-2.40370E-3	-107.604E-12	689.625E-3	-35.8202E-3	-110.808E-12	735.983E-3	-34.5847E-3
-2.40870E-3	-108.980E-12	683.106E-3	-35.6439E-3	-112.259E-12	735.114E-3	-10.4044E-3
-2.41371E-3	-109.370E-12	686.586E-3	-20.0626E-3	-113.124E-12	739.949E-3	1.23051E-3
-2.41871E-3	-110.197E-12	700.717E-3	-22.9743E-3	-113.616E-12	734.139E-3	-25.2714E-3
-2.42371E-3	-110.733E-12	709.452E-3	-35.6673E-3	-114.542E-12	716.759E-3	-36.7378E-3
-2.42871E-3	-111.909E-12	716.710E-3	-28.5155E-3	-114.621E-12	708.425E-3	-30.7917E-3
-2.43372E-3	-112.564E-12	720.404E-3	-27.1134E-3	-114.546E-12	709.428E-3	-35.3540E-3
-2.43872E-3	-112.712E-12	706.734E-3	-27.8619E-3	-113.824E-12	715.736E-3	-38.8078E-3
-2.44372E-3	-113.008E-12	686.711E-3	-13.7563E-3	-113.623E-12	717.467E-3	-17.0910E-3
-2.44872E-3	-113.196E-12	690.916E-3	-15.9532E-3	-112.956E-12	700.474E-3	-749.102E-6
-2.45373E-3	-113.498E-12	710.806E-3	-40.0662E-3	-111.958E-12	689.655E-3	-505.615E-6
-2.45873E-3	-113.574E-12	717.234E-3	-45.4508E-3	-111.010E-12	696.047E-3	12.9095E-3
-2.46373E-3	-113.042E-12	712.197E-3	-26.9117E-3	-110.720E-12	688.151E-3	9.93669E-3
-2.46873E-3	-112.341E-12	705.352E-3	-22.7914E-3	-110.181E-12	671.392E-3	-2.38634E-3
-2.47374E-3	-112.477E-12	687.075E-3	-33.8043E-3	-109.693E-12	659.886E-3	-3.00344E-3
-2.47874E-3	-112.469E-12	666.933E-3	-30.8624E-3	-109.712E-12	655.692E-3	-19.2255E-3
-2.48374E-3	-112.047E-12	681.754E-3	-17.7590E-3	-110.051E-12	668.858E-3	-23.3792E-3
-2.48874E-3	-111.869E-12	713.281E-3	-16.5708E-3	-110.642E-12	690.931E-3	-6.54592E-3
-2.49375E-3	-112.442E-12	715.882E-3	-27.9579E-3	-111.564E-12	710.959E-3	2.82425E-3
-2.49875E-3	-113.036E-12	693.613E-3	-32.7731E-3	-112.734E-12	718.900E-3	-3.84213E-3
-2.50375E-3	-113.334E-12	689.983E-3	-13.8699E-3	-113.931E-12	714.162E-3	-15.2159E-3
-2.50875E-3	-113.881E-12	708.490E-3	-1.82156E-3	-115.240E-12	712.246E-3	-12.9303E-3
-2.51376E-3	-114.389E-12	712.187E-3	-25.5852E-3	-116.262E-12	708.418E-3	-15.6375E-3
-2.51876E-3	-115.094E-12	706.072E-3	-34.4969E-3	-118.090E-12	707.909E-3	-6.40191E-3
-2.52376E-3	-115.242E-12	706.015E-3	-8.29163E-3	-118.735E-12	711.121E-3	7.76298E-3
-2.52876E-3	-116.342E-12	708.811E-3	1.70434E-3	-119.132E-12	697.004E-3	907.183E-6
-2.53377E-3	-116.505E-12	720.174E-3	-5.80312E-3	-119.110E-12	686.118E-3	9.37430E-3
-2.53877E-3	-116.569E-12	726.528E-3	-6.24073E-3	-119.270E-12	685.536E-3	22.4860E-3
-2.54377E-3	-116.496E-12	728.939E-3	-11.8094E-3	-118.559E-12	675.693E-3	17.9210E-3
-2.54877E-3	-116.716E-12	735.385E-3	-12.4344E-3	-117.765E-12	676.698E-3	8.18091E-3
-2.55378E-3	-117.157E-12	730.451E-3	-1.23590E-3	-116.976E-12	685.363E-3	-20.7678E-3
-2.55878E-3	-117.274E-12	735.333E-3	-6.95472E-3	-116.220E-12	675.545E-3	-41.4875E-3
-2.56378E-3	-117.579E-12	736.338E-3	-17.2737E-3	-115.384E-12	668.458E-3	-23.4841E-3
-2.56878E-3	-117.289E-12	711.030E-3	-12.1058E-3	-114.439E-12	669.725E-3	-5.43006E-3
-2.57379E-3	-117.446E-12	702.294E-3	-17.2984E-3	-114.154E-12	656.072E-3	-2.04740E-3
-2.57879E-3	-117.878E-12	711.250E-3	-22.4009E-3	-113.679E-12	650.932E-3	11.7706E-3
-2.58379E-3	-117.985E-12	710.096E-3	-15.2160E-3	-113.460E-12	679.253E-3	22.7358E-3
-2.58879E-3	-118.189E-12	700.544E-3	-18.2945E-3	-113.741E-12	703.866E-3	6.31122E-3
-2.59380E-3	-118.074E-12	709.537E-3	-20.2834E-3	-114.533E-12	693.203E-3	446.455E-6
-2.59880E-3	-118.381E-12	725.935E-3	-3.57745E-3	-115.739E-12	688.636E-3	7.41608E-3
-2.60380E-3	-118.498E-12	711.137E-3	8.47724E-3	-116.940E-12	703.320E-3	-13.0236E-3
-2.60880E-3	-118.809E-12	699.107E-3	-4.82679E-3	-118.320E-12	710.284E-3	-30.6917E-3
-2.61381E-3	-118.952E-12	704.496E-3	-19.0715E-3	-120.260E-12	713.665E-3	-23.0217E-3
-2.61881E-3	-119.278E-12	694.098E-3	-21.0333E-3	-122.235E-12	703.452E-3	-34.7904E-3
-2.62381E-3	-119.764E-12	678.093E-3	-16.8841E-3	-123.473E-12	702.122E-3	-49.8607E-3
-2.62881E-3	-119.608E-12	673.988E-3	-9.47554E-3	-124.485E-12	724.558E-3	-40.4346E-3
-2.63382E-3	-120.475E-12	685.750E-3	-14.7785E-3	-125.277E-12	731.901E-3	-35.2949E-3
-2.63882E-3	-120.110E-12	703.556E-3	-16.7527E-3	-125.429E-12	719.692E-3	-23.8687E-3
-2.64382E-3	-120.528E-12	716.491E-3	-9.35319E-3	-124.820E-12	713.597E-3	-3.74180E-3
-2.64882E-3	-120.250E-12	714.745E-3	-17.0870E-3	-124.236E-12	704.017E-3	-2.21544E-3
-2.65383E-3	-121.025E-12	705.444E-3	-28.0199E-3	-124.220E-12	682.597E-3	-12.6907E-3
-2.65883E-3	-121.739E-12	693.083E-3	-24.7786E-3	-122.920E-12	685.466E-3	-23.4610E-3
-2.66383E-3	-122.112E-12	681.316E-3	-18.1496E-3	-121.554E-12	695.806E-3	-35.7576E-3
-2.66883E-3	-121.814E-12	691.568E-3	-15.5420E-3	-120.262E-12	666.918E-3	-39.4438E-3
-2.67384E-3	-121.881E-12	700.512E-3	-4.98172E-3	-119.916E-12	645.173E-3	-18.3605E-3
-2.67884E-3	-122.582E-12	694.933E-3	13.1740E-3	-119.567E-12	660.977E-3	4.80899E-3
-2.68384E-3	-121.928E-12	706.749E-3	13.1309E-3	-119.158E-12	672.206E-3	-12.7945E-3
-2.68884E-3	-122.412E-12	720.144E-3	5.88276E-3	-118.399E-12	678.948E-3	-34.2169E-3
-2.69385E-3	-122.036E-12	701.295E-3	4.71642E-3	-118.967E-12	692.213E-3	-34.1122E-3
-2.69885E-3	-122.344E-12	683.105E-3	-7.45887E-3	-120.292E-12	694.305E-3	-42.1158E-3
-2.70385E-3	-122.051E-12	686.102E-3	-7.73154E-3	-121.281E-12	693.953E-3	-23.9194E-3
-2.70885E-3	-122.395E-12	690.624E-3	10.9913E-3	-121.717E-12	705.503E-3	-5.69743E-3
-2.71386E-3	-122.353E-12	692.296E-3	14.6230E-3	-123.458E-12	703.662E-3	-32.8192E-3
-2.71886E-3	-122.981E-12	687.970E-3	1.75494E-3	-125.048E-12	690.106E-3	-40.6266E-3
-2.72386E-3	-122.969E-12	674.120E-3	3.83365E-3	-127.082E-12	676.156E-3	-21.6647E-3
-2.72886E-3	-123.589E-12	665.609E-3	9.71216E-3	-128.261E-12	665.211E-3	-25.0752E-3
-2.73387E-3	-124.187E-12	674.511E-3	5.40545E-3	-129.588E-12	671.642E-3	-25.5513E-3
-2.73887E-3	-124.090E-12	685.261E-3	6.02172E-3	-129.862E-12	694.460E-3	-4.90731E-3
-2.74387E-3	-125.224E-12	683.936E-3	-14.6353E-3	-130.219E-12	711.479E-3	5.81487E-3
-2.74887E-3	-125.593E-12	686.916E-3	-46.4236E-3	-130.295E-12	699.471E-3	-2.23866E-3
-2.75388E-3	-126.352E-12	696.708E-3	-37.5352E-3	-130.084E-12	681.491E-3	-17.9056E-3
-2.75888E-3	-126.814E-12	695.623E-3	-8.96836E-3	-128.816E-12	678.010E-3	-36.0477E-3
-2.76388E-3	-127.543E-12	705.950E-3	6.38808E-3	-128.433E-12	691.416E-3	-34.7786E-3
-2.76888E-3	-127.916E-12	723.812E-3	4.24527E-3	-127.518E-12	711.152E-3	-17.6684E-3
-2.77389E-3	-127.835E-12	714.836E-3	-1.90809E-3	-126.422E-12	701.595E-3	-23.9588E-3
-2.77889E-3	-127.533E-12	693.403E-3	1.25034E-3	-125.131E-12	673.690E-3	-24.4384E-3
-2.78389E-3	-127.326E-12	681.374E-3	8.05089E-3	-124.259E-12	661.717E-3	-5.89314E-3
-2.78889E-3	-127.186E-12	682.318E-3	15.7791E-3	-123.912E-12	655.522E-3	-618.330E-6
-2.79390E-3	-127.026E-12	685.998E-3	9.61905E-3	-123.545E-12	642.972E-3	-11.0570E-3
-2.79890E-3	-127.057E-12	680.865E-3	-2.26016E-3	-123.223E-12	643.306E-3	-21.0698E-3
-2.80390E-3	-126.473E-12	661.166E-3	-5.54801E-3	-123.824E-12	665.094E-3	-32.7044E-3
-2.80890E-3	-126.743E-12	651.837E-3	-6.88838E-3	-124.492E-12	682.431E-3	-40.4783E-3
-2.81391E-3	-126.965E-12	663.327E-3	-14.5011E-3	-125.589E-12	693.930E-3	-14.4983E-3
-2.81891E-3	-127.603E-12	664.833E-3	-32.8774E-3	-127.677E-12	715.535E-3	18.3101E-3
-2.82391E-3	-127.734E-12	671.409E-3	-43.0802E-3	-129.245E-12	709.877E-3	10.1420E-3
-2.82891E-3	-128.592E-12	678.809E-3	-34.1662E-3	-130.639E-12	686.454E-3	-16.5704E-3
-2.83392E-3	-129.477E-12	663.580E-3	-21.0174E-3	-131.935E-12	690.094E-3	-15.2490E-3
-2.83892E-3	-130.944E-12	656.485E-3	-15.3865E-3	-132.631E-12	688.789E-3	9.33676E-3
-2.84392E-3	-131.918E-12	669.306E-3	-17.5951E-3	-133.605E-12	689.014E-3	32.6637E-3
-2.84892E-3	-132.541E-12	681.826E-3	-16.2400E-3	-133.857E-12	718.265E-3	29.4981E-3
-2.85393E-3	-133.822E-12	675.583E-3	-12.0476E-3	-133.865E-12	728.884E-3	-4.33996E-3
-2.85893E-3	-134.410E-12	666.891E-3	-15.5126E-3	-133.678E-12	692.144E-3	-16.8186E-3
-2.86393E-3	-134.571E-12	679.409E-3	-26.1074E-3	-132.817E-12	658.182E-3	-8.21767E-3
-2.86893E-3	-134.413E-12	703.412E-3	-41.2226E-3	-131.845E-12	661.093E-3	-18.5643E-3
-2.87394E-3	-134.316E-12	717.839E-3	-38.6546E-3	-131.155E-12	673.755E-3	-30.7669E-3
-2.87894E-3	-133.773E-12	710.208E-3	-4.09587E-3	-130.178E-12	676.709E-3	-18.8409E-3
-2.88394E-3	-133.563E-12	703.463E-3	7.16247E-3	-129.061E-12	670.807E-3	10.6118E-3
-2.88894E-3	-132.735E-12	711.534E-3	-15.6390E-3	-128.848E-12	657.488E-3	18.9165E-3
-2.89395E-3	-131.541E-12	710.005E-3	-19.9878E-3	-127.964E-12	637.517E-3	-6.92108E-3
-2.89895E-3	-131.137E-12	700.647E-3	-9.10324E-3	-128.195E-12	624.059E-3	-35.4624E-3
-2.90395E-3	-130.917E-12	708.329E-3	-1.23067E-3	-128.231E-12	634.566E-3	-41.2825E-3
-2.90895E-3	-130.936E-12	713.380E-3	12.9617E-3	-128.291E-12	657.723E-3	-45.7704E-3
-2.91396E-3	-130.674E-12	699.192E-3	5.58329E-3	-129.270E-12	663.507E-3	-52.1332E-3
-2.91896E-3	-130.953E-12	682.630E-3	-15.4902E-3	-130.872E-12	650.064E-3	-39.2027E-3
-2.92396E-3	-131.168E-12	673.947E-3	-10.5840E-3	-132.190E-12	649.911E-3	-33.1630E-3
-2.92896E-3	-131.956E-12	668.671E-3	-9.22544E-3	-133.990E-12	673.058E-3	-51.1904E-3
-2.93397E-3	-132.808E-12	676.623E-3	-24.0955E-3	-135.015E-12	689.027E-3	-51.7527E-3
-2.93897E-3	-133.692E-12	692.493E-3	-34.9843E-3	-136.770E-12	694.596E-3	-27.3342E-3
-2.94397E-3	-134.234E-12	686.047E-3	-42.4993E-3	-137.726E-12	704.100E-3	-3.98506E-3
-2.94897E-3	-135.074E-12	685.756E-3	-44.6563E-3	-138.765E-12	683.201E-3	4.99114E-3
-2.95398E-3	-136.482E-12	700.985E-3	-26.9319E-3	-138.982E-12	654.712E-3	-4.91863E-3
-2.95898E-3	-136.853E-12	696.824E-3	-21.4749E-3	-139.599E-12	663.281E-3	-12.5875E-3
-2.96398E-3	-136.551E-12	672.860E-3	-41.4101E-3	-138.913E-12	671.568E-3	-14.5861E-3
-2.96898E-3	-136.459E-12	658.068E-3	-37.2230E-3	-138.667E-12	668.442E-3	-12.3748E-3
-2.97399E-3	-137.130E-12	676.686E-3	-21.8066E-3	-137.698E-12	672.511E-3	-3.59781E-3
-2.97899E-3	-137.066E-12	700.090E-3	-29.1548E-3	-137.092E-12	666.350E-3	-1.97645E-3
-2.98399E-3	-136.556E-12	707.745E-3	-35.4407E-3	-136.430E-12	651.795E-3	-11.6141E-3
-2.98899E-3	-135.897E-12	711.035E-3	-17.9415E-3	-135.483E-12	659.032E-3	-15.3589E-3
-2.99400E-3	-135.260E-12	710.104E-3	-9.04666E-3	-134.179E-12	671.875E-3	-6.86753E-3
-2.99900E-3	-135.873E-12	699.547E-3	-12.3537E-3	-133.921E-12	660.018E-3	896.101E-6
-3.00400E-3	-135.461E-12	688.653E-3	5.61405E-3	-133.973E-12	661.719E-3	534.843E-6
-3.00900E-3	-134.516E-12	677.624E-3	15.3486E-3	-134.444E-12	679.829E-3	-18.0939E-3
-3.01401E-3	-134.517E-12	662.619E-3	7.61756E-3	-134.158E-12	671.427E-3	-42.7908E-3
-3.01901E-3	-135.941E-12	648.078E-3	-1.04117E-3	-134.765E-12	662.974E-3	-45.8448E-3
-3.02401E-3	-136.134E-12	644.488E-3	-13.4047E-3	-136.022E-12	672.979E-3	-45.8272E-3
-3.02901E-3	-136.678E-12	654.889E-3	-8.23916E-3	-138.062E-12	685.208E-3	-51.2099E-3
-3.03402E-3	-137.395E-12	659.901E-3	2.62948E-3	-139.070E-12	701.649E-3	-39.2768E-3
-3.03902E-3	-138.730E-12	650.235E-3	5.75073E-3	-141.262E-12	712.931E-3	-13.3337E-3
-3.04402E-3	-139.306E-12	649.845E-3	5.88083E-3	-142.242E-12	702.356E-3	610.814E-6
-3.04902E-3	-140.200E-12	675.071E-3	941.572E-6	-144.502E-12	692.313E-3	-9.25629E-3
-3.05403E-3	-140.879E-12	689.539E-3	-9.09809E-3	-144.984E-12	702.090E-3	-21.5749E-3
-3.05903E-3	-141.656E-12	679.233E-3	-13.8116E-3	-146.130E-12	715.887E-3	45.2967E-6
-3.06403E-3	-142.305E-12	672.739E-3	1.90414E-3	-145.787E-12	720.590E-3	28.8646E-3
-3.06903E-3	-142.580E-12	679.971E-3	6.91066E-3	-145.768E-12	712.451E-3	22.1539E-3
-3.07404E-3	-143.034E-12	702.373E-3	438.302E-6	-145.010E-12	693.734E-3	9.24131E-3
-3.07904E-3	-143.219E-12	716.353E-3	8.33670E-3	-144.481E-12	669.523E-3	16.4786E-3
-3.08404E-3	-142.862E-12	697.166E-3	-4.20430E-3	-142.716E-12	648.062E-3	8.39214E-3
-3.08904E-3	-142.492E-12	686.599E-3	-35.0262E-3	-141.127E-12	623.229E-3	-23.7011E-3
-3.09405E-3	-142.665E-12	695.489E-3	-36.2884E-3	-140.182E-12	602.536E-3	-25.9543E-3
-3.09905E-3	-142.518E-12	696.415E-3	-22.1181E-3	-138.648E-12	622.081E-3	-12.9278E-3
-3.10405E-3	-141.849E-12	701.322E-3	-18.2292E-3	-138.026E-12	651.144E-3	-9.36979E-3
-3.10905E-3	-141.571E-12	699.111E-3	-3.46926E-3	-136.985E-12	656.360E-3	11.0363E-3
-3.11406E-3	-141.638E-12	675.992E-3	19.5778E-3	-136.625E-12	663.121E-3	18.8097E-3
-3.11906E-3	-142.032E-12	662.449E-3	5.38805E-3	-137.537E-12	659.259E-3	220.869E-6
-3.12406E-3	-141.389E-12	662.511E-3	-30.3408E-3	-138.547E-12	651.400E-3	-11.3562E-3
-3.12906E-3	-141.234E-12	658.779E-3	-40.2112E-3	-139.729E-12	669.603E-3	-16.6918E-3
-3.13407E-3	-141.719E-12	654.768E-3	-43.7473E-3	-141.101E-12	694.822E-3	-24.2647E-3
-3.13907E-3	-141.753E-12	659.120E-3	-57.7878E-3	-143.234E-12	700.232E-3	-28.8199E-3
-3.14407E-3	-141.742E-12	668.124E-3	-46.8798E-3	-144.735E-12	687.893E-3	-24.1340E-3
-3.14907E-3	-142.101E-12	668.519E-3	-15.7159E-3	-146.509E-12	691.141E-3	-14.0094E-3
-3.15408E-3	-142.551E-12	674.209E-3	7.35145E-3	-147.872E-12	706.063E-3	-1.51304E-3
-3.15908E-3	-143.416E-12	677.267E-3	16.6153E-3	-148.700E-12	702.458E-3	4.77556E-3
-3.16408E-3	-144.121E-12	655.207E-3	4.71170E-3	-149.000E-12	700.519E-3	-11.3334E-3
-3.16908E-3	-144.583E-12	646.340E-3	-7.37679E-3	-149.437E-12	690.587E-3	-23.3325E-3
-3.17409E-3	-145.530E-12	662.456E-3	-1.92859E-3	-149.994E-12	681.454E-3	-15.1581E-3
-3.17909E-3	-145.964E-12	684.503E-3	8.90084E-3	-148.909E-12	690.689E-3	-25.6637E-3
-3.18409E-3	-146.345E-12	700.462E-3	5.22268E-3	-148.108E-12	677.818E-3	-57.4609E-3
-3.18909E-3	-147.338E-12	686.227E-3	-12.5267E-3	-147.121E-12	649.161E-3	-50.9824E-3
-3.19410E-3	-147.530E-12	661.748E-3	-14.1574E-3	-146.473E-12	642.221E-3	-20.3283E-3
-3.19910E-3	-147.622E-12	671.637E-3	4.94839E-3	-144.859E-12	643.545E-3	-21.5547E-3
-3.20410E-3	-147.910E-12	698.445E-3	12.6737E-3	-143.953E-12	641.518E-3	-24.6127E-3
-3.20910E-3	-147.657E-12	716.381E-3	-2.86210E-3	-143.140E-12	653.737E-3	-29.3317E-3
-3.21411E-3	-147.089E-12	739.788E-3	-21.8111E-3	-143.503E-12	651.727E-3	-46.5348E-3
-3.21911E-3	-146.968E-12	732.745E-3	-20.7709E-3	-142.944E-12	641.411E-3	-44.0983E-3
-3.22411E-3	-145.981E-12	680.782E-3	-16.6128E-3	-143.662E-12	663.899E-3	-34.4246E-3
-3.22911E-3	-145.577E-12	660.280E-3	-30.1512E-3	-144.370E-12	681.964E-3	-38.9388E-3
-3.23412E-3	-144.839E-12	684.872E-3	-31.9244E-3	-145.811E-12	685.528E-3	-41.3095E-3
-3.23912E-3	-144.670E-12	699.869E-3	-17.3885E-3	-146.548E-12	706.927E-3	-25.6512E-3
-3.24412E-3	-144.394E-12	690.252E-3	-25.8605E-3	-148.054E-12	701.645E-3	-11.3259E-3
-3.24912E-3	-144.683E-12	677.914E-3	-36.7665E-3	-149.214E-12	675.118E-3	-6.65452E-3
-3.25413E-3	-145.260E-12	660.711E-3	-36.5071E-3	-150.508E-12	684.601E-3	-5.11162E-3
-3.25913E-3	-146.138E-12	634.029E-3	-37.7747E-3	-151.204E-12	709.558E-3	-16.9529E-3
-3.26413E-3	-147.238E-12	620.631E-3	-30.3717E-3	-152.709E-12	712.624E-3	-26.9898E-3
-3.26913E-3	-148.700E-12	617.795E-3	-28.8208E-3	-152.971E-12	702.739E-3	-37.8975E-3
-3.27414E-3	-149.770E-12	634.965E-3	-39.1407E-3	-153.182E-12	681.325E-3	-39.8081E-3
-3.27914E-3	-150.966E-12	676.012E-3	-40.9679E-3	-153.350E-12	646.050E-3	-9.15307E-3
-3.28414E-3	-152.112E-12	695.338E-3	-22.4203E-3	-152.638E-12	645.107E-3	3.10234E-3
-3.28914E-3	-153.782E-12	683.294E-3	-10.6899E-3	-152.229E-12	663.290E-3	-22.9722E-3
-3.29415E-3	-154.050E-12	670.916E-3	-27.0020E-3	-151.382E-12	656.777E-3	-35.1777E-3
-3.29915E-3	-153.910E-12	667.233E-3	-44.9134E-3	-150.766E-12	659.283E-3	-18.3672E-3
-3.30415E-3	-153.824E-12	662.857E-3	-45.0651E-3	-149.415E-12	673.583E-3	-2.81743E-3
-3.30915E-3	-154.348E-12	672.127E-3	-39.9067E-3	-148.599E-12	673.222E-3	7.92992E-3
-3.31416E-3	-153.370E-12	699.101E-3	-36.6500E-3	-148.470E-12	665.744E-3	22.8716E-3
-3.31916E-3	-152.370E-12	691.982E-3	-30.1609E-3	-148.796E-12	667.891E-3	16.8501E-3
-3.32416E-3	-151.315E-12	660.966E-3	-24.1869E-3	-148.372E-12	679.041E-3	10.3127E-3
-3.32916E-3	-150.583E-12	666.645E-3	-16.7528E-3	-148.889E-12	679.958E-3	-1.26426E-3
-3.33417E-3	-150.311E-12	677.297E-3	-13.1053E-3	-149.253E-12	668.581E-3	-28.4965E-3
-3.33917E-3	-149.724E-12	670.879E-3	-18.3862E-3	-150.770E-12	657.990E-3	-30.0129E-3
-3.34417E-3	-149.151E-12	672.441E-3	-18.1740E-3	-151.277E-12	667.023E-3	-10.4207E-3
-3.34917E-3	-150.188E-12	661.584E-3	-11.2081E-3	-152.556E-12	682.759E-3	8.93082E-3
-3.35418E-3	-150.923E-12	645.922E-3	-7.01816E-3	-153.406E-12	677.278E-3	-12.1582E-3
-3.35918E-3	-152.044E-12	659.199E-3	1.98668E-3	-155.025E-12	670.628E-3	-56.9270E-3
-3.36418E-3	-152.738E-12	689.139E-3	-4.43647E-3	-156.161E-12	688.961E-3	-49.0837E-3
-3.36918E-3	-154.032E-12	713.682E-3	-32.6288E-3	-156.970E-12	703.546E-3	-18.3502E-3
-3.37419E-3	-155.184E-12	725.577E-3	-29.2348E-3	-157.690E-12	687.907E-3	-8.94709E-3
-3.37919E-3	-156.127E-12	697.860E-3	-17.3160E-3	-157.825E-12	680.035E-3	-571.089E-6
-3.38419E-3	-157.397E-12	655.186E-3	-30.7400E-3	-157.935E-12	683.362E-3	-495.353E-6
-3.38919E-3	-158.235E-12	674.724E-3	-28.4473E-3	-157.496E-12	677.524E-3	-11.5031E-3
-3.39420E-3	-158.599E-12	700.243E-3	-15.3228E-3	-157.039E-12	688.210E-3	-8.08302E-3
-3.39920E-3	-159.214E-12	678.347E-3	-22.1068E-3	-156.140E-12	685.453E-3	-3.74527E-3
-3.40420E-3	-159.685E-12	669.929E-3	-34.0602E-3	-155.632E-12	645.509E-3	-6.50763E-3
-3.40920E-3	-158.779E-12	674.995E-3	-30.7696E-3	-154.071E-12	621.050E-3	-372.698E-6
-3.41421E-3	-157.601E-12	670.018E-3	-14.9005E-3	-153.425E-12	625.112E-3	-4.36743E-3
-3.41921E-3	-157.399E-12	678.754E-3	2.58738E-3	-153.106E-12	644.648E-3	-14.8745E-3
-3.42421E-3	-156.880E-12	684.691E-3	1.79093E-3	-153.065E-12	653.924E-3	-26.2590E-3
-3.42921E-3	-156.719E-12	676.683E-3	-18.5997E-3	-152.260E-12	655.351E-3	-34.3833E-3
-3.43422E-3	-156.079E-12	684.192E-3	-26.0976E-3	-152.500E-12	658.486E-3	-19.9841E-3
-3.43922E-3	-156.178E-12	694.044E-3	-20.6806E-3	-152.807E-12	641.770E-3	-18.7959E-3
-3.44422E-3	-156.448E-12	690.414E-3	-7.21239E-3	-153.416E-12	636.702E-3	-33.1914E-3
-3.44922E-3	-156.753E-12	698.669E-3	14.1583E-3	-154.377E-12	656.751E-3	-27.6843E-3
-3.45423E-3	-156.993E-12	701.870E-3	20.4015E-3	-155.781E-12	667.834E-3	-20.0675E-3
-3.45923E-3	-157.538E-12	694.037E-3	5.41534E-3	-157.617E-12	661.673E-3	-17.6929E-3
-3.46423E-3	-158.100E-12	690.698E-3	-11.3753E-3	-158.939E-12	664.993E-3	-20.4101E-3
-3.46923E-3	-158.837E-12	673.829E-3	-3.09084E-3	-160.116E-12	686.203E-3	-25.6137E-3
-3.47424E-3	-159.248E-12	664.926E-3	4.85077E-3	-161.093E-12	690.957E-3	-18.3095E-3
-3.47924E-3	-159.514E-12	669.839E-3	6.13424E-3	-161.938E-12	685.234E-3	-15.8065E-3
-3.48424E-3	-160.190E-12	676.298E-3	10.5646E-3	-162.593E-12	686.219E-3	-14.7525E-3
-3.48924E-3	-160.670E-12	676.334E-3	-10.1106E-3	-162.844E-12	687.323E-3	-23.4213E-3
-3.49425E-3	-160.806E-12	675.324E-3	-31.6995E-3	-162.768E-12	678.390E-3	-33.2974E-3
-3.49925E-3	-160.524E-12	696.003E-3	-13.7918E-3	-162.312E-12	649.037E-3	-18.7827E-3
-3.50425E-3	-160.144E-12	715.595E-3	5.91362E-3	-161.604E-12	639.744E-3	-15.0840E-3
-3.50925E-3	-159.232E-12	697.635E-3	-13.9843E-3	-160.012E-12	656.793E-3	-26.4507E-3
-3.51426E-3	-160.059E-12	653.587E-3	-31.0508E-3	-159.541E-12	653.605E-3	-6.02362E-3
-3.51926E-3	-159.806E-12	618.394E-3	-27.6813E-3	-158.409E-12	636.201E-3	24.1995E-3
-3.52426E-3	-159.462E-12	615.422E-3	-32.5861E-3	-157.448E-12	630.155E-3	445.757E-6
-3.52926E-3	-159.172E-12	640.675E-3	-31.3216E-3	-156.046E-12	637.611E-3	-29.6260E-3
-3.53427E-3	-159.864E-12	654.698E-3	-8.87997E-3	-155.164E-12	655.022E-3	-26.4871E-3
-3.53927E-3	-160.047E-12	639.337E-3	4.10440E-3	-155.816E-12	656.724E-3	-19.9467E-3
-3.54427E-3	-159.960E-12	632.137E-3	-10.6301E-3	-156.098E-12	634.256E-3	1.29118E-3
-3.54927E-3	-159.749E-12	644.743E-3	-20.6440E-3	-156.891E-12	641.866E-3	16.0011E-3
-3.55428E-3	-160.094E-12	646.793E-3	-24.0297E-3	-157.927E-12	661.867E-3	1.51801E-3
-3.55928E-3	-160.926E-12	648.548E-3	-29.8051E-3	-160.235E-12	655.899E-3	-19.9095E-3
-3.56428E-3	-161.521E-12	656.132E-3	-17.5383E-3	-162.004E-12	673.631E-3	-26.8971E-3
-3.56928E-3	-160.586E-12	642.472E-3	-17.0737E-3	-164.454E-12	705.992E-3	-20.6995E-3
-3.57429E-3	-161.382E-12	640.084E-3	-37.1632E-3	-165.683E-12	721.213E-3	-19.8046E-3
-3.57929E-3	-162.186E-12	660.910E-3	-50.9813E-3	-167.775E-12	733.885E-3	-23.1928E-3
-3.58429E-3	-163.247E-12	662.144E-3	-53.3783E-3	-169.232E-12	732.456E-3	-24.1884E-3
-3.58929E-3	-163.210E-12	658.445E-3	-28.8310E-3	-170.230E-12	710.428E-3	-6.81618E-3
-3.59430E-3	-162.899E-12	656.273E-3	-9.61769E-3	-170.517E-12	702.849E-3	19.0547E-3
-3.59930E-3	-163.630E-12	653.798E-3	-30.1390E-3	-170.120E-12	694.385E-3	19.7406E-3
-3.60430E-3	-164.795E-12	672.724E-3	-41.2339E-3	-169.592E-12	669.815E-3	7.41575E-3
-3.60930E-3	-165.504E-12	682.828E-3	-4.51802E-3	-168.685E-12	663.413E-3	6.30361E-3
-3.61431E-3	-164.963E-12	671.488E-3	30.9814E-3	-167.026E-12	664.295E-3	1.52728E-3
-3.61931E-3	-165.066E-12	677.880E-3	21.1967E-3	-165.144E-12	642.744E-3	-16.3194E-3
-3.62431E-3	-166.824E-12	684.193E-3	5.04941E-3	-163.080E-12	619.713E-3	-11.4009E-3
-3.62931E-3	-167.396E-12	683.532E-3	8.30634E-3	-162.257E-12	620.482E-3	9.69357E-3
-3.63432E-3	-166.829E-12	702.557E-3	14.5016E-3	-161.218E-12	620.652E-3	-1.21493E-3
-3.63932E-3	-166.625E-12	724.910E-3	10.1946E-3	-160.592E-12	621.367E-3	-15.6884E-3
-3.64432E-3	-166.739E-12	721.560E-3	5.01092E-3	-159.629E-12	651.254E-3	-12.7842E-3
-3.64932E-3	-167.584E-12	701.174E-3	11.8971E-3	-160.759E-12	687.890E-3	-12.4654E-3
-3.65433E-3	-168.089E-12	697.002E-3	1.57912E-3	-161.450E-12	694.302E-3	-4.66237E-3
-3.65933E-3	-167.094E-12	707.697E-3	-27.4024E-3	-162.565E-12	682.592E-3	6.51315E-3
-3.66433E-3	-167.654E-12	707.278E-3	-47.6862E-3	-163.082E-12	679.699E-3	8.33230E-3
-3.66933E-3	-167.549E-12	691.676E-3	-58.5389E-3	-166.153E-12	684.800E-3	12.9747E-3
-3.67434E-3	-169.264E-12	675.957E-3	-39.7711E-3	-167.680E-12	691.953E-3	32.4492E-3
-3.67934E-3	-167.891E-12	672.778E-3	-8.76220E-3	-169.381E-12	702.542E-3	31.1162E-3
-3.68434E-3	-168.512E-12	691.054E-3	-2.92225E-3	-170.947E-12	700.710E-3	6.33816E-3
-3.68934E-3	-168.731E-12	699.391E-3	-659.170E-6	-172.358E-12	683.995E-3	7.62299E-3
-3.69435E-3	-170.294E-12	676.490E-3	-7.59443E-3	-173.379E-12	673.551E-3	-19.6113E-3
-3.69935E-3	-170.268E-12	655.667E-3	-20.3327E-3	-173.718E-12	651.925E-3	-77.0387E-3
-3.70435E-3	-169.780E-12	649.142E-3	-27.0776E-3	-173.009E-12	649.685E-3	-60.7754E-3
-3.70935E-3	-170.280E-12	646.100E-3	-35.0527E-3	-171.977E-12	688.362E-3	-24.0863E-3
-3.71436E-3	-171.431E-12	658.959E-3	-45.7750E-3	-171.270E-12	697.011E-3	-36.1620E-3
-3.71936E-3	-172.646E-12	681.289E-3	-47.1010E-3	-169.798E-12	669.665E-3	-35.6840E-3
-3.72436E-3	-172.224E-12	693.667E-3	-35.1195E-3	-168.308E-12	644.533E-3	-21.0096E-3
-3.72936E-3	-172.267E-12	701.889E-3	-32.7814E-3	-167.158E-12	637.491E-3	-24.0600E-3
-3.73437E-3	-172.352E-12	703.561E-3	-24.2561E-3	-165.283E-12	652.911E-3	-33.8451E-3
-3.73937E-3	-172.194E-12	686.366E-3	-6.39179E-3	-164.111E-12	646.001E-3	-40.5323E-3
-3.74437E-3	-172.423E-12	660.396E-3	4.53108E-3	-164.542E-12	609.890E-3	-34.7206E-3
-3.74937E-3	-171.640E-12	657.633E-3	14.8484E-3	-164.754E-12	618.704E-3	-27.5420E-3
-3.75438E-3	-171.645E-12	673.070E-3	3.57836E-3	-164.970E-12	647.063E-3	-35.0649E-3
-3.75938E-3	-172.029E-12	683.573E-3	-17.7329E-3	-166.424E-12	635.392E-3	-41.1730E-3
-3.76438E-3	-171.868E-12	693.224E-3	-14.5349E-3	-167.156E-12	619.804E-3	-30.9726E-3
-3.76938E-3	-171.414E-12	697.718E-3	-13.7166E-3	-169.251E-12	644.017E-3	-39.1309E-3
-3.77439E-3	-171.576E-12	700.840E-3	-19.3451E-3	-171.355E-12	682.674E-3	-60.2580E-3
-3.77939E-3	-171.746E-12	694.292E-3	-18.4683E-3	-173.135E-12	681.006E-3	-45.3830E-3
-3.78439E-3	-172.793E-12	671.819E-3	-26.7217E-3	-174.477E-12	666.772E-3	-15.9089E-3
-3.78939E-3	-172.892E-12	673.255E-3	-45.9361E-3	-176.858E-12	672.136E-3	-18.1139E-3
-3.79440E-3	-173.160E-12	681.342E-3	-52.5958E-3	-178.421E-12	664.243E-3	-34.1772E-3
-3.79940E-3	-173.520E-12	663.969E-3	-29.4254E-3	-179.536E-12	653.198E-3	-26.0556E-3
-3.80440E-3	-173.930E-12	660.918E-3	-2.68339E-3	-180.313E-12	675.739E-3	-9.20329E-3
-3.80940E-3	-174.381E-12	663.186E-3	6.46973E-3	-179.691E-12	702.964E-3	-2.08544E-3
-3.81441E-3	-175.095E-12	659.075E-3	4.74320E-3	-179.544E-12	702.653E-3	-1.02141E-3
-3.81941E-3	-174.573E-12	661.474E-3	-2.45247E-3	-178.698E-12	664.319E-3	-17.8909E-3
-3.82441E-3	-174.614E-12	658.826E-3	3.85235E-3	-177.551E-12	626.316E-3	-40.3403E-3
-3.82941E-3	-174.909E-12	663.605E-3	14.0023E-3	-175.887E-12	638.657E-3	-28.7531E-3
-3.83442E-3	-174.737E-12	668.775E-3	1.50140E-3	-174.475E-12	653.894E-3	-7.49011E-3
-3.83942E-3	-174.676E-12	668.543E-3	-25.2764E-3	-172.814E-12	648.303E-3	756.400E-6
-3.84442E-3	-174.045E-12	669.222E-3	-38.9591E-3	-172.257E-12	649.543E-3	7.31316E-3
-3.84942E-3	-174.495E-12	659.259E-3	-29.6916E-3	-171.300E-12	635.513E-3	-9.15896E-3
-3.85443E-3	-175.126E-12	648.890E-3	-13.8793E-3	-170.611E-12	608.479E-3	-37.7449E-3
-3.85943E-3	-175.093E-12	651.407E-3	6.58429E-3	-170.586E-12	610.084E-3	-28.2607E-3
-3.86443E-3	-174.609E-12	656.351E-3	6.32709E-3	-171.324E-12	624.282E-3	-5.38251E-3
-3.86943E-3	-175.728E-12	650.609E-3	-27.7512E-3	-171.420E-12	639.424E-3	-3.30630E-3
-3.87444E-3	-176.588E-12	653.240E-3	-50.6310E-3	-171.945E-12	655.118E-3	-13.3843E-3
-3.87944E-3	-177.401E-12	664.611E-3	-45.4204E-3	-173.048E-12	662.293E-3	-21.7419E-3
-3.88444E-3	-177.419E-12	681.124E-3	-19.9664E-3	-174.710E-12	670.608E-3	-11.6128E-3
-3.88944E-3	-178.512E-12	695.803E-3	1.95939E-3	-176.838E-12	686.403E-3	-5.27171E-3
-3.89445E-3	-178.937E-12	665.763E-3	4.99423E-3	-178.433E-12	687.462E-3	-26.3360E-3
-3.89945E-3	-179.031E-12	639.240E-3	2.49433E-3	-180.232E-12	670.723E-3	-45.1314E-3
-3.90445E-3	-180.115E-12	655.210E-3	-12.9219E-3	-182.711E-12	665.886E-3	-21.5325E-3
-3.90945E-3	-179.895E-12	681.730E-3	-41.0861E-3	-183.685E-12	678.453E-3	-2.55757E-3
-3.91446E-3	-179.443E-12	704.851E-3	-50.5079E-3	-184.588E-12	699.961E-3	-32.5289E-3
-3.91946E-3	-179.471E-12	712.867E-3	-35.5755E-3	-184.825E-12	703.833E-3	-47.9304E-3
-3.92446E-3	-179.614E-12	714.145E-3	-23.4818E-3	-184.772E-12	688.580E-3	-31.5680E-3
-3.92946E-3	-179.238E-12	688.762E-3	-11.8503E-3	-183.287E-12	672.260E-3	-37.2696E-3
-3.93447E-3	-179.254E-12	647.065E-3	5.75497E-3	-182.044E-12	647.782E-3	-60.1952E-3
-3.93947E-3	-178.776E-12	655.800E-3	-6.82268E-3	-180.395E-12	636.436E-3	-56.3148E-3
-3.94447E-3	-178.930E-12	686.676E-3	-46.2231E-3	-179.336E-12	656.934E-3	-35.1712E-3
-3.94947E-3	-179.251E-12	675.798E-3	-42.1088E-3	-177.397E-12	664.825E-3	-31.7303E-3
-3.95448E-3	-179.016E-12	645.062E-3	-15.2535E-3	-175.489E-12	640.401E-3	-30.9577E-3
-3.95948E-3	-179.306E-12	643.989E-3	-9.59339E-3	-174.562E-12	610.703E-3	-21.7396E-3
-3.96448E-3	-178.915E-12	651.718E-3	-10.3477E-3	-173.399E-12	606.488E-3	-22.5692E-3
-3.96948E-3	-179.537E-12	640.259E-3	-11.1899E-3	-173.330E-12	626.402E-3	-23.8927E-3
-3.97449E-3	-180.290E-12	645.980E-3	-10.8922E-3	-173.404E-12	641.032E-3	-26.5611E-3
-3.97949E-3	-180.866E-12	662.863E-3	-12.4175E-3	-174.436E-12	649.988E-3	-22.4436E-3
-3.98449E-3	-181.709E-12	653.972E-3	-11.6089E-3	-175.909E-12	663.983E-3	-17.0056E-3
-3.98949E-3	-182.431E-12	640.172E-3	-14.2463E-3	-178.498E-12	676.590E-3	-35.4580E-3
-3.99450E-3	-183.272E-12	651.308E-3	-11.8458E-3	-180.842E-12	677.637E-3	-55.6380E-3
-3.99950E-3	-184.126E-12	656.629E-3	-7.36566E-3	-183.525E-12	680.840E-3	-52.0436E-3
-4.00450E-3	-184.373E-12	642.533E-3	-21.8468E-3	-185.570E-12	689.558E-3	-37.8775E-3
-4.00950E-3	-184.180E-12	634.031E-3	-38.5544E-3	-187.798E-12	685.577E-3	-45.0589E-3
-4.01451E-3	-184.736E-12	634.242E-3	-30.2678E-3	-189.078E-12	680.503E-3	-50.0527E-3
-4.01951E-3	-184.717E-12	634.666E-3	-32.8384E-3	-189.497E-12	674.073E-3	-56.8556E-3
-4.02451E-3	-184.027E-12	631.901E-3	-41.3756E-3	-189.814E-12	653.942E-3	-84.7651E-3
-4.02951E-3	-183.895E-12	613.421E-3	-11.0655E-3	-189.210E-12	639.081E-3	-91.4860E-3
-4.03452E-3	-183.801E-12	600.793E-3	10.3429E-3	-187.764E-12	646.455E-3	-67.1173E-3
-4.03952E-3	-184.209E-12	633.477E-3	-3.47260E-3	-185.718E-12	641.535E-3	-27.0081E-3
-4.04452E-3	-184.046E-12	672.637E-3	-11.9208E-3	-184.015E-12	618.116E-3	14.0627E-3
-4.04952E-3	-183.707E-12	671.218E-3	-4.69428E-3	-182.139E-12	617.680E-3	29.8851E-3
-4.05453E-3	-184.564E-12	646.078E-3	3.04312E-3	-180.567E-12	614.802E-3	10.6214E-3
-4.05953E-3	-184.365E-12	648.310E-3	-7.15454E-3	-179.259E-12	608.987E-3	-11.1063E-3
-4.06453E-3	-184.803E-12	679.715E-3	-21.3926E-3	-178.198E-12	630.823E-3	9.80572E-3
-4.06953E-3	-184.587E-12	691.702E-3	-12.3215E-3	-178.432E-12	626.253E-3	19.5890E-3
-4.07454E-3	-185.505E-12	684.695E-3	-4.35441E-3	-178.260E-12	594.759E-3	-1.36400E-3
-4.07954E-3	-186.166E-12	680.114E-3	-7.17255E-3	-179.237E-12	604.375E-3	-2.19001E-3
-4.08454E-3	-186.940E-12	659.629E-3	-11.5091E-3	-179.884E-12	647.262E-3	4.41180E-3
-4.08954E-3	-186.070E-12	650.619E-3	-10.6638E-3	-182.088E-12	666.314E-3	-67.1042E-6
-4.09455E-3	-186.771E-12	662.358E-3	-11.0278E-3	-184.351E-12	657.961E-3	-12.7950E-3
-4.09955E-3	-186.942E-12	654.280E-3	-17.5349E-3	-186.796E-12	657.511E-3	-32.9508E-3
-4.10455E-3	-186.476E-12	635.668E-3	-8.35617E-3	-187.758E-12	666.160E-3	-42.6932E-3
-4.10955E-3	-185.835E-12	624.938E-3	11.4920E-3	-190.048E-12	675.656E-3	-27.1467E-3
-4.11456E-3	-186.050E-12	636.085E-3	4.27699E-3	-191.766E-12	690.009E-3	-3.98988E-3
-4.11956E-3	-185.827E-12	645.671E-3	-27.6800E-3	-193.095E-12	698.443E-3	-6.27514E-3
-4.12456E-3	-186.167E-12	607.679E-3	-34.6398E-3	-193.083E-12	690.196E-3	-9.75325E-3
-4.12956E-3	-185.615E-12	586.964E-3	-17.6224E-3	-192.573E-12	670.065E-3	2.34474E-3
-4.13457E-3	-185.678E-12	628.039E-3	1.54998E-3	-191.824E-12	654.434E-3	307.783E-6
-4.13957E-3	-186.276E-12	648.548E-3	18.3719E-3	-190.258E-12	649.943E-3	-9.44120E-3
-4.14457E-3	-186.994E-12	658.916E-3	-664.245E-6	-189.197E-12	645.844E-3	-3.96692E-3
-4.14957E-3	-187.596E-12	690.350E-3	-24.1081E-3	-186.990E-12	625.605E-3	4.12027E-3
-4.15458E-3	-187.808E-12	687.626E-3	-12.6383E-3	-185.720E-12	613.663E-3	1.66902E-3
-4.15958E-3	-188.885E-12	660.441E-3	-19.3055E-3	-184.515E-12	619.936E-3	1.99304E-3
-4.16458E-3	-190.810E-12	674.677E-3	-41.1274E-3	-184.540E-12	609.456E-3	-12.2962E-3
-4.16958E-3	-190.496E-12	691.491E-3	-33.7753E-3	-183.575E-12	606.411E-3	-35.9513E-3
-4.17459E-3	-191.083E-12	660.448E-3	-15.8046E-3	-184.178E-12	639.337E-3	-30.4528E-3
-4.17959E-3	-191.177E-12	644.277E-3	-11.3780E-3	-184.187E-12	669.311E-3	-14.7135E-3
-4.18459E-3	-191.361E-12	657.625E-3	-14.4193E-3	-185.349E-12	680.367E-3	6.72518E-3
-4.18959E-3	-190.969E-12	653.187E-3	-11.5879E-3	-187.031E-12	663.812E-3	8.48602E-3
-4.19460E-3	-190.893E-12	629.069E-3	-5.82483E-3	-188.727E-12	642.098E-3	-29.2945E-3
-4.19960E-3	-190.632E-12	615.531E-3	-16.8928E-3	-190.403E-12	679.168E-3	-46.3165E-3
-4.20460E-3	-190.448E-12	624.702E-3	-29.6241E-3	-192.221E-12	722.184E-3	-42.7533E-3
-4.20960E-3	-190.800E-12	643.196E-3	-17.6519E-3	-194.088E-12	707.959E-3	-41.9521E-3
-4.21461E-3	-191.023E-12	675.864E-3	-11.5488E-3	-195.227E-12	666.123E-3	-20.0759E-3
-4.21961E-3	-190.495E-12	688.382E-3	-29.0781E-3	-196.818E-12	633.922E-3	10.9429E-3
-4.22461E-3	-190.769E-12	675.374E-3	-44.4613E-3	-197.390E-12	636.524E-3	-2.91703E-3
-4.22961E-3	-192.215E-12	683.349E-3	-44.1064E-3	-196.614E-12	670.325E-3	-33.1274E-3
-4.23462E-3	-193.603E-12	676.088E-3	-23.4391E-3	-196.388E-12	692.666E-3	-23.7014E-3
-4.23962E-3	-193.784E-12	656.012E-3	-5.90012E-3	-195.512E-12	678.962E-3	-5.33814E-3
-4.24462E-3	-193.965E-12	651.647E-3	-18.9203E-3	-194.609E-12	663.575E-3	12.1430E-3
-4.24962E-3	-194.866E-12	625.996E-3	-32.0848E-3	-193.165E-12	666.980E-3	12.3682E-3
-4.25463E-3	-196.025E-12	621.584E-3	-20.0569E-3	-192.272E-12	678.083E-3	-27.7032E-3
-4.25963E-3	-196.573E-12	651.823E-3	16.8858E-3	-191.389E-12	678.700E-3	-37.4916E-3
-4.26463E-3	-196.166E-12	649.846E-3	32.8190E-3	-190.843E-12	660.086E-3	-21.8446E-3
-4.26963E-3	-196.071E-12	643.478E-3	2.23907E-3	-189.796E-12	639.262E-3	-37.6197E-3
-4.27464E-3	-197.211E-12	645.409E-3	4.87277E-3	-189.850E-12	621.699E-3	-44.1090E-3
-4.27964E-3	-197.114E-12	628.613E-3	23.4592E-3	-189.451E-12	613.593E-3	-44.8958E-3
-4.28464E-3	-196.244E-12	613.180E-3	-7.89353E-3	-189.677E-12	623.083E-3	-47.4942E-3
-4.28964E-3	-195.172E-12	620.311E-3	-39.0881E-3	-189.853E-12	635.903E-3	-28.8595E-3
-4.29465E-3	-195.038E-12	642.111E-3	-25.8863E-3	-190.803E-12	637.619E-3	-17.9752E-3
-4.29965E-3	-194.916E-12	657.616E-3	7.43083E-3	-192.063E-12	630.328E-3	-25.8156E-3
-4.30465E-3	-193.902E-12	669.022E-3	2.98608E-3	-193.104E-12	629.841E-3	-29.7465E-3
-4.30965E-3	-193.142E-12	666.593E-3	-17.5403E-3	-195.099E-12	639.754E-3	-24.4714E-3
-4.31466E-3	-193.775E-12	640.340E-3	-11.6651E-3	-196.552E-12	644.397E-3	-25.8032E-3
-4.31966E-3	-194.193E-12	632.204E-3	-11.9509E-3	-197.098E-12	659.355E-3	-42.2387E-3
-4.32466E-3	-195.320E-12	655.282E-3	-14.6800E-3	-198.496E-12	677.926E-3	-41.4023E-3
-4.32966E-3	-194.969E-12	666.627E-3	3.30424E-3	-200.261E-12	674.655E-3	-2.27832E-3
-4.33467E-3	-195.533E-12	660.923E-3	19.2856E-3	-201.888E-12	660.932E-3	33.4505E-3
-4.33967E-3	-197.029E-12	657.037E-3	19.1380E-3	-202.299E-12	661.044E-3	28.3426E-3
-4.34467E-3	-198.376E-12	642.953E-3	-7.17436E-3	-202.202E-12	671.963E-3	9.78108E-3
-4.34967E-3	-198.549E-12	635.011E-3	-48.3748E-3	-202.747E-12	667.670E-3	-4.23740E-3
-4.35468E-3	-198.891E-12	641.732E-3	-46.2067E-3	-202.873E-12	664.308E-3	-11.8540E-3
-4.35968E-3	-198.880E-12	643.023E-3	-15.0960E-3	-201.676E-12	661.942E-3	-16.7083E-3
-4.36468E-3	-199.395E-12	663.823E-3	-4.02114E-3	-200.244E-12	650.804E-3	-32.7537E-3
-4.36968E-3	-200.203E-12	693.529E-3	-10.7564E-3	-198.562E-12	637.132E-3	-33.0167E-3
-4.37469E-3	-199.733E-12	691.137E-3	-24.2500E-3	-197.833E-12	630.579E-3	-16.8416E-3
-4.37969E-3	-199.745E-12	666.284E-3	-22.6295E-3	-196.145E-12	632.964E-3	-28.3146E-3
-4.38469E-3	-199.046E-12	640.319E-3	-12.1602E-3	-194.817E-12	613.817E-3	-52.5439E-3
-4.38969E-3	-199.783E-12	623.521E-3	-3.03326E-3	-194.390E-12	603.668E-3	-49.6412E-3
-4.39470E-3	-198.947E-12	621.961E-3	18.3631E-3	-194.245E-12	630.797E-3	-40.1219E-3
-4.39970E-3	-198.577E-12	637.820E-3	15.2222E-3	-194.518E-12	647.476E-3	-43.6198E-3
-4.40470E-3	-198.458E-12	656.088E-3	-31.1528E-3	-195.469E-12	644.050E-3	-54.1614E-3
-4.40970E-3	-198.882E-12	647.688E-3	-46.2686E-3	-196.131E-12	632.017E-3	-61.5101E-3
-4.41471E-3	-198.210E-12	633.129E-3	-20.6385E-3	-198.231E-12	627.633E-3	-54.5174E-3
-4.41971E-3	-198.024E-12	644.925E-3	-11.2697E-3	-200.593E-12	653.791E-3	-46.4937E-3
-4.42471E-3	-198.828E-12	649.034E-3	-7.32132E-3	-202.912E-12	675.057E-3	-56.2825E-3
-4.42971E-3	-198.920E-12	640.063E-3	-16.3542E-3	-205.276E-12	673.770E-3	-57.4141E-3
-4.43472E-3	-199.686E-12	633.688E-3	-36.3053E-3	-207.093E-12	687.744E-3	-24.1062E-3
-4.43972E-3	-199.130E-12	649.033E-3	-33.1466E-3	-208.707E-12	713.734E-3	5.56220E-3
-4.44472E-3	-199.826E-12	675.134E-3	-23.7888E-3	-209.842E-12	706.437E-3	17.6015E-3
-4.44972E-3	-200.683E-12	676.132E-3	-15.2386E-3	-209.906E-12	686.504E-3	22.4794E-3
-4.45473E-3	-202.054E-12	678.263E-3	-2.95690E-3	-209.499E-12	689.808E-3	20.3960E-3
-4.45973E-3	-202.473E-12	677.363E-3	2.74914E-3	-209.026E-12	673.368E-3	6.01860E-3
-4.46473E-3	-203.552E-12	658.572E-3	1.79413E-3	-206.275E-12	626.004E-3	-12.2722E-3
-4.46973E-3	-204.385E-12	661.957E-3	-1.21229E-3	-204.678E-12	618.734E-3	-657.402E-6
-4.47474E-3	-205.144E-12	677.576E-3	-10.5340E-3	-202.673E-12	648.562E-3	7.07057E-3
-4.47974E-3	-205.842E-12	687.260E-3	-19.9090E-3	-201.547E-12	639.772E-3	-9.13957E-3
-4.48474E-3	-205.543E-12	698.786E-3	-10.1172E-3	-199.190E-12	618.069E-3	-8.80250E-3
-4.48974E-3	-207.222E-12	697.401E-3	-5.32825E-3	-197.406E-12	627.575E-3	4.82306E-3
-4.49475E-3	-207.600E-12	691.371E-3	-7.06493E-3	-196.526E-12	626.883E-3	29.3928E-3
-4.49975E-3	-206.911E-12	682.448E-3	4.96338E-3	-196.702E-12	618.840E-3	22.4604E-3
-4.50475E-3	-206.600E-12	672.957E-3	4.76443E-3	-197.317E-12	639.402E-3	-11.6016E-3
-4.50975E-3	-207.310E-12	679.803E-3	-28.2984E-3	-198.256E-12	677.156E-3	-17.6239E-3
-4.51476E-3	-207.939E-12	686.547E-3	-71.2445E-3	-199.946E-12	690.789E-3	-17.0217E-3
-4.51976E-3	-206.413E-12	686.568E-3	-66.5953E-3	-201.871E-12	681.082E-3	-8.24984E-3
-4.52476E-3	-206.009E-12	674.387E-3	-31.3131E-3	-204.345E-12	675.757E-3	12.7699E-3
-4.52976E-3	-204.924E-12	660.466E-3	-25.6033E-3	-205.829E-12	665.820E-3	15.3162E-3
-4.53477E-3	-204.852E-12	662.814E-3	-32.2718E-3	-207.999E-12	654.300E-3	-5.80026E-3
-4.53977E-3	-203.966E-12	657.945E-3	-21.2319E-3	-209.753E-12	663.232E-3	-22.7201E-3
-4.54477E-3	-203.864E-12	639.935E-3	-22.0719E-3	-210.334E-12	670.337E-3	-13.3299E-3
-4.54977E-3	-203.685E-12	622.004E-3	-29.8007E-3	-211.100E-12	662.909E-3	-6.11522E-3
-4.55478E-3	-204.324E-12	606.699E-3	-23.4611E-3	-211.005E-12	666.460E-3	-12.5988E-3
-4.55978E-3	-205.658E-12	616.008E-3	-12.5036E-3	-210.824E-12	664.682E-3	-9.80010E-3
-4.56478E-3	-206.334E-12	639.609E-3	-3.25242E-3	-209.181E-12	663.558E-3	-1.77420E-3
-4.56978E-3	-207.503E-12	654.636E-3	-8.30648E-3	-207.098E-12	671.589E-3	-6.05680E-3
-4.57479E-3	-207.637E-12	672.531E-3	-12.6695E-3	-205.680E-12	652.425E-3	-866.699E-6
-4.57979E-3	-209.089E-12	682.749E-3	-9.96011E-3	-204.491E-12	637.066E-3	26.7857E-3
-4.58479E-3	-210.831E-12	678.039E-3	-17.4303E-3	-202.790E-12	642.278E-3	33.6077E-3
-4.58979E-3	-210.237E-12	662.836E-3	-26.5089E-3	-202.027E-12	620.210E-3	18.3394E-3
-4.59480E-3	-210.675E-12	644.946E-3	-19.6375E-3	-201.766E-12	611.760E-3	-15.1934E-3
-4.59980E-3	-211.980E-12	646.644E-3	-13.8007E-3	-201.804E-12	634.943E-3	-55.3850E-3
-4.60480E-3	-213.087E-12	646.380E-3	-29.1475E-3	-202.534E-12	636.511E-3	-57.7590E-3
-4.60980E-3	-211.797E-12	621.754E-3	-19.4862E-3	-203.681E-12	640.450E-3	-50.9369E-3
-4.61481E-3	-209.833E-12	598.765E-3	21.5130E-3	-205.503E-12	662.218E-3	-54.8160E-3
-4.61981E-3	-209.437E-12	613.231E-3	10.4241E-3	-207.667E-12	652.965E-3	-29.3628E-3
-4.62481E-3	-209.481E-12	657.218E-3	-33.5748E-3	-209.264E-12	646.263E-3	-8.53047E-3
-4.62981E-3	-208.228E-12	659.133E-3	-45.1900E-3	-211.866E-12	667.036E-3	-40.9301E-3
-4.63482E-3	-205.951E-12	641.775E-3	-51.7444E-3	-214.033E-12	657.669E-3	-72.9122E-3
-4.63982E-3	-205.953E-12	665.532E-3	-67.6341E-3	-216.057E-12	650.315E-3	-54.9211E-3
-4.64482E-3	-206.521E-12	684.839E-3	-82.6703E-3	-216.768E-12	684.440E-3	-29.7571E-3
-4.64982E-3	-207.804E-12	675.374E-3	-76.8552E-3	-217.688E-12	719.086E-3	-17.6266E-3
-4.65483E-3	-207.450E-12	662.134E-3	-34.3085E-3	-217.595E-12	708.588E-3	6.13379E-3
-4.65983E-3	-207.845E-12	652.393E-3	-15.1699E-3	-218.124E-12	667.778E-3	11.7012E-3
-4.66483E-3	-209.601E-12	648.201E-3	-23.1102E-3	-216.640E-12	634.828E-3	-330.915E-6
-4.66983E-3	-211.816E-12	654.982E-3	-18.6080E-3	-214.874E-12	634.233E-3	-2.97146E-3
-4.67484E-3	-213.325E-12	654.167E-3	-22.3688E-3	-212.661E-12	657.076E-3	6.53136E-3
-4.67984E-3	-213.320E-12	649.473E-3	-33.7620E-3	-212.167E-12	669.820E-3	13.2991E-3
-4.68484E-3	-215.367E-12	646.262E-3	-45.9840E-3	-210.603E-12	671.213E-3	-5.06152E-3
-4.68984E-3	-217.140E-12	641.513E-3	-53.3606E-3	-209.486E-12	661.618E-3	-41.0122E-3
-4.69485E-3	-218.376E-12	636.500E-3	-31.2401E-3	-208.218E-12	640.283E-3	-52.2685E-3
-4.69985E-3	-218.047E-12	634.649E-3	-3.42951E-3	-207.786E-12	616.746E-3	-36.0991E-3
-4.70485E-3	-217.982E-12	651.269E-3	5.52752E-3	-208.205E-12	595.889E-3	-40.9455E-3
-4.70985E-3	-218.470E-12	672.149E-3	2.33341E-3	-208.330E-12	588.381E-3	-41.2549E-3
-4.71486E-3	-217.900E-12	682.103E-3	-19.6252E-3	-208.360E-12	599.044E-3	-9.39018E-3
-4.71986E-3	-216.345E-12	689.687E-3	-57.1128E-3	-208.754E-12	609.041E-3	15.4340E-3
-4.72486E-3	-214.628E-12	702.981E-3	-66.8201E-3	-210.686E-12	616.429E-3	13.5653E-3
-4.72986E-3	-214.099E-12	711.244E-3	-30.6344E-3	-211.670E-12	624.783E-3	-5.54142E-3
-4.73487E-3	-213.407E-12	707.548E-3	-2.96559E-3	-213.384E-12	639.006E-3	-26.4285E-3
-4.73987E-3	-212.086E-12	692.994E-3	-10.5080E-3	-214.662E-12	647.970E-3	-42.0294E-3
-4.74487E-3	-211.585E-12	679.709E-3	-44.9675E-3	-216.134E-12	650.508E-3	-46.0172E-3
-4.74988E-3	-211.832E-12	674.831E-3	-57.9681E-3	-218.254E-12	644.304E-3	-62.8222E-3
-4.75488E-3	-213.029E-12	666.585E-3	-33.7865E-3	-218.945E-12	626.515E-3	-82.5753E-3
-4.75988E-3	-214.079E-12	665.856E-3	-30.0289E-3	-219.666E-12	634.789E-3	-58.3777E-3
-4.76488E-3	-214.735E-12	662.306E-3	-13.8024E-3	-220.184E-12	681.612E-3	-39.6078E-3
-4.76988E-3	-215.518E-12	663.774E-3	-3.02589E-3	-220.805E-12	711.581E-3	-51.9333E-3
-4.77489E-3	-218.099E-12	686.988E-3	-22.7345E-3	-220.760E-12	691.533E-3	-42.5144E-3
-4.77989E-3	-219.612E-12	687.415E-3	-13.0295E-3	-220.112E-12	658.634E-3	-13.3233E-3
-4.78489E-3	-221.646E-12	650.968E-3	-4.75474E-3	-218.659E-12	640.720E-3	-1.41842E-3
-4.78989E-3	-222.188E-12	650.323E-3	-18.0212E-3	-217.234E-12	642.934E-3	11.1608E-3
-4.79490E-3	-223.547E-12	700.230E-3	-30.3921E-3	-215.353E-12	637.197E-3	31.6763E-3
-4.79990E-3	-224.616E-12	723.631E-3	-18.6738E-3	-213.933E-12	626.397E-3	12.8806E-3
-4.80490E-3	-225.465E-12	712.127E-3	1.67264E-3	-212.571E-12	608.022E-3	-15.3020E-3
-4.80990E-3	-224.060E-12	710.095E-3	-1.42853E-3	-212.009E-12	576.957E-3	-8.09441E-3
-4.81491E-3	-223.261E-12	718.146E-3	-11.0899E-3	-210.480E-12	592.478E-3	-5.92880E-3
-4.81991E-3	-222.545E-12	699.591E-3	-20.4573E-3	-209.954E-12	636.752E-3	-16.0941E-3
-4.82491E-3	-221.666E-12	678.033E-3	-24.5503E-3	-210.333E-12	644.924E-3	-22.2939E-3
-4.82991E-3	-219.209E-12	692.884E-3	-16.2521E-3	-211.711E-12	640.014E-3	-22.2854E-3
-4.83492E-3	-217.521E-12	699.403E-3	-16.4407E-3	-213.010E-12	648.254E-3	-10.9382E-3
-4.83992E-3	-216.228E-12	663.477E-3	-33.4848E-3	-214.793E-12	669.836E-3	-7.00381E-3
-4.84492E-3	-216.628E-12	627.509E-3	-28.2676E-3	-217.301E-12	672.125E-3	-9.05188E-3
-4.84992E-3	-216.377E-12	628.000E-3	-19.1465E-3	-220.298E-12	649.314E-3	1.94263E-3
-4.85493E-3	-215.745E-12	644.544E-3	-42.0197E-3	-222.983E-12	683.578E-3	15.6137E-3
-4.85993E-3	-215.051E-12	658.396E-3	-35.7473E-3	-224.905E-12	728.599E-3	6.08978E-3
-4.86493E-3	-216.014E-12	664.307E-3	-5.21523E-3	-227.312E-12	712.715E-3	-11.7615E-3
-4.86993E-3	-216.619E-12	679.199E-3	-11.1128E-3	-229.013E-12	700.081E-3	10.4321E-3
-4.87494E-3	-216.900E-12	708.874E-3	-42.3104E-3	-230.367E-12	706.214E-3	24.7119E-3
-4.87994E-3	-217.346E-12	709.443E-3	-65.4199E-3	-230.818E-12	689.893E-3	-7.04719E-3
-4.88494E-3	-218.384E-12	675.825E-3	-73.0604E-3	-229.853E-12	654.676E-3	-20.0930E-3
-4.88995E-3	-219.524E-12	643.231E-3	-60.9186E-3	-228.232E-12	658.121E-3	-11.0228E-3
-4.89495E-3	-221.085E-12	627.020E-3	-46.2855E-3	-225.805E-12	682.043E-3	-11.2749E-3
-4.89995E-3	-222.175E-12	650.991E-3	-34.9698E-3	-223.793E-12	663.901E-3	-13.6534E-3
-4.90495E-3	-223.023E-12	678.427E-3	-17.7486E-3	-221.383E-12	627.505E-3	-15.3535E-3
-4.90995E-3	-223.706E-12	655.674E-3	-18.2967E-3	-219.856E-12	603.709E-3	-15.0503E-3
-4.91496E-3	-224.700E-12	649.525E-3	-36.3355E-3	-218.224E-12	574.279E-3	-23.4266E-3
-4.91996E-3	-225.464E-12	680.681E-3	-49.3766E-3	-217.267E-12	581.637E-3	-50.7088E-3
-4.92496E-3	-225.178E-12	677.946E-3	-41.0319E-3	-216.698E-12	652.425E-3	-94.5751E-3
-4.92996E-3	-224.221E-12	651.340E-3	-27.8915E-3	-217.282E-12	680.650E-3	-117.072E-3
-4.93497E-3	-223.954E-12	646.219E-3	-23.0492E-3	-217.660E-12	648.512E-3	-77.4133E-3
-4.93997E-3	-224.103E-12	653.279E-3	-18.6029E-3	-219.559E-12	626.754E-3	-34.0126E-3
-4.94497E-3	-222.789E-12	662.753E-3	-16.2220E-3	-221.304E-12	632.397E-3	-42.0495E-3
-4.94997E-3	-221.128E-12	673.090E-3	-10.6751E-3	-223.983E-12	665.663E-3	-63.4727E-3
-4.95498E-3	-220.194E-12	671.427E-3	-14.3366E-3	-225.690E-12	692.098E-3	-39.2303E-3
-4.95998E-3	-219.441E-12	676.092E-3	-27.1100E-3	-227.784E-12	685.619E-3	-1.36651E-3
-4.96498E-3	-217.988E-12	703.492E-3	-38.2791E-3	-229.632E-12	675.903E-3	-12.5272E-3
-4.96998E-3	-217.022E-12	695.728E-3	-37.7746E-3	-231.326E-12	665.086E-3	-43.3539E-3
-4.97499E-3	-216.266E-12	648.955E-3	-33.1484E-3	-231.802E-12	646.337E-3	-52.9623E-3
-4.97999E-3	-216.816E-12	642.202E-3	-45.0125E-3	-231.827E-12	641.373E-3	-37.5387E-3
-4.98499E-3	-217.132E-12	665.949E-3	-26.6845E-3	-231.145E-12	647.154E-3	-12.8501E-3
-4.98999E-3	-218.189E-12	648.370E-3	17.1348E-3	-230.206E-12	651.113E-3	9.53871E-3
-4.99500E-3	-220.201E-12	634.851E-3	15.5333E-3	-227.928E-12	652.197E-3	25.7544E-3
-5.00000E-3	-223.267E-12	669.155E-3	-6.48364E-3	-225.850E-12	671.669E-3	9.90300E-3
