Experiment	bias spectroscopy	
Date	19.01.2016 19:15:15	
User		
X (m)	50.643E-9	
Y (m)	256.731E-9	
Z (m)	-132.594E-9	
Z offset (m)	0E+0	
Settling time (s)	200E-6	
Integration time (s)	5E-3	
Z-Ctrl hold	TRUE	
Final Z (m)	N/A	
Filter type	None	
Order		
Cutoff frq		
Comment01	MnPc/Pb(111)	
Comment02	dz =00pm	
Comment03	7 Sweeps	
Comment04	MagField =0.T	
Comment05	Divider 1:10	
Comment06	Setpoint:5mV,200 pA	
Comment07	Lockin: 50uVrms,5ms,5mV	
Comment08	Gain:9; 912Hz modulation	
Comment09	T=1.06K	
Bias>Bias (V)	5E-3	
Bias>Calibration (V/V)	81.475E-3	
Bias>Offset (V)	1.046E-3	
Bias Spectroscopy>Sweep Start (V)	5E-3	
Bias Spectroscopy>Sweep End (V)	-5E-3	
Bias Spectroscopy>Num Pixel	2000	
Bias Spectroscopy>Z Avg time (s)	500E-3	
Bias Spectroscopy>Z offset (m)	0E+0	
Bias Spectroscopy>1st Settling time (s)	500E-3	
Bias Spectroscopy>Settling time (s)	200E-6	
Bias Spectroscopy>Integration time (s)	5E-3	
Bias Spectroscopy>End Settling time (s)	500E-3	
Bias Spectroscopy>Z control time (s)	500E-3	
Bias Spectroscopy>Max Slew rate (V/s)	Inf	
Bias Spectroscopy>backward sweep	TRUE	
Bias Spectroscopy>Z-controller hold	TRUE	
Bias Spectroscopy>Number of sweeps	7	
Bias Spectroscopy>Channels	Current (A);X% LockIn (V);Y% LockIn (V)	
Bias Spectroscopy>Reset Bias	TRUE	
Bias Spectroscopy>Record final Z	FALSE	
Bias Spectroscopy>Lock-In run	FALSE	
Bias Spectroscopy>Sweep mode	Linear	
Bias Spectroscopy>MultiLine Settings : Segment Start (V), Segment End (V), Settling (s), Integration (s), Steps (xn)	100E-3,3.3E-3,100E-6,10E-3,2500;3.3E-3,-3.3E-3,100E-6,10E-3,10;-3.3E-3,-100E-3,100E-6,10E-3,2500	
Current>Current (A)	200.187E-12	
Current>Calibration (A/V)	999.99900E-12	
Current>Offset (A)	-455.429E-15	
Current>Gain	LN 10^9	
Z-Controller>Z (m)	-132.594E-9	
Z-Controller>Controller name	log Current	
Z-Controller>Controller status	ON	
Z-Controller>Setpoint	200E-12	
Z-Controller>Setpoint unit	A	
Z-Controller>P gain	2.96994E-12	
Z-Controller>I gain	67.0321E-9	
Z-Controller>Time const (s)	44.3062E-6	
Z-Controller>TipLift (m)	0E+0	
Z-Controller>Switch off delay (s)	50E-3	
Current (A)	200.035E-12	
Z (m)	-132.594E-9	

[DATA]
Bias calc (V)	Current (A)	X% LockIn (V)	Y% LockIn (V)	Current [bwd] (A)	X% LockIn [bwd] (V)	Y% LockIn [bwd] (V)
5.00000E-3	202.387E-12	589.856E-3	-50.8520E-3	200.422E-12	595.735E-3	2.89663E-3
4.99500E-3	202.724E-12	605.304E-3	-70.3105E-3	200.253E-12	578.266E-3	-9.65418E-3
4.98999E-3	202.422E-12	628.768E-3	-61.0588E-3	198.454E-12	544.214E-3	-7.38744E-3
4.98499E-3	201.681E-12	648.328E-3	-45.5696E-3	198.294E-12	523.546E-3	-2.37222E-3
4.97999E-3	200.618E-12	659.804E-3	-18.7669E-3	198.475E-12	539.562E-3	-11.7360E-3
4.97499E-3	199.690E-12	661.193E-3	2.38254E-3	198.651E-12	563.002E-3	-21.0962E-3
4.96998E-3	197.984E-12	646.224E-3	15.9696E-3	197.845E-12	578.002E-3	-16.0734E-3
4.96498E-3	196.044E-12	624.572E-3	21.1619E-3	198.405E-12	607.968E-3	-4.77539E-3
4.95998E-3	193.841E-12	602.683E-3	3.47660E-3	200.039E-12	621.370E-3	11.6829E-3
4.95498E-3	192.969E-12	597.307E-3	-25.8862E-3	200.838E-12	610.790E-3	17.4399E-3
4.94997E-3	191.506E-12	600.051E-3	-36.3307E-3	200.692E-12	634.806E-3	2.21973E-3
4.94497E-3	191.799E-12	600.054E-3	-29.5994E-3	200.978E-12	674.666E-3	-11.7494E-3
4.93997E-3	191.537E-12	594.828E-3	-39.3225E-3	201.920E-12	687.639E-3	-15.7856E-3
4.93497E-3	191.878E-12	594.884E-3	-30.0543E-3	202.337E-12	676.514E-3	-25.1208E-3
4.92996E-3	192.795E-12	582.265E-3	7.96609E-3	201.170E-12	645.689E-3	-21.8450E-3
4.92496E-3	194.462E-12	567.904E-3	25.1998E-3	200.778E-12	598.213E-3	2.56637E-3
4.91996E-3	195.591E-12	575.849E-3	11.1123E-3	199.963E-12	582.939E-3	14.2926E-3
4.91496E-3	196.528E-12	581.697E-3	-22.0743E-3	198.958E-12	607.298E-3	12.6681E-3
4.90995E-3	198.515E-12	586.515E-3	-34.8033E-3	196.662E-12	616.113E-3	-3.95187E-3
4.90495E-3	199.247E-12	608.055E-3	-18.3459E-3	195.350E-12	606.990E-3	-34.2179E-3
4.89995E-3	199.839E-12	634.630E-3	-21.7092E-3	194.108E-12	605.082E-3	-38.7096E-3
4.89495E-3	200.721E-12	640.392E-3	-37.0820E-3	193.693E-12	596.813E-3	-20.9500E-3
4.88995E-3	200.590E-12	633.016E-3	-35.3056E-3	192.356E-12	589.018E-3	-9.63527E-3
4.88494E-3	199.609E-12	648.420E-3	-2.55543E-3	191.560E-12	608.029E-3	-8.86053E-3
4.87994E-3	198.510E-12	672.459E-3	2.91275E-3	190.271E-12	626.923E-3	-19.5038E-3
4.87494E-3	197.201E-12	656.336E-3	-30.1935E-3	190.175E-12	630.743E-3	-14.8165E-3
4.86993E-3	194.389E-12	645.993E-3	-37.6909E-3	190.908E-12	630.443E-3	3.05195E-3
4.86493E-3	193.396E-12	638.460E-3	-29.1601E-3	191.590E-12	631.609E-3	4.56835E-3
4.85993E-3	191.438E-12	595.470E-3	-21.0414E-3	192.233E-12	627.222E-3	19.8609E-3
4.85493E-3	191.070E-12	563.394E-3	-33.9336E-3	192.912E-12	624.454E-3	37.9254E-3
4.84992E-3	189.939E-12	571.833E-3	-46.5628E-3	193.895E-12	628.050E-3	8.84915E-3
4.84492E-3	189.606E-12	602.067E-3	-53.4698E-3	194.571E-12	612.042E-3	-33.5093E-3
4.83992E-3	188.752E-12	627.314E-3	-51.7720E-3	194.334E-12	589.692E-3	-35.6806E-3
4.83492E-3	189.696E-12	644.130E-3	-15.2291E-3	193.975E-12	590.934E-3	-30.2938E-3
4.82991E-3	190.592E-12	636.380E-3	2.30798E-3	194.053E-12	601.322E-3	-40.6821E-3
4.82491E-3	190.736E-12	620.367E-3	-1.95782E-3	193.815E-12	611.639E-3	-25.7976E-3
4.81991E-3	190.742E-12	614.904E-3	-6.56943E-3	192.650E-12	637.630E-3	568.987E-6
4.81491E-3	192.647E-12	617.016E-3	-23.9070E-3	192.304E-12	636.978E-3	-10.5269E-3
4.80990E-3	193.877E-12	630.395E-3	-20.6739E-3	189.870E-12	627.348E-3	-22.6400E-3
4.80490E-3	193.895E-12	637.944E-3	-9.89807E-3	188.857E-12	653.156E-3	-22.9338E-3
4.79990E-3	194.396E-12	631.765E-3	-7.75739E-3	187.378E-12	653.567E-3	-22.4464E-3
4.79490E-3	195.414E-12	631.823E-3	-1.24901E-3	187.232E-12	625.854E-3	-16.7472E-3
4.78989E-3	194.816E-12	638.736E-3	-9.15816E-3	184.919E-12	622.706E-3	-25.3743E-3
4.78489E-3	194.470E-12	642.242E-3	-13.9304E-3	185.407E-12	647.775E-3	-36.1921E-3
4.77989E-3	193.581E-12	655.527E-3	-7.92276E-3	185.667E-12	663.407E-3	-37.7310E-3
4.77489E-3	192.646E-12	658.296E-3	-4.21031E-3	185.679E-12	657.945E-3	-29.0291E-3
4.76988E-3	192.350E-12	632.373E-3	-11.6441E-3	185.935E-12	653.886E-3	5.19738E-3
4.76488E-3	191.963E-12	617.662E-3	-29.8874E-3	185.892E-12	628.506E-3	27.7994E-3
4.75988E-3	190.325E-12	617.909E-3	-17.9070E-3	187.190E-12	590.370E-3	9.78544E-3
4.75488E-3	188.765E-12	613.371E-3	16.0908E-3	188.705E-12	593.842E-3	-9.71494E-3
4.74988E-3	189.376E-12	614.190E-3	17.4485E-3	189.855E-12	627.918E-3	-21.2924E-3
4.74487E-3	189.303E-12	612.944E-3	-4.88031E-3	189.924E-12	652.126E-3	-33.2734E-3
4.73987E-3	188.115E-12	607.394E-3	-17.3702E-3	190.939E-12	666.996E-3	-21.0579E-3
4.73487E-3	186.895E-12	606.347E-3	-30.3559E-3	191.830E-12	661.374E-3	20.4578E-3
4.72986E-3	186.776E-12	606.214E-3	-31.6597E-3	191.770E-12	645.840E-3	18.3976E-3
4.72486E-3	187.349E-12	607.444E-3	-29.3903E-3	191.396E-12	650.865E-3	-31.0737E-3
4.71986E-3	187.526E-12	613.360E-3	-56.6101E-3	190.925E-12	652.760E-3	-45.4591E-3
4.71486E-3	186.882E-12	622.962E-3	-71.9410E-3	191.202E-12	660.530E-3	-26.2947E-3
4.70985E-3	185.771E-12	629.277E-3	-27.2318E-3	189.969E-12	671.984E-3	-9.38039E-3
4.70485E-3	187.174E-12	633.553E-3	11.4026E-3	189.029E-12	648.244E-3	-14.9675E-3
4.69985E-3	187.868E-12	624.941E-3	10.7573E-3	187.338E-12	615.006E-3	-19.1772E-3
4.69485E-3	186.755E-12	608.571E-3	3.13648E-3	186.859E-12	611.470E-3	-6.83296E-3
4.68984E-3	186.416E-12	606.829E-3	-27.3331E-3	185.311E-12	621.671E-3	-12.8872E-3
4.68484E-3	187.404E-12	592.630E-3	-42.1453E-3	185.831E-12	634.511E-3	-21.1486E-3
4.67984E-3	188.661E-12	567.336E-3	-19.5336E-3	184.392E-12	651.208E-3	-19.3947E-3
4.67484E-3	188.628E-12	575.823E-3	-340.236E-6	184.246E-12	658.494E-3	-15.2145E-3
4.66983E-3	188.769E-12	593.731E-3	22.6486E-3	184.769E-12	669.461E-3	-902.545E-6
4.66483E-3	188.022E-12	594.466E-3	46.2681E-3	185.420E-12	675.511E-3	-249.066E-6
4.65983E-3	188.053E-12	602.739E-3	26.7008E-3	185.205E-12	664.633E-3	-3.38148E-3
4.65483E-3	188.252E-12	607.516E-3	125.583E-6	184.357E-12	665.788E-3	1.63264E-3
4.64982E-3	186.253E-12	600.671E-3	-13.4767E-3	185.857E-12	676.448E-3	2.34761E-3
4.64482E-3	183.991E-12	587.758E-3	-32.3906E-3	186.010E-12	670.476E-3	-1.95568E-3
4.63982E-3	182.843E-12	574.423E-3	-33.6680E-3	186.384E-12	656.906E-3	-17.8837E-3
4.63482E-3	182.619E-12	584.242E-3	-24.4414E-3	186.947E-12	651.326E-3	-36.3675E-3
4.62981E-3	180.496E-12	609.812E-3	-37.6195E-3	187.376E-12	657.252E-3	-43.5844E-3
4.62481E-3	178.666E-12	618.844E-3	-42.1855E-3	186.824E-12	669.349E-3	-30.8856E-3
4.61981E-3	178.290E-12	600.831E-3	-22.7046E-3	186.609E-12	659.155E-3	-17.0261E-3
4.61481E-3	178.799E-12	575.764E-3	-29.6007E-3	186.796E-12	645.367E-3	-13.7684E-3
4.60980E-3	178.533E-12	585.132E-3	-49.4213E-3	186.103E-12	635.456E-3	-5.04285E-3
4.60480E-3	178.198E-12	614.641E-3	-44.4055E-3	185.424E-12	612.535E-3	-8.75244E-3
4.59980E-3	178.305E-12	614.967E-3	-28.8060E-3	184.287E-12	607.551E-3	-2.28190E-3
4.59480E-3	179.624E-12	625.563E-3	-30.2006E-3	184.488E-12	609.905E-3	22.7980E-3
4.58979E-3	181.564E-12	652.910E-3	-30.4749E-3	182.615E-12	606.273E-3	8.86784E-3
4.58479E-3	182.128E-12	644.092E-3	-29.9361E-3	182.050E-12	607.283E-3	-24.7701E-3
4.57979E-3	183.146E-12	631.351E-3	-34.5872E-3	181.321E-12	602.751E-3	-41.8081E-3
4.57479E-3	183.978E-12	651.423E-3	-27.2075E-3	181.040E-12	596.104E-3	-45.5286E-3
4.56978E-3	185.443E-12	662.686E-3	-26.8191E-3	180.181E-12	579.630E-3	-37.5831E-3
4.56478E-3	185.401E-12	663.289E-3	-31.5995E-3	180.105E-12	550.585E-3	-12.8213E-3
4.55978E-3	184.887E-12	677.365E-3	-26.6619E-3	179.485E-12	559.689E-3	1.45160E-3
4.55478E-3	184.063E-12	669.379E-3	-24.9947E-3	178.872E-12	602.309E-3	-27.9554E-3
4.54977E-3	183.116E-12	645.364E-3	-31.7092E-3	179.209E-12	607.313E-3	-59.1320E-3
4.54477E-3	182.072E-12	645.259E-3	-37.8574E-3	179.776E-12	591.175E-3	-60.7261E-3
4.53977E-3	179.841E-12	652.051E-3	-28.1206E-3	179.852E-12	596.765E-3	-48.7891E-3
4.53477E-3	178.455E-12	636.596E-3	-9.05413E-3	179.403E-12	596.949E-3	-27.7849E-3
4.52976E-3	177.333E-12	602.710E-3	-6.15621E-3	179.300E-12	582.990E-3	-14.0566E-3
4.52476E-3	177.295E-12	588.640E-3	9.50173E-3	179.506E-12	570.765E-3	2.33264E-3
4.51976E-3	176.699E-12	612.544E-3	25.9095E-3	179.204E-12	581.303E-3	16.8189E-3
4.51476E-3	176.222E-12	627.821E-3	-4.15063E-3	178.957E-12	621.264E-3	1.44019E-3
4.50975E-3	175.706E-12	637.221E-3	-30.0020E-3	178.247E-12	651.878E-3	-18.4999E-3
4.50475E-3	176.900E-12	641.463E-3	-25.7116E-3	178.502E-12	659.755E-3	-18.8606E-3
4.49975E-3	177.639E-12	623.182E-3	-21.4607E-3	177.899E-12	666.939E-3	-15.3817E-3
4.49475E-3	178.190E-12	625.826E-3	-21.0018E-3	177.404E-12	660.861E-3	-20.0542E-3
4.48974E-3	179.284E-12	628.217E-3	-23.8335E-3	176.467E-12	647.944E-3	-29.6675E-3
4.48474E-3	180.205E-12	599.078E-3	-38.8688E-3	176.366E-12	657.296E-3	-24.0682E-3
4.47974E-3	182.406E-12	589.239E-3	-35.4606E-3	175.950E-12	645.667E-3	-14.2740E-3
4.47474E-3	182.375E-12	602.750E-3	-13.6033E-3	174.436E-12	616.294E-3	-24.7936E-3
4.46973E-3	181.748E-12	612.334E-3	8.55266E-3	173.433E-12	609.699E-3	-24.7563E-3
4.46473E-3	181.209E-12	636.123E-3	18.2137E-3	173.600E-12	591.375E-3	-7.73730E-3
4.45973E-3	181.747E-12	649.618E-3	-26.7246E-6	173.187E-12	574.755E-3	11.0805E-3
4.45473E-3	180.643E-12	630.943E-3	-16.5015E-3	173.371E-12	595.127E-3	15.6181E-3
4.44972E-3	179.395E-12	621.617E-3	-31.8435E-3	173.628E-12	629.097E-3	2.68796E-3
4.44472E-3	177.405E-12	638.751E-3	-55.4992E-3	173.869E-12	636.255E-3	-2.83327E-3
4.43972E-3	176.287E-12	635.541E-3	-62.3809E-3	173.773E-12	614.240E-3	-14.8083E-3
4.43472E-3	175.068E-12	613.900E-3	-41.9195E-3	174.280E-12	616.577E-3	-30.5384E-3
4.42971E-3	174.753E-12	613.606E-3	-21.8110E-3	175.526E-12	636.387E-3	-28.7263E-3
4.42471E-3	173.450E-12	625.326E-3	-15.6646E-3	175.466E-12	639.463E-3	-11.6349E-3
4.41971E-3	172.636E-12	638.974E-3	-4.37885E-3	176.580E-12	633.197E-3	2.16310E-3
4.41471E-3	172.934E-12	643.649E-3	19.7407E-3	177.493E-12	627.334E-3	205.392E-6
4.40970E-3	173.547E-12	643.741E-3	25.0018E-3	177.859E-12	639.366E-3	15.7265E-3
4.40470E-3	173.508E-12	671.684E-3	-2.63984E-3	177.823E-12	648.017E-3	24.0865E-3
4.39970E-3	172.801E-12	695.498E-3	-18.8627E-3	177.379E-12	641.663E-3	-8.89186E-3
4.39470E-3	173.325E-12	669.202E-3	-10.4869E-3	176.363E-12	637.691E-3	-44.5903E-3
4.38969E-3	174.404E-12	634.731E-3	-6.63499E-3	175.656E-12	622.778E-3	-49.6913E-3
4.38469E-3	174.238E-12	598.435E-3	-14.0452E-3	174.404E-12	609.121E-3	-50.4276E-3
4.37969E-3	174.115E-12	582.771E-3	-11.8449E-3	173.735E-12	604.413E-3	-51.4592E-3
4.37469E-3	173.806E-12	614.136E-3	6.38102E-3	172.833E-12	582.627E-3	-27.9197E-3
4.36968E-3	173.233E-12	651.721E-3	16.1339E-3	171.395E-12	583.341E-3	-13.0305E-3
4.36468E-3	173.254E-12	664.715E-3	-6.94029E-3	171.390E-12	627.326E-3	-24.8046E-3
4.35968E-3	172.568E-12	656.870E-3	-28.4942E-3	171.399E-12	646.771E-3	-28.5747E-3
4.35468E-3	171.077E-12	650.275E-3	-28.8976E-3	170.794E-12	648.966E-3	-34.1116E-3
4.34967E-3	170.539E-12	632.706E-3	-29.1918E-3	170.005E-12	651.102E-3	-58.0086E-3
4.34467E-3	170.943E-12	619.226E-3	-22.6440E-3	170.878E-12	643.226E-3	-50.4756E-3
4.33967E-3	170.569E-12	636.364E-3	-10.4581E-3	171.997E-12	649.736E-3	-18.1566E-3
4.33467E-3	169.514E-12	654.143E-3	-17.2246E-3	172.013E-12	638.017E-3	-25.9506E-3
4.32966E-3	169.618E-12	650.209E-3	-29.8432E-3	172.374E-12	612.535E-3	-50.7291E-3
4.32466E-3	169.439E-12	629.438E-3	8.02141E-3	173.325E-12	624.463E-3	-34.4885E-3
4.31966E-3	169.030E-12	606.097E-3	47.3687E-3	174.026E-12	649.549E-3	-15.3141E-3
4.31466E-3	169.296E-12	610.996E-3	36.7192E-3	174.399E-12	655.093E-3	-22.4271E-3
4.30965E-3	168.723E-12	613.420E-3	11.2462E-3	174.135E-12	648.657E-3	-20.6726E-3
4.30465E-3	168.587E-12	592.395E-3	-10.8048E-3	173.342E-12	648.701E-3	-20.8500E-3
4.29965E-3	168.199E-12	603.710E-3	-34.9773E-3	173.305E-12	652.583E-3	-38.1632E-3
4.29465E-3	168.178E-12	635.306E-3	-36.6413E-3	172.957E-12	646.618E-3	-29.5669E-3
4.28964E-3	167.895E-12	635.502E-3	290.083E-6	171.448E-12	648.714E-3	-4.49648E-3
4.28464E-3	167.530E-12	609.728E-3	10.4966E-3	170.075E-12	661.184E-3	-8.91547E-3
4.27964E-3	166.810E-12	587.985E-3	-9.49439E-3	169.216E-12	653.882E-3	-20.3635E-3
4.27464E-3	167.147E-12	586.430E-3	-19.9021E-3	168.987E-12	621.600E-3	-24.9440E-3
4.26963E-3	167.441E-12	592.785E-3	-34.2220E-3	167.889E-12	597.577E-3	-21.1706E-3
4.26463E-3	166.784E-12	587.252E-3	-30.1151E-3	166.806E-12	612.711E-3	-25.7716E-3
4.25963E-3	167.152E-12	572.919E-3	-10.5746E-3	166.275E-12	650.456E-3	-37.7497E-3
4.25463E-3	167.124E-12	579.241E-3	-13.8161E-3	166.153E-12	665.146E-3	-10.0776E-3
4.24962E-3	167.984E-12	609.499E-3	-15.0180E-3	166.207E-12	651.337E-3	6.54121E-3
4.24462E-3	167.590E-12	622.890E-3	-12.6616E-3	166.475E-12	633.310E-3	-26.5347E-3
4.23962E-3	168.109E-12	598.128E-3	-24.4853E-3	166.652E-12	614.553E-3	-46.0540E-3
4.23462E-3	167.865E-12	587.279E-3	-38.9443E-3	167.292E-12	617.266E-3	-23.9418E-3
4.22961E-3	168.024E-12	599.806E-3	-31.1496E-3	168.360E-12	641.788E-3	1.95653E-3
4.22461E-3	168.250E-12	591.187E-3	-7.87707E-3	167.405E-12	637.973E-3	5.31536E-3
4.21961E-3	167.748E-12	607.346E-3	-11.4189E-3	167.897E-12	616.499E-3	-7.80041E-3
4.21461E-3	167.154E-12	649.568E-3	-13.1761E-3	168.579E-12	622.740E-3	-33.8034E-3
4.20960E-3	166.179E-12	643.847E-3	5.20319E-3	168.110E-12	642.573E-3	-42.3540E-3
4.20460E-3	165.789E-12	629.092E-3	1.09062E-3	166.912E-12	653.932E-3	-19.9128E-3
4.19960E-3	164.681E-12	628.232E-3	-9.27697E-3	166.399E-12	654.718E-3	-5.09552E-3
4.19460E-3	164.409E-12	609.717E-3	625.828E-6	166.427E-12	641.642E-3	-12.9128E-3
4.18959E-3	163.238E-12	610.101E-3	1.85603E-3	165.715E-12	624.504E-3	-12.2240E-3
4.18459E-3	163.576E-12	617.420E-3	-14.2374E-3	164.729E-12	611.915E-3	-6.74409E-3
4.17959E-3	164.071E-12	614.990E-3	-26.9016E-3	163.849E-12	612.441E-3	-12.8565E-3
4.17459E-3	163.577E-12	628.967E-3	-26.0270E-3	162.522E-12	630.424E-3	-8.00572E-3
4.16958E-3	164.043E-12	639.911E-3	-19.3878E-3	162.698E-12	643.957E-3	-1.42188E-3
4.16458E-3	164.454E-12	643.433E-3	-17.1332E-3	162.258E-12	622.843E-3	-8.72446E-3
4.15958E-3	165.375E-12	649.501E-3	-17.9228E-3	161.965E-12	607.843E-3	-26.5223E-3
4.15458E-3	166.297E-12	641.838E-3	-13.9683E-3	161.288E-12	624.595E-3	-32.1261E-3
4.14957E-3	166.733E-12	641.763E-3	-8.43895E-3	161.279E-12	642.657E-3	-28.3252E-3
4.14457E-3	167.088E-12	640.999E-3	-3.53357E-3	161.457E-12	651.699E-3	-23.0128E-3
4.13957E-3	167.422E-12	628.760E-3	3.64337E-3	161.867E-12	645.158E-3	-17.9864E-3
4.13457E-3	167.594E-12	615.307E-3	-12.4235E-3	162.282E-12	634.158E-3	-16.8547E-3
4.12956E-3	166.815E-12	592.374E-3	-25.7880E-3	162.485E-12	610.257E-3	-5.58371E-3
4.12456E-3	165.951E-12	596.523E-3	-21.4260E-3	162.081E-12	593.757E-3	-9.23181E-3
4.11956E-3	164.532E-12	611.889E-3	-36.4428E-3	162.802E-12	614.025E-3	-22.8981E-3
4.11456E-3	163.936E-12	621.886E-3	-44.7178E-3	162.833E-12	645.329E-3	-8.73228E-3
4.10955E-3	163.454E-12	630.237E-3	-16.3694E-3	162.555E-12	658.999E-3	-76.8783E-6
4.10455E-3	161.813E-12	610.156E-3	15.0248E-3	162.259E-12	647.324E-3	-15.1059E-3
4.09955E-3	160.536E-12	589.904E-3	7.21997E-3	162.773E-12	626.224E-3	-17.0366E-3
4.09455E-3	159.449E-12	607.836E-3	-18.3370E-3	162.043E-12	605.209E-3	-23.5571E-3
4.08954E-3	159.676E-12	628.292E-3	-27.8634E-3	161.474E-12	585.066E-3	-35.0958E-3
4.08454E-3	159.629E-12	629.465E-3	-19.1333E-3	161.090E-12	569.229E-3	-14.0966E-3
4.07954E-3	159.568E-12	642.679E-3	-11.4969E-3	160.753E-12	556.983E-3	5.17269E-3
4.07454E-3	160.141E-12	655.049E-3	-11.7023E-3	159.767E-12	555.006E-3	-2.21000E-3
4.06953E-3	160.319E-12	644.788E-3	-14.0904E-3	159.031E-12	569.240E-3	-5.71681E-3
4.06453E-3	161.329E-12	635.964E-3	-18.9882E-3	157.992E-12	598.893E-3	-3.33919E-3
4.05953E-3	161.864E-12	644.004E-3	-17.6370E-3	157.536E-12	629.830E-3	-3.76041E-3
4.05453E-3	162.371E-12	657.416E-3	-11.9675E-3	157.471E-12	639.792E-3	-9.82795E-3
4.04952E-3	161.776E-12	665.271E-3	-19.0262E-3	157.739E-12	635.914E-3	-20.3410E-3
4.04452E-3	161.575E-12	665.933E-3	-19.8852E-3	156.817E-12	626.495E-3	-24.4857E-3
4.03952E-3	160.832E-12	660.786E-3	-14.0128E-3	156.556E-12	616.919E-3	-33.8630E-3
4.03452E-3	160.295E-12	646.321E-3	-13.9012E-3	156.566E-12	628.877E-3	-43.6489E-3
4.02951E-3	159.562E-12	634.378E-3	1.80619E-3	157.305E-12	653.361E-3	-37.2137E-3
4.02451E-3	158.613E-12	627.313E-3	1.23415E-3	157.796E-12	648.868E-3	-28.7563E-3
4.01951E-3	157.354E-12	624.713E-3	-19.4252E-3	158.557E-12	629.065E-3	-32.0286E-3
4.01451E-3	155.535E-12	619.660E-3	-15.8906E-3	158.997E-12	644.397E-3	-43.2645E-3
4.00950E-3	154.472E-12	585.766E-3	4.14333E-3	160.070E-12	672.877E-3	-53.2293E-3
4.00450E-3	153.939E-12	564.988E-3	8.50386E-3	159.616E-12	668.641E-3	-48.0976E-3
3.99950E-3	154.077E-12	575.327E-3	3.86461E-3	159.705E-12	651.150E-3	-38.6898E-3
3.99450E-3	153.577E-12	572.711E-3	10.5556E-3	159.639E-12	640.890E-3	-30.6532E-3
3.98949E-3	154.332E-12	573.560E-3	19.1193E-3	159.553E-12	635.871E-3	-10.1395E-3
3.98449E-3	154.257E-12	597.960E-3	18.1654E-3	159.053E-12	638.269E-3	6.11236E-3
3.97949E-3	155.088E-12	604.732E-3	17.6978E-3	158.876E-12	640.417E-3	5.83273E-3
3.97449E-3	155.037E-12	600.270E-3	768.048E-6	158.183E-12	627.648E-3	-7.49381E-3
3.96948E-3	155.487E-12	609.726E-3	-25.4279E-3	156.972E-12	625.260E-3	-14.6304E-3
3.96448E-3	156.310E-12	609.691E-3	-24.1221E-3	156.620E-12	637.211E-3	-10.9369E-3
3.95948E-3	156.153E-12	607.331E-3	-31.4459E-3	155.962E-12	624.805E-3	-9.30812E-3
3.95448E-3	156.242E-12	633.005E-3	-35.7628E-3	154.800E-12	604.313E-3	-3.13894E-3
3.94947E-3	155.872E-12	662.875E-3	-23.2725E-3	153.598E-12	597.616E-3	-10.9431E-3
3.94447E-3	155.974E-12	654.451E-3	-19.1991E-3	153.755E-12	602.455E-3	-31.1430E-3
3.93947E-3	154.970E-12	627.116E-3	-13.7862E-3	153.368E-12	618.540E-3	-4.24683E-3
3.93447E-3	154.413E-12	599.533E-3	-19.5866E-3	153.094E-12	634.565E-3	35.8116E-3
3.92946E-3	154.183E-12	599.584E-3	-27.8041E-3	152.967E-12	632.727E-3	28.4573E-3
3.92446E-3	153.213E-12	638.964E-3	-17.1111E-3	153.786E-12	631.511E-3	2.03361E-3
3.91946E-3	152.912E-12	658.684E-3	-826.390E-6	154.716E-12	655.714E-3	-50.0026E-3
3.91446E-3	152.536E-12	636.585E-3	-1.05624E-3	154.585E-12	662.567E-3	-97.7901E-3
3.90945E-3	152.789E-12	616.723E-3	6.63241E-3	154.623E-12	662.455E-3	-71.8584E-3
3.90445E-3	151.188E-12	613.166E-3	29.8050E-3	155.784E-12	672.055E-3	-33.7783E-3
3.89945E-3	151.739E-12	627.140E-3	22.2229E-3	155.746E-12	657.072E-3	-41.4055E-3
3.89445E-3	151.803E-12	651.995E-3	-16.8004E-3	156.002E-12	645.676E-3	-39.7844E-3
3.88944E-3	152.634E-12	637.738E-3	-44.5559E-3	155.630E-12	633.876E-3	-17.9879E-3
3.88444E-3	152.340E-12	622.396E-3	-48.5116E-3	156.257E-12	617.242E-3	-10.3093E-3
3.87944E-3	153.040E-12	635.196E-3	-32.4453E-3	155.031E-12	604.132E-3	-20.9267E-3
3.87444E-3	152.298E-12	633.795E-3	-153.460E-6	155.296E-12	596.251E-3	-40.6748E-3
3.86943E-3	153.284E-12	639.693E-3	25.9966E-3	153.834E-12	616.053E-3	-46.1048E-3
3.86443E-3	153.782E-12	668.145E-3	14.9959E-3	153.065E-12	634.424E-3	-37.6078E-3
3.85943E-3	152.911E-12	678.700E-3	-15.4860E-3	151.722E-12	644.750E-3	-36.6065E-3
3.85443E-3	152.717E-12	670.470E-3	-29.5399E-3	151.136E-12	648.953E-3	-27.4348E-3
3.84942E-3	152.380E-12	668.896E-3	-31.1121E-3	150.223E-12	643.452E-3	3.55020E-3
3.84442E-3	152.803E-12	670.792E-3	-25.5821E-3	149.391E-12	640.064E-3	7.61914E-3
3.83942E-3	152.128E-12	646.330E-3	-26.5513E-3	148.625E-12	624.115E-3	-18.7638E-3
3.83442E-3	151.055E-12	616.312E-3	-14.3485E-3	148.252E-12	612.669E-3	-21.1261E-3
3.82941E-3	150.837E-12	612.127E-3	1.07231E-3	148.380E-12	619.284E-3	-13.1777E-3
3.82441E-3	150.511E-12	612.063E-3	-9.02220E-3	148.699E-12	616.405E-3	-17.2896E-3
3.81941E-3	150.502E-12	626.679E-3	-27.7822E-3	148.868E-12	623.204E-3	-10.6291E-3
3.81441E-3	149.596E-12	632.636E-3	-32.7425E-3	148.903E-12	657.994E-3	-11.1306E-3
3.80940E-3	149.232E-12	611.371E-3	-11.5623E-3	148.969E-12	668.614E-3	-28.2180E-3
3.80440E-3	149.546E-12	602.674E-3	-15.9140E-3	150.533E-12	657.053E-3	-25.6813E-3
3.79940E-3	150.162E-12	630.975E-3	-29.5229E-3	150.657E-12	667.455E-3	-16.0927E-3
3.79440E-3	148.882E-12	653.470E-3	2.81655E-3	151.120E-12	649.556E-3	926.051E-6
3.78939E-3	148.347E-12	642.754E-3	26.1687E-3	151.316E-12	623.835E-3	15.0929E-3
3.78439E-3	147.463E-12	624.977E-3	18.3869E-3	151.665E-12	639.633E-3	-15.8962E-3
3.77939E-3	147.374E-12	619.157E-3	18.3921E-3	151.442E-12	634.861E-3	-50.9492E-3
3.77439E-3	147.265E-12	630.507E-3	23.7680E-3	151.450E-12	620.836E-3	-44.3378E-3
3.76938E-3	146.856E-12	643.321E-3	29.3280E-3	150.572E-12	612.291E-3	-30.4491E-3
3.76438E-3	145.853E-12	651.456E-3	13.3847E-3	149.543E-12	600.277E-3	-19.5405E-3
3.75938E-3	145.659E-12	649.582E-3	-15.3926E-3	148.284E-12	613.340E-3	-4.31108E-3
3.75438E-3	145.833E-12	640.674E-3	-14.7498E-3	147.364E-12	611.986E-3	-5.79876E-3
3.74937E-3	146.296E-12	620.346E-3	-15.3821E-3	146.363E-12	590.128E-3	-20.7165E-3
3.74437E-3	146.270E-12	612.776E-3	-29.0168E-3	145.661E-12	581.633E-3	-33.1608E-3
3.73937E-3	145.497E-12	633.344E-3	-29.4347E-3	144.406E-12	585.846E-3	-22.5146E-3
3.73437E-3	145.429E-12	651.498E-3	-39.2961E-3	144.565E-12	606.490E-3	-11.3016E-3
3.72936E-3	146.440E-12	653.013E-3	-57.6920E-3	144.009E-12	619.064E-3	-23.1349E-3
3.72436E-3	146.766E-12	638.214E-3	-45.8203E-3	143.878E-12	611.585E-3	-26.0605E-3
3.71936E-3	146.476E-12	628.872E-3	-18.4901E-3	143.759E-12	612.675E-3	-23.0323E-3
3.71436E-3	146.278E-12	641.541E-3	-604.596E-6	143.632E-12	610.527E-3	-31.4319E-3
3.70935E-3	146.627E-12	662.492E-3	14.8813E-3	144.409E-12	619.029E-3	-28.5314E-3
3.70435E-3	146.310E-12	674.093E-3	16.7983E-3	144.581E-12	654.573E-3	-2.15213E-3
3.69935E-3	145.883E-12	663.774E-3	3.93007E-3	145.215E-12	659.846E-3	20.4011E-3
3.69435E-3	145.036E-12	627.195E-3	3.30762E-3	145.855E-12	638.276E-3	5.75931E-3
3.68934E-3	144.573E-12	606.449E-3	4.69512E-3	146.565E-12	642.820E-3	-24.3134E-3
3.68434E-3	143.921E-12	620.143E-3	-15.7932E-3	146.881E-12	669.331E-3	-14.9095E-3
3.67934E-3	143.045E-12	630.260E-3	-37.7054E-3	146.757E-12	683.551E-3	9.66677E-3
3.67434E-3	142.458E-12	624.867E-3	-41.0809E-3	146.624E-12	671.735E-3	-5.02721E-3
3.66933E-3	142.362E-12	616.265E-3	-38.8650E-3	146.246E-12	642.822E-3	-33.6881E-3
3.66433E-3	142.810E-12	610.254E-3	-49.4133E-3	145.975E-12	615.654E-3	-40.0640E-3
3.65933E-3	142.522E-12	596.022E-3	-62.8877E-3	145.105E-12	609.759E-3	-46.4793E-3
3.65433E-3	142.387E-12	582.579E-3	-58.5037E-3	143.977E-12	604.582E-3	-62.1538E-3
3.64932E-3	141.906E-12	589.224E-3	-34.7896E-3	143.227E-12	603.731E-3	-56.4648E-3
3.64432E-3	142.704E-12	602.445E-3	-18.7512E-3	142.324E-12	633.818E-3	-40.0508E-3
3.63932E-3	143.157E-12	613.478E-3	-21.0828E-3	142.089E-12	647.231E-3	-34.3290E-3
3.63432E-3	143.271E-12	623.925E-3	-30.1793E-3	141.929E-12	627.952E-3	-15.0148E-3
3.62931E-3	143.547E-12	635.809E-3	-23.2006E-3	141.095E-12	628.073E-3	6.39981E-3
3.62431E-3	143.635E-12	646.343E-3	-4.89645E-3	140.419E-12	628.956E-3	5.40152E-3
3.61931E-3	143.691E-12	639.286E-3	-7.55752E-3	140.546E-12	621.669E-3	-3.99967E-3
3.61431E-3	143.114E-12	637.542E-3	-16.7230E-3	140.454E-12	625.263E-3	-12.8578E-3
3.60930E-3	143.397E-12	646.571E-3	-21.6694E-3	140.439E-12	606.008E-3	-27.0390E-3
3.60430E-3	141.815E-12	648.911E-3	-28.9905E-3	140.623E-12	581.179E-3	-24.4489E-3
3.59930E-3	140.049E-12	657.111E-3	-34.6594E-3	140.267E-12	597.378E-3	-1.71040E-3
3.59430E-3	140.007E-12	658.085E-3	-19.4085E-3	141.094E-12	624.633E-3	2.70281E-3
3.58929E-3	139.718E-12	647.778E-3	5.23559E-3	141.558E-12	640.965E-3	1.52966E-3
3.58429E-3	138.984E-12	646.609E-3	13.6458E-3	141.323E-12	650.468E-3	-10.4726E-3
3.57929E-3	138.038E-12	641.877E-3	-1.72094E-3	141.608E-12	646.288E-3	-31.3810E-3
3.57429E-3	138.091E-12	621.519E-3	-37.0574E-3	141.982E-12	639.817E-3	-24.0499E-3
3.56928E-3	138.101E-12	614.840E-3	-66.9256E-3	141.742E-12	630.619E-3	-10.4056E-3
3.56428E-3	138.895E-12	621.460E-3	-60.0380E-3	140.992E-12	628.437E-3	-13.6370E-3
3.55928E-3	138.347E-12	629.515E-3	-21.0479E-3	141.022E-12	640.934E-3	-20.0658E-3
3.55428E-3	139.725E-12	630.904E-3	-1.43854E-3	139.967E-12	657.295E-3	-11.4674E-3
3.54927E-3	139.472E-12	609.547E-3	-3.51692E-3	139.101E-12	654.905E-3	-1.65274E-3
3.54427E-3	139.842E-12	596.876E-3	-7.58841E-3	138.361E-12	631.951E-3	-11.1237E-3
3.53927E-3	139.495E-12	621.314E-3	-19.5945E-3	137.680E-12	623.783E-3	-11.2788E-3
3.53427E-3	140.563E-12	643.384E-3	-14.4348E-3	136.472E-12	619.620E-3	646.528E-6
3.52926E-3	139.981E-12	642.729E-3	11.1408E-3	136.256E-12	601.622E-3	1.14001E-3
3.52426E-3	139.737E-12	650.528E-3	1.97069E-3	136.231E-12	596.223E-3	-1.03527E-3
3.51926E-3	139.248E-12	663.935E-3	-12.6519E-3	135.274E-12	604.157E-3	-14.9764E-3
3.51426E-3	138.454E-12	662.549E-3	-1.18815E-3	134.496E-12	601.113E-3	-34.9215E-3
3.50925E-3	138.205E-12	656.744E-3	-14.8602E-3	135.195E-12	596.196E-3	-29.4087E-3
3.50425E-3	137.794E-12	653.142E-3	-22.0676E-3	134.832E-12	608.840E-3	-2.84269E-3
3.49925E-3	136.378E-12	638.592E-3	-8.09862E-3	134.663E-12	618.055E-3	16.7935E-3
3.49425E-3	136.200E-12	630.861E-3	-19.0596E-3	134.284E-12	620.099E-3	23.8739E-3
3.48924E-3	136.182E-12	645.181E-3	-27.9426E-3	134.570E-12	643.946E-3	13.4771E-3
3.48424E-3	136.149E-12	643.259E-3	-24.1657E-3	135.005E-12	659.057E-3	-12.7092E-3
3.47924E-3	135.806E-12	630.807E-3	-29.9695E-3	135.328E-12	653.889E-3	-29.2050E-3
3.47424E-3	135.330E-12	640.392E-3	-30.8785E-3	135.303E-12	644.420E-3	-26.2053E-3
3.46923E-3	135.390E-12	655.092E-3	-30.9900E-3	134.992E-12	621.172E-3	-19.1093E-3
3.46423E-3	135.199E-12	651.597E-3	-39.5618E-3	135.517E-12	623.107E-3	-24.4715E-3
3.45923E-3	135.323E-12	640.882E-3	-36.6840E-3	135.425E-12	653.517E-3	-35.3910E-3
3.45423E-3	134.389E-12	626.531E-3	-30.9821E-3	135.450E-12	656.174E-3	-35.2682E-3
3.44922E-3	134.177E-12	609.087E-3	-32.3820E-3	134.595E-12	632.153E-3	-16.5008E-3
3.44422E-3	134.539E-12	616.739E-3	-23.4007E-3	133.714E-12	617.700E-3	-195.635E-6
3.43922E-3	133.870E-12	634.769E-3	-7.23670E-3	133.740E-12	615.277E-3	-21.0596E-3
3.43422E-3	133.195E-12	638.619E-3	2.15261E-3	133.149E-12	631.187E-3	-52.7001E-3
3.42921E-3	132.929E-12	654.676E-3	2.33948E-3	132.192E-12	647.599E-3	-55.7308E-3
3.42421E-3	132.605E-12	668.310E-3	5.05755E-6	130.848E-12	626.822E-3	-48.7915E-3
3.41921E-3	132.369E-12	649.597E-3	-8.88218E-3	130.934E-12	591.033E-3	-26.9130E-3
3.41421E-3	131.806E-12	630.043E-3	-16.0537E-3	130.855E-12	591.856E-3	2.57000E-3
3.40920E-3	131.441E-12	626.780E-3	-12.4052E-3	130.243E-12	626.248E-3	-12.3908E-3
3.40420E-3	130.747E-12	625.085E-3	-16.1729E-3	129.879E-12	639.825E-3	-38.4252E-3
3.39920E-3	130.848E-12	622.671E-3	-14.9744E-3	130.129E-12	633.416E-3	-30.2412E-3
3.39420E-3	130.376E-12	616.706E-3	-4.32673E-3	131.098E-12	635.638E-3	-24.1316E-3
3.38919E-3	129.764E-12	603.225E-3	-10.9916E-3	131.255E-12	628.054E-3	-34.7418E-3
3.38419E-3	129.982E-12	606.616E-3	-29.1835E-3	131.576E-12	613.849E-3	-48.3360E-3
3.37919E-3	129.538E-12	624.875E-3	-41.3384E-3	132.195E-12	616.026E-3	-67.2077E-3
3.37419E-3	129.658E-12	625.372E-3	-47.6674E-3	132.602E-12	624.450E-3	-75.7763E-3
3.36918E-3	129.639E-12	614.735E-3	-44.8323E-3	133.622E-12	632.177E-3	-49.7843E-3
3.36418E-3	129.318E-12	611.015E-3	-33.6316E-3	133.810E-12	646.117E-3	-19.4743E-3
3.35918E-3	129.246E-12	614.377E-3	-29.6593E-3	132.998E-12	655.579E-3	-23.0199E-3
3.35418E-3	129.121E-12	620.860E-3	-40.5022E-3	132.837E-12	666.220E-3	-28.6578E-3
3.34917E-3	128.915E-12	633.679E-3	-40.1255E-3	133.064E-12	687.381E-3	-17.2410E-3
3.34417E-3	128.160E-12	645.643E-3	-19.3911E-3	133.249E-12	675.384E-3	-10.7877E-3
3.33917E-3	128.236E-12	650.752E-3	-10.1226E-3	131.394E-12	643.856E-3	-27.3725E-3
3.33417E-3	128.023E-12	641.111E-3	-21.2233E-3	130.994E-12	638.719E-3	-44.7226E-3
3.32916E-3	128.461E-12	630.526E-3	-32.9511E-3	129.863E-12	638.944E-3	-47.8821E-3
3.32416E-3	128.075E-12	621.189E-3	-31.1428E-3	129.927E-12	628.888E-3	-53.7689E-3
3.31916E-3	128.208E-12	615.729E-3	-29.2176E-3	128.895E-12	628.155E-3	-46.6032E-3
3.31416E-3	128.356E-12	620.707E-3	-28.4429E-3	128.014E-12	639.893E-3	-31.1309E-3
3.30915E-3	128.707E-12	624.757E-3	-25.4909E-3	127.890E-12	634.958E-3	-20.8672E-3
3.30415E-3	128.845E-12	639.328E-3	-33.9758E-3	127.711E-12	627.863E-3	-18.6205E-3
3.29915E-3	128.632E-12	642.155E-3	-34.5106E-3	127.814E-12	631.404E-3	-43.5014E-3
3.29415E-3	129.204E-12	629.507E-3	-23.6779E-3	127.031E-12	619.338E-3	-41.9775E-3
3.28914E-3	128.621E-12	635.154E-3	-9.65955E-3	126.868E-12	609.951E-3	9.04238E-3
3.28414E-3	127.794E-12	646.847E-3	3.79854E-3	127.868E-12	626.707E-3	18.0616E-3
3.27914E-3	128.388E-12	642.186E-3	6.47587E-3	128.486E-12	643.315E-3	-11.1571E-3
3.27414E-3	128.219E-12	635.579E-3	2.07931E-3	128.572E-12	665.876E-3	-12.6389E-3
3.26913E-3	127.749E-12	630.372E-3	-5.95374E-3	127.668E-12	682.959E-3	-955.480E-6
3.26413E-3	126.980E-12	639.808E-3	-9.32193E-3	128.335E-12	667.587E-3	-7.46793E-3
3.25913E-3	127.181E-12	659.115E-3	-12.1566E-3	127.756E-12	657.491E-3	-21.7540E-3
3.25413E-3	126.457E-12	662.450E-3	-14.1509E-3	127.856E-12	671.117E-3	-33.9425E-3
3.24912E-3	126.183E-12	652.680E-3	-14.1540E-3	127.744E-12	676.797E-3	-37.2540E-3
3.24412E-3	125.916E-12	640.836E-3	-22.9500E-3	127.477E-12	657.956E-3	-25.6005E-3
3.23912E-3	126.008E-12	644.194E-3	-24.9561E-3	126.043E-12	642.075E-3	-17.7862E-3
3.23412E-3	125.661E-12	649.812E-3	3.01216E-3	125.978E-12	628.243E-3	-13.8070E-3
3.22911E-3	126.034E-12	649.278E-3	19.3932E-3	125.539E-12	626.617E-3	-14.7206E-3
3.22411E-3	126.615E-12	649.924E-3	-6.68696E-3	124.515E-12	650.630E-3	-22.4770E-3
3.21911E-3	126.263E-12	653.356E-3	-24.0698E-3	123.552E-12	665.305E-3	-8.92610E-3
3.21411E-3	126.035E-12	655.695E-3	-17.9514E-3	123.056E-12	653.872E-3	1.38280E-3
3.20910E-3	125.718E-12	657.146E-3	-14.9524E-3	122.111E-12	616.374E-3	-19.4984E-3
3.20410E-3	125.607E-12	666.430E-3	-16.6424E-3	122.000E-12	600.265E-3	-30.2010E-3
3.19910E-3	125.074E-12	660.202E-3	-21.1444E-3	121.882E-12	625.635E-3	-24.4113E-3
3.19410E-3	123.908E-12	637.505E-3	-23.2036E-3	121.325E-12	653.757E-3	-22.1554E-3
3.18909E-3	123.420E-12	626.641E-3	-15.1223E-3	120.817E-12	659.976E-3	-22.7337E-3
3.18409E-3	122.669E-12	640.714E-3	-710.231E-6	121.199E-12	646.337E-3	-31.7213E-3
3.17909E-3	122.181E-12	661.561E-3	-2.67334E-3	121.128E-12	640.403E-3	-43.7607E-3
3.17409E-3	121.585E-12	659.846E-3	-12.7971E-3	121.463E-12	647.062E-3	-39.8797E-3
3.16908E-3	120.580E-12	651.131E-3	-18.8643E-3	121.347E-12	653.221E-3	-13.8252E-3
3.16408E-3	120.165E-12	635.345E-3	-27.4423E-3	122.070E-12	654.481E-3	-4.58341E-3
3.15908E-3	119.858E-12	603.277E-3	-20.2814E-3	122.212E-12	645.728E-3	-30.9592E-3
3.15408E-3	119.918E-12	594.805E-3	-22.1573E-3	122.798E-12	633.520E-3	-51.4350E-3
3.14907E-3	119.724E-12	615.309E-3	-34.0562E-3	122.783E-12	638.342E-3	-45.5058E-3
3.14407E-3	119.691E-12	624.293E-3	-20.5789E-3	122.552E-12	633.495E-3	-36.8824E-3
3.13907E-3	119.789E-12	621.355E-3	-10.5093E-3	122.479E-12	613.511E-3	-31.4428E-3
3.13407E-3	120.674E-12	635.693E-3	-4.15901E-3	121.439E-12	606.526E-3	-24.7238E-3
3.12906E-3	121.098E-12	657.293E-3	5.18654E-3	121.165E-12	617.498E-3	-29.2927E-3
3.12406E-3	121.081E-12	651.081E-3	-16.8813E-3	120.910E-12	644.424E-3	-24.6365E-3
3.11906E-3	121.260E-12	633.613E-3	-36.2872E-3	120.184E-12	656.001E-3	-1.80048E-3
3.11406E-3	121.428E-12	628.390E-3	-20.5368E-3	119.027E-12	636.686E-3	11.0404E-3
3.10905E-3	121.275E-12	627.375E-3	-14.6066E-3	118.425E-12	619.262E-3	9.91507E-3
3.10405E-3	120.138E-12	645.564E-3	-24.0139E-3	117.465E-12	623.362E-3	10.3402E-3
3.09905E-3	119.809E-12	673.638E-3	-31.2667E-3	117.186E-12	631.002E-3	4.33395E-3
3.09405E-3	119.444E-12	671.748E-3	-33.7388E-3	116.864E-12	632.185E-3	3.51978E-3
3.08904E-3	119.228E-12	656.980E-3	-21.5172E-3	116.801E-12	633.371E-3	-1.50953E-3
3.08404E-3	118.834E-12	657.785E-3	-7.42057E-3	116.655E-12	634.902E-3	-21.1507E-3
3.07904E-3	117.655E-12	658.915E-3	1.53441E-3	116.775E-12	629.028E-3	-24.4072E-3
3.07404E-3	117.493E-12	646.209E-3	-11.6324E-3	117.333E-12	629.576E-3	-24.9300E-3
3.06903E-3	116.684E-12	637.986E-3	-36.7011E-3	117.909E-12	642.874E-3	-21.8875E-3
3.06403E-3	116.147E-12	643.920E-3	-26.2301E-3	118.269E-12	645.182E-3	3.88107E-3
3.05903E-3	115.811E-12	651.959E-3	8.01780E-3	118.410E-12	637.984E-3	12.3091E-3
3.05403E-3	115.639E-12	666.812E-3	11.8915E-3	119.087E-12	644.618E-3	-10.6261E-3
3.04902E-3	115.563E-12	665.268E-3	-19.9195E-3	119.222E-12	653.441E-3	-13.4095E-3
3.04402E-3	115.544E-12	643.238E-3	-57.1896E-3	118.794E-12	660.670E-3	-2.49055E-3
3.03902E-3	115.703E-12	632.586E-3	-57.5704E-3	118.624E-12	652.807E-3	-4.23461E-3
3.03402E-3	115.394E-12	622.224E-3	-17.9934E-3	118.214E-12	628.311E-3	-12.5477E-3
3.02901E-3	116.201E-12	608.893E-3	5.30015E-3	117.436E-12	632.196E-3	-11.2043E-3
3.02401E-3	116.412E-12	621.044E-3	3.13172E-3	116.346E-12	653.241E-3	6.30353E-3
3.01901E-3	115.838E-12	642.673E-3	529.584E-6	116.611E-12	660.292E-3	7.42822E-3
3.01401E-3	115.683E-12	642.847E-3	-9.59693E-3	115.348E-12	653.428E-3	-11.1963E-3
3.00900E-3	115.336E-12	641.544E-3	-28.5207E-3	114.996E-12	654.625E-3	-24.3065E-3
3.00400E-3	115.123E-12	650.930E-3	-39.3450E-3	114.305E-12	657.825E-3	-16.7230E-3
2.99900E-3	114.675E-12	653.486E-3	-48.4830E-3	113.836E-12	644.471E-3	4.66735E-3
2.99400E-3	114.743E-12	654.190E-3	-46.9900E-3	113.159E-12	642.830E-3	7.97235E-3
2.98899E-3	113.909E-12	663.601E-3	-32.4750E-3	113.110E-12	645.167E-3	-15.0705E-3
2.98399E-3	113.927E-12	663.822E-3	-11.5774E-3	113.439E-12	639.567E-3	-31.9466E-3
2.97899E-3	113.160E-12	663.694E-3	-4.81310E-3	113.597E-12	642.951E-3	-29.8075E-3
2.97399E-3	113.333E-12	654.198E-3	-20.4700E-3	113.423E-12	632.747E-3	-36.5920E-3
2.96898E-3	112.420E-12	632.570E-3	-31.2382E-3	113.993E-12	628.494E-3	-40.2493E-3
2.96398E-3	112.301E-12	643.652E-3	-37.8699E-3	114.179E-12	653.998E-3	-14.0662E-3
2.95898E-3	112.127E-12	657.091E-3	-20.3833E-3	114.429E-12	663.446E-3	3.68958E-3
2.95398E-3	112.112E-12	633.177E-3	3.14160E-3	114.411E-12	658.598E-3	-14.8048E-3
2.94897E-3	112.532E-12	632.639E-3	-1.54986E-3	114.571E-12	678.998E-3	-34.9455E-3
2.94397E-3	112.291E-12	666.084E-3	-3.30546E-3	114.467E-12	699.615E-3	-22.2685E-3
2.93897E-3	111.646E-12	667.248E-3	-4.52857E-3	114.367E-12	695.285E-3	-5.20969E-3
2.93397E-3	111.847E-12	652.006E-3	-18.5477E-3	114.115E-12	685.401E-3	-11.5179E-3
2.92896E-3	112.551E-12	657.818E-3	-22.3737E-3	113.981E-12	661.608E-3	-13.9169E-3
2.92396E-3	112.193E-12	658.948E-3	-15.5049E-3	113.301E-12	629.188E-3	816.922E-6
2.91896E-3	111.347E-12	638.980E-3	-22.3013E-3	112.497E-12	624.767E-3	14.9591E-3
2.91396E-3	112.053E-12	627.901E-3	-40.8083E-3	111.890E-12	652.499E-3	11.7311E-3
2.90895E-3	112.542E-12	631.146E-3	-32.4464E-3	111.083E-12	656.952E-3	4.45671E-3
2.90395E-3	112.354E-12	635.968E-3	-5.24562E-3	110.287E-12	634.843E-3	-2.59729E-3
2.89895E-3	112.413E-12	650.802E-3	-2.78698E-3	109.974E-12	627.239E-3	-21.5352E-3
2.89395E-3	112.451E-12	654.974E-3	-5.53469E-3	108.819E-12	634.601E-3	-34.4653E-3
2.88894E-3	112.307E-12	642.134E-3	2.66653E-3	108.754E-12	662.387E-3	-23.6264E-3
2.88394E-3	111.630E-12	652.233E-3	6.49849E-3	108.432E-12	684.546E-3	-13.7153E-3
2.87894E-3	111.881E-12	655.247E-3	3.85276E-3	108.517E-12	681.214E-3	-16.5815E-3
2.87394E-3	111.781E-12	642.580E-3	-1.55913E-3	108.404E-12	669.516E-3	-11.2205E-3
2.86893E-3	111.015E-12	660.350E-3	5.28829E-3	108.381E-12	660.600E-3	-9.49379E-3
2.86393E-3	110.092E-12	667.748E-3	19.0203E-3	108.021E-12	658.299E-3	-17.4304E-3
2.85893E-3	109.488E-12	637.060E-3	15.4050E-3	108.456E-12	658.356E-3	-26.7821E-3
2.85393E-3	109.013E-12	615.503E-3	2.44277E-3	108.450E-12	665.915E-3	-44.2439E-3
2.84892E-3	107.901E-12	624.602E-3	-918.936E-6	108.455E-12	672.202E-3	-69.2802E-3
2.84392E-3	106.995E-12	624.088E-3	-10.6318E-3	108.232E-12	663.656E-3	-72.0687E-3
2.83892E-3	106.789E-12	609.966E-3	-32.5054E-3	108.563E-12	660.264E-3	-37.3278E-3
2.83392E-3	106.074E-12	614.686E-3	-37.4359E-3	108.776E-12	664.215E-3	-10.0328E-3
2.82891E-3	106.437E-12	640.589E-3	-17.4617E-3	108.515E-12	667.788E-3	-3.72427E-3
2.82391E-3	105.786E-12	670.359E-3	4.48909E-3	108.519E-12	668.632E-3	-10.1795E-3
2.81891E-3	105.966E-12	669.176E-3	11.6782E-3	107.971E-12	658.345E-3	-10.6148E-3
2.81391E-3	105.886E-12	634.233E-3	2.19105E-3	107.716E-12	653.581E-3	11.8323E-3
2.80890E-3	106.487E-12	610.962E-3	-8.00507E-3	107.256E-12	663.842E-3	17.5487E-3
2.80390E-3	106.203E-12	631.808E-3	-1.66161E-3	106.593E-12	659.320E-3	1.39833E-3
2.79890E-3	106.204E-12	653.067E-3	7.41516E-3	105.852E-12	640.420E-3	-11.4461E-3
2.79390E-3	106.212E-12	646.747E-3	-10.7414E-3	105.527E-12	644.736E-3	-15.3841E-3
2.78889E-3	106.830E-12	649.176E-3	-35.9571E-3	104.705E-12	660.612E-3	-19.4639E-3
2.78389E-3	106.575E-12	638.714E-3	-29.8489E-3	104.389E-12	656.816E-3	-25.6104E-3
2.77889E-3	106.167E-12	618.899E-3	-21.4089E-3	104.531E-12	660.774E-3	-18.2325E-3
2.77389E-3	105.576E-12	648.352E-3	-21.4965E-3	103.466E-12	683.878E-3	-12.8825E-3
2.76888E-3	105.313E-12	677.471E-3	-14.0275E-3	103.280E-12	697.442E-3	-7.78757E-3
2.76388E-3	104.367E-12	679.446E-3	-12.4832E-3	103.715E-12	694.784E-3	1.53255E-3
2.75888E-3	103.288E-12	684.890E-3	-18.7973E-3	103.272E-12	681.843E-3	-9.08449E-3
2.75388E-3	102.740E-12	669.731E-3	-19.6388E-3	103.721E-12	655.276E-3	-14.9752E-3
2.74887E-3	102.145E-12	660.134E-3	-21.7348E-3	103.730E-12	633.357E-3	-4.82979E-3
2.74387E-3	101.586E-12	666.786E-3	-21.8235E-3	103.931E-12	648.525E-3	-3.56766E-3
2.73887E-3	100.711E-12	650.553E-3	-9.61615E-3	103.954E-12	664.669E-3	-7.27035E-3
2.73387E-3	100.405E-12	627.289E-3	-18.5279E-3	104.339E-12	664.506E-3	-9.35179E-3
2.72886E-3	100.446E-12	641.745E-3	-32.6357E-3	104.354E-12	672.579E-3	-15.3781E-3
2.72386E-3	100.461E-12	660.559E-3	-12.6188E-3	104.343E-12	673.254E-3	-18.7843E-3
2.71886E-3	100.920E-12	645.919E-3	-6.73891E-3	104.359E-12	666.146E-3	-17.9268E-3
2.71386E-3	100.743E-12	634.335E-3	-48.5431E-3	104.073E-12	672.196E-3	-16.4945E-3
2.70885E-3	101.163E-12	637.920E-3	-67.4632E-3	103.435E-12	675.310E-3	-9.27297E-3
2.70385E-3	101.235E-12	649.265E-3	-37.5656E-3	102.517E-12	653.297E-3	2.54054E-3
2.69885E-3	102.073E-12	655.333E-3	-17.0595E-3	101.912E-12	628.309E-3	-8.12255E-3
2.69385E-3	102.690E-12	644.319E-3	-13.8276E-3	101.043E-12	625.958E-3	-31.0677E-3
2.68884E-3	102.614E-12	640.515E-3	-15.7761E-3	100.173E-12	636.453E-3	-25.0802E-3
2.68384E-3	102.512E-12	652.631E-3	-33.1639E-3	99.4141E-12	635.859E-3	-10.5311E-3
2.67884E-3	102.708E-12	657.934E-3	-37.4900E-3	98.9544E-12	627.464E-3	-13.7177E-3
2.67384E-3	102.547E-12	662.461E-3	-15.6133E-3	98.5053E-12	630.279E-3	-21.9233E-3
2.66883E-3	102.226E-12	672.530E-3	-9.50223E-3	97.9328E-12	642.905E-3	-26.8484E-3
2.66383E-3	102.454E-12	677.356E-3	-22.4410E-3	97.6994E-12	645.811E-3	-24.6302E-3
2.65883E-3	101.914E-12	673.217E-3	-32.4725E-3	97.7205E-12	647.718E-3	-1.45735E-3
2.65383E-3	101.021E-12	677.072E-3	-31.7128E-3	98.4677E-12	661.020E-3	10.0706E-3
2.64882E-3	100.435E-12	693.173E-3	-25.3145E-3	98.3271E-12	683.993E-3	-9.97116E-3
2.64382E-3	99.8344E-12	689.674E-3	-29.6559E-3	98.7427E-12	707.632E-3	-18.8679E-3
2.63882E-3	99.5087E-12	665.124E-3	-41.2620E-3	99.1766E-12	707.588E-3	7.89418E-3
2.63382E-3	98.8709E-12	649.619E-3	-43.0374E-3	100.232E-12	700.213E-3	24.4199E-3
2.62881E-3	98.1796E-12	648.814E-3	-28.9750E-3	100.230E-12	696.035E-3	8.75395E-3
2.62381E-3	98.1372E-12	656.843E-3	-21.9237E-3	100.417E-12	682.070E-3	1.76396E-3
2.61881E-3	99.0082E-12	677.688E-3	-32.6911E-3	100.371E-12	682.822E-3	-6.67433E-3
2.61381E-3	98.7597E-12	686.651E-3	-37.7923E-3	100.030E-12	696.054E-3	-4.08936E-3
2.60880E-3	97.8642E-12	674.523E-3	-27.9819E-3	99.3570E-12	690.339E-3	15.0400E-3
2.60380E-3	97.5305E-12	668.207E-3	-29.7809E-3	98.8098E-12	673.291E-3	18.8707E-3
2.59880E-3	98.2563E-12	668.325E-3	-40.8568E-3	97.8631E-12	656.037E-3	14.9065E-3
2.59380E-3	97.9713E-12	676.561E-3	-39.6180E-3	96.2842E-12	653.615E-3	14.0056E-3
2.58879E-3	97.6995E-12	695.209E-3	-22.4740E-3	95.6668E-12	661.983E-3	12.3274E-3
2.58379E-3	97.3257E-12	680.936E-3	-12.5798E-3	95.5434E-12	659.038E-3	8.31956E-3
2.57879E-3	97.5003E-12	653.076E-3	-19.4048E-3	94.5101E-12	660.083E-3	7.34785E-3
2.57379E-3	97.7056E-12	670.370E-3	-11.7532E-3	93.8397E-12	666.871E-3	1.27871E-3
2.56878E-3	97.1482E-12	688.952E-3	-660.374E-6	93.7054E-12	660.745E-3	-14.2601E-3
2.56378E-3	96.5935E-12	682.414E-3	-24.5287E-3	93.8666E-12	664.331E-3	-20.0128E-3
2.55878E-3	95.6870E-12	687.123E-3	-49.2781E-3	93.3338E-12	690.286E-3	-2.47345E-3
2.55378E-3	95.8367E-12	682.964E-3	-35.0979E-3	93.7719E-12	700.643E-3	9.21174E-3
2.54877E-3	95.7375E-12	660.957E-3	-23.7174E-3	94.0043E-12	684.887E-3	2.82877E-3
2.54377E-3	95.3530E-12	661.279E-3	-29.5008E-3	94.8262E-12	683.327E-3	5.20524E-3
2.53877E-3	94.1035E-12	673.794E-3	-26.9116E-3	95.1758E-12	695.733E-3	7.49708E-3
2.53377E-3	94.3962E-12	682.487E-3	-23.0762E-3	95.5551E-12	695.037E-3	-5.59998E-3
2.52876E-3	94.7272E-12	683.415E-3	-23.0541E-3	95.8013E-12	689.533E-3	-18.7716E-3
2.52376E-3	94.0603E-12	669.569E-3	-11.5278E-3	95.9924E-12	683.661E-3	-31.8181E-3
2.51876E-3	93.1051E-12	662.949E-3	-473.554E-6	96.2833E-12	668.169E-3	-48.5272E-3
2.51376E-3	92.5823E-12	678.779E-3	-13.0120E-3	95.8686E-12	656.078E-3	-45.9956E-3
2.50875E-3	92.6092E-12	689.902E-3	-36.7411E-3	95.5775E-12	648.571E-3	-25.1906E-3
2.50375E-3	92.8645E-12	670.786E-3	-42.2851E-3	94.8678E-12	644.862E-3	-2.88061E-3
2.49875E-3	92.5643E-12	653.577E-3	-31.6524E-3	94.8183E-12	654.573E-3	5.22134E-3
2.49375E-3	91.6324E-12	664.420E-3	-22.4687E-3	94.0467E-12	661.012E-3	1.12823E-3
2.48874E-3	91.3797E-12	686.488E-3	-15.5604E-3	92.5083E-12	658.110E-3	-5.25878E-3
2.48374E-3	92.1299E-12	676.913E-3	-12.7310E-3	91.6832E-12	663.975E-3	-10.4976E-3
2.47874E-3	92.7425E-12	642.200E-3	628.383E-6	91.8194E-12	680.977E-3	-5.46379E-3
2.47374E-3	91.6852E-12	642.635E-3	16.4042E-3	91.6275E-12	693.187E-3	-2.23409E-3
2.46873E-3	91.6583E-12	656.476E-3	14.0119E-3	90.5221E-12	696.982E-3	-13.4990E-3
2.46373E-3	92.4465E-12	663.701E-3	462.341E-6	89.9426E-12	697.949E-3	-23.8356E-3
2.45873E-3	92.8112E-12	668.290E-3	-13.6483E-3	90.2806E-12	681.223E-3	-22.3988E-3
2.45373E-3	92.2384E-12	661.942E-3	-12.8871E-3	90.4695E-12	653.839E-3	-4.87178E-3
2.44872E-3	91.6584E-12	680.920E-3	8.53361E-3	90.0361E-12	647.640E-3	16.2541E-3
2.44372E-3	91.7308E-12	715.342E-3	23.1030E-3	89.6380E-12	663.509E-3	7.82208E-3
2.43872E-3	91.7656E-12	712.180E-3	1.77315E-3	90.0243E-12	690.947E-3	-19.8511E-3
2.43372E-3	91.4111E-12	683.744E-3	-20.9112E-3	89.7880E-12	708.978E-3	-27.4648E-3
2.42871E-3	90.4768E-12	673.253E-3	-15.2020E-3	90.3470E-12	698.718E-3	-3.03346E-3
2.42371E-3	89.9552E-12	682.842E-3	-7.44073E-3	90.2161E-12	689.236E-3	15.1717E-3
2.41871E-3	89.5103E-12	705.822E-3	-15.8449E-3	90.1066E-12	696.483E-3	-6.05972E-3
2.41371E-3	89.0163E-12	715.541E-3	-30.4985E-3	89.8590E-12	699.613E-3	-34.8653E-3
2.40870E-3	88.1746E-12	699.331E-3	-34.1556E-3	90.3741E-12	695.123E-3	-33.5244E-3
2.40370E-3	87.9121E-12	690.697E-3	-22.2782E-3	89.8982E-12	694.328E-3	-15.2028E-3
2.39870E-3	87.5536E-12	680.965E-3	-7.37174E-3	89.4082E-12	693.589E-3	-18.4526E-3
2.39370E-3	87.5603E-12	663.830E-3	-13.4895E-3	88.8385E-12	686.667E-3	-29.5679E-3
2.38869E-3	87.3036E-12	656.881E-3	-24.0822E-3	88.5598E-12	680.088E-3	-35.8406E-3
2.38369E-3	86.8682E-12	652.677E-3	-19.4326E-3	88.3494E-12	674.150E-3	-39.2760E-3
2.37869E-3	86.5999E-12	652.632E-3	-15.5796E-3	87.0303E-12	664.409E-3	-19.6687E-3
2.37369E-3	86.7350E-12	667.389E-3	-23.2714E-3	86.4419E-12	656.977E-3	1.33827E-3
2.36868E-3	87.5422E-12	679.508E-3	-20.6022E-3	85.8395E-12	649.377E-3	-4.22564E-3
2.36368E-3	87.1895E-12	671.373E-3	-13.7243E-3	85.8041E-12	655.320E-3	-10.2653E-3
2.35868E-3	87.3127E-12	669.910E-3	-26.4683E-3	84.8085E-12	681.621E-3	-3.65017E-3
2.35368E-3	87.0456E-12	688.570E-3	-20.2230E-3	84.0760E-12	697.040E-3	-9.37082E-3
2.34867E-3	87.2298E-12	695.554E-3	1.17709E-3	83.9986E-12	690.305E-3	-10.3793E-3
2.34367E-3	86.4373E-12	693.280E-3	-7.64137E-3	83.8733E-12	683.904E-3	7.16026E-3
2.33867E-3	86.3268E-12	697.129E-3	-17.8767E-3	83.3899E-12	678.280E-3	8.38988E-3
2.33367E-3	86.2379E-12	689.795E-3	-5.82744E-3	83.2299E-12	663.879E-3	-15.8153E-3
2.32866E-3	85.7278E-12	689.808E-3	1.42604E-3	83.4774E-12	674.109E-3	-28.3535E-3
2.32366E-3	85.3790E-12	704.369E-3	-268.660E-6	83.4071E-12	700.097E-3	-17.5766E-3
2.31866E-3	85.0982E-12	699.832E-3	-5.56072E-3	84.2822E-12	708.675E-3	-9.32815E-3
2.31366E-3	84.0966E-12	686.114E-3	-19.2079E-3	84.6426E-12	722.315E-3	-11.1992E-3
2.30865E-3	83.4936E-12	688.594E-3	-20.8971E-3	85.2421E-12	731.962E-3	-11.6621E-3
2.30365E-3	83.4012E-12	691.236E-3	-9.75627E-3	85.3007E-12	716.400E-3	-4.19157E-3
2.29865E-3	83.1179E-12	682.299E-3	-12.8666E-3	85.8361E-12	704.457E-3	3.94022E-3
2.29365E-3	82.5150E-12	686.767E-3	-14.9050E-3	86.1257E-12	695.622E-3	7.39469E-3
2.28864E-3	82.8341E-12	699.683E-3	-11.6871E-3	85.0029E-12	681.125E-3	5.21178E-3
2.28364E-3	83.0563E-12	701.587E-3	-23.8641E-3	84.6460E-12	688.613E-3	-5.51032E-3
2.27864E-3	82.7936E-12	706.488E-3	-21.2224E-3	84.1509E-12	695.293E-3	-18.8356E-3
2.27364E-3	82.9564E-12	701.477E-3	357.971E-6	83.8239E-12	684.174E-3	-19.0466E-3
2.26863E-3	82.6263E-12	700.063E-3	-724.583E-6	82.6246E-12	684.953E-3	-6.25529E-3
2.26363E-3	82.9448E-12	725.793E-3	-8.82726E-3	81.4781E-12	688.796E-3	1.49576E-3
2.25863E-3	82.5728E-12	741.011E-3	-7.97503E-3	80.8995E-12	681.476E-3	-327.035E-6
2.25363E-3	82.7276E-12	729.532E-3	-17.9453E-3	80.2323E-12	678.872E-3	-14.7918E-3
2.24862E-3	82.1574E-12	709.369E-3	-20.7617E-3	79.6344E-12	677.933E-3	-30.2200E-3
2.24362E-3	82.1021E-12	687.907E-3	-3.65556E-3	78.7776E-12	669.007E-3	-25.2609E-3
2.23862E-3	81.5479E-12	684.112E-3	1.20116E-3	79.0223E-12	661.689E-3	-25.3960E-3
2.23362E-3	81.0618E-12	698.529E-3	-12.5087E-3	78.6719E-12	671.703E-3	-29.4101E-3
2.22861E-3	80.3531E-12	701.844E-3	-16.9142E-3	79.2010E-12	690.308E-3	-10.3775E-3
2.22361E-3	80.2766E-12	702.193E-3	-16.2500E-3	79.1545E-12	700.211E-3	14.2466E-3
2.21861E-3	79.6352E-12	718.656E-3	-13.4366E-3	79.8950E-12	711.205E-3	14.9042E-3
2.21361E-3	78.8165E-12	722.164E-3	-1.40784E-3	80.1475E-12	720.615E-3	-2.94822E-3
2.20860E-3	78.4687E-12	706.262E-3	-14.5682E-3	80.5912E-12	726.592E-3	-22.0861E-3
2.20360E-3	78.8790E-12	712.839E-3	-34.5311E-3	80.9441E-12	735.955E-3	-38.0362E-3
2.19860E-3	78.3022E-12	719.623E-3	-30.4585E-3	81.2558E-12	733.820E-3	-38.3608E-3
2.19360E-3	77.9664E-12	705.078E-3	-25.4920E-3	81.2708E-12	728.500E-3	-28.8260E-3
2.18859E-3	78.0218E-12	706.850E-3	-22.2987E-3	80.9146E-12	737.734E-3	-28.7468E-3
2.18359E-3	78.4862E-12	715.012E-3	-20.3376E-3	80.2675E-12	740.406E-3	-32.3865E-3
2.17859E-3	78.1984E-12	713.850E-3	-22.8623E-3	79.5610E-12	738.597E-3	-38.1767E-3
2.17359E-3	77.3511E-12	712.846E-3	-21.1358E-3	79.0065E-12	732.598E-3	-39.8787E-3
2.16858E-3	77.0352E-12	717.068E-3	-10.7908E-3	78.2516E-12	710.720E-3	-30.2356E-3
2.16358E-3	76.9035E-12	722.700E-3	1.01139E-3	77.4962E-12	697.396E-3	-27.2494E-3
2.15858E-3	76.7323E-12	711.012E-3	-12.9603E-3	76.7555E-12	695.622E-3	-36.1159E-3
2.15358E-3	76.3322E-12	702.621E-3	-31.5791E-3	75.6577E-12	693.096E-3	-44.1185E-3
2.14857E-3	75.6564E-12	701.283E-3	-18.5536E-3	75.5981E-12	699.413E-3	-41.4993E-3
2.14357E-3	75.0323E-12	699.911E-3	-10.5012E-3	75.1032E-12	720.973E-3	-31.4706E-3
2.13857E-3	75.1598E-12	705.244E-3	-14.8829E-3	74.7699E-12	734.690E-3	-35.4824E-3
2.13357E-3	75.0753E-12	695.397E-3	-12.9238E-3	74.5510E-12	730.123E-3	-39.6973E-3
2.12856E-3	74.6817E-12	686.293E-3	-15.0913E-3	74.8776E-12	735.671E-3	-24.3676E-3
2.12356E-3	74.1420E-12	698.279E-3	-17.5935E-3	75.2426E-12	742.037E-3	-6.01147E-3
2.11856E-3	74.3438E-12	706.985E-3	-22.4218E-3	75.2355E-12	729.332E-3	1.16308E-3
2.11356E-3	74.6055E-12	704.922E-3	-27.7910E-3	75.6911E-12	719.979E-3	-380.013E-6
2.10855E-3	74.9203E-12	711.291E-3	-23.5545E-3	75.4511E-12	722.526E-3	-1.44177E-3
2.10355E-3	74.4292E-12	716.685E-3	-16.1182E-3	75.3139E-12	726.922E-3	-6.56322E-3
2.09855E-3	73.8366E-12	705.525E-3	-13.4871E-3	75.3853E-12	730.116E-3	-12.6622E-3
2.09355E-3	73.9692E-12	697.004E-3	-2.72203E-3	75.3082E-12	723.724E-3	-12.0666E-3
2.08854E-3	74.2806E-12	700.928E-3	13.9811E-3	75.1009E-12	705.281E-3	-21.5102E-3
2.08354E-3	73.7533E-12	710.792E-3	2.89222E-3	74.3258E-12	712.905E-3	-31.0404E-3
2.07854E-3	73.4669E-12	721.939E-3	-12.6050E-3	73.7966E-12	740.280E-3	-22.0916E-3
2.07354E-3	72.7838E-12	721.656E-3	-8.27574E-3	73.1609E-12	734.849E-3	-12.4975E-3
2.06853E-3	72.6656E-12	704.566E-3	-13.8009E-3	72.5358E-12	717.475E-3	-18.1483E-3
2.06353E-3	72.5235E-12	701.452E-3	-21.7764E-3	71.7623E-12	719.811E-3	-27.9816E-3
2.05853E-3	72.4466E-12	724.109E-3	-22.6080E-3	71.5525E-12	726.057E-3	-28.3875E-3
2.05353E-3	71.5311E-12	731.342E-3	-36.4805E-3	70.8241E-12	718.227E-3	-23.6753E-3
2.04852E-3	71.2927E-12	732.144E-3	-50.2227E-3	70.2680E-12	705.014E-3	-10.9355E-3
2.04352E-3	71.8453E-12	739.425E-3	-40.7315E-3	69.9976E-12	713.481E-3	6.67487E-3
2.03852E-3	71.9658E-12	729.589E-3	-26.9915E-3	69.8049E-12	736.867E-3	1.03410E-3
2.03352E-3	71.5341E-12	725.342E-3	-15.8970E-3	69.6153E-12	740.517E-3	-8.19849E-3
2.02851E-3	71.1083E-12	731.003E-3	-7.03679E-3	68.9184E-12	726.491E-3	-2.21661E-3
2.02351E-3	71.8584E-12	727.030E-3	-20.2580E-3	69.4273E-12	718.020E-3	-6.88520E-3
2.01851E-3	71.7376E-12	731.698E-3	-26.6626E-3	69.3344E-12	723.099E-3	-14.9052E-3
2.01351E-3	71.7562E-12	746.033E-3	-14.8185E-3	69.2607E-12	736.919E-3	-22.9844E-3
2.00850E-3	71.0005E-12	749.490E-3	-19.9967E-3	68.8136E-12	740.275E-3	-38.2132E-3
2.00350E-3	70.9588E-12	746.397E-3	-41.8363E-3	69.2888E-12	736.824E-3	-47.1367E-3
1.99850E-3	70.7677E-12	745.686E-3	-54.4105E-3	69.5651E-12	745.857E-3	-38.6671E-3
1.99350E-3	70.6422E-12	751.817E-3	-44.7826E-3	69.5400E-12	747.642E-3	-16.0425E-3
1.98849E-3	69.9523E-12	758.863E-3	-25.4473E-3	69.0541E-12	741.865E-3	-9.56111E-3
1.98349E-3	68.9533E-12	760.446E-3	-8.13963E-3	68.5683E-12	749.312E-3	-16.7612E-3
1.97849E-3	68.7887E-12	753.830E-3	-4.72548E-3	68.7563E-12	751.572E-3	-17.4825E-3
1.97349E-3	68.5228E-12	744.317E-3	-21.7898E-3	68.3117E-12	746.695E-3	-18.0109E-3
1.96848E-3	67.8808E-12	749.153E-3	-32.0629E-3	68.1042E-12	754.552E-3	-10.8951E-3
1.96348E-3	66.9565E-12	748.995E-3	-33.2634E-3	67.7466E-12	760.514E-3	-2.95285E-3
1.95848E-3	66.8203E-12	737.016E-3	-44.9547E-3	67.3470E-12	755.311E-3	-12.1821E-3
1.95348E-3	66.6650E-12	748.754E-3	-48.8078E-3	67.6275E-12	757.985E-3	-31.1064E-3
1.94847E-3	66.7672E-12	761.301E-3	-32.3652E-3	67.3266E-12	765.082E-3	-33.9835E-3
1.94347E-3	66.3132E-12	744.324E-3	-17.6055E-3	66.5420E-12	763.766E-3	-19.7965E-3
1.93847E-3	65.8771E-12	736.460E-3	-14.2405E-3	65.7864E-12	765.704E-3	-18.8975E-3
1.93347E-3	66.1689E-12	734.490E-3	-11.4823E-3	65.8213E-12	776.952E-3	-28.3044E-3
1.92846E-3	66.4236E-12	728.751E-3	-17.4489E-3	65.7786E-12	775.136E-3	-25.9706E-3
1.92346E-3	66.3839E-12	738.493E-3	-26.5523E-3	65.1382E-12	768.215E-3	-18.0883E-3
1.91846E-3	65.8254E-12	746.895E-3	-16.8795E-3	64.9196E-12	769.743E-3	-10.9453E-3
1.91346E-3	65.8799E-12	745.820E-3	-7.10192E-3	64.6824E-12	764.495E-3	-11.2715E-3
1.90845E-3	65.2343E-12	751.585E-3	-5.20421E-3	65.0805E-12	767.768E-3	-17.1143E-3
1.90345E-3	64.7872E-12	761.484E-3	-2.79619E-3	65.1557E-12	787.214E-3	-3.37473E-3
1.89845E-3	64.6161E-12	771.824E-3	-18.2254E-3	64.4895E-12	802.027E-3	5.29855E-3
1.89345E-3	63.7737E-12	777.571E-3	-30.2281E-3	64.2543E-12	800.286E-3	-13.3576E-3
1.88844E-3	62.9528E-12	765.942E-3	-16.2558E-3	64.9751E-12	788.754E-3	-19.9555E-3
1.88344E-3	62.6330E-12	749.924E-3	-18.0234E-3	65.4489E-12	787.645E-3	-5.85849E-3
1.87844E-3	62.7030E-12	747.171E-3	-30.3911E-3	64.8911E-12	802.377E-3	-1.79715E-3
1.87344E-3	62.0210E-12	761.547E-3	-18.4116E-3	64.5364E-12	818.980E-3	-7.98122E-3
1.86843E-3	61.5138E-12	778.817E-3	-16.0931E-3	64.3679E-12	820.088E-3	-3.79382E-3
1.86343E-3	61.2916E-12	779.727E-3	-33.7609E-3	64.8010E-12	799.432E-3	-8.28935E-3
1.85843E-3	61.7154E-12	769.833E-3	-28.6896E-3	64.6066E-12	779.370E-3	-29.6628E-3
1.85343E-3	61.4554E-12	769.553E-3	-17.3831E-3	63.6955E-12	776.206E-3	-31.9610E-3
1.84842E-3	61.1045E-12	782.577E-3	-27.6934E-3	62.4283E-12	789.407E-3	-15.0891E-3
1.84342E-3	61.0737E-12	800.422E-3	-24.8870E-3	62.2540E-12	802.816E-3	-10.5526E-3
1.83842E-3	61.1164E-12	811.399E-3	-11.8474E-3	62.4326E-12	802.197E-3	-25.5193E-3
1.83342E-3	61.4393E-12	812.599E-3	-11.1042E-3	61.0668E-12	797.459E-3	-34.8040E-3
1.82841E-3	61.4048E-12	809.974E-3	-8.76002E-3	59.9796E-12	800.273E-3	-26.8093E-3
1.82341E-3	60.9892E-12	795.262E-3	-9.15850E-3	59.7641E-12	804.555E-3	-15.2078E-3
1.81841E-3	60.3787E-12	783.222E-3	-18.3844E-3	59.6612E-12	801.118E-3	-9.87693E-3
1.81341E-3	60.1797E-12	788.367E-3	-9.73965E-3	59.2295E-12	791.083E-3	-7.51229E-3
1.80840E-3	59.6987E-12	794.184E-3	10.7804E-3	59.0344E-12	782.635E-3	-5.12369E-3
1.80340E-3	59.5509E-12	800.679E-3	-8.88654E-3	58.3966E-12	796.944E-3	-14.5768E-3
1.79840E-3	59.0878E-12	810.402E-3	-48.3659E-3	58.6934E-12	824.084E-3	-17.9990E-3
1.79340E-3	58.1624E-12	802.069E-3	-49.9049E-3	58.5472E-12	850.163E-3	-11.7059E-3
1.78839E-3	58.0390E-12	793.318E-3	-21.3708E-3	58.4397E-12	858.992E-3	-16.0054E-3
1.78339E-3	57.6752E-12	819.014E-3	310.460E-6	58.3303E-12	855.383E-3	-21.4757E-3
1.77839E-3	57.2080E-12	835.396E-3	1.75145E-3	58.5771E-12	863.456E-3	-22.2841E-3
1.77339E-3	57.2685E-12	815.661E-3	-9.64429E-3	58.7519E-12	861.687E-3	-23.6624E-3
1.76838E-3	57.1351E-12	803.705E-3	-19.6312E-3	58.0395E-12	856.805E-3	-21.9183E-3
1.76338E-3	56.6041E-12	806.291E-3	-25.4342E-3	57.8885E-12	866.632E-3	-26.2335E-3
1.75838E-3	56.5717E-12	817.188E-3	-29.6790E-3	57.3655E-12	864.545E-3	-40.1276E-3
1.75338E-3	56.5040E-12	836.202E-3	-27.0143E-3	57.3717E-12	846.270E-3	-41.5974E-3
1.74837E-3	56.5269E-12	836.298E-3	-28.4013E-3	56.5471E-12	833.751E-3	-25.0289E-3
1.74337E-3	56.0807E-12	836.968E-3	-37.8061E-3	55.9114E-12	832.607E-3	-5.64031E-3
1.73837E-3	56.0753E-12	855.560E-3	-29.4957E-3	55.2773E-12	839.341E-3	3.20163E-3
1.73337E-3	55.9050E-12	857.557E-3	-14.3853E-3	54.9279E-12	840.080E-3	-4.19556E-3
1.72836E-3	55.5039E-12	834.786E-3	-22.7554E-3	54.6921E-12	848.682E-3	-11.1958E-3
1.72336E-3	55.0490E-12	811.570E-3	-26.4226E-3	53.7594E-12	865.097E-3	1.28847E-3
1.71836E-3	54.6514E-12	818.003E-3	-17.3948E-3	53.2754E-12	857.263E-3	17.4779E-3
1.71336E-3	54.3071E-12	847.303E-3	-30.7164E-3	53.4513E-12	840.851E-3	14.3976E-3
1.70835E-3	53.7593E-12	868.312E-3	-38.3888E-3	53.5766E-12	848.939E-3	-9.91614E-3
1.70335E-3	53.7091E-12	872.209E-3	-18.8381E-3	52.9259E-12	874.248E-3	-30.2007E-3
1.69835E-3	53.2873E-12	860.088E-3	-6.09663E-3	52.3466E-12	896.961E-3	-27.9824E-3
1.69335E-3	52.8909E-12	853.118E-3	-13.2081E-3	52.4002E-12	901.909E-3	-21.9280E-3
1.68834E-3	52.4694E-12	854.461E-3	-30.6154E-3	52.9449E-12	892.567E-3	-22.9870E-3
1.68334E-3	52.5386E-12	840.120E-3	-37.2868E-3	53.1715E-12	896.538E-3	-25.8311E-3
1.67834E-3	52.4012E-12	840.476E-3	-31.7824E-3	52.6067E-12	909.469E-3	-30.6562E-3
1.67334E-3	52.0327E-12	871.638E-3	-25.4971E-3	52.4652E-12	914.958E-3	-33.5878E-3
1.66833E-3	51.7587E-12	879.662E-3	-22.2607E-3	52.3872E-12	915.714E-3	-23.4057E-3
1.66333E-3	51.7405E-12	870.190E-3	-24.8035E-3	52.5279E-12	912.474E-3	-14.5438E-3
1.65833E-3	51.0878E-12	880.950E-3	-13.3545E-3	51.4309E-12	911.782E-3	-23.0082E-3
1.65333E-3	50.7054E-12	893.916E-3	-2.77903E-3	51.2766E-12	928.771E-3	-31.9141E-3
1.64832E-3	50.6224E-12	903.835E-3	-9.52328E-3	50.3962E-12	944.797E-3	-20.9175E-3
1.64332E-3	50.2417E-12	920.584E-3	-8.82216E-3	50.2898E-12	931.510E-3	-3.07837E-3
1.63832E-3	49.5680E-12	925.099E-3	-11.6480E-3	49.9851E-12	911.091E-3	-2.81135E-3
1.63332E-3	49.4594E-12	914.991E-3	-32.3861E-3	49.2226E-12	905.886E-3	-16.1514E-3
1.62831E-3	49.6187E-12	910.582E-3	-43.6270E-3	48.3348E-12	909.620E-3	-24.9318E-3
1.62331E-3	49.2425E-12	910.409E-3	-39.8656E-3	48.1494E-12	917.097E-3	-21.2374E-3
1.61831E-3	48.9953E-12	908.280E-3	-34.4239E-3	48.0018E-12	913.684E-3	-12.8857E-3
1.61331E-3	48.4155E-12	916.975E-3	-30.8397E-3	47.2228E-12	906.260E-3	1.02709E-3
1.60830E-3	48.2718E-12	931.319E-3	-23.2298E-3	47.1261E-12	913.439E-3	9.69460E-3
1.60330E-3	48.1414E-12	946.582E-3	-16.8525E-3	46.9128E-12	936.280E-3	-3.52979E-3
1.59830E-3	48.0117E-12	959.395E-3	-14.5978E-3	46.8772E-12	963.266E-3	-19.3256E-3
1.59330E-3	47.7035E-12	959.766E-3	-7.06394E-3	46.7164E-12	975.626E-3	-16.2666E-3
1.58829E-3	47.4022E-12	952.304E-3	-16.1099E-3	46.4352E-12	965.439E-3	-1.21972E-3
1.58329E-3	47.1668E-12	944.692E-3	-31.7986E-3	45.9890E-12	951.436E-3	10.0549E-3
1.57829E-3	46.4751E-12	948.063E-3	-25.0468E-3	46.3368E-12	953.947E-3	2.82520E-3
1.57329E-3	46.7649E-12	958.396E-3	-23.9801E-3	46.4181E-12	967.311E-3	-20.8243E-3
1.56828E-3	46.2728E-12	970.361E-3	-28.7168E-3	45.8264E-12	978.099E-3	-24.4380E-3
1.56328E-3	45.4399E-12	977.650E-3	-15.2272E-3	45.3047E-12	970.338E-3	-6.98018E-3
1.55828E-3	44.7042E-12	969.522E-3	-4.51861E-3	45.1723E-12	953.025E-3	1.45740E-3
1.55328E-3	44.8354E-12	962.969E-3	-6.12408E-3	44.9319E-12	956.662E-3	-4.08275E-3
1.54827E-3	43.8802E-12	970.748E-3	-724.714E-6	44.5167E-12	976.490E-3	-18.1557E-3
1.54327E-3	43.1537E-12	968.690E-3	479.300E-6	43.8777E-12	994.501E-3	-25.6904E-3
1.53827E-3	42.8742E-12	959.258E-3	-6.81659E-3	43.3510E-12	1.00373E+0	-22.6493E-3
1.53327E-3	42.6622E-12	965.576E-3	-10.2572E-3	43.6452E-12	993.368E-3	-10.6067E-3
1.52826E-3	42.1466E-12	978.461E-3	-19.4557E-3	43.4053E-12	987.473E-3	2.83536E-3
1.52326E-3	41.8297E-12	978.410E-3	-26.6112E-3	42.7103E-12	993.273E-3	500.620E-6
1.51826E-3	41.5229E-12	967.174E-3	-17.9418E-3	42.0581E-12	996.952E-3	-4.81128E-3
1.51326E-3	41.4068E-12	961.181E-3	-13.9023E-3	41.9632E-12	994.859E-3	-82.4238E-6
1.50825E-3	41.4135E-12	967.779E-3	-17.3502E-3	41.5598E-12	988.024E-3	-6.08143E-3
1.50325E-3	40.9809E-12	985.335E-3	-5.86503E-3	40.9986E-12	995.118E-3	-24.4540E-3
1.49825E-3	40.7677E-12	997.746E-3	3.89291E-3	40.6626E-12	1.00964E+0	-26.1390E-3
1.49325E-3	40.7165E-12	999.945E-3	-8.72855E-3	40.5790E-12	1.01421E+0	-20.5828E-3
1.48824E-3	40.4778E-12	1.01096E+0	-16.5080E-3	40.3802E-12	1.00717E+0	-21.6512E-3
1.48324E-3	40.1812E-12	1.02278E+0	-5.37719E-3	39.6713E-12	991.277E-3	-16.6517E-3
1.47824E-3	39.4226E-12	1.02766E+0	-3.42723E-3	39.2395E-12	980.197E-3	-14.6870E-3
1.47324E-3	39.3018E-12	1.02500E+0	-6.46517E-3	39.1487E-12	980.308E-3	-21.4885E-3
1.46823E-3	39.0793E-12	1.01053E+0	3.02764E-3	38.9460E-12	983.269E-3	-19.4313E-3
1.46323E-3	38.6193E-12	1.00217E+0	8.00003E-3	38.8650E-12	985.777E-3	-12.4012E-3
1.45823E-3	37.9020E-12	1.01076E+0	4.28071E-3	38.3241E-12	995.793E-3	-14.8659E-3
1.45323E-3	37.1739E-12	1.01237E+0	4.01888E-3	38.1326E-12	1.01511E+0	-14.1247E-3
1.44822E-3	37.2310E-12	1.00546E+0	-5.22577E-3	37.9299E-12	1.03300E+0	-7.67696E-3
1.44322E-3	36.7259E-12	1.00790E+0	-17.4667E-3	37.8901E-12	1.03786E+0	-7.76490E-3
1.43822E-3	36.3167E-12	1.00164E+0	-10.5836E-3	37.6168E-12	1.01858E+0	-11.2140E-3
1.43322E-3	35.9279E-12	983.752E-3	-2.72419E-3	36.8302E-12	994.397E-3	-15.9118E-3
1.42821E-3	36.2701E-12	980.949E-3	-7.52273E-3	36.5280E-12	994.502E-3	-22.7265E-3
1.42321E-3	35.5510E-12	982.448E-3	-17.3985E-3	36.3465E-12	1.00355E+0	-24.6933E-3
1.41821E-3	35.1850E-12	975.886E-3	-22.5674E-3	36.2959E-12	988.118E-3	-18.8236E-3
1.41321E-3	35.3109E-12	973.837E-3	-25.4900E-3	35.5320E-12	956.264E-3	-12.7514E-3
1.40820E-3	35.1562E-12	973.555E-3	-25.0597E-3	34.7665E-12	936.011E-3	-6.10429E-3
1.40320E-3	34.7187E-12	975.785E-3	-12.2124E-3	34.3441E-12	934.540E-3	-4.97008E-3
1.39820E-3	34.3284E-12	997.020E-3	-2.92235E-3	34.6370E-12	941.614E-3	-20.7263E-3
1.39320E-3	34.5299E-12	1.00965E+0	-7.68708E-3	34.3920E-12	947.451E-3	-34.5346E-3
1.38819E-3	34.0161E-12	987.609E-3	-17.3586E-3	32.6995E-12	954.555E-3	-37.8126E-3
1.38319E-3	33.7759E-12	975.209E-3	-23.4932E-3	32.3290E-12	949.429E-3	-31.5263E-3
1.37819E-3	33.3331E-12	977.071E-3	-22.6460E-3	32.9903E-12	937.029E-3	-14.6433E-3
1.37319E-3	32.9764E-12	968.873E-3	-16.2683E-3	32.9983E-12	930.941E-3	-12.6436E-3
1.36818E-3	32.4056E-12	968.321E-3	-5.31000E-3	31.8146E-12	925.602E-3	-15.8440E-3
1.36318E-3	31.8657E-12	969.624E-3	6.08847E-3	31.4777E-12	926.318E-3	-7.22178E-3
1.35818E-3	32.1268E-12	957.107E-3	1.49809E-3	31.9771E-12	928.875E-3	-3.84540E-3
1.35318E-3	31.3906E-12	948.082E-3	-13.1130E-3	31.9042E-12	926.914E-3	-5.41512E-3
1.34817E-3	30.7475E-12	945.614E-3	-15.7167E-3	31.3067E-12	922.633E-3	-14.4057E-3
1.34317E-3	30.3461E-12	930.753E-3	-12.4433E-3	30.6598E-12	911.831E-3	-27.1277E-3
1.33817E-3	30.7476E-12	917.938E-3	-22.4687E-3	30.8329E-12	894.277E-3	-29.9991E-3
1.33317E-3	30.3474E-12	919.262E-3	-27.8845E-3	30.8210E-12	879.079E-3	-20.6204E-3
1.32816E-3	29.6222E-12	907.800E-3	-11.6339E-3	30.4910E-12	860.481E-3	-15.0585E-3
1.32316E-3	29.5150E-12	890.407E-3	-2.90917E-3	29.9833E-12	851.592E-3	-24.0910E-3
1.31816E-3	29.5787E-12	885.334E-3	-11.1334E-3	29.2194E-12	853.387E-3	-19.9470E-3
1.31316E-3	29.8701E-12	881.274E-3	-21.3153E-3	29.0567E-12	836.545E-3	-9.38614E-3
1.30815E-3	28.9929E-12	877.855E-3	-22.7352E-3	28.6004E-12	801.346E-3	-14.6023E-3
1.30315E-3	28.4612E-12	870.389E-3	-12.1722E-3	28.1147E-12	770.335E-3	-15.5031E-3
1.29815E-3	28.6218E-12	850.031E-3	-1.71105E-3	27.4745E-12	764.152E-3	-16.8709E-3
1.29315E-3	28.7574E-12	831.964E-3	-6.63819E-3	27.4326E-12	770.428E-3	-33.6294E-3
1.28814E-3	28.2929E-12	824.956E-3	-14.2399E-3	27.1957E-12	773.780E-3	-43.9344E-3
1.28314E-3	27.8099E-12	814.997E-3	-13.2643E-3	27.2013E-12	765.122E-3	-44.2098E-3
1.27814E-3	27.7155E-12	807.493E-3	-12.4811E-3	27.1684E-12	731.564E-3	-38.1545E-3
1.27314E-3	27.2134E-12	805.606E-3	-6.15381E-3	26.4986E-12	711.720E-3	-17.6836E-3
1.26813E-3	26.8788E-12	792.341E-3	-369.237E-6	26.6671E-12	721.124E-3	596.724E-6
1.26313E-3	26.4932E-12	769.412E-3	-7.00973E-3	26.8572E-12	724.946E-3	3.13862E-3
1.25813E-3	26.4108E-12	748.324E-3	-22.0653E-3	27.1516E-12	716.919E-3	-8.45653E-3
1.25313E-3	26.1820E-12	737.128E-3	-29.3645E-3	26.0892E-12	705.950E-3	-19.6375E-3
1.24812E-3	25.9453E-12	719.399E-3	-27.5041E-3	26.2317E-12	692.015E-3	-18.9834E-3
1.24312E-3	25.7560E-12	697.672E-3	-32.7705E-3	26.7732E-12	679.343E-3	-18.4925E-3
1.23812E-3	25.5190E-12	680.555E-3	-27.3470E-3	26.3059E-12	669.127E-3	-27.8294E-3
1.23312E-3	25.2209E-12	664.125E-3	-12.5357E-3	25.7021E-12	653.461E-3	-24.1526E-3
1.22811E-3	24.5670E-12	662.748E-3	-15.5974E-3	25.1445E-12	626.934E-3	-9.66297E-3
1.22311E-3	24.7735E-12	667.731E-3	-20.8292E-3	25.2769E-12	600.388E-3	-8.03180E-3
1.21811E-3	24.6648E-12	655.988E-3	-18.3532E-3	24.6097E-12	590.563E-3	-12.4379E-3
1.21311E-3	24.1631E-12	631.760E-3	-25.7290E-3	24.2053E-12	577.711E-3	-8.96499E-3
1.20810E-3	23.5872E-12	619.942E-3	-24.6158E-3	23.9052E-12	560.370E-3	5.55684E-3
1.20310E-3	23.7143E-12	615.639E-3	-13.0935E-3	23.8317E-12	555.310E-3	5.81810E-3
1.19810E-3	24.1168E-12	603.281E-3	-16.7428E-3	23.1691E-12	545.527E-3	-13.2533E-3
1.19310E-3	23.2798E-12	587.821E-3	-15.3514E-3	22.9940E-12	525.042E-3	-18.1830E-3
1.18809E-3	23.0073E-12	570.811E-3	-3.68141E-3	23.1929E-12	502.300E-3	-6.61876E-3
1.18309E-3	23.0706E-12	553.932E-3	-7.35883E-3	22.8966E-12	477.961E-3	-6.13168E-3
1.17809E-3	23.3785E-12	538.778E-3	-17.3419E-3	23.0407E-12	465.476E-3	-10.8681E-3
1.17309E-3	23.1361E-12	518.621E-3	-21.2611E-3	23.2341E-12	467.800E-3	-4.40223E-3
1.16808E-3	22.6525E-12	502.646E-3	-26.5818E-3	23.2840E-12	463.317E-3	-1.69122E-3
1.16308E-3	22.3536E-12	497.239E-3	-22.5465E-3	22.4043E-12	452.686E-3	-4.25117E-3
1.15808E-3	22.5359E-12	487.170E-3	-5.54900E-3	22.3552E-12	444.040E-3	-797.938E-6
1.15308E-3	22.0494E-12	478.047E-3	5.27148E-3	22.7222E-12	429.506E-3	-6.91353E-3
1.14807E-3	21.7806E-12	477.690E-3	10.0493E-3	22.5918E-12	412.372E-3	-25.6872E-3
1.14307E-3	21.5094E-12	467.688E-3	6.54152E-3	22.0698E-12	398.242E-3	-28.0995E-3
1.13807E-3	21.7051E-12	449.201E-3	-11.0406E-3	21.8239E-12	381.897E-3	-12.6585E-3
1.13307E-3	21.5844E-12	442.304E-3	-28.3083E-3	22.0353E-12	364.561E-3	-6.33588E-3
1.12806E-3	20.9283E-12	431.600E-3	-32.6655E-3	21.8983E-12	355.680E-3	-17.4832E-3
1.12306E-3	20.8522E-12	406.137E-3	-28.7318E-3	21.6069E-12	359.247E-3	-33.1690E-3
1.11806E-3	20.8647E-12	386.728E-3	-19.7060E-3	20.9819E-12	355.766E-3	-39.2234E-3
1.11306E-3	20.7949E-12	367.308E-3	-7.31242E-3	21.0282E-12	339.848E-3	-27.5887E-3
1.10805E-3	20.3873E-12	362.283E-3	-553.973E-6	21.0093E-12	335.989E-3	-12.7440E-3
1.10305E-3	20.1428E-12	375.860E-3	-997.489E-6	20.9912E-12	326.641E-3	-7.89941E-3
1.09805E-3	20.3678E-12	364.889E-3	-7.15452E-3	20.3577E-12	304.945E-3	-4.78464E-3
1.09305E-3	20.1637E-12	334.325E-3	-21.3964E-3	20.6446E-12	294.298E-3	-9.28553E-3
1.08804E-3	20.1150E-12	321.603E-3	-28.9254E-3	20.7031E-12	292.752E-3	-22.4500E-3
1.08304E-3	19.8017E-12	323.565E-3	-19.9674E-3	20.2901E-12	287.616E-3	-20.5100E-3
1.07804E-3	20.1588E-12	323.458E-3	-12.6950E-3	20.0469E-12	270.599E-3	-9.07074E-3
1.07304E-3	19.8919E-12	319.068E-3	-12.4897E-3	19.8815E-12	248.842E-3	-17.9447E-3
1.06803E-3	19.8878E-12	305.151E-3	-13.2922E-3	20.0985E-12	240.132E-3	-30.9313E-3
1.06303E-3	20.0834E-12	287.579E-3	-25.1430E-3	19.9694E-12	254.363E-3	-28.1294E-3
1.05803E-3	19.8585E-12	280.627E-3	-26.6066E-3	19.7214E-12	261.835E-3	-24.2980E-3
1.05303E-3	19.6991E-12	281.224E-3	-6.32454E-3	19.6756E-12	252.179E-3	-27.4002E-3
1.04802E-3	19.6315E-12	269.255E-3	1.86650E-3	19.6271E-12	247.613E-3	-34.2066E-3
1.04302E-3	19.7352E-12	258.199E-3	-1.57502E-3	19.6004E-12	236.531E-3	-44.0157E-3
1.03802E-3	19.1835E-12	256.570E-3	-1.89446E-3	19.3711E-12	215.821E-3	-37.8179E-3
1.03302E-3	19.3008E-12	248.385E-3	-7.73526E-3	19.5069E-12	200.185E-3	-14.0908E-3
1.02801E-3	19.3661E-12	246.923E-3	-12.0848E-3	19.1533E-12	202.846E-3	-7.24655E-3
1.02301E-3	18.6966E-12	252.404E-3	-12.1281E-3	18.7715E-12	207.568E-3	-16.6954E-3
1.01801E-3	18.5796E-12	239.528E-3	-19.0121E-3	18.5227E-12	199.865E-3	-19.8124E-3
1.01301E-3	18.7044E-12	217.548E-3	-27.7789E-3	18.7041E-12	197.768E-3	-23.8242E-3
1.00800E-3	18.6743E-12	208.821E-3	-29.9303E-3	18.7133E-12	194.845E-3	-24.3278E-3
1.00300E-3	18.1112E-12	199.973E-3	-26.8263E-3	18.3129E-12	193.504E-3	-9.40839E-3
997.999E-6	18.3117E-12	186.650E-3	-29.0767E-3	18.1557E-12	202.272E-3	-4.20091E-3
992.997E-6	18.8151E-12	182.499E-3	-28.4257E-3	18.0807E-12	196.946E-3	-15.0786E-3
987.994E-6	18.5680E-12	184.692E-3	-21.2817E-3	17.9916E-12	192.584E-3	-29.1255E-3
982.991E-6	18.1034E-12	187.953E-3	-21.2644E-3	17.7035E-12	204.673E-3	-33.8824E-3
977.989E-6	17.9482E-12	188.634E-3	-21.5968E-3	17.7098E-12	202.453E-3	-30.1582E-3
972.986E-6	18.3981E-12	181.083E-3	-15.7860E-3	17.7507E-12	191.807E-3	-29.8689E-3
967.984E-6	18.4710E-12	177.320E-3	-14.3072E-3	17.3450E-12	192.481E-3	-34.3380E-3
962.981E-6	18.1820E-12	187.688E-3	-21.7178E-3	17.3286E-12	201.009E-3	-36.9190E-3
957.979E-6	17.7370E-12	199.384E-3	-26.1763E-3	17.4882E-12	206.161E-3	-29.7870E-3
952.976E-6	17.8065E-12	203.195E-3	-17.3366E-3	17.6340E-12	198.735E-3	-26.0755E-3
947.974E-6	18.0053E-12	203.633E-3	1.41642E-3	17.2822E-12	188.388E-3	-25.8824E-3
942.971E-6	17.7659E-12	194.680E-3	12.6233E-3	17.3269E-12	189.880E-3	-20.6483E-3
937.969E-6	17.4826E-12	183.131E-3	6.28611E-3	17.3723E-12	206.219E-3	-22.7814E-3
932.966E-6	17.3172E-12	196.128E-3	-14.8975E-3	17.4066E-12	215.479E-3	-21.6398E-3
927.964E-6	17.0794E-12	211.582E-3	-28.2388E-3	17.1418E-12	214.813E-3	-4.45771E-3
922.961E-6	16.9624E-12	206.126E-3	-31.0572E-3	17.1832E-12	219.501E-3	-9.31898E-3
917.959E-6	17.3147E-12	203.490E-3	-26.0286E-3	17.4126E-12	218.853E-3	-34.5656E-3
912.956E-6	17.3970E-12	204.640E-3	-2.61069E-3	17.3844E-12	222.310E-3	-29.6864E-3
907.954E-6	17.0399E-12	204.387E-3	-1.96754E-3	17.1609E-12	223.729E-3	-8.21851E-3
902.951E-6	17.0169E-12	214.105E-3	-25.1871E-3	16.8786E-12	212.307E-3	-6.62561E-3
897.949E-6	16.8331E-12	220.323E-3	-28.1891E-3	16.8338E-12	214.190E-3	-12.5654E-3
892.946E-6	16.6092E-12	216.655E-3	-21.3510E-3	16.8186E-12	235.205E-3	-15.0658E-3
887.944E-6	16.5306E-12	215.085E-3	-17.7702E-3	16.5836E-12	252.214E-3	-19.3856E-3
882.941E-6	16.3245E-12	213.832E-3	-20.4795E-3	16.7795E-12	256.512E-3	-18.6199E-3
877.939E-6	16.3065E-12	213.025E-3	-25.3519E-3	16.6398E-12	255.868E-3	-5.40172E-3
872.936E-6	16.3367E-12	218.719E-3	-21.1648E-3	16.2895E-12	246.489E-3	-332.746E-6
867.934E-6	16.1632E-12	225.547E-3	-17.3956E-3	16.3279E-12	235.074E-3	-4.17232E-3
862.931E-6	16.1085E-12	229.871E-3	-16.1199E-3	16.1963E-12	243.806E-3	-2.72307E-3
857.929E-6	15.7653E-12	242.434E-3	-17.0662E-3	16.2454E-12	260.910E-3	-13.0035E-3
852.926E-6	15.6019E-12	253.651E-3	-23.6709E-3	16.1174E-12	262.473E-3	-23.4296E-3
847.924E-6	15.6609E-12	256.459E-3	-23.9820E-3	15.8583E-12	267.148E-3	-19.7057E-3
842.921E-6	15.8609E-12	266.719E-3	-15.6571E-3	15.6428E-12	279.451E-3	-14.0316E-3
837.919E-6	15.7796E-12	273.316E-3	-17.9341E-3	15.7891E-12	286.305E-3	-8.54387E-3
832.916E-6	15.7711E-12	274.772E-3	-22.0913E-3	15.8347E-12	300.757E-3	-1.24394E-3
827.914E-6	15.4745E-12	274.019E-3	-22.0950E-3	15.5507E-12	318.437E-3	395.246E-6
822.911E-6	15.6012E-12	262.758E-3	-26.8928E-3	15.4278E-12	326.785E-3	-1.44809E-3
817.909E-6	15.5192E-12	256.849E-3	-25.4145E-3	15.5752E-12	328.133E-3	5.58633E-3
812.906E-6	15.4201E-12	267.304E-3	-18.4539E-3	15.2873E-12	326.406E-3	-1.59110E-3
807.904E-6	15.2253E-12	295.350E-3	-13.5183E-3	15.2511E-12	329.827E-3	-20.4669E-3
802.901E-6	14.9137E-12	327.175E-3	-11.8889E-3	15.1859E-12	341.571E-3	-13.7191E-3
797.899E-6	15.0986E-12	338.996E-3	-12.9384E-3	14.9672E-12	354.387E-3	-773.778E-6
792.896E-6	14.9593E-12	340.093E-3	-10.5355E-3	14.7539E-12	358.702E-3	-14.7930E-3
787.894E-6	14.7306E-12	343.040E-3	-11.4091E-3	14.6469E-12	367.096E-3	-31.5416E-3
782.891E-6	14.6908E-12	342.201E-3	-18.7984E-3	14.3931E-12	378.804E-3	-33.7439E-3
777.889E-6	14.7314E-12	350.954E-3	-24.6394E-3	14.3746E-12	376.914E-3	-26.7396E-3
772.886E-6	14.5461E-12	364.060E-3	-24.4341E-3	14.2031E-12	373.452E-3	-18.2993E-3
767.884E-6	14.5280E-12	362.847E-3	-21.0125E-3	14.0806E-12	374.570E-3	-23.9758E-3
762.881E-6	14.4297E-12	365.108E-3	-16.2759E-3	13.8874E-12	375.357E-3	-35.9708E-3
757.879E-6	14.1656E-12	376.792E-3	-13.1839E-3	13.7226E-12	383.325E-3	-36.6901E-3
752.876E-6	13.9197E-12	385.103E-3	-21.8224E-3	13.6961E-12	404.995E-3	-26.1280E-3
747.874E-6	13.7622E-12	390.624E-3	-28.3386E-3	13.8396E-12	415.149E-3	-22.6821E-3
742.871E-6	13.8050E-12	399.216E-3	-17.0761E-3	13.6339E-12	402.345E-3	-21.2111E-3
737.869E-6	13.6438E-12	410.231E-3	-9.81301E-3	13.1798E-12	405.675E-3	-17.5703E-3
732.866E-6	13.3549E-12	414.304E-3	-14.4061E-3	13.2472E-12	426.286E-3	-17.5023E-3
727.864E-6	13.2151E-12	416.574E-3	-16.3595E-3	13.4657E-12	431.726E-3	-11.5184E-3
722.861E-6	13.4780E-12	418.942E-3	-14.7923E-3	13.2289E-12	434.422E-3	-8.09515E-3
717.859E-6	13.4504E-12	422.521E-3	-10.7212E-3	12.8206E-12	446.598E-3	-15.9305E-3
712.856E-6	12.8386E-12	437.734E-3	-16.2631E-3	12.7177E-12	450.631E-3	-17.2442E-3
707.854E-6	12.5942E-12	447.482E-3	-29.9636E-3	12.6382E-12	449.994E-3	-14.9269E-3
702.851E-6	13.0882E-12	444.736E-3	-21.8792E-3	12.8408E-12	458.045E-3	-19.5891E-3
697.849E-6	13.1715E-12	453.218E-3	-2.02003E-3	12.4581E-12	464.295E-3	-17.6078E-3
692.846E-6	12.6574E-12	467.878E-3	518.197E-6	12.0535E-12	472.969E-3	-6.60822E-3
687.844E-6	12.3122E-12	476.215E-3	-4.23314E-3	11.9753E-12	482.123E-3	-4.81535E-3
682.841E-6	12.2354E-12	483.522E-3	-8.44596E-3	12.0652E-12	482.688E-3	-15.8328E-3
677.839E-6	12.2138E-12	489.804E-3	-17.9880E-3	11.6996E-12	493.964E-3	-20.3453E-3
672.836E-6	11.9797E-12	496.080E-3	-28.0706E-3	11.2590E-12	500.419E-3	-9.55256E-3
667.834E-6	11.8249E-12	497.658E-3	-18.7920E-3	11.3307E-12	495.458E-3	5.51939E-3
662.831E-6	11.5476E-12	491.543E-3	-433.777E-6	11.3340E-12	508.972E-3	6.43734E-3
657.829E-6	11.2796E-12	489.128E-3	-8.16916E-3	10.9910E-12	528.123E-3	-6.43649E-3
652.826E-6	11.0300E-12	498.667E-3	-24.2001E-3	10.8628E-12	524.223E-3	-12.2558E-3
647.824E-6	11.0483E-12	510.172E-3	-27.6063E-3	11.0467E-12	508.832E-3	-11.4952E-3
642.821E-6	11.1035E-12	517.755E-3	-24.7390E-3	10.7074E-12	506.841E-3	-18.7257E-3
637.819E-6	10.8301E-12	517.059E-3	-15.4455E-3	10.3905E-12	511.586E-3	-26.0697E-3
632.816E-6	10.4192E-12	506.214E-3	-7.38686E-3	10.1305E-12	508.814E-3	-26.4305E-3
627.814E-6	10.3986E-12	500.134E-3	-5.86928E-3	10.1871E-12	506.175E-3	-26.2277E-3
622.811E-6	10.2120E-12	509.026E-3	-8.94814E-3	10.0910E-12	510.289E-3	-24.9937E-3
617.809E-6	10.0080E-12	520.732E-3	-18.8155E-3	9.74514E-12	519.412E-3	-15.6298E-3
612.806E-6	9.89037E-12	520.311E-3	-25.5846E-3	9.62156E-12	527.958E-3	-8.88323E-3
607.804E-6	9.68367E-12	521.935E-3	-9.70646E-3	9.41872E-12	524.256E-3	-16.4017E-3
602.801E-6	9.33874E-12	529.808E-3	8.40373E-3	9.32752E-12	519.742E-3	-18.9499E-3
597.799E-6	9.08630E-12	528.989E-3	2.61087E-3	9.27536E-12	521.036E-3	-16.9178E-3
592.796E-6	8.94024E-12	519.421E-3	-13.4781E-3	8.98712E-12	520.732E-3	-27.9366E-3
587.794E-6	8.79369E-12	511.313E-3	-22.4658E-3	8.89885E-12	524.194E-3	-32.3663E-3
582.791E-6	8.65831E-12	520.074E-3	-21.0451E-3	8.69363E-12	522.631E-3	-21.4387E-3
577.789E-6	8.46611E-12	534.085E-3	-11.6803E-3	8.60797E-12	517.222E-3	-13.2529E-3
572.786E-6	8.10363E-12	521.116E-3	2.12839E-3	8.43847E-12	520.239E-3	-1.77797E-3
567.784E-6	7.96729E-12	503.871E-3	611.119E-6	8.17892E-12	527.790E-3	1.23812E-3
562.781E-6	7.98894E-12	510.316E-3	-21.5171E-3	7.94994E-12	530.450E-3	-22.7013E-3
557.779E-6	7.75156E-12	519.005E-3	-37.7477E-3	7.71391E-12	524.382E-3	-33.1227E-3
552.776E-6	7.42562E-12	508.954E-3	-38.6267E-3	7.76543E-12	519.543E-3	-17.9620E-3
547.774E-6	7.28617E-12	495.112E-3	-40.7226E-3	7.52122E-12	521.961E-3	-16.8861E-3
542.771E-6	7.36228E-12	499.102E-3	-40.6855E-3	7.14099E-12	514.243E-3	-27.4486E-3
537.769E-6	7.22353E-12	506.211E-3	-25.6708E-3	7.12345E-12	496.606E-3	-25.6444E-3
532.766E-6	6.87119E-12	503.113E-3	-12.3843E-3	7.15870E-12	482.104E-3	-19.9371E-3
527.764E-6	6.57116E-12	499.491E-3	-15.1604E-3	6.74105E-12	477.437E-3	-23.8255E-3
522.761E-6	6.45881E-12	489.405E-3	-18.2131E-3	6.54892E-12	491.103E-3	-21.5064E-3
517.759E-6	6.41120E-12	479.493E-3	-22.4498E-3	6.40553E-12	495.968E-3	-17.0206E-3
512.756E-6	6.33804E-12	475.100E-3	-32.9384E-3	6.35275E-12	483.585E-3	-21.3464E-3
507.754E-6	6.24115E-12	474.546E-3	-30.9333E-3	6.09790E-12	480.588E-3	-14.1637E-3
502.751E-6	5.83478E-12	492.080E-3	-24.4295E-3	5.88041E-12	478.275E-3	-8.29174E-3
497.749E-6	5.69172E-12	506.359E-3	-26.9459E-3	5.90136E-12	456.768E-3	-15.9318E-3
492.746E-6	5.65487E-12	490.914E-3	-26.6419E-3	5.69828E-12	440.953E-3	-23.7463E-3
487.744E-6	5.65341E-12	464.182E-3	-14.4737E-3	5.43424E-12	447.882E-3	-35.6837E-3
482.741E-6	5.28359E-12	458.320E-3	-1.59813E-3	5.25225E-12	452.888E-3	-34.1288E-3
477.739E-6	5.09984E-12	463.130E-3	3.09318E-3	5.19306E-12	453.091E-3	-9.32520E-3
472.736E-6	5.15681E-12	453.364E-3	-6.48593E-3	5.06455E-12	442.526E-3	-1.42988E-3
467.734E-6	5.00328E-12	442.941E-3	-22.8820E-3	4.85473E-12	417.947E-3	-18.2019E-3
462.731E-6	4.79680E-12	441.709E-3	-26.6846E-3	4.69102E-12	401.864E-3	-24.2994E-3
457.729E-6	4.63765E-12	440.682E-3	-25.0275E-3	4.57274E-12	406.905E-3	-15.4812E-3
452.726E-6	4.59785E-12	435.882E-3	-17.2345E-3	4.51507E-12	417.981E-3	-10.5649E-3
447.724E-6	4.43099E-12	426.936E-3	-5.24964E-3	4.26299E-12	407.139E-3	-8.74227E-3
442.721E-6	4.29206E-12	422.107E-3	-8.65241E-3	4.15554E-12	388.325E-3	-12.6495E-3
437.719E-6	4.11079E-12	416.462E-3	-14.4006E-3	4.12839E-12	378.435E-3	-25.5797E-3
432.716E-6	3.98453E-12	404.425E-3	-3.59406E-3	4.06515E-12	375.134E-3	-31.6579E-3
427.714E-6	4.05727E-12	404.004E-3	4.13910E-3	3.89858E-12	376.522E-3	-20.0939E-3
422.711E-6	3.79705E-12	413.813E-3	-6.81199E-3	3.64233E-12	367.407E-3	-7.29613E-3
417.709E-6	3.64728E-12	404.854E-3	-24.8285E-3	3.65854E-12	346.626E-3	-14.8557E-3
412.706E-6	3.50783E-12	376.587E-3	-32.7058E-3	3.52600E-12	335.795E-3	-24.2013E-3
407.704E-6	3.47074E-12	357.082E-3	-22.7477E-3	3.35178E-12	338.094E-3	-30.9619E-3
402.701E-6	3.26950E-12	345.793E-3	-22.7772E-3	3.18056E-12	331.588E-3	-34.6023E-3
397.699E-6	3.27346E-12	340.628E-3	-45.4712E-3	3.10635E-12	313.780E-3	-23.9533E-3
392.696E-6	3.11995E-12	354.038E-3	-45.7423E-3	3.04091E-12	296.577E-3	-17.7557E-3
387.694E-6	2.91758E-12	360.091E-3	-23.5839E-3	2.86579E-12	285.601E-3	-7.32857E-3
382.691E-6	2.84811E-12	339.616E-3	-22.9659E-3	2.72449E-12	282.462E-3	4.40618E-3
377.689E-6	2.82293E-12	317.710E-3	-28.5596E-3	2.62981E-12	276.366E-3	-3.18162E-3
372.686E-6	2.72226E-12	309.846E-3	-22.2629E-3	2.57439E-12	264.641E-3	-8.40866E-3
367.684E-6	2.41573E-12	310.759E-3	-18.8702E-3	2.41438E-12	254.354E-3	3.24883E-3
362.681E-6	2.43033E-12	301.773E-3	-26.9026E-3	2.29052E-12	242.706E-3	8.82341E-3
357.679E-6	2.36916E-12	281.043E-3	-33.9379E-3	2.21071E-12	231.127E-3	-5.31179E-3
352.676E-6	2.27822E-12	277.566E-3	-23.8942E-3	2.13131E-12	229.036E-3	-16.6937E-3
347.674E-6	2.08138E-12	279.138E-3	-12.5605E-3	2.04369E-12	229.119E-3	-17.1948E-3
342.671E-6	1.95718E-12	259.749E-3	-17.1665E-3	1.96991E-12	226.513E-3	-14.2472E-3
337.669E-6	2.04096E-12	239.794E-3	-21.3524E-3	1.94807E-12	226.488E-3	-14.3097E-3
332.666E-6	1.91144E-12	237.007E-3	-22.5509E-3	1.79353E-12	221.587E-3	-21.7488E-3
327.664E-6	1.76452E-12	237.407E-3	-29.5805E-3	1.72289E-12	209.855E-3	-21.9027E-3
322.661E-6	1.67219E-12	231.406E-3	-31.6682E-3	1.71112E-12	203.055E-3	-10.2063E-3
317.659E-6	1.66763E-12	229.300E-3	-24.3637E-3	1.66322E-12	204.238E-3	-9.38404E-3
312.656E-6	1.57234E-12	224.739E-3	-12.5832E-3	1.44733E-12	191.854E-3	-17.3026E-3
307.654E-6	1.49258E-12	203.077E-3	-7.09127E-3	1.40603E-12	172.014E-3	-15.7152E-3
302.651E-6	1.34806E-12	179.685E-3	-9.64226E-3	1.52581E-12	170.443E-3	-8.06219E-3
297.649E-6	1.38279E-12	174.395E-3	-11.3546E-3	1.41971E-12	169.977E-3	-638.166E-6
292.646E-6	1.38274E-12	182.034E-3	-10.4245E-3	1.25131E-12	166.905E-3	5.78373E-3
287.644E-6	1.23042E-12	185.600E-3	-9.27836E-3	1.19576E-12	165.376E-3	1.37482E-3
282.641E-6	1.14394E-12	185.894E-3	-8.75087E-3	1.22966E-12	143.447E-3	-12.8273E-3
277.639E-6	1.08949E-12	178.843E-3	-9.34521E-3	1.17525E-12	121.891E-3	-11.1652E-3
272.636E-6	1.04904E-12	156.460E-3	-10.6390E-3	1.06460E-12	126.811E-3	-5.91049E-3
267.634E-6	1.00153E-12	142.680E-3	-8.35951E-3	936.783E-15	127.704E-3	-12.5153E-3
262.631E-6	946.130E-15	145.513E-3	-5.38191E-3	992.246E-15	112.762E-3	-14.1964E-3
257.629E-6	913.476E-15	142.876E-3	-14.1663E-3	990.625E-15	110.366E-3	-15.9944E-3
252.626E-6	778.170E-15	136.899E-3	-21.0384E-3	839.406E-15	119.138E-3	-25.5132E-3
247.624E-6	809.106E-15	133.473E-3	-14.2258E-3	807.327E-15	114.897E-3	-26.8900E-3
242.621E-6	820.668E-15	123.406E-3	-6.95601E-3	817.511E-15	101.932E-3	-21.2925E-3
237.619E-6	771.151E-15	119.725E-3	-8.72103E-3	760.941E-15	92.5300E-3	-21.4750E-3
232.616E-6	637.536E-15	121.776E-3	-15.4633E-3	702.085E-15	91.4058E-3	-26.7329E-3
227.614E-6	635.627E-15	114.200E-3	-10.4510E-3	658.611E-15	102.806E-3	-19.9183E-3
222.611E-6	696.348E-15	107.400E-3	649.126E-6	610.934E-15	102.501E-3	-10.0341E-3
217.609E-6	655.882E-15	100.366E-3	-587.951E-6	593.355E-15	82.1951E-3	-16.3071E-3
212.606E-6	424.079E-15	89.5591E-3	-15.2952E-3	559.272E-15	75.0347E-3	-26.7502E-3
207.604E-6	473.805E-15	81.5230E-3	-21.6657E-3	566.788E-15	79.0553E-3	-32.6746E-3
202.601E-6	534.675E-15	77.1122E-3	-11.0134E-3	520.131E-15	65.5727E-3	-26.6881E-3
197.599E-6	524.177E-15	83.8488E-3	-3.93346E-3	404.600E-15	58.1385E-3	-13.0392E-3
192.596E-6	399.395E-15	97.3972E-3	-12.3126E-3	418.219E-15	71.3544E-3	-13.0458E-3
187.594E-6	364.901E-15	93.8751E-3	-24.0090E-3	462.496E-15	72.5760E-3	-21.3381E-3
182.591E-6	445.790E-15	76.4970E-3	-24.4327E-3	426.555E-15	72.7313E-3	-27.6323E-3
177.589E-6	379.602E-15	72.6138E-3	-16.5256E-3	299.872E-15	81.6703E-3	-37.2417E-3
172.586E-6	292.443E-15	73.8980E-3	-14.7459E-3	304.572E-15	64.4436E-3	-40.3348E-3
167.584E-6	296.768E-15	73.7204E-3	-21.1976E-3	390.789E-15	45.1469E-3	-29.6412E-3
162.581E-6	356.051E-15	78.1985E-3	-18.3855E-3	305.810E-15	51.8608E-3	-18.4317E-3
157.579E-6	287.299E-15	71.3416E-3	-7.79892E-3	227.502E-15	50.0790E-3	-11.5604E-3
152.576E-6	268.919E-15	56.8874E-3	-11.1940E-3	214.127E-15	40.9340E-3	-7.52898E-3
147.574E-6	242.360E-15	52.0832E-3	-22.5591E-3	309.873E-15	42.8462E-3	-6.52064E-3
142.571E-6	227.023E-15	52.5087E-3	-20.2167E-3	288.433E-15	45.9646E-3	-9.88933E-3
137.569E-6	177.697E-15	54.0294E-3	-10.1343E-3	175.518E-15	51.4634E-3	-14.1363E-3
132.566E-6	151.042E-15	54.2566E-3	-6.76131E-3	108.658E-15	57.1295E-3	-18.2204E-3
127.564E-6	241.087E-15	42.8231E-3	-9.40449E-3	141.573E-15	51.5216E-3	-21.5044E-3
122.561E-6	153.266E-15	38.0558E-3	-4.60403E-3	195.912E-15	46.1754E-3	-14.3644E-3
117.559E-6	116.462E-15	44.7070E-3	260.812E-6	97.6977E-15	46.6586E-3	-9.08173E-3
112.556E-6	69.4036E-15	40.5801E-3	-7.57254E-3	72.7082E-15	38.2310E-3	-19.8563E-3
107.554E-6	171.402E-15	35.3320E-3	-15.4835E-3	94.9076E-15	25.5098E-3	-28.1096E-3
102.551E-6	149.752E-15	44.6796E-3	-13.7097E-3	84.1305E-15	16.0740E-3	-25.5214E-3
97.5488E-6	8.22020E-15	54.9179E-3	-11.3773E-3	30.5765E-15	10.1349E-3	-28.5397E-3
92.5463E-6	-20.1873E-15	48.1616E-3	-14.2759E-3	40.6037E-15	11.7314E-3	-30.2625E-3
87.5438E-6	158.794E-15	43.1527E-3	-18.5718E-3	50.3083E-15	17.0490E-3	-30.1211E-3
82.5413E-6	64.7126E-15	48.1454E-3	-20.1531E-3	-21.6609E-15	18.5304E-3	-32.6004E-3
77.5388E-6	-32.4990E-15	46.8675E-3	-18.0486E-3	-19.6729E-15	11.8702E-3	-29.3051E-3
72.5363E-6	-41.0700E-15	38.2638E-3	-17.3390E-3	60.5796E-15	11.0568E-3	-24.9870E-3
67.5338E-6	64.1546E-15	32.3907E-3	-15.5417E-3	48.6516E-15	20.5823E-3	-25.3262E-3
62.5313E-6	40.5078E-15	30.1685E-3	-12.7943E-3	-81.3881E-15	15.8308E-3	-15.3273E-3
57.5288E-6	-80.9522E-15	20.0074E-3	-11.5420E-3	-74.1598E-15	10.1483E-3	-2.87279E-3
52.5263E-6	-88.7472E-15	14.4012E-3	-14.5869E-3	41.4669E-15	21.8342E-3	-11.7859E-3
47.5238E-6	-32.6646E-15	20.1564E-3	-19.4393E-3	-2.80972E-15	27.1166E-3	-22.6581E-3
42.5213E-6	-38.5502E-15	24.7706E-3	-11.4458E-3	-96.4987E-15	25.8266E-3	-23.7818E-3
37.5188E-6	-73.3140E-15	22.5287E-3	-493.356E-6	-128.499E-15	26.1035E-3	-23.5591E-3
32.5163E-6	-81.9026E-15	8.57053E-3	-5.13192E-3	-53.8961E-15	18.4442E-3	-20.3587E-3
27.5138E-6	-67.8209E-15	308.436E-6	-17.8437E-3	-87.1342E-15	7.42177E-3	-11.7608E-3
22.5113E-6	-105.183E-15	10.1505E-3	-24.0638E-3	-149.224E-15	8.13234E-3	-4.18553E-3
17.5088E-6	-105.637E-15	16.9842E-3	-19.3252E-3	-155.424E-15	14.0040E-3	-2.47258E-3
12.5063E-6	-82.3124E-15	10.2675E-3	-13.9333E-3	-68.7713E-15	17.9923E-3	-6.03836E-3
7.50375E-6	-109.046E-15	10.0765E-3	-11.7753E-3	-89.8371E-15	30.0586E-3	-19.9714E-3
2.50125E-6	-184.973E-15	22.1591E-3	-15.0530E-3	-175.949E-15	39.7208E-3	-34.3736E-3
-2.50125E-6	-139.154E-15	29.5130E-3	-26.3949E-3	-205.717E-15	38.6125E-3	-25.2695E-3
-7.50375E-6	-150.724E-15	28.8045E-3	-26.5527E-3	-154.203E-15	36.4756E-3	-15.3199E-3
-12.5063E-6	-147.890E-15	24.0080E-3	-11.7940E-3	-193.824E-15	37.3880E-3	-29.8936E-3
-17.5088E-6	-260.971E-15	28.9251E-3	-11.1642E-3	-224.821E-15	38.2213E-3	-39.6687E-3
-22.5113E-6	-247.709E-15	51.3095E-3	-24.5055E-3	-209.963E-15	38.4768E-3	-34.5979E-3
-27.5138E-6	-136.930E-15	59.4929E-3	-20.6753E-3	-214.323E-15	38.8501E-3	-27.0946E-3
-32.5163E-6	-177.170E-15	36.3251E-3	-13.7287E-3	-205.717E-15	34.1142E-3	-13.6484E-3
-37.5188E-6	-308.709E-15	24.6754E-3	-22.0468E-3	-234.804E-15	30.5383E-3	-6.40559E-3
-42.5213E-6	-345.060E-15	29.3934E-3	-25.1610E-3	-209.152E-15	37.0672E-3	-11.6849E-3
-47.5238E-6	-201.157E-15	14.7870E-3	-20.3930E-3	-260.465E-15	38.8455E-3	-13.0041E-3
-52.5263E-6	-247.657E-15	2.77371E-3	-19.7390E-3	-295.839E-15	32.3009E-3	-15.4598E-3
-57.5288E-6	-315.894E-15	13.1832E-3	-18.3632E-3	-336.506E-15	28.2727E-3	-26.9460E-3
-62.5313E-6	-362.743E-15	25.6010E-3	-19.0293E-3	-266.325E-15	18.9320E-3	-25.9723E-3
-67.5338E-6	-300.792E-15	32.9248E-3	-19.7429E-3	-268.993E-15	16.1680E-3	-12.1694E-3
-72.5363E-6	-321.169E-15	36.8694E-3	-12.7801E-3	-402.607E-15	32.4814E-3	-17.5373E-3
-77.5388E-6	-400.663E-15	42.3522E-3	-8.35326E-3	-399.442E-15	54.2718E-3	-30.7296E-3
-82.5413E-6	-443.318E-15	52.4123E-3	-13.3787E-3	-320.358E-15	66.7743E-3	-24.0407E-3
-87.5438E-6	-367.538E-15	52.8942E-3	-19.9939E-3	-348.155E-15	57.4728E-3	-17.1696E-3
-92.5463E-6	-399.547E-15	42.1747E-3	-23.4540E-3	-431.843E-15	41.5083E-3	-21.7634E-3
-97.5488E-6	-431.277E-15	37.0794E-3	-26.2697E-3	-494.134E-15	40.6727E-3	-24.7480E-3
-102.551E-6	-438.967E-15	42.8105E-3	-24.1308E-3	-418.947E-15	50.1225E-3	-26.6806E-3
-107.554E-6	-418.180E-15	49.8687E-3	-19.2961E-3	-392.641E-15	55.1014E-3	-16.4116E-3
-112.556E-6	-535.995E-15	51.4448E-3	-16.4525E-3	-552.074E-15	55.9872E-3	1.51362E-3
-117.559E-6	-541.680E-15	46.6185E-3	-8.31961E-3	-570.794E-15	60.0557E-3	-850.525E-6
-122.561E-6	-463.861E-15	38.2979E-3	-395.446E-6	-498.642E-15	63.1460E-3	-11.6117E-3
-127.564E-6	-501.694E-15	38.3940E-3	-1.12416E-3	-526.221E-15	69.5145E-3	-13.2727E-3
-132.566E-6	-620.128E-15	50.3516E-3	-3.96828E-3	-625.142E-15	73.0447E-3	-17.0191E-3
-137.569E-6	-648.422E-15	61.4177E-3	-12.6503E-3	-601.783E-15	60.4038E-3	-15.5053E-3
-142.571E-6	-569.774E-15	68.8170E-3	-22.6210E-3	-639.520E-15	56.5507E-3	-12.6521E-3
-147.574E-6	-640.706E-15	77.4122E-3	-16.3772E-3	-641.333E-15	78.7331E-3	-22.6776E-3
-152.576E-6	-763.299E-15	84.9250E-3	-10.3612E-3	-698.733E-15	100.059E-3	-20.6416E-3
-157.579E-6	-781.836E-15	91.0559E-3	-16.2410E-3	-671.258E-15	107.625E-3	-6.15930E-3
-162.581E-6	-720.060E-15	95.8251E-3	-17.9444E-3	-695.114E-15	104.908E-3	-12.9765E-3
-167.584E-6	-715.709E-15	90.4578E-3	-15.2375E-3	-811.639E-15	99.9560E-3	-33.0514E-3
-172.586E-6	-861.644E-15	87.2235E-3	-14.3275E-3	-837.343E-15	108.142E-3	-33.1507E-3
-177.589E-6	-916.131E-15	96.6928E-3	-9.11427E-3	-827.970E-15	126.641E-3	-16.6452E-3
-182.591E-6	-890.880E-15	94.9937E-3	3.93931E-3	-879.100E-15	130.588E-3	-3.07607E-3
-187.594E-6	-887.697E-15	94.5254E-3	6.30634E-3	-1.02087E-12	120.588E-3	9.63285E-3
-192.596E-6	-1.00904E-12	111.910E-3	-7.75115E-3	-1.01141E-12	117.825E-3	9.15581E-3
-197.599E-6	-1.05492E-12	111.526E-3	-14.1435E-3	-949.395E-15	120.747E-3	-15.0681E-3
-202.601E-6	-987.054E-15	96.0934E-3	-16.4458E-3	-1.00165E-12	133.253E-3	-30.2146E-3
-207.604E-6	-1.09893E-12	100.573E-3	-20.4641E-3	-1.19244E-12	155.160E-3	-23.5555E-3
-212.606E-6	-1.19799E-12	116.537E-3	-20.7902E-3	-1.18796E-12	157.489E-3	-6.52963E-3
-217.609E-6	-1.19620E-12	123.838E-3	-18.4343E-3	-1.15180E-12	138.529E-3	4.93271E-3
-222.611E-6	-1.20109E-12	132.821E-3	-16.5192E-3	-1.15808E-12	143.179E-3	-8.75961E-3
-227.614E-6	-1.32031E-12	146.362E-3	-17.6132E-3	-1.32109E-12	176.524E-3	-21.9815E-3
-232.616E-6	-1.36429E-12	151.354E-3	-17.2224E-3	-1.44064E-12	196.769E-3	-20.3371E-3
-237.619E-6	-1.42693E-12	155.508E-3	-23.6045E-3	-1.37093E-12	196.040E-3	-17.0788E-3
-242.621E-6	-1.44178E-12	160.463E-3	-34.2323E-3	-1.42616E-12	198.067E-3	-9.37872E-3
-247.624E-6	-1.58611E-12	166.327E-3	-31.9756E-3	-1.53801E-12	204.643E-3	-8.23860E-3
-252.626E-6	-1.64041E-12	175.633E-3	-20.9709E-3	-1.65122E-12	217.215E-3	-17.4727E-3
-257.629E-6	-1.68271E-12	185.283E-3	-11.3148E-3	-1.64131E-12	236.980E-3	-21.7430E-3
-262.631E-6	-1.78557E-12	194.447E-3	-15.3397E-3	-1.76310E-12	249.955E-3	-11.7985E-3
-267.634E-6	-1.88833E-12	203.068E-3	-29.7239E-3	-1.85286E-12	257.467E-3	3.04563E-3
-272.636E-6	-2.02620E-12	214.928E-3	-22.5159E-3	-1.89782E-12	262.431E-3	3.02788E-3
-277.639E-6	-1.97036E-12	226.842E-3	-3.78454E-3	-2.03643E-12	269.659E-3	-6.66268E-3
-282.641E-6	-2.11617E-12	246.273E-3	-5.44776E-3	-2.15272E-12	286.157E-3	-13.1687E-3
-287.644E-6	-2.28818E-12	269.032E-3	-6.53784E-3	-2.17951E-12	300.352E-3	-15.1354E-3
-292.646E-6	-2.39226E-12	276.757E-3	-3.70582E-3	-2.26120E-12	299.039E-3	-14.5494E-3
-297.649E-6	-2.27458E-12	281.785E-3	-17.4993E-3	-2.38425E-12	306.085E-3	-19.5829E-3
-302.651E-6	-2.47520E-12	291.862E-3	-25.6805E-3	-2.55131E-12	336.539E-3	-26.7661E-3
-307.654E-6	-2.67198E-12	297.413E-3	-21.4832E-3	-2.59333E-12	354.534E-3	-30.1408E-3
-312.656E-6	-2.77619E-12	315.621E-3	-18.1766E-3	-2.65060E-12	362.715E-3	-23.6830E-3
-317.659E-6	-2.74836E-12	342.319E-3	-14.2678E-3	-2.75597E-12	381.651E-3	-13.7529E-3
-322.661E-6	-2.86840E-12	345.258E-3	-14.9074E-3	-2.97626E-12	394.517E-3	-23.4053E-3
-327.664E-6	-3.10208E-12	341.336E-3	-18.6878E-3	-3.12445E-12	400.075E-3	-29.0500E-3
-332.666E-6	-3.22327E-12	344.478E-3	-11.4601E-3	-3.06135E-12	423.229E-3	-21.2367E-3
-337.669E-6	-3.24018E-12	347.628E-3	-4.85606E-3	-3.18931E-12	447.385E-3	-22.2903E-3
-342.671E-6	-3.40891E-12	365.042E-3	-17.2928E-3	-3.50469E-12	449.286E-3	-15.8873E-3
-347.674E-6	-3.65463E-12	385.673E-3	-24.3733E-3	-3.62942E-12	453.845E-3	-10.5876E-3
-352.676E-6	-3.80411E-12	398.264E-3	-8.66764E-3	-3.59249E-12	472.492E-3	-24.7672E-3
-357.679E-6	-3.74015E-12	416.439E-3	4.44640E-3	-3.76103E-12	491.187E-3	-32.7777E-3
-362.681E-6	-4.08101E-12	435.955E-3	8.57512E-3	-3.99678E-12	501.249E-3	-22.8455E-3
-367.684E-6	-4.26515E-12	448.696E-3	13.9983E-3	-4.21410E-12	509.380E-3	-22.2642E-3
-372.686E-6	-4.41216E-12	466.365E-3	6.16701E-3	-4.33391E-12	531.309E-3	-27.0232E-3
-377.689E-6	-4.43941E-12	497.235E-3	-13.3859E-3	-4.48375E-12	556.169E-3	-18.3521E-3
-382.691E-6	-4.73861E-12	522.290E-3	-7.42667E-3	-4.63948E-12	572.718E-3	-16.4124E-3
-387.694E-6	-4.93255E-12	525.425E-3	64.3919E-6	-4.82090E-12	581.446E-3	-18.5853E-3
-392.696E-6	-5.00487E-12	535.036E-3	-18.8796E-3	-4.98999E-12	588.528E-3	-11.5290E-3
-397.699E-6	-5.21083E-12	558.055E-3	-27.7131E-3	-5.18607E-12	607.229E-3	-12.1683E-3
-402.701E-6	-5.45987E-12	569.964E-3	-25.7151E-3	-5.44827E-12	622.062E-3	-17.4440E-3
-407.704E-6	-5.64338E-12	578.454E-3	-18.6205E-3	-5.52887E-12	630.105E-3	-12.0909E-3
-412.706E-6	-5.67325E-12	588.914E-3	992.806E-6	-5.73950E-12	642.267E-3	-3.80134E-3
-417.709E-6	-5.91234E-12	599.230E-3	1.58603E-3	-6.00283E-12	654.093E-3	4.50409E-3
-422.711E-6	-6.39439E-12	611.390E-3	-10.7547E-3	-6.16314E-12	672.473E-3	11.7926E-3
-427.714E-6	-6.60873E-12	628.652E-3	-4.16237E-3	-6.28335E-12	694.658E-3	5.90511E-3
-432.716E-6	-6.59235E-12	646.950E-3	904.253E-6	-6.66633E-12	715.330E-3	-8.13539E-3
-437.719E-6	-6.79705E-12	660.655E-3	-1.99071E-3	-7.04240E-12	735.114E-3	-7.27547E-3
-442.721E-6	-7.24695E-12	672.171E-3	1.03046E-3	-7.09359E-12	742.509E-3	-11.3153E-3
-447.724E-6	-7.39010E-12	678.961E-3	-324.664E-6	-7.18880E-12	743.343E-3	-26.2926E-3
-452.726E-6	-7.64566E-12	688.411E-3	-8.40668E-3	-7.58292E-12	755.499E-3	-21.7073E-3
-457.729E-6	-7.82405E-12	710.754E-3	-6.35869E-3	-7.88958E-12	781.082E-3	-16.4550E-3
-462.731E-6	-8.04658E-12	735.715E-3	-433.577E-6	-8.00900E-12	803.173E-3	-19.6576E-3
-467.734E-6	-8.43431E-12	755.023E-3	-7.83032E-3	-8.30066E-12	806.959E-3	-12.6956E-3
-472.736E-6	-8.82391E-12	769.590E-3	-21.0227E-3	-8.65498E-12	812.268E-3	-6.59777E-3
-477.739E-6	-8.86612E-12	770.848E-3	-26.1390E-3	-8.95159E-12	834.739E-3	-16.1118E-3
-482.741E-6	-9.04742E-12	775.745E-3	-26.5788E-3	-9.12206E-12	858.216E-3	-22.4163E-3
-487.744E-6	-9.45458E-12	807.653E-3	-22.5768E-3	-9.28173E-12	874.294E-3	-21.9425E-3
-492.746E-6	-9.82597E-12	837.512E-3	-11.6556E-3	-9.55763E-12	874.598E-3	-31.1561E-3
-497.749E-6	-10.2488E-12	846.796E-3	-9.87082E-3	-9.97411E-12	860.570E-3	-36.2103E-3
-502.751E-6	-10.4047E-12	853.421E-3	-14.1300E-3	-10.1945E-12	863.962E-3	-32.3078E-3
-507.754E-6	-10.5707E-12	857.117E-3	-12.4598E-3	-10.2374E-12	885.051E-3	-22.9587E-3
-512.756E-6	-11.0038E-12	868.383E-3	-15.1441E-3	-10.6772E-12	895.909E-3	-5.99725E-3
-517.759E-6	-11.5822E-12	899.176E-3	-23.1777E-3	-11.1126E-12	907.036E-3	-2.03675E-3
-522.761E-6	-11.7301E-12	921.139E-3	-27.1900E-3	-11.3378E-12	926.935E-3	-3.82125E-3
-527.764E-6	-11.7342E-12	924.914E-3	-31.9139E-3	-11.5199E-12	933.346E-3	3.71329E-3
-532.766E-6	-12.0504E-12	929.211E-3	-38.2858E-3	-12.0649E-12	926.750E-3	2.40664E-3
-537.769E-6	-13.0174E-12	932.383E-3	-32.9994E-3	-12.5530E-12	927.919E-3	-11.9844E-3
-542.771E-6	-13.2542E-12	942.563E-3	-16.2228E-3	-12.4748E-12	936.992E-3	-16.9967E-3
-547.774E-6	-12.9424E-12	977.523E-3	-10.7458E-3	-12.7081E-12	947.766E-3	-13.1486E-3
-552.776E-6	-13.1345E-12	995.812E-3	-16.6746E-3	-13.0350E-12	962.124E-3	-26.1079E-3
-557.779E-6	-13.9749E-12	967.895E-3	-21.1960E-3	-13.4211E-12	975.636E-3	-34.2857E-3
-562.781E-6	-14.6293E-12	956.953E-3	-19.2177E-3	-13.8755E-12	987.613E-3	-22.6853E-3
-567.784E-6	-14.3316E-12	991.255E-3	-6.05756E-3	-14.4916E-12	1.00534E+0	-19.8149E-3
-572.786E-6	-14.6787E-12	1.01687E+0	-3.13168E-3	-14.9853E-12	1.01869E+0	-23.2734E-3
-577.789E-6	-15.8347E-12	1.00615E+0	-17.5023E-3	-15.1190E-12	1.00985E+0	-18.0383E-3
-582.791E-6	-16.4587E-12	992.896E-3	-25.6885E-3	-15.4781E-12	998.460E-3	-22.3911E-3
-587.794E-6	-16.2337E-12	1.00709E+0	-22.7839E-3	-16.0857E-12	1.00010E+0	-26.8258E-3
-592.796E-6	-16.2585E-12	1.03347E+0	-17.4534E-3	-16.4466E-12	1.00274E+0	-15.3944E-3
-597.799E-6	-17.0750E-12	1.04359E+0	-16.2400E-3	-16.5555E-12	1.00566E+0	-24.5010E-3
-602.801E-6	-17.7997E-12	1.02951E+0	-23.2275E-3	-16.7539E-12	1.00323E+0	-37.7413E-3
-607.804E-6	-17.7266E-12	1.02286E+0	-23.8902E-3	-17.5042E-12	996.538E-3	-19.9278E-3
-612.806E-6	-17.6090E-12	1.04480E+0	-4.57716E-3	-17.8202E-12	997.442E-3	-4.40759E-3
-617.809E-6	-18.1397E-12	1.05174E+0	2.95251E-3	-17.9708E-12	997.207E-3	-15.0593E-3
-622.811E-6	-18.6226E-12	1.03593E+0	-11.4156E-3	-17.9598E-12	984.333E-3	-28.9064E-3
-627.814E-6	-19.0997E-12	1.03243E+0	-3.39320E-3	-18.5779E-12	967.807E-3	-25.4831E-3
-632.816E-6	-19.1156E-12	1.03340E+0	13.9508E-3	-19.1342E-12	955.267E-3	-15.9731E-3
-637.819E-6	-19.3443E-12	1.03537E+0	-845.738E-6	-18.9893E-12	958.889E-3	-11.6569E-3
-642.821E-6	-19.4410E-12	1.03262E+0	-15.6552E-3	-19.0333E-12	978.761E-3	-7.98337E-3
-647.824E-6	-20.0165E-12	1.01022E+0	-11.8802E-3	-19.5939E-12	974.344E-3	-6.81174E-3
-652.826E-6	-20.4376E-12	998.147E-3	-18.5317E-3	-20.3687E-12	934.320E-3	-5.22087E-3
-657.829E-6	-20.2163E-12	1.00740E+0	-23.2831E-3	-20.6053E-12	905.756E-3	-6.21650E-3
-662.831E-6	-20.5936E-12	998.780E-3	-10.0865E-3	-20.6511E-12	913.310E-3	-8.79684E-3
-667.834E-6	-21.3322E-12	978.395E-3	-4.99991E-3	-20.7726E-12	929.485E-3	4.09424E-3
-672.836E-6	-22.1049E-12	981.407E-3	-3.42086E-3	-20.9352E-12	920.393E-3	11.7365E-3
-677.839E-6	-22.0748E-12	984.440E-3	13.4726E-3	-21.6908E-12	890.965E-3	-2.53444E-3
-682.841E-6	-21.7917E-12	968.044E-3	13.1413E-3	-22.0587E-12	883.655E-3	-8.81396E-3
-687.844E-6	-22.1652E-12	951.424E-3	-7.43546E-3	-21.5837E-12	892.808E-3	-2.09289E-3
-692.846E-6	-23.0657E-12	934.609E-3	-18.6643E-3	-21.8206E-12	876.966E-3	-1.61314E-3
-697.849E-6	-23.6377E-12	920.019E-3	-25.0797E-3	-22.5671E-12	844.589E-3	-11.1235E-3
-702.851E-6	-23.2869E-12	926.504E-3	-23.5994E-3	-22.9454E-12	829.378E-3	-19.4538E-3
-707.854E-6	-23.3415E-12	926.719E-3	-19.9302E-3	-23.0819E-12	844.834E-3	-12.6981E-3
-712.856E-6	-24.3017E-12	900.176E-3	-26.2276E-3	-23.1117E-12	869.861E-3	-6.41170E-3
-717.859E-6	-24.8150E-12	890.051E-3	-24.3226E-3	-23.3428E-12	869.806E-3	-11.2302E-3
-722.861E-6	-24.5046E-12	904.870E-3	-19.1156E-3	-24.0275E-12	846.448E-3	-14.4997E-3
-727.864E-6	-24.5674E-12	899.973E-3	-31.5679E-3	-25.0655E-12	825.752E-3	-9.57215E-3
-732.866E-6	-25.5757E-12	872.535E-3	-48.0390E-3	-24.4170E-12	815.449E-3	-3.93667E-3
-737.869E-6	-26.1559E-12	857.561E-3	-37.9799E-3	-24.5004E-12	810.708E-3	-2.80636E-3
-742.871E-6	-25.9913E-12	860.462E-3	-17.1706E-3	-25.6026E-12	800.817E-3	-2.27107E-3
-747.874E-6	-25.5816E-12	862.886E-3	-25.4373E-3	-26.3189E-12	786.343E-3	-4.96939E-3
-752.876E-6	-25.6466E-12	852.553E-3	-35.8160E-3	-25.7671E-12	779.950E-3	-5.77108E-3
-757.879E-6	-26.2312E-12	825.813E-3	-25.6135E-3	-25.7911E-12	767.734E-3	-3.11877E-3
-762.881E-6	-26.5157E-12	790.753E-3	-14.9517E-3	-26.4835E-12	745.564E-3	-3.75118E-3
-767.884E-6	-26.4309E-12	767.175E-3	-7.68769E-3	-27.0567E-12	723.935E-3	-4.65470E-3
-772.886E-6	-26.0217E-12	753.553E-3	-6.02141E-3	-27.5291E-12	699.248E-3	4.39035E-3
-777.889E-6	-26.7205E-12	738.465E-3	-9.29302E-3	-26.7488E-12	686.604E-3	7.72675E-3
-782.891E-6	-27.6980E-12	728.912E-3	-9.41010E-3	-26.8875E-12	688.646E-3	-10.8001E-3
-787.894E-6	-27.5778E-12	725.757E-3	-12.7502E-3	-27.6325E-12	686.745E-3	-21.4379E-3
-792.896E-6	-27.6855E-12	721.009E-3	-25.0597E-3	-28.3583E-12	676.116E-3	-16.3336E-3
-797.899E-6	-27.9513E-12	718.836E-3	-29.7248E-3	-28.2673E-12	661.754E-3	-11.0304E-3
-802.901E-6	-28.0918E-12	701.776E-3	-22.3049E-3	-28.2649E-12	654.942E-3	-9.20313E-3
-807.904E-6	-28.3522E-12	674.203E-3	-18.3322E-3	-28.7715E-12	649.021E-3	-20.6675E-3
-812.906E-6	-28.6711E-12	668.885E-3	-13.8746E-3	-29.3687E-12	623.851E-3	-32.7746E-3
-817.909E-6	-29.1203E-12	668.265E-3	-6.62129E-3	-29.0958E-12	593.779E-3	-30.9980E-3
-822.911E-6	-29.3269E-12	657.002E-3	-12.1746E-3	-28.8779E-12	587.860E-3	-28.0280E-3
-827.914E-6	-29.8828E-12	649.518E-3	-23.4673E-3	-29.5047E-12	579.871E-3	-23.8179E-3
-832.916E-6	-30.1951E-12	637.916E-3	-22.7906E-3	-30.4849E-12	550.439E-3	-20.5969E-3
-837.919E-6	-29.6227E-12	617.165E-3	-23.4849E-3	-30.6953E-12	532.132E-3	-14.3829E-3
-842.921E-6	-29.7397E-12	607.105E-3	-20.4826E-3	-30.0465E-12	530.483E-3	4.84232E-3
-847.924E-6	-29.9533E-12	592.953E-3	-8.86335E-3	-30.2034E-12	523.916E-3	3.63033E-3
-852.926E-6	-30.1826E-12	566.577E-3	-11.6095E-3	-30.6117E-12	499.578E-3	-26.4468E-3
-857.929E-6	-29.8481E-12	553.874E-3	-19.2075E-3	-31.3339E-12	477.501E-3	-38.0585E-3
-862.931E-6	-30.3322E-12	541.327E-3	-12.9533E-3	-30.9236E-12	468.844E-3	-25.5411E-3
-867.934E-6	-30.7671E-12	519.441E-3	-6.51670E-3	-30.5894E-12	459.226E-3	-9.68595E-3
-872.936E-6	-30.3108E-12	498.316E-3	-9.14251E-3	-31.3565E-12	451.948E-3	819.005E-6
-877.939E-6	-30.0144E-12	482.231E-3	-12.0236E-3	-32.1713E-12	433.325E-3	-15.9982E-3
-882.941E-6	-30.8135E-12	461.759E-3	-14.4731E-3	-32.2356E-12	410.745E-3	-28.3701E-3
-887.944E-6	-31.3573E-12	438.713E-3	-15.1742E-3	-31.4664E-12	421.233E-3	-17.1663E-3
-892.946E-6	-30.8761E-12	437.981E-3	-4.95125E-3	-31.2375E-12	435.169E-3	-24.3773E-3
-897.949E-6	-31.3560E-12	434.704E-3	-3.85778E-3	-31.7706E-12	413.165E-3	-29.9575E-3
-902.951E-6	-32.1560E-12	425.085E-3	-17.8429E-3	-32.7922E-12	389.842E-3	-14.1856E-3
-907.954E-6	-32.6354E-12	419.853E-3	-16.7687E-3	-32.4166E-12	389.360E-3	-1.51199E-3
-912.956E-6	-32.0549E-12	398.852E-3	-21.7577E-3	-31.9889E-12	385.628E-3	3.09398E-3
-917.959E-6	-32.6233E-12	392.315E-3	-32.7624E-3	-32.4698E-12	366.781E-3	-7.55841E-3
-922.961E-6	-32.9836E-12	400.891E-3	-17.9745E-3	-33.1208E-12	360.678E-3	-15.4768E-3
-927.964E-6	-33.4164E-12	393.451E-3	-12.2963E-3	-33.3717E-12	373.627E-3	-4.84442E-3
-932.966E-6	-32.9599E-12	383.589E-3	-25.2656E-3	-33.0291E-12	368.377E-3	-7.92512E-3
-937.969E-6	-32.6248E-12	374.858E-3	-17.5229E-3	-33.4480E-12	344.315E-3	-21.0990E-3
-942.971E-6	-33.7461E-12	358.775E-3	-8.16641E-3	-33.6616E-12	326.346E-3	-20.2701E-3
-947.974E-6	-33.7143E-12	351.145E-3	-19.2336E-3	-34.5713E-12	315.445E-3	-17.5188E-3
-952.976E-6	-33.0294E-12	347.226E-3	-22.3955E-3	-33.8456E-12	314.180E-3	-20.7350E-3
-957.979E-6	-32.6193E-12	324.924E-3	-12.9914E-3	-33.4870E-12	303.081E-3	-26.6990E-3
-962.981E-6	-33.4958E-12	301.519E-3	190.805E-6	-33.6146E-12	276.526E-3	-25.5609E-3
-967.984E-6	-33.4534E-12	304.690E-3	6.79611E-3	-33.7070E-12	272.349E-3	-24.2425E-3
-972.986E-6	-33.1847E-12	319.131E-3	2.54263E-3	-33.7131E-12	281.739E-3	-34.5916E-3
-977.989E-6	-33.3810E-12	322.437E-3	-3.08044E-3	-33.8831E-12	278.191E-3	-27.9121E-3
-982.991E-6	-33.7173E-12	318.118E-3	-15.1454E-3	-33.8730E-12	268.692E-3	-10.1499E-3
-987.994E-6	-33.4753E-12	313.629E-3	-21.6158E-3	-33.9957E-12	264.363E-3	-10.1213E-3
-992.997E-6	-33.3133E-12	314.104E-3	-22.6496E-3	-33.9828E-12	274.530E-3	-3.93740E-3
-997.999E-6	-33.5198E-12	310.939E-3	-19.1309E-3	-34.2606E-12	282.664E-3	-2.09686E-3
-1.00300E-3	-34.3914E-12	297.765E-3	-5.17319E-3	-33.7316E-12	271.332E-3	-25.3691E-3
-1.00800E-3	-35.1782E-12	290.925E-3	-3.64205E-3	-33.8987E-12	272.474E-3	-36.3241E-3
-1.01301E-3	-35.2915E-12	298.610E-3	-7.39343E-3	-34.5423E-12	278.285E-3	-29.0598E-3
-1.01801E-3	-34.9177E-12	289.533E-3	-8.49264E-3	-34.8777E-12	269.226E-3	-18.2246E-3
-1.02301E-3	-34.8084E-12	266.332E-3	-20.9470E-3	-34.6909E-12	266.127E-3	-5.30166E-3
-1.02801E-3	-35.3840E-12	273.577E-3	-25.3260E-3	-35.5257E-12	269.283E-3	-5.79476E-3
-1.03302E-3	-35.9643E-12	288.821E-3	-10.5689E-3	-35.5553E-12	281.611E-3	-24.3543E-3
-1.03802E-3	-35.9860E-12	270.422E-3	-11.2028E-3	-34.8103E-12	289.572E-3	-45.8160E-3
-1.04302E-3	-35.4853E-12	253.153E-3	-22.2054E-3	-34.8413E-12	286.068E-3	-36.7041E-3
-1.04802E-3	-36.1335E-12	258.516E-3	-16.2476E-3	-34.8634E-12	286.298E-3	-6.72164E-3
-1.05303E-3	-35.9078E-12	261.588E-3	-16.7839E-3	-35.2020E-12	275.718E-3	3.17488E-3
-1.05803E-3	-36.9606E-12	276.608E-3	-25.1370E-3	-35.4141E-12	275.017E-3	2.90156E-3
-1.06303E-3	-37.1697E-12	287.293E-3	-13.1328E-3	-34.9505E-12	303.445E-3	2.13209E-3
-1.06803E-3	-35.7018E-12	275.416E-3	2.53687E-3	-34.6336E-12	310.116E-3	-10.8737E-3
-1.07304E-3	-36.2344E-12	278.436E-3	-1.89070E-3	-35.1462E-12	295.457E-3	-20.6240E-3
-1.07804E-3	-36.3532E-12	291.622E-3	-9.87813E-3	-36.0816E-12	300.244E-3	-21.4809E-3
-1.08304E-3	-36.8833E-12	291.692E-3	-19.0391E-3	-34.8531E-12	308.591E-3	-26.5492E-3
-1.08804E-3	-36.3856E-12	286.508E-3	-24.4762E-3	-34.5869E-12	311.273E-3	-22.8666E-3
-1.09305E-3	-36.6883E-12	280.853E-3	-11.4943E-3	-35.1153E-12	318.233E-3	-17.0619E-3
-1.09805E-3	-37.0397E-12	281.845E-3	-4.69846E-3	-35.7744E-12	331.249E-3	-18.5179E-3
-1.10305E-3	-37.0232E-12	302.831E-3	-20.9855E-3	-35.6150E-12	340.203E-3	-19.3716E-3
-1.10805E-3	-36.7002E-12	327.432E-3	-23.2247E-3	-35.1030E-12	336.922E-3	-27.1533E-3
-1.11306E-3	-36.0286E-12	331.891E-3	-3.89223E-3	-35.3805E-12	344.869E-3	-31.7087E-3
-1.11806E-3	-37.3142E-12	330.781E-3	3.46176E-3	-35.9696E-12	366.333E-3	-29.6009E-3
-1.12306E-3	-38.4033E-12	337.674E-3	11.2249E-3	-36.4982E-12	380.491E-3	-24.9850E-3
-1.12806E-3	-37.9528E-12	333.385E-3	17.9491E-3	-35.4820E-12	388.997E-3	-18.6159E-3
-1.13307E-3	-37.5676E-12	332.894E-3	-307.015E-6	-35.4430E-12	402.529E-3	-25.7471E-3
-1.13807E-3	-39.2743E-12	349.526E-3	-19.9051E-3	-36.5755E-12	413.350E-3	-24.7606E-3
-1.14307E-3	-39.1874E-12	360.360E-3	-25.4446E-3	-37.1651E-12	406.244E-3	-15.2348E-3
-1.14807E-3	-38.2275E-12	381.955E-3	-28.2536E-3	-36.7644E-12	406.348E-3	-25.2245E-3
-1.15308E-3	-37.8645E-12	410.762E-3	-19.7722E-3	-36.6731E-12	428.760E-3	-29.1938E-3
-1.15808E-3	-38.8759E-12	415.676E-3	-9.55082E-3	-37.7163E-12	443.915E-3	-14.0073E-3
-1.16308E-3	-39.1062E-12	405.639E-3	-11.6884E-3	-38.7452E-12	448.112E-3	-3.34602E-3
-1.16808E-3	-39.6118E-12	400.281E-3	-17.7949E-3	-38.7516E-12	458.952E-3	2.11846E-3
-1.17309E-3	-39.2452E-12	407.634E-3	-18.3632E-3	-37.7788E-12	470.013E-3	-8.05108E-3
-1.17809E-3	-38.7375E-12	416.780E-3	-15.0140E-3	-38.2857E-12	471.640E-3	-28.0690E-3
-1.18309E-3	-38.8065E-12	435.441E-3	-15.9255E-3	-39.0781E-12	474.862E-3	-19.5174E-3
-1.18809E-3	-39.1461E-12	444.407E-3	-23.9099E-3	-39.8354E-12	492.918E-3	-7.86862E-3
-1.19310E-3	-39.0543E-12	435.861E-3	-37.9779E-3	-38.9406E-12	512.844E-3	-9.40935E-3
-1.19810E-3	-38.7731E-12	459.874E-3	-38.5075E-3	-38.6925E-12	522.012E-3	-2.90495E-3
-1.20310E-3	-39.7224E-12	489.335E-3	-23.7234E-3	-39.5992E-12	527.976E-3	-5.73710E-3
-1.20810E-3	-39.1874E-12	495.306E-3	-28.6237E-3	-39.8983E-12	544.461E-3	-17.0919E-3
-1.21311E-3	-39.6284E-12	512.265E-3	-32.3986E-3	-39.3656E-12	571.738E-3	-3.90108E-3
-1.21811E-3	-39.6133E-12	521.896E-3	-2.15168E-3	-39.1487E-12	592.416E-3	12.3170E-3
-1.22311E-3	-39.9392E-12	522.668E-3	9.67235E-3	-39.2564E-12	607.669E-3	4.29591E-3
-1.22811E-3	-39.6412E-12	547.035E-3	-1.17740E-3	-39.5206E-12	617.893E-3	-11.4909E-3
-1.23312E-3	-40.4088E-12	570.227E-3	4.12600E-3	-40.4740E-12	621.687E-3	-27.9472E-3
-1.23812E-3	-41.5663E-12	581.761E-3	-6.32231E-3	-39.9761E-12	629.766E-3	-36.7387E-3
-1.24312E-3	-41.3098E-12	592.879E-3	-27.0661E-3	-39.8894E-12	641.699E-3	-28.5451E-3
-1.24812E-3	-41.0685E-12	603.028E-3	-24.2472E-3	-40.6853E-12	664.593E-3	-19.8592E-3
-1.25313E-3	-41.6980E-12	619.336E-3	-14.3345E-3	-41.8700E-12	699.626E-3	-25.8037E-3
-1.25813E-3	-42.4866E-12	638.806E-3	-13.7445E-3	-42.3018E-12	719.839E-3	-25.9751E-3
-1.26313E-3	-42.1381E-12	654.679E-3	-20.9807E-3	-41.5590E-12	732.843E-3	-14.5117E-3
-1.26813E-3	-41.8952E-12	660.406E-3	-25.0986E-3	-42.0966E-12	744.367E-3	-11.2037E-3
-1.27314E-3	-42.3026E-12	660.550E-3	-23.3406E-3	-42.9148E-12	744.315E-3	-11.6485E-3
-1.27814E-3	-42.4512E-12	670.919E-3	-23.5969E-3	-42.6325E-12	754.912E-3	-13.3182E-3
-1.28314E-3	-42.3313E-12	682.913E-3	-25.9833E-3	-42.2606E-12	771.698E-3	-25.0122E-3
-1.28814E-3	-41.9419E-12	698.114E-3	-26.2097E-3	-42.5595E-12	778.287E-3	-24.6733E-3
-1.29315E-3	-42.3807E-12	717.305E-3	-13.9816E-3	-43.6601E-12	785.264E-3	-11.4238E-3
-1.29815E-3	-42.5002E-12	726.251E-3	-334.769E-6	-43.0218E-12	792.117E-3	-8.69915E-3
-1.30315E-3	-42.0342E-12	737.901E-3	-7.71226E-3	-43.1264E-12	810.919E-3	-11.1138E-3
-1.30815E-3	-42.0048E-12	761.999E-3	-16.8792E-3	-42.8257E-12	842.030E-3	-16.1754E-3
-1.31316E-3	-42.4586E-12	773.768E-3	-15.4260E-3	-43.7110E-12	849.684E-3	-30.0588E-3
-1.31816E-3	-43.1512E-12	776.671E-3	-15.6313E-3	-44.3690E-12	851.893E-3	-35.7605E-3
-1.32316E-3	-44.1568E-12	797.059E-3	-16.4825E-3	-44.3194E-12	864.808E-3	-23.0676E-3
-1.32816E-3	-44.1629E-12	810.429E-3	-21.4639E-3	-43.8844E-12	863.755E-3	-16.3638E-3
-1.33317E-3	-44.1856E-12	802.806E-3	-26.5583E-3	-43.8674E-12	866.490E-3	-8.06501E-3
-1.33817E-3	-44.6084E-12	820.106E-3	-21.8430E-3	-45.5803E-12	895.391E-3	1.38592E-3
-1.34317E-3	-45.5944E-12	849.219E-3	-11.7786E-3	-46.1982E-12	925.605E-3	-4.25201E-3
-1.34817E-3	-45.9855E-12	847.426E-3	-9.57554E-3	-46.2234E-12	940.012E-3	-14.6335E-3
-1.35318E-3	-45.5739E-12	849.571E-3	-11.2645E-3	-46.4038E-12	947.951E-3	-21.0604E-3
-1.35818E-3	-45.6966E-12	875.477E-3	2.50243E-3	-47.3962E-12	957.850E-3	-22.9976E-3
-1.36318E-3	-46.6017E-12	900.770E-3	11.8369E-3	-47.2327E-12	954.766E-3	-23.7897E-3
-1.36818E-3	-46.9383E-12	922.928E-3	7.15550E-3	-47.5037E-12	950.134E-3	-9.91670E-3
-1.37319E-3	-47.1591E-12	936.690E-3	1.03092E-3	-48.2823E-12	972.790E-3	9.73449E-3
-1.37819E-3	-47.2498E-12	941.118E-3	-15.5031E-3	-49.1962E-12	983.940E-3	8.63865E-3
-1.38319E-3	-47.9842E-12	949.399E-3	-24.7298E-3	-49.4485E-12	978.844E-3	2.78981E-3
-1.38819E-3	-48.4775E-12	956.935E-3	-10.7386E-3	-48.8733E-12	993.577E-3	-2.93342E-3
-1.39320E-3	-48.9624E-12	962.165E-3	-11.1509E-3	-48.8702E-12	1.00722E+0	-22.4554E-3
-1.39820E-3	-48.3740E-12	962.735E-3	-14.1339E-3	-49.3665E-12	1.00697E+0	-24.8426E-3
-1.40320E-3	-48.6446E-12	956.763E-3	-7.75300E-3	-50.9095E-12	997.877E-3	-8.16803E-3
-1.40820E-3	-49.9145E-12	970.658E-3	-20.4564E-3	-50.5472E-12	986.992E-3	-12.4275E-3
-1.41321E-3	-50.2798E-12	996.712E-3	-36.3396E-3	-49.8831E-12	989.663E-3	-27.2709E-3
-1.41821E-3	-50.2528E-12	999.856E-3	-34.5988E-3	-49.6324E-12	995.673E-3	-28.0365E-3
-1.42321E-3	-50.0368E-12	995.721E-3	-22.6615E-3	-50.5339E-12	1.00288E+0	-23.1474E-3
-1.42821E-3	-51.2969E-12	1.00184E+0	-18.5478E-3	-50.4858E-12	1.01709E+0	-19.6265E-3
-1.43322E-3	-52.2093E-12	1.01936E+0	-13.6323E-3	-50.1502E-12	1.02896E+0	-13.9420E-3
-1.43822E-3	-53.0269E-12	1.03683E+0	-10.2374E-3	-50.7792E-12	1.03844E+0	-16.5916E-3
-1.44322E-3	-52.4817E-12	1.04771E+0	-22.4202E-3	-51.5892E-12	1.05196E+0	-28.1725E-3
-1.44822E-3	-52.9509E-12	1.04802E+0	-18.1286E-3	-52.4216E-12	1.07215E+0	-25.2031E-3
-1.45323E-3	-54.2148E-12	1.03280E+0	-3.74461E-3	-52.7653E-12	1.08475E+0	-17.1290E-3
-1.45823E-3	-54.2969E-12	1.03902E+0	-11.3986E-3	-53.3860E-12	1.07782E+0	-22.4958E-3
-1.46323E-3	-54.2378E-12	1.07418E+0	-12.7507E-3	-54.3255E-12	1.06291E+0	-23.2651E-3
-1.46823E-3	-54.4848E-12	1.08615E+0	-8.44039E-3	-54.7943E-12	1.06105E+0	-8.78530E-3
-1.47324E-3	-55.2959E-12	1.07257E+0	-19.9930E-3	-55.4201E-12	1.06495E+0	-3.14702E-3
-1.47824E-3	-55.7012E-12	1.07019E+0	-23.8325E-3	-55.0647E-12	1.06017E+0	-16.9873E-3
-1.48324E-3	-56.8773E-12	1.06372E+0	-7.24084E-3	-55.4296E-12	1.05861E+0	-24.7573E-3
-1.48824E-3	-56.1558E-12	1.05754E+0	-2.15267E-3	-56.1469E-12	1.05944E+0	-12.9618E-3
-1.49325E-3	-55.4493E-12	1.07724E+0	-13.6037E-3	-56.7457E-12	1.06064E+0	-1.42861E-3
-1.49825E-3	-56.5024E-12	1.08674E+0	-12.3623E-3	-56.4553E-12	1.05832E+0	-3.65233E-3
-1.50325E-3	-56.5651E-12	1.06941E+0	-3.19674E-3	-56.4502E-12	1.04965E+0	-3.11753E-3
-1.50825E-3	-56.5685E-12	1.06236E+0	5.78722E-3	-56.6851E-12	1.04644E+0	-7.11786E-3
-1.51326E-3	-55.5985E-12	1.06552E+0	12.7859E-3	-57.1181E-12	1.04684E+0	-19.6715E-3
-1.51826E-3	-56.6825E-12	1.06149E+0	2.84552E-3	-57.1348E-12	1.04357E+0	-19.3138E-3
-1.52326E-3	-57.3793E-12	1.05646E+0	-5.27870E-3	-57.4925E-12	1.04288E+0	-9.53141E-3
-1.52826E-3	-58.0515E-12	1.05971E+0	5.05652E-3	-58.0440E-12	1.04701E+0	-7.80294E-3
-1.53327E-3	-57.6896E-12	1.06590E+0	6.45192E-3	-58.2022E-12	1.04785E+0	-22.0960E-3
-1.53827E-3	-57.4132E-12	1.06513E+0	-11.9961E-3	-58.0658E-12	1.03941E+0	-35.6985E-3
-1.54327E-3	-58.7774E-12	1.05437E+0	-27.8745E-3	-58.8062E-12	1.02918E+0	-29.5785E-3
-1.54827E-3	-60.0431E-12	1.04042E+0	-28.2814E-3	-59.1787E-12	1.02671E+0	-20.3348E-3
-1.55328E-3	-60.3701E-12	1.04657E+0	-22.4174E-3	-59.8604E-12	1.03726E+0	-20.0969E-3
-1.55828E-3	-59.3899E-12	1.04826E+0	-14.2776E-3	-60.1005E-12	1.04966E+0	-13.4680E-3
-1.56328E-3	-60.4646E-12	1.03875E+0	-15.8572E-3	-60.1491E-12	1.03922E+0	-9.42685E-3
-1.56828E-3	-61.6997E-12	1.04525E+0	-21.3739E-3	-61.3767E-12	1.02508E+0	-15.9441E-3
-1.57329E-3	-62.3589E-12	1.04193E+0	-9.00639E-3	-62.3550E-12	1.03375E+0	-23.7310E-3
-1.57829E-3	-62.7459E-12	1.03601E+0	4.71695E-3	-62.8790E-12	1.02590E+0	-38.0978E-3
-1.58329E-3	-61.8821E-12	1.04801E+0	5.34367E-3	-62.5954E-12	997.253E-3	-42.0188E-3
-1.58829E-3	-62.6031E-12	1.04789E+0	10.5891E-3	-62.8475E-12	982.514E-3	-28.8304E-3
-1.59330E-3	-63.4450E-12	1.03152E+0	11.1836E-3	-63.5084E-12	979.485E-3	-23.3171E-3
-1.59830E-3	-62.9403E-12	1.01917E+0	-19.2976E-3	-63.9571E-12	993.359E-3	-9.79215E-3
-1.60330E-3	-62.2793E-12	1.01363E+0	-49.6809E-3	-64.3655E-12	1.01072E+0	9.26770E-3
-1.60830E-3	-62.9779E-12	1.00418E+0	-44.9483E-3	-63.9614E-12	1.00989E+0	63.6772E-6
-1.61331E-3	-63.4895E-12	992.950E-3	-33.8056E-3	-64.2321E-12	999.521E-3	-17.0996E-3
-1.61831E-3	-63.5598E-12	990.992E-3	-25.5806E-3	-65.3023E-12	986.376E-3	-15.6126E-3
-1.62331E-3	-63.8951E-12	984.648E-3	-9.88226E-3	-65.2038E-12	967.501E-3	-8.96646E-3
-1.62831E-3	-63.5001E-12	978.816E-3	-21.9256E-3	-64.5940E-12	964.445E-3	-13.2665E-3
-1.63332E-3	-64.4955E-12	987.877E-3	-41.3857E-3	-64.3570E-12	980.945E-3	-23.7830E-3
-1.63832E-3	-65.4150E-12	991.083E-3	-38.0510E-3	-65.3973E-12	979.876E-3	-27.0460E-3
-1.64332E-3	-64.7596E-12	979.891E-3	-46.8076E-3	-66.5460E-12	957.045E-3	-32.0061E-3
-1.64832E-3	-64.5215E-12	974.008E-3	-52.5980E-3	-66.7235E-12	947.161E-3	-34.3445E-3
-1.65333E-3	-66.8087E-12	960.294E-3	-32.4743E-3	-65.5247E-12	964.795E-3	-34.5127E-3
-1.65833E-3	-68.0593E-12	944.437E-3	-12.5988E-3	-66.7388E-12	975.373E-3	-32.8471E-3
-1.66333E-3	-67.6789E-12	945.030E-3	3.75933E-3	-67.9279E-12	956.490E-3	-20.5570E-3
-1.66833E-3	-67.9841E-12	942.395E-3	15.6612E-3	-68.4594E-12	936.188E-3	-22.9192E-3
-1.67334E-3	-69.0239E-12	943.071E-3	345.258E-6	-68.2293E-12	942.404E-3	-30.9733E-3
-1.67834E-3	-68.7572E-12	949.599E-3	-27.7708E-3	-68.8250E-12	964.695E-3	-14.3282E-3
-1.68334E-3	-69.3088E-12	949.954E-3	-26.9377E-3	-69.6364E-12	968.951E-3	3.00302E-3
-1.68834E-3	-69.9716E-12	957.328E-3	-1.07530E-3	-70.5765E-12	955.353E-3	255.014E-6
-1.69335E-3	-69.2915E-12	979.196E-3	3.49030E-3	-69.8931E-12	949.943E-3	-9.02475E-3
-1.69835E-3	-69.6467E-12	982.880E-3	-14.3306E-3	-70.5350E-12	945.327E-3	-16.5590E-3
-1.70335E-3	-70.3646E-12	946.229E-3	-20.4617E-3	-71.7328E-12	936.739E-3	-19.3872E-3
-1.70835E-3	-71.2414E-12	916.599E-3	-21.4932E-3	-72.4144E-12	926.412E-3	-19.0781E-3
-1.71336E-3	-70.0790E-12	917.028E-3	-21.3154E-3	-72.1283E-12	920.619E-3	-10.1807E-3
-1.71836E-3	-69.2553E-12	908.962E-3	-9.55718E-3	-71.9369E-12	922.641E-3	-12.6274E-3
-1.72336E-3	-69.9447E-12	894.323E-3	-1.60544E-3	-71.5716E-12	911.876E-3	-25.3167E-3
-1.72836E-3	-70.8883E-12	897.454E-3	-4.61492E-3	-71.5536E-12	894.929E-3	-13.0794E-3
-1.73337E-3	-71.0520E-12	916.455E-3	-8.02185E-3	-72.0389E-12	884.347E-3	-5.02359E-3
-1.73837E-3	-70.7418E-12	925.895E-3	-9.39553E-3	-72.0702E-12	873.522E-3	-18.0946E-3
-1.74337E-3	-71.4425E-12	904.701E-3	-2.51733E-3	-71.4337E-12	872.080E-3	-27.7301E-3
-1.74837E-3	-72.6631E-12	882.258E-3	3.44613E-3	-71.0588E-12	870.717E-3	-18.6732E-3
-1.75338E-3	-73.0669E-12	888.602E-3	-5.29473E-3	-71.9467E-12	865.566E-3	502.773E-6
-1.75838E-3	-73.3706E-12	903.925E-3	-14.3883E-3	-71.6288E-12	870.403E-3	-2.09284E-3
-1.76338E-3	-73.6387E-12	899.107E-3	-15.7645E-3	-72.1156E-12	875.905E-3	-17.7539E-3
-1.76838E-3	-74.8477E-12	891.993E-3	-20.6755E-3	-72.0342E-12	878.592E-3	-14.8061E-3
-1.77339E-3	-75.4124E-12	905.923E-3	-24.2259E-3	-72.8174E-12	871.403E-3	-4.46531E-3
-1.77839E-3	-74.7232E-12	909.620E-3	-21.2292E-3	-73.8615E-12	855.115E-3	3.04537E-3
-1.78339E-3	-75.3501E-12	904.830E-3	-22.6557E-3	-75.0459E-12	848.322E-3	705.697E-6
-1.78839E-3	-75.8457E-12	916.944E-3	-17.9307E-3	-74.5306E-12	855.631E-3	-5.66910E-3
-1.79340E-3	-76.4678E-12	909.868E-3	-6.70765E-3	-74.4504E-12	861.092E-3	1.83548E-3
-1.79840E-3	-75.6501E-12	883.395E-3	-9.22432E-3	-75.8162E-12	859.009E-3	-2.06970E-3
-1.80340E-3	-75.9107E-12	870.354E-3	-15.4005E-3	-76.6438E-12	868.459E-3	-22.3976E-3
-1.80840E-3	-76.1870E-12	871.585E-3	-23.1240E-3	-76.1216E-12	869.236E-3	-30.0787E-3
-1.81341E-3	-76.3868E-12	880.683E-3	-31.7848E-3	-75.0044E-12	837.483E-3	-24.3410E-3
-1.81841E-3	-76.1417E-12	880.601E-3	-20.3200E-3	-76.0092E-12	811.697E-3	-15.8701E-3
-1.82341E-3	-75.4602E-12	865.656E-3	-12.9311E-3	-77.1151E-12	822.332E-3	-18.5310E-3
-1.82841E-3	-76.2317E-12	847.811E-3	-30.3566E-3	-76.6830E-12	831.729E-3	-28.3663E-3
-1.83342E-3	-77.2780E-12	844.899E-3	-44.4311E-3	-75.7901E-12	819.131E-3	-13.7882E-3
-1.83842E-3	-76.9055E-12	860.709E-3	-42.5954E-3	-75.3563E-12	808.973E-3	-4.89041E-3
-1.84342E-3	-76.5161E-12	865.223E-3	-45.9289E-3	-76.6312E-12	800.498E-3	-19.0165E-3
-1.84842E-3	-77.9500E-12	854.715E-3	-49.1455E-3	-76.7372E-12	802.596E-3	-23.4260E-3
-1.85343E-3	-78.3135E-12	837.872E-3	-30.3835E-3	-76.4919E-12	822.505E-3	-21.8736E-3
-1.85843E-3	-78.2718E-12	814.492E-3	-23.7828E-3	-76.0146E-12	836.832E-3	-18.9653E-3
-1.86343E-3	-79.1487E-12	821.507E-3	-19.9725E-3	-76.9673E-12	844.618E-3	-5.06487E-3
-1.86843E-3	-79.3322E-12	838.432E-3	-4.24145E-3	-77.9354E-12	861.426E-3	2.74922E-3
-1.87344E-3	-79.4372E-12	831.794E-3	-17.3917E-3	-78.6780E-12	865.471E-3	-1.94188E-3
-1.87844E-3	-80.4601E-12	831.107E-3	-46.9798E-3	-79.1015E-12	848.875E-3	-7.70759E-3
-1.88344E-3	-80.1281E-12	831.752E-3	-54.3396E-3	-79.4826E-12	834.945E-3	-20.6648E-3
-1.88844E-3	-80.6364E-12	821.560E-3	-37.9839E-3	-80.6637E-12	843.496E-3	-31.3226E-3
-1.89345E-3	-80.2586E-12	829.161E-3	-22.2243E-3	-81.5911E-12	863.611E-3	-23.7342E-3
-1.89845E-3	-79.9742E-12	849.009E-3	-20.6922E-3	-82.5049E-12	865.401E-3	-18.4350E-3
-1.90345E-3	-80.0523E-12	844.491E-3	-29.9238E-3	-82.1239E-12	848.876E-3	-29.7542E-3
-1.90845E-3	-80.1636E-12	827.551E-3	-31.7308E-3	-82.3540E-12	816.337E-3	-34.6559E-3
-1.91346E-3	-79.9815E-12	815.997E-3	-15.9367E-3	-82.7372E-12	790.217E-3	-22.1286E-3
-1.91846E-3	-80.4309E-12	815.798E-3	-2.11966E-3	-84.1880E-12	790.660E-3	-19.5567E-3
-1.92346E-3	-80.6528E-12	822.193E-3	-10.7693E-3	-83.1891E-12	796.996E-3	-29.6416E-3
-1.92846E-3	-80.0977E-12	834.737E-3	-22.0166E-3	-82.7894E-12	794.038E-3	-28.7362E-3
-1.93347E-3	-80.0677E-12	837.340E-3	-13.6658E-3	-83.3170E-12	787.981E-3	-21.7560E-3
-1.93847E-3	-80.3571E-12	819.822E-3	-4.95177E-3	-84.5429E-12	782.616E-3	-15.3842E-3
-1.94347E-3	-81.0923E-12	814.081E-3	486.746E-6	-84.2514E-12	779.357E-3	-8.53361E-3
-1.94847E-3	-81.1983E-12	815.039E-3	4.95325E-3	-83.4471E-12	783.147E-3	5.60406E-3
-1.95348E-3	-81.8276E-12	820.377E-3	-3.44704E-3	-83.5563E-12	804.446E-3	12.9905E-3
-1.95848E-3	-82.3108E-12	820.696E-3	-12.9680E-3	-84.8716E-12	830.850E-3	-880.772E-6
-1.96348E-3	-83.1576E-12	807.971E-3	-23.1103E-3	-85.8256E-12	830.536E-3	-17.7997E-3
-1.96848E-3	-83.3163E-12	813.246E-3	-32.6906E-3	-85.3870E-12	809.388E-3	-27.2073E-3
-1.97349E-3	-83.6031E-12	819.435E-3	-27.2356E-3	-84.9550E-12	790.013E-3	-28.9810E-3
-1.97849E-3	-84.2937E-12	802.399E-3	-19.2296E-3	-85.6702E-12	784.222E-3	-26.7879E-3
-1.98349E-3	-85.1280E-12	787.665E-3	-22.6131E-3	-86.8692E-12	794.609E-3	-22.1843E-3
-1.98849E-3	-85.7976E-12	795.905E-3	-26.1329E-3	-86.9088E-12	811.928E-3	-12.4193E-3
-1.99350E-3	-86.1631E-12	803.690E-3	-21.9728E-3	-86.0990E-12	814.176E-3	-9.51094E-3
-1.99850E-3	-86.7270E-12	787.404E-3	-30.8333E-3	-87.1537E-12	803.841E-3	-1.70796E-3
-2.00350E-3	-87.0395E-12	791.140E-3	-52.3001E-3	-87.8165E-12	790.203E-3	4.13102E-3
-2.00850E-3	-86.7960E-12	815.819E-3	-51.6327E-3	-87.7377E-12	783.229E-3	-4.85855E-3
-2.01351E-3	-87.4221E-12	803.400E-3	-43.0816E-3	-87.9044E-12	783.242E-3	-828.343E-6
-2.01851E-3	-87.9522E-12	796.118E-3	-47.1479E-3	-88.2925E-12	770.597E-3	17.0711E-3
-2.02351E-3	-88.3007E-12	806.228E-3	-32.1298E-3	-88.1737E-12	767.219E-3	17.7178E-3
-2.02851E-3	-88.4350E-12	779.666E-3	-9.35132E-3	-88.6836E-12	773.959E-3	-14.5339E-3
-2.03352E-3	-88.3261E-12	760.423E-3	-2.48688E-3	-89.2880E-12	770.007E-3	-30.6618E-3
-2.03852E-3	-88.6013E-12	765.102E-3	6.33617E-3	-88.2805E-12	774.006E-3	-15.2577E-3
-2.04352E-3	-88.7778E-12	772.886E-3	-4.80790E-3	-88.5080E-12	781.084E-3	-13.0023E-3
-2.04852E-3	-89.0582E-12	784.149E-3	-24.6307E-3	-88.8423E-12	778.016E-3	-19.5349E-3
-2.05353E-3	-89.1852E-12	776.008E-3	-8.84780E-3	-89.2909E-12	781.969E-3	-19.5701E-3
-2.05853E-3	-90.3995E-12	765.920E-3	4.56568E-3	-89.2553E-12	781.693E-3	-26.8643E-3
-2.06353E-3	-91.1209E-12	777.531E-3	-10.1949E-3	-89.0064E-12	766.347E-3	-30.1931E-3
-2.06853E-3	-91.5337E-12	785.401E-3	-25.3757E-3	-89.2243E-12	763.007E-3	-11.7904E-3
-2.07354E-3	-92.4660E-12	778.416E-3	-25.7476E-3	-90.0585E-12	758.226E-3	-3.32609E-3
-2.07854E-3	-93.0297E-12	768.863E-3	-14.9977E-3	-90.7986E-12	746.395E-3	-13.1644E-3
-2.08354E-3	-93.4738E-12	763.188E-3	-4.39127E-3	-89.6409E-12	743.522E-3	-16.9656E-3
-2.08854E-3	-93.0294E-12	768.414E-3	-2.40159E-3	-90.1366E-12	734.728E-3	-11.7066E-3
-2.09355E-3	-93.1417E-12	767.028E-3	-10.9305E-3	-90.9126E-12	734.954E-3	-9.87571E-3
-2.09855E-3	-93.2517E-12	752.919E-3	-7.37222E-3	-91.3132E-12	757.410E-3	-18.8175E-3
-2.10355E-3	-94.0921E-12	756.478E-3	10.4218E-3	-91.2463E-12	777.902E-3	-28.1008E-3
-2.10855E-3	-93.4782E-12	772.024E-3	5.17228E-3	-91.6999E-12	768.164E-3	-33.6444E-3
-2.11356E-3	-93.1498E-12	775.589E-3	-16.7388E-3	-91.6027E-12	749.421E-3	-32.9742E-3
-2.11856E-3	-93.3837E-12	766.348E-3	-31.0245E-3	-91.7593E-12	766.114E-3	-28.0489E-3
-2.12356E-3	-93.2886E-12	753.552E-3	-47.4477E-3	-92.8685E-12	768.859E-3	-29.6433E-3
-2.12856E-3	-93.6047E-12	758.632E-3	-44.7286E-3	-93.3185E-12	737.274E-3	-28.5750E-3
-2.13357E-3	-93.3359E-12	771.807E-3	-16.8901E-3	-93.0809E-12	725.288E-3	-21.4231E-3
-2.13857E-3	-93.5072E-12	760.758E-3	-5.66935E-3	-92.8994E-12	737.161E-3	-15.0881E-3
-2.14357E-3	-92.7785E-12	740.304E-3	-6.75888E-3	-93.2477E-12	740.207E-3	-4.92870E-3
-2.14857E-3	-92.7996E-12	731.283E-3	-17.8458E-3	-93.3552E-12	725.894E-3	-1.51413E-3
-2.15358E-3	-93.2628E-12	736.249E-3	-35.9869E-3	-93.6670E-12	712.298E-3	-11.4851E-3
-2.15858E-3	-94.4874E-12	756.877E-3	-29.3138E-3	-93.7264E-12	700.138E-3	-22.2178E-3
-2.16358E-3	-94.4752E-12	773.078E-3	-16.3911E-3	-93.8705E-12	702.552E-3	-19.8850E-3
-2.16858E-3	-94.7935E-12	779.164E-3	-23.8480E-3	-94.2388E-12	725.070E-3	-983.285E-6
-2.17359E-3	-95.0075E-12	785.278E-3	-33.8760E-3	-94.1873E-12	740.216E-3	-6.26282E-3
-2.17859E-3	-94.9825E-12	790.256E-3	-33.3095E-3	-93.2697E-12	734.435E-3	-28.8830E-3
-2.18359E-3	-95.3027E-12	783.851E-3	-33.7839E-3	-94.1799E-12	733.777E-3	-19.0328E-3
-2.18859E-3	-95.0634E-12	771.173E-3	-24.0018E-3	-95.0168E-12	756.261E-3	3.93896E-3
-2.19360E-3	-95.4349E-12	760.507E-3	-7.81860E-3	-94.5282E-12	769.027E-3	11.1139E-3
-2.19860E-3	-95.6571E-12	742.351E-3	-702.061E-6	-94.7454E-12	757.878E-3	1.75333E-3
-2.20360E-3	-96.4375E-12	720.639E-3	6.92135E-3	-95.7883E-12	749.998E-3	-2.85966E-3
-2.20860E-3	-96.5403E-12	711.892E-3	16.1501E-3	-96.4230E-12	764.657E-3	-2.08888E-3
-2.21361E-3	-96.2376E-12	738.420E-3	14.8139E-3	-97.3364E-12	784.630E-3	-10.8621E-3
-2.21861E-3	-96.3886E-12	760.981E-3	243.539E-6	-97.8470E-12	783.718E-3	-10.7507E-3
-2.22361E-3	-97.0193E-12	730.795E-3	-17.7877E-3	-98.6949E-12	762.008E-3	-218.043E-6
-2.22861E-3	-96.4188E-12	697.865E-3	-32.2203E-3	-98.7642E-12	729.974E-3	-262.023E-6
-2.23362E-3	-96.3177E-12	706.187E-3	-46.3421E-3	-99.6634E-12	704.959E-3	-10.8173E-3
-2.23862E-3	-95.8286E-12	712.217E-3	-39.7065E-3	-100.321E-12	717.348E-3	-15.6665E-3
-2.24362E-3	-96.6873E-12	691.980E-3	-2.78996E-3	-100.053E-12	744.180E-3	-18.5396E-3
-2.24862E-3	-97.8133E-12	691.383E-3	-686.070E-6	-100.398E-12	741.724E-3	-29.4498E-3
-2.25363E-3	-97.1094E-12	718.458E-3	-38.3046E-3	-100.629E-12	739.964E-3	-27.8814E-3
-2.25863E-3	-96.6476E-12	732.084E-3	-35.6863E-3	-100.426E-12	752.232E-3	-21.3506E-3
-2.26363E-3	-98.0887E-12	726.453E-3	-6.41697E-3	-99.9626E-12	751.147E-3	-22.5673E-3
-2.26863E-3	-98.8889E-12	719.307E-3	-788.208E-6	-99.8596E-12	743.700E-3	-15.8034E-3
-2.27364E-3	-98.9515E-12	712.898E-3	-4.13337E-3	-99.8980E-12	740.290E-3	-24.4282E-3
-2.27864E-3	-98.9984E-12	712.074E-3	-12.1761E-3	-99.9391E-12	731.629E-3	-40.2488E-3
-2.28364E-3	-99.8387E-12	720.744E-3	-19.6708E-3	-101.086E-12	723.510E-3	-36.8292E-3
-2.28864E-3	-101.225E-12	722.296E-3	-8.95343E-3	-100.623E-12	734.896E-3	-28.8595E-3
-2.29365E-3	-101.922E-12	715.035E-3	-1.93435E-3	-100.808E-12	746.537E-3	-18.3194E-3
-2.29865E-3	-101.856E-12	706.953E-3	-7.23599E-3	-101.292E-12	734.916E-3	-10.1734E-3
-2.30365E-3	-102.027E-12	702.001E-3	-4.03054E-3	-101.807E-12	720.647E-3	-6.56875E-3
-2.30865E-3	-102.843E-12	723.890E-3	-125.026E-6	-101.546E-12	712.018E-3	-10.6885E-3
-2.31366E-3	-103.175E-12	747.320E-3	-6.23046E-3	-103.250E-12	695.224E-3	-12.1062E-3
-2.31866E-3	-103.198E-12	741.380E-3	-13.4833E-3	-103.575E-12	687.276E-3	2.59536E-3
-2.32366E-3	-103.084E-12	740.100E-3	-22.0590E-3	-103.732E-12	700.298E-3	6.30092E-3
-2.32866E-3	-103.351E-12	740.961E-3	-22.4982E-3	-104.244E-12	710.676E-3	-4.00752E-3
-2.33367E-3	-103.592E-12	725.972E-3	-11.1363E-3	-104.525E-12	702.744E-3	-177.935E-6
-2.33867E-3	-103.340E-12	714.695E-3	-24.5821E-3	-104.641E-12	693.182E-3	21.3664E-3
-2.34367E-3	-103.724E-12	712.344E-3	-40.2565E-3	-104.253E-12	699.820E-3	37.2555E-3
-2.34867E-3	-103.366E-12	711.853E-3	-21.5007E-3	-104.051E-12	695.478E-3	31.0234E-3
-2.35368E-3	-103.494E-12	716.510E-3	-1.36478E-3	-103.822E-12	682.534E-3	9.14546E-3
-2.35868E-3	-103.534E-12	713.465E-3	6.62602E-3	-103.760E-12	690.031E-3	-2.54495E-3
-2.36368E-3	-104.118E-12	708.004E-3	5.67608E-3	-102.974E-12	692.469E-3	6.63566E-3
-2.36868E-3	-104.393E-12	712.294E-3	-10.7906E-3	-103.754E-12	687.690E-3	11.6345E-3
-2.37369E-3	-104.859E-12	713.699E-3	-21.3259E-3	-103.496E-12	677.442E-3	-4.19984E-3
-2.37869E-3	-106.188E-12	721.220E-3	-14.4728E-3	-102.841E-12	665.153E-3	-25.0261E-3
-2.38369E-3	-106.535E-12	722.733E-3	-19.6557E-3	-102.959E-12	678.853E-3	-26.2988E-3
-2.38869E-3	-106.904E-12	702.470E-3	-35.7410E-3	-103.848E-12	696.559E-3	-21.1998E-3
-2.39370E-3	-106.940E-12	705.482E-3	-39.6697E-3	-104.099E-12	698.949E-3	-20.4512E-3
-2.39870E-3	-108.314E-12	732.491E-3	-44.4995E-3	-103.516E-12	708.847E-3	-8.29074E-3
-2.40370E-3	-107.950E-12	730.981E-3	-59.0638E-3	-105.412E-12	728.169E-3	-10.1983E-3
-2.40870E-3	-108.201E-12	722.254E-3	-54.4540E-3	-105.401E-12	742.189E-3	-33.6680E-3
-2.41371E-3	-108.750E-12	718.019E-3	-34.0029E-3	-105.635E-12	740.920E-3	-43.8774E-3
-2.41871E-3	-108.259E-12	715.690E-3	-35.5645E-3	-105.798E-12	727.540E-3	-38.2605E-3
-2.42371E-3	-108.224E-12	730.246E-3	-37.6915E-3	-106.414E-12	724.428E-3	-21.8105E-3
-2.42871E-3	-108.069E-12	733.738E-3	-29.4122E-3	-107.103E-12	724.318E-3	-4.45104E-3
-2.43372E-3	-108.425E-12	722.946E-3	-29.9242E-3	-107.264E-12	716.134E-3	-61.5762E-6
-2.43872E-3	-107.539E-12	716.777E-3	-14.0932E-3	-107.708E-12	703.305E-3	-8.78320E-3
-2.44372E-3	-107.009E-12	715.910E-3	12.9344E-3	-107.414E-12	689.850E-3	-23.9792E-3
-2.44872E-3	-107.505E-12	715.030E-3	17.1986E-3	-107.538E-12	685.416E-3	-31.2115E-3
-2.45373E-3	-107.178E-12	705.402E-3	4.89094E-3	-108.591E-12	692.812E-3	-27.0925E-3
-2.45873E-3	-107.771E-12	684.092E-3	-18.6651E-3	-108.342E-12	703.140E-3	-16.9086E-3
-2.46373E-3	-106.714E-12	671.858E-3	-42.1043E-3	-107.357E-12	700.085E-3	-6.49276E-3
-2.46873E-3	-107.417E-12	692.753E-3	-27.9911E-3	-107.513E-12	697.013E-3	-18.7937E-3
-2.47374E-3	-107.535E-12	718.046E-3	-497.236E-6	-108.951E-12	709.507E-3	-44.0305E-3
-2.47874E-3	-108.548E-12	725.639E-3	-7.98227E-3	-108.870E-12	714.106E-3	-43.3066E-3
-2.48374E-3	-109.047E-12	724.834E-3	-23.0650E-3	-108.699E-12	711.556E-3	-24.0141E-3
-2.48874E-3	-108.929E-12	721.355E-3	-16.2977E-3	-109.220E-12	725.049E-3	-6.24476E-3
-2.49375E-3	-109.529E-12	731.479E-3	-1.70684E-3	-109.932E-12	740.353E-3	-14.5491E-3
-2.49875E-3	-109.335E-12	745.892E-3	4.33855E-3	-111.006E-12	725.787E-3	-38.5622E-3
-2.50375E-3	-110.523E-12	737.748E-3	4.31989E-3	-111.132E-12	704.545E-3	-43.7412E-3
-2.50875E-3	-110.483E-12	711.922E-3	9.75419E-3	-111.384E-12	708.200E-3	-48.9012E-3
-2.51376E-3	-110.963E-12	711.145E-3	2.27457E-3	-111.648E-12	709.712E-3	-55.5864E-3
-2.51876E-3	-111.046E-12	726.291E-3	-8.81254E-3	-112.092E-12	701.313E-3	-37.1905E-3
-2.52376E-3	-111.813E-12	705.874E-3	-10.2926E-3	-112.277E-12	700.858E-3	-13.5016E-3
-2.52876E-3	-111.332E-12	678.827E-3	-16.1600E-3	-112.339E-12	700.163E-3	7.76190E-3
-2.53377E-3	-110.757E-12	678.711E-3	-14.5802E-3	-113.373E-12	709.401E-3	20.8615E-3
-2.53877E-3	-111.592E-12	684.235E-3	-15.9080E-3	-113.597E-12	722.539E-3	9.12918E-3
-2.54377E-3	-111.714E-12	688.297E-3	-25.6553E-3	-113.842E-12	722.157E-3	-8.12050E-3
-2.54877E-3	-111.517E-12	689.277E-3	-13.1427E-3	-113.540E-12	719.007E-3	-27.7782E-3
-2.55378E-3	-111.223E-12	678.700E-3	1.35179E-3	-114.587E-12	707.127E-3	-50.4325E-3
-2.55878E-3	-111.716E-12	670.124E-3	2.72004E-3	-114.418E-12	698.870E-3	-57.0835E-3
-2.56378E-3	-112.218E-12	670.680E-3	3.85324E-3	-114.568E-12	702.663E-3	-55.0018E-3
-2.56878E-3	-112.535E-12	664.113E-3	-11.6342E-3	-114.819E-12	710.737E-3	-40.8861E-3
-2.57379E-3	-112.304E-12	660.868E-3	-11.3042E-3	-115.855E-12	723.561E-3	-36.3130E-3
-2.57879E-3	-112.690E-12	669.575E-3	19.7694E-3	-115.879E-12	728.351E-3	-48.1463E-3
-2.58379E-3	-113.328E-12	669.926E-3	21.8226E-3	-115.917E-12	723.465E-3	-23.8388E-3
-2.58879E-3	-115.152E-12	667.967E-3	7.06726E-3	-116.315E-12	715.842E-3	-8.03363E-3
-2.59380E-3	-115.742E-12	677.099E-3	7.01329E-3	-116.321E-12	696.787E-3	-31.1448E-3
-2.59880E-3	-115.793E-12	689.999E-3	-3.55207E-3	-116.663E-12	688.453E-3	-34.2896E-3
-2.60380E-3	-116.028E-12	690.181E-3	-17.4255E-3	-115.947E-12	698.330E-3	-22.6790E-3
-2.60880E-3	-117.732E-12	706.573E-3	-11.0195E-3	-116.151E-12	713.531E-3	-15.1441E-3
-2.61381E-3	-118.509E-12	730.469E-3	15.0270E-3	-116.126E-12	729.408E-3	-13.1688E-3
-2.61881E-3	-117.890E-12	715.823E-3	17.4932E-3	-117.382E-12	721.025E-3	-25.8060E-3
-2.62381E-3	-117.750E-12	699.571E-3	-6.20735E-3	-116.673E-12	699.015E-3	-29.0018E-3
-2.62881E-3	-119.122E-12	702.517E-3	-16.0150E-3	-116.398E-12	691.201E-3	-21.1854E-3
-2.63382E-3	-119.991E-12	704.541E-3	-24.3302E-3	-116.755E-12	697.575E-3	-15.5392E-3
-2.63882E-3	-119.246E-12	705.941E-3	-43.2568E-3	-117.988E-12	708.881E-3	-6.30129E-3
-2.64382E-3	-118.359E-12	707.081E-3	-48.8688E-3	-117.746E-12	708.031E-3	2.82390E-3
-2.64882E-3	-118.971E-12	696.937E-3	-29.1762E-3	-117.331E-12	708.060E-3	-391.653E-6
-2.65383E-3	-119.583E-12	690.201E-3	-6.37836E-3	-118.638E-12	724.763E-3	-23.8800E-3
-2.65883E-3	-119.711E-12	706.957E-3	3.41213E-3	-118.650E-12	727.331E-3	-40.9457E-3
-2.66383E-3	-118.864E-12	724.227E-3	-6.26681E-3	-118.344E-12	708.934E-3	-25.6719E-3
-2.66883E-3	-118.899E-12	724.869E-3	-20.8292E-3	-119.084E-12	692.657E-3	-10.3157E-3
-2.67384E-3	-118.829E-12	705.817E-3	-28.1238E-3	-119.881E-12	694.729E-3	-27.3754E-3
-2.67884E-3	-120.063E-12	688.182E-3	-29.0328E-3	-119.518E-12	706.621E-3	-43.4284E-3
-2.68384E-3	-120.433E-12	708.808E-3	-15.2578E-3	-119.252E-12	702.594E-3	-31.4854E-3
-2.68884E-3	-120.789E-12	740.990E-3	4.78371E-3	-118.959E-12	686.429E-3	-11.5932E-3
-2.69385E-3	-120.728E-12	740.258E-3	226.030E-6	-119.202E-12	664.409E-3	-1.68393E-3
-2.69885E-3	-122.069E-12	718.609E-3	-18.9269E-3	-119.325E-12	657.293E-3	6.28254E-3
-2.70385E-3	-122.506E-12	710.125E-3	-12.8707E-3	-118.534E-12	682.315E-3	7.15591E-3
-2.70885E-3	-123.702E-12	707.628E-3	-4.53039E-3	-118.517E-12	692.538E-3	-6.88901E-3
-2.71386E-3	-123.816E-12	690.561E-3	-18.7119E-3	-118.982E-12	688.538E-3	-7.80629E-3
-2.71886E-3	-123.689E-12	679.325E-3	-25.5870E-3	-119.175E-12	694.662E-3	-15.0776E-3
-2.72386E-3	-123.704E-12	692.812E-3	-21.6780E-3	-119.878E-12	693.156E-3	-35.0222E-3
-2.72886E-3	-124.113E-12	708.763E-3	-28.7041E-3	-119.845E-12	690.941E-3	-43.0998E-3
-2.73387E-3	-124.918E-12	724.383E-3	-33.7526E-3	-119.922E-12	690.416E-3	-43.8543E-3
-2.73887E-3	-125.287E-12	744.820E-3	-20.4577E-3	-120.580E-12	685.241E-3	-26.3080E-3
-2.74387E-3	-123.996E-12	752.483E-3	-11.5261E-3	-121.436E-12	688.651E-3	-10.9873E-3
-2.74887E-3	-123.978E-12	742.101E-3	-14.7109E-3	-121.796E-12	696.795E-3	-12.9038E-3
-2.75388E-3	-124.673E-12	702.822E-3	-8.46698E-3	-121.421E-12	699.358E-3	-10.4022E-3
-2.75888E-3	-124.063E-12	666.192E-3	-2.37728E-3	-122.083E-12	689.029E-3	-19.4532E-3
-2.76388E-3	-122.477E-12	682.085E-3	-17.2111E-3	-122.352E-12	679.724E-3	-55.7295E-3
-2.76888E-3	-122.843E-12	705.342E-3	-34.6521E-3	-122.999E-12	695.295E-3	-75.4370E-3
-2.77389E-3	-122.620E-12	693.232E-3	-24.6561E-3	-122.149E-12	703.345E-3	-40.8797E-3
-2.77889E-3	-122.250E-12	677.221E-3	-1.07095E-3	-121.657E-12	689.266E-3	11.8597E-3
-2.78389E-3	-121.488E-12	680.296E-3	2.91206E-3	-122.527E-12	679.949E-3	28.0966E-3
-2.78889E-3	-121.882E-12	688.614E-3	-14.7423E-3	-123.089E-12	685.629E-3	5.81225E-3
-2.79390E-3	-123.170E-12	695.156E-3	-25.6600E-3	-122.334E-12	712.668E-3	-27.4500E-3
-2.79890E-3	-123.260E-12	709.823E-3	-14.6461E-3	-122.204E-12	726.502E-3	-52.4130E-3
-2.80390E-3	-121.882E-12	718.094E-3	1.08027E-3	-123.232E-12	698.698E-3	-46.0158E-3
-2.80890E-3	-123.619E-12	705.721E-3	-2.36717E-3	-123.881E-12	674.808E-3	-23.1818E-3
-2.81391E-3	-124.509E-12	687.551E-3	-17.3834E-3	-124.239E-12	682.155E-3	-14.2651E-3
-2.81891E-3	-124.633E-12	681.123E-3	-18.5474E-3	-124.439E-12	681.958E-3	-14.7526E-3
-2.82391E-3	-123.284E-12	689.099E-3	-5.10386E-3	-125.133E-12	673.387E-3	-23.4891E-3
-2.82891E-3	-125.441E-12	686.922E-3	-903.922E-6	-126.672E-12	689.612E-3	-19.6477E-3
-2.83392E-3	-126.930E-12	672.259E-3	-9.85066E-3	-127.222E-12	705.752E-3	-3.12422E-3
-2.83892E-3	-126.562E-12	663.144E-3	-29.0755E-3	-127.264E-12	699.552E-3	-18.1588E-3
-2.84392E-3	-126.061E-12	685.071E-3	-52.2285E-3	-127.850E-12	696.173E-3	-39.5811E-3
-2.84892E-3	-126.531E-12	716.859E-3	-57.3282E-3	-128.632E-12	707.189E-3	-30.3015E-3
-2.85393E-3	-127.563E-12	705.444E-3	-43.7546E-3	-129.057E-12	721.355E-3	-12.7309E-3
-2.85893E-3	-127.388E-12	706.776E-3	-34.2011E-3	-130.186E-12	715.274E-3	-1.81361E-3
-2.86393E-3	-126.379E-12	730.736E-3	-39.5561E-3	-129.760E-12	692.277E-3	-7.68000E-3
-2.86893E-3	-125.796E-12	718.138E-3	-50.1618E-3	-129.833E-12	685.464E-3	-21.0781E-3
-2.87394E-3	-126.063E-12	690.638E-3	-30.0346E-3	-129.815E-12	678.747E-3	-18.4598E-3
-2.87894E-3	-127.155E-12	669.799E-3	-1.53613E-3	-129.506E-12	670.004E-3	-21.2711E-3
-2.88394E-3	-127.131E-12	658.777E-3	-8.43815E-3	-129.148E-12	674.474E-3	-29.6054E-3
-2.88894E-3	-126.470E-12	668.517E-3	-13.3991E-3	-129.414E-12	681.788E-3	-18.9573E-3
-2.89395E-3	-126.976E-12	676.838E-3	-9.76622E-3	-130.168E-12	682.843E-3	-14.3211E-3
-2.89895E-3	-128.755E-12	676.373E-3	-24.7457E-3	-130.212E-12	675.272E-3	-8.87586E-3
-2.90395E-3	-129.389E-12	687.633E-3	-43.8098E-3	-130.951E-12	682.845E-3	-88.6663E-6
-2.90895E-3	-128.533E-12	699.410E-3	-48.2651E-3	-131.271E-12	695.244E-3	-15.9748E-3
-2.91396E-3	-129.702E-12	693.774E-3	-41.2107E-3	-131.374E-12	685.519E-3	-34.0389E-3
-2.91896E-3	-132.246E-12	679.122E-3	-24.2116E-3	-131.981E-12	677.897E-3	-25.8809E-3
-2.92396E-3	-133.619E-12	670.582E-3	-971.418E-6	-132.388E-12	679.636E-3	-13.0920E-3
-2.92896E-3	-133.819E-12	676.067E-3	4.71862E-3	-132.321E-12	673.030E-3	-22.1513E-3
-2.93397E-3	-133.377E-12	700.060E-3	2.34145E-3	-132.459E-12	674.957E-3	-36.4266E-3
-2.93897E-3	-133.511E-12	709.188E-3	3.85205E-3	-133.693E-12	681.117E-3	-34.9017E-3
-2.94397E-3	-134.674E-12	690.149E-3	-15.3950E-3	-133.175E-12	670.392E-3	-13.1876E-3
-2.94897E-3	-135.805E-12	682.896E-3	-36.2346E-3	-133.137E-12	662.202E-3	13.8476E-3
-2.95398E-3	-134.352E-12	696.019E-3	-40.6006E-3	-132.947E-12	674.364E-3	20.3093E-3
-2.95898E-3	-133.656E-12	718.058E-3	-43.9947E-3	-132.591E-12	693.137E-3	10.6584E-3
-2.96398E-3	-134.295E-12	726.088E-3	-35.4754E-3	-133.239E-12	706.889E-3	-714.914E-6
-2.96898E-3	-133.933E-12	709.935E-3	-14.9422E-3	-133.099E-12	706.009E-3	-27.1775E-3
-2.97399E-3	-133.177E-12	691.981E-3	-4.82248E-3	-133.141E-12	691.845E-3	-48.0260E-3
-2.97899E-3	-131.975E-12	692.511E-3	-25.3963E-3	-132.207E-12	687.711E-3	-36.4428E-3
-2.98399E-3	-133.417E-12	711.340E-3	-38.8767E-3	-132.285E-12	683.695E-3	-28.0765E-3
-2.98899E-3	-133.674E-12	712.213E-3	-7.15095E-3	-132.288E-12	679.252E-3	-32.4833E-3
-2.99400E-3	-133.564E-12	701.387E-3	4.77519E-3	-131.860E-12	683.999E-3	-22.5635E-3
-2.99900E-3	-132.956E-12	711.535E-3	-31.4484E-3	-133.449E-12	684.037E-3	-4.22733E-3
-3.00400E-3	-134.057E-12	717.244E-3	-55.4381E-3	-133.352E-12	676.901E-3	-4.35685E-3
-3.00900E-3	-136.385E-12	709.788E-3	-53.1282E-3	-133.268E-12	680.260E-3	-17.1081E-3
-3.01401E-3	-135.916E-12	697.470E-3	-39.0242E-3	-132.470E-12	692.716E-3	-23.8154E-3
-3.01901E-3	-135.565E-12	675.434E-3	-32.2437E-3	-133.009E-12	688.457E-3	-19.9101E-3
-3.02401E-3	-135.125E-12	671.909E-3	-26.5560E-3	-133.554E-12	674.889E-3	-14.5265E-3
-3.02901E-3	-136.917E-12	683.439E-3	2.19623E-3	-134.081E-12	664.136E-3	-9.03518E-3
-3.03402E-3	-138.046E-12	683.757E-3	7.98912E-3	-134.072E-12	657.836E-3	-3.93735E-3
-3.03902E-3	-136.671E-12	681.876E-3	-22.7645E-3	-133.801E-12	665.314E-3	-34.6605E-3
-3.04402E-3	-135.682E-12	682.886E-3	-38.6523E-3	-134.632E-12	666.042E-3	-74.1235E-3
-3.04902E-3	-136.467E-12	688.993E-3	-14.6884E-3	-134.794E-12	667.386E-3	-66.5364E-3
-3.05403E-3	-137.355E-12	677.114E-3	-2.83704E-3	-135.621E-12	681.520E-3	-44.7035E-3
-3.05903E-3	-136.560E-12	650.121E-3	-23.7982E-3	-134.736E-12	683.728E-3	-34.6952E-3
-3.06403E-3	-136.803E-12	642.790E-3	-42.1938E-3	-135.037E-12	684.846E-3	-21.4892E-3
-3.06903E-3	-135.489E-12	657.143E-3	-42.2562E-3	-135.698E-12	701.896E-3	-8.18304E-3
-3.07404E-3	-135.574E-12	677.612E-3	-27.6678E-3	-136.172E-12	713.466E-3	-16.5421E-3
-3.07904E-3	-135.876E-12	688.519E-3	-19.3670E-3	-136.929E-12	695.795E-3	-40.1097E-3
-3.08404E-3	-135.907E-12	677.353E-3	-6.90400E-3	-136.521E-12	673.974E-3	-32.6362E-3
-3.08904E-3	-135.155E-12	660.908E-3	20.7001E-3	-136.845E-12	668.930E-3	-9.88925E-3
-3.09405E-3	-135.461E-12	659.506E-3	24.3004E-3	-137.115E-12	680.610E-3	-24.8153E-3
-3.09905E-3	-136.284E-12	656.092E-3	-9.02086E-3	-138.452E-12	697.666E-3	-29.2553E-3
-3.10405E-3	-136.848E-12	651.870E-3	-31.8212E-3	-138.480E-12	683.539E-3	-3.45958E-3
-3.10905E-3	-136.931E-12	653.399E-3	-15.7996E-3	-139.249E-12	657.197E-3	-2.50430E-3
-3.11406E-3	-137.571E-12	658.607E-3	-8.40906E-3	-139.331E-12	660.614E-3	126.665E-6
-3.11906E-3	-139.581E-12	660.491E-3	-28.3037E-3	-138.790E-12	690.354E-3	2.32961E-3
-3.12406E-3	-139.829E-12	667.001E-3	-43.8276E-3	-139.675E-12	688.365E-3	-18.6673E-3
-3.12906E-3	-140.170E-12	696.391E-3	-60.8419E-3	-139.734E-12	647.863E-3	-16.2960E-3
-3.13407E-3	-140.336E-12	713.241E-3	-61.7311E-3	-140.226E-12	640.985E-3	-9.85692E-3
-3.13907E-3	-141.164E-12	700.074E-3	-36.5167E-3	-139.770E-12	659.262E-3	-31.0587E-3
-3.14407E-3	-141.410E-12	680.479E-3	-24.8465E-3	-140.083E-12	667.214E-3	-53.6741E-3
-3.14907E-3	-141.632E-12	671.853E-3	-28.7900E-3	-139.989E-12	685.300E-3	-58.4862E-3
-3.15408E-3	-142.253E-12	680.159E-3	-27.6493E-3	-141.013E-12	700.085E-3	-53.5897E-3
-3.15908E-3	-142.345E-12	672.907E-3	-11.0205E-3	-141.196E-12	684.946E-3	-56.8108E-3
-3.16408E-3	-141.810E-12	660.347E-3	1.54857E-3	-141.389E-12	676.517E-3	-51.5178E-3
-3.16908E-3	-142.541E-12	674.618E-3	4.01999E-3	-141.851E-12	686.186E-3	-21.9276E-3
-3.17409E-3	-143.017E-12	691.501E-3	24.4543E-3	-142.952E-12	685.011E-3	3.75805E-3
-3.17909E-3	-143.355E-12	681.261E-3	32.3376E-3	-142.833E-12	671.902E-3	15.6711E-3
-3.18409E-3	-142.691E-12	670.349E-3	17.8697E-3	-142.859E-12	664.077E-3	17.9675E-3
-3.18909E-3	-142.074E-12	683.004E-3	1.57270E-3	-143.699E-12	678.653E-3	9.31800E-3
-3.19410E-3	-143.752E-12	698.588E-3	-15.7670E-3	-143.659E-12	699.040E-3	-15.7199E-3
-3.19910E-3	-142.784E-12	701.468E-3	-6.18582E-3	-143.960E-12	700.077E-3	-38.2601E-3
-3.20410E-3	-142.549E-12	682.742E-3	22.7649E-3	-144.037E-12	688.546E-3	-52.7944E-3
-3.20910E-3	-143.165E-12	667.639E-3	36.1361E-3	-144.479E-12	678.979E-3	-51.0316E-3
-3.21411E-3	-144.018E-12	671.772E-3	42.1839E-3	-144.331E-12	681.848E-3	-19.0533E-3
-3.21911E-3	-143.662E-12	667.704E-3	25.5201E-3	-145.351E-12	692.920E-3	-9.02911E-3
-3.22411E-3	-143.736E-12	662.291E-3	-14.6413E-3	-144.210E-12	683.272E-3	-28.1609E-3
-3.22911E-3	-145.555E-12	685.994E-3	-32.9312E-3	-144.191E-12	668.931E-3	-29.0692E-3
-3.23412E-3	-145.468E-12	723.141E-3	-24.4290E-3	-144.739E-12	675.756E-3	-13.2847E-3
-3.23912E-3	-145.310E-12	725.598E-3	-8.24474E-3	-145.394E-12	684.118E-3	-4.51696E-3
-3.24412E-3	-145.223E-12	684.887E-3	-11.5663E-3	-145.209E-12	677.075E-3	12.7905E-3
-3.24912E-3	-146.056E-12	664.939E-3	-21.7202E-3	-146.710E-12	657.668E-3	21.9481E-3
-3.25413E-3	-146.356E-12	676.596E-3	-15.6994E-3	-147.111E-12	653.776E-3	-5.31509E-3
-3.25913E-3	-146.517E-12	683.365E-3	-12.0473E-3	-147.406E-12	679.399E-3	-26.9135E-3
-3.26413E-3	-146.838E-12	690.565E-3	-18.5901E-3	-147.812E-12	703.371E-3	-16.3531E-3
-3.26913E-3	-146.649E-12	698.554E-3	-17.6762E-3	-147.991E-12	695.844E-3	10.0859E-3
-3.27414E-3	-146.731E-12	691.733E-3	-16.8476E-3	-147.753E-12	692.488E-3	18.1835E-3
-3.27914E-3	-146.562E-12	682.079E-3	-8.44841E-3	-148.661E-12	700.633E-3	-5.18215E-3
-3.28414E-3	-146.935E-12	683.587E-3	10.5159E-3	-148.225E-12	688.748E-3	-32.1896E-3
-3.28914E-3	-147.498E-12	682.180E-3	3.00501E-3	-149.346E-12	675.273E-3	-40.6032E-3
-3.29415E-3	-145.812E-12	686.289E-3	-11.5882E-3	-149.178E-12	667.357E-3	-21.8478E-3
-3.29915E-3	-146.209E-12	700.774E-3	-4.89383E-3	-149.164E-12	668.533E-3	102.966E-6
-3.30415E-3	-147.659E-12	696.225E-3	-3.82818E-3	-149.333E-12	694.758E-3	2.73300E-3
-3.30915E-3	-147.559E-12	677.746E-3	-11.6053E-3	-149.905E-12	710.120E-3	8.29303E-3
-3.31416E-3	-146.836E-12	661.187E-3	-24.5974E-3	-149.511E-12	672.492E-3	8.65222E-3
-3.31916E-3	-147.913E-12	640.672E-3	-30.4704E-3	-149.509E-12	630.692E-3	-9.73236E-3
-3.32416E-3	-149.525E-12	630.043E-3	-19.4009E-3	-150.288E-12	629.453E-3	-6.01883E-3
-3.32916E-3	-150.159E-12	653.292E-3	-25.5030E-3	-150.017E-12	634.974E-3	17.5085E-3
-3.33417E-3	-149.662E-12	689.686E-3	-29.3381E-3	-149.671E-12	646.361E-3	13.1253E-3
-3.33917E-3	-149.611E-12	680.262E-3	-29.8987E-3	-149.792E-12	664.166E-3	-18.9464E-3
-3.34417E-3	-150.872E-12	653.130E-3	-36.3951E-3	-151.242E-12	664.329E-3	-36.5444E-3
-3.34917E-3	-152.609E-12	667.808E-3	-24.5657E-3	-150.310E-12	655.684E-3	-25.5931E-3
-3.35418E-3	-152.287E-12	693.177E-3	-23.4622E-3	-150.472E-12	657.319E-3	-18.1795E-3
-3.35918E-3	-151.316E-12	712.185E-3	-22.2285E-3	-150.714E-12	661.229E-3	-30.9159E-3
-3.36418E-3	-150.985E-12	728.844E-3	4.16418E-3	-151.323E-12	651.409E-3	-30.8689E-3
-3.36918E-3	-151.834E-12	726.228E-3	10.7450E-3	-151.065E-12	654.089E-3	-11.2565E-3
-3.37419E-3	-152.988E-12	696.233E-3	-124.851E-6	-150.162E-12	674.941E-3	1.18495E-3
-3.37919E-3	-150.917E-12	673.093E-3	-7.91074E-3	-150.553E-12	684.243E-3	2.21404E-3
-3.38419E-3	-150.371E-12	701.576E-3	-40.7302E-3	-150.450E-12	677.896E-3	1.34769E-3
-3.38919E-3	-151.721E-12	738.085E-3	-77.1634E-3	-150.690E-12	671.215E-3	4.25445E-3
-3.39420E-3	-151.685E-12	714.904E-3	-58.6129E-3	-151.141E-12	672.384E-3	8.63115E-3
-3.39920E-3	-151.154E-12	662.900E-3	-12.7567E-3	-151.992E-12	679.222E-3	21.2256E-3
-3.40420E-3	-152.055E-12	637.730E-3	7.49594E-3	-151.755E-12	673.478E-3	38.5024E-3
-3.40920E-3	-152.188E-12	645.343E-3	-675.058E-6	-151.446E-12	675.821E-3	37.1407E-3
-3.41421E-3	-151.484E-12	677.660E-3	-19.7912E-3	-152.880E-12	689.931E-3	16.1065E-3
-3.41921E-3	-152.422E-12	694.883E-3	-15.9794E-3	-152.820E-12	687.282E-3	-6.92589E-3
-3.42421E-3	-153.912E-12	680.564E-3	4.45122E-3	-153.785E-12	670.322E-3	10.1644E-3
-3.42921E-3	-152.895E-12	672.088E-3	-6.49626E-3	-153.401E-12	656.951E-3	54.3632E-3
-3.43422E-3	-153.800E-12	671.071E-3	-26.8809E-3	-154.333E-12	665.291E-3	53.4904E-3
-3.43922E-3	-155.276E-12	650.218E-3	-9.86394E-3	-153.603E-12	674.969E-3	19.1446E-3
-3.44422E-3	-155.139E-12	633.054E-3	-656.390E-6	-153.833E-12	671.920E-3	-4.42914E-3
-3.44922E-3	-155.718E-12	652.965E-3	-6.45987E-3	-154.876E-12	667.361E-3	-23.4253E-3
-3.45423E-3	-156.151E-12	672.600E-3	-576.931E-6	-154.895E-12	674.324E-3	-37.3631E-3
-3.45923E-3	-156.409E-12	672.728E-3	-2.89135E-3	-154.240E-12	678.925E-3	-30.6299E-3
-3.46423E-3	-156.547E-12	678.931E-3	-22.7667E-3	-154.433E-12	673.677E-3	-35.4562E-3
-3.46923E-3	-155.640E-12	687.455E-3	-37.2720E-3	-155.652E-12	672.695E-3	-57.1878E-3
-3.47424E-3	-154.095E-12	678.023E-3	-31.6484E-3	-155.575E-12	678.649E-3	-32.6999E-3
-3.47924E-3	-154.579E-12	668.914E-3	-17.3846E-3	-156.164E-12	675.821E-3	1.49503E-3
-3.48424E-3	-155.579E-12	675.713E-3	-6.05971E-3	-157.113E-12	652.210E-3	-24.5508E-3
-3.48924E-3	-154.543E-12	666.405E-3	-10.7916E-3	-157.580E-12	643.958E-3	-68.4380E-3
-3.49425E-3	-153.726E-12	646.820E-3	-18.4669E-3	-158.150E-12	672.495E-3	-70.8934E-3
-3.49925E-3	-155.365E-12	639.256E-3	-10.6994E-3	-157.885E-12	690.465E-3	-34.1775E-3
-3.50425E-3	-155.707E-12	650.303E-3	1.95123E-3	-157.973E-12	684.887E-3	-839.006E-6
-3.50925E-3	-155.452E-12	668.762E-3	-2.18573E-3	-157.850E-12	680.493E-3	-3.42258E-3
-3.51426E-3	-155.315E-12	666.848E-3	-12.4949E-3	-158.481E-12	672.663E-3	-16.5603E-3
-3.51926E-3	-155.867E-12	658.677E-3	-7.79498E-3	-158.092E-12	657.431E-3	-6.18798E-3
-3.52426E-3	-156.309E-12	660.627E-3	-12.1636E-3	-158.745E-12	666.070E-3	-9.51687E-3
-3.52926E-3	-156.913E-12	663.791E-3	-38.6454E-3	-158.360E-12	692.343E-3	-25.0940E-3
-3.53427E-3	-157.023E-12	673.513E-3	-42.3700E-3	-158.282E-12	686.178E-3	-19.1950E-3
-3.53927E-3	-158.486E-12	693.801E-3	-22.8256E-3	-158.856E-12	680.282E-3	-12.8768E-3
-3.54427E-3	-158.338E-12	707.094E-3	-17.9235E-3	-159.052E-12	702.144E-3	-21.8672E-3
-3.54927E-3	-158.834E-12	689.397E-3	-9.68996E-3	-158.699E-12	718.692E-3	-18.6154E-3
-3.55428E-3	-159.463E-12	663.318E-3	-2.97599E-3	-158.470E-12	721.540E-3	820.513E-6
-3.55928E-3	-158.965E-12	671.876E-3	-17.8169E-3	-159.587E-12	722.594E-3	-2.52904E-3
-3.56428E-3	-158.720E-12	691.179E-3	-36.3216E-3	-160.260E-12	723.694E-3	-23.1191E-3
-3.56928E-3	-159.180E-12	682.767E-3	-40.4610E-3	-160.253E-12	718.590E-3	-25.4097E-3
-3.57429E-3	-159.985E-12	669.225E-3	-34.6040E-3	-160.698E-12	691.910E-3	-10.6040E-3
-3.57929E-3	-158.936E-12	681.141E-3	-21.2871E-3	-160.893E-12	655.639E-3	3.35480E-3
-3.58429E-3	-159.065E-12	692.512E-3	4.35864E-3	-160.842E-12	652.583E-3	16.8377E-3
-3.58929E-3	-158.713E-12	691.087E-3	2.28710E-3	-160.848E-12	662.388E-3	-2.11457E-3
-3.59430E-3	-159.478E-12	682.775E-3	-30.1713E-3	-160.946E-12	645.162E-3	-27.0737E-3
-3.59930E-3	-159.153E-12	660.839E-3	-34.2639E-3	-161.655E-12	643.489E-3	-10.7756E-3
-3.60430E-3	-159.365E-12	650.918E-3	-19.5101E-3	-160.832E-12	663.573E-3	-15.6695E-3
-3.60930E-3	-158.831E-12	665.744E-3	-20.0093E-3	-161.509E-12	669.331E-3	-43.0744E-3
-3.61431E-3	-159.243E-12	688.308E-3	-15.0123E-3	-161.526E-12	671.626E-3	-49.0079E-3
-3.61931E-3	-160.205E-12	686.618E-3	-14.8901E-3	-161.174E-12	666.215E-3	-50.7639E-3
-3.62431E-3	-160.057E-12	650.388E-3	-21.7263E-3	-160.630E-12	655.407E-3	-45.6170E-3
-3.62931E-3	-160.667E-12	635.484E-3	-29.3860E-3	-161.343E-12	662.651E-3	-31.7072E-3
-3.63432E-3	-162.251E-12	654.924E-3	-42.0540E-3	-161.571E-12	669.663E-3	-32.8343E-3
-3.63932E-3	-161.478E-12	659.614E-3	-22.6839E-3	-161.412E-12	670.323E-3	-35.4869E-3
-3.64432E-3	-161.800E-12	642.154E-3	1.33498E-3	-162.200E-12	672.998E-3	-17.4100E-3
-3.64932E-3	-162.531E-12	638.481E-3	-4.88688E-3	-162.076E-12	670.996E-3	423.392E-6
-3.65433E-3	-163.109E-12	651.979E-3	-23.7676E-3	-163.009E-12	686.519E-3	1.26585E-3
-3.65933E-3	-162.209E-12	663.132E-3	-31.6977E-3	-163.115E-12	690.613E-3	-6.62441E-3
-3.66433E-3	-163.969E-12	664.398E-3	-24.4933E-3	-163.137E-12	665.286E-3	-20.4421E-3
-3.66933E-3	-162.707E-12	662.073E-3	-18.3549E-3	-163.483E-12	650.313E-3	-34.7456E-3
-3.67434E-3	-163.667E-12	656.555E-3	-20.6569E-3	-164.008E-12	639.360E-3	-34.5778E-3
-3.67934E-3	-163.685E-12	648.863E-3	-32.8004E-3	-164.223E-12	657.014E-3	-5.72985E-3
-3.68434E-3	-164.761E-12	670.596E-3	-22.8075E-3	-164.150E-12	675.749E-3	15.7570E-3
-3.68934E-3	-163.615E-12	686.156E-3	-745.108E-6	-164.499E-12	642.183E-3	-4.39345E-3
-3.69435E-3	-164.900E-12	669.905E-3	-16.3712E-3	-163.954E-12	628.328E-3	-18.7233E-3
-3.69935E-3	-165.289E-12	676.994E-3	-22.8629E-3	-164.472E-12	642.919E-3	-16.4498E-3
-3.70435E-3	-165.141E-12	692.338E-3	-1.82703E-3	-164.731E-12	642.851E-3	-22.2558E-3
-3.70935E-3	-165.213E-12	684.906E-3	-4.52929E-3	-164.869E-12	642.713E-3	-18.2639E-3
-3.71436E-3	-165.287E-12	691.043E-3	-7.72881E-3	-164.767E-12	639.427E-3	-8.10050E-3
-3.71936E-3	-165.643E-12	696.193E-3	2.72898E-3	-165.296E-12	636.977E-3	-18.2439E-3
-3.72436E-3	-166.286E-12	692.308E-3	-6.95449E-3	-166.124E-12	639.970E-3	-39.9998E-3
-3.72936E-3	-166.954E-12	710.874E-3	-17.0033E-3	-166.323E-12	634.925E-3	-36.5413E-3
-3.73437E-3	-167.460E-12	712.258E-3	4.44578E-3	-165.974E-12	628.133E-3	-13.3419E-3
-3.73937E-3	-167.961E-12	684.696E-3	24.1938E-3	-165.486E-12	639.415E-3	-7.43093E-3
-3.74437E-3	-168.761E-12	662.397E-3	25.4331E-3	-167.375E-12	655.922E-3	-16.1350E-3
-3.74937E-3	-168.924E-12	658.819E-3	17.3503E-3	-167.390E-12	661.159E-3	-24.7611E-3
-3.75438E-3	-169.507E-12	664.090E-3	5.27314E-3	-166.772E-12	667.070E-3	-26.0397E-3
-3.75938E-3	-168.814E-12	659.152E-3	1.60978E-3	-167.355E-12	691.726E-3	-23.0969E-3
-3.76438E-3	-169.501E-12	667.863E-3	-8.70255E-3	-167.602E-12	700.160E-3	-21.4100E-3
-3.76938E-3	-171.303E-12	686.584E-3	-20.7413E-3	-166.966E-12	681.996E-3	-11.2094E-3
-3.77439E-3	-170.764E-12	685.225E-3	-31.4301E-3	-167.571E-12	686.647E-3	-9.66538E-3
-3.77939E-3	-169.584E-12	658.661E-3	-41.6353E-3	-168.065E-12	690.584E-3	-23.6646E-3
-3.78439E-3	-170.609E-12	638.750E-3	-6.97314E-3	-168.080E-12	663.812E-3	-24.1311E-3
-3.78939E-3	-171.116E-12	654.058E-3	32.6626E-3	-168.257E-12	636.929E-3	-19.0850E-3
-3.79440E-3	-170.353E-12	673.032E-3	15.5785E-3	-169.882E-12	631.203E-3	-30.2478E-3
-3.79940E-3	-168.552E-12	671.299E-3	-6.34713E-3	-169.459E-12	639.428E-3	-43.2079E-3
-3.80440E-3	-169.219E-12	660.852E-3	-1.80531E-3	-169.486E-12	658.112E-3	-38.5564E-3
-3.80940E-3	-170.247E-12	662.061E-3	14.2404E-3	-169.649E-12	662.250E-3	-11.0613E-3
-3.81441E-3	-169.673E-12	655.558E-3	12.7753E-3	-170.328E-12	647.612E-3	14.5749E-3
-3.81941E-3	-168.824E-12	625.431E-3	-11.1573E-3	-170.890E-12	654.449E-3	14.0529E-3
-3.82441E-3	-169.105E-12	612.902E-3	-9.28004E-3	-170.608E-12	667.595E-3	-17.4500E-3
-3.82941E-3	-170.090E-12	634.590E-3	1.31871E-3	-170.153E-12	655.208E-3	-37.6640E-3
-3.83442E-3	-169.626E-12	667.194E-3	-16.1662E-3	-170.630E-12	641.023E-3	-20.0077E-3
-3.83942E-3	-169.840E-12	685.223E-3	-24.1486E-3	-171.565E-12	633.061E-3	-12.4492E-3
-3.84442E-3	-169.282E-12	682.153E-3	-12.2683E-3	-170.762E-12	640.185E-3	-3.28350E-3
-3.84942E-3	-170.732E-12	662.270E-3	-8.98620E-3	-171.113E-12	669.062E-3	16.2181E-3
-3.85443E-3	-170.552E-12	654.947E-3	-22.9225E-3	-172.284E-12	685.838E-3	3.32233E-3
-3.85943E-3	-171.456E-12	674.774E-3	-45.5960E-3	-171.176E-12	695.707E-3	-12.4029E-3
-3.86443E-3	-171.671E-12	711.345E-3	-60.7357E-3	-170.911E-12	696.517E-3	-6.10277E-3
-3.86943E-3	-171.767E-12	729.177E-3	-60.3906E-3	-171.373E-12	682.672E-3	-15.1824E-3
-3.87444E-3	-172.180E-12	693.645E-3	-38.2370E-3	-172.609E-12	685.227E-3	-45.9650E-3
-3.87944E-3	-172.416E-12	674.021E-3	-17.0824E-3	-172.924E-12	679.327E-3	-49.1073E-3
-3.88444E-3	-172.343E-12	691.517E-3	-12.8472E-3	-173.918E-12	656.134E-3	-8.81747E-3
-3.88944E-3	-171.526E-12	679.625E-3	-4.26886E-3	-174.288E-12	655.679E-3	10.5830E-3
-3.89445E-3	-172.214E-12	637.873E-3	-9.06527E-3	-174.998E-12	681.763E-3	-4.70114E-3
-3.89945E-3	-172.655E-12	612.484E-3	-17.5002E-3	-175.930E-12	709.793E-3	-18.0204E-3
-3.90445E-3	-173.229E-12	630.502E-3	6.76299E-3	-177.112E-12	714.361E-3	-36.4329E-3
-3.90945E-3	-172.503E-12	660.030E-3	5.89613E-3	-177.986E-12	687.171E-3	-34.7150E-3
-3.91446E-3	-173.277E-12	648.195E-3	-19.6961E-3	-177.707E-12	664.853E-3	-21.7629E-3
-3.91946E-3	-173.913E-12	626.199E-3	-18.4622E-3	-178.807E-12	654.390E-3	-39.4834E-3
-3.92446E-3	-174.409E-12	624.054E-3	-9.74753E-3	-178.949E-12	640.106E-3	-42.7177E-3
-3.92946E-3	-175.240E-12	632.845E-3	-5.47338E-3	-178.902E-12	663.259E-3	-22.5424E-3
-3.93447E-3	-176.793E-12	651.609E-3	6.38821E-3	-178.449E-12	686.369E-3	-33.4246E-3
-3.93947E-3	-177.819E-12	652.174E-3	9.91186E-3	-178.877E-12	660.285E-3	-49.5193E-3
-3.94447E-3	-178.000E-12	651.435E-3	-13.0626E-3	-179.391E-12	631.192E-3	-37.1510E-3
-3.94947E-3	-178.603E-12	675.929E-3	-30.2531E-3	-177.805E-12	631.633E-3	-26.6454E-3
-3.95448E-3	-179.153E-12	682.609E-3	-24.7963E-3	-177.993E-12	657.546E-3	-10.5408E-3
-3.95948E-3	-179.654E-12	679.062E-3	-13.7476E-3	-178.482E-12	684.405E-3	8.54545E-3
-3.96448E-3	-179.971E-12	683.292E-3	-17.0537E-3	-178.986E-12	684.699E-3	-17.0683E-3
-3.96948E-3	-180.274E-12	676.727E-3	-44.9410E-3	-177.995E-12	673.477E-3	-69.9598E-3
-3.97449E-3	-179.336E-12	667.472E-3	-60.4303E-3	-178.475E-12	683.175E-3	-71.7540E-3
-3.97949E-3	-179.453E-12	657.789E-3	-49.8053E-3	-179.506E-12	677.548E-3	-44.0214E-3
-3.98449E-3	-180.220E-12	661.438E-3	-40.3913E-3	-179.197E-12	640.593E-3	-38.5549E-3
-3.98949E-3	-179.757E-12	672.495E-3	-46.3853E-3	-180.201E-12	636.614E-3	-42.4649E-3
-3.99450E-3	-180.945E-12	671.587E-3	-43.9153E-3	-180.781E-12	654.383E-3	-50.1334E-3
-3.99950E-3	-179.536E-12	673.636E-3	-11.5927E-3	-182.202E-12	659.074E-3	-39.3591E-3
-4.00450E-3	-180.364E-12	673.083E-3	13.2087E-3	-181.018E-12	651.055E-3	-31.2698E-3
-4.00950E-3	-180.111E-12	663.975E-3	-1.69530E-3	-181.935E-12	633.978E-3	-48.7577E-3
-4.01451E-3	-181.866E-12	656.740E-3	-28.0477E-3	-182.374E-12	639.536E-3	-32.9899E-3
-4.01951E-3	-180.250E-12	659.534E-3	-40.4735E-3	-182.323E-12	650.941E-3	11.1093E-3
-4.02451E-3	-181.059E-12	670.839E-3	-44.8789E-3	-181.926E-12	637.134E-3	16.2977E-3
-4.02951E-3	-181.625E-12	667.597E-3	-23.3473E-3	-182.421E-12	647.783E-3	8.56077E-3
-4.03452E-3	-182.098E-12	656.219E-3	-502.311E-6	-182.856E-12	685.976E-3	24.1593E-3
-4.03952E-3	-181.844E-12	679.502E-3	-10.1404E-3	-182.359E-12	677.058E-3	17.0093E-3
-4.04452E-3	-182.114E-12	687.531E-3	-2.41163E-3	-182.428E-12	661.330E-3	-10.2936E-3
-4.04952E-3	-183.770E-12	665.352E-3	-331.569E-6	-180.805E-12	680.833E-3	-16.5100E-3
-4.05453E-3	-184.250E-12	679.087E-3	-36.2103E-3	-181.373E-12	673.340E-3	-15.6600E-3
-4.05953E-3	-184.023E-12	685.507E-3	-36.7892E-3	-180.854E-12	627.469E-3	-17.2873E-3
-4.06453E-3	-182.667E-12	669.913E-3	-21.6233E-3	-181.191E-12	596.496E-3	-7.71328E-3
-4.06953E-3	-182.911E-12	669.399E-3	-28.3004E-3	-180.568E-12	603.001E-3	-10.8437E-3
-4.07454E-3	-183.810E-12	666.529E-3	-17.5620E-3	-181.493E-12	611.171E-3	-35.4048E-3
-4.07954E-3	-183.190E-12	663.436E-3	-6.07663E-3	-182.476E-12	611.768E-3	-33.2135E-3
-4.08454E-3	-181.839E-12	667.242E-3	10.4270E-3	-181.820E-12	636.805E-3	-13.7910E-3
-4.08954E-3	-181.224E-12	644.906E-3	27.3279E-3	-182.175E-12	667.697E-3	-6.81179E-3
-4.09455E-3	-183.192E-12	615.665E-3	3.40333E-3	-181.539E-12	678.158E-3	-4.00199E-3
-4.09955E-3	-182.792E-12	623.572E-3	-35.8279E-3	-181.759E-12	657.385E-3	-12.2273E-3
-4.10455E-3	-180.711E-12	648.722E-3	-60.6866E-3	-183.126E-12	635.312E-3	-26.6677E-3
-4.10955E-3	-179.624E-12	659.019E-3	-65.3374E-3	-183.260E-12	663.187E-3	-13.0633E-3
-4.11456E-3	-181.596E-12	665.258E-3	-65.8551E-3	-181.863E-12	687.495E-3	-2.05419E-3
-4.11956E-3	-182.453E-12	674.663E-3	-42.7939E-3	-182.409E-12	675.710E-3	-29.8352E-3
-4.12456E-3	-180.610E-12	671.112E-3	7.62903E-3	-183.737E-12	673.955E-3	-53.0510E-3
-4.12956E-3	-180.356E-12	659.467E-3	17.1881E-3	-184.507E-12	683.021E-3	-37.6656E-3
-4.13457E-3	-180.713E-12	658.322E-3	-13.0628E-3	-183.047E-12	676.569E-3	-9.05761E-3
-4.13957E-3	-181.759E-12	659.392E-3	-43.4892E-3	-182.670E-12	673.399E-3	-1.33038E-3
-4.14457E-3	-181.581E-12	658.338E-3	-46.4394E-3	-184.346E-12	682.070E-3	-12.1201E-3
-4.14957E-3	-183.270E-12	677.799E-3	-6.91307E-3	-186.457E-12	673.598E-3	-34.5402E-3
-4.15458E-3	-183.010E-12	677.464E-3	30.9871E-3	-185.557E-12	652.121E-3	-38.2371E-3
-4.15958E-3	-182.414E-12	649.396E-3	23.4802E-3	-185.148E-12	648.796E-3	-7.33855E-3
-4.16458E-3	-184.102E-12	653.356E-3	-19.4125E-3	-186.320E-12	662.383E-3	11.9902E-3
-4.16958E-3	-185.713E-12	656.531E-3	-32.0585E-3	-186.119E-12	665.492E-3	11.0567E-3
-4.17459E-3	-185.708E-12	635.908E-3	-9.39135E-3	-185.753E-12	660.280E-3	15.8578E-3
-4.17959E-3	-185.346E-12	636.811E-3	-9.22424E-3	-186.076E-12	668.317E-3	14.3351E-3
-4.18459E-3	-186.229E-12	655.261E-3	-24.6295E-3	-186.370E-12	690.885E-3	6.46829E-3
-4.18959E-3	-186.948E-12	683.210E-3	-16.8330E-3	-186.528E-12	687.145E-3	-1.49215E-3
-4.19460E-3	-187.344E-12	699.653E-3	22.5579E-3	-186.659E-12	641.322E-3	-22.2855E-3
-4.19960E-3	-185.749E-12	675.657E-3	37.2799E-3	-186.331E-12	623.587E-3	-28.9775E-3
-4.20460E-3	-186.073E-12	653.032E-3	-7.15042E-3	-186.296E-12	659.409E-3	-22.7085E-3
-4.20960E-3	-186.939E-12	666.596E-3	-44.5883E-3	-186.378E-12	683.253E-3	-49.8009E-3
-4.21461E-3	-187.670E-12	684.168E-3	-28.7167E-3	-187.400E-12	676.781E-3	-62.4184E-3
-4.21961E-3	-186.741E-12	683.012E-3	1.57413E-3	-187.246E-12	681.685E-3	-19.8030E-3
-4.22461E-3	-187.242E-12	697.594E-3	-340.376E-6	-187.799E-12	698.696E-3	508.161E-6
-4.22961E-3	-188.083E-12	697.887E-3	-11.4920E-3	-187.736E-12	688.175E-3	-17.1987E-3
-4.23462E-3	-188.208E-12	639.905E-3	-20.4315E-3	-188.938E-12	674.220E-3	-27.7748E-3
-4.23962E-3	-189.114E-12	603.323E-3	-39.1507E-3	-189.883E-12	686.364E-3	-31.9052E-3
-4.24462E-3	-190.565E-12	625.832E-3	-31.1341E-3	-190.192E-12	669.923E-3	-34.9532E-3
-4.24962E-3	-190.329E-12	641.368E-3	827.322E-6	-190.921E-12	624.808E-3	-32.4669E-3
-4.25463E-3	-191.292E-12	623.579E-3	18.1362E-3	-192.916E-12	603.601E-3	-33.3065E-3
-4.25963E-3	-193.238E-12	597.874E-3	28.7637E-3	-193.203E-12	611.484E-3	-41.9824E-3
-4.26463E-3	-192.785E-12	582.144E-3	23.3475E-3	-191.845E-12	629.465E-3	-29.9091E-3
-4.26963E-3	-192.851E-12	625.607E-3	-10.9858E-3	-191.462E-12	654.633E-3	995.169E-6
-4.27464E-3	-193.571E-12	698.612E-3	-19.5224E-3	-191.129E-12	674.775E-3	6.64640E-3
-4.27964E-3	-195.081E-12	694.844E-3	-23.8680E-3	-191.318E-12	667.448E-3	-8.27412E-3
-4.28464E-3	-194.725E-12	656.360E-3	-52.2637E-3	-191.198E-12	653.280E-3	-5.25744E-3
-4.28964E-3	-194.081E-12	656.066E-3	-28.4182E-3	-191.392E-12	638.816E-3	22.3647E-3
-4.29465E-3	-193.904E-12	660.852E-3	17.5510E-3	-189.689E-12	623.033E-3	37.4549E-3
-4.29965E-3	-194.751E-12	662.518E-3	5.99273E-3	-189.479E-12	616.263E-3	25.0510E-3
-4.30465E-3	-194.852E-12	674.366E-3	-8.46053E-3	-190.325E-12	607.487E-3	1.98962E-3
-4.30965E-3	-193.017E-12	667.682E-3	1.47708E-3	-191.355E-12	606.470E-3	-27.1531E-3
-4.31466E-3	-193.682E-12	654.217E-3	-10.7793E-3	-190.153E-12	618.340E-3	-36.6751E-3
-4.31966E-3	-193.382E-12	658.702E-3	-40.4194E-3	-191.023E-12	623.780E-3	-37.7671E-3
-4.32466E-3	-194.257E-12	654.982E-3	-73.8624E-3	-193.290E-12	643.827E-3	-32.2125E-3
-4.32966E-3	-193.669E-12	651.166E-3	-71.3981E-3	-193.639E-12	675.101E-3	-18.8411E-3
-4.33467E-3	-193.407E-12	655.367E-3	-14.5105E-3	-193.548E-12	688.490E-3	-21.0510E-3
-4.33967E-3	-194.105E-12	666.366E-3	5.67331E-3	-194.469E-12	699.834E-3	-33.1998E-3
-4.34467E-3	-194.604E-12	696.467E-3	-40.5697E-3	-194.889E-12	694.069E-3	-37.0821E-3
-4.34967E-3	-196.156E-12	688.308E-3	-60.3669E-3	-195.595E-12	642.671E-3	-28.2416E-3
-4.35468E-3	-196.508E-12	633.065E-3	-29.0050E-3	-194.753E-12	581.967E-3	-22.9327E-3
-4.35968E-3	-196.813E-12	607.116E-3	-13.6137E-3	-195.184E-12	581.340E-3	-32.1062E-3
-4.36468E-3	-196.377E-12	629.404E-3	-10.7100E-3	-196.012E-12	632.261E-3	-51.9734E-3
-4.36968E-3	-197.252E-12	654.786E-3	11.4888E-3	-196.107E-12	647.901E-3	-40.7504E-3
-4.37469E-3	-196.932E-12	658.434E-3	36.9213E-3	-194.231E-12	652.528E-3	-14.1469E-3
-4.37969E-3	-195.466E-12	665.051E-3	55.7780E-3	-194.791E-12	675.576E-3	-17.1769E-3
-4.38469E-3	-195.641E-12	659.287E-3	47.2236E-3	-195.533E-12	687.135E-3	-20.3408E-3
-4.38969E-3	-195.212E-12	626.528E-3	2.97952E-3	-195.530E-12	688.083E-3	-2.49079E-3
-4.39470E-3	-194.927E-12	635.654E-3	-28.0621E-3	-195.299E-12	668.387E-3	-8.92027E-3
-4.39970E-3	-195.208E-12	662.274E-3	-17.1234E-3	-194.801E-12	648.385E-3	-39.7130E-3
-4.40470E-3	-195.417E-12	649.050E-3	-1.43776E-3	-194.585E-12	634.603E-3	-42.8550E-3
-4.40970E-3	-193.900E-12	660.088E-3	13.6265E-3	-196.411E-12	621.153E-3	-27.2445E-3
-4.41471E-3	-194.056E-12	672.722E-3	28.0274E-3	-196.327E-12	629.308E-3	-8.68081E-3
-4.41971E-3	-194.764E-12	645.285E-3	17.3905E-3	-196.245E-12	642.446E-3	14.4498E-3
-4.42471E-3	-194.479E-12	626.514E-3	-2.43525E-3	-195.338E-12	665.566E-3	11.2879E-3
-4.42971E-3	-193.309E-12	631.394E-3	-12.0109E-3	-196.381E-12	688.951E-3	-13.9264E-3
-4.43472E-3	-194.023E-12	643.460E-3	-15.2340E-3	-196.625E-12	663.817E-3	-33.3279E-3
-4.43972E-3	-194.696E-12	664.021E-3	-14.6357E-3	-196.774E-12	633.087E-3	-46.2621E-3
-4.44472E-3	-195.826E-12	701.674E-3	-22.5156E-3	-197.504E-12	626.544E-3	-38.8894E-3
-4.44972E-3	-195.717E-12	708.735E-3	-40.1294E-3	-197.081E-12	619.539E-3	-42.8693E-3
-4.45473E-3	-195.173E-12	678.518E-3	-63.4581E-3	-198.150E-12	638.718E-3	-66.6743E-3
-4.45973E-3	-195.771E-12	651.360E-3	-43.4486E-3	-198.841E-12	657.386E-3	-59.5215E-3
-4.46473E-3	-196.722E-12	621.115E-3	947.073E-6	-197.631E-12	636.141E-3	-28.4812E-3
-4.46973E-3	-196.007E-12	597.377E-3	-18.9524E-3	-198.167E-12	635.739E-3	-15.1082E-3
-4.47474E-3	-195.883E-12	595.533E-3	-32.6736E-3	-199.863E-12	659.516E-3	-18.9527E-3
-4.47974E-3	-196.898E-12	607.926E-3	10.2265E-3	-199.334E-12	664.110E-3	-14.6823E-3
-4.48474E-3	-197.025E-12	642.516E-3	35.2779E-3	-198.655E-12	665.631E-3	-9.28630E-3
-4.48974E-3	-196.914E-12	677.215E-3	13.5084E-3	-200.048E-12	670.894E-3	-16.8673E-3
-4.49475E-3	-198.138E-12	677.556E-3	-8.40563E-3	-201.758E-12	659.994E-3	-25.5235E-3
-4.49975E-3	-198.224E-12	662.219E-3	-12.5856E-3	-201.530E-12	621.687E-3	-19.8733E-3
-4.50475E-3	-197.962E-12	666.024E-3	-27.0214E-3	-203.329E-12	615.706E-3	-19.0676E-3
-4.50975E-3	-198.524E-12	668.801E-3	-31.4557E-3	-204.916E-12	663.279E-3	-40.9913E-3
-4.51476E-3	-200.147E-12	647.193E-3	-43.8419E-3	-203.428E-12	675.548E-3	-52.3146E-3
-4.51976E-3	-199.868E-12	646.533E-3	-53.5658E-3	-204.683E-12	654.740E-3	-31.7197E-3
-4.52476E-3	-199.917E-12	642.553E-3	-24.5783E-3	-204.942E-12	653.485E-3	-10.9166E-3
-4.52976E-3	-200.581E-12	611.705E-3	-23.2990E-3	-203.369E-12	667.283E-3	-18.2445E-3
-4.53477E-3	-202.542E-12	619.341E-3	-26.6825E-3	-202.969E-12	690.757E-3	-30.4812E-3
-4.53977E-3	-202.622E-12	640.484E-3	6.08887E-3	-203.974E-12	690.147E-3	-19.4835E-3
-4.54477E-3	-202.853E-12	636.488E-3	26.9174E-3	-204.023E-12	665.545E-3	5.52901E-3
-4.54977E-3	-203.212E-12	651.776E-3	23.1467E-3	-203.919E-12	663.966E-3	-14.6556E-3
-4.55478E-3	-204.105E-12	674.645E-3	7.15671E-3	-203.758E-12	660.758E-3	-58.2641E-3
-4.55978E-3	-204.441E-12	669.859E-3	-8.03680E-3	-204.315E-12	643.440E-3	-36.0312E-3
-4.56478E-3	-205.059E-12	668.413E-3	-4.66860E-3	-204.565E-12	657.051E-3	-14.9153E-3
-4.56978E-3	-205.945E-12	658.727E-3	3.24102E-3	-204.420E-12	672.699E-3	-44.1916E-3
-4.57479E-3	-205.841E-12	644.295E-3	-16.7951E-3	-204.204E-12	666.192E-3	-35.3169E-3
-4.57979E-3	-207.064E-12	658.887E-3	-39.8264E-3	-205.608E-12	668.596E-3	19.1023E-3
-4.58479E-3	-207.116E-12	662.083E-3	-49.4674E-3	-206.082E-12	674.099E-3	42.0509E-3
-4.58979E-3	-208.268E-12	631.363E-3	-42.0798E-3	-205.968E-12	667.645E-3	17.7640E-3
-4.59480E-3	-208.232E-12	623.891E-3	926.950E-6	-207.216E-12	647.742E-3	-9.65388E-3
-4.59980E-3	-208.982E-12	651.878E-3	26.4993E-3	-206.632E-12	641.127E-3	-10.0073E-3
-4.60480E-3	-209.203E-12	672.912E-3	157.541E-6	-205.583E-12	660.957E-3	3.04631E-3
-4.60980E-3	-209.102E-12	675.177E-3	-18.8664E-3	-205.974E-12	689.313E-3	-2.69677E-3
-4.61481E-3	-209.095E-12	660.846E-3	-19.5382E-3	-207.072E-12	696.507E-3	-22.8793E-3
-4.61981E-3	-209.370E-12	654.493E-3	-33.4625E-3	-205.947E-12	668.685E-3	-12.9326E-3
-4.62481E-3	-209.294E-12	666.514E-3	-46.6221E-3	-204.149E-12	647.501E-3	-7.91496E-3
-4.62981E-3	-208.647E-12	675.613E-3	-49.5550E-3	-204.627E-12	652.456E-3	-21.6397E-3
-4.63482E-3	-208.146E-12	648.382E-3	-37.1343E-3	-204.994E-12	646.608E-3	-13.5917E-3
-4.63982E-3	-208.680E-12	612.708E-3	-20.6375E-3	-204.941E-12	646.330E-3	-21.9349E-3
-4.64482E-3	-208.600E-12	629.410E-3	-12.3084E-3	-203.731E-12	663.364E-3	-27.8414E-3
-4.64982E-3	-207.399E-12	659.794E-3	-24.5418E-3	-204.424E-12	658.643E-3	-8.00097E-3
-4.65483E-3	-207.614E-12	670.202E-3	-74.7831E-3	-205.316E-12	659.231E-3	5.93248E-3
-4.65983E-3	-207.342E-12	691.669E-3	-100.677E-3	-205.709E-12	665.646E-3	11.9156E-3
-4.66483E-3	-207.296E-12	703.295E-3	-67.7348E-3	-204.367E-12	636.950E-3	3.08350E-3
-4.66983E-3	-207.402E-12	680.795E-3	-36.5993E-3	-205.341E-12	617.758E-3	-8.94644E-3
-4.67484E-3	-208.712E-12	667.610E-3	-25.9574E-3	-206.011E-12	639.497E-3	-11.6764E-3
-4.67984E-3	-208.172E-12	670.775E-3	-40.4817E-3	-206.783E-12	664.697E-3	-10.5642E-3
-4.68484E-3	-208.379E-12	668.381E-3	-70.9708E-3	-206.094E-12	663.418E-3	3.95962E-3
-4.68984E-3	-208.506E-12	653.998E-3	-59.2932E-3	-206.480E-12	653.466E-3	2.32345E-3
-4.69485E-3	-209.649E-12	627.548E-3	-26.7067E-3	-206.463E-12	667.507E-3	-7.62617E-3
-4.69985E-3	-208.642E-12	637.355E-3	-10.5898E-3	-206.707E-12	680.991E-3	3.55749E-3
-4.70485E-3	-208.007E-12	677.334E-3	1.47685E-3	-206.325E-12	659.645E-3	-1.94235E-3
-4.70985E-3	-208.658E-12	695.542E-3	-912.641E-6	-206.738E-12	639.243E-3	3.38901E-3
-4.71486E-3	-208.840E-12	689.591E-3	-6.90820E-3	-207.136E-12	674.558E-3	15.4464E-3
-4.71986E-3	-209.021E-12	663.418E-3	-10.1254E-3	-207.092E-12	715.811E-3	-11.8951E-3
-4.72486E-3	-208.406E-12	635.371E-3	-23.0185E-3	-208.636E-12	682.496E-3	-16.7589E-3
-4.72986E-3	-209.132E-12	632.220E-3	-39.2032E-3	-209.030E-12	633.244E-3	12.0632E-3
-4.73487E-3	-209.549E-12	656.132E-3	-43.3872E-3	-207.705E-12	646.761E-3	12.7855E-3
-4.73987E-3	-210.301E-12	680.893E-3	-13.3832E-3	-209.331E-12	661.318E-3	-11.3885E-3
-4.74487E-3	-209.662E-12	656.981E-3	21.4879E-3	-211.357E-12	651.550E-3	-15.6631E-3
-4.74988E-3	-209.055E-12	622.189E-3	18.4814E-3	-212.088E-12	665.027E-3	-17.0991E-3
-4.75488E-3	-209.978E-12	644.404E-3	-3.85539E-3	-211.929E-12	682.758E-3	-28.0058E-3
-4.75988E-3	-210.427E-12	669.956E-3	-13.4575E-3	-213.205E-12	690.554E-3	-17.7332E-3
-4.76488E-3	-210.597E-12	671.885E-3	-4.76696E-3	-214.403E-12	695.586E-3	15.1682E-3
-4.76988E-3	-210.009E-12	695.267E-3	592.304E-6	-215.575E-12	699.718E-3	49.4381E-3
-4.77489E-3	-211.653E-12	713.569E-3	-20.9685E-3	-216.408E-12	701.902E-3	53.3994E-3
-4.77989E-3	-212.336E-12	684.585E-3	-52.2955E-3	-215.218E-12	697.416E-3	24.8311E-3
-4.78489E-3	-214.189E-12	652.463E-3	-52.8231E-3	-216.073E-12	672.601E-3	-21.1147E-3
-4.78989E-3	-214.422E-12	630.966E-3	-18.4704E-3	-216.478E-12	645.218E-3	-61.2918E-3
-4.79490E-3	-214.433E-12	625.654E-3	3.86386E-3	-215.610E-12	645.396E-3	-54.2689E-3
-4.79990E-3	-214.625E-12	656.137E-3	-13.4264E-3	-215.452E-12	663.764E-3	-34.9515E-3
-4.80490E-3	-216.660E-12	659.360E-3	-35.0328E-3	-215.585E-12	682.755E-3	-42.5415E-3
-4.80990E-3	-217.105E-12	628.770E-3	-46.7949E-3	-215.969E-12	682.480E-3	-43.2366E-3
-4.81491E-3	-215.325E-12	617.221E-3	-56.8783E-3	-216.410E-12	678.177E-3	-13.8611E-3
-4.81991E-3	-216.040E-12	629.923E-3	-58.9179E-3	-217.966E-12	681.919E-3	20.7452E-3
-4.82491E-3	-217.490E-12	631.347E-3	-48.1020E-3	-217.011E-12	680.150E-3	34.7629E-3
-4.82991E-3	-218.889E-12	629.082E-3	-34.2080E-3	-217.637E-12	693.010E-3	26.4484E-3
-4.83492E-3	-216.753E-12	649.128E-3	-40.9609E-3	-219.601E-12	703.239E-3	13.0466E-3
-4.83992E-3	-215.435E-12	661.170E-3	-46.0606E-3	-218.809E-12	690.960E-3	-15.3652E-3
-4.84492E-3	-217.634E-12	654.016E-3	-33.9073E-3	-218.955E-12	661.789E-3	-55.0761E-3
-4.84992E-3	-218.414E-12	653.151E-3	-6.44124E-3	-219.646E-12	634.556E-3	-72.1190E-3
-4.85493E-3	-218.371E-12	680.941E-3	5.71504E-3	-219.726E-12	637.776E-3	-65.8395E-3
-4.85993E-3	-218.094E-12	719.044E-3	-44.3206E-3	-219.919E-12	666.477E-3	-48.9981E-3
-4.86493E-3	-217.775E-12	714.528E-3	-80.6348E-3	-220.192E-12	691.114E-3	-38.0891E-3
-4.86993E-3	-217.879E-12	691.622E-3	-62.3822E-3	-218.495E-12	712.926E-3	-33.9307E-3
-4.87494E-3	-219.138E-12	689.121E-3	-61.8728E-3	-219.457E-12	724.320E-3	-40.7327E-3
-4.87994E-3	-219.518E-12	678.657E-3	-88.4065E-3	-219.908E-12	696.513E-3	-67.3727E-3
-4.88494E-3	-219.099E-12	675.943E-3	-85.6132E-3	-218.283E-12	659.210E-3	-85.0929E-3
-4.88995E-3	-220.099E-12	683.046E-3	-46.7246E-3	-217.128E-12	641.980E-3	-65.6957E-3
-4.89495E-3	-221.202E-12	664.901E-3	-11.8806E-3	-216.604E-12	647.551E-3	-18.9053E-3
-4.89995E-3	-220.675E-12	643.671E-3	8.54343E-3	-217.471E-12	650.023E-3	-3.53583E-3
-4.90495E-3	-220.171E-12	648.467E-3	-1.93172E-3	-218.035E-12	632.110E-3	-18.5829E-3
-4.90995E-3	-220.512E-12	645.023E-3	-34.3231E-3	-218.540E-12	620.413E-3	-28.0937E-3
-4.91496E-3	-221.300E-12	631.915E-3	-43.8853E-3	-216.912E-12	637.211E-3	-44.6951E-3
-4.91996E-3	-220.952E-12	651.659E-3	-32.7086E-3	-217.500E-12	671.643E-3	-34.6095E-3
-4.92496E-3	-220.213E-12	670.208E-3	-21.3593E-3	-220.037E-12	677.437E-3	154.557E-6
-4.92996E-3	-220.644E-12	662.939E-3	-16.3250E-3	-219.722E-12	644.159E-3	77.3044E-6
-4.93497E-3	-220.248E-12	645.983E-3	-16.7115E-3	-218.073E-12	630.912E-3	-9.81077E-3
-4.93997E-3	-221.112E-12	641.827E-3	577.324E-6	-220.394E-12	654.605E-3	-15.3246E-3
-4.94497E-3	-220.773E-12	656.304E-3	19.5085E-3	-220.750E-12	669.137E-3	-34.8442E-3
-4.94997E-3	-221.043E-12	649.345E-3	8.43224E-3	-220.330E-12	669.775E-3	-46.2525E-3
-4.95498E-3	-221.687E-12	625.543E-3	554.085E-6	-219.950E-12	678.395E-3	-38.7043E-3
-4.95998E-3	-221.653E-12	625.615E-3	-5.61239E-3	-219.575E-12	671.704E-3	-11.3614E-3
-4.96498E-3	-220.282E-12	641.829E-3	-32.6274E-3	-219.885E-12	650.656E-3	18.9983E-3
-4.96998E-3	-221.692E-12	641.323E-3	-29.5975E-3	-219.221E-12	653.978E-3	26.1890E-3
-4.97499E-3	-222.608E-12	626.245E-3	-1.06151E-3	-220.239E-12	657.419E-3	2.99219E-3
-4.97999E-3	-221.601E-12	620.594E-3	-11.8301E-3	-219.515E-12	630.924E-3	-9.80833E-3
-4.98499E-3	-222.241E-12	646.371E-3	-33.4889E-3	-219.869E-12	621.360E-3	-2.37129E-3
-4.98999E-3	-222.053E-12	680.611E-3	-18.1087E-3	-219.486E-12	621.203E-3	-2.90437E-3
-4.99500E-3	-221.519E-12	685.637E-3	-14.6236E-3	-220.914E-12	616.163E-3	12.3592E-3
-5.00000E-3	-219.821E-12	680.057E-3	-14.1310E-3	-221.477E-12	651.674E-3	13.0588E-3
