Experiment	bias spectroscopy	
Date	19.01.2016 18:47:45	
User		
X (m)	50.7538E-9	
Y (m)	256.589E-9	
Z (m)	-132.617E-9	
Z offset (m)	0E+0	
Settling time (s)	200E-6	
Integration time (s)	5E-3	
Z-Ctrl hold	TRUE	
Final Z (m)	N/A	
Filter type	None	
Order		
Cutoff frq		
Comment01	MnPc/Pb(111)	
Comment02	dz =00pm	
Comment03	7 Sweeps	
Comment04	MagField =0.T	
Comment05	Divider 1:10	
Comment06	Setpoint:5mV,200 pA	
Comment07	Lockin: 50uVrms,5ms,5mV	
Comment08	Gain:9; 912Hz modulation	
Comment09	T=1.06K	
Bias>Bias (V)	5E-3	
Bias>Calibration (V/V)	81.475E-3	
Bias>Offset (V)	1.046E-3	
Bias Spectroscopy>Sweep Start (V)	5E-3	
Bias Spectroscopy>Sweep End (V)	-5E-3	
Bias Spectroscopy>Num Pixel	2000	
Bias Spectroscopy>Z Avg time (s)	500E-3	
Bias Spectroscopy>Z offset (m)	0E+0	
Bias Spectroscopy>1st Settling time (s)	500E-3	
Bias Spectroscopy>Settling time (s)	200E-6	
Bias Spectroscopy>Integration time (s)	5E-3	
Bias Spectroscopy>End Settling time (s)	500E-3	
Bias Spectroscopy>Z control time (s)	500E-3	
Bias Spectroscopy>Max Slew rate (V/s)	Inf	
Bias Spectroscopy>backward sweep	TRUE	
Bias Spectroscopy>Z-controller hold	TRUE	
Bias Spectroscopy>Number of sweeps	7	
Bias Spectroscopy>Channels	Current (A);X% LockIn (V);Y% LockIn (V)	
Bias Spectroscopy>Reset Bias	TRUE	
Bias Spectroscopy>Record final Z	FALSE	
Bias Spectroscopy>Lock-In run	FALSE	
Bias Spectroscopy>Sweep mode	Linear	
Bias Spectroscopy>MultiLine Settings : Segment Start (V), Segment End (V), Settling (s), Integration (s), Steps (xn)	100E-3,3.3E-3,100E-6,10E-3,2500;3.3E-3,-3.3E-3,100E-6,10E-3,10;-3.3E-3,-100E-3,100E-6,10E-3,2500	
Current>Current (A)	200.192E-12	
Current>Calibration (A/V)	999.99900E-12	
Current>Offset (A)	-455.429E-15	
Current>Gain	LN 10^9	
Z-Controller>Z (m)	-132.617E-9	
Z-Controller>Controller name	log Current	
Z-Controller>Controller status	ON	
Z-Controller>Setpoint	200E-12	
Z-Controller>Setpoint unit	A	
Z-Controller>P gain	2.96994E-12	
Z-Controller>I gain	67.0321E-9	
Z-Controller>Time const (s)	44.3062E-6	
Z-Controller>TipLift (m)	0E+0	
Z-Controller>Switch off delay (s)	50E-3	
Current (A)	200.174E-12	
Z (m)	-132.617E-9	

[DATA]
Bias calc (V)	Current (A)	X% LockIn (V)	Y% LockIn (V)	Current [bwd] (A)	X% LockIn [bwd] (V)	Y% LockIn [bwd] (V)
5.00000E-3	205.636E-12	662.114E-3	-50.0814E-3	200.772E-12	617.956E-3	-35.8939E-3
4.99500E-3	204.270E-12	648.343E-3	-48.3764E-3	199.043E-12	584.603E-3	-33.0668E-3
4.98999E-3	203.047E-12	661.898E-3	-33.3936E-3	196.076E-12	601.064E-3	-7.50393E-3
4.98499E-3	202.995E-12	680.493E-3	-3.55730E-3	195.038E-12	614.761E-3	-2.83795E-3
4.97999E-3	201.692E-12	683.398E-3	753.766E-6	193.066E-12	620.060E-3	-5.46903E-3
4.97499E-3	199.761E-12	675.276E-3	-16.5560E-3	192.666E-12	627.424E-3	1.88790E-3
4.96998E-3	198.251E-12	645.740E-3	-30.5813E-3	191.900E-12	623.527E-3	-3.13494E-3
4.96498E-3	197.683E-12	624.103E-3	-25.4456E-3	192.876E-12	624.635E-3	-18.2442E-3
4.95998E-3	196.916E-12	628.532E-3	-13.8641E-3	193.542E-12	639.363E-3	-46.4886E-3
4.95498E-3	195.952E-12	636.140E-3	-11.8430E-3	194.984E-12	644.083E-3	-61.1877E-3
4.94997E-3	196.818E-12	645.482E-3	3.79196E-3	195.941E-12	640.269E-3	-42.6698E-3
4.94497E-3	196.879E-12	652.881E-3	24.5717E-3	197.663E-12	666.284E-3	-20.6178E-3
4.93997E-3	196.895E-12	640.619E-3	11.8106E-3	198.983E-12	692.404E-3	-14.0772E-3
4.93497E-3	198.622E-12	623.188E-3	-6.82002E-3	200.400E-12	685.775E-3	-8.81447E-3
4.92996E-3	200.167E-12	639.395E-3	-8.01599E-3	201.603E-12	666.686E-3	10.5543E-3
4.92496E-3	199.794E-12	668.350E-3	-19.0002E-3	202.403E-12	651.740E-3	-3.96569E-3
4.91996E-3	200.470E-12	663.014E-3	-26.4044E-3	201.675E-12	641.880E-3	-33.1312E-3
4.91496E-3	201.552E-12	643.662E-3	-22.0357E-3	201.527E-12	656.812E-3	-23.8152E-3
4.90995E-3	200.704E-12	652.751E-3	-30.0134E-3	200.018E-12	677.896E-3	-13.5335E-3
4.90495E-3	200.933E-12	674.092E-3	-44.5546E-3	199.111E-12	679.823E-3	-30.7294E-3
4.89995E-3	200.876E-12	679.192E-3	-33.5776E-3	197.179E-12	671.660E-3	-35.3447E-3
4.89495E-3	198.977E-12	679.541E-3	-10.9902E-3	196.588E-12	646.666E-3	-10.0327E-3
4.88995E-3	197.745E-12	662.978E-3	-10.6078E-3	194.614E-12	613.729E-3	-16.4037E-3
4.88494E-3	197.690E-12	636.082E-3	-25.3880E-3	193.289E-12	605.585E-3	-39.5038E-3
4.87994E-3	196.143E-12	645.209E-3	-36.0601E-3	192.811E-12	642.177E-3	-20.2998E-3
4.87494E-3	194.703E-12	662.177E-3	-36.1739E-3	192.372E-12	668.203E-3	-3.43753E-3
4.86993E-3	193.715E-12	658.150E-3	-41.2424E-3	192.874E-12	659.204E-3	-16.2648E-3
4.86493E-3	192.446E-12	666.807E-3	-43.7904E-3	192.617E-12	668.292E-3	-18.9943E-3
4.85993E-3	191.367E-12	676.726E-3	-39.5158E-3	192.871E-12	702.112E-3	-7.68645E-3
4.85493E-3	190.635E-12	663.785E-3	-40.3023E-3	193.646E-12	706.923E-3	-12.2111E-3
4.84992E-3	189.993E-12	640.745E-3	-40.3394E-3	194.497E-12	680.930E-3	-31.7269E-3
4.84492E-3	190.142E-12	628.360E-3	-32.7347E-3	194.462E-12	667.993E-3	-47.5016E-3
4.83992E-3	190.597E-12	651.547E-3	-18.0185E-3	195.177E-12	661.004E-3	-55.0541E-3
4.83492E-3	190.149E-12	683.625E-3	-4.75921E-3	195.349E-12	660.637E-3	-42.6403E-3
4.82991E-3	190.456E-12	694.686E-3	-2.95939E-3	195.551E-12	684.321E-3	-42.2523E-3
4.82491E-3	191.239E-12	694.265E-3	-14.3671E-3	195.980E-12	707.082E-3	-45.2447E-3
4.81991E-3	192.298E-12	672.335E-3	-22.7928E-3	197.073E-12	701.254E-3	90.3146E-6
4.81491E-3	191.552E-12	630.774E-3	-10.0729E-3	196.404E-12	678.127E-3	27.5023E-3
4.80990E-3	192.014E-12	608.100E-3	3.47003E-3	195.760E-12	646.881E-3	9.76115E-3
4.80490E-3	192.931E-12	610.395E-3	-11.0290E-3	195.995E-12	635.775E-3	-6.34153E-3
4.79990E-3	192.206E-12	612.188E-3	-13.2621E-3	195.041E-12	653.140E-3	-10.7498E-3
4.79490E-3	191.521E-12	613.085E-3	-2.59018E-3	194.235E-12	668.522E-3	-3.77249E-3
4.78989E-3	191.964E-12	619.633E-3	-32.9842E-3	193.792E-12	676.154E-3	4.18566E-3
4.78489E-3	190.831E-12	635.680E-3	-49.3331E-3	193.301E-12	684.286E-3	-3.66512E-3
4.77989E-3	189.853E-12	652.184E-3	-28.2702E-3	192.327E-12	695.353E-3	-20.3134E-3
4.77489E-3	190.060E-12	673.689E-3	-31.6251E-3	191.575E-12	682.547E-3	-16.9048E-3
4.76988E-3	189.656E-12	685.461E-3	-33.5860E-3	190.174E-12	667.452E-3	10.5808E-3
4.76488E-3	188.705E-12	682.109E-3	-3.19519E-3	188.724E-12	666.383E-3	29.2336E-3
4.75988E-3	187.334E-12	679.034E-3	18.3514E-3	186.713E-12	657.672E-3	17.8445E-3
4.75488E-3	188.034E-12	661.613E-3	3.93156E-3	186.389E-12	652.208E-3	-12.9767E-3
4.74988E-3	187.437E-12	650.068E-3	-23.1696E-3	185.067E-12	643.866E-3	-32.5108E-3
4.74487E-3	187.271E-12	643.703E-3	-16.3628E-3	184.390E-12	629.390E-3	-12.1977E-3
4.73987E-3	186.296E-12	631.067E-3	2.19520E-3	184.444E-12	627.007E-3	13.4807E-3
4.73487E-3	187.098E-12	625.336E-3	-8.68753E-3	185.437E-12	646.880E-3	13.9159E-3
4.72986E-3	186.682E-12	624.791E-3	-10.1607E-3	185.584E-12	661.316E-3	-3.95013E-3
4.72486E-3	186.788E-12	631.816E-3	1.65181E-3	186.404E-12	653.651E-3	-35.5496E-3
4.71986E-3	186.875E-12	631.011E-3	-3.94139E-3	187.708E-12	652.689E-3	-42.8239E-3
4.71486E-3	187.809E-12	609.084E-3	-3.48057E-3	189.039E-12	658.196E-3	-23.2034E-3
4.70985E-3	187.890E-12	611.233E-3	9.41603E-3	190.768E-12	647.500E-3	-10.4278E-3
4.70485E-3	188.622E-12	648.208E-3	-5.79159E-3	190.864E-12	638.775E-3	-9.27139E-3
4.69985E-3	189.547E-12	661.266E-3	-29.2171E-3	191.836E-12	664.453E-3	650.234E-6
4.69485E-3	188.939E-12	640.390E-3	-49.1364E-3	192.293E-12	683.174E-3	11.7839E-3
4.68984E-3	189.191E-12	633.402E-3	-75.9391E-3	192.234E-12	667.804E-3	9.45254E-3
4.68484E-3	189.376E-12	644.185E-3	-59.5463E-3	190.440E-12	662.910E-3	2.60508E-3
4.67984E-3	189.020E-12	661.790E-3	-7.67136E-3	189.841E-12	668.937E-3	-29.6120E-3
4.67484E-3	188.611E-12	680.630E-3	2.76616E-3	188.156E-12	654.867E-3	-56.2535E-3
4.66983E-3	188.864E-12	667.955E-3	-30.9703E-3	186.236E-12	649.154E-3	-44.5056E-3
4.66483E-3	188.328E-12	660.907E-3	-58.4978E-3	185.146E-12	670.903E-3	-34.7721E-3
4.65983E-3	188.152E-12	676.076E-3	-53.7334E-3	183.218E-12	668.086E-3	-40.9387E-3
4.65483E-3	187.648E-12	672.894E-3	-19.7328E-3	181.079E-12	634.431E-3	-39.7123E-3
4.64982E-3	186.348E-12	674.966E-3	6.44964E-3	180.174E-12	635.836E-3	-34.3325E-3
4.64482E-3	185.947E-12	702.074E-3	-3.43036E-3	180.392E-12	659.781E-3	-36.9046E-3
4.63982E-3	184.961E-12	698.505E-3	-32.5008E-3	179.560E-12	667.788E-3	-28.0898E-3
4.63482E-3	185.394E-12	671.490E-3	-25.4356E-3	180.306E-12	675.755E-3	-21.3523E-3
4.62981E-3	184.064E-12	676.116E-3	3.87964E-3	181.401E-12	679.527E-3	-34.3054E-3
4.62481E-3	184.181E-12	688.276E-3	14.3400E-3	183.416E-12	656.048E-3	-28.1677E-3
4.61981E-3	184.129E-12	673.000E-3	15.9447E-3	184.114E-12	629.336E-3	-3.97551E-3
4.61481E-3	184.433E-12	644.444E-3	10.7912E-3	185.544E-12	643.491E-3	-3.35920E-3
4.60980E-3	184.871E-12	632.963E-3	7.80130E-3	186.802E-12	674.570E-3	-5.90525E-3
4.60480E-3	185.258E-12	638.715E-3	-858.459E-6	188.504E-12	668.685E-3	-8.27276E-3
4.59980E-3	185.520E-12	661.895E-3	-14.2568E-3	189.048E-12	650.541E-3	-10.2096E-3
4.59480E-3	185.132E-12	690.390E-3	-16.8170E-3	189.476E-12	663.512E-3	7.13612E-3
4.58979E-3	185.820E-12	697.120E-3	-23.8056E-3	189.155E-12	670.069E-3	19.1071E-3
4.58479E-3	185.149E-12	695.433E-3	-35.0368E-3	187.297E-12	639.717E-3	13.6010E-3
4.57979E-3	185.376E-12	697.711E-3	-15.4925E-3	186.807E-12	619.066E-3	976.702E-6
4.57479E-3	184.780E-12	676.378E-3	14.1827E-3	184.589E-12	628.978E-3	-5.41813E-3
4.56978E-3	184.516E-12	642.296E-3	5.18545E-3	182.589E-12	645.590E-3	-14.8095E-3
4.56478E-3	184.376E-12	630.997E-3	-21.0673E-3	180.549E-12	660.182E-3	-22.8667E-3
4.55978E-3	182.626E-12	644.641E-3	-11.7525E-3	179.253E-12	663.998E-3	-6.09632E-3
4.55478E-3	182.143E-12	654.340E-3	17.6449E-3	178.070E-12	666.698E-3	8.61782E-3
4.54977E-3	181.313E-12	641.445E-3	22.6838E-3	177.438E-12	659.564E-3	4.74602E-3
4.54477E-3	180.332E-12	629.199E-3	8.94669E-3	176.523E-12	637.421E-3	1.90741E-3
4.53977E-3	179.295E-12	614.108E-3	-9.26499E-3	176.860E-12	628.759E-3	6.85413E-3
4.53477E-3	179.572E-12	612.547E-3	-28.7827E-3	177.001E-12	641.206E-3	19.9324E-3
4.52976E-3	178.300E-12	635.120E-3	-30.4810E-3	177.570E-12	658.241E-3	37.9104E-3
4.52476E-3	178.056E-12	647.250E-3	-10.4665E-3	178.641E-12	651.123E-3	38.8803E-3
4.51976E-3	178.383E-12	648.882E-3	-3.40499E-3	179.409E-12	636.362E-3	20.9362E-3
4.51476E-3	178.056E-12	655.654E-3	-16.1647E-3	180.093E-12	633.804E-3	3.24997E-3
4.50975E-3	177.965E-12	645.253E-3	-16.7029E-3	181.316E-12	629.775E-3	-3.75877E-3
4.50475E-3	177.661E-12	625.790E-3	-22.1206E-3	181.977E-12	637.116E-3	-1.98583E-3
4.49975E-3	177.793E-12	641.691E-3	-41.0761E-3	182.331E-12	642.263E-3	-24.0588E-3
4.49475E-3	177.557E-12	664.883E-3	-37.1384E-3	181.666E-12	634.966E-3	-45.5554E-3
4.48974E-3	178.594E-12	681.898E-3	-16.9336E-3	181.336E-12	646.062E-3	-17.5437E-3
4.48474E-3	178.198E-12	711.552E-3	-478.943E-6	180.116E-12	657.221E-3	17.3366E-3
4.47974E-3	177.895E-12	707.660E-3	-6.17001E-3	179.706E-12	655.573E-3	10.7256E-3
4.47474E-3	178.104E-12	661.857E-3	-16.7494E-3	177.547E-12	658.775E-3	-8.32516E-3
4.46973E-3	177.586E-12	642.547E-3	-17.2665E-3	176.669E-12	665.552E-3	5.71269E-3
4.46473E-3	176.878E-12	659.202E-3	-25.3848E-3	175.526E-12	679.977E-3	14.8126E-3
4.45973E-3	176.393E-12	660.919E-3	-12.6744E-3	174.647E-12	666.306E-3	6.56706E-3
4.45473E-3	176.517E-12	655.794E-3	4.24218E-3	173.370E-12	636.462E-3	6.07140E-3
4.44972E-3	174.967E-12	662.096E-3	513.419E-6	172.634E-12	652.356E-3	-10.5502E-3
4.44472E-3	174.732E-12	659.137E-3	-12.9046E-3	173.430E-12	663.269E-3	-18.1766E-3
4.43972E-3	174.342E-12	645.183E-3	-32.0501E-3	173.149E-12	648.288E-3	8.35344E-3
4.43472E-3	173.596E-12	648.132E-3	-42.4366E-3	173.335E-12	657.069E-3	14.1860E-3
4.42971E-3	173.171E-12	664.802E-3	-60.3920E-3	174.235E-12	666.190E-3	2.11431E-3
4.42471E-3	173.198E-12	665.378E-3	-79.8797E-3	174.348E-12	660.058E-3	5.96602E-3
4.41971E-3	172.990E-12	646.894E-3	-65.6050E-3	174.965E-12	669.634E-3	-5.45312E-3
4.41471E-3	172.930E-12	640.776E-3	-36.7959E-3	175.632E-12	663.387E-3	-25.9780E-3
4.40970E-3	173.619E-12	645.751E-3	-31.3171E-3	176.166E-12	640.805E-3	-21.8283E-3
4.40470E-3	173.972E-12	642.909E-3	-28.3685E-3	175.708E-12	633.240E-3	-24.6121E-3
4.39970E-3	174.210E-12	633.239E-3	-6.92248E-3	175.820E-12	619.030E-3	-38.0889E-3
4.39470E-3	174.738E-12	622.475E-3	-4.44588E-3	175.373E-12	617.314E-3	-35.2612E-3
4.38969E-3	175.309E-12	652.452E-3	-32.8596E-3	174.994E-12	636.377E-3	-21.3555E-3
4.38469E-3	175.159E-12	691.683E-3	-46.6640E-3	174.563E-12	635.852E-3	-6.53264E-3
4.37969E-3	175.778E-12	678.459E-3	-41.3927E-3	173.953E-12	627.638E-3	-6.92263E-3
4.37469E-3	175.572E-12	664.028E-3	-20.3305E-3	173.603E-12	642.708E-3	-8.86231E-3
4.36968E-3	175.463E-12	664.390E-3	3.30387E-3	173.122E-12	654.310E-3	-5.17596E-3
4.36468E-3	175.864E-12	657.147E-3	4.94150E-3	171.580E-12	628.304E-3	5.25301E-3
4.35968E-3	175.330E-12	654.465E-3	-865.174E-6	171.597E-12	595.044E-3	15.7254E-3
4.35468E-3	174.496E-12	653.617E-3	-5.84821E-3	170.848E-12	605.071E-3	-10.9387E-3
4.34967E-3	174.209E-12	659.809E-3	-8.97032E-3	170.181E-12	635.354E-3	-37.0049E-3
4.34467E-3	173.479E-12	668.156E-3	-25.4070E-3	169.871E-12	655.033E-3	-17.1815E-3
4.33967E-3	172.533E-12	675.563E-3	-31.6357E-3	169.839E-12	663.114E-3	-1.95075E-3
4.33467E-3	171.994E-12	668.625E-3	-32.9324E-3	169.250E-12	651.907E-3	-12.6193E-3
4.32966E-3	171.311E-12	652.936E-3	-40.8017E-3	169.971E-12	651.863E-3	-13.5776E-3
4.32466E-3	170.654E-12	653.814E-3	-11.2924E-3	170.143E-12	666.008E-3	1.89450E-3
4.31966E-3	170.379E-12	647.411E-3	25.8052E-3	170.285E-12	663.148E-3	5.59743E-3
4.31466E-3	170.300E-12	648.434E-3	5.52104E-3	169.952E-12	656.204E-3	-10.8595E-3
4.30965E-3	170.480E-12	665.910E-3	-28.7467E-3	170.619E-12	661.805E-3	-24.6304E-3
4.30465E-3	169.860E-12	663.128E-3	-29.0146E-3	170.413E-12	664.938E-3	-39.7431E-3
4.29965E-3	170.707E-12	645.495E-3	-32.5597E-3	169.989E-12	641.953E-3	-40.6495E-3
4.29465E-3	170.499E-12	641.490E-3	-43.9101E-3	170.698E-12	628.337E-3	-8.92264E-3
4.28964E-3	169.774E-12	643.200E-3	-53.7716E-3	171.180E-12	660.994E-3	6.07485E-3
4.28464E-3	170.561E-12	642.553E-3	-52.4574E-3	171.293E-12	691.761E-3	-9.39730E-3
4.27964E-3	170.076E-12	651.789E-3	-38.4080E-3	171.200E-12	680.458E-3	-23.0990E-3
4.27464E-3	169.009E-12	663.668E-3	-17.9146E-3	172.187E-12	657.238E-3	-33.7451E-3
4.26963E-3	168.750E-12	663.792E-3	-1.97793E-3	171.403E-12	654.292E-3	-27.3043E-3
4.26463E-3	168.679E-12	662.019E-3	-8.96298E-3	171.135E-12	677.993E-3	-15.6238E-3
4.25963E-3	168.114E-12	663.514E-3	-19.4231E-3	170.942E-12	705.367E-3	-22.9629E-3
4.25463E-3	167.711E-12	652.802E-3	-19.6203E-3	170.198E-12	708.548E-3	-26.1435E-3
4.24962E-3	167.323E-12	654.268E-3	-9.79170E-3	169.291E-12	696.279E-3	-8.97343E-3
4.24462E-3	166.829E-12	665.160E-3	11.5064E-3	168.061E-12	681.399E-3	-1.41527E-3
4.23962E-3	166.224E-12	660.228E-3	18.2047E-3	167.542E-12	655.949E-3	-627.843E-6
4.23462E-3	165.544E-12	643.132E-3	2.74096E-3	166.515E-12	642.474E-3	19.9198E-3
4.22961E-3	165.433E-12	621.977E-3	-17.6286E-3	165.977E-12	660.584E-3	13.3591E-3
4.22461E-3	165.010E-12	612.208E-3	-22.0937E-3	164.578E-12	679.277E-3	-13.3220E-3
4.21961E-3	164.751E-12	631.556E-3	-22.1970E-3	164.560E-12	667.885E-3	-3.38133E-3
4.21461E-3	164.285E-12	660.228E-3	-31.8378E-3	163.947E-12	640.643E-3	7.70296E-3
4.20960E-3	164.641E-12	649.265E-3	-30.1384E-3	164.489E-12	632.022E-3	-142.099E-6
4.20460E-3	164.570E-12	625.488E-3	-27.7385E-3	164.329E-12	641.474E-3	9.89950E-3
4.19960E-3	164.028E-12	640.987E-3	-21.5368E-3	164.598E-12	651.330E-3	16.5968E-3
4.19460E-3	164.421E-12	667.558E-3	-7.52155E-3	165.133E-12	656.904E-3	-2.46905E-3
4.18959E-3	164.674E-12	668.734E-3	-16.1972E-3	165.501E-12	665.323E-3	-8.05255E-3
4.18459E-3	165.054E-12	652.005E-3	-33.2983E-3	166.094E-12	669.334E-3	-3.33428E-3
4.17959E-3	164.890E-12	633.061E-3	-28.2012E-3	165.928E-12	663.013E-3	-15.2718E-3
4.17459E-3	165.351E-12	625.603E-3	-1.38727E-3	166.341E-12	666.126E-3	-21.7153E-3
4.16958E-3	165.340E-12	644.741E-3	25.7315E-3	166.386E-12	682.659E-3	-23.7834E-3
4.16458E-3	165.296E-12	678.310E-3	21.8916E-3	166.009E-12	677.966E-3	-27.5675E-3
4.15958E-3	165.192E-12	692.984E-3	-12.3698E-3	165.444E-12	645.007E-3	-17.7467E-3
4.15458E-3	165.092E-12	682.118E-3	-23.6921E-3	164.354E-12	633.658E-3	-15.6217E-3
4.14957E-3	164.857E-12	669.262E-3	3.29057E-3	162.887E-12	651.847E-3	-15.1146E-3
4.14457E-3	163.975E-12	669.104E-3	16.2710E-3	161.641E-12	665.541E-3	-4.24235E-3
4.13957E-3	164.007E-12	680.929E-3	1.72066E-3	160.507E-12	661.682E-3	-6.31008E-3
4.13457E-3	163.651E-12	683.585E-3	-3.26280E-3	158.942E-12	646.824E-3	-30.9126E-3
4.12956E-3	162.884E-12	674.034E-3	-4.92680E-3	157.774E-12	635.003E-3	-51.4785E-3
4.12456E-3	162.283E-12	660.916E-3	-6.62224E-3	157.651E-12	641.407E-3	-35.7223E-3
4.11956E-3	162.217E-12	653.212E-3	-3.58054E-3	157.314E-12	656.729E-3	-10.0005E-3
4.11456E-3	161.887E-12	669.602E-3	-20.9891E-3	157.124E-12	648.553E-3	-7.21611E-3
4.10955E-3	161.610E-12	672.247E-3	-34.5954E-3	157.693E-12	623.785E-3	-18.7322E-3
4.10455E-3	161.167E-12	652.971E-3	-25.5090E-3	158.758E-12	623.732E-3	-21.4449E-3
4.09955E-3	161.104E-12	661.172E-3	-12.5592E-3	159.590E-12	644.645E-3	-31.3201E-3
4.09455E-3	160.835E-12	672.812E-3	-16.3918E-3	161.087E-12	667.871E-3	-45.6049E-3
4.08954E-3	160.780E-12	664.885E-3	-33.6095E-3	162.064E-12	692.085E-3	-19.3500E-3
4.08454E-3	160.722E-12	659.721E-3	-26.0314E-3	162.514E-12	691.122E-3	1.93479E-3
4.07954E-3	161.123E-12	648.003E-3	-15.3573E-3	163.048E-12	670.890E-3	-21.9747E-3
4.07454E-3	160.915E-12	649.531E-3	-21.9692E-3	164.308E-12	668.066E-3	-41.5932E-3
4.06953E-3	161.080E-12	658.814E-3	-23.2928E-3	163.471E-12	680.396E-3	-31.8922E-3
4.06453E-3	161.380E-12	649.348E-3	-15.5090E-3	163.212E-12	681.064E-3	-28.4741E-3
4.05953E-3	160.981E-12	636.593E-3	-422.093E-6	163.100E-12	672.775E-3	-16.4186E-3
4.05453E-3	160.849E-12	646.047E-3	4.87067E-3	162.155E-12	667.573E-3	9.98254E-3
4.04952E-3	160.947E-12	673.698E-3	-4.23124E-3	160.368E-12	644.084E-3	-1.52394E-3
4.04452E-3	161.078E-12	697.013E-3	-11.6771E-3	159.365E-12	618.831E-3	-20.9343E-3
4.03952E-3	159.885E-12	707.336E-3	-14.3362E-3	157.614E-12	623.671E-3	-2.51549E-3
4.03452E-3	159.765E-12	692.779E-3	-35.0534E-3	156.534E-12	644.916E-3	21.0134E-3
4.02951E-3	158.841E-12	673.080E-3	-66.0906E-3	155.865E-12	665.985E-3	31.7701E-3
4.02451E-3	157.922E-12	667.861E-3	-57.8103E-3	155.754E-12	688.902E-3	28.7650E-3
4.01951E-3	157.067E-12	659.557E-3	-23.9752E-3	155.028E-12	698.278E-3	15.9033E-3
4.01451E-3	156.038E-12	645.450E-3	-12.8772E-3	155.309E-12	693.312E-3	14.3326E-3
4.00950E-3	155.083E-12	640.081E-3	-21.2483E-3	156.503E-12	687.599E-3	935.626E-6
4.00450E-3	154.857E-12	639.594E-3	-24.5626E-3	156.211E-12	686.912E-3	-18.1865E-3
3.99950E-3	153.931E-12	642.853E-3	-26.6709E-3	157.617E-12	699.654E-3	-21.4121E-3
3.99450E-3	154.086E-12	638.529E-3	-29.7823E-3	158.645E-12	704.074E-3	-23.2671E-3
3.98949E-3	154.439E-12	644.291E-3	-27.0033E-3	159.642E-12	692.361E-3	-19.2930E-3
3.98449E-3	154.419E-12	660.478E-3	-30.6605E-3	159.895E-12	683.081E-3	-25.3552E-3
3.97949E-3	154.248E-12	650.603E-3	-18.3626E-3	160.341E-12	668.333E-3	-49.6538E-3
3.97449E-3	155.344E-12	631.186E-3	-3.18273E-3	160.382E-12	654.632E-3	-71.7579E-3
3.96948E-3	155.179E-12	632.907E-3	592.878E-6	159.137E-12	660.690E-3	-66.8539E-3
3.96448E-3	155.432E-12	651.523E-3	12.8190E-3	158.454E-12	659.547E-3	-26.2389E-3
3.95948E-3	155.538E-12	663.754E-3	11.9012E-3	157.484E-12	646.728E-3	1.62364E-3
3.95448E-3	156.228E-12	675.662E-3	7.36508E-3	155.730E-12	629.754E-3	-6.87099E-3
3.94947E-3	155.877E-12	682.408E-3	32.5307E-3	154.273E-12	612.691E-3	-19.5126E-3
3.94447E-3	155.682E-12	681.983E-3	52.1460E-3	153.340E-12	623.435E-3	-14.1674E-3
3.93947E-3	155.370E-12	679.162E-3	33.3630E-3	152.062E-12	647.458E-3	-7.52822E-3
3.93447E-3	155.181E-12	674.802E-3	9.82911E-3	150.708E-12	651.001E-3	-8.31003E-3
3.92946E-3	153.803E-12	674.867E-3	4.37517E-3	149.536E-12	640.765E-3	3.75772E-3
3.92446E-3	153.401E-12	665.704E-3	5.76711E-3	149.387E-12	632.602E-3	1.59589E-3
3.91946E-3	152.410E-12	657.581E-3	5.91134E-3	148.954E-12	617.425E-3	-14.4752E-3
3.91446E-3	151.955E-12	675.595E-3	7.41721E-3	149.075E-12	615.696E-3	-14.7248E-3
3.90945E-3	151.186E-12	671.161E-3	10.3617E-3	149.638E-12	638.880E-3	-9.47820E-3
3.90445E-3	150.210E-12	660.357E-3	-4.39675E-3	150.053E-12	655.416E-3	-2.55999E-3
3.89945E-3	149.815E-12	672.616E-3	-27.2164E-3	150.363E-12	669.097E-3	7.17835E-3
3.89445E-3	149.392E-12	662.512E-3	-20.9120E-3	151.390E-12	679.566E-3	4.17449E-3
3.88944E-3	149.365E-12	652.352E-3	-7.22218E-3	151.967E-12	675.216E-3	-19.0538E-3
3.88444E-3	148.990E-12	657.043E-3	-18.1285E-3	152.381E-12	661.138E-3	-29.1478E-3
3.87944E-3	148.928E-12	650.108E-3	-25.0226E-3	153.092E-12	664.406E-3	-18.6788E-3
3.87444E-3	149.115E-12	627.057E-3	-13.8529E-3	153.330E-12	688.990E-3	-14.4545E-3
3.86943E-3	149.443E-12	617.931E-3	-15.7119E-3	153.172E-12	682.236E-3	-7.92508E-3
3.86443E-3	149.949E-12	626.094E-3	-35.0033E-3	153.087E-12	645.798E-3	-573.007E-6
3.85943E-3	150.332E-12	641.149E-3	-44.3381E-3	152.342E-12	629.059E-3	-4.71092E-3
3.85443E-3	150.917E-12	652.168E-3	-30.4822E-3	151.422E-12	623.196E-3	116.020E-6
3.84942E-3	150.864E-12	637.288E-3	-7.13872E-3	151.172E-12	623.098E-3	9.06021E-3
3.84442E-3	151.137E-12	623.240E-3	-10.7029E-3	150.476E-12	644.149E-3	-8.82854E-3
3.83942E-3	151.055E-12	633.416E-3	-24.9658E-3	150.364E-12	656.870E-3	-40.2789E-3
3.83442E-3	150.787E-12	652.852E-3	-10.1678E-3	149.170E-12	646.528E-3	-55.6061E-3
3.82941E-3	149.944E-12	653.325E-3	-1.77816E-3	149.189E-12	639.563E-3	-51.8827E-3
3.82441E-3	149.920E-12	645.792E-3	-13.6924E-3	148.664E-12	651.720E-3	-30.6491E-3
3.81941E-3	149.334E-12	645.697E-3	-13.7540E-3	148.023E-12	654.676E-3	-16.1923E-3
3.81441E-3	148.402E-12	652.850E-3	-6.79828E-3	147.118E-12	640.326E-3	-27.4225E-3
3.80940E-3	147.486E-12	664.900E-3	-3.91578E-3	147.208E-12	649.128E-3	-38.7981E-3
3.80440E-3	146.976E-12	660.242E-3	3.47171E-3	147.277E-12	671.514E-3	-33.8044E-3
3.79940E-3	147.072E-12	645.609E-3	-471.731E-6	146.919E-12	670.612E-3	-44.4407E-3
3.79440E-3	146.213E-12	640.242E-3	-16.7850E-3	147.142E-12	657.249E-3	-57.1974E-3
3.78939E-3	146.289E-12	645.470E-3	-27.8366E-3	146.863E-12	659.000E-3	-29.3560E-3
3.78439E-3	146.195E-12	640.390E-3	-35.4080E-3	147.541E-12	668.221E-3	-1.52482E-3
3.77939E-3	146.590E-12	636.482E-3	-40.7342E-3	147.618E-12	671.464E-3	4.75749E-3
3.77439E-3	146.521E-12	643.079E-3	-29.6712E-3	148.002E-12	673.636E-3	24.6968E-3
3.76938E-3	147.647E-12	649.532E-3	-7.35324E-3	148.331E-12	690.842E-3	27.2422E-3
3.76438E-3	147.403E-12	664.706E-3	-553.589E-6	148.581E-12	708.742E-3	-5.87477E-3
3.75938E-3	148.176E-12	682.113E-3	-5.04128E-3	148.907E-12	687.301E-3	-30.3092E-3
3.75438E-3	148.844E-12	686.466E-3	-16.3994E-3	148.811E-12	667.198E-3	-36.0825E-3
3.74937E-3	148.531E-12	688.296E-3	-29.4913E-3	148.903E-12	677.266E-3	-34.6107E-3
3.74437E-3	148.155E-12	685.610E-3	-30.5946E-3	148.285E-12	685.510E-3	-28.9630E-3
3.73937E-3	148.600E-12	688.714E-3	-23.0684E-3	148.089E-12	684.325E-3	-21.1261E-3
3.73437E-3	148.161E-12	703.108E-3	-14.8688E-3	147.507E-12	666.160E-3	-11.9283E-3
3.72936E-3	147.497E-12	691.115E-3	-7.53539E-3	146.738E-12	652.238E-3	-8.17660E-3
3.72436E-3	147.068E-12	672.997E-3	-6.66177E-3	145.681E-12	651.139E-3	-11.8991E-3
3.71936E-3	146.679E-12	672.001E-3	7.53000E-3	144.294E-12	637.568E-3	-15.0212E-3
3.71436E-3	145.781E-12	685.883E-3	21.8491E-3	142.868E-12	629.957E-3	-20.6287E-3
3.70935E-3	145.557E-12	692.367E-3	-4.75841E-3	141.352E-12	641.040E-3	-25.8994E-3
3.70435E-3	145.200E-12	670.614E-3	-28.9775E-3	140.581E-12	654.655E-3	-8.42527E-3
3.69935E-3	144.694E-12	648.030E-3	-18.9608E-3	139.938E-12	660.059E-3	35.9332E-3
3.69435E-3	143.663E-12	649.373E-3	-12.3279E-3	139.777E-12	655.046E-3	58.2281E-3
3.68934E-3	143.817E-12	650.837E-3	-31.2787E-3	139.454E-12	646.780E-3	21.7515E-3
3.68434E-3	143.489E-12	637.818E-3	-45.8973E-3	139.928E-12	649.075E-3	-29.2610E-3
3.67934E-3	142.818E-12	653.328E-3	-45.8245E-3	140.112E-12	670.145E-3	-36.3368E-3
3.67434E-3	142.728E-12	680.241E-3	-36.6227E-3	140.800E-12	698.023E-3	-22.2380E-3
3.66933E-3	142.136E-12	668.497E-3	-21.8161E-3	142.089E-12	716.280E-3	-25.8540E-3
3.66433E-3	141.448E-12	655.214E-3	-15.6204E-3	142.698E-12	711.558E-3	-17.5854E-3
3.65933E-3	141.361E-12	672.736E-3	-25.8413E-3	143.748E-12	690.301E-3	-6.06110E-3
3.65433E-3	140.571E-12	673.472E-3	-31.8013E-3	143.765E-12	674.749E-3	-11.7890E-3
3.64932E-3	140.431E-12	658.099E-3	-19.9354E-3	144.461E-12	685.316E-3	-6.36739E-3
3.64432E-3	140.375E-12	660.971E-3	-12.5616E-3	144.679E-12	704.916E-3	-14.1625E-3
3.63932E-3	140.223E-12	677.870E-3	-6.49980E-3	144.351E-12	690.896E-3	-48.4270E-3
3.63432E-3	139.842E-12	679.932E-3	-5.95160E-3	143.461E-12	651.144E-3	-57.2932E-3
3.62931E-3	140.032E-12	656.508E-3	-23.3148E-3	142.970E-12	624.402E-3	-35.2252E-3
3.62431E-3	139.718E-12	646.379E-3	-46.5612E-3	141.706E-12	637.034E-3	-21.1251E-3
3.61931E-3	139.667E-12	675.400E-3	-44.9005E-3	140.005E-12	675.971E-3	-24.0194E-3
3.61431E-3	139.749E-12	713.158E-3	-31.0607E-3	138.497E-12	680.365E-3	-17.3999E-3
3.60930E-3	139.254E-12	716.973E-3	-30.9953E-3	137.517E-12	652.717E-3	-3.81259E-3
3.60430E-3	139.250E-12	699.376E-3	-33.7463E-3	136.022E-12	646.545E-3	-11.6948E-3
3.59930E-3	138.456E-12	677.276E-3	-24.6731E-3	135.290E-12	654.227E-3	-18.8919E-3
3.59430E-3	138.235E-12	661.922E-3	-28.4121E-3	134.471E-12	657.958E-3	-11.0893E-3
3.58929E-3	137.818E-12	658.284E-3	-50.4995E-3	134.377E-12	670.740E-3	-622.733E-6
3.58429E-3	137.139E-12	653.847E-3	-46.6189E-3	134.221E-12	674.850E-3	-3.69564E-3
3.57929E-3	136.360E-12	651.774E-3	-17.1394E-3	135.116E-12	650.489E-3	-28.1464E-3
3.57429E-3	136.424E-12	659.655E-3	1.06491E-3	136.068E-12	640.217E-3	-55.7999E-3
3.56928E-3	135.791E-12	661.370E-3	-8.88931E-3	136.836E-12	663.730E-3	-60.3143E-3
3.56428E-3	134.894E-12	640.193E-3	-16.0128E-3	137.752E-12	668.132E-3	-35.7478E-3
3.55928E-3	135.085E-12	626.261E-3	-18.9295E-3	139.027E-12	655.390E-3	-12.5688E-3
3.55428E-3	135.000E-12	643.537E-3	-9.06275E-3	139.320E-12	658.363E-3	-1.45247E-3
3.54927E-3	135.227E-12	652.541E-3	23.0674E-3	139.666E-12	651.640E-3	-677.281E-6
3.54427E-3	135.963E-12	638.076E-3	17.6878E-3	139.769E-12	650.565E-3	-6.04221E-3
3.53927E-3	136.047E-12	643.529E-3	-4.30221E-3	139.165E-12	663.953E-3	-19.8652E-3
3.53427E-3	136.527E-12	657.755E-3	-1.50253E-3	138.440E-12	661.905E-3	-36.5921E-3
3.52926E-3	137.326E-12	662.867E-3	-14.3434E-3	137.619E-12	653.733E-3	-28.2733E-3
3.52426E-3	137.402E-12	677.791E-3	-32.8744E-3	136.383E-12	658.085E-3	-12.7325E-3
3.51926E-3	137.686E-12	697.573E-3	-28.5501E-3	134.791E-12	669.476E-3	-24.1138E-3
3.51426E-3	137.692E-12	690.747E-3	-21.9257E-3	133.870E-12	673.271E-3	-33.7018E-3
3.50925E-3	137.721E-12	669.084E-3	-16.9311E-3	132.861E-12	666.501E-3	-18.2453E-3
3.50425E-3	136.698E-12	677.738E-3	-8.49292E-3	131.974E-12	663.657E-3	-13.5880E-3
3.49925E-3	136.717E-12	706.319E-3	-11.8497E-3	131.378E-12	661.720E-3	-30.9773E-3
3.49425E-3	135.824E-12	703.485E-3	-26.6023E-3	131.135E-12	656.435E-3	-39.9295E-3
3.48924E-3	135.162E-12	671.628E-3	-36.2598E-3	131.227E-12	667.029E-3	-25.7670E-3
3.48424E-3	134.250E-12	673.718E-3	-31.3626E-3	131.549E-12	691.477E-3	-7.93703E-3
3.47924E-3	133.889E-12	692.978E-3	-24.0427E-3	132.316E-12	699.283E-3	-7.52364E-3
3.47424E-3	133.144E-12	678.376E-3	-28.6509E-3	132.807E-12	680.578E-3	-25.4580E-3
3.46923E-3	132.531E-12	663.964E-3	-30.5157E-3	133.601E-12	670.304E-3	-41.7918E-3
3.46423E-3	132.119E-12	668.948E-3	-23.5696E-3	134.300E-12	684.904E-3	-28.1529E-3
3.45923E-3	131.899E-12	659.810E-3	-28.0983E-3	134.516E-12	693.810E-3	-16.0662E-3
3.45423E-3	132.282E-12	644.396E-3	-38.1739E-3	134.696E-12	673.576E-3	-26.4634E-3
3.44922E-3	132.059E-12	644.098E-3	-35.1149E-3	134.852E-12	657.492E-3	-17.3885E-3
3.44422E-3	132.233E-12	652.052E-3	-43.0627E-3	134.482E-12	662.677E-3	-2.60654E-3
3.43922E-3	132.654E-12	653.847E-3	-51.2626E-3	134.104E-12	663.424E-3	4.47756E-3
3.43422E-3	132.755E-12	651.253E-3	-28.0456E-3	133.365E-12	668.643E-3	20.0090E-3
3.42921E-3	133.016E-12	652.252E-3	-8.31715E-3	132.992E-12	673.537E-3	21.7764E-3
3.42421E-3	133.285E-12	648.952E-3	-6.66846E-3	132.292E-12	667.552E-3	6.01996E-3
3.41921E-3	133.081E-12	651.698E-3	5.52412E-3	131.675E-12	658.772E-3	-7.84623E-3
3.41421E-3	132.933E-12	658.413E-3	23.3564E-3	130.867E-12	651.198E-3	-15.4586E-3
3.40920E-3	132.752E-12	655.118E-3	13.9794E-3	130.353E-12	650.863E-3	-24.8523E-3
3.40420E-3	131.981E-12	656.676E-3	-6.33310E-3	129.588E-12	644.962E-3	-21.0907E-3
3.39920E-3	131.027E-12	663.433E-3	7.56107E-3	129.390E-12	643.508E-3	-596.689E-6
3.39420E-3	130.915E-12	663.723E-3	15.0090E-3	129.652E-12	665.844E-3	-10.9604E-3
3.38919E-3	130.049E-12	668.313E-3	-12.0622E-3	129.100E-12	687.193E-3	-34.6989E-3
3.38419E-3	129.088E-12	669.398E-3	-25.2159E-3	128.940E-12	692.045E-3	-15.8911E-3
3.37919E-3	128.626E-12	660.623E-3	-1.90057E-3	128.769E-12	681.844E-3	3.23186E-3
3.37419E-3	128.281E-12	665.636E-3	17.3444E-3	129.037E-12	668.307E-3	-10.9772E-3
3.36918E-3	127.612E-12	672.869E-3	11.5701E-3	128.290E-12	660.256E-3	-6.36216E-3
3.36418E-3	127.282E-12	671.979E-3	-1.09641E-3	128.663E-12	653.281E-3	255.214E-6
3.35918E-3	127.308E-12	664.529E-3	-19.4039E-3	128.533E-12	653.402E-3	-14.7625E-3
3.35418E-3	127.110E-12	648.475E-3	-25.4336E-3	128.768E-12	661.427E-3	-16.4293E-3
3.34917E-3	127.494E-12	640.928E-3	-3.83893E-3	128.625E-12	667.585E-3	-16.4430E-3
3.34417E-3	127.681E-12	652.315E-3	11.0367E-3	128.780E-12	669.764E-3	-26.9118E-3
3.33917E-3	127.353E-12	677.598E-3	1.47070E-3	128.681E-12	678.255E-3	-19.2762E-3
3.33417E-3	127.353E-12	686.743E-3	-12.3141E-3	128.693E-12	687.093E-3	11.5659E-3
3.32916E-3	127.727E-12	670.853E-3	-589.024E-6	128.715E-12	682.318E-3	14.1740E-3
3.32416E-3	127.684E-12	657.397E-3	13.2278E-3	128.432E-12	671.653E-3	-10.4508E-3
3.31916E-3	127.372E-12	660.587E-3	-8.49790E-3	128.152E-12	666.327E-3	-16.1357E-3
3.31416E-3	127.062E-12	684.564E-3	-30.5118E-3	127.315E-12	668.079E-3	-11.1919E-3
3.30915E-3	126.517E-12	687.343E-3	-33.4929E-3	127.009E-12	683.304E-3	-15.4408E-3
3.30415E-3	126.239E-12	653.445E-3	-34.6657E-3	127.454E-12	691.456E-3	-23.3545E-3
3.29915E-3	125.494E-12	647.490E-3	-23.2291E-3	126.127E-12	682.908E-3	-17.2906E-3
3.29415E-3	125.080E-12	674.710E-3	-10.6159E-3	125.264E-12	674.828E-3	210.650E-6
3.28914E-3	124.885E-12	680.004E-3	-24.5946E-3	124.411E-12	659.357E-3	4.94119E-3
3.28414E-3	124.312E-12	654.920E-3	-51.3172E-3	123.747E-12	645.290E-3	-9.49170E-3
3.27914E-3	124.159E-12	641.883E-3	-56.5331E-3	123.116E-12	648.756E-3	-22.3608E-3
3.27414E-3	124.297E-12	654.600E-3	-27.6707E-3	122.705E-12	667.510E-3	-13.2049E-3
3.26913E-3	123.977E-12	661.835E-3	6.91641E-3	122.250E-12	682.898E-3	6.11129E-3
3.26413E-3	123.358E-12	664.056E-3	10.5878E-3	122.359E-12	679.091E-3	10.9178E-3
3.25913E-3	123.481E-12	671.240E-3	3.74181E-3	122.506E-12	682.378E-3	-6.56554E-3
3.25413E-3	123.151E-12	660.793E-3	-4.50946E-3	122.570E-12	688.812E-3	-18.6576E-3
3.24912E-3	123.068E-12	641.110E-3	-23.5755E-3	123.277E-12	674.030E-3	-1.06014E-3
3.24412E-3	122.378E-12	650.389E-3	-22.5287E-3	123.556E-12	662.181E-3	12.9280E-3
3.23912E-3	122.369E-12	682.870E-3	-15.8949E-3	124.214E-12	675.982E-3	-70.8531E-6
3.23412E-3	122.397E-12	692.871E-3	-33.0745E-3	124.760E-12	690.961E-3	-23.7110E-3
3.22911E-3	122.361E-12	673.602E-3	-42.0721E-3	125.393E-12	684.071E-3	-38.9285E-3
3.22411E-3	121.717E-12	650.069E-3	-29.6212E-3	125.189E-12	676.176E-3	-39.7746E-3
3.21911E-3	121.650E-12	636.888E-3	-17.8489E-3	125.022E-12	671.609E-3	-41.3811E-3
3.21411E-3	121.608E-12	647.328E-3	-17.1210E-3	124.867E-12	664.934E-3	-42.7886E-3
3.20910E-3	121.657E-12	674.700E-3	-16.1692E-3	124.376E-12	665.148E-3	-27.6106E-3
3.20410E-3	120.884E-12	694.230E-3	-6.59171E-3	123.180E-12	664.887E-3	-17.2970E-3
3.19910E-3	121.001E-12	683.880E-3	-10.4840E-3	122.228E-12	662.589E-3	-17.5100E-3
3.19410E-3	120.820E-12	662.722E-3	-25.6125E-3	121.350E-12	666.550E-3	-23.2354E-3
3.18909E-3	120.687E-12	659.645E-3	-17.0013E-3	119.778E-12	668.998E-3	-31.9891E-3
3.18409E-3	120.365E-12	664.629E-3	11.8706E-3	118.985E-12	659.207E-3	-29.9863E-3
3.17909E-3	120.565E-12	665.790E-3	19.2318E-3	118.296E-12	645.560E-3	-19.9585E-3
3.17409E-3	120.418E-12	670.432E-3	6.81022E-3	117.864E-12	644.052E-3	-19.2235E-3
3.16908E-3	119.936E-12	683.993E-3	-2.86084E-3	117.132E-12	656.205E-3	-31.3977E-3
3.16408E-3	119.794E-12	676.893E-3	-14.3464E-3	117.677E-12	668.182E-3	-42.6980E-3
3.15908E-3	119.927E-12	652.002E-3	-28.3743E-3	117.219E-12	677.635E-3	-49.3166E-3
3.15408E-3	119.696E-12	657.077E-3	-39.6358E-3	117.894E-12	694.612E-3	-34.0549E-3
3.14907E-3	118.806E-12	688.120E-3	-45.8945E-3	118.217E-12	699.406E-3	-5.65708E-3
3.14407E-3	119.413E-12	703.887E-3	-41.8272E-3	119.189E-12	684.699E-3	-10.0659E-3
3.13907E-3	119.693E-12	696.588E-3	-16.9060E-3	119.406E-12	681.717E-3	-27.8816E-3
3.13407E-3	118.853E-12	696.628E-3	2.28644E-3	119.381E-12	691.457E-3	-32.8490E-3
3.12906E-3	118.793E-12	694.935E-3	-11.4683E-3	119.782E-12	705.078E-3	-39.8783E-3
3.12406E-3	118.850E-12	685.826E-3	-31.2549E-3	120.201E-12	709.520E-3	-33.2221E-3
3.11906E-3	119.010E-12	687.295E-3	-32.9417E-3	119.971E-12	683.922E-3	-22.2194E-3
3.11406E-3	118.730E-12	677.563E-3	-34.1832E-3	118.949E-12	669.200E-3	-19.2674E-3
3.10905E-3	118.441E-12	673.534E-3	-39.2298E-3	118.687E-12	679.771E-3	-5.08627E-3
3.10405E-3	118.549E-12	686.589E-3	-32.1220E-3	117.599E-12	680.264E-3	15.3089E-3
3.09905E-3	118.551E-12	684.661E-3	-30.2747E-3	116.772E-12	668.308E-3	21.9845E-3
3.09405E-3	118.423E-12	679.570E-3	-32.0453E-3	115.659E-12	659.969E-3	7.06633E-3
3.08904E-3	117.926E-12	685.624E-3	-22.1986E-3	114.275E-12	653.946E-3	-12.9806E-3
3.08404E-3	118.015E-12	687.272E-3	-8.79992E-3	113.561E-12	642.929E-3	-22.3727E-3
3.07904E-3	117.447E-12	682.729E-3	-10.6834E-3	113.017E-12	641.190E-3	-22.2928E-3
3.07404E-3	116.550E-12	678.458E-3	-14.4945E-3	112.704E-12	661.872E-3	-13.1272E-3
3.06903E-3	116.011E-12	673.965E-3	-14.4407E-3	112.167E-12	677.198E-3	-7.42857E-3
3.06403E-3	115.737E-12	678.848E-3	-20.8040E-3	112.737E-12	663.599E-3	-12.7275E-3
3.05903E-3	114.928E-12	696.709E-3	-19.7124E-3	112.952E-12	652.426E-3	-18.9055E-3
3.05403E-3	114.256E-12	701.129E-3	-16.4148E-3	113.975E-12	662.152E-3	-15.3968E-3
3.04902E-3	114.287E-12	692.014E-3	3.98476E-3	114.110E-12	669.879E-3	-8.67199E-3
3.04402E-3	113.973E-12	694.873E-3	24.3946E-3	114.892E-12	675.545E-3	-10.7473E-3
3.03902E-3	113.216E-12	686.898E-3	10.1360E-3	115.255E-12	689.760E-3	-8.21734E-3
3.03402E-3	113.178E-12	668.660E-3	-15.3143E-3	115.956E-12	704.828E-3	-5.94320E-3
3.02901E-3	113.301E-12	675.789E-3	-25.6107E-3	116.414E-12	719.407E-3	-14.2023E-3
3.02401E-3	113.271E-12	690.561E-3	-17.8147E-3	116.425E-12	715.035E-3	-11.2393E-3
3.01901E-3	112.931E-12	690.638E-3	-9.39691E-3	116.271E-12	696.766E-3	16.7260E-3
3.01401E-3	113.308E-12	679.408E-3	-10.4051E-3	115.382E-12	694.389E-3	34.2283E-3
3.00900E-3	113.110E-12	672.404E-3	-7.31459E-3	115.179E-12	695.324E-3	14.6488E-3
3.00400E-3	113.170E-12	679.612E-3	-3.86637E-3	114.222E-12	681.547E-3	-12.5728E-3
2.99900E-3	113.413E-12	676.050E-3	-5.23464E-3	113.023E-12	663.725E-3	-23.9358E-3
2.99400E-3	113.111E-12	674.978E-3	1.01572E-3	112.000E-12	650.722E-3	-23.2961E-3
2.98899E-3	112.768E-12	690.985E-3	4.09614E-3	111.535E-12	656.811E-3	-19.1586E-3
2.98399E-3	112.504E-12	691.337E-3	-9.75330E-3	110.119E-12	674.336E-3	-16.6127E-3
2.97899E-3	112.131E-12	681.298E-3	-22.6167E-3	109.893E-12	668.166E-3	-14.7710E-3
2.97399E-3	111.387E-12	677.871E-3	-18.5364E-3	109.470E-12	656.763E-3	-15.7062E-3
2.96898E-3	110.541E-12	677.930E-3	-12.8458E-3	109.313E-12	663.934E-3	-16.3993E-3
2.96398E-3	110.433E-12	680.979E-3	-2.54734E-3	109.246E-12	667.866E-3	-17.7725E-3
2.95898E-3	109.743E-12	679.894E-3	11.1744E-3	109.080E-12	677.790E-3	-11.2054E-3
2.95398E-3	109.475E-12	686.904E-3	7.95154E-3	109.398E-12	702.432E-3	100.534E-6
2.94897E-3	108.514E-12	702.233E-3	-3.92408E-3	109.355E-12	717.970E-3	2.75551E-3
2.94397E-3	108.672E-12	702.111E-3	-12.9325E-3	110.188E-12	714.595E-3	-397.243E-6
2.93897E-3	108.240E-12	683.395E-3	-21.1047E-3	110.330E-12	697.844E-3	-12.5861E-3
2.93397E-3	108.131E-12	658.999E-3	-22.2376E-3	110.830E-12	688.641E-3	-30.6790E-3
2.92896E-3	108.150E-12	643.189E-3	-10.8426E-3	110.387E-12	696.355E-3	-37.1184E-3
2.92396E-3	108.613E-12	639.144E-3	-3.45697E-3	110.437E-12	697.765E-3	-33.5978E-3
2.91896E-3	108.554E-12	666.924E-3	-14.0734E-3	110.292E-12	679.458E-3	-37.7106E-3
2.91396E-3	108.342E-12	694.754E-3	-19.1715E-3	109.805E-12	660.982E-3	-38.4098E-3
2.90895E-3	108.597E-12	698.130E-3	-17.9435E-3	108.970E-12	674.497E-3	-25.8555E-3
2.90395E-3	108.275E-12	711.345E-3	-36.6741E-3	108.576E-12	695.313E-3	-19.2613E-3
2.89895E-3	108.357E-12	717.399E-3	-43.0273E-3	108.111E-12	682.129E-3	-12.0897E-3
2.89395E-3	108.314E-12	697.936E-3	-27.8466E-3	107.083E-12	658.442E-3	1.96429E-3
2.88894E-3	108.258E-12	684.697E-3	-16.9356E-3	106.403E-12	654.557E-3	-2.68984E-3
2.88394E-3	107.662E-12	701.463E-3	-5.93514E-3	105.758E-12	660.526E-3	-3.57460E-3
2.87894E-3	106.996E-12	720.806E-3	-13.6138E-3	105.005E-12	658.771E-3	12.9557E-3
2.87394E-3	106.468E-12	714.855E-3	-31.9111E-3	104.627E-12	663.933E-3	9.00015E-3
2.86893E-3	106.219E-12	697.150E-3	-30.3141E-3	104.176E-12	672.494E-3	-14.1069E-3
2.86393E-3	105.355E-12	688.926E-3	-15.8580E-3	103.869E-12	666.314E-3	-21.9409E-3
2.85893E-3	104.276E-12	697.222E-3	-9.31880E-3	103.135E-12	656.766E-3	-13.2476E-3
2.85393E-3	104.043E-12	705.014E-3	-24.3697E-3	103.588E-12	658.711E-3	-20.6010E-3
2.84892E-3	103.646E-12	694.900E-3	-47.3238E-3	103.478E-12	668.939E-3	-35.4810E-3
2.84392E-3	103.439E-12	673.915E-3	-52.2236E-3	103.792E-12	680.182E-3	-33.5712E-3
2.83892E-3	103.060E-12	660.400E-3	-35.6094E-3	103.346E-12	693.550E-3	-31.9019E-3
2.83392E-3	103.365E-12	663.727E-3	-11.3750E-3	103.832E-12	708.012E-3	-37.1514E-3
2.82891E-3	103.160E-12	689.367E-3	6.89607E-3	104.212E-12	708.152E-3	-30.1580E-3
2.82391E-3	103.281E-12	709.251E-3	9.66687E-3	104.442E-12	693.689E-3	-13.9339E-3
2.81891E-3	103.502E-12	701.190E-3	14.0258E-3	104.570E-12	697.794E-3	-4.22457E-3
2.81391E-3	103.511E-12	689.545E-3	7.66330E-3	104.756E-12	717.778E-3	-15.5174E-3
2.80890E-3	103.672E-12	684.889E-3	-5.18167E-3	104.912E-12	715.605E-3	-39.8753E-3
2.80390E-3	103.496E-12	683.589E-3	-8.00176E-3	104.662E-12	689.825E-3	-43.5038E-3
2.79890E-3	103.881E-12	684.950E-3	-17.1235E-3	104.819E-12	675.304E-3	-36.8381E-3
2.79390E-3	103.364E-12	689.103E-3	-23.0072E-3	104.327E-12	686.512E-3	-24.0376E-3
2.78889E-3	103.422E-12	688.224E-3	-14.7494E-3	104.067E-12	692.589E-3	-6.30697E-3
2.78389E-3	102.925E-12	680.645E-3	-10.5565E-3	103.324E-12	695.249E-3	-10.7641E-3
2.77889E-3	103.059E-12	685.852E-3	-18.8245E-3	102.971E-12	706.609E-3	-26.3431E-3
2.77389E-3	102.258E-12	704.452E-3	-19.8489E-3	102.400E-12	698.118E-3	-23.7516E-3
2.76888E-3	101.677E-12	709.425E-3	-1.42113E-3	101.680E-12	671.446E-3	-16.9821E-3
2.76388E-3	101.223E-12	704.152E-3	5.24643E-3	100.685E-12	654.948E-3	-26.3282E-3
2.75888E-3	100.841E-12	698.668E-3	-14.5279E-3	100.464E-12	658.829E-3	-27.4738E-3
2.75388E-3	100.636E-12	688.153E-3	-20.0345E-3	99.8350E-12	674.804E-3	-5.78543E-3
2.74887E-3	100.475E-12	682.321E-3	-5.51447E-3	99.1071E-12	689.029E-3	968.010E-9
2.74387E-3	100.629E-12	687.824E-3	11.2565E-3	98.9947E-12	698.148E-3	-22.3345E-3
2.73887E-3	99.9890E-12	701.966E-3	16.0040E-3	98.9537E-12	696.954E-3	-32.7795E-3
2.73387E-3	100.105E-12	714.336E-3	4.18170E-3	99.0391E-12	686.317E-3	-29.4508E-3
2.72886E-3	99.9326E-12	704.344E-3	-1.66295E-3	99.5369E-12	682.403E-3	-32.6393E-3
2.72386E-3	99.8388E-12	689.192E-3	1.55601E-3	99.9212E-12	692.171E-3	-38.0488E-3
2.71886E-3	99.6729E-12	695.218E-3	-6.24787E-3	100.180E-12	716.402E-3	-33.6203E-3
2.71386E-3	99.4783E-12	706.289E-3	-16.7637E-3	100.980E-12	735.407E-3	-27.4765E-3
2.70885E-3	99.2866E-12	712.123E-3	-17.9025E-3	101.344E-12	729.629E-3	-24.8960E-3
2.70385E-3	99.2787E-12	701.599E-3	-29.4532E-3	100.811E-12	715.053E-3	-25.9491E-3
2.69885E-3	99.3587E-12	690.193E-3	-38.0190E-3	101.362E-12	716.180E-3	-43.8739E-3
2.69385E-3	98.9862E-12	704.350E-3	-24.3522E-3	100.999E-12	735.346E-3	-46.5502E-3
2.68884E-3	99.0724E-12	711.628E-3	-8.41035E-3	100.787E-12	743.560E-3	-24.2055E-3
2.68384E-3	98.9777E-12	702.525E-3	670.113E-6	100.036E-12	724.805E-3	-12.8488E-3
2.67884E-3	98.4353E-12	704.499E-3	-8.28204E-3	99.3411E-12	707.047E-3	-11.4102E-3
2.67384E-3	98.1321E-12	700.786E-3	-29.3250E-3	98.1840E-12	713.216E-3	-15.3780E-3
2.66883E-3	98.4493E-12	700.028E-3	-28.2037E-3	97.7200E-12	720.604E-3	-16.6884E-3
2.66383E-3	98.1710E-12	716.377E-3	-12.6563E-3	96.6351E-12	705.146E-3	-9.61158E-3
2.65883E-3	97.7112E-12	723.273E-3	9.65400E-3	95.5748E-12	683.253E-3	-27.8418E-3
2.65383E-3	97.4406E-12	729.681E-3	17.5223E-3	94.6116E-12	671.130E-3	-57.6027E-3
2.64882E-3	96.9293E-12	745.532E-3	20.6392E-6	94.4138E-12	684.640E-3	-54.4777E-3
2.64382E-3	96.4424E-12	736.675E-3	-6.76798E-3	94.0541E-12	710.121E-3	-25.0877E-3
2.63882E-3	95.9494E-12	711.836E-3	-4.48323E-3	93.6114E-12	704.062E-3	1.03254E-3
2.63382E-3	95.5444E-12	713.241E-3	-2.86658E-3	94.1778E-12	678.649E-3	11.2022E-3
2.62881E-3	95.3470E-12	722.362E-3	1.50643E-3	94.2839E-12	677.712E-3	563.877E-6
2.62381E-3	94.7638E-12	711.453E-3	-1.87284E-3	95.0419E-12	710.236E-3	-29.9691E-3
2.61881E-3	93.8624E-12	688.084E-3	-10.2275E-3	95.5078E-12	732.579E-3	-46.0143E-3
2.61381E-3	93.4508E-12	670.209E-3	-9.24391E-3	95.5496E-12	725.006E-3	-28.3287E-3
2.60880E-3	93.2491E-12	667.804E-3	-6.25676E-3	95.9913E-12	710.135E-3	-5.11226E-3
2.60380E-3	92.4617E-12	669.448E-3	-8.21753E-3	96.2165E-12	698.067E-3	5.03063E-3
2.59880E-3	92.6992E-12	674.943E-3	-17.8694E-3	96.3241E-12	699.024E-3	12.8366E-3
2.59380E-3	93.1263E-12	688.235E-3	-34.4024E-3	96.0165E-12	717.247E-3	22.0525E-3
2.58879E-3	92.8187E-12	700.881E-3	-43.4784E-3	94.9990E-12	733.970E-3	12.5286E-3
2.58379E-3	92.8718E-12	708.298E-3	-38.7575E-3	94.6982E-12	732.282E-3	-8.70438E-3
2.57879E-3	93.3271E-12	711.633E-3	-30.4262E-3	93.9113E-12	717.412E-3	-18.3614E-3
2.57379E-3	93.5878E-12	709.477E-3	-32.4931E-3	92.8081E-12	706.642E-3	-14.0833E-3
2.56878E-3	93.0409E-12	714.158E-3	-39.4179E-3	91.5654E-12	700.089E-3	-5.67034E-3
2.56378E-3	93.1642E-12	715.922E-3	-33.2464E-3	90.8366E-12	682.664E-3	-17.1999E-3
2.55878E-3	93.0081E-12	707.055E-3	-12.7219E-3	90.1424E-12	658.929E-3	-33.3170E-3
2.55378E-3	92.4278E-12	695.438E-3	1.54855E-3	89.1222E-12	660.126E-3	-23.9706E-3
2.54877E-3	91.8792E-12	677.338E-3	3.07145E-3	88.7792E-12	680.017E-3	-17.9482E-3
2.54377E-3	91.2982E-12	683.942E-3	-5.76301E-3	88.3957E-12	695.390E-3	-28.7007E-3
2.53877E-3	90.6116E-12	714.558E-3	-14.8490E-3	88.2286E-12	714.604E-3	-21.9799E-3
2.53377E-3	90.1674E-12	735.719E-3	-2.33291E-3	88.3112E-12	725.644E-3	-8.23438E-3
2.52876E-3	89.2153E-12	737.193E-3	-609.349E-6	88.5570E-12	720.704E-3	-14.4314E-3
2.52376E-3	88.8873E-12	715.568E-3	-19.2404E-3	88.7138E-12	711.282E-3	-18.3476E-3
2.51876E-3	88.2453E-12	695.711E-3	-33.5110E-3	88.7996E-12	703.078E-3	-14.7199E-3
2.51376E-3	88.0550E-12	689.833E-3	-39.7989E-3	89.2619E-12	700.792E-3	-31.3093E-3
2.50875E-3	87.5918E-12	685.402E-3	-31.0197E-3	89.3689E-12	706.486E-3	-44.8649E-3
2.50375E-3	87.6825E-12	686.423E-3	-22.3444E-3	89.4557E-12	712.922E-3	-31.2501E-3
2.49875E-3	88.1046E-12	680.613E-3	-30.6918E-3	89.1788E-12	718.472E-3	-32.9152E-3
2.49375E-3	87.8562E-12	677.809E-3	-43.0249E-3	89.3204E-12	719.420E-3	-36.1461E-3
2.48874E-3	88.1194E-12	700.269E-3	-41.5903E-3	88.9547E-12	715.065E-3	-11.7459E-3
2.48374E-3	88.4655E-12	714.539E-3	-28.8498E-3	88.8847E-12	718.896E-3	2.05977E-3
2.47874E-3	88.4394E-12	703.897E-3	-24.1207E-3	88.2004E-12	718.053E-3	632.385E-6
2.47374E-3	88.4545E-12	692.512E-3	-32.4501E-3	87.7087E-12	715.689E-3	-2.33120E-3
2.46873E-3	88.7465E-12	695.019E-3	-33.0420E-3	87.7988E-12	725.198E-3	-12.1047E-3
2.46373E-3	88.5008E-12	705.763E-3	-18.1923E-3	86.8991E-12	728.105E-3	-26.5731E-3
2.45873E-3	88.1347E-12	713.951E-3	-13.1989E-3	86.3075E-12	719.098E-3	-25.2426E-3
2.45373E-3	87.8129E-12	718.940E-3	-27.9040E-3	85.7586E-12	701.847E-3	-5.31803E-3
2.44872E-3	87.3085E-12	726.028E-3	-39.4745E-3	85.5655E-12	682.656E-3	560.922E-6
2.44372E-3	87.0196E-12	730.412E-3	-34.7653E-3	85.1367E-12	681.581E-3	-7.51363E-3
2.43872E-3	86.2151E-12	725.261E-3	-26.0124E-3	84.9276E-12	679.575E-3	-8.61002E-3
2.43372E-3	85.9926E-12	720.966E-3	-20.6235E-3	84.8916E-12	678.702E-3	-2.90218E-3
2.42871E-3	85.3645E-12	719.538E-3	-8.59726E-3	84.6045E-12	695.299E-3	7.11513E-3
2.42371E-3	85.0906E-12	712.815E-3	-743.251E-6	84.5427E-12	710.464E-3	15.3625E-3
2.41871E-3	84.4948E-12	706.539E-3	-6.06288E-3	84.9233E-12	726.147E-3	7.97528E-3
2.41371E-3	84.2480E-12	700.733E-3	-12.6976E-3	85.0500E-12	733.823E-3	-3.57690E-3
2.40870E-3	84.4150E-12	697.405E-3	-18.0577E-3	84.5719E-12	725.331E-3	-8.88804E-3
2.40370E-3	84.0062E-12	712.873E-3	-20.8483E-3	85.1436E-12	728.355E-3	-18.3713E-3
2.39870E-3	83.7617E-12	724.874E-3	-20.2355E-3	85.0931E-12	733.122E-3	-19.5136E-3
2.39370E-3	84.1548E-12	715.976E-3	-20.4540E-3	85.4709E-12	726.240E-3	-17.9007E-3
2.38869E-3	84.2522E-12	711.035E-3	-26.9018E-3	85.6971E-12	730.679E-3	-22.3686E-3
2.38369E-3	83.9470E-12	716.681E-3	-27.5924E-3	85.7415E-12	738.171E-3	-14.8160E-3
2.37869E-3	84.2472E-12	714.364E-3	-11.8057E-3	85.5195E-12	734.533E-3	-6.12705E-3
2.37369E-3	84.1696E-12	714.714E-3	1.33078E-3	85.4960E-12	727.865E-3	-18.7318E-3
2.36868E-3	83.5361E-12	734.645E-3	-247.724E-6	84.9420E-12	732.409E-3	-26.1008E-3
2.36368E-3	83.3630E-12	742.358E-3	-4.42350E-3	84.0693E-12	734.913E-3	-17.3122E-3
2.35868E-3	82.8161E-12	726.000E-3	-9.15113E-3	83.5576E-12	718.590E-3	-18.6350E-3
2.35368E-3	82.3777E-12	715.428E-3	-15.0347E-3	83.1595E-12	717.614E-3	-17.5701E-3
2.34867E-3	81.8632E-12	722.131E-3	-18.3526E-3	82.0853E-12	731.380E-3	-6.76056E-3
2.34367E-3	81.5185E-12	734.158E-3	-25.6787E-3	81.5045E-12	717.608E-3	-18.9351E-3
2.33867E-3	81.0195E-12	735.612E-3	-39.3338E-3	80.9930E-12	705.591E-3	-36.5097E-3
2.33367E-3	80.8527E-12	724.141E-3	-36.2133E-3	80.3880E-12	722.919E-3	-16.1838E-3
2.32866E-3	80.4418E-12	710.867E-3	-12.2067E-3	80.1904E-12	740.929E-3	12.6081E-3
2.32366E-3	80.3265E-12	710.829E-3	3.32884E-3	80.0866E-12	740.908E-3	8.83786E-3
2.31866E-3	79.9832E-12	721.556E-3	4.41485E-3	79.5166E-12	730.362E-3	-3.39393E-3
2.31366E-3	79.6668E-12	728.490E-3	-5.46954E-3	79.7501E-12	726.995E-3	3.99765E-3
2.30865E-3	79.3994E-12	727.096E-3	-14.9215E-3	79.6911E-12	742.023E-3	12.7585E-3
2.30365E-3	79.2784E-12	723.049E-3	-9.93719E-3	79.3391E-12	760.657E-3	5.72625E-3
2.29865E-3	78.9482E-12	720.007E-3	2.72553E-3	79.6700E-12	762.274E-3	2.13984E-3
2.29365E-3	78.5497E-12	717.649E-3	2.16889E-3	79.9055E-12	752.370E-3	5.03807E-3
2.28864E-3	78.4020E-12	722.578E-3	-19.2940E-3	79.6717E-12	748.115E-3	-2.39052E-3
2.28364E-3	78.2545E-12	735.340E-3	-39.5886E-3	79.5179E-12	747.122E-3	-7.65644E-3
2.27864E-3	78.1171E-12	743.053E-3	-46.2397E-3	79.4838E-12	740.545E-3	-5.54133E-3
2.27364E-3	77.5728E-12	741.794E-3	-36.3927E-3	79.0783E-12	733.511E-3	-2.61791E-3
2.26863E-3	77.2769E-12	732.050E-3	-12.0810E-3	78.8018E-12	732.767E-3	-1.56042E-3
2.26363E-3	77.3043E-12	729.149E-3	4.24047E-3	78.6531E-12	738.640E-3	-15.2398E-3
2.25863E-3	76.7521E-12	743.308E-3	-3.02393E-3	77.7131E-12	736.497E-3	-33.0846E-3
2.25363E-3	76.5629E-12	741.067E-3	-11.8934E-3	76.8859E-12	720.551E-3	-26.0689E-3
2.24862E-3	76.5336E-12	730.179E-3	-15.9847E-3	76.9958E-12	709.320E-3	-17.0054E-3
2.24362E-3	76.1813E-12	745.525E-3	-17.3468E-3	76.0080E-12	728.872E-3	-30.1337E-3
2.23862E-3	75.6119E-12	754.717E-3	-12.9906E-3	75.5807E-12	758.729E-3	-41.7514E-3
2.23362E-3	76.0051E-12	742.360E-3	-30.5517E-3	75.5329E-12	754.919E-3	-40.9086E-3
2.22861E-3	75.5922E-12	740.405E-3	-50.5990E-3	74.9366E-12	734.573E-3	-24.4796E-3
2.22361E-3	74.9260E-12	749.685E-3	-39.3908E-3	74.4206E-12	738.010E-3	-13.3943E-3
2.21861E-3	74.5967E-12	756.219E-3	-19.9182E-3	74.5179E-12	751.965E-3	-19.8314E-3
2.21361E-3	74.3415E-12	757.384E-3	-7.70394E-3	74.5198E-12	758.312E-3	-10.8608E-3
2.20860E-3	74.2661E-12	757.635E-3	1.16147E-3	74.2987E-12	764.926E-3	3.40259E-3
2.20360E-3	73.7790E-12	758.926E-3	-5.33476E-3	73.9788E-12	758.987E-3	-10.3444E-3
2.19860E-3	73.7047E-12	764.519E-3	-28.0432E-3	74.5387E-12	755.645E-3	-29.3791E-3
2.19360E-3	73.4526E-12	765.291E-3	-38.7470E-3	74.7169E-12	776.283E-3	-25.3382E-3
2.18859E-3	73.4248E-12	754.295E-3	-29.3053E-3	74.2566E-12	777.558E-3	-14.3791E-3
2.18359E-3	73.1787E-12	746.562E-3	-16.2531E-3	74.2689E-12	754.322E-3	-11.2817E-3
2.17859E-3	73.1994E-12	752.843E-3	-9.99619E-3	74.3619E-12	759.469E-3	-6.79708E-3
2.17359E-3	73.2179E-12	760.071E-3	-8.20130E-3	74.0039E-12	777.994E-3	5.33224E-3
2.16858E-3	73.0729E-12	759.603E-3	-5.77961E-3	74.0914E-12	784.495E-3	7.12784E-3
2.16358E-3	72.9314E-12	763.879E-3	-1.70245E-3	73.6597E-12	789.571E-3	1.66560E-3
2.15858E-3	72.9765E-12	758.039E-3	-7.20328E-3	73.1811E-12	778.258E-3	3.53966E-3
2.15358E-3	72.8765E-12	756.375E-3	-19.0222E-3	72.4337E-12	762.962E-3	-2.08659E-3
2.14857E-3	72.7134E-12	771.485E-3	-18.0973E-3	71.8558E-12	764.514E-3	-14.3580E-3
2.14357E-3	72.3996E-12	777.582E-3	-18.8849E-3	71.1093E-12	759.870E-3	-17.5413E-3
2.13857E-3	72.3326E-12	784.937E-3	-27.4553E-3	70.6337E-12	749.690E-3	-23.4752E-3
2.13357E-3	72.0221E-12	788.452E-3	-32.9889E-3	69.6653E-12	753.184E-3	-27.1422E-3
2.12856E-3	71.6383E-12	780.940E-3	-37.4195E-3	69.4448E-12	768.973E-3	-16.7775E-3
2.12356E-3	71.4362E-12	778.597E-3	-37.0258E-3	69.0907E-12	778.319E-3	-9.74475E-3
2.11856E-3	70.9764E-12	781.178E-3	-34.6190E-3	68.9091E-12	786.364E-3	-10.8359E-3
2.11356E-3	70.6894E-12	774.876E-3	-23.8076E-3	68.7797E-12	798.872E-3	-4.12435E-3
2.10855E-3	70.4003E-12	767.494E-3	-12.2809E-3	68.8620E-12	794.368E-3	1.10544E-3
2.10355E-3	70.0491E-12	776.189E-3	-12.8450E-3	68.9659E-12	783.669E-3	-15.7219E-3
2.09855E-3	69.8561E-12	784.581E-3	-5.99250E-3	69.1010E-12	778.120E-3	-19.0424E-3
2.09355E-3	69.3821E-12	778.929E-3	-2.10997E-3	69.1300E-12	785.865E-3	1.73905E-3
2.08854E-3	69.3204E-12	779.237E-3	-2.09655E-3	68.8473E-12	801.848E-3	5.43724E-3
2.08354E-3	69.0166E-12	790.478E-3	-5.36455E-3	68.8795E-12	812.868E-3	-5.84774E-3
2.07854E-3	69.1566E-12	792.434E-3	-25.8241E-3	68.9961E-12	817.924E-3	-13.0404E-3
2.07354E-3	68.7167E-12	781.493E-3	-34.9792E-3	68.6855E-12	804.788E-3	-16.6928E-3
2.06853E-3	68.7624E-12	770.831E-3	-27.6822E-3	68.6809E-12	783.682E-3	-16.6106E-3
2.06353E-3	68.5174E-12	781.310E-3	-16.8738E-3	68.1664E-12	772.458E-3	-20.3761E-3
2.05853E-3	68.2349E-12	799.937E-3	3.64643E-3	67.7542E-12	774.375E-3	-31.9699E-3
2.05353E-3	67.8846E-12	819.017E-3	2.44832E-3	67.3511E-12	781.476E-3	-33.3982E-3
2.04852E-3	67.8822E-12	836.776E-3	-16.2309E-3	66.7047E-12	787.249E-3	-26.5927E-3
2.04352E-3	67.7179E-12	838.857E-3	-12.7143E-3	65.6501E-12	791.756E-3	-29.9300E-3
2.03852E-3	67.0136E-12	823.269E-3	-15.6221E-3	65.5940E-12	790.662E-3	-34.2985E-3
2.03352E-3	66.9660E-12	805.912E-3	-23.7889E-3	65.3111E-12	778.602E-3	-21.9576E-3
2.02851E-3	66.8923E-12	810.218E-3	-2.56306E-3	64.6147E-12	770.291E-3	5.97557E-3
2.02351E-3	65.8131E-12	817.919E-3	16.3155E-3	64.0638E-12	778.451E-3	20.8559E-3
2.01851E-3	65.0309E-12	824.178E-3	8.01962E-3	64.0016E-12	789.367E-3	4.64511E-3
2.01351E-3	64.7901E-12	834.589E-3	-10.4362E-3	63.8712E-12	790.053E-3	-19.3890E-3
2.00850E-3	64.0637E-12	823.654E-3	-20.5529E-3	63.5692E-12	786.486E-3	-21.7040E-3
2.00350E-3	63.3166E-12	802.548E-3	-13.1529E-3	63.5105E-12	789.871E-3	-6.15508E-3
1.99850E-3	63.3787E-12	801.699E-3	-9.08395E-3	63.7531E-12	807.438E-3	714.661E-6
1.99350E-3	62.7847E-12	807.665E-3	-24.5942E-3	63.6946E-12	834.224E-3	-7.00583E-3
1.98849E-3	62.3631E-12	804.648E-3	-33.5117E-3	63.7403E-12	839.984E-3	-17.6218E-3
1.98349E-3	62.3376E-12	791.533E-3	-14.1856E-3	64.0099E-12	826.311E-3	-21.7803E-3
1.97849E-3	62.2768E-12	783.705E-3	8.93359E-3	64.1060E-12	824.766E-3	-12.5552E-3
1.97349E-3	61.8885E-12	795.714E-3	10.6445E-3	63.7965E-12	834.310E-3	-2.54278E-3
1.96848E-3	62.1448E-12	808.988E-3	5.26322E-3	63.8892E-12	832.753E-3	-10.2620E-3
1.96348E-3	61.9651E-12	814.276E-3	-4.21109E-3	63.6881E-12	826.831E-3	-26.2599E-3
1.95848E-3	61.8142E-12	819.710E-3	-25.3805E-3	63.2132E-12	833.945E-3	-33.7378E-3
1.95348E-3	61.9426E-12	825.672E-3	-38.0845E-3	62.5825E-12	838.108E-3	-25.6710E-3
1.94847E-3	61.6885E-12	835.601E-3	-20.4682E-3	61.9449E-12	835.347E-3	-10.2135E-3
1.94347E-3	61.0754E-12	850.473E-3	1.50307E-3	61.5573E-12	828.791E-3	-14.0853E-3
1.93847E-3	60.8320E-12	856.859E-3	1.81920E-3	60.7955E-12	817.526E-3	-30.7689E-3
1.93347E-3	60.4288E-12	852.122E-3	-3.79898E-3	59.8109E-12	819.681E-3	-37.4690E-3
1.92846E-3	59.4829E-12	847.973E-3	-12.8014E-3	59.3533E-12	826.258E-3	-36.1263E-3
1.92346E-3	59.0867E-12	843.417E-3	-14.6064E-3	58.9475E-12	818.277E-3	-26.9710E-3
1.91846E-3	58.6076E-12	835.738E-3	2.73508E-3	58.5766E-12	814.039E-3	-12.0357E-3
1.91346E-3	57.9679E-12	820.650E-3	8.28605E-3	58.0666E-12	824.460E-3	-9.12297E-3
1.90845E-3	57.5763E-12	814.741E-3	-2.96450E-3	57.9962E-12	841.202E-3	-14.7320E-3
1.90345E-3	57.2263E-12	827.202E-3	-13.7854E-3	57.9824E-12	862.949E-3	-9.94641E-3
1.89845E-3	56.8818E-12	824.930E-3	-17.5740E-3	57.7406E-12	876.482E-3	1.11419E-3
1.89345E-3	56.6858E-12	810.447E-3	-10.7965E-3	57.8730E-12	880.048E-3	3.29911E-3
1.88844E-3	56.5807E-12	810.027E-3	-17.7301E-3	58.0677E-12	881.573E-3	-6.31061E-3
1.88344E-3	56.5485E-12	824.812E-3	-34.5906E-3	58.2055E-12	872.815E-3	-16.7891E-3
1.87844E-3	56.4601E-12	835.405E-3	-35.5277E-3	57.8498E-12	863.466E-3	-21.6577E-3
1.87344E-3	56.7718E-12	829.406E-3	-26.2366E-3	57.9631E-12	868.122E-3	-17.6883E-3
1.86843E-3	56.6598E-12	828.704E-3	-11.8924E-3	57.7226E-12	879.006E-3	-14.5093E-3
1.86343E-3	56.6748E-12	834.161E-3	4.62444E-3	57.4488E-12	886.730E-3	-23.8380E-3
1.85843E-3	56.5415E-12	846.606E-3	6.99200E-3	56.7308E-12	887.390E-3	-36.1887E-3
1.85343E-3	56.5793E-12	869.358E-3	-13.4937E-3	56.4631E-12	883.562E-3	-40.6873E-3
1.84842E-3	56.4413E-12	880.474E-3	-34.6496E-3	56.1071E-12	873.227E-3	-29.8874E-3
1.84342E-3	55.9093E-12	885.134E-3	-34.9398E-3	55.2161E-12	861.318E-3	-12.3075E-3
1.83842E-3	55.7868E-12	892.323E-3	-18.1804E-3	54.6901E-12	862.098E-3	-7.52811E-3
1.83342E-3	55.4508E-12	895.363E-3	-7.42282E-3	54.1594E-12	873.806E-3	-11.9312E-3
1.82841E-3	55.2746E-12	899.781E-3	-15.2754E-3	53.7741E-12	879.597E-3	-12.5605E-3
1.82341E-3	54.7405E-12	912.781E-3	-20.2087E-3	52.9674E-12	878.826E-3	-12.4995E-3
1.81841E-3	54.1445E-12	915.796E-3	-17.9193E-3	52.5940E-12	871.174E-3	-7.77568E-3
1.81341E-3	53.6249E-12	896.655E-3	-17.2699E-3	52.2344E-12	857.166E-3	4.71608E-3
1.80840E-3	53.0990E-12	878.253E-3	-21.2581E-3	51.9587E-12	866.792E-3	5.95039E-3
1.80340E-3	52.8512E-12	878.110E-3	-29.4664E-3	52.0415E-12	900.617E-3	-9.66067E-3
1.79840E-3	52.5901E-12	891.863E-3	-34.3940E-3	51.6948E-12	922.517E-3	-21.2871E-3
1.79340E-3	52.0074E-12	904.773E-3	-36.3430E-3	51.4325E-12	917.872E-3	-23.7143E-3
1.78839E-3	51.8069E-12	916.086E-3	-36.4914E-3	51.4534E-12	901.229E-3	-30.8661E-3
1.78339E-3	51.6479E-12	929.915E-3	-33.1188E-3	51.7414E-12	897.272E-3	-30.6696E-3
1.77839E-3	51.5846E-12	933.702E-3	-32.7582E-3	51.1931E-12	915.168E-3	-16.6470E-3
1.77339E-3	51.1039E-12	924.276E-3	-30.2994E-3	51.0234E-12	935.349E-3	-9.66150E-3
1.76838E-3	51.0215E-12	918.842E-3	-28.1197E-3	51.0482E-12	943.511E-3	-15.0514E-3
1.76338E-3	50.8592E-12	922.600E-3	-23.6652E-3	51.0568E-12	940.524E-3	-19.8744E-3
1.75838E-3	50.9002E-12	920.501E-3	-15.5333E-3	50.4242E-12	937.679E-3	-17.7253E-3
1.75338E-3	50.5699E-12	919.644E-3	-19.8234E-3	50.0762E-12	948.107E-3	-14.6057E-3
1.74837E-3	50.5167E-12	931.642E-3	-25.5925E-3	49.8183E-12	955.923E-3	-15.4339E-3
1.74337E-3	50.0912E-12	943.632E-3	-19.4490E-3	49.4172E-12	948.991E-3	-16.0300E-3
1.73837E-3	50.0348E-12	957.937E-3	-12.0921E-3	48.7882E-12	936.986E-3	-9.56784E-3
1.73337E-3	49.7764E-12	968.208E-3	-15.2703E-3	48.2809E-12	938.152E-3	-13.5794E-3
1.72836E-3	49.2016E-12	965.614E-3	-14.3712E-3	47.8170E-12	948.305E-3	-29.4363E-3
1.72336E-3	48.6095E-12	959.343E-3	-6.76619E-3	47.1293E-12	944.559E-3	-30.1793E-3
1.71836E-3	48.3648E-12	955.144E-3	-7.41251E-3	46.5480E-12	941.066E-3	-17.0297E-3
1.71336E-3	47.8006E-12	955.927E-3	-13.0219E-3	46.5171E-12	942.841E-3	-12.2656E-3
1.70835E-3	47.3077E-12	955.113E-3	-17.4272E-3	45.9544E-12	944.793E-3	-22.1113E-3
1.70335E-3	47.0110E-12	952.215E-3	-15.0950E-3	45.5460E-12	961.136E-3	-23.5966E-3
1.69835E-3	46.4479E-12	951.979E-3	-10.7179E-3	45.3253E-12	975.876E-3	-12.1895E-3
1.69335E-3	45.7860E-12	960.665E-3	-8.05324E-3	45.2396E-12	970.820E-3	3.06245E-3
1.68834E-3	45.4194E-12	972.404E-3	-13.4416E-3	45.1566E-12	968.911E-3	12.2470E-3
1.68334E-3	44.9640E-12	982.269E-3	-21.1664E-3	44.7656E-12	991.620E-3	-3.84820E-3
1.67834E-3	44.3528E-12	986.005E-3	-16.1935E-3	44.6195E-12	1.02011E+0	-26.9475E-3
1.67334E-3	43.8431E-12	976.817E-3	-7.55943E-3	44.6365E-12	1.04242E+0	-27.1734E-3
1.66833E-3	43.7575E-12	969.093E-3	-6.32088E-3	44.7851E-12	1.06092E+0	-21.3556E-3
1.66333E-3	43.5402E-12	976.550E-3	-15.3384E-3	44.6248E-12	1.06701E+0	-27.8527E-3
1.65833E-3	43.2616E-12	991.956E-3	-29.6424E-3	44.4340E-12	1.05938E+0	-30.0456E-3
1.65333E-3	42.9171E-12	1.00118E+0	-32.7841E-3	44.2508E-12	1.04947E+0	-21.5231E-3
1.64832E-3	42.7930E-12	1.00381E+0	-22.2801E-3	43.9763E-12	1.04776E+0	-14.8446E-3
1.64332E-3	42.7250E-12	1.00926E+0	-14.9711E-3	43.7025E-12	1.05249E+0	-11.3477E-3
1.63832E-3	42.5142E-12	1.01488E+0	-8.48698E-3	43.3411E-12	1.05348E+0	-9.86146E-3
1.63332E-3	42.0856E-12	1.01428E+0	-8.62094E-3	43.0096E-12	1.05503E+0	-7.40265E-3
1.62831E-3	41.8771E-12	1.01221E+0	-9.78027E-3	42.4441E-12	1.06877E+0	-1.23011E-3
1.62331E-3	41.7441E-12	1.01238E+0	5.76571E-3	42.1578E-12	1.07878E+0	-3.86283E-3
1.61831E-3	41.2368E-12	1.02004E+0	11.1737E-3	41.4046E-12	1.06235E+0	-13.2607E-3
1.61331E-3	40.7564E-12	1.03073E+0	-1.70814E-3	40.6240E-12	1.03542E+0	-8.91337E-3
1.60830E-3	40.4874E-12	1.05353E+0	-7.10537E-3	40.1799E-12	1.03422E+0	283.124E-6
1.60330E-3	40.0546E-12	1.08218E+0	-4.17703E-3	39.8756E-12	1.05188E+0	-1.75227E-3
1.59830E-3	39.5192E-12	1.08446E+0	-6.02720E-3	39.1244E-12	1.06178E+0	-1.44955E-3
1.59330E-3	39.0890E-12	1.07589E+0	-16.8745E-3	38.6186E-12	1.06670E+0	-8.22759E-3
1.58829E-3	38.5185E-12	1.07146E+0	-27.4090E-3	38.4854E-12	1.06764E+0	-24.1845E-3
1.58329E-3	38.3702E-12	1.06893E+0	-27.0915E-3	38.0708E-12	1.07330E+0	-28.3959E-3
1.57829E-3	37.7886E-12	1.06338E+0	-24.8558E-3	37.9776E-12	1.09180E+0	-28.1775E-3
1.57329E-3	37.3217E-12	1.05040E+0	-18.8802E-3	38.0713E-12	1.11076E+0	-22.8559E-3
1.56828E-3	36.9355E-12	1.04590E+0	-13.4617E-3	37.8227E-12	1.12042E+0	-12.5107E-3
1.56328E-3	36.5939E-12	1.06236E+0	-24.7247E-3	37.6667E-12	1.12829E+0	-6.75241E-3
1.55828E-3	36.2403E-12	1.08886E+0	-35.7440E-3	37.4507E-12	1.14208E+0	-11.6277E-3
1.55328E-3	36.0885E-12	1.10345E+0	-32.3639E-3	37.3681E-12	1.14404E+0	-26.0884E-3
1.54827E-3	35.8182E-12	1.09759E+0	-23.8942E-3	37.0597E-12	1.13618E+0	-18.9536E-3
1.54327E-3	35.5762E-12	1.07900E+0	-22.0331E-3	36.5136E-12	1.13459E+0	3.02862E-3
1.53827E-3	35.2862E-12	1.07839E+0	-25.4031E-3	36.0094E-12	1.13209E+0	2.15765E-3
1.53327E-3	35.3783E-12	1.09192E+0	-24.9002E-3	35.8416E-12	1.13140E+0	-6.53777E-3
1.52826E-3	35.0454E-12	1.10647E+0	-27.9386E-3	35.1326E-12	1.13062E+0	-9.82479E-3
1.52326E-3	34.7177E-12	1.12514E+0	-34.3590E-3	34.3233E-12	1.11992E+0	-11.7228E-3
1.51826E-3	34.3354E-12	1.13399E+0	-22.2686E-3	33.5768E-12	1.11619E+0	-14.7547E-3
1.51326E-3	34.0254E-12	1.13944E+0	-234.026E-6	33.0147E-12	1.11431E+0	-27.4692E-3
1.50825E-3	33.6117E-12	1.14231E+0	6.63992E-3	32.2316E-12	1.10988E+0	-39.2575E-3
1.50325E-3	33.1358E-12	1.13657E+0	-2.32715E-3	31.5824E-12	1.11885E+0	-39.0616E-3
1.49825E-3	32.6287E-12	1.13931E+0	-15.6090E-3	30.9500E-12	1.12340E+0	-30.1387E-3
1.49325E-3	32.2104E-12	1.16264E+0	-24.4187E-3	30.5175E-12	1.11477E+0	-12.2100E-3
1.48824E-3	31.7265E-12	1.17916E+0	-18.7056E-3	30.2569E-12	1.11110E+0	-3.99502E-3
1.48324E-3	31.3309E-12	1.16128E+0	-8.76737E-3	29.9736E-12	1.11614E+0	-13.4907E-3
1.47824E-3	30.6787E-12	1.13561E+0	-9.44711E-3	29.4024E-12	1.12085E+0	-19.0857E-3
1.47324E-3	30.2941E-12	1.13652E+0	-11.9950E-3	29.4593E-12	1.12535E+0	-16.0776E-3
1.46823E-3	29.9307E-12	1.14777E+0	-13.9517E-3	29.2369E-12	1.14271E+0	-12.4456E-3
1.46323E-3	29.4832E-12	1.14931E+0	-16.0127E-3	29.0394E-12	1.16293E+0	-21.3162E-3
1.45823E-3	28.9770E-12	1.15015E+0	-18.8270E-3	28.8421E-12	1.17174E+0	-32.1399E-3
1.45323E-3	28.5753E-12	1.14870E+0	-21.2899E-3	28.7164E-12	1.17836E+0	-28.4826E-3
1.44822E-3	28.3561E-12	1.13984E+0	-12.2005E-3	28.2621E-12	1.18417E+0	-21.6392E-3
1.44322E-3	27.9537E-12	1.13517E+0	2.31562E-3	28.1410E-12	1.17954E+0	-26.4073E-3
1.43822E-3	27.6022E-12	1.13906E+0	5.64737E-3	27.8283E-12	1.16527E+0	-25.5808E-3
1.43322E-3	27.4535E-12	1.13652E+0	-14.9112E-3	27.3377E-12	1.15356E+0	-9.93540E-3
1.42821E-3	27.0743E-12	1.13469E+0	-42.8598E-3	26.8758E-12	1.14464E+0	-3.56348E-3
1.42321E-3	26.7118E-12	1.14098E+0	-45.1473E-3	26.4778E-12	1.13231E+0	-11.0125E-3
1.41821E-3	26.4201E-12	1.14271E+0	-24.2244E-3	25.8903E-12	1.12366E+0	-8.90642E-3
1.41321E-3	26.0127E-12	1.14443E+0	-7.47348E-3	25.3827E-12	1.11791E+0	4.99562E-3
1.40820E-3	25.4985E-12	1.14762E+0	-12.6349E-3	24.8514E-12	1.10860E+0	2.65899E-3
1.40320E-3	24.9775E-12	1.14349E+0	-15.7516E-3	24.5953E-12	1.10437E+0	-12.8575E-3
1.39820E-3	24.7355E-12	1.13904E+0	-9.22863E-3	24.2158E-12	1.10776E+0	-26.0984E-3
1.39320E-3	24.3160E-12	1.14024E+0	-23.6945E-3	23.8567E-12	1.11240E+0	-27.5468E-3
1.38819E-3	23.8016E-12	1.14174E+0	-40.6491E-3	23.4085E-12	1.11507E+0	-9.13168E-3
1.38319E-3	23.2104E-12	1.13985E+0	-31.6715E-3	23.2023E-12	1.10745E+0	10.7461E-3
1.37819E-3	22.8330E-12	1.13435E+0	-20.7461E-3	23.0974E-12	1.10393E+0	12.2432E-3
1.37319E-3	22.6628E-12	1.12479E+0	-20.2714E-3	22.6765E-12	1.11056E+0	-4.23442E-3
1.36818E-3	22.1490E-12	1.11053E+0	-17.8274E-3	22.3222E-12	1.11409E+0	-26.3894E-3
1.36318E-3	21.4586E-12	1.10276E+0	-16.2708E-3	22.2666E-12	1.12491E+0	-30.3874E-3
1.35818E-3	21.1918E-12	1.10817E+0	-14.2889E-3	22.0941E-12	1.12051E+0	-20.1698E-3
1.35318E-3	21.1286E-12	1.11169E+0	-5.28496E-3	21.7218E-12	1.09713E+0	-19.5359E-3
1.34817E-3	20.6496E-12	1.10533E+0	132.211E-6	21.3701E-12	1.08843E+0	-23.5851E-3
1.34317E-3	20.1904E-12	1.08704E+0	-11.3960E-3	21.1907E-12	1.07655E+0	-20.4744E-3
1.33817E-3	20.0930E-12	1.06269E+0	-22.3876E-3	21.0176E-12	1.05095E+0	-11.7762E-3
1.33317E-3	19.9221E-12	1.04808E+0	-19.4216E-3	20.5621E-12	1.03618E+0	-4.73116E-3
1.32816E-3	19.5251E-12	1.04320E+0	-17.5451E-3	20.0787E-12	1.03243E+0	-5.09821E-3
1.32316E-3	19.1482E-12	1.03932E+0	-10.8123E-3	19.6243E-12	1.02244E+0	-11.0062E-3
1.31816E-3	18.9921E-12	1.04208E+0	-5.82499E-3	19.2821E-12	1.01324E+0	-16.0972E-3
1.31316E-3	18.5434E-12	1.04414E+0	-15.5660E-3	18.8433E-12	1.00665E+0	-15.9815E-3
1.30815E-3	18.2053E-12	1.03016E+0	-20.3033E-3	18.3375E-12	993.507E-3	-15.1496E-3
1.30315E-3	17.8740E-12	1.01216E+0	-9.18801E-3	18.0094E-12	977.708E-3	-11.4203E-3
1.29815E-3	17.6449E-12	1.00287E+0	-5.71105E-3	17.6231E-12	956.553E-3	-10.2595E-3
1.29315E-3	17.2450E-12	997.341E-3	-13.2286E-3	17.3186E-12	931.787E-3	-17.1479E-3
1.28814E-3	16.8576E-12	992.102E-3	-12.7587E-3	16.8489E-12	916.762E-3	-18.5403E-3
1.28314E-3	16.5412E-12	982.189E-3	-14.4175E-3	16.5944E-12	905.973E-3	-19.5953E-3
1.27814E-3	16.3022E-12	970.160E-3	-22.6964E-3	16.2600E-12	886.250E-3	-25.0161E-3
1.27314E-3	16.0366E-12	956.646E-3	-24.4354E-3	15.8592E-12	870.469E-3	-25.4190E-3
1.26813E-3	15.6629E-12	931.112E-3	-17.8878E-3	15.4913E-12	866.330E-3	-14.8011E-3
1.26313E-3	15.3232E-12	910.548E-3	-16.7495E-3	15.3021E-12	856.095E-3	-7.00470E-3
1.25813E-3	15.1990E-12	903.874E-3	-14.6963E-3	15.0133E-12	841.641E-3	-13.9606E-3
1.25313E-3	14.8024E-12	888.657E-3	-4.54549E-3	14.5993E-12	825.897E-3	-26.9553E-3
1.24812E-3	14.4613E-12	866.831E-3	-7.91332E-3	14.3808E-12	804.085E-3	-38.4162E-3
1.24312E-3	14.1594E-12	854.016E-3	-18.5974E-3	14.2589E-12	788.357E-3	-37.4479E-3
1.23812E-3	14.0330E-12	835.036E-3	-13.3320E-3	14.0562E-12	781.804E-3	-23.6963E-3
1.23312E-3	13.8157E-12	810.465E-3	-5.30859E-3	13.7360E-12	772.689E-3	-9.32746E-3
1.22811E-3	13.5834E-12	799.016E-3	-7.39455E-3	13.5473E-12	753.677E-3	2.76275E-3
1.22311E-3	13.2292E-12	794.039E-3	-12.0814E-3	13.2194E-12	727.608E-3	10.2208E-3
1.21811E-3	12.9465E-12	789.538E-3	-21.2702E-3	12.9866E-12	714.110E-3	3.28653E-3
1.21311E-3	12.8394E-12	768.886E-3	-25.1416E-3	12.7980E-12	712.209E-3	-5.74233E-3
1.20810E-3	12.5159E-12	742.826E-3	-20.1279E-3	12.3351E-12	699.241E-3	-10.2500E-3
1.20310E-3	12.1412E-12	736.791E-3	-17.7500E-3	12.0758E-12	672.447E-3	-20.8069E-3
1.19810E-3	12.0733E-12	737.602E-3	-15.0605E-3	11.8087E-12	646.078E-3	-24.1488E-3
1.19310E-3	11.8583E-12	728.908E-3	-11.1655E-3	11.7209E-12	627.542E-3	-14.5637E-3
1.18809E-3	11.5086E-12	707.766E-3	-12.1744E-3	11.2457E-12	609.723E-3	-10.6362E-3
1.18309E-3	11.4409E-12	683.400E-3	-13.1996E-3	10.9714E-12	592.518E-3	-3.42563E-3
1.17809E-3	11.2591E-12	669.879E-3	-8.93185E-3	10.7697E-12	582.189E-3	4.96067E-3
1.17309E-3	10.8283E-12	657.775E-3	-10.2973E-3	10.6025E-12	577.016E-3	-7.96617E-3
1.16808E-3	10.6531E-12	637.986E-3	-28.1527E-3	10.3858E-12	564.211E-3	-17.4785E-3
1.16308E-3	10.5304E-12	627.362E-3	-37.6751E-3	10.1694E-12	545.282E-3	-13.2783E-3
1.15808E-3	10.2300E-12	620.318E-3	-29.7303E-3	9.94206E-12	531.863E-3	-10.0020E-3
1.15308E-3	10.0901E-12	598.548E-3	-30.5424E-3	9.75181E-12	515.327E-3	-5.56293E-3
1.14807E-3	9.83144E-12	574.158E-3	-37.6031E-3	9.88737E-12	492.443E-3	-12.6272E-3
1.14307E-3	9.60820E-12	555.264E-3	-35.7817E-3	9.70242E-12	478.382E-3	-30.9547E-3
1.13807E-3	9.50961E-12	538.829E-3	-26.7311E-3	9.44494E-12	472.455E-3	-35.3244E-3
1.13307E-3	9.44767E-12	520.631E-3	-17.5990E-3	9.39339E-12	465.777E-3	-22.0058E-3
1.12806E-3	9.18369E-12	501.571E-3	-10.5192E-3	9.37204E-12	450.965E-3	-10.0602E-3
1.12306E-3	9.00957E-12	489.432E-3	-6.43289E-3	9.17320E-12	424.125E-3	-8.27239E-3
1.11806E-3	8.83072E-12	482.344E-3	-10.2877E-3	8.88106E-12	399.014E-3	-5.04262E-3
1.11306E-3	8.73231E-12	475.621E-3	-20.4967E-3	8.77697E-12	388.965E-3	-3.25985E-3
1.10805E-3	8.64946E-12	458.868E-3	-24.0575E-3	8.64027E-12	395.508E-3	-14.9106E-3
1.10305E-3	8.45227E-12	439.500E-3	-22.6568E-3	8.50771E-12	394.171E-3	-22.2698E-3
1.09805E-3	8.43081E-12	427.236E-3	-19.7108E-3	8.27156E-12	377.109E-3	-23.2849E-3
1.09305E-3	8.23376E-12	416.510E-3	-10.3317E-3	8.05028E-12	354.383E-3	-31.6053E-3
1.08804E-3	8.08390E-12	407.744E-3	-7.49336E-3	7.94416E-12	335.097E-3	-29.8787E-3
1.08304E-3	8.12531E-12	391.191E-3	-15.2608E-3	7.94049E-12	328.873E-3	-15.7275E-3
1.07804E-3	7.85887E-12	368.530E-3	-15.1369E-3	7.80852E-12	323.246E-3	-8.11748E-3
1.07304E-3	7.72762E-12	356.374E-3	-10.4122E-3	7.45045E-12	310.958E-3	-10.7757E-3
1.06803E-3	7.67451E-12	349.911E-3	-9.05994E-3	7.38065E-12	294.679E-3	-17.1419E-3
1.06303E-3	7.57008E-12	335.541E-3	-4.69175E-3	7.44771E-12	284.540E-3	-20.8160E-3
1.05803E-3	7.36054E-12	325.110E-3	-3.43630E-3	7.25575E-12	287.106E-3	-17.7726E-3
1.05303E-3	7.32038E-12	324.365E-3	-9.11979E-3	7.16519E-12	283.454E-3	-10.7231E-3
1.04802E-3	7.28837E-12	310.143E-3	-12.7890E-3	7.12624E-12	263.543E-3	-5.73320E-3
1.04302E-3	7.18782E-12	288.271E-3	-18.1345E-3	7.19017E-12	236.898E-3	-5.29075E-3
1.03802E-3	6.98459E-12	274.724E-3	-26.1384E-3	7.03017E-12	227.456E-3	-10.6808E-3
1.03302E-3	6.85784E-12	260.897E-3	-22.1452E-3	7.06923E-12	231.803E-3	-16.6744E-3
1.02801E-3	6.82892E-12	257.397E-3	-10.4037E-3	6.83238E-12	228.178E-3	-20.4329E-3
1.02301E-3	6.52898E-12	254.494E-3	-10.3640E-3	6.51093E-12	222.137E-3	-24.7660E-3
1.01801E-3	6.47376E-12	226.789E-3	-23.8914E-3	6.60062E-12	205.111E-3	-26.4093E-3
1.01301E-3	6.59880E-12	199.393E-3	-37.9983E-3	6.60601E-12	176.456E-3	-18.5232E-3
1.00800E-3	6.58056E-12	195.219E-3	-34.9296E-3	6.47977E-12	165.023E-3	-9.34840E-3
1.00300E-3	6.42055E-12	201.419E-3	-22.4359E-3	6.35251E-12	166.903E-3	-18.9391E-3
997.999E-6	6.16966E-12	205.909E-3	-20.6871E-3	6.19564E-12	162.107E-3	-27.7204E-3
992.997E-6	6.24804E-12	201.650E-3	-21.2767E-3	6.09784E-12	161.097E-3	-19.0089E-3
987.994E-6	6.24972E-12	188.181E-3	-26.4734E-3	6.20293E-12	163.814E-3	-21.0562E-3
982.991E-6	6.28622E-12	179.458E-3	-24.1290E-3	6.07498E-12	160.434E-3	-28.2604E-3
977.989E-6	6.09199E-12	181.252E-3	-5.05398E-3	5.85661E-12	152.101E-3	-23.5851E-3
972.986E-6	5.97574E-12	179.038E-3	-5.31478E-3	5.79946E-12	143.947E-3	-17.3985E-3
967.984E-6	5.91394E-12	166.929E-3	-17.8541E-3	5.96709E-12	142.531E-3	-9.45314E-3
962.981E-6	5.93444E-12	163.451E-3	-17.8256E-3	5.92093E-12	158.680E-3	-6.53727E-3
957.979E-6	5.79019E-12	168.551E-3	-26.9920E-3	5.59633E-12	170.634E-3	-14.7280E-3
952.976E-6	5.59258E-12	165.763E-3	-35.2715E-3	5.59593E-12	147.513E-3	-20.6684E-3
947.974E-6	5.67815E-12	160.420E-3	-20.6611E-3	5.77194E-12	122.104E-3	-22.9840E-3
942.971E-6	5.74014E-12	159.272E-3	-5.79484E-3	5.69432E-12	119.108E-3	-25.8102E-3
937.969E-6	5.55365E-12	151.034E-3	-7.35039E-3	5.54885E-12	118.738E-3	-19.8362E-3
932.966E-6	5.43212E-12	133.488E-3	-20.8500E-3	5.47513E-12	121.736E-3	-11.2190E-3
927.964E-6	5.56245E-12	119.817E-3	-29.3624E-3	5.46509E-12	131.438E-3	-8.80380E-3
922.961E-6	5.48225E-12	112.897E-3	-23.2981E-3	5.47393E-12	127.406E-3	-8.39648E-3
917.959E-6	5.39067E-12	120.460E-3	-14.1382E-3	5.35799E-12	120.621E-3	-20.1588E-3
912.956E-6	5.38975E-12	134.105E-3	-12.3962E-3	5.21073E-12	123.697E-3	-35.5562E-3
907.954E-6	5.35830E-12	130.658E-3	-18.1549E-3	5.16825E-12	120.344E-3	-36.7432E-3
902.951E-6	5.33113E-12	127.826E-3	-22.2933E-3	5.21554E-12	117.622E-3	-28.2537E-3
897.949E-6	5.22630E-12	134.465E-3	-22.9816E-3	5.09646E-12	117.669E-3	-20.7050E-3
892.946E-6	5.16810E-12	133.887E-3	-24.8058E-3	4.98604E-12	116.766E-3	-16.8222E-3
887.944E-6	5.17384E-12	121.937E-3	-22.3904E-3	4.90946E-12	113.350E-3	-20.1846E-3
882.941E-6	5.23674E-12	102.829E-3	-22.0701E-3	4.93129E-12	110.584E-3	-30.1576E-3
877.939E-6	4.97817E-12	97.6319E-3	-27.8581E-3	4.85852E-12	110.799E-3	-30.4180E-3
872.936E-6	4.95173E-12	112.764E-3	-26.3870E-3	4.77785E-12	108.789E-3	-15.0968E-3
867.934E-6	5.00081E-12	118.400E-3	-23.8382E-3	4.69109E-12	105.929E-3	-3.34829E-3
862.931E-6	4.85109E-12	110.549E-3	-25.6611E-3	4.61148E-12	101.535E-3	-10.9984E-3
857.929E-6	4.79905E-12	109.241E-3	-27.2545E-3	4.68858E-12	101.376E-3	-26.8062E-3
852.926E-6	4.81062E-12	110.185E-3	-21.4501E-3	4.71774E-12	109.193E-3	-33.8255E-3
847.924E-6	4.77882E-12	107.043E-3	-15.6341E-3	4.56008E-12	115.577E-3	-27.3577E-3
842.921E-6	4.66906E-12	114.832E-3	-19.3440E-3	4.47890E-12	122.065E-3	-12.0934E-3
837.919E-6	4.63644E-12	139.104E-3	-16.3819E-3	4.62730E-12	130.148E-3	-4.50603E-3
832.916E-6	4.50196E-12	144.924E-3	-14.1026E-3	4.67084E-12	121.626E-3	-10.5806E-3
827.914E-6	4.56426E-12	127.242E-3	-17.3204E-3	4.48205E-12	105.929E-3	-9.29776E-3
822.911E-6	4.54098E-12	119.299E-3	-12.3239E-3	4.46346E-12	104.259E-3	-7.80869E-3
817.909E-6	4.45237E-12	116.519E-3	-13.9817E-3	4.44409E-12	112.875E-3	-20.7371E-3
812.906E-6	4.46193E-12	110.800E-3	-30.4343E-3	4.48354E-12	117.680E-3	-22.9170E-3
807.904E-6	4.45820E-12	109.439E-3	-36.3445E-3	4.44766E-12	118.897E-3	-10.6687E-3
802.901E-6	4.30687E-12	110.828E-3	-22.3625E-3	4.30424E-12	130.808E-3	-5.57010E-3
797.899E-6	4.29285E-12	113.098E-3	-12.1808E-3	4.32831E-12	140.994E-3	-4.07533E-3
792.896E-6	4.32585E-12	118.990E-3	-13.1530E-3	4.34793E-12	133.187E-3	-4.55232E-3
787.894E-6	4.19063E-12	125.907E-3	-19.1500E-3	4.33780E-12	118.896E-3	-11.5440E-3
782.891E-6	4.13626E-12	121.218E-3	-23.6510E-3	4.20313E-12	114.158E-3	-17.1430E-3
777.889E-6	4.16444E-12	109.930E-3	-16.3776E-3	4.16979E-12	119.017E-3	-16.8062E-3
772.886E-6	4.12008E-12	109.663E-3	-13.2927E-3	4.12372E-12	136.634E-3	-13.0011E-3
767.884E-6	4.09878E-12	116.956E-3	-23.2321E-3	4.11087E-12	150.140E-3	-17.8715E-3
762.881E-6	3.95059E-12	127.019E-3	-34.2123E-3	4.03462E-12	140.643E-3	-15.8282E-3
757.879E-6	3.99550E-12	136.190E-3	-35.8827E-3	3.98394E-12	121.490E-3	-5.25307E-3
752.876E-6	4.05202E-12	129.602E-3	-27.5703E-3	3.92790E-12	106.822E-3	-8.41894E-3
747.874E-6	3.94013E-12	120.498E-3	-16.8411E-3	3.82208E-12	108.490E-3	-8.31785E-3
742.871E-6	3.83463E-12	126.992E-3	-7.36801E-3	3.85395E-12	126.803E-3	-6.48752E-3
737.869E-6	3.80578E-12	132.740E-3	-7.84177E-3	3.83947E-12	144.427E-3	-10.2227E-3
732.866E-6	3.75959E-12	125.545E-3	-16.0596E-3	3.77375E-12	140.746E-3	-8.11380E-3
727.864E-6	3.76629E-12	120.163E-3	-15.7065E-3	3.69904E-12	129.274E-3	-4.20269E-3
722.861E-6	3.71999E-12	124.126E-3	-3.17936E-3	3.70654E-12	134.580E-3	-2.91598E-3
717.859E-6	3.61476E-12	136.517E-3	2.65452E-3	3.70218E-12	142.093E-3	-130.546E-6
712.856E-6	3.57929E-12	151.951E-3	-2.00956E-3	3.70723E-12	135.595E-3	2.84003E-3
707.854E-6	3.59751E-12	145.691E-3	-4.67218E-3	3.62790E-12	128.250E-3	-4.21644E-3
702.851E-6	3.50369E-12	123.490E-3	-8.40527E-3	3.51889E-12	130.879E-3	-15.2217E-3
697.849E-6	3.45803E-12	126.213E-3	-12.6347E-3	3.43316E-12	146.201E-3	-14.0052E-3
692.846E-6	3.44011E-12	140.604E-3	-18.0736E-3	3.53998E-12	159.323E-3	-1.64773E-3
687.844E-6	3.44944E-12	148.251E-3	-22.7111E-3	3.45556E-12	160.623E-3	4.96347E-3
682.841E-6	3.40052E-12	159.130E-3	-15.6678E-3	3.28605E-12	162.395E-3	-5.50576E-3
677.839E-6	3.33596E-12	153.832E-3	-14.6578E-3	3.25422E-12	165.608E-3	-13.9828E-3
672.836E-6	3.27671E-12	136.924E-3	-31.7475E-3	3.29794E-12	161.198E-3	-7.10874E-3
667.834E-6	3.24144E-12	131.343E-3	-36.4878E-3	3.19359E-12	147.830E-3	-3.27872E-3
662.831E-6	3.15851E-12	140.417E-3	-24.6201E-3	3.14179E-12	143.224E-3	-7.02811E-3
657.829E-6	3.16208E-12	155.146E-3	-9.18522E-3	3.04699E-12	156.294E-3	-15.6851E-3
652.826E-6	3.12458E-12	162.577E-3	7.81941E-3	2.92837E-12	166.858E-3	-22.5420E-3
647.824E-6	2.99047E-12	156.701E-3	6.09381E-3	2.88771E-12	160.041E-3	-24.2718E-3
642.821E-6	3.02932E-12	140.153E-3	-3.58997E-3	2.92134E-12	148.090E-3	-26.1725E-3
637.819E-6	3.00161E-12	135.655E-3	-9.62551E-3	2.85011E-12	143.115E-3	-23.0380E-3
632.816E-6	2.89532E-12	151.482E-3	-17.6324E-3	2.72409E-12	145.013E-3	-21.2994E-3
627.814E-6	2.76587E-12	175.678E-3	-15.0988E-3	2.66073E-12	142.611E-3	-25.7469E-3
622.811E-6	2.70300E-12	179.980E-3	-15.1629E-3	2.67339E-12	133.724E-3	-23.5093E-3
617.809E-6	2.73712E-12	155.386E-3	-23.9367E-3	2.70376E-12	131.272E-3	-16.9938E-3
612.806E-6	2.70716E-12	142.438E-3	-26.4953E-3	2.48946E-12	134.944E-3	-11.3232E-3
607.804E-6	2.60203E-12	148.917E-3	-27.9664E-3	2.49435E-12	134.942E-3	-15.1815E-3
602.801E-6	2.54042E-12	152.516E-3	-25.2340E-3	2.58162E-12	131.626E-3	-34.2782E-3
597.799E-6	2.43541E-12	156.666E-3	-14.1343E-3	2.41739E-12	140.639E-3	-38.2634E-3
592.796E-6	2.45345E-12	165.706E-3	-4.41715E-3	2.26357E-12	161.421E-3	-18.1636E-3
587.794E-6	2.36304E-12	166.204E-3	-3.36958E-3	2.30839E-12	165.036E-3	-3.94631E-3
582.791E-6	2.25972E-12	157.384E-3	-15.9673E-3	2.38775E-12	151.762E-3	-9.78958E-3
577.789E-6	2.32318E-12	148.214E-3	-23.6163E-3	2.26211E-12	143.834E-3	-14.7087E-3
572.786E-6	2.25330E-12	138.914E-3	-15.8955E-3	2.17808E-12	145.911E-3	-8.15346E-3
567.784E-6	2.15446E-12	140.133E-3	-13.7442E-3	2.06333E-12	147.442E-3	-2.26705E-3
562.781E-6	2.13941E-12	147.594E-3	-9.63818E-3	2.12067E-12	140.524E-3	3.67337E-3
557.779E-6	2.12616E-12	146.840E-3	-2.27838E-3	2.17779E-12	140.137E-3	6.82678E-3
552.776E-6	2.04726E-12	147.210E-3	-12.9843E-3	1.97613E-12	143.031E-3	-1.67217E-3
547.774E-6	1.93833E-12	152.276E-3	-24.1339E-3	1.88364E-12	144.559E-3	-14.9252E-3
542.771E-6	1.88856E-12	150.098E-3	-18.3371E-3	1.87817E-12	154.675E-3	-16.6756E-3
537.769E-6	1.86412E-12	145.530E-3	-10.8064E-3	1.93219E-12	160.931E-3	-4.49541E-3
532.766E-6	1.81101E-12	150.096E-3	-7.11761E-3	1.83958E-12	149.233E-3	5.53041E-3
527.764E-6	1.76985E-12	146.750E-3	80.8456E-6	1.70905E-12	132.726E-3	874.503E-6
522.761E-6	1.71042E-12	126.733E-3	3.84317E-3	1.67994E-12	125.765E-3	-12.6929E-3
517.759E-6	1.64836E-12	122.513E-3	5.72226E-3	1.67019E-12	121.354E-3	-19.2246E-3
512.756E-6	1.65974E-12	137.542E-3	-4.83409E-3	1.70068E-12	116.121E-3	-17.1812E-3
507.754E-6	1.61126E-12	137.188E-3	-24.1903E-3	1.57615E-12	121.018E-3	-20.1594E-3
502.751E-6	1.56980E-12	133.881E-3	-16.4996E-3	1.49406E-12	133.810E-3	-19.6444E-3
497.749E-6	1.45409E-12	140.661E-3	1.06723E-3	1.45735E-12	143.038E-3	-12.6154E-3
492.746E-6	1.41825E-12	137.006E-3	-4.93923E-3	1.48316E-12	136.816E-3	-11.4122E-3
487.744E-6	1.43679E-12	130.294E-3	-17.5479E-3	1.43179E-12	124.189E-3	-13.7416E-3
482.741E-6	1.40368E-12	127.067E-3	-16.5087E-3	1.33807E-12	122.855E-3	-21.9801E-3
477.739E-6	1.27977E-12	121.966E-3	-8.90231E-3	1.24899E-12	122.632E-3	-24.2100E-3
472.736E-6	1.24702E-12	121.445E-3	-3.73877E-3	1.22789E-12	119.443E-3	-5.57953E-3
467.734E-6	1.21502E-12	120.759E-3	-6.18072E-3	1.30848E-12	114.133E-3	12.2199E-3
462.731E-6	1.20767E-12	115.914E-3	-12.5096E-3	1.20303E-12	115.522E-3	6.53268E-3
457.729E-6	1.14690E-12	114.914E-3	-18.5475E-3	1.05325E-12	120.081E-3	-8.47043E-3
452.726E-6	1.09592E-12	118.770E-3	-18.0468E-3	1.04060E-12	118.681E-3	-9.56566E-3
447.724E-6	1.09092E-12	110.392E-3	-12.9993E-3	1.11710E-12	117.113E-3	-10.1536E-3
442.721E-6	1.11751E-12	95.5524E-3	-10.8271E-3	1.11121E-12	111.569E-3	-9.97295E-3
437.719E-6	1.01957E-12	92.7980E-3	-2.75689E-3	949.138E-15	100.643E-3	-5.21554E-3
432.716E-6	932.824E-15	96.0085E-3	-4.99629E-3	865.843E-15	90.0835E-3	-6.75236E-3
427.714E-6	925.003E-15	96.2736E-3	-22.5592E-3	888.356E-15	85.2382E-3	897.504E-6
422.711E-6	872.679E-15	85.2342E-3	-32.0488E-3	910.747E-15	89.4364E-3	-2.42834E-3
417.709E-6	877.073E-15	77.6836E-3	-36.9600E-3	846.460E-15	93.5667E-3	-18.9236E-3
412.706E-6	827.713E-15	86.9905E-3	-31.4471E-3	745.987E-15	93.6385E-3	-18.0871E-3
407.704E-6	821.278E-15	92.7997E-3	-16.3229E-3	729.882E-15	98.7998E-3	-12.5821E-3
402.701E-6	734.844E-15	95.9361E-3	-12.5762E-3	741.069E-15	96.7696E-3	-13.1905E-3
397.699E-6	712.889E-15	100.634E-3	-12.1136E-3	732.708E-15	85.2578E-3	-18.4939E-3
392.696E-6	712.235E-15	91.0020E-3	-10.1553E-3	683.304E-15	80.9323E-3	-24.8389E-3
387.694E-6	671.768E-15	78.3082E-3	-10.4659E-3	602.328E-15	77.7134E-3	-20.6940E-3
382.691E-6	608.222E-15	74.4004E-3	-9.20717E-3	613.070E-15	68.4241E-3	-13.8143E-3
377.689E-6	579.239E-15	73.2469E-3	-12.1555E-3	590.984E-15	57.3132E-3	-14.1665E-3
372.686E-6	547.710E-15	71.9144E-3	-27.8613E-3	573.467E-15	58.6688E-3	-19.4609E-3
367.684E-6	591.167E-15	72.2888E-3	-34.6558E-3	490.415E-15	70.6346E-3	-23.5994E-3
362.681E-6	495.124E-15	74.1825E-3	-20.6701E-3	479.970E-15	74.8924E-3	-14.6397E-3
357.679E-6	493.467E-15	69.7158E-3	-13.0170E-3	525.319E-15	76.2182E-3	-8.00365E-3
352.676E-6	498.803E-15	67.3876E-3	-15.2842E-3	536.183E-15	76.4760E-3	-13.5594E-3
347.674E-6	490.503E-15	75.2126E-3	-14.1102E-3	451.745E-15	65.0258E-3	-19.9871E-3
342.671E-6	445.903E-15	77.8018E-3	-13.7349E-3	326.972E-15	45.6787E-3	-25.6993E-3
337.669E-6	421.611E-15	64.9191E-3	-16.2594E-3	356.033E-15	42.4237E-3	-22.6720E-3
332.666E-6	378.852E-15	50.0864E-3	-15.0805E-3	415.211E-15	60.3041E-3	-14.0828E-3
327.664E-6	357.952E-15	50.2459E-3	-17.3049E-3	411.253E-15	72.7390E-3	-17.4496E-3
322.661E-6	336.877E-15	59.6599E-3	-17.9156E-3	279.382E-15	67.0243E-3	-22.9310E-3
317.659E-6	308.487E-15	65.1639E-3	-6.53383E-3	214.170E-15	52.4236E-3	-15.9734E-3
312.656E-6	282.687E-15	60.6730E-3	-4.90431E-3	287.665E-15	46.8297E-3	-11.8405E-3
307.654E-6	280.943E-15	48.2164E-3	-15.7939E-3	364.003E-15	43.3701E-3	-16.1548E-3
302.651E-6	299.524E-15	39.2123E-3	-24.9605E-3	266.041E-15	44.8022E-3	-16.3719E-3
297.649E-6	238.706E-15	46.7573E-3	-34.0741E-3	132.462E-15	61.4483E-3	-11.7855E-3
292.646E-6	203.524E-15	59.2677E-3	-35.5861E-3	188.579E-15	61.0339E-3	-7.87774E-3
287.644E-6	254.166E-15	60.0392E-3	-27.9542E-3	240.799E-15	40.6869E-3	-6.91682E-3
282.641E-6	224.006E-15	62.4933E-3	-22.1572E-3	223.439E-15	26.8601E-3	-9.27208E-3
277.639E-6	205.939E-15	61.9022E-3	-18.4339E-3	141.172E-15	26.5870E-3	-15.8603E-3
272.636E-6	203.053E-15	43.2130E-3	-11.8000E-3	107.359E-15	34.6614E-3	-22.7973E-3
267.634E-6	140.579E-15	29.6870E-3	-6.01891E-3	169.963E-15	42.0037E-3	-18.2024E-3
262.631E-6	141.817E-15	29.3212E-3	-12.2847E-3	177.663E-15	40.5223E-3	-4.92812E-3
257.629E-6	165.438E-15	23.3647E-3	-23.9519E-3	132.087E-15	25.9571E-3	-4.58842E-3
252.626E-6	148.531E-15	19.9621E-3	-20.0403E-3	66.8837E-15	12.1265E-3	-13.7496E-3
247.624E-6	129.671E-15	28.1428E-3	-14.6464E-3	103.548E-15	7.48209E-3	-18.1085E-3
242.621E-6	56.4554E-15	34.5915E-3	-19.6256E-3	100.191E-15	3.74870E-3	-18.5898E-3
237.619E-6	121.318E-15	33.3385E-3	-13.8722E-3	97.1135E-15	5.78406E-3	-15.1612E-3
232.616E-6	113.532E-15	32.4646E-3	-3.37709E-3	49.0614E-15	16.5766E-3	-10.4923E-3
227.614E-6	65.5148E-15	32.2891E-3	-580.096E-6	8.39459E-15	23.3023E-3	-6.35508E-3
222.611E-6	63.1606E-15	31.5000E-3	-5.65519E-3	69.9791E-15	21.0270E-3	-7.02562E-3
217.609E-6	71.9409E-15	22.9843E-3	-15.8330E-3	80.4597E-15	16.0153E-3	-10.7339E-3
212.606E-6	30.0969E-15	12.8523E-3	-11.1619E-3	56.9611E-15	11.6499E-3	-7.52962E-3
207.604E-6	2.30851E-15	26.3030E-3	4.94376E-3	-68.8236E-15	8.40220E-3	-2.14900E-3
202.601E-6	30.4283E-15	43.6984E-3	2.06538E-3	-29.2467E-15	7.12437E-3	-5.05697E-3
197.599E-6	-30.5197E-15	38.9615E-3	-18.3142E-3	31.4833E-15	6.65070E-3	-13.4850E-3
192.596E-6	31.8495E-15	25.9145E-3	-31.6086E-3	48.5034E-15	11.7993E-3	-18.0746E-3
187.594E-6	23.8365E-15	19.3413E-3	-19.0366E-3	-49.1703E-15	21.9736E-3	-15.0362E-3
182.591E-6	7.22620E-15	20.1289E-3	3.94736E-3	-94.8769E-15	18.5152E-3	-3.62418E-3
177.589E-6	-54.1490E-15	21.7905E-3	1.29252E-3	-37.4254E-15	4.85030E-3	3.97056E-3
172.586E-6	-39.8755E-15	14.0356E-3	-11.6467E-3	38.0577E-15	4.76740E-3	-8.80683E-3
167.584E-6	-39.8319E-15	3.84516E-3	-6.54857E-3	-13.6914E-15	13.5205E-3	-28.7457E-3
162.581E-6	-14.3541E-15	-5.25107E-3	-549.055E-6	-98.5739E-15	10.3006E-3	-34.0477E-3
157.579E-6	-77.5342E-15	-12.0545E-3	-5.16310E-3	-91.8077E-15	4.91436E-3	-27.3425E-3
152.576E-6	-83.0448E-15	-4.36724E-3	-17.4488E-3	-4.43151E-15	11.2301E-3	-21.3599E-3
147.574E-6	-80.0279E-15	11.0629E-3	-34.0248E-3	-73.3576E-15	11.3359E-3	-23.2193E-3
142.571E-6	-52.4923E-15	18.4187E-3	-38.4812E-3	-88.8954E-15	10.4299E-3	-33.2671E-3
137.569E-6	-31.2608E-15	11.9507E-3	-29.2459E-3	-104.991E-15	19.4670E-3	-37.5826E-3
132.566E-6	-62.8247E-15	10.7013E-3	-17.6256E-3	-95.1297E-15	20.1481E-3	-24.8075E-3
127.564E-6	-88.9739E-15	19.2966E-3	-14.5100E-3	-46.2057E-15	15.0453E-3	-16.1876E-3
122.561E-6	-104.747E-15	17.9686E-3	-25.3999E-3	-82.9314E-15	15.1743E-3	-20.8796E-3
117.559E-6	-31.3480E-15	10.6866E-3	-38.3236E-3	-80.7952E-15	13.4058E-3	-24.9735E-3
112.556E-6	-113.310E-15	-2.35488E-3	-31.6616E-3	-153.017E-15	6.07628E-3	-26.6340E-3
107.554E-6	-110.537E-15	-11.3038E-3	-15.8832E-3	-136.825E-15	5.32870E-3	-23.3105E-3
102.551E-6	-95.6965E-15	2.84398E-3	-15.3290E-3	-77.8655E-15	18.2560E-3	-16.4977E-3
97.5488E-6	-86.6197E-15	22.2881E-3	-25.0415E-3	-119.814E-15	23.7137E-3	-11.2232E-3
92.5463E-6	-141.734E-15	27.3804E-3	-26.9474E-3	-154.587E-15	16.2244E-3	-9.50791E-3
87.5438E-6	-128.821E-15	21.9538E-3	-16.9932E-3	-121.706E-15	5.60645E-3	-15.0634E-3
82.5413E-6	-140.392E-15	17.6919E-3	-15.1107E-3	-47.5746E-15	-1.44608E-3	-19.6695E-3
77.5388E-6	-74.8225E-15	17.7693E-3	-19.5730E-3	-121.166E-15	5.14432E-3	-24.0612E-3
72.5363E-6	-141.656E-15	17.7801E-3	-16.5622E-3	-163.602E-15	8.11341E-3	-29.8387E-3
67.5338E-6	-149.486E-15	17.5807E-3	-17.7148E-3	-177.728E-15	1.58216E-3	-27.5884E-3
62.5313E-6	-151.143E-15	15.0113E-3	-20.9114E-3	-117.521E-15	1.57880E-3	-20.2242E-3
57.5288E-6	-143.356E-15	11.7364E-3	-20.6315E-3	-96.0976E-15	2.88306E-3	-15.5158E-3
52.5263E-6	-147.036E-15	16.7595E-3	-18.4319E-3	-174.022E-15	-2.91368E-3	-8.42472E-3
47.5238E-6	-114.678E-15	21.9486E-3	-13.2842E-3	-198.410E-15	-14.7534E-3	-1.73934E-3
42.5213E-6	-150.079E-15	18.1930E-3	-19.2668E-3	-155.276E-15	-21.7011E-3	-3.67663E-3
37.5188E-6	-189.734E-15	19.1278E-3	-31.1172E-3	-105.218E-15	-15.4039E-3	-5.58950E-3
32.5163E-6	-152.311E-15	29.2596E-3	-26.7932E-3	-165.503E-15	-2.89882E-3	-2.00132E-3
27.5138E-6	-133.564E-15	30.2898E-3	-17.6685E-3	-205.342E-15	4.80954E-3	3.62515E-3
22.5113E-6	-160.420E-15	24.5310E-3	-19.3306E-3	-194.966E-15	6.36464E-3	-3.90386E-3
17.5088E-6	-182.340E-15	20.4611E-3	-22.8261E-3	-161.283E-15	9.39487E-3	-19.2163E-3
12.5063E-6	-168.398E-15	10.2190E-3	-21.1343E-3	-139.441E-15	17.8418E-3	-17.8277E-3
7.50375E-6	-111.295E-15	8.99327E-3	-14.0262E-3	-199.796E-15	25.1065E-3	-5.65391E-3
2.50125E-6	-157.447E-15	24.2692E-3	-10.6989E-3	-226.425E-15	30.5547E-3	375.706E-6
-2.50125E-6	-178.905E-15	25.2073E-3	-10.0980E-3	-185.122E-15	31.9867E-3	1.42255E-3
-7.50375E-6	-222.589E-15	11.0550E-3	-11.1606E-3	-155.494E-15	19.4613E-3	-1.14049E-3
-12.5063E-6	-225.265E-15	322.152E-6	-16.4124E-3	-194.591E-15	5.69377E-3	-12.5589E-3
-17.5088E-6	-152.651E-15	-4.81196E-3	-17.0256E-3	-185.723E-15	10.4679E-3	-26.8862E-3
-22.5113E-6	-214.384E-15	-5.35282E-3	-10.2652E-3	-229.529E-15	14.7688E-3	-32.9713E-3
-27.5138E-6	-177.789E-15	-3.62629E-3	-5.34010E-3	-224.952E-15	9.22154E-3	-33.0503E-3
-32.5163E-6	-179.437E-15	-4.06816E-3	-11.8267E-3	-147.001E-15	7.15731E-3	-37.7097E-3
-37.5188E-6	-214.410E-15	-1.75381E-3	-17.2438E-3	-184.128E-15	1.60117E-3	-37.7889E-3
-42.5213E-6	-193.440E-15	10.0176E-3	-17.5725E-3	-276.361E-15	-5.16963E-3	-26.4028E-3
-47.5238E-6	-238.833E-15	11.8251E-3	-18.6178E-3	-228.901E-15	-6.20001E-3	-23.1286E-3
-52.5263E-6	-222.205E-15	4.37207E-3	-15.5477E-3	-175.766E-15	-3.54437E-3	-28.4376E-3
-57.5288E-6	-212.535E-15	9.54541E-3	-13.5580E-3	-157.961E-15	11.3003E-3	-26.4087E-3
-62.5313E-6	-202.534E-15	14.3566E-3	-19.2490E-3	-271.888E-15	30.6295E-3	-16.9393E-3
-67.5338E-6	-218.665E-15	12.8147E-3	-29.8774E-3	-307.401E-15	31.9287E-3	-11.3477E-3
-72.5363E-6	-244.544E-15	9.94548E-3	-27.5102E-3	-204.897E-15	16.1315E-3	-11.8223E-3
-77.5388E-6	-244.675E-15	8.16639E-3	-11.6940E-3	-158.179E-15	915.388E-6	-6.39694E-3
-82.5413E-6	-246.575E-15	14.8653E-3	-5.43601E-3	-264.807E-15	8.29888E-3	-3.93860E-3
-87.5438E-6	-244.439E-15	23.8430E-3	-10.6264E-3	-332.478E-15	30.1312E-3	-20.5919E-3
-92.5463E-6	-256.341E-15	23.8796E-3	-17.1708E-3	-262.104E-15	30.5876E-3	-33.5374E-3
-97.5488E-6	-272.812E-15	16.6787E-3	-19.5283E-3	-213.974E-15	20.1755E-3	-21.4690E-3
-102.551E-6	-254.580E-15	7.85284E-3	-11.6232E-3	-260.997E-15	22.5414E-3	-10.0567E-3
-107.554E-6	-266.900E-15	3.59072E-3	-4.03985E-3	-280.145E-15	30.8960E-3	-18.7359E-3
-112.556E-6	-291.785E-15	6.52860E-3	-2.89573E-3	-294.061E-15	39.1610E-3	-28.4118E-3
-117.559E-6	-320.131E-15	8.36155E-3	-7.72395E-3	-240.890E-15	44.5384E-3	-26.1810E-3
-122.561E-6	-318.248E-15	9.41627E-3	-22.0677E-3	-268.243E-15	40.2222E-3	-21.4631E-3
-127.564E-6	-252.278E-15	12.7252E-3	-25.6725E-3	-312.799E-15	25.7242E-3	-20.7515E-3
-132.566E-6	-276.552E-15	17.0846E-3	-18.5265E-3	-340.997E-15	14.6811E-3	-19.0307E-3
-137.569E-6	-314.726E-15	17.0745E-3	-20.2308E-3	-284.600E-15	15.8596E-3	-16.4890E-3
-142.571E-6	-366.326E-15	8.78758E-3	-22.8465E-3	-299.013E-15	22.7919E-3	-10.8868E-3
-147.574E-6	-305.640E-15	5.89136E-3	-13.8507E-3	-304.794E-15	26.8243E-3	-2.91702E-3
-152.576E-6	-306.460E-15	22.0044E-3	-9.85032E-3	-319.050E-15	25.5732E-3	-4.00562E-3
-157.579E-6	-357.424E-15	37.7548E-3	-21.3053E-3	-425.356E-15	23.5159E-3	-14.1376E-3
-162.581E-6	-350.326E-15	28.5707E-3	-26.3104E-3	-357.999E-15	19.5782E-3	-19.4704E-3
-167.584E-6	-320.062E-15	13.7895E-3	-20.8254E-3	-309.433E-15	13.3017E-3	-18.3834E-3
-172.586E-6	-370.215E-15	13.3719E-3	-6.96442E-3	-318.318E-15	16.0966E-3	-20.0132E-3
-177.589E-6	-352.341E-15	15.1662E-3	1.63688E-3	-426.882E-15	22.0519E-3	-28.6495E-3
-182.591E-6	-426.978E-15	15.4050E-3	-10.4104E-3	-415.992E-15	24.4387E-3	-33.3251E-3
-187.594E-6	-429.942E-15	24.9287E-3	-19.8555E-3	-359.421E-15	29.0776E-3	-23.6505E-3
-192.596E-6	-413.559E-15	33.3366E-3	-12.5469E-3	-337.962E-15	31.8012E-3	-13.2213E-3
-197.599E-6	-403.061E-15	27.1898E-3	-1.90065E-3	-421.642E-15	30.8621E-3	-7.74473E-3
-202.601E-6	-420.944E-15	27.2457E-3	-2.63454E-3	-496.976E-15	34.6700E-3	-3.49312E-3
-207.604E-6	-411.876E-15	41.7903E-3	-14.8469E-3	-465.299E-15	41.3951E-3	-2.93931E-3
-212.606E-6	-462.762E-15	41.1851E-3	-28.6844E-3	-380.966E-15	41.0851E-3	-3.24649E-3
-217.609E-6	-437.476E-15	26.9039E-3	-28.5428E-3	-463.538E-15	35.3291E-3	-4.82478E-3
-222.611E-6	-462.797E-15	24.9773E-3	-22.7650E-3	-512.523E-15	30.4220E-3	-8.07070E-3
-227.614E-6	-524.660E-15	30.3002E-3	-25.5461E-3	-503.403E-15	25.0466E-3	-6.30188E-3
-232.616E-6	-547.958E-15	37.8335E-3	-13.7390E-3	-490.995E-15	31.9271E-3	-7.26967E-3
-237.619E-6	-540.686E-15	49.2547E-3	71.1499E-6	-467.061E-15	52.5740E-3	-13.9593E-3
-242.621E-6	-545.395E-15	57.1530E-3	-5.78527E-3	-510.622E-15	60.9674E-3	-8.16724E-3
-247.624E-6	-551.926E-15	51.9770E-3	-13.7807E-3	-590.753E-15	56.5640E-3	-2.81293E-3
-252.626E-6	-596.769E-15	42.5916E-3	-15.4765E-3	-594.127E-15	50.9084E-3	-8.20997E-3
-257.629E-6	-630.295E-15	47.2298E-3	-10.4872E-3	-590.997E-15	48.2431E-3	-10.9811E-3
-262.631E-6	-574.613E-15	62.2885E-3	-7.79818E-3	-594.162E-15	53.7438E-3	-18.6191E-3
-267.634E-6	-580.281E-15	68.5391E-3	-16.7202E-3	-692.638E-15	55.2330E-3	-21.8405E-3
-272.636E-6	-683.927E-15	60.3345E-3	-31.5936E-3	-719.886E-15	50.1613E-3	-12.7244E-3
-277.639E-6	-677.588E-15	48.2966E-3	-37.3361E-3	-658.301E-15	56.8185E-3	-13.9411E-3
-282.641E-6	-706.397E-15	42.2714E-3	-24.5956E-3	-694.521E-15	72.7244E-3	-23.6629E-3
-287.644E-6	-719.903E-15	58.5601E-3	-14.0905E-3	-701.287E-15	86.7438E-3	-30.1243E-3
-292.646E-6	-782.682E-15	73.4041E-3	-18.6395E-3	-791.131E-15	87.6231E-3	-29.5251E-3
-297.649E-6	-792.753E-15	53.9133E-3	-23.6319E-3	-842.139E-15	76.2787E-3	-11.9258E-3
-302.651E-6	-805.073E-15	38.7526E-3	-24.4675E-3	-795.456E-15	74.5820E-3	-1.30774E-3
-307.654E-6	-820.794E-15	53.8567E-3	-28.9478E-3	-819.879E-15	85.0070E-3	-11.6625E-3
-312.656E-6	-837.919E-15	71.4559E-3	-40.8096E-3	-872.840E-15	92.3591E-3	-13.6884E-3
-317.659E-6	-934.067E-15	80.8013E-3	-41.5849E-3	-977.672E-15	101.655E-3	-11.7176E-3
-322.661E-6	-932.462E-15	86.4020E-3	-21.2031E-3	-923.351E-15	119.292E-3	-18.5673E-3
-327.664E-6	-955.307E-15	89.4849E-3	-3.23863E-3	-916.305E-15	122.893E-3	-16.7014E-3
-332.666E-6	-978.884E-15	100.729E-3	-9.24205E-3	-980.994E-15	111.651E-3	-6.88575E-3
-337.669E-6	-1.03537E-12	115.508E-3	-19.1250E-3	-1.10865E-12	109.482E-3	-5.35684E-3
-342.671E-6	-1.05628E-12	108.158E-3	-17.2996E-3	-1.07023E-12	119.358E-3	-12.3759E-3
-347.674E-6	-1.10578E-12	92.6089E-3	-22.0821E-3	-1.08835E-12	132.635E-3	-15.2882E-3
-352.676E-6	-1.16223E-12	92.6339E-3	-26.3326E-3	-1.16274E-12	142.749E-3	-19.1865E-3
-357.679E-6	-1.14597E-12	104.279E-3	-10.5193E-3	-1.21768E-12	144.553E-3	-25.4234E-3
-362.681E-6	-1.21279E-12	124.763E-3	923.148E-6	-1.27227E-12	142.365E-3	-24.2346E-3
-367.684E-6	-1.34513E-12	139.112E-3	-5.81893E-3	-1.26402E-12	142.091E-3	-18.0146E-3
-372.686E-6	-1.37755E-12	133.829E-3	-11.5677E-3	-1.34218E-12	139.393E-3	-11.8420E-3
-377.689E-6	-1.35890E-12	132.878E-3	-8.82542E-3	-1.36205E-12	138.545E-3	-11.9219E-3
-382.691E-6	-1.38737E-12	144.821E-3	-4.00733E-3	-1.44173E-12	139.004E-3	-14.6457E-3
-387.694E-6	-1.49202E-12	148.865E-3	-8.66869E-3	-1.48776E-12	139.469E-3	-9.45401E-3
-392.696E-6	-1.51958E-12	146.618E-3	-19.4031E-3	-1.48795E-12	150.355E-3	-1.17045E-3
-397.699E-6	-1.57583E-12	146.378E-3	-28.6235E-3	-1.52100E-12	160.954E-3	-8.66146E-3
-402.701E-6	-1.60029E-12	152.781E-3	-30.1831E-3	-1.53572E-12	159.850E-3	-27.2911E-3
-407.704E-6	-1.60194E-12	162.159E-3	-21.0957E-3	-1.65498E-12	158.695E-3	-31.2208E-3
-412.706E-6	-1.68946E-12	164.938E-3	-13.7639E-3	-1.65681E-12	158.904E-3	-21.6872E-3
-417.709E-6	-1.81910E-12	162.386E-3	-12.5760E-3	-1.70445E-12	155.449E-3	-16.6109E-3
-422.711E-6	-1.84115E-12	168.851E-3	-16.3230E-3	-1.76697E-12	161.113E-3	-14.6856E-3
-427.714E-6	-1.89311E-12	185.242E-3	-14.2255E-3	-1.88748E-12	175.350E-3	-12.0430E-3
-432.716E-6	-1.96253E-12	191.411E-3	-1.08650E-3	-1.93565E-12	182.518E-3	-11.4522E-3
-437.719E-6	-2.00536E-12	185.876E-3	2.38130E-3	-1.91712E-12	188.937E-3	-12.2996E-3
-442.721E-6	-2.10653E-12	179.822E-3	-10.5452E-3	-2.00555E-12	198.527E-3	-13.7343E-3
-447.724E-6	-2.17690E-12	183.564E-3	-27.1685E-3	-2.06088E-12	198.713E-3	-13.7281E-3
-452.726E-6	-2.17941E-12	200.211E-3	-31.1259E-3	-2.23491E-12	191.846E-3	-8.83058E-3
-457.729E-6	-2.25734E-12	210.671E-3	-22.1046E-3	-2.27483E-12	190.526E-3	-6.23207E-3
-462.731E-6	-2.48534E-12	200.999E-3	-17.3489E-3	-2.27017E-12	199.644E-3	-12.0355E-3
-467.734E-6	-2.46080E-12	184.493E-3	-15.8160E-3	-2.34761E-12	213.261E-3	-12.5837E-3
-472.736E-6	-2.46945E-12	199.144E-3	-13.2785E-3	-2.51584E-12	217.127E-3	-9.43501E-3
-477.739E-6	-2.56607E-12	225.209E-3	-17.5719E-3	-2.60641E-12	214.832E-3	-16.5234E-3
-482.741E-6	-2.65017E-12	217.864E-3	-21.8719E-3	-2.63768E-12	215.807E-3	-22.1046E-3
-487.744E-6	-2.72580E-12	207.995E-3	-20.3870E-3	-2.68023E-12	219.598E-3	-18.0202E-3
-492.746E-6	-2.67654E-12	219.465E-3	-9.39711E-3	-2.78859E-12	226.430E-3	-10.9413E-3
-497.749E-6	-2.76612E-12	228.933E-3	-1.70544E-3	-2.89908E-12	233.474E-3	-8.81989E-3
-502.751E-6	-2.90994E-12	224.453E-3	-13.2657E-3	-2.90579E-12	243.168E-3	-18.9406E-3
-507.754E-6	-2.91808E-12	221.117E-3	-23.2254E-3	-2.97997E-12	244.544E-3	-26.3097E-3
-512.756E-6	-2.97576E-12	224.445E-3	-24.8327E-3	-3.05830E-12	237.424E-3	-15.0559E-3
-517.759E-6	-3.02242E-12	219.618E-3	-26.6635E-3	-3.16437E-12	236.091E-3	-2.64403E-3
-522.761E-6	-3.12844E-12	214.573E-3	-33.7987E-3	-3.30259E-12	237.019E-3	-8.91220E-3
-527.764E-6	-3.25149E-12	220.767E-3	-39.9492E-3	-3.30044E-12	242.371E-3	-17.7102E-3
-532.766E-6	-3.30925E-12	228.998E-3	-32.3461E-3	-3.40735E-12	254.378E-3	-14.1582E-3
-537.769E-6	-3.36144E-12	236.603E-3	-22.6726E-3	-3.49710E-12	259.170E-3	-17.7805E-3
-542.771E-6	-3.45737E-12	243.931E-3	-21.5901E-3	-3.59734E-12	250.896E-3	-20.6176E-3
-547.774E-6	-3.54544E-12	240.114E-3	-23.2133E-3	-3.68637E-12	249.604E-3	-15.7992E-3
-552.776E-6	-3.65684E-12	230.678E-3	-23.2906E-3	-3.66199E-12	269.879E-3	-23.3098E-3
-557.779E-6	-3.63130E-12	240.105E-3	-20.3326E-3	-3.71826E-12	276.438E-3	-36.1211E-3
-562.781E-6	-3.82472E-12	254.662E-3	-15.4329E-3	-3.90059E-12	255.664E-3	-38.8079E-3
-567.784E-6	-3.96185E-12	255.868E-3	-18.6471E-3	-4.14262E-12	249.492E-3	-34.1973E-3
-572.786E-6	-4.08089E-12	259.288E-3	-30.7477E-3	-4.16910E-12	265.779E-3	-29.2992E-3
-577.789E-6	-4.15210E-12	268.440E-3	-31.5385E-3	-4.07756E-12	277.954E-3	-22.1055E-3
-582.791E-6	-4.29239E-12	274.556E-3	-15.0990E-3	-4.25504E-12	274.981E-3	-17.7130E-3
-587.794E-6	-4.30671E-12	270.242E-3	-755.302E-6	-4.44269E-12	267.124E-3	-10.6620E-3
-592.796E-6	-4.43290E-12	266.140E-3	-5.30563E-3	-4.51591E-12	260.549E-3	-9.14197E-3
-597.799E-6	-4.48840E-12	273.409E-3	-10.5100E-3	-4.56175E-12	252.825E-3	-19.2099E-3
-602.801E-6	-4.65625E-12	271.208E-3	-10.0618E-3	-4.62484E-12	251.625E-3	-18.5283E-3
-607.804E-6	-4.69217E-12	256.857E-3	-17.0801E-3	-4.65282E-12	264.226E-3	-14.3826E-3
-612.806E-6	-4.73996E-12	252.957E-3	-17.5934E-3	-4.83922E-12	274.863E-3	-15.4932E-3
-617.809E-6	-4.89484E-12	253.258E-3	-16.4891E-3	-4.94125E-12	273.808E-3	-25.0589E-3
-622.811E-6	-4.96690E-12	256.437E-3	-31.0435E-3	-5.04261E-12	270.318E-3	-32.3668E-3
-627.814E-6	-4.97953E-12	267.330E-3	-41.0445E-3	-4.99726E-12	266.428E-3	-26.4479E-3
-632.816E-6	-5.06654E-12	273.817E-3	-26.4169E-3	-5.19285E-12	267.334E-3	-17.2369E-3
-637.819E-6	-5.11559E-12	267.552E-3	-12.4392E-3	-5.22496E-12	274.808E-3	-12.7305E-3
-642.821E-6	-5.30483E-12	258.732E-3	-10.9993E-3	-5.26664E-12	277.139E-3	-19.3360E-3
-647.824E-6	-5.33002E-12	259.831E-3	-7.32707E-3	-5.38122E-12	269.645E-3	-24.8159E-3
-652.826E-6	-5.52728E-12	262.040E-3	-8.74731E-3	-5.45651E-12	262.400E-3	-22.1435E-3
-657.829E-6	-5.56979E-12	260.734E-3	-22.1063E-3	-5.56749E-12	260.220E-3	-18.4497E-3
-662.831E-6	-5.73308E-12	259.283E-3	-22.8245E-3	-5.60223E-12	254.390E-3	-16.7906E-3
-667.834E-6	-5.74986E-12	260.741E-3	-14.0694E-3	-5.66877E-12	248.147E-3	-17.7992E-3
-672.836E-6	-5.98416E-12	268.302E-3	-17.4931E-3	-5.85442E-12	245.051E-3	-13.4824E-3
-677.839E-6	-6.05159E-12	272.345E-3	-23.2298E-3	-6.10847E-12	245.407E-3	-8.86031E-3
-682.841E-6	-6.15958E-12	271.615E-3	-35.0127E-3	-6.01854E-12	248.619E-3	-21.4568E-3
-687.844E-6	-6.28336E-12	270.518E-3	-36.5945E-3	-6.16959E-12	250.036E-3	-35.7788E-3
-692.846E-6	-6.27125E-12	264.306E-3	-9.23145E-3	-6.26193E-12	248.475E-3	-29.5596E-3
-697.849E-6	-6.49534E-12	260.508E-3	15.9286E-3	-6.32057E-12	247.561E-3	-15.0338E-3
-702.851E-6	-6.44009E-12	267.689E-3	18.5026E-3	-6.48036E-12	254.766E-3	-7.79678E-3
-707.854E-6	-6.74889E-12	267.967E-3	9.71923E-3	-6.51876E-12	260.658E-3	-1.38609E-3
-712.856E-6	-6.75400E-12	256.491E-3	8.89743E-3	-6.45232E-12	249.553E-3	3.82585E-3
-717.859E-6	-6.69265E-12	254.642E-3	10.9898E-3	-6.70398E-12	235.259E-3	2.70050E-3
-722.861E-6	-6.90894E-12	254.678E-3	2.28999E-3	-6.90818E-12	231.175E-3	-403.992E-6
-727.864E-6	-7.04566E-12	249.714E-3	-6.57664E-3	-6.77513E-12	232.170E-3	2.69783E-3
-732.866E-6	-7.16873E-12	249.243E-3	-9.68385E-3	-6.72887E-12	231.904E-3	2.27958E-3
-737.869E-6	-7.12992E-12	245.422E-3	-10.4235E-3	-6.89860E-12	213.768E-3	-11.8944E-3
-742.871E-6	-7.25284E-12	238.706E-3	-4.79092E-3	-7.09814E-12	198.954E-3	-19.2211E-3
-747.874E-6	-7.37129E-12	237.821E-3	4.92065E-3	-7.16539E-12	221.069E-3	-16.1406E-3
-752.876E-6	-7.55260E-12	239.216E-3	451.721E-6	-7.08424E-12	243.561E-3	-17.5103E-3
-757.879E-6	-7.53086E-12	243.158E-3	-14.8398E-3	-7.27535E-12	232.348E-3	-22.9361E-3
-762.881E-6	-7.61225E-12	241.326E-3	-18.7186E-3	-7.46371E-12	212.554E-3	-25.2144E-3
-767.884E-6	-7.64997E-12	231.077E-3	-14.7884E-3	-7.80693E-12	207.200E-3	-21.2887E-3
-772.886E-6	-8.05299E-12	220.386E-3	-10.8918E-3	-7.60899E-12	215.939E-3	-24.6012E-3
-777.889E-6	-7.98007E-12	221.139E-3	-15.9542E-3	-7.52857E-12	220.538E-3	-37.6984E-3
-782.891E-6	-7.80996E-12	233.365E-3	-32.2000E-3	-7.74918E-12	211.529E-3	-41.5867E-3
-787.894E-6	-7.98041E-12	232.036E-3	-40.0099E-3	-8.06602E-12	206.830E-3	-34.5045E-3
-792.896E-6	-8.28512E-12	222.864E-3	-36.9863E-3	-8.17682E-12	206.483E-3	-30.3885E-3
-797.899E-6	-8.41556E-12	212.807E-3	-28.6508E-3	-7.91709E-12	200.321E-3	-35.0427E-3
-802.901E-6	-8.03327E-12	209.661E-3	-17.9110E-3	-7.80711E-12	189.584E-3	-40.2281E-3
-807.904E-6	-8.11044E-12	215.934E-3	-6.39575E-3	-8.03074E-12	181.438E-3	-31.5948E-3
-812.906E-6	-8.31961E-12	204.168E-3	5.31160E-3	-8.54154E-12	177.270E-3	-12.9268E-3
-817.909E-6	-8.45777E-12	192.035E-3	3.26430E-3	-8.32582E-12	177.037E-3	259.766E-6
-822.911E-6	-8.32108E-12	195.540E-3	-11.7777E-3	-8.01793E-12	180.823E-3	1.48982E-3
-827.914E-6	-8.28913E-12	195.683E-3	-15.0022E-3	-8.02010E-12	173.292E-3	-8.08147E-3
-832.916E-6	-8.29465E-12	187.290E-3	-4.03897E-3	-8.36613E-12	166.864E-3	-19.2196E-3
-837.919E-6	-8.38214E-12	177.031E-3	-4.58304E-3	-8.60547E-12	164.394E-3	-16.1142E-3
-842.921E-6	-8.50413E-12	173.393E-3	-12.7697E-3	-8.27234E-12	153.802E-3	-7.29922E-3
-847.924E-6	-8.49373E-12	167.958E-3	-13.3209E-3	-8.23756E-12	156.669E-3	-9.51730E-3
-852.926E-6	-8.48555E-12	162.425E-3	-24.4878E-3	-8.35401E-12	164.782E-3	-6.98313E-3
-857.929E-6	-8.64702E-12	167.876E-3	-35.4900E-3	-8.71219E-12	156.008E-3	-1.60334E-3
-862.931E-6	-8.78102E-12	168.885E-3	-27.8605E-3	-8.71492E-12	143.240E-3	-5.20787E-3
-867.934E-6	-8.63849E-12	163.867E-3	-19.1878E-3	-8.61327E-12	138.774E-3	-6.43084E-3
-872.936E-6	-8.76533E-12	169.284E-3	-13.7115E-3	-8.67257E-12	139.706E-3	-4.37214E-3
-877.939E-6	-9.05125E-12	174.265E-3	-12.4572E-3	-9.04047E-12	144.129E-3	-6.62060E-3
-882.941E-6	-8.89972E-12	175.318E-3	-14.4943E-3	-9.20873E-12	147.236E-3	-19.2000E-3
-887.944E-6	-8.88941E-12	176.597E-3	-16.2741E-3	-8.96057E-12	151.765E-3	-26.1266E-3
-892.946E-6	-9.01476E-12	165.882E-3	-21.0538E-3	-9.03037E-12	162.672E-3	-8.42680E-3
-897.949E-6	-9.04903E-12	147.837E-3	-24.0029E-3	-9.19208E-12	166.036E-3	5.89197E-3
-902.951E-6	-9.15242E-12	139.210E-3	-22.6757E-3	-9.45369E-12	160.523E-3	-5.68526E-6
-907.954E-6	-9.34073E-12	135.207E-3	-18.1535E-3	-9.39619E-12	161.691E-3	-9.55745E-3
-912.956E-6	-9.17550E-12	140.430E-3	-12.2997E-3	-9.26621E-12	170.001E-3	-19.5396E-3
-917.959E-6	-9.08660E-12	156.349E-3	-12.1071E-3	-9.25935E-12	170.027E-3	-29.7749E-3
-922.961E-6	-9.26076E-12	154.542E-3	-18.5725E-3	-9.51678E-12	163.475E-3	-37.2872E-3
-927.964E-6	-9.77250E-12	144.173E-3	-20.5983E-3	-9.86958E-12	164.270E-3	-38.6460E-3
-932.966E-6	-9.79268E-12	143.053E-3	-19.9229E-3	-9.55472E-12	166.689E-3	-32.9470E-3
-937.969E-6	-9.45641E-12	146.170E-3	-23.3815E-3	-9.36549E-12	163.866E-3	-20.3641E-3
-942.971E-6	-9.29258E-12	150.247E-3	-30.0477E-3	-9.56808E-12	159.101E-3	-4.66910E-3
-947.974E-6	-9.72670E-12	145.526E-3	-32.5542E-3	-9.63483E-12	153.266E-3	-6.09191E-3
-952.976E-6	-9.76408E-12	137.463E-3	-26.9812E-3	-9.70367E-12	146.103E-3	-13.0242E-3
-957.979E-6	-9.67200E-12	134.756E-3	-27.1686E-3	-9.66139E-12	150.661E-3	-3.75702E-3
-962.981E-6	-9.66113E-12	132.786E-3	-24.2126E-3	-9.70058E-12	166.194E-3	-1.10464E-3
-967.984E-6	-9.80137E-12	138.347E-3	-12.3950E-3	-9.67529E-12	171.144E-3	-7.62088E-3
-972.986E-6	-10.3004E-12	154.768E-3	-10.7658E-3	-9.75359E-12	166.298E-3	-3.99246E-3
-977.989E-6	-10.4437E-12	163.946E-3	-14.5088E-3	-9.94211E-12	166.219E-3	-7.61858E-3
-982.991E-6	-10.3568E-12	170.641E-3	-20.7337E-3	-9.88081E-12	166.255E-3	-23.6962E-3
-987.994E-6	-10.1927E-12	176.814E-3	-27.2234E-3	-10.0100E-12	167.413E-3	-23.7528E-3
-992.997E-6	-10.3781E-12	176.047E-3	-20.6651E-3	-10.0675E-12	177.581E-3	-11.8605E-3
-997.999E-6	-10.9884E-12	178.900E-3	-15.7853E-3	-10.1339E-12	185.102E-3	-9.69506E-3
-1.00300E-3	-10.8886E-12	178.048E-3	-13.2423E-3	-10.0398E-12	185.810E-3	-15.3114E-3
-1.00800E-3	-10.5760E-12	176.102E-3	-5.48128E-3	-10.1197E-12	189.291E-3	-12.9887E-3
-1.01301E-3	-10.5135E-12	183.306E-3	-12.3578E-3	-10.1768E-12	193.776E-3	-5.56623E-3
-1.01801E-3	-10.8503E-12	193.934E-3	-23.5732E-3	-10.3716E-12	196.857E-3	-4.26501E-3
-1.02301E-3	-11.1772E-12	204.334E-3	-21.0528E-3	-10.2376E-12	199.502E-3	-4.73503E-3
-1.02801E-3	-11.1179E-12	208.949E-3	-23.8716E-3	-10.3278E-12	202.229E-3	-14.8485E-3
-1.03302E-3	-10.8959E-12	207.933E-3	-38.4783E-3	-10.3712E-12	198.568E-3	-29.0076E-3
-1.03802E-3	-10.9776E-12	207.128E-3	-41.2151E-3	-10.4073E-12	193.811E-3	-29.6913E-3
-1.04302E-3	-11.1394E-12	211.570E-3	-32.4002E-3	-10.7322E-12	204.921E-3	-20.2190E-3
-1.04802E-3	-11.4767E-12	209.860E-3	-26.5284E-3	-10.6323E-12	226.895E-3	-12.6807E-3
-1.05303E-3	-11.3131E-12	204.014E-3	-25.2527E-3	-10.3450E-12	248.219E-3	-19.9982E-3
-1.05803E-3	-10.8838E-12	217.757E-3	-30.6311E-3	-10.6239E-12	261.270E-3	-32.9045E-3
-1.06303E-3	-11.1162E-12	238.848E-3	-31.2663E-3	-11.0919E-12	263.100E-3	-34.6395E-3
-1.06803E-3	-11.6426E-12	240.564E-3	-25.8567E-3	-10.9311E-12	265.174E-3	-27.0542E-3
-1.07304E-3	-11.7149E-12	231.216E-3	-20.5503E-3	-10.9098E-12	284.541E-3	-18.0968E-3
-1.07804E-3	-11.2188E-12	229.840E-3	-13.3873E-3	-11.0799E-12	302.318E-3	-11.2504E-3
-1.08304E-3	-11.2740E-12	242.292E-3	-19.5334E-3	-11.1883E-12	299.032E-3	-13.3239E-3
-1.08804E-3	-11.7683E-12	265.291E-3	-32.1027E-3	-11.6148E-12	303.893E-3	-20.8220E-3
-1.09305E-3	-12.2651E-12	280.326E-3	-28.2483E-3	-12.0957E-12	322.807E-3	-16.1368E-3
-1.09805E-3	-12.0253E-12	284.803E-3	-24.4452E-3	-11.6249E-12	334.485E-3	1.10824E-3
-1.10305E-3	-12.0508E-12	296.563E-3	-24.5442E-3	-11.6982E-12	335.016E-3	2.96661E-3
-1.10805E-3	-12.3233E-12	307.831E-3	-18.4696E-3	-12.2165E-12	344.343E-3	-13.3791E-3
-1.11306E-3	-12.5534E-12	306.923E-3	-28.3182E-3	-12.2326E-12	373.323E-3	-20.6303E-3
-1.11806E-3	-12.6007E-12	312.757E-3	-43.8136E-3	-12.3021E-12	400.231E-3	-13.7891E-3
-1.12306E-3	-12.4374E-12	331.326E-3	-28.6487E-3	-12.3196E-12	411.913E-3	-11.8330E-3
-1.12806E-3	-12.4909E-12	354.446E-3	566.650E-6	-12.3807E-12	414.558E-3	-23.7071E-3
-1.13307E-3	-12.6572E-12	375.422E-3	-1.76405E-3	-12.5785E-12	417.676E-3	-29.1814E-3
-1.13807E-3	-12.9425E-12	377.822E-3	-20.3790E-3	-12.8076E-12	422.281E-3	-24.1947E-3
-1.14307E-3	-12.8205E-12	369.815E-3	-20.0244E-3	-12.5244E-12	440.821E-3	-25.4257E-3
-1.14807E-3	-12.6490E-12	383.685E-3	-12.1664E-3	-12.5149E-12	466.397E-3	-28.7919E-3
-1.15308E-3	-12.7000E-12	410.720E-3	-6.84092E-3	-12.8257E-12	468.490E-3	-25.9053E-3
-1.15808E-3	-13.2385E-12	414.626E-3	-3.73546E-3	-13.2713E-12	466.241E-3	-30.1456E-3
-1.16308E-3	-13.2016E-12	411.487E-3	-5.48056E-3	-13.1501E-12	485.241E-3	-42.6625E-3
-1.16808E-3	-12.8616E-12	424.901E-3	-6.76701E-3	-13.1178E-12	510.430E-3	-40.1035E-3
-1.17309E-3	-13.2526E-12	440.001E-3	-6.18797E-3	-13.4185E-12	522.986E-3	-24.9888E-3
-1.17809E-3	-14.0268E-12	455.858E-3	-10.8960E-3	-13.7511E-12	533.322E-3	-15.3943E-3
-1.18309E-3	-13.9698E-12	477.267E-3	-13.6008E-3	-13.8532E-12	558.330E-3	-15.5829E-3
-1.18809E-3	-13.7578E-12	488.578E-3	-11.7910E-3	-13.9974E-12	584.829E-3	-14.5673E-3
-1.19310E-3	-13.9771E-12	494.606E-3	-16.7259E-3	-14.2956E-12	603.401E-3	-5.64423E-3
-1.19810E-3	-14.5920E-12	514.854E-3	-15.7070E-3	-14.7563E-12	614.418E-3	-6.58253E-3
-1.20310E-3	-14.7245E-12	544.772E-3	-9.05573E-3	-14.9104E-12	625.079E-3	-14.1158E-3
-1.20810E-3	-14.7486E-12	569.105E-3	-16.7828E-3	-15.2840E-12	636.405E-3	-9.96529E-3
-1.21311E-3	-14.9306E-12	584.414E-3	-24.1115E-3	-15.5661E-12	646.759E-3	-5.49698E-3
-1.21811E-3	-15.3160E-12	600.070E-3	-13.7473E-3	-15.7212E-12	666.714E-3	-7.73870E-3
-1.22311E-3	-15.6824E-12	610.761E-3	-11.0258E-3	-15.8103E-12	687.072E-3	-8.24519E-3
-1.22811E-3	-15.7715E-12	616.214E-3	-21.2137E-3	-16.2008E-12	698.542E-3	-9.14604E-3
-1.23312E-3	-15.9676E-12	629.550E-3	-19.2686E-3	-16.0280E-12	715.092E-3	-15.2457E-3
-1.23812E-3	-16.1768E-12	650.304E-3	-12.5433E-3	-16.1864E-12	735.382E-3	-21.1648E-3
-1.24312E-3	-16.6239E-12	677.792E-3	-19.8854E-3	-16.4995E-12	740.563E-3	-21.3580E-3
-1.24812E-3	-16.7454E-12	698.964E-3	-32.5057E-3	-16.6557E-12	738.123E-3	-12.0475E-3
-1.25313E-3	-16.8355E-12	713.387E-3	-28.7759E-3	-16.6430E-12	745.733E-3	1.24094E-3
-1.25813E-3	-17.2456E-12	726.882E-3	-15.0965E-3	-16.8964E-12	770.132E-3	-2.42354E-3
-1.26313E-3	-17.7184E-12	736.424E-3	-11.0962E-3	-17.1812E-12	796.502E-3	-17.3740E-3
-1.26813E-3	-17.6590E-12	751.963E-3	-17.7200E-3	-17.4498E-12	810.484E-3	-20.3819E-3
-1.27314E-3	-17.7205E-12	768.124E-3	-25.9218E-3	-17.7764E-12	829.892E-3	-19.5505E-3
-1.27814E-3	-18.0602E-12	778.584E-3	-22.6410E-3	-17.5892E-12	852.053E-3	-21.3340E-3
-1.28314E-3	-18.3949E-12	792.901E-3	-16.1035E-3	-18.0038E-12	865.929E-3	-17.5703E-3
-1.28814E-3	-18.6156E-12	816.995E-3	-19.1687E-3	-18.6189E-12	892.709E-3	-15.7824E-3
-1.29315E-3	-18.8674E-12	840.601E-3	-27.3880E-3	-19.1227E-12	920.256E-3	-16.2511E-3
-1.29815E-3	-19.4967E-12	847.128E-3	-34.9518E-3	-19.1959E-12	925.120E-3	-18.2492E-3
-1.30315E-3	-19.8192E-12	852.811E-3	-31.0352E-3	-19.5049E-12	932.613E-3	-30.5311E-3
-1.30815E-3	-19.9345E-12	869.767E-3	-15.5034E-3	-20.2189E-12	952.241E-3	-45.5042E-3
-1.31316E-3	-20.3860E-12	886.933E-3	-7.57987E-3	-20.5302E-12	960.777E-3	-49.6536E-3
-1.31816E-3	-20.9970E-12	915.958E-3	-15.1420E-3	-20.8207E-12	967.946E-3	-41.6692E-3
-1.32316E-3	-21.2508E-12	947.700E-3	-25.5409E-3	-20.9093E-12	983.658E-3	-31.5254E-3
-1.32816E-3	-21.4137E-12	958.000E-3	-27.2120E-3	-21.2478E-12	995.209E-3	-22.5058E-3
-1.33317E-3	-21.8456E-12	968.268E-3	-29.9895E-3	-21.7074E-12	1.00049E+0	-13.5961E-3
-1.33817E-3	-22.0508E-12	990.364E-3	-28.2731E-3	-22.0873E-12	1.01218E+0	-12.0391E-3
-1.34317E-3	-22.5534E-12	996.581E-3	-18.4120E-3	-22.1816E-12	1.03010E+0	-11.7992E-3
-1.34817E-3	-22.5067E-12	999.493E-3	-15.4620E-3	-22.2009E-12	1.04227E+0	-9.15827E-3
-1.35318E-3	-22.7446E-12	1.01322E+0	-10.7138E-3	-22.7437E-12	1.05317E+0	-9.29745E-3
-1.35818E-3	-23.0612E-12	1.02019E+0	-10.1448E-3	-23.1330E-12	1.06298E+0	-9.04428E-3
-1.36318E-3	-23.5048E-12	1.03124E+0	-24.6417E-3	-23.3202E-12	1.07497E+0	-16.0928E-3
-1.36818E-3	-23.4493E-12	1.05148E+0	-26.9935E-3	-23.3560E-12	1.08975E+0	-28.8135E-3
-1.37319E-3	-23.9025E-12	1.05643E+0	-10.0496E-3	-24.1431E-12	1.10233E+0	-30.0606E-3
-1.37819E-3	-24.4542E-12	1.04734E+0	-7.00548E-3	-24.3410E-12	1.11534E+0	-24.4608E-3
-1.38319E-3	-24.8713E-12	1.05414E+0	-14.5861E-3	-24.7138E-12	1.12578E+0	-20.9164E-3
-1.38819E-3	-24.7935E-12	1.06851E+0	-14.4778E-3	-25.4462E-12	1.13874E+0	-12.8919E-3
-1.39320E-3	-25.4342E-12	1.07504E+0	-24.8170E-3	-25.8392E-12	1.14849E+0	1.03836E-3
-1.39820E-3	-26.0577E-12	1.08385E+0	-35.3490E-3	-26.1143E-12	1.14743E+0	867.170E-6
-1.40320E-3	-26.5500E-12	1.09663E+0	-32.5061E-3	-26.7689E-12	1.15167E+0	-11.9701E-3
-1.40820E-3	-26.9778E-12	1.10720E+0	-32.7081E-3	-27.4844E-12	1.15832E+0	-18.1562E-3
-1.41321E-3	-27.3199E-12	1.11343E+0	-31.6687E-3	-27.7313E-12	1.17059E+0	-18.6154E-3
-1.41821E-3	-27.7351E-12	1.13300E+0	-25.2557E-3	-28.2565E-12	1.19536E+0	-10.2193E-3
-1.42321E-3	-28.6719E-12	1.16090E+0	-28.9697E-3	-28.8314E-12	1.19974E+0	-479.283E-6
-1.42821E-3	-29.3992E-12	1.17150E+0	-30.8495E-3	-29.2597E-12	1.18541E+0	-858.825E-6
-1.43322E-3	-29.3459E-12	1.17022E+0	-16.2114E-3	-29.4984E-12	1.17694E+0	41.7216E-6
-1.43822E-3	-29.4695E-12	1.17564E+0	-11.8113E-3	-29.6952E-12	1.17761E+0	-418.849E-6
-1.44322E-3	-29.8446E-12	1.18665E+0	-21.6135E-3	-30.1490E-12	1.19311E+0	-7.29003E-3
-1.44822E-3	-30.1930E-12	1.19071E+0	-16.9380E-3	-30.7539E-12	1.20177E+0	-8.58567E-3
-1.45323E-3	-30.5751E-12	1.18154E+0	-3.18642E-3	-30.8764E-12	1.19446E+0	-1.86095E-3
-1.45823E-3	-30.5210E-12	1.16981E+0	-10.2898E-3	-31.0175E-12	1.19588E+0	-10.1898E-3
-1.46323E-3	-30.7592E-12	1.17425E+0	-19.9928E-3	-31.5003E-12	1.20134E+0	-29.3738E-3
-1.46823E-3	-31.2909E-12	1.18555E+0	-13.9468E-3	-31.9939E-12	1.19768E+0	-31.8762E-3
-1.47324E-3	-31.7059E-12	1.18449E+0	-10.7205E-3	-32.0642E-12	1.18907E+0	-23.2141E-3
-1.47824E-3	-31.5963E-12	1.17713E+0	-10.9090E-3	-32.1699E-12	1.17610E+0	-16.4662E-3
-1.48324E-3	-32.0236E-12	1.18038E+0	-16.0282E-3	-32.8746E-12	1.17107E+0	-15.7892E-3
-1.48824E-3	-32.9120E-12	1.18980E+0	-22.0343E-3	-33.3713E-12	1.18792E+0	-19.3557E-3
-1.49325E-3	-33.1371E-12	1.19397E+0	-24.1990E-3	-33.8228E-12	1.20443E+0	-24.5515E-3
-1.49825E-3	-33.7683E-12	1.19975E+0	-31.4393E-3	-33.9492E-12	1.19884E+0	-30.1436E-3
-1.50325E-3	-34.3017E-12	1.20364E+0	-31.7467E-3	-34.5668E-12	1.19541E+0	-27.5946E-3
-1.50825E-3	-35.0193E-12	1.19698E+0	-23.8658E-3	-35.2802E-12	1.20565E+0	-21.1876E-3
-1.51326E-3	-35.7057E-12	1.18859E+0	-26.4353E-3	-35.9488E-12	1.21452E+0	-19.7072E-3
-1.51826E-3	-36.3245E-12	1.18448E+0	-28.8757E-3	-36.1063E-12	1.21371E+0	-16.4918E-3
-1.52326E-3	-36.5600E-12	1.19082E+0	-24.4188E-3	-36.5771E-12	1.20134E+0	-12.6972E-3
-1.52826E-3	-37.2757E-12	1.20457E+0	-21.9766E-3	-36.8701E-12	1.18354E+0	-16.8893E-3
-1.53327E-3	-37.9820E-12	1.21282E+0	-20.1344E-3	-37.2814E-12	1.17072E+0	-31.0724E-3
-1.53827E-3	-37.9083E-12	1.21782E+0	-13.8640E-3	-38.0238E-12	1.16271E+0	-42.2013E-3
-1.54327E-3	-37.9899E-12	1.21753E+0	-9.40218E-3	-38.2502E-12	1.15932E+0	-37.0445E-3
-1.54827E-3	-38.3513E-12	1.20699E+0	-15.3867E-3	-38.2035E-12	1.16671E+0	-25.4108E-3
-1.55328E-3	-38.6859E-12	1.19575E+0	-16.5177E-3	-38.1801E-12	1.16279E+0	-25.3206E-3
-1.55828E-3	-38.7163E-12	1.18359E+0	-15.2190E-3	-38.6086E-12	1.14677E+0	-28.6270E-3
-1.56328E-3	-38.6492E-12	1.16604E+0	-21.2621E-3	-38.8551E-12	1.13597E+0	-26.3608E-3
-1.56828E-3	-39.0831E-12	1.15934E+0	-20.0148E-3	-39.1622E-12	1.12126E+0	-22.9309E-3
-1.57329E-3	-39.4588E-12	1.14811E+0	-21.5794E-3	-39.3641E-12	1.11146E+0	-18.2657E-3
-1.57829E-3	-39.8347E-12	1.12536E+0	-24.7626E-3	-39.1348E-12	1.12155E+0	-18.2944E-3
-1.58329E-3	-39.7649E-12	1.13024E+0	-21.1513E-3	-39.5842E-12	1.11777E+0	-14.7418E-3
-1.58829E-3	-40.1131E-12	1.14235E+0	-19.5642E-3	-40.3357E-12	1.09278E+0	-9.93704E-3
-1.59330E-3	-40.8071E-12	1.12952E+0	-18.1071E-3	-40.3817E-12	1.08456E+0	-13.9954E-3
-1.59830E-3	-41.2623E-12	1.11348E+0	-15.2668E-3	-40.3891E-12	1.08324E+0	-26.3830E-3
-1.60330E-3	-41.5902E-12	1.10463E+0	-11.5093E-3	-41.1909E-12	1.08122E+0	-22.8712E-3
-1.60830E-3	-42.1633E-12	1.10660E+0	-10.1515E-3	-41.8615E-12	1.09142E+0	-840.184E-6
-1.61331E-3	-42.7116E-12	1.11711E+0	-15.2339E-3	-42.2945E-12	1.09347E+0	-1.46224E-3
-1.61831E-3	-43.1426E-12	1.11497E+0	-21.4933E-3	-42.8377E-12	1.08673E+0	-9.98529E-3
-1.62331E-3	-43.8816E-12	1.10990E+0	-15.5844E-3	-43.4407E-12	1.09186E+0	-2.09909E-3
-1.62831E-3	-44.2189E-12	1.11035E+0	-8.31058E-3	-43.8540E-12	1.09925E+0	-9.05552E-3
-1.63332E-3	-44.3472E-12	1.10753E+0	-11.1217E-3	-44.4340E-12	1.09299E+0	-23.4048E-3
-1.63832E-3	-44.9251E-12	1.11094E+0	-10.1793E-3	-44.9339E-12	1.08255E+0	-11.8816E-3
-1.64332E-3	-45.6111E-12	1.10990E+0	-10.1445E-3	-44.9725E-12	1.07411E+0	-2.31777E-3
-1.64832E-3	-45.6376E-12	1.10152E+0	-22.3077E-3	-45.3461E-12	1.06236E+0	-9.23655E-3
-1.65333E-3	-45.4505E-12	1.08955E+0	-36.0878E-3	-45.8602E-12	1.05249E+0	-12.1393E-3
-1.65833E-3	-45.6311E-12	1.07728E+0	-35.4410E-3	-46.0698E-12	1.04039E+0	-15.0947E-3
-1.66333E-3	-46.3147E-12	1.07631E+0	-24.0668E-3	-46.1866E-12	1.02517E+0	-22.6474E-3
-1.66833E-3	-46.4901E-12	1.07093E+0	-15.2210E-3	-46.3618E-12	1.01972E+0	-14.2173E-3
-1.67334E-3	-46.4957E-12	1.06182E+0	-5.91380E-3	-46.3509E-12	1.02218E+0	2.82847E-3
-1.67834E-3	-46.6956E-12	1.05914E+0	2.15826E-3	-46.5955E-12	1.01410E+0	3.70088E-3
-1.68334E-3	-47.2644E-12	1.04756E+0	-5.46826E-3	-47.2207E-12	998.404E-3	1.85143E-3
-1.68834E-3	-47.6039E-12	1.03177E+0	-26.6553E-3	-47.1530E-12	1.00340E+0	-1.96029E-3
-1.69335E-3	-47.7881E-12	1.02398E+0	-35.4854E-3	-47.3469E-12	1.01290E+0	-13.0233E-3
-1.69835E-3	-48.0000E-12	1.01957E+0	-25.3828E-3	-48.0538E-12	1.01406E+0	-15.6931E-3
-1.70335E-3	-48.6004E-12	1.01875E+0	-21.9260E-3	-48.7789E-12	1.01888E+0	-14.4707E-3
-1.70835E-3	-49.4228E-12	1.02182E+0	-15.8606E-3	-49.5860E-12	1.01756E+0	-21.1197E-3
-1.71336E-3	-49.8344E-12	1.01409E+0	-894.191E-6	-49.8475E-12	1.01507E+0	-24.3013E-3
-1.71836E-3	-50.0348E-12	997.603E-3	3.11964E-3	-50.6478E-12	1.02096E+0	-21.2230E-3
-1.72336E-3	-50.8640E-12	994.674E-3	1.80777E-3	-51.4227E-12	1.02567E+0	-31.4044E-3
-1.72836E-3	-51.5048E-12	1.00293E+0	-862.898E-6	-52.0011E-12	1.01905E+0	-51.2041E-3
-1.73337E-3	-51.9865E-12	1.00916E+0	-4.48165E-3	-52.5341E-12	1.01568E+0	-48.0852E-3
-1.73837E-3	-52.2505E-12	1.00534E+0	-6.08002E-3	-52.8476E-12	1.01750E+0	-28.7879E-3
-1.74337E-3	-52.7644E-12	996.380E-3	-1.38579E-3	-53.2992E-12	1.00982E+0	-24.1453E-3
-1.74837E-3	-52.8832E-12	999.822E-3	3.97670E-3	-53.4265E-12	1.00500E+0	-19.7034E-3
-1.75338E-3	-53.3083E-12	1.00820E+0	-8.35120E-3	-54.3166E-12	1.00083E+0	-16.0405E-3
-1.75838E-3	-54.0168E-12	1.01591E+0	-32.7768E-3	-54.5245E-12	974.896E-3	-17.7470E-3
-1.76338E-3	-54.0018E-12	1.01209E+0	-45.8900E-3	-54.5539E-12	951.324E-3	-12.7543E-3
-1.76838E-3	-53.9900E-12	984.151E-3	-35.4910E-3	-54.2746E-12	953.403E-3	-12.8506E-3
-1.77339E-3	-54.4293E-12	959.056E-3	-12.2768E-3	-54.5647E-12	950.840E-3	-24.1796E-3
-1.77839E-3	-54.6171E-12	952.746E-3	-4.56015E-3	-54.7058E-12	940.202E-3	-34.9750E-3
-1.78339E-3	-54.9269E-12	958.723E-3	-17.2631E-3	-54.8297E-12	945.702E-3	-29.3569E-3
-1.78839E-3	-54.8657E-12	955.201E-3	-25.4443E-3	-54.9112E-12	950.359E-3	-17.0681E-3
-1.79340E-3	-55.1105E-12	940.935E-3	-21.1177E-3	-54.9348E-12	941.260E-3	-16.0901E-3
-1.79840E-3	-55.4483E-12	939.343E-3	-10.7381E-3	-55.5893E-12	938.331E-3	-12.6995E-3
-1.80340E-3	-55.6949E-12	945.045E-3	-876.884E-6	-55.8991E-12	938.912E-3	1.96505E-3
-1.80840E-3	-55.5437E-12	935.311E-3	-3.06948E-3	-55.9213E-12	933.190E-3	6.51900E-3
-1.81341E-3	-56.3486E-12	912.270E-3	-13.3836E-3	-56.5507E-12	931.385E-3	6.44151E-3
-1.81841E-3	-56.8736E-12	897.853E-3	-13.5860E-3	-57.0932E-12	929.814E-3	6.52335E-3
-1.82341E-3	-57.1615E-12	899.546E-3	-14.8556E-3	-57.1660E-12	925.435E-3	-4.87477E-3
-1.82841E-3	-57.5207E-12	910.556E-3	-19.9287E-3	-57.7243E-12	933.522E-3	-14.6789E-3
-1.83342E-3	-58.1723E-12	924.670E-3	-16.6780E-3	-58.2060E-12	932.528E-3	-6.99833E-3
-1.83842E-3	-58.6855E-12	930.337E-3	-16.7450E-3	-58.3454E-12	909.847E-3	7.37473E-3
-1.84342E-3	-59.2397E-12	924.806E-3	-9.16807E-3	-58.6767E-12	892.951E-3	5.89551E-3
-1.84842E-3	-59.4909E-12	918.509E-3	-5.57437E-3	-58.8191E-12	888.839E-3	-1.28633E-3
-1.85343E-3	-59.5562E-12	911.917E-3	-19.0212E-3	-59.2138E-12	895.242E-3	-2.04691E-3
-1.85843E-3	-60.1258E-12	905.806E-3	-24.4817E-3	-59.4507E-12	896.471E-3	-3.16686E-3
-1.86343E-3	-60.4620E-12	906.563E-3	-19.1306E-3	-59.4899E-12	881.498E-3	-6.67452E-3
-1.86843E-3	-60.2926E-12	911.547E-3	-10.5868E-3	-59.1468E-12	867.518E-3	-8.84075E-3
-1.87344E-3	-60.0875E-12	903.920E-3	-6.01718E-3	-59.6933E-12	864.162E-3	-11.3229E-3
-1.87844E-3	-60.4571E-12	892.923E-3	-3.58081E-3	-59.6596E-12	867.256E-3	-20.6745E-3
-1.88344E-3	-60.1341E-12	893.229E-3	-6.26528E-3	-59.5333E-12	864.370E-3	-19.5130E-3
-1.88844E-3	-59.7851E-12	885.770E-3	-17.4959E-3	-59.5501E-12	861.108E-3	-10.7305E-3
-1.89345E-3	-60.2683E-12	876.549E-3	-26.9947E-3	-59.7385E-12	855.647E-3	-10.5749E-3
-1.89845E-3	-59.9991E-12	872.940E-3	-22.8267E-3	-59.8419E-12	841.322E-3	-13.0418E-3
-1.90345E-3	-60.3963E-12	859.090E-3	-9.40053E-3	-60.4915E-12	839.019E-3	-19.6165E-3
-1.90845E-3	-61.0235E-12	846.799E-3	-3.03933E-3	-60.9054E-12	849.075E-3	-28.1141E-3
-1.91346E-3	-61.2199E-12	849.969E-3	-3.56532E-3	-60.8493E-12	846.690E-3	-26.1603E-3
-1.91846E-3	-61.4384E-12	851.936E-3	-12.8678E-3	-61.4394E-12	837.710E-3	-20.1036E-3
-1.92346E-3	-62.3167E-12	843.632E-3	-21.6747E-3	-62.4278E-12	843.774E-3	-20.3760E-3
-1.92846E-3	-62.5313E-12	839.620E-3	-19.8744E-3	-63.0290E-12	852.954E-3	-18.6498E-3
-1.93347E-3	-63.0888E-12	849.980E-3	-16.1870E-3	-63.3656E-12	854.629E-3	-16.3885E-3
-1.93847E-3	-63.8085E-12	863.654E-3	-12.5631E-3	-63.6759E-12	857.134E-3	-22.7831E-3
-1.94347E-3	-64.0377E-12	857.952E-3	-16.2230E-3	-64.2481E-12	854.421E-3	-24.9300E-3
-1.94847E-3	-64.3309E-12	847.786E-3	-22.0005E-3	-64.7155E-12	846.550E-3	-16.7266E-3
-1.95348E-3	-64.7912E-12	858.206E-3	-12.0977E-3	-65.4827E-12	847.756E-3	-22.1836E-3
-1.95848E-3	-65.4705E-12	863.492E-3	-11.0402E-3	-65.7203E-12	856.026E-3	-36.8572E-3
-1.96348E-3	-65.1681E-12	860.160E-3	-24.3879E-3	-65.7455E-12	859.966E-3	-38.4823E-3
-1.96848E-3	-65.1263E-12	869.038E-3	-31.1876E-3	-66.0628E-12	845.852E-3	-29.7105E-3
-1.97349E-3	-65.3640E-12	868.542E-3	-23.6387E-3	-66.6780E-12	821.710E-3	-19.6617E-3
-1.97849E-3	-65.5308E-12	853.401E-3	-10.5464E-3	-66.3349E-12	805.964E-3	-14.2499E-3
-1.98349E-3	-65.0184E-12	849.878E-3	-10.4900E-3	-66.2707E-12	805.086E-3	-15.1733E-3
-1.98849E-3	-65.2196E-12	848.053E-3	-12.7561E-3	-66.5443E-12	810.230E-3	-20.8639E-3
-1.99350E-3	-65.6040E-12	829.618E-3	-4.60558E-3	-66.7158E-12	817.271E-3	-20.9594E-3
-1.99850E-3	-65.6031E-12	814.212E-3	5.46660E-3	-66.6748E-12	824.922E-3	-13.6028E-3
-2.00350E-3	-65.5197E-12	806.910E-3	-1.34250E-3	-66.4594E-12	810.962E-3	-16.3528E-3
-2.00850E-3	-66.0148E-12	801.615E-3	-20.1208E-3	-67.0723E-12	791.254E-3	-18.4057E-3
-2.01351E-3	-66.9803E-12	805.485E-3	-27.5360E-3	-67.6311E-12	796.221E-3	-8.08766E-3
-2.01851E-3	-67.1550E-12	812.570E-3	-25.1262E-3	-68.0092E-12	806.547E-3	-10.0594E-3
-2.02351E-3	-67.9277E-12	814.132E-3	-27.5481E-3	-68.2408E-12	810.565E-3	-23.4363E-3
-2.02851E-3	-69.0596E-12	812.103E-3	-31.7247E-3	-69.0788E-12	819.354E-3	-13.3200E-3
-2.03352E-3	-69.4022E-12	809.290E-3	-23.1369E-3	-69.4804E-12	822.577E-3	7.51951E-3
-2.03852E-3	-70.0027E-12	802.371E-3	-3.34270E-3	-70.2774E-12	816.583E-3	12.7276E-3
-2.04352E-3	-70.7958E-12	798.165E-3	5.60243E-3	-70.8701E-12	817.416E-3	796.421E-6
-2.04852E-3	-71.3128E-12	801.577E-3	-5.55504E-3	-71.4708E-12	824.803E-3	-18.4233E-3
-2.05353E-3	-71.3651E-12	804.708E-3	-19.4601E-3	-71.7530E-12	834.381E-3	-29.2152E-3
-2.05853E-3	-72.0372E-12	809.292E-3	-13.5631E-3	-71.9012E-12	845.608E-3	-29.6786E-3
-2.06353E-3	-72.1604E-12	824.906E-3	-2.84708E-3	-72.3464E-12	842.473E-3	-24.3190E-3
-2.06853E-3	-72.0729E-12	843.616E-3	-18.5815E-3	-73.0650E-12	823.311E-3	-24.5688E-3
-2.07354E-3	-72.2186E-12	847.545E-3	-35.4918E-3	-72.6523E-12	812.967E-3	-25.5587E-3
-2.07854E-3	-72.4319E-12	835.401E-3	-32.5698E-3	-72.6782E-12	802.980E-3	-11.5150E-3
-2.08354E-3	-72.3842E-12	822.206E-3	-22.8459E-3	-72.7309E-12	789.740E-3	-5.99888E-3
-2.08854E-3	-72.1546E-12	819.992E-3	-15.7670E-3	-72.6864E-12	799.147E-3	-13.4632E-3
-2.09355E-3	-72.1405E-12	824.560E-3	-11.6232E-3	-71.8989E-12	800.773E-3	-14.9514E-3
-2.09855E-3	-72.1384E-12	819.627E-3	-7.42462E-3	-72.2729E-12	778.706E-3	-16.0574E-3
-2.10355E-3	-72.4942E-12	804.230E-3	-9.85781E-3	-72.1197E-12	768.074E-3	-16.0643E-3
-2.10855E-3	-72.8530E-12	809.270E-3	-15.1924E-3	-72.3083E-12	769.676E-3	-8.54981E-3
-2.11356E-3	-73.0797E-12	816.657E-3	-20.4782E-3	-72.4348E-12	759.511E-3	-1.13812E-3
-2.11856E-3	-73.5507E-12	803.231E-3	-25.4679E-3	-72.7789E-12	753.848E-3	2.98807E-3
-2.12356E-3	-73.9089E-12	797.057E-3	-14.9738E-3	-72.9018E-12	775.366E-3	-12.5260E-3
-2.12856E-3	-74.2733E-12	795.789E-3	-375.157E-6	-73.4178E-12	783.951E-3	-30.5020E-3
-2.13357E-3	-74.6765E-12	797.593E-3	-2.04878E-3	-73.8700E-12	769.747E-3	-18.7428E-3
-2.13857E-3	-75.1913E-12	797.298E-3	4.32134E-3	-74.3459E-12	778.758E-3	-11.4154E-3
-2.14357E-3	-75.3352E-12	788.835E-3	12.8023E-3	-74.6104E-12	795.160E-3	-27.3158E-3
-2.14857E-3	-75.4771E-12	794.247E-3	-4.71443E-3	-74.9915E-12	793.456E-3	-36.2137E-3
-2.15358E-3	-76.2588E-12	808.689E-3	-20.0936E-3	-75.7777E-12	780.021E-3	-25.8969E-3
-2.15858E-3	-76.8098E-12	815.732E-3	-17.9167E-3	-76.4376E-12	767.792E-3	-9.89491E-3
-2.16358E-3	-76.6130E-12	812.562E-3	-15.9980E-3	-76.6273E-12	769.334E-3	-6.58271E-3
-2.16858E-3	-76.9375E-12	798.499E-3	-21.9172E-3	-76.8438E-12	768.750E-3	-9.75325E-3
-2.17359E-3	-77.5853E-12	800.817E-3	-24.3552E-3	-76.9857E-12	758.249E-3	2.66099E-3
-2.17859E-3	-77.2726E-12	818.022E-3	-20.2474E-3	-77.1001E-12	748.640E-3	197.997E-6
-2.18359E-3	-77.0715E-12	815.060E-3	-17.2053E-3	-77.1808E-12	744.941E-3	-14.4531E-3
-2.18859E-3	-77.0043E-12	794.469E-3	-15.8169E-3	-76.8546E-12	754.931E-3	-11.1402E-3
-2.19360E-3	-77.1479E-12	774.270E-3	-21.0514E-3	-76.8750E-12	758.766E-3	-8.84414E-3
-2.19860E-3	-76.9564E-12	766.305E-3	-32.0916E-3	-76.9438E-12	742.242E-3	-4.26453E-3
-2.20360E-3	-76.1677E-12	764.611E-3	-37.7791E-3	-76.8447E-12	734.187E-3	6.20724E-3
-2.20860E-3	-76.7225E-12	760.267E-3	-33.0227E-3	-76.5855E-12	740.503E-3	7.22958E-3
-2.21361E-3	-76.7883E-12	752.569E-3	-22.2849E-3	-76.8150E-12	754.132E-3	1.36093E-3
-2.21861E-3	-76.5100E-12	742.843E-3	-14.6763E-3	-77.1420E-12	754.351E-3	-5.25385E-3
-2.22361E-3	-76.5634E-12	744.627E-3	-7.07020E-3	-77.2784E-12	747.429E-3	-7.50131E-3
-2.22861E-3	-77.0345E-12	749.665E-3	5.48199E-3	-77.8530E-12	752.502E-3	-6.74040E-3
-2.23362E-3	-77.8490E-12	734.039E-3	6.22101E-3	-78.2872E-12	758.278E-3	-10.2432E-3
-2.23862E-3	-77.9184E-12	716.675E-3	-8.50630E-3	-78.9117E-12	763.496E-3	-21.1455E-3
-2.24362E-3	-78.5190E-12	721.229E-3	-22.1772E-3	-79.4253E-12	760.562E-3	-28.7060E-3
-2.24862E-3	-79.2441E-12	722.367E-3	-37.2977E-3	-80.0925E-12	760.578E-3	-22.5291E-3
-2.25363E-3	-79.9473E-12	719.185E-3	-54.1464E-3	-80.5940E-12	763.974E-3	-6.98157E-3
-2.25863E-3	-80.4003E-12	733.725E-3	-42.6552E-3	-81.3171E-12	760.584E-3	1.70562E-3
-2.26363E-3	-81.0339E-12	755.196E-3	-12.0824E-3	-82.0015E-12	754.074E-3	3.45361E-3
-2.26863E-3	-82.0008E-12	761.792E-3	7.44452E-3	-82.3091E-12	741.005E-3	1.44579E-3
-2.27364E-3	-82.2259E-12	753.142E-3	10.6694E-3	-82.3620E-12	732.914E-3	-12.5966E-3
-2.27864E-3	-82.5352E-12	756.166E-3	-3.21075E-3	-82.6763E-12	739.836E-3	-17.4829E-3
-2.28364E-3	-82.8445E-12	763.182E-3	-8.46838E-3	-83.0565E-12	754.290E-3	-12.4833E-3
-2.28864E-3	-82.7659E-12	752.693E-3	-17.1255E-3	-82.9088E-12	759.087E-3	-20.2085E-3
-2.29365E-3	-82.7527E-12	743.127E-3	-33.0200E-3	-83.0912E-12	749.954E-3	-26.1416E-3
-2.29865E-3	-82.7074E-12	746.049E-3	-14.6192E-3	-82.9971E-12	741.719E-3	-10.0431E-3
-2.30365E-3	-82.5443E-12	748.309E-3	9.79987E-3	-82.9162E-12	739.305E-3	7.40095E-3
-2.30865E-3	-82.3449E-12	736.374E-3	15.0394E-3	-83.1047E-12	736.519E-3	7.00840E-3
-2.31366E-3	-82.5013E-12	724.800E-3	12.6075E-3	-83.1385E-12	740.045E-3	11.4531E-3
-2.31866E-3	-82.6502E-12	729.504E-3	-5.21308E-3	-83.3148E-12	745.945E-3	18.4381E-3
-2.32366E-3	-82.9716E-12	726.486E-3	-33.3429E-3	-83.7000E-12	741.260E-3	1.41215E-3
-2.32866E-3	-82.9089E-12	710.958E-3	-41.1784E-3	-83.7383E-12	725.102E-3	-25.2691E-3
-2.33367E-3	-83.7573E-12	713.354E-3	-22.0528E-3	-84.1581E-12	717.670E-3	-28.4482E-3
-2.33867E-3	-84.4963E-12	734.724E-3	3.16880E-3	-84.6894E-12	727.219E-3	-13.6338E-3
-2.34367E-3	-84.9480E-12	750.641E-3	4.87005E-3	-85.2391E-12	742.898E-3	-4.83393E-3
-2.34867E-3	-85.3221E-12	748.226E-3	-9.74234E-3	-85.8565E-12	770.174E-3	-875.680E-6
-2.35368E-3	-86.2607E-12	743.562E-3	-15.2960E-3	-86.8032E-12	788.245E-3	-6.39607E-3
-2.35868E-3	-87.2342E-12	752.939E-3	-23.3159E-3	-87.0826E-12	779.204E-3	-11.6121E-3
-2.36368E-3	-87.6440E-12	760.683E-3	-25.6810E-3	-87.7172E-12	762.763E-3	-12.8243E-3
-2.36868E-3	-88.2592E-12	755.661E-3	-8.85866E-3	-88.3494E-12	754.564E-3	-17.3603E-3
-2.37369E-3	-88.6823E-12	754.364E-3	1.53806E-3	-88.3479E-12	750.564E-3	-10.8384E-3
-2.37869E-3	-89.1471E-12	762.003E-3	1.20723E-3	-88.6843E-12	739.125E-3	-3.64911E-3
-2.38369E-3	-89.5623E-12	758.818E-3	7.22447E-3	-88.5395E-12	727.401E-3	-2.83247E-3
-2.38869E-3	-89.2426E-12	749.095E-3	2.05862E-3	-88.4324E-12	723.231E-3	-8.22593E-3
-2.39370E-3	-89.4500E-12	741.809E-3	-18.0502E-3	-88.7463E-12	721.191E-3	-2.69441E-3
-2.39870E-3	-89.0156E-12	735.927E-3	-20.2246E-3	-88.2480E-12	718.289E-3	12.4381E-3
-2.40370E-3	-89.1206E-12	744.461E-3	-8.19574E-3	-88.0435E-12	714.097E-3	7.16807E-3
-2.40870E-3	-88.3588E-12	757.631E-3	-7.66043E-3	-87.9408E-12	714.093E-3	-12.0030E-3
-2.41371E-3	-88.5454E-12	766.528E-3	-7.53949E-3	-87.6195E-12	718.673E-3	-22.3349E-3
-2.41871E-3	-87.6631E-12	767.338E-3	-4.71642E-3	-87.6168E-12	724.421E-3	-11.8744E-3
-2.42371E-3	-87.8087E-12	738.554E-3	-14.0492E-3	-87.5961E-12	726.839E-3	-6.01684E-3
-2.42871E-3	-87.7839E-12	715.706E-3	-21.1989E-3	-87.5124E-12	713.198E-3	-26.4135E-3
-2.43372E-3	-87.9805E-12	719.298E-3	-28.0615E-3	-87.4935E-12	699.967E-3	-37.2640E-3
-2.43872E-3	-88.2891E-12	723.071E-3	-34.7838E-3	-88.0355E-12	701.821E-3	-26.3869E-3
-2.44372E-3	-88.5077E-12	727.140E-3	-25.5116E-3	-87.9035E-12	717.096E-3	-19.9640E-3
-2.44872E-3	-89.4498E-12	728.077E-3	-24.8092E-3	-88.5006E-12	733.499E-3	-14.9743E-3
-2.45373E-3	-89.5153E-12	716.962E-3	-28.4855E-3	-88.9643E-12	727.085E-3	-14.7332E-3
-2.45873E-3	-89.9415E-12	713.659E-3	-23.5806E-3	-89.5863E-12	710.082E-3	-13.0344E-3
-2.46373E-3	-90.7221E-12	722.005E-3	-31.0658E-3	-90.3052E-12	708.205E-3	-5.06920E-3
-2.46873E-3	-91.3776E-12	718.668E-3	-42.9026E-3	-91.1911E-12	724.420E-3	-6.96012E-3
-2.47374E-3	-91.6115E-12	721.020E-3	-32.4887E-3	-91.7464E-12	746.209E-3	-12.9810E-3
-2.47874E-3	-91.9683E-12	727.264E-3	-9.50123E-3	-92.0102E-12	753.336E-3	-10.4381E-3
-2.48374E-3	-92.5062E-12	729.696E-3	-6.27844E-3	-92.8216E-12	752.352E-3	1.20621E-3
-2.48874E-3	-92.3556E-12	738.095E-3	-20.8925E-3	-92.9126E-12	745.902E-3	1.56652E-3
-2.49375E-3	-92.5450E-12	738.735E-3	-24.7719E-3	-92.9967E-12	725.633E-3	-17.8625E-3
-2.49875E-3	-92.1529E-12	734.414E-3	-31.2888E-3	-92.8015E-12	714.479E-3	-20.9538E-3
-2.50375E-3	-92.0357E-12	728.561E-3	-35.9027E-3	-92.9562E-12	710.184E-3	-11.1723E-3
-2.50875E-3	-91.7371E-12	724.311E-3	-12.3374E-3	-92.5367E-12	708.188E-3	-13.4178E-3
-2.51376E-3	-91.2860E-12	729.377E-3	1.96362E-3	-92.8034E-12	718.491E-3	-26.8473E-3
-2.51876E-3	-91.1226E-12	725.154E-3	-15.2278E-3	-92.4665E-12	722.257E-3	-44.3588E-3
-2.52376E-3	-91.7923E-12	702.225E-3	-46.6908E-3	-92.1445E-12	719.643E-3	-32.3994E-3
-2.52876E-3	-91.0060E-12	693.911E-3	-61.9887E-3	-92.2750E-12	715.636E-3	-4.50069E-3
-2.53377E-3	-91.4346E-12	703.371E-3	-51.4467E-3	-92.4613E-12	708.647E-3	8.41928E-3
-2.53877E-3	-92.1906E-12	700.344E-3	-37.7943E-3	-92.8363E-12	704.426E-3	13.7017E-3
-2.54377E-3	-92.3298E-12	703.707E-3	-27.9147E-3	-93.0847E-12	702.426E-3	11.6348E-3
-2.54877E-3	-92.1411E-12	713.091E-3	-27.5194E-3	-93.8368E-12	702.700E-3	3.17152E-3
-2.55378E-3	-93.6404E-12	697.478E-3	-40.2212E-3	-94.5558E-12	708.667E-3	-6.94009E-3
-2.55878E-3	-94.5194E-12	677.894E-3	-55.3903E-3	-95.5100E-12	716.587E-3	-16.2526E-3
-2.56378E-3	-94.8114E-12	696.476E-3	-48.4747E-3	-96.6760E-12	731.049E-3	-14.1848E-3
-2.56878E-3	-95.4246E-12	716.736E-3	-23.2779E-3	-97.5655E-12	746.551E-3	-7.67918E-3
-2.57379E-3	-96.7531E-12	704.150E-3	-11.6249E-3	-98.2257E-12	746.345E-3	-20.7108E-3
-2.57879E-3	-97.2336E-12	704.712E-3	-5.70174E-3	-98.9614E-12	746.947E-3	-26.2441E-3
-2.58379E-3	-97.6165E-12	712.861E-3	6.56682E-3	-99.1723E-12	743.971E-3	-5.26590E-3
-2.58879E-3	-98.3907E-12	712.206E-3	4.33582E-3	-99.5425E-12	724.981E-3	9.60218E-3
-2.59380E-3	-98.6407E-12	731.369E-3	-14.0074E-3	-99.8528E-12	719.074E-3	2.76478E-3
-2.59880E-3	-98.5087E-12	737.741E-3	-31.2599E-3	-99.2069E-12	732.505E-3	-11.8141E-3
-2.60380E-3	-98.3075E-12	718.498E-3	-34.8208E-3	-99.5980E-12	734.537E-3	-17.9038E-3
-2.60880E-3	-99.2035E-12	712.401E-3	-14.5645E-3	-99.3301E-12	716.026E-3	-17.1432E-3
-2.61381E-3	-98.3893E-12	707.924E-3	-1.59972E-3	-99.0573E-12	696.002E-3	-18.6727E-3
-2.61881E-3	-98.4366E-12	711.459E-3	-19.5691E-3	-98.4872E-12	686.283E-3	-24.9058E-3
-2.62381E-3	-98.5716E-12	729.139E-3	-31.4826E-3	-97.8855E-12	693.507E-3	-31.2297E-3
-2.62881E-3	-98.7794E-12	723.223E-3	-13.6973E-3	-98.3583E-12	700.845E-3	-22.9106E-3
-2.63382E-3	-98.5762E-12	705.938E-3	-7.08612E-3	-97.9233E-12	685.662E-3	-9.82192E-3
-2.63882E-3	-98.4155E-12	707.753E-3	-28.4916E-3	-97.7367E-12	675.954E-3	-10.5510E-3
-2.64382E-3	-99.0730E-12	711.412E-3	-38.7671E-3	-97.9923E-12	681.841E-3	-9.53656E-3
-2.64882E-3	-99.5292E-12	710.512E-3	-23.4259E-3	-98.6677E-12	687.734E-3	-2.60278E-3
-2.65383E-3	-99.6277E-12	719.388E-3	-9.15071E-3	-99.2011E-12	696.673E-3	-2.25235E-3
-2.65883E-3	-100.270E-12	714.099E-3	-9.10351E-3	-99.2263E-12	691.750E-3	-10.4833E-3
-2.66383E-3	-101.486E-12	698.628E-3	-4.17003E-3	-99.6339E-12	679.640E-3	-23.2201E-3
-2.66883E-3	-101.931E-12	717.210E-3	3.04297E-3	-100.666E-12	694.653E-3	-21.4915E-3
-2.67384E-3	-102.193E-12	750.194E-3	-3.44919E-3	-100.899E-12	723.879E-3	-10.0164E-3
-2.67884E-3	-102.902E-12	755.474E-3	-9.02041E-3	-101.603E-12	727.798E-3	-7.48088E-3
-2.68384E-3	-104.159E-12	741.304E-3	-5.31357E-3	-101.834E-12	714.459E-3	-6.13533E-3
-2.68884E-3	-104.265E-12	728.239E-3	1.55084E-3	-102.485E-12	711.310E-3	-10.2599E-3
-2.69385E-3	-104.492E-12	719.969E-3	-6.16296E-3	-102.534E-12	699.637E-3	-22.5756E-3
-2.69885E-3	-104.991E-12	715.386E-3	-20.8460E-3	-103.136E-12	682.215E-3	-31.9359E-3
-2.70385E-3	-104.667E-12	712.376E-3	-22.9512E-3	-103.040E-12	690.647E-3	-31.9608E-3
-2.70885E-3	-104.726E-12	715.594E-3	-20.6799E-3	-102.637E-12	702.578E-3	-33.3883E-3
-2.71386E-3	-104.233E-12	715.146E-3	-15.5163E-3	-102.727E-12	701.472E-3	-38.7523E-3
-2.71886E-3	-104.299E-12	708.649E-3	-12.1464E-3	-102.309E-12	694.664E-3	-33.1617E-3
-2.72386E-3	-103.603E-12	704.384E-3	-6.17589E-3	-102.078E-12	684.338E-3	-34.9518E-3
-2.72886E-3	-103.334E-12	691.572E-3	4.64011E-3	-101.449E-12	689.656E-3	-42.9723E-3
-2.73387E-3	-103.305E-12	679.826E-3	-869.507E-6	-101.444E-12	702.026E-3	-38.0310E-3
-2.73887E-3	-102.891E-12	680.727E-3	-26.4176E-3	-101.560E-12	700.711E-3	-25.0708E-3
-2.74387E-3	-102.446E-12	680.325E-3	-49.2207E-3	-101.421E-12	681.687E-3	-3.37652E-3
-2.74887E-3	-102.753E-12	681.096E-3	-45.9820E-3	-101.512E-12	668.565E-3	17.5055E-3
-2.75388E-3	-103.218E-12	683.154E-3	-14.4467E-3	-102.087E-12	678.907E-3	18.5597E-3
-2.75888E-3	-103.041E-12	684.332E-3	12.0878E-3	-102.458E-12	680.221E-3	8.28941E-3
-2.76388E-3	-103.375E-12	693.310E-3	13.4550E-3	-103.411E-12	677.301E-3	-1.80094E-3
-2.76888E-3	-104.010E-12	689.494E-3	2.07756E-3	-104.575E-12	679.106E-3	-14.4677E-3
-2.77389E-3	-104.879E-12	677.624E-3	3.54726E-3	-105.353E-12	665.089E-3	-27.0700E-3
-2.77889E-3	-105.549E-12	675.598E-3	15.2167E-3	-105.981E-12	659.656E-3	-27.8351E-3
-2.78389E-3	-105.806E-12	678.649E-3	10.0214E-3	-106.990E-12	678.276E-3	-19.1866E-3
-2.78889E-3	-106.518E-12	693.707E-3	-3.62302E-3	-107.783E-12	692.486E-3	-15.8349E-3
-2.79390E-3	-107.234E-12	704.815E-3	-12.9401E-3	-108.664E-12	699.950E-3	-7.78401E-3
-2.79890E-3	-107.771E-12	697.836E-3	-9.50321E-3	-109.032E-12	715.258E-3	3.11904E-3
-2.80390E-3	-107.194E-12	691.430E-3	-839.826E-6	-109.200E-12	717.437E-3	-7.82023E-3
-2.80890E-3	-107.229E-12	691.461E-3	-5.17461E-3	-109.355E-12	707.574E-3	-23.7056E-3
-2.81391E-3	-107.294E-12	696.565E-3	-13.5747E-3	-109.744E-12	715.722E-3	-17.9943E-3
-2.81891E-3	-106.694E-12	700.205E-3	-7.66923E-3	-109.135E-12	723.441E-3	-9.05023E-3
-2.82391E-3	-106.448E-12	695.972E-3	4.97637E-3	-108.850E-12	710.682E-3	-971.331E-6
-2.82891E-3	-106.372E-12	683.052E-3	-1.72596E-3	-108.920E-12	706.294E-3	5.40787E-3
-2.83392E-3	-106.326E-12	674.961E-3	-17.3772E-3	-108.098E-12	710.330E-3	-4.71298E-3
-2.83892E-3	-106.440E-12	688.057E-3	-26.3243E-3	-107.992E-12	703.887E-3	-11.6373E-3
-2.84392E-3	-106.449E-12	688.629E-3	-34.6918E-3	-108.451E-12	697.056E-3	-18.9554E-3
-2.84892E-3	-106.308E-12	664.570E-3	-43.6402E-3	-107.902E-12	691.627E-3	-39.2318E-3
-2.85393E-3	-106.291E-12	664.292E-3	-51.0201E-3	-108.167E-12	677.084E-3	-43.1468E-3
-2.85893E-3	-107.280E-12	693.043E-3	-43.1297E-3	-109.015E-12	674.095E-3	-26.3485E-3
-2.86393E-3	-107.718E-12	718.467E-3	-26.5405E-3	-109.569E-12	696.200E-3	-11.1956E-3
-2.86893E-3	-108.513E-12	725.569E-3	-24.1075E-3	-109.776E-12	704.994E-3	1.47993E-3
-2.87394E-3	-109.566E-12	713.540E-3	-18.5022E-3	-110.471E-12	694.604E-3	2.12895E-3
-2.87894E-3	-110.643E-12	695.337E-3	-1.30512E-3	-111.241E-12	688.260E-3	-3.03922E-3
-2.88394E-3	-111.494E-12	688.427E-3	2.47815E-3	-111.854E-12	691.204E-3	6.33637E-3
-2.88894E-3	-111.830E-12	691.926E-3	9.03617E-3	-112.674E-12	695.025E-3	12.6774E-3
-2.89395E-3	-113.057E-12	689.526E-3	20.3018E-3	-112.965E-12	693.017E-3	6.79048E-3
-2.89895E-3	-113.053E-12	691.556E-3	17.5431E-3	-113.651E-12	699.235E-3	-8.95685E-3
-2.90395E-3	-113.849E-12	694.133E-3	12.2026E-3	-113.781E-12	719.384E-3	-22.8501E-3
-2.90895E-3	-114.153E-12	685.423E-3	-403.486E-6	-114.568E-12	734.926E-3	-16.9094E-3
-2.91396E-3	-114.372E-12	684.724E-3	-20.8238E-3	-114.576E-12	720.859E-3	384.469E-6
-2.91896E-3	-113.827E-12	686.434E-3	-26.4499E-3	-114.464E-12	689.228E-3	13.9794E-3
-2.92396E-3	-113.708E-12	695.181E-3	-15.5653E-3	-113.988E-12	677.782E-3	10.7373E-3
-2.92896E-3	-113.632E-12	715.064E-3	-8.35295E-3	-114.237E-12	700.269E-3	-14.0991E-3
-2.93397E-3	-113.702E-12	715.290E-3	-7.53699E-3	-114.045E-12	715.262E-3	-33.0414E-3
-2.93897E-3	-112.700E-12	698.856E-3	-9.71393E-3	-113.159E-12	698.975E-3	-29.1701E-3
-2.94397E-3	-112.398E-12	694.943E-3	-6.36719E-3	-112.315E-12	669.431E-3	-28.6304E-3
-2.94897E-3	-112.562E-12	701.995E-3	8.18408E-3	-112.832E-12	644.617E-3	-45.7815E-3
-2.95398E-3	-112.971E-12	701.037E-3	17.6551E-3	-112.628E-12	652.654E-3	-52.8928E-3
-2.95898E-3	-112.916E-12	686.986E-3	17.5082E-3	-112.478E-12	681.099E-3	-28.7793E-3
-2.96398E-3	-113.282E-12	669.944E-3	799.072E-6	-112.293E-12	696.768E-3	-8.70059E-3
-2.96898E-3	-114.378E-12	674.799E-3	-17.5498E-3	-113.011E-12	698.001E-3	-16.3781E-3
-2.97399E-3	-114.842E-12	700.976E-3	-11.4929E-3	-113.686E-12	695.436E-3	-21.1763E-3
-2.97899E-3	-115.922E-12	713.001E-3	3.18085E-3	-114.626E-12	694.606E-3	-10.1089E-3
-2.98399E-3	-116.341E-12	687.560E-3	2.77189E-3	-114.774E-12	695.063E-3	-7.11296E-3
-2.98899E-3	-117.048E-12	669.749E-3	-18.1230E-3	-115.553E-12	699.018E-3	-6.18624E-3
-2.99400E-3	-118.124E-12	693.228E-3	-30.3477E-3	-116.265E-12	699.691E-3	15.5324E-3
-2.99900E-3	-118.397E-12	710.984E-3	-21.7979E-3	-117.416E-12	700.716E-3	20.2435E-3
-3.00400E-3	-118.725E-12	713.427E-3	-6.02902E-3	-117.708E-12	709.333E-3	-9.16759E-3
-3.00900E-3	-118.772E-12	724.871E-3	10.3949E-3	-117.623E-12	720.870E-3	-37.7866E-3
-3.01401E-3	-118.547E-12	729.142E-3	9.52104E-3	-117.746E-12	716.848E-3	-40.7275E-3
-3.01901E-3	-117.959E-12	719.865E-3	-1.53381E-3	-118.115E-12	684.813E-3	-29.2333E-3
-3.02401E-3	-117.881E-12	716.957E-3	-3.16846E-3	-117.640E-12	663.034E-3	-17.5927E-3
-3.02901E-3	-117.428E-12	703.920E-3	1.11461E-3	-117.428E-12	666.226E-3	-2.33247E-3
-3.03402E-3	-116.891E-12	677.996E-3	-9.45573E-3	-117.165E-12	675.264E-3	354.414E-6
-3.03902E-3	-116.369E-12	680.076E-3	-28.5253E-3	-117.124E-12	679.992E-3	-13.8622E-3
-3.04402E-3	-116.282E-12	686.119E-3	-20.7420E-3	-116.308E-12	675.758E-3	-13.8177E-3
-3.04902E-3	-116.045E-12	658.213E-3	-7.34876E-3	-116.108E-12	667.722E-3	-2.46926E-3
-3.05403E-3	-115.589E-12	654.341E-3	-17.7584E-3	-116.063E-12	665.918E-3	708.043E-6
-3.05903E-3	-115.167E-12	685.162E-3	-27.4713E-3	-116.123E-12	659.283E-3	8.08107E-3
-3.06403E-3	-115.847E-12	685.798E-3	-29.9650E-3	-115.942E-12	647.371E-3	18.0804E-3
-3.06903E-3	-116.301E-12	660.210E-3	-24.1806E-3	-116.633E-12	655.078E-3	9.22866E-3
-3.07404E-3	-116.255E-12	643.703E-3	-13.3934E-3	-117.520E-12	679.778E-3	-16.6247E-3
-3.07904E-3	-117.246E-12	640.009E-3	-10.7790E-3	-118.046E-12	694.893E-3	-20.5021E-3
-3.08404E-3	-118.030E-12	654.280E-3	-16.3778E-3	-118.724E-12	697.210E-3	-6.87483E-3
-3.08904E-3	-118.569E-12	678.722E-3	-22.7995E-3	-119.502E-12	690.159E-3	-7.17797E-3
-3.09405E-3	-119.268E-12	679.757E-3	-19.1044E-3	-120.094E-12	668.878E-3	-8.26731E-3
-3.09905E-3	-119.827E-12	670.780E-3	-6.63869E-3	-120.995E-12	670.899E-3	-312.962E-6
-3.10405E-3	-120.513E-12	674.886E-3	1.49611E-3	-121.427E-12	693.829E-3	13.2932E-3
-3.10905E-3	-121.285E-12	677.855E-3	-8.90735E-3	-121.857E-12	693.412E-3	27.9760E-3
-3.11406E-3	-121.337E-12	680.090E-3	-21.5424E-3	-122.334E-12	692.743E-3	27.7845E-3
-3.11906E-3	-121.611E-12	685.186E-3	-5.47716E-3	-122.406E-12	693.076E-3	-5.36688E-3
-3.12406E-3	-121.545E-12	686.255E-3	10.2501E-3	-122.644E-12	678.499E-3	-37.0722E-3
-3.12906E-3	-121.658E-12	691.899E-3	-3.87068E-3	-123.008E-12	685.439E-3	-25.6236E-3
-3.13407E-3	-121.698E-12	703.172E-3	-9.77476E-3	-122.398E-12	698.889E-3	-18.2087E-3
-3.13907E-3	-121.459E-12	694.876E-3	-1.38413E-3	-122.411E-12	697.150E-3	-30.1717E-3
-3.14407E-3	-121.100E-12	685.922E-3	-12.3246E-3	-122.066E-12	688.345E-3	-26.9790E-3
-3.14907E-3	-120.822E-12	695.354E-3	-39.7755E-3	-121.883E-12	664.101E-3	-9.23948E-3
-3.15408E-3	-121.473E-12	682.601E-3	-56.6574E-3	-121.941E-12	637.112E-3	2.48451E-3
-3.15908E-3	-121.009E-12	651.662E-3	-44.0743E-3	-122.356E-12	633.659E-3	-1.69541E-3
-3.16408E-3	-121.081E-12	638.656E-3	-3.78203E-3	-121.830E-12	651.366E-3	-5.25364E-3
-3.16908E-3	-121.437E-12	637.338E-3	4.67568E-3	-122.600E-12	672.300E-3	-8.34494E-3
-3.17409E-3	-122.162E-12	641.360E-3	-40.7039E-3	-122.998E-12	690.104E-3	-19.5180E-3
-3.17909E-3	-122.587E-12	652.614E-3	-53.2793E-3	-123.800E-12	704.902E-3	-22.2717E-3
-3.18409E-3	-123.635E-12	659.895E-3	-23.8646E-3	-123.864E-12	705.667E-3	-13.3541E-3
-3.18909E-3	-124.336E-12	668.472E-3	-15.6229E-3	-124.943E-12	692.385E-3	-7.03576E-3
-3.19410E-3	-125.648E-12	682.518E-3	-10.9582E-3	-125.337E-12	688.373E-3	-4.01645E-3
-3.19910E-3	-126.107E-12	684.486E-3	-2.08234E-3	-125.754E-12	693.983E-3	-16.6462E-3
-3.20410E-3	-127.678E-12	666.400E-3	-9.61087E-3	-126.304E-12	687.617E-3	-27.7068E-3
-3.20910E-3	-128.432E-12	658.800E-3	-11.0492E-3	-126.887E-12	675.051E-3	-16.5787E-3
-3.21411E-3	-128.888E-12	675.395E-3	-6.03864E-3	-127.232E-12	678.922E-3	-5.56192E-3
-3.21911E-3	-129.236E-12	677.157E-3	-14.7566E-3	-127.319E-12	685.917E-3	-12.2768E-3
-3.22411E-3	-130.237E-12	682.317E-3	-7.53273E-3	-127.292E-12	688.672E-3	-21.4281E-3
-3.22911E-3	-129.912E-12	712.980E-3	3.23885E-3	-127.363E-12	692.924E-3	-18.1461E-3
-3.23412E-3	-129.048E-12	721.566E-3	-16.1973E-3	-127.337E-12	682.635E-3	-22.3708E-3
-3.23912E-3	-128.913E-12	709.506E-3	-30.9819E-3	-126.933E-12	669.544E-3	-23.6516E-3
-3.24412E-3	-128.579E-12	715.339E-3	-29.6896E-3	-126.455E-12	672.942E-3	-13.2289E-3
-3.24912E-3	-127.384E-12	721.707E-3	-21.0563E-3	-126.840E-12	679.946E-3	-7.48697E-3
-3.25413E-3	-126.594E-12	708.999E-3	1.94142E-3	-126.403E-12	681.490E-3	-16.0590E-3
-3.25913E-3	-126.134E-12	685.654E-3	9.72430E-3	-126.523E-12	684.480E-3	-48.3626E-3
-3.26413E-3	-125.870E-12	659.193E-3	-21.0009E-3	-126.826E-12	686.157E-3	-63.7717E-3
-3.26913E-3	-125.125E-12	657.735E-3	-40.7153E-3	-126.575E-12	688.347E-3	-40.1741E-3
-3.27414E-3	-125.394E-12	675.574E-3	-22.0574E-3	-126.393E-12	690.033E-3	-28.7935E-3
-3.27914E-3	-126.245E-12	670.892E-3	3.38961E-3	-126.638E-12	674.272E-3	-34.0429E-3
-3.28414E-3	-126.098E-12	656.543E-3	2.19330E-3	-127.556E-12	656.788E-3	-26.1865E-3
-3.28914E-3	-127.134E-12	646.636E-3	-13.9124E-3	-127.553E-12	664.445E-3	-27.0270E-3
-3.29415E-3	-128.463E-12	633.844E-3	-16.5019E-3	-128.205E-12	672.289E-3	-41.5023E-3
-3.29915E-3	-128.715E-12	650.980E-3	-17.5132E-3	-128.980E-12	649.739E-3	-39.8285E-3
-3.30415E-3	-129.936E-12	681.627E-3	-21.3929E-3	-129.602E-12	635.478E-3	-26.8338E-3
-3.30915E-3	-131.012E-12	674.980E-3	-29.0870E-3	-130.263E-12	663.224E-3	-22.0273E-3
-3.31416E-3	-131.511E-12	669.832E-3	-35.0593E-3	-130.928E-12	689.190E-3	-12.6119E-3
-3.31916E-3	-131.060E-12	685.170E-3	-15.1982E-3	-131.280E-12	692.611E-3	9.03877E-3
-3.32416E-3	-131.195E-12	690.338E-3	5.34688E-3	-132.263E-12	693.990E-3	15.0814E-3
-3.32916E-3	-131.451E-12	688.014E-3	-8.69795E-3	-132.628E-12	683.137E-3	3.22228E-3
-3.33417E-3	-131.172E-12	698.652E-3	-25.8824E-3	-132.532E-12	672.915E-3	-20.0464E-3
-3.33917E-3	-130.917E-12	706.673E-3	-31.3546E-3	-132.550E-12	693.380E-3	-42.4274E-3
-3.34417E-3	-130.162E-12	688.541E-3	-34.6168E-3	-132.770E-12	711.802E-3	-40.7001E-3
-3.34917E-3	-130.107E-12	679.142E-3	-25.8994E-3	-132.485E-12	699.763E-3	-25.2304E-3
-3.35418E-3	-129.614E-12	683.748E-3	-13.9018E-3	-132.402E-12	676.098E-3	-24.9677E-3
-3.35918E-3	-129.642E-12	679.923E-3	-20.6820E-3	-131.992E-12	662.960E-3	-36.8623E-3
-3.36418E-3	-128.274E-12	667.433E-3	-40.1544E-3	-131.649E-12	664.176E-3	-28.6552E-3
-3.36918E-3	-128.671E-12	654.809E-3	-50.0236E-3	-131.830E-12	665.821E-3	-14.1244E-3
-3.37419E-3	-128.867E-12	651.741E-3	-48.7360E-3	-132.223E-12	656.034E-3	-13.0608E-3
-3.37919E-3	-128.770E-12	662.773E-3	-40.5724E-3	-131.416E-12	646.614E-3	-10.0978E-3
-3.38419E-3	-129.762E-12	661.503E-3	-31.0380E-3	-132.041E-12	657.451E-3	-11.1449E-3
-3.38919E-3	-130.800E-12	642.603E-3	-25.3254E-3	-132.924E-12	668.412E-3	-12.5713E-3
-3.39420E-3	-131.685E-12	651.300E-3	-28.2379E-3	-132.797E-12	679.380E-3	-16.4243E-3
-3.39920E-3	-132.183E-12	669.425E-3	-22.0595E-3	-133.601E-12	682.896E-3	-29.1428E-3
-3.40420E-3	-134.321E-12	657.614E-3	-2.22667E-3	-135.116E-12	663.032E-3	-37.8719E-3
-3.40920E-3	-135.354E-12	652.908E-3	-1.59222E-3	-135.746E-12	660.849E-3	-32.7264E-3
-3.41421E-3	-135.291E-12	675.478E-3	-7.94443E-3	-135.681E-12	674.746E-3	-23.5294E-3
-3.41921E-3	-136.386E-12	684.782E-3	-844.090E-6	-136.820E-12	674.571E-3	-26.6507E-3
-3.42421E-3	-136.932E-12	674.345E-3	1.57361E-3	-137.311E-12	676.407E-3	-28.7969E-3
-3.42921E-3	-137.003E-12	658.993E-3	901.332E-6	-137.736E-12	681.148E-3	-18.5845E-3
-3.43422E-3	-137.406E-12	651.365E-3	-11.9393E-3	-137.419E-12	671.640E-3	-11.8030E-3
-3.43922E-3	-138.598E-12	671.112E-3	-28.6600E-3	-137.724E-12	667.181E-3	-14.1255E-3
-3.44422E-3	-137.712E-12	683.844E-3	-14.2558E-3	-137.234E-12	676.531E-3	-17.1678E-3
-3.44922E-3	-137.799E-12	674.419E-3	5.66969E-3	-136.934E-12	668.349E-3	-26.3150E-3
-3.45423E-3	-137.445E-12	678.569E-3	1.10328E-3	-137.097E-12	637.751E-3	-33.0136E-3
-3.45923E-3	-137.386E-12	679.614E-3	-16.4693E-3	-136.384E-12	615.292E-3	-20.8294E-3
-3.46423E-3	-137.164E-12	661.464E-3	-31.3090E-3	-135.152E-12	626.865E-3	-18.7587E-3
-3.46923E-3	-137.251E-12	650.825E-3	-31.7501E-3	-135.343E-12	653.972E-3	-27.3245E-3
-3.47424E-3	-137.077E-12	655.899E-3	-19.0475E-3	-135.234E-12	666.098E-3	-29.5515E-3
-3.47924E-3	-137.419E-12	664.840E-3	-18.2249E-3	-134.539E-12	659.595E-3	-17.9987E-3
-3.48424E-3	-137.609E-12	667.678E-3	-28.5498E-3	-134.835E-12	645.223E-3	2.98176E-3
-3.48924E-3	-137.831E-12	679.097E-3	-26.0524E-3	-135.728E-12	638.933E-3	-4.52308E-3
-3.49425E-3	-138.732E-12	701.278E-3	-16.4483E-3	-135.798E-12	651.464E-3	-32.0226E-3
-3.49925E-3	-139.602E-12	700.423E-3	-13.8183E-3	-136.337E-12	680.434E-3	-34.1361E-3
-3.50425E-3	-139.795E-12	676.889E-3	-15.8684E-3	-137.815E-12	685.182E-3	-17.7433E-3
-3.50925E-3	-139.992E-12	653.635E-3	-14.0688E-3	-138.952E-12	661.584E-3	-21.4100E-3
-3.51426E-3	-140.737E-12	640.315E-3	2.59066E-3	-138.603E-12	660.078E-3	-35.7314E-3
-3.51926E-3	-141.616E-12	664.054E-3	9.88598E-3	-140.049E-12	674.858E-3	-39.8405E-3
-3.52426E-3	-141.556E-12	695.151E-3	5.69035E-3	-140.290E-12	675.272E-3	-55.9476E-3
-3.52926E-3	-141.640E-12	678.002E-3	6.96551E-3	-139.924E-12	665.477E-3	-69.5454E-3
-3.53427E-3	-141.959E-12	655.396E-3	2.91991E-3	-141.090E-12	642.896E-3	-51.2636E-3
-3.53927E-3	-142.134E-12	651.951E-3	-19.8625E-3	-141.159E-12	640.317E-3	-21.8708E-3
-3.54427E-3	-142.183E-12	632.256E-3	-61.3874E-3	-140.745E-12	675.075E-3	-1.34537E-3
-3.54927E-3	-142.203E-12	648.249E-3	-73.5152E-3	-140.358E-12	698.529E-3	9.60393E-3
-3.55428E-3	-142.090E-12	695.689E-3	-44.4612E-3	-140.551E-12	695.856E-3	13.9164E-3
-3.55928E-3	-141.338E-12	697.164E-3	-25.7947E-3	-139.047E-12	683.469E-3	6.91466E-3
-3.56428E-3	-140.334E-12	690.818E-3	-25.3509E-3	-139.504E-12	682.796E-3	-8.10399E-3
-3.56928E-3	-140.921E-12	686.288E-3	-20.8057E-3	-139.619E-12	685.035E-3	-17.0691E-3
-3.57429E-3	-140.486E-12	646.855E-3	-13.3515E-3	-139.308E-12	670.562E-3	-16.9716E-3
-3.57929E-3	-139.775E-12	612.548E-3	-11.4432E-3	-138.730E-12	655.051E-3	-19.0172E-3
-3.58429E-3	-139.587E-12	621.010E-3	-8.56704E-3	-139.787E-12	646.131E-3	-22.6869E-3
-3.58929E-3	-139.876E-12	648.443E-3	1.70563E-3	-140.098E-12	641.472E-3	-13.4177E-3
-3.59430E-3	-139.017E-12	675.083E-3	-4.58364E-3	-140.329E-12	644.241E-3	4.48038E-3
-3.59930E-3	-138.890E-12	692.449E-3	-24.6244E-3	-140.786E-12	653.183E-3	6.45221E-3
-3.60430E-3	-139.868E-12	677.270E-3	-17.6102E-3	-142.156E-12	659.141E-3	5.32980E-3
-3.60930E-3	-140.201E-12	645.162E-3	-1.21898E-3	-142.324E-12	671.358E-3	-5.27342E-3
-3.61431E-3	-140.890E-12	623.901E-3	-10.9220E-3	-143.816E-12	695.212E-3	-31.0837E-3
-3.61931E-3	-141.213E-12	623.026E-3	-28.5838E-3	-144.126E-12	707.347E-3	-38.2813E-3
-3.62431E-3	-142.728E-12	636.792E-3	-33.9706E-3	-145.417E-12	691.870E-3	-37.8710E-3
-3.62931E-3	-143.019E-12	650.222E-3	-34.5750E-3	-145.977E-12	660.823E-3	-30.4073E-3
-3.63432E-3	-143.963E-12	657.610E-3	-48.1530E-3	-147.006E-12	648.774E-3	-16.5560E-3
-3.63932E-3	-144.939E-12	665.237E-3	-47.2553E-3	-146.616E-12	652.199E-3	-18.8147E-3
-3.64432E-3	-145.163E-12	687.400E-3	2.59839E-3	-147.378E-12	658.742E-3	-17.7155E-3
-3.64932E-3	-145.461E-12	706.655E-3	52.0858E-3	-147.249E-12	666.372E-3	-2.52703E-3
-3.65433E-3	-145.610E-12	698.221E-3	43.2059E-3	-147.569E-12	659.243E-3	16.6013E-3
-3.65933E-3	-145.666E-12	676.644E-3	10.0056E-3	-148.016E-12	652.405E-3	26.9407E-3
-3.66433E-3	-144.456E-12	670.552E-3	-4.39833E-3	-147.558E-12	668.951E-3	7.78754E-3
-3.66933E-3	-144.374E-12	672.769E-3	-20.6736E-3	-147.504E-12	692.046E-3	-26.0272E-3
-3.67434E-3	-143.922E-12	672.489E-3	-43.2660E-3	-146.898E-12	707.714E-3	-44.5175E-3
-3.67934E-3	-143.967E-12	669.314E-3	-45.0115E-3	-147.623E-12	712.213E-3	-41.0120E-3
-3.68434E-3	-143.687E-12	663.831E-3	-8.03625E-3	-147.132E-12	704.721E-3	-33.2737E-3
-3.68934E-3	-143.763E-12	663.024E-3	27.7681E-3	-146.879E-12	686.592E-3	-38.8526E-3
-3.69435E-3	-143.589E-12	659.664E-3	13.4997E-3	-146.903E-12	666.715E-3	-45.5644E-3
-3.69935E-3	-144.924E-12	643.384E-3	-19.1773E-3	-147.220E-12	665.942E-3	-34.6803E-3
-3.70435E-3	-145.748E-12	641.958E-3	-34.7701E-3	-147.271E-12	665.611E-3	-19.1280E-3
-3.70935E-3	-146.280E-12	653.139E-3	-36.3737E-3	-147.194E-12	653.749E-3	-21.2714E-3
-3.71436E-3	-148.204E-12	639.306E-3	-32.6856E-3	-148.257E-12	644.734E-3	-22.1046E-3
-3.71936E-3	-148.993E-12	629.176E-3	-36.7913E-3	-148.429E-12	653.093E-3	2.40929E-3
-3.72436E-3	-150.217E-12	639.459E-3	-32.2403E-3	-148.867E-12	665.130E-3	24.5250E-3
-3.72936E-3	-151.152E-12	653.910E-3	-13.4654E-3	-149.977E-12	677.124E-3	23.6699E-3
-3.73437E-3	-152.193E-12	663.012E-3	-20.2063E-3	-150.297E-12	689.268E-3	24.1288E-3
-3.73937E-3	-152.329E-12	654.771E-3	-42.4319E-3	-150.267E-12	687.608E-3	19.1438E-3
-3.74437E-3	-152.591E-12	648.001E-3	-31.7397E-3	-150.919E-12	678.539E-3	-18.0872E-3
-3.74937E-3	-153.673E-12	670.024E-3	-16.9220E-3	-151.852E-12	665.194E-3	-55.9178E-3
-3.75438E-3	-153.124E-12	703.034E-3	-33.5247E-3	-151.748E-12	660.937E-3	-61.2912E-3
-3.75938E-3	-153.246E-12	714.968E-3	-37.9890E-3	-150.948E-12	660.229E-3	-48.7927E-3
-3.76438E-3	-152.584E-12	692.126E-3	-32.2633E-3	-151.252E-12	646.774E-3	-26.9388E-3
-3.76938E-3	-152.176E-12	655.519E-3	-29.6639E-3	-151.372E-12	628.640E-3	-9.15823E-3
-3.77439E-3	-151.772E-12	642.472E-3	-6.94230E-3	-150.645E-12	626.108E-3	-10.2496E-3
-3.77939E-3	-151.594E-12	655.731E-3	8.01637E-3	-149.017E-12	634.779E-3	-18.3150E-3
-3.78439E-3	-151.382E-12	664.461E-3	1.85860E-3	-149.073E-12	618.454E-3	-15.9786E-3
-3.78939E-3	-150.616E-12	651.401E-3	-5.96024E-3	-148.314E-12	593.897E-3	-4.92254E-3
-3.79440E-3	-151.230E-12	646.680E-3	-6.99891E-3	-148.277E-12	612.082E-3	-845.903E-6
-3.79940E-3	-151.607E-12	650.149E-3	4.13486E-3	-147.828E-12	631.586E-3	-8.71493E-3
-3.80440E-3	-152.389E-12	644.247E-3	-1.76154E-3	-147.630E-12	629.894E-3	-19.2360E-3
-3.80940E-3	-152.830E-12	659.394E-3	-16.2322E-3	-147.800E-12	641.344E-3	-16.6732E-3
-3.81441E-3	-153.363E-12	666.705E-3	2.83032E-3	-148.921E-12	652.971E-3	-10.5817E-3
-3.81941E-3	-154.408E-12	642.923E-3	15.4202E-3	-149.434E-12	656.699E-3	-18.5356E-3
-3.82441E-3	-155.245E-12	655.086E-3	1.61522E-3	-150.066E-12	649.569E-3	-29.3825E-3
-3.82941E-3	-155.564E-12	680.169E-3	3.53559E-3	-151.152E-12	650.228E-3	-34.0948E-3
-3.83442E-3	-155.749E-12	667.194E-3	7.15195E-3	-151.857E-12	658.918E-3	-26.4481E-3
-3.83942E-3	-155.898E-12	654.441E-3	-4.73421E-3	-153.066E-12	655.734E-3	-23.0596E-3
-3.84442E-3	-156.190E-12	660.039E-3	-2.49542E-3	-153.872E-12	663.625E-3	-36.4481E-3
-3.84942E-3	-156.551E-12	668.573E-3	12.4993E-3	-153.951E-12	659.439E-3	-38.2880E-3
-3.85443E-3	-155.735E-12	682.403E-3	10.3827E-3	-154.560E-12	634.406E-3	-3.76281E-3
-3.85943E-3	-155.166E-12	683.301E-3	-22.0260E-3	-155.356E-12	638.051E-3	26.7321E-3
-3.86443E-3	-154.980E-12	670.007E-3	-41.7294E-3	-155.412E-12	654.388E-3	18.7079E-3
-3.86943E-3	-153.716E-12	664.839E-3	-27.7729E-3	-154.506E-12	645.249E-3	5.57079E-3
-3.87444E-3	-153.302E-12	667.705E-3	-33.9193E-3	-154.339E-12	623.993E-3	-866.909E-6
-3.87944E-3	-153.211E-12	658.877E-3	-45.0127E-3	-154.441E-12	629.825E-3	-8.67890E-3
-3.88444E-3	-152.701E-12	635.581E-3	-25.8005E-3	-153.520E-12	647.357E-3	-4.65064E-3
-3.88944E-3	-152.816E-12	650.150E-3	-22.8232E-3	-153.324E-12	635.857E-3	-1.40136E-3
-3.89445E-3	-152.713E-12	668.333E-3	-42.6369E-3	-153.390E-12	623.304E-3	-1.51108E-3
-3.89945E-3	-153.025E-12	630.774E-3	-48.4620E-3	-153.515E-12	632.427E-3	2.71411E-3
-3.90445E-3	-152.721E-12	616.477E-3	-35.7762E-3	-153.468E-12	649.029E-3	-8.42378E-3
-3.90945E-3	-153.264E-12	636.509E-3	-12.8697E-3	-153.728E-12	663.464E-3	-27.4081E-3
-3.91446E-3	-153.837E-12	633.336E-3	1.15853E-3	-154.963E-12	662.241E-3	-37.8275E-3
-3.91946E-3	-154.287E-12	641.649E-3	-17.7667E-3	-155.937E-12	656.671E-3	-36.2855E-3
-3.92446E-3	-153.869E-12	665.178E-3	-31.9760E-3	-156.233E-12	668.392E-3	-30.8680E-3
-3.92946E-3	-155.551E-12	673.503E-3	-27.6171E-3	-158.346E-12	692.110E-3	-19.6091E-3
-3.93447E-3	-156.407E-12	671.664E-3	-36.3808E-3	-159.666E-12	696.285E-3	-4.32172E-3
-3.93947E-3	-156.384E-12	657.009E-3	-37.6028E-3	-160.003E-12	674.312E-3	-11.4070E-3
-3.94447E-3	-156.955E-12	641.047E-3	-30.5864E-3	-161.163E-12	657.896E-3	-25.6835E-3
-3.94947E-3	-158.069E-12	644.947E-3	-24.5629E-3	-163.284E-12	645.094E-3	-22.7191E-3
-3.95448E-3	-158.345E-12	659.727E-3	-25.0982E-3	-162.906E-12	641.992E-3	-16.6834E-3
-3.95948E-3	-158.623E-12	673.988E-3	-36.2097E-3	-162.726E-12	645.386E-3	-17.1878E-3
-3.96448E-3	-158.493E-12	687.923E-3	-41.2705E-3	-163.337E-12	639.139E-3	-11.2325E-3
-3.96948E-3	-158.638E-12	684.264E-3	-43.2059E-3	-163.780E-12	646.971E-3	-11.8811E-3
-3.97449E-3	-158.730E-12	660.028E-3	-39.0473E-3	-163.430E-12	654.934E-3	-26.4718E-3
-3.97949E-3	-159.085E-12	645.398E-3	-21.2924E-3	-163.402E-12	657.225E-3	-19.9910E-3
-3.98449E-3	-158.917E-12	646.348E-3	-10.9359E-3	-162.936E-12	658.424E-3	-5.93461E-3
-3.98949E-3	-158.906E-12	645.710E-3	-19.4750E-3	-162.762E-12	648.249E-3	-10.4099E-3
-3.99450E-3	-159.188E-12	637.925E-3	-38.8672E-3	-162.441E-12	657.582E-3	-27.9380E-3
-3.99950E-3	-159.139E-12	643.086E-3	-28.4695E-3	-162.491E-12	671.403E-3	-45.3106E-3
-4.00450E-3	-159.484E-12	654.352E-3	-780.317E-6	-162.231E-12	672.366E-3	-63.2825E-3
-4.00950E-3	-159.825E-12	650.982E-3	-12.2000E-3	-162.297E-12	673.465E-3	-54.1091E-3
-4.01451E-3	-160.442E-12	645.177E-3	-30.5998E-3	-162.092E-12	657.946E-3	-14.9756E-3
-4.01951E-3	-161.049E-12	643.426E-3	-29.2143E-3	-162.930E-12	645.307E-3	4.22134E-3
-4.02451E-3	-162.600E-12	640.334E-3	-33.0385E-3	-162.537E-12	658.737E-3	-5.75988E-3
-4.02951E-3	-163.405E-12	631.225E-3	-36.0269E-3	-162.472E-12	677.040E-3	-22.3535E-3
-4.03452E-3	-164.125E-12	643.872E-3	-19.3849E-3	-162.823E-12	685.750E-3	-10.7226E-3
-4.03952E-3	-165.311E-12	665.898E-3	7.84694E-3	-164.129E-12	672.054E-3	4.83278E-3
-4.04452E-3	-166.095E-12	666.625E-3	21.0706E-3	-164.268E-12	644.471E-3	-5.10334E-3
-4.04952E-3	-166.137E-12	685.888E-3	2.18170E-3	-164.084E-12	639.572E-3	-19.3392E-3
-4.05453E-3	-166.994E-12	711.106E-3	-19.2097E-3	-164.788E-12	664.108E-3	-19.6572E-3
-4.05953E-3	-167.587E-12	692.905E-3	-7.49503E-3	-165.128E-12	664.644E-3	-12.2450E-3
-4.06453E-3	-167.823E-12	677.576E-3	9.30846E-3	-165.762E-12	644.719E-3	-14.3446E-3
-4.06953E-3	-167.988E-12	683.609E-3	-1.62831E-3	-165.507E-12	647.246E-3	-19.4859E-3
-4.07454E-3	-167.257E-12	676.508E-3	-28.5816E-3	-165.038E-12	652.265E-3	-21.7501E-3
-4.07954E-3	-167.309E-12	673.054E-3	-40.0158E-3	-165.487E-12	643.411E-3	-16.3996E-3
-4.08454E-3	-166.414E-12	675.372E-3	-32.7909E-3	-164.823E-12	631.705E-3	-15.4767E-3
-4.08954E-3	-165.952E-12	662.190E-3	-31.1780E-3	-163.887E-12	636.600E-3	-19.8680E-3
-4.09455E-3	-165.226E-12	648.936E-3	-24.0426E-3	-163.308E-12	662.137E-3	-11.2421E-3
-4.09955E-3	-164.543E-12	651.311E-3	-26.3239E-3	-162.523E-12	670.480E-3	1.74816E-3
-4.10455E-3	-163.879E-12	665.981E-3	-29.6411E-3	-162.248E-12	650.520E-3	-8.83255E-3
-4.10955E-3	-163.384E-12	680.780E-3	6.63296E-3	-161.533E-12	631.552E-3	-17.3835E-3
-4.11456E-3	-163.978E-12	678.866E-3	29.8522E-3	-161.517E-12	618.465E-3	-6.94728E-3
-4.11956E-3	-164.022E-12	659.542E-3	18.1589E-3	-160.746E-12	605.423E-3	-6.68906E-3
-4.12456E-3	-163.897E-12	633.407E-3	2.20453E-3	-161.063E-12	607.648E-3	3.62182E-3
-4.12956E-3	-165.022E-12	624.660E-3	-31.1704E-3	-161.866E-12	642.090E-3	17.2583E-3
-4.13457E-3	-165.502E-12	629.034E-3	-52.0996E-3	-161.236E-12	662.190E-3	-3.17381E-3
-4.13957E-3	-165.786E-12	641.174E-3	-29.9624E-3	-161.329E-12	645.862E-3	-14.5273E-3
-4.14457E-3	-166.821E-12	680.478E-3	-6.62798E-3	-161.956E-12	640.378E-3	5.47572E-3
-4.14957E-3	-167.493E-12	706.586E-3	-4.44655E-3	-163.332E-12	662.836E-3	-3.17408E-3
-4.15458E-3	-167.844E-12	675.169E-3	-10.8484E-3	-163.845E-12	670.574E-3	-16.3755E-3
-4.15958E-3	-168.171E-12	633.172E-3	-20.2272E-3	-164.178E-12	645.101E-3	1.12487E-3
-4.16458E-3	-167.778E-12	634.999E-3	-24.8491E-3	-165.353E-12	622.002E-3	6.28387E-3
-4.16958E-3	-168.002E-12	656.484E-3	-15.8393E-3	-166.381E-12	621.398E-3	2.92176E-3
-4.17459E-3	-167.545E-12	659.967E-3	-1.74583E-3	-166.962E-12	634.205E-3	-857.893E-6
-4.17959E-3	-166.643E-12	656.923E-3	12.3191E-3	-167.394E-12	641.027E-3	-11.0904E-3
-4.18459E-3	-166.525E-12	651.344E-3	15.8330E-3	-167.654E-12	645.421E-3	-4.49902E-6
-4.18959E-3	-165.743E-12	640.519E-3	-12.1291E-3	-167.396E-12	655.685E-3	15.7736E-3
-4.19460E-3	-165.005E-12	646.287E-3	-39.8022E-3	-167.473E-12	674.664E-3	-2.95342E-3
-4.19960E-3	-164.308E-12	670.457E-3	-31.1049E-3	-167.774E-12	680.488E-3	-13.3097E-3
-4.20460E-3	-164.593E-12	673.386E-3	-20.1016E-3	-167.430E-12	673.398E-3	-1.03454E-3
-4.20960E-3	-163.971E-12	649.813E-3	-6.58508E-3	-168.224E-12	676.368E-3	-17.3544E-3
-4.21461E-3	-164.459E-12	641.520E-3	10.8953E-3	-167.992E-12	663.925E-3	-38.3225E-3
-4.21961E-3	-165.002E-12	636.278E-3	13.5657E-3	-169.161E-12	646.359E-3	-39.9187E-3
-4.22461E-3	-165.619E-12	626.547E-3	7.41404E-3	-170.368E-12	635.692E-3	-33.3494E-3
-4.22961E-3	-166.523E-12	623.350E-3	12.2733E-3	-169.872E-12	634.866E-3	-15.7595E-3
-4.23462E-3	-168.174E-12	609.639E-3	9.21754E-3	-170.128E-12	657.366E-3	6.58162E-3
-4.23962E-3	-169.520E-12	619.613E-3	-24.1047E-3	-171.536E-12	658.711E-3	8.00078E-3
-4.24462E-3	-170.804E-12	651.130E-3	-17.5202E-3	-172.365E-12	632.172E-3	-4.00891E-3
-4.24962E-3	-172.153E-12	662.439E-3	2.45318E-3	-173.103E-12	633.083E-3	-4.98872E-3
-4.25463E-3	-172.962E-12	650.636E-3	-34.2868E-3	-174.276E-12	678.824E-3	-18.8953E-3
-4.25963E-3	-174.874E-12	635.521E-3	-54.8133E-3	-176.001E-12	711.937E-3	-28.6566E-3
-4.26463E-3	-175.459E-12	650.657E-3	-24.7731E-3	-177.713E-12	700.872E-3	-5.23033E-3
-4.26963E-3	-175.137E-12	669.066E-3	5.13745E-3	-177.851E-12	695.071E-3	-2.68443E-3
-4.27464E-3	-176.093E-12	662.593E-3	21.4374E-3	-178.691E-12	699.890E-3	-41.4517E-3
-4.27964E-3	-176.229E-12	658.440E-3	18.0109E-3	-179.565E-12	687.001E-3	-42.5385E-3
-4.28464E-3	-174.970E-12	659.953E-3	-2.82202E-3	-179.128E-12	682.311E-3	879.770E-6
-4.28964E-3	-174.898E-12	662.399E-3	-31.2259E-3	-178.934E-12	678.657E-3	14.7428E-3
-4.29465E-3	-174.540E-12	663.188E-3	-38.2570E-3	-179.703E-12	680.400E-3	1.42670E-3
-4.29965E-3	-174.204E-12	650.166E-3	-30.1593E-3	-179.275E-12	695.273E-3	11.3977E-3
-4.30465E-3	-174.407E-12	645.964E-3	-39.1729E-3	-178.199E-12	667.144E-3	22.2478E-3
-4.30965E-3	-174.523E-12	651.585E-3	-35.1308E-3	-178.031E-12	641.345E-3	10.9805E-3
-4.31466E-3	-174.771E-12	646.461E-3	-14.2796E-3	-178.392E-12	659.530E-3	409.363E-6
-4.31966E-3	-174.439E-12	644.283E-3	-11.0032E-3	-176.876E-12	663.885E-3	-1.20539E-3
-4.32466E-3	-175.531E-12	631.095E-3	-18.2173E-3	-176.773E-12	650.030E-3	5.57616E-3
-4.32966E-3	-176.085E-12	618.907E-3	-14.8854E-3	-176.903E-12	642.152E-3	-910.313E-6
-4.33467E-3	-177.341E-12	624.808E-3	-5.59135E-3	-176.389E-12	634.598E-3	-29.1546E-3
-4.33967E-3	-177.174E-12	636.318E-3	-14.4612E-3	-176.881E-12	639.745E-3	-43.7679E-3
-4.34467E-3	-178.422E-12	652.352E-3	-19.3200E-3	-177.508E-12	671.077E-3	-47.5629E-3
-4.34967E-3	-179.220E-12	666.776E-3	15.1146E-3	-177.597E-12	692.722E-3	-60.4953E-3
-4.35468E-3	-180.531E-12	671.103E-3	36.1400E-3	-177.936E-12	668.487E-3	-50.3253E-3
-4.35968E-3	-180.244E-12	649.320E-3	14.7740E-3	-178.638E-12	629.332E-3	-21.5473E-3
-4.36468E-3	-181.388E-12	630.486E-3	-31.2370E-3	-178.696E-12	625.116E-3	-9.64182E-3
-4.36968E-3	-181.475E-12	637.530E-3	-37.6103E-3	-179.026E-12	642.099E-3	819.580E-6
-4.37469E-3	-181.391E-12	664.549E-3	9.10869E-3	-178.586E-12	654.040E-3	15.2986E-3
-4.37969E-3	-180.485E-12	689.618E-3	27.5135E-3	-178.780E-12	667.887E-3	-1.99254E-3
-4.38469E-3	-180.545E-12	685.672E-3	18.4861E-3	-177.804E-12	670.794E-3	-42.3299E-3
-4.38969E-3	-180.106E-12	675.657E-3	-1.44857E-3	-178.016E-12	661.755E-3	-68.2945E-3
-4.39470E-3	-179.574E-12	673.724E-3	-23.9687E-3	-177.412E-12	663.093E-3	-62.7951E-3
-4.39970E-3	-179.604E-12	651.743E-3	-8.33310E-3	-176.379E-12	658.130E-3	-50.3453E-3
-4.40470E-3	-179.704E-12	616.612E-3	9.03707E-3	-175.477E-12	636.676E-3	-30.6539E-3
-4.40970E-3	-178.696E-12	609.890E-3	-8.08819E-3	-175.468E-12	623.909E-3	-10.9999E-3
-4.41471E-3	-178.028E-12	626.945E-3	-22.9837E-3	-174.985E-12	633.762E-3	-13.2911E-3
-4.41971E-3	-178.287E-12	635.625E-3	-26.7918E-3	-174.291E-12	637.688E-3	-752.869E-6
-4.42471E-3	-178.018E-12	639.978E-3	-31.1150E-3	-174.330E-12	631.732E-3	13.2078E-3
-4.42971E-3	-177.298E-12	646.548E-3	-22.9871E-3	-174.451E-12	625.564E-3	7.80819E-3
-4.43472E-3	-177.349E-12	654.873E-3	-11.4156E-3	-174.187E-12	593.627E-3	-2.44016E-3
-4.43972E-3	-177.750E-12	663.628E-3	-15.0271E-3	-174.824E-12	568.245E-3	-15.1394E-3
-4.44472E-3	-178.221E-12	652.274E-3	-31.0844E-3	-176.055E-12	594.454E-3	-13.3420E-3
-4.44972E-3	-177.908E-12	651.283E-3	-49.6458E-3	-175.668E-12	623.734E-3	-17.0874E-3
-4.45473E-3	-178.696E-12	674.214E-3	-51.2049E-3	-177.808E-12	640.194E-3	-13.4381E-3
-4.45973E-3	-179.476E-12	656.758E-3	-27.8179E-3	-178.673E-12	673.062E-3	-5.46602E-3
-4.46473E-3	-179.775E-12	624.115E-3	-13.2966E-3	-179.751E-12	688.489E-3	-23.1698E-3
-4.46973E-3	-180.435E-12	644.699E-3	-40.3001E-3	-180.214E-12	673.596E-3	-16.9990E-3
-4.47474E-3	-180.368E-12	701.569E-3	-54.3042E-3	-182.213E-12	663.855E-3	14.0939E-3
-4.47974E-3	-181.361E-12	726.930E-3	-42.9732E-3	-182.753E-12	672.543E-3	12.8184E-3
-4.48474E-3	-181.135E-12	700.606E-3	-57.0027E-3	-182.617E-12	657.365E-3	-10.1549E-3
-4.48974E-3	-181.362E-12	663.993E-3	-67.5470E-3	-183.221E-12	647.056E-3	-17.4302E-3
-4.49475E-3	-181.993E-12	629.468E-3	-30.3778E-3	-183.716E-12	668.826E-3	2.14631E-3
-4.49975E-3	-180.776E-12	606.760E-3	9.52457E-3	-183.678E-12	673.079E-3	26.5849E-3
-4.50475E-3	-180.312E-12	608.437E-3	10.2764E-3	-182.630E-12	660.451E-3	12.5064E-3
-4.50975E-3	-179.977E-12	614.295E-3	4.99107E-3	-182.995E-12	654.009E-3	-16.1681E-3
-4.51476E-3	-179.949E-12	616.672E-3	-1.20016E-3	-183.459E-12	657.131E-3	-20.5797E-3
-4.51976E-3	-178.230E-12	630.542E-3	-15.6463E-3	-182.720E-12	655.776E-3	-7.71079E-3
-4.52476E-3	-178.812E-12	646.635E-3	-18.1751E-3	-182.394E-12	643.195E-3	3.84029E-3
-4.52976E-3	-178.439E-12	651.918E-3	-15.9417E-3	-182.588E-12	649.337E-3	-1.05916E-3
-4.53477E-3	-178.527E-12	653.993E-3	-9.96776E-3	-183.329E-12	681.024E-3	-17.3996E-3
-4.53977E-3	-178.986E-12	659.691E-3	17.7935E-3	-183.657E-12	704.114E-3	-18.0950E-3
-4.54477E-3	-179.657E-12	647.344E-3	41.7683E-3	-184.840E-12	711.845E-3	-10.6145E-3
-4.54977E-3	-180.491E-12	613.502E-3	32.4873E-3	-185.488E-12	713.415E-3	-25.1187E-3
-4.55478E-3	-181.949E-12	595.259E-3	4.12443E-3	-186.162E-12	686.893E-3	-47.6242E-3
-4.55978E-3	-182.706E-12	603.398E-3	-23.7698E-3	-187.230E-12	638.468E-3	-48.2892E-3
-4.56478E-3	-183.749E-12	627.903E-3	-30.4556E-3	-187.689E-12	617.572E-3	-40.3820E-3
-4.56978E-3	-185.547E-12	661.034E-3	-18.1921E-3	-188.253E-12	639.689E-3	-37.9274E-3
-4.57479E-3	-186.003E-12	678.366E-3	-19.3415E-3	-189.062E-12	666.443E-3	-40.7711E-3
-4.57979E-3	-186.722E-12	670.160E-3	-33.4043E-3	-189.243E-12	656.395E-3	-43.6161E-3
-4.58479E-3	-188.415E-12	662.193E-3	-29.7141E-3	-189.758E-12	635.078E-3	-22.9170E-3
-4.58979E-3	-188.895E-12	656.271E-3	-35.1418E-3	-190.064E-12	656.094E-3	-1.90926E-3
-4.59480E-3	-188.564E-12	658.150E-3	-63.1354E-3	-190.084E-12	677.392E-3	-28.4868E-3
-4.59980E-3	-188.547E-12	666.337E-3	-51.7633E-3	-189.306E-12	664.075E-3	-45.2123E-3
-4.60480E-3	-188.411E-12	653.729E-3	-25.9684E-3	-189.416E-12	667.707E-3	-8.98826E-3
-4.60980E-3	-187.448E-12	650.134E-3	-27.7331E-3	-188.996E-12	669.240E-3	8.01222E-3
-4.61481E-3	-186.556E-12	664.877E-3	-8.18968E-3	-188.279E-12	634.392E-3	-11.4635E-3
-4.61981E-3	-187.328E-12	665.865E-3	2.32446E-3	-188.216E-12	627.214E-3	-27.0454E-3
-4.62481E-3	-185.757E-12	662.416E-3	-34.5616E-3	-187.833E-12	663.098E-3	-18.7031E-3
-4.62981E-3	-186.081E-12	659.691E-3	-55.3410E-3	-187.741E-12	658.704E-3	-258.989E-6
-4.63482E-3	-186.704E-12	651.811E-3	-50.5984E-3	-186.896E-12	626.655E-3	2.64623E-3
-4.63982E-3	-186.994E-12	649.943E-3	-46.8103E-3	-187.323E-12	618.806E-3	280.029E-6
-4.64482E-3	-187.432E-12	654.004E-3	-28.7199E-3	-187.494E-12	620.773E-3	-2.58622E-3
-4.64982E-3	-188.139E-12	671.891E-3	-24.3633E-3	-187.674E-12	642.827E-3	-12.9867E-3
-4.65483E-3	-189.120E-12	681.181E-3	-28.7954E-3	-187.274E-12	683.042E-3	-12.5000E-3
-4.65983E-3	-190.155E-12	662.441E-3	-16.2123E-3	-187.798E-12	701.772E-3	6.08201E-3
-4.66483E-3	-191.167E-12	656.170E-3	-26.1103E-3	-188.635E-12	692.197E-3	21.9660E-3
-4.66983E-3	-192.308E-12	653.296E-3	-49.4859E-3	-189.382E-12	681.917E-3	23.2920E-3
-4.67484E-3	-193.564E-12	644.911E-3	-49.9137E-3	-190.126E-12	658.341E-3	7.03281E-3
-4.67984E-3	-194.505E-12	656.104E-3	-23.2891E-3	-190.748E-12	635.073E-3	-25.4284E-3
-4.68484E-3	-194.174E-12	660.355E-3	4.99658E-3	-191.162E-12	660.280E-3	-52.9615E-3
-4.68984E-3	-194.890E-12	660.772E-3	4.98685E-3	-190.905E-12	677.289E-3	-48.5917E-3
-4.69485E-3	-195.138E-12	684.809E-3	-5.24206E-3	-192.107E-12	663.017E-3	-20.1249E-3
-4.69985E-3	-194.430E-12	698.120E-3	-8.99475E-3	-192.922E-12	645.489E-3	4.95678E-3
-4.70485E-3	-192.358E-12	689.006E-3	-8.41873E-3	-192.227E-12	614.539E-3	11.4552E-3
-4.70985E-3	-192.960E-12	689.621E-3	2.99729E-3	-191.799E-12	595.302E-3	-8.24138E-3
-4.71486E-3	-192.228E-12	698.976E-3	21.2403E-3	-191.690E-12	604.346E-3	-33.0373E-3
-4.71986E-3	-190.865E-12	690.234E-3	13.8473E-3	-191.488E-12	628.566E-3	-35.9669E-3
-4.72486E-3	-191.146E-12	674.793E-3	-14.9871E-3	-190.592E-12	636.169E-3	-38.6008E-3
-4.72986E-3	-190.631E-12	669.557E-3	-24.6059E-3	-190.723E-12	629.425E-3	-64.2908E-3
-4.73487E-3	-190.585E-12	661.583E-3	-12.9552E-3	-190.170E-12	636.706E-3	-56.1469E-3
-4.73987E-3	-191.086E-12	629.917E-3	1.27331E-3	-189.691E-12	631.939E-3	-5.37098E-3
-4.74487E-3	-191.443E-12	588.504E-3	-2.76182E-3	-190.485E-12	613.306E-3	4.14970E-3
-4.74988E-3	-191.599E-12	594.557E-3	-19.4137E-3	-190.720E-12	615.840E-3	-29.2517E-3
-4.75488E-3	-192.593E-12	625.245E-3	-23.1525E-3	-190.579E-12	625.889E-3	-29.1894E-3
-4.75988E-3	-192.461E-12	613.726E-3	-24.9884E-3	-191.448E-12	630.013E-3	-4.95796E-3
-4.76488E-3	-193.436E-12	602.156E-3	-23.8859E-3	-192.224E-12	648.229E-3	-2.67447E-3
-4.76988E-3	-194.574E-12	622.159E-3	-15.5889E-3	-193.253E-12	666.262E-3	2.54309E-3
-4.77489E-3	-194.841E-12	644.189E-3	-6.28337E-3	-193.389E-12	664.783E-3	31.1780E-3
-4.77989E-3	-195.269E-12	662.895E-3	-4.56257E-3	-194.321E-12	644.671E-3	55.8990E-3
-4.78489E-3	-195.614E-12	668.841E-3	-12.2906E-3	-195.614E-12	618.533E-3	35.6654E-3
-4.78989E-3	-195.408E-12	665.363E-3	-21.4428E-3	-196.263E-12	619.189E-3	-18.7307E-3
-4.79490E-3	-195.524E-12	666.025E-3	-35.7142E-3	-196.247E-12	637.410E-3	-47.4230E-3
-4.79990E-3	-196.092E-12	672.640E-3	-38.7723E-3	-197.147E-12	675.640E-3	-42.4629E-3
-4.80490E-3	-195.424E-12	667.982E-3	-20.8004E-3	-198.091E-12	719.537E-3	-39.4130E-3
-4.80990E-3	-195.894E-12	648.372E-3	-14.8577E-3	-197.290E-12	699.412E-3	-49.8053E-3
-4.81491E-3	-196.105E-12	653.932E-3	-32.0208E-3	-198.394E-12	644.261E-3	-47.6269E-3
-4.81991E-3	-197.095E-12	685.980E-3	-35.3629E-3	-197.907E-12	634.748E-3	-46.8889E-3
-4.82491E-3	-196.950E-12	703.403E-3	-25.0775E-3	-197.373E-12	655.136E-3	-81.8343E-3
-4.82991E-3	-196.889E-12	683.815E-3	-27.3539E-3	-196.162E-12	676.898E-3	-98.4527E-3
-4.83492E-3	-197.534E-12	656.566E-3	-27.0912E-3	-196.855E-12	682.819E-3	-61.9264E-3
-4.83992E-3	-197.905E-12	664.413E-3	-35.9791E-3	-195.400E-12	652.166E-3	-7.09537E-3
-4.84492E-3	-197.778E-12	678.873E-3	-38.8917E-3	-195.041E-12	629.988E-3	23.2963E-3
-4.84992E-3	-197.599E-12	683.099E-3	-19.4678E-3	-195.878E-12	645.686E-3	4.42022E-3
-4.85493E-3	-198.623E-12	681.827E-3	-4.14378E-3	-196.472E-12	667.411E-3	-32.8722E-3
-4.85993E-3	-198.944E-12	667.553E-3	-4.20180E-3	-196.269E-12	664.013E-3	-35.0814E-3
-4.86493E-3	-199.372E-12	659.785E-3	-18.9470E-3	-197.329E-12	657.152E-3	-22.5578E-3
-4.86993E-3	-199.904E-12	659.751E-3	-25.3567E-3	-199.293E-12	661.411E-3	-29.8730E-3
-4.87494E-3	-200.583E-12	667.609E-3	-33.4552E-3	-199.956E-12	669.311E-3	-23.3335E-3
-4.87994E-3	-200.839E-12	659.871E-3	-42.3327E-3	-200.699E-12	671.342E-3	1.79815E-3
-4.88494E-3	-201.190E-12	629.005E-3	-19.7298E-3	-201.562E-12	679.081E-3	2.10740E-3
-4.88995E-3	-200.986E-12	633.422E-3	14.7607E-3	-201.994E-12	695.323E-3	-37.6362E-3
-4.89495E-3	-201.595E-12	664.224E-3	14.2254E-3	-203.021E-12	696.899E-3	-74.6635E-3
-4.89995E-3	-201.427E-12	677.976E-3	-11.7024E-3	-203.748E-12	697.969E-3	-63.4754E-3
-4.90495E-3	-202.211E-12	660.010E-3	-16.9611E-3	-204.668E-12	692.543E-3	-18.9495E-3
-4.90995E-3	-201.974E-12	654.380E-3	1.74602E-3	-203.754E-12	665.003E-3	9.75072E-3
-4.91496E-3	-201.358E-12	685.969E-3	6.17933E-3	-204.353E-12	646.299E-3	25.6605E-3
-4.91996E-3	-200.905E-12	667.022E-3	-7.21299E-3	-202.901E-12	641.471E-3	21.3116E-3
-4.92496E-3	-200.800E-12	616.097E-3	-13.1217E-3	-202.991E-12	638.316E-3	-16.1990E-3
-4.92996E-3	-200.709E-12	614.535E-3	-1.31347E-3	-201.748E-12	657.698E-3	-20.2487E-3
-4.93497E-3	-201.069E-12	630.542E-3	12.8778E-3	-200.955E-12	684.343E-3	6.90257E-3
-4.93997E-3	-200.770E-12	646.733E-3	4.15732E-3	-200.494E-12	692.993E-3	10.2566E-3
-4.94497E-3	-201.259E-12	654.198E-3	-11.3838E-3	-201.009E-12	695.564E-3	-16.7019E-3
-4.94997E-3	-201.659E-12	621.907E-3	-19.5659E-3	-199.995E-12	690.999E-3	-40.3401E-3
-4.95498E-3	-201.551E-12	602.520E-3	-37.4106E-3	-200.456E-12	679.664E-3	-19.3052E-3
-4.95998E-3	-201.695E-12	626.057E-3	-49.0142E-3	-200.533E-12	668.344E-3	15.0031E-3
-4.96498E-3	-201.100E-12	652.832E-3	-27.6175E-3	-200.927E-12	651.428E-3	30.0817E-3
-4.96998E-3	-202.122E-12	660.583E-3	-14.6003E-3	-200.779E-12	641.772E-3	34.0186E-3
-4.97499E-3	-201.071E-12	652.654E-3	-29.3894E-3	-200.212E-12	646.065E-3	29.3795E-3
-4.97999E-3	-201.854E-12	645.717E-3	-23.0206E-3	-201.626E-12	645.118E-3	12.8942E-3
-4.98499E-3	-202.688E-12	649.597E-3	-5.21161E-3	-201.802E-12	662.454E-3	-15.9087E-3
-4.98999E-3	-203.257E-12	647.757E-3	-4.33794E-3	-201.941E-12	690.575E-3	-30.9209E-3
-4.99500E-3	-203.190E-12	642.084E-3	-18.3942E-3	-202.314E-12	694.037E-3	-21.8966E-3
-5.00000E-3	-203.880E-12	666.480E-3	-37.1567E-3	-204.128E-12	689.173E-3	-29.1429E-3
