Experiment	bias spectroscopy	
Date	19.01.2016 19:23:29	
User		
X (m)	51.0686E-9	
Y (m)	257.063E-9	
Z (m)	-132.718E-9	
Z offset (m)	0E+0	
Settling time (s)	200E-6	
Integration time (s)	5E-3	
Z-Ctrl hold	TRUE	
Final Z (m)	N/A	
Filter type	None	
Order		
Cutoff frq		
Comment01	MnPc/Pb(111)	
Comment02	dz =00pm	
Comment03	7 Sweeps	
Comment04	MagField =0.T	
Comment05	Divider 1:10	
Comment06	Setpoint:5mV,200 pA	
Comment07	Lockin: 50uVrms,5ms,5mV	
Comment08	Gain:9; 912Hz modulation	
Comment09	T=1.06K	
Bias>Bias (V)	5E-3	
Bias>Calibration (V/V)	81.475E-3	
Bias>Offset (V)	1.046E-3	
Bias Spectroscopy>Sweep Start (V)	5E-3	
Bias Spectroscopy>Sweep End (V)	-5E-3	
Bias Spectroscopy>Num Pixel	2000	
Bias Spectroscopy>Z Avg time (s)	500E-3	
Bias Spectroscopy>Z offset (m)	0E+0	
Bias Spectroscopy>1st Settling time (s)	500E-3	
Bias Spectroscopy>Settling time (s)	200E-6	
Bias Spectroscopy>Integration time (s)	5E-3	
Bias Spectroscopy>End Settling time (s)	500E-3	
Bias Spectroscopy>Z control time (s)	500E-3	
Bias Spectroscopy>Max Slew rate (V/s)	Inf	
Bias Spectroscopy>backward sweep	TRUE	
Bias Spectroscopy>Z-controller hold	TRUE	
Bias Spectroscopy>Number of sweeps	7	
Bias Spectroscopy>Channels	Current (A);X% LockIn (V);Y% LockIn (V)	
Bias Spectroscopy>Reset Bias	TRUE	
Bias Spectroscopy>Record final Z	FALSE	
Bias Spectroscopy>Lock-In run	FALSE	
Bias Spectroscopy>Sweep mode	Linear	
Bias Spectroscopy>MultiLine Settings : Segment Start (V), Segment End (V), Settling (s), Integration (s), Steps (xn)	100E-3,3.3E-3,100E-6,10E-3,2500;3.3E-3,-3.3E-3,100E-6,10E-3,10;-3.3E-3,-100E-3,100E-6,10E-3,2500	
Current>Current (A)	200.09E-12	
Current>Calibration (A/V)	999.99900E-12	
Current>Offset (A)	-455.429E-15	
Current>Gain	LN 10^9	
Z-Controller>Z (m)	-132.718E-9	
Z-Controller>Controller name	log Current	
Z-Controller>Controller status	ON	
Z-Controller>Setpoint	200E-12	
Z-Controller>Setpoint unit	A	
Z-Controller>P gain	2.96994E-12	
Z-Controller>I gain	67.0321E-9	
Z-Controller>Time const (s)	44.3062E-6	
Z-Controller>TipLift (m)	0E+0	
Z-Controller>Switch off delay (s)	50E-3	
Current (A)	200.117E-12	
Z (m)	-132.718E-9	

[DATA]
Bias calc (V)	Current (A)	X% LockIn (V)	Y% LockIn (V)	Current [bwd] (A)	X% LockIn [bwd] (V)	Y% LockIn [bwd] (V)
5.00000E-3	199.661E-12	641.041E-3	-24.0169E-3	205.234E-12	697.294E-3	-35.4633E-3
4.99500E-3	198.696E-12	648.760E-3	-24.4584E-3	205.017E-12	667.775E-3	-38.6285E-3
4.98999E-3	197.283E-12	633.700E-3	-20.1517E-3	204.408E-12	645.539E-3	-29.9323E-3
4.98499E-3	196.101E-12	622.101E-3	-26.6953E-3	202.581E-12	693.215E-3	-16.8254E-3
4.97999E-3	195.675E-12	660.562E-3	-32.5183E-3	201.118E-12	722.361E-3	-23.7035E-3
4.97499E-3	195.499E-12	694.459E-3	-23.9791E-3	199.490E-12	686.781E-3	-34.3061E-3
4.96998E-3	196.345E-12	676.827E-3	-28.5729E-3	198.676E-12	649.687E-3	-41.9695E-3
4.96498E-3	195.769E-12	666.929E-3	-40.2694E-3	196.225E-12	631.977E-3	-49.7472E-3
4.95998E-3	196.514E-12	679.744E-3	-24.0773E-3	194.967E-12	623.179E-3	-42.3502E-3
4.95498E-3	197.781E-12	662.543E-3	5.51220E-3	194.152E-12	629.392E-3	-19.8705E-3
4.94997E-3	199.168E-12	637.794E-3	18.5776E-3	194.831E-12	661.555E-3	-9.02293E-3
4.94497E-3	199.577E-12	633.678E-3	12.9001E-3	194.876E-12	672.591E-3	-23.7301E-3
4.93997E-3	200.017E-12	632.124E-3	-484.070E-6	195.145E-12	661.863E-3	-40.8190E-3
4.93497E-3	200.533E-12	654.695E-3	-22.2435E-3	196.716E-12	669.618E-3	-55.2315E-3
4.92996E-3	201.191E-12	675.971E-3	-32.2414E-3	197.610E-12	673.829E-3	-55.2890E-3
4.92496E-3	201.849E-12	666.843E-3	-37.5375E-3	198.167E-12	663.113E-3	-12.3683E-3
4.91996E-3	200.368E-12	678.008E-3	-62.0202E-3	198.445E-12	659.097E-3	12.5097E-3
4.91496E-3	199.769E-12	692.773E-3	-58.8021E-3	199.773E-12	665.393E-3	-25.2899E-3
4.90995E-3	199.288E-12	677.523E-3	-37.2292E-3	200.337E-12	677.555E-3	-43.8035E-3
4.90495E-3	198.515E-12	681.649E-3	-41.5918E-3	200.754E-12	687.423E-3	-20.6329E-3
4.89995E-3	197.125E-12	705.786E-3	-50.8850E-3	201.206E-12	692.412E-3	-8.83078E-3
4.89495E-3	195.140E-12	691.782E-3	-39.0764E-3	201.314E-12	688.879E-3	-2.44753E-3
4.88995E-3	195.013E-12	659.621E-3	-18.6793E-3	200.436E-12	675.000E-3	1.05619E-3
4.88494E-3	195.176E-12	657.030E-3	-3.87026E-3	199.511E-12	676.847E-3	-16.7736E-3
4.87994E-3	195.164E-12	662.438E-3	7.89781E-3	198.976E-12	687.632E-3	-33.1347E-3
4.87494E-3	193.929E-12	654.013E-3	-7.62062E-3	197.768E-12	685.177E-3	-40.0123E-3
4.86993E-3	192.875E-12	658.468E-3	-39.3527E-3	196.053E-12	678.007E-3	-51.3635E-3
4.86493E-3	193.996E-12	671.469E-3	-46.4181E-3	194.419E-12	667.480E-3	-44.5328E-3
4.85993E-3	196.638E-12	666.097E-3	-40.9065E-3	193.761E-12	669.138E-3	-17.7785E-3
4.85493E-3	195.919E-12	663.879E-3	-18.7763E-3	193.325E-12	684.248E-3	-11.2389E-3
4.84992E-3	194.738E-12	670.734E-3	34.5739E-3	192.536E-12	667.578E-3	-24.0657E-3
4.84492E-3	196.008E-12	660.160E-3	52.0865E-3	193.295E-12	634.182E-3	-20.2595E-3
4.83992E-3	197.278E-12	651.145E-3	9.70289E-3	192.814E-12	634.712E-3	-12.2338E-3
4.83492E-3	197.764E-12	655.683E-3	-20.0206E-3	192.337E-12	636.990E-3	-20.8592E-3
4.82991E-3	196.397E-12	661.516E-3	-27.8428E-3	191.506E-12	625.898E-3	-24.0582E-3
4.82491E-3	195.155E-12	675.894E-3	-37.3710E-3	192.432E-12	642.186E-3	-15.3791E-3
4.81991E-3	195.056E-12	684.168E-3	-23.7904E-3	193.119E-12	672.405E-3	-7.55536E-3
4.81491E-3	196.165E-12	690.234E-3	2.67593E-3	193.138E-12	687.793E-3	-3.18648E-3
4.80990E-3	195.092E-12	707.079E-3	4.82090E-3	192.863E-12	692.618E-3	-1.05654E-3
4.80490E-3	192.908E-12	698.170E-3	-361.006E-6	193.275E-12	696.058E-3	-6.75379E-3
4.79990E-3	191.711E-12	670.729E-3	-19.4062E-3	194.331E-12	692.348E-3	-13.3351E-3
4.79490E-3	191.531E-12	657.015E-3	-47.1984E-3	193.942E-12	680.344E-3	-9.50897E-3
4.78989E-3	191.366E-12	642.866E-3	-29.4154E-3	193.815E-12	675.897E-3	-13.4009E-3
4.78489E-3	188.977E-12	631.068E-3	-1.61250E-3	193.569E-12	685.056E-3	-33.3821E-3
4.77989E-3	188.537E-12	654.358E-3	-9.05400E-3	193.454E-12	690.099E-3	-38.3907E-3
4.77489E-3	188.515E-12	699.290E-3	-12.3082E-3	193.389E-12	679.260E-3	-30.0167E-3
4.76988E-3	188.173E-12	704.997E-3	-18.5162E-3	192.397E-12	673.226E-3	-16.8994E-3
4.76488E-3	186.792E-12	691.727E-3	-50.8607E-3	192.094E-12	656.541E-3	5.89148E-3
4.75988E-3	187.086E-12	691.536E-3	-50.8733E-3	191.480E-12	645.393E-3	8.50283E-3
4.75488E-3	187.494E-12	657.335E-3	-20.3108E-3	190.328E-12	674.307E-3	409.516E-9
4.74988E-3	188.120E-12	636.467E-3	-10.6918E-3	188.798E-12	687.494E-3	-6.42739E-3
4.74487E-3	187.256E-12	672.463E-3	-13.5392E-3	187.683E-12	673.962E-3	-10.3353E-3
4.73987E-3	187.555E-12	688.104E-3	-17.8886E-3	186.424E-12	672.299E-3	-9.08876E-3
4.73487E-3	188.007E-12	671.124E-3	-44.3529E-3	185.455E-12	674.163E-3	-23.6546E-3
4.72986E-3	188.933E-12	670.812E-3	-49.1362E-3	185.255E-12	673.207E-3	-34.9900E-3
4.72486E-3	189.307E-12	665.705E-3	-11.0473E-3	184.370E-12	683.254E-3	-20.7339E-3
4.71986E-3	188.329E-12	651.784E-3	13.9509E-3	183.775E-12	690.095E-3	-6.24818E-3
4.71486E-3	188.354E-12	659.311E-3	17.9021E-3	184.001E-12	678.216E-3	-5.24568E-3
4.70985E-3	188.232E-12	643.754E-3	7.03325E-3	184.840E-12	671.926E-3	3.21515E-3
4.70485E-3	188.892E-12	615.535E-3	-12.4320E-3	185.012E-12	672.844E-3	19.6972E-3
4.69985E-3	187.103E-12	629.159E-3	-21.0596E-3	185.479E-12	668.645E-3	17.6151E-3
4.69485E-3	185.422E-12	655.422E-3	-11.9451E-3	186.777E-12	666.614E-3	6.38524E-3
4.68984E-3	185.036E-12	669.347E-3	-3.76975E-3	188.243E-12	668.793E-3	-1.65625E-3
4.68484E-3	185.439E-12	673.122E-3	899.545E-6	188.898E-12	661.038E-3	-8.19927E-3
4.67984E-3	185.540E-12	656.090E-3	608.024E-6	189.559E-12	647.077E-3	-20.6124E-3
4.67484E-3	183.529E-12	645.468E-3	-14.1538E-3	190.074E-12	650.173E-3	-33.2451E-3
4.66983E-3	183.941E-12	652.333E-3	-36.8668E-3	190.010E-12	659.327E-3	-13.4202E-3
4.66483E-3	184.726E-12	644.453E-3	-48.1388E-3	188.490E-12	660.131E-3	1.32039E-3
4.65983E-3	185.823E-12	637.980E-3	-33.6793E-3	187.526E-12	661.819E-3	-12.2425E-3
4.65483E-3	183.811E-12	647.888E-3	-19.2138E-3	185.935E-12	661.527E-3	-7.87468E-3
4.64982E-3	183.076E-12	669.686E-3	-16.9555E-3	182.945E-12	649.788E-3	-716.073E-6
4.64482E-3	183.491E-12	682.678E-3	-10.6769E-3	181.425E-12	624.670E-3	-22.3588E-3
4.63982E-3	185.040E-12	666.340E-3	-7.61556E-3	180.373E-12	598.061E-3	-44.0950E-3
4.63482E-3	185.143E-12	643.441E-3	-16.5389E-3	179.169E-12	592.525E-3	-38.6000E-3
4.62981E-3	184.523E-12	643.963E-3	-20.2498E-3	178.226E-12	618.141E-3	-26.9023E-3
4.62481E-3	186.059E-12	663.826E-3	-12.1722E-3	176.765E-12	655.742E-3	-31.0326E-3
4.61981E-3	186.719E-12	689.724E-3	-26.1065E-3	178.273E-12	662.066E-3	-29.9572E-3
4.61481E-3	187.953E-12	717.141E-3	-61.2049E-3	179.494E-12	633.563E-3	-30.7825E-3
4.60980E-3	187.052E-12	734.489E-3	-59.8738E-3	180.255E-12	618.865E-3	-39.5322E-3
4.60480E-3	186.748E-12	714.558E-3	-18.2643E-3	180.824E-12	645.953E-3	-45.2639E-3
4.59980E-3	186.923E-12	687.882E-3	14.6858E-3	183.230E-12	675.187E-3	-60.0410E-3
4.59480E-3	187.428E-12	698.016E-3	16.0856E-3	185.397E-12	670.182E-3	-56.1416E-3
4.58979E-3	185.901E-12	699.194E-3	3.60257E-3	187.069E-12	649.411E-3	-18.1246E-3
4.58479E-3	183.807E-12	685.830E-3	-2.54606E-3	188.121E-12	642.875E-3	-6.48377E-3
4.57979E-3	183.113E-12	679.250E-3	-21.3210E-3	189.220E-12	634.722E-3	-32.0549E-3
4.57479E-3	182.703E-12	675.973E-3	-37.8661E-3	190.457E-12	643.577E-3	-36.8016E-3
4.56978E-3	182.228E-12	664.668E-3	-43.3838E-3	188.824E-12	695.092E-3	-26.7985E-3
4.56478E-3	180.854E-12	656.088E-3	-72.0209E-3	187.634E-12	711.841E-3	-21.7037E-3
4.55978E-3	179.961E-12	666.640E-3	-72.7643E-3	185.986E-12	676.475E-3	-11.3403E-3
4.55478E-3	179.979E-12	641.790E-3	-12.4251E-3	184.437E-12	647.489E-3	-12.3720E-3
4.54977E-3	179.192E-12	590.160E-3	2.64596E-3	182.996E-12	643.184E-3	-20.9372E-3
4.54477E-3	178.723E-12	579.423E-3	-48.8948E-3	180.745E-12	648.796E-3	-18.3573E-3
4.53977E-3	178.264E-12	611.168E-3	-77.9141E-3	177.890E-12	646.450E-3	-15.6408E-3
4.53477E-3	179.144E-12	658.811E-3	-78.2122E-3	177.563E-12	633.880E-3	-18.3789E-3
4.52976E-3	179.710E-12	697.859E-3	-63.8884E-3	176.759E-12	620.712E-3	-17.5087E-3
4.52476E-3	180.185E-12	678.623E-3	-45.1584E-3	175.515E-12	639.159E-3	-10.2081E-3
4.51976E-3	179.522E-12	646.682E-3	-30.8685E-3	175.558E-12	678.566E-3	-5.65050E-3
4.51476E-3	179.988E-12	678.597E-3	-17.9704E-3	176.337E-12	689.057E-3	-16.5224E-3
4.50975E-3	180.837E-12	714.349E-3	-10.4231E-3	177.246E-12	676.109E-3	-33.7554E-3
4.50475E-3	180.937E-12	689.692E-3	-15.2193E-3	178.194E-12	674.048E-3	-53.2640E-3
4.49975E-3	180.119E-12	646.795E-3	-12.7433E-3	178.923E-12	688.469E-3	-64.4254E-3
4.49475E-3	178.985E-12	628.210E-3	14.2955E-3	181.147E-12	701.599E-3	-42.3902E-3
4.48974E-3	178.830E-12	614.405E-3	14.8147E-3	181.949E-12	699.796E-3	-7.79466E-3
4.48474E-3	178.067E-12	625.284E-3	-19.8726E-3	182.832E-12	682.840E-3	3.64730E-3
4.47974E-3	176.443E-12	648.453E-3	-30.0072E-3	183.040E-12	678.123E-3	-222.447E-6
4.47474E-3	174.790E-12	645.598E-3	-11.4211E-3	183.619E-12	684.432E-3	-7.12402E-3
4.46973E-3	173.795E-12	646.375E-3	6.59487E-3	182.460E-12	679.440E-3	-14.3535E-3
4.46473E-3	173.919E-12	649.888E-3	28.5989E-3	182.004E-12	673.507E-3	-4.82329E-3
4.45973E-3	173.158E-12	638.022E-3	14.2667E-3	180.584E-12	669.341E-3	14.5735E-3
4.45473E-3	172.132E-12	621.313E-3	-24.5789E-3	179.859E-12	665.827E-3	16.2949E-3
4.44972E-3	172.046E-12	615.902E-3	-23.1267E-3	177.828E-12	663.127E-3	-414.403E-6
4.44472E-3	172.722E-12	624.726E-3	-24.9469E-3	176.176E-12	660.405E-3	-25.4280E-3
4.43972E-3	172.407E-12	637.189E-3	-41.4235E-3	174.886E-12	654.002E-3	-34.1195E-3
4.43472E-3	172.191E-12	639.468E-3	-20.8236E-3	173.107E-12	638.927E-3	-13.6397E-3
4.42971E-3	172.734E-12	629.570E-3	-2.25890E-3	171.717E-12	623.218E-3	-10.7622E-3
4.42471E-3	173.721E-12	636.421E-3	-14.1675E-3	171.172E-12	636.019E-3	-29.0266E-3
4.41971E-3	174.732E-12	666.775E-3	-27.2461E-3	170.783E-12	668.629E-3	-36.1166E-3
4.41471E-3	174.899E-12	688.395E-3	-37.1892E-3	170.890E-12	687.839E-3	-20.9495E-3
4.40970E-3	175.055E-12	686.179E-3	-34.9342E-3	171.507E-12	684.191E-3	-4.18301E-3
4.40470E-3	175.627E-12	671.266E-3	-15.8349E-3	171.814E-12	676.419E-3	-28.4139E-3
4.39970E-3	175.670E-12	654.529E-3	-6.03552E-3	172.057E-12	674.146E-3	-49.3922E-3
4.39470E-3	175.140E-12	649.111E-3	-20.4498E-3	172.660E-12	663.684E-3	-44.8442E-3
4.38969E-3	174.926E-12	659.662E-3	-21.1934E-3	173.672E-12	652.309E-3	-42.0208E-3
4.38469E-3	174.930E-12	660.782E-3	-4.86131E-3	174.291E-12	651.213E-3	-22.5781E-3
4.37969E-3	174.519E-12	660.044E-3	-1.58589E-3	174.683E-12	660.860E-3	-5.60440E-3
4.37469E-3	174.274E-12	676.957E-3	-24.2485E-6	175.310E-12	675.070E-3	-10.6810E-3
4.36968E-3	172.601E-12	675.472E-3	-952.384E-6	176.478E-12	692.161E-3	-11.7530E-3
4.36468E-3	172.056E-12	662.824E-3	-18.1156E-3	176.716E-12	688.836E-3	-19.1246E-3
4.35968E-3	171.394E-12	674.394E-3	-22.1834E-3	176.147E-12	662.251E-3	-35.5979E-3
4.35468E-3	171.172E-12	674.516E-3	3.89068E-3	175.755E-12	658.695E-3	-38.2530E-3
4.34967E-3	170.085E-12	648.560E-3	13.0996E-3	175.572E-12	662.485E-3	-39.6760E-3
4.34467E-3	168.960E-12	636.561E-3	-8.05113E-3	175.261E-12	663.520E-3	-38.9165E-3
4.33967E-3	169.683E-12	646.129E-3	-15.5724E-3	173.033E-12	678.909E-3	-29.1595E-3
4.33467E-3	169.686E-12	664.304E-3	-4.64948E-3	171.766E-12	680.913E-3	-39.9294E-3
4.32966E-3	170.235E-12	664.991E-3	-9.63117E-3	169.663E-12	667.562E-3	-63.4582E-3
4.32466E-3	169.175E-12	644.574E-3	-11.7439E-3	168.766E-12	664.690E-3	-60.0493E-3
4.31966E-3	169.939E-12	645.557E-3	-1.93912E-3	167.469E-12	660.717E-3	-44.3426E-3
4.31466E-3	170.913E-12	659.264E-3	5.36951E-3	167.506E-12	648.651E-3	-41.9348E-3
4.30965E-3	172.100E-12	657.755E-3	17.5464E-3	165.950E-12	649.435E-3	-39.5427E-3
4.30465E-3	171.285E-12	662.331E-3	14.9170E-3	165.652E-12	652.650E-3	-22.1130E-3
4.29965E-3	170.993E-12	685.333E-3	6.44305E-3	165.385E-12	645.716E-3	-16.8543E-3
4.29465E-3	171.626E-12	697.380E-3	-1.26466E-3	166.101E-12	654.078E-3	-23.6379E-3
4.28964E-3	171.548E-12	704.225E-3	-27.6609E-3	166.012E-12	666.128E-3	-23.8604E-3
4.28464E-3	171.336E-12	702.056E-3	-33.4523E-3	166.927E-12	664.912E-3	-27.9569E-3
4.27964E-3	169.952E-12	688.788E-3	-11.6349E-3	168.359E-12	672.110E-3	-31.8608E-3
4.27464E-3	169.478E-12	685.959E-3	-22.3403E-3	169.500E-12	677.455E-3	-26.8066E-3
4.26963E-3	168.626E-12	682.352E-3	-36.1356E-3	170.673E-12	670.627E-3	-9.89616E-3
4.26463E-3	168.544E-12	669.684E-3	-12.2391E-3	171.915E-12	674.424E-3	-14.5602E-3
4.25963E-3	166.591E-12	663.848E-3	-2.32880E-3	173.570E-12	682.891E-3	-48.4742E-3
4.25463E-3	165.816E-12	672.813E-3	-17.6865E-3	173.789E-12	670.300E-3	-57.8433E-3
4.24962E-3	165.295E-12	666.618E-3	-11.5244E-3	173.008E-12	665.351E-3	-39.4365E-3
4.24462E-3	164.701E-12	660.809E-3	-2.13187E-3	172.270E-12	677.584E-3	-36.3282E-3
4.23962E-3	164.171E-12	663.689E-3	-834.342E-6	171.641E-12	674.220E-3	-32.1926E-3
4.23462E-3	163.313E-12	645.790E-3	13.3450E-3	169.987E-12	660.862E-3	766.558E-6
4.22961E-3	163.688E-12	633.549E-3	-2.24404E-3	167.490E-12	644.859E-3	25.3720E-3
4.22461E-3	163.389E-12	643.423E-3	-26.8149E-3	165.965E-12	620.608E-3	32.4977E-3
4.21961E-3	163.514E-12	647.238E-3	-22.1646E-3	163.990E-12	609.668E-3	26.4377E-3
4.21461E-3	164.481E-12	645.024E-3	-19.2896E-3	162.758E-12	616.817E-3	-15.0372E-3
4.20960E-3	164.582E-12	652.560E-3	-11.8332E-3	161.133E-12	621.313E-3	-50.4432E-3
4.20460E-3	165.310E-12	652.930E-3	-4.68234E-3	160.237E-12	620.673E-3	-47.1857E-3
4.19960E-3	165.444E-12	647.454E-3	-31.2817E-3	159.569E-12	626.279E-3	-41.2140E-3
4.19460E-3	166.588E-12	656.205E-3	-59.8539E-3	158.882E-12	640.762E-3	-31.5371E-3
4.18959E-3	166.557E-12	653.319E-3	-44.7049E-3	158.902E-12	652.142E-3	-5.17474E-3
4.18459E-3	166.955E-12	641.298E-3	-22.4600E-3	159.400E-12	669.324E-3	12.0136E-3
4.17959E-3	166.248E-12	655.518E-3	-42.4416E-3	161.088E-12	674.592E-3	2.67189E-3
4.17459E-3	166.634E-12	659.251E-3	-56.5805E-3	161.891E-12	663.404E-3	-18.4950E-3
4.16958E-3	165.486E-12	658.300E-3	-23.4447E-3	164.241E-12	672.270E-3	-32.8370E-3
4.16458E-3	164.296E-12	688.582E-3	-10.3873E-3	165.256E-12	701.207E-3	-40.6715E-3
4.15958E-3	163.826E-12	698.169E-3	-13.3828E-3	166.507E-12	719.799E-3	-29.6433E-3
4.15458E-3	163.315E-12	674.030E-3	3.95021E-3	167.807E-12	702.068E-3	-5.73254E-3
4.14957E-3	161.710E-12	657.532E-3	13.9497E-3	168.702E-12	676.038E-3	-4.42644E-3
4.14457E-3	160.606E-12	657.040E-3	2.50698E-3	168.492E-12	684.676E-3	-19.3132E-3
4.13957E-3	160.157E-12	646.932E-3	-17.8546E-3	167.833E-12	693.759E-3	-28.8719E-3
4.13457E-3	159.772E-12	639.228E-3	-25.0622E-3	167.108E-12	669.792E-3	-20.6480E-3
4.12956E-3	159.477E-12	663.859E-3	-18.1695E-3	165.357E-12	646.432E-3	-15.2646E-3
4.12456E-3	159.176E-12	691.896E-3	-8.26232E-3	163.546E-12	646.461E-3	-26.6362E-3
4.11956E-3	159.681E-12	682.982E-3	-11.3328E-3	161.668E-12	651.392E-3	-32.4559E-3
4.11456E-3	160.040E-12	662.604E-3	-12.6255E-3	160.201E-12	641.813E-3	-27.7587E-3
4.10955E-3	160.567E-12	654.237E-3	-2.93599E-3	157.818E-12	633.674E-3	-14.4556E-3
4.10455E-3	161.000E-12	655.488E-3	-7.11352E-3	155.830E-12	624.307E-3	-5.37136E-3
4.09955E-3	161.648E-12	665.389E-3	-18.7387E-3	155.045E-12	615.356E-3	-22.1120E-3
4.09455E-3	162.354E-12	652.444E-3	-29.0954E-3	154.852E-12	628.183E-3	-50.4846E-3
4.08954E-3	162.257E-12	638.460E-3	-45.6458E-3	154.638E-12	664.822E-3	-61.1946E-3
4.08454E-3	162.667E-12	643.982E-3	-37.5058E-3	154.828E-12	693.623E-3	-39.7121E-3
4.07954E-3	161.593E-12	663.669E-3	-4.81098E-3	155.750E-12	690.124E-3	-14.9661E-3
4.07454E-3	161.551E-12	684.219E-3	3.30099E-3	157.828E-12	686.871E-3	-26.1104E-3
4.06953E-3	161.217E-12	686.457E-3	-16.8455E-3	158.568E-12	692.958E-3	-44.1763E-3
4.06453E-3	161.527E-12	676.504E-3	-32.8788E-3	160.357E-12	694.066E-3	-38.0753E-3
4.05953E-3	159.590E-12	663.401E-3	-37.0475E-3	162.224E-12	691.141E-3	-24.6063E-3
4.05453E-3	158.920E-12	669.308E-3	-35.5631E-3	163.620E-12	692.205E-3	-20.3288E-3
4.04952E-3	158.290E-12	673.679E-3	-19.6323E-3	163.756E-12	685.227E-3	-30.1096E-3
4.04452E-3	157.862E-12	661.922E-3	-24.0423E-3	164.158E-12	671.464E-3	-27.4338E-3
4.03952E-3	156.095E-12	660.375E-3	-46.1465E-3	164.434E-12	678.072E-3	-5.48434E-3
4.03452E-3	155.297E-12	650.667E-3	-25.3424E-3	162.969E-12	687.949E-3	-629.822E-6
4.02951E-3	155.322E-12	625.230E-3	2.25998E-3	161.724E-12	685.387E-3	-7.00706E-3
4.02451E-3	155.264E-12	616.398E-3	-16.7602E-3	159.905E-12	671.927E-3	-3.37929E-3
4.01951E-3	154.469E-12	621.501E-3	-20.8037E-3	158.474E-12	659.200E-3	-7.90056E-3
4.01451E-3	154.499E-12	622.335E-3	-6.66746E-3	156.579E-12	663.554E-3	-28.1870E-3
4.00950E-3	155.124E-12	622.638E-3	-24.2725E-3	154.693E-12	677.617E-3	-41.3551E-3
4.00450E-3	155.799E-12	644.661E-3	-29.4303E-3	153.660E-12	673.841E-3	-29.9268E-3
3.99950E-3	156.356E-12	665.857E-3	-16.9728E-3	152.572E-12	651.015E-3	-15.8915E-3
3.99450E-3	156.674E-12	655.124E-3	-25.0723E-3	151.642E-12	631.846E-3	-26.7564E-3
3.98949E-3	156.737E-12	646.437E-3	-38.6387E-3	151.239E-12	626.240E-3	-27.0841E-3
3.98449E-3	157.223E-12	661.539E-3	-33.9868E-3	151.780E-12	639.672E-3	-13.4201E-3
3.97949E-3	157.104E-12	689.181E-3	-24.2372E-3	151.215E-12	654.669E-3	-16.8322E-3
3.97449E-3	156.842E-12	713.904E-3	-23.8548E-3	151.705E-12	660.519E-3	-9.49204E-3
3.96948E-3	156.190E-12	704.196E-3	-20.3516E-3	153.014E-12	663.778E-3	315.455E-6
3.96448E-3	155.411E-12	666.539E-3	-8.33657E-3	154.187E-12	654.696E-3	-7.21197E-3
3.95948E-3	155.766E-12	653.754E-3	1.61755E-3	154.778E-12	660.049E-3	-8.44015E-3
3.95448E-3	154.804E-12	661.543E-3	10.2105E-3	155.647E-12	697.664E-3	-14.6063E-3
3.94947E-3	154.510E-12	669.513E-3	-9.85656E-3	157.032E-12	714.788E-3	-21.6959E-3
3.94447E-3	153.062E-12	681.551E-3	-40.1837E-3	157.850E-12	704.432E-3	-18.6321E-3
3.93947E-3	152.956E-12	687.445E-3	-21.7103E-3	158.138E-12	688.175E-3	-39.9683E-3
3.93447E-3	152.118E-12	683.911E-3	-449.506E-6	157.964E-12	669.835E-3	-66.5290E-3
3.92946E-3	152.009E-12	676.915E-3	-8.57928E-3	158.195E-12	676.769E-3	-49.7417E-3
3.92446E-3	150.614E-12	661.124E-3	-8.23863E-3	157.004E-12	681.409E-3	-25.8778E-3
3.91946E-3	149.947E-12	645.839E-3	-12.1757E-3	156.311E-12	650.544E-3	-20.2346E-3
3.91446E-3	150.016E-12	647.139E-3	-25.9790E-3	155.198E-12	630.787E-3	-7.02164E-3
3.90945E-3	150.689E-12	648.733E-3	-16.7203E-3	154.375E-12	642.971E-3	-5.67950E-3
3.90445E-3	151.390E-12	652.406E-3	-2.93100E-3	152.570E-12	662.363E-3	-15.3400E-3
3.89945E-3	150.695E-12	654.839E-3	-8.15962E-3	151.097E-12	668.465E-3	-13.9043E-3
3.89445E-3	151.042E-12	633.436E-3	-16.9359E-3	149.948E-12	659.261E-3	-12.3655E-3
3.88944E-3	151.589E-12	616.102E-3	-17.6721E-3	148.953E-12	659.820E-3	-15.2638E-3
3.88444E-3	152.346E-12	646.977E-3	-5.61193E-3	148.065E-12	668.194E-3	-5.89481E-3
3.87944E-3	153.025E-12	681.913E-3	-5.98489E-3	146.850E-12	659.237E-3	-2.61648E-3
3.87444E-3	152.679E-12	674.917E-3	-26.1399E-3	146.934E-12	637.610E-3	-20.9618E-3
3.86943E-3	153.064E-12	664.483E-3	-33.3856E-3	146.687E-12	634.282E-3	-21.8732E-3
3.86443E-3	152.736E-12	660.362E-3	-27.3026E-3	147.109E-12	644.567E-3	-12.4244E-3
3.85943E-3	153.356E-12	648.979E-3	-22.4946E-3	147.819E-12	651.218E-3	-20.3966E-3
3.85443E-3	153.190E-12	661.453E-3	-17.3276E-3	147.963E-12	663.422E-3	-25.8017E-3
3.84942E-3	151.839E-12	692.409E-3	-10.1160E-3	148.948E-12	669.429E-3	-27.9988E-3
3.84442E-3	151.305E-12	708.722E-3	672.633E-6	150.129E-12	666.851E-3	-29.8788E-3
3.83942E-3	150.537E-12	709.933E-3	-15.8315E-3	151.717E-12	672.799E-3	-20.3797E-3
3.83442E-3	150.083E-12	680.683E-3	-43.1491E-3	151.625E-12	686.502E-3	-13.5532E-3
3.82941E-3	148.963E-12	646.590E-3	-37.9060E-3	151.768E-12	685.912E-3	-16.8375E-3
3.82441E-3	147.709E-12	656.683E-3	-31.3230E-3	151.590E-12	659.750E-3	-23.9572E-3
3.81941E-3	147.172E-12	668.232E-3	-30.6325E-3	151.749E-12	639.873E-3	-11.1284E-3
3.81441E-3	147.099E-12	649.775E-3	-24.9636E-3	150.665E-12	636.531E-3	5.65594E-3
3.80940E-3	147.476E-12	654.335E-3	-12.3414E-3	149.906E-12	637.915E-3	-9.93782E-3
3.80440E-3	146.608E-12	680.998E-3	206.474E-6	148.570E-12	660.818E-3	-29.5986E-3
3.79940E-3	146.673E-12	689.705E-3	-18.2617E-3	147.328E-12	685.939E-3	-22.1686E-3
3.79440E-3	147.131E-12	687.623E-3	-41.3928E-3	145.815E-12	676.020E-3	-8.73964E-3
3.78939E-3	147.614E-12	669.468E-3	-32.4314E-3	144.038E-12	646.289E-3	-20.2964E-3
3.78439E-3	148.322E-12	639.030E-3	-17.0439E-3	142.950E-12	636.909E-3	-45.1521E-3
3.77939E-3	148.297E-12	631.596E-3	-11.3310E-3	141.754E-12	632.119E-3	-47.5563E-3
3.77439E-3	149.156E-12	647.775E-3	-3.73257E-3	141.594E-12	622.432E-3	-24.2280E-3
3.76938E-3	149.717E-12	672.538E-3	-7.62899E-3	140.653E-12	618.387E-3	-8.36202E-3
3.76438E-3	149.207E-12	682.041E-3	-24.7610E-3	140.831E-12	616.215E-3	-10.9010E-3
3.75938E-3	148.505E-12	670.964E-3	-17.9197E-3	140.872E-12	632.679E-3	-11.4050E-3
3.75438E-3	148.200E-12	661.576E-3	-9.15771E-3	141.813E-12	660.898E-3	-16.3870E-3
3.74937E-3	147.475E-12	663.545E-3	-27.9228E-3	143.556E-12	690.651E-3	-20.3048E-3
3.74437E-3	146.572E-12	684.090E-3	-29.4442E-3	144.503E-12	709.656E-3	-4.87300E-3
3.73937E-3	145.385E-12	702.904E-3	-20.6471E-3	145.653E-12	691.861E-3	4.30543E-3
3.73437E-3	144.785E-12	693.948E-3	-24.6147E-3	147.426E-12	671.969E-3	-804.932E-6
3.72936E-3	142.676E-12	679.187E-3	-31.2900E-3	148.911E-12	695.022E-3	2.23773E-3
3.72436E-3	141.822E-12	663.831E-3	-27.6462E-3	149.178E-12	719.329E-3	11.1237E-3
3.71936E-3	141.143E-12	639.557E-3	-22.4754E-3	149.201E-12	698.265E-3	-912.746E-6
3.71436E-3	140.910E-12	639.101E-3	-26.5927E-3	149.060E-12	660.230E-3	-33.1923E-3
3.70935E-3	140.266E-12	652.839E-3	-23.9003E-3	148.058E-12	677.799E-3	-45.1130E-3
3.70435E-3	139.874E-12	644.051E-3	-20.6511E-3	146.617E-12	716.307E-3	-25.3207E-3
3.69935E-3	139.949E-12	633.904E-3	-15.9559E-3	144.465E-12	700.571E-3	3.31288E-3
3.69435E-3	139.950E-12	638.799E-3	-14.7502E-3	143.489E-12	676.068E-3	15.0454E-3
3.68934E-3	140.387E-12	644.246E-3	-29.5581E-3	141.680E-12	677.617E-3	6.85254E-3
3.68434E-3	140.784E-12	649.334E-3	-42.1804E-3	141.089E-12	664.663E-3	-11.0135E-3
3.67934E-3	141.444E-12	650.180E-3	-32.2675E-3	139.841E-12	649.647E-3	-31.4891E-3
3.67434E-3	141.826E-12	643.299E-3	-24.8215E-3	139.061E-12	659.630E-3	-40.1748E-3
3.66933E-3	142.394E-12	651.207E-3	-33.2596E-3	138.209E-12	653.015E-3	-25.2469E-3
3.66433E-3	142.262E-12	663.903E-3	-36.3659E-3	138.135E-12	640.592E-3	-3.02359E-3
3.65933E-3	141.879E-12	654.490E-3	-30.2904E-3	138.650E-12	652.171E-3	-10.9131E-3
3.65433E-3	141.747E-12	655.558E-3	-19.8694E-3	138.797E-12	669.633E-3	-32.9986E-3
3.64932E-3	141.178E-12	670.578E-3	-9.00364E-3	139.415E-12	678.550E-3	-20.3195E-3
3.64432E-3	141.091E-12	676.301E-3	-5.68781E-3	140.375E-12	673.515E-3	-1.56863E-3
3.63932E-3	140.627E-12	687.159E-3	-14.2088E-3	142.095E-12	664.900E-3	-13.3973E-3
3.63432E-3	139.821E-12	688.767E-3	-22.3614E-3	142.098E-12	669.945E-3	-22.1756E-3
3.62931E-3	139.361E-12	666.685E-3	-28.5541E-3	143.120E-12	680.816E-3	-24.6689E-3
3.62431E-3	138.424E-12	661.944E-3	-32.7363E-3	143.716E-12	676.827E-3	-32.9820E-3
3.61931E-3	138.041E-12	678.170E-3	-15.4377E-3	144.201E-12	670.410E-3	-35.8716E-3
3.61431E-3	137.965E-12	673.465E-3	-15.3973E-3	143.750E-12	667.829E-3	-25.7421E-3
3.60930E-3	137.883E-12	663.207E-3	-39.1553E-3	142.951E-12	653.598E-3	-6.63102E-3
3.60430E-3	137.224E-12	661.188E-3	-28.5402E-3	142.919E-12	655.345E-3	-2.41916E-3
3.59930E-3	136.552E-12	647.176E-3	-937.099E-6	141.723E-12	673.609E-3	-6.02564E-3
3.59430E-3	137.074E-12	638.709E-3	1.72157E-3	139.864E-12	662.176E-3	-5.58203E-3
3.58929E-3	138.513E-12	645.407E-3	-11.9923E-3	138.714E-12	649.264E-3	-8.23446E-3
3.58429E-3	138.302E-12	643.016E-3	-34.6538E-3	137.740E-12	655.645E-3	-15.3553E-3
3.57929E-3	137.573E-12	651.055E-3	-58.6289E-3	136.007E-12	658.047E-3	-29.5254E-3
3.57429E-3	138.464E-12	675.296E-3	-57.9680E-3	134.312E-12	660.793E-3	-37.6320E-3
3.56928E-3	139.623E-12	677.332E-3	-44.0518E-3	134.188E-12	655.214E-3	-35.1948E-3
3.56428E-3	140.159E-12	660.611E-3	-48.2365E-3	133.113E-12	640.878E-3	-32.6477E-3
3.55928E-3	139.617E-12	662.835E-3	-51.6529E-3	132.181E-12	644.169E-3	-27.2435E-3
3.55428E-3	139.070E-12	668.494E-3	-41.6306E-3	132.142E-12	658.774E-3	-32.3928E-3
3.54927E-3	139.263E-12	666.336E-3	-38.1138E-3	133.112E-12	671.278E-3	-31.0558E-3
3.54427E-3	139.898E-12	683.067E-3	-39.2425E-3	133.289E-12	677.870E-3	-3.95981E-3
3.53927E-3	138.567E-12	692.977E-3	-33.6448E-3	133.563E-12	671.390E-3	13.3161E-3
3.53427E-3	137.526E-12	691.646E-3	-24.7155E-3	134.616E-12	661.260E-3	-1.84837E-3
3.52926E-3	137.035E-12	685.102E-3	-14.0376E-3	135.686E-12	659.854E-3	-21.7850E-3
3.52426E-3	137.260E-12	666.702E-3	2.37609E-3	136.246E-12	667.121E-3	-23.0630E-3
3.51926E-3	135.938E-12	652.321E-3	18.9397E-3	137.380E-12	670.249E-3	-26.4941E-3
3.51426E-3	134.567E-12	661.574E-3	16.6274E-3	138.232E-12	665.233E-3	-23.4854E-3
3.50925E-3	134.183E-12	678.726E-3	-8.66230E-3	137.602E-12	671.111E-3	-15.0333E-3
3.50425E-3	134.018E-12	672.475E-3	-29.4083E-3	138.106E-12	687.387E-3	-25.6689E-3
3.49925E-3	133.224E-12	677.329E-3	-30.6298E-3	137.604E-12	680.291E-3	-37.4186E-3
3.49425E-3	131.698E-12	690.215E-3	-15.9292E-3	137.204E-12	676.623E-3	-36.7019E-3
3.48924E-3	131.968E-12	674.923E-3	-22.9965E-3	135.139E-12	687.901E-3	-27.8122E-3
3.48424E-3	132.591E-12	665.694E-3	-35.5446E-3	134.561E-12	671.089E-3	-18.8626E-3
3.47924E-3	133.491E-12	657.033E-3	-16.9432E-3	133.701E-12	653.211E-3	-10.0183E-3
3.47424E-3	132.797E-12	634.520E-3	-5.46569E-3	132.824E-12	658.250E-3	-5.57718E-3
3.46923E-3	132.617E-12	657.625E-3	-2.82460E-3	131.389E-12	658.567E-3	-12.1364E-3
3.46423E-3	132.884E-12	696.480E-3	6.49981E-3	129.831E-12	654.715E-3	-9.44419E-3
3.45923E-3	133.445E-12	694.342E-3	341.501E-6	129.354E-12	658.340E-3	1.23445E-3
3.45423E-3	134.138E-12	690.243E-3	-19.0746E-3	128.376E-12	657.906E-3	-2.97472E-3
3.44922E-3	133.642E-12	690.458E-3	-10.2375E-3	128.005E-12	656.243E-3	-18.8057E-3
3.44422E-3	133.087E-12	679.646E-3	77.6364E-6	128.523E-12	659.505E-3	-17.5120E-3
3.43922E-3	133.252E-12	681.098E-3	-18.0781E-3	129.455E-12	650.111E-3	-8.49452E-3
3.43422E-3	133.710E-12	685.868E-3	-25.1454E-3	129.513E-12	651.341E-3	-13.1363E-3
3.42921E-3	132.641E-12	682.819E-3	-21.5708E-3	129.401E-12	680.453E-3	-14.3477E-3
3.42421E-3	130.982E-12	694.468E-3	-16.0981E-3	130.547E-12	697.273E-3	-5.77775E-3
3.41921E-3	129.779E-12	696.324E-3	-14.2956E-3	131.606E-12	696.616E-3	1.08555E-3
3.41421E-3	129.366E-12	675.083E-3	-28.7229E-3	132.435E-12	694.934E-3	-6.69421E-3
3.40920E-3	129.053E-12	664.813E-3	-37.3991E-3	132.322E-12	692.834E-3	-14.1143E-3
3.40420E-3	127.227E-12	668.598E-3	-26.5662E-3	132.875E-12	693.338E-3	-14.1662E-3
3.39920E-3	126.371E-12	671.871E-3	-15.1056E-3	133.363E-12	691.144E-3	-30.2165E-3
3.39420E-3	125.794E-12	670.951E-3	-19.4865E-3	133.280E-12	684.272E-3	-32.2958E-3
3.38919E-3	126.575E-12	670.234E-3	-26.0888E-3	132.389E-12	684.265E-3	-6.89001E-3
3.38419E-3	126.109E-12	672.102E-3	-29.5427E-3	130.996E-12	687.709E-3	-11.7230E-3
3.37919E-3	126.387E-12	667.565E-3	-33.6338E-3	130.204E-12	673.983E-3	-40.6069E-3
3.37419E-3	126.528E-12	649.846E-3	-22.2957E-3	129.852E-12	663.392E-3	-36.2558E-3
3.36918E-3	127.170E-12	631.825E-3	-13.6171E-3	129.137E-12	680.476E-3	-24.1340E-3
3.36418E-3	128.064E-12	632.917E-3	-31.3254E-3	126.822E-12	680.187E-3	-31.9924E-3
3.35918E-3	128.227E-12	651.153E-3	-47.1918E-3	125.460E-12	656.357E-3	-30.6914E-3
3.35418E-3	128.225E-12	652.807E-3	-40.4555E-3	125.253E-12	650.971E-3	-31.1460E-3
3.34917E-3	128.563E-12	648.332E-3	-37.6161E-3	125.039E-12	653.578E-3	-43.8915E-3
3.34417E-3	129.724E-12	661.972E-3	-39.8574E-3	124.200E-12	659.058E-3	-24.1955E-3
3.33917E-3	129.495E-12	676.361E-3	-25.4821E-3	123.758E-12	664.159E-3	16.0709E-3
3.33417E-3	129.180E-12	693.753E-3	-28.5462E-3	124.056E-12	656.452E-3	25.2859E-3
3.32916E-3	128.803E-12	714.193E-3	-49.1598E-3	125.288E-12	658.613E-3	18.8885E-3
3.32416E-3	128.080E-12	713.230E-3	-43.5235E-3	125.851E-12	680.927E-3	7.78921E-3
3.31916E-3	126.972E-12	687.371E-3	-33.4857E-3	126.152E-12	696.037E-3	-10.9852E-3
3.31416E-3	125.844E-12	676.746E-3	-41.8710E-3	126.432E-12	697.766E-3	-14.3291E-3
3.30915E-3	124.976E-12	680.552E-3	-32.3438E-3	127.763E-12	703.434E-3	-9.02092E-3
3.30415E-3	124.303E-12	655.486E-3	-5.38591E-3	128.635E-12	709.559E-3	-20.6929E-3
3.29915E-3	123.540E-12	641.570E-3	-7.27465E-3	129.061E-12	702.865E-3	-47.9984E-3
3.29415E-3	122.702E-12	658.948E-3	-17.9253E-3	128.734E-12	696.448E-3	-57.2781E-3
3.28914E-3	122.283E-12	663.341E-3	-11.4307E-3	128.799E-12	699.315E-3	-40.9483E-3
3.28414E-3	122.811E-12	666.036E-3	-15.9691E-3	128.397E-12	699.248E-3	-26.9543E-3
3.27914E-3	123.107E-12	674.923E-3	-42.4021E-3	127.401E-12	691.266E-3	-17.8661E-3
3.27414E-3	123.115E-12	667.661E-3	-56.2508E-3	126.296E-12	681.952E-3	-17.0101E-3
3.26913E-3	122.769E-12	653.361E-3	-28.7178E-3	124.773E-12	666.077E-3	-16.6040E-3
3.26413E-3	123.104E-12	662.398E-3	3.61650E-3	123.976E-12	642.291E-3	-2.86643E-3
3.25913E-3	123.915E-12	688.254E-3	769.026E-6	123.046E-12	633.657E-3	-2.89365E-3
3.25413E-3	124.928E-12	702.460E-3	-10.0950E-3	121.503E-12	641.573E-3	-15.0195E-3
3.24912E-3	124.604E-12	688.794E-3	-10.4900E-3	120.366E-12	646.591E-3	-16.9805E-3
3.24412E-3	124.822E-12	666.062E-3	-9.09936E-3	120.071E-12	655.027E-3	-8.83937E-3
3.23912E-3	125.538E-12	680.673E-3	-1.70367E-3	119.806E-12	672.603E-3	10.2777E-3
3.23412E-3	126.130E-12	717.037E-3	-4.67436E-3	119.427E-12	681.732E-3	10.8660E-3
3.22911E-3	124.915E-12	723.386E-3	-22.7414E-3	119.542E-12	685.378E-3	-11.7880E-3
3.22411E-3	124.379E-12	705.306E-3	-32.2134E-3	119.954E-12	692.296E-3	-33.0957E-3
3.21911E-3	123.896E-12	693.100E-3	-16.8529E-3	120.468E-12	698.458E-3	-38.1618E-3
3.21411E-3	123.772E-12	682.991E-3	-5.99439E-3	120.789E-12	713.144E-3	-20.1600E-3
3.20910E-3	122.529E-12	675.248E-3	-24.3407E-3	121.093E-12	722.118E-3	-5.51211E-3
3.20410E-3	121.438E-12	673.690E-3	-34.3837E-3	121.421E-12	706.309E-3	566.624E-6
3.19910E-3	120.692E-12	662.232E-3	-23.8459E-3	121.983E-12	690.892E-3	-4.66658E-3
3.19410E-3	119.899E-12	652.659E-3	-7.66993E-3	123.181E-12	691.688E-3	-26.5572E-3
3.18909E-3	119.002E-12	653.573E-3	11.1062E-3	123.003E-12	701.903E-3	-31.0418E-3
3.18409E-3	118.164E-12	649.032E-3	12.7735E-3	122.304E-12	712.373E-3	-23.0797E-3
3.17909E-3	118.033E-12	642.829E-3	-10.2630E-3	121.657E-12	703.522E-3	-24.0042E-3
3.17409E-3	117.900E-12	644.055E-3	-34.9802E-3	121.768E-12	680.423E-3	-23.4592E-3
3.16908E-3	117.981E-12	655.125E-3	-41.1876E-3	121.148E-12	662.755E-3	-31.7357E-3
3.16408E-3	117.649E-12	670.971E-3	-34.5443E-3	119.295E-12	654.806E-3	-31.6200E-3
3.15908E-3	118.342E-12	684.905E-3	-23.4005E-3	117.670E-12	659.247E-3	-2.88469E-3
3.15408E-3	118.965E-12	693.485E-3	-19.6568E-3	117.138E-12	664.004E-3	6.35729E-3
3.14907E-3	119.120E-12	682.566E-3	-36.5369E-3	116.683E-12	645.081E-3	-5.94038E-3
3.14407E-3	119.357E-12	661.310E-3	-43.2271E-3	114.722E-12	622.485E-3	-11.3313E-3
3.13907E-3	119.791E-12	661.074E-3	-19.0536E-3	113.807E-12	637.936E-3	-28.4514E-3
3.13407E-3	119.894E-12	669.907E-3	-3.82354E-3	113.176E-12	661.991E-3	-42.5035E-3
3.12906E-3	119.325E-12	676.922E-3	-22.3517E-3	113.492E-12	661.302E-3	-25.4462E-3
3.12406E-3	119.146E-12	694.970E-3	-43.7343E-3	113.612E-12	654.048E-3	-11.2458E-3
3.11906E-3	118.504E-12	710.460E-3	-40.1437E-3	114.080E-12	652.048E-3	-30.4546E-3
3.11406E-3	118.232E-12	704.206E-3	-14.5638E-3	114.768E-12	664.441E-3	-35.6682E-3
3.10905E-3	116.485E-12	692.947E-3	21.2775E-3	115.173E-12	692.904E-3	-9.29350E-3
3.10405E-3	115.744E-12	686.214E-3	37.2100E-3	116.065E-12	712.415E-3	-4.60554E-3
3.09905E-3	114.382E-12	681.893E-3	12.6451E-3	116.849E-12	709.167E-3	-13.0630E-3
3.09405E-3	113.831E-12	673.962E-3	-21.9574E-3	117.659E-12	698.857E-3	-7.14015E-3
3.08904E-3	112.832E-12	657.783E-3	-34.8367E-3	118.038E-12	685.280E-3	-13.4295E-3
3.08404E-3	111.670E-12	655.554E-3	-29.1942E-3	118.293E-12	671.688E-3	-20.2754E-3
3.07904E-3	111.642E-12	667.897E-3	-11.3820E-3	118.593E-12	676.729E-3	-10.3120E-3
3.07404E-3	111.059E-12	671.262E-3	-13.3045E-3	118.615E-12	692.774E-3	-2.61091E-3
3.06903E-3	111.419E-12	666.696E-3	-34.2389E-3	118.466E-12	704.353E-3	-1.32241E-3
3.06403E-3	111.513E-12	660.398E-3	-21.8147E-3	117.293E-12	699.098E-3	4.08423E-3
3.05903E-3	111.964E-12	647.212E-3	2.02354E-3	116.440E-12	675.295E-3	235.604E-6
3.05403E-3	112.395E-12	645.319E-3	-7.18593E-3	115.535E-12	653.020E-3	-20.5105E-3
3.04902E-3	112.989E-12	648.759E-3	-25.3501E-3	114.322E-12	648.866E-3	-28.3815E-3
3.04402E-3	113.215E-12	636.976E-3	-25.3715E-3	112.849E-12	655.422E-3	-12.3623E-3
3.03902E-3	113.321E-12	638.084E-3	-14.7491E-3	111.390E-12	654.542E-3	80.4006E-6
3.03402E-3	113.846E-12	667.857E-3	-7.72089E-3	110.451E-12	658.768E-3	-10.1019E-3
3.02901E-3	113.531E-12	682.764E-3	-17.0548E-3	110.412E-12	678.185E-3	-21.9078E-3
3.02401E-3	114.197E-12	688.307E-3	-27.4905E-3	110.506E-12	678.017E-3	-17.6425E-3
3.01901E-3	114.096E-12	700.638E-3	-24.7717E-3	110.466E-12	668.071E-3	-6.50427E-3
3.01401E-3	114.118E-12	690.873E-3	-14.4408E-3	110.354E-12	682.841E-3	-6.02293E-3
3.00900E-3	113.198E-12	685.152E-3	-5.57058E-3	111.456E-12	693.241E-3	-11.3523E-3
3.00400E-3	112.767E-12	695.460E-3	-1.42791E-3	112.350E-12	682.816E-3	4.01417E-3
2.99900E-3	112.359E-12	698.552E-3	-10.4986E-3	112.288E-12	675.940E-3	12.0119E-3
2.99400E-3	111.781E-12	695.900E-3	-28.1184E-3	112.669E-12	687.991E-3	-18.4004E-3
2.98899E-3	110.629E-12	694.015E-3	-28.4576E-3	113.580E-12	709.949E-3	-33.4958E-3
2.98399E-3	110.416E-12	683.966E-3	-9.28766E-3	114.777E-12	718.732E-3	-16.1580E-3
2.97899E-3	109.918E-12	672.974E-3	7.19725E-3	114.847E-12	706.937E-3	-15.7099E-3
2.97399E-3	109.168E-12	683.576E-3	2.68104E-3	114.733E-12	690.295E-3	-33.0261E-3
2.96898E-3	109.118E-12	685.752E-3	904.628E-6	114.454E-12	688.907E-3	-48.0721E-3
2.96398E-3	109.052E-12	670.403E-3	3.95468E-3	114.191E-12	687.920E-3	-50.8113E-3
2.95898E-3	109.336E-12	669.061E-3	-1.88911E-3	113.360E-12	678.107E-3	-28.5263E-3
2.95398E-3	108.777E-12	673.899E-3	-2.86100E-3	111.831E-12	677.287E-3	-2.20016E-3
2.94897E-3	108.881E-12	676.974E-3	-10.2280E-3	110.819E-12	684.122E-3	-1.37761E-3
2.94397E-3	108.673E-12	680.356E-3	-21.9640E-3	108.992E-12	688.627E-3	-8.96981E-3
2.93897E-3	109.261E-12	674.052E-3	-18.0766E-3	107.981E-12	681.988E-3	-9.87923E-3
2.93397E-3	109.568E-12	678.172E-3	-10.8007E-3	107.235E-12	675.889E-3	-8.86462E-3
2.92896E-3	110.122E-12	704.953E-3	-9.34035E-3	105.892E-12	669.949E-3	4.94899E-3
2.92396E-3	110.207E-12	732.204E-3	-10.3953E-3	105.365E-12	660.213E-3	18.6525E-3
2.91896E-3	109.974E-12	732.205E-3	-16.9591E-3	105.167E-12	666.593E-3	-233.172E-6
2.91396E-3	110.045E-12	715.162E-3	-20.7304E-3	105.181E-12	682.715E-3	-35.5127E-3
2.90895E-3	109.593E-12	709.809E-3	-18.0351E-3	105.396E-12	693.206E-3	-39.9922E-3
2.90395E-3	109.126E-12	704.539E-3	-11.7891E-3	105.475E-12	690.192E-3	-30.5232E-3
2.89895E-3	108.269E-12	707.435E-3	-482.012E-6	105.787E-12	681.631E-3	-35.9954E-3
2.89395E-3	107.831E-12	712.037E-3	-1.09229E-3	106.402E-12	703.526E-3	-31.8404E-3
2.88894E-3	107.152E-12	693.782E-3	-13.8608E-3	106.854E-12	730.196E-3	-25.4776E-3
2.88394E-3	106.122E-12	682.263E-3	318.865E-6	107.367E-12	713.417E-3	-28.2125E-3
2.87894E-3	104.469E-12	687.436E-3	18.5843E-3	107.750E-12	698.568E-3	-15.1972E-3
2.87394E-3	103.791E-12	679.042E-3	1.19313E-3	107.699E-12	698.636E-3	-8.15614E-3
2.86893E-3	103.595E-12	662.593E-3	-10.9525E-3	108.281E-12	688.379E-3	-14.9872E-3
2.86393E-3	102.309E-12	650.721E-3	-7.64491E-3	108.222E-12	688.818E-3	-11.8575E-3
2.85893E-3	101.514E-12	645.117E-3	-7.76962E-3	107.827E-12	705.331E-3	-22.4697E-3
2.85393E-3	101.106E-12	656.736E-3	-4.93785E-3	106.957E-12	698.480E-3	-26.9732E-3
2.84892E-3	102.244E-12	663.436E-3	1.20859E-3	106.359E-12	674.026E-3	-9.60495E-3
2.84392E-3	101.835E-12	651.322E-3	-3.73077E-3	105.851E-12	673.179E-3	-5.91744E-3
2.83892E-3	102.187E-12	648.181E-3	-13.3926E-3	104.355E-12	684.014E-3	-14.4026E-3
2.83392E-3	102.357E-12	660.748E-3	-7.82328E-3	103.163E-12	694.932E-3	-9.16401E-3
2.82891E-3	103.264E-12	668.878E-3	-3.24211E-3	102.180E-12	704.275E-3	-1.01487E-3
2.82391E-3	103.994E-12	676.562E-3	-8.34665E-3	101.873E-12	689.663E-3	-11.2154E-3
2.81891E-3	104.539E-12	684.766E-3	-9.04371E-3	100.882E-12	662.828E-3	-19.6566E-3
2.81391E-3	104.286E-12	680.046E-3	-7.58705E-3	100.368E-12	669.451E-3	-36.2796E-3
2.80890E-3	104.435E-12	686.242E-3	5.60431E-3	100.001E-12	693.473E-3	-48.3060E-3
2.80390E-3	104.612E-12	706.399E-3	25.3874E-3	100.008E-12	696.592E-3	-26.8952E-3
2.79890E-3	104.685E-12	711.719E-3	15.9740E-3	100.226E-12	701.092E-3	-6.86385E-3
2.79390E-3	103.307E-12	712.641E-3	-25.0273E-3	100.433E-12	713.467E-3	-13.6082E-3
2.78889E-3	102.254E-12	713.205E-3	-40.6834E-3	101.174E-12	708.074E-3	-26.2325E-3
2.78389E-3	101.690E-12	699.152E-3	-20.0878E-3	101.038E-12	703.840E-3	-21.4494E-3
2.77889E-3	101.526E-12	688.479E-3	-12.5853E-3	101.751E-12	711.933E-3	-6.57552E-3
2.77389E-3	100.571E-12	703.576E-3	-14.2409E-3	102.590E-12	720.165E-3	-437.866E-6
2.76888E-3	99.3610E-12	713.134E-3	-18.8480E-3	103.233E-12	726.325E-3	-16.9650E-3
2.76388E-3	98.4629E-12	691.781E-3	-29.9542E-3	102.857E-12	714.594E-3	-46.8235E-3
2.75888E-3	98.6593E-12	667.194E-3	-30.3476E-3	103.053E-12	690.687E-3	-42.8900E-3
2.75388E-3	98.5999E-12	667.941E-3	-17.9515E-3	102.775E-12	689.526E-3	-11.6825E-3
2.74887E-3	98.4360E-12	698.953E-3	-8.36344E-3	102.270E-12	698.964E-3	-2.60360E-3
2.74387E-3	98.2745E-12	718.929E-3	-12.8088E-3	101.779E-12	694.508E-3	-10.9876E-3
2.73887E-3	98.5431E-12	707.848E-3	-18.5927E-3	101.012E-12	684.546E-3	-20.9712E-3
2.73387E-3	99.8611E-12	698.271E-3	-26.3035E-3	100.454E-12	680.069E-3	-27.2551E-3
2.72886E-3	100.494E-12	704.559E-3	-31.7615E-3	99.1851E-12	688.533E-3	-19.9971E-3
2.72386E-3	100.238E-12	709.490E-3	-22.2564E-3	98.3149E-12	702.317E-3	-6.92296E-3
2.71886E-3	100.185E-12	700.629E-3	-13.8824E-3	97.2865E-12	705.368E-3	-18.5605E-3
2.71386E-3	101.007E-12	698.274E-3	-15.4784E-3	96.7767E-12	703.612E-3	-45.8160E-3
2.70885E-3	101.134E-12	703.716E-3	-16.6516E-3	96.0412E-12	706.532E-3	-48.9794E-3
2.70385E-3	100.299E-12	713.009E-3	-12.4882E-3	95.6304E-12	707.974E-3	-39.3494E-3
2.69885E-3	99.5817E-12	731.391E-3	-10.9854E-3	95.1482E-12	686.355E-3	-24.5837E-3
2.69385E-3	99.6039E-12	738.992E-3	-8.98213E-3	95.3961E-12	669.699E-3	-190.944E-6
2.68884E-3	99.4660E-12	729.818E-3	-19.3766E-3	96.0729E-12	690.783E-3	-2.70509E-3
2.68384E-3	98.3135E-12	726.868E-3	-43.7945E-3	96.4931E-12	706.970E-3	-23.5176E-3
2.67884E-3	97.5058E-12	735.861E-3	-39.9558E-3	96.6803E-12	716.016E-3	-26.3826E-3
2.67384E-3	96.9234E-12	738.521E-3	-4.86849E-3	97.0959E-12	739.611E-3	-15.7466E-3
2.66883E-3	96.8101E-12	727.055E-3	-8.04229E-3	98.4491E-12	733.694E-3	-11.9453E-3
2.66383E-3	96.2576E-12	708.489E-3	-30.8016E-3	99.2818E-12	717.663E-3	-13.3445E-3
2.65883E-3	95.6292E-12	697.001E-3	-17.9154E-3	98.9500E-12	735.669E-3	-13.5491E-3
2.65383E-3	95.0605E-12	705.042E-3	210.231E-6	98.6036E-12	746.643E-3	-17.9005E-3
2.64882E-3	94.8810E-12	720.888E-3	16.1926E-3	98.8843E-12	732.625E-3	-9.46604E-3
2.64382E-3	94.6989E-12	709.814E-3	21.5075E-3	99.1878E-12	722.250E-3	1.38328E-3
2.63882E-3	95.1163E-12	690.096E-3	8.58631E-3	98.0289E-12	719.546E-3	-11.6668E-3
2.63382E-3	94.7851E-12	700.523E-3	-4.66472E-3	96.3118E-12	711.425E-3	-22.4514E-3
2.62881E-3	94.7464E-12	719.971E-3	-13.8230E-3	95.8929E-12	720.644E-3	-19.7551E-3
2.62381E-3	94.4333E-12	723.410E-3	-16.2981E-3	95.7225E-12	722.073E-3	-26.3013E-3
2.61881E-3	94.3862E-12	712.667E-3	-21.1645E-3	94.4018E-12	696.663E-3	-24.9972E-3
2.61381E-3	94.0258E-12	704.663E-3	-37.2776E-3	92.4809E-12	687.597E-3	-5.72438E-3
2.60880E-3	93.7688E-12	700.960E-3	-44.6758E-3	91.4566E-12	679.085E-3	-716.675E-6
2.60380E-3	93.4035E-12	684.033E-3	-30.2183E-3	91.3571E-12	667.585E-3	-9.37346E-3
2.59880E-3	93.5044E-12	680.109E-3	-9.76228E-3	90.9764E-12	666.957E-3	-18.1799E-3
2.59380E-3	93.4957E-12	706.219E-3	-2.91577E-3	90.4508E-12	675.599E-3	-23.1089E-3
2.58879E-3	92.6834E-12	723.066E-3	-15.4286E-3	90.2116E-12	698.680E-3	-14.9939E-3
2.58379E-3	92.0525E-12	711.055E-3	-29.5869E-3	90.7483E-12	714.368E-3	-14.4830E-3
2.57879E-3	91.8773E-12	702.620E-3	-30.1852E-3	90.9942E-12	714.754E-3	-16.6772E-3
2.57379E-3	91.7646E-12	716.444E-3	-26.5072E-3	91.3145E-12	716.134E-3	-205.550E-6
2.56878E-3	91.1481E-12	721.195E-3	-25.6244E-3	91.0880E-12	720.823E-3	13.4622E-3
2.56378E-3	90.3456E-12	714.785E-3	-27.4615E-3	91.5241E-12	718.012E-3	-3.41010E-3
2.55878E-3	89.5745E-12	725.331E-3	-35.6918E-3	92.2040E-12	710.242E-3	-38.1809E-3
2.55378E-3	89.3711E-12	731.910E-3	-35.8232E-3	92.7384E-12	726.991E-3	-45.9798E-3
2.54877E-3	89.2132E-12	730.804E-3	-20.0193E-3	92.2802E-12	758.062E-3	-26.3741E-3
2.54377E-3	88.7811E-12	729.658E-3	-13.7868E-3	92.0858E-12	750.528E-3	-12.3037E-3
2.53877E-3	88.3547E-12	704.974E-3	-20.1886E-3	92.1432E-12	717.534E-3	-15.1331E-3
2.53377E-3	88.0708E-12	677.703E-3	-24.1827E-3	91.7488E-12	703.788E-3	-29.7152E-3
2.52876E-3	88.3116E-12	672.242E-3	-19.0923E-3	91.1565E-12	703.490E-3	-26.7662E-3
2.52376E-3	88.6568E-12	687.441E-3	-8.22515E-3	90.4344E-12	706.668E-3	-463.937E-6
2.51876E-3	88.2281E-12	706.262E-3	-5.50784E-3	89.8253E-12	713.150E-3	8.02360E-3
2.51376E-3	88.2813E-12	703.479E-3	-7.44357E-3	88.8431E-12	708.765E-3	-12.0452E-3
2.50875E-3	88.5729E-12	683.972E-3	-10.9516E-3	88.2895E-12	703.422E-3	-26.9479E-3
2.50375E-3	88.7432E-12	681.696E-3	-26.2138E-3	87.9921E-12	709.209E-3	-23.4835E-3
2.49875E-3	88.1260E-12	715.059E-3	-30.3308E-3	87.1135E-12	716.965E-3	-1.60450E-3
2.49375E-3	88.2623E-12	738.037E-3	-12.3401E-3	86.3116E-12	727.965E-3	27.0420E-3
2.48874E-3	88.4990E-12	723.380E-3	-14.3442E-3	86.5415E-12	734.367E-3	19.0993E-3
2.48374E-3	88.5426E-12	715.696E-3	-34.6090E-3	86.8203E-12	725.589E-3	-6.86427E-3
2.47874E-3	87.8480E-12	714.496E-3	-42.1319E-3	86.3466E-12	730.298E-3	-8.78087E-3
2.47374E-3	87.2485E-12	715.988E-3	-47.0376E-3	85.8772E-12	749.655E-3	-7.30752E-3
2.46873E-3	87.1422E-12	731.370E-3	-44.3957E-3	86.2201E-12	749.454E-3	-13.0711E-3
2.46373E-3	86.4628E-12	732.990E-3	-27.9191E-3	86.6931E-12	730.035E-3	-16.5477E-3
2.45873E-3	86.0067E-12	715.131E-3	-21.3769E-3	86.4459E-12	727.621E-3	-22.1870E-3
2.45373E-3	85.4897E-12	706.691E-3	-25.3931E-3	86.7221E-12	751.592E-3	-34.9557E-3
2.44872E-3	85.1698E-12	720.665E-3	-24.2817E-3	86.9550E-12	772.922E-3	-31.5166E-3
2.44372E-3	84.4652E-12	721.713E-3	-11.4009E-3	87.5670E-12	768.336E-3	788.348E-6
2.43872E-3	84.2460E-12	717.144E-3	-5.99137E-3	86.9410E-12	739.428E-3	25.5286E-3
2.43372E-3	84.6701E-12	724.446E-3	-17.3681E-3	86.6532E-12	723.444E-3	20.2657E-3
2.42871E-3	84.6486E-12	726.069E-3	-22.1291E-3	86.7904E-12	731.970E-3	3.85984E-3
2.42371E-3	84.7248E-12	740.726E-3	-25.4519E-3	86.6587E-12	739.826E-3	-2.72219E-3
2.41871E-3	84.4605E-12	753.839E-3	-24.2376E-3	85.7888E-12	733.093E-3	341.152E-6
2.41371E-3	84.7913E-12	743.657E-3	-8.54431E-3	84.7729E-12	718.311E-3	50.8686E-6
2.40870E-3	84.9025E-12	735.952E-3	-15.9137E-3	84.1977E-12	707.052E-3	-12.1341E-3
2.40370E-3	84.9732E-12	725.326E-3	-37.0647E-3	83.6633E-12	701.572E-3	-23.8805E-3
2.39870E-3	84.9716E-12	713.254E-3	-40.8163E-3	83.1200E-12	720.954E-3	-24.4152E-3
2.39370E-3	84.9996E-12	734.065E-3	-39.5251E-3	82.3835E-12	743.648E-3	-28.5746E-3
2.38869E-3	85.3326E-12	759.039E-3	-28.9419E-3	81.7691E-12	729.716E-3	-30.1814E-3
2.38369E-3	84.9017E-12	746.906E-3	-5.49256E-3	81.3163E-12	717.107E-3	-23.4496E-3
2.37869E-3	84.7461E-12	736.160E-3	7.76259E-3	81.2059E-12	728.270E-3	-25.9425E-3
2.37369E-3	84.0516E-12	740.459E-3	4.57687E-3	80.8546E-12	738.641E-3	-29.7918E-3
2.36868E-3	83.4919E-12	725.696E-3	2.37143E-3	80.3582E-12	738.934E-3	-22.5512E-3
2.36368E-3	82.8373E-12	715.010E-3	-2.75504E-6	80.1193E-12	733.862E-3	-18.8352E-3
2.35868E-3	82.6127E-12	735.120E-3	-16.9930E-3	80.0401E-12	720.400E-3	-31.2226E-3
2.35368E-3	81.7608E-12	745.276E-3	-30.9650E-3	80.2508E-12	710.839E-3	-33.3534E-3
2.34867E-3	81.0868E-12	725.155E-3	-23.3244E-3	80.1122E-12	728.692E-3	-24.5963E-3
2.34367E-3	80.6602E-12	719.304E-3	-13.2565E-3	80.1666E-12	746.699E-3	-9.66379E-3
2.33867E-3	80.2146E-12	732.289E-3	-9.93619E-3	80.2417E-12	741.975E-3	15.3743E-3
2.33367E-3	79.9132E-12	737.929E-3	-13.0396E-3	80.8080E-12	733.611E-3	11.3907E-3
2.32866E-3	79.4271E-12	746.196E-3	-22.2558E-3	80.5921E-12	729.718E-3	-14.3582E-3
2.32366E-3	79.0242E-12	745.387E-3	-17.4526E-3	80.4084E-12	734.298E-3	-11.3178E-3
2.31866E-3	79.0895E-12	728.109E-3	-8.89972E-3	79.9269E-12	745.849E-3	-4.70299E-3
2.31366E-3	79.7527E-12	726.423E-3	-1.88025E-3	79.6696E-12	741.722E-3	-18.1545E-3
2.30865E-3	79.8505E-12	734.829E-3	10.7918E-3	79.3441E-12	730.963E-3	-8.83616E-3
2.30365E-3	79.8823E-12	737.149E-3	5.74770E-3	78.5600E-12	737.619E-3	-5.71157E-3
2.29865E-3	79.6104E-12	747.876E-3	-4.90482E-3	77.8768E-12	743.187E-3	-25.0263E-3
2.29365E-3	79.9410E-12	763.583E-3	-11.9146E-3	77.2927E-12	739.742E-3	-18.0310E-3
2.28864E-3	79.8675E-12	769.917E-3	-31.2297E-3	76.8282E-12	738.553E-3	-6.13688E-3
2.28364E-3	79.5779E-12	773.877E-3	-30.1957E-3	76.3418E-12	722.946E-3	-18.9412E-3
2.27864E-3	78.5350E-12	774.998E-3	-4.45362E-3	75.7004E-12	704.517E-3	-27.1736E-3
2.27364E-3	78.2729E-12	756.934E-3	-4.02219E-3	75.3827E-12	713.195E-3	-21.2914E-3
2.26863E-3	77.9347E-12	750.365E-3	-20.0699E-3	75.1552E-12	721.983E-3	-19.2560E-3
2.26363E-3	77.6054E-12	765.980E-3	-10.0406E-3	75.0808E-12	720.355E-3	-19.4794E-3
2.25863E-3	76.6770E-12	770.453E-3	-4.15655E-3	74.8123E-12	730.437E-3	-20.3896E-3
2.25363E-3	75.9255E-12	765.331E-3	-25.0780E-3	74.8810E-12	741.142E-3	-28.9036E-3
2.24862E-3	75.4923E-12	757.688E-3	-25.3843E-3	74.9758E-12	743.991E-3	-20.1799E-3
2.24362E-3	74.5547E-12	738.806E-3	-10.2062E-3	75.3041E-12	760.988E-3	-296.448E-6
2.23862E-3	73.9141E-12	727.272E-3	-8.45310E-3	75.3628E-12	764.282E-3	-8.56567E-3
2.23362E-3	73.5437E-12	732.557E-3	-8.64187E-3	75.8084E-12	739.473E-3	-15.2613E-3
2.22861E-3	73.9211E-12	730.626E-3	-8.79344E-3	76.2154E-12	744.624E-3	-13.3562E-3
2.22361E-3	74.4059E-12	723.371E-3	-12.6419E-3	76.2341E-12	767.990E-3	-35.9217E-3
2.21861E-3	74.1819E-12	715.847E-3	-16.3986E-3	75.8674E-12	775.344E-3	-46.5001E-3
2.21361E-3	73.4324E-12	714.456E-3	-20.4204E-3	75.4808E-12	780.933E-3	-20.4882E-3
2.20860E-3	74.0411E-12	734.219E-3	-22.9318E-3	74.8114E-12	773.440E-3	-8.08810E-3
2.20360E-3	74.9004E-12	763.354E-3	-24.8537E-3	74.3492E-12	755.452E-3	-21.1007E-3
2.19860E-3	74.9036E-12	761.439E-3	-18.2711E-3	73.7162E-12	754.883E-3	-20.6500E-3
2.19360E-3	74.2565E-12	742.318E-3	-14.2788E-3	73.2664E-12	760.835E-3	-12.2841E-3
2.18859E-3	74.1259E-12	757.214E-3	-17.0765E-3	72.6538E-12	754.464E-3	-5.57850E-3
2.18359E-3	74.5703E-12	773.459E-3	-16.8814E-3	72.3708E-12	748.519E-3	3.27305E-3
2.17859E-3	74.5746E-12	763.995E-3	-21.0095E-3	71.9733E-12	749.618E-3	-1.86694E-3
2.17359E-3	73.4867E-12	767.812E-3	-18.3339E-3	71.4733E-12	754.471E-3	-8.37971E-3
2.16858E-3	72.7841E-12	780.754E-3	-6.88553E-3	70.8754E-12	768.964E-3	-5.08534E-3
2.16358E-3	72.7170E-12	773.301E-3	-10.3313E-3	70.9857E-12	779.323E-3	-12.0253E-3
2.15858E-3	72.5917E-12	768.750E-3	-24.0557E-3	71.0017E-12	768.609E-3	-23.7979E-3
2.15358E-3	71.7870E-12	780.258E-3	-18.1243E-3	71.0475E-12	761.831E-3	-21.8706E-3
2.14857E-3	71.0668E-12	786.044E-3	-8.35134E-3	70.9367E-12	777.218E-3	-24.1486E-3
2.14357E-3	70.4076E-12	782.875E-3	-18.1170E-3	70.8297E-12	785.496E-3	-22.3352E-3
2.13857E-3	70.5099E-12	774.877E-3	-22.1494E-3	71.3405E-12	791.648E-3	-17.3578E-3
2.13357E-3	70.1017E-12	774.786E-3	-13.6759E-3	71.2607E-12	797.823E-3	-35.7572E-3
2.12856E-3	69.9009E-12	791.803E-3	-15.4236E-3	70.8568E-12	775.560E-3	-46.0210E-3
2.12356E-3	69.5075E-12	800.736E-3	-25.8493E-3	70.5158E-12	762.096E-3	-27.8931E-3
2.11856E-3	69.6135E-12	782.178E-3	-27.0543E-3	70.5177E-12	782.875E-3	-26.2820E-3
2.11356E-3	69.7300E-12	768.731E-3	-17.1518E-3	70.4686E-12	790.272E-3	-35.6000E-3
2.10855E-3	69.7729E-12	766.175E-3	-6.12156E-3	69.6135E-12	778.850E-3	-14.6537E-3
2.10355E-3	69.4639E-12	759.331E-3	-10.9417E-3	69.3317E-12	788.063E-3	-3.43957E-3
2.09855E-3	69.1419E-12	775.986E-3	-26.9664E-3	68.7503E-12	798.212E-3	-20.4253E-3
2.09355E-3	69.3589E-12	789.388E-3	-19.7424E-3	68.5523E-12	799.813E-3	-15.6831E-3
2.08854E-3	69.1713E-12	776.598E-3	-2.05058E-3	67.8693E-12	810.901E-3	-6.98902E-3
2.08354E-3	69.0873E-12	778.088E-3	1.57923E-3	67.3793E-12	805.570E-3	-23.0740E-3
2.07854E-3	68.4520E-12	790.093E-3	4.81204E-3	66.5671E-12	788.496E-3	-23.3657E-3
2.07354E-3	68.1230E-12	794.211E-3	3.38923E-3	66.3136E-12	786.124E-3	-19.9647E-3
2.06853E-3	67.7315E-12	802.048E-3	-9.99381E-3	65.8027E-12	791.996E-3	-31.7090E-3
2.06353E-3	67.3898E-12	806.952E-3	-13.5584E-3	66.0237E-12	794.036E-3	-18.4931E-3
2.05853E-3	66.6234E-12	805.805E-3	-7.74593E-3	65.5778E-12	793.173E-3	1.23322E-3
2.05353E-3	66.2992E-12	809.646E-3	-7.08378E-3	65.1856E-12	789.872E-3	-2.34019E-3
2.04852E-3	65.9450E-12	807.521E-3	-9.09025E-3	65.0874E-12	788.054E-3	-7.72267E-3
2.04352E-3	65.6660E-12	796.644E-3	-11.0847E-3	65.2346E-12	804.205E-3	-17.5897E-3
2.03852E-3	65.2397E-12	797.513E-3	-2.43369E-3	65.0892E-12	815.518E-3	-33.3725E-3
2.03352E-3	64.6161E-12	807.906E-3	14.8928E-3	64.7611E-12	811.094E-3	-26.0832E-3
2.02851E-3	64.0632E-12	809.770E-3	13.6223E-3	64.5850E-12	816.512E-3	-9.04415E-3
2.02351E-3	63.6962E-12	810.273E-3	-7.74138E-3	64.5581E-12	810.779E-3	-20.8207E-3
2.01851E-3	63.2689E-12	811.612E-3	-21.3068E-3	64.5733E-12	801.318E-3	-38.8506E-3
2.01351E-3	63.0311E-12	803.510E-3	-24.9773E-3	64.0777E-12	811.563E-3	-34.8423E-3
2.00850E-3	62.3825E-12	792.648E-3	-28.6004E-3	64.0648E-12	818.952E-3	-29.5340E-3
2.00350E-3	62.4423E-12	784.832E-3	-18.8863E-3	63.7659E-12	804.028E-3	-19.5298E-3
1.99850E-3	62.4270E-12	786.810E-3	116.037E-6	63.4501E-12	798.129E-3	-12.4702E-3
1.99350E-3	62.0315E-12	801.546E-3	-3.94291E-3	62.9616E-12	824.917E-3	-26.9209E-3
1.98849E-3	61.5529E-12	810.418E-3	-19.6504E-3	62.0837E-12	831.598E-3	-31.4648E-3
1.98349E-3	61.7026E-12	804.487E-3	-18.6047E-3	61.9506E-12	812.917E-3	-13.8906E-3
1.97849E-3	61.7280E-12	801.391E-3	-21.0099E-3	61.5541E-12	800.009E-3	-3.92546E-3
1.97349E-3	61.6225E-12	813.616E-3	-20.2880E-3	61.1494E-12	797.253E-3	-12.1166E-3
1.96848E-3	61.2840E-12	814.849E-3	-6.35654E-3	60.3835E-12	810.851E-3	-14.5399E-3
1.96348E-3	61.4370E-12	799.881E-3	-8.08073E-3	60.1988E-12	819.914E-3	-8.72191E-3
1.95848E-3	61.4388E-12	800.259E-3	-11.7441E-3	60.2693E-12	812.030E-3	-10.4549E-3
1.95348E-3	60.9445E-12	813.815E-3	-375.270E-6	59.7691E-12	808.862E-3	-7.40764E-3
1.94847E-3	60.5657E-12	826.084E-3	-2.71679E-3	58.9895E-12	818.180E-3	-6.87907E-3
1.94347E-3	60.3681E-12	840.649E-3	-14.6377E-3	58.6547E-12	817.429E-3	-11.3461E-3
1.93847E-3	59.9834E-12	841.397E-3	-8.66986E-3	59.0890E-12	810.924E-3	-5.32648E-3
1.93347E-3	59.2964E-12	833.186E-3	-10.5860E-3	58.7993E-12	822.361E-3	-3.78073E-3
1.92846E-3	58.8369E-12	839.316E-3	-20.1959E-3	58.8388E-12	826.856E-3	-10.7959E-3
1.92346E-3	58.2729E-12	832.365E-3	-9.78891E-3	58.5617E-12	831.907E-3	-5.68228E-3
1.91846E-3	57.8661E-12	811.754E-3	-9.76883E-3	58.7637E-12	858.243E-3	-316.406E-6
1.91346E-3	57.5558E-12	810.729E-3	-24.0847E-3	58.7216E-12	867.285E-3	-12.7024E-3
1.90845E-3	57.1700E-12	820.017E-3	-18.8526E-3	58.9249E-12	857.203E-3	-11.2210E-3
1.90345E-3	56.5944E-12	827.139E-3	-8.49325E-3	58.5183E-12	857.242E-3	4.61308E-3
1.89845E-3	56.6049E-12	835.814E-3	-11.3729E-3	58.2558E-12	858.230E-3	-5.97063E-3
1.89345E-3	56.4718E-12	837.142E-3	-13.1871E-3	57.9581E-12	854.142E-3	-15.5253E-3
1.88844E-3	56.5142E-12	832.037E-3	-15.2371E-3	57.8002E-12	854.702E-3	-6.47390E-3
1.88344E-3	56.3928E-12	839.634E-3	-27.8694E-3	57.4607E-12	850.288E-3	-12.0235E-3
1.87844E-3	56.5781E-12	853.221E-3	-31.6825E-3	56.3610E-12	845.745E-3	-9.90050E-3
1.87344E-3	56.7387E-12	848.846E-3	-32.0057E-3	55.9161E-12	843.226E-3	395.848E-6
1.86843E-3	56.8649E-12	856.792E-3	-43.3349E-3	55.9206E-12	833.577E-3	-18.1632E-3
1.86343E-3	56.5888E-12	883.150E-3	-48.0796E-3	55.4193E-12	836.087E-3	-37.6822E-3
1.85843E-3	56.3426E-12	888.922E-3	-37.1147E-3	54.3881E-12	855.269E-3	-19.8344E-3
1.85343E-3	56.3880E-12	893.797E-3	-28.3198E-3	53.8135E-12	864.879E-3	751.465E-6
1.84842E-3	56.1454E-12	907.941E-3	-25.6286E-3	54.1290E-12	859.402E-3	5.52577E-3
1.84342E-3	55.5046E-12	906.711E-3	-18.0099E-3	54.0601E-12	876.739E-3	5.76218E-3
1.83842E-3	54.7806E-12	892.046E-3	-15.0522E-3	53.2153E-12	904.448E-3	-8.59024E-3
1.83342E-3	54.4938E-12	882.575E-3	-19.5451E-3	53.1735E-12	900.720E-3	-12.9955E-3
1.82841E-3	53.9774E-12	881.283E-3	-33.1160E-3	53.5789E-12	899.527E-3	-370.797E-6
1.82341E-3	53.3121E-12	891.670E-3	-40.6666E-3	53.7545E-12	904.206E-3	-8.89292E-3
1.81841E-3	52.7570E-12	906.585E-3	-22.8608E-3	53.0791E-12	894.951E-3	-25.0470E-3
1.81341E-3	52.2358E-12	900.516E-3	-12.3303E-3	52.7640E-12	903.512E-3	-12.6921E-3
1.80840E-3	51.9371E-12	886.201E-3	-27.9749E-3	52.9800E-12	923.573E-3	-7.35395E-3
1.80340E-3	51.6566E-12	885.400E-3	-26.3369E-3	53.2947E-12	921.760E-3	-22.3495E-3
1.79840E-3	51.5994E-12	886.695E-3	-6.37374E-3	52.7298E-12	921.681E-3	-23.2872E-3
1.79340E-3	51.1308E-12	885.410E-3	-4.23782E-3	51.9509E-12	930.411E-3	-13.3254E-3
1.78839E-3	51.0702E-12	897.782E-3	-5.82059E-3	51.7132E-12	921.142E-3	-8.13481E-3
1.78339E-3	51.1924E-12	901.901E-3	-1.39907E-3	51.5564E-12	912.614E-3	-2.49554E-3
1.77839E-3	51.2137E-12	895.503E-3	-11.7619E-3	51.1365E-12	918.387E-3	1.74938E-3
1.77339E-3	50.9299E-12	910.897E-3	-19.7292E-3	50.1515E-12	907.391E-3	-5.02956E-3
1.76838E-3	50.5297E-12	933.657E-3	-9.17059E-3	49.4366E-12	886.670E-3	-8.83808E-3
1.76338E-3	50.5993E-12	944.082E-3	-1.24914E-3	49.1946E-12	884.116E-3	-6.16153E-3
1.75838E-3	50.2357E-12	947.062E-3	4.00488E-3	49.0050E-12	894.086E-3	-10.5994E-3
1.75338E-3	49.6762E-12	938.818E-3	6.40049E-3	48.4904E-12	912.492E-3	-10.4617E-3
1.74837E-3	49.0689E-12	928.388E-3	-11.0286E-3	47.8197E-12	927.404E-3	-11.3039E-3
1.74337E-3	48.8004E-12	936.083E-3	-28.1337E-3	47.4167E-12	929.850E-3	-30.5547E-3
1.73837E-3	48.4644E-12	939.259E-3	-18.7649E-3	47.5749E-12	942.426E-3	-31.6313E-3
1.73337E-3	47.9347E-12	930.141E-3	-12.4558E-3	47.4032E-12	974.581E-3	-10.5376E-3
1.72836E-3	47.1942E-12	934.286E-3	-11.8208E-3	46.8653E-12	992.006E-3	-5.87706E-3
1.72336E-3	46.6683E-12	945.958E-3	3.87712E-3	46.6386E-12	977.019E-3	-5.04114E-3
1.71836E-3	46.0501E-12	942.090E-3	6.90696E-3	46.6203E-12	962.407E-3	-4.21203E-3
1.71336E-3	45.7450E-12	937.693E-3	-3.83747E-3	46.9039E-12	961.137E-3	-17.5673E-3
1.70835E-3	45.3267E-12	943.160E-3	-5.13972E-3	46.6899E-12	968.760E-3	-22.7631E-3
1.70335E-3	44.9305E-12	943.871E-3	1.32389E-3	46.1068E-12	994.102E-3	-15.9391E-3
1.69835E-3	44.6270E-12	954.095E-3	1.34364E-3	45.6266E-12	1.00483E+0	-14.1118E-3
1.69335E-3	44.6531E-12	970.917E-3	-2.32460E-3	45.7171E-12	983.831E-3	-12.3423E-3
1.68834E-3	44.6544E-12	981.803E-3	-13.0981E-3	45.6978E-12	982.586E-3	-13.6601E-3
1.68334E-3	44.3688E-12	996.254E-3	-31.4608E-3	44.9298E-12	998.767E-3	-15.3266E-3
1.67834E-3	43.9962E-12	1.00042E+0	-29.5247E-3	43.9852E-12	996.613E-3	-6.29650E-3
1.67334E-3	43.7563E-12	984.945E-3	-19.7936E-3	43.7021E-12	997.656E-3	-10.7450E-3
1.66833E-3	43.6181E-12	984.067E-3	-24.9743E-3	43.9114E-12	999.617E-3	-35.1179E-3
1.66333E-3	43.2501E-12	1.00187E+0	-17.2107E-3	43.2580E-12	996.558E-3	-36.5065E-3
1.65833E-3	42.6668E-12	999.570E-3	1.09212E-3	42.4767E-12	1.01540E+0	-19.7957E-3
1.65333E-3	42.2458E-12	994.220E-3	-8.35542E-3	42.0429E-12	1.02777E+0	-18.5238E-3
1.64832E-3	42.0775E-12	1.00133E+0	-32.4140E-3	42.0553E-12	1.01733E+0	-14.3804E-3
1.64332E-3	41.7239E-12	997.771E-3	-41.0430E-3	41.6496E-12	1.02476E+0	1.35387E-3
1.63832E-3	41.3883E-12	1.00044E+0	-39.0979E-3	41.0280E-12	1.04309E+0	935.215E-6
1.63332E-3	40.7697E-12	1.01261E+0	-29.9500E-3	40.8343E-12	1.04327E+0	-5.92231E-3
1.62831E-3	40.3636E-12	1.01622E+0	-12.8801E-3	40.8234E-12	1.04428E+0	-1.67728E-3
1.62331E-3	40.0382E-12	1.02342E+0	-5.96022E-3	40.5652E-12	1.05777E+0	-8.65411E-3
1.61831E-3	39.7223E-12	1.03129E+0	-11.8463E-3	40.0320E-12	1.06535E+0	-18.6186E-3
1.61331E-3	39.2378E-12	1.02065E+0	-18.2108E-3	39.7810E-12	1.07499E+0	-15.9680E-3
1.60830E-3	38.9318E-12	1.01526E+0	-18.5378E-3	39.6183E-12	1.09837E+0	-18.2006E-3
1.60330E-3	38.7446E-12	1.02860E+0	-2.09321E-3	39.2842E-12	1.10237E+0	-21.0675E-3
1.59830E-3	38.4506E-12	1.03421E+0	12.5809E-3	39.0779E-12	1.09188E+0	-19.6311E-3
1.59330E-3	38.1507E-12	1.03340E+0	-3.74030E-3	38.7496E-12	1.10365E+0	-20.0082E-3
1.58829E-3	37.7667E-12	1.05022E+0	-26.8288E-3	38.2595E-12	1.11007E+0	-16.3926E-3
1.58329E-3	37.3516E-12	1.06670E+0	-24.4565E-3	37.8836E-12	1.10370E+0	-12.0136E-3
1.57829E-3	37.0281E-12	1.06676E+0	-21.7255E-3	37.7814E-12	1.10674E+0	-17.4308E-3
1.57329E-3	36.9434E-12	1.07674E+0	-29.5391E-3	37.4822E-12	1.10124E+0	-27.0127E-3
1.56828E-3	36.7663E-12	1.09633E+0	-18.2870E-3	36.7854E-12	1.10835E+0	-25.8278E-3
1.56328E-3	36.2276E-12	1.10465E+0	-10.4843E-3	36.0988E-12	1.13577E+0	-26.6093E-3
1.55828E-3	35.8243E-12	1.11550E+0	-13.7909E-3	36.0055E-12	1.13166E+0	-35.0652E-3
1.55328E-3	35.6492E-12	1.12218E+0	-9.51205E-3	35.8354E-12	1.12722E+0	-28.2860E-3
1.54827E-3	35.5619E-12	1.11841E+0	-13.4440E-3	35.0555E-12	1.15582E+0	-19.3515E-3
1.54327E-3	35.0548E-12	1.13921E+0	-13.9780E-3	34.2857E-12	1.16044E+0	-29.5948E-3
1.53827E-3	34.5695E-12	1.16365E+0	2.75056E-3	34.1635E-12	1.14551E+0	-40.6475E-3
1.53327E-3	34.3924E-12	1.15041E+0	-1.44467E-3	34.0176E-12	1.15574E+0	-34.8169E-3
1.52826E-3	34.1093E-12	1.13535E+0	-22.3795E-3	33.3612E-12	1.16680E+0	-18.5791E-3
1.52326E-3	33.5766E-12	1.14581E+0	-21.8463E-3	32.7427E-12	1.15714E+0	1.75120E-3
1.51826E-3	32.8126E-12	1.15243E+0	-14.4501E-3	32.4590E-12	1.15458E+0	12.8639E-3
1.51326E-3	32.4736E-12	1.16290E+0	-10.9550E-3	32.2933E-12	1.16377E+0	-5.68479E-3
1.50825E-3	32.1084E-12	1.17865E+0	-4.68712E-3	31.8509E-12	1.17649E+0	-22.1631E-3
1.50325E-3	31.5750E-12	1.17934E+0	-12.3460E-3	31.5418E-12	1.20750E+0	-17.8027E-3
1.49825E-3	30.9632E-12	1.18891E+0	-31.0810E-3	31.2083E-12	1.22323E+0	-15.1533E-3
1.49325E-3	30.4249E-12	1.20549E+0	-28.1578E-3	31.1385E-12	1.20077E+0	-7.23362E-3
1.48824E-3	29.9751E-12	1.19816E+0	-19.7510E-3	30.8643E-12	1.18588E+0	611.651E-6
1.48324E-3	29.5512E-12	1.18083E+0	-25.8789E-3	30.4920E-12	1.19979E+0	-17.0506E-3
1.47824E-3	29.0582E-12	1.17310E+0	-15.2629E-3	30.1294E-12	1.21753E+0	-32.1873E-3
1.47324E-3	28.6947E-12	1.16154E+0	5.47608E-3	29.5935E-12	1.22514E+0	-28.0805E-3
1.46823E-3	28.3544E-12	1.15248E+0	3.83561E-3	29.1022E-12	1.22285E+0	-32.9560E-3
1.46323E-3	27.9826E-12	1.16123E+0	-8.59461E-3	28.6880E-12	1.20925E+0	-37.0079E-3
1.45823E-3	27.7503E-12	1.17843E+0	-17.9427E-3	28.2618E-12	1.20688E+0	-32.0547E-3
1.45323E-3	27.6310E-12	1.19957E+0	-25.6579E-3	27.5523E-12	1.21841E+0	-34.2277E-3
1.44822E-3	27.3759E-12	1.21317E+0	-17.6777E-3	27.2747E-12	1.21468E+0	-32.0009E-3
1.44322E-3	26.7604E-12	1.20466E+0	-10.2044E-3	26.7187E-12	1.21207E+0	-19.2619E-3
1.43822E-3	26.5393E-12	1.20315E+0	-26.4674E-3	26.4474E-12	1.22023E+0	-18.1409E-3
1.43322E-3	26.3696E-12	1.22122E+0	-31.3222E-3	25.8529E-12	1.21722E+0	-28.2519E-3
1.42821E-3	26.0544E-12	1.22599E+0	-17.4377E-3	25.2707E-12	1.22199E+0	-27.0073E-3
1.42321E-3	25.3606E-12	1.22768E+0	-12.5237E-3	25.0225E-12	1.23122E+0	-22.5295E-3
1.41821E-3	24.7615E-12	1.24303E+0	-7.83650E-3	24.6806E-12	1.21800E+0	-26.1168E-3
1.41321E-3	24.4331E-12	1.23830E+0	-3.24684E-3	24.2735E-12	1.21853E+0	-24.0096E-3
1.40820E-3	23.9533E-12	1.22113E+0	-8.98094E-3	23.6663E-12	1.23421E+0	-30.8935E-3
1.40320E-3	23.2737E-12	1.22406E+0	-14.5611E-3	23.3389E-12	1.23285E+0	-38.3006E-3
1.39820E-3	22.7116E-12	1.22276E+0	-8.59555E-3	23.3331E-12	1.22969E+0	-16.9132E-3
1.39320E-3	22.2763E-12	1.21174E+0	-10.2526E-3	22.9132E-12	1.23762E+0	-8.88903E-3
1.38819E-3	21.8757E-12	1.20903E+0	-24.5455E-3	22.2963E-12	1.24067E+0	-34.9357E-3
1.38319E-3	21.4702E-12	1.19564E+0	-28.9423E-3	22.0308E-12	1.23295E+0	-38.7906E-3
1.37819E-3	21.0498E-12	1.17625E+0	-34.7177E-3	21.8234E-12	1.22910E+0	-17.1149E-3
1.37319E-3	20.7524E-12	1.18092E+0	-31.2943E-3	21.3915E-12	1.22295E+0	-16.7423E-3
1.36818E-3	20.4138E-12	1.18738E+0	-13.1989E-3	20.8260E-12	1.20742E+0	-15.4813E-3
1.36318E-3	20.0289E-12	1.18313E+0	-8.92666E-3	20.3263E-12	1.19499E+0	-6.24850E-3
1.35818E-3	19.8283E-12	1.19176E+0	-12.6709E-3	19.9595E-12	1.18860E+0	-17.4888E-3
1.35318E-3	19.6569E-12	1.19733E+0	-6.42378E-3	19.4289E-12	1.17423E+0	-13.2536E-3
1.34817E-3	19.2483E-12	1.18811E+0	-6.89808E-3	18.9691E-12	1.16140E+0	6.70598E-3
1.34317E-3	18.7842E-12	1.19196E+0	-23.4980E-3	18.6437E-12	1.14895E+0	2.18099E-3
1.33817E-3	18.5622E-12	1.21004E+0	-25.2875E-3	18.1936E-12	1.13035E+0	-6.08733E-3
1.33317E-3	18.3947E-12	1.20997E+0	-24.1773E-3	17.7921E-12	1.13140E+0	-13.3154E-3
1.32816E-3	17.9177E-12	1.20353E+0	-39.6633E-3	17.2841E-12	1.13355E+0	-37.1763E-3
1.32316E-3	17.3038E-12	1.20097E+0	-39.0724E-3	17.0034E-12	1.11772E+0	-39.7580E-3
1.31816E-3	16.9553E-12	1.18632E+0	-20.2432E-3	16.6738E-12	1.11106E+0	-14.3896E-3
1.31316E-3	16.4987E-12	1.17835E+0	-11.0910E-3	16.1947E-12	1.11001E+0	-5.96665E-3
1.30815E-3	16.0957E-12	1.17052E+0	-12.9056E-3	15.8936E-12	1.09488E+0	-12.0750E-3
1.30315E-3	15.5831E-12	1.14273E+0	-11.4565E-3	15.6707E-12	1.08052E+0	-18.8502E-3
1.29815E-3	15.1510E-12	1.12533E+0	-10.9982E-3	15.2999E-12	1.07384E+0	-29.0542E-3
1.29315E-3	14.8279E-12	1.12538E+0	-21.1340E-3	14.8692E-12	1.05980E+0	-26.2949E-3
1.28814E-3	14.3771E-12	1.10657E+0	-24.2425E-3	14.5938E-12	1.04628E+0	-11.1891E-3
1.28314E-3	14.0114E-12	1.07975E+0	-16.3921E-3	14.3106E-12	1.03679E+0	-10.5995E-3
1.27814E-3	13.7360E-12	1.07675E+0	-4.20414E-3	13.9605E-12	1.01781E+0	-18.6228E-3
1.27314E-3	13.4157E-12	1.07588E+0	3.20281E-3	13.4783E-12	1.00907E+0	-23.7202E-3
1.26813E-3	13.0030E-12	1.06096E+0	-3.56896E-3	13.1598E-12	1.00881E+0	-35.0928E-3
1.26313E-3	12.7537E-12	1.04240E+0	7.43269E-3	12.8859E-12	987.446E-3	-36.3886E-3
1.25813E-3	12.4696E-12	1.02078E+0	23.3694E-3	12.4901E-12	967.388E-3	-21.1757E-3
1.25313E-3	12.1700E-12	1.01208E+0	-1.94250E-3	12.0662E-12	966.119E-3	-18.4801E-3
1.24812E-3	11.8507E-12	1.01578E+0	-25.4756E-3	11.7834E-12	950.082E-3	-24.2995E-3
1.24312E-3	11.4590E-12	998.762E-3	-15.1878E-3	11.5188E-12	918.159E-3	-17.3629E-3
1.23812E-3	11.3031E-12	978.004E-3	-10.9943E-3	11.1047E-12	897.492E-3	-20.0650E-3
1.23312E-3	11.0332E-12	977.630E-3	-15.6018E-3	10.7806E-12	874.135E-3	-31.6267E-3
1.22811E-3	10.6422E-12	966.241E-3	-15.3595E-3	10.6098E-12	852.198E-3	-22.6478E-3
1.22311E-3	10.2412E-12	937.552E-3	-21.6230E-3	10.2416E-12	850.694E-3	-15.6617E-3
1.21811E-3	10.0144E-12	919.894E-3	-17.1824E-3	9.80073E-12	842.454E-3	-23.4401E-3
1.21311E-3	9.71775E-12	895.866E-3	2.18490E-3	9.59267E-12	820.902E-3	-21.6523E-3
1.20810E-3	9.34859E-12	856.810E-3	950.091E-6	9.41858E-12	799.918E-3	-24.5213E-3
1.20310E-3	9.04049E-12	833.479E-3	-12.6106E-3	9.14106E-12	771.859E-3	-42.3163E-3
1.19810E-3	8.77457E-12	819.777E-3	-7.23139E-3	8.76125E-12	744.413E-3	-44.2239E-3
1.19310E-3	8.48231E-12	798.716E-3	-9.48043E-3	8.55765E-12	738.533E-3	-41.8172E-3
1.18809E-3	8.23514E-12	786.811E-3	-29.6425E-3	8.41641E-12	735.402E-3	-44.1740E-3
1.18309E-3	7.99758E-12	778.155E-3	-27.9432E-3	8.13073E-12	714.547E-3	-26.0062E-3
1.17809E-3	7.80269E-12	756.487E-3	-19.0617E-3	7.77795E-12	698.705E-3	-16.5560E-3
1.17309E-3	7.54607E-12	738.660E-3	-25.5806E-3	7.61824E-12	681.799E-3	-27.9898E-3
1.16808E-3	7.31319E-12	720.738E-3	-21.0972E-3	7.47918E-12	651.791E-3	-20.0801E-3
1.16308E-3	7.06497E-12	699.790E-3	-10.8674E-3	7.21994E-12	631.878E-3	-6.43551E-3
1.15808E-3	6.83257E-12	692.898E-3	-10.4414E-3	6.84684E-12	610.754E-3	-21.1817E-3
1.15308E-3	6.64074E-12	676.978E-3	-10.8590E-3	6.59554E-12	575.972E-3	-30.6515E-3
1.14807E-3	6.47446E-12	644.408E-3	-15.2239E-3	6.44396E-12	558.176E-3	-17.7312E-3
1.14307E-3	6.23607E-12	631.963E-3	-17.2732E-3	6.22406E-12	557.392E-3	-18.0838E-3
1.13807E-3	6.12212E-12	629.227E-3	-16.5084E-3	5.93810E-12	547.760E-3	-22.7583E-3
1.13307E-3	5.96197E-12	607.690E-3	-24.2727E-3	5.73965E-12	521.564E-3	-16.6250E-3
1.12806E-3	5.72546E-12	593.626E-3	-26.5532E-3	5.64961E-12	490.615E-3	-17.7691E-3
1.12306E-3	5.54556E-12	584.097E-3	-8.40675E-3	5.45198E-12	470.592E-3	-21.1428E-3
1.11806E-3	5.33182E-12	553.862E-3	1.70006E-3	5.21157E-12	468.966E-3	-21.1372E-3
1.11306E-3	5.17083E-12	526.706E-3	-15.9856E-3	5.02146E-12	471.367E-3	-19.6607E-3
1.10805E-3	4.92881E-12	506.357E-3	-23.7399E-3	4.90988E-12	449.518E-3	-10.6109E-3
1.10305E-3	4.83274E-12	481.858E-3	-11.6945E-3	4.76172E-12	419.408E-3	-4.81784E-3
1.09805E-3	4.72857E-12	468.976E-3	-8.28855E-3	4.60032E-12	413.093E-3	-17.6097E-3
1.09305E-3	4.54568E-12	460.394E-3	-7.92503E-3	4.50930E-12	406.218E-3	-21.7036E-3
1.08804E-3	4.32919E-12	443.943E-3	-33.2118E-6	4.28169E-12	385.053E-3	-4.50257E-3
1.08304E-3	4.20621E-12	448.535E-3	-15.6685E-3	4.15317E-12	369.013E-3	-4.52290E-3
1.07804E-3	4.14752E-12	456.464E-3	-30.0902E-3	4.06407E-12	352.967E-3	-18.8822E-3
1.07304E-3	4.01118E-12	429.826E-3	-20.8786E-3	3.93508E-12	343.385E-3	-11.0713E-3
1.06803E-3	3.82526E-12	394.933E-3	-21.7885E-3	3.80685E-12	339.340E-3	451.582E-6
1.06303E-3	3.61280E-12	377.789E-3	-18.7836E-3	3.60794E-12	316.837E-3	-6.51610E-3
1.05803E-3	3.59074E-12	359.418E-3	-12.2259E-3	3.58451E-12	298.826E-3	-10.4155E-3
1.05303E-3	3.51436E-12	333.212E-3	-23.2626E-3	3.54393E-12	301.767E-3	-16.2881E-3
1.04802E-3	3.32641E-12	321.911E-3	-28.8441E-3	3.43233E-12	291.106E-3	-21.2993E-3
1.04302E-3	3.38061E-12	313.509E-3	-14.9434E-3	3.27276E-12	258.485E-3	-9.57052E-3
1.03802E-3	3.26078E-12	293.303E-3	-2.50899E-3	3.10907E-12	233.791E-3	-9.55824E-3
1.03302E-3	3.03704E-12	288.972E-3	4.09215E-3	2.99800E-12	218.185E-3	-24.0661E-3
1.02801E-3	2.86968E-12	286.275E-3	2.70798E-3	2.79319E-12	201.490E-3	-19.7987E-3
1.02301E-3	2.69075E-12	264.603E-3	-15.1530E-3	2.54544E-12	197.961E-3	-19.2220E-3
1.01801E-3	2.54097E-12	248.614E-3	-27.3315E-3	2.43192E-12	191.080E-3	-30.3522E-3
1.01301E-3	2.46080E-12	230.113E-3	-16.3972E-3	2.47240E-12	172.978E-3	-18.7947E-3
1.00800E-3	2.43107E-12	203.873E-3	-11.2727E-3	2.40799E-12	174.100E-3	-13.2324E-3
1.00300E-3	2.31992E-12	191.071E-3	-13.6804E-3	2.24771E-12	177.761E-3	-28.7569E-3
997.999E-6	2.24623E-12	182.830E-3	-7.48353E-3	2.19235E-12	174.702E-3	-26.0568E-3
992.997E-6	2.16374E-12	178.368E-3	-13.9280E-3	2.22026E-12	183.671E-3	-17.4751E-3
987.994E-6	2.12974E-12	193.815E-3	-19.5341E-3	2.18829E-12	175.863E-3	-24.2034E-3
982.991E-6	2.09129E-12	200.387E-3	-7.34574E-3	2.07327E-12	146.774E-3	-18.4278E-3
977.989E-6	1.99867E-12	176.744E-3	-14.7659E-3	1.97231E-12	128.712E-3	-6.25725E-3
972.986E-6	2.01132E-12	155.718E-3	-37.9693E-3	1.97498E-12	115.796E-3	-6.88055E-3
967.984E-6	1.91360E-12	150.503E-3	-33.5802E-3	1.93051E-12	109.225E-3	-4.74316E-3
962.981E-6	1.87877E-12	141.999E-3	-23.7006E-3	1.92795E-12	116.008E-3	-2.25735E-3
957.979E-6	1.81138E-12	138.361E-3	-25.8104E-3	1.86759E-12	117.092E-3	-13.3347E-3
952.976E-6	1.78022E-12	142.453E-3	-16.7650E-3	1.76479E-12	111.393E-3	-8.46430E-3
947.974E-6	1.70809E-12	126.526E-3	-12.1308E-3	1.76300E-12	118.276E-3	3.77287E-3
942.971E-6	1.68546E-12	103.609E-3	-20.7234E-3	1.73980E-12	119.158E-3	-11.5366E-3
937.969E-6	1.68426E-12	96.4100E-3	-21.6856E-3	1.73058E-12	99.9236E-3	-19.4796E-3
932.966E-6	1.63171E-12	92.9488E-3	-15.2753E-3	1.55781E-12	93.2599E-3	-9.04187E-3
927.964E-6	1.61696E-12	95.7925E-3	-24.2568E-3	1.50849E-12	94.8431E-3	-13.7542E-3
922.961E-6	1.54083E-12	108.265E-3	-30.6324E-3	1.50676E-12	89.4945E-3	-21.5486E-3
917.959E-6	1.57348E-12	104.912E-3	-20.5583E-3	1.58854E-12	98.4018E-3	-11.5459E-3
912.956E-6	1.55723E-12	94.1331E-3	-21.1784E-3	1.49241E-12	108.859E-3	-8.03480E-3
907.954E-6	1.46026E-12	94.7748E-3	-13.9728E-3	1.33389E-12	93.5632E-3	-15.1363E-3
902.951E-6	1.39473E-12	89.5677E-3	6.36135E-3	1.34127E-12	77.7967E-3	-20.2723E-3
897.949E-6	1.38042E-12	85.1631E-3	-2.29712E-3	1.47158E-12	85.1493E-3	-31.3421E-3
892.946E-6	1.41751E-12	82.4981E-3	-18.3900E-3	1.45806E-12	79.8234E-3	-34.8672E-3
887.944E-6	1.36366E-12	59.8001E-3	-15.1254E-3	1.29828E-12	56.6023E-3	-20.6481E-3
882.941E-6	1.29072E-12	47.7739E-3	-22.8205E-3	1.27313E-12	53.1252E-3	-14.2182E-3
877.939E-6	1.26755E-12	65.5595E-3	-27.5951E-3	1.35277E-12	57.0257E-3	-15.5919E-3
872.936E-6	1.30756E-12	65.6855E-3	-19.7243E-3	1.41744E-12	55.4470E-3	823.452E-6
867.934E-6	1.25464E-12	60.8552E-3	-27.1246E-3	1.20059E-12	54.8285E-3	7.22036E-3
862.931E-6	1.22104E-12	73.7199E-3	-33.3070E-3	1.15555E-12	48.4345E-3	-5.47843E-3
857.929E-6	1.18397E-12	64.2491E-3	-25.5370E-3	1.21139E-12	52.0428E-3	-5.76772E-3
852.926E-6	1.11315E-12	45.8373E-3	-21.2954E-3	1.26874E-12	67.9747E-3	-10.6411E-3
847.924E-6	1.17600E-12	51.5949E-3	-17.3016E-3	1.17731E-12	61.6441E-3	-19.0066E-3
842.921E-6	1.16351E-12	51.3370E-3	-16.3099E-3	1.14966E-12	40.5920E-3	-4.98274E-3
837.919E-6	1.09166E-12	41.2602E-3	-31.2158E-3	1.08131E-12	41.2057E-3	-101.981E-6
832.916E-6	1.09497E-12	48.4382E-3	-37.7470E-3	1.07462E-12	43.5306E-3	-21.0000E-3
827.914E-6	1.07907E-12	57.0239E-3	-26.9917E-3	1.05949E-12	29.7854E-3	-33.5171E-3
822.911E-6	1.14160E-12	50.1090E-3	-29.7526E-3	1.00506E-12	31.6505E-3	-33.8010E-3
817.909E-6	1.11974E-12	39.3673E-3	-29.6257E-3	953.437E-15	43.1867E-3	-39.2497E-3
812.906E-6	1.03251E-12	37.2516E-3	-3.92129E-3	940.977E-15	50.7040E-3	-30.5769E-3
807.904E-6	1.02793E-12	39.9548E-3	5.58242E-3	993.955E-15	61.4128E-3	-16.7456E-3
802.901E-6	1.06037E-12	47.5462E-3	-9.63899E-3	995.638E-15	51.7197E-3	-20.6620E-3
797.899E-6	1.03590E-12	48.8948E-3	-13.5274E-3	970.413E-15	30.3592E-3	-11.8312E-3
792.896E-6	1.00302E-12	38.1231E-3	-13.6333E-3	920.600E-15	32.4122E-3	8.26589E-3
787.894E-6	1.01799E-12	34.6178E-3	-18.7332E-3	883.639E-15	42.5353E-3	-2.61371E-3
782.891E-6	978.531E-15	39.9862E-3	-8.94230E-3	982.211E-15	36.6426E-3	-21.1933E-3
777.889E-6	1.02101E-12	42.8000E-3	-8.70060E-3	935.362E-15	25.9080E-3	-19.0102E-3
772.886E-6	933.173E-15	49.5806E-3	-25.8904E-3	849.023E-15	22.7442E-3	-22.5372E-3
767.884E-6	930.322E-15	57.8191E-3	-27.3428E-3	876.541E-15	30.2867E-3	-21.2340E-3
762.881E-6	937.402E-15	51.3924E-3	-30.8839E-3	917.749E-15	41.1975E-3	-10.5925E-3
757.879E-6	876.942E-15	43.4464E-3	-37.3172E-3	907.939E-15	45.8015E-3	-21.8424E-3
752.876E-6	819.386E-15	40.2095E-3	-22.3220E-3	852.676E-15	43.6422E-3	-28.8587E-3
747.874E-6	880.875E-15	33.9919E-3	-13.1004E-3	809.952E-15	43.4552E-3	-14.8008E-3
742.871E-6	889.097E-15	34.1073E-3	-22.8329E-3	835.029E-15	43.6000E-3	-16.1276E-3
737.869E-6	817.215E-15	39.0362E-3	-19.6829E-3	886.368E-15	31.5718E-3	-27.0763E-3
732.866E-6	790.002E-15	40.2266E-3	-8.63945E-3	771.997E-15	32.4396E-3	-22.1842E-3
727.864E-6	790.952E-15	44.8936E-3	-11.1994E-3	739.404E-15	44.0195E-3	-18.3704E-3
722.861E-6	814.686E-15	52.0189E-3	-13.3660E-3	751.323E-15	32.7748E-3	-14.0164E-3
717.859E-6	780.646E-15	49.2979E-3	-5.75092E-3	784.439E-15	17.9300E-3	452.462E-6
712.856E-6	773.409E-15	56.9069E-3	-7.48705E-3	734.634E-15	20.3438E-3	-8.94549E-3
707.854E-6	724.564E-15	71.7703E-3	-13.4805E-3	696.636E-15	16.4732E-3	-24.4017E-3
702.851E-6	700.315E-15	59.2165E-3	-12.1349E-3	637.780E-15	10.6901E-3	-14.5722E-3
697.849E-6	663.555E-15	34.6572E-3	-24.6371E-3	649.473E-15	17.2980E-3	-20.0432E-3
692.846E-6	709.069E-15	22.5924E-3	-28.3468E-3	682.467E-15	18.8780E-3	-37.5996E-3
687.844E-6	674.306E-15	18.5408E-3	-12.1876E-3	680.130E-15	31.6631E-3	-24.0440E-3
682.841E-6	685.920E-15	21.5651E-3	-8.18517E-3	629.340E-15	54.9575E-3	-9.47693E-3
677.839E-6	660.852E-15	39.0320E-3	-2.25940E-3	570.110E-15	42.6149E-3	-12.9610E-3
672.836E-6	641.442E-15	56.8507E-3	6.58672E-3	637.004E-15	20.0980E-3	-10.6782E-3
667.834E-6	606.766E-15	55.7490E-3	-5.69966E-3	658.306E-15	36.7736E-3	-15.1826E-3
662.831E-6	631.267E-15	50.9506E-3	-19.6397E-3	619.705E-15	48.3826E-3	-27.6159E-3
657.829E-6	596.852E-15	43.0176E-3	-14.3433E-3	537.875E-15	35.4513E-3	-22.1238E-3
652.826E-6	551.189E-15	29.1843E-3	-5.63614E-3	523.993E-15	37.7780E-3	-8.70912E-3
647.824E-6	580.730E-15	34.3401E-3	-5.36957E-3	662.325E-15	35.8885E-3	-7.10464E-3
642.821E-6	517.916E-15	40.7406E-3	-7.23124E-3	602.450E-15	23.0887E-3	-5.39886E-3
637.819E-6	563.832E-15	32.9211E-3	-15.5961E-3	510.775E-15	27.9296E-3	-13.6936E-3
632.816E-6	525.999E-15	33.7858E-3	-26.6936E-3	525.362E-15	25.5153E-3	-24.5283E-3
627.814E-6	524.569E-15	38.7597E-3	-32.6807E-3	591.542E-15	7.97279E-3	-6.04204E-3
622.811E-6	518.230E-15	35.9125E-3	-35.9263E-3	542.984E-15	11.4437E-3	3.83162E-3
617.809E-6	513.992E-15	33.0052E-3	-28.3996E-3	455.207E-15	24.6716E-3	-13.1144E-3
612.806E-6	521.282E-15	32.9890E-3	-14.1629E-3	469.942E-15	25.9286E-3	-10.7921E-3
607.804E-6	505.090E-15	31.2033E-3	-13.1023E-3	531.300E-15	32.7144E-3	-1.91177E-3
602.801E-6	455.965E-15	24.7632E-3	-19.3717E-3	532.085E-15	29.2518E-3	-12.4437E-3
597.799E-6	433.661E-15	25.0007E-3	-12.4282E-3	449.173E-15	8.02786E-3	-15.7753E-3
592.796E-6	487.817E-15	27.8542E-3	-4.74942E-3	448.284E-15	18.4565E-3	-9.10667E-3
587.794E-6	446.226E-15	27.8093E-3	-14.8082E-3	482.245E-15	42.7531E-3	-15.2482E-3
582.791E-6	437.289E-15	27.3750E-3	-19.4738E-3	460.508E-15	32.8436E-3	-15.5192E-3
577.789E-6	414.740E-15	21.9490E-3	-5.09762E-3	439.573E-15	28.2163E-3	1.06369E-3
572.786E-6	476.604E-15	22.1765E-3	5.83802E-3	385.609E-15	40.8335E-3	-3.70357E-3
567.784E-6	454.849E-15	23.1336E-3	5.21640E-3	422.396E-15	34.8797E-3	-18.9672E-3
562.781E-6	337.269E-15	21.6398E-3	3.47362E-3	378.721E-15	31.2899E-3	-17.3093E-3
557.779E-6	341.803E-15	31.2774E-3	-5.53155E-3	385.199E-15	39.9835E-3	-25.6734E-3
552.776E-6	395.218E-15	40.0606E-3	-17.1915E-3	438.649E-15	28.3534E-3	-33.7257E-3
547.774E-6	372.251E-15	30.8118E-3	-19.8322E-3	334.610E-15	22.3333E-3	-23.4436E-3
542.771E-6	363.916E-15	25.3403E-3	-22.7756E-3	296.027E-15	45.8056E-3	-25.3173E-3
537.769E-6	322.124E-15	35.9818E-3	-19.4562E-3	302.741E-15	54.8251E-3	-36.3430E-3
532.766E-6	297.039E-15	34.4673E-3	-19.3971E-3	364.238E-15	52.9466E-3	-27.7473E-3
527.764E-6	315.105E-15	38.0505E-3	-30.8099E-3	371.667E-15	56.2148E-3	-15.0046E-3
522.761E-6	293.315E-15	54.0199E-3	-20.9621E-3	223.326E-15	39.0308E-3	-8.24796E-3
517.759E-6	268.239E-15	47.2173E-3	-6.26170E-3	244.784E-15	17.9078E-3	2.73683E-3
512.756E-6	267.271E-15	30.6839E-3	-21.2401E-3	317.790E-15	20.2382E-3	-5.59406E-3
507.754E-6	253.965E-15	29.3646E-3	-36.5795E-3	293.176E-15	25.2128E-3	-23.1790E-3
502.751E-6	219.751E-15	28.0635E-3	-34.6601E-3	223.823E-15	22.0877E-3	-17.6953E-3
497.749E-6	257.305E-15	24.3822E-3	-33.9943E-3	156.187E-15	19.2440E-3	-16.5615E-3
492.746E-6	230.955E-15	32.4079E-3	-26.6652E-3	250.364E-15	20.4800E-3	-32.0248E-3
487.744E-6	190.000E-15	30.0831E-3	-8.90599E-3	298.137E-15	27.6649E-3	-19.4550E-3
482.741E-6	220.160E-15	15.7400E-3	-4.38077E-3	211.197E-15	34.1329E-3	-91.4219E-6
477.739E-6	198.667E-15	15.3618E-3	-3.06587E-3	158.742E-15	36.1125E-3	-5.07013E-3
472.736E-6	196.444E-15	15.0278E-3	1.92903E-3	231.225E-15	30.4206E-3	-3.37912E-3
467.734E-6	166.920E-15	13.6188E-3	-9.70175E-3	200.446E-15	25.1607E-3	-10.2892E-3
462.731E-6	155.306E-15	21.1980E-3	-18.5535E-3	177.767E-15	17.9909E-3	-24.5500E-3
457.729E-6	203.690E-15	15.7717E-3	-3.80105E-3	160.241E-15	4.75240E-3	-11.9320E-3
452.726E-6	158.663E-15	11.0253E-3	-260.490E-6	113.628E-15	6.38013E-3	4.92938E-3
447.724E-6	113.445E-15	21.1754E-3	-14.4110E-3	105.554E-15	20.0473E-3	5.67329E-3
442.721E-6	143.570E-15	24.4402E-3	-16.6339E-3	155.027E-15	23.4063E-3	6.16972E-3
437.719E-6	176.381E-15	17.7488E-3	-17.7016E-3	136.185E-15	21.2350E-3	1.18188E-3
432.716E-6	151.042E-15	15.7264E-3	-19.1299E-3	120.813E-15	17.7347E-3	-12.1637E-3
427.714E-6	24.2986E-15	16.1855E-3	-11.0358E-3	55.6445E-15	9.02455E-3	-15.7458E-3
422.711E-6	114.988E-15	12.3822E-3	-12.0412E-3	126.515E-15	13.5167E-3	-8.43618E-3
417.709E-6	90.0335E-15	10.1518E-3	-28.4239E-3	150.964E-15	27.6769E-3	-7.52237E-3
412.706E-6	112.477E-15	5.38981E-3	-35.0988E-3	82.8400E-15	29.8222E-3	-11.8726E-3
407.704E-6	66.3867E-15	-932.120E-6	-32.1061E-3	19.3809E-15	23.2998E-3	-14.4886E-3
402.701E-6	37.2817E-15	5.41148E-3	-26.5228E-3	40.6647E-15	19.3031E-3	-27.7053E-3
397.699E-6	77.8177E-15	13.3209E-3	-12.5094E-3	86.1534E-15	18.4928E-3	-31.0940E-3
392.696E-6	37.9966E-15	3.91606E-3	-19.4121E-3	98.1250E-15	24.4020E-3	-21.6917E-3
387.694E-6	50.6920E-15	2.41164E-3	-36.6665E-3	-19.6903E-15	25.7754E-3	-25.6654E-3
382.691E-6	20.5493E-15	16.8356E-3	-16.7463E-3	30.8119E-15	11.3615E-3	-23.3773E-3
377.689E-6	37.9530E-15	20.0048E-3	13.3051E-3	93.8874E-15	2.51130E-3	-10.6862E-3
372.686E-6	5.79623E-15	15.5940E-3	12.6950E-3	79.5180E-15	3.82907E-3	-13.5691E-3
367.684E-6	24.5340E-15	12.7149E-3	3.19984E-3	-28.8020E-15	-2.62295E-3	-19.9599E-3
362.681E-6	27.2632E-15	8.94045E-3	-1.71332E-3	-24.8608E-15	-6.38323E-3	-16.5008E-3
357.679E-6	25.0397E-15	11.4838E-3	-11.1225E-3	45.1639E-15	3.33240E-3	-19.8004E-3
352.676E-6	-30.7987E-15	13.5904E-3	-11.7232E-3	35.0234E-15	8.30360E-3	-25.7957E-3
347.674E-6	669.278E-18	6.52763E-3	-7.70530E-3	-15.5661E-15	13.4851E-3	-15.3794E-3
342.671E-6	6.81639E-15	9.41234E-3	-15.1245E-3	-39.9801E-15	28.0960E-3	-5.47694E-3
337.669E-6	-25.8549E-15	20.4539E-3	-22.6626E-3	-47.7926E-15	24.1085E-3	-6.79845E-3
332.666E-6	-29.8134E-15	19.0901E-3	-21.4564E-3	-15.1039E-15	9.58618E-3	-4.21419E-3
327.664E-6	-15.1737E-15	22.7211E-3	-17.5339E-3	-15.3219E-15	19.1615E-3	-10.4408E-3
322.661E-6	37.9618E-15	26.7580E-3	-13.3982E-3	-64.1326E-15	24.6345E-3	-26.6611E-3
317.659E-6	-27.5551E-15	6.87273E-3	-5.86231E-3	-54.8466E-15	15.3046E-3	-27.9118E-3
312.656E-6	-79.4263E-15	-4.13695E-3	-4.29895E-3	-33.6761E-15	25.1831E-3	-27.3737E-3
307.654E-6	-46.9207E-15	8.48245E-3	-13.0792E-3	-54.9425E-15	37.8109E-3	-26.2711E-3
302.651E-6	-17.7982E-15	11.9389E-3	-16.4627E-3	-18.1644E-15	34.1172E-3	-7.33508E-3
297.649E-6	-81.3533E-15	-698.016E-6	-13.1874E-3	-70.3059E-15	23.2915E-3	2.29432E-3
292.646E-6	-51.0537E-15	-4.99693E-3	-10.4096E-3	-101.050E-15	2.82407E-3	-7.09558E-3
287.644E-6	-66.4694E-15	2.01899E-3	-7.85732E-3	-96.0191E-15	-8.40067E-3	-16.4254E-3
282.641E-6	-49.0831E-15	4.46307E-3	-13.2420E-3	4.61041E-15	-27.5528E-6	-26.5735E-3
277.639E-6	-23.0908E-15	1.71183E-3	-19.7246E-3	-19.1061E-15	8.30230E-3	-36.0389E-3
272.636E-6	-95.2605E-15	-3.65696E-3	-18.4145E-3	-130.016E-15	6.99774E-3	-31.0817E-3
267.634E-6	-66.0857E-15	-10.8264E-3	-14.3463E-3	-111.016E-15	-590.829E-6	-23.1171E-3
262.631E-6	-21.4690E-15	-672.581E-6	-3.13900E-3	-66.4519E-15	-2.98482E-3	-26.3897E-3
257.629E-6	-55.2389E-15	17.4045E-3	4.74540E-3	-30.7028E-15	1.26298E-3	-19.8998E-3
252.626E-6	-67.9691E-15	10.2763E-3	-6.11315E-3	-166.811E-15	13.1093E-3	-11.0728E-3
247.624E-6	-64.7168E-15	1.79446E-3	-27.6903E-3	-108.889E-15	22.7040E-3	-17.9417E-3
242.621E-6	-84.6143E-15	1.69529E-3	-33.2751E-3	-72.5729E-15	13.3347E-3	-15.3484E-3
237.619E-6	-114.312E-15	-4.04021E-3	-21.7368E-3	-61.5081E-15	3.44773E-3	-7.42721E-3
232.616E-6	-108.575E-15	1.57618E-3	-18.4367E-3	-124.610E-15	-2.94672E-3	-22.3599E-3
227.614E-6	-86.5674E-15	6.09875E-3	-18.9073E-3	-135.770E-15	-9.80577E-3	-29.1697E-3
222.611E-6	-96.5074E-15	-4.38717E-3	-16.4319E-3	-108.340E-15	2.01583E-3	-18.9352E-3
217.609E-6	-81.7718E-15	364.511E-6	-13.8818E-3	-89.7674E-15	5.61833E-3	-21.4994E-3
212.606E-6	-102.253E-15	13.4548E-3	-7.49683E-3	-88.1456E-15	-8.81180E-3	-21.0179E-3
207.604E-6	-113.030E-15	4.25321E-3	-2.70055E-3	-135.212E-15	-2.45868E-3	-20.7892E-3
202.601E-6	-85.1897E-15	-344.901E-6	-8.76089E-3	-100.196E-15	9.43775E-3	-33.6539E-3
197.599E-6	-180.256E-15	489.746E-6	-14.7742E-3	-108.575E-15	584.368E-6	-21.4633E-3
192.596E-6	-145.963E-15	-17.7238E-3	-3.35156E-3	-141.307E-15	4.26054E-3	13.7956E-3
187.594E-6	-77.1418E-15	-19.2795E-3	2.91875E-3	-155.624E-15	12.8634E-3	15.6656E-3
182.591E-6	-100.187E-15	270.124E-6	-12.0786E-3	-136.520E-15	-4.60821E-3	-13.3739E-3
177.589E-6	-133.870E-15	-1.02500E-3	-24.3955E-3	-171.973E-15	-14.1839E-3	-24.5180E-3
172.586E-6	-175.243E-15	-15.3828E-3	-28.0703E-3	-94.9728E-15	-615.583E-6	-17.5642E-3
167.584E-6	-110.755E-15	-14.2195E-3	-20.7791E-3	-84.1085E-15	11.2167E-3	-13.3914E-3
162.581E-6	-102.873E-15	-1.89994E-3	-9.14891E-3	-85.2944E-15	11.5957E-3	-8.91383E-3
157.579E-6	-133.748E-15	2.93252E-3	-11.4292E-3	-211.777E-15	6.56583E-3	-11.0123E-3
152.576E-6	-121.235E-15	6.75157E-3	-15.1845E-3	-139.528E-15	-6.89659E-3	-26.8522E-3
147.574E-6	-142.101E-15	11.9572E-3	-15.0492E-3	-92.0257E-15	-15.8668E-3	-28.5019E-3
142.571E-6	-105.087E-15	6.94880E-3	-15.5661E-3	-108.217E-15	-10.4323E-3	-14.6904E-3
137.569E-6	-167.796E-15	3.27488E-3	-3.77534E-3	-209.475E-15	-15.2235E-3	-12.7258E-3
132.566E-6	-178.451E-15	1.73167E-3	1.39014E-3	-157.813E-15	-23.6109E-3	-7.66291E-3
127.564E-6	-174.824E-15	-3.00051E-3	-15.7574E-3	-84.4660E-15	-11.5491E-3	-1.53217E-3
122.561E-6	-154.988E-15	-3.58629E-3	-22.0082E-3	-105.235E-15	2.10938E-3	-5.70621E-3
117.559E-6	-125.874E-15	-8.17538E-3	-14.1871E-3	-194.294E-15	2.69771E-3	-697.666E-6
112.556E-6	-128.063E-15	-9.74534E-3	-19.1905E-3	-168.930E-15	1.82532E-3	-2.69289E-3
107.554E-6	-147.123E-15	575.936E-6	-24.0262E-3	-128.812E-15	1.01551E-3	-15.7303E-3
102.551E-6	-195.210E-15	1.37388E-3	-13.8566E-3	-94.5717E-15	4.75118E-3	-7.71379E-3
97.5488E-6	-144.455E-15	-5.68404E-3	-8.52111E-3	-185.933E-15	14.8540E-3	774.649E-6
92.5463E-6	-154.029E-15	-925.903E-6	-2.18294E-3	-185.924E-15	6.43976E-3	-11.2090E-3
87.5438E-6	-142.083E-15	11.4123E-3	16.2762E-3	-142.519E-15	-11.8889E-3	-14.8806E-3
82.5413E-6	-169.340E-15	18.1302E-3	12.6749E-3	-167.631E-15	-6.43798E-3	-8.75649E-3
77.5388E-6	-205.656E-15	15.9054E-3	-4.50786E-3	-135.204E-15	-3.66210E-3	-5.82600E-3
72.5363E-6	-127.688E-15	10.5105E-3	-3.96887E-3	-130.827E-15	-14.9070E-3	-2.21783E-3
67.5338E-6	-148.239E-15	4.56280E-3	-6.53086E-3	-178.687E-15	-7.45652E-3	-11.2948E-3
62.5313E-6	-172.487E-15	1.60415E-3	-13.2108E-3	-163.245E-15	-5.03341E-3	-29.9461E-3
57.5288E-6	-187.092E-15	5.66823E-3	-14.0272E-3	-127.287E-15	-20.4809E-3	-36.1178E-3
52.5263E-6	-168.398E-15	9.68488E-3	-17.5223E-3	-136.773E-15	-15.7159E-3	-31.5201E-3
47.5238E-6	-133.564E-15	10.9877E-3	-21.3611E-3	-170.412E-15	-2.42003E-3	-27.6409E-3
42.5213E-6	-194.443E-15	14.3497E-3	-9.66835E-3	-255.896E-15	-14.2595E-3	-15.9723E-3
37.5188E-6	-170.020E-15	7.47054E-3	4.47991E-3	-188.025E-15	-24.0068E-3	-3.91818E-3
32.5163E-6	-185.845E-15	-7.82318E-3	-9.33710E-3	-129.057E-15	-15.2382E-3	-11.4193E-3
27.5138E-6	-172.923E-15	-12.9257E-3	-26.5924E-3	-149.163E-15	-7.63981E-3	-16.0314E-3
22.5113E-6	-166.698E-15	-9.15389E-3	-28.7271E-3	-229.050E-15	2.72518E-3	-5.03441E-3
17.5088E-6	-175.478E-15	-1.43216E-3	-28.7808E-3	-213.791E-15	8.38410E-3	-4.11522E-3
12.5063E-6	-137.846E-15	135.847E-6	-29.5323E-3	-140.671E-15	-779.532E-6	-12.3945E-3
7.50375E-6	-171.249E-15	-12.1868E-3	-31.5938E-3	-131.210E-15	241.472E-6	-10.8389E-3
2.50125E-6	-153.915E-15	-8.72056E-3	-31.6628E-3	-260.012E-15	1.11267E-3	-13.2937E-3
-2.50125E-6	-199.134E-15	9.83119E-3	-29.6077E-3	-228.448E-15	-16.5636E-3	-14.2676E-3
-7.50375E-6	-152.520E-15	4.99027E-3	-31.8946E-3	-121.907E-15	-21.2359E-3	-670.166E-6
-12.5063E-6	-175.025E-15	-8.79782E-3	-30.4427E-3	-92.7232E-15	-14.8956E-3	-2.76331E-3
-17.5088E-6	-175.347E-15	-6.94312E-3	-13.7769E-3	-237.316E-15	-17.4046E-3	-12.9844E-3
-22.5113E-6	-145.379E-15	1.38316E-3	-970.703E-6	-209.754E-15	-9.37762E-3	-11.9039E-3
-27.5138E-6	-181.233E-15	11.3350E-3	-8.45517E-3	-168.625E-15	15.9737E-3	-22.4226E-3
-32.5163E-6	-199.177E-15	18.9660E-3	-14.5417E-3	-175.374E-15	19.7354E-3	-25.5772E-3
-37.5188E-6	-171.895E-15	10.7978E-3	-12.9382E-3	-185.549E-15	-2.69316E-3	-3.85819E-3
-42.5213E-6	-171.380E-15	-5.35429E-3	-22.7159E-3	-183.788E-15	-14.3059E-3	565.256E-6
-47.5238E-6	-162.521E-15	-11.2691E-3	-27.6841E-3	-186.682E-15	-22.4671E-3	-21.5486E-3
-52.5263E-6	-229.302E-15	-5.94181E-3	-22.6351E-3	-179.044E-15	-19.5924E-3	-30.6354E-3
-57.5288E-6	-193.082E-15	6.28344E-3	-23.2912E-3	-182.244E-15	3.17422E-3	-26.0283E-3
-62.5313E-6	-175.199E-15	15.3963E-3	-18.4289E-3	-193.893E-15	6.68057E-3	-25.2369E-3
-67.5338E-6	-167.108E-15	17.2465E-3	-13.7800E-3	-196.867E-15	-1.16715E-3	-18.4103E-3
-72.5363E-6	-207.966E-15	13.4101E-3	-22.9417E-3	-227.968E-15	5.04454E-3	-18.2439E-3
-77.5388E-6	-222.318E-15	30.0647E-6	-24.7475E-3	-183.474E-15	4.10611E-3	-29.3434E-3
-82.5413E-6	-139.781E-15	-9.16804E-3	-18.4382E-3	-124.165E-15	-6.32993E-3	-25.8232E-3
-87.5438E-6	-190.528E-15	-7.64787E-3	-17.5106E-3	-167.204E-15	-3.36541E-3	-16.4518E-3
-92.5463E-6	-168.756E-15	-5.54908E-3	-13.3799E-3	-238.074E-15	-1.98894E-3	-15.1113E-3
-97.5488E-6	-229.102E-15	-4.45735E-3	-6.84306E-3	-203.118E-15	-13.1352E-3	-14.8289E-3
-102.551E-6	-208.132E-15	-563.642E-6	-5.79860E-3	-152.947E-15	-6.55603E-3	-23.0090E-3
-107.554E-6	-156.331E-15	2.40724E-3	-13.9475E-3	-136.573E-15	9.20025E-3	-30.0673E-3
-112.556E-6	-219.737E-15	-5.57682E-3	-14.5810E-3	-232.189E-15	10.6731E-3	-17.1034E-3
-117.559E-6	-204.531E-15	-20.0837E-3	-8.30431E-3	-211.201E-15	9.03561E-3	-4.00763E-3
-122.561E-6	-193.632E-15	-13.8618E-3	-15.8026E-3	-160.542E-15	2.28789E-3	-11.7114E-3
-127.564E-6	-229.076E-15	7.84657E-3	-23.9933E-3	-166.489E-15	-4.46143E-3	-19.8928E-3
-132.566E-6	-196.718E-15	8.28362E-3	-25.7157E-3	-265.200E-15	7.81901E-3	-15.2676E-3
-137.569E-6	-178.024E-15	-3.36256E-3	-31.6878E-3	-245.076E-15	14.0995E-3	-9.90807E-3
-142.571E-6	-217.898E-15	-9.39858E-3	-35.2884E-3	-178.853E-15	4.89155E-3	-2.58683E-3
-147.574E-6	-218.072E-15	-10.4538E-3	-37.2875E-3	-166.646E-15	10.2393E-3	-62.3081E-6
-152.576E-6	-234.813E-15	5.79197E-3	-36.7172E-3	-224.359E-15	21.3364E-3	-9.27993E-3
-157.579E-6	-195.140E-15	18.8787E-3	-34.1916E-3	-233.967E-15	18.0344E-3	-8.21986E-3
-162.581E-6	-204.714E-15	6.51854E-3	-35.0231E-3	-213.294E-15	14.3897E-3	1.35330E-3
-167.584E-6	-248.433E-15	-2.00249E-3	-30.5523E-3	-216.616E-15	11.4579E-3	-6.30996E-3
-172.586E-6	-239.391E-15	2.25788E-3	-18.6236E-3	-235.659E-15	-5.33993E-3	-16.5750E-3
-177.589E-6	-202.290E-15	3.64488E-3	-12.8152E-3	-194.364E-15	-13.5967E-3	-12.6061E-3
-182.591E-6	-197.381E-15	1.79462E-3	-17.9526E-3	-262.802E-15	-4.00305E-3	-17.2748E-3
-187.594E-6	-265.575E-15	1.26885E-3	-19.1706E-3	-222.937E-15	-2.17739E-3	-25.6185E-3
-192.596E-6	-249.784E-15	3.92938E-3	-19.4310E-3	-152.581E-15	-9.33657E-3	-17.3775E-3
-197.599E-6	-228.064E-15	977.339E-6	-23.6603E-3	-168.206E-15	-5.59208E-3	-13.8216E-3
-202.601E-6	-209.283E-15	-1.93593E-3	-23.3836E-3	-263.831E-15	2.69067E-3	-15.6792E-3
-207.604E-6	-285.420E-15	884.191E-6	-17.1409E-3	-274.686E-15	6.04994E-3	-5.41091E-3
-212.606E-6	-217.802E-15	5.50864E-3	-10.7085E-3	-233.854E-15	7.46607E-3	-13.4327E-3
-217.609E-6	-235.650E-15	9.65915E-3	-4.97056E-3	-182.733E-15	-4.41369E-3	-37.5303E-3
-222.611E-6	-216.921E-15	1.68199E-3	-4.21711E-3	-235.066E-15	-19.1790E-3	-32.3426E-3
-227.614E-6	-239.521E-15	-12.1157E-3	-16.3924E-3	-296.188E-15	-13.3078E-3	-21.1663E-3
-232.616E-6	-290.808E-15	-18.9963E-3	-14.9400E-3	-262.200E-15	-8.74920E-3	-27.1855E-3
-237.619E-6	-238.946E-15	-26.2646E-3	505.772E-6	-202.220E-15	-14.3436E-3	-18.1929E-3
-242.621E-6	-226.887E-15	-26.8347E-3	-1.20217E-3	-199.142E-15	-11.1292E-3	-2.94563E-3
-247.624E-6	-233.244E-15	-16.7001E-3	-3.09596E-3	-330.455E-15	-6.47157E-3	-1.44739E-3
-252.626E-6	-273.570E-15	-9.81552E-3	2.14117E-3	-274.599E-15	-6.22310E-3	-1.64444E-3
-257.629E-6	-218.839E-15	-2.62630E-3	-4.71574E-3	-207.016E-15	2.13116E-3	-9.89752E-3
-262.631E-6	-243.358E-15	6.22396E-3	-8.13474E-3	-209.065E-15	8.37081E-3	-24.0565E-3
-267.634E-6	-287.547E-15	13.4210E-3	606.297E-6	-281.601E-15	8.15767E-3	-31.3530E-3
-272.636E-6	-254.597E-15	19.8444E-3	4.76056E-3	-327.735E-15	10.8450E-3	-27.2864E-3
-277.639E-6	-246.889E-15	22.1119E-3	4.50258E-3	-264.799E-15	8.46754E-3	-23.6835E-3
-282.641E-6	-322.381E-15	20.2660E-3	-2.64835E-3	-215.177E-15	6.75759E-3	-22.9247E-3
-287.644E-6	-270.623E-15	19.0381E-3	-19.6835E-3	-263.316E-15	7.89119E-3	-13.2687E-3
-292.646E-6	-279.055E-15	19.5653E-3	-25.4062E-3	-281.767E-15	4.99962E-3	-11.9521E-3
-297.649E-6	-304.027E-15	10.7303E-3	-12.4981E-3	-291.715E-15	3.81497E-3	-13.0905E-3
-302.651E-6	-339.488E-15	-4.58016E-3	-16.5274E-3	-302.231E-15	10.7667E-3	-8.48422E-3
-307.654E-6	-302.702E-15	-1.36107E-3	-33.7606E-3	-259.018E-15	12.4034E-3	-18.5923E-3
-312.656E-6	-239.426E-15	12.8831E-3	-33.5455E-3	-303.338E-15	6.48894E-3	-23.9477E-3
-317.659E-6	-237.141E-15	7.96327E-3	-32.3785E-3	-351.800E-15	10.3813E-3	-15.2895E-3
-322.661E-6	-320.193E-15	-329.773E-6	-39.0610E-3	-292.169E-15	27.3930E-3	-21.8143E-3
-327.664E-6	-296.711E-15	386.030E-6	-38.8556E-3	-269.124E-15	36.2962E-3	-24.4870E-3
-332.666E-6	-307.602E-15	-4.65535E-3	-31.9744E-3	-260.343E-15	21.5167E-3	-21.2919E-3
-337.669E-6	-324.892E-15	2.68827E-3	-34.2650E-3	-335.486E-15	2.64232E-3	-33.6377E-3
-342.671E-6	-318.606E-15	24.6031E-3	-26.4160E-3	-382.631E-15	3.78560E-3	-25.7288E-3
-347.674E-6	-325.311E-15	30.1755E-3	-7.07945E-3	-325.136E-15	21.2202E-3	589.321E-6
-352.676E-6	-324.788E-15	14.7662E-3	-14.0505E-3	-241.196E-15	27.7273E-3	695.539E-6
-357.679E-6	-291.846E-15	-25.6693E-6	-29.6931E-3	-272.742E-15	18.1769E-3	-11.6742E-3
-362.681E-6	-355.471E-15	-8.54079E-3	-34.7976E-3	-394.926E-15	17.3244E-3	-9.07957E-3
-367.684E-6	-351.617E-15	-7.02949E-3	-42.5120E-3	-375.944E-15	26.0600E-3	-8.99296E-3
-372.686E-6	-341.912E-15	3.91920E-3	-41.3763E-3	-307.645E-15	20.5648E-3	-17.4462E-3
-377.689E-6	-365.175E-15	1.35502E-3	-30.6290E-3	-307.419E-15	12.5952E-3	-18.6884E-3
-382.691E-6	-391.604E-15	-3.74758E-3	-27.0336E-3	-413.873E-15	6.01627E-3	-23.1438E-3
-387.694E-6	-355.689E-15	9.74564E-3	-19.8627E-3	-391.386E-15	-5.65589E-3	-26.8468E-3
-392.696E-6	-368.306E-15	16.6917E-3	-5.76929E-3	-370.625E-15	4.79536E-3	-20.1232E-3
-397.699E-6	-416.070E-15	11.8887E-3	-5.50572E-3	-321.867E-15	27.3508E-3	-24.6169E-3
-402.701E-6	-416.515E-15	9.09121E-3	-6.62856E-3	-432.105E-15	24.7500E-3	-27.0787E-3
-407.704E-6	-421.668E-15	5.14546E-3	-1.19584E-3	-412.007E-15	7.96461E-3	-4.70289E-3
-412.706E-6	-439.124E-15	7.47091E-3	-8.34050E-3	-376.458E-15	8.89813E-3	6.14528E-3
-417.709E-6	-409.234E-15	14.9496E-3	-20.5185E-3	-373.947E-15	16.7767E-3	-8.98607E-3
-422.711E-6	-456.301E-15	9.49384E-3	-24.3054E-3	-402.494E-15	19.1301E-3	-14.2603E-3
-427.714E-6	-410.211E-15	-2.12934E-3	-23.7658E-3	-403.070E-15	22.8217E-3	-12.3721E-3
-432.716E-6	-447.599E-15	2.31480E-3	-20.7771E-3	-462.762E-15	17.3437E-3	-21.7996E-3
-437.719E-6	-485.589E-15	9.31593E-3	-14.8373E-3	-452.953E-15	10.9270E-3	-22.9176E-3
-442.721E-6	-456.196E-15	16.3040E-3	-13.6405E-3	-429.036E-15	20.7867E-3	-12.7011E-3
-447.724E-6	-477.698E-15	27.9555E-3	-13.0619E-3	-427.501E-15	21.8374E-3	-14.3992E-3
-452.726E-6	-472.467E-15	24.1164E-3	-7.34433E-3	-488.083E-15	4.67795E-3	-16.1492E-3
-457.729E-6	-521.861E-15	6.71000E-3	-5.83299E-3	-508.198E-15	5.09788E-3	-11.0299E-3
-462.731E-6	-474.725E-15	5.04656E-3	-3.08827E-3	-455.534E-15	21.5788E-3	-16.2633E-3
-467.734E-6	-474.428E-15	21.7082E-3	2.72928E-3	-430.239E-15	25.2328E-3	-19.7035E-3
-472.736E-6	-481.657E-15	33.1076E-3	-3.65548E-3	-500.734E-15	21.2613E-3	-17.0459E-3
-477.739E-6	-513.752E-15	40.1318E-3	-14.5249E-3	-583.245E-15	23.9450E-3	-18.2342E-3
-482.741E-6	-536.048E-15	35.6780E-3	-16.8241E-3	-577.403E-15	24.1705E-3	-16.0284E-3
-487.744E-6	-503.298E-15	18.9960E-3	-21.9844E-3	-503.882E-15	28.7326E-3	-12.2669E-3
-492.746E-6	-535.603E-15	9.96921E-3	-21.4843E-3	-512.017E-15	36.4128E-3	-14.7256E-3
-497.749E-6	-572.739E-15	4.73709E-3	-13.3380E-3	-610.144E-15	25.4089E-3	-12.6524E-3
-502.751E-6	-554.315E-15	5.04950E-3	-16.5460E-3	-583.507E-15	17.9594E-3	-8.56885E-3
-507.754E-6	-552.658E-15	18.0061E-3	-23.2939E-3	-548.900E-15	16.0805E-3	-15.4968E-3
-512.756E-6	-614.120E-15	25.2934E-3	-21.9057E-3	-550.609E-15	675.188E-6	-14.0444E-3
-517.759E-6	-577.438E-15	21.7936E-3	-12.5571E-3	-633.852E-15	-954.607E-6	-7.69770E-3
-522.761E-6	-616.082E-15	24.8164E-3	-10.3446E-3	-616.222E-15	16.6915E-3	-14.7449E-3
-527.764E-6	-590.073E-15	35.6581E-3	-15.5865E-3	-607.668E-15	19.8627E-3	-16.2425E-3
-532.766E-6	-645.815E-15	38.6574E-3	-13.8657E-3	-633.451E-15	17.4590E-3	-4.16247E-3
-537.769E-6	-655.729E-15	36.8663E-3	-9.54872E-3	-644.211E-15	31.3048E-3	-186.829E-6
-542.771E-6	-635.204E-15	42.2480E-3	-7.87126E-3	-621.706E-15	34.3555E-3	-8.91551E-3
-547.774E-6	-649.076E-15	33.3627E-3	-12.3106E-3	-675.836E-15	27.2645E-3	-11.0630E-3
-552.776E-6	-696.622E-15	15.8442E-3	-24.3061E-3	-678.574E-15	30.0372E-3	-13.2616E-3
-557.779E-6	-680.910E-15	23.1054E-3	-28.3096E-3	-661.335E-15	30.6905E-3	-21.7405E-3
-562.781E-6	-649.852E-15	38.8505E-3	-29.8978E-3	-695.227E-15	41.0073E-3	-24.9241E-3
-567.784E-6	-681.564E-15	39.6676E-3	-35.8848E-3	-752.967E-15	55.7973E-3	-28.6491E-3
-572.786E-6	-711.001E-15	36.6247E-3	-20.6224E-3	-761.991E-15	45.5148E-3	-31.6109E-3
-577.789E-6	-717.802E-15	36.2069E-3	-434.291E-6	-754.301E-15	24.9904E-3	-11.5227E-3
-582.791E-6	-695.637E-15	31.2918E-3	-5.40225E-3	-708.760E-15	19.9534E-3	16.3771E-3
-587.794E-6	-731.369E-15	33.6274E-3	-9.41718E-3	-742.390E-15	31.0764E-3	10.1871E-3
-592.796E-6	-790.338E-15	42.7611E-3	-7.37216E-3	-820.018E-15	45.4753E-3	-9.66523E-3
-597.799E-6	-744.500E-15	39.8003E-3	-14.3784E-3	-848.687E-15	51.0933E-3	-17.2288E-3
-602.801E-6	-834.754E-15	30.4108E-3	-11.3736E-3	-779.683E-15	37.1331E-3	-30.1245E-3
-607.804E-6	-741.919E-15	21.0510E-3	-13.6051E-3	-791.122E-15	20.0606E-3	-33.1040E-3
-612.806E-6	-810.078E-15	19.1921E-3	-29.5956E-3	-876.249E-15	16.6947E-3	-22.4843E-3
-617.809E-6	-817.298E-15	35.9547E-3	-31.1487E-3	-887.636E-15	15.0419E-3	-27.8252E-3
-622.811E-6	-788.254E-15	45.7254E-3	-20.4209E-3	-853.169E-15	16.8426E-3	-29.3285E-3
-627.814E-6	-826.139E-15	43.8114E-3	-9.49433E-3	-825.939E-15	27.3746E-3	-15.3659E-3
-632.816E-6	-820.977E-15	44.8684E-3	-8.32590E-3	-929.297E-15	29.4759E-3	-10.3556E-3
-637.819E-6	-867.460E-15	35.8718E-3	-15.6488E-3	-885.788E-15	24.5387E-3	-11.3608E-3
-642.821E-6	-900.175E-15	29.4501E-3	-23.5105E-3	-839.985E-15	34.1225E-3	-15.7871E-3
-647.824E-6	-920.831E-15	38.2641E-3	-27.1831E-3	-831.231E-15	46.2224E-3	-25.8133E-3
-652.826E-6	-902.058E-15	42.8955E-3	-14.4526E-3	-989.051E-15	44.5210E-3	-26.7299E-3
-657.829E-6	-896.007E-15	42.0649E-3	238.368E-6	-966.485E-15	45.5479E-3	-19.6567E-3
-662.831E-6	-906.828E-15	43.0699E-3	-573.835E-6	-904.142E-15	49.2920E-3	-15.5876E-3
-667.834E-6	-937.825E-15	36.4375E-3	-8.42515E-3	-942.734E-15	39.0963E-3	-8.86740E-3
-672.836E-6	-952.552E-15	24.9914E-3	-13.9344E-3	-947.276E-15	32.6911E-3	-6.27855E-3
-677.839E-6	-984.621E-15	16.7257E-3	-14.3609E-3	-953.877E-15	34.5380E-3	-22.4355E-3
-682.841E-6	-981.081E-15	18.0649E-3	-14.7196E-3	-965.439E-15	23.0753E-3	-22.9055E-3
-687.844E-6	-993.707E-15	27.5148E-3	-21.3212E-3	-947.887E-15	11.1421E-3	-5.80731E-3
-692.846E-6	-1.01964E-12	35.2259E-3	-30.3415E-3	-967.985E-15	12.9448E-3	-16.6297E-3
-697.849E-6	-964.506E-15	38.7836E-3	-30.0953E-3	-975.440E-15	16.2030E-3	-25.2829E-3
-702.851E-6	-1.05473E-12	35.6096E-3	-16.8617E-3	-1.03334E-12	22.9003E-3	-3.68425E-3
-707.854E-6	-1.02580E-12	30.4201E-3	-10.0915E-3	-1.06284E-12	30.1845E-3	9.70576E-3
-712.856E-6	-1.08963E-12	38.5505E-3	-5.06027E-3	-1.03764E-12	21.9011E-3	7.83267E-3
-717.859E-6	-1.03645E-12	50.2039E-3	13.7825E-3	-979.869E-15	20.6426E-3	4.10483E-3
-722.861E-6	-1.06911E-12	43.3485E-3	17.1961E-3	-1.07512E-12	38.5589E-3	-5.62055E-3
-727.864E-6	-1.09294E-12	26.4714E-3	775.852E-6	-1.17883E-12	44.8499E-3	-15.1328E-3
-732.866E-6	-1.10901E-12	18.5990E-3	-4.82756E-3	-1.10434E-12	35.1368E-3	-16.1444E-3
-737.869E-6	-1.11461E-12	20.6202E-3	-5.15180E-3	-1.03965E-12	32.4165E-3	-14.0769E-3
-742.871E-6	-1.17863E-12	30.8092E-3	-16.8537E-3	-1.08353E-12	35.6730E-3	-19.3538E-3
-747.874E-6	-1.19439E-12	40.6863E-3	-29.0412E-3	-1.22322E-12	43.6299E-3	-20.0770E-3
-752.876E-6	-1.17482E-12	38.6293E-3	-34.9270E-3	-1.20348E-12	52.6357E-3	-9.95992E-3
-757.879E-6	-1.18500E-12	27.2196E-3	-35.6200E-3	-1.16962E-12	37.8820E-3	-3.49636E-3
-762.881E-6	-1.25391E-12	13.9942E-3	-29.3485E-3	-1.10169E-12	16.0496E-3	-3.77081E-3
-767.884E-6	-1.28859E-12	5.90742E-3	-19.5716E-3	-1.28758E-12	17.8940E-3	-9.59959E-3
-772.886E-6	-1.22311E-12	15.3047E-3	-14.4634E-3	-1.35899E-12	30.4430E-3	-10.9743E-3
-777.889E-6	-1.26021E-12	36.7491E-3	-6.50271E-3	-1.28061E-12	40.9106E-3	2.27236E-3
-782.891E-6	-1.24803E-12	46.7480E-3	8.08111E-3	-1.24683E-12	39.0497E-3	12.1758E-3
-787.894E-6	-1.29019E-12	49.0105E-3	15.8708E-3	-1.27762E-12	24.0939E-3	101.083E-6
-792.896E-6	-1.30233E-12	52.0955E-3	6.69113E-3	-1.33238E-12	20.3465E-3	-14.0535E-3
-797.899E-6	-1.30639E-12	41.4494E-3	-10.8573E-3	-1.32740E-12	29.9608E-3	-28.4811E-3
-802.901E-6	-1.33074E-12	22.4267E-3	-16.0050E-3	-1.33505E-12	35.9732E-3	-41.3895E-3
-807.904E-6	-1.33225E-12	19.4248E-3	-14.8926E-3	-1.33596E-12	40.3248E-3	-21.0681E-3
-812.906E-6	-1.23936E-12	36.7450E-3	-18.0699E-3	-1.35034E-12	45.6035E-3	7.00476E-3
-817.909E-6	-1.36164E-12	51.3603E-3	-23.5265E-3	-1.45105E-12	47.4778E-3	4.61260E-3
-822.911E-6	-1.40388E-12	46.9749E-3	-32.2406E-3	-1.42172E-12	48.9578E-3	-9.89199E-3
-827.914E-6	-1.44473E-12	36.5454E-3	-32.9159E-3	-1.41981E-12	50.8139E-3	-19.9963E-3
-832.916E-6	-1.31416E-12	29.8975E-3	-24.9425E-3	-1.35870E-12	46.7666E-3	-23.9793E-3
-837.919E-6	-1.31786E-12	27.4803E-3	-19.8514E-3	-1.50532E-12	35.7100E-3	-14.1807E-3
-842.921E-6	-1.42765E-12	29.5740E-3	-17.3447E-3	-1.52547E-12	21.3518E-3	-7.33931E-3
-847.924E-6	-1.42474E-12	35.1446E-3	-21.9066E-3	-1.47296E-12	11.4215E-3	-16.1050E-3
-852.926E-6	-1.43238E-12	40.8213E-3	-30.1356E-3	-1.41561E-12	24.4604E-3	-18.9161E-3
-857.929E-6	-1.41358E-12	49.4505E-3	-36.0756E-3	-1.57662E-12	50.5317E-3	-18.3774E-3
-862.931E-6	-1.43884E-12	53.8700E-3	-40.6505E-3	-1.61135E-12	59.1189E-3	-14.1505E-3
-867.934E-6	-1.49085E-12	41.3100E-3	-32.2666E-3	-1.61688E-12	54.6346E-3	-599.383E-6
-872.936E-6	-1.44756E-12	35.2093E-3	-19.2577E-3	-1.46247E-12	54.5588E-3	2.41109E-3
-877.939E-6	-1.51367E-12	47.1682E-3	-22.1156E-3	-1.56025E-12	53.1643E-3	-1.03630E-3
-882.941E-6	-1.51326E-12	58.9809E-3	-24.5987E-3	-1.65473E-12	45.8844E-3	293.178E-6
-887.944E-6	-1.55753E-12	64.7940E-3	-19.2354E-3	-1.62729E-12	45.8907E-3	-8.09742E-3
-892.946E-6	-1.53337E-12	71.4119E-3	-16.6595E-3	-1.59318E-12	57.8324E-3	-27.1055E-3
-897.949E-6	-1.58880E-12	77.3830E-3	-16.8423E-3	-1.58072E-12	70.4351E-3	-29.7439E-3
-902.951E-6	-1.57964E-12	66.7568E-3	-19.7960E-3	-1.71614E-12	79.9402E-3	-17.8805E-3
-907.954E-6	-1.57183E-12	47.5185E-3	-22.2218E-3	-1.77367E-12	82.9879E-3	-12.3323E-3
-912.956E-6	-1.62968E-12	45.9337E-3	-24.3653E-3	-1.71080E-12	72.6145E-3	-11.5763E-3
-917.959E-6	-1.65079E-12	62.6899E-3	-19.9581E-3	-1.71274E-12	66.4162E-3	-14.4945E-3
-922.961E-6	-1.68683E-12	78.3781E-3	-9.49715E-3	-1.75336E-12	79.4389E-3	-23.9465E-3
-927.964E-6	-1.69513E-12	77.0110E-3	-3.63861E-3	-1.78845E-12	88.8262E-3	-26.3922E-3
-932.966E-6	-1.72593E-12	69.8704E-3	-8.75584E-3	-1.81759E-12	93.1238E-3	-21.8052E-3
-937.969E-6	-1.78905E-12	75.4482E-3	-23.3986E-3	-1.91583E-12	107.485E-3	-25.6179E-3
-942.971E-6	-1.79498E-12	84.2692E-3	-33.8787E-3	-1.93763E-12	105.744E-3	-31.0300E-3
-947.974E-6	-1.81473E-12	86.3345E-3	-33.3554E-3	-1.92666E-12	95.4767E-3	-32.1938E-3
-952.976E-6	-1.83430E-12	89.2935E-3	-26.1130E-3	-1.95336E-12	110.099E-3	-32.4045E-3
-957.979E-6	-1.90474E-12	89.2627E-3	-18.0629E-3	-2.02173E-12	126.338E-3	-29.8705E-3
-962.981E-6	-1.94319E-12	84.8725E-3	-18.3113E-3	-2.04504E-12	128.495E-3	-20.9896E-3
-967.984E-6	-2.01852E-12	89.1503E-3	-31.2640E-3	-1.93040E-12	131.762E-3	-15.1715E-3
-972.986E-6	-2.08566E-12	99.7314E-3	-41.3604E-3	-2.03641E-12	125.215E-3	-8.35484E-3
-977.989E-6	-2.10607E-12	109.646E-3	-35.4964E-3	-2.20641E-12	120.814E-3	1.26131E-3
-982.991E-6	-2.15833E-12	121.199E-3	-22.1582E-3	-2.27978E-12	132.432E-3	-9.50279E-3
-987.994E-6	-2.22861E-12	134.693E-3	-15.6271E-3	-2.22570E-12	133.846E-3	-26.2715E-3
-992.997E-6	-2.28988E-12	140.283E-3	-10.5326E-3	-2.21618E-12	136.202E-3	-25.1113E-3
-997.999E-6	-2.31045E-12	134.974E-3	-13.2047E-3	-2.35613E-12	155.776E-3	-20.9917E-3
-1.00300E-3	-2.33341E-12	125.117E-3	-29.7179E-3	-2.43584E-12	169.575E-3	-19.2847E-3
-1.00800E-3	-2.42145E-12	121.389E-3	-37.3965E-3	-2.41059E-12	167.569E-3	-13.4748E-3
-1.01301E-3	-2.44033E-12	135.238E-3	-32.0608E-3	-2.41713E-12	167.946E-3	-2.64325E-3
-1.01801E-3	-2.51969E-12	153.340E-3	-23.9602E-3	-2.56037E-12	173.206E-3	7.04241E-3
-1.02301E-3	-2.49587E-12	158.081E-3	-24.9478E-3	-2.68973E-12	181.080E-3	10.3059E-3
-1.02801E-3	-2.62014E-12	158.717E-3	-33.7916E-3	-2.71260E-12	200.599E-3	5.16520E-3
-1.03302E-3	-2.61101E-12	158.496E-3	-41.7480E-3	-2.64068E-12	216.441E-3	-14.0025E-3
-1.03802E-3	-2.73471E-12	160.288E-3	-46.5767E-3	-2.77732E-12	217.350E-3	-25.3865E-3
-1.04302E-3	-2.79730E-12	178.577E-3	-38.0164E-3	-2.84094E-12	217.999E-3	-19.0624E-3
-1.04802E-3	-2.89794E-12	201.237E-3	-20.0790E-3	-2.99562E-12	228.492E-3	-14.5987E-3
-1.05303E-3	-2.93077E-12	216.016E-3	-19.2626E-3	-3.00656E-12	246.260E-3	-15.7689E-3
-1.05803E-3	-2.99760E-12	223.455E-3	-30.3375E-3	-3.02718E-12	266.702E-3	-14.4757E-3
-1.06303E-3	-3.06346E-12	214.135E-3	-24.3558E-3	-3.07474E-12	276.181E-3	-10.5238E-3
-1.06803E-3	-3.25382E-12	206.347E-3	-4.76140E-3	-3.22712E-12	274.003E-3	-449.611E-6
-1.07304E-3	-3.38921E-12	225.325E-3	9.11636E-3	-3.39728E-12	284.025E-3	2.97476E-3
-1.07804E-3	-3.41628E-12	251.420E-3	812.753E-6	-3.43106E-12	301.812E-3	-16.8420E-3
-1.08304E-3	-3.45304E-12	261.901E-3	-20.8227E-3	-3.43529E-12	312.683E-3	-23.4171E-3
-1.08804E-3	-3.58313E-12	268.231E-3	-26.7475E-3	-3.52907E-12	330.388E-3	-10.4761E-3
-1.09305E-3	-3.73663E-12	280.494E-3	-16.6703E-3	-3.80111E-12	347.204E-3	-11.2732E-3
-1.09805E-3	-3.84783E-12	294.424E-3	-5.92255E-3	-3.86733E-12	347.058E-3	-18.1407E-3
-1.10305E-3	-3.91879E-12	310.415E-3	-7.99241E-3	-3.81777E-12	359.382E-3	-12.7018E-3
-1.10805E-3	-4.06462E-12	327.790E-3	-18.1093E-3	-3.96581E-12	380.930E-3	-7.89138E-3
-1.11306E-3	-4.19474E-12	344.186E-3	-19.7557E-3	-4.20819E-12	389.222E-3	-9.81141E-3
-1.11806E-3	-4.29608E-12	347.642E-3	-20.9760E-3	-4.34295E-12	403.333E-3	-1.64866E-3
-1.12306E-3	-4.38136E-12	345.912E-3	-19.3820E-3	-4.30584E-12	417.743E-3	3.71625E-3
-1.12806E-3	-4.46004E-12	360.191E-3	-4.53944E-3	-4.47295E-12	422.964E-3	-2.36379E-3
-1.13307E-3	-4.63221E-12	384.097E-3	6.17970E-3	-4.71573E-12	440.479E-3	-9.70520E-3
-1.13807E-3	-4.71739E-12	396.469E-3	3.27691E-3	-4.85837E-12	465.804E-3	-21.9065E-3
-1.14307E-3	-4.86672E-12	396.383E-3	-5.00432E-3	-4.94543E-12	471.778E-3	-33.9192E-3
-1.14807E-3	-4.99147E-12	411.736E-3	-6.04714E-3	-5.01700E-12	480.939E-3	-29.3224E-3
-1.15308E-3	-5.10315E-12	437.556E-3	3.03579E-3	-5.27466E-12	512.505E-3	-22.3664E-3
-1.15808E-3	-5.30978E-12	450.291E-3	-3.34087E-3	-5.43042E-12	529.803E-3	-27.1930E-3
-1.16308E-3	-5.54766E-12	461.624E-3	-24.0590E-3	-5.51047E-12	534.357E-3	-23.3322E-3
-1.16808E-3	-5.76750E-12	474.551E-3	-30.1221E-3	-5.76563E-12	559.101E-3	-20.9063E-3
-1.17309E-3	-5.92462E-12	496.111E-3	-23.9299E-3	-6.02172E-12	585.919E-3	-27.7862E-3
-1.17809E-3	-6.15169E-12	523.226E-3	-15.8389E-3	-6.15907E-12	601.949E-3	-28.2608E-3
-1.18309E-3	-6.42000E-12	542.261E-3	-13.1774E-3	-6.30382E-12	629.243E-3	-27.1031E-3
-1.18809E-3	-6.61418E-12	565.950E-3	-17.7353E-3	-6.58582E-12	659.791E-3	-26.6947E-3
-1.19310E-3	-6.75083E-12	592.659E-3	-18.3670E-3	-6.82134E-12	673.288E-3	-20.8111E-3
-1.19810E-3	-6.94927E-12	623.424E-3	-19.0084E-3	-6.98853E-12	683.700E-3	-9.97792E-3
-1.20310E-3	-7.29103E-12	645.985E-3	-27.1033E-3	-7.18230E-12	698.434E-3	-9.27959E-3
-1.20810E-3	-7.51004E-12	655.384E-3	-29.0143E-3	-7.45546E-12	716.534E-3	-14.5369E-3
-1.21311E-3	-7.64269E-12	660.065E-3	-21.3115E-3	-7.77506E-12	739.750E-3	-14.1398E-3
-1.21811E-3	-7.85742E-12	661.245E-3	-19.5408E-3	-7.96372E-12	756.116E-3	-19.4001E-3
-1.22311E-3	-8.18177E-12	680.749E-3	-24.2425E-3	-8.09727E-12	775.098E-3	-23.3546E-3
-1.22811E-3	-8.44729E-12	706.086E-3	-25.1171E-3	-8.47467E-12	802.957E-3	-18.2559E-3
-1.23312E-3	-8.55064E-12	713.692E-3	-15.7298E-3	-8.81200E-12	826.019E-3	-16.6337E-3
-1.23812E-3	-8.70887E-12	722.792E-3	-12.8655E-3	-9.06677E-12	845.880E-3	-9.58939E-3
-1.24312E-3	-9.01553E-12	751.228E-3	-23.6583E-3	-9.14876E-12	864.936E-3	80.7674E-6
-1.24812E-3	-9.27559E-12	778.869E-3	-21.2759E-3	-9.39384E-12	869.952E-3	-10.1140E-3
-1.25313E-3	-9.52504E-12	787.222E-3	-8.40238E-3	-9.81748E-12	865.400E-3	-19.8860E-3
-1.25813E-3	-9.77793E-12	796.227E-3	-3.16005E-3	-10.0608E-12	869.858E-3	-14.5092E-3
-1.26313E-3	-10.1135E-12	813.405E-3	-4.12507E-3	-10.2826E-12	889.502E-3	-15.1653E-3
-1.26813E-3	-10.5306E-12	832.336E-3	-5.40926E-3	-10.6644E-12	922.444E-3	-18.8154E-3
-1.27314E-3	-10.8410E-12	859.071E-3	-9.48277E-3	-10.9093E-12	950.243E-3	-15.6880E-3
-1.27814E-3	-11.1647E-12	887.348E-3	-9.78708E-3	-11.2804E-12	967.530E-3	-12.3156E-3
-1.28314E-3	-11.4399E-12	904.862E-3	5.19289E-3	-11.5087E-12	980.967E-3	-4.46065E-3
-1.28814E-3	-11.8012E-12	927.764E-3	17.5558E-3	-11.7967E-12	990.994E-3	-8.40850E-3
-1.29315E-3	-12.2443E-12	968.010E-3	18.5830E-3	-12.0952E-12	1.00436E+0	-22.9341E-3
-1.29815E-3	-12.7047E-12	997.887E-3	6.11212E-3	-12.4735E-12	1.02195E+0	-20.3800E-3
-1.30315E-3	-12.9072E-12	1.00699E+0	-17.8869E-3	-12.8625E-12	1.04908E+0	-19.1918E-3
-1.30815E-3	-13.1988E-12	1.01413E+0	-22.4665E-3	-13.2288E-12	1.07295E+0	-33.9426E-3
-1.31316E-3	-13.5558E-12	1.01759E+0	-12.6992E-3	-13.3980E-12	1.07236E+0	-43.5249E-3
-1.31816E-3	-14.1347E-12	1.02174E+0	-21.5154E-3	-13.7936E-12	1.07442E+0	-34.6041E-3
-1.32316E-3	-14.2440E-12	1.03783E+0	-26.4283E-3	-14.2723E-12	1.09507E+0	-25.5606E-3
-1.32816E-3	-14.4198E-12	1.05257E+0	-15.9008E-3	-14.6178E-12	1.10693E+0	-29.6653E-3
-1.33317E-3	-14.6157E-12	1.06728E+0	-8.00188E-3	-14.7968E-12	1.10887E+0	-27.5573E-3
-1.33817E-3	-15.1898E-12	1.08076E+0	-5.44711E-3	-15.1425E-12	1.12801E+0	-19.2490E-3
-1.34317E-3	-15.4704E-12	1.08172E+0	-10.5272E-3	-15.6144E-12	1.15252E+0	-19.1974E-3
-1.34817E-3	-15.5118E-12	1.08673E+0	-18.1065E-3	-15.9581E-12	1.15565E+0	-19.2513E-3
-1.35318E-3	-15.7971E-12	1.10521E+0	-22.4157E-3	-15.9973E-12	1.15962E+0	-18.8165E-3
-1.35818E-3	-16.3623E-12	1.11314E+0	-19.7830E-3	-16.3867E-12	1.17045E+0	-25.7773E-3
-1.36318E-3	-16.8273E-12	1.10419E+0	-13.9634E-3	-17.1213E-12	1.16763E+0	-24.8075E-3
-1.36818E-3	-17.2431E-12	1.10776E+0	-5.08689E-3	-17.6090E-12	1.16309E+0	-13.6331E-3
-1.37319E-3	-17.7204E-12	1.12310E+0	-60.9303E-6	-17.8351E-12	1.17117E+0	-21.2184E-3
-1.37819E-3	-18.0703E-12	1.13382E+0	-6.45756E-3	-18.0493E-12	1.18208E+0	-31.2379E-3
-1.38319E-3	-18.5976E-12	1.14627E+0	-5.04055E-3	-18.6196E-12	1.18724E+0	-27.2607E-3
-1.38819E-3	-19.0617E-12	1.15825E+0	41.1287E-6	-19.1256E-12	1.19422E+0	-29.8100E-3
-1.39320E-3	-19.5189E-12	1.16805E+0	-7.76978E-3	-19.5413E-12	1.20215E+0	-28.7911E-3
-1.39820E-3	-19.9129E-12	1.18193E+0	-10.9693E-3	-19.6934E-12	1.20090E+0	-21.9106E-3
-1.40320E-3	-20.3365E-12	1.19494E+0	-9.74808E-3	-20.2097E-12	1.19436E+0	-19.3474E-3
-1.40820E-3	-20.7481E-12	1.20505E+0	-16.1903E-3	-20.8166E-12	1.19501E+0	-22.7292E-3
-1.41321E-3	-21.2053E-12	1.21771E+0	-11.1193E-3	-21.3516E-12	1.20584E+0	-17.7421E-3
-1.41821E-3	-21.5261E-12	1.22208E+0	214.442E-6	-21.5006E-12	1.21725E+0	-5.73575E-3
-1.42321E-3	-21.8278E-12	1.22108E+0	-1.17740E-3	-21.8805E-12	1.22450E+0	-6.75718E-3
-1.42821E-3	-22.1525E-12	1.22831E+0	-12.7646E-3	-22.4125E-12	1.22785E+0	-11.4747E-3
-1.43322E-3	-22.5520E-12	1.22488E+0	-14.8170E-3	-22.8583E-12	1.22339E+0	-15.4955E-3
-1.43822E-3	-22.9011E-12	1.21618E+0	-6.94800E-3	-23.3160E-12	1.21789E+0	-12.6450E-3
-1.44322E-3	-23.2157E-12	1.22556E+0	-3.51699E-3	-23.4851E-12	1.21917E+0	-3.88120E-3
-1.44822E-3	-23.5388E-12	1.23048E+0	-4.75044E-3	-23.8909E-12	1.22203E+0	-5.95390E-3
-1.45323E-3	-23.8725E-12	1.22601E+0	-9.75655E-3	-24.2693E-12	1.23329E+0	-11.4392E-3
-1.45823E-3	-24.4041E-12	1.22976E+0	-8.39180E-3	-24.7815E-12	1.25167E+0	-12.7757E-3
-1.46323E-3	-24.8464E-12	1.22438E+0	-10.0160E-3	-25.2175E-12	1.25920E+0	-12.6736E-3
-1.46823E-3	-25.1842E-12	1.20904E+0	-19.1951E-3	-25.5633E-12	1.25612E+0	-7.20183E-3
-1.47324E-3	-25.6479E-12	1.20679E+0	-13.8966E-3	-25.8474E-12	1.24808E+0	-6.01529E-3
-1.47824E-3	-26.0346E-12	1.21593E+0	3.98675E-3	-26.4112E-12	1.23516E+0	-20.9513E-3
-1.48324E-3	-26.4247E-12	1.21751E+0	4.76047E-3	-26.9674E-12	1.21833E+0	-29.7712E-3
-1.48824E-3	-26.8123E-12	1.20847E+0	-9.41071E-3	-27.0550E-12	1.20551E+0	-14.6564E-3
-1.49325E-3	-27.4357E-12	1.20686E+0	-13.6367E-3	-27.4090E-12	1.20226E+0	-5.71251E-3
-1.49825E-3	-27.9415E-12	1.21176E+0	-13.4894E-3	-27.9190E-12	1.20061E+0	-15.8145E-3
-1.50325E-3	-28.2986E-12	1.21370E+0	-16.2245E-3	-28.4877E-12	1.18989E+0	-16.3039E-3
-1.50825E-3	-28.8084E-12	1.21681E+0	-21.1013E-3	-28.7479E-12	1.18653E+0	-6.05284E-3
-1.51326E-3	-29.3901E-12	1.21989E+0	-26.0434E-3	-28.9066E-12	1.19226E+0	-2.10411E-3
-1.51826E-3	-29.7805E-12	1.21853E+0	-25.6127E-3	-29.2010E-12	1.18878E+0	-4.18700E-3
-1.52326E-3	-30.1074E-12	1.21416E+0	-24.5403E-3	-29.8446E-12	1.18192E+0	-15.2894E-3
-1.52826E-3	-30.4824E-12	1.21309E+0	-19.5066E-3	-30.3359E-12	1.17056E+0	-26.4543E-3
-1.53327E-3	-31.1619E-12	1.22140E+0	-15.5445E-3	-30.2270E-12	1.15795E+0	-27.2498E-3
-1.53827E-3	-31.2796E-12	1.22450E+0	-19.6416E-3	-30.5993E-12	1.15527E+0	-24.0949E-3
-1.54327E-3	-31.4007E-12	1.20941E+0	-12.6368E-3	-31.0938E-12	1.15864E+0	-21.6447E-3
-1.54827E-3	-31.8819E-12	1.19967E+0	1.20898E-3	-31.7000E-12	1.15979E+0	-17.0221E-3
-1.55328E-3	-32.3226E-12	1.20814E+0	-451.590E-6	-31.8473E-12	1.16038E+0	-6.83112E-3
-1.55828E-3	-32.4156E-12	1.20608E+0	-12.3029E-3	-32.3360E-12	1.15827E+0	-2.56934E-3
-1.56328E-3	-32.5309E-12	1.18165E+0	-17.5381E-3	-32.8050E-12	1.14323E+0	-166.661E-6
-1.56828E-3	-32.9677E-12	1.15788E+0	-14.8900E-3	-33.2009E-12	1.13428E+0	-2.85056E-3
-1.57329E-3	-33.5796E-12	1.14298E+0	-12.7151E-3	-33.6728E-12	1.13825E+0	-13.7819E-3
-1.57829E-3	-33.9690E-12	1.14029E+0	-15.7883E-3	-33.9603E-12	1.13650E+0	-10.7951E-3
-1.58329E-3	-34.1758E-12	1.14855E+0	-18.4705E-3	-34.3936E-12	1.13855E+0	-8.14272E-3
-1.58829E-3	-34.6055E-12	1.14594E+0	-11.0846E-3	-34.5976E-12	1.13363E+0	-20.9275E-3
-1.59330E-3	-35.1689E-12	1.13165E+0	-10.5774E-3	-35.0941E-12	1.11558E+0	-27.1108E-3
-1.59830E-3	-35.6780E-12	1.12088E+0	-10.9216E-3	-35.4897E-12	1.10646E+0	-21.9539E-3
-1.60330E-3	-36.0816E-12	1.11316E+0	-4.95954E-3	-35.7130E-12	1.10296E+0	-22.0905E-3
-1.60830E-3	-36.5938E-12	1.10653E+0	-12.5698E-3	-35.9428E-12	1.09484E+0	-26.6699E-3
-1.61331E-3	-37.1526E-12	1.11554E+0	-25.2589E-3	-36.3613E-12	1.08473E+0	-28.9216E-3
-1.61831E-3	-37.6944E-12	1.12646E+0	-29.9992E-3	-37.0231E-12	1.07628E+0	-33.1669E-3
-1.62331E-3	-38.1825E-12	1.11661E+0	-27.7332E-3	-37.3014E-12	1.06645E+0	-35.6600E-3
-1.62831E-3	-38.3341E-12	1.11174E+0	-18.0325E-3	-37.5112E-12	1.05829E+0	-23.3266E-3
-1.63332E-3	-38.6623E-12	1.11348E+0	-4.95925E-3	-37.9849E-12	1.06354E+0	-6.64723E-3
-1.63832E-3	-39.2428E-12	1.10367E+0	-6.88053E-3	-38.5358E-12	1.07611E+0	-6.76668E-3
-1.64332E-3	-39.5712E-12	1.09849E+0	-19.3565E-3	-38.9822E-12	1.07280E+0	-4.35918E-3
-1.64832E-3	-39.3965E-12	1.09677E+0	-21.7890E-3	-39.2807E-12	1.05837E+0	2.94170E-3
-1.65333E-3	-39.5430E-12	1.07974E+0	-18.1611E-3	-39.6708E-12	1.05187E+0	-1.82594E-3
-1.65833E-3	-39.9062E-12	1.06262E+0	-19.6464E-3	-40.2768E-12	1.04503E+0	-1.53577E-3
-1.66333E-3	-40.3106E-12	1.06077E+0	-21.4086E-3	-40.6703E-12	1.03351E+0	-639.753E-6
-1.66833E-3	-40.3310E-12	1.05690E+0	-19.1336E-3	-40.9615E-12	1.02672E+0	-8.55480E-3
-1.67334E-3	-40.3200E-12	1.04787E+0	-17.2153E-3	-41.3658E-12	1.02151E+0	-8.25045E-3
-1.67834E-3	-40.7767E-12	1.03918E+0	-13.4212E-3	-41.6080E-12	1.01851E+0	-8.40699E-3
-1.68334E-3	-41.2787E-12	1.02729E+0	-11.5430E-3	-42.1949E-12	1.02497E+0	-19.6844E-3
-1.68834E-3	-41.8059E-12	1.01562E+0	-16.9047E-3	-42.5392E-12	1.02951E+0	-27.5665E-3
-1.69335E-3	-42.1053E-12	1.00946E+0	-19.7477E-3	-42.7055E-12	1.01671E+0	-26.5229E-3
-1.69835E-3	-42.5900E-12	1.01048E+0	-24.9686E-3	-42.8800E-12	990.662E-3	-24.9649E-3
-1.70335E-3	-43.3470E-12	1.01412E+0	-26.3810E-3	-43.2854E-12	980.452E-3	-16.5169E-3
-1.70835E-3	-44.2704E-12	1.01616E+0	-18.4846E-3	-43.7303E-12	979.371E-3	-5.57223E-3
-1.71336E-3	-44.7599E-12	1.00798E+0	-20.0489E-3	-44.0465E-12	968.247E-3	-14.1381E-3
-1.71836E-3	-44.7572E-12	999.103E-3	-23.1253E-3	-44.1764E-12	959.822E-3	-26.4803E-3
-1.72336E-3	-45.3547E-12	999.719E-3	-17.1821E-3	-44.4088E-12	959.238E-3	-22.0165E-3
-1.72836E-3	-46.0780E-12	991.736E-3	-15.9873E-3	-45.0460E-12	965.123E-3	-16.3772E-3
-1.73337E-3	-46.4069E-12	974.109E-3	-19.9108E-3	-45.4439E-12	966.798E-3	-25.3086E-3
-1.73837E-3	-45.8650E-12	969.853E-3	-22.7259E-3	-45.4264E-12	964.002E-3	-42.8197E-3
-1.74337E-3	-45.9605E-12	975.395E-3	-26.9150E-3	-45.4773E-12	962.354E-3	-43.8952E-3
-1.74837E-3	-46.3521E-12	969.837E-3	-21.0522E-3	-45.7905E-12	964.662E-3	-25.9966E-3
-1.75338E-3	-46.5410E-12	966.668E-3	-16.3466E-3	-46.5005E-12	967.819E-3	-13.1463E-3
-1.75838E-3	-46.3351E-12	971.708E-3	-25.2229E-3	-46.6808E-12	947.845E-3	-16.9752E-3
-1.76338E-3	-46.2648E-12	961.708E-3	-23.8255E-3	-46.7098E-12	918.018E-3	-30.5951E-3
-1.76838E-3	-46.8776E-12	951.114E-3	-12.9160E-3	-46.9960E-12	914.920E-3	-34.0347E-3
-1.77339E-3	-46.9405E-12	948.310E-3	-12.6046E-3	-47.7778E-12	923.987E-3	-20.4014E-3
-1.77839E-3	-47.3915E-12	939.795E-3	-16.4845E-3	-48.0984E-12	927.645E-3	-10.8295E-3
-1.78339E-3	-47.7083E-12	925.250E-3	-13.4335E-3	-48.1923E-12	927.701E-3	-11.6179E-3
-1.78839E-3	-48.2827E-12	908.986E-3	-6.83394E-3	-48.4369E-12	925.962E-3	-19.5347E-3
-1.79340E-3	-48.7132E-12	903.720E-3	1.75079E-3	-48.9691E-12	923.765E-3	-27.5416E-3
-1.79840E-3	-49.3444E-12	919.468E-3	5.94591E-3	-49.5199E-12	912.518E-3	-22.4457E-3
-1.80340E-3	-49.9435E-12	941.970E-3	6.74708E-3	-49.5325E-12	897.599E-3	-18.7535E-3
-1.80840E-3	-50.5800E-12	940.731E-3	-571.306E-6	-49.6629E-12	898.716E-3	-25.5418E-3
-1.81341E-3	-50.9698E-12	926.324E-3	-17.0756E-3	-50.1117E-12	908.931E-3	-29.1176E-3
-1.81841E-3	-51.6105E-12	915.670E-3	-16.2655E-3	-50.6478E-12	906.281E-3	-25.2831E-3
-1.82341E-3	-52.0119E-12	913.321E-3	-7.62943E-3	-51.1068E-12	892.236E-3	-24.0280E-3
-1.82841E-3	-51.8973E-12	928.011E-3	-7.71557E-3	-50.9715E-12	880.295E-3	-19.8701E-3
-1.83342E-3	-52.1481E-12	937.307E-3	-9.33515E-3	-51.3063E-12	877.916E-3	-11.4136E-3
-1.83842E-3	-52.6683E-12	924.387E-3	-21.2486E-3	-51.3714E-12	881.928E-3	-22.0956E-3
-1.84342E-3	-52.6610E-12	913.092E-3	-30.7771E-3	-51.7521E-12	882.443E-3	-38.7954E-3
-1.84842E-3	-52.1468E-12	909.578E-3	-15.1167E-3	-51.9471E-12	877.124E-3	-32.7454E-3
-1.85343E-3	-51.9805E-12	901.276E-3	722.892E-6	-52.1456E-12	874.640E-3	-23.3792E-3
-1.85843E-3	-52.3467E-12	886.433E-3	162.545E-6	-52.2262E-12	874.257E-3	-17.1908E-3
-1.86343E-3	-52.9262E-12	872.178E-3	-10.6386E-3	-52.7804E-12	871.154E-3	-11.0886E-3
-1.86843E-3	-52.9691E-12	868.594E-3	-22.2922E-3	-53.0620E-12	871.177E-3	-15.2222E-3
-1.87344E-3	-52.8839E-12	876.936E-3	-17.9931E-3	-53.3737E-12	870.929E-3	-22.4479E-3
-1.87844E-3	-53.5081E-12	885.801E-3	-4.97394E-3	-53.6109E-12	867.295E-3	-21.0703E-3
-1.88344E-3	-53.9669E-12	883.239E-3	793.657E-6	-54.1497E-12	854.096E-3	-16.2359E-3
-1.88844E-3	-54.3632E-12	877.299E-3	-6.24434E-3	-54.4582E-12	841.151E-3	-14.7805E-3
-1.89345E-3	-54.5842E-12	866.550E-3	-14.5369E-3	-54.9011E-12	844.668E-3	-21.5758E-3
-1.89845E-3	-54.9648E-12	851.162E-3	-17.2779E-3	-55.0895E-12	854.036E-3	-31.9298E-3
-1.90345E-3	-55.2723E-12	844.151E-3	-17.3639E-3	-55.4923E-12	862.345E-3	-29.2514E-3
-1.90845E-3	-55.5565E-12	852.471E-3	-12.0044E-3	-55.9334E-12	862.835E-3	-17.5348E-3
-1.91346E-3	-56.1850E-12	865.133E-3	-7.40484E-3	-56.2667E-12	869.170E-3	-19.3338E-3
-1.91846E-3	-56.6952E-12	862.085E-3	-7.07265E-3	-56.3955E-12	879.080E-3	-35.9658E-3
-1.92346E-3	-56.8961E-12	852.077E-3	-10.5905E-3	-56.6974E-12	866.465E-3	-34.7720E-3
-1.92846E-3	-56.8753E-12	845.515E-3	-20.7881E-3	-56.8080E-12	844.014E-3	-18.2265E-3
-1.93347E-3	-57.2178E-12	852.727E-3	-34.4870E-3	-56.9511E-12	832.768E-3	-15.8643E-3
-1.93847E-3	-57.7769E-12	866.980E-3	-35.0610E-3	-57.0060E-12	834.430E-3	-23.1672E-3
-1.94347E-3	-57.9076E-12	852.426E-3	-22.3740E-3	-57.2142E-12	830.995E-3	-24.6579E-3
-1.94847E-3	-58.0223E-12	835.803E-3	-23.3563E-3	-57.5361E-12	811.218E-3	-18.7425E-3
-1.95348E-3	-58.2627E-12	846.386E-3	-35.0187E-3	-57.7034E-12	797.561E-3	-21.7737E-3
-1.95848E-3	-58.7846E-12	841.217E-3	-35.0311E-3	-57.8788E-12	793.841E-3	-32.3626E-3
-1.96348E-3	-59.0905E-12	826.519E-3	-37.9595E-3	-58.3936E-12	792.724E-3	-27.8817E-3
-1.96848E-3	-59.2449E-12	836.238E-3	-43.3879E-3	-58.5137E-12	800.453E-3	-23.5130E-3
-1.97349E-3	-59.3411E-12	840.351E-3	-38.9109E-3	-59.0616E-12	805.490E-3	-32.7614E-3
-1.97849E-3	-59.6323E-12	827.032E-3	-43.9144E-3	-59.3910E-12	795.272E-3	-42.6522E-3
-1.98349E-3	-60.2151E-12	825.460E-3	-38.0244E-3	-59.7074E-12	796.356E-3	-33.8214E-3
-1.98849E-3	-60.4827E-12	823.408E-3	-15.3500E-3	-60.0672E-12	816.368E-3	-7.32590E-3
-1.99350E-3	-60.3543E-12	810.296E-3	-10.7137E-3	-60.7678E-12	822.975E-3	9.85200E-3
-1.99850E-3	-60.4338E-12	803.414E-3	-15.7794E-3	-61.3666E-12	818.846E-3	16.0121E-3
-2.00350E-3	-60.9093E-12	796.021E-3	-20.9869E-3	-61.5973E-12	823.346E-3	695.914E-6
-2.00850E-3	-61.5283E-12	798.423E-3	-33.9209E-3	-61.6523E-12	820.840E-3	-26.0179E-3
-2.01351E-3	-61.4609E-12	812.245E-3	-37.7080E-3	-62.3558E-12	805.824E-3	-23.1067E-3
-2.01851E-3	-61.5528E-12	811.258E-3	-20.7148E-3	-62.4906E-12	806.175E-3	-2.25947E-3
-2.02351E-3	-62.6026E-12	799.307E-3	-8.09031E-3	-62.6285E-12	814.292E-3	6.16807E-3
-2.02851E-3	-63.2752E-12	796.359E-3	-20.5470E-3	-62.7558E-12	814.320E-3	-1.46947E-3
-2.03352E-3	-63.3226E-12	808.352E-3	-29.0142E-3	-63.1393E-12	810.662E-3	-10.2916E-3
-2.03852E-3	-63.5752E-12	814.260E-3	-16.6330E-3	-63.7122E-12	796.953E-3	-7.53979E-3
-2.04352E-3	-64.2287E-12	800.809E-3	-2.99250E-3	-63.6274E-12	789.935E-3	-4.43398E-3
-2.04852E-3	-65.0450E-12	792.129E-3	6.52416E-3	-63.4814E-12	796.633E-3	-11.2550E-3
-2.05353E-3	-65.3383E-12	797.492E-3	4.02219E-3	-63.7542E-12	796.934E-3	-23.3893E-3
-2.05853E-3	-65.6489E-12	798.220E-3	-13.3121E-3	-64.5127E-12	789.572E-3	-33.8201E-3
-2.06353E-3	-65.3553E-12	795.226E-3	-23.7172E-3	-64.7389E-12	781.462E-3	-41.3994E-3
-2.06853E-3	-65.7408E-12	803.593E-3	-19.8665E-3	-64.9599E-12	787.149E-3	-38.7272E-3
-2.07354E-3	-65.9681E-12	817.868E-3	-20.1394E-3	-64.9992E-12	802.876E-3	-29.4698E-3
-2.07854E-3	-65.6583E-12	824.764E-3	-25.7309E-3	-65.6411E-12	809.379E-3	-24.7587E-3
-2.08354E-3	-64.9187E-12	816.151E-3	-20.9881E-3	-66.5600E-12	817.367E-3	-17.8198E-3
-2.08854E-3	-65.0429E-12	801.210E-3	-15.0360E-3	-66.7454E-12	814.912E-3	-13.3465E-3
-2.09355E-3	-65.5527E-12	799.089E-3	-13.1422E-3	-66.4440E-12	798.882E-3	-10.5739E-3
-2.09855E-3	-65.4458E-12	798.485E-3	-11.2950E-3	-66.4511E-12	798.169E-3	-8.05401E-3
-2.10355E-3	-64.8335E-12	797.756E-3	-16.7928E-3	-67.2443E-12	804.306E-3	-10.0253E-3
-2.10855E-3	-65.1065E-12	800.451E-3	-20.7038E-3	-67.4661E-12	791.202E-3	-15.3919E-3
-2.11356E-3	-66.1153E-12	788.974E-3	-23.1581E-3	-67.2391E-12	772.561E-3	-18.4193E-3
-2.11856E-3	-66.6140E-12	777.013E-3	-31.3531E-3	-67.3637E-12	773.339E-3	-19.3955E-3
-2.12356E-3	-66.6504E-12	786.097E-3	-33.3324E-3	-68.2320E-12	784.627E-3	-23.5096E-3
-2.12856E-3	-67.1952E-12	789.510E-3	-22.8065E-3	-68.5824E-12	788.217E-3	-20.9170E-3
-2.13357E-3	-68.2677E-12	778.254E-3	-14.8309E-3	-68.0972E-12	780.217E-3	-17.5915E-3
-2.13857E-3	-68.9445E-12	780.714E-3	-23.3260E-3	-68.2583E-12	780.872E-3	-19.5895E-3
-2.14357E-3	-69.0872E-12	780.575E-3	-31.7530E-3	-68.8838E-12	787.184E-3	-14.4603E-3
-2.14857E-3	-69.1931E-12	767.291E-3	-34.9467E-3	-69.3160E-12	780.726E-3	-13.5357E-3
-2.15358E-3	-69.8766E-12	769.491E-3	-34.5540E-3	-69.3179E-12	769.855E-3	-26.6208E-3
-2.15858E-3	-70.1240E-12	784.831E-3	-28.0394E-3	-69.2573E-12	766.096E-3	-33.2833E-3
-2.16358E-3	-70.4304E-12	788.393E-3	-18.1734E-3	-69.6297E-12	765.749E-3	-29.1672E-3
-2.16858E-3	-70.0048E-12	782.811E-3	2.13957E-3	-70.4796E-12	762.462E-3	-12.2863E-3
-2.17359E-3	-69.6483E-12	775.938E-3	7.96174E-3	-70.8423E-12	767.228E-3	4.57531E-3
-2.17859E-3	-69.4304E-12	769.642E-3	-12.9182E-3	-70.6479E-12	780.069E-3	-5.53084E-3
-2.18359E-3	-69.4149E-12	762.772E-3	-23.1002E-3	-70.3632E-12	778.389E-3	-25.1822E-3
-2.18859E-3	-69.2794E-12	755.785E-3	-9.69158E-3	-70.9081E-12	751.776E-3	-38.0027E-3
-2.19360E-3	-69.0058E-12	761.059E-3	-3.30832E-3	-71.2534E-12	725.359E-3	-38.3723E-3
-2.19860E-3	-69.0312E-12	766.641E-3	-7.78132E-3	-71.6950E-12	731.125E-3	-33.8594E-3
-2.20360E-3	-69.2967E-12	743.064E-3	-19.8731E-3	-71.3821E-12	761.647E-3	-39.1375E-3
-2.20860E-3	-69.8807E-12	711.140E-3	-40.3724E-3	-71.4097E-12	778.605E-3	-39.1349E-3
-2.21361E-3	-70.3187E-12	714.358E-3	-31.6561E-3	-71.7902E-12	765.935E-3	-31.1186E-3
-2.21861E-3	-71.0353E-12	732.290E-3	-5.01496E-3	-72.7538E-12	749.276E-3	-21.6871E-3
-2.22361E-3	-71.7142E-12	744.400E-3	-6.52965E-3	-73.2053E-12	747.471E-3	-14.8861E-3
-2.22861E-3	-72.5871E-12	755.727E-3	-21.8909E-3	-73.1493E-12	758.984E-3	-14.0631E-3
-2.23362E-3	-72.8464E-12	754.814E-3	-20.2750E-3	-73.4780E-12	772.249E-3	-18.8070E-3
-2.23862E-3	-73.3454E-12	746.061E-3	-17.0317E-3	-74.4956E-12	766.354E-3	-26.6298E-3
-2.24362E-3	-74.0239E-12	744.630E-3	-20.5352E-3	-75.1441E-12	758.889E-3	-25.9593E-3
-2.24862E-3	-74.7296E-12	748.420E-3	-11.0603E-3	-75.4197E-12	772.162E-3	-23.3729E-3
-2.25363E-3	-74.7300E-12	743.461E-3	-6.59845E-3	-75.3980E-12	779.834E-3	-26.2460E-3
-2.25863E-3	-75.0406E-12	741.018E-3	-22.9268E-3	-75.8433E-12	768.442E-3	-18.7634E-3
-2.26363E-3	-75.1269E-12	747.902E-3	-32.0869E-3	-76.0053E-12	753.762E-3	-11.6510E-3
-2.26863E-3	-75.2324E-12	753.073E-3	-32.5214E-3	-75.5398E-12	742.208E-3	-22.9844E-3
-2.27364E-3	-75.0209E-12	749.926E-3	-39.9840E-3	-75.3828E-12	730.928E-3	-28.2530E-3
-2.27864E-3	-75.2006E-12	743.176E-3	-40.9253E-3	-75.6138E-12	724.145E-3	-20.1904E-3
-2.28364E-3	-75.1500E-12	738.575E-3	-41.6258E-3	-75.6103E-12	727.659E-3	-15.3497E-3
-2.28864E-3	-75.2480E-12	733.141E-3	-45.2580E-3	-75.9829E-12	734.711E-3	-14.1656E-3
-2.29365E-3	-75.1877E-12	728.378E-3	-38.9589E-3	-75.8998E-12	737.898E-3	-18.7141E-3
-2.29865E-3	-75.4233E-12	714.024E-3	-31.7236E-3	-76.0971E-12	743.143E-3	-26.4157E-3
-2.30365E-3	-75.7223E-12	703.459E-3	-27.6237E-3	-76.7493E-12	744.262E-3	-20.9157E-3
-2.30865E-3	-76.4304E-12	717.251E-3	-20.8745E-3	-77.4292E-12	733.973E-3	-14.8342E-3
-2.31366E-3	-76.5767E-12	730.183E-3	-8.37729E-3	-77.1208E-12	737.557E-3	-19.8225E-3
-2.31866E-3	-77.0957E-12	726.671E-3	-6.65846E-3	-77.4433E-12	754.856E-3	-20.4197E-3
-2.32366E-3	-77.7560E-12	722.408E-3	-18.9657E-3	-78.0145E-12	762.656E-3	-20.4375E-3
-2.32866E-3	-78.1409E-12	722.555E-3	-18.1266E-3	-78.8305E-12	754.970E-3	-27.5577E-3
-2.33367E-3	-78.5716E-12	729.010E-3	-2.60230E-3	-79.1352E-12	741.536E-3	-32.3696E-3
-2.33867E-3	-78.9509E-12	730.446E-3	10.0447E-3	-79.0632E-12	743.423E-3	-21.2532E-3
-2.34367E-3	-79.4799E-12	716.770E-3	6.31120E-3	-79.3263E-12	744.065E-3	-291.452E-6
-2.34867E-3	-79.7664E-12	717.721E-3	-10.8936E-3	-79.4736E-12	733.370E-3	2.57027E-3
-2.35368E-3	-80.1152E-12	746.635E-3	-11.0833E-3	-79.8609E-12	721.666E-3	-14.1956E-3
-2.35868E-3	-80.5871E-12	764.188E-3	796.360E-6	-79.9727E-12	704.852E-3	-19.8556E-3
-2.36368E-3	-80.9231E-12	756.795E-3	-6.13507E-3	-79.9545E-12	703.374E-3	-10.3562E-3
-2.36868E-3	-81.1743E-12	756.960E-3	-16.4162E-3	-79.1509E-12	717.798E-3	-1.63944E-3
-2.37369E-3	-80.6948E-12	758.773E-3	-20.7997E-3	-79.5277E-12	705.882E-3	7.81274E-3
-2.37869E-3	-80.8546E-12	745.077E-3	-36.1762E-3	-80.1328E-12	683.373E-3	12.3724E-3
-2.38369E-3	-80.9750E-12	732.047E-3	-46.8019E-3	-80.4378E-12	693.609E-3	9.82572E-3
-2.38869E-3	-81.0851E-12	730.127E-3	-29.3602E-3	-79.9267E-12	718.687E-3	-780.937E-6
-2.39370E-3	-81.2518E-12	730.206E-3	-14.9362E-3	-80.0079E-12	723.643E-3	-13.4143E-3
-2.39870E-3	-81.4970E-12	733.976E-3	-19.2714E-3	-80.3085E-12	711.581E-3	-17.0764E-3
-2.40370E-3	-81.3615E-12	740.388E-3	-16.3733E-3	-80.9817E-12	710.231E-3	-24.7080E-3
-2.40870E-3	-81.2743E-12	737.442E-3	-21.8708E-3	-81.1919E-12	713.816E-3	-29.2370E-3
-2.41371E-3	-81.2880E-12	738.668E-3	-30.9085E-3	-81.3222E-12	712.474E-3	-27.0669E-3
-2.41871E-3	-81.6083E-12	737.332E-3	-10.7956E-3	-81.4533E-12	714.766E-3	-26.5830E-3
-2.42371E-3	-81.6340E-12	724.261E-3	1.62110E-3	-82.4876E-12	716.195E-3	-15.7456E-3
-2.42871E-3	-81.5652E-12	713.806E-3	-12.9601E-3	-82.6805E-12	717.763E-3	-3.43349E-3
-2.43372E-3	-81.3524E-12	700.813E-3	-9.79194E-3	-82.6682E-12	716.739E-3	2.09063E-3
-2.43872E-3	-82.3666E-12	687.441E-3	-533.081E-6	-82.7572E-12	711.393E-3	-4.90164E-3
-2.44372E-3	-83.1172E-12	691.902E-3	-17.4690E-3	-83.6203E-12	709.028E-3	-17.1170E-3
-2.44872E-3	-83.2774E-12	712.034E-3	-34.6877E-3	-83.9617E-12	711.765E-3	-17.1314E-3
-2.45373E-3	-83.2614E-12	722.053E-3	-33.3880E-3	-84.1124E-12	715.768E-3	-10.7089E-3
-2.45873E-3	-84.0437E-12	714.120E-3	-19.4918E-3	-83.6230E-12	715.481E-3	-10.2255E-3
-2.46373E-3	-84.6432E-12	709.559E-3	-8.77731E-3	-83.5417E-12	713.421E-3	-21.9221E-3
-2.46873E-3	-85.0963E-12	699.260E-3	-21.2307E-3	-84.3402E-12	704.165E-3	-23.7180E-3
-2.47374E-3	-84.9097E-12	688.683E-3	-38.8225E-3	-85.1941E-12	700.822E-3	-26.0377E-3
-2.47874E-3	-85.5520E-12	707.607E-3	-30.2342E-3	-84.6929E-12	712.893E-3	-36.2415E-3
-2.48374E-3	-85.8094E-12	724.940E-3	-12.6355E-3	-84.7901E-12	720.646E-3	-33.4298E-3
-2.48874E-3	-85.8737E-12	721.521E-3	-12.5838E-3	-85.5792E-12	719.661E-3	-19.8660E-3
-2.49375E-3	-85.8114E-12	727.637E-3	-8.18461E-3	-86.4159E-12	704.480E-3	-1.65260E-3
-2.49875E-3	-85.4138E-12	737.697E-3	-10.9978E-3	-86.1847E-12	687.875E-3	-457.537E-6
-2.50375E-3	-85.2433E-12	738.143E-3	-33.4949E-3	-85.6477E-12	683.466E-3	-4.47577E-3
-2.50875E-3	-84.9492E-12	731.226E-3	-36.9775E-3	-85.8904E-12	683.592E-3	-5.25386E-3
-2.51376E-3	-84.9572E-12	708.686E-3	-24.4082E-3	-86.4073E-12	691.435E-3	-16.2148E-3
-2.51876E-3	-84.4456E-12	685.034E-3	-18.1497E-3	-87.0808E-12	698.558E-3	-19.7587E-3
-2.52376E-3	-83.9591E-12	678.094E-3	-7.95157E-3	-86.7678E-12	695.068E-3	-18.6489E-3
-2.52876E-3	-84.2263E-12	665.458E-3	-1.68215E-3	-86.5721E-12	695.192E-3	-19.8973E-3
-2.53377E-3	-85.4303E-12	649.983E-3	-13.6343E-3	-86.9788E-12	696.793E-3	-7.93483E-3
-2.53877E-3	-85.6896E-12	657.195E-3	-21.3367E-3	-87.9425E-12	693.547E-3	-1.11351E-3
-2.54377E-3	-85.7281E-12	665.223E-3	-15.7943E-3	-87.7622E-12	693.461E-3	-4.24982E-3
-2.54877E-3	-86.5903E-12	661.379E-3	-24.1570E-3	-87.9558E-12	695.294E-3	5.86687E-3
-2.55378E-3	-88.1070E-12	675.226E-3	-35.7334E-3	-88.5975E-12	696.733E-3	11.4805E-3
-2.55878E-3	-89.0904E-12	700.828E-3	-31.9695E-3	-89.4941E-12	692.543E-3	-8.69603E-3
-2.56378E-3	-89.3814E-12	705.198E-3	-31.4956E-3	-89.9804E-12	683.412E-3	-22.1269E-3
-2.56878E-3	-89.7356E-12	709.551E-3	-20.3834E-3	-89.5128E-12	672.081E-3	-7.34413E-3
-2.57379E-3	-90.6300E-12	729.528E-3	6.62675E-3	-90.2562E-12	673.142E-3	4.09404E-3
-2.57879E-3	-91.5243E-12	733.729E-3	6.84722E-3	-90.1963E-12	686.320E-3	4.72362E-3
-2.58379E-3	-91.6941E-12	728.549E-3	-13.6315E-3	-90.4696E-12	692.085E-3	-4.05879E-3
-2.58879E-3	-91.3355E-12	711.487E-3	-16.0195E-3	-90.5833E-12	698.176E-3	-19.8855E-3
-2.59380E-3	-91.4212E-12	680.269E-3	-9.99874E-3	-90.7055E-12	698.376E-3	-29.4675E-3
-2.59880E-3	-91.5623E-12	698.373E-3	-13.2763E-3	-90.6355E-12	688.989E-3	-28.1269E-3
-2.60380E-3	-91.4028E-12	732.909E-3	-12.7610E-3	-90.8955E-12	679.084E-3	-12.4276E-3
-2.60880E-3	-90.6169E-12	724.731E-3	-7.79963E-3	-90.4880E-12	677.865E-3	-7.60775E-3
-2.61381E-3	-90.2770E-12	721.922E-3	-8.20290E-3	-90.1698E-12	682.668E-3	-16.8557E-3
-2.61881E-3	-90.8372E-12	725.944E-3	-2.59374E-3	-90.4380E-12	682.390E-3	-8.20179E-3
-2.62381E-3	-90.8563E-12	707.883E-3	1.76246E-3	-90.6080E-12	688.920E-3	4.15025E-3
-2.62881E-3	-90.6995E-12	701.049E-3	387.862E-6	-91.1502E-12	697.530E-3	-17.5689E-3
-2.63382E-3	-90.8826E-12	706.453E-3	2.82555E-3	-90.9440E-12	687.516E-3	-40.3426E-3
-2.63882E-3	-91.2540E-12	691.750E-3	-11.1629E-3	-91.4110E-12	674.765E-3	-40.3044E-3
-2.64382E-3	-92.1797E-12	679.768E-3	-33.8868E-3	-92.3083E-12	683.444E-3	-39.6292E-3
-2.64882E-3	-92.4530E-12	685.355E-3	-27.7886E-3	-93.0136E-12	693.464E-3	-20.7472E-3
-2.65383E-3	-92.8428E-12	684.305E-3	-11.1118E-3	-93.2751E-12	696.891E-3	1.30717E-3
-2.65883E-3	-93.8086E-12	678.589E-3	-25.1946E-3	-93.7448E-12	701.339E-3	13.4607E-3
-2.66383E-3	-95.0840E-12	684.753E-3	-38.5441E-3	-94.6245E-12	704.471E-3	17.8322E-3
-2.66883E-3	-95.9579E-12	704.104E-3	-16.2979E-3	-94.7355E-12	697.374E-3	-3.79651E-3
-2.67384E-3	-96.7830E-12	730.057E-3	416.173E-6	-95.0650E-12	684.828E-3	-9.25319E-3
-2.67884E-3	-96.4611E-12	742.178E-3	-8.50444E-3	-94.3675E-12	689.006E-3	4.32158E-3
-2.68384E-3	-96.5808E-12	734.823E-3	-19.2156E-3	-95.0413E-12	693.212E-3	-674.970E-6
-2.68884E-3	-97.1779E-12	723.426E-3	-8.96457E-3	-95.0262E-12	690.981E-3	-11.5520E-3
-2.69385E-3	-97.3010E-12	716.318E-3	17.3843E-3	-95.2696E-12	699.278E-3	-21.9445E-3
-2.69885E-3	-96.5782E-12	719.273E-3	26.9210E-3	-94.6777E-12	708.596E-3	-16.7190E-3
-2.70385E-3	-95.6599E-12	725.517E-3	7.85293E-3	-94.7788E-12	707.117E-3	-6.47822E-3
-2.70885E-3	-95.8357E-12	718.490E-3	-16.0086E-3	-95.4307E-12	693.904E-3	-19.9653E-3
-2.71386E-3	-95.7950E-12	694.164E-3	-26.3081E-3	-95.0601E-12	687.575E-3	-31.7475E-3
-2.71886E-3	-95.9110E-12	680.960E-3	-29.8756E-3	-94.9266E-12	701.016E-3	-25.5008E-3
-2.72386E-3	-95.4917E-12	690.958E-3	-27.9145E-3	-95.3488E-12	705.762E-3	-28.9505E-3
-2.72886E-3	-95.8871E-12	694.322E-3	-21.6786E-3	-96.1208E-12	700.396E-3	-49.1715E-3
-2.73387E-3	-96.2091E-12	685.177E-3	-14.8964E-3	-96.2604E-12	699.277E-3	-43.8373E-3
-2.73887E-3	-96.0269E-12	679.250E-3	-6.60495E-3	-96.9884E-12	691.680E-3	-14.6764E-3
-2.74387E-3	-96.1896E-12	678.037E-3	-7.86181E-3	-97.3669E-12	681.856E-3	-4.72806E-3
-2.74887E-3	-97.1895E-12	680.760E-3	-14.9477E-3	-98.3010E-12	681.708E-3	-22.6235E-3
-2.75388E-3	-97.7822E-12	679.578E-3	-18.6179E-3	-99.0430E-12	694.476E-3	-33.8281E-3
-2.75888E-3	-98.2613E-12	677.779E-3	-22.6590E-3	-99.1645E-12	703.385E-3	-22.9106E-3
-2.76388E-3	-98.6411E-12	678.880E-3	-23.4545E-3	-99.2973E-12	693.254E-3	-11.8323E-3
-2.76888E-3	-99.3125E-12	664.329E-3	-17.7075E-3	-99.7086E-12	679.329E-3	-13.7343E-3
-2.77389E-3	-99.6921E-12	664.257E-3	-2.90422E-3	-100.369E-12	680.570E-3	-26.2227E-3
-2.77889E-3	-99.7332E-12	689.729E-3	14.5607E-3	-100.303E-12	696.245E-3	-29.6828E-3
-2.78389E-3	-99.6942E-12	703.767E-3	16.0412E-3	-99.7548E-12	707.514E-3	-25.2905E-3
-2.78889E-3	-99.5842E-12	706.853E-3	-1.85496E-3	-99.8178E-12	708.882E-3	-34.7825E-3
-2.79390E-3	-99.8283E-12	703.191E-3	-15.7021E-3	-100.050E-12	710.903E-3	-42.4964E-3
-2.79890E-3	-99.7968E-12	693.813E-3	-12.5166E-3	-100.358E-12	708.519E-3	-37.2082E-3
-2.80390E-3	-100.069E-12	692.907E-3	-4.67104E-3	-99.6526E-12	699.125E-3	-27.9256E-3
-2.80890E-3	-99.7144E-12	687.308E-3	-15.0465E-3	-99.7007E-12	684.865E-3	-18.5391E-3
-2.81391E-3	-99.6230E-12	682.490E-3	-35.0566E-3	-100.069E-12	674.816E-3	-20.3689E-3
-2.81891E-3	-99.4491E-12	680.009E-3	-34.8852E-3	-100.535E-12	679.933E-3	-34.1306E-3
-2.82391E-3	-99.4726E-12	668.525E-3	-24.3211E-3	-100.814E-12	685.406E-3	-39.8792E-3
-2.82891E-3	-99.3033E-12	672.177E-3	-26.0943E-3	-100.666E-12	692.835E-3	-36.4278E-3
-2.83392E-3	-99.6120E-12	688.606E-3	-25.9319E-3	-101.272E-12	696.223E-3	-35.3371E-3
-2.83892E-3	-99.5521E-12	691.943E-3	-8.48723E-3	-102.535E-12	689.012E-3	-40.5854E-3
-2.84392E-3	-99.8099E-12	684.589E-3	6.02386E-3	-103.086E-12	683.319E-3	-45.6548E-3
-2.84892E-3	-100.088E-12	680.642E-3	18.0998E-3	-102.744E-12	680.569E-3	-37.4003E-3
-2.85393E-3	-100.821E-12	678.331E-3	20.3080E-3	-102.859E-12	686.335E-3	-30.8896E-3
-2.85893E-3	-100.953E-12	677.245E-3	-5.56299E-3	-103.957E-12	698.695E-3	-37.2746E-3
-2.86393E-3	-101.370E-12	676.746E-3	-27.6993E-3	-104.798E-12	715.063E-3	-40.7301E-3
-2.86893E-3	-101.916E-12	673.270E-3	-32.6822E-3	-104.752E-12	727.552E-3	-41.7390E-3
-2.87394E-3	-102.667E-12	678.169E-3	-28.4677E-3	-104.490E-12	714.073E-3	-39.4566E-3
-2.87894E-3	-103.224E-12	688.149E-3	-12.0826E-3	-104.992E-12	692.318E-3	-25.6663E-3
-2.88394E-3	-103.859E-12	695.864E-3	-3.21051E-3	-105.443E-12	683.489E-3	-23.4913E-3
-2.88894E-3	-104.080E-12	695.249E-3	-5.76487E-3	-105.833E-12	680.869E-3	-31.2218E-3
-2.89395E-3	-104.374E-12	679.288E-3	-8.62771E-3	-105.294E-12	688.814E-3	-21.7674E-3
-2.89895E-3	-104.512E-12	655.705E-3	-19.3147E-3	-105.235E-12	689.553E-3	-10.3205E-3
-2.90395E-3	-104.946E-12	652.648E-3	-32.9099E-3	-105.597E-12	685.386E-3	-13.8302E-3
-2.90895E-3	-104.900E-12	673.482E-3	-26.4308E-3	-106.100E-12	693.448E-3	-9.43618E-3
-2.91396E-3	-104.796E-12	683.272E-3	-1.54510E-3	-105.308E-12	692.782E-3	-3.35860E-3
-2.91896E-3	-104.717E-12	686.607E-3	-108.373E-6	-105.094E-12	681.435E-3	-5.11154E-3
-2.92396E-3	-104.984E-12	691.951E-3	-23.5460E-3	-105.200E-12	669.246E-3	3.03451E-3
-2.92896E-3	-104.737E-12	685.233E-3	-24.1411E-3	-105.638E-12	659.478E-3	16.2840E-3
-2.93397E-3	-104.734E-12	684.922E-3	-14.2001E-3	-105.673E-12	658.438E-3	7.20366E-3
-2.93897E-3	-104.569E-12	693.414E-3	-15.5828E-3	-104.931E-12	656.306E-3	-25.1836E-3
-2.94397E-3	-104.976E-12	683.390E-3	-12.8773E-3	-105.839E-12	665.675E-3	-45.5376E-3
-2.94897E-3	-105.062E-12	668.407E-3	-13.1747E-3	-105.895E-12	692.936E-3	-52.1455E-3
-2.95398E-3	-105.045E-12	666.262E-3	-18.3824E-3	-106.901E-12	706.186E-3	-42.6246E-3
-2.95898E-3	-105.565E-12	667.117E-3	-17.6988E-3	-106.840E-12	692.043E-3	-18.9935E-3
-2.96398E-3	-106.321E-12	668.373E-3	-14.5147E-3	-107.123E-12	664.862E-3	-8.04730E-3
-2.96898E-3	-107.144E-12	669.854E-3	-16.9459E-3	-107.567E-12	657.172E-3	-4.08075E-3
-2.97399E-3	-107.632E-12	663.873E-3	-11.8206E-3	-108.064E-12	687.336E-3	-6.82293E-3
-2.97899E-3	-108.511E-12	659.336E-3	-8.41725E-3	-108.330E-12	708.391E-3	-22.3620E-3
-2.98399E-3	-108.923E-12	671.056E-3	-18.6640E-3	-108.826E-12	691.858E-3	-38.1722E-3
-2.98899E-3	-109.934E-12	684.976E-3	-23.9997E-3	-109.061E-12	667.895E-3	-42.0734E-3
-2.99400E-3	-110.315E-12	678.381E-3	-20.4846E-3	-108.769E-12	665.420E-3	-32.8599E-3
-2.99900E-3	-110.801E-12	666.734E-3	-12.9057E-3	-108.975E-12	670.978E-3	-24.0989E-3
-3.00400E-3	-111.054E-12	669.336E-3	8.17030E-3	-108.885E-12	668.130E-3	-9.37902E-3
-3.00900E-3	-111.268E-12	667.575E-3	28.6831E-3	-108.457E-12	669.277E-3	161.569E-6
-3.01401E-3	-111.527E-12	670.058E-3	2.66622E-3	-108.331E-12	666.906E-3	-10.1541E-3
-3.01901E-3	-111.303E-12	680.412E-3	-26.3304E-3	-108.527E-12	648.042E-3	-11.8711E-3
-3.02401E-3	-111.115E-12	665.823E-3	-19.7262E-3	-108.679E-12	633.352E-3	170.568E-6
-3.02901E-3	-110.681E-12	662.855E-3	-17.8952E-3	-108.447E-12	645.199E-3	4.56927E-3
-3.03402E-3	-110.340E-12	691.445E-3	-14.5658E-3	-108.270E-12	661.373E-3	-2.58010E-3
-3.03902E-3	-109.685E-12	699.856E-3	-2.90716E-3	-108.396E-12	664.897E-3	-9.53282E-3
-3.04402E-3	-109.392E-12	695.272E-3	11.5195E-3	-109.181E-12	663.433E-3	-19.3428E-3
-3.04902E-3	-109.597E-12	687.944E-3	35.3916E-3	-109.330E-12	660.975E-3	-35.1816E-3
-3.05403E-3	-109.738E-12	665.680E-3	41.9953E-3	-109.668E-12	661.168E-3	-37.3700E-3
-3.05903E-3	-110.202E-12	655.585E-3	15.9947E-3	-110.306E-12	662.574E-3	-29.9323E-3
-3.06403E-3	-110.037E-12	661.970E-3	-12.2735E-3	-111.271E-12	660.529E-3	-26.3059E-3
-3.06903E-3	-111.393E-12	662.828E-3	-15.8089E-3	-111.737E-12	680.857E-3	-23.1067E-3
-3.07404E-3	-111.897E-12	665.704E-3	-8.39722E-3	-112.312E-12	703.592E-3	-21.8122E-3
-3.07904E-3	-112.672E-12	676.477E-3	-4.57659E-3	-112.963E-12	683.032E-3	-26.8643E-3
-3.08404E-3	-112.827E-12	683.107E-3	695.208E-6	-113.558E-12	663.997E-3	-29.5304E-3
-3.08904E-3	-113.715E-12	679.725E-3	-5.35755E-3	-114.055E-12	672.360E-3	-28.8827E-3
-3.09405E-3	-114.382E-12	674.327E-3	-12.4434E-3	-114.247E-12	680.574E-3	-21.3916E-3
-3.09905E-3	-115.011E-12	679.136E-3	-15.6658E-3	-114.191E-12	690.887E-3	-9.61278E-3
-3.10405E-3	-114.795E-12	687.901E-3	-24.6358E-3	-114.003E-12	699.251E-3	-10.9904E-3
-3.10905E-3	-114.901E-12	685.917E-3	-23.2285E-3	-114.588E-12	688.249E-3	-20.3818E-3
-3.11406E-3	-115.782E-12	670.471E-3	-21.4938E-3	-115.085E-12	680.920E-3	-18.2599E-3
-3.11906E-3	-115.714E-12	669.545E-3	-32.9076E-3	-114.738E-12	683.389E-3	56.7888E-6
-3.12406E-3	-115.526E-12	687.895E-3	-34.1581E-3	-114.459E-12	672.985E-3	-3.29660E-3
-3.12906E-3	-115.068E-12	683.997E-3	-20.3231E-3	-114.608E-12	667.240E-3	-23.7508E-3
-3.13407E-3	-115.005E-12	671.892E-3	-16.2368E-3	-115.343E-12	674.165E-3	-19.1042E-3
-3.13907E-3	-114.903E-12	681.888E-3	-16.3847E-3	-115.216E-12	666.191E-3	-13.2920E-3
-3.14407E-3	-114.630E-12	688.468E-3	-16.2284E-3	-114.778E-12	661.975E-3	-27.0758E-3
-3.14907E-3	-114.173E-12	677.941E-3	-19.0930E-3	-115.047E-12	671.521E-3	-24.0648E-3
-3.15408E-3	-113.990E-12	660.158E-3	-11.1404E-3	-115.977E-12	683.988E-3	-820.932E-6
-3.15908E-3	-114.097E-12	651.850E-3	4.21135E-3	-116.476E-12	701.506E-3	7.51473E-3
-3.16408E-3	-114.472E-12	653.126E-3	6.60795E-3	-116.545E-12	708.484E-3	-14.6759E-3
-3.16908E-3	-114.813E-12	659.822E-3	-3.35777E-3	-116.659E-12	699.293E-3	-44.1856E-3
-3.17409E-3	-115.710E-12	669.650E-3	-3.73703E-3	-117.589E-12	682.310E-3	-48.5558E-3
-3.17909E-3	-116.259E-12	657.682E-3	-269.817E-9	-118.321E-12	678.932E-3	-30.5682E-3
-3.18409E-3	-117.273E-12	646.491E-3	-9.99366E-3	-118.541E-12	687.267E-3	-9.40263E-3
-3.18909E-3	-117.795E-12	655.938E-3	-16.0364E-3	-118.454E-12	686.889E-3	-4.61098E-3
-3.19410E-3	-118.577E-12	658.150E-3	-8.62715E-3	-119.307E-12	690.163E-3	-5.43999E-3
-3.19910E-3	-119.251E-12	656.559E-3	-5.20633E-3	-119.163E-12	696.149E-3	5.39030E-3
-3.20410E-3	-120.030E-12	665.005E-3	-16.1099E-3	-119.692E-12	690.752E-3	-2.80746E-3
-3.20910E-3	-120.735E-12	663.354E-3	-31.8626E-3	-119.527E-12	684.677E-3	-25.1353E-3
-3.21411E-3	-120.538E-12	668.980E-3	-31.8947E-3	-119.270E-12	683.002E-3	-30.9843E-3
-3.21911E-3	-120.195E-12	699.733E-3	-20.2596E-3	-119.195E-12	677.315E-3	-28.3693E-3
-3.22411E-3	-120.268E-12	708.917E-3	-25.2570E-3	-119.538E-12	672.591E-3	-18.1958E-3
-3.22911E-3	-120.059E-12	690.019E-3	-46.9590E-3	-119.702E-12	660.950E-3	-1.13535E-3
-3.23412E-3	-119.242E-12	684.348E-3	-51.5240E-3	-119.270E-12	655.869E-3	17.4841E-3
-3.23912E-3	-118.672E-12	679.770E-3	-38.4287E-3	-118.865E-12	670.056E-3	25.5368E-3
-3.24412E-3	-118.380E-12	667.108E-3	-32.5423E-3	-118.733E-12	669.605E-3	18.0956E-3
-3.24912E-3	-118.183E-12	669.525E-3	-28.8033E-3	-119.631E-12	657.239E-3	3.08907E-3
-3.25413E-3	-117.499E-12	662.225E-3	-16.8795E-3	-120.067E-12	640.185E-3	-6.64920E-3
-3.25913E-3	-117.507E-12	646.193E-3	-10.9484E-3	-119.540E-12	622.009E-3	-4.81220E-3
-3.26413E-3	-117.698E-12	651.556E-3	-14.2995E-3	-119.325E-12	627.314E-3	-16.9831E-3
-3.26913E-3	-118.608E-12	663.056E-3	-8.83286E-3	-120.333E-12	647.097E-3	-32.8632E-3
-3.27414E-3	-118.682E-12	669.807E-3	-2.68985E-3	-120.894E-12	655.669E-3	-38.1580E-3
-3.27914E-3	-119.093E-12	674.195E-3	3.56624E-3	-121.286E-12	653.116E-3	-46.6210E-3
-3.28414E-3	-119.899E-12	665.706E-3	7.31012E-3	-121.337E-12	656.868E-3	-31.3971E-3
-3.28914E-3	-121.434E-12	666.272E-3	-7.59178E-3	-121.918E-12	686.594E-3	3.02950E-3
-3.29415E-3	-122.041E-12	684.304E-3	-21.3387E-3	-122.426E-12	717.808E-3	15.2301E-3
-3.29915E-3	-122.137E-12	670.443E-3	-18.2020E-3	-123.282E-12	716.745E-3	3.00433E-3
-3.30415E-3	-122.817E-12	649.583E-3	-10.9346E-3	-123.035E-12	704.822E-3	-8.33687E-3
-3.30915E-3	-123.982E-12	661.329E-3	-9.93253E-3	-123.214E-12	684.303E-3	-14.9875E-3
-3.31416E-3	-124.169E-12	674.239E-3	-13.0372E-3	-123.270E-12	659.739E-3	-27.4368E-3
-3.31916E-3	-123.803E-12	676.156E-3	-21.1933E-3	-123.682E-12	657.791E-3	-24.4643E-3
-3.32416E-3	-123.687E-12	671.338E-3	-27.4180E-3	-123.788E-12	664.201E-3	-10.3497E-3
-3.32916E-3	-124.278E-12	655.042E-3	-28.3712E-3	-123.606E-12	658.885E-3	-10.0205E-3
-3.33417E-3	-124.384E-12	636.263E-3	-19.5110E-3	-123.223E-12	649.169E-3	-6.49481E-3
-3.33917E-3	-123.862E-12	639.863E-3	2.62347E-3	-123.652E-12	653.491E-3	-1.80461E-3
-3.34417E-3	-123.353E-12	652.262E-3	13.7920E-3	-123.732E-12	670.705E-3	4.16459E-3
-3.34917E-3	-123.531E-12	652.137E-3	6.48106E-3	-124.097E-12	674.915E-3	9.82832E-3
-3.35418E-3	-123.609E-12	666.547E-3	-15.5812E-3	-124.007E-12	665.921E-3	-4.29013E-3
-3.35918E-3	-123.491E-12	685.785E-3	-32.3574E-3	-124.183E-12	655.773E-3	-17.1240E-3
-3.36418E-3	-123.031E-12	675.950E-3	-36.3804E-3	-124.561E-12	646.138E-3	-25.2261E-3
-3.36918E-3	-123.669E-12	665.409E-3	-35.6634E-3	-124.587E-12	645.743E-3	-38.8489E-3
-3.37419E-3	-124.308E-12	662.755E-3	-14.0743E-3	-124.764E-12	652.584E-3	-40.4689E-3
-3.37919E-3	-125.245E-12	650.832E-3	1.53819E-3	-125.184E-12	658.784E-3	-40.2707E-3
-3.38419E-3	-125.160E-12	648.496E-3	-12.3198E-3	-125.771E-12	657.120E-3	-38.4400E-3
-3.38919E-3	-125.397E-12	658.516E-3	-15.9143E-3	-126.411E-12	658.163E-3	-19.8967E-3
-3.39420E-3	-127.008E-12	661.015E-3	-16.3413E-3	-126.694E-12	672.293E-3	-16.5394E-3
-3.39920E-3	-128.113E-12	664.246E-3	-37.5286E-3	-127.257E-12	682.711E-3	-25.6674E-3
-3.40420E-3	-128.499E-12	683.854E-3	-29.6994E-3	-127.354E-12	674.695E-3	-16.2217E-3
-3.40920E-3	-128.981E-12	696.594E-3	-553.082E-6	-128.235E-12	656.652E-3	375.383E-6
-3.41421E-3	-129.962E-12	694.783E-3	1.00564E-3	-128.562E-12	651.833E-3	-1.07019E-3
-3.41921E-3	-130.569E-12	696.392E-3	-4.46818E-3	-129.237E-12	655.050E-3	-28.4083E-3
-3.42421E-3	-130.541E-12	689.821E-3	984.506E-6	-128.799E-12	655.456E-3	-51.1494E-3
-3.42921E-3	-130.823E-12	687.117E-3	-4.81145E-3	-128.360E-12	660.354E-3	-45.9915E-3
-3.43422E-3	-131.047E-12	696.593E-3	-22.5394E-3	-128.191E-12	654.636E-3	-19.3366E-3
-3.43922E-3	-130.638E-12	688.434E-3	-26.4730E-3	-128.281E-12	642.004E-3	7.43515E-3
-3.44422E-3	-130.377E-12	676.667E-3	-24.2755E-3	-128.030E-12	643.606E-3	7.22354E-3
-3.44922E-3	-129.887E-12	677.729E-3	-19.6141E-3	-127.850E-12	645.043E-3	-13.6628E-3
-3.45423E-3	-129.736E-12	673.320E-3	-12.3951E-3	-127.126E-12	645.880E-3	-30.0854E-3
-3.45923E-3	-129.196E-12	667.388E-3	-21.5903E-3	-127.545E-12	654.925E-3	-25.1851E-3
-3.46423E-3	-128.538E-12	672.565E-3	-22.4646E-3	-127.997E-12	647.570E-3	-5.12015E-3
-3.46923E-3	-128.090E-12	670.256E-3	-3.61864E-3	-128.069E-12	634.450E-3	33.2115E-6
-3.47424E-3	-128.282E-12	648.163E-3	91.4656E-6	-127.797E-12	641.673E-3	-14.5264E-3
-3.47924E-3	-128.159E-12	624.368E-3	-8.94258E-3	-128.629E-12	647.864E-3	-27.5591E-3
-3.48424E-3	-128.582E-12	608.983E-3	-12.4888E-3	-129.904E-12	649.859E-3	-23.1039E-3
-3.48924E-3	-128.942E-12	618.017E-3	-8.12721E-3	-130.340E-12	674.302E-3	-11.9739E-3
-3.49425E-3	-129.190E-12	658.093E-3	2.86212E-3	-130.607E-12	700.501E-3	-10.0611E-3
-3.49925E-3	-130.018E-12	697.022E-3	6.68628E-3	-131.341E-12	689.336E-3	-7.39116E-3
-3.50425E-3	-130.877E-12	701.197E-3	-9.68430E-3	-132.178E-12	664.716E-3	-3.69227E-3
-3.50925E-3	-132.342E-12	685.407E-3	-31.6628E-3	-132.757E-12	658.961E-3	-6.61020E-3
-3.51426E-3	-132.593E-12	668.430E-3	-32.1011E-3	-133.048E-12	663.267E-3	-5.40657E-3
-3.51926E-3	-133.478E-12	640.363E-3	-22.7929E-3	-133.459E-12	668.752E-3	-4.55252E-3
-3.52426E-3	-134.628E-12	635.961E-3	-26.6384E-3	-133.512E-12	663.384E-3	-17.9537E-3
-3.52926E-3	-135.464E-12	651.503E-3	-18.3667E-3	-133.381E-12	649.843E-3	-30.8109E-3
-3.53427E-3	-135.542E-12	649.725E-3	-3.97245E-3	-133.197E-12	652.631E-3	-18.2582E-3
-3.53927E-3	-135.037E-12	660.366E-3	-167.611E-6	-132.955E-12	648.663E-3	-1.41797E-3
-3.54427E-3	-135.185E-12	682.400E-3	6.63011E-3	-132.616E-12	627.481E-3	-8.52968E-3
-3.54927E-3	-135.229E-12	683.904E-3	4.46193E-3	-132.201E-12	617.973E-3	-27.3535E-3
-3.55428E-3	-133.989E-12	670.128E-3	-9.36431E-3	-132.333E-12	631.582E-3	-37.0302E-3
-3.55928E-3	-133.406E-12	663.196E-3	-31.5458E-3	-132.583E-12	654.776E-3	-22.8803E-3
-3.56428E-3	-132.775E-12	656.826E-3	-44.9540E-3	-132.761E-12	669.956E-3	-12.4088E-3
-3.56928E-3	-132.374E-12	645.968E-3	-36.6737E-3	-132.930E-12	668.316E-3	-28.7831E-3
-3.57429E-3	-131.845E-12	660.474E-3	-34.8526E-3	-134.061E-12	656.236E-3	-34.3567E-3
-3.57929E-3	-131.639E-12	667.880E-3	-33.8054E-3	-134.767E-12	658.077E-3	-18.0080E-3
-3.58429E-3	-131.374E-12	642.659E-3	-13.8696E-3	-135.607E-12	670.642E-3	-7.08736E-3
-3.58929E-3	-131.398E-12	621.961E-3	-1.18528E-3	-135.707E-12	677.059E-3	-3.09461E-3
-3.59430E-3	-132.275E-12	613.314E-3	-8.87057E-3	-136.479E-12	688.380E-3	-10.9472E-3
-3.59930E-3	-133.372E-12	622.006E-3	-23.8604E-3	-137.077E-12	691.648E-3	-11.3343E-3
-3.60430E-3	-134.032E-12	644.674E-3	-20.6704E-3	-137.551E-12	684.905E-3	-3.42448E-3
-3.60930E-3	-134.356E-12	663.730E-3	-8.52687E-3	-137.485E-12	683.774E-3	-8.57414E-3
-3.61431E-3	-135.932E-12	676.002E-3	-21.3456E-3	-137.825E-12	674.775E-3	-7.76505E-3
-3.61931E-3	-136.895E-12	679.907E-3	-30.2681E-3	-138.105E-12	658.390E-3	-3.90799E-3
-3.62431E-3	-138.129E-12	677.338E-3	-25.9120E-3	-138.216E-12	651.589E-3	-5.94279E-3
-3.62931E-3	-138.401E-12	670.242E-3	-19.2903E-3	-137.382E-12	663.312E-3	-11.5376E-3
-3.63432E-3	-139.182E-12	668.623E-3	-4.87770E-3	-137.163E-12	668.622E-3	-20.4155E-3
-3.63932E-3	-139.230E-12	673.550E-3	-7.49456E-3	-136.742E-12	661.215E-3	-34.7035E-3
-3.64432E-3	-139.840E-12	677.424E-3	-24.4063E-3	-136.883E-12	658.627E-3	-49.5933E-3
-3.64932E-3	-139.471E-12	670.644E-3	-28.0926E-3	-136.210E-12	654.110E-3	-43.7122E-3
-3.65433E-3	-139.108E-12	655.584E-3	-20.3103E-3	-135.982E-12	641.408E-3	-21.7452E-3
-3.65933E-3	-138.217E-12	653.768E-3	-17.6801E-3	-136.275E-12	619.330E-3	-8.30658E-3
-3.66433E-3	-138.651E-12	665.915E-3	-19.7687E-3	-137.090E-12	612.202E-3	-19.5200E-3
-3.66933E-3	-138.036E-12	675.743E-3	-5.10978E-3	-136.750E-12	636.528E-3	-51.3457E-3
-3.67434E-3	-136.346E-12	661.890E-3	10.1227E-3	-137.373E-12	663.265E-3	-78.2501E-3
-3.67934E-3	-135.454E-12	654.428E-3	-13.0240E-3	-138.331E-12	673.710E-3	-70.3088E-3
-3.68434E-3	-135.793E-12	654.075E-3	-21.2237E-3	-139.120E-12	671.294E-3	-22.6167E-3
-3.68934E-3	-136.445E-12	620.423E-3	-102.530E-6	-139.311E-12	650.821E-3	8.12101E-3
-3.69435E-3	-136.459E-12	604.354E-3	-11.4570E-3	-140.202E-12	620.999E-3	-806.972E-6
-3.69935E-3	-136.641E-12	623.410E-3	-33.6268E-3	-140.188E-12	631.383E-3	9.20081E-3
-3.70435E-3	-137.721E-12	630.499E-3	-24.5460E-3	-140.879E-12	671.906E-3	32.3945E-3
-3.70935E-3	-139.307E-12	630.835E-3	-10.5401E-3	-140.856E-12	683.862E-3	19.2230E-3
-3.71436E-3	-139.981E-12	631.909E-3	-11.9448E-3	-141.023E-12	666.041E-3	-11.5520E-3
-3.71936E-3	-140.436E-12	641.354E-3	-17.9444E-3	-141.264E-12	651.632E-3	-25.2286E-3
-3.72436E-3	-141.513E-12	652.472E-3	-17.8589E-3	-141.761E-12	650.557E-3	-30.2542E-3
-3.72936E-3	-143.005E-12	647.108E-3	-22.6069E-3	-142.027E-12	640.882E-3	-46.3552E-3
-3.73437E-3	-144.638E-12	651.381E-3	-36.0430E-3	-142.070E-12	632.690E-3	-35.5420E-3
-3.73937E-3	-144.182E-12	665.149E-3	-15.4877E-3	-141.907E-12	641.455E-3	-5.96782E-3
-3.74437E-3	-144.470E-12	667.369E-3	21.6306E-3	-142.245E-12	656.239E-3	-4.81814E-3
-3.74937E-3	-145.307E-12	663.820E-3	16.6876E-3	-142.829E-12	666.174E-3	-10.1748E-3
-3.75438E-3	-145.430E-12	669.258E-3	1.94338E-3	-143.531E-12	659.299E-3	-17.7100E-3
-3.75938E-3	-144.893E-12	684.121E-3	4.04000E-3	-143.122E-12	639.235E-3	-20.9838E-3
-3.76438E-3	-144.088E-12	694.773E-3	-16.8915E-3	-142.752E-12	632.701E-3	-20.7384E-3
-3.76938E-3	-143.757E-12	676.808E-3	-53.5393E-3	-142.810E-12	643.952E-3	-32.8061E-3
-3.77439E-3	-142.979E-12	652.564E-3	-48.5323E-3	-143.684E-12	658.346E-3	-28.6700E-3
-3.77939E-3	-142.615E-12	648.075E-3	-20.9697E-3	-143.567E-12	668.070E-3	-9.66335E-3
-3.78439E-3	-142.088E-12	644.584E-3	-22.2717E-3	-143.581E-12	668.827E-3	-813.834E-6
-3.78939E-3	-142.470E-12	653.689E-3	-25.1331E-3	-143.168E-12	660.982E-3	901.245E-6
-3.79440E-3	-142.368E-12	653.276E-3	-25.8540E-3	-143.513E-12	641.678E-3	-14.6085E-3
-3.79940E-3	-142.586E-12	632.470E-3	-40.7448E-3	-144.382E-12	638.913E-3	-41.5763E-3
-3.80440E-3	-143.129E-12	637.904E-3	-47.6975E-3	-143.915E-12	661.855E-3	-41.0336E-3
-3.80940E-3	-143.837E-12	644.685E-3	-37.0933E-3	-144.490E-12	671.495E-3	-11.4645E-3
-3.81441E-3	-144.877E-12	637.000E-3	-16.4796E-3	-145.181E-12	673.261E-3	6.85185E-3
-3.81941E-3	-145.743E-12	646.829E-3	-9.81814E-3	-145.749E-12	669.322E-3	6.09185E-3
-3.82441E-3	-145.843E-12	644.871E-3	-7.98370E-3	-146.072E-12	649.089E-3	-3.06090E-3
-3.82941E-3	-147.187E-12	627.513E-3	1.60051E-3	-146.854E-12	647.325E-3	-8.18905E-3
-3.83442E-3	-148.275E-12	646.586E-3	357.823E-6	-146.875E-12	655.237E-3	1.74424E-3
-3.83942E-3	-149.379E-12	676.374E-3	-6.94163E-3	-147.677E-12	659.814E-3	24.8121E-3
-3.84442E-3	-149.010E-12	682.212E-3	-30.4400E-3	-148.376E-12	664.708E-3	36.2498E-3
-3.84942E-3	-149.309E-12	678.809E-3	-42.8707E-3	-148.316E-12	661.049E-3	16.1348E-3
-3.85443E-3	-149.550E-12	683.461E-3	-18.7319E-3	-148.209E-12	658.255E-3	-8.78879E-3
-3.85943E-3	-149.953E-12	688.991E-3	664.306E-6	-147.626E-12	655.352E-3	-24.2835E-3
-3.86443E-3	-149.140E-12	675.533E-3	-1.13012E-3	-147.878E-12	652.382E-3	-28.1845E-3
-3.86943E-3	-147.948E-12	649.404E-3	-19.0346E-3	-146.565E-12	640.064E-3	-17.9921E-3
-3.87444E-3	-147.708E-12	616.519E-3	-43.6136E-3	-145.945E-12	621.680E-3	-575.919E-6
-3.87944E-3	-147.692E-12	602.858E-3	-35.7258E-3	-145.266E-12	620.919E-3	-4.60359E-3
-3.88444E-3	-147.321E-12	620.160E-3	-4.72056E-3	-145.978E-12	630.036E-3	-31.4536E-3
-3.88944E-3	-146.252E-12	645.698E-3	-12.9990E-3	-146.015E-12	640.535E-3	-40.0815E-3
-3.89445E-3	-145.981E-12	661.663E-3	-31.7329E-3	-146.682E-12	657.578E-3	-30.4201E-3
-3.89945E-3	-146.250E-12	656.009E-3	-8.38251E-3	-146.919E-12	667.664E-3	-17.3776E-3
-3.90445E-3	-146.928E-12	646.898E-3	5.67255E-3	-148.123E-12	662.341E-3	-4.63670E-3
-3.90945E-3	-146.368E-12	633.497E-3	-6.89303E-3	-149.892E-12	650.365E-3	-15.4343E-3
-3.91446E-3	-146.178E-12	624.709E-3	-5.48068E-3	-151.236E-12	647.556E-3	-37.6758E-3
-3.91946E-3	-146.715E-12	636.419E-3	3.12619E-3	-151.981E-12	664.579E-3	-45.0842E-3
-3.92446E-3	-147.882E-12	648.700E-3	-385.062E-6	-152.166E-12	686.138E-3	-46.3467E-3
-3.92946E-3	-148.606E-12	661.258E-3	-9.44340E-3	-153.771E-12	689.819E-3	-38.0883E-3
-3.93447E-3	-148.868E-12	665.257E-3	-18.5170E-3	-154.799E-12	677.084E-3	-28.7261E-3
-3.93947E-3	-150.135E-12	650.946E-3	-33.1313E-3	-154.412E-12	663.373E-3	-40.5237E-3
-3.94447E-3	-151.273E-12	642.272E-3	-30.9300E-3	-153.477E-12	651.325E-3	-39.6311E-3
-3.94947E-3	-152.149E-12	646.462E-3	-4.39938E-3	-153.998E-12	648.358E-3	-2.83235E-3
-3.95448E-3	-152.541E-12	657.491E-3	6.03789E-3	-154.669E-12	658.416E-3	7.61297E-3
-3.95948E-3	-152.905E-12	677.255E-3	-1.25176E-3	-153.548E-12	662.741E-3	-12.0954E-3
-3.96448E-3	-153.299E-12	691.251E-3	-9.01905E-3	-151.544E-12	666.350E-3	-12.7800E-3
-3.96948E-3	-153.838E-12	677.127E-3	-14.7458E-3	-150.519E-12	661.763E-3	-19.8579E-3
-3.97449E-3	-153.325E-12	655.446E-3	-16.3061E-3	-151.066E-12	630.386E-3	-42.5410E-3
-3.97949E-3	-153.318E-12	651.219E-3	-13.3811E-3	-150.981E-12	616.038E-3	-46.8929E-3
-3.98449E-3	-152.975E-12	651.936E-3	-15.1910E-3	-150.747E-12	639.598E-3	-40.7250E-3
-3.98949E-3	-153.597E-12	656.304E-3	-30.4941E-3	-150.942E-12	656.663E-3	-27.2760E-3
-3.99450E-3	-153.555E-12	659.446E-3	-26.4863E-3	-151.744E-12	655.364E-3	-1.74010E-3
-3.99950E-3	-152.659E-12	660.260E-3	4.42628E-3	-153.467E-12	655.776E-3	11.7635E-3
-4.00450E-3	-151.609E-12	662.663E-3	7.11049E-3	-154.441E-12	659.248E-3	5.27265E-3
-4.00950E-3	-152.123E-12	647.900E-3	-15.5479E-3	-155.714E-12	675.981E-3	-13.7473E-3
-4.01451E-3	-152.832E-12	632.269E-3	-13.5669E-3	-155.732E-12	696.278E-3	-30.4540E-3
-4.01951E-3	-152.956E-12	643.957E-3	-6.70551E-3	-156.883E-12	685.283E-3	-27.8032E-3
-4.02451E-3	-152.371E-12	658.657E-3	-22.4721E-3	-158.115E-12	662.469E-3	-5.14471E-3
-4.02951E-3	-153.293E-12	670.996E-3	-39.4747E-3	-158.849E-12	664.647E-3	6.13824E-3
-4.03452E-3	-154.928E-12	665.105E-3	-44.1003E-3	-157.938E-12	660.791E-3	-4.51417E-3
-4.03952E-3	-156.364E-12	631.757E-3	-37.0754E-3	-157.244E-12	646.084E-3	-2.87503E-3
-4.04452E-3	-156.091E-12	623.883E-3	-33.2029E-3	-157.177E-12	647.660E-3	-1.69731E-3
-4.04952E-3	-156.613E-12	662.165E-3	-22.6552E-3	-156.993E-12	657.560E-3	-20.3578E-3
-4.05453E-3	-158.426E-12	691.369E-3	-2.36250E-3	-156.795E-12	663.984E-3	-24.0650E-3
-4.05953E-3	-159.643E-12	671.430E-3	8.58297E-3	-155.549E-12	654.968E-3	1.97243E-3
-4.06453E-3	-160.517E-12	641.067E-3	8.78356E-3	-154.861E-12	638.388E-3	5.15983E-3
-4.06953E-3	-159.538E-12	632.936E-3	-3.33946E-3	-154.227E-12	639.957E-3	-22.6404E-3
-4.07454E-3	-159.828E-12	634.247E-3	-31.3958E-3	-154.623E-12	644.182E-3	-37.6074E-3
-4.07954E-3	-159.840E-12	635.121E-3	-52.2777E-3	-154.724E-12	635.830E-3	-42.5917E-3
-4.08454E-3	-160.240E-12	640.510E-3	-38.6124E-3	-154.928E-12	649.527E-3	-44.6187E-3
-4.08954E-3	-159.577E-12	649.689E-3	-16.9312E-3	-155.273E-12	681.796E-3	-38.5109E-3
-4.09455E-3	-158.040E-12	646.378E-3	-3.45285E-3	-155.752E-12	701.044E-3	-29.7502E-3
-4.09955E-3	-157.205E-12	634.667E-3	-1.40800E-3	-156.673E-12	691.929E-3	-23.9752E-3
-4.10455E-3	-156.889E-12	636.770E-3	-10.8596E-3	-157.947E-12	681.903E-3	-36.5044E-3
-4.10955E-3	-156.652E-12	631.585E-3	-17.8817E-3	-158.246E-12	695.980E-3	-49.2330E-3
-4.11456E-3	-155.415E-12	624.802E-3	-22.1207E-3	-158.585E-12	689.843E-3	-36.1817E-3
-4.11956E-3	-155.816E-12	649.924E-3	-19.1763E-3	-159.091E-12	655.893E-3	-10.5693E-3
-4.12456E-3	-156.028E-12	676.979E-3	-10.6919E-3	-160.767E-12	635.723E-3	11.3822E-3
-4.12956E-3	-156.850E-12	676.864E-3	-15.6498E-3	-160.971E-12	633.044E-3	11.9810E-3
-4.13457E-3	-156.941E-12	659.863E-3	-38.3677E-3	-160.998E-12	638.025E-3	-2.91915E-3
-4.13957E-3	-157.488E-12	644.293E-3	-55.2738E-3	-159.964E-12	645.393E-3	-19.4218E-3
-4.14457E-3	-158.823E-12	639.821E-3	-50.3861E-3	-161.276E-12	660.185E-3	-23.4954E-3
-4.14957E-3	-160.521E-12	652.180E-3	-34.4327E-3	-162.204E-12	678.609E-3	-4.53011E-3
-4.15458E-3	-162.191E-12	667.559E-3	-32.1130E-3	-161.527E-12	681.451E-3	-7.45306E-3
-4.15958E-3	-162.356E-12	677.538E-3	-24.9808E-3	-160.263E-12	675.862E-3	-29.3025E-3
-4.16458E-3	-163.045E-12	683.444E-3	-14.3759E-3	-160.663E-12	666.541E-3	-20.5344E-3
-4.16958E-3	-163.714E-12	668.330E-3	-22.3972E-3	-162.732E-12	663.347E-3	-3.98065E-3
-4.17459E-3	-164.782E-12	655.873E-3	-33.9177E-3	-163.409E-12	660.949E-3	-1.81120E-3
-4.17959E-3	-163.937E-12	663.639E-3	-39.7912E-3	-161.557E-12	648.569E-3	-7.43416E-3
-4.18459E-3	-162.838E-12	670.153E-3	-23.1497E-3	-161.308E-12	642.995E-3	-30.5192E-3
-4.18959E-3	-162.592E-12	676.317E-3	3.94793E-3	-162.620E-12	641.836E-3	-56.6682E-3
-4.19460E-3	-162.712E-12	685.392E-3	4.06195E-3	-163.442E-12	647.974E-3	-42.9038E-3
-4.19960E-3	-162.306E-12	678.180E-3	-13.3900E-3	-162.286E-12	663.921E-3	-8.76598E-3
-4.20460E-3	-161.182E-12	667.391E-3	-11.4548E-3	-162.390E-12	676.292E-3	3.23914E-3
-4.20960E-3	-160.483E-12	671.621E-3	1.90386E-3	-162.520E-12	680.312E-3	-1.80811E-3
-4.21461E-3	-160.084E-12	673.879E-3	-3.92167E-3	-164.321E-12	677.014E-3	-28.0859E-3
-4.21961E-3	-159.771E-12	671.463E-3	-17.3594E-3	-163.532E-12	664.763E-3	-44.7588E-3
-4.22461E-3	-160.207E-12	650.687E-3	-26.1495E-3	-163.952E-12	648.619E-3	-31.1395E-3
-4.22961E-3	-161.229E-12	623.211E-3	-29.3207E-3	-163.670E-12	647.956E-3	-17.9307E-3
-4.23462E-3	-161.353E-12	615.977E-3	-23.1619E-3	-164.394E-12	653.123E-3	353.908E-6
-4.23962E-3	-162.324E-12	620.463E-3	-29.4303E-3	-165.463E-12	651.642E-3	17.4878E-3
-4.24462E-3	-163.200E-12	629.102E-3	-46.3664E-3	-165.694E-12	655.913E-3	19.5490E-3
-4.24962E-3	-165.408E-12	630.718E-3	-43.7211E-3	-165.739E-12	643.402E-3	1.70999E-3
-4.25463E-3	-165.407E-12	627.348E-3	-44.8213E-3	-165.941E-12	619.420E-3	-27.1045E-3
-4.25963E-3	-165.520E-12	627.666E-3	-62.3841E-3	-167.570E-12	634.395E-3	-42.8340E-3
-4.26463E-3	-166.026E-12	633.014E-3	-39.6476E-3	-167.593E-12	657.912E-3	-48.2385E-3
-4.26963E-3	-167.707E-12	642.131E-3	42.5847E-6	-166.917E-12	653.711E-3	-44.1201E-3
-4.27464E-3	-168.075E-12	641.214E-3	-3.90572E-3	-166.431E-12	637.973E-3	-21.6947E-3
-4.27964E-3	-167.758E-12	637.232E-3	-19.2875E-3	-167.175E-12	630.016E-3	-9.97504E-3
-4.28464E-3	-167.555E-12	645.329E-3	-24.3514E-3	-167.933E-12	619.055E-3	-23.3221E-3
-4.28964E-3	-167.791E-12	653.940E-3	-14.3534E-3	-166.241E-12	598.832E-3	-31.5026E-3
-4.29465E-3	-167.281E-12	648.453E-3	2.57042E-3	-164.944E-12	608.272E-3	-27.3261E-3
-4.29965E-3	-166.647E-12	633.349E-3	5.67936E-3	-164.680E-12	637.979E-3	-33.1937E-3
-4.30465E-3	-166.318E-12	628.742E-3	4.56012E-3	-165.861E-12	663.636E-3	-41.6108E-3
-4.30965E-3	-165.688E-12	636.812E-3	-11.8556E-3	-165.300E-12	686.353E-3	-36.4270E-3
-4.31466E-3	-164.456E-12	641.469E-3	-36.2749E-3	-163.832E-12	685.570E-3	-29.6067E-3
-4.31966E-3	-164.642E-12	627.455E-3	-30.4485E-3	-164.843E-12	669.547E-3	-15.5549E-3
-4.32466E-3	-165.268E-12	616.267E-3	-16.7986E-3	-166.127E-12	662.372E-3	-6.57156E-3
-4.32966E-3	-165.767E-12	637.900E-3	-21.5525E-3	-167.069E-12	667.569E-3	-19.7804E-3
-4.33467E-3	-165.831E-12	659.670E-3	-16.0094E-3	-167.136E-12	661.558E-3	-27.9641E-3
-4.33967E-3	-166.191E-12	666.276E-3	2.18983E-3	-168.102E-12	633.658E-3	-17.9404E-3
-4.34467E-3	-166.653E-12	676.827E-3	-8.41205E-3	-169.401E-12	630.005E-3	-19.2539E-3
-4.34967E-3	-167.678E-12	660.352E-3	-29.7844E-3	-171.149E-12	645.969E-3	-33.9186E-3
-4.35468E-3	-167.506E-12	625.595E-3	-13.7034E-3	-170.794E-12	653.949E-3	-36.3627E-3
-4.35968E-3	-168.697E-12	626.535E-3	21.2069E-3	-171.040E-12	651.741E-3	-39.8643E-3
-4.36468E-3	-168.673E-12	651.923E-3	34.3922E-3	-170.881E-12	634.150E-3	-48.3619E-3
-4.36968E-3	-169.429E-12	667.332E-3	-246.635E-6	-170.900E-12	633.515E-3	-37.9255E-3
-4.37469E-3	-170.064E-12	669.038E-3	-39.1102E-3	-170.609E-12	651.955E-3	-19.5150E-3
-4.37969E-3	-171.299E-12	656.066E-3	-35.9454E-3	-169.124E-12	658.502E-3	-12.9286E-3
-4.38469E-3	-171.584E-12	628.219E-3	-25.4451E-3	-168.328E-12	665.768E-3	-10.4960E-3
-4.38969E-3	-172.177E-12	618.155E-3	-11.0653E-3	-167.861E-12	671.666E-3	-12.1990E-3
-4.39470E-3	-173.059E-12	639.570E-3	-1.76784E-3	-167.636E-12	671.253E-3	-26.1509E-3
-4.39970E-3	-172.742E-12	658.713E-3	-24.9253E-3	-167.052E-12	661.918E-3	-36.5329E-3
-4.40470E-3	-172.183E-12	664.713E-3	-39.8305E-3	-167.029E-12	640.495E-3	-24.2749E-3
-4.40970E-3	-171.420E-12	666.801E-3	-26.6978E-3	-167.218E-12	633.323E-3	-17.7196E-3
-4.41471E-3	-172.586E-12	663.034E-3	-17.1675E-3	-167.358E-12	654.637E-3	-33.5158E-3
-4.41971E-3	-172.230E-12	655.755E-3	-17.8546E-3	-168.707E-12	661.118E-3	-42.4009E-3
-4.42471E-3	-171.363E-12	644.541E-3	-12.7981E-3	-169.320E-12	633.630E-3	-27.0467E-3
-4.42971E-3	-170.505E-12	632.908E-3	-1.93849E-3	-170.349E-12	633.991E-3	-6.77914E-3
-4.43472E-3	-171.002E-12	638.952E-3	7.98475E-3	-171.178E-12	648.522E-3	-608.913E-6
-4.43972E-3	-171.630E-12	656.178E-3	5.84861E-3	-173.074E-12	641.271E-3	627.389E-6
-4.44472E-3	-171.446E-12	660.659E-3	-8.33670E-3	-174.186E-12	631.152E-3	-9.16552E-3
-4.44972E-3	-170.672E-12	649.588E-3	-12.2369E-3	-175.142E-12	633.732E-3	-21.8292E-3
-4.45473E-3	-170.917E-12	652.510E-3	-11.5120E-3	-175.774E-12	648.054E-3	-20.2956E-3
-4.45973E-3	-172.016E-12	672.239E-3	-4.10687E-3	-176.433E-12	649.225E-3	-8.13026E-3
-4.46473E-3	-173.370E-12	681.923E-3	5.66244E-3	-176.655E-12	642.698E-3	-6.68662E-3
-4.46973E-3	-173.856E-12	680.156E-3	-13.7596E-3	-175.975E-12	635.808E-3	-23.6264E-3
-4.47474E-3	-174.629E-12	666.489E-3	-21.9756E-3	-175.470E-12	625.300E-3	-22.0901E-3
-4.47974E-3	-176.561E-12	651.545E-3	802.726E-6	-175.160E-12	627.851E-3	-10.6598E-3
-4.48474E-3	-178.369E-12	648.186E-3	4.21001E-3	-174.194E-12	641.269E-3	-13.8522E-3
-4.48974E-3	-178.613E-12	669.218E-3	-4.72498E-3	-173.309E-12	645.738E-3	-23.3572E-3
-4.49475E-3	-178.330E-12	697.538E-3	2.11719E-3	-172.710E-12	642.683E-3	-34.2039E-3
-4.49975E-3	-178.254E-12	691.139E-3	-826.860E-6	-173.598E-12	656.758E-3	-27.6720E-3
-4.50475E-3	-179.541E-12	652.533E-3	-27.4698E-3	-173.215E-12	680.158E-3	-11.1310E-3
-4.50975E-3	-179.091E-12	621.049E-3	-37.9426E-3	-173.642E-12	691.834E-3	-19.1202E-3
-4.51476E-3	-177.162E-12	622.197E-3	-13.7173E-3	-173.859E-12	677.953E-3	-23.2161E-3
-4.51976E-3	-176.604E-12	626.932E-3	9.88288E-3	-175.872E-12	658.576E-3	-17.9889E-3
-4.52476E-3	-176.890E-12	625.460E-3	5.76215E-3	-175.847E-12	663.776E-3	-29.5844E-3
-4.52976E-3	-176.477E-12	632.838E-3	-18.0499E-3	-177.076E-12	669.463E-3	-44.2573E-3
-4.53477E-3	-174.399E-12	647.931E-3	-30.2100E-3	-178.165E-12	673.253E-3	-42.7146E-3
-4.53977E-3	-173.523E-12	651.901E-3	-20.8561E-3	-179.435E-12	676.520E-3	-31.4936E-3
-4.54477E-3	-173.383E-12	631.945E-3	-9.95946E-3	-179.825E-12	665.950E-3	-17.8031E-3
-4.54977E-3	-173.871E-12	610.620E-3	-11.2704E-3	-180.323E-12	658.367E-3	-3.56940E-3
-4.55478E-3	-174.104E-12	613.105E-3	-23.5559E-3	-180.669E-12	660.959E-3	-2.25770E-3
-4.55978E-3	-174.828E-12	630.073E-3	-33.7880E-3	-180.802E-12	649.818E-3	4.46171E-3
-4.56478E-3	-175.806E-12	641.763E-3	-26.4571E-3	-180.582E-12	637.159E-3	21.4560E-3
-4.56978E-3	-177.391E-12	656.482E-3	-10.8155E-3	-180.502E-12	658.561E-3	23.1696E-3
-4.57479E-3	-179.715E-12	672.788E-3	-8.37388E-3	-179.920E-12	672.391E-3	-1.93664E-3
-4.57979E-3	-180.174E-12	677.158E-3	6.69961E-3	-179.230E-12	650.618E-3	-34.5480E-3
-4.58479E-3	-180.438E-12	663.100E-3	17.3314E-3	-178.120E-12	632.351E-3	-32.4618E-3
-4.58979E-3	-181.925E-12	640.324E-3	-6.67232E-3	-177.784E-12	628.548E-3	-3.23091E-3
-4.59480E-3	-184.103E-12	630.728E-3	-15.8526E-3	-177.575E-12	637.328E-3	18.8303E-3
-4.59980E-3	-184.719E-12	637.679E-3	-20.5404E-3	-177.202E-12	655.343E-3	18.5714E-3
-4.60480E-3	-182.221E-12	667.143E-3	-36.2535E-3	-177.965E-12	655.173E-3	-3.70535E-3
-4.60980E-3	-182.016E-12	699.646E-3	-20.3427E-3	-177.795E-12	644.205E-3	-7.47217E-3
-4.61481E-3	-181.963E-12	688.252E-3	-5.65385E-3	-178.510E-12	642.162E-3	450.047E-6
-4.61981E-3	-181.547E-12	658.981E-3	-16.4953E-3	-178.076E-12	636.916E-3	-10.0815E-3
-4.62481E-3	-179.348E-12	659.639E-3	-20.2049E-3	-178.766E-12	638.455E-3	-22.5022E-3
-4.62981E-3	-178.273E-12	664.334E-3	-20.3497E-3	-179.404E-12	669.704E-3	-25.1431E-3
-4.63482E-3	-177.602E-12	654.327E-3	-25.6451E-3	-180.350E-12	689.921E-3	-33.9727E-3
-4.63982E-3	-177.299E-12	666.865E-3	-16.2495E-3	-181.586E-12	657.836E-3	-33.4313E-3
-4.64482E-3	-176.688E-12	681.338E-3	7.06701E-3	-181.747E-12	621.994E-3	-8.58547E-3
-4.64982E-3	-176.616E-12	661.522E-3	12.4575E-3	-182.109E-12	632.501E-3	-2.87090E-3
-4.65483E-3	-177.702E-12	634.756E-3	-11.9069E-3	-181.580E-12	654.276E-3	-16.6819E-3
-4.65983E-3	-178.762E-12	630.472E-3	-27.0332E-3	-181.744E-12	658.557E-3	-22.2657E-3
-4.66483E-3	-180.770E-12	631.550E-3	-25.8027E-3	-182.317E-12	671.419E-3	-24.4502E-3
-4.66983E-3	-181.686E-12	633.006E-3	-39.5672E-3	-182.590E-12	667.208E-3	-21.6714E-3
-4.67484E-3	-182.576E-12	651.912E-3	-43.2390E-3	-182.344E-12	632.938E-3	-25.1204E-3
-4.67984E-3	-183.476E-12	657.145E-3	-34.7494E-3	-181.749E-12	621.227E-3	-43.9018E-3
-4.68484E-3	-185.677E-12	642.411E-3	-45.0606E-3	-182.656E-12	625.565E-3	-43.6030E-3
-4.68984E-3	-186.447E-12	645.247E-3	-47.8643E-3	-182.789E-12	645.003E-3	-22.8634E-3
-4.69485E-3	-186.321E-12	663.791E-3	-17.0529E-3	-183.810E-12	683.414E-3	-10.5666E-3
-4.69985E-3	-186.261E-12	665.422E-3	11.2397E-3	-181.613E-12	677.095E-3	-14.2847E-3
-4.70485E-3	-185.873E-12	656.500E-3	12.0943E-3	-181.789E-12	644.418E-3	-10.2679E-3
-4.70985E-3	-186.734E-12	657.682E-3	889.822E-6	-181.998E-12	653.733E-3	-2.87750E-3
-4.71486E-3	-185.368E-12	658.928E-3	-13.8943E-3	-183.271E-12	666.414E-3	-15.3670E-3
-4.71986E-3	-184.359E-12	661.734E-3	-13.1542E-3	-182.737E-12	648.302E-3	-18.6880E-3
-4.72486E-3	-183.087E-12	661.195E-3	9.29718E-3	-181.826E-12	644.526E-3	-14.2592E-3
-4.72986E-3	-182.799E-12	654.458E-3	29.1398E-3	-183.053E-12	646.038E-3	-16.4713E-3
-4.73487E-3	-182.898E-12	664.974E-3	31.7714E-3	-184.895E-12	640.515E-3	-22.3432E-3
-4.73987E-3	-181.984E-12	665.835E-3	22.4429E-3	-186.518E-12	649.187E-3	-15.0514E-3
-4.74487E-3	-182.018E-12	633.874E-3	10.9953E-3	-185.506E-12	655.141E-3	4.65373E-3
-4.74988E-3	-181.890E-12	628.611E-3	-5.18747E-3	-186.376E-12	647.962E-3	6.51471E-3
-4.75488E-3	-182.979E-12	649.234E-3	-18.3637E-3	-187.218E-12	645.305E-3	2.47509E-3
-4.75988E-3	-184.020E-12	649.328E-3	-20.6691E-3	-189.189E-12	655.714E-3	-4.85199E-3
-4.76488E-3	-185.106E-12	663.894E-3	-2.19155E-3	-189.059E-12	652.514E-3	-25.3476E-3
-4.76988E-3	-186.207E-12	678.927E-3	12.8062E-3	-190.131E-12	647.475E-3	-20.6007E-3
-4.77489E-3	-186.892E-12	661.062E-3	-3.07510E-3	-190.917E-12	663.717E-3	1.53139E-3
-4.77989E-3	-188.048E-12	646.389E-3	-7.84886E-3	-192.498E-12	673.464E-3	-14.5568E-3
-4.78489E-3	-189.362E-12	657.246E-3	-4.70987E-3	-193.445E-12	678.389E-3	-35.1591E-3
-4.78989E-3	-191.297E-12	671.581E-3	-7.22311E-3	-192.663E-12	676.043E-3	-23.8233E-3
-4.79490E-3	-191.254E-12	680.409E-3	-4.28367E-3	-192.481E-12	650.746E-3	-8.54893E-3
-4.79990E-3	-190.875E-12	689.397E-3	-5.22525E-3	-191.730E-12	651.980E-3	-10.6310E-3
-4.80490E-3	-190.896E-12	687.756E-3	12.4911E-3	-190.993E-12	679.941E-3	-33.8712E-3
-4.80990E-3	-192.775E-12	664.356E-3	25.1600E-3	-189.946E-12	674.471E-3	-52.8091E-3
-4.81491E-3	-192.804E-12	642.666E-3	6.91643E-3	-189.639E-12	659.467E-3	-45.0231E-3
-4.81991E-3	-191.701E-12	647.556E-3	21.9469E-6	-188.860E-12	664.808E-3	-16.8480E-3
-4.82491E-3	-190.408E-12	649.554E-3	8.09382E-3	-188.107E-12	668.004E-3	-2.15370E-3
-4.82991E-3	-190.958E-12	655.833E-3	14.3639E-3	-188.123E-12	652.031E-3	-21.4488E-3
-4.83492E-3	-190.850E-12	655.673E-3	13.4185E-3	-188.254E-12	634.295E-3	-54.3944E-3
-4.83992E-3	-191.193E-12	644.709E-3	6.61856E-3	-190.126E-12	631.085E-3	-57.0043E-3
-4.84492E-3	-189.940E-12	654.302E-3	7.09895E-3	-189.417E-12	639.396E-3	-35.1422E-3
-4.84992E-3	-189.751E-12	656.414E-3	-4.67526E-3	-189.818E-12	645.002E-3	-33.1192E-3
-4.85493E-3	-189.970E-12	658.816E-3	-28.3199E-3	-190.573E-12	654.119E-3	-35.5671E-3
-4.85993E-3	-190.090E-12	675.682E-3	-20.1891E-3	-193.013E-12	674.931E-3	-36.4311E-3
-4.86493E-3	-189.094E-12	670.256E-3	-11.9920E-3	-194.097E-12	675.523E-3	-39.5205E-3
-4.86993E-3	-189.191E-12	642.086E-3	-16.0175E-3	-195.011E-12	662.688E-3	-44.2574E-3
-4.87494E-3	-190.832E-12	620.184E-3	4.13713E-3	-195.619E-12	668.157E-3	-47.7415E-3
-4.87994E-3	-191.352E-12	631.133E-3	15.3279E-3	-196.941E-12	683.687E-3	-27.6969E-3
-4.88494E-3	-190.884E-12	651.322E-3	-8.56902E-3	-198.259E-12	678.380E-3	-6.48133E-3
-4.88995E-3	-190.787E-12	644.722E-3	-29.1058E-3	-197.839E-12	646.426E-3	-10.9091E-3
-4.89495E-3	-192.760E-12	621.789E-3	-25.1638E-3	-196.377E-12	629.490E-3	-16.7749E-3
-4.89995E-3	-194.313E-12	628.455E-3	-25.4754E-3	-194.067E-12	637.006E-3	-14.2415E-3
-4.90495E-3	-194.508E-12	669.591E-3	-32.8979E-3	-193.769E-12	628.308E-3	-2.18660E-3
-4.90995E-3	-194.206E-12	687.824E-3	-35.7923E-3	-192.589E-12	628.974E-3	20.7245E-3
-4.91496E-3	-195.982E-12	680.714E-3	-27.5394E-3	-191.272E-12	650.487E-3	18.7942E-3
-4.91996E-3	-198.361E-12	669.954E-3	4.86718E-3	-189.102E-12	654.290E-3	-10.7074E-3
-4.92496E-3	-197.755E-12	667.831E-3	36.8914E-3	-189.253E-12	657.268E-3	-34.3957E-3
-4.92996E-3	-196.258E-12	672.362E-3	31.7366E-3	-188.821E-12	653.824E-3	-38.2972E-3
-4.93497E-3	-195.975E-12	674.991E-3	1.94270E-3	-189.804E-12	647.910E-3	-16.6944E-3
-4.93997E-3	-195.905E-12	684.172E-3	-9.61047E-3	-189.389E-12	673.046E-3	-228.969E-6
-4.94497E-3	-195.278E-12	682.158E-3	4.26103E-3	-191.025E-12	690.762E-3	-3.05777E-3
-4.94997E-3	-194.370E-12	671.914E-3	-3.37061E-3	-192.390E-12	672.654E-3	-6.59942E-3
-4.95498E-3	-193.376E-12	661.373E-3	-16.7438E-3	-193.928E-12	656.942E-3	-21.4029E-3
-4.95998E-3	-193.175E-12	633.317E-3	-16.2868E-3	-195.637E-12	676.085E-3	-39.1664E-3
-4.96498E-3	-192.424E-12	620.942E-3	-26.7071E-3	-197.233E-12	703.253E-3	-29.5725E-3
-4.96998E-3	-191.282E-12	616.223E-3	-34.8483E-3	-199.239E-12	700.170E-3	-10.5195E-3
-4.97499E-3	-191.550E-12	596.414E-3	-32.9752E-3	-200.828E-12	688.589E-3	-7.17376E-3
-4.97999E-3	-191.681E-12	590.767E-3	-13.3260E-3	-200.920E-12	672.765E-3	-13.7252E-3
-4.98499E-3	-193.977E-12	581.591E-3	14.7146E-3	-200.594E-12	646.376E-3	-22.3951E-3
-4.98999E-3	-195.391E-12	575.898E-3	997.602E-6	-200.671E-12	633.692E-3	-14.3272E-3
-4.99500E-3	-196.079E-12	604.319E-3	-27.2142E-3	-200.515E-12	628.658E-3	-5.89607E-3
-5.00000E-3	-197.261E-12	635.301E-3	-20.8033E-3	-198.986E-12	634.299E-3	-9.56983E-3
