Experiment	bias spectroscopy	
Date	19.01.2016 19:20:44	
User		
X (m)	50.9267E-9	
Y (m)	256.952E-9	
Z (m)	-132.689E-9	
Z offset (m)	0E+0	
Settling time (s)	200E-6	
Integration time (s)	5E-3	
Z-Ctrl hold	TRUE	
Final Z (m)	N/A	
Filter type	None	
Order		
Cutoff frq		
Comment01	MnPc/Pb(111)	
Comment02	dz =00pm	
Comment03	7 Sweeps	
Comment04	MagField =0.T	
Comment05	Divider 1:10	
Comment06	Setpoint:5mV,200 pA	
Comment07	Lockin: 50uVrms,5ms,5mV	
Comment08	Gain:9; 912Hz modulation	
Comment09	T=1.06K	
Bias>Bias (V)	5E-3	
Bias>Calibration (V/V)	81.475E-3	
Bias>Offset (V)	1.046E-3	
Bias Spectroscopy>Sweep Start (V)	5E-3	
Bias Spectroscopy>Sweep End (V)	-5E-3	
Bias Spectroscopy>Num Pixel	2000	
Bias Spectroscopy>Z Avg time (s)	500E-3	
Bias Spectroscopy>Z offset (m)	0E+0	
Bias Spectroscopy>1st Settling time (s)	500E-3	
Bias Spectroscopy>Settling time (s)	200E-6	
Bias Spectroscopy>Integration time (s)	5E-3	
Bias Spectroscopy>End Settling time (s)	500E-3	
Bias Spectroscopy>Z control time (s)	500E-3	
Bias Spectroscopy>Max Slew rate (V/s)	Inf	
Bias Spectroscopy>backward sweep	TRUE	
Bias Spectroscopy>Z-controller hold	TRUE	
Bias Spectroscopy>Number of sweeps	7	
Bias Spectroscopy>Channels	Current (A);X% LockIn (V);Y% LockIn (V)	
Bias Spectroscopy>Reset Bias	TRUE	
Bias Spectroscopy>Record final Z	FALSE	
Bias Spectroscopy>Lock-In run	FALSE	
Bias Spectroscopy>Sweep mode	Linear	
Bias Spectroscopy>MultiLine Settings : Segment Start (V), Segment End (V), Settling (s), Integration (s), Steps (xn)	100E-3,3.3E-3,100E-6,10E-3,2500;3.3E-3,-3.3E-3,100E-6,10E-3,10;-3.3E-3,-100E-3,100E-6,10E-3,2500	
Current>Current (A)	200.536E-12	
Current>Calibration (A/V)	999.99900E-12	
Current>Offset (A)	-455.429E-15	
Current>Gain	LN 10^9	
Z-Controller>Z (m)	-132.685E-9	
Z-Controller>Controller name	log Current	
Z-Controller>Controller status	ON	
Z-Controller>Setpoint	200E-12	
Z-Controller>Setpoint unit	A	
Z-Controller>P gain	2.96994E-12	
Z-Controller>I gain	67.0321E-9	
Z-Controller>Time const (s)	44.3062E-6	
Z-Controller>TipLift (m)	0E+0	
Z-Controller>Switch off delay (s)	50E-3	
Current (A)	200.546E-12	
Z (m)	-132.685E-9	

[DATA]
Bias calc (V)	Current (A)	X% LockIn (V)	Y% LockIn (V)	Current [bwd] (A)	X% LockIn [bwd] (V)	Y% LockIn [bwd] (V)
5.00000E-3	190.387E-12	675.608E-3	-42.3692E-3	190.309E-12	635.656E-3	-7.69788E-3
4.99500E-3	188.468E-12	646.304E-3	7.95680E-3	188.470E-12	646.719E-3	-31.0041E-3
4.98999E-3	192.724E-12	604.066E-3	-1.59101E-3	191.175E-12	637.188E-3	-47.3347E-3
4.98499E-3	193.381E-12	609.799E-3	-36.4413E-3	192.393E-12	624.200E-3	-48.0442E-3
4.97999E-3	191.530E-12	581.642E-3	-33.5340E-3	192.844E-12	626.534E-3	-48.2449E-3
4.97499E-3	189.621E-12	525.703E-3	-52.9121E-3	191.322E-12	646.673E-3	-33.0513E-3
4.96998E-3	188.389E-12	552.550E-3	-54.2090E-3	191.113E-12	646.150E-3	-877.189E-6
4.96498E-3	191.287E-12	598.941E-3	-29.1243E-3	191.783E-12	620.535E-3	9.63580E-3
4.95998E-3	190.639E-12	619.074E-3	-11.0393E-3	195.194E-12	633.412E-3	-6.00329E-3
4.95498E-3	190.516E-12	643.670E-3	-773.839E-6	193.282E-12	656.021E-3	-11.5726E-3
4.94997E-3	188.301E-12	623.478E-3	352.706E-6	188.658E-12	634.806E-3	-17.1547E-3
4.94497E-3	191.758E-12	598.834E-3	-3.19217E-3	189.148E-12	592.666E-3	-35.5648E-3
4.93997E-3	188.999E-12	628.064E-3	-7.14587E-3	191.415E-12	589.517E-3	-44.2225E-3
4.93497E-3	187.813E-12	669.178E-3	-5.39730E-3	192.675E-12	618.294E-3	-27.9130E-3
4.92996E-3	187.906E-12	658.450E-3	1.30488E-3	189.450E-12	644.477E-3	-14.5355E-3
4.92496E-3	186.492E-12	626.545E-3	-5.36667E-3	186.742E-12	665.093E-3	-3.26812E-3
4.91996E-3	185.399E-12	614.516E-3	-15.0969E-3	186.456E-12	643.434E-3	-461.522E-6
4.91496E-3	183.985E-12	601.345E-3	-1.30733E-3	189.510E-12	593.119E-3	-1.35264E-3
4.90995E-3	184.681E-12	611.738E-3	-20.1401E-3	186.619E-12	594.846E-3	-882.220E-6
4.90495E-3	183.701E-12	649.797E-3	-52.4523E-3	183.132E-12	626.427E-3	-28.4397E-3
4.89995E-3	183.058E-12	630.181E-3	-31.6845E-3	182.975E-12	603.093E-3	-23.5894E-3
4.89495E-3	183.424E-12	581.197E-3	-8.49293E-3	185.785E-12	582.850E-3	221.418E-6
4.88995E-3	184.785E-12	591.188E-3	-13.9742E-3	184.947E-12	595.738E-3	-15.8924E-3
4.88494E-3	183.060E-12	616.746E-3	312.806E-6	179.774E-12	589.433E-3	-7.43795E-3
4.87994E-3	182.930E-12	613.488E-3	4.73144E-3	179.732E-12	591.464E-3	35.6746E-3
4.87494E-3	186.681E-12	614.495E-3	-16.5427E-3	184.041E-12	602.011E-3	39.6636E-3
4.86993E-3	185.769E-12	621.130E-3	-24.3336E-3	185.219E-12	578.377E-3	1.09139E-3
4.86493E-3	182.799E-12	601.880E-3	-30.5364E-3	179.669E-12	590.734E-3	-28.8493E-3
4.85993E-3	181.787E-12	594.392E-3	-41.2456E-3	180.189E-12	657.811E-3	-57.0713E-3
4.85493E-3	185.040E-12	592.775E-3	-46.3042E-3	184.069E-12	659.840E-3	-81.2959E-3
4.84992E-3	186.196E-12	570.437E-3	-25.9366E-3	187.030E-12	625.736E-3	-65.8229E-3
4.84492E-3	184.227E-12	570.923E-3	-2.68630E-3	185.202E-12	608.613E-3	-51.8476E-3
4.83992E-3	182.163E-12	581.021E-3	-648.028E-6	180.564E-12	565.463E-3	-53.1438E-3
4.83492E-3	185.151E-12	568.497E-3	-25.3159E-3	181.848E-12	547.448E-3	-23.0093E-3
4.82991E-3	184.388E-12	576.702E-3	-51.6139E-3	183.406E-12	596.390E-3	79.6425E-6
4.82491E-3	182.787E-12	617.876E-3	-22.1792E-3	184.090E-12	626.666E-3	-20.7537E-3
4.81991E-3	180.212E-12	627.527E-3	20.5357E-3	181.297E-12	612.374E-3	-46.2240E-3
4.81491E-3	180.513E-12	618.423E-3	15.3618E-3	178.410E-12	624.285E-3	-52.0368E-3
4.80990E-3	181.193E-12	631.949E-3	11.4932E-3	178.203E-12	640.905E-3	-42.2404E-3
4.80490E-3	180.300E-12	656.166E-3	17.1415E-3	182.009E-12	635.101E-3	-16.8724E-3
4.79990E-3	178.808E-12	668.987E-3	-8.41670E-3	182.162E-12	637.813E-3	-8.48314E-3
4.79490E-3	180.567E-12	659.680E-3	-35.7807E-3	176.710E-12	625.886E-3	-23.8715E-3
4.78989E-3	180.309E-12	633.453E-3	-31.8777E-3	176.476E-12	600.274E-3	-11.5999E-3
4.78489E-3	178.381E-12	613.935E-3	-28.6317E-3	180.685E-12	586.847E-3	5.97499E-3
4.77989E-3	178.785E-12	603.495E-3	-46.7737E-3	183.398E-12	589.041E-3	-11.4480E-3
4.77489E-3	180.459E-12	614.748E-3	-41.2909E-3	178.623E-12	608.334E-3	-35.7770E-3
4.76988E-3	184.820E-12	636.798E-3	-23.0821E-3	179.133E-12	622.283E-3	-48.8662E-3
4.76488E-3	180.966E-12	632.313E-3	1.06679E-3	181.039E-12	620.472E-3	-65.4856E-3
4.75988E-3	178.337E-12	619.546E-3	15.9897E-3	184.917E-12	627.082E-3	-65.8016E-3
4.75488E-3	178.835E-12	601.936E-3	-17.9279E-3	184.345E-12	648.959E-3	-47.6655E-3
4.74988E-3	180.850E-12	595.137E-3	-41.3282E-3	181.581E-12	669.343E-3	-52.3927E-3
4.74487E-3	181.966E-12	601.172E-3	-36.5804E-3	182.306E-12	669.106E-3	-78.9585E-3
4.73987E-3	180.225E-12	612.550E-3	-31.2037E-3	185.242E-12	658.125E-3	-73.8967E-3
4.73487E-3	180.100E-12	622.325E-3	-36.5107E-3	186.533E-12	673.839E-3	-35.4817E-3
4.72986E-3	180.358E-12	608.573E-3	-34.9503E-3	182.974E-12	678.459E-3	-22.7282E-3
4.72486E-3	183.281E-12	562.561E-3	-7.27734E-3	181.825E-12	646.067E-3	-24.6520E-3
4.71986E-3	180.924E-12	534.841E-3	5.97041E-3	183.780E-12	616.679E-3	-30.5418E-3
4.71486E-3	176.729E-12	563.821E-3	-4.57740E-3	184.786E-12	595.971E-3	-36.2530E-3
4.70985E-3	177.377E-12	600.950E-3	-11.0342E-3	181.228E-12	575.737E-3	-14.9935E-3
4.70485E-3	178.386E-12	623.910E-3	-24.5858E-3	178.295E-12	574.905E-3	16.6532E-3
4.69985E-3	180.585E-12	640.618E-3	-29.1024E-3	177.799E-12	612.181E-3	32.4144E-3
4.69485E-3	177.779E-12	631.058E-3	-16.2883E-3	177.764E-12	632.806E-3	34.4616E-3
4.68984E-3	177.323E-12	611.449E-3	-26.0936E-3	176.085E-12	611.338E-3	32.0038E-3
4.68484E-3	177.827E-12	623.833E-3	-46.9914E-3	175.233E-12	603.944E-3	32.0310E-3
4.67984E-3	177.207E-12	626.269E-3	-46.8900E-3	175.398E-12	604.798E-3	31.8320E-3
4.67484E-3	177.141E-12	625.722E-3	-39.7963E-3	176.128E-12	578.386E-3	17.7449E-3
4.66983E-3	176.707E-12	628.193E-3	-63.4914E-3	177.315E-12	571.160E-3	-2.73883E-3
4.66483E-3	174.296E-12	611.761E-3	-71.3383E-3	179.013E-12	603.557E-3	-9.83427E-3
4.65983E-3	174.722E-12	618.155E-3	-37.6877E-3	177.221E-12	626.435E-3	4.98792E-3
4.65483E-3	177.076E-12	620.265E-3	-21.9359E-3	178.077E-12	650.520E-3	10.8472E-3
4.64982E-3	176.699E-12	611.429E-3	-23.1549E-3	180.335E-12	666.469E-3	-19.7757E-3
4.64482E-3	175.192E-12	612.767E-3	-453.997E-6	182.215E-12	642.659E-3	-36.3527E-3
4.63982E-3	173.403E-12	602.537E-3	4.68507E-3	179.595E-12	636.593E-3	-27.7278E-3
4.63482E-3	173.781E-12	608.211E-3	-12.6354E-3	176.822E-12	659.400E-3	-39.8708E-3
4.62981E-3	175.164E-12	627.955E-3	-3.19224E-3	178.382E-12	652.186E-3	-47.0495E-3
4.62481E-3	174.005E-12	627.892E-3	5.44271E-3	181.187E-12	619.631E-3	-20.6689E-3
4.61981E-3	171.447E-12	642.573E-3	-817.715E-6	177.718E-12	610.476E-3	4.21448E-3
4.61481E-3	172.493E-12	644.836E-3	7.82359E-3	175.151E-12	612.472E-3	-2.97251E-3
4.60980E-3	175.457E-12	609.587E-3	22.9782E-3	174.880E-12	600.536E-3	-19.2695E-3
4.60480E-3	175.707E-12	590.814E-3	16.2618E-3	174.839E-12	618.362E-3	-28.3888E-3
4.59980E-3	171.917E-12	602.984E-3	-9.77203E-3	174.758E-12	657.902E-3	-41.2600E-3
4.59480E-3	169.246E-12	621.826E-3	-35.4183E-3	171.573E-12	656.444E-3	-38.5321E-3
4.58979E-3	171.566E-12	622.119E-3	-34.1604E-3	172.254E-12	633.649E-3	-25.6755E-3
4.58479E-3	172.596E-12	629.996E-3	-9.32248E-3	171.409E-12	636.971E-3	-30.3294E-3
4.57979E-3	171.291E-12	633.191E-3	43.6512E-3	171.463E-12	652.498E-3	-32.0292E-3
4.57479E-3	167.694E-12	608.022E-3	54.8482E-3	170.666E-12	657.670E-3	-28.0685E-3
4.56978E-3	168.717E-12	599.834E-3	-5.38627E-3	170.959E-12	638.108E-3	-42.8268E-3
4.56478E-3	169.812E-12	610.949E-3	-49.5387E-3	170.334E-12	606.764E-3	-45.8440E-3
4.55978E-3	171.074E-12	612.003E-3	-68.9894E-3	168.352E-12	616.174E-3	-32.5895E-3
4.55478E-3	169.417E-12	623.738E-3	-54.2992E-3	168.567E-12	642.653E-3	-20.0981E-3
4.54977E-3	168.026E-12	610.158E-3	-14.7900E-3	168.900E-12	632.384E-3	4.87486E-3
4.54477E-3	170.668E-12	566.836E-3	-9.20560E-3	171.214E-12	612.328E-3	7.30038E-3
4.53977E-3	171.960E-12	553.327E-3	-38.2229E-3	170.634E-12	597.847E-3	-23.5500E-3
4.53477E-3	170.368E-12	568.009E-3	-68.3898E-3	168.548E-12	598.246E-3	-39.0607E-3
4.52976E-3	169.058E-12	599.889E-3	-65.9800E-3	167.932E-12	607.347E-3	-28.2134E-3
4.52476E-3	168.512E-12	613.975E-3	-28.5185E-3	168.805E-12	601.564E-3	-13.3346E-3
4.51976E-3	170.396E-12	631.041E-3	-31.9370E-3	170.669E-12	586.934E-3	-5.84221E-3
4.51476E-3	170.779E-12	639.993E-3	-52.5026E-3	170.403E-12	580.457E-3	1.55700E-3
4.50975E-3	170.361E-12	613.173E-3	-52.9462E-3	168.805E-12	574.547E-3	5.82111E-3
4.50475E-3	167.988E-12	630.143E-3	-60.6300E-3	166.858E-12	573.719E-3	10.6248E-3
4.49975E-3	166.492E-12	673.918E-3	-30.2382E-3	167.385E-12	609.886E-3	26.5245E-3
4.49475E-3	166.765E-12	655.661E-3	9.02833E-3	168.374E-12	633.274E-3	23.9693E-3
4.48974E-3	167.619E-12	619.461E-3	6.14490E-3	167.354E-12	632.231E-3	-12.4732E-3
4.48474E-3	167.272E-12	605.686E-3	-5.96339E-6	165.017E-12	622.560E-3	-55.6038E-3
4.47974E-3	166.235E-12	608.601E-3	10.1053E-3	164.073E-12	591.985E-3	-71.6297E-3
4.47474E-3	167.004E-12	621.018E-3	5.05239E-3	164.491E-12	582.380E-3	-42.9505E-3
4.46973E-3	167.725E-12	621.193E-3	-25.1168E-3	163.651E-12	604.352E-3	-7.18138E-3
4.46473E-3	166.362E-12	612.524E-3	-26.4463E-3	163.357E-12	651.442E-3	320.382E-6
4.45973E-3	167.244E-12	611.747E-3	21.0048E-3	164.013E-12	668.305E-3	-3.40265E-3
4.45473E-3	167.656E-12	647.306E-3	40.7244E-3	164.709E-12	635.540E-3	-19.7595E-3
4.44972E-3	167.675E-12	673.433E-3	11.0901E-3	165.865E-12	625.863E-3	-38.2823E-3
4.44472E-3	166.222E-12	649.506E-3	-4.33296E-3	166.412E-12	626.733E-3	-39.6659E-3
4.43972E-3	166.829E-12	623.674E-3	13.7862E-3	166.536E-12	606.942E-3	-41.0636E-3
4.43472E-3	166.970E-12	611.275E-3	40.1775E-3	165.960E-12	606.667E-3	-29.2582E-3
4.42971E-3	167.115E-12	594.885E-3	27.7543E-3	167.679E-12	641.841E-3	-19.1966E-3
4.42471E-3	166.910E-12	596.124E-3	-3.88134E-3	168.735E-12	667.276E-3	-14.6779E-3
4.41971E-3	166.207E-12	603.906E-3	5.35320E-3	168.691E-12	655.826E-3	10.0675E-3
4.41471E-3	166.057E-12	598.573E-3	21.0573E-3	167.144E-12	616.429E-3	6.34971E-3
4.40970E-3	166.204E-12	595.309E-3	-12.2771E-3	167.070E-12	579.400E-3	-34.2599E-3
4.40470E-3	165.535E-12	575.118E-3	-47.1426E-3	167.978E-12	593.010E-3	-50.2396E-3
4.39970E-3	165.255E-12	548.042E-3	-59.1592E-3	167.022E-12	640.308E-3	-29.9682E-3
4.39470E-3	163.939E-12	560.748E-3	-61.6522E-3	164.831E-12	636.956E-3	-16.1221E-3
4.38969E-3	163.835E-12	608.684E-3	-32.7807E-3	163.780E-12	589.342E-3	-20.8969E-3
4.38469E-3	163.147E-12	614.412E-3	-7.18290E-3	164.612E-12	562.056E-3	-18.6129E-3
4.37969E-3	162.680E-12	581.368E-3	-2.40244E-3	164.740E-12	579.815E-3	-8.20578E-3
4.37469E-3	161.893E-12	586.287E-3	-1.29301E-3	162.186E-12	620.132E-3	13.3995E-3
4.36968E-3	162.760E-12	614.619E-3	-3.11548E-3	162.208E-12	634.664E-3	26.4011E-3
4.36468E-3	163.830E-12	627.559E-3	-18.9835E-3	161.989E-12	625.449E-3	-14.2885E-3
4.35968E-3	163.112E-12	646.775E-3	-31.0249E-3	162.719E-12	615.610E-3	-53.7160E-3
4.35468E-3	161.929E-12	655.866E-3	-26.5137E-3	161.437E-12	622.280E-3	-26.5069E-3
4.34967E-3	162.347E-12	637.561E-3	-45.7816E-3	163.045E-12	625.259E-3	8.02793E-3
4.34467E-3	163.987E-12	649.470E-3	-76.9992E-3	162.843E-12	611.376E-3	-10.9877E-3
4.33967E-3	165.065E-12	655.597E-3	-68.1988E-3	162.516E-12	630.564E-3	-38.7112E-3
4.33467E-3	162.279E-12	605.466E-3	-46.1384E-3	163.085E-12	647.486E-3	-33.0423E-3
4.32966E-3	162.694E-12	591.278E-3	-22.9004E-3	164.939E-12	638.490E-3	-17.9986E-3
4.32466E-3	164.254E-12	622.401E-3	2.31165E-3	165.718E-12	640.124E-3	6.11077E-3
4.31966E-3	163.797E-12	614.442E-3	-5.38130E-3	165.081E-12	651.026E-3	12.7621E-3
4.31466E-3	161.779E-12	603.356E-3	-25.6243E-3	165.647E-12	674.478E-3	-6.50202E-3
4.30965E-3	162.715E-12	604.757E-3	-37.0034E-3	164.711E-12	650.403E-3	-12.2439E-3
4.30465E-3	162.865E-12	585.281E-3	-25.2079E-3	164.217E-12	591.702E-3	-23.1589E-3
4.29965E-3	163.187E-12	588.906E-3	7.20279E-3	163.840E-12	596.704E-3	-39.6541E-3
4.29465E-3	160.862E-12	616.704E-3	1.89259E-3	163.626E-12	630.113E-3	-50.5156E-3
4.28964E-3	160.812E-12	623.694E-3	-26.1486E-3	162.545E-12	629.745E-3	-45.9269E-3
4.28464E-3	160.518E-12	611.161E-3	-20.9926E-3	160.681E-12	616.509E-3	-26.0468E-3
4.27964E-3	161.710E-12	620.237E-3	-28.7165E-3	159.910E-12	597.910E-3	-14.3687E-3
4.27464E-3	160.678E-12	652.888E-3	-53.1870E-3	158.346E-12	575.358E-3	5.93625E-3
4.26963E-3	159.685E-12	662.860E-3	-62.2970E-3	157.296E-12	579.866E-3	25.5120E-3
4.26463E-3	159.730E-12	627.712E-3	-65.4776E-3	156.392E-12	602.773E-3	17.1771E-3
4.25963E-3	160.467E-12	591.707E-3	-43.6583E-3	155.462E-12	612.478E-3	-9.25924E-3
4.25463E-3	159.204E-12	617.725E-3	-34.8041E-3	155.996E-12	606.884E-3	-21.8730E-3
4.24962E-3	158.224E-12	668.854E-3	-62.2848E-3	155.983E-12	593.887E-3	-1.84652E-3
4.24462E-3	158.865E-12	663.405E-3	-76.3362E-3	156.751E-12	599.434E-3	5.70469E-3
4.23962E-3	158.567E-12	618.902E-3	-44.6179E-3	155.846E-12	630.189E-3	4.86806E-3
4.23462E-3	157.645E-12	593.318E-3	8.12207E-3	156.808E-12	655.643E-3	-9.33033E-3
4.22961E-3	158.945E-12	593.957E-3	24.7130E-3	158.030E-12	659.005E-3	-52.3367E-3
4.22461E-3	156.933E-12	612.334E-3	-7.55886E-3	159.534E-12	640.221E-3	-37.1626E-3
4.21961E-3	157.832E-12	631.846E-3	-33.3991E-3	159.860E-12	624.726E-3	-4.84130E-3
4.21461E-3	158.986E-12	627.879E-3	-26.2476E-3	160.814E-12	620.071E-3	-28.0236E-3
4.20960E-3	158.426E-12	606.642E-3	-21.4622E-3	161.533E-12	609.728E-3	-42.0180E-3
4.20460E-3	155.724E-12	614.358E-3	-10.3347E-3	159.226E-12	631.490E-3	-19.9882E-3
4.19960E-3	156.080E-12	634.882E-3	6.28510E-3	159.093E-12	668.018E-3	-4.63777E-3
4.19460E-3	158.415E-12	621.636E-3	7.04905E-3	159.889E-12	648.038E-3	-16.5973E-3
4.18959E-3	158.019E-12	596.467E-3	-7.49670E-3	160.550E-12	608.298E-3	-37.4194E-3
4.18459E-3	155.171E-12	577.109E-3	-8.40296E-3	158.389E-12	602.483E-3	-38.4571E-3
4.17959E-3	154.564E-12	569.297E-3	-13.6407E-3	156.136E-12	608.587E-3	-27.1682E-3
4.17459E-3	155.546E-12	586.371E-3	-32.7977E-3	155.287E-12	612.448E-3	-14.8437E-3
4.16958E-3	154.819E-12	609.900E-3	-11.2809E-3	154.645E-12	619.476E-3	-4.50171E-3
4.16458E-3	152.136E-12	616.552E-3	20.3562E-3	153.867E-12	609.569E-3	-24.6153E-3
4.15958E-3	151.421E-12	613.977E-3	22.1946E-3	153.481E-12	611.899E-3	-31.4059E-3
4.15458E-3	153.541E-12	620.830E-3	21.1785E-3	151.580E-12	637.635E-3	-7.19754E-3
4.14957E-3	154.167E-12	630.492E-3	11.4479E-3	150.383E-12	637.475E-3	-3.28793E-3
4.14457E-3	151.912E-12	626.827E-3	-14.6902E-3	151.632E-12	632.079E-3	-9.32233E-3
4.13957E-3	150.691E-12	617.971E-3	-31.3071E-3	151.304E-12	620.094E-3	-18.5928E-3
4.13457E-3	153.478E-12	607.885E-3	-34.8792E-3	150.929E-12	596.335E-3	-22.2706E-3
4.12956E-3	154.797E-12	600.364E-3	-18.1120E-3	151.102E-12	628.236E-3	6.45138E-3
4.12456E-3	154.721E-12	609.821E-3	-6.38887E-3	152.047E-12	659.938E-3	19.8210E-3
4.11956E-3	153.111E-12	632.820E-3	-1.84379E-3	154.427E-12	625.989E-3	2.54104E-3
4.11456E-3	152.758E-12	650.684E-3	-10.5274E-3	154.005E-12	626.907E-3	5.01270E-3
4.10955E-3	153.504E-12	655.329E-3	-32.5370E-3	154.651E-12	663.527E-3	9.77899E-3
4.10455E-3	152.905E-12	641.778E-3	-8.97885E-3	154.880E-12	658.311E-3	13.2236E-3
4.09955E-3	152.049E-12	634.102E-3	11.6257E-3	157.146E-12	645.762E-3	20.6169E-3
4.09455E-3	150.495E-12	649.096E-3	-8.50494E-3	154.982E-12	655.031E-3	-2.98783E-3
4.08954E-3	151.303E-12	634.174E-3	-9.47298E-3	152.998E-12	655.097E-3	-17.8919E-3
4.08454E-3	152.473E-12	610.625E-3	-2.02404E-3	153.270E-12	631.688E-3	1.04812E-3
4.07954E-3	150.615E-12	619.809E-3	-16.1651E-3	153.407E-12	621.988E-3	23.9349E-3
4.07454E-3	150.300E-12	627.357E-3	-24.2962E-3	151.497E-12	640.469E-3	25.0939E-3
4.06953E-3	149.964E-12	626.143E-3	-32.7873E-3	150.137E-12	643.493E-3	165.502E-6
4.06453E-3	149.828E-12	626.461E-3	-40.1472E-3	149.831E-12	620.933E-3	-17.6239E-3
4.05953E-3	149.534E-12	616.831E-3	-41.5052E-3	149.844E-12	599.763E-3	-23.8367E-3
4.05453E-3	151.503E-12	592.108E-3	-32.0085E-3	150.147E-12	578.812E-3	-11.8443E-3
4.04952E-3	150.453E-12	589.826E-3	-15.8734E-3	150.646E-12	586.171E-3	14.2815E-3
4.04452E-3	147.881E-12	612.801E-3	-21.6529E-3	148.924E-12	622.425E-3	1.56164E-3
4.03952E-3	148.943E-12	612.230E-3	-35.5062E-3	147.880E-12	636.651E-3	-11.6549E-3
4.03452E-3	151.174E-12	593.057E-3	-34.7891E-3	149.989E-12	631.029E-3	3.13560E-3
4.02951E-3	151.078E-12	584.588E-3	-20.7645E-3	152.561E-12	621.380E-3	-9.60910E-3
4.02451E-3	148.247E-12	582.160E-3	-8.74743E-3	150.974E-12	629.341E-3	-20.4522E-3
4.01951E-3	149.357E-12	594.694E-3	-9.86644E-3	151.113E-12	667.171E-3	-19.2948E-3
4.01451E-3	150.803E-12	613.423E-3	-17.0058E-3	149.796E-12	687.034E-3	-30.5175E-3
4.00950E-3	151.215E-12	624.188E-3	-24.2674E-3	154.273E-12	664.906E-3	-37.1509E-3
4.00450E-3	148.958E-12	627.700E-3	-42.0319E-3	152.777E-12	641.888E-3	-24.5321E-3
3.99950E-3	148.838E-12	602.830E-3	-45.6881E-3	151.100E-12	643.690E-3	1.47351E-3
3.99450E-3	148.529E-12	595.506E-3	-30.0399E-3	148.533E-12	631.901E-3	31.4461E-3
3.98949E-3	148.425E-12	612.511E-3	-25.0659E-3	150.609E-12	608.027E-3	33.2893E-3
3.98449E-3	147.622E-12	605.197E-3	-25.7687E-3	151.506E-12	599.116E-3	6.36296E-3
3.97949E-3	146.962E-12	602.129E-3	-3.75159E-3	149.891E-12	597.518E-3	-6.41916E-3
3.97449E-3	149.301E-12	622.033E-3	24.1011E-3	147.790E-12	601.768E-3	-8.86077E-3
3.96948E-3	149.260E-12	630.967E-3	26.0324E-3	147.451E-12	606.820E-3	-9.21794E-3
3.96448E-3	149.888E-12	624.093E-3	9.59677E-3	149.478E-12	616.115E-3	-21.9312E-3
3.95948E-3	148.294E-12	629.991E-3	-13.0131E-3	148.280E-12	633.100E-3	-29.0205E-3
3.95448E-3	147.165E-12	659.176E-3	-24.6052E-3	145.227E-12	645.381E-3	-8.97647E-3
3.94947E-3	147.922E-12	673.915E-3	-27.2558E-3	145.479E-12	644.434E-3	-1.17226E-3
3.94447E-3	148.076E-12	663.261E-3	-27.3325E-3	148.285E-12	640.088E-3	-10.6974E-3
3.93947E-3	147.701E-12	652.478E-3	-28.0305E-3	147.613E-12	652.461E-3	-10.6914E-3
3.93447E-3	147.144E-12	626.483E-3	-8.66751E-3	144.650E-12	653.516E-3	-13.6228E-3
3.92946E-3	147.830E-12	607.187E-3	19.3979E-3	146.183E-12	632.497E-3	-29.8455E-3
3.92446E-3	148.139E-12	603.661E-3	4.31285E-3	146.830E-12	636.076E-3	-39.5792E-3
3.91946E-3	148.394E-12	597.941E-3	-24.0720E-3	147.281E-12	615.907E-3	-19.2389E-3
3.91446E-3	146.796E-12	610.785E-3	-32.3724E-3	144.514E-12	581.881E-3	25.9898E-3
3.90945E-3	146.723E-12	644.530E-3	-11.9587E-3	145.199E-12	608.143E-3	37.6359E-3
3.90445E-3	146.121E-12	638.381E-3	15.7199E-3	146.048E-12	633.377E-3	-2.38345E-3
3.89945E-3	147.348E-12	592.427E-3	6.87888E-3	146.968E-12	622.469E-3	-24.0425E-3
3.89445E-3	145.817E-12	568.184E-3	-21.7486E-3	147.655E-12	612.084E-3	-3.53974E-3
3.88944E-3	144.654E-12	557.311E-3	-45.3039E-3	146.666E-12	620.950E-3	3.49684E-3
3.88444E-3	145.334E-12	572.674E-3	-66.3364E-3	147.140E-12	623.092E-3	-8.70736E-3
3.87944E-3	147.169E-12	623.119E-3	-62.1568E-3	145.995E-12	600.972E-3	1.94301E-3
3.87444E-3	147.930E-12	658.002E-3	-27.9257E-3	147.465E-12	584.443E-3	10.1613E-3
3.86943E-3	145.016E-12	659.424E-3	-11.6926E-3	146.368E-12	584.530E-3	-23.6356E-3
3.86443E-3	146.199E-12	650.380E-3	-25.0345E-3	146.155E-12	594.105E-3	-51.9182E-3
3.85943E-3	145.775E-12	643.429E-3	-25.9776E-3	144.668E-12	604.874E-3	-50.1076E-3
3.85443E-3	146.231E-12	637.258E-3	-13.7720E-3	142.728E-12	614.687E-3	-23.7876E-3
3.84942E-3	141.743E-12	635.760E-3	1.33766E-3	142.730E-12	623.335E-3	5.34460E-3
3.84442E-3	142.921E-12	625.306E-3	11.5990E-3	141.398E-12	605.725E-3	5.62683E-3
3.83942E-3	143.662E-12	623.143E-3	-4.71967E-3	140.677E-12	588.386E-3	13.4356E-3
3.83442E-3	144.246E-12	628.240E-3	-13.0837E-3	138.580E-12	602.871E-3	24.3501E-3
3.82941E-3	141.356E-12	624.559E-3	-4.32960E-3	138.903E-12	599.188E-3	6.79305E-3
3.82441E-3	139.654E-12	629.726E-3	-3.39463E-3	140.208E-12	583.259E-3	-21.2133E-3
3.81941E-3	140.801E-12	617.209E-3	-13.1477E-3	140.245E-12	602.259E-3	-27.0436E-3
3.81441E-3	142.330E-12	599.235E-3	-17.0211E-3	140.979E-12	642.565E-3	-8.39405E-3
3.80940E-3	141.116E-12	601.458E-3	-7.22744E-3	138.791E-12	681.627E-3	574.925E-6
3.80440E-3	138.992E-12	591.881E-3	-6.79401E-3	140.552E-12	693.636E-3	-5.75030E-3
3.79940E-3	140.181E-12	594.856E-3	-9.86245E-3	141.758E-12	678.030E-3	-22.5570E-3
3.79440E-3	140.100E-12	629.455E-3	-4.63898E-3	143.879E-12	660.862E-3	-50.3833E-3
3.78939E-3	140.724E-12	657.475E-3	2.00516E-3	142.574E-12	645.099E-3	-48.7286E-3
3.78439E-3	138.928E-12	657.406E-3	-22.2705E-3	142.501E-12	649.133E-3	-14.7346E-3
3.77939E-3	139.169E-12	634.774E-3	-48.6868E-3	141.601E-12	656.507E-3	-5.18277E-3
3.77439E-3	141.033E-12	638.731E-3	-30.3570E-3	142.141E-12	638.491E-3	-10.4019E-3
3.76938E-3	138.951E-12	669.645E-3	-6.09909E-3	141.840E-12	636.890E-3	-19.3246E-3
3.76438E-3	139.241E-12	681.022E-3	20.5050E-3	141.073E-12	649.401E-3	-33.1530E-3
3.75938E-3	138.192E-12	669.005E-3	43.3619E-3	139.652E-12	636.757E-3	-22.1351E-3
3.75438E-3	138.097E-12	649.176E-3	22.7144E-3	139.036E-12	614.147E-3	-24.4434E-3
3.74937E-3	136.253E-12	626.895E-3	2.20695E-3	138.014E-12	618.503E-3	-52.3346E-3
3.74437E-3	136.165E-12	606.211E-3	7.48250E-3	134.440E-12	640.826E-3	-56.3573E-3
3.73937E-3	136.157E-12	604.615E-3	-8.34510E-3	134.310E-12	632.455E-3	-40.2808E-3
3.73437E-3	135.825E-12	612.210E-3	-21.5965E-3	135.936E-12	604.535E-3	-24.1248E-3
3.72936E-3	134.626E-12	601.002E-3	-12.2468E-3	135.213E-12	618.437E-3	-27.8872E-3
3.72436E-3	134.407E-12	590.305E-3	-10.4291E-3	134.019E-12	652.919E-3	-46.4386E-3
3.71936E-3	134.170E-12	606.415E-3	-3.98468E-3	134.358E-12	637.638E-3	-38.0662E-3
3.71436E-3	134.463E-12	630.500E-3	6.57577E-3	135.218E-12	629.355E-3	-4.49019E-3
3.70935E-3	134.513E-12	639.587E-3	-3.60291E-3	135.507E-12	648.599E-3	6.17708E-3
3.70435E-3	134.870E-12	626.828E-3	-17.3929E-3	137.406E-12	645.162E-3	-8.20267E-3
3.69935E-3	134.662E-12	614.585E-3	-23.9365E-3	138.772E-12	647.435E-3	-22.1073E-3
3.69435E-3	134.940E-12	621.864E-3	-33.5804E-3	137.729E-12	650.271E-3	-32.8199E-3
3.68934E-3	135.502E-12	624.183E-3	-26.1922E-3	138.699E-12	662.631E-3	-33.7880E-3
3.68434E-3	136.850E-12	606.840E-3	-9.96701E-3	139.275E-12	689.023E-3	-22.9463E-3
3.67934E-3	136.931E-12	623.460E-3	-12.1973E-3	139.950E-12	668.917E-3	-10.0919E-3
3.67434E-3	135.186E-12	653.513E-3	-23.6089E-3	137.691E-12	626.099E-3	-12.8324E-3
3.66933E-3	133.464E-12	631.791E-3	-20.9210E-3	137.119E-12	602.237E-3	-16.5226E-3
3.66433E-3	132.942E-12	612.712E-3	-18.7150E-3	135.420E-12	605.328E-3	-14.5553E-3
3.65933E-3	133.240E-12	614.311E-3	-40.4336E-3	137.388E-12	625.452E-3	-26.2363E-3
3.65433E-3	133.155E-12	613.217E-3	-61.0981E-3	135.962E-12	637.040E-3	-23.2936E-3
3.64932E-3	132.586E-12	613.041E-3	-51.0136E-3	132.821E-12	661.643E-3	-21.3017E-6
3.64432E-3	132.042E-12	614.820E-3	-22.7392E-3	131.250E-12	665.763E-3	-725.132E-6
3.63932E-3	131.000E-12	608.751E-3	-1.14996E-3	131.943E-12	637.989E-3	-15.2095E-3
3.63432E-3	129.573E-12	603.969E-3	-7.25774E-3	133.473E-12	645.650E-3	-12.1613E-3
3.62931E-3	130.526E-12	608.476E-3	-21.3373E-3	131.629E-12	644.108E-3	-11.4255E-3
3.62431E-3	132.180E-12	592.787E-3	-11.3337E-3	130.481E-12	611.672E-3	-17.8281E-3
3.61931E-3	131.557E-12	584.884E-3	-784.215E-6	133.058E-12	632.852E-3	-7.78087E-3
3.61431E-3	131.415E-12	604.551E-3	-530.604E-6	132.718E-12	674.098E-3	-6.27046E-3
3.60930E-3	131.877E-12	617.681E-3	-7.23974E-3	131.720E-12	662.980E-3	-19.4304E-3
3.60430E-3	132.556E-12	632.375E-3	-27.7601E-3	132.330E-12	651.146E-3	-9.58880E-3
3.59930E-3	132.987E-12	640.621E-3	-38.8106E-3	135.936E-12	657.467E-3	-12.5542E-3
3.59430E-3	131.648E-12	628.423E-3	-29.2360E-3	134.787E-12	640.649E-3	-34.8781E-3
3.58929E-3	130.921E-12	637.601E-3	-23.3693E-3	134.737E-12	611.951E-3	-19.8659E-3
3.58429E-3	132.585E-12	656.927E-3	-13.6937E-3	134.276E-12	600.399E-3	-1.57057E-3
3.57929E-3	131.513E-12	641.169E-3	-15.3529E-3	135.769E-12	613.539E-3	-21.7376E-3
3.57429E-3	130.000E-12	625.299E-3	-39.9552E-3	135.489E-12	621.952E-3	-27.4963E-3
3.56928E-3	129.607E-12	628.360E-3	-48.9488E-3	134.843E-12	628.201E-3	-26.4512E-3
3.56428E-3	130.640E-12	625.085E-3	-26.0107E-3	132.674E-12	637.773E-3	-36.1622E-3
3.55928E-3	132.225E-12	636.430E-3	-5.12523E-3	132.314E-12	631.067E-3	-11.4721E-3
3.55428E-3	129.210E-12	651.925E-3	-7.11396E-3	134.899E-12	634.914E-3	15.5207E-3
3.54927E-3	128.679E-12	642.913E-3	-1.54679E-3	132.057E-12	631.154E-3	7.24705E-3
3.54427E-3	129.620E-12	627.985E-3	6.56954E-3	129.691E-12	604.216E-3	-15.9673E-3
3.53927E-3	130.572E-12	627.229E-3	-13.2197E-3	129.658E-12	610.663E-3	-15.2365E-3
3.53427E-3	127.835E-12	638.729E-3	-44.8062E-3	130.611E-12	645.200E-3	-5.50685E-3
3.52926E-3	127.791E-12	648.119E-3	-52.7797E-3	129.723E-12	664.044E-3	-18.4689E-3
3.52426E-3	129.717E-12	662.404E-3	-30.1721E-3	131.240E-12	651.093E-3	-23.1648E-3
3.51926E-3	128.259E-12	654.984E-3	-8.06975E-3	130.069E-12	624.545E-3	-23.3926E-3
3.51426E-3	126.802E-12	627.660E-3	-17.3514E-3	126.658E-12	620.071E-3	-33.2138E-3
3.50925E-3	126.642E-12	635.246E-3	-30.5035E-3	126.475E-12	619.673E-3	-35.7696E-3
3.50425E-3	127.749E-12	644.891E-3	-36.3713E-3	129.720E-12	616.250E-3	-30.2778E-3
3.49925E-3	127.258E-12	635.085E-3	-38.6653E-3	130.935E-12	616.518E-3	-25.5989E-3
3.49425E-3	125.843E-12	633.492E-3	-20.6805E-3	126.852E-12	610.800E-3	-20.2889E-3
3.48924E-3	125.991E-12	628.906E-3	-5.13945E-3	126.031E-12	613.031E-3	-13.2706E-3
3.48424E-3	126.465E-12	618.911E-3	-14.5212E-3	126.831E-12	630.374E-3	-13.1008E-3
3.47924E-3	126.311E-12	619.983E-3	-37.9708E-3	128.465E-12	648.196E-3	-22.5440E-3
3.47424E-3	126.025E-12	628.456E-3	-59.3251E-3	127.205E-12	651.639E-3	-34.9004E-3
3.46923E-3	124.749E-12	638.308E-3	-59.0623E-3	124.668E-12	630.082E-3	-39.3903E-3
3.46423E-3	125.252E-12	636.305E-3	-38.3674E-3	125.423E-12	608.416E-3	-34.6167E-3
3.45923E-3	127.389E-12	631.673E-3	-28.7376E-3	127.350E-12	624.021E-3	-25.0762E-3
3.45423E-3	126.082E-12	627.462E-3	-29.1262E-3	128.666E-12	639.582E-3	-30.8945E-3
3.44922E-3	125.591E-12	616.043E-3	-40.6173E-3	126.070E-12	642.057E-3	-37.5566E-3
3.44422E-3	127.314E-12	617.412E-3	-41.1302E-3	125.791E-12	649.281E-3	-42.2558E-3
3.43922E-3	128.637E-12	623.284E-3	-7.45362E-3	125.932E-12	642.095E-3	-51.2861E-3
3.43422E-3	128.092E-12	643.035E-3	-10.5031E-3	128.983E-12	625.539E-3	-38.8477E-3
3.42921E-3	126.151E-12	663.523E-3	-33.9624E-3	127.312E-12	621.489E-3	-28.6701E-3
3.42421E-3	127.527E-12	640.912E-3	-31.0081E-3	123.945E-12	619.962E-3	-17.7637E-3
3.41921E-3	129.004E-12	629.030E-3	-26.2702E-3	122.099E-12	609.489E-3	-4.74248E-3
3.41421E-3	127.729E-12	650.509E-3	-14.7817E-3	124.280E-12	612.702E-3	-8.08351E-3
3.40920E-3	126.562E-12	659.711E-3	-10.7119E-3	123.946E-12	633.012E-3	-7.40482E-3
3.40420E-3	125.631E-12	655.727E-3	-37.3357E-3	120.171E-12	631.828E-3	-20.2641E-3
3.39920E-3	125.789E-12	641.677E-3	-54.3791E-3	120.649E-12	607.485E-3	-37.6979E-3
3.39420E-3	125.946E-12	633.970E-3	-40.2796E-3	121.314E-12	598.745E-3	-16.1948E-3
3.38919E-3	125.231E-12	642.439E-3	-33.4731E-3	123.184E-12	624.276E-3	7.83813E-3
3.38419E-3	124.761E-12	661.297E-3	-47.7105E-3	123.153E-12	659.473E-3	6.99223E-3
3.37919E-3	123.079E-12	686.118E-3	-67.2650E-3	122.916E-12	674.011E-3	3.72376E-3
3.37419E-3	124.313E-12	690.338E-3	-63.8435E-3	122.821E-12	673.311E-3	19.7771E-3
3.36918E-3	124.490E-12	661.724E-3	-43.0501E-3	126.547E-12	665.220E-3	31.2552E-3
3.36418E-3	123.618E-12	648.606E-3	-27.1148E-3	127.159E-12	665.466E-3	13.3239E-3
3.35918E-3	121.849E-12	650.588E-3	-31.6467E-3	125.422E-12	674.272E-3	-8.25368E-3
3.35418E-3	123.588E-12	634.660E-3	-56.1276E-3	126.246E-12	673.755E-3	-34.6320E-3
3.34917E-3	125.496E-12	626.089E-3	-68.3399E-3	125.790E-12	644.788E-3	-46.2983E-3
3.34417E-3	123.471E-12	631.463E-3	-52.2283E-3	126.205E-12	599.049E-3	-22.9782E-3
3.33917E-3	122.168E-12	630.302E-3	-33.7752E-3	123.254E-12	590.035E-3	-6.08525E-3
3.33417E-3	122.316E-12	612.801E-3	-26.1713E-3	124.142E-12	603.831E-3	2.98582E-3
3.32916E-3	122.683E-12	593.000E-3	-23.8487E-3	122.684E-12	618.370E-3	27.4399E-3
3.32416E-3	123.495E-12	592.683E-3	-20.4228E-3	122.057E-12	635.934E-3	41.8213E-3
3.31916E-3	121.135E-12	612.920E-3	-14.7105E-3	121.481E-12	641.820E-3	15.6019E-3
3.31416E-3	119.883E-12	637.476E-3	-25.8128E-3	118.730E-12	636.040E-3	-17.8139E-3
3.30915E-3	119.289E-12	646.112E-3	-33.4954E-3	119.084E-12	636.570E-3	-20.5452E-3
3.30415E-3	119.497E-12	653.698E-3	-30.3311E-3	116.876E-12	652.312E-3	-15.5217E-3
3.29915E-3	117.783E-12	653.723E-3	-20.8692E-3	117.394E-12	653.495E-3	-7.45940E-3
3.29415E-3	117.277E-12	632.457E-3	7.20374E-3	116.638E-12	640.187E-3	7.78923E-3
3.28914E-3	117.230E-12	624.117E-3	19.7767E-3	117.265E-12	645.688E-3	16.2889E-3
3.28414E-3	117.930E-12	631.434E-3	7.06488E-3	116.734E-12	646.914E-3	21.5255E-3
3.27914E-3	119.413E-12	622.473E-3	2.59961E-3	118.534E-12	639.154E-3	19.1953E-3
3.27414E-3	119.073E-12	611.345E-3	-791.697E-6	121.160E-12	635.793E-3	1.61587E-3
3.26913E-3	116.361E-12	617.381E-3	-13.3113E-3	120.324E-12	639.653E-3	-12.2826E-3
3.26413E-3	116.949E-12	627.193E-3	-23.0471E-3	121.160E-12	661.316E-3	-10.4789E-3
3.25913E-3	119.372E-12	627.208E-3	-36.7104E-3	119.999E-12	670.251E-3	-14.3006E-3
3.25413E-3	120.578E-12	631.734E-3	-42.5800E-3	123.787E-12	653.315E-3	-17.8780E-3
3.24912E-3	118.789E-12	652.254E-3	-26.3619E-3	124.416E-12	651.740E-3	-19.4252E-3
3.24412E-3	117.669E-12	674.984E-3	-8.74324E-3	122.169E-12	661.682E-3	-22.0723E-3
3.23912E-3	116.572E-12	688.115E-3	-7.63458E-3	117.230E-12	653.625E-3	-7.37938E-3
3.23412E-3	116.293E-12	676.113E-3	-15.6870E-3	119.409E-12	657.582E-3	1.48064E-3
3.22911E-3	116.867E-12	655.847E-3	-21.4844E-3	120.324E-12	651.006E-3	1.49530E-3
3.22411E-3	116.384E-12	646.827E-3	-13.4793E-3	119.011E-12	623.219E-3	-7.36059E-3
3.21911E-3	116.395E-12	651.081E-3	6.43692E-3	114.539E-12	623.620E-3	-21.0509E-3
3.21411E-3	114.774E-12	648.840E-3	13.3048E-3	113.333E-12	642.195E-3	-20.8788E-3
3.20910E-3	114.922E-12	641.826E-3	3.31940E-3	114.842E-12	641.826E-3	-12.2542E-3
3.20410E-3	114.742E-12	642.017E-3	-3.50127E-3	114.285E-12	637.803E-3	10.7979E-3
3.19910E-3	114.843E-12	639.840E-3	-6.91704E-3	113.221E-12	660.450E-3	32.7602E-3
3.19410E-3	114.515E-12	640.651E-3	-23.9781E-3	113.217E-12	681.006E-3	22.9967E-3
3.18909E-3	114.777E-12	631.494E-3	-39.3122E-3	115.408E-12	667.378E-3	5.48469E-3
3.18409E-3	114.107E-12	626.721E-3	-41.5076E-3	117.263E-12	641.255E-3	-827.558E-6
3.17909E-3	115.557E-12	646.127E-3	-43.0666E-3	116.559E-12	646.171E-3	-14.9949E-3
3.17409E-3	115.754E-12	650.848E-3	-37.1076E-3	115.627E-12	655.994E-3	-13.1623E-3
3.16908E-3	114.242E-12	633.158E-3	-21.8999E-3	116.050E-12	639.194E-3	-3.09944E-3
3.16408E-3	112.932E-12	631.226E-3	-13.3593E-3	119.379E-12	634.502E-3	-8.19226E-3
3.15908E-3	112.556E-12	641.048E-3	-17.1434E-3	118.614E-12	643.822E-3	-10.8904E-3
3.15408E-3	113.092E-12	648.569E-3	-11.0425E-3	117.520E-12	643.975E-3	-6.03160E-3
3.14907E-3	111.712E-12	643.559E-3	4.13043E-3	116.219E-12	640.352E-3	-7.86348E-3
3.14407E-3	110.564E-12	619.228E-3	4.38413E-3	115.495E-12	640.498E-3	-2.86434E-3
3.13907E-3	110.402E-12	620.027E-3	1.44224E-3	114.138E-12	650.600E-3	18.8116E-3
3.13407E-3	112.438E-12	645.903E-3	9.00441E-3	114.213E-12	645.920E-3	5.22763E-3
3.12906E-3	110.546E-12	647.989E-3	-3.97083E-3	114.927E-12	630.069E-3	-35.4167E-3
3.12406E-3	108.542E-12	638.017E-3	-39.8585E-3	111.664E-12	642.936E-3	-41.2219E-3
3.11906E-3	108.558E-12	623.879E-3	-48.6697E-3	109.325E-12	656.475E-3	-30.4528E-3
3.11406E-3	110.550E-12	606.476E-3	-13.4697E-3	110.805E-12	645.348E-3	-25.0070E-3
3.10905E-3	112.151E-12	613.598E-3	14.4749E-3	112.344E-12	635.348E-3	-6.16518E-3
3.10405E-3	109.947E-12	652.683E-3	1.78912E-3	110.058E-12	642.757E-3	14.8272E-3
3.09905E-3	109.636E-12	683.082E-3	-9.31583E-3	107.319E-12	643.516E-3	14.4007E-3
3.09405E-3	110.919E-12	668.080E-3	-21.8512E-3	107.641E-12	629.987E-3	10.7918E-3
3.08904E-3	112.670E-12	650.847E-3	-51.1661E-3	109.804E-12	621.360E-3	6.14299E-3
3.08404E-3	111.157E-12	649.605E-3	-54.0811E-3	108.879E-12	612.502E-3	-25.3992E-3
3.07904E-3	109.364E-12	645.576E-3	-38.3160E-3	107.255E-12	610.851E-3	-49.4683E-3
3.07404E-3	110.515E-12	646.768E-3	-24.8592E-3	108.149E-12	628.531E-3	-35.1261E-3
3.06903E-3	110.647E-12	654.660E-3	-7.19595E-3	110.444E-12	637.944E-3	-16.2834E-3
3.06403E-3	109.621E-12	658.467E-3	2.58724E-3	110.197E-12	638.788E-3	-8.71164E-3
3.05903E-3	107.430E-12	646.509E-3	6.78194E-3	108.530E-12	661.290E-3	-11.1884E-3
3.05403E-3	108.042E-12	631.655E-3	-189.855E-6	108.241E-12	678.917E-3	-23.5068E-3
3.04902E-3	109.088E-12	637.749E-3	-6.00995E-3	109.325E-12	682.476E-3	-14.7212E-3
3.04402E-3	108.061E-12	646.560E-3	-10.7655E-3	109.190E-12	687.305E-3	3.88826E-3
3.03902E-3	108.215E-12	641.972E-3	-21.0422E-3	108.578E-12	664.455E-3	-971.087E-6
3.03402E-3	107.287E-12	642.840E-3	-22.5934E-3	109.000E-12	644.660E-3	-13.2995E-3
3.02901E-3	108.147E-12	633.484E-3	-22.0604E-3	109.475E-12	662.830E-3	-28.9587E-3
3.02401E-3	108.324E-12	620.510E-3	-21.8197E-3	108.504E-12	671.605E-3	-29.8023E-3
3.01901E-3	107.716E-12	637.719E-3	-15.2592E-3	108.832E-12	664.564E-3	-12.3428E-3
3.01401E-3	107.170E-12	652.390E-3	-9.43327E-3	107.661E-12	654.230E-3	-15.6196E-3
3.00900E-3	108.648E-12	641.935E-3	-20.4507E-3	108.123E-12	640.480E-3	-28.3300E-3
3.00400E-3	107.648E-12	643.811E-3	-29.6812E-3	106.808E-12	646.148E-3	-36.5346E-3
2.99900E-3	107.569E-12	661.064E-3	-25.8743E-3	107.290E-12	650.547E-3	-51.4018E-3
2.99400E-3	107.506E-12	659.756E-3	-19.1476E-3	106.567E-12	634.458E-3	-59.5851E-3
2.98899E-3	107.676E-12	651.199E-3	-21.1688E-3	106.064E-12	628.395E-3	-30.3334E-3
2.98399E-3	106.822E-12	654.490E-3	-38.8470E-3	104.386E-12	633.644E-3	12.8162E-3
2.97899E-3	104.706E-12	645.985E-3	-38.0917E-3	104.853E-12	637.331E-3	11.0533E-3
2.97399E-3	105.322E-12	620.707E-3	-8.25831E-3	105.857E-12	631.458E-3	-19.8158E-3
2.96898E-3	104.652E-12	631.285E-3	-892.500E-6	104.395E-12	628.030E-3	-28.5946E-3
2.96398E-3	105.017E-12	658.676E-3	-20.2744E-3	102.713E-12	643.008E-3	-35.5811E-3
2.95898E-3	103.548E-12	638.977E-3	-18.4460E-3	102.593E-12	646.692E-3	-44.6401E-3
2.95398E-3	103.444E-12	613.466E-3	-1.46894E-3	105.140E-12	647.728E-3	-21.0267E-3
2.94897E-3	102.977E-12	624.978E-3	-3.05233E-3	105.932E-12	664.398E-3	7.31803E-3
2.94397E-3	103.087E-12	640.376E-3	-14.6635E-3	105.834E-12	680.713E-3	11.2987E-3
2.93897E-3	104.176E-12	626.474E-3	-15.5432E-3	105.824E-12	690.967E-3	2.49557E-3
2.93397E-3	103.895E-12	615.372E-3	-8.97222E-3	106.165E-12	677.307E-3	-18.7780E-3
2.92896E-3	104.085E-12	638.089E-3	1.93740E-3	106.733E-12	649.901E-3	-47.2646E-3
2.92396E-3	102.731E-12	658.251E-3	722.387E-6	108.383E-12	642.147E-3	-47.6939E-3
2.91896E-3	104.365E-12	669.578E-3	-14.6165E-3	106.878E-12	660.094E-3	-38.9160E-3
2.91396E-3	104.067E-12	681.963E-3	-15.5476E-3	104.868E-12	666.957E-3	-47.5220E-3
2.90895E-3	102.694E-12	669.374E-3	-5.45834E-3	104.622E-12	653.544E-3	-52.0884E-3
2.90395E-3	102.893E-12	650.866E-3	-6.88599E-3	105.505E-12	656.665E-3	-60.5360E-3
2.89895E-3	102.667E-12	652.377E-3	-19.4878E-3	105.856E-12	657.408E-3	-71.8144E-3
2.89395E-3	102.484E-12	658.074E-3	-35.5543E-3	102.719E-12	657.273E-3	-42.4365E-3
2.88894E-3	101.760E-12	661.558E-3	-47.5602E-3	101.101E-12	667.256E-3	-10.1407E-3
2.88394E-3	102.963E-12	652.960E-3	-39.0270E-3	100.231E-12	653.626E-3	-24.8477E-3
2.87894E-3	100.768E-12	648.135E-3	-32.4093E-3	102.575E-12	642.391E-3	-36.8029E-3
2.87394E-3	101.255E-12	667.947E-3	-32.7737E-3	99.4756E-12	667.048E-3	-28.6310E-3
2.86893E-3	100.331E-12	659.159E-3	-22.3152E-3	97.3506E-12	673.534E-3	-25.9102E-3
2.86393E-3	101.179E-12	617.835E-3	-21.6803E-3	97.2072E-12	650.197E-3	-29.1138E-3
2.85893E-3	100.946E-12	629.583E-3	-35.7519E-3	101.032E-12	641.196E-3	-35.1165E-3
2.85393E-3	99.7227E-12	667.619E-3	-54.6087E-3	101.149E-12	641.264E-3	-23.4478E-3
2.84892E-3	100.417E-12	668.120E-3	-56.9934E-3	99.8637E-12	656.086E-3	-11.6643E-3
2.84392E-3	100.763E-12	659.726E-3	-39.8084E-3	99.5137E-12	673.833E-3	-27.8037E-3
2.83892E-3	100.672E-12	658.578E-3	-26.5926E-3	101.709E-12	667.001E-3	-31.5555E-3
2.83392E-3	99.5165E-12	652.454E-3	-30.3295E-3	103.205E-12	654.046E-3	-14.2109E-3
2.82891E-3	101.187E-12	650.570E-3	-45.6776E-3	101.412E-12	660.379E-3	-4.37819E-3
2.82391E-3	101.507E-12	660.326E-3	-39.1663E-3	100.502E-12	676.752E-3	-3.76563E-3
2.81891E-3	100.845E-12	657.778E-3	-16.6180E-3	100.967E-12	666.321E-3	2.34867E-3
2.81391E-3	99.8824E-12	656.862E-3	-10.3124E-3	102.252E-12	640.194E-3	14.0577E-3
2.80890E-3	98.9001E-12	675.057E-3	-4.14916E-3	100.157E-12	635.880E-3	10.8668E-3
2.80390E-3	99.2336E-12	674.726E-3	6.92778E-3	98.1374E-12	650.519E-3	-6.85427E-3
2.79890E-3	98.1316E-12	653.114E-3	2.07789E-3	97.2177E-12	656.747E-3	-13.1900E-3
2.79390E-3	97.3975E-12	644.843E-3	-13.5028E-3	96.1232E-12	655.961E-3	-15.8534E-3
2.78889E-3	96.4319E-12	650.003E-3	-21.7839E-3	97.0640E-12	655.374E-3	-27.2267E-3
2.78389E-3	98.6910E-12	651.352E-3	-18.7508E-3	96.0835E-12	664.695E-3	-31.2695E-3
2.77889E-3	97.4065E-12	648.991E-3	-21.9247E-3	94.3844E-12	687.963E-3	-31.3186E-3
2.77389E-3	97.0501E-12	651.249E-3	-19.9629E-3	93.5262E-12	691.869E-3	-17.8077E-3
2.76888E-3	96.4971E-12	656.380E-3	5.03138E-3	95.6191E-12	682.571E-3	967.782E-6
2.76388E-3	96.5897E-12	661.163E-3	-878.348E-6	97.8534E-12	663.930E-3	-5.79224E-3
2.75888E-3	96.5972E-12	672.057E-3	-41.8171E-3	97.7197E-12	619.086E-3	-6.35823E-3
2.75388E-3	96.1955E-12	669.120E-3	-56.4325E-3	95.3233E-12	615.023E-3	728.908E-6
2.74887E-3	97.2902E-12	656.188E-3	-58.7250E-3	97.3871E-12	664.306E-3	-288.051E-6
2.74387E-3	96.2229E-12	657.628E-3	-64.1003E-3	99.3115E-12	682.253E-3	4.24216E-3
2.73887E-3	95.2921E-12	654.645E-3	-45.1003E-3	98.4098E-12	669.922E-3	1.82345E-3
2.73387E-3	94.4627E-12	645.959E-3	-21.2464E-3	97.3952E-12	665.311E-3	-11.1172E-3
2.72886E-3	95.7348E-12	652.580E-3	-14.6035E-3	96.8303E-12	661.047E-3	-15.8356E-3
2.72386E-3	94.7099E-12	657.855E-3	-21.3790E-3	97.6413E-12	662.717E-3	-16.2487E-3
2.71886E-3	93.0415E-12	644.924E-3	-26.6740E-3	97.3083E-12	664.385E-3	-32.3043E-3
2.71386E-3	93.0772E-12	630.008E-3	-17.4638E-3	96.4242E-12	652.585E-3	-45.3944E-3
2.70885E-3	93.3587E-12	630.926E-3	-9.72189E-3	93.6390E-12	654.571E-3	-24.3409E-3
2.70385E-3	93.3326E-12	644.682E-3	-4.31298E-3	94.5382E-12	668.263E-3	-3.31710E-3
2.69885E-3	91.3994E-12	658.885E-3	2.50164E-3	93.6016E-12	660.673E-3	-22.6881E-3
2.69385E-3	90.9486E-12	658.721E-3	6.97028E-3	93.4770E-12	643.585E-3	-32.9515E-3
2.68884E-3	91.6787E-12	631.413E-3	13.3155E-3	91.1396E-12	651.109E-3	-13.1177E-3
2.68384E-3	91.8721E-12	614.218E-3	-95.8602E-6	91.5125E-12	659.396E-3	-7.77732E-3
2.67884E-3	90.8450E-12	642.939E-3	-16.3995E-3	91.4178E-12	642.254E-3	-15.9941E-3
2.67384E-3	90.5578E-12	666.683E-3	-14.2806E-3	89.8775E-12	643.936E-3	-21.5842E-3
2.66883E-3	91.6722E-12	657.242E-3	-23.8535E-3	90.5559E-12	669.363E-3	-29.4184E-3
2.66383E-3	91.9635E-12	650.304E-3	-30.4645E-3	90.5622E-12	682.712E-3	-25.8365E-3
2.65883E-3	92.0599E-12	655.711E-3	-26.4963E-3	90.7670E-12	681.154E-3	-12.5695E-3
2.65383E-3	90.5994E-12	661.449E-3	-22.9422E-3	91.0678E-12	680.785E-3	-10.8751E-3
2.64882E-3	89.7819E-12	669.921E-3	-13.6666E-3	91.6789E-12	674.918E-3	-10.5641E-3
2.64382E-3	90.9700E-12	674.933E-3	-12.8214E-3	91.8858E-12	673.250E-3	-5.24535E-3
2.63882E-3	91.8548E-12	659.099E-3	-24.0740E-3	91.9248E-12	678.934E-3	-10.8584E-3
2.63382E-3	91.3220E-12	640.170E-3	-33.6576E-3	91.9844E-12	672.839E-3	-21.7096E-3
2.62881E-3	88.9368E-12	646.988E-3	-33.7321E-3	91.1952E-12	661.668E-3	-25.6338E-3
2.62381E-3	89.1068E-12	653.892E-3	-19.3884E-3	91.9303E-12	651.035E-3	-34.7448E-3
2.61881E-3	90.0375E-12	664.578E-3	-12.5493E-3	91.6143E-12	647.050E-3	-39.0112E-3
2.61381E-3	90.6428E-12	702.394E-3	-25.5410E-3	91.4365E-12	647.031E-3	-22.7689E-3
2.60880E-3	88.6203E-12	711.245E-3	-36.0702E-3	89.8930E-12	648.178E-3	-5.85333E-3
2.60380E-3	88.5296E-12	680.073E-3	-21.6687E-3	90.6742E-12	655.269E-3	-737.470E-6
2.59880E-3	90.3262E-12	661.590E-3	-6.95331E-3	90.4350E-12	666.397E-3	-3.06303E-3
2.59380E-3	90.6082E-12	655.160E-3	-21.0963E-3	89.5103E-12	684.454E-3	-8.06529E-3
2.58879E-3	89.2981E-12	646.966E-3	-32.4010E-3	88.4249E-12	690.752E-3	-19.9032E-3
2.58379E-3	88.1750E-12	651.536E-3	-17.9050E-3	88.8065E-12	679.282E-3	-28.7424E-3
2.57879E-3	89.5972E-12	660.072E-3	-8.31682E-3	90.1846E-12	675.439E-3	-25.1844E-3
2.57379E-3	90.7119E-12	665.353E-3	-17.2444E-3	88.5802E-12	667.283E-3	-23.7503E-3
2.56878E-3	90.0605E-12	682.916E-3	-15.3653E-3	86.9732E-12	663.186E-3	-30.1594E-3
2.56378E-3	88.5721E-12	697.826E-3	-17.2916E-3	86.9297E-12	680.906E-3	-24.6846E-3
2.55878E-3	89.0815E-12	702.158E-3	-25.5463E-3	87.9394E-12	688.306E-3	-1.47228E-3
2.55378E-3	90.7879E-12	705.122E-3	-21.3675E-3	86.4794E-12	679.281E-3	7.91575E-3
2.54877E-3	90.8291E-12	704.801E-3	-18.8183E-3	85.7941E-12	665.565E-3	-7.54783E-3
2.54377E-3	88.7799E-12	720.934E-3	-16.1485E-3	86.0008E-12	655.904E-3	-14.6270E-3
2.53877E-3	87.4326E-12	720.560E-3	-8.48284E-3	86.0490E-12	657.281E-3	10.1616E-3
2.53377E-3	87.4784E-12	687.708E-3	-22.3637E-3	84.9290E-12	664.138E-3	20.2293E-3
2.52876E-3	87.4992E-12	689.523E-3	-54.9211E-3	84.5092E-12	664.370E-3	-5.13178E-3
2.52376E-3	86.4862E-12	708.185E-3	-36.6110E-3	86.4499E-12	666.917E-3	-17.8408E-3
2.51876E-3	86.1950E-12	694.540E-3	4.05652E-3	85.8965E-12	690.728E-3	-15.4706E-3
2.51376E-3	86.6462E-12	679.211E-3	-4.35910E-3	85.4140E-12	707.183E-3	-9.12778E-3
2.50875E-3	86.9495E-12	689.653E-3	-26.2261E-3	84.6262E-12	705.016E-3	-4.06474E-3
2.50375E-3	85.9824E-12	691.175E-3	-14.3256E-3	84.3922E-12	687.467E-3	-9.75470E-3
2.49875E-3	85.9335E-12	674.759E-3	2.63667E-3	85.4724E-12	657.709E-3	-11.4384E-3
2.49375E-3	86.2129E-12	682.870E-3	-7.08102E-3	85.0653E-12	650.366E-3	-17.8634E-3
2.48874E-3	86.8354E-12	698.272E-3	-925.642E-6	84.4296E-12	668.175E-3	-41.1304E-3
2.48374E-3	85.3632E-12	691.976E-3	7.47905E-3	83.1709E-12	673.058E-3	-49.8904E-3
2.47874E-3	85.0715E-12	707.521E-3	-6.58909E-3	82.9096E-12	667.567E-3	-32.5359E-3
2.47374E-3	84.6008E-12	720.055E-3	-2.57749E-3	82.5301E-12	679.606E-3	-21.5457E-3
2.46873E-3	85.0962E-12	697.387E-3	6.10277E-3	80.7365E-12	684.937E-3	-25.7456E-3
2.46373E-3	85.3068E-12	686.189E-3	-1.54076E-3	80.6009E-12	650.459E-3	-20.0962E-3
2.45873E-3	84.6652E-12	688.949E-3	-5.11183E-3	79.9225E-12	628.704E-3	-8.87327E-3
2.45373E-3	83.6861E-12	684.050E-3	-8.71061E-3	79.6067E-12	648.532E-3	-19.3691E-3
2.44872E-3	83.6915E-12	693.914E-3	-23.8263E-3	78.3750E-12	667.632E-3	-32.8130E-3
2.44372E-3	84.1684E-12	715.088E-3	-36.7472E-3	78.6901E-12	688.879E-3	-35.3491E-3
2.43872E-3	82.9106E-12	710.524E-3	-29.7084E-3	78.4461E-12	698.035E-3	-41.8034E-3
2.43372E-3	82.0684E-12	693.147E-3	-26.0857E-3	79.6335E-12	679.837E-3	-40.0099E-3
2.42871E-3	83.1517E-12	689.361E-3	-29.5984E-3	78.8930E-12	674.715E-3	-34.3610E-3
2.42371E-3	82.6031E-12	695.907E-3	-21.6514E-3	79.3802E-12	696.537E-3	-49.6809E-3
2.41871E-3	81.7226E-12	696.916E-3	-14.9041E-3	79.8094E-12	703.029E-3	-55.9897E-3
2.41371E-3	81.1436E-12	701.100E-3	-17.7002E-3	80.4566E-12	698.862E-3	-25.7668E-3
2.40870E-3	81.4354E-12	699.932E-3	-19.9826E-3	80.6091E-12	707.748E-3	-2.40626E-3
2.40370E-3	81.2075E-12	674.194E-3	-16.7360E-3	80.6634E-12	706.741E-3	-11.2802E-3
2.39870E-3	80.8453E-12	671.551E-3	-17.3533E-3	81.4913E-12	692.394E-3	-13.2176E-3
2.39370E-3	81.3421E-12	704.266E-3	-11.4327E-3	82.1033E-12	685.840E-3	-4.72426E-3
2.38869E-3	80.5344E-12	724.259E-3	-2.66059E-3	80.5067E-12	689.793E-3	-6.10185E-3
2.38369E-3	80.0195E-12	720.379E-3	-4.28455E-3	79.9456E-12	683.269E-3	-4.01474E-3
2.37869E-3	79.7309E-12	707.143E-3	1.38813E-3	79.1220E-12	679.817E-3	5.53643E-3
2.37369E-3	79.3917E-12	697.647E-3	7.43573E-3	79.0704E-12	685.373E-3	-946.210E-6
2.36868E-3	78.5907E-12	707.922E-3	-5.94265E-3	77.8913E-12	688.225E-3	-7.36110E-3
2.36368E-3	78.4344E-12	711.424E-3	-23.2060E-3	76.8093E-12	696.550E-3	-588.684E-6
2.35868E-3	78.2019E-12	682.605E-3	-25.1241E-3	75.8329E-12	695.920E-3	-11.6010E-3
2.35368E-3	77.6806E-12	660.650E-3	-22.9461E-3	76.1350E-12	680.408E-3	-17.9865E-3
2.34867E-3	77.8667E-12	661.982E-3	-26.9887E-3	75.9883E-12	679.108E-3	-13.8787E-3
2.34367E-3	77.7944E-12	666.424E-3	-32.9156E-3	75.6653E-12	680.926E-3	-21.6641E-3
2.33867E-3	77.0202E-12	677.041E-3	-32.8288E-3	75.4989E-12	685.152E-3	-28.9554E-3
2.33367E-3	75.9195E-12	704.527E-3	-21.0791E-3	76.4258E-12	700.708E-3	-26.6532E-3
2.32866E-3	76.1767E-12	714.656E-3	-13.5187E-3	76.2928E-12	698.929E-3	-23.3458E-3
2.32366E-3	76.9924E-12	697.070E-3	-3.73026E-3	78.0909E-12	696.213E-3	-28.7774E-3
2.31866E-3	77.2921E-12	688.900E-3	6.51756E-3	78.9647E-12	715.054E-3	-33.9507E-3
2.31366E-3	75.9637E-12	685.943E-3	-5.28720E-3	78.3174E-12	738.296E-3	-30.2111E-3
2.30865E-3	74.7176E-12	681.345E-3	-15.6779E-3	78.7709E-12	743.212E-3	-26.6658E-3
2.30365E-3	75.5175E-12	688.501E-3	-22.3896E-3	77.9825E-12	734.013E-3	-30.0115E-3
2.29865E-3	75.6900E-12	708.716E-3	-30.0027E-3	78.2410E-12	724.955E-3	-38.2477E-3
2.29365E-3	74.7877E-12	721.098E-3	-23.3331E-3	77.1067E-12	717.130E-3	-36.1433E-3
2.28864E-3	73.8219E-12	705.056E-3	-12.0171E-3	77.3493E-12	706.753E-3	-19.9710E-3
2.28364E-3	73.6733E-12	684.992E-3	-6.32788E-3	76.6759E-12	702.291E-3	-13.7213E-3
2.27864E-3	74.1472E-12	678.603E-3	-15.5649E-3	75.6616E-12	714.045E-3	-5.65414E-3
2.27364E-3	74.7474E-12	682.861E-3	-19.9481E-3	74.3929E-12	728.891E-3	9.61771E-3
2.26863E-3	73.0122E-12	695.568E-3	-15.3191E-3	72.7517E-12	726.464E-3	-13.8968E-3
2.26363E-3	72.1648E-12	702.612E-3	-13.9313E-3	73.1901E-12	703.047E-3	-45.9887E-3
2.25863E-3	73.5199E-12	689.811E-3	-10.7737E-3	73.7348E-12	694.044E-3	-30.4236E-3
2.25363E-3	73.1090E-12	682.978E-3	-10.9812E-3	72.2305E-12	702.354E-3	-15.7038E-3
2.24862E-3	71.9300E-12	697.758E-3	-11.8756E-3	70.3712E-12	698.604E-3	-15.8772E-3
2.24362E-3	71.5745E-12	699.037E-3	-12.0297E-3	70.8553E-12	703.931E-3	-5.23711E-3
2.23862E-3	72.0260E-12	694.159E-3	-17.5948E-3	72.1343E-12	723.096E-3	-6.22554E-3
2.23362E-3	72.5487E-12	703.114E-3	-23.7875E-3	71.8737E-12	738.502E-3	-11.0338E-3
2.22861E-3	72.3666E-12	712.778E-3	-13.1588E-3	71.9266E-12	751.138E-3	-19.9550E-3
2.22361E-3	71.3017E-12	720.746E-3	838.369E-6	72.2310E-12	745.863E-3	-37.4864E-3
2.21861E-3	71.2962E-12	723.450E-3	-340.812E-6	73.0264E-12	731.303E-3	-38.0576E-3
2.21361E-3	72.4882E-12	719.680E-3	-9.41461E-3	74.4547E-12	736.665E-3	-32.7941E-3
2.20860E-3	73.0122E-12	714.144E-3	-13.9065E-3	73.6797E-12	753.837E-3	-26.1100E-3
2.20360E-3	71.5308E-12	713.846E-3	-18.7448E-3	72.6634E-12	758.852E-3	-15.4700E-3
2.19860E-3	69.9371E-12	713.076E-3	-30.0387E-3	72.8465E-12	744.246E-3	-15.0436E-3
2.19360E-3	70.4794E-12	696.573E-3	-29.2759E-3	73.8214E-12	724.966E-3	-30.2966E-3
2.18859E-3	71.5744E-12	695.672E-3	-21.6669E-3	72.1729E-12	713.738E-3	-41.4078E-3
2.18359E-3	70.8186E-12	725.280E-3	-13.9149E-3	70.9442E-12	720.350E-3	-16.9623E-3
2.17859E-3	68.8084E-12	726.689E-3	-14.0830E-3	70.3754E-12	739.137E-3	5.67474E-3
2.17359E-3	68.8145E-12	701.719E-3	-30.4606E-3	69.7568E-12	736.365E-3	-16.3532E-3
2.16858E-3	70.0285E-12	693.533E-3	-33.5670E-3	70.6516E-12	725.871E-3	-33.1016E-3
2.16358E-3	70.6388E-12	692.506E-3	-23.1190E-3	70.0069E-12	734.741E-3	-21.1741E-3
2.15858E-3	69.2621E-12	704.698E-3	-27.1946E-3	67.8156E-12	729.330E-3	-14.8707E-3
2.15358E-3	68.3524E-12	724.869E-3	-18.8223E-3	67.8770E-12	709.327E-3	-10.9821E-3
2.14857E-3	69.1054E-12	730.550E-3	-3.14089E-3	67.5809E-12	706.076E-3	-1.59339E-3
2.14357E-3	69.4801E-12	730.713E-3	-15.7910E-3	67.6376E-12	714.087E-3	-9.62545E-3
2.13857E-3	68.4548E-12	731.274E-3	-28.1110E-3	66.6342E-12	727.023E-3	-26.0698E-3
2.13357E-3	67.0098E-12	737.121E-3	-20.2514E-3	66.5134E-12	741.550E-3	-32.5758E-3
2.12856E-3	67.0028E-12	739.384E-3	-14.0071E-3	66.7206E-12	750.490E-3	-37.8783E-3
2.12356E-3	67.3431E-12	738.740E-3	-29.3809E-3	66.3311E-12	741.476E-3	-33.5555E-3
2.11856E-3	66.9775E-12	739.359E-3	-31.1041E-3	66.2158E-12	718.352E-3	-20.2567E-3
2.11356E-3	65.6096E-12	728.743E-3	-17.9531E-3	66.1792E-12	709.977E-3	-18.5720E-3
2.10855E-3	65.5224E-12	725.854E-3	-20.8667E-3	65.9792E-12	723.586E-3	-13.2150E-3
2.10355E-3	66.3479E-12	722.217E-3	-25.2486E-3	65.4555E-12	742.396E-3	5.19162E-3
2.09855E-3	65.6012E-12	702.306E-3	-29.6484E-3	65.6018E-12	749.260E-3	612.096E-6
2.09355E-3	64.6958E-12	697.307E-3	-32.9749E-3	65.3207E-12	749.507E-3	-21.5403E-3
2.08854E-3	63.5791E-12	709.217E-3	-28.9050E-3	66.0551E-12	755.315E-3	-23.1221E-3
2.08354E-3	64.2286E-12	713.033E-3	-30.9865E-3	65.0532E-12	749.851E-3	-22.1759E-3
2.07854E-3	64.2361E-12	718.320E-3	-37.2868E-3	64.7042E-12	727.672E-3	-21.6812E-3
2.07354E-3	63.6110E-12	732.890E-3	-19.2956E-3	64.3080E-12	726.590E-3	-7.19252E-3
2.06853E-3	63.0324E-12	747.823E-3	4.62606E-3	63.9273E-12	742.885E-3	-1.11571E-3
2.06353E-3	63.6016E-12	762.064E-3	1.41058E-3	63.5085E-12	745.932E-3	-5.51356E-3
2.05853E-3	63.8761E-12	761.368E-3	52.4813E-6	63.2445E-12	746.607E-3	-4.72561E-3
2.05353E-3	62.5441E-12	747.371E-3	4.07779E-3	63.0141E-12	758.588E-3	-15.2412E-3
2.04852E-3	61.8704E-12	749.238E-3	-10.3238E-3	62.2275E-12	764.005E-3	-27.2660E-3
2.04352E-3	61.8350E-12	752.468E-3	-24.9294E-3	61.5227E-12	759.692E-3	-21.2633E-3
2.03852E-3	62.0307E-12	739.015E-3	-35.9071E-3	61.5183E-12	767.738E-3	-17.1290E-3
2.03352E-3	62.0235E-12	736.809E-3	-36.5997E-3	61.7304E-12	764.508E-3	-22.2217E-3
2.02851E-3	60.6956E-12	749.931E-3	-28.5681E-3	61.0623E-12	746.321E-3	-16.3617E-3
2.02351E-3	60.4750E-12	745.490E-3	-32.8504E-3	60.5581E-12	747.716E-3	-9.82445E-3
2.01851E-3	60.5302E-12	723.601E-3	-32.7312E-3	59.7790E-12	762.816E-3	-24.7076E-3
2.01351E-3	60.5381E-12	718.618E-3	-26.7614E-3	59.7809E-12	772.237E-3	-33.3289E-3
2.00850E-3	59.9093E-12	734.835E-3	-37.0221E-3	60.6402E-12	778.865E-3	-24.7121E-3
2.00350E-3	59.0707E-12	749.496E-3	-40.0301E-3	60.5601E-12	774.284E-3	-8.98021E-3
1.99850E-3	59.3588E-12	753.863E-3	-8.35024E-3	59.8666E-12	761.825E-3	11.7186E-3
1.99350E-3	59.4645E-12	753.614E-3	10.0896E-3	60.2078E-12	775.855E-3	10.4338E-3
1.98849E-3	59.4910E-12	739.455E-3	174.368E-6	60.9805E-12	794.769E-3	-13.0173E-3
1.98349E-3	58.5879E-12	729.346E-3	-16.6334E-3	61.5407E-12	793.589E-3	-23.3403E-3
1.97849E-3	58.8962E-12	752.425E-3	-31.8128E-3	61.2400E-12	798.292E-3	-25.1320E-3
1.97349E-3	59.4572E-12	772.419E-3	-23.7426E-3	60.2707E-12	789.405E-3	-24.0406E-3
1.96848E-3	59.1428E-12	767.540E-3	-13.9572E-3	60.7224E-12	757.502E-3	-7.44852E-3
1.96348E-3	58.1024E-12	766.341E-3	-16.4984E-3	60.4276E-12	756.700E-3	-5.42296E-3
1.95848E-3	58.3429E-12	778.293E-3	-26.1377E-3	59.6207E-12	777.974E-3	-26.0208E-3
1.95348E-3	58.5167E-12	779.214E-3	-37.5317E-3	58.5380E-12	778.211E-3	-29.8911E-3
1.94847E-3	58.6446E-12	764.503E-3	-38.9345E-3	58.2797E-12	770.463E-3	-22.0426E-3
1.94347E-3	57.9662E-12	758.190E-3	-31.8049E-3	58.3386E-12	772.642E-3	-31.6093E-3
1.93847E-3	57.0862E-12	769.402E-3	-14.1461E-3	57.2678E-12	776.377E-3	-40.4785E-3
1.93347E-3	57.0366E-12	778.881E-3	-1.25035E-3	56.1391E-12	779.969E-3	-25.4509E-3
1.92846E-3	57.5978E-12	790.541E-3	-9.53978E-3	55.5249E-12	786.944E-3	-14.0833E-3
1.92346E-3	57.1489E-12	801.691E-3	-21.6513E-3	55.8300E-12	779.465E-3	-20.4585E-3
1.91846E-3	56.0950E-12	791.612E-3	-6.50395E-3	54.8973E-12	765.340E-3	-25.6980E-3
1.91346E-3	55.7719E-12	786.160E-3	17.4788E-3	54.7459E-12	771.001E-3	-24.0312E-3
1.90845E-3	55.9653E-12	800.240E-3	18.5744E-3	54.7745E-12	788.019E-3	-11.5513E-3
1.90345E-3	56.2849E-12	809.113E-3	265.232E-6	54.9343E-12	808.925E-3	-4.50301E-3
1.89845E-3	55.7810E-12	802.225E-3	-20.8420E-3	55.1520E-12	829.796E-3	-12.7587E-3
1.89345E-3	55.0923E-12	794.514E-3	-28.0142E-3	55.4559E-12	834.378E-3	-22.4971E-3
1.88844E-3	55.1831E-12	803.257E-3	-16.0881E-3	54.9991E-12	838.853E-3	-22.9113E-3
1.88344E-3	55.3172E-12	816.370E-3	-4.75691E-3	54.8357E-12	852.666E-3	-13.1559E-3
1.87844E-3	55.0102E-12	820.865E-3	-17.3545E-3	55.3475E-12	847.778E-3	-11.9008E-3
1.87344E-3	54.4517E-12	820.185E-3	-21.3069E-3	56.0444E-12	832.641E-3	-17.9589E-3
1.86843E-3	54.5496E-12	816.480E-3	-28.9104E-3	55.7397E-12	838.823E-3	-23.5017E-3
1.86343E-3	53.6667E-12	825.183E-3	-50.7813E-3	55.0289E-12	841.507E-3	-22.7651E-3
1.85843E-3	53.9423E-12	841.442E-3	-38.5857E-3	55.3125E-12	834.450E-3	-8.42549E-3
1.85343E-3	53.7016E-12	839.251E-3	-15.9557E-3	54.5717E-12	846.479E-3	1.39423E-3
1.84842E-3	53.0681E-12	834.832E-3	-18.1439E-3	53.4169E-12	851.069E-3	-3.22253E-3
1.84342E-3	52.2717E-12	843.452E-3	-17.5192E-3	52.0076E-12	853.014E-3	-14.0781E-3
1.83842E-3	51.7718E-12	843.900E-3	-9.72375E-3	52.2337E-12	849.890E-3	-26.2024E-3
1.83342E-3	51.7852E-12	837.588E-3	-14.3130E-3	52.0927E-12	832.082E-3	-22.4918E-3
1.82841E-3	51.0796E-12	833.376E-3	-14.8512E-3	51.0254E-12	837.549E-3	-4.40325E-3
1.82341E-3	50.6466E-12	824.846E-3	-11.1667E-3	49.5628E-12	859.387E-3	-7.41646E-3
1.81841E-3	50.4754E-12	819.883E-3	-5.83463E-3	49.3835E-12	863.143E-3	-19.9231E-3
1.81341E-3	50.4682E-12	823.581E-3	10.5302E-3	49.8313E-12	850.639E-3	-17.4277E-3
1.80840E-3	50.3331E-12	834.011E-3	11.4674E-3	49.5381E-12	851.298E-3	-20.1965E-3
1.80340E-3	49.7750E-12	841.268E-3	-11.7793E-3	49.0126E-12	866.788E-3	-36.5125E-3
1.79840E-3	49.6880E-12	847.991E-3	-22.3314E-3	49.0970E-12	876.635E-3	-34.5011E-3
1.79340E-3	49.2466E-12	858.050E-3	-10.5307E-3	49.6664E-12	882.985E-3	-10.1297E-3
1.78839E-3	49.3193E-12	852.191E-3	-13.6002E-3	50.4771E-12	884.730E-3	9.10415E-3
1.78339E-3	48.7714E-12	845.384E-3	-26.7763E-3	49.8186E-12	890.092E-3	10.9956E-3
1.77839E-3	48.9883E-12	856.774E-3	-20.8268E-3	49.4892E-12	903.484E-3	4.76272E-3
1.77339E-3	48.3689E-12	865.672E-3	-18.8123E-3	49.5875E-12	890.529E-3	-6.59188E-3
1.76838E-3	48.1585E-12	865.361E-3	-20.7417E-3	49.9362E-12	872.499E-3	-16.9968E-3
1.76338E-3	47.4505E-12	858.774E-3	-8.99767E-3	48.8724E-12	890.542E-3	-17.1413E-3
1.75838E-3	47.0726E-12	852.434E-3	-14.3479E-3	48.6063E-12	913.988E-3	-25.6428E-3
1.75338E-3	47.1360E-12	862.672E-3	-28.4164E-3	47.5373E-12	907.710E-3	-29.4963E-3
1.74837E-3	46.4312E-12	873.143E-3	-10.9680E-3	47.3776E-12	887.768E-3	-14.3889E-3
1.74337E-3	46.0401E-12	874.717E-3	1.35039E-3	46.8268E-12	888.736E-3	-2.60247E-3
1.73837E-3	45.5751E-12	889.226E-3	-18.6866E-3	46.1347E-12	912.130E-3	-4.07560E-3
1.73337E-3	45.6603E-12	900.759E-3	-16.9906E-3	45.2974E-12	929.832E-3	-10.7392E-3
1.72836E-3	45.0708E-12	902.447E-3	10.5398E-3	45.1196E-12	924.801E-3	-23.8041E-3
1.72336E-3	44.8431E-12	906.764E-3	13.4602E-3	45.4305E-12	907.482E-3	-42.6265E-3
1.71836E-3	44.3786E-12	902.371E-3	7.89123E-3	44.7544E-12	904.454E-3	-42.8718E-3
1.71336E-3	43.9495E-12	889.128E-3	10.8002E-3	44.4697E-12	919.569E-3	-34.5021E-3
1.70835E-3	43.6333E-12	877.086E-3	-8.25156E-3	44.1083E-12	935.957E-3	-32.7606E-3
1.70335E-3	43.4196E-12	884.473E-3	-25.4619E-3	44.6987E-12	959.692E-3	-24.7355E-3
1.69835E-3	43.3593E-12	900.947E-3	-9.93130E-3	44.5203E-12	967.086E-3	-28.2126E-3
1.69335E-3	43.0210E-12	913.840E-3	118.513E-6	44.3454E-12	944.198E-3	-25.5077E-3
1.68834E-3	42.5992E-12	932.542E-3	5.38110E-3	44.2443E-12	947.299E-3	-3.03714E-3
1.68334E-3	42.1845E-12	928.877E-3	11.7270E-3	44.2882E-12	976.648E-3	-3.12147E-3
1.67834E-3	41.7620E-12	905.219E-3	-2.82874E-3	43.8786E-12	982.793E-3	-16.4170E-3
1.67334E-3	41.3815E-12	901.930E-3	-8.82559E-3	42.9491E-12	981.477E-3	-19.2742E-3
1.66833E-3	41.1180E-12	901.317E-3	1.90796E-3	43.1211E-12	987.766E-3	-32.4024E-3
1.66333E-3	41.5154E-12	904.750E-3	-3.97365E-3	43.1036E-12	969.381E-3	-43.3138E-3
1.65833E-3	40.7788E-12	933.150E-3	-11.8568E-3	42.1809E-12	958.710E-3	-33.7551E-3
1.65333E-3	40.2263E-12	949.558E-3	-8.19659E-3	41.3497E-12	975.503E-3	-25.8409E-3
1.64832E-3	40.2555E-12	942.641E-3	-15.4862E-3	41.1559E-12	980.408E-3	-22.7818E-3
1.64332E-3	40.9255E-12	943.047E-3	-23.5118E-3	41.0832E-12	983.254E-3	-14.1520E-3
1.63832E-3	40.1242E-12	955.667E-3	-18.9504E-3	40.4180E-12	995.165E-3	-16.5900E-3
1.63332E-3	39.0790E-12	967.272E-3	-15.1661E-3	39.7948E-12	994.162E-3	-28.6098E-3
1.62831E-3	39.2881E-12	969.514E-3	-18.0369E-3	39.1184E-12	987.038E-3	-25.4664E-3
1.62331E-3	39.6919E-12	954.957E-3	-21.6378E-3	38.9918E-12	1.00110E+0	-22.3442E-3
1.61831E-3	39.0600E-12	953.737E-3	-20.4854E-3	38.4405E-12	1.01546E+0	-31.2628E-3
1.61331E-3	37.9852E-12	988.488E-3	-21.9344E-3	37.8647E-12	1.01027E+0	-25.4010E-3
1.60830E-3	37.9489E-12	1.00846E+0	-27.3962E-3	37.6010E-12	1.01098E+0	-1.69692E-3
1.60330E-3	38.2707E-12	1.00234E+0	-29.9723E-3	37.6027E-12	1.02310E+0	-1.20249E-3
1.59830E-3	37.9879E-12	1.01046E+0	-32.5125E-3	36.9036E-12	1.03004E+0	-19.7784E-3
1.59330E-3	36.9706E-12	1.02566E+0	-28.9215E-3	36.4325E-12	1.03650E+0	-14.7863E-3
1.58829E-3	36.2433E-12	1.02876E+0	-18.1007E-3	36.7416E-12	1.05009E+0	-9.37440E-3
1.58329E-3	36.2549E-12	1.02478E+0	-12.2283E-3	36.5595E-12	1.05714E+0	-20.6145E-3
1.57829E-3	36.1251E-12	1.01679E+0	-2.88089E-3	36.1021E-12	1.07317E+0	-17.1187E-3
1.57329E-3	35.9939E-12	1.01498E+0	3.14153E-3	35.5500E-12	1.08744E+0	-5.61089E-3
1.56828E-3	35.0439E-12	1.02969E+0	-10.2322E-3	35.7728E-12	1.06986E+0	-4.96708E-3
1.56328E-3	34.6088E-12	1.04303E+0	-19.1509E-3	35.9794E-12	1.06799E+0	-13.2599E-3
1.55828E-3	34.6326E-12	1.03620E+0	-22.3778E-3	35.3832E-12	1.08951E+0	-29.1674E-3
1.55328E-3	34.9053E-12	1.02824E+0	-37.5029E-3	34.7624E-12	1.08516E+0	-28.1640E-3
1.54827E-3	33.9714E-12	1.04061E+0	-41.1486E-3	34.6085E-12	1.07516E+0	-11.3315E-3
1.54327E-3	33.2309E-12	1.05988E+0	-27.3559E-3	35.2423E-12	1.08559E+0	-4.92146E-3
1.53827E-3	33.3511E-12	1.06256E+0	-18.1949E-3	34.5861E-12	1.09692E+0	-4.32230E-3
1.53327E-3	33.5684E-12	1.04885E+0	-20.0415E-3	33.4722E-12	1.09903E+0	-5.59942E-3
1.52826E-3	33.1529E-12	1.05026E+0	-26.3226E-3	33.1106E-12	1.09544E+0	-8.19187E-3
1.52326E-3	32.2375E-12	1.06869E+0	-29.3296E-3	33.5942E-12	1.09022E+0	-18.2891E-3
1.51826E-3	31.6329E-12	1.07980E+0	-25.3218E-3	33.1691E-12	1.09022E+0	-34.3491E-3
1.51326E-3	31.5084E-12	1.08283E+0	-20.7780E-3	32.0784E-12	1.10161E+0	-37.9959E-3
1.50825E-3	31.1631E-12	1.08157E+0	-19.4681E-3	31.3464E-12	1.10705E+0	-22.2631E-3
1.50325E-3	30.5612E-12	1.09319E+0	-16.2188E-3	31.0743E-12	1.10061E+0	-8.29508E-3
1.49825E-3	30.0318E-12	1.09856E+0	-9.27865E-3	31.1398E-12	1.09945E+0	-12.4299E-3
1.49325E-3	29.7490E-12	1.08048E+0	-11.5486E-3	30.4233E-12	1.11059E+0	-11.1895E-3
1.48824E-3	29.3000E-12	1.07510E+0	-27.9516E-3	29.9364E-12	1.12342E+0	-2.44679E-3
1.48324E-3	28.9483E-12	1.06833E+0	-27.1725E-3	29.6425E-12	1.13371E+0	-15.7859E-3
1.47824E-3	28.4387E-12	1.05072E+0	-15.1163E-3	29.7603E-12	1.13991E+0	-36.3336E-3
1.47324E-3	28.0365E-12	1.05911E+0	-12.4178E-3	29.7164E-12	1.15368E+0	-24.0426E-3
1.46823E-3	28.0876E-12	1.08175E+0	-1.63261E-3	28.9355E-12	1.18070E+0	-7.45423E-3
1.46323E-3	27.5937E-12	1.09386E+0	4.62137E-3	28.3918E-12	1.18249E+0	-20.2504E-3
1.45823E-3	27.0590E-12	1.09954E+0	-5.51977E-3	28.5276E-12	1.15656E+0	-28.9907E-3
1.45323E-3	26.6029E-12	1.09190E+0	-8.58570E-3	28.8088E-12	1.14614E+0	-27.2503E-3
1.44822E-3	26.4929E-12	1.07700E+0	-3.63171E-3	28.0537E-12	1.14493E+0	-30.4722E-3
1.44322E-3	26.0323E-12	1.08822E+0	-4.16044E-3	26.9705E-12	1.12666E+0	-28.9214E-3
1.43822E-3	25.7059E-12	1.11579E+0	-8.20902E-3	26.5739E-12	1.11362E+0	-29.5954E-3
1.43322E-3	25.1649E-12	1.11555E+0	-19.0827E-3	26.4442E-12	1.11276E+0	-39.1190E-3
1.42821E-3	25.1112E-12	1.09930E+0	-31.2246E-3	25.6659E-12	1.10649E+0	-39.1015E-3
1.42321E-3	24.5210E-12	1.10047E+0	-22.5688E-3	24.9391E-12	1.10130E+0	-27.8431E-3
1.41821E-3	23.8227E-12	1.11052E+0	-13.7065E-3	24.6149E-12	1.09424E+0	-23.2223E-3
1.41321E-3	23.4113E-12	1.11139E+0	-21.6653E-3	24.0955E-12	1.08251E+0	-20.4536E-3
1.40820E-3	23.0164E-12	1.09466E+0	-15.8755E-3	23.0912E-12	1.08304E+0	-13.5325E-3
1.40320E-3	22.8381E-12	1.07149E+0	-12.2370E-3	22.6158E-12	1.08434E+0	-22.8849E-3
1.39820E-3	22.5485E-12	1.07413E+0	-25.9569E-3	22.5608E-12	1.07172E+0	-35.0125E-3
1.39320E-3	21.9086E-12	1.08786E+0	-18.0121E-3	22.1507E-12	1.05979E+0	-26.8875E-3
1.38819E-3	21.7446E-12	1.08009E+0	1.11706E-3	21.5786E-12	1.05600E+0	-22.2188E-3
1.38319E-3	21.6816E-12	1.07326E+0	-525.844E-6	21.2746E-12	1.05393E+0	-23.3470E-3
1.37819E-3	21.3547E-12	1.08278E+0	-8.38165E-3	21.3021E-12	1.05872E+0	-17.9967E-3
1.37319E-3	20.8407E-12	1.07980E+0	-11.4169E-3	20.8499E-12	1.07534E+0	-22.5862E-3
1.36818E-3	20.6694E-12	1.07103E+0	-18.4376E-3	20.4290E-12	1.08277E+0	-25.2303E-3
1.36318E-3	20.3999E-12	1.07734E+0	-21.9022E-3	20.5719E-12	1.07862E+0	-13.0711E-3
1.35818E-3	20.0838E-12	1.06814E+0	-8.58195E-3	20.4957E-12	1.07913E+0	-17.5454E-3
1.35318E-3	19.5219E-12	1.04983E+0	-3.37168E-3	20.1652E-12	1.06779E+0	-33.3901E-3
1.34817E-3	19.1177E-12	1.05370E+0	-12.4356E-3	19.7609E-12	1.04977E+0	-25.9339E-3
1.34317E-3	19.2189E-12	1.06094E+0	-12.1024E-3	19.7885E-12	1.05558E+0	-16.9949E-3
1.33817E-3	18.9258E-12	1.05361E+0	-8.02148E-3	19.3652E-12	1.05824E+0	-22.6097E-3
1.33317E-3	18.4912E-12	1.05184E+0	-1.99942E-3	18.7389E-12	1.03362E+0	-16.6607E-3
1.32816E-3	17.8222E-12	1.04619E+0	2.62082E-3	18.4741E-12	1.00322E+0	-8.98941E-3
1.32316E-3	17.7507E-12	1.01887E+0	-4.70735E-3	18.1676E-12	966.922E-3	-15.0067E-3
1.31816E-3	17.5325E-12	998.666E-3	-10.1997E-3	17.7004E-12	945.398E-3	-15.2603E-3
1.31316E-3	17.2315E-12	991.937E-3	-8.44686E-3	16.9577E-12	960.548E-3	-4.88308E-3
1.30815E-3	16.7053E-12	985.133E-3	-19.3923E-3	16.5285E-12	972.674E-3	-9.79892E-3
1.30315E-3	16.4882E-12	983.714E-3	-37.0982E-3	16.1916E-12	956.710E-3	-16.1940E-3
1.29815E-3	16.4017E-12	982.878E-3	-41.2587E-3	15.8909E-12	936.311E-3	-10.7279E-3
1.29315E-3	15.8683E-12	977.327E-3	-39.7559E-3	15.5316E-12	922.052E-3	-21.2312E-3
1.28814E-3	15.4871E-12	973.534E-3	-30.9993E-3	15.4122E-12	908.235E-3	-24.3710E-3
1.28314E-3	15.1613E-12	963.393E-3	-7.95710E-3	15.2709E-12	902.462E-3	-15.4415E-3
1.27814E-3	15.1993E-12	948.312E-3	-2.06324E-3	14.7058E-12	898.857E-3	-25.0283E-3
1.27314E-3	14.7956E-12	941.655E-3	-21.2276E-3	14.4097E-12	888.021E-3	-28.8550E-3
1.26813E-3	14.3544E-12	932.611E-3	-28.8153E-3	14.3161E-12	881.029E-3	-24.7586E-3
1.26313E-3	14.0077E-12	905.656E-3	-31.5914E-3	14.1231E-12	864.036E-3	-22.3981E-3
1.25813E-3	13.5391E-12	880.548E-3	-44.5380E-3	13.7897E-12	836.467E-3	-8.27630E-3
1.25313E-3	13.2746E-12	865.264E-3	-40.5101E-3	13.4580E-12	832.604E-3	-3.43919E-3
1.24812E-3	13.0325E-12	849.563E-3	-25.8092E-3	13.5339E-12	835.303E-3	-24.9273E-3
1.24312E-3	12.8414E-12	838.320E-3	-21.5904E-3	13.4755E-12	811.853E-3	-36.8680E-3
1.23812E-3	12.6329E-12	828.886E-3	-10.9108E-3	13.2466E-12	791.483E-3	-13.4677E-3
1.23312E-3	12.3513E-12	814.660E-3	2.81694E-3	12.6581E-12	779.372E-3	8.68096E-3
1.22811E-3	12.0006E-12	812.032E-3	-7.38277E-3	12.1144E-12	755.697E-3	5.42931E-3
1.22311E-3	11.8862E-12	817.297E-3	-18.8587E-3	12.0013E-12	739.055E-3	-12.3368E-3
1.21811E-3	11.4934E-12	796.950E-3	-14.3799E-3	11.7369E-12	722.010E-3	-31.3128E-3
1.21311E-3	11.2564E-12	767.932E-3	-20.4045E-3	11.4383E-12	691.495E-3	-29.1025E-3
1.20810E-3	11.0706E-12	751.304E-3	-26.0978E-3	10.9270E-12	668.741E-3	-10.6452E-3
1.20310E-3	10.7729E-12	729.651E-3	-19.9750E-3	10.5983E-12	653.418E-3	-5.41996E-3
1.19810E-3	10.5810E-12	713.633E-3	-32.7755E-3	10.4428E-12	628.512E-3	-17.0626E-3
1.19310E-3	10.5873E-12	714.873E-3	-38.5006E-3	10.2496E-12	612.837E-3	-31.0922E-3
1.18809E-3	10.3575E-12	710.439E-3	-16.2811E-3	10.0507E-12	614.384E-3	-32.7461E-3
1.18309E-3	9.86875E-12	691.806E-3	-10.5447E-3	9.70970E-12	605.254E-3	-26.0456E-3
1.17809E-3	9.80829E-12	665.699E-3	-15.5373E-3	9.48545E-12	588.061E-3	-22.7821E-3
1.17309E-3	9.65955E-12	634.534E-3	-7.65403E-3	9.36461E-12	578.224E-3	-26.9116E-3
1.16808E-3	9.39049E-12	620.147E-3	-10.0221E-3	9.44230E-12	558.215E-3	-32.4204E-3
1.16308E-3	9.10761E-12	621.509E-3	-13.0098E-3	9.06546E-12	528.870E-3	-20.1859E-3
1.15808E-3	8.84715E-12	602.380E-3	1.53351E-3	8.79562E-12	519.046E-3	-11.3526E-3
1.15308E-3	8.76823E-12	576.869E-3	-1.14260E-3	8.83156E-12	519.893E-3	-16.0562E-3
1.14807E-3	8.44881E-12	560.332E-3	-13.2879E-3	8.80025E-12	508.598E-3	-7.42303E-3
1.14307E-3	8.26364E-12	539.972E-3	-3.62311E-3	8.67966E-12	498.331E-3	-4.73341E-3
1.13807E-3	8.25258E-12	521.228E-3	-2.10505E-3	8.37601E-12	484.572E-3	-18.3608E-3
1.13307E-3	8.20917E-12	512.800E-3	-15.7398E-3	8.18942E-12	464.073E-3	-23.0010E-3
1.12806E-3	7.78995E-12	505.025E-3	-12.6944E-3	8.14299E-12	451.329E-3	-22.5237E-3
1.12306E-3	7.57690E-12	481.855E-3	3.10012E-3	7.88502E-12	437.563E-3	-28.2943E-3
1.11806E-3	7.41804E-12	455.075E-3	9.51185E-3	7.71318E-12	421.344E-3	-25.4879E-3
1.11306E-3	7.45322E-12	431.458E-3	5.68258E-3	7.60294E-12	412.664E-3	-15.2032E-3
1.10805E-3	7.23976E-12	415.387E-3	-11.9661E-3	7.52106E-12	401.815E-3	-12.2477E-3
1.10305E-3	7.04486E-12	425.713E-3	-36.8214E-3	7.11896E-12	384.597E-3	-11.2080E-3
1.09805E-3	6.95556E-12	429.878E-3	-36.5541E-3	7.11712E-12	369.532E-3	-17.8313E-3
1.09305E-3	7.02294E-12	409.490E-3	-21.2602E-3	6.84119E-12	341.811E-3	-40.5838E-3
1.08804E-3	6.89953E-12	398.427E-3	-21.6957E-3	6.91561E-12	313.079E-3	-47.2431E-3
1.08304E-3	6.57216E-12	387.846E-3	-25.0269E-3	6.58966E-12	313.439E-3	-29.2106E-3
1.07804E-3	6.41940E-12	366.709E-3	-25.0144E-3	6.41711E-12	314.594E-3	-15.7966E-3
1.07304E-3	6.38440E-12	356.031E-3	-25.8115E-3	6.31445E-12	290.614E-3	-5.47497E-3
1.06803E-3	6.39858E-12	349.169E-3	-16.9004E-3	6.35263E-12	283.419E-3	3.68844E-3
1.06303E-3	6.13317E-12	326.424E-3	-5.20929E-3	6.29584E-12	297.542E-3	-4.75750E-3
1.05803E-3	6.21031E-12	308.238E-3	-8.31840E-3	5.94059E-12	288.624E-3	-25.2755E-3
1.05303E-3	5.99591E-12	310.325E-3	-16.7989E-3	5.86633E-12	270.866E-3	-31.8038E-3
1.04802E-3	5.98131E-12	299.466E-3	-14.3851E-3	5.93772E-12	266.931E-3	-23.1141E-3
1.04302E-3	6.04756E-12	281.397E-3	-6.38850E-3	6.08578E-12	254.375E-3	-14.6386E-3
1.03802E-3	5.86798E-12	286.790E-3	-3.26992E-3	5.73313E-12	235.683E-3	-15.8202E-3
1.03302E-3	5.69580E-12	288.717E-3	-10.1290E-3	5.66335E-12	224.362E-3	-26.7508E-3
1.02801E-3	5.24106E-12	268.995E-3	-19.8687E-3	5.47068E-12	204.414E-3	-30.5065E-3
1.02301E-3	5.39801E-12	243.255E-3	-19.6306E-3	5.30276E-12	190.267E-3	-22.5449E-3
1.01801E-3	5.40610E-12	226.582E-3	-15.9680E-3	5.26055E-12	190.749E-3	-27.3557E-3
1.01301E-3	5.24637E-12	215.304E-3	-22.0833E-3	5.14486E-12	180.018E-3	-32.3348E-3
1.00800E-3	4.95420E-12	204.716E-3	-22.0580E-3	5.18356E-12	162.638E-3	-15.4503E-3
1.00300E-3	4.93370E-12	188.416E-3	-7.39798E-3	5.08791E-12	159.664E-3	-4.16198E-3
997.999E-6	5.21495E-12	169.174E-3	-2.88315E-3	4.97043E-12	167.006E-3	-6.26009E-3
992.997E-6	4.93629E-12	169.195E-3	-13.6696E-3	4.91195E-12	170.052E-3	-11.5318E-3
987.994E-6	4.73056E-12	173.561E-3	-14.5351E-3	4.91808E-12	163.733E-3	-22.1312E-3
982.991E-6	4.65211E-12	158.035E-3	-7.32193E-3	4.87938E-12	157.860E-3	-24.9431E-3
977.989E-6	4.78952E-12	148.682E-3	-13.4705E-3	4.70910E-12	160.762E-3	-11.9114E-3
972.986E-6	4.66978E-12	158.404E-3	-17.3571E-3	4.62731E-12	160.092E-3	3.04714E-3
967.984E-6	4.50182E-12	156.477E-3	-15.8745E-3	4.53825E-12	146.145E-3	14.2620E-3
962.981E-6	4.37806E-12	147.367E-3	-19.8241E-3	4.57069E-12	135.900E-3	9.76746E-3
957.979E-6	4.37697E-12	139.106E-3	-19.7786E-3	4.46364E-12	138.033E-3	-8.74868E-3
952.976E-6	4.44297E-12	122.428E-3	-18.7725E-3	4.59555E-12	133.956E-3	-15.3117E-3
947.974E-6	4.35294E-12	121.495E-3	-21.6216E-3	4.47571E-12	126.080E-3	-11.5716E-3
942.971E-6	4.28760E-12	135.408E-3	-16.5118E-3	4.42669E-12	127.434E-3	-7.69352E-3
937.969E-6	4.21979E-12	132.056E-3	-11.5330E-3	4.23979E-12	122.979E-3	-8.34134E-3
932.966E-6	4.31449E-12	124.992E-3	-23.4960E-3	4.26522E-12	116.357E-3	-12.9865E-3
927.964E-6	4.36267E-12	132.242E-3	-22.8947E-3	4.43684E-12	119.843E-3	-21.7712E-3
922.961E-6	4.20819E-12	139.907E-3	-13.0297E-3	4.35815E-12	115.078E-3	-34.3473E-3
917.959E-6	4.12282E-12	141.802E-3	-19.0131E-3	4.22173E-12	104.679E-3	-26.8509E-3
912.956E-6	4.23401E-12	136.899E-3	-13.1070E-3	4.19380E-12	109.131E-3	-11.6729E-3
907.954E-6	4.29434E-12	127.656E-3	-2.98048E-3	4.24320E-12	106.817E-3	-24.0305E-3
902.951E-6	4.21595E-12	123.220E-3	-10.1149E-3	4.07718E-12	92.3416E-3	-36.5128E-3
897.949E-6	4.06216E-12	119.696E-3	-11.2156E-3	3.93746E-12	94.1664E-3	-25.4269E-3
892.946E-6	3.95252E-12	104.028E-3	-16.9901E-3	3.85548E-12	93.8929E-3	-9.96688E-3
887.944E-6	4.02496E-12	88.3135E-3	-35.9409E-3	3.87639E-12	74.7066E-3	-3.05299E-3
882.941E-6	4.09559E-12	93.5867E-3	-32.0628E-3	3.89216E-12	69.7001E-3	-10.7616E-3
877.939E-6	3.98972E-12	97.1026E-3	-20.0601E-3	3.80617E-12	80.9906E-3	-25.1739E-3
872.936E-6	3.96238E-12	87.3334E-3	-26.7545E-3	3.74498E-12	90.9463E-3	-17.2592E-3
867.934E-6	3.89322E-12	89.0173E-3	-26.6927E-3	3.54173E-12	104.302E-3	-6.65926E-3
862.931E-6	3.97711E-12	92.2430E-3	-13.5047E-3	3.58791E-12	108.372E-3	-19.8651E-3
857.929E-6	3.79117E-12	86.7171E-3	-18.3628E-3	3.69737E-12	94.4495E-3	-18.8713E-3
852.926E-6	3.64510E-12	89.0537E-3	-26.4619E-3	3.60838E-12	88.9458E-3	186.838E-6
847.924E-6	3.59407E-12	90.4210E-3	-17.7314E-3	3.50460E-12	97.0368E-3	-3.59210E-3
842.921E-6	3.69848E-12	84.6758E-3	-23.4739E-3	3.50201E-12	87.0450E-3	-24.1307E-3
837.919E-6	3.73316E-12	87.2697E-3	-26.0520E-3	3.62497E-12	72.4047E-3	-29.2161E-3
832.916E-6	3.58909E-12	94.1615E-3	-7.64702E-3	3.64675E-12	87.1211E-3	-32.3762E-3
827.914E-6	3.56257E-12	101.796E-3	-5.28775E-3	3.53902E-12	109.883E-3	-34.4923E-3
822.911E-6	3.52870E-12	111.242E-3	-16.2229E-3	3.44461E-12	115.206E-3	-13.1911E-3
817.909E-6	3.51233E-12	105.991E-3	-12.3612E-3	3.46505E-12	106.345E-3	-6.92846E-3
812.906E-6	3.38729E-12	94.8997E-3	-7.63062E-3	3.45964E-12	88.9050E-3	-25.3805E-3
807.904E-6	3.36551E-12	95.8419E-3	-7.05202E-3	3.35440E-12	82.5527E-3	-30.6635E-3
802.901E-6	3.36785E-12	94.0511E-3	-299.482E-6	3.26445E-12	95.3663E-3	-29.1845E-3
797.899E-6	3.29606E-12	86.8636E-3	-9.94075E-3	3.36281E-12	91.9087E-3	-27.0199E-3
792.896E-6	3.21889E-12	85.1614E-3	-26.7650E-3	3.30339E-12	76.8154E-3	-12.4835E-3
787.894E-6	3.17012E-12	84.0391E-3	-18.7071E-3	3.22958E-12	84.5105E-3	-5.35475E-3
782.891E-6	3.21042E-12	84.3971E-3	-7.15699E-3	3.15944E-12	98.9802E-3	-16.5844E-3
777.889E-6	3.03995E-12	96.5872E-3	-14.6658E-3	3.12188E-12	102.914E-3	-18.6156E-3
772.886E-6	3.01536E-12	107.157E-3	-22.4369E-3	3.03775E-12	106.942E-3	-12.3387E-3
767.884E-6	3.03922E-12	102.571E-3	-21.4635E-3	2.96800E-12	111.515E-3	-15.5531E-3
762.881E-6	3.13584E-12	95.4573E-3	-24.1471E-3	2.95549E-12	104.057E-3	-16.3271E-3
757.879E-6	2.91813E-12	88.1848E-3	-23.2671E-3	2.94874E-12	97.4988E-3	-24.4694E-3
752.876E-6	2.80143E-12	85.2462E-3	-19.5077E-3	2.85927E-12	103.376E-3	-39.8689E-3
747.874E-6	2.92082E-12	89.7671E-3	-21.4567E-3	2.84239E-12	106.950E-3	-39.9147E-3
742.871E-6	2.86596E-12	88.1839E-3	-20.1194E-3	2.98668E-12	110.888E-3	-32.0154E-3
737.869E-6	2.77324E-12	83.3716E-3	-19.1735E-3	2.98499E-12	112.870E-3	-22.0124E-3
732.866E-6	2.74005E-12	93.2876E-3	-19.1298E-3	2.73948E-12	112.846E-3	-16.1225E-3
727.864E-6	2.87329E-12	104.914E-3	-16.3879E-3	2.76138E-12	124.489E-3	-17.2534E-3
722.861E-6	2.87630E-12	101.342E-3	-22.3292E-3	2.84074E-12	128.769E-3	-16.4247E-3
717.859E-6	2.66150E-12	109.775E-3	-32.4209E-3	2.94217E-12	124.665E-3	-15.4570E-3
712.856E-6	2.68129E-12	128.115E-3	-32.3180E-3	2.66532E-12	126.516E-3	-18.8140E-3
707.854E-6	2.63376E-12	119.304E-3	-30.2935E-3	2.60782E-12	126.002E-3	-31.8768E-3
702.851E-6	2.71966E-12	103.419E-3	-32.7209E-3	2.70553E-12	123.231E-3	-32.5986E-3
697.849E-6	2.55925E-12	103.478E-3	-29.2501E-3	2.62696E-12	122.058E-3	-23.7179E-3
692.846E-6	2.48184E-12	96.0920E-3	-19.9605E-3	2.55269E-12	114.501E-3	-29.3636E-3
687.844E-6	2.45039E-12	84.4983E-3	-20.9475E-3	2.42897E-12	105.362E-3	-25.0179E-3
682.841E-6	2.46896E-12	96.9808E-3	-27.9045E-3	2.44720E-12	116.615E-3	-10.7238E-3
677.839E-6	2.43490E-12	115.845E-3	-29.3638E-3	2.43650E-12	131.933E-3	-17.9773E-3
672.836E-6	2.35906E-12	117.738E-3	-42.8068E-3	2.39430E-12	122.861E-3	-31.3187E-3
667.834E-6	2.31830E-12	117.833E-3	-63.8100E-3	2.27790E-12	109.668E-3	-22.7040E-3
662.831E-6	2.34689E-12	117.086E-3	-56.9749E-3	2.25880E-12	111.690E-3	-9.91425E-3
657.829E-6	2.28605E-12	105.308E-3	-37.5097E-3	2.21411E-12	104.802E-3	-9.41725E-3
652.826E-6	2.19620E-12	96.7982E-3	-32.1391E-3	2.19948E-12	99.5679E-3	-10.8620E-3
647.824E-6	2.19553E-12	96.8804E-3	-22.4420E-3	2.14587E-12	120.012E-3	-10.8923E-3
642.821E-6	2.03433E-12	94.5192E-3	-16.4029E-3	2.07615E-12	126.594E-3	-13.7672E-3
637.819E-6	2.00069E-12	102.546E-3	-20.0422E-3	2.08199E-12	110.165E-3	-12.3231E-3
632.816E-6	2.04202E-12	118.179E-3	-18.0312E-3	2.01778E-12	106.321E-3	-6.98468E-3
627.814E-6	2.07809E-12	120.110E-3	-21.2850E-3	1.97649E-12	111.554E-3	-9.06456E-3
622.811E-6	1.91867E-12	127.409E-3	-28.4314E-3	1.89159E-12	117.682E-3	-13.1197E-3
617.809E-6	1.77801E-12	137.884E-3	-23.5857E-3	1.83542E-12	123.285E-3	-14.1251E-3
612.806E-6	1.87137E-12	127.355E-3	-14.8745E-3	1.81658E-12	118.846E-3	-14.9833E-3
607.804E-6	1.89761E-12	115.823E-3	-11.2204E-3	1.88329E-12	115.703E-3	-18.2931E-3
602.801E-6	1.75705E-12	113.330E-3	-1.37585E-3	1.85854E-12	114.833E-3	-26.1540E-3
597.799E-6	1.67185E-12	112.407E-3	2.23724E-3	1.70610E-12	111.948E-3	-32.7289E-3
592.796E-6	1.73407E-12	120.517E-3	-8.01031E-3	1.68896E-12	119.796E-3	-29.0961E-3
587.794E-6	1.73173E-12	123.501E-3	-16.5491E-3	1.67069E-12	130.792E-3	-22.4493E-3
582.791E-6	1.64220E-12	103.641E-3	-20.7543E-3	1.66499E-12	128.182E-3	-27.9015E-3
577.789E-6	1.61425E-12	86.3899E-3	-27.4049E-3	1.60666E-12	117.419E-3	-31.5510E-3
572.786E-6	1.62467E-12	88.9003E-3	-25.5597E-3	1.51430E-12	115.824E-3	-26.2167E-3
567.784E-6	1.66142E-12	90.9316E-3	-21.5567E-3	1.57881E-12	113.506E-3	-24.5253E-3
562.781E-6	1.52421E-12	94.2562E-3	-30.2103E-3	1.51519E-12	99.0724E-3	-18.2658E-3
557.779E-6	1.52401E-12	107.982E-3	-29.8519E-3	1.49026E-12	92.0610E-3	-5.48215E-3
552.776E-6	1.46420E-12	109.324E-3	-27.1588E-3	1.43611E-12	88.4060E-3	-8.44520E-3
547.774E-6	1.43695E-12	108.478E-3	-32.2716E-3	1.38997E-12	81.8063E-3	-22.8350E-3
542.771E-6	1.34455E-12	118.688E-3	-23.8731E-3	1.34499E-12	93.8743E-3	-25.3375E-3
537.769E-6	1.37360E-12	108.802E-3	-11.6937E-3	1.22589E-12	110.627E-3	-24.7376E-3
532.766E-6	1.34432E-12	94.1111E-3	-16.5990E-3	1.27826E-12	108.391E-3	-27.4026E-3
527.764E-6	1.30027E-12	101.782E-3	-22.3370E-3	1.27602E-12	101.598E-3	-26.5871E-3
522.761E-6	1.15841E-12	100.917E-3	-13.1107E-3	1.16279E-12	105.201E-3	-31.8627E-3
517.759E-6	1.13396E-12	87.0534E-3	-9.08357E-3	1.06017E-12	103.187E-3	-30.8938E-3
512.756E-6	1.22209E-12	90.4990E-3	-17.7525E-3	1.14324E-12	97.3598E-3	-16.7302E-3
507.754E-6	1.05094E-12	94.3500E-3	-19.9628E-3	1.07659E-12	99.7389E-3	-7.98345E-3
502.751E-6	954.849E-15	91.4520E-3	-25.1650E-3	1.01104E-12	98.3716E-3	-4.30601E-3
497.749E-6	1.02992E-12	98.9130E-3	-32.2956E-3	963.638E-15	100.189E-3	2.87613E-3
492.746E-6	1.07387E-12	98.9069E-3	-25.5982E-3	1.00519E-12	103.474E-3	2.44631E-3
487.744E-6	968.460E-15	91.6025E-3	-21.2422E-3	1.01696E-12	84.3020E-3	-4.67933E-3
482.741E-6	867.159E-15	90.8527E-3	-20.7070E-3	885.095E-15	66.7793E-3	-3.00338E-3
477.739E-6	888.190E-15	84.1344E-3	-12.9460E-3	869.871E-15	78.6648E-3	-25.6263E-6
472.736E-6	951.518E-15	82.2649E-3	-6.18593E-3	881.441E-15	88.1152E-3	-478.176E-6
467.734E-6	834.122E-15	93.3204E-3	-9.17725E-3	881.860E-15	81.5327E-3	-1.46080E-3
462.731E-6	737.773E-15	90.5736E-3	-14.3063E-3	753.302E-15	75.9711E-3	-12.7767E-3
457.729E-6	806.037E-15	75.6023E-3	-13.4785E-3	718.739E-15	74.4365E-3	-27.6000E-3
452.726E-6	807.859E-15	80.5999E-3	-9.98594E-3	776.845E-15	81.1279E-3	-24.0486E-3
447.724E-6	712.592E-15	89.3288E-3	-3.48300E-3	734.521E-15	95.3279E-3	-24.6164E-3
442.721E-6	691.509E-15	74.2534E-3	-5.81471E-3	652.394E-15	87.3436E-3	-34.4435E-3
437.719E-6	711.598E-15	68.5673E-3	-17.9605E-3	654.792E-15	60.2516E-3	-26.0166E-3
432.716E-6	663.145E-15	76.2173E-3	-16.1358E-3	683.775E-15	54.1821E-3	-22.2447E-3
427.714E-6	594.428E-15	72.9294E-3	-13.8306E-3	618.764E-15	66.0205E-3	-27.3448E-3
422.711E-6	586.633E-15	77.9533E-3	-20.0785E-3	559.298E-15	78.7243E-3	-16.1573E-3
417.709E-6	610.777E-15	94.8225E-3	-16.7074E-3	491.915E-15	86.5858E-3	-8.34084E-3
412.706E-6	594.332E-15	97.3618E-3	-19.1302E-3	606.513E-15	73.1311E-3	-17.9409E-3
407.704E-6	553.779E-15	93.9358E-3	-38.6693E-3	544.684E-15	55.0029E-3	-21.7371E-3
402.701E-6	509.101E-15	86.3654E-3	-43.3774E-3	465.365E-15	56.6472E-3	-19.1493E-3
397.699E-6	536.750E-15	67.2525E-3	-27.1158E-3	477.607E-15	63.6319E-3	-21.1735E-3
392.696E-6	440.053E-15	57.5301E-3	-19.7561E-3	501.245E-15	59.2454E-3	-12.3744E-3
387.694E-6	395.166E-15	63.5122E-3	-13.7058E-3	440.741E-15	59.3309E-3	-4.32205E-3
382.691E-6	444.412E-15	65.3162E-3	3.97175E-3	382.993E-15	64.0483E-3	-13.5286E-3
377.689E-6	484.190E-15	53.3058E-3	4.92875E-3	418.359E-15	54.8316E-3	-22.3151E-3
372.686E-6	387.929E-15	49.9609E-3	-8.92984E-3	433.147E-15	59.1252E-3	-25.1973E-3
367.684E-6	327.024E-15	51.3369E-3	-18.5109E-3	362.294E-15	65.5492E-3	-23.6137E-3
362.681E-6	345.117E-15	43.7899E-3	-32.2144E-3	287.918E-15	50.0981E-3	-19.6729E-3
357.679E-6	386.472E-15	46.7741E-3	-34.0865E-3	343.853E-15	35.9445E-3	-13.3752E-3
352.676E-6	342.213E-15	56.4564E-3	-19.9318E-3	356.626E-15	30.6210E-3	-12.9262E-3
347.674E-6	256.197E-15	57.8674E-3	-13.5993E-3	253.503E-15	29.7057E-3	-16.9515E-3
342.671E-6	296.193E-15	52.3147E-3	-5.53585E-3	196.522E-15	33.0291E-3	-15.8066E-3
337.669E-6	351.839E-15	41.3567E-3	-1.78229E-3	279.992E-15	39.5018E-3	-25.5837E-3
332.666E-6	247.801E-15	32.2163E-3	-14.5251E-3	269.250E-15	39.5737E-3	-36.2119E-3
327.664E-6	175.779E-15	32.5192E-3	-10.1834E-3	177.305E-15	44.3813E-3	-24.5047E-3
322.661E-6	223.160E-15	32.0903E-3	9.73282E-3	163.851E-15	45.4955E-3	-10.8264E-3
317.659E-6	190.218E-15	31.3708E-3	2.08636E-3	248.908E-15	29.9166E-3	-7.79981E-3
312.656E-6	164.854E-15	37.7807E-3	-16.9304E-3	177.139E-15	34.4104E-3	-6.44780E-3
307.654E-6	187.847E-15	45.8265E-3	-16.2693E-3	119.077E-15	49.7975E-3	-16.3613E-3
302.651E-6	197.961E-15	50.3139E-3	-15.8223E-3	131.729E-15	46.4400E-3	-23.1455E-3
297.649E-6	126.349E-15	51.2886E-3	-15.3861E-3	163.773E-15	40.4105E-3	-12.0760E-3
292.646E-6	141.286E-15	48.7752E-3	-4.95420E-3	153.187E-15	40.6427E-3	-9.06082E-3
287.644E-6	140.021E-15	33.7513E-3	-3.39260E-3	106.007E-15	38.4500E-3	-15.3251E-3
282.641E-6	189.756E-15	19.6629E-3	-13.7128E-3	42.0773E-15	36.0878E-3	-12.5024E-3
277.639E-6	61.9311E-15	19.6031E-3	-19.3323E-3	161.898E-15	34.3950E-3	-9.25604E-3
272.636E-6	55.1911E-15	20.5275E-3	-23.5789E-3	65.6456E-15	27.8796E-3	-14.5776E-3
267.634E-6	104.202E-15	28.2135E-3	-32.4370E-3	70.4412E-15	27.4011E-3	-19.6686E-3
262.631E-6	154.696E-15	30.9265E-3	-24.6746E-3	42.4958E-15	34.1024E-3	-30.4767E-3
257.629E-6	42.8707E-15	11.7051E-3	-8.82473E-3	70.2319E-15	30.3769E-3	-41.4994E-3
252.626E-6	-10.6920E-15	5.54251E-3	-16.3766E-3	38.5460E-15	24.5683E-3	-30.8842E-3
247.624E-6	42.1296E-15	17.3381E-3	-20.5574E-3	6.04910E-15	30.9471E-3	-18.4547E-3
242.621E-6	103.409E-15	16.4432E-3	-11.7053E-3	63.6314E-15	30.9089E-3	-18.3578E-3
237.619E-6	-22.9426E-15	20.2601E-3	-13.2468E-3	12.2049E-15	30.6735E-3	-15.7617E-3
232.616E-6	-23.5268E-15	37.9412E-3	-11.7417E-3	-46.9730E-15	39.3044E-3	-13.0319E-3
227.614E-6	-31.1039E-15	39.0559E-3	-3.92085E-3	-20.5361E-15	33.5612E-3	-16.0750E-3
222.611E-6	86.1883E-15	35.6184E-3	-6.51122E-3	16.7738E-15	13.6002E-3	-20.6130E-3
217.609E-6	-10.5176E-15	46.2723E-3	-21.5798E-3	71.2695E-15	12.8083E-3	-23.5568E-3
212.606E-6	-60.2438E-15	42.1123E-3	-37.6886E-3	-48.6646E-15	20.6583E-3	-25.0456E-3
207.604E-6	2.56137E-15	22.4499E-3	-47.1570E-3	-21.8614E-15	15.3500E-3	-22.1223E-3
202.601E-6	-30.0314E-15	16.9890E-3	-45.1797E-3	10.6616E-15	16.8079E-3	-19.7077E-3
197.599E-6	-28.9328E-15	11.6393E-3	-29.3883E-3	-19.1410E-15	12.5935E-3	-19.8634E-3
192.596E-6	-87.9886E-15	3.80029E-3	-23.4955E-3	-101.320E-15	372.009E-6	-7.71946E-3
187.594E-6	-21.1464E-15	23.8667E-3	-22.4428E-3	-58.6133E-15	7.56900E-3	7.20580E-3
182.591E-6	-82.0421E-15	36.0315E-3	-8.46246E-3	-31.4439E-15	15.2065E-3	3.86257E-3
177.589E-6	-83.1146E-15	19.0665E-3	-10.7021E-3	-38.4019E-15	2.47016E-3	-979.588E-6
172.586E-6	-21.1900E-15	12.4853E-3	-25.9993E-3	-104.494E-15	1.74699E-3	3.08121E-3
167.584E-6	-48.0542E-15	13.2105E-3	-24.2217E-3	-98.2251E-15	9.93451E-3	-1.67985E-3
162.581E-6	-65.8154E-15	5.80670E-3	-15.1882E-3	1.54121E-15	-665.344E-6	-11.3060E-3
157.579E-6	-117.390E-15	4.47722E-3	-17.8949E-3	-48.8564E-15	-2.50416E-3	-11.1372E-3
152.576E-6	-56.3201E-15	8.29768E-3	-22.7143E-3	-147.018E-15	14.1353E-3	-11.6259E-3
147.574E-6	-43.3719E-15	1.83373E-3	-25.8982E-3	-127.121E-15	11.6264E-3	-19.6404E-3
142.571E-6	-107.372E-15	998.788E-6	-36.4393E-3	-79.0862E-15	4.39403E-3	-20.9350E-3
137.569E-6	-169.488E-15	8.46240E-3	-31.5553E-3	-84.7015E-15	12.0685E-3	-26.9151E-3
132.566E-6	-89.1222E-15	8.72417E-3	-15.2515E-3	-121.889E-15	4.54981E-3	-34.8288E-3
127.564E-6	-27.1453E-15	14.3683E-3	-10.5502E-3	-108.540E-15	-6.21105E-3	-22.6926E-3
122.561E-6	-92.8627E-15	17.4846E-3	-6.94078E-3	-72.8955E-15	-3.71221E-3	-14.9093E-3
117.559E-6	-171.014E-15	14.9786E-3	-7.83683E-3	-150.637E-15	-4.95170E-3	-17.3513E-3
112.556E-6	-93.8567E-15	21.7907E-3	-9.94447E-3	-180.413E-15	-8.91786E-3	-17.7340E-3
107.554E-6	-49.7283E-15	21.9260E-3	-11.2916E-3	-75.1538E-15	-10.4647E-3	-24.5799E-3
102.551E-6	-157.115E-15	9.56908E-3	-18.1277E-3	-76.8105E-15	-14.5559E-3	-31.5311E-3
97.5488E-6	-166.236E-15	6.14594E-3	-16.2480E-3	-163.995E-15	-8.90953E-3	-22.2823E-3
92.5463E-6	-111.173E-15	9.50634E-3	-2.97241E-3	-142.606E-15	3.65965E-3	-8.33936E-3
87.5438E-6	-69.3904E-15	3.10915E-3	3.64455E-3	-113.466E-15	2.65289E-3	-18.8586E-3
82.5413E-6	-138.735E-15	-999.189E-6	-1.71994E-3	-94.0747E-15	-5.09984E-3	-28.4834E-3
77.5388E-6	-185.314E-15	583.069E-6	-6.44370E-3	-216.450E-15	-3.19769E-3	-19.5202E-3
72.5363E-6	-125.891E-15	-2.34444E-3	-6.52694E-3	-168.250E-15	-258.580E-6	-17.8516E-3
67.5338E-6	-154.151E-15	-2.10236E-3	-12.3868E-3	-100.431E-15	-4.21686E-3	-14.0450E-3
62.5313E-6	-175.487E-15	4.34669E-3	-18.6598E-3	-114.862E-15	1.88919E-3	-10.4280E-3
57.5288E-6	-126.031E-15	4.93281E-3	-13.4223E-3	-180.169E-15	8.23503E-3	-27.5686E-3
52.5263E-6	-137.235E-15	-3.96076E-3	-15.5904E-3	-170.377E-15	-1.65749E-3	-32.2218E-3
47.5238E-6	-159.225E-15	-1.57791E-3	-21.7074E-3	-145.841E-15	-2.91518E-3	-17.4374E-3
42.5213E-6	-190.310E-15	7.28262E-3	-18.6555E-3	-169.043E-15	8.34909E-3	-19.0785E-3
37.5188E-6	-141.386E-15	15.7582E-3	-14.0816E-3	-171.345E-15	8.93568E-3	-17.9969E-3
32.5163E-6	-105.811E-15	22.1584E-3	-14.2072E-3	-188.339E-15	8.83199E-3	-2.72943E-3
27.5138E-6	-149.434E-15	1.26837E-3	-19.1429E-3	-89.2965E-15	15.1820E-3	4.96935E-3
22.5113E-6	-182.157E-15	-22.6744E-3	-20.1019E-3	-159.504E-15	4.49982E-3	4.85030E-3
17.5088E-6	-146.312E-15	-15.9481E-3	-13.2552E-3	-185.994E-15	-8.86041E-3	3.31577E-3
12.5063E-6	-103.073E-15	-1.87583E-3	-3.54372E-3	-163.062E-15	-5.49520E-3	-9.07383E-3
7.50375E-6	-252.339E-15	-4.35699E-3	-8.98195E-3	-140.060E-15	-6.11707E-3	-21.8036E-3
2.50125E-6	-244.997E-15	-8.07546E-3	-17.7092E-3	-189.133E-15	-9.52886E-3	-19.0401E-3
-2.50125E-6	-167.857E-15	-2.52504E-3	-8.83090E-3	-176.184E-15	-4.54170E-3	-22.9429E-3
-7.50375E-6	-108.366E-15	3.04627E-3	-2.61754E-3	-135.361E-15	-286.717E-6	-27.9009E-3
-12.5063E-6	-200.250E-15	8.29250E-3	-8.86284E-3	-168.947E-15	10.3868E-3	-18.5377E-3
-17.5088E-6	-217.427E-15	12.5299E-3	-12.6861E-3	-241.780E-15	19.0744E-3	-14.9192E-3
-22.5113E-6	-189.551E-15	5.56862E-3	-11.7911E-3	-231.134E-15	3.59255E-3	-17.2528E-3
-27.5138E-6	-127.121E-15	-8.73154E-3	-4.92855E-3	-165.198E-15	-12.2334E-3	-14.3361E-3
-32.5163E-6	-228.082E-15	-14.4199E-3	2.76763E-3	-170.281E-15	-9.13944E-3	-10.8324E-3
-37.5188E-6	-225.431E-15	-9.80543E-3	-7.31042E-3	-242.207E-15	-1.24149E-3	-4.87265E-3
-42.5213E-6	-163.428E-15	4.34325E-3	-24.7167E-3	-233.505E-15	910.122E-6	5.40626E-3
-47.5238E-6	-137.305E-15	17.1514E-3	-30.3049E-3	-138.709E-15	644.932E-6	739.885E-6
-52.5263E-6	-223.269E-15	11.6073E-3	-37.2569E-3	-170.805E-15	1.73585E-3	-11.3241E-3
-57.5288E-6	-201.531E-15	4.90366E-3	-39.4137E-3	-212.125E-15	5.60571E-3	-11.1897E-3
-62.5313E-6	-185.043E-15	15.0332E-3	-17.5761E-3	-212.631E-15	4.60001E-3	-20.3888E-3
-67.5338E-6	-202.246E-15	10.4580E-3	-459.255E-6	-195.062E-15	-8.07669E-3	-30.0661E-3
-72.5363E-6	-226.129E-15	-6.78028E-3	-4.05169E-3	-166.454E-15	-17.7492E-3	-21.2437E-3
-77.5388E-6	-198.602E-15	-3.39799E-3	-3.17911E-3	-222.196E-15	-9.13529E-3	-21.2924E-3
-82.5413E-6	-160.655E-15	-2.83338E-3	1.19888E-3	-242.922E-15	8.97672E-3	-29.0739E-3
-87.5438E-6	-189.159E-15	-2.65029E-3	-10.6560E-3	-189.351E-15	20.7873E-3	-17.8228E-3
-92.5463E-6	-270.083E-15	11.3547E-3	-15.7705E-3	-174.606E-15	22.8502E-3	-7.08628E-3
-97.5488E-6	-167.683E-15	19.3442E-3	-5.84989E-3	-245.224E-15	16.8418E-3	-14.1475E-3
-102.551E-6	-201.479E-15	14.2836E-3	-13.6307E-3	-241.902E-15	7.93223E-3	-22.2751E-3
-107.554E-6	-262.584E-15	6.76963E-3	-21.2095E-3	-155.781E-15	9.16246E-3	-28.4648E-3
-112.556E-6	-277.363E-15	6.26097E-3	-9.21989E-3	-217.610E-15	17.4781E-3	-35.3672E-3
-117.559E-6	-208.237E-15	11.2967E-3	-7.67943E-3	-216.564E-15	19.3010E-3	-23.8938E-3
-122.561E-6	-170.979E-15	9.34138E-3	-16.6882E-3	-218.761E-15	26.4961E-3	-3.64910E-3
-127.564E-6	-222.301E-15	-10.3358E-3	-15.5668E-3	-235.484E-15	29.8472E-3	-6.88293E-3
-132.566E-6	-280.371E-15	-6.95944E-3	-9.15328E-3	-256.978E-15	18.1379E-3	-15.0838E-3
-137.569E-6	-217.374E-15	30.8735E-3	-6.53087E-3	-308.596E-15	12.6555E-3	-10.8153E-3
-142.571E-6	-209.806E-15	33.0037E-3	-11.5635E-3	-182.994E-15	15.2045E-3	-6.94014E-3
-147.574E-6	-277.381E-15	-2.06793E-3	-19.0479E-3	-190.057E-15	7.79800E-3	-7.18288E-3
-152.576E-6	-310.453E-15	-17.5672E-3	-19.0184E-3	-288.114E-15	-4.61963E-3	-9.42466E-3
-157.579E-6	-216.032E-15	-10.9293E-3	-15.2903E-3	-305.405E-15	-1.29417E-3	-15.4181E-3
-162.581E-6	-195.236E-15	58.8290E-6	-9.47227E-3	-275.497E-15	8.54606E-3	-16.3886E-3
-167.584E-6	-262.750E-15	10.7154E-3	-5.44321E-3	-251.589E-15	16.4592E-3	-4.53011E-3
-172.586E-6	-345.853E-15	8.32629E-3	-6.45488E-3	-347.397E-15	18.7819E-3	154.323E-6
-177.589E-6	-273.649E-15	262.922E-6	-7.68201E-3	-306.102E-15	5.66137E-3	-7.21750E-3
-182.591E-6	-262.410E-15	10.2038E-3	-6.94314E-3	-244.143E-15	-2.15886E-3	-10.9759E-3
-187.594E-6	-304.350E-15	24.0135E-3	-4.47383E-3	-280.572E-15	2.39527E-3	-19.3698E-3
-192.596E-6	-292.805E-15	11.6129E-3	-14.9240E-3	-330.717E-15	4.41620E-3	-24.9847E-3
-197.599E-6	-259.480E-15	-6.87367E-3	-29.2688E-3	-309.363E-15	14.6161E-3	-21.0683E-3
-202.601E-6	-284.504E-15	-7.65165E-3	-20.3791E-3	-275.959E-15	22.1546E-3	-22.2693E-3
-207.604E-6	-337.893E-15	-12.4202E-3	-2.61034E-3	-302.414E-15	3.97284E-3	-27.2916E-3
-212.606E-6	-259.506E-15	-10.4993E-3	-3.87567E-3	-374.052E-15	-1.91452E-3	-21.0740E-3
-217.609E-6	-294.444E-15	6.32553E-3	-14.6547E-3	-344.153E-15	23.6387E-3	-10.3657E-3
-222.611E-6	-321.492E-15	14.6563E-3	-23.0274E-3	-268.496E-15	39.2741E-3	-10.8215E-3
-227.614E-6	-373.171E-15	19.2447E-3	-21.2263E-3	-306.329E-15	37.3450E-3	-12.7391E-3
-232.616E-6	-291.087E-15	28.8339E-3	-6.18457E-3	-409.435E-15	31.5607E-3	-11.2763E-3
-237.619E-6	-306.869E-15	30.7911E-3	145.909E-6	-337.082E-15	11.5983E-3	-6.99001E-3
-242.621E-6	-397.603E-15	24.0862E-3	-10.5556E-3	-333.324E-15	-5.63076E-3	-3.41315E-3
-247.624E-6	-399.477E-15	17.9580E-3	-13.6094E-3	-382.788E-15	4.54118E-3	-9.81581E-3
-252.626E-6	-337.579E-15	12.1174E-3	-6.17596E-3	-403.017E-15	18.6390E-3	-15.0872E-3
-257.629E-6	-345.592E-15	20.5669E-3	-3.13025E-3	-393.121E-15	28.0100E-3	-11.1271E-3
-262.631E-6	-414.710E-15	44.1546E-3	1.85358E-3	-349.062E-15	40.9183E-3	-9.74428E-3
-267.634E-6	-453.415E-15	50.1315E-3	-4.67367E-3	-459.501E-15	38.7030E-3	-10.2716E-3
-272.636E-6	-384.332E-15	35.2588E-3	-20.1175E-3	-482.625E-15	30.5719E-3	-9.10816E-3
-277.639E-6	-379.571E-15	28.4638E-3	-21.4306E-3	-395.702E-15	38.4422E-3	-14.1829E-3
-282.641E-6	-388.090E-15	33.5604E-3	-18.8510E-3	-435.863E-15	40.2019E-3	-27.5422E-3
-287.644E-6	-509.837E-15	40.4947E-3	-18.0682E-3	-496.750E-15	34.0960E-3	-32.0410E-3
-292.646E-6	-426.594E-15	47.3687E-3	-12.2578E-3	-475.100E-15	43.3788E-3	-19.8526E-3
-297.649E-6	-440.074E-15	47.2980E-3	-13.9118E-3	-428.207E-15	48.5737E-3	-9.81245E-3
-302.651E-6	-483.680E-15	36.0206E-3	-28.2943E-3	-467.366E-15	36.7891E-3	-9.48077E-3
-307.654E-6	-533.824E-15	22.3253E-3	-30.0557E-3	-533.676E-15	37.4786E-3	-14.1145E-3
-312.656E-6	-541.210E-15	19.7791E-3	-16.5334E-3	-574.317E-15	45.4461E-3	-23.1387E-3
-317.659E-6	-531.017E-15	34.0504E-3	-15.9118E-3	-471.656E-15	38.2547E-3	-34.2000E-3
-322.661E-6	-592.061E-15	41.7701E-3	-22.7271E-3	-515.453E-15	35.2764E-3	-31.9149E-3
-327.664E-6	-596.516E-15	28.2546E-3	-14.5213E-3	-602.872E-15	43.3832E-3	-15.1831E-3
-332.666E-6	-616.257E-15	21.0707E-3	-2.21674E-3	-591.564E-15	46.5651E-3	-12.5487E-3
-337.669E-6	-616.065E-15	32.2038E-3	-6.45114E-3	-530.842E-15	43.4146E-3	-34.7526E-3
-342.671E-6	-655.642E-15	41.9108E-3	-18.2695E-3	-592.810E-15	42.6507E-3	-49.0812E-3
-347.674E-6	-606.360E-15	51.7680E-3	-32.5888E-3	-691.836E-15	40.5249E-3	-36.4196E-3
-352.676E-6	-643.409E-15	64.8526E-3	-37.4872E-3	-680.570E-15	40.8546E-3	-17.8337E-3
-357.679E-6	-689.403E-15	61.8168E-3	-16.3799E-3	-627.252E-15	47.9218E-3	-16.8017E-3
-362.681E-6	-754.170E-15	55.0345E-3	-6.00088E-3	-643.138E-15	46.5992E-3	-31.2617E-3
-367.684E-6	-669.069E-15	63.9870E-3	-16.7844E-3	-697.730E-15	39.9749E-3	-36.2019E-3
-372.686E-6	-676.760E-15	65.4389E-3	-15.7997E-3	-702.578E-15	45.7450E-3	-31.7738E-3
-377.689E-6	-783.737E-15	50.1704E-3	-11.5581E-3	-721.786E-15	58.9417E-3	-29.2300E-3
-382.691E-6	-829.348E-15	40.4419E-3	-16.9710E-3	-789.509E-15	64.6565E-3	-28.2666E-3
-387.694E-6	-787.033E-15	41.1894E-3	-11.7056E-3	-838.800E-15	66.1061E-3	-28.4667E-3
-392.696E-6	-785.150E-15	41.9883E-3	-292.838E-6	-808.212E-15	69.0625E-3	-26.0008E-3
-397.699E-6	-851.521E-15	49.0506E-3	-6.93712E-3	-847.205E-15	73.2666E-3	-17.5254E-3
-402.701E-6	-908.624E-15	63.9952E-3	-15.1449E-3	-919.192E-15	78.2894E-3	-11.0941E-3
-407.704E-6	-872.657E-15	72.2222E-3	-10.6675E-3	-931.494E-15	73.8410E-3	-10.4854E-3
-412.706E-6	-848.626E-15	80.8992E-3	-5.60082E-3	-883.190E-15	69.6607E-3	-8.30197E-3
-417.709E-6	-926.620E-15	85.9222E-3	-5.10249E-3	-924.659E-15	85.7048E-3	-4.28285E-3
-422.711E-6	-1.01448E-12	76.2554E-3	-17.5736E-3	-1.05064E-12	94.9419E-3	-7.19725E-3
-427.714E-6	-1.01318E-12	71.3279E-3	-32.1251E-3	-1.01877E-12	88.1771E-3	-6.69427E-3
-432.716E-6	-988.885E-15	78.1269E-3	-19.6580E-3	-1.02275E-12	94.1732E-3	5.44231E-3
-437.719E-6	-1.06688E-12	81.7657E-3	5.24838E-3	-1.09788E-12	100.150E-3	5.69367E-3
-442.721E-6	-1.09395E-12	81.6267E-3	2.51729E-3	-1.18082E-12	95.4897E-3	-3.84259E-3
-447.724E-6	-1.08086E-12	89.5008E-3	-9.01917E-3	-1.22153E-12	104.192E-3	-8.98649E-3
-452.726E-6	-1.12701E-12	101.622E-3	-10.5909E-3	-1.18725E-12	113.186E-3	-16.7980E-3
-457.729E-6	-1.20939E-12	101.231E-3	-22.7161E-3	-1.23515E-12	110.797E-3	-18.3820E-3
-462.731E-6	-1.25869E-12	93.8929E-3	-31.7054E-3	-1.30244E-12	114.044E-3	-9.79349E-3
-467.734E-6	-1.27208E-12	90.9208E-3	-25.5845E-3	-1.29315E-12	116.234E-3	-11.7271E-3
-472.736E-6	-1.26780E-12	94.6649E-3	-22.2900E-3	-1.28864E-12	110.240E-3	-24.6190E-3
-477.739E-6	-1.33174E-12	108.496E-3	-28.0075E-3	-1.34582E-12	109.215E-3	-25.2279E-3
-482.741E-6	-1.30996E-12	119.076E-3	-34.1669E-3	-1.44882E-12	118.980E-3	-14.8436E-3
-487.744E-6	-1.44103E-12	118.708E-3	-40.1222E-3	-1.41357E-12	111.784E-3	-11.8427E-3
-492.746E-6	-1.54008E-12	114.515E-3	-38.9979E-3	-1.53091E-12	98.4801E-3	-14.7291E-3
-497.749E-6	-1.53173E-12	108.178E-3	-24.3553E-3	-1.58374E-12	109.771E-3	-14.0784E-3
-502.751E-6	-1.48375E-12	98.5145E-3	-21.1047E-3	-1.62328E-12	107.381E-3	-13.8392E-3
-507.754E-6	-1.55655E-12	88.0536E-3	-28.0921E-3	-1.59123E-12	99.2855E-3	-24.7382E-3
-512.756E-6	-1.68350E-12	81.4301E-3	-23.4394E-3	-1.64474E-12	112.361E-3	-35.1309E-3
-517.759E-6	-1.66178E-12	81.5885E-3	-26.2550E-3	-1.75710E-12	119.981E-3	-18.2469E-3
-522.761E-6	-1.60595E-12	96.0115E-3	-30.7412E-3	-1.85962E-12	128.324E-3	5.74772E-3
-527.764E-6	-1.70064E-12	111.840E-3	-23.8972E-3	-1.74599E-12	138.556E-3	-4.61540E-3
-532.766E-6	-1.82589E-12	114.439E-3	-24.5418E-3	-1.75144E-12	129.156E-3	-24.3037E-3
-537.769E-6	-1.90711E-12	123.063E-3	-18.6944E-3	-1.89064E-12	122.888E-3	-16.7087E-3
-542.771E-6	-1.79338E-12	133.295E-3	-1.00676E-3	-1.91599E-12	131.713E-3	-657.296E-6
-547.774E-6	-1.83754E-12	126.619E-3	-6.07710E-3	-1.89074E-12	136.249E-3	5.28429E-3
-552.776E-6	-1.96764E-12	117.969E-3	-24.4685E-3	-1.87731E-12	140.057E-3	2.13524E-3
-557.779E-6	-2.01696E-12	116.213E-3	-28.5289E-3	-2.02186E-12	147.495E-3	-9.51186E-3
-562.781E-6	-1.93939E-12	112.002E-3	-25.0354E-3	-2.06568E-12	139.145E-3	-19.5399E-3
-567.784E-6	-2.11437E-12	117.291E-3	-18.4284E-3	-2.10980E-12	116.780E-3	-20.4930E-3
-572.786E-6	-2.24855E-12	130.901E-3	-13.4833E-3	-2.18747E-12	117.021E-3	-22.5486E-3
-577.789E-6	-2.18983E-12	139.108E-3	-13.1314E-3	-2.20940E-12	128.447E-3	-23.9988E-3
-582.791E-6	-2.21016E-12	143.305E-3	-15.6250E-3	-2.27506E-12	118.871E-3	-13.3447E-3
-587.794E-6	-2.26765E-12	138.882E-3	-19.3670E-3	-2.29050E-12	109.499E-3	-7.96491E-3
-592.796E-6	-2.40910E-12	133.077E-3	-20.4983E-3	-2.29538E-12	110.596E-3	-19.7475E-3
-597.799E-6	-2.43717E-12	134.244E-3	-7.33970E-3	-2.34537E-12	112.601E-3	-26.3841E-3
-602.801E-6	-2.37115E-12	142.187E-3	13.2931E-3	-2.35926E-12	126.578E-3	-17.2258E-3
-607.804E-6	-2.48370E-12	148.616E-3	12.8105E-3	-2.37850E-12	139.626E-3	-8.14913E-3
-612.806E-6	-2.56159E-12	149.787E-3	-8.34847E-3	-2.47765E-12	137.487E-3	-8.46806E-3
-617.809E-6	-2.61947E-12	149.210E-3	-17.9921E-3	-2.52723E-12	134.278E-3	-14.2020E-3
-622.811E-6	-2.53797E-12	149.485E-3	-5.62268E-3	-2.52513E-12	119.028E-3	-25.7155E-3
-627.814E-6	-2.70197E-12	150.144E-3	-7.82316E-3	-2.61993E-12	104.160E-3	-30.9537E-3
-632.816E-6	-2.84012E-12	143.541E-3	-20.9749E-3	-2.61634E-12	117.957E-3	-22.1959E-3
-637.819E-6	-2.76492E-12	139.052E-3	-12.7302E-3	-2.63373E-12	138.152E-3	-19.5475E-3
-642.821E-6	-2.77238E-12	153.010E-3	-1.08961E-3	-2.69443E-12	131.565E-3	-25.7671E-3
-647.824E-6	-2.82324E-12	165.433E-3	-4.72640E-3	-2.80996E-12	117.098E-3	-27.0855E-3
-652.826E-6	-2.99331E-12	155.804E-3	-15.7413E-3	-2.87641E-12	124.384E-3	-21.8502E-3
-657.829E-6	-3.00059E-12	145.071E-3	-26.9611E-3	-2.76130E-12	135.622E-3	-11.6138E-3
-662.831E-6	-2.97554E-12	144.057E-3	-29.9221E-3	-2.78161E-12	134.524E-3	-8.22870E-3
-667.834E-6	-3.02964E-12	137.858E-3	-26.0311E-3	-2.96179E-12	124.071E-3	-17.2558E-3
-672.836E-6	-3.21690E-12	134.887E-3	-31.7301E-3	-3.11773E-12	113.804E-3	-13.7314E-3
-677.839E-6	-3.14137E-12	135.842E-3	-38.5446E-3	-3.10727E-12	116.149E-3	-2.62276E-3
-682.841E-6	-3.11730E-12	125.402E-3	-29.0336E-3	-3.02393E-12	121.919E-3	-8.47970E-3
-687.844E-6	-3.19449E-12	112.980E-3	-22.1362E-3	-3.16978E-12	111.057E-3	-13.7443E-3
-692.846E-6	-3.21676E-12	114.829E-3	-23.6487E-3	-3.24072E-12	108.336E-3	-11.8705E-3
-697.849E-6	-3.31360E-12	128.451E-3	-16.2226E-3	-3.16531E-12	130.447E-3	-22.2198E-3
-702.851E-6	-3.34359E-12	139.703E-3	-9.09170E-3	-3.14879E-12	143.608E-3	-30.7721E-3
-707.854E-6	-3.31641E-12	140.852E-3	-13.6983E-3	-3.27669E-12	135.414E-3	-21.8422E-3
-712.856E-6	-3.33662E-12	131.966E-3	-15.0092E-3	-3.38106E-12	113.507E-3	-17.7967E-3
-717.859E-6	-3.52372E-12	118.659E-3	-9.13705E-3	-3.40756E-12	87.5188E-3	-24.2512E-3
-722.861E-6	-3.55224E-12	116.365E-3	-17.1021E-3	-3.20831E-12	93.0982E-3	-23.0613E-3
-727.864E-6	-3.52313E-12	123.834E-3	-25.3370E-3	-3.37827E-12	111.507E-3	-19.0207E-3
-732.866E-6	-3.37934E-12	116.597E-3	-17.4502E-3	-3.48775E-12	92.5753E-3	-21.7634E-3
-737.869E-6	-3.49285E-12	107.160E-3	-15.6138E-3	-3.69270E-12	80.0937E-3	-28.3792E-3
-742.871E-6	-3.72076E-12	113.192E-3	-12.2150E-3	-3.58842E-12	106.471E-3	-33.7763E-3
-747.874E-6	-3.69348E-12	115.453E-3	-7.27936E-3	-3.53793E-12	118.675E-3	-28.6467E-3
-752.876E-6	-3.54944E-12	121.229E-3	-19.2869E-3	-3.64220E-12	109.465E-3	-20.9114E-3
-757.879E-6	-3.56367E-12	130.246E-3	-29.3700E-3	-3.77843E-12	113.449E-3	-18.3883E-3
-762.881E-6	-3.94027E-12	123.896E-3	-22.6949E-3	-3.84598E-12	111.832E-3	-17.6984E-3
-767.884E-6	-3.89570E-12	112.968E-3	-14.1483E-3	-3.80632E-12	98.8407E-3	-16.5048E-3
-772.886E-6	-3.73696E-12	113.626E-3	-7.88341E-3	-3.77396E-12	95.9293E-3	-19.9389E-3
-777.889E-6	-3.69564E-12	116.431E-3	362.270E-6	-3.79312E-12	96.4639E-3	-30.3665E-3
-782.891E-6	-3.90694E-12	108.659E-3	733.189E-6	-4.05739E-12	92.7848E-3	-24.9890E-3
-787.894E-6	-4.11615E-12	107.895E-3	1.07424E-3	-4.01827E-12	95.4581E-3	-14.9433E-3
-792.896E-6	-3.90683E-12	107.222E-3	7.19755E-3	-3.92359E-12	97.6714E-3	-23.8916E-3
-797.899E-6	-3.73172E-12	101.467E-3	3.68269E-3	-3.98963E-12	96.5196E-3	-22.0315E-3
-802.901E-6	-3.94818E-12	110.891E-3	-5.20689E-3	-4.19784E-12	102.648E-3	-4.72069E-3
-807.904E-6	-4.03065E-12	117.747E-3	-12.8070E-3	-4.34352E-12	104.178E-3	-5.83348E-3
-812.906E-6	-4.03453E-12	107.376E-3	-20.3067E-3	-4.15299E-12	99.8597E-3	-6.74899E-3
-817.909E-6	-4.06779E-12	104.389E-3	-14.4587E-3	-4.16125E-12	97.5235E-3	12.8647E-3
-822.911E-6	-4.18469E-12	108.523E-3	-3.84184E-3	-4.25915E-12	95.1068E-3	15.2254E-3
-827.914E-6	-4.28622E-12	101.551E-3	-11.2627E-3	-4.36044E-12	93.6151E-3	-6.10142E-3
-832.916E-6	-4.22948E-12	89.7915E-3	-19.4260E-3	-4.22988E-12	97.6679E-3	-16.7040E-3
-837.919E-6	-4.21208E-12	77.5732E-3	-11.9275E-3	-4.15698E-12	101.493E-3	-11.1535E-3
-842.921E-6	-4.20956E-12	68.1082E-3	-6.76658E-3	-4.46105E-12	102.666E-3	-1.26565E-3
-847.924E-6	-4.24002E-12	71.3343E-3	-6.70149E-3	-4.57859E-12	105.381E-3	1.09309E-3
-852.926E-6	-4.21224E-12	88.3938E-3	-4.09132E-3	-4.34410E-12	100.554E-3	-14.4425E-3
-857.929E-6	-4.42203E-12	100.641E-3	-7.01658E-3	-4.27034E-12	96.5268E-3	-22.2639E-3
-862.931E-6	-4.64865E-12	95.6039E-3	-19.4458E-3	-4.50744E-12	97.7231E-3	-17.1084E-3
-867.934E-6	-4.42590E-12	85.0718E-3	-23.9443E-3	-4.69559E-12	92.6983E-3	-23.2197E-3
-872.936E-6	-4.44249E-12	82.3288E-3	-20.2817E-3	-4.40016E-12	86.5344E-3	-25.6284E-3
-877.939E-6	-4.63933E-12	87.8148E-3	-20.7915E-3	-4.44109E-12	82.5204E-3	-15.3662E-3
-882.941E-6	-4.76583E-12	90.3584E-3	-20.8628E-3	-4.77428E-12	88.4392E-3	-17.1550E-3
-887.944E-6	-4.69182E-12	83.8603E-3	-19.7516E-3	-5.00439E-12	102.629E-3	-23.1439E-3
-892.946E-6	-4.65215E-12	85.2580E-3	-19.5676E-3	-4.80354E-12	104.530E-3	-16.9086E-3
-897.949E-6	-4.95259E-12	90.4148E-3	-10.3181E-3	-4.61696E-12	97.2544E-3	-21.3048E-3
-902.951E-6	-4.97696E-12	81.2538E-3	-3.60921E-3	-5.24565E-12	97.1058E-3	-37.3263E-3
-907.954E-6	-4.91282E-12	83.8499E-3	-16.6380E-3	-5.19101E-12	109.832E-3	-35.7900E-3
-912.956E-6	-4.82822E-12	102.125E-3	-28.8324E-3	-5.10028E-12	117.094E-3	-23.8526E-3
-917.959E-6	-5.00678E-12	111.791E-3	-22.4283E-3	-4.96499E-12	100.606E-3	-23.3321E-3
-922.961E-6	-5.21522E-12	110.740E-3	-14.8769E-3	-5.06034E-12	91.3628E-3	-16.0496E-3
-927.964E-6	-5.13785E-12	106.044E-3	-22.0135E-3	-5.10343E-12	108.047E-3	-7.78867E-3
-932.966E-6	-5.09364E-12	102.296E-3	-37.0361E-3	-5.08842E-12	124.681E-3	-10.2962E-3
-937.969E-6	-5.16572E-12	103.327E-3	-48.5534E-3	-5.00960E-12	126.024E-3	-9.19284E-3
-942.971E-6	-5.20397E-12	111.017E-3	-39.2145E-3	-5.07969E-12	124.893E-3	-20.2171E-3
-947.974E-6	-5.10055E-12	108.518E-3	-13.0628E-3	-5.15714E-12	122.159E-3	-38.8790E-3
-952.976E-6	-5.19911E-12	101.568E-3	-4.46780E-3	-5.06500E-12	122.568E-3	-40.0370E-3
-957.979E-6	-5.34709E-12	106.202E-3	-13.1159E-3	-4.90161E-12	131.732E-3	-34.2709E-3
-962.981E-6	-5.34366E-12	108.537E-3	-11.6688E-3	-4.99876E-12	129.453E-3	-35.8390E-3
-967.984E-6	-5.32751E-12	110.615E-3	-12.1949E-3	-5.31124E-12	124.182E-3	-26.7076E-3
-972.986E-6	-5.49252E-12	122.200E-3	-14.7152E-3	-5.50226E-12	123.765E-3	-14.2516E-3
-977.989E-6	-5.46816E-12	134.018E-3	-9.18713E-3	-5.43488E-12	121.927E-3	-18.5376E-3
-982.991E-6	-5.30866E-12	130.438E-3	-9.15738E-3	-5.23922E-12	132.361E-3	-24.3643E-3
-987.994E-6	-5.46267E-12	116.547E-3	-11.7673E-3	-5.37076E-12	151.144E-3	-22.8018E-3
-992.997E-6	-5.90332E-12	118.332E-3	-14.3018E-3	-5.39543E-12	152.116E-3	-19.1276E-3
-997.999E-6	-5.94142E-12	133.978E-3	-22.8642E-3	-5.64565E-12	144.834E-3	-15.1266E-3
-1.00300E-3	-5.45103E-12	139.871E-3	-25.9228E-3	-5.59624E-12	150.894E-3	-14.4854E-3
-1.00800E-3	-5.65684E-12	139.832E-3	-12.9406E-3	-5.46848E-12	165.757E-3	-20.7816E-3
-1.01301E-3	-6.02057E-12	146.501E-3	-6.77002E-3	-5.51317E-12	172.890E-3	-18.8237E-3
-1.01801E-3	-6.00173E-12	149.742E-3	-10.7593E-3	-5.70914E-12	177.836E-3	-13.6057E-3
-1.02301E-3	-5.70172E-12	146.619E-3	-3.97899E-3	-5.72339E-12	179.669E-3	-25.8899E-3
-1.02801E-3	-5.97170E-12	147.103E-3	-4.14133E-3	-5.66284E-12	170.237E-3	-34.2946E-3
-1.03302E-3	-6.32478E-12	155.966E-3	-20.3858E-3	-5.79744E-12	172.150E-3	-21.9789E-3
-1.03802E-3	-6.27830E-12	170.355E-3	-27.6621E-3	-5.86382E-12	186.102E-3	-22.6382E-3
-1.04302E-3	-6.06832E-12	170.637E-3	-22.0015E-3	-5.91954E-12	195.868E-3	-34.6111E-3
-1.04802E-3	-5.96595E-12	172.369E-3	-15.6768E-3	-5.99910E-12	210.066E-3	-26.6975E-3
-1.05303E-3	-6.33054E-12	197.623E-3	-15.0953E-3	-5.96785E-12	228.525E-3	-15.2804E-3
-1.05803E-3	-6.40017E-12	218.180E-3	-21.1985E-3	-6.03879E-12	232.669E-3	-17.4887E-3
-1.06303E-3	-6.37449E-12	222.100E-3	-27.7633E-3	-6.22670E-12	237.072E-3	-20.9663E-3
-1.06803E-3	-6.26469E-12	227.781E-3	-26.5551E-3	-6.44697E-12	254.224E-3	-18.5206E-3
-1.07304E-3	-6.47635E-12	233.242E-3	-25.0839E-3	-6.51119E-12	266.189E-3	-15.7036E-3
-1.07804E-3	-6.70330E-12	235.980E-3	-27.4421E-3	-6.37674E-12	270.360E-3	-16.0479E-3
-1.08304E-3	-6.89684E-12	246.756E-3	-26.0890E-3	-6.47714E-12	283.734E-3	-16.5143E-3
-1.08804E-3	-6.85693E-12	259.614E-3	-27.8455E-3	-6.53093E-12	300.179E-3	-5.02834E-3
-1.09305E-3	-6.75536E-12	267.647E-3	-30.0934E-3	-6.68394E-12	310.421E-3	3.44492E-3
-1.09805E-3	-7.01611E-12	274.345E-3	-14.1429E-3	-6.88826E-12	316.764E-3	-4.21272E-3
-1.10305E-3	-7.10301E-12	276.980E-3	2.60288E-3	-6.98299E-12	321.475E-3	-1.41656E-3
-1.10805E-3	-7.29137E-12	278.050E-3	-7.56572E-3	-6.87193E-12	333.275E-3	5.77311E-3
-1.11306E-3	-7.25223E-12	289.933E-3	-24.4021E-3	-7.14525E-12	344.443E-3	-2.81808E-3
-1.11806E-3	-7.27666E-12	307.331E-3	-27.2286E-3	-7.38318E-12	356.227E-3	-13.1950E-3
-1.12306E-3	-7.59557E-12	320.800E-3	-22.3033E-3	-7.36856E-12	380.448E-3	-19.8215E-3
-1.12806E-3	-8.02478E-12	331.688E-3	-7.12052E-3	-7.45777E-12	393.034E-3	-26.5437E-3
-1.13307E-3	-7.85287E-12	343.625E-3	2.42764E-3	-7.60857E-12	387.836E-3	-26.7103E-3
-1.13807E-3	-7.74388E-12	363.496E-3	-9.68829E-3	-7.68529E-12	397.860E-3	-19.0396E-3
-1.14307E-3	-8.05021E-12	381.237E-3	-19.0552E-3	-7.78248E-12	420.133E-3	-9.70244E-3
-1.14807E-3	-8.20771E-12	384.575E-3	-16.4419E-3	-8.23107E-12	426.004E-3	-6.97988E-3
-1.15308E-3	-8.28760E-12	389.052E-3	-14.7177E-3	-8.38180E-12	434.159E-3	890.189E-6
-1.15808E-3	-8.15742E-12	405.703E-3	-14.7679E-3	-8.07788E-12	467.309E-3	14.5991E-3
-1.16308E-3	-8.43313E-12	417.815E-3	-22.8897E-3	-8.21084E-12	490.479E-3	2.52863E-3
-1.16808E-3	-8.86699E-12	419.747E-3	-28.7573E-3	-8.67979E-12	494.826E-3	-17.4565E-3
-1.17309E-3	-9.24610E-12	430.191E-3	-17.7598E-3	-9.11851E-12	519.178E-3	-13.4387E-3
-1.17809E-3	-9.32973E-12	445.442E-3	-8.09446E-3	-8.83575E-12	553.982E-3	-4.73398E-3
-1.18309E-3	-9.07363E-12	463.325E-3	-10.1535E-3	-8.75011E-12	569.875E-3	-9.38062E-3
-1.18809E-3	-9.42584E-12	486.472E-3	-13.6311E-3	-9.22242E-12	570.979E-3	-13.2198E-3
-1.19310E-3	-9.81366E-12	499.804E-3	-11.1694E-3	-9.68900E-12	573.902E-3	-9.14151E-3
-1.19810E-3	-10.3758E-12	508.100E-3	-2.86644E-3	-9.77565E-12	589.906E-3	-11.1293E-3
-1.20310E-3	-10.1417E-12	527.708E-3	4.26898E-3	-9.61195E-12	609.882E-3	-30.0736E-3
-1.20810E-3	-10.2215E-12	546.021E-3	1.27604E-3	-9.97418E-12	621.549E-3	-47.9152E-3
-1.21311E-3	-10.4048E-12	554.598E-3	-16.2521E-3	-10.2353E-12	632.140E-3	-39.2758E-3
-1.21811E-3	-10.8064E-12	571.602E-3	-17.6790E-3	-10.3896E-12	651.848E-3	-16.2830E-3
-1.22311E-3	-11.1223E-12	592.317E-3	981.629E-6	-10.4993E-12	666.417E-3	-5.44692E-3
-1.22811E-3	-10.9817E-12	617.226E-3	79.9298E-6	-10.7781E-12	675.796E-3	-9.95269E-3
-1.23312E-3	-11.1842E-12	645.173E-3	-13.4907E-3	-11.0973E-12	695.783E-3	-21.3052E-3
-1.23812E-3	-11.4677E-12	656.691E-3	-23.5852E-3	-11.1902E-12	715.967E-3	-29.0038E-3
-1.24312E-3	-12.0918E-12	653.268E-3	-23.5035E-3	-11.4019E-12	722.182E-3	-24.5568E-3
-1.24812E-3	-12.0519E-12	664.158E-3	-13.7698E-3	-11.6951E-12	732.668E-3	-20.6503E-3
-1.25313E-3	-11.9808E-12	691.761E-3	-14.3542E-3	-12.0086E-12	762.907E-3	-27.6252E-3
-1.25813E-3	-12.4471E-12	703.536E-3	-18.7866E-3	-12.1071E-12	780.473E-3	-31.7168E-3
-1.26313E-3	-12.9846E-12	706.877E-3	-16.4580E-3	-12.4679E-12	791.544E-3	-22.3768E-3
-1.26813E-3	-13.0996E-12	729.484E-3	-11.7059E-3	-12.9696E-12	814.182E-3	-14.8799E-3
-1.27314E-3	-13.0344E-12	757.337E-3	-2.19972E-3	-13.1907E-12	818.590E-3	-21.3071E-3
-1.27814E-3	-13.2282E-12	777.848E-3	2.79278E-3	-13.4129E-12	815.731E-3	-29.8137E-3
-1.28314E-3	-13.7368E-12	798.139E-3	-10.7175E-3	-13.6283E-12	833.520E-3	-27.2484E-3
-1.28814E-3	-14.3513E-12	806.310E-3	-32.6646E-3	-13.7136E-12	857.762E-3	-19.1661E-3
-1.29315E-3	-14.2631E-12	810.510E-3	-46.5303E-3	-14.0225E-12	877.831E-3	-16.8809E-3
-1.29815E-3	-14.2225E-12	826.488E-3	-48.3652E-3	-14.2445E-12	889.504E-3	-22.6222E-3
-1.30315E-3	-14.7025E-12	840.716E-3	-40.9991E-3	-14.6475E-12	893.642E-3	-21.0677E-3
-1.30815E-3	-15.2045E-12	845.217E-3	-27.9589E-3	-15.0236E-12	905.845E-3	-10.1089E-3
-1.31316E-3	-15.5998E-12	853.817E-3	-21.7831E-3	-15.2138E-12	928.273E-3	-8.74103E-3
-1.31816E-3	-15.6222E-12	880.375E-3	-20.1520E-3	-15.3108E-12	949.880E-3	-13.2815E-3
-1.32316E-3	-16.0462E-12	908.757E-3	-19.0004E-3	-15.8248E-12	963.687E-3	-11.7874E-3
-1.32816E-3	-16.5655E-12	928.057E-3	-18.6244E-3	-16.1767E-12	969.087E-3	-11.5366E-3
-1.33317E-3	-16.9271E-12	946.342E-3	-8.54315E-3	-16.7803E-12	972.386E-3	-24.1991E-3
-1.33817E-3	-17.1961E-12	960.624E-3	-5.44401E-3	-16.8046E-12	977.303E-3	-37.6512E-3
-1.34317E-3	-17.5962E-12	974.597E-3	-19.0628E-3	-17.2447E-12	992.046E-3	-31.4367E-3
-1.34817E-3	-17.8225E-12	980.082E-3	-23.3885E-3	-17.4391E-12	1.00685E+0	-19.7261E-3
-1.35318E-3	-17.8874E-12	986.375E-3	-21.2825E-3	-17.7328E-12	1.00271E+0	-13.2773E-3
-1.35818E-3	-18.2732E-12	1.00472E+0	-23.0697E-3	-18.1042E-12	1.00520E+0	-7.61706E-3
-1.36318E-3	-18.9743E-12	1.01453E+0	-24.7143E-3	-18.4131E-12	1.02650E+0	-8.59321E-3
-1.36818E-3	-19.1102E-12	1.02003E+0	-35.5305E-3	-18.5352E-12	1.04205E+0	-15.7679E-3
-1.37319E-3	-19.3292E-12	1.03296E+0	-34.7926E-3	-18.7639E-12	1.05250E+0	-21.8078E-3
-1.37819E-3	-19.4672E-12	1.04624E+0	-17.0248E-3	-19.3964E-12	1.05937E+0	-27.6411E-3
-1.38319E-3	-20.0754E-12	1.04474E+0	-17.5297E-3	-19.4696E-12	1.04953E+0	-29.9734E-3
-1.38819E-3	-20.2276E-12	1.04584E+0	-27.6303E-3	-19.6275E-12	1.05130E+0	-31.2476E-3
-1.39320E-3	-20.8504E-12	1.06139E+0	-20.3045E-3	-19.8450E-12	1.07008E+0	-29.7066E-3
-1.39820E-3	-20.8265E-12	1.07931E+0	-14.2008E-3	-20.4789E-12	1.06988E+0	-22.8867E-3
-1.40320E-3	-21.1483E-12	1.09973E+0	-22.0601E-3	-21.1227E-12	1.06730E+0	-18.1192E-3
-1.40820E-3	-21.4850E-12	1.10294E+0	-11.8416E-3	-21.1838E-12	1.09037E+0	-15.0226E-3
-1.41321E-3	-21.9173E-12	1.08461E+0	14.2771E-3	-21.6839E-12	1.11966E+0	-16.1931E-3
-1.41821E-3	-22.4320E-12	1.08088E+0	9.43467E-3	-22.5057E-12	1.12741E+0	-14.3612E-3
-1.42321E-3	-22.6754E-12	1.10504E+0	-11.1740E-3	-23.5369E-12	1.13270E+0	-16.9233E-3
-1.42821E-3	-23.0326E-12	1.12383E+0	-13.2004E-3	-23.5185E-12	1.15069E+0	-29.1593E-3
-1.43322E-3	-23.4613E-12	1.12292E+0	-15.3208E-3	-23.4884E-12	1.15893E+0	-42.4476E-3
-1.43822E-3	-24.1486E-12	1.11783E+0	-21.5167E-3	-23.9927E-12	1.14893E+0	-43.9633E-3
-1.44322E-3	-24.0490E-12	1.10481E+0	-23.1164E-3	-24.9508E-12	1.13269E+0	-26.4611E-3
-1.44822E-3	-24.3478E-12	1.09477E+0	-21.3313E-3	-25.4523E-12	1.13016E+0	-12.5149E-3
-1.45323E-3	-25.2396E-12	1.09945E+0	-15.2931E-3	-25.1840E-12	1.12938E+0	-11.4737E-3
-1.45823E-3	-26.1526E-12	1.10521E+0	-7.23498E-3	-25.1619E-12	1.11088E+0	-4.42839E-3
-1.46323E-3	-26.3413E-12	1.12211E+0	-5.13964E-3	-25.5402E-12	1.08671E+0	2.23050E-3
-1.46823E-3	-25.9786E-12	1.14720E+0	-3.97056E-3	-25.6609E-12	1.07701E+0	-6.54522E-3
-1.47324E-3	-26.3142E-12	1.15222E+0	3.28050E-3	-25.9125E-12	1.08654E+0	-12.6755E-3
-1.47824E-3	-27.2503E-12	1.14115E+0	-899.170E-6	-26.2278E-12	1.10720E+0	-10.4999E-3
-1.48324E-3	-27.3806E-12	1.13677E+0	-7.03932E-3	-26.4358E-12	1.11314E+0	-10.2466E-3
-1.48824E-3	-27.3892E-12	1.13792E+0	2.13984E-3	-26.9549E-12	1.10066E+0	-22.1218E-3
-1.49325E-3	-27.9142E-12	1.13653E+0	9.72864E-3	-27.6389E-12	1.10141E+0	-31.9271E-3
-1.49825E-3	-28.1435E-12	1.13890E+0	1.62417E-3	-27.7874E-12	1.12004E+0	-19.9985E-3
-1.50325E-3	-28.4662E-12	1.13515E+0	-11.3074E-3	-27.8920E-12	1.13276E+0	-7.79124E-3
-1.50825E-3	-28.9750E-12	1.12055E+0	-8.11252E-3	-28.3892E-12	1.12367E+0	-7.43558E-3
-1.51326E-3	-29.5342E-12	1.11491E+0	1.33331E-3	-29.2993E-12	1.12286E+0	-13.1239E-3
-1.51826E-3	-29.9956E-12	1.12430E+0	-1.12038E-3	-29.8574E-12	1.13539E+0	-19.2329E-3
-1.52326E-3	-30.1562E-12	1.13380E+0	-10.6389E-3	-29.9281E-12	1.14146E+0	-10.6972E-3
-1.52826E-3	-30.6633E-12	1.12698E+0	-14.3009E-3	-30.3526E-12	1.13657E+0	-1.83698E-3
-1.53327E-3	-31.0595E-12	1.11115E+0	-13.3929E-3	-31.6854E-12	1.11605E+0	-10.7060E-3
-1.53827E-3	-32.1179E-12	1.10299E+0	-14.0559E-3	-32.2845E-12	1.10504E+0	-11.2744E-3
-1.54327E-3	-32.0609E-12	1.11263E+0	-20.7835E-3	-31.8066E-12	1.10714E+0	-6.93853E-3
-1.54827E-3	-31.9591E-12	1.12841E+0	-32.2080E-3	-31.7683E-12	1.10249E+0	-11.3423E-3
-1.55328E-3	-32.5896E-12	1.12789E+0	-40.8470E-3	-32.4503E-12	1.08467E+0	-14.7382E-3
-1.55828E-3	-33.5188E-12	1.12230E+0	-37.6941E-3	-33.3730E-12	1.07001E+0	-8.10246E-3
-1.56328E-3	-33.6404E-12	1.12934E+0	-20.8873E-3	-33.4072E-12	1.07431E+0	7.91465E-3
-1.56828E-3	-33.4166E-12	1.12975E+0	-9.30187E-3	-32.8894E-12	1.07662E+0	4.13223E-3
-1.57329E-3	-34.0468E-12	1.11205E+0	-9.70137E-3	-33.2389E-12	1.06606E+0	-18.7416E-3
-1.57829E-3	-34.6335E-12	1.09571E+0	-8.91309E-3	-34.0709E-12	1.04867E+0	-26.0613E-3
-1.58329E-3	-35.3164E-12	1.09807E+0	-9.54290E-3	-34.4958E-12	1.03146E+0	-16.6851E-3
-1.58829E-3	-34.7209E-12	1.11228E+0	-23.4614E-3	-33.9405E-12	1.03891E+0	-11.5878E-3
-1.59330E-3	-35.2277E-12	1.10780E+0	-27.9579E-3	-34.1719E-12	1.04936E+0	-10.5343E-3
-1.59830E-3	-35.6096E-12	1.07111E+0	-13.3459E-3	-34.8451E-12	1.03328E+0	-2.45336E-3
-1.60330E-3	-36.3841E-12	1.05235E+0	-9.17339E-3	-36.0054E-12	1.02600E+0	9.94849E-3
-1.60830E-3	-36.1975E-12	1.06600E+0	-17.6479E-3	-35.9614E-12	1.02821E+0	5.37072E-3
-1.61331E-3	-36.0562E-12	1.05249E+0	-25.5883E-3	-36.1375E-12	1.02601E+0	-13.0035E-3
-1.61831E-3	-36.7337E-12	1.02250E+0	-34.9101E-3	-36.9490E-12	1.02769E+0	-16.6885E-3
-1.62331E-3	-38.0010E-12	1.02153E+0	-31.0020E-3	-37.6874E-12	1.03100E+0	-6.67218E-3
-1.62831E-3	-38.7058E-12	1.03775E+0	-10.8249E-3	-37.7177E-12	1.03827E+0	-1.34358E-3
-1.63332E-3	-37.9690E-12	1.04931E+0	-5.96711E-3	-38.1482E-12	1.03966E+0	-3.46769E-3
-1.63832E-3	-38.6878E-12	1.04851E+0	-23.0579E-3	-38.4782E-12	1.02373E+0	-8.18717E-3
-1.64332E-3	-39.7776E-12	1.03177E+0	-27.2805E-3	-39.3282E-12	1.00543E+0	-8.56867E-3
-1.64832E-3	-40.3944E-12	1.02307E+0	-14.5042E-3	-39.3958E-12	999.396E-3	-2.13497E-3
-1.65333E-3	-40.4216E-12	1.03607E+0	-15.2587E-3	-39.6831E-12	1.00042E+0	4.11986E-3
-1.65833E-3	-39.8283E-12	1.05143E+0	-20.9165E-3	-39.5297E-12	993.846E-3	-5.10346E-3
-1.66333E-3	-40.4594E-12	1.04909E+0	-22.1987E-3	-39.9952E-12	984.474E-3	-31.6777E-3
-1.66833E-3	-41.1051E-12	1.02986E+0	-21.9604E-3	-40.7025E-12	985.906E-3	-41.6756E-3
-1.67334E-3	-41.6979E-12	1.01139E+0	-6.58259E-3	-41.3315E-12	977.364E-3	-33.6289E-3
-1.67834E-3	-41.1664E-12	1.00264E+0	43.9625E-6	-40.6752E-12	958.098E-3	-25.1474E-3
-1.68334E-3	-41.4390E-12	1.00874E+0	-15.8729E-3	-40.8138E-12	955.348E-3	-24.4163E-3
-1.68834E-3	-42.0060E-12	1.01192E+0	-20.4594E-3	-42.0711E-12	958.476E-3	-30.0953E-3
-1.69335E-3	-42.1575E-12	1.00232E+0	-4.51486E-3	-42.3964E-12	950.236E-3	-25.8926E-3
-1.69835E-3	-42.6086E-12	993.038E-3	-1.15842E-3	-42.1186E-12	937.763E-3	-19.4780E-3
-1.70335E-3	-42.2344E-12	985.060E-3	-22.2099E-3	-42.1559E-12	923.504E-3	-17.9644E-3
-1.70835E-3	-43.1894E-12	970.120E-3	-30.9606E-3	-43.1418E-12	910.496E-3	-16.5887E-3
-1.71336E-3	-43.0620E-12	953.013E-3	-12.9041E-3	-43.7520E-12	914.788E-3	-21.0560E-3
-1.71836E-3	-43.3850E-12	945.459E-3	-2.11026E-3	-43.2557E-12	919.696E-3	-29.3873E-3
-1.72336E-3	-43.1032E-12	939.824E-3	-10.2650E-3	-43.5083E-12	912.695E-3	-29.9406E-3
-1.72836E-3	-43.7839E-12	929.785E-3	-21.3288E-3	-43.6632E-12	918.896E-3	-30.9572E-3
-1.73337E-3	-43.7941E-12	911.726E-3	-19.8327E-3	-44.4901E-12	924.382E-3	-37.0696E-3
-1.73837E-3	-44.1405E-12	893.120E-3	-8.78231E-3	-44.9359E-12	909.141E-3	-34.1153E-3
-1.74337E-3	-45.0087E-12	892.959E-3	-7.00662E-3	-45.3741E-12	898.953E-3	-20.8873E-3
-1.74837E-3	-45.4700E-12	905.604E-3	-14.5231E-3	-45.0563E-12	913.905E-3	-17.6311E-3
-1.75338E-3	-46.0536E-12	919.304E-3	-17.4260E-3	-45.4557E-12	926.602E-3	-25.6964E-3
-1.75838E-3	-45.6793E-12	930.700E-3	-10.2469E-3	-46.1563E-12	917.972E-3	-14.1496E-3
-1.76338E-3	-46.5707E-12	931.346E-3	-6.71102E-3	-46.8575E-12	905.737E-3	-5.93039E-3
-1.76838E-3	-47.5745E-12	925.413E-3	-13.4047E-3	-47.0670E-12	891.482E-3	-16.1137E-3
-1.77339E-3	-47.3801E-12	923.716E-3	-15.9935E-3	-46.9710E-12	885.862E-3	-9.55494E-3
-1.77839E-3	-47.6218E-12	912.015E-3	-18.3442E-3	-47.3491E-12	891.257E-3	-10.0840E-3
-1.78339E-3	-47.3044E-12	899.294E-3	-21.7301E-3	-47.8179E-12	886.320E-3	-18.5707E-3
-1.78839E-3	-48.5460E-12	898.338E-3	-13.2156E-3	-48.1482E-12	880.575E-3	-8.39258E-3
-1.79340E-3	-48.6793E-12	898.883E-3	-11.8729E-3	-47.7890E-12	885.661E-3	-5.60466E-3
-1.79840E-3	-49.5870E-12	897.007E-3	-22.2159E-3	-47.8712E-12	888.599E-3	-9.51549E-3
-1.80340E-3	-48.9073E-12	886.211E-3	-21.9781E-3	-48.3245E-12	888.418E-3	-882.150E-6
-1.80840E-3	-48.7799E-12	874.327E-3	-22.7872E-3	-49.2543E-12	884.845E-3	608.241E-6
-1.81341E-3	-49.2889E-12	874.363E-3	-19.1397E-3	-49.6087E-12	865.956E-3	-11.6988E-3
-1.81841E-3	-49.7957E-12	878.315E-3	-11.4801E-3	-49.2350E-12	855.423E-3	-14.4504E-3
-1.82341E-3	-50.0432E-12	880.411E-3	-12.3466E-3	-49.4688E-12	862.913E-3	-8.24773E-3
-1.82841E-3	-49.4703E-12	886.766E-3	-13.8147E-3	-49.9594E-12	857.993E-3	-14.7169E-3
-1.83342E-3	-50.2035E-12	881.088E-3	-22.9713E-3	-50.8159E-12	855.087E-3	-27.3349E-3
-1.83842E-3	-50.5792E-12	868.297E-3	-18.4987E-3	-51.2854E-12	870.705E-3	-31.5195E-3
-1.84342E-3	-51.4450E-12	865.574E-3	-6.24039E-3	-51.6529E-12	877.555E-3	-38.8036E-3
-1.84842E-3	-51.1871E-12	864.937E-3	-20.3031E-3	-51.7976E-12	879.875E-3	-38.7557E-3
-1.85343E-3	-51.2587E-12	861.528E-3	-28.1292E-3	-52.3021E-12	882.504E-3	-18.9555E-3
-1.85843E-3	-52.2611E-12	848.497E-3	-24.4718E-3	-53.6415E-12	863.525E-3	-14.9176E-3
-1.86343E-3	-53.5891E-12	836.255E-3	-37.4073E-3	-54.5235E-12	841.305E-3	-12.4860E-3
-1.86843E-3	-53.3642E-12	836.902E-3	-28.2265E-3	-53.9533E-12	847.812E-3	-2.55157E-3
-1.87344E-3	-53.0634E-12	842.194E-3	-5.09009E-3	-53.0356E-12	862.073E-3	-10.6717E-3
-1.87844E-3	-53.7435E-12	840.044E-3	-13.6367E-3	-54.0165E-12	847.647E-3	-16.6324E-3
-1.88344E-3	-54.7757E-12	824.992E-3	-30.9315E-3	-55.1127E-12	822.872E-3	-11.5855E-3
-1.88844E-3	-54.4798E-12	822.342E-3	-27.9107E-3	-54.7457E-12	810.070E-3	-13.6650E-3
-1.89345E-3	-53.6492E-12	833.983E-3	-13.8790E-3	-53.3413E-12	806.516E-3	-16.8660E-3
-1.89845E-3	-53.8421E-12	840.198E-3	-8.27234E-3	-53.6718E-12	809.633E-3	-8.33063E-3
-1.90345E-3	-54.0819E-12	840.297E-3	-6.96393E-3	-55.5452E-12	817.921E-3	-16.2804E-3
-1.90845E-3	-54.2046E-12	830.914E-3	-6.15579E-3	-54.8691E-12	824.633E-3	-35.0229E-3
-1.91346E-3	-54.2188E-12	828.244E-3	-5.25418E-3	-53.7967E-12	810.208E-3	-29.6830E-3
-1.91846E-3	-54.6493E-12	829.783E-3	6.61525E-3	-54.5766E-12	786.939E-3	-15.5661E-3
-1.92346E-3	-55.9294E-12	813.417E-3	11.7955E-3	-55.5806E-12	782.026E-3	-25.5244E-3
-1.92846E-3	-55.8674E-12	797.969E-3	4.83845E-3	-55.3179E-12	793.260E-3	-31.1173E-3
-1.93347E-3	-56.0552E-12	785.815E-3	2.74338E-3	-54.6252E-12	808.343E-3	-15.1412E-3
-1.93847E-3	-55.9485E-12	783.692E-3	-10.1644E-3	-55.7849E-12	818.786E-3	-6.45118E-3
-1.94347E-3	-56.9699E-12	812.069E-3	-30.1966E-3	-57.4134E-12	826.271E-3	-1.17524E-3
-1.94847E-3	-57.8654E-12	824.868E-3	-34.6259E-3	-58.4075E-12	837.094E-3	-2.14447E-3
-1.95348E-3	-57.6212E-12	813.020E-3	-28.8683E-3	-57.3982E-12	840.217E-3	-12.9450E-3
-1.95848E-3	-58.2208E-12	813.114E-3	-22.1931E-3	-57.4156E-12	822.884E-3	-17.4562E-3
-1.96348E-3	-58.3140E-12	806.965E-3	-15.2719E-3	-58.7657E-12	800.833E-3	-12.5877E-3
-1.96848E-3	-59.3514E-12	785.836E-3	-4.93715E-3	-60.0540E-12	791.126E-3	-15.0289E-3
-1.97349E-3	-58.9681E-12	781.464E-3	1.01549E-3	-58.9941E-12	790.534E-3	-22.6181E-3
-1.97849E-3	-58.5435E-12	798.535E-3	-20.0474E-3	-58.3911E-12	788.875E-3	-20.0945E-3
-1.98349E-3	-58.2148E-12	790.458E-3	-52.3855E-3	-59.1649E-12	778.781E-3	-16.9470E-3
-1.98849E-3	-58.8748E-12	765.069E-3	-56.7151E-3	-59.8135E-12	762.635E-3	-28.1375E-3
-1.99350E-3	-59.4912E-12	768.428E-3	-39.8825E-3	-59.5555E-12	751.851E-3	-38.6707E-3
-1.99850E-3	-58.8799E-12	776.124E-3	-26.7217E-3	-58.9396E-12	761.361E-3	-22.2123E-3
-2.00350E-3	-58.5725E-12	774.214E-3	-19.1269E-3	-59.0571E-12	784.702E-3	-2.51700E-3
-2.00850E-3	-59.4537E-12	775.616E-3	-13.4007E-3	-59.3293E-12	790.072E-3	-14.7041E-3
-2.01351E-3	-60.3090E-12	770.038E-3	-17.3337E-3	-59.8835E-12	774.586E-3	-27.9428E-3
-2.01851E-3	-60.6271E-12	762.986E-3	-32.2217E-3	-60.4123E-12	766.547E-3	-27.8586E-3
-2.02351E-3	-59.8051E-12	775.501E-3	-26.6272E-3	-60.0384E-12	774.097E-3	-36.7123E-3
-2.02851E-3	-60.4803E-12	778.518E-3	-11.7927E-3	-60.5103E-12	782.716E-3	-38.3545E-3
-2.03352E-3	-60.7249E-12	778.129E-3	-20.9503E-3	-60.7737E-12	781.496E-3	-34.7693E-3
-2.03852E-3	-61.2915E-12	794.746E-3	-32.7771E-3	-62.2600E-12	772.884E-3	-45.6065E-3
-2.04352E-3	-61.6335E-12	781.784E-3	-31.2049E-3	-62.5363E-12	772.303E-3	-49.9261E-3
-2.04852E-3	-60.8709E-12	751.994E-3	-32.1465E-3	-62.4631E-12	780.610E-3	-31.3480E-3
-2.05353E-3	-61.2502E-12	750.494E-3	-35.3802E-3	-62.7864E-12	772.734E-3	-20.2423E-3
-2.05853E-3	-61.9940E-12	745.370E-3	-30.9951E-3	-64.5375E-12	753.469E-3	-20.7256E-3
-2.06353E-3	-61.9826E-12	739.130E-3	-35.2375E-3	-64.2714E-12	750.728E-3	-7.70136E-3
-2.06853E-3	-62.1792E-12	762.577E-3	-34.3750E-3	-63.6664E-12	760.857E-3	-134.967E-6
-2.07354E-3	-62.1109E-12	768.028E-3	-13.9329E-3	-64.1760E-12	765.773E-3	1.29175E-3
-2.07854E-3	-62.9690E-12	753.082E-3	-14.0302E-3	-64.1620E-12	759.414E-3	10.6819E-3
-2.08354E-3	-63.5007E-12	755.758E-3	-28.0583E-3	-65.2606E-12	755.670E-3	9.05893E-3
-2.08854E-3	-63.6389E-12	753.238E-3	-19.0618E-3	-64.8751E-12	752.881E-3	2.13698E-3
-2.09355E-3	-64.0345E-12	738.956E-3	-11.5337E-3	-65.7286E-12	746.311E-3	10.9252E-3
-2.09855E-3	-64.1043E-12	745.014E-3	-8.76107E-3	-65.5721E-12	758.204E-3	10.3284E-3
-2.10355E-3	-64.5868E-12	765.359E-3	1.86952E-3	-65.7162E-12	763.117E-3	-7.86760E-3
-2.10855E-3	-64.6836E-12	766.561E-3	-15.2362E-3	-65.8308E-12	743.601E-3	-9.53585E-3
-2.11356E-3	-65.6840E-12	755.045E-3	-43.9793E-3	-66.6662E-12	739.386E-3	-4.79001E-3
-2.11856E-3	-65.0181E-12	742.963E-3	-37.4327E-3	-66.6116E-12	739.281E-3	-17.1413E-3
-2.12356E-3	-65.6933E-12	726.486E-3	-27.1041E-3	-65.7389E-12	730.280E-3	-14.3061E-3
-2.12856E-3	-65.4358E-12	726.557E-3	-31.6147E-3	-66.8989E-12	735.710E-3	-268.450E-6
-2.13357E-3	-65.6554E-12	746.325E-3	-34.7428E-3	-67.0748E-12	739.357E-3	-6.33500E-3
-2.13857E-3	-66.1472E-12	749.819E-3	-39.6717E-3	-68.3951E-12	733.989E-3	-7.65494E-3
-2.14357E-3	-65.9260E-12	730.954E-3	-32.2119E-3	-66.7663E-12	739.028E-3	-6.07818E-3
-2.14857E-3	-66.2684E-12	714.944E-3	-12.6211E-3	-67.2813E-12	743.332E-3	-22.7525E-3
-2.15358E-3	-66.0951E-12	717.944E-3	-2.73431E-3	-68.2986E-12	728.651E-3	-36.7390E-3
-2.15858E-3	-66.4243E-12	728.362E-3	-11.7000E-3	-69.2638E-12	726.724E-3	-37.1274E-3
-2.16358E-3	-66.4352E-12	728.455E-3	-24.0997E-3	-68.8704E-12	741.855E-3	-42.7597E-3
-2.16858E-3	-67.6206E-12	705.048E-3	-14.2960E-3	-67.7874E-12	741.314E-3	-46.4496E-3
-2.17359E-3	-68.0722E-12	696.026E-3	4.47361E-3	-69.6090E-12	733.420E-3	-27.6090E-3
-2.17859E-3	-68.0873E-12	721.437E-3	3.48997E-3	-70.7137E-12	738.024E-3	-6.05972E-3
-2.18359E-3	-68.1675E-12	728.680E-3	-4.69871E-3	-70.7226E-12	749.977E-3	7.15656E-3
-2.18859E-3	-69.4757E-12	728.763E-3	-12.2196E-3	-69.0542E-12	752.270E-3	20.2553E-3
-2.19360E-3	-69.8526E-12	744.059E-3	-11.8669E-3	-70.2908E-12	738.907E-3	12.4918E-3
-2.19860E-3	-70.2927E-12	749.834E-3	-11.3919E-3	-70.9693E-12	717.494E-3	-16.3370E-3
-2.20360E-3	-70.5213E-12	740.201E-3	-35.7745E-3	-70.6873E-12	722.272E-3	-23.2539E-3
-2.20860E-3	-71.1497E-12	729.489E-3	-46.7935E-3	-71.0322E-12	741.569E-3	-14.6133E-3
-2.21361E-3	-71.7656E-12	723.295E-3	-19.7115E-3	-71.0857E-12	731.269E-3	-18.3309E-3
-2.21861E-3	-71.3106E-12	731.845E-3	13.1599E-3	-72.0505E-12	717.524E-3	-16.9472E-3
-2.22361E-3	-71.1567E-12	746.525E-3	17.4392E-3	-71.1604E-12	732.572E-3	-6.71847E-3
-2.22861E-3	-70.8891E-12	750.193E-3	-5.21433E-3	-72.8347E-12	736.757E-3	-9.63773E-3
-2.23362E-3	-72.0358E-12	733.520E-3	-23.6567E-3	-72.6828E-12	719.731E-3	-19.6832E-3
-2.23862E-3	-72.0512E-12	699.668E-3	-31.3058E-3	-73.1027E-12	724.722E-3	-29.5863E-3
-2.24362E-3	-71.0293E-12	702.038E-3	-30.5479E-3	-71.3212E-12	742.294E-3	-49.5097E-3
-2.24862E-3	-70.4757E-12	723.637E-3	-25.4425E-3	-72.7937E-12	732.148E-3	-43.4519E-3
-2.25363E-3	-71.1549E-12	715.576E-3	-24.9740E-3	-73.9462E-12	705.355E-3	2.53929E-3
-2.25863E-3	-72.6278E-12	707.032E-3	-11.3880E-3	-73.7135E-12	703.171E-3	14.1676E-3
-2.26363E-3	-72.8387E-12	717.456E-3	2.33473E-3	-72.9860E-12	705.678E-3	-14.7732E-3
-2.26863E-3	-72.1545E-12	721.546E-3	-10.2629E-3	-72.1897E-12	712.890E-3	-12.6098E-3
-2.27364E-3	-72.0723E-12	705.425E-3	-16.2867E-3	-74.3710E-12	737.327E-3	-3.22215E-3
-2.27864E-3	-74.1308E-12	699.050E-3	319.511E-6	-74.4251E-12	741.030E-3	-12.1079E-3
-2.28364E-3	-74.6868E-12	726.043E-3	3.93416E-3	-75.0729E-12	731.869E-3	-10.4143E-3
-2.28864E-3	-73.9770E-12	742.852E-3	-7.56336E-3	-73.6093E-12	741.329E-3	-11.6894E-3
-2.29365E-3	-73.7008E-12	718.478E-3	-8.16531E-3	-76.2071E-12	743.643E-3	-17.8260E-3
-2.29865E-3	-74.4206E-12	701.901E-3	-10.7726E-3	-76.9115E-12	723.041E-3	-16.3745E-3
-2.30365E-3	-76.0081E-12	714.547E-3	-25.3155E-3	-76.3775E-12	712.456E-3	-16.0036E-3
-2.30865E-3	-75.7745E-12	720.349E-3	-28.0339E-3	-76.1063E-12	701.779E-3	-15.2741E-3
-2.31366E-3	-75.5409E-12	702.838E-3	-20.5180E-3	-75.8241E-12	686.907E-3	-16.4669E-3
-2.31866E-3	-74.8807E-12	693.270E-3	-20.4944E-3	-77.4885E-12	698.711E-3	-18.4937E-3
-2.32366E-3	-75.8034E-12	694.389E-3	-18.0588E-3	-76.8948E-12	708.794E-3	-28.4127E-3
-2.32866E-3	-75.3793E-12	685.544E-3	-26.0624E-3	-76.7911E-12	694.060E-3	-29.5816E-3
-2.33367E-3	-74.4442E-12	688.907E-3	-37.6430E-3	-75.5111E-12	685.609E-3	-18.8540E-3
-2.33867E-3	-74.4676E-12	695.560E-3	-26.4329E-3	-76.2619E-12	685.319E-3	-38.4412E-3
-2.34367E-3	-75.5403E-12	672.704E-3	-25.6663E-3	-77.3869E-12	679.956E-3	-47.5671E-3
-2.34867E-3	-75.9386E-12	664.628E-3	-30.1806E-3	-76.9547E-12	687.318E-3	-24.2895E-3
-2.35368E-3	-75.4512E-12	697.438E-3	-7.35632E-3	-76.1532E-12	700.564E-3	-14.6790E-3
-2.35868E-3	-75.5114E-12	711.019E-3	8.75611E-3	-76.1421E-12	694.588E-3	-9.88970E-3
-2.36368E-3	-75.1824E-12	703.305E-3	-1.26725E-3	-76.9316E-12	686.154E-3	-1.77182E-3
-2.36868E-3	-75.8908E-12	702.062E-3	-5.76087E-3	-76.4999E-12	686.664E-3	-5.89723E-3
-2.37369E-3	-76.7183E-12	694.993E-3	-7.49417E-3	-76.8446E-12	671.344E-3	-6.52886E-3
-2.37869E-3	-77.8374E-12	690.183E-3	-10.6406E-3	-76.9270E-12	663.380E-3	-711.425E-6
-2.38369E-3	-77.6863E-12	683.808E-3	-4.26556E-3	-77.9418E-12	690.239E-3	-3.50138E-3
-2.38869E-3	-77.4057E-12	673.348E-3	-2.09002E-3	-79.1628E-12	720.615E-3	-1.19884E-3
-2.39370E-3	-78.7697E-12	672.590E-3	-19.7345E-3	-79.3501E-12	731.694E-3	5.88645E-3
-2.39870E-3	-79.8189E-12	671.486E-3	-33.1241E-3	-79.7459E-12	731.084E-3	-11.9492E-3
-2.40370E-3	-80.3205E-12	683.742E-3	-21.8819E-3	-80.2295E-12	722.842E-3	-46.3240E-3
-2.40870E-3	-79.6283E-12	711.717E-3	-9.88300E-3	-81.0536E-12	704.496E-3	-58.8751E-3
-2.41371E-3	-79.4535E-12	705.473E-3	2.38692E-3	-81.4777E-12	698.135E-3	-51.9927E-3
-2.41871E-3	-79.9654E-12	682.173E-3	269.994E-6	-81.6303E-12	691.749E-3	-36.5298E-3
-2.42371E-3	-81.1556E-12	697.506E-3	-6.47071E-3	-80.0541E-12	682.617E-3	-15.7653E-3
-2.42871E-3	-80.7247E-12	720.284E-3	1.42878E-3	-80.9960E-12	686.280E-3	-12.3520E-3
-2.43372E-3	-79.2665E-12	721.651E-3	-3.31592E-3	-81.7263E-12	670.573E-3	-21.6083E-3
-2.43872E-3	-80.0985E-12	724.254E-3	-20.3878E-3	-82.4103E-12	663.469E-3	-25.5125E-3
-2.44372E-3	-80.7369E-12	707.825E-3	-28.7243E-3	-80.4652E-12	672.445E-3	-31.0653E-3
-2.44872E-3	-81.4543E-12	685.537E-3	-31.7407E-3	-79.8363E-12	663.016E-3	-26.9649E-3
-2.45373E-3	-80.8546E-12	696.501E-3	-29.6678E-3	-80.8619E-12	664.742E-3	-13.4640E-3
-2.45873E-3	-81.0818E-12	696.549E-3	-24.4142E-3	-81.5081E-12	683.513E-3	-13.2598E-3
-2.46373E-3	-82.1099E-12	670.594E-3	-32.8202E-3	-81.1318E-12	700.326E-3	-10.9538E-3
-2.46873E-3	-81.3844E-12	660.114E-3	-30.3883E-3	-81.0547E-12	700.123E-3	-717.511E-6
-2.47374E-3	-81.5688E-12	664.120E-3	-18.0705E-3	-82.9273E-12	678.860E-3	-8.96947E-3
-2.47874E-3	-81.3718E-12	655.546E-3	-21.9076E-3	-84.2845E-12	670.087E-3	-25.3126E-3
-2.48374E-3	-81.7602E-12	643.467E-3	-30.4091E-3	-84.4509E-12	690.966E-3	-19.4146E-3
-2.48874E-3	-81.8673E-12	645.276E-3	-24.6242E-3	-82.8655E-12	718.572E-3	-7.05240E-3
-2.49375E-3	-82.7533E-12	650.774E-3	-13.0717E-3	-83.3465E-12	712.309E-3	-25.7352E-3
-2.49875E-3	-83.5505E-12	651.885E-3	-26.3676E-3	-85.2940E-12	673.703E-3	-34.7939E-3
-2.50375E-3	-82.7881E-12	655.827E-3	-40.6784E-3	-86.7651E-12	658.557E-3	-23.8178E-3
-2.50875E-3	-82.8972E-12	659.695E-3	-27.5561E-3	-84.7790E-12	678.288E-3	-29.7429E-3
-2.51376E-3	-84.0206E-12	654.398E-3	-13.1907E-3	-83.6172E-12	680.038E-3	-12.2501E-3
-2.51876E-3	-85.5453E-12	652.977E-3	-773.682E-6	-85.4904E-12	665.584E-3	19.6416E-3
-2.52376E-3	-85.4906E-12	663.071E-3	5.80777E-3	-85.6481E-12	670.911E-3	9.28516E-3
-2.52876E-3	-85.4819E-12	667.557E-3	-8.51694E-3	-85.4558E-12	683.391E-3	-12.3178E-3
-2.53377E-3	-86.0955E-12	667.766E-3	-22.6647E-3	-83.8388E-12	694.841E-3	-13.5040E-3
-2.53877E-3	-86.7150E-12	682.778E-3	-17.9917E-3	-84.3288E-12	691.701E-3	-14.6892E-3
-2.54377E-3	-86.4656E-12	680.753E-3	-4.11595E-3	-85.8888E-12	678.513E-3	-13.5987E-3
-2.54877E-3	-86.5750E-12	659.568E-3	-307.452E-6	-86.8155E-12	682.113E-3	-13.7418E-3
-2.55378E-3	-87.8567E-12	659.252E-3	-2.73606E-3	-85.6795E-12	673.447E-3	-25.8844E-3
-2.55878E-3	-87.5449E-12	668.943E-3	-3.36705E-3	-85.7314E-12	660.637E-3	-25.1017E-3
-2.56378E-3	-87.1063E-12	678.379E-3	-5.31487E-3	-87.2422E-12	677.739E-3	-13.1813E-3
-2.56878E-3	-86.7904E-12	691.579E-3	1.47393E-3	-87.9376E-12	681.931E-3	-17.7221E-3
-2.57379E-3	-86.8084E-12	687.923E-3	-3.83940E-3	-87.5272E-12	666.230E-3	-19.0360E-3
-2.57879E-3	-85.9046E-12	669.622E-3	-25.9596E-3	-86.9265E-12	671.785E-3	-8.73651E-3
-2.58379E-3	-86.9977E-12	665.807E-3	-24.7398E-3	-87.3266E-12	685.524E-3	-4.75938E-3
-2.58879E-3	-87.5765E-12	660.949E-3	-15.9799E-3	-88.8306E-12	681.773E-3	6.72358E-3
-2.59380E-3	-86.6627E-12	642.444E-3	-25.9762E-3	-89.9754E-12	680.306E-3	22.1324E-3
-2.59880E-3	-87.6922E-12	640.040E-3	-21.4608E-3	-88.0891E-12	698.524E-3	21.3877E-3
-2.60380E-3	-87.4211E-12	647.189E-3	-6.55160E-3	-88.6268E-12	703.939E-3	-1.12651E-3
-2.60880E-3	-89.4051E-12	644.147E-3	-9.09316E-3	-90.4947E-12	693.326E-3	-27.4612E-3
-2.61381E-3	-89.0792E-12	647.501E-3	-18.6468E-3	-91.5721E-12	694.200E-3	-23.5677E-3
-2.61881E-3	-89.6230E-12	654.417E-3	-15.0278E-3	-89.5461E-12	685.640E-3	-7.75160E-3
-2.62381E-3	-89.5301E-12	654.640E-3	4.16896E-3	-89.1021E-12	662.743E-3	-8.48105E-3
-2.62881E-3	-89.9265E-12	662.354E-3	11.9474E-3	-90.4438E-12	664.314E-3	-21.6000E-3
-2.63382E-3	-91.3033E-12	675.619E-3	5.87397E-3	-90.8917E-12	677.901E-3	-21.4512E-3
-2.63882E-3	-90.5292E-12	688.747E-3	-10.9799E-3	-90.9290E-12	672.403E-3	5.28026E-3
-2.64382E-3	-90.4784E-12	704.294E-3	-36.9732E-3	-91.2674E-12	682.225E-3	8.99472E-3
-2.64882E-3	-89.7272E-12	705.883E-3	-40.5145E-3	-91.2718E-12	683.743E-3	1.42398E-3
-2.65383E-3	-90.3939E-12	697.006E-3	-22.7608E-3	-91.9076E-12	656.707E-3	9.79894E-3
-2.65883E-3	-89.5081E-12	680.737E-3	-23.2139E-3	-94.0907E-12	650.320E-3	-5.25433E-3
-2.66383E-3	-89.8672E-12	660.058E-3	-40.1116E-3	-93.0134E-12	655.659E-3	-21.7226E-3
-2.66883E-3	-89.3070E-12	654.333E-3	-41.7455E-3	-92.3418E-12	663.272E-3	-16.3236E-3
-2.67384E-3	-89.7202E-12	643.300E-3	-35.6313E-3	-92.3014E-12	666.670E-3	-20.0094E-3
-2.67884E-3	-90.4820E-12	626.683E-3	-32.0918E-3	-92.5510E-12	667.203E-3	-28.6936E-3
-2.68384E-3	-90.1034E-12	633.076E-3	-23.5105E-3	-93.8174E-12	676.600E-3	-24.3679E-3
-2.68884E-3	-89.6641E-12	650.134E-3	-26.3131E-3	-92.7936E-12	669.622E-3	-16.0855E-3
-2.69385E-3	-89.1905E-12	654.824E-3	-33.9622E-3	-92.9431E-12	647.267E-3	-5.83176E-3
-2.69885E-3	-90.7481E-12	645.120E-3	-23.0128E-3	-92.9922E-12	648.383E-3	9.76412E-3
-2.70385E-3	-91.8541E-12	637.965E-3	-17.8973E-3	-93.9673E-12	664.463E-3	6.51889E-3
-2.70885E-3	-92.6876E-12	647.820E-3	-33.5286E-3	-93.1164E-12	668.725E-3	-18.9376E-3
-2.71386E-3	-91.7315E-12	656.061E-3	-32.4869E-3	-93.8044E-12	678.326E-3	-20.5551E-3
-2.71886E-3	-91.7568E-12	659.191E-3	-29.1126E-3	-94.9519E-12	687.216E-3	-2.97415E-3
-2.72386E-3	-94.8230E-12	664.812E-3	-34.0296E-3	-96.0508E-12	680.479E-3	-14.4402E-3
-2.72886E-3	-95.1763E-12	666.914E-3	-7.30324E-3	-96.3520E-12	667.552E-3	-30.1973E-3
-2.73387E-3	-95.2210E-12	665.340E-3	14.3226E-3	-96.8328E-12	662.076E-3	-34.2789E-3
-2.73887E-3	-93.1647E-12	655.157E-3	1.53849E-3	-98.5875E-12	674.714E-3	-39.9612E-3
-2.74387E-3	-94.3400E-12	648.963E-3	-12.6735E-3	-97.2253E-12	689.164E-3	-19.4878E-3
-2.74887E-3	-95.1546E-12	646.630E-3	-17.9608E-3	-96.8484E-12	679.787E-3	1.78415E-3
-2.75388E-3	-95.1440E-12	643.199E-3	-16.6467E-3	-98.8339E-12	660.433E-3	-17.0217E-3
-2.75888E-3	-93.2888E-12	654.142E-3	-14.6860E-3	-99.3396E-12	657.140E-3	-35.1252E-3
-2.76388E-3	-93.9318E-12	652.289E-3	-8.69223E-3	-98.0268E-12	663.595E-3	-32.5270E-3
-2.76888E-3	-95.6821E-12	634.225E-3	363.116E-6	-95.9924E-12	666.527E-3	-18.1595E-3
-2.77389E-3	-95.5291E-12	640.368E-3	-180.219E-6	-97.5633E-12	668.851E-3	-7.66228E-3
-2.77889E-3	-94.5973E-12	652.508E-3	-19.1971E-3	-97.4135E-12	679.320E-3	-11.9479E-3
-2.78389E-3	-94.3696E-12	643.671E-3	-38.5576E-3	-97.5758E-12	682.042E-3	-6.74503E-3
-2.78889E-3	-95.5351E-12	623.160E-3	-41.9524E-3	-95.7358E-12	660.298E-3	6.08917E-3
-2.79390E-3	-97.4446E-12	616.044E-3	-44.2423E-3	-98.1663E-12	641.937E-3	15.2856E-3
-2.79890E-3	-97.0986E-12	646.667E-3	-45.3580E-3	-98.8424E-12	651.987E-3	12.5895E-3
-2.80390E-3	-95.8553E-12	679.106E-3	-33.9863E-3	-98.8892E-12	663.075E-3	-1.71175E-3
-2.80890E-3	-97.4930E-12	678.276E-3	-14.2285E-3	-98.3105E-12	662.567E-3	-1.93379E-3
-2.81391E-3	-98.2461E-12	660.120E-3	-2.73408E-3	-99.5451E-12	676.005E-3	-1.43372E-3
-2.81891E-3	-98.4234E-12	646.390E-3	-2.71052E-3	-102.457E-12	682.130E-3	-15.5542E-3
-2.82391E-3	-99.0193E-12	658.230E-3	1.06888E-3	-104.589E-12	667.715E-3	-17.9521E-3
-2.82891E-3	-101.060E-12	669.773E-3	1.16664E-3	-102.907E-12	660.501E-3	-24.7490E-3
-2.83392E-3	-101.756E-12	658.950E-3	-16.1283E-3	-100.595E-12	663.337E-3	-32.5649E-3
-2.83892E-3	-100.222E-12	652.575E-3	-15.1038E-3	-102.187E-12	672.722E-3	-23.7059E-3
-2.84392E-3	-100.265E-12	655.000E-3	-79.8427E-6	-104.227E-12	685.492E-3	-25.1696E-3
-2.84892E-3	-100.604E-12	669.170E-3	-23.5276E-3	-102.549E-12	683.456E-3	-23.9802E-3
-2.85393E-3	-102.233E-12	693.609E-3	-43.2658E-3	-98.9873E-12	677.151E-3	-14.2315E-3
-2.85893E-3	-101.694E-12	685.884E-3	-22.7666E-3	-99.7543E-12	675.937E-3	-16.1465E-3
-2.86393E-3	-100.773E-12	661.324E-3	-18.9754E-3	-101.352E-12	665.179E-3	-10.5441E-3
-2.86893E-3	-99.7798E-12	666.918E-3	-36.7196E-3	-100.818E-12	661.542E-3	3.86545E-3
-2.87394E-3	-100.394E-12	664.171E-3	-30.6384E-3	-98.3839E-12	658.480E-3	5.33845E-3
-2.87894E-3	-102.630E-12	627.309E-3	-31.0504E-3	-97.8747E-12	639.604E-3	-4.21338E-3
-2.88394E-3	-101.588E-12	624.127E-3	-41.7890E-3	-100.881E-12	631.747E-3	-22.6622E-3
-2.88894E-3	-100.165E-12	657.429E-3	-22.2789E-3	-101.964E-12	645.148E-3	-43.8327E-3
-2.89395E-3	-99.6011E-12	664.051E-3	-3.64349E-3	-100.950E-12	634.236E-3	-44.4483E-3
-2.89895E-3	-101.614E-12	661.787E-3	-8.98588E-3	-99.8235E-12	599.118E-3	-33.3566E-3
-2.90395E-3	-102.059E-12	648.978E-3	-13.2727E-3	-102.392E-12	608.098E-3	-35.5415E-3
-2.90895E-3	-100.995E-12	627.187E-3	-15.3410E-3	-104.262E-12	652.565E-3	-47.5445E-3
-2.91396E-3	-101.631E-12	631.364E-3	-23.9993E-3	-103.260E-12	682.888E-3	-36.0715E-3
-2.91896E-3	-102.337E-12	637.252E-3	-9.98886E-3	-103.721E-12	668.200E-3	-15.4423E-3
-2.92396E-3	-102.968E-12	621.667E-3	9.24388E-3	-104.226E-12	630.683E-3	-23.8397E-3
-2.92896E-3	-102.261E-12	618.425E-3	-15.4632E-3	-106.024E-12	629.400E-3	-21.2581E-3
-2.93397E-3	-102.194E-12	644.095E-3	-27.7553E-3	-105.483E-12	639.455E-3	-1.30352E-3
-2.93897E-3	-102.448E-12	658.783E-3	-5.94459E-3	-104.768E-12	630.341E-3	14.9206E-3
-2.94397E-3	-102.962E-12	656.207E-3	-15.5114E-3	-104.758E-12	634.742E-3	28.1226E-3
-2.94897E-3	-103.752E-12	666.742E-3	-24.0777E-3	-104.700E-12	650.308E-3	15.9004E-3
-2.95398E-3	-102.946E-12	668.291E-3	-3.28859E-3	-103.641E-12	640.055E-3	-8.88318E-3
-2.95898E-3	-102.680E-12	650.502E-3	-14.5289E-3	-104.502E-12	620.923E-3	-35.8341E-3
-2.96398E-3	-103.013E-12	646.270E-3	-25.7611E-3	-104.844E-12	622.388E-3	-57.5038E-3
-2.96898E-3	-103.415E-12	648.726E-3	-280.351E-6	-104.495E-12	632.746E-3	-54.5487E-3
-2.97399E-3	-103.188E-12	657.741E-3	-6.83097E-3	-103.524E-12	632.489E-3	-40.0112E-3
-2.97899E-3	-103.557E-12	685.740E-3	-18.1119E-3	-103.213E-12	624.997E-3	-21.9780E-3
-2.98399E-3	-104.253E-12	686.311E-3	-5.11636E-3	-104.910E-12	628.153E-3	-23.9590E-3
-2.98899E-3	-104.738E-12	653.487E-3	-14.9619E-3	-104.777E-12	637.744E-3	-24.8416E-3
-2.99400E-3	-104.015E-12	644.982E-3	-23.3068E-3	-104.519E-12	644.373E-3	-6.39289E-3
-2.99900E-3	-104.624E-12	644.048E-3	-7.89807E-3	-105.459E-12	648.738E-3	-8.90423E-3
-3.00400E-3	-103.639E-12	627.764E-3	-3.00748E-3	-106.834E-12	642.080E-3	-23.4945E-3
-3.00900E-3	-104.164E-12	620.705E-3	-10.0143E-3	-107.730E-12	642.722E-3	-18.4804E-3
-3.01401E-3	-105.076E-12	639.243E-3	4.00985E-3	-108.073E-12	652.963E-3	-19.2313E-3
-3.01901E-3	-106.174E-12	657.825E-3	13.5876E-3	-108.525E-12	657.730E-3	-24.4738E-3
-3.02401E-3	-105.684E-12	654.485E-3	-17.8892E-3	-109.947E-12	659.927E-3	-7.64802E-3
-3.02901E-3	-106.335E-12	648.496E-3	-34.8360E-3	-110.063E-12	651.195E-3	-3.95721E-3
-3.03402E-3	-108.231E-12	636.346E-3	-18.9929E-3	-109.353E-12	641.503E-3	-11.9049E-3
-3.03902E-3	-109.590E-12	628.137E-3	-33.0816E-3	-108.409E-12	650.272E-3	-11.0049E-3
-3.04402E-3	-109.928E-12	641.868E-3	-49.6847E-3	-108.327E-12	657.697E-3	-6.41234E-3
-3.04902E-3	-108.616E-12	658.365E-3	-28.3981E-3	-109.252E-12	645.524E-3	-7.55994E-3
-3.05403E-3	-110.113E-12	658.761E-3	-8.29307E-3	-108.687E-12	626.264E-3	-28.6914E-3
-3.05903E-3	-113.143E-12	656.055E-3	384.845E-6	-109.130E-12	602.247E-3	-34.2881E-3
-3.06403E-3	-112.574E-12	657.060E-3	6.29849E-3	-107.404E-12	601.540E-3	-6.34282E-3
-3.06903E-3	-111.468E-12	649.869E-3	-3.26484E-3	-108.784E-12	621.774E-3	3.73709E-3
-3.07404E-3	-110.704E-12	662.632E-3	-20.7673E-3	-110.127E-12	642.805E-3	-3.62313E-3
-3.07904E-3	-112.614E-12	669.775E-3	-19.2950E-3	-110.806E-12	664.155E-3	-9.46661E-3
-3.08404E-3	-112.253E-12	649.452E-3	7.29907E-3	-109.822E-12	655.763E-3	-29.9183E-3
-3.08904E-3	-110.997E-12	642.745E-3	28.3986E-3	-109.569E-12	641.218E-3	-39.4570E-3
-3.09405E-3	-111.311E-12	644.764E-3	5.72595E-3	-110.966E-12	663.483E-3	-36.6319E-3
-3.09905E-3	-110.661E-12	649.043E-3	-29.3275E-3	-111.596E-12	679.565E-3	-5.35530E-3
-3.10405E-3	-110.123E-12	651.873E-3	-38.5047E-3	-111.839E-12	674.527E-3	43.3788E-3
-3.10905E-3	-108.600E-12	639.728E-3	-38.3221E-3	-111.624E-12	661.586E-3	23.0703E-3
-3.11406E-3	-110.880E-12	615.138E-3	-30.2905E-3	-113.347E-12	632.078E-3	-12.5383E-3
-3.11906E-3	-110.764E-12	594.945E-3	-14.7823E-3	-113.088E-12	626.078E-3	-12.9301E-3
-3.12406E-3	-110.089E-12	604.898E-3	-1.96900E-3	-112.714E-12	630.931E-3	-18.6962E-3
-3.12906E-3	-111.119E-12	625.464E-3	-12.1895E-3	-112.179E-12	634.008E-3	-16.0581E-3
-3.13407E-3	-111.550E-12	631.729E-3	-40.4644E-3	-112.652E-12	665.080E-3	-11.9686E-3
-3.13907E-3	-112.542E-12	628.454E-3	-35.3194E-3	-113.879E-12	676.763E-3	-18.6605E-3
-3.14407E-3	-112.128E-12	622.839E-3	2.65339E-3	-113.955E-12	668.546E-3	-28.4122E-3
-3.14907E-3	-113.049E-12	644.102E-3	20.7815E-3	-113.646E-12	669.425E-3	-34.0562E-3
-3.15408E-3	-112.919E-12	655.109E-3	19.0552E-3	-112.775E-12	652.471E-3	-25.5930E-3
-3.15908E-3	-114.681E-12	619.812E-3	8.91372E-3	-113.985E-12	633.950E-3	-28.3717E-3
-3.16408E-3	-114.922E-12	611.237E-3	-5.73641E-3	-114.442E-12	635.551E-3	-33.7540E-3
-3.16908E-3	-112.055E-12	637.762E-3	-2.52955E-3	-114.549E-12	654.884E-3	-16.5568E-3
-3.17409E-3	-112.611E-12	641.839E-3	-6.62294E-3	-114.840E-12	658.944E-3	-11.1477E-3
-3.17909E-3	-112.621E-12	640.889E-3	-23.5172E-3	-115.212E-12	643.053E-3	-29.6368E-3
-3.18409E-3	-113.838E-12	639.735E-3	-20.0574E-3	-114.328E-12	643.258E-3	-52.5156E-3
-3.18909E-3	-112.236E-12	624.903E-3	-23.4458E-3	-115.176E-12	632.535E-3	-51.6563E-3
-3.19410E-3	-112.309E-12	634.754E-3	-38.3210E-3	-116.001E-12	622.958E-3	-28.8465E-3
-3.19910E-3	-111.165E-12	658.028E-3	-20.0748E-3	-112.921E-12	646.245E-3	-16.7473E-3
-3.20410E-3	-112.643E-12	650.103E-3	-15.0048E-3	-113.648E-12	634.601E-3	-2.82974E-3
-3.20910E-3	-113.256E-12	632.616E-3	-37.5157E-3	-115.657E-12	604.587E-3	8.76143E-3
-3.21411E-3	-112.615E-12	626.401E-3	-29.7603E-3	-115.536E-12	621.864E-3	-4.85420E-3
-3.21911E-3	-113.333E-12	611.290E-3	-2.55663E-3	-113.545E-12	642.358E-3	-17.2143E-3
-3.22411E-3	-114.811E-12	596.042E-3	2.63268E-3	-113.259E-12	652.719E-3	8.19722E-3
-3.22911E-3	-115.517E-12	609.794E-3	-9.61323E-3	-115.832E-12	652.771E-3	28.1307E-3
-3.23412E-3	-114.771E-12	636.469E-3	1.72790E-3	-117.237E-12	641.706E-3	10.6069E-3
-3.23912E-3	-116.392E-12	635.811E-3	6.59156E-3	-117.163E-12	651.602E-3	-23.2666E-3
-3.24412E-3	-117.686E-12	623.779E-3	-9.94880E-3	-114.617E-12	670.728E-3	-50.6205E-3
-3.24912E-3	-117.499E-12	622.354E-3	-888.855E-6	-117.447E-12	666.875E-3	-45.1989E-3
-3.25413E-3	-117.013E-12	621.354E-3	3.16491E-3	-121.661E-12	661.722E-3	-26.4502E-3
-3.25913E-3	-117.610E-12	619.507E-3	-2.45067E-3	-122.361E-12	670.725E-3	-1.54501E-3
-3.26413E-3	-119.667E-12	611.071E-3	5.40269E-3	-120.059E-12	669.910E-3	22.6668E-3
-3.26913E-3	-120.829E-12	610.043E-3	-3.78783E-3	-119.791E-12	649.142E-3	23.4431E-3
-3.27414E-3	-120.446E-12	634.840E-3	-2.86791E-3	-123.659E-12	620.195E-3	7.25571E-3
-3.27914E-3	-118.439E-12	656.217E-3	13.5574E-3	-124.408E-12	608.241E-3	-1.15670E-3
-3.28414E-3	-119.185E-12	632.177E-3	-479.248E-6	-120.333E-12	619.334E-3	2.11519E-3
-3.28914E-3	-120.400E-12	600.597E-3	-17.4475E-3	-118.574E-12	639.872E-3	1.12807E-3
-3.29415E-3	-121.629E-12	619.834E-3	-9.07655E-3	-121.274E-12	638.971E-3	-23.8746E-3
-3.29915E-3	-120.766E-12	654.638E-3	-1.82387E-3	-122.593E-12	627.918E-3	-41.9319E-3
-3.30415E-3	-118.869E-12	660.342E-3	-16.4302E-3	-118.921E-12	635.040E-3	-21.9496E-3
-3.30915E-3	-118.401E-12	650.024E-3	-34.4961E-3	-117.595E-12	643.399E-3	-11.8081E-3
-3.31416E-3	-120.398E-12	634.640E-3	-21.1133E-3	-118.856E-12	658.825E-3	-15.1312E-3
-3.31916E-3	-122.121E-12	628.752E-3	-2.93515E-3	-122.240E-12	666.076E-3	-10.9761E-3
-3.32416E-3	-119.963E-12	638.394E-3	-13.0682E-3	-120.764E-12	641.500E-3	-14.5529E-3
-3.32916E-3	-118.090E-12	639.644E-3	-38.8803E-3	-118.943E-12	625.199E-3	-15.6187E-3
-3.33417E-3	-118.348E-12	628.276E-3	-52.8815E-3	-119.845E-12	629.247E-3	-12.8677E-3
-3.33917E-3	-121.415E-12	612.217E-3	-36.6308E-3	-121.989E-12	639.661E-3	-18.6348E-3
-3.34417E-3	-123.317E-12	616.687E-3	-10.4023E-3	-123.519E-12	670.002E-3	-12.2921E-3
-3.34917E-3	-120.721E-12	636.479E-3	7.07682E-3	-124.079E-12	684.878E-3	-8.09365E-3
-3.35418E-3	-119.864E-12	636.343E-3	2.69676E-3	-123.145E-12	651.261E-3	-21.3136E-3
-3.35918E-3	-121.517E-12	623.379E-3	-17.5915E-3	-123.263E-12	629.959E-3	-35.1094E-3
-3.36418E-3	-125.090E-12	620.766E-3	-20.0310E-3	-125.093E-12	644.647E-3	-38.9442E-3
-3.36918E-3	-125.325E-12	639.833E-3	-21.9070E-3	-124.207E-12	650.627E-3	-40.2336E-3
-3.37419E-3	-123.551E-12	651.421E-3	-18.8438E-3	-123.587E-12	629.329E-3	-55.4999E-3
-3.37919E-3	-121.136E-12	637.164E-3	3.42385E-3	-123.661E-12	601.603E-3	-50.8509E-3
-3.38419E-3	-125.608E-12	632.671E-3	14.6103E-3	-124.571E-12	611.286E-3	-14.1563E-3
-3.38919E-3	-127.540E-12	639.461E-3	15.2529E-3	-123.750E-12	631.152E-3	-449.131E-6
-3.39420E-3	-126.428E-12	656.347E-3	5.51233E-3	-121.289E-12	628.038E-3	-2.81723E-3
-3.39920E-3	-124.583E-12	679.895E-3	-4.61686E-3	-121.941E-12	639.646E-3	-3.38415E-3
-3.40420E-3	-124.527E-12	680.845E-3	-16.4353E-3	-122.285E-12	646.525E-3	-9.86911E-3
-3.40920E-3	-126.229E-12	682.587E-3	-29.3068E-3	-122.963E-12	635.883E-3	2.07973E-3
-3.41421E-3	-127.561E-12	671.616E-3	-8.45168E-3	-122.567E-12	618.946E-3	-3.77571E-3
-3.41921E-3	-125.501E-12	632.371E-3	14.6858E-3	-123.631E-12	594.186E-3	-19.5445E-3
-3.42421E-3	-124.206E-12	617.425E-3	-5.96420E-3	-124.416E-12	608.316E-3	2.98017E-3
-3.42921E-3	-125.023E-12	620.845E-3	-34.1851E-3	-124.886E-12	648.717E-3	25.2917E-3
-3.43422E-3	-124.865E-12	614.759E-3	-46.5783E-3	-125.629E-12	657.873E-3	7.27342E-3
-3.43922E-3	-125.108E-12	620.050E-3	-45.0155E-3	-126.741E-12	656.099E-3	-29.4090E-3
-3.44422E-3	-123.962E-12	635.153E-3	-13.2631E-3	-127.395E-12	648.467E-3	-48.4963E-3
-3.44922E-3	-126.599E-12	637.496E-3	22.2032E-3	-127.057E-12	625.921E-3	-38.5665E-3
-3.45423E-3	-127.772E-12	639.511E-3	21.7397E-3	-129.021E-12	626.905E-3	-10.6341E-3
-3.45923E-3	-128.160E-12	655.987E-3	-11.2901E-3	-128.945E-12	642.036E-3	6.82808E-3
-3.46423E-3	-126.630E-12	669.781E-3	-41.9722E-3	-128.337E-12	648.653E-3	4.21858E-3
-3.46923E-3	-126.645E-12	664.304E-3	-55.2409E-3	-128.125E-12	648.979E-3	-8.89297E-3
-3.47424E-3	-129.827E-12	659.306E-3	-66.0807E-3	-129.456E-12	649.967E-3	-23.0053E-3
-3.47924E-3	-130.963E-12	668.072E-3	-62.9340E-3	-129.876E-12	646.002E-3	-23.1420E-3
-3.48424E-3	-128.797E-12	660.730E-3	-46.1550E-3	-127.138E-12	642.970E-3	-15.5759E-3
-3.48924E-3	-125.942E-12	639.209E-3	-48.0255E-3	-128.009E-12	645.749E-3	-19.9489E-3
-3.49425E-3	-127.845E-12	640.503E-3	-38.2652E-3	-128.789E-12	640.452E-3	-34.2580E-3
-3.49925E-3	-129.316E-12	648.505E-3	-22.2719E-3	-129.740E-12	637.824E-3	-24.6505E-3
-3.50425E-3	-127.127E-12	649.751E-3	-27.1498E-3	-127.406E-12	644.921E-3	4.76436E-3
-3.50925E-3	-126.562E-12	653.486E-3	-10.7268E-3	-128.010E-12	644.172E-3	23.0514E-3
-3.51426E-3	-127.374E-12	649.943E-3	1.28480E-3	-127.548E-12	633.211E-3	21.1511E-3
-3.51926E-3	-129.878E-12	649.607E-3	-21.5891E-3	-129.435E-12	627.973E-3	-1.94673E-3
-3.52426E-3	-126.962E-12	635.067E-3	-32.7208E-3	-128.650E-12	633.924E-3	-22.1929E-3
-3.52926E-3	-125.757E-12	600.398E-3	-20.4236E-3	-127.423E-12	654.726E-3	-32.4995E-3
-3.53427E-3	-125.683E-12	590.777E-3	2.11811E-3	-127.402E-12	652.105E-3	-46.6721E-3
-3.53927E-3	-128.319E-12	596.467E-3	8.25167E-3	-127.340E-12	628.233E-3	-60.1514E-3
-3.54427E-3	-128.858E-12	602.518E-3	-16.4421E-3	-129.122E-12	628.239E-3	-55.4094E-3
-3.54927E-3	-126.545E-12	638.274E-3	-40.1243E-3	-129.340E-12	633.765E-3	-39.5228E-3
-3.55428E-3	-126.389E-12	650.604E-3	-32.7131E-3	-129.166E-12	631.151E-3	-18.2027E-3
-3.55928E-3	-129.327E-12	622.060E-3	-5.37776E-3	-129.026E-12	633.819E-3	-1.32174E-3
-3.56428E-3	-131.072E-12	618.555E-3	-10.7093E-3	-131.404E-12	634.834E-3	-7.61154E-3
-3.56928E-3	-128.565E-12	634.427E-3	-17.1591E-3	-131.040E-12	631.354E-3	-34.8920E-3
-3.57429E-3	-128.083E-12	617.269E-3	-1.09994E-3	-130.879E-12	638.625E-3	-51.3302E-3
-3.57929E-3	-130.279E-12	575.339E-3	-11.6978E-3	-132.180E-12	652.139E-3	-41.2185E-3
-3.58429E-3	-134.498E-12	587.992E-3	-31.7769E-3	-132.036E-12	651.817E-3	-38.5855E-3
-3.58929E-3	-133.228E-12	634.525E-3	-38.2279E-3	-132.299E-12	637.699E-3	-40.2421E-3
-3.59430E-3	-129.599E-12	652.704E-3	-34.7129E-3	-131.739E-12	650.095E-3	-34.2796E-3
-3.59930E-3	-129.071E-12	657.455E-3	-3.46880E-3	-132.265E-12	676.578E-3	-36.8330E-3
-3.60430E-3	-133.177E-12	634.050E-3	24.3997E-3	-132.272E-12	665.606E-3	-39.3037E-3
-3.60930E-3	-134.939E-12	607.256E-3	-386.047E-6	-132.763E-12	645.840E-3	-14.5799E-3
-3.61431E-3	-130.577E-12	623.581E-3	-40.6073E-3	-133.611E-12	659.949E-3	856.332E-6
-3.61931E-3	-129.138E-12	629.816E-3	-37.1527E-3	-132.619E-12	662.842E-3	-23.0852E-3
-3.62431E-3	-130.898E-12	593.573E-3	-25.3934E-3	-132.009E-12	641.164E-3	-24.7200E-3
-3.62931E-3	-133.824E-12	583.001E-3	-29.9034E-3	-132.277E-12	642.792E-3	-16.2799E-3
-3.63432E-3	-132.999E-12	621.313E-3	-4.03613E-3	-131.945E-12	641.434E-3	-18.7432E-3
-3.63932E-3	-130.198E-12	639.962E-3	3.87189E-3	-131.299E-12	621.782E-3	-3.97925E-3
-3.64432E-3	-129.474E-12	633.285E-3	-35.0111E-3	-130.709E-12	618.685E-3	-7.70711E-3
-3.64932E-3	-132.412E-12	629.897E-3	-39.0221E-3	-131.474E-12	614.468E-3	-20.6395E-3
-3.65433E-3	-133.629E-12	607.642E-3	-38.4322E-3	-133.197E-12	594.614E-3	-5.18399E-3
-3.65933E-3	-132.080E-12	594.287E-3	-73.7382E-3	-134.294E-12	583.956E-3	10.5110E-3
-3.66433E-3	-131.503E-12	603.099E-3	-63.0421E-3	-133.221E-12	590.175E-3	-23.8925E-3
-3.66933E-3	-133.681E-12	592.527E-3	-22.1169E-3	-135.414E-12	613.123E-3	-62.2421E-3
-3.67434E-3	-137.310E-12	582.780E-3	-25.8589E-3	-136.883E-12	630.682E-3	-40.6089E-3
-3.67934E-3	-134.306E-12	627.813E-3	-40.4202E-3	-138.179E-12	628.879E-3	-8.40929E-3
-3.68434E-3	-132.887E-12	670.865E-3	-15.0335E-3	-137.412E-12	623.951E-3	365.216E-6
-3.68934E-3	-133.265E-12	653.588E-3	13.5491E-3	-138.763E-12	624.576E-3	8.15147E-3
-3.69435E-3	-137.290E-12	636.150E-3	-3.56183E-3	-138.851E-12	636.986E-3	1.16621E-3
-3.69935E-3	-135.887E-12	630.196E-3	-38.2138E-3	-139.110E-12	657.806E-3	-21.9337E-3
-3.70435E-3	-134.713E-12	622.572E-3	-65.8296E-3	-140.138E-12	667.305E-3	-24.2553E-3
-3.70935E-3	-135.086E-12	617.469E-3	-64.7317E-3	-139.490E-12	656.514E-3	-35.1575E-3
-3.71436E-3	-136.994E-12	598.143E-3	-23.0358E-3	-139.383E-12	631.342E-3	-48.8492E-3
-3.71936E-3	-137.085E-12	592.627E-3	-316.852E-6	-136.134E-12	603.872E-3	-41.9549E-3
-3.72436E-3	-134.889E-12	620.893E-3	-8.17961E-3	-135.772E-12	588.927E-3	-35.3355E-3
-3.72936E-3	-136.094E-12	637.118E-3	-10.4009E-3	-135.734E-12	597.269E-3	-15.5697E-3
-3.73437E-3	-137.617E-12	611.947E-3	-5.84470E-3	-135.941E-12	610.194E-3	5.65780E-3
-3.73937E-3	-137.551E-12	597.241E-3	-7.55246E-3	-134.752E-12	610.202E-3	-5.52252E-3
-3.74437E-3	-135.839E-12	608.631E-3	-36.8299E-3	-134.438E-12	596.648E-3	-28.2151E-3
-3.74937E-3	-137.016E-12	617.993E-3	-67.5304E-3	-134.778E-12	596.135E-3	-43.8360E-3
-3.75438E-3	-138.172E-12	638.186E-3	-45.4626E-3	-135.398E-12	611.482E-3	-48.5498E-3
-3.75938E-3	-138.086E-12	641.567E-3	-2.92280E-3	-137.584E-12	603.282E-3	-16.8064E-3
-3.76438E-3	-138.319E-12	631.703E-3	11.4273E-3	-137.386E-12	612.740E-3	29.1979E-3
-3.76938E-3	-136.040E-12	633.925E-3	-1.13173E-3	-136.238E-12	654.441E-3	28.6958E-3
-3.77439E-3	-137.913E-12	632.076E-3	-24.7427E-3	-137.568E-12	653.188E-3	-1.23032E-3
-3.77939E-3	-137.521E-12	623.483E-3	-53.7340E-3	-142.303E-12	633.331E-3	7.37824E-3
-3.78439E-3	-137.902E-12	611.637E-3	-74.8372E-3	-144.051E-12	649.093E-3	21.4351E-3
-3.78939E-3	-136.576E-12	596.404E-3	-50.5474E-3	-141.640E-12	656.203E-3	13.4755E-3
-3.79440E-3	-137.616E-12	568.470E-3	-6.57235E-3	-142.036E-12	650.372E-3	20.9998E-3
-3.79940E-3	-138.855E-12	551.356E-3	19.3414E-3	-141.378E-12	667.799E-3	5.79187E-3
-3.80440E-3	-139.737E-12	561.037E-3	16.0045E-3	-144.405E-12	672.313E-3	-36.5219E-3
-3.80940E-3	-139.377E-12	588.485E-3	-10.2657E-3	-142.275E-12	652.767E-3	-42.3927E-3
-3.81441E-3	-138.914E-12	624.747E-3	-16.0104E-3	-139.401E-12	631.312E-3	-27.8092E-3
-3.81941E-3	-140.683E-12	627.747E-3	-2.56854E-3	-137.614E-12	604.047E-3	-23.9027E-3
-3.82441E-3	-141.490E-12	617.078E-3	288.181E-6	-141.764E-12	608.895E-3	-6.29068E-3
-3.82941E-3	-139.320E-12	642.327E-3	-2.04957E-3	-141.235E-12	650.847E-3	-8.79287E-3
-3.83442E-3	-139.914E-12	644.044E-3	-8.58506E-3	-138.684E-12	667.560E-3	-27.6010E-3
-3.83942E-3	-140.739E-12	614.810E-3	-51.9054E-3	-137.922E-12	631.756E-3	2.82621E-3
-3.84442E-3	-141.571E-12	627.038E-3	-73.6230E-3	-142.048E-12	592.346E-3	32.0960E-3
-3.84942E-3	-141.800E-12	647.481E-3	-44.2049E-3	-147.252E-12	587.450E-3	25.2874E-3
-3.85443E-3	-140.900E-12	645.994E-3	-31.1616E-3	-142.592E-12	601.349E-3	22.7000E-3
-3.85943E-3	-141.606E-12	638.228E-3	-33.8170E-3	-139.420E-12	626.598E-3	8.70842E-3
-3.86443E-3	-142.012E-12	627.571E-3	-32.9398E-3	-141.114E-12	651.099E-3	-22.8632E-3
-3.86943E-3	-141.266E-12	635.291E-3	-17.4590E-3	-149.368E-12	639.815E-3	-46.6485E-3
-3.87444E-3	-142.939E-12	649.680E-3	804.871E-6	-147.760E-12	625.295E-3	-59.2583E-3
-3.87944E-3	-142.008E-12	628.777E-3	4.15536E-3	-142.885E-12	642.898E-3	-62.6623E-3
-3.88444E-3	-142.861E-12	597.706E-3	-933.602E-6	-142.894E-12	633.180E-3	-52.4816E-3
-3.88944E-3	-141.937E-12	599.540E-3	-10.1996E-3	-148.546E-12	613.533E-3	-19.9865E-3
-3.89445E-3	-141.937E-12	620.140E-3	-7.74356E-3	-151.530E-12	621.289E-3	-15.5707E-3
-3.89945E-3	-141.999E-12	629.729E-3	7.16035E-3	-146.425E-12	614.650E-3	-28.6053E-3
-3.90445E-3	-144.558E-12	627.398E-3	5.00434E-3	-145.395E-12	598.252E-3	-4.00897E-3
-3.90945E-3	-144.167E-12	632.737E-3	-17.7285E-3	-148.222E-12	565.922E-3	5.63847E-3
-3.91446E-3	-142.808E-12	628.935E-3	-45.3527E-3	-151.102E-12	548.899E-3	4.10369E-3
-3.91946E-3	-143.868E-12	609.217E-3	-54.9984E-3	-148.413E-12	593.060E-3	-3.08073E-3
-3.92446E-3	-144.624E-12	601.150E-3	-29.5876E-3	-145.086E-12	637.832E-3	-19.5840E-3
-3.92946E-3	-144.910E-12	587.847E-3	-9.55084E-3	-143.980E-12	628.825E-3	-17.5632E-3
-3.93447E-3	-144.286E-12	587.716E-3	-23.7781E-3	-144.587E-12	616.855E-3	-9.18836E-3
-3.93947E-3	-144.261E-12	610.305E-3	-29.1388E-3	-145.227E-12	626.532E-3	6.34194E-3
-3.94447E-3	-144.171E-12	604.949E-3	-22.7085E-3	-144.711E-12	604.600E-3	9.81738E-3
-3.94947E-3	-144.638E-12	596.812E-3	-18.1840E-3	-145.222E-12	571.003E-3	12.8775E-3
-3.95448E-3	-144.301E-12	613.384E-3	-6.37868E-3	-144.562E-12	591.321E-3	17.5697E-3
-3.95948E-3	-144.204E-12	614.282E-3	3.72081E-3	-144.422E-12	633.152E-3	-6.73247E-3
-3.96448E-3	-145.716E-12	595.261E-3	3.60306E-3	-146.917E-12	628.374E-3	-16.7048E-3
-3.96948E-3	-143.878E-12	600.976E-3	-5.79098E-3	-144.922E-12	606.551E-3	-9.21901E-3
-3.97449E-3	-143.998E-12	626.501E-3	-9.40947E-3	-144.475E-12	591.470E-3	-11.7833E-3
-3.97949E-3	-146.669E-12	623.360E-3	-30.5468E-3	-145.699E-12	589.630E-3	20.0297E-3
-3.98449E-3	-147.235E-12	599.211E-3	-39.6880E-3	-147.813E-12	628.201E-3	40.5306E-3
-3.98949E-3	-146.323E-12	593.062E-3	-2.25227E-3	-146.720E-12	646.924E-3	1.44577E-3
-3.99450E-3	-145.769E-12	596.527E-3	7.91624E-3	-146.582E-12	623.065E-3	-23.0255E-3
-3.99950E-3	-146.423E-12	605.118E-3	-17.6266E-3	-146.962E-12	619.466E-3	-28.5050E-3
-4.00450E-3	-148.621E-12	617.654E-3	-11.7908E-3	-149.569E-12	615.827E-3	-35.8548E-3
-4.00950E-3	-148.403E-12	611.913E-3	8.18949E-3	-149.334E-12	619.731E-3	-21.3703E-3
-4.01451E-3	-147.972E-12	591.023E-3	-7.03039E-3	-149.665E-12	659.128E-3	-1.56725E-3
-4.01951E-3	-148.443E-12	583.377E-3	-35.4333E-3	-148.991E-12	659.664E-3	-2.11423E-3
-4.02451E-3	-152.682E-12	596.444E-3	-41.8806E-3	-150.496E-12	640.752E-3	-4.39490E-3
-4.02951E-3	-151.830E-12	614.064E-3	-43.3339E-3	-150.417E-12	650.935E-3	5.59725E-3
-4.03452E-3	-150.048E-12	636.340E-3	-41.8309E-3	-149.637E-12	649.314E-3	-6.56097E-3
-4.03952E-3	-149.532E-12	624.740E-3	-28.8103E-3	-150.288E-12	625.473E-3	-31.3887E-3
-4.04452E-3	-150.913E-12	595.138E-3	-45.3851E-3	-150.311E-12	612.732E-3	-40.0677E-3
-4.04952E-3	-152.543E-12	591.410E-3	-69.5264E-3	-152.521E-12	624.080E-3	-45.5212E-3
-4.05453E-3	-152.189E-12	578.167E-3	-52.0967E-3	-152.018E-12	640.925E-3	-52.1663E-3
-4.05953E-3	-150.090E-12	570.768E-3	-42.3458E-3	-149.572E-12	652.676E-3	-44.4257E-3
-4.06453E-3	-150.660E-12	593.684E-3	-39.7629E-3	-146.961E-12	648.823E-3	-14.8762E-3
-4.06953E-3	-152.254E-12	611.902E-3	-6.66946E-3	-147.512E-12	624.286E-3	6.83977E-3
-4.07454E-3	-152.637E-12	616.274E-3	-4.58565E-3	-150.291E-12	604.257E-3	15.0795E-3
-4.07954E-3	-151.295E-12	621.048E-3	-38.0108E-3	-150.662E-12	617.515E-3	6.15598E-3
-4.08454E-3	-151.014E-12	605.461E-3	-41.9199E-3	-149.890E-12	633.893E-3	-29.6981E-3
-4.08954E-3	-153.281E-12	584.061E-3	-27.3246E-3	-149.317E-12	628.090E-3	-58.5369E-3
-4.09455E-3	-153.593E-12	603.920E-3	-12.0447E-3	-152.342E-12	612.015E-3	-60.0556E-3
-4.09955E-3	-153.615E-12	629.764E-3	518.885E-6	-152.255E-12	579.774E-3	-36.0550E-3
-4.10455E-3	-151.126E-12	625.243E-3	-1.81864E-3	-154.628E-12	571.941E-3	-7.70313E-3
-4.10955E-3	-153.039E-12	628.836E-3	-17.1844E-3	-153.056E-12	636.422E-3	-8.45257E-3
-4.11456E-3	-154.696E-12	629.271E-3	-37.2970E-3	-154.559E-12	671.177E-3	-14.7195E-3
-4.11956E-3	-154.953E-12	610.762E-3	-32.7625E-3	-154.095E-12	649.251E-3	9.71800E-3
-4.12456E-3	-152.103E-12	605.470E-3	-28.0431E-3	-157.191E-12	651.731E-3	9.66492E-3
-4.12956E-3	-151.070E-12	612.893E-3	-21.4089E-3	-156.276E-12	642.253E-3	-16.3190E-3
-4.13457E-3	-153.935E-12	603.496E-3	-2.41088E-3	-155.040E-12	640.944E-3	1.87206E-3
-4.13957E-3	-155.741E-12	598.071E-3	-14.5037E-3	-154.476E-12	665.842E-3	-265.974E-6
-4.14457E-3	-153.200E-12	624.067E-3	-29.3756E-3	-154.223E-12	638.680E-3	-35.3951E-3
-4.14957E-3	-152.248E-12	633.624E-3	-31.3886E-3	-154.707E-12	601.620E-3	-30.3022E-3
-4.15458E-3	-153.746E-12	612.943E-3	-30.2964E-3	-152.572E-12	614.571E-3	-23.4348E-3
-4.15958E-3	-155.223E-12	596.187E-3	-25.1743E-3	-151.981E-12	616.269E-3	-37.6739E-3
-4.16458E-3	-155.016E-12	599.816E-3	-12.8020E-3	-151.249E-12	605.748E-3	-41.1591E-3
-4.16958E-3	-153.759E-12	614.285E-3	14.9081E-3	-152.914E-12	615.471E-3	-28.2390E-3
-4.17459E-3	-153.045E-12	614.656E-3	30.6556E-3	-151.378E-12	612.138E-3	-25.7017E-3
-4.17959E-3	-155.682E-12	605.566E-3	8.05748E-3	-151.356E-12	601.839E-3	-26.9835E-3
-4.18459E-3	-156.238E-12	605.163E-3	-32.9131E-3	-151.645E-12	608.786E-3	-9.52911E-3
-4.18959E-3	-155.803E-12	605.795E-3	-44.3870E-3	-155.016E-12	617.049E-3	-4.58669E-3
-4.19460E-3	-153.150E-12	605.611E-3	-34.5706E-3	-157.824E-12	611.895E-3	3.73176E-3
-4.19960E-3	-153.792E-12	618.691E-3	-33.1315E-3	-154.110E-12	606.647E-3	22.2274E-3
-4.20460E-3	-156.603E-12	625.648E-3	-24.2616E-3	-155.343E-12	625.850E-3	-2.84541E-3
-4.20960E-3	-157.326E-12	607.335E-3	-11.5178E-3	-158.554E-12	650.277E-3	-32.4236E-3
-4.21461E-3	-155.182E-12	595.493E-3	-7.90290E-3	-161.210E-12	672.882E-3	-17.2989E-3
-4.21961E-3	-155.743E-12	594.716E-3	-5.81710E-3	-159.342E-12	687.867E-3	-6.78829E-3
-4.22461E-3	-157.224E-12	607.117E-3	-8.48540E-3	-159.378E-12	639.773E-3	-21.1402E-3
-4.22961E-3	-157.353E-12	606.666E-3	-13.6641E-3	-160.703E-12	597.814E-3	-15.6334E-3
-4.23462E-3	-155.740E-12	576.107E-3	-34.3759E-3	-162.688E-12	629.485E-3	-3.83983E-3
-4.23962E-3	-157.019E-12	592.628E-3	-50.4451E-3	-162.187E-12	642.674E-3	-10.6185E-3
-4.24462E-3	-158.519E-12	637.924E-3	-31.9427E-3	-158.565E-12	639.113E-3	-12.3492E-3
-4.24962E-3	-159.369E-12	641.052E-3	-26.9945E-3	-158.146E-12	644.248E-3	-25.4231E-3
-4.25463E-3	-158.652E-12	621.638E-3	-30.1645E-3	-159.126E-12	631.362E-3	-38.3516E-3
-4.25963E-3	-159.013E-12	597.031E-3	-33.0231E-3	-160.653E-12	626.698E-3	-13.9923E-3
-4.26463E-3	-159.781E-12	573.472E-3	-43.6874E-3	-157.308E-12	634.107E-3	-3.21456E-3
-4.26963E-3	-159.404E-12	580.979E-3	-30.2447E-3	-157.569E-12	615.083E-3	-37.0277E-3
-4.27464E-3	-158.666E-12	607.233E-3	-30.1511E-3	-158.575E-12	582.444E-3	-54.0253E-3
-4.27964E-3	-158.613E-12	623.443E-3	-29.7356E-3	-158.889E-12	583.514E-3	-21.8911E-3
-4.28464E-3	-159.084E-12	615.853E-3	1.68110E-3	-159.059E-12	611.893E-3	1.69336E-3
-4.28964E-3	-160.305E-12	601.410E-3	14.7860E-3	-157.488E-12	636.096E-3	2.16070E-3
-4.29465E-3	-160.934E-12	621.910E-3	9.18810E-3	-159.714E-12	634.873E-3	15.2776E-3
-4.29965E-3	-159.476E-12	628.789E-3	9.31833E-3	-159.326E-12	625.731E-3	19.8509E-3
-4.30465E-3	-159.364E-12	593.200E-3	-9.54277E-3	-162.971E-12	628.979E-3	8.02143E-3
-4.30965E-3	-161.507E-12	570.826E-3	-21.5607E-3	-162.353E-12	641.041E-3	-4.60897E-3
-4.31466E-3	-161.050E-12	586.884E-3	-10.3681E-3	-164.547E-12	643.652E-3	-18.9709E-3
-4.31966E-3	-159.021E-12	616.264E-3	-23.2746E-3	-163.986E-12	621.076E-3	-26.2998E-3
-4.32466E-3	-159.113E-12	637.171E-3	-24.5265E-3	-165.974E-12	616.161E-3	-46.3317E-3
-4.32966E-3	-159.720E-12	632.785E-3	-6.10219E-3	-164.273E-12	648.060E-3	-80.3662E-3
-4.33467E-3	-161.637E-12	616.186E-3	-6.61812E-3	-164.673E-12	677.869E-3	-74.8409E-3
-4.33967E-3	-159.671E-12	622.018E-3	-4.45904E-3	-165.080E-12	692.873E-3	-48.8980E-3
-4.34467E-3	-159.109E-12	625.573E-3	15.1245E-3	-163.419E-12	670.685E-3	-33.4988E-3
-4.34967E-3	-161.347E-12	610.790E-3	10.3862E-3	-162.895E-12	640.486E-3	-3.54676E-3
-4.35468E-3	-162.321E-12	615.537E-3	-2.29544E-3	-161.798E-12	633.752E-3	637.905E-6
-4.35968E-3	-161.633E-12	636.688E-3	13.0832E-3	-161.582E-12	627.298E-3	-38.7047E-3
-4.36468E-3	-160.483E-12	642.539E-3	1.11453E-3	-160.879E-12	620.269E-3	-54.1629E-3
-4.36968E-3	-163.257E-12	646.549E-3	-20.8849E-3	-161.096E-12	594.630E-3	-41.0846E-3
-4.37469E-3	-164.180E-12	632.854E-3	-1.54783E-3	-160.651E-12	575.946E-3	-37.8758E-3
-4.37969E-3	-164.765E-12	609.898E-3	22.1283E-3	-158.611E-12	579.235E-3	-46.9919E-3
-4.38469E-3	-164.559E-12	618.809E-3	14.9444E-3	-161.233E-12	593.781E-3	-36.2718E-3
-4.38969E-3	-163.866E-12	632.965E-3	3.89961E-3	-162.055E-12	613.345E-3	-11.3410E-3
-4.39470E-3	-165.916E-12	628.253E-3	14.6148E-3	-162.316E-12	615.055E-3	-5.71408E-3
-4.39970E-3	-166.931E-12	613.054E-3	-11.8825E-3	-161.342E-12	601.199E-3	-11.0117E-3
-4.40470E-3	-167.418E-12	603.038E-3	-47.9586E-3	-164.039E-12	582.598E-3	-15.3482E-3
-4.40970E-3	-163.880E-12	600.619E-3	-40.3845E-3	-166.302E-12	583.620E-3	-14.4411E-3
-4.41471E-3	-166.472E-12	614.135E-3	-41.1778E-3	-166.008E-12	605.788E-3	-18.2783E-3
-4.41971E-3	-170.123E-12	645.598E-3	-37.6864E-3	-166.190E-12	626.638E-3	-20.4332E-3
-4.42471E-3	-170.345E-12	649.750E-3	-43.3416E-3	-166.909E-12	629.085E-3	-15.9185E-3
-4.42971E-3	-166.700E-12	640.690E-3	-70.8581E-3	-171.118E-12	636.123E-3	-21.4126E-3
-4.43472E-3	-165.137E-12	639.986E-3	-52.3900E-3	-169.853E-12	653.253E-3	-44.0580E-3
-4.43972E-3	-167.892E-12	626.548E-3	-34.8623E-3	-168.796E-12	642.360E-3	-43.7342E-3
-4.44472E-3	-169.417E-12	606.576E-3	-59.4925E-3	-167.964E-12	621.323E-3	-28.5286E-3
-4.44972E-3	-167.502E-12	591.936E-3	-66.5294E-3	-170.741E-12	631.581E-3	-26.2547E-3
-4.45473E-3	-163.967E-12	594.455E-3	-55.8657E-3	-170.806E-12	641.809E-3	-28.8898E-3
-4.45973E-3	-166.856E-12	601.394E-3	-52.9356E-3	-168.266E-12	623.409E-3	-38.8810E-3
-4.46473E-3	-169.681E-12	609.434E-3	-43.5382E-3	-168.200E-12	603.865E-3	-32.5610E-3
-4.46973E-3	-172.902E-12	641.941E-3	-30.0740E-3	-168.124E-12	602.767E-3	-36.1013E-3
-4.47474E-3	-169.643E-12	646.096E-3	-32.2291E-3	-167.289E-12	611.747E-3	-36.3443E-3
-4.47974E-3	-166.972E-12	605.619E-3	-44.7306E-3	-165.783E-12	623.199E-3	-11.9217E-3
-4.48474E-3	-167.523E-12	597.739E-3	-43.4015E-3	-167.155E-12	624.226E-3	-17.9111E-3
-4.48974E-3	-170.392E-12	610.615E-3	-48.1184E-3	-168.211E-12	612.553E-3	-13.2254E-3
-4.49475E-3	-171.134E-12	599.983E-3	-49.7515E-3	-166.775E-12	628.570E-3	-4.23993E-3
-4.49975E-3	-167.794E-12	588.476E-3	-8.80290E-3	-165.830E-12	643.490E-3	-38.2532E-3
-4.50475E-3	-168.627E-12	581.424E-3	19.1604E-3	-165.244E-12	628.578E-3	-43.8523E-3
-4.50975E-3	-169.461E-12	579.386E-3	6.14158E-3	-168.487E-12	632.698E-3	-25.6010E-3
-4.51476E-3	-169.063E-12	593.060E-3	-6.91772E-3	-169.543E-12	651.050E-3	-36.6808E-3
-4.51976E-3	-167.270E-12	604.631E-3	-17.1801E-3	-169.631E-12	649.476E-3	-62.7577E-3
-4.52476E-3	-167.334E-12	609.275E-3	-28.3541E-3	-170.283E-12	628.926E-3	-57.6200E-3
-4.52976E-3	-169.043E-12	607.203E-3	-21.4030E-3	-171.751E-12	621.567E-3	-41.8947E-3
-4.53477E-3	-168.927E-12	596.609E-3	-928.641E-6	-173.174E-12	616.064E-3	-47.8047E-3
-4.53977E-3	-168.206E-12	609.014E-3	-21.5255E-3	-172.116E-12	616.346E-3	-38.8513E-3
-4.54477E-3	-168.989E-12	627.991E-3	-59.5965E-3	-174.511E-12	632.408E-3	-10.8440E-3
-4.54977E-3	-169.690E-12	596.850E-3	-56.9188E-3	-176.283E-12	618.271E-3	9.11206E-3
-4.55478E-3	-168.252E-12	576.478E-3	-35.0683E-3	-175.498E-12	599.591E-3	-5.40543E-3
-4.55978E-3	-169.246E-12	600.029E-3	-723.189E-6	-170.694E-12	607.125E-3	-37.7620E-3
-4.56478E-3	-169.629E-12	621.758E-3	34.7011E-3	-171.624E-12	605.421E-3	-33.6023E-3
-4.56978E-3	-169.675E-12	642.008E-3	26.2755E-3	-176.011E-12	601.706E-3	-2.36589E-3
-4.57479E-3	-169.751E-12	634.489E-3	-9.98630E-3	-177.151E-12	612.014E-3	7.43476E-3
-4.57979E-3	-171.118E-12	601.172E-3	-6.19179E-3	-171.910E-12	610.659E-3	12.4943E-3
-4.58479E-3	-172.046E-12	594.616E-3	13.2742E-3	-168.032E-12	602.435E-3	-1.86035E-3
-4.58979E-3	-172.246E-12	620.057E-3	6.86292E-3	-172.227E-12	613.248E-3	-38.8957E-3
-4.59480E-3	-171.396E-12	626.743E-3	-6.38739E-3	-173.183E-12	618.002E-3	-43.9466E-3
-4.59980E-3	-170.548E-12	631.415E-3	-25.1686E-3	-171.295E-12	600.432E-3	-15.4610E-3
-4.60480E-3	-171.997E-12	642.375E-3	-27.3715E-3	-168.342E-12	596.179E-3	-4.92094E-3
-4.60980E-3	-173.578E-12	611.996E-3	-12.0300E-3	-171.619E-12	601.873E-3	-37.3968E-3
-4.61481E-3	-172.555E-12	595.592E-3	-6.76671E-3	-173.540E-12	608.325E-3	-21.4939E-3
-4.61981E-3	-170.511E-12	623.676E-3	5.29121E-3	-172.309E-12	623.964E-3	26.2395E-3
-4.62481E-3	-170.762E-12	640.446E-3	-1.36386E-3	-174.756E-12	621.784E-3	5.83405E-3
-4.62981E-3	-173.832E-12	626.242E-3	-13.9890E-3	-178.626E-12	597.083E-3	-29.6543E-3
-4.63482E-3	-174.840E-12	608.671E-3	-10.3868E-3	-179.264E-12	604.456E-3	-22.6674E-3
-4.63982E-3	-173.457E-12	615.154E-3	-5.11288E-3	-177.675E-12	629.025E-3	-13.1218E-3
-4.64482E-3	-172.350E-12	623.082E-3	-834.071E-6	-180.366E-12	623.061E-3	-18.3855E-3
-4.64982E-3	-172.501E-12	600.854E-3	-24.6294E-3	-180.201E-12	626.609E-3	-9.44081E-3
-4.65483E-3	-175.398E-12	597.815E-3	-35.5244E-3	-181.485E-12	669.215E-3	-18.1883E-3
-4.65983E-3	-175.851E-12	609.915E-3	608.434E-6	-178.894E-12	688.001E-3	-46.9848E-3
-4.66483E-3	-174.903E-12	606.891E-3	11.8183E-3	-180.899E-12	642.809E-3	-49.4189E-3
-4.66983E-3	-173.195E-12	636.372E-3	-8.19266E-3	-179.279E-12	604.264E-3	-34.4522E-3
-4.67484E-3	-174.904E-12	633.349E-3	947.047E-6	-178.559E-12	596.633E-3	-15.4480E-3
-4.67984E-3	-177.824E-12	583.483E-3	-1.53518E-3	-178.013E-12	600.740E-3	8.34845E-3
-4.68484E-3	-176.739E-12	588.264E-3	-3.13144E-3	-174.325E-12	613.789E-3	23.1766E-3
-4.68984E-3	-179.400E-12	630.183E-3	9.89229E-3	-174.078E-12	597.602E-3	10.4309E-3
-4.69485E-3	-180.685E-12	644.088E-3	-18.3319E-3	-174.236E-12	572.762E-3	-13.9509E-3
-4.69985E-3	-181.990E-12	629.040E-3	-27.5221E-3	-175.004E-12	589.610E-3	-6.30452E-3
-4.70485E-3	-180.090E-12	618.335E-3	2.28839E-3	-172.081E-12	627.609E-3	-1.11609E-3
-4.70985E-3	-181.957E-12	637.141E-3	-1.21260E-3	-173.501E-12	634.291E-3	-15.4772E-3
-4.71486E-3	-182.033E-12	667.774E-3	-25.6817E-3	-174.484E-12	623.533E-3	-7.63959E-3
-4.71986E-3	-183.891E-12	663.256E-3	-26.6978E-3	-178.879E-12	621.178E-3	-15.3052E-3
-4.72486E-3	-183.047E-12	648.857E-3	-11.1451E-3	-177.491E-12	625.813E-3	-38.4829E-3
-4.72986E-3	-182.125E-12	650.189E-3	-18.1836E-3	-175.167E-12	628.595E-3	-15.6326E-3
-4.73487E-3	-182.267E-12	640.839E-3	-56.7014E-3	-177.747E-12	621.209E-3	25.3149E-3
-4.73987E-3	-182.368E-12	632.000E-3	-61.4444E-3	-182.178E-12	626.674E-3	30.7853E-3
-4.74487E-3	-182.092E-12	629.974E-3	-21.5249E-3	-185.036E-12	618.111E-3	22.3982E-3
-4.74988E-3	-180.726E-12	613.368E-3	-22.9952E-3	-182.031E-12	590.979E-3	29.7840E-3
-4.75488E-3	-179.245E-12	619.044E-3	-44.2036E-3	-181.029E-12	592.335E-3	29.6888E-3
-4.75988E-3	-178.394E-12	661.738E-3	-29.3813E-3	-182.824E-12	602.676E-3	3.16962E-3
-4.76488E-3	-180.310E-12	670.148E-3	-10.5989E-3	-187.849E-12	588.849E-3	-4.74804E-3
-4.76988E-3	-177.799E-12	672.049E-3	-7.93891E-3	-184.002E-12	596.946E-3	6.66459E-3
-4.77489E-3	-177.134E-12	673.604E-3	-14.1657E-3	-179.489E-12	629.053E-3	-4.54629E-3
-4.77989E-3	-177.287E-12	623.538E-3	-12.6663E-3	-180.135E-12	634.467E-3	-24.1830E-3
-4.78489E-3	-179.826E-12	609.764E-3	-10.5811E-3	-183.362E-12	625.726E-3	-22.6535E-3
-4.78989E-3	-183.807E-12	636.183E-3	-13.7115E-3	-183.147E-12	628.247E-3	-21.7401E-3
-4.79490E-3	-182.863E-12	621.321E-3	-26.9864E-3	-176.579E-12	627.938E-3	-48.8085E-3
-4.79990E-3	-180.625E-12	610.598E-3	-42.4387E-3	-175.307E-12	623.486E-3	-29.7604E-3
-4.80490E-3	-182.145E-12	633.485E-3	-25.3870E-3	-177.457E-12	632.418E-3	19.0827E-3
-4.80990E-3	-186.058E-12	629.173E-3	-11.7780E-3	-183.588E-12	623.081E-3	19.2921E-3
-4.81491E-3	-185.490E-12	613.767E-3	-34.4482E-3	-178.151E-12	602.502E-3	7.46091E-3
-4.81991E-3	-184.649E-12	654.912E-3	-34.0647E-3	-177.465E-12	611.925E-3	-5.86627E-3
-4.82491E-3	-184.711E-12	679.000E-3	1.07050E-3	-180.599E-12	616.669E-3	-6.38893E-3
-4.82991E-3	-184.521E-12	632.888E-3	-8.79527E-3	-185.698E-12	589.598E-3	16.8647E-3
-4.83492E-3	-185.210E-12	599.570E-3	-48.1780E-3	-182.893E-12	575.086E-3	2.46964E-3
-4.83992E-3	-184.563E-12	584.508E-3	-39.2893E-3	-182.856E-12	599.090E-3	-30.8191E-3
-4.84492E-3	-180.973E-12	593.922E-3	-33.0578E-3	-186.830E-12	624.828E-3	-43.9116E-3
-4.84992E-3	-181.023E-12	623.540E-3	-70.8083E-3	-187.881E-12	639.562E-3	-59.7457E-3
-4.85493E-3	-182.594E-12	625.093E-3	-59.7972E-3	-187.258E-12	628.697E-3	-54.8544E-3
-4.85993E-3	-182.922E-12	609.598E-3	2.09221E-3	-184.153E-12	587.505E-3	-24.6875E-3
-4.86493E-3	-181.348E-12	627.922E-3	28.1953E-3	-186.931E-12	574.585E-3	8.18484E-3
-4.86993E-3	-180.599E-12	647.191E-3	17.8576E-3	-188.357E-12	607.645E-3	16.7914E-3
-4.87494E-3	-180.744E-12	623.179E-3	11.8042E-3	-186.122E-12	631.606E-3	-6.36303E-3
-4.87994E-3	-184.731E-12	627.562E-3	3.17368E-3	-185.512E-12	611.863E-3	-14.1102E-3
-4.88494E-3	-186.730E-12	632.088E-3	-6.78198E-3	-185.942E-12	605.085E-3	-14.1793E-3
-4.88995E-3	-186.403E-12	595.184E-3	-19.9606E-3	-189.048E-12	622.600E-3	-32.9167E-3
-4.89495E-3	-184.210E-12	563.437E-3	-53.5965E-3	-185.882E-12	620.062E-3	-34.6581E-3
-4.89995E-3	-186.799E-12	543.840E-3	-73.0018E-3	-186.939E-12	615.390E-3	-41.3655E-3
-4.90495E-3	-190.093E-12	552.263E-3	-69.4424E-3	-185.654E-12	612.827E-3	-55.3787E-3
-4.90995E-3	-190.598E-12	610.664E-3	-71.2093E-3	-187.748E-12	623.372E-3	-38.7901E-3
-4.91496E-3	-186.993E-12	653.098E-3	-68.2848E-3	-187.792E-12	636.740E-3	-25.6224E-3
-4.91996E-3	-186.351E-12	625.896E-3	-48.0769E-3	-188.807E-12	629.189E-3	-25.9928E-3
-4.92496E-3	-187.840E-12	590.370E-3	-24.5694E-3	-188.674E-12	634.399E-3	-27.1486E-3
-4.92996E-3	-190.894E-12	608.147E-3	-8.33416E-3	-189.030E-12	638.960E-3	-22.4739E-3
-4.93497E-3	-190.191E-12	631.536E-3	2.40953E-3	-188.676E-12	639.895E-3	-10.8869E-3
-4.93997E-3	-186.695E-12	639.088E-3	3.79896E-3	-190.640E-12	663.075E-3	-14.7688E-3
-4.94497E-3	-185.834E-12	661.880E-3	-12.8736E-3	-190.119E-12	666.610E-3	-32.3201E-3
-4.94997E-3	-187.824E-12	651.276E-3	-19.2273E-3	-189.394E-12	619.961E-3	-17.1286E-3
-4.95498E-3	-189.189E-12	629.834E-3	260.411E-6	-188.246E-12	594.346E-3	30.5177E-3
-4.95998E-3	-185.491E-12	632.352E-3	23.1189E-3	-191.814E-12	657.727E-3	21.4861E-3
-4.96498E-3	-183.720E-12	603.673E-3	25.9951E-3	-193.714E-12	692.872E-3	-1.56092E-3
-4.96998E-3	-189.498E-12	591.011E-3	-12.5296E-3	-190.070E-12	669.154E-3	-876.429E-6
-4.97499E-3	-196.790E-12	619.229E-3	-36.8812E-3	-189.047E-12	668.680E-3	-35.0023E-3
-4.97999E-3	-193.855E-12	598.799E-3	-2.71638E-3	-194.119E-12	651.279E-3	-47.8878E-3
-4.98499E-3	-186.074E-12	558.267E-3	16.2643E-3	-198.141E-12	603.288E-3	-13.4358E-3
-4.98999E-3	-186.334E-12	598.960E-3	11.6937E-3	-193.217E-12	600.269E-3	-2.59384E-3
-4.99500E-3	-195.875E-12	630.952E-3	15.3268E-3	-188.964E-12	631.118E-3	-25.0906E-3
-5.00000E-3	-197.534E-12	604.318E-3	-4.00538E-3	-190.352E-12	616.152E-3	-30.5573E-3
