Experiment	bias spectroscopy	
Date	19.01.2016 19:39:59	
User		
X (m)	50.3904E-9	
Y (m)	256.762E-9	
Z (m)	-132.541E-9	
Z offset (m)	0E+0	
Settling time (s)	200E-6	
Integration time (s)	5E-3	
Z-Ctrl hold	TRUE	
Final Z (m)	N/A	
Filter type	None	
Order		
Cutoff frq		
Comment01	MnPc/Pb(111)	
Comment02	dz =00pm	
Comment03	7 Sweeps	
Comment04	MagField =0.T	
Comment05	Divider 1:10	
Comment06	Setpoint:5mV,200 pA	
Comment07	Lockin: 50uVrms,5ms,5mV	
Comment08	Gain:9; 912Hz modulation	
Comment09	T=1.06K	
Bias>Bias (V)	5E-3	
Bias>Calibration (V/V)	81.475E-3	
Bias>Offset (V)	1.046E-3	
Bias Spectroscopy>Sweep Start (V)	5E-3	
Bias Spectroscopy>Sweep End (V)	-5E-3	
Bias Spectroscopy>Num Pixel	2000	
Bias Spectroscopy>Z Avg time (s)	500E-3	
Bias Spectroscopy>Z offset (m)	0E+0	
Bias Spectroscopy>1st Settling time (s)	500E-3	
Bias Spectroscopy>Settling time (s)	200E-6	
Bias Spectroscopy>Integration time (s)	5E-3	
Bias Spectroscopy>End Settling time (s)	500E-3	
Bias Spectroscopy>Z control time (s)	500E-3	
Bias Spectroscopy>Max Slew rate (V/s)	Inf	
Bias Spectroscopy>backward sweep	TRUE	
Bias Spectroscopy>Z-controller hold	TRUE	
Bias Spectroscopy>Number of sweeps	7	
Bias Spectroscopy>Channels	Current (A);X% LockIn (V);Y% LockIn (V)	
Bias Spectroscopy>Reset Bias	TRUE	
Bias Spectroscopy>Record final Z	FALSE	
Bias Spectroscopy>Lock-In run	FALSE	
Bias Spectroscopy>Sweep mode	Linear	
Bias Spectroscopy>MultiLine Settings : Segment Start (V), Segment End (V), Settling (s), Integration (s), Steps (xn)	100E-3,3.3E-3,100E-6,10E-3,2500;3.3E-3,-3.3E-3,100E-6,10E-3,10;-3.3E-3,-100E-3,100E-6,10E-3,2500	
Current>Current (A)	200.142E-12	
Current>Calibration (A/V)	999.99900E-12	
Current>Offset (A)	-455.429E-15	
Current>Gain	LN 10^9	
Z-Controller>Z (m)	-132.542E-9	
Z-Controller>Controller name	log Current	
Z-Controller>Controller status	ON	
Z-Controller>Setpoint	200E-12	
Z-Controller>Setpoint unit	A	
Z-Controller>P gain	2.96994E-12	
Z-Controller>I gain	67.0321E-9	
Z-Controller>Time const (s)	44.3062E-6	
Z-Controller>TipLift (m)	0E+0	
Z-Controller>Switch off delay (s)	50E-3	
Current (A)	200.301E-12	
Z (m)	-132.542E-9	

[DATA]
Bias calc (V)	Current (A)	X% LockIn (V)	Y% LockIn (V)	Current [bwd] (A)	X% LockIn [bwd] (V)	Y% LockIn [bwd] (V)
5.00000E-3	198.099E-12	524.394E-3	-24.3441E-3	196.689E-12	521.276E-3	37.4772E-3
4.99500E-3	197.377E-12	548.347E-3	-21.9442E-3	197.410E-12	523.140E-3	341.561E-6
4.98999E-3	196.616E-12	544.924E-3	-32.3362E-3	198.756E-12	536.294E-3	-22.3112E-3
4.98499E-3	196.902E-12	512.953E-3	-28.3394E-3	200.944E-12	573.989E-3	-20.9505E-3
4.97999E-3	196.602E-12	488.394E-3	-41.2537E-3	202.488E-12	598.812E-3	-23.2064E-3
4.97499E-3	196.344E-12	491.281E-3	-48.6758E-3	204.099E-12	592.948E-3	-22.2968E-3
4.96998E-3	196.820E-12	498.599E-3	-23.1464E-3	204.965E-12	605.815E-3	-24.3228E-3
4.96498E-3	197.379E-12	502.712E-3	-22.5395E-3	205.034E-12	630.287E-3	-29.0402E-3
4.95998E-3	197.447E-12	519.852E-3	-39.4601E-3	205.444E-12	608.716E-3	-38.0410E-3
4.95498E-3	197.805E-12	544.294E-3	-38.0603E-3	205.484E-12	567.628E-3	-49.9018E-3
4.94997E-3	198.246E-12	528.863E-3	-31.4220E-3	204.012E-12	551.784E-3	-25.0091E-3
4.94497E-3	197.985E-12	510.445E-3	-27.9423E-3	202.445E-12	535.095E-3	10.7997E-3
4.93997E-3	198.329E-12	545.713E-3	-37.4882E-3	200.920E-12	521.975E-3	22.9903E-3
4.93497E-3	199.189E-12	576.049E-3	-37.1330E-3	199.470E-12	541.201E-3	24.4139E-3
4.92996E-3	198.733E-12	562.253E-3	-19.4782E-3	197.912E-12	554.256E-3	16.2259E-3
4.92496E-3	198.603E-12	534.169E-3	-8.74203E-3	195.895E-12	529.789E-3	11.8287E-3
4.91996E-3	197.881E-12	519.915E-3	-1.98685E-3	195.615E-12	506.565E-3	2.69100E-3
4.91496E-3	197.094E-12	529.034E-3	11.3053E-3	194.584E-12	512.841E-3	-11.4096E-3
4.90995E-3	196.300E-12	546.364E-3	26.9701E-3	194.426E-12	525.237E-3	-14.5456E-3
4.90495E-3	195.688E-12	534.841E-3	22.1609E-3	193.076E-12	529.011E-3	-25.9197E-3
4.89995E-3	195.357E-12	520.115E-3	-11.5196E-3	193.840E-12	526.656E-3	-35.3750E-3
4.89495E-3	194.546E-12	522.950E-3	-20.1332E-3	194.344E-12	557.910E-3	-10.3918E-3
4.88995E-3	194.339E-12	526.694E-3	-7.24751E-3	195.474E-12	600.267E-3	8.02515E-3
4.88494E-3	194.335E-12	530.157E-3	-21.5344E-3	197.527E-12	590.561E-3	-2.89136E-3
4.87994E-3	195.041E-12	517.874E-3	-38.4332E-3	197.712E-12	578.312E-3	-15.5661E-3
4.87494E-3	195.191E-12	505.344E-3	-38.7186E-3	200.026E-12	600.407E-3	-29.4003E-3
4.86993E-3	195.279E-12	534.314E-3	-42.6053E-3	200.634E-12	604.391E-3	-36.3760E-3
4.86493E-3	196.004E-12	573.158E-3	-43.4071E-3	200.634E-12	579.379E-3	-27.6259E-3
4.85993E-3	196.709E-12	569.974E-3	-32.9891E-3	199.910E-12	586.994E-3	2.60202E-3
4.85493E-3	196.425E-12	539.852E-3	-36.3512E-3	199.613E-12	595.321E-3	41.5156E-3
4.84992E-3	197.561E-12	540.850E-3	-41.9514E-3	198.044E-12	549.167E-3	41.4988E-3
4.84492E-3	197.664E-12	566.120E-3	-35.2236E-3	197.112E-12	507.374E-3	704.817E-6
4.83992E-3	197.011E-12	579.165E-3	-24.1998E-3	196.391E-12	503.896E-3	-54.3267E-3
4.83492E-3	196.649E-12	593.245E-3	-9.64054E-3	193.575E-12	501.061E-3	-94.4114E-3
4.82991E-3	196.105E-12	585.565E-3	1.06941E-3	192.427E-12	515.086E-3	-81.4776E-3
4.82491E-3	194.929E-12	558.839E-3	-24.0459E-3	190.822E-12	538.174E-3	-44.6984E-3
4.81991E-3	194.369E-12	543.465E-3	-65.9335E-3	190.428E-12	514.346E-3	-15.6671E-3
4.81491E-3	192.963E-12	547.038E-3	-41.4793E-3	188.177E-12	511.103E-3	-6.44059E-3
4.80990E-3	191.890E-12	571.404E-3	13.4265E-3	187.350E-12	549.623E-3	-12.7779E-3
4.80490E-3	191.680E-12	582.407E-3	16.4508E-3	187.547E-12	563.233E-3	-15.1675E-3
4.79990E-3	191.234E-12	556.702E-3	-13.7940E-3	187.556E-12	545.916E-3	-875.898E-6
4.79490E-3	189.952E-12	534.654E-3	-30.8571E-3	187.700E-12	507.468E-3	36.9394E-3
4.78989E-3	191.020E-12	562.648E-3	-31.4232E-3	188.292E-12	508.010E-3	31.3879E-3
4.78489E-3	191.891E-12	587.705E-3	-32.7485E-3	189.829E-12	557.996E-3	-8.18518E-3
4.77989E-3	190.971E-12	573.219E-3	-36.2219E-3	189.317E-12	583.937E-3	-492.274E-6
4.77489E-3	191.886E-12	560.577E-3	-32.7373E-3	190.417E-12	585.658E-3	22.5294E-3
4.76988E-3	191.528E-12	553.063E-3	-26.4418E-3	191.141E-12	590.975E-3	16.9989E-3
4.76488E-3	192.009E-12	540.283E-3	-26.2271E-3	190.838E-12	564.481E-3	-23.8841E-3
4.75988E-3	191.450E-12	546.100E-3	-24.3918E-3	190.045E-12	512.179E-3	-65.0823E-3
4.75488E-3	191.668E-12	554.241E-3	-19.6113E-3	191.175E-12	516.721E-3	-56.4652E-3
4.74988E-3	191.564E-12	554.282E-3	-13.9781E-3	190.539E-12	569.510E-3	-32.5807E-3
4.74487E-3	191.603E-12	578.628E-3	-10.4314E-3	189.499E-12	585.829E-3	-26.1966E-3
4.73987E-3	191.444E-12	591.286E-3	-10.6943E-3	188.746E-12	566.030E-3	-12.4701E-3
4.73487E-3	191.437E-12	574.418E-3	-13.2728E-3	189.267E-12	559.314E-3	764.135E-6
4.72986E-3	190.086E-12	564.327E-3	-10.0137E-3	188.556E-12	565.363E-3	-16.5779E-3
4.72486E-3	189.918E-12	553.703E-3	-26.1030E-3	189.037E-12	571.104E-3	-15.7040E-3
4.71986E-3	189.188E-12	541.032E-3	-64.0184E-3	187.413E-12	550.499E-3	12.4402E-3
4.71486E-3	188.611E-12	546.271E-3	-68.2863E-3	187.233E-12	517.717E-3	-1.21045E-3
4.70985E-3	187.978E-12	563.934E-3	-41.6215E-3	187.976E-12	532.523E-3	-39.3295E-3
4.70485E-3	187.715E-12	589.852E-3	-32.7337E-3	186.621E-12	552.619E-3	-66.6433E-3
4.69985E-3	187.177E-12	604.767E-3	-29.0489E-3	186.002E-12	534.784E-3	-52.7915E-3
4.69485E-3	187.048E-12	579.507E-3	-1.78312E-3	186.829E-12	529.474E-3	-6.58174E-3
4.68984E-3	186.291E-12	542.093E-3	16.8891E-3	186.008E-12	541.370E-3	10.3508E-3
4.68484E-3	187.172E-12	543.435E-3	1.85280E-3	185.415E-12	543.264E-3	4.60894E-3
4.67984E-3	186.603E-12	553.847E-3	-27.5769E-3	186.677E-12	538.983E-3	3.36271E-3
4.67484E-3	187.081E-12	546.324E-3	-33.5527E-3	186.305E-12	532.722E-3	20.6111E-3
4.66983E-3	186.918E-12	539.459E-3	-15.6242E-3	186.591E-12	527.575E-3	23.8580E-3
4.66483E-3	187.629E-12	525.655E-3	-6.97228E-3	187.230E-12	536.397E-3	-9.85906E-3
4.65983E-3	186.914E-12	544.802E-3	-13.2090E-3	188.125E-12	574.165E-3	-35.8159E-3
4.65483E-3	187.987E-12	585.445E-3	-16.7847E-3	188.450E-12	596.789E-3	-23.6813E-3
4.64982E-3	188.189E-12	581.789E-3	-9.24702E-3	189.141E-12	580.471E-3	1.97351E-3
4.64482E-3	187.792E-12	563.447E-3	-15.7466E-3	190.624E-12	554.980E-3	6.43783E-3
4.63982E-3	186.972E-12	573.582E-3	-34.7719E-3	190.815E-12	533.354E-3	-13.2571E-3
4.63482E-3	187.900E-12	578.781E-3	-34.3492E-3	190.457E-12	525.415E-3	-19.8501E-3
4.62981E-3	187.892E-12	560.809E-3	-14.2335E-3	189.872E-12	553.505E-3	-894.993E-6
4.62481E-3	186.831E-12	556.307E-3	-12.8286E-3	189.678E-12	582.856E-3	3.44151E-3
4.61981E-3	186.736E-12	573.874E-3	-23.1511E-3	189.461E-12	549.425E-3	-8.12620E-3
4.61481E-3	186.936E-12	562.197E-3	-26.3978E-3	188.347E-12	510.565E-3	-4.99761E-3
4.60980E-3	186.209E-12	529.908E-3	-31.0290E-3	188.098E-12	523.342E-3	-6.21914E-3
4.60480E-3	186.259E-12	534.824E-3	-26.1934E-3	186.851E-12	541.476E-3	-23.0747E-3
4.59980E-3	185.899E-12	542.774E-3	5.97355E-3	185.380E-12	553.558E-3	-12.0720E-3
4.59480E-3	185.691E-12	553.339E-3	24.4913E-3	184.359E-12	560.983E-3	5.65856E-3
4.58979E-3	185.393E-12	562.183E-3	556.946E-6	183.495E-12	546.021E-3	-2.26819E-3
4.58479E-3	185.435E-12	552.210E-3	-14.0914E-3	182.842E-12	539.592E-3	-1.40889E-3
4.57979E-3	184.592E-12	546.672E-3	-22.1631E-3	183.025E-12	567.552E-3	2.35012E-3
4.57479E-3	183.946E-12	545.973E-3	-29.9992E-3	183.135E-12	580.977E-3	-12.8231E-3
4.56978E-3	183.706E-12	557.640E-3	-39.7183E-3	183.399E-12	540.431E-3	-31.6026E-3
4.56478E-3	183.701E-12	561.891E-3	-56.3732E-3	185.039E-12	522.127E-3	-39.1203E-3
4.55978E-3	183.453E-12	535.733E-3	-33.0306E-3	185.295E-12	547.292E-3	-39.2448E-3
4.55478E-3	182.908E-12	500.681E-3	20.9760E-3	185.722E-12	571.848E-3	-24.2843E-3
4.54977E-3	183.219E-12	504.233E-3	42.3182E-3	186.750E-12	599.812E-3	-5.98071E-3
4.54477E-3	182.980E-12	539.923E-3	28.0383E-3	187.793E-12	612.701E-3	-10.7867E-3
4.53977E-3	182.707E-12	545.604E-3	8.67817E-3	187.182E-12	594.702E-3	-4.95636E-3
4.53477E-3	182.977E-12	501.231E-3	-12.5057E-3	186.593E-12	567.354E-3	5.04616E-3
4.52976E-3	183.203E-12	471.637E-3	-31.9429E-3	186.375E-12	555.251E-3	-9.86487E-3
4.52476E-3	182.636E-12	506.899E-3	-34.1542E-3	185.859E-12	542.449E-3	-170.550E-6
4.51976E-3	183.298E-12	532.794E-3	-3.70517E-3	184.108E-12	527.725E-3	37.4719E-3
4.51476E-3	183.600E-12	508.622E-3	28.4839E-3	183.386E-12	526.779E-3	29.9546E-3
4.50975E-3	183.583E-12	507.442E-3	31.0665E-3	181.766E-12	530.576E-3	-17.6329E-3
4.50475E-3	182.818E-12	537.520E-3	15.0765E-3	180.179E-12	545.247E-3	-45.4915E-3
4.49975E-3	183.182E-12	550.867E-3	-2.56044E-3	179.045E-12	563.709E-3	-47.2432E-3
4.49475E-3	182.819E-12	550.792E-3	-24.4136E-6	178.097E-12	562.963E-3	-34.5080E-3
4.48974E-3	181.421E-12	528.991E-3	4.15817E-3	177.510E-12	549.647E-3	-17.4012E-3
4.48474E-3	181.167E-12	510.850E-3	-15.6393E-3	177.108E-12	534.784E-3	-14.0684E-3
4.47974E-3	181.169E-12	512.229E-3	-37.8415E-3	177.533E-12	544.197E-3	-20.0560E-3
4.47474E-3	179.722E-12	516.809E-3	-40.7157E-3	177.383E-12	578.708E-3	-8.53438E-3
4.46973E-3	178.840E-12	538.630E-3	-31.7461E-3	178.953E-12	596.323E-3	-3.50830E-3
4.46473E-3	179.439E-12	536.501E-3	-12.6850E-3	179.610E-12	574.504E-3	-25.1174E-3
4.45973E-3	178.443E-12	499.032E-3	5.98785E-3	180.916E-12	536.931E-3	-28.7655E-3
4.45473E-3	178.504E-12	484.693E-3	-4.70492E-3	181.684E-12	533.249E-3	-9.38274E-3
4.44972E-3	178.419E-12	510.437E-3	-35.0263E-3	182.359E-12	552.603E-3	10.2051E-3
4.44472E-3	178.039E-12	522.445E-3	-32.5482E-3	181.827E-12	572.678E-3	19.8909E-3
4.43972E-3	178.682E-12	524.240E-3	-16.2489E-3	181.332E-12	584.153E-3	-4.00342E-3
4.43472E-3	178.841E-12	549.965E-3	-14.5357E-3	180.931E-12	571.320E-3	-31.0803E-3
4.42971E-3	178.827E-12	556.768E-3	-3.50236E-3	179.638E-12	560.812E-3	-19.5978E-3
4.42471E-3	179.052E-12	564.025E-3	-5.07805E-3	179.034E-12	575.523E-3	-483.538E-6
4.41971E-3	179.688E-12	580.605E-3	-19.1508E-3	177.886E-12	578.420E-3	6.32307E-3
4.41471E-3	178.848E-12	553.064E-3	-5.73343E-3	176.892E-12	534.517E-3	5.66836E-3
4.40970E-3	179.390E-12	520.037E-3	14.0676E-3	175.597E-12	499.195E-3	-10.4696E-3
4.40470E-3	178.587E-12	524.186E-3	14.7390E-3	174.501E-12	493.183E-3	-22.6126E-3
4.39970E-3	178.517E-12	530.703E-3	9.63906E-3	173.864E-12	480.085E-3	-10.3329E-3
4.39470E-3	177.995E-12	525.206E-3	-16.4430E-3	173.745E-12	501.371E-3	21.8432E-3
4.38969E-3	177.480E-12	530.464E-3	-34.5306E-3	173.532E-12	539.723E-3	26.0931E-3
4.38469E-3	176.938E-12	535.733E-3	-18.6820E-3	173.317E-12	532.268E-3	-7.92905E-3
4.37969E-3	176.352E-12	545.052E-3	-5.78542E-3	174.190E-12	523.957E-3	-36.4661E-3
4.37469E-3	176.000E-12	571.946E-3	-10.3304E-3	174.899E-12	538.160E-3	-58.6730E-3
4.36968E-3	174.349E-12	569.879E-3	-19.9490E-3	175.104E-12	531.874E-3	-66.3645E-3
4.36468E-3	174.562E-12	549.756E-3	-19.6980E-3	176.722E-12	522.839E-3	-38.4826E-3
4.35968E-3	173.821E-12	542.778E-3	-21.5432E-3	177.210E-12	534.711E-3	-12.9208E-3
4.35468E-3	173.987E-12	546.441E-3	-21.7308E-3	177.068E-12	560.501E-3	-25.4601E-3
4.34967E-3	173.664E-12	558.617E-3	-15.5281E-3	177.940E-12	581.921E-3	-37.5651E-3
4.34467E-3	173.993E-12	562.683E-3	-25.3291E-3	177.447E-12	581.926E-3	-29.5190E-3
4.33967E-3	173.807E-12	538.478E-3	-43.0107E-3	178.011E-12	564.138E-3	-9.44148E-3
4.33467E-3	174.257E-12	506.490E-3	-42.4675E-3	177.135E-12	535.597E-3	12.8709E-3
4.32966E-3	173.830E-12	509.443E-3	-36.8640E-3	176.821E-12	529.130E-3	5.39932E-3
4.32466E-3	174.185E-12	528.229E-3	-38.3504E-3	175.716E-12	543.388E-3	-47.2252E-3
4.31966E-3	174.860E-12	546.295E-3	-30.8486E-3	175.496E-12	539.079E-3	-66.2870E-3
4.31466E-3	174.987E-12	570.181E-3	-19.8778E-3	175.697E-12	518.741E-3	-26.4670E-3
4.30965E-3	174.968E-12	587.928E-3	-18.1599E-3	174.272E-12	504.673E-3	-21.5149E-3
4.30465E-3	174.846E-12	568.558E-3	-11.5172E-3	174.305E-12	494.321E-3	-41.8164E-3
4.29965E-3	175.328E-12	537.964E-3	10.0297E-3	173.572E-12	506.942E-3	-23.9694E-3
4.29465E-3	174.839E-12	537.717E-3	12.5762E-3	173.630E-12	525.680E-3	8.01459E-3
4.28964E-3	174.280E-12	544.321E-3	-8.70258E-3	173.677E-12	535.692E-3	18.6111E-3
4.28464E-3	173.860E-12	537.818E-3	-23.4826E-3	173.836E-12	561.674E-3	4.27889E-3
4.27964E-3	173.533E-12	542.137E-3	-7.29582E-3	174.290E-12	570.937E-3	-27.0256E-3
4.27464E-3	173.014E-12	554.437E-3	7.37394E-3	174.399E-12	562.338E-3	-58.8786E-3
4.26963E-3	172.885E-12	549.965E-3	-32.4669E-3	174.749E-12	573.827E-3	-73.7341E-3
4.26463E-3	172.876E-12	551.262E-3	-78.0842E-3	173.898E-12	580.179E-3	-64.6907E-3
4.25963E-3	172.979E-12	563.621E-3	-79.1050E-3	174.209E-12	555.559E-3	-42.7933E-3
4.25463E-3	173.055E-12	566.536E-3	-67.9122E-3	173.944E-12	547.638E-3	-27.1471E-3
4.24962E-3	173.038E-12	563.386E-3	-65.9727E-3	174.060E-12	572.848E-3	-15.2520E-3
4.24462E-3	173.214E-12	555.247E-3	-45.3194E-3	174.032E-12	588.100E-3	-11.9640E-3
4.23962E-3	173.232E-12	548.689E-3	-15.0874E-3	174.093E-12	581.926E-3	-23.0019E-3
4.23462E-3	173.493E-12	565.001E-3	-7.99532E-3	173.732E-12	570.246E-3	-47.6752E-3
4.22961E-3	173.209E-12	583.794E-3	-2.93422E-3	173.379E-12	551.436E-3	-84.9390E-3
4.22461E-3	173.050E-12	567.291E-3	-335.126E-6	173.771E-12	550.660E-3	-100.755E-3
4.21961E-3	172.939E-12	532.933E-3	-19.9795E-3	173.458E-12	560.888E-3	-79.5329E-3
4.21461E-3	172.886E-12	520.007E-3	-24.4975E-3	172.563E-12	540.576E-3	-36.5035E-3
4.20960E-3	172.356E-12	538.958E-3	-11.2932E-3	172.367E-12	524.521E-3	-9.65911E-3
4.20460E-3	171.975E-12	577.800E-3	279.018E-6	171.780E-12	519.300E-3	-17.1721E-3
4.19960E-3	171.585E-12	589.725E-3	9.79429E-3	171.277E-12	518.553E-3	-12.6292E-3
4.19460E-3	171.613E-12	574.584E-3	-337.847E-6	170.687E-12	538.916E-3	6.26065E-3
4.18959E-3	171.340E-12	579.845E-3	-27.7014E-3	169.754E-12	555.630E-3	-1.39786E-3
4.18459E-3	170.817E-12	582.030E-3	-52.8979E-3	169.497E-12	548.964E-3	-17.4329E-3
4.17959E-3	171.091E-12	575.101E-3	-33.8801E-3	168.419E-12	532.990E-3	-14.4610E-3
4.17459E-3	170.495E-12	573.472E-3	3.81024E-3	167.392E-12	544.849E-3	-14.7480E-3
4.16958E-3	170.399E-12	572.787E-3	17.2934E-3	166.646E-12	576.515E-3	-24.1906E-3
4.16458E-3	170.210E-12	556.200E-3	26.6931E-3	166.517E-12	578.011E-3	-21.6071E-3
4.15958E-3	170.465E-12	537.160E-3	6.31547E-3	165.438E-12	568.671E-3	-8.95135E-3
4.15458E-3	169.551E-12	548.377E-3	-30.5688E-3	165.672E-12	567.083E-3	-20.0984E-3
4.14957E-3	169.710E-12	534.976E-3	-36.6143E-3	166.383E-12	556.320E-3	-35.2902E-3
4.14457E-3	169.300E-12	502.419E-3	-28.3928E-3	166.794E-12	550.030E-3	-25.5546E-3
4.13957E-3	168.920E-12	514.610E-3	-13.5374E-3	167.086E-12	548.046E-3	-15.6016E-3
4.13457E-3	168.884E-12	547.939E-3	-8.03071E-3	168.121E-12	537.971E-3	-3.59799E-3
4.12956E-3	167.775E-12	559.606E-3	-24.4633E-3	169.075E-12	526.845E-3	-14.0729E-6
4.12456E-3	166.956E-12	563.548E-3	-16.3978E-3	169.475E-12	540.525E-3	-23.2636E-3
4.11956E-3	167.295E-12	564.115E-3	-9.76221E-3	169.483E-12	564.407E-3	-39.2932E-3
4.11456E-3	166.028E-12	553.992E-3	-39.9001E-3	169.606E-12	570.166E-3	-40.9192E-3
4.10955E-3	166.001E-12	553.697E-3	-47.2100E-3	169.220E-12	567.291E-3	-48.8450E-3
4.10455E-3	166.321E-12	549.237E-3	-27.3527E-3	168.592E-12	548.426E-3	-42.5006E-3
4.09955E-3	165.922E-12	535.554E-3	-25.6887E-3	167.776E-12	533.165E-3	-29.9328E-3
4.09455E-3	165.465E-12	545.318E-3	-17.1682E-3	167.422E-12	531.608E-3	-26.4883E-3
4.08954E-3	165.653E-12	574.149E-3	5.34419E-3	166.503E-12	529.795E-3	-9.74869E-3
4.08454E-3	165.539E-12	590.626E-3	13.0297E-3	164.547E-12	530.958E-3	668.527E-6
4.07954E-3	165.573E-12	587.957E-3	9.77236E-3	163.798E-12	528.294E-3	-15.2528E-3
4.07454E-3	165.186E-12	574.176E-3	4.86964E-3	163.524E-12	536.761E-3	-22.0602E-3
4.06953E-3	165.476E-12	569.780E-3	-6.02470E-3	161.879E-12	548.017E-3	-17.8916E-3
4.06453E-3	165.061E-12	593.589E-3	-10.4837E-3	161.625E-12	522.648E-3	-17.9675E-3
4.05953E-3	164.926E-12	604.472E-3	7.05857E-3	161.250E-12	503.090E-3	-12.7698E-3
4.05453E-3	163.939E-12	575.742E-3	11.2821E-3	162.077E-12	536.314E-3	-13.3321E-3
4.04952E-3	164.201E-12	562.246E-3	-10.0952E-3	162.350E-12	571.272E-3	-24.3513E-3
4.04452E-3	163.834E-12	570.275E-3	-19.9717E-3	163.358E-12	579.324E-3	-26.4243E-3
4.03952E-3	163.033E-12	565.885E-3	-10.1336E-3	164.433E-12	574.184E-3	-11.7487E-3
4.03452E-3	162.750E-12	571.890E-3	-3.01121E-3	164.933E-12	550.318E-3	16.0220E-3
4.02951E-3	162.440E-12	591.444E-3	-6.57568E-3	165.691E-12	537.458E-3	26.4262E-3
4.02451E-3	161.679E-12	592.428E-3	-16.0660E-3	166.832E-12	563.341E-3	5.14118E-3
4.01951E-3	161.692E-12	592.716E-3	-25.9099E-3	166.852E-12	576.953E-3	-26.3344E-3
4.01451E-3	162.312E-12	618.858E-3	-30.3321E-3	166.166E-12	566.962E-3	-43.0739E-3
4.00950E-3	161.994E-12	618.951E-3	-19.7885E-3	166.757E-12	558.156E-3	-20.8180E-3
4.00450E-3	161.272E-12	579.273E-3	-7.40362E-3	166.149E-12	552.664E-3	7.15390E-3
3.99950E-3	162.448E-12	565.306E-3	780.702E-6	165.549E-12	556.892E-3	-6.54542E-3
3.99450E-3	162.202E-12	557.635E-3	-10.4743E-3	164.452E-12	568.728E-3	-30.5196E-3
3.98949E-3	162.486E-12	550.513E-3	-47.4990E-3	163.543E-12	554.830E-3	-30.9808E-3
3.98449E-3	163.059E-12	568.082E-3	-47.0653E-3	161.975E-12	519.402E-3	-10.1372E-3
3.97949E-3	162.314E-12	563.162E-3	-28.0189E-3	160.879E-12	514.621E-3	18.3671E-3
3.97449E-3	162.595E-12	545.691E-3	-24.4628E-3	160.538E-12	522.966E-3	10.3753E-3
3.96948E-3	162.431E-12	544.492E-3	-392.325E-6	159.772E-12	520.009E-3	-21.8058E-3
3.96448E-3	162.466E-12	536.227E-3	30.4930E-3	160.317E-12	540.592E-3	-10.4923E-3
3.95948E-3	161.330E-12	555.788E-3	21.8295E-3	160.927E-12	569.928E-3	13.6867E-3
3.95448E-3	161.611E-12	593.210E-3	-736.146E-6	160.625E-12	567.166E-3	-7.87573E-3
3.94947E-3	161.453E-12	595.797E-3	-5.70712E-3	161.489E-12	539.290E-3	-39.5160E-3
3.94447E-3	161.368E-12	563.875E-3	-11.8098E-3	161.953E-12	520.606E-3	-49.4366E-3
3.93947E-3	159.991E-12	536.041E-3	-4.51998E-3	162.059E-12	562.059E-3	-39.0439E-3
3.93447E-3	161.153E-12	526.827E-3	13.6256E-3	161.860E-12	627.018E-3	-18.0058E-3
3.92946E-3	160.630E-12	531.673E-3	11.7549E-3	162.688E-12	640.711E-3	-7.64327E-3
3.92446E-3	160.212E-12	562.034E-3	-5.14414E-3	162.389E-12	610.109E-3	-31.6288E-3
3.91946E-3	159.968E-12	573.369E-3	1.92310E-3	161.570E-12	565.095E-3	-57.5547E-3
3.91446E-3	161.299E-12	553.307E-3	4.93394E-3	162.942E-12	548.975E-3	-51.2109E-3
3.90945E-3	161.251E-12	542.147E-3	-18.6173E-3	162.061E-12	560.227E-3	-37.3440E-3
3.90445E-3	160.844E-12	558.445E-3	-19.3241E-3	160.667E-12	555.299E-3	-16.9042E-3
3.89945E-3	161.880E-12	591.669E-3	-4.20779E-3	160.627E-12	560.080E-3	-11.9136E-3
3.89445E-3	162.020E-12	613.198E-3	4.12943E-3	160.110E-12	575.283E-3	-24.6397E-3
3.88944E-3	161.733E-12	597.683E-3	-8.73028E-3	159.001E-12	572.214E-3	-1.00135E-3
3.88444E-3	162.417E-12	563.831E-3	-39.2649E-3	158.295E-12	568.689E-3	18.9448E-3
3.87944E-3	162.137E-12	557.745E-3	-44.9933E-3	158.554E-12	563.975E-3	112.766E-6
3.87444E-3	161.283E-12	561.347E-3	-13.9781E-3	157.386E-12	555.322E-3	-8.32033E-3
3.86943E-3	160.723E-12	551.987E-3	-6.95499E-3	156.595E-12	567.738E-3	-7.75594E-3
3.86443E-3	160.497E-12	560.735E-3	-38.4427E-3	156.666E-12	579.606E-3	-24.0233E-3
3.85943E-3	158.830E-12	573.063E-3	-42.7206E-3	156.676E-12	566.654E-3	-29.9958E-3
3.85443E-3	158.412E-12	577.828E-3	-20.3133E-3	156.224E-12	546.164E-3	-8.49452E-3
3.84942E-3	158.267E-12	604.938E-3	-17.3056E-3	155.845E-12	538.542E-3	-7.97548E-3
3.84442E-3	157.399E-12	611.182E-3	-23.2967E-3	156.029E-12	551.772E-3	-19.9545E-3
3.83942E-3	157.017E-12	569.795E-3	-16.5782E-3	155.562E-12	568.326E-3	-9.79045E-3
3.83442E-3	156.715E-12	531.291E-3	-26.3601E-3	155.021E-12	568.210E-3	-10.4026E-3
3.82941E-3	156.431E-12	535.939E-3	-39.0848E-3	154.687E-12	559.967E-3	-33.7155E-3
3.82441E-3	156.822E-12	573.139E-3	-30.1937E-3	154.920E-12	565.214E-3	-32.1631E-3
3.81941E-3	156.841E-12	604.963E-3	-26.2339E-3	154.411E-12	582.853E-3	-410.697E-6
3.81441E-3	156.717E-12	608.598E-3	-23.4642E-3	154.757E-12	585.231E-3	-280.248E-6
3.80940E-3	156.647E-12	587.910E-3	-11.6111E-3	154.022E-12	566.608E-3	-14.8111E-3
3.80440E-3	157.103E-12	567.955E-3	-10.0296E-3	154.043E-12	555.417E-3	9.96065E-3
3.79940E-3	156.947E-12	550.104E-3	-13.8371E-3	154.587E-12	557.099E-3	11.8430E-3
3.79440E-3	156.805E-12	537.053E-3	-18.6392E-3	154.325E-12	574.315E-3	-34.3220E-3
3.78939E-3	156.372E-12	561.912E-3	-24.9994E-3	154.082E-12	596.617E-3	-58.2703E-3
3.78439E-3	156.342E-12	591.153E-3	-19.5970E-3	155.130E-12	584.012E-3	-48.6696E-3
3.77939E-3	155.383E-12	571.780E-3	-7.01966E-3	154.846E-12	530.218E-3	-19.4595E-3
3.77439E-3	154.540E-12	563.519E-3	-2.67238E-3	154.141E-12	499.554E-3	-7.41146E-3
3.76938E-3	153.732E-12	583.654E-3	-2.48677E-3	155.255E-12	519.865E-3	-22.3369E-3
3.76438E-3	153.031E-12	576.939E-3	1.33833E-3	154.956E-12	545.296E-3	-23.0951E-3
3.75938E-3	152.439E-12	559.021E-3	-5.48472E-3	153.408E-12	560.714E-3	-5.49643E-3
3.75438E-3	151.879E-12	548.878E-3	-19.7031E-3	153.966E-12	558.410E-3	-1.58130E-3
3.74937E-3	151.722E-12	540.602E-3	-25.0613E-3	153.407E-12	557.522E-3	-11.8972E-3
3.74437E-3	151.608E-12	548.993E-3	-16.5177E-3	152.864E-12	566.947E-3	-8.55303E-3
3.73937E-3	151.200E-12	562.998E-3	5.89971E-3	152.549E-12	558.257E-3	-8.07001E-3
3.73437E-3	151.258E-12	563.859E-3	25.0406E-3	152.471E-12	549.099E-3	-10.7934E-3
3.72936E-3	151.228E-12	567.736E-3	8.57608E-3	151.581E-12	541.376E-3	4.72519E-3
3.72436E-3	150.628E-12	574.051E-3	-24.3211E-3	152.656E-12	517.485E-3	-3.90397E-3
3.71936E-3	151.452E-12	566.904E-3	-22.9666E-3	152.161E-12	515.123E-3	-36.4228E-3
3.71436E-3	151.572E-12	552.479E-3	-2.92276E-3	151.957E-12	547.495E-3	-30.3952E-3
3.70935E-3	151.108E-12	555.403E-3	-1.25920E-3	152.939E-12	577.911E-3	-15.0485E-3
3.70435E-3	151.561E-12	569.329E-3	-380.162E-6	153.523E-12	575.118E-3	-4.94881E-3
3.69935E-3	151.490E-12	568.186E-3	2.84477E-3	153.375E-12	546.503E-3	8.96770E-3
3.69435E-3	150.688E-12	576.760E-3	-12.1708E-3	154.207E-12	539.354E-3	-7.72544E-3
3.68934E-3	150.966E-12	605.157E-3	-21.2559E-3	154.564E-12	553.318E-3	-22.2349E-3
3.68434E-3	151.040E-12	593.909E-3	-19.3643E-3	154.004E-12	553.698E-3	-2.98043E-3
3.67934E-3	150.533E-12	566.611E-3	-22.2003E-3	154.189E-12	561.229E-3	3.75653E-3
3.67434E-3	149.630E-12	564.280E-3	-18.9326E-3	153.474E-12	578.333E-3	-21.7636E-3
3.66933E-3	150.217E-12	544.135E-3	-14.6263E-3	152.978E-12	586.034E-3	-32.1561E-3
3.66433E-3	150.127E-12	526.270E-3	-37.3018E-3	152.523E-12	595.533E-3	-17.5572E-3
3.65933E-3	150.253E-12	537.127E-3	-56.7920E-3	151.580E-12	572.648E-3	-11.3283E-3
3.65433E-3	149.963E-12	550.848E-3	-45.5871E-3	150.337E-12	530.604E-3	-18.5055E-3
3.64932E-3	150.094E-12	551.699E-3	-36.0372E-3	149.827E-12	532.702E-3	-22.4782E-3
3.64432E-3	149.711E-12	551.152E-3	-36.5534E-3	149.688E-12	547.013E-3	-24.1544E-3
3.63932E-3	149.227E-12	560.821E-3	-30.3159E-3	147.824E-12	557.404E-3	-24.9861E-3
3.63432E-3	149.721E-12	573.838E-3	-25.2318E-3	148.337E-12	570.377E-3	-18.1682E-3
3.62931E-3	149.353E-12	558.887E-3	-21.8405E-3	148.195E-12	558.931E-3	-5.66172E-3
3.62431E-3	149.193E-12	529.660E-3	-18.0224E-3	147.628E-12	551.807E-3	-2.05015E-3
3.61931E-3	149.164E-12	544.586E-3	-26.1867E-3	147.853E-12	563.778E-3	-8.77904E-3
3.61431E-3	149.133E-12	586.215E-3	-18.7960E-3	148.390E-12	557.751E-3	-17.6090E-3
3.60930E-3	149.085E-12	593.852E-3	-5.34960E-3	148.102E-12	536.636E-3	-18.3161E-3
3.60430E-3	148.519E-12	586.064E-3	-7.19462E-3	148.604E-12	532.158E-3	7.25911E-3
3.59930E-3	148.599E-12	581.157E-3	-7.26565E-3	149.008E-12	530.736E-3	18.0667E-3
3.59430E-3	148.593E-12	551.242E-3	-13.7773E-3	149.272E-12	527.337E-3	-5.23263E-3
3.58929E-3	148.549E-12	538.870E-3	-30.5525E-3	148.995E-12	552.781E-3	-28.3681E-3
3.58429E-3	147.532E-12	568.778E-3	-32.5728E-3	148.698E-12	575.676E-3	-46.4101E-3
3.57929E-3	148.731E-12	573.954E-3	-27.3725E-3	147.711E-12	555.971E-3	-45.5045E-3
3.57429E-3	148.151E-12	561.198E-3	-42.4549E-3	146.885E-12	523.891E-3	-24.1475E-3
3.56928E-3	148.494E-12	580.043E-3	-36.5616E-3	146.715E-12	503.670E-3	-26.3287E-3
3.56428E-3	148.029E-12	583.119E-3	4.29460E-3	145.651E-12	502.069E-3	-53.3045E-3
3.55928E-3	147.982E-12	559.572E-3	24.9187E-3	144.390E-12	523.275E-3	-53.6925E-3
3.55428E-3	147.475E-12	557.647E-3	-2.46947E-3	144.021E-12	547.757E-3	-30.6630E-3
3.54927E-3	147.383E-12	560.174E-3	-33.1320E-3	143.420E-12	556.622E-3	-15.9081E-3
3.54427E-3	147.169E-12	560.222E-3	-36.4726E-3	143.007E-12	561.610E-3	-11.6043E-3
3.53927E-3	146.581E-12	580.383E-3	-36.0807E-3	142.721E-12	571.582E-3	-23.6708E-3
3.53427E-3	145.664E-12	580.035E-3	-42.8161E-3	142.763E-12	563.710E-3	-36.7840E-3
3.52926E-3	144.974E-12	554.892E-3	-45.5536E-3	142.998E-12	564.976E-3	-15.1250E-3
3.52426E-3	144.394E-12	552.623E-3	-25.5751E-3	143.680E-12	564.170E-3	16.7702E-3
3.51926E-3	144.338E-12	549.335E-3	-6.84784E-3	143.919E-12	523.267E-3	27.2372E-3
3.51426E-3	143.231E-12	527.738E-3	-16.5799E-3	144.867E-12	510.154E-3	8.51732E-3
3.50925E-3	143.331E-12	520.761E-3	-16.1113E-3	144.821E-12	540.425E-3	-28.9621E-3
3.50425E-3	143.113E-12	525.806E-3	-1.68623E-3	145.014E-12	557.211E-3	-30.1920E-3
3.49925E-3	143.070E-12	527.790E-3	1.56172E-3	145.239E-12	551.557E-3	-2.78272E-3
3.49425E-3	143.065E-12	531.577E-3	-6.28851E-3	145.489E-12	538.520E-3	-9.96366E-3
3.48924E-3	143.464E-12	532.045E-3	-24.3206E-3	144.664E-12	551.628E-3	-38.7926E-3
3.48424E-3	143.980E-12	534.409E-3	-37.7722E-3	143.977E-12	579.016E-3	-32.2457E-3
3.47924E-3	144.469E-12	540.531E-3	-49.1241E-3	143.408E-12	586.088E-3	-5.88270E-3
3.47424E-3	143.923E-12	542.331E-3	-60.5785E-3	143.394E-12	574.418E-3	-4.95184E-3
3.46923E-3	144.768E-12	543.743E-3	-45.8822E-3	142.181E-12	556.753E-3	-36.7891E-3
3.46423E-3	144.415E-12	538.725E-3	-27.1150E-3	141.622E-12	547.471E-3	-58.7184E-3
3.45923E-3	144.314E-12	540.044E-3	-27.2769E-3	141.901E-12	533.379E-3	-47.8029E-3
3.45423E-3	143.303E-12	542.753E-3	-17.8703E-3	141.560E-12	512.890E-3	-24.1257E-3
3.44922E-3	143.019E-12	543.208E-3	-6.21618E-3	141.051E-12	524.043E-3	-11.1266E-3
3.44422E-3	142.158E-12	549.613E-3	1.58529E-3	141.522E-12	548.316E-3	-19.3412E-3
3.43922E-3	141.678E-12	561.405E-3	2.99957E-3	141.458E-12	541.167E-3	-15.1533E-3
3.43422E-3	141.345E-12	568.288E-3	-17.7866E-3	140.661E-12	551.273E-3	-7.89877E-3
3.42921E-3	140.169E-12	568.554E-3	-28.2438E-3	141.747E-12	573.365E-3	-17.2216E-3
3.42421E-3	139.675E-12	576.405E-3	-14.2624E-3	142.292E-12	563.811E-3	-17.9815E-3
3.41921E-3	139.827E-12	575.409E-3	856.131E-6	141.307E-12	547.561E-3	-30.9775E-3
3.41421E-3	138.908E-12	555.648E-3	20.8958E-3	142.058E-12	545.429E-3	-48.8100E-3
3.40920E-3	138.767E-12	519.768E-3	11.9143E-3	141.781E-12	554.019E-3	-37.2393E-3
3.40420E-3	139.492E-12	504.218E-3	-33.6124E-3	141.732E-12	555.871E-3	-22.5654E-3
3.39920E-3	139.443E-12	523.444E-3	-35.0995E-3	141.128E-12	560.730E-3	-24.9144E-3
3.39420E-3	139.770E-12	544.219E-3	-10.1760E-3	141.403E-12	562.356E-3	-38.7203E-3
3.38919E-3	140.490E-12	553.525E-3	-15.6988E-3	140.547E-12	553.909E-3	-41.1976E-3
3.38419E-3	141.652E-12	562.986E-3	-29.3219E-3	140.377E-12	562.569E-3	-26.8553E-3
3.37919E-3	141.464E-12	576.821E-3	-46.1948E-3	140.056E-12	570.064E-3	-19.4981E-3
3.37419E-3	141.284E-12	583.335E-3	-56.0665E-3	140.014E-12	561.397E-3	-21.1622E-3
3.36918E-3	141.731E-12	582.708E-3	-50.5313E-3	139.530E-12	556.264E-3	-27.1585E-3
3.36418E-3	141.893E-12	575.170E-3	-39.2607E-3	140.033E-12	553.626E-3	-55.1648E-3
3.35918E-3	141.087E-12	558.434E-3	-23.1327E-3	139.433E-12	548.708E-3	-67.9834E-3
3.35418E-3	140.667E-12	556.230E-3	-18.7370E-3	138.489E-12	550.831E-3	-29.5994E-3
3.34917E-3	140.650E-12	578.911E-3	-13.1188E-3	139.120E-12	541.598E-3	8.84208E-3
3.34417E-3	140.013E-12	586.218E-3	-7.29658E-3	138.662E-12	524.330E-3	24.8441E-3
3.33917E-3	138.910E-12	568.646E-3	-13.3713E-3	138.195E-12	549.190E-3	14.7148E-3
3.33417E-3	138.270E-12	555.908E-3	-12.6870E-3	138.360E-12	581.924E-3	-11.2290E-3
3.32916E-3	137.946E-12	547.706E-3	-4.51724E-3	137.856E-12	580.449E-3	-26.9069E-3
3.32416E-3	137.015E-12	544.695E-3	-1.72987E-3	137.316E-12	576.062E-3	-37.0913E-3
3.31916E-3	136.959E-12	560.543E-3	-7.31373E-3	137.154E-12	576.563E-3	-22.7082E-3
3.31416E-3	137.036E-12	566.247E-3	-10.2602E-3	137.193E-12	570.631E-3	-12.4678E-3
3.30915E-3	135.838E-12	555.192E-3	60.3027E-6	136.285E-12	569.497E-3	-31.9299E-3
3.30415E-3	136.480E-12	546.355E-3	12.0869E-3	136.252E-12	580.504E-3	-24.1242E-3
3.29915E-3	136.695E-12	538.082E-3	5.24943E-3	136.720E-12	578.803E-3	-4.23715E-3
3.29415E-3	136.986E-12	533.389E-3	-8.25339E-3	136.320E-12	550.430E-3	1.30383E-3
3.28914E-3	136.401E-12	538.355E-3	-6.35797E-3	136.154E-12	532.933E-3	-5.01757E-3
3.28414E-3	137.810E-12	558.534E-3	-2.19028E-3	136.549E-12	532.639E-3	-22.5348E-3
3.27914E-3	137.378E-12	567.381E-3	-8.46251E-3	136.967E-12	540.700E-3	-27.1911E-3
3.27414E-3	137.187E-12	564.770E-3	-7.21341E-3	136.847E-12	560.386E-3	-29.8790E-3
3.26913E-3	137.577E-12	571.245E-3	438.075E-6	136.518E-12	556.348E-3	-22.3754E-3
3.26413E-3	138.143E-12	574.436E-3	-12.4791E-3	136.860E-12	548.765E-3	-812.125E-6
3.25913E-3	136.831E-12	565.777E-3	-21.3832E-3	136.713E-12	572.978E-3	-2.76972E-3
3.25413E-3	136.574E-12	549.529E-3	-9.12114E-3	136.051E-12	584.636E-3	-2.76162E-3
3.24912E-3	136.300E-12	541.538E-3	-13.9229E-3	135.789E-12	560.195E-3	11.1956E-3
3.24412E-3	135.550E-12	556.651E-3	-35.0629E-3	135.157E-12	528.082E-3	5.58807E-3
3.23912E-3	134.592E-12	570.172E-3	-38.9964E-3	134.408E-12	521.736E-3	-16.2431E-3
3.23412E-3	134.220E-12	571.998E-3	-39.3386E-3	133.363E-12	555.801E-3	-35.8861E-3
3.22911E-3	133.213E-12	581.662E-3	-38.3117E-3	133.160E-12	587.398E-3	-41.8811E-3
3.22411E-3	132.677E-12	580.186E-3	-24.1118E-3	132.524E-12	579.955E-3	-17.6351E-3
3.21911E-3	132.815E-12	559.256E-3	-22.7300E-3	132.313E-12	556.485E-3	17.6508E-3
3.21411E-3	132.236E-12	551.413E-3	-29.1484E-3	131.649E-12	545.449E-3	10.8470E-3
3.20910E-3	131.780E-12	545.006E-3	-19.7558E-3	131.993E-12	548.800E-3	-15.3028E-3
3.20410E-3	131.999E-12	532.504E-3	-10.5388E-3	132.145E-12	570.630E-3	-12.2072E-3
3.19910E-3	131.728E-12	554.912E-3	-11.7539E-3	132.371E-12	603.501E-3	4.67130E-3
3.19410E-3	132.053E-12	586.567E-3	-20.0867E-3	132.187E-12	602.000E-3	9.99868E-3
3.18909E-3	131.461E-12	574.084E-3	-28.3795E-3	132.884E-12	570.619E-3	-9.77238E-3
3.18409E-3	131.908E-12	546.830E-3	-17.1478E-3	133.096E-12	560.514E-3	-30.1639E-3
3.17909E-3	131.501E-12	548.419E-3	-3.91370E-3	133.636E-12	558.408E-3	-17.1600E-3
3.17409E-3	131.881E-12	555.231E-3	-4.54734E-3	133.344E-12	542.697E-3	-4.62048E-3
3.16908E-3	131.402E-12	563.004E-3	2.91059E-3	133.352E-12	543.707E-3	-19.0372E-3
3.16408E-3	131.345E-12	570.800E-3	24.2754E-3	133.210E-12	566.854E-3	-24.7469E-3
3.15908E-3	131.087E-12	557.691E-3	20.8651E-3	132.778E-12	587.812E-3	-22.5453E-3
3.15408E-3	130.901E-12	558.399E-3	-11.5011E-3	131.549E-12	587.543E-3	-25.0259E-3
3.14907E-3	130.921E-12	570.471E-3	-31.4287E-3	131.475E-12	576.006E-3	-17.3919E-3
3.14407E-3	130.179E-12	553.345E-3	-38.0588E-3	131.006E-12	564.657E-3	-1.96087E-3
3.13907E-3	130.244E-12	539.665E-3	-33.3122E-3	129.806E-12	547.781E-3	5.81282E-3
3.13407E-3	129.786E-12	558.409E-3	-6.64836E-3	129.781E-12	537.404E-3	-7.47158E-3
3.12906E-3	129.503E-12	574.873E-3	165.815E-6	129.464E-12	547.631E-3	-16.0145E-3
3.12406E-3	128.713E-12	571.497E-3	-17.5328E-3	128.266E-12	567.767E-3	-3.22968E-3
3.11906E-3	129.141E-12	570.420E-3	-21.5853E-3	128.416E-12	575.537E-3	-10.9894E-3
3.11406E-3	128.407E-12	569.984E-3	-23.7875E-3	128.588E-12	558.794E-3	-43.4720E-3
3.10905E-3	127.753E-12	571.552E-3	-27.5060E-3	128.396E-12	543.823E-3	-57.0599E-3
3.10405E-3	127.445E-12	568.121E-3	-16.6223E-3	128.598E-12	547.141E-3	-43.0902E-3
3.09905E-3	127.622E-12	546.181E-3	-118.513E-6	129.407E-12	556.925E-3	-17.8289E-3
3.09405E-3	127.369E-12	532.926E-3	-2.49871E-3	129.496E-12	564.252E-3	2.58527E-3
3.08904E-3	126.965E-12	540.699E-3	-12.0851E-3	129.641E-12	553.990E-3	1.56058E-3
3.08404E-3	127.575E-12	547.273E-3	-9.16085E-3	130.055E-12	544.229E-3	-13.2956E-3
3.07904E-3	127.815E-12	554.177E-3	-7.82540E-3	129.834E-12	551.507E-3	-18.2048E-3
3.07404E-3	128.044E-12	574.902E-3	-10.2708E-3	129.485E-12	565.976E-3	-12.8112E-3
3.06903E-3	128.505E-12	575.001E-3	-14.5225E-3	129.658E-12	568.372E-3	-8.43638E-3
3.06403E-3	128.739E-12	565.468E-3	-23.7338E-3	129.286E-12	556.315E-3	-516.384E-6
3.05903E-3	128.791E-12	579.587E-3	-31.6560E-3	128.496E-12	557.911E-3	11.4623E-3
3.05403E-3	129.490E-12	584.058E-3	-24.4040E-3	128.090E-12	549.797E-3	5.83354E-3
3.04902E-3	130.381E-12	594.481E-3	-13.9981E-3	127.584E-12	532.104E-3	-250.427E-6
3.04402E-3	129.643E-12	624.139E-3	-20.8758E-3	127.100E-12	536.375E-3	-4.77755E-3
3.03902E-3	129.523E-12	619.253E-3	-24.8660E-3	126.026E-12	536.024E-3	-26.4857E-3
3.03402E-3	129.676E-12	588.891E-3	-31.7335E-3	125.702E-12	538.400E-3	-27.3320E-3
3.02901E-3	128.841E-12	573.444E-3	-41.8746E-3	125.230E-12	565.439E-3	-483.956E-6
3.02401E-3	128.167E-12	573.543E-3	-16.3633E-3	125.107E-12	582.837E-3	26.1213E-3
3.01901E-3	127.827E-12	584.471E-3	965.342E-6	124.276E-12	575.517E-3	37.6751E-3
3.01401E-3	126.658E-12	591.042E-3	-17.8788E-3	124.484E-12	576.896E-3	15.2159E-3
3.00900E-3	126.037E-12	588.142E-3	-18.3322E-3	124.280E-12	575.639E-3	-26.3696E-3
3.00400E-3	126.125E-12	575.364E-3	2.78706E-3	124.337E-12	562.207E-3	-26.8432E-3
2.99900E-3	125.438E-12	565.866E-3	6.37015E-3	124.332E-12	554.551E-3	-3.55931E-3
2.99400E-3	124.894E-12	567.949E-3	7.24756E-3	124.687E-12	546.378E-3	-8.75602E-3
2.98899E-3	125.206E-12	564.778E-3	10.7748E-3	123.918E-12	559.281E-3	-11.6243E-3
2.98399E-3	125.399E-12	560.835E-3	-10.0987E-3	124.231E-12	579.491E-3	-8.81176E-3
2.97899E-3	125.146E-12	566.533E-3	-15.4567E-3	123.990E-12	582.045E-3	-23.0947E-3
2.97399E-3	125.776E-12	579.458E-3	-14.5935E-3	124.031E-12	575.917E-3	-24.2187E-3
2.96898E-3	125.783E-12	585.118E-3	-40.7271E-3	123.696E-12	572.340E-3	-2.46729E-3
2.96398E-3	126.628E-12	584.390E-3	-52.5091E-3	123.451E-12	556.390E-3	-222.133E-6
2.95898E-3	126.570E-12	590.372E-3	-53.3232E-3	123.022E-12	541.139E-3	-24.2024E-3
2.95398E-3	127.358E-12	601.044E-3	-55.2263E-3	122.763E-12	565.737E-3	-38.3579E-3
2.94897E-3	126.614E-12	599.466E-3	-39.6874E-3	122.177E-12	589.390E-3	-38.0011E-3
2.94397E-3	126.381E-12	581.724E-3	-12.3575E-3	121.970E-12	575.947E-3	-23.2390E-3
2.93897E-3	126.216E-12	571.506E-3	3.96704E-3	121.706E-12	553.543E-3	-9.28953E-3
2.93397E-3	125.840E-12	588.579E-3	1.64075E-3	121.844E-12	561.015E-3	-16.4102E-3
2.92896E-3	125.180E-12	601.527E-3	-21.6513E-3	122.107E-12	572.040E-3	-21.4867E-3
2.92396E-3	124.444E-12	585.375E-3	-48.0464E-3	121.867E-12	571.555E-3	-7.65577E-3
2.91896E-3	123.449E-12	575.344E-3	-47.9440E-3	121.944E-12	585.432E-3	-8.60496E-3
2.91396E-3	121.984E-12	575.608E-3	-26.4584E-3	122.647E-12	590.397E-3	-28.3191E-3
2.90895E-3	121.258E-12	573.448E-3	-8.15331E-3	121.959E-12	587.939E-3	-38.2614E-3
2.90395E-3	121.044E-12	572.676E-3	-2.87119E-3	121.912E-12	602.641E-3	-37.1169E-3
2.89895E-3	120.174E-12	572.441E-3	3.62396E-3	122.120E-12	603.929E-3	-30.8567E-3
2.89395E-3	119.707E-12	582.525E-3	-11.3892E-3	121.594E-12	567.928E-3	-21.8382E-3
2.88894E-3	118.794E-12	593.309E-3	-33.1012E-3	121.685E-12	531.706E-3	-10.9688E-3
2.88394E-3	118.919E-12	579.836E-3	-23.9262E-3	121.876E-12	542.752E-3	-11.9934E-3
2.87894E-3	119.108E-12	557.842E-3	-12.0685E-3	121.820E-12	579.457E-3	-14.5829E-3
2.87394E-3	119.554E-12	549.619E-3	-6.84850E-3	121.336E-12	596.399E-3	-8.15857E-3
2.86893E-3	120.044E-12	551.294E-3	8.85298E-3	121.680E-12	597.956E-3	-6.62624E-3
2.86393E-3	121.094E-12	559.993E-3	31.2248E-3	121.955E-12	594.656E-3	-4.13363E-3
2.85893E-3	121.330E-12	571.145E-3	38.3811E-3	121.203E-12	582.296E-3	-5.58467E-3
2.85393E-3	120.913E-12	571.869E-3	26.5587E-3	121.174E-12	567.797E-3	-19.9125E-3
2.84892E-3	121.248E-12	561.568E-3	18.1743E-3	121.347E-12	575.644E-3	-42.4092E-3
2.84392E-3	121.129E-12	569.990E-3	10.5134E-3	120.739E-12	592.108E-3	-37.8253E-3
2.83892E-3	120.419E-12	597.777E-3	-11.5757E-3	120.628E-12	582.214E-3	-13.4875E-3
2.83392E-3	119.661E-12	603.354E-3	-24.4182E-3	120.723E-12	558.664E-3	-13.9295E-3
2.82891E-3	119.301E-12	591.306E-3	-11.3459E-3	119.635E-12	545.665E-3	-23.7224E-3
2.82391E-3	118.005E-12	579.609E-3	1.23268E-3	119.854E-12	553.817E-3	-40.3900E-3
2.81891E-3	117.701E-12	565.837E-3	-14.0493E-3	120.007E-12	563.806E-3	-57.3656E-3
2.81391E-3	116.832E-12	569.738E-3	-22.8775E-3	119.389E-12	561.930E-3	-51.0672E-3
2.80890E-3	115.754E-12	585.525E-3	-6.36265E-3	119.111E-12	562.973E-3	-41.9555E-3
2.80390E-3	115.339E-12	579.942E-3	2.50684E-3	119.100E-12	571.528E-3	-43.7542E-3
2.79890E-3	114.978E-12	561.890E-3	-5.60576E-3	118.755E-12	592.810E-3	-35.1609E-3
2.79390E-3	114.622E-12	552.864E-3	-19.1438E-3	118.325E-12	605.821E-3	-21.4131E-3
2.78889E-3	114.566E-12	550.673E-3	-19.7699E-3	118.460E-12	591.511E-3	-7.76334E-3
2.78389E-3	114.551E-12	565.489E-3	-6.19661E-3	117.968E-12	577.407E-3	1.07503E-3
2.77889E-3	114.950E-12	592.319E-3	13.2084E-3	117.441E-12	579.176E-3	-15.3023E-3
2.77389E-3	115.115E-12	588.826E-3	9.49654E-3	117.553E-12	592.076E-3	-25.3718E-3
2.76888E-3	115.450E-12	571.316E-3	-14.9357E-3	117.194E-12	599.967E-3	-4.83696E-3
2.76388E-3	115.685E-12	572.926E-3	-20.3060E-3	116.951E-12	591.578E-3	-3.24036E-3
2.75888E-3	115.933E-12	574.489E-3	-29.9433E-3	117.288E-12	583.264E-3	-19.0753E-3
2.75388E-3	116.464E-12	565.328E-3	-42.8644E-3	116.887E-12	590.464E-3	3.38051E-3
2.74887E-3	116.960E-12	565.905E-3	-31.6443E-3	116.138E-12	603.664E-3	23.0910E-3
2.74387E-3	117.422E-12	572.912E-3	-10.5092E-3	115.941E-12	590.391E-3	2.36870E-3
2.73887E-3	117.224E-12	582.012E-3	9.83835E-3	115.592E-12	569.467E-3	-8.53805E-3
2.73387E-3	117.088E-12	604.324E-3	11.1001E-3	114.689E-12	570.747E-3	-2.93665E-3
2.72886E-3	117.392E-12	606.353E-3	-7.42127E-3	114.518E-12	570.714E-3	-15.9043E-3
2.72386E-3	116.594E-12	592.099E-3	-29.8466E-3	114.476E-12	573.880E-3	-16.2547E-3
2.71886E-3	116.099E-12	603.188E-3	-30.2010E-3	113.662E-12	588.938E-3	-4.16264E-3
2.71386E-3	115.421E-12	619.051E-3	-9.95161E-3	113.179E-12	587.069E-3	-22.2990E-3
2.70885E-3	114.864E-12	617.637E-3	-5.51814E-3	113.344E-12	569.187E-3	-35.0013E-3
2.70385E-3	113.930E-12	618.816E-3	-10.7996E-3	113.233E-12	557.421E-3	-31.3150E-3
2.69885E-3	113.550E-12	606.535E-3	-17.2433E-3	112.723E-12	551.823E-3	-21.2307E-3
2.69385E-3	112.727E-12	582.121E-3	-38.9669E-3	112.573E-12	557.705E-3	8.48434E-3
2.68884E-3	112.461E-12	575.364E-3	-60.0270E-3	113.064E-12	579.435E-3	8.42075E-3
2.68384E-3	111.954E-12	571.483E-3	-45.5820E-3	113.144E-12	574.522E-3	-28.3688E-3
2.67884E-3	111.578E-12	567.459E-3	-13.0622E-3	113.317E-12	552.622E-3	-49.2196E-3
2.67384E-3	111.792E-12	575.523E-3	8.21425E-3	113.523E-12	573.059E-3	-44.8350E-3
2.66883E-3	112.122E-12	589.115E-3	22.6296E-3	113.041E-12	603.058E-3	-25.7718E-3
2.66383E-3	111.740E-12	585.384E-3	13.0790E-3	113.007E-12	589.523E-3	-13.1891E-3
2.65883E-3	111.803E-12	567.149E-3	-24.6812E-3	113.729E-12	570.168E-3	-14.2874E-3
2.65383E-3	112.855E-12	548.122E-3	-39.3919E-3	112.989E-12	591.331E-3	-21.5818E-3
2.64882E-3	113.102E-12	542.900E-3	-14.9174E-3	112.245E-12	617.824E-3	-9.64734E-3
2.64382E-3	113.002E-12	573.103E-3	5.01808E-3	112.206E-12	616.492E-3	16.8722E-3
2.63882E-3	113.664E-12	602.761E-3	11.2249E-3	111.988E-12	590.251E-3	15.1218E-3
2.63382E-3	114.310E-12	595.137E-3	8.27447E-3	110.975E-12	555.910E-3	-48.8801E-6
2.62881E-3	113.753E-12	581.853E-3	-11.8655E-3	110.733E-12	554.159E-3	-6.62876E-3
2.62381E-3	113.967E-12	584.389E-3	-22.7478E-3	110.274E-12	578.147E-3	-25.0263E-3
2.61881E-3	113.618E-12	584.233E-3	-18.5568E-3	109.564E-12	588.132E-3	-44.7116E-3
2.61381E-3	113.072E-12	581.727E-3	-11.0762E-3	109.130E-12	590.511E-3	-38.5142E-3
2.60880E-3	112.642E-12	584.981E-3	6.85255E-3	109.358E-12	598.227E-3	-26.5847E-3
2.60380E-3	111.875E-12	588.293E-3	14.6233E-3	109.322E-12	592.623E-3	-27.2402E-3
2.59880E-3	111.043E-12	586.517E-3	432.303E-6	109.033E-12	584.876E-3	-18.8642E-3
2.59380E-3	110.074E-12	585.321E-3	-11.3496E-3	108.931E-12	586.221E-3	-2.34719E-3
2.58879E-3	109.236E-12	586.593E-3	-12.7410E-3	109.295E-12	581.302E-3	-918.588E-6
2.58379E-3	108.391E-12	593.288E-3	-17.1358E-3	109.184E-12	573.435E-3	-349.147E-6
2.57879E-3	107.876E-12	593.616E-3	-15.8783E-3	109.153E-12	574.392E-3	-5.21938E-3
2.57379E-3	107.016E-12	580.354E-3	2.45385E-3	109.241E-12	589.533E-3	-28.4629E-3
2.56878E-3	107.060E-12	578.618E-3	1.47792E-3	109.320E-12	618.590E-3	-33.0706E-3
2.56378E-3	106.507E-12	582.697E-3	-13.7136E-3	109.328E-12	627.493E-3	-11.7432E-3
2.55878E-3	106.342E-12	582.941E-3	-5.97004E-3	108.851E-12	596.312E-3	-1.14471E-3
2.55378E-3	106.964E-12	572.258E-3	3.00808E-3	108.848E-12	580.405E-3	-9.32900E-3
2.54877E-3	107.301E-12	557.435E-3	4.64553E-3	108.620E-12	589.761E-3	-22.6894E-3
2.54377E-3	107.165E-12	556.932E-3	14.3798E-3	107.449E-12	587.853E-3	-19.6080E-3
2.53877E-3	108.083E-12	556.426E-3	13.2605E-3	106.846E-12	583.406E-3	1.09524E-3
2.53377E-3	108.820E-12	568.227E-3	-16.2604E-3	107.018E-12	583.311E-3	9.90932E-3
2.52876E-3	108.682E-12	590.215E-3	-47.5443E-3	106.379E-12	581.000E-3	-2.15059E-3
2.52376E-3	109.524E-12	575.906E-3	-53.1001E-3	106.206E-12	582.521E-3	-8.99536E-3
2.51876E-3	109.699E-12	560.655E-3	-40.6158E-3	106.455E-12	589.117E-3	-10.5700E-3
2.51376E-3	108.967E-12	585.556E-3	-24.1050E-3	105.776E-12	584.354E-3	-16.4502E-3
2.50875E-3	108.185E-12	604.445E-3	-14.9817E-3	105.904E-12	564.968E-3	-18.9229E-3
2.50375E-3	108.209E-12	611.932E-3	-22.5125E-3	105.809E-12	553.159E-3	-29.4503E-3
2.49875E-3	106.972E-12	613.599E-3	-32.4614E-3	105.108E-12	556.096E-3	-39.8279E-3
2.49375E-3	105.974E-12	594.456E-3	-25.9674E-3	105.096E-12	551.849E-3	-34.6477E-3
2.48874E-3	105.596E-12	581.721E-3	-11.3678E-3	105.429E-12	547.424E-3	-28.3274E-3
2.48374E-3	104.077E-12	582.051E-3	-10.7246E-3	104.918E-12	558.939E-3	-30.8990E-3
2.47874E-3	103.561E-12	581.487E-3	-19.9800E-3	105.306E-12	564.579E-3	-30.4678E-3
2.47374E-3	103.434E-12	574.991E-3	-24.6572E-3	105.633E-12	577.336E-3	-30.1900E-3
2.46873E-3	103.157E-12	551.701E-3	-19.2522E-3	105.000E-12	611.761E-3	-30.8655E-3
2.46373E-3	102.122E-12	540.620E-3	-3.44647E-3	105.382E-12	626.027E-3	-24.7838E-3
2.45873E-3	102.521E-12	558.635E-3	-6.63612E-3	106.310E-12	624.630E-3	-23.4180E-3
2.45373E-3	102.764E-12	566.424E-3	-10.2623E-3	105.931E-12	626.644E-3	-35.6493E-3
2.44872E-3	102.696E-12	560.044E-3	-5.07362E-3	105.188E-12	612.271E-3	-43.8908E-3
2.44372E-3	102.942E-12	561.624E-3	-26.3115E-3	105.339E-12	591.711E-3	-33.0081E-3
2.43872E-3	103.911E-12	570.002E-3	-35.2278E-3	105.092E-12	576.883E-3	-19.0079E-3
2.43372E-3	104.330E-12	573.907E-3	-18.3709E-3	104.717E-12	553.735E-3	-10.1239E-3
2.42871E-3	104.374E-12	575.894E-3	-21.4917E-3	104.970E-12	540.238E-3	4.18339E-3
2.42371E-3	105.248E-12	587.711E-3	-27.6573E-3	104.445E-12	556.002E-3	11.0128E-3
2.41871E-3	105.235E-12	607.917E-3	-23.7286E-3	103.251E-12	569.303E-3	8.97475E-3
2.41371E-3	105.291E-12	624.603E-3	-27.1421E-3	103.087E-12	577.674E-3	10.9612E-3
2.40870E-3	105.167E-12	614.582E-3	-33.7070E-3	102.953E-12	589.135E-3	6.62067E-3
2.40370E-3	104.636E-12	587.676E-3	-34.4582E-3	102.177E-12	585.153E-3	929.958E-6
2.39870E-3	103.795E-12	586.673E-3	-32.4691E-3	101.404E-12	575.781E-3	-3.20871E-3
2.39370E-3	103.294E-12	589.197E-3	-32.9183E-3	101.344E-12	582.457E-3	-18.0593E-3
2.38869E-3	102.490E-12	578.420E-3	-25.6111E-3	101.148E-12	600.695E-3	-21.7465E-3
2.38369E-3	101.685E-12	570.318E-3	-24.5272E-3	100.161E-12	615.111E-3	-7.27713E-3
2.37869E-3	100.793E-12	568.358E-3	-35.9355E-3	100.727E-12	607.121E-3	-5.25045E-3
2.37369E-3	99.9897E-12	567.727E-3	-33.3201E-3	101.177E-12	580.976E-3	-14.7816E-3
2.36868E-3	99.6019E-12	564.503E-3	-27.2843E-3	100.793E-12	576.241E-3	-8.99185E-3
2.36368E-3	99.2817E-12	571.069E-3	-25.0311E-3	100.308E-12	591.236E-3	12.2671E-3
2.35868E-3	98.8149E-12	584.660E-3	-11.6068E-3	101.036E-12	607.852E-3	6.71472E-3
2.35368E-3	98.5083E-12	589.300E-3	1.39357E-3	101.154E-12	599.206E-3	-21.0016E-3
2.34867E-3	99.7819E-12	585.804E-3	-3.86417E-3	100.843E-12	577.496E-3	-36.1065E-3
2.34367E-3	99.2687E-12	587.442E-3	-16.3972E-3	101.277E-12	577.195E-3	-42.0086E-3
2.33867E-3	99.6874E-12	582.482E-3	-26.9730E-3	101.367E-12	588.092E-3	-22.4800E-3
2.33367E-3	100.361E-12	563.779E-3	-38.4820E-3	100.599E-12	604.111E-3	3.41774E-3
2.32866E-3	100.217E-12	553.673E-3	-32.2146E-3	100.250E-12	604.420E-3	-1.85613E-3
2.32366E-3	100.027E-12	560.220E-3	-19.5701E-3	100.374E-12	582.936E-3	-3.96477E-3
2.31866E-3	101.277E-12	585.814E-3	-23.1888E-3	99.4692E-12	564.412E-3	-314.828E-6
2.31366E-3	100.786E-12	608.494E-3	-14.0291E-3	99.2415E-12	556.198E-3	-16.4561E-3
2.30865E-3	99.9815E-12	595.092E-3	9.37535E-3	98.6902E-12	558.020E-3	-16.8540E-3
2.30365E-3	100.088E-12	575.918E-3	8.87100E-3	98.0168E-12	568.583E-3	-2.89795E-3
2.29865E-3	100.190E-12	585.690E-3	-8.67929E-3	97.8271E-12	571.524E-3	-12.5027E-3
2.29365E-3	98.6863E-12	592.380E-3	-22.7958E-3	97.8600E-12	568.451E-3	-23.9564E-3
2.28864E-3	98.1214E-12	590.158E-3	-26.0711E-3	97.2736E-12	587.861E-3	-12.8033E-3
2.28364E-3	98.2432E-12	599.339E-3	-11.8479E-3	96.8684E-12	601.501E-3	-16.7322E-3
2.27864E-3	97.1050E-12	598.996E-3	-3.33936E-3	96.9298E-12	577.519E-3	-43.9344E-3
2.27364E-3	96.2962E-12	590.373E-3	-13.8852E-3	96.8755E-12	562.258E-3	-36.4924E-3
2.26863E-3	96.0491E-12	592.522E-3	-19.5420E-3	96.9959E-12	577.075E-3	-15.4197E-3
2.26363E-3	95.7231E-12	591.044E-3	-18.7250E-3	97.0705E-12	581.106E-3	-20.9198E-3
2.25863E-3	95.1003E-12	578.528E-3	-8.87516E-3	97.5271E-12	585.736E-3	-15.1700E-3
2.25363E-3	94.4276E-12	562.334E-3	17.2029E-3	97.3054E-12	598.944E-3	-6.69812E-3
2.24862E-3	94.8163E-12	547.225E-3	20.9023E-3	97.5398E-12	578.699E-3	-20.7584E-3
2.24362E-3	94.8439E-12	545.880E-3	-167.368E-6	97.3236E-12	560.128E-3	-17.9877E-3
2.23862E-3	94.5206E-12	563.534E-3	3.83859E-3	97.7513E-12	572.276E-3	-8.75124E-3
2.23362E-3	94.5120E-12	579.834E-3	18.0585E-3	97.3146E-12	570.029E-3	-20.6613E-3
2.22861E-3	95.2174E-12	576.978E-3	12.3936E-3	97.3101E-12	556.145E-3	-29.9798E-3
2.22361E-3	95.4495E-12	569.471E-3	5.87061E-3	97.1767E-12	559.941E-3	-25.7556E-3
2.21861E-3	95.7287E-12	569.293E-3	3.41073E-3	96.3585E-12	572.390E-3	-19.6487E-3
2.21361E-3	96.0800E-12	566.483E-3	-14.8196E-3	95.7629E-12	588.240E-3	-10.8825E-3
2.20860E-3	95.9784E-12	579.168E-3	-34.8811E-3	95.5300E-12	603.110E-3	-10.7447E-3
2.20360E-3	95.8646E-12	611.482E-3	-23.4672E-3	95.2102E-12	599.300E-3	-11.2172E-3
2.19860E-3	96.1237E-12	615.812E-3	-169.651E-6	94.0839E-12	584.391E-3	9.03401E-3
2.19360E-3	95.7515E-12	599.038E-3	7.39694E-3	93.6580E-12	574.866E-3	12.2752E-3
2.18859E-3	95.6640E-12	594.353E-3	1.98054E-3	93.4197E-12	572.890E-3	-11.9212E-3
2.18359E-3	95.0537E-12	592.595E-3	-17.0107E-3	92.8552E-12	564.094E-3	-13.8708E-3
2.17859E-3	94.7220E-12	596.057E-3	-34.8460E-3	92.3739E-12	550.964E-3	-4.96165E-3
2.17359E-3	94.0033E-12	592.252E-3	-35.5457E-3	92.3573E-12	565.017E-3	-17.5043E-3
2.16858E-3	93.7563E-12	576.411E-3	-22.9188E-3	92.4185E-12	586.117E-3	-29.3873E-3
2.16358E-3	92.6724E-12	573.223E-3	-10.3697E-3	92.5503E-12	602.190E-3	-30.2931E-3
2.15858E-3	92.0624E-12	576.715E-3	-20.4321E-3	92.5505E-12	607.181E-3	-31.8258E-3
2.15358E-3	91.7484E-12	569.141E-3	-31.6902E-3	92.4990E-12	583.069E-3	-25.5906E-3
2.14857E-3	91.2029E-12	559.013E-3	-13.7057E-3	92.2771E-12	562.865E-3	-15.0187E-3
2.14357E-3	90.7659E-12	562.316E-3	-3.13280E-3	92.3367E-12	553.411E-3	-16.4589E-3
2.13857E-3	91.1886E-12	570.568E-3	-8.96540E-3	92.6699E-12	545.132E-3	-18.0723E-3
2.13357E-3	91.0746E-12	579.183E-3	-11.6383E-3	92.4164E-12	560.801E-3	-8.20831E-3
2.12856E-3	90.8937E-12	593.443E-3	-19.4875E-3	92.0490E-12	591.632E-3	-277.544E-6
2.12356E-3	91.2863E-12	595.410E-3	-28.3796E-3	91.8919E-12	587.119E-3	-14.4823E-3
2.11856E-3	91.4853E-12	571.855E-3	-27.1494E-3	92.2228E-12	564.659E-3	-36.0537E-3
2.11356E-3	91.9255E-12	545.786E-3	-7.30657E-3	91.4657E-12	569.390E-3	-42.6748E-3
2.10855E-3	92.3526E-12	534.161E-3	3.24225E-3	91.0048E-12	570.441E-3	-35.2390E-3
2.10355E-3	92.4633E-12	542.349E-3	-13.6488E-3	90.9402E-12	564.413E-3	-18.2659E-3
2.09855E-3	92.9502E-12	573.774E-3	-11.8938E-3	90.3534E-12	563.092E-3	-19.2558E-3
2.09355E-3	92.8567E-12	600.289E-3	-8.34027E-3	89.8863E-12	547.743E-3	-28.0760E-3
2.08854E-3	92.6904E-12	604.607E-3	-32.7235E-3	89.5328E-12	543.138E-3	-8.90465E-3
2.08354E-3	92.3036E-12	597.163E-3	-25.7991E-3	88.9118E-12	567.120E-3	-547.085E-6
2.07854E-3	91.3112E-12	578.698E-3	5.47021E-3	88.5971E-12	575.680E-3	-7.82515E-3
2.07354E-3	90.7349E-12	553.709E-3	967.477E-6	88.5357E-12	567.543E-3	-7.09855E-3
2.06853E-3	90.3829E-12	561.238E-3	-10.0963E-3	88.6350E-12	570.267E-3	-17.2608E-3
2.06353E-3	89.4864E-12	580.926E-3	-7.18840E-3	88.4713E-12	562.833E-3	-24.8153E-3
2.05853E-3	88.2070E-12	581.336E-3	-10.4608E-3	88.3680E-12	553.096E-3	-15.7718E-3
2.05353E-3	87.9366E-12	587.912E-3	-14.6187E-3	88.3615E-12	567.373E-3	-20.4073E-3
2.04852E-3	87.2685E-12	594.146E-3	-14.7959E-3	88.5090E-12	577.660E-3	-42.1429E-3
2.04352E-3	86.9142E-12	587.620E-3	-11.8371E-3	88.3730E-12	576.283E-3	-37.8577E-3
2.03852E-3	86.5477E-12	574.672E-3	-9.79687E-3	88.0175E-12	599.521E-3	-20.5972E-3
2.03352E-3	86.7688E-12	561.269E-3	-6.29970E-3	88.2747E-12	607.998E-3	-32.8761E-3
2.02851E-3	86.5692E-12	553.395E-3	-10.6896E-3	88.4089E-12	570.709E-3	-33.2918E-3
2.02351E-3	86.7931E-12	569.962E-3	-31.2710E-3	88.2083E-12	553.670E-3	-9.01841E-3
2.01851E-3	87.1927E-12	585.698E-3	-38.1986E-3	87.8207E-12	574.567E-3	-9.23275E-3
2.01351E-3	87.2638E-12	574.386E-3	-27.6189E-3	87.7418E-12	585.516E-3	-6.19954E-3
2.00850E-3	87.3866E-12	581.179E-3	-16.1598E-3	87.4099E-12	575.934E-3	7.42555E-3
2.00350E-3	87.7724E-12	599.631E-3	-8.56625E-3	86.9994E-12	567.567E-3	-795.027E-6
1.99850E-3	87.9392E-12	588.310E-3	-9.47737E-3	86.6582E-12	564.401E-3	-12.1291E-3
1.99350E-3	88.0977E-12	581.698E-3	-10.8916E-3	86.6505E-12	572.930E-3	-12.3526E-3
1.98849E-3	87.7718E-12	592.258E-3	3.76182E-3	86.0592E-12	587.260E-3	-12.6605E-3
1.98349E-3	87.6621E-12	587.007E-3	6.69827E-3	85.6361E-12	586.457E-3	-14.6463E-3
1.97849E-3	87.0358E-12	587.370E-3	-19.9531E-3	85.3845E-12	573.291E-3	3.43664E-3
1.97349E-3	86.4020E-12	590.779E-3	-25.0388E-3	85.0227E-12	562.269E-3	17.2749E-3
1.96848E-3	85.4272E-12	577.643E-3	-5.57467E-3	84.3500E-12	547.670E-3	-10.8729E-3
1.96348E-3	85.0739E-12	570.426E-3	-1.41109E-3	84.3954E-12	538.754E-3	-32.4536E-3
1.95848E-3	84.3238E-12	559.881E-3	78.1165E-6	84.1775E-12	551.723E-3	-15.4716E-3
1.95348E-3	83.6756E-12	544.422E-3	7.57686E-3	83.7127E-12	564.490E-3	690.927E-6
1.94847E-3	83.1775E-12	554.181E-3	-5.29274E-3	83.8341E-12	568.192E-3	859.576E-6
1.94347E-3	82.7545E-12	569.444E-3	-24.8532E-3	83.6781E-12	564.516E-3	-8.00100E-3
1.93847E-3	82.3331E-12	554.267E-3	-31.8354E-3	84.0607E-12	554.887E-3	-12.4023E-3
1.93347E-3	82.5029E-12	541.892E-3	-36.5913E-3	84.1117E-12	564.234E-3	-2.43482E-3
1.92846E-3	82.6802E-12	547.702E-3	-25.6243E-3	84.1945E-12	590.437E-3	8.27222E-3
1.92346E-3	82.7515E-12	537.566E-3	-7.56327E-3	84.2236E-12	592.979E-3	2.14801E-3
1.91846E-3	83.1511E-12	523.326E-3	-5.94565E-3	84.2276E-12	579.103E-3	-5.50773E-3
1.91346E-3	83.5507E-12	534.459E-3	-6.29905E-3	84.2318E-12	582.346E-3	-7.38014E-3
1.90845E-3	83.7376E-12	560.448E-3	-3.74459E-3	84.0260E-12	592.894E-3	-21.7226E-3
1.90345E-3	83.7900E-12	582.901E-3	-13.4851E-3	84.1867E-12	591.104E-3	-22.7208E-3
1.89845E-3	84.1958E-12	586.551E-3	-21.5592E-3	83.5903E-12	588.118E-3	-3.37357E-3
1.89345E-3	84.1094E-12	573.526E-3	-23.3790E-3	83.6519E-12	593.609E-3	-4.57275E-3
1.88844E-3	84.1208E-12	573.379E-3	-35.9215E-3	83.0418E-12	593.119E-3	-9.44016E-3
1.88344E-3	83.7223E-12	586.734E-3	-33.0837E-3	83.0657E-12	595.937E-3	1.43393E-3
1.87844E-3	83.7021E-12	590.377E-3	-4.99367E-3	82.1986E-12	595.372E-3	-5.23917E-3
1.87344E-3	83.0960E-12	585.930E-3	2.06383E-3	81.6417E-12	573.746E-3	-14.5887E-3
1.86843E-3	82.6764E-12	593.658E-3	-6.87081E-3	81.4429E-12	574.231E-3	-3.60773E-3
1.86343E-3	82.0348E-12	604.876E-3	-46.5354E-6	81.4823E-12	591.161E-3	-15.0538E-3
1.85843E-3	81.6777E-12	600.483E-3	6.28204E-3	80.9298E-12	584.369E-3	-29.7535E-3
1.85343E-3	80.8992E-12	585.934E-3	-1.00766E-3	80.6184E-12	579.238E-3	-3.62043E-3
1.84842E-3	80.3641E-12	577.949E-3	-10.9856E-3	80.4525E-12	571.479E-3	11.1189E-3
1.84342E-3	79.8846E-12	569.564E-3	-17.5145E-3	80.6954E-12	550.687E-3	5.49309E-3
1.83842E-3	79.3681E-12	556.733E-3	-20.3860E-3	80.2749E-12	557.421E-3	3.05348E-3
1.83342E-3	79.3675E-12	558.015E-3	-17.7870E-3	81.1613E-12	588.075E-3	-7.66979E-3
1.82841E-3	79.1412E-12	562.540E-3	-14.3115E-3	81.1713E-12	590.278E-3	-8.21313E-3
1.82341E-3	78.8689E-12	564.096E-3	-13.1774E-3	81.0723E-12	575.776E-3	-1.30674E-3
1.81841E-3	78.7210E-12	572.568E-3	-12.4694E-3	80.9787E-12	576.716E-3	-17.0960E-3
1.81341E-3	78.5520E-12	573.685E-3	-12.9492E-3	81.3425E-12	585.212E-3	-38.6539E-3
1.80840E-3	78.4656E-12	569.306E-3	-17.2375E-3	80.9881E-12	608.185E-3	-25.5987E-3
1.80340E-3	78.8390E-12	579.803E-3	-2.53103E-3	81.1255E-12	623.888E-3	-1.69517E-3
1.79840E-3	79.3117E-12	590.005E-3	21.1923E-3	80.6468E-12	598.665E-3	-2.74078E-3
1.79340E-3	79.4063E-12	589.866E-3	6.69655E-3	80.7683E-12	573.052E-3	-6.48522E-3
1.78839E-3	79.5753E-12	595.015E-3	-11.4878E-3	80.2374E-12	575.922E-3	-6.38832E-3
1.78339E-3	79.8247E-12	588.559E-3	-3.32647E-3	79.6648E-12	582.975E-3	-9.81322E-3
1.77839E-3	79.7901E-12	576.757E-3	-2.65812E-3	79.3157E-12	593.525E-3	-4.86501E-3
1.77339E-3	79.6648E-12	587.904E-3	-21.0393E-3	78.8190E-12	609.080E-3	2.95565E-3
1.76838E-3	78.7293E-12	602.200E-3	-47.0246E-3	78.2525E-12	603.357E-3	-803.973E-6
1.76338E-3	78.7344E-12	601.302E-3	-46.9008E-3	78.0941E-12	586.446E-3	-6.89886E-3
1.75838E-3	78.0177E-12	591.467E-3	-24.1797E-3	77.2372E-12	589.304E-3	-14.3653E-3
1.75338E-3	77.2397E-12	585.053E-3	-20.3409E-3	76.9765E-12	587.885E-3	-18.3630E-3
1.74837E-3	76.4909E-12	586.563E-3	-26.6930E-3	76.9676E-12	578.762E-3	-14.1362E-3
1.74337E-3	76.0787E-12	595.413E-3	-14.8815E-3	76.4620E-12	582.959E-3	-22.1664E-3
1.73837E-3	75.2167E-12	602.746E-3	-6.36861E-3	76.3146E-12	574.077E-3	-25.8181E-3
1.73337E-3	74.7340E-12	599.212E-3	-21.0282E-3	76.4719E-12	569.226E-3	-4.62010E-3
1.72836E-3	74.6615E-12	589.231E-3	-28.0527E-3	76.2470E-12	601.962E-3	7.80324E-3
1.72336E-3	73.8801E-12	580.168E-3	-15.1481E-3	75.9172E-12	618.484E-3	-9.24507E-3
1.71836E-3	73.7899E-12	570.938E-3	-17.1417E-3	76.0399E-12	592.495E-3	-20.0845E-3
1.71336E-3	73.8900E-12	567.587E-3	-25.6614E-3	75.5772E-12	585.887E-3	-21.2337E-3
1.70835E-3	73.9364E-12	575.903E-3	-16.0908E-3	75.5498E-12	604.942E-3	-31.7373E-3
1.70335E-3	74.1225E-12	577.567E-3	-4.80160E-3	75.3598E-12	597.845E-3	-29.1483E-3
1.69835E-3	74.6069E-12	574.288E-3	301.418E-6	75.2829E-12	585.538E-3	-5.38675E-3
1.69335E-3	74.9716E-12	576.842E-3	-2.64272E-3	74.7585E-12	581.146E-3	9.84747E-3
1.68834E-3	75.2255E-12	584.232E-3	-15.0273E-3	74.6674E-12	566.167E-3	-4.75100E-3
1.68334E-3	75.5972E-12	593.546E-3	-18.0643E-3	74.6934E-12	575.524E-3	-15.3695E-3
1.67834E-3	75.6677E-12	598.507E-3	-10.1537E-3	74.3131E-12	593.285E-3	-15.1063E-3
1.67334E-3	75.7550E-12	601.936E-3	-11.6497E-3	73.7050E-12	577.026E-3	-28.8109E-3
1.66833E-3	75.9527E-12	616.523E-3	-12.5977E-3	73.5659E-12	565.839E-3	-27.7614E-3
1.66333E-3	75.6763E-12	632.295E-3	-13.2200E-3	73.4948E-12	573.293E-3	-10.3975E-3
1.65833E-3	74.9682E-12	627.021E-3	-16.3429E-3	73.1799E-12	572.711E-3	-4.60647E-3
1.65333E-3	74.4380E-12	616.602E-3	-11.0158E-3	72.5638E-12	585.567E-3	-4.26712E-3
1.64832E-3	73.9255E-12	609.889E-3	-6.39440E-3	72.5462E-12	610.994E-3	-9.46522E-3
1.64332E-3	72.7761E-12	606.127E-3	-11.5666E-3	72.3500E-12	606.097E-3	-24.1071E-3
1.63832E-3	72.2706E-12	613.704E-3	-15.5153E-3	71.7589E-12	585.864E-3	-29.3325E-3
1.63332E-3	71.6875E-12	609.336E-3	-9.52119E-3	71.7437E-12	581.314E-3	-18.4635E-3
1.62831E-3	70.9340E-12	592.368E-3	-11.0224E-3	71.7226E-12	574.273E-3	-6.79497E-3
1.62331E-3	70.2029E-12	587.071E-3	-16.2932E-3	71.1328E-12	560.760E-3	-4.90203E-3
1.61831E-3	70.1585E-12	587.710E-3	-15.7203E-3	71.1797E-12	558.627E-3	-13.2904E-3
1.61331E-3	70.0316E-12	580.492E-3	-17.3798E-3	70.8862E-12	563.014E-3	-26.4451E-3
1.60830E-3	69.8410E-12	575.383E-3	-19.6243E-3	71.0624E-12	564.301E-3	-26.6393E-3
1.60330E-3	70.1964E-12	577.119E-3	-16.4536E-3	70.8066E-12	576.574E-3	-25.0268E-3
1.59830E-3	70.6233E-12	578.769E-3	-6.68012E-3	70.6230E-12	596.562E-3	-39.4635E-3
1.59330E-3	70.6988E-12	581.180E-3	-5.27139E-3	70.8468E-12	602.076E-3	-39.6064E-3
1.58829E-3	71.2468E-12	587.889E-3	-12.1420E-3	70.7491E-12	593.737E-3	-16.5523E-3
1.58329E-3	71.5880E-12	594.489E-3	-8.92453E-3	70.6792E-12	583.624E-3	-7.83236E-3
1.57829E-3	71.6827E-12	584.195E-3	-13.4379E-3	70.9516E-12	590.740E-3	-15.8325E-3
1.57329E-3	71.9037E-12	564.162E-3	-23.0773E-3	70.9584E-12	599.270E-3	-23.3539E-3
1.56828E-3	71.8600E-12	563.158E-3	-18.9030E-3	70.4815E-12	588.617E-3	-28.4442E-3
1.56328E-3	71.5788E-12	577.351E-3	-21.6017E-3	70.4093E-12	583.679E-3	-13.0181E-3
1.55828E-3	71.3654E-12	591.231E-3	-20.4589E-3	69.8482E-12	596.283E-3	5.20921E-3
1.55328E-3	70.6705E-12	603.201E-3	-5.27461E-3	69.2354E-12	605.637E-3	-4.91309E-3
1.54827E-3	70.1719E-12	607.543E-3	535.810E-6	69.8387E-12	597.263E-3	-17.8624E-3
1.54327E-3	69.4372E-12	602.229E-3	-10.9912E-3	69.3894E-12	580.660E-3	-21.5907E-3
1.53827E-3	68.5594E-12	582.285E-3	-25.6330E-3	68.5468E-12	569.370E-3	-27.6368E-3
1.53327E-3	68.0047E-12	570.274E-3	-35.8960E-3	68.7645E-12	570.563E-3	-26.0533E-3
1.52826E-3	67.5059E-12	579.197E-3	-42.8003E-3	68.4858E-12	581.636E-3	-19.9067E-3
1.52326E-3	67.0406E-12	589.777E-3	-28.4356E-3	67.9957E-12	579.739E-3	-29.6084E-3
1.51826E-3	66.5060E-12	591.685E-3	-12.6451E-3	67.9033E-12	557.206E-3	-28.8042E-3
1.51326E-3	66.5691E-12	585.793E-3	-16.0033E-3	67.8099E-12	545.968E-3	-9.05831E-3
1.50825E-3	66.3651E-12	575.634E-3	-11.8553E-3	67.3348E-12	554.744E-3	-20.8499E-3
1.50325E-3	66.0446E-12	569.373E-3	-4.33433E-3	67.6127E-12	565.717E-3	-37.7965E-3
1.49825E-3	66.8141E-12	580.549E-3	-6.41882E-3	67.5321E-12	578.190E-3	-23.6786E-3
1.49325E-3	66.6380E-12	587.469E-3	2.96330E-3	67.4969E-12	589.929E-3	-11.2271E-3
1.48824E-3	67.0952E-12	565.058E-3	7.24132E-3	67.7425E-12	586.350E-3	-1.03693E-3
1.48324E-3	67.4756E-12	532.247E-3	-8.72851E-3	67.7101E-12	574.913E-3	9.17355E-3
1.47824E-3	67.6585E-12	532.397E-3	-21.7615E-3	67.8165E-12	578.392E-3	-6.51195E-3
1.47324E-3	67.9152E-12	547.840E-3	-20.8650E-3	67.3566E-12	585.206E-3	-26.6119E-3
1.46823E-3	67.9799E-12	552.235E-3	-14.5546E-3	67.6192E-12	587.705E-3	-16.1425E-3
1.46323E-3	68.1120E-12	569.072E-3	-6.51603E-3	67.2179E-12	578.227E-3	-3.76240E-3
1.45823E-3	67.7681E-12	591.999E-3	-7.54006E-3	66.8453E-12	561.336E-3	-7.02446E-3
1.45323E-3	67.7167E-12	595.529E-3	-24.8437E-3	66.4707E-12	555.709E-3	-616.194E-6
1.44822E-3	66.7879E-12	586.054E-3	-18.1196E-3	66.4724E-12	557.397E-3	2.87430E-3
1.44322E-3	66.4632E-12	583.968E-3	-898.542E-6	65.7631E-12	559.448E-3	-9.69228E-3
1.43822E-3	65.7722E-12	581.961E-3	-15.2031E-3	65.3959E-12	551.506E-3	-10.0313E-3
1.43322E-3	64.8691E-12	572.301E-3	-37.8825E-3	65.4112E-12	541.738E-3	-3.69104E-3
1.42821E-3	64.2619E-12	552.875E-3	-51.6467E-3	64.6845E-12	528.775E-3	-10.0075E-3
1.42321E-3	63.7071E-12	530.992E-3	-55.1547E-3	63.8817E-12	514.288E-3	-8.00848E-3
1.41821E-3	62.8923E-12	526.849E-3	-36.2945E-3	63.7602E-12	520.156E-3	-12.9723E-3
1.41321E-3	62.6890E-12	524.983E-3	-12.8496E-3	63.8309E-12	517.908E-3	-29.5732E-3
1.40820E-3	62.6989E-12	520.080E-3	-7.71357E-3	63.4667E-12	498.674E-3	-16.3373E-3
1.40320E-3	62.3346E-12	523.564E-3	-13.2090E-3	63.1643E-12	500.706E-3	-991.534E-6
1.39820E-3	62.0310E-12	527.176E-3	-13.5179E-3	63.2780E-12	505.651E-3	-14.6438E-3
1.39320E-3	62.4437E-12	523.192E-3	-12.1582E-3	63.0669E-12	494.520E-3	-12.3395E-3
1.38819E-3	62.3758E-12	509.120E-3	-16.3992E-3	63.1819E-12	495.384E-3	5.48589E-3
1.38319E-3	62.8177E-12	494.670E-3	-22.3026E-3	62.8834E-12	504.730E-3	-4.35239E-3
1.37819E-3	62.7598E-12	492.123E-3	-23.1145E-3	62.8988E-12	491.355E-3	-12.5630E-3
1.37319E-3	63.0007E-12	495.975E-3	-16.8776E-3	62.4720E-12	472.417E-3	-6.68896E-3
1.36818E-3	62.7938E-12	496.705E-3	-7.12527E-3	62.3499E-12	473.658E-3	-18.1950E-3
1.36318E-3	62.9656E-12	504.480E-3	-4.80698E-3	62.3015E-12	466.188E-3	-17.4303E-3
1.35818E-3	63.3437E-12	509.488E-3	-9.97995E-3	61.9725E-12	454.954E-3	-3.05905E-3
1.35318E-3	63.0720E-12	489.800E-3	-5.68576E-3	61.6545E-12	453.140E-3	-19.2768E-3
1.34817E-3	62.6138E-12	475.177E-3	-6.83609E-3	61.4852E-12	447.444E-3	-20.7908E-3
1.34317E-3	62.4848E-12	486.539E-3	-14.2610E-3	61.1488E-12	456.391E-3	11.6747E-3
1.33817E-3	61.9391E-12	482.373E-3	-11.8167E-3	60.5115E-12	460.235E-3	11.2733E-3
1.33317E-3	61.3424E-12	455.694E-3	-21.4213E-3	60.8242E-12	427.083E-3	-14.4971E-3
1.32816E-3	61.0545E-12	443.726E-3	-33.3256E-3	60.3907E-12	400.581E-3	-21.8261E-3
1.32316E-3	60.6549E-12	444.195E-3	-19.4330E-3	59.8848E-12	407.672E-3	-30.3300E-3
1.31816E-3	59.8594E-12	438.597E-3	-4.89432E-3	60.1072E-12	413.122E-3	-32.0224E-3
1.31316E-3	59.5705E-12	427.979E-3	-12.9699E-3	60.0259E-12	405.411E-3	-13.8798E-3
1.30815E-3	59.4607E-12	421.428E-3	-18.2301E-3	59.6164E-12	397.449E-3	-15.3457E-3
1.30315E-3	59.2611E-12	418.647E-3	-7.02167E-3	59.6356E-12	387.639E-3	-21.7508E-3
1.29815E-3	58.7066E-12	415.164E-3	-10.2912E-3	59.9112E-12	385.137E-3	-8.68015E-3
1.29315E-3	59.1084E-12	415.433E-3	-20.0737E-3	59.9451E-12	398.068E-3	-5.38753E-3
1.28814E-3	59.1132E-12	411.582E-3	-16.5137E-3	59.5962E-12	387.812E-3	-11.2345E-3
1.28314E-3	59.0038E-12	405.692E-3	-14.3151E-3	59.7808E-12	352.511E-3	-17.7316E-3
1.27814E-3	59.5319E-12	396.347E-3	-18.3241E-3	59.8264E-12	340.414E-3	-32.9037E-3
1.27314E-3	59.8466E-12	386.129E-3	-27.0745E-3	59.7839E-12	344.123E-3	-39.3127E-3
1.26813E-3	60.0123E-12	384.313E-3	-30.4282E-3	59.7073E-12	344.333E-3	-19.9689E-3
1.26313E-3	60.2891E-12	374.009E-3	-15.9106E-3	60.0338E-12	346.090E-3	-9.66119E-3
1.25813E-3	60.8095E-12	366.867E-3	-1.83122E-3	59.7126E-12	335.480E-3	-23.1776E-3
1.25313E-3	60.9696E-12	374.921E-3	-4.13456E-3	59.5545E-12	326.722E-3	-23.1149E-3
1.24812E-3	60.6941E-12	382.416E-3	-14.9438E-3	59.6583E-12	338.971E-3	-10.3741E-3
1.24312E-3	60.5173E-12	379.864E-3	-14.2168E-3	59.4974E-12	332.244E-3	-16.0524E-3
1.23812E-3	60.1250E-12	371.747E-3	-9.66222E-3	59.4814E-12	320.970E-3	-28.1513E-3
1.23312E-3	60.1030E-12	353.216E-3	-22.8724E-3	59.5546E-12	332.285E-3	-22.0411E-3
1.22811E-3	59.5590E-12	322.204E-3	-38.2332E-3	59.2632E-12	322.792E-3	-18.8101E-3
1.22311E-3	59.3515E-12	309.589E-3	-40.6581E-3	59.1106E-12	300.588E-3	-21.3739E-3
1.21811E-3	58.6074E-12	317.664E-3	-28.6337E-3	59.2871E-12	308.143E-3	-9.92888E-3
1.21311E-3	58.0354E-12	316.361E-3	-19.9395E-3	59.3167E-12	317.092E-3	-8.95878E-3
1.20810E-3	57.6150E-12	305.213E-3	-39.6422E-3	58.6527E-12	288.757E-3	-15.9121E-3
1.20310E-3	57.4665E-12	302.324E-3	-51.5609E-3	58.9631E-12	262.184E-3	-19.5480E-3
1.19810E-3	57.0387E-12	302.795E-3	-31.7690E-3	58.8417E-12	267.366E-3	-24.3583E-3
1.19310E-3	56.7202E-12	293.588E-3	-24.1274E-3	58.3259E-12	268.947E-3	-4.18845E-3
1.18809E-3	56.9949E-12	279.175E-3	-28.7898E-3	58.3461E-12	259.155E-3	15.3073E-3
1.18309E-3	56.8018E-12	270.088E-3	-25.0351E-3	58.5542E-12	257.674E-3	-5.48096E-3
1.17809E-3	56.9405E-12	270.976E-3	-28.9552E-3	58.0071E-12	248.240E-3	-27.9030E-3
1.17309E-3	57.2943E-12	275.113E-3	-42.1436E-3	57.9823E-12	240.544E-3	-20.8654E-3
1.16808E-3	57.7895E-12	262.895E-3	-44.0959E-3	58.1444E-12	250.962E-3	-12.4135E-3
1.16308E-3	57.7390E-12	244.617E-3	-30.8392E-3	58.0774E-12	239.780E-3	-5.74058E-3
1.15808E-3	58.1705E-12	255.640E-3	-18.9088E-3	58.7599E-12	227.909E-3	5.71709E-3
1.15308E-3	58.4923E-12	281.255E-3	-12.5549E-3	58.3111E-12	243.046E-3	-5.41798E-3
1.14807E-3	58.6489E-12	271.507E-3	-14.1144E-3	58.2978E-12	237.122E-3	-19.1226E-3
1.14307E-3	58.6286E-12	244.048E-3	-22.1077E-3	58.3829E-12	219.803E-3	-9.05041E-3
1.13807E-3	58.3715E-12	242.237E-3	-23.7547E-3	58.2340E-12	227.062E-3	-7.84636E-3
1.13307E-3	58.1668E-12	246.986E-3	-20.5388E-3	57.8936E-12	230.566E-3	-11.1408E-3
1.12806E-3	57.6198E-12	237.649E-3	-20.3514E-3	57.5438E-12	227.623E-3	-1.46849E-3
1.12306E-3	57.5488E-12	224.855E-3	-16.7759E-3	57.6359E-12	234.187E-3	-6.45448E-3
1.11806E-3	56.8050E-12	221.715E-3	-10.2426E-3	57.1188E-12	219.597E-3	-33.7976E-3
1.11306E-3	56.3230E-12	222.179E-3	-17.8358E-3	57.0834E-12	203.190E-3	-41.2445E-3
1.10805E-3	56.2067E-12	211.554E-3	-23.9378E-3	56.6390E-12	218.789E-3	-22.7585E-3
1.10305E-3	55.2880E-12	206.320E-3	-17.6711E-3	56.3321E-12	223.875E-3	-16.3820E-3
1.09805E-3	54.9088E-12	215.647E-3	-23.6607E-3	55.8626E-12	210.530E-3	-11.8715E-3
1.09305E-3	55.0392E-12	219.506E-3	-34.4928E-3	55.7092E-12	212.871E-3	5.05035E-3
1.08804E-3	54.8473E-12	216.554E-3	-21.1948E-3	55.4869E-12	221.249E-3	8.25491E-3
1.08304E-3	54.6232E-12	210.686E-3	-8.50858E-3	55.8028E-12	214.146E-3	11.1362E-3
1.07804E-3	55.0464E-12	205.323E-3	-16.9223E-3	55.4906E-12	203.986E-3	21.9952E-3
1.07304E-3	55.5195E-12	200.824E-3	-15.5410E-3	55.5252E-12	210.891E-3	9.49935E-3
1.06803E-3	55.5956E-12	191.943E-3	3.82053E-3	55.8337E-12	222.952E-3	-3.81080E-3
1.06303E-3	55.7508E-12	194.582E-3	17.2078E-3	55.7412E-12	225.241E-3	-9.35949E-3
1.05803E-3	56.5641E-12	196.412E-3	18.0284E-3	55.8304E-12	222.995E-3	-25.0366E-3
1.05303E-3	56.7782E-12	199.084E-3	10.4303E-3	56.0001E-12	211.316E-3	-24.7944E-3
1.04802E-3	56.8241E-12	219.508E-3	-2.16650E-3	56.3749E-12	202.708E-3	-9.72434E-3
1.04302E-3	56.7724E-12	223.231E-3	-2.08417E-3	56.1651E-12	206.578E-3	-4.51078E-3
1.03802E-3	57.1386E-12	217.931E-3	3.76522E-3	55.9245E-12	212.990E-3	-2.28858E-3
1.03302E-3	56.6568E-12	230.287E-3	-5.41695E-3	55.7041E-12	231.945E-3	2.00923E-3
1.02801E-3	56.4838E-12	236.697E-3	-16.0884E-3	55.6650E-12	252.851E-3	2.58275E-3
1.02301E-3	56.1022E-12	235.341E-3	-12.5689E-3	55.1391E-12	248.658E-3	2.58619E-3
1.01801E-3	55.5398E-12	241.100E-3	-2.50773E-3	54.8593E-12	246.385E-3	-2.81725E-3
1.01301E-3	55.2418E-12	242.297E-3	4.72361E-3	54.5649E-12	263.812E-3	-10.9201E-3
1.00800E-3	54.8927E-12	244.778E-3	-1.92251E-3	54.3339E-12	272.092E-3	-10.2019E-3
1.00300E-3	54.5132E-12	257.546E-3	-16.7056E-3	54.1006E-12	274.916E-3	-7.80484E-3
997.999E-6	54.1137E-12	257.731E-3	-26.8279E-3	53.6193E-12	281.239E-3	-11.9191E-3
992.997E-6	53.8559E-12	253.049E-3	-33.1827E-3	53.6021E-12	286.517E-3	-7.85873E-3
987.994E-6	53.6390E-12	265.603E-3	-29.0356E-3	53.5181E-12	296.471E-3	2.95402E-3
982.991E-6	53.4988E-12	277.529E-3	-18.2001E-3	53.6120E-12	297.988E-3	810.721E-6
977.989E-6	53.4594E-12	279.698E-3	-14.3664E-3	53.4275E-12	283.830E-3	-10.8787E-3
972.986E-6	53.4864E-12	280.325E-3	-17.3447E-3	53.6935E-12	279.267E-3	-20.7021E-3
967.984E-6	53.5099E-12	271.311E-3	-14.7545E-3	53.8872E-12	287.093E-3	-29.8578E-3
962.981E-6	53.8006E-12	264.644E-3	-228.846E-6	53.8692E-12	295.915E-3	-26.8405E-3
957.979E-6	54.3725E-12	284.757E-3	6.92161E-3	53.9527E-12	314.363E-3	-5.77039E-3
952.976E-6	54.0274E-12	320.567E-3	-9.02390E-3	53.9060E-12	338.209E-3	290.571E-6
947.974E-6	54.2502E-12	328.215E-3	-18.1641E-3	54.0764E-12	350.695E-3	-14.6666E-3
942.971E-6	54.8391E-12	309.405E-3	-4.79953E-3	54.2665E-12	377.158E-3	-14.7713E-3
937.969E-6	54.8235E-12	314.499E-3	-838.876E-6	54.1078E-12	416.753E-3	-5.24683E-3
932.966E-6	54.1112E-12	347.872E-3	-12.8397E-3	53.9774E-12	426.906E-3	-14.2533E-3
927.964E-6	54.2283E-12	371.568E-3	-28.1170E-3	53.9270E-12	412.295E-3	-16.0761E-3
922.961E-6	54.6268E-12	366.017E-3	-34.0182E-3	53.5366E-12	413.146E-3	-8.71722E-3
917.959E-6	54.0159E-12	357.049E-3	-28.0189E-3	53.1605E-12	432.036E-3	-20.0946E-3
912.956E-6	53.3974E-12	374.182E-3	-23.2122E-3	53.4030E-12	451.937E-3	-27.2908E-3
907.954E-6	53.3573E-12	407.414E-3	-13.4947E-3	53.0862E-12	490.997E-3	-27.9060E-3
902.951E-6	53.0836E-12	431.600E-3	-791.556E-6	52.3314E-12	520.890E-3	-31.1687E-3
897.949E-6	52.1216E-12	438.196E-3	3.04652E-3	52.3204E-12	510.848E-3	-12.7959E-3
892.946E-6	52.0229E-12	437.812E-3	5.17746E-3	52.4588E-12	500.981E-3	685.015E-6
887.944E-6	51.7444E-12	449.129E-3	-3.27851E-3	52.0861E-12	510.880E-3	-21.8323E-3
882.941E-6	51.1712E-12	473.363E-3	-22.9742E-3	51.7073E-12	528.177E-3	-33.1807E-3
877.939E-6	51.0027E-12	490.678E-3	-28.0174E-3	51.6932E-12	561.741E-3	-22.5732E-3
872.936E-6	51.0995E-12	504.720E-3	-32.9420E-3	51.4042E-12	588.481E-3	-20.7894E-3
867.934E-6	50.5022E-12	520.980E-3	-51.5129E-3	51.6038E-12	602.006E-3	-18.0943E-3
862.931E-6	50.3952E-12	537.970E-3	-47.7806E-3	51.1987E-12	633.370E-3	-13.2990E-3
857.929E-6	51.0991E-12	559.336E-3	-22.9741E-3	51.3128E-12	659.819E-3	-19.8635E-3
852.926E-6	50.7588E-12	570.603E-3	-11.3841E-3	50.9138E-12	664.280E-3	-25.0504E-3
847.924E-6	50.4977E-12	582.235E-3	-15.7549E-3	50.7165E-12	677.895E-3	-27.2090E-3
842.921E-6	51.1163E-12	603.260E-3	-21.3791E-3	50.4395E-12	706.078E-3	-42.8335E-3
837.919E-6	50.9256E-12	620.125E-3	-34.4326E-3	50.4911E-12	720.440E-3	-42.5492E-3
832.916E-6	50.6434E-12	637.288E-3	-43.0249E-3	50.4847E-12	731.328E-3	-18.2903E-3
827.914E-6	50.8396E-12	657.513E-3	-20.2932E-3	50.0284E-12	760.665E-3	-15.0550E-3
822.911E-6	50.4927E-12	683.599E-3	-1.41050E-3	49.6223E-12	790.626E-3	-22.4270E-3
817.909E-6	50.1197E-12	722.142E-3	-6.17597E-3	49.7015E-12	809.519E-3	-18.0359E-3
812.906E-6	49.9167E-12	744.512E-3	-14.4489E-3	49.4669E-12	832.781E-3	-27.5699E-3
807.904E-6	49.6215E-12	756.001E-3	-11.0734E-3	48.5628E-12	849.424E-3	-46.6052E-3
802.901E-6	49.1423E-12	788.835E-3	-4.14275E-3	48.4201E-12	864.097E-3	-34.2156E-3
797.899E-6	48.3640E-12	823.873E-3	-6.04492E-3	48.4422E-12	897.404E-3	-24.5275E-3
792.896E-6	47.7889E-12	838.150E-3	-9.81235E-3	47.7000E-12	918.652E-3	-38.5428E-3
787.894E-6	47.2692E-12	838.833E-3	-16.6663E-3	47.1395E-12	921.531E-3	-28.7929E-3
782.891E-6	46.5306E-12	850.630E-3	-20.6440E-3	47.0584E-12	946.442E-3	-16.6427E-3
777.889E-6	46.0399E-12	870.899E-3	-14.0267E-3	46.7418E-12	976.855E-3	-27.0589E-3
772.886E-6	45.4582E-12	881.299E-3	-19.2680E-3	46.0703E-12	994.388E-3	-27.8808E-3
767.884E-6	45.0598E-12	896.455E-3	-42.7168E-3	45.8712E-12	1.02766E+0	-16.8443E-3
762.881E-6	44.9707E-12	922.079E-3	-49.2661E-3	45.3000E-12	1.05818E+0	-22.2667E-3
757.879E-6	44.7080E-12	941.017E-3	-27.2022E-3	44.7832E-12	1.06732E+0	-28.2364E-3
752.876E-6	44.0753E-12	965.956E-3	-7.56670E-3	44.8803E-12	1.08234E+0	-21.5101E-3
747.874E-6	44.1016E-12	996.842E-3	-12.8660E-3	44.3055E-12	1.10257E+0	-24.3858E-3
742.871E-6	44.1891E-12	1.02282E+0	-27.0255E-3	43.7132E-12	1.11986E+0	-21.7905E-3
737.869E-6	43.7554E-12	1.05020E+0	-26.8659E-3	43.8183E-12	1.15284E+0	-8.32527E-3
732.866E-6	43.8748E-12	1.07123E+0	-20.3659E-3	43.3765E-12	1.19991E+0	-4.95734E-3
727.864E-6	43.7779E-12	1.09795E+0	-14.8293E-3	42.9267E-12	1.23324E+0	-1.64533E-3
722.861E-6	43.2056E-12	1.13958E+0	-7.69709E-3	42.9006E-12	1.24963E+0	-763.419E-6
717.859E-6	42.6727E-12	1.16972E+0	-5.09658E-3	42.9740E-12	1.26664E+0	-23.1897E-3
712.856E-6	42.6189E-12	1.18538E+0	-8.38987E-3	42.1343E-12	1.28002E+0	-35.9552E-3
707.854E-6	42.3201E-12	1.21015E+0	-9.34626E-3	41.7530E-12	1.30286E+0	-16.5489E-3
702.851E-6	41.6965E-12	1.24147E+0	-4.40115E-3	41.8088E-12	1.33891E+0	-5.65311E-3
697.849E-6	40.8704E-12	1.25476E+0	-7.63802E-3	41.3774E-12	1.35176E+0	-2.52471E-3
692.846E-6	40.5007E-12	1.25367E+0	-24.9933E-3	40.6692E-12	1.35050E+0	-3.01149E-3
687.844E-6	40.0283E-12	1.25288E+0	-37.3990E-3	40.2882E-12	1.35302E+0	-18.4444E-3
682.841E-6	39.3838E-12	1.27285E+0	-27.8063E-3	39.8222E-12	1.35357E+0	-19.7599E-3
677.839E-6	38.4452E-12	1.31435E+0	-14.8516E-3	39.1343E-12	1.37116E+0	-5.64665E-3
672.836E-6	38.2348E-12	1.34198E+0	-19.2413E-3	38.4872E-12	1.40247E+0	-1.36084E-3
667.834E-6	37.8082E-12	1.34722E+0	-38.3591E-3	37.9273E-12	1.41942E+0	-1.59438E-3
662.831E-6	37.1674E-12	1.35119E+0	-45.3942E-3	37.6629E-12	1.41981E+0	-1.00329E-3
657.829E-6	36.7507E-12	1.36589E+0	-29.9985E-3	37.2595E-12	1.43242E+0	-6.28565E-3
652.826E-6	36.5669E-12	1.38399E+0	-15.2296E-3	36.3361E-12	1.44825E+0	-12.1791E-3
647.824E-6	36.3080E-12	1.40285E+0	-11.3154E-3	36.1222E-12	1.45826E+0	-7.50745E-3
642.821E-6	35.9925E-12	1.41206E+0	-10.8915E-3	36.2311E-12	1.49095E+0	-6.86755E-3
637.819E-6	35.9118E-12	1.41480E+0	-10.5797E-3	35.5465E-12	1.51222E+0	-20.4045E-3
632.816E-6	35.7879E-12	1.43083E+0	-15.9285E-3	35.0817E-12	1.51021E+0	-19.8975E-3
627.814E-6	35.2944E-12	1.46887E+0	-19.6490E-3	34.9298E-12	1.52679E+0	-11.0338E-3
622.811E-6	34.7058E-12	1.51723E+0	-16.9864E-3	34.3598E-12	1.54495E+0	-16.8804E-3
617.809E-6	34.1809E-12	1.54837E+0	-12.3184E-3	33.6845E-12	1.56188E+0	-21.7420E-3
612.806E-6	33.8225E-12	1.56618E+0	-13.4067E-3	33.5061E-12	1.59363E+0	-24.3409E-3
607.804E-6	33.4141E-12	1.57448E+0	-19.6387E-3	33.0324E-12	1.60897E+0	-27.8753E-3
602.801E-6	32.8633E-12	1.57393E+0	-20.1789E-3	32.6567E-12	1.60019E+0	-16.9837E-3
597.799E-6	31.8134E-12	1.58240E+0	-23.1807E-3	32.3896E-12	1.59344E+0	-13.6292E-3
592.796E-6	31.5913E-12	1.59075E+0	-29.1030E-3	31.3258E-12	1.59337E+0	-30.0560E-3
587.794E-6	31.0142E-12	1.58687E+0	-26.6427E-3	30.9668E-12	1.59255E+0	-31.6923E-3
582.791E-6	29.8933E-12	1.58738E+0	-20.0651E-3	30.5909E-12	1.60119E+0	-16.4790E-3
577.789E-6	29.1211E-12	1.59627E+0	-7.21568E-3	29.4511E-12	1.59858E+0	-1.16118E-3
572.786E-6	28.9289E-12	1.59648E+0	-1.87374E-3	28.7711E-12	1.57828E+0	9.53047E-3
567.784E-6	28.1424E-12	1.58839E+0	-12.6339E-3	28.7085E-12	1.58085E+0	-1.01896E-3
562.781E-6	27.3859E-12	1.58562E+0	-7.59819E-3	27.9925E-12	1.59293E+0	-19.6148E-3
557.779E-6	26.9922E-12	1.58467E+0	8.26556E-3	27.1069E-12	1.58104E+0	-14.9582E-3
552.776E-6	26.5722E-12	1.57558E+0	1.90865E-3	26.6810E-12	1.57765E+0	-2.13849E-3
547.774E-6	25.8956E-12	1.57379E+0	-12.1380E-3	26.5441E-12	1.59081E+0	-6.90069E-3
542.771E-6	25.3298E-12	1.57993E+0	-21.1126E-3	25.8311E-12	1.58472E+0	-21.3016E-3
537.769E-6	25.0825E-12	1.57823E+0	-30.0625E-3	25.1644E-12	1.57866E+0	-20.1016E-3
532.766E-6	24.8114E-12	1.57209E+0	-31.7381E-3	24.7683E-12	1.58732E+0	-14.6337E-3
527.764E-6	24.1653E-12	1.56970E+0	-22.0279E-3	24.4249E-12	1.58037E+0	-16.3443E-3
522.761E-6	23.6321E-12	1.57733E+0	-13.3083E-3	23.8394E-12	1.55586E+0	-7.51155E-3
517.759E-6	23.4449E-12	1.58813E+0	-11.7046E-3	23.2305E-12	1.53356E+0	-9.12787E-3
512.756E-6	22.9399E-12	1.58990E+0	-12.5543E-3	22.5695E-12	1.51847E+0	-16.5067E-3
507.754E-6	22.4213E-12	1.58666E+0	-8.98141E-3	22.1579E-12	1.51150E+0	-10.0332E-3
502.751E-6	21.9202E-12	1.58751E+0	5.21148E-3	21.5391E-12	1.50594E+0	-11.8406E-3
497.749E-6	21.3766E-12	1.58789E+0	12.7382E-3	20.8978E-12	1.48848E+0	-13.4287E-3
492.746E-6	20.9733E-12	1.57828E+0	-2.64185E-3	20.4869E-12	1.46815E+0	-3.92030E-3
487.744E-6	20.3082E-12	1.56242E+0	-25.6873E-3	20.1281E-12	1.45618E+0	-13.8523E-3
482.741E-6	19.6536E-12	1.54130E+0	-32.3430E-3	19.3931E-12	1.44698E+0	-34.8137E-3
477.739E-6	19.1494E-12	1.51787E+0	-27.3700E-3	18.7539E-12	1.44175E+0	-34.5969E-3
472.736E-6	18.7823E-12	1.51036E+0	-24.2626E-3	18.3335E-12	1.43275E+0	-28.0983E-3
467.734E-6	17.9710E-12	1.51445E+0	-15.9892E-3	18.1135E-12	1.41000E+0	-26.5398E-3
462.731E-6	17.3440E-12	1.49696E+0	-10.9061E-3	17.3003E-12	1.39112E+0	-20.1127E-3
457.729E-6	17.1478E-12	1.44633E+0	-8.94039E-3	16.8677E-12	1.39067E+0	-20.3693E-3
452.726E-6	16.6673E-12	1.39882E+0	-5.50139E-3	16.7267E-12	1.38400E+0	-22.2045E-3
447.724E-6	15.8758E-12	1.38716E+0	-7.44900E-3	16.2142E-12	1.35572E+0	-9.13198E-3
442.721E-6	15.5755E-12	1.39222E+0	-7.34725E-3	15.5964E-12	1.32614E+0	-13.1162E-3
437.719E-6	15.4360E-12	1.38763E+0	-14.1268E-3	15.2267E-12	1.29348E+0	-37.8532E-3
432.716E-6	14.9593E-12	1.36921E+0	-29.9171E-3	14.9387E-12	1.25982E+0	-35.5200E-3
427.714E-6	14.3227E-12	1.33875E+0	-36.3084E-3	14.3620E-12	1.24297E+0	-21.5093E-3
422.711E-6	13.9655E-12	1.31375E+0	-25.7951E-3	13.7277E-12	1.21945E+0	-25.3256E-3
417.709E-6	13.7121E-12	1.30348E+0	-18.8403E-3	13.2760E-12	1.18948E+0	-15.4294E-3
412.706E-6	13.3476E-12	1.29344E+0	-27.0499E-3	13.1659E-12	1.18557E+0	122.995E-6
407.704E-6	12.7825E-12	1.27490E+0	-30.8199E-3	12.7200E-12	1.17429E+0	-6.79881E-3
402.701E-6	12.5393E-12	1.24749E+0	-28.7397E-3	12.0980E-12	1.13367E+0	-11.6419E-3
397.699E-6	12.2699E-12	1.22720E+0	-31.2270E-3	11.7135E-12	1.11362E+0	-4.56374E-3
392.696E-6	11.7587E-12	1.22086E+0	-34.8391E-3	11.6346E-12	1.09992E+0	-8.21742E-3
387.694E-6	11.2045E-12	1.21286E+0	-33.0303E-3	11.2390E-12	1.06413E+0	-12.0341E-3
382.691E-6	11.0472E-12	1.18723E+0	-32.2309E-3	10.7082E-12	1.04900E+0	-6.57278E-3
377.689E-6	10.5899E-12	1.15091E+0	-28.0892E-3	10.3793E-12	1.05368E+0	-8.82550E-3
372.686E-6	10.1043E-12	1.12033E+0	-23.6422E-3	10.2298E-12	1.03452E+0	-10.9271E-3
367.684E-6	9.67739E-12	1.09323E+0	-30.3076E-3	9.80517E-12	992.176E-3	-8.73906E-3
362.681E-6	9.43995E-12	1.06137E+0	-30.4400E-3	9.35976E-12	952.944E-3	-15.9742E-3
357.679E-6	9.05580E-12	1.02176E+0	-24.2407E-3	9.13448E-12	921.090E-3	-18.6187E-3
352.676E-6	8.60861E-12	984.857E-3	-23.7063E-3	8.90727E-12	907.349E-3	-12.2995E-3
347.674E-6	8.22653E-12	960.732E-3	-15.1222E-3	8.51139E-12	895.829E-3	-16.8117E-3
342.671E-6	8.16575E-12	937.056E-3	217.407E-6	8.08845E-12	849.217E-3	-25.1081E-3
337.669E-6	7.84292E-12	904.269E-3	1.38747E-3	7.93058E-12	800.827E-3	-29.5641E-3
332.666E-6	7.35564E-12	886.691E-3	-10.0942E-3	7.70821E-12	787.834E-3	-31.1073E-3
327.664E-6	7.10399E-12	878.335E-3	-15.1195E-3	7.20401E-12	777.226E-3	-21.3624E-3
322.661E-6	7.03944E-12	859.444E-3	-13.8452E-3	6.77364E-12	750.109E-3	-2.95793E-3
317.659E-6	6.77402E-12	843.682E-3	-15.1404E-3	6.73210E-12	724.940E-3	232.500E-6
312.656E-6	6.30874E-12	823.474E-3	-14.3557E-3	6.55003E-12	699.443E-3	-7.24637E-3
307.654E-6	6.21505E-12	792.867E-3	-5.55404E-3	6.12863E-12	674.117E-3	-9.67324E-3
302.651E-6	6.11833E-12	768.571E-3	-501.456E-6	5.86412E-12	661.679E-3	-19.8166E-3
297.649E-6	5.78460E-12	747.793E-3	-11.5126E-3	5.79242E-12	643.305E-3	-25.7908E-3
292.646E-6	5.52620E-12	725.052E-3	-23.5020E-3	5.65246E-12	617.905E-3	-15.3097E-3
287.644E-6	5.41300E-12	698.826E-3	-22.2072E-3	5.19868E-12	606.517E-3	-5.14630E-3
282.641E-6	5.25359E-12	672.202E-3	-17.7178E-3	5.01496E-12	594.045E-3	-14.2041E-3
277.639E-6	4.92893E-12	650.052E-3	-14.8554E-3	5.06978E-12	574.718E-3	-25.6710E-3
272.636E-6	4.67256E-12	627.464E-3	-8.38402E-3	4.84254E-12	561.863E-3	-20.1392E-3
267.634E-6	4.52523E-12	612.649E-3	-3.55811E-3	4.43728E-12	537.960E-3	-14.5714E-3
262.631E-6	4.38598E-12	594.650E-3	-9.14658E-3	4.25710E-12	505.672E-3	-11.2310E-3
257.629E-6	4.06791E-12	567.585E-3	-20.5272E-3	4.27766E-12	490.214E-3	-12.9132E-3
252.626E-6	3.86510E-12	546.374E-3	-17.9035E-3	4.03800E-12	476.001E-3	-25.2706E-3
247.624E-6	3.81770E-12	517.540E-3	-8.55783E-3	3.75764E-12	447.810E-3	-23.0991E-3
242.621E-6	3.72617E-12	492.280E-3	-8.80683E-3	3.65013E-12	428.193E-3	-10.7891E-3
237.619E-6	3.48470E-12	491.576E-3	-15.3411E-3	3.62915E-12	418.653E-3	-17.7915E-3
232.616E-6	3.32184E-12	487.803E-3	-20.4618E-3	3.35290E-12	400.421E-3	-20.8463E-3
227.614E-6	3.20025E-12	457.172E-3	-22.3107E-3	3.10938E-12	389.535E-3	-4.67887E-3
222.611E-6	3.07154E-12	420.740E-3	-18.2745E-3	2.97605E-12	388.762E-3	7.69623E-3
217.609E-6	2.79080E-12	402.164E-3	-10.7011E-3	2.88858E-12	369.583E-3	6.40574E-3
212.606E-6	2.73774E-12	389.651E-3	-16.0895E-3	2.78161E-12	334.748E-3	-5.81573E-3
207.604E-6	2.73419E-12	378.131E-3	-25.0883E-3	2.55998E-12	307.119E-3	-10.8789E-3
202.601E-6	2.55338E-12	372.203E-3	-20.1130E-3	2.53317E-12	297.424E-3	-13.1660E-3
197.599E-6	2.31489E-12	361.471E-3	-13.6956E-3	2.48245E-12	296.473E-3	-24.6412E-3
192.596E-6	2.25265E-12	343.308E-3	-3.72184E-3	2.21995E-12	284.233E-3	-37.8233E-3
187.594E-6	2.21985E-12	333.432E-3	9.93864E-3	2.09831E-12	265.481E-3	-39.8327E-3
182.591E-6	2.13350E-12	331.334E-3	5.53256E-3	2.15034E-12	258.844E-3	-24.3668E-3
177.589E-6	1.91307E-12	319.491E-3	-14.3987E-3	2.02283E-12	255.741E-3	-15.8521E-3
172.586E-6	1.88779E-12	294.059E-3	-18.3008E-3	1.83225E-12	239.527E-3	-16.4039E-3
167.584E-6	1.80889E-12	275.130E-3	-5.85915E-3	1.65191E-12	219.151E-3	-10.2434E-3
162.581E-6	1.70372E-12	274.177E-3	-10.2283E-3	1.73953E-12	209.045E-3	-10.3838E-3
157.579E-6	1.52189E-12	275.504E-3	-23.2320E-3	1.68622E-12	206.020E-3	-21.3341E-3
152.576E-6	1.52883E-12	262.820E-3	-18.7918E-3	1.40815E-12	202.807E-3	-28.1790E-3
147.574E-6	1.50195E-12	242.426E-3	-11.2358E-3	1.33214E-12	196.383E-3	-28.3031E-3
142.571E-6	1.34870E-12	238.207E-3	-13.4879E-3	1.39488E-12	186.125E-3	-31.4026E-3
137.569E-6	1.20116E-12	233.369E-3	-14.3868E-3	1.33541E-12	179.253E-3	-23.0290E-3
132.566E-6	1.24044E-12	212.749E-3	-11.5100E-3	1.09002E-12	180.204E-3	-8.25114E-3
127.564E-6	1.18579E-12	200.908E-3	-11.0206E-3	1.04904E-12	185.851E-3	-7.12097E-3
122.561E-6	1.00719E-12	196.292E-3	-11.8420E-3	1.13783E-12	192.646E-3	-6.89885E-3
117.559E-6	971.590E-15	184.268E-3	-7.18559E-3	1.05544E-12	194.137E-3	-17.5370E-3
112.556E-6	995.525E-15	173.816E-3	-5.41195E-3	860.454E-15	176.958E-3	-29.2062E-3
107.554E-6	913.842E-15	169.356E-3	-14.0481E-3	818.200E-15	153.097E-3	-24.0761E-3
102.551E-6	744.784E-15	160.501E-3	-19.3554E-3	838.621E-15	149.511E-3	-17.9115E-3
97.5488E-6	750.634E-15	158.313E-3	-14.9168E-3	825.045E-15	149.898E-3	-9.99415E-3
92.5463E-6	739.796E-15	161.883E-3	-12.0894E-3	638.661E-15	137.123E-3	-1.68315E-3
87.5438E-6	697.726E-15	155.850E-3	-19.1063E-3	620.141E-15	123.060E-3	-10.9638E-3
82.5413E-6	521.413E-15	155.684E-3	-21.0683E-3	733.562E-15	110.936E-3	-25.3934E-3
77.5388E-6	573.763E-15	155.739E-3	-13.7836E-3	557.789E-15	112.977E-3	-19.8879E-3
72.5363E-6	596.425E-15	140.353E-3	-14.3262E-3	408.463E-15	127.567E-3	-7.76314E-3
67.5338E-6	471.852E-15	135.099E-3	-15.7597E-3	418.786E-15	124.531E-3	-14.9733E-3
62.5313E-6	329.562E-15	143.959E-3	-13.0637E-3	490.032E-15	117.439E-3	-29.6798E-3
57.5288E-6	382.767E-15	149.357E-3	-20.1373E-3	319.613E-15	126.737E-3	-40.8780E-3
52.5263E-6	366.592E-15	151.799E-3	-32.1681E-3	271.003E-15	134.837E-3	-43.5561E-3
47.5238E-6	262.623E-15	145.815E-3	-28.0716E-3	293.699E-15	136.277E-3	-17.7919E-3
42.5213E-6	171.637E-15	128.450E-3	-7.74588E-3	322.795E-15	133.964E-3	5.35515E-3
37.5188E-6	191.666E-15	118.971E-3	2.43677E-3	137.580E-15	130.035E-3	-9.50514E-3
32.5163E-6	198.031E-15	117.217E-3	-9.67084E-3	56.2636E-15	125.941E-3	-20.4064E-3
27.5138E-6	52.1219E-15	111.812E-3	-23.7902E-3	146.657E-15	121.160E-3	-9.75764E-3
22.5113E-6	2.81423E-15	117.492E-3	-18.6340E-3	112.311E-15	122.703E-3	-17.3858E-3
17.5088E-6	78.5327E-15	136.041E-3	-4.35764E-3	-81.6759E-15	125.059E-3	-23.8520E-3
12.5063E-6	-31.1039E-15	140.443E-3	-3.27168E-3	-136.939E-15	128.491E-3	-9.37507E-3
7.50375E-6	-138.290E-15	132.171E-3	-14.0784E-3	-24.2941E-15	128.157E-3	-16.4858E-3
2.50125E-6	-170.072E-15	124.484E-3	-21.8635E-3	-7.99771E-15	119.518E-3	-36.5834E-3
-2.50125E-6	-100.789E-15	116.335E-3	-21.6059E-3	-239.766E-15	117.410E-3	-28.8074E-3
-7.50375E-6	-210.242E-15	116.721E-3	-19.6060E-3	-279.273E-15	121.116E-3	-20.1596E-3
-12.5063E-6	-326.566E-15	120.628E-3	-14.6156E-3	-220.662E-15	127.433E-3	-33.3755E-3
-17.5088E-6	-297.435E-15	128.335E-3	-9.61617E-3	-278.654E-15	132.559E-3	-42.2789E-3
-22.5113E-6	-315.702E-15	139.104E-3	-14.0715E-3	-403.131E-15	135.528E-3	-42.3037E-3
-27.5138E-6	-350.954E-15	139.806E-3	-13.2910E-3	-441.094E-15	143.761E-3	-30.6010E-3
-32.5163E-6	-522.541E-15	139.041E-3	-6.41753E-3	-403.758E-15	157.238E-3	-10.9807E-3
-37.5188E-6	-563.008E-15	143.715E-3	-8.12773E-3	-481.421E-15	176.969E-3	-9.53153E-3
-42.5213E-6	-445.349E-15	147.816E-3	-11.7686E-3	-642.615E-15	191.246E-3	-18.9906E-3
-47.5238E-6	-604.852E-15	142.627E-3	-15.2706E-3	-633.303E-15	195.542E-3	-17.2505E-3
-52.5263E-6	-716.773E-15	141.264E-3	-22.3275E-3	-601.652E-15	196.351E-3	-8.79973E-3
-57.5288E-6	-744.814E-15	148.778E-3	-18.8523E-3	-767.362E-15	189.625E-3	-8.99166E-3
-62.5313E-6	-698.890E-15	154.106E-3	-6.82953E-3	-853.605E-15	179.978E-3	-6.67577E-3
-67.5338E-6	-873.529E-15	164.889E-3	-4.91309E-3	-836.750E-15	181.603E-3	953.831E-6
-72.5363E-6	-971.882E-15	177.409E-3	-9.29588E-3	-844.877E-15	189.256E-3	-5.84404E-3
-77.5388E-6	-936.185E-15	182.930E-3	-10.1038E-3	-1.03113E-12	200.019E-3	-14.2427E-3
-82.5413E-6	-978.317E-15	184.200E-3	-5.89482E-3	-1.15128E-12	220.060E-3	-16.7232E-3
-87.5438E-6	-1.12638E-12	181.147E-3	-4.32814E-3	-1.10984E-12	232.896E-3	-23.5862E-3
-92.5463E-6	-1.27383E-12	182.993E-3	-8.51372E-3	-1.10256E-12	231.689E-3	-24.1686E-3
-97.5488E-6	-1.20151E-12	196.035E-3	-15.5381E-3	-1.35833E-12	247.387E-3	-19.9786E-3
-102.551E-6	-1.27239E-12	211.720E-3	-21.8744E-3	-1.43044E-12	278.652E-3	-24.3147E-3
-107.554E-6	-1.45622E-12	220.521E-3	-23.8563E-3	-1.37530E-12	281.732E-3	-25.2190E-3
-112.556E-6	-1.52658E-12	225.033E-3	-16.6316E-3	-1.44659E-12	272.736E-3	-24.1713E-3
-117.559E-6	-1.53670E-12	242.931E-3	-7.03884E-3	-1.66141E-12	277.944E-3	-24.9839E-3
-122.561E-6	-1.67568E-12	259.646E-3	-12.8101E-3	-1.80557E-12	287.301E-3	-23.8247E-3
-127.564E-6	-1.82851E-12	262.508E-3	-17.9740E-3	-1.76183E-12	310.581E-3	-34.2805E-3
-132.566E-6	-1.92142E-12	265.812E-3	-16.1753E-3	-1.84742E-12	344.748E-3	-41.0055E-3
-137.569E-6	-1.96411E-12	271.882E-3	-20.3801E-3	-2.05579E-12	364.674E-3	-26.2512E-3
-142.571E-6	-2.05188E-12	286.464E-3	-23.1535E-3	-2.21813E-12	378.777E-3	-14.6724E-3
-147.574E-6	-2.29002E-12	307.044E-3	-21.0598E-3	-2.21966E-12	394.796E-3	-28.1672E-3
-152.576E-6	-2.37324E-12	321.323E-3	-16.1218E-3	-2.30406E-12	401.618E-3	-42.8080E-3
-157.579E-6	-2.36457E-12	328.278E-3	-15.4714E-3	-2.51719E-12	415.682E-3	-44.7290E-3
-162.581E-6	-2.49762E-12	343.496E-3	-26.5101E-3	-2.67634E-12	442.522E-3	-44.4266E-3
-167.584E-6	-2.76964E-12	377.478E-3	-31.2806E-3	-2.73883E-12	469.792E-3	-29.4949E-3
-172.586E-6	-2.88929E-12	406.671E-3	-27.0704E-3	-2.93047E-12	499.094E-3	-13.8673E-3
-177.589E-6	-2.92296E-12	412.422E-3	-31.4792E-3	-3.15880E-12	520.042E-3	-27.7166E-3
-182.591E-6	-3.17153E-12	406.565E-3	-39.2123E-3	-3.18663E-12	525.062E-3	-45.1715E-3
-187.594E-6	-3.39357E-12	407.199E-3	-31.0988E-3	-3.32856E-12	535.162E-3	-32.4649E-3
-192.596E-6	-3.56365E-12	425.804E-3	-16.7929E-3	-3.57508E-12	561.959E-3	-17.0877E-3
-197.599E-6	-3.63196E-12	458.988E-3	-14.8288E-3	-3.79003E-12	590.152E-3	-20.7158E-3
-202.601E-6	-3.85090E-12	492.489E-3	-17.2420E-3	-3.88108E-12	611.190E-3	-17.6132E-3
-207.604E-6	-4.14432E-12	521.718E-3	-18.7811E-3	-4.00913E-12	633.220E-3	-12.9759E-3
-212.606E-6	-4.26766E-12	541.292E-3	-16.7319E-3	-4.32527E-12	659.787E-3	-12.1789E-3
-217.609E-6	-4.42916E-12	554.821E-3	-19.7084E-3	-4.56627E-12	689.541E-3	2.26617E-3
-222.611E-6	-4.71445E-12	581.415E-3	-34.1672E-3	-4.65298E-12	715.910E-3	8.00963E-3
-227.614E-6	-5.01258E-12	617.142E-3	-34.2844E-3	-4.85776E-12	734.938E-3	-5.32935E-3
-232.616E-6	-5.22801E-12	650.983E-3	-21.6806E-3	-5.27425E-12	760.234E-3	-19.0989E-3
-237.619E-6	-5.41520E-12	685.878E-3	-18.4770E-3	-5.48472E-12	793.273E-3	-19.5999E-3
-242.621E-6	-5.72160E-12	723.256E-3	-13.7372E-3	-5.60954E-12	815.568E-3	-13.6700E-3
-247.624E-6	-6.02447E-12	755.587E-3	-7.13587E-3	-5.88880E-12	842.891E-3	-12.3627E-3
-252.626E-6	-6.18837E-12	767.175E-3	-12.4130E-3	-6.31454E-12	896.126E-3	-13.5792E-3
-257.629E-6	-6.46588E-12	776.018E-3	-14.4199E-3	-6.53544E-12	948.915E-3	-12.5612E-3
-262.631E-6	-6.76566E-12	817.864E-3	-3.76171E-3	-6.82478E-12	985.345E-3	1.50772E-3
-267.634E-6	-7.17726E-12	870.929E-3	73.7740E-6	-7.19693E-12	1.02424E+0	12.0080E-3
-272.636E-6	-7.40363E-12	904.465E-3	-7.49778E-3	-7.50739E-12	1.06726E+0	248.901E-6
-277.639E-6	-7.67593E-12	928.236E-3	-6.51993E-3	-7.85642E-12	1.10853E+0	-8.68647E-3
-282.641E-6	-8.06202E-12	949.423E-3	-461.095E-6	-8.20015E-12	1.14717E+0	-7.91309E-3
-287.644E-6	-8.50546E-12	978.890E-3	-806.850E-6	-8.54014E-12	1.18566E+0	-9.61901E-3
-292.646E-6	-8.74824E-12	1.03123E+0	-3.95339E-3	-9.01704E-12	1.23513E+0	-3.56976E-3
-297.649E-6	-9.10870E-12	1.08649E+0	-13.1143E-3	-9.37096E-12	1.29162E+0	1.30097E-3
-302.651E-6	-9.62059E-12	1.12326E+0	-19.1591E-3	-9.59256E-12	1.33329E+0	-7.32823E-3
-307.654E-6	-10.1352E-12	1.15043E+0	-8.05995E-3	-10.1600E-12	1.36236E+0	-20.6943E-3
-312.656E-6	-10.4778E-12	1.19302E+0	1.31444E-3	-10.6012E-12	1.40767E+0	-30.0052E-3
-317.659E-6	-10.8144E-12	1.25810E+0	-5.76679E-3	-10.8212E-12	1.45573E+0	-22.7412E-3
-322.661E-6	-11.4737E-12	1.31379E+0	-11.0184E-3	-11.3679E-12	1.48918E+0	-5.81188E-3
-327.664E-6	-11.9875E-12	1.35560E+0	-11.6683E-3	-11.8900E-12	1.53724E+0	-2.61539E-3
-332.666E-6	-12.2599E-12	1.40598E+0	-13.7873E-3	-12.3477E-12	1.60263E+0	-18.6203E-3
-337.669E-6	-12.8441E-12	1.44720E+0	-9.14441E-3	-12.8083E-12	1.64901E+0	-22.4194E-3
-342.671E-6	-13.4155E-12	1.46996E+0	-10.4277E-3	-13.3958E-12	1.68285E+0	-8.91154E-3
-347.674E-6	-13.9998E-12	1.51974E+0	-17.9617E-3	-14.0391E-12	1.74272E+0	-16.9699E-3
-352.676E-6	-14.4700E-12	1.59245E+0	-16.5776E-3	-14.4475E-12	1.81521E+0	-34.5026E-3
-357.679E-6	-14.8501E-12	1.63816E+0	-13.9494E-3	-14.9425E-12	1.86697E+0	-31.1422E-3
-362.681E-6	-15.5666E-12	1.67189E+0	-12.2421E-3	-15.6911E-12	1.90787E+0	-21.0382E-3
-367.684E-6	-16.3253E-12	1.72036E+0	-5.60330E-3	-16.4162E-12	1.95851E+0	-14.7667E-3
-372.686E-6	-16.7978E-12	1.78296E+0	-7.68218E-3	-17.0200E-12	2.01352E+0	-9.62043E-3
-377.689E-6	-17.3528E-12	1.84936E+0	-22.7359E-3	-17.7862E-12	2.06158E+0	-11.2434E-3
-382.691E-6	-18.2337E-12	1.89146E+0	-27.5012E-3	-18.4255E-12	2.10448E+0	-10.3188E-3
-387.694E-6	-18.9135E-12	1.91743E+0	-17.0976E-3	-18.9908E-12	2.15707E+0	2.73046E-3
-392.696E-6	-19.2919E-12	1.96543E+0	-12.1344E-3	-19.8401E-12	2.21737E+0	7.71521E-3
-397.699E-6	-20.0372E-12	2.02511E+0	-11.8871E-3	-20.4501E-12	2.25768E+0	-2.39889E-3
-402.701E-6	-21.0234E-12	2.06733E+0	-8.48782E-3	-21.0348E-12	2.28472E+0	-17.1955E-3
-407.704E-6	-21.5285E-12	2.10561E+0	-12.2829E-3	-21.7638E-12	2.32860E+0	-30.1245E-3
-412.706E-6	-22.1571E-12	2.16169E+0	-17.9006E-3	-22.4013E-12	2.36497E+0	-36.2961E-3
-417.709E-6	-23.1084E-12	2.21718E+0	-17.3074E-3	-23.1124E-12	2.37779E+0	-35.7865E-3
-422.711E-6	-23.9421E-12	2.26245E+0	-22.3629E-3	-23.9066E-12	2.41387E+0	-37.4641E-3
-427.714E-6	-24.6991E-12	2.31837E+0	-26.2511E-3	-24.5485E-12	2.47045E+0	-42.5567E-3
-432.716E-6	-25.4533E-12	2.37443E+0	-16.4489E-3	-25.1235E-12	2.50836E+0	-37.1086E-3
-437.719E-6	-26.3781E-12	2.41229E+0	-6.77569E-3	-26.1022E-12	2.54782E+0	-32.1292E-3
-442.721E-6	-27.4640E-12	2.45404E+0	-7.55768E-3	-26.8803E-12	2.60422E+0	-31.4266E-3
-447.724E-6	-27.9934E-12	2.51025E+0	-15.9425E-3	-27.5694E-12	2.64616E+0	-16.7253E-3
-452.726E-6	-28.7567E-12	2.55155E+0	-27.0714E-3	-28.5862E-12	2.67391E+0	-7.43931E-3
-457.729E-6	-29.7893E-12	2.57217E+0	-26.9301E-3	-29.5156E-12	2.71472E+0	-15.4395E-3
-462.731E-6	-30.5877E-12	2.59414E+0	-9.40500E-3	-30.5700E-12	2.76640E+0	-22.1133E-3
-467.734E-6	-31.4087E-12	2.62457E+0	2.80402E-3	-31.4995E-12	2.81532E+0	-24.6849E-3
-472.736E-6	-32.3142E-12	2.66633E+0	-4.21749E-3	-32.4770E-12	2.85287E+0	-25.3467E-3
-477.739E-6	-33.1946E-12	2.71616E+0	-15.2427E-3	-33.6744E-12	2.87907E+0	-24.5893E-3
-482.741E-6	-34.0662E-12	2.75434E+0	-23.9252E-3	-34.6937E-12	2.90679E+0	-17.9510E-3
-487.744E-6	-34.9532E-12	2.78216E+0	-28.8842E-3	-35.5549E-12	2.94397E+0	-11.8989E-3
-492.746E-6	-35.8151E-12	2.80755E+0	-12.8867E-3	-36.5262E-12	2.96969E+0	-8.71890E-3
-497.749E-6	-36.7727E-12	2.83190E+0	2.54800E-3	-37.6278E-12	2.96485E+0	-12.8453E-3
-502.751E-6	-37.8793E-12	2.87157E+0	-12.5944E-3	-38.4986E-12	2.95938E+0	-30.8963E-3
-507.754E-6	-38.7509E-12	2.90841E+0	-14.3474E-3	-39.0803E-12	2.97051E+0	-33.8873E-3
-512.756E-6	-39.8339E-12	2.91805E+0	6.94833E-3	-40.0244E-12	2.97476E+0	-18.9778E-3
-517.759E-6	-40.7807E-12	2.92439E+0	6.88281E-3	-41.1631E-12	2.97325E+0	-16.2313E-3
-522.761E-6	-42.0349E-12	2.95059E+0	-6.99936E-3	-41.7647E-12	2.98681E+0	-18.2500E-3
-527.764E-6	-42.8677E-12	2.98172E+0	-13.5375E-3	-42.4977E-12	3.00640E+0	-11.8753E-3
-532.766E-6	-44.0791E-12	3.00971E+0	-17.7135E-3	-43.6676E-12	3.01513E+0	-16.2110E-3
-537.769E-6	-45.2381E-12	3.03637E+0	-22.5372E-3	-44.7358E-12	3.02979E+0	-25.6256E-3
-542.771E-6	-46.2442E-12	3.04884E+0	-16.7151E-3	-45.2750E-12	3.05400E+0	-25.3216E-3
-547.774E-6	-46.8748E-12	3.06112E+0	-9.40017E-3	-46.1287E-12	3.06438E+0	-22.6919E-3
-552.776E-6	-47.8078E-12	3.08044E+0	-21.6867E-3	-47.2906E-12	3.06721E+0	-27.8088E-3
-557.779E-6	-48.6172E-12	3.09187E+0	-37.6063E-3	-48.1621E-12	3.07254E+0	-30.9109E-3
-562.781E-6	-49.9288E-12	3.09142E+0	-40.7127E-3	-49.5990E-12	3.07855E+0	-17.4588E-3
-567.784E-6	-51.0648E-12	3.08648E+0	-31.9788E-3	-51.3020E-12	3.09388E+0	-2.97302E-3
-572.786E-6	-52.4690E-12	3.09059E+0	-16.1725E-3	-52.9619E-12	3.10837E+0	-8.46227E-3
-577.789E-6	-53.3941E-12	3.09929E+0	-18.6457E-3	-53.9988E-12	3.09531E+0	-27.7654E-3
-582.791E-6	-54.1721E-12	3.09113E+0	-32.7110E-3	-55.3497E-12	3.06590E+0	-36.7057E-3
-587.794E-6	-55.1010E-12	3.05846E+0	-28.4540E-3	-56.4068E-12	3.04999E+0	-26.2283E-3
-592.796E-6	-55.9042E-12	3.03324E+0	-5.32846E-3	-57.6810E-12	3.02807E+0	-11.1809E-3
-597.799E-6	-56.9524E-12	3.03805E+0	18.6314E-3	-58.4934E-12	3.00102E+0	-5.60389E-3
-602.801E-6	-58.0387E-12	3.03849E+0	15.3131E-3	-59.1026E-12	3.00029E+0	-15.6605E-3
-607.804E-6	-58.8267E-12	3.02362E+0	-15.7041E-3	-59.9997E-12	2.99616E+0	-25.9348E-3
-612.806E-6	-60.0746E-12	3.00911E+0	-40.3177E-3	-60.9036E-12	2.96296E+0	-35.8747E-3
-617.809E-6	-61.3488E-12	2.99175E+0	-38.8785E-3	-61.7286E-12	2.91425E+0	-49.9949E-3
-622.811E-6	-62.2059E-12	2.98183E+0	-20.0098E-3	-62.1854E-12	2.86774E+0	-38.3345E-3
-627.814E-6	-63.3537E-12	2.98018E+0	-10.0533E-3	-62.8687E-12	2.83402E+0	-10.0964E-3
-632.816E-6	-64.7889E-12	2.96632E+0	-12.7882E-3	-63.7695E-12	2.81720E+0	-4.69342E-3
-637.819E-6	-65.4507E-12	2.94407E+0	-17.0521E-3	-64.4682E-12	2.80419E+0	-20.4900E-3
-642.821E-6	-66.2899E-12	2.92282E+0	-14.1189E-3	-64.8430E-12	2.77211E+0	-25.4320E-3
-647.824E-6	-67.3007E-12	2.89752E+0	2.64048E-3	-66.2596E-12	2.73797E+0	-20.5804E-3
-652.826E-6	-68.1343E-12	2.86969E+0	3.46954E-3	-67.1193E-12	2.71689E+0	-29.2025E-3
-657.829E-6	-68.7538E-12	2.84352E+0	-10.8185E-3	-67.8952E-12	2.68764E+0	-35.2860E-3
-662.831E-6	-69.6100E-12	2.81099E+0	-10.3554E-3	-68.5974E-12	2.65875E+0	-13.5005E-3
-667.834E-6	-70.5439E-12	2.77003E+0	-11.3597E-3	-70.3857E-12	2.65224E+0	4.38951E-3
-672.836E-6	-71.1584E-12	2.73694E+0	-18.8038E-3	-71.4016E-12	2.64639E+0	-8.39030E-3
-677.839E-6	-71.6464E-12	2.70516E+0	-16.7054E-3	-72.3823E-12	2.60831E+0	-26.3598E-3
-682.841E-6	-72.6232E-12	2.65932E+0	-12.4466E-3	-73.6157E-12	2.54947E+0	-24.5420E-3
-687.844E-6	-73.3970E-12	2.62025E+0	-21.0499E-3	-74.3173E-12	2.51386E+0	-9.40035E-3
-692.846E-6	-74.2814E-12	2.59764E+0	-29.0487E-3	-75.3739E-12	2.48894E+0	10.0602E-3
-697.849E-6	-74.9827E-12	2.56666E+0	-31.4002E-3	-76.3611E-12	2.44413E+0	21.1374E-3
-702.851E-6	-75.5646E-12	2.52902E+0	-36.1398E-3	-76.8731E-12	2.40334E+0	12.5396E-3
-707.854E-6	-76.7881E-12	2.50192E+0	-24.9151E-3	-77.8449E-12	2.36287E+0	-1.88770E-3
-712.856E-6	-77.6810E-12	2.46725E+0	-15.8831E-3	-78.6054E-12	2.31076E+0	6.21464E-3
-717.859E-6	-78.7100E-12	2.42306E+0	-28.9143E-3	-79.4781E-12	2.27142E+0	23.9995E-3
-722.861E-6	-79.5334E-12	2.40165E+0	-28.5678E-3	-79.8822E-12	2.23669E+0	10.3614E-3
-727.864E-6	-80.7875E-12	2.39354E+0	-16.2480E-3	-80.5844E-12	2.20962E+0	-12.0850E-3
-732.866E-6	-81.4166E-12	2.37068E+0	-20.2070E-3	-81.1824E-12	2.18461E+0	-16.3479E-3
-737.869E-6	-82.3375E-12	2.33017E+0	-28.3278E-3	-81.7476E-12	2.13148E+0	-13.5083E-3
-742.871E-6	-83.3461E-12	2.26883E+0	-17.0665E-3	-82.1794E-12	2.07428E+0	-5.93829E-3
-747.874E-6	-83.9969E-12	2.21099E+0	-6.07029E-3	-82.8866E-12	2.02524E+0	3.97979E-3
-752.876E-6	-84.6425E-12	2.19155E+0	-15.5934E-3	-83.5517E-12	1.96708E+0	503.845E-6
-757.879E-6	-85.2011E-12	2.16557E+0	-20.2437E-3	-83.9897E-12	1.92217E+0	-9.15276E-3
-762.881E-6	-86.1524E-12	2.10945E+0	-23.1205E-3	-84.7250E-12	1.90855E+0	-5.85689E-3
-767.884E-6	-86.6861E-12	2.06509E+0	-27.8877E-3	-85.5227E-12	1.87141E+0	1.91193E-3
-772.886E-6	-87.2812E-12	2.03422E+0	-20.6105E-3	-86.4056E-12	1.80797E+0	12.1114E-3
-777.889E-6	-87.3315E-12	2.00779E+0	-22.6805E-3	-87.2763E-12	1.78741E+0	21.4602E-3
-782.891E-6	-87.6106E-12	1.97384E+0	-30.2518E-3	-88.1562E-12	1.78736E+0	10.4435E-3
-787.894E-6	-88.8066E-12	1.90696E+0	-28.6286E-3	-89.2023E-12	1.75588E+0	-5.64109E-3
-792.896E-6	-88.5622E-12	1.82008E+0	-19.2749E-3	-90.3386E-12	1.69599E+0	-15.3843E-3
-797.899E-6	-89.5281E-12	1.75904E+0	-13.1314E-3	-91.2166E-12	1.64258E+0	-20.6465E-3
-802.901E-6	-89.8287E-12	1.73294E+0	-15.5745E-3	-91.7834E-12	1.60329E+0	-209.813E-6
-807.904E-6	-90.9383E-12	1.70560E+0	-14.2733E-3	-92.8355E-12	1.56155E+0	23.4545E-3
-812.906E-6	-91.3796E-12	1.66280E+0	-21.0425E-3	-93.6301E-12	1.51793E+0	13.5621E-3
-817.909E-6	-92.0390E-12	1.61542E+0	-29.8583E-3	-93.8135E-12	1.46671E+0	-3.25194E-3
-822.911E-6	-92.7564E-12	1.56447E+0	-25.0531E-3	-94.1067E-12	1.41828E+0	-7.40695E-3
-827.914E-6	-93.2741E-12	1.52470E+0	-17.3818E-3	-94.6613E-12	1.36895E+0	-13.8009E-3
-832.916E-6	-93.6474E-12	1.49293E+0	-16.1800E-3	-94.8579E-12	1.31972E+0	-9.86648E-3
-837.919E-6	-94.6192E-12	1.43912E+0	-23.0005E-3	-94.3363E-12	1.28157E+0	6.48494E-3
-842.921E-6	-95.1771E-12	1.38483E+0	-30.7516E-3	-94.3033E-12	1.23198E+0	4.94896E-3
-847.924E-6	-95.2456E-12	1.35922E+0	-27.3479E-3	-94.9232E-12	1.18160E+0	-5.65311E-3
-852.926E-6	-95.4885E-12	1.32718E+0	-18.9788E-3	-94.5963E-12	1.14403E+0	-6.17409E-3
-857.929E-6	-96.5531E-12	1.28928E+0	-15.4471E-3	-93.9523E-12	1.11272E+0	-9.70349E-3
-862.931E-6	-96.9502E-12	1.26810E+0	-10.9297E-3	-94.7170E-12	1.06587E+0	-14.0396E-3
-867.934E-6	-96.9831E-12	1.23048E+0	-5.47525E-3	-95.0829E-12	1.01340E+0	-3.63966E-3
-872.936E-6	-97.6775E-12	1.17177E+0	-20.3892E-3	-95.1776E-12	994.807E-3	8.71314E-3
-877.939E-6	-97.5757E-12	1.13303E+0	-33.1386E-3	-95.5542E-12	982.025E-3	-2.31479E-3
-882.941E-6	-97.6468E-12	1.12041E+0	-23.9654E-3	-96.8093E-12	953.732E-3	-21.3047E-3
-887.944E-6	-98.0502E-12	1.10019E+0	-26.6700E-3	-97.2636E-12	935.469E-3	-26.9341E-3
-892.946E-6	-98.2747E-12	1.05634E+0	-15.3844E-3	-97.8522E-12	918.471E-3	-32.0728E-3
-897.949E-6	-97.8203E-12	1.00923E+0	-2.02279E-3	-98.9747E-12	882.637E-3	-29.8765E-3
-902.951E-6	-98.1908E-12	976.024E-3	-26.5416E-3	-99.3058E-12	837.287E-3	-34.4495E-3
-907.954E-6	-98.4915E-12	949.007E-3	-38.8294E-3	-99.9816E-12	795.313E-3	-42.6283E-3
-912.956E-6	-98.5824E-12	918.992E-3	-27.8723E-3	-100.490E-12	769.867E-3	-21.1870E-3
-917.959E-6	-99.1673E-12	878.922E-3	-26.1353E-3	-100.361E-12	751.527E-3	-11.5627E-3
-922.961E-6	-99.8988E-12	844.706E-3	-20.6807E-3	-100.658E-12	711.600E-3	-17.7236E-3
-927.964E-6	-99.7925E-12	826.604E-3	-7.37047E-3	-101.201E-12	673.715E-3	-1.93919E-3
-932.966E-6	-100.217E-12	809.892E-3	-6.32949E-3	-100.812E-12	671.432E-3	9.27570E-3
-937.969E-6	-100.824E-12	788.779E-3	-5.89474E-3	-100.080E-12	668.119E-3	-1.26180E-3
-942.971E-6	-101.212E-12	755.094E-3	4.28928E-3	-100.299E-12	641.833E-3	-10.9023E-3
-947.974E-6	-101.509E-12	716.663E-3	-6.70877E-3	-99.7553E-12	612.494E-3	-15.6145E-3
-952.976E-6	-102.124E-12	699.397E-3	-33.4467E-3	-99.2875E-12	589.198E-3	-20.2983E-3
-957.979E-6	-102.955E-12	693.445E-3	-41.8102E-3	-99.2610E-12	575.219E-3	-12.3294E-3
-962.981E-6	-102.828E-12	680.980E-3	-29.9121E-3	-99.6665E-12	572.921E-3	-3.41056E-3
-967.984E-6	-102.774E-12	670.168E-3	-17.9158E-3	-99.7879E-12	550.635E-3	-13.9691E-3
-972.986E-6	-103.377E-12	654.285E-3	-21.7885E-3	-99.7155E-12	500.562E-3	-25.0304E-3
-977.989E-6	-103.464E-12	621.071E-3	-20.9248E-3	-99.9382E-12	483.776E-3	-28.0907E-3
-982.991E-6	-103.017E-12	592.599E-3	-5.85628E-3	-100.931E-12	494.026E-3	-29.2317E-3
-987.994E-6	-102.663E-12	566.459E-3	-344.029E-6	-101.613E-12	479.016E-3	-20.5590E-3
-992.997E-6	-102.627E-12	528.048E-3	-6.45901E-3	-101.682E-12	458.857E-3	-3.26108E-3
-997.999E-6	-102.381E-12	491.958E-3	-10.4174E-3	-103.018E-12	455.600E-3	5.48594E-3
-1.00300E-3	-102.595E-12	468.694E-3	-5.43073E-3	-103.544E-12	436.191E-3	-7.99374E-3
-1.00800E-3	-102.504E-12	466.241E-3	-5.24440E-3	-103.815E-12	408.389E-3	-26.6482E-3
-1.01301E-3	-102.539E-12	477.374E-3	-18.8975E-3	-104.317E-12	395.342E-3	-29.2134E-3
-1.01801E-3	-102.567E-12	477.187E-3	-25.5425E-3	-104.831E-12	389.184E-3	-7.93838E-3
-1.02301E-3	-102.650E-12	452.592E-3	-27.5218E-3	-105.004E-12	383.713E-3	13.2615E-3
-1.02801E-3	-102.902E-12	431.749E-3	-43.0689E-3	-105.296E-12	372.068E-3	-1.90145E-3
-1.03302E-3	-103.274E-12	436.816E-3	-40.0117E-3	-105.512E-12	363.033E-3	-25.3232E-3
-1.03802E-3	-103.715E-12	429.394E-3	-24.2377E-3	-104.666E-12	363.059E-3	-31.5921E-3
-1.04302E-3	-104.086E-12	406.624E-3	-33.3167E-3	-105.221E-12	359.643E-3	-31.7538E-3
-1.04802E-3	-104.588E-12	391.585E-3	-28.7613E-3	-105.179E-12	340.218E-3	-22.8055E-3
-1.05303E-3	-105.332E-12	379.239E-3	-9.38597E-3	-104.197E-12	320.227E-3	-8.94462E-3
-1.05803E-3	-106.033E-12	377.207E-3	-8.88483E-3	-104.269E-12	308.125E-3	-11.0143E-3
-1.06303E-3	-106.014E-12	380.874E-3	-13.6255E-3	-104.436E-12	296.937E-3	-21.7016E-3
-1.06803E-3	-106.126E-12	381.915E-3	-32.2546E-3	-103.871E-12	300.044E-3	-6.15000E-3
-1.07304E-3	-106.842E-12	379.600E-3	-54.4656E-3	-103.782E-12	306.085E-3	26.7439E-3
-1.07804E-3	-105.798E-12	370.586E-3	-42.3951E-3	-104.115E-12	301.845E-3	29.9577E-3
-1.08304E-3	-105.919E-12	354.267E-3	-11.0998E-3	-104.539E-12	307.189E-3	-2.16786E-3
-1.08804E-3	-105.856E-12	344.769E-3	-2.52459E-3	-104.420E-12	316.907E-3	-24.3712E-3
-1.09305E-3	-105.542E-12	341.379E-3	-25.8353E-3	-104.398E-12	305.305E-3	-26.7860E-3
-1.09805E-3	-104.873E-12	318.780E-3	-34.1922E-3	-105.143E-12	289.467E-3	-24.6074E-3
-1.10305E-3	-104.721E-12	301.260E-3	-11.5413E-3	-105.862E-12	295.107E-3	-12.2266E-3
-1.10805E-3	-104.865E-12	310.467E-3	11.6623E-3	-106.002E-12	301.370E-3	-12.6924E-3
-1.11306E-3	-104.489E-12	305.211E-3	7.94742E-3	-106.834E-12	304.454E-3	-12.8845E-3
-1.11806E-3	-104.463E-12	283.513E-3	-24.4744E-3	-107.870E-12	306.590E-3	8.23667E-3
-1.12306E-3	-104.821E-12	279.498E-3	-34.2749E-3	-107.987E-12	291.858E-3	13.3064E-3
-1.12806E-3	-105.651E-12	284.494E-3	-17.0222E-3	-108.122E-12	289.678E-3	-201.913E-6
-1.13307E-3	-105.813E-12	287.502E-3	-28.7522E-3	-108.660E-12	317.476E-3	-14.3845E-3
-1.13807E-3	-106.407E-12	295.973E-3	-48.1940E-3	-109.178E-12	335.550E-3	-21.1668E-3
-1.14307E-3	-107.031E-12	309.138E-3	-37.3741E-3	-108.774E-12	332.525E-3	-21.1221E-3
-1.14807E-3	-107.441E-12	307.479E-3	-19.1558E-3	-108.891E-12	342.321E-3	-23.0790E-3
-1.15308E-3	-107.813E-12	297.210E-3	-18.1027E-3	-108.169E-12	349.385E-3	-17.4568E-3
-1.15808E-3	-108.074E-12	300.109E-3	-38.7644E-3	-107.837E-12	344.821E-3	-9.16993E-3
-1.16308E-3	-108.407E-12	312.529E-3	-59.6223E-3	-107.590E-12	350.392E-3	-16.1178E-3
-1.16808E-3	-108.645E-12	330.359E-3	-53.8855E-3	-107.031E-12	341.124E-3	-17.7174E-3
-1.17309E-3	-108.623E-12	326.610E-3	-31.1019E-3	-106.948E-12	320.949E-3	-8.00839E-3
-1.17809E-3	-108.372E-12	302.901E-3	-13.4769E-3	-106.682E-12	322.420E-3	-5.58812E-3
-1.18309E-3	-108.658E-12	314.910E-3	-7.64922E-3	-106.782E-12	332.443E-3	-5.76150E-3
-1.18809E-3	-108.317E-12	345.167E-3	-15.0684E-3	-106.140E-12	335.870E-3	-7.86728E-3
-1.19310E-3	-108.296E-12	340.675E-3	-34.7051E-3	-106.870E-12	339.808E-3	-15.0655E-3
-1.19810E-3	-107.580E-12	327.318E-3	-52.5608E-3	-106.613E-12	356.177E-3	-22.5488E-3
-1.20310E-3	-108.265E-12	333.899E-3	-41.5416E-3	-106.211E-12	375.387E-3	-30.1442E-3
-1.20810E-3	-108.270E-12	326.283E-3	-20.6267E-3	-107.281E-12	389.200E-3	-25.7453E-3
-1.21311E-3	-108.134E-12	310.923E-3	-22.3095E-3	-108.600E-12	396.744E-3	-21.3289E-3
-1.21811E-3	-107.925E-12	320.006E-3	-26.2357E-3	-108.603E-12	392.400E-3	-31.1037E-3
-1.22311E-3	-108.811E-12	323.422E-3	-17.3047E-3	-108.934E-12	395.219E-3	-38.1572E-3
-1.22811E-3	-108.839E-12	325.033E-3	-28.4043E-3	-110.537E-12	414.806E-3	-38.6249E-3
-1.23312E-3	-109.047E-12	347.683E-3	-50.8579E-3	-110.732E-12	418.975E-3	-44.8263E-3
-1.23812E-3	-109.857E-12	365.537E-3	-44.1746E-3	-110.258E-12	409.043E-3	-47.6911E-3
-1.24312E-3	-109.508E-12	372.974E-3	-29.5371E-3	-110.290E-12	423.513E-3	-29.9942E-3
-1.24812E-3	-110.383E-12	385.626E-3	-12.2617E-3	-110.735E-12	431.224E-3	-803.956E-6
-1.25313E-3	-110.494E-12	389.905E-3	19.4566E-3	-110.506E-12	425.895E-3	22.7142E-3
-1.25813E-3	-110.879E-12	389.888E-3	29.6239E-3	-110.178E-12	430.883E-3	20.2968E-3
-1.26313E-3	-110.800E-12	409.846E-3	13.1656E-3	-110.284E-12	432.018E-3	7.46305E-3
-1.26813E-3	-111.083E-12	431.836E-3	9.00899E-3	-109.194E-12	429.938E-3	8.58210E-3
-1.27314E-3	-110.978E-12	437.402E-3	6.89171E-3	-108.663E-12	440.712E-3	-693.063E-6
-1.27814E-3	-111.284E-12	444.338E-3	540.537E-6	-108.614E-12	453.056E-3	-26.0067E-3
-1.28314E-3	-111.258E-12	462.443E-3	3.43883E-3	-108.259E-12	445.028E-3	-32.3693E-3
-1.28814E-3	-111.236E-12	461.879E-3	-6.64994E-3	-107.418E-12	446.111E-3	-14.8961E-3
-1.29315E-3	-110.839E-12	459.874E-3	-21.9361E-3	-107.837E-12	461.816E-3	-10.6461E-3
-1.29815E-3	-110.599E-12	476.381E-3	-25.1548E-3	-108.456E-12	466.390E-3	-32.4263E-3
-1.30315E-3	-110.787E-12	475.009E-3	-24.8308E-3	-107.914E-12	475.026E-3	-35.5722E-3
-1.30815E-3	-110.708E-12	469.172E-3	-18.5959E-3	-108.910E-12	498.768E-3	-15.7713E-3
-1.31316E-3	-110.699E-12	475.044E-3	-10.4820E-3	-110.030E-12	514.773E-3	-10.5466E-3
-1.31816E-3	-110.645E-12	483.609E-3	-15.7789E-3	-110.435E-12	522.270E-3	-14.1566E-3
-1.32316E-3	-110.042E-12	498.623E-3	-21.4389E-3	-111.167E-12	527.704E-3	-9.89402E-3
-1.32816E-3	-110.447E-12	506.832E-3	-2.57615E-3	-112.617E-12	538.529E-3	-7.31263E-3
-1.33317E-3	-110.864E-12	510.789E-3	11.6862E-3	-112.879E-12	561.073E-3	-7.08843E-3
-1.33817E-3	-110.919E-12	528.226E-3	-4.89552E-3	-113.319E-12	576.325E-3	-7.40230E-3
-1.34317E-3	-111.130E-12	542.425E-3	-21.3951E-3	-113.916E-12	579.097E-3	-7.65718E-3
-1.34817E-3	-112.315E-12	534.588E-3	-26.0687E-3	-114.184E-12	589.318E-3	6.24671E-3
-1.35318E-3	-111.976E-12	531.144E-3	-32.4118E-3	-114.123E-12	608.417E-3	11.5432E-3
-1.35818E-3	-112.121E-12	544.773E-3	-36.8109E-3	-114.188E-12	603.383E-3	-11.3189E-3
-1.36318E-3	-112.827E-12	550.353E-3	-27.4926E-3	-113.912E-12	591.648E-3	-31.2108E-3
-1.36818E-3	-112.687E-12	553.567E-3	-17.8291E-3	-113.687E-12	594.115E-3	-33.8210E-3
-1.37319E-3	-113.115E-12	557.522E-3	-12.3988E-3	-113.398E-12	591.231E-3	-21.1894E-3
-1.37819E-3	-113.998E-12	553.043E-3	-8.76693E-3	-112.691E-12	585.640E-3	-7.81023E-3
-1.38319E-3	-114.207E-12	570.143E-3	-7.47347E-3	-112.885E-12	594.814E-3	-16.0950E-3
-1.38819E-3	-113.880E-12	595.463E-3	4.16320E-3	-112.751E-12	611.197E-3	-25.0677E-3
-1.39320E-3	-114.171E-12	601.806E-3	7.78231E-3	-112.966E-12	614.117E-3	-24.6886E-3
-1.39820E-3	-114.891E-12	610.272E-3	-7.58345E-3	-112.891E-12	613.011E-3	-25.0790E-3
-1.40320E-3	-114.252E-12	609.078E-3	-5.77143E-3	-113.634E-12	608.012E-3	-11.0571E-3
-1.40820E-3	-113.716E-12	596.535E-3	6.80401E-3	-113.999E-12	606.580E-3	2.85251E-3
-1.41321E-3	-114.004E-12	602.949E-3	5.25662E-3	-114.250E-12	618.583E-3	-16.2584E-3
-1.41821E-3	-113.641E-12	622.576E-3	10.8381E-3	-115.523E-12	637.426E-3	-31.0078E-3
-1.42321E-3	-113.641E-12	630.475E-3	17.7581E-3	-115.985E-12	668.336E-3	-16.5722E-3
-1.42821E-3	-113.487E-12	633.380E-3	-163.670E-6	-116.369E-12	694.435E-3	-4.93985E-3
-1.43322E-3	-113.933E-12	639.640E-3	-17.9116E-3	-117.214E-12	688.663E-3	4.43339E-3
-1.43822E-3	-113.681E-12	637.555E-3	-15.6748E-3	-118.235E-12	670.753E-3	10.4258E-3
-1.44322E-3	-113.951E-12	628.053E-3	-9.09263E-3	-118.170E-12	663.492E-3	-9.99683E-3
-1.44822E-3	-115.292E-12	622.320E-3	-2.87463E-3	-118.703E-12	666.324E-3	-32.1997E-3
-1.45323E-3	-115.674E-12	617.321E-3	-2.72764E-3	-118.873E-12	690.882E-3	-16.5142E-3
-1.45823E-3	-116.195E-12	611.024E-3	-6.51291E-3	-118.631E-12	716.044E-3	-5.90817E-3
-1.46323E-3	-116.555E-12	623.161E-3	-5.18065E-3	-118.557E-12	701.861E-3	-13.8037E-3
-1.46823E-3	-117.580E-12	637.788E-3	-2.98397E-3	-118.082E-12	677.491E-3	-8.50408E-3
-1.47324E-3	-118.110E-12	633.554E-3	-6.15062E-3	-117.571E-12	667.060E-3	-10.2091E-3
-1.47824E-3	-119.431E-12	645.987E-3	-3.56631E-3	-117.057E-12	651.273E-3	-23.3146E-3
-1.48324E-3	-119.686E-12	668.409E-3	5.77667E-3	-117.327E-12	641.870E-3	-27.9249E-3
-1.48824E-3	-118.970E-12	662.396E-3	-10.7071E-3	-116.579E-12	650.554E-3	-18.5258E-3
-1.49325E-3	-119.824E-12	667.135E-3	-32.5812E-3	-116.215E-12	652.874E-3	-6.24657E-3
-1.49825E-3	-120.411E-12	683.486E-3	-18.2992E-3	-116.210E-12	644.586E-3	-398.385E-6
-1.50325E-3	-119.495E-12	669.302E-3	-8.11789E-3	-116.760E-12	646.592E-3	6.21382E-3
-1.50825E-3	-118.808E-12	663.764E-3	-27.3127E-3	-116.786E-12	655.461E-3	9.83165E-3
-1.51326E-3	-119.552E-12	677.410E-3	-41.1055E-3	-116.779E-12	671.014E-3	-2.68117E-3
-1.51826E-3	-119.314E-12	688.503E-3	-34.1060E-3	-117.400E-12	692.581E-3	-22.7910E-3
-1.52326E-3	-118.377E-12	696.068E-3	-17.1345E-3	-117.937E-12	703.181E-3	-34.1745E-3
-1.52826E-3	-118.957E-12	692.283E-3	-3.43017E-3	-118.660E-12	690.519E-3	-30.4395E-3
-1.53327E-3	-119.548E-12	677.595E-3	-12.9180E-3	-119.441E-12	677.875E-3	-26.4530E-3
-1.53827E-3	-119.210E-12	679.006E-3	-33.7102E-3	-120.213E-12	683.735E-3	-36.6486E-3
-1.54327E-3	-119.527E-12	694.742E-3	-31.7073E-3	-121.515E-12	679.580E-3	-43.9161E-3
-1.54827E-3	-120.428E-12	694.209E-3	-21.5538E-3	-121.773E-12	680.015E-3	-36.4350E-3
-1.55328E-3	-121.180E-12	694.651E-3	-19.0114E-3	-122.510E-12	694.343E-3	-21.8899E-3
-1.55828E-3	-121.602E-12	693.126E-3	-8.85188E-3	-123.433E-12	705.342E-3	-3.05722E-3
-1.56328E-3	-122.655E-12	673.258E-3	-4.99132E-3	-123.567E-12	722.776E-3	2.28838E-3
-1.56828E-3	-123.333E-12	681.611E-3	-19.7042E-3	-123.400E-12	719.969E-3	-16.7481E-3
-1.57329E-3	-123.994E-12	715.804E-3	-31.5095E-3	-124.004E-12	696.960E-3	-34.0109E-3
-1.57829E-3	-124.786E-12	708.996E-3	-33.3448E-3	-124.319E-12	686.730E-3	-38.1205E-3
-1.58329E-3	-125.155E-12	674.033E-3	-31.3935E-3	-123.545E-12	674.893E-3	-44.9275E-3
-1.58829E-3	-125.226E-12	673.943E-3	-19.6609E-3	-123.738E-12	653.727E-3	-45.2171E-3
-1.59330E-3	-125.414E-12	689.272E-3	-9.74855E-3	-122.887E-12	649.610E-3	-28.0596E-3
-1.59830E-3	-125.984E-12	683.340E-3	-26.2694E-3	-122.839E-12	665.693E-3	-25.5278E-3
-1.60330E-3	-124.896E-12	681.970E-3	-40.1505E-3	-122.523E-12	669.220E-3	-36.6411E-3
-1.60830E-3	-124.695E-12	684.019E-3	-29.9389E-3	-122.169E-12	671.715E-3	-34.7518E-3
-1.61331E-3	-125.159E-12	677.243E-3	-21.2539E-3	-122.116E-12	693.413E-3	-34.8013E-3
-1.61831E-3	-124.052E-12	694.304E-3	-14.5053E-3	-122.878E-12	690.576E-3	-26.3403E-3
-1.62331E-3	-123.684E-12	701.680E-3	-1.71806E-3	-123.409E-12	675.782E-3	-5.97969E-3
-1.62831E-3	-124.611E-12	666.209E-3	-10.6581E-3	-123.667E-12	693.092E-3	-9.92378E-3
-1.63332E-3	-124.425E-12	654.459E-3	-34.8379E-3	-124.679E-12	703.700E-3	-29.8749E-3
-1.63832E-3	-124.065E-12	671.555E-3	-35.5225E-3	-125.654E-12	691.028E-3	-30.6998E-3
-1.64332E-3	-124.705E-12	673.308E-3	-27.1227E-3	-126.910E-12	677.898E-3	-18.9699E-3
-1.64832E-3	-125.003E-12	672.694E-3	-32.0259E-3	-127.810E-12	674.840E-3	212.132E-6
-1.65333E-3	-125.639E-12	676.405E-3	-28.8667E-3	-128.450E-12	688.371E-3	22.5560E-3
-1.65833E-3	-126.000E-12	671.756E-3	-12.9881E-3	-128.366E-12	711.161E-3	13.6891E-3
-1.66333E-3	-126.972E-12	679.279E-3	-9.08174E-3	-129.281E-12	715.374E-3	-26.9046E-3
-1.66833E-3	-127.790E-12	685.450E-3	-19.7024E-3	-129.902E-12	700.352E-3	-42.2011E-3
-1.67334E-3	-128.351E-12	669.567E-3	-27.8588E-3	-129.420E-12	689.485E-3	-22.1402E-3
-1.67834E-3	-128.698E-12	679.451E-3	-29.8917E-3	-129.197E-12	681.263E-3	-14.1157E-3
-1.68334E-3	-128.745E-12	700.007E-3	-21.4081E-3	-128.650E-12	670.285E-3	-9.92659E-3
-1.68834E-3	-129.378E-12	691.170E-3	-15.6885E-3	-128.017E-12	657.036E-3	-781.190E-6
-1.69335E-3	-129.582E-12	681.948E-3	-19.9276E-3	-127.551E-12	641.540E-3	-2.61724E-3
-1.69835E-3	-129.129E-12	694.606E-3	-6.42766E-3	-126.245E-12	632.888E-3	-4.44128E-3
-1.70335E-3	-128.928E-12	706.574E-3	4.71590E-3	-125.823E-12	636.309E-3	-10.5506E-3
-1.70835E-3	-128.975E-12	708.328E-3	2.92009E-3	-125.695E-12	653.227E-3	-24.6934E-3
-1.71336E-3	-128.077E-12	708.480E-3	519.261E-6	-125.753E-12	666.934E-3	-31.9153E-3
-1.71836E-3	-127.546E-12	690.904E-3	-20.6773E-3	-125.820E-12	659.537E-3	-29.1807E-3
-1.72336E-3	-127.477E-12	690.953E-3	-44.6346E-3	-126.277E-12	656.656E-3	-23.3579E-3
-1.72836E-3	-127.372E-12	699.447E-3	-33.4749E-3	-126.130E-12	651.885E-3	-17.3581E-3
-1.73337E-3	-126.502E-12	665.914E-3	-10.9185E-3	-127.359E-12	638.374E-3	-10.9437E-3
-1.73837E-3	-126.616E-12	633.028E-3	-22.7201E-3	-128.550E-12	653.987E-3	-6.50403E-3
-1.74337E-3	-127.296E-12	629.246E-3	-27.9161E-3	-129.174E-12	690.097E-3	-10.3119E-3
-1.74837E-3	-127.548E-12	641.435E-3	-5.64523E-3	-129.944E-12	723.852E-3	-16.3910E-3
-1.75338E-3	-127.474E-12	649.500E-3	8.85854E-3	-132.060E-12	726.143E-3	-22.8451E-3
-1.75838E-3	-128.502E-12	642.299E-3	20.1132E-3	-132.806E-12	697.130E-3	-31.8402E-3
-1.76338E-3	-129.561E-12	644.006E-3	22.4556E-3	-132.570E-12	683.738E-3	-26.9250E-3
-1.76838E-3	-129.783E-12	676.288E-3	3.52590E-3	-132.743E-12	684.811E-3	-30.3036E-3
-1.77339E-3	-130.781E-12	710.213E-3	-17.7216E-3	-133.933E-12	679.200E-3	-39.3807E-3
-1.77839E-3	-131.566E-12	700.606E-3	-19.2022E-3	-133.220E-12	657.296E-3	-17.4829E-3
-1.78339E-3	-132.408E-12	667.445E-3	-9.70654E-3	-132.727E-12	636.222E-3	2.28661E-3
-1.78839E-3	-133.007E-12	657.133E-3	-1.41156E-3	-132.243E-12	632.458E-3	-6.60127E-3
-1.79340E-3	-133.725E-12	662.398E-3	-3.50693E-3	-132.361E-12	648.633E-3	-11.7195E-3
-1.79840E-3	-134.233E-12	671.278E-3	-29.9404E-3	-131.010E-12	680.374E-3	9.41187E-3
-1.80340E-3	-134.744E-12	688.130E-3	-49.5802E-3	-130.621E-12	682.020E-3	14.3667E-3
-1.80840E-3	-134.134E-12	686.844E-3	-36.8456E-3	-130.990E-12	672.377E-3	-13.5510E-3
-1.81341E-3	-133.969E-12	674.910E-3	-20.3299E-3	-130.799E-12	686.332E-3	-30.8525E-3
-1.81841E-3	-134.332E-12	673.029E-3	-13.8648E-3	-130.398E-12	685.967E-3	-45.8553E-3
-1.82341E-3	-133.844E-12	680.966E-3	1.12238E-3	-130.189E-12	678.870E-3	-58.3176E-3
-1.82841E-3	-133.758E-12	697.256E-3	-6.00699E-3	-130.937E-12	684.351E-3	-52.8591E-3
-1.83342E-3	-133.477E-12	694.397E-3	-27.9915E-3	-131.099E-12	676.404E-3	-47.4103E-3
-1.83842E-3	-132.908E-12	673.261E-3	-12.2217E-3	-131.697E-12	661.274E-3	-31.6746E-3
-1.84342E-3	-133.149E-12	629.144E-3	15.1020E-3	-132.875E-12	660.808E-3	-13.2491E-3
-1.84842E-3	-133.236E-12	598.037E-3	11.8178E-3	-134.167E-12	671.035E-3	-16.5615E-3
-1.85343E-3	-132.957E-12	623.295E-3	-2.20259E-3	-134.864E-12	670.101E-3	-11.4137E-3
-1.85843E-3	-132.581E-12	643.829E-3	-13.9866E-3	-135.580E-12	670.593E-3	8.75281E-3
-1.86343E-3	-133.612E-12	642.772E-3	-32.2315E-3	-136.409E-12	683.740E-3	-11.3434E-3
-1.86843E-3	-133.877E-12	657.575E-3	-36.6150E-3	-137.937E-12	682.540E-3	-39.3141E-3
-1.87344E-3	-134.748E-12	660.020E-3	-37.5246E-3	-138.255E-12	686.592E-3	-26.8998E-3
-1.87844E-3	-135.586E-12	651.653E-3	-32.0664E-3	-138.350E-12	702.378E-3	-23.9422E-3
-1.88344E-3	-136.877E-12	673.095E-3	-20.0678E-3	-138.525E-12	696.402E-3	-26.5557E-3
-1.88844E-3	-137.147E-12	691.318E-3	-14.9768E-3	-138.761E-12	677.260E-3	-32.9122E-3
-1.89345E-3	-138.643E-12	693.318E-3	-3.50334E-3	-138.175E-12	684.615E-3	-57.0614E-3
-1.89845E-3	-139.208E-12	696.222E-3	9.01396E-3	-137.902E-12	702.202E-3	-65.9921E-3
-1.90345E-3	-139.549E-12	679.431E-3	19.9272E-3	-137.715E-12	697.040E-3	-51.7804E-3
-1.90845E-3	-139.768E-12	662.925E-3	7.44850E-3	-137.188E-12	688.003E-3	-30.7785E-3
-1.91346E-3	-139.944E-12	669.978E-3	-18.3666E-3	-136.628E-12	677.249E-3	-13.8065E-3
-1.91846E-3	-139.651E-12	662.017E-3	-23.6743E-3	-136.675E-12	669.944E-3	-16.2007E-6
-1.92346E-3	-139.739E-12	660.513E-3	-30.1820E-3	-135.878E-12	681.998E-3	1.14931E-3
-1.92846E-3	-138.827E-12	697.786E-3	-29.5967E-3	-135.952E-12	692.184E-3	-9.29253E-3
-1.93347E-3	-138.036E-12	718.534E-3	-18.8931E-3	-137.010E-12	679.569E-3	-7.78052E-3
-1.93847E-3	-137.521E-12	691.730E-3	-21.8593E-3	-136.766E-12	666.468E-3	2.74882E-3
-1.94347E-3	-136.700E-12	662.561E-3	-32.3610E-3	-137.131E-12	684.223E-3	7.55755E-3
-1.94847E-3	-136.348E-12	664.483E-3	-33.5048E-3	-138.696E-12	710.369E-3	14.5390E-3
-1.95348E-3	-136.329E-12	677.521E-3	-28.7241E-3	-139.977E-12	711.944E-3	6.98934E-3
-1.95848E-3	-136.868E-12	683.341E-3	-21.3685E-3	-139.922E-12	695.283E-3	6.63784E-3
-1.96348E-3	-137.027E-12	689.938E-3	-11.7384E-3	-140.771E-12	680.330E-3	29.2813E-3
-1.96848E-3	-136.897E-12	690.997E-3	-10.7753E-3	-142.719E-12	682.605E-3	23.8197E-3
-1.97349E-3	-138.349E-12	680.959E-3	-7.42210E-3	-142.618E-12	696.639E-3	6.63634E-3
-1.97849E-3	-139.431E-12	664.300E-3	-7.14462E-3	-143.495E-12	723.833E-3	12.7769E-3
-1.98349E-3	-140.267E-12	654.691E-3	-25.8407E-3	-144.633E-12	736.434E-3	7.47138E-3
-1.98849E-3	-141.445E-12	666.915E-3	-46.9127E-3	-144.823E-12	703.688E-3	-18.8043E-3
-1.99350E-3	-142.006E-12	698.597E-3	-32.7371E-3	-143.956E-12	674.095E-3	-27.9600E-3
-1.99850E-3	-142.522E-12	719.723E-3	-12.6970E-3	-143.977E-12	696.259E-3	-29.2157E-3
-2.00350E-3	-144.017E-12	721.677E-3	-18.8041E-3	-143.931E-12	722.720E-3	-44.3658E-3
-2.00850E-3	-143.333E-12	712.434E-3	-26.2336E-3	-143.247E-12	720.281E-3	-48.9713E-3
-2.01351E-3	-143.833E-12	695.988E-3	-33.7957E-3	-142.780E-12	707.227E-3	-28.1001E-3
-2.01851E-3	-144.281E-12	702.146E-3	-30.2179E-3	-141.904E-12	685.540E-3	-11.8068E-3
-2.02351E-3	-143.343E-12	715.832E-3	-2.62646E-3	-141.456E-12	680.856E-3	-8.81155E-3
-2.02851E-3	-142.710E-12	713.483E-3	-33.2559E-6	-141.202E-12	684.598E-3	-13.4563E-3
-2.03352E-3	-142.821E-12	702.343E-3	-29.0625E-3	-141.010E-12	670.771E-3	-27.2855E-3
-2.03852E-3	-142.085E-12	680.667E-3	-31.1262E-3	-140.188E-12	674.106E-3	-31.2366E-3
-2.04352E-3	-140.744E-12	660.629E-3	-13.4318E-3	-140.725E-12	700.062E-3	-29.2170E-3
-2.04852E-3	-141.358E-12	667.277E-3	-644.514E-6	-141.116E-12	700.856E-3	-29.9050E-3
-2.05353E-3	-141.185E-12	692.563E-3	12.4849E-3	-141.084E-12	681.959E-3	-28.5809E-3
-2.05853E-3	-140.823E-12	691.347E-3	6.32331E-3	-142.297E-12	684.860E-3	-17.4050E-3
-2.06353E-3	-141.055E-12	676.451E-3	-8.34619E-3	-143.513E-12	702.648E-3	-5.07600E-3
-2.06853E-3	-142.623E-12	675.827E-3	-5.49724E-3	-143.974E-12	712.597E-3	-16.9340E-3
-2.07354E-3	-143.578E-12	669.304E-3	-14.1164E-3	-144.609E-12	720.401E-3	-38.5684E-3
-2.07854E-3	-143.380E-12	671.192E-3	-26.2417E-3	-145.731E-12	727.914E-3	-38.3624E-3
-2.08354E-3	-145.022E-12	702.909E-3	-6.26879E-3	-146.518E-12	721.809E-3	-28.0522E-3
-2.08854E-3	-146.367E-12	713.490E-3	10.8867E-3	-146.762E-12	711.518E-3	-16.2374E-3
-2.09355E-3	-147.275E-12	676.772E-3	835.694E-6	-146.614E-12	706.546E-3	-7.08241E-3
-2.09855E-3	-147.855E-12	664.330E-3	-8.15646E-3	-147.244E-12	705.413E-3	-4.93071E-3
-2.10355E-3	-148.742E-12	684.873E-3	-12.1006E-3	-147.112E-12	706.771E-3	5.46454E-3
-2.10855E-3	-149.039E-12	696.070E-3	-23.3258E-3	-146.590E-12	704.040E-3	6.70123E-3
-2.11356E-3	-149.332E-12	694.994E-3	-30.6662E-3	-146.732E-12	692.359E-3	-11.6638E-3
-2.11856E-3	-149.966E-12	664.452E-3	-34.2016E-3	-146.278E-12	669.209E-3	-20.8751E-3
-2.12356E-3	-149.568E-12	644.105E-3	-47.4534E-3	-145.103E-12	658.369E-3	-27.5484E-3
-2.12856E-3	-149.127E-12	683.833E-3	-40.3055E-3	-144.597E-12	676.458E-3	-39.8381E-3
-2.13357E-3	-148.482E-12	718.244E-3	-16.2172E-3	-144.168E-12	688.785E-3	-37.6385E-3
-2.13857E-3	-147.938E-12	711.219E-3	-15.6015E-3	-143.905E-12	682.454E-3	-37.8991E-3
-2.14357E-3	-147.018E-12	708.154E-3	-10.7893E-3	-143.704E-12	677.066E-3	-48.5564E-3
-2.14857E-3	-147.871E-12	717.185E-3	3.22514E-3	-144.372E-12	689.992E-3	-43.4697E-3
-2.15358E-3	-146.934E-12	719.418E-3	-12.1087E-3	-144.669E-12	702.355E-3	-23.3840E-3
-2.15858E-3	-147.025E-12	714.277E-3	-36.6751E-3	-146.111E-12	697.065E-3	-19.5639E-3
-2.16358E-3	-147.744E-12	700.189E-3	-40.6528E-3	-147.606E-12	692.759E-3	-32.2420E-3
-2.16858E-3	-148.165E-12	674.132E-3	-32.6222E-3	-148.046E-12	692.562E-3	-43.0437E-3
-2.17359E-3	-147.979E-12	673.812E-3	-16.0310E-3	-149.717E-12	695.100E-3	-35.1745E-3
-2.17859E-3	-149.744E-12	699.726E-3	127.520E-6	-151.478E-12	700.943E-3	-7.38227E-3
-2.18359E-3	-149.609E-12	712.109E-3	-1.10564E-3	-152.449E-12	704.178E-3	-63.5451E-6
-2.18859E-3	-149.522E-12	723.237E-3	-18.4642E-3	-152.951E-12	683.194E-3	-24.3392E-3
-2.19360E-3	-151.165E-12	728.070E-3	-22.7864E-3	-154.271E-12	665.049E-3	-39.5101E-3
-2.19860E-3	-151.530E-12	709.558E-3	-814.165E-6	-154.534E-12	689.733E-3	-53.8129E-3
-2.20360E-3	-152.293E-12	680.723E-3	-3.30501E-3	-155.363E-12	713.666E-3	-64.5081E-3
-2.20860E-3	-152.541E-12	667.670E-3	-42.8509E-3	-155.936E-12	711.285E-3	-37.2597E-3
-2.21361E-3	-153.944E-12	679.180E-3	-63.7366E-3	-155.002E-12	713.991E-3	-22.5674E-3
-2.21861E-3	-153.615E-12	696.363E-3	-59.7134E-3	-154.161E-12	706.632E-3	-56.5117E-3
-2.22361E-3	-153.485E-12	704.183E-3	-29.8452E-3	-153.863E-12	690.045E-3	-70.5749E-3
-2.22861E-3	-153.943E-12	699.135E-3	10.7606E-3	-153.193E-12	693.740E-3	-33.8150E-3
-2.23362E-3	-153.799E-12	705.331E-3	-1.78138E-3	-152.241E-12	697.043E-3	-10.1681E-3
-2.23862E-3	-153.121E-12	721.441E-3	-22.2390E-3	-151.991E-12	684.784E-3	-544.940E-6
-2.24362E-3	-153.313E-12	709.132E-3	-13.0541E-3	-151.915E-12	687.909E-3	28.2957E-3
-2.24862E-3	-152.587E-12	686.590E-3	-16.5633E-3	-151.741E-12	709.499E-3	31.3445E-3
-2.25363E-3	-152.187E-12	690.555E-3	-18.2429E-3	-151.942E-12	705.488E-3	-3.70821E-3
-2.25863E-3	-152.054E-12	696.078E-3	-18.4307E-3	-153.299E-12	683.108E-3	-28.5808E-3
-2.26363E-3	-152.090E-12	687.783E-3	-47.8084E-3	-153.115E-12	677.974E-3	-34.3742E-3
-2.26863E-3	-152.169E-12	680.878E-3	-54.0068E-3	-154.109E-12	682.540E-3	-44.8687E-3
-2.27364E-3	-151.694E-12	687.875E-3	-18.1644E-3	-155.296E-12	699.951E-3	-43.5014E-3
-2.27864E-3	-151.921E-12	700.432E-3	-3.35720E-3	-156.802E-12	721.250E-3	-32.7355E-3
-2.28364E-3	-152.705E-12	702.130E-3	11.4371E-3	-156.364E-12	700.805E-3	-40.3098E-3
-2.28864E-3	-153.847E-12	699.880E-3	16.2163E-3	-157.711E-12	680.890E-3	-33.7570E-3
-2.29365E-3	-153.463E-12	689.774E-3	-13.7780E-3	-158.370E-12	703.535E-3	-16.7827E-3
-2.29865E-3	-153.961E-12	677.047E-3	-23.2089E-3	-158.173E-12	700.059E-3	-16.1572E-3
-2.30365E-3	-154.992E-12	681.759E-3	-18.7836E-3	-158.000E-12	677.535E-3	-15.5737E-3
-2.30865E-3	-155.633E-12	698.282E-3	-22.7916E-3	-157.754E-12	701.362E-3	-17.1264E-3
-2.31366E-3	-156.298E-12	700.504E-3	-11.6413E-3	-157.615E-12	710.596E-3	-28.5842E-3
-2.31866E-3	-157.371E-12	677.959E-3	17.0236E-3	-156.585E-12	678.796E-3	-32.3062E-3
-2.32366E-3	-158.802E-12	672.145E-3	23.7179E-3	-156.092E-12	664.075E-3	-39.3375E-3
-2.32866E-3	-158.450E-12	705.273E-3	-1.01246E-3	-155.383E-12	667.411E-3	-67.5772E-3
-2.33367E-3	-158.850E-12	719.565E-3	-22.2095E-3	-154.804E-12	659.703E-3	-73.5636E-3
-2.33867E-3	-158.907E-12	698.111E-3	-41.8267E-3	-153.967E-12	652.817E-3	-36.7359E-3
-2.34367E-3	-159.081E-12	698.798E-3	-40.1642E-3	-153.412E-12	665.582E-3	-6.95164E-3
-2.34867E-3	-158.236E-12	717.154E-3	-15.2850E-3	-153.869E-12	677.867E-3	-7.27990E-3
-2.35368E-3	-157.251E-12	709.340E-3	-5.08473E-3	-153.966E-12	674.681E-3	-16.0293E-3
-2.35868E-3	-156.814E-12	701.075E-3	-8.30556E-3	-153.620E-12	666.121E-3	-25.6466E-3
-2.36368E-3	-156.862E-12	696.970E-3	-20.5086E-3	-154.384E-12	656.084E-3	-14.2574E-3
-2.36868E-3	-156.261E-12	664.308E-3	-35.4749E-3	-155.704E-12	666.580E-3	23.4697E-3
-2.37369E-3	-155.213E-12	649.588E-3	-37.5850E-3	-155.883E-12	700.013E-3	43.4687E-3
-2.37869E-3	-155.908E-12	675.763E-3	-19.5603E-3	-157.598E-12	711.759E-3	32.7912E-3
-2.38369E-3	-156.241E-12	684.294E-3	380.074E-6	-158.136E-12	698.843E-3	18.4758E-3
-2.38869E-3	-156.803E-12	665.133E-3	-5.36326E-3	-159.369E-12	677.860E-3	-2.50776E-3
-2.39370E-3	-157.703E-12	649.259E-3	-22.7369E-3	-159.848E-12	656.295E-3	-18.2477E-3
-2.39870E-3	-159.179E-12	658.253E-3	-29.3482E-3	-160.892E-12	666.187E-3	-22.4213E-3
-2.40370E-3	-159.461E-12	698.351E-3	-22.2565E-3	-161.080E-12	711.887E-3	-41.2562E-3
-2.40870E-3	-160.999E-12	719.465E-3	-13.0162E-3	-161.523E-12	719.950E-3	-42.9444E-3
-2.41371E-3	-162.099E-12	701.146E-3	-9.00982E-3	-161.319E-12	691.283E-3	-4.39008E-3
-2.41871E-3	-163.186E-12	697.760E-3	-4.72768E-3	-161.841E-12	686.869E-3	15.7838E-3
-2.42371E-3	-163.688E-12	713.912E-3	-4.30474E-3	-162.035E-12	682.686E-3	2.78274E-3
-2.42871E-3	-164.437E-12	721.582E-3	1.09263E-3	-161.572E-12	686.034E-3	-14.7201E-3
-2.43372E-3	-164.564E-12	703.455E-3	6.60447E-3	-161.488E-12	695.853E-3	-17.6660E-3
-2.43872E-3	-164.481E-12	666.205E-3	-12.5191E-3	-161.739E-12	679.590E-3	-21.3451E-3
-2.44372E-3	-163.954E-12	654.679E-3	-38.8229E-3	-161.480E-12	673.823E-3	-45.9640E-3
-2.44872E-3	-162.576E-12	661.329E-3	-35.2115E-3	-161.221E-12	694.264E-3	-53.7544E-3
-2.45373E-3	-162.642E-12	665.513E-3	-3.41908E-3	-161.571E-12	705.972E-3	-49.8468E-3
-2.45873E-3	-162.286E-12	671.104E-3	19.4186E-3	-162.477E-12	704.314E-3	-41.7381E-3
-2.46373E-3	-160.921E-12	678.739E-3	6.69819E-3	-161.890E-12	703.662E-3	-22.3847E-3
-2.46873E-3	-160.695E-12	694.302E-3	-4.69937E-3	-162.708E-12	691.884E-3	-28.8705E-3
-2.47374E-3	-161.310E-12	693.877E-3	6.41126E-3	-163.451E-12	671.410E-3	-40.4072E-3
-2.47874E-3	-160.730E-12	684.253E-3	-1.29223E-3	-164.055E-12	670.357E-3	-31.8377E-3
-2.48374E-3	-160.721E-12	680.766E-3	-24.2834E-3	-164.427E-12	677.068E-3	-33.9833E-3
-2.48874E-3	-161.382E-12	675.865E-3	-24.5796E-3	-166.071E-12	672.262E-3	-13.9809E-3
-2.49375E-3	-162.045E-12	682.263E-3	-10.9103E-3	-166.494E-12	671.016E-3	19.3042E-3
-2.49875E-3	-163.089E-12	690.070E-3	-9.38085E-3	-167.182E-12	677.082E-3	-2.88183E-3
-2.50375E-3	-164.388E-12	684.866E-3	-12.3146E-3	-167.742E-12	674.837E-3	-35.7786E-3
-2.50875E-3	-165.489E-12	685.387E-3	-20.7385E-3	-168.193E-12	682.435E-3	-34.8531E-3
-2.51376E-3	-166.050E-12	685.134E-3	-32.1982E-3	-168.780E-12	707.580E-3	-40.6697E-3
-2.51876E-3	-168.468E-12	683.978E-3	-25.5002E-3	-168.971E-12	708.766E-3	-54.5386E-3
-2.52376E-3	-168.849E-12	721.274E-3	-23.4865E-3	-168.992E-12	686.269E-3	-36.1374E-3
-2.52876E-3	-168.122E-12	765.051E-3	-12.7947E-3	-168.810E-12	675.574E-3	4.60862E-3
-2.53377E-3	-169.505E-12	743.262E-3	8.18181E-3	-168.860E-12	678.199E-3	5.70904E-3
-2.53877E-3	-168.744E-12	697.147E-3	-14.1157E-3	-168.301E-12	671.264E-3	-21.4395E-3
-2.54377E-3	-168.305E-12	685.886E-3	-50.7668E-3	-168.041E-12	652.559E-3	-28.9726E-3
-2.54877E-3	-166.670E-12	685.046E-3	-48.5846E-3	-167.274E-12	649.357E-3	-37.1039E-3
-2.55378E-3	-167.271E-12	702.194E-3	-24.5972E-3	-167.284E-12	674.960E-3	-34.0727E-3
-2.55878E-3	-166.048E-12	725.510E-3	-3.72095E-3	-166.849E-12	704.412E-3	-12.4670E-3
-2.56378E-3	-165.723E-12	723.875E-3	12.4717E-3	-166.596E-12	721.081E-3	7.23747E-3
-2.56878E-3	-165.289E-12	711.586E-3	8.69306E-3	-166.627E-12	740.731E-3	12.0497E-3
-2.57379E-3	-164.635E-12	693.310E-3	-6.60815E-3	-166.326E-12	725.314E-3	-5.08316E-3
-2.57879E-3	-165.330E-12	686.678E-3	-17.0805E-3	-166.817E-12	678.123E-3	-12.4718E-3
-2.58379E-3	-165.477E-12	676.069E-3	-22.0745E-3	-167.709E-12	672.748E-3	-5.68355E-3
-2.58879E-3	-166.029E-12	663.039E-3	-10.5047E-3	-168.433E-12	689.820E-3	-17.0225E-3
-2.59380E-3	-166.903E-12	663.991E-3	-15.6771E-3	-168.914E-12	693.572E-3	-20.9173E-3
-2.59880E-3	-168.091E-12	653.453E-3	-21.5187E-3	-170.792E-12	698.838E-3	-12.6247E-3
-2.60380E-3	-168.407E-12	659.407E-3	-14.0837E-3	-170.836E-12	690.339E-3	-14.1120E-3
-2.60880E-3	-169.347E-12	682.289E-3	-15.6832E-3	-171.518E-12	676.953E-3	-13.5913E-3
-2.61381E-3	-171.273E-12	681.071E-3	-2.75399E-3	-172.074E-12	691.091E-3	-17.5528E-3
-2.61881E-3	-171.905E-12	662.971E-3	-4.98397E-3	-172.181E-12	713.956E-3	-24.6590E-3
-2.62381E-3	-172.289E-12	641.934E-3	-21.8625E-3	-172.315E-12	716.642E-3	-2.89352E-3
-2.62881E-3	-173.446E-12	633.675E-3	-11.6337E-3	-172.079E-12	715.503E-3	31.1056E-3
-2.63382E-3	-173.969E-12	649.647E-3	-3.08385E-3	-171.214E-12	725.377E-3	19.1700E-3
-2.63882E-3	-174.040E-12	678.505E-3	-12.6048E-3	-170.664E-12	723.302E-3	-19.9550E-3
-2.64382E-3	-174.151E-12	691.603E-3	-11.2282E-3	-170.595E-12	700.115E-3	-32.8192E-3
-2.64882E-3	-174.683E-12	669.281E-3	-3.39698E-3	-169.234E-12	675.510E-3	-12.9460E-3
-2.65383E-3	-174.801E-12	664.854E-3	-3.22454E-3	-169.012E-12	664.839E-3	-1.77528E-3
-2.65883E-3	-173.694E-12	694.954E-3	-18.5171E-3	-168.538E-12	670.160E-3	-6.92080E-3
-2.66383E-3	-173.508E-12	713.637E-3	-33.9706E-3	-168.509E-12	692.093E-3	-11.4082E-3
-2.66883E-3	-173.839E-12	718.374E-3	-14.6674E-3	-167.681E-12	705.753E-3	-34.1842E-3
-2.67384E-3	-172.783E-12	704.048E-3	21.4135E-3	-167.840E-12	697.989E-3	-41.2999E-3
-2.67884E-3	-171.992E-12	670.030E-3	25.3408E-3	-169.024E-12	707.452E-3	-22.8118E-3
-2.68384E-3	-172.626E-12	667.147E-3	15.4543E-3	-169.627E-12	715.552E-3	-31.0269E-3
-2.68884E-3	-172.572E-12	683.109E-3	40.6430E-3	-170.984E-12	692.415E-3	-35.4790E-3
-2.69385E-3	-172.194E-12	666.438E-3	51.6121E-3	-171.596E-12	670.084E-3	-10.8112E-3
-2.69885E-3	-172.713E-12	663.735E-3	9.61365E-3	-173.467E-12	666.191E-3	12.0781E-3
-2.70385E-3	-172.668E-12	699.978E-3	-29.0934E-3	-174.543E-12	685.488E-3	23.0450E-3
-2.70885E-3	-172.828E-12	715.383E-3	-20.6296E-3	-175.221E-12	705.520E-3	19.7025E-3
-2.71386E-3	-173.553E-12	695.067E-3	-9.47457E-3	-176.589E-12	702.397E-3	-4.42669E-3
-2.71886E-3	-174.310E-12	683.892E-3	-33.4971E-3	-176.602E-12	694.057E-3	-33.7265E-3
-2.72386E-3	-175.418E-12	687.217E-3	-41.3089E-3	-176.715E-12	689.497E-3	-29.4324E-3
-2.72886E-3	-177.101E-12	686.220E-3	-37.8656E-3	-176.351E-12	675.153E-3	-14.9960E-3
-2.73387E-3	-177.666E-12	681.900E-3	-24.3564E-3	-176.683E-12	656.862E-3	-19.4830E-3
-2.73887E-3	-178.764E-12	680.716E-3	12.3822E-3	-175.178E-12	656.268E-3	-28.7970E-3
-2.74387E-3	-179.923E-12	675.626E-3	5.34416E-3	-174.803E-12	658.542E-3	-38.4117E-3
-2.74887E-3	-179.991E-12	674.671E-3	-31.0306E-3	-174.555E-12	656.075E-3	-32.5376E-3
-2.75388E-3	-179.281E-12	665.871E-3	-34.4903E-3	-173.749E-12	667.193E-3	-14.1960E-3
-2.75888E-3	-179.401E-12	666.424E-3	-23.8928E-3	-173.249E-12	681.435E-3	-12.8574E-3
-2.76388E-3	-179.212E-12	715.228E-3	8.59899E-3	-173.499E-12	687.993E-3	-17.7738E-3
-2.76888E-3	-178.294E-12	733.698E-3	43.2945E-3	-173.421E-12	701.581E-3	-1.95979E-3
-2.77389E-3	-177.076E-12	696.052E-3	13.8975E-3	-174.052E-12	725.404E-3	5.22723E-3
-2.77889E-3	-176.828E-12	670.468E-3	-35.6434E-3	-175.027E-12	709.026E-3	-6.68623E-3
-2.78389E-3	-176.034E-12	659.114E-3	-34.4385E-3	-176.490E-12	686.489E-3	-2.86994E-3
-2.78889E-3	-175.467E-12	659.777E-3	-29.0290E-3	-177.798E-12	704.798E-3	-4.92781E-3
-2.79390E-3	-174.736E-12	676.273E-3	-49.9488E-3	-179.014E-12	710.244E-3	-22.1031E-3
-2.79890E-3	-174.072E-12	671.079E-3	-47.7215E-3	-180.655E-12	708.688E-3	-22.0941E-3
-2.80390E-3	-173.790E-12	648.931E-3	-25.9826E-3	-181.585E-12	720.916E-3	-23.6223E-3
-2.80890E-3	-174.488E-12	645.129E-3	7.10283E-3	-182.814E-12	724.577E-3	-28.7272E-3
-2.81391E-3	-174.773E-12	671.381E-3	30.3458E-3	-184.205E-12	720.483E-3	-18.3624E-3
-2.81891E-3	-175.989E-12	686.112E-3	11.7329E-3	-184.210E-12	732.224E-3	-18.7763E-3
-2.82391E-3	-177.834E-12	672.538E-3	-12.4461E-3	-184.359E-12	729.284E-3	-25.8112E-3
-2.82891E-3	-179.000E-12	656.255E-3	-27.9083E-3	-184.495E-12	701.696E-3	-17.3683E-3
-2.83392E-3	-180.336E-12	636.564E-3	-41.0726E-3	-184.444E-12	709.292E-3	-9.55266E-3
-2.83892E-3	-182.020E-12	648.480E-3	-48.5824E-3	-183.727E-12	729.075E-3	-21.2893E-3
-2.84392E-3	-182.628E-12	704.823E-3	-39.8581E-3	-183.513E-12	700.372E-3	-35.4881E-3
-2.84892E-3	-183.819E-12	747.824E-3	-33.3361E-3	-183.094E-12	657.586E-3	-41.3424E-3
-2.85393E-3	-183.987E-12	751.480E-3	-35.2312E-3	-182.590E-12	642.439E-3	-54.0540E-3
-2.85893E-3	-184.115E-12	735.890E-3	-10.7819E-3	-181.703E-12	645.393E-3	-44.9840E-3
-2.86393E-3	-184.192E-12	709.490E-3	30.5543E-3	-181.204E-12	666.952E-3	-13.8764E-3
-2.86893E-3	-184.045E-12	689.343E-3	49.0273E-3	-181.032E-12	701.523E-3	2.01499E-3
-2.87394E-3	-181.626E-12	688.961E-3	11.7877E-3	-181.048E-12	713.356E-3	4.17392E-3
-2.87894E-3	-181.809E-12	684.611E-3	-46.2147E-3	-181.362E-12	686.071E-3	24.5273E-3
-2.88394E-3	-180.325E-12	691.489E-3	-49.1054E-3	-181.728E-12	661.108E-3	39.4203E-3
-2.88894E-3	-178.687E-12	699.637E-3	-16.2215E-3	-182.183E-12	675.400E-3	11.2629E-3
-2.89395E-3	-178.261E-12	672.763E-3	-18.1322E-3	-182.879E-12	693.090E-3	-7.00680E-3
-2.89895E-3	-178.053E-12	640.790E-3	-34.4219E-3	-183.523E-12	687.969E-3	6.75733E-3
-2.90395E-3	-178.554E-12	642.381E-3	-9.62538E-3	-184.106E-12	666.182E-3	1.52846E-3
-2.90895E-3	-178.853E-12	665.890E-3	13.0879E-3	-184.931E-12	649.272E-3	-36.3147E-3
-2.91396E-3	-179.419E-12	671.566E-3	-11.9773E-3	-186.351E-12	663.869E-3	-49.0773E-3
-2.91896E-3	-181.196E-12	662.957E-3	-44.9877E-3	-186.331E-12	700.964E-3	-32.8523E-3
-2.92396E-3	-183.163E-12	667.321E-3	-47.1062E-3	-186.217E-12	715.317E-3	-6.11082E-3
-2.92896E-3	-184.452E-12	674.312E-3	-30.4383E-3	-186.775E-12	707.848E-3	23.8293E-3
-2.93397E-3	-185.472E-12	657.916E-3	-18.4963E-3	-186.963E-12	718.946E-3	2.94888E-3
-2.93897E-3	-187.766E-12	644.544E-3	-2.07244E-3	-186.136E-12	720.908E-3	-28.2421E-3
-2.94397E-3	-188.873E-12	678.239E-3	1.32610E-3	-185.827E-12	699.512E-3	-15.5026E-3
-2.94897E-3	-189.607E-12	716.261E-3	-12.1393E-3	-185.923E-12	669.724E-3	-11.6656E-3
-2.95398E-3	-190.292E-12	714.929E-3	-12.4617E-3	-185.301E-12	638.081E-3	-28.6029E-3
-2.95898E-3	-190.945E-12	709.616E-3	-11.3188E-3	-184.193E-12	626.126E-3	-36.4194E-3
-2.96398E-3	-190.220E-12	721.425E-3	-14.9479E-3	-184.817E-12	643.231E-3	-34.9120E-3
-2.96898E-3	-189.589E-12	729.822E-3	-29.3689E-3	-183.744E-12	668.796E-3	-25.4641E-3
-2.97399E-3	-189.506E-12	719.970E-3	-50.2790E-3	-182.897E-12	670.617E-3	-23.2781E-3
-2.97899E-3	-187.818E-12	721.416E-3	-45.9515E-3	-183.837E-12	656.838E-3	-21.9361E-3
-2.98399E-3	-186.108E-12	723.470E-3	-28.5216E-3	-184.594E-12	663.881E-3	5.43719E-3
-2.98899E-3	-185.938E-12	703.185E-3	-19.2462E-3	-183.511E-12	672.454E-3	14.5069E-3
-2.99400E-3	-185.761E-12	711.920E-3	-3.30704E-3	-183.586E-12	670.116E-3	-14.0790E-3
-2.99900E-3	-184.696E-12	709.057E-3	8.01618E-3	-184.898E-12	691.191E-3	-26.7112E-3
-3.00400E-3	-184.695E-12	670.369E-3	-13.9122E-3	-185.802E-12	711.405E-3	-25.6836E-3
-3.00900E-3	-185.830E-12	652.251E-3	-38.4832E-3	-186.023E-12	709.988E-3	-20.1952E-3
-3.01401E-3	-186.104E-12	642.065E-3	-49.7068E-3	-187.439E-12	719.777E-3	-7.59732E-3
-3.01901E-3	-186.347E-12	646.573E-3	-42.5866E-3	-187.934E-12	720.805E-3	1.92067E-3
-3.02401E-3	-187.495E-12	676.798E-3	-27.6526E-3	-189.184E-12	706.725E-3	6.97966E-3
-3.02901E-3	-188.294E-12	690.205E-3	-20.3355E-3	-190.206E-12	714.317E-3	-10.4837E-3
-3.03402E-3	-189.483E-12	673.981E-3	-15.6881E-3	-191.035E-12	732.859E-3	-27.3149E-3
-3.03902E-3	-190.455E-12	671.807E-3	-35.0925E-3	-191.377E-12	739.471E-3	-24.8893E-3
-3.04402E-3	-191.298E-12	698.163E-3	-61.1826E-3	-192.754E-12	729.451E-3	-19.7996E-3
-3.04902E-3	-192.641E-12	700.011E-3	-66.5869E-3	-191.801E-12	716.088E-3	-1.64491E-3
-3.05403E-3	-193.645E-12	702.306E-3	-38.9305E-3	-192.094E-12	698.391E-3	6.50103E-3
-3.05903E-3	-194.267E-12	716.371E-3	-14.9400E-3	-192.394E-12	684.265E-3	-11.0543E-3
-3.06403E-3	-193.971E-12	692.465E-3	-29.4232E-3	-191.347E-12	684.389E-3	-26.8912E-3
-3.06903E-3	-194.517E-12	675.267E-3	-45.6351E-3	-190.491E-12	679.642E-3	-43.6747E-3
-3.07404E-3	-193.809E-12	681.232E-3	-29.4909E-3	-189.259E-12	669.921E-3	-38.2783E-3
-3.07904E-3	-193.350E-12	668.297E-3	-6.84631E-3	-189.690E-12	669.326E-3	-7.39971E-3
-3.08404E-3	-192.901E-12	662.900E-3	209.281E-6	-188.767E-12	680.616E-3	-9.06216E-3
-3.08904E-3	-192.823E-12	679.192E-3	35.3392E-3	-188.434E-12	694.091E-3	-23.4500E-3
-3.09405E-3	-191.007E-12	661.936E-3	51.7282E-3	-187.833E-12	706.678E-3	-25.1294E-3
-3.09905E-3	-190.561E-12	629.972E-3	-6.05861E-3	-189.036E-12	707.314E-3	-34.1672E-3
-3.10405E-3	-190.560E-12	635.522E-3	-36.6750E-3	-188.972E-12	679.768E-3	-28.6776E-3
-3.10905E-3	-189.678E-12	647.187E-3	-32.0248E-3	-189.607E-12	668.075E-3	-6.81934E-3
-3.11406E-3	-188.782E-12	648.875E-3	-65.8588E-3	-190.907E-12	689.547E-3	-10.4151E-3
-3.11906E-3	-189.173E-12	653.179E-3	-103.667E-3	-192.240E-12	690.247E-3	-29.7495E-3
-3.12406E-3	-189.383E-12	658.830E-3	-90.6225E-3	-193.474E-12	678.459E-3	-7.57561E-3
-3.12906E-3	-189.819E-12	682.786E-3	-72.1683E-3	-195.115E-12	677.236E-3	27.1115E-3
-3.13407E-3	-190.666E-12	708.654E-3	-69.3403E-3	-195.960E-12	676.072E-3	30.4629E-3
-3.13907E-3	-191.555E-12	691.750E-3	-44.9441E-3	-197.409E-12	688.706E-3	20.0095E-3
-3.14407E-3	-192.801E-12	662.247E-3	-31.4874E-3	-198.092E-12	714.725E-3	-6.72080E-3
-3.14907E-3	-193.991E-12	669.640E-3	-28.6521E-3	-198.271E-12	726.005E-3	-23.6619E-3
-3.15408E-3	-194.916E-12	690.913E-3	-10.6883E-3	-197.630E-12	705.520E-3	-26.0099E-3
-3.15908E-3	-196.323E-12	682.540E-3	-4.91556E-3	-197.125E-12	669.154E-3	-38.6246E-3
-3.16408E-3	-197.810E-12	693.380E-3	-12.0485E-3	-196.027E-12	651.376E-3	-32.4129E-3
-3.16908E-3	-199.151E-12	723.108E-3	-6.44627E-3	-194.601E-12	650.227E-3	-9.13862E-3
-3.17409E-3	-198.652E-12	700.431E-3	-6.40887E-3	-193.802E-12	650.330E-3	-23.0531E-3
-3.17909E-3	-199.772E-12	670.142E-3	-24.2153E-3	-192.430E-12	654.288E-3	-48.5472E-3
-3.18409E-3	-199.301E-12	671.403E-3	-30.0814E-3	-192.101E-12	657.379E-3	-21.8898E-3
-3.18909E-3	-199.249E-12	670.982E-3	-18.8824E-3	-191.394E-12	677.439E-3	4.24440E-3
-3.19410E-3	-198.639E-12	679.438E-3	-19.7223E-3	-191.569E-12	716.756E-3	-18.7222E-3
-3.19910E-3	-197.395E-12	700.545E-3	-27.5829E-3	-192.172E-12	723.119E-3	-20.3924E-3
-3.20410E-3	-195.389E-12	690.499E-3	-28.9110E-3	-192.553E-12	699.881E-3	5.37170E-3
-3.20910E-3	-195.278E-12	665.523E-3	-41.5796E-3	-193.747E-12	692.500E-3	-13.6992E-3
-3.21411E-3	-193.851E-12	678.361E-3	-45.2566E-3	-195.229E-12	699.655E-3	-53.7261E-3
-3.21911E-3	-192.581E-12	708.480E-3	-39.3195E-3	-196.558E-12	717.730E-3	-75.0091E-3
-3.22411E-3	-193.208E-12	709.045E-3	-41.8528E-3	-198.104E-12	731.870E-3	-69.4235E-3
-3.22911E-3	-193.968E-12	663.904E-3	-42.0376E-3	-199.737E-12	716.830E-3	-37.5947E-3
-3.23412E-3	-194.073E-12	630.013E-3	-44.4950E-3	-201.744E-12	719.450E-3	-19.9386E-3
-3.23912E-3	-194.509E-12	650.460E-3	-37.1085E-3	-202.751E-12	742.448E-3	-25.2481E-3
-3.24412E-3	-197.206E-12	672.226E-3	-28.0537E-3	-203.186E-12	727.412E-3	-23.3656E-3
-3.24912E-3	-197.487E-12	670.849E-3	-30.2489E-3	-203.997E-12	701.695E-3	-9.01018E-3
-3.25413E-3	-199.335E-12	663.073E-3	-27.7472E-3	-204.063E-12	707.690E-3	-11.1748E-3
-3.25913E-3	-201.611E-12	672.118E-3	-4.86973E-3	-202.912E-12	712.701E-3	-28.7271E-3
-3.26413E-3	-203.499E-12	696.856E-3	5.97430E-3	-202.505E-12	695.347E-3	-32.6516E-3
-3.26913E-3	-204.623E-12	711.945E-3	-12.4346E-3	-200.662E-12	697.492E-3	-27.3337E-3
-3.27414E-3	-205.152E-12	724.012E-3	-20.7236E-3	-199.900E-12	706.298E-3	-24.2196E-3
-3.27914E-3	-205.959E-12	703.231E-3	-35.3230E-3	-199.190E-12	693.897E-3	-8.87944E-3
-3.28414E-3	-205.625E-12	656.287E-3	-57.3840E-3	-198.334E-12	685.470E-3	209.717E-6
-3.28914E-3	-206.001E-12	646.636E-3	-49.3368E-3	-198.162E-12	680.575E-3	-23.1581E-3
-3.29415E-3	-202.626E-12	679.667E-3	-31.0816E-3	-198.169E-12	679.479E-3	-31.6950E-3
-3.29915E-3	-202.625E-12	738.872E-3	-15.6833E-3	-198.361E-12	701.950E-3	-29.2361E-3
-3.30415E-3	-202.615E-12	761.938E-3	-555.089E-6	-198.776E-12	708.898E-3	-44.8040E-3
-3.30915E-3	-199.778E-12	708.946E-3	9.09194E-3	-200.249E-12	696.838E-3	-38.6387E-3
-3.31416E-3	-198.186E-12	654.657E-3	8.36855E-3	-201.152E-12	704.322E-3	-22.6333E-3
-3.31916E-3	-199.187E-12	661.997E-3	4.07139E-3	-202.417E-12	688.225E-3	-25.1448E-3
-3.32416E-3	-197.929E-12	691.954E-3	5.90517E-3	-203.246E-12	674.259E-3	-10.0260E-3
-3.32916E-3	-196.853E-12	712.307E-3	-2.61273E-3	-204.698E-12	702.609E-3	22.4938E-3
-3.33417E-3	-198.198E-12	701.316E-3	-11.7391E-3	-205.380E-12	703.312E-3	26.2586E-3
-3.33917E-3	-199.157E-12	668.794E-3	-10.5425E-3	-206.093E-12	674.453E-3	-378.437E-6
-3.34417E-3	-199.193E-12	661.303E-3	-15.1098E-3	-206.399E-12	681.642E-3	-26.2161E-3
-3.34917E-3	-200.843E-12	656.645E-3	-15.7224E-3	-207.022E-12	697.273E-3	-37.9982E-3
-3.35418E-3	-203.092E-12	655.084E-3	-17.2653E-3	-206.440E-12	685.722E-3	-18.0322E-3
-3.35918E-3	-204.161E-12	678.217E-3	-48.2915E-3	-206.122E-12	687.598E-3	1.98769E-3
-3.36418E-3	-205.703E-12	696.241E-3	-52.2643E-3	-205.609E-12	704.228E-3	-36.6266E-3
-3.36918E-3	-207.049E-12	695.326E-3	-4.72565E-3	-204.951E-12	700.759E-3	-63.6235E-3
-3.37419E-3	-208.185E-12	698.801E-3	8.33550E-3	-204.780E-12	695.895E-3	-37.4568E-3
-3.37919E-3	-208.411E-12	713.118E-3	3.85104E-3	-204.318E-12	707.183E-3	-21.0995E-3
-3.38419E-3	-208.699E-12	703.600E-3	16.9176E-3	-204.068E-12	684.892E-3	-25.8829E-3
-3.38919E-3	-208.284E-12	678.525E-3	3.55040E-3	-204.036E-12	641.264E-3	-31.2688E-3
-3.39420E-3	-207.877E-12	690.374E-3	-32.7088E-3	-204.182E-12	674.547E-3	-30.9694E-3
-3.39920E-3	-207.961E-12	701.479E-3	-42.2623E-3	-203.422E-12	725.446E-3	-37.1292E-3
-3.40420E-3	-206.290E-12	685.017E-3	-34.9046E-3	-204.659E-12	709.076E-3	-43.8325E-3
-3.40920E-3	-205.609E-12	673.139E-3	-28.1316E-3	-204.908E-12	675.103E-3	-32.0416E-3
-3.41421E-3	-204.411E-12	672.519E-3	3.15974E-3	-204.852E-12	658.847E-3	-23.4114E-3
-3.41921E-3	-204.424E-12	684.673E-3	2.73747E-3	-206.109E-12	658.901E-3	-22.5895E-3
-3.42421E-3	-203.271E-12	699.893E-3	-25.7301E-3	-207.179E-12	670.022E-3	-22.8558E-3
-3.42921E-3	-203.566E-12	695.822E-3	2.30606E-3	-206.364E-12	677.719E-3	-28.2726E-3
-3.43422E-3	-203.232E-12	673.985E-3	27.6502E-3	-207.682E-12	677.276E-3	-18.7682E-3
-3.43922E-3	-203.210E-12	652.221E-3	-5.18793E-3	-209.173E-12	685.601E-3	-3.09706E-3
-3.44422E-3	-204.628E-12	660.505E-3	-23.6159E-3	-209.258E-12	705.997E-3	11.6029E-3
-3.44922E-3	-205.084E-12	688.451E-3	-11.6799E-3	-209.556E-12	737.153E-3	9.19619E-3
-3.45423E-3	-206.812E-12	692.042E-3	4.66271E-3	-210.658E-12	754.775E-3	-23.4368E-3
-3.45923E-3	-208.595E-12	689.574E-3	24.3876E-3	-211.320E-12	736.743E-3	-29.8371E-3
-3.46423E-3	-209.772E-12	687.362E-3	23.1762E-3	-211.609E-12	706.935E-3	-12.7795E-3
-3.46923E-3	-210.525E-12	687.400E-3	-3.71159E-3	-211.619E-12	678.012E-3	-14.0033E-3
-3.47424E-3	-211.986E-12	703.954E-3	-35.6104E-3	-211.869E-12	650.694E-3	-23.3789E-3
-3.47924E-3	-213.400E-12	719.263E-3	-44.0162E-3	-211.260E-12	645.588E-3	-18.0849E-3
-3.48424E-3	-213.660E-12	717.265E-3	-55.1230E-3	-211.253E-12	662.981E-3	-12.2290E-3
-3.48924E-3	-213.654E-12	701.688E-3	-63.2683E-3	-210.550E-12	670.124E-3	-25.1212E-3
-3.49425E-3	-213.733E-12	688.773E-3	-23.7968E-3	-210.440E-12	677.489E-3	-4.16662E-3
-3.49925E-3	-214.004E-12	693.380E-3	10.5906E-3	-210.008E-12	697.536E-3	27.6811E-3
-3.50425E-3	-212.475E-12	727.017E-3	-2.46045E-3	-209.276E-12	695.977E-3	6.26950E-3
-3.50925E-3	-212.329E-12	756.049E-3	-30.4641E-3	-208.353E-12	666.914E-3	-17.2790E-3
-3.51426E-3	-211.523E-12	733.302E-3	-35.2855E-3	-209.166E-12	651.907E-3	-10.0241E-3
-3.51926E-3	-211.489E-12	698.495E-3	-23.0604E-3	-208.413E-12	663.224E-3	3.66952E-3
-3.52426E-3	-209.984E-12	690.529E-3	-7.39342E-3	-208.930E-12	660.193E-3	20.8772E-3
-3.52926E-3	-209.340E-12	689.297E-3	-10.7597E-3	-209.697E-12	662.821E-3	18.2753E-3
-3.53427E-3	-209.507E-12	693.036E-3	-36.7555E-3	-210.220E-12	672.760E-3	-16.2222E-3
-3.53927E-3	-209.066E-12	696.311E-3	-35.5856E-3	-210.117E-12	646.724E-3	-37.7184E-3
-3.54427E-3	-208.960E-12	693.630E-3	-13.0363E-3	-213.038E-12	643.797E-3	-45.7433E-3
-3.54927E-3	-209.501E-12	700.517E-3	-10.5855E-3	-214.224E-12	675.809E-3	-50.9450E-3
-3.55428E-3	-210.606E-12	697.900E-3	-25.8208E-3	-214.353E-12	668.589E-3	-30.4465E-3
-3.55928E-3	-211.645E-12	688.933E-3	-36.3470E-3	-216.555E-12	666.598E-3	-20.6679E-3
-3.56428E-3	-211.552E-12	686.245E-3	-28.6066E-3	-218.182E-12	697.153E-3	-34.7027E-3
-3.56928E-3	-213.337E-12	684.562E-3	-9.08868E-3	-217.881E-12	686.897E-3	-36.8263E-3
-3.57429E-3	-215.498E-12	698.840E-3	-577.288E-6	-216.749E-12	659.570E-3	-47.5990E-3
-3.57929E-3	-216.225E-12	720.603E-3	-2.85434E-3	-218.575E-12	660.639E-3	-60.8607E-3
-3.58429E-3	-217.565E-12	735.327E-3	12.4858E-3	-216.715E-12	663.190E-3	-38.8222E-3
-3.58929E-3	-218.702E-12	728.207E-3	20.1095E-3	-215.087E-12	670.972E-3	-11.4842E-3
-3.59430E-3	-220.495E-12	704.941E-3	17.5740E-3	-214.967E-12	691.942E-3	-30.8804E-3
-3.59930E-3	-219.227E-12	711.171E-3	47.7823E-3	-213.624E-12	697.729E-3	-48.5051E-3
-3.60430E-3	-219.754E-12	723.686E-3	51.9705E-3	-211.590E-12	701.341E-3	-30.0058E-3
-3.60930E-3	-219.480E-12	724.593E-3	17.4025E-3	-212.154E-12	711.637E-3	-20.7452E-3
-3.61431E-3	-217.911E-12	731.374E-3	21.8046E-3	-211.709E-12	701.241E-3	-27.1526E-3
-3.61931E-3	-216.315E-12	724.711E-3	47.4708E-3	-210.440E-12	680.237E-3	-28.1907E-3
-3.62431E-3	-216.021E-12	710.164E-3	46.1484E-3	-212.470E-12	678.545E-3	-37.1758E-3
-3.62931E-3	-215.644E-12	706.602E-3	17.1192E-3	-212.764E-12	685.973E-3	-59.5839E-3
-3.63432E-3	-213.845E-12	710.114E-3	-10.0657E-3	-213.504E-12	693.264E-3	-56.5751E-3
-3.63932E-3	-213.268E-12	733.037E-3	-17.3821E-3	-216.519E-12	734.713E-3	-38.0350E-3
-3.64432E-3	-212.991E-12	747.575E-3	-18.2136E-3	-218.145E-12	755.254E-3	-41.7147E-3
-3.64932E-3	-213.463E-12	718.728E-3	-18.3149E-3	-220.299E-12	716.491E-3	-35.0124E-3
-3.65433E-3	-213.131E-12	697.407E-3	-21.8871E-3	-221.963E-12	695.030E-3	-7.98114E-3
-3.65933E-3	-214.078E-12	708.818E-3	-24.2807E-3	-223.913E-12	698.335E-3	9.20489E-3
-3.66433E-3	-215.558E-12	718.531E-3	-23.0393E-3	-224.443E-12	696.164E-3	9.47095E-3
-3.66933E-3	-216.914E-12	700.128E-3	-26.1737E-3	-224.871E-12	699.251E-3	-9.56885E-3
-3.67434E-3	-217.465E-12	693.271E-3	-38.9905E-3	-225.286E-12	689.416E-3	-12.1465E-3
-3.67934E-3	-219.872E-12	709.759E-3	-56.3392E-3	-224.229E-12	680.535E-3	-7.69877E-3
-3.68434E-3	-221.456E-12	699.108E-3	-54.0778E-3	-222.197E-12	708.662E-3	-32.1088E-3
-3.68934E-3	-222.320E-12	694.331E-3	-33.2924E-3	-221.555E-12	709.829E-3	-51.5192E-3
-3.69435E-3	-222.767E-12	709.555E-3	-32.7658E-3	-218.847E-12	675.343E-3	-40.6052E-3
-3.69935E-3	-224.363E-12	701.281E-3	-45.2482E-3	-218.464E-12	673.022E-3	-22.4765E-3
-3.70435E-3	-224.123E-12	681.916E-3	-44.2629E-3	-216.555E-12	682.621E-3	-15.8705E-3
-3.70935E-3	-223.741E-12	681.953E-3	-33.4306E-3	-215.773E-12	681.093E-3	-16.9388E-3
-3.71436E-3	-223.295E-12	696.934E-3	-6.18353E-3	-215.609E-12	696.957E-3	-14.6695E-3
-3.71936E-3	-223.196E-12	712.267E-3	18.0183E-3	-215.620E-12	712.943E-3	-6.82500E-3
-3.72436E-3	-221.390E-12	707.135E-3	16.3365E-3	-216.072E-12	703.603E-3	-1.98288E-3
-3.72936E-3	-220.715E-12	691.013E-3	8.82396E-3	-217.439E-12	708.753E-3	-942.967E-6
-3.73437E-3	-220.074E-12	690.191E-3	-25.3339E-3	-220.385E-12	728.109E-3	-1.81199E-3
-3.73937E-3	-217.868E-12	696.447E-3	-81.3015E-3	-221.722E-12	718.418E-3	7.97062E-3
-3.74437E-3	-217.041E-12	712.596E-3	-95.0793E-3	-222.146E-12	700.013E-3	21.7690E-3
-3.74937E-3	-217.637E-12	734.562E-3	-82.0803E-3	-225.349E-12	712.073E-3	8.75119E-3
-3.75438E-3	-217.599E-12	718.661E-3	-71.7873E-3	-226.905E-12	739.052E-3	-13.5100E-3
-3.75938E-3	-216.980E-12	655.780E-3	-36.6812E-3	-226.662E-12	735.267E-3	-17.3947E-3
-3.76438E-3	-218.432E-12	624.617E-3	-3.97519E-3	-227.360E-12	689.540E-3	-40.9326E-3
-3.76938E-3	-221.196E-12	638.753E-3	-170.235E-6	-227.515E-12	646.674E-3	-55.7976E-3
-3.77439E-3	-221.899E-12	648.540E-3	1.75643E-3	-227.314E-12	670.403E-3	-22.0357E-3
-3.77939E-3	-223.679E-12	669.268E-3	-7.47184E-3	-225.956E-12	722.529E-3	-18.7216E-3
-3.78439E-3	-226.272E-12	705.991E-3	-28.8381E-3	-224.590E-12	712.950E-3	-30.3983E-3
-3.78939E-3	-228.316E-12	720.263E-3	-40.6184E-3	-224.423E-12	683.563E-3	-22.1465E-3
-3.79440E-3	-227.667E-12	717.976E-3	-41.4224E-3	-222.999E-12	694.885E-3	-42.7270E-3
-3.79940E-3	-229.119E-12	720.896E-3	-25.9299E-3	-221.861E-12	689.733E-3	-46.7418E-3
-3.80440E-3	-230.843E-12	725.282E-3	2.31015E-3	-221.928E-12	656.294E-3	-8.70005E-3
-3.80940E-3	-230.685E-12	727.774E-3	25.7804E-3	-221.276E-12	654.454E-3	-8.66714E-3
-3.81441E-3	-229.191E-12	705.559E-3	21.9367E-3	-220.979E-12	668.387E-3	-39.7978E-3
-3.81941E-3	-229.073E-12	653.127E-3	7.53711E-3	-222.173E-12	662.735E-3	-28.0446E-3
-3.82441E-3	-229.020E-12	625.843E-3	14.2701E-3	-222.423E-12	662.325E-3	-11.3987E-3
-3.82941E-3	-226.801E-12	649.297E-3	11.2158E-3	-223.392E-12	684.695E-3	-18.0500E-3
-3.83442E-3	-225.046E-12	680.038E-3	4.16924E-3	-225.296E-12	706.613E-3	-2.56150E-3
-3.83942E-3	-225.432E-12	691.517E-3	5.85085E-3	-226.229E-12	697.810E-3	12.8134E-3
-3.84442E-3	-223.884E-12	684.150E-3	-14.4876E-3	-227.111E-12	653.444E-3	3.78464E-3
-3.84942E-3	-222.822E-12	666.718E-3	-35.2629E-3	-228.616E-12	636.317E-3	-15.1145E-3
-3.85443E-3	-223.509E-12	658.922E-3	-31.1335E-3	-229.838E-12	679.618E-3	-37.7055E-3
-3.85943E-3	-223.860E-12	654.691E-3	-37.1011E-3	-229.447E-12	692.867E-3	-39.6397E-3
-3.86443E-3	-224.706E-12	649.423E-3	-48.6408E-3	-231.146E-12	676.369E-3	-23.4980E-3
-3.86943E-3	-225.339E-12	674.118E-3	-44.7784E-3	-232.875E-12	709.177E-3	-13.7405E-3
-3.87444E-3	-226.317E-12	697.158E-3	-43.9778E-3	-232.182E-12	739.882E-3	-20.0214E-3
-3.87944E-3	-228.689E-12	682.308E-3	-31.9214E-3	-231.784E-12	720.471E-3	-18.4025E-3
-3.88444E-3	-230.113E-12	666.738E-3	3.40419E-3	-232.894E-12	691.588E-3	18.5539E-3
-3.88944E-3	-230.453E-12	679.982E-3	22.1864E-3	-232.131E-12	676.412E-3	30.8307E-3
-3.89445E-3	-231.046E-12	684.986E-3	3.70237E-3	-232.297E-12	665.980E-3	4.38912E-3
-3.89945E-3	-233.185E-12	668.379E-3	-15.7785E-3	-231.606E-12	662.606E-3	-18.4235E-3
-3.90445E-3	-233.515E-12	687.421E-3	-24.7077E-3	-230.986E-12	680.899E-3	-34.0331E-3
-3.90945E-3	-232.474E-12	708.716E-3	-36.6898E-3	-229.561E-12	701.271E-3	-26.5217E-3
-3.91446E-3	-233.501E-12	690.021E-3	-51.2408E-3	-230.000E-12	694.987E-3	-26.6446E-3
-3.91946E-3	-233.866E-12	673.300E-3	-47.0027E-3	-228.434E-12	665.042E-3	-48.3978E-3
-3.92446E-3	-231.602E-12	671.069E-3	-22.4777E-3	-227.974E-12	645.951E-3	-36.2146E-3
-3.92946E-3	-230.988E-12	654.879E-3	-16.8911E-3	-228.477E-12	644.299E-3	-18.3201E-3
-3.93447E-3	-231.080E-12	649.162E-3	-58.1468E-3	-228.161E-12	640.279E-3	-25.8372E-3
-3.93947E-3	-229.161E-12	684.378E-3	-76.8448E-3	-228.245E-12	649.329E-3	-35.8432E-3
-3.94447E-3	-228.778E-12	701.952E-3	-33.2748E-3	-228.849E-12	678.560E-3	-44.1617E-3
-3.94947E-3	-227.635E-12	695.071E-3	-1.40859E-3	-229.614E-12	703.549E-3	-48.8863E-3
-3.95448E-3	-227.229E-12	697.234E-3	8.05008E-3	-229.864E-12	698.605E-3	-34.7278E-3
-3.95948E-3	-227.608E-12	679.956E-3	17.2330E-3	-230.973E-12	690.034E-3	-9.50283E-3
-3.96448E-3	-227.823E-12	656.498E-3	3.97773E-3	-232.668E-12	696.113E-3	-14.2960E-3
-3.96948E-3	-226.426E-12	651.898E-3	-6.48990E-3	-234.242E-12	672.639E-3	-25.1430E-3
-3.97449E-3	-228.084E-12	648.977E-3	1.60706E-3	-233.882E-12	660.844E-3	-14.0340E-3
-3.97949E-3	-229.580E-12	660.702E-3	-11.3745E-3	-236.120E-12	689.787E-3	12.9892E-3
-3.98449E-3	-229.565E-12	694.875E-3	-33.7053E-3	-236.819E-12	697.148E-3	26.3131E-3
-3.98949E-3	-232.011E-12	706.585E-3	-15.6854E-3	-236.360E-12	680.116E-3	-549.013E-6
-3.99450E-3	-233.488E-12	667.903E-3	1.31565E-3	-236.401E-12	652.555E-3	-21.9362E-3
-3.99950E-3	-234.333E-12	639.175E-3	-2.62574E-3	-236.466E-12	648.064E-3	-38.9493E-3
-4.00450E-3	-235.298E-12	634.394E-3	-4.03092E-3	-235.143E-12	678.388E-3	-67.0548E-3
-4.00950E-3	-237.726E-12	624.242E-3	-19.2642E-3	-234.174E-12	696.017E-3	-80.1787E-3
-4.01451E-3	-237.784E-12	665.501E-3	-35.6948E-3	-233.568E-12	670.207E-3	-81.7230E-3
-4.01951E-3	-237.572E-12	710.189E-3	-49.4073E-3	-231.516E-12	641.333E-3	-49.9266E-3
-4.02451E-3	-237.664E-12	692.971E-3	-39.1545E-3	-230.369E-12	648.666E-3	-14.8998E-3
-4.02951E-3	-238.771E-12	690.161E-3	-10.7984E-3	-228.435E-12	650.204E-3	-23.4445E-3
-4.03452E-3	-237.167E-12	702.915E-3	10.7045E-3	-228.019E-12	651.566E-3	-17.7729E-3
-4.03952E-3	-236.185E-12	697.282E-3	18.4470E-3	-227.162E-12	661.307E-3	-3.89335E-3
-4.04452E-3	-235.705E-12	683.053E-3	-8.98877E-3	-228.238E-12	631.030E-3	-16.3133E-3
-4.04952E-3	-233.820E-12	658.734E-3	-22.9880E-3	-228.490E-12	595.942E-3	-12.2770E-3
-4.05453E-3	-233.425E-12	656.501E-3	-5.78921E-3	-230.526E-12	619.285E-3	8.62427E-3
-4.05953E-3	-232.963E-12	670.026E-3	-18.0735E-3	-231.955E-12	642.319E-3	3.22711E-3
-4.06453E-3	-232.322E-12	668.268E-3	-41.6114E-3	-234.673E-12	637.015E-3	-26.5921E-3
-4.06953E-3	-232.164E-12	650.980E-3	-44.2980E-3	-237.869E-12	682.375E-3	-41.8343E-3
-4.07454E-3	-233.325E-12	626.290E-3	-26.0834E-3	-238.853E-12	728.226E-3	-45.8213E-3
-4.07954E-3	-233.578E-12	620.270E-3	-13.1665E-3	-241.249E-12	699.256E-3	-44.1429E-3
-4.08454E-3	-234.830E-12	638.417E-3	-21.3901E-3	-242.660E-12	666.440E-3	-10.0341E-3
-4.08954E-3	-236.271E-12	664.900E-3	-20.9416E-3	-243.414E-12	676.419E-3	32.7941E-3
-4.09455E-3	-238.440E-12	688.124E-3	-24.8821E-3	-243.445E-12	672.218E-3	34.2998E-3
-4.09955E-3	-240.618E-12	706.611E-3	-30.2552E-3	-244.677E-12	651.190E-3	7.31345E-3
-4.10455E-3	-241.559E-12	713.228E-3	-26.3068E-3	-241.452E-12	654.549E-3	-17.4119E-3
-4.10955E-3	-243.143E-12	721.367E-3	-9.16422E-3	-240.885E-12	689.968E-3	-25.6813E-3
-4.11456E-3	-244.274E-12	741.783E-3	4.76174E-3	-239.596E-12	725.513E-3	-17.6617E-3
-4.11956E-3	-245.970E-12	748.015E-3	-21.9581E-3	-237.086E-12	724.446E-3	-8.59436E-3
-4.12456E-3	-245.611E-12	721.099E-3	-25.7329E-3	-234.938E-12	712.334E-3	2.72958E-3
-4.12956E-3	-245.546E-12	698.176E-3	23.4156E-3	-234.827E-12	681.215E-3	1.61617E-3
-4.13457E-3	-245.097E-12	700.354E-3	36.6301E-3	-234.683E-12	649.280E-3	-11.3597E-3
-4.13957E-3	-244.043E-12	695.499E-3	8.96609E-3	-233.277E-12	680.591E-3	-18.3383E-3
-4.14457E-3	-242.017E-12	689.345E-3	-11.0070E-3	-235.381E-12	715.957E-3	-23.8790E-3
-4.14957E-3	-241.348E-12	694.346E-3	-14.9451E-3	-236.541E-12	720.416E-3	-36.6930E-3
-4.15458E-3	-240.446E-12	723.978E-3	-16.4863E-3	-238.246E-12	717.768E-3	-44.0289E-3
-4.15958E-3	-237.820E-12	757.660E-3	-20.6825E-3	-241.550E-12	708.426E-3	-36.0814E-3
-4.16458E-3	-236.404E-12	735.317E-3	-21.2441E-3	-244.508E-12	699.283E-3	-36.1897E-3
-4.16958E-3	-235.926E-12	701.548E-3	-26.8124E-3	-245.539E-12	680.937E-3	-26.3241E-3
-4.17459E-3	-236.496E-12	701.764E-3	-41.0544E-3	-247.807E-12	685.064E-3	5.99697E-3
-4.17959E-3	-236.556E-12	691.657E-3	-68.3260E-3	-250.683E-12	713.282E-3	25.9706E-3
-4.18459E-3	-237.666E-12	683.787E-3	-49.9579E-3	-250.697E-12	721.336E-3	22.2294E-3
-4.18959E-3	-239.446E-12	681.763E-3	39.0452E-6	-250.862E-12	683.488E-3	-13.5766E-3
-4.19460E-3	-241.008E-12	665.644E-3	-12.7945E-3	-250.966E-12	636.875E-3	-59.0611E-3
-4.19960E-3	-243.250E-12	646.783E-3	-63.2043E-3	-250.588E-12	642.427E-3	-64.9565E-3
-4.20460E-3	-245.713E-12	622.539E-3	-82.8863E-3	-248.312E-12	663.042E-3	-50.2175E-3
-4.20960E-3	-247.805E-12	626.747E-3	-48.2547E-3	-247.336E-12	666.249E-3	-27.2137E-3
-4.21461E-3	-248.919E-12	671.430E-3	-23.3493E-3	-244.523E-12	677.053E-3	19.8257E-3
-4.21961E-3	-249.792E-12	702.831E-3	-39.4087E-3	-242.956E-12	703.497E-3	39.0884E-3
-4.22461E-3	-250.528E-12	696.100E-3	-34.0764E-3	-241.505E-12	714.513E-3	18.1505E-3
-4.22961E-3	-250.312E-12	701.751E-3	-13.4893E-3	-240.709E-12	686.326E-3	2.71290E-3
-4.23462E-3	-248.950E-12	702.569E-3	11.7952E-3	-238.886E-12	660.035E-3	-11.6097E-3
-4.23962E-3	-248.324E-12	681.712E-3	34.7813E-3	-239.796E-12	672.183E-3	-23.5345E-3
-4.24462E-3	-247.377E-12	669.248E-3	28.0115E-3	-240.326E-12	680.053E-3	-8.40047E-3
-4.24962E-3	-245.986E-12	660.190E-3	17.0190E-3	-240.524E-12	677.548E-3	32.2919E-3
-4.25463E-3	-243.805E-12	661.195E-3	18.2792E-3	-242.072E-12	678.573E-3	42.1100E-3
-4.25963E-3	-242.937E-12	677.828E-3	15.0003E-3	-244.698E-12	668.452E-3	7.36193E-3
-4.26463E-3	-242.037E-12	683.363E-3	11.9134E-3	-244.830E-12	668.910E-3	12.9915E-3
-4.26963E-3	-240.988E-12	673.829E-3	10.5268E-3	-246.977E-12	672.794E-3	61.9233E-3
-4.27464E-3	-240.948E-12	667.120E-3	167.603E-6	-249.492E-12	670.853E-3	80.6732E-3
-4.27964E-3	-241.193E-12	641.568E-3	-7.41606E-3	-251.346E-12	679.357E-3	35.1977E-3
-4.28464E-3	-241.592E-12	627.473E-3	-9.95154E-3	-251.050E-12	681.013E-3	-35.2485E-3
-4.28964E-3	-243.531E-12	639.547E-3	12.1090E-3	-252.024E-12	675.854E-3	-69.7634E-3
-4.29465E-3	-244.889E-12	636.145E-3	49.8639E-3	-251.195E-12	706.241E-3	-52.1133E-3
-4.29965E-3	-245.726E-12	634.123E-3	34.3037E-3	-251.235E-12	759.924E-3	-17.6231E-3
-4.30465E-3	-248.379E-12	652.137E-3	-14.0986E-3	-250.658E-12	765.485E-3	-22.4332E-3
-4.30965E-3	-251.004E-12	661.566E-3	-16.7160E-3	-249.916E-12	729.020E-3	-36.9910E-3
-4.31466E-3	-251.569E-12	660.952E-3	-8.99868E-3	-248.235E-12	712.801E-3	-32.9139E-3
-4.31966E-3	-252.534E-12	684.452E-3	-23.9062E-3	-247.991E-12	696.577E-3	-22.4627E-3
-4.32466E-3	-253.683E-12	716.922E-3	-21.7932E-3	-246.409E-12	648.772E-3	-25.7474E-3
-4.32966E-3	-254.496E-12	706.329E-3	-4.07590E-3	-245.203E-12	642.816E-3	-41.8422E-3
-4.33467E-3	-254.177E-12	686.333E-3	-787.572E-6	-244.413E-12	687.421E-3	-18.7845E-3
-4.33967E-3	-255.069E-12	701.543E-3	704.522E-6	-245.113E-12	691.919E-3	4.12851E-3
-4.34467E-3	-253.684E-12	701.770E-3	-178.058E-6	-244.364E-12	675.808E-3	-3.00595E-3
-4.34967E-3	-251.899E-12	665.424E-3	-36.4973E-3	-243.986E-12	670.477E-3	-11.1821E-3
-4.35468E-3	-250.908E-12	650.916E-3	-66.5845E-3	-245.546E-12	661.301E-3	-2.75082E-3
-4.35968E-3	-250.021E-12	661.922E-3	-39.0444E-3	-246.921E-12	653.254E-3	10.3110E-3
-4.36468E-3	-248.593E-12	669.796E-3	-3.83768E-3	-247.245E-12	647.538E-3	-21.1550E-3
-4.36968E-3	-246.771E-12	669.083E-3	-206.064E-6	-248.075E-12	648.269E-3	-38.8211E-3
-4.37469E-3	-246.065E-12	652.770E-3	-1.18624E-3	-249.744E-12	636.706E-3	337.253E-6
-4.37969E-3	-246.400E-12	654.800E-3	6.00961E-3	-250.867E-12	624.952E-3	11.3548E-3
-4.38469E-3	-246.602E-12	671.472E-3	8.48308E-3	-251.208E-12	637.276E-3	-24.6147E-3
-4.38969E-3	-247.179E-12	651.568E-3	-18.1641E-3	-253.073E-12	651.623E-3	-56.7775E-3
-4.39470E-3	-247.480E-12	626.840E-3	-54.9173E-3	-254.715E-12	658.873E-3	-86.9063E-3
-4.39970E-3	-248.454E-12	649.608E-3	-67.0964E-3	-254.956E-12	666.425E-3	-98.3260E-3
-4.40470E-3	-250.519E-12	674.524E-3	-36.2205E-3	-254.620E-12	669.113E-3	-80.3222E-3
-4.40970E-3	-251.877E-12	679.930E-3	8.86642E-3	-256.651E-12	691.808E-3	-59.8045E-3
-4.41471E-3	-253.141E-12	694.894E-3	10.9370E-3	-256.658E-12	718.626E-3	-18.9771E-3
-4.41971E-3	-255.516E-12	686.215E-3	-26.2609E-3	-256.197E-12	704.242E-3	27.7948E-3
-4.42471E-3	-256.818E-12	650.568E-3	-67.9327E-3	-255.803E-12	663.697E-3	44.2705E-3
-4.42971E-3	-258.113E-12	652.309E-3	-62.8787E-3	-256.238E-12	617.433E-3	39.3720E-3
-4.43472E-3	-258.672E-12	686.405E-3	-17.3891E-3	-253.427E-12	604.499E-3	31.5657E-3
-4.43972E-3	-259.898E-12	678.939E-3	19.0692E-3	-252.266E-12	625.449E-3	18.2182E-3
-4.44472E-3	-259.560E-12	682.904E-3	33.9191E-3	-252.190E-12	635.345E-3	-2.92964E-3
-4.44972E-3	-259.163E-12	717.814E-3	6.98205E-3	-250.481E-12	621.733E-3	-3.61469E-3
-4.45473E-3	-257.583E-12	717.558E-3	-56.2331E-3	-250.027E-12	640.498E-3	14.5969E-3
-4.45973E-3	-256.683E-12	686.124E-3	-56.8553E-3	-249.766E-12	696.682E-3	11.8789E-3
-4.46473E-3	-255.300E-12	643.323E-3	10.9922E-3	-249.654E-12	704.387E-3	2.52606E-3
-4.46973E-3	-252.837E-12	657.890E-3	18.0651E-3	-249.925E-12	674.114E-3	13.6850E-3
-4.47474E-3	-252.261E-12	706.768E-3	-27.2361E-3	-252.071E-12	646.821E-3	134.416E-6
-4.47974E-3	-250.498E-12	704.060E-3	-53.6810E-3	-253.586E-12	627.593E-3	-44.3890E-3
-4.48474E-3	-249.040E-12	704.055E-3	-55.9622E-3	-255.296E-12	636.515E-3	-56.0371E-3
-4.48974E-3	-248.631E-12	716.463E-3	-30.6123E-3	-257.410E-12	681.803E-3	-32.0026E-3
-4.49475E-3	-248.379E-12	681.707E-3	-8.23451E-3	-260.797E-12	722.658E-3	-8.35520E-3
-4.49975E-3	-249.305E-12	648.064E-3	-15.8730E-3	-262.040E-12	712.476E-3	-32.5402E-3
-4.50475E-3	-250.618E-12	657.858E-3	-24.4554E-3	-264.611E-12	680.336E-3	-92.0392E-3
-4.50975E-3	-252.278E-12	669.327E-3	-14.7226E-3	-265.959E-12	646.322E-3	-90.7216E-3
-4.51476E-3	-254.604E-12	663.455E-3	2.80378E-3	-265.558E-12	641.902E-3	-26.6310E-3
-4.51976E-3	-258.091E-12	679.360E-3	11.6614E-3	-264.264E-12	694.563E-3	-9.94446E-3
-4.52476E-3	-260.178E-12	711.347E-3	2.98530E-3	-264.472E-12	712.362E-3	-39.4935E-3
-4.52976E-3	-261.758E-12	720.382E-3	-29.1507E-3	-262.226E-12	670.711E-3	-24.3339E-3
-4.53477E-3	-263.994E-12	733.868E-3	-34.3599E-3	-259.992E-12	633.519E-3	3.79341E-3
-4.53977E-3	-265.405E-12	745.627E-3	22.7295E-3	-257.159E-12	625.175E-3	7.09389E-3
-4.54477E-3	-265.312E-12	742.583E-3	31.3178E-3	-255.464E-12	656.296E-3	-2.22017E-3
-4.54977E-3	-265.387E-12	740.258E-3	-26.0595E-3	-253.716E-12	693.377E-3	-28.4679E-3
-4.55478E-3	-265.387E-12	718.969E-3	-26.5177E-3	-251.982E-12	694.367E-3	-37.1865E-3
-4.55978E-3	-263.559E-12	697.099E-3	-2.39440E-3	-250.735E-12	691.261E-3	-4.64055E-3
-4.56478E-3	-261.489E-12	686.673E-3	-33.5737E-3	-252.142E-12	707.028E-3	38.6162E-3
-4.56978E-3	-261.055E-12	685.973E-3	-50.5313E-3	-251.517E-12	703.917E-3	29.8597E-3
-4.57479E-3	-258.242E-12	677.125E-3	-29.2999E-3	-251.885E-12	680.500E-3	-7.78897E-3
-4.57979E-3	-255.589E-12	641.345E-3	-17.3160E-3	-255.171E-12	684.052E-3	-31.6788E-3
-4.58479E-3	-254.046E-12	616.873E-3	-20.2249E-3	-258.036E-12	689.609E-3	-43.1974E-3
-4.58979E-3	-254.875E-12	637.662E-3	-17.5367E-3	-260.122E-12	657.075E-3	-21.7205E-3
-4.59480E-3	-253.177E-12	662.814E-3	-23.1294E-3	-262.466E-12	646.912E-3	-7.70819E-3
-4.59980E-3	-253.993E-12	630.354E-3	-25.8949E-3	-265.044E-12	684.163E-3	-25.0966E-3
-4.60480E-3	-256.583E-12	609.981E-3	-7.12788E-3	-266.290E-12	704.931E-3	-37.9361E-3
-4.60980E-3	-258.467E-12	653.611E-3	-9.59076E-3	-267.042E-12	699.268E-3	-41.5963E-3
-4.61481E-3	-259.490E-12	691.899E-3	-32.4677E-3	-267.571E-12	709.113E-3	-21.2414E-3
-4.61981E-3	-263.256E-12	702.852E-3	-38.6865E-3	-267.614E-12	709.685E-3	15.7229E-3
-4.62481E-3	-265.890E-12	712.092E-3	-26.2556E-3	-266.961E-12	688.655E-3	16.4847E-3
-4.62981E-3	-266.568E-12	704.127E-3	-11.6153E-3	-265.738E-12	658.079E-3	-2.48522E-3
-4.63482E-3	-269.295E-12	682.029E-3	24.5656E-3	-262.774E-12	643.563E-3	-26.6539E-3
-4.63982E-3	-271.400E-12	679.056E-3	40.6756E-3	-262.410E-12	659.115E-3	-41.0940E-3
-4.64482E-3	-272.024E-12	691.125E-3	-8.94632E-3	-260.419E-12	648.664E-3	-32.0985E-3
-4.64982E-3	-272.187E-12	709.801E-3	-44.3520E-3	-258.695E-12	640.556E-3	-49.7429E-3
-4.65483E-3	-272.815E-12	729.562E-3	-36.4233E-3	-257.797E-12	662.647E-3	-77.2475E-3
-4.65983E-3	-271.656E-12	750.760E-3	-32.4033E-3	-257.924E-12	677.790E-3	-61.4474E-3
-4.66483E-3	-270.412E-12	762.559E-3	-39.5452E-3	-257.279E-12	699.276E-3	-41.8508E-3
-4.66983E-3	-268.482E-12	752.163E-3	-29.5916E-3	-259.489E-12	713.811E-3	-31.0341E-3
-4.67484E-3	-267.618E-12	739.851E-3	-8.42270E-3	-260.547E-12	707.421E-3	7.31994E-3
-4.67984E-3	-265.440E-12	730.902E-3	-13.4181E-3	-261.520E-12	710.294E-3	38.8347E-3
-4.68484E-3	-263.452E-12	710.893E-3	-17.6127E-3	-264.256E-12	717.827E-3	34.2888E-3
-4.68984E-3	-262.509E-12	670.519E-3	12.1389E-3	-266.771E-12	713.134E-3	33.7317E-3
-4.69485E-3	-261.678E-12	637.905E-3	31.5916E-3	-268.306E-12	693.877E-3	55.9956E-3
-4.69985E-3	-261.432E-12	639.566E-3	-115.347E-6	-270.388E-12	667.772E-3	75.6173E-3
-4.70485E-3	-261.296E-12	674.597E-3	-53.0970E-3	-272.703E-12	670.908E-3	77.1095E-3
-4.70985E-3	-262.570E-12	723.854E-3	-61.4672E-3	-273.153E-12	686.629E-3	61.1145E-3
-4.71486E-3	-263.546E-12	749.490E-3	-19.5461E-3	-272.983E-12	660.063E-3	46.1999E-3
-4.71986E-3	-265.045E-12	737.294E-3	4.10339E-3	-273.441E-12	647.371E-3	30.7632E-3
-4.72486E-3	-266.384E-12	699.226E-3	7.75674E-3	-273.041E-12	671.434E-3	-6.85101E-3
-4.72986E-3	-267.983E-12	666.427E-3	-6.92939E-3	-271.353E-12	667.079E-3	-49.9431E-3
-4.73487E-3	-269.449E-12	667.592E-3	-53.5051E-3	-270.118E-12	657.914E-3	-41.9988E-3
-4.73987E-3	-270.079E-12	673.347E-3	-81.3949E-3	-269.485E-12	669.852E-3	-8.58806E-3
-4.74487E-3	-272.280E-12	662.190E-3	-67.8359E-3	-267.986E-12	692.083E-3	-16.4989E-3
-4.74988E-3	-273.257E-12	660.395E-3	-40.8551E-3	-267.454E-12	702.312E-3	-28.9996E-3
-4.75488E-3	-273.073E-12	638.361E-3	-32.6809E-3	-266.879E-12	676.262E-3	-19.1279E-3
-4.75988E-3	-272.720E-12	608.720E-3	-6.57849E-3	-265.568E-12	658.167E-3	-18.9848E-3
-4.76488E-3	-272.100E-12	621.993E-3	23.9016E-3	-265.294E-12	693.549E-3	-33.2470E-3
-4.76988E-3	-270.904E-12	643.891E-3	14.3459E-3	-265.574E-12	728.486E-3	-59.0332E-3
-4.77489E-3	-270.290E-12	669.388E-3	-9.80430E-3	-265.150E-12	730.203E-3	-67.3634E-3
-4.77989E-3	-269.213E-12	707.997E-3	-45.7777E-3	-265.586E-12	721.923E-3	-35.8980E-3
-4.78489E-3	-267.773E-12	728.701E-3	-64.2458E-3	-266.643E-12	689.811E-3	-9.06949E-3
-4.78989E-3	-266.454E-12	732.951E-3	-48.3031E-3	-267.237E-12	676.890E-3	-10.4257E-3
-4.79490E-3	-264.983E-12	733.005E-3	6.36966E-3	-268.947E-12	692.403E-3	-19.1222E-3
-4.79990E-3	-263.298E-12	715.391E-3	34.7833E-3	-270.654E-12	680.760E-3	-12.8624E-3
-4.80490E-3	-263.053E-12	692.357E-3	-15.1813E-3	-270.985E-12	655.096E-3	-22.2595E-3
-4.80990E-3	-262.702E-12	687.673E-3	-51.1109E-3	-271.982E-12	658.377E-3	-40.6456E-3
-4.81491E-3	-262.666E-12	697.378E-3	-47.6138E-3	-272.785E-12	672.494E-3	-15.4454E-3
-4.81991E-3	-264.250E-12	709.625E-3	-31.0180E-3	-273.610E-12	677.275E-3	2.65174E-3
-4.82491E-3	-265.855E-12	689.936E-3	-4.64226E-3	-272.395E-12	679.478E-3	-6.79766E-3
-4.82991E-3	-267.376E-12	631.782E-3	-17.3276E-3	-272.730E-12	676.298E-3	-18.1449E-3
-4.83492E-3	-269.412E-12	606.247E-3	-23.9998E-3	-273.037E-12	685.569E-3	-12.3066E-3
-4.83992E-3	-271.575E-12	635.774E-3	22.3752E-3	-272.729E-12	694.419E-3	15.8804E-3
-4.84492E-3	-272.822E-12	676.516E-3	31.8312E-3	-270.937E-12	705.464E-3	34.7119E-3
-4.84992E-3	-274.788E-12	702.787E-3	14.7569E-3	-271.632E-12	713.358E-3	29.4476E-3
-4.85493E-3	-276.787E-12	692.787E-3	-8.86541E-3	-270.710E-12	703.574E-3	8.05322E-3
-4.85993E-3	-277.474E-12	673.454E-3	-49.0950E-3	-269.168E-12	684.646E-3	18.8461E-3
-4.86493E-3	-278.203E-12	679.559E-3	-41.1209E-3	-267.664E-12	672.870E-3	42.9629E-3
-4.86993E-3	-279.179E-12	688.225E-3	-835.116E-6	-267.966E-12	649.961E-3	13.2357E-3
-4.87494E-3	-278.142E-12	674.537E-3	22.4404E-3	-266.888E-12	616.590E-3	-7.06236E-3
-4.87994E-3	-277.628E-12	663.615E-3	10.5803E-3	-265.883E-12	636.187E-3	22.1268E-3
-4.88494E-3	-276.365E-12	690.954E-3	-32.6625E-3	-266.923E-12	676.351E-3	15.1280E-3
-4.88995E-3	-274.302E-12	715.818E-3	-26.2802E-3	-268.523E-12	672.116E-3	-36.5855E-3
-4.89495E-3	-272.215E-12	721.947E-3	2.91046E-3	-270.463E-12	672.691E-3	-73.7273E-3
-4.89995E-3	-272.131E-12	713.032E-3	-27.4439E-3	-271.942E-12	680.869E-3	-89.6503E-3
-4.90495E-3	-269.514E-12	693.757E-3	-66.5496E-3	-273.778E-12	664.681E-3	-86.3586E-3
-4.90995E-3	-268.073E-12	668.474E-3	-69.4366E-3	-275.967E-12	678.735E-3	-71.6572E-3
-4.91496E-3	-267.748E-12	639.608E-3	-60.6081E-3	-278.804E-12	716.519E-3	-42.8840E-3
-4.91996E-3	-269.147E-12	643.961E-3	-59.5149E-3	-280.556E-12	724.380E-3	-9.32495E-3
-4.92496E-3	-269.229E-12	663.397E-3	-51.7115E-3	-281.622E-12	724.513E-3	6.22834E-3
-4.92996E-3	-269.652E-12	655.473E-3	-43.4203E-3	-283.897E-12	732.373E-3	18.4345E-3
-4.93497E-3	-272.649E-12	629.808E-3	-49.0432E-3	-283.953E-12	710.706E-3	15.5918E-3
-4.93997E-3	-276.629E-12	628.649E-3	-38.8434E-3	-283.351E-12	662.810E-3	-3.33246E-3
-4.94497E-3	-277.491E-12	654.829E-3	7.26356E-3	-282.601E-12	630.822E-3	-3.38426E-3
-4.94997E-3	-280.595E-12	674.001E-3	28.7448E-3	-280.992E-12	612.788E-3	31.1186E-3
-4.95498E-3	-284.736E-12	682.704E-3	-14.9877E-3	-279.292E-12	595.532E-3	70.5480E-3
-4.95998E-3	-285.449E-12	680.113E-3	-44.2260E-3	-276.844E-12	597.873E-3	70.3489E-3
-4.96498E-3	-285.950E-12	675.686E-3	-28.9568E-3	-274.435E-12	639.673E-3	22.2080E-3
-4.96998E-3	-288.280E-12	675.085E-3	-7.48824E-3	-272.325E-12	683.777E-3	-26.0257E-3
-4.97499E-3	-287.101E-12	667.887E-3	4.01556E-3	-271.408E-12	682.171E-3	-32.4884E-3
-4.97999E-3	-285.537E-12	684.846E-3	17.6738E-3	-270.324E-12	671.308E-3	-15.6153E-3
-4.98499E-3	-284.898E-12	706.817E-3	37.3668E-3	-271.681E-12	672.255E-3	-5.69421E-3
-4.98999E-3	-282.157E-12	661.358E-3	29.0280E-3	-272.228E-12	675.079E-3	21.7753E-3
-4.99500E-3	-278.530E-12	621.296E-3	4.00721E-3	-272.387E-12	693.604E-3	45.2229E-3
-5.00000E-3	-278.126E-12	655.785E-3	-13.2734E-3	-275.602E-12	696.087E-3	9.81297E-3
