Experiment	bias spectroscopy	
Date	19.01.2016 19:56:29	
User		
X (m)	49.7122E-9	
Y (m)	256.46E-9	
Z (m)	-132.57E-9	
Z offset (m)	0E+0	
Settling time (s)	200E-6	
Integration time (s)	5E-3	
Z-Ctrl hold	TRUE	
Final Z (m)	N/A	
Filter type	None	
Order		
Cutoff frq		
Comment01	MnPc/Pb(111)	
Comment02	dz =00pm	
Comment03	7 Sweeps	
Comment04	MagField =0.T	
Comment05	Divider 1:10	
Comment06	Setpoint:5mV,200 pA	
Comment07	Lockin: 50uVrms,5ms,5mV	
Comment08	Gain:9; 912Hz modulation	
Comment09	T=1.06K	
Bias>Bias (V)	5E-3	
Bias>Calibration (V/V)	81.475E-3	
Bias>Offset (V)	1.046E-3	
Bias Spectroscopy>Sweep Start (V)	5E-3	
Bias Spectroscopy>Sweep End (V)	-5E-3	
Bias Spectroscopy>Num Pixel	2000	
Bias Spectroscopy>Z Avg time (s)	500E-3	
Bias Spectroscopy>Z offset (m)	0E+0	
Bias Spectroscopy>1st Settling time (s)	500E-3	
Bias Spectroscopy>Settling time (s)	200E-6	
Bias Spectroscopy>Integration time (s)	5E-3	
Bias Spectroscopy>End Settling time (s)	500E-3	
Bias Spectroscopy>Z control time (s)	500E-3	
Bias Spectroscopy>Max Slew rate (V/s)	Inf	
Bias Spectroscopy>backward sweep	TRUE	
Bias Spectroscopy>Z-controller hold	TRUE	
Bias Spectroscopy>Number of sweeps	7	
Bias Spectroscopy>Channels	Current (A);X% LockIn (V);Y% LockIn (V)	
Bias Spectroscopy>Reset Bias	TRUE	
Bias Spectroscopy>Record final Z	FALSE	
Bias Spectroscopy>Lock-In run	FALSE	
Bias Spectroscopy>Sweep mode	Linear	
Bias Spectroscopy>MultiLine Settings : Segment Start (V), Segment End (V), Settling (s), Integration (s), Steps (xn)	100E-3,3.3E-3,100E-6,10E-3,2500;3.3E-3,-3.3E-3,100E-6,10E-3,10;-3.3E-3,-100E-3,100E-6,10E-3,2500	
Current>Current (A)	200.01E-12	
Current>Calibration (A/V)	999.99900E-12	
Current>Offset (A)	-455.429E-15	
Current>Gain	LN 10^9	
Z-Controller>Z (m)	-132.571E-9	
Z-Controller>Controller name	log Current	
Z-Controller>Controller status	ON	
Z-Controller>Setpoint	200E-12	
Z-Controller>Setpoint unit	A	
Z-Controller>P gain	2.96994E-12	
Z-Controller>I gain	67.0321E-9	
Z-Controller>Time const (s)	44.3062E-6	
Z-Controller>TipLift (m)	0E+0	
Z-Controller>Switch off delay (s)	50E-3	
Current (A)	199.616E-12	
Z (m)	-132.571E-9	

[DATA]
Bias calc (V)	Current (A)	X% LockIn (V)	Y% LockIn (V)	Current [bwd] (A)	X% LockIn [bwd] (V)	Y% LockIn [bwd] (V)
5.00000E-3	199.365E-12	610.712E-3	-35.3662E-3	199.222E-12	601.442E-3	-26.0304E-3
4.99500E-3	200.167E-12	599.896E-3	-39.5733E-3	200.536E-12	583.371E-3	-55.3120E-3
4.98999E-3	200.847E-12	588.634E-3	-22.3427E-3	199.856E-12	566.545E-3	-51.5558E-3
4.98499E-3	201.334E-12	586.972E-3	-1.86285E-3	199.463E-12	591.875E-3	-43.5391E-3
4.97999E-3	200.959E-12	597.399E-3	12.0806E-3	198.175E-12	598.443E-3	-65.9626E-3
4.97499E-3	201.251E-12	590.954E-3	7.24787E-3	198.583E-12	587.046E-3	-74.9895E-3
4.96998E-3	201.477E-12	562.600E-3	-16.2572E-3	197.991E-12	597.485E-3	-57.3532E-3
4.96498E-3	201.336E-12	562.469E-3	-30.7277E-3	197.498E-12	585.130E-3	-51.9092E-3
4.95998E-3	200.862E-12	601.482E-3	-19.0257E-3	195.947E-12	560.287E-3	-39.1272E-3
4.95498E-3	200.498E-12	640.305E-3	-8.88065E-3	196.357E-12	565.924E-3	-10.7606E-3
4.94997E-3	199.637E-12	635.180E-3	-13.5359E-3	196.067E-12	595.595E-3	9.96885E-3
4.94497E-3	199.354E-12	611.023E-3	-16.4750E-3	196.090E-12	602.391E-3	15.1766E-3
4.93997E-3	198.822E-12	628.829E-3	-927.368E-6	195.543E-12	581.100E-3	6.28973E-3
4.93497E-3	197.279E-12	646.823E-3	17.8454E-3	195.817E-12	588.808E-3	-10.1419E-3
4.92996E-3	196.428E-12	639.778E-3	20.0195E-3	195.718E-12	609.708E-3	-19.4237E-3
4.92496E-3	196.179E-12	640.041E-3	9.51376E-3	195.326E-12	616.413E-3	-6.31080E-3
4.91996E-3	195.538E-12	634.614E-3	-18.1329E-3	195.981E-12	613.359E-3	1.16514E-3
4.91496E-3	195.174E-12	610.725E-3	-32.1816E-3	195.625E-12	593.677E-3	-5.31329E-3
4.90995E-3	194.441E-12	591.730E-3	-23.8310E-3	195.828E-12	599.407E-3	1.50919E-3
4.90495E-3	194.664E-12	576.670E-3	-32.8950E-3	195.666E-12	621.416E-3	15.7021E-3
4.89995E-3	194.510E-12	571.317E-3	-40.1068E-3	195.046E-12	608.569E-3	18.9458E-3
4.89495E-3	194.787E-12	601.414E-3	-19.8437E-3	195.191E-12	601.695E-3	6.87326E-3
4.88995E-3	193.711E-12	624.846E-3	-2.75419E-3	194.283E-12	610.184E-3	-9.02861E-3
4.88494E-3	193.706E-12	596.498E-3	4.46344E-3	193.942E-12	591.439E-3	-7.34480E-3
4.87994E-3	194.365E-12	547.484E-3	11.8626E-3	192.844E-12	580.076E-3	-824.760E-6
4.87494E-3	194.715E-12	542.878E-3	7.40098E-3	192.718E-12	597.043E-3	-10.7341E-3
4.86993E-3	194.436E-12	569.799E-3	-28.0207E-3	191.920E-12	602.808E-3	-9.13420E-3
4.86493E-3	193.840E-12	589.507E-3	-54.9428E-3	192.122E-12	594.239E-3	2.75853E-3
4.85993E-3	193.965E-12	624.843E-3	-32.2382E-3	191.871E-12	593.005E-3	-5.57207E-3
4.85493E-3	194.617E-12	661.199E-3	-13.3907E-3	192.328E-12	603.250E-3	-14.3648E-3
4.84992E-3	194.459E-12	671.992E-3	-23.6273E-3	192.504E-12	612.502E-3	-9.88770E-3
4.84492E-3	193.073E-12	661.464E-3	-33.6394E-3	193.121E-12	620.009E-3	-12.4100E-3
4.83992E-3	192.713E-12	634.328E-3	-34.5188E-3	193.127E-12	620.174E-3	-32.0063E-3
4.83492E-3	192.109E-12	594.295E-3	-14.3111E-3	193.224E-12	598.117E-3	-39.5671E-3
4.82991E-3	190.742E-12	569.793E-3	3.52296E-3	194.538E-12	572.579E-3	-23.6660E-3
4.82491E-3	189.012E-12	582.271E-3	9.03856E-3	194.780E-12	580.125E-3	-13.4711E-3
4.81991E-3	187.958E-12	601.687E-3	27.0215E-3	194.716E-12	595.085E-3	-8.75105E-3
4.81491E-3	187.678E-12	585.466E-3	20.6081E-3	193.464E-12	585.939E-3	-8.25408E-3
4.80990E-3	187.427E-12	571.723E-3	4.10917E-3	193.599E-12	588.646E-3	-26.9108E-3
4.80490E-3	187.705E-12	597.724E-3	6.84319E-3	192.602E-12	609.391E-3	-47.6546E-3
4.79990E-3	187.083E-12	607.841E-3	-7.62776E-3	192.333E-12	616.742E-3	-38.5573E-3
4.79490E-3	187.158E-12	581.633E-3	-17.5409E-3	190.218E-12	607.081E-3	-22.1774E-3
4.78989E-3	187.868E-12	555.608E-3	2.76278E-3	190.265E-12	607.889E-3	-21.2850E-3
4.78489E-3	188.887E-12	558.894E-3	5.15360E-3	189.679E-12	625.148E-3	-10.0736E-3
4.77989E-3	189.360E-12	577.894E-3	-2.66711E-3	189.699E-12	619.941E-3	18.4712E-3
4.77489E-3	189.614E-12	587.836E-3	1.26733E-3	189.170E-12	601.217E-3	31.6937E-3
4.76988E-3	190.813E-12	582.286E-3	-5.41225E-3	189.614E-12	596.220E-3	7.77971E-3
4.76488E-3	191.236E-12	580.676E-3	-18.7273E-3	190.085E-12	598.866E-3	-8.71744E-3
4.75988E-3	192.046E-12	589.169E-3	-24.9310E-3	191.351E-12	607.785E-3	5.62846E-3
4.75488E-3	191.690E-12	594.674E-3	-24.5821E-3	191.317E-12	600.200E-3	16.0384E-3
4.74988E-3	191.927E-12	588.060E-3	-16.7467E-3	191.655E-12	575.161E-3	15.3668E-3
4.74487E-3	191.421E-12	573.747E-3	-18.1146E-3	191.776E-12	575.632E-3	15.2040E-3
4.73987E-3	191.225E-12	575.140E-3	-43.5768E-3	192.717E-12	586.929E-3	5.40325E-3
4.73487E-3	189.387E-12	590.107E-3	-43.9156E-3	192.449E-12	577.225E-3	4.02634E-3
4.72986E-3	187.739E-12	587.505E-3	-14.3796E-3	191.240E-12	581.087E-3	19.7736E-3
4.72486E-3	187.004E-12	565.172E-3	-4.37542E-3	189.808E-12	613.842E-3	21.7992E-3
4.71986E-3	186.046E-12	549.821E-3	-24.8758E-3	189.914E-12	618.701E-3	3.15098E-3
4.71486E-3	185.201E-12	544.180E-3	-39.4577E-3	188.655E-12	582.274E-3	-21.6669E-3
4.70985E-3	184.467E-12	559.224E-3	-36.0932E-3	187.761E-12	574.012E-3	-26.7053E-3
4.70485E-3	184.765E-12	581.521E-3	-25.9038E-3	185.986E-12	596.066E-3	1.28840E-3
4.69985E-3	184.276E-12	576.777E-3	-14.7846E-3	185.089E-12	591.388E-3	20.5331E-3
4.69485E-3	185.083E-12	568.112E-3	-25.2594E-3	184.485E-12	564.510E-3	17.0267E-3
4.68984E-3	185.767E-12	592.037E-3	-32.9861E-3	184.288E-12	561.123E-3	4.88489E-3
4.68484E-3	186.942E-12	611.686E-3	-31.2529E-3	183.347E-12	578.811E-3	-25.1918E-3
4.67984E-3	187.891E-12	603.131E-3	-41.0901E-3	182.906E-12	584.623E-3	-30.9808E-3
4.67484E-3	189.474E-12	604.731E-3	-43.8409E-3	183.473E-12	599.735E-3	1.08701E-3
4.66983E-3	190.307E-12	619.197E-3	-23.3488E-3	184.340E-12	624.081E-3	14.0346E-3
4.66483E-3	190.842E-12	629.574E-3	655.657E-6	184.460E-12	619.812E-3	4.82186E-3
4.65983E-3	191.508E-12	647.731E-3	10.1846E-3	184.820E-12	595.860E-3	5.10593E-3
4.65483E-3	191.068E-12	658.156E-3	11.8430E-3	185.462E-12	580.867E-3	9.74827E-3
4.64982E-3	190.338E-12	630.421E-3	1.25502E-3	186.951E-12	583.700E-3	20.3524E-3
4.64482E-3	189.517E-12	595.290E-3	-14.0917E-3	187.136E-12	596.081E-3	29.8750E-3
4.63982E-3	188.069E-12	561.504E-3	-33.3531E-3	186.629E-12	595.811E-3	36.9101E-3
4.63482E-3	185.911E-12	548.954E-3	-57.5847E-3	185.246E-12	583.309E-3	37.2238E-3
4.62981E-3	184.459E-12	578.640E-3	-48.0588E-3	185.064E-12	574.760E-3	15.9312E-3
4.62481E-3	183.249E-12	592.532E-3	-16.5931E-3	184.663E-12	564.311E-3	-10.5615E-3
4.61981E-3	182.253E-12	597.489E-3	-17.3476E-3	183.466E-12	553.433E-3	-25.4158E-3
4.61481E-3	180.540E-12	622.260E-3	-25.3056E-3	182.393E-12	563.529E-3	-27.0501E-3
4.60980E-3	179.504E-12	639.909E-3	-10.4945E-3	181.540E-12	595.334E-3	-26.6936E-3
4.60480E-3	178.765E-12	635.623E-3	5.92308E-3	181.299E-12	600.163E-3	-29.4918E-3
4.59980E-3	179.214E-12	619.585E-3	-1.23948E-3	180.409E-12	564.210E-3	-36.6500E-3
4.59480E-3	179.305E-12	611.767E-3	-25.7157E-3	179.047E-12	559.842E-3	-39.6777E-3
4.58979E-3	180.429E-12	602.621E-3	-31.7303E-3	178.685E-12	599.360E-3	-40.9013E-3
4.58479E-3	180.592E-12	590.774E-3	-23.3995E-3	178.673E-12	614.791E-3	-47.0117E-3
4.57979E-3	182.369E-12	592.505E-3	-11.5842E-3	179.375E-12	605.590E-3	-45.8392E-3
4.57479E-3	183.489E-12	587.036E-3	-594.954E-6	180.006E-12	605.623E-3	-41.3312E-3
4.56978E-3	184.294E-12	579.876E-3	-4.55130E-3	181.209E-12	599.609E-3	-33.8626E-3
4.56478E-3	184.060E-12	595.916E-3	-10.4455E-3	181.621E-12	591.730E-3	-26.4080E-3
4.55978E-3	184.356E-12	608.969E-3	-12.4444E-3	182.378E-12	594.383E-3	-33.4488E-3
4.55478E-3	184.078E-12	595.305E-3	-9.31066E-3	182.854E-12	595.162E-3	-44.3183E-3
4.54977E-3	183.671E-12	586.611E-3	3.79522E-3	182.876E-12	596.199E-3	-45.5964E-3
4.54477E-3	182.950E-12	599.686E-3	6.17154E-3	182.197E-12	586.216E-3	-41.8644E-3
4.53977E-3	182.485E-12	600.865E-3	-9.05919E-3	181.956E-12	571.019E-3	-36.4540E-3
4.53477E-3	181.331E-12	582.333E-3	-5.73226E-3	182.077E-12	587.920E-3	-26.6116E-3
4.52976E-3	180.493E-12	573.151E-3	3.31382E-3	181.055E-12	602.819E-3	-20.4669E-3
4.52476E-3	179.558E-12	590.070E-3	-18.2811E-3	180.667E-12	599.068E-3	-21.9936E-3
4.51976E-3	178.286E-12	603.513E-3	-39.6933E-3	179.926E-12	611.581E-3	-32.5442E-3
4.51476E-3	176.899E-12	587.937E-3	-39.1809E-3	180.790E-12	613.840E-3	-37.5142E-3
4.50975E-3	176.699E-12	559.548E-3	-27.4916E-3	180.164E-12	593.927E-3	-13.5009E-3
4.50475E-3	176.167E-12	566.441E-3	-6.30703E-3	180.215E-12	573.183E-3	10.5166E-3
4.49975E-3	176.216E-12	593.267E-3	11.4896E-3	179.381E-12	564.614E-3	11.9985E-3
4.49475E-3	175.801E-12	586.832E-3	15.4503E-3	179.517E-12	572.715E-3	8.54475E-3
4.48974E-3	176.524E-12	583.266E-3	4.29827E-3	179.737E-12	575.330E-3	12.9482E-3
4.48474E-3	176.860E-12	589.875E-3	-6.11065E-3	178.817E-12	576.737E-3	12.2029E-3
4.47974E-3	177.457E-12	579.582E-3	-3.28671E-3	178.896E-12	582.895E-3	10.6153E-3
4.47474E-3	177.372E-12	582.193E-3	-12.7115E-3	178.222E-12	578.643E-3	14.2128E-3
4.46973E-3	177.668E-12	603.142E-3	-21.9122E-3	178.179E-12	578.005E-3	-2.80859E-3
4.46473E-3	178.601E-12	597.384E-3	-29.4266E-3	178.162E-12	574.569E-3	-22.3161E-3
4.45973E-3	179.278E-12	590.370E-3	-50.1863E-3	177.610E-12	567.944E-3	-37.3211E-3
4.45473E-3	179.431E-12	600.761E-3	-41.6203E-3	176.950E-12	570.287E-3	-57.3341E-3
4.44972E-3	179.948E-12	614.507E-3	-18.1542E-3	175.797E-12	586.289E-3	-62.9483E-3
4.44472E-3	179.801E-12	632.158E-3	-13.9434E-3	175.832E-12	609.269E-3	-56.7679E-3
4.43972E-3	179.714E-12	623.995E-3	-2.50183E-3	174.889E-12	614.794E-3	-58.4982E-3
4.43472E-3	179.198E-12	610.616E-3	-9.70666E-3	175.154E-12	602.603E-3	-37.5213E-3
4.42971E-3	178.777E-12	610.158E-3	-41.3953E-3	174.935E-12	579.360E-3	22.3403E-3
4.42471E-3	177.056E-12	602.688E-3	-39.8879E-3	175.869E-12	569.764E-3	45.4722E-3
4.41971E-3	176.659E-12	578.364E-3	-22.9568E-3	176.101E-12	576.500E-3	8.17498E-3
4.41471E-3	176.174E-12	565.616E-3	-30.7189E-3	176.622E-12	575.988E-3	-38.2866E-3
4.40970E-3	175.739E-12	591.373E-3	-31.3638E-3	176.961E-12	569.468E-3	-55.8867E-3
4.40470E-3	174.800E-12	591.661E-3	-22.7577E-3	176.910E-12	558.913E-3	-41.5180E-3
4.39970E-3	174.457E-12	559.812E-3	-31.5860E-3	177.201E-12	555.808E-3	-18.1802E-3
4.39470E-3	174.932E-12	577.720E-3	-22.7548E-3	177.778E-12	575.306E-3	-14.5007E-3
4.38969E-3	173.942E-12	606.362E-3	-9.64690E-3	177.325E-12	589.973E-3	-29.2145E-3
4.38469E-3	173.490E-12	599.977E-3	-26.8309E-3	176.240E-12	583.041E-3	-26.0257E-3
4.37969E-3	173.492E-12	600.849E-3	-43.3117E-3	175.483E-12	593.411E-3	-8.29459E-3
4.37469E-3	174.483E-12	608.693E-3	-35.8967E-3	174.522E-12	607.718E-3	3.14191E-3
4.36968E-3	174.809E-12	605.992E-3	-13.1532E-3	173.361E-12	603.566E-3	9.50732E-3
4.36468E-3	174.893E-12	602.537E-3	-855.189E-6	172.003E-12	605.057E-3	-1.51343E-3
4.35968E-3	175.641E-12	608.588E-3	-13.0606E-3	170.719E-12	604.610E-3	-33.6775E-3
4.35468E-3	176.289E-12	604.262E-3	-14.2569E-3	170.815E-12	605.693E-3	-52.7667E-3
4.34967E-3	176.561E-12	606.350E-3	4.24159E-3	170.582E-12	615.548E-3	-51.9711E-3
4.34467E-3	177.122E-12	622.117E-3	16.7467E-3	170.328E-12	614.264E-3	-42.8681E-3
4.33967E-3	176.566E-12	625.056E-3	15.2715E-3	169.953E-12	602.127E-3	-33.4909E-3
4.33467E-3	176.167E-12	625.376E-3	2.32016E-3	171.117E-12	599.756E-3	-38.1707E-3
4.32966E-3	175.733E-12	625.479E-3	-3.06053E-3	172.298E-12	625.528E-3	-36.0267E-3
4.32466E-3	175.369E-12	607.150E-3	-11.0740E-3	173.466E-12	660.037E-3	-33.9697E-3
4.31966E-3	173.897E-12	610.564E-3	-21.0443E-3	173.624E-12	670.931E-3	-60.6687E-3
4.31466E-3	172.160E-12	643.128E-3	-20.2917E-3	174.125E-12	669.217E-3	-78.3520E-3
4.30965E-3	170.733E-12	633.165E-3	-6.01513E-3	174.876E-12	672.238E-3	-49.8060E-3
4.30465E-3	170.233E-12	607.928E-3	6.81676E-3	175.494E-12	664.579E-3	-17.9763E-3
4.29965E-3	168.560E-12	608.442E-3	2.08807E-3	175.309E-12	647.708E-3	-5.84803E-3
4.29465E-3	167.541E-12	609.148E-3	-19.0281E-3	174.814E-12	625.538E-3	11.8869E-3
4.28964E-3	166.237E-12	610.545E-3	-42.9719E-3	173.935E-12	613.015E-3	22.7155E-3
4.28464E-3	166.602E-12	612.092E-3	-31.4177E-3	173.170E-12	629.444E-3	10.5129E-3
4.27964E-3	165.519E-12	604.600E-3	-7.40378E-3	171.469E-12	629.540E-3	-7.27857E-3
4.27464E-3	166.002E-12	622.618E-3	-12.1217E-3	169.420E-12	601.132E-3	5.93874E-3
4.26963E-3	165.577E-12	626.825E-3	-227.417E-6	167.685E-12	590.067E-3	28.6195E-3
4.26463E-3	166.713E-12	583.469E-3	34.2358E-3	166.638E-12	600.424E-3	14.3803E-3
4.25963E-3	167.306E-12	571.610E-3	14.9622E-3	166.304E-12	605.511E-3	-21.7625E-3
4.25463E-3	168.109E-12	584.950E-3	-16.5916E-3	165.708E-12	595.246E-3	-55.2777E-3
4.24962E-3	168.415E-12	577.247E-3	-23.3069E-3	165.882E-12	593.781E-3	-70.9544E-3
4.24462E-3	168.920E-12	575.916E-3	-58.7827E-3	166.067E-12	590.144E-3	-61.1891E-3
4.23962E-3	169.988E-12	608.991E-3	-90.2880E-3	167.690E-12	577.819E-3	-50.1761E-3
4.23462E-3	170.175E-12	640.992E-3	-80.9817E-3	167.603E-12	593.112E-3	-38.2636E-3
4.22961E-3	170.248E-12	634.778E-3	-56.0535E-3	168.579E-12	607.953E-3	-17.7631E-3
4.22461E-3	169.833E-12	619.268E-3	-37.8153E-3	168.933E-12	614.778E-3	-490.488E-6
4.21961E-3	169.930E-12	615.051E-3	-23.2705E-3	170.003E-12	640.174E-3	5.20431E-3
4.21461E-3	168.991E-12	595.722E-3	-16.0684E-3	170.854E-12	647.838E-3	-14.4753E-3
4.20960E-3	167.728E-12	579.915E-3	-19.3600E-3	171.253E-12	628.547E-3	-30.7074E-3
4.20460E-3	166.437E-12	582.646E-3	-9.26433E-3	170.675E-12	627.976E-3	-31.6088E-3
4.19960E-3	165.067E-12	575.710E-3	-6.62784E-3	170.350E-12	643.168E-3	-34.6303E-3
4.19460E-3	165.092E-12	577.235E-3	-28.3522E-3	169.954E-12	640.118E-3	-14.1146E-3
4.18959E-3	163.924E-12	603.881E-3	-29.3799E-3	169.191E-12	624.871E-3	5.61667E-3
4.18459E-3	163.547E-12	618.261E-3	-25.7687E-3	167.677E-12	598.293E-3	-5.79449E-3
4.17959E-3	163.236E-12	612.930E-3	-40.4234E-3	166.257E-12	569.566E-3	-15.5833E-3
4.17459E-3	163.855E-12	617.870E-3	-27.5952E-3	165.125E-12	567.995E-3	-7.74144E-3
4.16958E-3	163.678E-12	616.641E-3	13.0774E-3	164.311E-12	576.456E-3	-4.95027E-3
4.16458E-3	163.966E-12	605.007E-3	34.8589E-3	163.284E-12	582.812E-3	-10.0390E-3
4.15958E-3	164.645E-12	596.107E-3	23.3265E-3	163.372E-12	589.827E-3	-8.42877E-3
4.15458E-3	165.716E-12	588.575E-3	10.5010E-3	163.174E-12	590.199E-3	10.5463E-3
4.14957E-3	166.603E-12	581.431E-3	-14.6868E-3	163.323E-12	598.523E-3	20.1646E-3
4.14457E-3	167.072E-12	585.097E-3	-45.0839E-3	163.943E-12	613.086E-3	1.24317E-3
4.13957E-3	168.539E-12	607.041E-3	-37.5922E-3	164.209E-12	613.931E-3	-1.78071E-3
4.13457E-3	168.705E-12	618.380E-3	-24.5269E-3	163.819E-12	600.457E-3	287.964E-6
4.12956E-3	169.248E-12	610.858E-3	-24.4416E-3	164.113E-12	600.779E-3	322.823E-6
4.12456E-3	169.302E-12	596.697E-3	-5.37294E-3	164.363E-12	612.077E-3	7.37607E-3
4.11956E-3	168.637E-12	609.258E-3	5.91542E-3	164.543E-12	612.415E-3	-5.70719E-3
4.11456E-3	167.531E-12	637.138E-3	-51.7496E-6	164.018E-12	612.386E-3	-28.7542E-3
4.10955E-3	166.741E-12	627.242E-3	10.0943E-3	164.042E-12	608.847E-3	-58.7530E-3
4.10455E-3	166.388E-12	613.304E-3	10.6705E-3	164.174E-12	599.560E-3	-61.9987E-3
4.09955E-3	164.847E-12	633.303E-3	-12.1907E-3	163.979E-12	589.509E-3	-33.9111E-3
4.09455E-3	163.928E-12	624.592E-3	-16.4545E-3	163.451E-12	590.403E-3	-24.8263E-3
4.08954E-3	162.725E-12	578.141E-3	3.64638E-3	162.909E-12	597.108E-3	-5.86841E-3
4.08454E-3	162.180E-12	572.792E-3	4.42297E-3	162.924E-12	603.119E-3	13.9281E-3
4.07954E-3	161.312E-12	597.377E-3	-12.6494E-3	162.412E-12	623.743E-3	-2.69244E-3
4.07454E-3	160.927E-12	595.086E-3	-22.9945E-3	162.055E-12	627.041E-3	-19.9984E-3
4.06953E-3	160.575E-12	584.834E-3	-18.0556E-3	161.281E-12	602.374E-3	-21.2820E-3
4.06453E-3	160.469E-12	587.368E-3	6.13753E-3	161.052E-12	592.336E-3	-17.7115E-3
4.05953E-3	160.780E-12	591.131E-3	16.8874E-3	160.828E-12	614.148E-3	-19.5826E-3
4.05453E-3	161.416E-12	598.662E-3	-1.06062E-3	160.784E-12	630.710E-3	-11.2508E-3
4.04952E-3	161.478E-12	596.857E-3	-16.6539E-3	160.303E-12	612.099E-3	10.5082E-3
4.04452E-3	161.681E-12	584.895E-3	-35.1793E-3	160.065E-12	589.285E-3	15.0786E-3
4.03952E-3	162.087E-12	583.539E-3	-55.1086E-3	159.980E-12	590.936E-3	10.0832E-3
4.03452E-3	162.393E-12	587.868E-3	-56.5450E-3	160.433E-12	603.675E-3	-4.15768E-3
4.02951E-3	162.324E-12	589.723E-3	-52.8774E-3	159.908E-12	615.924E-3	-14.3801E-3
4.02451E-3	162.073E-12	603.523E-3	-53.8800E-3	160.050E-12	611.419E-3	-12.6413E-3
4.01951E-3	161.872E-12	623.418E-3	-43.7054E-3	158.848E-12	596.451E-3	-21.1463E-3
4.01451E-3	161.382E-12	607.462E-3	-14.2214E-3	158.905E-12	595.048E-3	-38.4672E-3
4.00950E-3	160.787E-12	575.554E-3	-5.96738E-3	158.770E-12	607.483E-3	-53.5153E-3
4.00450E-3	159.767E-12	582.884E-3	-10.7807E-3	158.788E-12	624.028E-3	-44.8112E-3
3.99950E-3	158.684E-12	612.046E-3	1.40585E-3	158.663E-12	619.980E-3	-17.6632E-3
3.99450E-3	157.726E-12	628.666E-3	144.383E-6	159.271E-12	606.099E-3	7.38150E-3
3.98949E-3	156.512E-12	642.805E-3	-8.03247E-3	159.639E-12	604.862E-3	17.6447E-3
3.98449E-3	156.267E-12	644.315E-3	-492.989E-6	159.862E-12	611.607E-3	16.4761E-3
3.97949E-3	155.179E-12	616.005E-3	6.96906E-3	160.181E-12	613.284E-3	2.49138E-3
3.97449E-3	155.062E-12	587.540E-3	-5.10356E-3	160.382E-12	602.408E-3	-23.3174E-3
3.96948E-3	154.506E-12	578.455E-3	-15.7224E-3	160.572E-12	593.645E-3	-26.6952E-3
3.96448E-3	155.331E-12	573.039E-3	-14.0256E-3	159.918E-12	583.213E-3	-28.0547E-3
3.95948E-3	155.096E-12	583.365E-3	-24.1060E-3	159.358E-12	581.948E-3	-24.7871E-3
3.95448E-3	156.051E-12	615.410E-3	-41.6153E-3	158.720E-12	590.077E-3	17.3919E-3
3.94947E-3	156.059E-12	626.179E-3	-52.9779E-3	158.304E-12	593.574E-3	31.7079E-3
3.94447E-3	156.732E-12	630.299E-3	-47.8295E-3	157.831E-12	599.660E-3	8.84095E-3
3.93947E-3	157.171E-12	638.306E-3	-32.1435E-3	156.486E-12	601.037E-3	-3.96673E-3
3.93447E-3	157.322E-12	623.145E-3	-22.0452E-3	155.476E-12	604.663E-3	-27.0297E-3
3.92946E-3	157.387E-12	612.265E-3	-14.7399E-3	154.862E-12	602.768E-3	-34.5768E-3
3.92446E-3	157.564E-12	630.679E-3	-4.26717E-3	154.317E-12	589.404E-3	-20.8284E-3
3.91946E-3	157.680E-12	629.874E-3	-7.75162E-3	152.992E-12	578.486E-3	-33.9686E-3
3.91446E-3	157.420E-12	606.879E-3	-20.4529E-3	153.303E-12	586.392E-3	-61.3030E-3
3.90945E-3	157.433E-12	608.526E-3	-17.5551E-3	153.488E-12	624.484E-3	-66.5878E-3
3.90445E-3	156.594E-12	622.050E-3	-6.27715E-3	153.901E-12	645.404E-3	-37.6477E-3
3.89945E-3	155.667E-12	629.589E-3	-17.3347E-3	154.391E-12	637.108E-3	-6.73465E-3
3.89445E-3	155.276E-12	626.587E-3	-28.1475E-3	155.716E-12	644.491E-3	2.13712E-3
3.88944E-3	154.387E-12	617.475E-3	-14.0700E-3	156.597E-12	666.215E-3	-5.48249E-3
3.88444E-3	153.017E-12	601.770E-3	-11.9097E-3	157.248E-12	664.365E-3	-11.1778E-3
3.87944E-3	152.723E-12	594.670E-3	-12.7207E-3	157.712E-12	647.883E-3	-10.1753E-3
3.87444E-3	152.891E-12	603.040E-3	-8.08009E-3	157.777E-12	638.948E-3	-8.91894E-3
3.86943E-3	152.330E-12	603.206E-3	-22.6482E-3	157.686E-12	621.313E-3	-10.3929E-3
3.86443E-3	152.192E-12	590.464E-3	-32.4041E-3	156.667E-12	598.817E-3	-30.3551E-3
3.85943E-3	152.415E-12	591.237E-3	-11.2436E-3	156.168E-12	590.089E-3	-46.7820E-3
3.85443E-3	153.103E-12	604.924E-3	5.07362E-3	154.441E-12	592.715E-3	-42.4372E-3
3.84942E-3	153.136E-12	610.730E-3	-829.127E-6	153.786E-12	604.110E-3	-33.7331E-3
3.84442E-3	153.618E-12	602.803E-3	-12.9055E-3	152.132E-12	612.641E-3	-33.1550E-3
3.83942E-3	153.558E-12	586.397E-3	-23.6425E-3	151.519E-12	604.443E-3	-37.9526E-3
3.83442E-3	153.880E-12	594.279E-3	-22.8871E-3	149.937E-12	590.586E-3	-25.5109E-3
3.82941E-3	154.054E-12	614.923E-3	-11.8349E-3	148.626E-12	583.033E-3	-11.6057E-3
3.82441E-3	154.634E-12	621.454E-3	-11.1729E-3	148.071E-12	574.383E-3	-5.41854E-3
3.81941E-3	153.970E-12	634.982E-3	-20.6044E-3	148.037E-12	571.632E-3	-6.68744E-3
3.81441E-3	154.324E-12	647.657E-3	-12.4329E-3	148.170E-12	582.643E-3	-21.8606E-3
3.80940E-3	153.680E-12	625.149E-3	-1.21865E-3	148.143E-12	586.571E-3	-21.6329E-3
3.80440E-3	153.136E-12	602.258E-3	-5.35919E-3	148.924E-12	611.412E-3	-24.4402E-3
3.79940E-3	152.412E-12	613.710E-3	-991.507E-6	149.533E-12	655.290E-3	-46.9298E-3
3.79440E-3	151.961E-12	627.793E-3	17.6476E-3	150.914E-12	661.789E-3	-44.5540E-3
3.78939E-3	151.392E-12	624.700E-3	18.6811E-3	151.357E-12	649.664E-3	-18.8972E-3
3.78439E-3	150.639E-12	616.296E-3	-10.8046E-3	152.288E-12	652.834E-3	3.75447E-3
3.77939E-3	150.237E-12	614.218E-3	-44.9171E-3	151.895E-12	654.981E-3	7.46810E-3
3.77439E-3	149.655E-12	610.294E-3	-63.1721E-3	152.298E-12	651.371E-3	-6.00023E-3
3.76938E-3	148.958E-12	595.597E-3	-58.7169E-3	151.789E-12	641.993E-3	-17.4557E-3
3.76438E-3	148.644E-12	579.888E-3	-24.0661E-3	151.329E-12	627.537E-3	-26.0196E-3
3.75938E-3	148.759E-12	574.138E-3	-6.84079E-3	150.283E-12	612.047E-3	-28.8726E-3
3.75438E-3	147.805E-12	598.025E-3	-18.4212E-3	149.463E-12	586.085E-3	-28.0482E-3
3.74937E-3	147.217E-12	621.239E-3	-24.1336E-3	148.335E-12	580.887E-3	-36.3745E-3
3.74437E-3	147.488E-12	601.273E-3	-36.0822E-3	147.762E-12	592.626E-3	-52.6807E-3
3.73937E-3	148.130E-12	590.548E-3	-32.2118E-3	146.667E-12	583.735E-3	-40.6788E-3
3.73437E-3	147.714E-12	604.835E-3	-14.9232E-3	145.663E-12	594.801E-3	-10.7593E-3
3.72936E-3	147.388E-12	617.725E-3	-10.2456E-3	145.841E-12	626.010E-3	-13.6793E-3
3.72436E-3	147.665E-12	629.805E-3	-13.1455E-3	145.657E-12	625.369E-3	-35.1615E-3
3.71936E-3	147.981E-12	617.595E-3	-16.0157E-3	145.796E-12	616.498E-3	-47.0335E-3
3.71436E-3	148.419E-12	597.216E-3	-12.8370E-3	145.470E-12	618.613E-3	-38.3575E-3
3.70935E-3	147.942E-12	613.646E-3	-7.38467E-3	146.230E-12	607.152E-3	-1.13682E-3
3.70435E-3	147.818E-12	643.706E-3	-10.0192E-3	146.377E-12	581.239E-3	20.2290E-3
3.69935E-3	147.478E-12	640.017E-3	-23.7956E-3	146.706E-12	555.440E-3	2.68107E-3
3.69435E-3	147.527E-12	625.434E-3	-32.4666E-3	146.706E-12	550.876E-3	-13.5384E-3
3.68934E-3	146.737E-12	627.160E-3	-36.7710E-3	147.270E-12	574.137E-3	-13.9575E-3
3.68434E-3	145.739E-12	624.950E-3	-49.0037E-3	147.510E-12	607.515E-3	-20.9280E-3
3.67934E-3	145.144E-12	615.704E-3	-54.6920E-3	147.359E-12	634.635E-3	-26.6589E-3
3.67434E-3	144.488E-12	616.558E-3	-39.7045E-3	147.462E-12	629.170E-3	-16.2209E-3
3.66933E-3	144.141E-12	613.279E-3	-35.1133E-3	146.666E-12	595.175E-3	-14.6525E-3
3.66433E-3	143.280E-12	613.608E-3	-55.0307E-3	146.465E-12	574.998E-3	-31.7211E-3
3.65933E-3	143.063E-12	628.866E-3	-70.5635E-3	146.219E-12	565.404E-3	-40.2872E-3
3.65433E-3	142.752E-12	619.640E-3	-72.0803E-3	145.044E-12	576.936E-3	-29.0465E-3
3.64932E-3	142.934E-12	601.667E-3	-66.3387E-3	144.118E-12	612.769E-3	-15.4530E-3
3.64432E-3	142.991E-12	599.748E-3	-34.3494E-3	143.856E-12	631.910E-3	-6.27073E-3
3.63932E-3	143.311E-12	602.673E-3	7.13729E-3	143.593E-12	635.435E-3	7.49729E-3
3.63432E-3	143.788E-12	605.493E-3	10.7992E-3	143.281E-12	627.926E-3	18.5963E-3
3.62931E-3	144.456E-12	602.588E-3	-11.7039E-3	143.306E-12	609.866E-3	16.7147E-3
3.62431E-3	144.912E-12	589.848E-3	-19.7976E-3	143.023E-12	608.684E-3	-4.11088E-3
3.61931E-3	145.424E-12	574.077E-3	-16.7569E-3	143.616E-12	614.119E-3	-22.2555E-3
3.61431E-3	145.979E-12	583.743E-3	-16.1221E-3	143.456E-12	618.600E-3	-6.35849E-3
3.60930E-3	146.221E-12	607.451E-3	-5.03353E-3	143.802E-12	631.808E-3	-344.832E-6
3.60430E-3	146.543E-12	607.423E-3	-8.84338E-3	143.218E-12	621.211E-3	-17.6777E-3
3.59930E-3	146.546E-12	607.586E-3	-29.2686E-3	143.555E-12	606.275E-3	-12.1381E-3
3.59430E-3	146.339E-12	607.580E-3	-33.5299E-3	142.957E-12	624.765E-3	-8.58106E-3
3.58929E-3	145.231E-12	598.558E-3	-33.0992E-3	143.064E-12	639.993E-3	-22.4761E-3
3.58429E-3	144.807E-12	610.213E-3	-38.8449E-3	142.826E-12	644.453E-3	-25.6542E-3
3.57929E-3	144.217E-12	626.878E-3	-35.2057E-3	142.816E-12	645.045E-3	-22.8033E-3
3.57429E-3	143.302E-12	630.332E-3	-21.8760E-3	142.110E-12	623.325E-3	-14.7143E-3
3.56928E-3	141.745E-12	628.442E-3	-12.6368E-3	142.239E-12	597.703E-3	-4.79764E-3
3.56428E-3	141.463E-12	629.249E-3	-10.3848E-3	142.049E-12	597.909E-3	335.562E-6
3.55928E-3	140.568E-12	622.771E-3	-19.1217E-3	141.439E-12	621.068E-3	8.60426E-3
3.55428E-3	140.209E-12	620.779E-3	-18.3102E-3	141.198E-12	625.639E-3	11.1379E-3
3.54927E-3	139.401E-12	624.370E-3	3.24278E-3	141.064E-12	598.008E-3	-3.82140E-3
3.54427E-3	139.428E-12	610.835E-3	14.7231E-3	140.666E-12	584.546E-3	-26.9217E-3
3.53927E-3	139.661E-12	595.992E-3	-4.00176E-3	140.505E-12	585.877E-3	-25.8846E-3
3.53427E-3	140.224E-12	599.029E-3	-23.7688E-3	140.226E-12	587.621E-3	-2.74071E-3
3.52926E-3	140.536E-12	613.874E-3	-19.5961E-3	139.977E-12	606.198E-3	4.83562E-3
3.52426E-3	140.920E-12	625.914E-3	-6.53807E-3	139.643E-12	612.901E-3	-12.6794E-3
3.51926E-3	141.899E-12	632.985E-3	3.90236E-3	138.872E-12	600.380E-3	-29.4323E-3
3.51426E-3	142.674E-12	623.272E-3	10.3092E-3	138.416E-12	596.177E-3	-25.8883E-3
3.50925E-3	143.161E-12	618.156E-3	2.95146E-3	137.812E-12	612.184E-3	-9.95841E-3
3.50425E-3	142.525E-12	634.907E-3	-7.68222E-3	137.331E-12	620.976E-3	4.95008E-3
3.49925E-3	141.889E-12	639.570E-3	-1.78027E-3	137.220E-12	612.261E-3	-897.774E-6
3.49425E-3	141.230E-12	626.151E-3	-1.12465E-3	136.675E-12	614.362E-3	-20.0352E-3
3.48924E-3	140.168E-12	616.247E-3	-14.6364E-3	136.529E-12	624.043E-3	-26.5021E-3
3.48424E-3	138.954E-12	604.542E-3	-16.5779E-3	136.762E-12	633.580E-3	-26.4993E-3
3.47924E-3	137.413E-12	592.893E-3	-12.1719E-3	137.058E-12	622.052E-3	-15.1753E-3
3.47424E-3	136.057E-12	612.691E-3	-14.2200E-3	137.236E-12	597.424E-3	9.21072E-3
3.46923E-3	135.214E-12	625.427E-3	-13.0167E-3	137.804E-12	609.584E-3	10.2081E-3
3.46423E-3	134.455E-12	597.227E-3	-17.8962E-3	138.478E-12	640.659E-3	-14.4009E-3
3.45923E-3	133.437E-12	576.004E-3	-38.0160E-3	138.828E-12	651.707E-3	-33.2313E-3
3.45423E-3	132.865E-12	587.124E-3	-47.8763E-3	139.011E-12	632.336E-3	-37.4958E-3
3.44922E-3	132.852E-12	601.828E-3	-50.7568E-3	138.823E-12	597.225E-3	-29.6425E-3
3.44422E-3	132.992E-12	602.201E-3	-52.0517E-3	139.124E-12	575.486E-3	-24.8129E-3
3.43922E-3	132.251E-12	592.498E-3	-29.0424E-3	138.120E-12	577.414E-3	-26.5782E-3
3.43422E-3	132.352E-12	596.192E-3	-11.6400E-3	137.594E-12	599.601E-3	-23.7113E-3
3.42921E-3	132.896E-12	622.674E-3	-32.5116E-3	136.609E-12	624.032E-3	-19.2799E-3
3.42421E-3	133.934E-12	619.228E-3	-49.8816E-3	136.111E-12	625.784E-3	-12.4493E-3
3.41921E-3	134.296E-12	588.533E-3	-32.9510E-3	134.857E-12	610.954E-3	-8.79711E-3
3.41421E-3	134.785E-12	593.845E-3	-6.97190E-3	133.671E-12	614.085E-3	-10.3749E-3
3.40920E-3	135.039E-12	612.622E-3	13.4679E-3	133.086E-12	628.116E-3	-11.0876E-3
3.40420E-3	135.381E-12	600.871E-3	20.1445E-3	132.628E-12	630.145E-3	-13.8704E-3
3.39920E-3	135.528E-12	596.914E-3	-13.0127E-3	131.928E-12	622.504E-3	-15.4444E-3
3.39420E-3	135.008E-12	616.205E-3	-34.4584E-3	131.344E-12	614.514E-3	-9.89605E-3
3.38919E-3	134.429E-12	612.918E-3	-7.12980E-3	131.353E-12	623.715E-3	-23.4815E-3
3.38419E-3	134.395E-12	596.173E-3	-1.91622E-3	131.656E-12	639.551E-3	-37.9942E-3
3.37919E-3	133.898E-12	604.360E-3	-20.6798E-3	131.966E-12	635.159E-3	-20.2062E-3
3.37419E-3	133.286E-12	608.356E-3	-14.5936E-3	132.543E-12	626.334E-3	-8.83025E-3
3.36918E-3	132.674E-12	594.623E-3	-8.31348E-3	133.142E-12	635.100E-3	-15.7677E-3
3.36418E-3	131.977E-12	609.311E-3	-13.2331E-3	134.196E-12	651.212E-3	-19.9529E-3
3.35918E-3	131.584E-12	634.666E-3	-3.78059E-3	134.469E-12	652.690E-3	-22.3864E-3
3.35418E-3	131.287E-12	629.607E-3	-4.10755E-3	134.801E-12	637.071E-3	-30.4204E-3
3.34917E-3	130.807E-12	626.447E-3	-11.1349E-3	134.515E-12	618.878E-3	-44.7791E-3
3.34417E-3	130.935E-12	628.530E-3	6.32518E-3	134.731E-12	603.615E-3	-40.1171E-3
3.33917E-3	130.504E-12	610.672E-3	6.10763E-3	133.791E-12	597.502E-3	-16.0702E-3
3.33417E-3	131.202E-12	613.311E-3	-21.6555E-3	133.281E-12	611.635E-3	-5.99218E-3
3.32916E-3	130.988E-12	628.436E-3	-24.6751E-3	132.530E-12	623.998E-3	-11.2021E-3
3.32416E-3	131.627E-12	617.316E-3	-25.4860E-3	131.747E-12	622.861E-3	-20.7413E-3
3.31916E-3	131.287E-12	614.577E-3	-47.5366E-3	131.210E-12	621.270E-3	-20.9481E-3
3.31416E-3	131.723E-12	628.418E-3	-33.0189E-3	130.133E-12	612.012E-3	-17.5061E-3
3.30915E-3	131.381E-12	636.725E-3	-2.65862E-3	129.432E-12	606.221E-3	-27.0546E-3
3.30415E-3	131.846E-12	644.227E-3	-1.58022E-3	128.350E-12	605.870E-3	-27.6007E-3
3.29915E-3	131.910E-12	649.480E-3	-4.59989E-3	128.487E-12	594.547E-3	-16.3804E-3
3.29415E-3	131.802E-12	629.515E-3	-15.5930E-3	127.928E-12	592.566E-3	-7.12931E-3
3.28914E-3	131.773E-12	608.142E-3	-39.5232E-3	128.110E-12	615.451E-3	-6.61656E-3
3.28414E-3	132.166E-12	613.324E-3	-41.8503E-3	127.949E-12	628.701E-3	-16.7520E-3
3.27914E-3	132.179E-12	603.987E-3	-23.0184E-3	128.413E-12	616.143E-3	-18.5881E-3
3.27414E-3	131.656E-12	578.290E-3	-16.7275E-3	128.644E-12	608.671E-3	-3.96096E-3
3.26913E-3	131.477E-12	585.103E-3	-17.5021E-3	129.609E-12	615.258E-3	-10.4704E-3
3.26413E-3	130.979E-12	609.615E-3	-989.755E-6	129.542E-12	627.854E-3	-33.3487E-3
3.25913E-3	130.464E-12	625.236E-3	6.79346E-3	130.041E-12	643.265E-3	-18.9051E-3
3.25413E-3	130.245E-12	634.788E-3	-6.54756E-3	130.079E-12	644.070E-3	12.1367E-3
3.24912E-3	129.257E-12	634.123E-3	-15.8491E-3	130.335E-12	629.107E-3	18.2703E-3
3.24412E-3	128.837E-12	644.872E-3	-30.9737E-3	129.733E-12	615.168E-3	8.77637E-3
3.23912E-3	128.427E-12	654.201E-3	-42.2155E-3	129.222E-12	605.395E-3	-1.08886E-3
3.23412E-3	127.787E-12	625.045E-3	-34.3989E-3	128.328E-12	600.336E-3	-2.64499E-3
3.22911E-3	126.615E-12	596.449E-3	-32.6341E-3	127.750E-12	609.723E-3	2.60152E-3
3.22411E-3	126.712E-12	596.818E-3	-36.7071E-3	126.498E-12	621.921E-3	3.67374E-3
3.21911E-3	126.305E-12	592.121E-3	-17.4425E-3	126.461E-12	612.190E-3	4.85534E-3
3.21411E-3	126.569E-12	584.164E-3	-9.89346E-3	125.489E-12	605.702E-3	-4.84657E-3
3.20910E-3	126.050E-12	601.494E-3	-31.2624E-3	125.057E-12	619.923E-3	-23.8142E-3
3.20410E-3	126.120E-12	619.476E-3	-22.8936E-3	124.458E-12	617.326E-3	-19.5410E-3
3.19910E-3	126.434E-12	615.133E-3	-9.26962E-3	124.517E-12	602.574E-3	-2.51688E-3
3.19410E-3	127.295E-12	611.162E-3	-17.2319E-3	124.406E-12	604.443E-3	13.7854E-6
3.18909E-3	127.145E-12	621.984E-3	-6.78018E-3	124.225E-12	608.407E-3	-6.82371E-3
3.18409E-3	127.028E-12	614.881E-3	4.75069E-3	124.443E-12	607.050E-3	-11.7863E-3
3.17909E-3	126.908E-12	598.986E-3	-14.1261E-3	125.215E-12	621.699E-3	-15.4905E-3
3.17409E-3	127.196E-12	607.225E-3	-26.3580E-3	124.973E-12	643.174E-3	-11.7412E-3
3.16908E-3	126.486E-12	611.395E-3	637.268E-6	125.648E-12	642.156E-3	-14.9153E-3
3.16408E-3	125.865E-12	620.867E-3	9.35259E-3	125.568E-12	631.257E-3	-19.3849E-3
3.15908E-3	125.441E-12	650.189E-3	-5.78764E-3	126.494E-12	633.893E-3	-9.26249E-3
3.15408E-3	124.646E-12	659.165E-3	-7.11698E-3	125.981E-12	631.841E-3	-8.43823E-3
3.14907E-3	124.442E-12	654.253E-3	-19.8747E-3	126.205E-12	617.493E-3	-10.4825E-3
3.14407E-3	123.445E-12	647.751E-3	-32.7455E-3	125.541E-12	617.982E-3	-13.8143E-3
3.13907E-3	122.757E-12	625.048E-3	-19.3273E-3	125.732E-12	633.437E-3	-29.4236E-3
3.13407E-3	121.686E-12	606.902E-3	-15.5415E-3	125.195E-12	644.447E-3	-40.3509E-3
3.12906E-3	121.413E-12	613.321E-3	-28.7952E-3	124.266E-12	651.254E-3	-27.7695E-3
3.12406E-3	120.906E-12	614.866E-3	-18.6183E-3	123.742E-12	637.997E-3	-11.6127E-3
3.11906E-3	120.544E-12	601.685E-3	-9.19999E-3	123.686E-12	609.704E-3	-1.81610E-3
3.11406E-3	120.405E-12	605.737E-3	-13.4998E-3	123.003E-12	598.758E-3	-5.10796E-3
3.10905E-3	120.578E-12	607.140E-3	-14.0281E-3	121.879E-12	596.270E-3	-23.3779E-3
3.10405E-3	121.038E-12	590.332E-3	-28.4752E-3	121.415E-12	595.659E-3	-17.1691E-3
3.09905E-3	121.415E-12	596.777E-3	-45.2321E-3	121.174E-12	603.769E-3	-11.3576E-3
3.09405E-3	121.761E-12	614.247E-3	-41.5793E-3	120.650E-12	616.781E-3	-10.3010E-3
3.08904E-3	122.722E-12	607.771E-3	-30.1029E-3	120.435E-12	618.445E-3	-4.08946E-3
3.08404E-3	123.153E-12	615.838E-3	-29.4537E-3	119.924E-12	604.402E-3	-15.0521E-3
3.07904E-3	123.176E-12	642.583E-3	-26.1057E-3	119.861E-12	601.538E-3	-25.9745E-3
3.07404E-3	123.341E-12	648.482E-3	-16.3733E-3	119.689E-12	612.662E-3	-27.8824E-3
3.06903E-3	123.628E-12	641.407E-3	-17.9396E-3	119.805E-12	615.282E-3	-20.8389E-3
3.06403E-3	122.773E-12	635.654E-3	-17.4200E-3	119.603E-12	599.016E-3	-17.8260E-3
3.05903E-3	121.950E-12	635.062E-3	-9.95510E-3	120.060E-12	580.520E-3	-23.4839E-3
3.05403E-3	121.266E-12	637.961E-3	-18.7902E-3	119.467E-12	586.832E-3	-18.5308E-3
3.04902E-3	120.548E-12	636.874E-3	-20.7399E-3	120.164E-12	610.306E-3	-12.1285E-3
3.04402E-3	119.329E-12	631.653E-3	-544.503E-6	120.464E-12	631.119E-3	-9.86170E-3
3.03902E-3	118.364E-12	631.402E-3	127.040E-6	120.460E-12	637.331E-3	-8.88354E-3
3.03402E-3	117.998E-12	629.906E-3	-2.63941E-3	120.058E-12	627.734E-3	-18.1515E-3
3.02901E-3	117.386E-12	617.075E-3	10.5812E-3	120.944E-12	609.358E-3	-24.2322E-3
3.02401E-3	116.983E-12	611.953E-3	-4.60319E-3	120.843E-12	603.284E-3	-25.2015E-3
3.01901E-3	116.849E-12	600.191E-3	-20.2549E-3	120.552E-12	624.112E-3	-28.7741E-3
3.01401E-3	117.185E-12	569.842E-3	-4.82588E-3	119.841E-12	624.308E-3	-19.1548E-3
3.00900E-3	117.437E-12	576.746E-3	8.51514E-3	119.400E-12	598.890E-3	-9.75181E-3
3.00400E-3	117.945E-12	612.141E-3	229.309E-6	118.869E-12	596.856E-3	-18.5596E-3
2.99900E-3	118.462E-12	611.247E-3	-14.9209E-3	117.940E-12	609.608E-3	-26.2718E-3
2.99400E-3	118.958E-12	598.469E-3	-28.7848E-3	116.883E-12	627.870E-3	-19.6948E-3
2.98899E-3	119.691E-12	613.563E-3	-40.7386E-3	115.879E-12	631.202E-3	-12.9513E-3
2.98399E-3	119.646E-12	627.870E-3	-32.2949E-3	115.599E-12	608.380E-3	-22.4017E-3
2.97899E-3	119.749E-12	624.463E-3	-21.2125E-3	114.814E-12	606.063E-3	-30.5582E-3
2.97399E-3	119.593E-12	628.391E-3	-22.2118E-3	114.459E-12	633.941E-3	-16.2900E-3
2.96898E-3	119.310E-12	630.731E-3	-27.4041E-3	113.959E-12	638.004E-3	1.30706E-3
2.96398E-3	118.797E-12	621.966E-3	-33.0594E-3	114.240E-12	611.076E-3	-1.32546E-3
2.95898E-3	118.092E-12	634.000E-3	-35.1127E-3	114.279E-12	609.216E-3	-14.8575E-3
2.95398E-3	117.078E-12	646.573E-3	-29.2572E-3	114.310E-12	612.906E-3	-24.3695E-3
2.94897E-3	116.260E-12	633.850E-3	-21.3167E-3	114.594E-12	604.891E-3	-31.0088E-3
2.94397E-3	115.651E-12	625.493E-3	-19.1703E-3	115.163E-12	627.414E-3	-33.1240E-3
2.93897E-3	115.194E-12	626.529E-3	-11.3184E-3	115.858E-12	648.043E-3	-31.8292E-3
2.93397E-3	114.636E-12	622.130E-3	-11.9982E-3	116.187E-12	649.228E-3	-24.8787E-3
2.92896E-3	113.840E-12	622.077E-3	-25.6394E-3	116.720E-12	649.066E-3	-18.2723E-3
2.92396E-3	113.707E-12	631.025E-3	-22.8204E-3	116.535E-12	637.171E-3	-24.8395E-3
2.91896E-3	113.580E-12	637.049E-3	-14.4874E-3	116.882E-12	628.261E-3	-28.5313E-3
2.91396E-3	113.492E-12	637.720E-3	-16.4296E-3	116.592E-12	623.892E-3	-27.6203E-3
2.90895E-3	113.274E-12	638.915E-3	-16.2388E-3	116.085E-12	614.726E-3	-29.9707E-3
2.90395E-3	113.513E-12	634.169E-3	-24.2778E-3	115.174E-12	594.918E-3	-25.3053E-3
2.89895E-3	113.567E-12	642.921E-3	-38.0716E-3	114.528E-12	580.492E-3	-16.6329E-3
2.89395E-3	113.858E-12	661.768E-3	-35.2702E-3	113.981E-12	597.154E-3	-11.9813E-3
2.88894E-3	113.594E-12	636.760E-3	-33.2107E-3	112.934E-12	616.678E-3	-18.3218E-3
2.88394E-3	113.459E-12	612.226E-3	-37.3250E-3	112.192E-12	627.657E-3	-15.3856E-3
2.87894E-3	113.250E-12	632.265E-3	-25.6426E-3	111.301E-12	632.351E-3	-7.42691E-3
2.87394E-3	113.133E-12	639.644E-3	-12.5039E-3	110.958E-12	613.974E-3	-12.8894E-3
2.86893E-3	112.531E-12	631.128E-3	-21.9523E-3	110.958E-12	602.456E-3	-3.34198E-3
2.86393E-3	111.789E-12	636.735E-3	-23.3948E-3	110.844E-12	622.027E-3	13.2026E-3
2.85893E-3	111.157E-12	637.734E-3	-6.05985E-3	110.503E-12	638.807E-3	3.83129E-3
2.85393E-3	111.009E-12	628.727E-3	-939.889E-6	110.795E-12	641.229E-3	-16.3313E-3
2.84892E-3	110.558E-12	634.417E-3	-14.3793E-3	111.675E-12	638.292E-3	-16.2398E-3
2.84392E-3	110.387E-12	636.619E-3	-17.5710E-3	112.213E-12	626.177E-3	-13.5097E-3
2.83892E-3	109.811E-12	622.863E-3	-5.12118E-3	112.505E-12	635.641E-3	-25.6815E-3
2.83392E-3	109.847E-12	633.732E-3	-9.61276E-3	113.014E-12	684.325E-3	-32.0075E-3
2.82891E-3	109.365E-12	638.913E-3	-5.17758E-3	113.169E-12	707.797E-3	-38.0537E-3
2.82391E-3	109.579E-12	617.526E-3	-520.629E-6	113.902E-12	680.652E-3	-41.7687E-3
2.81891E-3	109.332E-12	620.143E-3	-21.5620E-3	113.341E-12	653.735E-3	-30.2125E-3
2.81391E-3	109.070E-12	633.343E-3	-25.0388E-3	113.497E-12	650.161E-3	-25.2256E-3
2.80890E-3	108.900E-12	636.131E-3	-14.9316E-3	112.472E-12	653.334E-3	-28.5754E-3
2.80390E-3	109.066E-12	640.560E-3	-16.5049E-3	112.028E-12	645.622E-3	-26.4587E-3
2.79890E-3	109.024E-12	639.944E-3	-25.9499E-3	110.887E-12	634.414E-3	-28.8306E-3
2.79390E-3	109.137E-12	630.363E-3	-31.7591E-3	109.948E-12	626.122E-3	-33.7879E-3
2.78889E-3	108.977E-12	632.355E-3	-24.8922E-3	109.008E-12	621.219E-3	-35.2085E-3
2.78389E-3	108.934E-12	650.616E-3	-15.4379E-3	108.353E-12	620.164E-3	-37.2805E-3
2.77889E-3	109.200E-12	647.142E-3	-6.99492E-3	107.454E-12	619.929E-3	-28.8719E-3
2.77389E-3	108.871E-12	635.548E-3	-19.5393E-3	106.658E-12	625.911E-3	-11.4447E-3
2.76888E-3	108.788E-12	635.149E-3	-43.1991E-3	106.409E-12	624.365E-3	-10.6724E-3
2.76388E-3	108.919E-12	622.850E-3	-42.2343E-3	106.266E-12	621.542E-3	-21.7548E-3
2.75888E-3	109.169E-12	624.642E-3	-43.4770E-3	106.397E-12	623.723E-3	-12.3676E-3
2.75388E-3	108.997E-12	648.007E-3	-55.3219E-3	106.652E-12	624.085E-3	1.56106E-3
2.74887E-3	109.063E-12	644.571E-3	-35.1269E-3	106.697E-12	637.169E-3	-3.84982E-3
2.74387E-3	109.043E-12	631.511E-3	122.759E-6	106.605E-12	655.635E-3	-6.86957E-3
2.73887E-3	108.657E-12	637.893E-3	-1.06672E-3	107.136E-12	658.691E-3	-8.53831E-3
2.73387E-3	108.332E-12	633.442E-3	-17.2329E-3	106.851E-12	639.996E-3	-13.0557E-3
2.72886E-3	107.649E-12	625.146E-3	-11.9378E-3	106.874E-12	633.670E-3	7.30468E-3
2.72386E-3	107.322E-12	632.742E-3	3.41362E-3	106.481E-12	653.626E-3	29.1510E-3
2.71886E-3	106.686E-12	629.282E-3	11.4849E-3	106.828E-12	661.940E-3	13.2745E-3
2.71386E-3	106.748E-12	620.543E-3	-3.02927E-3	106.516E-12	637.838E-3	-8.01860E-3
2.70885E-3	106.186E-12	650.044E-3	-30.3082E-3	105.988E-12	616.310E-3	-10.4281E-3
2.70385E-3	105.540E-12	682.189E-3	-30.6161E-3	105.474E-12	620.100E-3	-14.2706E-3
2.69885E-3	105.085E-12	669.905E-3	-20.0059E-3	104.814E-12	619.108E-3	-21.0143E-3
2.69385E-3	104.715E-12	645.954E-3	-27.3502E-3	104.457E-12	620.225E-3	-25.3108E-3
2.68884E-3	104.420E-12	631.299E-3	-16.3341E-3	103.615E-12	621.810E-3	-29.1708E-3
2.68384E-3	104.607E-12	616.773E-3	2.40601E-3	102.663E-12	608.782E-3	-31.5303E-3
2.67884E-3	104.534E-12	618.514E-3	-15.9901E-3	102.016E-12	615.267E-3	-38.2173E-3
2.67384E-3	104.476E-12	633.488E-3	-31.9427E-3	101.748E-12	639.288E-3	-49.2573E-3
2.66883E-3	105.059E-12	640.578E-3	-25.9766E-3	101.703E-12	644.406E-3	-61.2826E-3
2.66383E-3	104.919E-12	647.415E-3	-30.1791E-3	101.668E-12	630.914E-3	-64.1345E-3
2.65883E-3	105.212E-12	661.909E-3	-20.4104E-3	101.600E-12	616.797E-3	-44.2252E-3
2.65383E-3	105.036E-12	656.287E-3	8.93846E-3	101.314E-12	606.029E-3	-17.4732E-3
2.64882E-3	104.647E-12	625.223E-3	8.82196E-3	101.475E-12	602.328E-3	-2.18912E-3
2.64382E-3	104.164E-12	609.979E-3	-10.2664E-3	101.354E-12	612.881E-3	-4.69677E-3
2.63882E-3	103.717E-12	627.180E-3	-20.6317E-3	101.663E-12	637.156E-3	-23.2840E-3
2.63382E-3	103.173E-12	645.188E-3	-31.8340E-3	101.520E-12	652.233E-3	-24.2016E-3
2.62881E-3	102.717E-12	654.365E-3	-27.5019E-3	101.645E-12	641.145E-3	-3.85488E-3
2.62381E-3	102.214E-12	654.823E-3	-6.42927E-3	101.958E-12	626.500E-3	4.34142E-3
2.61881E-3	100.887E-12	640.182E-3	-6.45830E-3	102.217E-12	635.316E-3	-11.3726E-3
2.61381E-3	100.383E-12	642.991E-3	-8.53625E-3	101.903E-12	671.962E-3	-32.1084E-3
2.60880E-3	99.5244E-12	652.424E-3	7.70592E-3	101.784E-12	687.864E-3	-30.1629E-3
2.60380E-3	98.9335E-12	633.814E-3	6.55214E-3	101.819E-12	671.984E-3	-21.4630E-3
2.59880E-3	98.2406E-12	623.641E-3	-20.0784E-3	102.187E-12	659.927E-3	-26.6724E-3
2.59380E-3	98.1130E-12	632.148E-3	-30.9912E-3	101.858E-12	653.010E-3	-37.2313E-3
2.58879E-3	98.2927E-12	627.093E-3	-20.8237E-3	101.398E-12	656.722E-3	-32.8427E-3
2.58379E-3	98.3837E-12	616.729E-3	-20.9263E-3	101.069E-12	661.479E-3	-16.8829E-3
2.57879E-3	98.7252E-12	620.690E-3	-19.0874E-3	101.017E-12	650.852E-3	-17.8562E-3
2.57379E-3	99.0091E-12	639.009E-3	-13.1118E-3	100.654E-12	638.118E-3	-21.5274E-3
2.56878E-3	99.6015E-12	643.470E-3	-21.0587E-3	100.112E-12	639.252E-3	-11.1485E-3
2.56378E-3	99.5887E-12	632.126E-3	-19.7098E-3	99.2950E-12	649.238E-3	-11.6630E-3
2.55878E-3	99.6787E-12	635.918E-3	-8.40587E-3	99.1120E-12	652.703E-3	-26.1892E-3
2.55378E-3	99.6108E-12	649.410E-3	-12.5399E-3	98.8503E-12	654.298E-3	-34.2526E-3
2.54877E-3	99.7344E-12	658.451E-3	-2.94005E-3	98.4255E-12	654.635E-3	-24.6514E-3
2.54377E-3	99.1404E-12	657.038E-3	19.2852E-3	97.8556E-12	650.000E-3	-6.83703E-3
2.53877E-3	98.3945E-12	650.835E-3	17.3338E-3	97.8562E-12	658.195E-3	2.59877E-3
2.53377E-3	97.8485E-12	650.328E-3	6.51318E-3	97.6889E-12	660.696E-3	2.14862E-3
2.52876E-3	97.5279E-12	649.670E-3	-986.903E-6	97.8409E-12	640.417E-3	-9.08650E-3
2.52376E-3	96.9555E-12	653.798E-3	-5.90746E-3	97.7171E-12	626.162E-3	-19.7814E-3
2.51876E-3	96.2173E-12	658.068E-3	-6.53782E-3	97.8163E-12	632.703E-3	-13.0907E-3
2.51376E-3	95.6956E-12	645.891E-3	-7.12139E-3	97.9524E-12	640.963E-3	-6.32388E-3
2.50875E-3	95.7153E-12	631.756E-3	-12.5405E-3	98.1491E-12	641.470E-3	-5.12939E-3
2.50375E-3	95.7625E-12	635.746E-3	-18.6161E-3	97.9684E-12	650.290E-3	2.02086E-3
2.49875E-3	95.4555E-12	630.868E-3	-22.5305E-3	97.9169E-12	657.949E-3	3.38581E-3
2.49375E-3	95.6631E-12	619.180E-3	-34.2271E-3	98.0633E-12	651.493E-3	96.3580E-6
2.48874E-3	95.9052E-12	634.417E-3	-41.5773E-3	97.9151E-12	643.916E-3	6.20891E-3
2.48374E-3	96.2818E-12	650.277E-3	-20.6547E-3	97.7619E-12	641.774E-3	12.7585E-3
2.47874E-3	96.4364E-12	653.173E-3	3.10238E-3	97.2145E-12	647.518E-3	1.97544E-3
2.47374E-3	96.7171E-12	663.635E-3	4.52318E-3	96.4874E-12	658.223E-3	-23.4287E-3
2.46873E-3	96.4542E-12	668.218E-3	2.66791E-6	95.9233E-12	667.953E-3	-39.2837E-3
2.46373E-3	96.5590E-12	645.499E-3	-5.13974E-3	95.3740E-12	670.869E-3	-27.7232E-3
2.45873E-3	96.5912E-12	635.284E-3	-20.9248E-3	94.9175E-12	668.669E-3	-16.3967E-3
2.45373E-3	96.5534E-12	649.604E-3	-27.3761E-3	94.2238E-12	671.231E-3	-25.8926E-3
2.44872E-3	95.7735E-12	647.220E-3	-23.3564E-3	93.6997E-12	668.532E-3	-32.1621E-3
2.44372E-3	95.4301E-12	639.990E-3	-32.8064E-3	93.3678E-12	658.934E-3	-23.1386E-3
2.43872E-3	95.2147E-12	645.670E-3	-25.6607E-3	92.9609E-12	651.288E-3	-23.7146E-3
2.43372E-3	94.8118E-12	641.428E-3	1.21479E-3	92.6597E-12	642.712E-3	-29.8828E-3
2.42871E-3	94.0849E-12	635.356E-3	15.2725E-3	92.4505E-12	634.954E-3	-14.0244E-3
2.42371E-3	93.5364E-12	639.933E-3	13.7902E-3	92.4023E-12	630.454E-3	-9.33274E-3
2.41871E-3	93.3014E-12	632.165E-3	-1.38536E-3	92.4215E-12	639.235E-3	-27.6873E-3
2.41371E-3	92.7982E-12	627.596E-3	-22.8567E-3	92.4963E-12	658.090E-3	-23.4953E-3
2.40870E-3	92.3802E-12	641.004E-3	-24.5172E-3	92.3461E-12	662.507E-3	-11.0335E-3
2.40370E-3	92.1983E-12	651.546E-3	-19.6172E-3	92.5061E-12	655.039E-3	-28.3640E-3
2.39870E-3	92.3460E-12	660.267E-3	-26.4603E-3	92.5308E-12	651.112E-3	-40.0487E-3
2.39370E-3	92.3089E-12	665.015E-3	-25.7279E-3	92.9668E-12	660.479E-3	-30.7903E-3
2.38869E-3	92.0607E-12	647.619E-3	-23.2789E-3	92.8452E-12	675.836E-3	-23.1039E-3
2.38369E-3	92.0534E-12	626.331E-3	-26.9863E-3	92.6153E-12	669.487E-3	-15.6389E-3
2.37869E-3	91.8705E-12	645.308E-3	-22.8666E-3	92.4027E-12	656.863E-3	-6.25013E-3
2.37369E-3	91.7182E-12	675.055E-3	-15.4088E-3	91.8563E-12	650.365E-3	3.23474E-3
2.36868E-3	91.5185E-12	670.380E-3	-17.9989E-3	91.1994E-12	634.705E-3	10.4311E-3
2.36368E-3	91.3307E-12	663.106E-3	-18.4956E-3	90.3134E-12	628.002E-3	13.3014E-3
2.35868E-3	91.1308E-12	664.589E-3	-8.18629E-3	89.6979E-12	628.452E-3	-1.23878E-3
2.35368E-3	91.1357E-12	662.513E-3	-5.75582E-3	88.8697E-12	626.556E-3	-15.3535E-3
2.34867E-3	90.9953E-12	658.412E-3	-7.94247E-3	88.1454E-12	647.137E-3	-14.3877E-3
2.34367E-3	90.3585E-12	644.816E-3	-7.15548E-3	87.8103E-12	674.222E-3	-18.4091E-3
2.33867E-3	90.2159E-12	639.815E-3	-14.1815E-3	87.5713E-12	673.593E-3	-26.5477E-3
2.33367E-3	89.7000E-12	652.460E-3	-13.0746E-3	87.4012E-12	657.174E-3	-30.5710E-3
2.32866E-3	89.5531E-12	663.936E-3	-9.02024E-3	87.2386E-12	651.051E-3	-28.5976E-3
2.32366E-3	88.9443E-12	666.799E-3	-17.6072E-3	87.4332E-12	652.033E-3	-21.1595E-3
2.31866E-3	88.8407E-12	665.729E-3	-26.2965E-3	87.6593E-12	648.832E-3	-18.5625E-3
2.31366E-3	88.3563E-12	673.571E-3	-26.8135E-3	87.7866E-12	649.542E-3	-20.8851E-3
2.30865E-3	87.8282E-12	677.028E-3	-21.4849E-3	87.9419E-12	657.052E-3	-18.2068E-3
2.30365E-3	87.5355E-12	662.518E-3	-22.7675E-3	88.3361E-12	676.625E-3	-27.5898E-3
2.29865E-3	87.3272E-12	642.935E-3	-24.0436E-3	88.5529E-12	688.337E-3	-28.6657E-3
2.29365E-3	86.9302E-12	623.871E-3	-8.91902E-3	88.4023E-12	673.861E-3	-7.21114E-3
2.28864E-3	86.4956E-12	628.757E-3	1.15778E-3	88.4422E-12	660.683E-3	-10.7383E-3
2.28364E-3	86.2462E-12	661.227E-3	-3.99778E-3	87.9520E-12	655.760E-3	-30.2939E-3
2.27864E-3	86.1190E-12	670.409E-3	-14.9360E-3	87.8664E-12	652.373E-3	-30.0050E-3
2.27364E-3	85.9007E-12	658.016E-3	-25.5427E-3	87.2767E-12	658.190E-3	-24.5241E-3
2.26863E-3	85.4517E-12	659.458E-3	-19.1646E-3	86.9703E-12	663.537E-3	-33.6100E-3
2.26363E-3	85.4364E-12	663.525E-3	-5.32833E-3	86.3959E-12	657.482E-3	-39.9774E-3
2.25863E-3	85.3271E-12	665.156E-3	-9.70609E-3	86.2119E-12	660.628E-3	-27.2425E-3
2.25363E-3	85.4076E-12	671.577E-3	-24.9694E-3	85.5002E-12	670.110E-3	-20.1321E-3
2.24862E-3	85.3099E-12	664.360E-3	-39.1929E-3	85.1646E-12	657.898E-3	-26.1839E-3
2.24362E-3	85.3272E-12	646.854E-3	-46.5782E-3	84.8218E-12	640.218E-3	-27.8762E-3
2.23862E-3	85.4328E-12	646.318E-3	-43.5729E-3	84.7365E-12	651.033E-3	-21.9833E-3
2.23362E-3	85.5926E-12	658.600E-3	-32.1358E-3	84.6396E-12	672.100E-3	-11.7819E-3
2.22861E-3	85.3922E-12	669.467E-3	-25.2121E-3	84.7026E-12	676.245E-3	-7.56517E-3
2.22361E-3	85.2676E-12	687.541E-3	-32.6012E-3	84.8845E-12	676.587E-3	-9.51706E-3
2.21861E-3	84.8728E-12	699.708E-3	-31.6457E-3	85.0373E-12	682.724E-3	-7.16559E-3
2.21361E-3	84.8257E-12	685.245E-3	-28.7864E-3	84.9739E-12	686.362E-3	-12.8735E-3
2.20860E-3	84.6634E-12	673.844E-3	-44.4690E-3	85.3369E-12	681.242E-3	-14.8394E-3
2.20360E-3	84.3405E-12	669.809E-3	-46.1687E-3	84.9866E-12	675.221E-3	-4.31796E-3
2.19860E-3	83.8482E-12	662.901E-3	-30.0840E-3	84.8183E-12	672.347E-3	-8.35278E-3
2.19360E-3	83.4928E-12	675.659E-3	-26.0926E-3	84.5809E-12	666.500E-3	-10.8435E-3
2.18859E-3	83.3421E-12	681.860E-3	-23.5563E-3	84.1969E-12	667.686E-3	-14.1492E-3
2.18359E-3	82.8996E-12	659.249E-3	-18.4071E-3	83.7656E-12	670.120E-3	-31.1870E-3
2.17859E-3	82.4890E-12	649.853E-3	-10.2478E-3	83.2409E-12	665.839E-3	-22.9037E-3
2.17359E-3	82.2058E-12	665.539E-3	-4.01134E-3	82.8327E-12	666.371E-3	-9.88294E-3
2.16858E-3	82.3348E-12	673.953E-3	-18.6670E-3	82.3221E-12	664.173E-3	-22.2654E-3
2.16358E-3	82.2283E-12	676.350E-3	-34.7733E-3	82.0351E-12	661.054E-3	-28.8107E-3
2.15858E-3	82.2047E-12	680.661E-3	-31.8847E-3	81.4253E-12	661.580E-3	-26.3414E-3
2.15358E-3	81.8875E-12	679.559E-3	-32.0687E-3	81.1721E-12	662.264E-3	-21.0525E-3
2.14857E-3	81.7764E-12	680.246E-3	-37.5498E-3	80.6569E-12	669.647E-3	-12.1859E-3
2.14357E-3	81.9077E-12	688.584E-3	-23.0792E-3	80.6388E-12	681.057E-3	-11.2138E-3
2.13857E-3	81.9014E-12	684.081E-3	-10.3741E-3	80.7579E-12	679.277E-3	-12.7264E-3
2.13357E-3	81.7551E-12	670.084E-3	-11.5846E-3	80.1954E-12	670.614E-3	-5.95726E-3
2.12856E-3	81.4502E-12	678.769E-3	-4.32852E-3	80.2305E-12	676.431E-3	-1.33355E-3
2.12356E-3	81.2976E-12	686.261E-3	2.54169E-3	80.1880E-12	681.137E-3	-6.99156E-3
2.11856E-3	81.2884E-12	679.696E-3	-4.01818E-3	79.8649E-12	669.066E-3	-8.81413E-3
2.11356E-3	80.8207E-12	693.616E-3	-9.59077E-3	79.5136E-12	660.506E-3	-8.46900E-3
2.10855E-3	80.2307E-12	704.710E-3	-7.58772E-3	79.0787E-12	664.956E-3	-11.1780E-3
2.10355E-3	79.5152E-12	693.345E-3	-13.9847E-3	78.9842E-12	666.838E-3	-10.7245E-3
2.09855E-3	79.3415E-12	687.671E-3	-20.4514E-3	78.4703E-12	669.799E-3	-16.8867E-3
2.09355E-3	78.6194E-12	688.421E-3	-21.9042E-3	78.0136E-12	676.389E-3	-16.0975E-3
2.08854E-3	78.3090E-12	690.855E-3	-25.6609E-3	77.6233E-12	683.220E-3	4.70113E-3
2.08354E-3	77.5694E-12	701.832E-3	-13.3283E-3	77.2274E-12	697.339E-3	8.91091E-3
2.07854E-3	77.3580E-12	705.091E-3	4.87258E-3	76.6065E-12	697.668E-3	-16.1192E-3
2.07354E-3	77.1166E-12	680.146E-3	-3.11863E-3	76.6555E-12	679.582E-3	-18.1567E-3
2.06853E-3	77.0756E-12	655.110E-3	-14.7383E-3	76.2972E-12	688.907E-3	1.89912E-3
2.06353E-3	76.7513E-12	661.465E-3	-6.51351E-3	76.2239E-12	714.524E-3	-10.2738E-3
2.05853E-3	76.4600E-12	679.736E-3	-3.07640E-3	75.8956E-12	707.596E-3	-31.9434E-3
2.05353E-3	76.5659E-12	694.943E-3	-11.0619E-3	75.8205E-12	687.107E-3	-21.8040E-3
2.04852E-3	76.5543E-12	696.120E-3	-10.6236E-3	76.0074E-12	679.240E-3	-4.75385E-3
2.04352E-3	76.1761E-12	684.488E-3	-16.1728E-3	76.1476E-12	673.804E-3	-963.196E-6
2.03852E-3	75.7492E-12	693.830E-3	-33.3283E-3	75.7579E-12	676.198E-3	7.31522E-3
2.03352E-3	75.9799E-12	712.947E-3	-24.9635E-3	75.7422E-12	685.396E-3	8.08362E-3
2.02851E-3	75.9617E-12	709.668E-3	-6.23540E-3	75.9231E-12	684.943E-3	-6.55157E-3
2.02351E-3	75.6520E-12	698.877E-3	-7.57806E-3	75.7318E-12	683.194E-3	-20.1946E-3
2.01851E-3	75.1638E-12	694.001E-3	-2.23289E-3	75.2803E-12	689.182E-3	-27.5449E-3
2.01351E-3	74.6288E-12	693.836E-3	2.54862E-3	74.9333E-12	686.536E-3	-14.1339E-3
2.00850E-3	74.2190E-12	706.681E-3	-11.7255E-3	74.7173E-12	684.936E-3	5.22158E-3
2.00350E-3	73.6957E-12	723.124E-3	-25.8457E-3	74.4444E-12	698.285E-3	2.85274E-3
1.99850E-3	73.0352E-12	715.452E-3	-32.3388E-3	73.7683E-12	700.860E-3	-15.6573E-3
1.99350E-3	72.7134E-12	694.533E-3	-27.8460E-3	73.7433E-12	689.276E-3	-31.1071E-3
1.98849E-3	72.2111E-12	691.163E-3	-9.74642E-3	73.7648E-12	687.726E-3	-33.1178E-3
1.98349E-3	72.2575E-12	695.243E-3	5.70515E-3	73.5791E-12	694.133E-3	-34.2543E-3
1.97849E-3	72.0850E-12	690.582E-3	-5.73240E-3	73.3530E-12	689.514E-3	-33.6301E-3
1.97349E-3	71.8594E-12	684.554E-3	-26.6236E-3	73.5333E-12	680.579E-3	-25.3535E-3
1.96848E-3	71.9082E-12	684.246E-3	-18.9342E-3	73.2800E-12	686.209E-3	-26.9692E-3
1.96348E-3	71.9731E-12	678.238E-3	-8.40247E-3	73.3572E-12	709.700E-3	-36.2902E-3
1.95848E-3	72.0813E-12	680.867E-3	-19.2328E-3	73.1933E-12	737.199E-3	-36.4385E-3
1.95348E-3	72.0406E-12	707.942E-3	-29.4493E-3	73.2485E-12	741.713E-3	-34.0239E-3
1.94847E-3	72.2354E-12	728.916E-3	-38.7030E-3	72.8345E-12	724.026E-3	-18.8815E-3
1.94347E-3	71.9912E-12	739.621E-3	-48.3636E-3	72.4310E-12	716.670E-3	7.60720E-3
1.93847E-3	72.0596E-12	741.730E-3	-26.4778E-3	72.1584E-12	720.381E-3	7.18478E-3
1.93347E-3	71.9201E-12	724.506E-3	-4.20478E-3	71.9201E-12	715.388E-3	-12.2718E-3
1.92846E-3	71.8623E-12	715.559E-3	-11.1839E-3	71.4782E-12	701.445E-3	-10.8647E-3
1.92346E-3	71.4903E-12	729.239E-3	-6.34249E-3	70.5161E-12	695.391E-3	-9.27577E-3
1.91846E-3	71.1811E-12	731.801E-3	5.43300E-3	69.9946E-12	698.880E-3	-15.4909E-3
1.91346E-3	70.8278E-12	725.932E-3	8.47635E-3	69.8283E-12	700.994E-3	8.23398E-3
1.90845E-3	70.6851E-12	731.943E-3	1.84190E-3	69.3541E-12	710.038E-3	27.1535E-3
1.90345E-3	70.1875E-12	725.117E-3	-14.5107E-3	68.8855E-12	715.472E-3	11.9011E-3
1.89845E-3	69.7601E-12	716.300E-3	-23.7636E-3	68.4646E-12	717.395E-3	-5.30675E-3
1.89345E-3	69.5969E-12	727.366E-3	-20.1313E-3	68.7949E-12	735.387E-3	-16.3741E-3
1.88844E-3	69.4378E-12	723.967E-3	-14.7741E-3	68.7885E-12	748.854E-3	-18.0498E-3
1.88344E-3	69.1699E-12	714.357E-3	-21.6254E-3	68.7694E-12	740.130E-3	-6.08035E-3
1.87844E-3	69.2225E-12	730.241E-3	-34.6066E-3	68.5621E-12	731.912E-3	-911.490E-6
1.87344E-3	69.0757E-12	734.985E-3	-33.6554E-3	68.7845E-12	728.698E-3	-10.8281E-3
1.86843E-3	68.8494E-12	730.723E-3	-23.3366E-3	68.8919E-12	732.896E-3	-12.8255E-3
1.86343E-3	68.4999E-12	741.030E-3	-12.2656E-3	68.7034E-12	750.374E-3	-8.72424E-3
1.85843E-3	68.2827E-12	743.511E-3	-5.93393E-3	68.2126E-12	752.995E-3	-23.9643E-3
1.85343E-3	68.1611E-12	738.154E-3	-19.9947E-3	68.0574E-12	732.604E-3	-26.6508E-3
1.84842E-3	68.0458E-12	744.708E-3	-36.1711E-3	67.5544E-12	717.711E-3	-11.4872E-3
1.84342E-3	67.7642E-12	747.694E-3	-33.5848E-3	66.9825E-12	721.091E-3	-11.1903E-3
1.83842E-3	67.2208E-12	731.838E-3	-22.9500E-3	66.3862E-12	729.650E-3	-7.63990E-3
1.83342E-3	67.2843E-12	731.182E-3	-13.9755E-3	65.9984E-12	740.231E-3	-4.10054E-3
1.82841E-3	66.8564E-12	745.862E-3	-4.14219E-3	65.6537E-12	734.054E-3	-17.5541E-3
1.82341E-3	66.6448E-12	751.789E-3	-385.201E-6	64.9881E-12	716.968E-3	-27.9568E-3
1.81841E-3	66.0309E-12	756.567E-3	-10.7981E-3	64.6143E-12	729.190E-3	-23.1514E-3
1.81341E-3	65.6969E-12	754.969E-3	-12.0218E-3	64.2702E-12	756.090E-3	-24.2848E-3
1.80840E-3	65.3127E-12	754.193E-3	999.748E-6	63.7475E-12	764.192E-3	-26.1082E-3
1.80340E-3	65.1190E-12	761.669E-3	4.75537E-3	63.9415E-12	771.662E-3	-13.8228E-3
1.79840E-3	64.7578E-12	756.655E-3	-2.39955E-3	63.7831E-12	786.581E-3	-16.4568E-3
1.79340E-3	64.3281E-12	748.670E-3	-7.57991E-3	63.8573E-12	780.080E-3	-25.8798E-3
1.78839E-3	64.0672E-12	757.017E-3	-6.96498E-3	63.6139E-12	774.436E-3	-10.8625E-3
1.78339E-3	63.7569E-12	772.131E-3	-12.6287E-3	63.5929E-12	783.014E-3	-1.01805E-3
1.77839E-3	63.6967E-12	777.806E-3	-25.1345E-3	63.7326E-12	780.344E-3	-23.4212E-3
1.77339E-3	63.0769E-12	776.437E-3	-37.2635E-3	63.6308E-12	774.119E-3	-49.9733E-3
1.76838E-3	63.0067E-12	766.253E-3	-36.1140E-3	63.6403E-12	775.087E-3	-50.0291E-3
1.76338E-3	62.6103E-12	741.948E-3	-13.3542E-3	63.0343E-12	771.721E-3	-29.6481E-3
1.75838E-3	62.3932E-12	735.545E-3	-5.12382E-3	63.0027E-12	766.330E-3	-7.25032E-3
1.75338E-3	61.9914E-12	756.036E-3	-21.1185E-3	62.4484E-12	774.170E-3	-3.01128E-3
1.74837E-3	61.7348E-12	764.489E-3	-28.3276E-3	62.0769E-12	779.357E-3	-13.5294E-3
1.74337E-3	61.3979E-12	764.534E-3	-35.6671E-3	61.3757E-12	776.862E-3	-10.1473E-3
1.73837E-3	61.0745E-12	773.700E-3	-47.5399E-3	61.3157E-12	782.220E-3	4.21147E-3
1.73337E-3	61.0837E-12	775.067E-3	-44.1497E-3	61.1039E-12	779.477E-3	-1.32622E-3
1.72836E-3	60.9565E-12	774.464E-3	-32.4170E-3	60.5956E-12	767.318E-3	-20.0485E-3
1.72336E-3	60.5549E-12	785.858E-3	-25.6658E-3	60.3336E-12	776.276E-3	-36.8769E-3
1.71836E-3	60.3301E-12	795.353E-3	-24.0655E-3	59.9184E-12	791.012E-3	-49.8472E-3
1.71336E-3	60.1805E-12	785.933E-3	-28.8496E-3	60.1934E-12	784.820E-3	-30.0396E-3
1.70835E-3	60.0239E-12	778.056E-3	-31.7304E-3	59.6683E-12	786.125E-3	-8.80630E-3
1.70335E-3	59.7539E-12	784.123E-3	-26.8005E-3	59.6964E-12	805.370E-3	-24.7342E-3
1.69835E-3	59.3019E-12	785.069E-3	-29.5671E-3	59.4537E-12	807.381E-3	-32.4747E-3
1.69335E-3	58.9420E-12	788.479E-3	-33.1858E-3	59.3873E-12	796.637E-3	-17.6065E-3
1.68834E-3	58.7636E-12	794.982E-3	-15.4597E-3	59.0910E-12	790.583E-3	-11.3844E-3
1.68334E-3	58.3922E-12	790.315E-3	-3.75154E-3	58.9194E-12	786.507E-3	-6.45948E-3
1.67834E-3	58.1567E-12	786.349E-3	-18.7590E-3	58.4636E-12	803.704E-3	355.931E-6
1.67334E-3	57.4271E-12	796.207E-3	-27.6221E-3	57.9398E-12	825.038E-3	-14.6297E-3
1.66833E-3	57.3269E-12	798.901E-3	-28.5246E-3	57.6037E-12	818.003E-3	-27.5428E-3
1.66333E-3	57.0673E-12	787.258E-3	-25.4907E-3	57.3533E-12	808.982E-3	-9.07050E-3
1.65833E-3	56.9201E-12	782.657E-3	-13.4073E-3	56.7290E-12	818.862E-3	-8.83077E-3
1.65333E-3	56.5412E-12	798.422E-3	-11.3848E-3	56.4175E-12	821.952E-3	-41.1971E-3
1.64832E-3	56.2463E-12	818.676E-3	-14.1329E-3	56.2127E-12	815.755E-3	-49.9058E-3
1.64332E-3	56.1132E-12	817.984E-3	-3.51066E-3	55.9991E-12	832.340E-3	-36.3685E-3
1.63832E-3	56.1949E-12	810.331E-3	3.96992E-3	56.0058E-12	854.548E-3	-24.3818E-3
1.63332E-3	56.0881E-12	822.719E-3	-2.94371E-3	55.9216E-12	844.297E-3	-6.48365E-3
1.62831E-3	55.9020E-12	847.355E-3	1.87156E-3	55.6536E-12	831.227E-3	2.04428E-3
1.62331E-3	55.9794E-12	847.196E-3	5.69294E-3	55.7455E-12	831.541E-3	-16.4511E-3
1.61831E-3	55.9474E-12	828.695E-3	-5.18593E-3	55.4370E-12	838.297E-3	-36.8920E-3
1.61331E-3	55.7982E-12	832.186E-3	-5.68612E-3	55.1868E-12	859.598E-3	-28.8981E-3
1.60830E-3	55.4356E-12	847.439E-3	3.16094E-3	54.9881E-12	872.876E-3	-11.2979E-3
1.60330E-3	55.2621E-12	851.912E-3	-4.19630E-3	54.8528E-12	871.813E-3	-8.37864E-3
1.59830E-3	55.1383E-12	857.008E-3	-27.4429E-3	54.5793E-12	876.887E-3	-7.18077E-3
1.59330E-3	54.6885E-12	862.016E-3	-28.7337E-3	53.9673E-12	876.486E-3	-2.72021E-3
1.58829E-3	54.2765E-12	873.194E-3	-9.31760E-3	53.6676E-12	855.209E-3	-1.98453E-3
1.58329E-3	53.6749E-12	890.776E-3	-5.49504E-3	53.1761E-12	847.728E-3	-957.502E-6
1.57829E-3	53.2075E-12	886.179E-3	-5.65447E-3	52.9050E-12	857.159E-3	-12.8233E-3
1.57329E-3	52.8244E-12	868.416E-3	-2.13016E-3	52.1520E-12	862.411E-3	-26.6707E-3
1.56828E-3	52.2937E-12	863.579E-3	-19.8857E-3	51.7893E-12	878.202E-3	-15.9954E-3
1.56328E-3	51.7663E-12	865.702E-3	-32.3955E-3	51.2154E-12	888.281E-3	-15.9839E-3
1.55828E-3	51.4182E-12	863.309E-3	-19.2403E-3	51.1042E-12	871.776E-3	-22.3824E-3
1.55328E-3	51.3316E-12	863.423E-3	-12.2169E-3	50.6094E-12	863.851E-3	-17.4729E-3
1.54827E-3	50.9469E-12	864.764E-3	-15.7147E-3	50.3940E-12	877.009E-3	-29.5840E-3
1.54327E-3	50.7785E-12	858.167E-3	-16.3780E-3	50.4095E-12	889.240E-3	-41.4387E-3
1.53827E-3	50.4762E-12	864.726E-3	-21.9899E-3	50.2413E-12	890.656E-3	-32.5029E-3
1.53327E-3	50.4325E-12	877.758E-3	-20.5112E-3	49.9701E-12	885.897E-3	-13.6916E-3
1.52826E-3	50.3113E-12	876.805E-3	-17.0813E-3	49.9913E-12	891.467E-3	2.68649E-3
1.52326E-3	49.9379E-12	879.309E-3	-33.1982E-3	49.9541E-12	895.363E-3	8.58983E-3
1.51826E-3	49.6974E-12	873.631E-3	-34.3066E-3	49.7315E-12	889.043E-3	-6.99175E-3
1.51326E-3	49.4215E-12	853.925E-3	-5.81075E-3	49.2690E-12	881.847E-3	-32.1038E-3
1.50825E-3	49.1168E-12	865.716E-3	7.30244E-3	49.0557E-12	879.291E-3	-37.1008E-3
1.50325E-3	48.8623E-12	887.536E-3	-1.98083E-3	48.8035E-12	885.840E-3	-23.3466E-3
1.49825E-3	48.5208E-12	879.412E-3	-8.14630E-3	48.2553E-12	876.446E-3	-14.8398E-3
1.49325E-3	47.9753E-12	882.599E-3	-13.8751E-3	47.4706E-12	860.407E-3	-12.6744E-3
1.48824E-3	47.5124E-12	907.910E-3	-15.2594E-3	47.1539E-12	866.572E-3	-15.0886E-3
1.48324E-3	47.0686E-12	917.627E-3	-9.36205E-3	46.6092E-12	868.129E-3	-30.5070E-3
1.47824E-3	46.7430E-12	894.747E-3	-10.4183E-3	46.1448E-12	855.543E-3	-27.3797E-3
1.47324E-3	46.0808E-12	867.703E-3	-17.2370E-3	45.6365E-12	861.737E-3	-3.61730E-3
1.46823E-3	45.6962E-12	867.056E-3	-16.1355E-3	45.5124E-12	878.255E-3	1.06419E-3
1.46323E-3	45.3814E-12	876.492E-3	-11.7967E-3	45.3802E-12	876.335E-3	-4.22290E-3
1.45823E-3	45.1287E-12	879.087E-3	-15.5867E-3	44.9896E-12	874.997E-3	1.12770E-3
1.45323E-3	44.8737E-12	873.335E-3	-25.5010E-3	44.8760E-12	881.162E-3	-1.27456E-3
1.44822E-3	44.4228E-12	858.469E-3	-30.9974E-3	44.9277E-12	882.059E-3	-12.0156E-3
1.44322E-3	44.3604E-12	855.056E-3	-28.0387E-3	44.6994E-12	891.256E-3	-9.58500E-3
1.43822E-3	44.3605E-12	863.814E-3	-23.7445E-3	44.6811E-12	903.025E-3	-14.4868E-3
1.43322E-3	44.2160E-12	868.950E-3	-20.7828E-3	44.6491E-12	894.699E-3	-25.9997E-3
1.42821E-3	43.9204E-12	874.931E-3	-17.2392E-3	44.6037E-12	881.169E-3	-14.2621E-3
1.42321E-3	43.7694E-12	883.182E-3	-11.3835E-3	44.3617E-12	875.446E-3	908.281E-6
1.41821E-3	43.5691E-12	887.410E-3	-7.19724E-3	44.0363E-12	867.913E-3	-2.42038E-3
1.41321E-3	43.3606E-12	885.005E-3	-5.70837E-3	43.5916E-12	860.300E-3	-14.2863E-3
1.40820E-3	43.1044E-12	879.330E-3	-7.99729E-3	43.3769E-12	846.463E-3	-16.9381E-3
1.40320E-3	42.7329E-12	880.735E-3	-17.8187E-3	42.8118E-12	821.728E-3	-12.5708E-3
1.39820E-3	42.5085E-12	884.059E-3	-24.2558E-3	42.3375E-12	809.710E-3	-16.0988E-3
1.39320E-3	42.1333E-12	873.684E-3	-18.2041E-3	41.9019E-12	814.482E-3	-22.2011E-3
1.38819E-3	41.7768E-12	870.391E-3	-16.6166E-3	41.6704E-12	821.818E-3	-27.8448E-3
1.38319E-3	41.5118E-12	878.820E-3	-29.4140E-3	41.4537E-12	825.678E-3	-22.8646E-3
1.37819E-3	41.0304E-12	879.178E-3	-27.9434E-3	41.0376E-12	828.740E-3	-9.45144E-3
1.37319E-3	40.6956E-12	866.433E-3	-13.1943E-3	40.9041E-12	826.805E-3	-14.4909E-3
1.36818E-3	40.5093E-12	853.342E-3	-20.8514E-3	40.6465E-12	821.652E-3	-18.1461E-3
1.36318E-3	40.1793E-12	852.120E-3	-36.7908E-3	40.3256E-12	823.319E-3	-10.4529E-3
1.35818E-3	39.8830E-12	845.293E-3	-26.8790E-3	40.0598E-12	819.960E-3	-19.4714E-3
1.35318E-3	39.6473E-12	831.531E-3	-10.6517E-3	39.9378E-12	805.200E-3	-18.0567E-3
1.34817E-3	39.4987E-12	822.788E-3	-10.9912E-3	39.9011E-12	797.837E-3	1.59220E-3
1.34317E-3	39.3726E-12	812.708E-3	-9.71468E-3	39.4737E-12	784.039E-3	-4.30997E-3
1.33817E-3	39.1542E-12	799.059E-3	-2.31677E-3	39.2732E-12	753.645E-3	-21.4731E-3
1.33317E-3	38.8599E-12	789.324E-3	-1.48656E-3	39.0572E-12	743.749E-3	-23.5631E-3
1.32816E-3	38.6904E-12	781.455E-3	-6.78639E-3	38.8280E-12	749.046E-3	-30.5250E-3
1.32316E-3	38.5913E-12	774.907E-3	-21.0328E-3	38.1299E-12	737.792E-3	-35.2706E-3
1.31816E-3	38.4675E-12	778.010E-3	-36.3771E-3	37.8827E-12	719.131E-3	-22.9667E-3
1.31316E-3	38.1523E-12	778.307E-3	-32.6596E-3	37.5155E-12	704.454E-3	-14.9615E-3
1.30815E-3	37.8664E-12	766.916E-3	-25.1310E-3	37.1385E-12	683.254E-3	-10.3187E-3
1.30315E-3	37.9045E-12	753.604E-3	-23.5267E-3	36.8061E-12	673.913E-3	-6.25267E-3
1.29815E-3	37.6817E-12	742.897E-3	-15.7137E-3	36.3619E-12	684.576E-3	-16.0733E-3
1.29315E-3	37.2771E-12	723.693E-3	-13.8910E-3	36.1028E-12	673.029E-3	-21.1303E-3
1.28814E-3	36.9091E-12	709.875E-3	-20.3200E-3	36.0002E-12	651.128E-3	-12.8043E-3
1.28314E-3	36.5831E-12	711.921E-3	-16.5588E-3	35.9082E-12	652.777E-3	-19.0970E-3
1.27814E-3	36.4042E-12	701.351E-3	-15.7750E-3	35.7690E-12	648.388E-3	-32.3596E-3
1.27314E-3	36.0805E-12	685.767E-3	-25.3155E-3	35.8266E-12	634.681E-3	-32.0318E-3
1.26813E-3	35.6168E-12	680.717E-3	-23.2216E-3	35.6671E-12	625.746E-3	-25.8968E-3
1.26313E-3	35.4678E-12	667.347E-3	-11.8617E-3	35.4836E-12	609.299E-3	-14.1058E-3
1.25813E-3	35.2586E-12	652.424E-3	-6.49791E-3	35.2993E-12	596.815E-3	6.21329E-3
1.25313E-3	34.8174E-12	639.705E-3	-11.9567E-3	35.0347E-12	591.210E-3	2.37082E-3
1.24812E-3	34.7112E-12	622.446E-3	-26.8542E-3	34.7701E-12	567.883E-3	-30.5352E-3
1.24312E-3	34.3820E-12	610.308E-3	-41.4558E-3	34.3653E-12	538.273E-3	-43.6107E-3
1.23812E-3	34.2750E-12	597.245E-3	-36.4032E-3	34.2047E-12	538.349E-3	-46.1899E-3
1.23312E-3	34.0470E-12	587.357E-3	-18.9173E-3	33.9664E-12	541.935E-3	-44.5452E-3
1.22811E-3	33.8292E-12	588.369E-3	-11.6369E-3	33.6162E-12	521.566E-3	-24.2418E-3
1.22311E-3	33.6188E-12	578.819E-3	-10.1459E-3	33.2569E-12	504.564E-3	-19.3778E-3
1.21811E-3	33.4167E-12	552.009E-3	-4.90560E-3	33.1365E-12	494.357E-3	-28.5599E-3
1.21311E-3	33.2848E-12	541.042E-3	-10.4319E-3	33.0196E-12	482.229E-3	-21.7661E-3
1.20810E-3	33.2962E-12	552.187E-3	-19.3596E-3	32.7941E-12	476.779E-3	-11.3783E-3
1.20310E-3	33.2086E-12	551.933E-3	-18.4552E-3	32.8420E-12	473.706E-3	-14.5832E-3
1.19810E-3	33.0543E-12	528.131E-3	-16.6556E-3	32.8136E-12	465.684E-3	-15.0879E-3
1.19310E-3	32.9228E-12	500.214E-3	-9.53470E-3	32.8921E-12	466.406E-3	-6.44365E-3
1.18809E-3	32.9206E-12	482.993E-3	-7.41008E-3	32.8586E-12	464.024E-3	-22.5792E-3
1.18309E-3	32.7985E-12	475.335E-3	-20.6667E-3	32.8121E-12	439.483E-3	-39.8345E-3
1.17809E-3	32.3824E-12	476.644E-3	-27.1712E-3	32.7997E-12	420.310E-3	-19.5823E-3
1.17309E-3	32.1720E-12	475.264E-3	-19.3551E-3	32.8697E-12	415.638E-3	-8.04706E-3
1.16808E-3	32.0147E-12	457.884E-3	-18.3172E-3	32.6203E-12	403.581E-3	-9.84488E-3
1.16308E-3	31.8760E-12	440.520E-3	-25.2764E-3	32.4513E-12	398.188E-3	4.10832E-3
1.15808E-3	31.6214E-12	434.082E-3	-25.7374E-3	32.2405E-12	399.589E-3	8.69946E-3
1.15308E-3	31.4810E-12	417.775E-3	-21.2113E-3	32.1207E-12	379.706E-3	-5.71026E-3
1.14807E-3	31.3608E-12	390.420E-3	-23.6198E-3	31.6542E-12	359.621E-3	-14.9754E-3
1.14307E-3	31.3642E-12	375.929E-3	-29.7579E-3	31.4723E-12	356.540E-3	-12.7302E-3
1.13807E-3	31.0577E-12	368.549E-3	-27.3827E-3	31.3586E-12	344.836E-3	-12.4986E-3
1.13307E-3	30.9437E-12	356.466E-3	-25.2384E-3	31.0351E-12	319.056E-3	-7.92518E-3
1.12806E-3	30.9436E-12	352.211E-3	-24.6211E-3	30.8649E-12	310.611E-3	-3.84884E-3
1.12306E-3	30.6775E-12	354.929E-3	-18.7460E-3	30.7891E-12	307.368E-3	-17.4355E-3
1.11806E-3	30.8075E-12	350.820E-3	-21.3975E-3	30.8505E-12	282.475E-3	-14.6750E-3
1.11306E-3	30.6629E-12	340.523E-3	-28.6242E-3	30.7631E-12	269.956E-3	504.325E-6
1.10805E-3	30.6151E-12	325.731E-3	-23.2321E-3	30.6443E-12	271.005E-3	-11.1399E-3
1.10305E-3	30.6027E-12	315.874E-3	-14.1788E-3	30.6782E-12	258.968E-3	-17.9061E-3
1.09805E-3	30.5590E-12	310.935E-3	-3.04886E-3	30.5964E-12	254.366E-3	-13.7770E-3
1.09305E-3	30.5711E-12	290.608E-3	6.70571E-3	30.5520E-12	257.559E-3	-21.1035E-3
1.08804E-3	30.6310E-12	273.252E-3	-666.155E-6	30.4137E-12	250.241E-3	-21.7584E-3
1.08304E-3	30.3981E-12	273.108E-3	-6.46326E-3	30.4122E-12	249.839E-3	-21.4244E-3
1.07804E-3	30.3112E-12	265.375E-3	-2.55742E-3	30.3379E-12	250.883E-3	-36.1606E-3
1.07304E-3	30.2179E-12	257.340E-3	-8.97062E-3	30.1313E-12	238.779E-3	-34.1413E-3
1.06803E-3	30.0907E-12	258.577E-3	-19.3615E-3	29.9273E-12	229.782E-3	-12.3641E-3
1.06303E-3	29.8198E-12	252.089E-3	-25.7108E-3	29.6650E-12	221.009E-3	-12.8823E-3
1.05803E-3	29.6900E-12	239.905E-3	-37.6207E-3	29.5895E-12	203.425E-3	-12.9505E-3
1.05303E-3	29.5479E-12	235.647E-3	-52.1961E-3	29.2463E-12	194.328E-3	2.13211E-3
1.04802E-3	29.5471E-12	228.563E-3	-52.6676E-3	29.1427E-12	198.729E-3	-11.9165E-3
1.04302E-3	29.4261E-12	213.297E-3	-41.1270E-3	29.1482E-12	198.192E-3	-34.0924E-3
1.03802E-3	29.2663E-12	210.495E-3	-34.4379E-3	29.1023E-12	194.601E-3	-39.0168E-3
1.03302E-3	29.0882E-12	214.277E-3	-24.6659E-3	28.8753E-12	194.034E-3	-47.7420E-3
1.02801E-3	29.1825E-12	206.255E-3	-9.16949E-3	28.9567E-12	180.556E-3	-43.6926E-3
1.02301E-3	28.9574E-12	194.997E-3	-10.3423E-3	28.8719E-12	169.122E-3	-15.6300E-3
1.01801E-3	28.9384E-12	191.298E-3	-22.1986E-3	28.9605E-12	169.961E-3	-2.88657E-3
1.01301E-3	28.9452E-12	183.992E-3	-24.2437E-3	28.9859E-12	159.867E-3	-12.0539E-3
1.00800E-3	29.0935E-12	172.543E-3	-22.2290E-3	29.0444E-12	155.154E-3	-6.04974E-3
1.00300E-3	29.1347E-12	172.165E-3	-20.2252E-3	29.0340E-12	166.446E-3	-8.73814E-3
997.999E-6	29.0885E-12	175.686E-3	-22.5221E-3	28.9246E-12	165.226E-3	-32.0573E-3
992.997E-6	29.1146E-12	174.832E-3	-26.8589E-3	28.7405E-12	155.231E-3	-27.3078E-3
987.994E-6	29.0516E-12	172.223E-3	-20.5015E-3	28.6286E-12	158.676E-3	-10.4041E-3
982.991E-6	29.1002E-12	169.483E-3	-13.8595E-3	28.6028E-12	166.299E-3	-19.3767E-3
977.989E-6	29.0168E-12	167.984E-3	-22.2281E-3	28.4070E-12	164.982E-3	-24.1792E-3
972.986E-6	28.9147E-12	157.776E-3	-28.5348E-3	28.2092E-12	167.909E-3	-16.4523E-3
967.984E-6	28.7446E-12	142.315E-3	-30.7114E-3	28.1351E-12	171.182E-3	-13.4745E-3
962.981E-6	28.5269E-12	140.357E-3	-36.0957E-3	28.0124E-12	168.036E-3	-3.68241E-3
957.979E-6	28.4657E-12	149.129E-3	-19.2445E-3	27.9636E-12	172.252E-3	569.118E-6
952.976E-6	28.2393E-12	156.047E-3	-1.57582E-3	27.7602E-12	160.656E-3	-7.31991E-3
947.974E-6	27.9641E-12	161.444E-3	-9.39164E-3	27.7192E-12	138.394E-3	-1.73364E-3
942.971E-6	27.8732E-12	161.855E-3	-17.8374E-3	27.8369E-12	148.264E-3	5.31791E-3
937.969E-6	27.9384E-12	164.441E-3	-20.5647E-3	27.8863E-12	177.299E-3	-9.10919E-3
932.966E-6	27.8780E-12	172.328E-3	-18.6124E-3	27.9267E-12	187.657E-3	-12.9628E-3
927.964E-6	27.8152E-12	168.972E-3	-1.83272E-3	27.9621E-12	187.680E-3	1.29980E-3
922.961E-6	27.6784E-12	160.529E-3	13.5980E-3	28.0525E-12	198.689E-3	-6.19590E-3
917.959E-6	27.8096E-12	159.616E-3	10.8586E-3	28.0999E-12	203.317E-3	-21.0794E-3
912.956E-6	27.8126E-12	165.666E-3	1.89580E-3	28.1641E-12	200.878E-3	-6.65868E-3
907.954E-6	27.8397E-12	176.837E-3	-14.8994E-3	28.0442E-12	200.655E-3	4.07223E-3
902.951E-6	27.8084E-12	185.712E-3	-33.4607E-3	28.0172E-12	192.505E-3	-8.92803E-3
897.949E-6	27.8607E-12	190.491E-3	-24.7852E-3	27.6994E-12	189.356E-3	-22.0910E-3
892.946E-6	27.9454E-12	197.676E-3	561.061E-6	27.6509E-12	201.377E-3	-35.4680E-3
887.944E-6	27.8883E-12	204.452E-3	4.75720E-3	27.5429E-12	207.959E-3	-36.7244E-3
882.941E-6	27.7847E-12	209.269E-3	2.08708E-3	27.2708E-12	220.222E-3	-15.2214E-3
877.939E-6	27.7801E-12	215.156E-3	6.06534E-3	27.1447E-12	240.742E-3	-3.45406E-3
872.936E-6	27.5981E-12	220.172E-3	-9.52349E-3	27.0972E-12	236.478E-3	-17.0302E-3
867.934E-6	27.3989E-12	230.338E-3	-34.1679E-3	27.1730E-12	223.847E-3	-12.5154E-3
862.931E-6	27.3192E-12	241.730E-3	-30.1165E-3	27.1014E-12	229.961E-3	12.1414E-3
857.929E-6	27.1814E-12	236.970E-3	-11.6809E-3	26.9333E-12	239.310E-3	9.40268E-3
852.926E-6	26.9775E-12	220.502E-3	-10.9922E-3	26.9001E-12	242.814E-3	-4.12343E-3
847.924E-6	26.6786E-12	212.992E-3	-13.0166E-3	27.0004E-12	249.322E-3	-9.18192E-3
842.921E-6	26.4786E-12	219.971E-3	-5.87483E-3	27.0155E-12	255.050E-3	-16.8985E-3
837.919E-6	26.3909E-12	236.997E-3	-7.42685E-3	26.9164E-12	271.328E-3	-13.4125E-3
832.916E-6	26.2168E-12	250.161E-3	-12.7647E-3	26.8315E-12	294.195E-3	-8.57069E-3
827.914E-6	25.9610E-12	243.336E-3	-10.4381E-3	26.7655E-12	293.261E-3	-23.8830E-3
822.911E-6	25.8983E-12	244.819E-3	-13.0597E-3	26.7671E-12	292.150E-3	-23.5595E-3
817.909E-6	25.9905E-12	270.641E-3	-22.0617E-3	26.5360E-12	318.432E-3	-1.42632E-3
812.906E-6	25.8060E-12	279.298E-3	-23.6124E-3	26.2584E-12	330.826E-3	-4.08176E-3
807.904E-6	25.7352E-12	272.674E-3	-22.8511E-3	26.1937E-12	312.435E-3	-9.06350E-3
802.901E-6	25.7678E-12	285.116E-3	-21.5051E-3	25.9927E-12	318.916E-3	4.30980E-3
797.899E-6	25.8674E-12	300.406E-3	-5.72252E-3	25.9522E-12	349.489E-3	-12.2146E-3
792.896E-6	25.7226E-12	311.213E-3	4.03089E-3	25.7704E-12	350.212E-3	-34.5142E-3
787.894E-6	25.6719E-12	328.788E-3	-9.21230E-3	25.5463E-12	347.998E-3	-20.0587E-3
782.891E-6	25.5662E-12	336.777E-3	-24.7054E-3	25.4095E-12	377.596E-3	-16.4777E-3
777.889E-6	25.6656E-12	341.093E-3	-23.2034E-3	25.2843E-12	397.071E-3	-19.3586E-3
772.886E-6	25.4418E-12	353.529E-3	-14.9476E-3	25.2915E-12	402.621E-3	-8.01397E-3
767.884E-6	25.2772E-12	360.209E-3	-15.5740E-3	25.0919E-12	416.968E-3	-18.1316E-3
762.881E-6	25.2137E-12	359.667E-3	-23.1398E-3	25.0694E-12	419.925E-3	-32.3512E-3
757.879E-6	25.1165E-12	365.291E-3	-17.7733E-3	25.0423E-12	418.269E-3	-22.2869E-3
752.876E-6	24.9194E-12	376.814E-3	-2.54635E-3	24.9479E-12	425.340E-3	-15.4033E-3
747.874E-6	24.7163E-12	384.588E-3	-10.3497E-3	24.8277E-12	428.661E-3	-34.2565E-3
742.871E-6	24.6438E-12	403.474E-3	-22.5101E-3	24.5613E-12	444.158E-3	-43.5111E-3
737.869E-6	24.3607E-12	429.033E-3	-16.7648E-3	24.3856E-12	476.969E-3	-27.3857E-3
732.866E-6	24.1174E-12	434.851E-3	-9.97722E-3	24.2114E-12	485.435E-3	-14.9591E-3
727.864E-6	23.9981E-12	435.490E-3	-13.5298E-3	23.9976E-12	479.804E-3	-7.49735E-3
722.861E-6	23.9225E-12	453.559E-3	-14.7948E-3	23.6940E-12	507.555E-3	-9.67904E-3
717.859E-6	23.5586E-12	463.531E-3	-7.16755E-3	23.3993E-12	536.343E-3	-25.0122E-3
712.856E-6	23.2992E-12	455.005E-3	-8.16854E-3	23.2374E-12	535.694E-3	-28.5784E-3
707.854E-6	23.2897E-12	470.971E-3	-12.2839E-3	22.9704E-12	541.246E-3	-25.3272E-3
702.851E-6	23.1629E-12	501.905E-3	-12.3196E-3	22.7813E-12	553.488E-3	-31.1264E-3
697.849E-6	22.9222E-12	515.368E-3	-22.2726E-3	22.5194E-12	554.505E-3	-22.6001E-3
692.846E-6	22.7792E-12	522.889E-3	-29.3391E-3	22.3311E-12	562.870E-3	-5.65595E-3
687.844E-6	22.5635E-12	523.144E-3	-20.3384E-3	22.2996E-12	578.575E-3	-5.80957E-3
682.841E-6	22.5675E-12	518.378E-3	-12.0552E-3	22.1400E-12	587.821E-3	-649.004E-6
677.839E-6	22.2814E-12	525.321E-3	-11.2345E-3	22.0026E-12	604.582E-3	8.20208E-3
672.836E-6	22.0423E-12	542.244E-3	-12.1136E-3	21.9147E-12	633.251E-3	-9.43604E-3
667.834E-6	21.8874E-12	560.001E-3	-20.8134E-3	21.7803E-12	650.434E-3	-33.7419E-3
662.831E-6	21.8348E-12	577.282E-3	-23.6915E-3	21.6631E-12	657.432E-3	-23.2363E-3
657.829E-6	21.6279E-12	591.289E-3	-12.0160E-3	21.4550E-12	665.072E-3	-1.58234E-3
652.826E-6	21.2688E-12	606.370E-3	-8.95873E-3	21.2777E-12	662.612E-3	-5.30694E-3
647.824E-6	21.0769E-12	627.268E-3	-17.4033E-3	21.0109E-12	666.379E-3	-9.82085E-3
642.821E-6	20.9201E-12	645.767E-3	-26.0445E-3	20.8579E-12	678.338E-3	-9.61981E-3
637.819E-6	20.6993E-12	654.934E-3	-28.9575E-3	20.5811E-12	673.425E-3	-19.2042E-3
632.816E-6	20.3715E-12	656.529E-3	-29.2045E-3	20.3109E-12	665.760E-3	-18.6162E-3
627.814E-6	20.2259E-12	655.761E-3	-22.2617E-3	19.9243E-12	679.848E-3	-14.2457E-3
622.811E-6	20.0546E-12	647.240E-3	-10.3621E-3	19.7184E-12	695.464E-3	-18.2456E-3
617.809E-6	19.7250E-12	646.768E-3	-19.4064E-3	19.4531E-12	698.944E-3	-9.31051E-3
612.806E-6	19.4797E-12	666.876E-3	-32.0961E-3	19.2674E-12	718.487E-3	-1.39580E-3
607.804E-6	19.3451E-12	680.484E-3	-23.2764E-3	18.9954E-12	740.679E-3	-11.6343E-3
602.801E-6	19.1008E-12	686.871E-3	-14.5161E-3	18.7227E-12	741.440E-3	-19.3554E-3
597.799E-6	18.6894E-12	698.173E-3	-15.7357E-3	18.6077E-12	751.807E-3	-21.7877E-3
592.796E-6	18.5542E-12	700.105E-3	-13.1327E-3	18.3067E-12	766.999E-3	-27.9197E-3
587.794E-6	18.4148E-12	702.809E-3	-12.0633E-3	18.1922E-12	767.488E-3	-21.8223E-3
582.791E-6	18.1866E-12	725.552E-3	-10.6400E-3	18.0481E-12	771.591E-3	-6.97472E-3
577.789E-6	17.7743E-12	746.135E-3	-7.12692E-3	17.8159E-12	772.217E-3	-7.35748E-3
572.786E-6	17.6125E-12	749.887E-3	-23.5098E-3	17.6399E-12	764.069E-3	-8.55901E-3
567.784E-6	17.3880E-12	750.928E-3	-31.4059E-3	17.4021E-12	778.638E-3	2.25083E-3
562.781E-6	17.0806E-12	747.017E-3	-8.79524E-3	17.0751E-12	800.108E-3	-2.51135E-3
557.779E-6	16.7283E-12	746.748E-3	-5.88050E-3	16.8400E-12	791.062E-3	-14.6291E-3
552.776E-6	16.5319E-12	765.092E-3	-24.5478E-3	16.4975E-12	786.051E-3	-9.77726E-3
547.774E-6	16.3713E-12	787.676E-3	-25.5681E-3	16.2642E-12	801.446E-3	-12.4701E-3
542.771E-6	16.1356E-12	792.202E-3	-23.7745E-3	15.9546E-12	807.084E-3	-24.4828E-3
537.769E-6	15.7124E-12	785.298E-3	-22.9744E-3	15.6619E-12	804.537E-3	-18.6699E-3
532.766E-6	15.5168E-12	787.840E-3	-19.4108E-3	15.3490E-12	804.681E-3	-14.8181E-3
527.764E-6	15.3785E-12	798.967E-3	-20.2429E-3	15.0901E-12	802.471E-3	-27.8387E-3
522.761E-6	14.9751E-12	808.913E-3	-18.6602E-3	14.8322E-12	807.768E-3	-23.6992E-3
517.759E-6	14.6029E-12	806.074E-3	-19.6769E-3	14.4683E-12	816.019E-3	-12.0626E-3
512.756E-6	14.3810E-12	794.534E-3	-19.2926E-3	14.2761E-12	799.747E-3	-15.6931E-3
507.754E-6	14.2205E-12	796.773E-3	-12.2170E-3	14.0971E-12	775.444E-3	-14.2729E-3
502.751E-6	13.8988E-12	803.440E-3	-4.64611E-3	13.8333E-12	775.350E-3	-14.4250E-3
497.749E-6	13.5352E-12	802.275E-3	-18.0289E-3	13.5819E-12	781.979E-3	-23.3864E-3
492.746E-6	13.3477E-12	801.392E-3	-45.7949E-3	13.3282E-12	776.728E-3	-20.6476E-3
487.744E-6	13.0856E-12	797.307E-3	-45.4653E-3	13.0662E-12	774.314E-3	-15.0840E-3
482.741E-6	12.7891E-12	788.026E-3	-20.6175E-3	12.8449E-12	775.589E-3	-23.0169E-3
477.739E-6	12.5075E-12	785.688E-3	-7.52498E-3	12.5476E-12	770.850E-3	-28.1742E-3
472.736E-6	12.3877E-12	792.031E-3	-5.08533E-3	12.2159E-12	770.696E-3	-23.3893E-3
467.734E-6	12.1425E-12	789.744E-3	-7.13192E-3	11.9319E-12	770.994E-3	-30.0028E-3
462.731E-6	11.7538E-12	786.295E-3	-19.0821E-3	11.7109E-12	761.510E-3	-32.5774E-3
457.729E-6	11.6282E-12	787.102E-3	-18.2691E-3	11.4123E-12	767.219E-3	-19.7584E-3
452.726E-6	11.4589E-12	786.810E-3	-897.792E-6	11.2048E-12	779.626E-3	-19.4387E-3
447.724E-6	11.1541E-12	796.131E-3	1.63341E-3	10.9274E-12	775.123E-3	-19.3821E-3
442.721E-6	10.7730E-12	803.840E-3	-8.25410E-3	10.6575E-12	774.957E-3	-13.9804E-3
437.719E-6	10.6437E-12	793.881E-3	-10.5029E-3	10.4667E-12	777.571E-3	-18.6935E-3
432.716E-6	10.4083E-12	784.699E-3	-12.4661E-3	10.2481E-12	758.418E-3	-14.8602E-3
427.714E-6	10.0307E-12	788.404E-3	-14.6553E-3	9.93138E-12	732.381E-3	1.25338E-3
422.711E-6	9.63842E-12	782.255E-3	-16.4060E-3	9.63754E-12	729.926E-3	-4.24326E-3
417.709E-6	9.36260E-12	760.900E-3	-23.6445E-3	9.41947E-12	723.464E-3	-22.0788E-3
412.706E-6	9.25589E-12	742.546E-3	-28.5219E-3	9.29732E-12	712.877E-3	-16.2115E-3
407.704E-6	8.99518E-12	734.592E-3	-20.6944E-3	9.04456E-12	723.886E-3	-7.42893E-3
402.701E-6	8.63953E-12	733.862E-3	-13.7608E-3	8.68542E-12	718.857E-3	-11.0939E-3
397.699E-6	8.42667E-12	728.306E-3	-28.4095E-3	8.54112E-12	692.471E-3	-503.985E-6
392.696E-6	8.28460E-12	714.901E-3	-40.6742E-3	8.35322E-12	671.253E-3	8.59740E-3
387.694E-6	7.99682E-12	694.997E-3	-31.1284E-3	8.06639E-12	650.973E-3	-1.71786E-3
382.691E-6	7.80132E-12	683.598E-3	-14.1845E-3	7.79586E-12	639.318E-3	-7.79913E-3
377.689E-6	7.56720E-12	691.229E-3	-2.64001E-3	7.52643E-12	645.967E-3	-7.46483E-3
372.686E-6	7.45105E-12	693.591E-3	-9.14861E-3	7.36755E-12	636.281E-3	-9.79334E-3
367.684E-6	7.21192E-12	682.492E-3	-23.4850E-3	7.17262E-12	607.818E-3	-4.42054E-3
362.681E-6	6.99908E-12	672.274E-3	-17.0172E-3	6.98273E-12	596.551E-3	1.69453E-3
357.679E-6	6.84430E-12	661.133E-3	-5.48959E-3	6.75089E-12	592.171E-3	-2.17941E-3
352.676E-6	6.57076E-12	644.215E-3	-11.3010E-3	6.56055E-12	574.248E-3	1.17242E-3
347.674E-6	6.31784E-12	635.827E-3	-17.7249E-3	6.35275E-12	569.246E-3	-919.948E-6
342.671E-6	6.19502E-12	625.464E-3	-17.5255E-3	6.14022E-12	572.279E-3	-14.6553E-3
337.669E-6	6.06735E-12	609.369E-3	-22.7422E-3	5.94118E-12	553.744E-3	-10.9395E-3
332.666E-6	5.84032E-12	606.033E-3	-21.0965E-3	5.82024E-12	538.709E-3	-4.67747E-3
327.664E-6	5.52150E-12	604.678E-3	-9.77371E-3	5.58490E-12	526.321E-3	-20.8278E-3
322.661E-6	5.37729E-12	596.174E-3	-16.3777E-3	5.36978E-12	499.500E-3	-25.5037E-3
317.659E-6	5.27285E-12	582.153E-3	-23.0731E-3	5.27343E-12	488.247E-3	-12.4156E-3
312.656E-6	5.07829E-12	558.888E-3	-11.9403E-3	5.06830E-12	494.223E-3	-18.2222E-3
307.654E-6	4.76754E-12	532.520E-3	-8.43297E-3	4.82912E-12	485.883E-3	-17.1805E-3
302.651E-6	4.70134E-12	518.390E-3	-9.11503E-3	4.66802E-12	472.903E-3	866.647E-6
297.649E-6	4.58930E-12	513.484E-3	-6.96440E-3	4.53075E-12	464.803E-3	-9.77304E-3
292.646E-6	4.40812E-12	496.662E-3	-5.95760E-3	4.34901E-12	448.683E-3	-20.2873E-3
287.644E-6	4.17727E-12	483.703E-3	2.64435E-3	4.13630E-12	427.695E-3	3.36912E-3
282.641E-6	4.03383E-12	484.928E-3	11.0705E-3	4.01715E-12	413.106E-3	12.4485E-3
277.639E-6	3.99419E-12	470.432E-3	12.2884E-3	3.95554E-12	401.267E-3	-163.897E-6
272.636E-6	3.81153E-12	451.134E-3	13.6243E-3	3.77438E-12	401.271E-3	-5.48847E-3
267.634E-6	3.61866E-12	443.399E-3	16.8606E-3	3.61576E-12	408.647E-3	-11.4389E-3
262.631E-6	3.46044E-12	434.514E-3	13.9353E-3	3.41698E-12	389.643E-3	-21.7225E-3
257.629E-6	3.36548E-12	423.535E-3	-2.14758E-3	3.34063E-12	362.685E-3	-14.1860E-3
252.626E-6	3.21917E-12	405.259E-3	-14.7914E-3	3.23808E-12	359.224E-3	-3.69749E-3
247.624E-6	3.08178E-12	377.739E-3	-17.6870E-3	3.11290E-12	360.844E-3	-13.2342E-3
242.621E-6	3.01160E-12	364.486E-3	-24.2004E-3	3.05700E-12	348.776E-3	-14.8615E-3
237.619E-6	2.88404E-12	364.973E-3	-23.9631E-3	2.97776E-12	339.640E-3	-5.65009E-3
232.616E-6	2.71219E-12	350.293E-3	-20.1271E-3	2.80532E-12	331.198E-3	-13.3503E-3
227.614E-6	2.56142E-12	326.567E-3	-20.2934E-3	2.58131E-12	311.025E-3	-27.3870E-3
222.611E-6	2.52907E-12	316.584E-3	-15.6393E-3	2.46466E-12	290.999E-3	-25.1196E-3
217.609E-6	2.32092E-12	316.269E-3	-10.2596E-3	2.44036E-12	277.278E-3	-20.5508E-3
212.606E-6	2.21622E-12	314.958E-3	-7.79681E-3	2.27128E-12	268.892E-3	-15.9939E-3
207.604E-6	2.17533E-12	304.099E-3	-2.87473E-3	2.16096E-12	264.990E-3	-8.95460E-3
202.601E-6	2.09853E-12	283.615E-3	3.63899E-3	2.07865E-12	256.722E-3	-14.4503E-3
197.599E-6	1.98383E-12	270.996E-3	-2.32312E-3	1.93798E-12	240.466E-3	-23.4771E-3
192.596E-6	1.80341E-12	272.881E-3	-22.5870E-3	1.83403E-12	243.437E-3	-25.4841E-3
187.594E-6	1.80286E-12	273.812E-3	-30.7462E-3	1.72146E-12	247.313E-3	-29.4068E-3
182.591E-6	1.81045E-12	267.392E-3	-22.5092E-3	1.69521E-12	222.660E-3	-30.2101E-3
177.589E-6	1.67783E-12	257.669E-3	-20.7566E-3	1.65265E-12	209.317E-3	-23.2309E-3
172.586E-6	1.47770E-12	243.870E-3	-19.4004E-3	1.55174E-12	212.150E-3	-21.8074E-3
167.584E-6	1.46090E-12	228.423E-3	-23.2082E-3	1.40001E-12	197.329E-3	-23.4286E-3
162.581E-6	1.47920E-12	222.384E-3	-32.6539E-3	1.38533E-12	182.838E-3	-18.6169E-3
157.579E-6	1.33733E-12	217.432E-3	-21.2128E-3	1.37335E-12	186.212E-3	-18.0775E-3
152.576E-6	1.21166E-12	202.798E-3	-6.28081E-3	1.23971E-12	176.140E-3	-22.0991E-3
147.574E-6	1.19498E-12	194.342E-3	-10.1224E-3	1.10484E-12	157.916E-3	-17.9723E-3
142.571E-6	1.15309E-12	189.872E-3	-11.0784E-3	1.14696E-12	158.119E-3	-17.6257E-3
137.569E-6	1.11909E-12	182.527E-3	-10.3061E-3	1.16501E-12	159.145E-3	-19.9119E-3
132.566E-6	1.02526E-12	182.005E-3	-15.2765E-3	1.00789E-12	161.790E-3	-11.3077E-3
127.564E-6	969.498E-15	184.025E-3	-5.41264E-3	904.033E-15	165.354E-3	-10.8302E-3
122.561E-6	914.496E-15	172.506E-3	-6.74016E-3	881.407E-15	151.099E-3	-19.4904E-3
117.559E-6	841.001E-15	154.395E-3	-21.0042E-3	892.027E-15	140.736E-3	-9.81649E-3
112.556E-6	847.227E-15	150.608E-3	-7.22673E-3	799.986E-15	139.486E-3	8.93501E-3
107.554E-6	799.140E-15	156.688E-3	12.4408E-3	708.764E-15	135.968E-3	14.6945E-3
102.551E-6	664.435E-15	155.524E-3	6.36812E-3	675.762E-15	131.393E-3	9.81232E-3
97.5488E-6	595.457E-15	152.023E-3	-6.23003E-3	670.888E-15	130.665E-3	2.02527E-3
92.5463E-6	633.447E-15	141.689E-3	-17.6612E-3	565.977E-15	130.572E-3	-10.9842E-3
87.5438E-6	599.782E-15	126.530E-3	-30.4025E-3	535.172E-15	123.179E-3	-21.0785E-3
82.5413E-6	517.925E-15	128.731E-3	-26.8513E-3	479.717E-15	114.112E-3	-15.8316E-3
77.5388E-6	425.029E-15	135.257E-3	-15.3967E-3	493.650E-15	99.6963E-3	-15.3207E-3
72.5363E-6	423.913E-15	135.745E-3	-11.8567E-3	412.587E-15	96.7501E-3	-25.8396E-3
67.5338E-6	459.209E-15	135.237E-3	-12.4259E-3	370.874E-15	114.061E-3	-23.8649E-3
62.5313E-6	310.240E-15	119.108E-3	-17.2694E-3	348.692E-15	123.965E-3	-13.0499E-3
57.5288E-6	262.414E-15	97.5439E-3	-20.1737E-3	279.330E-15	112.934E-3	-3.38572E-3
52.5263E-6	238.698E-15	97.7457E-3	-11.8768E-3	217.824E-15	99.8948E-3	-795.855E-6
47.5238E-6	253.878E-15	106.993E-3	-2.31539E-3	277.656E-15	104.501E-3	-12.5807E-3
42.5213E-6	199.670E-15	101.969E-3	-5.69824E-3	197.054E-15	104.931E-3	-20.9631E-3
37.5188E-6	87.8798E-15	99.0044E-3	-16.1525E-3	149.473E-15	92.3435E-3	-11.4908E-3
32.5163E-6	98.4650E-15	106.856E-3	-18.0373E-3	55.9410E-15	94.7409E-3	2.66597E-3
27.5138E-6	120.272E-15	115.087E-3	-17.8336E-3	89.7980E-15	104.716E-3	8.71518E-3
22.5113E-6	-18.2342E-15	127.759E-3	-21.4707E-3	80.3986E-15	108.640E-3	6.81681E-3
17.5088E-6	8.03709E-15	131.598E-3	-18.3563E-3	-23.7448E-15	122.820E-3	-6.34953E-3
12.5063E-6	-50.0248E-15	118.613E-3	-21.6519E-3	-103.910E-15	125.256E-3	-20.2052E-3
7.50375E-6	-94.6763E-15	111.532E-3	-31.5820E-3	-82.8966E-15	114.106E-3	-14.4530E-3
2.50125E-6	-131.978E-15	118.597E-3	-20.8467E-3	-110.519E-15	120.786E-3	-8.62649E-3
-2.50125E-6	-176.097E-15	122.004E-3	-11.6351E-3	-153.244E-15	124.225E-3	-21.4346E-3
-7.50375E-6	-183.718E-15	118.424E-3	-18.5387E-3	-263.639E-15	120.797E-3	-21.0325E-3
-12.5063E-6	-257.980E-15	123.511E-3	-15.0376E-3	-249.156E-15	127.904E-3	-11.6355E-3
-17.5088E-6	-280.746E-15	131.430E-3	-10.7959E-3	-259.105E-15	127.316E-3	-17.0189E-3
-22.5113E-6	-293.695E-15	134.276E-3	-11.2375E-3	-355.514E-15	119.796E-3	-22.3268E-3
-27.5138E-6	-325.485E-15	140.571E-3	-2.66639E-3	-452.866E-15	137.281E-3	-24.5967E-3
-32.5163E-6	-467.244E-15	131.089E-3	-4.73212E-3	-418.450E-15	153.316E-3	-29.3559E-3
-37.5188E-6	-485.415E-15	105.421E-3	-20.5722E-3	-433.482E-15	139.955E-3	-27.1025E-3
-42.5213E-6	-515.165E-15	104.048E-3	-23.4865E-3	-542.744E-15	138.684E-3	-20.7981E-3
-47.5238E-6	-512.366E-15	126.485E-3	-16.3410E-3	-560.941E-15	148.709E-3	-25.5997E-3
-52.5263E-6	-634.009E-15	141.557E-3	-13.3507E-3	-616.754E-15	148.392E-3	-30.3865E-3
-57.5288E-6	-750.525E-15	147.545E-3	-16.3306E-3	-684.511E-15	157.282E-3	-23.6903E-3
-62.5313E-6	-716.005E-15	144.577E-3	-15.3342E-3	-774.974E-15	172.967E-3	-29.2331E-3
-67.5338E-6	-785.359E-15	140.663E-3	-13.8981E-3	-762.802E-15	166.503E-3	-40.2632E-3
-72.5363E-6	-841.537E-15	151.208E-3	-20.3006E-3	-801.228E-15	156.625E-3	-37.8102E-3
-77.5388E-6	-934.947E-15	153.472E-3	-22.4746E-3	-915.913E-15	171.468E-3	-40.3577E-3
-82.5413E-6	-976.216E-15	139.679E-3	-16.5879E-3	-967.976E-15	185.443E-3	-36.1328E-3
-87.5438E-6	-990.001E-15	144.793E-3	-4.70855E-3	-1.00203E-12	196.614E-3	-15.6445E-3
-92.5463E-6	-1.10977E-12	166.150E-3	-301.313E-6	-1.03047E-12	206.558E-3	-7.69761E-3
-97.5488E-6	-1.18669E-12	174.873E-3	-16.1756E-3	-1.19722E-12	203.121E-3	-20.9002E-3
-102.551E-6	-1.20879E-12	178.057E-3	-31.3187E-3	-1.26680E-12	216.924E-3	-21.0958E-3
-107.554E-6	-1.29831E-12	186.243E-3	-27.3496E-3	-1.29018E-12	245.602E-3	-5.27253E-3
-112.556E-6	-1.35092E-12	194.365E-3	-24.2530E-3	-1.31284E-12	247.316E-3	-7.24656E-3
-117.559E-6	-1.41638E-12	198.318E-3	-34.3676E-3	-1.46013E-12	238.598E-3	-14.9976E-3
-122.561E-6	-1.50175E-12	203.037E-3	-31.9839E-3	-1.59418E-12	259.032E-3	-20.0707E-3
-127.564E-6	-1.61231E-12	217.720E-3	-24.0675E-3	-1.63514E-12	280.784E-3	-19.8370E-3
-132.566E-6	-1.67339E-12	244.886E-3	-29.7340E-3	-1.64923E-12	284.424E-3	-6.06896E-3
-137.569E-6	-1.73157E-12	268.280E-3	-27.7892E-3	-1.79232E-12	290.590E-3	-10.2505E-3
-142.571E-6	-1.83961E-12	274.150E-3	-22.1320E-3	-1.91522E-12	299.149E-3	-38.4499E-3
-147.574E-6	-1.95212E-12	278.920E-3	-25.9770E-3	-1.93686E-12	312.038E-3	-47.2315E-3
-152.576E-6	-2.13072E-12	297.682E-3	-18.2384E-3	-2.04551E-12	334.340E-3	-26.7957E-3
-157.579E-6	-2.14421E-12	306.973E-3	-6.81462E-3	-2.22815E-12	348.979E-3	-9.41851E-3
-162.581E-6	-2.18044E-12	306.896E-3	-15.4916E-3	-2.28363E-12	349.032E-3	-5.90537E-3
-167.584E-6	-2.39690E-12	319.343E-3	-17.1617E-3	-2.39665E-12	367.621E-3	-10.6704E-3
-172.586E-6	-2.55858E-12	335.419E-3	-7.12022E-3	-2.57718E-12	395.820E-3	-19.8597E-3
-177.589E-6	-2.63783E-12	345.444E-3	-14.6118E-3	-2.72514E-12	398.393E-3	-23.7984E-3
-182.591E-6	-2.69905E-12	356.345E-3	-24.7256E-3	-2.80284E-12	412.037E-3	-17.6235E-3
-187.594E-6	-2.90142E-12	369.901E-3	-19.9553E-3	-2.89776E-12	449.407E-3	-12.1277E-3
-192.596E-6	-3.06541E-12	385.361E-3	-20.2947E-3	-3.07848E-12	464.382E-3	-8.29171E-3
-197.599E-6	-3.20618E-12	408.240E-3	-16.7270E-3	-3.30152E-12	466.669E-3	-3.90322E-3
-202.601E-6	-3.29973E-12	424.028E-3	174.186E-6	-3.35442E-12	489.102E-3	-10.8811E-3
-207.604E-6	-3.46870E-12	431.736E-3	-9.88268E-3	-3.47894E-12	514.944E-3	-16.3529E-3
-212.606E-6	-3.64444E-12	455.978E-3	-30.0777E-3	-3.73841E-12	535.906E-3	-9.69354E-3
-217.609E-6	-3.83941E-12	475.723E-3	-20.2748E-3	-3.93710E-12	555.367E-3	-10.4720E-3
-222.611E-6	-4.00409E-12	476.782E-3	-9.58503E-3	-4.00277E-12	566.351E-3	-22.0917E-3
-227.614E-6	-4.15599E-12	502.582E-3	-24.2918E-3	-4.17603E-12	583.072E-3	-18.2289E-3
-232.616E-6	-4.36244E-12	537.099E-3	-37.8334E-3	-4.44638E-12	616.162E-3	-5.56839E-3
-237.619E-6	-4.55589E-12	547.954E-3	-33.7063E-3	-4.67114E-12	638.594E-3	-9.23628E-3
-242.621E-6	-4.79969E-12	559.768E-3	-22.4496E-3	-4.75198E-12	643.520E-3	-10.1084E-3
-247.624E-6	-5.00925E-12	584.837E-3	-6.77987E-3	-4.90750E-12	668.808E-3	-8.61644E-3
-252.626E-6	-5.20437E-12	606.960E-3	-8.13446E-3	-5.24421E-12	700.269E-3	-16.5639E-3
-257.629E-6	-5.35974E-12	618.558E-3	-18.8919E-3	-5.49253E-12	724.619E-3	-11.3652E-3
-262.631E-6	-5.64709E-12	634.048E-3	-2.33907E-3	-5.63862E-12	772.134E-3	-1.39918E-3
-267.634E-6	-5.90317E-12	655.704E-3	17.9286E-3	-5.87385E-12	807.840E-3	-5.12262E-3
-272.636E-6	-6.09442E-12	682.413E-3	7.94831E-3	-6.24439E-12	809.575E-3	-9.17845E-3
-277.639E-6	-6.34779E-12	722.663E-3	-6.99286E-3	-6.51168E-12	825.283E-3	-11.3656E-3
-282.641E-6	-6.65566E-12	752.530E-3	-9.50631E-3	-6.67184E-12	853.549E-3	-18.5272E-3
-287.644E-6	-6.92949E-12	765.063E-3	-21.5251E-3	-7.01061E-12	871.502E-3	-20.0900E-3
-292.646E-6	-7.13118E-12	786.678E-3	-25.9372E-3	-7.37380E-12	899.122E-3	-12.1879E-3
-297.649E-6	-7.46345E-12	809.701E-3	-15.9720E-3	-7.58426E-12	927.907E-3	-9.72746E-3
-302.651E-6	-7.85557E-12	830.900E-3	-19.1840E-3	-7.74971E-12	938.603E-3	-4.71481E-3
-307.654E-6	-8.15642E-12	858.485E-3	-27.4178E-3	-8.14215E-12	966.177E-3	3.53944E-3
-312.656E-6	-8.40996E-12	880.636E-3	-25.9736E-3	-8.52994E-12	1.01946E+0	-6.70857E-3
-317.659E-6	-8.81659E-12	900.050E-3	-23.8408E-3	-8.71066E-12	1.04814E+0	-20.6554E-3
-322.661E-6	-9.05726E-12	940.666E-3	-27.9618E-3	-9.01939E-12	1.05848E+0	-16.4611E-3
-327.664E-6	-9.43865E-12	980.481E-3	-30.0457E-3	-9.43435E-12	1.07870E+0	-11.9842E-3
-332.666E-6	-9.77248E-12	995.067E-3	-32.4348E-3	-9.85083E-12	1.09329E+0	-20.5921E-3
-337.669E-6	-10.0464E-12	1.01315E+0	-39.3491E-3	-10.0173E-12	1.10194E+0	-11.4222E-3
-342.671E-6	-10.3908E-12	1.03871E+0	-28.5051E-3	-10.3384E-12	1.12206E+0	-2.38281E-3
-347.674E-6	-10.7645E-12	1.05928E+0	-13.6751E-3	-10.8228E-12	1.14084E+0	-17.8004E-3
-352.676E-6	-11.0976E-12	1.08924E+0	-20.1358E-3	-11.2464E-12	1.16025E+0	-22.6578E-3
-357.679E-6	-11.4654E-12	1.12208E+0	-27.1879E-3	-11.3873E-12	1.20331E+0	-20.7071E-3
-362.681E-6	-11.7491E-12	1.12936E+0	-32.8357E-3	-11.7968E-12	1.24508E+0	-21.4518E-3
-367.684E-6	-12.2374E-12	1.13666E+0	-33.0972E-3	-12.3541E-12	1.27177E+0	-14.6983E-3
-372.686E-6	-12.7114E-12	1.17598E+0	-13.5436E-3	-12.9073E-12	1.29391E+0	-12.3925E-3
-377.689E-6	-13.0999E-12	1.21117E+0	-6.30989E-3	-13.1211E-12	1.30687E+0	-29.7072E-3
-382.691E-6	-13.5576E-12	1.22569E+0	-15.7612E-3	-13.6042E-12	1.31649E+0	-34.1322E-3
-387.694E-6	-14.0175E-12	1.24614E+0	-10.9087E-3	-14.1460E-12	1.33475E+0	-9.04593E-3
-392.696E-6	-14.4985E-12	1.27766E+0	-6.63707E-3	-14.5660E-12	1.35448E+0	2.77686E-3
-397.699E-6	-15.0206E-12	1.30804E+0	-14.2435E-3	-14.8578E-12	1.36668E+0	-956.028E-6
-402.701E-6	-15.4859E-12	1.32582E+0	-12.7055E-3	-15.2475E-12	1.38557E+0	-3.04851E-3
-407.704E-6	-15.9078E-12	1.33426E+0	-6.51800E-3	-15.8944E-12	1.40336E+0	-14.7669E-3
-412.706E-6	-16.3466E-12	1.35546E+0	-13.7257E-3	-16.2706E-12	1.40119E+0	-15.2789E-3
-417.709E-6	-16.7979E-12	1.38208E+0	-18.5588E-3	-16.5176E-12	1.40832E+0	-2.06495E-3
-422.711E-6	-17.2948E-12	1.40115E+0	-13.2864E-3	-17.0661E-12	1.43727E+0	-5.60236E-3
-427.714E-6	-17.7011E-12	1.42410E+0	-23.7191E-3	-17.6629E-12	1.46695E+0	-17.4524E-3
-432.716E-6	-18.1492E-12	1.45260E+0	-40.6367E-3	-17.9923E-12	1.48877E+0	-12.4298E-3
-437.719E-6	-18.5989E-12	1.46523E+0	-41.0247E-3	-18.2534E-12	1.50135E+0	415.580E-6
-442.721E-6	-19.0135E-12	1.45439E+0	-31.3739E-3	-18.9176E-12	1.50816E+0	3.73803E-3
-447.724E-6	-19.5934E-12	1.46283E+0	-23.3259E-3	-19.5735E-12	1.52032E+0	3.66922E-3
-452.726E-6	-20.0321E-12	1.49256E+0	-17.7923E-3	-19.9419E-12	1.53521E+0	-11.9106E-3
-457.729E-6	-20.5152E-12	1.50649E+0	-9.48997E-3	-20.3164E-12	1.53714E+0	-32.4499E-3
-462.731E-6	-21.0613E-12	1.51986E+0	-8.17037E-3	-21.1422E-12	1.54676E+0	-18.6194E-3
-467.734E-6	-21.5027E-12	1.54192E+0	-21.0389E-3	-21.8810E-12	1.56947E+0	1.90721E-3
-472.736E-6	-22.1232E-12	1.54811E+0	-38.8310E-3	-22.3546E-12	1.57526E+0	-5.94455E-3
-477.739E-6	-22.5834E-12	1.54527E+0	-43.6201E-3	-22.7902E-12	1.58079E+0	-9.33635E-3
-482.741E-6	-23.1667E-12	1.54860E+0	-21.1785E-3	-23.3535E-12	1.60010E+0	-6.31261E-3
-487.744E-6	-23.6473E-12	1.55288E+0	42.2363E-6	-24.0893E-12	1.59561E+0	-15.1032E-3
-492.746E-6	-24.3669E-12	1.56188E+0	-8.44046E-3	-24.3786E-12	1.57646E+0	-8.77041E-3
-497.749E-6	-24.8560E-12	1.57228E+0	-11.6610E-3	-24.7816E-12	1.58897E+0	5.11288E-3
-502.751E-6	-25.2678E-12	1.57024E+0	-6.05731E-3	-25.4143E-12	1.59771E+0	-3.88429E-3
-507.754E-6	-25.7645E-12	1.57430E+0	-24.3405E-3	-25.8588E-12	1.57579E+0	-11.8759E-3
-512.756E-6	-26.2846E-12	1.59432E+0	-35.7716E-3	-26.1628E-12	1.56020E+0	-4.62029E-3
-517.759E-6	-26.8054E-12	1.59559E+0	-19.2059E-3	-26.5236E-12	1.55780E+0	-8.38041E-3
-522.761E-6	-27.2511E-12	1.58129E+0	-6.55163E-3	-27.2130E-12	1.55834E+0	-15.1737E-3
-527.764E-6	-27.7073E-12	1.58569E+0	-11.0326E-3	-27.6187E-12	1.56438E+0	-14.6452E-3
-532.766E-6	-28.4350E-12	1.59102E+0	-16.6255E-3	-27.8870E-12	1.56238E+0	-18.6486E-3
-537.769E-6	-28.9423E-12	1.57945E+0	-18.1344E-3	-28.2716E-12	1.54188E+0	-26.7418E-3
-542.771E-6	-29.3651E-12	1.57478E+0	-18.2598E-3	-29.0786E-12	1.53492E+0	-39.8997E-3
-547.774E-6	-29.8935E-12	1.58426E+0	-20.4121E-3	-29.4773E-12	1.54778E+0	-44.8494E-3
-552.776E-6	-30.3107E-12	1.58039E+0	-22.4940E-3	-29.7640E-12	1.54213E+0	-30.5370E-3
-557.779E-6	-30.6232E-12	1.56388E+0	-18.3833E-3	-30.3110E-12	1.53141E+0	-11.0908E-3
-562.781E-6	-31.3044E-12	1.56105E+0	-12.6233E-3	-31.3375E-12	1.53465E+0	-5.95718E-3
-567.784E-6	-32.0631E-12	1.56660E+0	-11.9593E-3	-32.1140E-12	1.53153E+0	-13.3972E-3
-572.786E-6	-32.6666E-12	1.55965E+0	-15.8591E-3	-32.7535E-12	1.52844E+0	-11.2739E-3
-577.789E-6	-33.0785E-12	1.53294E+0	-12.0863E-3	-33.3593E-12	1.52785E+0	-9.70981E-3
-582.791E-6	-33.5639E-12	1.51058E+0	-5.47655E-3	-34.1355E-12	1.50576E+0	-19.3585E-3
-587.794E-6	-33.9261E-12	1.50857E+0	-12.2850E-3	-34.6465E-12	1.47509E+0	-17.7451E-3
-592.796E-6	-34.5955E-12	1.50555E+0	-22.7236E-3	-34.9272E-12	1.45861E+0	-14.9908E-3
-597.799E-6	-34.7361E-12	1.48575E+0	-27.0199E-3	-35.4915E-12	1.43167E+0	-28.6807E-3
-602.801E-6	-35.2757E-12	1.46184E+0	-20.7325E-3	-36.0391E-12	1.40616E+0	-26.2246E-3
-607.804E-6	-35.6467E-12	1.45425E+0	-3.54572E-3	-36.3564E-12	1.39756E+0	-10.4368E-3
-612.806E-6	-36.2635E-12	1.45017E+0	-4.46790E-3	-36.5471E-12	1.37410E+0	-19.0930E-3
-617.809E-6	-36.4719E-12	1.43321E+0	-20.6063E-3	-37.0848E-12	1.34293E+0	-26.6043E-3
-622.811E-6	-36.8598E-12	1.41603E+0	-14.6179E-3	-37.6521E-12	1.33256E+0	-22.7194E-3
-627.814E-6	-37.3835E-12	1.39302E+0	73.5385E-6	-37.9400E-12	1.32986E+0	-29.2069E-3
-632.816E-6	-37.9175E-12	1.37357E+0	-3.11478E-3	-38.0559E-12	1.31205E+0	-24.5739E-3
-637.819E-6	-38.3148E-12	1.36893E+0	-6.16648E-3	-38.6065E-12	1.29352E+0	-10.4354E-3
-642.821E-6	-38.7321E-12	1.34997E+0	-3.09104E-3	-39.1521E-12	1.27081E+0	-5.26447E-3
-647.824E-6	-39.4197E-12	1.33263E+0	-10.4260E-3	-39.2299E-12	1.23958E+0	-955.933E-6
-652.826E-6	-39.9785E-12	1.32733E+0	-8.03173E-3	-39.5088E-12	1.22648E+0	-949.114E-6
-657.829E-6	-40.2425E-12	1.29625E+0	5.25860E-3	-40.1255E-12	1.22578E+0	-1.22607E-3
-662.831E-6	-40.7227E-12	1.26263E+0	-5.70072E-3	-40.5506E-12	1.20852E+0	16.3843E-3
-667.834E-6	-41.3588E-12	1.25822E+0	-22.8889E-3	-40.8924E-12	1.18641E+0	18.2808E-3
-672.836E-6	-41.8171E-12	1.25128E+0	-22.8029E-3	-41.4367E-12	1.16410E+0	-16.0666E-3
-677.839E-6	-42.1130E-12	1.23865E+0	-26.8361E-3	-42.0552E-12	1.13472E+0	-37.7148E-3
-682.841E-6	-42.4862E-12	1.23760E+0	-32.3738E-3	-42.3948E-12	1.13057E+0	-30.3274E-3
-687.844E-6	-42.9102E-12	1.22211E+0	-27.4436E-3	-42.6769E-12	1.12177E+0	-28.3307E-3
-692.846E-6	-43.2084E-12	1.18216E+0	-24.8803E-3	-43.2925E-12	1.08029E+0	-32.7368E-3
-697.849E-6	-43.5623E-12	1.15144E+0	-30.7956E-3	-44.0160E-12	1.05470E+0	-21.3865E-3
-702.851E-6	-43.7874E-12	1.13805E+0	-33.3171E-3	-44.4264E-12	1.06191E+0	-15.4979E-3
-707.854E-6	-44.2657E-12	1.12028E+0	-29.9879E-3	-44.8641E-12	1.05713E+0	-23.7836E-3
-712.856E-6	-44.5046E-12	1.10177E+0	-30.7885E-3	-45.2674E-12	1.02136E+0	-27.0071E-3
-717.859E-6	-44.9494E-12	1.08431E+0	-29.2282E-3	-45.9621E-12	988.953E-3	-28.1914E-3
-722.861E-6	-45.3207E-12	1.04940E+0	-23.0402E-3	-46.1407E-12	960.812E-3	-25.2677E-3
-727.864E-6	-45.7340E-12	1.01177E+0	-21.7554E-3	-46.4783E-12	939.508E-3	-17.1187E-3
-732.866E-6	-46.0997E-12	992.043E-3	-14.4790E-3	-46.5646E-12	932.469E-3	-16.2760E-3
-737.869E-6	-46.6452E-12	972.941E-3	-12.0205E-3	-46.8493E-12	906.420E-3	-17.5779E-3
-742.871E-6	-47.1526E-12	955.757E-3	-25.5386E-3	-47.0958E-12	870.363E-3	-3.01862E-3
-747.874E-6	-47.6371E-12	954.368E-3	-18.0200E-3	-47.1074E-12	849.389E-3	4.97519E-3
-752.876E-6	-47.7540E-12	938.036E-3	-11.1916E-3	-47.2255E-12	820.851E-3	-10.2552E-3
-757.879E-6	-48.1022E-12	905.918E-3	-33.9349E-3	-47.2985E-12	792.091E-3	-17.5963E-3
-762.881E-6	-48.4847E-12	888.944E-3	-40.0508E-3	-47.5828E-12	785.239E-3	-18.0407E-3
-767.884E-6	-48.8975E-12	875.063E-3	-28.8453E-3	-47.7460E-12	774.011E-3	-18.2661E-3
-772.886E-6	-48.7152E-12	857.098E-3	-30.7662E-3	-47.9755E-12	739.944E-3	-7.46055E-3
-777.889E-6	-49.0814E-12	830.204E-3	-36.3809E-3	-48.1164E-12	709.351E-3	-3.04125E-3
-782.891E-6	-49.2667E-12	784.611E-3	-25.4144E-3	-48.6861E-12	688.036E-3	-14.1041E-3
-787.894E-6	-49.4867E-12	754.238E-3	-2.58603E-3	-49.0280E-12	672.045E-3	-13.5400E-3
-792.896E-6	-49.3925E-12	748.701E-3	8.72179E-3	-49.4553E-12	669.721E-3	-3.79557E-3
-797.899E-6	-49.6745E-12	738.461E-3	4.07527E-3	-49.7828E-12	657.906E-3	-12.4268E-3
-802.901E-6	-49.6715E-12	711.114E-3	-12.2698E-3	-50.0319E-12	630.465E-3	-31.1812E-3
-807.904E-6	-50.0428E-12	687.568E-3	-15.8518E-3	-50.4379E-12	620.505E-3	-33.3381E-3
-812.906E-6	-50.1327E-12	680.357E-3	4.01165E-3	-51.0000E-12	612.829E-3	-29.1816E-3
-817.909E-6	-50.3823E-12	676.322E-3	10.9411E-3	-51.2657E-12	574.667E-3	-34.5469E-3
-822.911E-6	-50.4559E-12	666.361E-3	-7.61742E-3	-51.3859E-12	551.368E-3	-31.8817E-3
-827.914E-6	-50.9103E-12	637.262E-3	-13.7937E-3	-51.5484E-12	559.200E-3	-24.8422E-3
-832.916E-6	-50.9239E-12	600.952E-3	708.322E-6	-51.7987E-12	549.530E-3	-28.2787E-3
-837.919E-6	-51.2222E-12	584.738E-3	-391.724E-6	-51.9841E-12	523.936E-3	-25.4386E-3
-842.921E-6	-51.5748E-12	572.609E-3	-6.99909E-3	-51.7031E-12	504.278E-3	-26.8257E-3
-847.924E-6	-51.6433E-12	553.665E-3	-7.97156E-3	-51.7042E-12	479.967E-3	-51.0500E-3
-852.926E-6	-51.7924E-12	548.503E-3	-16.2293E-3	-51.5856E-12	456.774E-3	-54.8222E-3
-857.929E-6	-52.0753E-12	536.467E-3	-13.8793E-3	-51.7533E-12	448.016E-3	-38.2395E-3
-862.931E-6	-52.3305E-12	502.321E-3	-9.35160E-3	-51.5313E-12	435.118E-3	-33.7394E-3
-867.934E-6	-52.5229E-12	482.447E-3	-24.7739E-3	-51.7777E-12	413.959E-3	-26.8845E-3
-872.936E-6	-52.4588E-12	480.103E-3	-33.9257E-3	-51.8130E-12	395.695E-3	-22.5150E-3
-877.939E-6	-52.8535E-12	466.058E-3	-15.4491E-3	-52.0504E-12	375.330E-3	-28.7889E-3
-882.941E-6	-52.7929E-12	446.746E-3	4.44272E-3	-52.1512E-12	366.659E-3	-25.2509E-3
-887.944E-6	-52.8649E-12	437.550E-3	4.46594E-3	-52.5378E-12	383.807E-3	-16.5220E-3
-892.946E-6	-52.8837E-12	425.738E-3	598.502E-6	-52.8526E-12	384.319E-3	-20.9501E-3
-897.949E-6	-53.3245E-12	415.179E-3	2.53106E-3	-53.0211E-12	358.858E-3	-21.5487E-3
-902.951E-6	-53.2610E-12	414.283E-3	2.95285E-3	-53.4784E-12	351.736E-3	-12.9166E-3
-907.954E-6	-53.5359E-12	394.603E-3	7.65999E-3	-53.9515E-12	344.382E-3	-12.7918E-3
-912.956E-6	-53.5728E-12	363.357E-3	8.26195E-3	-54.3531E-12	324.452E-3	-10.4078E-3
-917.959E-6	-53.7624E-12	356.658E-3	-9.65963E-3	-54.5479E-12	321.726E-3	-2.57935E-3
-922.961E-6	-53.7738E-12	349.258E-3	-19.9361E-3	-54.6536E-12	316.623E-3	-10.3466E-3
-927.964E-6	-53.9378E-12	321.930E-3	-19.3664E-3	-54.8658E-12	289.598E-3	-23.3897E-3
-932.966E-6	-53.9471E-12	301.354E-3	-26.6865E-3	-54.8431E-12	280.371E-3	-22.5803E-3
-937.969E-6	-53.8658E-12	298.526E-3	-28.1269E-3	-54.7589E-12	290.729E-3	-23.6874E-3
-942.971E-6	-54.0837E-12	302.981E-3	-25.7160E-3	-54.6957E-12	283.440E-3	-23.3900E-3
-947.974E-6	-53.9717E-12	305.328E-3	-24.3041E-3	-54.7713E-12	263.320E-3	-16.1005E-3
-952.976E-6	-54.1211E-12	295.358E-3	-11.8250E-3	-54.4863E-12	252.300E-3	-14.7186E-3
-957.979E-6	-54.2047E-12	279.440E-3	-625.366E-6	-54.3655E-12	252.096E-3	-8.10462E-3
-962.981E-6	-54.3337E-12	281.523E-3	5.32809E-3	-54.4155E-12	248.737E-3	4.33047E-3
-967.984E-6	-54.5105E-12	297.854E-3	12.4886E-3	-54.4986E-12	241.434E-3	-12.7252E-3
-972.986E-6	-54.6393E-12	298.121E-3	-4.14090E-3	-54.4795E-12	228.757E-3	-39.7140E-3
-977.989E-6	-54.9017E-12	281.870E-3	-36.8294E-3	-54.4802E-12	217.937E-3	-34.4229E-3
-982.991E-6	-54.8952E-12	280.621E-3	-39.7425E-3	-54.6902E-12	225.556E-3	-25.7514E-3
-987.994E-6	-54.9870E-12	278.425E-3	-20.4223E-3	-54.7813E-12	224.832E-3	-31.8773E-3
-992.997E-6	-55.2346E-12	261.037E-3	-17.7958E-3	-54.8800E-12	214.121E-3	-22.3258E-3
-997.999E-6	-55.5693E-12	252.478E-3	-22.4094E-3	-54.8368E-12	231.854E-3	-6.50827E-3
-1.00300E-3	-55.5286E-12	240.775E-3	-24.6079E-3	-55.2020E-12	252.857E-3	-14.6267E-3
-1.00800E-3	-55.7315E-12	228.783E-3	-34.4565E-3	-55.3185E-12	251.200E-3	-16.0818E-3
-1.01301E-3	-55.8999E-12	232.538E-3	-27.6006E-3	-55.4783E-12	257.620E-3	-826.006E-6
-1.01801E-3	-56.0972E-12	237.449E-3	-12.1731E-3	-55.5115E-12	264.241E-3	-488.351E-6
-1.02301E-3	-56.1391E-12	242.875E-3	-18.0204E-3	-55.5810E-12	247.818E-3	-10.4485E-3
-1.02801E-3	-55.9617E-12	250.145E-3	-17.1988E-3	-55.6490E-12	230.980E-3	-17.1890E-3
-1.03302E-3	-56.1166E-12	245.963E-3	-1.76379E-3	-55.7786E-12	232.887E-3	-22.4181E-3
-1.03802E-3	-56.0236E-12	240.220E-3	-8.41297E-3	-55.7939E-12	241.037E-3	-18.0434E-3
-1.04302E-3	-55.9391E-12	246.270E-3	-30.2050E-3	-56.0076E-12	247.553E-3	-6.87548E-3
-1.04802E-3	-55.8547E-12	251.419E-3	-34.8931E-3	-55.9477E-12	244.528E-3	-8.79552E-3
-1.05303E-3	-55.9213E-12	243.659E-3	-28.7403E-3	-56.1421E-12	228.718E-3	-10.6803E-3
-1.05803E-3	-55.9325E-12	240.780E-3	-30.1387E-3	-56.3056E-12	226.501E-3	4.05890E-3
-1.06303E-3	-55.8505E-12	251.137E-3	-32.2688E-3	-56.3618E-12	235.506E-3	10.8514E-3
-1.06803E-3	-55.9403E-12	250.919E-3	-32.2822E-3	-56.6093E-12	237.626E-3	3.01350E-3
-1.07304E-3	-55.8454E-12	242.064E-3	-23.9411E-3	-56.6289E-12	257.834E-3	547.302E-6
-1.07804E-3	-56.0162E-12	240.633E-3	-14.7743E-3	-56.5746E-12	288.290E-3	-2.39169E-3
-1.08304E-3	-56.0813E-12	239.475E-3	-27.3009E-3	-56.6377E-12	289.997E-3	-8.70789E-3
-1.08804E-3	-56.4385E-12	238.139E-3	-29.9008E-3	-56.6438E-12	283.203E-3	-3.94451E-3
-1.09305E-3	-56.6727E-12	249.943E-3	-7.06818E-3	-56.9216E-12	290.414E-3	-5.11884E-3
-1.09805E-3	-56.9218E-12	260.665E-3	-491.220E-6	-56.9126E-12	287.511E-3	-22.9358E-3
-1.10305E-3	-57.0513E-12	266.127E-3	-19.9639E-3	-57.0978E-12	283.748E-3	-22.6733E-3
-1.10805E-3	-57.3142E-12	272.466E-3	-21.7341E-3	-56.9703E-12	296.080E-3	-15.5575E-3
-1.11306E-3	-57.6099E-12	261.177E-3	2.63278E-3	-57.0353E-12	302.769E-3	-30.6670E-3
-1.11806E-3	-57.6374E-12	252.285E-3	9.63230E-3	-56.8925E-12	313.191E-3	-35.4642E-3
-1.12306E-3	-57.5031E-12	277.146E-3	-3.79571E-3	-56.9314E-12	323.356E-3	-15.5846E-3
-1.12806E-3	-57.8111E-12	298.525E-3	-7.67637E-3	-56.9461E-12	309.573E-3	-812.762E-6
-1.13307E-3	-57.8944E-12	306.912E-3	-9.21330E-3	-57.0151E-12	305.016E-3	-2.62539E-3
-1.13807E-3	-57.9328E-12	322.380E-3	-26.8625E-3	-57.3586E-12	337.330E-3	-14.5538E-3
-1.14307E-3	-57.7547E-12	325.912E-3	-44.3450E-3	-57.6846E-12	367.796E-3	-23.6714E-3
-1.14807E-3	-57.8708E-12	333.271E-3	-42.8703E-3	-57.6348E-12	367.034E-3	-17.7593E-3
-1.15308E-3	-57.9906E-12	352.910E-3	-24.8127E-3	-57.9873E-12	367.675E-3	-11.7612E-3
-1.15808E-3	-58.0473E-12	355.995E-3	-9.10275E-3	-58.3205E-12	388.772E-3	-20.5260E-3
-1.16308E-3	-58.0096E-12	349.651E-3	-11.4934E-3	-58.4748E-12	404.963E-3	-15.1962E-3
-1.16808E-3	-58.2208E-12	351.860E-3	-19.5044E-3	-58.5996E-12	413.867E-3	361.930E-6
-1.17309E-3	-58.3775E-12	357.159E-3	-22.8269E-3	-58.4984E-12	420.592E-3	-11.7052E-3
-1.17809E-3	-58.2423E-12	360.910E-3	-23.4969E-3	-58.6261E-12	413.278E-3	-32.2763E-3
-1.18309E-3	-58.4468E-12	375.457E-3	-25.4099E-3	-58.8745E-12	412.532E-3	-28.5007E-3
-1.18809E-3	-58.6045E-12	392.203E-3	-35.2855E-3	-58.9034E-12	428.589E-3	-17.2568E-3
-1.19310E-3	-58.7345E-12	398.425E-3	-47.4869E-3	-58.9924E-12	441.516E-3	-16.7534E-3
-1.19810E-3	-58.7214E-12	412.094E-3	-39.8331E-3	-59.1820E-12	457.633E-3	-17.9484E-3
-1.20310E-3	-59.0730E-12	437.519E-3	-20.7762E-3	-59.2182E-12	486.190E-3	-26.9859E-3
-1.20810E-3	-59.2282E-12	449.081E-3	-21.5710E-3	-59.2011E-12	500.962E-3	-26.1145E-3
-1.21311E-3	-59.5106E-12	450.355E-3	-38.6767E-3	-59.2953E-12	502.494E-3	-14.2839E-3
-1.21811E-3	-59.6568E-12	453.372E-3	-43.1725E-3	-59.2924E-12	510.550E-3	-22.4620E-3
-1.22311E-3	-59.7408E-12	457.946E-3	-38.9918E-3	-59.7805E-12	514.952E-3	-34.6428E-3
-1.22811E-3	-60.1149E-12	483.570E-3	-52.7009E-3	-59.8395E-12	524.756E-3	-23.8707E-3
-1.23312E-3	-60.3416E-12	510.973E-3	-55.6343E-3	-60.3808E-12	548.815E-3	-8.07804E-3
-1.23812E-3	-60.4696E-12	510.709E-3	-28.9175E-3	-60.4646E-12	562.060E-3	-9.84283E-3
-1.24312E-3	-60.7773E-12	510.459E-3	-16.3310E-3	-60.7697E-12	566.239E-3	-19.2516E-3
-1.24812E-3	-61.1656E-12	525.207E-3	-22.0703E-3	-60.8587E-12	584.767E-3	-17.9868E-3
-1.25313E-3	-61.2828E-12	536.190E-3	-23.7996E-3	-61.3239E-12	609.306E-3	-17.1846E-3
-1.25813E-3	-61.2159E-12	551.885E-3	-26.2927E-3	-61.4781E-12	619.554E-3	-24.3239E-3
-1.26313E-3	-61.6352E-12	575.916E-3	-25.0522E-3	-61.7071E-12	621.946E-3	-17.6982E-3
-1.26813E-3	-61.8004E-12	587.299E-3	-27.3108E-3	-61.8456E-12	626.247E-3	-15.7391E-3
-1.27314E-3	-62.0028E-12	596.565E-3	-35.6688E-3	-62.2126E-12	632.106E-3	-17.5929E-3
-1.27814E-3	-62.1519E-12	608.964E-3	-35.7878E-3	-62.4113E-12	646.293E-3	-6.89943E-3
-1.28314E-3	-62.3987E-12	607.064E-3	-30.1088E-3	-62.5603E-12	666.597E-3	-15.3834E-3
-1.28814E-3	-62.5735E-12	612.893E-3	-24.7769E-3	-62.6200E-12	677.396E-3	-29.3666E-3
-1.29315E-3	-62.7460E-12	643.772E-3	-25.7945E-3	-63.1935E-12	690.252E-3	-15.3929E-3
-1.29815E-3	-62.7617E-12	663.788E-3	-30.7704E-3	-63.3294E-12	706.899E-3	-8.90189E-3
-1.30315E-3	-63.1731E-12	660.958E-3	-26.2720E-3	-63.6248E-12	710.120E-3	-21.3214E-3
-1.30815E-3	-63.2533E-12	669.340E-3	-13.0485E-3	-63.9132E-12	722.524E-3	-14.2451E-3
-1.31316E-3	-63.7013E-12	692.193E-3	-4.65669E-3	-64.3804E-12	754.255E-3	-12.1520E-3
-1.31816E-3	-63.7732E-12	704.957E-3	-3.71007E-3	-64.8616E-12	775.501E-3	-27.3198E-3
-1.32316E-3	-64.1889E-12	716.934E-3	-5.53806E-3	-65.1668E-12	781.612E-3	-27.8267E-3
-1.32816E-3	-64.3526E-12	733.207E-3	-10.3268E-3	-65.3642E-12	788.307E-3	-22.7671E-3
-1.33317E-3	-64.7638E-12	741.372E-3	-22.5900E-3	-65.6784E-12	784.928E-3	-25.9583E-3
-1.33817E-3	-64.9181E-12	754.102E-3	-27.5812E-3	-65.5275E-12	774.363E-3	-27.5240E-3
-1.34317E-3	-65.5112E-12	770.615E-3	-19.2218E-3	-66.2179E-12	780.586E-3	-26.4090E-3
-1.34817E-3	-65.6813E-12	769.788E-3	-20.4716E-3	-65.9521E-12	802.843E-3	-24.2628E-3
-1.35318E-3	-65.8640E-12	766.674E-3	-20.1712E-3	-66.2000E-12	832.718E-3	-10.3403E-3
-1.35818E-3	-66.3025E-12	779.671E-3	-5.82779E-3	-66.2561E-12	851.270E-3	2.38349E-3
-1.36318E-3	-66.6035E-12	794.019E-3	-368.879E-6	-66.5187E-12	839.110E-3	1.00089E-3
-1.36818E-3	-66.8560E-12	808.704E-3	-12.0607E-3	-66.5172E-12	823.696E-3	-1.71861E-3
-1.37319E-3	-67.0562E-12	823.515E-3	-17.1543E-3	-66.6718E-12	831.727E-3	-1.63502E-3
-1.37819E-3	-67.3519E-12	825.570E-3	-11.6715E-3	-66.8102E-12	844.758E-3	-5.40201E-3
-1.38319E-3	-67.5416E-12	825.902E-3	-23.0558E-3	-67.0632E-12	858.036E-3	-9.68005E-3
-1.38819E-3	-67.4602E-12	840.321E-3	-27.1741E-3	-67.2256E-12	872.423E-3	-9.52769E-3
-1.39320E-3	-67.6122E-12	852.668E-3	-16.1130E-3	-67.6669E-12	879.635E-3	-20.6458E-3
-1.39820E-3	-67.7158E-12	855.639E-3	-17.7150E-3	-68.2069E-12	883.048E-3	-30.2328E-3
-1.40320E-3	-67.9583E-12	862.473E-3	-10.6651E-3	-68.4455E-12	890.982E-3	-21.8325E-3
-1.40820E-3	-68.0919E-12	864.945E-3	2.69600E-3	-68.7959E-12	900.072E-3	-21.9258E-3
-1.41321E-3	-68.1935E-12	859.820E-3	-1.04877E-3	-69.0755E-12	895.663E-3	-18.5833E-3
-1.41821E-3	-68.5639E-12	857.603E-3	-2.65236E-3	-69.9210E-12	895.724E-3	-1.60182E-3
-1.42321E-3	-68.9202E-12	863.501E-3	2.69673E-3	-70.1931E-12	914.327E-3	-11.4956E-3
-1.42821E-3	-69.2709E-12	869.929E-3	1.42529E-3	-70.5377E-12	929.967E-3	-33.6235E-3
-1.43322E-3	-69.4106E-12	878.261E-3	-9.08661E-3	-70.8197E-12	935.784E-3	-22.3559E-3
-1.43822E-3	-69.8896E-12	899.889E-3	-21.2269E-3	-71.0877E-12	934.368E-3	-2.79363E-3
-1.44322E-3	-70.3381E-12	917.571E-3	-30.4243E-3	-71.2825E-12	920.234E-3	-5.12820E-3
-1.44822E-3	-70.5325E-12	926.521E-3	-30.2751E-3	-71.3386E-12	907.197E-3	-15.7720E-3
-1.45323E-3	-70.7655E-12	931.743E-3	-12.3929E-3	-71.2631E-12	909.180E-3	-27.5392E-3
-1.45823E-3	-71.5282E-12	916.239E-3	-3.77443E-3	-71.3013E-12	913.133E-3	-19.6359E-3
-1.46323E-3	-72.0598E-12	904.019E-3	-18.6295E-3	-71.4735E-12	915.454E-3	5.17665E-3
-1.46823E-3	-72.3008E-12	910.644E-3	-21.4097E-3	-71.3814E-12	917.325E-3	12.9195E-3
-1.47324E-3	-72.3005E-12	917.999E-3	-9.90484E-3	-71.4364E-12	916.609E-3	4.83902E-3
-1.47824E-3	-72.9022E-12	921.748E-3	-8.90839E-3	-71.5032E-12	921.492E-3	-2.25966E-3
-1.48324E-3	-73.4664E-12	907.759E-3	-7.22669E-3	-71.8957E-12	933.455E-3	-7.75172E-3
-1.48824E-3	-73.3618E-12	893.355E-3	1.27731E-3	-72.3209E-12	937.526E-3	-12.1314E-3
-1.49325E-3	-73.6300E-12	912.958E-3	4.03662E-3	-72.6842E-12	938.550E-3	-11.1409E-3
-1.49825E-3	-74.0637E-12	942.414E-3	-765.015E-6	-73.0365E-12	951.862E-3	-9.56037E-3
-1.50325E-3	-74.2735E-12	946.136E-3	-14.1687E-3	-73.8190E-12	954.607E-3	-12.7472E-3
-1.50825E-3	-74.3138E-12	941.819E-3	-40.0663E-3	-74.6499E-12	942.961E-3	-13.1791E-3
-1.51326E-3	-74.8026E-12	948.946E-3	-48.9813E-3	-75.0866E-12	939.088E-3	274.048E-6
-1.51826E-3	-75.4002E-12	951.640E-3	-37.3766E-3	-75.5545E-12	935.723E-3	1.40697E-3
-1.52326E-3	-75.6063E-12	943.901E-3	-26.5024E-3	-76.1603E-12	931.545E-3	-15.6816E-3
-1.52826E-3	-75.6933E-12	942.169E-3	-16.9386E-3	-76.7932E-12	942.524E-3	-19.5164E-3
-1.53327E-3	-75.9825E-12	949.033E-3	-11.6373E-3	-77.3964E-12	956.481E-3	-14.4983E-3
-1.53827E-3	-76.5325E-12	939.902E-3	-13.1747E-3	-77.6035E-12	951.446E-3	-9.48917E-3
-1.54327E-3	-76.9581E-12	926.284E-3	-17.0006E-3	-78.1399E-12	942.693E-3	-9.13903E-3
-1.54827E-3	-77.2283E-12	935.609E-3	-16.8199E-3	-78.3354E-12	935.393E-3	-20.8492E-3
-1.55328E-3	-77.6018E-12	946.823E-3	-28.4411E-3	-78.4482E-12	917.801E-3	-26.3121E-3
-1.55828E-3	-78.2996E-12	946.293E-3	-37.6640E-3	-78.4362E-12	906.430E-3	-16.2844E-3
-1.56328E-3	-78.6558E-12	947.454E-3	-5.95192E-3	-78.2004E-12	894.282E-3	-10.6598E-3
-1.56828E-3	-78.7664E-12	949.300E-3	19.6042E-3	-78.1209E-12	879.383E-3	-9.87932E-3
-1.57329E-3	-79.1781E-12	941.257E-3	-3.02493E-3	-78.1804E-12	887.644E-3	-8.05692E-3
-1.57829E-3	-79.7353E-12	927.385E-3	-29.6919E-3	-78.5563E-12	915.534E-3	-10.4070E-3
-1.58329E-3	-80.1331E-12	922.490E-3	-26.5209E-3	-78.5653E-12	926.236E-3	-17.0875E-3
-1.58829E-3	-80.5412E-12	935.290E-3	-4.25383E-3	-78.7728E-12	910.906E-3	-11.6219E-3
-1.59330E-3	-80.7918E-12	936.263E-3	14.5097E-3	-79.0509E-12	905.581E-3	3.28104E-3
-1.59830E-3	-81.0803E-12	910.725E-3	10.0557E-3	-79.6355E-12	910.043E-3	-1.35684E-3
-1.60330E-3	-81.3461E-12	903.285E-3	321.019E-6	-80.1187E-12	909.812E-3	-17.5883E-3
-1.60830E-3	-81.8272E-12	912.275E-3	6.69062E-3	-80.5262E-12	912.319E-3	-30.8670E-3
-1.61331E-3	-82.1460E-12	909.896E-3	5.88277E-3	-80.9508E-12	911.852E-3	-35.4691E-3
-1.61831E-3	-82.0775E-12	919.852E-3	-10.2247E-3	-81.6217E-12	900.822E-3	-18.6538E-3
-1.62331E-3	-82.2400E-12	934.759E-3	-10.2286E-3	-81.9728E-12	893.898E-3	-2.18761E-3
-1.62831E-3	-82.6472E-12	921.635E-3	-214.181E-6	-82.6980E-12	896.713E-3	-3.72632E-3
-1.63332E-3	-82.9757E-12	904.652E-3	-5.56989E-3	-83.2967E-12	899.255E-3	-16.2271E-3
-1.63832E-3	-82.9019E-12	908.592E-3	-10.4746E-3	-83.7079E-12	906.827E-3	-23.3013E-3
-1.64332E-3	-83.0085E-12	911.062E-3	-14.5940E-3	-83.8048E-12	906.859E-3	-18.4761E-3
-1.64832E-3	-83.2216E-12	903.493E-3	-27.9565E-3	-84.0301E-12	891.790E-3	-13.7309E-3
-1.65333E-3	-83.6645E-12	899.890E-3	-38.6514E-3	-84.3354E-12	873.703E-3	-10.7364E-3
-1.65833E-3	-83.8063E-12	898.848E-3	-30.2672E-3	-84.5392E-12	861.187E-3	-13.7786E-3
-1.66333E-3	-84.0913E-12	897.545E-3	-12.4187E-3	-84.7444E-12	862.554E-3	-11.4498E-3
-1.66833E-3	-84.1783E-12	901.223E-3	2.80806E-3	-85.2583E-12	861.476E-3	-2.40962E-3
-1.67334E-3	-84.6732E-12	892.030E-3	9.59066E-3	-85.4275E-12	856.517E-3	-4.33913E-3
-1.67834E-3	-85.1203E-12	875.327E-3	332.310E-6	-85.4351E-12	861.047E-3	-4.82581E-3
-1.68334E-3	-85.4661E-12	874.278E-3	-10.3291E-3	-85.2862E-12	867.168E-3	-2.68084E-3
-1.68834E-3	-85.6636E-12	871.787E-3	-10.4132E-3	-85.6465E-12	858.996E-3	-15.5122E-3
-1.69335E-3	-86.4837E-12	851.992E-3	-13.5469E-3	-85.6572E-12	834.319E-3	-24.7576E-3
-1.69835E-3	-86.7891E-12	837.322E-3	-24.0800E-3	-85.7652E-12	823.755E-3	-13.8677E-3
-1.70335E-3	-87.0434E-12	848.126E-3	-20.0521E-3	-85.5843E-12	844.897E-3	-6.83981E-3
-1.70835E-3	-87.0370E-12	857.122E-3	-14.7104E-3	-86.1789E-12	854.573E-3	-11.0582E-3
-1.71336E-3	-87.5934E-12	851.846E-3	-30.6461E-3	-86.1151E-12	842.842E-3	-13.5730E-3
-1.71836E-3	-87.8906E-12	846.730E-3	-30.7043E-3	-86.6967E-12	847.437E-3	-20.4694E-3
-1.72336E-3	-87.8577E-12	831.947E-3	-11.9641E-3	-87.0179E-12	850.140E-3	-36.2753E-3
-1.72836E-3	-87.8531E-12	820.864E-3	-18.2862E-3	-87.3860E-12	845.571E-3	-33.6129E-3
-1.73337E-3	-88.0042E-12	834.463E-3	-21.6826E-3	-87.9483E-12	854.236E-3	-10.9189E-3
-1.73837E-3	-88.2234E-12	840.458E-3	4.99394E-3	-88.3134E-12	856.360E-3	-8.38181E-3
-1.74337E-3	-88.3191E-12	828.096E-3	11.2526E-3	-88.9262E-12	840.829E-3	-15.8430E-3
-1.74837E-3	-88.5181E-12	822.959E-3	-10.8214E-3	-88.9444E-12	834.319E-3	-10.4872E-3
-1.75338E-3	-88.6775E-12	815.967E-3	-20.6315E-3	-89.7574E-12	842.033E-3	-12.3229E-3
-1.75838E-3	-88.8164E-12	807.111E-3	-22.8472E-3	-90.1251E-12	831.222E-3	-17.9921E-3
-1.76338E-3	-89.5423E-12	819.935E-3	-24.3442E-3	-90.9280E-12	802.147E-3	-18.1809E-3
-1.76838E-3	-89.7519E-12	835.705E-3	-29.9841E-3	-91.0254E-12	785.443E-3	-18.3025E-3
-1.77339E-3	-90.0581E-12	829.947E-3	-36.9925E-3	-91.2844E-12	791.609E-3	-17.7455E-3
-1.77839E-3	-90.1249E-12	832.806E-3	-27.2174E-3	-91.5115E-12	804.277E-3	-15.7758E-3
-1.78339E-3	-90.6826E-12	851.883E-3	-9.81128E-3	-91.4944E-12	807.502E-3	-27.7093E-3
-1.78839E-3	-91.0926E-12	844.361E-3	2.91520E-3	-91.5119E-12	794.051E-3	-44.9054E-3
-1.79340E-3	-91.5064E-12	823.235E-3	6.70001E-3	-91.6103E-12	773.342E-3	-38.7249E-3
-1.79840E-3	-91.4316E-12	808.599E-3	-13.2385E-3	-91.6639E-12	762.389E-3	-29.3367E-3
-1.80340E-3	-92.0400E-12	794.888E-3	-35.2836E-3	-91.3805E-12	758.882E-3	-20.7204E-3
-1.80840E-3	-92.7257E-12	798.680E-3	-29.3885E-3	-91.2187E-12	770.773E-3	-3.55909E-3
-1.81341E-3	-92.7880E-12	810.619E-3	-18.9072E-3	-91.2794E-12	783.854E-3	154.558E-6
-1.81841E-3	-92.5526E-12	807.610E-3	-10.9416E-3	-91.3763E-12	770.936E-3	-7.69300E-3
-1.82341E-3	-92.7979E-12	803.821E-3	-6.67209E-3	-91.3592E-12	768.100E-3	-12.2904E-3
-1.82841E-3	-93.6076E-12	808.150E-3	-5.32758E-3	-91.7653E-12	786.966E-3	-15.9401E-3
-1.83342E-3	-93.8584E-12	800.794E-3	-4.88003E-3	-92.0769E-12	787.635E-3	-21.3740E-3
-1.83842E-3	-93.8927E-12	788.859E-3	-9.46742E-3	-92.5350E-12	779.549E-3	-29.0807E-3
-1.84342E-3	-94.4557E-12	795.410E-3	-10.1468E-3	-92.9530E-12	781.040E-3	-35.9404E-3
-1.84842E-3	-94.7906E-12	795.506E-3	-21.4276E-3	-93.9992E-12	785.177E-3	-36.1137E-3
-1.85343E-3	-95.2794E-12	789.920E-3	-40.6156E-3	-94.5418E-12	792.641E-3	-37.8646E-3
-1.85843E-3	-95.3585E-12	807.650E-3	-33.9867E-3	-95.2848E-12	802.183E-3	-48.9309E-3
-1.86343E-3	-95.5778E-12	808.146E-3	-18.4192E-3	-96.0656E-12	800.443E-3	-45.1117E-3
-1.86843E-3	-95.5401E-12	781.290E-3	-24.0128E-3	-96.6856E-12	800.369E-3	-18.5483E-3
-1.87344E-3	-95.8821E-12	768.779E-3	-26.1619E-3	-97.0240E-12	804.088E-3	4.20161E-3
-1.87844E-3	-96.1575E-12	775.784E-3	-16.9753E-3	-97.4568E-12	794.119E-3	10.4219E-3
-1.88344E-3	-96.0301E-12	785.484E-3	-13.5117E-3	-97.8741E-12	788.573E-3	3.91161E-3
-1.88844E-3	-96.0705E-12	782.629E-3	-6.43390E-3	-98.1148E-12	796.855E-3	-6.69156E-3
-1.89345E-3	-96.5861E-12	775.947E-3	-2.48654E-3	-98.0899E-12	794.713E-3	-11.7693E-3
-1.89845E-3	-97.2805E-12	767.424E-3	-22.7671E-3	-97.7205E-12	771.132E-3	-13.4206E-3
-1.90345E-3	-97.6945E-12	766.486E-3	-39.3441E-3	-97.9209E-12	761.615E-3	-15.5147E-3
-1.90845E-3	-98.0629E-12	769.475E-3	-31.3999E-3	-97.5244E-12	768.842E-3	-15.9692E-3
-1.91346E-3	-98.5450E-12	758.004E-3	-24.3882E-3	-97.5117E-12	765.271E-3	-14.9484E-3
-1.91846E-3	-99.1431E-12	766.982E-3	-23.0132E-3	-97.3352E-12	762.229E-3	-14.1392E-3
-1.92346E-3	-99.6974E-12	779.898E-3	-18.9975E-3	-97.5838E-12	766.459E-3	-22.9061E-3
-1.92846E-3	-99.7617E-12	761.835E-3	-14.0740E-3	-97.9231E-12	761.952E-3	-40.8993E-3
-1.93347E-3	-99.8756E-12	762.169E-3	-10.8038E-3	-98.3256E-12	756.702E-3	-52.3688E-3
-1.93847E-3	-100.087E-12	791.721E-3	-7.90975E-3	-98.8916E-12	758.209E-3	-46.9202E-3
-1.94347E-3	-100.436E-12	790.470E-3	-11.3711E-3	-99.3213E-12	746.580E-3	-33.6141E-3
-1.94847E-3	-100.499E-12	765.372E-3	-27.6020E-3	-99.8427E-12	735.253E-3	-20.1468E-3
-1.95348E-3	-100.454E-12	767.352E-3	-27.9665E-3	-100.116E-12	741.886E-3	-17.1427E-3
-1.95848E-3	-100.603E-12	771.433E-3	-10.2064E-3	-100.575E-12	753.537E-3	-21.5620E-3
-1.96348E-3	-100.892E-12	761.709E-3	-5.96700E-3	-101.189E-12	762.130E-3	-16.7352E-3
-1.96848E-3	-100.850E-12	762.016E-3	-16.6314E-3	-101.563E-12	764.983E-3	-13.4170E-3
-1.97349E-3	-100.514E-12	761.540E-3	-23.7776E-3	-101.790E-12	758.145E-3	-18.7251E-3
-1.97849E-3	-100.695E-12	761.210E-3	-27.8469E-3	-102.142E-12	740.565E-3	-13.9151E-3
-1.98349E-3	-101.199E-12	763.007E-3	-23.9768E-3	-102.291E-12	738.041E-3	-6.24128E-3
-1.98849E-3	-101.556E-12	764.241E-3	-8.39138E-3	-102.244E-12	753.314E-3	-7.92108E-3
-1.99350E-3	-101.723E-12	771.469E-3	-10.4602E-3	-102.317E-12	762.254E-3	-8.18823E-3
-1.99850E-3	-102.015E-12	777.254E-3	-32.3083E-3	-102.204E-12	764.442E-3	-14.9882E-3
-2.00350E-3	-102.521E-12	765.188E-3	-43.2032E-3	-102.103E-12	754.419E-3	-24.5675E-3
-2.00850E-3	-102.774E-12	736.240E-3	-41.7668E-3	-102.480E-12	742.519E-3	-13.6902E-3
-2.01351E-3	-103.008E-12	731.340E-3	-35.9140E-3	-102.260E-12	731.095E-3	1.67758E-3
-2.01851E-3	-103.192E-12	744.268E-3	-18.7990E-3	-102.614E-12	711.795E-3	-6.06921E-3
-2.02351E-3	-103.626E-12	739.029E-3	-6.83214E-3	-102.902E-12	715.069E-3	-22.4172E-3
-2.02851E-3	-104.073E-12	726.914E-3	-8.34447E-3	-102.917E-12	739.782E-3	-31.0857E-3
-2.03352E-3	-104.588E-12	713.175E-3	-25.6311E-3	-103.228E-12	744.564E-3	-26.8228E-3
-2.03852E-3	-104.750E-12	709.907E-3	-43.4856E-3	-103.562E-12	725.137E-3	-1.65387E-3
-2.04352E-3	-105.167E-12	735.107E-3	-32.8629E-3	-103.707E-12	710.971E-3	18.7333E-3
-2.04852E-3	-104.847E-12	759.889E-3	-15.1134E-3	-103.897E-12	717.225E-3	17.2199E-3
-2.05353E-3	-104.911E-12	749.420E-3	-19.9930E-3	-104.280E-12	733.137E-3	17.8209E-3
-2.05853E-3	-105.206E-12	728.105E-3	-33.2646E-3	-104.378E-12	734.135E-3	20.5877E-3
-2.06353E-3	-105.031E-12	727.405E-3	-26.8200E-3	-105.147E-12	721.780E-3	3.99340E-3
-2.06853E-3	-105.158E-12	730.086E-3	-13.1142E-3	-105.299E-12	713.875E-3	-17.4485E-3
-2.07354E-3	-105.378E-12	736.905E-3	-8.96892E-3	-105.537E-12	711.795E-3	-25.8256E-3
-2.07854E-3	-105.536E-12	741.154E-3	1.22174E-3	-105.906E-12	713.189E-3	-26.1183E-3
-2.08354E-3	-105.972E-12	730.168E-3	-5.53227E-3	-106.460E-12	719.667E-3	-29.8979E-3
-2.08854E-3	-106.293E-12	732.984E-3	-27.1749E-3	-106.525E-12	721.422E-3	-30.7452E-3
-2.09355E-3	-106.612E-12	741.770E-3	-22.9262E-3	-106.652E-12	719.433E-3	-16.7691E-3
-2.09855E-3	-106.881E-12	731.856E-3	-18.8719E-3	-106.961E-12	726.351E-3	-17.5190E-3
-2.10355E-3	-107.254E-12	732.603E-3	-23.4689E-3	-107.447E-12	726.577E-3	-22.1037E-3
-2.10855E-3	-107.534E-12	746.271E-3	-14.3425E-3	-107.753E-12	713.551E-3	-702.035E-6
-2.11356E-3	-108.231E-12	733.724E-3	-3.55213E-3	-107.638E-12	696.107E-3	5.00602E-3
-2.11856E-3	-108.216E-12	715.063E-3	-1.01912E-3	-108.248E-12	701.649E-3	-27.0034E-3
-2.12356E-3	-108.520E-12	719.469E-3	-5.26886E-3	-108.823E-12	733.310E-3	-56.9814E-3
-2.12856E-3	-109.240E-12	716.412E-3	-2.91582E-3	-108.789E-12	753.815E-3	-45.0059E-3
-2.13357E-3	-109.532E-12	699.244E-3	5.47411E-3	-109.059E-12	746.791E-3	-8.38436E-3
-2.13857E-3	-109.725E-12	702.381E-3	5.78938E-3	-109.383E-12	729.680E-3	269.461E-6
-2.14357E-3	-109.568E-12	714.233E-3	-1.24321E-3	-109.259E-12	721.990E-3	-16.2271E-3
-2.14857E-3	-109.824E-12	717.708E-3	-3.14387E-3	-108.783E-12	720.371E-3	-17.3679E-3
-2.15358E-3	-110.165E-12	723.897E-3	4.13897E-3	-109.449E-12	728.812E-3	-2.88839E-3
-2.15858E-3	-110.640E-12	726.782E-3	1.08628E-3	-109.948E-12	733.628E-3	-635.088E-6
-2.16358E-3	-111.112E-12	720.690E-3	-17.0088E-3	-109.977E-12	726.247E-3	-9.91609E-3
-2.16858E-3	-111.385E-12	725.999E-3	-39.0203E-3	-109.597E-12	731.565E-3	-6.78303E-3
-2.17359E-3	-112.098E-12	744.618E-3	-50.3540E-3	-110.024E-12	733.620E-3	-107.109E-6
-2.17859E-3	-112.676E-12	746.880E-3	-45.8504E-3	-110.190E-12	721.709E-3	-8.56448E-3
-2.18359E-3	-112.958E-12	732.264E-3	-37.2090E-3	-110.431E-12	726.850E-3	-28.4695E-3
-2.18859E-3	-112.653E-12	723.041E-3	-14.9886E-3	-110.967E-12	736.012E-3	-47.8069E-3
-2.19360E-3	-113.038E-12	723.533E-3	-762.085E-6	-112.054E-12	721.211E-3	-39.9899E-3
-2.19860E-3	-112.721E-12	729.296E-3	-24.7239E-3	-112.431E-12	710.675E-3	-13.5781E-3
-2.20360E-3	-112.766E-12	734.178E-3	-50.8424E-3	-112.690E-12	723.207E-3	-11.3214E-3
-2.20860E-3	-112.639E-12	725.316E-3	-55.7222E-3	-112.957E-12	727.398E-3	-26.1351E-3
-2.21361E-3	-112.348E-12	711.389E-3	-53.7167E-3	-113.669E-12	715.971E-3	-22.0008E-3
-2.21861E-3	-112.519E-12	716.043E-3	-40.2288E-3	-113.947E-12	709.585E-3	-6.38168E-3
-2.22361E-3	-112.432E-12	706.494E-3	-22.9843E-3	-114.003E-12	719.300E-3	9.66778E-3
-2.22861E-3	-112.643E-12	681.822E-3	-29.9930E-3	-114.152E-12	723.492E-3	22.2805E-3
-2.23362E-3	-112.448E-12	696.673E-3	-31.8782E-3	-114.536E-12	713.131E-3	13.0081E-3
-2.23862E-3	-112.764E-12	717.020E-3	-19.4365E-3	-114.487E-12	708.578E-3	-512.285E-6
-2.24362E-3	-112.857E-12	714.494E-3	-21.2412E-3	-114.392E-12	714.872E-3	-14.1503E-3
-2.24862E-3	-113.334E-12	721.647E-3	-15.2356E-3	-114.269E-12	713.396E-3	-34.5795E-3
-2.25363E-3	-113.729E-12	719.990E-3	5.93495E-3	-114.501E-12	696.939E-3	-39.3701E-3
-2.25863E-3	-114.272E-12	697.186E-3	-554.261E-6	-114.312E-12	702.269E-3	-35.3145E-3
-2.26363E-3	-114.859E-12	694.243E-3	-29.5161E-3	-114.290E-12	734.972E-3	-26.3645E-3
-2.26863E-3	-115.561E-12	717.862E-3	-32.4387E-3	-114.453E-12	741.444E-3	-20.2741E-3
-2.27364E-3	-116.226E-12	729.734E-3	-17.7317E-3	-114.533E-12	723.047E-3	-37.8618E-3
-2.27864E-3	-117.043E-12	723.643E-3	-10.7188E-3	-114.535E-12	722.151E-3	-57.2486E-3
-2.28364E-3	-116.844E-12	720.496E-3	-7.48039E-3	-115.145E-12	716.884E-3	-52.7663E-3
-2.28864E-3	-117.299E-12	725.513E-3	-2.07095E-3	-115.680E-12	693.753E-3	-35.6968E-3
-2.29365E-3	-117.416E-12	727.578E-3	668.440E-6	-116.363E-12	684.710E-3	-23.3035E-3
-2.29865E-3	-117.664E-12	712.553E-3	10.3175E-3	-116.133E-12	697.565E-3	-13.8373E-3
-2.30365E-3	-117.824E-12	694.056E-3	13.2726E-3	-116.793E-12	712.547E-3	-187.413E-6
-2.30865E-3	-117.855E-12	699.902E-3	4.01099E-3	-117.112E-12	718.415E-3	19.8899E-3
-2.31366E-3	-117.694E-12	716.709E-3	14.6682E-3	-117.048E-12	716.171E-3	23.9485E-3
-2.31866E-3	-117.503E-12	717.847E-3	9.92217E-3	-116.796E-12	708.471E-3	299.307E-6
-2.32366E-3	-117.581E-12	719.059E-3	-26.3136E-3	-117.278E-12	699.902E-3	-26.0140E-3
-2.32866E-3	-117.602E-12	721.309E-3	-35.3156E-3	-117.687E-12	708.324E-3	-38.5801E-3
-2.33367E-3	-117.441E-12	702.484E-3	-21.5886E-3	-118.093E-12	725.006E-3	-35.1726E-3
-2.33867E-3	-117.318E-12	690.644E-3	-22.7228E-3	-117.989E-12	721.752E-3	-19.4624E-3
-2.34367E-3	-117.782E-12	690.387E-3	-32.1692E-3	-118.090E-12	712.835E-3	-8.62585E-3
-2.34867E-3	-118.061E-12	685.066E-3	-28.7214E-3	-118.690E-12	716.922E-3	-7.60090E-3
-2.35368E-3	-118.569E-12	700.852E-3	-19.9841E-3	-119.039E-12	726.554E-3	-11.9691E-3
-2.35868E-3	-119.088E-12	721.805E-3	-15.9787E-3	-119.696E-12	729.394E-3	-20.9885E-3
-2.36368E-3	-119.828E-12	716.049E-3	-13.4386E-3	-119.676E-12	726.433E-3	-25.5465E-3
-2.36868E-3	-120.346E-12	699.443E-3	-16.7230E-3	-120.326E-12	728.247E-3	-13.7815E-3
-2.37369E-3	-120.448E-12	705.174E-3	-13.8838E-3	-120.920E-12	732.265E-3	-446.489E-6
-2.37869E-3	-120.929E-12	722.225E-3	-7.19952E-3	-121.338E-12	734.201E-3	-9.75964E-3
-2.38369E-3	-121.426E-12	726.519E-3	-10.3849E-3	-121.569E-12	731.333E-3	-24.2568E-3
-2.38869E-3	-121.910E-12	727.848E-3	-13.4692E-3	-121.914E-12	721.592E-3	-24.0763E-3
-2.39370E-3	-122.273E-12	718.548E-3	-14.7282E-3	-121.965E-12	702.183E-3	-30.3657E-3
-2.39870E-3	-122.523E-12	706.173E-3	-16.2677E-3	-122.211E-12	689.676E-3	-43.2211E-3
-2.40370E-3	-122.816E-12	714.813E-3	-15.0496E-3	-122.295E-12	695.606E-3	-35.4735E-3
-2.40870E-3	-122.734E-12	712.094E-3	-15.4193E-3	-122.062E-12	704.718E-3	-28.8811E-3
-2.41371E-3	-122.962E-12	677.279E-3	-10.2584E-3	-122.010E-12	701.735E-3	-25.2471E-3
-2.41871E-3	-123.109E-12	668.668E-3	-2.03930E-3	-121.956E-12	690.109E-3	-13.1963E-3
-2.42371E-3	-123.368E-12	700.216E-3	-3.25181E-3	-122.053E-12	686.439E-3	-19.0827E-3
-2.42871E-3	-123.306E-12	708.257E-3	-13.7900E-3	-121.987E-12	686.435E-3	-23.8386E-3
-2.43372E-3	-123.478E-12	698.010E-3	-21.4626E-3	-122.201E-12	689.796E-3	-9.12362E-3
-2.43872E-3	-123.713E-12	705.540E-3	-8.14072E-3	-122.098E-12	705.819E-3	-1.72950E-3
-2.44372E-3	-123.977E-12	699.077E-3	497.515E-6	-122.788E-12	732.964E-3	-9.06480E-3
-2.44872E-3	-123.949E-12	685.574E-3	-13.7945E-3	-123.932E-12	746.685E-3	-18.3584E-3
-2.45373E-3	-124.342E-12	699.093E-3	-13.1746E-3	-123.893E-12	725.495E-3	-27.5651E-3
-2.45873E-3	-124.395E-12	706.987E-3	-10.0669E-3	-124.403E-12	703.539E-3	-19.3137E-3
-2.46373E-3	-124.342E-12	707.831E-3	-29.7412E-3	-124.870E-12	707.778E-3	9.13662E-3
-2.46873E-3	-124.404E-12	712.652E-3	-33.1273E-3	-126.268E-12	708.739E-3	15.7320E-3
-2.47374E-3	-124.686E-12	708.818E-3	-12.5301E-3	-125.895E-12	708.454E-3	400.076E-6
-2.47874E-3	-124.957E-12	717.720E-3	-7.54110E-3	-126.061E-12	716.101E-3	-3.64369E-3
-2.48374E-3	-124.860E-12	723.536E-3	-10.3770E-3	-126.687E-12	706.823E-3	6.60516E-3
-2.48874E-3	-125.314E-12	701.526E-3	-3.58346E-3	-127.153E-12	688.072E-3	11.4329E-3
-2.49375E-3	-125.707E-12	685.647E-3	-13.7696E-3	-126.700E-12	684.061E-3	-7.92956E-3
-2.49875E-3	-125.715E-12	699.098E-3	-29.3448E-3	-126.828E-12	694.450E-3	-22.5859E-3
-2.50375E-3	-126.334E-12	703.527E-3	-25.9545E-3	-127.011E-12	703.262E-3	-21.7412E-3
-2.50875E-3	-126.854E-12	686.526E-3	-16.0288E-3	-127.058E-12	694.098E-3	-24.9882E-3
-2.51376E-3	-127.590E-12	685.677E-3	-76.2330E-6	-126.557E-12	683.847E-3	-17.7586E-3
-2.51876E-3	-127.927E-12	695.437E-3	18.9763E-3	-125.963E-12	691.856E-3	-3.31467E-3
-2.52376E-3	-128.271E-12	707.091E-3	26.7703E-3	-126.507E-12	695.168E-3	-3.40683E-3
-2.52876E-3	-129.396E-12	726.521E-3	20.8691E-3	-126.081E-12	701.701E-3	-12.2038E-3
-2.53377E-3	-129.073E-12	721.476E-3	6.20084E-3	-126.351E-12	713.372E-3	-9.71784E-3
-2.53877E-3	-129.570E-12	691.014E-3	-9.65329E-3	-126.130E-12	692.912E-3	-356.637E-6
-2.54377E-3	-129.150E-12	684.415E-3	-18.8094E-3	-126.665E-12	676.135E-3	-6.04438E-3
-2.54877E-3	-129.571E-12	700.672E-3	-17.0339E-3	-127.205E-12	691.879E-3	-20.1570E-3
-2.55378E-3	-129.327E-12	706.049E-3	-11.0900E-3	-127.835E-12	703.458E-3	-14.7430E-3
-2.55878E-3	-129.407E-12	704.463E-3	-9.93884E-3	-128.287E-12	704.020E-3	-4.80545E-3
-2.56378E-3	-128.594E-12	719.408E-3	-7.37597E-3	-129.288E-12	710.852E-3	-8.52573E-3
-2.56878E-3	-128.651E-12	725.692E-3	4.94237E-3	-129.604E-12	725.953E-3	-8.88385E-3
-2.57379E-3	-128.538E-12	700.923E-3	-252.337E-6	-130.062E-12	735.954E-3	-10.7006E-3
-2.57879E-3	-128.408E-12	679.159E-3	-30.4423E-3	-130.404E-12	742.114E-3	-15.2159E-3
-2.58379E-3	-128.191E-12	677.264E-3	-38.1211E-3	-131.037E-12	739.509E-3	-8.79904E-3
-2.58879E-3	-128.852E-12	692.752E-3	-25.9307E-3	-130.944E-12	714.925E-3	-11.9531E-3
-2.59380E-3	-129.496E-12	710.814E-3	-34.9638E-3	-131.216E-12	695.241E-3	-34.5646E-3
-2.59880E-3	-130.113E-12	710.043E-3	-35.9725E-3	-131.613E-12	701.342E-3	-36.6845E-3
-2.60380E-3	-130.935E-12	704.462E-3	-25.3731E-3	-131.687E-12	707.021E-3	-20.1161E-3
-2.60880E-3	-131.846E-12	701.576E-3	-32.8461E-3	-131.322E-12	706.297E-3	-16.3165E-3
-2.61381E-3	-132.426E-12	693.042E-3	-27.5490E-3	-131.054E-12	697.918E-3	-20.7402E-3
-2.61881E-3	-132.830E-12	699.170E-3	-12.1529E-3	-131.018E-12	676.650E-3	-37.4404E-3
-2.62381E-3	-133.120E-12	713.996E-3	-24.8201E-3	-130.684E-12	670.958E-3	-42.8190E-3
-2.62881E-3	-133.730E-12	717.791E-3	-35.6835E-3	-130.297E-12	682.028E-3	-13.7114E-3
-2.63382E-3	-133.749E-12	711.344E-3	-16.5836E-3	-130.415E-12	693.092E-3	-3.63984E-3
-2.63882E-3	-133.637E-12	700.673E-3	2.70589E-3	-130.440E-12	692.423E-3	-25.6004E-3
-2.64382E-3	-133.442E-12	693.997E-3	13.4198E-3	-131.338E-12	677.261E-3	-29.7801E-3
-2.64882E-3	-133.022E-12	690.329E-3	13.5721E-3	-131.460E-12	666.590E-3	-18.3975E-3
-2.65383E-3	-132.857E-12	694.712E-3	14.0311E-3	-131.582E-12	666.284E-3	-21.5454E-3
-2.65883E-3	-132.284E-12	692.757E-3	34.2042E-3	-131.186E-12	676.324E-3	-33.5717E-3
-2.66383E-3	-132.386E-12	684.990E-3	43.2245E-3	-132.379E-12	686.353E-3	-28.4176E-3
-2.66883E-3	-132.182E-12	688.076E-3	10.8496E-3	-132.872E-12	694.364E-3	-24.6666E-3
-2.67384E-3	-132.574E-12	685.805E-3	-9.18959E-3	-134.052E-12	696.476E-3	-34.9807E-3
-2.67884E-3	-132.627E-12	670.572E-3	-15.3257E-3	-133.812E-12	700.323E-3	-31.6802E-3
-2.68384E-3	-133.061E-12	660.132E-3	-45.9937E-3	-134.654E-12	705.594E-3	-25.4853E-3
-2.68884E-3	-133.532E-12	665.660E-3	-42.3295E-3	-135.686E-12	693.379E-3	-25.2359E-3
-2.69385E-3	-134.448E-12	676.075E-3	-9.84582E-3	-136.776E-12	683.306E-3	-17.9191E-3
-2.69885E-3	-134.967E-12	678.049E-3	-16.7227E-3	-137.212E-12	685.457E-3	-13.1306E-3
-2.70385E-3	-136.257E-12	681.136E-3	-33.0071E-3	-137.513E-12	707.759E-3	-14.3591E-3
-2.70885E-3	-137.163E-12	694.607E-3	-17.7877E-3	-137.453E-12	727.140E-3	-11.0254E-3
-2.71386E-3	-137.489E-12	702.296E-3	-7.68047E-3	-137.799E-12	717.413E-3	-14.5557E-3
-2.71886E-3	-137.879E-12	697.096E-3	-20.2038E-3	-138.096E-12	701.391E-3	-34.7351E-3
-2.72386E-3	-138.136E-12	688.283E-3	-27.3533E-3	-138.209E-12	689.122E-3	-47.6486E-3
-2.72886E-3	-138.735E-12	684.594E-3	-20.3616E-3	-137.881E-12	684.121E-3	-41.1990E-3
-2.73387E-3	-138.333E-12	679.708E-3	-2.09474E-3	-138.146E-12	680.460E-3	-23.2604E-3
-2.73887E-3	-138.707E-12	664.018E-3	10.2903E-3	-137.944E-12	666.443E-3	223.206E-6
-2.74387E-3	-138.678E-12	657.449E-3	-4.89110E-3	-137.842E-12	659.378E-3	2.06291E-3
-2.74887E-3	-139.093E-12	667.977E-3	-19.1275E-3	-137.558E-12	674.764E-3	-25.1920E-3
-2.75388E-3	-139.358E-12	669.887E-3	-13.3247E-3	-137.309E-12	700.452E-3	-42.2716E-3
-2.75888E-3	-139.643E-12	668.087E-3	-14.2637E-3	-137.316E-12	708.370E-3	-28.6951E-3
-2.76388E-3	-139.488E-12	678.999E-3	-20.4957E-3	-137.467E-12	690.420E-3	-10.0505E-3
-2.76888E-3	-139.617E-12	684.569E-3	-22.6916E-3	-137.465E-12	672.131E-3	-19.9310E-3
-2.77389E-3	-139.626E-12	673.337E-3	-38.1501E-3	-138.005E-12	671.239E-3	-32.5360E-3
-2.77889E-3	-139.640E-12	669.113E-3	-48.6854E-3	-137.933E-12	686.961E-3	-17.6087E-3
-2.78389E-3	-140.050E-12	675.880E-3	-25.5797E-3	-138.756E-12	699.175E-3	-3.98524E-3
-2.78889E-3	-140.106E-12	669.989E-3	-16.6039E-3	-138.910E-12	701.666E-3	-4.15774E-3
-2.79390E-3	-140.334E-12	671.858E-3	-21.1220E-3	-140.254E-12	705.827E-3	-13.2880E-3
-2.79890E-3	-140.876E-12	694.766E-3	3.75613E-3	-141.152E-12	697.308E-3	-21.7002E-3
-2.80390E-3	-141.291E-12	693.971E-3	6.01628E-3	-141.731E-12	679.352E-3	-21.3337E-3
-2.80890E-3	-141.184E-12	689.772E-3	-11.7870E-3	-142.457E-12	682.663E-3	-18.6159E-3
-2.81391E-3	-140.653E-12	710.526E-3	-9.61344E-3	-143.228E-12	694.948E-3	-16.5653E-3
-2.81891E-3	-141.116E-12	711.880E-3	-10.8131E-3	-143.972E-12	702.109E-3	-9.82171E-3
-2.82391E-3	-140.974E-12	693.708E-3	-18.4114E-3	-143.550E-12	718.420E-3	-3.69570E-3
-2.82891E-3	-140.988E-12	690.736E-3	-35.9547E-3	-144.246E-12	721.341E-3	4.14308E-3
-2.83392E-3	-140.793E-12	690.910E-3	-57.2363E-3	-143.488E-12	692.237E-3	17.8503E-3
-2.83892E-3	-141.794E-12	683.412E-3	-58.9982E-3	-143.538E-12	666.846E-3	17.5351E-3
-2.84392E-3	-141.962E-12	680.161E-3	-57.6694E-3	-142.350E-12	675.086E-3	-3.76977E-3
-2.84892E-3	-142.607E-12	679.051E-3	-68.6210E-3	-142.700E-12	677.486E-3	-31.7583E-3
-2.85393E-3	-142.628E-12	683.853E-3	-60.9678E-3	-142.082E-12	659.668E-3	-46.2676E-3
-2.85893E-3	-143.896E-12	700.718E-3	-25.6533E-3	-142.191E-12	655.406E-3	-25.7974E-3
-2.86393E-3	-144.089E-12	709.835E-3	1.93331E-3	-141.605E-12	658.432E-3	-6.39571E-3
-2.86893E-3	-144.886E-12	710.990E-3	-8.02184E-3	-141.622E-12	657.004E-3	-16.7874E-3
-2.87394E-3	-145.001E-12	704.936E-3	-38.3197E-3	-141.571E-12	664.328E-3	-16.1178E-3
-2.87894E-3	-145.497E-12	681.205E-3	-42.9497E-3	-141.175E-12	680.339E-3	1.93197E-3
-2.88394E-3	-146.163E-12	676.578E-3	-38.1099E-3	-141.830E-12	688.246E-3	13.1737E-3
-2.88894E-3	-145.478E-12	688.447E-3	-29.1847E-3	-142.524E-12	693.205E-3	-1.10315E-3
-2.89395E-3	-145.672E-12	694.172E-3	-2.91527E-3	-142.898E-12	700.906E-3	-16.0903E-3
-2.89895E-3	-144.583E-12	701.560E-3	2.12067E-3	-143.563E-12	700.934E-3	-20.0089E-3
-2.90395E-3	-144.717E-12	703.964E-3	-15.1765E-3	-144.959E-12	705.099E-3	-30.6658E-3
-2.90895E-3	-143.807E-12	698.784E-3	-24.5635E-3	-146.036E-12	716.033E-3	-28.9269E-3
-2.91396E-3	-143.770E-12	689.247E-3	-17.1050E-3	-146.603E-12	708.105E-3	-9.04838E-3
-2.91896E-3	-143.236E-12	688.488E-3	-12.2689E-3	-147.566E-12	689.782E-3	-3.66375E-3
-2.92396E-3	-143.528E-12	692.163E-3	-12.6894E-3	-147.851E-12	681.146E-3	-30.7556E-3
-2.92896E-3	-143.459E-12	686.117E-3	-8.79224E-3	-148.549E-12	684.853E-3	-55.6200E-3
-2.93397E-3	-143.920E-12	689.851E-3	-12.5232E-3	-147.968E-12	702.401E-3	-56.1002E-3
-2.93897E-3	-144.571E-12	704.178E-3	-14.2770E-3	-147.626E-12	719.329E-3	-44.9524E-3
-2.94397E-3	-145.686E-12	700.514E-3	-11.9541E-3	-147.321E-12	709.825E-3	-32.4428E-3
-2.94897E-3	-146.462E-12	695.198E-3	-19.7314E-3	-147.593E-12	680.446E-3	-23.2053E-3
-2.95398E-3	-147.381E-12	706.449E-3	-10.1201E-3	-147.096E-12	665.942E-3	-18.9961E-3
-2.95898E-3	-148.509E-12	694.388E-3	4.69786E-3	-146.774E-12	663.555E-3	-21.2010E-3
-2.96398E-3	-149.391E-12	667.528E-3	-11.5360E-3	-146.342E-12	654.482E-3	-37.3097E-3
-2.96898E-3	-150.188E-12	668.872E-3	-19.9863E-3	-146.690E-12	650.427E-3	-55.5683E-3
-2.97399E-3	-150.499E-12	683.987E-3	-12.8507E-3	-146.265E-12	658.583E-3	-57.4185E-3
-2.97899E-3	-151.272E-12	695.458E-3	2.41665E-3	-146.279E-12	673.556E-3	-47.0379E-3
-2.98399E-3	-150.991E-12	698.225E-3	34.4258E-3	-145.919E-12	681.863E-3	-34.1271E-3
-2.98899E-3	-150.779E-12	686.542E-3	32.6897E-3	-146.561E-12	682.049E-3	-25.1578E-3
-2.99400E-3	-150.658E-12	684.068E-3	-14.8683E-3	-146.844E-12	686.183E-3	-25.5144E-3
-2.99900E-3	-150.144E-12	695.904E-3	-39.8648E-3	-147.449E-12	673.544E-3	-46.2747E-3
-3.00400E-3	-150.208E-12	686.966E-3	-13.7934E-3	-148.092E-12	658.126E-3	-54.2604E-3
-3.00900E-3	-149.696E-12	666.372E-3	9.23787E-3	-148.229E-12	663.913E-3	-37.8695E-3
-3.01401E-3	-149.988E-12	684.615E-3	2.31712E-3	-149.127E-12	667.780E-3	-21.7122E-3
-3.01901E-3	-149.385E-12	713.504E-3	-6.28915E-3	-149.267E-12	659.930E-3	-10.0211E-3
-3.02401E-3	-149.649E-12	699.164E-3	-6.49641E-3	-150.475E-12	661.531E-3	-12.4805E-3
-3.02901E-3	-149.907E-12	685.055E-3	-11.9812E-3	-151.135E-12	670.509E-3	-21.0876E-3
-3.03402E-3	-150.372E-12	695.478E-3	-36.8704E-3	-151.828E-12	681.310E-3	-25.9012E-3
-3.03902E-3	-150.950E-12	696.031E-3	-48.4363E-3	-151.925E-12	682.305E-3	-28.3507E-3
-3.04402E-3	-151.378E-12	693.940E-3	-41.8097E-3	-152.565E-12	668.333E-3	-25.9120E-3
-3.04902E-3	-151.763E-12	702.789E-3	-46.2825E-3	-152.938E-12	669.265E-3	-41.7349E-3
-3.05403E-3	-152.081E-12	703.340E-3	-36.5270E-3	-153.135E-12	673.274E-3	-72.2614E-3
-3.05903E-3	-152.776E-12	697.436E-3	-28.9478E-3	-153.243E-12	676.689E-3	-60.6487E-3
-3.06403E-3	-152.538E-12	698.972E-3	-34.5416E-3	-153.067E-12	682.351E-3	-28.9908E-3
-3.06903E-3	-152.897E-12	689.858E-3	-35.9364E-3	-153.213E-12	678.384E-3	-22.7955E-3
-3.07404E-3	-153.362E-12	681.932E-3	-46.8164E-3	-152.729E-12	671.633E-3	-25.6537E-3
-3.07904E-3	-153.650E-12	680.198E-3	-30.8630E-3	-152.751E-12	666.541E-3	-15.4476E-3
-3.08404E-3	-153.195E-12	672.344E-3	3.22295E-3	-152.564E-12	674.095E-3	7.07983E-3
-3.08904E-3	-153.397E-12	671.781E-3	1.03074E-3	-152.574E-12	679.903E-3	11.5086E-3
-3.09405E-3	-153.465E-12	673.521E-3	-19.0697E-3	-152.021E-12	664.050E-3	-8.51140E-3
-3.09905E-3	-153.296E-12	672.446E-3	-27.1655E-3	-152.617E-12	663.061E-3	-25.8999E-3
-3.10405E-3	-153.660E-12	684.240E-3	-31.2719E-3	-152.435E-12	696.246E-3	-30.1962E-3
-3.10905E-3	-154.165E-12	702.634E-3	-18.5135E-3	-152.795E-12	704.848E-3	-29.3402E-3
-3.11406E-3	-155.033E-12	713.755E-3	-7.39770E-3	-152.615E-12	664.841E-3	-24.1362E-3
-3.11906E-3	-154.976E-12	716.348E-3	-39.0238E-3	-153.391E-12	642.925E-3	-10.1315E-3
-3.12406E-3	-155.424E-12	717.942E-3	-54.2032E-3	-153.790E-12	667.635E-3	2.71402E-3
-3.12906E-3	-155.665E-12	716.701E-3	-24.6417E-3	-154.236E-12	686.244E-3	8.63153E-3
-3.13407E-3	-155.979E-12	686.676E-3	-2.40654E-3	-155.112E-12	683.211E-3	10.1073E-3
-3.13907E-3	-155.711E-12	671.810E-3	2.37282E-3	-155.506E-12	672.599E-3	-5.13851E-3
-3.14407E-3	-155.778E-12	699.961E-3	251.117E-6	-156.577E-12	654.054E-3	-33.7577E-3
-3.14907E-3	-156.489E-12	712.361E-3	-8.04171E-3	-157.276E-12	661.826E-3	-34.0343E-3
-3.15408E-3	-156.242E-12	706.723E-3	-10.2262E-3	-158.182E-12	689.008E-3	-17.8980E-3
-3.15908E-3	-155.656E-12	719.416E-3	9.10140E-3	-157.840E-12	695.352E-3	-26.6319E-3
-3.16408E-3	-155.739E-12	716.549E-3	21.8347E-3	-158.572E-12	698.861E-3	-31.8418E-3
-3.16908E-3	-156.027E-12	688.200E-3	3.23871E-3	-158.596E-12	699.273E-3	-22.9037E-3
-3.17409E-3	-155.311E-12	672.866E-3	-15.4011E-3	-158.195E-12	680.981E-3	-14.3719E-3
-3.17909E-3	-155.167E-12	652.631E-3	-25.9927E-3	-157.629E-12	667.848E-3	37.0914E-6
-3.18409E-3	-155.589E-12	645.730E-3	-25.1821E-3	-157.593E-12	665.685E-3	10.7494E-3
-3.18909E-3	-156.416E-12	672.772E-3	-17.0344E-3	-156.545E-12	655.476E-3	6.81213E-3
-3.19410E-3	-157.511E-12	678.198E-3	-23.1132E-3	-156.657E-12	643.114E-3	-4.83936E-3
-3.19910E-3	-158.247E-12	667.942E-3	-40.5062E-3	-156.314E-12	646.864E-3	-25.5876E-3
-3.20410E-3	-158.595E-12	675.738E-3	-43.6873E-3	-156.017E-12	653.023E-3	-42.0036E-3
-3.20910E-3	-160.101E-12	688.813E-3	-25.5300E-3	-155.986E-12	657.307E-3	-33.2318E-3
-3.21411E-3	-161.339E-12	704.103E-3	-7.53373E-3	-156.693E-12	672.344E-3	-21.4160E-3
-3.21911E-3	-161.253E-12	727.833E-3	-9.31274E-3	-156.982E-12	680.774E-3	-18.9840E-3
-3.22411E-3	-161.632E-12	722.105E-3	-20.3410E-3	-156.939E-12	688.316E-3	-3.23388E-3
-3.22911E-3	-161.946E-12	684.094E-3	-37.0203E-3	-157.734E-12	709.361E-3	7.18548E-3
-3.23412E-3	-162.128E-12	681.655E-3	-50.4930E-3	-158.422E-12	701.328E-3	-4.22669E-3
-3.23912E-3	-161.058E-12	696.079E-3	-44.0470E-3	-158.736E-12	667.395E-3	-17.9844E-3
-3.24412E-3	-161.184E-12	685.767E-3	-30.2117E-3	-159.344E-12	662.022E-3	-32.7156E-3
-3.24912E-3	-160.153E-12	683.627E-3	-11.4580E-3	-159.833E-12	674.061E-3	-33.6709E-3
-3.25413E-3	-159.720E-12	692.954E-3	-7.99766E-3	-160.846E-12	680.792E-3	-18.1731E-3
-3.25913E-3	-159.050E-12	685.966E-3	-14.1070E-3	-161.222E-12	691.027E-3	-5.25239E-3
-3.26413E-3	-159.114E-12	673.949E-3	-14.8581E-3	-162.374E-12	693.694E-3	4.09243E-3
-3.26913E-3	-158.941E-12	670.782E-3	-11.3373E-3	-161.987E-12	675.956E-3	9.99452E-3
-3.27414E-3	-159.345E-12	660.684E-3	-5.14546E-3	-162.709E-12	661.030E-3	5.45672E-3
-3.27914E-3	-160.331E-12	656.594E-3	-12.8226E-3	-162.447E-12	668.250E-3	-12.0762E-3
-3.28414E-3	-160.966E-12	670.396E-3	-30.1354E-3	-163.075E-12	683.939E-3	-35.9608E-3
-3.28914E-3	-161.932E-12	673.347E-3	-46.4982E-3	-162.729E-12	689.370E-3	-33.6620E-3
-3.29415E-3	-163.422E-12	674.359E-3	-45.7699E-3	-163.015E-12	670.166E-3	-5.83637E-3
-3.29915E-3	-164.811E-12	693.704E-3	-27.5685E-3	-162.862E-12	659.882E-3	-1.10025E-3
-3.30415E-3	-165.768E-12	699.172E-3	-15.6427E-3	-163.319E-12	683.317E-3	-13.6222E-3
-3.30915E-3	-166.808E-12	691.448E-3	-5.61405E-3	-163.261E-12	698.902E-3	-21.6813E-3
-3.31416E-3	-167.346E-12	697.485E-3	1.63257E-3	-163.269E-12	674.427E-3	-28.9231E-3
-3.31916E-3	-167.782E-12	691.924E-3	4.46713E-3	-164.042E-12	651.648E-3	-28.0582E-3
-3.32416E-3	-168.701E-12	688.692E-3	3.85931E-3	-164.133E-12	651.316E-3	-26.5707E-3
-3.32916E-3	-168.321E-12	693.694E-3	-3.54733E-3	-164.128E-12	649.755E-3	-42.0392E-3
-3.33417E-3	-167.698E-12	674.685E-3	-1.14059E-3	-164.231E-12	660.924E-3	-55.4158E-3
-3.33917E-3	-166.906E-12	661.792E-3	-2.42082E-3	-164.358E-12	686.192E-3	-46.0800E-3
-3.34417E-3	-166.353E-12	679.774E-3	-25.8885E-3	-164.941E-12	685.192E-3	-26.4695E-3
-3.34917E-3	-165.196E-12	677.119E-3	-37.5381E-3	-165.714E-12	666.614E-3	-20.1052E-3
-3.35418E-3	-165.008E-12	652.662E-3	-29.8731E-3	-166.863E-12	661.953E-3	-26.1899E-3
-3.35918E-3	-164.506E-12	661.311E-3	-25.6295E-3	-166.550E-12	656.456E-3	-31.3012E-3
-3.36418E-3	-164.218E-12	671.623E-3	-11.7131E-3	-167.182E-12	655.923E-3	-33.0401E-3
-3.36918E-3	-164.708E-12	662.608E-3	-1.46930E-3	-167.328E-12	664.968E-3	-30.9604E-3
-3.37419E-3	-164.840E-12	681.296E-3	-7.65824E-3	-167.658E-12	666.492E-3	-31.2064E-3
-3.37919E-3	-165.311E-12	691.977E-3	-10.0515E-3	-167.434E-12	669.086E-3	-30.3432E-3
-3.38419E-3	-165.886E-12	657.295E-3	-14.4054E-3	-167.872E-12	683.503E-3	-24.6529E-3
-3.38919E-3	-166.219E-12	641.966E-3	-12.9622E-3	-167.706E-12	705.731E-3	-20.1687E-3
-3.39420E-3	-166.783E-12	664.056E-3	570.391E-6	-167.854E-12	720.500E-3	-20.2651E-3
-3.39920E-3	-167.255E-12	684.761E-3	38.8442E-6	-167.513E-12	711.676E-3	-32.9475E-3
-3.40420E-3	-167.800E-12	700.874E-3	-20.5019E-3	-167.615E-12	687.612E-3	-35.8309E-3
-3.40920E-3	-167.903E-12	714.088E-3	-40.8575E-3	-167.814E-12	655.993E-3	-18.6609E-3
-3.41421E-3	-168.474E-12	711.663E-3	-42.8102E-3	-167.640E-12	639.376E-3	-2.48290E-3
-3.41921E-3	-168.950E-12	702.863E-3	-30.2589E-3	-167.858E-12	643.707E-3	5.73824E-3
-3.42421E-3	-169.440E-12	708.028E-3	-19.8925E-3	-167.030E-12	642.763E-3	-11.1560E-3
-3.42921E-3	-169.084E-12	699.013E-3	-9.88657E-3	-168.185E-12	639.337E-3	-41.9488E-3
-3.43422E-3	-168.879E-12	673.109E-3	-11.3762E-3	-168.036E-12	630.020E-3	-46.6870E-3
-3.43922E-3	-169.065E-12	663.841E-3	-5.10455E-3	-168.569E-12	621.271E-3	-35.3859E-3
-3.44422E-3	-168.987E-12	652.771E-3	15.1542E-3	-167.945E-12	637.141E-3	-24.7180E-3
-3.44922E-3	-168.593E-12	643.819E-3	-3.93839E-3	-168.334E-12	655.089E-3	-11.0928E-3
-3.45423E-3	-169.084E-12	664.144E-3	-32.9935E-3	-168.116E-12	676.863E-3	-8.38072E-3
-3.45923E-3	-169.755E-12	685.312E-3	-29.0912E-3	-168.499E-12	699.964E-3	687.926E-6
-3.46423E-3	-169.918E-12	684.358E-3	-20.6878E-3	-169.147E-12	698.663E-3	4.43908E-3
-3.46923E-3	-170.014E-12	685.608E-3	-20.4563E-3	-169.508E-12	691.472E-3	-37.5745E-3
-3.47424E-3	-170.189E-12	680.573E-3	-11.1647E-3	-169.821E-12	687.249E-3	-70.9023E-3
-3.47924E-3	-170.905E-12	664.302E-3	-4.54123E-3	-170.921E-12	675.723E-3	-52.3313E-3
-3.48424E-3	-170.779E-12	665.022E-3	-3.17446E-3	-171.754E-12	656.489E-3	-20.7745E-3
-3.48924E-3	-170.739E-12	675.447E-3	-10.0282E-3	-172.003E-12	649.927E-3	8.33205E-3
-3.49425E-3	-170.384E-12	689.981E-3	-38.5028E-3	-172.361E-12	667.615E-3	23.6120E-3
-3.49925E-3	-170.835E-12	708.588E-3	-45.0504E-3	-172.541E-12	674.705E-3	14.6443E-3
-3.50425E-3	-170.391E-12	698.475E-3	-26.4234E-3	-173.250E-12	663.838E-3	6.70882E-3
-3.50925E-3	-170.602E-12	673.771E-3	-15.9586E-3	-173.550E-12	677.853E-3	9.93576E-3
-3.51426E-3	-170.737E-12	673.614E-3	-9.63852E-3	-173.040E-12	704.269E-3	11.1254E-3
-3.51926E-3	-171.114E-12	688.573E-3	-15.9259E-3	-174.045E-12	712.875E-3	8.13965E-3
-3.52426E-3	-171.672E-12	691.614E-3	-46.7236E-3	-173.948E-12	706.790E-3	-7.69623E-3
-3.52926E-3	-172.124E-12	688.486E-3	-57.8333E-3	-174.973E-12	688.324E-3	-27.2171E-3
-3.53427E-3	-172.803E-12	689.951E-3	-23.1645E-3	-174.394E-12	670.192E-3	-26.5105E-3
-3.53927E-3	-174.278E-12	677.725E-3	-14.5173E-3	-175.022E-12	664.808E-3	-14.1793E-3
-3.54427E-3	-174.757E-12	658.749E-3	-45.5094E-3	-174.549E-12	673.781E-3	-15.7075E-3
-3.54927E-3	-175.753E-12	653.188E-3	-39.3449E-3	-175.327E-12	679.127E-3	-26.1430E-3
-3.55428E-3	-177.471E-12	643.802E-3	-11.2260E-3	-175.057E-12	675.022E-3	-31.7139E-3
-3.55928E-3	-177.718E-12	634.834E-3	-20.6062E-3	-175.290E-12	671.583E-3	-32.9281E-3
-3.56428E-3	-178.546E-12	654.605E-3	-23.9092E-3	-174.834E-12	665.232E-3	-16.8028E-3
-3.56928E-3	-178.921E-12	682.520E-3	-4.68599E-3	-175.460E-12	663.776E-3	-4.34297E-3
-3.57429E-3	-179.233E-12	702.922E-3	-8.14914E-3	-175.517E-12	679.290E-3	-6.64614E-3
-3.57929E-3	-178.580E-12	711.046E-3	-10.2101E-3	-176.083E-12	689.480E-3	-7.76497E-3
-3.58429E-3	-178.774E-12	703.212E-3	14.9812E-3	-175.883E-12	674.104E-3	-5.39200E-3
-3.58929E-3	-178.160E-12	699.967E-3	27.6950E-3	-175.750E-12	670.883E-3	1.03818E-3
-3.59430E-3	-177.809E-12	701.578E-3	13.2189E-3	-175.634E-12	671.508E-3	-8.94981E-3
-3.59930E-3	-177.034E-12	696.270E-3	8.05280E-3	-175.780E-12	651.534E-3	-17.4713E-3
-3.60430E-3	-176.673E-12	688.987E-3	4.48383E-3	-176.099E-12	654.308E-3	-19.0949E-3
-3.60930E-3	-175.873E-12	694.772E-3	-19.9110E-3	-176.346E-12	674.577E-3	-37.4041E-3
-3.61431E-3	-176.406E-12	697.706E-3	-37.0928E-3	-176.320E-12	685.813E-3	-47.3119E-3
-3.61931E-3	-176.742E-12	683.927E-3	-46.1252E-3	-177.184E-12	692.359E-3	-34.5132E-3
-3.62431E-3	-176.644E-12	668.159E-3	-51.1557E-3	-177.626E-12	695.816E-3	-19.1239E-3
-3.62931E-3	-176.923E-12	652.771E-3	-38.5529E-3	-179.092E-12	687.854E-3	-6.50985E-3
-3.63432E-3	-177.762E-12	653.803E-3	-20.8755E-3	-179.245E-12	687.390E-3	-12.9058E-3
-3.63932E-3	-178.815E-12	676.908E-3	-21.5347E-3	-179.751E-12	704.150E-3	-41.8872E-3
-3.64432E-3	-179.634E-12	694.912E-3	-45.6684E-3	-180.360E-12	693.183E-3	-47.7154E-3
-3.64932E-3	-179.668E-12	689.060E-3	-55.1871E-3	-180.671E-12	671.377E-3	-26.8057E-3
-3.65433E-3	-180.495E-12	686.295E-3	-44.1523E-3	-180.505E-12	669.135E-3	-22.7741E-3
-3.65933E-3	-180.746E-12	701.805E-3	-21.3890E-3	-181.151E-12	659.284E-3	-28.3085E-3
-3.66433E-3	-181.432E-12	695.719E-3	-2.29004E-3	-180.554E-12	649.944E-3	-11.8190E-3
-3.66933E-3	-180.674E-12	674.976E-3	-18.6965E-3	-180.469E-12	654.442E-3	-860.046E-6
-3.67434E-3	-180.929E-12	678.738E-3	-24.3697E-3	-180.273E-12	664.042E-3	-10.0876E-3
-3.67934E-3	-179.677E-12	698.121E-3	-5.37906E-3	-180.111E-12	692.965E-3	-10.2623E-3
-3.68434E-3	-180.157E-12	702.754E-3	-3.30618E-3	-179.741E-12	719.000E-3	-20.6849E-3
-3.68934E-3	-179.180E-12	688.055E-3	964.809E-6	-179.434E-12	693.877E-3	-47.3063E-3
-3.69435E-3	-179.258E-12	661.555E-3	21.4341E-3	-178.949E-12	663.713E-3	-37.4210E-3
-3.69935E-3	-178.271E-12	643.498E-3	13.4088E-3	-179.042E-12	673.543E-3	-9.47419E-3
-3.70435E-3	-179.044E-12	653.910E-3	-19.8275E-3	-179.087E-12	679.092E-3	-16.2633E-3
-3.70935E-3	-179.698E-12	666.281E-3	-26.9535E-3	-179.326E-12	676.120E-3	-21.1160E-3
-3.71436E-3	-179.753E-12	658.002E-3	-20.4574E-3	-179.876E-12	690.880E-3	-6.16630E-3
-3.71936E-3	-179.677E-12	644.962E-3	-23.6387E-3	-180.479E-12	695.523E-3	-672.067E-6
-3.72436E-3	-180.767E-12	643.687E-3	-25.9395E-3	-181.395E-12	690.148E-3	-10.5840E-3
-3.72936E-3	-182.089E-12	649.607E-3	-25.1825E-3	-182.238E-12	704.056E-3	-24.4618E-3
-3.73437E-3	-182.669E-12	639.281E-3	-30.8604E-3	-183.269E-12	702.494E-3	-23.3305E-3
-3.73937E-3	-182.477E-12	640.300E-3	-38.5438E-3	-183.818E-12	683.215E-3	-5.66282E-3
-3.74437E-3	-183.032E-12	666.162E-3	-47.6800E-3	-184.398E-12	685.523E-3	4.77361E-3
-3.74937E-3	-183.791E-12	695.930E-3	-36.4148E-3	-185.559E-12	683.915E-3	-10.2800E-3
-3.75438E-3	-184.184E-12	712.211E-3	-8.48033E-3	-185.693E-12	677.347E-3	-18.2291E-3
-3.75938E-3	-183.143E-12	694.961E-3	-5.19101E-3	-185.595E-12	685.897E-3	-9.37736E-3
-3.76438E-3	-183.599E-12	672.282E-3	-10.6364E-3	-185.570E-12	695.761E-3	-7.91848E-3
-3.76938E-3	-183.156E-12	661.712E-3	3.19782E-3	-185.298E-12	680.867E-3	-16.7232E-3
-3.77439E-3	-183.464E-12	653.561E-3	10.1429E-3	-185.687E-12	645.299E-3	-36.6894E-3
-3.77939E-3	-183.313E-12	658.365E-3	-22.5596E-3	-185.354E-12	653.983E-3	-48.6795E-3
-3.78439E-3	-183.802E-12	670.986E-3	-39.5779E-3	-184.921E-12	692.248E-3	-41.8168E-3
-3.78939E-3	-183.752E-12	684.414E-3	-8.27911E-3	-184.661E-12	694.660E-3	-36.0846E-3
-3.79440E-3	-184.941E-12	691.531E-3	7.06601E-3	-185.001E-12	682.714E-3	-36.8295E-3
-3.79940E-3	-185.218E-12	666.289E-3	-1.27461E-3	-184.943E-12	669.587E-3	-50.3808E-3
-3.80440E-3	-186.347E-12	622.651E-3	-11.3324E-3	-184.908E-12	668.242E-3	-35.8455E-3
-3.80940E-3	-186.675E-12	610.764E-3	-33.5517E-3	-184.647E-12	675.755E-3	3.67719E-3
-3.81441E-3	-187.313E-12	630.404E-3	-43.8126E-3	-184.764E-12	668.919E-3	-14.8740E-3
-3.81941E-3	-187.945E-12	643.506E-3	-35.8639E-3	-185.521E-12	664.138E-3	-48.6876E-3
-3.82441E-3	-188.698E-12	650.082E-3	-42.3294E-3	-185.980E-12	665.398E-3	-37.3356E-3
-3.82941E-3	-188.926E-12	659.472E-3	-27.0942E-3	-185.898E-12	678.749E-3	-13.8182E-3
-3.83442E-3	-187.861E-12	654.460E-3	5.50046E-3	-186.558E-12	686.722E-3	11.7194E-3
-3.83942E-3	-187.399E-12	638.723E-3	16.6088E-3	-187.321E-12	683.343E-3	8.51128E-3
-3.84442E-3	-187.994E-12	637.000E-3	32.4973E-3	-187.737E-12	690.106E-3	-32.2941E-3
-3.84942E-3	-187.537E-12	644.457E-3	33.3221E-3	-188.977E-12	679.658E-3	-39.5397E-3
-3.85443E-3	-186.043E-12	642.428E-3	-856.070E-6	-188.635E-12	643.590E-3	-21.8264E-3
-3.85943E-3	-186.041E-12	641.841E-3	-28.2928E-3	-189.315E-12	639.084E-3	-32.4309E-3
-3.86443E-3	-186.448E-12	648.697E-3	-30.7805E-3	-189.221E-12	686.165E-3	-53.9849E-3
-3.86943E-3	-187.218E-12	657.175E-3	-30.9988E-3	-189.573E-12	715.733E-3	-47.2613E-3
-3.87444E-3	-187.429E-12	655.189E-3	-37.9250E-3	-189.664E-12	704.790E-3	-31.2983E-3
-3.87944E-3	-188.344E-12	647.428E-3	-27.3132E-3	-190.269E-12	682.595E-3	-21.2139E-3
-3.88444E-3	-189.350E-12	647.206E-3	-1.65898E-3	-190.507E-12	658.735E-3	-6.56477E-3
-3.88944E-3	-190.513E-12	658.309E-3	23.6080E-3	-191.373E-12	638.996E-3	9.16578E-3
-3.89445E-3	-191.717E-12	690.805E-3	42.9402E-3	-191.307E-12	631.171E-3	13.9449E-3
-3.89945E-3	-192.453E-12	701.806E-3	32.5568E-3	-191.671E-12	659.718E-3	-17.8014E-3
-3.90445E-3	-193.387E-12	673.921E-3	-445.626E-6	-191.983E-12	689.734E-3	-32.7697E-3
-3.90945E-3	-193.949E-12	657.579E-3	-37.0489E-3	-191.463E-12	682.233E-3	-3.43283E-3
-3.91446E-3	-194.775E-12	659.587E-3	-31.7985E-3	-191.276E-12	681.766E-3	13.1532E-3
-3.91946E-3	-195.099E-12	679.228E-3	13.6037E-3	-191.105E-12	684.635E-3	7.21263E-3
-3.92446E-3	-194.662E-12	700.275E-3	20.8353E-3	-191.466E-12	665.480E-3	2.66168E-3
-3.92946E-3	-193.967E-12	683.479E-3	4.74959E-3	-191.323E-12	646.724E-3	12.6351E-3
-3.93447E-3	-193.262E-12	661.256E-3	-2.56447E-3	-191.484E-12	634.277E-3	23.3016E-3
-3.93947E-3	-193.126E-12	670.209E-3	-31.2987E-3	-191.245E-12	626.373E-3	17.4784E-3
-3.94447E-3	-191.775E-12	678.132E-3	-64.3469E-3	-191.696E-12	631.481E-3	-5.29049E-3
-3.94947E-3	-191.585E-12	661.911E-3	-65.1496E-3	-192.103E-12	647.831E-3	-22.5063E-3
-3.95448E-3	-190.987E-12	655.962E-3	-39.6550E-3	-192.620E-12	665.326E-3	-20.7013E-3
-3.95948E-3	-190.590E-12	668.194E-3	-23.5164E-3	-193.128E-12	667.083E-3	-30.0829E-3
-3.96448E-3	-190.744E-12	675.911E-3	-31.4157E-3	-193.115E-12	652.948E-3	-48.5820E-3
-3.96948E-3	-190.937E-12	676.935E-3	-38.1318E-3	-194.189E-12	644.303E-3	-44.6718E-3
-3.97449E-3	-191.797E-12	664.120E-3	-20.3680E-3	-194.331E-12	649.433E-3	-43.6110E-3
-3.97949E-3	-192.257E-12	647.300E-3	-1.39604E-3	-194.776E-12	670.002E-3	-50.4346E-3
-3.98449E-3	-192.823E-12	653.315E-3	-1.51262E-3	-194.947E-12	678.115E-3	-39.5615E-3
-3.98949E-3	-193.586E-12	676.749E-3	1.68037E-3	-195.253E-12	659.646E-3	-16.6452E-3
-3.99450E-3	-194.421E-12	690.790E-3	-11.8595E-3	-195.261E-12	637.143E-3	7.44089E-3
-3.99950E-3	-195.151E-12	698.617E-3	-21.1037E-3	-195.044E-12	625.865E-3	24.6360E-3
-4.00450E-3	-195.566E-12	697.263E-3	-6.02489E-3	-194.363E-12	641.407E-3	18.2961E-3
-4.00950E-3	-195.739E-12	679.198E-3	-7.84372E-3	-193.958E-12	664.858E-3	-715.490E-6
-4.01451E-3	-196.327E-12	677.754E-3	-5.48512E-3	-194.152E-12	665.663E-3	-8.22641E-3
-4.01951E-3	-196.438E-12	689.832E-3	7.50888E-3	-193.377E-12	659.139E-3	-11.2329E-3
-4.02451E-3	-196.011E-12	691.620E-3	-3.10423E-6	-193.144E-12	677.026E-3	-11.8156E-3
-4.02951E-3	-196.127E-12	687.012E-3	-31.9224E-3	-192.811E-12	700.261E-3	-10.4428E-3
-4.03452E-3	-195.365E-12	679.600E-3	-62.5450E-3	-193.308E-12	678.870E-3	-4.36313E-3
-4.03952E-3	-195.417E-12	663.074E-3	-72.4736E-3	-193.198E-12	633.147E-3	6.08093E-3
-4.04452E-3	-195.169E-12	652.316E-3	-70.5460E-3	-194.106E-12	638.443E-3	3.34880E-3
-4.04952E-3	-195.318E-12	658.118E-3	-49.7965E-3	-193.037E-12	688.653E-3	-6.09242E-3
-4.05453E-3	-195.533E-12	654.768E-3	-20.4498E-3	-194.197E-12	701.829E-3	-4.76826E-3
-4.05953E-3	-196.120E-12	639.705E-3	-21.6259E-3	-195.041E-12	679.057E-3	-2.55006E-3
-4.06453E-3	-196.258E-12	640.871E-3	-30.2953E-3	-195.767E-12	663.103E-3	2.55446E-3
-4.06953E-3	-196.738E-12	644.366E-3	-27.8613E-3	-196.431E-12	665.768E-3	10.4765E-3
-4.07454E-3	-196.798E-12	632.113E-3	-47.8476E-3	-196.674E-12	691.526E-3	3.65720E-3
-4.07954E-3	-197.163E-12	630.119E-3	-52.8512E-3	-197.932E-12	693.580E-3	-8.40265E-3
-4.08454E-3	-197.220E-12	627.273E-3	-33.5464E-3	-198.605E-12	679.418E-3	-8.31674E-3
-4.08954E-3	-196.814E-12	614.293E-3	-32.5591E-3	-198.937E-12	680.529E-3	4.68168E-3
-4.09455E-3	-197.105E-12	614.258E-3	-27.9127E-3	-199.386E-12	659.175E-3	-2.72877E-3
-4.09955E-3	-196.948E-12	618.714E-3	-5.57841E-3	-200.316E-12	633.137E-3	-16.2114E-3
-4.10455E-3	-196.563E-12	624.948E-3	-1.70471E-3	-200.475E-12	647.132E-3	-8.57512E-3
-4.10955E-3	-196.971E-12	655.625E-3	-22.8297E-3	-200.371E-12	665.401E-3	-7.36134E-3
-4.11456E-3	-197.337E-12	691.275E-3	-37.4200E-3	-200.870E-12	663.700E-3	-5.44413E-3
-4.11956E-3	-197.495E-12	687.981E-3	-29.1471E-3	-201.049E-12	656.018E-3	-1.79820E-3
-4.12456E-3	-198.240E-12	675.473E-3	-11.6806E-3	-200.666E-12	641.887E-3	-25.9889E-3
-4.12956E-3	-200.111E-12	672.358E-3	-8.93950E-3	-200.468E-12	633.487E-3	-53.1429E-3
-4.13457E-3	-201.491E-12	653.266E-3	-26.7594E-3	-200.062E-12	637.813E-3	-52.4606E-3
-4.13957E-3	-202.351E-12	654.704E-3	-41.0441E-3	-200.189E-12	662.709E-3	-36.3757E-3
-4.14457E-3	-202.583E-12	665.639E-3	-23.2367E-3	-201.062E-12	689.671E-3	-32.7855E-3
-4.14957E-3	-203.869E-12	637.091E-3	3.46721E-3	-200.986E-12	683.893E-3	-38.1228E-3
-4.15458E-3	-204.019E-12	619.098E-3	-342.992E-6	-201.189E-12	665.967E-3	-22.8225E-3
-4.15958E-3	-204.725E-12	635.527E-3	-14.5963E-3	-201.363E-12	666.673E-3	-11.5479E-3
-4.16458E-3	-204.618E-12	655.637E-3	-10.8777E-3	-202.181E-12	669.329E-3	-5.00369E-3
-4.16958E-3	-205.046E-12	671.970E-3	-13.4406E-3	-202.727E-12	652.694E-3	20.1005E-3
-4.17459E-3	-204.800E-12	683.865E-3	-14.4167E-3	-203.848E-12	655.949E-3	20.2767E-3
-4.17959E-3	-205.313E-12	685.889E-3	-1.93296E-3	-203.598E-12	685.736E-3	-920.471E-6
-4.18459E-3	-204.910E-12	664.290E-3	-17.4305E-3	-203.783E-12	692.903E-3	-12.5625E-3
-4.18959E-3	-204.151E-12	648.691E-3	-45.1059E-3	-204.318E-12	680.377E-3	-30.1478E-3
-4.19460E-3	-203.007E-12	655.093E-3	-40.7044E-3	-204.427E-12	684.298E-3	-30.2136E-3
-4.19960E-3	-202.203E-12	666.209E-3	-19.2478E-3	-205.007E-12	694.145E-3	-24.5304E-3
-4.20460E-3	-201.651E-12	680.669E-3	-5.24158E-3	-205.269E-12	666.609E-3	-53.8850E-3
-4.20960E-3	-201.304E-12	674.953E-3	1.28482E-3	-205.695E-12	631.709E-3	-63.6422E-3
-4.21461E-3	-201.131E-12	676.566E-3	1.33350E-3	-205.550E-12	642.971E-3	-38.8277E-3
-4.21961E-3	-201.430E-12	684.772E-3	6.55368E-3	-206.220E-12	675.168E-3	-26.5945E-3
-4.22461E-3	-202.163E-12	681.085E-3	9.53967E-3	-206.000E-12	684.432E-3	-27.3758E-3
-4.22961E-3	-202.692E-12	685.263E-3	-25.5172E-3	-205.601E-12	676.635E-3	-21.9275E-3
-4.23462E-3	-203.546E-12	685.483E-3	-51.9516E-3	-205.809E-12	659.274E-3	-18.1829E-3
-4.23962E-3	-204.127E-12	669.244E-3	-14.7103E-3	-204.919E-12	650.263E-3	-22.9794E-3
-4.24462E-3	-205.716E-12	649.514E-3	20.0193E-3	-204.451E-12	681.892E-3	-27.2042E-3
-4.24962E-3	-207.030E-12	655.921E-3	12.4659E-3	-204.856E-12	709.889E-3	-34.7337E-3
-4.25463E-3	-207.829E-12	683.734E-3	-259.452E-6	-204.813E-12	695.658E-3	-38.9814E-3
-4.25963E-3	-207.786E-12	710.397E-3	-14.5797E-3	-203.881E-12	661.087E-3	-40.0469E-3
-4.26463E-3	-208.617E-12	711.811E-3	-22.0696E-3	-204.414E-12	642.130E-3	-42.6776E-3
-4.26963E-3	-208.946E-12	691.966E-3	-9.56737E-3	-204.034E-12	640.738E-3	-24.8903E-3
-4.27464E-3	-208.724E-12	653.630E-3	-1.33279E-3	-204.421E-12	646.204E-3	7.07399E-3
-4.27964E-3	-208.286E-12	628.476E-3	-733.302E-6	-203.574E-12	660.658E-3	4.54440E-3
-4.28464E-3	-207.475E-12	645.111E-3	-4.91084E-3	-203.724E-12	655.963E-3	-25.5583E-3
-4.28964E-3	-207.033E-12	657.009E-3	-39.0067E-3	-203.693E-12	654.752E-3	-40.0663E-3
-4.29465E-3	-206.055E-12	654.990E-3	-79.4075E-3	-203.787E-12	667.274E-3	-26.4358E-3
-4.29965E-3	-205.742E-12	667.441E-3	-76.2040E-3	-204.487E-12	671.040E-3	-7.46613E-3
-4.30465E-3	-205.395E-12	675.193E-3	-46.7746E-3	-205.457E-12	682.271E-3	-8.05373E-3
-4.30965E-3	-205.086E-12	659.022E-3	-28.4757E-3	-207.064E-12	673.161E-3	-14.5273E-3
-4.31466E-3	-205.713E-12	654.141E-3	-17.0511E-3	-207.870E-12	645.598E-3	-10.1388E-3
-4.31966E-3	-206.283E-12	653.730E-3	4.78075E-3	-208.211E-12	645.853E-3	16.5070E-3
-4.32466E-3	-206.742E-12	643.501E-3	5.32521E-3	-208.113E-12	645.942E-3	20.0430E-3
-4.32966E-3	-207.566E-12	656.277E-3	-13.5133E-3	-209.252E-12	632.878E-3	-4.73401E-3
-4.33467E-3	-208.384E-12	662.291E-3	-12.7900E-3	-209.505E-12	642.732E-3	12.4182E-3
-4.33967E-3	-209.336E-12	652.089E-3	-12.3880E-3	-210.164E-12	661.857E-3	28.0595E-3
-4.34467E-3	-210.824E-12	653.816E-3	-15.7391E-3	-210.154E-12	664.823E-3	-9.49863E-3
-4.34967E-3	-211.360E-12	650.773E-3	-4.36916E-3	-211.146E-12	668.000E-3	-49.2127E-3
-4.35468E-3	-212.276E-12	659.306E-3	-6.89766E-3	-211.318E-12	669.033E-3	-60.4530E-3
-4.35968E-3	-213.416E-12	672.323E-3	-15.0674E-3	-211.496E-12	662.102E-3	-32.9366E-3
-4.36468E-3	-213.455E-12	646.667E-3	9.41143E-3	-211.054E-12	662.808E-3	573.757E-6
-4.36968E-3	-214.189E-12	631.687E-3	14.2630E-3	-210.591E-12	672.126E-3	-11.1703E-3
-4.37469E-3	-213.922E-12	659.659E-3	-17.5483E-3	-211.164E-12	676.265E-3	-50.9544E-3
-4.37969E-3	-214.244E-12	678.573E-3	-21.9963E-3	-210.979E-12	672.102E-3	-62.6987E-3
-4.38469E-3	-213.850E-12	672.289E-3	-26.8085E-3	-210.921E-12	670.106E-3	-37.1169E-3
-4.38969E-3	-213.619E-12	662.032E-3	-55.4180E-3	-211.291E-12	658.996E-3	-18.0361E-3
-4.39470E-3	-213.495E-12	646.353E-3	-40.5808E-3	-210.919E-12	657.977E-3	-4.90291E-3
-4.39970E-3	-213.977E-12	617.895E-3	-11.6027E-3	-211.512E-12	669.722E-3	18.0964E-3
-4.40470E-3	-213.788E-12	616.187E-3	-20.4190E-3	-211.899E-12	662.243E-3	19.5011E-3
-4.40970E-3	-213.548E-12	650.554E-3	-10.6892E-3	-212.593E-12	659.348E-3	-7.24963E-3
-4.41471E-3	-214.056E-12	675.223E-3	7.13510E-3	-212.295E-12	681.401E-3	-26.9250E-3
-4.41971E-3	-213.780E-12	681.600E-3	-9.91059E-3	-213.260E-12	672.325E-3	-28.9360E-3
-4.42471E-3	-214.422E-12	674.382E-3	-19.9591E-3	-213.717E-12	633.825E-3	-17.9627E-3
-4.42971E-3	-213.563E-12	665.273E-3	-22.6169E-3	-214.603E-12	649.461E-3	18.4615E-3
-4.43472E-3	-213.725E-12	678.610E-3	-47.2061E-3	-214.379E-12	687.415E-3	48.6817E-3
-4.43972E-3	-213.824E-12	710.359E-3	-55.7649E-3	-215.223E-12	684.544E-3	15.5450E-3
-4.44472E-3	-214.427E-12	729.124E-3	-39.5058E-3	-215.200E-12	684.112E-3	-26.8483E-3
-4.44972E-3	-214.119E-12	714.930E-3	-40.3417E-3	-215.693E-12	691.029E-3	-33.3670E-3
-4.45473E-3	-214.321E-12	685.014E-3	-47.1894E-3	-215.193E-12	659.064E-3	-34.4916E-3
-4.45973E-3	-215.264E-12	662.208E-3	-27.8014E-3	-215.339E-12	621.137E-3	-52.3506E-3
-4.46473E-3	-215.602E-12	656.450E-3	-10.5479E-3	-215.578E-12	635.204E-3	-76.3017E-3
-4.46973E-3	-215.244E-12	661.958E-3	-41.1851E-3	-215.787E-12	681.904E-3	-66.8229E-3
-4.47474E-3	-215.378E-12	666.769E-3	-65.7062E-3	-216.034E-12	696.912E-3	-25.9782E-3
-4.47974E-3	-215.917E-12	670.527E-3	-48.6134E-3	-216.333E-12	683.820E-3	839.722E-6
-4.48474E-3	-216.576E-12	685.322E-3	-20.2692E-3	-216.026E-12	672.473E-3	-8.05712E-3
-4.48974E-3	-217.540E-12	685.168E-3	17.1418E-3	-215.510E-12	651.893E-3	-24.4119E-3
-4.49475E-3	-217.732E-12	659.853E-3	26.4180E-3	-215.735E-12	634.907E-3	-33.3873E-3
-4.49975E-3	-217.354E-12	651.289E-3	4.07481E-3	-216.063E-12	644.571E-3	-38.5684E-3
-4.50475E-3	-218.581E-12	659.994E-3	-26.3240E-3	-215.962E-12	668.902E-3	-30.0940E-3
-4.50975E-3	-218.406E-12	661.368E-3	-49.5112E-3	-216.131E-12	687.951E-3	-6.64753E-3
-4.51476E-3	-218.330E-12	662.863E-3	-41.2063E-3	-216.467E-12	694.273E-3	-1.16102E-3
-4.51976E-3	-217.087E-12	667.519E-3	-17.9763E-3	-217.239E-12	685.839E-3	-10.0182E-3
-4.52476E-3	-216.316E-12	648.491E-3	-14.5641E-3	-217.041E-12	679.802E-3	-5.16185E-3
-4.52976E-3	-216.184E-12	624.380E-3	-35.6951E-3	-217.741E-12	674.795E-3	3.30478E-3
-4.53477E-3	-216.264E-12	641.612E-3	-47.1542E-3	-217.516E-12	655.055E-3	19.2757E-3
-4.53977E-3	-215.681E-12	662.355E-3	-34.2247E-3	-217.920E-12	633.481E-3	38.8802E-3
-4.54477E-3	-215.233E-12	671.473E-3	-26.8900E-3	-218.585E-12	643.575E-3	27.9530E-3
-4.54977E-3	-215.650E-12	690.667E-3	-28.2585E-3	-219.109E-12	671.959E-3	2.40685E-3
-4.55478E-3	-216.423E-12	666.367E-3	-10.0400E-3	-218.679E-12	663.725E-3	-14.6815E-3
-4.55978E-3	-215.898E-12	634.385E-3	13.4573E-3	-219.703E-12	647.938E-3	-46.9118E-3
-4.56478E-3	-215.895E-12	653.898E-3	7.60357E-3	-220.257E-12	643.857E-3	-61.3799E-3
-4.56978E-3	-216.967E-12	669.767E-3	-10.4307E-3	-220.854E-12	647.787E-3	-43.1825E-3
-4.57479E-3	-218.774E-12	676.175E-3	-22.2670E-3	-220.297E-12	670.805E-3	-46.7087E-3
-4.57979E-3	-219.425E-12	689.486E-3	-19.8361E-3	-221.053E-12	667.869E-3	-52.7074E-3
-4.58479E-3	-219.850E-12	694.757E-3	-16.3817E-3	-221.563E-12	644.433E-3	-38.9605E-3
-4.58979E-3	-220.236E-12	684.771E-3	-31.3256E-3	-221.021E-12	646.971E-3	-28.5773E-3
-4.59480E-3	-222.280E-12	661.076E-3	-29.0183E-3	-220.612E-12	660.474E-3	-22.2059E-3
-4.59980E-3	-222.742E-12	651.237E-3	-19.2378E-3	-220.680E-12	671.217E-3	-22.5858E-3
-4.60480E-3	-223.677E-12	658.646E-3	-33.8765E-3	-221.222E-12	678.198E-3	-19.1406E-3
-4.60980E-3	-223.322E-12	676.759E-3	-59.3165E-3	-220.396E-12	681.952E-3	-8.19570E-3
-4.61481E-3	-223.471E-12	679.492E-3	-54.1429E-3	-220.254E-12	690.993E-3	-1.37258E-3
-4.61981E-3	-223.560E-12	653.328E-3	-26.4169E-3	-220.411E-12	682.995E-3	-4.13264E-3
-4.62481E-3	-224.064E-12	642.187E-3	-35.0546E-3	-221.839E-12	658.148E-3	-17.6726E-3
-4.62981E-3	-222.938E-12	642.971E-3	-49.2641E-3	-221.325E-12	664.011E-3	-24.2124E-3
-4.63482E-3	-222.313E-12	653.431E-3	-36.1376E-3	-221.545E-12	706.755E-3	-18.1702E-3
-4.63982E-3	-222.052E-12	683.378E-3	-12.9373E-3	-221.401E-12	733.104E-3	-24.2598E-3
-4.64482E-3	-221.747E-12	692.564E-3	6.12488E-3	-222.009E-12	713.143E-3	-28.3464E-3
-4.64982E-3	-221.879E-12	680.246E-3	-2.99206E-3	-221.880E-12	686.550E-3	-22.7899E-3
-4.65483E-3	-221.646E-12	687.511E-3	-34.2821E-3	-222.464E-12	660.839E-3	-31.0290E-3
-4.65983E-3	-221.596E-12	713.587E-3	-47.9049E-3	-223.108E-12	622.840E-3	-38.6849E-3
-4.66483E-3	-222.368E-12	711.925E-3	-24.9516E-3	-223.234E-12	616.505E-3	-30.9968E-3
-4.66983E-3	-223.545E-12	671.771E-3	-12.4766E-3	-224.602E-12	652.285E-3	-21.4975E-3
-4.67484E-3	-223.944E-12	644.760E-3	-9.08564E-3	-225.749E-12	691.645E-3	-14.6518E-3
-4.67984E-3	-224.123E-12	654.119E-3	6.67842E-3	-226.355E-12	704.672E-3	-8.76560E-3
-4.68484E-3	-225.136E-12	666.784E-3	-5.06440E-3	-226.718E-12	685.840E-3	-1.66030E-3
-4.68984E-3	-225.835E-12	676.751E-3	-16.2755E-3	-227.025E-12	653.063E-3	17.8453E-3
-4.69485E-3	-225.849E-12	687.683E-3	6.70564E-3	-227.787E-12	654.683E-3	15.9028E-3
-4.69985E-3	-225.841E-12	688.649E-3	20.2055E-3	-228.223E-12	676.209E-3	-24.0712E-3
-4.70485E-3	-226.220E-12	682.718E-3	15.5781E-3	-228.711E-12	652.415E-3	-50.0470E-3
-4.70985E-3	-226.788E-12	659.488E-3	14.6667E-3	-228.580E-12	621.581E-3	-42.8715E-3
-4.71486E-3	-227.453E-12	648.353E-3	2.66358E-3	-228.730E-12	614.098E-3	-26.1871E-3
-4.71986E-3	-227.078E-12	657.477E-3	-26.3260E-3	-228.815E-12	596.505E-3	-20.7514E-3
-4.72486E-3	-227.911E-12	637.250E-3	-36.1076E-3	-228.248E-12	620.201E-3	-11.8246E-3
-4.72986E-3	-228.689E-12	615.666E-3	-20.6605E-3	-227.568E-12	676.597E-3	-10.4434E-3
-4.73487E-3	-228.619E-12	638.674E-3	-29.0815E-3	-227.298E-12	668.411E-3	-28.5754E-3
-4.73987E-3	-228.129E-12	666.520E-3	-39.2156E-3	-226.895E-12	644.486E-3	-26.0487E-3
-4.74487E-3	-228.573E-12	674.525E-3	-21.7035E-3	-226.837E-12	660.346E-3	-21.5652E-3
-4.74988E-3	-228.594E-12	674.674E-3	-7.30232E-3	-226.320E-12	665.300E-3	-34.9444E-3
-4.75488E-3	-228.986E-12	661.241E-3	-16.4169E-3	-226.483E-12	663.195E-3	-32.2366E-3
-4.75988E-3	-229.191E-12	634.841E-3	-33.1639E-3	-227.381E-12	682.582E-3	-1.38329E-3
-4.76488E-3	-229.088E-12	615.338E-3	-12.8914E-3	-226.986E-12	705.103E-3	28.9530E-3
-4.76988E-3	-229.183E-12	623.095E-3	26.5562E-3	-227.718E-12	716.067E-3	25.9244E-3
-4.77489E-3	-228.957E-12	621.889E-3	37.5247E-3	-227.850E-12	716.849E-3	-4.69691E-3
-4.77989E-3	-228.985E-12	616.678E-3	19.9053E-3	-229.046E-12	708.610E-3	-41.4910E-3
-4.78489E-3	-228.876E-12	642.989E-3	8.03517E-3	-229.873E-12	713.948E-3	-59.0040E-3
-4.78989E-3	-228.602E-12	639.388E-3	-5.30925E-3	-231.222E-12	732.943E-3	-39.5485E-3
-4.79490E-3	-228.249E-12	617.010E-3	-39.3646E-3	-231.462E-12	717.348E-3	-28.3853E-3
-4.79990E-3	-228.046E-12	627.285E-3	-42.1558E-3	-232.462E-12	682.039E-3	-42.6153E-3
-4.80490E-3	-228.279E-12	643.043E-3	-801.783E-6	-232.761E-12	675.238E-3	-35.4797E-3
-4.80990E-3	-227.178E-12	637.281E-3	11.5550E-3	-232.644E-12	680.778E-3	-21.6742E-3
-4.81491E-3	-227.734E-12	624.441E-3	-13.1658E-3	-233.144E-12	681.039E-3	-24.2072E-3
-4.81991E-3	-228.631E-12	650.034E-3	-38.6566E-3	-232.577E-12	697.276E-3	-29.0423E-3
-4.82491E-3	-229.088E-12	684.366E-3	-44.8858E-3	-232.470E-12	705.394E-3	-21.4947E-3
-4.82991E-3	-229.080E-12	674.850E-3	-32.1174E-3	-231.708E-12	673.358E-3	-7.21554E-3
-4.83492E-3	-230.237E-12	670.349E-3	-39.8362E-3	-231.137E-12	655.212E-3	-609.018E-6
-4.83992E-3	-231.376E-12	681.065E-3	-44.8118E-3	-229.755E-12	672.955E-3	5.07343E-3
-4.84492E-3	-233.353E-12	664.082E-3	-19.8937E-3	-229.472E-12	660.844E-3	-3.68672E-3
-4.84992E-3	-233.438E-12	658.947E-3	-22.4080E-3	-228.633E-12	638.286E-3	-27.3729E-3
-4.85493E-3	-233.665E-12	661.633E-3	-53.5118E-3	-227.759E-12	653.946E-3	-39.8682E-3
-4.85993E-3	-233.413E-12	665.468E-3	-60.6453E-3	-227.844E-12	655.893E-3	-40.5961E-3
-4.86493E-3	-233.875E-12	681.132E-3	-48.0309E-3	-228.479E-12	645.558E-3	-32.4924E-3
-4.86993E-3	-232.916E-12	664.723E-3	-25.4541E-3	-229.236E-12	669.644E-3	-40.8544E-3
-4.87494E-3	-231.892E-12	661.625E-3	-13.0618E-3	-229.699E-12	689.052E-3	-57.8408E-3
-4.87994E-3	-231.468E-12	705.900E-3	-24.9823E-3	-230.100E-12	690.852E-3	-37.1406E-3
-4.88494E-3	-231.372E-12	713.274E-3	-31.5013E-3	-230.725E-12	695.946E-3	-3.82685E-3
-4.88995E-3	-230.756E-12	668.576E-3	-13.8850E-3	-231.531E-12	694.329E-3	7.81144E-3
-4.89495E-3	-230.144E-12	648.301E-3	11.3709E-3	-231.969E-12	676.374E-3	-2.64712E-3
-4.89995E-3	-230.751E-12	651.014E-3	-3.35134E-3	-232.470E-12	658.115E-3	-19.9602E-3
-4.90495E-3	-230.871E-12	658.636E-3	-47.3890E-3	-233.360E-12	667.534E-3	-21.7172E-3
-4.90995E-3	-231.664E-12	679.794E-3	-52.2046E-3	-234.713E-12	660.772E-3	-29.8642E-3
-4.91496E-3	-232.478E-12	676.526E-3	-31.7971E-3	-235.766E-12	629.106E-3	-33.8155E-3
-4.91996E-3	-233.086E-12	652.313E-3	-44.8579E-3	-236.506E-12	632.969E-3	-27.5792E-3
-4.92496E-3	-233.383E-12	633.154E-3	-82.7980E-3	-237.287E-12	668.561E-3	-32.7712E-3
-4.92996E-3	-234.919E-12	634.490E-3	-77.2486E-3	-237.418E-12	683.862E-3	-23.1707E-3
-4.93497E-3	-236.641E-12	679.085E-3	-30.1267E-3	-238.167E-12	670.183E-3	-29.3469E-3
-4.93997E-3	-238.175E-12	715.138E-3	-15.3632E-3	-238.330E-12	655.744E-3	-49.0141E-3
-4.94497E-3	-239.662E-12	692.581E-3	-22.8113E-3	-238.720E-12	654.695E-3	-38.6147E-3
-4.94997E-3	-240.421E-12	649.359E-3	-8.84882E-3	-238.210E-12	666.723E-3	-38.1701E-3
-4.95498E-3	-241.001E-12	628.755E-3	10.8970E-3	-238.334E-12	649.478E-3	-60.1428E-3
-4.95998E-3	-241.300E-12	633.174E-3	555.647E-6	-238.080E-12	614.087E-3	-54.2477E-3
-4.96498E-3	-241.528E-12	640.447E-3	-24.8151E-3	-238.404E-12	631.339E-3	-33.8337E-3
-4.96998E-3	-240.719E-12	660.343E-3	-25.2721E-3	-237.827E-12	665.783E-3	-50.3730E-3
-4.97499E-3	-240.430E-12	682.281E-3	-12.3932E-3	-236.953E-12	679.545E-3	-48.0908E-3
-4.97999E-3	-239.880E-12	675.050E-3	-14.9416E-3	-236.951E-12	689.330E-3	6.09603E-3
-4.98499E-3	-239.197E-12	656.784E-3	2.51923E-3	-237.431E-12	672.468E-3	21.0939E-3
-4.98999E-3	-239.638E-12	654.802E-3	50.9490E-3	-237.095E-12	651.418E-3	-15.7597E-3
-4.99500E-3	-239.519E-12	666.421E-3	39.6167E-3	-238.039E-12	661.051E-3	-34.5720E-3
-5.00000E-3	-239.118E-12	670.254E-3	-23.3890E-3	-238.331E-12	669.254E-3	-43.0586E-3
