Experiment	bias spectroscopy	
Date	19.01.2016 22:13:56	
User		
X (m)	49.1581E-9	
Y (m)	257.169E-9	
Z (m)	-132.614E-9	
Z offset (m)	0E+0	
Settling time (s)	200E-6	
Integration time (s)	5E-3	
Z-Ctrl hold	TRUE	
Final Z (m)	N/A	
Filter type	None	
Order		
Cutoff frq		
Comment01	MnPc/Pb(111)	
Comment02	dz =00pm	
Comment03	7 Sweeps	
Comment04	MagField =0.T	
Comment05	Divider 1:10	
Comment06	Setpoint:5mV,200 pA	
Comment07	Lockin: 50uVrms,5ms,5mV	
Comment08	Gain:9; 912Hz modulation	
Comment09	T=1.06K	
Bias>Bias (V)	5E-3	
Bias>Calibration (V/V)	81.475E-3	
Bias>Offset (V)	1.046E-3	
Bias Spectroscopy>Sweep Start (V)	5E-3	
Bias Spectroscopy>Sweep End (V)	-5E-3	
Bias Spectroscopy>Num Pixel	2000	
Bias Spectroscopy>Z Avg time (s)	500E-3	
Bias Spectroscopy>Z offset (m)	0E+0	
Bias Spectroscopy>1st Settling time (s)	500E-3	
Bias Spectroscopy>Settling time (s)	200E-6	
Bias Spectroscopy>Integration time (s)	5E-3	
Bias Spectroscopy>End Settling time (s)	500E-3	
Bias Spectroscopy>Z control time (s)	500E-3	
Bias Spectroscopy>Max Slew rate (V/s)	Inf	
Bias Spectroscopy>backward sweep	TRUE	
Bias Spectroscopy>Z-controller hold	TRUE	
Bias Spectroscopy>Number of sweeps	7	
Bias Spectroscopy>Channels	Current (A);X% LockIn (V);Y% LockIn (V)	
Bias Spectroscopy>Reset Bias	TRUE	
Bias Spectroscopy>Record final Z	FALSE	
Bias Spectroscopy>Lock-In run	FALSE	
Bias Spectroscopy>Sweep mode	Linear	
Bias Spectroscopy>MultiLine Settings : Segment Start (V), Segment End (V), Settling (s), Integration (s), Steps (xn)	100E-3,3.3E-3,100E-6,10E-3,2500;3.3E-3,-3.3E-3,100E-6,10E-3,10;-3.3E-3,-100E-3,100E-6,10E-3,2500	
Current>Current (A)	200.072E-12	
Current>Calibration (A/V)	999.99900E-12	
Current>Offset (A)	-455.429E-15	
Current>Gain	LN 10^9	
Z-Controller>Z (m)	-132.616E-9	
Z-Controller>Controller name	log Current	
Z-Controller>Controller status	ON	
Z-Controller>Setpoint	200E-12	
Z-Controller>Setpoint unit	A	
Z-Controller>P gain	2.96994E-12	
Z-Controller>I gain	67.0321E-9	
Z-Controller>Time const (s)	44.3062E-6	
Z-Controller>TipLift (m)	0E+0	
Z-Controller>Switch off delay (s)	50E-3	
Current (A)	199.91E-12	
Z (m)	-132.616E-9	

[DATA]
Bias calc (V)	Current (A)	X% LockIn (V)	Y% LockIn (V)	Current [bwd] (A)	X% LockIn [bwd] (V)	Y% LockIn [bwd] (V)
5.00000E-3	198.139E-12	669.098E-3	-28.1661E-3	202.896E-12	659.487E-3	-13.8198E-3
4.99500E-3	196.713E-12	686.039E-3	-37.9239E-3	200.265E-12	676.172E-3	-9.03115E-3
4.98999E-3	197.949E-12	666.462E-3	-33.6084E-3	200.166E-12	663.277E-3	-29.2037E-3
4.98499E-3	197.420E-12	640.814E-3	-27.5804E-3	202.106E-12	649.916E-3	-31.7576E-3
4.97999E-3	197.330E-12	636.767E-3	-29.2512E-3	202.551E-12	674.541E-3	-17.0666E-3
4.97499E-3	196.052E-12	640.326E-3	-51.8925E-3	200.300E-12	701.712E-3	-11.9486E-3
4.96998E-3	196.290E-12	655.871E-3	-61.2034E-3	199.751E-12	709.278E-3	-15.3833E-3
4.96498E-3	197.617E-12	657.904E-3	-36.5919E-3	201.576E-12	682.385E-3	-15.9646E-3
4.95998E-3	197.832E-12	635.277E-3	-30.6021E-3	200.842E-12	658.051E-3	-11.5717E-3
4.95498E-3	198.082E-12	626.492E-3	-43.1710E-3	199.929E-12	676.055E-3	-13.3503E-3
4.94997E-3	198.865E-12	646.496E-3	-42.0264E-3	197.641E-12	709.619E-3	-26.7792E-3
4.94497E-3	199.304E-12	672.180E-3	-35.9172E-3	199.669E-12	717.792E-3	-21.9022E-3
4.93997E-3	199.488E-12	678.734E-3	-53.0699E-3	199.395E-12	691.214E-3	-19.9571E-3
4.93497E-3	198.472E-12	674.376E-3	-65.0985E-3	199.406E-12	668.362E-3	-40.1234E-3
4.92996E-3	199.200E-12	681.966E-3	-58.5873E-3	197.411E-12	670.858E-3	-57.1591E-3
4.92496E-3	199.624E-12	691.897E-3	-48.8417E-3	196.569E-12	683.321E-3	-52.5948E-3
4.91996E-3	199.589E-12	696.938E-3	-27.5821E-3	195.624E-12	690.796E-3	-21.0372E-3
4.91496E-3	196.933E-12	692.273E-3	-15.0837E-3	194.663E-12	675.759E-3	-18.5907E-3
4.90995E-3	196.854E-12	685.410E-3	-26.3079E-3	193.862E-12	647.260E-3	-54.5524E-3
4.90495E-3	196.007E-12	688.856E-3	-39.9950E-3	194.101E-12	632.851E-3	-70.2177E-3
4.89995E-3	194.972E-12	676.906E-3	-25.2578E-3	193.298E-12	649.580E-3	-62.0274E-3
4.89495E-3	193.474E-12	660.164E-3	-5.14907E-3	193.631E-12	676.989E-3	-31.5917E-3
4.88995E-3	193.329E-12	657.326E-3	-16.2372E-3	194.019E-12	667.285E-3	-1.29446E-3
4.88494E-3	194.258E-12	653.303E-3	-25.4476E-3	193.539E-12	641.274E-3	-6.46963E-3
4.87994E-3	193.610E-12	646.746E-3	4.32971E-3	193.656E-12	638.890E-3	-15.3337E-3
4.87494E-3	193.721E-12	639.746E-3	21.7622E-3	194.522E-12	652.728E-3	-17.3110E-3
4.86993E-3	194.263E-12	643.460E-3	6.51712E-3	195.862E-12	678.062E-3	-29.2635E-3
4.86493E-3	194.817E-12	659.868E-3	-2.75324E-3	196.054E-12	697.422E-3	-28.2440E-3
4.85993E-3	194.961E-12	665.745E-3	-2.83261E-3	195.225E-12	720.322E-3	-18.1458E-3
4.85493E-3	194.516E-12	654.945E-3	5.84242E-3	196.077E-12	751.297E-3	-12.2148E-3
4.84992E-3	194.829E-12	646.075E-3	4.27127E-3	197.232E-12	738.550E-3	-4.55457E-3
4.84492E-3	194.897E-12	665.209E-3	-31.0214E-3	197.006E-12	694.520E-3	7.32817E-3
4.83992E-3	195.248E-12	698.131E-3	-60.2722E-3	195.347E-12	673.255E-3	14.7296E-3
4.83492E-3	194.703E-12	704.973E-3	-38.5899E-3	195.058E-12	672.477E-3	-5.95455E-3
4.82991E-3	193.014E-12	695.243E-3	-6.84704E-3	195.586E-12	663.139E-3	-27.4567E-3
4.82491E-3	191.671E-12	681.707E-3	3.25095E-3	193.743E-12	665.233E-3	-18.3153E-3
4.81991E-3	191.029E-12	654.989E-3	4.25831E-3	191.467E-12	688.570E-3	5.24100E-3
4.81491E-3	190.812E-12	625.608E-3	-149.850E-6	189.624E-12	689.025E-3	15.6493E-3
4.80990E-3	189.074E-12	616.964E-3	-9.07003E-3	189.967E-12	674.268E-3	-8.02412E-3
4.80490E-3	188.600E-12	622.841E-3	-7.16092E-3	190.315E-12	664.999E-3	-30.1636E-3
4.79990E-3	186.804E-12	627.224E-3	14.9627E-3	188.939E-12	655.119E-3	-16.8245E-3
4.79490E-3	187.118E-12	633.359E-3	22.8569E-3	188.673E-12	656.012E-3	18.0436E-3
4.78989E-3	186.390E-12	653.357E-3	3.52931E-3	189.074E-12	665.317E-3	27.7908E-3
4.78489E-3	187.398E-12	673.071E-3	-21.0489E-3	191.250E-12	658.728E-3	-5.02981E-3
4.77989E-3	187.318E-12	663.407E-3	-28.9331E-3	192.289E-12	641.850E-3	-29.2107E-3
4.77489E-3	187.524E-12	647.036E-3	-10.1822E-3	192.227E-12	658.807E-3	-19.3435E-3
4.76988E-3	188.631E-12	649.904E-3	10.3066E-3	192.701E-12	683.235E-3	-2.18332E-3
4.76488E-3	189.398E-12	668.093E-3	847.787E-6	194.763E-12	673.248E-3	-13.4727E-3
4.75988E-3	189.665E-12	671.903E-3	-5.37092E-3	195.948E-12	667.680E-3	-20.6401E-3
4.75488E-3	189.309E-12	667.924E-3	-4.50902E-3	193.014E-12	684.555E-3	-15.6514E-3
4.74988E-3	190.606E-12	673.467E-3	-12.9196E-3	191.672E-12	698.669E-3	-20.9340E-3
4.74487E-3	190.304E-12	679.576E-3	-10.9063E-3	190.006E-12	678.738E-3	-14.3781E-3
4.73987E-3	190.845E-12	677.119E-3	-7.29436E-3	191.587E-12	631.013E-3	-14.8528E-3
4.73487E-3	189.702E-12	678.800E-3	-11.2301E-3	189.809E-12	610.875E-3	-31.9266E-3
4.72986E-3	188.970E-12	682.335E-3	-13.4824E-3	186.261E-12	637.722E-3	-52.1241E-3
4.72486E-3	187.406E-12	672.908E-3	-12.2236E-3	184.747E-12	660.061E-3	-56.4310E-3
4.71986E-3	187.271E-12	677.624E-3	-25.6464E-3	184.534E-12	659.044E-3	-34.0726E-3
4.71486E-3	186.731E-12	681.241E-3	-38.0907E-3	185.282E-12	639.455E-3	-14.7254E-3
4.70985E-3	185.890E-12	650.770E-3	-43.4748E-3	183.054E-12	631.574E-3	-23.4240E-3
4.70485E-3	184.921E-12	619.952E-3	-47.5902E-3	182.489E-12	654.619E-3	-45.9076E-3
4.69985E-3	184.982E-12	611.349E-3	-48.5288E-3	182.665E-12	667.848E-3	-58.5586E-3
4.69485E-3	185.122E-12	627.280E-3	-37.4708E-3	185.271E-12	667.946E-3	-31.6933E-3
4.68984E-3	185.032E-12	656.552E-3	-19.0757E-3	185.158E-12	689.742E-3	7.89845E-3
4.68484E-3	185.533E-12	663.989E-3	-21.6708E-3	185.934E-12	724.902E-3	-8.66739E-3
4.67984E-3	185.977E-12	657.852E-3	-26.2652E-3	186.700E-12	721.842E-3	-48.4489E-3
4.67484E-3	185.669E-12	661.321E-3	-14.7870E-3	189.088E-12	712.702E-3	-47.6063E-3
4.66983E-3	185.840E-12	653.978E-3	-12.6870E-3	189.940E-12	707.200E-3	-37.4459E-3
4.66483E-3	185.475E-12	639.979E-3	-19.3666E-3	189.274E-12	676.931E-3	-41.9230E-3
4.65983E-3	185.658E-12	648.820E-3	-21.2637E-3	187.654E-12	665.479E-3	-52.3155E-3
4.65483E-3	186.275E-12	668.399E-3	-32.0408E-3	187.159E-12	667.957E-3	-59.2042E-3
4.64982E-3	185.629E-12	696.184E-3	-31.9871E-3	187.497E-12	674.510E-3	-37.5550E-3
4.64482E-3	184.965E-12	720.473E-3	-21.7168E-3	185.719E-12	693.003E-3	-16.8230E-3
4.63982E-3	183.576E-12	719.893E-3	-13.3313E-3	183.435E-12	693.585E-3	-15.3549E-3
4.63482E-3	183.514E-12	698.870E-3	-20.0124E-3	182.208E-12	679.331E-3	-2.90002E-3
4.62981E-3	183.155E-12	666.501E-3	-45.5794E-3	182.522E-12	657.848E-3	9.54134E-3
4.62481E-3	183.563E-12	657.904E-3	-44.0206E-3	180.965E-12	634.374E-3	7.04973E-3
4.61981E-3	183.539E-12	666.852E-3	-16.1523E-3	178.909E-12	648.605E-3	-5.91359E-3
4.61481E-3	182.529E-12	667.984E-3	-5.47217E-3	178.529E-12	674.912E-3	-3.66323E-3
4.60980E-3	181.650E-12	668.136E-3	-26.0537E-3	178.881E-12	667.025E-3	-4.96811E-3
4.60480E-3	182.135E-12	674.568E-3	-33.1700E-3	179.422E-12	658.435E-3	-47.8228E-3
4.59980E-3	181.416E-12	687.705E-3	-24.7475E-3	179.765E-12	650.131E-3	-49.3254E-3
4.59480E-3	180.435E-12	699.576E-3	-32.0795E-3	181.027E-12	640.825E-3	-12.6010E-3
4.58979E-3	180.150E-12	709.469E-3	-33.4267E-3	182.148E-12	653.454E-3	-19.9983E-3
4.58479E-3	180.837E-12	696.800E-3	-35.6339E-3	183.608E-12	673.392E-3	-36.4518E-3
4.57979E-3	181.273E-12	657.573E-3	-24.1285E-3	184.676E-12	684.223E-3	-26.6230E-3
4.57479E-3	180.367E-12	645.155E-3	-5.49170E-3	184.048E-12	688.032E-3	-16.7294E-3
4.56978E-3	179.438E-12	665.838E-3	-12.3047E-3	183.763E-12	678.340E-3	-27.0956E-3
4.56478E-3	180.662E-12	675.958E-3	-15.3861E-3	184.436E-12	652.534E-3	-46.9425E-3
4.55978E-3	181.340E-12	682.910E-3	-23.0679E-3	184.410E-12	648.579E-3	-57.4175E-3
4.55478E-3	179.930E-12	681.203E-3	-25.7351E-3	182.705E-12	668.633E-3	-46.7522E-3
4.54977E-3	178.742E-12	666.035E-3	-19.1527E-3	181.129E-12	678.511E-3	-15.4324E-3
4.54477E-3	179.360E-12	672.666E-3	-41.5772E-3	180.438E-12	684.440E-3	11.6024E-3
4.53977E-3	180.666E-12	679.544E-3	-47.2063E-3	179.878E-12	686.808E-3	26.5492E-3
4.53477E-3	180.493E-12	664.851E-3	-33.1562E-3	178.925E-12	680.581E-3	30.8767E-3
4.52976E-3	178.895E-12	661.816E-3	-37.6822E-3	178.039E-12	683.721E-3	11.1740E-3
4.52476E-3	179.361E-12	677.155E-3	-36.1817E-3	176.696E-12	673.927E-3	-15.7616E-3
4.51976E-3	179.872E-12	683.397E-3	-4.60758E-3	175.498E-12	651.134E-3	-29.2740E-3
4.51476E-3	180.122E-12	679.388E-3	27.1787E-3	176.153E-12	650.129E-3	-21.1898E-3
4.50975E-3	180.373E-12	673.954E-3	19.5517E-3	175.994E-12	639.948E-3	-13.7607E-3
4.50475E-3	179.792E-12	658.819E-3	-9.26517E-3	176.008E-12	637.010E-3	-21.8738E-3
4.49975E-3	178.901E-12	638.334E-3	-32.2398E-3	175.117E-12	659.845E-3	-23.1900E-3
4.49475E-3	178.649E-12	635.871E-3	-21.5809E-3	175.875E-12	674.812E-3	-33.0371E-3
4.48974E-3	179.096E-12	656.792E-3	2.46279E-3	175.973E-12	688.043E-3	-37.1179E-3
4.48474E-3	178.872E-12	654.741E-3	-692.766E-6	176.976E-12	689.014E-3	-29.9288E-3
4.47974E-3	178.127E-12	627.623E-3	-3.77005E-3	175.565E-12	673.286E-3	-41.9771E-3
4.47474E-3	176.565E-12	615.316E-3	1.93375E-3	175.401E-12	661.410E-3	-54.9958E-3
4.46973E-3	176.289E-12	613.360E-3	-13.5597E-3	174.826E-12	665.855E-3	-39.0523E-3
4.46473E-3	176.699E-12	619.036E-3	-30.6451E-3	175.837E-12	681.758E-3	-9.53558E-3
4.45973E-3	175.847E-12	637.101E-3	-23.6237E-3	175.402E-12	696.263E-3	7.27289E-3
4.45473E-3	176.041E-12	652.860E-3	-19.2163E-3	174.214E-12	687.770E-3	7.98404E-3
4.44972E-3	175.344E-12	649.743E-3	-23.4328E-3	173.650E-12	662.831E-3	-4.57389E-3
4.44472E-3	175.463E-12	634.547E-3	-7.06857E-3	172.769E-12	654.444E-3	-6.80450E-3
4.43972E-3	175.191E-12	639.430E-3	8.64169E-3	173.097E-12	654.165E-3	14.3633E-3
4.43472E-3	175.140E-12	655.481E-3	-16.9626E-3	172.415E-12	645.692E-3	28.1110E-3
4.42971E-3	175.561E-12	666.665E-3	-37.1584E-3	172.036E-12	644.228E-3	13.1264E-3
4.42471E-3	175.208E-12	682.293E-3	-16.5900E-3	172.509E-12	653.123E-3	-923.000E-6
4.41971E-3	175.407E-12	686.609E-3	-9.68755E-3	173.175E-12	653.007E-3	-8.30102E-3
4.41471E-3	173.835E-12	685.582E-3	-40.9866E-3	173.849E-12	632.155E-3	-35.6845E-3
4.40970E-3	173.719E-12	681.931E-3	-52.4717E-3	172.433E-12	620.962E-3	-65.4941E-3
4.40470E-3	173.414E-12	674.715E-3	-33.9915E-3	172.108E-12	641.336E-3	-55.4384E-3
4.39970E-3	173.602E-12	666.629E-3	-23.4873E-3	172.021E-12	660.654E-3	-27.6465E-3
4.39470E-3	171.780E-12	646.367E-3	2.88008E-3	173.327E-12	664.235E-3	-18.6367E-3
4.38969E-3	170.771E-12	632.274E-3	25.5640E-3	172.683E-12	651.170E-3	-15.8882E-3
4.38469E-3	170.827E-12	652.774E-3	7.52922E-3	171.677E-12	629.855E-3	-19.4105E-3
4.37969E-3	171.639E-12	660.253E-3	4.11608E-3	171.097E-12	618.897E-3	-20.3232E-3
4.37469E-3	171.553E-12	640.161E-3	27.3026E-3	171.632E-12	624.474E-3	-6.96575E-3
4.36968E-3	169.866E-12	645.796E-3	26.4502E-3	171.848E-12	638.284E-3	-9.49037E-3
4.36468E-3	169.686E-12	659.833E-3	7.56384E-3	171.111E-12	658.486E-3	-11.0640E-3
4.35968E-3	170.788E-12	655.010E-3	-14.0274E-3	171.185E-12	681.836E-3	1.52353E-3
4.35468E-3	171.341E-12	644.576E-3	-18.2929E-3	171.994E-12	681.993E-3	-9.22329E-3
4.34967E-3	171.099E-12	628.880E-3	183.139E-6	173.263E-12	673.689E-3	-21.2762E-3
4.34467E-3	170.500E-12	619.129E-3	-6.10932E-3	173.816E-12	676.998E-3	-6.29823E-3
4.33967E-3	172.322E-12	637.819E-3	-16.9280E-3	172.692E-12	671.957E-3	6.04939E-3
4.33467E-3	172.876E-12	647.996E-3	-1.97119E-3	172.834E-12	668.699E-3	3.22171E-3
4.32966E-3	174.251E-12	648.752E-3	7.25139E-3	174.570E-12	675.604E-3	-2.66344E-3
4.32466E-3	172.577E-12	676.882E-3	4.60400E-3	174.830E-12	669.359E-3	2.34314E-3
4.31966E-3	172.165E-12	690.617E-3	2.32623E-3	172.130E-12	675.255E-3	15.0117E-3
4.31466E-3	172.146E-12	670.147E-3	-6.33888E-3	171.647E-12	692.859E-3	-97.5691E-6
4.30965E-3	173.311E-12	669.159E-3	-27.4137E-3	171.325E-12	670.759E-3	-12.5251E-3
4.30465E-3	172.778E-12	674.925E-3	-34.3664E-3	170.401E-12	637.956E-3	2.94545E-3
4.29965E-3	172.105E-12	661.945E-3	-6.08662E-3	167.688E-12	642.153E-3	3.96184E-3
4.29465E-3	171.862E-12	671.807E-3	20.8830E-3	167.340E-12	665.962E-3	-3.47892E-3
4.28964E-3	170.697E-12	685.417E-3	27.8972E-3	165.770E-12	674.945E-3	-10.5351E-3
4.28464E-3	169.414E-12	675.704E-3	18.5484E-3	166.505E-12	677.984E-3	-34.8574E-3
4.27964E-3	168.543E-12	661.390E-3	-2.29559E-3	165.109E-12	679.910E-3	-51.1909E-3
4.27464E-3	168.103E-12	640.198E-3	-9.36034E-3	164.897E-12	666.803E-3	-25.6257E-3
4.26963E-3	167.976E-12	643.026E-3	-1.24390E-3	164.798E-12	659.371E-3	5.84807E-3
4.26463E-3	167.656E-12	671.529E-3	-1.71258E-3	165.334E-12	666.930E-3	5.02039E-3
4.25963E-3	167.848E-12	675.950E-3	-14.7237E-3	167.023E-12	683.787E-3	-9.91703E-3
4.25463E-3	168.198E-12	660.687E-3	-24.8690E-3	167.260E-12	686.709E-3	-10.8079E-3
4.24962E-3	168.670E-12	654.525E-3	-29.7496E-3	167.067E-12	667.928E-3	-15.0897E-3
4.24462E-3	167.603E-12	662.122E-3	-28.7676E-3	167.412E-12	662.859E-3	-27.2268E-3
4.23962E-3	168.123E-12	665.228E-3	-20.0242E-3	169.340E-12	679.100E-3	-21.8643E-3
4.23462E-3	168.802E-12	668.809E-3	-24.1915E-3	169.050E-12	687.986E-3	-16.5821E-3
4.22961E-3	168.184E-12	671.180E-3	-39.0774E-3	167.572E-12	680.289E-3	-25.6554E-3
4.22461E-3	167.303E-12	668.048E-3	-30.7445E-3	166.693E-12	659.684E-3	-32.6434E-3
4.21961E-3	166.978E-12	688.066E-3	-9.22787E-3	166.672E-12	656.166E-3	-26.4663E-3
4.21461E-3	167.711E-12	698.836E-3	9.03956E-3	165.410E-12	674.382E-3	-1.08983E-3
4.20960E-3	166.593E-12	678.225E-3	5.89451E-3	163.206E-12	663.273E-3	5.24042E-3
4.20460E-3	166.300E-12	670.912E-3	-31.1333E-3	162.087E-12	643.248E-3	-18.0578E-3
4.19960E-3	164.990E-12	687.852E-3	-39.9676E-3	161.116E-12	651.069E-3	-28.0001E-3
4.19460E-3	165.224E-12	689.411E-3	-10.9159E-3	159.539E-12	670.609E-3	-42.5176E-3
4.18959E-3	163.522E-12	678.870E-3	-20.6628E-3	158.885E-12	675.328E-3	-60.6306E-3
4.18459E-3	163.454E-12	670.304E-3	-49.5220E-3	158.469E-12	658.307E-3	-38.4822E-3
4.17959E-3	163.199E-12	657.217E-3	-38.0962E-3	158.754E-12	648.599E-3	347.500E-6
4.17459E-3	163.215E-12	674.397E-3	-28.3726E-3	158.872E-12	660.774E-3	13.1014E-3
4.16958E-3	161.413E-12	698.133E-3	-33.2323E-3	159.069E-12	662.737E-3	-3.30234E-3
4.16458E-3	159.904E-12	678.432E-3	-7.98751E-3	160.581E-12	655.921E-3	-10.4919E-3
4.15958E-3	160.565E-12	636.768E-3	22.3877E-3	162.393E-12	667.700E-3	1.33884E-3
4.15458E-3	161.226E-12	620.830E-3	1.40796E-3	164.298E-12	689.455E-3	4.57534E-3
4.14957E-3	161.242E-12	639.950E-3	-33.6221E-3	164.193E-12	696.552E-3	5.40557E-3
4.14457E-3	160.922E-12	650.410E-3	-16.5255E-3	165.411E-12	694.472E-3	-3.46545E-3
4.13957E-3	161.422E-12	646.163E-3	12.6374E-3	166.036E-12	682.794E-3	-12.1805E-3
4.13457E-3	162.087E-12	657.384E-3	16.5965E-3	166.744E-12	664.866E-3	67.6706E-6
4.12956E-3	162.651E-12	669.841E-3	5.19069E-3	166.038E-12	664.989E-3	-3.11689E-3
4.12456E-3	162.260E-12	662.410E-3	-14.2202E-3	163.952E-12	668.361E-3	-16.6337E-3
4.11956E-3	161.736E-12	649.891E-3	-28.2155E-3	163.765E-12	665.708E-3	-15.9503E-3
4.11456E-3	162.230E-12	643.101E-3	-18.8062E-3	162.167E-12	659.725E-3	-27.4794E-3
4.10955E-3	162.101E-12	644.140E-3	-1.32458E-3	161.723E-12	645.311E-3	-29.7384E-3
4.10455E-3	162.743E-12	666.692E-3	-6.89596E-3	158.891E-12	633.707E-3	-19.7803E-3
4.09955E-3	161.585E-12	679.128E-3	-25.0668E-3	157.944E-12	634.417E-3	-24.4272E-3
4.09455E-3	161.535E-12	659.364E-3	-36.2822E-3	157.737E-12	644.631E-3	-31.7078E-3
4.08954E-3	161.721E-12	654.149E-3	-37.9106E-3	157.517E-12	647.638E-3	-46.0402E-3
4.08454E-3	161.857E-12	668.058E-3	-38.0686E-3	156.864E-12	650.507E-3	-48.6284E-3
4.07954E-3	159.943E-12	683.792E-3	-38.7596E-3	156.540E-12	675.789E-3	-22.8569E-3
4.07454E-3	158.487E-12	691.676E-3	-39.5799E-3	157.169E-12	687.027E-3	-13.1189E-3
4.06953E-3	158.655E-12	676.399E-3	-40.0180E-3	157.447E-12	674.022E-3	-22.2821E-3
4.06453E-3	158.843E-12	663.016E-3	-29.9466E-3	158.700E-12	663.350E-3	-28.6479E-3
4.05953E-3	158.901E-12	652.671E-3	-23.2156E-3	158.901E-12	660.581E-3	-24.1752E-3
4.05453E-3	157.508E-12	628.234E-3	-30.4596E-3	159.249E-12	666.909E-3	4.10525E-3
4.04952E-3	157.799E-12	627.948E-3	-39.5035E-3	158.803E-12	663.317E-3	1.10433E-3
4.04452E-3	158.110E-12	667.928E-3	-33.6083E-3	159.708E-12	658.342E-3	-39.0320E-3
4.03952E-3	158.214E-12	691.153E-3	-16.5072E-3	160.571E-12	667.403E-3	-49.1441E-3
4.03452E-3	155.955E-12	687.070E-3	-17.4557E-3	158.537E-12	672.952E-3	-35.4932E-3
4.02951E-3	155.514E-12	684.891E-3	-37.3704E-3	156.982E-12	674.680E-3	-13.6683E-3
4.02451E-3	155.795E-12	689.529E-3	-48.9919E-3	155.649E-12	674.081E-3	10.9820E-3
4.01951E-3	156.753E-12	684.243E-3	-38.0612E-3	156.449E-12	667.753E-3	12.8245E-3
4.01451E-3	156.670E-12	668.924E-3	-25.8073E-3	154.681E-12	666.434E-3	1.81236E-3
4.00950E-3	156.037E-12	668.935E-3	-27.4344E-3	153.916E-12	659.528E-3	-15.1001E-3
4.00450E-3	155.781E-12	679.823E-3	-23.5307E-3	151.857E-12	639.668E-3	-30.0268E-3
3.99950E-3	155.729E-12	683.466E-3	-19.2686E-3	152.745E-12	631.434E-3	-29.5436E-3
3.99450E-3	155.271E-12	675.324E-3	-20.8099E-3	153.926E-12	643.404E-3	-28.2342E-3
3.98949E-3	153.909E-12	659.935E-3	-15.0606E-3	153.344E-12	656.768E-3	-21.0213E-3
3.98449E-3	153.913E-12	649.859E-3	-14.5292E-3	153.036E-12	666.510E-3	-13.7092E-3
3.97949E-3	153.860E-12	662.398E-3	-31.7922E-3	152.287E-12	680.798E-3	-21.7891E-3
3.97449E-3	154.158E-12	661.343E-3	-51.3182E-3	154.144E-12	676.556E-3	-26.6373E-3
3.96948E-3	153.490E-12	648.466E-3	-48.8794E-3	154.585E-12	657.123E-3	-9.16418E-3
3.96448E-3	154.138E-12	649.901E-3	-30.4080E-3	154.516E-12	656.335E-3	10.3708E-3
3.95948E-3	153.256E-12	647.230E-3	-25.3708E-3	154.745E-12	673.950E-3	13.0551E-3
3.95448E-3	152.056E-12	652.883E-3	-36.6698E-3	154.356E-12	689.965E-3	788.147E-6
3.94947E-3	151.769E-12	666.116E-3	-31.0048E-3	154.281E-12	683.394E-3	-19.6586E-3
3.94447E-3	152.442E-12	670.592E-3	-4.06855E-3	154.174E-12	665.689E-3	-16.6027E-3
3.93947E-3	154.118E-12	665.947E-3	7.58303E-3	154.002E-12	653.434E-3	-2.81627E-3
3.93447E-3	152.466E-12	680.422E-3	2.41581E-3	152.951E-12	640.491E-3	-17.4123E-3
3.92946E-3	152.398E-12	700.819E-3	-1.31371E-3	152.857E-12	642.695E-3	-25.6991E-3
3.92446E-3	153.097E-12	689.712E-3	-14.1975E-3	152.512E-12	671.291E-3	-10.8756E-3
3.91946E-3	153.944E-12	675.559E-3	-27.4150E-3	152.070E-12	696.195E-3	-15.7171E-3
3.91446E-3	153.095E-12	675.497E-3	-28.8055E-3	152.111E-12	677.728E-3	-34.3449E-3
3.90945E-3	152.861E-12	686.604E-3	-26.4788E-3	152.820E-12	645.593E-3	-35.1814E-3
3.90445E-3	153.733E-12	698.770E-3	-25.8452E-3	153.322E-12	653.773E-3	-25.3221E-3
3.89945E-3	153.227E-12	689.470E-3	-28.6697E-3	152.925E-12	684.317E-3	-21.1764E-3
3.89445E-3	152.989E-12	659.843E-3	-22.8285E-3	152.606E-12	682.535E-3	-17.2615E-3
3.88944E-3	152.915E-12	647.355E-3	-18.5599E-3	152.612E-12	656.901E-3	-20.5802E-3
3.88444E-3	153.369E-12	665.481E-3	-29.0684E-3	152.335E-12	661.542E-3	-33.8130E-3
3.87944E-3	152.183E-12	682.402E-3	-36.2434E-3	151.295E-12	669.380E-3	-35.3457E-3
3.87444E-3	152.216E-12	691.325E-3	-22.9394E-3	150.495E-12	666.267E-3	-28.1541E-3
3.86943E-3	151.872E-12	679.744E-3	-6.55396E-3	149.917E-12	672.316E-3	-16.0182E-3
3.86443E-3	150.720E-12	663.172E-3	-7.97306E-3	149.147E-12	674.711E-3	-5.25576E-3
3.85943E-3	148.791E-12	680.712E-3	-3.18627E-3	149.067E-12	680.069E-3	-9.31076E-3
3.85443E-3	149.154E-12	691.586E-3	11.0754E-3	147.961E-12	685.129E-3	-9.08023E-3
3.84942E-3	148.661E-12	673.419E-3	3.73230E-3	146.912E-12	677.643E-3	948.233E-6
3.84442E-3	147.737E-12	663.701E-3	-17.7935E-3	146.730E-12	673.765E-3	-7.30564E-3
3.83942E-3	147.836E-12	655.501E-3	-19.6147E-3	146.494E-12	660.068E-3	-20.9201E-3
3.83442E-3	147.642E-12	645.869E-3	-16.2360E-3	147.287E-12	641.501E-3	-14.4987E-3
3.82941E-3	147.134E-12	656.717E-3	-24.7688E-3	147.594E-12	647.734E-3	-17.5910E-3
3.82441E-3	145.870E-12	669.937E-3	-32.5982E-3	148.226E-12	661.281E-3	-19.7817E-3
3.81941E-3	146.595E-12	660.535E-3	-30.3092E-3	148.313E-12	671.757E-3	-9.66422E-3
3.81441E-3	146.555E-12	649.837E-3	-15.6234E-3	149.264E-12	668.900E-3	-19.3855E-3
3.80940E-3	145.510E-12	662.113E-3	-12.3372E-3	150.194E-12	660.905E-3	-28.4131E-3
3.80440E-3	145.783E-12	671.456E-3	-15.1265E-3	149.069E-12	676.001E-3	-22.0936E-3
3.79940E-3	145.889E-12	663.381E-3	-25.1954E-3	148.785E-12	691.996E-3	-13.9981E-3
3.79440E-3	146.492E-12	657.811E-3	-35.5136E-3	148.500E-12	688.376E-3	-1.75185E-3
3.78939E-3	145.520E-12	645.325E-3	-25.0458E-3	149.032E-12	688.943E-3	-3.72423E-3
3.78439E-3	145.828E-12	645.377E-3	-12.4364E-3	146.548E-12	693.092E-3	-15.9643E-3
3.77939E-3	146.376E-12	675.654E-3	-14.8910E-3	145.589E-12	675.952E-3	-27.2903E-3
3.77439E-3	146.144E-12	694.193E-3	-26.8393E-3	144.361E-12	656.441E-3	-42.5353E-3
3.76938E-3	145.568E-12	672.971E-3	-30.6647E-3	143.799E-12	653.131E-3	-48.0636E-3
3.76438E-3	144.973E-12	645.974E-3	-17.2554E-3	142.917E-12	648.797E-3	-32.9303E-3
3.75938E-3	145.090E-12	660.077E-3	-1.70394E-3	142.060E-12	644.338E-3	-7.86758E-3
3.75438E-3	144.128E-12	685.442E-3	-18.9591E-3	142.470E-12	658.720E-3	10.2791E-3
3.74937E-3	144.390E-12	682.615E-3	-55.6780E-3	142.475E-12	679.680E-3	19.3336E-3
3.74437E-3	143.947E-12	659.747E-3	-53.3689E-3	143.054E-12	680.583E-3	6.35421E-3
3.73937E-3	143.574E-12	636.696E-3	-18.4350E-3	144.091E-12	675.505E-3	-16.1912E-3
3.73437E-3	143.126E-12	640.093E-3	2.78543E-3	143.842E-12	694.936E-3	-24.2345E-3
3.72936E-3	143.171E-12	662.310E-3	9.38834E-3	144.917E-12	716.856E-3	-22.4053E-3
3.72436E-3	142.555E-12	675.380E-3	1.02402E-3	146.527E-12	717.529E-3	-12.3294E-3
3.71936E-3	141.635E-12	679.552E-3	-11.5179E-3	147.800E-12	704.861E-3	-3.97555E-3
3.71436E-3	142.376E-12	675.606E-3	-9.22846E-3	147.088E-12	688.788E-3	-2.05297E-3
3.70935E-3	143.419E-12	667.354E-3	-1.20138E-3	147.391E-12	685.642E-3	-5.87015E-3
3.70435E-3	143.066E-12	673.801E-3	2.66532E-3	147.799E-12	686.070E-3	-16.7527E-3
3.69935E-3	142.218E-12	685.861E-3	-1.34016E-3	147.935E-12	678.447E-3	-34.1550E-3
3.69435E-3	142.219E-12	680.853E-3	-13.3095E-3	146.071E-12	670.615E-3	-50.9241E-3
3.68934E-3	142.974E-12	671.555E-3	-11.4244E-3	143.585E-12	650.609E-3	-46.4252E-3
3.68434E-3	142.345E-12	683.694E-3	-6.80745E-3	141.934E-12	621.154E-3	-23.5106E-3
3.67934E-3	142.354E-12	689.227E-3	-27.9661E-3	141.570E-12	623.018E-3	-8.60086E-3
3.67434E-3	142.084E-12	669.209E-3	-46.4313E-3	138.844E-12	634.169E-3	-13.6522E-3
3.66933E-3	142.746E-12	658.238E-3	-29.8487E-3	136.692E-12	630.507E-3	-25.2796E-3
3.66433E-3	141.533E-12	661.592E-3	-7.32124E-3	136.606E-12	639.916E-3	-24.8287E-3
3.65933E-3	139.988E-12	673.249E-3	-5.90724E-3	137.855E-12	654.798E-3	-14.4319E-3
3.65433E-3	139.689E-12	689.271E-3	-2.64075E-3	138.015E-12	655.135E-3	627.642E-6
3.64932E-3	139.985E-12	698.539E-3	1.70980E-3	136.375E-12	655.800E-3	16.9743E-3
3.64432E-3	139.569E-12	697.571E-3	4.09249E-3	137.287E-12	663.496E-3	19.4977E-3
3.63932E-3	138.351E-12	679.780E-3	19.9831E-3	139.001E-12	663.660E-3	8.51457E-3
3.63432E-3	137.600E-12	659.616E-3	20.0615E-3	140.718E-12	675.408E-3	9.24081E-3
3.62931E-3	137.763E-12	659.236E-3	-978.541E-6	140.138E-12	696.615E-3	15.0254E-3
3.62431E-3	138.153E-12	663.779E-3	-15.8051E-3	140.031E-12	693.898E-3	1.38544E-3
3.61931E-3	138.445E-12	653.516E-3	-18.7743E-3	140.686E-12	686.501E-3	-15.3821E-3
3.61431E-3	138.175E-12	649.843E-3	-1.56518E-3	141.881E-12	694.754E-3	-12.7085E-3
3.60930E-3	137.992E-12	668.596E-3	11.3408E-3	140.862E-12	690.403E-3	-3.07721E-3
3.60430E-3	138.163E-12	679.627E-3	1.47821E-3	138.630E-12	674.874E-3	-9.88547E-3
3.59930E-3	138.370E-12	681.985E-3	-8.72322E-3	138.194E-12	660.022E-3	-31.0124E-3
3.59430E-3	137.018E-12	682.079E-3	-16.4224E-3	137.237E-12	638.599E-3	-32.7661E-3
3.58929E-3	136.906E-12	675.508E-3	-22.9067E-3	136.544E-12	636.854E-3	-16.1614E-3
3.58429E-3	137.145E-12	674.608E-3	-24.0370E-3	134.872E-12	657.493E-3	-3.55058E-3
3.57929E-3	137.810E-12	676.859E-3	-26.6596E-3	133.212E-12	674.863E-3	3.47668E-3
3.57429E-3	136.324E-12	677.002E-3	-20.4614E-3	133.236E-12	684.407E-3	-8.00145E-3
3.56928E-3	135.762E-12	659.268E-3	-13.5936E-3	133.747E-12	679.210E-3	-24.9922E-3
3.56428E-3	136.076E-12	649.399E-3	-17.0057E-3	134.624E-12	658.207E-3	-34.1983E-3
3.55928E-3	136.762E-12	669.354E-3	-16.1694E-3	133.118E-12	648.144E-3	-43.1178E-3
3.55428E-3	135.934E-12	683.218E-3	-21.5254E-3	132.881E-12	670.945E-3	-46.2289E-3
3.54927E-3	134.868E-12	689.052E-3	-36.3875E-3	134.285E-12	686.973E-3	-43.6874E-3
3.54427E-3	134.931E-12	687.805E-3	-35.4558E-3	136.985E-12	678.684E-3	-33.2448E-3
3.53927E-3	134.917E-12	670.851E-3	-24.4798E-3	137.069E-12	685.629E-3	-3.12291E-3
3.53427E-3	135.224E-12	674.568E-3	-16.6276E-3	136.178E-12	706.480E-3	-143.319E-6
3.52926E-3	134.848E-12	681.039E-3	-21.0405E-3	136.735E-12	710.216E-3	-29.0907E-3
3.52426E-3	135.342E-12	661.410E-3	-29.0987E-3	137.972E-12	702.906E-3	-45.6572E-3
3.51926E-3	135.144E-12	650.800E-3	-18.2193E-3	137.741E-12	691.904E-3	-62.8684E-3
3.51426E-3	135.408E-12	656.034E-3	-19.2788E-3	136.093E-12	684.611E-3	-56.8620E-3
3.50925E-3	135.338E-12	665.276E-3	-28.5615E-3	135.571E-12	680.661E-3	-26.6886E-3
3.50425E-3	134.289E-12	678.879E-3	-22.6827E-3	136.220E-12	656.175E-3	-17.6054E-3
3.49925E-3	134.010E-12	692.560E-3	-23.7831E-3	135.824E-12	646.236E-3	-20.3485E-3
3.49425E-3	134.095E-12	691.923E-3	-24.3445E-3	134.795E-12	662.602E-3	-18.2709E-3
3.48924E-3	133.870E-12	662.856E-3	-29.9273E-3	133.242E-12	673.753E-3	-12.8625E-3
3.48424E-3	133.448E-12	642.024E-3	-33.8608E-3	133.870E-12	684.878E-3	-7.19917E-3
3.47924E-3	133.118E-12	659.894E-3	-11.6644E-3	133.484E-12	697.866E-3	-13.5970E-3
3.47424E-3	133.377E-12	689.694E-3	-7.59511E-3	134.774E-12	707.696E-3	-17.6581E-3
3.46923E-3	133.033E-12	708.747E-3	-30.2276E-3	133.079E-12	714.110E-3	-6.99353E-3
3.46423E-3	132.323E-12	699.267E-3	-37.5313E-3	132.641E-12	715.320E-3	7.23842E-3
3.45923E-3	131.470E-12	677.023E-3	-24.6684E-3	132.974E-12	714.887E-3	9.87966E-3
3.45423E-3	131.095E-12	680.476E-3	-18.9910E-3	134.116E-12	702.153E-3	2.38230E-3
3.44922E-3	132.294E-12	693.265E-3	-22.7934E-3	133.891E-12	684.525E-3	6.89121E-3
3.44422E-3	131.973E-12	690.628E-3	-22.2758E-3	132.476E-12	674.241E-3	5.76037E-3
3.43922E-3	130.712E-12	672.017E-3	-7.36410E-3	131.482E-12	646.201E-3	2.45058E-3
3.43422E-3	129.962E-12	664.248E-3	9.29263E-3	131.556E-12	626.553E-3	20.0265E-3
3.42921E-3	130.814E-12	677.772E-3	3.98792E-3	131.672E-12	656.959E-3	28.9013E-3
3.42421E-3	131.079E-12	678.150E-3	-8.01590E-3	129.282E-12	688.213E-3	16.0762E-3
3.41921E-3	129.314E-12	665.795E-3	-18.3521E-3	127.756E-12	675.129E-3	6.18032E-3
3.41421E-3	128.433E-12	664.756E-3	-28.0455E-3	127.560E-12	664.113E-3	-4.94237E-3
3.40920E-3	128.291E-12	674.732E-3	-31.6114E-3	128.944E-12	664.748E-3	-6.03095E-3
3.40420E-3	128.787E-12	689.577E-3	-27.9968E-3	127.913E-12	661.117E-3	9.42086E-3
3.39920E-3	127.286E-12	700.848E-3	-16.0903E-3	126.467E-12	673.373E-3	-4.30962E-3
3.39420E-3	126.050E-12	698.677E-3	-2.40262E-3	126.721E-12	686.832E-3	-30.9631E-3
3.38919E-3	126.202E-12	686.952E-3	-10.1993E-3	129.359E-12	686.570E-3	-28.1733E-3
3.38419E-3	127.261E-12	685.864E-3	-34.3679E-3	129.767E-12	695.141E-3	-19.4850E-3
3.37919E-3	126.665E-12	695.493E-3	-25.3662E-3	128.602E-12	712.457E-3	-33.7142E-3
3.37419E-3	125.437E-12	683.009E-3	4.08755E-3	127.885E-12	708.341E-3	-49.6015E-3
3.36918E-3	125.266E-12	654.773E-3	4.19485E-3	129.894E-12	689.305E-3	-39.4242E-3
3.36418E-3	126.224E-12	648.014E-3	-14.0466E-3	130.194E-12	686.792E-3	-19.9420E-3
3.35918E-3	126.036E-12	666.278E-3	-22.3750E-3	128.193E-12	690.361E-3	-11.2118E-3
3.35418E-3	125.499E-12	682.485E-3	-23.8499E-3	126.745E-12	677.526E-3	-4.95417E-3
3.34917E-3	125.607E-12	683.649E-3	-21.5766E-3	126.970E-12	659.676E-3	-7.15506E-3
3.34417E-3	125.752E-12	680.375E-3	-8.18125E-3	127.373E-12	650.952E-3	-18.8256E-3
3.33917E-3	126.287E-12	667.728E-3	-4.23710E-3	125.646E-12	657.350E-3	-25.7521E-3
3.33417E-3	125.505E-12	656.865E-3	-9.99952E-3	123.485E-12	678.261E-3	-36.8815E-3
3.32916E-3	125.078E-12	672.362E-3	40.5360E-6	123.011E-12	694.130E-3	-39.8462E-3
3.32416E-3	125.122E-12	685.219E-3	1.98342E-3	123.189E-12	684.393E-3	-31.8697E-3
3.31916E-3	124.894E-12	677.397E-3	-11.8012E-3	123.723E-12	663.791E-3	-38.9319E-3
3.31416E-3	124.559E-12	671.513E-3	-4.49097E-3	123.406E-12	668.223E-3	-41.1487E-3
3.30915E-3	123.677E-12	670.960E-3	11.6766E-3	123.697E-12	686.054E-3	-20.4784E-3
3.30415E-3	123.808E-12	683.495E-3	11.0047E-3	124.504E-12	693.408E-3	-215.959E-6
3.29915E-3	123.471E-12	704.563E-3	189.034E-6	126.124E-12	700.298E-3	1.39377E-3
3.29415E-3	123.998E-12	702.568E-3	-15.3950E-3	126.596E-12	715.682E-3	-2.78979E-3
3.28914E-3	123.193E-12	678.242E-3	-34.6994E-3	127.336E-12	734.421E-3	4.87966E-3
3.28414E-3	123.597E-12	664.201E-3	-38.4582E-3	127.612E-12	725.472E-3	9.13761E-3
3.27914E-3	122.934E-12	674.221E-3	-20.9177E-3	128.718E-12	695.705E-3	2.56642E-3
3.27414E-3	123.917E-12	687.251E-3	3.94259E-3	128.603E-12	691.761E-3	2.55226E-3
3.26913E-3	122.944E-12	684.972E-3	13.3930E-3	127.463E-12	697.585E-3	-1.68516E-3
3.26413E-3	122.716E-12	676.051E-3	1.43432E-3	125.717E-12	685.342E-3	-15.0017E-3
3.25913E-3	123.039E-12	670.899E-3	-6.58006E-3	125.168E-12	670.753E-3	-23.7690E-3
3.25413E-3	123.214E-12	671.272E-3	-17.4682E-3	124.440E-12	655.660E-3	-32.8986E-3
3.24912E-3	122.673E-12	677.883E-3	-26.2264E-3	123.145E-12	640.867E-3	-35.2161E-3
3.24412E-3	122.239E-12	690.714E-3	-15.5620E-3	121.499E-12	642.842E-3	-15.3726E-3
3.23912E-3	121.867E-12	700.583E-3	-7.97664E-3	119.649E-12	648.591E-3	3.77391E-3
3.23412E-3	121.234E-12	703.856E-3	-18.6144E-3	119.283E-12	643.333E-3	3.99330E-3
3.22911E-3	120.714E-12	716.772E-3	-27.0625E-3	119.008E-12	633.749E-3	-209.307E-6
3.22411E-3	119.931E-12	724.396E-3	-31.6860E-3	118.613E-12	650.099E-3	-9.61628E-3
3.21911E-3	120.124E-12	710.708E-3	-27.7625E-3	118.521E-12	679.167E-3	-33.8768E-3
3.21411E-3	119.153E-12	692.559E-3	-4.99662E-3	118.949E-12	682.155E-3	-41.2327E-3
3.20910E-3	118.547E-12	675.377E-3	6.66671E-3	120.186E-12	691.342E-3	-15.1770E-3
3.20410E-3	118.909E-12	668.081E-3	10.8251E-3	120.610E-12	711.649E-3	-7.71227E-3
3.19910E-3	119.560E-12	676.343E-3	14.5008E-3	121.657E-12	703.799E-3	-26.3505E-3
3.19410E-3	119.009E-12	689.709E-3	-12.7805E-3	121.759E-12	678.972E-3	-33.4561E-3
3.18909E-3	117.685E-12	700.187E-3	-39.5728E-3	121.907E-12	680.343E-3	-31.1961E-3
3.18409E-3	118.525E-12	704.104E-3	-24.2834E-3	121.835E-12	683.837E-3	-29.7960E-3
3.17909E-3	119.496E-12	702.589E-3	-6.34337E-3	120.834E-12	664.671E-3	-23.4000E-3
3.17409E-3	120.072E-12	695.537E-3	-3.27509E-3	120.262E-12	666.579E-3	-17.4869E-3
3.16908E-3	118.339E-12	699.217E-3	-15.0066E-3	118.627E-12	676.866E-3	-8.28869E-3
3.16408E-3	118.101E-12	717.346E-3	-34.0782E-3	117.701E-12	671.035E-3	-4.10490E-3
3.15908E-3	118.954E-12	722.097E-3	-22.9670E-3	116.649E-12	660.706E-3	-14.0498E-3
3.15408E-3	118.790E-12	708.121E-3	6.52034E-3	115.261E-12	652.385E-3	-18.6848E-3
3.14907E-3	117.664E-12	699.151E-3	16.2144E-3	114.513E-12	653.730E-3	-17.9634E-3
3.14407E-3	116.095E-12	696.705E-3	-4.89942E-3	114.182E-12	655.414E-3	-28.9883E-3
3.13907E-3	115.867E-12	695.013E-3	-25.9126E-3	114.070E-12	653.531E-3	-49.3886E-3
3.13407E-3	116.289E-12	680.996E-3	-16.2247E-3	113.869E-12	671.270E-3	-46.2016E-3
3.12906E-3	115.928E-12	661.024E-3	8.85224E-3	113.643E-12	688.226E-3	-6.61831E-3
3.12406E-3	114.568E-12	671.386E-3	14.3865E-3	114.777E-12	686.515E-3	24.0643E-3
3.11906E-3	114.479E-12	683.778E-3	-14.0094E-3	115.757E-12	696.208E-3	27.7024E-3
3.11406E-3	115.008E-12	675.430E-3	-42.8404E-3	116.811E-12	704.849E-3	12.3685E-3
3.10905E-3	114.994E-12	673.193E-3	-32.2216E-3	116.602E-12	692.147E-3	-14.9528E-3
3.10405E-3	114.263E-12	676.434E-3	-8.03139E-3	116.771E-12	680.846E-3	-23.0051E-3
3.09905E-3	115.000E-12	680.240E-3	-5.00349E-3	117.113E-12	684.691E-3	-21.9696E-3
3.09405E-3	115.052E-12	681.433E-3	-13.0057E-3	116.997E-12	697.437E-3	-22.1924E-3
3.08904E-3	115.420E-12	668.123E-3	-16.9370E-3	116.732E-12	707.475E-3	-14.9380E-3
3.08404E-3	114.834E-12	663.147E-3	-18.7511E-3	115.966E-12	699.299E-3	-15.0184E-3
3.07904E-3	115.608E-12	670.331E-3	-17.7532E-3	115.789E-12	692.531E-3	-6.50219E-3
3.07404E-3	115.635E-12	674.047E-3	-11.6494E-3	114.653E-12	699.617E-3	5.75100E-3
3.06903E-3	115.430E-12	677.164E-3	-21.7984E-3	113.668E-12	704.033E-3	-10.8450E-3
3.06403E-3	114.830E-12	680.571E-3	-38.5168E-3	113.047E-12	700.600E-3	-32.0583E-3
3.05903E-3	114.714E-12	686.622E-3	-42.8621E-3	112.065E-12	689.770E-3	-29.3595E-3
3.05403E-3	114.084E-12	678.312E-3	-34.4119E-3	111.831E-12	681.547E-3	-12.5780E-3
3.04902E-3	113.735E-12	676.877E-3	-19.8677E-3	111.520E-12	684.979E-3	4.23592E-3
3.04402E-3	113.045E-12	695.069E-3	-11.5753E-3	111.838E-12	696.341E-3	8.04482E-3
3.03902E-3	112.196E-12	695.356E-3	-4.87459E-3	112.429E-12	693.351E-3	-4.70038E-3
3.03402E-3	111.278E-12	678.084E-3	-4.73823E-3	112.559E-12	673.192E-3	-12.1623E-3
3.02901E-3	111.456E-12	667.153E-3	-6.10534E-3	113.084E-12	671.099E-3	-2.65370E-3
3.02401E-3	111.420E-12	672.497E-3	-7.53369E-3	113.574E-12	679.073E-3	-403.590E-6
3.01901E-3	111.418E-12	685.006E-3	-9.35360E-3	113.546E-12	675.290E-3	-7.17058E-3
3.01401E-3	110.752E-12	677.249E-3	-7.48144E-3	112.303E-12	678.112E-3	-6.03843E-3
3.00900E-3	110.160E-12	661.349E-3	-8.03689E-3	112.173E-12	676.004E-3	-4.62891E-3
3.00400E-3	110.194E-12	659.566E-3	-13.2360E-3	111.523E-12	658.952E-3	-6.69445E-3
2.99900E-3	110.779E-12	666.536E-3	-17.6778E-3	110.532E-12	656.078E-3	-10.3877E-3
2.99400E-3	110.379E-12	689.842E-3	-6.95552E-3	109.313E-12	665.608E-3	-27.5394E-3
2.98899E-3	109.291E-12	708.243E-3	1.79500E-3	108.263E-12	669.490E-3	-41.7822E-3
2.98399E-3	109.074E-12	705.827E-3	-3.37361E-3	107.914E-12	672.609E-3	-44.5446E-3
2.97899E-3	108.798E-12	686.563E-3	1.66752E-3	107.960E-12	672.909E-3	-45.8489E-3
2.97399E-3	108.709E-12	674.167E-3	11.3378E-3	106.856E-12	668.004E-3	-33.7022E-3
2.96898E-3	107.859E-12	688.503E-3	5.21862E-3	106.706E-12	663.619E-3	-16.4151E-3
2.96398E-3	107.599E-12	695.677E-3	-2.45807E-3	106.829E-12	664.985E-3	-19.1820E-3
2.95898E-3	106.961E-12	679.184E-3	4.43693E-3	106.520E-12	684.111E-3	-26.6173E-3
2.95398E-3	107.131E-12	665.596E-3	9.80001E-3	107.012E-12	702.415E-3	-12.6524E-3
2.94897E-3	106.923E-12	677.335E-3	1.59123E-3	107.976E-12	706.353E-3	-2.07334E-3
2.94397E-3	107.023E-12	693.018E-3	-16.3049E-3	108.361E-12	708.019E-3	-9.71447E-3
2.93897E-3	106.682E-12	689.817E-3	-36.1783E-3	108.336E-12	695.619E-3	-8.06756E-3
2.93397E-3	106.859E-12	679.692E-3	-39.1292E-3	109.188E-12	687.090E-3	14.1291E-3
2.92896E-3	106.682E-12	678.593E-3	-20.5839E-3	110.035E-12	701.026E-3	21.4164E-3
2.92396E-3	106.267E-12	688.441E-3	-16.8321E-3	109.855E-12	703.327E-3	7.14818E-3
2.91896E-3	105.823E-12	700.915E-3	-26.9543E-3	107.808E-12	687.359E-3	-835.031E-6
2.91396E-3	106.015E-12	702.909E-3	-19.0727E-3	107.297E-12	674.795E-3	-3.51915E-3
2.90895E-3	106.148E-12	683.954E-3	-12.6421E-3	107.574E-12	668.066E-3	-9.45411E-3
2.90395E-3	106.262E-12	664.267E-3	-26.1528E-3	106.433E-12	670.295E-3	-9.62871E-3
2.89895E-3	105.370E-12	663.130E-3	-29.3135E-3	104.824E-12	675.971E-3	-2.51031E-3
2.89395E-3	105.323E-12	675.151E-3	-22.1470E-3	104.390E-12	669.258E-3	-1.22073E-3
2.88894E-3	105.377E-12	692.474E-3	-27.2739E-3	104.896E-12	654.298E-3	-1.69264E-3
2.88394E-3	105.235E-12	691.987E-3	-18.9818E-3	105.708E-12	658.268E-3	-5.10702E-3
2.87894E-3	104.191E-12	675.813E-3	-4.35990E-3	105.062E-12	669.940E-3	-20.4093E-3
2.87394E-3	104.080E-12	673.444E-3	-12.1956E-3	104.929E-12	666.203E-3	-18.1342E-3
2.86893E-3	103.793E-12	677.164E-3	-16.8939E-3	105.836E-12	663.030E-3	-4.57589E-3
2.86393E-3	103.984E-12	687.447E-3	-9.95537E-3	106.736E-12	663.515E-3	-11.0455E-3
2.85893E-3	103.416E-12	697.960E-3	-13.8953E-3	106.480E-12	680.801E-3	-16.2539E-3
2.85393E-3	103.619E-12	686.859E-3	-26.5642E-3	106.367E-12	694.995E-3	-17.5450E-3
2.84892E-3	103.545E-12	674.145E-3	-18.0775E-3	106.457E-12	684.057E-3	-30.4910E-3
2.84392E-3	103.795E-12	685.657E-3	11.8052E-3	106.616E-12	684.869E-3	-41.9921E-3
2.83892E-3	103.618E-12	701.960E-3	13.4450E-3	106.191E-12	694.506E-3	-41.9417E-3
2.83392E-3	103.519E-12	700.769E-3	-2.61025E-3	104.484E-12	698.683E-3	-26.2546E-3
2.82891E-3	103.014E-12	688.448E-3	-595.102E-6	103.559E-12	703.271E-3	-9.92636E-3
2.82391E-3	102.944E-12	682.645E-3	-9.53283E-3	102.496E-12	702.647E-3	-3.43439E-3
2.81891E-3	102.440E-12	688.598E-3	-33.8862E-3	101.731E-12	692.190E-3	5.41425E-3
2.81391E-3	102.195E-12	690.281E-3	-27.6636E-3	100.654E-12	673.416E-3	-48.3917E-6
2.80890E-3	101.773E-12	685.436E-3	-4.03223E-3	99.0570E-12	660.591E-3	-29.7322E-3
2.80390E-3	101.011E-12	689.153E-3	-3.04064E-3	98.5334E-12	657.074E-3	-40.0188E-3
2.79890E-3	100.402E-12	692.963E-3	-5.50800E-3	98.4259E-12	665.650E-3	-23.9927E-3
2.79390E-3	99.6397E-12	682.797E-3	-4.36296E-3	98.4490E-12	680.533E-3	-19.2390E-3
2.78889E-3	99.4974E-12	682.180E-3	-14.4040E-3	98.5876E-12	680.361E-3	-25.9676E-3
2.78389E-3	98.7458E-12	686.519E-3	-24.0742E-3	98.9019E-12	686.543E-3	-24.1316E-3
2.77889E-3	97.9241E-12	676.709E-3	-20.9534E-3	98.7867E-12	706.790E-3	-21.0313E-3
2.77389E-3	97.8278E-12	668.205E-3	-17.9504E-3	99.6114E-12	708.361E-3	-20.3282E-3
2.76888E-3	98.1329E-12	672.741E-3	-18.1870E-3	100.428E-12	704.216E-3	-14.6295E-3
2.76388E-3	98.2139E-12	672.033E-3	-14.1604E-3	100.365E-12	711.452E-3	-11.6195E-3
2.75888E-3	97.5406E-12	671.549E-3	-12.6161E-3	100.104E-12	715.187E-3	-13.4124E-3
2.75388E-3	97.9511E-12	679.770E-3	-11.7995E-3	99.9784E-12	712.787E-3	-17.1926E-3
2.74887E-3	98.7711E-12	674.527E-3	-5.74403E-3	99.3332E-12	705.882E-3	-14.3331E-3
2.74387E-3	99.0428E-12	677.047E-3	732.264E-6	98.5513E-12	685.111E-3	-6.29654E-3
2.73887E-3	98.8429E-12	703.095E-3	-3.08217E-3	97.4923E-12	657.002E-3	-7.24331E-3
2.73387E-3	98.2299E-12	722.381E-3	-13.6503E-3	96.8573E-12	659.058E-3	-12.2167E-3
2.72886E-3	98.6363E-12	717.749E-3	-18.4367E-3	95.9785E-12	683.243E-3	-16.3000E-3
2.72386E-3	98.4935E-12	714.948E-3	-3.24820E-3	94.4550E-12	692.541E-3	-11.5684E-3
2.71886E-3	98.1322E-12	731.166E-3	8.49833E-3	94.1732E-12	699.208E-3	4.32633E-3
2.71386E-3	97.7201E-12	735.076E-3	-7.75722E-3	94.2237E-12	707.855E-3	1.40748E-3
2.70885E-3	97.2040E-12	722.666E-3	-33.6655E-3	94.0818E-12	701.612E-3	-21.8710E-3
2.70385E-3	97.2917E-12	708.794E-3	-36.7489E-3	93.9321E-12	702.525E-3	-23.4657E-3
2.69885E-3	96.3583E-12	693.452E-3	-29.4348E-3	94.6887E-12	714.775E-3	2.81934E-3
2.69385E-3	95.8650E-12	694.625E-3	-32.1161E-3	95.8009E-12	717.694E-3	8.68692E-3
2.68884E-3	95.3056E-12	702.138E-3	-31.5240E-3	96.7818E-12	727.335E-3	-20.4192E-3
2.68384E-3	95.3641E-12	689.552E-3	-30.5815E-3	97.7385E-12	749.004E-3	-45.7415E-3
2.67884E-3	94.9200E-12	682.565E-3	-28.9083E-3	98.4944E-12	756.296E-3	-41.1788E-3
2.67384E-3	94.7556E-12	688.395E-3	-15.4801E-3	98.7456E-12	742.947E-3	-24.7890E-3
2.66883E-3	95.5207E-12	683.595E-3	-3.36783E-3	98.8286E-12	731.658E-3	-18.5482E-3
2.66383E-3	96.0202E-12	683.484E-3	-14.9773E-3	99.4968E-12	719.813E-3	-13.4563E-3
2.65883E-3	96.2116E-12	701.749E-3	-33.7453E-3	98.9554E-12	710.825E-3	-8.03392E-3
2.65383E-3	95.4491E-12	710.230E-3	-20.4843E-3	97.2996E-12	708.434E-3	-3.31862E-3
2.64882E-3	95.7735E-12	709.508E-3	8.83383E-3	95.7790E-12	701.776E-3	-14.1896E-3
2.64382E-3	96.0841E-12	724.204E-3	15.8876E-3	94.7397E-12	698.257E-3	-41.3121E-3
2.63882E-3	96.3093E-12	735.931E-3	15.3871E-3	93.9777E-12	690.527E-3	-44.2590E-3
2.63382E-3	95.4660E-12	729.848E-3	5.43184E-3	92.9574E-12	683.385E-3	-30.3098E-3
2.62881E-3	94.9139E-12	723.559E-3	-10.3004E-3	91.8521E-12	694.147E-3	-21.8735E-3
2.62381E-3	94.9786E-12	725.111E-3	-1.87457E-3	91.4553E-12	699.747E-3	-24.3434E-3
2.61881E-3	95.3136E-12	732.724E-3	789.429E-6	91.4250E-12	702.067E-3	-38.0628E-3
2.61381E-3	94.3841E-12	743.753E-3	-17.5478E-3	91.3558E-12	714.402E-3	-42.2117E-3
2.60880E-3	93.1268E-12	750.527E-3	-17.9399E-3	91.0910E-12	723.068E-3	-29.1258E-3
2.60380E-3	92.5601E-12	744.449E-3	-7.52027E-3	91.2049E-12	728.117E-3	-18.6143E-3
2.59880E-3	92.7493E-12	728.975E-3	-5.50228E-3	91.6113E-12	717.353E-3	-12.9036E-3
2.59380E-3	92.9731E-12	724.428E-3	3.04954E-3	92.5377E-12	704.923E-3	4.72935E-3
2.58879E-3	91.8603E-12	731.157E-3	10.0483E-3	92.4650E-12	711.351E-3	11.7778E-3
2.58379E-3	91.3397E-12	735.179E-3	-645.429E-6	92.0275E-12	722.791E-3	-680.499E-6
2.57879E-3	91.8521E-12	725.377E-3	-17.7590E-3	92.0455E-12	734.705E-3	-6.71735E-3
2.57379E-3	91.3311E-12	708.904E-3	-31.8080E-3	92.4267E-12	731.297E-3	-6.09830E-3
2.56878E-3	91.1177E-12	704.297E-3	-46.1918E-3	91.8216E-12	723.543E-3	-6.36442E-3
2.56378E-3	90.5376E-12	715.885E-3	-57.5027E-3	90.3582E-12	730.277E-3	-14.0651E-3
2.55878E-3	91.2613E-12	712.517E-3	-69.5307E-3	90.1429E-12	721.193E-3	-26.3971E-3
2.55378E-3	90.8507E-12	694.046E-3	-68.5817E-3	89.2167E-12	710.313E-3	-21.7928E-3
2.54877E-3	89.6193E-12	702.319E-3	-35.4675E-3	88.6531E-12	718.746E-3	-7.79586E-3
2.54377E-3	88.8706E-12	705.992E-3	-3.01744E-3	86.7918E-12	728.438E-3	-4.07546E-3
2.53877E-3	88.9749E-12	697.053E-3	-8.03904E-3	87.0757E-12	734.377E-3	-8.21556E-3
2.53377E-3	88.6358E-12	712.755E-3	-22.1492E-3	87.1375E-12	735.607E-3	-4.57227E-3
2.52876E-3	88.0228E-12	732.202E-3	-28.1590E-3	87.3919E-12	731.494E-3	966.030E-6
2.52376E-3	87.5613E-12	729.208E-3	-44.0798E-3	86.5578E-12	725.151E-3	-9.52316E-3
2.51876E-3	87.4460E-12	717.295E-3	-35.5146E-3	86.7580E-12	716.273E-3	-21.9218E-3
2.51376E-3	86.7965E-12	716.768E-3	-1.41696E-3	87.9060E-12	709.154E-3	-28.5399E-3
2.50875E-3	87.1097E-12	720.773E-3	-536.508E-6	88.0093E-12	721.380E-3	-37.1941E-3
2.50375E-3	86.4377E-12	717.179E-3	-31.3930E-3	87.7408E-12	742.963E-3	-38.1920E-3
2.49875E-3	86.9625E-12	713.816E-3	-47.5460E-3	87.4915E-12	739.239E-3	-27.7925E-3
2.49375E-3	86.6584E-12	714.162E-3	-43.5891E-3	88.0931E-12	719.945E-3	-21.7369E-3
2.48874E-3	86.7746E-12	715.831E-3	-29.2827E-3	88.1415E-12	714.396E-3	-22.4586E-3
2.48374E-3	86.9909E-12	715.856E-3	-8.74647E-3	88.5253E-12	716.522E-3	-26.7826E-3
2.47874E-3	87.1330E-12	712.343E-3	-7.80246E-3	87.2847E-12	721.009E-3	-33.0835E-3
2.47374E-3	86.4496E-12	711.638E-3	-16.3805E-3	85.8684E-12	731.096E-3	-27.4995E-3
2.46873E-3	85.9754E-12	715.372E-3	-15.2963E-3	86.1857E-12	730.205E-3	-5.40261E-3
2.46373E-3	86.1952E-12	724.618E-3	-17.8056E-3	86.4943E-12	723.183E-3	1.12541E-3
2.45873E-3	85.5493E-12	736.255E-3	-23.1447E-3	86.0940E-12	729.442E-3	-21.6636E-3
2.45373E-3	84.5922E-12	731.728E-3	-17.8521E-3	84.5069E-12	734.595E-3	-35.0393E-3
2.44872E-3	83.9977E-12	718.597E-3	-11.3646E-3	84.9089E-12	732.005E-3	-28.7241E-3
2.44372E-3	83.9673E-12	721.988E-3	-6.37049E-3	85.4086E-12	743.036E-3	-17.4205E-3
2.43872E-3	83.5786E-12	730.030E-3	5.06444E-3	86.2893E-12	763.433E-3	-16.1500E-3
2.43372E-3	82.8655E-12	737.079E-3	5.50904E-3	85.2508E-12	768.783E-3	-28.0480E-3
2.42871E-3	82.6597E-12	749.215E-3	-8.74317E-3	85.2407E-12	757.378E-3	-26.3667E-3
2.42371E-3	83.0571E-12	732.731E-3	-14.3273E-3	85.7216E-12	748.950E-3	-10.7641E-3
2.41871E-3	83.3782E-12	707.258E-3	-13.6046E-3	86.0354E-12	751.620E-3	-2.97843E-3
2.41371E-3	82.7069E-12	707.605E-3	-22.5421E-3	85.5117E-12	767.742E-3	-6.48724E-3
2.40870E-3	83.0024E-12	712.764E-3	-31.1454E-3	84.0939E-12	779.622E-3	-11.4846E-3
2.40370E-3	84.0673E-12	729.087E-3	-41.4524E-3	83.7606E-12	749.270E-3	-17.7304E-3
2.39870E-3	84.1116E-12	759.955E-3	-41.1468E-3	83.3114E-12	714.984E-3	-16.7025E-3
2.39370E-3	83.5863E-12	777.014E-3	-26.6925E-3	82.7944E-12	714.092E-3	-9.29934E-3
2.38869E-3	83.2754E-12	760.839E-3	-25.8963E-3	81.1478E-12	713.243E-3	-12.2706E-3
2.38369E-3	83.6227E-12	748.142E-3	-26.9867E-3	80.2064E-12	719.174E-3	-14.4100E-3
2.37869E-3	83.1850E-12	749.261E-3	-16.5380E-3	79.6314E-12	735.016E-3	-10.0588E-3
2.37369E-3	82.3939E-12	728.894E-3	-8.60390E-3	79.6354E-12	728.513E-3	-3.87339E-3
2.36868E-3	81.8564E-12	720.669E-3	-19.1646E-3	79.6554E-12	713.793E-3	-2.81801E-3
2.36368E-3	80.7855E-12	737.815E-3	-25.2754E-3	78.9842E-12	713.745E-3	-6.67239E-3
2.35868E-3	80.3142E-12	744.702E-3	-17.8900E-3	78.9588E-12	729.946E-3	-19.5229E-3
2.35368E-3	79.7852E-12	740.359E-3	-26.4975E-3	79.4841E-12	742.923E-3	-36.5619E-3
2.34867E-3	79.4231E-12	743.674E-3	-41.2890E-3	80.0541E-12	746.177E-3	-34.4336E-3
2.34367E-3	78.5958E-12	746.109E-3	-34.9995E-3	80.6766E-12	758.487E-3	-19.1482E-3
2.33867E-3	78.4348E-12	749.552E-3	-24.8966E-3	80.4803E-12	762.560E-3	-15.4596E-3
2.33367E-3	78.3585E-12	759.213E-3	-24.2710E-3	80.4913E-12	754.755E-3	-22.2982E-3
2.32866E-3	78.4599E-12	751.055E-3	-17.7922E-3	80.3916E-12	750.803E-3	-23.5130E-3
2.32366E-3	78.2772E-12	744.167E-3	-10.4638E-3	80.1173E-12	748.406E-3	-13.3716E-3
2.31866E-3	77.9525E-12	758.992E-3	-12.8628E-3	79.4707E-12	745.438E-3	10.6954E-3
2.31366E-3	77.9980E-12	755.503E-3	-18.1471E-3	78.5317E-12	737.962E-3	26.6422E-3
2.30865E-3	78.3857E-12	730.840E-3	-22.2134E-3	77.9999E-12	719.419E-3	14.9262E-3
2.30365E-3	78.1680E-12	724.295E-3	-32.1538E-3	76.9634E-12	707.775E-3	-10.6816E-3
2.29865E-3	78.1220E-12	730.165E-3	-29.2763E-3	76.1207E-12	724.927E-3	-24.4484E-3
2.29365E-3	77.5968E-12	737.594E-3	-14.0142E-3	75.1047E-12	749.983E-3	-19.3283E-3
2.28864E-3	77.4140E-12	750.576E-3	-8.20713E-3	74.7897E-12	748.158E-3	-20.4344E-3
2.28364E-3	77.2793E-12	767.653E-3	1.53579E-3	74.5228E-12	739.111E-3	-19.5032E-3
2.27864E-3	77.2872E-12	779.930E-3	6.21039E-3	74.1942E-12	744.195E-3	-3.52125E-3
2.27364E-3	76.5427E-12	778.721E-3	-5.73607E-3	74.0023E-12	756.473E-3	-842.685E-6
2.26863E-3	76.1374E-12	764.139E-3	-9.22856E-3	74.3845E-12	774.355E-3	-13.8899E-3
2.26363E-3	75.8815E-12	739.132E-3	-12.2175E-3	74.9558E-12	772.460E-3	-19.0274E-3
2.25863E-3	75.6626E-12	733.439E-3	-8.24860E-3	76.5572E-12	759.925E-3	-19.2493E-3
2.25363E-3	75.3658E-12	754.200E-3	8.26717E-3	76.8040E-12	774.443E-3	-24.4821E-3
2.24862E-3	74.9419E-12	767.807E-3	172.119E-6	76.4408E-12	791.081E-3	-21.2273E-3
2.24362E-3	75.0427E-12	778.656E-3	-19.2862E-3	76.9830E-12	786.704E-3	-14.8964E-3
2.23862E-3	75.3386E-12	786.883E-3	-21.3651E-3	77.4910E-12	780.634E-3	-14.8079E-3
2.23362E-3	75.2606E-12	775.569E-3	-20.8605E-3	77.3515E-12	779.366E-3	-10.5716E-3
2.22861E-3	75.0630E-12	763.940E-3	-24.6067E-3	76.7346E-12	773.209E-3	-10.9716E-3
2.22361E-3	74.7696E-12	760.598E-3	-17.5757E-3	75.7124E-12	764.684E-3	-16.3420E-3
2.21861E-3	74.5526E-12	752.160E-3	-8.97320E-3	74.8744E-12	760.709E-3	-15.6985E-3
2.21361E-3	74.2239E-12	755.793E-3	-21.9631E-3	74.3255E-12	751.227E-3	-11.4655E-3
2.20860E-3	73.8203E-12	777.101E-3	-31.4146E-3	73.2016E-12	741.795E-3	-24.9971E-3
2.20360E-3	73.4237E-12	776.730E-3	-13.2104E-3	72.2466E-12	744.521E-3	-47.6911E-3
2.19860E-3	73.3890E-12	763.024E-3	-6.82755E-3	71.1348E-12	745.138E-3	-39.2142E-3
2.19360E-3	72.5058E-12	770.618E-3	-15.8441E-3	70.2300E-12	746.354E-3	-22.5410E-3
2.18859E-3	72.0219E-12	778.422E-3	-11.7703E-3	70.1899E-12	754.296E-3	-19.6964E-3
2.18359E-3	71.0612E-12	773.724E-3	-2.18933E-3	70.4256E-12	757.556E-3	-23.1992E-3
2.17859E-3	71.0861E-12	767.571E-3	10.1193E-3	70.6482E-12	760.197E-3	-37.2693E-3
2.17359E-3	70.4987E-12	764.339E-3	13.4774E-3	70.3159E-12	771.400E-3	-53.2846E-3
2.16858E-3	70.0811E-12	772.167E-3	-625.410E-6	70.4055E-12	782.289E-3	-52.9630E-3
2.16358E-3	69.5821E-12	775.712E-3	-6.19792E-3	70.5450E-12	785.557E-3	-38.4849E-3
2.15858E-3	69.4166E-12	768.964E-3	-5.50010E-3	71.0503E-12	789.718E-3	-18.0530E-3
2.15358E-3	69.6557E-12	766.524E-3	-22.4803E-3	71.0274E-12	795.753E-3	-6.76140E-3
2.14857E-3	69.7960E-12	773.176E-3	-31.7023E-3	70.2918E-12	806.210E-3	-12.7515E-3
2.14357E-3	69.3153E-12	781.488E-3	-17.4517E-3	69.8655E-12	809.837E-3	-18.3874E-3
2.13857E-3	69.3054E-12	780.727E-3	-7.31934E-3	70.0445E-12	795.090E-3	-21.8680E-3
2.13357E-3	69.4463E-12	773.777E-3	-4.13215E-3	69.7574E-12	774.720E-3	-23.0272E-3
2.12856E-3	69.4099E-12	774.771E-3	2.97761E-3	68.5197E-12	766.641E-3	-17.0429E-3
2.12356E-3	69.0761E-12	784.695E-3	1.39968E-3	67.7668E-12	768.742E-3	-13.1202E-3
2.11856E-3	68.4028E-12	788.509E-3	-8.04796E-3	67.0270E-12	762.303E-3	-14.9160E-3
2.11356E-3	68.2952E-12	788.105E-3	-1.01604E-3	66.5961E-12	758.048E-3	-17.2644E-3
2.10855E-3	67.4353E-12	783.225E-3	3.07527E-3	66.0552E-12	766.377E-3	-22.2419E-3
2.10355E-3	67.0882E-12	777.209E-3	-8.79365E-3	65.6251E-12	773.728E-3	-20.6844E-3
2.09855E-3	66.7354E-12	777.714E-3	-6.91098E-3	66.0201E-12	773.210E-3	-13.1389E-3
2.09355E-3	66.3899E-12	780.544E-3	-22.0948E-6	65.6335E-12	770.415E-3	-13.8195E-3
2.08854E-3	65.7927E-12	796.885E-3	-10.2446E-3	65.5552E-12	773.516E-3	-18.9873E-3
2.08354E-3	65.5459E-12	806.337E-3	-16.5040E-3	65.5782E-12	780.066E-3	-19.0283E-3
2.07854E-3	65.2258E-12	785.005E-3	-14.1487E-3	66.1737E-12	790.988E-3	-10.4478E-3
2.07354E-3	64.8816E-12	783.065E-3	-18.8538E-3	66.5837E-12	804.940E-3	-13.4404E-3
2.06853E-3	64.7896E-12	807.336E-3	-11.9982E-3	66.1432E-12	814.549E-3	-20.3219E-3
2.06353E-3	64.6120E-12	800.785E-3	-4.41552E-3	66.2285E-12	814.924E-3	-10.7066E-3
2.05853E-3	64.6874E-12	782.691E-3	-24.2158E-3	65.9521E-12	804.964E-3	-14.0616E-3
2.05353E-3	64.2387E-12	790.716E-3	-41.9295E-3	65.9011E-12	800.222E-3	-25.0873E-3
2.04852E-3	64.2378E-12	801.003E-3	-29.0369E-3	65.3751E-12	814.082E-3	-20.3965E-3
2.04352E-3	64.7832E-12	804.478E-3	-10.1704E-3	65.2923E-12	823.310E-3	-15.4636E-3
2.03852E-3	64.2723E-12	801.119E-3	-10.8873E-3	64.5918E-12	812.745E-3	-17.6533E-3
2.03352E-3	64.1013E-12	790.014E-3	-24.0875E-3	64.2309E-12	803.412E-3	-20.0925E-3
2.02851E-3	64.1010E-12	788.124E-3	-33.6295E-3	63.7645E-12	801.768E-3	-18.0247E-3
2.02351E-3	64.1785E-12	805.826E-3	-30.7835E-3	63.4007E-12	800.085E-3	-14.8143E-3
2.01851E-3	63.7473E-12	821.280E-3	-27.6195E-3	62.8693E-12	803.693E-3	-12.6074E-3
2.01351E-3	63.0783E-12	821.860E-3	-40.0702E-3	62.4408E-12	811.426E-3	-16.1619E-3
2.00850E-3	62.7017E-12	825.043E-3	-40.7117E-3	62.6467E-12	817.122E-3	-28.2341E-3
2.00350E-3	62.5703E-12	818.966E-3	-17.9113E-3	62.5084E-12	827.541E-3	-30.8939E-3
1.99850E-3	62.0531E-12	811.041E-3	-9.63579E-3	62.3561E-12	838.635E-3	-17.7463E-3
1.99350E-3	61.2974E-12	824.521E-3	-3.76767E-3	61.9479E-12	844.695E-3	-7.59450E-3
1.98849E-3	61.0136E-12	821.080E-3	11.0067E-3	62.0596E-12	841.083E-3	-11.5377E-3
1.98349E-3	61.0930E-12	805.059E-3	-5.87462E-3	61.7592E-12	833.565E-3	-16.8687E-3
1.97849E-3	60.8336E-12	816.988E-3	-33.5780E-3	61.2763E-12	832.316E-3	-11.6080E-3
1.97349E-3	60.4680E-12	832.201E-3	-23.3194E-3	60.7710E-12	838.157E-3	-10.8861E-3
1.96848E-3	60.5669E-12	834.922E-3	-5.70972E-3	60.5929E-12	841.741E-3	-14.2281E-3
1.96348E-3	60.3901E-12	831.137E-3	-16.4735E-3	60.4260E-12	833.611E-3	-4.09305E-3
1.95848E-3	60.0962E-12	823.581E-3	-30.5830E-3	59.6154E-12	822.837E-3	1.82138E-3
1.95348E-3	59.6635E-12	824.738E-3	-29.4183E-3	58.8461E-12	812.479E-3	-3.15162E-3
1.94847E-3	59.4156E-12	833.359E-3	-21.0412E-3	58.2102E-12	808.458E-3	-9.78656E-3
1.94347E-3	59.1697E-12	826.559E-3	-11.4902E-3	58.2361E-12	808.362E-3	-26.5050E-3
1.93847E-3	58.7322E-12	810.851E-3	-14.1684E-3	57.7094E-12	803.511E-3	-33.8198E-3
1.93347E-3	58.3784E-12	817.876E-3	-25.5462E-3	57.0318E-12	808.302E-3	-23.5396E-3
1.92846E-3	57.7405E-12	835.619E-3	-20.3524E-3	56.7777E-12	825.810E-3	-22.2901E-3
1.92346E-3	57.3396E-12	836.421E-3	-11.9920E-3	56.9206E-12	843.868E-3	-23.1399E-3
1.91846E-3	56.6785E-12	836.143E-3	-12.6646E-3	57.2405E-12	847.934E-3	-15.6243E-3
1.91346E-3	56.4727E-12	841.215E-3	-13.6161E-3	56.5231E-12	843.368E-3	-13.3167E-3
1.90845E-3	56.1806E-12	839.223E-3	-27.0036E-3	56.4408E-12	854.268E-3	-12.6493E-3
1.90345E-3	55.9815E-12	844.056E-3	-39.1764E-3	56.5789E-12	868.463E-3	-10.8098E-3
1.89845E-3	55.3441E-12	843.885E-3	-34.7855E-3	56.8537E-12	875.768E-3	-17.2033E-3
1.89345E-3	55.2257E-12	834.118E-3	-18.8942E-3	56.3254E-12	879.252E-3	-24.9243E-3
1.88844E-3	55.3104E-12	846.425E-3	-2.07722E-3	56.0478E-12	874.877E-3	-19.3143E-3
1.88344E-3	55.4189E-12	871.963E-3	3.57149E-3	55.6187E-12	871.813E-3	-1.65289E-3
1.87844E-3	55.2311E-12	872.522E-3	1.80810E-3	55.3267E-12	879.044E-3	-6.65440E-3
1.87344E-3	54.5859E-12	860.073E-3	-9.05354E-3	54.7861E-12	889.117E-3	-31.6541E-3
1.86843E-3	54.7843E-12	863.945E-3	-10.0285E-3	54.3425E-12	883.364E-3	-38.0719E-3
1.86343E-3	54.8589E-12	865.315E-3	7.58845E-3	53.8233E-12	872.688E-3	-26.3388E-3
1.85843E-3	54.1635E-12	862.702E-3	1.49911E-3	53.2434E-12	879.512E-3	-10.0022E-3
1.85343E-3	53.5637E-12	872.467E-3	-19.9558E-3	52.7906E-12	891.750E-3	-7.44979E-3
1.84842E-3	53.4090E-12	873.331E-3	-25.9970E-3	52.7049E-12	891.994E-3	-33.4761E-3
1.84342E-3	53.1220E-12	870.051E-3	-26.1384E-3	52.6149E-12	885.415E-3	-46.8448E-3
1.83842E-3	52.5434E-12	890.524E-3	-19.1834E-3	52.6038E-12	885.039E-3	-32.2206E-3
1.83342E-3	52.2901E-12	896.131E-3	-13.7297E-3	52.5010E-12	898.534E-3	-24.4864E-3
1.82841E-3	51.7217E-12	875.753E-3	-17.3148E-3	52.8089E-12	918.704E-3	-15.1612E-3
1.82341E-3	51.4090E-12	880.575E-3	-22.3669E-3	52.6430E-12	930.557E-3	-5.39747E-3
1.81841E-3	50.9304E-12	895.611E-3	-24.5933E-3	52.2300E-12	928.498E-3	-13.9825E-3
1.81341E-3	50.8053E-12	890.739E-3	-26.3005E-3	52.5122E-12	926.573E-3	-17.5871E-3
1.80840E-3	50.5343E-12	895.970E-3	-27.6785E-3	52.5639E-12	940.361E-3	-4.83241E-3
1.80340E-3	50.5701E-12	909.939E-3	-18.5117E-3	52.2676E-12	945.201E-3	-7.78405E-3
1.79840E-3	50.2089E-12	904.633E-3	-10.8064E-3	51.4523E-12	932.961E-3	-16.0803E-3
1.79340E-3	50.1534E-12	903.790E-3	-10.0155E-3	51.1754E-12	934.656E-3	-6.46267E-3
1.78839E-3	50.1951E-12	908.721E-3	1.08550E-3	50.6760E-12	942.210E-3	-1.88900E-3
1.78339E-3	50.1330E-12	907.641E-3	-404.768E-6	50.0378E-12	933.196E-3	-8.25896E-3
1.77839E-3	49.7784E-12	923.075E-3	-10.7227E-3	49.0284E-12	926.099E-3	-8.48785E-3
1.77339E-3	49.2762E-12	937.903E-3	4.04639E-3	48.2083E-12	939.435E-3	-9.11334E-3
1.76838E-3	49.0227E-12	921.903E-3	4.58611E-3	47.9974E-12	943.009E-3	-10.8774E-3
1.76338E-3	48.7419E-12	908.695E-3	-18.4145E-3	47.6278E-12	923.713E-3	-8.10791E-3
1.75838E-3	48.3480E-12	917.468E-3	-20.1047E-3	46.9976E-12	906.390E-3	-9.86241E-3
1.75338E-3	47.6031E-12	921.446E-3	-7.41227E-3	46.2840E-12	914.402E-3	-14.9241E-3
1.74837E-3	46.8881E-12	928.885E-3	-16.1683E-3	46.3182E-12	949.544E-3	-12.5138E-3
1.74337E-3	46.3037E-12	941.046E-3	-26.0798E-3	46.4171E-12	973.203E-3	-6.87433E-3
1.73837E-3	46.2524E-12	934.114E-3	-22.6703E-3	46.6803E-12	976.340E-3	-14.5069E-3
1.73337E-3	45.9107E-12	938.012E-3	-29.3171E-3	46.0636E-12	973.779E-3	-21.7584E-3
1.72836E-3	45.2746E-12	969.987E-3	-23.9637E-3	46.1202E-12	973.658E-3	-21.3378E-3
1.72336E-3	44.6499E-12	969.366E-3	-15.3461E-3	46.3471E-12	984.997E-3	-30.7148E-3
1.71836E-3	44.8914E-12	947.575E-3	-27.2943E-3	46.2701E-12	1.00072E+0	-42.7178E-3
1.71336E-3	44.9749E-12	959.322E-3	-22.8245E-3	45.7719E-12	1.00972E+0	-36.3356E-3
1.70835E-3	44.3968E-12	969.940E-3	934.710E-6	45.1341E-12	1.00526E+0	-17.3345E-3
1.70335E-3	44.0987E-12	950.842E-3	-8.07958E-3	44.9653E-12	997.057E-3	-8.16988E-3
1.69835E-3	44.1507E-12	940.748E-3	-25.0518E-3	44.8037E-12	1.00230E+0	-11.6820E-3
1.69335E-3	44.5986E-12	957.265E-3	-10.6605E-3	44.1844E-12	1.01495E+0	-17.5614E-3
1.68834E-3	44.0412E-12	988.966E-3	-7.99316E-3	42.8160E-12	1.01800E+0	-17.0883E-3
1.68334E-3	43.2754E-12	1.01966E+0	-22.8473E-3	42.4104E-12	1.00840E+0	-10.7103E-3
1.67834E-3	43.0880E-12	1.01626E+0	-12.8579E-3	42.1757E-12	1.00125E+0	-17.6510E-3
1.67334E-3	42.9269E-12	1.01138E+0	-1.66847E-3	42.0141E-12	1.00997E+0	-30.1846E-3
1.66833E-3	42.5770E-12	1.03728E+0	-22.6198E-3	41.3155E-12	1.02371E+0	-18.1025E-3
1.66333E-3	41.6917E-12	1.04215E+0	-33.6784E-3	40.8245E-12	1.03141E+0	-1.06426E-3
1.65833E-3	41.1866E-12	1.02235E+0	-20.9220E-3	40.8883E-12	1.03724E+0	1.99746E-3
1.65333E-3	40.8505E-12	1.01880E+0	-13.8199E-3	41.0071E-12	1.04692E+0	-4.27331E-3
1.64832E-3	40.5635E-12	1.02480E+0	-10.1647E-3	40.7286E-12	1.05533E+0	-15.0620E-3
1.64332E-3	39.7631E-12	1.02155E+0	-12.0840E-3	40.4653E-12	1.06571E+0	-20.6875E-3
1.63832E-3	39.4109E-12	1.03078E+0	-17.8891E-3	40.2602E-12	1.08459E+0	-15.1080E-3
1.63332E-3	39.3226E-12	1.04536E+0	-14.8212E-3	40.3984E-12	1.09159E+0	-10.4540E-3
1.62831E-3	38.9981E-12	1.03833E+0	-23.1568E-3	40.2186E-12	1.09254E+0	-25.5015E-3
1.62331E-3	38.6149E-12	1.04009E+0	-37.0403E-3	40.0603E-12	1.10817E+0	-37.4325E-3
1.61831E-3	38.3694E-12	1.05153E+0	-35.0291E-3	39.3411E-12	1.12308E+0	-27.0057E-3
1.61331E-3	38.2135E-12	1.05282E+0	-29.9762E-3	39.0744E-12	1.12222E+0	-14.8027E-3
1.60830E-3	37.9949E-12	1.06689E+0	-20.4820E-3	38.7382E-12	1.11501E+0	-8.07736E-3
1.60330E-3	37.8538E-12	1.08344E+0	10.8579E-3	38.3206E-12	1.10966E+0	-6.82720E-3
1.59830E-3	37.5365E-12	1.07823E+0	26.3011E-3	37.4843E-12	1.11068E+0	-8.42277E-3
1.59330E-3	37.1686E-12	1.07441E+0	486.354E-6	36.8814E-12	1.12214E+0	-4.60369E-3
1.58829E-3	36.5602E-12	1.08902E+0	-10.6310E-3	36.4263E-12	1.13066E+0	-8.06856E-3
1.58329E-3	36.2242E-12	1.09735E+0	-2.39778E-3	36.3630E-12	1.12524E+0	-20.9639E-3
1.57829E-3	35.8070E-12	1.10367E+0	-9.81397E-3	35.8259E-12	1.11543E+0	-33.9558E-3
1.57329E-3	35.3977E-12	1.12263E+0	-11.5182E-3	35.0264E-12	1.12369E+0	-36.8702E-3
1.56828E-3	34.8218E-12	1.12397E+0	-4.88028E-3	34.5506E-12	1.14189E+0	-24.6081E-3
1.56328E-3	34.5058E-12	1.11438E+0	-12.8676E-3	34.6627E-12	1.14784E+0	-20.0142E-3
1.55828E-3	34.1047E-12	1.11689E+0	-19.4627E-3	34.6061E-12	1.14841E+0	-20.9351E-3
1.55328E-3	33.6923E-12	1.11677E+0	-20.2353E-3	33.8646E-12	1.15395E+0	-14.4810E-3
1.54827E-3	33.3503E-12	1.12247E+0	-28.3325E-3	33.3568E-12	1.16288E+0	-17.9588E-3
1.54327E-3	32.9685E-12	1.14223E+0	-28.6366E-3	33.3137E-12	1.17043E+0	-23.7210E-3
1.53827E-3	32.5825E-12	1.14284E+0	-13.5607E-3	33.2051E-12	1.17535E+0	-16.2705E-3
1.53327E-3	32.2399E-12	1.12987E+0	-8.43312E-3	32.6138E-12	1.17740E+0	-9.54202E-3
1.52826E-3	32.0142E-12	1.13686E+0	-16.0321E-3	32.0167E-12	1.18329E+0	-8.91198E-3
1.52326E-3	31.6502E-12	1.15275E+0	-10.8601E-3	31.4969E-12	1.17798E+0	-17.5433E-3
1.51826E-3	31.1708E-12	1.16014E+0	-9.70079E-3	31.0682E-12	1.15842E+0	-31.6698E-3
1.51326E-3	30.6562E-12	1.16633E+0	-14.4211E-3	30.4525E-12	1.15895E+0	-31.6578E-3
1.50825E-3	30.2409E-12	1.16472E+0	1.70064E-3	29.8999E-12	1.17856E+0	-21.8239E-3
1.50325E-3	29.8711E-12	1.16040E+0	5.71952E-3	29.2771E-12	1.18657E+0	-27.3793E-3
1.49825E-3	29.3459E-12	1.17490E+0	-14.6268E-3	28.9287E-12	1.17693E+0	-38.9290E-3
1.49325E-3	28.9977E-12	1.17452E+0	-13.1173E-3	28.5952E-12	1.16088E+0	-38.8135E-3
1.48824E-3	28.3903E-12	1.16313E+0	-3.20418E-3	28.5325E-12	1.15679E+0	-33.1549E-3
1.48324E-3	27.9261E-12	1.17204E+0	-8.38143E-3	28.1097E-12	1.18172E+0	-25.3683E-3
1.47824E-3	27.3733E-12	1.17191E+0	-12.0729E-3	27.6018E-12	1.20400E+0	-23.1374E-3
1.47324E-3	27.0605E-12	1.15416E+0	-21.7812E-3	27.2045E-12	1.19302E+0	-26.2510E-3
1.46823E-3	26.6901E-12	1.15378E+0	-26.1574E-3	27.2199E-12	1.18284E+0	-18.5128E-3
1.46323E-3	26.4035E-12	1.17321E+0	-14.8961E-3	26.9892E-12	1.19359E+0	-3.06608E-3
1.45823E-3	25.9638E-12	1.18126E+0	-12.7683E-3	26.1989E-12	1.20179E+0	2.30171E-3
1.45323E-3	25.6513E-12	1.18679E+0	-28.6236E-3	25.7428E-12	1.19176E+0	-8.92004E-3
1.44822E-3	25.5572E-12	1.19285E+0	-36.9776E-3	25.5917E-12	1.17954E+0	-22.5392E-3
1.44322E-3	25.1490E-12	1.17336E+0	-26.3807E-3	25.3108E-12	1.17017E+0	-24.2800E-3
1.43822E-3	24.8939E-12	1.16134E+0	-23.8506E-3	24.5263E-12	1.16273E+0	-26.5697E-3
1.43322E-3	24.4970E-12	1.17696E+0	-25.7459E-3	24.0464E-12	1.17207E+0	-29.2274E-3
1.42821E-3	24.1930E-12	1.18241E+0	-21.7985E-3	23.7603E-12	1.18318E+0	-22.5074E-3
1.42321E-3	23.7818E-12	1.17722E+0	-22.3700E-3	23.5430E-12	1.17453E+0	-15.0692E-3
1.41821E-3	23.3722E-12	1.17827E+0	-19.2037E-3	22.8405E-12	1.16476E+0	-11.5795E-3
1.41321E-3	22.8942E-12	1.17773E+0	-19.2774E-3	22.4617E-12	1.16835E+0	-9.95087E-3
1.40820E-3	22.4879E-12	1.18635E+0	-29.2095E-3	22.2427E-12	1.17888E+0	-8.89078E-3
1.40320E-3	21.9636E-12	1.20020E+0	-26.5754E-3	22.0300E-12	1.18570E+0	-5.70805E-3
1.39820E-3	21.3068E-12	1.18089E+0	-21.4543E-3	21.7136E-12	1.17887E+0	-10.5741E-3
1.39320E-3	21.0163E-12	1.14214E+0	-25.2047E-3	21.4242E-12	1.17079E+0	-26.5413E-3
1.38819E-3	20.6118E-12	1.13010E+0	-19.8169E-3	21.1627E-12	1.17581E+0	-32.3737E-3
1.38319E-3	20.2282E-12	1.13417E+0	-11.4627E-3	20.8977E-12	1.17627E+0	-32.8812E-3
1.37819E-3	19.8276E-12	1.13735E+0	-17.5083E-3	20.5676E-12	1.14635E+0	-39.7168E-3
1.37319E-3	19.5778E-12	1.13902E+0	-25.6619E-3	20.1904E-12	1.10654E+0	-39.3624E-3
1.36818E-3	19.2090E-12	1.12165E+0	-18.3106E-3	19.6745E-12	1.09241E+0	-31.4844E-3
1.36318E-3	18.9371E-12	1.10041E+0	-14.8949E-3	19.1477E-12	1.09233E+0	-25.4850E-3
1.35818E-3	18.5344E-12	1.10120E+0	-13.0412E-3	18.7583E-12	1.08716E+0	-16.1641E-3
1.35318E-3	18.2722E-12	1.09784E+0	1.66010E-3	18.2961E-12	1.07677E+0	-1.64641E-3
1.34817E-3	18.0320E-12	1.07886E+0	813.712E-6	17.8245E-12	1.05405E+0	2.27201E-3
1.34317E-3	17.7048E-12	1.08298E+0	-18.0245E-3	17.1939E-12	1.02570E+0	-7.47981E-3
1.33817E-3	17.4942E-12	1.08893E+0	-21.9181E-3	16.8144E-12	1.00649E+0	-17.3927E-3
1.33317E-3	17.2402E-12	1.06760E+0	-20.1394E-3	16.5781E-12	997.692E-3	-15.1409E-3
1.32816E-3	16.7054E-12	1.06615E+0	-21.9985E-3	16.2435E-12	998.334E-3	-6.22379E-3
1.32316E-3	16.2377E-12	1.07287E+0	-12.6865E-3	15.7274E-12	998.370E-3	-7.92986E-3
1.31816E-3	15.9128E-12	1.04862E+0	-20.2541E-3	15.3701E-12	982.947E-3	-9.78894E-3
1.31316E-3	15.5552E-12	1.03020E+0	-30.0146E-3	15.2390E-12	968.256E-3	-15.4778E-3
1.30815E-3	15.0328E-12	1.03085E+0	-5.86502E-3	15.0649E-12	967.908E-3	-25.7286E-3
1.30315E-3	14.6129E-12	1.01922E+0	8.82701E-3	14.7299E-12	960.589E-3	-23.0841E-3
1.29815E-3	14.3849E-12	994.620E-3	-6.37050E-3	14.3607E-12	940.331E-3	-13.8400E-3
1.29315E-3	14.0771E-12	967.564E-3	-19.1995E-3	14.3574E-12	925.769E-3	-7.41688E-3
1.28814E-3	13.6093E-12	943.926E-3	-17.9411E-3	14.0729E-12	925.677E-3	-3.08847E-3
1.28314E-3	13.2915E-12	941.356E-3	-12.4072E-3	13.6769E-12	921.794E-3	4.08507E-3
1.27814E-3	13.0437E-12	955.210E-3	-7.39179E-3	13.2372E-12	895.335E-3	-3.09930E-3
1.27314E-3	12.9347E-12	945.927E-3	-15.3227E-3	13.0056E-12	864.054E-3	-23.9245E-3
1.26813E-3	12.5994E-12	917.593E-3	-31.0303E-3	12.6292E-12	841.460E-3	-29.2006E-3
1.26313E-3	12.3315E-12	906.844E-3	-25.7447E-3	12.2582E-12	823.154E-3	-21.3187E-3
1.25813E-3	12.0788E-12	898.326E-3	-16.0196E-3	11.9057E-12	808.706E-3	-19.3531E-3
1.25313E-3	11.8619E-12	884.713E-3	-23.5726E-3	11.5549E-12	794.114E-3	-18.5124E-3
1.24812E-3	11.4806E-12	880.685E-3	-19.5768E-3	11.2301E-12	778.715E-3	-13.9928E-3
1.24312E-3	11.1825E-12	862.029E-3	-8.20592E-3	10.8707E-12	769.372E-3	-11.0467E-3
1.23812E-3	10.9197E-12	833.287E-3	-16.4741E-3	10.6325E-12	756.119E-3	-14.6912E-3
1.23312E-3	10.6916E-12	821.874E-3	-18.6231E-3	10.4459E-12	738.383E-3	-29.5403E-3
1.22811E-3	10.3351E-12	805.313E-3	-6.01908E-3	10.1113E-12	730.289E-3	-39.2013E-3
1.22311E-3	10.0247E-12	785.791E-3	-14.1112E-3	9.86005E-12	718.769E-3	-26.8386E-3
1.21811E-3	9.79888E-12	774.753E-3	-20.2935E-3	9.75491E-12	694.104E-3	-10.3239E-3
1.21311E-3	9.53012E-12	749.683E-3	-2.45078E-3	9.71029E-12	672.936E-3	-7.55106E-3
1.20810E-3	9.21275E-12	720.267E-3	7.63650E-3	9.40262E-12	671.552E-3	-15.3394E-3
1.20310E-3	9.06780E-12	714.530E-3	5.33708E-3	9.26096E-12	666.776E-3	-19.2419E-3
1.19810E-3	8.91193E-12	701.020E-3	-10.2623E-3	9.06214E-12	637.646E-3	-14.5728E-3
1.19310E-3	8.63799E-12	668.362E-3	-37.2713E-3	8.92220E-12	607.689E-3	-9.32424E-3
1.18809E-3	8.39456E-12	658.444E-3	-45.3194E-3	8.65858E-12	593.050E-3	-13.8131E-3
1.18309E-3	8.28331E-12	659.596E-3	-21.2469E-3	8.28469E-12	587.835E-3	-22.9465E-3
1.17809E-3	8.22749E-12	647.177E-3	-5.08614E-3	8.17545E-12	580.804E-3	-21.4528E-3
1.17309E-3	7.96452E-12	639.000E-3	-21.0286E-3	8.02446E-12	571.706E-3	-10.2067E-3
1.16808E-3	7.66277E-12	627.857E-3	-36.3631E-3	7.65856E-12	552.873E-3	-7.40694E-3
1.16308E-3	7.57382E-12	598.671E-3	-38.7394E-3	7.37999E-12	522.217E-3	-22.1446E-3
1.15808E-3	7.42165E-12	576.420E-3	-29.7996E-3	7.21324E-12	501.298E-3	-30.7868E-3
1.15308E-3	7.20869E-12	552.583E-3	-7.43499E-3	7.12851E-12	490.468E-3	-20.5434E-3
1.14807E-3	6.87533E-12	526.232E-3	71.4462E-6	6.84057E-12	473.406E-3	-13.1420E-3
1.14307E-3	6.78069E-12	534.256E-3	-16.1431E-3	6.54544E-12	449.777E-3	-12.8311E-3
1.13807E-3	6.61256E-12	545.590E-3	-16.8452E-3	6.49766E-12	442.533E-3	-9.95401E-3
1.13307E-3	6.39340E-12	522.128E-3	-8.13575E-3	6.37534E-12	439.582E-3	-13.5551E-3
1.12806E-3	6.15853E-12	500.849E-3	-9.89478E-3	6.13862E-12	420.677E-3	-22.8340E-3
1.12306E-3	6.05374E-12	494.690E-3	-8.28722E-3	6.00138E-12	411.322E-3	-27.4522E-3
1.11806E-3	5.97053E-12	464.534E-3	-14.6748E-3	5.93967E-12	408.420E-3	-26.2273E-3
1.11306E-3	5.67499E-12	418.538E-3	-24.0684E-3	5.84899E-12	397.683E-3	-20.2283E-3
1.10805E-3	5.58812E-12	400.587E-3	-19.3068E-3	5.64924E-12	391.410E-3	-17.5358E-3
1.10305E-3	5.54240E-12	397.834E-3	-10.0631E-3	5.52937E-12	373.886E-3	-17.7042E-3
1.09805E-3	5.46598E-12	388.976E-3	-11.6819E-3	5.47595E-12	338.756E-3	-6.99519E-3
1.09305E-3	5.21747E-12	386.166E-3	-15.2395E-3	5.28709E-12	325.662E-3	-7.46989E-3
1.08804E-3	5.16287E-12	374.829E-3	-13.5488E-3	5.09200E-12	324.638E-3	-19.7029E-3
1.08304E-3	5.18957E-12	360.719E-3	-17.7693E-3	4.97997E-12	308.902E-3	-18.2488E-3
1.07804E-3	4.95910E-12	358.316E-3	-13.7103E-3	4.92494E-12	298.177E-3	-11.0115E-3
1.07304E-3	4.77770E-12	345.390E-3	-10.6773E-3	4.79567E-12	293.078E-3	-12.2013E-3
1.06803E-3	4.69473E-12	331.210E-3	-28.8691E-3	4.52991E-12	285.378E-3	-18.3194E-3
1.06303E-3	4.70005E-12	331.606E-3	-32.1941E-3	4.51303E-12	280.376E-3	-16.5772E-3
1.05803E-3	4.42112E-12	321.044E-3	-9.46868E-3	4.48615E-12	275.059E-3	-13.0180E-3
1.05303E-3	4.20935E-12	304.116E-3	1.05452E-3	4.32616E-12	252.421E-3	-14.1201E-3
1.04802E-3	4.22307E-12	300.491E-3	-4.21278E-3	4.16463E-12	228.082E-3	-14.1583E-3
1.04302E-3	4.35039E-12	287.248E-3	-5.22624E-3	4.24430E-12	220.893E-3	-17.7938E-3
1.03802E-3	4.08930E-12	268.732E-3	-8.50395E-3	4.21682E-12	214.864E-3	-31.5740E-3
1.03302E-3	3.82485E-12	270.568E-3	-7.45613E-3	3.98819E-12	206.714E-3	-30.9928E-3
1.02801E-3	3.76457E-12	267.702E-3	7.83123E-3	3.70601E-12	200.730E-3	-20.5429E-3
1.02301E-3	3.69167E-12	248.680E-3	7.26971E-3	3.61917E-12	195.055E-3	-24.3898E-3
1.01801E-3	3.52349E-12	235.185E-3	-7.20149E-3	3.65846E-12	187.677E-3	-26.4658E-3
1.01301E-3	3.40835E-12	214.556E-3	-6.02572E-3	3.52997E-12	176.713E-3	-22.1934E-3
1.00800E-3	3.44226E-12	190.233E-3	-4.18724E-3	3.31729E-12	167.782E-3	-22.3513E-3
1.00300E-3	3.52146E-12	194.746E-3	-15.3833E-3	3.31997E-12	168.582E-3	-25.0016E-3
997.999E-6	3.30632E-12	214.894E-3	-23.3411E-3	3.31807E-12	169.347E-3	-22.7170E-3
992.997E-6	3.26534E-12	203.391E-3	-30.8816E-3	3.23585E-12	157.927E-3	-16.7328E-3
987.994E-6	3.29904E-12	175.976E-3	-31.6713E-3	3.08124E-12	144.126E-3	-19.2051E-3
982.991E-6	3.23458E-12	171.030E-3	-10.9625E-3	3.06495E-12	138.807E-3	-24.3476E-3
977.989E-6	3.04427E-12	171.883E-3	-1.28530E-3	3.06627E-12	138.951E-3	-24.5779E-3
972.986E-6	3.05624E-12	176.592E-3	-22.1720E-3	2.98680E-12	140.518E-3	-18.5979E-3
967.984E-6	3.09194E-12	180.993E-3	-29.7294E-3	2.89888E-12	140.364E-3	-6.43617E-3
962.981E-6	2.96080E-12	156.711E-3	-13.7983E-3	2.95352E-12	137.232E-3	-1.15413E-3
957.979E-6	2.76141E-12	135.453E-3	-13.8634E-3	2.93355E-12	131.904E-3	-7.26405E-3
952.976E-6	2.76114E-12	137.745E-3	-8.22478E-3	2.80686E-12	131.590E-3	-18.3928E-3
947.974E-6	2.83652E-12	131.931E-3	3.03971E-3	2.75089E-12	131.132E-3	-20.3433E-3
942.971E-6	2.67866E-12	128.756E-3	-16.0484E-3	2.83258E-12	118.577E-3	-12.2229E-3
937.969E-6	2.59780E-12	130.988E-3	-25.8713E-3	2.74560E-12	109.575E-3	-6.37431E-3
932.966E-6	2.63296E-12	122.091E-3	-16.1461E-3	2.60827E-12	113.361E-3	4.65935E-3
927.964E-6	2.68895E-12	120.444E-3	-21.2331E-3	2.57110E-12	121.938E-3	9.66106E-3
922.961E-6	2.54219E-12	127.947E-3	-23.2716E-3	2.61130E-12	125.106E-3	15.4677E-6
917.959E-6	2.40156E-12	130.116E-3	-16.0202E-3	2.55635E-12	115.757E-3	-8.92366E-3
912.956E-6	2.48133E-12	121.798E-3	-18.7387E-3	2.33648E-12	101.548E-3	-22.7132E-3
907.954E-6	2.54555E-12	103.634E-3	-15.2993E-3	2.38086E-12	95.4764E-3	-38.7976E-3
902.951E-6	2.38160E-12	89.4472E-3	-1.57159E-3	2.43299E-12	95.1067E-3	-41.1451E-3
897.949E-6	2.29695E-12	97.0616E-3	-8.89883E-3	2.36683E-12	86.4162E-3	-34.2303E-3
892.946E-6	2.35137E-12	120.540E-3	-25.6980E-3	2.19272E-12	74.6021E-3	-24.6977E-3
887.944E-6	2.38261E-12	122.864E-3	-27.1279E-3	2.22646E-12	72.5105E-3	-20.2105E-3
882.941E-6	2.28011E-12	99.5599E-3	-27.3052E-3	2.33729E-12	75.7296E-3	-24.4850E-3
877.939E-6	2.14543E-12	95.7159E-3	-14.8749E-3	2.26173E-12	80.1125E-3	-15.1875E-3
872.936E-6	2.18086E-12	107.444E-3	8.15417E-3	2.08633E-12	82.7159E-3	-1.02750E-3
867.934E-6	2.16735E-12	102.005E-3	3.23088E-3	2.11113E-12	76.9359E-3	2.21471E-3
862.931E-6	2.09805E-12	91.3431E-3	-14.6069E-3	2.18925E-12	73.5657E-3	5.68277E-3
857.929E-6	2.05469E-12	81.2281E-3	-7.61968E-3	2.16471E-12	74.2686E-3	-2.96962E-3
852.926E-6	2.09841E-12	68.8687E-3	6.91885E-3	2.09711E-12	70.5643E-3	-20.2988E-3
847.924E-6	2.04963E-12	74.4847E-3	9.41261E-3	2.07733E-12	71.3788E-3	-23.9598E-3
842.921E-6	1.96188E-12	84.8351E-3	270.761E-6	2.04848E-12	68.6655E-3	-22.9331E-3
837.919E-6	1.95028E-12	71.9885E-3	-24.3474E-3	2.01284E-12	63.5301E-3	-28.4742E-3
832.916E-6	2.05122E-12	60.5217E-3	-45.0206E-3	1.96696E-12	72.4105E-3	-27.8413E-3
827.914E-6	1.97626E-12	57.4649E-3	-37.1803E-3	1.94475E-12	79.4407E-3	-20.1608E-3
822.911E-6	1.84386E-12	54.3088E-3	-29.3105E-3	1.92836E-12	74.5280E-3	-23.7060E-3
817.909E-6	1.94474E-12	69.2469E-3	-44.3846E-3	1.81425E-12	63.5142E-3	-29.2909E-3
812.906E-6	1.96871E-12	85.7324E-3	-42.2023E-3	1.84399E-12	49.0828E-3	-19.2955E-3
807.904E-6	1.87456E-12	76.1549E-3	-17.7611E-3	1.86964E-12	41.6343E-3	-13.4628E-3
802.901E-6	1.80259E-12	56.3436E-3	-15.8667E-3	1.83275E-12	37.4199E-3	-22.2562E-3
797.899E-6	1.80400E-12	52.0609E-3	-23.2228E-3	1.70749E-12	33.5438E-3	-19.5067E-3
792.896E-6	1.86976E-12	54.1350E-3	-14.8245E-3	1.71141E-12	37.8303E-3	-13.7963E-3
787.894E-6	1.72373E-12	50.7874E-3	-8.28564E-3	1.84415E-12	46.1425E-3	-20.6378E-3
782.891E-6	1.65463E-12	49.0721E-3	-4.26019E-3	1.83990E-12	50.9419E-3	-16.8873E-3
777.889E-6	1.70595E-12	38.6835E-3	1.32584E-3	1.65388E-12	46.5232E-3	-6.62333E-3
772.886E-6	1.75017E-12	29.0115E-3	-6.88316E-3	1.66939E-12	41.8058E-3	-8.33991E-3
767.884E-6	1.62686E-12	44.6661E-3	-4.84132E-3	1.82923E-12	40.8978E-3	-15.0365E-3
762.881E-6	1.58271E-12	51.9273E-3	9.43236E-3	1.82465E-12	34.1353E-3	-18.5428E-3
757.879E-6	1.69093E-12	33.8855E-3	-1.89300E-3	1.63040E-12	24.1609E-3	-17.9198E-3
752.876E-6	1.72906E-12	25.9131E-3	-7.39221E-3	1.65133E-12	18.2943E-3	-9.08837E-3
747.874E-6	1.64490E-12	26.4114E-3	1.41527E-3	1.78202E-12	22.0004E-3	-7.94908E-3
742.871E-6	1.58915E-12	33.5855E-3	-13.9751E-3	1.72329E-12	25.9467E-3	-18.1155E-3
737.869E-6	1.72434E-12	55.8826E-3	-35.8257E-3	1.59240E-12	24.9368E-3	-18.3041E-3
732.866E-6	1.68484E-12	58.0949E-3	-28.3862E-3	1.55253E-12	35.7377E-3	-12.6153E-3
727.864E-6	1.54934E-12	40.8835E-3	-13.8313E-3	1.63067E-12	47.1176E-3	-11.9322E-3
722.861E-6	1.56122E-12	42.6311E-3	-11.4931E-3	1.57221E-12	39.2430E-3	-21.1022E-3
717.859E-6	1.66518E-12	45.9590E-3	-9.57577E-3	1.50327E-12	28.8405E-3	-29.9566E-3
712.856E-6	1.57291E-12	32.2902E-3	-13.1921E-3	1.51704E-12	25.8497E-3	-30.5002E-3
707.854E-6	1.47577E-12	31.6563E-3	-22.2119E-3	1.54371E-12	19.3782E-3	-25.2712E-3
702.851E-6	1.49239E-12	43.6203E-3	-17.3707E-3	1.54079E-12	11.3574E-3	-18.9834E-3
697.849E-6	1.54379E-12	46.8295E-3	-10.7328E-3	1.40305E-12	15.3889E-3	-25.6114E-3
692.846E-6	1.45900E-12	52.6152E-3	-18.9767E-3	1.51437E-12	25.2666E-3	-30.8124E-3
687.844E-6	1.39190E-12	52.7298E-3	-23.7983E-3	1.53813E-12	18.6204E-3	-16.8183E-3
682.841E-6	1.45851E-12	38.9928E-3	-32.0982E-3	1.40436E-12	15.2221E-3	-7.42350E-3
677.839E-6	1.51466E-12	32.5340E-3	-44.3367E-3	1.40031E-12	27.4225E-3	-9.74534E-3
672.836E-6	1.41621E-12	27.4050E-3	-33.6060E-3	1.51392E-12	36.1236E-3	-7.89871E-3
667.834E-6	1.34999E-12	21.8611E-3	-18.2525E-3	1.49409E-12	30.6736E-3	-7.03042E-3
662.831E-6	1.41846E-12	30.9414E-3	-19.5592E-3	1.33573E-12	18.8501E-3	-6.74737E-3
657.829E-6	1.54208E-12	33.8971E-3	-22.2123E-3	1.35467E-12	24.5291E-3	2.30524E-3
652.826E-6	1.40960E-12	21.1494E-3	-28.4449E-3	1.44478E-12	40.0962E-3	10.2151E-3
647.824E-6	1.29508E-12	19.9049E-3	-29.1035E-3	1.47795E-12	43.0190E-3	5.42853E-3
642.821E-6	1.41596E-12	26.4080E-3	-21.8906E-3	1.22341E-12	36.6051E-3	-7.72988E-3
637.819E-6	1.46255E-12	16.3896E-3	-24.0931E-3	1.27214E-12	29.9330E-3	-22.5495E-3
632.816E-6	1.32044E-12	13.5354E-3	-29.5198E-3	1.38891E-12	24.9730E-3	-26.6545E-3
627.814E-6	1.27344E-12	33.2591E-3	-20.5540E-3	1.35978E-12	21.7722E-3	-22.0268E-3
622.811E-6	1.34739E-12	39.5370E-3	-10.6999E-3	1.21089E-12	24.5421E-3	-19.8533E-3
617.809E-6	1.36331E-12	34.7449E-3	-26.1352E-3	1.22974E-12	36.5434E-3	-20.0546E-3
612.806E-6	1.25550E-12	48.7394E-3	-33.9947E-3	1.29552E-12	42.7028E-3	-22.4467E-3
607.804E-6	1.25762E-12	51.7190E-3	-17.3067E-3	1.28134E-12	33.9296E-3	-21.9603E-3
602.801E-6	1.29161E-12	30.8568E-3	-13.9412E-3	1.23545E-12	23.0754E-3	-26.1444E-3
597.799E-6	1.27690E-12	22.4244E-3	-12.4597E-3	1.25608E-12	24.2167E-3	-24.3135E-3
592.796E-6	1.14029E-12	25.8542E-3	-5.39988E-3	1.21664E-12	28.7097E-3	-10.9272E-3
587.794E-6	1.21341E-12	32.5408E-3	-19.0918E-3	1.21638E-12	23.3733E-3	-12.9536E-3
582.791E-6	1.26328E-12	41.7615E-3	-30.1736E-3	1.18531E-12	16.9066E-3	-22.1344E-3
577.789E-6	1.24034E-12	34.2431E-3	-20.0074E-3	1.25301E-12	25.0056E-3	-25.5135E-3
572.786E-6	1.12333E-12	22.4964E-3	-13.3540E-3	1.22630E-12	35.7809E-3	-26.7317E-3
567.784E-6	1.25055E-12	32.5667E-3	-10.4646E-3	1.16798E-12	30.5221E-3	-19.0529E-3
562.781E-6	1.27482E-12	41.8562E-3	-11.0576E-3	1.12527E-12	23.3420E-3	-7.62456E-3
557.779E-6	1.17574E-12	27.8660E-3	-24.5448E-3	1.21837E-12	24.3680E-3	-9.91271E-3
552.776E-6	1.10991E-12	22.2823E-3	-29.6572E-3	1.16548E-12	26.0513E-3	-18.3602E-3
547.774E-6	1.19908E-12	31.9402E-3	-19.9023E-3	1.06313E-12	30.9645E-3	-15.2313E-3
542.771E-6	1.22992E-12	27.5207E-3	-18.1340E-3	1.05680E-12	32.2573E-3	-9.41163E-3
537.769E-6	1.12011E-12	24.6643E-3	-22.0134E-3	1.19224E-12	17.6947E-3	-5.48119E-3
532.766E-6	992.848E-15	24.4775E-3	-26.8251E-3	1.14144E-12	14.2413E-3	-1.91248E-3
527.764E-6	1.07857E-12	17.6776E-3	-32.5462E-3	985.271E-15	32.8955E-3	-5.06030E-3
522.761E-6	1.17456E-12	28.8439E-3	-27.4811E-3	976.002E-15	42.7211E-3	-9.12894E-3
517.759E-6	1.01645E-12	43.4225E-3	-20.6018E-3	1.11542E-12	32.0562E-3	-3.05465E-3
512.756E-6	1.00175E-12	39.0910E-3	-29.4066E-3	1.08167E-12	22.6282E-3	891.210E-6
507.754E-6	1.05207E-12	28.8713E-3	-34.9990E-3	961.214E-15	29.8027E-3	-6.61868E-3
502.751E-6	1.06737E-12	19.5086E-3	-22.7673E-3	970.997E-15	36.7906E-3	-10.6063E-3
497.749E-6	994.138E-15	17.4377E-3	-18.0112E-3	1.04322E-12	36.3273E-3	-10.4101E-3
492.746E-6	995.970E-15	31.0833E-3	-29.1148E-3	1.00469E-12	39.4349E-3	-14.7255E-3
487.744E-6	1.03411E-12	41.4115E-3	-30.7225E-3	936.190E-15	42.1862E-3	-20.1420E-3
482.741E-6	1.03249E-12	34.8923E-3	-27.6941E-3	914.156E-15	41.4543E-3	-21.9558E-3
477.739E-6	913.119E-15	26.6054E-3	-28.3088E-3	958.599E-15	36.9676E-3	-25.1361E-3
472.736E-6	906.396E-15	29.2051E-3	-13.8325E-3	946.601E-15	36.2663E-3	-27.7241E-3
467.734E-6	997.522E-15	40.6007E-3	-7.81213E-3	894.756E-15	42.9264E-3	-27.8404E-3
462.731E-6	944.482E-15	55.0603E-3	-26.1560E-3	972.471E-15	43.9742E-3	-20.8661E-3
457.729E-6	845.195E-15	61.3470E-3	-35.2063E-3	945.764E-15	37.4316E-3	-6.75923E-3
452.726E-6	879.052E-15	44.6780E-3	-21.6043E-3	900.755E-15	31.0207E-3	-1.83064E-3
447.724E-6	898.383E-15	32.3545E-3	-10.9258E-3	812.323E-15	31.2266E-3	-13.8132E-3
442.721E-6	819.883E-15	40.5757E-3	-16.4883E-3	908.149E-15	32.8622E-3	-25.7918E-3
437.719E-6	783.846E-15	44.7415E-3	-21.6910E-3	893.204E-15	25.5537E-3	-19.6793E-3
432.716E-6	799.524E-15	37.2337E-3	-19.9965E-3	790.046E-15	17.7540E-3	-11.9097E-3
427.714E-6	872.905E-15	27.3481E-3	-16.4559E-3	764.664E-15	18.4511E-3	-14.4170E-3
422.711E-6	771.290E-15	24.5200E-3	-7.86347E-3	886.690E-15	27.7015E-3	-10.8441E-3
417.709E-6	696.697E-15	34.4345E-3	-10.5098E-3	814.861E-15	40.3712E-3	-4.03303E-3
412.706E-6	752.413E-15	53.4171E-3	-31.7953E-3	699.051E-15	39.0568E-3	-7.15140E-3
407.704E-6	846.608E-15	63.7727E-3	-41.3024E-3	673.625E-15	27.2163E-3	-17.2458E-3
402.701E-6	781.527E-15	44.0715E-3	-35.1770E-3	802.619E-15	33.2992E-3	-25.9013E-3
397.699E-6	687.228E-15	13.3351E-3	-23.6939E-3	785.974E-15	46.4039E-3	-25.1815E-3
392.696E-6	795.687E-15	2.51639E-3	-9.60958E-3	645.096E-15	43.8008E-3	-11.8427E-3
387.694E-6	837.723E-15	15.4700E-3	-9.58981E-3	642.916E-15	39.6106E-3	6.31791E-3
382.691E-6	683.914E-15	44.5561E-3	-17.9220E-3	728.278E-15	41.7416E-3	5.62075E-3
377.689E-6	643.221E-15	59.1422E-3	-14.9346E-3	731.312E-15	46.6426E-3	-8.60182E-3
372.686E-6	725.872E-15	36.7264E-3	-8.72849E-3	628.015E-15	48.3151E-3	-13.8429E-3
367.684E-6	712.854E-15	12.9151E-3	-9.38101E-3	574.539E-15	37.3612E-3	-16.8323E-3
362.681E-6	650.746E-15	17.5294E-3	-15.4950E-3	685.911E-15	25.2462E-3	-23.2305E-3
357.679E-6	593.233E-15	32.0990E-3	-26.1696E-3	660.398E-15	21.3578E-3	-25.1073E-3
352.676E-6	679.328E-15	38.5021E-3	-32.8008E-3	565.419E-15	31.0740E-3	-23.0442E-3
347.674E-6	617.438E-15	29.9485E-3	-21.4815E-3	578.899E-15	45.7679E-3	-20.2343E-3
342.671E-6	540.656E-15	27.9631E-3	-10.8448E-3	619.993E-15	48.5588E-3	-16.8700E-3
337.669E-6	541.092E-15	45.7455E-3	-19.8796E-3	568.444E-15	44.2945E-3	-20.2014E-3
332.666E-6	605.179E-15	56.7997E-3	-39.1956E-3	544.327E-15	29.8101E-3	-29.7424E-3
327.664E-6	562.228E-15	41.5187E-3	-52.1105E-3	585.560E-15	24.2138E-3	-31.1269E-3
322.661E-6	487.555E-15	18.3337E-3	-44.2003E-3	602.214E-15	37.5696E-3	-24.3990E-3
317.659E-6	539.130E-15	12.3025E-3	-32.8179E-3	514.803E-15	42.2018E-3	-19.1377E-3
312.656E-6	577.242E-15	17.9586E-3	-23.2771E-3	509.188E-15	35.7978E-3	-8.92734E-3
307.654E-6	477.023E-15	29.2403E-3	-18.3555E-3	529.295E-15	35.7125E-3	-3.35540E-3
302.651E-6	409.640E-15	40.5542E-3	-28.1672E-3	517.245E-15	36.6805E-3	-9.91428E-3
297.649E-6	506.110E-15	44.6514E-3	-30.4503E-3	392.977E-15	33.7599E-3	-7.71354E-3
292.646E-6	546.140E-15	45.6648E-3	-22.4761E-3	366.514E-15	39.0694E-3	-4.77771E-3
287.644E-6	446.060E-15	49.6458E-3	-20.6913E-3	530.943E-15	40.5357E-3	-14.1932E-3
282.641E-6	356.086E-15	43.6676E-3	-27.2868E-3	499.562E-15	31.1981E-3	-19.7140E-3
277.639E-6	392.872E-15	28.1136E-3	-34.5271E-3	298.128E-15	30.2710E-3	-25.0599E-3
272.636E-6	428.648E-15	18.9703E-3	-28.9788E-3	308.818E-15	29.2595E-3	-33.2900E-3
267.634E-6	354.089E-15	14.2749E-3	-16.9819E-3	488.192E-15	23.4664E-3	-33.8346E-3
262.631E-6	341.769E-15	19.9206E-3	-20.7038E-3	449.592E-15	25.5328E-3	-35.8235E-3
257.629E-6	385.583E-15	36.1464E-3	-25.4746E-3	287.805E-15	30.6396E-3	-40.0934E-3
252.626E-6	399.115E-15	42.3651E-3	-22.9470E-3	298.904E-15	30.1846E-3	-32.9847E-3
247.624E-6	290.525E-15	29.9155E-3	-28.3105E-3	416.624E-15	31.2557E-3	-18.6131E-3
242.621E-6	257.322E-15	22.9697E-3	-30.4658E-3	407.338E-15	32.0068E-3	-14.4175E-3
237.619E-6	342.649E-15	28.8619E-3	-23.1457E-3	250.756E-15	22.7844E-3	-10.3740E-3
232.616E-6	352.389E-15	23.1703E-3	-16.5930E-3	255.421E-15	23.1698E-3	-8.49480E-3
227.614E-6	269.241E-15	14.8701E-3	-14.5405E-3	293.769E-15	31.3190E-3	-28.7774E-3
222.611E-6	202.975E-15	15.7272E-3	-7.67579E-3	333.738E-15	30.6222E-3	-43.2192E-3
217.609E-6	353.714E-15	18.4498E-3	-3.47937E-3	225.209E-15	34.7253E-3	-26.6733E-3
212.606E-6	286.706E-15	29.8814E-3	-13.4830E-3	249.483E-15	39.7047E-3	-2.81400E-3
207.604E-6	229.891E-15	42.8262E-3	-22.9102E-3	263.914E-15	27.9480E-3	11.8672E-3
202.601E-6	213.019E-15	32.8062E-3	-25.2178E-3	173.774E-15	20.8474E-3	14.5693E-3
197.599E-6	258.229E-15	17.1278E-3	-23.8456E-3	158.715E-15	29.4029E-3	-4.74097E-3
192.596E-6	203.681E-15	16.3842E-3	-26.8085E-3	198.162E-15	34.7684E-3	-24.1854E-3
187.594E-6	108.109E-15	15.3866E-3	-31.9993E-3	191.387E-15	36.7398E-3	-10.6804E-3
182.591E-6	193.383E-15	14.9243E-3	-25.5676E-3	74.9491E-15	45.8736E-3	5.34192E-3
177.589E-6	267.855E-15	13.2235E-3	-22.4378E-3	108.082E-15	51.7874E-3	-6.43817E-3
172.586E-6	115.110E-15	6.53487E-3	-26.7811E-3	212.522E-15	47.3437E-3	-14.2760E-3
167.584E-6	94.1839E-15	4.56948E-3	-24.3607E-3	206.707E-15	36.8338E-3	-8.97842E-3
162.581E-6	127.247E-15	10.9238E-3	-23.4059E-3	45.7045E-15	25.4559E-3	-11.0075E-3
157.579E-6	207.988E-15	25.9514E-3	-28.9596E-3	76.8150E-15	24.2979E-3	-16.1354E-3
152.576E-6	103.165E-15	33.1866E-3	-35.1887E-3	182.310E-15	25.2133E-3	-24.3888E-3
147.574E-6	10.2169E-15	27.2717E-3	-22.7697E-3	175.622E-15	19.5968E-3	-34.3238E-3
142.571E-6	89.6934E-15	29.5144E-3	-4.00264E-3	8.93519E-15	21.5461E-3	-26.7976E-3
137.569E-6	184.464E-15	36.4992E-3	-293.841E-6	28.9373E-15	30.4454E-3	-12.7196E-3
132.566E-6	49.8985E-15	37.0849E-3	2.06685E-3	138.801E-15	26.6940E-3	-12.3543E-3
127.564E-6	50.3519E-15	34.9929E-3	528.826E-6	107.769E-15	15.1513E-3	-17.2098E-3
122.561E-6	106.888E-15	29.4024E-3	-13.5490E-3	-6.47183E-15	11.0298E-3	-19.0032E-3
117.559E-6	111.021E-15	29.6562E-3	-25.8400E-3	-34.4521E-15	12.4775E-3	-13.8252E-3
112.556E-6	-8.26800E-15	31.7429E-3	-25.1467E-3	67.8254E-15	14.2657E-3	1.70700E-3
107.554E-6	-9.86364E-15	25.6788E-3	-31.4119E-3	90.2079E-15	19.0057E-3	2.34908E-3
102.551E-6	67.2674E-15	23.6688E-3	-37.7531E-3	294.352E-18	19.9808E-3	-10.1969E-3
97.5488E-6	51.8778E-15	22.8631E-3	-20.6315E-3	9.78096E-15	9.84175E-3	-2.41265E-3
92.5463E-6	-63.1909E-15	19.2208E-3	-8.06221E-3	36.4359E-15	13.5173E-3	2.45902E-3
87.5438E-6	-48.0891E-15	24.5324E-3	-15.7986E-3	-13.3688E-15	29.1683E-3	-7.26988E-3
82.5413E-6	58.4521E-15	33.6080E-3	-19.6684E-3	-84.7887E-15	18.1747E-3	-3.21994E-3
77.5388E-6	-33.5802E-15	28.2393E-3	-19.3031E-3	-30.9556E-15	-3.75060E-3	4.01767E-3
72.5363E-6	-145.676E-15	15.3452E-3	-18.7963E-3	-24.6952E-15	-1.02809E-3	-9.77779E-3
67.5338E-6	-47.8798E-15	8.79814E-3	-7.50266E-3	-53.9136E-15	15.5133E-3	-23.4763E-3
62.5313E-6	5.97062E-15	10.1573E-3	6.53619E-3	-92.3570E-15	26.9870E-3	-20.9978E-3
57.5288E-6	-53.5474E-15	30.0122E-3	5.11087E-3	-33.7284E-15	27.7348E-3	-24.7587E-3
52.5263E-6	-131.454E-15	48.9680E-3	-8.91479E-3	-18.0772E-15	16.4365E-3	-25.1690E-3
47.5238E-6	-54.9337E-15	29.8134E-3	-19.4425E-3	-154.874E-15	11.8457E-3	-12.5116E-3
42.5213E-6	-45.3599E-15	3.02263E-3	-21.0463E-3	-153.593E-15	19.9895E-3	-12.2338E-3
37.5188E-6	-111.635E-15	6.64447E-3	-18.7720E-3	-8.45983E-15	23.2153E-3	-12.3219E-3
32.5163E-6	-205.080E-15	21.2473E-3	-24.6313E-3	-55.3959E-15	23.9076E-3	-3.06254E-3
27.5138E-6	-85.1200E-15	30.0401E-3	-33.9958E-3	-201.601E-15	24.4076E-3	-8.29109E-3
22.5113E-6	-58.0204E-15	28.3428E-3	-30.7278E-3	-219.598E-15	22.0050E-3	-19.2332E-3
17.5088E-6	-173.542E-15	12.4442E-3	-16.6549E-3	-74.9882E-15	27.0347E-3	-19.3998E-3
12.5063E-6	-215.535E-15	6.14516E-3	-9.77507E-3	-104.765E-15	35.7351E-3	-17.4194E-3
7.50375E-6	-90.5608E-15	17.9993E-3	-13.6554E-3	-239.652E-15	30.6979E-3	-19.8862E-3
2.50125E-6	-87.8230E-15	25.4674E-3	-18.2012E-3	-228.736E-15	24.4034E-3	-14.1406E-3
-2.50125E-6	-191.905E-15	19.2211E-3	-22.8585E-3	-109.011E-15	22.2765E-3	-8.78176E-3
-7.50375E-6	-234.761E-15	13.6633E-3	-14.0356E-3	-136.137E-15	17.9134E-3	-17.4916E-3
-12.5063E-6	-174.127E-15	19.8507E-3	-3.78056E-3	-243.201E-15	27.4467E-3	-16.6408E-3
-17.5088E-6	-160.010E-15	26.7109E-3	-23.3013E-3	-248.729E-15	37.4631E-3	-15.1004E-3
-22.5113E-6	-256.585E-15	27.1111E-3	-45.5820E-3	-205.185E-15	24.1569E-3	-25.0699E-3
-27.5138E-6	-265.522E-15	24.7474E-3	-37.5186E-3	-185.043E-15	7.79967E-3	-25.6547E-3
-32.5163E-6	-181.329E-15	22.6576E-3	-17.0190E-3	-311.308E-15	6.16862E-3	-23.3014E-3
-37.5188E-6	-259.227E-15	30.1478E-3	-4.02054E-3	-228.457E-15	14.6765E-3	-23.9515E-3
-42.5213E-6	-288.350E-15	41.7555E-3	1.34743E-3	-255.809E-15	28.7516E-3	-17.4697E-3
-47.5238E-6	-291.811E-15	41.1478E-3	-11.6071E-3	-283.022E-15	36.2659E-3	-21.5429E-3
-52.5263E-6	-223.940E-15	38.5236E-3	-33.1472E-3	-295.151E-15	36.0066E-3	-33.4857E-3
-57.5288E-6	-277.067E-15	42.5246E-3	-31.6123E-3	-246.549E-15	41.3117E-3	-24.0805E-3
-62.5313E-6	-371.174E-15	48.4799E-3	-16.8524E-3	-273.448E-15	46.7656E-3	-15.4695E-3
-67.5338E-6	-317.838E-15	52.3196E-3	-12.3458E-3	-388.918E-15	53.0244E-3	-24.2539E-3
-72.5363E-6	-269.307E-15	50.0268E-3	-16.1358E-3	-385.369E-15	53.3979E-3	-21.1167E-3
-77.5388E-6	-367.163E-15	45.7295E-3	-17.0802E-3	-254.057E-15	43.7220E-3	-14.8195E-3
-82.5413E-6	-425.182E-15	38.9869E-3	-17.4595E-3	-269.839E-15	40.3698E-3	-21.6763E-3
-87.5438E-6	-356.735E-15	35.3443E-3	-19.5386E-3	-479.442E-15	38.7763E-3	-22.4441E-3
-92.5463E-6	-312.694E-15	37.5681E-3	-20.4801E-3	-458.873E-15	41.2534E-3	-18.7016E-3
-97.5488E-6	-416.393E-15	33.6441E-3	-24.3134E-3	-335.460E-15	41.6086E-3	-22.6825E-3
-102.551E-6	-498.415E-15	23.6271E-3	-24.1926E-3	-368.201E-15	32.9553E-3	-25.9036E-3
-107.554E-6	-421.354E-15	18.5407E-3	-20.3572E-3	-528.392E-15	35.6076E-3	-24.2647E-3
-112.556E-6	-368.689E-15	17.6747E-3	-15.3272E-3	-495.625E-15	35.4625E-3	-22.6322E-3
-117.559E-6	-491.091E-15	24.2832E-3	-4.79851E-3	-398.413E-15	17.3550E-3	-6.16527E-3
-122.561E-6	-511.276E-15	36.9480E-3	2.80589E-3	-410.899E-15	19.3355E-3	8.78537E-3
-127.564E-6	-445.646E-15	40.0640E-3	-2.85393E-3	-526.805E-15	45.9078E-3	-6.40307E-3
-132.566E-6	-429.088E-15	36.7778E-3	-6.10387E-3	-554.323E-15	55.3501E-3	-19.3133E-3
-137.569E-6	-557.009E-15	41.8501E-3	-3.72301E-3	-491.169E-15	47.2399E-3	-20.5911E-3
-142.571E-6	-594.755E-15	49.0415E-3	-9.60272E-3	-450.250E-15	38.5960E-3	-25.1800E-3
-147.574E-6	-535.900E-15	46.5061E-3	-13.8449E-3	-643.382E-15	30.4410E-3	-16.9129E-3
-152.576E-6	-498.398E-15	42.1146E-3	-1.87952E-3	-625.133E-15	26.6455E-3	-7.81123E-3
-157.579E-6	-643.600E-15	40.2255E-3	5.38061E-3	-545.857E-15	38.3318E-3	-21.0510E-3
-162.581E-6	-585.216E-15	46.2849E-3	-5.93731E-3	-636.730E-15	59.5939E-3	-33.5843E-3
-167.584E-6	-544.026E-15	58.9141E-3	-5.17826E-3	-635.230E-15	65.2609E-3	-31.6414E-3
-172.586E-6	-586.864E-15	62.8396E-3	-1.18229E-3	-637.985E-15	56.0902E-3	-27.2574E-3
-177.589E-6	-680.134E-15	59.2192E-3	-13.8767E-3	-636.799E-15	49.1648E-3	-26.1015E-3
-182.591E-6	-665.817E-15	52.8836E-3	-19.9473E-3	-708.027E-15	50.7476E-3	-27.2146E-3
-187.594E-6	-639.075E-15	47.7794E-3	-10.3088E-3	-748.991E-15	52.8315E-3	-22.0243E-3
-192.596E-6	-674.702E-15	55.7208E-3	-4.16583E-3	-713.922E-15	51.8352E-3	-16.6725E-3
-197.599E-6	-803.329E-15	73.6820E-3	-5.99791E-3	-683.282E-15	53.8734E-3	-19.0576E-3
-202.601E-6	-762.192E-15	68.8652E-3	-10.1006E-3	-832.208E-15	59.9677E-3	-18.6244E-3
-207.604E-6	-718.203E-15	47.8014E-3	-16.6223E-3	-833.411E-15	58.6676E-3	-23.3217E-3
-212.606E-6	-839.358E-15	46.0721E-3	-17.8172E-3	-704.391E-15	54.9573E-3	-32.9778E-3
-217.609E-6	-938.505E-15	51.7426E-3	-11.1040E-3	-795.726E-15	64.7859E-3	-32.8380E-3
-222.611E-6	-848.705E-15	55.1119E-3	-4.36668E-3	-960.137E-15	69.8327E-3	-22.7085E-3
-227.614E-6	-818.283E-15	58.3982E-3	-4.07893E-3	-906.008E-15	61.8511E-3	-4.24941E-3
-232.616E-6	-927.667E-15	52.9238E-3	-8.35398E-3	-810.191E-15	61.2550E-3	-1.08028E-3
-237.619E-6	-984.063E-15	45.9531E-3	-14.8067E-3	-878.961E-15	64.3413E-3	-20.8357E-3
-242.621E-6	-885.927E-15	48.6834E-3	-18.4774E-3	-1.00529E-12	60.5805E-3	-32.4497E-3
-247.624E-6	-903.610E-15	58.1395E-3	-16.8947E-3	-995.834E-15	65.9340E-3	-17.1022E-3
-252.626E-6	-1.00317E-12	64.1082E-3	-13.8723E-3	-905.929E-15	77.7080E-3	-4.49424E-3
-257.629E-6	-1.02091E-12	55.7992E-3	-6.62745E-3	-954.208E-15	79.0652E-3	-4.77719E-3
-262.631E-6	-995.843E-15	45.8082E-3	-3.35423E-3	-1.04454E-12	73.9752E-3	1.22766E-3
-267.634E-6	-971.795E-15	58.2883E-3	-3.29715E-3	-1.07573E-12	63.4853E-3	1.22656E-3
-272.636E-6	-1.06308E-12	73.1730E-3	778.765E-6	-1.03517E-12	51.5107E-3	1.82527E-3
-277.639E-6	-1.07989E-12	70.8004E-3	3.71365E-3	-1.07093E-12	52.7874E-3	7.29530E-3
-282.641E-6	-1.05560E-12	59.7234E-3	626.814E-6	-1.18181E-12	67.9976E-3	-7.15762E-3
-287.644E-6	-1.08100E-12	51.2815E-3	-8.45619E-3	-1.17323E-12	81.2484E-3	-23.5409E-3
-292.646E-6	-1.23568E-12	60.5834E-3	-10.2245E-3	-1.15644E-12	79.9148E-3	-17.7078E-3
-297.649E-6	-1.19574E-12	81.2383E-3	-4.77908E-3	-1.26640E-12	75.5683E-3	-13.1806E-3
-302.651E-6	-1.21012E-12	93.1980E-3	-4.63970E-3	-1.25782E-12	72.1154E-3	-15.8494E-3
-307.654E-6	-1.25981E-12	85.1353E-3	-7.21607E-3	-1.28220E-12	71.3350E-3	-18.6759E-3
-312.656E-6	-1.33457E-12	67.4593E-3	-11.5938E-3	-1.24954E-12	79.0002E-3	-22.3923E-3
-317.659E-6	-1.30315E-12	71.6042E-3	-15.9265E-3	-1.38329E-12	85.5488E-3	-18.1621E-3
-322.661E-6	-1.30488E-12	84.5150E-3	-13.4327E-3	-1.35919E-12	87.4535E-3	-14.2367E-3
-327.664E-6	-1.36635E-12	74.8435E-3	-12.2244E-3	-1.31112E-12	77.4645E-3	-23.2043E-3
-332.666E-6	-1.46574E-12	64.1267E-3	-19.3532E-3	-1.31597E-12	59.8307E-3	-30.4517E-3
-337.669E-6	-1.37523E-12	68.8600E-3	-22.4564E-3	-1.50023E-12	56.9494E-3	-20.6582E-3
-342.671E-6	-1.33468E-12	73.9079E-3	-14.7670E-3	-1.45963E-12	74.9288E-3	-12.0583E-3
-347.674E-6	-1.49728E-12	76.2079E-3	-5.61991E-3	-1.38117E-12	87.7326E-3	-16.6518E-3
-352.676E-6	-1.58284E-12	80.3576E-3	-6.48776E-3	-1.43629E-12	81.0862E-3	-17.7060E-3
-357.679E-6	-1.42680E-12	81.0880E-3	-13.8690E-3	-1.60104E-12	73.2644E-3	-15.7746E-3
-362.681E-6	-1.41250E-12	77.1337E-3	-18.6061E-3	-1.62578E-12	66.6380E-3	-14.6138E-3
-367.684E-6	-1.60442E-12	81.9882E-3	-18.0560E-3	-1.49097E-12	64.2556E-3	-11.8097E-3
-372.686E-6	-1.71274E-12	95.4883E-3	-12.7141E-3	-1.58842E-12	67.9433E-3	-8.87210E-3
-377.689E-6	-1.58611E-12	92.5182E-3	-10.2709E-3	-1.69898E-12	58.1598E-3	-5.44222E-3
-382.691E-6	-1.60360E-12	76.9619E-3	501.726E-6	-1.72366E-12	43.9174E-3	-3.60191E-3
-387.694E-6	-1.73459E-12	68.0767E-3	10.9876E-3	-1.63586E-12	49.4989E-3	-10.0149E-3
-392.696E-6	-1.80859E-12	65.3996E-3	-5.55457E-3	-1.67444E-12	68.9773E-3	-23.2650E-3
-397.699E-6	-1.72698E-12	71.1676E-3	-28.3062E-3	-1.77504E-12	79.9328E-3	-23.7866E-3
-402.701E-6	-1.70317E-12	66.7750E-3	-26.0590E-3	-1.75267E-12	84.2300E-3	-13.1163E-3
-407.704E-6	-1.85117E-12	52.8078E-3	-11.5250E-3	-1.72929E-12	86.9612E-3	-12.1014E-3
-412.706E-6	-1.82951E-12	60.3422E-3	-9.33014E-3	-1.79812E-12	78.8954E-3	-12.8909E-3
-417.709E-6	-1.81869E-12	76.2565E-3	-12.5890E-3	-1.86809E-12	72.0836E-3	-5.92757E-3
-422.711E-6	-1.84724E-12	75.1263E-3	-20.3152E-3	-1.86723E-12	73.3911E-3	-13.8667E-3
-427.714E-6	-1.88810E-12	67.1227E-3	-24.0276E-3	-1.88785E-12	74.5167E-3	-31.0577E-3
-432.716E-6	-1.82646E-12	56.1080E-3	-16.8749E-3	-1.93313E-12	71.8660E-3	-28.9213E-3
-437.719E-6	-1.81948E-12	41.6442E-3	-20.7019E-3	-1.95154E-12	59.9717E-3	-26.0764E-3
-442.721E-6	-1.90713E-12	48.3114E-3	-27.9403E-3	-1.86976E-12	46.2612E-3	-34.3829E-3
-447.724E-6	-2.04546E-12	64.6938E-3	-17.1515E-3	-1.91820E-12	52.4066E-3	-28.6014E-3
-452.726E-6	-1.93285E-12	55.1090E-3	-3.39057E-3	-2.03043E-12	72.0503E-3	-20.1104E-3
-457.729E-6	-1.94112E-12	48.6629E-3	-12.5239E-3	-2.06564E-12	71.6608E-3	-29.5306E-3
-462.731E-6	-2.09448E-12	70.9273E-3	-24.4375E-3	-1.91842E-12	54.9739E-3	-35.1703E-3
-467.734E-6	-2.15907E-12	91.9969E-3	-15.8620E-3	-1.97583E-12	56.4548E-3	-27.3161E-3
-472.736E-6	-2.08673E-12	92.1458E-3	-12.0507E-3	-2.14288E-12	66.1313E-3	-23.2978E-3
-477.739E-6	-2.04857E-12	75.0655E-3	-14.5660E-3	-2.10382E-12	58.3185E-3	-19.5591E-3
-482.741E-6	-2.18850E-12	52.8159E-3	-10.0334E-3	-2.07015E-12	55.6104E-3	-10.8606E-3
-487.744E-6	-2.28089E-12	47.2558E-3	-11.2711E-3	-2.09230E-12	58.5008E-3	-7.88015E-3
-492.746E-6	-2.12200E-12	55.7792E-3	-15.3658E-3	-2.21596E-12	53.9788E-3	-4.27713E-3
-497.749E-6	-2.11049E-12	53.6673E-3	-16.8150E-3	-2.22398E-12	59.5007E-3	-193.909E-6
-502.751E-6	-2.24195E-12	47.2319E-3	-26.7236E-3	-2.14668E-12	68.2028E-3	-5.97104E-3
-507.754E-6	-2.28470E-12	42.3414E-3	-31.9331E-3	-2.15694E-12	66.7695E-3	-11.6028E-3
-512.756E-6	-2.14022E-12	44.0942E-3	-25.0938E-3	-2.29455E-12	57.6764E-3	-15.5729E-3
-517.759E-6	-2.14473E-12	58.4572E-3	-24.6556E-3	-2.31780E-12	40.9856E-3	-28.5125E-3
-522.761E-6	-2.27365E-12	70.0328E-3	-20.3399E-3	-2.23922E-12	35.2063E-3	-32.6324E-3
-527.764E-6	-2.29532E-12	60.5648E-3	-7.28050E-3	-2.21770E-12	52.7031E-3	-17.6094E-3
-532.766E-6	-2.25134E-12	40.3258E-3	-7.31250E-3	-2.32868E-12	61.0887E-3	-2.67994E-3
-537.769E-6	-2.29199E-12	45.2974E-3	-16.9091E-3	-2.32313E-12	44.9891E-3	4.47792E-3
-542.771E-6	-2.37160E-12	55.4963E-3	-24.0639E-3	-2.31347E-12	40.1794E-3	3.67410E-3
-547.774E-6	-2.31997E-12	38.5222E-3	-29.2483E-3	-2.36967E-12	44.6195E-3	-11.3962E-3
-552.776E-6	-2.35672E-12	28.2760E-3	-39.2378E-3	-2.38010E-12	40.3470E-3	-24.4965E-3
-557.779E-6	-2.39172E-12	35.8496E-3	-46.0437E-3	-2.30728E-12	45.1087E-3	-20.4111E-3
-562.781E-6	-2.46356E-12	33.4839E-3	-38.3328E-3	-2.35800E-12	51.7793E-3	-16.8463E-3
-567.784E-6	-2.44661E-12	31.9627E-3	-27.9259E-3	-2.45181E-12	46.6737E-3	-23.1361E-3
-572.786E-6	-2.37559E-12	39.9371E-3	-17.9752E-3	-2.42536E-12	40.7897E-3	-24.0415E-3
-577.789E-6	-2.53039E-12	43.6322E-3	-19.7481E-3	-2.34782E-12	40.0980E-3	-25.0395E-3
-582.791E-6	-2.58109E-12	48.4977E-3	-38.9684E-3	-2.42797E-12	38.9592E-3	-28.5063E-3
-587.794E-6	-2.47548E-12	61.2896E-3	-46.4140E-3	-2.59283E-12	42.7323E-3	-19.6959E-3
-592.796E-6	-2.42702E-12	59.9243E-3	-39.2915E-3	-2.57147E-12	53.8892E-3	-16.1203E-3
-597.799E-6	-2.52319E-12	47.0280E-3	-27.8677E-3	-2.43798E-12	51.9205E-3	-22.3471E-3
-602.801E-6	-2.62839E-12	41.8330E-3	-11.1857E-3	-2.47180E-12	35.0348E-3	-24.6658E-3
-607.804E-6	-2.48928E-12	35.9131E-3	-8.75756E-3	-2.66922E-12	30.8067E-3	-24.9608E-3
-612.806E-6	-2.43721E-12	33.0114E-3	-20.3870E-3	-2.63884E-12	29.9162E-3	-26.8979E-3
-617.809E-6	-2.60353E-12	38.7862E-3	-18.6079E-3	-2.50835E-12	25.0189E-3	-17.9864E-3
-622.811E-6	-2.68465E-12	34.6972E-3	-13.8471E-3	-2.52247E-12	37.5023E-3	753.880E-6
-627.814E-6	-2.54649E-12	24.9944E-3	-30.0501E-3	-2.67972E-12	45.5821E-3	3.15758E-3
-632.816E-6	-2.55822E-12	28.8414E-3	-34.8813E-3	-2.68589E-12	37.9718E-3	-5.32323E-3
-637.819E-6	-2.67062E-12	37.5680E-3	-24.3767E-3	-2.63583E-12	36.2322E-3	-11.7061E-3
-642.821E-6	-2.78664E-12	43.3235E-3	-23.6119E-3	-2.61715E-12	35.1872E-3	-20.9112E-3
-647.824E-6	-2.68121E-12	50.4034E-3	-18.9505E-3	-2.64827E-12	35.2414E-3	-19.7888E-3
-652.826E-6	-2.68516E-12	54.2185E-3	-16.0038E-3	-2.70782E-12	43.5099E-3	-12.5355E-3
-657.829E-6	-2.77817E-12	39.1113E-3	-16.7047E-3	-2.63955E-12	43.9100E-3	-17.8691E-3
-662.831E-6	-2.78109E-12	20.9961E-3	-9.56682E-3	-2.67790E-12	32.7783E-3	-9.57289E-3
-667.834E-6	-2.64552E-12	25.9423E-3	-10.4236E-3	-2.69289E-12	29.9193E-3	184.815E-6
-672.836E-6	-2.70068E-12	43.4414E-3	-22.6901E-3	-2.69365E-12	37.1292E-3	-19.7381E-3
-677.839E-6	-2.74104E-12	58.1496E-3	-19.2805E-3	-2.70797E-12	42.4399E-3	-26.5207E-3
-682.841E-6	-2.67950E-12	56.7671E-3	-10.5463E-3	-2.79349E-12	44.2138E-3	-3.00221E-3
-687.844E-6	-2.68336E-12	41.0500E-3	-20.2175E-3	-2.79909E-12	38.8688E-3	6.58173E-3
-692.846E-6	-2.77464E-12	38.1615E-3	-19.6043E-3	-2.73311E-12	31.2085E-3	-7.11391E-3
-697.849E-6	-2.79050E-12	38.2793E-3	-7.08751E-3	-2.78649E-12	38.9679E-3	-8.76750E-3
-702.851E-6	-2.75842E-12	32.4015E-3	-11.3691E-3	-2.89416E-12	47.3099E-3	-3.58738E-3
-707.854E-6	-2.81565E-12	39.6004E-3	-19.6838E-3	-2.90704E-12	39.3756E-3	-9.77093E-3
-712.856E-6	-2.86285E-12	48.1645E-3	-19.9084E-3	-2.78482E-12	37.8059E-3	-19.7441E-3
-717.859E-6	-2.93639E-12	40.4148E-3	-22.6161E-3	-2.85613E-12	43.4460E-3	-26.3444E-3
-722.861E-6	-2.92399E-12	37.0583E-3	-19.7622E-3	-2.99592E-12	45.4992E-3	-26.4976E-3
-727.864E-6	-2.87798E-12	46.0006E-3	-12.6729E-3	-3.00912E-12	54.4227E-3	-20.4578E-3
-732.866E-6	-2.96836E-12	44.1529E-3	-17.8555E-3	-2.88968E-12	65.8654E-3	-16.8184E-3
-737.869E-6	-3.06756E-12	50.0285E-3	-19.9357E-3	-2.88948E-12	58.3001E-3	-18.4269E-3
-742.871E-6	-2.97895E-12	64.4879E-3	-11.9365E-3	-3.03316E-12	45.9808E-3	-13.8267E-3
-747.874E-6	-2.97180E-12	56.4825E-3	-17.4338E-3	-3.05145E-12	55.2828E-3	-12.1401E-3
-752.876E-6	-3.09918E-12	51.0103E-3	-29.6879E-3	-2.92887E-12	64.8639E-3	-14.1224E-3
-757.879E-6	-3.14083E-12	62.1327E-3	-24.5650E-3	-2.96697E-12	64.4650E-3	-4.21186E-3
-762.881E-6	-3.01721E-12	59.4073E-3	-17.4033E-3	-3.02076E-12	65.0109E-3	-4.59633E-3
-767.884E-6	-2.97697E-12	51.7348E-3	-17.2377E-3	-3.05781E-12	63.2804E-3	-16.8735E-3
-772.886E-6	-3.12180E-12	59.6239E-3	-12.7042E-3	-3.01100E-12	66.5409E-3	-16.1574E-3
-777.889E-6	-3.11843E-12	55.7780E-3	-15.2633E-3	-3.03373E-12	81.1282E-3	-17.6043E-3
-782.891E-6	-3.04354E-12	43.7970E-3	-25.3011E-3	-3.12337E-12	79.9060E-3	-20.7141E-3
-787.894E-6	-3.11286E-12	44.9006E-3	-19.5573E-3	-3.10331E-12	55.0246E-3	-9.44373E-3
-792.896E-6	-3.22827E-12	46.9987E-3	-11.7931E-3	-3.13055E-12	43.5231E-3	-527.562E-6
-797.899E-6	-3.24708E-12	49.2975E-3	-27.6802E-3	-3.27867E-12	50.9110E-3	-5.11249E-3
-802.901E-6	-3.20123E-12	55.0356E-3	-37.7339E-3	-3.27476E-12	60.7037E-3	-11.3900E-3
-807.904E-6	-3.31962E-12	57.7392E-3	-29.9655E-3	-3.19459E-12	76.2203E-3	-10.3472E-3
-812.906E-6	-3.42473E-12	53.2107E-3	-29.9791E-3	-3.29180E-12	79.4174E-3	-12.9206E-3
-817.909E-6	-3.32416E-12	48.5720E-3	-31.2739E-3	-3.42033E-12	67.3156E-3	-18.2507E-3
-822.911E-6	-3.34221E-12	54.4362E-3	-26.9090E-3	-3.37945E-12	71.1403E-3	-17.1011E-3
-827.914E-6	-3.50036E-12	73.7948E-3	-30.7319E-3	-3.36330E-12	73.2953E-3	-16.2921E-3
-832.916E-6	-3.56991E-12	87.0029E-3	-31.3131E-3	-3.35286E-12	59.9293E-3	-14.4795E-3
-837.919E-6	-3.44436E-12	73.3780E-3	-20.4585E-3	-3.57126E-12	64.9779E-3	-655.648E-6
-842.921E-6	-3.39272E-12	59.5706E-3	-23.1703E-3	-3.53644E-12	85.8228E-3	4.21264E-3
-847.924E-6	-3.50818E-12	70.6513E-3	-35.7229E-3	-3.44662E-12	89.7236E-3	-12.1135E-3
-852.926E-6	-3.55631E-12	85.2238E-3	-35.9684E-3	-3.44188E-12	95.5968E-3	-20.9785E-3
-857.929E-6	-3.48453E-12	96.4568E-3	-44.0802E-3	-3.59523E-12	117.677E-3	-15.4198E-3
-862.931E-6	-3.39963E-12	104.614E-3	-56.2305E-3	-3.57913E-12	116.422E-3	-8.65168E-3
-867.934E-6	-3.57269E-12	93.0770E-3	-40.3550E-3	-3.54792E-12	108.570E-3	-14.8308E-3
-872.936E-6	-3.58597E-12	88.1208E-3	-23.8840E-3	-3.53748E-12	115.256E-3	-34.0186E-3
-877.939E-6	-3.56485E-12	99.3073E-3	-25.3128E-3	-3.70197E-12	108.746E-3	-39.2350E-3
-882.941E-6	-3.63337E-12	98.5451E-3	-22.1383E-3	-3.71611E-12	107.943E-3	-28.2528E-3
-887.944E-6	-3.71234E-12	99.0398E-3	-22.7892E-3	-3.70901E-12	122.194E-3	-26.8734E-3
-892.946E-6	-3.81644E-12	114.971E-3	-21.8415E-3	-3.72092E-12	129.067E-3	-19.9276E-3
-897.949E-6	-3.84140E-12	119.524E-3	-6.86073E-3	-3.85373E-12	139.525E-3	3.51459E-3
-902.951E-6	-3.83098E-12	110.245E-3	-12.9576E-3	-3.86896E-12	141.601E-3	-459.394E-6
-907.954E-6	-3.96561E-12	115.528E-3	-29.5928E-3	-3.84637E-12	125.167E-3	-27.5149E-3
-912.956E-6	-4.02432E-12	126.096E-3	-22.1908E-3	-3.98518E-12	119.110E-3	-25.8443E-3
-917.959E-6	-3.97479E-12	120.075E-3	-13.7773E-3	-4.01685E-12	134.334E-3	-13.7191E-3
-922.961E-6	-4.03885E-12	113.250E-3	-20.3722E-3	-4.07787E-12	150.685E-3	-14.0287E-3
-927.964E-6	-4.17010E-12	122.376E-3	-21.0203E-3	-4.11852E-12	153.866E-3	-9.60724E-3
-932.966E-6	-4.13115E-12	129.091E-3	-23.4985E-3	-4.22676E-12	149.138E-3	-7.86353E-3
-937.969E-6	-4.08223E-12	127.874E-3	-31.2509E-3	-4.22758E-12	134.684E-3	-8.71278E-3
-942.971E-6	-4.22503E-12	137.169E-3	-12.6777E-3	-4.15135E-12	127.197E-3	-9.73533E-3
-947.974E-6	-4.30239E-12	146.999E-3	7.92064E-3	-4.25194E-12	147.352E-3	-15.8668E-3
-952.976E-6	-4.24590E-12	155.830E-3	-291.679E-6	-4.36859E-12	168.475E-3	-20.7382E-3
-957.979E-6	-4.28593E-12	161.088E-3	-11.7372E-3	-4.36940E-12	169.368E-3	-17.3598E-3
-962.981E-6	-4.41713E-12	144.283E-3	-18.5552E-3	-4.28886E-12	174.037E-3	-6.71966E-3
-967.984E-6	-4.54396E-12	135.294E-3	-25.2217E-3	-4.37708E-12	183.714E-3	-2.45939E-3
-972.986E-6	-4.51161E-12	152.443E-3	-22.8113E-3	-4.64515E-12	189.909E-3	-6.54266E-3
-977.989E-6	-4.55920E-12	163.184E-3	-12.7117E-3	-4.61927E-12	203.354E-3	-8.89638E-3
-982.991E-6	-4.73558E-12	174.762E-3	-9.56550E-3	-4.53575E-12	212.056E-3	-8.46903E-3
-987.994E-6	-4.91672E-12	192.709E-3	-22.9510E-3	-4.59492E-12	206.913E-3	-10.0497E-3
-992.997E-6	-4.79146E-12	192.685E-3	-26.2442E-3	-4.84938E-12	208.409E-3	-9.51437E-3
-997.999E-6	-4.86847E-12	190.935E-3	-13.3946E-3	-4.88093E-12	214.181E-3	-13.3508E-3
-1.00300E-3	-5.07949E-12	199.493E-3	-11.5995E-3	-4.89423E-12	211.493E-3	-20.5307E-3
-1.00800E-3	-5.12215E-12	201.926E-3	-17.0618E-3	-4.95491E-12	214.779E-3	-18.5832E-3
-1.01301E-3	-5.11590E-12	207.247E-3	-26.3838E-3	-5.11223E-12	221.465E-3	-19.1333E-3
-1.01801E-3	-5.12457E-12	223.253E-3	-30.9224E-3	-5.22870E-12	223.663E-3	-24.0464E-3
-1.02301E-3	-5.33254E-12	224.478E-3	-11.1750E-3	-5.21233E-12	236.922E-3	-23.3667E-3
-1.02801E-3	-5.34298E-12	211.840E-3	-4.01394E-3	-5.38789E-12	260.201E-3	-26.0107E-3
-1.03302E-3	-5.34321E-12	219.769E-3	-20.8875E-3	-5.47579E-12	272.747E-3	-26.7513E-3
-1.03802E-3	-5.44173E-12	234.460E-3	-23.7022E-3	-5.49738E-12	269.875E-3	-10.7423E-3
-1.04302E-3	-5.60034E-12	236.983E-3	-21.3608E-3	-5.53709E-12	269.358E-3	1.77788E-3
-1.04802E-3	-5.60703E-12	246.989E-3	-20.8336E-3	-5.73497E-12	274.642E-3	-5.82401E-3
-1.05303E-3	-5.66246E-12	255.474E-3	-8.16093E-3	-5.78253E-12	276.231E-3	-11.8570E-3
-1.05803E-3	-5.82526E-12	260.176E-3	-2.36942E-3	-5.73078E-12	282.481E-3	-10.0225E-3
-1.06303E-3	-5.94557E-12	275.647E-3	-3.23816E-3	-5.93697E-12	291.947E-3	-12.8343E-3
-1.06803E-3	-6.04297E-12	285.295E-3	4.71905E-3	-6.10553E-12	299.577E-3	-15.0963E-3
-1.07304E-3	-6.14650E-12	285.879E-3	-5.25569E-3	-6.11334E-12	313.159E-3	-20.5640E-3
-1.07804E-3	-6.33402E-12	299.274E-3	-29.1469E-3	-6.10144E-12	332.485E-3	-26.9817E-3
-1.08304E-3	-6.51642E-12	316.249E-3	-29.4993E-3	-6.24098E-12	349.952E-3	-21.2125E-3
-1.08804E-3	-6.48139E-12	317.941E-3	-27.5330E-3	-6.46275E-12	363.465E-3	-13.5063E-3
-1.09305E-3	-6.50976E-12	320.282E-3	-33.5147E-3	-6.53694E-12	369.600E-3	-13.9150E-3
-1.09805E-3	-6.67981E-12	336.548E-3	-22.3151E-3	-6.50951E-12	374.549E-3	-14.6720E-3
-1.10305E-3	-6.85024E-12	344.373E-3	-16.6588E-3	-6.75890E-12	385.143E-3	-4.74323E-3
-1.10805E-3	-6.80628E-12	345.674E-3	-29.8845E-3	-7.04104E-12	400.564E-3	-496.155E-6
-1.11306E-3	-6.87166E-12	354.190E-3	-23.7026E-3	-7.07784E-12	418.898E-3	-14.2403E-3
-1.11806E-3	-7.18530E-12	355.408E-3	-6.72189E-3	-7.04933E-12	434.153E-3	-29.9070E-3
-1.12306E-3	-7.31159E-12	361.706E-3	-18.8005E-3	-7.24613E-12	445.076E-3	-29.2781E-3
-1.12806E-3	-7.25249E-12	388.210E-3	-34.2034E-3	-7.56591E-12	446.845E-3	-15.8374E-3
-1.13307E-3	-7.42215E-12	400.205E-3	-26.3599E-3	-7.66605E-12	445.299E-3	-2.89513E-3
-1.13807E-3	-7.70610E-12	395.629E-3	-19.8808E-3	-7.69940E-12	450.938E-3	-5.95950E-3
-1.14307E-3	-7.87531E-12	410.076E-3	-19.5277E-3	-7.89279E-12	464.696E-3	-18.1614E-3
-1.14807E-3	-7.94965E-12	427.326E-3	-17.3015E-3	-8.08481E-12	480.680E-3	-19.8122E-3
-1.15308E-3	-8.11466E-12	434.685E-3	-13.2215E-3	-8.16554E-12	497.510E-3	-21.1374E-3
-1.15808E-3	-8.44301E-12	453.479E-3	-4.30295E-3	-8.36354E-12	517.862E-3	-21.3194E-3
-1.16308E-3	-8.73829E-12	478.180E-3	-1.87333E-3	-8.59188E-12	538.687E-3	-12.0460E-3
-1.16808E-3	-8.73367E-12	498.650E-3	-5.96381E-3	-8.71757E-12	558.328E-3	-10.8805E-3
-1.17309E-3	-9.00250E-12	520.155E-3	-5.75430E-3	-8.86824E-12	574.196E-3	-23.7562E-3
-1.17809E-3	-9.21973E-12	527.035E-3	-4.47301E-3	-9.04332E-12	586.630E-3	-28.2969E-3
-1.18309E-3	-9.41634E-12	521.942E-3	-15.4446E-3	-9.33187E-12	607.135E-3	-26.5611E-3
-1.18809E-3	-9.45875E-12	544.580E-3	-29.9618E-3	-9.40054E-12	631.247E-3	-22.3108E-3
-1.19310E-3	-9.72010E-12	572.822E-3	-30.6371E-3	-9.50775E-12	642.491E-3	-7.47872E-3
-1.19810E-3	-9.99489E-12	578.132E-3	-28.3314E-3	-9.76178E-12	643.775E-3	-6.96204E-3
-1.20310E-3	-10.0664E-12	590.702E-3	-18.9672E-3	-10.1359E-12	645.792E-3	-21.6651E-3
-1.20810E-3	-10.0967E-12	605.468E-3	-5.99431E-3	-10.2432E-12	660.418E-3	-28.6703E-3
-1.21311E-3	-10.4602E-12	606.997E-3	-20.9990E-3	-10.2794E-12	691.502E-3	-24.3707E-3
-1.21811E-3	-10.7993E-12	620.367E-3	-33.1036E-3	-10.6211E-12	716.298E-3	-18.2713E-3
-1.22311E-3	-10.8800E-12	645.976E-3	-8.19144E-3	-11.0557E-12	729.618E-3	-19.4998E-3
-1.22811E-3	-11.0524E-12	666.279E-3	2.56025E-3	-11.2701E-12	751.723E-3	-27.7374E-3
-1.23312E-3	-11.4355E-12	689.929E-3	-16.6533E-3	-11.3324E-12	776.350E-3	-39.3571E-3
-1.23812E-3	-11.8645E-12	707.950E-3	-22.3421E-3	-11.7298E-12	790.009E-3	-34.1412E-3
-1.24312E-3	-11.9817E-12	705.143E-3	-15.5196E-3	-12.0942E-12	808.013E-3	-18.2356E-3
-1.24812E-3	-12.1653E-12	715.758E-3	-11.1178E-3	-12.2540E-12	823.105E-3	-16.3252E-3
-1.25313E-3	-12.5750E-12	754.666E-3	-8.70415E-3	-12.4598E-12	825.839E-3	-15.1481E-3
-1.25813E-3	-12.8768E-12	786.302E-3	-16.5662E-3	-12.8406E-12	843.420E-3	-9.62061E-3
-1.26313E-3	-13.1012E-12	804.781E-3	-25.3985E-3	-13.1108E-12	876.049E-3	-18.1713E-3
-1.26813E-3	-13.2758E-12	824.006E-3	-17.9558E-3	-13.3977E-12	891.806E-3	-24.2676E-3
-1.27314E-3	-13.6286E-12	832.781E-3	-6.83225E-3	-13.6288E-12	895.958E-3	-18.5513E-3
-1.27814E-3	-13.8388E-12	839.175E-3	-10.6965E-3	-13.8827E-12	904.492E-3	-18.0734E-3
-1.28314E-3	-13.9272E-12	864.606E-3	-24.2773E-3	-14.0782E-12	911.711E-3	-9.23028E-3
-1.28814E-3	-14.1610E-12	884.920E-3	-36.0198E-3	-14.2419E-12	930.233E-3	8.30484E-3
-1.29315E-3	-14.6181E-12	884.796E-3	-28.3396E-3	-14.5951E-12	958.011E-3	3.44064E-3
-1.29815E-3	-14.8076E-12	885.037E-3	1.35413E-3	-14.9668E-12	976.056E-3	-17.3046E-3
-1.30315E-3	-14.9653E-12	887.958E-3	17.3918E-3	-15.1553E-12	986.628E-3	-23.3109E-3
-1.30815E-3	-15.2414E-12	903.958E-3	3.44137E-3	-15.3184E-12	1.00071E+0	-21.9812E-3
-1.31316E-3	-15.7279E-12	934.507E-3	-14.0768E-3	-15.9347E-12	1.00872E+0	-22.8209E-3
-1.31816E-3	-16.0567E-12	936.555E-3	-15.9526E-3	-16.4069E-12	1.01602E+0	-19.3173E-3
-1.32316E-3	-16.3006E-12	941.077E-3	-13.7325E-3	-16.5798E-12	1.03915E+0	-14.7418E-3
-1.32816E-3	-16.8336E-12	980.108E-3	-16.0254E-3	-16.7971E-12	1.06660E+0	-18.6411E-3
-1.33317E-3	-17.3272E-12	999.796E-3	-19.2827E-3	-17.5240E-12	1.07815E+0	-20.7053E-3
-1.33817E-3	-17.5685E-12	1.01147E+0	-35.2572E-3	-18.1503E-12	1.07983E+0	-11.0432E-3
-1.34317E-3	-17.9345E-12	1.03939E+0	-41.0834E-3	-18.2272E-12	1.09225E+0	-2.37766E-3
-1.34817E-3	-18.4603E-12	1.04971E+0	-20.1444E-3	-18.2613E-12	1.11356E+0	-2.87346E-3
-1.35318E-3	-18.8870E-12	1.05396E+0	-18.4869E-3	-18.7868E-12	1.13048E+0	-8.04627E-3
-1.35818E-3	-19.0217E-12	1.08275E+0	-29.8723E-3	-19.5658E-12	1.13793E+0	-15.6883E-3
-1.36318E-3	-19.2619E-12	1.10713E+0	-22.6894E-3	-19.7849E-12	1.14995E+0	-16.8891E-3
-1.36818E-3	-19.8785E-12	1.10490E+0	-15.8872E-3	-19.9138E-12	1.16609E+0	-9.62546E-3
-1.37319E-3	-20.3394E-12	1.10715E+0	-13.3637E-3	-20.4114E-12	1.16823E+0	-17.4353E-3
-1.37819E-3	-20.4595E-12	1.12000E+0	158.212E-6	-20.8141E-12	1.16171E+0	-29.0115E-3
-1.38319E-3	-20.6210E-12	1.12828E+0	-1.73840E-3	-20.9660E-12	1.16628E+0	-24.2581E-3
-1.38819E-3	-21.2432E-12	1.13243E+0	-20.8194E-3	-21.1767E-12	1.16772E+0	-26.7341E-3
-1.39320E-3	-21.7621E-12	1.12967E+0	-21.3025E-3	-21.5488E-12	1.15858E+0	-34.7633E-3
-1.39820E-3	-22.0212E-12	1.13326E+0	-10.9948E-3	-21.9252E-12	1.17112E+0	-31.9205E-3
-1.40320E-3	-22.2496E-12	1.15367E+0	-12.3431E-3	-22.1204E-12	1.19727E+0	-29.1056E-3
-1.40820E-3	-22.7742E-12	1.16915E+0	-12.4049E-3	-22.5311E-12	1.21049E+0	-22.0146E-3
-1.41321E-3	-23.3340E-12	1.16687E+0	-4.08462E-3	-23.1074E-12	1.21502E+0	-16.6702E-3
-1.41821E-3	-23.6656E-12	1.16695E+0	-5.96356E-3	-23.6290E-12	1.21911E+0	-19.5969E-3
-1.42321E-3	-24.1364E-12	1.18497E+0	-8.18914E-3	-23.9357E-12	1.22539E+0	-14.1342E-3
-1.42821E-3	-24.7275E-12	1.20162E+0	-9.28703E-3	-24.4923E-12	1.24237E+0	-9.06452E-3
-1.43322E-3	-25.1323E-12	1.21402E+0	-12.2010E-3	-25.1510E-12	1.25513E+0	-19.2358E-3
-1.43822E-3	-25.3477E-12	1.22665E+0	-925.886E-6	-25.5148E-12	1.25146E+0	-25.1375E-3
-1.44322E-3	-25.8359E-12	1.22089E+0	1.95289E-3	-25.9361E-12	1.24723E+0	-17.5550E-3
-1.44822E-3	-26.3554E-12	1.21918E+0	-10.2841E-3	-26.5114E-12	1.24567E+0	-15.9721E-3
-1.45323E-3	-26.5476E-12	1.23841E+0	-7.21462E-3	-27.0366E-12	1.23833E+0	-20.3446E-3
-1.45823E-3	-26.8062E-12	1.23689E+0	-8.73519E-3	-27.2619E-12	1.22881E+0	-13.3959E-3
-1.46323E-3	-27.3091E-12	1.21628E+0	-36.3928E-3	-27.4697E-12	1.22423E+0	-11.4233E-3
-1.46823E-3	-27.8083E-12	1.21398E+0	-44.9298E-3	-27.8339E-12	1.21848E+0	-19.5437E-3
-1.47324E-3	-27.8684E-12	1.21338E+0	-27.0852E-3	-28.4142E-12	1.21108E+0	-12.1197E-3
-1.47824E-3	-28.1401E-12	1.20847E+0	-27.9624E-3	-28.5449E-12	1.20561E+0	-13.8682E-3
-1.48324E-3	-28.6851E-12	1.21334E+0	-31.9137E-3	-28.6574E-12	1.20199E+0	-29.8346E-3
-1.48824E-3	-29.3347E-12	1.20721E+0	-24.1680E-3	-29.2051E-12	1.20438E+0	-21.5839E-3
-1.49325E-3	-29.5718E-12	1.20346E+0	-36.5633E-3	-29.6956E-12	1.21550E+0	-9.23841E-3
-1.49825E-3	-29.8279E-12	1.21638E+0	-46.0657E-3	-29.9919E-12	1.21807E+0	-18.9138E-3
-1.50325E-3	-30.4748E-12	1.21705E+0	-16.0579E-3	-30.0323E-12	1.21460E+0	-25.7090E-3
-1.50825E-3	-31.0829E-12	1.22143E+0	2.47159E-3	-30.8173E-12	1.21948E+0	-21.9934E-3
-1.51326E-3	-31.3802E-12	1.25073E+0	-11.5742E-3	-31.3494E-12	1.21635E+0	-17.8842E-3
-1.51826E-3	-31.6265E-12	1.25355E+0	-15.4198E-3	-31.6968E-12	1.20953E+0	-8.55152E-3
-1.52326E-3	-32.1485E-12	1.21855E+0	-9.73029E-3	-32.1411E-12	1.21652E+0	-6.66207E-3
-1.52826E-3	-32.6733E-12	1.20214E+0	-8.37222E-3	-32.7357E-12	1.21924E+0	-14.2828E-3
-1.53327E-3	-32.6846E-12	1.21359E+0	-10.8824E-3	-33.2613E-12	1.20701E+0	-15.8318E-3
-1.53827E-3	-32.9938E-12	1.21697E+0	-21.1360E-3	-33.5200E-12	1.20770E+0	-18.3086E-3
-1.54327E-3	-33.5062E-12	1.21158E+0	-27.3431E-3	-33.7826E-12	1.22066E+0	-17.6417E-3
-1.54827E-3	-33.8560E-12	1.20918E+0	-18.8530E-3	-34.2585E-12	1.21216E+0	1.89313E-3
-1.55328E-3	-33.9659E-12	1.19411E+0	-12.5381E-3	-34.9157E-12	1.19567E+0	9.64949E-3
-1.55828E-3	-34.3771E-12	1.17507E+0	-17.1457E-3	-34.9874E-12	1.19657E+0	-11.7392E-3
-1.56328E-3	-35.0421E-12	1.17338E+0	-23.0031E-3	-35.4071E-12	1.19386E+0	-16.0956E-3
-1.56828E-3	-35.3098E-12	1.17688E+0	-33.5005E-3	-35.7448E-12	1.17306E+0	1.14437E-3
-1.57329E-3	-35.6331E-12	1.18485E+0	-46.5860E-3	-36.3198E-12	1.14875E+0	-45.5846E-6
-1.57829E-3	-36.3957E-12	1.18949E+0	-39.5839E-3	-36.5614E-12	1.14265E+0	-14.9077E-3
-1.58329E-3	-37.0653E-12	1.17143E+0	-23.7303E-3	-36.5791E-12	1.16374E+0	-20.9047E-3
-1.58829E-3	-37.3970E-12	1.15844E+0	-27.6906E-3	-37.0326E-12	1.17448E+0	-23.7416E-3
-1.59330E-3	-37.7687E-12	1.16388E+0	-36.4602E-3	-37.5333E-12	1.14640E+0	-26.2571E-3
-1.59830E-3	-38.5255E-12	1.16230E+0	-26.9149E-3	-38.1804E-12	1.11828E+0	-24.0894E-3
-1.60330E-3	-39.2611E-12	1.15758E+0	-14.2596E-3	-38.3844E-12	1.11126E+0	-30.3432E-3
-1.60830E-3	-39.5399E-12	1.17062E+0	-7.37354E-3	-38.4640E-12	1.11675E+0	-32.1788E-3
-1.61331E-3	-39.6513E-12	1.17018E+0	-8.25133E-3	-38.8422E-12	1.13077E+0	-13.4898E-3
-1.61831E-3	-40.2755E-12	1.15940E+0	-14.7676E-3	-39.3575E-12	1.13387E+0	-86.6697E-6
-1.62331E-3	-40.6691E-12	1.16775E+0	-4.51263E-3	-40.0569E-12	1.12239E+0	840.140E-6
-1.62831E-3	-40.6486E-12	1.16806E+0	14.1537E-3	-40.1321E-12	1.11310E+0	3.53572E-3
-1.63332E-3	-40.7527E-12	1.15595E+0	4.70872E-3	-40.3147E-12	1.11189E+0	-1.01226E-3
-1.63832E-3	-41.2950E-12	1.14599E+0	-18.0548E-3	-40.8626E-12	1.11287E+0	-4.89022E-3
-1.64332E-3	-42.0219E-12	1.13181E+0	-15.9754E-3	-41.8479E-12	1.10868E+0	-4.74169E-3
-1.64832E-3	-41.9441E-12	1.12267E+0	-8.30012E-3	-42.1777E-12	1.09633E+0	-11.4379E-3
-1.65333E-3	-41.9894E-12	1.13068E+0	-3.08413E-3	-42.0153E-12	1.07918E+0	-14.4040E-3
-1.65833E-3	-42.5254E-12	1.13367E+0	2.57645E-3	-42.7001E-12	1.06740E+0	-7.10205E-3
-1.66333E-3	-43.0321E-12	1.11814E+0	-13.0498E-3	-43.5924E-12	1.06570E+0	-4.85250E-3
-1.66833E-3	-43.0822E-12	1.10418E+0	-29.0099E-3	-43.7538E-12	1.06386E+0	-9.52203E-3
-1.67334E-3	-43.2523E-12	1.08594E+0	-24.2848E-3	-43.7956E-12	1.05237E+0	-9.01082E-3
-1.67834E-3	-43.9614E-12	1.06201E+0	-19.6694E-3	-44.1561E-12	1.04362E+0	-9.78422E-3
-1.68334E-3	-44.5456E-12	1.06990E+0	-21.3724E-3	-45.0611E-12	1.04264E+0	-9.25297E-3
-1.68834E-3	-44.7517E-12	1.08911E+0	-20.4287E-3	-45.5350E-12	1.03371E+0	-9.52708E-3
-1.69335E-3	-45.1267E-12	1.08003E+0	-27.8269E-3	-45.2104E-12	1.02912E+0	-10.0506E-3
-1.69835E-3	-45.6355E-12	1.05889E+0	-34.3916E-3	-45.3342E-12	1.03420E+0	-9.83765E-3
-1.70335E-3	-45.8120E-12	1.03895E+0	-13.5914E-3	-46.1412E-12	1.02484E+0	-1.57758E-3
-1.70835E-3	-46.0026E-12	1.02885E+0	-1.89035E-3	-46.6246E-12	1.00786E+0	11.1131E-3
-1.71336E-3	-46.3461E-12	1.03752E+0	-17.3370E-3	-46.4439E-12	1.00106E+0	-1.06228E-3
-1.71836E-3	-47.0900E-12	1.03762E+0	-25.0986E-3	-46.3535E-12	992.886E-3	-18.0488E-3
-1.72336E-3	-47.0682E-12	1.01393E+0	-37.5422E-3	-46.8269E-12	986.513E-3	-14.2550E-3
-1.72836E-3	-47.3739E-12	1.00306E+0	-45.9300E-3	-47.0586E-12	985.108E-3	-4.74684E-3
-1.73337E-3	-47.4902E-12	1.00859E+0	-23.1659E-3	-47.2381E-12	973.991E-3	-4.90880E-3
-1.73837E-3	-48.0052E-12	1.00077E+0	-10.2764E-3	-47.7183E-12	972.500E-3	-11.2116E-3
-1.74337E-3	-48.2446E-12	997.536E-3	-35.6984E-3	-48.1626E-12	986.830E-3	-13.8855E-3
-1.74837E-3	-48.4378E-12	1.00140E+0	-49.5382E-3	-48.5777E-12	987.770E-3	-10.5082E-3
-1.75338E-3	-49.1094E-12	989.572E-3	-29.2711E-3	-48.9347E-12	982.291E-3	-13.3074E-3
-1.75838E-3	-49.6206E-12	992.134E-3	-10.4288E-3	-49.7943E-12	989.870E-3	-31.3234E-3
-1.76338E-3	-50.0303E-12	1.01321E+0	-312.265E-6	-50.6045E-12	995.091E-3	-41.0273E-3
-1.76838E-3	-50.3533E-12	1.00791E+0	5.15142E-3	-50.7786E-12	987.444E-3	-27.8587E-3
-1.77339E-3	-51.0309E-12	990.940E-3	-666.487E-6	-50.7419E-12	979.342E-3	-17.3757E-3
-1.77839E-3	-51.4864E-12	992.831E-3	-2.18120E-3	-51.4020E-12	959.332E-3	-28.8613E-3
-1.78339E-3	-51.7097E-12	988.224E-3	3.80658E-3	-51.9747E-12	941.705E-3	-37.7359E-3
-1.78839E-3	-51.8970E-12	975.304E-3	-1.03639E-3	-52.2961E-12	949.858E-3	-26.6192E-3
-1.79340E-3	-52.0740E-12	976.335E-3	-5.27058E-3	-51.9424E-12	945.628E-3	-23.1834E-3
-1.79840E-3	-52.4638E-12	968.802E-3	2.33849E-3	-52.2317E-12	925.829E-3	-39.0439E-3
-1.80340E-3	-52.3672E-12	957.242E-3	-2.02544E-3	-52.3482E-12	921.157E-3	-45.4064E-3
-1.80840E-3	-52.7285E-12	965.536E-3	-18.5990E-3	-52.5440E-12	915.555E-3	-23.0478E-3
-1.81341E-3	-52.9039E-12	958.836E-3	-25.9544E-3	-52.4877E-12	897.592E-3	-10.7217E-3
-1.81841E-3	-53.2626E-12	934.506E-3	-31.3440E-3	-52.3272E-12	894.050E-3	-31.7970E-3
-1.82341E-3	-53.1221E-12	921.537E-3	-26.2289E-3	-52.4957E-12	901.334E-3	-32.3138E-3
-1.82841E-3	-53.6560E-12	908.007E-3	-4.77423E-3	-52.8636E-12	904.427E-3	-6.71930E-3
-1.83342E-3	-54.0254E-12	909.241E-3	72.7714E-6	-53.3660E-12	909.487E-3	-6.58119E-3
-1.83842E-3	-54.4854E-12	933.405E-3	-13.7792E-3	-53.6700E-12	913.009E-3	-18.6448E-3
-1.84342E-3	-54.9912E-12	935.194E-3	-21.9087E-3	-54.0499E-12	916.857E-3	-11.8025E-3
-1.84842E-3	-55.0379E-12	909.536E-3	-31.1498E-3	-54.7726E-12	920.109E-3	-4.79249E-3
-1.85343E-3	-55.7509E-12	898.379E-3	-31.0954E-3	-55.6210E-12	917.153E-3	-6.19281E-3
-1.85843E-3	-56.2402E-12	901.237E-3	-6.42291E-3	-56.1602E-12	903.591E-3	-6.17154E-3
-1.86343E-3	-56.6422E-12	896.134E-3	4.72962E-3	-56.2724E-12	893.240E-3	-10.7663E-3
-1.86843E-3	-57.1085E-12	898.149E-3	-17.5746E-3	-56.8844E-12	890.736E-3	-6.20639E-3
-1.87344E-3	-57.3064E-12	903.669E-3	-29.2682E-3	-57.8317E-12	889.785E-3	10.2964E-3
-1.87844E-3	-57.6493E-12	896.237E-3	-16.8924E-3	-58.2216E-12	900.286E-3	15.2361E-3
-1.88344E-3	-57.7365E-12	894.597E-3	-9.87781E-3	-58.1900E-12	901.548E-3	8.90028E-3
-1.88844E-3	-58.0262E-12	905.803E-3	-9.24028E-3	-57.9400E-12	884.777E-3	-3.87566E-3
-1.89345E-3	-57.6877E-12	897.586E-3	-14.5670E-3	-58.3795E-12	881.080E-3	-17.0114E-3
-1.89845E-3	-57.9727E-12	874.404E-3	-31.3913E-3	-58.5863E-12	891.319E-3	-22.4473E-3
-1.90345E-3	-58.1112E-12	865.826E-3	-40.7128E-3	-58.2032E-12	882.562E-3	-27.9441E-3
-1.90845E-3	-58.4901E-12	860.831E-3	-24.1373E-3	-58.0530E-12	861.423E-3	-26.6811E-3
-1.91346E-3	-58.6422E-12	864.522E-3	-2.67004E-3	-58.3091E-12	851.087E-3	-18.4611E-3
-1.91846E-3	-58.4759E-12	876.637E-3	7.87626E-3	-58.6994E-12	842.719E-3	-20.7117E-3
-1.92346E-3	-58.9236E-12	864.124E-3	15.5275E-3	-58.9791E-12	838.901E-3	-17.5110E-3
-1.92846E-3	-59.7243E-12	852.443E-3	4.04782E-3	-59.3414E-12	845.173E-3	-13.0565E-3
-1.93347E-3	-60.0326E-12	863.531E-3	-9.55436E-3	-59.6030E-12	839.097E-3	-16.8805E-3
-1.93847E-3	-60.3483E-12	857.580E-3	-7.25105E-3	-59.9675E-12	824.731E-3	-12.1411E-3
-1.94347E-3	-61.0867E-12	849.848E-3	-23.1179E-3	-60.4949E-12	828.562E-3	-8.68569E-3
-1.94847E-3	-61.5762E-12	870.987E-3	-47.4314E-3	-60.8679E-12	839.948E-3	-13.4094E-3
-1.95348E-3	-61.7245E-12	882.494E-3	-50.5878E-3	-61.5680E-12	843.367E-3	-16.2005E-3
-1.95848E-3	-62.0836E-12	867.185E-3	-41.8064E-3	-61.8332E-12	850.518E-3	-11.0772E-3
-1.96348E-3	-62.1839E-12	860.628E-3	-30.1606E-3	-62.3663E-12	853.359E-3	1.54416E-3
-1.96848E-3	-62.6555E-12	850.126E-3	-13.2953E-3	-62.5116E-12	837.488E-3	6.40705E-3
-1.97349E-3	-62.5540E-12	820.984E-3	-9.35666E-3	-62.9152E-12	829.622E-3	356.864E-6
-1.97849E-3	-62.6482E-12	822.615E-3	-8.23087E-3	-63.2812E-12	835.554E-3	-6.18747E-3
-1.98349E-3	-62.8721E-12	843.018E-3	9.80283E-3	-62.9337E-12	833.207E-3	-8.80201E-3
-1.98849E-3	-63.0683E-12	845.830E-3	10.2484E-3	-63.1907E-12	830.117E-3	-4.97072E-3
-1.99350E-3	-63.1159E-12	854.751E-3	-9.67590E-3	-63.7697E-12	823.337E-3	-7.28434E-3
-1.99850E-3	-62.7677E-12	846.977E-3	-11.7440E-3	-63.9475E-12	807.801E-3	-7.58039E-3
-2.00350E-3	-63.2809E-12	801.808E-3	-11.3972E-3	-63.7241E-12	805.091E-3	3.73224E-3
-2.00850E-3	-63.7513E-12	781.200E-3	-22.0507E-3	-63.8980E-12	809.013E-3	-975.412E-6
-2.01351E-3	-64.3592E-12	805.413E-3	-11.6484E-3	-64.1473E-12	799.848E-3	-14.8705E-3
-2.01851E-3	-64.2563E-12	821.706E-3	2.53107E-3	-64.5753E-12	799.746E-3	-24.5758E-3
-2.02351E-3	-65.2105E-12	819.888E-3	-7.09865E-3	-64.9001E-12	810.580E-3	-39.6738E-3
-2.02851E-3	-65.8702E-12	818.743E-3	-23.3151E-3	-64.9672E-12	797.173E-3	-40.8088E-3
-2.03352E-3	-66.3100E-12	798.523E-3	-28.7642E-3	-65.3832E-12	785.427E-3	-28.5839E-3
-2.03852E-3	-66.9472E-12	788.703E-3	-22.2672E-3	-65.5107E-12	800.799E-3	-28.2660E-3
-2.04352E-3	-67.3238E-12	806.889E-3	-10.6108E-3	-65.9564E-12	815.962E-3	-24.7739E-3
-2.04852E-3	-67.9595E-12	806.261E-3	-14.9365E-3	-66.7380E-12	806.355E-3	-13.0016E-3
-2.05353E-3	-67.6827E-12	807.557E-3	-28.9468E-3	-66.4542E-12	785.994E-3	-18.5760E-3
-2.05853E-3	-68.0060E-12	826.424E-3	-16.6902E-3	-66.6983E-12	789.589E-3	-30.5306E-3
-2.06353E-3	-68.4724E-12	827.696E-3	4.97681E-3	-67.2078E-12	797.334E-3	-23.5225E-3
-2.06853E-3	-68.2675E-12	825.880E-3	3.79960E-3	-68.1319E-12	791.757E-3	-12.8849E-3
-2.07354E-3	-67.8191E-12	832.916E-3	-13.4901E-3	-68.1221E-12	781.255E-3	-18.5929E-3
-2.07854E-3	-67.8310E-12	821.710E-3	-28.8940E-3	-67.9769E-12	780.307E-3	-15.8620E-3
-2.08354E-3	-68.3117E-12	808.155E-3	-27.0536E-3	-68.0828E-12	795.432E-3	-9.11709E-3
-2.08854E-3	-68.3310E-12	805.324E-3	-18.1264E-3	-69.4908E-12	800.475E-3	-11.1776E-3
-2.09355E-3	-68.2892E-12	791.025E-3	-18.4569E-3	-69.7950E-12	804.298E-3	-8.69688E-3
-2.09855E-3	-68.7339E-12	774.004E-3	-23.4885E-3	-69.4179E-12	815.607E-3	-2.66088E-3
-2.10355E-3	-69.2874E-12	779.572E-3	-23.2682E-3	-69.4604E-12	809.264E-3	1.86619E-3
-2.10855E-3	-69.4954E-12	790.804E-3	-15.3529E-3	-70.5381E-12	787.459E-3	-7.39988E-3
-2.11356E-3	-69.9531E-12	791.191E-3	-12.2660E-3	-71.3029E-12	783.651E-3	-35.4860E-3
-2.11856E-3	-70.3942E-12	794.012E-3	-11.7722E-3	-70.2262E-12	799.070E-3	-55.6131E-3
-2.12356E-3	-70.9692E-12	791.419E-3	-5.76958E-3	-70.4517E-12	802.308E-3	-45.4095E-3
-2.12856E-3	-71.3483E-12	777.043E-3	-4.27922E-3	-71.6485E-12	788.129E-3	-28.2029E-3
-2.13357E-3	-71.4037E-12	767.141E-3	-6.09710E-3	-72.3498E-12	774.804E-3	-35.5600E-3
-2.13857E-3	-71.7356E-12	772.393E-3	-1.92911E-3	-71.5390E-12	771.616E-3	-45.0293E-3
-2.14357E-3	-71.9216E-12	789.123E-3	-9.86243E-3	-71.2984E-12	766.524E-3	-32.1067E-3
-2.14857E-3	-71.8274E-12	800.236E-3	-26.1810E-3	-71.1963E-12	757.871E-3	-8.28593E-3
-2.15358E-3	-71.6115E-12	788.069E-3	-20.7659E-3	-71.9093E-12	760.758E-3	9.54683E-3
-2.15858E-3	-71.9761E-12	773.243E-3	-11.0296E-3	-72.4014E-12	761.674E-3	3.75722E-3
-2.16358E-3	-72.5023E-12	783.587E-3	-13.5076E-3	-72.2769E-12	769.260E-3	-19.5755E-3
-2.16858E-3	-72.6199E-12	794.603E-3	-11.3725E-3	-72.1371E-12	791.859E-3	-35.4328E-3
-2.17359E-3	-72.8138E-12	776.958E-3	-18.7176E-3	-72.6407E-12	796.358E-3	-36.2311E-3
-2.17859E-3	-73.3712E-12	753.556E-3	-35.4415E-3	-74.0275E-12	778.089E-3	-33.3534E-3
-2.18359E-3	-73.9882E-12	751.533E-3	-27.7927E-3	-74.8010E-12	770.285E-3	-35.3721E-3
-2.18859E-3	-73.9865E-12	757.450E-3	-4.29488E-3	-74.5447E-12	783.583E-3	-41.3240E-3
-2.19360E-3	-73.9886E-12	766.422E-3	-887.652E-6	-74.3097E-12	787.047E-3	-49.7917E-3
-2.19860E-3	-74.5307E-12	775.887E-3	-6.50589E-3	-75.5641E-12	777.211E-3	-38.5684E-3
-2.20360E-3	-75.3228E-12	769.886E-3	-4.03706E-3	-76.3911E-12	766.856E-3	-17.2370E-3
-2.20860E-3	-75.4682E-12	763.297E-3	-3.49713E-3	-75.9233E-12	753.957E-3	-13.2760E-3
-2.21361E-3	-75.5310E-12	761.657E-3	2.38228E-3	-75.4461E-12	758.024E-3	-18.5870E-3
-2.21861E-3	-75.9474E-12	755.563E-3	1.25667E-3	-76.1924E-12	769.317E-3	-18.1118E-3
-2.22361E-3	-76.1571E-12	764.186E-3	-12.8041E-3	-77.6597E-12	767.182E-3	-2.89589E-3
-2.22861E-3	-76.2549E-12	774.143E-3	-9.97485E-3	-76.2183E-12	768.996E-3	-516.462E-6
-2.23362E-3	-76.2008E-12	763.120E-3	-9.25788E-3	-76.3584E-12	773.964E-3	-20.1564E-3
-2.23862E-3	-76.3336E-12	759.839E-3	-28.4541E-3	-77.0029E-12	774.335E-3	-24.4500E-3
-2.24362E-3	-76.2236E-12	765.552E-3	-32.2982E-3	-78.0738E-12	770.036E-3	-9.00456E-3
-2.24862E-3	-76.0750E-12	762.972E-3	-18.2819E-3	-77.0213E-12	763.053E-3	-2.97363E-3
-2.25363E-3	-76.2062E-12	752.221E-3	-18.1928E-3	-76.9864E-12	767.995E-3	-7.66404E-3
-2.25863E-3	-76.8259E-12	730.604E-3	-20.5869E-3	-77.0818E-12	780.712E-3	-11.4958E-3
-2.26363E-3	-77.2320E-12	716.209E-3	-11.7188E-3	-78.2955E-12	789.406E-3	-22.8773E-3
-2.26863E-3	-77.5783E-12	716.766E-3	-8.12920E-3	-78.5739E-12	796.563E-3	-37.8433E-3
-2.27364E-3	-77.6238E-12	727.703E-3	-3.74719E-3	-78.5348E-12	792.811E-3	-34.8611E-3
-2.27864E-3	-78.1142E-12	733.204E-3	-952.777E-6	-79.1071E-12	773.626E-3	-18.7561E-3
-2.28364E-3	-79.2408E-12	719.920E-3	-8.64924E-3	-79.8896E-12	755.378E-3	-14.4296E-3
-2.28864E-3	-79.7143E-12	718.676E-3	-12.0766E-3	-80.5722E-12	758.290E-3	-9.03837E-3
-2.29365E-3	-79.5868E-12	736.011E-3	-8.56106E-3	-80.3744E-12	781.516E-3	-543.954E-6
-2.29865E-3	-79.7687E-12	753.147E-3	-17.7336E-3	-80.7921E-12	791.109E-3	-3.55843E-3
-2.30365E-3	-80.1991E-12	767.318E-3	-40.0723E-3	-81.7132E-12	771.270E-3	-9.06108E-3
-2.30865E-3	-81.0264E-12	767.539E-3	-46.1942E-3	-82.6460E-12	752.974E-3	-16.1010E-3
-2.31366E-3	-80.6279E-12	765.083E-3	-40.9239E-3	-81.7905E-12	744.193E-3	-18.9792E-3
-2.31866E-3	-80.4199E-12	775.183E-3	-48.0146E-3	-81.6409E-12	745.427E-3	-7.38497E-3
-2.32366E-3	-80.6080E-12	761.806E-3	-52.2505E-3	-81.8673E-12	763.885E-3	-1.29406E-3
-2.32866E-3	-80.6506E-12	719.195E-3	-43.3928E-3	-82.2266E-12	756.647E-3	-6.91579E-3
-2.33367E-3	-80.5745E-12	711.602E-3	-28.8077E-3	-81.8309E-12	736.965E-3	-11.9845E-3
-2.33867E-3	-80.3439E-12	738.844E-3	-6.97993E-3	-81.5307E-12	754.909E-3	-22.9871E-3
-2.34367E-3	-80.4372E-12	748.411E-3	-6.61291E-3	-81.9030E-12	767.735E-3	-29.7378E-3
-2.34867E-3	-80.7754E-12	747.087E-3	-24.1714E-3	-81.3434E-12	753.927E-3	-24.5327E-3
-2.35368E-3	-81.9694E-12	754.000E-3	-7.27967E-3	-81.6211E-12	737.077E-3	-20.6395E-3
-2.35868E-3	-81.8159E-12	752.062E-3	12.0926E-3	-81.4417E-12	720.155E-3	-11.4927E-3
-2.36368E-3	-81.8732E-12	737.497E-3	-5.95289E-3	-82.4541E-12	711.807E-3	-75.9713E-6
-2.36868E-3	-82.5608E-12	731.409E-3	-25.7450E-3	-82.6491E-12	714.338E-3	-10.7698E-3
-2.37369E-3	-83.3357E-12	736.108E-3	-30.5354E-3	-82.9995E-12	733.661E-3	-25.9832E-3
-2.37869E-3	-83.9504E-12	742.561E-3	-31.3660E-3	-83.4862E-12	756.362E-3	-30.3886E-3
-2.38369E-3	-84.0772E-12	746.414E-3	-25.7207E-3	-83.9234E-12	761.473E-3	-29.4483E-3
-2.38869E-3	-84.4748E-12	739.837E-3	-17.1315E-3	-85.0209E-12	760.740E-3	-24.9105E-3
-2.39370E-3	-84.6773E-12	733.025E-3	-20.7343E-3	-85.5975E-12	755.632E-3	-23.5400E-3
-2.39870E-3	-85.5226E-12	746.805E-3	-28.6885E-3	-85.7202E-12	743.265E-3	-18.6053E-3
-2.40370E-3	-85.8427E-12	765.243E-3	-25.5834E-3	-85.7586E-12	725.686E-3	-14.4496E-3
-2.40870E-3	-85.5051E-12	758.113E-3	-19.9119E-3	-86.1851E-12	714.085E-3	-13.2890E-3
-2.41371E-3	-85.3267E-12	739.703E-3	-9.58119E-3	-86.1530E-12	716.350E-3	-17.2198E-3
-2.41871E-3	-85.0764E-12	738.533E-3	2.32389E-3	-85.6177E-12	720.214E-3	-32.2643E-3
-2.42371E-3	-85.4463E-12	744.928E-3	-13.1777E-3	-85.2296E-12	726.507E-3	-46.9667E-3
-2.42871E-3	-85.3814E-12	745.766E-3	-32.3029E-3	-84.7902E-12	738.300E-3	-54.5911E-3
-2.43372E-3	-85.4995E-12	738.489E-3	-22.8946E-3	-85.4185E-12	728.798E-3	-47.8446E-3
-2.43872E-3	-85.3791E-12	725.039E-3	-17.6243E-3	-85.5823E-12	710.053E-3	-26.9291E-3
-2.44372E-3	-85.3678E-12	729.364E-3	-14.7125E-3	-85.6306E-12	717.728E-3	-5.97226E-3
-2.44872E-3	-86.0534E-12	733.368E-3	-10.5106E-3	-85.5054E-12	730.199E-3	-5.64579E-3
-2.45373E-3	-86.5422E-12	717.883E-3	-25.7316E-3	-86.0074E-12	728.537E-3	-25.4449E-3
-2.45873E-3	-87.2308E-12	717.116E-3	-34.7150E-3	-87.1033E-12	722.817E-3	-33.1062E-3
-2.46373E-3	-87.8263E-12	728.817E-3	-18.0700E-3	-87.3593E-12	726.067E-3	-23.7544E-3
-2.46873E-3	-88.3865E-12	727.421E-3	-7.78482E-3	-87.1405E-12	739.067E-3	-12.3120E-3
-2.47374E-3	-88.5460E-12	717.373E-3	-17.7225E-3	-87.8875E-12	745.724E-3	-8.06035E-3
-2.47874E-3	-88.8695E-12	714.912E-3	-18.7010E-3	-88.8925E-12	740.316E-3	-15.8892E-3
-2.48374E-3	-88.9915E-12	716.612E-3	-9.98360E-3	-89.5008E-12	741.555E-3	-12.6155E-3
-2.48874E-3	-89.1055E-12	710.951E-3	-15.1365E-3	-89.1201E-12	748.820E-3	-3.60246E-3
-2.49375E-3	-89.4775E-12	717.517E-3	-34.4818E-3	-89.7896E-12	744.035E-3	-12.5108E-3
-2.49875E-3	-89.4632E-12	734.142E-3	-36.9178E-3	-90.2839E-12	725.691E-3	-18.2575E-3
-2.50375E-3	-89.7209E-12	734.638E-3	-14.5921E-3	-90.7929E-12	716.903E-3	-9.36389E-3
-2.50875E-3	-89.1361E-12	724.110E-3	12.8106E-3	-90.0209E-12	723.243E-3	-4.66553E-3
-2.51376E-3	-89.4364E-12	718.276E-3	15.2400E-3	-89.9986E-12	712.340E-3	-13.1066E-3
-2.51876E-3	-89.1001E-12	728.765E-3	-7.25015E-3	-89.9825E-12	696.987E-3	-18.2921E-3
-2.52376E-3	-89.3925E-12	742.063E-3	-16.9250E-3	-90.2624E-12	705.379E-3	-19.2439E-3
-2.52876E-3	-89.3971E-12	727.736E-3	-9.02811E-3	-90.5323E-12	717.891E-3	-29.6011E-3
-2.53377E-3	-89.9322E-12	699.802E-3	-19.0882E-3	-90.3305E-12	726.158E-3	-35.8480E-3
-2.53877E-3	-90.4251E-12	687.229E-3	-40.8554E-3	-90.8935E-12	727.021E-3	-27.6292E-3
-2.54377E-3	-90.4978E-12	686.154E-3	-38.9376E-3	-91.0387E-12	722.611E-3	-24.4619E-3
-2.54877E-3	-91.5422E-12	694.479E-3	-20.5837E-3	-91.2412E-12	721.584E-3	-29.8304E-3
-2.55378E-3	-91.7598E-12	707.132E-3	-8.14825E-3	-91.4888E-12	709.061E-3	-34.4431E-3
-2.55878E-3	-92.4130E-12	714.585E-3	-10.3377E-3	-91.7566E-12	695.265E-3	-40.3983E-3
-2.56378E-3	-92.7362E-12	713.040E-3	-19.5414E-3	-92.3021E-12	696.219E-3	-45.0263E-3
-2.56878E-3	-92.7090E-12	711.365E-3	-21.3386E-3	-92.5381E-12	701.506E-3	-49.4590E-3
-2.57379E-3	-93.2861E-12	713.036E-3	-18.3876E-3	-93.1031E-12	710.953E-3	-48.6873E-3
-2.57879E-3	-93.5172E-12	709.075E-3	-21.6355E-3	-93.3920E-12	724.741E-3	-34.3073E-3
-2.58379E-3	-93.8221E-12	704.895E-3	-26.9939E-3	-93.1858E-12	721.514E-3	-25.0096E-3
-2.58879E-3	-92.5962E-12	696.827E-3	-23.4148E-3	-93.2390E-12	716.469E-3	-21.1591E-3
-2.59380E-3	-92.9068E-12	692.133E-3	-17.8831E-3	-93.4947E-12	724.376E-3	-21.4616E-3
-2.59880E-3	-93.4648E-12	695.994E-3	-27.0388E-3	-93.6264E-12	718.170E-3	-33.9357E-3
-2.60380E-3	-94.0803E-12	699.775E-3	-43.5376E-3	-93.6207E-12	697.030E-3	-39.6629E-3
-2.60880E-3	-93.2860E-12	707.724E-3	-47.5205E-3	-93.7578E-12	692.781E-3	-24.7038E-3
-2.61381E-3	-93.2175E-12	715.333E-3	-44.0658E-3	-94.5948E-12	720.158E-3	-8.80352E-3
-2.61881E-3	-94.3849E-12	711.016E-3	-36.2405E-3	-94.8580E-12	747.431E-3	1.73886E-3
-2.62381E-3	-95.1045E-12	698.170E-3	-13.1117E-3	-95.2085E-12	745.429E-3	11.8907E-3
-2.62881E-3	-95.8227E-12	698.826E-3	-2.41255E-3	-95.8945E-12	735.107E-3	1.86992E-3
-2.63382E-3	-95.4308E-12	704.932E-3	-12.0073E-3	-96.7651E-12	727.843E-3	-21.0979E-3
-2.63882E-3	-96.4764E-12	699.232E-3	-20.5956E-3	-96.7651E-12	719.082E-3	-33.4133E-3
-2.64382E-3	-97.2959E-12	714.359E-3	-38.6491E-3	-96.4547E-12	713.504E-3	-33.1828E-3
-2.64882E-3	-97.6787E-12	735.539E-3	-55.0522E-3	-96.9893E-12	702.708E-3	-18.7426E-3
-2.65383E-3	-97.4252E-12	730.392E-3	-44.5530E-3	-96.8837E-12	684.470E-3	-6.21858E-3
-2.65883E-3	-97.8841E-12	724.052E-3	-22.5629E-3	-96.6996E-12	672.396E-3	-10.0335E-3
-2.66383E-3	-98.5250E-12	725.448E-3	-15.9122E-3	-96.6401E-12	674.061E-3	-22.7834E-3
-2.66883E-3	-98.3733E-12	719.862E-3	-23.2004E-3	-97.0568E-12	680.839E-3	-31.2605E-3
-2.67384E-3	-98.4651E-12	716.800E-3	-25.6585E-3	-96.6213E-12	685.270E-3	-27.8188E-3
-2.67884E-3	-97.7387E-12	717.184E-3	-15.0771E-3	-96.5565E-12	686.078E-3	-25.3094E-3
-2.68384E-3	-97.5400E-12	716.813E-3	-2.52907E-3	-96.8186E-12	683.233E-3	-19.6939E-3
-2.68884E-3	-97.5528E-12	718.806E-3	-8.16786E-3	-97.4224E-12	684.290E-3	-15.4258E-3
-2.69385E-3	-98.1878E-12	702.541E-3	-16.2146E-3	-97.6076E-12	687.394E-3	-26.4602E-3
-2.69885E-3	-97.9020E-12	681.375E-3	-7.53589E-3	-97.5483E-12	687.474E-3	-38.9729E-3
-2.70385E-3	-97.5270E-12	687.482E-3	-13.3121E-3	-98.0323E-12	692.295E-3	-34.5850E-3
-2.70885E-3	-98.6647E-12	710.081E-3	-19.8080E-3	-99.4675E-12	705.205E-3	-9.20667E-3
-2.71386E-3	-99.7897E-12	719.620E-3	-13.5567E-3	-100.061E-12	715.801E-3	-7.86714E-3
-2.71886E-3	-100.153E-12	717.154E-3	-16.3454E-3	-100.500E-12	717.775E-3	-28.5517E-3
-2.72386E-3	-99.8980E-12	721.212E-3	-19.2386E-3	-101.162E-12	715.368E-3	-24.4657E-3
-2.72886E-3	-100.209E-12	723.461E-3	-27.2766E-3	-101.597E-12	704.120E-3	-8.92916E-3
-2.73387E-3	-101.750E-12	714.074E-3	-30.2805E-3	-101.906E-12	692.905E-3	-2.75088E-3
-2.73887E-3	-101.992E-12	713.270E-3	-12.9335E-3	-102.255E-12	699.009E-3	-2.53566E-3
-2.74387E-3	-101.784E-12	726.840E-3	3.65327E-3	-101.733E-12	710.284E-3	-4.37620E-3
-2.74887E-3	-101.770E-12	728.046E-3	-4.06818E-3	-101.753E-12	706.033E-3	-8.02706E-3
-2.75388E-3	-102.794E-12	715.589E-3	-20.5770E-3	-102.031E-12	697.491E-3	-10.2352E-3
-2.75888E-3	-103.408E-12	707.444E-3	-17.3736E-3	-102.311E-12	702.522E-3	-16.2006E-3
-2.76388E-3	-102.754E-12	713.482E-3	838.754E-6	-101.311E-12	704.994E-3	-20.3861E-3
-2.76888E-3	-102.181E-12	722.497E-3	19.3293E-3	-100.730E-12	694.748E-3	-18.2274E-3
-2.77389E-3	-103.017E-12	714.837E-3	17.5182E-3	-100.670E-12	687.370E-3	-27.2442E-3
-2.77889E-3	-104.277E-12	710.379E-3	-11.1459E-3	-101.512E-12	674.127E-3	-32.0073E-3
-2.78389E-3	-103.820E-12	732.090E-3	-28.6123E-3	-100.900E-12	654.649E-3	-19.6352E-3
-2.78889E-3	-103.150E-12	746.187E-3	-21.6277E-3	-100.752E-12	665.411E-3	-11.8308E-3
-2.79390E-3	-103.406E-12	724.437E-3	-18.4824E-3	-101.345E-12	691.239E-3	-13.6511E-3
-2.79890E-3	-104.184E-12	712.895E-3	-22.3540E-3	-103.049E-12	701.259E-3	-16.5651E-3
-2.80390E-3	-104.781E-12	718.771E-3	-16.5914E-3	-103.917E-12	721.583E-3	-5.65620E-3
-2.80890E-3	-104.112E-12	711.816E-3	-15.8752E-3	-104.257E-12	741.522E-3	-5.29163E-3
-2.81391E-3	-104.377E-12	715.142E-3	-31.2844E-3	-104.764E-12	735.520E-3	-26.2765E-3
-2.81891E-3	-104.446E-12	721.486E-3	-33.2864E-3	-106.217E-12	724.274E-3	-20.7146E-3
-2.82391E-3	-105.412E-12	719.182E-3	-20.3285E-3	-107.414E-12	714.117E-3	-981.410E-6
-2.82891E-3	-104.753E-12	723.634E-3	-13.2622E-3	-106.859E-12	703.027E-3	-1.19098E-3
-2.83392E-3	-104.438E-12	717.671E-3	-9.81470E-3	-106.197E-12	711.018E-3	-18.0095E-3
-2.83892E-3	-104.500E-12	702.297E-3	-6.22798E-3	-106.118E-12	724.301E-3	-25.1348E-3
-2.84392E-3	-105.299E-12	700.072E-3	-2.81432E-3	-107.008E-12	706.608E-3	-11.9699E-3
-2.84892E-3	-105.227E-12	704.633E-3	1.39519E-3	-106.741E-12	680.990E-3	-4.98561E-3
-2.85393E-3	-104.545E-12	707.785E-3	-2.32079E-3	-105.317E-12	664.507E-3	-13.7563E-3
-2.85893E-3	-104.412E-12	706.935E-3	-14.5453E-3	-105.330E-12	663.350E-3	-34.0091E-3
-2.86393E-3	-104.901E-12	697.810E-3	-13.3403E-3	-105.632E-12	680.120E-3	-44.1029E-3
-2.86893E-3	-105.869E-12	686.327E-3	4.76532E-3	-106.112E-12	679.768E-3	-31.0487E-3
-2.87394E-3	-105.246E-12	686.547E-3	6.81901E-3	-105.716E-12	666.937E-3	-7.04742E-3
-2.87894E-3	-104.981E-12	695.650E-3	-14.1696E-3	-105.549E-12	668.448E-3	656.869E-6
-2.88394E-3	-106.056E-12	681.085E-3	-20.7915E-3	-106.613E-12	680.921E-3	-18.7454E-3
-2.88894E-3	-107.637E-12	650.326E-3	-23.1883E-3	-107.726E-12	684.716E-3	-21.6129E-3
-2.89395E-3	-107.742E-12	655.997E-3	-24.2399E-3	-108.893E-12	683.452E-3	1.20121E-3
-2.89895E-3	-108.119E-12	681.839E-3	-17.7068E-3	-108.652E-12	696.394E-3	10.4520E-3
-2.90395E-3	-109.056E-12	685.053E-3	-27.1116E-3	-109.356E-12	707.512E-3	1.96502E-3
-2.90895E-3	-109.939E-12	690.779E-3	-22.5434E-3	-110.326E-12	701.143E-3	-3.64930E-3
-2.91396E-3	-109.645E-12	702.946E-3	-2.75943E-3	-111.041E-12	701.234E-3	-4.92261E-3
-2.91896E-3	-109.182E-12	698.950E-3	1.53210E-3	-111.148E-12	704.215E-3	-12.8131E-3
-2.92396E-3	-109.678E-12	698.966E-3	-4.19333E-3	-110.886E-12	700.692E-3	-24.5415E-3
-2.92896E-3	-109.640E-12	698.050E-3	-12.0347E-3	-111.199E-12	700.146E-3	-18.3890E-3
-2.93397E-3	-109.594E-12	683.949E-3	-20.1683E-3	-110.644E-12	692.391E-3	-1.96896E-3
-2.93897E-3	-109.527E-12	668.971E-3	-27.6038E-3	-110.894E-12	690.647E-3	-5.54810E-3
-2.94397E-3	-109.367E-12	661.645E-3	-20.8847E-3	-109.570E-12	703.919E-3	-28.3182E-3
-2.94897E-3	-109.450E-12	661.955E-3	-6.35878E-3	-109.777E-12	694.821E-3	-41.9131E-3
-2.95398E-3	-110.435E-12	665.711E-3	-7.31925E-3	-109.506E-12	667.191E-3	-28.9089E-3
-2.95898E-3	-110.982E-12	673.466E-3	-27.1079E-3	-110.475E-12	667.678E-3	-19.7694E-3
-2.96398E-3	-110.587E-12	682.159E-3	-43.3665E-3	-110.404E-12	690.028E-3	-18.7995E-3
-2.96898E-3	-111.482E-12	686.654E-3	-35.3405E-3	-110.241E-12	701.138E-3	-14.4723E-3
-2.97399E-3	-112.664E-12	689.826E-3	-12.8177E-3	-110.500E-12	702.732E-3	-22.9569E-3
-2.97899E-3	-113.891E-12	696.350E-3	-138.357E-6	-111.266E-12	698.518E-3	-33.5440E-3
-2.98399E-3	-114.164E-12	706.337E-3	-3.35835E-3	-112.068E-12	694.842E-3	-24.8499E-3
-2.98899E-3	-114.582E-12	700.062E-3	-2.50053E-3	-112.648E-12	703.492E-3	-19.3043E-3
-2.99400E-3	-115.306E-12	681.419E-3	11.6247E-3	-113.184E-12	713.868E-3	-43.3194E-3
-2.99900E-3	-115.882E-12	686.192E-3	21.7665E-3	-113.560E-12	720.185E-3	-55.8611E-3
-3.00400E-3	-115.674E-12	701.270E-3	10.3188E-3	-114.144E-12	710.732E-3	-29.7521E-3
-3.00900E-3	-115.417E-12	705.683E-3	-14.2505E-3	-113.899E-12	680.201E-3	-2.77925E-3
-3.01401E-3	-115.040E-12	705.441E-3	-32.7629E-3	-114.346E-12	660.113E-3	2.48455E-3
-3.01901E-3	-114.802E-12	710.847E-3	-30.3461E-3	-114.420E-12	673.124E-3	-10.0546E-3
-3.02401E-3	-114.108E-12	715.044E-3	-12.4775E-3	-114.095E-12	697.450E-3	-16.9252E-3
-3.02901E-3	-113.378E-12	705.247E-3	-7.30219E-3	-114.571E-12	691.888E-3	-4.11962E-3
-3.03402E-3	-112.930E-12	697.031E-3	-3.11908E-3	-114.446E-12	674.465E-3	-3.78200E-3
-3.03902E-3	-112.427E-12	691.374E-3	1.21108E-3	-114.627E-12	673.585E-3	-13.6274E-3
-3.04402E-3	-113.150E-12	696.424E-3	-14.9216E-3	-113.971E-12	672.499E-3	-15.5530E-3
-3.04902E-3	-112.608E-12	703.391E-3	-21.7663E-3	-115.259E-12	668.431E-3	-14.8111E-3
-3.05403E-3	-113.164E-12	686.508E-3	-20.6266E-3	-115.857E-12	673.493E-3	-12.3330E-3
-3.05903E-3	-113.171E-12	675.465E-3	-15.5092E-3	-115.808E-12	680.243E-3	-16.1753E-3
-3.06403E-3	-113.735E-12	687.580E-3	-4.04503E-3	-115.539E-12	682.045E-3	-19.1918E-3
-3.06903E-3	-115.084E-12	685.324E-3	-11.7049E-3	-116.483E-12	678.643E-3	-18.3722E-3
-3.07404E-3	-115.843E-12	679.994E-3	-24.5217E-3	-117.293E-12	672.467E-3	-20.0698E-3
-3.07904E-3	-116.499E-12	692.430E-3	-22.1236E-3	-116.934E-12	679.099E-3	-15.8694E-3
-3.08404E-3	-116.498E-12	690.475E-3	-21.1535E-3	-117.293E-12	688.891E-3	-7.83323E-3
-3.08904E-3	-117.175E-12	672.916E-3	-14.4883E-3	-118.111E-12	686.913E-3	-10.5460E-3
-3.09405E-3	-117.316E-12	669.032E-3	-433.760E-6	-118.630E-12	678.218E-3	-19.6219E-3
-3.09905E-3	-118.168E-12	678.058E-3	-17.3251E-3	-117.784E-12	671.915E-3	-14.7566E-3
-3.10405E-3	-118.062E-12	684.296E-3	-38.8741E-3	-117.577E-12	671.740E-3	-1.26700E-3
-3.10905E-3	-118.035E-12	692.605E-3	-31.7753E-3	-117.756E-12	680.252E-3	3.17552E-3
-3.11406E-3	-117.950E-12	695.260E-3	-11.4314E-3	-117.709E-12	681.482E-3	4.58927E-3
-3.11906E-3	-118.935E-12	678.067E-3	6.87272E-3	-118.709E-12	660.482E-3	5.29295E-3
-3.12406E-3	-119.025E-12	678.553E-3	2.80194E-3	-118.948E-12	650.389E-3	9.20626E-3
-3.12906E-3	-117.656E-12	694.777E-3	969.875E-6	-119.303E-12	666.477E-3	11.7565E-3
-3.13407E-3	-118.141E-12	678.810E-3	13.2545E-3	-119.232E-12	688.635E-3	5.04383E-3
-3.13907E-3	-118.861E-12	658.140E-3	-2.14544E-3	-119.415E-12	696.692E-3	-84.6113E-6
-3.14407E-3	-118.750E-12	662.767E-3	-10.8735E-3	-120.036E-12	687.329E-3	-10.9696E-3
-3.14907E-3	-118.158E-12	674.814E-3	13.6863E-3	-121.373E-12	682.517E-3	-17.3247E-3
-3.15408E-3	-119.488E-12	682.724E-3	13.0195E-3	-121.725E-12	679.965E-3	-2.58933E-3
-3.15908E-3	-119.739E-12	675.886E-3	-15.6028E-3	-122.034E-12	674.999E-3	7.50404E-3
-3.16408E-3	-120.527E-12	674.686E-3	-28.4170E-3	-121.714E-12	671.369E-3	-16.2051E-3
-3.16908E-3	-120.821E-12	691.151E-3	-23.0868E-3	-122.155E-12	669.492E-3	-45.6465E-3
-3.17409E-3	-121.823E-12	695.841E-3	-19.1388E-3	-122.293E-12	681.951E-3	-41.3005E-3
-3.17909E-3	-121.946E-12	685.684E-3	-19.4935E-3	-121.900E-12	682.799E-3	-35.2286E-3
-3.18409E-3	-122.310E-12	678.025E-3	-24.4230E-3	-121.787E-12	664.163E-3	-49.6240E-3
-3.18909E-3	-122.208E-12	689.769E-3	-29.7745E-3	-121.586E-12	656.713E-3	-50.6295E-3
-3.19410E-3	-122.525E-12	716.752E-3	-13.5171E-3	-121.459E-12	658.172E-3	-31.2254E-3
-3.19910E-3	-123.131E-12	731.852E-3	1.94540E-3	-120.945E-12	675.068E-3	-11.6941E-3
-3.20410E-3	-122.089E-12	726.372E-3	-7.87673E-3	-120.776E-12	697.397E-3	1.50469E-3
-3.20910E-3	-122.090E-12	718.319E-3	-20.1592E-3	-121.070E-12	697.034E-3	5.82831E-3
-3.21411E-3	-122.890E-12	708.924E-3	-15.4921E-3	-121.307E-12	682.355E-3	3.35527E-3
-3.21911E-3	-123.944E-12	692.751E-3	-256.967E-6	-121.482E-12	664.382E-3	-786.804E-6
-3.22411E-3	-123.086E-12	682.299E-3	12.1029E-3	-122.324E-12	662.691E-3	-9.35837E-3
-3.22911E-3	-123.141E-12	685.378E-3	6.69987E-3	-123.733E-12	680.730E-3	-22.2429E-3
-3.23412E-3	-123.532E-12	692.800E-3	-9.51431E-3	-124.384E-12	705.592E-3	-18.6850E-3
-3.23912E-3	-124.534E-12	697.489E-3	-10.9932E-3	-124.991E-12	717.535E-3	-8.58978E-3
-3.24412E-3	-124.548E-12	700.458E-3	-12.4430E-3	-125.429E-12	690.191E-3	-19.9420E-3
-3.24912E-3	-124.380E-12	697.726E-3	-10.1543E-3	-126.366E-12	661.241E-3	-21.2283E-3
-3.25413E-3	-125.242E-12	684.482E-3	-12.8846E-3	-126.157E-12	665.608E-3	-14.4671E-3
-3.25913E-3	-125.140E-12	666.149E-3	-24.3607E-3	-126.882E-12	677.753E-3	-20.4235E-3
-3.26413E-3	-125.152E-12	674.837E-3	-22.7609E-3	-126.765E-12	680.010E-3	-13.8525E-3
-3.26913E-3	-124.848E-12	694.133E-3	-29.5899E-3	-126.486E-12	685.393E-3	-3.45026E-3
-3.27414E-3	-125.374E-12	695.983E-3	-37.1106E-3	-125.462E-12	685.544E-3	85.5019E-6
-3.27914E-3	-125.532E-12	692.147E-3	-20.7048E-3	-125.411E-12	668.533E-3	7.19781E-3
-3.28414E-3	-124.683E-12	685.463E-3	-8.31287E-3	-126.018E-12	668.006E-3	2.02958E-3
-3.28914E-3	-124.070E-12	673.717E-3	-10.0667E-3	-125.025E-12	676.059E-3	-29.9353E-3
-3.29415E-3	-123.908E-12	667.531E-3	-2.60592E-3	-124.649E-12	668.223E-3	-50.6717E-3
-3.29915E-3	-124.596E-12	667.921E-3	3.02761E-3	-124.228E-12	670.487E-3	-44.1043E-3
-3.30415E-3	-123.962E-12	670.201E-3	-6.70644E-3	-124.848E-12	668.671E-3	-41.3626E-3
-3.30915E-3	-124.637E-12	675.094E-3	-16.4910E-3	-125.256E-12	639.746E-3	-38.7889E-3
-3.31416E-3	-124.713E-12	660.146E-3	-18.7358E-3	-126.042E-12	642.285E-3	-36.3112E-3
-3.31916E-3	-126.112E-12	652.894E-3	-23.8480E-3	-126.733E-12	677.325E-3	-42.0034E-3
-3.32416E-3	-126.008E-12	673.053E-3	-29.8184E-3	-127.879E-12	688.228E-3	-36.1577E-3
-3.32916E-3	-126.279E-12	681.771E-3	-22.0758E-3	-129.526E-12	699.551E-3	-28.0944E-3
-3.33417E-3	-127.221E-12	672.728E-3	-9.07879E-3	-130.205E-12	708.664E-3	-44.8387E-3
-3.33917E-3	-128.365E-12	660.321E-3	-4.79146E-3	-130.924E-12	685.413E-3	-47.4171E-3
-3.34417E-3	-129.718E-12	659.949E-3	-3.17726E-3	-130.722E-12	674.289E-3	-18.5588E-3
-3.34917E-3	-129.868E-12	671.648E-3	-6.62762E-3	-130.854E-12	688.496E-3	-6.94247E-3
-3.35418E-3	-129.814E-12	675.384E-3	-23.7929E-3	-131.276E-12	691.755E-3	-16.1629E-3
-3.35918E-3	-130.140E-12	666.522E-3	-39.4474E-3	-131.245E-12	692.267E-3	-25.5133E-3
-3.36418E-3	-130.770E-12	659.701E-3	-42.1741E-3	-130.578E-12	699.411E-3	-28.6045E-3
-3.36918E-3	-129.863E-12	651.982E-3	-37.9180E-3	-129.059E-12	681.040E-3	-26.5203E-3
-3.37419E-3	-129.390E-12	643.603E-3	-31.6099E-3	-129.288E-12	664.962E-3	-19.7498E-3
-3.37919E-3	-128.357E-12	641.525E-3	-30.6163E-3	-129.476E-12	672.677E-3	-8.14161E-3
-3.38419E-3	-128.889E-12	651.110E-3	-24.1844E-3	-128.711E-12	651.607E-3	-9.77754E-3
-3.38919E-3	-129.686E-12	675.352E-3	-7.26412E-3	-128.078E-12	624.820E-3	-15.4547E-3
-3.39420E-3	-128.968E-12	687.289E-3	-5.32963E-3	-128.531E-12	647.512E-3	-3.89161E-3
-3.39920E-3	-128.216E-12	674.107E-3	-23.8604E-3	-129.482E-12	675.284E-3	-4.09593E-3
-3.40420E-3	-129.697E-12	662.908E-3	-33.4193E-3	-130.134E-12	666.673E-3	-28.5568E-3
-3.40920E-3	-132.158E-12	662.292E-3	-13.8787E-3	-130.814E-12	653.558E-3	-45.1368E-3
-3.41421E-3	-132.194E-12	669.675E-3	-4.55732E-3	-131.065E-12	655.384E-3	-31.8733E-3
-3.41921E-3	-131.708E-12	674.672E-3	-29.6422E-3	-133.043E-12	666.855E-3	3.15923E-3
-3.42421E-3	-132.741E-12	677.843E-3	-46.0227E-3	-133.518E-12	683.279E-3	2.53003E-3
-3.42921E-3	-134.966E-12	689.781E-3	-38.9587E-3	-134.415E-12	685.235E-3	-30.6789E-3
-3.43422E-3	-135.805E-12	689.531E-3	-22.8418E-3	-134.685E-12	672.325E-3	-21.8522E-3
-3.43922E-3	-134.712E-12	674.677E-3	-10.4967E-3	-135.273E-12	685.177E-3	3.35417E-3
-3.44422E-3	-134.687E-12	667.333E-3	-15.8558E-3	-136.588E-12	694.937E-3	-23.1883E-3
-3.44922E-3	-134.771E-12	675.337E-3	-12.2180E-3	-136.551E-12	670.428E-3	-48.5588E-3
-3.45423E-3	-135.348E-12	681.335E-3	1.01397E-3	-135.659E-12	664.221E-3	-25.8013E-3
-3.45923E-3	-134.656E-12	680.319E-3	2.39277E-3	-135.029E-12	675.375E-3	-20.0395E-3
-3.46423E-3	-133.714E-12	687.067E-3	1.14657E-3	-135.464E-12	662.131E-3	-30.9035E-3
-3.46923E-3	-133.691E-12	692.145E-3	7.58528E-3	-135.888E-12	641.987E-3	-28.6880E-3
-3.47424E-3	-133.064E-12	698.681E-3	14.1477E-3	-134.968E-12	649.885E-3	-18.6605E-3
-3.47924E-3	-133.615E-12	698.361E-3	8.46872E-3	-134.214E-12	675.239E-3	-4.24166E-3
-3.48424E-3	-133.304E-12	683.861E-3	-555.996E-6	-133.821E-12	685.035E-3	-1.93576E-3
-3.48924E-3	-132.905E-12	666.401E-3	-29.0182E-3	-135.379E-12	680.617E-3	-8.15963E-3
-3.49425E-3	-132.705E-12	663.294E-3	-50.1467E-3	-135.955E-12	685.620E-3	-9.62653E-3
-3.49925E-3	-134.519E-12	675.840E-3	-28.0653E-3	-135.491E-12	690.703E-3	-8.15657E-3
-3.50425E-3	-135.527E-12	677.053E-3	-16.9213E-3	-135.610E-12	694.406E-3	-11.1569E-3
-3.50925E-3	-135.709E-12	686.629E-3	-43.8320E-3	-135.955E-12	697.185E-3	-17.2373E-3
-3.51426E-3	-135.564E-12	693.500E-3	-56.1573E-3	-137.616E-12	680.722E-3	-17.7783E-3
-3.51926E-3	-136.673E-12	681.615E-3	-33.4255E-3	-137.590E-12	671.174E-3	-17.0463E-3
-3.52426E-3	-138.510E-12	672.734E-3	-16.4586E-3	-137.822E-12	690.966E-3	-19.4068E-3
-3.52926E-3	-137.998E-12	661.365E-3	-14.5436E-3	-137.849E-12	712.634E-3	-21.0578E-3
-3.53427E-3	-136.586E-12	651.498E-3	288.879E-6	-139.216E-12	715.166E-3	-22.2446E-3
-3.53927E-3	-137.291E-12	648.063E-3	20.2640E-3	-139.538E-12	691.267E-3	-16.0802E-3
-3.54427E-3	-138.490E-12	643.708E-3	19.1364E-3	-138.403E-12	661.221E-3	-6.93216E-3
-3.54927E-3	-137.969E-12	642.807E-3	8.39119E-3	-138.495E-12	661.333E-3	-23.0157E-3
-3.55428E-3	-136.951E-12	650.453E-3	7.75266E-3	-138.409E-12	677.053E-3	-58.6480E-3
-3.55928E-3	-136.478E-12	667.617E-3	14.1444E-3	-139.242E-12	683.639E-3	-67.4826E-3
-3.56428E-3	-137.655E-12	676.034E-3	19.5592E-3	-137.639E-12	674.552E-3	-41.7331E-3
-3.56928E-3	-138.515E-12	659.168E-3	7.15712E-3	-138.431E-12	654.667E-3	-20.7797E-3
-3.57429E-3	-137.878E-12	658.719E-3	-19.8746E-3	-138.865E-12	656.352E-3	-17.5019E-3
-3.57929E-3	-138.587E-12	668.497E-3	-25.0942E-3	-139.503E-12	674.922E-3	-25.3188E-3
-3.58429E-3	-139.673E-12	653.085E-3	-15.8936E-3	-139.961E-12	672.229E-3	-15.2401E-3
-3.58929E-3	-140.859E-12	650.606E-3	-15.1034E-3	-140.701E-12	657.059E-3	6.23836E-3
-3.59430E-3	-140.889E-12	655.714E-3	-5.68229E-3	-140.903E-12	654.190E-3	1.38339E-3
-3.59930E-3	-140.404E-12	659.338E-3	93.6291E-6	-141.043E-12	653.394E-3	-7.93121E-3
-3.60430E-3	-141.945E-12	679.470E-3	-29.7835E-3	-141.309E-12	642.286E-3	-5.00040E-3
-3.60930E-3	-142.534E-12	681.103E-3	-48.6149E-3	-141.110E-12	651.279E-3	-8.62706E-3
-3.61431E-3	-143.632E-12	670.817E-3	-34.2909E-3	-140.901E-12	679.526E-3	-26.8873E-3
-3.61931E-3	-143.046E-12	690.513E-3	-14.0886E-3	-141.116E-12	682.407E-3	-38.9796E-3
-3.62431E-3	-142.173E-12	699.778E-3	1.14107E-3	-141.368E-12	675.587E-3	-23.3496E-3
-3.62931E-3	-141.753E-12	678.750E-3	-2.20151E-3	-141.413E-12	678.138E-3	-11.5945E-3
-3.63432E-3	-142.717E-12	671.509E-3	-10.8159E-3	-140.615E-12	670.270E-3	-20.9902E-3
-3.63932E-3	-142.331E-12	674.182E-3	-14.3358E-3	-141.641E-12	654.657E-3	-19.8944E-3
-3.64432E-3	-140.727E-12	658.549E-3	-11.7887E-3	-142.637E-12	635.013E-3	-18.6205E-3
-3.64932E-3	-140.452E-12	642.404E-3	-7.12200E-3	-142.730E-12	631.493E-3	-18.4504E-3
-3.65433E-3	-141.851E-12	662.747E-3	-12.8955E-3	-143.579E-12	660.104E-3	-6.87251E-3
-3.65933E-3	-142.415E-12	694.699E-3	-17.0509E-3	-142.815E-12	689.701E-3	-21.4541E-3
-3.66433E-3	-141.682E-12	707.288E-3	-19.7217E-3	-145.104E-12	700.180E-3	-55.9373E-3
-3.66933E-3	-140.738E-12	699.131E-3	-25.0012E-3	-146.401E-12	693.762E-3	-61.9088E-3
-3.67434E-3	-142.228E-12	669.153E-3	-11.1701E-3	-147.189E-12	680.938E-3	-37.9805E-3
-3.67934E-3	-143.717E-12	654.139E-3	1.52930E-3	-145.887E-12	686.875E-3	-15.9393E-3
-3.68434E-3	-144.223E-12	676.251E-3	-4.79046E-3	-147.087E-12	704.075E-3	-2.45884E-3
-3.68934E-3	-143.229E-12	697.456E-3	-4.59168E-3	-147.943E-12	701.612E-3	4.69516E-3
-3.69435E-3	-144.473E-12	697.235E-3	99.8013E-6	-147.399E-12	690.758E-3	-3.88745E-3
-3.69935E-3	-144.957E-12	671.216E-3	-11.9883E-3	-145.857E-12	684.442E-3	-1.88663E-3
-3.70435E-3	-145.211E-12	640.880E-3	-24.7396E-3	-145.569E-12	674.417E-3	24.7216E-3
-3.70935E-3	-144.281E-12	648.834E-3	-21.2834E-3	-146.428E-12	671.587E-3	27.2852E-3
-3.71436E-3	-143.714E-12	666.517E-3	-19.5619E-3	-144.561E-12	664.189E-3	3.06854E-3
-3.71936E-3	-144.142E-12	666.682E-3	-22.2590E-3	-143.468E-12	647.407E-3	3.24703E-3
-3.72436E-3	-143.868E-12	658.073E-3	-21.9768E-3	-144.146E-12	639.299E-3	16.4156E-3
-3.72936E-3	-143.427E-12	659.370E-3	-19.8483E-3	-145.595E-12	639.174E-3	7.74781E-3
-3.73437E-3	-143.063E-12	678.092E-3	-6.32943E-3	-145.171E-12	657.080E-3	-6.84920E-3
-3.73937E-3	-143.549E-12	679.364E-3	-2.86627E-3	-144.168E-12	677.288E-3	-9.23804E-3
-3.74437E-3	-143.501E-12	654.489E-3	-22.1519E-3	-145.510E-12	690.697E-3	-3.91743E-3
-3.74937E-3	-144.484E-12	630.069E-3	-28.3441E-3	-146.797E-12	711.477E-3	-1.36716E-3
-3.75438E-3	-144.990E-12	614.989E-3	-24.9806E-3	-147.411E-12	717.820E-3	-10.8309E-3
-3.75938E-3	-145.225E-12	625.771E-3	-9.00964E-3	-147.243E-12	711.383E-3	-22.5009E-3
-3.76438E-3	-146.001E-12	649.432E-3	-3.67381E-3	-148.589E-12	697.467E-3	-29.0139E-3
-3.76938E-3	-147.939E-12	655.578E-3	-29.3742E-3	-151.179E-12	674.130E-3	-20.7038E-3
-3.77439E-3	-148.623E-12	646.904E-3	-13.8255E-3	-151.673E-12	669.040E-3	-7.48972E-3
-3.77939E-3	-149.397E-12	638.181E-3	20.5875E-3	-151.251E-12	672.711E-3	-17.1498E-3
-3.78439E-3	-149.763E-12	653.887E-3	22.5593E-3	-150.228E-12	649.202E-3	-34.6249E-3
-3.78939E-3	-150.143E-12	674.187E-3	11.0984E-3	-150.567E-12	633.118E-3	-32.9103E-3
-3.79440E-3	-150.471E-12	676.256E-3	-10.0809E-3	-151.090E-12	647.754E-3	-15.4416E-3
-3.79940E-3	-151.200E-12	681.560E-3	-20.1689E-3	-150.577E-12	662.079E-3	-9.15124E-3
-3.80440E-3	-150.352E-12	692.344E-3	-23.2825E-3	-148.136E-12	674.200E-3	-18.3774E-3
-3.80940E-3	-150.304E-12	698.196E-3	-28.6902E-3	-147.287E-12	672.791E-3	-21.9296E-3
-3.81441E-3	-150.423E-12	702.580E-3	-25.9278E-3	-147.871E-12	658.448E-3	-17.5504E-3
-3.81941E-3	-150.502E-12	699.713E-3	-22.1769E-3	-148.245E-12	655.832E-3	-22.7519E-3
-3.82441E-3	-149.909E-12	679.594E-3	-24.2121E-3	-146.882E-12	660.014E-3	-33.2771E-3
-3.82941E-3	-150.270E-12	647.908E-3	-31.4062E-3	-147.307E-12	653.048E-3	-43.1497E-3
-3.83442E-3	-150.521E-12	646.693E-3	-28.3587E-3	-149.211E-12	651.251E-3	-42.0499E-3
-3.83942E-3	-150.216E-12	675.687E-3	-19.0129E-3	-151.117E-12	659.023E-3	-17.0728E-3
-3.84442E-3	-150.669E-12	677.883E-3	-21.8388E-3	-151.899E-12	663.260E-3	-1.91024E-3
-3.84942E-3	-151.858E-12	665.434E-3	-16.3114E-3	-152.579E-12	673.926E-3	-3.12766E-3
-3.85443E-3	-152.158E-12	668.545E-3	211.112E-6	-153.779E-12	678.869E-3	-1.42341E-3
-3.85943E-3	-152.670E-12	678.001E-3	-3.17998E-3	-156.246E-12	667.847E-3	-930.769E-6
-3.86443E-3	-152.758E-12	694.287E-3	-11.7290E-3	-156.094E-12	662.342E-3	-2.72113E-3
-3.86943E-3	-153.131E-12	692.526E-3	-17.4975E-3	-156.255E-12	666.495E-3	-9.03122E-3
-3.87444E-3	-153.369E-12	672.950E-3	-22.8267E-3	-156.310E-12	668.952E-3	-27.4911E-3
-3.87944E-3	-153.907E-12	673.281E-3	-16.2813E-3	-157.158E-12	676.612E-3	-38.7141E-3
-3.88444E-3	-153.301E-12	680.040E-3	-16.1500E-3	-155.813E-12	677.994E-3	-36.2849E-3
-3.88944E-3	-152.008E-12	679.142E-3	-25.7480E-3	-154.851E-12	659.756E-3	-30.6945E-3
-3.89445E-3	-152.367E-12	686.777E-3	-26.0141E-3	-154.476E-12	647.130E-3	-17.4564E-3
-3.89945E-3	-152.267E-12	689.429E-3	-17.8982E-3	-155.340E-12	652.599E-3	-7.52512E-3
-3.90445E-3	-152.167E-12	667.100E-3	-18.0071E-3	-154.482E-12	672.485E-3	-16.6195E-3
-3.90945E-3	-150.722E-12	650.607E-3	-24.4403E-3	-153.749E-12	688.750E-3	-33.7756E-3
-3.91446E-3	-151.347E-12	650.406E-3	-31.7206E-3	-153.569E-12	685.732E-3	-24.6903E-3
-3.91946E-3	-151.549E-12	639.042E-3	-32.7381E-3	-154.125E-12	674.080E-3	124.634E-6
-3.92446E-3	-151.572E-12	630.562E-3	-32.9096E-3	-155.192E-12	665.011E-3	9.44848E-3
-3.92946E-3	-152.180E-12	636.603E-3	-41.5029E-3	-154.045E-12	668.582E-3	8.71520E-3
-3.93447E-3	-152.746E-12	647.016E-3	-36.0421E-3	-155.519E-12	683.368E-3	6.94175E-3
-3.93947E-3	-153.319E-12	653.552E-3	-22.1642E-3	-156.851E-12	682.602E-3	-589.050E-6
-3.94447E-3	-154.430E-12	651.713E-3	-13.4583E-3	-157.957E-12	671.540E-3	-23.8005E-3
-3.94947E-3	-155.177E-12	642.816E-3	-3.70376E-3	-157.591E-12	670.506E-3	-44.5190E-3
-3.95448E-3	-155.343E-12	639.487E-3	-1.59406E-3	-157.577E-12	673.368E-3	-37.6407E-3
-3.95948E-3	-155.334E-12	656.887E-3	-422.486E-6	-158.859E-12	671.351E-3	-14.1046E-3
-3.96448E-3	-155.182E-12	670.000E-3	10.1969E-3	-159.170E-12	670.376E-3	-2.65560E-3
-3.96948E-3	-155.334E-12	658.084E-3	16.2966E-3	-158.870E-12	662.174E-3	-5.92020E-3
-3.97449E-3	-155.150E-12	656.265E-3	209.150E-6	-158.105E-12	645.264E-3	3.26589E-3
-3.97949E-3	-154.614E-12	661.129E-3	-11.5406E-3	-158.331E-12	651.571E-3	14.8446E-3
-3.98449E-3	-155.592E-12	645.321E-3	-4.12879E-3	-158.990E-12	667.541E-3	6.12273E-3
-3.98949E-3	-156.249E-12	647.178E-3	-12.9877E-3	-158.183E-12	666.203E-3	-13.2317E-3
-3.99450E-3	-156.846E-12	663.106E-3	-29.0575E-3	-158.902E-12	659.244E-3	-16.4776E-3
-3.99950E-3	-156.314E-12	648.904E-3	-29.1150E-3	-158.528E-12	654.244E-3	2.66779E-3
-4.00450E-3	-157.548E-12	628.395E-3	-32.2000E-3	-158.409E-12	660.202E-3	18.3584E-3
-4.00950E-3	-158.650E-12	639.718E-3	-29.0245E-3	-159.090E-12	680.562E-3	16.2552E-3
-4.01451E-3	-159.556E-12	657.016E-3	-18.0831E-3	-160.554E-12	674.594E-3	9.63231E-3
-4.01951E-3	-159.704E-12	677.538E-3	-13.0471E-3	-160.868E-12	644.594E-3	3.27379E-3
-4.02451E-3	-160.701E-12	705.113E-3	-3.87744E-3	-162.205E-12	650.458E-3	-6.21790E-3
-4.02951E-3	-161.597E-12	702.904E-3	-669.625E-6	-162.147E-12	663.587E-3	-23.1194E-3
-4.03452E-3	-162.486E-12	694.991E-3	-12.7138E-3	-162.749E-12	649.118E-3	-30.2197E-3
-4.03952E-3	-162.635E-12	694.038E-3	-27.4295E-3	-162.316E-12	644.384E-3	-7.78394E-3
-4.04452E-3	-162.370E-12	677.972E-3	-31.8643E-3	-162.473E-12	643.766E-3	2.44615E-3
-4.04952E-3	-163.164E-12	678.691E-3	-26.8720E-3	-162.053E-12	631.835E-3	-3.54388E-3
-4.05453E-3	-163.510E-12	684.042E-3	-13.9243E-3	-161.570E-12	638.717E-3	-3.99300E-3
-4.05953E-3	-162.679E-12	660.202E-3	997.463E-6	-161.304E-12	655.363E-3	-18.4008E-3
-4.06453E-3	-161.276E-12	662.157E-3	-12.6517E-3	-160.409E-12	649.196E-3	-31.7743E-3
-4.06953E-3	-161.260E-12	681.898E-3	-25.3117E-3	-160.850E-12	639.946E-3	-23.7703E-3
-4.07454E-3	-162.524E-12	668.236E-3	-19.4977E-3	-160.326E-12	638.164E-3	-10.4034E-3
-4.07954E-3	-162.049E-12	656.287E-3	-11.8481E-3	-161.478E-12	648.662E-3	-8.81614E-3
-4.08454E-3	-159.817E-12	680.302E-3	9.73001E-3	-161.766E-12	674.114E-3	-11.7070E-3
-4.08954E-3	-159.672E-12	702.645E-3	-5.27083E-3	-162.160E-12	688.836E-3	-11.8866E-3
-4.09455E-3	-160.491E-12	697.340E-3	-37.4715E-3	-162.956E-12	693.354E-3	-2.59157E-3
-4.09955E-3	-161.958E-12	681.827E-3	-20.6560E-3	-162.859E-12	687.583E-3	13.1819E-3
-4.10455E-3	-162.005E-12	673.551E-3	-3.02364E-3	-165.252E-12	686.505E-3	17.4562E-3
-4.10955E-3	-161.791E-12	667.046E-3	-10.9861E-3	-165.563E-12	691.895E-3	11.4698E-3
-4.11456E-3	-162.435E-12	656.757E-3	-3.78690E-3	-165.006E-12	685.807E-3	6.60730E-3
-4.11956E-3	-164.545E-12	654.904E-3	10.1023E-3	-163.343E-12	668.528E-3	-7.30006E-3
-4.12456E-3	-165.500E-12	662.901E-3	2.08121E-3	-163.944E-12	644.793E-3	-34.5251E-3
-4.12956E-3	-164.268E-12	683.242E-3	-6.19794E-3	-164.259E-12	632.080E-3	-31.1243E-3
-4.13457E-3	-164.612E-12	695.293E-3	-2.99522E-3	-163.504E-12	632.047E-3	-3.26459E-3
-4.13957E-3	-164.771E-12	686.816E-3	-11.8118E-3	-161.636E-12	634.373E-3	-13.1171E-3
-4.14457E-3	-166.132E-12	674.144E-3	-36.5481E-3	-161.102E-12	647.090E-3	-46.6135E-3
-4.14957E-3	-164.012E-12	650.961E-3	-45.1294E-3	-162.195E-12	668.008E-3	-45.1138E-3
-4.15458E-3	-162.772E-12	638.917E-3	-35.9010E-3	-162.110E-12	664.047E-3	-15.6450E-3
-4.15958E-3	-162.471E-12	657.304E-3	-19.9087E-3	-161.554E-12	652.838E-3	9.76809E-3
-4.16458E-3	-163.262E-12	682.011E-3	-375.838E-6	-161.600E-12	671.798E-3	11.1543E-3
-4.16958E-3	-162.324E-12	685.975E-3	2.09908E-3	-162.293E-12	694.412E-3	-21.5651E-3
-4.17459E-3	-161.509E-12	664.687E-3	317.400E-6	-163.641E-12	693.883E-3	-42.8782E-3
-4.17959E-3	-162.383E-12	626.515E-3	-4.43066E-3	-163.799E-12	684.782E-3	-38.2680E-3
-4.18459E-3	-163.750E-12	593.890E-3	-12.0944E-3	-165.289E-12	669.180E-3	-26.1365E-3
-4.18959E-3	-164.295E-12	605.139E-3	-4.57330E-3	-165.956E-12	645.300E-3	-2.43177E-3
-4.19460E-3	-164.322E-12	649.059E-3	7.57862E-3	-167.984E-12	650.016E-3	20.6623E-3
-4.19960E-3	-164.792E-12	671.723E-3	19.8570E-3	-169.103E-12	677.131E-3	22.7565E-3
-4.20460E-3	-166.086E-12	666.651E-3	18.2759E-3	-169.903E-12	679.930E-3	-1.67346E-3
-4.20960E-3	-167.001E-12	659.194E-3	2.67466E-3	-170.524E-12	666.775E-3	-31.8082E-3
-4.21461E-3	-168.199E-12	650.285E-3	-6.94509E-3	-170.603E-12	649.433E-3	-45.4607E-3
-4.21961E-3	-168.770E-12	654.270E-3	-22.2380E-3	-169.950E-12	629.865E-3	-34.3399E-3
-4.22461E-3	-169.379E-12	660.140E-3	-25.1076E-3	-169.372E-12	620.494E-3	-19.9415E-3
-4.22961E-3	-170.494E-12	640.513E-3	-6.16786E-3	-168.671E-12	623.298E-3	-1.87811E-3
-4.23462E-3	-169.943E-12	640.352E-3	-7.19681E-3	-168.180E-12	650.793E-3	18.1185E-3
-4.23962E-3	-169.914E-12	679.088E-3	-28.0276E-3	-168.074E-12	682.068E-3	19.6299E-3
-4.24462E-3	-168.422E-12	683.276E-3	-34.9668E-3	-167.582E-12	677.505E-3	13.5290E-3
-4.24962E-3	-168.680E-12	644.611E-3	-26.5101E-3	-167.234E-12	658.224E-3	6.18550E-3
-4.25463E-3	-168.418E-12	621.101E-3	-25.1209E-3	-167.187E-12	665.181E-3	-1.84314E-3
-4.25963E-3	-168.577E-12	631.732E-3	-32.1361E-3	-168.044E-12	675.257E-3	-1.68960E-3
-4.26463E-3	-168.542E-12	665.380E-3	-47.3018E-3	-168.234E-12	675.063E-3	-240.549E-6
-4.26963E-3	-169.531E-12	690.003E-3	-50.6951E-3	-169.208E-12	673.682E-3	-7.33137E-3
-4.27464E-3	-170.979E-12	682.679E-3	-21.8987E-3	-170.515E-12	665.832E-3	-8.14373E-3
-4.27964E-3	-170.887E-12	666.449E-3	-10.0942E-3	-172.278E-12	653.437E-3	-3.22875E-3
-4.28464E-3	-169.690E-12	663.824E-3	-16.9342E-3	-172.233E-12	647.673E-3	-11.3689E-3
-4.28964E-3	-170.852E-12	656.469E-3	-21.6347E-3	-172.140E-12	634.435E-3	-15.3161E-3
-4.29465E-3	-172.527E-12	648.442E-3	-42.2509E-3	-172.169E-12	617.975E-3	-6.73662E-3
-4.29965E-3	-172.920E-12	658.614E-3	-46.8682E-3	-173.678E-12	634.156E-3	-11.3248E-3
-4.30465E-3	-171.244E-12	674.707E-3	-31.5986E-3	-173.449E-12	659.417E-3	-20.1509E-3
-4.30965E-3	-171.963E-12	664.705E-3	-24.9385E-3	-172.404E-12	672.181E-3	-11.7136E-3
-4.31466E-3	-173.420E-12	648.253E-3	-24.7996E-3	-171.562E-12	690.630E-3	-13.5375E-3
-4.31966E-3	-174.567E-12	653.714E-3	-11.9706E-3	-172.094E-12	707.639E-3	-35.1372E-3
-4.32466E-3	-172.170E-12	664.312E-3	15.7052E-3	-171.855E-12	696.447E-3	-46.4403E-3
-4.32966E-3	-171.123E-12	669.957E-3	33.8572E-3	-170.996E-12	670.248E-3	-39.7859E-3
-4.33467E-3	-171.552E-12	664.024E-3	24.5635E-3	-170.067E-12	647.339E-3	-27.6996E-3
-4.33967E-3	-171.936E-12	655.986E-3	-2.70766E-3	-169.457E-12	642.059E-3	-29.7515E-3
-4.34467E-3	-171.212E-12	649.830E-3	-19.9312E-3	-170.217E-12	657.955E-3	-35.8344E-3
-4.34967E-3	-171.670E-12	645.430E-3	-34.4096E-3	-169.375E-12	671.017E-3	-33.7093E-3
-4.35468E-3	-172.434E-12	647.712E-3	-57.7373E-3	-169.990E-12	672.027E-3	-33.3371E-3
-4.35968E-3	-172.802E-12	648.664E-3	-57.6258E-3	-170.079E-12	673.079E-3	-28.0063E-3
-4.36468E-3	-173.208E-12	636.090E-3	-40.9387E-3	-172.080E-12	684.628E-3	-15.1083E-3
-4.36968E-3	-173.215E-12	631.040E-3	-25.3484E-3	-173.561E-12	681.367E-3	-20.6927E-3
-4.37469E-3	-173.734E-12	637.792E-3	-10.0134E-3	-174.117E-12	664.296E-3	-40.0009E-3
-4.37969E-3	-173.686E-12	634.174E-3	-6.18377E-3	-173.490E-12	657.919E-3	-55.0506E-3
-4.38469E-3	-174.451E-12	653.210E-3	-431.772E-6	-173.926E-12	649.274E-3	-61.5835E-3
-4.38969E-3	-175.187E-12	687.338E-3	-435.024E-6	-174.498E-12	648.132E-3	-41.3631E-3
-4.39470E-3	-174.171E-12	688.152E-3	-16.8306E-3	-174.794E-12	662.263E-3	-24.7905E-3
-4.39970E-3	-174.177E-12	670.461E-3	-39.7882E-3	-174.796E-12	672.467E-3	-8.46731E-3
-4.40470E-3	-174.784E-12	661.104E-3	-52.0524E-3	-174.377E-12	670.905E-3	17.6756E-3
-4.40970E-3	-175.203E-12	656.755E-3	-24.7701E-3	-175.061E-12	655.891E-3	8.92115E-3
-4.41471E-3	-174.664E-12	658.853E-3	2.66838E-3	-175.192E-12	645.942E-3	-19.8200E-3
-4.41971E-3	-175.184E-12	673.528E-3	-12.4955E-3	-175.594E-12	647.617E-3	-28.3890E-3
-4.42471E-3	-174.757E-12	681.072E-3	-25.9173E-3	-174.864E-12	650.861E-3	-13.6189E-3
-4.42971E-3	-175.589E-12	664.073E-3	-8.43410E-3	-174.943E-12	660.545E-3	-9.89531E-3
-4.43472E-3	-176.023E-12	637.616E-3	2.77690E-3	-176.059E-12	669.688E-3	-25.1295E-3
-4.43972E-3	-176.379E-12	633.610E-3	-15.2789E-3	-176.571E-12	668.889E-3	-6.01456E-3
-4.44472E-3	-178.264E-12	642.999E-3	-34.0333E-3	-177.083E-12	681.441E-3	17.4150E-3
-4.44972E-3	-178.646E-12	644.848E-3	-29.8808E-3	-178.548E-12	698.245E-3	-5.61503E-3
-4.45473E-3	-180.023E-12	658.997E-3	-10.6766E-3	-181.825E-12	678.905E-3	-17.9907E-3
-4.45973E-3	-178.782E-12	664.677E-3	-3.95424E-3	-181.061E-12	659.334E-3	-8.71333E-3
-4.46473E-3	-179.277E-12	652.668E-3	-5.80939E-3	-180.479E-12	661.116E-3	-7.95814E-3
-4.46973E-3	-179.659E-12	654.231E-3	-2.65388E-3	-181.336E-12	667.144E-3	-5.76192E-3
-4.47474E-3	-181.030E-12	668.390E-3	-9.03089E-3	-184.682E-12	676.932E-3	4.15391E-3
-4.47974E-3	-180.360E-12	672.167E-3	-17.6297E-3	-184.408E-12	673.178E-3	11.3645E-3
-4.48474E-3	-179.420E-12	670.104E-3	-8.57377E-3	-181.215E-12	666.854E-3	-6.87906E-3
-4.48974E-3	-179.690E-12	688.572E-3	-4.69094E-3	-180.736E-12	678.740E-3	-21.0865E-3
-4.49475E-3	-179.113E-12	700.361E-3	-25.7057E-3	-182.443E-12	684.722E-3	-4.72563E-3
-4.49975E-3	-181.340E-12	698.322E-3	-48.6900E-3	-184.392E-12	685.084E-3	4.41151E-3
-4.50475E-3	-180.647E-12	684.428E-3	-61.9417E-3	-181.721E-12	689.743E-3	-2.98090E-3
-4.50975E-3	-180.463E-12	664.360E-3	-65.4170E-3	-180.076E-12	677.676E-3	-10.6623E-3
-4.51476E-3	-179.296E-12	673.305E-3	-56.2970E-3	-181.340E-12	656.510E-3	-18.3101E-3
-4.51976E-3	-179.784E-12	681.822E-3	-27.4431E-3	-183.681E-12	666.030E-3	-20.0638E-3
-4.52476E-3	-181.251E-12	675.212E-3	-10.9785E-3	-184.642E-12	692.326E-3	-14.6273E-3
-4.52976E-3	-179.852E-12	671.398E-3	-27.3149E-3	-181.361E-12	699.408E-3	-31.6566E-3
-4.53477E-3	-178.973E-12	661.429E-3	-26.0763E-3	-181.356E-12	696.202E-3	-63.5861E-3
-4.53977E-3	-179.702E-12	642.882E-3	-18.7922E-3	-183.056E-12	676.873E-3	-69.0488E-3
-4.54477E-3	-182.695E-12	649.288E-3	-30.0569E-3	-185.123E-12	660.233E-3	-59.4742E-3
-4.54977E-3	-182.749E-12	685.650E-3	-15.8047E-3	-182.544E-12	663.622E-3	-40.0714E-3
-4.55478E-3	-181.685E-12	693.069E-3	486.310E-6	-181.513E-12	655.133E-3	-2.48813E-3
-4.55978E-3	-181.288E-12	675.653E-3	-25.8528E-3	-181.831E-12	643.021E-3	20.2410E-3
-4.56478E-3	-182.218E-12	672.709E-3	-35.9461E-3	-182.232E-12	654.564E-3	17.8291E-3
-4.56978E-3	-183.740E-12	673.558E-3	-8.01508E-3	-181.265E-12	653.114E-3	9.54527E-3
-4.57479E-3	-182.134E-12	675.269E-3	2.08459E-3	-179.271E-12	627.531E-3	-9.99488E-3
-4.57979E-3	-182.180E-12	678.066E-3	-6.24345E-3	-179.801E-12	622.149E-3	-23.0572E-3
-4.58479E-3	-181.207E-12	663.674E-3	-9.97136E-3	-180.454E-12	636.882E-3	-21.8329E-3
-4.58979E-3	-182.112E-12	649.960E-3	-18.7595E-3	-181.685E-12	643.727E-3	-19.3039E-3
-4.59480E-3	-183.185E-12	648.302E-3	-19.9137E-3	-180.862E-12	657.480E-3	-7.88818E-3
-4.59980E-3	-182.635E-12	651.281E-3	-7.96341E-3	-181.037E-12	690.620E-3	-1.77279E-3
-4.60480E-3	-182.529E-12	637.888E-3	-8.48249E-3	-182.327E-12	704.597E-3	-9.16639E-3
-4.60980E-3	-182.426E-12	619.519E-3	-15.2404E-3	-184.161E-12	688.162E-3	-25.1679E-3
-4.61481E-3	-183.585E-12	643.963E-3	-24.4505E-3	-183.921E-12	682.870E-3	-39.7330E-3
-4.61981E-3	-184.011E-12	682.529E-3	-32.2820E-3	-183.974E-12	694.941E-3	-36.4927E-3
-4.62481E-3	-185.746E-12	686.671E-3	-24.4158E-3	-184.552E-12	690.998E-3	-16.9629E-3
-4.62981E-3	-186.099E-12	668.672E-3	-16.2205E-3	-186.958E-12	676.235E-3	-1.37877E-3
-4.63482E-3	-186.541E-12	664.784E-3	-10.3188E-3	-187.585E-12	657.546E-3	-5.72891E-3
-4.63982E-3	-188.425E-12	672.095E-3	2.74643E-3	-185.853E-12	653.073E-3	-788.330E-6
-4.64482E-3	-189.734E-12	665.493E-3	4.02824E-3	-185.991E-12	680.734E-3	1.62614E-3
-4.64982E-3	-190.161E-12	648.112E-3	-10.0141E-3	-186.114E-12	703.472E-3	-13.8563E-3
-4.65483E-3	-188.464E-12	642.467E-3	-2.37662E-3	-186.355E-12	705.976E-3	-8.09043E-3
-4.65983E-3	-189.667E-12	653.035E-3	22.3868E-3	-184.909E-12	698.796E-3	-2.15825E-3
-4.66483E-3	-190.127E-12	667.699E-3	10.4131E-3	-185.014E-12	682.162E-3	-16.5779E-3
-4.66983E-3	-189.106E-12	677.201E-3	-20.7318E-3	-185.826E-12	668.385E-3	-21.5022E-3
-4.67484E-3	-187.703E-12	676.881E-3	-16.8281E-3	-186.121E-12	666.415E-3	-17.3128E-3
-4.67984E-3	-188.411E-12	667.560E-3	7.69096E-3	-185.446E-12	657.260E-3	-32.1132E-3
-4.68484E-3	-188.313E-12	653.800E-3	22.1472E-6	-185.726E-12	656.498E-3	-47.8192E-3
-4.68984E-3	-188.592E-12	644.355E-3	-29.7978E-3	-186.870E-12	673.656E-3	-28.2187E-3
-4.69485E-3	-187.656E-12	636.995E-3	-44.2231E-3	-188.168E-12	675.403E-3	-13.5586E-3
-4.69985E-3	-187.250E-12	653.428E-3	-44.2454E-3	-188.191E-12	666.675E-3	-31.5954E-3
-4.70485E-3	-188.000E-12	683.156E-3	-30.8637E-3	-188.601E-12	670.683E-3	-41.3238E-3
-4.70985E-3	-188.804E-12	683.565E-3	-12.6270E-3	-191.170E-12	691.058E-3	-47.4737E-3
-4.71486E-3	-190.216E-12	661.034E-3	-4.14814E-3	-191.711E-12	687.383E-3	-62.5065E-3
-4.71986E-3	-189.643E-12	654.925E-3	2.31069E-3	-191.791E-12	645.131E-3	-54.5280E-3
-4.72486E-3	-190.091E-12	648.284E-3	5.79519E-3	-191.997E-12	636.608E-3	-32.2153E-3
-4.72986E-3	-191.691E-12	633.128E-3	-10.1516E-3	-193.116E-12	676.145E-3	-20.8922E-3
-4.73487E-3	-192.525E-12	639.672E-3	-19.1029E-3	-191.407E-12	700.092E-3	-14.5721E-3
-4.73987E-3	-191.388E-12	656.936E-3	-1.62934E-3	-191.823E-12	687.052E-3	-22.0887E-3
-4.74487E-3	-190.787E-12	661.700E-3	9.95680E-3	-190.253E-12	655.009E-3	-34.9060E-3
-4.74988E-3	-191.712E-12	653.817E-3	-11.9223E-3	-189.565E-12	643.278E-3	-30.8704E-3
-4.75488E-3	-192.968E-12	653.218E-3	-43.0424E-3	-188.760E-12	652.790E-3	-24.7614E-3
-4.75988E-3	-193.371E-12	642.400E-3	-44.1632E-3	-189.524E-12	653.084E-3	-26.9179E-3
-4.76488E-3	-190.902E-12	645.861E-3	-24.8480E-3	-189.462E-12	662.655E-3	-16.7287E-3
-4.76988E-3	-190.798E-12	673.775E-3	-20.8337E-3	-188.290E-12	688.743E-3	-8.78527E-3
-4.77489E-3	-192.168E-12	683.185E-3	-7.03560E-3	-188.256E-12	690.780E-3	-19.4236E-3
-4.77989E-3	-192.865E-12	659.438E-3	19.5086E-3	-190.020E-12	663.730E-3	-20.5175E-3
-4.78489E-3	-189.830E-12	628.053E-3	-3.57914E-3	-190.964E-12	664.435E-3	-7.47780E-3
-4.78989E-3	-189.672E-12	625.744E-3	-38.8600E-3	-190.373E-12	696.992E-3	-4.78775E-3
-4.79490E-3	-190.307E-12	644.677E-3	-27.3521E-3	-191.314E-12	711.276E-3	11.6803E-3
-4.79990E-3	-191.581E-12	665.000E-3	-13.2736E-3	-193.407E-12	701.227E-3	24.1168E-3
-4.80490E-3	-191.504E-12	668.928E-3	-24.2822E-3	-194.881E-12	690.302E-3	-10.8495E-3
-4.80990E-3	-190.775E-12	665.279E-3	-31.2049E-3	-196.005E-12	700.473E-3	-29.6624E-3
-4.81491E-3	-192.683E-12	675.249E-3	-17.8724E-3	-196.212E-12	706.126E-3	-2.21314E-3
-4.81991E-3	-194.185E-12	675.441E-3	3.32913E-3	-196.503E-12	694.586E-3	16.3131E-3
-4.82491E-3	-195.030E-12	658.726E-3	19.2163E-3	-197.851E-12	677.141E-3	4.91349E-3
-4.82991E-3	-194.589E-12	643.918E-3	28.8743E-3	-198.385E-12	664.073E-3	-10.6294E-3
-4.83492E-3	-194.885E-12	639.875E-3	20.5574E-3	-196.925E-12	654.462E-3	-23.4686E-3
-4.83992E-3	-195.571E-12	645.275E-3	-13.6147E-3	-196.808E-12	643.596E-3	-33.3428E-3
-4.84492E-3	-196.037E-12	659.458E-3	-46.1130E-3	-196.816E-12	655.936E-3	-32.8541E-3
-4.84992E-3	-196.364E-12	663.246E-3	-56.1638E-3	-196.800E-12	676.900E-3	-31.5690E-3
-4.85493E-3	-196.184E-12	654.663E-3	-46.5960E-3	-196.582E-12	671.285E-3	-22.4098E-3
-4.85993E-3	-197.434E-12	661.590E-3	-26.1651E-3	-195.617E-12	663.106E-3	7.81784E-3
-4.86493E-3	-197.397E-12	651.743E-3	-24.7557E-3	-195.280E-12	669.967E-3	24.1190E-3
-4.86993E-3	-198.597E-12	632.774E-3	-41.9859E-3	-195.597E-12	654.589E-3	16.5996E-3
-4.87494E-3	-198.046E-12	653.770E-3	-40.9363E-3	-195.727E-12	645.642E-3	5.76185E-3
-4.87994E-3	-198.934E-12	676.355E-3	-22.5978E-3	-195.659E-12	651.587E-3	-18.1144E-3
-4.88494E-3	-199.209E-12	674.430E-3	-23.1357E-3	-194.000E-12	639.762E-3	-26.8834E-3
-4.88995E-3	-199.459E-12	685.312E-3	-38.3777E-3	-194.772E-12	639.857E-3	1.14932E-3
-4.89495E-3	-198.896E-12	702.939E-3	-24.8738E-3	-197.681E-12	648.372E-3	3.83508E-3
-4.89995E-3	-199.895E-12	703.707E-3	9.83612E-3	-199.440E-12	640.617E-3	-15.7201E-3
-4.90495E-3	-202.737E-12	690.342E-3	25.9553E-3	-198.117E-12	643.642E-3	-17.4052E-3
-4.90995E-3	-203.242E-12	662.049E-3	15.9966E-3	-198.255E-12	658.176E-3	-26.9249E-3
-4.91496E-3	-202.256E-12	670.205E-3	-7.03339E-3	-201.673E-12	650.714E-3	-27.3108E-3
-4.91996E-3	-202.737E-12	695.189E-3	-29.6006E-3	-203.475E-12	643.701E-3	-23.1001E-3
-4.92496E-3	-202.515E-12	680.908E-3	-41.2726E-3	-201.571E-12	647.156E-3	-40.0935E-3
-4.92996E-3	-203.064E-12	656.391E-3	-59.3820E-3	-199.811E-12	651.515E-3	-51.9916E-3
-4.93497E-3	-202.998E-12	657.419E-3	-71.1698E-3	-201.046E-12	674.234E-3	-37.9982E-3
-4.93997E-3	-203.183E-12	679.669E-3	-62.1222E-3	-202.572E-12	665.973E-3	-5.51256E-3
-4.94497E-3	-202.439E-12	696.683E-3	-56.2128E-3	-200.812E-12	631.841E-3	17.9449E-3
-4.94997E-3	-203.762E-12	699.617E-3	-47.4378E-3	-198.686E-12	622.490E-3	2.78189E-3
-4.95498E-3	-202.939E-12	665.565E-3	-45.0773E-3	-198.210E-12	619.007E-3	-27.5139E-3
-4.95998E-3	-202.964E-12	636.186E-3	-52.3204E-3	-200.443E-12	631.462E-3	-23.5071E-3
-4.96498E-3	-201.503E-12	665.863E-3	-42.9683E-3	-200.836E-12	652.359E-3	6.31299E-3
-4.96998E-3	-202.016E-12	688.239E-3	-31.6822E-3	-198.703E-12	667.513E-3	25.2516E-3
-4.97499E-3	-201.834E-12	662.185E-3	-33.5277E-3	-198.094E-12	676.173E-3	10.6231E-3
-4.97999E-3	-201.638E-12	651.714E-3	-21.0532E-3	-199.309E-12	655.884E-3	-16.8702E-3
-4.98499E-3	-200.959E-12	683.822E-3	8.74923E-3	-199.844E-12	629.633E-3	-35.9562E-3
-4.98999E-3	-201.156E-12	698.498E-3	17.8093E-3	-198.993E-12	631.268E-3	-44.3942E-3
-4.99500E-3	-200.854E-12	678.484E-3	11.4103E-3	-199.197E-12	655.031E-3	-26.2551E-3
-5.00000E-3	-200.726E-12	678.941E-3	10.3050E-3	-200.336E-12	680.849E-3	658.683E-6
