Experiment	bias spectroscopy	
Date	19.01.2016 21:43:42	
User		
X (m)	49.1271E-9	
Y (m)	256.917E-9	
Z (m)	-132.607E-9	
Z offset (m)	0E+0	
Settling time (s)	200E-6	
Integration time (s)	5E-3	
Z-Ctrl hold	TRUE	
Final Z (m)	N/A	
Filter type	None	
Order		
Cutoff frq		
Comment01	MnPc/Pb(111)	
Comment02	dz =00pm	
Comment03	7 Sweeps	
Comment04	MagField =0.T	
Comment05	Divider 1:10	
Comment06	Setpoint:5mV,200 pA	
Comment07	Lockin: 50uVrms,5ms,5mV	
Comment08	Gain:9; 912Hz modulation	
Comment09	T=1.06K	
Bias>Bias (V)	5E-3	
Bias>Calibration (V/V)	81.475E-3	
Bias>Offset (V)	1.046E-3	
Bias Spectroscopy>Sweep Start (V)	5E-3	
Bias Spectroscopy>Sweep End (V)	-5E-3	
Bias Spectroscopy>Num Pixel	2000	
Bias Spectroscopy>Z Avg time (s)	500E-3	
Bias Spectroscopy>Z offset (m)	0E+0	
Bias Spectroscopy>1st Settling time (s)	500E-3	
Bias Spectroscopy>Settling time (s)	200E-6	
Bias Spectroscopy>Integration time (s)	5E-3	
Bias Spectroscopy>End Settling time (s)	500E-3	
Bias Spectroscopy>Z control time (s)	500E-3	
Bias Spectroscopy>Max Slew rate (V/s)	Inf	
Bias Spectroscopy>backward sweep	TRUE	
Bias Spectroscopy>Z-controller hold	TRUE	
Bias Spectroscopy>Number of sweeps	7	
Bias Spectroscopy>Channels	Current (A);X% LockIn (V);Y% LockIn (V)	
Bias Spectroscopy>Reset Bias	TRUE	
Bias Spectroscopy>Record final Z	FALSE	
Bias Spectroscopy>Lock-In run	FALSE	
Bias Spectroscopy>Sweep mode	Linear	
Bias Spectroscopy>MultiLine Settings : Segment Start (V), Segment End (V), Settling (s), Integration (s), Steps (xn)	100E-3,3.3E-3,100E-6,10E-3,2500;3.3E-3,-3.3E-3,100E-6,10E-3,10;-3.3E-3,-100E-3,100E-6,10E-3,2500	
Current>Current (A)	200.103E-12	
Current>Calibration (A/V)	999.99900E-12	
Current>Offset (A)	-455.429E-15	
Current>Gain	LN 10^9	
Z-Controller>Z (m)	-132.609E-9	
Z-Controller>Controller name	log Current	
Z-Controller>Controller status	ON	
Z-Controller>Setpoint	200E-12	
Z-Controller>Setpoint unit	A	
Z-Controller>P gain	2.96994E-12	
Z-Controller>I gain	67.0321E-9	
Z-Controller>Time const (s)	44.3062E-6	
Z-Controller>TipLift (m)	0E+0	
Z-Controller>Switch off delay (s)	50E-3	
Current (A)	200.401E-12	
Z (m)	-132.609E-9	

[DATA]
Bias calc (V)	Current (A)	X% LockIn (V)	Y% LockIn (V)	Current [bwd] (A)	X% LockIn [bwd] (V)	Y% LockIn [bwd] (V)
5.00000E-3	198.707E-12	657.803E-3	-41.9351E-3	203.665E-12	673.198E-3	-19.5527E-3
4.99500E-3	197.793E-12	645.387E-3	-34.4173E-3	205.083E-12	663.383E-3	2.31833E-3
4.98999E-3	198.893E-12	622.683E-3	-7.57317E-3	205.769E-12	675.347E-3	6.92726E-3
4.98499E-3	199.160E-12	595.768E-3	8.33135E-3	205.317E-12	666.226E-3	13.3377E-3
4.97999E-3	199.406E-12	606.678E-3	15.9615E-3	204.916E-12	667.182E-3	28.5456E-3
4.97499E-3	199.207E-12	653.423E-3	-1.21116E-3	204.840E-12	669.718E-3	-11.0706E-3
4.96998E-3	200.212E-12	677.512E-3	-28.1147E-3	203.996E-12	644.427E-3	-63.3820E-3
4.96498E-3	199.583E-12	669.009E-3	-60.2212E-3	202.968E-12	640.858E-3	-40.0925E-3
4.95998E-3	199.318E-12	674.955E-3	-96.5150E-3	201.622E-12	657.599E-3	-17.8693E-3
4.95498E-3	200.297E-12	691.201E-3	-80.9772E-3	200.548E-12	673.395E-3	-28.1666E-3
4.94997E-3	199.808E-12	677.905E-3	-27.6756E-3	199.449E-12	692.896E-3	-20.3699E-3
4.94497E-3	199.139E-12	669.688E-3	-10.2024E-3	197.737E-12	707.533E-3	-16.4984E-3
4.93997E-3	198.852E-12	685.914E-3	-20.3182E-3	196.963E-12	704.560E-3	-36.5072E-3
4.93497E-3	199.185E-12	686.253E-3	-23.3727E-3	196.226E-12	685.634E-3	-46.9729E-3
4.92996E-3	198.618E-12	679.083E-3	-20.8600E-3	196.433E-12	669.607E-3	-25.0155E-3
4.92496E-3	198.444E-12	691.038E-3	-17.6099E-3	195.524E-12	663.088E-3	-7.71356E-3
4.91996E-3	198.324E-12	698.119E-3	-38.3982E-3	196.181E-12	669.174E-3	-22.5744E-3
4.91496E-3	196.800E-12	673.097E-3	-58.8611E-3	196.984E-12	665.989E-3	-68.2527E-3
4.90995E-3	196.387E-12	647.523E-3	-54.0476E-3	196.904E-12	637.811E-3	-119.474E-3
4.90495E-3	195.964E-12	636.983E-3	-54.2465E-3	196.627E-12	622.622E-3	-109.769E-3
4.89995E-3	196.078E-12	646.789E-3	-48.6374E-3	197.224E-12	644.716E-3	-59.8220E-3
4.89495E-3	196.455E-12	660.798E-3	-10.6643E-3	197.855E-12	686.672E-3	-30.0864E-3
4.88995E-3	196.131E-12	648.037E-3	26.7999E-3	197.035E-12	703.920E-3	-12.6768E-3
4.88494E-3	194.846E-12	638.129E-3	1.91747E-3	197.250E-12	677.961E-3	901.307E-6
4.87994E-3	195.145E-12	660.527E-3	-47.9229E-3	198.231E-12	658.638E-3	17.4397E-3
4.87494E-3	195.687E-12	687.139E-3	-47.4220E-3	197.089E-12	669.357E-3	15.2856E-3
4.86993E-3	195.733E-12	689.006E-3	-13.7071E-3	196.631E-12	678.899E-3	-2.61584E-3
4.86493E-3	194.701E-12	669.071E-3	6.24539E-3	196.131E-12	664.372E-3	3.14585E-3
4.85993E-3	195.202E-12	645.555E-3	5.50754E-3	196.757E-12	648.190E-3	18.7701E-3
4.85493E-3	195.115E-12	642.391E-3	-9.94280E-3	196.190E-12	661.498E-3	11.7371E-3
4.84992E-3	195.162E-12	659.470E-3	-13.0711E-3	195.097E-12	679.672E-3	-14.2448E-3
4.84492E-3	195.481E-12	694.081E-3	-18.4507E-3	194.759E-12	681.584E-3	-17.3559E-3
4.83992E-3	195.513E-12	694.253E-3	-45.9770E-3	194.423E-12	686.033E-3	-12.9180E-3
4.83492E-3	195.106E-12	656.425E-3	-36.4910E-3	194.215E-12	673.106E-3	-32.3807E-3
4.82991E-3	195.192E-12	643.681E-3	-8.94377E-3	192.793E-12	652.754E-3	-38.0929E-3
4.82491E-3	195.349E-12	655.334E-3	-17.2112E-3	193.974E-12	667.421E-3	-13.9180E-3
4.81991E-3	194.284E-12	675.396E-3	-28.3863E-3	192.417E-12	677.522E-3	8.61945E-3
4.81491E-3	192.941E-12	681.251E-3	-4.76277E-3	192.534E-12	656.966E-3	20.7864E-3
4.80990E-3	191.637E-12	659.295E-3	11.3532E-3	191.815E-12	644.794E-3	15.6637E-3
4.80490E-3	190.633E-12	633.308E-3	3.22137E-3	191.608E-12	641.675E-3	-11.4072E-3
4.79990E-3	189.644E-12	618.220E-3	7.17859E-3	192.528E-12	636.010E-3	-27.6746E-3
4.79490E-3	189.249E-12	619.959E-3	661.430E-6	190.413E-12	654.903E-3	-22.5652E-3
4.78989E-3	188.668E-12	642.512E-3	-33.1278E-3	190.869E-12	694.072E-3	-28.2131E-3
4.78489E-3	188.440E-12	668.779E-3	-46.1810E-3	190.947E-12	713.530E-3	-41.2345E-3
4.77989E-3	188.344E-12	688.215E-3	-19.2753E-3	192.154E-12	701.667E-3	-30.8968E-3
4.77489E-3	188.658E-12	694.722E-3	-5.24965E-3	192.270E-12	684.969E-3	-14.4453E-3
4.76988E-3	188.864E-12	698.722E-3	-9.31295E-3	193.618E-12	680.961E-3	-10.0249E-3
4.76488E-3	189.851E-12	705.821E-3	-9.83706E-3	193.485E-12	690.668E-3	-12.4902E-3
4.75988E-3	190.011E-12	711.460E-3	-29.9885E-3	192.658E-12	709.395E-3	-34.0191E-3
4.75488E-3	191.405E-12	708.006E-3	-57.0378E-3	193.209E-12	712.932E-3	-37.9122E-3
4.74988E-3	191.572E-12	678.982E-3	-57.4317E-3	192.774E-12	717.637E-3	-4.53195E-3
4.74487E-3	192.530E-12	683.210E-3	-51.2607E-3	193.033E-12	730.967E-3	-7.73057E-3
4.73987E-3	191.707E-12	708.460E-3	-46.9907E-3	191.129E-12	705.211E-3	-50.3226E-3
4.73487E-3	191.620E-12	690.512E-3	-42.8079E-3	191.633E-12	669.422E-3	-63.2037E-3
4.72986E-3	191.351E-12	684.583E-3	-39.2624E-3	189.974E-12	648.302E-3	-48.8126E-3
4.72486E-3	189.857E-12	693.054E-3	-18.9221E-3	188.605E-12	616.120E-3	-27.6099E-3
4.71986E-3	188.220E-12	658.687E-3	-4.66145E-3	186.157E-12	611.047E-3	-9.77987E-3
4.71486E-3	186.920E-12	620.276E-3	-14.5609E-3	185.866E-12	631.008E-3	-6.71717E-3
4.70985E-3	186.161E-12	634.534E-3	-30.4435E-3	184.013E-12	634.530E-3	-14.9686E-3
4.70485E-3	184.651E-12	686.062E-3	-29.6415E-3	183.425E-12	649.474E-3	-12.6062E-3
4.69985E-3	184.588E-12	707.485E-3	-28.5970E-3	183.451E-12	675.915E-3	8.20796E-3
4.69485E-3	184.087E-12	682.963E-3	-37.4575E-3	184.222E-12	682.667E-3	11.3364E-3
4.68984E-3	184.085E-12	643.123E-3	-18.9722E-3	184.327E-12	686.712E-3	17.6341E-3
4.68484E-3	183.409E-12	625.701E-3	3.76574E-3	184.999E-12	700.462E-3	32.3089E-3
4.67984E-3	184.170E-12	632.339E-3	-5.17307E-3	186.708E-12	693.752E-3	29.2847E-3
4.67484E-3	184.566E-12	634.857E-3	-8.44961E-3	187.559E-12	680.695E-3	27.0937E-3
4.66983E-3	185.002E-12	658.058E-3	9.58414E-3	188.387E-12	688.127E-3	11.7823E-3
4.66483E-3	185.443E-12	689.914E-3	9.53876E-3	189.313E-12	687.076E-3	-14.0868E-3
4.65983E-3	186.113E-12	688.764E-3	-8.10183E-3	189.994E-12	669.640E-3	-39.6819E-3
4.65483E-3	186.801E-12	667.926E-3	-24.8270E-3	189.554E-12	653.175E-3	-56.5003E-3
4.64982E-3	186.579E-12	676.716E-3	-33.4562E-3	189.253E-12	651.164E-3	-29.9244E-3
4.64482E-3	186.569E-12	696.325E-3	-24.6358E-3	189.639E-12	660.273E-3	15.9881E-3
4.63982E-3	186.534E-12	679.613E-3	-32.5144E-3	187.963E-12	648.415E-3	33.9458E-3
4.63482E-3	186.090E-12	668.219E-3	-74.1449E-3	186.728E-12	622.103E-3	24.7860E-3
4.62981E-3	184.949E-12	664.926E-3	-91.5262E-3	185.272E-12	611.679E-3	-9.46623E-3
4.62481E-3	185.506E-12	644.269E-3	-63.4872E-3	184.148E-12	617.266E-3	-40.8555E-3
4.61981E-3	185.211E-12	645.844E-3	-45.1208E-3	182.598E-12	654.045E-3	-45.7013E-3
4.61481E-3	184.067E-12	657.618E-3	-32.6068E-3	181.530E-12	707.035E-3	-41.8663E-3
4.60980E-3	183.148E-12	653.800E-3	-13.8776E-3	180.645E-12	724.023E-3	-42.7794E-3
4.60480E-3	182.803E-12	650.162E-3	-21.7997E-3	180.726E-12	707.873E-3	-46.6728E-3
4.59980E-3	181.509E-12	648.695E-3	-35.0448E-3	180.812E-12	705.561E-3	-33.6560E-3
4.59480E-3	181.368E-12	670.535E-3	-40.9089E-3	181.433E-12	711.508E-3	-15.9426E-3
4.58979E-3	182.046E-12	698.506E-3	-41.1323E-3	182.359E-12	705.566E-3	-16.1890E-3
4.58479E-3	181.809E-12	693.333E-3	-32.6539E-3	183.489E-12	703.565E-3	-19.3722E-3
4.57979E-3	181.080E-12	657.933E-3	-23.1665E-3	184.246E-12	711.921E-3	-11.3360E-3
4.57479E-3	181.877E-12	617.906E-3	2.02567E-3	185.093E-12	722.433E-3	-7.07785E-3
4.56978E-3	181.714E-12	615.482E-3	17.2370E-3	186.118E-12	707.281E-3	-12.2538E-3
4.56478E-3	181.185E-12	641.065E-3	-6.39383E-3	186.628E-12	664.287E-3	-12.0971E-3
4.55978E-3	181.610E-12	670.736E-3	-44.5813E-3	185.874E-12	653.517E-3	-15.0227E-3
4.55478E-3	180.442E-12	688.678E-3	-50.0423E-3	185.674E-12	677.127E-3	-17.2155E-3
4.54977E-3	179.847E-12	670.708E-3	-9.97525E-3	186.314E-12	682.901E-3	-16.6934E-3
4.54477E-3	180.087E-12	656.564E-3	-1.03026E-3	184.827E-12	674.507E-3	-28.4522E-3
4.53977E-3	180.355E-12	672.996E-3	-30.2665E-3	183.022E-12	657.938E-3	-34.6359E-3
4.53477E-3	179.765E-12	689.231E-3	-28.5059E-3	181.672E-12	624.065E-3	-26.1505E-3
4.52976E-3	180.379E-12	702.158E-3	-21.4288E-3	181.536E-12	611.881E-3	-24.2021E-3
4.52476E-3	180.277E-12	699.819E-3	-42.9167E-3	178.880E-12	637.457E-3	-25.6747E-3
4.51976E-3	180.707E-12	682.115E-3	-56.2795E-3	178.654E-12	648.956E-3	-17.3002E-3
4.51476E-3	180.330E-12	688.412E-3	-34.1974E-3	177.919E-12	641.457E-3	-3.34766E-3
4.50975E-3	181.090E-12	694.397E-3	-6.12859E-3	177.409E-12	638.216E-3	-6.19301E-3
4.50475E-3	180.820E-12	680.949E-3	-10.6085E-3	176.261E-12	656.725E-3	-14.4375E-3
4.49975E-3	181.029E-12	680.636E-3	-40.1675E-3	176.707E-12	683.157E-3	-5.23274E-3
4.49475E-3	180.405E-12	700.300E-3	-62.6090E-3	177.883E-12	688.241E-3	-1.87919E-3
4.48974E-3	181.101E-12	709.649E-3	-49.1287E-3	177.622E-12	674.881E-3	1.75092E-3
4.48474E-3	179.755E-12	698.111E-3	-10.2379E-3	177.334E-12	669.050E-3	18.1009E-3
4.47974E-3	179.703E-12	681.561E-3	8.68580E-3	178.661E-12	676.125E-3	23.6528E-3
4.47474E-3	179.252E-12	673.065E-3	14.7682E-3	178.349E-12	659.609E-3	23.1350E-3
4.46973E-3	178.457E-12	678.938E-3	14.5227E-3	178.428E-12	648.561E-3	29.3775E-3
4.46473E-3	176.819E-12	687.759E-3	5.20885E-3	178.698E-12	652.222E-3	17.9016E-3
4.45973E-3	176.477E-12	696.996E-3	-18.1720E-3	178.803E-12	632.361E-3	-3.81110E-3
4.45473E-3	175.626E-12	682.742E-3	-46.1322E-3	177.598E-12	632.819E-3	7.31460E-3
4.44972E-3	174.517E-12	659.381E-3	-35.6213E-3	176.845E-12	667.259E-3	5.05474E-3
4.44472E-3	174.919E-12	676.824E-3	-17.5160E-3	176.297E-12	694.729E-3	-15.1115E-3
4.43972E-3	174.657E-12	691.967E-3	-46.2324E-3	176.268E-12	701.094E-3	95.9304E-6
4.43472E-3	174.571E-12	661.762E-3	-87.2676E-3	174.874E-12	676.266E-3	3.07300E-3
4.42971E-3	174.784E-12	634.804E-3	-85.8747E-3	174.330E-12	656.257E-3	-23.3110E-3
4.42471E-3	175.461E-12	652.142E-3	-63.1384E-3	173.922E-12	673.434E-3	-20.1960E-3
4.41971E-3	175.777E-12	687.263E-3	-46.3280E-3	173.700E-12	673.893E-3	6.50074E-3
4.41471E-3	176.079E-12	703.468E-3	-31.5667E-3	174.156E-12	657.086E-3	17.8302E-3
4.40970E-3	176.464E-12	686.996E-3	-13.3977E-3	173.483E-12	653.739E-3	27.2174E-3
4.40470E-3	176.468E-12	645.164E-3	-15.7206E-3	174.574E-12	650.440E-3	24.9046E-3
4.39970E-3	177.045E-12	621.738E-3	-30.4481E-3	174.230E-12	654.256E-3	4.16410E-3
4.39470E-3	175.975E-12	646.786E-3	-18.1189E-3	174.563E-12	657.781E-3	-16.8527E-3
4.38969E-3	175.522E-12	696.409E-3	-8.07057E-3	174.107E-12	662.334E-3	-37.2080E-3
4.38469E-3	174.214E-12	733.619E-3	-1.41759E-3	174.659E-12	662.661E-3	-34.4003E-3
4.37969E-3	173.132E-12	712.480E-3	5.21712E-3	174.071E-12	655.902E-3	-14.8385E-3
4.37469E-3	171.949E-12	657.924E-3	-21.4579E-3	173.856E-12	666.415E-3	-5.99742E-3
4.36968E-3	170.654E-12	641.310E-3	-46.6374E-3	173.634E-12	675.766E-3	-184.979E-6
4.36468E-3	169.276E-12	663.068E-3	-36.6033E-3	173.561E-12	655.891E-3	8.74578E-3
4.35968E-3	168.510E-12	677.884E-3	-13.6200E-3	173.672E-12	635.861E-3	-580.993E-6
4.35468E-3	168.895E-12	663.540E-3	-3.66512E-3	173.381E-12	655.004E-3	-33.1965E-3
4.34967E-3	167.893E-12	651.619E-3	1.87801E-3	173.174E-12	677.101E-3	-51.4038E-3
4.34467E-3	168.711E-12	661.140E-3	9.20564E-3	172.979E-12	669.741E-3	-37.9234E-3
4.33967E-3	168.640E-12	661.080E-3	-16.3233E-3	173.073E-12	654.507E-3	-21.3543E-3
4.33467E-3	170.361E-12	647.279E-3	-64.2367E-3	172.605E-12	652.869E-3	-999.835E-6
4.32966E-3	170.881E-12	640.054E-3	-70.4551E-3	173.138E-12	677.848E-3	18.5100E-3
4.32466E-3	172.445E-12	653.473E-3	-31.6353E-3	172.771E-12	690.501E-3	12.7511E-3
4.31966E-3	172.383E-12	697.658E-3	6.11781E-3	172.369E-12	667.023E-3	1.80810E-3
4.31466E-3	172.893E-12	718.682E-3	20.2467E-3	172.506E-12	665.295E-3	-606.838E-6
4.30965E-3	173.259E-12	694.417E-3	-5.85847E-3	172.153E-12	677.047E-3	-10.3389E-3
4.30465E-3	173.417E-12	689.621E-3	-40.0830E-3	170.472E-12	660.708E-3	-10.0764E-3
4.29965E-3	171.679E-12	700.060E-3	-35.0136E-3	170.053E-12	650.434E-3	-6.98063E-3
4.29465E-3	171.420E-12	691.169E-3	-16.6374E-3	169.225E-12	656.536E-3	-22.9701E-3
4.28964E-3	170.940E-12	672.394E-3	-21.7248E-3	168.449E-12	652.197E-3	-29.6422E-3
4.28464E-3	169.259E-12	647.473E-3	-41.7307E-3	167.877E-12	627.998E-3	-17.5926E-3
4.27964E-3	168.322E-12	648.936E-3	-56.9700E-3	167.502E-12	621.851E-3	-15.2775E-3
4.27464E-3	167.825E-12	676.785E-3	-61.6839E-3	167.279E-12	647.320E-3	-22.2095E-3
4.26963E-3	167.035E-12	688.998E-3	-52.1823E-3	167.150E-12	644.351E-3	-25.3844E-3
4.26463E-3	166.417E-12	689.163E-3	-37.6938E-3	167.318E-12	613.580E-3	-25.5988E-3
4.25963E-3	166.860E-12	683.663E-3	-22.6374E-3	167.617E-12	622.774E-3	-15.8132E-3
4.25463E-3	166.930E-12	668.451E-3	-9.42232E-3	167.976E-12	668.362E-3	-11.8251E-3
4.24962E-3	166.510E-12	632.648E-3	-12.6407E-3	168.216E-12	687.231E-3	-30.1980E-3
4.24462E-3	167.309E-12	607.179E-3	6.66216E-3	169.270E-12	683.947E-3	-49.6139E-3
4.23962E-3	168.042E-12	611.245E-3	45.2232E-3	169.864E-12	680.584E-3	-36.0714E-3
4.23462E-3	167.813E-12	629.384E-3	43.7744E-3	169.838E-12	666.302E-3	-16.0583E-3
4.22961E-3	168.103E-12	669.837E-3	18.4380E-3	169.676E-12	649.805E-3	-5.86096E-3
4.22461E-3	168.423E-12	698.733E-3	11.2948E-3	169.617E-12	651.206E-3	5.85114E-3
4.21961E-3	168.278E-12	698.591E-3	11.4470E-3	169.275E-12	684.129E-3	-11.6626E-3
4.21461E-3	168.098E-12	695.394E-3	9.31848E-3	168.253E-12	724.418E-3	-22.8949E-3
4.20960E-3	166.861E-12	696.472E-3	3.23701E-3	166.268E-12	724.354E-3	-14.8074E-3
4.20460E-3	166.467E-12	685.592E-3	-20.9927E-3	165.305E-12	704.296E-3	-19.2689E-3
4.19960E-3	165.444E-12	661.084E-3	-35.9734E-3	163.719E-12	688.180E-3	-8.85700E-3
4.19460E-3	164.870E-12	640.110E-3	-15.3890E-3	163.044E-12	668.630E-3	-759.923E-6
4.18959E-3	164.002E-12	632.427E-3	-3.38095E-3	163.342E-12	670.095E-3	-6.82071E-3
4.18459E-3	163.265E-12	636.458E-3	-15.1827E-3	161.988E-12	673.620E-3	-16.2077E-3
4.17959E-3	163.088E-12	641.011E-3	-9.43699E-3	161.959E-12	669.630E-3	-33.0686E-3
4.17459E-3	162.813E-12	633.683E-3	-11.3729E-3	162.300E-12	682.769E-3	-46.4853E-3
4.16958E-3	162.233E-12	651.522E-3	-25.2282E-3	162.639E-12	689.302E-3	-46.2056E-3
4.16458E-3	162.164E-12	692.316E-3	-20.3949E-3	163.073E-12	669.796E-3	-33.5398E-3
4.15958E-3	162.487E-12	692.324E-3	-7.42027E-3	163.347E-12	660.077E-3	-17.0563E-3
4.15458E-3	162.473E-12	682.609E-3	4.97779E-3	164.157E-12	683.531E-3	4.10136E-3
4.14957E-3	163.133E-12	698.193E-3	15.1798E-3	164.847E-12	691.145E-3	24.7176E-3
4.14457E-3	163.655E-12	704.920E-3	-4.90031E-3	165.726E-12	670.274E-3	22.6756E-3
4.13957E-3	163.134E-12	684.276E-3	-32.4071E-3	165.795E-12	661.370E-3	7.50313E-3
4.13457E-3	163.196E-12	667.945E-3	-29.5941E-3	165.903E-12	640.469E-3	2.95026E-3
4.12956E-3	163.122E-12	672.429E-3	-19.1936E-3	166.973E-12	622.009E-3	-7.61265E-3
4.12456E-3	162.753E-12	679.979E-3	-17.1563E-3	165.102E-12	642.927E-3	-28.2103E-3
4.11956E-3	161.875E-12	669.742E-3	-19.9781E-3	164.279E-12	680.883E-3	-24.0034E-3
4.11456E-3	161.011E-12	643.160E-3	-16.2104E-3	162.827E-12	699.546E-3	4.28862E-3
4.10955E-3	160.553E-12	639.946E-3	-16.4665E-3	162.440E-12	678.343E-3	14.3364E-3
4.10455E-3	160.484E-12	669.569E-3	-16.7584E-3	160.257E-12	657.805E-3	3.14287E-3
4.09955E-3	158.737E-12	697.213E-3	-7.46342E-3	159.998E-12	665.624E-3	-11.3875E-3
4.09455E-3	158.303E-12	703.283E-3	-9.78357E-3	158.504E-12	668.257E-3	-13.5099E-3
4.08954E-3	158.837E-12	709.687E-3	-28.0027E-3	158.339E-12	660.749E-3	7.96491E-3
4.08454E-3	157.986E-12	705.374E-3	-40.3802E-3	157.984E-12	666.851E-3	12.8168E-3
4.07954E-3	157.622E-12	673.242E-3	-45.1089E-3	157.828E-12	680.433E-3	-16.5839E-3
4.07454E-3	158.147E-12	653.769E-3	-33.3357E-3	157.627E-12	686.884E-3	-33.6170E-3
4.06953E-3	158.710E-12	665.200E-3	2.92445E-3	157.957E-12	699.671E-3	-30.5895E-3
4.06453E-3	158.669E-12	669.046E-3	25.1010E-3	158.285E-12	711.636E-3	-10.6340E-3
4.05953E-3	159.335E-12	657.780E-3	17.9772E-3	158.793E-12	718.040E-3	9.44070E-3
4.05453E-3	159.763E-12	652.444E-3	-3.92257E-3	159.704E-12	716.256E-3	-8.89673E-3
4.04952E-3	159.865E-12	656.993E-3	-18.1485E-3	159.442E-12	696.602E-3	-41.0188E-3
4.04452E-3	160.472E-12	668.749E-3	-26.7359E-3	160.750E-12	688.268E-3	-34.7580E-3
4.03952E-3	160.419E-12	675.672E-3	-28.3908E-3	160.693E-12	682.144E-3	-8.19448E-3
4.03452E-3	159.933E-12	677.249E-3	-26.5865E-3	160.339E-12	663.101E-3	-19.7156E-3
4.02951E-3	158.852E-12	686.386E-3	-38.7561E-3	159.796E-12	639.246E-3	-35.8982E-3
4.02451E-3	158.274E-12	695.326E-3	-33.6174E-3	159.532E-12	634.603E-3	-15.9930E-3
4.01951E-3	157.597E-12	677.726E-3	-4.61307E-3	159.406E-12	659.731E-3	-10.4355E-3
4.01451E-3	157.204E-12	648.057E-3	12.0891E-3	157.750E-12	660.118E-3	-36.8309E-3
4.00950E-3	155.913E-12	649.922E-3	11.6792E-3	156.986E-12	644.546E-3	-59.0118E-3
4.00450E-3	155.576E-12	659.626E-3	11.3987E-3	156.143E-12	655.561E-3	-52.1493E-3
3.99950E-3	155.539E-12	649.739E-3	-13.3923E-3	155.987E-12	671.184E-3	-21.8518E-3
3.99450E-3	154.533E-12	653.421E-3	-39.4878E-3	154.643E-12	673.244E-3	-2.02719E-3
3.98949E-3	154.993E-12	665.506E-3	-28.0147E-3	154.719E-12	677.928E-3	-3.38695E-3
3.98449E-3	153.797E-12	657.539E-3	-5.87606E-3	154.500E-12	679.969E-3	-27.4441E-3
3.97949E-3	154.232E-12	653.864E-3	12.4725E-3	154.359E-12	663.532E-3	-51.5514E-3
3.97449E-3	154.611E-12	657.825E-3	4.81418E-3	154.096E-12	666.335E-3	-52.8706E-3
3.96948E-3	155.112E-12	653.012E-3	-21.4873E-3	154.481E-12	688.432E-3	-41.3050E-3
3.96448E-3	155.347E-12	662.457E-3	-22.2190E-3	155.209E-12	683.932E-3	-20.7980E-3
3.95948E-3	155.001E-12	685.226E-3	-11.8622E-3	154.676E-12	666.102E-3	-4.59836E-3
3.95448E-3	154.905E-12	699.677E-3	3.38627E-3	154.728E-12	661.526E-3	-5.26141E-3
3.94947E-3	154.600E-12	693.329E-3	14.8425E-3	155.833E-12	664.607E-3	-16.2842E-3
3.94447E-3	154.545E-12	675.409E-3	5.51152E-3	155.798E-12	663.679E-3	-39.0369E-3
3.93947E-3	153.825E-12	668.275E-3	6.21865E-3	155.521E-12	666.518E-3	-51.7170E-3
3.93447E-3	153.509E-12	682.889E-3	9.62508E-3	155.165E-12	679.831E-3	-52.4740E-3
3.92946E-3	152.634E-12	715.230E-3	10.3838E-3	155.691E-12	680.490E-3	-52.6629E-3
3.92446E-3	153.277E-12	709.518E-3	9.03656E-3	154.756E-12	668.194E-3	-34.1149E-3
3.91946E-3	152.753E-12	670.196E-3	-4.47819E-3	154.800E-12	652.389E-3	-11.5089E-3
3.91446E-3	152.545E-12	673.264E-3	-8.39004E-3	154.273E-12	637.150E-3	-12.9326E-3
3.90945E-3	152.662E-12	689.359E-3	-11.2184E-3	153.985E-12	649.186E-3	-26.9240E-3
3.90445E-3	153.155E-12	670.289E-3	-40.4422E-3	153.136E-12	673.651E-3	-23.0387E-3
3.89945E-3	152.350E-12	640.145E-3	-52.7574E-3	152.458E-12	684.526E-3	-15.2006E-3
3.89445E-3	152.313E-12	638.049E-3	-27.9636E-3	151.684E-12	688.768E-3	-6.30910E-3
3.88944E-3	152.681E-12	655.496E-3	-16.0401E-3	150.635E-12	683.440E-3	14.6280E-3
3.88444E-3	152.359E-12	658.135E-3	-16.1720E-3	150.997E-12	675.172E-3	10.9837E-3
3.87944E-3	151.946E-12	669.214E-3	-22.2640E-3	150.106E-12	683.435E-3	-15.0892E-3
3.87444E-3	151.516E-12	692.830E-3	-21.0488E-3	150.144E-12	687.827E-3	-18.3086E-3
3.86943E-3	151.303E-12	704.809E-3	-3.36079E-3	149.689E-12	681.099E-3	-11.2412E-3
3.86443E-3	149.943E-12	704.170E-3	5.43740E-3	149.116E-12	679.644E-3	-34.3508E-3
3.85943E-3	149.300E-12	697.423E-3	14.2438E-3	148.797E-12	679.647E-3	-56.3286E-3
3.85443E-3	148.709E-12	695.248E-3	14.2985E-3	147.848E-12	688.307E-3	-36.2336E-3
3.84942E-3	148.459E-12	686.185E-3	3.97872E-3	148.019E-12	699.514E-3	-7.90426E-3
3.84442E-3	147.495E-12	658.776E-3	10.8916E-3	148.026E-12	698.517E-3	-12.9663E-3
3.83942E-3	147.390E-12	645.541E-3	21.1532E-3	148.988E-12	682.679E-3	-23.3124E-3
3.83442E-3	147.340E-12	654.138E-3	12.8896E-3	148.868E-12	661.533E-3	-10.1768E-3
3.82941E-3	147.416E-12	666.160E-3	1.76098E-3	148.977E-12	653.708E-3	287.379E-6
3.82441E-3	148.197E-12	675.092E-3	-10.6634E-3	149.416E-12	676.164E-3	-5.00447E-3
3.81941E-3	148.849E-12	682.146E-3	-25.4532E-3	149.931E-12	721.552E-3	2.16654E-3
3.81441E-3	149.172E-12	682.571E-3	-27.9793E-3	149.849E-12	733.026E-3	11.8217E-3
3.80940E-3	149.543E-12	680.862E-3	-35.5330E-3	150.106E-12	706.957E-3	-5.64250E-3
3.80440E-3	150.451E-12	683.915E-3	-51.3539E-3	149.893E-12	695.932E-3	-28.5393E-3
3.79940E-3	150.608E-12	681.966E-3	-43.5307E-3	149.672E-12	695.481E-3	-32.9313E-3
3.79440E-3	150.185E-12	694.324E-3	-24.1337E-3	149.243E-12	697.758E-3	-23.5748E-3
3.78939E-3	149.190E-12	708.140E-3	-20.4898E-3	148.860E-12	712.910E-3	-7.33984E-3
3.78439E-3	149.037E-12	693.216E-3	-16.0266E-3	148.130E-12	724.439E-3	9.52843E-3
3.77939E-3	147.920E-12	683.765E-3	-14.6318E-3	147.488E-12	733.712E-3	11.3886E-3
3.77439E-3	146.086E-12	691.954E-3	-25.8243E-3	146.839E-12	732.983E-3	31.7295E-6
3.76938E-3	144.699E-12	681.219E-3	-24.5349E-3	146.250E-12	703.820E-3	-7.73758E-3
3.76438E-3	143.029E-12	651.803E-3	-15.6214E-3	144.949E-12	675.777E-3	-9.97865E-3
3.75938E-3	142.024E-12	636.280E-3	-24.6528E-3	143.969E-12	668.281E-3	-24.1474E-3
3.75438E-3	141.077E-12	642.145E-3	-26.7896E-3	143.611E-12	668.752E-3	-33.4931E-3
3.74937E-3	140.669E-12	650.250E-3	-16.8788E-3	143.444E-12	679.471E-3	-19.5794E-3
3.74437E-3	140.473E-12	663.477E-3	-9.70872E-3	142.712E-12	699.041E-3	-11.9414E-3
3.73937E-3	140.835E-12	703.636E-3	-13.5061E-3	143.245E-12	713.942E-3	1.56183E-3
3.73437E-3	141.654E-12	723.269E-3	-22.1302E-3	143.563E-12	703.474E-3	4.05734E-3
3.72936E-3	142.672E-12	676.289E-3	-30.6365E-3	144.320E-12	673.957E-3	-13.0871E-3
3.72436E-3	143.533E-12	625.876E-3	-43.9886E-3	145.519E-12	663.993E-3	-20.2259E-3
3.71936E-3	144.869E-12	624.138E-3	-37.6653E-3	145.666E-12	669.139E-3	-38.8537E-3
3.71436E-3	145.551E-12	655.615E-3	-27.8143E-3	145.974E-12	665.863E-3	-56.4058E-3
3.70935E-3	146.909E-12	703.628E-3	-18.4349E-3	146.762E-12	661.453E-3	-42.0186E-3
3.70435E-3	146.404E-12	736.803E-3	-9.96510E-3	146.589E-12	661.883E-3	-11.7457E-3
3.69935E-3	147.025E-12	725.476E-3	-27.5868E-3	146.906E-12	667.485E-3	-9.64783E-3
3.69435E-3	145.780E-12	680.971E-3	-47.7524E-3	146.440E-12	690.602E-3	-26.9632E-3
3.68934E-3	145.686E-12	650.704E-3	-44.0141E-3	146.218E-12	704.549E-3	-40.2399E-3
3.68434E-3	143.983E-12	660.521E-3	-27.9113E-3	144.700E-12	696.468E-3	-39.0160E-3
3.67934E-3	142.555E-12	670.488E-3	-19.9730E-3	143.381E-12	691.406E-3	-22.8416E-3
3.67434E-3	141.190E-12	666.087E-3	-28.3198E-3	142.435E-12	689.125E-3	-19.0530E-3
3.66933E-3	140.036E-12	677.187E-3	-37.9040E-3	141.532E-12	679.438E-3	-27.4579E-3
3.66433E-3	138.425E-12	687.568E-3	-28.6113E-3	140.116E-12	652.783E-3	-34.9035E-3
3.65933E-3	137.952E-12	666.244E-3	-12.9764E-3	139.387E-12	639.559E-3	-31.3778E-3
3.65433E-3	137.916E-12	639.809E-3	-17.1511E-3	138.991E-12	640.571E-3	-17.0224E-3
3.64932E-3	137.653E-12	636.388E-3	-29.6690E-3	138.368E-12	621.599E-3	-25.1134E-3
3.64432E-3	137.470E-12	639.275E-3	-39.6022E-3	138.625E-12	616.157E-3	-47.4835E-3
3.63932E-3	138.750E-12	643.147E-3	-44.6691E-3	138.526E-12	632.071E-3	-56.7534E-3
3.63432E-3	139.758E-12	651.716E-3	-31.5686E-3	138.821E-12	641.659E-3	-60.4055E-3
3.62931E-3	140.205E-12	660.719E-3	-10.9882E-3	138.981E-12	661.053E-3	-43.5588E-3
3.62431E-3	140.789E-12	679.369E-3	-10.6962E-3	139.390E-12	677.960E-3	-9.69535E-3
3.61931E-3	142.112E-12	715.437E-3	-7.33875E-3	140.662E-12	691.483E-3	22.9893E-3
3.61431E-3	142.664E-12	738.728E-3	9.21554E-3	140.949E-12	715.841E-3	26.3639E-3
3.60930E-3	142.555E-12	724.878E-3	261.440E-6	141.454E-12	714.847E-3	-4.83709E-3
3.60430E-3	142.270E-12	720.313E-3	-14.2225E-3	141.963E-12	692.340E-3	-27.7678E-3
3.59930E-3	142.202E-12	724.757E-3	-19.5535E-3	141.560E-12	672.876E-3	-21.2587E-3
3.59430E-3	141.460E-12	703.495E-3	-34.9071E-3	140.775E-12	657.258E-3	1.86931E-3
3.58929E-3	139.948E-12	695.002E-3	-34.2259E-3	140.002E-12	659.412E-3	59.5877E-6
3.58429E-3	139.151E-12	697.139E-3	-4.38012E-3	139.034E-12	657.605E-3	-15.3007E-3
3.57929E-3	137.994E-12	676.470E-3	18.1820E-3	137.604E-12	642.910E-3	-13.3232E-3
3.57429E-3	137.131E-12	669.725E-3	15.3985E-6	136.645E-12	636.999E-3	-12.1779E-3
3.56928E-3	135.653E-12	680.830E-3	-17.4880E-3	135.942E-12	648.362E-3	-10.9084E-3
3.56428E-3	134.592E-12	678.956E-3	-3.74293E-3	135.179E-12	670.702E-3	-1.74137E-3
3.55928E-3	134.254E-12	676.894E-3	4.10311E-3	134.430E-12	679.473E-3	-8.16570E-3
3.55428E-3	134.128E-12	674.014E-3	4.01381E-3	134.199E-12	673.184E-3	-22.1549E-3
3.54927E-3	133.776E-12	667.389E-3	10.0701E-3	134.344E-12	668.029E-3	-25.2047E-3
3.54427E-3	134.047E-12	671.512E-3	21.0952E-3	134.586E-12	660.015E-3	-17.1863E-3
3.53927E-3	134.717E-12	685.756E-3	16.7738E-3	134.899E-12	639.654E-3	12.8737E-3
3.53427E-3	134.639E-12	702.595E-3	-11.4626E-3	134.789E-12	643.078E-3	25.3578E-3
3.52926E-3	134.618E-12	706.356E-3	-30.8920E-3	135.019E-12	679.809E-3	6.73480E-3
3.52426E-3	135.061E-12	698.199E-3	-29.7548E-3	135.547E-12	702.411E-3	-8.86542E-3
3.51926E-3	134.841E-12	683.194E-3	-31.8751E-3	135.858E-12	703.284E-3	-17.3568E-3
3.51426E-3	134.171E-12	662.880E-3	-33.9503E-3	136.826E-12	695.083E-3	-18.9052E-3
3.50925E-3	134.158E-12	650.217E-3	-21.9209E-3	136.526E-12	680.878E-3	-17.8901E-3
3.50425E-3	134.074E-12	654.310E-3	-3.54714E-3	136.260E-12	680.506E-3	-9.18904E-3
3.49925E-3	133.224E-12	672.944E-3	-12.1034E-3	136.536E-12	700.487E-3	-4.60182E-3
3.49425E-3	133.079E-12	694.274E-3	-40.5774E-3	135.831E-12	700.888E-3	-22.2958E-3
3.48924E-3	132.703E-12	699.310E-3	-51.5497E-3	135.015E-12	688.977E-3	-32.7074E-3
3.48424E-3	132.570E-12	679.285E-3	-39.3106E-3	134.007E-12	701.276E-3	-37.0265E-3
3.47924E-3	132.201E-12	679.873E-3	-16.9189E-3	133.954E-12	692.975E-3	-42.0630E-3
3.47424E-3	132.345E-12	696.176E-3	-4.13739E-3	133.464E-12	652.293E-3	-27.0574E-3
3.46923E-3	132.421E-12	685.782E-3	-21.2524E-3	132.560E-12	643.386E-3	-24.0348E-3
3.46423E-3	132.149E-12	691.424E-3	-51.4494E-3	132.319E-12	662.962E-3	-42.9150E-3
3.45923E-3	131.735E-12	717.691E-3	-48.8264E-3	132.268E-12	667.695E-3	-33.0283E-3
3.45423E-3	132.308E-12	712.042E-3	-31.3097E-3	131.633E-12	672.058E-3	-4.86147E-3
3.44922E-3	131.828E-12	695.346E-3	-40.4863E-3	131.147E-12	682.272E-3	-1.10059E-3
3.44422E-3	131.668E-12	694.858E-3	-44.2060E-3	130.758E-12	666.299E-3	-5.08100E-3
3.43922E-3	131.036E-12	699.114E-3	-18.8153E-3	130.789E-12	642.933E-3	-5.92691E-3
3.43422E-3	130.758E-12	717.569E-3	-1.39430E-3	130.549E-12	639.108E-3	-9.83310E-3
3.42921E-3	130.030E-12	718.237E-3	14.2605E-3	130.296E-12	644.812E-3	-10.2664E-3
3.42421E-3	129.216E-12	695.523E-3	45.1096E-3	130.435E-12	662.758E-3	3.40651E-3
3.41921E-3	128.437E-12	699.229E-3	51.0817E-3	130.401E-12	675.229E-3	22.2671E-3
3.41421E-3	127.912E-12	699.126E-3	7.87129E-3	130.172E-12	671.725E-3	18.6776E-3
3.40920E-3	128.003E-12	667.786E-3	-32.0305E-3	130.071E-12	683.370E-3	-10.0127E-3
3.40420E-3	127.604E-12	664.760E-3	-44.0403E-3	129.972E-12	689.410E-3	-48.7019E-3
3.39920E-3	127.736E-12	697.385E-3	-46.1570E-3	129.742E-12	679.739E-3	-53.0481E-3
3.39420E-3	128.739E-12	695.261E-3	-33.9303E-3	129.602E-12	693.981E-3	-12.0436E-3
3.38919E-3	128.754E-12	657.171E-3	-24.5906E-3	129.231E-12	710.407E-3	14.7165E-3
3.38419E-3	129.293E-12	647.699E-3	-16.2028E-3	129.278E-12	697.055E-3	-12.5993E-3
3.37919E-3	129.794E-12	665.933E-3	-1.64986E-3	129.639E-12	678.048E-3	-60.1250E-3
3.37419E-3	130.230E-12	670.913E-3	-6.04888E-3	129.224E-12	680.283E-3	-56.6470E-3
3.36918E-3	129.961E-12	676.890E-3	-11.7673E-3	129.226E-12	688.831E-3	-15.4728E-3
3.36418E-3	130.175E-12	684.850E-3	-15.2830E-3	128.764E-12	682.895E-3	-15.0396E-3
3.35918E-3	129.520E-12	677.700E-3	-30.9529E-3	128.833E-12	672.587E-3	-32.8510E-3
3.35418E-3	128.516E-12	668.884E-3	-31.2555E-3	127.858E-12	658.377E-3	-17.6644E-3
3.34917E-3	127.430E-12	662.781E-3	-22.4836E-3	127.233E-12	650.402E-3	784.886E-6
3.34417E-3	126.636E-12	664.677E-3	-18.4230E-3	127.170E-12	657.459E-3	-936.802E-6
3.33917E-3	125.949E-12	681.587E-3	-11.1845E-3	126.183E-12	668.581E-3	-17.7354E-3
3.33417E-3	124.059E-12	694.328E-3	-20.1532E-3	125.555E-12	669.856E-3	-37.8692E-3
3.32916E-3	123.364E-12	683.462E-3	-37.0656E-3	125.072E-12	667.565E-3	-35.2669E-3
3.32416E-3	122.832E-12	670.881E-3	-36.0698E-3	125.005E-12	678.644E-3	-16.4697E-3
3.31916E-3	122.585E-12	687.376E-3	-25.1246E-3	124.492E-12	682.097E-3	-14.8447E-3
3.31416E-3	121.851E-12	688.501E-3	-10.8709E-3	124.428E-12	678.880E-3	-13.5508E-3
3.30915E-3	122.280E-12	660.730E-3	-11.1951E-3	124.142E-12	679.043E-3	-7.59579E-3
3.30415E-3	122.831E-12	652.773E-3	-24.1140E-3	124.554E-12	689.093E-3	-4.59722E-3
3.29915E-3	123.780E-12	660.104E-3	-25.5956E-3	124.292E-12	709.251E-3	-3.32414E-3
3.29415E-3	124.795E-12	670.064E-3	-17.4999E-3	125.284E-12	717.992E-3	-9.77025E-3
3.28914E-3	125.416E-12	683.264E-3	-13.3682E-3	125.951E-12	696.441E-3	-15.9834E-3
3.28414E-3	126.064E-12	696.739E-3	-12.4497E-3	126.428E-12	671.451E-3	-22.2868E-3
3.27914E-3	126.720E-12	696.288E-3	-18.4031E-3	126.181E-12	688.351E-3	-19.4250E-3
3.27414E-3	127.056E-12	679.255E-3	-11.5742E-3	126.035E-12	715.304E-3	3.40479E-3
3.26913E-3	126.672E-12	677.142E-3	2.44085E-3	126.065E-12	704.934E-3	16.3864E-3
3.26413E-3	125.701E-12	695.390E-3	-506.626E-6	125.567E-12	678.461E-3	-4.84728E-3
3.25913E-3	125.083E-12	705.030E-3	3.07306E-3	125.048E-12	673.886E-3	-28.4511E-3
3.25413E-3	123.814E-12	702.615E-3	5.46892E-3	123.930E-12	682.901E-3	-28.3148E-3
3.24912E-3	122.974E-12	712.682E-3	-302.186E-6	123.537E-12	692.333E-3	-17.9061E-3
3.24412E-3	121.816E-12	716.909E-3	-10.3209E-3	122.215E-12	678.016E-3	-14.4755E-3
3.23912E-3	120.059E-12	706.617E-3	-15.5936E-3	121.592E-12	661.333E-3	-12.7921E-3
3.23412E-3	120.012E-12	695.474E-3	-4.71630E-3	120.994E-12	669.223E-3	-20.5993E-3
3.22911E-3	118.751E-12	663.593E-3	-5.47306E-3	120.361E-12	674.422E-3	-43.3455E-3
3.22411E-3	118.156E-12	624.661E-3	-17.3924E-3	119.734E-12	672.620E-3	-45.9483E-3
3.21911E-3	118.165E-12	632.496E-3	-5.61271E-3	119.844E-12	659.826E-3	-20.6934E-3
3.21411E-3	118.793E-12	685.872E-3	11.9542E-3	119.752E-12	648.407E-3	-14.4141E-3
3.20910E-3	118.813E-12	715.940E-3	8.30136E-3	119.901E-12	670.152E-3	-39.9697E-3
3.20410E-3	119.109E-12	702.877E-3	-13.6699E-3	120.021E-12	698.284E-3	-55.5414E-3
3.19910E-3	120.218E-12	676.504E-3	-20.6137E-3	120.173E-12	701.700E-3	-38.0054E-3
3.19410E-3	120.738E-12	665.608E-3	-5.60644E-3	120.738E-12	691.113E-3	-13.2225E-3
3.18909E-3	121.474E-12	676.792E-3	-2.53463E-3	121.001E-12	680.877E-3	-10.1942E-3
3.18409E-3	121.605E-12	700.010E-3	-10.3610E-3	121.189E-12	687.427E-3	-29.5091E-3
3.17909E-3	122.300E-12	711.185E-3	-15.6069E-3	121.367E-12	709.139E-3	-54.8940E-3
3.17409E-3	122.348E-12	712.136E-3	-12.8379E-3	121.331E-12	731.765E-3	-48.4124E-3
3.16908E-3	120.831E-12	726.349E-3	-3.49684E-3	120.872E-12	735.793E-3	-17.4493E-3
3.16408E-3	119.983E-12	725.818E-3	5.47374E-3	120.493E-12	732.888E-3	-5.70030E-3
3.15908E-3	119.657E-12	713.267E-3	-3.67777E-3	120.242E-12	727.899E-3	-7.93863E-3
3.15408E-3	118.216E-12	709.924E-3	-25.6939E-3	119.404E-12	711.624E-3	-16.0186E-3
3.14907E-3	116.766E-12	695.715E-3	-38.7173E-3	118.591E-12	707.753E-3	-23.8068E-3
3.14407E-3	116.253E-12	682.531E-3	-34.0036E-3	118.032E-12	707.341E-3	-14.8282E-3
3.13907E-3	116.038E-12	684.808E-3	-25.2312E-3	117.056E-12	682.431E-3	-7.34944E-3
3.13407E-3	114.920E-12	674.375E-3	-29.6622E-3	116.386E-12	664.969E-3	-13.4836E-3
3.12906E-3	114.264E-12	644.907E-3	-28.0406E-3	115.788E-12	682.302E-3	-19.0973E-3
3.12406E-3	114.589E-12	635.465E-3	-22.0171E-3	116.037E-12	701.034E-3	-15.4279E-3
3.11906E-3	114.770E-12	660.323E-3	-27.4999E-3	115.567E-12	705.154E-3	-10.5551E-3
3.11406E-3	114.669E-12	685.492E-3	-28.5282E-3	115.809E-12	705.832E-3	-17.1216E-3
3.10905E-3	115.069E-12	701.486E-3	-28.6048E-3	116.359E-12	709.021E-3	-14.6171E-3
3.10405E-3	115.514E-12	703.737E-3	-33.3874E-3	116.832E-12	704.890E-3	5.03912E-6
3.09905E-3	115.362E-12	693.622E-3	-27.5201E-3	116.322E-12	698.863E-3	-9.41032E-3
3.09405E-3	115.707E-12	690.875E-3	-23.6705E-3	116.968E-12	709.633E-3	-29.6691E-3
3.08904E-3	115.401E-12	693.692E-3	-29.7089E-3	117.330E-12	719.134E-3	-28.3845E-3
3.08404E-3	115.190E-12	703.324E-3	-34.3201E-3	117.230E-12	705.714E-3	-28.6430E-3
3.07904E-3	115.159E-12	702.091E-3	-23.4631E-3	116.334E-12	688.236E-3	-28.3077E-3
3.07404E-3	114.441E-12	673.887E-3	-9.13673E-3	116.488E-12	682.546E-3	-15.6483E-3
3.06903E-3	113.966E-12	658.104E-3	-13.5144E-3	116.126E-12	679.876E-3	-9.62560E-3
3.06403E-3	113.515E-12	678.979E-3	-12.5144E-3	115.274E-12	682.310E-3	-11.4120E-3
3.05903E-3	112.770E-12	706.629E-3	-11.6696E-3	114.517E-12	684.176E-3	-4.66193E-3
3.05403E-3	112.962E-12	709.256E-3	-26.5980E-3	114.193E-12	688.169E-3	2.70039E-3
3.04902E-3	112.176E-12	693.349E-3	-25.0551E-3	113.477E-12	705.397E-3	-3.35995E-3
3.04402E-3	112.616E-12	687.230E-3	251.604E-6	112.577E-12	714.956E-3	-10.8733E-3
3.03902E-3	112.188E-12	682.719E-3	11.8575E-3	112.127E-12	690.175E-3	-9.90218E-3
3.03402E-3	112.463E-12	668.255E-3	-6.60906E-3	111.801E-12	665.000E-3	1.00422E-3
3.02901E-3	112.510E-12	662.642E-3	-33.5841E-3	111.360E-12	688.283E-3	-4.83212E-3
3.02401E-3	113.083E-12	675.891E-3	-55.8986E-3	111.279E-12	723.262E-3	-30.6162E-3
3.01901E-3	112.831E-12	698.788E-3	-60.0638E-3	110.970E-12	724.100E-3	-35.4730E-3
3.01401E-3	112.796E-12	708.668E-3	-49.4769E-3	111.255E-12	711.623E-3	-19.1624E-3
3.00900E-3	112.770E-12	704.381E-3	-47.6167E-3	111.067E-12	692.423E-3	963.047E-6
3.00400E-3	112.314E-12	705.771E-3	-41.3289E-3	110.677E-12	677.283E-3	19.3097E-3
2.99900E-3	112.333E-12	720.065E-3	-31.1908E-3	110.994E-12	693.786E-3	19.9977E-3
2.99400E-3	111.753E-12	725.227E-3	-22.4443E-3	110.929E-12	697.658E-3	7.10767E-3
2.98899E-3	110.833E-12	717.296E-3	-17.7763E-3	110.910E-12	683.333E-3	-4.99513E-3
2.98399E-3	110.344E-12	708.650E-3	-33.6474E-3	110.259E-12	685.392E-3	-12.0277E-3
2.97899E-3	110.232E-12	702.042E-3	-33.9953E-3	110.689E-12	691.027E-3	-9.64437E-3
2.97399E-3	109.891E-12	699.216E-3	-25.7078E-3	110.282E-12	696.731E-3	-14.3437E-3
2.96898E-3	109.139E-12	687.446E-3	-29.8663E-3	110.073E-12	691.732E-3	-18.5958E-3
2.96398E-3	109.306E-12	673.899E-3	-23.5627E-3	109.347E-12	679.757E-3	-7.50890E-3
2.95898E-3	109.109E-12	684.093E-3	-12.8102E-3	109.016E-12	692.594E-3	-5.10003E-3
2.95398E-3	109.204E-12	699.578E-3	-18.4337E-3	108.789E-12	718.474E-3	-6.53780E-3
2.94897E-3	108.940E-12	690.189E-3	-36.7503E-3	108.183E-12	727.540E-3	-11.0002E-3
2.94397E-3	109.445E-12	669.705E-3	-27.6420E-3	108.300E-12	712.777E-3	-27.1863E-3
2.93897E-3	109.384E-12	660.293E-3	5.50368E-3	107.810E-12	698.493E-3	-25.3045E-3
2.93397E-3	109.421E-12	686.352E-3	6.57199E-3	108.041E-12	700.364E-3	-7.76749E-3
2.92896E-3	108.324E-12	726.049E-3	-11.9527E-3	107.496E-12	703.545E-3	4.83570E-3
2.92396E-3	108.412E-12	724.641E-3	-12.4226E-3	107.652E-12	704.733E-3	5.61770E-3
2.91896E-3	107.796E-12	708.808E-3	-9.16776E-3	107.195E-12	700.316E-3	1.02938E-3
2.91396E-3	106.732E-12	712.026E-3	-10.4607E-3	106.899E-12	694.788E-3	-3.15975E-3
2.90895E-3	106.269E-12	706.188E-3	-11.7095E-3	106.664E-12	706.801E-3	-11.4301E-3
2.90395E-3	105.430E-12	692.374E-3	-11.8488E-3	106.553E-12	725.980E-3	-5.92961E-3
2.89895E-3	105.041E-12	691.474E-3	-14.3923E-3	106.840E-12	724.636E-3	8.55656E-3
2.89395E-3	103.999E-12	691.019E-3	-20.2674E-3	106.525E-12	699.777E-3	17.4205E-3
2.88894E-3	103.740E-12	687.440E-3	-12.1588E-3	106.655E-12	683.263E-3	22.4344E-3
2.88394E-3	103.333E-12	672.211E-3	-2.39580E-3	105.943E-12	692.259E-3	10.8083E-3
2.87894E-3	103.607E-12	655.609E-3	-21.3870E-3	106.055E-12	704.492E-3	-1.25070E-3
2.87394E-3	103.396E-12	669.831E-3	-40.6445E-3	105.745E-12	713.161E-3	-1.45216E-3
2.86893E-3	104.453E-12	686.630E-3	-34.3018E-3	105.440E-12	705.173E-3	-17.7960E-3
2.86393E-3	104.464E-12	690.449E-3	-21.1607E-3	104.977E-12	693.641E-3	-42.5812E-3
2.85893E-3	105.375E-12	707.951E-3	-12.1029E-3	104.858E-12	712.297E-3	-54.4749E-3
2.85393E-3	105.658E-12	729.784E-3	-7.61033E-3	104.739E-12	722.542E-3	-51.3399E-3
2.84892E-3	105.949E-12	722.778E-3	-7.89469E-3	104.546E-12	691.748E-3	-25.4209E-3
2.84392E-3	105.514E-12	702.402E-3	-21.3838E-3	104.488E-12	658.891E-3	-3.96156E-3
2.83892E-3	105.487E-12	710.271E-3	-27.8541E-3	103.721E-12	665.325E-3	-7.81832E-3
2.83392E-3	105.001E-12	723.830E-3	-8.56754E-3	103.910E-12	690.178E-3	-8.76291E-3
2.82891E-3	104.502E-12	708.170E-3	7.91222E-3	103.098E-12	697.138E-3	437.256E-6
2.82391E-3	103.694E-12	689.803E-3	14.7098E-3	103.045E-12	699.554E-3	-2.08629E-3
2.81891E-3	102.731E-12	699.511E-3	13.1331E-3	102.218E-12	705.312E-3	-15.7718E-3
2.81391E-3	101.607E-12	711.996E-3	-8.03863E-3	102.027E-12	701.098E-3	-10.9974E-3
2.80890E-3	101.147E-12	705.685E-3	-18.6401E-3	101.712E-12	700.173E-3	969.203E-6
2.80390E-3	99.3428E-12	700.996E-3	2.67011E-3	101.405E-12	702.505E-3	-765.974E-6
2.79890E-3	98.8369E-12	698.825E-3	18.9121E-3	101.075E-12	683.516E-3	9.07720E-3
2.79390E-3	99.1274E-12	693.347E-3	21.3385E-3	100.918E-12	666.329E-3	18.3766E-3
2.78889E-3	98.7348E-12	693.052E-3	24.7309E-3	100.945E-12	674.236E-3	598.432E-6
2.78389E-3	98.6502E-12	695.518E-3	10.7896E-3	100.427E-12	696.142E-3	-22.7596E-3
2.77889E-3	99.0449E-12	704.263E-3	-13.3406E-3	100.952E-12	721.385E-3	-22.1846E-3
2.77389E-3	99.9911E-12	699.530E-3	-26.1509E-3	101.162E-12	735.585E-3	-14.3004E-3
2.76888E-3	99.8550E-12	685.944E-3	-23.3070E-3	100.996E-12	732.630E-3	-7.23671E-3
2.76388E-3	100.575E-12	694.789E-3	-32.5521E-3	101.345E-12	721.786E-3	4.89203E-3
2.75888E-3	101.100E-12	715.104E-3	-50.3524E-3	101.881E-12	721.125E-3	-2.57824E-3
2.75388E-3	100.783E-12	732.573E-3	-37.6750E-3	101.555E-12	726.215E-3	-19.3420E-3
2.74887E-3	101.081E-12	745.042E-3	-18.2734E-3	101.141E-12	725.458E-3	-18.2747E-3
2.74387E-3	100.612E-12	741.899E-3	-16.7954E-3	100.923E-12	716.644E-3	-11.8819E-3
2.73887E-3	100.238E-12	732.630E-3	-10.5655E-3	100.131E-12	695.281E-3	-17.6079E-3
2.73387E-3	98.8545E-12	725.302E-3	-3.01414E-3	99.4807E-12	689.797E-3	-20.6331E-3
2.72886E-3	98.7095E-12	717.685E-3	-10.1049E-3	98.6307E-12	712.035E-3	-22.5947E-3
2.72386E-3	98.0886E-12	711.870E-3	-17.5649E-3	98.1680E-12	715.114E-3	-37.4270E-3
2.71886E-3	96.9268E-12	702.288E-3	-19.1853E-3	97.2199E-12	699.287E-3	-38.3021E-3
2.71386E-3	96.0061E-12	707.181E-3	-19.6544E-3	96.7176E-12	699.122E-3	-20.3311E-3
2.70885E-3	95.4067E-12	712.725E-3	-16.5506E-3	96.0843E-12	701.718E-3	-3.87221E-3
2.70385E-3	95.4117E-12	692.719E-3	-9.28961E-3	95.7955E-12	705.565E-3	8.48062E-3
2.69885E-3	94.6929E-12	668.701E-3	-15.5753E-3	95.2142E-12	719.640E-3	6.23545E-3
2.69385E-3	94.7941E-12	664.487E-3	-17.4375E-3	95.1219E-12	708.157E-3	-1.60136E-3
2.68884E-3	95.0610E-12	671.856E-3	-12.0664E-3	95.1377E-12	681.653E-3	-609.828E-6
2.68384E-3	95.9122E-12	683.608E-3	-26.4893E-3	95.6948E-12	682.222E-3	-11.8821E-3
2.67884E-3	96.3385E-12	700.888E-3	-34.4107E-3	95.5181E-12	700.290E-3	-36.2227E-3
2.67384E-3	96.2383E-12	702.467E-3	-25.7883E-3	95.8910E-12	716.050E-3	-38.6578E-3
2.66883E-3	96.6199E-12	710.027E-3	-22.7243E-3	96.2025E-12	724.674E-3	-19.0799E-3
2.66383E-3	96.9309E-12	742.747E-3	-17.3605E-3	96.5945E-12	728.071E-3	-9.26605E-3
2.65883E-3	96.8822E-12	768.403E-3	-4.15714E-3	96.5622E-12	735.825E-3	-20.4339E-3
2.65383E-3	96.6646E-12	762.155E-3	-3.75364E-3	96.4224E-12	740.620E-3	-26.9505E-3
2.64882E-3	96.3180E-12	737.499E-3	-23.5605E-3	96.3565E-12	727.332E-3	-16.6346E-3
2.64382E-3	95.4144E-12	718.339E-3	-38.3014E-3	95.8063E-12	720.477E-3	-4.35621E-3
2.63882E-3	94.8417E-12	718.011E-3	-38.0605E-3	95.0158E-12	723.210E-3	-3.07100E-3
2.63382E-3	94.1229E-12	726.239E-3	-31.4137E-3	94.4009E-12	715.461E-3	-8.91156E-3
2.62881E-3	93.6741E-12	731.206E-3	-17.6465E-3	93.8612E-12	693.925E-3	-9.21110E-3
2.62381E-3	93.0255E-12	733.843E-3	-10.4164E-3	93.0153E-12	676.878E-3	-12.6567E-3
2.61881E-3	92.4141E-12	726.442E-3	-6.65149E-3	91.9917E-12	670.970E-3	-11.7782E-3
2.61381E-3	92.3471E-12	715.690E-3	-6.74139E-3	91.6329E-12	660.756E-3	-2.76045E-3
2.60880E-3	92.0245E-12	718.840E-3	-15.3179E-3	91.1774E-12	665.015E-3	-7.54109E-3
2.60380E-3	91.7914E-12	732.705E-3	-15.3105E-3	90.5113E-12	694.139E-3	-22.4094E-3
2.59880E-3	91.9114E-12	731.134E-3	-15.3691E-3	90.6614E-12	708.799E-3	-23.7475E-3
2.59380E-3	92.3628E-12	726.539E-3	-26.4090E-3	90.4291E-12	698.309E-3	-26.6095E-3
2.58879E-3	92.4447E-12	734.772E-3	-27.4780E-3	90.7112E-12	703.499E-3	-29.9939E-3
2.58379E-3	92.6628E-12	729.259E-3	-19.6470E-3	90.4927E-12	714.664E-3	-20.6283E-3
2.57879E-3	92.7001E-12	725.080E-3	-17.4603E-3	91.1633E-12	720.336E-3	-15.6653E-3
2.57379E-3	92.7272E-12	743.689E-3	-14.3614E-3	91.2830E-12	731.674E-3	2.13165E-3
2.56878E-3	92.2565E-12	758.336E-3	-21.4920E-3	91.7361E-12	733.859E-3	16.2789E-3
2.56378E-3	91.9827E-12	744.184E-3	-41.3952E-3	91.3435E-12	733.187E-3	-1.93768E-3
2.55878E-3	91.2473E-12	724.421E-3	-40.6126E-3	91.5419E-12	735.212E-3	-16.0453E-3
2.55378E-3	90.6234E-12	721.641E-3	-18.9190E-3	91.6315E-12	734.467E-3	-21.6641E-3
2.54877E-3	89.7064E-12	729.201E-3	-8.06625E-3	91.0514E-12	738.455E-3	-30.2053E-3
2.54377E-3	89.3663E-12	738.947E-3	4.86137E-3	91.0101E-12	743.089E-3	-26.7906E-3
2.53877E-3	88.4947E-12	735.189E-3	16.0136E-3	90.6438E-12	743.463E-3	-6.33560E-3
2.53377E-3	88.1150E-12	720.179E-3	-7.62380E-3	90.2379E-12	743.449E-3	11.8426E-3
2.52876E-3	88.2257E-12	712.856E-3	-27.0921E-3	89.5636E-12	735.591E-3	-1.11258E-3
2.52376E-3	87.6724E-12	703.534E-3	-16.1208E-3	89.4253E-12	723.317E-3	-18.9042E-3
2.51876E-3	87.7130E-12	691.567E-3	-4.22978E-3	88.7067E-12	724.922E-3	-15.6631E-3
2.51376E-3	88.0782E-12	699.867E-3	-3.01109E-3	87.5595E-12	735.742E-3	-15.7389E-3
2.50875E-3	88.0988E-12	721.855E-3	-7.37519E-3	87.5237E-12	737.993E-3	-20.4311E-3
2.50375E-3	87.6205E-12	739.646E-3	-11.5427E-3	87.2941E-12	725.899E-3	-9.84665E-3
2.49875E-3	87.9642E-12	750.865E-3	-16.9868E-3	86.9201E-12	713.697E-3	-6.98514E-3
2.49375E-3	87.6833E-12	754.198E-3	-19.4957E-3	86.7272E-12	719.373E-3	-25.4411E-3
2.48874E-3	86.8897E-12	745.824E-3	-10.4548E-3	86.7758E-12	727.764E-3	-40.0415E-3
2.48374E-3	86.2282E-12	734.769E-3	-2.48402E-3	86.2816E-12	727.119E-3	-37.0989E-3
2.47874E-3	86.0463E-12	724.056E-3	-8.63154E-3	86.3492E-12	721.358E-3	-18.9534E-3
2.47374E-3	85.4472E-12	707.431E-3	-20.5739E-3	86.3470E-12	711.353E-3	-1.24957E-3
2.46873E-3	84.5664E-12	700.864E-3	-21.4506E-3	86.5337E-12	718.004E-3	-6.42671E-3
2.46373E-3	84.5476E-12	712.574E-3	-12.2153E-3	86.4004E-12	734.567E-3	-24.9813E-3
2.45873E-3	83.8153E-12	714.032E-3	-9.78789E-3	86.1323E-12	740.569E-3	-17.5793E-3
2.45373E-3	83.3632E-12	705.336E-3	-9.24085E-3	85.9437E-12	743.003E-3	7.00871E-3
2.44872E-3	83.1607E-12	709.554E-3	-3.38606E-3	86.1209E-12	751.859E-3	-7.86035E-3
2.44372E-3	83.0538E-12	712.560E-3	-1.61991E-3	85.6718E-12	752.916E-3	-37.0075E-3
2.43872E-3	83.0023E-12	711.743E-3	-12.3341E-3	85.0280E-12	746.960E-3	-22.9481E-3
2.43372E-3	83.4316E-12	710.752E-3	-21.7129E-3	84.7541E-12	749.582E-3	-8.83874E-3
2.42871E-3	83.9653E-12	697.538E-3	-27.5139E-3	84.4409E-12	741.861E-3	-13.1609E-3
2.42371E-3	84.3396E-12	699.495E-3	-29.2028E-3	83.9591E-12	729.308E-3	-8.78725E-3
2.41871E-3	84.1978E-12	729.613E-3	-23.0074E-3	83.3710E-12	741.749E-3	915.798E-6
2.41371E-3	84.3217E-12	738.393E-3	-12.3718E-3	83.0070E-12	756.481E-3	1.09314E-3
2.40870E-3	84.1779E-12	734.287E-3	-7.91970E-3	82.6591E-12	750.852E-3	-16.3329E-3
2.40370E-3	83.7403E-12	741.945E-3	-21.4984E-3	81.9303E-12	742.666E-3	-21.3254E-3
2.39870E-3	83.2337E-12	743.020E-3	-24.0302E-3	82.0904E-12	730.658E-3	-13.0606E-3
2.39370E-3	82.6861E-12	747.789E-3	-12.4847E-3	81.3386E-12	712.588E-3	-13.8327E-3
2.38869E-3	81.9036E-12	753.655E-3	-7.43998E-3	81.0438E-12	712.310E-3	-12.4397E-3
2.38369E-3	80.9524E-12	747.080E-3	-6.57096E-3	80.5476E-12	718.460E-3	-2.20853E-3
2.37869E-3	80.1901E-12	732.251E-3	-8.42063E-3	80.5516E-12	719.627E-3	7.20968E-3
2.37369E-3	79.7393E-12	718.342E-3	-17.8279E-3	79.9338E-12	734.245E-3	6.02679E-3
2.36868E-3	79.0059E-12	705.979E-3	-19.1470E-3	79.9584E-12	733.782E-3	-3.15528E-3
2.36368E-3	78.8438E-12	693.462E-3	-7.13512E-3	79.6174E-12	716.900E-3	-7.48262E-3
2.35868E-3	78.3973E-12	701.099E-3	-12.4250E-3	79.8399E-12	730.088E-3	-16.9170E-3
2.35368E-3	78.5577E-12	722.799E-3	-27.8871E-3	80.0285E-12	742.467E-3	-31.6350E-3
2.34867E-3	78.3735E-12	721.442E-3	-33.1084E-3	79.8661E-12	728.244E-3	-31.1585E-3
2.34367E-3	78.8417E-12	712.661E-3	-32.8264E-3	79.6207E-12	739.028E-3	-26.3223E-3
2.33867E-3	78.8137E-12	724.297E-3	-27.4264E-3	79.9586E-12	774.713E-3	-30.4632E-3
2.33367E-3	79.4592E-12	726.235E-3	-11.1392E-3	79.4417E-12	777.423E-3	-36.1605E-3
2.32866E-3	79.7229E-12	723.330E-3	-5.71086E-3	79.4950E-12	751.242E-3	-25.7419E-3
2.32366E-3	79.7894E-12	734.913E-3	-20.3597E-3	78.9204E-12	734.453E-3	-11.9942E-3
2.31866E-3	80.0026E-12	748.540E-3	-25.3465E-3	78.8195E-12	731.877E-3	-20.3084E-3
2.31366E-3	79.6760E-12	767.398E-3	-31.0263E-3	78.5269E-12	745.271E-3	-23.6063E-3
2.30865E-3	78.9356E-12	782.268E-3	-38.7044E-3	78.1392E-12	770.687E-3	-14.8903E-3
2.30365E-3	78.5367E-12	776.957E-3	-26.2458E-3	77.9715E-12	772.389E-3	-11.2354E-3
2.29865E-3	78.1303E-12	770.235E-3	-19.3363E-3	77.2861E-12	752.061E-3	-5.86182E-3
2.29365E-3	77.2323E-12	767.326E-3	-27.4180E-3	76.9931E-12	754.187E-3	-8.12538E-3
2.28864E-3	76.4003E-12	751.727E-3	-22.2004E-3	76.3530E-12	762.157E-3	-22.4814E-3
2.28364E-3	76.0748E-12	742.992E-3	2.57757E-3	76.1231E-12	760.746E-3	-28.9034E-3
2.27864E-3	75.4046E-12	752.859E-3	2.70675E-3	75.6165E-12	761.826E-3	-23.3608E-3
2.27364E-3	75.0874E-12	749.540E-3	-30.4514E-3	75.2873E-12	751.395E-3	-31.2516E-3
2.26863E-3	75.0092E-12	739.136E-3	-48.8474E-3	75.1679E-12	745.612E-3	-39.2929E-3
2.26363E-3	74.9740E-12	756.681E-3	-41.0446E-3	74.5898E-12	761.408E-3	-39.5207E-3
2.25863E-3	74.9648E-12	770.200E-3	-19.7210E-3	74.7909E-12	774.087E-3	-42.6297E-3
2.25363E-3	75.1684E-12	766.741E-3	-6.10884E-3	74.6712E-12	780.762E-3	-31.0502E-3
2.24862E-3	75.7839E-12	777.097E-3	-12.9012E-3	74.8938E-12	794.149E-3	-14.3594E-3
2.24362E-3	75.3039E-12	776.683E-3	-16.9970E-3	74.6593E-12	800.523E-3	-10.8265E-3
2.23862E-3	75.8462E-12	755.702E-3	-18.3764E-3	75.0479E-12	796.886E-3	-11.7355E-3
2.23362E-3	75.4770E-12	762.079E-3	-20.6870E-3	74.8670E-12	804.926E-3	-16.8345E-3
2.22861E-3	75.5026E-12	785.059E-3	-14.3735E-3	75.1417E-12	811.135E-3	-28.4194E-3
2.22361E-3	75.4015E-12	794.275E-3	-11.9708E-3	74.8259E-12	791.489E-3	-20.4532E-3
2.21861E-3	74.4009E-12	809.094E-3	-10.8831E-3	74.4772E-12	780.446E-3	-1.51324E-3
2.21361E-3	73.9667E-12	808.753E-3	-4.21414E-3	74.2219E-12	791.081E-3	-5.19752E-3
2.20860E-3	73.1074E-12	783.637E-3	-3.06648E-3	73.7071E-12	789.094E-3	-15.8478E-3
2.20360E-3	72.7218E-12	766.147E-3	-1.71998E-3	73.4559E-12	774.554E-3	-17.7871E-3
2.19860E-3	71.9483E-12	761.839E-3	-1.53830E-3	72.6112E-12	772.595E-3	-18.1317E-3
2.19360E-3	71.4895E-12	764.826E-3	-10.3272E-3	72.3468E-12	766.296E-3	-21.9244E-3
2.18859E-3	70.8638E-12	764.347E-3	-8.64406E-3	71.6443E-12	754.463E-3	-17.2062E-3
2.18359E-3	70.8324E-12	764.241E-3	-476.841E-6	71.1437E-12	755.399E-3	-7.84368E-3
2.17859E-3	70.5166E-12	760.529E-3	4.50435E-3	71.1424E-12	746.679E-3	-14.0807E-3
2.17359E-3	70.4765E-12	744.592E-3	7.06968E-3	70.5777E-12	748.610E-3	-15.1577E-3
2.16858E-3	70.4542E-12	755.706E-3	5.28574E-3	70.1920E-12	779.147E-3	-11.0207E-3
2.16358E-3	70.2820E-12	783.042E-3	-130.083E-6	70.0271E-12	793.967E-3	-23.4855E-3
2.15858E-3	70.0904E-12	784.631E-3	-7.07290E-3	70.0982E-12	786.198E-3	-29.3974E-3
2.15358E-3	69.8881E-12	786.977E-3	-6.65927E-3	69.5985E-12	789.706E-3	-18.0576E-3
2.14857E-3	69.7673E-12	803.273E-3	-11.2180E-3	69.6967E-12	797.110E-3	-5.86116E-3
2.14357E-3	69.4109E-12	815.070E-3	-28.4378E-3	69.9310E-12	781.238E-3	-3.46654E-3
2.13857E-3	69.1942E-12	821.506E-3	-33.3165E-3	69.9713E-12	766.373E-3	-2.53665E-3
2.13357E-3	68.6820E-12	818.890E-3	-12.5846E-3	69.9053E-12	776.829E-3	1.77649E-3
2.12856E-3	68.1368E-12	798.994E-3	2.37314E-3	69.5617E-12	792.810E-3	2.27890E-3
2.12356E-3	67.6661E-12	774.792E-3	-6.73587E-3	69.6565E-12	805.073E-3	-3.33009E-3
2.11856E-3	67.2451E-12	770.405E-3	-15.4939E-3	69.1438E-12	810.260E-3	-16.1534E-3
2.11356E-3	66.7993E-12	779.041E-3	-11.1855E-3	68.8549E-12	799.155E-3	-31.9459E-3
2.10855E-3	66.4713E-12	788.504E-3	-7.53090E-3	68.3268E-12	790.809E-3	-39.6769E-3
2.10355E-3	66.4222E-12	796.210E-3	-9.58227E-3	67.6431E-12	800.926E-3	-30.8426E-3
2.09855E-3	66.2611E-12	793.262E-3	-16.2933E-3	67.2543E-12	803.592E-3	-18.0174E-3
2.09355E-3	66.1230E-12	781.745E-3	-18.2793E-3	66.7749E-12	791.306E-3	-12.0256E-3
2.08854E-3	66.3495E-12	778.747E-3	-10.6806E-3	66.4849E-12	793.939E-3	-18.4007E-3
2.08354E-3	66.4582E-12	789.233E-3	-6.79302E-3	66.0829E-12	806.645E-3	-24.2822E-3
2.07854E-3	66.7045E-12	801.655E-3	-15.5667E-3	65.5486E-12	804.502E-3	-5.93431E-3
2.07354E-3	66.6964E-12	802.349E-3	-26.9949E-3	65.3842E-12	799.076E-3	3.24934E-3
2.06853E-3	66.3623E-12	792.098E-3	-25.6811E-3	65.1846E-12	798.249E-3	-13.0935E-3
2.06353E-3	66.4008E-12	792.880E-3	-17.1964E-3	65.0256E-12	799.156E-3	-19.3242E-3
2.05853E-3	65.8399E-12	807.343E-3	-4.11598E-3	64.6157E-12	808.794E-3	-15.9698E-3
2.05353E-3	65.3669E-12	812.004E-3	6.65583E-3	64.4570E-12	828.111E-3	-15.8544E-3
2.04852E-3	64.5199E-12	803.735E-3	-2.82363E-3	64.5830E-12	844.350E-3	-15.0776E-3
2.04352E-3	64.4273E-12	798.132E-3	-15.8045E-3	64.6546E-12	838.250E-3	-20.9711E-3
2.03852E-3	63.3338E-12	789.602E-3	-13.9273E-3	64.4139E-12	824.386E-3	-30.9418E-3
2.03352E-3	63.0036E-12	788.721E-3	-11.8141E-3	64.3590E-12	823.203E-3	-25.2442E-3
2.02851E-3	62.5574E-12	813.116E-3	-13.4701E-3	64.2681E-12	828.779E-3	-7.04221E-3
2.02351E-3	62.3157E-12	822.085E-3	-12.7584E-3	64.0842E-12	825.367E-3	3.13061E-3
2.01851E-3	61.8858E-12	803.353E-3	-12.0342E-3	63.3827E-12	812.107E-3	6.28749E-3
2.01351E-3	61.5080E-12	790.604E-3	-9.81779E-3	63.1959E-12	799.746E-3	3.92442E-3
2.00850E-3	61.9064E-12	786.576E-3	-9.49736E-3	62.8820E-12	808.541E-3	-8.23532E-3
2.00350E-3	61.8792E-12	798.401E-3	-17.6077E-3	62.3606E-12	833.516E-3	-13.5368E-3
1.99850E-3	62.1762E-12	823.536E-3	-21.9705E-3	61.8774E-12	847.483E-3	-11.9592E-3
1.99350E-3	61.9431E-12	837.346E-3	-24.3877E-3	61.6047E-12	845.234E-3	-20.3015E-3
1.98849E-3	62.2600E-12	836.150E-3	-28.9543E-3	61.1621E-12	831.659E-3	-23.7533E-3
1.98349E-3	62.0863E-12	827.341E-3	-29.7967E-3	60.6832E-12	831.953E-3	-9.69175E-3
1.97849E-3	61.8502E-12	828.462E-3	-33.1762E-3	60.3888E-12	846.088E-3	-6.03170E-3
1.97349E-3	61.8682E-12	832.165E-3	-28.6491E-3	59.9785E-12	844.236E-3	-17.8981E-3
1.96848E-3	61.3554E-12	824.244E-3	-28.1307E-3	59.6108E-12	844.664E-3	-21.1536E-3
1.96348E-3	60.9261E-12	825.532E-3	-36.8308E-3	59.3222E-12	850.458E-3	-23.4700E-3
1.95848E-3	60.1753E-12	839.292E-3	-31.4089E-3	59.5017E-12	843.398E-3	-28.2349E-3
1.95348E-3	59.8973E-12	845.618E-3	-17.7690E-3	59.0068E-12	851.126E-3	-15.0966E-3
1.94847E-3	59.0720E-12	836.461E-3	-11.9938E-3	59.0839E-12	874.010E-3	-5.10973E-3
1.94347E-3	58.1579E-12	834.078E-3	-16.0227E-3	58.8566E-12	873.544E-3	-14.5236E-3
1.93847E-3	57.6845E-12	845.883E-3	-13.8833E-3	59.0961E-12	854.762E-3	-21.7067E-3
1.93347E-3	57.2111E-12	856.200E-3	-9.04356E-3	58.4792E-12	850.582E-3	-28.8961E-3
1.92846E-3	56.9533E-12	861.489E-3	-20.7211E-3	58.3527E-12	859.794E-3	-28.4771E-3
1.92346E-3	56.4245E-12	856.556E-3	-30.3681E-3	58.0948E-12	860.645E-3	-10.5136E-3
1.91846E-3	56.0414E-12	845.056E-3	-22.6505E-3	57.7094E-12	861.803E-3	-5.64294E-3
1.91346E-3	56.0016E-12	831.999E-3	-13.5710E-3	57.3353E-12	864.837E-3	-24.6044E-3
1.90845E-3	56.0329E-12	825.691E-3	-11.4029E-3	57.0145E-12	870.573E-3	-31.0300E-3
1.90345E-3	55.7117E-12	839.449E-3	-27.1101E-3	57.0650E-12	884.433E-3	-24.4501E-3
1.89845E-3	55.7890E-12	859.920E-3	-39.7671E-3	56.3158E-12	879.554E-3	-30.3215E-3
1.89345E-3	55.9287E-12	868.092E-3	-28.5980E-3	55.9925E-12	862.209E-3	-32.5808E-3
1.88844E-3	55.7000E-12	864.105E-3	-21.0549E-3	55.5572E-12	869.229E-3	-30.7704E-3
1.88344E-3	55.2727E-12	860.840E-3	-21.8119E-3	55.4290E-12	888.290E-3	-30.9046E-3
1.87844E-3	55.0669E-12	866.163E-3	-16.2943E-3	54.7416E-12	890.442E-3	-9.99394E-3
1.87344E-3	54.7920E-12	869.928E-3	-2.18968E-3	54.4521E-12	892.008E-3	9.91841E-3
1.86843E-3	54.2262E-12	870.851E-3	-2.79135E-3	54.1708E-12	896.399E-3	-1.95651E-3
1.86343E-3	53.7198E-12	869.711E-3	-21.0021E-3	54.0392E-12	889.155E-3	-8.11917E-3
1.85843E-3	53.5763E-12	865.550E-3	-29.9111E-3	53.6549E-12	887.992E-3	2.20686E-3
1.85343E-3	53.0795E-12	867.925E-3	-37.4264E-3	53.3402E-12	894.794E-3	-7.71673E-3
1.84842E-3	52.6867E-12	875.255E-3	-49.5006E-3	53.2571E-12	892.722E-3	-22.3684E-3
1.84342E-3	51.9594E-12	879.591E-3	-38.7349E-3	52.9760E-12	900.689E-3	-20.4888E-3
1.83842E-3	51.9559E-12	878.903E-3	-20.7305E-3	52.5522E-12	924.338E-3	-22.1326E-3
1.83342E-3	51.7558E-12	876.635E-3	-26.0075E-3	52.3256E-12	929.028E-3	-26.1127E-3
1.82841E-3	51.7500E-12	878.474E-3	-31.0254E-3	52.2411E-12	921.626E-3	-15.0965E-3
1.82341E-3	51.5204E-12	879.787E-3	-25.2158E-3	51.7837E-12	928.673E-3	-12.0550E-3
1.81841E-3	51.0953E-12	881.874E-3	-13.4304E-3	51.3879E-12	926.520E-3	-14.0009E-3
1.81341E-3	51.1504E-12	904.949E-3	-6.48779E-3	50.9867E-12	912.134E-3	-1.36422E-3
1.80840E-3	50.7402E-12	931.977E-3	-19.9066E-3	50.9327E-12	929.716E-3	-871.843E-6
1.80340E-3	50.5598E-12	935.702E-3	-30.3093E-3	50.6654E-12	957.205E-3	-13.3383E-3
1.79840E-3	50.4132E-12	929.266E-3	-16.7006E-3	50.0939E-12	949.706E-3	-14.5151E-3
1.79340E-3	50.2307E-12	927.023E-3	-7.92041E-3	49.6510E-12	937.786E-3	-10.9165E-3
1.78839E-3	49.6487E-12	926.258E-3	-12.7217E-3	49.7001E-12	939.096E-3	-9.13779E-3
1.78339E-3	49.6173E-12	933.971E-3	-20.2659E-3	49.1275E-12	946.102E-3	3.94407E-3
1.77839E-3	49.4720E-12	949.841E-3	-25.7348E-3	48.6706E-12	953.962E-3	12.9892E-3
1.77339E-3	48.7891E-12	953.795E-3	-20.2887E-3	48.2852E-12	949.380E-3	206.316E-6
1.76838E-3	48.2736E-12	948.116E-3	-20.6774E-3	48.0641E-12	940.883E-3	-11.5092E-3
1.76338E-3	47.8231E-12	951.559E-3	-22.6802E-3	47.4924E-12	941.716E-3	-21.0008E-3
1.75838E-3	47.3913E-12	959.036E-3	-7.98597E-3	47.2378E-12	946.650E-3	-37.7781E-3
1.75338E-3	47.1028E-12	964.289E-3	-12.7684E-3	46.8961E-12	957.256E-3	-35.3874E-3
1.74837E-3	47.0574E-12	963.368E-3	-35.0652E-3	46.4428E-12	977.258E-3	-13.3524E-3
1.74337E-3	46.6271E-12	952.625E-3	-26.7901E-3	46.2018E-12	976.971E-3	-7.45303E-3
1.73837E-3	46.3009E-12	954.731E-3	-4.95210E-3	46.0139E-12	958.071E-3	-10.0509E-3
1.73337E-3	46.1718E-12	966.617E-3	-6.46149E-3	45.9171E-12	970.629E-3	3.27231E-3
1.72836E-3	45.9510E-12	973.607E-3	-16.0476E-3	45.6233E-12	996.282E-3	12.7164E-3
1.72336E-3	45.7795E-12	975.407E-3	-15.4502E-3	45.5798E-12	997.715E-3	9.86212E-3
1.71836E-3	45.1497E-12	970.514E-3	-14.3761E-3	45.3402E-12	1.00330E+0	8.63545E-3
1.71336E-3	45.0389E-12	968.190E-3	-8.72937E-3	45.1717E-12	1.01372E+0	-4.32460E-3
1.70835E-3	44.4576E-12	975.703E-3	283.299E-6	44.8508E-12	1.01316E+0	-18.4973E-3
1.70335E-3	44.0936E-12	986.350E-3	-3.90921E-3	44.3081E-12	1.02466E+0	-13.6050E-3
1.69835E-3	43.8285E-12	998.168E-3	-7.75262E-3	44.0507E-12	1.04545E+0	-18.6253E-3
1.69335E-3	43.3290E-12	1.00138E+0	1.36581E-3	43.8383E-12	1.04511E+0	-25.9300E-3
1.68834E-3	42.7602E-12	1.00150E+0	13.5066E-3	43.3788E-12	1.03125E+0	-7.23077E-3
1.68334E-3	42.4903E-12	1.01617E+0	13.7207E-3	42.7632E-12	1.03139E+0	-2.66451E-3
1.67834E-3	42.2659E-12	1.02153E+0	7.23713E-3	42.4263E-12	1.03893E+0	-16.8698E-3
1.67334E-3	41.7663E-12	1.00966E+0	7.19835E-3	42.1455E-12	1.04092E+0	-7.81207E-3
1.66833E-3	41.2572E-12	1.00626E+0	7.01037E-3	41.4436E-12	1.04568E+0	4.31033E-3
1.66333E-3	41.3135E-12	1.01537E+0	-1.28781E-3	40.8647E-12	1.04838E+0	6.42774E-3
1.65833E-3	40.9527E-12	1.02390E+0	-19.9209E-3	40.4375E-12	1.04462E+0	-1.48998E-3
1.65333E-3	40.6111E-12	1.03629E+0	-31.0665E-3	40.0857E-12	1.05062E+0	-18.8473E-3
1.64832E-3	40.4619E-12	1.04703E+0	-20.6479E-3	39.7325E-12	1.06090E+0	-25.3579E-3
1.64332E-3	40.4072E-12	1.04079E+0	-9.16564E-3	39.4193E-12	1.05986E+0	-14.2910E-3
1.63832E-3	40.3234E-12	1.03831E+0	-9.70659E-3	39.0335E-12	1.06434E+0	-10.6352E-3
1.63332E-3	39.9098E-12	1.05997E+0	-12.7807E-3	39.0717E-12	1.08476E+0	-21.2481E-3
1.62831E-3	39.6911E-12	1.08471E+0	-19.1306E-3	38.7750E-12	1.09748E+0	-18.5902E-3
1.62331E-3	39.2456E-12	1.09910E+0	-15.4542E-3	38.3945E-12	1.09857E+0	-14.1710E-3
1.61831E-3	38.6406E-12	1.10232E+0	-1.84912E-3	38.2049E-12	1.10347E+0	-22.0789E-3
1.61331E-3	38.0199E-12	1.08734E+0	2.85617E-3	38.0133E-12	1.11239E+0	-14.6350E-3
1.60830E-3	37.6094E-12	1.07826E+0	2.94585E-3	37.8872E-12	1.12544E+0	2.20214E-3
1.60330E-3	37.1462E-12	1.09073E+0	-3.10625E-3	37.3897E-12	1.14635E+0	-5.08412E-3
1.59830E-3	36.4768E-12	1.10246E+0	-19.3877E-3	37.3287E-12	1.15258E+0	-13.9878E-3
1.59330E-3	35.9453E-12	1.10093E+0	-24.3822E-3	37.0485E-12	1.13781E+0	3.52014E-3
1.58829E-3	35.4427E-12	1.09640E+0	-21.8756E-3	36.5470E-12	1.12935E+0	5.62978E-3
1.58329E-3	35.1410E-12	1.09165E+0	-20.3031E-3	36.0615E-12	1.12950E+0	-10.5385E-3
1.57829E-3	34.7195E-12	1.09212E+0	-8.81764E-3	35.5276E-12	1.13322E+0	152.221E-6
1.57329E-3	34.2636E-12	1.08500E+0	-2.05452E-3	35.3942E-12	1.13839E+0	10.3871E-3
1.56828E-3	33.9959E-12	1.07143E+0	-8.27819E-3	34.3363E-12	1.13790E+0	-22.3038E-6
1.56328E-3	33.9048E-12	1.08573E+0	-14.3992E-3	33.9048E-12	1.13358E+0	-4.59066E-3
1.55828E-3	33.6425E-12	1.11327E+0	-12.1546E-3	33.4140E-12	1.13197E+0	-10.8028E-3
1.55328E-3	33.1735E-12	1.12809E+0	-9.49957E-3	33.0037E-12	1.13328E+0	-28.6014E-3
1.54827E-3	33.0676E-12	1.13306E+0	-11.0557E-3	32.5194E-12	1.14544E+0	-26.2111E-3
1.54327E-3	32.9000E-12	1.13689E+0	-3.84321E-3	32.1223E-12	1.16931E+0	-11.9968E-3
1.53827E-3	32.5615E-12	1.14875E+0	9.26542E-3	31.9501E-12	1.17384E+0	-15.8706E-3
1.53327E-3	32.0938E-12	1.16232E+0	3.88286E-3	31.7591E-12	1.16540E+0	-12.6154E-3
1.52826E-3	31.6581E-12	1.16496E+0	-12.6555E-3	31.4869E-12	1.18326E+0	-99.6706E-6
1.52326E-3	31.0858E-12	1.16198E+0	-15.9012E-3	31.0703E-12	1.20473E+0	-5.64430E-3
1.51826E-3	30.5258E-12	1.16482E+0	-12.0442E-3	30.9015E-12	1.20795E+0	-10.6247E-3
1.51326E-3	29.9535E-12	1.15920E+0	-7.65138E-3	30.7490E-12	1.21910E+0	-4.22183E-3
1.50825E-3	29.3973E-12	1.15123E+0	371.818E-6	30.2344E-12	1.23772E+0	-14.8818E-3
1.50325E-3	28.9286E-12	1.16457E+0	-1.86621E-3	29.9662E-12	1.23132E+0	-23.8152E-3
1.49825E-3	28.5056E-12	1.17597E+0	-13.5841E-3	29.6608E-12	1.21351E+0	-9.51120E-3
1.49325E-3	28.0491E-12	1.17645E+0	-7.04860E-3	29.2636E-12	1.20460E+0	-7.39201E-3
1.48824E-3	27.5937E-12	1.17785E+0	1.05808E-3	28.7540E-12	1.19616E+0	-20.3921E-3
1.48324E-3	27.2765E-12	1.17555E+0	-5.79139E-3	28.3176E-12	1.20382E+0	-15.4298E-3
1.47824E-3	26.8475E-12	1.17357E+0	-15.5295E-3	27.8146E-12	1.21631E+0	-11.0860E-3
1.47324E-3	26.5310E-12	1.17198E+0	-26.9756E-3	27.1572E-12	1.20280E+0	-13.2179E-3
1.46823E-3	26.3227E-12	1.16689E+0	-30.4118E-3	26.5885E-12	1.18378E+0	-5.61731E-3
1.46323E-3	26.1813E-12	1.15940E+0	-24.1709E-3	26.1923E-12	1.17827E+0	-9.35195E-3
1.45823E-3	25.7233E-12	1.15866E+0	-13.8153E-3	25.7381E-12	1.16586E+0	-18.4031E-3
1.45323E-3	25.4839E-12	1.16942E+0	-7.30158E-3	25.1181E-12	1.16208E+0	-10.4028E-3
1.44822E-3	25.2162E-12	1.18244E+0	-10.9824E-3	24.5981E-12	1.17926E+0	-4.14178E-3
1.44322E-3	24.8698E-12	1.19221E+0	-22.6201E-3	24.3994E-12	1.17965E+0	-8.67542E-3
1.43822E-3	24.4705E-12	1.19875E+0	-33.0073E-3	24.0257E-12	1.16990E+0	-1.29834E-3
1.43322E-3	24.2095E-12	1.20350E+0	-21.8981E-3	23.6686E-12	1.18213E+0	-1.36857E-3
1.42821E-3	23.7293E-12	1.20597E+0	-1.61493E-3	23.2608E-12	1.19401E+0	-16.8710E-3
1.42321E-3	23.2700E-12	1.20672E+0	-4.97635E-3	22.9664E-12	1.18666E+0	-19.3995E-3
1.41821E-3	22.7674E-12	1.19254E+0	-13.1231E-3	22.6047E-12	1.17657E+0	-16.6258E-3
1.41321E-3	22.2181E-12	1.17834E+0	-8.00267E-3	22.3428E-12	1.16645E+0	-19.7324E-3
1.40820E-3	21.9842E-12	1.18734E+0	-11.3248E-3	21.8970E-12	1.15484E+0	-20.5712E-3
1.40320E-3	21.5523E-12	1.19733E+0	-26.5817E-3	21.5993E-12	1.15728E+0	-24.1909E-3
1.39820E-3	21.0945E-12	1.19655E+0	-29.5766E-3	21.2442E-12	1.16678E+0	-30.3335E-3
1.39320E-3	20.6479E-12	1.19539E+0	-18.6898E-3	20.8200E-12	1.15971E+0	-22.3259E-3
1.38819E-3	20.4635E-12	1.19526E+0	-15.4564E-3	20.4707E-12	1.14898E+0	-8.55989E-3
1.38319E-3	20.1561E-12	1.18397E+0	-11.8474E-3	20.0986E-12	1.14299E+0	-11.4854E-3
1.37819E-3	19.5950E-12	1.16931E+0	-8.15540E-3	19.7230E-12	1.13277E+0	-19.3134E-3
1.37319E-3	19.2646E-12	1.16264E+0	-8.11421E-3	19.1944E-12	1.12741E+0	-21.8875E-3
1.36818E-3	19.0481E-12	1.15139E+0	-3.84136E-3	18.7710E-12	1.12085E+0	-25.2817E-3
1.36318E-3	18.6452E-12	1.13312E+0	-3.95211E-3	18.4476E-12	1.10500E+0	-17.6431E-3
1.35818E-3	18.2147E-12	1.12857E+0	-10.2178E-3	17.9967E-12	1.09925E+0	-12.5715E-3
1.35318E-3	17.7871E-12	1.13717E+0	-13.5661E-3	17.4684E-12	1.09830E+0	-22.0842E-3
1.34817E-3	17.4550E-12	1.12716E+0	-19.4922E-3	17.1396E-12	1.08627E+0	-25.5278E-3
1.34317E-3	16.9699E-12	1.10062E+0	-30.9647E-3	16.8410E-12	1.07166E+0	-14.5878E-3
1.33817E-3	16.6270E-12	1.09277E+0	-32.7250E-3	16.5214E-12	1.05676E+0	-12.6657E-3
1.33317E-3	16.3512E-12	1.08782E+0	-28.7896E-3	16.1207E-12	1.04115E+0	-27.3112E-3
1.32816E-3	15.9812E-12	1.07387E+0	-29.0631E-3	15.8119E-12	1.03055E+0	-25.1846E-3
1.32316E-3	15.4902E-12	1.06679E+0	-30.5235E-3	15.5459E-12	1.01943E+0	-8.99381E-3
1.31816E-3	15.0762E-12	1.04602E+0	-28.3112E-3	15.1118E-12	997.984E-3	-4.60894E-3
1.31316E-3	14.8600E-12	1.02849E+0	-20.5598E-3	14.8086E-12	984.249E-3	-4.54253E-3
1.30815E-3	14.4840E-12	1.02639E+0	-5.92411E-3	14.4588E-12	986.856E-3	-8.63076E-3
1.30315E-3	14.1208E-12	1.01212E+0	-6.12388E-3	14.2985E-12	985.176E-3	-18.4505E-3
1.29815E-3	13.7945E-12	988.004E-3	-20.4914E-3	13.9488E-12	968.851E-3	-13.5612E-3
1.29315E-3	13.5887E-12	974.994E-3	-20.2986E-3	13.5450E-12	954.358E-3	-4.44113E-3
1.28814E-3	13.2617E-12	972.355E-3	-18.1309E-3	13.2928E-12	937.601E-3	-16.5574E-3
1.28314E-3	12.8427E-12	967.879E-3	-23.1791E-3	13.0910E-12	912.378E-3	-26.9002E-3
1.27814E-3	12.5669E-12	964.689E-3	-23.6193E-3	12.7648E-12	898.068E-3	-20.2432E-3
1.27314E-3	12.3713E-12	952.541E-3	-23.4883E-3	12.4164E-12	888.686E-3	-18.5357E-3
1.26813E-3	11.9672E-12	924.489E-3	-26.3377E-3	12.0727E-12	869.020E-3	-9.83388E-3
1.26313E-3	11.6028E-12	901.950E-3	-19.9613E-3	11.8451E-12	847.971E-3	5.66212E-3
1.25813E-3	11.2636E-12	884.192E-3	-14.4797E-3	11.5233E-12	834.089E-3	-2.62701E-3
1.25313E-3	11.0507E-12	863.249E-3	-21.2749E-3	11.0880E-12	823.935E-3	-14.0651E-3
1.24812E-3	10.8073E-12	849.039E-3	-22.9527E-3	10.8233E-12	818.707E-3	-9.97213E-3
1.24312E-3	10.4424E-12	837.656E-3	-16.6137E-3	10.5390E-12	794.144E-3	-9.68206E-3
1.23812E-3	10.2312E-12	820.465E-3	-11.5225E-3	10.2050E-12	749.876E-3	-14.2461E-3
1.23312E-3	10.1344E-12	805.437E-3	-12.0612E-3	9.98884E-12	724.506E-3	-13.7548E-3
1.22811E-3	9.77808E-12	799.024E-3	-24.7805E-3	9.70980E-12	720.681E-3	-20.5181E-3
1.22311E-3	9.51954E-12	788.000E-3	-42.4596E-3	9.41356E-12	714.414E-3	-25.7052E-3
1.21811E-3	9.27116E-12	770.476E-3	-42.1876E-3	9.09705E-12	696.037E-3	-9.35373E-3
1.21311E-3	9.06187E-12	767.794E-3	-29.2162E-3	8.87163E-12	673.978E-3	-210.885E-6
1.20810E-3	8.81963E-12	766.566E-3	-21.3300E-3	8.70172E-12	651.314E-3	-15.1491E-3
1.20310E-3	8.56956E-12	750.073E-3	-15.5116E-3	8.49252E-12	644.230E-3	-22.2275E-3
1.19810E-3	8.39478E-12	729.216E-3	-12.3151E-3	8.22636E-12	650.909E-3	-16.6927E-3
1.19310E-3	8.21639E-12	713.828E-3	-13.3743E-3	8.05867E-12	642.396E-3	-12.2652E-3
1.18809E-3	8.00934E-12	707.176E-3	-11.3605E-3	7.93575E-12	626.653E-3	-999.041E-6
1.18309E-3	7.70407E-12	693.449E-3	-12.6425E-3	7.77422E-12	626.785E-3	3.26073E-3
1.17809E-3	7.49110E-12	667.023E-3	-25.5253E-3	7.50995E-12	620.046E-3	4.82126E-3
1.17309E-3	7.27852E-12	644.387E-3	-31.4862E-3	7.28426E-12	587.456E-3	22.5106E-3
1.16808E-3	7.01673E-12	627.614E-3	-16.3988E-3	7.24962E-12	562.775E-3	24.4692E-3
1.16308E-3	6.77186E-12	607.587E-3	-1.34474E-3	7.00532E-12	548.259E-3	-3.10921E-3
1.15808E-3	6.60820E-12	586.529E-3	-5.84194E-3	6.73724E-12	527.865E-3	-15.4845E-3
1.15308E-3	6.45998E-12	574.273E-3	-12.2380E-3	6.54868E-12	515.688E-3	-8.40683E-3
1.14807E-3	6.20888E-12	553.801E-3	-3.12281E-3	6.34622E-12	498.130E-3	-20.0732E-3
1.14307E-3	5.98890E-12	516.425E-3	-847.822E-6	6.16242E-12	469.338E-3	-27.2494E-3
1.13807E-3	5.93200E-12	496.245E-3	-16.2858E-3	5.94662E-12	456.364E-3	-15.7640E-3
1.13307E-3	5.79658E-12	496.615E-3	-25.4816E-3	5.75495E-12	443.541E-3	-19.1935E-3
1.12806E-3	5.57095E-12	491.723E-3	-26.1679E-3	5.58701E-12	418.029E-3	-21.4249E-3
1.12306E-3	5.50507E-12	488.435E-3	-22.4810E-3	5.44993E-12	409.565E-3	-10.3327E-3
1.11806E-3	5.32098E-12	483.230E-3	-8.60130E-3	5.23688E-12	401.555E-3	-14.3186E-3
1.11306E-3	5.15576E-12	463.476E-3	-347.151E-6	5.11113E-12	379.871E-3	-28.1621E-3
1.10805E-3	5.03238E-12	445.562E-3	-7.48328E-3	4.96075E-12	375.051E-3	-30.6956E-3
1.10305E-3	4.92514E-12	433.802E-3	-10.6901E-3	4.83911E-12	378.815E-3	-28.8326E-3
1.09805E-3	4.80451E-12	420.775E-3	-14.4311E-3	4.72520E-12	357.116E-3	-23.4035E-3
1.09305E-3	4.65215E-12	408.879E-3	-26.7699E-3	4.63086E-12	325.830E-3	-2.71628E-3
1.08804E-3	4.50176E-12	399.779E-3	-24.0848E-3	4.54640E-12	313.365E-3	6.38194E-3
1.08304E-3	4.36501E-12	386.068E-3	-8.33874E-3	4.41118E-12	306.488E-3	-8.17127E-3
1.07804E-3	4.29257E-12	369.731E-3	-5.07199E-3	4.26878E-12	297.836E-3	-17.3642E-3
1.07304E-3	4.13940E-12	353.857E-3	-15.4681E-3	4.24443E-12	297.292E-3	-19.7947E-3
1.06803E-3	3.97780E-12	330.267E-3	-28.2985E-3	4.07822E-12	290.278E-3	-23.3070E-3
1.06303E-3	3.80211E-12	313.577E-3	-32.3897E-3	3.95138E-12	284.168E-3	-24.8672E-3
1.05803E-3	3.78409E-12	318.006E-3	-23.9880E-3	3.83565E-12	282.222E-3	-23.8433E-3
1.05303E-3	3.64156E-12	318.676E-3	-25.5451E-3	3.73923E-12	255.854E-3	-13.6243E-3
1.04802E-3	3.52464E-12	304.017E-3	-32.0370E-3	3.68307E-12	230.390E-3	-2.85849E-3
1.04302E-3	3.62417E-12	289.736E-3	-25.6178E-3	3.64079E-12	224.638E-3	-11.9436E-3
1.03802E-3	3.42677E-12	279.579E-3	-19.7302E-3	3.40397E-12	213.357E-3	-19.5702E-3
1.03302E-3	3.31000E-12	271.276E-3	-20.1016E-3	3.27727E-12	201.333E-3	-8.85874E-3
1.02801E-3	3.06731E-12	270.110E-3	-19.8977E-3	3.12533E-12	203.974E-3	6.08171E-3
1.02301E-3	3.02405E-12	261.593E-3	-16.0016E-3	2.93386E-12	206.561E-3	5.17423E-3
1.01801E-3	2.93887E-12	234.864E-3	-13.5449E-3	2.78256E-12	195.505E-3	-3.89407E-3
1.01301E-3	2.86014E-12	205.016E-3	-7.80796E-3	2.73526E-12	182.541E-3	2.94965E-3
1.00800E-3	2.76533E-12	194.405E-3	-135.873E-6	2.74731E-12	181.471E-3	4.56543E-3
1.00300E-3	2.68157E-12	205.729E-3	-7.56292E-3	2.59012E-12	180.705E-3	-8.41642E-3
997.999E-6	2.64493E-12	211.516E-3	-23.5949E-3	2.57580E-12	177.042E-3	-24.1994E-3
992.997E-6	2.55004E-12	194.561E-3	-29.6960E-3	2.56589E-12	169.880E-3	-42.1737E-3
987.994E-6	2.53255E-12	170.844E-3	-20.4834E-3	2.51220E-12	152.475E-3	-42.0444E-3
982.991E-6	2.49047E-12	168.660E-3	-12.8632E-3	2.42674E-12	139.259E-3	-24.9230E-3
977.989E-6	2.35954E-12	174.438E-3	-14.9607E-3	2.34070E-12	136.512E-3	-19.9485E-3
972.986E-6	2.32625E-12	164.631E-3	-16.2992E-3	2.32329E-12	130.550E-3	-21.1322E-3
967.984E-6	2.26868E-12	148.809E-3	-7.38990E-3	2.34448E-12	122.931E-3	-9.12054E-3
962.981E-6	2.17057E-12	143.125E-3	-2.73696E-3	2.17765E-12	127.948E-3	-874.738E-6
957.979E-6	2.11617E-12	146.940E-3	-18.9147E-3	2.15979E-12	134.080E-3	-10.7108E-3
952.976E-6	2.09977E-12	152.931E-3	-28.2560E-3	2.13006E-12	128.562E-3	-17.2809E-3
947.974E-6	2.10638E-12	142.718E-3	-12.2883E-3	2.07866E-12	117.451E-3	-13.2377E-3
942.971E-6	1.99058E-12	118.791E-3	-425.206E-6	2.02051E-12	99.3046E-3	-16.5242E-3
937.969E-6	1.96049E-12	109.123E-3	-12.8699E-3	1.92584E-12	85.1766E-3	-22.1330E-3
932.966E-6	1.95481E-12	114.811E-3	-22.9211E-3	1.91696E-12	91.8426E-3	-20.5625E-3
927.964E-6	1.95185E-12	115.036E-3	-16.6065E-3	1.85693E-12	93.0754E-3	-23.8262E-3
922.961E-6	1.92849E-12	107.923E-3	-14.6949E-3	1.80716E-12	79.5845E-3	-32.7303E-3
917.959E-6	1.83567E-12	103.322E-3	-25.0082E-3	1.78424E-12	79.8099E-3	-33.7582E-3
912.956E-6	1.79959E-12	103.027E-3	-26.3193E-3	1.76544E-12	83.6477E-3	-23.7366E-3
907.954E-6	1.80649E-12	104.455E-3	-11.0893E-3	1.70750E-12	79.5420E-3	-8.51113E-3
902.951E-6	1.78909E-12	107.577E-3	1.22325E-3	1.72106E-12	81.4703E-3	-2.36639E-3
897.949E-6	1.74490E-12	100.782E-3	-3.37217E-3	1.65911E-12	84.6093E-3	-19.8299E-3
892.946E-6	1.62872E-12	81.9914E-3	-23.2803E-3	1.68027E-12	77.0511E-3	-25.7736E-3
887.944E-6	1.63023E-12	80.7512E-3	-34.0863E-3	1.63137E-12	74.2376E-3	-14.1437E-3
882.941E-6	1.63174E-12	80.5099E-3	-20.5538E-3	1.50781E-12	75.8113E-3	-10.4298E-3
877.939E-6	1.61837E-12	64.3717E-3	-10.9282E-3	1.60126E-12	70.2684E-3	3.33806E-3
872.936E-6	1.57163E-12	61.1217E-3	-20.5661E-3	1.54128E-12	66.9789E-3	11.8862E-3
867.934E-6	1.50329E-12	70.7765E-3	-27.2648E-3	1.50206E-12	59.8504E-3	-10.0779E-3
862.931E-6	1.52051E-12	79.2595E-3	-22.4604E-3	1.46782E-12	53.4647E-3	-29.5915E-3
857.929E-6	1.47522E-12	83.5719E-3	-15.8119E-3	1.42826E-12	58.3428E-3	-25.1675E-3
852.926E-6	1.48323E-12	76.9519E-3	-16.8917E-3	1.45501E-12	56.3220E-3	-19.0709E-3
847.924E-6	1.37926E-12	63.4498E-3	-18.5528E-3	1.38770E-12	41.6277E-3	-21.7740E-3
842.921E-6	1.37285E-12	51.3057E-3	-13.9567E-3	1.39380E-12	37.4422E-3	-25.9339E-3
837.919E-6	1.41732E-12	45.0790E-3	-4.14205E-3	1.40202E-12	43.3898E-3	-30.4204E-3
832.916E-6	1.39059E-12	44.1694E-3	3.37953E-3	1.34125E-12	42.6938E-3	-32.0886E-3
827.914E-6	1.33636E-12	46.5524E-3	-6.28307E-3	1.31817E-12	46.9890E-3	-35.0136E-3
822.911E-6	1.32613E-12	47.6946E-3	-22.9200E-3	1.28310E-12	57.5790E-3	-39.2947E-3
817.909E-6	1.33865E-12	41.6588E-3	-17.4466E-3	1.28998E-12	53.5721E-3	-27.6007E-3
812.906E-6	1.33505E-12	38.4921E-3	3.21938E-3	1.30596E-12	42.6989E-3	-8.77361E-3
807.904E-6	1.25687E-12	47.4695E-3	9.89271E-3	1.20316E-12	34.6142E-3	-6.97590E-3
802.901E-6	1.19811E-12	57.9604E-3	715.829E-6	1.19457E-12	30.2084E-3	-14.8251E-3
797.899E-6	1.27010E-12	52.8592E-3	-10.1584E-3	1.25058E-12	41.9996E-3	-11.0583E-3
792.896E-6	1.27023E-12	45.4048E-3	-11.7618E-3	1.15776E-12	51.1061E-3	-8.63048E-3
787.894E-6	1.25799E-12	46.7459E-3	-2.61827E-3	1.20434E-12	38.5756E-3	-22.9620E-3
782.891E-6	1.17394E-12	39.8062E-3	-2.24146E-3	1.18837E-12	28.9729E-3	-27.8465E-3
777.889E-6	1.15781E-12	40.0151E-3	-12.6491E-3	1.18286E-12	31.7232E-3	-18.3605E-3
772.886E-6	1.17671E-12	51.5450E-3	-4.27236E-3	1.20001E-12	27.3675E-3	-17.9253E-3
767.884E-6	1.18881E-12	45.3194E-3	1.82058E-3	1.14984E-12	16.1751E-3	-15.8821E-3
762.881E-6	1.13073E-12	33.8003E-3	-10.1732E-3	1.13442E-12	15.9542E-3	-12.1205E-3
757.879E-6	1.12296E-12	33.7771E-3	-20.4505E-3	1.17737E-12	20.2551E-3	-16.1810E-3
752.876E-6	1.12100E-12	38.0332E-3	-25.6580E-3	1.15239E-12	12.9672E-3	-11.4877E-3
747.874E-6	1.14141E-12	43.6107E-3	-18.2798E-3	1.09194E-12	10.9817E-3	-4.65029E-3
742.871E-6	1.05855E-12	42.5902E-3	-8.31644E-3	1.11691E-12	21.3387E-3	-9.08101E-3
737.869E-6	1.09554E-12	33.5963E-3	-8.63216E-3	1.08492E-12	16.2683E-3	-13.5308E-3
732.866E-6	1.07524E-12	31.7385E-3	-9.97933E-3	1.08711E-12	11.5037E-3	-9.39310E-3
727.864E-6	1.06538E-12	33.7566E-3	-4.89085E-3	1.03742E-12	27.0114E-3	-15.1756E-3
722.861E-6	1.11200E-12	26.7249E-3	-10.7551E-3	1.06120E-12	30.4785E-3	-29.6894E-3
717.859E-6	1.06848E-12	20.2770E-3	-26.4473E-3	1.04753E-12	21.0377E-3	-32.0935E-3
712.856E-6	1.00243E-12	15.6107E-3	-28.1043E-3	999.745E-15	19.3429E-3	-31.2668E-3
707.854E-6	998.219E-15	10.1227E-3	-26.3745E-3	1.05191E-12	15.0628E-3	-20.8606E-3
702.851E-6	1.04339E-12	21.4574E-3	-26.8418E-3	1.03626E-12	7.81253E-3	-830.401E-6
697.849E-6	1.04139E-12	36.5080E-3	-19.5927E-3	996.205E-15	13.4448E-3	-1.71103E-3
692.846E-6	1.00684E-12	28.2261E-3	-12.2834E-3	1.00171E-12	19.3827E-3	-6.31349E-3
687.844E-6	933.627E-15	15.3579E-3	-13.0988E-3	977.301E-15	14.9621E-3	-4.59211E-3
682.841E-6	1.01113E-12	11.5899E-3	-16.2915E-3	1.01503E-12	18.8871E-3	-20.5007E-3
677.839E-6	1.03022E-12	11.6115E-3	-21.3998E-3	954.762E-15	21.1044E-3	-30.1931E-3
672.836E-6	968.111E-15	19.6756E-3	-35.6685E-3	956.480E-15	13.9875E-3	-16.9621E-3
667.834E-6	921.829E-15	20.2676E-3	-39.8756E-3	993.092E-15	25.1935E-3	-16.4807E-3
662.831E-6	933.522E-15	11.7203E-3	-28.6568E-3	960.159E-15	36.2842E-3	-25.2868E-3
657.829E-6	935.283E-15	13.3112E-3	-30.0464E-3	971.468E-15	25.9178E-3	-17.3896E-3
652.826E-6	915.019E-15	23.5517E-3	-33.5705E-3	928.779E-15	21.3978E-3	-7.52026E-3
647.824E-6	869.409E-15	26.1626E-3	-22.1844E-3	915.403E-15	19.7795E-3	-9.03632E-3
642.821E-6	899.874E-15	18.1058E-3	-16.3187E-3	978.513E-15	18.8752E-3	-5.32362E-3
637.819E-6	877.160E-15	22.2283E-3	-18.6141E-3	917.191E-15	28.7724E-3	-1.75973E-3
632.816E-6	894.852E-15	33.0493E-3	-17.6515E-3	880.674E-15	27.8110E-3	-16.2817E-3
627.814E-6	907.268E-15	29.0847E-3	-23.0248E-3	889.655E-15	15.3995E-3	-17.3611E-3
622.811E-6	883.586E-15	26.0776E-3	-31.8528E-3	887.763E-15	18.3611E-3	1.36828E-3
617.809E-6	866.026E-15	28.9518E-3	-28.5442E-3	883.918E-15	27.1189E-3	3.59270E-3
612.806E-6	854.333E-15	24.2892E-3	-22.0558E-3	804.921E-15	20.7770E-3	-3.43978E-3
607.804E-6	873.019E-15	19.2018E-3	-19.5777E-3	816.317E-15	12.6806E-3	1.01748E-3
602.801E-6	876.803E-15	20.9183E-3	-20.1762E-3	859.722E-15	14.2102E-3	1.45451E-3
597.799E-6	836.389E-15	27.1454E-3	-22.6453E-3	842.527E-15	15.6498E-3	-6.74182E-3
592.796E-6	803.997E-15	37.9714E-3	-16.5801E-3	787.944E-15	18.7641E-3	-5.44226E-3
587.794E-6	854.499E-15	32.0452E-3	-16.6386E-3	781.405E-15	28.1310E-3	-8.03674E-3
582.791E-6	886.124E-15	16.2921E-3	-26.3600E-3	783.811E-15	30.1414E-3	-17.5307E-3
577.789E-6	808.879E-15	19.9274E-3	-27.6850E-3	824.278E-15	33.8551E-3	-12.6731E-3
572.786E-6	800.770E-15	21.9666E-3	-26.4349E-3	794.370E-15	44.3207E-3	-5.68592E-3
567.784E-6	818.532E-15	16.7231E-3	-26.2333E-3	778.571E-15	36.0271E-3	-12.3065E-3
562.781E-6	827.818E-15	14.6307E-3	-24.4426E-3	804.284E-15	24.9317E-3	-20.8430E-3
557.779E-6	787.160E-15	5.85822E-3	-19.8778E-3	793.376E-15	32.2566E-3	-15.2429E-3
552.776E-6	761.568E-15	6.37518E-3	-15.0768E-3	803.072E-15	33.4893E-3	-5.00618E-3
547.774E-6	725.035E-15	24.0621E-3	-12.7179E-3	798.704E-15	24.5457E-3	-4.84311E-3
542.771E-6	777.943E-15	34.3626E-3	-17.2967E-3	738.619E-15	22.3352E-3	-19.2501E-3
537.769E-6	721.826E-15	30.4574E-3	-14.9240E-3	695.816E-15	21.8310E-3	-30.7972E-3
532.766E-6	680.060E-15	24.4597E-3	-9.72082E-3	766.835E-15	19.8336E-3	-16.8907E-3
527.764E-6	630.910E-15	26.8574E-3	-18.5678E-3	762.737E-15	25.7889E-3	1.76926E-3
522.761E-6	690.925E-15	27.8388E-3	-19.4910E-3	709.253E-15	26.8536E-3	-6.62889E-3
517.759E-6	707.561E-15	23.7018E-3	-13.2017E-3	634.188E-15	20.7134E-3	-19.2444E-3
512.756E-6	681.595E-15	23.7662E-3	-7.63684E-3	698.406E-15	24.1200E-3	-20.8894E-3
507.754E-6	673.625E-15	23.0481E-3	-4.86650E-3	728.993E-15	25.0398E-3	-30.1557E-3
502.751E-6	649.700E-15	19.0066E-3	-17.5683E-3	649.046E-15	18.2847E-3	-33.8860E-3
497.749E-6	677.043E-15	20.7951E-3	-29.2769E-3	610.533E-15	22.0715E-3	-24.6489E-3
492.746E-6	691.273E-15	25.9757E-3	-29.2788E-3	628.425E-15	31.2114E-3	-22.7733E-3
487.744E-6	718.277E-15	23.6542E-3	-29.4228E-3	703.768E-15	25.6911E-3	-30.0365E-3
482.741E-6	635.967E-15	22.4840E-3	-34.0102E-3	670.103E-15	22.6277E-3	-28.8934E-3
477.739E-6	647.973E-15	19.2571E-3	-30.8121E-3	602.328E-15	30.0350E-3	-25.1720E-3
472.736E-6	667.069E-15	12.3664E-3	-18.6495E-3	600.793E-15	26.6307E-3	-12.7867E-3
467.734E-6	648.366E-15	15.7105E-3	-16.1519E-3	634.894E-15	24.2782E-3	1.58505E-3
462.731E-6	618.450E-15	23.5733E-3	-15.7956E-3	611.343E-15	21.4268E-3	-11.5405E-3
457.729E-6	557.266E-15	24.6591E-3	-11.9480E-3	628.250E-15	10.6650E-3	-29.7892E-3
452.726E-6	576.885E-15	27.2415E-3	-16.8764E-3	610.672E-15	24.1165E-3	-28.1536E-3
447.724E-6	591.708E-15	28.6184E-3	-25.0201E-3	542.121E-15	42.4991E-3	-22.1532E-3
442.721E-6	575.865E-15	15.1903E-3	-29.2490E-3	568.610E-15	26.0035E-3	-14.8947E-3
437.719E-6	559.812E-15	4.83344E-3	-32.4758E-3	556.028E-15	6.72715E-3	-3.79805E-3
432.716E-6	539.339E-15	8.56403E-3	-27.0067E-3	589.964E-15	7.44414E-3	-11.5467E-3
427.714E-6	543.219E-15	16.4117E-3	-15.5588E-3	526.470E-15	10.4021E-3	-26.4460E-3
422.711E-6	534.134E-15	29.8769E-3	-11.3869E-3	529.644E-15	19.9770E-3	-22.7868E-3
417.709E-6	472.645E-15	43.2350E-3	-7.71702E-3	546.428E-15	35.0293E-3	-15.2888E-3
412.706E-6	471.355E-15	46.9153E-3	-3.22724E-3	498.036E-15	37.3270E-3	-15.0163E-3
407.704E-6	508.098E-15	49.9651E-3	-1.26998E-3	475.218E-15	32.1521E-3	-14.8123E-3
402.701E-6	506.066E-15	44.3413E-3	-223.066E-6	447.856E-15	24.3622E-3	-16.0828E-3
397.699E-6	509.153E-15	24.5177E-3	-4.91462E-3	465.417E-15	16.7869E-3	-21.5891E-3
392.696E-6	503.250E-15	13.8697E-3	-17.0711E-3	486.649E-15	16.9222E-3	-20.0173E-3
387.694E-6	454.021E-15	13.4400E-3	-29.1368E-3	440.733E-15	12.2495E-3	-16.0840E-3
382.691E-6	470.928E-15	10.1664E-3	-25.4884E-3	420.112E-15	2.65576E-3	-22.3135E-3
377.689E-6	449.016E-15	7.19183E-3	-14.3114E-3	426.328E-15	9.92691E-3	-21.0421E-3
372.686E-6	420.609E-15	23.7322E-3	-5.87375E-3	426.294E-15	29.8576E-3	-5.90366E-3
367.684E-6	450.080E-15	37.0083E-3	8.17284E-3	384.798E-15	29.5265E-3	-6.44531E-3
362.681E-6	377.779E-15	17.2840E-3	11.8332E-3	403.004E-15	14.4261E-3	-11.1910E-3
357.679E-6	432.528E-15	5.26807E-3	-1.89751E-3	374.082E-15	10.1765E-3	-10.5681E-3
352.676E-6	375.974E-15	14.0935E-3	-9.67283E-3	423.102E-15	4.07887E-3	-25.6262E-3
347.674E-6	388.740E-15	9.72689E-3	-9.15414E-3	396.099E-15	1.86969E-3	-37.2039E-3
342.671E-6	316.020E-15	2.66494E-3	-10.2322E-3	385.853E-15	16.8563E-3	-20.4953E-3
337.669E-6	336.520E-15	1.84446E-3	-8.81036E-3	353.827E-15	23.0449E-3	-9.07835E-3
332.666E-6	391.608E-15	1.43763E-3	-11.9238E-3	314.852E-15	14.5462E-3	-16.5562E-3
327.664E-6	318.793E-15	14.3139E-3	-19.6787E-3	324.975E-15	22.4553E-3	-14.5315E-3
322.661E-6	318.619E-15	24.5600E-3	-21.6863E-3	358.126E-15	41.1826E-3	-18.5250E-3
317.659E-6	306.089E-15	19.4587E-3	-25.4008E-3	327.669E-15	42.0488E-3	-26.8404E-3
312.656E-6	301.503E-15	24.7035E-3	-28.2414E-3	317.302E-15	36.2056E-3	-21.7712E-3
307.654E-6	314.870E-15	40.2142E-3	-16.1525E-3	254.706E-15	45.3600E-3	-24.7624E-3
302.651E-6	294.754E-15	38.4864E-3	-13.6060E-3	327.608E-15	44.5840E-3	-31.0913E-3
297.649E-6	275.031E-15	26.5290E-3	-28.4446E-3	297.134E-15	25.9319E-3	-17.3221E-3
292.646E-6	292.147E-15	23.1372E-3	-15.7004E-3	255.648E-15	19.7949E-3	-1.76145E-3
287.644E-6	312.315E-15	22.2607E-3	9.10154E-3	234.024E-15	19.2028E-3	-8.24908E-3
282.641E-6	233.161E-15	14.3810E-3	6.31161E-3	217.144E-15	24.9313E-3	-17.9676E-3
277.639E-6	245.743E-15	4.32210E-3	-4.11597E-3	238.026E-15	39.3657E-3	-18.3725E-3
272.636E-6	260.156E-15	528.050E-6	-9.58164E-3	238.698E-15	39.5641E-3	-22.4734E-3
267.634E-6	211.180E-15	6.34117E-3	-16.5626E-3	137.850E-15	34.7190E-3	-16.2622E-3
262.631E-6	255.125E-15	19.1434E-3	-21.5277E-3	224.067E-15	35.2725E-3	-8.18258E-3
257.629E-6	254.410E-15	26.1836E-3	-24.4655E-3	210.412E-15	30.0766E-3	-15.7537E-3
252.626E-6	168.228E-15	16.0243E-3	-29.3143E-3	240.633E-15	23.2134E-3	-10.9387E-3
247.624E-6	166.702E-15	9.44022E-3	-28.7780E-3	163.145E-15	17.1186E-3	-5.51840E-3
242.621E-6	188.309E-15	11.9129E-3	-21.0632E-3	150.188E-15	11.4016E-3	-15.4581E-3
237.619E-6	199.731E-15	6.64839E-3	-21.4649E-3	233.649E-15	7.79408E-3	-9.77567E-3
232.616E-6	111.108E-15	5.35702E-3	-25.3369E-3	177.479E-15	14.7097E-3	-7.93533E-3
227.614E-6	156.283E-15	7.53823E-3	-19.6614E-3	113.619E-15	26.4632E-3	-30.1674E-3
222.611E-6	177.244E-15	3.58888E-3	-16.4515E-3	149.508E-15	30.0493E-3	-31.0890E-3
217.609E-6	170.469E-15	10.3367E-3	-20.9427E-3	119.095E-15	30.6066E-3	-5.68153E-3
212.606E-6	119.801E-15	24.5139E-3	-15.8428E-3	114.046E-15	25.6149E-3	-3.71155E-3
207.604E-6	93.9136E-15	31.9793E-3	-9.61404E-3	164.243E-15	20.0131E-3	-25.9114E-3
202.601E-6	106.565E-15	39.4233E-3	-15.5351E-3	128.721E-15	22.3120E-3	-28.8178E-3
197.599E-6	83.6073E-15	41.9177E-3	-16.5118E-3	94.2275E-15	24.3846E-3	-14.6707E-3
192.596E-6	113.593E-15	32.2299E-3	-11.8944E-3	84.9850E-15	23.5322E-3	-13.2972E-3
187.594E-6	62.7159E-15	23.7809E-3	-19.3175E-3	84.6537E-15	27.3368E-3	-15.6497E-3
182.591E-6	81.7414E-15	29.2518E-3	-21.8715E-3	120.202E-15	30.9531E-3	-11.7210E-3
177.589E-6	119.853E-15	31.8345E-3	-20.5790E-3	51.7993E-15	22.2852E-3	-11.4221E-3
172.586E-6	73.2837E-15	27.0721E-3	-33.1174E-3	35.9040E-15	17.2000E-3	-5.24664E-3
167.584E-6	42.7399E-15	30.6926E-3	-36.3443E-3	44.7541E-15	23.3512E-3	-2.04249E-3
162.581E-6	-7.25657E-15	27.7746E-3	-18.0266E-3	74.5218E-15	26.9806E-3	-17.8179E-3
157.579E-6	77.4951E-15	16.3132E-3	-9.53887E-3	59.6641E-15	27.0699E-3	-22.2444E-3
152.576E-6	31.9978E-15	19.7726E-3	-19.7532E-3	-48.7954E-15	26.5362E-3	-14.9747E-3
147.574E-6	42.7748E-15	25.2773E-3	-22.8066E-3	-9.90724E-15	20.5372E-3	-19.9412E-3
142.571E-6	61.4341E-15	18.4944E-3	-19.8839E-3	33.7155E-15	3.88260E-3	-17.4985E-3
137.569E-6	-36.7104E-15	21.1892E-3	-15.5579E-3	28.2049E-15	3.62916E-3	-9.77309E-3
132.566E-6	-17.7285E-15	28.0248E-3	-13.2984E-3	-56.6514E-15	17.4003E-3	-18.0845E-3
127.564E-6	-5.25985E-15	15.9357E-3	-20.9227E-3	-18.3998E-15	19.3254E-3	-29.5250E-3
122.561E-6	-2.86204E-15	3.46424E-3	-29.2797E-3	7.48778E-15	26.4409E-3	-26.8595E-3
117.559E-6	-3.05386E-15	10.4940E-3	-27.5418E-3	5.07253E-15	25.0427E-3	-20.3682E-3
112.556E-6	-45.5866E-15	23.1988E-3	-14.2315E-3	-76.0432E-15	4.42591E-3	-30.1072E-3
107.554E-6	-22.3410E-15	28.2271E-3	-1.17409E-3	-51.5855E-15	2.45015E-3	-40.2884E-3
102.551E-6	-37.4777E-15	25.4747E-3	-1.35738E-3	-26.2647E-15	11.4903E-3	-37.5520E-3
97.5488E-6	-37.1376E-15	18.3691E-3	-9.27341E-3	-71.2301E-15	5.70643E-3	-31.1049E-3
92.5463E-6	-110.903E-15	20.1810E-3	-12.7956E-3	-26.1252E-15	3.12607E-3	-22.9741E-3
87.5438E-6	-55.5528E-15	26.0621E-3	-10.4393E-3	-87.0731E-15	11.6629E-3	-24.1016E-3
82.5413E-6	-74.5260E-15	21.1439E-3	-7.67947E-3	-102.628E-15	19.9857E-3	-22.8517E-3
77.5388E-6	-17.5018E-15	24.3712E-3	-5.79905E-3	-74.5260E-15	17.1508E-3	-11.8448E-3
72.5363E-6	-71.2650E-15	33.8393E-3	-565.211E-6	-75.9211E-15	3.49876E-3	-12.5645E-3
67.5338E-6	-105.009E-15	28.7267E-3	1.67259E-3	-74.7789E-15	-7.07092E-3	-22.9201E-3
62.5313E-6	-67.3762E-15	23.4318E-3	-11.6866E-3	-117.669E-15	369.158E-6	-27.8979E-3
57.5288E-6	-117.617E-15	25.8501E-3	-24.6625E-3	-113.990E-15	14.1858E-3	-28.1112E-3
52.5263E-6	-117.730E-15	23.1649E-3	-22.2022E-3	-90.0377E-15	11.0242E-3	-25.6230E-3
47.5238E-6	-164.378E-15	19.2794E-3	-23.9599E-3	-107.511E-15	6.56986E-3	-17.9287E-3
42.5213E-6	-99.0273E-15	22.0961E-3	-25.5050E-3	-132.318E-15	6.82921E-3	-18.3690E-3
37.5188E-6	-104.817E-15	16.6749E-3	-12.7626E-3	-159.478E-15	6.68604E-3	-25.1527E-3
32.5163E-6	-106.561E-15	3.93499E-3	-8.57122E-3	-176.699E-15	12.7043E-3	-18.9221E-3
27.5138E-6	-182.384E-15	4.70910E-3	-14.3044E-3	-80.5685E-15	24.2721E-3	-17.6215E-3
22.5113E-6	-165.346E-15	10.7296E-3	-17.6051E-3	-155.938E-15	26.1471E-3	-28.6273E-3
17.5088E-6	-129.998E-15	15.2189E-3	-18.1891E-3	-167.177E-15	12.7811E-3	-21.4457E-3
12.5063E-6	-149.128E-15	13.9926E-3	-8.30857E-3	-154.857E-15	14.8183E-3	-10.0074E-3
7.50375E-6	-111.539E-15	2.12578E-3	2.83888E-3	-146.983E-15	26.6843E-3	-20.9977E-3
2.50125E-6	-189.830E-15	112.261E-6	-4.91224E-3	-133.425E-15	28.1068E-3	-29.0840E-3
-2.50125E-6	-188.653E-15	13.1344E-3	-14.3502E-3	-233.793E-15	28.1407E-3	-19.6766E-3
-7.50375E-6	-156.993E-15	16.2774E-3	-5.47303E-3	-208.062E-15	16.0774E-3	-25.6346E-3
-12.5063E-6	-152.817E-15	4.85787E-3	-1.40186E-3	-153.941E-15	5.23179E-3	-35.5812E-3
-17.5088E-6	-192.202E-15	7.88666E-3	-9.95581E-3	-194.233E-15	14.1814E-3	-25.7741E-3
-22.5113E-6	-236.417E-15	20.4595E-3	-19.9413E-3	-236.435E-15	26.9374E-3	-21.7964E-3
-27.5138E-6	-212.683E-15	16.2376E-3	-28.3748E-3	-223.042E-15	33.7396E-3	-14.3993E-3
-32.5163E-6	-151.875E-15	15.3401E-3	-22.0944E-3	-217.828E-15	33.6661E-3	2.48365E-3
-37.5188E-6	-181.372E-15	24.8506E-3	-7.48467E-3	-202.804E-15	28.3988E-3	674.630E-6
-42.5213E-6	-209.344E-15	23.4159E-3	-9.89637E-3	-222.074E-15	22.9670E-3	-7.42950E-3
-47.5238E-6	-249.985E-15	28.0962E-3	-24.7414E-3	-248.747E-15	18.6749E-3	-646.144E-6
-52.5263E-6	-220.112E-15	31.2275E-3	-22.4274E-3	-284.478E-15	14.4374E-3	-727.574E-6
-57.5288E-6	-256.829E-15	16.7576E-3	-10.7452E-3	-251.694E-15	5.94459E-3	-13.9538E-3
-62.5313E-6	-292.884E-15	14.1893E-3	-7.97477E-3	-285.211E-15	2.45863E-3	-15.4975E-3
-67.5338E-6	-267.624E-15	21.5787E-3	-12.2056E-3	-224.847E-15	19.5381E-3	-12.8892E-3
-72.5363E-6	-244.561E-15	15.6686E-3	-28.5168E-3	-297.880E-15	27.3101E-3	-18.3009E-3
-77.5388E-6	-283.188E-15	10.3694E-3	-39.9164E-3	-270.737E-15	13.6248E-3	-20.2212E-3
-82.5413E-6	-277.642E-15	14.8073E-3	-28.1842E-3	-313.304E-15	16.2758E-3	-18.1103E-3
-87.5438E-6	-337.492E-15	18.7997E-3	-13.9081E-3	-253.464E-15	34.2930E-3	-16.4405E-3
-92.5463E-6	-338.294E-15	21.0977E-3	-8.92930E-3	-267.240E-15	45.4222E-3	-11.8380E-3
-97.5488E-6	-300.313E-15	21.2431E-3	-6.78578E-3	-355.410E-15	49.5268E-3	-7.00266E-3
-102.551E-6	-328.188E-15	16.1553E-3	-8.34828E-3	-323.689E-15	37.5449E-3	-8.33332E-3
-107.554E-6	-305.038E-15	12.6986E-3	-15.9969E-3	-281.985E-15	21.7252E-3	-12.0598E-3
-112.556E-6	-357.607E-15	20.3494E-3	-10.6838E-3	-387.471E-15	24.3824E-3	-19.2189E-3
-117.559E-6	-352.001E-15	28.1300E-3	3.81699E-3	-364.007E-15	27.9457E-3	-36.5437E-3
-122.561E-6	-364.583E-15	28.4575E-3	1.54192E-3	-357.276E-15	23.2151E-3	-36.0115E-3
-127.564E-6	-372.848E-15	32.9186E-3	-3.87875E-3	-299.310E-15	18.4301E-3	-15.5951E-3
-132.566E-6	-392.231E-15	41.5884E-3	-1.84166E-3	-325.912E-15	12.3747E-3	-17.8940E-3
-137.569E-6	-434.651E-15	44.6056E-3	-4.11833E-3	-425.670E-15	10.9640E-3	-29.9955E-3
-142.571E-6	-406.976E-15	37.5544E-3	-13.9797E-3	-410.647E-15	14.6613E-3	-27.0745E-3
-147.574E-6	-396.478E-15	24.6644E-3	-11.0841E-3	-389.755E-15	22.7627E-3	-14.8072E-3
-152.576E-6	-434.869E-15	17.0746E-3	724.548E-6	-421.075E-15	34.3019E-3	-3.30833E-3
-157.579E-6	-480.314E-15	24.7536E-3	-5.67124E-3	-439.429E-15	30.3257E-3	-8.02554E-3
-162.581E-6	-425.435E-15	33.3991E-3	-22.0388E-3	-447.887E-15	17.4814E-3	-27.6451E-3
-167.584E-6	-425.286E-15	28.8522E-3	-29.8847E-3	-462.265E-15	22.3610E-3	-37.4788E-3
-172.586E-6	-435.331E-15	28.4114E-3	-29.8899E-3	-438.104E-15	33.0656E-3	-28.6721E-3
-177.589E-6	-470.531E-15	31.9937E-3	-26.5550E-3	-489.914E-15	26.5921E-3	-21.8874E-3
-182.591E-6	-510.910E-15	28.9645E-3	-19.4018E-3	-516.072E-15	13.5208E-3	-24.8464E-3
-187.594E-6	-457.670E-15	28.9826E-3	-14.1082E-3	-455.865E-15	16.2843E-3	-35.2208E-3
-192.596E-6	-507.893E-15	27.5432E-3	-6.77318E-3	-528.104E-15	36.2268E-3	-51.3329E-3
-197.599E-6	-534.513E-15	16.2402E-3	-620.745E-6	-500.098E-15	41.6883E-3	-49.9754E-3
-202.601E-6	-571.849E-15	13.7039E-3	-7.97223E-3	-542.788E-15	30.1211E-3	-20.8221E-3
-207.604E-6	-549.327E-15	25.5859E-3	-12.9217E-3	-533.859E-15	30.7476E-3	-4.02013E-3
-212.606E-6	-541.925E-15	29.4652E-3	-7.73828E-3	-587.091E-15	36.8096E-3	-18.7007E-3
-217.609E-6	-599.036E-15	33.6489E-3	-103.158E-6	-582.958E-15	43.1000E-3	-20.2490E-3
-222.611E-6	-628.577E-15	48.1775E-3	5.06971E-3	-555.239E-15	54.0974E-3	-10.6742E-3
-227.614E-6	-650.070E-15	45.8001E-3	-3.67691E-3	-613.257E-15	49.4432E-3	-10.2382E-3
-232.616E-6	-709.710E-15	36.7954E-3	-14.2860E-3	-674.711E-15	36.5056E-3	-230.303E-6
-237.619E-6	-636.747E-15	42.4359E-3	-11.9329E-3	-630.103E-15	37.0126E-3	4.21195E-3
-242.621E-6	-614.391E-15	44.9814E-3	-14.2696E-3	-629.806E-15	41.9119E-3	-12.1429E-3
-247.624E-6	-660.010E-15	44.6166E-3	-29.2828E-3	-637.741E-15	48.2905E-3	-18.2810E-3
-252.626E-6	-752.609E-15	47.8494E-3	-27.4717E-3	-699.482E-15	56.4107E-3	-7.80219E-3
-257.629E-6	-665.992E-15	36.9106E-3	-1.54607E-3	-691.905E-15	57.3479E-3	-9.71827E-3
-262.631E-6	-704.130E-15	22.0863E-3	4.62428E-3	-698.497E-15	47.8775E-3	-12.3021E-3
-267.634E-6	-721.821E-15	26.9282E-3	-14.9043E-3	-699.735E-15	45.5031E-3	-12.2087E-3
-272.636E-6	-796.084E-15	31.6417E-3	-21.4278E-3	-722.371E-15	55.8502E-3	-20.6798E-3
-277.639E-6	-774.486E-15	33.0683E-3	-22.0876E-3	-743.061E-15	53.1732E-3	-16.8860E-3
-282.641E-6	-738.048E-15	44.6952E-3	-33.1366E-3	-794.985E-15	44.5069E-3	-9.73005E-3
-287.644E-6	-789.588E-15	49.5158E-3	-31.1624E-3	-790.320E-15	51.8173E-3	-18.9837E-3
-292.646E-6	-831.937E-15	44.9164E-3	-17.2744E-3	-812.982E-15	57.9089E-3	-12.2872E-3
-297.649E-6	-852.096E-15	48.6602E-3	-8.62107E-3	-830.263E-15	58.8460E-3	7.64932E-3
-302.651E-6	-857.712E-15	55.7391E-3	-1.71382E-3	-848.958E-15	62.3980E-3	-2.27390E-3
-307.654E-6	-863.484E-15	50.3601E-3	-7.39926E-3	-871.793E-15	53.3265E-3	-20.7565E-3
-312.656E-6	-876.781E-15	43.7886E-3	-13.8320E-3	-896.094E-15	49.6116E-3	-24.9835E-3
-317.659E-6	-913.576E-15	53.5381E-3	-2.35797E-3	-889.188E-15	53.1768E-3	-30.8368E-3
-322.661E-6	-888.325E-15	57.7780E-3	360.770E-6	-886.974E-15	38.0966E-3	-34.9598E-3
-327.664E-6	-957.365E-15	55.3271E-3	-12.4045E-3	-905.677E-15	33.2678E-3	-25.8824E-3
-332.666E-6	-924.057E-15	63.7949E-3	-18.4005E-3	-964.209E-15	46.6088E-3	-18.0447E-3
-337.669E-6	-983.924E-15	64.6728E-3	-16.5055E-3	-914.501E-15	46.8133E-3	-21.8545E-3
-342.671E-6	-1.00471E-12	57.3594E-3	-23.7680E-3	-949.761E-15	37.2971E-3	-31.9279E-3
-347.674E-6	-988.423E-15	60.4851E-3	-27.2766E-3	-1.03335E-12	48.4461E-3	-36.4995E-3
-352.676E-6	-984.229E-15	69.8231E-3	-24.1858E-3	-979.930E-15	67.2597E-3	-27.4167E-3
-357.679E-6	-1.00269E-12	63.0634E-3	-31.7005E-3	-984.194E-15	61.1214E-3	-16.9780E-3
-362.681E-6	-1.03381E-12	44.3456E-3	-32.4615E-3	-1.04934E-12	51.8563E-3	-14.8749E-3
-367.684E-6	-1.05724E-12	38.6026E-3	-22.1960E-3	-1.10435E-12	59.0545E-3	-23.5262E-3
-372.686E-6	-1.06681E-12	44.4496E-3	-13.7397E-3	-1.10114E-12	63.8298E-3	-22.0950E-3
-377.689E-6	-1.06013E-12	55.3913E-3	-5.92001E-3	-1.07015E-12	64.5391E-3	-6.20108E-3
-382.691E-6	-1.16285E-12	67.3856E-3	-7.41300E-3	-1.13321E-12	59.2677E-3	-9.02932E-3
-387.694E-6	-1.17450E-12	63.8444E-3	-18.2075E-3	-1.16424E-12	54.3219E-3	-23.2194E-3
-392.696E-6	-1.11808E-12	53.3663E-3	-16.6341E-3	-1.17312E-12	69.2178E-3	-26.2323E-3
-397.699E-6	-1.12215E-12	58.5588E-3	-6.69557E-3	-1.18899E-12	79.2955E-3	-22.4087E-3
-402.701E-6	-1.15207E-12	68.3212E-3	-13.3471E-3	-1.22067E-12	73.6792E-3	-22.9702E-3
-407.704E-6	-1.23078E-12	58.6800E-3	-26.8005E-3	-1.19560E-12	64.9533E-3	-32.6401E-3
-412.706E-6	-1.24038E-12	42.6603E-3	-28.0428E-3	-1.20692E-12	51.8363E-3	-50.3626E-3
-417.709E-6	-1.24707E-12	41.6971E-3	-22.4818E-3	-1.22087E-12	38.6413E-3	-51.0484E-3
-422.711E-6	-1.20867E-12	54.0955E-3	-13.9833E-3	-1.25898E-12	33.4656E-3	-21.5290E-3
-427.714E-6	-1.24522E-12	62.5370E-3	-12.4699E-3	-1.25624E-12	39.6166E-3	-3.13981E-3
-432.716E-6	-1.29359E-12	60.0890E-3	-18.8121E-3	-1.22965E-12	47.1112E-3	-16.7521E-3
-437.719E-6	-1.30509E-12	57.5113E-3	-26.1793E-3	-1.28984E-12	49.4758E-3	-28.8601E-3
-442.721E-6	-1.28995E-12	57.4003E-3	-27.2501E-3	-1.29200E-12	54.8190E-3	-26.0185E-3
-447.724E-6	-1.34007E-12	52.1286E-3	-22.6089E-3	-1.32206E-12	58.8631E-3	-21.1417E-3
-452.726E-6	-1.42330E-12	47.7825E-3	-17.8378E-3	-1.32692E-12	57.5788E-3	-26.9368E-3
-457.729E-6	-1.37442E-12	54.3299E-3	-4.57833E-3	-1.38942E-12	54.8320E-3	-36.1643E-3
-462.731E-6	-1.40563E-12	56.0758E-3	2.75690E-3	-1.42744E-12	46.9914E-3	-24.3322E-3
-467.734E-6	-1.45413E-12	55.9483E-3	-11.0984E-3	-1.41962E-12	49.6238E-3	-11.2034E-3
-472.736E-6	-1.51700E-12	62.1629E-3	-24.6503E-3	-1.34881E-12	55.8151E-3	-16.7117E-3
-477.739E-6	-1.50211E-12	60.7295E-3	-16.6877E-3	-1.47813E-12	42.3614E-3	-18.8046E-3
-482.741E-6	-1.52869E-12	51.3807E-3	-1.72260E-3	-1.49170E-12	29.6874E-3	-13.2963E-3
-487.744E-6	-1.55737E-12	43.3457E-3	-211.548E-6	-1.54641E-12	26.9183E-3	-16.8747E-3
-492.746E-6	-1.53103E-12	35.4690E-3	-10.4214E-3	-1.47622E-12	29.7767E-3	-21.5187E-3
-497.749E-6	-1.51691E-12	29.9968E-3	-19.9344E-3	-1.50592E-12	37.0097E-3	-16.8122E-3
-502.751E-6	-1.53579E-12	35.7489E-3	-12.8547E-3	-1.55567E-12	41.0346E-3	-17.2504E-3
-507.754E-6	-1.51352E-12	49.3656E-3	337.777E-6	-1.59388E-12	37.4909E-3	-23.9899E-3
-512.756E-6	-1.48579E-12	57.8135E-3	-2.62285E-3	-1.54851E-12	34.9917E-3	-22.0127E-3
-517.759E-6	-1.54940E-12	53.7018E-3	-8.25670E-3	-1.55812E-12	47.8733E-3	-18.9929E-3
-522.761E-6	-1.60465E-12	43.1410E-3	-11.3714E-3	-1.60067E-12	48.8051E-3	-25.0911E-3
-527.764E-6	-1.59882E-12	43.0443E-3	-15.8366E-3	-1.63633E-12	33.7916E-3	-29.5358E-3
-532.766E-6	-1.58002E-12	53.2785E-3	-10.0603E-3	-1.64261E-12	37.0198E-3	-24.1578E-3
-537.769E-6	-1.64459E-12	51.2500E-3	-5.85658E-3	-1.59394E-12	40.5451E-3	-19.8694E-3
-542.771E-6	-1.66471E-12	35.1342E-3	-13.3848E-3	-1.66454E-12	29.0160E-3	-21.3931E-3
-547.774E-6	-1.71802E-12	26.4468E-3	-18.2636E-3	-1.68894E-12	38.1267E-3	-28.2887E-3
-552.776E-6	-1.64445E-12	31.0604E-3	-8.86790E-3	-1.65807E-12	59.2573E-3	-36.2795E-3
-557.779E-6	-1.72543E-12	41.2958E-3	3.04529E-3	-1.70354E-12	52.8940E-3	-39.8556E-3
-562.781E-6	-1.75244E-12	52.8826E-3	-3.61324E-3	-1.70990E-12	38.8993E-3	-37.8540E-3
-567.784E-6	-1.76483E-12	57.0969E-3	-10.0293E-3	-1.72234E-12	38.8770E-3	-22.2581E-3
-572.786E-6	-1.74845E-12	49.4056E-3	-2.81575E-3	-1.74392E-12	34.9358E-3	-4.00675E-3
-577.789E-6	-1.79103E-12	43.5959E-3	-10.9466E-3	-1.80904E-12	32.2223E-3	-391.776E-6
-582.791E-6	-1.81701E-12	46.9262E-3	-22.8285E-3	-1.76685E-12	36.0164E-3	-15.9784E-3
-587.794E-6	-1.84327E-12	36.6817E-3	-20.4069E-3	-1.75833E-12	36.2295E-3	-29.3286E-3
-592.796E-6	-1.76219E-12	15.5570E-3	-18.8672E-3	-1.78212E-12	39.4080E-3	-22.6459E-3
-597.799E-6	-1.76676E-12	12.7957E-3	-17.2502E-3	-1.85843E-12	39.6249E-3	-20.2725E-3
-602.801E-6	-1.78827E-12	22.9432E-3	-18.9298E-3	-1.81663E-12	29.0123E-3	-29.0644E-3
-607.804E-6	-1.79544E-12	31.6454E-3	-25.6615E-3	-1.82489E-12	25.9901E-3	-30.4739E-3
-612.806E-6	-1.86203E-12	38.2998E-3	-22.0728E-3	-1.79565E-12	31.1550E-3	-24.9234E-3
-617.809E-6	-1.84824E-12	37.7627E-3	-11.4887E-3	-1.87429E-12	28.1757E-3	-21.3497E-3
-622.811E-6	-1.84531E-12	27.7576E-3	-7.65163E-3	-1.90084E-12	29.5736E-3	-18.7885E-3
-627.814E-6	-1.81674E-12	17.4375E-3	-5.07177E-3	-1.81281E-12	35.4560E-3	-17.7035E-3
-632.816E-6	-1.90198E-12	10.8887E-3	-4.32934E-3	-1.85311E-12	27.5951E-3	-20.4537E-3
-637.819E-6	-1.90426E-12	7.52221E-3	-12.9275E-3	-1.88990E-12	18.9069E-3	-20.9221E-3
-642.821E-6	-1.91158E-12	13.9817E-3	-13.8090E-3	-1.88565E-12	20.0245E-3	-25.4576E-3
-647.824E-6	-1.88786E-12	24.4710E-3	-5.51957E-3	-1.91263E-12	17.3740E-3	-35.5934E-3
-652.826E-6	-1.94268E-12	34.7953E-3	-11.8904E-3	-1.88906E-12	9.47267E-3	-35.5190E-3
-657.829E-6	-1.97249E-12	48.4663E-3	-21.9386E-3	-1.87775E-12	12.0681E-3	-27.5824E-3
-662.831E-6	-1.98105E-12	44.6511E-3	-20.1409E-3	-1.96472E-12	17.8195E-3	-21.2653E-3
-667.834E-6	-1.92592E-12	31.0081E-3	-17.5138E-3	-1.95565E-12	21.9645E-3	-14.9007E-3
-672.836E-6	-1.96224E-12	30.2357E-3	-14.4173E-3	-1.93459E-12	36.6563E-3	-15.6496E-3
-677.839E-6	-2.02156E-12	33.0804E-3	-12.3961E-3	-1.95497E-12	44.4626E-3	-28.8143E-3
-682.841E-6	-1.99649E-12	33.4485E-3	-16.5984E-3	-1.98929E-12	32.8563E-3	-29.3013E-3
-687.844E-6	-1.95741E-12	34.6293E-3	-27.1354E-3	-1.99928E-12	29.0515E-3	-17.1658E-3
-692.846E-6	-1.97250E-12	41.1627E-3	-29.9950E-3	-1.99692E-12	41.8456E-3	-20.8545E-3
-697.849E-6	-2.06119E-12	38.6779E-3	-24.4267E-3	-1.99086E-12	47.4423E-3	-21.6416E-3
-702.851E-6	-2.07026E-12	24.7519E-3	-20.6321E-3	-2.00776E-12	48.5777E-3	-10.3338E-3
-707.854E-6	-2.02992E-12	20.0579E-3	-8.91399E-3	-1.99458E-12	53.5971E-3	-9.91939E-3
-712.856E-6	-2.03486E-12	21.5081E-3	-3.35116E-3	-2.10108E-12	46.5083E-3	-19.7788E-3
-717.859E-6	-2.08105E-12	24.7178E-3	-19.8648E-3	-2.05962E-12	36.9294E-3	-28.8102E-3
-722.861E-6	-2.12013E-12	30.0803E-3	-22.2377E-3	-2.04960E-12	43.0892E-3	-33.4183E-3
-727.864E-6	-2.16666E-12	32.8567E-3	-6.10899E-3	-2.12481E-12	49.3883E-3	-31.4873E-3
-732.866E-6	-2.20713E-12	32.2871E-3	-14.2046E-3	-2.14237E-12	44.1752E-3	-22.5401E-3
-737.869E-6	-2.17991E-12	26.4973E-3	-31.1211E-3	-2.12124E-12	28.3931E-3	-21.5302E-3
-742.871E-6	-2.16967E-12	17.8517E-3	-32.4824E-3	-2.12688E-12	12.6867E-3	-24.4823E-3
-747.874E-6	-2.26115E-12	18.3536E-3	-29.4925E-3	-2.09136E-12	20.9849E-3	-16.5158E-3
-752.876E-6	-2.23160E-12	26.1579E-3	-20.7592E-3	-2.21181E-12	49.2227E-3	-8.27128E-3
-757.879E-6	-2.24671E-12	25.8736E-3	-13.4609E-3	-2.19715E-12	56.7067E-3	-13.6667E-3
-762.881E-6	-2.25601E-12	30.3332E-3	-17.4568E-3	-2.18039E-12	40.9427E-3	-11.9278E-3
-767.884E-6	-2.28947E-12	40.4225E-3	-20.0996E-3	-2.22343E-12	41.2026E-3	371.600E-6
-772.886E-6	-2.29995E-12	38.9731E-3	-14.3732E-3	-2.25315E-12	48.1581E-3	-5.91928E-3
-777.889E-6	-2.32180E-12	30.8140E-3	-14.2855E-3	-2.24742E-12	37.2272E-3	-11.4016E-3
-782.891E-6	-2.34915E-12	37.3584E-3	-16.5913E-3	-2.28880E-12	30.8366E-3	-4.24067E-3
-787.894E-6	-2.36428E-12	57.4965E-3	-15.4577E-3	-2.28727E-12	44.4605E-3	-7.06314E-3
-792.896E-6	-2.34286E-12	64.0364E-3	-22.5550E-3	-2.33389E-12	56.6013E-3	-12.1614E-3
-797.899E-6	-2.35436E-12	51.0155E-3	-31.4056E-3	-2.32493E-12	65.7014E-3	-10.3576E-3
-802.901E-6	-2.40122E-12	40.3298E-3	-25.6605E-3	-2.36638E-12	75.7414E-3	-8.11967E-3
-807.904E-6	-2.48187E-12	46.4939E-3	-11.4150E-3	-2.34283E-12	73.6291E-3	-7.53857E-3
-812.906E-6	-2.46102E-12	52.7950E-3	-9.78105E-3	-2.37730E-12	67.1617E-3	-10.1684E-3
-817.909E-6	-2.43613E-12	57.1552E-3	-12.2089E-3	-2.43898E-12	64.8081E-3	-20.3918E-3
-822.911E-6	-2.45805E-12	59.9087E-3	-2.42997E-3	-2.45424E-12	58.3770E-3	-22.8759E-3
-827.914E-6	-2.47992E-12	60.4687E-3	4.85781E-3	-2.44786E-12	59.7718E-3	-9.25866E-3
-832.916E-6	-2.51178E-12	61.1462E-3	1.31199E-3	-2.52776E-12	71.2180E-3	-10.1862E-3
-837.919E-6	-2.51809E-12	57.3705E-3	-4.23635E-3	-2.54446E-12	68.9208E-3	-20.3346E-3
-842.921E-6	-2.50410E-12	62.0929E-3	-10.7604E-3	-2.51559E-12	64.7712E-3	-13.5214E-3
-847.924E-6	-2.58770E-12	72.1276E-3	-12.7448E-3	-2.55519E-12	78.6480E-3	-5.68883E-3
-852.926E-6	-2.60752E-12	73.9712E-3	-10.9498E-3	-2.60966E-12	86.1802E-3	-12.8165E-3
-857.929E-6	-2.57373E-12	76.0856E-3	-10.1022E-3	-2.60657E-12	79.2038E-3	-20.8985E-3
-862.931E-6	-2.64931E-12	85.7905E-3	-7.86299E-3	-2.67168E-12	79.8485E-3	-22.7939E-3
-867.934E-6	-2.70560E-12	92.4353E-3	-11.9114E-3	-2.67145E-12	87.2931E-3	-22.2329E-3
-872.936E-6	-2.67287E-12	88.6038E-3	-23.1473E-3	-2.70134E-12	93.0598E-3	-18.0489E-3
-877.939E-6	-2.74274E-12	75.9045E-3	-24.3337E-3	-2.74481E-12	97.2908E-3	-15.3056E-3
-882.941E-6	-2.77990E-12	71.1662E-3	-13.2846E-3	-2.75859E-12	99.6621E-3	-17.3712E-3
-887.944E-6	-2.89346E-12	75.9205E-3	-16.8978E-3	-2.80316E-12	105.064E-3	-18.1526E-3
-892.946E-6	-2.90106E-12	81.4179E-3	-29.0607E-3	-2.83401E-12	117.362E-3	-24.9368E-3
-897.949E-6	-2.91693E-12	93.0399E-3	-22.3773E-3	-2.91259E-12	120.673E-3	-37.0668E-3
-902.951E-6	-3.01199E-12	95.2234E-3	-11.6567E-3	-2.94595E-12	114.941E-3	-34.4101E-3
-907.954E-6	-3.03290E-12	94.1609E-3	-11.5174E-3	-3.02617E-12	124.069E-3	-31.4770E-3
-912.956E-6	-3.08710E-12	105.496E-3	-8.87394E-3	-3.00151E-12	134.027E-3	-35.4201E-3
-917.959E-6	-3.09660E-12	115.339E-3	-1.34885E-3	-3.04635E-12	134.022E-3	-27.4219E-3
-922.961E-6	-3.15669E-12	120.098E-3	-5.08271E-3	-3.05942E-12	140.574E-3	-20.9894E-3
-927.964E-6	-3.12576E-12	123.875E-3	-15.3081E-3	-3.13319E-12	144.015E-3	-24.0370E-3
-932.966E-6	-3.16379E-12	127.051E-3	-14.8795E-3	-3.15930E-12	143.914E-3	-20.7492E-3
-937.969E-6	-3.15494E-12	135.414E-3	-11.5853E-3	-3.18374E-12	149.234E-3	-13.7127E-3
-942.971E-6	-3.21724E-12	145.440E-3	-8.51356E-3	-3.25282E-12	157.627E-3	-7.67474E-3
-947.974E-6	-3.24503E-12	142.036E-3	-12.1831E-3	-3.27387E-12	166.520E-3	-3.22675E-3
-952.976E-6	-3.32003E-12	126.794E-3	-30.3156E-3	-3.33067E-12	171.195E-3	-6.26794E-3
-957.979E-6	-3.33237E-12	121.257E-3	-35.0062E-3	-3.35983E-12	175.862E-3	-15.7207E-3
-962.981E-6	-3.33690E-12	129.708E-3	-23.8937E-3	-3.49054E-12	180.173E-3	-20.0215E-3
-967.984E-6	-3.42895E-12	142.242E-3	-15.6439E-3	-3.48750E-12	183.018E-3	-14.7529E-3
-972.986E-6	-3.52289E-12	151.447E-3	-5.16523E-3	-3.54055E-12	179.376E-3	-11.6333E-3
-977.989E-6	-3.63738E-12	152.247E-3	-668.954E-6	-3.64770E-12	172.191E-3	-11.2567E-3
-982.991E-6	-3.69647E-12	155.114E-3	-18.3983E-3	-3.70836E-12	183.597E-3	-5.72515E-3
-987.994E-6	-3.76145E-12	173.470E-3	-39.9267E-3	-3.79793E-12	205.443E-3	-7.58435E-3
-992.997E-6	-3.86702E-12	187.086E-3	-38.4678E-3	-3.84766E-12	213.643E-3	-22.6981E-3
-997.999E-6	-3.94675E-12	184.332E-3	-24.1739E-3	-3.94880E-12	212.158E-3	-28.4059E-3
-1.00300E-3	-4.03671E-12	195.862E-3	-11.6025E-3	-3.96130E-12	210.317E-3	-24.8105E-3
-1.00800E-3	-4.05421E-12	214.349E-3	-247.201E-6	-4.04108E-12	205.352E-3	-26.9863E-3
-1.01301E-3	-4.08879E-12	217.377E-3	-2.08142E-3	-4.15678E-12	209.482E-3	-28.6684E-3
-1.01801E-3	-4.22063E-12	217.374E-3	-13.5924E-3	-4.25426E-12	239.624E-3	-26.2664E-3
-1.02301E-3	-4.30230E-12	217.161E-3	-13.4994E-3	-4.23928E-12	266.331E-3	-31.8676E-3
-1.02801E-3	-4.34247E-12	220.357E-3	-9.95524E-3	-4.29579E-12	261.972E-3	-33.3898E-3
-1.03302E-3	-4.38614E-12	242.306E-3	-13.4111E-3	-4.39503E-12	250.425E-3	-20.4656E-3
-1.03802E-3	-4.41320E-12	263.106E-3	-17.5240E-3	-4.51079E-12	257.590E-3	-21.0159E-3
-1.04302E-3	-4.57390E-12	266.298E-3	-22.2421E-3	-4.51992E-12	280.131E-3	-29.5672E-3
-1.04802E-3	-4.64345E-12	270.163E-3	-27.1279E-3	-4.57248E-12	299.650E-3	-26.5833E-3
-1.05303E-3	-4.73564E-12	276.872E-3	-18.7386E-3	-4.71617E-12	305.143E-3	-20.8282E-3
-1.05803E-3	-4.82445E-12	280.149E-3	-11.4504E-3	-4.89833E-12	310.295E-3	-15.2203E-3
-1.06303E-3	-4.98388E-12	276.468E-3	-14.0078E-3	-4.97044E-12	326.397E-3	-12.2090E-3
-1.06803E-3	-5.14901E-12	274.191E-3	-9.95015E-3	-4.98153E-12	345.032E-3	-14.5867E-3
-1.07304E-3	-5.22794E-12	282.206E-3	-7.97478E-3	-5.14962E-12	347.400E-3	-13.0511E-3
-1.07804E-3	-5.38191E-12	295.224E-3	-8.34102E-3	-5.36225E-12	342.871E-3	-12.7946E-3
-1.08304E-3	-5.53775E-12	306.837E-3	-1.90833E-3	-5.44603E-12	354.850E-3	-23.8128E-3
-1.08804E-3	-5.69297E-12	315.616E-3	-4.81563E-3	-5.48903E-12	369.207E-3	-31.6556E-3
-1.09305E-3	-5.80547E-12	329.932E-3	-17.3382E-3	-5.71421E-12	376.697E-3	-25.2527E-3
-1.09805E-3	-5.89956E-12	341.040E-3	-15.5312E-3	-5.83852E-12	391.419E-3	-18.7687E-3
-1.10305E-3	-6.03021E-12	349.038E-3	-9.70977E-3	-5.93199E-12	405.904E-3	-18.1271E-3
-1.10805E-3	-6.09819E-12	369.659E-3	-20.0604E-3	-6.06033E-12	415.272E-3	-15.2235E-3
-1.11306E-3	-6.19717E-12	390.310E-3	-31.6233E-3	-6.17332E-12	424.479E-3	-22.5151E-3
-1.11806E-3	-6.35643E-12	400.409E-3	-23.7043E-3	-6.31281E-12	424.226E-3	-33.3335E-3
-1.12306E-3	-6.40609E-12	404.480E-3	-14.5504E-3	-6.40434E-12	436.532E-3	-22.4504E-3
-1.12806E-3	-6.54354E-12	412.741E-3	-22.0802E-3	-6.53839E-12	477.792E-3	-2.45789E-3
-1.13307E-3	-6.70540E-12	420.930E-3	-26.1489E-3	-6.67267E-12	495.410E-3	5.84544E-3
-1.13807E-3	-6.84500E-12	415.260E-3	-19.9562E-3	-6.78275E-12	483.728E-3	755.877E-6
-1.14307E-3	-6.99856E-12	422.301E-3	-20.1998E-3	-6.94395E-12	493.425E-3	-10.3843E-3
-1.14807E-3	-7.10477E-12	445.883E-3	-24.9961E-3	-7.13435E-12	511.440E-3	-20.2396E-3
-1.15308E-3	-7.26757E-12	449.068E-3	-25.2369E-3	-7.32873E-12	523.657E-3	-23.2281E-3
-1.15808E-3	-7.44361E-12	447.256E-3	-22.2610E-3	-7.44785E-12	557.475E-3	-22.7452E-3
-1.16308E-3	-7.78950E-12	470.764E-3	-16.2792E-3	-7.63492E-12	593.830E-3	-25.2074E-3
-1.16808E-3	-7.91226E-12	504.190E-3	-13.9283E-3	-7.94143E-12	606.352E-3	-21.0764E-3
-1.17309E-3	-8.12589E-12	532.382E-3	-10.3599E-3	-8.16980E-12	611.438E-3	-13.8958E-3
-1.17809E-3	-8.29926E-12	548.243E-3	-8.63253E-3	-8.30304E-12	613.030E-3	-15.6839E-3
-1.18309E-3	-8.58846E-12	552.170E-3	-14.5911E-3	-8.44725E-12	622.911E-3	-11.9028E-3
-1.18809E-3	-8.73086E-12	562.108E-3	-18.3326E-3	-8.70001E-12	647.398E-3	-3.38283E-3
-1.19310E-3	-8.82272E-12	579.229E-3	-21.3204E-3	-8.96807E-12	662.346E-3	-7.09888E-3
-1.19810E-3	-9.02893E-12	588.486E-3	-26.1192E-3	-9.06161E-12	663.241E-3	-14.0840E-3
-1.20310E-3	-9.29697E-12	600.809E-3	-28.4184E-3	-9.24296E-12	668.268E-3	-20.5405E-3
-1.20810E-3	-9.40808E-12	628.419E-3	-14.4264E-3	-9.48996E-12	686.820E-3	-32.4538E-3
-1.21311E-3	-9.55788E-12	644.115E-3	3.73809E-3	-9.82303E-12	711.701E-3	-33.2409E-3
-1.21811E-3	-9.76673E-12	648.697E-3	4.21049E-3	-9.86964E-12	730.895E-3	-22.5673E-3
-1.22311E-3	-10.0515E-12	660.654E-3	-1.98753E-3	-10.1006E-12	744.155E-3	-24.4415E-3
-1.22811E-3	-10.2622E-12	664.792E-3	-8.74559E-3	-10.3607E-12	758.653E-3	-25.7178E-3
-1.23312E-3	-10.5678E-12	674.112E-3	-13.8105E-3	-10.5695E-12	777.723E-3	-13.5358E-3
-1.23812E-3	-10.7588E-12	696.839E-3	-6.32877E-3	-10.8431E-12	796.189E-3	-12.7872E-3
-1.24312E-3	-11.0885E-12	718.078E-3	-4.22797E-3	-11.0659E-12	811.685E-3	-14.7238E-3
-1.24812E-3	-11.3873E-12	745.285E-3	-9.27411E-3	-11.3696E-12	826.505E-3	-8.38779E-3
-1.25313E-3	-11.6647E-12	771.286E-3	-5.21075E-3	-11.6395E-12	837.676E-3	-14.1044E-3
-1.25813E-3	-11.9444E-12	783.913E-3	-3.12354E-3	-11.8766E-12	844.945E-3	-29.8963E-3
-1.26313E-3	-12.3377E-12	794.690E-3	-3.74390E-3	-12.1484E-12	853.606E-3	-25.6057E-3
-1.26813E-3	-12.6137E-12	810.979E-3	-8.46887E-3	-12.5787E-12	873.628E-3	-12.5808E-3
-1.27314E-3	-12.8781E-12	827.961E-3	-17.7169E-3	-12.7197E-12	894.868E-3	-18.9602E-3
-1.27814E-3	-13.1452E-12	844.092E-3	-23.3103E-3	-13.0369E-12	916.654E-3	-17.2846E-3
-1.28314E-3	-13.5177E-12	869.175E-3	-22.1807E-3	-13.3822E-12	948.717E-3	-7.90346E-3
-1.28814E-3	-13.7152E-12	898.012E-3	-19.7151E-3	-13.6931E-12	972.382E-3	-7.65960E-3
-1.29315E-3	-13.9378E-12	910.963E-3	-21.7533E-3	-13.9851E-12	984.016E-3	-6.42790E-3
-1.29815E-3	-14.2896E-12	915.726E-3	-24.5215E-3	-14.2535E-12	1.00036E+0	-6.28399E-3
-1.30315E-3	-14.6250E-12	930.349E-3	-17.2265E-3	-14.6570E-12	1.01653E+0	-11.4892E-3
-1.30815E-3	-14.9549E-12	951.763E-3	-6.89376E-3	-15.0631E-12	1.03714E+0	-13.1785E-3
-1.31316E-3	-15.2453E-12	974.009E-3	-15.8949E-3	-15.3392E-12	1.06099E+0	-9.66629E-3
-1.31816E-3	-15.7761E-12	985.131E-3	-26.7508E-3	-15.6858E-12	1.06285E+0	-11.5275E-3
-1.32316E-3	-16.1499E-12	984.841E-3	-22.8153E-3	-16.2019E-12	1.05378E+0	-9.26590E-3
-1.32816E-3	-16.4316E-12	996.543E-3	-25.1909E-3	-16.5396E-12	1.06630E+0	298.008E-6
-1.33317E-3	-16.7855E-12	1.01749E+0	-23.8095E-3	-16.7977E-12	1.09383E+0	-11.6484E-3
-1.33817E-3	-17.2918E-12	1.03361E+0	-8.57369E-3	-17.0438E-12	1.11052E+0	-42.2169E-3
-1.34317E-3	-17.5979E-12	1.05365E+0	-7.90078E-3	-17.4873E-12	1.12406E+0	-55.4338E-3
-1.34817E-3	-17.7828E-12	1.07589E+0	-23.8231E-3	-17.7836E-12	1.13995E+0	-46.7085E-3
-1.35318E-3	-18.0086E-12	1.08715E+0	-27.9985E-3	-17.9656E-12	1.13995E+0	-23.3816E-3
-1.35818E-3	-18.4388E-12	1.09810E+0	-17.0148E-3	-18.4061E-12	1.13114E+0	-3.76386E-3
-1.36318E-3	-18.9081E-12	1.10969E+0	-396.319E-6	-18.8555E-12	1.13700E+0	-9.05532E-3
-1.36818E-3	-19.1154E-12	1.10459E+0	6.72237E-3	-19.3731E-12	1.14621E+0	-21.9811E-3
-1.37319E-3	-19.4493E-12	1.09870E+0	-8.03118E-3	-19.4691E-12	1.15453E+0	-23.1610E-3
-1.37819E-3	-19.7538E-12	1.11281E+0	-25.9792E-3	-19.8865E-12	1.17899E+0	-24.5528E-3
-1.38319E-3	-20.1290E-12	1.12941E+0	-33.8962E-3	-20.3089E-12	1.19963E+0	-28.1110E-3
-1.38819E-3	-20.4868E-12	1.14662E+0	-35.9741E-3	-20.8365E-12	1.20517E+0	-19.6365E-3
-1.39320E-3	-20.9545E-12	1.17080E+0	-24.4954E-3	-21.1639E-12	1.21852E+0	-12.5732E-3
-1.39820E-3	-21.4367E-12	1.17594E+0	-5.58986E-3	-21.5343E-12	1.23226E+0	-13.4691E-3
-1.40320E-3	-21.8304E-12	1.17223E+0	-4.70741E-3	-22.0495E-12	1.23027E+0	-9.09032E-3
-1.40820E-3	-22.3860E-12	1.18072E+0	-15.1062E-3	-22.4652E-12	1.24015E+0	-296.928E-6
-1.41321E-3	-22.9041E-12	1.18701E+0	-16.5258E-3	-22.9798E-12	1.25915E+0	-6.06481E-3
-1.41821E-3	-23.4961E-12	1.20204E+0	-21.5155E-3	-23.3262E-12	1.25631E+0	-9.30212E-3
-1.42321E-3	-23.9119E-12	1.22285E+0	-23.4448E-3	-23.9033E-12	1.24298E+0	1.96829E-3
-1.42821E-3	-24.3821E-12	1.22719E+0	-12.5418E-3	-24.2393E-12	1.23567E+0	-8.46877E-3
-1.43322E-3	-24.7145E-12	1.22355E+0	-8.86494E-3	-24.5738E-12	1.23363E+0	-24.5259E-3
-1.43822E-3	-25.1355E-12	1.22935E+0	-14.9370E-3	-24.9176E-12	1.23832E+0	-27.3441E-3
-1.44322E-3	-25.3633E-12	1.24599E+0	-24.7488E-3	-25.3681E-12	1.24589E+0	-27.8222E-3
-1.44822E-3	-25.5092E-12	1.25395E+0	-30.2714E-3	-25.5635E-12	1.24509E+0	-21.3781E-3
-1.45323E-3	-25.8482E-12	1.25675E+0	-27.6323E-3	-25.7917E-12	1.23780E+0	-6.12421E-3
-1.45823E-3	-26.1079E-12	1.25751E+0	-27.4226E-3	-26.3549E-12	1.22991E+0	2.69645E-3
-1.46323E-3	-26.2920E-12	1.24588E+0	-25.1987E-3	-26.8507E-12	1.22166E+0	-1.57983E-3
-1.46823E-3	-26.5055E-12	1.23212E+0	-10.3224E-3	-27.0399E-12	1.22341E+0	-5.78754E-3
-1.47324E-3	-27.0665E-12	1.22309E+0	-3.48160E-3	-27.4323E-12	1.23662E+0	-18.3454E-3
-1.47824E-3	-27.5193E-12	1.21297E+0	-11.4308E-3	-27.8469E-12	1.23646E+0	-23.7240E-3
-1.48324E-3	-27.9914E-12	1.20895E+0	-14.3087E-3	-28.4125E-12	1.23580E+0	-9.37527E-3
-1.48824E-3	-28.4510E-12	1.21663E+0	-16.3658E-3	-28.6062E-12	1.24991E+0	-9.41410E-3
-1.49325E-3	-29.2666E-12	1.22111E+0	-22.7864E-3	-29.1005E-12	1.25116E+0	-22.7748E-3
-1.49825E-3	-29.9697E-12	1.22884E+0	-31.1213E-3	-29.5294E-12	1.25416E+0	-21.6471E-3
-1.50325E-3	-30.5596E-12	1.25503E+0	-29.1499E-3	-30.2239E-12	1.27114E+0	-20.9796E-3
-1.50825E-3	-31.1820E-12	1.27799E+0	-17.6423E-3	-30.5893E-12	1.26803E+0	-33.5657E-3
-1.51326E-3	-31.8226E-12	1.27291E+0	-9.20587E-3	-31.1354E-12	1.25352E+0	-32.8214E-3
-1.51826E-3	-32.4568E-12	1.26446E+0	-1.76326E-3	-31.7066E-12	1.25430E+0	-21.8000E-3
-1.52326E-3	-32.6765E-12	1.26420E+0	558.001E-6	-32.0501E-12	1.26031E+0	-20.3315E-3
-1.52826E-3	-32.8977E-12	1.26326E+0	-4.89055E-3	-32.5082E-12	1.25173E+0	-17.1863E-3
-1.53327E-3	-33.3027E-12	1.26946E+0	-13.1567E-3	-32.7452E-12	1.22779E+0	-6.33609E-3
-1.53827E-3	-33.5547E-12	1.26206E+0	-18.7429E-3	-33.2885E-12	1.21146E+0	-4.91748E-3
-1.54327E-3	-33.4884E-12	1.24212E+0	-17.3440E-3	-33.4561E-12	1.21468E+0	-10.9086E-3
-1.54827E-3	-33.5414E-12	1.24189E+0	-6.82908E-3	-33.7404E-12	1.22687E+0	-12.9603E-3
-1.55328E-3	-33.7938E-12	1.24509E+0	3.89049E-3	-34.0642E-12	1.23329E+0	-17.8077E-3
-1.55828E-3	-33.9805E-12	1.22677E+0	-929.365E-6	-34.5728E-12	1.21782E+0	-15.1476E-3
-1.56328E-3	-34.2708E-12	1.21533E+0	-12.9569E-3	-35.0720E-12	1.19935E+0	-5.37709E-3
-1.56828E-3	-34.5630E-12	1.22112E+0	-21.8962E-3	-35.2876E-12	1.20246E+0	-15.7420E-3
-1.57329E-3	-35.0786E-12	1.20564E+0	-22.6799E-3	-35.6881E-12	1.20482E+0	-29.4353E-3
-1.57829E-3	-35.5171E-12	1.18347E+0	-13.0486E-3	-36.2206E-12	1.19199E+0	-25.5746E-3
-1.58329E-3	-36.0515E-12	1.18453E+0	-15.4495E-3	-36.6237E-12	1.18128E+0	-26.1730E-3
-1.58829E-3	-36.8055E-12	1.18468E+0	-29.7458E-3	-36.9771E-12	1.17285E+0	-21.7101E-3
-1.59330E-3	-37.5440E-12	1.18211E+0	-25.2735E-3	-37.6055E-12	1.16900E+0	-9.57293E-3
-1.59830E-3	-38.1202E-12	1.18419E+0	-10.4911E-3	-38.1132E-12	1.17435E+0	-20.7955E-3
-1.60330E-3	-38.7287E-12	1.18688E+0	-11.9448E-3	-38.5823E-12	1.17028E+0	-30.5959E-3
-1.60830E-3	-39.2648E-12	1.18671E+0	-24.1277E-3	-38.9181E-12	1.15806E+0	-15.5538E-3
-1.61331E-3	-39.7176E-12	1.18555E+0	-33.8097E-3	-39.2598E-12	1.14965E+0	-14.6453E-3
-1.61831E-3	-39.9635E-12	1.18815E+0	-35.5105E-3	-39.7462E-12	1.13493E+0	-28.3083E-3
-1.62331E-3	-40.2251E-12	1.18519E+0	-32.1564E-3	-39.9854E-12	1.12543E+0	-21.4995E-3
-1.62831E-3	-40.2895E-12	1.17120E+0	-25.7200E-3	-40.2736E-12	1.12839E+0	-18.7003E-3
-1.63332E-3	-40.6772E-12	1.15396E+0	-20.9355E-3	-40.6128E-12	1.12144E+0	-35.4654E-3
-1.63832E-3	-40.6080E-12	1.14248E+0	-20.3500E-3	-40.9260E-12	1.10951E+0	-33.6685E-3
-1.64332E-3	-40.9802E-12	1.12971E+0	-17.6877E-3	-41.2267E-12	1.10446E+0	-18.7461E-3
-1.64832E-3	-41.2946E-12	1.11474E+0	-6.46101E-3	-41.4120E-12	1.09899E+0	-15.5035E-3
-1.65333E-3	-41.6571E-12	1.11133E+0	-885.166E-6	-41.7453E-12	1.09185E+0	-14.8542E-3
-1.65833E-3	-41.7858E-12	1.10679E+0	-13.7391E-3	-42.2423E-12	1.09041E+0	-19.6812E-3
-1.66333E-3	-42.2318E-12	1.09738E+0	-23.1810E-3	-42.5680E-12	1.07996E+0	-28.0891E-3
-1.66833E-3	-42.8811E-12	1.09048E+0	-23.9774E-3	-42.9730E-12	1.05708E+0	-16.0642E-3
-1.67334E-3	-43.3088E-12	1.08811E+0	-21.2940E-3	-43.5005E-12	1.05032E+0	2.67746E-3
-1.67834E-3	-43.9674E-12	1.08730E+0	-14.2350E-3	-44.0946E-12	1.04558E+0	-6.13355E-3
-1.68334E-3	-44.3783E-12	1.07905E+0	-12.0967E-3	-44.3778E-12	1.04252E+0	-13.5865E-3
-1.68834E-3	-45.1065E-12	1.07954E+0	-17.9283E-3	-44.6904E-12	1.06302E+0	2.21666E-3
-1.69335E-3	-45.5852E-12	1.08892E+0	-9.95437E-3	-45.2498E-12	1.07296E+0	6.28803E-3
-1.69835E-3	-45.8954E-12	1.08545E+0	4.63906E-3	-45.6544E-12	1.05086E+0	832.990E-6
-1.70335E-3	-46.2810E-12	1.07442E+0	-5.03422E-3	-45.8425E-12	1.02739E+0	8.46052E-3
-1.70835E-3	-46.5002E-12	1.06939E+0	-6.34915E-3	-46.2679E-12	1.01938E+0	3.34693E-3
-1.71336E-3	-47.0709E-12	1.06644E+0	7.94415E-3	-46.6965E-12	1.02121E+0	-8.32608E-3
-1.71836E-3	-46.9810E-12	1.06396E+0	4.09674E-3	-46.9048E-12	1.02228E+0	-2.11593E-3
-1.72336E-3	-47.2820E-12	1.05568E+0	-7.56386E-3	-47.2034E-12	1.00551E+0	-5.31413E-3
-1.72836E-3	-47.4996E-12	1.03854E+0	-17.3144E-3	-47.5597E-12	985.999E-3	-18.9816E-3
-1.73337E-3	-47.7527E-12	1.03739E+0	-27.9636E-3	-47.7977E-12	988.447E-3	-17.6744E-3
-1.73837E-3	-47.9781E-12	1.04664E+0	-21.8668E-3	-48.2626E-12	1.00770E+0	-18.9791E-3
-1.74337E-3	-48.1301E-12	1.04013E+0	-5.44850E-3	-48.2969E-12	1.01187E+0	-29.0797E-3
-1.74837E-3	-48.7668E-12	1.02825E+0	-5.08362E-6	-48.4982E-12	998.719E-3	-18.9105E-3
-1.75338E-3	-49.0648E-12	1.02363E+0	4.14878E-3	-49.0008E-12	991.401E-3	-6.21082E-3
-1.75838E-3	-49.6321E-12	1.01392E+0	16.5486E-3	-49.4886E-12	979.940E-3	-15.9496E-3
-1.76338E-3	-49.8711E-12	997.738E-3	26.9721E-3	-49.6290E-12	963.479E-3	-23.9604E-3
-1.76838E-3	-50.4092E-12	998.917E-3	12.8409E-3	-50.0539E-12	961.559E-3	-25.3823E-3
-1.77339E-3	-50.5032E-12	1.00756E+0	-5.44658E-3	-50.6079E-12	966.382E-3	-30.7286E-3
-1.77839E-3	-50.8116E-12	1.00266E+0	-7.82969E-3	-50.7439E-12	963.862E-3	-26.1154E-3
-1.78339E-3	-50.9915E-12	984.110E-3	-10.2185E-3	-50.8189E-12	949.159E-3	-12.1469E-3
-1.78839E-3	-51.1806E-12	972.301E-3	-12.0686E-3	-51.3147E-12	931.669E-3	-4.30491E-3
-1.79340E-3	-51.2899E-12	975.890E-3	-12.6034E-3	-51.5735E-12	937.585E-3	-7.59449E-3
-1.79840E-3	-51.3199E-12	977.751E-3	-17.1258E-3	-51.7689E-12	955.082E-3	-21.4694E-3
-1.80340E-3	-51.6823E-12	967.445E-3	-21.3680E-3	-51.8779E-12	950.756E-3	-29.7177E-3
-1.80840E-3	-51.8265E-12	946.851E-3	-25.5096E-3	-52.4398E-12	932.645E-3	-24.0535E-3
-1.81341E-3	-52.2324E-12	936.201E-3	-30.6898E-3	-52.8404E-12	921.178E-3	-23.4834E-3
-1.81841E-3	-52.4980E-12	938.126E-3	-27.0114E-3	-53.2259E-12	917.999E-3	-24.4102E-3
-1.82341E-3	-53.0514E-12	933.785E-3	-12.2492E-3	-53.3719E-12	924.198E-3	-19.0034E-3
-1.82841E-3	-53.5880E-12	921.700E-3	-1.63306E-3	-53.8083E-12	923.546E-3	-22.5831E-3
-1.83342E-3	-53.9633E-12	917.034E-3	-396.100E-6	-54.0638E-12	912.436E-3	-33.1661E-3
-1.83842E-3	-54.3549E-12	918.178E-3	5.53210E-3	-54.4224E-12	914.092E-3	-24.5922E-3
-1.84342E-3	-55.0553E-12	918.760E-3	9.67400E-3	-54.7526E-12	926.718E-3	-6.18095E-3
-1.84842E-3	-55.6011E-12	933.207E-3	3.36768E-3	-54.9738E-12	927.183E-3	-9.55930E-3
-1.85343E-3	-55.8226E-12	939.029E-3	96.8980E-6	-55.2523E-12	913.766E-3	-16.9161E-3
-1.85843E-3	-56.2908E-12	924.658E-3	-2.66430E-3	-55.4936E-12	911.265E-3	-2.29054E-3
-1.86343E-3	-56.4754E-12	921.702E-3	-7.38313E-3	-55.8962E-12	911.822E-3	14.0539E-3
-1.86843E-3	-56.7246E-12	927.057E-3	-5.88416E-3	-56.3028E-12	898.694E-3	14.5536E-3
-1.87344E-3	-56.4057E-12	917.561E-3	-6.88718E-3	-56.6235E-12	896.064E-3	-1.27900E-3
-1.87844E-3	-56.5871E-12	898.025E-3	-15.0846E-3	-56.6278E-12	911.014E-3	-24.2428E-3
-1.88344E-3	-56.6359E-12	895.343E-3	-10.1929E-3	-57.2290E-12	909.029E-3	-30.2630E-3
-1.88844E-3	-56.6908E-12	909.414E-3	10.0715E-3	-57.4283E-12	888.462E-3	-18.1838E-3
-1.89345E-3	-56.5312E-12	915.408E-3	13.7260E-3	-57.8831E-12	887.521E-3	-12.9554E-3
-1.89845E-3	-56.9526E-12	895.972E-3	-2.41657E-3	-58.0333E-12	896.427E-3	-20.0575E-3
-1.90345E-3	-57.4566E-12	869.001E-3	-22.5003E-3	-58.6394E-12	898.837E-3	-25.2763E-3
-1.90845E-3	-57.7903E-12	866.194E-3	-32.7364E-3	-58.9290E-12	892.607E-3	-26.9022E-3
-1.91346E-3	-58.2329E-12	870.881E-3	-24.0675E-3	-59.3951E-12	871.344E-3	-32.3779E-3
-1.91846E-3	-58.9470E-12	866.354E-3	-23.6172E-3	-59.8832E-12	857.709E-3	-27.9977E-3
-1.92346E-3	-59.7437E-12	857.329E-3	-37.9962E-3	-60.1022E-12	869.174E-3	-4.56983E-3
-1.92846E-3	-60.2914E-12	845.657E-3	-32.4627E-3	-60.3567E-12	871.284E-3	-8.79293E-3
-1.93347E-3	-61.1188E-12	852.480E-3	-14.2124E-3	-60.4898E-12	861.357E-3	-31.2586E-3
-1.93847E-3	-61.7825E-12	882.001E-3	-6.27411E-3	-60.9895E-12	868.637E-3	-17.1926E-3
-1.94347E-3	-62.2701E-12	895.441E-3	-2.68899E-3	-61.0026E-12	874.314E-3	457.074E-6
-1.94847E-3	-62.6790E-12	875.353E-3	-7.89144E-3	-61.3568E-12	856.974E-3	-4.13464E-3
-1.95348E-3	-62.8205E-12	868.358E-3	-16.3807E-3	-61.5758E-12	835.980E-3	-12.6248E-3
-1.95848E-3	-62.8292E-12	884.423E-3	-12.7755E-3	-61.9766E-12	838.003E-3	-19.6976E-3
-1.96348E-3	-63.2588E-12	889.940E-3	-5.80813E-3	-62.2182E-12	838.636E-3	-19.4071E-3
-1.96848E-3	-62.9204E-12	880.771E-3	-6.85605E-3	-62.5527E-12	840.111E-3	-17.9545E-3
-1.97349E-3	-62.4098E-12	861.870E-3	-9.42282E-3	-62.9611E-12	859.474E-3	-17.9726E-3
-1.97849E-3	-62.6548E-12	843.098E-3	-10.2309E-3	-62.9393E-12	856.535E-3	-21.0992E-3
-1.98349E-3	-62.4155E-12	837.719E-3	-17.8817E-3	-63.3850E-12	835.503E-3	-18.7117E-3
-1.98849E-3	-62.2836E-12	840.512E-3	-30.6522E-3	-63.6957E-12	829.758E-3	-12.6044E-3
-1.99350E-3	-62.2501E-12	832.259E-3	-36.4460E-3	-63.9217E-12	821.032E-3	-16.3636E-3
-1.99850E-3	-62.9555E-12	818.227E-3	-29.8567E-3	-64.0401E-12	817.947E-3	-8.00048E-3
-2.00350E-3	-63.1637E-12	823.491E-3	-5.81201E-3	-64.6406E-12	834.064E-3	5.66668E-3
-2.00850E-3	-63.8892E-12	828.275E-3	22.4934E-3	-65.1502E-12	843.249E-3	1.77019E-3
-2.01351E-3	-64.1984E-12	823.934E-3	18.8153E-3	-65.0797E-12	843.078E-3	-2.02334E-3
-2.01851E-3	-65.0407E-12	828.211E-3	-2.45810E-3	-65.3538E-12	843.150E-3	-3.68472E-3
-2.02351E-3	-65.8811E-12	824.645E-3	-13.1189E-3	-65.8424E-12	839.232E-3	-1.72839E-3
-2.02851E-3	-66.4882E-12	820.708E-3	-20.5547E-3	-66.0627E-12	836.315E-3	11.5630E-3
-2.03352E-3	-67.1399E-12	830.758E-3	-16.9998E-3	-66.3240E-12	848.628E-3	11.1647E-3
-2.03852E-3	-67.6118E-12	847.775E-3	-4.64875E-3	-66.6052E-12	849.139E-3	-7.23416E-3
-2.04352E-3	-67.8422E-12	862.700E-3	-5.24317E-3	-66.9554E-12	820.463E-3	-17.7626E-3
-2.04852E-3	-67.8004E-12	869.882E-3	-7.28300E-3	-67.1251E-12	800.857E-3	-14.4594E-3
-2.05353E-3	-67.9738E-12	858.648E-3	2.90986E-3	-67.2789E-12	793.129E-3	-13.6221E-3
-2.05853E-3	-67.6276E-12	826.869E-3	572.467E-6	-67.3756E-12	784.770E-3	-12.7156E-3
-2.06353E-3	-67.5692E-12	813.342E-3	-13.5031E-3	-67.5291E-12	790.904E-3	-13.4838E-3
-2.06853E-3	-67.5391E-12	823.375E-3	-8.63251E-3	-67.6641E-12	806.566E-3	-16.9874E-3
-2.07354E-3	-67.5000E-12	825.057E-3	3.25142E-3	-67.5517E-12	809.797E-3	-13.0420E-3
-2.07854E-3	-67.4806E-12	819.761E-3	12.6876E-3	-68.0279E-12	818.381E-3	-11.6695E-3
-2.08354E-3	-67.7299E-12	815.263E-3	24.1400E-3	-68.3018E-12	845.352E-3	-8.95084E-3
-2.08854E-3	-67.9369E-12	813.617E-3	18.3142E-3	-68.4177E-12	848.981E-3	-2.39575E-3
-2.09355E-3	-68.0136E-12	815.437E-3	-4.52651E-3	-68.7752E-12	829.175E-3	2.00657E-3
-2.09855E-3	-68.7132E-12	809.709E-3	-9.97199E-3	-69.0541E-12	813.801E-3	6.38858E-3
-2.10355E-3	-69.5131E-12	798.723E-3	-7.17245E-3	-69.4571E-12	796.476E-3	-769.278E-6
-2.10855E-3	-69.9873E-12	795.948E-3	-13.6968E-3	-69.7079E-12	793.686E-3	-19.4175E-3
-2.11356E-3	-70.7073E-12	808.597E-3	-15.0743E-3	-70.3702E-12	807.163E-3	-41.5061E-3
-2.11856E-3	-71.6079E-12	816.834E-3	-13.5688E-3	-70.6434E-12	806.058E-3	-38.1582E-3
-2.12356E-3	-72.1565E-12	812.825E-3	-24.1202E-3	-71.0983E-12	796.643E-3	-10.9386E-3
-2.12856E-3	-72.2882E-12	812.786E-3	-33.5797E-3	-71.4809E-12	797.122E-3	-10.5819E-3
-2.13357E-3	-72.7848E-12	808.084E-3	-25.9756E-3	-71.5642E-12	796.601E-3	-19.6735E-3
-2.13857E-3	-72.9452E-12	799.948E-3	-28.0149E-3	-71.6595E-12	788.477E-3	-14.6560E-3
-2.14357E-3	-72.5454E-12	801.023E-3	-34.8652E-3	-71.6844E-12	788.731E-3	-18.6050E-3
-2.14857E-3	-72.1463E-12	803.964E-3	-28.6939E-3	-72.0174E-12	791.321E-3	-33.8787E-3
-2.15358E-3	-72.4201E-12	800.261E-3	-15.5300E-3	-72.1717E-12	791.134E-3	-39.6836E-3
-2.15858E-3	-72.6479E-12	800.211E-3	-3.60486E-3	-72.8216E-12	794.283E-3	-34.6814E-3
-2.16358E-3	-72.4449E-12	803.548E-3	-10.0153E-3	-72.7064E-12	791.010E-3	-26.3113E-3
-2.16858E-3	-72.4766E-12	801.803E-3	-23.0947E-3	-73.0169E-12	782.843E-3	-16.5783E-3
-2.17359E-3	-72.6653E-12	801.587E-3	-20.0603E-3	-73.3321E-12	785.260E-3	-25.0192E-3
-2.17859E-3	-72.9113E-12	803.576E-3	-15.5349E-3	-73.4734E-12	792.565E-3	-32.5791E-3
-2.18359E-3	-73.1046E-12	805.664E-3	-19.8061E-3	-73.4774E-12	797.624E-3	-16.1023E-3
-2.18859E-3	-72.8048E-12	798.142E-3	-21.4387E-3	-73.8390E-12	796.264E-3	-5.14766E-3
-2.19360E-3	-73.1312E-12	779.542E-3	-23.1914E-3	-74.1852E-12	784.353E-3	-1.07167E-3
-2.19860E-3	-73.2995E-12	768.225E-3	-28.5167E-3	-74.6395E-12	782.212E-3	11.2454E-3
-2.20360E-3	-73.8313E-12	766.927E-3	-32.2306E-3	-74.9082E-12	783.149E-3	19.4720E-3
-2.20860E-3	-74.3955E-12	766.871E-3	-28.1173E-3	-75.5220E-12	779.494E-3	17.1982E-3
-2.21361E-3	-74.8843E-12	762.575E-3	-21.3051E-3	-75.9263E-12	783.450E-3	22.5249E-3
-2.21861E-3	-75.3406E-12	767.602E-3	-19.9232E-3	-76.5512E-12	788.536E-3	36.7279E-3
-2.22361E-3	-75.5387E-12	790.414E-3	-15.3665E-3	-76.9012E-12	790.251E-3	14.9199E-3
-2.22861E-3	-75.6769E-12	803.114E-3	-16.9300E-3	-77.0773E-12	779.798E-3	-29.1764E-3
-2.23362E-3	-75.9904E-12	792.107E-3	-37.4985E-3	-77.4963E-12	769.043E-3	-32.8273E-3
-2.23862E-3	-76.1162E-12	781.349E-3	-41.2554E-3	-77.7029E-12	771.779E-3	-13.8851E-3
-2.24362E-3	-76.0430E-12	773.188E-3	-26.5799E-3	-77.7692E-12	763.242E-3	-10.0678E-3
-2.24862E-3	-76.4073E-12	764.241E-3	-26.0780E-3	-77.8066E-12	759.152E-3	-5.00211E-3
-2.25363E-3	-76.6763E-12	762.842E-3	-16.5548E-3	-78.5471E-12	787.223E-3	3.07939E-3
-2.25863E-3	-76.8620E-12	756.122E-3	-2.03593E-3	-78.1623E-12	803.670E-3	-2.43828E-3
-2.26363E-3	-77.4029E-12	756.193E-3	-18.7331E-3	-78.5813E-12	785.365E-3	-10.8256E-3
-2.26863E-3	-78.0048E-12	766.076E-3	-32.1001E-3	-78.5494E-12	767.559E-3	-14.0121E-3
-2.27364E-3	-78.5403E-12	769.225E-3	-19.7972E-3	-78.6270E-12	745.380E-3	-16.1030E-3
-2.27864E-3	-78.6041E-12	777.147E-3	-17.4547E-3	-78.5285E-12	723.735E-3	-5.51905E-3
-2.28364E-3	-79.0751E-12	787.712E-3	-19.5091E-3	-78.8137E-12	745.412E-3	794.268E-6
-2.28864E-3	-79.5690E-12	775.814E-3	-14.7082E-3	-78.9676E-12	768.517E-3	-5.92617E-3
-2.29365E-3	-79.8311E-12	753.739E-3	-17.9102E-3	-78.7200E-12	763.823E-3	129.081E-6
-2.29865E-3	-79.7800E-12	758.107E-3	-25.6357E-3	-79.9449E-12	771.982E-3	4.86985E-3
-2.30365E-3	-80.2056E-12	771.691E-3	-17.4357E-3	-79.9594E-12	771.471E-3	-15.4759E-3
-2.30865E-3	-80.5057E-12	765.005E-3	-7.97097E-3	-80.2336E-12	745.907E-3	-25.0139E-3
-2.31366E-3	-80.7033E-12	759.646E-3	-18.9384E-3	-80.7740E-12	734.898E-3	-7.55329E-3
-2.31866E-3	-80.4934E-12	757.669E-3	-19.7349E-3	-81.3636E-12	748.939E-3	1.31150E-3
-2.32366E-3	-81.0400E-12	744.717E-3	-3.36880E-3	-81.2848E-12	755.633E-3	-5.24767E-3
-2.32866E-3	-80.9202E-12	749.003E-3	-4.09751E-3	-81.8110E-12	749.439E-3	-12.6161E-3
-2.33367E-3	-81.6375E-12	767.516E-3	-9.04796E-3	-82.0151E-12	748.279E-3	-19.3537E-3
-2.33867E-3	-81.4027E-12	776.698E-3	-10.3490E-3	-82.2306E-12	751.231E-3	-21.3082E-3
-2.34367E-3	-81.7959E-12	777.402E-3	-30.2012E-3	-82.5527E-12	757.882E-3	-24.7288E-3
-2.34867E-3	-82.8101E-12	763.659E-3	-38.4157E-3	-82.4695E-12	758.688E-3	-29.9058E-3
-2.35368E-3	-83.2626E-12	745.917E-3	-18.1242E-3	-82.4664E-12	752.192E-3	-11.4457E-3
-2.35868E-3	-83.6515E-12	742.267E-3	-2.05597E-3	-82.8324E-12	754.436E-3	6.76549E-3
-2.36368E-3	-83.9441E-12	745.092E-3	2.50024E-3	-82.8914E-12	756.716E-3	-5.71635E-3
-2.36868E-3	-84.6860E-12	751.642E-3	7.87429E-3	-83.0194E-12	749.211E-3	-9.88941E-3
-2.37369E-3	-84.8777E-12	763.651E-3	11.5692E-3	-83.2135E-12	742.653E-3	8.81094E-3
-2.37869E-3	-85.0805E-12	779.310E-3	12.8233E-3	-83.6167E-12	745.569E-3	14.5436E-3
-2.38369E-3	-85.3204E-12	782.056E-3	23.5022E-3	-83.4793E-12	742.497E-3	1.54191E-3
-2.38869E-3	-85.2428E-12	765.201E-3	13.6306E-3	-83.7951E-12	730.012E-3	-5.51348E-3
-2.39370E-3	-85.4602E-12	754.039E-3	-20.2454E-3	-84.0083E-12	739.436E-3	-3.66711E-3
-2.39870E-3	-85.1295E-12	751.697E-3	-28.9079E-3	-84.3404E-12	755.108E-3	-11.5863E-3
-2.40370E-3	-85.4372E-12	751.682E-3	-22.6698E-3	-84.6767E-12	748.282E-3	-20.7344E-3
-2.40870E-3	-84.8341E-12	752.332E-3	-18.3430E-3	-85.2665E-12	729.311E-3	-20.1920E-3
-2.41371E-3	-85.2295E-12	747.862E-3	-11.5271E-3	-85.6273E-12	720.523E-3	-13.2940E-3
-2.41871E-3	-84.6083E-12	737.063E-3	-13.6541E-3	-85.7911E-12	733.713E-3	446.481E-6
-2.42371E-3	-85.0382E-12	732.006E-3	-21.2328E-3	-86.1091E-12	761.554E-3	-584.934E-6
-2.42871E-3	-84.8476E-12	740.975E-3	-12.6445E-3	-86.6651E-12	771.572E-3	-20.6747E-3
-2.43372E-3	-85.2330E-12	746.584E-3	-1.09571E-3	-86.9623E-12	744.236E-3	-25.2485E-3
-2.43872E-3	-85.6001E-12	739.890E-3	4.04748E-3	-87.0934E-12	718.308E-3	-21.9206E-3
-2.44372E-3	-86.1548E-12	726.443E-3	13.2739E-3	-87.5767E-12	715.246E-3	-36.8510E-3
-2.44872E-3	-87.1803E-12	712.979E-3	10.2199E-3	-87.6262E-12	718.931E-3	-40.1761E-3
-2.45373E-3	-87.7060E-12	707.680E-3	824.464E-6	-87.8458E-12	730.450E-3	-25.3849E-3
-2.45873E-3	-88.6162E-12	709.195E-3	-10.2384E-3	-88.2618E-12	740.530E-3	-25.1205E-3
-2.46373E-3	-89.1719E-12	715.648E-3	-20.8206E-3	-88.6431E-12	736.621E-3	-30.0509E-3
-2.46873E-3	-89.6587E-12	724.708E-3	-24.0931E-3	-88.7742E-12	741.827E-3	-16.4441E-3
-2.47374E-3	-90.1244E-12	735.102E-3	-30.8645E-3	-88.6959E-12	748.452E-3	3.91578E-3
-2.47874E-3	-89.8372E-12	742.118E-3	-28.8621E-3	-88.8840E-12	729.393E-3	1.41261E-3
-2.48374E-3	-90.0956E-12	739.467E-3	-7.34243E-3	-89.0166E-12	718.951E-3	-9.62420E-3
-2.48874E-3	-89.5681E-12	740.732E-3	5.93004E-3	-89.4173E-12	730.245E-3	-12.3938E-3
-2.49375E-3	-89.2909E-12	739.163E-3	-6.24525E-3	-89.3612E-12	731.965E-3	-26.7713E-3
-2.49875E-3	-88.9362E-12	719.870E-3	-14.2955E-3	-89.7006E-12	735.053E-3	-33.2798E-3
-2.50375E-3	-88.9333E-12	712.706E-3	1.13573E-3	-90.4135E-12	745.758E-3	-18.0260E-3
-2.50875E-3	-88.7294E-12	716.343E-3	11.3034E-3	-90.2121E-12	744.839E-3	-6.27092E-3
-2.51376E-3	-89.0127E-12	720.266E-3	-1.19361E-3	-90.6775E-12	736.791E-3	-1.39015E-3
-2.51876E-3	-89.0829E-12	742.943E-3	-13.4646E-3	-91.1264E-12	730.568E-3	-5.64707E-3
-2.52376E-3	-89.3824E-12	752.884E-3	-13.6283E-3	-91.5422E-12	733.660E-3	-16.2374E-3
-2.52876E-3	-90.1898E-12	735.287E-3	-13.0022E-3	-91.5460E-12	746.906E-3	-19.1577E-3
-2.53377E-3	-90.9752E-12	722.798E-3	-11.1096E-3	-91.8612E-12	738.219E-3	-13.2343E-3
-2.53877E-3	-91.7686E-12	716.294E-3	-13.5098E-3	-91.9959E-12	711.251E-3	-12.3286E-3
-2.54377E-3	-92.7882E-12	717.644E-3	-23.7367E-3	-92.2933E-12	697.837E-3	-17.5325E-3
-2.54877E-3	-93.6945E-12	743.807E-3	-29.1663E-3	-92.4339E-12	703.969E-3	-16.5480E-3
-2.55378E-3	-94.3827E-12	753.302E-3	-19.1528E-3	-92.8661E-12	716.982E-3	-17.6479E-3
-2.55878E-3	-94.9940E-12	731.424E-3	-7.45905E-3	-93.1997E-12	716.261E-3	-27.0907E-3
-2.56378E-3	-95.6069E-12	720.394E-3	-5.38254E-3	-93.3847E-12	713.013E-3	-33.6218E-3
-2.56878E-3	-95.6476E-12	716.901E-3	-9.06705E-3	-93.5246E-12	719.621E-3	-26.7883E-3
-2.57379E-3	-95.3466E-12	723.281E-3	-15.5582E-3	-93.9559E-12	722.515E-3	-12.5178E-3
-2.57879E-3	-95.7232E-12	738.384E-3	-17.8378E-3	-94.2329E-12	733.061E-3	-9.48281E-3
-2.58379E-3	-94.6046E-12	736.682E-3	-17.2968E-3	-94.1070E-12	758.212E-3	-24.5046E-3
-2.58879E-3	-94.5250E-12	721.995E-3	-11.4076E-3	-94.3991E-12	757.518E-3	-22.1078E-3
-2.59380E-3	-93.9337E-12	707.805E-3	-19.5604E-3	-94.7777E-12	735.215E-3	-12.9411E-3
-2.59880E-3	-93.6491E-12	717.491E-3	-38.4323E-3	-94.6978E-12	733.159E-3	-27.3937E-3
-2.60380E-3	-93.1852E-12	734.638E-3	-31.0779E-3	-94.9526E-12	738.788E-3	-28.5562E-3
-2.60880E-3	-93.6806E-12	738.950E-3	-21.6538E-3	-95.1587E-12	738.360E-3	-11.0630E-3
-2.61381E-3	-93.3842E-12	737.654E-3	-14.3244E-3	-95.6715E-12	732.008E-3	-10.4240E-3
-2.61881E-3	-93.8650E-12	717.224E-3	1.42116E-3	-95.7467E-12	713.817E-3	-18.8245E-3
-2.62381E-3	-94.3192E-12	701.261E-3	-6.30982E-3	-95.5252E-12	709.720E-3	-11.0918E-3
-2.62881E-3	-95.2036E-12	712.886E-3	-35.4768E-3	-96.1463E-12	728.494E-3	-3.09223E-3
-2.63382E-3	-95.4306E-12	723.674E-3	-43.9805E-3	-96.2842E-12	743.721E-3	711.722E-6
-2.63882E-3	-96.6508E-12	712.016E-3	-23.1354E-3	-96.2801E-12	732.619E-3	-1.92358E-3
-2.64382E-3	-97.2258E-12	704.812E-3	-7.44884E-3	-96.5265E-12	719.183E-3	-26.8840E-3
-2.64882E-3	-97.9925E-12	716.508E-3	-5.31206E-3	-97.2812E-12	725.987E-3	-49.0007E-3
-2.65383E-3	-98.0389E-12	728.274E-3	-12.8769E-3	-97.3049E-12	720.402E-3	-44.4619E-3
-2.65883E-3	-99.1037E-12	723.500E-3	-34.8097E-3	-98.1075E-12	706.869E-3	-35.3921E-3
-2.66383E-3	-98.6186E-12	708.669E-3	-46.4977E-3	-98.2653E-12	705.155E-3	-34.9699E-3
-2.66883E-3	-98.6375E-12	712.672E-3	-27.7173E-3	-98.7448E-12	700.167E-3	-23.9032E-3
-2.67384E-3	-98.7093E-12	725.080E-3	-3.42195E-3	-98.8054E-12	702.943E-3	-15.7488E-3
-2.67884E-3	-98.7730E-12	722.636E-3	1.22130E-3	-98.7549E-12	712.702E-3	-25.6776E-3
-2.68384E-3	-98.7372E-12	714.164E-3	-4.05676E-3	-98.9178E-12	711.045E-3	-32.7063E-3
-2.68884E-3	-98.6172E-12	720.634E-3	-7.17583E-3	-98.9948E-12	711.806E-3	-18.8595E-3
-2.69385E-3	-98.7792E-12	737.778E-3	-14.4336E-3	-99.1279E-12	707.424E-3	9.14236E-3
-2.69885E-3	-98.9583E-12	739.579E-3	-23.3094E-3	-99.0010E-12	695.875E-3	8.86872E-3
-2.70385E-3	-98.9741E-12	742.966E-3	-24.4009E-3	-99.1972E-12	704.953E-3	-12.8663E-3
-2.70885E-3	-99.3823E-12	744.782E-3	-22.7749E-3	-99.1449E-12	716.041E-3	-17.7469E-3
-2.71386E-3	-100.003E-12	721.249E-3	-19.2496E-3	-99.1724E-12	711.600E-3	-27.5653E-3
-2.71886E-3	-99.9504E-12	707.498E-3	-3.86305E-3	-99.4325E-12	716.800E-3	-41.9214E-3
-2.72386E-3	-100.368E-12	715.075E-3	9.32272E-3	-99.8805E-12	728.983E-3	-41.9244E-3
-2.72886E-3	-100.865E-12	726.051E-3	-4.13833E-3	-100.043E-12	721.075E-3	-44.3052E-3
-2.73387E-3	-101.212E-12	729.870E-3	-26.6284E-3	-100.313E-12	700.892E-3	-51.4408E-3
-2.73887E-3	-101.598E-12	715.503E-3	-25.1395E-3	-100.966E-12	711.049E-3	-46.7997E-3
-2.74387E-3	-102.079E-12	704.367E-3	-23.5034E-3	-101.359E-12	730.799E-3	-24.9180E-3
-2.74887E-3	-102.163E-12	716.891E-3	-34.1606E-3	-101.367E-12	725.121E-3	3.08448E-3
-2.75388E-3	-102.275E-12	725.897E-3	-26.8430E-3	-102.509E-12	722.655E-3	9.04166E-3
-2.75888E-3	-102.142E-12	718.021E-3	-4.50655E-3	-102.877E-12	726.649E-3	-5.65823E-3
-2.76388E-3	-102.311E-12	721.940E-3	3.80761E-3	-103.375E-12	732.901E-3	-10.1410E-3
-2.76888E-3	-102.187E-12	726.023E-3	237.000E-6	-103.291E-12	742.816E-3	-18.8392E-3
-2.77389E-3	-102.074E-12	712.039E-3	-3.47319E-3	-104.215E-12	724.800E-3	-23.8211E-3
-2.77889E-3	-102.385E-12	716.127E-3	-10.0460E-3	-103.598E-12	698.945E-3	-9.16888E-3
-2.78389E-3	-102.597E-12	742.458E-3	-16.3793E-3	-103.791E-12	693.402E-3	-12.3424E-3
-2.78889E-3	-103.027E-12	738.880E-3	-14.9527E-3	-103.231E-12	680.234E-3	-14.8657E-3
-2.79390E-3	-103.406E-12	708.875E-3	-8.41071E-3	-103.736E-12	678.360E-3	6.91647E-3
-2.79890E-3	-104.079E-12	700.452E-3	3.40938E-3	-103.846E-12	701.848E-3	4.68577E-3
-2.80390E-3	-104.384E-12	704.126E-3	24.6280E-3	-103.665E-12	713.189E-3	-21.7978E-3
-2.80890E-3	-104.814E-12	703.757E-3	25.0043E-3	-104.390E-12	711.810E-3	-26.6890E-3
-2.81391E-3	-105.111E-12	708.445E-3	6.09046E-3	-104.294E-12	710.156E-3	-15.1328E-3
-2.81891E-3	-105.444E-12	708.763E-3	-3.99572E-3	-104.878E-12	709.867E-3	-10.2452E-3
-2.82391E-3	-105.155E-12	707.250E-3	-10.7221E-3	-105.072E-12	706.230E-3	-11.7663E-3
-2.82891E-3	-105.432E-12	720.467E-3	-4.82632E-3	-105.828E-12	714.127E-3	-9.94134E-3
-2.83392E-3	-105.524E-12	725.071E-3	-1.81668E-3	-105.896E-12	727.375E-3	-17.1816E-3
-2.83892E-3	-105.162E-12	698.214E-3	-11.7970E-3	-106.348E-12	709.028E-3	-21.6925E-3
-2.84392E-3	-104.694E-12	681.060E-3	-9.36362E-3	-106.891E-12	686.561E-3	-9.24177E-3
-2.84892E-3	-105.023E-12	690.723E-3	-10.8397E-3	-107.333E-12	696.439E-3	-20.4979E-3
-2.85393E-3	-105.228E-12	686.882E-3	-17.9925E-3	-107.890E-12	717.227E-3	-39.9120E-3
-2.85893E-3	-105.185E-12	676.198E-3	-9.46572E-3	-107.699E-12	726.005E-3	-27.7443E-3
-2.86393E-3	-105.285E-12	682.123E-3	-1.66844E-3	-108.694E-12	722.859E-3	-20.7588E-3
-2.86893E-3	-106.106E-12	686.539E-3	-5.39499E-3	-108.496E-12	708.071E-3	-31.1718E-3
-2.87394E-3	-106.875E-12	687.921E-3	352.495E-6	-108.124E-12	705.874E-3	-24.2092E-3
-2.87894E-3	-107.751E-12	699.637E-3	18.5391E-3	-108.330E-12	717.552E-3	-16.2569E-3
-2.88394E-3	-108.103E-12	713.956E-3	16.6063E-3	-108.451E-12	696.471E-3	-20.6005E-3
-2.88894E-3	-108.614E-12	715.036E-3	-7.91778E-3	-108.271E-12	666.467E-3	-22.4767E-3
-2.89395E-3	-109.753E-12	706.848E-3	-21.1265E-3	-108.013E-12	672.913E-3	-29.7116E-3
-2.89895E-3	-109.907E-12	697.284E-3	-21.2354E-3	-108.073E-12	686.575E-3	-31.3720E-3
-2.90395E-3	-110.304E-12	682.179E-3	-18.8194E-3	-108.593E-12	684.763E-3	-16.2764E-3
-2.90895E-3	-110.284E-12	680.797E-3	-6.86591E-3	-109.086E-12	688.408E-3	-17.9796E-3
-2.91396E-3	-110.318E-12	702.958E-3	2.94920E-3	-109.265E-12	699.516E-3	-34.6352E-3
-2.91896E-3	-109.977E-12	710.587E-3	-18.9126E-3	-109.921E-12	699.312E-3	-30.6286E-3
-2.92396E-3	-109.720E-12	685.788E-3	-49.8702E-3	-110.403E-12	696.896E-3	-23.5128E-3
-2.92896E-3	-109.794E-12	679.575E-3	-49.0205E-3	-110.510E-12	698.353E-3	-13.1918E-3
-2.93397E-3	-109.206E-12	697.589E-3	-33.0865E-3	-110.976E-12	688.262E-3	3.25686E-3
-2.93897E-3	-108.919E-12	705.956E-3	-10.4406E-3	-111.466E-12	695.572E-3	-1.08462E-3
-2.94397E-3	-109.063E-12	700.067E-3	19.2448E-3	-111.553E-12	708.808E-3	-8.97095E-3
-2.94897E-3	-109.610E-12	695.712E-3	11.9140E-3	-111.644E-12	693.289E-3	-5.25222E-3
-2.95398E-3	-109.522E-12	696.381E-3	-16.2153E-3	-111.935E-12	684.585E-3	-4.10297E-3
-2.95898E-3	-110.585E-12	692.241E-3	-9.47484E-3	-112.319E-12	680.797E-3	-17.3465E-3
-2.96398E-3	-111.387E-12	695.503E-3	1.93985E-3	-111.838E-12	684.770E-3	-26.6084E-3
-2.96898E-3	-112.583E-12	698.255E-3	-11.1100E-3	-111.574E-12	719.888E-3	-7.57350E-3
-2.97399E-3	-113.436E-12	704.902E-3	-21.0052E-3	-111.871E-12	748.108E-3	-820.156E-6
-2.97899E-3	-114.344E-12	707.425E-3	-21.3389E-3	-112.247E-12	737.156E-3	-19.2111E-3
-2.98399E-3	-115.376E-12	701.349E-3	-20.7821E-3	-111.749E-12	713.342E-3	-12.6581E-3
-2.98899E-3	-115.553E-12	710.983E-3	-16.6349E-3	-111.767E-12	709.607E-3	6.00236E-3
-2.99400E-3	-116.069E-12	711.640E-3	-13.3823E-3	-112.174E-12	709.509E-3	1.60956E-3
-2.99900E-3	-116.066E-12	706.453E-3	-14.1941E-3	-113.036E-12	699.084E-3	-5.32834E-3
-3.00400E-3	-116.117E-12	717.373E-3	-8.68762E-3	-112.966E-12	703.882E-3	-4.98104E-3
-3.00900E-3	-115.695E-12	725.569E-3	3.89265E-3	-113.865E-12	708.711E-3	-6.97169E-3
-3.01401E-3	-115.519E-12	712.163E-3	-5.24149E-3	-114.202E-12	688.033E-3	-15.6677E-3
-3.01901E-3	-114.738E-12	688.249E-3	-27.0895E-3	-114.427E-12	677.713E-3	-33.0429E-3
-3.02401E-3	-113.950E-12	690.619E-3	-40.3665E-3	-114.610E-12	692.527E-3	-42.9094E-3
-3.02901E-3	-113.430E-12	700.508E-3	-47.5984E-3	-115.229E-12	708.120E-3	-25.7470E-3
-3.03402E-3	-112.788E-12	691.769E-3	-32.5468E-3	-115.513E-12	714.136E-3	-12.7585E-3
-3.03902E-3	-112.612E-12	681.644E-3	-6.41971E-3	-115.150E-12	705.523E-3	-28.2273E-3
-3.04402E-3	-112.763E-12	669.919E-3	-2.32294E-3	-115.236E-12	687.239E-3	-38.0779E-3
-3.04902E-3	-112.746E-12	656.858E-3	-3.96419E-3	-115.379E-12	685.780E-3	-29.8945E-3
-3.05403E-3	-113.327E-12	654.927E-3	-1.32647E-3	-115.195E-12	693.388E-3	-21.3288E-3
-3.05903E-3	-114.464E-12	660.014E-3	-25.0410E-3	-115.420E-12	676.208E-3	-13.2243E-3
-3.06403E-3	-115.194E-12	665.407E-3	-48.4868E-3	-115.574E-12	658.897E-3	-26.9904E-3
-3.06903E-3	-116.098E-12	682.704E-3	-36.4208E-3	-116.374E-12	668.166E-3	-55.0952E-3
-3.07404E-3	-116.957E-12	703.705E-3	-21.7679E-3	-116.710E-12	678.181E-3	-56.7062E-3
-3.07904E-3	-117.699E-12	721.684E-3	-25.7332E-3	-117.442E-12	683.764E-3	-36.0711E-3
-3.08404E-3	-118.202E-12	730.320E-3	-30.7710E-3	-117.510E-12	706.875E-3	-27.2655E-3
-3.08904E-3	-118.642E-12	712.078E-3	-32.4021E-3	-118.145E-12	724.311E-3	-33.3699E-3
-3.09405E-3	-118.480E-12	699.600E-3	-23.9955E-3	-118.436E-12	700.957E-3	-23.4518E-3
-3.09905E-3	-118.704E-12	696.056E-3	-14.5709E-3	-119.247E-12	685.925E-3	-4.12444E-3
-3.10405E-3	-118.357E-12	690.800E-3	-23.6934E-3	-119.359E-12	694.027E-3	-5.68426E-3
-3.10905E-3	-118.175E-12	704.137E-3	-26.5931E-3	-119.394E-12	690.947E-3	-9.44893E-3
-3.11406E-3	-118.034E-12	705.591E-3	-13.0056E-3	-119.818E-12	696.420E-3	-2.79420E-3
-3.11906E-3	-117.968E-12	685.445E-3	-2.26316E-3	-120.071E-12	711.629E-3	-6.38209E-3
-3.12406E-3	-117.848E-12	685.047E-3	-12.3061E-3	-119.709E-12	720.169E-3	-8.10617E-3
-3.12906E-3	-118.295E-12	685.979E-3	-20.8232E-3	-119.586E-12	724.678E-3	-6.42195E-3
-3.13407E-3	-118.375E-12	669.660E-3	-14.8467E-3	-119.122E-12	702.443E-3	-14.0826E-3
-3.13907E-3	-118.528E-12	667.383E-3	-27.4829E-3	-119.171E-12	669.003E-3	-12.5612E-3
-3.14407E-3	-118.992E-12	676.016E-3	-34.0240E-3	-118.656E-12	654.625E-3	-6.88666E-3
-3.14907E-3	-119.920E-12	682.565E-3	-24.5397E-3	-119.264E-12	648.300E-3	-24.6689E-3
-3.15408E-3	-120.624E-12	692.820E-3	-23.8630E-3	-119.011E-12	663.704E-3	-32.4607E-3
-3.15908E-3	-121.098E-12	694.741E-3	-9.18614E-3	-120.290E-12	692.358E-3	-21.5678E-3
-3.16408E-3	-122.151E-12	681.036E-3	10.3479E-3	-120.607E-12	702.243E-3	-30.7830E-3
-3.16908E-3	-122.494E-12	670.046E-3	11.3708E-3	-121.522E-12	696.550E-3	-39.6559E-3
-3.17409E-3	-122.851E-12	681.344E-3	7.63520E-3	-122.096E-12	694.268E-3	-22.0690E-3
-3.17909E-3	-123.347E-12	696.613E-3	593.427E-6	-122.994E-12	703.447E-3	4.86022E-3
-3.18409E-3	-123.085E-12	711.186E-3	-16.6055E-3	-123.632E-12	713.567E-3	9.99879E-3
-3.18909E-3	-122.883E-12	722.646E-3	-30.5364E-3	-123.651E-12	713.376E-3	4.65775E-3
-3.19410E-3	-122.530E-12	708.537E-3	-16.4589E-3	-124.447E-12	706.286E-3	-178.676E-6
-3.19910E-3	-122.827E-12	694.780E-3	-4.58378E-3	-124.379E-12	684.315E-3	-16.0810E-3
-3.20410E-3	-122.398E-12	695.568E-3	-25.9944E-3	-124.346E-12	658.113E-3	-17.0658E-3
-3.20910E-3	-122.345E-12	693.306E-3	-31.2816E-3	-124.025E-12	642.967E-3	-10.1058E-3
-3.21411E-3	-122.726E-12	693.669E-3	-23.8542E-3	-124.430E-12	641.004E-3	-23.9621E-3
-3.21911E-3	-122.967E-12	702.352E-3	-12.4192E-3	-123.641E-12	658.806E-3	-34.4198E-3
-3.22411E-3	-123.186E-12	703.993E-3	1.15033E-3	-123.509E-12	675.475E-3	-29.1636E-3
-3.22911E-3	-123.059E-12	692.784E-3	-11.9182E-3	-123.690E-12	669.302E-3	-17.6507E-3
-3.23412E-3	-123.697E-12	677.758E-3	-26.2521E-3	-123.461E-12	652.925E-3	-10.9556E-3
-3.23912E-3	-123.576E-12	668.656E-3	-31.6574E-3	-123.385E-12	651.183E-3	-15.8442E-3
-3.24412E-3	-124.593E-12	678.400E-3	-26.9997E-3	-123.392E-12	650.529E-3	-25.8033E-3
-3.24912E-3	-124.076E-12	697.706E-3	-17.8425E-3	-124.234E-12	660.716E-3	-30.9163E-3
-3.25413E-3	-124.831E-12	700.892E-3	-8.89958E-3	-124.495E-12	694.260E-3	-24.4765E-3
-3.25913E-3	-125.849E-12	677.195E-3	-4.07177E-3	-125.276E-12	699.908E-3	-27.9071E-3
-3.26413E-3	-126.046E-12	653.902E-3	-18.7805E-3	-125.819E-12	685.332E-3	-49.2842E-3
-3.26913E-3	-125.962E-12	661.649E-3	-12.1098E-3	-127.129E-12	698.836E-3	-57.7853E-3
-3.27414E-3	-126.329E-12	654.977E-3	11.0161E-3	-127.603E-12	719.689E-3	-47.9958E-3
-3.27914E-3	-126.746E-12	633.141E-3	-1.19742E-3	-127.868E-12	721.880E-3	-22.5771E-3
-3.28414E-3	-125.783E-12	658.094E-3	-14.0355E-3	-128.587E-12	707.188E-3	7.47429E-3
-3.28914E-3	-126.202E-12	691.770E-3	-4.62307E-3	-128.795E-12	691.357E-3	4.79710E-3
-3.29415E-3	-126.581E-12	706.567E-3	7.71144E-3	-128.443E-12	676.625E-3	-7.43133E-3
-3.29915E-3	-126.623E-12	714.150E-3	6.87498E-3	-127.747E-12	660.669E-3	-8.31812E-3
-3.30415E-3	-127.126E-12	694.144E-3	-18.0522E-3	-128.128E-12	658.216E-3	-7.00045E-3
-3.30915E-3	-127.694E-12	673.214E-3	-52.5560E-3	-127.687E-12	648.355E-3	8.39880E-3
-3.31416E-3	-128.350E-12	686.992E-3	-63.5486E-3	-127.305E-12	635.544E-3	20.4597E-3
-3.31916E-3	-128.690E-12	711.062E-3	-26.1858E-3	-127.001E-12	653.084E-3	15.1223E-3
-3.32416E-3	-129.682E-12	713.749E-3	5.45965E-3	-127.005E-12	678.281E-3	5.76867E-3
-3.32916E-3	-130.096E-12	705.121E-3	-10.9383E-3	-127.087E-12	691.568E-3	10.3626E-3
-3.33417E-3	-130.609E-12	704.613E-3	-30.1753E-3	-127.175E-12	690.901E-3	14.8515E-3
-3.33917E-3	-130.319E-12	705.684E-3	-24.5462E-3	-127.204E-12	673.088E-3	-3.58504E-3
-3.34417E-3	-130.348E-12	696.858E-3	-17.0475E-3	-127.485E-12	671.663E-3	-23.7132E-3
-3.34917E-3	-130.257E-12	683.746E-3	-9.31582E-3	-128.768E-12	683.992E-3	-23.6410E-3
-3.35418E-3	-129.866E-12	683.116E-3	-3.68820E-3	-128.988E-12	677.458E-3	-15.4234E-3
-3.35918E-3	-130.078E-12	686.449E-3	-31.7251E-3	-129.892E-12	675.285E-3	-20.6438E-3
-3.36418E-3	-129.557E-12	669.757E-3	-50.8332E-3	-130.110E-12	695.221E-3	-23.2687E-3
-3.36918E-3	-129.486E-12	647.723E-3	-38.0412E-3	-130.844E-12	704.370E-3	-12.8522E-3
-3.37419E-3	-129.198E-12	657.671E-3	-36.1446E-3	-130.856E-12	704.298E-3	-11.2919E-3
-3.37919E-3	-129.221E-12	682.025E-3	-38.2104E-3	-131.369E-12	711.359E-3	-25.1048E-3
-3.38419E-3	-129.517E-12	681.254E-3	-32.0939E-3	-132.005E-12	688.002E-3	-25.2012E-3
-3.38919E-3	-129.846E-12	672.214E-3	-26.7008E-3	-131.470E-12	665.714E-3	2.16260E-3
-3.39420E-3	-130.588E-12	669.224E-3	-11.7498E-3	-131.468E-12	689.587E-3	15.6345E-3
-3.39920E-3	-131.058E-12	668.859E-3	7.42201E-3	-131.406E-12	708.037E-3	-10.6014E-3
-3.40420E-3	-132.135E-12	674.682E-3	1.94865E-3	-131.332E-12	697.152E-3	-32.6752E-3
-3.40920E-3	-132.634E-12	684.039E-3	-10.0327E-3	-130.582E-12	677.648E-3	-19.8706E-3
-3.41421E-3	-133.368E-12	696.814E-3	-12.8069E-3	-131.145E-12	656.925E-3	-14.0071E-3
-3.41921E-3	-134.100E-12	707.007E-3	-15.6985E-3	-131.392E-12	638.195E-3	-21.6828E-3
-3.42421E-3	-134.498E-12	701.017E-3	-16.0917E-3	-132.067E-12	657.235E-3	-21.6983E-3
-3.42921E-3	-134.931E-12	687.057E-3	-4.80395E-3	-132.103E-12	681.977E-3	-22.8303E-3
-3.43422E-3	-134.907E-12	695.103E-3	18.0172E-3	-133.211E-12	672.449E-3	-23.4218E-3
-3.43922E-3	-134.854E-12	714.774E-3	20.7542E-3	-133.300E-12	673.000E-3	-22.2691E-3
-3.44422E-3	-134.557E-12	701.072E-3	6.98161E-3	-133.985E-12	685.118E-3	-21.5604E-3
-3.44922E-3	-133.824E-12	672.095E-3	-14.1329E-3	-134.647E-12	669.411E-3	-17.9068E-3
-3.45423E-3	-132.848E-12	670.750E-3	-45.4055E-3	-134.667E-12	655.630E-3	-12.0410E-3
-3.45923E-3	-132.858E-12	678.951E-3	-43.7148E-3	-135.037E-12	670.086E-3	-10.7189E-3
-3.46423E-3	-132.600E-12	673.339E-3	-10.4974E-3	-135.181E-12	682.361E-3	-3.45810E-3
-3.46923E-3	-132.069E-12	667.484E-3	6.14516E-3	-135.847E-12	685.173E-3	-2.75249E-3
-3.47424E-3	-132.304E-12	662.303E-3	7.34443E-3	-135.041E-12	688.109E-3	-19.0359E-3
-3.47924E-3	-133.006E-12	672.068E-3	4.71810E-3	-135.386E-12	683.203E-3	-18.3387E-3
-3.48424E-3	-133.128E-12	697.669E-3	-8.22768E-3	-135.250E-12	667.533E-3	-2.83170E-3
-3.48924E-3	-134.008E-12	715.219E-3	-17.8502E-3	-135.612E-12	656.725E-3	2.25992E-3
-3.49425E-3	-134.853E-12	704.356E-3	-20.2240E-3	-135.208E-12	639.148E-3	-1.21295E-3
-3.49925E-3	-136.426E-12	677.196E-3	-24.1689E-3	-135.626E-12	628.029E-3	-2.37589E-3
-3.50425E-3	-136.883E-12	693.599E-3	-24.4086E-3	-136.208E-12	646.333E-3	-4.03296E-3
-3.50925E-3	-138.254E-12	704.701E-3	-15.6170E-3	-136.622E-12	674.710E-3	-4.94134E-3
-3.51426E-3	-139.272E-12	671.984E-3	-13.7553E-3	-137.439E-12	698.175E-3	15.2924E-3
-3.51926E-3	-140.087E-12	663.230E-3	-20.2519E-3	-138.079E-12	711.432E-3	25.1166E-3
-3.52426E-3	-140.040E-12	677.480E-3	-26.9235E-3	-139.011E-12	713.229E-3	-14.6882E-3
-3.52926E-3	-139.700E-12	693.000E-3	-33.1045E-3	-139.406E-12	707.692E-3	-35.2276E-3
-3.53427E-3	-140.006E-12	710.517E-3	-31.3927E-3	-139.747E-12	710.684E-3	-16.6474E-3
-3.53927E-3	-139.023E-12	707.978E-3	-30.8799E-3	-139.931E-12	707.204E-3	-18.4824E-3
-3.54427E-3	-138.431E-12	686.388E-3	-27.3482E-3	-139.930E-12	684.546E-3	-23.6516E-3
-3.54927E-3	-137.946E-12	671.661E-3	-15.2370E-3	-139.937E-12	677.174E-3	-9.41605E-3
-3.55428E-3	-137.686E-12	659.371E-3	12.0252E-3	-139.690E-12	693.989E-3	4.69994E-3
-3.55928E-3	-137.500E-12	630.117E-3	23.1939E-3	-139.333E-12	692.909E-3	7.91868E-3
-3.56428E-3	-137.156E-12	623.675E-3	-22.1348E-3	-139.454E-12	675.128E-3	-4.48128E-3
-3.56928E-3	-138.083E-12	646.933E-3	-51.6851E-3	-139.044E-12	673.843E-3	-20.5660E-3
-3.57429E-3	-138.219E-12	648.564E-3	-32.9434E-3	-138.776E-12	668.505E-3	-25.7803E-3
-3.57929E-3	-139.508E-12	650.515E-3	-31.6160E-3	-138.754E-12	659.526E-3	-21.1742E-3
-3.58429E-3	-140.387E-12	670.735E-3	-48.7996E-3	-139.309E-12	674.967E-3	-24.2613E-3
-3.58929E-3	-141.235E-12	676.083E-3	-50.2333E-3	-139.188E-12	674.352E-3	-18.6193E-3
-3.59430E-3	-141.981E-12	666.556E-3	-46.8356E-3	-139.783E-12	656.153E-3	16.6636E-3
-3.59930E-3	-142.984E-12	672.794E-3	-30.4719E-3	-141.295E-12	677.311E-3	29.3808E-3
-3.60430E-3	-144.174E-12	682.551E-3	-21.1577E-3	-141.708E-12	706.343E-3	-5.15948E-3
-3.60930E-3	-143.870E-12	679.113E-3	-43.4711E-3	-142.356E-12	692.054E-3	-21.8099E-3
-3.61431E-3	-144.772E-12	675.099E-3	-42.4541E-3	-143.987E-12	673.124E-3	-22.5888E-3
-3.61931E-3	-144.284E-12	669.588E-3	-9.11495E-3	-144.772E-12	678.264E-3	-41.3960E-3
-3.62431E-3	-144.395E-12	671.447E-3	-1.07556E-3	-144.288E-12	679.040E-3	-41.6834E-3
-3.62931E-3	-143.737E-12	697.183E-3	-10.4258E-3	-145.393E-12	678.902E-3	-25.0916E-3
-3.63432E-3	-142.342E-12	706.267E-3	-4.12192E-3	-145.280E-12	674.167E-3	-10.2815E-3
-3.63932E-3	-142.137E-12	670.240E-3	-9.79048E-3	-144.574E-12	659.519E-3	2.94621E-3
-3.64432E-3	-141.416E-12	652.464E-3	-20.4550E-3	-144.849E-12	672.715E-3	4.86194E-3
-3.64932E-3	-142.145E-12	664.744E-3	-15.0168E-3	-144.311E-12	700.969E-3	1.98629E-3
-3.65433E-3	-141.124E-12	657.416E-3	-20.1281E-3	-143.647E-12	689.408E-3	4.80922E-3
-3.65933E-3	-141.812E-12	654.782E-3	-21.2500E-3	-142.771E-12	663.983E-3	-443.439E-6
-3.66433E-3	-141.450E-12	666.716E-3	-10.3726E-3	-142.114E-12	679.320E-3	-16.2608E-3
-3.66933E-3	-142.237E-12	661.512E-3	-17.2131E-3	-141.454E-12	693.605E-3	-34.7236E-3
-3.67434E-3	-143.060E-12	655.035E-3	-29.7034E-3	-141.933E-12	679.087E-3	-32.1950E-3
-3.67934E-3	-143.688E-12	645.634E-3	-30.7300E-3	-142.563E-12	679.092E-3	-9.63464E-3
-3.68434E-3	-143.928E-12	638.011E-3	-26.0088E-3	-142.648E-12	690.388E-3	-8.57132E-3
-3.68934E-3	-144.895E-12	661.418E-3	-25.8164E-3	-143.131E-12	691.266E-3	-32.0698E-3
-3.69435E-3	-146.267E-12	691.662E-3	-16.7791E-3	-144.703E-12	698.639E-3	-50.6324E-3
-3.69935E-3	-146.215E-12	701.206E-3	-21.4520E-3	-145.260E-12	699.626E-3	-43.2089E-3
-3.70435E-3	-146.879E-12	688.532E-3	-47.5323E-3	-145.663E-12	690.135E-3	-17.3964E-3
-3.70935E-3	-146.698E-12	673.230E-3	-37.9264E-3	-147.005E-12	698.448E-3	4.78280E-3
-3.71436E-3	-147.891E-12	665.815E-3	-14.7710E-3	-147.503E-12	714.115E-3	-6.00638E-3
-3.71936E-3	-147.095E-12	642.369E-3	-21.1423E-3	-147.737E-12	714.190E-3	-22.9456E-3
-3.72436E-3	-147.492E-12	631.560E-3	-19.6841E-3	-148.016E-12	701.650E-3	-5.90044E-3
-3.72936E-3	-146.997E-12	660.100E-3	-5.75359E-3	-149.054E-12	674.863E-3	4.55602E-3
-3.73437E-3	-147.286E-12	687.788E-3	-18.0617E-3	-148.103E-12	651.145E-3	6.06607E-3
-3.73937E-3	-147.116E-12	696.433E-3	-40.0256E-3	-148.132E-12	657.343E-3	24.4199E-3
-3.74437E-3	-147.511E-12	691.087E-3	-41.8579E-3	-147.177E-12	676.085E-3	23.5204E-3
-3.74937E-3	-148.162E-12	690.291E-3	-26.9935E-3	-147.528E-12	675.960E-3	-4.97401E-3
-3.75438E-3	-148.784E-12	699.361E-3	-16.9657E-3	-146.640E-12	658.998E-3	-21.1742E-3
-3.75938E-3	-149.045E-12	691.958E-3	-9.56931E-3	-146.081E-12	655.516E-3	-17.9342E-3
-3.76438E-3	-149.523E-12	670.835E-3	12.6953E-3	-146.469E-12	680.442E-3	4.15179E-3
-3.76938E-3	-150.620E-12	660.062E-3	21.6028E-3	-146.492E-12	709.612E-3	15.9084E-3
-3.77439E-3	-150.572E-12	656.704E-3	-6.90877E-3	-147.183E-12	702.203E-3	-9.21695E-3
-3.77939E-3	-150.409E-12	658.059E-3	-39.5319E-3	-147.731E-12	676.693E-3	-22.9800E-3
-3.78439E-3	-150.974E-12	673.382E-3	-44.0142E-3	-149.193E-12	672.615E-3	-18.4195E-3
-3.78939E-3	-151.316E-12	683.047E-3	-21.0693E-3	-149.620E-12	683.538E-3	-33.9035E-3
-3.79440E-3	-150.635E-12	675.753E-3	-479.615E-6	-150.619E-12	697.042E-3	-32.2943E-3
-3.79940E-3	-149.838E-12	681.139E-3	7.72311E-3	-151.928E-12	696.754E-3	-7.91185E-3
-3.80440E-3	-150.003E-12	702.073E-3	1.55866E-3	-151.882E-12	686.553E-3	-14.0869E-3
-3.80940E-3	-149.442E-12	697.678E-3	-34.1384E-3	-152.492E-12	704.430E-3	-25.7767E-3
-3.81441E-3	-148.874E-12	671.468E-3	-65.8742E-3	-152.500E-12	723.295E-3	-33.2310E-3
-3.81941E-3	-149.126E-12	660.309E-3	-50.3386E-3	-152.827E-12	708.829E-3	-47.5520E-3
-3.82441E-3	-150.168E-12	661.964E-3	-13.9669E-3	-152.317E-12	693.359E-3	-28.4846E-3
-3.82941E-3	-150.399E-12	677.488E-3	-11.7679E-3	-151.997E-12	697.657E-3	5.26629E-3
-3.83442E-3	-151.150E-12	684.307E-3	-30.5404E-3	-151.576E-12	682.352E-3	8.86375E-3
-3.83942E-3	-152.097E-12	639.309E-3	-27.7819E-3	-151.045E-12	650.353E-3	1.06940E-3
-3.84442E-3	-152.976E-12	607.556E-3	-7.46034E-3	-150.862E-12	651.686E-3	-12.7885E-3
-3.84942E-3	-153.836E-12	630.322E-3	12.3496E-3	-150.768E-12	673.050E-3	-24.4506E-3
-3.85443E-3	-154.463E-12	646.225E-3	13.8407E-3	-150.519E-12	666.051E-3	2.63477E-3
-3.85943E-3	-154.754E-12	660.537E-3	-2.63980E-3	-151.323E-12	627.980E-3	25.5312E-3
-3.86443E-3	-155.697E-12	698.461E-3	-20.1206E-3	-151.679E-12	630.504E-3	3.37059E-3
-3.86943E-3	-154.799E-12	726.611E-3	-36.6463E-3	-152.558E-12	668.779E-3	-23.7454E-3
-3.87444E-3	-155.081E-12	722.069E-3	-45.9368E-3	-153.090E-12	682.852E-3	-25.8015E-3
-3.87944E-3	-154.271E-12	701.965E-3	-43.4738E-3	-154.046E-12	676.037E-3	-6.01464E-3
-3.88444E-3	-153.125E-12	686.183E-3	-36.3745E-3	-154.546E-12	668.194E-3	8.97308E-3
-3.88944E-3	-152.859E-12	676.053E-3	-32.8787E-3	-154.899E-12	672.902E-3	5.03457E-3
-3.89445E-3	-152.246E-12	668.452E-3	-43.0777E-3	-155.639E-12	670.291E-3	-10.5368E-3
-3.89945E-3	-151.986E-12	665.705E-3	-53.0362E-3	-155.328E-12	660.103E-3	-22.6811E-3
-3.90445E-3	-151.381E-12	663.537E-3	-48.3186E-3	-155.888E-12	660.906E-3	-17.4160E-3
-3.90945E-3	-152.254E-12	678.408E-3	-31.3532E-3	-155.152E-12	662.964E-3	-9.48250E-3
-3.91446E-3	-152.807E-12	699.893E-3	-6.56292E-3	-155.490E-12	657.493E-3	-12.9002E-3
-3.91946E-3	-153.634E-12	688.016E-3	-4.78792E-3	-155.057E-12	655.991E-3	-18.6934E-3
-3.92446E-3	-155.394E-12	680.615E-3	-29.2578E-3	-155.122E-12	678.258E-3	-14.5372E-3
-3.92946E-3	-155.891E-12	709.788E-3	-47.7650E-3	-155.555E-12	694.118E-3	-23.6014E-3
-3.93447E-3	-157.659E-12	719.587E-3	-54.4976E-3	-155.614E-12	683.765E-3	-20.5286E-3
-3.93947E-3	-159.785E-12	693.883E-3	-46.7872E-3	-156.005E-12	678.889E-3	19.1497E-3
-3.94447E-3	-160.612E-12	688.238E-3	-22.6724E-3	-156.501E-12	679.496E-3	25.9323E-3
-3.94947E-3	-160.747E-12	686.686E-3	-20.1306E-3	-158.112E-12	660.260E-3	9.46806E-3
-3.95448E-3	-161.842E-12	686.403E-3	-42.9272E-3	-158.122E-12	649.689E-3	242.039E-6
-3.95948E-3	-162.115E-12	697.659E-3	-44.0440E-3	-159.280E-12	674.560E-3	-16.8503E-3
-3.96448E-3	-161.301E-12	680.442E-3	-33.3181E-3	-159.958E-12	682.625E-3	-14.4458E-3
-3.96948E-3	-160.230E-12	664.278E-3	-42.8531E-3	-160.602E-12	672.982E-3	-5.98734E-3
-3.97449E-3	-159.564E-12	676.957E-3	-48.5185E-3	-160.064E-12	667.244E-3	-12.3771E-3
-3.97949E-3	-158.047E-12	689.214E-3	-36.8030E-3	-160.695E-12	646.898E-3	-11.8054E-3
-3.98449E-3	-156.997E-12	683.485E-3	-25.1657E-3	-159.908E-12	644.210E-3	943.490E-6
-3.98949E-3	-156.875E-12	664.973E-3	-19.2211E-3	-158.758E-12	679.371E-3	1.29852E-3
-3.99450E-3	-155.808E-12	643.462E-3	-21.7622E-3	-158.384E-12	699.749E-3	-14.2892E-3
-3.99950E-3	-156.673E-12	630.592E-3	-14.5878E-3	-157.469E-12	692.754E-3	-23.6531E-3
-4.00450E-3	-157.525E-12	649.673E-3	-1.49057E-3	-157.288E-12	694.784E-3	-12.0962E-3
-4.00950E-3	-158.636E-12	672.374E-3	-12.9261E-3	-156.735E-12	687.222E-3	12.2566E-3
-4.01451E-3	-158.875E-12	666.512E-3	-24.5684E-3	-156.628E-12	670.721E-3	16.7607E-3
-4.01951E-3	-160.740E-12	654.964E-3	-15.8429E-3	-156.942E-12	669.789E-3	-11.0776E-3
-4.02451E-3	-161.335E-12	647.163E-3	629.621E-6	-156.666E-12	671.277E-3	-29.0389E-3
-4.02951E-3	-162.417E-12	663.542E-3	1.11345E-3	-157.570E-12	688.241E-3	-9.05553E-3
-4.03452E-3	-163.442E-12	698.511E-3	-28.5431E-3	-158.599E-12	727.267E-3	10.1358E-3
-4.03952E-3	-164.175E-12	695.529E-3	-41.0402E-3	-160.176E-12	743.533E-3	-7.25904E-3
-4.04452E-3	-164.291E-12	662.546E-3	-35.5224E-3	-161.449E-12	719.223E-3	-22.6381E-3
-4.04952E-3	-163.995E-12	663.670E-3	-37.4567E-3	-162.748E-12	705.715E-3	-3.68097E-3
-4.05453E-3	-163.479E-12	674.365E-3	-26.3058E-3	-163.751E-12	697.155E-3	-4.28156E-3
-4.05953E-3	-162.903E-12	652.340E-3	-20.1067E-3	-164.659E-12	666.622E-3	-18.1309E-3
-4.06453E-3	-160.922E-12	662.253E-3	-26.4950E-3	-164.747E-12	665.028E-3	-18.5057E-3
-4.06953E-3	-160.418E-12	686.465E-3	-32.1278E-3	-164.473E-12	686.428E-3	-39.4981E-3
-4.07454E-3	-159.075E-12	665.341E-3	-26.4937E-3	-164.195E-12	681.129E-3	-60.8821E-3
-4.07954E-3	-158.756E-12	649.475E-3	-21.0446E-3	-163.211E-12	668.236E-3	-45.1055E-3
-4.08454E-3	-158.553E-12	658.512E-3	-27.0452E-3	-161.852E-12	687.353E-3	-20.2985E-3
-4.08954E-3	-159.023E-12	664.208E-3	-21.0877E-3	-161.589E-12	699.051E-3	-18.9207E-3
-4.09455E-3	-160.299E-12	663.191E-3	-25.3014E-3	-161.219E-12	668.609E-3	-9.37033E-3
-4.09955E-3	-161.114E-12	663.785E-3	-27.3252E-3	-161.118E-12	660.117E-3	7.58875E-3
-4.10455E-3	-162.535E-12	674.782E-3	-167.803E-6	-160.628E-12	674.466E-3	4.28069E-3
-4.10955E-3	-164.026E-12	677.303E-3	15.1321E-3	-161.582E-12	666.324E-3	-8.53756E-3
-4.11456E-3	-165.481E-12	674.849E-3	695.174E-6	-162.008E-12	664.016E-3	-28.5333E-3
-4.11956E-3	-167.156E-12	686.049E-3	2.79574E-3	-162.605E-12	665.507E-3	-35.2075E-3
-4.12456E-3	-167.556E-12	689.470E-3	29.1540E-3	-164.205E-12	641.463E-3	-13.8319E-3
-4.12956E-3	-168.304E-12	677.596E-3	14.7165E-3	-165.812E-12	634.544E-3	-7.74404E-3
-4.13457E-3	-168.484E-12	667.361E-3	-20.8177E-3	-167.136E-12	663.992E-3	-18.4033E-3
-4.13957E-3	-168.697E-12	668.063E-3	-11.9355E-3	-168.051E-12	676.901E-3	-8.51688E-3
-4.14457E-3	-167.612E-12	672.771E-3	3.84914E-3	-170.289E-12	684.494E-3	10.5213E-3
-4.14957E-3	-168.092E-12	684.963E-3	-8.56663E-3	-170.642E-12	722.951E-3	28.9731E-3
-4.15458E-3	-167.163E-12	695.779E-3	-20.1785E-3	-171.176E-12	733.309E-3	39.2612E-3
-4.15958E-3	-165.997E-12	691.152E-3	-14.1552E-3	-170.424E-12	705.065E-3	14.3448E-3
-4.16458E-3	-165.182E-12	679.739E-3	-11.4115E-3	-170.136E-12	689.025E-3	-16.9579E-3
-4.16958E-3	-165.347E-12	666.188E-3	-23.5618E-3	-169.229E-12	661.291E-3	-18.1388E-3
-4.17459E-3	-165.586E-12	672.700E-3	-30.1880E-3	-167.786E-12	629.203E-3	-8.81748E-3
-4.17959E-3	-166.339E-12	687.179E-3	-27.7352E-3	-167.660E-12	641.946E-3	-4.74433E-3
-4.18459E-3	-167.251E-12	678.035E-3	-40.1934E-3	-166.523E-12	662.798E-3	-16.0870E-3
-4.18959E-3	-168.549E-12	680.250E-3	-49.8596E-3	-166.360E-12	641.834E-3	-43.5980E-3
-4.19460E-3	-169.244E-12	706.517E-3	-21.7915E-3	-165.328E-12	621.209E-3	-42.1739E-3
-4.19960E-3	-170.720E-12	718.581E-3	-3.77493E-3	-166.156E-12	636.214E-3	-8.45408E-3
-4.20460E-3	-171.641E-12	699.246E-3	-16.1300E-3	-166.486E-12	676.925E-3	642.691E-6
-4.20960E-3	-172.047E-12	670.840E-3	-13.4361E-3	-166.587E-12	696.805E-3	-27.1710E-3
-4.21461E-3	-172.113E-12	656.222E-3	4.40635E-3	-167.292E-12	666.341E-3	-53.2963E-3
-4.21961E-3	-172.026E-12	661.855E-3	16.7228E-3	-168.630E-12	648.622E-3	-43.8429E-3
-4.22461E-3	-172.313E-12	686.607E-3	15.8365E-3	-170.151E-12	667.052E-3	-35.8458E-3
-4.22961E-3	-171.469E-12	688.339E-3	8.62582E-3	-171.005E-12	687.404E-3	-53.0222E-3
-4.23462E-3	-170.411E-12	673.041E-3	-507.830E-6	-172.125E-12	700.713E-3	-40.5999E-3
-4.23962E-3	-169.334E-12	676.809E-3	-4.13615E-3	-173.252E-12	701.813E-3	-17.1216E-3
-4.24462E-3	-169.275E-12	671.471E-3	-3.15281E-3	-172.929E-12	684.419E-3	-16.0608E-3
-4.24962E-3	-167.906E-12	661.087E-3	-16.9695E-3	-172.597E-12	677.978E-3	-14.7192E-3
-4.25463E-3	-168.327E-12	662.522E-3	-31.1100E-3	-171.989E-12	700.899E-3	-19.9659E-3
-4.25963E-3	-168.072E-12	664.632E-3	-19.6621E-3	-171.435E-12	703.321E-3	-31.2239E-3
-4.26463E-3	-168.603E-12	660.972E-3	-10.4035E-3	-170.390E-12	658.482E-3	-12.8750E-3
-4.26963E-3	-169.101E-12	646.512E-3	-19.0266E-3	-169.555E-12	633.013E-3	21.1043E-3
-4.27464E-3	-170.239E-12	635.528E-3	-24.1485E-3	-170.210E-12	652.484E-3	16.5917E-3
-4.27964E-3	-171.628E-12	653.743E-3	-21.0107E-3	-169.377E-12	662.552E-3	-10.0356E-3
-4.28464E-3	-172.238E-12	669.897E-3	-15.7863E-3	-169.736E-12	663.535E-3	-32.1813E-3
-4.28964E-3	-173.376E-12	642.808E-3	-19.5343E-3	-169.589E-12	665.227E-3	-56.9955E-3
-4.29465E-3	-173.407E-12	616.432E-3	-39.2598E-3	-170.802E-12	653.928E-3	-66.9470E-3
-4.29965E-3	-174.761E-12	621.278E-3	-54.0592E-3	-171.578E-12	661.044E-3	-38.6151E-3
-4.30465E-3	-173.405E-12	651.847E-3	-46.9102E-3	-172.093E-12	687.853E-3	-628.436E-6
-4.30965E-3	-173.223E-12	676.161E-3	-26.9709E-3	-173.308E-12	681.525E-3	8.34122E-3
-4.31466E-3	-172.997E-12	667.135E-3	-22.4772E-3	-174.365E-12	661.421E-3	18.7829E-3
-4.31966E-3	-172.303E-12	668.321E-3	-18.5289E-3	-175.123E-12	651.690E-3	30.4237E-3
-4.32466E-3	-172.307E-12	686.422E-3	-5.29017E-3	-174.888E-12	645.553E-3	8.67254E-3
-4.32966E-3	-171.350E-12	704.513E-3	-16.9148E-3	-175.660E-12	663.806E-3	-10.2479E-3
-4.33467E-3	-171.816E-12	714.874E-3	-16.2970E-3	-175.346E-12	678.930E-3	-28.9169E-3
-4.33967E-3	-171.591E-12	711.999E-3	8.06168E-3	-174.895E-12	666.460E-3	-36.5941E-3
-4.34467E-3	-172.717E-12	706.223E-3	6.13000E-3	-174.432E-12	655.710E-3	-13.4043E-3
-4.34967E-3	-173.131E-12	681.110E-3	13.8730E-3	-173.976E-12	663.806E-3	-20.8312E-3
-4.35468E-3	-174.322E-12	654.315E-3	22.5775E-3	-173.713E-12	668.111E-3	-22.1130E-3
-4.35968E-3	-176.206E-12	662.019E-3	4.93480E-3	-172.826E-12	649.769E-3	22.8621E-3
-4.36468E-3	-177.016E-12	687.869E-3	6.81566E-3	-173.981E-12	633.414E-3	34.5736E-3
-4.36968E-3	-178.274E-12	682.968E-3	5.80803E-3	-174.223E-12	634.791E-3	14.7550E-3
-4.37469E-3	-179.642E-12	656.448E-3	-12.6714E-3	-175.109E-12	645.391E-3	21.1418E-3
-4.37969E-3	-179.607E-12	663.150E-3	-13.4133E-3	-175.456E-12	663.681E-3	20.2818E-3
-4.38469E-3	-179.505E-12	678.167E-3	-4.67700E-3	-177.111E-12	660.526E-3	-17.3229E-3
-4.38969E-3	-179.358E-12	669.514E-3	4.56738E-3	-178.348E-12	644.941E-3	-48.7853E-3
-4.39470E-3	-179.138E-12	665.470E-3	3.44413E-3	-179.466E-12	677.730E-3	-53.7373E-3
-4.39970E-3	-177.896E-12	666.519E-3	-5.89249E-3	-179.834E-12	722.779E-3	-35.3519E-3
-4.40470E-3	-177.006E-12	664.508E-3	-2.67369E-3	-180.484E-12	734.720E-3	3.83305E-3
-4.40970E-3	-176.695E-12	670.783E-3	3.32829E-3	-180.803E-12	709.077E-3	29.4992E-3
-4.41471E-3	-175.449E-12	668.144E-3	-6.26065E-3	-179.654E-12	661.566E-3	9.05686E-3
-4.41971E-3	-174.892E-12	643.846E-3	-18.3024E-3	-179.369E-12	651.110E-3	-24.4620E-3
-4.42471E-3	-174.801E-12	647.620E-3	-23.5974E-3	-178.605E-12	676.741E-3	-19.2649E-3
-4.42971E-3	-175.675E-12	674.774E-3	-44.0235E-3	-177.522E-12	676.831E-3	-2.80563E-3
-4.43472E-3	-176.156E-12	680.754E-3	-49.8763E-3	-176.852E-12	638.555E-3	2.70998E-3
-4.43972E-3	-177.899E-12	676.776E-3	-25.1130E-3	-176.132E-12	621.492E-3	10.7564E-3
-4.44472E-3	-179.022E-12	662.496E-3	-9.93350E-3	-176.587E-12	654.901E-3	3.07439E-3
-4.44972E-3	-179.797E-12	654.745E-3	-15.7912E-3	-175.146E-12	671.060E-3	-15.2503E-3
-4.45473E-3	-181.805E-12	683.785E-3	-17.3968E-3	-176.632E-12	643.366E-3	-9.77172E-3
-4.45973E-3	-182.241E-12	709.541E-3	-725.961E-6	-176.924E-12	638.116E-3	-7.37312E-3
-4.46473E-3	-183.538E-12	700.498E-3	5.25646E-3	-178.496E-12	648.374E-3	-23.7775E-3
-4.46973E-3	-183.474E-12	694.421E-3	-12.1408E-3	-179.045E-12	656.292E-3	-21.0493E-3
-4.47474E-3	-184.239E-12	692.372E-3	-15.5495E-3	-180.543E-12	690.806E-3	-15.6819E-3
-4.47974E-3	-182.369E-12	684.829E-3	-6.27622E-3	-181.807E-12	716.403E-3	-43.0104E-3
-4.48474E-3	-182.091E-12	681.664E-3	-23.5124E-3	-182.707E-12	707.216E-3	-49.5363E-3
-4.48974E-3	-180.541E-12	683.421E-3	-42.5438E-3	-183.913E-12	673.682E-3	-24.8769E-3
-4.49475E-3	-179.153E-12	701.564E-3	-30.2331E-3	-184.540E-12	642.947E-3	-20.4771E-3
-4.49975E-3	-178.294E-12	713.446E-3	-16.7879E-3	-184.641E-12	645.340E-3	-6.42290E-3
-4.50475E-3	-177.542E-12	703.830E-3	-24.7736E-3	-184.319E-12	667.605E-3	11.0811E-3
-4.50975E-3	-177.404E-12	677.615E-3	-40.3049E-3	-183.400E-12	673.779E-3	-5.28645E-3
-4.51476E-3	-177.592E-12	653.593E-3	-68.2199E-3	-182.215E-12	652.695E-3	-18.9579E-3
-4.51976E-3	-178.511E-12	651.917E-3	-82.6127E-3	-181.279E-12	652.384E-3	-9.88603E-3
-4.52476E-3	-179.170E-12	640.662E-3	-45.6786E-3	-180.590E-12	667.091E-3	-13.2533E-3
-4.52976E-3	-180.798E-12	626.979E-3	-2.10814E-3	-179.807E-12	657.579E-3	-8.70533E-3
-4.53477E-3	-182.816E-12	642.307E-3	6.67576E-3	-180.214E-12	650.361E-3	6.73912E-3
-4.53977E-3	-184.904E-12	664.998E-3	4.77838E-3	-180.014E-12	660.521E-3	-3.41466E-3
-4.54477E-3	-187.026E-12	661.294E-3	1.98430E-3	-181.180E-12	668.664E-3	-7.40509E-3
-4.54977E-3	-187.830E-12	652.224E-3	-12.7965E-3	-182.664E-12	658.800E-3	-12.3460E-3
-4.55478E-3	-188.974E-12	676.120E-3	-30.3915E-3	-183.873E-12	648.422E-3	-37.0070E-3
-4.55978E-3	-189.939E-12	693.677E-3	-54.2220E-3	-185.449E-12	665.557E-3	-49.4884E-3
-4.56478E-3	-189.714E-12	694.075E-3	-62.5791E-3	-186.830E-12	698.958E-3	-40.1276E-3
-4.56978E-3	-188.778E-12	700.777E-3	-42.5086E-3	-188.350E-12	718.986E-3	-21.5324E-3
-4.57479E-3	-188.318E-12	687.975E-3	-32.3844E-3	-189.694E-12	715.688E-3	-12.6098E-3
-4.57979E-3	-188.107E-12	683.203E-3	-38.8662E-3	-190.178E-12	694.727E-3	-3.94698E-3
-4.58479E-3	-186.139E-12	707.632E-3	-27.0414E-3	-189.923E-12	678.208E-3	-2.94075E-3
-4.58979E-3	-186.191E-12	704.804E-3	6.27696E-3	-189.616E-12	664.558E-3	-32.7393E-3
-4.59480E-3	-184.773E-12	674.847E-3	-272.191E-6	-189.158E-12	640.187E-3	-52.2921E-3
-4.59980E-3	-184.533E-12	674.007E-3	-21.9280E-3	-187.672E-12	626.781E-3	-25.9150E-3
-4.60480E-3	-184.906E-12	689.924E-3	2.01355E-3	-186.472E-12	634.044E-3	11.6859E-3
-4.60980E-3	-184.530E-12	682.574E-3	20.2800E-3	-185.066E-12	638.294E-3	25.8684E-3
-4.61481E-3	-186.239E-12	677.657E-3	15.5998E-3	-184.189E-12	633.733E-3	21.9306E-3
-4.61981E-3	-186.076E-12	680.239E-3	22.7471E-3	-183.272E-12	645.918E-3	11.3055E-3
-4.62481E-3	-188.249E-12	680.468E-3	33.2297E-3	-183.883E-12	662.360E-3	2.75141E-3
-4.62981E-3	-188.454E-12	688.308E-3	27.8402E-3	-183.234E-12	647.101E-3	10.7845E-3
-4.63482E-3	-190.183E-12	679.608E-3	5.56114E-3	-184.428E-12	629.761E-3	11.3912E-3
-4.63982E-3	-190.158E-12	660.907E-3	-22.4245E-3	-185.951E-12	640.664E-3	-14.9241E-3
-4.64482E-3	-191.039E-12	667.085E-3	-41.1959E-3	-186.991E-12	661.030E-3	-27.5381E-3
-4.64982E-3	-191.774E-12	684.780E-3	-21.2226E-3	-188.035E-12	674.372E-3	-23.1583E-3
-4.65483E-3	-191.091E-12	693.600E-3	15.7531E-3	-189.708E-12	674.769E-3	-28.8023E-3
-4.65983E-3	-191.448E-12	687.101E-3	26.3215E-3	-191.808E-12	668.214E-3	-39.1085E-3
-4.66483E-3	-189.613E-12	682.842E-3	26.8022E-3	-191.872E-12	666.343E-3	-36.3327E-3
-4.66983E-3	-189.230E-12	682.851E-3	20.7465E-3	-192.553E-12	659.349E-3	-34.8858E-3
-4.67484E-3	-188.415E-12	679.239E-3	-7.33945E-3	-192.576E-12	655.639E-3	-62.8968E-3
-4.67984E-3	-187.826E-12	682.773E-3	-33.8641E-3	-192.484E-12	666.133E-3	-81.3151E-3
-4.68484E-3	-186.572E-12	694.157E-3	-41.7252E-3	-190.937E-12	694.532E-3	-55.5325E-3
-4.68984E-3	-187.233E-12	695.037E-3	-62.5259E-3	-190.116E-12	718.824E-3	-37.9977E-3
-4.69485E-3	-187.600E-12	666.168E-3	-67.2213E-3	-189.618E-12	719.319E-3	-41.0161E-3
-4.69985E-3	-187.901E-12	634.332E-3	-26.5261E-3	-188.397E-12	716.279E-3	-31.4462E-3
-4.70485E-3	-188.453E-12	644.750E-3	2.99046E-3	-187.372E-12	700.168E-3	-21.7988E-3
-4.70985E-3	-189.591E-12	670.557E-3	-13.3889E-3	-187.809E-12	678.286E-3	-22.1175E-3
-4.71486E-3	-190.638E-12	653.305E-3	-41.5385E-3	-188.595E-12	678.645E-3	-37.1533E-3
-4.71986E-3	-190.857E-12	628.722E-3	-36.0647E-3	-188.941E-12	668.171E-3	-42.8481E-3
-4.72486E-3	-192.182E-12	652.255E-3	-27.9941E-3	-189.551E-12	640.600E-3	-34.9433E-3
-4.72986E-3	-192.389E-12	677.730E-3	-25.4721E-3	-191.914E-12	646.625E-3	-24.5710E-3
-4.73487E-3	-192.248E-12	660.715E-3	-650.024E-6	-192.890E-12	678.743E-3	-17.4965E-3
-4.73987E-3	-193.099E-12	649.438E-3	3.12417E-3	-194.169E-12	690.808E-3	-25.0563E-3
-4.74487E-3	-192.576E-12	655.752E-3	-9.35078E-3	-195.386E-12	686.636E-3	-36.8077E-3
-4.74988E-3	-192.071E-12	653.168E-3	-8.00195E-3	-196.843E-12	693.245E-3	-39.2795E-3
-4.75488E-3	-191.946E-12	655.830E-3	-14.5974E-3	-196.851E-12	685.344E-3	-28.9620E-3
-4.75988E-3	-192.092E-12	662.372E-3	-11.0383E-3	-196.708E-12	671.155E-3	-6.75670E-3
-4.76488E-3	-191.705E-12	662.428E-3	11.8034E-3	-197.195E-12	683.265E-3	10.9725E-3
-4.76988E-3	-192.094E-12	667.931E-3	14.2836E-3	-196.406E-12	685.619E-3	4.87249E-3
-4.77489E-3	-193.035E-12	682.135E-3	-20.3214E-3	-195.624E-12	682.557E-3	-16.7665E-3
-4.77989E-3	-193.905E-12	685.955E-3	-50.1222E-3	-194.915E-12	690.531E-3	-38.2659E-3
-4.78489E-3	-194.429E-12	667.725E-3	-44.5919E-3	-194.109E-12	677.791E-3	-25.4215E-3
-4.78989E-3	-195.468E-12	641.619E-3	-37.3196E-3	-193.173E-12	650.599E-3	-6.73727E-3
-4.79490E-3	-196.627E-12	645.666E-3	-37.5131E-3	-192.666E-12	644.248E-3	-26.6862E-3
-4.79990E-3	-197.708E-12	657.553E-3	-19.5479E-3	-193.132E-12	665.240E-3	-27.1812E-3
-4.80490E-3	-198.110E-12	657.662E-3	-7.30910E-3	-193.320E-12	695.734E-3	-204.747E-6
-4.80990E-3	-199.001E-12	675.265E-3	-20.4204E-3	-195.207E-12	720.694E-3	15.5874E-3
-4.81491E-3	-199.053E-12	688.450E-3	-20.0055E-3	-194.730E-12	730.878E-3	22.5592E-3
-4.81991E-3	-198.549E-12	675.619E-3	-514.222E-6	-195.792E-12	724.586E-3	-2.24382E-3
-4.82491E-3	-198.374E-12	655.099E-3	9.24075E-3	-196.960E-12	698.941E-3	-32.2188E-3
-4.82991E-3	-198.324E-12	652.404E-3	9.10232E-3	-198.213E-12	671.378E-3	-33.8378E-3
-4.83492E-3	-196.691E-12	685.232E-3	-2.71326E-3	-197.502E-12	660.759E-3	-22.5855E-3
-4.83992E-3	-195.806E-12	697.712E-3	-33.7417E-3	-198.177E-12	660.457E-3	-14.9277E-3
-4.84492E-3	-195.696E-12	658.977E-3	-35.3662E-3	-198.272E-12	667.830E-3	-20.6001E-3
-4.84992E-3	-194.851E-12	649.467E-3	728.822E-6	-197.626E-12	668.625E-3	-26.4762E-3
-4.85493E-3	-194.839E-12	670.807E-3	7.52794E-3	-196.466E-12	676.231E-3	-30.7233E-3
-4.85993E-3	-194.796E-12	676.090E-3	-28.1350E-3	-196.478E-12	680.425E-3	-27.4994E-3
-4.86493E-3	-196.196E-12	684.069E-3	-49.8161E-3	-196.180E-12	662.158E-3	-17.1334E-3
-4.86993E-3	-196.671E-12	666.296E-3	-26.3199E-3	-195.139E-12	665.937E-3	-6.61858E-3
-4.87494E-3	-198.306E-12	614.184E-3	-4.66092E-3	-195.030E-12	687.360E-3	738.438E-6
-4.87994E-3	-198.669E-12	621.118E-3	-9.54108E-3	-195.948E-12	703.887E-3	-6.01867E-3
-4.88494E-3	-200.008E-12	668.654E-3	-25.1603E-3	-195.355E-12	708.181E-3	-17.2868E-3
-4.88995E-3	-202.029E-12	692.784E-3	-29.2563E-3	-196.020E-12	680.795E-3	-33.2536E-3
-4.89495E-3	-202.953E-12	708.888E-3	-806.353E-6	-197.827E-12	668.626E-3	-47.4982E-3
-4.89995E-3	-203.202E-12	708.797E-3	26.1984E-3	-198.908E-12	687.992E-3	-19.6536E-3
-4.90495E-3	-203.910E-12	701.542E-3	23.7751E-3	-199.880E-12	682.426E-3	13.3512E-3
-4.90995E-3	-204.554E-12	703.362E-3	11.9791E-3	-200.868E-12	669.457E-3	12.2579E-3
-4.91496E-3	-202.930E-12	705.929E-3	2.25400E-3	-202.820E-12	677.150E-3	-11.3945E-3
-4.91996E-3	-202.029E-12	704.184E-3	6.05928E-3	-202.524E-12	674.919E-3	-35.4581E-3
-4.92496E-3	-201.368E-12	691.908E-3	-827.305E-6	-202.698E-12	651.135E-3	-27.5022E-3
-4.92996E-3	-199.465E-12	683.457E-3	-16.1311E-3	-203.508E-12	622.694E-3	-30.5391E-3
-4.93497E-3	-197.968E-12	686.947E-3	-10.5664E-3	-202.237E-12	618.517E-3	-39.1334E-3
-4.93997E-3	-197.570E-12	686.153E-3	-12.6738E-3	-201.757E-12	639.976E-3	-17.9083E-3
-4.94497E-3	-198.013E-12	682.116E-3	-7.98570E-3	-200.481E-12	663.983E-3	-22.6351E-3
-4.94997E-3	-197.236E-12	673.308E-3	7.45263E-3	-201.167E-12	671.562E-3	-58.5895E-3
-4.95498E-3	-198.830E-12	671.193E-3	15.4792E-3	-199.659E-12	657.207E-3	-74.9377E-3
-4.95998E-3	-199.191E-12	673.065E-3	10.0898E-3	-199.713E-12	637.393E-3	-67.1874E-3
-4.96498E-3	-201.786E-12	657.826E-3	-17.9093E-3	-199.861E-12	639.725E-3	-44.8047E-3
-4.96998E-3	-202.397E-12	652.767E-3	-28.6001E-3	-199.938E-12	670.349E-3	-20.9847E-3
-4.97499E-3	-205.490E-12	668.098E-3	-17.6798E-3	-201.201E-12	669.160E-3	-15.3641E-3
-4.97999E-3	-206.339E-12	683.394E-3	-25.4713E-3	-201.873E-12	658.122E-3	8.07313E-3
-4.98499E-3	-207.161E-12	690.449E-3	-35.5145E-3	-204.090E-12	694.071E-3	19.2398E-3
-4.98999E-3	-207.987E-12	707.005E-3	-27.8234E-3	-204.739E-12	706.095E-3	-5.01948E-3
-4.99500E-3	-208.233E-12	716.664E-3	-17.3747E-3	-206.755E-12	666.471E-3	-7.83596E-3
-5.00000E-3	-208.175E-12	683.625E-3	-8.66974E-3	-207.663E-12	648.561E-3	-2.04205E-3
